"AF3","AF4","F3","F4","F7","F8","FC5","FC6","O1","O2","P7","P8","T7","T8",
-0.51294,-29.231,468.2048,0.51294,40.5129,-71.7949,4.1023,-25.1284,-82.5642,6.1536,-9.2307,3.5896,-12.8206,8.2048,
3.0767,-30.7693,466.1538,0,36.4102,-73.3335,0,-26.6667,-83.0771,9.2305,-10.2563,8.2051,-8.7183,10.2563,
3.3333,-29.4873,468.4612,-1.282,43.8459,-73.0771,1.282,-25.3848,-77.6924,17.6921,-5.3845,11.0256,-12.5642,16.6667,
1.7949,-30.5127,472.0513,-2.8203,44.8716,-76.1538,5.8975,-24.3589,-72.5642,15.1284,-1.7949,3.8462,-14.6155,8.4614,
5.1282,-27.1794,473.3333,-2.5642,44.1023,-75.8975,9.2307,-22.0513,-62.5642,13.3333,0.51294,1.0256,-5.1282,-0.51294,
2.8206,-23.8462,469.4871,1.282,43.8459,-72.0513,10.0002,-20.7693,-56.1538,13.5896,-0.25659,0.25659,-0.25659,-2.3079,
-2.5642,-27.6921,466.1541,1.0256,45.1282,-70.2563,8.2053,-24.1025,-50.2563,9.2307,3.0769,-1.0256,-7.1794,3.0769,
-2.3079,-28.9744,469.4871,-2.3079,41.7947,-70,2.3079,-27.4358,-40.7693,8.9744,9.4871,5.3845,-10.5129,6.9231,
-2.0513,-25.6409,472.3076,-4.6152,31.2822,-72.3076,2.0513,-26.6665,-32.8203,12.3076,8.7183,11.7949,-6.1538,2.564,
-1.282,-22.3076,472.5642,-1.282,32.051,-75.6411,11.0256,-23.3333,-17.8203,18.718,7.4358,12.051,0.25659,-0.25659,
-0.51294,-25.1282,465.1282,-2.0515,39.9998,-78.9744,8.718,-25.6411,-2.8203,22.051,3.5896,4.6155,-0.51294,-2.0515,
-1.0259,-28.2051,464.6152,-8.2051,40,-77.9487,2.564,-27.6924,3.5898,17.9487,0,1.0254,-3.0771,0,
-6.667,-32.3079,466.6665,-10.2563,31.7949,-79.4873,4.1025,-26.6667,4.1025,11.2817,0,0.5127,-1.5386,0,
-11.0256,-35.1282,462.8203,-5.3848,30.5127,-83.3333,6.4102,-26.4102,19.1025,14.6152,4.3589,1.2822,-1.2822,-6.9229,
-5.6411,-29.7437,464.1025,-2.564,34.8716,-84.1025,8.2051,-27.6924,34.1025,18.9741,4.1025,2.564,-9.231,-10.2566,
-2.5642,-21.5386,469.7434,-1.0256,40.5125,-80.5129,11.282,-24.1028,34.3586,17.9485,-1.0256,4.615,-10.7695,1.0256,
-10.769,-24.6152,465.1282,-3.0769,36.4104,-78.9741,8.2053,-21.0254,27.6926,16.9231,-6.6665,3.0769,-6.6665,5.6414,
-8.2051,-24.6152,465.6411,-2.564,29.231,-73.8462,6.1538,-22.564,27.1797,20.5127,-3.5898,2.564,-5.6411,2.564,
-7.9485,-25.8975,463.3333,-2.8206,25.8972,-74.1025,3.3333,-27.4358,20.2566,20.2566,-6.4104,2.8206,-13.0769,3.8459,
-15.3845,-25.1282,458.9744,-3.5896,33.8459,-77.4358,6.1541,-26.6667,21.0256,21.5383,-9.7437,3.0769,-3.0769,3.0769,
-10.769,-21.5383,461.0259,-1.0256,42.5645,-75.8972,10.2563,-22.0513,27.6924,26.667,-3.5896,1.0256,9.7437,-4.1025,
-8.4615,-23.3334,458.7179,-1.2821,41.2819,-74.1024,13.0768,-21.7948,26.4103,25.3849,1.2821,-3.3334,6.4103,-5.8973,
-16.4102,-23.0769,451.7949,0,34.3589,-73.3333,15.8975,-22.564,27.6924,22.564,0,-3.5896,6.667,-1.5383,
-16.6665,-23.3333,447.436,-1.7949,30.5127,-74.6152,11.0259,-26.4102,24.8721,21.2822,-5.8975,1.7949,11.0259,-5.3845,
-13.5898,-27.9487,442.8206,-6.4104,37.1794,-77.1794,7.9485,-28.9744,16.6667,22.3079,-6.9231,6.4104,9.4871,-8.4617,
-11.0255,-24.8717,445.8973,-0.76917,44.8719,-71.5385,15.641,-25.3846,21.7948,24.3593,-1.2821,0.76917,12.0511,-4.359,
-6.9231,-19.7437,451.0256,2.3076,42.8206,-66.4102,17.1794,-26.4102,23.3333,19.7434,-2.8206,-2.3076,13.0769,-4.3589,
-5.3846,-21.2819,448.4615,-4.8717,38.2052,-71.0255,10.0001,-31.0255,13.0768,15.6412,-11.0255,4.8717,8.4615,-8.9742,
-5.8975,-18.2051,441.2822,-3.3335,32.564,-72.5642,7.9487,-32.0513,10.5127,16.1538,-14.6155,3.3335,5.8975,-11.0256,
-3.5898,-12.3079,440.5127,3.5898,34.3589,-62.5642,9.2305,-29.7437,20,20.5127,-8.2053,-3.5898,10.2563,-8.2053,
-6.4104,-13.0769,442.3079,4.3591,37.6921,-59.7437,8.4617,-29.4873,23.8459,22.3079,-6.9231,-4.3591,10.5129,-9.4873,
-11.0255,-13.5897,440.7692,2.3077,33.59,-64.359,11.5387,-29.9999,22.8204,23.3336,-11.5385,-2.3077,13.0768,-9.4872,
-2.0513,-11.282,435.8977,0,29.7439,-67.1794,15.3845,-27.1794,18.4617,26.6667,-12.3076,0,18.4617,-7.1794,
0.25647,-16.6666,431.5387,-2.3077,32.0514,-72.0511,14.6154,-27.4359,10.0001,23.8463,-12.0511,-0.25647,19.7438,-13.5897,
-2.5642,-16.9231,435.3848,2.0513,35.3848,-74.8718,17.436,-27.1794,12.8203,23.0767,-10.7693,-2.0513,26.6665,-19.4873,
-2.0513,-15.3845,433.3333,2.0513,29.7439,-77.9487,20.0002,-31.7947,13.8464,23.0769,-8.7178,-5.1282,29.7439,-23.0769,
-0.25635,-14.6152,426.9231,-2.3076,32.5642,-75.6409,20.7693,-33.5896,10.5129,23.3333,0.25635,-1.7949,28.9744,-17.1794,
-5.3848,-11.0256,420.7693,-2.3079,39.2307,-68.9744,17.1794,-33.0769,11.0256,22.3079,2.3079,-3.3335,28.9744,-11.0256,
-7.9486,-6.923,415.1283,1.7948,35.1283,-65.8973,13.077,-29.4872,12.5643,23.3334,-1.7948,-4.8717,31.0258,-10.5128,
-6.1539,-10.2565,408.7177,-1.0258,26.1537,-66.6669,10.2562,-30.2565,12.3075,24.6151,-1.0258,1.0258,33.8461,-8.7181,
-8.4617,-13.0769,397.1794,-4.3591,21.282,-65.8975,8.4617,-40.2563,10.5129,19.7434,-6.4104,4.3591,31.0256,-4.8718,
-8.718,-11.282,387.6924,-4.1025,22.0513,-66.1538,7.1797,-40.5127,9.7437,18.9746,-8.718,4.1025,31.2822,-4.6152,
-11.7952,-15.8977,383.5894,-9.231,24.6152,-70.7695,8.2051,-34.3591,12.3076,21.0254,2.0513,-2.0513,36.9229,-10.2566,
-15.1282,-19.2307,378.718,-11.0256,24.8718,-73.0769,15.6409,-34.6155,17.1794,21.282,8.9744,-8.9744,41.282,-11.5386,
-14.6155,-17.1794,366.4104,-8.4617,18.2053,-74.1025,18.2053,-41.282,18.718,16.1541,4.8718,-4.8718,39.7434,-8.4617,
-12.5642,-15.1282,356.6667,-8.9744,17.6921,-78.2051,11.5383,-43.3333,14.6155,8.4617,2.8206,-2.8206,38.2053,-9.4871,
-8.4617,-4.8718,356.1536,-6.9231,32.6921,-75.1282,16.6667,-33.5898,17.6921,13.0769,4.8718,-7.436,40.7693,-13.5898,
-6.4103,4.8717,351.0255,-4.8717,43.8463,-65.3846,25.8976,-32.0511,20.7692,17.6925,-4.8717,-11.0255,41.2823,-16.1537,
-6.9231,9.4871,339.7434,-10.0002,28.8463,-61.2822,11.0256,-45.8975,12.5642,6.9231,-17.6924,-9.4871,33.5896,-12.0515,
-2.5642,21.0256,336.4104,-9.7434,24.1028,-60.5127,3.0769,-49.2307,15.3845,2.5642,-11.282,-7.1794,27.6926,-6.6667,
-3.3335,19.2305,331.0254,-4.3589,26.9229,-68.9744,8.4614,-46.4104,22.3076,3.3335,-12.0513,-18.2053,25.3848,-17.1797,
-3.0771,6.1538,322.0513,-5.6411,22.564,-70.2563,9.7437,-50.2563,18.9741,3.0771,-16.4102,-21.0256,31.2822,-21.0256,
-3.0769,4.1028,316.4104,-13.8459,22.0515,-65.1282,5.1282,-53.3333,10.7693,3.0769,-11.282,-11.7947,37.4358,-11.282,
-6.6665,8.2051,311.7949,-13.8462,22.5645,-67.1794,4.1025,-48.2051,15.8975,4.1025,-4.1025,-9.2305,42.0513,-7.1792,
-6.9231,1.282,304.8718,-10.5129,20.2561,-68.9744,12.051,-44.8718,28.9744,12.051,-1.282,-7.949,47.4358,-12.0515,
-6.1538,-4.1025,301.5386,-11.7949,23.0771,-70.7693,21.0259,-45.6409,27.1797,17.9487,-0.5127,0.51269,48.7178,-14.8718,
-10.2563,0,297.436,-11.282,31.7949,-73.8462,19.4873,-42.564,15.8975,8.7178,-1.5386,0,53.8462,-13.3333,
-14.3591,2.564,288.7178,-9.231,30.769,-70.7693,13.3335,-41.0256,20,2.564,-2.564,-10.7693,60.5127,-12.3079,
-13.5898,5.8975,280.2563,-10.5132,19.2305,-65.8977,13.5894,-48.4617,24.8716,5.8975,-5.8975,-12.0513,51.0254,-14.1025,
-11.282,9.2307,277.4358,-15.3845,19.4875,-60.5127,14.8718,-53.8459,21.0256,6.6667,-9.2307,-6.6667,44.1028,-11.282,
-7.6924,9.7437,276.4102,-13.3335,27.1797,-58.4614,15.3848,-49.2307,24.6152,5.6411,-7.6924,-6.6665,50.769,-5.6411,
-6.9231,15.6409,268.9744,-6.9231,25.3845,-58.718,14.1023,-46.9231,28.9744,5.3845,-9.4871,-10.5129,52.051,-5.3845,
-9.4873,21.7949,262.8208,-7.9487,19.7437,-57.1794,16.1538,-50,24.8721,5.8975,-12.564,-10,51.5386,-5.8975,
-16.4102,18.9741,258.9741,-12.8203,20,-59.4871,21.0259,-51.7949,19.4873,9.7437,-10.769,-9.7437,57.436,-12.3076,
-24.6155,9.7434,251.7947,-15.3845,19.9998,-69.231,15.3845,-53.3335,23.0769,7.1794,-7.1794,-16.4104,61.0256,-21.5386,
-18.2051,11.0256,253.0769,-12.051,19.7434,-72.564,17.6921,-50,30.0002,1.282,-1.282,-17.6924,63.3333,-21.282,
-12.8206,13.3335,254.8721,-10.2563,16.4102,-71.7949,26.6665,-48.2051,28.7178,-0.5127,0.51269,-15.8975,63.0771,-23.5896,
-17.6924,7.9487,244.8716,-11.5386,14.6152,-73.0771,25.3843,-48.9744,28.9741,1.7949,-1.7949,-17.1797,62.3076,-33.0771,
-18.718,4.3591,234.1028,-12.051,15.1282,-73.5898,17.6921,-48.9744,30.0002,4.3591,-4.3591,-20.2563,65.3845,-36.6667,
-16.4104,1.5383,230.2566,-15.3845,8.2053,-75.8975,18.4617,-50.7693,24.1028,5.1282,-1.5383,-21.5386,67.1794,-23.5898,
-21.0256,6.1536,223.5896,-15.3845,7.6921,-71.7949,21.0256,-52.3079,18.9744,-1.5383,1.5383,-18.4617,68.718,-10.7693,
-14.6155,21.1536,217.6921,-4.8718,22.3079,-56.7949,21.282,-45.8975,24.8718,-2.8206,2.8206,-9.4871,75.6409,-6.4104,
-8.7178,27.1797,215.8975,0,21.5386,-51.2817,24.1025,-41.5383,27.6924,0,-4.6152,-10.2563,71.7949,-4.6152,
-15.1282,24.3591,216.6667,-1.282,14.6155,-55.1282,24.8718,-42.3079,32.5642,1.282,-8.4617,-15.1282,63.8459,-1.7952,
-14.8718,25.1282,211.282,-5.1282,18.4617,-58.4617,24.1028,-44.6155,37.4358,-0.51294,0.51294,-13.8459,68.718,-10.2566,
-8.718,23.5896,204.6155,-7.6921,16.9231,-61.5386,24.6155,-47.1794,35.8972,-5.1282,5.1282,-15.3848,74.3591,-24.6155,
-12.0513,18.2051,199.231,-3.8462,14.6157,-61.7947,24.3594,-49.9998,35.6411,-8.4614,3.8462,-21.7947,69.4873,-24.3589,
-15.8975,22.0513,193.3335,-2.564,19.4873,-62.0513,23.5898,-50.7693,43.0771,-5.6411,2.564,-26.1538,68.7178,-20.5129,
-6.9229,31.0259,192.5645,-1.7949,21.2822,-63.3333,27.9487,-46.9229,45.8975,-0.25635,0.25635,-23.8459,74.6157,-19.2307,
-1.0256,34.3591,189.7434,1.0256,24.6155,-61.0256,31.7947,-44.1025,41.0256,-2.5642,-4.6155,-18.9744,75.8972,-13.3335,
-4.3589,38.7178,181.2817,1.7949,33.0767,-51.0256,32.0513,-38.2053,42.3076,-4.8721,-1.7949,-17.1797,78.2051,-2.8208,
-9.4871,41.2825,174.6155,-1.282,26.4104,-46.4102,29.4875,-38.7178,38.718,-3.3333,-0.76929,-23.3333,73.0769,0.76929,
-13.0769,44.3591,171.0256,-2.3079,15.1282,-48.4617,23.8459,-49.4873,29.4871,-0.76929,-5.3845,-23.3333,65.3845,0.76929,
-13.8462,47.6924,166.1538,-2.0513,14.8721,-47.1794,16.4102,-55.8975,28.7178,-5.1279,-4.6152,-18.4614,69.7437,2.0513,
-14.8718,42.5637,161.0256,-6.1541,16.9231,-42.5642,16.9231,-51.2822,36.9231,-12.8206,-3.0769,-20.5129,76.4099,3.0769,
-21.282,35.6411,154.6152,-12.0513,17.6924,-44.3589,23.3335,-50.5127,38.2051,-10,-0.76904,-23.3333,71.5386,0.76904,
-26.1538,36.9231,150.7693,-12.3079,14.3591,-51.7949,22.0515,-55.8975,38.9744,-6.1541,3.5896,-21.0256,66.6667,-3.5896,
-19.4871,37.9485,154.3586,-11.7952,9.7434,-51.2822,22.051,-55.3848,46.1536,-7.1794,7.1794,-19.4871,72.8206,-8.2053,
-9.7434,35.8972,155.8972,-10.7693,14.3591,-46.1538,27.1794,-49.2307,46.1541,-7.1794,6.1541,-20,75.3845,-6.1541,
-14.3589,37.436,144.6157,-10.2563,16.9233,-51.282,19.4873,-49.2307,38.4619,-10.769,4.1025,-18.4614,71.7949,-4.1025,
-23.3333,36.6667,140.2561,-12.0515,9.4871,-53.0771,14.1023,-56.1541,42.8206,-17.6926,7.4358,-18.718,73.5896,-7.4358,
-15.1282,41.7952,150.0002,-7.4358,7.4358,-44.3589,25.3845,-51.5383,57.8206,-8.9744,15.1282,-19.2307,86.4104,-7.4358,
-17.1794,42.8206,145.3845,-10.5129,6.9231,-50,25.8977,-50.5127,68.4617,-6.9231,9.4871,-24.8718,84.3591,-11.0256,
-18.4614,45.6411,147.6924,-6.1538,10.2563,-52.3076,25.1284,-48.7178,79.4873,-12.8203,6.1538,-21.5383,76.9233,-9.2305,
-15.6409,46.9231,153.0769,-2.3079,10.0002,-50.5127,26.4104,-46.4102,94.4873,-13.5896,2.3079,-19.7437,73.5896,-12.5642,
-17.1794,44.3589,147.436,-6.4102,12.0513,-51.0256,29.4873,-44.8718,109.4873,-3.3335,3.3335,-20.2563,76.1538,-16.1538,
-24.3589,35.1282,139.2307,-13.5896,7.4358,-58.718,25.8977,-50,124.4873,-4.8718,4.8718,-21.7949,81.282,-19.7437,
-19.7434,38.2053,144.8718,-7.9485,5.3845,-58.2051,28.9744,-45.3845,137.6926,-5.3845,13.5901,-15.6409,90.0002,-15.1282,
-16.4104,43.0769,146.1536,-3.5896,3.0769,-54.3591,29.7434,-43.0769,148.2048,-3.0769,18.9744,-13.8462,84.1023,-13.8462,
-14.1025,41.282,144.8718,-4.8718,1.282,-51.0256,27.949,-45.8975,156.6667,-1.282,18.2053,-16.6667,76.1541,-13.0769,
-10.5127,40.2563,144.8716,-5.3848,2.3076,-51.5386,25.8975,-46.4104,156.6665,-2.3076,11.5386,-19.231,75.6411,-11.0259,
-15.6409,50.5129,139.7439,-4.8718,4.8718,-49.9998,24.3591,-47.9485,148.4617,-6.9231,4.8718,-23.3333,73.5901,-9.4871,
-21.5383,52.8208,133.8462,-8.2051,10.2563,-45.6409,25.1284,-50.769,147.1797,-9.2305,4.1025,-22.564,72.8208,-4.1025,
-24.3591,40.2563,134.6152,-15.1284,7.436,-55.6411,23.3335,-53.0769,151.5386,-8.9746,7.436,-19.7437,73.0767,-7.436,
-24.6155,43.0769,136.4099,-12.8206,7.1794,-58.4617,24.1023,-51.7949,154.3586,-7.1794,14.8718,-14.8718,74.3586,-17.436,
-27.6924,49.2307,129.2307,-15.8977,7.1794,-49.7437,23.0769,-55.3848,148.2048,-7.1794,10.7693,-12.8206,77.9485,-21.5386,
-25.8975,42.3076,130,-18.2051,-1.7949,-51.5383,21.7949,-56.6665,144.8721,1.7949,4.8721,-8.9741,79.7437,-14.6152,
-22.0513,43.0769,137.4358,-12.3079,-5.6409,-53.3333,21.5383,-51.7949,145.6409,5.1282,7.6921,-5.1282,71.7947,-9.2307,
-22.3079,51.5383,136.6667,-12.5642,6.4104,-49.4873,21.7947,-51.0256,145.8972,-6.4104,6.9231,-11.0256,69.9998,-12.0515,
-19.7437,48.4617,135.1282,-14.1023,21.4104,-53.0769,32.0515,-48.4614,148.4617,-9.9998,6.9231,-16.1536,83.8464,-6.9231,
-24.6152,33.4617,130.7693,-20,26.1541,-67.6921,32.3079,-48.7178,143.5901,-7.1794,7.1794,-14.3586,87.1794,-8.718,
-29.4873,23.8459,126.4104,-25.3848,27.4358,-78.718,26.9231,-54.1025,141.282,-7.949,6.9231,-6.9231,83.8459,-17.6924,
-36.9229,8.8459,122.5642,-32.3076,29.2307,-92.8203,29.2307,-62.564,144.1028,-9.7434,6.6667,-6.6667,87.6926,-22.0513,
-38.2051,-6.1541,124.8718,-33.0769,35.6409,-104.3589,40.2566,-58.2051,157.1794,0.76929,19.2307,-0.76929,101.282,-18.718,
-45.6409,-21.1541,118.4617,-41.0256,34.3591,-119.3589,34.3591,-61.5383,154.3591,0.51294,18.4617,-0.51294,96.9231,-30.769,
-46.4102,-28.4614,122.3076,-38.718,34.1025,-123.8462,33.0771,-63.3333,150,0.25635,14.1025,-0.25635,97.6924,-34.6155,
-37.6924,-19.7437,133.5896,-27.436,37.1794,-110.5129,45.8972,-53.0769,157.1794,0.25659,19.7434,-0.25659,111.5383,-25.3848,
-23.0769,-5.6411,139.4873,-13.8462,46.1538,-95.5129,59.4873,-41.5386,166.6665,-1.0256,34.3589,1.0256,124.6152,-11.282,
-19.2307,0.25635,140.2566,-9.4871,51.0256,-85.8975,62.3079,-40.7693,163.8459,-3.8462,34.1028,-0.25635,122.8206,-1.282,
-23.3333,-3.8462,141.7949,-12.0513,47.436,-94.6152,55.6411,-41.7949,159.231,0.25635,27.9487,-0.25635,119.231,-1.7949,
-31.5386,-12.5642,128.4614,-24.3591,35.6411,-101.2822,46.4102,-47.436,153.5898,1.7949,28.9741,-1.7949,112.564,-8.9746,
-39.4871,-18.9744,113.4614,-35.8972,27.6924,-105.6409,41.5386,-57.9487,138.9746,-2.564,23.0771,2.564,104.1025,-10.2563,
-43.5896,-21.0256,109.7437,-36.9229,29.231,-105.1282,35.8975,-63.5896,129.231,-6.1538,16.4102,6.1538,104.1025,-6.1538,
-39.231,-16.1541,115.1282,-30.5129,31.5383,-98.2053,36.6667,-59.7437,137.6921,-6.9231,28.4617,4.3591,109.4871,-4.3591,
-30.7693,-8.2051,122.564,-24.1025,32.8203,-91.282,43.0767,-53.3333,144.6152,-3.5898,36.4102,3.5898,109.7437,-4.6152,
-29.7437,-4.1025,122.0513,-21.5386,33.8462,-85.1284,46.1538,-50.7693,147.6919,-2.0513,28.7178,2.0513,108.2051,-11.2822,
-32.0515,-0.25635,115.6411,-19.7437,33.0767,-81.2822,45.8975,-50.5129,152.564,-3.3335,27.9487,0.25635,110,-15.6411,
-34.1025,0.25635,116.667,-19.7434,31.5386,-85.8972,44.8721,-50.5127,154.6157,-4.3589,34.1025,-0.25635,113.0771,-8.4614,
-38.718,-4.8718,115.1282,-27.4358,30.5129,-90.5127,43.8459,-51.5383,154.6155,-3.8459,30.5129,3.8459,110.0002,-5.8972,
-42.8208,-12.5642,106.4099,-31.0259,27.4358,-92.5642,40.2561,-54.6155,154.615,-6.9231,26.9231,6.9231,100.2561,-15.1282,
-39.231,-12.0515,101.7947,-28.4617,24.8718,-93.0769,41.7947,-55.6411,155.6409,-10.5129,31.5383,10.5129,97.6921,-21.2822,
-39.7437,-8.4614,99.7437,-30,26.4102,-93.0769,42.3076,-57.1797,154.6152,-8.4614,30,8.4614,102.8203,-20.7693,
-42.5642,-9.7439,96.9231,-31.2822,26.6663,-92.8208,42.051,-57.436,164.1023,-1.0256,27.6921,1.0256,104.615,-14.8721,
-38.718,-17.1794,95.1284,-29.4871,18.7178,-94.6155,43.3335,-57.6924,175.1284,-0.25635,28.4614,0.25635,98.2051,-17.1794,
-35.3845,-15.8975,93.8462,-27.1794,13.8462,-95.3845,43.0771,-57.4358,172.8208,-4.1025,28.7183,4.1025,97.436,-27.1794,
-39.231,-7.436,87.436,-27.436,19.7437,-91.0256,39.7437,-57.6924,164.3589,-6.4102,25.8975,6.4102,101.7949,-29.4873,
-41.7949,-4.3591,81.282,-28.9744,24.3591,-87.4358,37.6921,-61.7949,157.6921,-13.0769,20.7693,4.3591,92.5642,-23.3333,
-41.0256,-5.1284,81.0259,-29.2307,18.4614,-89.2307,37.436,-64.1025,158.4614,-16.9229,18.4614,5.1284,82.0513,-23.5898,
-42.0515,-8.2051,80.5127,-28.2053,15.3843,-90.2566,37.9487,-63.5898,166.6665,-10.7695,22.564,8.2051,91.7949,-25.6411,
-38.2051,-5.8975,75.6411,-26.4102,26.9233,-87.4358,44.8721,-62.3076,160.7695,-7.9487,22.8208,5.8975,101.7949,-26.4102,
-35.1282,-2.3076,65.3848,-32.0513,34.1025,-88.9744,46.4102,-65.8975,145.7695,-15.6411,11.5386,2.3076,91.5386,-28.9744,
-36.4102,-3.0769,63.5896,-36.4102,32.8206,-90.2563,40.0002,-65.1282,145.6409,-14.3591,10.7693,3.0769,83.0769,-26.6667,
-35.1282,-4.8718,64.3591,-32.0513,30.5129,-88.4617,40.7693,-65.3848,160.2566,-11.5383,18.718,4.8718,82.3079,-26.4104,
-36.4104,-6.6665,52.8203,-33.8462,30.769,-88.2053,45.1279,-72.8206,150.2563,-16.4102,18.9741,6.6665,83.5898,-31.2822,
-40.7693,-8.4614,45.3843,-40.2566,32.0513,-85.8975,47.9487,-74.1028,138.2051,-17.1797,16.6665,8.4614,85.8975,-31.0259,
-41.0256,-10.2563,46.6665,-36.4102,30.2563,-83.0769,46.6665,-66.6667,147.1797,-9.231,16.9229,9.231,89.231,-28.2051,
-41.5386,-14.3589,38.4614,-35.8975,24.1025,-88.2051,42.0513,-68.2051,152.8203,-9.231,16.4102,9.231,84.1025,-32.8206,
-39.4871,-12.3079,28.2053,-36.4102,22.0515,-87.1794,38.9744,-76.4102,141.5383,-15.3845,16.9231,12.3079,76.4104,-36.4102,
-35.6411,-11.0256,21.7947,-34.6155,26.9231,-81.282,41.7947,-78.718,133.0769,-21.282,14.1028,11.0256,75.1282,-35.1282,
-34.8718,-11.7949,19.4873,-33.3335,32.3076,-78.4617,47.1792,-72.3079,138.4614,-20,13.3335,11.7949,78.4614,-31.2822,
-38.718,-13.0769,13.0769,-35.1284,27.9485,-81.2822,45.3845,-73.5898,139.2307,-13.5901,14.6155,15.1282,76.1536,-30.0002,
-33.8462,-11.282,9.7434,-32.3079,26.6667,-81.0256,44.6155,-77.436,135.3845,-9.7434,15.8972,16.9231,75.3845,-27.6921,
-29.2307,-8.2053,8.2053,-26.1538,32.8206,-73.8462,47.6921,-74.3589,140.5129,-11.282,23.0769,16.9231,74.8718,-24.6155,
-32.8203,-8.7178,5.6411,-27.6921,34.3589,-68.2051,57.436,-67.6921,151.2822,-5.6411,34.8721,26.1538,76.4102,-22.564,
-34.3591,-14.3591,0.5127,-29.2307,28.7178,-73.3333,59.4873,-67.6924,144.1025,-0.5127,28.2051,35.3848,81.5386,-21.0256,
-22.3076,-7.9487,-0.25635,-19.2307,41.2822,-58.3333,55.6411,-60.2563,134.6152,0.25635,28.4614,39.7437,84.8721,-10,
-18.4614,-5.6411,0,-19.4871,50.7695,-61.0256,57.436,-57.4358,139.4873,0,40,41.5386,79.4873,-10.2563,
-23.5898,-15.8975,-5.1282,-23.0769,35.8972,-76.0256,61.0256,-64.6155,150.2561,5.1282,43.0769,44.1023,78.4617,-21.5386,
-19.4871,-7.1794,-9.7434,-14.8718,29.2307,-74.3589,58.9744,-62.564,149.7439,7.1794,41.5383,48.718,77.4358,-15.3845,
-22.0513,7.8206,-23.0771,-17.9487,25.6411,-59.3589,43.9744,-68.2051,134.7439,-7.8206,28.2051,38.9741,62.4358,-17.436,
-19.7437,22.8206,-31.0254,-17.6924,17.6924,-44.3589,30.5127,-76.1538,119.7439,-22.8206,19.7437,30,47.4358,-30,
-10.2566,37.8206,-32.3079,-11.282,10.2566,-29.3589,33.8459,-75.8975,114.8718,-27.6921,19.4871,23.0769,38.4617,-29.2307,
-4.3591,52.8206,-34.6155,-10.5129,4.3591,-14.3589,29.4871,-73.5896,107.4358,-33.5896,8.9744,11.5383,31.0256,-29.9998,
0.25659,67.8206,-38.2053,-11.0256,-0.25659,0.64111,24.8718,-72.5642,92.4358,-38.2053,-2.8206,14.1028,24.3591,-36.1541,
0.51294,82.8206,-43.0769,-5.6409,-7.6921,15.6411,22.5642,-73.8462,87.1794,-34.3591,-0.51294,20.0002,12.8206,-26.1536,
-1.0256,97.8206,-46.6667,-0.51294,-13.3333,30.6411,18.9744,-75.3845,97.4358,-30.2566,0.51294,16.4104,3.0769,-17.949,
-1.2822,98.7178,-48.9746,0.25635,-15.1284,45.6411,14.1025,-71.5386,98.2051,-27.9487,-0.25635,17.6924,7.436,-19.7437,
-2.3079,90.0002,-49.9998,-2.3079,-20.2566,54.1028,14.6155,-70.5127,85.8972,-26.4104,2.3079,23.3333,4.8718,-15.1282,
-3.8462,85.8975,-48.4614,-0.25635,-22.8203,48.4619,16.1538,-72.564,81.2822,-28.4614,1.7949,24.8721,0.25635,-11.0254,
-5.8975,81.2817,-51.5386,4.3589,-20.2563,45.8975,12.0513,-71.5386,85.8975,-36.1538,-4.3589,23.333,5.8975,-19.7437,
-3.0769,73.3333,-55.3848,3.0769,-22.5642,43.5896,10.2561,-66.6667,85.1282,-34.3591,-9.2307,22.5642,3.5896,-25.1282,
6.4104,69.4871,-54.6155,1.7947,-21.7947,42.8206,17.6921,-61.7949,86.4104,-23.8459,-1.7947,24.8718,-3.3333,-14.6155,
7.6924,61.5386,-57.9487,0.5127,-21.0254,41.0259,15.3848,-65.6409,83.5898,-25.6411,-0.5127,24.6152,-9.231,-16.4102,
6.1538,56.4102,-58.9744,1.5386,-23.5898,39.4873,9.7437,-66.6665,80.5127,-29.7437,-1.5386,28.2051,-5.6411,-22.0513,
6.9229,48.9741,-64.8718,-2.3076,-31.5386,35.6411,7.436,-69.4871,80.769,-35.1284,2.3076,25.8975,-8.9741,-21.7949,
5.8975,41.7949,-73.5898,-4.3589,-31.5386,36.1538,4.3589,-71.0256,88.4614,-39.7437,8.4614,21.7949,-13.0771,-20.7695,
3.0769,43.5901,-74.3589,-3.0769,-25.6409,37.4363,8.2053,-64.6152,100.5129,-34.3586,10.2566,25.6414,-8.2048,-19.9998,
3.0769,43.0769,-72.3079,-3.0769,-31.7952,31.282,14.3586,-61.0259,114.3586,-24.6155,9.2307,29.2307,-11.7952,-21.5388,
2.0513,34.3594,-78.4614,-2.0513,-42.0513,30.7695,7.6924,-65.6409,126.1538,-22.564,9.231,30.7695,-20.5127,-23.0767,
-0.51294,36.9231,-82.0513,0.51294,-37.9485,38.9744,4.6155,-64.6152,136.4104,-19.9998,11.282,37.949,-18.9744,-23.5896,
-2.8206,44.3591,-77.6924,2.8206,-33.5896,42.8206,9.9998,-55.1282,138.2053,-18.2053,12.5642,41.7947,-17.1794,-17.6921,
-3.0771,44.6152,-75.8975,3.0771,-36.4102,46.6665,10.769,-49.7437,138.9746,-16.9229,9.7437,42.0513,-17.9487,-4.1025,
-2.3074,41.7952,-84.3589,2.3079,-41.282,45.3845,0.76929,-55.1282,144.3591,-19.2307,3.8464,39.2307,-17.6921,-0.76929,
0.76929,42.3074,-88.9746,6.9231,-41.7952,42.3074,-1.7952,-56.6667,154.1023,-21.282,8.4612,40.2561,-23.3333,-0.76929,
-0.25659,37.6921,-88.4614,6.4104,-39.7434,42.8206,0.25659,-55.1282,153.0769,-20.2566,13.0769,40.2566,-36.6667,-3.8459,
-2.8206,33.5896,-89.4873,3.3333,-39.2307,43.3333,2.8206,-55.1282,148.9744,-21.7947,7.9485,38.2053,-41.7947,-8.9744,
-2.0513,31.7949,-92.3076,2.0513,-38.4614,41.5386,6.1538,-54.3589,153.3335,-21.5381,2.0513,42.5645,-43.0767,-6.1538,
0.25635,28.9746,-95.1282,2.8208,-38.2051,40.7695,3.3335,-51.5383,150.5127,-17.6924,-0.25635,43.3335,-46.4102,-1.2817,
0.25659,27.9485,-96.6667,5.8972,-40.2566,44.8718,-0.25659,-48.4617,142.8206,-14.6155,4.3591,36.6667,-42.8206,-6.4104,
-0.51294,29.7434,-99.4873,6.1536,-43.0771,44.1023,0.51294,-49.231,139.9998,-17.4358,5.6409,34.8718,-40.5129,-9.7439,
0.76929,33.0769,-98.718,9.9998,-38.2053,45.8972,0.76929,-48.9744,137.6921,-17.6921,-1.7947,41.7947,-46.9231,-0.76929,
0.25635,33.0767,-101.7949,12.564,-35.6411,54.1025,-0.25635,-44.3591,130,-16.1538,-3.8462,44.8716,-55.1284,3.333,
-2.0513,30.769,-104.6155,10.769,-41.5386,53.8462,2.0513,-46.1541,130.2563,-14.3589,2.0513,42.564,-56.9231,-2.0513,
-4.6155,27.6921,-110.2566,5.6409,-43.0769,44.1023,1.0256,-52.3079,134.3586,-9.2312,2.051,41.5383,-58.9746,-1.0256,
-5.6411,29.7437,-114.8718,5.6411,-35.8975,46.6665,0.5127,-49.231,130.2563,-5.6411,1.5386,45.1279,-61.5386,-0.5127,
-4.8716,31.0259,-112.0513,12.564,-34.6152,52.0513,1.7949,-42.8206,127.9487,-1.7949,3.8462,50,-62.8206,-12.0513,
-5.8975,21.2822,-117.1794,10,-39.7437,45.3848,0.25635,-45.8975,127.436,-0.25635,3.8462,48.9746,-61.282,-12.0513,
-8.4614,14.6152,-126.4104,4.8716,-41.2822,43.8462,0.76904,-47.9487,118.2051,-1.2822,3.3335,43.8462,-61.282,-0.76904,
-7.436,17.6924,-125.8975,10,-48.4614,52.0513,-3.3335,-45.3845,109.4873,-1.7949,4.3589,47.436,-72.564,1.7949,
-0.76904,17.1797,-119.7437,15.1284,-50,46.4102,-5.3848,-44.3589,116.6665,0.76904,8.4614,48.9746,-77.6921,-0.76904,
0.25635,13.5898,-125.3845,12.0513,-36.1538,36.1538,-1.2817,-44.8716,113.5898,-1.7949,5.8975,39.231,-66.4102,-0.25635,
-5.6414,12.3074,-138.4617,6.1536,-23.0769,36.4099,1.0256,-47.1797,98.5898,-13.3333,-1.0256,38.4617,-63.5898,1.5383,
-4.3589,0.25635,-139.2307,2.3076,-20.769,23.3335,-0.25635,-52.5642,87.9487,-13.0771,0.25635,41.2822,-75.6411,1.7949,
3.0771,-10.2563,-131.7949,5.1284,-15.3848,8.3335,0.5127,-51.282,93.3335,-1.0259,7.1797,36.4102,-81.0256,-0.5127,
0.76929,-6.9231,-131.0254,7.949,-7.4358,4.3591,5.8977,-45.8972,90.5129,-1.7947,5.8977,34.1028,-77.6921,-0.76929,
-2.8206,-7.4358,-134.6152,2.8206,-8.9744,10.0002,6.9231,-48.9741,80.7693,-12.051,5.8977,35.6414,-76.1538,4.8718,
1.0259,-16.9229,-135.8975,-1.0259,-14.3589,3.0771,2.0513,-54.3589,77.436,-10.2563,17.436,36.9229,-72.8206,6.6665,
1.2822,-22.3076,-133.0769,3.8462,-15.1284,1.7949,1.2822,-48.9744,91.0259,-1.7949,29.4873,40.2563,-71.0256,-1.2822,
0.76929,-20.2566,-131.0259,9.4871,-12.0515,5.3845,7.9485,-38.2053,100.7693,-0.76929,30.5125,39.7434,-73.0771,-3.8464,
2.3079,-24.3589,-133.5896,6.9231,-12.051,1.282,5.3845,-39.7434,85.8977,-4.8718,21.282,30.5129,-76.1538,-1.282,
4.6152,-29.231,-132.8206,9.7437,-15.3848,1.5386,2.0513,-44.1025,76.4102,-5.1284,12.8203,33.8462,-77.9487,-1.5386,
-2.3076,-28.9741,-134.6152,11.5386,-19.2305,6.4102,3.8462,-43.8459,87.436,-4.8716,9.4873,40.7695,-85.3845,2.3076,
-6.1541,-22.0515,-136.4104,14.8718,-12.3079,13.3333,3.0769,-37.9487,95.8972,-3.0769,14.8718,42.5642,-88.2051,17.3076,
-0.51294,-15.3845,-133.8462,21.0256,-5.6409,19.4871,0.51294,-34.3589,90.7693,-4.6155,15.3845,42.0515,-86.6665,30.2566,
1.2822,-16.1538,-133.5896,17.1797,-10.5127,24.3589,-1.2822,-37.1794,82.3076,-7.9487,6.4102,40.769,-85.8975,27.436,
-1.7949,-23.8462,-137.6921,9.4873,-16.1538,21.2822,1.7949,-39.7437,83.3335,-10,6.9233,37.1797,-90.5127,22.8208,
-3.0769,-27.1794,-136.4102,13.3333,-13.3333,17.4358,3.0769,-35.8975,98.3335,-5.1282,21.9233,38.9744,-93.8462,21.0256,
-1.5383,-28.2051,-134.3589,16.9231,-13.8459,22.5642,1.0256,-35.3845,102.5642,-1.0256,31.7947,42.0515,-92.3076,21.5383,
0.25635,-27.436,-141.282,11.5386,-19.231,24.3589,-0.25635,-38.718,87.5642,-3.3335,16.7947,36.1538,-97.1794,25.8975,
0.25635,-19.7437,-143.3333,11.5386,-19.2305,23.3335,-2.8203,-36.1538,76.1538,-0.25635,7.9487,38.7178,-102.3076,35.1284,
-6.1536,-13.3333,-140.5127,18.4617,-15.8972,31.7952,-5.1282,-35.3845,83.0769,5.1282,14.8718,49.7439,-106.1538,41.0256,
-6.9229,-13.5894,-144.3589,20.7695,-13.0767,38.7183,-3.8462,-36.1538,81.2822,3.8462,21.2822,53.5898,-109.9998,41.2822,
-0.5127,-13.3335,-144.6155,19.4873,-12.8203,35.8975,-1.0259,-31.2822,80,0.5127,24.6152,54.8716,-108.2051,44.1025,
1.0256,-12.8206,-139.4873,18.9744,-16.4104,30.7693,-6.6667,-30.7693,80.5125,-1.0256,17.4358,56.9231,-109.7437,44.1023,
-1.282,-19.7434,-142.3076,15.6414,-18.2048,29.4875,-11.0256,-35.6409,72.0515,1.282,7.949,54.1028,-115.1279,44.3591,
-3.5898,-25.6411,-146.1538,14.3589,-18.4614,31.7949,-11.7949,-35.3848,65.6411,3.5898,7.6924,46.1538,-113.3333,49.231,
-0.76929,-23.8459,-142.3076,18.718,-19.2307,32.5642,-10.5125,-27.4358,69.4875,0.76929,10.0002,41.282,-112.051,45.8977,
2.3079,-23.3333,-140.2563,19.7434,-20.2566,27.4358,-5.8972,-24.3591,75.6409,-2.3079,8.9744,42.3079,-118.718,38.718,
-1.2822,-21.2822,-139.2307,20.769,-18.7178,28.9741,-7.9487,-24.8716,76.1538,1.2822,13.0771,43.3335,-121.282,53.0771,
-5.3845,-17.6921,-136.1538,25.8977,-14.1023,38.2053,-11.5383,-27.9485,70.0002,5.3845,17.6926,41.7952,-117.1794,59.7439,
-2.8206,-19.7434,-141.282,20.7693,-11.5383,37.1794,-12.5637,-32.051,63.8464,2.8206,14.1028,40.7693,-119.2305,66.9231,
1.0256,-22.051,-143.0769,12.8206,-16.4104,31.282,-15.3845,-33.8459,62.0515,-1.0256,12.8206,44.6155,-121.0256,81.9231,
-2.564,-20.5127,-139.4871,15.3848,-16.9229,40,-16.9229,-30.769,59.4873,2.564,17.9487,48.7178,-120.5129,96.9231,
-4.1025,-17.4355,-137.9485,24.1025,-14.3589,46.1538,-15.3843,-27.1792,56.9233,4.1025,18.9746,48.7183,-124.1025,111.9231,
-0.76929,-19.7439,-140.7695,22.8206,-14.6155,38.2048,-14.6155,-30.0002,57.1794,0.76929,17.1794,48.9744,-128.9746,126.9231,
0,-27.1797,-145.1284,13.333,-17.9487,29.2305,-16.4102,-31.2822,55.8975,0,16.4102,44.6152,-132.8206,141.9231,
0.25635,-31.5386,-145.8975,9.4873,-19.7437,25.8975,-18.7178,-32.564,48.9746,-0.25635,9.4873,35.1284,-134.6152,156.9231,
-0.25659,-30.5129,-141.2822,9.9998,-14.6155,22.8206,-15.6409,-32.5642,41.282,0.76929,0.25659,41.282,-131.0256,164.8718,
-1.5386,-35.3843,-136.9229,12.8208,-11.2817,14.8721,-14.3589,-30.2563,42.5645,1.5386,1.5386,50.2563,-133.8459,149.8718,
4.8718,-34.6155,-131.5386,21.7947,-7.4358,23.8459,-8.4617,-22.3079,55.1282,6.9231,12.5642,50.5129,-131.5386,134.8718,
6.6667,-28.718,-135.3845,18.9744,-5.6409,32.3079,-7.6921,-24.1023,48.718,5.6409,9.2307,43.0769,-131.7947,119.8718,
5.3843,-16.667,-139.7439,15.1279,-1.7949,35.1279,-13.0771,-24.8721,34.1025,1.7949,2.8203,48.9741,-139.7439,104.8718,
8.7183,-3.5898,-138.9744,20,0,44.6157,-13.333,-21.0254,33.8462,0,3.0771,50.2563,-144.6152,89.8718,
13.3333,-0.51294,-134.8718,27.6921,-4.6155,47.6921,-10.2566,-23.0769,37.9485,0.51294,5.6409,38.4617,-142.0513,74.8718,
9.231,-4.1025,-137.4358,29.231,-8.2051,41.5386,-11.7944,-22.0513,36.9233,4.1025,7.6924,42.0513,-139.4871,59.8718,
3.0769,-3.0769,-138.9741,25.1282,-3.5896,44.6155,-16.4099,-20.5125,41.0256,7.1799,5.6414,54.8718,-139.4871,44.8718,
7.1794,-3.0769,-140.5129,21.5383,-3.5901,48.718,-22.0515,-25.6414,38.9744,3.0769,5.6409,49.7434,-144.6155,29.8718,
14.1025,-3.333,-139.2307,22.8208,-2.3076,47.436,-19.7437,-24.3589,33.5898,2.3076,13.0771,48.4614,-142.3076,14.8718,
4.6152,-2.564,-137.4358,20.5127,-0.5127,44.1025,-18.4614,-23.0767,23.5898,0.5127,3.0771,58.9746,-141.5383,-0.12817,
1.282,3.3333,-135.6409,20.2566,0.76929,48.9744,-17.6921,-22.8206,21.282,-0.76929,-3.8459,63.8464,-144.8718,-15.1282,
9.231,-1.5381,-134.3589,22.0513,0,49.231,-17.9487,-21.5381,29.7437,0,8.7183,52.8208,-144.6152,-30.1282,
10,-7.9487,-134.1025,23.3335,0.25635,48.4614,-19.7437,-20.769,33.0771,-0.25635,12.0513,45.8975,-139.7434,-45.1282,
3.8464,-5.8972,-135.6409,23.3333,-0.76929,46.4104,-19.7434,-18.2048,26.9231,0.76929,4.3591,50.0002,-138.2051,-53.5896,
5.1282,-6.1541,-134.3589,24.6155,-5.1282,42.051,-16.4104,-15.3845,28.718,5.1282,6.6667,53.8459,-144.1025,-53.8462,
7.436,-11.5386,-130,23.8462,-7.436,37.1797,-14.6152,-13.5898,41.7949,10,11.0259,51.5386,-147.4358,-52.5642,
7.6921,-10.7693,-129.2307,25.1282,-7.6921,36.9231,-14.8718,-12.3079,39.4871,9.2307,9.7439,52.8206,-146.1538,-52.8206,
7.9485,-11.0256,-128.9744,25.3845,-7.9485,36.1541,-16.1541,-12.0515,37.1794,7.9485,7.9485,53.5896,-145.3845,-53.0769,
9.2307,-9.2307,-127.1794,27.1794,-7.1794,36.9231,-15.3845,-10.2566,35.8977,8.2053,7.1794,55.8977,-143.0769,-51.7949,
10,-8.4614,-125.8975,28.4614,-6.4102,36.6665,-15.6411,-8.9746,34.6152,8.4614,6.4102,57.6924,-141.282,-51.0256,
11.0259,-6.9229,-124.3589,30.5127,-5.8975,37.1797,-15.1279,-6.9229,33.0771,8.4614,5.8975,59.7437,-139.2307,-50.5127,
11.5383,-6.4104,-123.3333,32.5642,-4.8718,37.1794,-15.6409,-5.3845,32.051,8.4617,4.8718,62.3079,-136.6667,-50,
13.5894,-7.9487,-123.3335,31.5381,-8.9746,33.0767,-14.1025,-9.4873,41.2817,7.9487,12.0513,64.3589,-131.0259,-57.1797,
13.5898,-12.564,-122.8206,30.5127,-13.5898,25.3848,-12.0513,-8.4614,47.9487,14.1025,8.4614,65.8975,-135.6409,-62.8206,
17.4358,-11.282,-124.1028,31.7947,-10.2566,21.0256,-9.7439,-7.1794,62.051,16.4099,7.1794,68.718,-134.3591,-62.0515,
17.6924,-10,-127.949,34.6152,-13.0771,18.7178,-16.1538,-7.9487,73.0767,11.0254,7.9487,66.9229,-133.0771,-64.3591,
16.4104,-11.7947,-126.6667,35.3845,-17.4358,18.9744,-15.3845,-3.5896,73.3333,10.7693,3.5896,65.1282,-138.9744,-66.1538,
13.3335,-10.769,-126.6667,35.8975,-16.4102,18.4614,-10.2563,0,72.8203,16.9233,0,65.6411,-136.9231,-54.8718,
9.4873,-12.564,-135.6411,34.1025,-18.7178,19.231,-15.6411,-2.8203,78.7178,13.0767,2.8203,66.9229,-132.0513,-44.8718,
9.7437,-14.8716,-143.5896,29.7437,-20,21.0259,-20.5127,-1.5386,83.0771,1.5386,6.1538,64.6152,-142.0513,-53.3333,
5.1284,-14.8716,-146.6665,27.1797,-22.564,18.9746,-18.9741,-0.5127,78.4614,0.5127,2.564,61.5386,-147.1794,-63.5896,
2.564,-12.8203,-147.6924,27.6924,-24.6155,19.4873,-15.8975,0.5127,85.1284,10.2563,-0.5127,65.1284,-132.3076,-58.9744,
4.6155,-13.3333,-148.2053,29.2307,-25.6411,21.5383,-16.4104,3.0769,90.7693,11.7947,-3.0769,66.6667,-131.7949,-56.9231,
3.8462,-13.5898,-148.4614,30.5127,-26.4102,23.8462,-20.7693,3.8462,82.3076,8.4614,-3.8462,65.8975,-143.8462,-58.2051,
4.3589,-14.1025,-148.9746,31.5381,-23.8464,21.2817,-23.3335,1.7949,83.8462,15.6406,-1.7949,70,-139.7439,-53.5898,
12.8206,-16.4102,-150.2563,35.8977,-20,15.8977,-19.4871,2.5642,89.2307,23.5896,-2.5642,70.2566,-124.7439,-54.8718,
10.7693,-15.3845,-147.6921,35.385,-18.4614,19.4875,-12.8203,7.1794,82.5642,22.5642,-7.1794,66.1541,-117.4358,-53.8459,
6.1538,-11.7947,-145.1279,32.8208,-19.4871,29.7437,-9.7432,10.2568,74.3594,18.9746,-6.1538,69.7437,-125.1279,-45.6409,
7.6924,-10.769,-153.3333,31.7949,-25.6409,28.2051,-15.3845,8.2051,67.6924,10.2563,-7.6924,69.7437,-131.282,-48.2051,
7.1794,-7.1794,-157.436,33.3333,-28.718,24.1023,-21.0256,8.718,62.051,8.718,-12.3079,66.6667,-127.1794,-54.3589,
4.8718,-4.8718,-150,34.1023,-33.0769,33.0769,-16.6667,10.5129,68.9744,19.7434,-7.949,71.0256,-123.3335,-52.5642,
5.1282,-8.2048,-152.3076,28.718,-38.4614,37.4358,-15.3845,5.1282,69.7439,18.9744,-5.1282,72.8206,-126.6665,-51.7947,
10.2566,-4.1028,-154.8718,29.7434,-30.7693,34.3591,-15.3845,4.1028,55.3845,13.8459,-7.1794,69.7434,-126.1538,-50.7693,
6.9231,-1.282,-155.6411,27.9485,-27.436,30.5125,-20.2566,1.282,43.8459,7.4358,-15.6414,63.3333,-130.5129,-50.5129,
7.436,-1.2822,-154.6155,27.9487,-29.4873,34.6152,-20.2563,1.2822,51.0254,10.5127,-20.2563,64.8716,-131.5386,-51.0256,
11.282,-1.0256,-150.769,31.7952,-29.2307,35.8977,-17.9485,1.0256,53.8464,17.949,-18.4612,69.2307,-128.7178,-52.3076,
11.0259,0.25635,-149.4871,31.5386,-26.9231,33.0771,-19.2305,-0.25635,48.9746,17.1797,-15.1279,69.4873,-122.3076,-46.4102,
7.4358,-2.8206,-152.5642,27.4358,-32.0515,28.9744,-24.3591,2.8206,49.9998,14.1023,-20.7693,64.3586,-117.6924,-43.8462,
5.3845,-5.3845,-147.9487,28.9744,-33.0769,25.8972,-23.8462,6.4104,52.051,20.7693,-17.6921,76.6667,-116.1538,-45.8975,
6.6667,-8.2048,-145.6409,29.7439,-30.2563,24.1028,-17.9487,6.6667,39.4871,23.0769,-6.6667,88.718,-113.8459,-44.6152,
6.4102,-8.9746,-150.0002,27.4355,-32.5642,26.4102,-20.7695,5.8975,24.8716,10.5127,-5.8975,76.1538,-111.0259,-45.3848,
7.6924,-6.6665,-148.718,30.2563,-28.2051,37.9487,-23.5898,8.7178,25.6411,4.1025,-4.1025,72.3076,-101.5386,-41.0256,
7.6924,-7.6924,-145.6411,29.7437,-24.6155,42.564,-23.0769,6.6665,21.0259,5.6411,-5.6411,83.0771,-95.8975,-29.2307,
4.6155,-4.6155,-149.7437,27.6921,-29.231,37.9485,-23.0769,4.6155,14.3586,8.718,-9.2307,82.051,-99.4873,-24.1028,
3.8462,-3.8462,-147.9487,28.4614,-37.1794,36.6665,-24.8718,5.8975,21.2822,12.0513,-6.9233,78.2051,-102.3079,-25.8975,
6.4104,-4.3591,-141.7949,31.0256,-37.6921,39.2307,-26.4102,4.3591,23.3333,12.0515,-7.4358,83.3333,-97.1794,-24.3589,
5.8975,-2.3076,-143.3335,28.9741,-36.1541,36.1538,-24.8721,2.3076,19.2305,14.6152,-6.4106,82.8203,-96.1541,-23.8462,
1.282,-3.8464,-141.2822,25.8972,-36.1538,27.9485,-21.2822,6.4104,27.4358,16.6667,-1.282,81.7947,-97.1794,-27.436,
2.0513,-11.7949,-137.9487,27.1797,-37.9487,27.6924,-22.564,12.3076,30.2563,14.8721,-2.0513,85.6411,-86.6665,-28.7178,
1.2822,-12.0513,-140.7693,27.9487,-40.2563,36.6665,-23.8462,11.5386,20.769,18.2051,-1.2822,84.3589,-77.6921,-26.9231,
-5.3845,-7.4358,-140.7693,21.7947,-37.1794,39.2307,-23.3335,6.9231,22.8206,17.1794,5.3845,83.8459,-81.282,-23.3335,
-5.3845,-14.6155,-141.7949,13.0769,-35.1282,32.051,-26.9231,5.3845,36.1536,6.4104,5.8972,79.2307,-84.8718,-31.5386,
0.5127,-18.9746,-143.5898,14.8716,-36.9231,29.7437,-24.6155,4.1025,33.8462,5.1279,-0.5127,72.3076,-79.4873,-44.1028,
6.6667,-6.1536,-135.8972,27.6926,-31.7947,38.4617,-13.8459,4.6155,20.0002,9.7439,-4.6155,77.4363,-71.282,-35.8972,
1.7949,-1.7949,-134.6155,24.3589,-27.9487,35.1279,-16.1538,2.8203,15.6411,4.8716,-7.436,79.7437,-72.0513,-24.8718,
2.5642,-2.5642,-132.8203,25.1282,-27.6921,30.7693,-16.9231,11.7952,28.2053,13.3333,-2.5642,77.949,-67.6921,-24.1025,
2.5642,-4.1023,-131.7947,28.2053,-36.4102,33.3333,-18.9744,12.3079,27.1794,15.3845,-2.5642,74.3591,-66.6665,-29.2307,
-0.76929,-2.3079,-130.5129,25.3845,-38.2053,38.718,-22.3079,3.8459,20.7693,4.3586,0.76929,79.2307,-67.949,-24.3591,
-3.3333,-2.3079,-133.0769,19.2307,-38.2051,40.2566,-24.8718,3.3333,19.7434,2.8206,2.3079,78.718,-67.9487,-21.7947,
-1.5383,1.0256,-128.718,20.5129,-37.436,41.0256,-22.0513,11.7947,24.6155,17.8206,-1.0256,76.9231,-66.1538,-21.0256,
-1.5386,1.0259,-125.6411,24.1025,-40.5129,37.9487,-24.1025,7.6924,29.7437,24.1025,-1.0259,74.3589,-70.2563,-26.1538,
0.5127,-2.564,-129.2307,24.1025,-44.1025,37.9487,-25.1279,4.1025,28.7178,9.231,-0.5127,70.769,-70.2563,-29.7437,
5.8972,-2.3079,-133.0769,22.8206,-41.282,40.7693,-21.282,9.4871,16.6667,2.3079,-4.3591,67.4358,-62.3076,-22.8206,
2.0513,-2.0513,-135.8975,14.8716,-42.0513,31.2822,-27.1797,2.0513,6.1538,6.1538,-7.1797,59.4873,-63.5898,-23.5898,
0.25659,0.76929,-128.9744,10.5129,-37.6924,25.3845,-26.9231,-2.3079,11.0256,10.0002,-0.25659,61.7947,-60.7693,-26.9231,
-2.3079,-4.3591,-126.4104,12.051,-37.6924,22.3079,-20.7693,2.3079,11.5383,4.3591,3.8459,65.3845,-52.5642,-33.5898,
-4.1028,-10.2566,-128.718,15.8972,-38.9744,22.0515,-19.4873,4.6155,12.3079,8.2053,4.1028,67.1794,-46.6667,-37.4358,
-0.76929,-8.4617,-128.9744,17.1794,-34.6152,27.949,-23.3333,0.76929,18.2053,12.5642,2.3079,65.3845,-44.8718,-30,
0.25635,-0.25635,-125.8975,16.6665,-32.0513,32.564,-24.3589,-0.25635,15.6411,5.8975,3.3335,61.2822,-46.4102,-21.2822,
-2.3076,2.3076,-123.3335,12.564,-36.6667,25.8975,-26.9233,-4.8721,7.4355,3.333,3.333,58.2051,-53.0771,-23.3335,
1.7949,-1.7949,-122.8203,8.4619,-37.6921,22.8208,-30,-8.4614,7.436,7.9487,5.3848,56.1538,-51.0254,-26.4102,
3.3333,-6.9231,-125.3845,6.9231,-35.1282,25.3845,-28.4612,-3.3333,10.0002,5.8977,4.8718,56.6667,-41.7947,-20.7693,
-1.282,-3.3333,-122.8203,9.4871,-32.564,28.9744,-22.3074,3.3333,13.5901,8.4617,1.282,59.2307,-37.1794,-19.7434,
0.76929,-0.76929,-119.7437,14.6155,-35.1282,25.8972,-25.8972,-1.7947,11.0256,13.0769,1.282,55.6409,-41.282,-28.4617,
7.1797,-4.1025,-121.0256,17.436,-35.3845,22.564,-25.1279,-5.1279,6.6665,4.1025,6.6665,48.7183,-36.9231,-33.3333,
8.4617,-4.8718,-119.7434,17.1794,-34.1025,24.3591,-16.6667,-0.76929,9.4871,0.76929,4.8718,45.3845,-32.564,-32.0513,
4.8718,-3.3333,-122.3076,16.1541,-35.6409,22.3079,-20.2561,1.282,9.4875,5.8977,-1.282,46.9231,-37.6921,-24.3586,
-0.51294,-3.0769,-129.2307,12.8206,-32.3074,22.0515,-28.2048,0.51294,4.6155,6.1541,4.6155,57.949,-35.8972,-9.7434,
-5.6411,1.0254,-133.3335,8.2051,-29.231,30.769,-29.7437,0.5127,-2.0513,-0.5127,4.1025,63.5898,-30.7695,2.0513,
-4.6155,6.1541,-132.3076,9.7434,-32.3079,38.9744,-32.8206,0.51294,-0.51294,-0.51294,1.5383,54.8718,-31.7947,4.1028,
-2.564,4.6152,-131.282,8.7178,-35.3848,32.3076,-35.3848,-4.1025,3.0771,2.564,5.1284,47.6924,-32.3076,-5.6411,
-1.0256,10.7693,-128.718,11.282,-29.2307,25.6409,-27.1794,-2.0515,1.0256,1.0256,9.7434,53.8459,-20.0002,-10.7693,
2.8206,17.1794,-128.4614,15.6409,-22.8206,28.9744,-22.3079,0.76929,-6.4104,-0.76929,8.9744,53.5896,-10.5129,-11.5383,
10.0002,14.6155,-124.8718,21.7947,-19.7434,24.8718,-19.2307,-1.7947,-2.3079,4.8718,1.7947,51.0256,-14.6155,-17.6921,
8.2053,8.2053,-124.6152,21.0256,-21.0256,15.3845,-14.3591,-6.1536,3.0769,7.1794,-3.0769,53.8464,-17.9485,-19.9998,
-0.51294,4.1028,-132.3076,13.3333,-24.1023,12.3079,-20.5129,-6.1536,0.51294,3.0769,2.5642,48.718,-12.8206,-16.4099,
-4.1023,1.5383,-134.3589,13.8464,-24.1023,13.3333,-24.6155,-0.51294,0.51294,2.0515,8.2053,45.1282,-8.718,-14.3586,
-7.436,-2.3076,-132.5642,14.1025,-24.8721,16.1538,-16.1538,4.3589,2.8203,2.3076,5.8975,52.564,-11.5386,-7.9487,
-10.5129,-0.76929,-138.718,9.4871,-22.8206,18.7175,-17.6926,1.7947,0.76929,-6.9231,2.8206,47.9485,-17.1794,1.7947,
-2.8206,9.4871,-139.2307,9.4871,-18.718,22.8206,-21.7952,0.76929,-0.76929,-11.5383,4.3591,43.8459,-12.0515,1.7947,
0.76929,8.4617,-134.6152,11.5383,-22.8206,19.2307,-15.1282,-0.25659,0.25659,-8.9744,2.8206,45.8977,-5.3845,-4.8718,
-0.76929,1.7952,-133.5896,14.1028,-20.7693,14.6155,-12.051,0.76929,4.3591,-5.3845,5.385,41.282,-4.3586,-5.3845,
0,1.5386,-137.9487,13.3335,-10.2563,7.1797,-12.8203,0,3.0767,-5.6411,9.231,34.8716,-1.0259,-12.8203,
3.3333,5.3845,-134.6152,14.6155,-3.3333,-0.76929,-3.8459,0.76929,-1.282,-1.7947,10.5129,41.7952,9.4871,-16.6667,
5.8972,5.8972,-131.5386,14.6155,-0.76929,-0.25659,-0.76929,-0.76929,-4.8718,0.25659,10.5129,46.4104,13.0769,-8.4617,
4.8721,6.9233,-137.6921,5.3848,-1.7949,1.7949,-8.4614,-8.4614,-7.4355,-8.4614,5.8975,35.6411,4.8721,-13.5894,
11.2822,12.8208,-136.9231,7.1797,-2.0513,-9.7437,-4.1025,-8.2051,2.0513,-8.7178,8.2051,35.8975,8.2051,-24.6152,
3.5898,3.5898,-143.0769,11.7949,-7.1792,-24.7437,-3.5898,-5.1279,9.231,-7.6924,11.2822,36.9233,11.7949,-28.2051,
-1.0256,7.6921,-151.7949,12.8206,-10.2566,-15.8972,-10.2566,1.0256,10.2566,-10.2566,8.2053,34.3591,9.7434,-18.4617,
-1.7952,22.6921,-156.6667,6.9231,-20.7693,-0.89722,-16.1541,1.282,18.2048,-15.1282,-1.282,33.5896,4.3586,-11.0256,
-5.6411,21.0254,-155.8977,5.1279,-33.3335,14.1028,-11.2822,2.0513,33.2048,-8.7183,-2.0513,37.4355,5.1279,-7.6924,
-5.3845,13.0769,-157.1794,7.4358,-35.6409,11.5388,-7.9485,4.8718,48.2048,-4.8718,-4.8718,37.6926,6.9231,-14.1023,
-0.76929,24.8718,-161.7949,4.3591,-33.5896,15.6409,-13.5896,0.76929,46.9231,-11.0256,-10.5129,33.0769,3.3333,-23.3333,
0,33.8462,-164.1028,8.2051,-29.7437,21.0254,-13.8462,0,59.4868,-11.7949,0,36.9229,6.6665,-12.3076,
-12.5642,18.8462,-175.6409,4.8718,-38.2048,6.0254,-14.1023,-2.8206,64.8718,-14.1023,4.3591,31.0256,7.4358,-9.4871,
-10.5127,8.9741,-175.1282,4.3589,-38.718,-2.8203,-5.8975,2.8203,75.1284,-4.3589,4.8716,31.0259,14.1025,-17.6924,
-7.6921,12.8206,-171.7949,6.1541,-36.9231,-9.2307,-5.1282,1.5383,78.9744,-1.5383,2.0515,33.3333,15.3845,-28.718,
-10.5127,14.6152,-171.5386,7.9487,-34.6155,-15.1284,-3.8462,-0.25635,75.6411,0.25635,3.3335,35.6411,18.7178,-26.4104,
-14.8718,11.282,-178.4617,3.0769,-38.9744,-22.0515,-4.1028,-0.51294,75.8972,0.51294,0.51294,29.2307,16.4104,-26.1541,
-10.769,13.3335,-183.0767,4.6157,-44.1023,-29.7434,-2.564,1.5386,85.6411,0,0,27.1797,15.3848,-32.8203,
-4.8721,16.1538,-181.282,8.4614,-38.718,-30,-0.25635,-0.25635,86.4102,0.25635,0.76904,31.5386,18.2051,-34.1025,
-6.1538,22.0513,-179.4873,10.2563,-32.8206,-15,-1.0259,0,77.436,0,0.51269,31.2817,14.8716,-19.1025,
-7.6919,28.2051,-187.1792,7.6924,-33.8459,-3.0767,-5.6406,5.6411,68.2051,-2.564,0,28.2051,12.8208,-4.1025,
1.0256,26.6667,-192.8206,4.1023,-32.8206,-7.6926,-3.0769,6.1536,69.7434,-1.0256,-3.5896,31.282,24.6155,-7.6926,
1.7949,15.1284,-196.1538,1.2822,-32.0513,-13.5898,-0.25635,0.25635,77.6924,-0.25635,-5.3848,31.0254,31.0254,-20.2563,
-4.1028,13.8459,-201.5386,0.51294,-30.2566,-10.7693,-0.51294,1.0256,81.5383,-3.5896,7.6921,27.1794,24.6155,-15.3845,
-1.0259,21.0254,-207.1794,-0.5127,-30.2566,-12.8208,0.5127,5.1279,78.4614,-3.0771,13.8462,22.564,24.6152,-18.9746,
0,15.3848,-213.3335,-6.1538,-31.7949,-24.1025,0.5127,0,76.9229,-1.0259,2.0513,15.3848,29.2305,-33.9746,
-0.25635,13.5898,-211.0256,-1.7949,-27.9487,-25.3848,3.3335,-0.76904,79.7437,0.25635,1.7949,15.1279,32.564,-39.7437,
-4.6152,16.9233,-214.3589,0,-32.8203,-24.6152,0,1.0259,73.8462,-3.5894,3.0771,14.3594,27.1797,-36.4102,
-6.4102,24.8721,-219.7434,1.7949,-35.6409,-22.3076,-1.7949,3.8462,73.0771,-2.3076,1.7949,16.667,28.4614,-38.7178,
-9.4873,26.9229,-224.8718,2.8203,-36.1541,-20.7695,-1.7949,1.7949,73.0767,-4.3589,3.8462,19.2305,34.6152,-33.0771,
-7.1794,24.1028,-223.5896,0.51294,-34.3589,-19.4871,2.0515,-0.51294,72.3079,-1.5383,10.7693,28.2053,43.5896,-19.9998,
-8.7178,25.1284,-226.1538,-4.1025,-33.8462,-18.9741,0.5127,-0.5127,67.6924,1.5386,3.5898,31.7949,45.6411,-16.4102,
-10.7695,33.333,-228.718,0,-29.7437,-14.3589,0,8.2051,64.1025,-0.5127,2.564,28.2051,47.6924,-13.8462,
-12.3074,30.2566,-234.3589,1.0256,-34.3589,-13.8459,-1.0256,8.718,61.5388,-8.2048,12.8206,23.5901,46.6667,-13.3333,
-9.7437,28.2051,-232.3076,0,-35.3845,-14.8716,0.51318,0,61.5386,-4.1025,11.2822,25.6411,48.7183,-17.4355,
-6.1538,35.8975,-229.7437,-1.5386,-26.6667,-17.9487,0.5127,0.5127,58.4614,2.0513,-0.5127,22.564,54.8716,-18.9746,
-2.3076,41.2822,-236.1538,-4.8716,-19.7437,-16.1538,2.8203,6.9229,53.0771,-11.0259,2.3076,12.0513,58.2051,-21.2822,
-1.0256,43.0769,-238.4614,-4.1023,-20.5129,-14.8718,7.1794,1.0256,54.8718,-19.9998,10.7693,9.7439,56.4104,-32.8206,
-0.51269,44.1025,-234.3591,0.5127,-22.0513,-24.6152,7.6924,-5.1284,64.1025,-5.1284,7.1792,15.3848,61.0254,-40,
1.282,39.7434,-238.2053,-0.76929,-25.8977,-31.0259,5.8972,-2.3079,60.2561,0.76929,-4.8718,13.5896,62.3074,-36.1541,
1.0254,37.9487,-240.5129,0,-23.5898,-26.1538,9.231,0,53.3335,-6.1538,-4.6152,12.8203,58.9741,-25.6411,
-3.0767,37.436,-241.5383,2.564,-19.4873,-30.7693,12.3076,-2.564,61.0259,-4.6152,3.0771,14.8721,58.9746,-29.2305,
-1.7949,39.231,-239.7437,1.7949,-19.7437,-40.2563,10.5127,-1.7949,69.4873,-2.3076,3.3335,14.6152,67.436,-35.6411,
1.7949,45.3843,-236.1541,-0.76953,-19.231,-33.0771,11.5381,0.25635,63.8462,-3.8462,-0.25635,17.6924,77.1792,-21.7949,
0.25659,47.4358,-236.1538,-3.3333,-18.718,-30.5129,13.0769,-0.25659,60.2566,-6.4104,5.8972,19.7434,75.6409,-16.6667,
-0.51294,44.1023,-239.4873,-2.5642,-23.0769,-36.4104,9.2307,0.51294,64.1023,-18.9744,12.3079,12.3079,70.7693,-31.6667,
-1.282,46.4104,-242.8206,-3.8464,-26.4104,-30.0002,6.4104,1.282,64.3591,-24.3591,7.9485,11.5383,72.051,-35.1282,
-3.8464,55.6409,-242.3079,-3.3333,-24.3591,-20.7693,6.9231,3.3333,64.3591,-14.1028,6.4104,19.7434,69.9998,-21.7952,
-5.8975,52.0513,-242.8203,-3.8462,-22.8203,-22.8203,7.436,3.8462,71.5386,-8.9741,10,14.6157,67.9487,-21.7949,
-2.0513,43.5898,-238.4614,-1.5386,-20.5127,-25.1279,12.8208,1.5386,78.4614,-7.6924,9.231,10.2563,81.5386,-25.1279,
0.51294,44.6155,-239.4871,-0.51294,-23.5896,-23.5896,10.7693,-3.5896,71.7952,-10.7693,5.6414,13.3333,83.5896,-25.6409,
-0.25659,53.5896,-240.2563,0.25659,-23.3333,-16.6667,10.0002,-0.25659,75.6409,-8.9744,13.5896,22.8206,78.2053,-19.2307,
-8.4614,46.9233,-241.282,-1.7949,-24.8716,-23.8462,11.5386,1.7949,81.7949,-3.333,14.1025,25.8975,73.5898,-20.2563,
-10,39.231,-242.3076,-0.76904,-26.4102,-32.0513,13.5898,0.76904,77.1797,-1.2822,8.9741,25.8975,76.6665,-20.769,
-4.1028,39.9998,-240,-0.51294,-26.1541,-31.2822,13.3333,0.51294,75.8972,-3.5896,12.8206,26.1536,85.1282,-17.4358,
-3.5896,39.9998,-240,-6.6667,-31.2822,-31.7949,11.282,3.5896,76.4104,-5.1282,14.3591,27.1794,83.5896,-24.1028,
-12.3079,36.4104,-244.6155,-11.282,-36.9231,-35.8975,10.2566,7.1794,73.3333,-7.1794,8.718,23.5896,75.3845,-33.8462,
-11.7947,35.8977,-242.564,-5.1282,-31.282,-35.3845,13.8464,5.1282,86.6667,-7.6921,12.3079,16.9231,81.5383,-31.282,
-5.6409,38.4617,-237.9487,-2.5642,-27.1794,-32.3076,12.8206,2.5642,94.3591,-5.1282,17.949,20.0002,94.3591,-25.6409,
-7.6924,36.4102,-239.4873,-9.231,-30.2563,-28.7183,7.1792,6.1538,79.3591,-6.1538,10.769,26.1538,89.2305,-25.1284,
-10.2566,38.4617,-238.9744,-8.718,-26.1541,-21.0256,12.8206,9.7434,74.3591,-7.6921,7.6921,26.6667,86.6667,-12.8206,
-12.3076,35.3843,-242.0515,-8.2051,-22.5645,-20.5132,13.8462,4.1025,86.6665,-10.2563,9.7437,21.5381,96.4102,-4.1025,
-11.5386,31.5381,-242.8208,-7.9487,-25.8975,-20.7695,8.4614,3.8462,85.3843,-10.5132,5.8975,21.7944,98.7178,-3.8462,
-8.7178,34.8716,-240.5129,-7.1797,-28.2051,-20,12.3076,6.1538,81.0254,-10.769,4.6152,23.5898,93.3335,-4.6152,
-8.4614,43.3335,-235.1282,-7.436,-22.3076,-20.2563,19.231,7.436,95.6411,-9.4873,17.1797,25.3848,97.6924,-11.0259,
-14.1025,42.8203,-234.1025,-6.9229,-19.7437,-17.6924,15.1284,6.9229,107.436,-8.9741,22.3076,24.8716,106.4102,-16.1538,
-18.7178,36.1538,-241.282,-5.3848,-20.769,-14.6152,10,5.3848,105.3848,-8.4614,14.1025,24.8716,106.9229,-8.9741,
-19.231,35.6411,-246.9231,-5.3848,-21.7949,-19.231,11.0259,4.8716,104.8716,-7.9487,15.6411,23.8462,103.8462,-4.8716,
-15.6409,35.1282,-242.3076,-7.9485,-20.2566,-23.8459,11.0256,6.4104,114.6155,-6.4104,24.8718,25.3845,107.4358,-7.4358,
-14.8716,27.1797,-241.0256,-14.3589,-20,-23.5898,12.3076,6.6665,121.0259,-6.6665,24.6152,25.1284,106.6665,-7.1792,
-15.6414,28.9744,-245.8975,-10.5129,-18.718,-22.3079,17.6921,5.3845,121.7947,-7.4358,25.8972,19.7434,104.8718,-5.3845,
-12.8208,36.9229,-246.1538,-4.6152,-19.4873,-23.5898,18.9741,4.6152,121.0254,-10.2563,25.6411,16.9229,110.2563,-7.6924,
-9.2305,39.4873,-245.1282,-5.6411,-21.5386,-21.5386,15.3848,5.6411,114.3589,-12.3076,17.436,17.9487,114.3589,-10.769,
-12.5642,43.3333,-251.0256,-4.8718,-21.7952,-13.5896,16.6667,4.3591,113.5896,-14.1028,19.7434,20.2561,115.1282,-4.3591,
-17.1792,43.3335,-255.6409,-7.436,-25.3848,-11.5386,18.7178,0.25635,119.231,-16.6665,20.2563,18.2051,110,-0.25635,
-9.7434,43.5896,-253.8462,-7.1794,-19.4871,-10.7693,18.9744,3.5896,126.1541,-11.7947,15.3845,15.3845,110.2566,-3.5896,
-15.3845,43.5896,-253.8462,-5.6409,-11.7947,-10.7693,17.9485,5.6409,126.1541,-12.3079,14.8718,10.2566,115.8972,-6.1541,
-25.3848,41.7949,-255.1282,-5.8975,-15.1279,-10,17.6924,2.3076,124.3589,-19.231,17.1797,4.3589,116.1538,-2.3076,
-16.1541,42.3074,-255.6411,-3.8464,-20.7693,-12.0515,18.2048,3.3333,125.8972,-14.6155,15.6409,4.3591,114.6155,-3.3333,
-11.282,43.5896,-253.8459,-4.6155,-21.0256,-24.1023,19.4871,4.6155,132.3079,-8.718,13.8464,5.1282,119.4871,-11.7947,
-16.9229,47.1797,-252.8203,-3.5898,-13.8462,-26.1538,20,3.5898,140,-10.769,21.0259,5.1284,126.1538,-12.3076,
-15.3845,47.6921,-254.3589,-3.0769,-9.7434,-11.1538,17.9485,3.0769,139.9998,-15.3845,27.1794,3.5896,122.5642,-7.6921,
-12.3076,47.6924,-252.3074,-4.1025,-12.8203,-8.7178,19.4873,4.1025,142.5645,-15.8975,18.9746,6.1543,118.9746,-8.2051,
-17.6924,50,-248.9741,-3.8462,-12.564,-21.7949,22.8208,3.8462,152.0513,-11.0254,11.5386,6.4102,119.231,-15.1279,
-11.7952,55.3845,-249.7437,-3.0769,-3.5896,-24.6155,23.5896,6.6667,163.5896,-4.1028,23.0769,3.0769,122.051,-20.5129,
-2.3079,56.6667,-249.4871,-5.3845,-3.3333,-19.2307,21.7947,7.949,164.8718,-7.9485,31.0256,2.3079,127.949,-15.1282,
-4.8718,54.1028,-247.4358,-7.9485,-3.8459,-8.4617,25.3845,8.9744,165.3845,-10.5129,28.4617,3.3333,131.0256,-3.3333,
-11.7949,54.3589,-250.2563,-8.2051,-0.5127,-3.5898,29.7437,12.3076,172.8203,-3.0767,27.6924,0,126.6665,0,
-9.7439,54.3591,-251.7949,-5.1282,-1.5383,-7.1794,26.6667,12.3079,177.4358,-3.0769,28.718,1.0256,127.1794,-1.0256,
-9.2307,55.385,-250.2561,-1.5383,-1.5383,-8.2048,23.0769,8.2053,171.2825,-10.7688,27.1799,1.0256,134.3591,-1.0256,
-12.3079,58.9744,-246.6667,1.0256,-1.0256,-3.5896,24.1023,8.2053,162.5642,-9.2307,25.1282,-5.1282,134.3591,-3.0769,
-10.5127,57.6924,-241.282,1.2822,-3.3335,-1.2822,26.4102,10,166.9229,-1.7949,26.9229,-2.8203,133.0771,-1.7949,
-7.6921,58.9744,-240.5127,1.0256,-1.0256,-6.1536,27.6921,10.7693,179.4871,-4.6155,34.8718,-2.051,138.9744,-2.051,
-8.7183,60,-245.1284,2.0513,-2.0513,-18.4619,24.6152,10.769,188.2051,-13.8462,34.3589,-17.051,140,-15.8975,
-10.5129,58.718,-246.9231,4.8718,-4.8718,-22.3079,24.8718,13.0769,195.1282,-15.6409,28.9744,-19.2307,138.2053,-21.282,
-12.5642,59.2307,-242.8203,3.3333,-3.3333,-17.1794,27.4358,12.5642,202.8206,-13.5896,28.9744,-14.6155,137.6926,-12.5642,
-11.282,58.9744,-242.0513,1.0256,-1.0256,-16.9231,27.6921,11.7947,214.3591,-11.7952,29.2307,-20.5129,138.4617,-13.8464,
-6.6663,58.9744,-244.1023,5.1282,-5.1282,-17.9485,25.1282,11.7952,226.1541,-17.9485,30.2566,-21.0256,138.9744,-22.5637,
-5.8975,66.4102,-242.8206,5.8975,-9.4873,-19.231,23.3335,8.4614,228.9746,-19.7437,27.9487,-17.1797,134.1025,-21.7949,
-3.5896,73.8464,-238.4614,3.0769,-3.0769,-12.8206,29.2307,11.282,238.4617,-9.2307,27.6921,-18.9744,135.3845,-11.7947,
-5.1284,64.1025,-242.5642,2.564,-2.564,-7.1797,31.2822,12.8203,252.3076,-13.3335,25.6411,-25.1284,137.436,-15.8975,
-9.4873,62.3076,-247.9487,5.3848,-5.8975,-5.3848,27.9487,13.5898,256.6665,-19.7437,25.3848,-23.8462,138.2051,-16.6665,
-10.2563,72.8203,-248.718,0.5127,-7.1797,-6.6665,24.1025,11.7949,252.3076,-12.3076,30.2563,-24.1025,132.8203,-1.6665,
-7.1797,71.7949,-244.1025,-3.5898,-7.6924,-8.7178,26.1538,6.6665,252.3076,-7.1797,35.3848,-29.231,130.769,3.5898,
-5.3845,67.4358,-236.1538,1.282,-1.282,-11.5383,33.5901,11.5388,262.3079,-7.4358,38.2053,-26.9231,140.2566,-7.9485,
-13.5898,63.3335,-240.2563,1.2822,-1.2822,-19.7437,31.5386,14.1025,259.231,-9.4873,27.436,-30.5129,139.7437,-12.564,
-18.9741,65.6411,-240.5127,0,-1.0254,-14.8716,30.2563,14.8721,255.3848,-8.2051,31.7949,-31.7949,137.9487,0,
-17.6921,61.7947,-239.2307,-3.8459,0.25659,-12.5642,31.0256,12.5642,258.2053,-2.8206,41.282,-28.9744,140.7693,-0.25659,
-15.1282,62.3079,-237.6924,-0.25659,-0.25659,-15.6409,35.1282,12.5642,258.2053,0.25659,33.5896,-26.4104,141.282,-4.3591,
-17.9487,67.1792,-238.4617,0.5127,-5.6411,-16.4102,35.3848,10.769,254.3589,-6.1538,26.1538,-34.3591,136.4102,-0.5127,
-14.3589,69.7437,-232.3079,0,0,-12.8208,36.4102,15.3848,260.5127,-1.0259,33.333,-36.9231,141.0254,-2.0513,
-17.1794,66.4104,-234.1025,0.25659,-2.3079,-15.1282,28.9744,13.5896,258.2053,-0.25659,33.0769,-37.1794,140.7693,-7.4358,
-23.0767,64.6152,-240.5127,-1.5386,-16.9229,-15.8975,23.5898,9.231,249.7437,-8.2051,26.6665,-41.5383,134.8721,1.5386,
-18.9744,65.6409,-237.949,-5.1282,-11.2825,-12.3079,33.3333,11.282,251.282,-5.6414,30.2561,-44.6155,134.3586,5.1282,
-18.4617,60.0002,-238.4614,-9.2307,3.7175,-16.9231,38.4617,8.718,249.7434,-7.1794,33.8464,-46.6665,136.9231,-5.6409,
-17.1797,57.1792,-234.1028,-5.8975,16.6665,-26.4106,41.2817,5.8975,243.8457,-14.6157,35.6406,-46.9233,145.3843,-10,
-8.2053,58.4617,-226.6667,-6.6667,23.5896,-40,46.1541,6.6667,242.5642,-13.8459,40.5129,-49.7437,145.6409,-13.8459,
-2.5642,54.8718,-227.1794,-15.3845,31.7947,-55,47.1794,2.5642,243.5896,-8.718,41.5383,-51.7949,138.4617,-22.0515,
-0.51294,52.3079,-225.6409,-13.3333,37.4358,-70,51.282,0.51294,244.6155,-6.6667,38.9744,-49.2307,146.1541,-20.5129,
-1.0256,43.5901,-222.564,-9.7434,35.385,-71.7947,55.8977,1.0256,239.4875,-10.7693,31.282,-56.4102,157.949,-18.4612,
-0.25659,40.7693,-218.2051,-11.5383,33.0769,-68.4617,53.5896,0.25659,237.6921,-13.5896,31.0256,-61.7949,155.1282,-20.2566,
-3.3335,48.9741,-220.7693,-13.0771,33.5898,-69.4871,48.9741,3.3335,235.1284,-12.0513,30.5127,-57.1794,146.4102,-19.231,
-4.1025,54.3589,-217.9487,-12.8203,41.5386,-62.0513,55.8975,4.1025,227.6924,-5.6411,29.231,-48.7178,151.2822,-7.6924,
-4.3591,48.9744,-213.0769,-15.6409,42.8206,-52.0513,58.2053,1.282,225.3845,-5.3845,37.1794,-48.4614,156.1541,-1.282,
-8.2048,44.1028,-220,-18.9744,35.8977,-53.3333,52.8206,5.1282,227.1794,-7.6921,44.1028,-52.8206,150.7693,-5.1282,
-7.9487,50,-222.8208,-16.1543,36.1538,-55.6414,53.5894,5.8975,221.7944,-7.9487,38.7178,-57.6926,152.0513,-5.8975,
-0.51294,59.4871,-209.2307,-9.7434,44.6155,-52.8206,59.4871,0.51294,220.0002,-12.3079,36.9231,-60.5127,165.1282,-12.3079,
0,53.3335,-202.564,-11.2817,39.4873,-58.9741,60,0,223.0771,-20.5127,32.8208,-63.5896,161.0259,-27.3079,
-3.3333,47.4358,-205.3848,-13.0769,32.5642,-64.8718,63.3333,3.3333,222.8206,-17.1794,24.3586,-65.8975,148.9744,-32.5642,
1.282,56.6667,-198.7178,-8.9744,41.7952,-61.282,70.0002,-1.282,226.4104,-5.3845,33.0769,-64.3589,158.718,-17.5642,
1.2822,65.3848,-192.5642,-7.436,49.4873,-57.1794,70.5127,-2.3076,232.564,-1.2822,46.9229,-58.718,168.4614,-13.5898,
-4.1025,58.4614,-198.9744,-11.2822,42.564,-53.8462,65.1284,4.1025,229.231,-6.6665,44.6152,-54.3589,156.4102,-11.7949,
-7.6921,49.7434,-203.5898,-15.3845,37.9485,-51.282,59.4871,5.6409,226.6667,-8.718,38.4617,-53.8462,145.6409,-5.6409,
-7.1794,54.8718,-199.4873,-14.8718,38.9744,-51.7949,62.5637,5.1282,228.718,-5.1282,38.4612,-51.7949,146.1536,-7.1794,
-3.8462,51.5381,-197.1797,-15.6411,33.5894,-51.0259,62.3076,3.8462,224.8716,-6.9233,42.3076,-51.5386,145.3843,-14.1025,
-1.5383,43.0769,-195.8975,-15.8972,33.8459,-47.6924,59.4871,1.5383,225.1282,-12.8206,51.7947,-53.8462,149.7434,-16.4104,
-0.76929,46.4099,-190.0002,-12.0515,36.1536,-51.5386,65.8972,0.76929,227.9485,-14.6155,49.4871,-56.6667,156.1536,-14.6155,
-1.5386,54.3589,-185.6411,-9.7437,32.3076,-61.5386,76.4102,1.5386,226.6665,-13.3335,34.4871,-57.436,156.9229,-22.5642,
-2.0513,55.3843,-181.5386,-8.7183,38.4614,-63.0771,77.9487,2.0513,224.6152,-10.2568,24.6152,-57.436,159.4868,-28.2053,
-3.8462,48.4614,-181.7947,-12.564,41.7949,-59.7434,72.5645,3.8462,216.667,-13.0767,30,-61.282,160.2563,-20.2563,
-5.8975,44.3589,-186.4104,-16.667,35.6411,-57.6924,76.6665,5.8975,213.0767,-18.2051,30.5127,-61.7949,155.1279,-21.2822,
-4.8718,52.5642,-183.8459,-11.5383,38.718,-53.0769,75.6414,4.8718,219.7439,-13.0769,33.5901,-58.2051,152.0515,-32.564,
-1.5386,63.0767,-177.436,-6.6665,45.6411,-48.718,73.3335,1.5386,228.2051,-3.5898,42.0513,-57.436,152.3076,-27.1797,
-0.51269,61.5386,-175.3848,-8.2051,37.436,-48.2053,76.9229,0.5127,227.6924,-5.1284,45.6411,-57.436,151.7949,-15.3848,
-4.8718,53.5901,-179.2307,-10.5129,30.0002,-42.8203,74.6155,4.8718,217.6926,-10.5129,42.8206,-52.564,149.4871,-12.5642,
-11.2817,57.436,-182.564,-11.7949,32.3081,-33.8459,70.7695,8.2051,212.3081,-8.2051,44.1025,-46.6665,150.2568,-9.7432,
-10.769,63.0771,-179.9998,-10.2563,29.7437,-33.3333,70.7695,6.1538,217.436,-6.1538,46.1538,-52.8203,152.3081,-10.769,
-6.1538,59.4873,-175.8975,-9.231,27.1792,-35.3848,74.8716,6.1538,220,-13.3335,45.6411,-58.9744,153.3335,-17.436,
-10.2566,56.9231,-178.4617,-11.282,29.2307,-33.8462,71.282,10.2566,208.2048,-20.0002,38.9744,-60.5129,150.2566,-14.8718,
-14.3589,67.1797,-181.0256,-10.2563,27.6924,-33.8462,66.6665,10.2563,194.3589,-17.436,26.6665,-62.0513,147.6924,-13.3335,
-6.1538,75.8975,-172.3076,-8.2051,28.2051,-35.3845,74.3589,6.1538,196.9233,-16.4102,21.0259,-60.5127,152.3076,-11.7949,
-4.3591,67.9485,-168.4614,-11.5383,32.0515,-32.0513,77.6921,4.3591,205.3845,-17.1794,28.4617,-55.6411,152.0515,-7.9485,
-13.0769,61.7947,-173.0769,-15.6414,33.5896,-23.8464,69.4871,5.3845,200.2561,-17.1794,33.5896,-52.5642,148.4617,-5.3845,
-12.3074,61.5383,-171.7947,-15.3845,29.7439,-33.3333,68.718,4.6155,194.8718,-17.9485,28.718,-55.8975,149.2307,-4.6155,
-2.3076,58.7178,-166.9231,-10,28.9741,-43.3335,76.6665,2.3076,205.3843,-13.0771,35.6411,-59.231,152.564,-4.3589,
-4.3589,61.7949,-172.0513,-12.0513,27.9487,-28.3335,74.1025,4.3589,202.8208,-13.5898,43.8462,-61.282,147.436,-4.8716,
-12.8203,66.6665,-176.4102,-17.9487,17.436,-13.3335,62.564,5.1284,191.7949,-21.5386,33.8462,-64.6155,141.0259,-5.1284,
-12.564,65.8975,-174.6152,-17.6924,10.5127,-10,61.2822,-0.25635,196.6665,-22.8203,31.5386,-63.3333,142.3076,0.25635,
-7.6921,63.5896,-173.8462,-15.3845,14.3591,-14.3591,64.1028,-1.5383,192.8206,-17.9485,38.9744,-60,141.0256,1.5383,
-8.9741,65.3848,-169.4871,-13.0767,16.1538,-13.0767,63.3335,0.25635,177.8206,-19.2305,33.0771,-60.769,144.8721,-0.25635,
-19.2307,62.8206,-171.5386,-17.1794,13.5896,-14.6155,59.2307,-1.7947,178.718,-21.282,31.0256,-60.7693,148.9744,1.7947,
-23.3333,59.2307,-177.1794,-19.7434,13.0769,-8.9744,57.6921,-1.282,191.0256,-17.1794,44.3591,-55.1282,141.7947,1.282,
-17.1792,61.2822,-172.564,-19.2305,16.1538,-4.8716,59.231,0.25635,183.8462,-17.1792,43.8462,-53.0769,137.6924,-0.25635,
-21.0254,61.5386,-166.6667,-19.4873,14.8716,-9.7437,57.9487,-1.5386,174.8716,-23.0767,29.7437,-60,140,1.5386,
-30,58.7178,-166.9231,-19.7437,11.0254,-11.5386,59.231,-0.25635,182.3076,-25.3848,28.9741,-64.8718,136.6665,0.25635,
-23.3335,60.2563,-166.4104,-16.1538,14.1025,-5.8975,66.9229,4.3589,186.4102,-22.3076,38.2051,-61.7949,138.2051,-4.3589,
-14.8718,62.0515,-161.5386,-12.3079,15.8972,-1.0256,65.1282,1.0256,173.3333,-25.6409,31.7947,-62.0513,142.0515,-5.6409,
-13.0771,63.8462,-154.6155,-10.5127,15.6411,0.25635,61.7949,-0.25635,173.5898,-26.4102,30,-63.3335,142.3076,-1.2822,
-15.1284,60.769,-154.6155,-15.6411,16.6665,-7.9487,65.3843,3.8462,184.8716,-22.3081,32.564,-68.9746,140.769,-3.8462,
-15.3843,60,-156.9231,-18.9741,18.4614,-10.2563,66.667,5.6411,176.9233,-20.5127,21.5386,-72.8203,142.564,-5.6411,
-15.3845,61.5388,-152.3076,-16.9231,18.4617,-2.5642,62.0515,1.0256,166.1541,-24.6155,16.4104,-66.6665,140.5129,-1.0256,
-16.1541,58.718,-150.5129,-17.1794,17.1794,-0.76929,58.718,-3.8464,169.4871,-26.4104,30.5125,-63.3335,135.6409,0.76929,
-13.0769,61.7952,-148.9744,-15.6409,19.2307,-2.8206,63.8464,-0.76929,175.6409,-20.7693,45.5125,-63.8462,140.7693,0.76929,
-12.0513,62.3076,-142.8208,-15.1284,21.7944,-5.8975,67.4355,3.8462,175.1279,-20.7695,40.2563,-67.436,142.3076,-3.8462,
-9.4871,59.7439,-134.6152,-13.0769,22.3079,-8.9744,68.4617,5.3845,169.4875,-22.8206,26.9231,-72.051,141.282,-5.3845,
-14.1025,53.0767,-137.1797,-16.1538,17.6919,-14.1025,64.3589,1.7949,157.6919,-23.3335,24.8716,-74.6155,137.6919,-1.7949,
-22.0513,49.7437,-138.9744,-17.9487,16.4102,-19.4873,63.0771,0,155.3848,-23.5898,30.769,-69.7437,133.8462,0,
-22.8206,49.9998,-131.5386,-18.2053,18.2048,-18.718,62.3079,0.25659,161.282,-30.0002,34.1023,-66.9231,132.051,-0.25659,
-21.7949,50.5127,-127.436,-21.7949,14.6152,-14.6152,59.7437,-0.76904,159.231,-32.564,30.5127,-67.436,131.0254,0.76904,
-19.9998,52.3079,-124.1025,-17.4358,16.4104,-23.5896,65.6409,1.0256,158.4617,-25.6409,29.7434,-61.5386,133.3333,-1.0256,
-17.436,50.2563,-118.9746,-9.7437,20,-30.2563,68.2051,4.1025,156.9229,-27.6924,30.769,-57.949,137.9487,-4.1025,
-18.2051,54.1025,-116.1538,-11.0254,12.0513,-15.2563,56.667,2.3076,148.4614,-38.2051,26.9233,-65.3845,135.6411,-2.3076,
-28.9741,62.3076,-119.2307,-18.2051,0.25635,-0.25635,47.436,-0.25635,151.5386,-47.436,19.7437,-76.6665,122.8208,-6.4102,
-32.051,62.3079,-114.6152,-20.2561,1.282,8.4617,53.5901,-1.282,166.5386,-45.3845,20.2566,-75.6409,121.7952,-9.9998,
-23.8459,59.7434,-106.9231,-16.1541,4.8718,3.3333,55.1282,-3.3333,171.0256,-37.6921,21.282,-71.0256,128.9744,-11.0256,
-22.8206,63.8459,-106.9231,-15.6409,0.76929,2.3074,49.4871,-0.76929,169.9998,-36.1541,16.1536,-73.5898,126.9231,-10.5129,
-27.1794,62.5642,-101.0256,-18.4617,-1.0256,4.1023,53.3333,1.0256,181.0256,-38.4617,18.4617,-74.3591,126.1536,-10.2566,
-30.2566,52.8206,-93.8462,-21.0256,2.5642,6.1536,55.3845,-2.5642,185.6409,-38.9744,23.0769,-72.8206,124.1023,-8.2053,
-28.4612,49.4875,-94.1023,-21.7947,0.76929,5.385,52.0515,-4.8718,186.4104,-35.6409,21.7952,-73.5896,119.2307,-0.76929,
-24.3589,53.0771,-89.4871,-21.7949,-6.9229,4.8721,50,0.25635,198.2051,-31.5381,22.3076,-75.6409,120.7695,-0.25635,
-22.8206,55.6409,-78.718,-19.7439,-5.3845,7.9485,55.6409,5.3845,206.4099,-28.9744,25.8972,-70.0002,127.4358,-5.3845,
-26.9231,50.5129,-74.1025,-20.2566,0.25659,3.3333,58.718,-0.25659,202.3079,-32.5642,24.8718,-66.9231,124.8718,-7.949,
-22.0513,51.2822,-67.6924,-14.8716,0,0,60.5127,2.0513,202.0513,-31.7949,25.6411,-66.6667,122.0513,-3.5898,
-18.2048,60.7693,-60.769,-8.4617,-1.282,1.282,61.7952,8.4617,203.8464,-20.7693,23.8464,-67.9487,123.3333,-6.9231,
-25.6414,63.5896,-57.436,-8.2053,0.51294,-0.51294,59.4871,8.2048,200.5129,-14.8718,16.9231,-72.3079,123.5896,-12.3079,
-26.1538,54.3589,-52.3079,-9.7437,0.5127,-0.5127,58.4614,9.7437,198.4614,-18.9746,18.9741,-70.2566,122.564,-9.231,
-19.2307,46.4104,-44.8718,-9.4871,-0.25659,0.25659,59.2307,11.5383,200.2566,-17.1794,29.9998,-62.8206,119.2307,-3.3333,
-20.5129,49.7434,-40.5129,-12.3079,-1.0256,-1.0256,58.9744,4.1023,190.7688,-16.4104,25.6409,-65.6411,114.3586,1.0256,
-27.1794,53.3333,-39.9998,-19.9998,1.0256,-1.5383,53.3333,1.5383,178.4617,-22.051,14.8718,-70.7693,117.949,-1.0256,
-26.9231,51.0256,-37.6921,-19.7434,3.3333,-3.3333,50.0002,6.9231,181.282,-22.3074,21.282,-68.4614,120.2566,-11.0256,
-24.1025,47.6924,-35.3848,-14.8721,2.0513,-2.0513,51.2817,3.0767,190.769,-16.9233,34.3589,-64.1028,114.3589,-12.3076,
-27.1794,47.1794,-40.0002,-18.9744,0.51294,2.5642,50.2561,-0.51294,186.1536,-16.9231,33.3333,-63.5898,113.8459,-2.5642,
-29.231,46.6665,-48.2053,-21.0259,-0.5127,-1.0259,51.2817,4.1025,171.1536,-21.0259,22.0513,-66.6667,114.3589,0.5127,
-26.4106,44.8716,-52.0515,-18.2051,0.25635,-0.25635,53.5894,7.9487,165.8975,-22.8208,23.333,-69.4873,108.4614,-2.8208,
-31.282,41.0256,-56.4102,-22.051,-9.2307,4.6155,44.1028,6.1541,165.6409,-28.2048,22.0515,-72.8206,100.5129,-4.6155,
-36.9231,41.0256,-58.9744,-21.5383,-12.8206,2.5642,38.4617,6.6667,156.9231,-22.5642,14.8718,-66.1538,102.5642,-2.5642,
-32.051,43.8464,-57.6921,-20.2566,2.1794,-4.8718,47.949,7.949,157.1794,-17.1794,14.6155,-63.3333,110.5129,-6.9231,
-17.051,52.8203,-55.3848,-17.9487,17.1794,-8.2051,62.0513,8.2051,164.6152,-18.9746,22.0513,-68.2051,120,-11.2822,
-7.1794,60.0002,-56.4102,-13.8459,32.1794,-15.3845,68.718,7.1794,157.949,-16.4104,24.1028,-68.7178,122.5642,-8.718,
-6.1538,51.2817,-61.0259,-12.8208,42.564,-30.3845,71.2817,6.1538,148.2051,-12.3076,20,-67.1797,115.3843,-12.3076,
-3.3333,41.282,-68.4614,-18.2053,42.3079,-45.3845,64.8718,3.3333,149.4871,-16.1541,19.2307,-70.5127,111.0256,-23.8459,
-4.3591,41.7947,-72.564,-21.282,38.718,-58.2051,58.718,4.3591,154.1028,-16.6667,22.3079,-74.1025,115.1282,-22.8206,
-5.3845,42.3074,-73.5898,-17.6926,37.6921,-53.5898,60.7693,5.3845,151.5383,-12.0515,22.8206,-75.1282,116.1536,-14.6155,
-1.282,37.6921,-77.6921,-15.6409,39.2307,-45.8975,62.8206,1.282,140.2566,-19.7434,20.7693,-73.0769,111.5383,-12.051,
-1.0256,36.9231,-82.0513,-16.4104,38.9744,-44.1025,64.1028,1.0256,133.3333,-30.2566,23.0769,-69.7437,112.3079,-14.3591,
-6.1538,41.5386,-85.6409,-17.436,42.0513,-44.1025,66.1538,6.1538,141.0259,-24.6152,27.1797,-70.769,114.8721,-12.8203,
-3.3335,43.3335,-92.0513,-17.6924,44.8716,-39.7437,64.3589,3.3335,145.8975,-15.1284,22.8203,-73.5898,111.5386,-10.5127,
0.76929,46.9231,-94.1028,-15.1282,46.4099,-33.5901,60.2561,-0.76929,139.2307,-21.282,18.718,-71.5386,109.9998,-15.1282,
-2.8206,48.9744,-93.5896,-14.1023,44.8718,-29.9998,61.7952,2.8206,137.6921,-29.9998,22.3079,-70.5127,114.1028,-15.6409,
-2.3079,47.949,-97.6924,-15.1282,39.7434,-31.0256,66.9231,2.3079,141.7947,-27.9485,22.8206,-76.1538,112.0515,-17.1794,
-2.8206,41.7947,-103.3333,-14.6155,35.1282,-35.6409,61.7947,2.8206,138.2053,-33.5896,16.6667,-81.7949,103.8459,-24.8718,
-7.1797,43.5898,-104.1025,-12.3076,35.3848,-27.6924,53.8462,7.1797,136.4102,-35.8975,16.9233,-77.9487,106.1538,-20,
-8.718,52.8206,-106.6667,-7.6921,35.3845,-14.8718,53.8459,7.6921,140.5129,-23.5896,25.6409,-73.3333,111.282,-8.718,
-12.0515,49.4871,-113.0769,-7.4358,31.0256,-15.6409,58.2048,7.4358,142.3079,-21.282,30.5129,-72.0513,105.3845,-12.5642,
-13.0767,46.9233,-112.0513,-7.436,32.564,-18.7178,56.1538,7.436,146.4102,-28.4614,31.0259,-68.4614,107.436,-12.0513,
-16.1541,51.5383,-116.6667,-8.9744,29.9998,-16.6667,44.3591,4.8718,141.282,-26.9231,27.4358,-71.0256,105.3845,-4.8718,
-25.3848,48.4614,-130,-19.7437,20.2563,-18.7178,38.7178,3.3335,131.0259,-25.8975,20.769,-77.6924,91.5386,-3.3335,
-26.4104,41.7947,-128.9744,-20.7693,21.7947,-19.2307,44.8718,5.8972,133.0769,-33.5896,15.1282,-75.6411,94.1028,-5.8972,
-18.2051,43.3335,-123.3335,-10.5127,31.5386,-8.4614,48.9741,8.4614,142.3076,-30.5127,19.7437,-69.4873,108.4614,-12.564,
-18.718,45.3845,-130,-12.051,22.8206,-6.4104,46.4104,6.4104,141.282,-21.282,30.5129,-69.4871,101.282,-13.5896,
-25.8977,40.2561,-135.1284,-19.7439,7.8206,-16.1541,38.718,4.8718,135.1282,-24.3591,24.8718,-75.1284,86.282,-4.8718,
-19.4871,41.5383,-133.8462,-18.9744,18.9744,-13.3333,38.4617,3.0769,130.7693,-29.7434,10.7693,-77.4358,88.2053,-3.0769,
-4.4871,52.0513,-126.4104,-10,33.9744,-6.9233,53.4617,2.3076,124.8716,-23.8462,13.5894,-69.4873,103.2053,-6.4106,
-1.7949,50,-125.3848,-8.4614,46.9229,-20.769,55.6411,1.7949,119.231,-22.3076,17.1797,-68.4617,99.7437,-6.4102,
-7.949,40.2566,-132.5642,-14.6155,35.1282,-30.0002,41.7947,3.8459,119.7434,-22.8206,10.5129,-72.5642,85.3845,-3.8459,
-5.3845,41.282,-135.1282,-14.6155,36.1541,-21.282,40.2566,4.3591,118.2053,-27.4358,13.0769,-70.5127,95.1282,-4.3591,
-6.1538,45.6411,-128.7178,-9.7437,38.9746,-21.0254,50.7695,4.1025,123.0771,-33.333,28.0769,-67.1794,106.667,-4.1025,
-14.1028,42.3079,-130,-9.4871,36.1536,-28.9744,46.4104,4.8718,126.9231,-34.1028,28.4617,-74.6155,97.1794,-4.8718,
-14.3589,42.564,-138.4614,-11.7949,34.3589,-24.6152,37.436,3.5898,115.8975,-33.8462,13.4617,-77.9487,89.7437,-3.5898,
-5.6409,48.2053,-133.8462,-9.7434,35.3845,-15.8972,43.0769,3.0769,115.8977,-25.6409,15.3845,-67.6924,97.4358,-3.0769,
-3.8459,44.3591,-131.0256,-10.0002,29.4871,-19.2307,41.282,3.8459,121.7947,-16.1541,28.9744,-64.8718,96.1541,-4.8718,
-10.769,39.4873,-139.4871,-13.8462,24.1025,-22.564,30.2563,1.5386,109.231,-23.0767,18.9746,-70.7693,88.2051,-1.5386,
-12.5645,43.8462,-139.7437,-9.4873,31.0254,-17.1797,31.0254,3.8462,105.8975,-32.5645,17.6924,-66.9233,92.0513,-3.8462,
-8.718,43.5901,-134.8716,-6.6667,32.3079,-23.5896,34.8718,6.6667,120.8975,-26.6667,32.6924,-63.0769,95.8977,-12.8206,
-6.6665,37.436,-133.3333,-11.2822,29.7437,-30.2563,34.8716,6.6665,121.0259,-21.5386,37.436,-64.6155,92.3076,-6.6665,
-9.2305,36.9233,-134.3589,-12.3076,30.2563,-22.0513,32.3076,2.0513,109.231,-28.7178,27.6924,-68.2051,88.7183,-2.0513,
-5.6409,42.0515,-131.282,-6.6667,32.8206,-13.8459,32.8206,3.0769,114.8718,-22.0515,29.7434,-64.6155,93.3333,-3.0769,
-4.6152,38.4614,-133.8462,-11.2822,28.7178,-25.1279,30.769,0.5127,106.1538,-20,29.231,-63.5896,90.2563,-0.51269,
-8.7175,37.4363,-140.5127,-16.4099,27.1799,-28.2048,28.718,-5.1282,91.1538,-30.2561,21.0256,-61.0254,82.0515,5.1282,
-14.6155,34.6155,-141.282,-17.6921,25.3845,-22.3079,26.4104,-4.3591,93.5896,-29.4871,21.282,-57.1794,79.2307,4.3591,
-21.0256,26.6667,-138.4614,-16.9231,20.5129,-30.7693,24.1028,-3.5896,102.5642,-24.6155,33.8464,-63.0769,78.4617,3.5896,
-20.7693,33.5896,-138.718,-14.6155,24.8718,-25.3845,24.3591,-3.3333,95.1282,-32.051,32.5642,-70.5127,74.1028,3.3333,
-16.6667,48.4617,-140.7693,-18.718,23.8459,-10.3845,19.2307,-0.76929,88.4617,-37.6921,17.5642,-73.0769,66.9231,0.76929,
-10.5127,56.1538,-136.1538,-20.2563,15.6411,-1.7949,15.1284,-2.3076,93.5898,-33.0767,2.8203,-70,63.8462,1.7949,
-5.3843,59.7437,-130.5127,-12.564,20.7695,-4.8716,19.231,-4.3589,97.6924,-32.564,17.8203,-68.4614,65.8975,4.3589,
-4.8718,61.7947,-129.4871,-8.4617,27.949,-5.8972,20.2566,2.3079,90.0002,-33.5896,17.6921,-73.0769,65.3845,-2.3079,
-4.8718,59.2307,-125.8972,-11.5383,27.4358,-5.8972,22.8206,4.8718,84.3591,-26.9231,10.5129,-71.0256,69.4871,-7.4358,
-2.564,54.8716,-121.5386,-12.3076,26.6665,-10.7695,27.6924,2.564,93.333,-21.0259,23.0767,-64.1025,72.8203,-4.1025,
-4.8718,51.0256,-120.7693,-12.0515,24.8718,-15.1282,22.8206,4.3591,100.2566,-24.3591,25.3845,-64.8718,69.4871,-4.3591,
-8.2051,51.7949,-115.3845,-13.3335,25.1284,-13.8462,22.564,8.2051,100,-24.1025,20.5127,-67.1794,67.1797,-8.2051,
-7.436,53.5898,-112.0513,-11.0259,24.3589,-10,23.3335,4.3589,96.1538,-23.8462,22.3076,-68.4614,58.2051,-4.3589,
-4.8718,52.5642,-113.5898,-7.4358,21.282,-11.0256,18.718,-0.76929,89.9998,-27.4358,19.2307,-71.5386,49.4871,0.76929,
-3.3333,50.0002,-109.4871,-8.4617,22.3079,-14.6155,19.2307,3.3333,93.0769,-27.9485,14.6155,-68.4614,54.1028,-5.8972,
-5.3845,50.5129,-105.3848,-7.949,22.8206,-15.1282,22.8206,5.3845,100.2561,-28.4617,20.2561,-64.3591,58.2048,-11.0256,
-6.9231,50.5129,-105.8972,-5.8972,24.3591,-15.6409,23.3333,4.8718,93.0769,-34.1023,26.4104,-67.9485,58.718,-4.8718,
-6.9229,45.8975,-108.4614,-6.4102,25.3848,-21.2822,23.3335,6.4102,82.3076,-38.7178,20.769,-73.0769,58.2051,-7.9487,
-4.8718,44.3586,-109.4873,-8.4617,22.8206,-28.4617,19.7434,4.8718,80.7693,-37.1794,7.4358,-73.0771,55.6409,-12.0515,
-4.3589,48.9741,-107.9487,-10.5127,22.3076,-25.8975,13.5898,4.3589,80.769,-33.5898,4.8716,-71.0256,54.6152,-6.4102,
-9.7434,43.5896,-104.6155,-13.3333,24.6155,-22.5642,17.4358,5.6409,82.051,-28.2053,11.282,-66.6667,54.8718,-5.6409,
-14.3586,30.7693,-107.6921,-18.4612,21.0256,-28.2048,17.949,3.0769,82.5642,-29.7434,9.7439,-62.564,53.3337,-3.0769,
-12.5642,29.4871,-112.0513,-17.1794,14.6155,-30.5129,8.9744,1.282,78.718,-37.1794,8.4617,-61.7949,52.0515,-1.282,
-6.1538,40,-107.1792,-8.7178,21.0259,-23.0767,15.3848,6.1538,88.7183,-34.3589,22.5645,-56.4102,55.3848,-6.1538,
-7.4358,40.7693,-106.4102,-9.9998,25.8977,-20.2561,21.282,7.4358,100.7693,-33.5896,27.4358,-55.6409,54.6155,-8.9744,
-9.2307,37.9485,-106.1538,-13.8464,23.0769,-22.5642,15.8972,7.6921,108.2048,-36.4104,24.6155,-58.9744,56.4104,-7.6921,
-8.4617,36.6667,-103.8462,-13.5896,20.7693,-23.8459,12.5642,8.4617,118.718,-30.0002,22.3079,-59.2307,59.2307,-12.0515,
-7.1794,38.4612,-105.1284,-10.7693,22.051,-22.0515,18.9744,7.1794,124.1023,-22.0515,12.3074,-61.0259,57.4358,-9.7439,
-8.9744,35.6409,-116.6667,-13.0769,15.6409,-22.8206,11.5383,6.9231,114.6155,-33.0769,4.3591,-64.3591,47.9485,-4.3591,
-11.5386,39.231,-117.6924,-14.6152,11.5386,-17.1797,-0.25635,7.9487,115.6411,-38.7178,13.5898,-55.6411,41.2822,0.25635,
-10.7695,46.1538,-108.718,-13.8462,12.8203,-17.436,2.0513,6.1538,122.0513,-36.4102,9.7437,-54.3589,38.9741,-2.0513,
-1.282,50.0002,-100.769,-5.3845,23.3333,-18.2048,14.6155,13.0769,121.282,-29.9998,1.282,-57.1794,49.4875,-7.4358,
-2.0513,42.0513,-106.6667,-6.667,25.1279,-18.9746,13.333,11.7949,117.9487,-28.7183,2.0513,-59.4873,52.3076,-11.2822,
-5.1282,41.5383,-111.2822,-8.2053,21.5383,-13.8464,6.6667,8.2048,123.0769,-30.2566,3.0769,-60.0002,46.6667,-3.0769,
-3.0767,48.2051,-111.282,-5.6411,23.0771,-10.2563,8.7183,11.2822,125.6411,-28.2051,2.0513,-58.4614,47.1797,-2.0513,
-5.1282,43.0769,-114.3591,-7.1794,26.6663,-12.8206,8.2048,11.282,118.4612,-24.6155,5.1282,-55.8977,53.3333,-9.7439,
-8.2048,35.3845,-115.8975,-7.1794,27.6921,-11.7947,7.1794,9.7434,116.4104,-24.6155,12.3079,-53.3333,52.3079,-9.2307,
-9.7437,36.4102,-117.9487,-8.7178,30.2563,-13.8462,8.7178,9.231,116.4102,-27.1797,11.2822,-58.9744,46.1538,-11.2822,
-5.6411,38.9741,-116.9231,-11.2822,36.9229,-17.9487,5.6411,7.1792,110.2563,-26.1538,6.6665,-63.5898,50.2563,-11.7949,
-4.1025,32.8208,-116.4102,-13.3335,31.7949,-22.564,6.1538,4.1025,106.6665,-27.6924,6.1538,-66.6665,47.6924,-14.3589,
-5.1282,27.6926,-118.9741,-11.7947,24.6155,-27.6921,6.1541,5.1282,104.6155,-29.7434,5.1282,-69.2305,35.385,-24.615,
-1.282,30.5129,-123.3335,-6.9231,30.5129,-22.8206,1.282,4.8718,95.6409,-28.9744,2.3074,-66.4104,35.1282,-21.7952,
-0.25635,35.1284,-123.3333,-6.4102,32.564,-17.1797,1.2822,3.8462,91.0259,-30,0.25635,-62.3076,39.7437,-9.4873,
-3.8462,38.7178,-122.3076,-7.9487,26.4102,-20.2563,5.8975,7.436,93.5898,-27.436,3.8462,-64.3589,39.231,-13.0771,
-3.8462,33.5898,-129.4873,-10,23.3335,-25.3848,3.8462,11.5386,92.0513,-21.7949,7.9487,-66.9231,43.3335,-20.769,
-1.0256,26.6667,-133.3333,-8.2053,26.6667,-22.5642,1.0256,11.7947,85.6409,-22.5642,9.7434,-65.6409,47.1794,-14.8718,
-1.0256,31.282,-131.2822,-6.1541,33.8459,-22.5642,1.0256,9.2307,85.1282,-26.6667,11.282,-64.6155,42.051,-8.2053,
-1.5383,36.9231,-132.3076,-5.6409,40.0002,-22.5642,1.5383,13.3333,91.7947,-23.0769,16.4104,-61.0256,45.1282,-4.6155,
-4.3589,34.1025,-136.6667,-2.8203,40.2563,-15.1284,2.8203,13.0767,87.9487,-19.7437,15.6411,-55.1282,47.436,-4.8716,
-3.5898,32.3076,-135.8975,-3.5898,39.4873,-10.769,3.5898,9.7437,76.9233,-22.564,9.7437,-54.3589,42.564,-4.6152,
1.5386,32.3076,-133.3335,-6.6665,34.8716,-15.3848,-1.5386,11.7949,73.8462,-24.6152,10.769,-54.3591,36.4102,-1.5386,
1.282,32.5642,-135.6409,-4.3591,32.5642,-15.6409,-1.282,17.6921,80.2566,-16.1536,12.0515,-47.4358,36.1541,-3.3333,
-2.0513,30.2563,-141.5386,-6.1538,35.3848,-13.3335,3.5898,18.9741,82.0513,-11.7949,2.0513,-47.6924,40,-9.231,
0.76929,27.9485,-144.8721,-5.8977,34.1023,-15.6414,-0.76929,16.1536,75.1282,-19.7439,0.76929,-51.0259,43.8459,-5.8977,
-1.0256,26.6667,-149.2307,-3.5896,29.7439,-17.4358,-5.1282,13.3333,69.7439,-24.615,11.7952,-50.769,44.1028,1.0256,
-5.3848,27.436,-150,-0.25635,32.0513,-14.1025,0.25635,15.6411,78.2051,-16.1538,18.2051,-50.5127,46.9233,-1.7949,
-5.6411,25.6411,-150.2563,0,31.2822,-15.3848,0,16.9229,80.5127,-14.3589,13.3335,-52.8206,44.1025,-4.1025,
0.25659,23.8459,-152.0513,-1.282,30.5129,-14.6155,-1.7947,15.6409,68.9744,-23.8459,10.5129,-51.0256,37.6921,-0.25659,
0.76929,22.3079,-153.5896,-0.76929,30.5129,-12.051,-3.3333,13.0769,57.6926,-26.9231,8.9744,-52.0513,37.1794,-5.8972,
-1.5383,25.6409,-152.8206,0.51294,30.7693,-4.1028,-3.0769,16.4104,61.0256,-21.0256,13.3333,-53.3335,44.6155,-0.51294,
-5.8975,22.8203,-159.7437,-6.9229,26.9229,-6.9229,-6.9229,14.1025,64.3589,-25.3848,11.0254,-54.6155,40.2563,5.8975,
-1.282,22.3079,-165.3848,-4.3591,30.5129,-13.0769,-4.8718,15.6409,71.5383,-24.3591,5.8972,-50,36.1541,1.282,
-1.7949,26.4102,-164.3591,1.7949,30,-11.5386,-4.8721,18.2051,79.231,-19.7437,10,-52.0513,35.1279,-6.4102,
-5.8977,29.4871,-161.282,3.3333,24.8718,-4.3591,-5.3845,18.2053,79.7434,-20.7693,11.0256,-58.2051,32.5642,-3.3333,
-5.1282,28.2053,-167.1794,0.51294,26.1541,-1.0256,-6.6667,17.949,70.2566,-23.5896,3.5896,-53.8462,33.3333,-0.51294,
-4.1025,29.7437,-167.6924,0,29.231,-3.5898,-10.2563,18.4614,65.1284,-17.9487,7.1797,-44.1025,36.4102,0,
-3.0771,25.6411,-162.5642,-1.5386,23.5898,-9.7437,-11.2822,18.9741,70.769,-15.3848,9.7437,-46.6667,33.8462,1.5386,
-1.7949,18.2051,-164.3589,-2.8203,20.2563,-11.5386,-5.3848,21.2822,81.7949,-15.6411,8.4614,-49.4871,36.6665,1.7949,
-4.8718,20.7693,-168.4617,0.76929,27.4358,-6.9231,-0.76929,24.8718,78.2048,-20.2566,13.5896,-47.9487,39.7434,-0.76929,
-6.4104,24.3586,-172.0515,0.76929,28.4612,-1.2825,-7.4363,22.3074,65.3845,-25.8977,17.1794,-47.949,35.1282,-0.76929,
-5.6409,20.0002,-176.9231,-2.5642,19.4871,-0.51294,-10.7693,15.8972,64.6155,-20.5129,11.7947,-47.1794,37.949,0.51294,
-5.1284,21.5381,-173.8464,0,20.5127,0,-4.6157,22.0513,70.769,-15.3848,14.8716,-45.6414,44.6152,0,
-4.1025,24.6152,-169.7437,0.5127,29.2305,-1.0259,-2.5645,28.7178,67.6924,-20,18.4614,-44.6155,38.9741,-0.5127,
-1.282,19.2307,-178.2051,-1.7947,29.9998,-1.7947,-8.9744,20.2566,52.6924,-23.8459,8.4617,-43.8459,32.051,1.282,
-5.8972,14.6155,-185.3845,-5.3845,26.9231,-3.8459,-10.5129,15.1282,53.0769,-21.7947,7.9485,-43.8459,35.6409,3.8459,
-10,16.1538,-183.3335,-5.3848,26.4102,-7.436,-7.436,22.8203,68.0769,-18.2051,18.2051,-42.8206,39.7437,5.3848,
-8.2051,17.436,-182.564,-4.1025,26.667,-7.6919,-11.2817,24.1025,70.7695,-16.9229,18.4619,-42.564,37.9487,4.1025,
-3.8464,16.6663,-185.3848,-3.3337,31.5383,-2.8206,-11.0256,20.2561,65.3845,-17.1794,15.1282,-41.2822,38.2048,2.8206,
-4.3589,14.6152,-188.4617,-5.3848,29.4873,0.25635,-15.1284,15.6411,55.1284,-25.8975,11.5386,-44.8716,30.5127,-0.25635,
-10.2563,14.3589,-194.8716,-8.7178,17.436,0,-26.1538,7.6924,40.1284,-32.8203,4.6152,-50.769,20.5127,0,
-11.5383,13.5896,-202.3076,-13.0769,16.6667,0.76929,-28.4617,0.76929,32.0515,-31.5383,-0.76929,-52.051,18.718,0.76929,
-9.7439,12.3074,-202.5642,-10.7693,19.4871,1.5383,-26.6667,6.6667,35.8972,-27.6926,1.0256,-51.282,22.051,-1.0256,
-13.5896,13.5901,-201.282,-7.9485,17.1794,1.282,-29.4871,14.6155,32.5642,-31.0256,2.3079,-53.5896,20.7693,-1.282,
-14.3589,15.8975,-204.6155,-10.769,17.436,0,-29.7437,12.8203,30.2563,-34.3589,1.0254,-53.3335,18.4614,0,
-9.4873,11.5386,-209.4871,-11.5386,15.1284,-1.2822,-26.9229,7.9487,35.6411,-27.436,4.3589,-48.9741,21.2822,1.2822,
-11.5386,6.4102,-207.4358,-7.9487,10,-3.8462,-28.9741,6.9233,38.7183,-25.8975,7.436,-51.0256,19.231,3.8462,
-11.7947,6.6667,-207.6924,-8.2053,10.2566,-3.0769,-30.7693,7.6921,34.8718,-27.6921,3.0769,-51.282,17.4358,3.0769,
-10.2561,8.2053,-206.6665,-6.6667,12.8206,-1.0256,-30.2561,9.7439,32.3079,-28.2048,1.0256,-49.7434,17.949,4.6155,
-8.2051,10.2563,-205.6411,-5.1284,15.3848,1.5386,-30.2563,12.3076,29.7437,-28.7178,-1.5386,-47.6924,17.9487,5.6411,
-6.9229,11.5386,-204.8716,-3.8462,17.6924,3.8462,-30.5127,14.1025,26.9233,-29.4868,-4.3589,-46.4102,18.2051,6.4106,
-7.1794,11.7947,-205.1282,-4.6155,17.9485,4.6155,-32.3079,14.8718,23.0769,-31.282,-8.718,-46.6667,16.4104,5.6409,
-7.1794,11.282,-206.1538,-4.6155,18.4617,4.6155,-33.8459,15.3845,17.949,-33.3333,-13.3333,-46.6667,14.8718,5.1282,
1.282,21.282,-199.7437,-1.282,33.4617,-1.282,-29.4871,14.6155,18.2053,-32.5642,-5.3845,-38.2053,15.1282,7.949,
-1.282,14.1028,-196.1538,1.282,32.5642,-16.282,-26.9231,15.1282,29.4871,-23.3333,-2.3074,-35.1282,21.7952,11.0256,
-3.3335,8.4614,-193.5898,2.3076,24.8716,-20.2563,-25.8975,13.5894,28.4614,-18.7183,-2.3076,-46.4104,19.2305,8.4614,
0,7.6924,-192.3076,0,28.7183,-24.6152,-29.2305,12.3076,30.2563,-26.6665,6.667,-51.7947,10.2563,-6.5386,
1.7947,0.76929,-193.0771,-0.76929,29.4871,-35.6414,-34.1028,15.1282,34.615,-30.5129,9.4871,-48.4617,15.1282,-21.5386,
1.282,-1.282,-191.5383,1.7952,28.9744,-28.9744,-29.9998,16.1541,31.5383,-20.7693,7.949,-46.4102,30.0002,-10.5129,
-0.76929,1.282,-192.0513,0.76929,26.9231,-15.6409,-26.4104,16.6667,28.9744,-15.6409,13.5896,-43.8462,27.9485,-0.76929,
0,5.6411,-190.7693,0,29.231,-12.8203,-27.1797,22.564,36.4102,-15.8975,22.564,-33.3335,17.436,0,
-3.3333,6.4104,-196.6665,-5.3845,30.0002,-19.7434,-35.1282,16.1541,31.5383,-21.282,14.1028,-33.5896,12.0515,3.3333,
-5.8975,7.9487,-199.2307,-5.3848,25.3848,-19.231,-36.1538,10,20.2563,-23.3335,5.8975,-40.769,17.1797,5.3848,
-5.1279,8.7178,-196.9231,-1.5386,24.1025,-17.436,-30.769,15.8975,19.4873,-24.6152,10.2563,-39.4873,22.0513,1.5386,
-0.76929,7.9485,-193.0769,-1.282,31.5383,-16.1541,-28.4617,20.2566,27.4358,-23.8464,15.1282,-35.6409,25.8972,0.76929,
0.51294,5.6414,-193.8459,-0.51294,35.3845,-15.3845,-27.6921,18.4617,31.7952,-17.4358,14.8718,-40.5127,23.0769,-1.5383,
-0.5127,2.564,-195.3848,0.5127,33.333,-14.3589,-24.1025,16.9229,29.2305,-17.436,12.8203,-45.6411,15.3843,-2.0513,
1.5386,-0.5127,-193.3333,-1.5386,31.2822,-15.3848,-25.1284,16.4102,25.6411,-26.6665,13.3335,-44.1025,17.9487,0.5127,
2.0513,1.5386,-193.3333,-3.0767,28.7178,-18.4614,-31.2822,18.9746,25.6411,-31.7949,15.3848,-41.0254,27.1797,-1.5386,
-0.76929,7.9485,-193.0771,0.76929,29.9998,-12.5642,-31.0256,20.7693,26.9231,-24.8718,7.9485,-36.6667,27.4358,-1.7952,
-1.282,9.9998,-195.6411,1.282,30.5125,-5.3845,-31.0256,20.2561,21.282,-24.8718,-1.7952,-35.1282,15.1282,1.282,
2.3076,6.4102,-198.7178,-2.3076,21.2822,-7.9487,-33.0767,21.2822,28.4614,-28.4614,5.8975,-35.6411,10,-7.4355,
2.564,1.5386,-194.3591,-1.5386,12.3076,-16.9233,-33.3335,18.9741,43.4614,-26.1538,10.769,-35.3848,12.3076,-19.4873,
-0.51294,1.5383,-191.2822,0.51294,19.9998,-16.9231,-32.8206,14.8718,48.718,-26.6667,2.051,-33.3333,17.9485,-17.4358,
0.51294,5.1282,-191.7949,-0.51294,19.4871,-12.8206,-30.2566,19.9998,52.8206,-28.2053,7.1794,-31.282,23.0769,-12.3079,
3.5898,2.0513,-190.2563,-2.0513,5.1284,-20.5127,-32.8203,20,60.5127,-26.1538,10.769,-34.3589,19.4873,-15.3848,
7.1794,0.51294,-186.6667,-0.51294,17.4358,-21.0256,-31.282,14.8718,63.0769,-18.4617,2.5642,-32.3079,17.9485,-14.3591,
9.4873,-1.7949,-185.3845,1.7949,32.4358,-23.333,-24.8716,16.1538,67.436,-14.6152,5.8975,-31.0254,18.2051,-12.564,
16.6665,-4.3589,-180.2566,4.3589,39.7437,-31.5386,-20.2563,22.3076,81.2817,-14.6152,20.8975,-33.0771,21.7949,-9.4873,
22.3079,-3.3333,-175.6411,3.3333,39.2307,-34.1025,-18.2053,26.4104,90.5129,-8.9744,30.0002,-30.5129,26.9231,-6.4104,
14.6155,-1.7947,-176.1538,1.7947,37.6921,-33.5898,-20.2566,25.8972,87.9485,-2.8206,15.0002,-28.9744,22.8206,-6.9231,
9.231,-6.6665,-177.436,3.5898,30.769,-34.8718,-20,26.1538,80,-3.5898,6.6665,-28.7178,16.4102,-6.6665,
14.3589,-10.2563,-173.3333,5.6411,33.8462,-37.4358,-12.8203,32.3076,82.0513,-5.6411,21.0259,-25.6409,21.5386,-10.2563,
14.8716,-9.7437,-170.7693,6.1538,36.4102,-42.0513,-12.8203,33.8462,83.5898,-6.1538,13.3335,-26.1538,26.6665,-12.8203,
13.0771,-1.2817,-168.4614,8.9746,34.6152,-32.564,-14.6152,32.564,71.0259,-1.2817,0.25635,-24.8718,28.4614,-0.25635,
6.4102,-5.8975,-179.2307,1.7949,26.4102,-25.3848,-22.3076,23.8462,56.0259,-8.9741,3.3335,-31.0254,23.3335,-1.7949,
3.5901,-9.2307,-185.6409,3.0769,26.1541,-24.1023,-23.5896,24.6155,55.385,-11.7947,12.8206,-28.7175,21.0256,-3.0769,
1.282,-6.4099,-185.3845,5.385,22.3079,-25.3845,-28.9744,21.7952,50.5129,-13.5896,-0.76929,-27.4358,11.5388,0.76929,
1.0259,0.5127,-189.7437,2.0513,11.7949,-21.0254,-38.9741,15.3848,35.8975,-21.5386,-9.7437,-33.3335,2.0513,-0.5127,
2.0513,4.1025,-188.2051,1.5386,12.3076,-14.8716,-37.436,17.9487,32.8208,-22.564,-2.564,-38.4614,4.1025,-1.5386,
3.3335,3.3335,-180.769,4.8721,20.7695,-15.6411,-27.9487,22.3076,37.6924,-15.1279,-3.3335,-39.2305,7.9487,-5.8975,
3.8459,3.8459,-171.0256,7.9485,27.4358,-16.6667,-20.7693,27.9485,47.9485,-4.3591,-3.8459,-34.6155,11.0256,-11.5383,
2.0513,1.5386,-165.6411,7.6924,27.6924,-19.4873,-20,31.2817,44.1025,-1.5386,-3.0771,-35.8975,15.8975,-9.7437,
5.6411,2.0513,-168.7178,6.6665,29.231,-16.9229,-21.5386,29.7437,31.2822,-5.6411,-3.5898,-34.8718,19.4873,-2.0513,
4.3586,1.282,-175.1282,2.8206,26.4104,-19.2307,-24.8718,23.8459,32.051,-8.9744,-1.282,-33.5896,14.6155,-5.3845,
0.51294,-0.51294,-168.2051,6.6667,25.6409,-19.9998,-24.1023,27.1794,45.1282,-5.6409,9.7439,-27.1794,10.2566,-7.1794,
0.5127,-5.6411,-163.5898,9.2305,27.1792,-13.8462,-22.0513,30.769,43.5898,-3.5898,14.8716,-22.564,10.2563,-0.5127,
0.25635,-10,-172.564,1.7949,19.7437,-11.5381,-29.4868,19.7437,28.5898,-11.0254,1.7949,-27.4355,6.4106,-0.25635,
0.76929,-0.76929,-172.0513,2.3079,14.1023,-9.4871,-34.6155,18.718,14.6155,-18.718,-5.8977,-30.5129,1.282,3.3333,
0.76929,5.8977,-164.8716,7.949,16.6667,-2.3074,-33.5896,25.3845,14.1028,-21.282,-0.76929,-30.5129,-1.282,7.4358,
2.0513,3.5898,-163.5896,7.6924,18.9746,-2.0513,-33.8462,20,11.2822,-20.5127,-2.564,-31.2817,-3.5894,3.0771,
7.6921,2.5642,-160.5129,7.6921,19.9998,-6.1541,-31.282,21.0256,9.7434,-15.8977,-9.2307,-30.7693,-1.0256,1.0256,
9.2307,2.051,-162.5642,8.2048,15.8972,-10.7693,-30.2566,27.1794,12.8206,-16.9231,-11.7952,-34.3591,1.0256,-1.0256,
6.4104,0.76929,-162.3076,6.4104,15.1282,-13.0769,-31.5383,20.7693,13.0769,-20.2566,-8.4617,-35.1282,-0.25659,0.25659,
6.667,-1.5386,-154.3589,2.5645,18.9746,-10.769,-30.2563,16.9233,13.3335,-15.3843,0.5127,-27.1792,-0.51269,3.5898,
12.5642,-0.76929,-146.4104,3.8459,21.7947,-5.8977,-25.8977,26.9231,27.4358,-5.3845,13.0769,-24.3591,0.76929,-0.76929,
12.3079,-1.0256,-148.718,7.6921,19.9998,-8.2053,-25.1282,29.7434,38.4617,-2.0515,12.8206,-30.2566,1.0256,-7.6921,
9.7437,-1.5386,-152.3079,5.6411,22.0513,-9.231,-24.6152,26.1538,31.7949,-8.2051,1.5386,-28.7178,5.1279,-4.6152,
9.7437,-1.5386,-149.7437,4.1025,24.6152,-5.6411,-24.1025,26.1538,24.1025,-11.7949,1.5386,-23.0771,9.231,-3.0771,
6.4102,-2.3076,-148.4614,2.3076,22.3076,-5.8975,-27.9487,24.3589,27.9487,-10,7.9487,-22.8203,6.9233,-4.8716,
4.8718,-2.3074,-149.9998,-0.76929,20.7693,-8.9744,-32.5637,21.282,27.4363,-10.5125,5.8977,-24.8718,5.8977,0.76929,
1.2822,-1.2822,-154.1025,0.25635,19.7437,-6.9233,-33.0771,18.2051,17.1792,-17.6924,-0.25635,-30.5127,4.3589,1.2822,
-0.5127,2.0513,-151.7947,6.1538,18.4619,-2.564,-31.2817,17.9487,14.3589,-16.9229,0.51318,-26.1538,0,0,
3.8462,2.3076,-148.4617,8.4614,13.0767,-4.3589,-33.5898,18.7178,14.6152,-14.6157,0.25635,-18.2051,-7.9487,-0.25635,
7.6924,2.564,-147.1794,4.6152,14.3589,-3.5898,-31.2822,22.564,17.436,-19.4873,-2.564,-21.5386,-4.1025,3.5898,
3.5901,1.5388,-146.1538,-1.5383,20.0002,-0.51294,-28.2048,22.5642,18.4617,-25.6409,-1.0256,-30.2561,0.51294,4.6155,
6.1541,3.5901,-139.4871,-2.051,20.0002,-1.0256,-29.2307,20.5129,15.3845,-20.5125,1.0256,-29.2307,-3.0769,3.0769,
11.7952,5.6414,-131.282,1.5383,17.4358,-5.6409,-25.6409,23.5896,22.0515,-12.8206,4.6155,-26.6667,-3.0769,-1.5383,
6.4099,2.8206,-129.4873,4.3586,19.7434,-7.949,-22.8206,27.4358,28.4612,-12.5642,7.4358,-31.5386,-2.8206,-8.4617,
1.0256,2.5642,-131.7949,5.1282,19.4871,-2.5642,-26.1541,25.6409,23.5896,-11.7947,6.6667,-29.2307,-1.0256,-2.5642,
-0.51294,0.51294,-134.8718,3.0769,5.6409,-1.5383,-33.8464,17.9485,14.8718,-13.8464,8.718,-24.1028,-2.5642,2.051,
-0.25635,0.76904,-136.1541,3.8462,5.8975,-5.3848,-34.6157,17.1792,6.9229,-21.7949,10,-23.3335,-5.8975,0.25635,
-0.25659,4.8718,-135.6411,1.282,20.8975,-2.8206,-31.5383,19.7434,4.8718,-24.3591,3.8459,-24.3591,-4.3591,0.25659,
0.5127,5.6411,-130.2566,-1.5386,31.2817,-4.1025,-24.6152,18.9741,6.6665,-19.4873,-0.5127,-21.5386,2.564,1.5386,
0.5127,-2.564,-125.1282,-0.5127,31.2822,-13.3335,-20,18.4614,3.0771,-15.8975,2.564,-17.9487,4.6152,6.1538,
-1.5386,-7.6924,-124.1025,1.5386,32.8203,-11.2822,-20.5127,23.5898,6.1538,-12.3076,5.6411,-13.8462,3.0771,14.8716,
-2.8203,-4.3589,-123.3333,2.8203,28.9746,-2.8203,-22.3076,26.4102,20.2563,-8.4614,7.436,-10,6.4102,16.1538,
-1.5383,-7.6921,-121.0256,1.5383,24.1023,-8.2053,-20.5129,24.6155,21.5383,-8.718,10.2566,-13.3333,8.2053,8.2053,
-1.2822,-16.6665,-118.2051,1.2822,25.3848,-18.7178,-21.2822,22.8203,11.5386,-8.9741,15.1284,-21.7949,7.436,6.4102,
-1.7949,-15.6411,-115.1282,1.7949,24.8721,-13.0767,-22.8203,23.3335,12.5645,-8.4614,23.3335,-17.1792,8.4619,13.5898,
-0.25659,-8.4617,-115.1282,0.25659,24.3591,-7.9485,-22.3079,25.3845,12.5642,-16.1541,14.6155,-8.9744,8.4617,12.0515,
2.3074,-7.949,-117.1797,1.282,23.3333,-12.0515,-21.7952,20.7693,2.8206,-21.7952,-0.38452,-12.0515,3.3333,9.4871,
1.0254,-10.2563,-118.4617,0.5127,22.564,-14.3589,-20,15.3843,0,-18.9746,7.6924,-18.4614,0,15.3843,
0,-8.2051,-111.282,0,23.5898,-11.7949,-15.8975,20.5127,7.1797,-13.8462,21.5386,-19.4873,4.6157,16.9233,
0,-4.6152,-104.6155,0,23.5898,-12.3076,-15.8975,23.5898,4.1025,-13.8462,8.7178,-18.4614,6.6665,6.1538,
3.5896,-1.5383,-103.0769,3.0769,23.0769,-13.3333,-14.3591,18.9744,-4.6155,-20.0002,1.5383,-16.4104,5.1282,4.1028,
5.6409,-6.6667,-104.1025,5.1282,21.5383,-12.3079,-12.8206,17.4358,-3.0769,-23.0769,15.3845,-16.4104,3.0769,8.718,
-0.51294,-12.8206,-104.1025,0.51294,22.5642,-10.2566,-17.4358,22.5642,6.1541,-14.3591,24.1028,-11.7947,4.1028,9.7434,
-0.76904,-11.5386,-99.2307,0.76904,25.3848,-7.436,-20.769,27.436,11.5386,-3.8462,16.6665,-5.8975,8.9746,14.6152,
-1.5386,-13.3335,-101.0256,1.5386,21.0254,-12.8203,-22.564,22.564,4.1025,-11.7949,3.5898,-12.8203,6.6665,11.2822,
-1.282,-10.5129,-101.282,3.8459,23.3333,-9.4871,-14.1023,22.3079,1.282,-11.5383,6.4104,-11.5383,7.4358,10.5129,
-1.5383,-10.7693,-99.4873,1.5383,24.1023,-6.1541,-12.3079,22.051,2.051,-8.718,12.3079,-8.2053,6.6667,11.282,
-0.51294,-13.3333,-96.4102,0.51294,21.5383,-10.7693,-19.9998,20.5129,6.6667,-12.3074,11.282,-11.7947,4.1028,7.1794,
-1.5383,-11.282,-94.3589,4.1028,21.5383,-9.7434,-20.5129,19.4871,5.1282,-14.8718,3.5901,-15.3845,1.5383,10.7693,
-0.25659,-8.4617,-96.1538,4.3591,21.7952,0.25659,-17.1794,19.2307,-2.8206,-13.5896,4.8718,-9.4871,2.8206,19.7434,
0.25659,-13.0769,-97.1794,1.7952,17.6921,-2.3079,-19.2307,19.7434,-0.25659,-12.051,17.6921,-5.3845,4.8718,20.2566,
-3.3333,-18.718,-95.1282,3.3333,15.1282,-13.0769,-20.2566,19.7434,4.3591,-11.5383,18.2048,-8.9744,4.3591,13.5896,
-0.25635,-10.5127,-88.9744,7.9487,23.3335,0.25635,-12.0513,24.8716,-0.25635,-5.8975,12.0513,-5.3848,10,19.231,
-6.4099,-10.5125,-93.0767,2.8206,12.0515,3.8464,-19.7434,21.282,-7.9485,-10.5125,12.5642,-2.8206,3.8464,16.1541,
-8.2053,-13.3333,-93.8462,8.718,-1.0256,-4.1028,-26.6667,22.5637,1.5383,-9.7439,25.6409,2.051,1.0256,14.3586,
1.7949,-11.5386,-95.6409,10,11.0259,-1.7949,-19.231,24.3589,-1.7949,-8.9741,19.231,-1.7949,3.8462,17.6924,
10.2566,-5.1282,-93.3333,5.1282,26.0259,-3.0769,-11.7947,22.051,-14.3591,-11.282,4.231,-11.7947,3.0769,14.8718,
12.5642,-5.3845,-82.3079,6.9231,41.0259,-18.0769,-4.3591,25.3845,-3.3333,-8.4617,7.9485,-11.5388,3.3333,8.9744,
9.2312,-19.9998,-85.1279,3.0769,41.5388,-33.0769,-7.6921,21.5388,-1.0256,-10.7688,9.7439,-15.3845,1.5388,1.0256,
19.2307,-12.051,-83.3333,10.0002,46.4104,-35.6409,-6.4099,24.8718,-5.3845,-6.4099,11.0256,-11.5383,5.3845,10.5129,
21.282,-6.4099,-79.7434,13.0769,46.4104,-24.3586,-2.8206,26.4104,-1.282,-7.4358,13.5901,-11.5383,1.282,14.6155,
10.7693,-16.4104,-81.5383,6.1541,37.4358,-30.7693,-8.2048,23.0769,1.0256,-13.3333,11.282,-19.4871,-1.0256,8.2053,
5.1284,-17.9487,-87.1794,3.5898,35.3848,-33.333,-13.8462,21.0259,-3.5898,-17.9487,5.6411,-17.9487,7.1797,9.7437,
3.5898,-13.333,-93.8459,2.0513,34.3594,-30.769,-15.3843,18.4619,-2.0513,-20,7.6924,-13.333,5.1284,3.5898,
4.1025,-10.2563,-94.3589,3.0771,30.2563,-24.1025,-14.8716,17.9487,2.0513,-13.3335,14.8716,-13.8462,-2.0513,3.5898,
6.9229,-5.3848,-90.0002,6.9229,30.5127,-17.1797,-14.1025,17.6919,-0.25635,-13.5898,17.6919,-7.9487,0.25635,16.1538,
3.8462,-8.9746,-92.0513,1.7949,29.4873,-18.2051,-16.1538,12.564,1.2822,-28.5898,10,-8.9746,-1.2822,9.4873,
1.282,-15.6409,-92.0513,-0.25659,31.5383,-16.6667,-10.5129,15.6409,16.1536,-27.4358,7.9485,-13.5896,0.25659,6.4104,
-0.25635,-15.1284,-93.0769,0.25635,30,-16.6665,-12.564,16.6665,16.1538,-17.6924,5.3848,-16.1538,1.7949,10.5127,
1.0256,-5.6414,-94.3591,-1.0256,26.1536,-19.4871,-16.4104,15.3845,15.8972,-18.9744,3.5896,-12.8206,1.0256,7.6921,
1.0256,-1.0256,-92.8206,-1.0256,24.6155,-22.0515,-10.7693,22.5642,30.8972,-15.3845,8.2053,-9.7434,1.0256,5.1282,
1.0256,-1.0256,-86.1536,4.6155,26.6667,-21.0256,-5.1282,27.1794,45.8972,-7.1794,11.2825,-7.1794,-1.5383,9.2312,
4.1025,-4.1025,-82.0513,5.6411,28.7183,-22.564,-8.2051,24.6152,40.5127,-6.6665,9.231,-5.1279,-6.1538,9.7437,
8.7183,-4.1025,-79.4871,4.1025,26.667,-25.6406,-8.7178,24.1025,33.3335,-6.6665,7.1797,-4.1025,-6.1538,10.7695,
5.6409,-2.5642,-80.0002,6.6667,19.4871,-24.1028,-11.282,21.5383,31.7947,-11.282,2.5642,-8.2053,-12.8206,10.2561,
1.5383,-0.51294,-80,8.718,18.4617,-15.3845,-15.3845,18.4617,29.2307,-14.3591,0.51294,-8.2053,-17.9485,6.6667,
0.76929,0.25659,-80.7693,7.4358,16.6667,-17.1794,-19.2307,17.6921,23.8459,-11.0256,-0.25659,-7.4358,-17.6921,1.7947,
0.51294,1.0256,-83.5898,4.6155,12.3079,-27.1794,-18.9744,16.9231,16.4104,-10.7693,-0.51294,-12.8206,-19.4871,3.0769,
-0.51294,0.51294,-78.4614,2.5642,15.8977,-28.718,-14.8718,17.4358,15.8977,-12.3074,2.0515,-13.3333,-19.9998,4.1028,
3.0769,-1.0256,-69.7437,5.6409,24.1023,-17.4363,-9.7439,24.1023,19.9998,-7.6926,9.2307,-4.6155,-17.949,1.0256,
4.3591,-4.3591,-72.564,4.3591,20.7693,-11.5383,-11.5383,22.8206,14.6155,-7.4358,5.8972,-5.3845,-23.8459,4.3591,
4.6155,0.51294,-72.8206,4.1028,16.4104,-13.3333,-14.8718,17.9485,3.5896,-11.7947,-0.51294,-12.8206,-25.1282,13.3333,
2.8203,2.3076,-72.0513,7.436,16.6665,-10.5127,-14.6152,19.231,-2.3076,-11.0259,2.3076,-7.9487,-18.7178,10,
-1.5383,-8.718,-75.8975,6.1541,14.3591,-7.1794,-14.3586,21.0256,5.1282,-3.5896,2.0515,1.5383,-18.9744,6.1541,
-1.5383,-9.7439,-69.231,6.1536,12.3074,-9.2307,-9.7439,21.5383,16.4104,3.0769,-4.1028,1.5383,-18.9744,15.3845,
1.5383,-1.0256,-58.9744,6.6667,13.8459,-10.2566,-5.6409,23.0769,9.7434,-0.51294,0.51294,-4.6155,-15.3845,16.4104,
10.2566,-0.51294,-56.9231,12.8206,20.5129,-1.5383,-3.5896,26.6667,0.51294,-3.0769,15.5129,-4.1023,-13.8459,12.3079,
10.7695,-9.2305,-59.4871,13.8462,16.4102,-2.564,-9.2305,24.1025,2.564,-6.6665,21.0259,-4.6152,-20.5127,10.7695,
5.8975,-6.9233,-54.6155,11.0254,8.9741,-5.8975,-14.6157,23.333,7.9487,-5.8975,11.5386,-5.8975,-21.7949,7.9487,
3.0767,-0.5127,-54.8718,13.3335,9.7437,0.5127,-14.8721,25.1279,-3.0771,-4.1025,6.6665,-6.6665,-20.5127,7.6924,
0.76929,-0.76929,-55.6411,19.7434,15.1282,7.9485,-7.4358,29.4871,-13.0769,-4.8718,3.8459,-2.8206,-17.6921,15.6409,
-0.5127,-0.5127,-51.7949,18.4614,9.231,10.7695,-4.6152,30.7695,-7.6924,1.0259,0.51269,-1.0254,-22.0513,24.6152,
2.3076,-3.3335,-52.5642,11.5386,7.436,6.9229,-11.0259,25.8975,-5.3848,5.3843,-2.3076,-5.8975,-32.0513,23.333,
11.7947,-6.1541,-50.7693,12.3079,22.436,1.5383,-6.1541,25.6409,-11.7952,1.0256,-1.0256,-5.6409,-24.1028,12.3079,
16.1538,-2.3076,-42.8206,16.1538,35.6411,-0.25635,2.3076,30,-13.5898,-0.76904,0.76904,0.25635,-12.0513,-0.25635,
13.5896,4.8718,-44.8718,15.1282,28.9744,0.76929,-2.8206,29.4871,-8.4617,-0.76929,2.3074,-2.3079,-17.1794,-3.8464,
11.7947,4.1023,-51.7949,11.7947,21.0256,-1.0256,-7.6921,27.1794,-9.2307,-5.1282,1.0256,-9.2307,-23.0769,4.6155,
13.5898,-0.76904,-46.4102,15.6411,19.7437,-4.8716,-3.8462,29.4873,-8.4614,3.3335,0.76904,-3.3335,-18.7178,6.4102,
12.0515,-4.8718,-38.2051,19.2307,14.1028,-1.282,-2.8206,28.4617,-4.3591,11.0256,1.282,0.25659,-20.2566,-0.25659,
12.0515,-2.8206,-34.6155,19.7434,13.5896,7.4358,-7.9485,25.3845,-7.4358,-0.25659,0.25659,-4.3591,-24.3591,3.8459,
9.4873,-3.3335,-39.2305,10.5127,16.6665,3.3335,-15.1279,18.7178,-12.564,-11.5386,3.8462,-6.4102,-30,8.4614,
8.2051,-9.7437,-41.0259,7.1792,16.9229,2.0513,-12.3076,19.4868,-11.2822,-6.667,9.7437,-2.0513,-31.7949,8.2051,
9.7437,-11.7949,-33.8462,17.436,13.3335,6.6665,-6.6665,26.1538,-14.3589,-3.0767,1.5386,-1.5386,-29.2305,5.6411,
15.1284,-6.9229,-23.333,25.3848,15.1284,6.4102,-1.7949,30.5127,-8.4614,-0.25635,-0.76904,0.25635,-26.9231,3.8462,
15.3848,-10.2563,-20.5127,22.564,16.9233,-1.0254,-0.5127,30.769,1.0259,0,1.0259,0,-30.7693,-1.5386,
13.333,-17.436,-19.4873,21.0254,13.8462,3.0767,-2.0513,33.333,0,0,0,-2.564,-33.8462,-1.5386,
12.0513,-17.1797,-18.2051,23.3335,14.1025,13.0767,-2.8203,34.1025,-0.76904,5.3848,-0.76904,-1.7949,-36.1538,0.76904,
14.6152,-14.1025,-17.6924,24.3589,15.1284,14.6152,-2.3076,29.4873,0.76904,4.8716,-1.7949,-0.76904,-42.3076,-1.2822,
19.7437,-12.0513,-13.0771,23.333,16.1538,15.6411,-2.3076,28.4614,-2.8208,-0.25635,-1.2822,0.25635,-39.7437,2.8203,
17.436,-14.3589,-13.3335,21.0259,12.8208,12.8208,-6.1538,27.1797,-13.8462,2.564,-1.5386,-0.5127,-36.9231,0.51269,
16.4104,-13.3333,-16.4104,24.6155,13.3333,14.3591,-2.5642,30.2561,-16.9231,12.3079,-2.5642,1.5383,-38.9744,-1.5383,
16.1536,-19.7439,-16.6667,24.3586,12.5637,13.0769,-3.3333,30.5125,-15.1282,5.8972,-6.9231,0.76929,-44.3591,-0.76929,
18.2051,-24.8718,-9.4873,25.3848,14.6152,10.5127,-2.3076,32.0513,-5.8975,1.7949,-1.2822,1.2822,-44.8718,-1.7949,
12.5642,-28.4617,-12.5642,22.8206,12.5642,6.9231,-4.3591,27.9485,-7.4358,6.9231,-0.25659,0.25659,-48.9744,-8.4617,
8.4617,-27.4358,-17.1794,23.8459,7.4358,10.5129,-9.4871,23.3333,-12.5642,10.5129,-5.8972,3.3333,-55.1282,-3.3333,
9.2305,-31.7949,-16.9233,25.6406,0,15.3843,-16.4106,25.6406,-18.4619,0,-8.7183,3.0767,-60.5129,3.5894,
13.5898,-31.5386,-13.0767,28.4614,3.3335,25.8975,-12.564,32.0513,-24.3589,-7.436,-3.3335,5.8975,-60.2563,10,
9.231,-22.564,-14.8716,29.231,8.2051,36.9229,-8.7178,32.3076,-31.2822,-8.7178,-6.1538,6.1538,-57.436,21.0254,
6.6667,-23.0769,-15.8972,29.2307,10.7693,40.5129,-7.6921,32.8206,-34.8718,-6.6667,-9.7434,6.6667,-53.8462,27.6926,
9.4873,-38.0769,-15.6411,25.8975,9.4873,31.5386,-6.4102,30,-35.6411,-5.3848,-9.4873,5.3848,-60.7693,14.6152,
7.6924,-47.1794,-16.4102,22.0513,4.6157,23.5898,-11.7949,21.0259,-34.3589,-2.564,-11.7949,4.1025,-70.769,2.564,
-1.5386,-51.7947,-17.9487,22.0513,4.6157,24.1025,-17.9487,21.0259,-28.7178,1.5386,-12.3076,2.0513,-70.769,6.1538,
-0.76929,-59.2307,-14.1028,27.9485,11.0256,25.8972,-8.4617,29.4871,-25.8972,0.76929,-6.9231,2.8206,-65.8975,10.5129,
3.5898,-66.1538,-13.8462,28.2051,8.2051,24.6152,-4.1025,28.2051,-29.2307,-3.5898,-10.769,4.1025,-68.718,7.6924,
0,-67.6921,-16.4102,25.1284,0,25.1284,-11.7949,23.5898,-31.7949,5.1284,-18.4614,1.0259,-76.4102,5.1284,
-0.51294,-64.6152,-20.5129,26.1541,2.0515,28.718,-12.3074,26.1541,-33.8462,8.718,-13.8459,0.51294,-83.0769,6.6667,
4.6155,-62.0513,-23.0769,27.6921,3.5896,32.8206,-12.3079,26.1541,-36.9231,-3.5896,-5.6409,3.5896,-87.1794,10.2566,
8.718,-63.0769,-18.4617,34.8718,1.0256,40.5129,-17.4358,29.2307,-35.8975,-1.0256,-2.0515,8.2053,-82.5642,16.9231,
5.1282,-75.3848,-23.0769,32.8206,-4.6155,39.4871,-22.5642,29.2307,-37.436,4.6155,-9.7434,8.2048,-87.6924,15.3845,
4.615,-79.4873,-24.6155,27.1794,-1.0256,38.9744,-16.4104,31.282,-31.2822,1.0256,-12.8206,9.2307,-96.9233,13.8459,
6.1538,-77.436,-23.0771,29.2305,4.1025,41.5381,-15.8975,29.7437,-28.2051,-4.1025,-8.2051,5.6406,-101.0259,13.333,
5.8975,-77.6924,-25.8975,34.1025,3.8462,43.8462,-18.7178,28.4614,-32.0513,-1.2822,-6.4102,1.2822,-100.2563,14.1025,
5.1282,-80,-25.1282,35.3845,1.5383,45.6409,-15.8972,31.282,-34.3589,-1.5383,-12.3079,3.5896,-100,15.3845,
4.6152,-86.6667,-22.564,32.3076,0,46.1538,-14.8721,33.8462,-31.7949,0,-13.8462,8.7178,-100,16.9229,
3.3333,-97.1794,-28.9744,29.4871,-3.3333,43.3333,-19.7434,30.5129,-35.1282,7.9485,-9.9998,11.5383,-107.9487,15.1282,
5.1282,-100,-32.8206,33.8459,-5.1282,43.5896,-22.5642,26.1536,-37.9487,12.8206,-7.1794,10.2566,-121.0256,12.8206,
4.3589,-101.7949,-28.4614,35.6411,-4.3589,43.3335,-21.7949,25.3848,-34.1025,5.8975,-7.436,7.436,-125.8975,13.0771,
5.3848,-104.8718,-26.9229,35.1284,-1.7949,44.3589,-17.1797,28.4614,-36.6667,1.7949,-10.5127,11.5386,-119.7437,15.1284,
7.9485,-110,-34.1025,33.5896,-4.3591,45.8972,-17.6921,26.4104,-43.8462,4.3591,-12.0515,11.5383,-121.282,12.5642,
7.6924,-118.9744,-38.4617,34.3589,-7.6924,46.1538,-24.1025,22.0513,-40,8.2051,-7.1797,7.1797,-130.7693,9.7437,
5.8975,-126.4102,-36.1538,36.6665,-9.4873,42.3076,-28.4614,22.3076,-35.6411,8.4614,-5.8975,7.9487,-138.718,10,
8.4617,-126.9231,-35.1284,34.1023,-4.8718,41.7947,-23.8464,24.3586,-42.8206,4.8718,-7.949,11.0256,-137.1797,11.0256,
8.4614,-135.1284,-37.1797,30,-6.4102,43.333,-18.7183,24.8716,-46.9231,3.8462,-3.8462,10.5127,-138.2053,12.0513,
2.0513,-146.1538,-40,32.8208,-15.8975,40,-25.6411,25.6411,-42.0513,10.7695,-2.0513,10.7695,-149.7434,11.7949,
8.4614,-139.2307,-35.1282,40.2563,-8.4614,44.8716,-27.436,30.5127,-44.8718,12.0513,-8.4614,16.1538,-150,14.6152,
10.2566,-135.8975,-34.8718,36.4104,2.5642,44.1023,-26.6667,22.5642,-59.8718,-2.5642,-21.5383,9.7434,-153.3335,9.7434,
10.769,-142.0513,-35.8975,33.3335,3.0771,39.4873,-32.3076,18.4614,-62.5642,-3.0771,-22.564,6.6665,-168.3335,7.1797,
16.4104,-146.1538,-37.9487,37.949,-5.1282,37.949,-37.9487,18.9744,-55.8972,5.1282,-22.5642,7.6926,-178.9744,6.1541,
18.4617,-141.0256,-36.9231,44.6155,-3.0769,46.1541,-29.2307,20.0002,-52.3076,9.7439,-19.4871,11.7952,-170.2563,3.0769,
13.8459,-140.5129,-34.3591,43.5896,3.0769,47.1794,-25.6411,20.5129,-41.0256,13.3333,-11.282,18.9744,-167.1797,-3.0769,
12.8203,-150.2566,-32.3079,44.1025,3.5898,36.9229,-30.7693,26.1538,-30.7693,14.3589,-10.7695,21.5381,-173.3335,-3.5898,
15.3845,-163.5898,-35.8975,46.6667,-1.5383,37.9485,-29.7437,27.6921,-36.4102,14.8718,-17.4358,19.4871,-174.8718,1.5383,
16.6665,-171.0256,-39.7437,42.3076,-2.8203,46.9229,-32.5642,18.7178,-37.6924,16.6665,-18.2051,22.3076,-175.1282,2.8203,
20,-171.2822,-36.9231,41.5386,0,49.7437,-36.9231,23.5898,-22.6924,18.4614,-11.7949,27.6924,-176.9231,0,
23.8462,-169.4871,-27.4358,49.4873,-0.76904,55.6411,-27.9487,36.1538,-7.6924,23.8462,-3.8462,31.5386,-179.2307,0.76904,
31.7952,-171.282,-21.0256,56.4104,-1.0256,63.5896,-20.5127,38.4617,-4.1023,29.7439,0.51294,32.3079,-182.564,-0.51294,
33.5896,-181.2822,-23.8462,53.0769,0.76929,59.2307,-26.9231,35.6409,-1.7952,25.3845,-5.3845,29.4871,-182.3079,-0.76929,
27.1797,-189.7434,-27.1794,48.2051,-4.1025,50.7695,-34.8716,30.7695,-11.2817,20.5127,-18.9744,28.7183,-186.6665,4.1025,
26.9231,-195.6409,-26.9231,52.0515,-6.9231,55.6409,-36.6665,31.5383,-23.3333,24.8718,-21.282,36.1541,-198.2051,6.9231,
30.769,-200,-26.6667,56.4102,-0.5127,62.564,-31.7949,37.436,-18.9744,32.3076,-13.8462,43.5898,-200.5129,0.5127,
31.282,-200.5127,-26.6665,56.4104,-1.0256,58.4617,-33.8462,33.8464,-15.8975,29.7439,-12.3074,39.4871,-198.9744,1.0256,
28.2051,-212.3079,-30.7693,50.2563,-10.2563,54.8716,-44.1028,23.5898,-30.8975,19.4873,-19.4873,35.3843,-208.2053,10.2563,
28.4617,-227.3079,-32.5642,48.4617,-7.4358,59.2307,-44.8718,27.4358,-36.1538,26.9231,-17.1797,42.8206,-216.1538,7.4358,
36.9233,-228.7178,-31.282,54.8721,-2.0513,62.0513,-42.0513,36.4102,-28.2051,41.9231,-9.2305,48.2051,-214.8718,2.0513,
40.5129,-229.2307,-32.3076,52.3079,-8.2053,59.4871,-47.6924,33.3333,-40.5129,34.3591,-14.3591,42.051,-221.5386,8.2053,
33.8459,-241.0256,-32.8206,47.6921,-11.282,60.5129,-52.8206,31.7947,-50.2563,29.2307,-21.0256,38.4617,-232.3076,11.282,
25.1282,-249.7437,-34.8721,50.2561,-7.1794,61.5383,-55.8977,30.2561,-46.6667,36.4099,-21.5386,41.0256,-234.3591,7.1794,
22.3076,-254.1025,-37.6924,50.5127,-7.436,59.231,-60.2563,25.3848,-56.6667,29.4873,-28.9744,38.7178,-237.1794,7.436,
23.8464,-261.282,-35.6409,47.949,-8.4617,59.2307,-63.3333,19.7434,-71.0256,23.8464,-39.2307,36.6667,-246.4102,8.4617,
22.0515,-272.3076,-34.3589,47.1794,-9.2307,56.4104,-71.7949,18.4617,-68.718,30.7693,-34.3589,38.4617,-254.8718,9.2307,
21.5386,-282.0515,-37.436,48.2051,-13.8462,54.3589,-76.9231,21.5386,-66.6667,31.7949,-30.2566,37.4355,-255.8975,13.8462,
20.769,-287.9487,-40.2563,46.4102,-17.1797,60.2563,-75.6411,19.7437,-81.6667,26.4102,-41.282,35.1279,-258.718,17.1797,
15.8972,-289.231,-41.0259,43.5896,-14.8718,64.1023,-79.4873,14.8718,-96.6667,28.2048,-47.1797,33.8459,-270.2566,18.4612,
17.9487,-289.7437,-38.9744,48.2051,-15.8975,60,-86.1538,15.8975,-101.0256,28.7178,-40,35.3848,-276.4102,20,
31.7948,-297.9486,-35.8973,52.8207,-21.5385,56.4105,-83.5897,22.5643,-94.8717,32.8207,-33.8461,41.0258,-272.3075,21.5385,
34.1028,-312.564,-37.6924,49.4871,-23.3333,56.1541,-86.4102,24.8718,-98.2051,39.2307,-35.6409,41.7947,-276.6665,23.3333,
23.3335,-323.8462,-39.7437,46.4102,-21.7949,55.6411,-96.1538,21.7949,-101.7949,36.1538,-37.6921,38.7178,-288.4614,24.8721,
24.8717,-326.41,-36.1537,53.59,-24.8717,55.6412,-96.1537,25.3849,-102.8204,38.2052,-37.1793,43.3336,-291.0255,26.9235,
32.8203,-327.1794,-32.3079,60,-29.7437,57.9487,-93.8462,29.7437,-110.2563,48.7178,-41.0256,46.6665,-296.9231,30.2563,
33.5901,-330.5127,-31.0256,59.7439,-34.6152,65.3845,-94.6152,31.0256,-111.0256,48.4617,-38.7178,44.8718,-301.7947,36.1541,
30.5128,-341.2819,-30.5128,59.2311,-45.3844,62.8204,-101.2819,30.5128,-116.1537,37.6925,-40.2562,42.8204,-300.7692,34.1027,
36.4103,-345.641,-30.7692,60.5128,-58.4615,57.9489,-104.6154,30.7692,-131.1537,38.9742,-46.6666,47.1793,-308.205,34.8717,
42.5642,-340,-30.7693,61.0256,-64.1025,71.7947,-98.9744,30.7693,-134.3591,48.2048,-45.6411,53.3333,-317.9487,46.6667,
41.5387,-345.1281,-30.7692,65.6412,-67.6923,78.9742,-106.1537,30.7692,-130.7692,46.6666,-44.1024,51.795,-320.5128,49.7438,
43.8462,-351.0256,-32.0513,71.5386,-75.1282,74.1025,-117.1794,32.0513,-126.4102,44.3589,-39.7437,47.9487,-323.8462,47.436,
48.9744,-348.9744,-31.0256,70.5129,-82.8206,76.6667,-114.6155,31.0256,-128.4614,47.9485,-31.0256,48.9744,-332.0513,55.1282,
46.6665,-347.6924,-33.8462,70.769,-85.1282,81.0254,-116.4104,29.7437,-135.3848,45.6411,-29.7437,52.8203,-334.8718,63.5898,
47.1797,-347.6921,-34.8718,72.8208,-77.4358,81.5386,-128.2051,28.7178,-134.3589,45.6411,-28.7178,57.436,-334.3589,68.2051,
52.5641,-348.4618,-30.5131,67.9484,-73.077,82.8204,-130.0001,24.359,-125.3846,51.0255,-24.359,53.5895,-341.795,66.923,
55.3845,-355.3845,-25.1282,69.2307,-72.8203,83.5901,-124.6152,25.1282,-124.1025,53.8464,-26.1538,47.6926,-346.1538,64.6155,
56.1539,-364.359,-25.8976,76.1539,-71.0258,80.2565,-133.077,25.8976,-139.1025,52.5641,-35.1283,50.0001,-342.3077,62.8204,
56.6666,-363.3331,-28.4615,77.1798,-72.5641,83.3336,-145.3846,28.4615,-154.1025,48.4615,-40.2562,53.59,-344.8717,68.4615,
58.4615,-359.9999,-30.7692,71.795,-71.2821,89.2306,-147.1796,30.7692,-169.1025,50.7692,-41.5385,48.2052,-354.8717,79.4874,
61.7948,-359.7435,-32.0511,75.641,-64.8717,90.5131,-138.2052,32.0511,-184.1025,59.7435,-36.6666,44.3593,-357.6923,80.2562,
59.7435,-360.7692,-35.1283,78.7181,-61.7948,92.0511,-137.6923,31.5385,-199.1025,59.7435,-31.5385,44.8719,-354.6154,81.2821,
60.2566,-355.6409,-35.6409,79.7434,-56.6665,100.2566,-142.8206,33.0769,-214.1025,55.6409,-33.0769,46.4104,-356.6665,92.5642,
63.8458,-351.5385,-32.5641,82.3077,-56.6669,103.3331,-145.3846,32.5641,-229.1025,59.7433,-38.7181,46.4103,-364.359,93.0768,
63.0771,-363.5896,-30.2563,77.436,-67.6921,94.3594,-148.2048,30.2563,-243.0767,66.1538,-39.4871,50.7695,-362.564,86.667,
63.3333,-374.1028,-31.0256,74.1023,-64.8718,87.9485,-152.5642,31.0256,-258.0767,62.8206,-37.1797,49.9998,-358.718,90.5129,
67.4359,-366.4103,-32.0511,78.7181,-49.8718,86.4105,-148.9742,32.0511,-273.0767,61.2821,-36.6666,44.3588,-365.8973,89.9999,
66.4103,-360.7692,-28.9742,78.7179,-37.6923,74.6154,-142.3077,28.9742,-288.0767,66.4103,-40.7692,44.8717,-373.5897,79.2306,
72.0513,-363.8462,-26.4102,78.2051,-34.6155,61.7949,-144.8718,26.4102,-303.0767,68.9741,-42.8206,51.0259,-373.0769,82.8203,
77.4359,-359.4872,-27.6923,84.1024,-31.2821,66.1537,-147.1796,27.6923,-318.0767,68.7181,-43.5897,53.8461,-373.8461,95.3846,
72.8207,-350.7692,-26.1537,87.6923,-35.3846,72.8207,-144.6154,26.1537,-333.0767,68.7181,-52.3075,53.3334,-380.5128,94.8719,
74.8718,-353.3333,-23.0769,83.5896,-34.3589,70.7693,-141.5383,23.0769,-348.0767,69.7434,-51.7949,52.8206,-379.4871,89.2307,
76.9233,-361.5383,-24.6152,78.9746,-33.8462,69.7437,-141.5383,24.6152,-363.0767,66.1538,-38.9744,49.231,-376.4102,88.7178,
74.8717,-358.4615,-26.1539,80.0001,-38.9745,71.7946,-141.0258,26.1539,-378.0767,58.4615,-43.5897,43.5895,-380.0001,90.7692,
76.1538,-350,-25.8975,80.7695,-30,73.0771,-135.6409,25.8975,-393.0767,54.1025,-57.6921,38.2051,-381.282,89.4873,
79.4874,-346.6666,-29.2308,76.923,-23.0768,74.359,-131.2821,23.0768,-408.0767,55.8976,-52.3077,37.9489,-385.641,87.6925,
86.6666,-340.5128,-28.205,79.4874,-22.5641,82.5641,-119.4872,22.5641,-423.0767,66.6666,-37.4359,51.2823,-383.0768,99.4874,
88.4615,-337.1793,-27.9486,79.7438,-18.7179,86.4103,-111.0255,18.7179,-438.0767,68.4615,-45.3844,54.1027,-377.1793,103.8463,
88.4619,-335.1282,-26.9229,80.7695,-16.1538,86.9233,-111.0254,16.1538,-453.0767,62.3076,-53.5896,51.5386,-379.7434,101.2822,
92.8208,-326.1538,-21.0256,88.2051,-20.5127,94.3589,-107.1794,20.5127,-468.0767,70.2563,-38.5896,62.564,-386.6665,115.3848,
87.9487,-321.7949,-19.7437,87.9487,-33.0769,96.6665,-110,19.7437,-483.0767,79.7437,-28.9744,67.9487,-394.6155,125.3848,
81.282,-325.3845,-19.2307,87.949,-38.7178,94.6155,-117.1794,19.2307,-498.0767,81.282,-27.9485,66.4104,-396.6665,121.7952,
79.9998,-335.3848,-21.0256,89.7434,-41.5386,89.7434,-118.4617,21.0256,-513.0767,73.3333,-26.6667,68.718,-400.5129,117.9485,
79.7438,-338.7179,-22.8204,87.9489,-45.3844,81.795,-113.5897,22.8204,-528.0767,72.5641,-30.5128,68.4615,-403.8461,116.1539,
80.7692,-326.923,-22.3077,90.5128,-42.8204,85.8976,-111.0258,22.3077,-543.0767,82.8204,-34.1027,67.9489,-397.6923,116.1539,
89.4872,-318.7181,-19.2308,99.7435,-34.6156,94.1024,-111.5387,19.2308,-558.0767,83.8461,-34.6156,76.6664,-388.9745,122.8202,
92.3079,-320.5129,-18.4617,99.4871,-32.3076,97.4358,-112.3076,18.4617,-573.0767,68.8461,-38.9744,78.4617,-390.2563,127.1794,
90.5129,-312.0513,-18.718,92.5642,-31.0256,107.4358,-111.5383,18.718,-588.0767,61.282,-37.1794,71.5383,-392.564,124.8718,
96.6669,-302.8204,-15.641,92.5643,-23.3331,97.1796,-109.4872,15.641,-585.3844,76.282,-26.923,72.5643,-387.9486,126.9232,
98.2051,-309.4873,-13.0769,93.0767,-23.3333,82.1796,-108.4617,13.0769,-598.718,84.3589,-27.436,80.2563,-383.8462,132.564,
98.2053,-304.8718,-15.1282,93.5896,-31.5386,84.8718,-111.0256,15.1282,-610.5127,72.0515,-34.1025,79.7434,-382.3076,136.6667,
109.231,-289.8718,-18.4614,101.0259,-38.4614,99.8718,-115.8975,18.4614,-595.5127,71.2822,-27.6921,76.4102,-381.0256,144.1025,
115.3844,-274.8718,-16.4103,106.1539,-45.1283,114.8718,-116.9232,16.4103,-589.2308,80.0001,-28.2052,78.9742,-382.0514,146.6666,
112.0514,-260.7694,-12.0514,105.8976,-53.5897,129.8718,-118.2052,12.0514,-604.2308,75.1281,-42.3077,75.1281,-382.8207,138.7179,
118.4612,-251.7949,-12.8206,107.6921,-60.0002,144.8718,-122.0515,12.8206,-619.2308,73.3333,-41.0259,72.3074,-385.1284,144.1023,
122.3077,-253.0768,-14.6154,105.8976,-69.4869,159.8718,-123.3331,14.6154,-634.2308,80.7692,-30.5126,81.2823,-391.0255,154.1027,
117.1792,-257.6924,-12.0513,103.8462,-80.2566,174.8718,-124.3591,12.0513,-649.2308,76.6665,-32.0513,89.4873,-393.0769,150,
115.6409,-254.6152,-8.9744,103.3333,-76.1538,175.1282,-119.2307,8.9744,-660.2563,75.1282,-33.0769,88.9744,-385.3845,149.4871,
115.3845,-251.7949,-9.2307,106.1536,-69.2307,177.4358,-115.3848,9.2307,-657.436,82.5642,-28.718,90.7693,-376.4104,157.4358,
114.1027,-248.9745,-10.5128,108.4615,-73.077,183.3331,-121.795,10.5128,-649.4872,81.2819,-30.5128,95.6407,-377.6925,156.1539,
118.7179,-237.6923,-8.4615,109.4874,-75.1281,186.4103,-121.7948,8.4615,-645.3846,75.1281,-32.0511,94.1027,-381.2821,158.7179,
115.8973,-222.6923,-7.1796,114.3588,-69.7435,189.2308,-120.0001,7.1796,-643.077,75.3846,-26.6666,91.7948,-378.4615,172.3075,
108.4617,-216.6667,-8.4617,116.6667,-64.8718,192.051,-127.436,8.4617,-640.2566,80.2561,-22.3079,99.7434,-364.3591,178.718,
110.7692,-221.5385,-6.6666,110.2565,-68.205,191.2823,-127.1793,6.6666,-631.7948,81.5387,-23.5897,101.0255,-352.8204,168.7179,
115.8972,-215.3848,-3.0769,107.6921,-69.2307,189.7434,-114.3591,3.0769,-616.9231,77.4358,-27.6924,95.8972,-349.2307,160.5129,
114.3593,-205.641,-1.5385,111.2821,-62.5641,188.7181,-110.7692,1.5385,-606.1537,74.3593,-25.1281,94.8719,-347.1793,162.0511,
114.6152,-202.8206,-1.7949,114.1025,-59.2307,186.9229,-112.5642,1.7949,-595.6411,80.2563,-24.3589,97.6924,-343.3333,160.769,
116.6665,-198.2051,-1.282,114.1025,-58.718,184.3589,-107.436,1.282,-580.6411,90.5127,-27.436,103.3335,-336.6667,155.1279,
109.7437,-188.718,0,113.333,-60.5129,182.564,-108.2053,0,-569.7437,89.7437,-32.8206,104.6152,-332.8206,153.8462,
103.0771,-177.9487,-3.0769,114.8721,-61.5383,189.7437,-111.7949,3.0769,-566.6665,85.1284,-36.4102,105.1284,-326.6665,162.564,
103.5898,-171.282,-6.1538,115.3848,-59.4871,194.3589,-108.2051,6.1538,-554.8718,90.769,-34.3589,109.7437,-319.4871,167.6924,
99.4873,-180.5129,-3.5898,110.2563,-63.0769,179.3589,-111.282,3.5898,-549.2307,95.8975,-30.7693,111.7949,-316.4102,162.0513,
94.8719,-193.3334,0.51282,104.6156,-68.2052,164.3589,-117.9489,-0.51282,-534.2307,93.8461,-27.6923,109.7435,-309.2308,155.3846,
95.8973,-184.1027,0.51282,108.7181,-66.1539,165.641,-116.4103,-0.51282,-519.2307,100.5126,-28.7179,110.2562,-306.1539,154.8719,
100.0001,-169.1027,1.5385,114.8717,-61.0255,170.2565,-113.8461,-1.5385,-504.2307,105.6412,-34.8717,110.7692,-310.2565,163.59,
104.1024,-155.8973,5.641,114.8719,-57.4359,170.2562,-113.3334,-5.641,-501.0255,95.8973,-42.0511,109.7435,-306.6666,170.2562,
106.1538,-158.9744,8.718,114.3589,-53.8462,168.7178,-111.7949,-8.718,-504.6155,87.6924,-51.7949,111.2822,-298.4614,160,
94.8717,-158.4615,8.2052,114.359,-54.8717,161.5382,-112.3077,-8.2052,-498.4615,91.795,-63.077,106.6666,-297.9486,145.6412,
82.8202,-150.0001,7.4359,117.1796,-58.7181,155.1283,-112.0514,-7.4359,-498.2052,95.1283,-70.0001,98.205,-298.2052,142.3075,
84.1027,-137.9489,9.2308,117.4357,-54.359,155.8976,-113.3334,-9.2308,-494.8717,92.8204,-66.6666,96.4103,-291.7948,145.1281,
84.1024,-136.4103,11.2821,110.2562,-50.2565,155.8973,-120.0001,-11.2821,-482.0514,96.41,-53.8461,100.5126,-285.641,144.6151,
83.0768,-135.3846,9.7435,110.2565,-49.2306,149.7438,-123.0768,-9.7435,-467.0514,104.1027,-44.1024,102.0514,-276.4103,146.6666,
88.7181,-127.1793,6.6666,118.9745,-46.1537,150.7694,-122.5641,-6.6666,-461.0255,107.6923,-46.6666,105.1283,-265.641,150.7694,
91.282,-117.9487,7.6924,119.9998,-44.1025,156.9231,-126.6667,-7.6924,-469.2307,102.051,-56.9231,110.2566,-266.6667,150.2566,
88.4614,-111.0256,10,119.7437,-50.5127,153.0771,-134.6152,-10,-466.9231,98.7178,-56.6667,107.9487,-270.5127,147.436,
88.4614,-106.4102,8.9744,122.3076,-57.1794,148.4614,-137.1794,-8.9744,-458.718,104.8716,-57.6924,102.3076,-259.2307,152.0513,
88.205,-101.0258,8.7179,122.0511,-55.3846,155.3846,-141.5385,-8.7179,-466.1539,103.5897,-66.1539,103.077,-251.2821,158.4613,
85.3844,-101.7948,9.4872,118.7179,-56.1539,150.0001,-142.3077,-9.4872,-467.9486,101.795,-61.7948,109.4874,-249.9999,155.1281,
88.4614,-104.3589,10,117.1797,-56.1538,136.667,-136.1538,-10,-456.6665,105.3848,-52.0513,108.9746,-237.6921,150.5127,
90.7692,-95.8973,10.7692,116.923,-49.2308,148.2052,-136.923,-10.7692,-454.8717,105.1281,-57.4359,105.1281,-225.641,150.7692,
85.8972,-84.3589,11.0256,116.6667,-41.282,163.2052,-138.718,-11.0256,-450.5127,103.3333,-56.1538,111.5383,-220.7693,152.0515,
88.7178,-79.4871,12.8206,120.5127,-43.0769,152.8208,-138.4614,-12.8206,-443.5896,104.1025,-46.1538,117.9487,-214.3589,153.8462,
95.1284,-76.1538,16.6667,123.3335,-49.4871,144.3589,-140.7693,-16.6667,-449.4871,102.3076,-47.9487,118.2051,-205.8975,160.769,
88.7181,-71.7948,17.4359,115.8973,-48.7179,153.8461,-144.1027,-17.4359,-451.7948,99.4872,-50.2565,116.9232,-197.9489,164.6151,
80.5129,-75.3845,14.8718,111.282,-49.7434,154.3591,-142.564,-14.8718,-440.5127,101.0256,-38.9744,116.9231,-190.2563,161.5383,
79.7437,-80.2563,13.5898,112.0513,-56.6667,150.5127,-138.2051,-13.5898,-431.0256,103.8462,-28.9744,119.7437,-185.8975,163.8462,
77.6924,-73.0769,17.1794,113.0771,-60.2563,150.5127,-139.2307,-17.1794,-421.7949,104.3589,-31.5386,123.8462,-185.3845,161.2822,
78.4617,-65.6411,21.0256,113.3333,-58.9744,145.6409,-137.436,-21.0256,-411.7949,105.6409,-37.9487,119.9998,-185.1282,149.7434,
84.8719,-59.7435,22.3077,112.5643,-56.1539,147.9486,-130.0001,-22.3077,-415.1283,102.3075,-42.8204,116.1537,-179.7435,151.0258,
92.3077,-48.205,24.6154,112.8204,-53.3331,154.359,-126.1537,-24.6154,-423.0768,92.3077,-45.641,121.0255,-169.7435,166.0258,
98.9745,-36.4103,29.2308,116.9232,-46.6666,156.9232,-122.5641,-29.2308,-412.8204,86.6669,-37.4359,124.6156,-158.4615,172.3075,
99.2307,-33.0769,29.4871,118.2053,-45.8975,154.1028,-117.6921,-35.6409,-397.8204,90.5129,-29.4871,120.7693,-152.564,160.7693,
92.8204,-32.8204,28.7179,113.8463,-47.1793,152.3077,-115.8973,-37.4357,-386.1537,97.9489,-28.7179,123.59,-147.6923,155.8976,
91.0256,-33.0769,29.4871,108.9744,-51.0256,144.3591,-119.2307,-37.1794,-381.282,99.2307,-29.4871,126.4104,-145.8975,159.7439,
90.7692,-32.3077,30.2565,109.2306,-62.5641,140.0001,-119.4872,-42.5641,-372.8207,96.923,-30.2565,120.0001,-147.1796,157.4357,
85.641,-27.1796,27.1796,105.641,-65.641,144.1024,-115.8976,-51.2821,-366.6666,95.3846,-33.3334,112.8207,-147.1796,147.1796,
80.7693,-26.9231,26.9231,100.2561,-69.4873,137.6921,-116.1541,-54.6155,-362.8206,94.6155,-33.5898,114.6155,-148.9744,141.7947,
77.6924,-27.9487,27.9487,102.3076,-84.4873,124.8721,-121.282,-55.1282,-360.2563,93.5898,-30,117.1797,-151.0256,146.9233,
73.077,-26.9232,26.9232,98.205,-90.5128,122.3075,-120.7694,-62.3077,-353.077,87.4359,-32.0514,109.9999,-152.0514,144.8719,
72.564,-25.8975,25.8975,85.8975,-75.5128,118.2051,-112.0513,-75.1282,-345.3848,80.769,-38.2051,101.7949,-149.4873,129.8719,
72.0515,-27.4358,27.4358,77.6921,-60.5128,103.2051,-107.4358,-85.3845,-348.9744,69.9998,-46.9231,96.6667,-141.282,114.8719,
70.769,-31.2822,31.2822,78.4614,-56.9231,88.2051,-106.1538,-87.6924,-356.9231,65.1279,-54.3591,85.6411,-134.3591,113.3335,
73.0769,-33.0769,33.0769,80.2566,-52.0513,73.2051,-101.282,-87.9487,-352.0513,71.0256,-51.0256,80.2566,-134.6155,114.6155,
70.0002,-31.0256,31.0256,76.1541,-51.5383,59.2307,-97.1794,-89.4871,-337.6921,76.6667,-38.2051,88.4617,-132.564,110.5129,
63.5898,-31.7949,31.7949,72.3076,-52.8206,61.0259,-91.7949,-89.2307,-333.3333,75.3848,-34.3589,87.1797,-124.6155,105.1284,
64.8721,-36.1538,36.1538,73.0771,-49.4871,57.6924,-84.8718,-88.4614,-337.6921,70,-41.282,79.231,-119.7437,104.3589,
66.41,-37.1796,37.1796,71.5385,-51.0258,55.1283,-84.8719,-93.5897,-337.6923,65.3846,-43.8463,82.8207,-121.2821,105.3846,
64.359,-36.1539,36.1539,66.923,-51.0258,53.5895,-87.9489,-96.1539,-328.9745,66.4103,-39.7435,85.3844,-121.2821,100.2565,
62.564,-34.3589,34.3589,63.0771,-51.282,49.7437,-85.1282,-97.9487,-326.6667,68.7178,-39.4871,77.9487,-117.9487,95.3848,
59.9999,-33.3334,33.3334,62.0511,-57.9489,43.5897,-86.6666,-108.2052,-338.4615,58.9745,-49.2308,71.7948,-123.077,90.7694,
57.6924,-34.6152,34.6152,60.769,-59.7437,41.7949,-93.0769,-115.6409,-342.3076,52.564,-55.1282,71.0259,-123.8462,91.0259,
54.6154,-34.1027,34.1027,57.6925,-57.1796,42.3077,-95.1283,-115.1283,-333.5897,58.7179,-50.5128,67.9489,-118.7179,93.59,
46.923,-32.5641,32.5641,55.1281,-56.1539,39.2306,-95.6412,-118.2052,-328.9745,57.692,-51.0258,60.2565,-121.2821,86.4103,
42.3075,-29.9999,29.9999,49.9999,-55.1281,36.1537,-95.1281,-126.4103,-326.4103,54.1024,-55.641,56.6669,-120.2565,80.2562,
42.5641,-28.7179,28.7179,45.6412,-56.41,36.4103,-96.923,-129.7435,-324.6154,52.8204,-52.3075,53.3336,-118.4613,80.0001,
40,-28.2051,28.2051,45.6411,-57.9487,37.436,-97.4358,-129.2307,-325.1282,50.769,-46.6667,52.3076,-117.9487,81.5386,
34.3591,-27.1794,27.1794,42.0515,-57.4358,37.4358,-96.9229,-131.7947,-321.5383,51.282,-47.1794,59.4871,-115.3845,83.0769,
31.5383,-23.8459,23.8459,38.718,-63.8462,38.718,-101.7949,-137.1794,-321.282,49.4871,-47.9487,63.3333,-120.2563,82.8206,
32.3076,-22.564,22.564,41.0259,-69.2307,40,-104.6152,-142.564,-329.7434,41.5386,-55.3845,57.436,-131.282,79.4873,
28.9744,-24.3591,24.3591,39.7434,-70.5129,34.6155,-101.7949,-145.3848,-336.1538,35.6409,-65.3848,53.0769,-136.6667,80.2561,
21.5383,-21.5383,25.1282,35.8972,-75.3845,31.7947,-103.5898,-148.2051,-333.3333,35.8972,-64.1025,54.3591,-140,82.5642,
18.718,-18.718,25.8972,35.6409,-77.6924,33.0769,-103.8462,-153.0769,-325.3848,29.9998,-62.3079,52.051,-148.4617,74.6155,
21.7952,-19.2307,24.8718,34.1028,-74.1025,22.8206,-102.3076,-160.2563,-322.3076,19.2307,-70,46.4104,-148.4614,64.3591,
30.2566,-18.9744,33.3333,33.8459,-66.6667,18.9744,-96.4104,-157.436,-318.9744,29.2307,-65.6411,51.282,-136.9231,68.2053,
28.2051,-22.564,38.9741,31.7949,-65.1282,22.564,-94.3589,-157.9487,-323.0769,37.436,-64.6155,51.7949,-144.1025,68.2051,
