"AF3","AF4","F3","F4","F7","F8","FC5","FC6","O1","O2","P7","P8","T7","T8",
0.51294,39.4871,-45.6409,-14.8718,-38.4614,30.7693,-12.8206,7.1794,-0.51294,3.0769,10.7693,-9.7434,-1.0256,32.3079,
7.4355,41.7949,-44.3591,-12.5645,-39.7439,29.4868,-18.7183,6.9229,-9.4873,-5.8975,7.4355,-11.5386,5.8975,37.6919,
12.0513,32.0513,-42.3079,-12.564,-37.6924,27.436,-20.2566,8.9741,-6.4102,-7.436,5.8975,-3.8462,3.8462,34.6152,
3.0769,17.949,-46.6665,-19.4871,-41.0256,25.6414,-21.0256,8.2053,-3.0769,-1.0256,1.0256,8.718,-9.7434,37.949,
-0.76929,16.6667,-52.5642,-16.6667,-36.1541,29.4871,-12.0515,8.9744,-3.8464,0.76929,6.4104,6.4104,-2.3079,43.8459,
-0.51294,23.5901,-62.564,-14.3586,-36.9229,23.0769,-7.1794,5.6414,-9.2307,-5.1282,7.6926,0.51294,6.6667,39.4871,
-1.5386,28.7183,-67.6921,-17.9487,-39.9998,20,-9.7437,5.6411,-8.7178,-6.1538,4.6157,3.5898,1.5386,32.8208,
-0.5127,14.3589,-66.1538,-18.9744,-29.2307,25.6411,-8.7178,9.7437,-5.6411,0.51269,13.3335,-3.5898,2.0513,25.1284,
-1.282,1.7952,-70,-18.7178,-25.8972,21.282,-10,3.8464,-13.0769,1.282,12.0515,-16.6665,2.8206,15.1282,
0.25659,15.6409,-76.1538,-17.6924,-30.5129,16.6667,-10,1.7947,-11.0256,-0.25659,5.8972,-10.5129,3.3333,13.0769,
-4.8718,14.1028,-84.3589,-20.2563,-31.0256,18.2053,-9.4873,5.3845,-0.25659,0.25659,12.0515,-7.4358,5.3845,9.4871,
-7.1794,-0.89722,-85.6411,-21.5383,-24.1025,21.5383,-6.1538,8.718,2.5642,8.2053,23.0769,-7.6924,10.7693,18.4617,
-5.3845,-12.0513,-92.5642,-28.9744,-32.0513,17.6921,-13.0769,6.4104,-5.8972,8.4617,17.6921,7.3076,5.3845,33.4617,
-6.4102,-10.5129,-100.2566,-30.0002,-40.2566,17.1792,-15.6411,5.8975,-3.8462,7.4355,14.1025,22.3076,3.8462,38.2051,
-12.8206,-7.6921,-106.6667,-26.1538,-34.3591,14.8718,-8.718,3.5896,-1.0256,4.6155,16.4104,7.3076,13.8459,23.2051,
-8.2051,-2.564,-104.6155,-18.9744,-20.5127,17.9487,-2.0513,6.1538,2.0513,7.1797,23.0771,-7.6924,23.0771,21.0259,
-1.282,-4.8721,-104.3591,-15.1284,-20.2566,21.282,-3.3335,12.5637,1.282,13.5896,24.8718,-1.282,18.2048,14.615,
1.282,-4.8718,-108.4614,-13.0769,-24.3589,20.7693,-5.8975,15.6409,-1.282,16.6667,20.2566,-2.3074,15.1282,5.3845,
0.76904,-0.76904,-116.1538,-14.1025,-25.8975,13.0767,-8.4617,8.9741,-5.3848,9.4873,13.0767,-5.8975,19.7437,11.5386,
-4.8718,0.76929,-125.3845,-19.7437,-29.4871,2.3079,-10.5129,-0.25659,-15.6411,1.282,1.7947,0.25659,15.6409,13.5896,
-9.7434,1.5383,-136.9231,-19.4873,-29.7437,2.5642,-10.7693,0.51294,-23.5898,1.5383,-0.51294,9.2307,2.0515,11.7947,
-2.564,1.5386,-141.0256,-14.3589,-24.1025,11.2822,-12.3076,7.1797,-18.4617,9.231,10.2563,15.8975,-1.5386,25.6411,
0,-8.7178,-146.6665,-18.9741,-27.1792,7.1797,-18.9741,0,-19.4871,1.5386,9.7437,2.0513,1.0259,22.0513,
10.2566,-1.5383,-141.0256,-11.7949,-18.4617,10.7693,-3.9741,4.6155,-11.2822,1.5383,14.3591,-12.3079,16.0259,8.718,
6.1538,9.231,-146.6665,-11.2817,-15.8975,6.667,0.51269,5.6411,-12.8203,-1.5386,11.7949,-15.3845,14.3589,-0.5127,
-5.6411,8.2051,-160,-14.8716,-24.1025,0.5127,-14.4873,6.6665,-17.436,-0.5127,6.1538,-0.38452,6.6665,14.4873,
-3.5898,-6.7949,-162.0513,-12.3079,-30.2563,5.6411,-14.3591,10.769,-13.8462,3.5898,9.231,14.6155,12.8203,29.4873,
0.5127,-18.9744,-165.1282,-16.9231,-25.6411,6.6665,-5.1284,7.6924,-14.8718,-0.5127,10.2563,10.2563,11.2822,20,
2.8203,-3.9744,-170.5129,-18.718,-13.0771,2.8203,-0.25635,6.4102,-14.6155,1.7949,13.0767,0.25635,4.8716,5,
0.76929,3.8459,-176.1541,-15.6411,-11.5386,-0.76929,-2.8206,5.3845,-15.1284,2.3074,13.5896,-2.8206,2.3074,1.282,
-0.25659,-2.8206,-181.282,-16.1538,-8.4617,3.8459,-2.3079,6.9231,-14.6155,0.25659,11.0256,3.8459,5.8972,15.1282,
-1.282,1.7947,-188.4614,-21.282,-8.9744,2.8206,-4.3591,2.3079,-19.7437,-4.8718,7.9485,1.282,5.3845,2.8206,
7.6924,4.6152,-185.1282,-13.8462,-8.718,1.0254,-2.564,5.1279,-15.3848,0,12.8203,-4.1025,13.8462,0,
7.6924,-0.5127,-186.6667,-11.2822,-6.6665,2.564,-3.0771,9.231,-16.4104,-1.0259,3.5898,0.5127,15.8975,9.7437,
10.0002,4.3591,-189.4871,-10.5129,-4.3591,6.9231,-7.4358,8.4617,-25.8975,-4.8718,-5.8972,6.9231,7.4358,10.5129,
11.2822,10.769,-190.2563,-9.231,-6.6665,2.0513,-10.769,3.0771,-29.2307,-0.5127,0.5127,-2.564,4.6152,5.6411,
4.8716,11.5386,-187.9487,-8.4614,-5.8975,-1.7949,-5.3848,3.8462,-18.718,7.436,11.5386,-6.4102,15.6411,1.7949,
0.25659,0.76929,-190.5129,-12.0513,-10.5129,-0.25659,-4.8718,4.8718,-12.5642,6.4104,17.6921,6.9231,13.5896,-3.8459,
1.5386,-12.8206,-194.8718,-12.8206,-10.7693,0,-7.1794,7.1797,-9.2307,9.231,23.0771,14.8716,7.1797,0,
-0.25647,-11.5385,-191.5385,-11.5385,-2.3077,0.25647,-6.4103,11.0258,-0.25647,10.5131,24.3593,9.9999,15.641,8.9745,
-1.5386,-2.564,-191.7949,-15.3848,-3.0771,0,-5.6411,5.6411,1.5386,0,21.5386,24.9999,21.0254,18.9741,
6.4102,-1.2822,-196.1538,-13.5898,-6.4102,-2.8203,-2.8203,1.7949,1.2822,-5.8975,11.0259,33.0771,12.564,26.9233,
14.8718,-3.0769,-191.7947,-5.6409,-1.0256,-0.51294,-0.51294,8.718,9.2307,-5.6409,1.0256,18.0771,8.718,26.1541,
7.9487,0.25635,-188.9744,-7.9487,-2.3076,-0.25635,-5.8975,10.5127,13.5898,-6.4102,5.8975,3.0771,14.1025,27.436,
-1.7949,6.4102,-193.0769,-15.1282,-12.0513,-6.9229,-7.9487,1.7949,19.7437,-5.8975,18.2051,12.564,14.6152,30,
-1.5383,1.5383,-192.3079,-13.3335,-12.8206,-8.718,-2.0515,-2.0515,34.7437,3.0769,23.0769,7.6921,14.3586,24.6155,
1.7948,-13.4617,-189.4872,-10.5128,-6.923,-8.4615,-3.3334,2.308,43.8461,11.0258,24.8719,-1.7948,22.308,23.3334,
-3.8462,-16.1538,-197.1794,-14.6152,-15.6409,-14.1025,-13.0769,3.8462,32.0513,3.8462,21.2822,13.2052,17.6924,32.0513,
-3.5896,-1.1538,-202.0513,-10.2561,-17.4358,-9.2307,-6.1536,8.2053,30.7693,-1.0256,21.0256,24.1028,9.2307,44.1028,
-2.5642,1.0256,-208.7178,-9.7434,-7.1794,-9.7434,-1.0256,4.1028,22.5642,-5.6409,13.3333,9.1028,5.6409,42.0515,
0.25659,-0.25659,-209.4871,-7.9485,-0.76929,-9.9998,-5.3845,4.3591,10.5129,-4.8718,1.282,7.949,12.0515,46.4104,
2.8206,11.5383,-210.5127,-7.4358,-3.8459,-2.8206,-6.4104,10.0002,7.4358,-4.8718,-6.9231,9.4871,11.0256,45.3845,
1.7949,16.1538,-213.5898,-12.5645,-3.8462,-1.7949,-2.8208,9.4868,4.8716,-7.9487,-9.4873,1.7949,5.3843,36.1538,
0.76929,4.3591,-211.0256,-17.1794,-3.3333,-8.4617,-3.8459,5.8972,8.4617,-0.76929,-4.3591,13.5896,12.0515,32.5642,
-0.76929,-5.8972,-211.5383,-20.769,-13.5896,-11.0256,-10.5125,0.76929,13.0769,1.7952,2.8206,3.3333,14.1028,17.5642,
-0.25635,7.436,-214.1025,-14.6152,-13.5896,0.25635,-5.8975,8.9746,17.1797,-0.76904,16.1538,-6.4102,16.1538,11.0259,
-10.5127,5.3848,-226.4104,-21.7949,-18.718,-2.3076,-9.4873,2.3076,8.9741,-6.9233,13.0767,8.5898,7.9487,22.8203,
-1.5381,0,-220.5127,-22.051,-9.7432,-0.5127,-5.1279,0,16.9233,3.0771,18.4619,23.5898,12.8208,33.8462,
2.3076,-0.25635,-221.7949,-24.8718,-5.8975,-3.3335,-5.8975,0.76904,15.6411,0.25635,22.3076,8.5898,14.1025,18.8462,
-5.3845,6.4104,-228.4617,-23.8462,-8.4617,-3.3333,-8.9744,7.4358,3.3333,-10.5129,12.5642,4.3591,9.9998,24.8718,
-8.2048,6.6667,-229.2307,-22.0513,1.0256,-1.0256,-6.1536,7.6926,-1.0256,-8.2048,6.6667,19.3591,11.7952,39.8718,
-10,-3.3335,-231.5383,-27.4358,10,-3.3335,-7.9487,2.3076,2.3076,-2.3076,12.0513,18.7178,15.1284,35.6411,
-18.718,-16.1541,-232.5642,-30.5129,1.7949,-8.9746,-8.9746,1.7949,2.8203,-1.7949,14.1025,32.0513,19.7437,42.3076,
-24.1025,-27.1794,-229.231,-28.2053,-0.51269,-12.3079,-2.564,3.5898,3.5898,0.5127,16.4102,28.2051,33.3335,37.436,
-20,-40,-227.1794,-29.7437,7.1792,-19.4873,-2.0513,2.0513,3.5898,3.5898,17.9487,13.2051,38.4614,22.436,
-15.6409,-53.0769,-226.9229,-34.6152,5.3845,-31.0256,-4.8718,-0.76929,0.76929,2.3079,7.949,8.9744,30.5129,19.2307,
-16.1541,-56.6667,-226.9231,-34.1028,1.2817,-32.0515,-0.25635,0.25635,-0.25635,1.7949,7.4355,23.9744,31.0254,34.2307,
-21.0259,-56.4104,-228.2053,-34.3591,1.5383,-30.7695,-2.5642,-1.0256,1.0256,3.5896,22.4355,17.9485,35.3845,24.615,
-28.9744,-63.3333,-231.5386,-39.2307,1.7947,-35.6411,-11.0256,-1.282,1.7947,1.282,37.4355,8.9744,35.1282,15.1282,
-32.0513,-69.4873,-232.5642,-40.2563,0.76904,-39.2307,-8.9744,3.8462,3.8462,-0.76904,35.1284,23.9744,35.1284,22.8203,
-25.3845,-68.9744,-226.9231,-31.5383,-4.3589,-35.6409,-6.4102,5.8975,6.4102,4.3589,30.5127,37.1797,36.1538,24.8721,
-19.2308,-73.0768,-222.3077,-25.8973,-4.8717,-31.5385,-4.359,4.359,9.4874,12.5641,35.1281,22.1797,36.1539,11.0255,
-23.5897,-76.4103,-228.7179,-31.2821,-0.51282,-38.4615,1.0255,0.51282,7.1796,16.41,28.205,7.1797,30.2562,-3.9745,
-27.9487,-68.9744,-237.1794,-34.6155,0.76929,-46.9231,0.76929,-4.3591,-0.76929,15.1282,13.205,9.4871,21.7947,1.7947,
-19.2307,-59.7434,-227.9487,-23.3333,3.8462,-41.7947,3.3335,-0.25635,0.25635,14.1025,-0.25635,20.7695,24.3589,6.9233,
-14.1028,-64.3591,-222.8206,-16.1541,3.3333,-38.2053,3.8459,2.3074,-0.76929,3.3333,4.3586,5.7695,28.4612,-4.8721,
-11.7947,-61.5383,-226.6665,-17.4358,3.5901,-34.8716,-1.0256,3.5901,-3.5896,1.0256,9.7439,2.0515,34.8718,10.1279,
-11.282,-64.1025,-225.1282,-20.5127,1.5386,-33.3333,-3.0769,3.0771,-1.5386,8.7178,12.3076,17.0515,44.1025,23.0771,
-17.9487,-79.1025,-228.718,-25.6411,0,-38.4614,-2.5642,0,2.564,9.231,14.3589,11.2822,39.4873,8.0771,
-15.8973,-77.4357,-234.8717,-21.0255,9.7438,-41.5385,-2.5641,0.51282,9.7438,10.7692,24.6154,7.1798,31.795,-0.51282,
-14.8718,-62.5642,-241.5386,-25.6411,4.1025,-48.718,-7.1797,-4.1025,4.6152,6.6665,28.2051,12.8203,29.2305,5.1279,
-19.2308,-74.6154,-240.7692,-33.5897,-4.359,-46.9232,2.3077,-1.795,6.923,10.5128,32.0514,10.0001,36.1539,1.795,
-21.0255,-84.6154,-238.9742,-28.7179,1.5385,-43.5897,7.1796,4.1027,16.4105,17.9486,37.4359,-1.5385,45.1283,-9.2306,
-15.641,-74.6154,-242.3077,-20.2565,2.8204,-47.4359,-2.8204,3.8461,17.1796,16.1537,38.7181,2.8204,45.3846,-10.5128,
-13.0768,-71.0255,-245.8973,-18.2052,-1.2821,-42.3077,1.2821,5.3849,13.59,13.59,32.5641,15.1281,35.6412,-1.7948,
-18.4614,-76.9231,-255.3845,-24.1025,-2.564,-33.8462,5.6411,1.5386,5.1284,6.1538,18.9746,9.231,21.5386,-1.5386,
-15.1282,-73.5896,-264.3589,-25.8972,0.25635,-35.1282,-0.25635,-1.7949,0.25635,0.25635,14.1025,12.5645,19.7437,1.2822,
-11.282,-77.4358,-267.1794,-28.718,1.5383,-46.1538,-1.5383,-1.5383,3.0769,3.0769,26.1541,22.0515,25.1282,10.2566,
-12.5641,-89.4872,-264.8717,-27.9486,-3.8461,-48.4615,-1.7948,1.7948,14.6154,14.1027,41.1541,11.5387,33.0768,4.8717,
-7.1794,-88.718,-259.4871,-12.9486,-3.0769,-34.3589,1.0256,11.7949,29.6154,29.1027,56.1541,12.8206,48.0768,-1.0256,
-8.2052,-83.5897,-270.2565,-17.4359,-4.1027,-33.8463,-0.51282,8.205,25.641,26.1537,56.9232,19.9999,43.5897,0.51282,
-13.5896,-81.7949,-280.7693,-28.4614,-3.8462,-40.7693,-2.3076,2.3076,12.0515,13.5896,44.3591,20.7693,33.0769,2.3076,
-10.7695,-84.6157,-278.4617,-22.0515,1.0256,-38.9746,-2.0515,6.6663,7.6921,9.7434,42.051,19.4871,36.9226,-1.0256,
-8.2051,-80,-282.564,-18.4614,3.0769,-38.9744,-1.0256,4.1028,1.0256,3.5896,37.949,4.4871,33.8464,-12.8206,
-1.7949,-65,-289.4871,-15.6409,9.4873,-32.0513,5.8975,1.7949,-0.25635,2.3076,37.1797,0.25635,32.0513,-3.333,
-5.1284,-50.2566,-290.7693,-13.3335,6.1538,-30.2566,0,0,-4.1025,4.1025,25.6406,15.2563,29.7437,11.667,
-13.8462,-63.0769,-285.1282,-12.8206,1.5383,-34.3589,-1.5383,2.0515,-1.5383,11.282,18.4617,21.0256,25.1282,16.4104,
-19.7437,-65.3845,-286.4102,-16.1538,-1.2822,-38.2051,-0.76904,0.76904,5.8975,14.6152,20.2563,6.0256,19.7437,4.3589,
-16.9233,-64.6157,-292.3079,-15.8977,-1.0256,-36.9233,-4.1028,1.0256,10.2561,18.9744,23.5896,11.282,22.051,8.2048,
-16.4102,-74.3589,-295.3845,-21.0256,-3.5898,-35.3845,-5.1282,3.5898,9.7437,27.1797,28.7178,26.282,29.7437,15.8975,
-13.8461,-78.4615,-289.2306,-22.5641,-7.1793,-33.8461,-2.5641,6.1539,12.8204,32.8204,43.59,22.5641,36.923,2.5641,
-12.3077,-83.5897,-292.3077,-22.5641,0.51282,-39.4872,2.0511,6.1537,15.3846,28.205,54.8719,7.5641,39.4872,-12.4359,
-10.5129,-88.9744,-296.1538,-24.3591,12.564,-43.3333,12.0513,8.9744,16.6665,28.4614,57.6924,-7.4359,43.3335,-27.4359,
-10.5128,-92.0514,-294.6154,-27.9489,6.4103,-43.8461,13.0768,4.359,10.5128,22.8207,52.0511,-4.359,38.7181,-38.7179,
-6.6666,-78.9742,-297.4359,-23.5897,1.0258,-40.5128,7.6923,0.51282,4.6154,14.3593,46.1542,-0.51282,33.3334,-26.6666,
-10,-63.9742,-309.4873,-17.1794,4.3589,-40.7693,1.7949,1.2822,-1.2822,12.0513,38.2051,6.9229,24.8716,-11.6666,
-16.6667,-59.2307,-316.1538,-14.6155,1.2822,-38.718,-1.2822,1.7949,-5.3848,15.1284,29.4873,21.9229,18.7178,3.3334,
-12.3079,-63.5901,-309.7439,-10.2566,-2.0515,-31.7952,1.0256,8.2048,-1.0256,24.615,25.1282,36.9229,25.1282,18.3334,
-9.7435,-74.3588,-308.205,-12.3075,-3.5897,-32.8204,-0.51282,11.795,0.51282,23.59,17.4362,21.9229,23.0773,11.795,
-6.1538,-71.282,-306.6665,-12.3076,0.51294,-31.7947,0,10.2563,0,20,16.4102,6.9229,14.3589,-3.205,
0.76917,-68.4615,-305.3846,-12.5641,-0.76917,-36.6666,-1.2821,0.76917,-1.7948,14.6154,16.6666,13.0768,15.6412,1.7948,
2.3076,-70,-307.4358,-13.5896,-1.282,-40.7693,0.25635,0.25635,-0.25635,16.6665,21.2822,5.3845,30.6412,-8.9744,
-3.5897,-68.2052,-309.7435,-12.8204,5.641,-38.9742,8.2052,5.641,3.5897,23.077,30.7694,-7.6923,35.8973,-23.9744,
-10.5129,-72.5642,-315.6411,-18.2051,8.9744,-40.2563,7.4358,1.282,1.7949,20.2566,34.1028,-1.282,27.4358,-37.1794,
-15.8973,-76.4103,-323.5897,-21.0255,7.6925,-39.4872,2.0514,-0.51282,0.51282,14.8717,34.359,11.2823,31.795,-22.1794,
-12.3076,-75.3845,-325.1282,-15.3845,3.5896,-39.4873,0,2.0513,0,16.9229,36.9229,15.3848,30.2563,-16.9231,
-3.8462,-72.0513,-318.2051,-10.5127,-0.76929,-38.718,0.76929,4.3589,5.3845,29.4873,40.2563,24.8716,20.2563,-7.9487,
-13.0769,-73.0769,-318.718,-16.1538,-0.76929,-37.6924,-1.7949,2.3076,2.8206,26.9233,32.564,19.7437,17.6924,0.76929,
-19.4871,-70.2563,-321.5383,-15.3845,12.3079,-36.4102,1.0256,3.0769,-1.0256,18.4617,35.3845,7.1794,26.1541,-7.6921,
-16.6665,-72.564,-326.9231,-13.0769,12.5642,-41.7949,3.3333,-0.76929,0.76929,18.718,44.3591,1.282,28.9744,-22.3076,
-11.7948,-73.3334,-327.6923,-11.7948,-0.51282,-38.4615,3.5897,0.51282,6.6666,25.641,46.1537,9.2308,31.7948,-13.3334,
-10.2565,-71.2821,-330.2565,-13.8461,-0.51282,-34.359,-2.0514,3.5897,3.0768,25.641,44.6156,24.2308,30.2562,0.51282,
-6.1537,-67.6923,-331.2819,-13.3331,14.359,-32.3075,-2.5641,4.1027,-0.51282,24.1027,47.1798,25.6412,31.2823,0.51282,
-9.2307,-63.0769,-331.7947,-12.3076,14.8721,-34.8716,2.0513,2.0513,-2.0513,20,41.5386,14.8721,28.7183,-4.1025,
-11.0258,-59.7435,-331.5385,-10.5128,8.9745,-36.1539,2.8207,2.8207,-4.359,18.205,38.205,20.7694,21.7948,-2.8207,
-2.0514,-54.8717,-326.6666,-5.641,8.7181,-33.8461,-0.51282,2.5643,-2.0514,19.9999,45.641,25.1283,22.5643,0.51282,
-1.5385,-48.7179,-324.6154,-2.5641,2.5641,-33.3331,-2.5641,-0.51282,4.1029,14.3593,43.5897,14.8719,25.1283,0.51282,
-8.2051,-52.3076,-327.1794,-6.6665,-1.0256,-34.3589,1.0256,3.0769,12.3079,11.7952,35.3845,12.8206,20.5129,-4.1025,
-12.0513,-67.3076,-334.6152,-12.0513,-0.25635,-41.7949,0.25635,1.282,14.6155,11.5383,28.4617,8.9744,11.0256,-16.1538,
-13.5896,-76.1538,-336.1538,-6.4102,1.282,-42.3076,0.76929,-0.76929,23.3335,9.4873,33.0771,7.436,15.1284,-7.9487,
-15.8975,-66.1538,-333.3333,-5.6409,-2.0513,-42.0513,0,0,32.8208,5.6411,36.9233,17.436,17.9487,7.0513,
-9.2308,-58.4615,-333.3334,-8.7179,0.51282,-41.5385,-2.5641,-0.51282,35.3844,5.6412,31.795,15.3844,17.4357,18.9742,
-8.2051,-70.7693,-338.4617,-12.3076,1.0256,-44.6155,-2.0513,-1.0256,39.4873,10.2563,28.7178,5.1284,18.4614,12.3076,
-20.5128,-85.7693,-341.5385,-15.8976,-5.1283,-55.8976,0.51282,-0.51282,45.1281,12.8204,31.2819,8.7179,17.4357,17.4357,
-25.641,-75.8976,-340.0001,-13.8461,-8.2052,-56.4103,-0.51282,0.51282,45.6412,12.8204,31.795,18.4615,14.8717,32.4357,
-10.641,-60.8976,-338.205,-3.8461,-5.8973,-41.4103,-7.4359,3.8461,46.4105,16.6669,31.5385,24.8719,13.5897,46.4105,
4.359,-45.8976,-346.1538,-7.6921,-12.8206,-38.4614,-13.8462,-3.5896,34.3591,3.5896,21.0256,9.8719,3.5896,31.4105,
8.4614,-30.8976,-340.7693,-1.2822,-1.7949,-39.2307,-0.25635,0.25635,34.1025,2.3076,21.2822,-5.1281,7.436,20.769,
10,-15.8976,-345.3845,-4.3589,1.7949,-41.7947,-10.5127,-5.8975,24.8721,-1.7949,13.0771,-12.0513,3.8462,10.5132,
25,-0.89758,-343.8459,-4.3586,2.8206,-36.6665,-18.7175,-8.4612,19.7439,-2.8206,12.5642,-8.9744,4.8718,13.0769,
40,14.1024,-341.0254,1.0256,6.1541,-39.4871,-8.2048,-11.282,13.8464,-9.7434,8.718,-13.8459,-1.0256,17.949,
31.7952,29.1024,-337.9485,5.1282,16.4104,-40.5127,-2.5642,-9.2307,7.6926,-11.282,2.5642,-9.2307,-9.2307,16.9231,
46.7952,44.1024,-337.1794,4.3589,20.2563,-33.5896,-11.0254,-5.8975,8.9746,-3.3335,3.3335,-5.8975,-7.9487,14.1025,
61.7952,29.1024,-337.9487,5.1284,22.0513,-32.3076,-10.769,-13.3335,6.6665,-5.1284,5.1284,-19.4873,-7.1797,5.6411,
74.1025,33.0767,-333.5898,6.4102,34.6152,-39.2307,4.231,-16.6665,3.3335,-7.9487,3.3335,-24.3591,-12.564,-3.3335,
59.1025,48.0767,-329.2307,6.1541,46.6667,-35.8975,10.7693,-4.6155,8.718,-0.51294,0.51294,-15.8975,-13.8459,-4.6155,
53.3333,63.0767,-328.718,9.7434,45.1282,-25.6411,1.5383,-1.5383,11.7947,-2.0515,1.5383,-20,-11.282,-6.6667,
59.231,78.0767,-324.3589,18.2051,43.8462,-22.8206,0.25635,-3.3335,7.436,-3.8462,8.9746,-21.282,-2.3076,-0.25635,
63.3333,63.8459,-324.8718,13.5896,37.6921,-30,0.76929,-2.8206,-0.76929,-5.3845,3.8459,-6.282,-3.3333,11.5383,
58.7183,57.1797,-324.3589,8.9746,34.1025,-29.4871,0.25635,-2.3076,-0.25635,-3.8462,1.2822,-0.25635,-5.8975,10.5132,
53.0771,57.6924,-320.2563,13.0771,36.1538,-27.4358,-0.25635,-3.3335,4.3589,-0.25635,13.0771,-15.2563,0.25635,-4.4868,
52.3076,46.1538,-317.436,14.3589,32.3076,-33.8464,-1.0259,-4.6157,2.564,0,13.8462,-29.231,0,-4.6157,
43.0771,39.4873,-318.4614,7.1797,28.7183,-37.9487,-2.564,-5.1279,0.51269,-0.5127,0.51269,-14.231,-5.6411,6.667,
39.2307,52.051,-314.6155,0.76929,25.8972,-38.718,-4.3591,-3.8464,5.8972,3.3333,-0.76929,-1.282,-1.282,1.282,
40.7693,57.1794,-314.6152,-1.282,20.7693,-45.3845,-5.8972,-5.8972,3.3333,2.3079,3.3333,-16.282,1.282,-13.718,
39.4873,52.8208,-314.3589,5.6411,28.2051,-43.0769,-0.5127,-5.6411,-0.5127,0.51269,7.6924,-28.2051,2.0513,-20,
40.5127,50.2563,-309.7437,11.7949,32.3076,-37.436,0,-4.6157,0,-1.5386,11.2817,-13.2051,6.1538,-6.667,
45.6409,56.4104,-306.6667,12.8206,26.1541,-34.3589,-3.5896,-2.5642,-1.5383,-1.5383,13.3333,-5.1282,8.2053,1.5383,
47.436,63.3335,-302.3076,17.1797,28.9746,-30,-0.25635,-0.76904,-8.4614,-0.25635,6.4102,-8.4614,2.8203,0.25635,
46.4102,66.4102,-296.1538,17.6924,32.0513,-26.4102,1.2822,-0.25635,-7.4355,0.76953,0.25635,-17.6921,-0.76904,-8.4614,
41.2822,61.7949,-295.6411,13.5898,27.436,-29.4871,-2.3076,-0.25635,-1.7949,0.25635,1.2822,-14.6155,2.8203,-15.6411,
39.2305,55.1279,-294.6155,17.6924,29.4873,-34.6155,2.8203,0.25635,-0.76953,-1.2822,-0.25635,-4.8721,5.8975,-11.5386,
46.9229,58.7178,-287.9487,21.7949,35.1284,-30.5129,6.4102,0.25635,-1.7949,-0.25635,-1.7949,-15.1282,2.3076,-11.5386,
53.5896,66.9231,-281.7949,18.2053,33.5896,-26.9231,-1.282,-1.282,-4.8718,1.282,4.3591,-28.9744,5.3845,-19.2307,
47.1797,65.1284,-283.5896,12.8208,31.2822,-35.8975,0.51269,-2.564,-10.2563,-0.5127,10.2563,-16.4102,13.8462,-18.9744,
39.9998,50.1284,-285.6411,8.718,28.718,-38.4617,5.1282,-5.1282,-10.2566,-7.6921,6.6667,-14.3591,8.2053,-25.1282,
45.1279,44.1025,-274.8718,15.3848,28.7178,-23.4617,1.0254,-0.5127,-1.5386,-5.1284,9.231,-29.3591,0.5127,-31.282,
43.8459,59.1025,-270,19.2307,27.949,-12.5642,-4.3591,0.25659,-0.76929,-0.25659,12.0515,-23.3333,3.3333,-22.8206,
44.3589,72.564,-270.5127,15.6411,30,-19.7437,-0.25635,-1.7949,-2.3076,0.25635,9.4873,-8.3333,10,-15.6411,
48.4617,67.949,-266.4102,17.1794,28.9744,-20.2563,-1.7947,0.76929,-1.282,-0.76929,6.9231,-7.4358,13.0769,-16.6667,
43.0769,52.949,-267.1794,17.949,22.0515,-15.8975,-6.1536,0.51294,-1.5383,-0.51294,9.2307,-13.8459,10.2566,-18.4614,
37.1794,37.949,-269.4873,13.0769,16.6667,-19.231,-4.8718,-4.8718,-0.76929,0.76929,11.0256,-10.5129,0.76929,-23.3335,
40.5129,43.5896,-265.1282,17.4358,20.0002,-22.564,-5.6409,-4.6155,-1.5383,1.0256,9.7439,4.4871,-1.0256,-8.3335,
29.7437,51.2817,-274.3591,14.3589,17.436,-29.231,-13.3335,-9.231,-13.3335,-10.2563,-0.5127,17.436,0.5127,6.6665,
23.0769,47.1794,-270.2563,10.2566,23.5901,-20.5127,-4.6155,-5.6409,-10.2561,-8.718,5.6414,4.6155,8.2053,-5.1282,
31.7947,37.9485,-259.4873,8.2048,24.6155,-17.436,1.5383,-2.0515,-1.5383,-2.5642,15.3845,-10.3845,6.6667,-20.1282,
46.7947,42.0515,-253.3333,14.8718,20.0002,-24.6152,-0.51294,-1.5383,0.51294,-1.5383,14.3591,-25.3845,3.0769,-35.1282,
51.2822,40.5127,-251.7949,18.9746,20,-23.5896,-1.0254,0,0,-1.0254,11.2822,-17.4358,4.6152,-29.7434,
43.3335,30,-253.0769,12.5645,20.7695,-22.8203,-1.7949,0.25635,-1.7949,-0.25635,10.5127,-19.2307,5.3848,-29.4871,
45.3845,28.4612,-255.6411,9.4871,18.2048,-23.8462,-2.8206,-0.76929,3.3333,-0.76929,13.0769,-25.8975,0.76929,-35.1284,
46.9231,26.9231,-258.2053,13.5896,18.718,-19.7437,-1.282,-0.76929,12.051,0.76929,21.7947,-18.718,-2.3079,-40.2566,
39.7437,26.4102,-259.2307,15.1284,15.1284,-22.3076,-4.3589,-4.8716,4.8716,-1.7949,23.3335,-14.6155,1.7949,-40.2563,
45.8975,33.5898,-253.5898,21.7949,14.1025,-18.718,-0.25635,0.25635,-0.76904,-0.76904,20.2563,-2.3076,9.4873,-25.2563,
36.9229,20,-260.5129,16.9229,10.769,-21.0259,-4.1025,0,-3.0771,-3.0771,12.3076,0,0.5127,-29.7437,
26.6665,12.3076,-260,17.436,14.8716,-22.5642,-5.1284,-0.5127,0.5127,2.0513,12.8203,-7.1797,-6.1538,-37.436,
33.5901,26.9231,-257.1794,20.7693,13.0769,-21.282,-5.8972,-0.76929,-7.4358,1.7952,8.4617,0.76929,-2.3074,-22.436,
40.5127,36.4102,-256.4102,20.5127,7.1797,-15.3845,-4.1025,0.51269,-14.3589,-0.5127,5.6411,14.3589,-1.5386,-9.2305,
34.3589,21.4102,-255.3845,17.436,11.2822,-15.8975,-0.5127,0.51269,-4.1025,3.5898,15.3848,-0.64111,-7.1792,-24.2305,
25.3845,6.4102,-256.6667,11.0256,18.2053,-23.3333,-5.3845,-0.25659,0.25659,3.8459,19.2307,-15.6411,-3.8459,-39.2305,
23.333,9.4868,-253.5898,11.5386,12.0513,-23.8462,-12.5642,0.76904,-7.436,-0.25635,14.1025,-18.718,0.25635,-49.4873,
27.1797,9.7437,-247.1794,16.4102,2.0513,-18.9744,-11.7949,2.564,-5.6411,1.5386,17.9487,-19.4871,-1.5386,-44.1025,
25.6411,0,-248.2051,11.7949,2.0513,-25.1282,-14.3589,0,0.5127,4.6152,17.9487,-19.4871,-5.6411,-47.6921,
28.2048,3.5896,-243.0769,17.4358,14.8718,-23.5898,-10.2566,1.0256,-4.1028,4.6155,14.8718,-10.7693,-1.0256,-41.5386,
27.1797,8.2051,-238.4614,22.0513,10.7695,-19.4871,-6.1538,-1.5386,-15.8975,2.564,12.3076,-13.8462,1.5386,-35.8975,
25.8977,10.5129,-232.564,22.3079,1.282,-15.6409,-5.8972,3.8464,-2.3074,12.5642,19.7439,-6.9231,-1.282,-30.5127,
14.8718,1.0256,-240,13.8464,-1.0256,-19.4871,-12.3076,2.0515,4.6155,11.7947,13.3333,-2.051,-9.7437,-37.9487,
16.4102,0.5127,-239.4873,13.8462,13.8462,-14.8718,-0.5127,4.1025,-7.1797,11.7949,6.6665,-11.7949,-7.6924,-49.7437,
21.282,14.6155,-233.0769,13.5901,19.2307,-13.0769,0.76929,6.9231,-22.1797,10.5129,-0.76929,-6.9231,-7.9487,-40.769,
20.0002,13.8464,-232.8206,11.282,12.3079,-14.8718,-14.2307,4.1028,-26.6665,3.0769,-3.0769,8.0769,-9.2307,-25.769,
24.3591,-1.1536,-230,15.6414,16.1541,-10,-13.5896,2.8206,-11.6665,1.282,11.9231,3.3333,-2.8206,-34.6152,
22.3079,-2.8206,-230,14.1023,20.7693,-11.5386,-8.4617,2.8206,3.3335,6.4104,20.7693,-11.6667,-4.8718,-49.6152,
21.282,0.76929,-228.4617,9.9998,13.5896,-13.5898,-7.949,5.8972,-0.76929,7.9485,19.7434,-26.6667,-4.3591,-63.8462,
18.7178,-11.5386,-230,4.8716,0.25635,-15.1282,-11.5386,1.7949,-0.25635,1.2822,21.2822,-18.2051,0.76904,-54.1025,
14.3591,-10.2566,-229.231,11.282,3.5896,-10.7693,-14.3591,0.51294,-0.51294,10.7693,21.0256,-15.8975,3.0769,-60,
18.4617,-1.0256,-227.1794,17.9485,9.7434,-3.5896,-13.8462,6.1536,-15.5129,15.8972,7.6921,-6.6667,1.0256,-46.1538,
22.3074,-2.8206,-231.5386,8.9744,7.4358,-6.9231,-10.5129,3.8459,-26.4104,4.8718,4.3586,0.76929,-0.76929,-33.5898,
19.2307,3.3333,-229.4871,8.9744,8.4617,-7.4358,-11.0256,-1.282,-11.4104,6.4104,19.3586,-6.9231,1.282,-43.3333,
15.3848,4.1025,-221.5386,14.8716,6.1538,-5.1284,-17.9487,-3.5898,0.5127,14.3589,29.231,-12.8206,-0.5127,-50.7693,
17.6924,-1.2822,-215.6411,15.1284,3.3335,-4.3589,-14.1025,2.8203,1.2822,16.6665,26.4102,-7.436,-3.3335,-46.4102,
15.8977,-2.5642,-213.8462,14.8718,2.5642,-7.1794,-12.3076,3.5896,-7.1794,11.282,21.0256,5.1282,-5.1282,-41.5383,
13.5896,-8.4617,-212.5642,18.718,4.8718,-5.8972,-15.1282,1.7947,-14.6155,12.5642,20.7693,0.25659,-0.25659,-46.9231,
12.8203,-19.4871,-211.7949,17.436,8.2051,-4.1025,-11.282,4.1025,-10.7693,19.4873,23.5898,-14.7434,4.6152,-57.4358,
11.282,-12.3076,-211.282,13.8464,5.6409,-3.5896,-10.2563,4.1028,-9.2307,18.9744,18.9744,-0.51294,0.51294,-48.718,
10.5127,-0.25635,-211.0256,13.5898,0.25635,-4.3589,-12.564,2.3076,-3.8462,14.1025,17.6924,10.5127,-0.25635,-44.3589,
5.6411,-11.282,-209.2305,12.3081,0,-7.1792,-12.3076,0,2.5645,13.3335,18.9746,-4.4873,2.0513,-59.3589,
6.1538,-20,-206.1538,13.8462,5.1284,-1.5386,-11.7949,1.5386,-9.2307,11.2822,17.436,-19.4873,6.1538,-74.3589,
7.9485,-8.9744,-208.9744,12.5642,0.76929,1.7947,-17.1794,0.25659,-16.1538,-0.25659,12.5642,-17.6924,3.3333,-61.7949,
7.6924,0,-207.6921,14.8721,-4.6152,0.5127,-16.9231,1.5386,-1.1538,-3.0767,16.4102,-19.4871,0,-59.4871,
8.2048,-3.0769,-202.0513,20.5129,-0.51294,0.51294,-13.3335,6.6667,13.8462,-0.51294,18.9744,-21.0256,2.051,-60.5129,
14.3589,-1.0254,-199.4871,19.4873,1.5386,-0.5127,-15.3845,7.6924,21.0259,-2.564,12.3076,-13.3333,0.5127,-45.5129,
18.718,0.76929,-200.7693,19.2307,-1.282,-1.282,-15.6411,9.4871,30.5129,0.76929,17.1794,-11.5383,-0.76929,-30.5129,
10.5129,-4.3586,-199.2307,20.7693,-1.7947,1.282,-12.564,13.0769,34.6155,8.4617,25.8977,-8.9744,-1.282,-30.5127,
4.1025,0,-194.8716,16.9233,-0.5127,0,-15.3845,13.3335,31.2822,12.3081,22.5645,-1.0254,-3.0767,-33.3333,
5.3848,-5.3843,-199.2307,12.0513,-2.8203,-2.3076,-17.6921,11.5386,35.1284,7.9487,17.6924,2.3076,-2.8203,-25.8972,
8.4617,-15.1282,-205.8972,14.1028,-3.3333,2.8206,-12.564,12.0515,37.6926,0.76929,18.718,-5.3845,-0.76929,-25.8972,
4.1025,-6.1538,-204.1025,14.3589,0,4.1025,-11.7949,11.2822,32.3076,-4.6152,17.436,-20.3845,0,-40.8972,
0.25659,-2.3079,-203.8462,11.0256,-0.25659,3.3333,-15.1282,13.0769,33.5896,-3.8459,22.8206,-22.3076,2.3079,-47.4358,
-1.282,-13.0771,-207.9487,6.9231,-11.0256,8.9744,-20.7693,13.0769,32.051,1.282,25.3845,-18.2053,4.3586,-37.6924,
-3.8462,-12.564,-209.4873,8.4614,-12.564,10,-19.7437,11.5386,27.436,3.8462,17.1792,-20.7693,12.564,-32.5642,
-0.25659,-6.4104,-211.5383,12.0515,-6.4104,0.25659,-13.0769,12.5642,33.5896,4.8718,17.1794,-21.7949,19.2307,-43.8462,
-0.5127,-9.7437,-216.9231,10.2563,-21.4104,0.5127,-26.1538,12.8203,41.5386,6.6665,19.4873,-22.5642,4.2307,-52.3079,
1.0256,-1.0256,-215.3848,15.8972,-33.8462,15.5127,-33.8462,19.4871,40.5129,21.5383,16.9231,-9.7437,-5.1282,-37.3079,
-1.282,1.282,-225.8975,9.9998,-18.8462,11.0256,-23.8462,11.0256,25.5129,16.1536,2.3074,-7.4358,-6.9231,-30.5129,
5.1284,6.1538,-231.282,5.1284,-3.8462,3.0771,-8.8462,5.6411,10.5129,1.1536,0.5127,-13.8462,-6.1538,-42.0513,
5.6411,10.769,-231.282,7.6924,11.1538,8.7178,-12.3076,5.1284,-4.4871,-6.1538,2.0513,-2.0513,-11.7949,-28.2051,
-0.76929,2.8206,-234.1025,3.8464,-2.3074,2.3079,-27.3076,0.76929,1.282,-2.8206,3.3333,2.8206,-17.1794,-26.9231,
1.5381,0,-230.2566,2.0513,3.5894,-5.6411,-24.6157,1.0254,7.1792,0,12.8203,-12.1794,-11.7949,-41.9231,
5.6409,5.6409,-224.6155,5.1282,18.5894,-3.5901,-18.4617,2.5642,7.1794,-4.6155,12.8206,-27.1794,-2.5642,-56.9231,
11.0256,6.4099,-226.4104,5.3845,9.9998,-4.8718,-33.0771,-0.76929,0.76929,-7.949,4.8718,-36.6667,4.8718,-60.7693,
17.4358,6.1541,-221.5383,3.0769,0.51294,-11.7947,-29.7437,-6.1541,6.6667,-0.51294,5.6409,-24.6155,0.51294,-59.4871,
13.0771,4.8721,-218.2051,4.3589,15.5129,-21.7949,-14.7437,-9.4873,14.6152,4.8721,14.1025,-35.1282,-4.3589,-67.9487,
7.6921,1.0256,-227.6924,4.1023,30.5129,-28.718,-9.2307,-7.1794,5.1282,2.5642,12.8206,-34.8718,-1.0256,-67.1797,
21.282,2.3079,-223.3333,5.8972,45.5129,-26.9231,-11.5383,-2.3079,-5.3845,2.8206,6.9231,-19.8718,4.3591,-58.718,
26.9229,3.8462,-214.6155,11.0254,51.0254,-26.9231,-3.8462,-3.8462,-5.3848,3.8462,9.4873,-13.5898,6.9229,-51.5386,
17.4358,-3.5901,-216.4104,11.282,52.3074,-29.231,1.0256,-4.6155,-1.0256,2.051,18.9744,-28.5898,14.3586,-64.1028,
21.7952,-14.1025,-218.2051,9.4875,54.6155,-34.6152,2.8206,-0.76929,0.76929,-0.76929,18.718,-43.5898,18.2053,-79.1028,
30.2566,-17.436,-219.4873,9.2307,61.0256,-39.4873,6.1536,1.0256,-1.0256,-2.0515,15.3845,-34.8718,16.9231,-85.1282,
22.3079,-22.3076,-221.7949,7.4358,57.1794,-41.7949,5.8972,-2.3079,-3.3333,2.3079,11.5383,-25.3845,16.6667,-74.1025,
9.2307,-37.3076,-224.6155,3.0769,42.1794,-51.282,-3.0769,-11.7947,4.1023,9.7434,6.1536,-40,12.3079,-89.1025,
12.8203,-52.3076,-224.1028,4.1025,43.5894,-56.4104,-4.1025,-10.2563,16.4102,11.7949,14.3589,-36.4104,18.9741,-94.8721,
17.1797,-50,-226.9231,4.3589,50,-57.1794,-0.25635,-3.8462,1.4102,0.76904,14.6152,-21.4104,23.8462,-81.282,
13.8462,-45.6411,-229.7437,4.6152,56.4102,-49.7437,5.6411,-2.564,-13.5898,2.564,10.769,-21.0256,21.5386,-71.7949,
11.5383,-46.4104,-230.0002,7.9485,53.5896,-43.3335,4.8718,-4.8718,-4.8718,6.9231,18.7175,-18.2053,21.7947,-62.8208,
18.718,-40.2563,-225.3845,10.5129,42.8206,-38.2051,2.3079,-1.7947,1.7947,-4.3591,24.3591,-6.4104,26.4104,-56.6665,
21.282,-38.2053,-221.7949,4.3586,40.2561,-35.6411,3.3333,1.282,-1.282,-10.5129,24.3586,-21.4104,32.5642,-71.6665,
16.1541,-45.8975,-221.282,1.7947,40.2566,-37.6924,-1.7947,1.7947,11.5383,-4.3591,33.0769,-36.4104,40.2566,-86.6665,
14.1025,-42.3076,-222.8203,5.8975,28.4614,-36.1538,-8.9744,1.7949,14.6157,-1.7949,30.5127,-51.4104,46.9233,-87.4358,
15.8975,-29.231,-220.5129,7.6919,27.1792,-23.5898,-4.1025,2.564,0,0,15.8975,-36.4104,56.9229,-72.4358,
12.8206,-29.7437,-220.5129,2.5642,38.4617,-15.3848,1.5383,0.51294,-1.0256,-0.51294,19.9998,-26.6667,59.4871,-61.5386,
8.7178,-36.9231,-224.1025,-0.5127,40,-15.3845,-2.0513,1.0259,13.9744,0.51269,34.9998,-28.2051,56.4102,-62.564,
8.4614,-39.7437,-224.3589,-1.2822,25,-16.6667,-11.5386,1.2822,18.2051,6.9229,33.5898,-26.9231,53.0771,-65.3845,
4.8716,-40.7693,-225.3848,-0.25635,14.6152,-12.0513,-9.4873,0.25635,7.436,13.5898,22.8203,-27.9487,46.4102,-65.3848,
-1.7949,-38.718,-225.3848,3.8462,26.9229,-6.9233,-1.7949,1.7949,13.5898,15.6411,24.8716,-24.3591,41.7949,-62.3079,
-3.3333,-37.6924,-222.8206,7.4358,21.282,-5.3845,-8.4617,3.3333,17.6921,7.4358,28.4612,-27.436,46.4099,-68.4617,
-0.25659,-39.2307,-224.8718,3.3333,7.949,-7.4358,-14.1025,0.25659,2.6921,3.8459,26.4104,-31.0256,47.949,-75.1282,
3.0769,-31.282,-221.5386,4.1023,20.5129,-1.5383,-2.5642,1.5383,-3.5896,11.282,32.3079,-16.0256,41.0256,-65.6411,
-4.6155,-33.8462,-223.5898,3.5896,20.5129,-2.5642,-7.6921,2.5642,5.6409,6.1541,33.8459,-14.8718,30.7693,-65.6411,
-1.7949,-39.2307,-223.8462,3.8462,5.5129,-10.5127,-18.718,2.3076,12.564,1.7949,29.4873,-29.8718,32.564,-78.2051,
3.5898,-33.3335,-224.1028,4.1025,-0.5127,-9.231,-15.3848,0.5127,3.0767,6.1538,23.0767,-24.6155,39.4873,-81.5386,
0,-28.718,-221.0256,5.6411,13.3335,0,-10.769,2.564,-5.6411,10.769,26.1538,-9.6155,40,-71.282,
-0.25635,-32.0513,-213.0769,10,17.6924,-4.3589,-8.9741,3.8462,0.25635,11.0259,32.5645,-13.0769,34.6157,-71.5383,
0.76929,-33.0767,-218.2048,3.3337,7.4363,-9.9998,-16.1536,-0.76929,2.3079,3.8464,23.3337,-26.4102,31.0256,-79.7434,
1.7949,-26.4104,-219.7437,0.76904,-0.76904,5.0002,-20.2563,4.3589,-0.76904,2.3076,16.1538,-34.1025,40.769,-73.5898,
0.51269,-24.1025,-214.3589,8.7183,-0.5127,13.8462,-19.4871,11.7949,-4.1025,8.2051,23.5898,-34.3589,46.1538,-69.7434,
-5.3848,-29.4871,-215.1282,7.9487,1.7949,2.3076,-17.1794,8.4614,-1.7949,12.0513,31.5386,-22.8206,41.7949,-77.1794,
-3.8462,-32.0513,-215.1282,1.7949,-1.7949,1.7949,-15.1284,7.436,1.7949,11.5386,28.4614,-20.7693,40.769,-77.6924,
4.8718,-25.3845,-211.0256,3.3333,-7.4358,4.8718,-15.1282,8.9744,-3.3333,9.4871,26.4104,-27.9487,37.1794,-71.5383,
3.5898,-23.5896,-208.2051,5.6411,-4.1025,2.0513,-11.2817,7.1797,-2.0513,4.1025,31.7949,-26.1538,34.3589,-76.9231,
-8.4612,-38.5896,-213.0767,1.282,3.8464,0.76929,-14.615,2.3079,4.8718,-0.76929,35.6414,-28.9741,34.1028,-86.4102,
-13.8462,-50.2563,-212.3076,-0.5127,0.5127,1.5386,-24.6155,2.0513,1.5386,3.5898,34.8716,-29.2307,27.1797,-78.4614,
-3.0769,-35.2563,-197.9485,13.8464,1.0256,13.8464,-14.3589,13.3337,-1.0256,14.8718,41.0256,-14.2307,27.6926,-63.4614,
-5.8975,-20.7693,-198.718,16.1538,3.8462,15.6411,-7.436,11.5386,-3.8462,9.4873,41.2817,-19.7437,30,-72.5642,
-12.5642,-27.9487,-202.8206,11.5383,4.3591,8.9744,-11.5383,7.4358,-4.3591,5.3845,38.2048,-22.8206,27.4358,-68.4617,
-8.2053,-26.1541,-196.4104,14.8718,1.0256,10.2561,-13.8464,7.6921,-5.6414,7.6921,36.9231,-7.8206,26.6667,-53.4617,
0.25635,-18.2051,-189.4871,23.3335,-0.25635,19.7437,-7.4355,9.4873,-2.3076,8.4619,42.3076,-4.3589,38.2051,-54.6152,
3.0769,-21.5386,-190.7693,23.0769,-5.1282,18.9744,-12.8206,5.1282,-3.0769,3.5896,40.5129,-19.3589,32.8206,-67.6924,
5.8972,-16.6667,-187.9487,26.4104,-7.4358,18.718,-15.6409,11.5383,-4.8718,4.8718,35.6409,-31.0256,21.282,-57.6924,
1.0256,-11.7947,-185.6411,29.7434,-1.0256,19.9998,-7.6921,15.8972,-7.1794,7.6921,33.3333,-16.4104,23.5896,-53.8462,
-2.3076,-13.5898,-189.4871,24.8721,2.3076,15.1284,-12.564,8.4614,-8.4614,7.9487,34.6152,-21.7949,32.0513,-58.2051,
3.8464,-11.5383,-189.9998,22.3079,-2.8206,8.9744,-20.7693,2.8206,-6.4099,3.3333,38.718,-22.8206,28.9744,-46.4102,
10.5129,-4.3591,-181.282,31.0256,-1.7947,12.0515,-16.6667,6.9231,-6.4104,1.7947,40.2566,-11.0256,24.8718,-34.1025,
10.7693,-0.51294,-176.4102,35.3845,-0.51294,16.9231,-12.8206,11.282,-14.8718,0.51294,42.0515,-9.7434,26.6667,-32.3076,
13.5896,-0.76929,-179.2307,30.0002,0.76929,20.7693,-11.0256,13.5896,-14.1023,-2.8206,45.3845,-10.5129,26.9231,-27.9487,
16.6665,1.7949,-176.6667,31.0254,-1.7949,19.2305,-8.9746,11.0254,-3.8462,-1.7949,45.3848,-10.5127,25.3848,-24.8718,
11.0259,-2.3076,-181.282,33.0771,-9.4868,8.4619,-11.0254,5.3848,-5.3843,2.3076,42.8208,-21.282,26.4106,-29.4871,
4.3589,-7.436,-194.6152,28.9746,-3.8462,3.8462,-10.5127,5.3848,-11.0254,4.8721,48.9746,-25.8975,24.8721,-36.1538,
-4.1025,-7.6924,-200.5129,26.1538,4.1025,7.6919,-11.7949,5.1279,-11.2822,4.1025,51.7944,-18.4619,16.9229,-36.4104,
-3.5898,-7.1797,-200,27.6924,4.6152,9.7437,-11.2822,3.5898,-10.769,5.1284,46.1538,-14.8716,21.0259,-26.1538,
5.1284,-12.3076,-207.6924,23.0771,5.6411,0,-11.2822,0,-13.3335,2.0513,40,-28.2051,15.8975,-28.718,
10,-8.4619,-204.3591,27.4355,14.6152,-1.7949,-6.4106,1.7949,-6.9233,5.3843,45.8975,-26.4104,2.3076,-30.5129,
6.4102,-1.2817,-198.2051,34.6152,10.5127,-0.25635,-8.9741,5.3848,-3.3335,9.4873,54.1025,-15.6411,0.25635,-21.7949,
10.5125,-4.8718,-204.8721,34.1023,4.8718,-4.8718,-13.0769,5.8972,-10.0002,4.8718,50.5125,-18.2053,6.4099,-18.2053,
14.6152,-11.0254,-208.4614,29.4873,5.8975,-6.4102,-9.4873,7.436,-5.3848,5.3848,46.4102,-8.9741,11.0259,-14.1025,
16.9231,-9.2307,-204.1025,30.2566,-4.1028,-7.6921,-10.2566,5.6409,4.6155,4.1028,50.7693,-5.1282,7.6921,-10.2566,
20.769,3.3335,-208.4617,35.6411,-5.8975,-5.8975,-13.5898,3.3335,1.7949,-1.7949,53.0767,-20.1282,4.8716,-14.1025,
13.5896,12.051,-218.718,35.1282,9.1025,-1.282,-13.0769,2.8206,-2.3079,-1.7947,45.3845,-30,1.282,-5.8977,
3.0771,2.0513,-224.6152,28.7178,15.3848,-7.1792,-12.3076,-2.0513,3.5898,-5.1279,41.5386,-18.9741,-8.7178,7.6924,
8.4614,-3.3335,-223.8462,33.0771,6.9233,-6.9229,-7.436,-1.7949,18.5898,-7.436,54.1025,-12.0513,1.7949,15.1284,
9.2307,-4.6155,-224.1025,36.4104,0.51294,-5.1282,-6.1536,-0.51294,30.2566,-5.6409,47.1794,-23.5896,16.4104,14.3591,
-0.76929,-8.4617,-229.4871,28.9744,1.282,-12.5642,-12.051,0.76929,33.5901,-10.5129,37.1794,-31.0256,2.3079,16.1541,
5.1282,-2.5642,-229.7437,26.6667,6.6667,-12.3079,-9.7434,2.5642,41.5383,-6.6667,52.1794,-18.4617,-5.6409,25.6409,
8.718,-0.51294,-230.2566,28.2048,-2.0515,-11.7952,-10.7693,-5.1282,40.5129,0.51294,57.9485,-14.8718,0.51294,25.1282,
10,1.2817,-223.8462,31.0254,-6.9233,-8.9746,-15.1284,-6.9233,38.7178,0.25635,49.4873,-19.7437,-0.25635,24.8716,
14.6155,6.9231,-214.6155,34.6155,0.76929,-1.282,-14.1028,-0.76929,49.4871,-4.3591,60.2561,-15.1282,-1.7952,30.5125,
9.4873,2.3076,-220.7693,30,-3.3335,-6.4102,-18.2051,-2.3076,55.6411,-6.9233,59.7437,-17.1797,8.4614,26.9229,
13.0771,0.76904,-219.7437,30.5127,-7.436,-12.564,-13.5898,-0.76904,50,-1.7949,47.9487,-21.7949,10,23.8462,
15.1282,3.3333,-210.5129,34.6155,-2.8206,-10.5129,-6.9231,2.8206,38.718,-5.8977,45.3845,-18.2053,-2.8206,29.4871,
8.4617,-2.3079,-206.4104,33.0769,4.3586,-7.949,-5.8977,-0.76929,39.2307,-13.0769,43.8459,-26.9231,0.76929,27.4358,
5.6411,-9.2305,-205.6409,26.1538,8.7183,-11.2817,-5.6411,-6.1538,40.5127,-14.3589,38.9746,-41.9231,10.2563,12.4358,
13.8464,-3.0769,-200,26.6667,3.0769,-11.7947,-9.7434,-7.1794,34.3591,-10.7693,44.1028,-45.6409,15.8977,4.6155,
18.9741,4.1025,-189.231,30.769,-4.1025,-8.2051,-12.8208,-5.1284,38.9741,-4.1025,55.3843,-30.6409,20.5127,17.9487,
14.1028,-1.282,-184.3589,27.4358,1.282,-6.9231,-8.4617,-5.3845,37.1794,-5.3845,51.5383,-24.3591,12.0515,17.1794,
10.2563,-11.2822,-187.1794,22.0513,8.7178,-6.6665,-3.5898,-7.6924,24.1025,-10.769,43.0767,-29.231,3.5898,8.2051,
12.3081,-11.2817,-184.6152,23.5898,7.6924,-9.2305,-5.6406,-4.1025,26.1538,-5.6406,43.0771,-32.3076,16.4106,4.1025,
13.3335,-8.2051,-177.4358,27.1797,-0.51269,-10.769,-13.8462,0.5127,33.3335,0.5127,35.3848,-35.3845,20.5127,-1.0254,
11.5386,-3.8462,-173.0769,31.5386,-2.3076,-3.3335,-11.5386,0.25635,34.6152,-0.25635,37.6924,-26.4104,12.0513,6.9229,
10.2566,-0.51294,-173.3333,31.7947,0.51294,-3.0769,-8.718,-4.1028,34.3591,-7.6921,52.6924,-19.4871,18.9744,12.3079,
10.7693,-1.5383,-174.8716,27.6926,3.0769,-10.7693,-12.3074,-2.051,34.3591,-9.2307,59.4871,-27.6921,25.1282,1.5383,
17.436,-4.6152,-171.7949,29.231,2.564,-11.7949,-13.8462,0,25.1284,-3.5898,51.7949,-34.8716,15.3848,0,
24.6155,-0.51294,-163.0769,33.3333,0.51294,-9.7434,-12.3074,-4.1023,10.1284,-2.051,46.6667,-33.3333,11.7952,7.6926,
16.6663,4.8718,-153.5898,29.4871,7.9485,-10.0002,-10.0002,-4.8718,-4.8716,-5.385,40.7688,-27.4363,22.3074,7.4358,
12.0513,2.3076,-145.8972,29.4873,8.9746,-10,-6.9229,-3.333,-2.3076,-5.8975,37.1797,-21.2817,18.7183,3.3335,
24.8718,-0.76929,-134.1025,37.1794,1.7952,-7.4358,-6.4099,0.76929,8.9744,-1.282,47.4358,-20.2561,13.0769,-2.8206,
28.718,-2.5642,-125.6411,33.3333,-0.51294,-9.7439,-9.7439,2.051,2.5642,0.51294,44.6155,-33.8462,19.4871,-15.3845,
21.0256,-4.1023,-120,29.2307,4.1028,-10.2566,-5.1282,1.5383,-1.5383,5.6409,34.3591,-41.0256,18.9744,-19.9998,
12.5642,-6.9231,-121.282,31.5383,1.7947,-9.4871,-4.8718,-1.7947,1.7947,5.3845,35.6409,-34.1025,15.6409,-15.6409,
15.1282,0.76929,-117.1794,38.2053,2.3079,-3.3333,-7.9485,1.7947,-1.7947,-0.76929,38.2053,-24.8718,23.8459,-1.7947,
20.769,1.2822,-107.9487,35.6411,0.25635,-2.3076,-10,2.8203,-0.25635,-3.3335,31.5386,-32.0513,20.2563,-0.76904,
26.6667,-4.1023,-93.8459,31.7952,-3.0769,-7.6921,-10.7693,3.0769,14.7437,8.2053,41.0256,-37.4358,17.949,-11.7947,
20.5127,-6.6665,-93.3333,28.2051,-4.6152,-11.7949,-12.3076,4.6152,16.9233,7.1797,48.2051,-34.8718,20.5127,-8.7178,
17.6924,-2.8203,-93.5896,29.4873,1.7949,-5.3843,-5.3843,6.9233,1.9233,-1.7949,43.8462,-30,18.7183,5.8975,
21.0254,-3.5898,-84.6155,32.8203,2.564,-2.564,-4.6152,4.6152,-6.6665,-3.5898,43.5898,-35.8975,17.436,2.564,
18.2051,-7.436,-80.7693,31.0254,-0.76904,-5.3848,-12.0513,0.76904,2.3076,-1.7949,46.4102,-37.6924,26.9229,3.3335,
15.8977,-10.2566,-81.0256,24.1028,0.51294,-8.2053,-10.7693,0.51294,-3.5896,-0.51294,47.1794,-29.7437,31.282,11.7947,
20.2566,-14.6155,-74.6152,23.3333,1.282,-11.5383,-11.5383,-1.282,1.7952,-3.8459,48.4617,-28.9744,21.7952,10.5129,
24.6155,-12.8206,-63.5898,32.8206,-0.51294,-10.7693,-13.8464,0.51294,16.4104,-1.5383,52.8206,-22.5642,16.9231,14.8718,
14.3589,-12.8208,-61.0256,31.2817,-8.7183,-12.8208,-14.3589,0,12.8203,0,47.1792,-29.7437,14.8716,8.7178,
12.3074,-11.2825,-48.7183,29.2307,-3.5901,-11.7952,-9.2312,1.0256,10.2561,1.5383,44.615,-42.0515,21.0256,-1.0256,
16.4102,-19.4873,-36.4102,27.6924,3.0771,-16.4102,-12.3076,0.5127,7.1797,-2.0513,40,-45.1282,20,-0.5127,
15.3845,-23.5896,-29.231,28.718,1.0256,-21.5383,-8.2053,3.0769,3.0769,-5.6414,33.8459,-45.1284,18.9744,-1.0256,
13.0769,-19.7439,-24.8721,26.9231,0.76929,-21.7952,-0.76929,2.8206,3.8459,-6.9231,29.4871,-54.6155,20.7693,-10.5129,
18.4614,-13.8462,-17.9487,25.1279,9.2305,-15.8975,-0.5127,0.5127,2.564,-2.564,37.436,-50.2566,18.9741,-0.5127,
19.4871,-14.3591,-12.8206,25.6409,9.2307,-15.3845,-3.5896,-0.51294,-1.5383,0.51294,47.6921,-35.2566,21.0256,14.4873,
14.6152,-17.1797,-10.5132,23.333,-3.8462,-17.6924,-6.9233,0.25635,2.3076,-0.25635,48.4614,-21.7949,20.2563,19.7437,
8.7178,-22.564,-6.6665,16.9233,-11.2822,-21.5386,-16.9229,0,9.231,0,45.1284,-36.7949,5.2563,4.7437,
1.5383,-28.2053,-1.0256,14.3586,-7.1794,-23.0771,-16.9231,1.0256,13.3333,5.1282,46.6667,-49.7437,1.0256,-10.2563,
-2.5642,-28.718,8.2048,15.3845,-5.6414,-19.4873,-5.6414,2.5642,8.718,5.6409,45.1282,-38.4617,11.7947,-6.6667,
5.6409,-28.718,13.3333,16.4099,-9.2307,-18.4617,-8.718,-0.51294,-0.51294,0.51294,47.6921,-37.9487,13.8459,7.1794,
14.1028,-24.3586,17.6926,19.7439,-4.3586,-18.2048,-13.0769,-1.282,3.3333,1.282,52.5642,-50,15.1282,-2.8206,
11.2822,-17.9487,24.1025,25.6411,-0.5127,-16.9229,-5.1284,0.5127,2.564,-0.5127,37.9487,-57.9487,12.8203,-13.3335,
11.0259,-14.1025,23.3335,25.3848,1.7949,-15.6411,-2.8203,-1.7949,-10.5127,-5.3843,28.4614,-47.4358,2.8208,1.6665,
19.7434,-7.9485,26.9231,28.4617,9.4871,-7.9485,-7.4358,-3.3333,-12.051,-3.8459,40.7693,-32.4358,3.3333,16.6665,
15.6411,-7.9487,29.4873,32.0513,1.2822,-6.4102,-15.6411,-1.2822,-3.8462,-2.3076,37.1797,-20.769,1.7949,18.2051,
5.1282,-17.4358,31.7947,26.1541,-13.7178,-14.8718,-15.3845,1.0256,1.5383,-1.0256,28.718,-35.769,-2.051,4.1028,
7.436,-22.3076,37.1797,18.2051,-13.5898,-17.6924,-12.0513,-0.25635,2.3076,0.25635,36.1538,-50.5127,2.8208,-0.76904,
11.0259,-17.6924,39.231,18.7183,-6.4102,-14.6152,-11.5386,0.25635,0.76953,1.2822,33.5898,-51.0256,-0.25635,-3.3335,
9.4871,-15.1282,40.2566,24.3591,-3.8459,-13.5896,-7.9485,6.9231,3.8459,3.8459,32.0515,-50.5127,-10.5129,-4.3591,
7.6924,-14.3589,40.5132,24.6157,-1.5386,-10.2563,-8.7178,6.667,4.1025,1.5386,46.1538,-58.9741,-6.6665,-5.6411,
6.6665,-14.8716,41.0259,21.5386,0.51269,-6.1538,-14.8716,-2.0513,-2.564,-0.5127,47.6924,-62.564,3.0771,4.1025,
13.5898,-11.5386,46.4102,23.8462,-1.2817,-7.9487,-12.0513,-4.3589,-0.25635,0.25635,39.231,-47.564,2.3076,19.1025,
22.0515,-3.0769,50.7693,22.5642,-1.5383,-11.282,-6.1536,1.0256,-1.0256,1.0256,35.8977,-32.564,-4.615,20.5129,
18.7178,-0.76904,41.7949,18.7178,0.76904,-13.0767,-11.5386,-2.3076,-16.0256,0.76904,23.8462,-35.6411,-12.564,13.5898,
22.3079,-2.3079,40.2566,26.4104,2.8206,-9.4871,-14.6155,-7.4358,-20.7693,2.3079,18.2053,-28.9744,-11.5383,28.5898,
27.1794,-5.1282,53.8459,29.7434,-1.5383,-3.5896,-8.2053,0.51294,-5.7693,1.5383,32.8206,-13.9744,-0.51294,43.5898,
12.3076,-12.8203,54.8716,16.9229,-11.2822,-8.7178,-9.7437,3.5898,-3.5898,-3.5898,36.9229,-28.9744,4.1025,33.8462,
7.6921,-18.9744,48.718,14.8718,-4.6155,-13.8459,-6.6667,0.51294,-9.2307,-0.51294,32.8206,-43.9744,5.1282,18.8462,
12.3076,-29.2307,44.1025,8.2051,3.0771,-20,-4.6152,-7.1792,-10.769,-2.0513,26.667,-58.9744,2.0513,16.4106,
16.1541,-26.9231,52.5642,6.4104,1.7947,-17.6921,-6.4104,-4.3591,-5.3845,-1.7947,27.9485,-63.8462,3.8459,14.6155,
19.4871,-15.8977,59.9998,15.3845,-0.51294,-13.3333,-8.718,0.51294,-0.51294,-1.0256,32.8206,-63.0769,5.6409,12.8206,
20.0002,-13.8459,56.9231,19.4875,1.5388,-14.8718,-6.6667,1.0256,-5.1282,-2.5637,22.0515,-52.8203,-1.0256,23.0769,
15.8975,-15.3848,55.3848,19.4873,4.1025,-11.7949,0,0,-14.3589,-0.51269,16.9233,-46.1538,-6.6665,33.8462,
13.0767,-13.5898,57.1792,20.2563,0.25635,-6.4102,-3.3335,-1.2822,-12.0513,0.76904,23.8462,-46.9231,-0.25635,31.5386,
10.769,-18.4614,55.3848,20.5127,-3.5898,-12.8208,-10.7695,-0.51269,-7.1797,0.5127,15.8975,-35.3848,11.2817,32.3076,
7.9487,-23.8462,53.5898,19.231,-4.3589,-20.2563,-8.4614,0.25635,-7.436,-0.25635,18.7183,-21.7949,13.5898,39.231,
14.1028,-16.1536,54.1028,21.282,-0.76929,-14.1023,-3.3333,0.76929,-9.4871,-1.282,33.7183,-26.9231,12.0515,40.2566,
16.9229,-13.8462,55.3848,21.5386,0,-12.3076,-4.1025,-2.0513,-13.8462,0,34.8716,-38.4617,22.564,32.8203,
14.8718,-21.0256,55.8977,16.9231,-3.0769,-21.0256,-6.1536,-3.5896,-8.2048,3.0769,19.8716,-46.1538,33.3333,25.6414,
23.0769,-17.4358,58.4617,20.0002,-0.51294,-18.9744,-7.1794,-1.5383,-3.0769,0.51294,31.282,-47.6924,33.3333,24.6155,
23.3333,-11.0256,57.1794,19.7434,4.8718,-12.0515,-8.4617,-4.8718,-18.0769,-9.4871,27.9485,-50,31.0256,17.6921,
16.1538,-6.4102,57.6924,21.2822,7.9487,-11.0254,-8.4614,-8.4614,-25.3848,-10.5127,12.9485,-41.7949,26.4102,21.7949,
16.6665,-0.76904,59.231,25.3848,5.3848,-8.9741,-8.9741,-5.8975,-14.1025,-8.9741,0.76904,-26.9229,26.4102,36.7949,
16.4106,-4.1025,54.8721,22.0513,2.0513,-6.1538,-8.2051,-2.0513,-5.1279,-12.8203,7.6924,-31.7944,39.4873,33.3335,
5.8972,-19.1025,57.1794,14.6155,-8.4617,-17.6921,-11.0256,-5.8972,8.4617,-12.051,22.6924,-46.7944,41.7947,20.2566,
3.5896,-18.9744,72.1794,17.9485,-13.3333,-18.9744,-15.3845,-3.5896,23.4617,-4.1028,37.6924,-42.0513,42.5642,35.2566,
4.3589,-14.1025,82.8203,17.1797,-12.564,-14.1025,-19.7437,-4.3589,17.6924,-10.5127,32.564,-35.1279,56.6665,48.9746,
7.1794,-17.4363,90.2561,14.8718,-9.2307,-20.5129,-13.3333,-7.1794,15.8972,-12.8206,17.564,-44.1028,66.6667,33.9746,
7.9487,-23.3335,105.2561,15.6411,-8.9741,-28.9741,-8.4614,-8.9741,26.9233,-7.9487,23.3335,-39.2307,62.8203,21.2822,
8.9744,-17.1794,120.2561,20.2561,-11.0256,-26.4104,-12.0515,-8.9744,29.9998,-12.5642,25.8972,-26.4104,61.7947,36.2822,
7.436,-13.0771,135.2561,18.7178,-8.9746,-22.8208,-12.564,-7.436,35.1279,-12.564,17.6924,-38.2053,63.3335,47.9487,
5.1282,-19.4875,150.2561,11.7947,-5.6414,-25.6414,-9.7439,-7.1794,36.9231,-5.1282,23.5896,-41.0259,77.4358,40.5125,
8.9744,-18.2053,165.2561,12.0515,-9.9998,-27.4358,-12.051,-8.9744,28.9744,-10.5129,35.1282,-26.4104,91.0256,48.4617,
10.2563,-16.9229,171.2822,10.2563,-10.2563,-27.1797,-15.3848,-12.3076,25.6411,-14.3589,37.9487,-34.8716,87.6924,56.4102,
1.282,-25.3845,176.6667,2.3079,-1.282,-25.8977,-12.5642,-12.5642,23.3333,-8.4617,35.1282,-49.8716,92.051,43.3333,
1.282,-25.8977,184.3586,5.3845,-1.282,-23.8464,-10.0002,-10.0002,19.7434,-8.4617,36.1536,-44.8718,105.8972,32.5642,
6.1538,-18.4614,186.667,12.3076,-6.1538,-26.1538,-12.3076,-11.2817,20.5127,-12.3076,35.3848,-33.8462,104.1025,35.8975,
3.0769,-17.4358,187.6921,11.282,-3.0769,-29.7434,-14.8718,-14.8718,21.5383,-4.1028,35.3845,-36.9231,99.4871,33.3333,
2.0513,-26.1543,185.6406,3.5894,-2.0513,-33.3335,-16.4106,-16.9233,14.8716,-3.0771,35.897,-46.667,108.7178,27.1792,
6.4104,-27.4358,181.282,1.282,-1.282,-29.9998,-13.5896,-15.1282,5.3845,-8.9744,28.9744,-44.8718,118.718,28.9744,
2.564,-23.5898,179.4873,0.5127,1.0259,-27.6924,-13.8462,-15.8975,-0.5127,-7.1797,18.4614,-29.8718,128.2051,29.7437,
0.5127,-16.4102,183.0771,-0.51269,3.5898,-24.6152,-11.7949,-12.8203,6.1538,-2.0513,21.5386,-25.6411,142.5645,32.8208,
1.2822,-15.6411,183.3335,1.2822,-1.2822,-21.2822,-14.1025,-13.5898,7.9487,-4.8721,23.3335,-40.6411,144.8716,31.0254,
2.5642,-14.3591,184.6155,9.2307,-3.0769,-15.8972,-13.8459,-14.3591,5.6409,-2.5642,20.0002,-34.3591,149.7434,38.4617,
-1.7949,-13.5898,192.564,13.0771,-6.9229,-16.1538,-12.564,-10.5127,10.5127,1.7949,17.6924,-19.7437,157.1797,42.3076,
-0.76904,-13.5898,207.564,16.1538,-10,-15.6411,-13.5898,-6.4102,16.6665,0.76904,28.9746,-34.7437,160.769,29.4873,
2.3076,-12.564,222.564,12.0513,-8.9746,-20.2563,-17.6924,-11.5386,5.3848,-2.3076,37.6924,-44.3591,159.2305,14.4873,
4.3589,-11.0259,237.564,8.9741,-0.76904,-20.2563,-13.5898,-14.1025,-3.3335,0.76904,34.1025,-29.3591,172.564,16.6665,
2.0515,-15.3845,252.564,7.6921,4.1028,-18.9744,-11.7947,-13.8459,-2.0515,-6.1541,27.1794,-32.3079,187.564,21.0256,
2.8206,-14.1023,267.564,7.949,2.8206,-23.8459,-14.6155,-14.6155,-2.8206,-17.1794,24.3591,-43.8462,191.5383,7.4358,
9.7434,-8.2053,282.564,11.282,3.5896,-23.5896,-9.2307,-12.8206,-3.5896,-8.718,16.4104,-36.9231,195.3845,4.1028,
8.9741,-9.4873,297.564,3.8462,7.9487,-22.3076,-5.8975,-16.6665,-5.8975,-3.8462,12.0513,-34.6152,197.1797,13.0767,
9.4871,-3.3333,312.564,3.3333,8.9744,-22.8206,-5.8977,-21.282,-8.4617,-11.5388,27.0513,-35.1282,200.7693,17.1794,
11.0256,-1.7947,327.564,9.4871,1.7947,-19.7434,-8.9744,-18.718,-5.8977,-12.0515,33.0769,-32.5642,215.1282,14.1023,
8.4614,-11.0254,342.564,8.9746,0.76904,-17.1792,-11.5386,-13.0767,-1.2822,-0.76904,22.8208,-30,220.2563,15.6411,
-0.25659,-17.1794,357.564,5.3845,3.3333,-24.8718,-12.051,-12.5642,-9.9998,0.25659,18.718,-32.5642,210.0002,17.6921,
-1.7949,-15.1279,372.564,6.4106,3.3335,-30,-11.0254,-13.5894,-13.5894,1.7949,20.2563,-34.1025,215.6411,16.667,
0.76904,-13.5898,387.564,8.9741,-0.76904,-26.9233,-15.6411,-14.1025,-11.0259,2.8203,19.231,-33.5898,223.3335,15.1279,
7.9487,-6.4102,402.564,14.1025,4.3589,-21.7949,-10,-8.9746,-6.9233,-4.3589,26.4102,-27.9487,227.436,16.6665,
8.9744,-12.051,417.564,7.4363,4.8718,-27.9485,-4.8718,-15.6409,-8.9744,-16.6663,20.2566,-31.5383,225.385,18.2053,
11.0256,-13.0769,422.3079,3.3333,14.1028,-28.9744,-3.3333,-17.6921,-8.9744,-12.0515,9.9998,-35.6409,220.7693,21.282,
10,-5.8975,427.436,5.3848,15.1284,-26.9229,-5.3848,-11.0259,-8.9746,-8.4614,9.4873,-46.9229,214.6152,15.1284,
8.9744,-2.8206,435.1282,7.4363,2.8206,-25.3845,-11.0256,-11.0256,-4.8718,-12.5637,15.6414,-51.5383,216.1541,18.718,
7.1797,-1.5386,435.8975,8.2051,1.5386,-18.9741,-15.8975,-15.3848,-3.5898,-8.7178,17.436,-36.5383,223.5898,33.718,
0.25659,-0.25659,437.1794,9.4871,7.4358,-15.1282,-13.5896,-10.0002,-4.3591,-1.7952,20.7693,-21.5383,222.8206,33.5896,
-1.5383,-4.6155,444.6155,8.2053,5.1282,-21.0256,-7.6921,-4.1023,1.5383,-3.5896,25.1282,-36.5383,212.8206,18.5896,
0,-11.2822,443.5894,0.5127,0,-23.0771,-9.231,-10.2563,2.564,-12.8208,22.0513,-45.6411,210.769,18.9741,
3.8459,-7.949,438.718,2.8206,3.8459,-17.1794,-10.5129,-12.5642,-2.8206,-17.6921,27.9485,-30.6411,218.2048,28.9744,
1.7949,-1.7949,435.6411,8.4614,4.8716,-18.7178,-8.4614,-10.5127,-2.3076,-11.0259,32.0513,-34.6152,203.2048,17.6924,
0.76929,-3.3333,436.1541,9.4871,-1.7947,-24.8718,-7.4358,-10.5129,2.3079,-0.76929,18.718,-30.5129,188.2048,22.8206,
10.7693,-8.2053,439.4871,9.7434,0.51294,-23.0769,-3.5901,-12.8206,-0.51294,-0.51294,17.9485,-15.5129,199.9998,36.4099,
8.9741,-13.5898,433.0767,4.3589,9.4868,-24.8721,-4.8721,-20.7695,-4.3589,-12.0513,32.9485,-30.5129,211.5381,21.4099,
2.8206,-10.5129,429.4871,3.3333,14.6155,-20.7693,-2.8206,-14.1028,4.3591,-6.9231,39.7434,-45.5129,206.9231,6.4099,
2.0513,-11.2817,425.1284,0,6.6665,-15.3848,-4.1025,-7.1792,0,-1.0254,26.6665,-30.5129,203.0771,9.231,
6.9233,-10,420.7695,3.8462,5.8975,-13.5898,-5.8975,-9.4868,-6.4102,-3.8462,33.5898,-16.1538,204.3589,24.231,
4.6155,-4.6155,415.8972,11.282,6.6667,-17.949,-7.6921,-10.7693,-12.3079,-10.7693,32.3079,-31.1538,197.9485,21.5383,
7.4355,-1.7949,415.1279,12.564,1.7949,-17.1797,-10,-4.3594,-16.667,-13.0771,21.2817,-36.1538,191.5381,18.2051,
13.0769,-1.282,417.6921,7.9485,1.282,-13.5901,-12.0515,-7.949,-18.2053,-11.5388,17.6921,-25.8977,181.282,17.6921,
9.4873,-4.3589,416.667,4.3589,4.8721,-19.2305,-12.564,-19.2305,-20.769,-17.6924,8.9746,-37.1792,166.282,13.0771,
10.2563,-4.6152,421.0254,4.6152,7.6924,-20.5127,-5.1284,-15.8975,-15.3848,-16.9233,8.7178,-35.8975,162.0513,12.3076,
10.7695,-11.2817,422.0513,4.1025,5.1284,-19.4868,-4.1025,-17.9487,-16.9229,-11.7949,11.7949,-38.4614,154.8721,8.7183,
5.8977,-14.1023,421.7952,5.3845,5.3845,-22.8206,-4.8718,-19.7434,-25.3845,-7.4358,4.8718,-39.7434,142.3079,8.4617,
2.8208,-11.5381,428.4619,7.9487,6.9233,-22.3076,-2.3076,-8.4614,-25.3843,-4.3589,2.3076,-24.7434,139.7437,11.0259,
4.1025,-17.4355,428.7183,10.2563,4.6157,-20,-4.6152,-4.1025,-11.7949,-4.6152,17.3076,-24.6152,151.2822,6.1538,
6.9231,-23.8459,421.7947,8.9744,4.3591,-18.2053,-7.9485,-8.4617,-6.4104,-3.8459,27.949,-35.6411,157.6921,3.8459,
9.7434,-16.4104,423.5896,7.6921,6.1541,-15.8972,-6.1541,-7.1794,-13.3333,-9.2307,23.0769,-26.6667,151.282,11.7947,
5.1284,-11.7949,424.6152,7.1797,5.6411,-14.3589,-5.1284,-8.7178,-11.2822,-17.436,22.0513,-28.7178,144.1025,8.7178,
5.8977,-7.4358,423.8459,11.5383,6.9231,-10.5129,-4.3591,-6.4104,-8.4617,-12.051,24.3591,-41.7949,146.9231,4.3591,
11.7947,-3.0769,426.1541,16.4104,2.5642,-12.8206,-7.1794,-2.5642,-23.4617,-11.7947,9.3591,-37.9485,136.4104,12.8206,
14.6155,1.7947,433.0769,21.282,8.9744,-13.5896,-2.3079,-1.7947,-34.1028,-14.6155,-5.6409,-25.3845,121.7947,19.7434,
14.1025,0.25635,435.1279,19.7437,14.1025,-15.1284,-0.25635,-11.5386,-30,-17.1797,-7.9487,-34.6157,113.0767,5.3843,
17.1794,-5.385,439.7434,16.1536,9.4871,-16.1541,-0.76929,-11.5388,-25.8977,-13.0769,0.76929,-34.6155,105.8972,3.3333,
6.6665,-20.385,438.9741,6.1538,2.0513,-24.6152,-2.0513,-10.2563,-23.5898,-6.6665,10.769,-32.8206,92.8203,3.0767,
-2.5642,-34.8716,436.9231,4.1028,6.6667,-27.1794,2.5642,-5.1282,-10.7693,7.1794,22.0515,-37.4358,92.8206,-11.282,
-0.76929,-35.6409,431.0256,7.4363,4.8718,-21.7947,2.8206,-0.76929,-7.4358,0.76929,20.2566,-34.1023,90.5129,-12.5637,
3.3333,-31.5386,430.5129,10.5129,-2.8206,-18.718,-0.25659,0.25659,-13.0769,-10.5129,14.1023,-23.8459,75.5129,2.4363,
5.3848,-17.6924,438.2051,6.9229,2.8203,-15.1284,-0.25635,0.25635,-14.6152,-6.9233,17.6924,-30,60.5129,-1.2822,
14.6152,-4.8721,442.3076,9.4868,16.6665,-5.8975,2.3076,-2.3076,-15.1284,-9.4873,20.2563,-45,46.4102,-16.2822,
15.6411,-7.436,437.6924,17.6924,14.1025,-5.3848,2.8203,-2.8203,-18.2051,-18.2051,12.564,-55.1282,31.4102,-17.6924,
6.9231,-10.5125,432.0515,16.6667,6.4104,-11.0256,-1.282,1.282,-23.8459,-14.615,7.949,-40.1282,16.4102,-3.3333,
3.0767,-10.2563,424.6152,9.7437,6.6665,-11.2822,-8.2051,-1.5386,-32.8208,-12.8208,3.0767,-25.6411,1.5386,8.2051,
10.5125,-7.4358,429.4871,17.1794,12.5642,-1.7952,-1.282,1.282,-22.3079,-3.8464,4.8718,-30.5129,-3.3333,17.6921,
2.0515,-19.9998,428.718,13.8459,3.0769,-9.7434,0.51294,-1.5383,-14.3591,1.0256,-0.51294,-37.9487,-18.3333,2.6921,
1.0256,-24.6155,430.2566,12.3079,6.6667,-13.3333,4.6155,-1.0256,-9.2307,1.5383,1.0256,-31.282,-23.0769,-12.3079,
12.5642,-21.7949,432.5642,18.2053,11.0256,-6.9231,7.4358,3.3333,-6.9231,-3.3333,9.4871,-26.4102,-13.0769,-6.4104,
12.3076,-22.0515,428.7178,19.4868,1.5386,-7.1797,2.0513,4.1025,-11.7949,-8.7183,10.769,-36.4104,-25.6411,-1.5386,
2.0515,-26.6667,424.1028,16.4104,-1.5383,-12.3079,1.5383,3.0769,-9.2307,-8.2053,4.6155,-40,-40.6411,3.0769,
-1.5386,-31.2822,421.5386,11.7949,5.1279,-15.8975,6.6665,3.0767,0.5127,-3.5898,-0.5127,-31.2822,-49.7437,4.6152,
-0.51294,-28.718,419.9998,8.2048,8.718,-12.8206,3.5896,-1.5383,0.51294,-6.1541,5.1282,-33.3335,-45.1282,2.051,
1.2822,-19.7437,420.769,11.5386,11.0259,-4.8716,-1.2822,-3.3335,3.8462,-9.4873,17.1797,-35.1282,-47.4358,13.5898,
-1.0256,-20.5125,419.4875,12.3079,4.1028,-11.282,-2.051,1.0256,18.8462,-10.7693,17.4363,-30.2563,-53.3333,19.4875,
2.8206,-23.3333,420.2566,8.9744,-5.8977,-15.6409,-0.25659,0.25659,27.4358,-13.5896,12.051,-33.0769,-50,15.6409,
4.1028,-19.4871,421.0256,8.2053,1.0256,-9.7434,-1.0256,-5.1282,19.4871,-10.2561,13.3333,-30.2561,-52.3076,27.1794,
-4.6155,-20.5129,419.4871,12.8206,14.3591,-12.8206,1.5383,-3.5896,17.9485,-1.5383,15.3845,-22.0515,-58.9744,33.3333,
-10.2563,-26.6665,418.4614,12.3076,9.7437,-22.564,4.6152,-4.6152,17.436,-9.231,13.3335,-30.2566,-57.9487,22.564,
-2.3079,-20.2566,427.4358,8.9744,2.3079,-16.1541,2.8206,-4.3591,15.1282,-14.6155,16.6667,-32.5642,-49.4871,26.4104,
0.25635,-17.6924,428.9746,6.9233,5.3848,-13.0767,-0.25635,-4.3589,10,-8.4614,16.1538,-19.7437,-51.5383,24.8721,
-7.6921,-23.5896,422.0515,3.0769,10.7693,-17.9485,6.1541,-3.5896,12.3079,-3.0769,12.3079,-16.9231,-52.3076,12.8206,
-13.3335,-25.1284,422.0513,1.5386,5.1279,-16.4102,4.6152,-1.5386,14.8716,-6.1538,10.769,-28.718,-46.6667,13.3335,
-10.7693,-26.1536,423.5896,3.0769,7.1794,-14.3591,-1.0256,1.0256,12.3079,-7.6921,9.7434,-37.9487,-44.1025,14.3591,
-6.9229,-26.9229,421.7949,1.7949,14.1025,-13.5898,3.8462,-1.7949,8.4614,-6.4102,2.3076,-46.9231,-45.3845,4.8716,
-1.5386,-13.8462,424.1025,5.6406,13.8462,-4.6157,12.3076,0,3.0767,-5.1284,0,-35.8977,-45.1284,10.769,
-1.0256,-9.7439,423.5896,9.7434,9.7434,-2.0515,8.2048,2.5637,-3.5901,-10.2566,1.0256,-20.8977,-48.718,18.9744,
1.0256,-14.3586,425.6414,13.3337,10.7693,-6.6663,8.2053,2.0515,-2.051,-8.7175,-1.0256,-25.1282,-50.2563,15.385,
-0.25635,-16.1538,428.4614,11.5381,13.5898,-6.4102,10.5127,-1.7949,0.25635,-4.8721,2.8203,-40.1282,-45.8975,11.0254,
-2.8203,-15.1284,426.9229,6.4102,15.6411,-3.3335,15.1284,1.7949,-1.7949,-7.436,6.9229,-25.1282,-40.2563,17.1797,
-7.6921,-18.9744,421.0256,5.6409,9.7434,-6.6667,13.3333,1.5383,-4.6155,-14.3591,-1.5383,-10.1282,-37.4358,22.0515,
-9.231,-19.4873,418.9741,8.7178,8.7178,-5.6411,8.7178,0.5127,-0.5127,-5.1284,5.1279,-25.1282,-22.4358,13.333,
-11.5383,-22.8206,415.6409,6.4104,8.4617,-5.8977,2.8206,1.282,-1.282,1.7947,16.1541,-40.1282,-7.4358,-1.667,
-16.1538,-25.8975,412.0513,2.3076,7.436,-4.8716,0.25635,2.8208,1.2822,-0.25635,8.4614,-31.0256,-13.0767,-10.5127,
-14.8716,-17.9487,412.3076,3.5898,11.2822,-1.0254,6.1538,-1.0254,0,0,0.51318,-17.4355,-15.8975,4.4873,
-9.2307,-12.8206,411.282,5.6409,14.3591,-1.5383,12.3079,1.5383,-12.3079,-3.0769,2.0515,-21.0256,-7.6921,13.3333,
-9.4873,-18.2051,408.4614,6.4102,13.5898,-1.7949,10.5127,9.4873,-17.6924,-5.3848,1.7949,-19.7437,-9.4873,9.4873,
-10.5127,-17.6924,404.3589,10.5127,11.5386,0.25635,-0.25635,6.4102,-17.6924,-3.8462,0.25635,-21.7949,-18.7178,11.5386,
-5.8972,-4.8718,405.3845,14.6155,12.5642,-1.282,1.282,4.8718,-20.2561,-4.8718,3.3333,-27.4358,-19.2307,16.6667,
-4.1023,-1.5383,410.2566,12.8206,15.8977,-3.0769,14.3591,9.2307,-19.4871,-8.718,1.5383,-30.2563,-14.3591,10.7693,
-0.76929,-12.051,412.0515,16.1541,14.6155,2.8206,16.1541,8.9744,-13.0769,-3.8459,0.76929,-30.5127,-12.051,-0.76929,
-1.282,-21.282,403.8464,16.6667,5.3845,2.8206,6.9231,5.3845,-8.4617,-1.282,1.282,-23.8462,-8.4617,-8.4617,
-7.6921,-17.9485,403.0769,15.385,4.1028,1.0256,8.2053,9.7439,-3.0769,-1.0256,4.1028,-17.4358,-2.051,-8.2048,
-14.1025,-15.6411,404.3589,14.6152,10.5127,0.25635,12.0513,13.5898,-7.436,-0.25635,4.3589,-17.6924,-8.9741,-0.76904,
-14.6157,-18.2051,402.3076,11.0254,8.4614,-1.7949,4.8716,7.4355,-16.1538,-1.7949,3.333,-19.7437,-23.8462,1.7949,
-12.8206,-16.4104,402.051,12.8206,3.5896,-1.5383,1.0256,5.1282,-15.8977,0.51294,-0.51294,-10.2566,-23.0769,3.0769,
-15.8977,-15.3845,399.9998,10.7693,0.51294,-0.51294,3.0769,8.2048,-13.8464,-0.51294,-1.5383,3.5896,-13.3333,15.8972,
-14.3589,-13.8462,400.5127,6.6665,0.5127,-0.51269,4.6152,6.1538,-12.3076,-10.2563,10.769,-5.6411,-21.0254,18.4614,
-13.5898,-14.6157,399.7437,7.4355,-0.25635,0.25635,4.8716,6.9229,-8.9746,-7.436,12.564,-3.8462,-25.3848,19.2305,
-13.5896,-16.1541,398.2053,7.9485,-0.76929,0.76929,4.8718,7.9485,-6.4104,-4.3591,14.6155,-1.7947,-29.4873,20.2566,
-13.5896,-17.6921,396.6667,7.9485,-1.7947,0.76929,4.3591,8.4617,-4.3591,-2.3079,15.6409,-0.76929,-34.6155,20.2566,
-14.3589,-20.5127,393.8462,7.1792,-3.5898,0,3.0767,8.2051,-3.0771,-0.5127,16.4102,0,-40,19.4873,
-15.6409,-23.3333,391.0256,5.8972,-6.4104,-1.282,1.282,6.9231,-1.7947,0.25659,16.1541,-0.25659,-46.4102,18.2053,
-17.436,-27.1792,387.6924,4.1025,-9.231,-3.0767,-0.5127,6.6665,-0.5127,1.5386,16.4102,0.5127,-52.8206,17.9487,
-13.5898,-20.2563,392.564,5.3848,-10,-1.7949,2.8203,11.0254,-7.436,-2.3076,18.2051,1.7949,-47.436,17.6924,
-15.8972,-24.6155,392.8206,3.0769,-9.2307,-10.2566,4.6155,9.2307,-17.9485,-1.0256,8.2053,1.0256,-54.3589,19.4871,
-17.9487,-31.282,392.8206,4.6155,-8.2048,-8.718,7.6926,11.282,-9.2307,3.0769,1.5383,-1.5383,-59.4871,22.0515,
-12.3076,-22.5642,390.2563,6.6665,-10.2563,3.5898,3.0771,15.3848,-5.1284,-7.1797,9.7437,-3.0771,-66.1538,16.9229,
-8.9744,-8.4617,388.4612,8.4612,-10.5129,5.3845,-1.282,13.5896,-11.5388,-14.1028,24.3586,1.282,-73.0771,20.2561,
-14.1028,-14.6155,384.8718,6.4104,-11.0256,-0.25659,0.76929,11.5383,-12.0515,-8.9744,23.3333,0.25659,-72.0513,23.8459,
-15.8972,-23.0769,383.0769,5.1282,-10.2566,4.1028,1.5383,17.9485,-8.718,-2.0515,16.4104,-1.5383,-60.5129,22.5642,
-14.1025,-18.2051,382.3076,7.9487,-8.9746,7.9487,0.25635,18.7178,-12.0513,-1.2822,19.231,-0.25635,-60.7693,30,
-14.6155,-16.1541,380.7693,6.9231,-10.0002,2.3079,3.3333,13.5896,-11.0256,-2.8206,23.8459,-2.3079,-75.7693,34.1023,
-10.2563,-21.5386,381.0254,6.6665,-7.6924,0,6.6665,14.3589,-3.5898,0,22.564,-6.6665,-80.5129,25.1284,
-6.4102,-19.7437,377.1792,8.4614,-2.3076,2.3076,3.3335,14.6152,-11.0259,-4.3589,20.769,-12.0513,-76.1538,17.6924,
-4.3591,-11.5383,375.1282,10.5129,-2.3079,4.8718,2.3079,17.6921,-15.1282,-6.4104,15.1282,-12.5642,-72.5642,12.051,
-5.3845,-13.5896,371.5383,11.5383,-15.6409,1.282,0.76929,17.6921,-4.3591,2.3074,12.5642,-10.5129,-74.6155,-0.76929,
-2.5642,-16.4104,369.7434,14.8718,-15.8977,-1.0256,3.0769,15.8972,-2.5642,1.0256,21.0256,-4.6155,-70.2566,4.1023,
0.25659,-7.9485,366.4104,13.0769,-2.8206,-0.25659,9.4871,13.0769,-17.5642,-13.9744,17.1794,-3.8459,-68.4614,16.6667,
-0.51269,-2.564,362.0513,9.7437,0,0,10.769,13.3335,-22.0513,-9.231,6.1538,-3.5898,-77.4358,16.9233,
-5.6411,-10.7695,355.8975,10.2563,-14.8721,-4.1025,0,12.8203,-17.436,1.5386,0,2.0513,-87.1797,15.8975,
-3.0769,-11.7947,353.3333,13.8464,-16.9231,1.5383,-2.051,15.3845,-13.8459,-1.5383,7.6921,8.2053,-85.1282,20.0002,
-5.8977,-13.5901,351.0256,9.9998,-11.0256,-1.282,2.8206,11.5383,-8.4617,1.282,11.5383,-6.4104,-78.718,5.0002,
-0.25635,-10.5127,359.7437,17.6924,-3.333,0.25635,12.0513,17.1797,-1.7949,13.0771,18.2051,-13.0769,-65.3845,-3.333,
-5.1284,-14.3589,350.2563,12.3076,-10.2563,0,4.1025,15.8975,-13.3335,0,17.4355,-3.0771,-65.1284,4.1025,
-13.3333,-15.3845,340.5129,6.1541,-12.3074,-1.0256,1.0256,7.6926,-17.4358,-4.615,18.4617,2.5642,-71.7947,5.6414,
-4.3589,-11.5386,349.4873,16.6665,-3.8462,-0.25635,9.4873,12.564,-6.9229,7.436,16.1538,-5.3848,-70,0.25635,
3.8462,-13.5898,347.9487,17.6919,-7.436,-3.8462,8.9741,14.6152,-10,3.8462,5.3843,-10,-70.0002,-7.9487,
5.3848,-12.0513,339.7437,13.5898,-4.8716,-2.8203,11.0259,11.5386,-14.6152,0.25635,15.1284,-0.25635,-74.1025,-4.8716,
-2.564,-16.4102,331.7949,9.2305,-3.0771,-4.6152,8.7178,6.6665,-16.9233,-1.5386,20.5127,1.5386,-77.436,2.564,
-4.3589,-16.6665,328.9746,12.0513,-10,-4.3589,4.3589,13.0771,-15.6411,-1.7949,11.0259,4.3589,-72.564,1.7949,
-2.0513,-13.3335,330.2563,14.8716,-13.3335,-4.6157,5.6411,18.4614,-13.3335,2.0513,9.7437,4.6152,-67.6924,-13.2051,
1.0256,-12.3079,329.7434,16.4099,-9.2312,-6.1541,7.6921,17.4358,-12.3079,3.0769,21.0256,-1.0256,-62.5645,-7.6926,
0.76904,-12.0513,324.3589,16.6665,-8.4614,-1.7949,7.436,14.1025,-16.6665,-2.8203,14.6152,-0.76904,-63.8462,2.8203,
1.7949,-6.9233,329.4873,16.1538,-0.25635,0.25635,14.6152,12.564,-15.1284,-0.76904,2.8203,-0.76904,-67.436,-12.1797,
-0.25635,-10.5127,330.5127,11.5386,2.3076,-9.4873,9.4873,11.5386,-14.6152,0.25635,1.7949,-15.769,-74.1025,-27.1797,
2.8206,-7.4358,326.4104,13.5896,-0.25659,-6.4104,4.8718,14.6155,-15.6409,0.25659,12.5642,-20.7693,-70.5129,-18.718,
3.8462,-3.3335,326.4102,12.564,-2.8203,2.8203,11.0254,12.0513,-16.6665,-5.8975,24.3589,-7.9487,-70,-11.0259,
2.3076,-4.8721,332.564,10.5127,-2.3076,3.8462,11.0254,13.0767,-7.9487,-8.9746,36.6665,-10,-68.4617,-19.7437,
0.76929,-6.9231,334.1028,14.1028,-4.3591,1.7952,6.4104,18.718,-0.76929,-4.3591,30.5129,-3.8459,-54.1025,-14.6155,
-0.76904,-12.564,331.5386,14.6157,-6.9229,0.25635,9.4873,14.6157,-0.25635,-3.333,15.5129,6.4106,-55.1282,-16.6665,
2.564,-17.9487,329.7437,10.769,-10.769,-8.2051,8.2051,10.2563,5.6411,-7.1797,11.2822,-2.564,-70.1282,-27.1794,
3.3335,-16.1538,330.5127,14.6152,-7.436,-7.9487,7.9487,16.6665,16.1538,-3.3335,26.2822,-6.9229,-76.1538,-12.1794,
-8.9741,-25.8975,331.0259,16.6665,-10,-8.9741,5.8975,11.5386,13.5898,-4.3589,11.2822,-5.8975,-63.3333,2.8206,
-9.4871,-33.5896,331.0256,13.5896,-16.1536,-14.6155,2.3079,7.4358,17.6921,-6.4104,5.3845,-2.3079,-67.9487,5.3845,
-3.3333,-21.7947,332.051,11.0256,-16.1541,-16.1541,0.76929,12.051,29.9998,-1.282,20.3845,-0.76929,-78.2051,9.4871,
-6.1536,-12.3074,332.3079,13.3337,-20.5125,-17.4358,-1.0256,10.2566,32.8206,1.0256,25.1282,-2.5637,-78.4614,12.8206,
-9.4875,-17.1794,328.9744,16.1536,-24.3591,-14.6155,-0.76929,9.4871,28.9744,-6.4104,19.7434,0.76929,-76.1541,16.6667,
-7.4358,-16.6667,325.3845,16.1541,-21.282,-13.5896,0.25659,14.6155,21.7947,-11.0256,12.051,-0.25659,-80.7693,12.5642,
-2.3076,-3.8462,321.7949,18.2051,-15.6411,-10.5127,3.3335,16.667,17.6924,-3.8462,3.3335,-13.0767,-78.2051,2.3076,
0.25635,-2.8208,316.6665,17.1792,-21.7949,-1.7949,4.3589,16.1538,18.7178,-2.3076,-0.25635,-18.7183,-71.0259,4.3589,
-0.76904,-8.9746,310.5127,18.7178,-30.5129,0.76904,0.76904,16.1538,19.231,-8.4614,-2.3076,-10,-78.718,17.6924,
-1.5383,-6.6667,304.1028,22.0515,-22.5642,-2.5642,1.0256,16.9231,16.9231,-5.1282,4.6155,-1.0256,-84.1025,20.0002,
-9.2307,-11.7947,289.1028,9.2307,-21.0256,-10.2561,0.51294,9.7439,3.5896,-5.6409,7.6926,-0.51294,-75.8975,5.1282,
-8.718,-12.3079,281.5383,4.615,-21.5388,-4.1028,7.1794,8.718,-1.0256,-7.6926,11.282,1.0256,-64.1028,13.8459,
-7.436,-10.5127,279.231,6.9229,-19.231,-4.3589,6.9229,13.0771,3.8462,-8.4614,13.5898,-3.8462,-72.0513,18.7178,
-2.564,-11.2822,276.9229,9.231,-11.2822,-9.231,5.1284,19.4873,8.7178,-6.6665,11.2822,-2.564,-73.3333,3.7178,
3.0767,-14.8721,269.7437,10.769,-8.2051,-3.5898,11.7949,21.5381,6.1538,-3.0771,2.0513,-2.0513,-62.5642,-5.1284,
3.0771,-10.2563,260,14.3589,-9.231,0.5127,15.8975,16.4102,-1.0254,-0.5127,-1.5386,-8.2051,-64.1025,2.0513,
0.76929,-0.76929,257.1794,17.6926,-4.8718,-2.3074,12.0515,13.0769,-6.4099,-4.3586,8.9744,-5.8972,-68.4614,6.9231,
-0.25659,0.25659,256.6667,19.2307,-1.7947,-2.3079,13.5896,15.6409,-2.3079,-3.3333,16.6667,-1.7947,-66.4102,5.3845,
-3.5898,-6.1538,246.6665,17.436,-7.1797,0,15.3848,15.3848,0,-0.5127,8.7178,-7.1797,-72.8206,0.5127,
-3.3333,-6.4104,242.8206,19.2307,-11.5383,0.76929,12.5642,19.7439,-0.76929,-0.76929,3.8464,-1.282,-72.0513,4.8718,
-4.8718,-6.4104,244.3591,19.7434,-14.1028,-3.3333,7.9485,20.2566,-5.3845,-3.3333,3.3333,6.4104,-66.4104,8.9744,
-12.3079,-12.3079,240.5129,14.8718,-15.3845,-6.1541,6.1541,16.9231,-9.7434,-2.5642,2.5642,6.1541,-69.2307,8.718,
-13.0769,-16.6667,235.1282,8.9744,-13.5896,-7.4358,8.4617,14.6155,-6.9231,-1.282,5.8977,2.3079,-76.6665,1.282,
0.25635,-10.5127,240.2563,14.6157,-4.8716,-2.3076,16.667,19.7437,-0.25635,3.3335,17.1797,-5.3843,-69.9998,-2.8203,
0.51294,-7.6921,236.9231,13.3333,-0.51294,-1.0256,16.4104,24.6155,-6.6667,8.718,14.3591,-3.5896,-58.4614,-5.1282,
-6.6667,-9.7434,224.6155,7.6926,-2.5642,-3.0769,11.282,25.1282,-12.3074,12.3079,2.5642,9.2307,-59.4871,-4.1023,
-7.9487,-11.0254,219.231,12.564,-5.3848,-2.3076,11.5386,21.2822,-12.564,3.8462,3.3335,2.3076,-68.9744,-3.3335,
-6.4102,-6.9233,220.769,17.6924,-4.8721,1.2817,15.1279,21.7949,-11.5386,0.25635,11.0254,-5.8975,-71.0256,-0.25635,
-10.2563,-9.231,208.7178,9.7437,-10.2563,-5.1284,5.1284,17.9487,-16.9229,1.5386,2.0513,0,-71.7949,0,
-10.2563,-8.2051,196.9229,7.6924,-13.3335,0,3.5898,20,-9.7437,0,-8.2051,6.6665,-71.282,2.0513,
-14.1025,-10,191.0259,11.0259,-14.6152,6.9233,6.4102,22.3076,-5.8975,-3.8462,-4.3589,5.8975,-78.718,3.8462,
-15.8972,-13.8459,184.6155,8.2053,-14.8718,-4.1028,3.5896,19.4871,-12.8206,-0.51294,0.51294,11.282,-82.0513,5.1282,
-7.9487,-9.4873,187.436,11.0259,-7.436,-3.8462,11.0259,27.436,-4.3589,10.5127,3.3335,7.436,-67.0513,-3.3335,
-14.8718,-11.7949,184.1025,13.3335,-11.7949,2.564,9.7437,27.1797,0,1.5386,0,-7.564,-62.564,-18.3335,
-13.0769,-5.8972,181.282,21.7947,-10.5129,6.9231,7.4358,24.8718,-1.7947,1.7947,11.0256,-12.051,-67.9487,-4.3591,
-13.3335,-12.8203,176.4102,13.3335,-15.8975,-3.0767,0,14.8721,-12.3076,2.0513,8.7178,0,-72.3076,1.5386,
-13.0769,-15.1282,179.7439,12.0515,-12.5642,0.76929,4.8718,18.2053,-2.8206,2.8206,3.8464,-0.76929,-65.8975,-1.282,
-18.7183,-11.0259,170.5127,12.564,-12.5645,0.76904,3.8462,15.1279,-0.76953,0.25635,1.2817,-4.8721,-73.0771,-0.25635,
-15.8977,-2.0515,171.282,14.8718,-14.8718,-1.5383,0.51294,12.3079,-10.7693,-0.51294,2.051,5.1282,-74.8718,4.1023,
-12.5642,-0.25659,176.1541,15.1282,-13.0769,1.282,2.3079,17.1794,-16.6667,-1.7947,-0.76929,8.9744,-68.4617,0.25659,
-15.8977,-7.1794,166.6667,13.3333,-11.7952,2.051,3.0769,16.9231,-13.8464,-2.5642,-1.0256,1.0256,-70.2566,3.0769,
-11.7947,-9.2307,159.4871,14.3591,-15.8972,-0.51294,2.5642,12.8206,-9.7434,-4.1023,0.51294,0.51294,-72.3076,9.7434,
-5.6409,-6.6667,161.0256,13.3333,-13.3333,0.51294,3.0769,14.8718,-12.8206,-4.6155,-0.51294,6.1541,-67.6924,6.6667,
-6.1541,-4.1028,157.4358,11.7947,-9.7439,3.0769,4.1023,18.4617,-11.282,-2.0515,-0.51294,4.6155,-68.718,0.51294,
-8.4617,-1.7952,149.4871,17.6921,-15.1282,0.76929,6.9231,15.6409,-8.4617,-1.7952,7.9485,1.7947,-74.6155,-0.76929,
-9.7434,-3.5896,145.6409,20.0002,-15.8972,-1.0256,4.1028,14.3591,-12.8206,-3.0769,7.6921,4.1028,-73.3333,1.0256,
-10.5127,-1.2822,147.436,19.7437,-10.5127,2.3076,1.7949,21.7949,-13.5898,1.2822,-7.3079,2.8203,-65.3848,-2.3076,
-11.0256,0.76929,143.8459,23.8459,-13.5896,3.8459,11.5383,24.3591,-8.4617,3.8459,-7.4358,-0.76929,-65.8975,-6.9231,
-15.6411,-4.8716,131.5386,22.3076,-15.6411,1.2822,16.667,18.2051,-11.5386,1.7949,-0.25635,0.25635,-69.4871,-3.8462,
-18.7178,-13.0767,123.3335,14.1025,-8.4614,0.25635,8.9746,17.6924,-17.6924,-0.25635,-7.436,4.3589,-68.9744,5.8975,
-15.1282,-12.5642,117.1794,10.5125,-3.8464,2.8206,6.4099,20.2561,-13.0769,-3.8464,-2.8206,8.9744,-71.0259,6.4099,
-10.2566,-11.7952,107.6921,11.282,-9.2307,3.0769,9.7434,18.4617,-9.2307,-2.5642,12.1794,2.5642,-74.8718,-5.6414,
-4.8721,-10.5132,101.7949,14.6152,-15.6411,1.7949,12.0513,18.2051,-15.6411,1.7949,13.5894,-5.3848,-67.949,-1.7949,
-1.0256,-1.0256,96.9231,18.4617,-6.6667,6.1541,19.4871,22.0515,-19.9998,-5.6409,1.0256,-1.0256,-56.4102,8.718,
-5.8977,1.282,85.3845,14.1023,1.282,7.4358,17.6921,20.7693,-19.7434,-11.5383,-4.8718,-6.4104,-58.718,-1.282,
-6.6667,-2.0515,77.9485,13.3333,-0.51294,6.6667,7.1794,22.0515,-11.7947,0.51294,1.0256,-12.3079,-56.9231,-2.5642,
-7.1797,-5.6411,71.2822,15.8975,-8.2051,2.0513,4.6152,20,-15.3848,-2.0513,4.1025,-5.1279,-59.4871,3.5898,
-4.8718,-4.8718,68.4617,17.6921,-7.4358,4.3591,10.5129,18.2053,-17.1794,-6.4104,7.4358,3.3333,-65.3848,-3.3333,
-7.4358,-13.0769,66.9231,14.6155,-10.5125,0.76929,6.9231,19.7439,-8.9744,1.7952,4.3591,-0.76929,-67.4358,-13.0769,
-10.5129,-17.1794,59.7434,17.1794,-12.5642,-3.8459,4.3591,24.3591,-11.0256,2.8206,4.8718,4.3591,-67.436,-2.8206,
-12.8203,-9.7437,47.1797,13.3335,-8.2051,-0.5127,6.6665,19.4873,-26.0256,-11.2822,2.0513,11.2822,-72.8206,0.5127,
-1.7947,-1.282,45.3845,17.6926,1.7952,7.949,15.6414,19.2307,-28.9744,-16.1536,-6.4099,0.76929,-64.3589,-0.76929,
0.25659,-6.9231,36.6667,21.7947,1.282,2.8206,17.6921,20.2566,-26.4104,-17.1794,-14.6155,-14.2307,-51.0256,-0.25659,
-1.2822,-5.8975,28.4614,17.1797,-0.25635,0.25635,16.1538,18.2051,-31.0256,-8.9746,0.38452,-11.0259,-48.9744,0.25635,
-0.25635,-6.4102,19.231,10,-0.25635,0.25635,12.564,12.564,-33.0769,-0.25635,13.5898,0.76904,-57.1794,-3.3335,
-5.3845,-16.1536,7.949,9.4871,0.76929,-0.76929,12.0515,13.5901,-28.9744,-2.3074,3.3333,1.282,-60.769,-3.3333,
-6.6667,-11.7947,8.718,15.8972,-0.51294,5.6409,10.7693,22.0515,-20.5129,-0.51294,0.51294,-1.5383,-57.4358,5.1282,
-6.6667,-12.8206,2.5642,10.7693,-10.2566,3.5896,1.0256,22.5642,-21.0256,-0.51294,3.5896,-8.2053,-56.4104,0.51294,
-1.0256,-13.3337,-6.1541,11.7947,-8.2053,1.0256,9.7434,27.1794,-16.4104,-1.5388,9.7434,4.1023,-52.8208,2.5637,
-3.0771,-10.7695,-12.8208,19.4873,-7.1797,2.564,20,26.1538,-15.8975,-2.564,8.7178,18.4614,-62.5642,13.8462,
-3.0771,-11.7949,-17.9487,22.0513,-7.6924,3.0771,15.3848,21.5386,-21.0254,-3.5898,3.5898,9.231,-67.6924,10.2563,
6.9231,-7.9485,-17.1794,25.8977,-1.282,5.3845,12.5642,24.8718,-16.6667,0.76929,7.4358,-0.76929,-52.6924,-4.7437,
0.25635,-10,-27.949,16.6665,-8.4619,0.76904,11.0254,19.7437,-17.6924,0.25635,5.8975,-0.25635,-59.7437,-14.6157,
-3.8462,-13.5898,-37.6921,13.5898,-11.0254,1.7949,19.231,19.7437,-19.7437,2.8208,4.3589,3.3335,-68.4614,-1.7949,
2.5645,-12.3076,-41.5383,20,-3.5898,2.5645,20,22.0513,-21.5383,2.0513,4.1025,-2.0513,-54.3589,-10.2563,
9.4873,-1.2822,-44.3591,26.9229,4.3589,0.25635,15.6411,20.769,-16.1538,-2.8203,13.0767,-0.25635,-43.8462,-12.0513,
1.5386,-1.0254,-52.3076,24.6152,0,-1.0254,11.7949,18.4614,-15.8975,-10.769,7.6924,0,-58.8462,2.0513,
-0.51294,0.51294,-44.6155,29.7434,-4.6155,9.2307,14.8718,28.2053,-7.6921,-6.1541,-5.6409,6.6667,-65.6411,6.6667,
-2.0513,1.5386,-36.4102,27.6924,-9.2305,7.1797,7.6924,28.2051,-1.5386,-8.7178,-8.2051,15.3848,-66.6665,7.1797,
-1.0256,0.51294,-28.718,25.1282,-4.1028,-0.51294,5.6409,20.5129,-0.51294,-18.4617,3.0769,15.3845,-66.1538,21.5383,
-1.0256,-4.6155,-16.4104,21.5383,-5.6409,-0.51294,8.2053,15.3845,7.6921,-23.0769,6.6667,0.51294,-63.5896,20.0002,
-8.2056,-10.7695,-5.1284,16.9229,-15.8975,2.0513,3.5894,16.4102,17.9487,-19.4873,3.0767,-2.0513,-62.5642,18.4614,
-15.8977,-18.9744,5.1282,8.718,-16.9231,-2.0515,1.0256,15.3845,12.8206,-24.1028,-1.0256,5.1282,-64.1025,30.2561,
-14.1025,-22.3076,20.1282,4.8721,-9.4868,-5.3843,8.4614,13.5898,12.5645,-24.3589,0.25635,-0.25635,-57.1794,28.4614,
-7.9485,-8.9744,35.1282,12.0515,-11.5383,-5.3845,6.9231,15.6409,15.1282,-18.2053,5.3845,-15.2563,-53.5896,24.3591,
-6.4104,0.76929,50.1282,16.1536,-14.1028,-0.76929,-0.76929,16.6667,9.4871,-21.282,1.7947,-12.5642,-62.3076,34.1023,
-2.8203,-5.8975,65.1282,13.5898,-8.4614,2.8203,7.9487,15.6411,13.5898,-18.7178,-6.4102,-2.8203,-58.718,35.6411,
-0.25659,-8.9744,80.1282,14.1028,-7.949,0.25659,15.6409,20.2566,21.282,-6.4104,-4.8718,-1.7947,-50,37.1794,
-9.4873,-12.0513,90,12.0513,-17.6924,-3.8462,4.3589,19.7437,14.6152,-6.9229,-4.3589,3.8462,-56.1538,41.7949,
-11.7949,-18.9746,95.8975,8.7178,-24.1025,-6.6665,-1.5386,13.8462,12.3076,-14.8721,1.5386,8.2051,-60.5129,28.2051,
-10.0002,-17.6926,97.6921,8.4617,-20.7693,-4.8718,0.76929,13.5896,17.1794,-13.5896,16.5386,-0.76929,-55.6411,17.1794,
-14.8716,-11.7944,96.9233,10.7695,-14.3589,0,0,18.4619,11.2822,-9.7432,20,-4.1025,-57.9485,24.103,
-17.6924,-10.5127,102.8208,8.4614,-15.1279,0.25635,-2.3076,16.1538,-0.25635,-15.1279,5,2.8208,-65.8975,22.3076,
-6.6665,-4.1025,107.1797,10.2568,-14.8716,0,0.51318,11.7949,2.5645,-14.8716,0,-0.5127,-62.051,16.4106,
0.51294,-0.51294,106.6667,13.3333,-9.7434,-0.51294,3.0769,13.3333,1.5383,-12.3079,-1.0256,-13.8459,-56.9231,18.4617,
-1.282,-0.25659,112.051,16.6667,-0.25659,5.8972,12.051,26.4104,0.25659,-3.8459,-5.8972,-2.3079,-47.436,26.4104,
-10.2566,-6.1541,105.6409,9.7434,-10.2566,2.5642,8.718,24.1023,-2.5642,-4.1028,-7.6921,3.5896,-53.8462,18.4617,
-2.8203,-2.8203,101.2822,11.0259,-17.6924,0.25635,7.436,17.6924,-0.25635,-3.8462,-0.25635,1.7949,-57.6921,13.0771,
-0.5127,-8.7183,102.0513,11.2817,-14.8721,0.5127,10.2563,18.4614,3.5898,-0.5127,-2.0513,-2.0513,-51.2822,14.3589,
-15.5127,-19.9998,96.9231,4.6155,-16.9231,-1.0256,3.0769,17.4358,1.0256,-2.051,2.5642,-2.051,-49.2307,13.3333,
-21.7947,-11.5383,91.0256,6.4104,-19.7434,-0.25659,-2.8206,17.1794,0.25659,-2.8206,16.1541,2.8206,-48.9744,16.1541,
-16.6667,-4.8718,84.3591,11.5383,-18.718,-0.76929,0.25659,19.2307,0.25659,-0.25659,12.051,-0.25659,-55.6411,15.1282,
-16.1538,-9.4873,72.0513,14.1025,-14.6152,0.76904,2.8203,19.231,-5.8975,-6.9229,1.2822,-0.76904,-64.8718,12.0513,
-20.7693,-6.4104,58.2048,8.4617,-13.5896,1.7947,-1.282,14.6155,-13.0769,-18.718,1.282,2.3079,-64.8718,14.6155,
-11.2822,5.6411,53.8462,5.1279,-11.2822,3.0767,-0.5127,14.3589,-16.4102,-17.9487,-1.5386,0.5127,-62.5642,20,
-1.0256,2.5642,49.2307,7.6921,-10.7693,1.5383,1.0256,13.3333,-22.5642,-14.3591,-12.8206,-4.6155,-71.7949,22.5642,
-2.0513,0,39.4868,8.7178,-10.7695,0,2.0513,11.7944,-27.6924,-16.9233,-12.3081,0.5127,-75.3848,23.0767,
-0.25635,5.3848,32.564,9.4873,-11.0259,-0.25635,0.76904,13.0767,-27.9487,-20.2563,-9.4873,0.25635,-65.3848,12.564,
2.3076,1.2822,25.3848,9.4873,-14.1025,1.7949,-0.25635,14.1025,-26.4102,-18.7178,-13.5898,-14.7437,-58.718,0.25635,
-2.8206,2.8206,17.1794,12.0515,-9.4871,8.4617,3.3333,19.7439,-19.2307,-12.051,-8.9744,-11.5383,-57.6921,5.385,
-10.5129,1.282,2.1794,7.9485,-10.0002,0.76929,0.25659,14.6155,-22.8206,-18.718,-10.5129,-0.25659,-62.8206,4.8718,
-1.7947,0.76929,0.76929,12.5642,-4.8718,-0.76929,5.8977,14.1028,-18.2053,-11.0256,-7.4358,3.3333,-58.2051,3.3333,
-0.76929,-5.8977,1.7947,15.1282,-7.949,2.3074,5.8972,17.6921,-10.5129,0.76929,-6.9231,-2.8206,-62.8206,2.8206,
-0.25635,-9.4873,-6.9233,14.6152,-11.0259,5.8975,5.3848,23.3335,-8.4614,0.25635,-3.8462,2.8203,-66.9231,4.8716,
0.76929,-8.9744,-21.9233,14.1028,-11.0256,5.3845,5.3845,22.8206,-9.4871,-3.8459,-0.76929,6.4104,-57.1794,3.8464,
-2.8206,-6.9231,-36.9233,18.2053,-12.5642,7.4358,0.76929,22.3079,-11.0256,-0.76929,0.76929,1.7947,-46.9231,4.8718,
-1.7949,-4.8716,-46.4102,19.7437,-10,13.0771,3.3335,22.8208,-10.5127,-4.8716,10,1.7949,-46.4102,5.3848,
4.8718,1.7947,-51.5386,18.718,-2.8206,14.6155,15.1282,21.282,-7.9485,-11.0256,19.2307,-1.7947,-48.9744,-2.3079,
2.3076,4.3589,-62.3076,16.1538,-2.3076,7.9487,10.5132,19.231,-8.4614,-8.4614,8.4614,-4.3589,-54.6152,-7.9487,
1.282,-3.3333,-68.9744,16.6667,-2.8206,3.3333,5.3845,21.282,-12.5642,-11.0256,-0.76929,5.3845,-55.1282,0.76929,
2.5642,-9.7434,-76.4102,13.3333,-6.1536,-1.0256,9.7439,17.4363,-11.282,-17.4358,1.0256,4.1028,-47.1794,2.0515,
2.3076,-5.3848,-85.3845,7.9487,-13.0767,3.3335,6.9233,17.1797,-0.25635,-6.4102,3.8462,0.25635,-41.282,-3.8462,
-2.564,-4.6152,-97.4358,6.6665,-14.8716,10.7695,1.5386,20.5127,-3.0767,-1.5386,3.5898,6.6665,-50.2563,1.5386,
-3.0769,-9.2307,-111.7949,5.1282,-8.718,7.6921,4.1028,20.5129,-14.8718,-11.7947,3.0769,4.1028,-56.4102,8.2053,
5.3845,-1.7952,-111.0259,8.4612,-0.76929,4.3586,7.4358,24.3586,-7.4363,-7.4363,2.3074,-0.76929,-42.8206,0.76929,
3.8462,-1.7949,-115.1282,10.5127,-5.8975,2.3076,3.3335,20.7695,0.25635,-0.25635,1.7949,-2.3076,-45.8975,-14.2307,
2.8206,-2.8206,-126.4104,13.5896,-4.8718,7.9485,9.4871,21.7947,-6.9231,-3.8464,9.4871,3.3333,-53.0771,-4.8718,
1.5383,-3.5896,-130.769,12.3079,-3.5896,5.6409,8.2053,25.1282,-16.4104,-15.8972,1.0256,-0.51294,-50.2563,0.51294,
6.4102,0.25635,-122.3076,18.7183,-1.7949,8.4614,6.9233,33.0771,-2.3076,-5.8975,-1.2817,-0.25635,-41.282,0.25635,
0,-4.6152,-129.2307,17.9487,-6.1538,7.1797,5.6411,26.6665,-4.1025,2.0513,0.51269,-3.0767,-50.2563,0,
-0.5127,-2.0513,-136.9231,18.9741,-2.564,5.6411,9.231,22.0513,-16.4102,-1.5386,1.5386,1.0254,-50.7693,0.5127,
1.282,-2.8206,-141.282,17.1794,-1.282,3.8459,10.5129,24.8718,-13.5896,-5.3845,3.3333,3.8459,-41.282,-4.3591,
-2.564,-12.3076,-144.6155,16.4102,-6.1538,1.0254,7.1792,28.7178,-6.1538,2.564,5.1279,-0.5127,-38.4617,0.5127,
-7.1794,-13.8464,-149.7437,18.9744,-10.2566,0.51294,2.051,28.718,-13.3333,5.1282,-0.51294,2.051,-40.5129,4.1023,
-4.1023,-0.51294,-150.7693,20.5129,-9.7434,11.7947,2.0515,30.2566,-17.4358,0.51294,-2.5642,16.9231,-43.5896,7.6921,
-1.7949,9.4873,-151.0256,21.2822,-9.4873,24.8716,1.7949,30,-18.2051,-3.8462,-1.7949,21.2822,-51.5386,21.2822,
-1.7949,11.5386,-150.5127,21.7949,-10,30,1.7949,28.9746,-16.6665,-4.3589,-4.8716,6.2822,-47.9485,21.2822,
3.0769,16.9231,-147.6924,23.0769,-13.3333,33.8459,3.5896,34.3586,-12.8206,-1.5383,-3.5896,-8.7178,-40,6.2822,
5.3845,19.2307,-151.5386,20.7693,-16.6667,35.1282,2.3079,34.6155,-16.6667,-3.8459,2.8206,-4.3591,-45.8975,-2.3079,
-4.6155,9.7434,-156.9231,16.4104,-17.9485,34.3591,0.51294,33.3333,-14.8718,-3.5896,-0.51294,2.5642,-44.6152,9.7434,
-9.9998,6.4104,-154.1025,20.2566,-18.2051,36.1541,2.8206,39.2307,-7.4358,4.8718,-6.9231,-2.8206,-31.0256,7.4358,
-6.4104,7.4358,-155.6411,23.3333,-22.3079,34.6155,1.282,37.1794,-12.5642,2.8206,-2.3079,-0.25659,-35.1282,0.25659,
-6.4102,3.8462,-163.3333,20.7695,-27.4355,29.4873,-3.8462,27.436,-20.769,-4.8716,3.8462,13.5898,-48.9741,9.4873,
-14.3591,1.0256,-160,20.5129,-24.1028,29.2307,-3.5896,28.2048,-16.4104,-1.0256,3.0769,18.4617,-45.6411,17.9485,
-17.1797,-1.7949,-155.1284,20.2563,-18.2051,25.8975,2.3076,32.564,-11.5386,1.7949,-2.8208,3.4617,-42.3079,2.9485,
-2.1797,2.5642,-147.1794,26.1536,-14.8718,29.7434,11.7947,39.9998,-7.6921,6.6667,-1.5383,-4.6155,-34.3591,-9.2307,
1.7947,0.76929,-151.0256,21.282,-22.8206,32.0515,4.3591,37.1794,-15.1282,6.4104,-2.8206,-1.282,-33.0769,-0.76929,
-13.2053,0,-159.4871,15.3848,-19.4868,30.7695,-3.5894,29.231,-21.5381,0,6.1538,6.667,-41.5383,14.2307,
-23.8462,2.3076,-167.4358,13.0771,-13.5898,29.4873,-2.3076,27.9487,-21.7949,-7.436,14.1025,5.3848,-43.3333,13.5898,
-27.6924,-0.51294,-173.3333,12.3079,-18.9744,29.2307,-2.5642,33.8459,-17.9485,0.51294,10.2566,3.5896,-35.8975,5.6409,
-26.6665,-8.718,-171.282,13.8464,-21.5383,26.6667,-5.1282,34.8718,-15.3845,10.2566,5.1282,6.6667,-37.9487,7.6926,
-17.436,-8.7183,-164.6157,15.3843,-12.3081,23.5894,0,33.333,-19.4873,7.1792,0,6.6665,-46.667,5.6406,
-7.6924,0,-158.9744,14.8721,-8.7178,19.4873,2.564,31.2822,-29.2307,0,-12.3076,0,-49.2307,4.6152,
0.51294,2.051,-153.3335,13.3333,-17.949,16.9231,-0.51294,29.7434,-24.6155,7.6921,-14.8718,-4.1028,-46.1538,11.7947,
-1.2822,-10,-147.9487,9.4873,-23.8462,17.6924,-1.2822,30.5127,-12.564,15.6411,0.12817,6.4102,-41.7949,8.9741,
-11.7947,-15.3845,-144.6155,11.282,-23.5898,20.5129,-3.5896,33.8459,-11.282,10.2566,15.1282,18.4617,-36.4102,3.5896,
-15.6411,-5.8975,-138.718,17.6924,-25.3848,22.3076,-8.4614,35.6411,-11.0259,5.8975,21.2822,11.5386,-36.1538,6.9229,
-14.8716,1.5386,-134.3589,17.9487,-26.1538,20,-10.769,32.3076,-12.3076,2.0513,12.3076,-1.5386,-41.5383,2.0513,
-4.3591,10.5125,-123.8462,21.7947,-17.6926,25.3845,-3.3333,33.5896,-17.6926,0.76929,7.4358,2.3074,-32.5642,-0.76929,
5.6411,13.8462,-113.3333,22.5645,-13.333,26.667,-0.5127,29.7437,-22.0513,-7.1792,5.1284,0,-29.7434,0,
10.2561,16.4104,-102.0513,24.1023,-9.2307,31.7947,2.5642,30.7693,-7.6926,-12.3079,6.6667,-4.6155,-39.4873,-2.5642,
-0.25635,14.1025,-100.7693,24.3589,-14.6152,32.0513,2.3076,32.0513,0.25635,-13.0771,-3.3335,-3.8462,-43.8462,0.25635,
-5.1282,9.7434,-99.4871,25.6409,-21.0256,25.6409,0.51294,30.2566,0.51294,-6.1536,-14.3591,-0.51294,-36.9231,15.2563,
0.51294,4.6155,-89.7437,24.1028,-12.3079,18.4617,-1.0256,30.7693,10.2566,-1.5383,-0.51294,-0.51294,-38.9744,30.2563,
-3.0769,-1.5383,-86.1541,16.4104,-2.0515,12.3074,0.51294,29.2307,21.0256,-1.0256,14.4871,-0.51294,-38.9744,19.9998,
-13.3335,-10.769,-93.3333,7.1797,-5.1279,0.5127,-0.51269,20.5127,22.0513,-0.51269,7.6924,4.6152,-31.7949,11.7949,
-9.4871,-14.6155,-87.436,7.4358,-5.3845,-6.4104,1.282,23.3333,32.051,-1.282,6.9231,17.6921,-31.0256,22.8206,
-3.3335,-16.1538,-77.6921,7.9487,-8.4614,-10,3.3335,28.9746,41.7949,-7.9487,21.9231,12.0513,-35.1282,26.4102,
-2.5642,-11.7947,-73.8459,10.7693,-7.1794,-5.6409,5.6414,32.8206,37.949,-7.6921,24.6155,2.5642,-25.6409,26.1541,
-7.436,-14.1025,-80.2563,3.3335,-2.3076,-4.3589,2.3076,26.4102,22.949,-8.9746,9.6155,3.3335,-27.9487,26.4102,
-8.9744,-18.2053,-78.2053,0.76929,-0.76929,-4.8718,4.3586,22.8206,21.282,-2.3079,4.8718,4.8718,-37.1797,24.8718,
-16.4099,-23.5896,-79.4871,2.0515,-8.718,-9.2307,3.0769,24.6155,28.2053,-1.0256,1.0256,2.0515,-37.4358,16.4104,
-17.6921,-19.7434,-81.7949,5.3845,-5.3845,-1.7947,0.76929,28.4617,33.0769,-0.76929,3.8459,13.5896,-25.8975,21.7947,
-25.8975,-16.6665,-82.8206,5.3848,-13.0771,-1.7949,-8.4614,20.769,23.3335,1.7949,3.3335,14.6152,-34.1025,26.9229,
-26.9231,-10.5129,-75.6411,10.5129,-19.2307,-4.3591,-14.1028,22.8206,18.718,11.0256,4.3591,21.7947,-41.7949,35.1282,
-20.769,-10.5127,-72.0513,6.9229,-17.6924,-2.3076,-13.5898,28.4614,13.0771,2.3076,2.3076,31.5386,-35.1282,40.769,
-12.0515,-11.0256,-62.8206,7.9485,-12.0515,-0.25659,0.25659,25.8972,13.0769,-3.8459,3.8459,18.718,-24.8718,33.5896,
-9.4873,-18.2051,-52.5642,10,-10.5127,-11.5386,3.8462,20.769,18.2051,3.8462,4.8716,3.718,-30,18.5896,
-2.8206,-22.8206,-47.4358,8.9744,-5.8972,-16.1536,4.3591,24.3591,21.282,8.9744,5.8977,-0.25659,-33.0769,3.5896,
-7.4358,-30.5127,-55.6409,-2.3079,-9.4871,-14.1023,2.3079,20.7693,15.6409,2.3079,3.3333,6.9231,-35.6409,4.3591,
-15.1282,-28.9744,-57.1794,0.76929,-13.0769,-8.4617,-0.76929,23.8459,20.7693,5.3845,6.4104,8.9744,-31.5386,7.9485,
-17.6924,-27.9487,-58.2051,10.5127,-16.1538,-9.4873,-7.436,28.9746,25.3848,7.436,8.4614,7.9487,-29.4871,7.9487,
-20,-27.6924,-63.5898,11.2817,-13.8462,-11.7949,-5.6411,24.6152,20,7.6924,5.6411,5.6411,-29.7437,9.7437,
-23.0767,-22.564,-61.0256,9.7437,-12.8203,-13.3335,-1.5386,19.4873,9.231,5.1284,1.5386,3.5898,-33.8462,4.6152,
-17.6924,-17.6924,-57.6924,12.0513,-13.0771,-14.6157,-0.25635,23.333,0.25635,1.2817,2.8203,5.3843,-35.1284,1.2817,
-7.6924,-12.3076,-57.9487,16.9233,-8.2051,-10.769,4.6152,27.6924,-1.5386,4.1025,1.5386,7.6924,-29.2307,6.6665,
-8.718,-11.282,-58.4614,16.9231,-5.1282,-8.2053,3.0769,27.1794,5.6409,8.718,-3.0769,7.6921,-28.2051,3.5896,
-9.2307,-6.6667,-51.7947,21.0256,-2.5642,-0.51294,0.51294,32.3079,18.4617,11.7952,6.1541,6.6667,-28.7178,-1.0256,
-9.4871,-1.7947,-47.9487,26.9231,-12.051,1.7947,-4.8718,33.5896,23.3333,12.5642,12.5642,3.8459,-33.5896,-4.3591,
-7.4358,-2.3079,-44.8718,27.949,-17.6924,0.25659,-0.25659,34.1028,21.282,17.1794,9.4871,13.0769,-35.1282,-11.5383,
-3.0769,-14.8718,-46.1538,12.949,-8.718,-10.2566,4.6155,26.1541,7.1794,9.7434,3.0769,8.2053,-38.4614,-26.5383,
2.564,-18.9741,-47.6924,2.0513,6.282,-17.436,3.5898,18.4614,1.5386,2.564,-1.5386,-3.0767,-32.3076,-36.9231,
0.5127,-20.5127,-49.7437,6.6665,17.9487,-22.0513,4.1025,17.436,-0.5127,3.5898,-12.3076,8.7178,-24.6155,-32.3079,
2.0513,-20.0002,-40.5129,13.8462,24.6152,-21.5386,14.3589,28.7178,-3.0771,13.333,-2.0513,23.7178,-21.5386,-18.9746,
-6.6667,-22.5642,-43.5898,7.6921,13.3333,-27.6924,6.6667,22.5642,-13.3333,7.6921,7.6921,8.718,-34.8718,-21.5383,
-2.3076,-12.0513,-38.2051,17.6924,13.5898,-20.7693,9.4873,27.9487,-0.76904,6.9233,8.9746,0.76904,-32.0513,-26.9231,
2.5642,-11.282,-25.6409,25.6409,17.4358,-20.5127,16.9231,32.3079,1.5383,5.1282,-2.051,-1.5383,-29.7437,-41.9231,
4.8718,-14.1025,-10.6409,22.3079,18.2053,-18.718,17.6921,32.5642,-2.3079,10.5129,2.3079,-6.4104,-30,-43.8462,
-1.5386,-14.8718,-1.5386,15.3848,10.7695,-18.9744,8.7183,28.7183,1.5386,11.2822,8.2051,-3.0767,-28.2051,-41.0256,
-14.1025,-20.2563,-10,5.8975,1.2822,-28.4614,-0.25635,19.231,0.25635,0.76953,1.2822,1.2822,-28.9744,-45.3845,
-18.2048,-23.3333,-1.7947,0.76929,3.3333,-27.4358,2.3079,20.2566,-0.76929,3.3333,0.76929,2.3079,-26.9231,-41.282,
-13.3333,-22.5642,13.2053,3.5896,8.2048,-23.0771,6.1536,22.051,-3.0769,7.1794,-2.5642,2.5642,-27.6924,-37.9487,
-3.5898,-17.4355,28.2051,7.1797,7.1797,-26.6665,6.667,19.4873,-5.1279,3.5898,-4.6152,6.1538,-26.6665,-36.4102,
1.2822,-17.6924,31.0259,2.3076,3.8462,-29.4871,2.3076,16.1538,-10,-0.25635,-1.7949,0.25635,-30,-33.0769,
3.5896,-17.949,37.9485,2.5642,12.8206,-18.9744,3.5896,17.4358,-8.2053,-2.5642,4.1023,-3.0769,-31.2822,-29.231,
-1.282,-15.1282,40.2561,3.8459,13.5896,-16.6667,4.3586,16.6667,-1.7952,-4.3591,1.7947,1.282,-27.949,-29.4873,
-5.3845,-11.5383,40.2566,3.8459,1.282,-21.282,0.76929,17.6921,0.25659,-0.25659,-0.76929,4.8718,-23.3333,-26.4104,
-2.564,-15.3843,44.6157,4.6157,0,-21.0254,-0.5127,22.0513,0,3.0771,5.1284,3.0771,-19.4868,-22.0513,
-5.3848,-24.3589,56.6665,1.2822,3.8462,-21.2822,0.76904,18.7178,-0.76904,-0.25635,5.3848,0.25635,-21.7949,-23.8462,
-8.7183,-24.1028,71.6665,-1.5386,4.1025,-20.5127,4.6152,18.9741,1.5386,2.564,-0.5127,0.5127,-25.1284,-21.5386,
-8.2051,-18.9744,86.6665,2.564,6.1538,-18.9744,9.7437,26.1538,2.564,9.7437,-3.5898,-2.564,-27.1794,-21.0256,
-3.3335,-14.6155,101.6665,13.0767,11.5386,-14.1028,10.5127,27.9487,0.25635,11.0254,-5.8975,-0.25635,-21.2822,-24.8718,
-1.7949,-8.9741,116.6665,15.6411,5.8975,-11.0254,3.8462,24.8721,-7.4355,1.7949,-4.3589,4.3594,-21.7947,-23.8459,
-0.76929,-0.76929,131.6665,15.6409,1.282,-10.5129,3.3333,26.4099,-13.0769,-1.7952,0.76929,6.9231,-27.949,-14.6155,
-0.5127,-2.564,146.6665,13.8462,3.5898,-13.3335,5.1279,24.1025,-12.8208,0.5127,-7.1797,6.6665,-28.2053,-10.7695,
-2.0513,-8.2051,161.6665,10.7695,6.1538,-13.333,3.5898,21.5386,-3.0767,2.0513,-8.2051,7.1797,-24.1025,-14.3589,
-4.6157,-11.2822,176.6665,8.2051,-2.0513,-14.8721,2.0513,21.5386,-3.0771,3.0767,5.1279,3.0767,-28.718,-23.0771,
-2.3079,-13.5896,191.6665,4.8718,-0.76929,-13.0769,6.4104,23.8459,-8.9744,5.8972,8.9744,0.76929,-26.9231,-24.8718,
-0.76929,-20.2563,206.6665,-0.76929,14.1028,-10.5129,7.949,26.4104,-5.3845,8.4617,0.76929,2.3079,-17.1794,-20.7693,
-5.1279,-25.6409,221.6665,-1.5386,16.4102,-17.4358,6.667,25.1284,0,7.6924,0,3.0771,-19.4871,-21.0256,
-12.8206,-28.7178,236.6665,1.0256,7.6926,-25.1282,6.6667,21.5383,-5.1282,5.6414,-1.0256,1.0256,-25.1282,-25.6409,
-7.9487,-19.7437,251.6665,10.5127,12.0513,-21.7949,9.4873,27.436,-3.8462,12.0513,-3.8462,3.8462,-17.6924,-21.2822,
0,-14.3589,266.6665,11.7949,11.2822,-22.564,4.6157,24.6157,-8.7178,5.1284,-5.1279,0,-22.0513,-20.5127,
7.9487,-7.9487,281.6665,14.6152,12.564,-20.2563,12.564,25.8975,-7.436,-5.8975,0.25635,-0.25635,-22.3076,-21.282,
11.282,-5.1282,296.6665,20.5129,17.4358,-16.4104,20.5129,30.7693,-3.0769,-1.5383,1.5383,-2.0515,-18.9744,-23.0769,
3.0769,-10.7693,311.6665,17.4358,9.2307,-14.8718,9.7434,26.1536,-13.3333,3.0769,-4.6155,-3.0769,-23.0771,-25.6411,
-5.1284,-8.2051,326.6665,16.4102,6.6665,-10.769,5.6411,25.6411,-17.9487,3.5898,-3.5898,7.1797,-21.0256,-23.5898,
-9.7432,-8.7178,341.6665,15.8975,8.2056,-14.8716,7.1797,27.1797,-9.7432,2.0513,-2.0513,8.2056,-15.897,-23.0767,
-3.8462,-11.5386,356.6665,14.1025,6.4102,-17.1792,3.8462,24.8721,-8.4614,1.7949,-1.7949,4.8721,-14.6152,-18.2051,
-0.51294,-11.282,371.6665,9.7434,6.6667,-10.7693,5.6409,23.0769,-17.949,0.51294,-1.0256,7.1794,-14.3591,-16.9231,
-7.6921,-17.9487,386.6665,4.6155,14.3591,-10.7693,13.8459,25.1282,-18.9744,4.6155,-3.0769,3.0769,-13.8462,-21.5386,
-4.8716,-21.7949,401.6665,12.564,16.6665,-14.1025,17.6924,30.5127,-4.8716,11.0254,0.25635,-0.25635,-18.718,-19.2307,
-5.1282,-26.1538,416.6665,11.7952,1.6665,-21.0256,7.6926,27.1794,-7.1794,2.0515,-1.0256,1.5383,-26.6665,-24.6152,
-7.6921,-26.1538,431.6665,4.6155,-0.51294,-22.5642,4.6155,22.5642,-15.8972,1.0256,0.51294,6.6667,-20.5129,-30.2563,
-8.7183,-22.0513,446.6665,7.6924,6.1538,-20,4.1025,23.0767,-18.4614,6.1538,-0.5127,0.5127,-23.0771,-26.1541,
-4.8716,-7.436,461.6665,19.7437,12.0513,-7.436,9.4873,35.6411,-11.0254,9.4873,-0.76904,0.76904,-22.8206,-15.6411,
-1.5383,-1.5383,476.6665,18.4617,9.2307,-4.1023,10.7693,34.3591,-14.8718,8.2053,-5.1282,1.5383,-13.8459,-20,
1.7949,-5.3848,491.6665,14.6152,6.9229,-10.5132,7.4355,22.8203,-25.8977,5.8975,-6.9233,-1.7949,-14.6157,-23.8464,
2.3076,-5.3848,506.6665,18.2051,8.9746,-9.4873,10,25.8975,-20.7693,4.8721,-2.8203,-2.3076,-22.8206,-18.2051,
-0.76904,-4.8716,521.6665,21.7949,11.5386,-2.3076,17.6924,34.6152,-5.7693,8.4614,0.76904,-1.2822,-19.2307,-18.2051,
-5.3848,-10,536.6665,21.7949,14.1025,0.25635,20.2563,35.1284,-1.7949,12.0513,-0.76904,-0.25635,-11.5386,-18.2051,
-5.8975,-12.5642,551.6665,18.2051,11.5386,-2.3076,16.6665,34.6152,-12.0513,7.436,-0.25635,0.25635,-13.5898,-15.6411,
-5.6409,-11.282,566.6665,14.8718,6.6667,-0.51294,16.4104,35.3845,-17.4358,5.1282,0.51294,-1.0256,-13.8462,-16.4102,
-9.7437,-14.8718,581.6665,11.282,1.5383,0.51294,15.8972,34.3591,-8.718,8.2048,-3.5896,-0.51294,-12.3079,-15.3848,
-13.8462,-19.4873,596.6665,10.2561,1.5383,-3.5896,12.8206,33.8459,-1.5383,5.1282,-4.1028,2.051,-13.3335,-14.3591,
-12.0513,-15.6409,611.6665,12.5642,4.8718,-2.8206,15.1282,35.1282,-0.76929,0.76929,1.282,-2.8206,-11.5383,-16.6665,
-10,-14.1025,626.6665,12.0515,3.8464,-2.3074,18.2053,33.5901,5.8977,-1.282,1.282,-2.3074,-12.0513,-6.4099,
-16.6665,-18.7178,641.2822,5.8975,-3.8462,-6.4102,7.436,28.4619,11.5386,-10,-1.7949,1.7949,-20.769,6.9233,
-12.8203,-10.769,646.6665,9.231,-2.0513,-0.5127,0.5127,30.2563,17.9487,-10.769,2.0513,-3.0771,-20,10.2563,
-7.436,-4.8721,657.6924,8.4614,1.7949,-1.7949,4.3589,25.3848,20.2563,-9.4873,-7.436,-17.6924,-17.1797,6.4102,
-6.6667,-5.6409,672.6924,5.6409,9.7434,-7.6921,19.3589,24.6155,27.6921,-7.1794,-12.3079,-10.2566,-11.282,13.3333,
-8.718,-12.8206,687.6924,4.6155,6.1541,-10.2566,22.051,24.1028,27.6921,-9.2307,-10.2566,-4.6155,-8.718,11.7947,
2.5642,-10.2561,702.6924,11.282,-2.5642,-3.0769,16.9231,32.3079,33.8464,-4.1023,-4.6155,-6.1536,-3.5896,12.3079,
-2.051,-6.6663,715.385,9.7439,-4.615,-1.0256,13.3337,37.4363,42.0515,1.0256,-1.0256,-3.5896,-8.7175,21.5388,
-17.051,-9.7434,710.2561,8.2048,-2.0515,-2.0515,14.3591,34.8718,35.3845,-0.51294,0.51294,-1.0256,-14.3591,26.6667,
-25.8975,-16.1541,705.8972,4.3591,-8.4617,-0.76929,6.4104,28.4617,20.7693,-5.3845,0.76929,-1.282,-13.0769,25.8972,
-16.1538,-11.5386,709.4873,-2.8203,-10.5127,0.76904,0.76904,26.9229,19.231,-2.3076,0.25635,-0.25635,-13.5898,29.4873,
-16.6667,-10.0002,718.718,-4.3591,-7.4358,-8.4617,4.8718,20.7693,20.7693,1.7947,-0.25659,0.25659,-16.1541,33.5896,
-19.4871,-20.5129,729.7434,-2.051,-10.7693,-20.5129,7.6921,13.8459,16.4104,-1.0256,1.0256,2.0515,-12.8206,33.8459,
-12.5642,-14.1028,735.1282,5.3845,-11.0256,-6.4104,6.4099,24.8718,16.1536,-1.282,1.282,-2.8206,-10.0002,31.0256,
-15.3845,0.89722,730.7693,8.2053,-11.282,8.5896,-1.0256,31.7952,14.3591,-4.1023,-6.1536,-14.8718,-15.8972,25.6409,
-22.8206,4.8718,731.5388,5.8977,-17.6921,13.5901,-4.8718,27.4358,10.0002,-5.3845,-13.0769,-8.9744,-15.1282,31.5388,
-25.1284,3.0767,736.4102,2.0513,-32.6921,12.3076,-8.2051,22.564,2.0513,-8.7178,-20,-2.0513,-23.0771,33.3335,
-22.564,7.1792,744.1025,4.6152,-37.436,18.9741,-8.2051,28.7178,8.7178,-7.1797,-18.4614,-4.6152,-33.3335,26.6665,
-25.3848,4.8716,742.3076,5.3848,-34.6155,16.1538,-8.9741,29.4873,8.4614,-4.8716,-13.5898,-5.8975,-29.4873,18.2051,
-18.4614,3.5898,743.0767,6.6665,-29.231,17.9487,-3.5898,29.7437,0,0,-6.6665,-1.0259,-17.436,20.5127,
-13.8459,0.51294,749.7434,3.5896,-29.2307,22.5642,-0.51294,35.8972,3.5896,-1.0256,-1.5383,-5.1282,-18.4617,15.8972,
-25.6411,-8.7178,748.7178,0,-33.8462,15.8975,0,36.9229,10.2563,-6.6665,3.5898,-9.7437,-23.5898,2.564,
-30.2563,-10.7693,743.5901,-0.51294,-36.4102,13.8464,3.5901,33.3333,7.1794,-7.1794,3.0769,-10.2561,-21.5383,0.51294,
-19.4871,-5.6411,748.7183,0.5127,-31.282,19.4873,6.1538,35.3848,5.1284,-0.51269,-4.1025,-9.7437,-21.5383,7.6924,
-19.9998,-9.7434,748.2053,3.0769,-27.6924,16.9231,0.51294,34.8718,0.51294,-0.51294,-13.3333,-7.1794,-27.6924,8.2053,
-18.718,-9.4871,752.051,10.5129,-25.3848,9.9998,1.282,31.0256,-0.76929,-0.25659,-14.1028,0.25659,-28.4617,5.8972,
-11.0256,-10.5129,759.7434,7.4358,-30.0002,3.8459,3.8459,26.9231,1.7947,-1.282,-16.6667,-6.4104,-33.5898,1.282,
-11.0256,-13.5901,756.6663,0.76929,-31.5386,6.4099,5.8972,29.9998,3.3333,-0.76929,-12.0515,-10.0002,-31.5386,5.8972,
-20.5127,-18.4614,749.2305,0.5127,-28.2053,8.7178,3.5898,28.2051,-1.0259,0.5127,-0.5127,-2.564,-24.6152,5.6411,
-21.5381,-21.5381,750.7695,0,-30.2563,2.0513,0,22.0513,0.51318,3.5898,5.1284,-4.1025,-25.6409,-7.6924,
-17.6921,-20.7693,751.5383,-0.25659,-36.1538,0.25659,1.7952,20.7693,4.8718,8.4617,2.3079,-6.9231,-26.4102,-14.6155,
-20,-18.4614,748.2051,4.1025,-37.9487,4.6152,0,24.1025,0,5.1284,-9.231,1.0259,-26.1538,-12.3076,
-13.8459,-5.6409,753.3333,11.7947,-27.6924,8.2053,4.1028,34.3591,-3.5896,3.5896,-9.2307,3.5896,-25.1282,-9.7434,
-7.1794,2.5642,751.282,11.282,-23.5898,7.6921,9.2307,32.8206,-6.1541,4.6155,-2.5642,-11.4104,-27.1794,-10.7693,
-7.9487,2.3076,747.436,14.1025,-22.8206,8.9741,10.5127,30.5127,-6.4102,8.4614,-2.3076,-13.5898,-20.2566,-5.3848,
-8.2048,1.0256,750.7693,15.385,-18.9741,10.2566,12.3079,35.8977,-4.615,9.7439,-4.1023,-1.0256,-14.8713,-4.1023,
-3.5898,1.5386,753.3335,12.3076,-18.9744,13.3335,12.8203,41.0254,-5.1284,3.5898,-6.6665,-1.5386,-17.436,-8.2051,
-1.0256,1.0256,748.2048,11.7947,-17.949,14.8718,12.8206,39.4871,-6.1541,1.5383,-11.282,-7.6926,-13.3333,-4.1028,
-5.8972,-3.8459,742.8206,10.0002,-15.1282,14.1028,13.0769,34.1028,-1.7947,3.3333,-7.9485,1.282,-11.0256,-1.282,
-11.5383,-7.9485,737.6926,6.9231,-22.8203,12.0515,10.0002,27.949,-0.76929,0.76929,-3.8459,7.949,-20.769,-10.5125,
-10.7693,-6.1541,736.9231,8.718,-23.5898,15.3845,14.8718,30.7693,0.51294,2.5642,-2.0515,-0.51294,-18.9744,-15.8975,
-12.3076,-11.282,732.3079,7.6921,-17.9487,9.7434,18.4617,31.7952,3.5896,2.5642,-2.5642,-11.282,-11.282,-18.4614,
-13.0769,-12.051,726.4104,6.4104,-15.1282,7.4363,15.1282,30.0002,5.8977,-1.282,1.282,-7.4358,-17.6921,-18.7178,
-14.1028,-6.4102,724.3589,5.8975,-17.6924,12.564,11.0254,30,2.3076,-1.7949,1.7949,-9.4873,-31.0256,-18.718,
-13.8462,0,722.564,8.7178,-17.436,14.3589,17.436,33.3335,0,1.0254,-4.1025,-18.9744,-20,-16.4104,
-14.1025,0.76953,720.2563,11.5386,-15.1279,12.5645,20.2563,36.667,-0.25635,0.25635,-8.4614,-10,-5,-8.4614,
-16.4104,-1.0256,717.9485,11.7947,-22.0515,11.7947,11.282,36.9231,-2.5642,1.0256,-7.1794,2.051,-12.3079,-3.0769,
-12.0513,-0.25635,713.5898,6.4102,-21.7949,15.6411,11.5386,36.1538,-3.3335,0.76904,0.25635,-8.9741,-16.1538,-7.436,
-7.9487,3.3335,710.5132,5.3848,-6.7949,20.2563,22.8208,38.2051,-4.3589,-4.3589,-1.7949,-15.1282,-1.1538,-7.4355,
-10.769,4.1025,707.1792,11.2822,-1.5386,20.5127,23.0767,40,-8.7178,-1.0259,-16.7949,-2.0513,0.5127,-0.5127,
-17.436,-6.1538,698.4614,9.231,-16.5386,12.3076,10.769,34.3589,-8.2051,3.0767,-21.5386,2.564,-14.4873,-2.564,
-15.1279,-9.4868,697.6924,7.436,-25.8972,5.8975,12.5645,28.4619,-0.25635,5.8975,-6.5386,-0.25635,-14.6152,-7.9487,
-15.6409,-5.3845,691.0256,4.8718,-20.7693,7.4358,11.5383,24.3591,-9.9998,0.76929,7.4358,-0.76929,-20.7693,-12.5642,
-20.2563,4.3589,681.7949,3.8462,-20.2563,18.7183,4.3589,27.436,-19.2305,-3.8462,-4.3589,4.3589,-35.7693,-7.436,
-16.4102,11.2822,685.1284,7.1797,-22.051,26.1543,7.1797,33.3335,-7.6919,-2.0513,-5.1279,2.0513,-29.7434,-4.6152,
-9.4873,10,685.8975,7.4355,-21.2822,23.333,13.0767,31.0254,-3.3335,0.25635,-0.25635,-5.8975,-16.6667,-16.6667,
-6.9229,15.6411,682.3076,10.5127,-17.1794,26.4102,17.1797,30.5127,-7.436,0.25635,-0.25635,-4.8716,-23.8462,-22.3076,
-10.769,17.436,684.1025,10.769,-19.4873,28.7178,13.8462,36.9229,-9.231,2.564,-5.1284,-2.564,-26.6667,-16.9231,
-12.5637,10.0002,679.2307,4.8718,-23.8459,19.2307,8.4617,36.6667,-11.5383,5.385,-9.4871,-4.8718,-13.5896,-11.0256,
-4.6152,11.2822,678.9741,9.231,-15.3848,20.5127,15.8975,32.3076,-13.3335,2.564,-3.5898,-2.564,-10.769,-7.1797,
-1.2822,19.7437,682.3076,19.231,-8.4614,28.9741,21.7949,35.1284,-13.0769,1.2822,-1.2822,-1.2822,-17.6924,-12.0513,
-2.0513,25.6411,681.5386,24.6152,-12.3076,31.7949,15.3848,44.1025,-10.7693,2.0513,-10.2563,-6.1538,-15.8975,-13.3333,
1.7949,23.333,678.7178,22.8203,-18.2053,27.436,13.0767,41.7949,-7.9487,-1.7949,-11.5386,-11.0259,-14.1025,-7.9487,
5.1282,21.0256,675.3845,19.4871,-15.8972,23.0769,24.1028,34.8718,-6.6667,-7.6921,-5.1282,-7.6921,-18.4614,-6.1536,
1.0256,24.1028,671.282,18.9744,-14.8718,22.0515,24.6155,37.949,-15.8972,-7.1794,-2.5642,-1.0256,-22.564,-2.5642,
-9.2307,16.4104,659.4871,14.3591,-21.0256,19.4871,10.2566,31.282,-24.1025,-6.1541,1.0256,-5.1282,-27.6924,-1.0256,
-12.5642,1.4104,650.0002,7.4358,-19.7437,18.2053,9.4871,23.8464,-13.5896,-0.76929,12.0515,-3.3333,-27.4358,-14.1023,
-16.6665,-6.9229,639.7437,0.25635,-20.7693,11.5386,8.9746,20.7695,-8.9741,1.2822,7.436,-0.25635,-29.4871,-26.9231,
-13.3333,-1.5388,639.4871,1.5383,-21.5386,13.8459,8.2048,26.6667,-8.2053,7.6921,-1.0256,1.0256,-27.1797,-15.8977,
-4.6155,3.0769,640.5129,7.1794,-19.4871,19.4871,15.3845,29.2307,-11.282,14.3591,-11.282,-3.0769,-27.1794,-16.4102,
-3.8462,11.5386,633.5898,13.0767,-15.6411,21.2817,20.2563,27.9487,-20.7693,3.8462,-22.8206,-10,-33.5898,-19.7437,
-1.0256,24.6155,637.9485,23.0769,-8.2053,30.2566,21.5383,37.9485,-18.4617,1.0256,-16.4104,-9.2307,-25.1282,-4.7437,
-6.1538,10.2563,630.2563,19.4868,-12.3079,25.6406,12.8203,31.2817,-19.4873,6.1538,-8.2051,-11.2822,-19.4873,-7.1797,
-6.9231,3.3333,622.8206,17.1794,-11.5383,23.8459,14.6155,28.4617,-17.6924,9.4871,-3.3333,-4.8718,-15.1284,-5.8977,
-10.2561,6.1541,616.4104,11.7952,-25.1282,19.4875,9.7439,28.718,-26.1538,-4.6155,-13.8459,-5.6409,-26.6665,4.6155,
-10.2566,8.718,610.7693,10.7693,-30.7693,12.3079,7.1794,28.718,-31.282,-7.6921,-11.7947,-2.5642,-34.8718,2.5642,
-2.5642,14.8718,602.5642,17.4358,-15.8972,12.8206,13.8464,27.6921,-29.7437,-1.0256,-0.51294,-0.51294,-28.718,0.51294,
-2.8206,19.2307,589.9998,14.6155,-17.6926,14.1023,6.4104,22.8206,-35.1282,-12.0515,-8.9744,-10.0002,-32.0515,2.8206,
-5.6411,19.4873,588.7178,11.7949,-22.564,16.9233,7.1797,26.6665,-30.2563,-9.7437,-8.7178,-4.6152,-34.3589,4.6152,
-12.8203,12.3076,583.0771,8.2051,-18.4614,13.8462,12.8208,20,-28.2051,-2.564,0.5127,-0.5127,-35.8975,-5.6411,
-16.6667,6.4104,579.7439,4.3591,-11.5383,11.5383,17.1794,16.1541,-27.4358,-1.282,1.282,-5.8972,-28.4614,-9.9998,
-10.5127,0.25635,582.8208,0.76953,-11.0254,12.5645,20.2563,24.8721,-20.769,3.8462,-2.3076,-0.25635,-19.2307,-9.4868,
-3.0769,-5.1282,580.5129,3.0769,-12.3076,14.3591,22.5642,29.7434,-17.4358,10.7693,-3.0769,11.7952,-13.8462,-3.0769,
-5.6411,-7.1797,570.2563,0,-12.8203,12.8203,23.0767,26.6665,-20.5129,7.6924,0,5.1279,-17.9487,-2.0513,
-3.0769,-3.0769,568.718,3.0769,-6.6667,13.3333,26.6667,28.718,-12.3079,7.1794,9.7434,-6.6667,-24.6155,-8.2053,
-1.7949,-3.3335,561.2817,11.0254,-11.0259,6.4102,20.769,24.3589,-12.564,1.7949,5.3848,-13.5898,-32.5642,-10.5127,
0.5127,-0.5127,557.9487,15.8975,-12.8203,6.6665,22.0513,21.5386,-13.3335,-1.0259,3.5898,-7.6924,-28.2051,-5.6411,
-1.5383,1.5383,555.8977,13.8464,-5.1282,12.3079,27.1794,26.6667,-7.1794,-5.6409,6.1541,-7.1794,-16.4102,-4.1023,
-6.6667,-0.51294,546.1541,9.2307,-6.6667,17.4358,23.5901,31.7952,-1.5383,-11.7947,0.51294,-12.3074,-11.7947,4.6155,
-11.7952,-1.5383,533.8459,4.6155,-21.5383,16.4104,15.8972,20.5129,1.5383,-16.4104,-7.6926,-12.8206,-19.4871,18.9744,
-20.769,-7.436,522.3076,0.76904,-28.9741,13.0771,10.5127,13.5898,5.3848,-21.2822,-0.76904,-8.4614,-23.8462,30.5127,
-33.3333,-16.4104,508.718,-7.1794,-25.1282,9.7439,0.51294,19.4871,11.7952,-26.6667,11.282,-0.51294,-21.5383,44.6155,
-40.7693,-21.2822,501.7949,-12.0513,-25.3848,7.436,-3.8462,18.2051,18.2051,-24.3589,6.9229,3.8462,-20.7695,55.1279,
-40.769,-27.4358,500.2566,-13.0769,-31.5383,6.9231,3.8464,10.0002,18.718,-16.1536,-1.282,1.282,-19.7434,45.8977,
-29.7434,-28.2051,504.1025,-10.2563,-29.2307,6.667,12.3076,16.4102,24.6157,-9.2305,2.0513,-2.0513,-12.8203,34.8721,
-22.3076,-23.8459,505.3848,-3.333,-23.3333,4.8721,12.5645,25.8975,32.5645,-5.8975,-0.25635,0.25635,-20.2563,36.1538,
-30.7693,-26.1541,498.4614,-0.5127,-30.7693,1.0254,7.6924,18.9741,22.564,-4.1025,-8.7183,0.5127,-30.2566,35.8975,
-35.1284,-24.8721,497.1792,2.3076,-40.7693,3.333,2.8203,17.6924,11.5381,-5.3848,-5.3848,-2.3076,-17.1797,34.1025,
-30.0002,-23.8464,495.1279,-0.25635,-40.7693,4.8716,0.25635,19.7437,16.6665,-10,-1.7949,0.25635,-12.0513,33.5894,
-28.718,-26.6667,487.6921,-9.7439,-35.8975,2.5642,7.6921,17.4358,20.5129,-7.6926,-2.5642,4.1023,-23.5898,33.8459,
-28.9746,-28.9746,486.9231,-12.0515,-29.4873,1.282,15.6409,16.6667,15.6409,-1.282,-1.7952,2.8206,-17.6926,30.5125,
-24.3589,-28.9744,487.4358,-9.4871,-21.7947,1.282,15.6409,14.6155,18.2053,-1.282,-2.8206,1.282,-12.051,22.8206,
-21.7949,-30,486.4102,-11.0259,-17.6924,1.7949,16.6665,14.6152,22.3076,-0.76904,-3.3335,0.76904,-27.051,17.6924,
-23.5896,-29.231,476.9231,-14.3591,-23.0769,-0.51294,16.4104,15.3845,14.8718,1.0256,0.51294,-6.6667,-30.7693,16.4104,
-24.3589,-24.8721,467.9487,-11.5386,-26.9233,0.25635,11.5381,16.1538,6.9229,2.8203,-0.25635,-9.4873,-15.7693,17.1792,
-25.3848,-26.9231,466.9231,-6.9231,-25.3848,6.4104,9.4871,21.282,8.9744,4.8718,-6.9231,-4.8718,-18.2053,16.6667,
-30.5129,-35.6411,461.7949,-11.5386,-26.4104,6.4102,12.0513,26.4102,13.5898,4.3589,-7.9487,-4.3589,-23.3335,13.0767,
-34.6155,-36.1538,453.0771,-11.0254,-28.9744,-1.7949,13.0771,25.3848,13.5898,6.9229,0.25635,-0.25635,-16.1538,9.4873,
-46.9231,-39.2307,443.3335,-12.0513,-40.2563,-8.4614,1.7949,14.6152,5.8975,0.76953,-0.25635,0.25635,-23.8462,0.25635,
-46.1541,-35.8975,445.6411,-8.7183,-41.0256,4.1025,2.0513,20,8.7178,-2.0513,-4.1025,6.1538,-26.1541,9.7437,
-37.9487,-34.3591,442.0513,-9.7437,-36.4104,4.6152,8.2051,20.5127,4.1025,-4.1025,-13.8462,4.1025,-29.7437,19.4873,
-27.1794,-27.6921,443.5898,-10.2563,-21.4104,0,17.9487,16.4102,0,1.0259,-13.8462,4.6157,-24.6152,16.9233,
-17.4358,-20.5129,450.7693,-7.6921,-8.2053,2.5642,22.0515,15.8972,4.6155,-2.5642,-9.2307,7.6921,-9.6152,8.718,
-4.6155,-17.9487,448.718,-6.1541,-4.1028,1.0256,26.6667,21.5383,9.7434,-4.6155,-6.1541,10.2566,-1.0256,10.7693,
-7.4358,-29.4871,438.718,-11.5383,-3.3333,-9.4871,27.949,15.6414,6.9231,2.8206,-2.8206,6.4104,-8.4612,8.9744,
-22.4358,-41.282,430.5127,-20.769,-13.0767,-16.1538,12.949,7.436,-0.25635,3.8462,0.25635,2.8208,-15.6411,2.3076,
-28.4617,-38.718,430.5127,-20.2563,-24.8718,-13.5898,1.7949,13.0767,-0.25635,1.2822,0.25635,4.8716,-7.9487,5.8975,
-19.7437,-34.1025,430.5129,-7.4358,-22.3076,-8.4617,16.7949,18.2053,1.7947,4.8718,-2.8206,3.8464,-1.7947,4.3591,
-13.3335,-29.7437,426.6665,6.1538,-9.7437,-2.564,31.7949,20.5127,2.0513,12.3076,-2.0513,5.1279,-7.6924,-4.1025,
-11.7947,-23.5896,427.6926,7.1794,-16.4102,-2.5637,16.7949,25.6414,1.0256,12.3079,-1.0256,7.6926,-11.7947,-4.1023,
-8.7183,-18.4614,428.2051,5.6411,-26.1541,-9.231,6.6665,25.1279,-2.0513,7.1792,-7.1797,6.6665,-10.2563,2.0513,
-7.436,-14.6152,418.2051,7.9487,-11.1541,-6.4102,21.6665,21.2822,-5.8975,5.8975,-10,7.9487,-14.6152,7.436,
-12.8206,-16.9231,406.6667,4.1023,-0.51294,-4.6155,24.6155,16.9231,-13.3333,0.51294,-15.3845,3.5896,-24.1028,2.051,
-1.282,-7.4358,413.5896,12.5642,-4.8718,0.76929,19.2307,23.3333,-6.9231,4.3591,-8.4617,1.7952,-12.051,-0.76929,
5.1282,-1.0256,411.7947,13.3333,-11.282,1.0256,23.0769,21.0256,-6.6667,2.5642,-5.6414,-4.6155,-10.2566,-7.1794,
2.3079,1.7952,400.2566,11.0256,-3.3333,0.76929,22.3079,16.1541,-8.4617,-0.76929,-9.9998,-3.3333,-15.1282,-6.4104,
-4.1023,0.51294,391.282,9.7434,-2.051,-0.51294,15.8977,14.3591,-9.7434,-3.5896,-11.7947,3.0769,-13.3333,2.5642,
-6.9233,-1.2822,392.0513,8.4614,-8.4614,5.3848,18.7178,18.2051,-8.4614,-0.25635,-11.5386,0.25635,-16.6665,8.4614,
-8.7178,-5.1279,391.7949,5.6411,-8.7178,8.7183,18.9746,18.9746,-2.0513,4.103,-15.3843,-4.6152,-21.5383,2.0513,
-12.3076,-14.8721,384.6152,4.6152,-10.7695,0,15.8975,17.4355,0,-4.1025,-23.5898,1.0254,-16.9233,0,
-11.282,-16.4102,380.5129,9.2307,-17.4358,3.5896,20.5129,25.1282,-3.5896,-12.3074,-24.6152,6.6667,-6.6667,13.3333,
-7.1797,-10.769,381.5386,9.231,-12.3079,10.2563,24.1025,30.769,-0.5127,-7.6924,-9.7437,0.5127,-6.1538,17.9487,
-8.2051,-11.7949,375.3848,3.5898,1.0254,-0.5127,24.6152,23.0767,2.564,-3.0771,0.5127,-8.2051,-13.3335,2.9487,
-6.1541,-10.7693,370.7693,11.7947,-2.0515,-2.5642,28.718,23.5896,6.6667,1.0256,1.5383,-1.0256,-6.6667,-10.7693,
-7.1794,-11.7949,364.6155,15.8972,-17.0515,1.5383,24.1023,25.6409,9.7434,-1.5383,-4.1028,2.5642,-2.5642,-6.6667,
-0.76929,0.76929,359.2307,18.2053,-5.3845,4.3591,24.8718,24.8718,14.6155,-1.7947,-1.282,-3.3333,-5.3845,-5.3845,
3.5896,8.2048,348.2048,13.8459,5.6409,-4.1028,17.9485,14.3591,-0.38452,-6.6667,-15.8977,-12.3079,-17.4358,-12.3079,
16.9231,15.8977,347.6921,15.3845,1.0256,-2.5642,16.4104,14.3591,-15.3845,-1.0256,-27.1794,-3.5896,-16.4104,-12.8206,
18.4617,23.5896,346.1536,16.4104,-1.0256,-4.1028,20.5129,15.3845,-14.8718,-2.5642,-22.5642,1.0256,-18.4617,-13.3333,
5.3848,22.3076,331.1536,11.0254,9.4873,-8.4614,21.2817,8.4614,-13.5898,-13.0771,-20.2563,-5.3848,-24.3589,-10.5127,
6.1538,15.3848,324.6152,10.2563,12.8208,-8.2051,25.6411,8.2051,-15.3848,-7.1792,-21.0254,-7.6924,-22.0513,-6.1538,
8.2051,3.5898,329.2305,8.2051,2.0513,-13.3335,26.1538,11.2817,-16.9233,-2.0513,-23.5898,-14.8721,-17.9487,-13.8462,
11.282,5.1282,329.2307,8.2053,3.5896,-9.7434,26.1541,15.3845,-7.6921,-3.5896,-17.9485,-11.7947,-9.2307,-14.3591,
8.4614,5.3848,314.2307,3.3335,6.9233,-8.9741,22.3076,16.6665,-9.4873,-3.3335,-13.5898,-6.9229,-10,-16.6665,
0.25659,3.8464,301.7947,-0.25659,8.4617,-8.9744,25.8977,17.6921,-8.4617,1.7947,-4.8718,-4.8718,-7.9485,-22.3076,
-1.7949,6.9233,303.8462,3.3335,10,-5.3843,31.5386,19.231,0.25635,-0.76904,-1.2817,-0.25635,-1.2817,-16.1538,
3.3335,5.3848,297.1797,1.2822,10,-6.4102,25.8975,18.7178,-6.4102,-5.8975,-15.1279,-1.2822,-7.436,-8.4614,
1.7949,-0.25635,284.8716,0.25635,2.8203,-12.5645,22.8203,15.6406,-13.5898,0.76904,-19.231,-4.8721,-14.1025,-3.3335,
-1.282,-1.282,283.8459,8.4617,-7.949,-11.0256,20.7693,14.1023,-9.4871,5.3845,-11.0256,5.3845,-11.0256,1.282,
0.25635,0.25635,280.2563,6.9233,-9.4873,-6.4102,14.6157,11.5386,-12.0513,-2.3076,-15.1279,14.1025,-14.1025,-0.25635,
1.282,2.8206,267.949,0.25659,-6.9231,-6.9231,10.5129,10.5129,-20.2566,-5.3845,-22.8206,5.8977,-21.282,-0.25659,
1.5381,2.0513,260,0,-11.7949,-6.667,12.3076,16.4102,-16.9233,-0.51318,-19.4873,0,-18.4619,5.6406,
0.5127,-4.6152,258.4614,-0.5127,-12.8203,-5.1284,17.9487,22.564,-7.6924,3.0767,-12.3076,6.6665,-11.7949,3.0767,
-1.0256,-7.1794,256.4099,1.5383,-2.0515,-5.6414,27.1794,23.5896,-3.0769,7.6921,-3.5901,14.8718,1.0256,-5.6414,
-3.8459,-8.9744,245.385,2.8206,-1.7947,-7.9485,24.8718,18.2053,-7.4358,3.3337,-0.76929,9.4875,0.76929,-8.9744,
0.25635,0.76953,239.231,6.4106,-5.8975,-4.3589,17.6924,21.7949,-4.8716,-0.25635,-1.7949,2.3076,-14.1025,-4.3589,
3.5896,8.2053,230.7693,11.282,-5.6409,-6.1536,16.4104,22.5642,-6.1536,3.0769,-9.2307,-3.0769,-22.0513,-7.1794,
-1.0256,5.6409,216.9226,10.2561,-8.718,-9.2312,17.4358,16.9226,-14.3591,3.0769,-16.4104,1.0256,-21.5388,-7.6926,
-8.9741,4.8721,210,4.8721,-14.6152,-0.25635,14.1025,15.6411,-19.7437,-5.8975,-20.769,4.8721,-25.8975,0.25635,
-9.231,5.6411,206.1538,4.1025,-8.7183,5.1279,15.8975,17.9487,-22.564,-12.3076,-24.1028,-4.1025,-20,5.1279,
1.0256,-0.51294,197.4358,3.0769,0.51294,-5.1282,17.4358,14.3591,-26.1538,-14.8718,-26.1538,-12.3079,-13.3333,0.51294,
5.3845,-1.7947,192.5642,3.3333,3.3333,-7.4358,16.1541,13.5896,-21.7947,-6.9231,-19.2307,-1.282,-15.6409,1.282,
-5.3848,-6.4102,183.8462,1.7949,-1.7949,-3.8462,15.6411,13.5898,-14.1025,1.7949,-10.5127,6.9229,-11.5386,4.3589,
-6.6665,-11.2817,172.3076,4.6157,-4.6152,-4.1025,23.0771,19.4873,-14.3589,2.0513,-6.1538,9.7437,-2.0513,10.2563,
-0.51294,-7.6921,166.6667,8.2053,-1.0256,-3.5896,29.7439,25.1282,-15.8975,0.51294,-10.2561,16.4104,-1.0256,12.3079,
-3.333,-6.4102,161.7949,4.8721,-0.25635,-4.3589,26.4102,16.1538,-14.6152,0.25635,-15.6409,11.0259,-3.333,1.2822,
-1.7949,-5.8975,158.7178,12.0513,4.3589,-1.2822,30,18.2051,-13.5898,2.3076,-3.8462,-0.25635,0.25635,-1.7949,
-0.76904,-4.3589,148.4619,17.6924,1.7949,-2.8203,30,23.3335,-18.7178,0.25635,2.8208,-2.8203,-1.2817,-0.25635,
-1.7949,-0.25635,140.769,17.6924,0.25635,-4.3589,20.769,18.7178,-14.6155,0.25635,-0.76904,6.9233,-2.3076,-2.3076,
-3.5896,-1.0256,133.3333,15.3845,-0.51294,-2.5642,16.9231,14.3591,-9.7434,0.51294,0.51294,6.6667,-3.5896,-4.6155,
-0.76929,0.25659,125.8972,16.1541,-0.25659,0.25659,26.4104,17.1794,-15.6411,-2.8206,3.3333,-3.3333,-3.3333,-5.8972,
2.0513,6.1538,118.9741,17.9487,4.6152,-3.5898,29.2305,16.9229,-24.1028,-4.1025,-6.1538,-2.0513,-2.0513,-8.2051,
-1.0256,4.1023,105.6409,11.7947,1.0256,-12.8206,17.4358,12.8206,-26.1541,-3.0769,-14.8718,1.5383,-6.6667,-1.5383,
1.7949,-1.7949,99.231,9.4873,-7.9487,-12.0513,17.6924,12.564,-20.2563,-2.8203,-12.564,2.3076,-11.0259,3.3335,
15.3845,0.51294,105.1282,19.4871,-1.5383,-1.0256,27.6921,18.4617,-7.6921,-0.51294,-1.0256,13.3333,-3.5896,-0.51294,
16.6665,-1.7949,94.1025,19.7437,1.2822,-3.8462,16.1538,17.6924,-3.8462,-7.9487,-2.3076,15.1284,-3.3335,-1.2822,
1.6665,-8.718,79.1025,14.8718,-8.718,-11.282,7.6921,15.3845,0.51294,-16.9231,-8.718,4.1028,-10.2566,5.6409,
-9.7437,-5.1284,68.7178,18.9741,-10.2563,-2.564,21.0254,19.4873,12.8203,-12.3076,-4.6152,2.564,-5.1284,17.436,
-6.4102,-7.9487,61.2822,15.6411,-5.8975,-3.8462,22.8208,13.5898,12.0513,-14.1025,-5.8975,3.8462,-6.4102,18.2051,
0.5127,-12.8203,49.7437,10.2563,-3.5898,-17.436,13.3335,7.1797,14.3589,-18.4614,-2.564,-0.51269,-11.7949,16.4102,
0,-5.6406,42.5645,11.2822,0,-15.3843,14.8721,9.7437,20.5132,-14.3589,-3.0767,-8.2051,-4.1025,24.1025,
-4.6152,0.5127,37.9487,9.7437,-0.5127,-3.0767,15.8975,7.6924,15.3848,-15.8975,-18.0767,-8.2051,-2.564,31.2822,
-0.76929,-1.282,33.0769,7.4358,-8.9744,0.76929,13.5896,6.4104,20.7693,-21.282,-22.8206,-3.8459,-15.1282,26.9231,
0,0,23.0771,8.7178,-14.3589,-2.564,12.8208,9.7437,28.2051,-22.0513,-16.9229,-13.3335,-19.4873,17.9487,
-3.0769,3.0769,15.3845,12.3074,-12.3079,-6.6667,10.2561,11.7947,19.9998,-16.9231,-15.8977,-14.8718,-11.7952,24.1023,
0,-1.5381,13.3335,13.8462,-12.8203,-10.769,4.6157,12.3076,14.8721,-10.769,-16.4102,0,-11.2817,37.436,
1.5386,-0.5127,2.564,12.8208,-21.0254,-6.1538,-1.5386,10.2563,12.8208,-16.4102,-17.436,0.51269,-18.4614,41.5386,
1.0256,14.4873,-10.7693,15.8972,-23.0769,8.8462,-1.0256,13.3333,13.3333,-17.949,-14.3591,-2.0515,-22.0515,47.6921,
-6.1541,18.4617,-16.4104,19.4871,-26.6667,18.9744,-1.5383,18.4617,15.8972,-11.7952,-16.9231,1.5383,-25.6411,47.1794,
-9.231,9.231,-20,18.4614,-33.3333,11.7949,1.5386,14.8721,14.3589,-11.7949,-27.1794,-1.5386,-21.0254,32.1794,
-6.1538,9.231,-32.3076,11.7949,-28.7178,8.2056,4.1025,7.6924,8.2056,-18.4614,-32.8203,-4.1025,-16.9229,18.4619,
-4.3591,12.5642,-43.3333,10.0002,-18.718,10.0002,6.4104,10.0002,4.3591,-18.2053,-29.9998,-4.3591,-18.718,24.8718,
-3.0769,13.8459,-47.1797,13.8459,-15.3845,14.3586,7.1794,15.3845,3.0769,-14.3591,-27.6924,-6.1541,-17.4358,30.2561,
-1.2822,17.1797,-49.4873,16.6665,-15.6411,15.1279,4.8716,15.6411,1.2822,-10.5127,-28.9744,-5.3848,-15.6411,17.6924,
0.25635,19.231,-57.1794,19.231,-12.564,13.5898,6.9233,14.6157,-0.25635,-4.8716,-27.4358,-1.2817,-14.1025,16.667,
-3.8462,16.6665,-69.4873,14.6152,-10,15.1284,11.0254,15.1284,-0.76904,-6.9233,-20.2563,0.76904,-13.0771,31.667,
-4.6155,15.3845,-77.9487,10.7693,-13.3333,16.9231,6.6667,14.8718,-1.5383,-16.4104,-15.8977,1.5383,-17.949,35.3845,
3.3333,20.2561,-81.2822,15.6409,-17.1794,20.7693,-3.3333,17.1794,-3.8464,-18.718,-16.6667,6.9231,-19.2307,32.5637,
4.8718,21.7947,-88.9744,15.1282,-22.3079,23.8459,-4.8718,15.1282,-8.9744,-14.1028,-21.7952,9.9998,-18.2053,32.051,
0.76929,17.6926,-101.282,11.5388,-23.3333,20.7693,-0.76929,5.8977,-13.5896,-5.8972,-28.9744,9.4875,-27.9485,29.4875,
-1.2822,9.4873,-110.5129,9.4873,-17.1797,14.1025,1.7949,1.2822,-12.564,-1.7949,-33.0771,4.3589,-31.0259,18.7178,
0.25635,4.3589,-113.5898,9.4873,-15.1284,12.0513,7.436,7.436,-4.3589,-0.25635,-23.8462,-1.2822,-19.231,8.4614,
1.5383,8.2053,-115.8975,10.7693,-13.8459,15.8977,13.8459,17.4358,-1.5383,-2.051,-14.3591,-2.5642,-8.718,9.7434,
2.0513,9.2305,-122.0515,12.3076,-6.1538,16.9229,13.333,21.0254,-2.0513,-2.5645,-16.9233,-4.1025,-10.2563,6.1538,
0.76929,8.4617,-131.5383,14.6155,-8.9744,12.5642,6.9231,14.6155,0.25659,-0.25659,-17.1794,-5.8972,-12.051,-4.8718,
3.5898,15.3848,-137.9487,17.436,-18.4614,12.3076,8.7178,10.2563,-6.6665,-3.5898,-16.4102,-6.1538,-8.7178,5.6411,
7.1797,13.8462,-147.1794,14.8721,-20,7.6924,6.667,6.1538,-21.6665,-15.3843,-31.2817,-6.1538,-17.4355,10.7695,
8.9746,10,-155.1282,14.1025,-18.2051,5.3848,1.2822,5.3848,-29.4873,-14.1025,-42.8206,2.8203,-15.1279,-1.2822,
8.9744,13.0769,-155.1282,16.6667,-19.2307,14.6155,-0.76929,14.1028,-16.1536,-6.9231,-38.7178,11.0256,-3.8459,0.76929,
5.8975,12.0513,-163.3333,13.5898,-10,15.6411,1.7949,15.6411,-14.1025,-14.1025,-31.0256,-1.7949,-7.9487,4.3589,
6.6665,7.6924,-172.3076,11.2822,-3.5898,9.7437,11.7949,10.2563,-8.7178,-11.7949,-17.9487,-8.7178,3.5898,-4.1025,
0.76929,0.76929,-180.7693,9.4871,-18.5898,4.3586,3.3333,8.4612,-8.4617,-0.76929,-15.1282,-2.8206,18.5898,-5.8977,
-5.1282,-0.51294,-191.282,11.7947,-33.3333,8.718,-10.7693,18.9744,-13.8459,0.51294,-15.8972,2.5642,33.5898,6.1541,
6.6665,3.0767,-183.5898,14.8716,-18.3333,13.3335,-6.1538,20.5127,-7.1797,-3.0771,-10.769,-0.5127,45.1279,0.5127,
18.4614,1.5386,-175.8972,12.8208,-5.1279,4.6157,4.1025,7.1797,-1.5386,-5.1279,-18.9744,-13.333,55.8975,-14.4873,
10.2561,1.0256,-190.8972,9.2307,9.7434,-1.0256,8.7175,8.2048,-8.718,-1.5388,-21.0256,-9.7439,70.8975,-14.3591,
-1.0259,0,-205.8972,8.2051,24.7434,-1.5386,11.7949,11.7949,-13.3335,-0.5127,-17.436,4.1025,85.8975,0,
0.76929,-1.7947,-220.8972,11.0256,22.8206,-0.76929,17.6921,6.4104,-4.8718,-4.3591,-24.3591,1.282,100.8975,-6.4104,
4.1025,-2.0513,-224.6152,9.7437,14.3589,-1.5386,21.5386,7.6924,1.5386,-7.1792,-24.1025,-5.6411,115.8975,-10.2563,
10.2563,-2.0513,-225.1282,9.7437,15.8975,-3.5898,12.8208,14.8721,2.0513,-3.5898,-13.333,-4.1025,130.8975,-3.0767,
17.9487,-5.6411,-225.1282,8.7183,0.89746,-3.5898,1.0259,10.2563,0,1.5386,-13.8462,-3.5898,145.8975,-5.6411,
11.7947,-5.1282,-240,4.1023,4.1023,-3.0769,14.3586,5.6409,-5.6414,-0.51294,-19.4871,0.51294,159.4871,-7.1794,
0.76929,-5.3845,-253.0769,5.8972,19.1023,-1.282,25.3845,11.5383,-8.4617,-7.4358,-22.3079,11.0256,174.4871,-0.76929,
2.564,-11.2817,-252.3076,10.2563,21.5386,-2.564,10.3845,10.7695,-5.1279,-8.7178,-23.0769,5.6411,189.4871,-6.6665,
14.8716,-3.0771,-254.3591,16.4102,14.8716,2.564,0,8.7178,-1.0259,0,-11.7949,-3.5898,198.4614,-5.6411,
14.1025,0.25635,-267.436,12.0513,17.6924,-0.25635,15,7.436,-6.4102,-2.8208,-12.564,-3.8462,196.1538,-4.3589,
9.2305,-1.5386,-272.8206,12.3076,14.8716,-2.0513,9.7437,14.3589,-2.564,-3.0771,-20,1.5386,192.3076,-5.6411,
4.1025,-2.0513,-287.8206,13.3335,12.3076,0.5127,-5.2563,12.8203,-3.0771,1.0254,-20.5129,-0.5127,207.3076,-4.6152,
5.8972,-1.282,-302.8206,10.5129,18.718,0.76929,-6.4104,9.4871,-7.4358,3.3333,-17.6921,-0.76929,222.3076,-2.3079,
4.6157,-6.6665,-314.8716,5.6411,10.7695,-7.1792,3.5898,8.7183,-11.2817,0,-22.0513,0,229.7437,-11.2817,
2.8206,-2.8206,-316.1538,6.9231,8.9744,-5.3845,-3.8464,12.051,-7.949,2.8206,-14.6155,5.8972,223.8459,-8.9744,
-2.564,-1.5386,-331.1538,5.1279,20.5127,1.5386,-7.1797,5.6411,-12.3076,2.0513,-11.2822,8.2051,238.8459,-4.6157,
-1.282,-5.3845,-342.8206,4.3591,20.2566,1.7947,-10.0002,4.3591,-17.1794,1.282,-9.4871,5.3845,253.8459,-12.0515,
0.51294,-4.1023,-340.5127,3.0769,13.8459,-0.51294,-10.2566,10.2566,-15.3845,-1.5383,1.5383,5.6409,242.5642,-14.3591,
-1.5381,0,-348.7178,1.0259,15.8975,2.5645,-3.0767,7.1797,-15.8975,-7.6924,0,7.1797,246.667,-14.3589,
1.282,-1.282,-355.6411,2.3079,13.0769,1.282,-4.8718,1.7947,-17.1794,-5.8977,-15,1.282,261.282,-13.5896,
8.2053,1.0256,-351.282,11.282,20.0002,1.5388,-6.6667,6.1541,-17.4358,-1.0256,-18.9744,-1.0256,262.0515,-6.1536,
2.3074,-0.76929,-358.718,13.0769,15.6409,2.8206,-7.4363,8.9744,-20.2566,-8.9744,-12.0515,0.76929,252.5637,-7.949,
2.564,-0.5127,-362.5642,15.3848,0.64087,10.2563,-6.1538,15.8975,-12.3079,-3.0771,-2.564,10.769,267.5637,0.5127,
5.6411,-7.1792,-363.5896,11.7949,-8.718,0,-8.718,11.7949,-13.3333,2.0513,-11.7949,1.5386,273.3335,0,
12.564,-9.4871,-369.4871,11.0259,6.282,-10.5127,6.282,6.4102,-13.0769,6.4102,-10.5127,-6.4102,264.3589,-8.4614,
7.1792,-14.3591,-384.4871,6.1538,21.282,-17.9487,13.3335,2.0513,-12.3079,5.1279,-2.0513,-5.1284,257.9487,-14.3591,
9.7434,-15.8975,-385.1282,8.718,30.2566,-20,1.5383,3.5896,-11.282,3.0769,-4.1023,-1.5383,261.0256,-6.6667,
13.5898,-22.3076,-384.8718,8.9741,22.8203,-23.3333,1.7949,1.2822,-13.5898,-0.76904,-15.6411,-5.8975,256.1538,0.76904,
6.4102,-28.4614,-396.6665,-0.25635,14.1025,-28.9744,3.3335,0.76953,-12.0513,0.25635,-16.1538,-16.1538,241.1538,3.3335,
6.6667,-21.0256,-399.4873,-0.51294,12.3074,-24.6155,3.5896,6.1536,-7.6924,6.1536,-9.7437,-13.3335,226.1538,0.51294,
13.3335,-19.4873,-403.0769,3.0767,12.8203,-23.0769,0,0.5127,-15.3848,0,-17.9487,-6.1538,214.3589,0.5127,
12.0513,-18.2053,-408.9744,4.8716,14.1025,-24.3591,10,0.25635,-20.7693,-0.25635,-24.8718,-6.9233,211.0254,15.5127,
1.0256,-14.3589,-411.282,-1.0256,19.4875,-22.564,20.5129,8.718,-18.4614,3.5901,-25.1279,-12.8203,201.0256,30.5127,
1.0256,-13.3333,-414.8716,-1.0256,25.6414,-19.9998,16.9231,12.3079,-15.8972,1.0256,-20.5127,-5.6409,197.4363,44.1028,
3.0771,-17.9487,-426.6667,4.6152,18.9741,-27.1794,8.2051,9.231,-26.1538,-8.2051,-20.5129,-3.0771,193.8462,49.7437,
5.1282,-14.3589,-427.6921,5.1282,15.8977,-26.6665,9.2307,9.2307,-28.2051,-5.1282,-15.8975,-8.2048,178.8462,64.6155,
4.1025,-15.3848,-428.2053,0,18.4614,-22.0513,8.7178,0,-20,1.5386,-10.7693,-6.6667,163.8462,68.2051,
0,-21.5386,-438.4617,0.5127,17.4355,-25.6411,7.1792,0,-18.4617,-0.51318,-13.3335,2.0513,158.4614,73.333,
-1.0256,-14.8713,-442.051,1.5388,15.8977,-26.1536,12.3079,9.2312,-26.6665,-3.0769,-17.4358,1.0256,158.9744,88.333,
1.5383,-8.2048,-438.9744,2.5642,17.949,-23.0769,13.3333,6.1541,-22.564,-1.5383,-13.3333,-7.1794,144.6155,103.333,
3.3333,-16.6667,-442.3076,5.8972,21.282,-25.8975,10.5129,-1.7947,-14.1025,1.7947,-14.6155,-16.1538,139.7434,94.6155,
0.76904,-27.4358,-452.5642,1.2822,16.1538,-37.6924,7.436,-0.25635,-19.2307,0.25635,-27.4358,-27.4358,141.2822,79.6155,
3.0771,-18.9744,-454.8718,0,11.7949,-38.4614,7.6924,8.2051,-22.0513,0,-27.1794,-24.1025,128.7178,94.6155,
6.1541,-9.2307,-456.4102,3.5896,9.2307,-32.3076,9.7434,5.6409,-27.6924,-3.5896,-22.564,-17.4358,113.7178,109.6155,
