"AF3","AF4","F3","F4","F7","F8","FC5","FC6","O1","O2","P7","P8","T7","T8",
-0.48216,-27.4771,440.1125,0.48216,38.0822,-67.4872,3.8562,-23.6207,-77.6104,5.7844,-8.6769,3.3742,-12.0513,7.7125,
2.921,-27.2745,411.7778,-0.02893,31.9406,-64.8843,-0.23137,-23.6495,-73.4359,8.3296,-9.1204,7.5103,-7.4721,9.1782,
2.9869,-24.433,389.2401,-1.2323,37.0138,-60.7502,0.98758,-21.0255,-63.9681,15.7838,-3.9936,9.711,-10.639,14.6533,
1.3617,-23.9309,369.2604,-2.6044,35.7571,-59.9973,5.2669,-18.7996,-55.3095,12.4269,-0.37978,2.3797,-11.9288,6.0611,
4.4132,-19.3617,348.3098,-2.2074,32.8885,-56.1565,8.0841,-15.5025,-42.5909,9.9938,1.8124,-0.41442,-2.295,-2.7385,
1.9793,-15.0668,323.7958,1.5405,30.6743,-49.1717,8.3224,-13.3673,-34.0097,9.6351,0.9803,-1.1125,2.422,-4.2614,
-3.2012,-17.778,301.235,1.2071,30.0391,-44.5341,6.1359,-15.6985,-26.4255,4.9597,4.055,-2.251,-4.2308,1.056,
-2.7681,-17.9166,286.2939,-1.9988,25.1033,-41.6211,0.22409,-17.8898,-15.9221,4.4211,9.8372,3.9096,-7.1105,4.608,
-2.3608,-13.7081,271.7676,-4.0478,13.7154,-41.293,-0.03055,-16.0933,-7.4948,7.2891,8.5243,9.7008,-2.5863,0.23397,
-1.4961,-9.7524,255.7028,-0.67168,13.6151,-41.9489,8.4072,-11.9945,7.0549,12.8775,6.8073,9.3595,3.5947,-2.4314,
-0.68339,-11.8185,233.3707,-1.3547,20.27,-42.5652,5.7336,-13.4442,20.7316,15.2379,2.7835,1.8085,2.6557,-3.9727,
-1.1246,-14.0017,218.8863,-7.0578,19.054,-39.0472,-0.39523,-14.5657,25.5133,10.4675,-0.75776,-1.6747,0.085964,-1.8059,
-6.3597,-17.0182,207.6813,-8.5625,10.198,-38.1507,1.0747,-12.7277,24.4644,3.5725,-0.7123,-2.0561,1.5271,-1.6976,
-10.0753,-18.6482,191.605,-3.4695,8.3809,-39.4768,3.1794,-11.7228,37.0965,6.4916,3.4278,-1.2094,1.6764,-8.1032,
-4.4093,-12.4679,181.314,-0.60977,11.9754,-37.8313,4.6759,-12.2247,48.9708,10.1995,2.9812,0.067992,-5.896,-10.7507,
-1.2525,-4.007,175.7376,0.87285,16.5592,-32.1872,7.2876,-8.117,46.2732,8.6234,-2.0182,1.9919,-6.9885,0.4996,
-8.8898,-6.6587,160.855,-1.1077,11.7098,-28.8095,3.9583,-4.7373,37.2308,7.1421,-7.1995,0.42656,-2.7123,4.8084,
-5.9463,-6.2592,151.6859,-0.55909,4.2585,-22.2607,1.7924,-5.8993,34.5148,10.0878,-3.8755,-0.081194,-1.5857,1.6271,
-5.3484,-7.0889,140.4153,-0.76674,0.86928,-21.166,-0.96649,-10.1249,25.9362,9.2418,-6.2943,0.16487,-8.4802,2.7346,
-12.0173,-5.9404,127.8931,-1.4436,8.2889,-23.0293,1.7431,-8.7945,25.1029,9.8921,-9.0499,0.39595,1.4286,1.8476,
-6.9577,-2.2096,122.1479,1.0531,15.987,-20.2013,5.4946,-3.9282,29.8635,14.1195,-2.7221,-1.556,13.3942,-5.0119,
-4.3712,-3.7643,112.6495,0.74884,13.8221,-17.3021,7.8162,-3.4515,26.8665,12.0672,2.0206,-5.5601,9.4572,-6.3983,
-11.5806,-3.2974,99.383,1.9091,6.4852,-15.541,9.9986,-3.9674,26.4597,8.6915,0.69423,-5.4674,9.1311,-1.917,
-11.1268,-3.3405,89.3226,0.10732,2.4807,-15.8136,4.8194,-7.3448,22.221,6.9652,-4.891,-0.077864,12.6805,-5.4174,
-7.5671,-7.4786,79.6247,-4.2377,8.5986,-17.2751,1.6375,-9.3144,13.1747,7.5114,-5.5617,4.2654,10.4732,-7.9848,
-4.7026,-4.1375,77.7394,1.3193,15.3136,-10.9361,8.7702,-5.3812,17.2046,8.989,0.074561,-1.2933,12.2551,-3.6492,
-0.56418,0.93111,77.8957,4.1324,12.4665,-5.4593,9.6901,-6.0223,17.6185,4.1108,-1.3761,-4.1079,12.484,-3.4302,
0.91582,-0.57067,70.8117,-2.8641,7.3801,-9.4702,2.3602,-9.9994,6.9203,0.0080663,-9.0062,2.8871,7.3965,-7.5628,
0.37882,2.3557,59.8144,-1.2464,1.6345,-10.3483,0.29026,-10.3637,4.0948,0.4894,-11.8404,1.268,4.5425,-9.0373,
2.5252,7.7578,55.5022,5.3363,3.2237,-0.32744,1.4777,-7.5727,12.7672,4.5574,-5.1044,-5.316,8.3673,-5.844,
-0.27759,6.5694,53.8595,5.7393,6.1635,2.3435,0.66634,-6.8774,15.6164,5.9714,-3.5928,-5.7202,8.1064,-6.6984,
-4.5991,5.6932,49.1816,3.4666,1.9376,-2.1355,3.5188,-6.9465,13.7154,6.5773,-7.7157,-3.4487,10.0301,-6.2964,
4.1126,7.5209,41.6515,1.0894,-1.7939,-4.6586,6.9227,-3.8785,8.7953,9.3158,-7.9758,-1.0725,14.4901,-3.7493,
6.0351,2.0081,35.0549,-1.1453,0.48276,-8.9585,5.7843,-3.8869,0.31368,6.1057,-7.2561,-1.2492,14.8258,-9.55,
3.0216,1.6465,36.5669,3.0209,3.5872,-11.0724,8.0887,-3.4126,2.9458,5.0159,-5.6158,-2.8614,20.4436,-14.5208,
3.3224,2.994,32.4445,2.8397,-1.9305,-13.3004,10.0138,-7.5462,3.7336,4.7151,-3.3504,-5.582,22.1098,-17.0238,
4.8103,3.5375,24.4723,-1.4281,0.83644,-10.3329,10.1358,-8.7806,0.37614,4.6732,5.2863,-2.1138,20.0598,-10.4587,
-0.29901,6.6994,17.2194,-1.3426,7.0528,-3.4465,6.1532,-7.7719,0.8355,3.4289,6.8975,-3.4332,18.8562,-4.0466,
-2.6911,10.154,10.8837,2.5944,2.7733,-0.34726,1.9278,-3.9312,2.2317,4.1872,2.6271,-4.6732,19.6532,-3.3218,
-0.84262,6.4113,4.2047,-0.21256,-5.8292,-1.0498,-0.83946,-4.4185,1.8564,5.1408,3.1924,1.1508,21.1251,-1.4355,
-2.9613,3.3754,-6.8935,-3.3332,-10.0589,-0.26356,-2.476,-13.5533,0.05815,0.25294,-2.0607,4.2152,17.2064,2.2662,
-3.0246,4.8601,-15.3978,-2.892,-8.7322,-0.48871,-3.5325,-12.981,-0.66847,-0.48491,-4.1062,3.7211,16.4152,2.3714,
-5.7357,0.22969,-18.3307,-7.5392,-5.7981,-4.7982,-2.3567,-6.4178,1.7818,1.4719,6.2633,-2.2868,20.7325,-3.0737,
-8.5246,-2.9171,-21.81,-8.7738,-5.209,-6.6792,4.7744,-6.2737,6.2544,1.6248,12.3952,-8.6573,23.5861,-4.0944,
-7.5311,-0.8139,-32.0705,-5.8373,-11.163,-7.2426,6.8985,-12.1638,7.3254,-3.2929,7.7951,-4.2815,20.7247,-0.95642,
-5.1511,1.1631,-39.3053,-5.969,-10.9756,-10.6644,0.21762,-13.3622,3.0295,-10.3262,5.3992,-2.0964,18.0354,-1.8629,
-0.98563,10.7343,-37.4294,-3.6826,3.7829,-7.1322,5.0253,-3.4016,5.7398,-5.3683,7.0034,-6.3091,19.3634,-5.6077,
1.0018,19.2492,-40.004,-1.5334,14.0409,2.4546,13.4007,-1.7512,8.2878,-0.70755,-2.5757,-9.3047,18.6839,-7.6813,
0.45966,22.4327,-48.2089,-6.2622,-0.90159,6.1636,-1.3829,-14.6616,0.077852,-10.7883,-14.4726,-7.3003,10.3316,-3.3644,
4.5294,31.933,-48.4494,-5.645,-5.3064,6.5172,-8.7718,-16.9152,2.7243,-14.2384,-7.5784,-4.6931,4.1686,1.8992,
3.5345,28.3295,-50.6044,-0.24489,-2.3372,-1.8278,-3.184,-13.2492,9.0685,-12.661,-7.8469,-14.7758,1.7491,-8.0969,
3.5634,14.3377,-56.0038,-1.4355,-6.2943,-2.9232,-1.7877,-16.0694,5.3909,-12.1423,-11.4734,-16.5404,7.1878,-11.2263,
3.3499,11.5495,-57.946,-9.0619,-6.3983,2.0726,-6.019,-17.9975,-2.6451,-11.414,-5.9645,-6.8709,12.5408,-1.3937,
-0.22536,14.7127,-58.8078,-8.5184,-5.5323,0.020092,-6.6219,-12.0972,2.3341,-9.765,1.142,-4.0483,16.1269,2.5465,
-0.45304,7.3222,-61.787,-4.8741,-7.3702,-1.6683,1.247,-8.2381,14.4864,-1.7075,3.7248,-2.6008,20.2208,-2.1862,
0.29727,1.8214,-61.213,-5.7867,-4.2762,-3.2555,9.6085,-8.4667,11.9302,3.9387,4.2245,5.5093,20.2126,-4.7062,
-3.5769,5.5685,-61.3966,-4.9573,4.1751,-5.9524,7.5857,-5.0664,0.60908,-4.9747,3.0067,4.6968,23.8206,-2.9775,
-7.2189,7.6445,-65.908,-2.7319,2.9603,-2.703,1.346,-3.3164,4.4289,-10.4608,1.8624,-5.7082,28.6578,-1.835,
-6.0627,10.3193,-69.9073,-3.7733,-8.0636,2.0385,1.5058,-10.1073,8.7425,-6.6996,-1.3828,-6.5707,18.0203,-3.4119,
-3.5295,12.8334,-68.3642,-8.1259,-7.3381,6.9781,2.6209,-14.5621,4.6027,-5.5745,-4.4331,-1.115,10.4318,-0.55587,
0.056465,12.5456,-65.2264,-5.7104,0.33275,8.4876,2.9458,-9.35,7.7008,-6.2042,-2.7211,-1.0479,16.0722,4.7799,
0.77621,17.3362,-68.3025,0.65798,-1.3747,7.7371,1.5636,-6.6199,11.3363,-6.0731,-4.2448,-4.6007,16.3129,4.7343,
-1.6807,22.0809,-69.9887,-0.3456,-6.5946,8.7192,3.3982,-9.115,6.8,-5.2266,-6.8824,-3.8425,14.8525,3.9681,
-8.0874,18.1045,-69.4052,-4.9042,-5.958,6.0269,7.774,-10.2553,1.3303,-1.2975,-4.7823,-3.371,19.5049,-2.2955,
-15.3151,8.3413,-71.9896,-7.0203,-5.6007,-3.494,2.0047,-11.0862,4.6247,-3.63,-1.1211,-9.4355,21.7088,-10.8349,
-8.3704,9.0461,-66.4649,-3.4656,-5.5056,-6.4174,4.0536,-7.2876,10.8552,-8.9559,4.4898,-10.0744,22.5755,-9.9436,
-2.8068,10.6728,-60.7896,-1.5706,-8.3086,-5.3095,12.2463,-5.1631,8.9983,-10.1055,5.9074,-7.7827,20.9802,-11.5162,
-7.2179,4.9707,-66.5427,-2.6817,-9.4973,-6.1962,10.3062,-5.5764,8.6994,-7.33,3.3838,-8.521,18.998,-19.7435,
-7.7489,1.2983,-72.6728,-3.0025,-8.4453,-6.3063,2.4572,-5.2419,9.142,-4.4799,0.77041,-10.9018,20.7504,-21.9331,
-5.1148,-1.4312,-71.9278,-5.9558,-14.446,-8.0971,3.0332,-6.6146,3.0499,-3.4882,3.3757,-11.453,21.1926,-8.3248,
-9.1462,2.993,-73.8791,-5.5985,-14.0617,-3.7549,5.2613,-7.664,-1.9538,-9.5454,6.0653,-7.8735,21.3673,4.226,
-2.5719,16.9134,-74.99,4.6194,0.52081,10.5704,5.1866,-1.1783,3.707,-10.178,6.9066,1.035,26.5928,8.0698,
3.1262,21.5632,-72.1776,8.9217,-0.23356,15.1186,7.5267,2.9899,6.1359,-6.916,-0.49741,0.24977,21.382,9.273,
-3.0871,17.6181,-67.1238,7.1814,-6.7273,10.5958,7.7982,2.0872,10.3473,-5.2959,-4.0832,-4.3447,12.6271,11.3675,
-2.6609,17.2839,-68.1581,3.1351,-2.7082,6.8266,6.6074,-0.20721,14.3057,-6.6654,4.5979,-2.8788,16.4492,2.7317,
3.2833,14.8006,-70.3351,0.53683,-3.992,3.5247,6.6929,-2.6049,12.0011,-10.6038,8.6604,-4.1525,20.7649,-10.9295,
-0.046935,8.8511,-71.1764,4.1198,-5.9214,3.0725,6.0506,-5.0997,11.0403,-13.1008,6.9357,-9.9287,14.9395,-10.0326,
-3.6595,11.9354,-72.4495,5.0779,-0.98682,2.6469,4.9642,-5.5171,17.3678,-9.6637,5.3142,-13.4305,13.3197,-5.8154,
4.9962,19.6555,-68.8254,5.4961,0.75962,1.283,8.7637,-1.5704,18.9768,-4.0222,2.8262,-10.4553,18.0646,-4.2612,
10.2398,21.6094,-67.3476,7.8177,3.8473,3.3752,11.8531,1.1749,13.2587,-5.9502,-1.9229,-5.2487,18.1854,1.5379,
6.4921,24.4099,-71.2608,8.0718,11.57,12.5727,11.3831,6.6478,13.6682,-7.7626,0.84383,-3.2468,19.2636,11.3275,
1.2821,25.3562,-73.2514,4.6952,4.6095,16.1569,8.2902,5.7672,9.4739,-5.8504,1.7573,-8.8363,13.2873,14.0226,
-2.1693,26.7269,-72.2308,3.4491,-6.2724,13.259,2.4897,-4.7022,0.22836,-3.0892,-2.6865,-8.3062,5.2592,13.1812,
-2.7622,28.2565,-72.4764,3.4834,-6.1368,13.6688,-4.6493,-10.4456,-0.50847,-7.001,-1.8021,-3.2283,9.0413,13.5954,
-3.5606,21.7402,-72.9483,-0.58224,-3.8406,17.187,-3.8882,-5.4805,7.235,-13.812,-0.24799,-4.963,14.7651,13.7438,
-9.3725,13.9285,-74.5972,-6.0907,-2.887,14.4688,2.3709,-4.4283,8.006,-10.332,1.9363,-7.3163,9.3001,10.7498,
-13.3897,14.2979,-73.7366,-5.9664,-5.8471,6.6108,1.0235,-9.2243,8.2488,-6.0969,5.9172,-4.7082,4.1626,6.0076,
-6.3195,14.4039,-65.9384,-5.1265,-9.835,6.6961,0.96168,-8.1889,14.5023,-6.6949,8.9366,-2.9794,9.6974,1.3084,
3.2187,11.6114,-60.5358,-3.8546,-4.9061,11.115,5.7247,-1.9128,13.6326,-6.2932,7.4366,-3.2828,11.5257,3.1581,
-1.313,12.3612,-67.5083,-3.1412,-2.2014,5.6276,-1.8494,-1.798,5.584,-9.2898,5.062,-1.6396,7.4599,4.897,
-9.6701,10.8964,-67.5558,-4.6402,-9.0594,3.6025,-6.8003,-8.1981,9.3461,-15.2406,7.8915,-1.7824,8.6993,1.47,
-1.3772,15.0634,-54.343,-0.022966,-10.4441,11.5815,4.213,-3.3674,22.8854,-6.131,14.6489,-2.1574,20.2289,1.3818,
-3.2227,15.1234,-55.4212,-2.9141,-10.2994,5.584,4.4426,-2.2013,31.5149,-3.835,8.4673,-7.3306,17.087,-2.0756,
-4.2344,16.8673,-49.9265,1.3583,-6.5481,3.0798,3.4529,-0.38196,39.9881,-9.1483,4.826,-3.7573,9.0721,-0.26361,
-1.329,17.0604,-41.8695,4.892,-6.396,4.5822,4.4508,1.8101,51.6888,-9.3225,0.92123,-1.8448,5.3941,-3.3815,
-2.6955,13.6264,-44.6597,0.74234,-4.0843,3.8251,7.076,3.1475,62.6875,0.8776,1.8301,-2.2161,7.4808,-6.5528,
-9.2825,4.1319,-49.6931,-6.0509,-8.1778,-3.6352,3.2772,-1.8618,73.0262,-0.62109,3.1663,-3.5294,11.8524,-9.5341,
-4.387,6.7765,-41.4089,-0.38518,-9.6153,-2.9349,5.9727,2.5885,81.0577,-1.0658,11.1715,2.4672,19.3365,-4.6235,
-0.99074,10.9492,-37.7195,3.7353,-11.2075,0.85635,6.3372,4.6023,86.0757,1.1674,15.5624,4.0062,12.6322,-3.1411,
1.2381,8.6051,-36.6612,2.3059,-12.2223,3.9385,4.2702,1.6749,88.8653,2.7845,13.9058,1.1145,4.4029,-2.2295,
4.5383,7.1247,-34.4618,1.6854,-10.5249,3.22,2.0856,1.0922,83.5332,1.6534,6.8047,-1.3628,3.6566,-0.16773,
-0.55452,16.3384,-37.2141,2.0664,-7.483,4.4733,0.51441,-0.41914,70.8086,-2.7844,0.12965,-5.1372,1.5092,1.2888,
-6.0649,17.5275,-40.5251,-1.1908,-1.9726,8.3022,1.2067,-3.0453,65.3551,-4.7863,-0.60126,-4.1058,0.69554,6.2729,
-8.3525,4.6652,-37.3707,-7.6273,-4.5053,-1.5961,-0.55295,-5.032,65.5311,-4.2586,2.5683,-1.2084,0.89432,2.7631,
-8.0923,7.0366,-33.4414,-5.0003,-4.4762,-4.1517,0.2029,-3.525,64.2501,-2.3156,9.4038,3.4437,2.0457,-6.8027,
-10.4991,12.399,-38.1834,-7.5928,-4.2076,4.2923,-0.77315,-6.688,54.6105,-2.1767,4.9832,5.1652,5.2974,-10.2509,
-8.1819,5.1474,-35.1693,-9.3062,-12.3911,2.3478,-1.9318,-7.4915,48.2011,6.3898,-0.85915,8.471,6.667,-3.1279,
-4.0756,5.5617,-26.0695,-3.2044,-15.2628,0.51972,-2.0571,-2.4627,46.0317,9.1397,1.8433,11.5779,-1.205,2.1212,
-4.0722,13.1817,-25.2282,-3.2531,-3.0188,4.1037,-1.6927,-1.5918,43.5108,-2.2549,1.0098,5.3396,-2.8199,-0.65763,
-1.4176,9.4987,-25.1608,-4.5037,11.2623,0.48328,8.0503,0.91403,43.3107,-5.4936,0.94918,0.19899,10.3651,4.2025,
-5.9118,-5.1712,-27.7485,-9.7773,15.0456,-13.284,7.8082,0.61822,36.1328,-2.5129,1.1332,1.8743,12.8763,2.2632,
-10.1368,-13.8997,-30.1809,-14.2524,15.3477,-22.8513,2.2781,-4.4806,31.7952,-3.0855,0.82424,8.7512,8.9702,-6.3085,
-16.518,-27.1657,-31.9855,-19.9047,16.1141,-34.7364,4.3105,-12.1655,32.539,-4.5871,0.53382,8.4671,12.0479,-10.0274,
-16.7322,-39.6358,-27.8972,-19.4336,21.1728,-43.4985,14.4162,-7.3382,42.8788,5.57,12.3119,13.5027,24.099,-6.2925,
-22.7179,-51.3576,-32.2489,-25.7394,18.6976,-54.9886,8.0076,-10.0311,37.6549,4.9949,10.8503,12.9335,18.5557,-17.2429,
-22.078,-55.1451,-26.6988,-22.0258,17.3345,-55.9073,6.3221,-11.1165,31.2981,4.454,6.1017,12.3987,18.1655,-19.824,
-12.5586,-43.6417,-14.4918,-10.0992,19.1867,-40.0196,17.9937,-0.80855,36.1688,4.187,11.038,11.6545,30.0907,-9.9577,
1.9335,-27.7668,-8.0784,3.2812,26.4714,-23.5184,29.6887,10.086,42.9166,2.7304,24.1143,12.1606,40.5776,3.8964,
5.4329,-20.5572,-6.8706,7.1819,29.4627,-13.0688,30.5587,10.204,37.6902,-0.084704,22.4267,10.2259,36.4559,13.0626,
1.2505,-23.1801,-5.0123,4.3406,24.3207,-20.4794,22.4585,8.6276,31.0907,3.7768,15.2963,9.6123,30.8944,11.7967,
-6.5375,-29.9843,-17.2451,-7.4892,11.7742,-25.5176,12.4338,2.8073,23.9226,4.9964,15.3424,7.5893,22.7737,4.34,
-13.6169,-34.2108,-30.3104,-17.8857,3.5959,-28.0837,7.1085,-7.243,8.749,0.59928,8.8787,11.2313,13.4536,2.8748,
-16.6562,-34.0863,-31.9865,-17.7766,4.8265,-25.9167,1.3794,-12.1109,-0.93501,-2.8111,2.079,13.9319,12.6463,6.5587,
-11.5597,-27.4618,-25.0058,-10.6847,6.7058,-17.8542,2.0197,-7.769,7.0746,-3.3656,13.2827,11.409,16.949,7.8521,
-2.9122,-18.3421,-16.5158,-4.0178,7.5085,-10.275,7.9239,-1.2771,13.1578,-0.0304,19.9573,10.0013,16.1733,7.1403,
-1.7734,-13.3852,-16.0068,-1.3666,8.0223,-3.8742,10.341,1.2096,15.2604,1.4177,11.529,7.955,13.7566,0.44489,
-3.8363,-8.9666,-21.072,0.40258,6.8176,-0.0263,9.4795,1.378,18.9245,0.12733,10.1144,5.7904,14.6184,-3.6792,
-5.5341,-7.9467,-18.8433,0.37866,4.9628,-4.3628,7.9469,1.2956,19.7177,-0.84418,15.2921,4.9611,16.6339,3.2905,
-9.5406,-12.2904,-19.1592,-6.8749,3.7009,-8.4396,6.5055,0.25374,18.5344,-0.31136,11.0003,8.5196,12.7435,5.5034,
-12.8248,-18.7838,-26.2048,-9.8371,0.58633,-9.8616,2.7407,-2.654,17.4219,-3.1852,6.9659,10.9009,2.8194,-3.5039,
-8.6809,-17.1749,-28.9708,-6.8365,-1.859,-9.7519,4.0226,-3.4589,17.3409,-6.3685,10.8862,13.6213,0.24014,-9.0785,
-8.6419,-12.7697,-29.1606,-7.8723,-0.30141,-9.1668,4.2634,-4.6976,15.3364,-4.058,8.787,10.8756,5.0462,-8.0516,
-10.7748,-13.209,-30.0622,-8.6053,-0.042585,-8.376,3.7664,-4.6567,23.334,3.1751,6.0904,3.2334,6.4304,-2.0251,
-6.5128,-19.4059,-29.9455,-6.4015,-7.5116,-9.5605,4.7459,-4.6183,32.2985,3.7077,6.4481,2.3163,0.019292,-4.0725,
-2.9886,-17.0365,-29.3541,-3.8483,-11.6402,-9.7097,4.2202,-4.1,28.1915,-0.13014,6.3027,5.7927,-0.70477,-13.2282,
-6.4249,-8.0605,-33.6184,-3.8586,-5.3982,-5.0298,0.83349,-4.0952,18.5458,-2.2915,3.2729,7.6143,3.4349,-14.6039,
-8.4496,-4.6846,-37.3861,-5.0731,-0.73573,-1.3536,-1.1449,-7.7058,11.1663,-8.4207,-1.7439,5.2295,-5.4481,-7.9428,
-7.2195,-5.1267,-35.3837,-5.0097,-6.2354,-2.9596,-1.317,-9.4127,11.2194,-11.5307,-3.8087,5.6389,-15.0034,-7.7075,
-7.7506,-7.7111,-33.743,-3.7452,-8.7538,-3.7463,-0.75603,-8.366,18.259,-5.0547,0.27624,8.1926,-4.9441,-9.1732,
-3.6699,-5.0793,-36.2977,-1.8331,2.6181,-0.86999,5.7973,-6.6587,11.6204,-2.0999,0.50109,5.5319,4.7525,-9.3457,
-0.55744,-1.4001,-43.7608,-7.0257,9.2095,-2.264,6.8952,-9.6336,-3.1769,-9.2047,-10.1343,1.8255,-5.1736,-11.1953,
-1.7291,-2.0392,-42.8226,-10.7015,7.4519,-3.3333,0.4562,-8.3325,-3.1072,-7.4474,-10.2493,2.4391,-12.8172,-8.3544,
-0.42025,-3.6041,-39.5299,-5.9621,4.8356,-1.4463,1.1517,-8.0737,10.818,-4.349,-2.1626,3.98,-12.771,-7.6122,
-1.6003,-5.0748,-48.0046,-7.2916,4.7862,-1.1185,5.1798,-14.579,0.7687,-8.6676,-1.7921,5.4282,-10.7997,-11.735,
-5.6017,-6.4576,-52.1142,-12.8799,5.7043,1.118,7.5205,-14.9095,-10.6056,-8.8709,-3.8537,6.7897,-7.9826,-10.7899,
-5.5065,-7.7574,-47.7821,-8.4914,3.6748,3.7022,5.864,-7.0251,-1.5331,-0.86682,-3.3815,7.1057,-4.3701,-7.491,
-5.6583,-11.1483,-52.6279,-7.5,-2.3302,-1.3404,1.1738,-8.0496,3.861,-0.81481,-3.6606,6.6794,-8.9286,-11.3801,
-3.3904,-8.5514,-59.111,-7.5319,-4.1184,-0.29588,-1.7889,-15.2794,-6.9757,-6.5503,-2.9588,9.1709,-15.6235,-14.0715,
0.42823,-6.8331,-61.5903,-5.393,0.70799,5.2655,0.96954,-16.532,-14.5109,-11.7009,-5.4323,7.4153,-15.8914,-12.0221,
1.1257,-7.1462,-60.0638,-3.8644,5.727,7.6007,5.9728,-9.5146,-8.5788,-9.7938,-5.8295,7.6936,-11.8047,-7.6856,
-2.5573,-7.9225,-62.4858,-5.3197,1.2858,4.4933,3.9275,-10.1487,-7.3409,-3.1808,-4.2747,10.3652,-13.2658,-6.0194,
2.1757,-5.7599,-61.8701,-2.3492,0.0037819,4.4649,2.9689,-13.1552,-10.5159,0.62592,-2.8134,11.4305,-13.1927,-3.4886,
6.3837,-2.5223,-59.6037,3.5765,5.7881,10.9457,5.6828,-9.4734,-5.0642,-0.8579,4.1043,10.7447,-12.8831,-0.38726,
2.6264,-2.8526,-58.4379,1.9159,6.8869,15.5916,14.5011,-2.6383,5.3628,4.496,14.9455,18.7769,-10.6641,1.5644,
1.0224,-7.9843,-59.7523,0.35469,1.171,9.8356,15.5593,-2.4802,-1.7079,9.0469,7.7818,26.3274,-5.2035,2.9166,
12.2894,-1.4795,-56.8901,9.7334,12.9113,23.3455,11.0103,4.6585,-10.5235,9.227,7.5559,28.8451,-1.7578,13.1057,
15.1675,0.77842,-53.2357,8.9084,21.0547,19.4139,12.0369,7.0303,-5.3124,8.4324,17.9488,28.8016,-6.714,12.0784,
9.4367,-8.9093,-54.862,4.9995,5.8115,4.1491,14.6889,-0.14042,5.1291,12.747,19.7641,29.4834,-7.2753,0.74837,
12.7271,-0.17976,-55.9086,12.4123,-0.80373,5.4669,11.8794,1.7964,4.3398,13.9104,17.132,32.0532,-7.8031,6.4883,
9.5532,13.931,-65.0878,8.7753,-4.1297,19.2388,-2.9334,-3.614,-10.0205,-1.0243,3.5709,20.9707,-21.4349,4.1706,
11.1491,27.1952,-68.6539,8.4897,-11.3538,32.1845,-15.4114,-10.869,-23.5193,-15.0628,-4.5971,11.2768,-34.2488,-7.8898,
19.398,39.6635,-65.7402,14.0061,-17.6622,44.3534,-11.3534,-9.9759,-26.6879,-18.7383,-4.5625,4.0925,-40.6296,-6.6933,
23.7777,51.3836,-63.9649,13.8886,-22.1461,55.7922,-14.7696,-7.2079,-32.0765,-23.1576,-14.1707,-6.9993,-45.1817,-7.0146,
26.6899,62.4006,-63.5015,12.5734,-25.1561,66.5447,-18.2217,-5.8116,-44.2519,-26.107,-24.4077,-4.1688,-48.7373,-12.3788,
25.3294,72.7566,-64.2707,16.8807,-30.6361,76.652,-19.2976,-6.6679,-46.5378,-20.9251,-20.774,1.625,-56.6593,-2.2356,
22.3634,82.4912,-63.7889,20.6881,-34.1006,86.1529,-21.5142,-7.7139,-34.1045,-15.8132,-18.5633,-1.847,-62.4188,5.6109,
20.7804,78.3851,-62.131,20.1699,-33.742,95.0837,-24.8028,-3.6359,-31.3351,-12.695,-18.1726,-0.53111,-54.5761,3.5872,
18.5695,65.4875,-59.3667,16.5494,-36.538,97.3327,-22.8325,-2.4534,-41.0244,-10.4873,-14.6719,4.8032,-53.7119,7.7105,
16.0093,57.7017,-54.3587,17.4848,-36.7556,86.1903,-20.0165,-4.2344,-42.901,-11.786,-14.2737,5.9615,-54.8277,11.1045,
13.1205,49.9008,-53.9897,20.7741,-32.1401,78.6083,-22.6719,-3.0165,-35.9887,-18.3097,-19.2019,4.1571,-46.2354,2.2431,
14.9846,39.4352,-54.3657,18.3226,-32.3811,71.7224,-22.9991,1.744,-34.5525,-15.5241,-22.6293,3.185,-45.6307,-2.9529,
23.0036,33.4536,-50.3807,16.0179,-29.7149,66.6962,-14.6292,6.2189,-31.274,-4.7103,-14.2817,5.163,-49.4003,7.1062,
22.8285,23.9748,-50.4911,13.8518,-27.2089,61.0074,-15.9204,2.2306,-32.0489,-6.1151,-12.2197,4.6121,-51.9801,4.9928,
20.0125,17.7156,-48.4257,13.985,-27.9869,55.9007,-20.2678,1.1327,-33.0185,-9.6046,-12.4509,7.7098,-45.4869,-0.60942,
19.5346,9.6628,-51.0638,9.5305,-33.7795,48.9312,-21.2209,-1.5866,-30.7964,-14.09,-8.0884,5.078,-45.8907,-0.33188,
17.3987,2.3346,-56.1949,7.0304,-31.7527,46.4773,-22.8402,-2.9377,-21.7178,-17.5829,-1.8185,0.91697,-46.9941,0.6519,
13.7035,3.882,-53.5461,7.8137,-24.3037,44.8942,-17.8541,3.2644,-9.0863,-11.4661,-0.021934,4.4776,-39.5945,1.3364,
12.8812,3.1667,-48.4054,7.3449,-28.6306,36.4155,-10.9988,6.4425,4.4738,-1.6195,-0.98494,7.5829,-40.5937,-0.19053,
11.1443,-5.2178,-51.2854,7.8683,-36.5535,33.7489,-16.6051,1.7178,15.2929,0.40608,-0.92562,8.5745,-46.3526,-1.6247,
8.0653,-2.4948,-51.5827,9.8065,-30.5036,39.4365,-18.5011,2.5789,24.0165,2.7921,1.0579,14.8087,-42.1254,-2.0094,
5.4122,4.6447,-44.3904,11.3873,-24.5761,40.6857,-12.3298,11.342,24.2627,4.3113,2.1997,17.5351,-37.9106,3.6548,
4.8463,4.6068,-40.0398,10.9453,-25.7528,41.8597,-10.8669,15.7229,23.5301,5.2582,-0.5836,16.7242,-36.3591,16.2098,
5.2791,1.6795,-45.5911,9.5654,-28.7872,38.1431,-19.6147,9.7181,27.1797,2.7733,-6.092,13.0694,-33.9364,18.3704,
7.8544,2.0602,-47.1944,13.3298,-27.5423,32.962,-20.8484,7.6887,34.7075,0.67869,-1.3886,13.2491,-37.2028,17.2682,
6.4188,-2.4017,-43.8804,12.0481,-23.9611,31.4667,-17.6688,8.6737,31.6612,1.6018,3.0335,12.4546,-47.5042,13.34,
3.6235,-6.114,-42.2119,8.4327,-22.0415,30.0606,-14.1986,8.1533,25.9051,0.059924,-1.9692,9.7792,-49.4742,7.7189,
4.1293,-7.4342,-42.3303,6.7217,-19.9959,26.57,-10.2134,8.3872,28.4484,0.29752,-7.3944,13.29,-47.7108,9.9071,
6.0507,-9.6392,-42.4418,7.0417,-18.5552,24.2529,-12.2517,10.5353,24.09,3.8946,-9.1199,13.2155,-47.9816,13.8924,
5.6879,-10.0254,-41.3415,9.511,-19.3703,26.6539,-14.8913,12.7952,15.414,6.5532,-4.2342,6.1558,-41.7285,8.238,
4.6232,-7.7367,-41.5123,9.1813,-20.8594,24.3313,-13.2744,11.3044,11.8376,3.509,-2.7753,4.0992,-37.0556,4.6102,
5.5511,-4.139,-38.2985,12.2459,-15.0283,24.5586,-12.237,10.8673,8.9582,3.0575,-9.5982,10.3608,-40.8578,12.7697,
4.7359,-3.8909,-38.8929,13.9215,-11.7163,30.7981,-12.4669,14.5536,1.1901,4.32,-10.9507,12.6314,-46.1194,15.8597,
2.2826,-5.8266,-39.2106,11.399,-16.5569,28.7092,-9.5497,11.9932,1.3596,5.7481,-4.7501,9.7044,-45.0392,9.8469,
-0.26473,-8.3693,-42.1606,5.8946,-17.0095,17.8274,-9.9408,5.489,5.1342,10.2232,-4.4653,8.158,-44.2653,10.2202,
-1.2129,-5.9387,-43.9693,5.5411,-9.2403,19.1681,-9.8265,8.0519,0.96999,12.9845,-4.6791,11.0428,-44.0195,10.0891,
-0.41681,-4.3771,-38.6798,11.7161,-7.4806,23.0797,-8.0316,13.5946,-1.2574,15.8208,-2.2292,14.9599,-42.5834,-1.3625,
-1.3561,-13.2735,-41.1795,8.603,-11.8524,15.4284,-8.996,9.8866,-1.6639,16.3179,-2.0954,13.0985,-38.5821,-1.2807,
-3.6849,-18.744,-47.3858,3.2661,-12.5876,13.0565,-7.9743,7.3652,-10.2411,14.3745,-2.4516,7.4919,-36.2672,9.4014,
-2.4999,-14.7269,-44.0605,7.8909,-18.5808,19.9859,-11.3522,9.3337,-17.8214,13.0301,-1.3407,10.4168,-44.6962,11.2474,
3.917,-14.3252,-35.6323,12.2381,-18.9122,13.4841,-12.5993,9.7378,-10.0036,14.6584,2.5962,11.238,-46.8349,8.1625,
4.6459,-16.8401,-38.7968,8.6113,-4.762,3.034,-7.9865,8.6716,-12.2955,11.3687,0.030257,1.4047,-33.4198,8.1547,
-1.1767,-17.0353,-48.7615,2.5508,7.816,3.0927,-5.3384,5.9816,-25.6578,-0.15941,-6.4793,0.59732,-28.7635,9.3524,
0.099417,-27.3411,-46.5587,-1.2174,9.5164,-9.3847,-6.2231,0.5613,-34.1209,0.090894,-4.8854,3.2128,-38.3659,9.0324,
7.0833,-35.5826,-36.7756,1.5072,14.0067,-22.9216,-5.1268,1.7329,-27.012,11.4136,1.9156,-1.5597,-41.1254,6.3213,
4.4889,-30.3144,-33.8457,4.0681,20.6383,-25.2822,0.24268,6.6906,-28.0426,10.0061,0.59562,-3.6351,-35.5244,5.7008,
0.84515,-28.9774,-35.1894,-0.99674,17.9537,-18.4626,1.192,3.3969,-35.5191,-0.23519,0.55988,-1.9707,-31.9469,10.6614,
4.4101,-36.1566,-34.2833,-4.5526,11.8151,-23.8626,-3.4591,-1.8686,-36.5212,1.4659,11.3723,-0.64785,-26.8968,11.7088,
4.3864,-39.0489,-29.575,0.30032,10.3828,-23.6361,-3.9744,3.305,-21.5555,9.3317,22.0182,2.5245,-23.5958,3.5344,
3.6411,-34.778,-25.8725,5.5847,12.6521,-18.8437,2.5303,13.2296,-11.1033,9.7359,21.6607,1.8909,-24.1084,0.912,
4.8689,-36.5475,-26.7301,2.8395,11.8935,-21.5695,-0.031609,10.99,-24.4164,5.2954,11.6844,-6.8992,-25.554,3.2679,
6.7457,-38.9344,-24.4034,5.3205,8.0461,-20.0341,-3.163,6.233,-31.8697,4.7364,3.0294,-3.352,-25.708,2.8306,
-0.16653,-36.3569,-24.6262,6.6885,3.9484,-14.2528,-1.286,6.1002,-19.5932,4.6937,-0.28539,3.357,-31.1551,6.2762,
-3.7722,-27.6682,-24.836,9.4204,10.2187,-6.8899,-1.9319,11.2776,-10.4641,6.0991,4.7932,4.8426,-31.9372,19.9996,
1.7568,-19.7412,-20.9355,14.6398,15.8726,-0.69193,-4.2261,13.9754,-14.6565,4.2869,4.9875,4.0701,-28.5747,30.9717,
3.3388,-19.2798,-19.4382,10.1462,10.3407,3.9291,-5.66,10.4855,-21.7311,0.89638,-3.7476,2.6204,-26.1373,26.462,
0.24599,-25.3539,-22.1283,2.3066,4.4176,0.8013,-2.4279,7.4461,-19.4629,-1.0856,-3.0404,-0.91082,-28.9074,20.536,
-0.97384,-26.9659,-19.5955,5.7834,6.8039,-2.8624,-1.0772,10.6147,-4.1951,3.5591,11.242,0.83083,-30.3064,17.6164,
0.53086,-26.312,-16.4916,8.8108,5.9137,2.13,-2.9407,10.46,0.033442,7.2019,19.8466,3.6735,-27.0418,17.0413,
2.186,-24.0104,-22.0098,3.2207,0.497,3.6892,-3.9694,6.6989,-14.0686,4.6004,4.5558,-2.0908,-29.9988,20.1164,
2.0548,-15.339,-22.6174,3.0275,0.46764,2.504,-6.1413,8.7073,-23.9502,7.2169,-4.0328,0.44482,-33.0193,27.5866,
-4.0938,-8.3928,-18.6091,9.3535,3.5728,10.3077,-7.9422,8.908,-16.0055,11.8453,2.7169,10.7827,-34.6536,31.4747,
-4.5713,-8.13,-21.1079,10.9617,6.0098,16.197,-6.2606,7.6504,-16.7322,9.9295,8.5797,13.7509,-36.1896,29.8275,
1.7286,-7.4017,-20.0827,9.0987,5.8902,12.5736,-3.2339,11.7707,-16.9335,6.2003,11.1979,14.1307,-32.3312,30.6889,
3.0709,-6.4754,-14.0572,8.0706,2.1621,6.9987,-8.3423,11.5466,-15.4358,4.3822,3.7774,15.2113,-31.8376,28.8473,
0.71746,-12.5944,-15.8649,4.4534,0.34558,5.374,-11.9391,6.2745,-22.4629,6.2885,-5.3669,11.6475,-34.9886,27.3579,
-1.495,-17.3826,-18.5284,2.9806,0.083653,7.2204,-11.9459,6.1388,-27.1409,8.0805,-5.2861,3.4766,-31.2022,30.296,
1.246,-14.6522,-13.8013,6.8994,-0.6445,7.5103,-10.0236,13.2425,-21.8968,4.9444,-2.7995,-1.3115,-28.1248,25.3449,
4.0638,-13.2911,-11.045,7.4493,-1.5702,2.239,-5.0839,15.34,-14.7989,1.7552,-3.5959,-0.26848,-32.7043,17.0753,
0.44529,-10.5657,-9.4182,7.9664,-0.029454,3.5507,-6.7073,13.9379,-13.4288,5.0246,0.47651,0.71173,-33.1522,29.5484,
-3.4376,-6.557,-5.9608,12.3094,4.3109,12.015,-9.6791,10.2093,-18.4074,8.5793,4.7865,-0.77701,-27.3067,34.0422,
-0.8212,-8.0918,-10.4237,6.7501,6.4623,10.3298,-10.0622,5.7404,-23.0876,5.6544,1.1248,-1.6947,-27.5962,38.7482,
2.8435,-9.7755,-11.4855,-1.1267,1.4949,4.1664,-12.11,3.7087,-23.3895,1.6997,-0.14796,2.0224,-27.6279,50.5233,
-0.70135,-7.7429,-7.4219,1.3513,0.92346,12.1113,-12.8294,6.3785,-24.3965,4.9719,4.6814,5.7572,-25.4883,61.5919,
-2.1055,-4.3858,-5.5303,9.4649,3.2782,17.1692,-10.6134,9.3702,-25.3429,6.1199,5.3648,5.4122,-27.3332,71.9964,
1.1541,-6.2925,-7.8503,7.6919,2.8403,8.667,-9.2539,6.1562,-23.5816,2.6194,3.3555,5.3282,-30.273,81.7766,
1.808,-12.9046,-11.4766,-1.6879,-0.46338,-0.28889,-10.3857,4.5818,-23.3717,1.7391,2.431,0.91096,-32.0718,90.97,
1.9404,-16.2277,-11.5109,-5.2016,-2.1228,-3.4046,-11.9317,3.1021,-28.4769,1.3938,-4.2223,-8.0613,-31.8345,99.6118,
1.3419,-14.2899,-6.4819,-4.4078,2.825,-6.0926,-8.3235,2.9157,-33.9994,2.2743,-12.6458,-1.7933,-26.5502,101.1069,
0.056276,-18.0116,-1.9952,-1.4915,5.7893,-13.1986,-6.619,4.9102,-30.7539,2.861,-10.682,6.7502,-27.6083,80.9405,
6.0787,-16.2082,3.1857,7.0334,9.0571,-3.9713,-0.67852,12.0871,-17.0987,7.7508,0.323,6.5864,-23.7828,61.984,
7.4012,-9.6921,-0.62061,3.9603,10.2009,4.2212,0.085556,9.6751,-22.0984,6.0804,-2.8299,-0.79865,-22.5966,44.165,
5.7516,2.2174,-4.6812,0.10705,13.204,6.6188,-4.9815,8.371,-34.511,2.1004,-8.6859,4.7926,-28.7131,27.4151,
8.5404,14.3769,-3.677,4.6804,14.099,15.1402,-4.9231,11.4847,-32.6813,0.28715,-7.9233,5.7104,-31.5693,11.6702,
12.3661,16.4065,0.40005,11.6302,8.9145,17.1236,-1.7359,8.8671,-26.8643,0.75208,-5.038,-5.7192,-27.2651,-3.13,
7.768,12.0479,-2.0341,12.3788,5.0054,10.3119,-3.0773,9.2992,-26.2161,4.0812,-2.8073,-2.0019,-23.2188,-17.0422,
1.5171,12.2891,-3.3581,7.7795,9.0437,12.5854,-7.2312,10.1878,-20.7869,6.7291,-4.5668,10.1696,-21.8257,-30.1197,
5.2825,11.5518,-4.6031,3.9383,8.5006,15.6867,-12.1005,4.7553,-21.4679,2.4685,-4.2933,4.7387,-25.3368,-42.4125,
11.4732,10.6179,-3.1216,4.9075,9.1961,13.5404,-9.205,5.6755,-25.2413,1.5972,2.9544,3.2493,-21.6472,-53.9678,
1.8668,10.7038,-1.2471,2.4434,10.3315,9.5945,-7.4474,6.5403,-33.1268,-0.18583,-6.6228,12.9367,-19.6253,-64.8297,
-1.3785,15.6049,0.51498,2.0561,10.9167,13.5984,-6.2775,6.3886,-33.3086,-1.3797,-12.7332,16.7401,-21.5812,-75.0399,
6.1762,10.0896,1.6891,3.6197,9.5386,13.0237,-6.142,7.2108,-23.3561,-0.57383,-0.15882,5.3716,-20.0452,-84.6375,
6.5286,3.4582,1.8288,4.6078,9.2072,11.5189,-7.4607,7.5011,-18.8213,-0.78036,2.9837,-1.4587,-14.263,-93.6593,
0.3525,5.1791,0.273,4.3311,7.6907,8.8998,-7.0128,9.4614,-23.4768,0.23055,-4.4259,2.4855,-11.9611,-95.9934,
1.5362,4.627,1.4617,5.2766,3.1319,4.268,-3.459,11.5448,-20.381,4.3141,-1.9912,5.9513,-16.7871,-90.475,
3.6134,-0.71212,5.4713,4.2368,0.77459,-0.56716,-1.564,12.5391,-6.8658,8.6347,2.2259,3.4253,-18.9131,-83.8415,
3.6373,0.053741,5.8662,5.1877,0.48738,-0.77432,-1.7114,12.9918,-8.6233,7.3935,0.88725,4.4248,-16.5733,-79.0519,
3.6601,-0.19045,5.7552,5.1174,0.21717,-1.4508,-2.814,12.4533,-10.275,5.7446,-0.85367,4.8822,-14.8557,-74.5498,
4.6458,1.5082,7.0971,6.4976,0.92704,-0.64082,-1.9218,13.3933,-10.8633,5.6414,-1.5253,6.7589,-11.7952,-68.8717,
5.0901,2.1408,7.8763,7.3128,1.5945,-0.84356,-2.0477,13.7948,-11.4171,5.5436,-2.157,8.0404,-9.4003,-64.0163,
5.7491,3.4587,8.85,8.8022,1.9808,-0.31056,-1.4424,14.8957,-12.1778,5.211,-2.5095,9.4862,-6.9081,-59.6932,
5.8858,3.7328,9.2831,10.2025,2.8261,-0.29215,-1.8381,15.448,-12.4117,4.8986,-3.323,11.3273,-4.0835,-55.6296,
7.4606,2.0628,8.7259,8.6258,-1.2001,-4.1312,-0.28175,10.6645,-2.9902,4.1225,3.6251,12.5757,1.464,-59.0408,
7.0135,-2.3993,8.6845,7.1444,-5.4664,-11.1137,1.6634,10.989,3.4562,9.6597,0.033099,13.2674,-2.962,-60.8007,
10.2078,-1.0502,6.9581,7.9208,-2.0052,-14.5445,3.7325,11.5347,16.505,11.2491,-1.1739,15.1227,-1.5794,-56.4298,
9.8366,0.21784,2.9252,10.0969,-4.5362,-15.8412,-2.5168,10.1195,25.8788,5.5127,-0.38038,12.5278,-0.2796,-55.2132,
8.0413,-1.4822,3.955,10.2142,-8.3612,-14.6496,-1.6426,13.6099,24.5673,4.9412,-4.4551,10.0892,-5.8062,-53.5874,
4.6665,-0.4292,3.7177,10.0835,-6.8954,-14.2527,3.2764,16.1675,22.6111,10.4295,-7.5621,9.966,-3.5296,-39.7671,
0.77112,-2.0907,-4.9413,7.7913,-8.6508,-12.6742,-1.9819,12.5464,26.798,6.1879,-4.4572,10.5729,1.2617,-27.981,
0.96582,-4.1344,-12.1164,3.2264,-9.3371,-10.2265,-6.4422,12.9984,29.288,-5.0292,-1.0563,7.7693,-8.214,-34.2559,
-3.4304,-3.8863,-14.2817,0.62271,-11.187,-11.5411,-4.6094,13.1829,23.1919,-5.6918,-4.3674,4.4111,-12.5417,-41.8415,
-5.6352,-1.725,-14.3891,1.0673,-12.4442,-10.3667,-1.4408,13.3557,28.0674,3.8088,-6.9974,7.5209,2.1903,-34.9927,
-3.3687,-2.1036,-14.0079,2.4493,-12.6616,-7.8168,-1.8365,14.9648,31.6857,5.0263,-8.9879,8.5157,2.5408,-30.965,
-3.8897,-2.2186,-13.4082,3.5074,-12.6248,-5.1784,-5.8237,14.79,21.8306,1.5914,-9.1718,7.2816,-8.9398,-30.3121,
-3.1744,-2.5674,-13.0861,4.2608,-9.4574,-7.2783,-7.8846,11.9744,21.967,8.2444,-6.6933,10.7011,-4.5473,-24.1551,
4.9701,-4.5825,-13.5057,8.1032,-5.2743,-11.9026,-3.7959,11.9791,25.7105,15.2218,-7.0148,10.3002,9.8256,-23.9108,
2.7437,-3.3435,-10.285,7.1351,-3.5116,-7.8139,2.6986,15.5987,17.9013,13.3446,-10.9322,5.8258,16.1057,-21.5119,
-1.7595,0.23158,-7.2576,4.2966,-4.265,2.2956,5.4292,17.5555,9.1147,9.1697,-9.3122,8.8505,7.9087,-12.5084,
-0.20767,1.1818,-14.5351,3.0745,-9.7937,0.71163,-0.19943,14.5735,2.3008,0.42435,-10.1997,8.3195,1.6494,-14.1682,
-0.67737,4.4851,-17.5196,4.3361,-12.0986,-3.1877,-5.4901,14.1813,-3.1401,-1.0471,-13.9263,4.928,5.4068,-19.1027,
-2.8059,6.3852,-9.4786,4.7988,-15.47,5.4397,-1.0634,15.0176,3.5563,9.3796,-8.9934,8.7297,8.6976,-16.2696,
-2.3966,2.869,-11.079,-0.55036,-19.6033,9.2107,0.20574,9.0549,4.0662,8.0939,-5.8022,9.8931,5.0427,-14.57,
2.5679,6.5528,-12.8246,0.44653,-11.1965,5.766,0.1934,7.5477,-9.6755,2.7875,-7.3823,6.407,5.2221,-12.732,
-0.71963,8.8112,-12.7783,-1.2675,-7.3914,1.8041,-4.398,4.4433,-19.9413,-3.4053,-14.8935,-0.002944,0.81117,-11.7271,
-0.19429,8.2823,-11.0475,-1.1912,-8.8761,5.5525,-4.1338,4.1769,-11.9961,-0.30866,-18.338,1.4433,-0.2016,-11.5054,
3.4326,8.0265,-6.769,2.4959,-8.1024,6.4249,-1.7164,3.6851,-8.6246,6.7,-15.5503,5.4542,2.4621,-12.0201,
2.9859,8.75,-5.1578,2.105,-5.4471,3.3881,-2.8185,2.2589,-12.6866,5.5748,-11.484,5.3682,8.3399,-5.7553,
-0.56796,5.3327,-7.7409,-1.878,-9.941,-0.67184,-7.4703,5.0157,-10.9618,2.3476,-16.0978,0.22516,12.1778,-2.9999,
-2.4621,2.6026,-2.9379,-0.31902,-10.3084,-3.524,-6.54,8.0892,-8.3759,8.4737,-12.2395,11.7813,12.8934,-4.7481,
-1.1091,-0.20462,-0.59219,0.42348,-7.0385,-4.9994,-0.60394,7.8448,-19.6834,10.1345,-1.1412,22.4026,14.2892,-3.2579,
-1.2837,-0.91593,-4.6545,-1.7718,-8.7856,-2.5305,-3.2193,6.651,-32.241,-2.284,-0.34962,9.2481,16.0827,-3.7858,
-0.0013986,1.3086,-3.1699,0.98608,-4.1609,8.4676,-5.6772,8.903,-29.5832,-8.1725,1.3586,5.0778,24.0358,0.53896,
-0.0013152,0.2658,-0.087426,0.44499,-0.53702,12.2979,-4.8544,6.4407,-32.1465,-6.2359,-0.16919,14.8965,27.8963,11.5938,
-2.8935,3.1421,-3.9386,-1.5101,-4.8434,7.2215,-4.5631,4.1263,-36.4849,-2.9694,-3.5333,13.0381,22.8481,15.7185,
-3.443,3.6767,-2.015,-0.6964,-12.0243,5.5831,-5.9766,5.0837,-27.7877,0.34199,-1.1523,8.6406,18.8259,13.0884,
-0.82611,2.974,3.8905,1.7557,-11.7848,7.6585,-7.064,3.3327,-24.1924,0.3217,-1.5649,12.9427,22.517,13.7493,
-1.2587,4.724,2.2108,-0.27802,-9.6319,4.3067,-5.1944,1.2043,-26.5975,2.7123,-0.50737,11.684,22.1299,13.4063,
-5.5217,2.994,4.0063,-3.1536,-9.0538,-3.6647,-1.5083,4.9887,-17.2886,4.478,4.344,10.0188,19.8382,9.2275,
-4.4673,-4.6572,6.8994,-1.7589,-10.1978,-3.6856,-2.6226,10.2327,-13.6,2.5223,3.3602,13.0333,28.5301,7.469,
-4.9222,-4.6187,3.8341,-0.93046,-11.7551,4.9712,-3.6705,8.8959,-21.7021,5.504,3.8815,11.0461,35.2542,8.7078,
-10.8936,-0.0030475,3.6041,-6.6594,-8.1575,7.0833,-2.9684,4.0236,-18.4715,4.2097,9.9154,9.9011,29.7645,11.5596,
-10.24,-6.7518,2.4237,-14.4546,-5.7398,-0.090596,-6.1645,2.3359,-4.8302,-6.1658,9.8024,4.9687,24.6042,3.1532,
-4.0822,-10.4442,0.59109,-11.9003,-7.0827,-2.2541,-3.6255,0.99067,-6.7093,-7.0014,3.1889,-1.8371,28.1894,-8.8463,
1.9476,2.2342,7.7867,0.86549,-1.837,6.0761,6.7154,1.4134,-19.322,-2.2423,-0.85902,3.0941,34.211,-0.60229,
-2.7488,6.1973,8.5243,-2.3202,1.8884,2.5778,4.1431,-0.35887,-22.2602,-6.6877,-3.4588,5.0774,31.4352,9.7977,
-1.8607,5.1023,9.7003,-1.4578,2.0163,-1.674,3.1714,8.099,-9.1142,1.6675,1.3282,3.0857,33.6467,9.933,
-1.7491,3.3504,10.0824,1.5222,-6.2996,0.83658,1.0529,8.095,-9.5317,3.4956,1.2485,-0.47388,32.592,4.5165,
-4.7776,4.8361,10.6823,-1.2207,-7.6091,5.8481,-2.1437,-0.34488,-14.9854,-7.0784,4.3071,4.1338,29.4309,8.8248,
-6.9011,4.5459,7.6312,-6.932,-7.1523,6.9434,-4.4252,-0.80612,-15.0506,-8.0995,5.495,3.4039,27.6653,10.7059,
-4.7998,7.4067,11.2707,-5.3108,-6.0003,7.2497,-1.5084,7.196,-9.5678,6.4865,2.0318,1.5124,27.6926,10.7865,
-4.5121,6.9625,13.4868,-1.618,-8.5325,3.9225,-3.3461,2.9081,-4.1732,12.0023,1.9096,-0.98868,22.1747,5.3188,
-2.3131,3.1703,9.3033,-1.5209,-11.3948,3.6871,-4.1092,-0.64087,-4.8872,-2.6971,2.2775,-4.3038,20.8442,1.6252,
2.8871,3.2208,5.1297,-2.6347,-8.0598,6.1172,-0.24745,4.459,-15.9219,-9.043,-1.4748,-7.1788,27.0653,8.0354,
-0.90132,3.2688,2.1706,-9.9486,-8.2993,-3.1677,-5.7764,-2.7982,-24.8488,-4.8852,-4.0377,-14.2197,24.2361,6.8301,
-2.5342,5.724,8.5481,-13.4489,-3.704,-8.5214,-5.1887,-6.7278,-18.7783,-0.97645,2.7123,-11.1976,25.4333,3.2871,
-4.7928,0.55981,10.4453,-11.1961,-3.4818,-10.9022,0.90723,-1.9854,-17.1697,-6.2205,6.4059,-7.1513,31.6201,-3.1769,
-6.1924,-5.0174,7.6494,-6.9089,-4.4779,-10.489,2.0579,0.30289,-15.4161,-2.2319,6.263,-5.035,35.2665,-6.6015,
-2.6874,-3.0291,6.9495,-5.2891,-0.11169,-4.3161,-1.6808,-3.3307,-8.9476,1.9994,4.2,-6.4201,34.8377,0.78427,
-1.5621,4.8656,9.4248,-5.4539,2.3051,0.28096,-2.544,-4.095,-10.8211,-4.3873,4.9121,-9.891,31.3014,8.9319,
-3.8785,6.9838,11.2695,-8.9831,-2.1717,-6.0024,-4.802,-8.188,-17.885,-6.5347,4.6169,-12.1901,23.1564,6.4678,
0.21063,2.7084,11.0757,-12.3,-3.0053,-8.5343,-7.4059,-11.0708,-16.8115,-1.8038,6.2686,-13.3869,23.6956,3.1877,
1.644,-2.2746,8.0008,-13.0085,-0.41484,-5.6124,-5.5151,-5.586,-13.3924,-3.6235,5.4103,-12.1015,30.9508,8.2988,
-2.7929,1.2363,9.9311,-9.8179,2.0204,-1.9012,0.6004,1.0157,-9.2144,-0.99599,1.7112,-8.9653,33.432,8.7652,
-0.69717,3.5723,12.2273,-4.4081,-0.51117,-4.6796,-2.8101,-3.8655,-11.0721,3.4021,1.6085,-11.8018,27.5697,0.044154,
5.3704,0.22469,10.2886,-1.4923,-0.72147,-7.5321,-1.9183,-6.7669,-14.5054,-5.2379,6.5735,-17.601,30.0129,-4.5378,
6.2533,-0.51192,10.8766,-1.6439,0.52688,-5.3927,6.1503,-2.2637,-10.9838,-8.0569,4.4921,-19.6786,32.3097,-3.0605,
2.5036,0.96506,7.8136,-2.5092,-0.95076,-6.9973,2.4073,-0.19971,-10.3243,-2.7528,-1.562,-17.0517,25.5506,4.3542,
-2.7083,1.1481,0.83709,-5.4921,2.2398,-6.8185,-5.209,-0.91063,-14.2846,-2.3467,4.0753,-5.6642,25.7048,17.8313,
-7.3663,4.9354,-3.0698,-9.5011,4.9972,1.7851,-6.3429,-0.85622,-19.6942,-8.4726,3.3486,-0.021957,28.9826,27.8484,
-5.9602,9.4602,-1.9212,-7.485,1.8051,9.391,-8.8546,-0.80462,-17.0665,-7.9645,0.73734,-8.2156,26.28,28.1059,
-3.6742,7.4461,-0.84187,-8,-1.1955,2.5608,-10.7337,-5.0949,-12.6679,-4.5943,4.0678,-14.4713,24.221,17.2603,
-2.0077,12.7842,1.6188,-5.1097,4.661,-3.8596,-2.3767,-2.8612,-13.8362,-5.7647,8.1618,-7.8187,34.3367,11.4042,
1.7282,18.0426,1.7628,-0.70573,10.4069,-0.49453,2.3452,-0.038008,-19.9959,-7.106,6.9492,-7.5905,41.1945,9.9971,
8.3734,14.55,5.0313,5.1212,12.675,-4.3212,5.097,-2.4459,-14.9398,-1.377,-0.21666,-9.5452,34.8665,3.6127,
6.1838,7.6514,4.9706,4.091,10.7092,-12.98,9.3705,-6.3965,-8.9817,0.87476,-4.7829,-6.321,29.6415,1.2267,
-2.3824,3.3359,-2.5585,-3.3853,7.1746,-15.0933,3.0237,-6.0127,-10.8529,-3.0341,0.80668,-10.7624,32.6832,4.5276,
-5.6135,0.7252,-4.3331,-2.6998,6.7441,-13.2238,-1.0141,-0.34972,-10.2018,-3.8159,6.0609,-13.4911,34.5786,6.1841,
-8.4104,-2.9335,-2.3862,-2.297,5.6159,-9.7791,7.0007,4.2508,-7.4207,-3.3462,3.5279,-5.692,29.8526,11.8384,
-10.798,-1.3115,-8.0276,-6.4978,7.2074,-6.7824,5.1341,1.5854,-8.9034,-11.8223,0.42392,-9.689,22.759,20.2869,
-2.9193,8.4082,-8.0279,-6.1079,10.6313,-2.5186,0.9697,0.52639,-9.8155,-15.4513,1.8447,-12.9641,26.2137,19.0697,
0.6303,6.9398,-3.2076,-3.8132,6.1371,-5.742,7.1785,-0.46952,-8.2622,-12.1141,0.2878,-10.2576,30.9079,11.659,
-0.85378,0.25693,-2.0511,-1.1739,7.697,-9.7358,9.6403,0.52297,-3.9101,-8.0128,2.6811,-13.9809,30.0177,10.4775,
-0.079418,0.00032028,-6.0256,-1.8266,17.1174,-16.1413,8.3388,-0.23153,-4.881,-7.7732,6.1354,-19.1678,31.3495,2.8592,
3.0586,3.6155,-2.5306,-0.5119,22.598,-22.6448,16.2743,0.50549,-8.6853,-3.6912,6.9724,-11.5096,39.3507,-0.92798,
5.2852,3.8805,0.51332,-0.48119,23.6523,-20.8042,18.1899,-0.9711,-11.5386,-1.5415,6.554,-6.4807,40.3641,6.8405,
4.0045,4.6122,-5.3018,-9.1292,21.269,-17.6275,9.8679,-8.1434,-13.2562,-9.644,1.8222,-16.215,30.2297,1.61,
9.7897,9.8791,-4.2608,-6.8942,19.7519,-27.4161,13.3732,-7.4139,-3.5432,-9.3063,3.8821,-15.0011,31.5489,-8.8509,
1.9715,0.60926,-9.7897,-2.1422,13.7466,-39.8712,13.0527,-4.0765,3.4183,-7.7841,6.5417,-13.1367,33.0304,-11.6943,
-2.4853,4.4289,-17.3973,-1.0496,10.029,-29.1633,6.0028,1.9524,4.1773,-9.7274,3.2569,-14.7589,29.1202,-1.8338,
-3.0596,18.2631,-20.933,-6.5302,-0.45465,-13.3135,0.099056,2.0762,11.398,-13.723,-5.8566,-14.5967,22.3113,5.2661,
-6.4912,15.6006,-18.9541,-7.8259,-12.2377,1.5853,4.6726,2.6748,24.8141,-6.8743,-6.2283,-10.1057,21.6958,8.0834,
-5.8605,7.193,-19.0217,-5.1869,-13.6724,-0.9199,7.526,5.1656,37.4253,-2.8462,-8.506,-9.2577,22.0815,1.573,
-1.1706,17.8486,-22.2189,-7.7678,-10.9239,2.9912,1.7718,0.99931,33.9749,-8.46,-13.2983,-13.041,17.3821,-7.1984,
-0.3772,25.2136,-23.0552,-3.6865,-6.6532,7.8732,1.4243,0.21622,43.7463,-8.6755,-2.6182,-8.6434,19.4725,3.5976,
-12.1649,9.6008,-32.5177,-6.5986,-14.2076,-6.6992,1.0981,-2.4481,46.1834,-10.3239,1.6365,-13.6682,19.0272,6.033,
-9.5066,-0.255,-30.0847,-6.6848,-13.8375,-14.6122,8.7447,3.0012,53.0536,-0.5457,2.02,-12.8478,24.1523,-2.042,
-6.2849,3.376,-25.1463,-4.5963,-11.32,-19.7612,8.9432,1.6161,53.4856,2.1384,-0.75207,-9.908,23.9083,-12.2835,
-8.5591,4.8604,-23.3966,-2.6335,-8.4717,-24.1194,9.6117,-0.16787,47.1432,3.6971,0.49812,-7.1442,25.607,-9.3774,
-12.1432,1.4355,-28.5005,-7.055,-12.0607,-29.18,8.7938,-0.399,44.5554,3.7164,-2.1831,-12.7413,21.9017,-8.5738,
-7.5579,3.2778,-31.1286,-5.1852,-16.1573,-34.6595,9.7126,1.5534,51.0413,3.0113,-2.5343,-13.9048,19.6235,-14.3256,
-1.5613,5.7322,-27.5739,-1.2592,-10.1267,-32.8212,11.299,-0.22706,48.7017,3.0716,-1.6593,-8.9731,21.0972,-14.6714,
-2.6725,10.9319,-24.2324,0.50362,-3.9754,-16.7519,9.8977,0.027527,37.3439,2.6463,-1.8007,-8.6762,16.6979,0.30891,
-3.9579,16.0606,-30.0089,-1.9367,-4.7008,-4.5388,4.966,5.3285,26.4262,0.077405,-2.1746,-11.0477,13.7682,14.3904,
4.474,13.6509,-33.5112,-5.1952,-3.4549,-8.6055,7.0779,5.4905,26.2867,1.5188,-5.4184,-7.4925,24.0291,10.1523,
4.9287,1.9858,-34.6338,-7.5344,-2.5245,-13.6326,9.3046,-0.3823,32.1815,2.1508,-6.7807,-7.2842,28.6127,-2.2668,
-0.91085,0.66115,-37.6174,-7.8054,-0.68599,-10.1633,8.5051,0.36377,33.8658,-1.1115,5.9184,-10.4623,20.8706,2.4488,
2.0361,7.3702,-40.6628,-8.3012,-0.64483,-11.4819,8.9589,4.1981,28.9416,-0.56312,11.3481,-14.1731,19.6182,-1.0728,
2.8783,1.6258,-44.0079,-13.1058,-2.0522,-21.3978,8.4214,-0.87404,25.7588,1.3989,-0.41999,-20.0712,22.7794,-15.1085,
2.4646,-0.15901,-39.198,-8.2221,1.6864,-21.3193,10.5676,-1.5445,26.8648,2.5202,-0.63576,-19.1083,24.5461,-19.6249,
-1.7806,2.984,-39.9794,-6.0415,-2.9941,-19.3167,6.8001,0.2354,19.7093,-1.2459,0.60768,-18.6843,18.0121,-15.3139,
-3.361,10.2768,-42.6421,-3.9918,-5.4658,-15.9886,4.7049,2.8724,17.8039,0.033641,-0.63407,-15.3941,18.1362,-16.5642,
-6.0519,11.5879,-44.9043,-2.7884,-5.6202,-13.5835,4.4226,0.77183,16.7352,-1.8966,1.3322,-12.0607,22.8326,-10.2682,
-3.5194,8.2418,-41.0047,-4.7901,-3.5955,-11.5629,7.7729,-1.4439,15.0084,0.86855,7.7599,-2.9007,29.8986,2.6407,
-4.7542,8.7114,-40.9548,-8.8412,-2.8979,-10.387,5.86,-1.357,9.7693,3.7087,0.54567,0.64753,30.0331,5.8564,
-6.3976,15.901,-40.9078,-4.4543,1.1324,-5.4255,5.0265,6.9191,5.8087,1.558,-0.45139,-2.7658,30.1593,7.9152,
-7.4594,12.0551,-43.7558,-3.223,-3.2739,-4.6178,3.7608,6.9861,3.0503,-5.7661,9.2169,-6.9379,27.3856,7.9224,
-4.6019,9.4034,-39.2023,-3.9937,-4.0415,-5.3048,4.9816,-1.628,2.8671,-1.564,7.2178,-4.5937,27.6709,3.5909,
-0.95133,16.07,-34.44,-5.2003,4.3957,-7.879,4.6823,-1.0484,-0.19748,4.3145,-4.3025,-7.2106,31.7948,1.9288,
2.7212,20.1675,-38.3991,-8.0213,10.6396,-5.7191,6.5705,5.0401,-5.2469,-8.2369,-1.3932,-16.6599,33.0206,-0.35612,
3.763,20.6444,-38.2643,-6.8169,9.2781,-4.1709,10.2739,-0.8057,-3.245,-16.1782,6.6443,-17.8292,29.3524,-11.1808,
4.0193,20.3699,-32.1123,-2.0698,7.2754,-13.0794,10.1396,-6.5422,5.6265,-1.2284,2.871,-11.457,31.9293,-17.2586,
5.4652,15.0501,-33.801,-3.1507,3.2232,-18.3206,7.8438,-3.4983,1.6733,4.3891,-8.6292,-12.4571,31.2186,-12.6079,
4.8961,12.4601,-33.9421,-2.2385,5.1992,-12.6417,10.5068,-1.119,-4.9344,-2.3819,-7.8703,-12.4328,26.2122,-1.9693,
0.74638,11.2306,-32.8695,0.30591,8.7437,-16.2217,12.7685,-3.462,2.5925,-0.79275,-0.16721,-9.7582,24.64,-5.2251,
1.9064,12.2439,-29.2103,-0.43535,7.9781,-24.1662,10.3152,-2.5314,10.3907,1.424,0.083786,-9.4141,31.1153,-10.9376,
5.1665,17.2934,-24.0834,-2.8198,7.9813,-15.9678,10.6601,-0.45131,4.4646,-0.10772,-3.2957,-5.9567,38.407,2.7341,
3.4105,18.1842,-22.6382,-5.0605,7.9846,-12.5994,11.467,-0.9064,0.82253,-2.5116,2.6864,-3.6714,34.6565,7.3905,
2.4825,13.9597,-24.4134,-4.034,3.4082,-17.387,7.1636,-0.12865,4.3881,-14.171,8.5512,-10.4405,27.9978,-7.1529,
1.6106,15.2917,-26.0819,-4.9972,0.070197,-10.3183,4.0826,0.60197,4.3663,-18.3825,3.9403,-10.5374,27.5228,-9.9775,
-0.89658,23.0509,-24.035,-4.215,1.9942,-1.0221,4.3196,2.494,4.1043,-7.6385,2.2581,-2.1924,23.9432,3.1542,
-2.7708,18.2936,-23.0746,-4.4443,3.321,-2.8887,4.5426,2.8266,10.6067,-2.3593,5.4969,-6.8809,20.5787,2.9652,
1.0109,9.2422,-17.5928,-2.0085,5.2909,-4.8846,9.3317,0.48781,16.4778,-1.0129,4.4441,-10.5658,32.1184,-0.34577,
3.3606,9.6518,-17.5013,-0.92386,2.0812,-3.1455,6.8434,-4.3619,9.2228,-3.8444,0.80327,-7.0396,32.1193,-0.80719,
2.4356,17.5084,-17.1744,-0.14507,2.1973,3.5508,5.7099,-0.9672,12.2844,-1.9265,8.2264,2.3008,25.1309,5.2668,
-5.4231,10.1916,-17.108,-2.0648,0.6194,-3.411,6.8133,1.0193,17.3322,3.4919,8.215,5.0551,19.2845,3.9867,
-6.5439,2.3493,-17.0456,-0.97657,-0.86402,-10.9191,8.3327,-0.0062257,11.9539,5.2102,2.9014,4.7518,21.0195,3.2656,
-0.60792,2.931,-13.8537,-0.67724,-0.57144,-9.541,7.5916,-0.24659,10.0312,2.7286,6.343,4.7074,27.7123,6.2029,
-0.08905,2.7551,-13.0225,-6.4212,-5.3576,-9.4505,5.2079,2.6603,9.9117,1.1186,7.4086,5.3893,24.6033,-0.43627,
-8.2789,-0.78419,-16.5797,-10.3742,-10.3386,-12.7399,3.9315,5.8751,6.4245,-0.87667,1.6615,1.6915,15.4143,-9.5689,
-7.2997,-1.2191,-13.6565,-3.9672,-4.4156,-11.4933,7.0701,3.5944,18.5725,-1.306,4.9362,-4.6765,20.274,-6.5844,
-1.0772,1.2642,-8.4988,-1.319,-0.29431,-7.9114,5.6816,0.96861,24.689,1.1825,9.9427,-1.5034,31.1091,-0.8867,
-2.941,-0.74008,-9.4351,-7.5066,-3.1689,-4.0627,0.037801,4.2847,9.1076,0.14744,2.597,4.3711,24.4217,-0.35179,
-5.1749,1.2328,-8.3868,-6.5741,0.87735,3.4121,5.3384,7.4019,3.8612,-1.3074,-0.4511,4.591,20.5465,11.2387,
-6.7923,-1.734,-10.7762,-5.6975,4.1989,3.6891,5.9822,1.6553,15.1984,-3.6393,1.5044,-0.50537,28.4725,18.7593,
-5.6619,-5.2453,-10.8527,-5.1147,0.81397,3.2268,0.56159,1.315,13.0812,-3.6624,-2.2013,-0.23408,28.9333,17.8747,
-2.6706,-1.7971,-8.0322,-4.0849,-1.404,3.7565,4.1433,3.4053,8.199,-3.6832,-3.2745,1.4676,22.1361,16.0793,
-2.2694,6.2649,-2.4886,-4.0808,4.2238,3.2902,10.4027,4.4063,21.4459,-2.2574,8.7325,3.0668,24.9053,9.0886,
-7.4359,5.4066,-1.3751,-3.3535,6.3805,5.5029,5.9221,3.6595,31.2463,-1.6395,13.0288,2.4004,31.6057,3.723,
-11.3281,-1.1843,-8.0413,-1.7065,5.0338,8.0652,0.74607,1.9941,27.4434,-1.0592,4.5343,2.2564,30.1912,10.2485,
-11.1308,-1.5952,-12.8615,-1.6041,3.7675,3.2425,1.6656,1.3921,25.3144,-0.51373,5.7085,1.1571,25.4877,13.49,
-7.0883,-1.9816,-7.7512,-3.9178,4.9875,-1.2901,1.5655,2.7551,32.9548,0.96313,14.0429,2.5337,27.3327,10.2703,
-5.9398,-9.3343,-6.0811,-9.7085,4.9294,-0.97197,2.6766,2.8305,37.0033,0.6646,12.9591,2.141,24.9696,9.8952,
-6.307,-7.0873,-10.2958,-5.5108,5.8387,0.29141,7.5775,1.4556,35.5057,-0.098404,13.3866,-3.0494,21.7844,10.9885,
-3.2773,0.80956,-9.919,0.36371,4.7652,-0.93114,8.3279,0.64513,32.6523,-2.7438,12.3427,-5.5177,25.5388,8.1598,
0.29426,3.1716,-8.3597,-0.62243,2.5511,1.0529,4.4542,1.5708,24.4266,-4.5074,3.8894,-4.2224,27.8629,4.7782,
-2.8571,6.5965,-13.4018,0.13804,2.1569,8.4618,5.392,0.27144,22.2379,-5.9244,5.8249,-1.8001,26.9142,10.5168,
-7.0238,6.2009,-16.936,-2.2806,-1.3468,9.882,6.9965,-3.6015,26.2065,-7.9788,5.9576,-3.62,20.4789,13.7424,
0.3873,6.0696,-14.2328,-1.9026,4.2779,10.0122,6.8179,-0.25211,31.1418,-2.9206,1.0206,-6.0542,19.4913,9.7846,
-4.9386,5.7054,-13.3789,-0.34215,11.2521,9.4115,5.4445,1.6912,29.2733,-3.2277,0.47746,-10.5112,23.624,6.7869,
-14.0425,3.6761,-13.7812,-0.56282,7.4437,9.57,4.8771,-1.5435,25.8294,-9.5418,2.6182,-15.4243,22.4478,9.9954,
-4.5231,3.9372,-13.4365,1.3989,1.6942,7.0673,5.0661,-0.48682,25.7257,-4.6307,1.0146,-14.4987,19.6549,8.4316,
0.32805,4.9063,-10.9428,0.59208,1.3516,-4.6844,5.9675,0.74769,30.2082,1.1907,-0.73302,-12.9058,23.0549,-0.02808,
-4.994,7.9866,-9.3222,1.5207,8.0191,-6.3318,6.0916,-0.26127,35.6263,-0.80868,6.0596,-12.1313,27.9383,-0.50856,
-3.2484,7.9891,-10.2091,1.9116,11.3946,8.1481,3.7977,-0.72776,33.4885,-5.0987,11.4804,-12.8499,22.8878,3.8605,
-0.16118,7.51,-7.6681,0.83278,7.8186,9.9491,5.0163,0.28,33.89,-5.275,3.079,-9.6681,18.1403,3.1467,
-5.2132,9.2285,-4.0748,1.0238,7.5905,-2.9404,7.8488,0.022237,40.7742,-0.37871,-4.0956,-8.8475,17.2929,-3.5496,
0.64298,13.7363,-4.5537,1.6855,15.571,-5.4153,8.1005,2.6722,49.1738,6.1513,6.9962,-11.4499,18.9062,-8.3985,
9.5225,14.1174,-4.0392,-0.5848,14.8777,-0.028673,5.9273,3.7172,47.4286,2.1672,14.0482,-11.4858,23.3159,-2.8329,
6.541,10.8602,-1.8687,-2.9598,13.5031,10.0959,8.9461,4.458,45.0649,-0.37339,10.7952,-9.8328,24.809,8.4243,
-0.35917,10.4494,-4.4079,-3.0234,15.8262,14.0697,12.5069,7.3238,49.3506,6.6391,9.4244,-12.3761,19.2229,11.0521,
1.5903,9.8226,-5.5897,0.050249,13.9125,9.8513,8.8642,6.8846,50.7281,6.2405,9.823,-10.6694,18.5516,9.4249,
1.9773,10.1976,-3.8078,3.4217,13.0777,8.2964,4.9579,2.6151,41.9003,-1.3643,7.7878,-10.0292,24.1875,8.8594,
-1.0338,12.9597,-0.20535,5.6265,12.775,12.1369,5.6243,2.4582,31.1911,0.16338,5.3919,-15.2121,22.7362,6.3996,
0.71564,10.9771,4.8687,5.5301,9.8391,13.5776,7.4562,3.9977,33.4168,7.1432,6.7554,-12.1299,20.167,7.2207,
3.324,11.5235,5.2997,4.9571,11.4182,8.1839,8.2139,4.481,43.2221,4.0633,13.8221,-10.679,24.5003,6.5467,
2.16,11.7962,0.6429,5.6238,9.769,-3.877,4.8288,4.2119,48.8237,-4.8574,12.5106,-24.1383,23.9944,-6.8617,
0.34343,9.8834,-1.0827,7.9377,6.5315,-7.2596,4.7803,6.1286,52.402,-6.2529,6.6985,-24.7389,20.8678,-11.5115,
-1.6054,9.7723,2.8389,6.0152,7.5859,-2.0033,6.9036,5.2789,56.4887,-3.9495,6.2966,-18.9162,19.1338,-2.6261,
-0.30375,8.945,3.3915,3.4851,9.2999,-1.6421,6.7303,4.2388,63.9457,-2.0258,6.1598,-23.3249,18.7086,-3.6738,
4.0533,8.4083,1.26,7.1324,4.8855,-2.5074,3.9164,3.985,71.1962,-7.6884,6.7545,-22.4073,18.068,-11.6476,
4.5327,14.8934,2.3893,7.4276,0.4948,-3.5625,1.9944,0.61215,69.5757,-8.9145,4.1799,-17.4477,12.4044,-10.2261,
6.4302,20.9899,6.3435,4.3306,6.4909,2.677,7.4181,3.2267,74.319,1.5025,3.6879,-18.0878,12.8652,-0.2123,
4.5979,10.5713,2.1063,3.5886,6.5836,7.8188,8.9015,4.4792,82.8751,-2.4443,1.5386,-22.7874,14.0218,-4.0562,
0.22463,8.2498,-3.0816,6.0248,3.0551,9.0369,5.2339,4.9338,81.9999,-8.3232,1.2053,-20.2148,13.9033,-4.5357,
-0.51175,17.6367,-3.6198,1.0836,1.6665,7.2899,1.3044,2.9505,72.9826,-0.83389,5.7123,-19.2429,8.0075,9.8364,
2.411,15.6147,0.93593,-2.8378,1.0846,4.9243,3.1544,-2.0472,68.6036,4.0364,10.1903,-22.909,5.5988,14.1872,
3.9538,10.5802,8.3516,1.912,7.0453,1.9775,9.9552,2.6556,73.8876,3.5535,12.2302,-19.3651,14.1812,2.4899,
-3.9964,6.0892,3.9941,1.7975,6.6223,-5.8542,7.4295,4.9062,66.5621,1.4118,1.3733,-21.5777,12.8482,-1.998,
-8.8179,7.893,3.5135,0.48434,6.4664,-0.92317,5.7784,5.3351,58.9529,2.5324,5.3882,-21.4881,10.39,9.932,
-7.0837,3.8038,4.5077,-3.1599,7.2835,1.3012,6.1548,2.8456,58.0671,7.4419,13.9828,-17.5475,12.418,9.0949,
-4.2486,4.058,5.6833,0.40368,6.3641,-1.669,9.6419,2.6749,54.5831,9.8879,5.9129,-14.0845,12.1548,4.6928,
-6.645,8.3935,4.6192,1.1026,0.92079,-2.292,9.3046,0.82696,47.6924,3.2689,-1.4315,-20.7112,6.846,8.0269,
-2.8718,10.3005,10.1266,0.5545,6.1682,1.2195,9.7102,5.1161,50.6155,7.893,5.4029,-21.8787,10.7736,6.099,
-5.3508,6.5492,7.832,0.76242,3.6287,-1.0226,2.1379,3.1217,45.4096,8.1426,4.838,-20.8069,9.8864,0.67163,
-10.5732,4.4688,1.3365,-0.97078,-10.3271,-1.6843,-3.0518,-1.1627,34.7311,0.18242,-1.4781,-23.6559,3.7499,9.0672,
-6.0826,5.1648,3.6663,-4.2868,-4.4055,1.7909,6.2901,0.835,34.0932,2.5814,1.9848,-25.129,3.0422,11.8974,
-5.2357,-0.44729,2.9646,-7.8859,9.9588,-2.6548,10.7334,-1.6252,30.6014,0.98069,5.2406,-25.5492,5.2703,1.0607,
-3.7165,-3.0722,6.8838,-4.2795,21.5333,-11.4138,12.7403,-4.179,23.2214,-6.0683,6.6127,-24.2577,12.9076,-3.1005,
4.9424,-1.6824,13.4607,-4.7459,26.749,-23.503,16.5558,-3.2052,20.6236,-4.9806,10.7959,-25.4533,12.3743,-6.5297,
9.9485,-4.9559,12.1711,-12.6558,32.8569,-36.1928,16.5264,-6.8692,20.35,0.13852,11.1121,-25.8543,4.8834,-13.8512,
11.2798,-7.0687,12.8871,-9.9683,36.1881,-48.1213,19.3912,-8.3853,20.0933,2.0584,8.0352,-21.8927,11.8213,-11.5738,
10.121,-14.8392,15.0062,-5.9957,32.0891,-46.921,22.5665,-7.4002,14.0675,-1.9215,0.32225,-27.3278,22.1992,-8.9507,
10.2367,-16.6004,18.2031,-7.3232,27.9941,-40.9727,19.0429,-7.6791,11.5357,-4.4573,0.061952,-30.7498,18.2157,-10.1014,
6.7302,-7.8919,14.7006,-8.3303,26.7966,-39.4782,13.5617,-4.3261,8.4337,-2.7438,-0.42393,-24.5663,8.9278,-8.5312,
5.6035,-2.3567,16.4699,-7.5891,32.6606,-30.1199,19.256,-3.3436,0.93781,3.4463,-1.6033,-15.1384,12.9719,2.8269,
5.0261,-7.2767,20.0612,-9.7851,31.9061,-18.9127,20.27,-5.7943,-1.2879,3.4808,5.9644,-13.9891,16.7731,8.6831,
1.1095,-11.4194,12.3498,-12.3314,23.4842,-18.983,13.9921,-1.8312,0.47665,1.1028,12.1145,-17.2473,10.705,4.5467,
1.2837,-5.1909,8.9573,-8.9407,22.3159,-20.0136,13.8753,-0.99824,-4.6139,0.7954,6.3257,-20.7922,11.2678,3.5508,
8.1963,4.0384,21.1945,-2.378,28.9309,-16.1612,18.5866,-5.9998,-6.0236,-3.3499,4.2592,-22.1956,22.884,-2.6881,
8.1867,-1.9882,26.1896,-3.6814,22.3746,-20.9759,17.9536,-6.122,-2.7699,-10.8615,0.14749,-23.7561,17.6548,-16.6268,
4.5623,-7.4128,21.9667,-5.1479,14.5244,-25.2612,20.0096,-2.6214,-2.8449,-7.0765,-7.8158,-24.5001,5.2671,-20.5701,
8.6268,1.7091,26.9156,-0.98267,22.33,-20.3711,25.076,-6.8024,0.70028,4.4353,0.84833,-21.5839,14.1101,-5.2359,
8.1095,9.8015,31.0851,0.52232,28.2208,-15.2924,24.0532,-7.3584,6.4426,8.0253,13.8126,-14.9864,22.4223,-1.1859,
2.5612,2.7054,23.1944,-3.1244,20.0197,-11.2416,17.5487,-0.89133,2.923,2.4826,10.8147,-9.9897,9.7488,0.5725,
-0.96669,-5.6518,17.4642,-6.7931,14.4799,-8.1568,11.1929,0.60818,0.33729,0.40522,4.3815,-8.9083,-0.95928,6.323,
-0.42675,-0.49199,20.2727,-5.9036,14.5755,-8.1495,13.4134,0.089754,2.2452,3.7554,4.1181,-6.4456,-0.41979,4.4973,
2.7321,-3.5962,21.2255,-6.2725,8.639,-6.9377,12.3679,-1.1207,-1.5051,1.8426,7.4867,-5.8179,-1.1177,-2.2802,
4.7376,-11.3339,21.1573,-6.1369,8.3619,-3.3879,8.9745,-3.2228,-1.1736,-3.8114,15.9553,-7.638,3.0469,-4.3128,
5.1762,-7.5209,25.4312,-2.1537,10.0293,-6.8001,14.4616,-3.7524,1.5479,-5.2699,12.8288,-9.8311,8.8896,-2.3668,
4.1425,0.40242,28.0029,0.14488,5.8124,-15.7921,23.476,-2.8041,0.24996,-3.7486,-2.0409,-9.9643,9.0794,-9.6966,
3.412,1.3421,30.1791,1.1001,11.2482,-16.2908,23.5137,-2.1539,-1.6932,-0.63166,-11.198,-9.3665,10.9448,-14.4175,
1.5201,-5.2459,28.1277,-2.5809,13.7068,-12.1796,17.0417,-0.33746,-9.063,-3.2444,-5.4644,-12.4197,11.0114,-6.0804,
-0.49931,-8.7875,22.1012,-6.2829,7.0998,-9.5209,19.8751,1.611,-11.8941,-7.8704,-4.6546,-12.1567,5.53,-6.6799,
0.49474,-0.54725,23.1857,-1.085,9.5661,-4.6111,17.719,0.55023,-4.9133,-2.5777,-1.4826,-8.0528,2.3064,-16.8839,
3.5983,9.3673,27.8199,3.5596,15.4999,-0.23706,14.4864,-2.616,3.335,6.4948,6.5599,-6.8467,2.4088,-10.8097,
4.3467,7.3595,28.0789,1.8998,6.8571,0.25909,16.9912,-3.4234,2.653,4.6588,9.5407,-6.4359,1.7823,0.92614,
-0.011647,-0.55369,22.779,-0.38358,-0.54398,5.3055,13.8028,0.87958,-6.906,-0.68216,6.317,-1.47,-0.49403,3.5219,
-6.0363,3.0947,18.279,-1.5656,1.6581,13.423,9.3595,3.9601,-11.553,1.5282,7.143,4.1618,0.2592,5.9624,
-5.1922,8.2117,19.5926,-0.025434,-0.85202,13.0996,8.7979,1.7943,-6.0396,3.3647,8.6426,-1.8725,2.1718,4.6403,
-0.54231,4.3445,22.2732,0.93996,-3.2115,10.3852,12.126,1.6866,-3.2671,-3.5861,7.6421,-7.545,3.0054,-1.9051,
-4.3664,1.6735,18.5265,-1.0444,-1.0904,11.2083,8.0242,5.442,-14.1585,-9.6377,0.91687,-8.5385,-0.067215,0.61957,
-7.9606,11.2143,15.0047,-0.017641,-2.471,10.5358,3.2042,5.1153,-26.3242,-6.6491,-10.7075,-9.4722,-2.4735,2.0284,
0.22985,18.7361,22.2994,1.9116,-1.8408,8.4577,10.2428,0.95197,-22.3342,-5.2858,-15.3673,-7.4576,2.0132,3.353,
1.9031,10.1399,24.5769,-1.3363,1.8853,11.0835,12.7615,-0.79214,-13.0406,-5.6918,-7.4556,-2.4309,1.6517,6.7675,
-6.4058,3.747,18.7637,-5.113,3.218,18.131,4.283,0.21925,-17.0789,-5.3503,-2.188,0.60724,-1.8219,8.7715,
-5.2981,3.2812,18.8432,-4.5648,-0.59005,8.1255,3.3031,-0.5168,-21.1154,-5.7522,-6.636,-2.5625,-0.98967,8.9681,
4.4195,0.43298,22.2919,0.77054,-1.2782,-1.7622,10.5765,-2.6552,-9.9667,-0.82798,0.26987,-5.5422,2.203,8.6712,
2.2262,3.2995,16.1339,-1.2039,-2.1654,12.4435,7.5318,-0.56768,-11.7784,-1.2602,7.9664,-7.1376,-2.7495,7.669,
-5.8611,7.6808,11.0685,-6.6753,-11.9174,25.7969,-3.7664,0.18974,-21.436,-8.6564,-1.9115,-9.8429,-8.61,6.9675,
-5.2685,6.4971,12.0916,-6.0338,-17.7103,27.3826,-4.7452,-4.8833,-15.5706,-9.3419,-3.966,-8.047,-6.8886,11.6111,
-0.37288,3.9379,12.089,-3.5024,-13.032,21.642,-1.8092,-5.7954,-18.2515,-4.2018,3.2616,-4.4309,-7.6804,12.1195,
-1.5556,5.3891,15.4612,-1.1228,-10.5631,21.549,-2.4238,-3.7607,-31.2564,-5.1548,-2.4775,-4.888,-3.6039,9.7053,
-11.1034,2.6554,12.6051,-4.9121,-12.3397,18.8096,-6.135,-5.463,-28.5374,-6.7739,-4.2573,-4.5949,0.4685,11.051,
-14.2936,-0.87842,6.5464,-7.0275,-12.0812,22.9837,-7.2131,-4.6533,-15.256,-2.5111,8.5317,0.98343,-6.3085,9.906,
-7.6512,1.1027,10.4922,-6.1237,-8.4641,25.4613,-5.3338,-2.9281,-21.0894,-2.3602,7.5376,2.8526,-9.7862,7.8656,
-10.8075,1.2775,15.406,-5.9977,-9.1615,19.3538,-6.2191,-4.4396,-28.2601,-7.7622,-6.171,-3.8262,-7.0298,9.0809,
-18.5952,-1.4507,14.2407,-5.8788,-12.2273,16.5054,-4.6407,-2.9679,-19.5746,-9.4661,-6.5241,-8.1762,-9.7415,7.3307,
-11.213,0.082611,13.8682,-2.1516,-8.6011,20.8177,2.8682,1.5485,-14.5438,-6.0056,2.5444,-4.7933,-7.7108,2.5526,
-2.5862,1.7651,17.6156,1.5927,-6.398,24.1482,1.0091,-1.6777,-25.9634,-8.7785,-3.634,-4.7467,-3.6325,1.1944,
-0.74407,3.3462,23.0664,3.1846,-6.2549,23.9043,-2.1847,-2.7821,-24.1644,-8.975,-5.103,-5.6672,-3.1738,5.2198,
-2.6276,0.25291,21.6824,-1.8272,-4.9157,14.7573,1.3203,1.2412,-12.1097,-4.5805,-2.3867,-10.6298,-4.4296,2.4965,
-2.7105,-0.48517,18.2123,-4.8506,-2.9336,11.7027,2.4469,2.854,-18.8545,-2.618,-12.6073,-13.607,-2.4766,0.65949,
-2.5481,0.99043,21.4581,-2.6316,-2.7573,18.2311,-2.0385,-1.6558,-27.8464,-6.3175,-16.6714,-7.006,-4.256,4.9585,
-3.1185,-1.7205,21.8576,-2.7147,-3.7972,18.8245,-5.0497,-6.1362,-23.0426,-7.6257,-2.4152,-3.4526,-8.5804,6.3482,
-0.038913,1.2752,21.9924,-1.1055,-1.6411,15.7668,0.07403,-2.8755,-15.8754,-1.8655,11.8297,-3.7274,-3.2448,5.9673,
0.92752,1.6804,26.4572,-0.5575,0.86722,11.9285,3.4434,1.6356,-15.4051,-1.7538,6.1792,-6.8782,-1.6041,1.2707,
3.2822,-0.83032,32.583,1.4044,1.2978,8.3205,4.2013,2.9835,-19.7827,-3.5766,-6.7248,-10.8036,-2.472,-0.25157,
-1.2533,-7.0477,28.2175,-1.5722,-3.1191,3.0008,0.092613,-0.56978,-29.6837,-3.8441,-8.2497,-12.5659,-5.6983,3.1378,
-8.6499,-9.7579,24.8374,-3.1651,-4.1368,-2.2409,-1.1178,-2.2228,-30.0713,-3.8545,-2.2111,-7.2325,-8.9714,4.6367,
-8.854,-8.9317,30.3368,-3.2164,-2.2016,-1.3833,-1.7738,-1.8483,-22.7237,-9.649,1.0548,-4.1472,-10.1206,4.1173,
-7.3587,-7.9136,32.373,-6.3976,-5.4437,2.5563,-4.0778,-2.7015,-23.2882,-11.4799,-2.3827,-4.3805,-10.4774,4.8344,
-5.2297,-5.7513,33.5641,-1.9162,-3.4296,-6.033,1.7103,-0.85237,-22.6141,-4.2834,-2.9629,1.4259,-7.6794,2.8573,
-2.506,-7.3347,36.3705,5.4294,0.15039,-11.9377,4.018,2.0911,-22.7037,-5.9548,-1.821,4.7146,-2.8801,-0.20642,
-3.0786,-3.2792,36.8398,3.8988,-7.3304,2.8785,-7.0689,0.27837,-29.2952,-15.4795,-5.3267,-2.5577,-4.8764,1.4932,
-13.0167,4.6304,31.7372,-3.084,-17.9778,16.8058,-15.3218,-2.1485,-24.645,-23.2278,-11.756,-13.0093,-16.6349,-2.4528,
-15.128,4.3528,34.1715,-4.8269,-15.9351,23.9924,-8.6177,-2.9836,-9.0663,-19.9057,-10.5685,-11.2647,-16.6009,-5.6798,
-6.5076,1.681,39.3518,-0.6814,-11.6045,17.7321,-6.6548,-4.7328,-4.3045,-11.4805,-8.9705,-6.2505,-8.8564,-6.3034,
-5.1533,5.4365,36.9907,-0.15812,-14.7646,15.7039,-11.5582,-2.0387,-5.0105,-9.3459,-13.253,-8.2858,-10.2532,-5.4432,
-8.9414,3.9055,40.3149,-2.8002,-15.566,16.4489,-7.2493,-0.22917,5.6544,-10.9543,-10.2882,-8.5118,-10.3614,-4.8757,
-11.2974,-5.4879,44.6446,-5.0423,-11.2576,17.3901,-4.8861,-3.5899,9.6535,-10.779,-5.3326,-6.5548,-11.6679,-2.6549,
-8.9319,-8.2916,41.7252,-5.4627,-12.2693,15.6243,-7.726,-5.5436,9.7976,-6.9988,-6.2175,-6.8844,-15.5471,4.4942,
-4.5398,-4.4199,43.56,-5.1351,-18.7638,14.2047,-9.1909,-0.39054,20.2968,-2.7222,-5.3627,-8.3995,-13.1678,4.7067,
-2.8214,-1.7448,51.0693,-2.8991,-16.1919,16.2442,-3.337,4.4534,26.7915,-0.14898,-1.6667,-2.5934,-6.1115,-0.39615,
-6.5085,-6.4604,52.3437,-3.2071,-9.9178,10.9312,-0.24425,-1.1165,21.3281,-3.5145,-2.5306,0.45474,-8.1549,-2.783,
-1.5385,-5.3496,55.2286,2.0473,-9.5639,7.1421,1.4574,1.1199,19.8072,-2.5805,-1.6556,0.66842,-10.3169,1.4816,
2.1695,3.8892,58.4229,7.9498,-10.1951,7.9186,2.5755,7.0785,20.3062,7.9384,-3.2433,-0.57675,-8.4928,-1.7406,
-4.951,6.3069,58.0505,7.7137,-7.8962,5.7563,0.25133,6.4124,15.9544,13.0057,-9.5566,-4.6397,-7.7423,-6.6978,
-5.1357,-2.7483,59.388,5.8049,-7.4227,5.4112,-0.72785,7.4741,13.0687,8.3688,-7.0553,-2.4331,-8.2419,-3.4036,
1.6802,-10.055,62.8146,5.6978,-7.7004,5.8096,0.038954,8.7126,13.972,9.5541,3.7321,4.7027,-10.8806,2.3444,
0.37407,-6.3187,63.143,2.7044,-7.9613,4.2557,-0.20435,1.2,4.2152,9.7038,-0.58914,1.7692,-14.8075,6.3011,
-5.9149,-2.5651,59.8369,-4.6883,-5.5554,3.5185,-5.4947,-1.2821,-7.6064,3.8193,-10.6767,-3.1574,-10.5442,3.9948,
-5.319,-4.5804,58.4158,-4.166,-3.0529,1.6201,-8.2981,3.8565,-4.499,3.3492,-4.0105,-0.79858,-7.7424,-5.6448,
-2.3486,-7.4388,57.0798,0.66301,-4.0748,2.728,-6.5956,0.0094573,4.6888,8.2093,8.5224,3.3465,-12.8217,-6.5112,
-5.0999,-7.4746,49.3165,-3.2329,-5.2764,6.9029,-7.164,-3.3653,0.068937,7.7169,7.0469,3.6278,-12.5345,3.0383,
-6.7224,-7.5083,38.6447,-4.9674,-5.9239,3.114,-5.77,1.1751,-14.0352,3.3973,-3.9809,0.51788,-11.3003,5.7483,
-3.6679,-8.7451,32.7106,-2.0178,-4.8456,3.6505,-3.2547,4.72,-18.1338,1.5062,-2.5372,-2.1645,-16.1659,2.2699,
-8.0269,-11.8355,26.6508,-5.5119,-13.4727,8.011,-11.9768,2.7498,-17.287,-3.6451,-3.5896,-5.1679,-22.6675,0.44668,
-12.8479,-11.1254,22.6414,-4.6993,-16.0387,5.6022,-16.5608,3.0668,-24.4445,1.8758,-10.1231,1.4089,-19.3793,2.3481,
-7.4973,-7.8063,22.4882,-3.2125,-0.97642,-1.7238,-6.6491,4.0881,-22.7368,6.8249,-9.7567,3.9757,-10.7447,-1.8902,
7.0525,1.0975,23.3079,-0.85033,13.1822,-4.7537,7.006,4.0835,-14.383,4.7279,-2.1817,-0.84236,-1.1822,-5.8743,
15.9087,7.7808,20.9455,3.0573,26.4912,-11.2171,12.8524,2.8744,-19.7863,6.8546,-0.12235,-1.2737,1.2991,-3.1115,
15.9182,-0.88146,15.35,3.8375,34.6632,-24.6441,14.4912,1.7379,-27.7584,10.3,-3.9716,0.24848,-5.528,-6.2991,
17.6145,-10.2283,7.4396,-1.4542,32.3427,-37.2655,7.5964,-1.0177,-24.8878,6.0663,-4.4565,-2.8995,-9.2934,-16.7671,
15.5933,-9.1327,3.1368,-4.259,27.0277,-47.0809,1.356,0.0076541,-19.0558,5.2204,-1.2966,-6.0999,-4.8794,-14.7972,
13.6938,-8.1028,1.9843,-0.62947,24.4417,-39.9177,3.2028,0.97106,-20.323,9.2455,-0.73683,-6.698,-3.6228,-6.1966,
16.7286,-11.955,-1.9909,1.337,24.4214,-30.2918,4.9389,-2.9436,-29.7085,1.4604,-2.6208,-4.368,-7.7437,-3.4143,
15.9658,-11.9606,-5.969,0.53337,22.7152,-26.787,5.8478,-3.0079,-34.4339,-8.5096,-0.2944,-0.97263,-6.5558,-5.379,
10.1874,-6.9044,-8.9851,-0.46273,24.2446,-25.1798,7.4249,1.993,-25.1368,-2.6962,3.5799,-1.8781,-3.7521,-3.6098,
12.2272,-4.8029,-14.4718,-0.67593,25.441,-19.5717,5.2922,-0.77766,-19.0493,6.3832,-0.73273,-4.417,-6.6604,-1.224,
15.3502,-1.1405,-15.5319,1.775,25.3606,-12.613,1.118,-4.5876,-24.1731,0.21586,-4.5449,-2.2238,-7.7073,-5.4891,
11.0548,0.85613,-14.1176,2.6328,22.3931,-8.4813,2.4977,-0.9379,-24.169,-7.9918,-0.89777,-1.126,-3.388,-5.6417,
10.8734,-0.15911,-17.1272,1.5105,16.2288,-8.9368,7.1681,-1.3636,-18.8624,-5.5841,-0.36197,-6.3611,-5.1129,-6.7495,
9.7391,-5.9346,-21.4019,1.9018,10.9168,-12.7389,1.9173,-0.79981,-21.1047,-10.5517,-6.1248,-11.2821,-12.5194,-13.5754,
5.0571,-3.8911,-20.841,3.9571,10.503,-4.503,-5.6693,3.3458,-21.5259,-12.088,-5.5161,-6.9898,-9.5988,-8.1813,
3.3077,5.0193,-22.0009,8.0582,9.8726,7.8185,-5.3294,3.6267,-16.3777,0.20669,3.0093,-2.2318,-4.2024,2.9146,
-0.02427,1.5846,-26.7064,7.8157,5.1828,6.6265,-0.91229,3.1681,-13.7078,2.3634,7.4085,-0.89285,-9.4939,-0.87567,
-0.98645,-0.92035,-24.1399,7.3465,6.3179,3.3366,-2.7855,2.9783,-9.0292,-4.527,7.4461,2.5352,-6.9958,-0.34097,
-3.82,3.473,-27.03,5.4597,3.5285,5.0644,-13.7054,0.38923,-13.3079,-2.8094,3.6247,-0.027292,-8.5045,6.4282,
-12.2677,0.37229,-37.9415,-4.991,-5.842,2.8326,-18.1859,-1.0802,-22.1502,-1.6767,-2.8595,-6.2924,-21.0094,7.4885,
-12.4957,-5.9168,-34.7009,-5.6556,-4.0455,2.1804,-11.31,1.3946,-18.8932,-8.8067,-7.9904,-3.9867,-17.3385,4.6293,
-4.033,-4.1153,-27.3164,4.3249,5.3565,12.1728,-6.7752,3.7212,-9.0827,-5.386,-3.1724,2.0371,-2.8011,-1.9152,
-4.2732,-1.9404,-31.944,2.6194,-3.1598,13.3703,-8.7786,1.57,-9.5019,3.614,7.1411,1.9151,-9.3817,-2.7644,
-10.7657,-6.6447,-34.848,-4.7691,-17.0702,3.4091,-15.4827,0.029541,-14.7163,0.50463,1.41,-3.5027,-22.9188,5.5962,
-4.0937,-5.0407,-31.5519,-3.7596,-5.5614,5.8561,-14.7947,-1.6595,-17.9307,-4.5869,-11.931,-5.4614,-19.7357,6.9476,
10.2519,5.1439,-22.6691,4.9019,8.8722,11.5301,0.19296,-2.283,-22.3987,1.2317,-8.5643,2.3378,-4.4516,3.3971,
12.1674,2.9071,-20.3449,6.054,20.5115,-2.1767,2.2301,-2.628,-26.357,2.6041,-4.6755,3.1617,-7.4384,3.1937,
5.6525,-6.4262,-25.8728,-0.094016,8.1938,-10.7234,-10.9194,-0.54233,-24.2939,1.9657,-10.6617,-0.88443,-20.4897,5.4124,
7.724,-5.0767,-26.7306,-0.088374,8.6665,-1.8849,-11.71,-0.027398,-24.282,-2.4906,-7.6119,1.0971,-10.1013,4.6053,
6.5374,-0.67455,-19.101,4.4964,10.7978,-1.5306,-1.1253,-0.26695,-18.2456,-7.8845,6.9448,4.1645,1.3513,4.5702,
-1.3269,-3.7673,-19.1602,4.4679,7.4982,-8.9108,-5.1553,0.4722,-13.5357,-8.135,6.8898,-3.0752,-7.6481,3.5728,
-1.488,-3.3006,-25.9644,2.0304,5.3613,-4.2785,-13.2819,-0.7612,-23.0876,-7.4057,-7.6236,-6.024,-14.1789,4.5635,
6.7962,2.2004,-20.0682,3.837,6.0037,4.1731,-7.1826,-1.1977,-21.7021,0.7516,-5.3587,3.9784,-6.0975,4.7719,
8.0757,-1.5471,-16.2128,3.3653,0.099879,0.78923,-8.4389,-0.40293,-14.8568,9.6241,7.7373,6.391,-6.9365,2.7983,
1.0834,-6.0338,-23.1937,-0.45176,-4.9676,-2.3914,-18.2966,-2.5477,-25.7753,2.5394,-2.1267,0.46396,-13.9924,5.7637,
-0.66927,-1.5744,-22.0433,3.6727,1.838,2.8133,-16.4759,-0.22566,-27.3623,-6.5315,-3.2044,4.0513,-9.5374,3.2487,
2.9865,-1.7207,-16.141,6.1037,2.9332,-3.3808,-11.8717,2.4392,-11.6206,-0.59575,11.0878,7.4239,-5.3495,-5.3821,
4.7358,-7.4022,-13.7265,1.3989,0.34686,-9.4447,-11.1596,2.2926,-10.8026,4.2605,14.8816,5.5322,-8.4032,0.72562,
2.0415,-7.44,-13.867,0.35109,0.80799,-1.1652,-12.9002,-2.1833,-21.2417,-2.7436,4.8297,1.826,-11.273,5.0204,
5.2932,-2.1732,-10.1427,5.6324,3.1699,6.6177,-11.644,-1.0882,-14.6648,3.6873,6.4679,5.0907,-6.2585,3.7551,
5.9397,-5.4174,-11.9445,0.95594,-0.87694,-4.3844,-12.8738,-3.4332,-21.9798,5.3945,5.5981,5.7496,-8.7753,5.9401,
1.7272,-6.056,-17.4943,-3.9214,-2.2699,-7.0137,-14.0293,-8.5297,-34.761,-4.5699,-2.4508,7.815,-15.9613,10.8861,
-3.9205,-8.3442,-17.1678,-4.8914,-3.8214,-1.0497,-15.3567,-7.295,-30.3857,-3.5728,-2.0628,10.9613,-17.6552,9.5101,
-9.7108,-15.3154,-13.4864,-3.8751,-8.1714,-8.9405,-16.6045,-6.1339,-20.1264,1.2208,9.8716,4.76,-17.3188,8.2161,
-8.8872,-7.889,-12.9184,-1.4734,-3.5838,-3.3423,-15.3673,-5.5249,-25.9087,-5.8418,8.074,-2.5153,-20.377,7.4822,
-4.4976,6.5641,-14.0715,-5.2414,-4.3331,10.9582,-19.2659,-2.7833,-30.6207,-10.794,-6.5105,-4.7747,-25.9033,4.6231,
1.5571,13.4009,-8.8887,-6.3729,-11.7856,18.3749,-21.9661,-4.0623,-23.963,-5.8078,-19.9791,-1.5959,-27.2414,5.3098,
6.2844,15.9713,-3.0527,1.2403,-6.2578,14.3804,-16.7918,-5.7468,-18.6688,-4.9774,-4.6803,-0.053926,-23.6787,7.4014,
6.389,16.941,-1.9054,5.022,0.86638,12.5535,-14.8202,0.86477,-24.7793,-5.6428,-4.52,-4.3892,-22.7402,0.69054,
6.0057,13.5144,1.5833,1.8286,0.332,11.8002,-11.5208,3.223,-28.5952,0.96225,-10.9973,-2.1977,-17.5194,-4.1711,
7.8147,8.6059,5.5855,0.9958,-0.41105,6.5123,-6.2501,0.86024,-18.444,6.4479,1.4725,4.4419,-13.3349,-0.78762,
5.1764,4.4744,5.9735,1.1768,-2.0734,2.0244,-10.4546,2.4961,-10.8292,2.9278,3.5535,3.4522,-15.6681,-0.98156,
1.7326,4.929,10.6767,-0.098883,-1.7078,3.108,-10.0685,5.9615,-10.4207,2.9933,-1.2392,1.0759,-16.897,-4.5379,
2.3515,6.3205,13.1694,2.0762,-2.3287,6.5369,-8.741,1.9884,-13.4109,3.0547,0.52237,-0.19368,-24.3193,-0.65016,
4.6208,4.9772,10.933,5.3263,-5.0812,5.1806,-12.5551,-2.9514,-18.391,-0.50284,-2.4013,-3.0746,-31.055,4.2093,
5.7898,2.2684,14.1336,4.0424,-3.812,1.4953,-11.3199,1.0821,-14.395,-0.9546,-6.5955,0.0024171,-24.853,-2.3097,
3.5142,2.6143,17.1418,4.2818,-3.1014,0.92368,-7.2662,2.9453,-6.7829,-1.3797,-0.89759,3.8584,-19.5059,-6.9919,
1.8571,2.4574,15.6315,5.9535,-1.469,0.38633,-6.3483,2.2867,-13.1244,-6.5991,4.9413,0.25293,-17.8531,-0.78778,
1.7459,-2.0286,12.2833,5.1142,-0.41681,-4.9397,-5.9672,3.5955,-22.46,-10.5417,-0.65805,-4.583,-17.2641,-3.6328,
3.5691,-3.3534,10.582,2.8789,-2.8022,-11.392,-8.9839,1.9338,-22.5585,-8.4632,-13.1518,-4.3082,-18.6386,-7.2715,
3.8371,1.1864,11.3933,0.7782,-3.1162,-8.2981,-14.2292,1.3356,-21.2052,-4.5812,-14.7731,-2.1213,-18.4844,-1.5323,
-1.4545,-3.9462,13.843,-1.9198,-0.75983,-4.667,-9.7602,2.4605,-18.7278,0.75515,-7.8609,2.1033,-17.1341,-0.71722,
-5.7056,-15.7606,10.1203,-6.6249,-4.0887,-9.6892,-8.6922,-0.097256,-17.1217,-0.73596,-8.8351,5.8338,-17.5519,1.7359,
-3.6765,-16.0202,5.4155,-5.0226,-9.8689,-11.2774,-16.6068,-1.7786,-19.7099,-7.6817,-9.5102,6.2066,-17.7041,3.319,
2.5699,-5.1768,9.6703,3.2328,-3.251,-3.6107,-9.5846,2.9076,-9.127,-4.5695,4.317,10.8959,-13.5086,-1.4596,
1.2106,-4.1431,9.813,1.8337,1.5236,-0.74272,-3.4662,3.9382,2.7486,-3.5722,8.637,10.9653,-13.4212,-4.0234,
-0.54924,-6.5461,9.4652,-1.8922,-1.2194,-2.8678,-8.3199,3.9429,9.5731,-6.0094,5.4677,7.1739,-10.9287,-2.5767,
0.20662,-7.3581,11.0665,-1.5372,-3.3154,-3.9005,-10.9537,4.4297,18.8811,0.37673,2.9705,6.5025,-7.6219,-6.5199,
1.3995,-5.2299,9.1972,1.2061,-1.9116,-1.9797,-4.2709,2.9586,22.8094,7.8259,-6.6082,4.4249,-8.8518,-3.9596,
-0.37168,-7.5672,-2.2007,-1.0354,-7.8225,-2.5839,-11.0046,2.5401,12.5232,-3.0075,-13.6831,1.0261,-17.2387,1.3397,
-2.7597,-3.7385,-3.0327,-2.4193,-11.2093,2.8736,-21.4313,3.3518,12.7359,-8.1295,-4.1852,9.1595,-22.4707,5.5979,
-1.8713,2.9933,5.5851,-1.5513,-9.3319,2.4602,-17.9762,1.4635,17.9973,-5.4725,-7.5495,9.8152,-23.2921,3.0928,
7.1593,6.4294,12.7221,6.4958,1.1102,1.5899,-5.0873,7.8834,16.1944,0.8816,-15.0505,6.575,-12.0119,-2.1542,
6.0066,-1.4284,6.4149,4.9005,2.7306,0.77094,-5.9876,6.2053,12.0894,2.0333,-13.4244,4.0111,-8.6403,-5.6406,
2.7539,-1.8249,1.6914,3.1605,-0.80749,5.5452,-11.8946,2.4583,16.1846,0.46528,-11.6548,3.2883,-13.4243,2.4109,
4.5171,4.5514,1.5902,5.3812,0.68744,8.5871,-9.2525,5.2035,17.6238,2.3658,-11.9196,4.5375,-12.1367,3.2303,
2.3177,-0.54221,-1.3977,3.6123,4.02,5.6616,-9.18,4.8911,9.8173,5.5981,-8.3121,6.6751,-5.6242,-4.1946,
-0.71344,-7.7405,-2.7599,3.3955,4.7431,6.2862,-9.5931,3.1514,7.3005,5.2622,-1.0645,8.6852,-6.2506,-3.4605,
-2.1171,-6.312,-4.5225,1.7458,6.8689,3.9806,-7.5715,2.4806,6.8622,2.5361,-1.9647,2.8614,-11.6604,-5.1813,
1.8663,-3.5231,-3.2871,-0.76955,12.7232,-0.11463,-10.0092,0.4031,0.66594,3.3483,-6.1856,-1.6488,-7.1043,-5.3524,
3.2006,-9.0959,-2.6077,-2.6516,7.1396,-4.4461,-8.9267,-2.5131,-2.7485,1.7011,-6.2964,-4.4419,-9.0882,-7.4414,
2.0444,-13.3706,-4.8613,-1.046,-0.037457,-8.9998,-8.3909,-1.3983,-4.5115,-0.32893,-6.8827,-6.5855,-20.1119,-16.6356,
5.5372,-9.9173,-8.6675,3.5961,5.5084,-3.8805,-12.4672,-1.5553,-12.677,0.4137,-9.1213,-3.5396,-19.1466,-12.9868,
6.1691,-4.9837,-8.1472,3.8625,7.1059,1.6547,-11.7189,-2.4261,-16.2544,-0.57522,-10.502,0.52944,-13.6592,-0.63824,
2.4245,-1.3107,-6.6943,2.1845,0.89493,-1.3366,-6.6775,1.0939,-12.869,1.8694,-6.4974,-1.4305,-13.3216,-3.9744,
2.279,-6.0523,-13.0415,0.12519,-2.0508,-6.0771,-8.205,4.8847,-13.5432,7.0599,-2.2512,-3.755,-8.6659,-10.9663,
4.7936,-12.1969,-15.8742,1.8047,1.2055,-3.0612,-10.364,4.8323,-18.7564,5.9132,-0.42913,-2.3245,-4.5308,-4.7649,
4.506,-7.1267,-12.9938,3.6246,7.8816,-2.8775,-9.7422,2.1323,-18.1129,1.702,1.0429,-1.2211,-9.0796,1.7875,
3.7537,-1.3965,-13.178,3.8895,13.1937,-2.7049,-8.6757,5.8607,-10.7596,4.9743,5.801,2.2266,-5.6423,5.0547,
0.87713,-3.964,-16.4849,6.3075,12.6429,4.4471,-6.9501,5.2679,-13.7292,7.8091,4.7298,7.6366,-3.1344,4.5106,
1.5474,-5.4134,-14.7727,5.2057,11.1614,8.2781,-5.8098,1.8188,-23.2693,4.6895,-1.0976,7.9016,-7.5261,4.481,
6.2753,-5.0886,-11.4762,2.0013,6.1529,3.4426,-10.2819,3.6378,-24.7657,2.4799,-0.067854,7.4272,-12.8591,7.1042,
5.6576,-4.5421,-12.9566,4.0501,3.6148,2.9953,-9.4238,8.963,-17.254,10.2851,1.1417,13.4895,-12.3283,4.9909,
2.1848,-6.4389,-17.723,2.1201,6.0492,4.9845,-4.2788,9.6302,-14.5317,13.7651,-8.327,12.439,-7.9734,-0.85237,
4.7051,-8.222,-19.7931,2.2336,4.4808,2.5161,-8.1197,6.4011,-20.1676,5.4672,-9.0324,8.5591,-3.8798,2.332,
2.7355,-8.9335,-22.7027,4.2692,0.11503,0.67833,-11.7299,3.3659,-24.0187,0.56032,1.8738,8.287,-3.4056,8.7,
-1.5262,-7.6744,-22.0636,7.1463,2.2771,3.7709,-5.9646,5.3334,-14.6241,8.4802,7.7867,8.0308,-0.54994,5.5267,
-1.6756,-8.9011,-20.9808,6.9585,1.4175,2.3393,-5.8477,6.2182,-11.5775,9.6586,2.7402,5.3795,-3.1685,3.026,
3.9688,-10.0545,-21.4092,5.336,0.60935,2.9221,-7.1838,4.64,-21.7289,0.16127,-0.075506,6.744,-9.0042,6.4596,
4.2126,-10.8971,-21.5706,5.4977,0.57279,5.1574,-8.1991,1.9515,-31.03,-2.7409,-1.5172,5.3752,-8.9458,0.76983,
1.7907,-7.1102,-19.5535,6.3732,0.77939,12.3193,-7.4662,4.9679,-26.0351,2.9671,2.6712,3.8474,-1.4192,5.7849,
-2.4143,-9.3349,-24.888,-0.99888,-2.883,8.9293,-10.6334,2.5004,-21.3398,-1.3085,0.34149,2.4115,-5.4317,11.4635,
2.0691,-9.2565,-28.6974,1.471,0.66464,2.6087,-8.0674,3.7965,-13.3107,-0.26586,-4.4995,6.6054,-8.9619,6.4372,
1.4628,-4.845,-26.0114,7.1675,0.1426,3.8982,-7.5836,5.979,-5.281,4.0886,-0.37289,4.2809,-9.3888,-1.1797,
-2.4816,-1.662,-21.5582,8.1835,-4.6864,10.413,-7.6103,5.6205,-4.4824,2.8792,0.61358,-1.7606,-11.2353,1.7834,
-1.6094,-2.7671,-25.8083,5.0414,-3.2,12.9217,-8.359,5.0423,-13.1311,0.055375,-6.4131,2.4424,-9.8383,4.3275,
-0.54869,-1.155,-24.742,4.2567,-0.11567,9.736,-11.2316,5.2215,-17.1637,5.3545,-2.6536,11.4549,-6.3557,4.55,
0.4481,-4.9421,-18.437,2.5551,-5.4114,3.3673,-11.5221,5.3901,-10.8317,7.4433,-0.084297,8.3573,-8.3845,5.7233,
1.6265,-11.6355,-19.0178,1.1969,-8.2202,1.478,-5.2871,7.2363,0.18252,6.7558,-1.2845,5.2047,-5.2303,5.6208,
-1.3634,-8.527,-21.7333,4.4993,-0.97829,5.7279,-0.63136,10.1764,-3.2031,2.0119,3.613,6.3385,-2.0242,2.8732,
-2.7278,-4.6414,-23.8038,4.2294,0.044272,10.6864,-6.8605,7.1552,-15.062,-3.4115,6.7707,5.9579,-6.2411,2.7008,
-1.8408,-8.4598,-26.9548,0.84213,-8.3941,10.7686,-9.5819,0.70035,-14.8812,1.8549,1.3028,6.3238,-3.2151,3.7441,
-1.2487,-6.5066,-22.4455,3.202,-6.9263,10.6046,-3.2226,6.4431,-8.204,6.5641,4.1169,7.3902,3.2441,3.0373,
-0.20941,-3.2237,-17.2421,3.4918,1.684,9.004,-1.101,12.3231,-10.6038,1.8319,7.2443,7.9111,-2.2532,2.3731,
2.4545,-8.0917,-24.1614,1.1133,2.3061,7.7411,-7.0603,3.6302,-24.0676,-1.8932,-2.5901,8.1598,-8.6257,3.9177,
-2.0311,-11.9446,-29.4604,-2.3279,-0.72436,5.3485,-8.0829,-1.4084,-22.2621,0.14858,-2.9171,7.6702,-4.7337,6.0928,
-5.7659,-9.7819,-25.7648,-2.1885,-1.1631,1.6529,-4.7057,5.9068,-6.8263,3.5139,6.8991,8.1739,-0.59307,7.1737,
-3.7327,-7.9896,-23.4955,-0.85187,-0.85186,1.3132,-8.0383,6.7576,-3.8857,4.5084,6.7266,7.9246,-2.2447,5.538,
0.5884,-8.2339,-24.7373,-0.078084,3.7783,5.8135,-7.3153,2.7365,-8.7145,3.9967,3.1893,8.654,-1.8693,4.0006,
0.071395,-9.6678,-26.1454,-2.0014,1.6236,8.3569,-10.733,-1.7657,-17.8323,-4.4381,-0.37628,4.7608,-8.9877,0.86832,
-5.4765,-9.3287,-30.602,-5.0143,-9.802,7.6146,-20.4528,-9.1316,-30.8624,-10.6793,-6.8616,-1.0685,-17.8485,1.0572,
-6.353,-9.4921,-35.7557,-8.811,-9.937,7.8808,-21.3951,-15.0914,-36.6029,-8.8335,-11.5114,-2.2095,-18.4646,1.7169,
-4.285,-10.1279,-33.8516,-6.1132,-6.6897,8.1309,-18.4241,-8.6423,-30.7918,-4.6885,-9.1335,-1.354,-14.2237,-0.073357,
-7.6429,-8.3144,-30.6152,-3.0949,-8.4574,7.402,-19.9698,-0.65198,-32.0773,-7.5402,-7.3802,-3.4419,-14.5751,-0.30992,
-7.9074,-5.6466,-31.9118,-5.5605,-7.7088,5.7529,-19.0128,-2.3003,-32.3221,-10.2211,-8.1429,-2.9947,-15.87,0.91374,
-2.8537,-9.4052,-34.5764,-5.9502,-9.4154,4.2024,-15.2205,-6.7416,-25.3211,-3.1003,-4.5208,1.2828,-12.2662,2.0642,
-4.6107,-13.6616,-30.5736,-2.2188,-13.6712,1.5401,-16.2354,-7.301,-20.9093,-1.468,-1.3571,-0.72256,-13.4584,4.3505,
-4.5748,-12.6007,-28.9804,-2.3268,-12.6097,2.1708,-16.9488,-6.1402,-23.2704,-3.0669,-5.3732,-0.92017,-14.3384,3.3663,
-2.854,-10.3984,-26.2772,-0.74096,-9.443,3.9688,-15.4494,-3.8432,-24.2843,-3.3649,-6.979,0.5813,-12.9957,4.6106,
-0.75482,-7.8465,-23.7367,0.74953,-6.4661,6.141,-14.5227,-1.2027,-25.2376,-3.6451,-8.9706,2.4744,-12.2162,5.2981,
0.49576,-6.1705,-21.5892,1.9098,-3.909,7.9417,-13.8923,0.55671,-26.3744,-4.1493,-11.0835,3.5312,-11.2422,5.7035,
0.22482,-5.5595,-20.535,1.0721,-3.4337,8.1883,-14.7462,1.2464,-28.4076,-5.5878,-14.5161,3.0781,-12.2547,4.6377,
0.21133,-5.7079,-20.267,1.0078,-2.7453,7.697,-15.3073,1.6536,-31.5234,-7.1807,-17.9834,2.8935,-12.9657,3.8775,
8.1524,4.0346,-13.0254,4.0808,11.5194,1.6916,-10.2915,0.83147,-29.391,-6.027,-9.4326,10.6736,-11.9468,6.2964,
5.2531,-2.9559,-8.8695,6.2461,9.9847,-12.5099,-7.2639,1.2635,-17.0227,3.0117,-5.9741,12.9257,-4.963,8.8107,
3.0095,-8.0814,-5.9272,6.8354,2.1545,-15.4952,-5.8639,-0.25878,-16.9655,7.1691,-5.6159,1.5449,-7.076,5.8717,
5.9624,-8.3194,-4.3662,4.2561,5.6411,-18.6628,-8.6451,-1.4481,-14.2603,-0.73239,3.1572,-3.6091,-15.0871,-8.5806,
7.2917,-14.328,-4.8276,3.2776,6.0253,-27.9076,-12.7064,1.2901,-9.3076,-4.3041,5.6186,-0.25948,-9.6024,-22.1658,
6.3722,-15.3965,-3.0915,5.4916,5.1819,-19.9662,-8.0872,2.177,-11.6412,5.1132,3.8357,1.6845,4.9535,-10.4717,
4.0617,-12.0626,-3.3881,4.1977,2.9428,-6.2347,-4.2279,2.5283,-13.3528,9.6271,8.9077,3.9936,2.7276,-0.68438,
4.5411,-7.2412,-1.9798,3.2228,4.9356,-3.2093,-4.6974,7.92,-5.562,8.8083,16.8092,13.6359,-7.3177,0.079817,
1.1354,-6.0836,-7.4044,-2.0321,5.3626,-9.5245,-11.8871,1.4195,-9.8078,3.2183,7.8471,12.577,-11.9401,3.2083,
-1.3431,-4.2726,-9.3705,-1.9104,0.70227,-8.4713,-12.138,-4.4505,-19.8244,1.0968,-0.33672,5.0737,-6.4032,4.9442,
-0.53912,-3.2933,-6.6391,1.8197,-0.54515,-6.2758,-6.348,1.3602,-19.3578,-0.17383,3.7808,5.9741,-1.4397,1.0321,
3.5903,-3.8189,-2.6253,1.9517,6.4772,-4.6942,-3.7982,5.3761,-10.7248,0.55927,8.1335,9.2313,2.2618,0.24708,
4.5802,-5.7584,-3.1907,2.5575,9.704,-3.6892,-2.847,3.3664,-5.9835,6.5517,7.4045,4.0979,-0.52497,-1.9369,
3.3413,-8.3057,-4.4458,3.3681,7.1933,-2.5037,0.69807,1.7179,-8.0353,6.1584,5.0318,-0.96867,-7.7245,-2.3029,
5.069,-10.6994,-2.2506,1.2379,4.834,-3.3178,-0.30814,1.1329,-10.9272,-2.8878,5.2123,0.53571,-4.8505,0.24544,
5.2468,-8.1292,-2.1156,-0.28222,2.1334,-6.0108,-6.0742,3.4755,-10.2715,-7.5352,6.8278,3.3961,4.1176,-1.6975,
2.2807,-1.6162,-1.7479,3.3499,3.2104,-0.10679,-5.4686,4.954,-8.4502,-0.57538,-0.572,7.2894,4.1113,-1.8368,
1.6619,0.409,-4.0531,3.6308,3.4997,6.6485,-5.1405,4.1743,-13.2458,-0.54086,-9.6967,8.2983,-7.7045,1.1659,
4.9364,-2.9898,-6.702,0.038772,-5.3867,3.8393,-6.76,4.8884,-5.7024,-3.8826,-1.8838,7.3183,-12.0627,-7.0985,
4.8812,-7.3897,-2.2028,0.75935,-13.4996,-4.8272,-6.5958,2.4255,8.7397,-1.4805,2.8085,7.1201,-9.1698,-18.0013,
1.696,-6.9465,0.82169,2.6422,-5.459,-4.5374,-5.7179,-1.5762,13.1566,-1.8738,-5.555,8.6214,-3.3172,-14.9928,
2.5586,-3.1553,0.29046,1.5193,-5.6134,-0.40874,-2.9647,3.3386,16.2235,-3.2077,-0.40096,10.0323,1.7025,-9.2729,
5.2974,-5.8582,1.7193,-0.017842,-18.7737,-7.6148,-5.1967,3.1385,22.4807,-1.0868,2.9973,6.538,-1.7738,-11.6089,
8.3538,-6.9528,4.9904,1.4293,-6.0784,-7.6401,-3.4389,-1.8702,23.5423,6.209,-4.8951,8.0737,-3.1139,-9.9482,
10.0219,-8.705,5.8962,3.5129,8.3863,-9.3506,2.7932,-0.55297,26.2273,9.4521,-1.4681,8.7948,-2.6859,-7.6639,
16.1691,-10.5928,10.3627,5.7122,14.7525,-16.5028,6.9639,5.2648,37.6686,8.885,12.72,6.3385,0.84974,-4.312,
20.5018,-8.9932,14.0795,4.4054,13.3852,-17.9228,8.4741,8.8055,44.0858,13.6543,20.5134,8.3685,5.6192,-1.161,
12.0408,-7.0073,12.7528,2.6948,11.1359,-16.3655,6.0374,7.7948,39.0301,18.6196,5.1826,9.3127,1.4257,-1.5733,
6.2569,-11.1664,10.7823,4.2206,3.96,-16.5886,5.9164,7.5683,29.2167,16.7793,-2.9621,8.9951,-4.6856,-1.2377,
10.7018,-13.8709,13.992,5.8956,6.6149,-18.0034,12.3103,12.8988,29.3919,13.8444,10.7135,11.3477,0.41623,-4.5379,
10.5416,-12.5567,15.5626,6.0238,8.6281,-21.2618,11.5717,13.5711,29.0747,12.5318,2.8398,10.1847,5.2115,-6.6757,
8.2223,-3.8491,16.7982,8.3139,6.4232,-11.068,9.1902,11.5516,15.52,16.3596,-9.6231,10.7787,6.586,5.535,
1.462,-7.9569,5.6672,1.0661,-1.6749,-3.6555,1.4079,2.6638,0.48885,8.1472,-6.1532,4.3476,1.3706,3.7566,
-1.2766,-10.6128,-0.69836,2.2072,-1.8152,-2.2306,0.11837,3.2271,-0.1429,5.0071,3.1338,6.2561,-0.881,2.3261,
-3.3696,-7.3244,-0.41549,4.2444,-5.3217,-3.3021,-4.9504,0.38234,-4.7141,3.0194,-9.8286,7.0856,-9.7457,5.802,
-3.4081,-0.37772,-4.4881,0.85604,-14.8845,0.99363,-14.0532,-5.6664,-18.1698,-4.6338,-17.6748,1.1166,-18.0793,4.2488,
-2.2398,3.0194,-2.7726,0.32275,-13.5095,6.7186,-11.7642,-2.9163,-19.9717,-5.3196,-9.8654,-3.7706,-15.0663,3.0296,
-0.90011,2.1153,4.3836,3.4369,-4.7448,5.5921,-2.1402,1.3561,-14.1941,1.9894,-9.9969,-4.2673,-10.5469,-1.2496,
-0.3644,2.4701,13.2794,6.1225,1.8062,4.2925,4.7368,6.5771,-3.7017,11.9927,-9.8788,0.32683,-7.0218,-6.477,
-2.0295,0.15298,17.5441,5.5144,1.939,1.3836,5.1758,9.3157,-7.0948,13.9245,-8.5634,-0.89785,-2.021,-4.4014,
1.4667,0.62573,13.5994,4.2192,3.2689,3.7112,3.419,7.311,-18.7202,9.2326,-8.5315,0.12012,1.4747,3.0935,
0.17317,-0.13494,6.7577,0.35087,0.42148,1.3191,0.080564,1.3285,-16.8743,5.5454,-5.8502,1.3182,-3.1933,-0.22534,
-3.4522,-1.8141,12.8599,3.9452,-0.32717,0.51708,0.79909,4.3823,-3.5693,8.3462,4.8651,7.2647,-7.0991,-1.899,
-3.2453,-6.5257,16.4266,6.1184,1.1385,6.2704,2.6791,7.4936,-4.8012,9.7734,9.3932,11.1673,-6.6733,4.4816,
-3.2915,-10.2315,7.0054,-1.2381,-5.9192,8.0638,-4.4711,-3.3199,-18.6131,2.1975,-3.4624,5.918,-9.8879,4.4537,
-2.6119,-0.94076,7.067,-0.68165,-10.867,9.5079,-9.0237,-4.0848,-30.6322,-5.1654,-10.4857,2.6702,-14.1156,7.5607,
-2.4552,5.3827,13.3919,4.6619,-7.8043,15.6864,-7.518,2.4268,-29.2762,-7.2656,-5.0359,2.51,-15.6788,10.9635,
-1.1028,2.8903,13.7934,4.141,-5.1667,14.9859,-7.3081,-2.7803,-30.171,-6.1065,-6.4207,1.6367,-16.907,6.2085,
4.2658,1.7528,15.8579,3.8923,-3.8931,10.2302,-4.4593,-1.6494,-29.8072,-1.402,-12.3022,2.0202,-13.4826,3.9076,
5.4561,1.1652,12.9782,4.1407,-7.5159,5.278,-3.2278,4.2342,-25.1263,-2.2818,-13.9747,-1.4755,-10.7455,1.7449,
2.4776,-0.10951,12.4407,2.2055,-7.7878,2.7922,-4.239,-2.0454,-23.3777,-5.2784,-10.0027,-2.1098,-11.3061,2.8455,
2.5702,-2.2723,19.1661,-1.542,-3.7049,4.794,-2.7796,-5.5379,-21.7339,-0.38168,-0.96664,5.4888,-10.8684,5.8081,
7.9594,-1.4129,25.4877,-0.24491,-0.83174,9.0855,1.4843,4.1942,-7.1737,9.041,10.9017,7.8103,-9.0113,1.362,
7.2408,-1.5691,21.7893,3.3852,-2.4691,6.3712,2.1186,6.5936,3.6211,11.6316,10.0066,1.7981,-8.2296,-5.2272,
4.396,-1.9571,17.1075,1.2541,-0.39249,5.0248,2.4737,2.8238,-2.8629,5.1493,-1.1988,3.1367,-3.8797,-2.0213,
4.1323,-1.8397,18.4914,-0.26738,2.0412,8.0978,2.8072,2.6543,-9.922,1.4659,-1.1269,8.2507,0.20994,-0.45421,
0.75084,-2.4522,18.5872,-1.9386,-0.25045,7.3709,-0.97668,0.80785,-5.7113,3.0652,4.9663,7.9971,-1.9718,-2.1137,
-0.74024,-2.3048,16.0259,-4.7145,-1.6814,4.0364,-5.2562,-2.1329,-5.8503,2.3996,2.7403,5.5888,-2.8176,3.3155,
-4.0701,-1.2029,11.2077,-3.4676,-2.5447,5.7222,-5.4234,-4.8972,-15.1409,-4.4935,-3.2089,-0.048927,-4.095,3.5988,
-5.5131,2.0028,12.7047,2.2841,-3.5968,9.4767,-3.4103,-4.8444,-16.8836,-3.5006,-2.293,4.0514,-7.9467,2.1775,
-1.0849,2.1236,15.0754,4.3162,-8.4431,7.2208,-5.3753,-3.8308,-15.6296,-1.1218,-2.3969,11.2801,-14.9417,1.8059,
2.5956,2.2371,15.3762,0.44182,-6.7313,7.5105,-2.8837,0.014472,-12.0403,-5.6338,-4.9041,7.4698,-10.4298,5.313,
-1.4163,1.1393,15.4177,-5.369,-1.0245,9.9521,0.18212,0.013833,-10.3537,-11.0801,-3.1639,-1.1729,-5.4654,5.9583,
1.0788,2.9991,20.7594,-5.5288,-0.96304,8.8731,-0.79314,-1.9152,-12.625,-5.5946,-1.0458,-0.13863,-8.512,4.1545,
6.3167,4.7473,27.2266,-1.8231,-3.3158,4.0024,2.6289,1.0918,-5.6006,1.9714,2.3914,2.2798,-8.0012,-0.43305,
0.87557,1.811,27.28,0.93737,-0.94773,1.5926,5.1223,4.6417,0.76056,2.0941,4.899,-2.4365,-7.2802,-6.915,
-4.2382,1.4613,23.474,1.6045,-1.1318,6.5587,1.6814,2.676,-3.8644,2.6918,3.8821,-0.12091,-5.1562,-0.9565,
-5.4302,-0.55455,19.1733,-0.41997,-14.0793,7.1295,-5.6503,-4.7154,-11.8272,0.60167,5.5774,4.7066,-6.2931,3.4392,
-4.8631,-0.28054,16.8176,0.32835,-12.9934,3.0861,-6.0344,-5.1556,-18.5896,-6.906,6.4478,5.1473,-9.0487,1.5459,
-4.5716,3.5929,16.2907,-2.1017,1.8862,5.3113,-2.7796,-2.4359,-19.4022,-8.902,0.27615,3.8744,-7.0598,1.4533,
-3.5742,4.1005,20.3747,-4.6269,11.5343,3.7876,3.8949,-3.0129,-16.5511,-3.7884,-3.8375,6.2933,-0.12848,2.5712,
-3.3597,-3.8583,23.973,-3.385,10.8427,-5.1168,7.9995,-3.3141,-18.932,-0.18661,-0.71523,9.2901,1.8074,6.7553,
-5.0863,-8.4475,23.4987,-1.2537,11.6379,-2.8816,7.0376,1.7055,-14.904,3.199,2.2202,12.5891,0.25318,14.5446,
-5.986,-4.8072,22.8119,0.026365,7.3247,5.2455,4.9281,4.2542,-0.75339,6.6225,3.7742,15.4492,3.371,14.8773,
-4.4218,-7.652,23.6123,-1.1803,2.3052,-0.13114,6.3194,2.312,0.49688,5.984,6.1991,11.389,4.8562,6.513,
-3.9157,-15.6288,24.8469,-1.3502,3.3724,-10.005,5.2171,0.48582,-8.9327,5.3842,10.4067,2.7517,3.8417,4.4348,
-4.1627,-13.7272,26.2484,-0.78725,2.6881,-4.102,3.4583,0.93906,-7.4324,5.5431,17.495,6.9253,4.5755,10.9176,
-2.4669,-6.1549,24.6735,-2.1861,2.0447,0.96458,3.7325,2.8107,-6.9867,-2.0206,8.2504,14.2224,4.3008,8.8165,
0.091229,-5.3037,21.2647,-1.091,0.95769,-2.9501,3.9905,-1.6963,-15.7265,-7.202,-6.3446,10.4765,-0.77799,5.877,
-1.1193,-7.1544,18.7837,-1.7487,0.1771,-4.9421,5.4385,-6.6564,-17.4343,-4.1185,1.6283,3.8226,-3.8646,11.0677,
-2.016,-4.7969,24.4056,-2.1257,1.1308,-2.2354,8.9686,-1.4363,-9.6393,0.94928,14.5461,2.6289,0.70609,11.8504,
-1.8951,-1.1347,29.2078,-1.9982,1.0629,-2.5832,8.4305,1.5424,-11.9535,0.89232,1.6217,3.4355,2.5915,1.016,
1.5929,1.8257,28.9016,1.014,0.51701,-3.3923,9.3707,-2.8887,-19.4312,-4.946,-5.2242,5.1573,0.98994,-0.97292,
3.4255,-3.1045,26.2034,2.8814,-0.96027,-2.2249,10.2547,-4.1616,-16.8191,-7.5413,8.1046,4.8479,-0.99765,3.4238,
-2.5646,-8.7029,24.6312,-1.6298,0.061671,-0.16323,5.3011,0.90877,-7.1328,1.1059,15.8135,8.8958,0.026534,4.1822,
-2.6515,-6.9756,27.7328,-1.2913,2.7093,2.4979,1.8498,5.4338,-1.6434,10.9217,7.8746,13.9054,4.6045,8.5108,
-3.2157,-8.2443,24.3816,-0.49047,-1.5511,-2.7132,0.05157,0.52799,-8.5347,2.7946,-4.8899,6.5636,2.1586,4.8671,
-2.7816,-5.0983,22.6778,1.7079,0.71138,0.58284,8.0024,0.25557,-10.6739,2.8681,-1.9452,7.3749,2.7522,3.852,
-2.8557,-5.0334,23.0041,-0.56374,1.3916,3.6809,9.2091,-0.0011899,-9.3106,5.3471,3.7151,10.0654,1.8642,4.3437,
-1.7205,-7.1415,24.5164,-1.4938,-1.102,-0.87828,1.4261,-1.4469,-4.4132,1.6523,2.5279,6.0875,-0.65782,0.22673,
-2.5811,-4.7848,24.9736,1.9703,-1.0359,0.13875,0.85818,-2.3244,-5.5946,-0.85745,-4.8542,2.3478,-3.0289,3.5876,
-1.2214,-1.8467,21.7879,2.093,-0.73233,9.5304,3.9402,-2.4259,-12.7308,0.39929,-3.3581,7.7505,-1.6419,11.808,
-0.66573,-6.0742,19.5166,-0.44266,-4.5452,6.548,1.7756,-1.7984,-9.5568,1.8216,8.8945,11.1419,0.3848,11.5819,
-4.0002,-11.0124,20.2738,1.0297,-6.6826,-3.9678,0.70471,-1.6905,-4.6446,2.1942,8.8428,7.0989,-0.12022,4.62,
-0.86794,-2.6386,24.8419,5.3065,1.4313,8.8036,8.3754,3.2314,-8.7045,7.365,2.5278,10.0472,5.1894,9.6457,
-6.6002,-2.4801,19.4952,0.16759,-9.2596,11.65,0.6423,-0.33673,-15.4128,2.585,2.8583,11.8547,-0.90631,6.1747,
-7.8919,-4.9828,17.6022,5.7012,-20.9966,3.4788,-5.9042,0.88831,-5.5704,3.1523,14.9789,15.7227,-3.5035,4.1165,
1.9819,-2.9969,14.859,6.5641,-8.4084,5.4394,1.4397,2.5225,-8.3695,3.6868,8.0548,11.1642,-0.64195,7.0032,
9.8169,3.2087,16.1367,1.5908,6.1962,3.908,8.3434,0.20173,-19.6777,1.2962,-6.5284,1.0946,-1.3266,3.9317,
11.3971,2.7752,25.5323,3.1826,19.9244,-10.4265,14.8322,3.3231,-8.1327,3.8695,-2.6423,1.2694,-1.006,-1.8478,
7.5802,-11.1296,21.3495,-0.62381,19.2111,-23.9009,10.8093,-0.49123,-5.4756,1.4686,-0.79604,-2.4217,-2.6324,-9.2087,
16.5249,-2.99,21.7556,5.9216,22.6377,-24.877,11.366,2.6713,-9.2444,5.4779,0.45656,1.339,1.1405,0.26185,
17.4616,2.492,23.8247,8.4583,21.2794,-12.7791,14.058,3.9573,-4.8333,4.1849,2.8397,1.2587,-2.7843,4.1025,
6.532,-7.0579,20.708,1.4433,11.5665,-18.0383,8.1533,0.58633,-2.3742,-1.6098,0.49974,-6.2887,-4.7864,-2.1692,
0.83767,-8.0805,14.1628,-1.0536,8.9446,-19.3659,2.3613,-1.3768,-6.5703,-5.8518,-4.8327,-4.4653,3.2138,-0.59299,
-0.65885,-3.2569,7.0466,-2.4367,7.444,-15.7938,0.77379,-3.7043,-4.7298,-7.4289,-2.6145,0.14138,1.0927,-6.342,
-0.13739,-0.16942,6.1416,-1.3261,3.1406,-8.5797,1.2093,-3.9645,-0.58961,-0.71662,4.2908,-0.3495,-5.7217,-5.9615,
2.5219,4.42,9.8702,2.3684,3.1931,-1.5574,1.8596,-3.968,-2.7234,-0.91459,6.6845,5.2151,-3.2093,6.2063,
-0.52143,0.78038,7.35,-2.594,2.0376,-2.4279,-0.18013,-8.5502,-1.1137,-14.9597,-0.94699,3.9379,-4.463,-0.43255,
-2.9005,-5.5327,6.909,-4.3667,3.8433,-0.83615,5.1331,-5.1449,12.9321,-12.9773,-2.8186,-0.63651,-2.7487,-3.2989,
-4.1725,-4.7191,5.5304,-3.6226,2.1667,-0.78575,2.8971,-3.8721,12.1564,-3.0399,-5.0594,-3.0087,-1.1377,0.7552,
-2.7171,4.4819,3.9933,-4.6103,-1.5789,-3.3899,-0.89233,-4.8448,11.1859,-4.0626,-6.4433,0.3051,-1.7926,-1.9414,
-2.5541,8.5518,5.2,-4.3337,-2.93,-5.5971,4.4639,2.1948,24.6147,-0.44435,-1.7179,3.1793,-1.6851,-4.2351,
-2.4008,8.0387,11.1549,1.229,-0.82601,-4.297,9.4987,6.4014,37.2378,7.2951,1.2777,5.3987,-3.9941,-0.12413,
0.63552,4.6641,14.3418,2.1194,1.152,-5.4852,6.0365,3.607,29.9421,7.3395,-0.72739,7.0032,-8.093,0.36503,
4.9362,4.3842,15.8916,0.54593,-0.84534,-8.0481,5.1923,2.9086,21.3971,6.8992,-2.6119,7.5469,-7.6074,1.3075,
1.7473,5.5672,14.4557,2.9235,-7.5438,-6.1197,2.4704,0.32373,18.6668,2.1467,-6.7938,3.2374,-13.4177,0.74638,
-2.214,7.1614,13.5886,4.6763,-8.055,2.4427,-1.5342,-2.5878,15.1367,-0.87465,-8.3143,3.0432,-17.4329,-2.6724,
-2.804,7.455,12.0502,3.1904,-9.2589,0.60889,-5.0575,-3.1559,9.1668,2.3113,-8.5388,3.584,-16.146,-7.0918,
-2.8768,7.7306,8.6759,0.34792,-12.8007,-8.8276,-4.5131,-3.6894,1.6274,2.4136,-8.2675,-1.6928,-16.8644,-5.461,
-3.6685,6.7849,12.976,-1.6011,-8.6582,-9.7442,-0.38595,-2.9861,1.0478,0.82299,-5.3608,-2.0731,-16.3345,-4.169,
-0.073917,4.9315,20.3922,1.387,-0.42644,1.4452,4.4575,3.4596,4.8409,5.1115,1.7093,6.246,-13.4267,-6.8114,
1.1358,1.5021,16.5175,0.09893,-3.5339,6.9026,2.5032,2.0472,-0.51081,5.0462,-1.5268,5.1483,-18.1642,-3.2692,
1.3086,5.9918,15.2853,-0.14797,-7.4192,4.8012,-0.78043,-2.6554,-10.8445,0.64608,-7.4607,-2.1505,-18.2797,5.3626,
-0.45734,7.3192,15.0913,2.9942,-6.7333,7.1645,-0.49241,-1.2906,-15.7372,1.33,-4.3618,2.5581,-11.1571,1.9076,
-4.527,-3.484,10.5704,1.6094,-8.4982,9.8679,-0.22167,0.47387,-7.8033,8.2403,-4.3408,11.3224,-10.7289,-1.8221,
-4.2554,-4.2393,16.2027,1.5124,-9.917,7.3476,4.1295,0.92737,3.2702,14.0124,-9.8654,10.6431,-10.0852,6.9639,
-1.108,4.2102,24.8717,1.9041,-7.8757,5.9424,7.7386,2.318,-3.193,9.7972,-4.9347,4.2199,-6.1056,7.5104,
7.1536,4.4396,25.3076,7.5744,-1.1362,13.781,9.2024,5.5534,-11.6781,6.7992,9.4614,4.4491,-4.293,3.2034,
7.2066,-4.0213,21.379,8.084,-4.9246,11.9901,3.3479,2.8098,-9.0494,3.0171,14.0759,3.7,-10.3022,1.5652,
2.1944,-1.6113,24.6756,4.9474,-11.619,8.1372,-1.9151,1.9179,-3.4448,3.5589,4.3133,2.2727,-10.8893,-1.1803,
-0.58879,4.5114,22.9541,6.8202,-10.1985,13.6745,-2.0412,3.49,-13.6024,5.0326,-0.52528,1.4135,-9.0307,-1.3505,
-2.7224,3.9995,20.8537,12.4363,-4.5252,19.8437,5.0714,7.3782,-22.186,4.0075,-3.1451,4.9438,-5.8375,6.2022,
-3.7641,4.0007,23.2179,10.4851,-9.797,21.3048,7.4184,8.141,-15.7934,9.3109,-6.0896,6.3347,-9.5848,14.2659,
-0.88717,1.1091,21.1017,3.3485,-10.8965,16.4107,0.94731,3.0728,-12.6767,12.8492,-8.3754,1.3748,-18.4098,12.2047,
8.0839,-1.6088,21.5228,3.8707,3.8573,10.3646,5.47,2.6473,-17.9418,7.9811,-6.6678,1.5335,-9.8336,1.1088,
11.6964,2.1034,27.7033,7.2537,16.0387,8.0557,13.0958,6.586,-18.5523,5.8152,-4.5807,6.9849,2.0848,-10.7681,
8.5843,8.7259,24.1129,5.8543,8.8096,8.5365,7.4895,5.7087,-12.6187,5.4661,-2.8598,4.1555,-2.8607,-13.4967,
6.382,7.479,16.1584,2.3696,0.80922,6.337,2.4609,3.197,-12.5845,1.0408,-3.8931,-2.6013,-8.2327,-4.7327,
7.6866,2.4512,20.2506,5.8431,-0.4444,2.3416,5.9284,5.1746,-11.1063,8.9323,-3.9007,3.0981,-3.6412,-2.7618,
5.7793,-1.5525,26.7483,8.8667,-5.7201,5.5754,6.5368,3.9,-6.5838,15.627,-3.1845,6.2869,-4.8692,-8.8628,
5.4326,0.46884,28.5176,8.8166,-5.8593,13.4355,1.3243,0.77348,-9.0808,4.0841,-3.9573,1.5709,-8.4334,-4.4746,
2.6963,-0.041452,22.4685,-0.38923,-2.6155,8.7733,-5.5038,-5.5397,-13.3564,-6.7661,-0.34562,-0.4513,-13.2298,0.13239,
1.3292,-6.0645,19.4327,-3.4994,-2.2176,7.0416,-2.5225,-4.4844,-11.3502,-1.7808,5.2187,3.6731,-14.1233,-0.11652,
2.6957,-7.6288,25.0156,6.352,-5.4585,10.9574,2.9315,2.0516,-13.5613,1.701,-2.8072,3.9347,-10.8653,-2.5197,
7.5956,-2.5914,33.3971,13.4427,-3.4438,10.059,7.3349,6.0259,-7.204,4.25,-4.8079,5.3858,-8.0444,-4.0557,
7.3809,-5.5694,34.0444,9.9846,-1.5499,2.466,8.1001,5.9053,2.1463,4.236,-2.8322,4.8217,-11.1772,-8.874,
5.0094,-11.9841,32.9656,7.9393,-4.3495,6.174,6.1678,7.9611,1.0532,3.9818,-3.6266,2.1223,-13.3988,-8.3416,
3.504,-11.0241,32.1929,9.6325,-3.8475,15.2036,5.0749,8.2068,0.26714,8.8046,-4.1319,2.7178,-14.7641,-5.6719,
5.7039,-7.4701,30.7433,10.0184,-2.6523,15.7376,5.2523,3.3761,1.6969,7.7939,-4.8483,3.5191,-19.6628,-7.2598,
10.1823,-5.0937,33.237,8.453,-1.5293,15.7577,4.9372,2.2092,-1.7794,2.506,-4.0755,4.2718,-16.0729,-2.9678,
7.4022,-6.9573,31.0018,5.7771,-4.5706,12.1611,1.0255,0.8718,-12.0365,5.0068,-4.0719,3.2926,-12.4572,-4.9589,
5.994,-5.5757,26.2494,8.8047,-3.8147,12.8775,4.3382,3.7113,-14.2066,13.8656,-4.7917,5.023,-13.638,-6.5894,
5.3929,-11.2672,24.4335,8.035,-4.3091,10.8995,3.355,3.7296,-11.6669,7.0077,-8.6015,3.9987,-17.8814,-5.4711,
6.9978,-15.4114,29.7162,8.5175,-2.1222,7.8352,4.1178,4.9523,-2.2901,2.7311,-2.783,4.241,-17.2904,-6.1069,
1.2755,-17.8612,25.0409,5.5961,-3.9228,3.9909,1.9423,0.79857,-3.5987,7.3877,-1.652,3.0224,-20.1094,-12.0073,
-2.6574,-15.8252,19.2001,6.2242,-8.5082,7.1259,-2.9945,-3.5877,-8.2035,10.3189,-6.855,5.7331,-24.6874,-6.4661,
-1.7753,-18.9733,18.2888,7.5377,-14.9873,11.2774,-9.323,-1.2035,-13.2551,-0.18243,-9.0955,5.1479,-28.2678,0.42911,
2.429,-17.5939,20.8074,9.737,-10.9546,20.4831,-5.1477,4.8947,-18.003,-7.1614,-3.4881,7.4906,-26.3306,6.4294,
-1.8141,-8.1021,17.8717,9.8761,-5.718,29.618,-1.2234,4.842,-23.4307,-7.9365,-5.9299,7.2822,-22.0996,16.4075,
-4.1156,-8.0982,15.8353,9.2833,-2.9646,31.2156,-0.18592,5.0337,-25.3991,-5.5324,-8.9483,7.3274,-17.3992,21.6902,
-1.2173,-21.7123,15.1259,5.5931,-3.9918,20.9068,1.0303,2.0803,-24.5983,-3.9954,-8.1707,5.6827,-22.863,8.0961,
-2.8315,-28.9659,13.4955,1.6421,-8.3316,12.1806,-4.0932,-6.4802,-21.9171,-1.1041,-9.8496,4.1364,-30.891,-3.7179,
-11.3387,-31.5663,11.2395,1.5436,-7.8317,11.9317,-9.6322,-6.0914,-15.2994,2.8186,-9.7406,1.96,-29.0375,-0.12037,
-9.9353,-36.6622,14.1803,6.9943,-1.3364,12.9028,-0.13642,2.2276,-11.7301,1.9263,-4.0947,2.5656,-22.716,3.9844,
-5.2416,-40.9702,13.5707,6.8159,-3.9076,10.9235,3.9693,0.88891,-14.1598,-2.2869,-7.4642,3.6167,-24.0043,1.094,
-8.3015,-39.958,10.3463,3.5149,-11.3859,10.7505,-3.4997,-3.5027,-15.7206,6.0455,-14.2472,0.50764,-29.7947,-1.3817,
-8.2856,-34.6682,5.8689,4.2681,-8.7743,13.4797,-3.7714,-0.88222,-16.7055,9.057,-9.0538,-0.0049795,-34.2737,0.14721,
-2.9677,-30.178,3.1067,5.4578,-6.8021,16.5273,-3.5456,-0.82929,-18.5955,-3.0556,-0.7978,2.8874,-36.0737,3.5128,
1.0667,-29.3314,7.2586,11.8792,-8.8041,22.7665,-8.1531,2.1125,-16.5157,-0.4621,2.6241,7.0529,-29.571,9.5686,
-2.3718,-39.1409,2.4848,9.2383,-13.5785,20.4362,-12.4846,1.9858,-16.971,4.8683,-4.7638,6.6293,-32.6172,7.5482,
-2.7118,-40.6488,0.88941,3.3813,-9.3893,18.7281,-5.9509,3.7948,-10.1681,1.2017,-7.3705,7.1959,-39.3373,5.6491,
-1.1026,-36.2817,2.2821,5.1064,-4.0055,20.0143,-5.1117,2.1211,-6.6655,-3.6909,-2.5897,3.3894,-40.8334,4.8279,
-1.2774,-34.3458,-0.50594,9.3798,-4.0061,20.9831,-7.4561,0.78854,-9.881,-0.81832,-0.74707,-0.91084,-37.66,5.2616,
-1.9239,-34.4542,0.24754,10.022,-5.9351,21.4111,-4.3574,3.3926,-11.4573,-1.01,-6.2461,1.3127,-35.1595,6.151,
-2.2907,-38.6537,2.643,6.5284,-7.025,20.6086,-3.1323,5.5994,-8.3598,0.49667,-7.3174,6.0545,-33.0499,7.228,
-3.3583,-46.2164,-3.5413,3.4854,-9.7368,16.7207,-7.5235,2.1301,-10.9914,7.9384,-3.2627,8.3425,-38.5387,5.1073,
-1.4696,-46.0947,-6.9443,7.3736,-10.8398,15.9585,-9.7236,-2.0955,-12.9833,12.0419,-0.41581,6.6371,-48.5187,2.6317,
-2.1045,-45.0163,-2.43,8.6187,-9.4663,14.7602,-8.4171,-2.6924,-8.5889,4.8117,-0.63206,3.5876,-50.1871,2.715,
-1.0139,-45.2076,-0.83796,7.6196,-6.4882,14.8385,-3.5737,0.36118,-10.4839,0.66658,-3.4862,7.2287,-41.3913,4.4803,
1.4568,-47.3156,-7.5366,5.716,-8.5093,15.3942,-3.841,-1.5885,-16.6035,3.0369,-4.7235,6.7948,-40.3538,1.8011,
1.1287,-52.9126,-11.182,6.0961,-11.132,14.7117,-9.6363,-5.5907,-11.9919,6.4699,0.13941,2.2899,-46.8507,-0.95828,
-0.62628,-56.7275,-8.3417,7.8995,-12.1513,10.2136,-13.1555,-5.0143,-7.175,6.3227,1.3363,2.8755,-51.5114,-0.65982,
1.8217,-53.806,-6.8773,5.0152,-7.0836,9.1186,-8.0281,-2.7855,-13.4932,2.5691,-0.67226,5.5952,-46.9747,0.34387,
1.7121,-58.2906,-8.3929,0.85812,-8.1047,10.0175,-2.7259,-2.1362,-16.54,1.4509,3.2247,4.7773,-45.1203,1.2873,
-4.4161,-65.1571,-10.5404,3.4582,-16.5364,6.2835,-9.0698,-1.2847,-10.9681,7.8717,4.7184,4.7321,-53.2589,0.96913,
1.8744,-54.7399,-5.3284,10.2401,-8.5544,10.4857,-10.2129,3.3717,-12.9613,8.6043,-1.5902,9.5094,-50.3046,3.5621,
3.4494,-48.3223,-4.7678,6.0105,2.323,9.1335,-8.877,-4.3022,-26.2836,-5.6505,-13.7871,2.9131,-50.4198,-1.2312,
3.7241,-51.2075,-5.4458,2.7576,2.6658,4.2474,-13.6468,-7.9007,-27.2375,-5.7937,-13.924,-0.154,-61.4946,-3.5672,
8.8035,-51.9915,-7.0472,6.9307,-5.2072,2.5465,-18.1306,-6.9445,-19.3362,2.267,-13.0888,0.8198,-67.8073,-4.3173,
10.2035,-44.0515,-5.6603,12.7814,-2.9666,10.1065,-8.8478,-5.5635,-14.8018,6.4697,-9.4109,4.627,-55.544,-6.9507,
5.2525,-40.9265,-2.9106,11.0502,2.996,10.464,-4.9427,-4.7477,-3.3087,9.4555,-1.1335,11.0978,-49.3193,-12.3183,
3.9733,-47.6299,-0.80774,10.8693,3.2984,0.19492,-9.4667,0.83955,6.5308,9.8523,-0.58377,12.8419,-52.1447,-12.0613,
6.1452,-57.3054,-4.1335,12.6275,-1.72,1.1473,-7.9346,2.2352,0.83655,9.7433,-6.815,10.1434,-50.462,-6.5172,
6.9816,-60.8567,-7.5009,7.7723,-2.8218,9.5144,-10.1098,-6.3348,-0.41893,10.8457,-7.1293,12.1861,-47.6753,-4.9211,
9.6962,-57.4465,-4.3995,6.583,-0.0014362,11.5951,-13.6006,-1.375,13.7062,11.8822,-0.67595,16.5166,-46.502,-7.2769,
12.7298,-52.3122,4.7825,13.6599,-0.72425,16.443,-4.3486,10.5177,26.9838,16.231,6.8364,19.141,-45.881,-6.1174,
19.4381,-50.8607,10.5211,19.348,-0.92199,22.928,2.9022,12.056,28.7395,20.8009,10.5238,18.7157,-46.2614,-6.9554,
19.9586,-57.2093,7.2385,15.0536,0.82055,17.455,-3.2978,8.6811,29.1838,15.4551,4.3488,14.9412,-43.245,-6.7791,
12.7357,-61.7303,3.6709,9.5709,-3.8082,8.4541,-10.5715,3.5811,18.5154,9.9482,-8.6866,13.3221,-44.7474,-1.7928,
11.7304,-63.5701,3.6917,12.6123,-6.231,12.526,-11.6244,4.089,6.0761,13.4489,-10.3346,19.5124,-52.9088,0.96609,
14.6418,-63.8534,3.7111,15.9527,0.16861,18.2821,-6.3477,9.3875,9.8089,19.6316,-2.7249,25.3313,-51.9037,-5.1177,
14.2454,-60.5042,3.4887,14.9957,-0.32367,13.329,-7.895,5.45,12.1126,16.0438,-1.1149,19.9548,-47.3432,-4.3284,
10.4984,-67.9614,-0.57725,8.3112,-8.9811,9.1546,-17.0625,-4.5182,-2.7141,5.44,-7.7971,14.9009,-53.1797,4.6081,
10.1097,-77.9837,-2.2298,6.1255,-5.7909,12.7029,-16.7616,-0.63193,-7.4923,12.1033,-5.1601,20.9969,-57.4605,1.6803,
17.4571,-74.63,-0.89076,11.7838,-0.38202,14.5921,-13.1046,7.8419,0.42908,25.4771,2.6217,24.7986,-52.8078,-3.4819,
19.7839,-70.6344,-1.8014,8.6664,-6.1439,11.3062,-17.621,4.4791,-11.1661,16.8383,-2.3565,17.5258,-55.9061,2.5118,
12.3299,-77.4835,-2.1755,3.8076,-8.6673,11.5921,-21.3842,2.7641,-19.6549,11.0073,-8.4816,13.1003,-62.6746,5.2531,
3.3954,-81.0294,-3.9734,5.9893,-4.2909,11.8605,-22.9937,1.152,-15.1014,17.0953,-8.4549,14.7244,-60.8426,1.0816,
0.54033,-80.265,-6.3861,5.8711,-4.2747,8.9799,-25.7112,-3.4962,-23.5953,9.5623,-14.9372,11.6716,-59.8431,1.2579,
1.9544,-82.1978,-4.0745,3.109,-4.9823,8.4409,-27.0608,-8.5893,-35.6769,3.6862,-23.682,9.0433,-64.9294,2.1465,
0.14991,-87.63,-2.625,2.1991,-5.4062,5.2833,-33.3911,-9.2788,-31.3672,9.9725,-17.6815,10.1879,-68.9876,2.7406,
-0.34125,-91.5315,-5.36,3.0312,-9.4204,3.0379,-36.2081,-5.8298,-27.5569,10.3382,-12.7645,8.6121,-65.8124,6.9147,
-1.0441,-91.583,-7.6895,1.1621,-11.9887,8.3993,-32.8306,-7.1672,-40.0035,4.6563,-22.3625,5.9262,-64.515,9.6333,
-5.561,-87.2933,-7.9515,-1.5589,-9.1,11.5105,-34.4762,-11.3167,-51.7033,6.0639,-26.5646,4.3656,-71.4904,10.2599,
-3.2989,-82.5376,-5.546,2.8732,-9.5181,6.9637,-38.6741,-9.6736,-52.6985,6.1822,-18.2218,5.5501,-72.9853,11.0908,
9.9143,-85.298,-2.3208,7.0394,-14.2495,3.1718,-33.9434,-2.8263,-43.7519,9.668,-11.3438,10.5197,-64.7497,11.8715,
11.489,-93.9186,-3.8689,3.4835,-15.0816,2.7404,-34.558,-0.48769,-44.2601,15.1134,-12.3503,10.6113,-64.9622,12.8463,
0.6765,-98.8888,-5.5649,0.38216,-12.7307,2.0938,-41.6436,-3.3507,-44.979,11.3143,-13.5375,7.0823,-72.1517,13.522,
2.0818,-95.3655,-1.8565,7.1083,-14.8591,1.9683,-39.1448,0.22489,-43.2442,12.5637,-12.2432,10.9963,-70.2328,14.639,
9.4286,-90.3668,1.87,12.7072,-18.5471,4.0192,-34.6271,4.3086,-47.6393,21.6917,-15.1241,13.4694,-71.5626,16.8936,
9.5865,-88.078,2.9631,11.704,-22.0136,10.7677,-33.2724,5.2552,-45.5041,20.1495,-12.0473,10.9742,-71.8481,21.4238,
6.1187,-92.9164,3.2673,10.5197,-30.8158,7.7114,-37.5427,4.4578,-47.5942,8.8175,-12.7706,8.3875,-66.5732,18.2101,
11.2951,-91.439,2.8303,11.0934,-41.2594,2.6694,-38.4236,4.4313,-58.8386,9.4933,-18.0301,11.9816,-69.5685,17.8404,
16.4021,-80.6501,2.6604,10.9098,-44.0863,15.5244,-30.8156,4.1656,-58.3214,17.6004,-15.9843,17.0474,-74.5535,27.8573,
14.454,-80.6315,2.5009,14.5939,-44.8155,21.3417,-35.7153,3.9155,-51.4475,15.0985,-13.5789,14.5786,-72.4906,29.0783,
15.7558,-81.3373,1.1457,19.2618,-49.1163,15.4818,-43.9366,4.8858,-44.2632,12.0233,-8.6669,10.0884,-71.2745,25.1643,
19.631,-74.5289,2.041,17.142,-53.4002,16.9632,-38.8902,3.6285,-43.5356,14.6761,0.048026,10.4472,-74.7108,30.8851,
16.2837,-68.8521,-0.73277,16.3542,-52.3653,20.0426,-38.2441,2.2057,-47.4314,11.6266,1.2502,13.4355,-72.8795,36.9859,
15.7891,-64.7207,-1.6529,17.3016,-41.9926,19.3224,-47.0364,1.1091,-43.6212,10.929,2.1395,16.9682,-68.0245,39.1051,
19.9031,-61.5609,2.5435,11.6834,-35.3758,19.368,-45.9016,-3.0547,-32.5681,15.3346,6.1084,12.3343,-70.9331,35.5536,
21.3601,-64.3747,7.4527,12.1878,-33.0119,18.9294,-38.0857,-2.1484,-29.4089,17.0662,4.0548,6.0512,-70.7743,31.2513,
20.8017,-68.9482,6.2823,17.9644,-29.3443,14.66,-43.7546,-1.2963,-41.7443,14.8368,-4.6245,7.8572,-62.9125,27.6889,
20.0356,-63.847,3.4952,17.8508,-29.0297,16.673,-52.6985,1.1916,-53.3397,10.0902,-9.1673,10.7602,-61.5479,31.3302,
20.5207,-56.8829,1.1164,11.7181,-26.0829,21.2157,-51.2238,3.2893,-64.2393,11.654,-9.8226,5.0529,-67.255,39.8147,
22.4227,-53.229,-0.15569,14.6302,-18.4921,21.1483,-39.7145,4.297,-74.4849,19.3907,-4.6537,1.1346,-65.8711,38.1485,
19.1491,-50.9993,-3.0389,16.6449,-14.4903,21.3252,-36.8495,3.5573,-84.1158,18.2272,0.44601,1.5484,-59.0265,36.8239,
18.4825,-43.1188,-3.3384,16.61,-8.8003,27.7588,-39.4591,4.79,-93.1689,13.2771,-1.0269,2.9017,-57.413,45.2197,
20.7474,-36.6754,-0.24588,18.0238,-8.2726,28.9852,-39.5018,4.0205,-101.6788,16.3367,-6.268,2.7274,-61.1992,42.9883,
18.78,-45.8029,1.9381,12.363,-18.14,18.8108,-39.7827,1.61,-108.7137,21.3824,-6.6147,6.6615,-55.8399,34.3838,
17.8939,-52.9371,1.0987,8.4875,-14.4005,11.6559,-41.4935,2.2365,-116.2909,16.9662,-4.0489,5.5382,-48.8743,35.936,
20.6768,-42.53,0.068824,12.3172,0.56353,9.5109,-35.6293,3.0663,-123.4134,14.5021,-3.3237,-0.096613,-52.6904,33.2975,
18.4721,-34.6755,2.957,11.5779,11.9785,-2.1472,-27.2251,-0.0099423,-130.1086,18.4525,-6.9807,0.39135,-56.7598,21.1766,
22.6663,-35.4874,5.1898,10.4012,14.152,-14.0696,-28.0018,-2.4196,-136.4021,19.7553,-8.4901,6.1528,-52.8722,23.2803,
26.3679,-29.2607,3.6732,15.3206,16.4362,-9.1282,-28.491,-1.0692,-142.318,18.3294,-8.7038,8.4346,-50.4229,33.694,
20.4475,-19.3101,4.8991,17.7758,11.5937,-2.3135,-24.3711,-2.4513,-147.8789,17.2296,-16.3762,7.4466,-53.6642,31.1904,
21.1487,-20.5617,7.4973,12.8528,11.8623,-4.103,-20.0165,-5.1964,-153.1062,17.1596,-14.9118,6.5177,-49.4802,24.0162,
21.8082,-27.0408,5.6015,7.7435,11.6325,-4.8209,-18.8155,-3.4386,-158.0198,12.7558,-1.9658,2.7525,-43.6191,22.0931,
18.5712,-22.5262,3.819,8.2429,6.1139,-2.6038,-17.2047,-1.7859,-162.6386,4.7597,-6.1863,-2.7157,-44.3765,22.6958,
18.6621,-13.2208,3.8309,8.4716,14.1831,-1.242,-11.1107,-1.9199,-166.9803,0.37667,-19.0714,-7.6141,-42.9189,20.1291,
20.676,-9.2941,0.46772,4.3475,19.8399,0.037494,-6.3468,-4.4561,-171.0615,2.0414,-12.8658,-7.3981,-44.4412,17.2342,
26.1839,-2.9519,1.404,6.4972,19.1315,7.748,5.1213,-4.6707,-174.8978,12.0418,1.8857,5.5793,-39.3644,27.2874,
26.3001,0.35869,1.5607,6.3484,21.599,10.8986,12.7679,-8.0058,-178.5039,13.0065,-5.699,7.8956,-31.4589,29.7475,
24.7224,2.2652,2.4313,6.9317,22.7133,10.7269,12.002,-9.9357,-181.8937,6.4415,-13.07,5.0116,-31.9816,25.5524,
27.3364,10.5652,7.8288,13.5052,17.2532,17.0727,14.8971,-5.2422,-185.0801,13.5268,1.8142,15.0748,-36.5704,37.2757,
21.1165,14.0287,8.5641,12.4539,4.4076,18.2175,11.3519,-5.6506,-188.0753,21.6332,10.7437,19.232,-41.8482,44.4391,
13.5827,9.8127,8.5324,11.7069,-1.1593,15.1965,3.9221,-5.7937,-190.8907,21.7813,11.0634,16.6321,-41.2653,38.3986,
11.5625,-0.17626,6.3333,12.6913,-3.7413,9.705,2.4815,-3.7589,-193.5373,13.0026,11.6044,17.8033,-42.405,32.4788,
10.6281,-3.2988,4.2662,10.2429,-7.1319,1.6512,6.9122,-1.8462,-196.0251,11.4994,7.2929,16.494,-42.9939,28.8432,
10.9543,7.9863,4.4921,12.0385,-4.2938,5.4085,8.9076,-2.2174,-198.3636,20.4504,3.4808,15.0224,-34.6297,27.1126,
18.492,15.2197,7.1149,19.993,3.6763,12.7966,7.891,-4.9766,-200.5617,20.1875,2.7898,22.3156,-24.3572,31.7521,
20.0339,12.6194,7.411,18.5524,5.6253,15.1621,6.6948,-5.4011,-202.628,4.8762,-1.4748,22.6642,-24.1007,33.9447,
17.1446,19.8162,6.7254,10.9317,6.4928,23.6524,7.0162,-4.836,-204.5704,-2.5266,0.30091,14.7964,-24.8238,29.7388,
21.9006,27.3042,9.2143,10.2759,13.3342,12.5924,8.5233,-7.4383,-189.7654,11.725,9.9239,14.8731,-18.9959,29.8828,
22.0325,19.3991,11.0716,10.141,12.534,-2.2631,8.9759,-9.4022,-190.9131,18.6138,8.8462,21.2112,-13.9999,33.3921,
20.7108,22.5737,8.4792,10.0147,4.069,0.40338,6.0272,-6.9099,-190.5453,5.928,2.0489,19.4563,-11.7137,35.2452,
29.8323,35.3193,4.8371,16.4039,-2.6826,14.4792,1.0861,-3.362,-165.0126,4.8492,7.9518,15.1557,-9.8058,40.1202,
33.8266,47.3001,6.475,20.24,-8.7885,27.7104,0.056692,-5.0884,-149.2069,12.7531,6.9924,16.6566,-10.1816,40.1232,
28.6639,57.7184,10.1839,18.7847,-16.215,40.1478,-1.1518,-8.8804,-154.3545,7.4082,-6.6835,12.0418,-10.2939,30.244,
32.9693,62.6913,8.8498,19.3445,-21.268,51.8389,-4.6982,-7.6246,-159.1932,5.2766,-5.0776,8.6678,-11.8455,33.4907,
34.6069,57.7249,6.6317,16.4969,-28.9094,62.8286,-5.621,-5.48,-163.7416,11.9497,5.1096,16.5843,-16.6781,40.8816,
27.7097,49.9227,8.644,13.5788,-37.2983,73.1589,-6.2482,-7.5615,-168.0171,7.3762,3.3566,23.3019,-17.6057,34.5722,
24.6011,49.8199,11.0177,12.2819,-31.2038,69.0103,-1.0526,-10.0001,-168.3001,5.4876,2.1911,21.4216,-9.3185,32.0157,
22.884,49.4818,10.1157,14.1961,-22.8238,67.0389,2.6257,-9.1591,-155.551,12.1483,6.157,21.8235,-0.32371,37.5666,
20.306,49.1641,8.3035,15.5138,-25.0699,68.56,-3.5575,-7.4044,-138.746,10.214,4.1005,25.0933,-1.5095,34.1076,
23.426,56.8195,9.7335,15.5473,-25.4937,67.3389,-3.3438,-8.8883,-126.5648,3.8165,2.4084,22.1419,-4.7931,34.4713,
19.3691,67.5104,10.3546,19.1935,-18.9026,65.9499,-1.4562,-9.5601,-116.8018,3.8287,7.3254,18.644,-1.8542,45.1772,
11.2174,69.1237,8.5281,20.2114,-13.1891,64.6439,-8.3585,-7.7813,-107.1425,8.1782,10.9831,24.997,11.5133,48.4925,
12.7134,60.3969,9.7038,12.9731,-15.5309,60.0427,-7.6157,-9.0017,-92.7598,8.8931,9.1192,24.7024,21.6689,36.1828,
16.771,62.5575,12.4959,9.7842,-15.5632,54.9936,4.8922,-11.836,-73.2148,4.5028,4.7155,18.3996,23.7431,26.2992,
14.319,67.9632,13.1923,12.5717,-8.3628,50.7302,7.9732,-12.572,-58.6987,1.3407,6.843,16.3319,24.2468,26.1672,
13.7005,66.5367,12.1597,14.4686,-4.7277,45.9988,5.8075,-11.5766,-45.295,6.8035,7.1555,18.0032,26.4073,23.392,
14.8067,66.883,11.9122,13.6005,-3.9621,40.8287,10.2795,-11.3641,-28.4773,16.0363,3.8336,22.2257,31.0894,16.6858,
7.4108,71.7879,12.4026,12.0611,-5.4116,36.6918,8.9396,-11.8874,-16.525,14.3512,-1.4578,22.097,32.8394,14.4798,
0.69965,77.6037,8.7661,12.7842,-6.0507,41.2392,5.029,-8.2818,-12.641,9.1518,-4.7446,21.2535,36.6539,21.8057,
1.1396,79.2142,5.3479,12.4991,-3.7595,43.1032,8.1017,-4.8926,-0.79555,13.9049,-2.5317,24.3166,41.2033,25.3181,
-2.7852,65.7843,7.4371,6.9284,-6.9084,26.417,4.7233,-7.0092,4.5548,17.8913,0.99441,24.7858,41.6234,18.4964,
-6.9565,49.786,10.8474,1.2104,-11.3145,10.732,-1.8269,-10.4451,18.3815,14.8895,3.8271,21.3704,45.8746,11.12,
-5.5752,55.4757,10.1966,4.9942,-8.7074,11.2932,-0.27104,-9.8184,31.3787,20.2627,2.6334,20.5701,46.0144,9.9708,
-1.3841,66.2472,10.5489,10.4789,-3.3643,14.9542,2.1556,-10.1934,43.5959,23.8678,-3.3092,19.818,39.3971,17.5675,
2.5551,74.6854,13.7723,9.8504,0.21181,14.0567,2.5082,-13.4382,43.9931,13.2765,-9.8593,17.6649,40.4078,22.7797,
4.3301,67.3118,15.8384,8.7771,3.5734,11.7671,3.8038,-15.5243,37.9789,4.7673,-18.4269,18.0513,45.6962,11.7721,
-6.5349,63.7552,14.406,8.2506,2.3951,4.3123,3.0936,-14.1108,41.4849,8.3377,-27.9264,12.6296,43.4365,-2.4315,
-17.4712,67.8836,12.8185,10.4068,-1.3643,-1.9717,3.1489,-12.541,39.2367,10.9707,-32.7586,3.9179,40.5891,-5.4193,
-15.2174,75.1388,13.7367,10.0232,2.8151,-1.1303,1.7549,-13.4758,40.016,8.1431,-27.6596,1.9958,44.1795,-2.4428,
-14.3046,72.0767,14.8406,2.6731,6.5026,-1.0627,-4.6171,-14.5954,49.6662,11.0287,-13.9487,5.7322,47.3133,-2.7784,
-14.4104,68.7162,12.5039,2.5129,7.0768,-6.7833,-7.2322,-12.2735,60.7862,17.5981,-3.9527,6.8348,53.1514,-0.68327,
-8.2429,72.3062,8.8614,10.5571,9.5445,-5.4122,-6.3163,-8.6448,62.8033,19.9164,-6.1259,9.317,60.0854,3.2143,
-5.3383,76.6446,9.2939,10.8874,10.8999,0.697,-9.7938,-9.0903,51.3223,13.4187,-15.3994,13.5785,55.5161,2.5394,
-7.6694,78.5536,10.9055,9.9935,4.2203,-2.96,-16.6778,-10.714,50.4121,9.4803,-14.2345,10.5944,48.5699,-0.26426,
-7.2092,78.179,9.287,11.804,-2.2996,-7.1212,-18.0875,-9.1071,55.1001,14.6961,-14.3445,4.6561,56.2608,4.0899,
-7.0177,78.5496,8.4887,10.8547,-0.47453,-0.1861,-21.0997,-8.3196,44.8044,12.6093,-21.4377,5.1,60.3569,9.87,
-9.248,73.1137,8.7025,7.0701,-1.1692,-5.2364,-20.5568,-8.5435,40.4291,10.1658,-16.0539,10.8198,57.9407,6.1445,
-5.8007,66.3166,8.6624,5.2,-1.0989,-17.4553,-13.5387,-8.513,48.6085,12.9302,-5.9317,9.6885,66.0336,1.4374,
-3.2834,70.2915,8.8657,4.6467,5.4746,-5.5621,-13.4494,-8.7252,47.3791,11.9131,-10.6374,5.4915,73.3996,1.5922,
-7.666,76.9201,8.5749,4.127,12.6181,8.8716,-14.3298,-8.4428,48.6339,9.5112,-8.794,11.1876,73.5751,2.7021,
-4.5547,76.8845,9.7476,7.4946,10.1737,-1.422,-13.2288,-9.6234,52.2235,9.6636,1.1337,16.5422,75.1863,4.227,
1.7446,75.4046,12.7782,9.6965,3.5378,-9.2909,-14.6045,-12.6615,43.5465,7.3966,-0.62157,15.7906,78.6289,10.4808,
-4.3858,74.9778,12.7345,2.1247,4.0485,0.18452,-16.8616,-12.6248,38.7644,4.3016,-2.7536,13.6382,81.3828,13.4673,
-11.8355,67.1048,9.5602,-2.3412,2.8416,0.65572,-14.4035,-9.4571,47.0438,5.4896,8.0168,12.8198,83.7308,9.7671,
-11.8485,58.499,7.7815,-1.4776,-3.8368,-2.9993,-9.4419,-7.6846,53.139,7.8116,16.9358,14.7019,82.8043,11.3504,
-13.0658,61.7378,10.6888,-0.42463,-6.9808,-2.8193,-9.8395,-10.5977,58.6275,7.8248,13.5093,17.6762,78.3182,8.2593,
-11.5587,65.0231,13.6629,-0.15842,-5.3569,-7.2297,-7.5622,-13.5773,64.5098,8.5604,6.6732,13,73.8601,-3.0828,
-4.8395,66.6655,14.0483,-0.8717,-2.3843,-4.6266,-0.11866,-13.9678,57.5059,4.9134,1.6934,8.6047,74.4901,-1.6924,
2.4405,73.5118,15.3746,-0.57866,0.41032,1.6768,3.5041,-15.2989,46.584,-4.7812,-1.0595,12.6679,79.4207,12.5092,
8.5608,80.1881,18.7907,3.3127,6.6522,3.9865,6.6681,-18.7195,53.4299,-9.7967,6.7168,15.2825,85.2605,17.6634,
8.288,78.5102,17.9041,4.3191,6.9761,1.0961,10.8476,-23.6218,64.3241,-5.5936,13.7857,10.75,85.6886,5.7577,
1.7651,74.0407,16.1068,-0.037519,5.3526,-0.657,11.8839,-23.8916,71.4314,1.7318,13.6816,12.7565,85.1267,0.83286,
-0.027957,69.3571,15.8634,-4.6149,1.4159,-8.0893,8.0375,-22.2172,71.7249,2.8328,12.1377,14.6423,81.7062,4.3984,
-0.26736,65.9187,15.6349,-4.0972,-9.5152,-11.7014,7.3141,-25.9458,75.375,0.49355,10.6862,7.7381,75.5986,1.9648,
-5.0718,66.7841,11.8045,-7.2255,-11.8366,-7.1431,10.2495,-32.584,76.6373,-0.98209,7.1527,0.52513,71.0627,-7.7938,
-9.3469,63.0181,10.8551,-11.8538,-14.7419,-12.7402,9.3935,-33.7623,75.6544,-1.6462,6.4825,2.1807,65.1118,-12.388,
-11.6784,58.2729,11.1679,-9.2142,-27.9574,-24.0267,4.0096,-32.2185,73.5255,-2.5115,9.468,4.4602,59.2769,-6.8238,
-15.3161,55.7405,9.5339,-12.5178,-31.9439,-24.9958,4.2508,-37.0342,75.8625,-8.1455,6.9716,-2.5564,54.7561,-8.3427,
-14.8794,53.3603,7.9976,-23.3358,-15.9273,-27.3523,12.1908,-46.8633,78.5415,-13.9236,0.76885,-10.1157,53.881,-21.9421,
-14.4684,48.7127,8.9638,-29.6486,-0.87167,-39.8112,15.7979,-53.6925,70.4548,-23.2113,-7.4722,-14.3292,58.3611,-34.7256,
-14.8058,42.1743,12.0416,-27.1466,2.555,-51.5225,16.0551,-52.6403,58.7557,-26.3982,-14.0138,-23.8335,61.3669,-34.0882,
-11.748,37.9568,13.0061,-23.8303,6.9812,-62.5311,19.6713,-49.7229,59.8099,-19.2705,-10.0394,-27.465,57.444,-30.8378,
-13.9352,37.6076,10.2976,-26.2569,7.0445,-71.9152,22.3475,-48.1855,69.7189,-12.8116,2.6142,-18.1043,55.9257,-32.8439,
-19.1249,34.628,10.4028,-28.2971,5.4165,-65.9128,26.0681,-45.0534,69.6331,-13.2479,6.0728,-18.2231,60.0418,-35.9348,
-16.7721,28.453,13.876,-25.876,8.225,-65.0915,31.0117,-41.6271,61.3577,-17.5147,-0.79927,-24.6015,61.0188,-34.502,
-14.3201,25.7816,14.0077,-25.7698,6.2851,-63.5963,29.1509,-43.9501,57.6762,-20.8023,-3.1618,-19.7511,55.9115,-31.4677,
-15.3888,25.1988,12.2031,-28.5621,5.908,-61.227,24.5095,-43.7234,62.4103,-18.5901,0.88454,-16.1561,52.5568,-34.4001,
-16.1529,25.3742,9.7836,-30.4635,5.3127,-61.1684,25.6904,-42.7871,60.835,-15.3056,1.0725,-22.1763,52.5368,-36.9155,
-17.5939,24.8157,8.2326,-29.6001,-1.2729,-63.283,22.7028,-49.861,46.0978,-23.546,-8.151,-26.6304,44.564,-39.039,
-18.7073,22.1218,8.9436,-29.0293,-2.8837,-61.1732,15.315,-53.8589,39.7166,-28.1591,-13.2054,-25.7554,41.1671,-36.4556,
-20.4773,21.2763,7.9251,-30.1795,-0.3004,-57.0207,12.4678,-50.1455,45.5284,-20.6849,-8.0746,-27.1025,43.5177,-31.858,
-26.4795,21.446,6.0034,-30.7793,0.68172,-56.492,11.2376,-50.0291,47.135,-20.4081,-8.0723,-32.7072,38.4963,-36.6954,
-29.2293,22.5696,3.2328,-33.753,1.6051,-55.9948,11.0457,-54.7401,46.7173,-22.5578,-11.9263,-34.1189,37.1506,-40.2785,
-27.2343,22.4205,1.8338,-35.825,0.30377,-52.3939,8.6957,-54.5889,45.6015,-22.4094,-8.0772,-35.2051,36.609,-38.1026,
-28.0105,21.5573,1.2417,-33.6756,-1.1608,-48.286,7.6919,-50.8316,42.3833,-22.9932,-2.2903,-34.0572,34.8943,-34.3703,
-31.6323,21.228,0.20311,-35.0293,-0.60902,-45.3891,7.7126,-50.1918,43.2148,-21.1314,-2.6348,-25.2651,35.211,-30.862,
-32.3859,23.0878,-2.9426,-36.061,-6.5983,-41.4605,2.6701,-52.242,40.8629,-21.5508,-3.1999,-20.1338,28.5188,-29.2513,
-29.7196,22.9076,-3.9711,-31.7279,-11.2638,-37.7678,-0.14122,-54.1689,30.4574,-27.7293,-9.9975,-24.4691,16.4436,-30.6294,
-31.0697,19.8457,-2.0454,-31.0298,-11.7933,-40.5632,2.5183,-53.5703,22.6041,-31.6094,-18.7979,-27.0986,10.3953,-28.069,
-36.1954,21.3065,-1.1997,-32.7834,-15.665,-40.7809,0.68002,-53.0072,23.8992,-29.4718,-16.4647,-24.2674,6.6383,-24.2152,
-36.6748,22.6792,-0.40485,-31.0574,-16.8945,-37.1288,0.39825,-54.4063,29.9368,-33.2471,-13.7898,-24.9809,-1.7139,-30.2341,
-31.5818,20.8365,-1.3444,-30.6397,-12.5063,-44.542,1.8206,-57.8906,31.0331,-41.3752,-20.1931,-28.7843,-1.6109,-38.0611,
-21.7331,19.8273,6.69,-29.0428,-4.7663,-45.4849,7.2548,-51.7661,32.3044,-29.4927,-14.8841,-22.4779,9.3318,-32.162,
-22.3576,15.2634,11.591,-29.2282,-3.0341,-39.3816,8.7479,-49.142,26.5098,-20.0101,-13.027,-20.6471,2.0232,-30.2325,
-28.9698,16.9987,4.87,-29.1617,-5.5034,-37.7416,7.4999,-51.7371,24.196,-21.943,-14.4145,-22.5417,-2.6777,-30.1058,
-29.883,18.6301,3.3727,-29.099,-11.6809,-40.0566,3.9166,-50.3201,30.2161,-26.6522,-8.006,-23.8406,11.583,-29.5045,
-23.9926,14.3788,7.7501,-22.7738,-9.7747,-34.5197,6.8149,-42.7214,30.0904,-23.8478,-3.9103,-19.2766,24.988,-29.4214,
-21.1068,11.106,7.2846,-18.9972,0.4525,-25.7001,13.6366,-36.3017,25.3924,-15.6685,-1.7477,-9.9253,37.5887,-25.246,
-21.2864,11.8856,8.776,-20.2673,1.8716,-24.6398,15.2288,-36.0518,21.9409,-12.318,2.2138,-8.3657,49.4334,-19.3927,
-19.2864,10.4496,12.8292,-17.364,-2.338,-27.7412,16.9664,-34.1297,25.204,-11.3375,2.8041,-11.9611,57.7956,-21.8441,
-17.1651,8.8585,11.0949,-15.8405,-4.6081,-22.7025,18.8407,-32.5641,33.3327,-9.6936,3.1178,-11.7256,60.5946,-27.7645,
-11.7969,5.9169,11.8754,-17.7821,-2.8854,-21.3403,16.7461,-33.9844,37.1173,-8.6296,5.823,-8.6115,63.7076,-28.9912,
3.011,9.6591,25.2629,-7.3155,11.3878,-24.1571,29.8414,-17.8454,48.9903,1.7702,18.7301,4.6793,73.9851,-13.1517,
-1.8692,9.5616,29.1705,-12.6608,14.6814,-23.1898,29.6176,-17.6183,39.9048,-2.6744,14.7142,-1.3857,83.646,-10.7956,
-15.8571,10.6751,13.3203,-25.64,-0.29952,-7.6984,13.7406,-30.6612,23.4105,-16.614,4.4313,-15.4026,67.2991,-21.9585,
-20.0881,11.7219,7.8211,-23.3782,-14.3815,4.6944,8.2161,-32.5574,24.0546,-28.0299,3.4423,-28.5784,59.1638,-24.2559,
-15.7495,7.8853,16.2696,-14.022,-12.0724,-2.5774,18.0873,-25.0603,25.2624,-19.8404,-6.1642,-24.4538,58.7472,-23.0418,
-15.5274,8.1351,20.8371,-9.5653,-8.697,3.1209,17.243,-25.7261,13.3826,-16.4808,-14.7125,-14.5504,60.766,-14.6694,
-15.5599,8.6111,26.8179,-8.5092,-5.7646,7.7546,19.1009,-22.2541,25.5953,-19.8305,-4.1885,-17.0516,67.7251,-11.3789,
-14.8675,8.3356,24.9676,-8.7218,-6.624,-3.0753,22.052,-18.2678,37.7979,-17.9176,4.0165,-22.0543,63.4204,-22.9889,
-19.5188,13.3788,17.4438,-12.778,-5.9856,-0.72137,19.0419,-23.1973,23.7199,-15.6374,1.1242,-11.8132,56.9643,-21.8503,
-21.9631,16.1915,18.5663,-13.2166,-1.5291,3.4193,21.0324,-23.9748,28.322,-18.7965,5.6361,-4.5969,66.8024,-9.6935,
-19.9224,12.569,19.1396,-14.5923,-3.6065,-8.596,22.9039,-22.2951,40.7227,-25.1406,6.5032,-14.2031,70.7484,-17.5475,
-20.8962,15.9122,12.93,-17.8141,-7.0053,-16.034,17.4326,-22.6444,52.3793,-24.8374,-1.3586,-21.3046,60.478,-30.5947,
-23.0169,18.3319,10.2255,-18.6739,-9.4775,-14.1081,11.5659,-23.2142,56.7086,-23.8291,-4.1696,-22.4365,52.0286,-29.3617,
-19.7077,15.3038,12.9865,-18.0354,-9.3908,-12.2973,15.2103,-19.411,67.4061,-20.9531,0.90107,-22.0546,50.3531,-24.7074,
-21.1763,17.0366,11.4844,-17.1943,-12.4425,-14.6925,18.3955,-17.5232,77.4617,-16.0805,1.0882,-22.4181,49.9835,-25.8761,
-24.4853,20.594,9.1078,-13.5117,-11.9374,-10.6781,17.5323,-15.7491,81.7316,-13.9111,0.29955,-22.2785,50.5992,-22.1546,
-24.4624,20.8046,4.705,-16.557,-6.8826,-4.7348,16.9625,-14.322,78.274,-15.4865,-1.1645,-19.978,50.4558,-18.4152,
-24.1995,19.7973,1.7716,-23.0354,-4.7822,-8.5481,17.1503,-10.8111,85.8703,-7.0851,3.9671,-12.7533,52.972,-12.7305,
-29.0143,14.7528,-1.7089,-25.0275,-8.834,-18.1583,15.1569,-9.1984,84.0923,1.0526,9.9956,-11.5059,53.6503,-12.4489,
-30.1657,14.8318,-6.9093,-19.6696,-10.7141,-19.9611,14.7294,-15.3954,64.9468,-12.9901,2.165,-14.1902,49.4672,-18.4506,
-24.9816,22.6192,-6.0125,-15.5972,-10.0713,-12.9786,14.8098,-20.7382,46.9499,-22.3338,-6.1596,-9.9641,42.1606,-13.9693,
-24.4465,23.6722,1.0971,-18.5177,-7.5388,-14.61,13.4392,-17.0835,47.7484,-6.8938,-4.3438,-8.8844,36.2565,-7.8285,
-27.8007,19.3591,4.4055,-22.2272,-3.7123,-22.8927,12.6327,-11.2383,56.4524,1.1121,-3.1193,-16.5462,38.9016,-13.6256,
-27.8199,17.9566,-4.295,-26.4371,-3.7307,-23.6883,11.6337,-16.1076,47.5216,-13.0546,-6.0656,-22.5433,42.1112,-16.4235,
-23.2584,21.6997,-6.9295,-22.4406,-6.3989,-17.4465,11.4176,-21.4076,47.0807,-17.2125,0.083145,-20.7086,37.1741,-11.5814,
-25.2369,22.8083,-0.2468,-16.7558,-6.9791,-18.8098,14.5894,-18.6769,51.9689,-11.841,5.3808,-23.8044,30.6054,-13.2967,
-28.3022,15.8964,-1.4371,-19.8476,-6.3192,-25.6352,13.9548,-21.6537,38.0045,-22.9409,-2.4136,-30.3301,33.3486,-23.8273,
-21.3016,18.7988,2.5053,-18.657,-5.4581,-22.6511,14.5635,-21.8009,25.6011,-22.5285,-2.269,-26.0999,39.5426,-26.7362,
-23.3975,16.2246,3.3193,-19.4657,-11.3973,-23.2202,18.5104,-19.5285,31.2958,-16.838,0.27723,-24.052,33.3136,-26.5778,
-23.4399,15.733,2.1558,-18.2978,-3.9648,-21.3451,24.1487,-11.6082,41.4694,-18.2383,1.7069,-22.6089,35.1712,-14.8603,
-21.3106,25.1534,3.2313,-14.0669,2.2986,-21.2692,20.5302,-8.2606,29.0991,-18.8313,2.8093,-18.1193,41.0147,-9.8713,
-21.4783,35.2133,0.62732,-11.2947,-1.2135,-22.8856,17.8526,-13.5495,17.23,-14.8089,5.5332,-15.1035,39.0357,-9.761,
-15.1281,45.3928,-2.5436,-8.9295,5.367,-10.1845,18.9503,-17.7982,16.9191,-21.8743,7.8526,-20.7055,34.5242,-3.6319,
-0.72284,56.7693,3.3939,-6.4658,19.0245,1.0321,16.8492,-17.6942,17.3505,-27.7925,9.7918,-21.873,37.2737,-4.3781,
1.9719,67.4631,9.6975,-11.6212,16.1956,-13.1298,15.1151,-20.2482,10.7656,-27.3304,6.5529,-21.2838,34.3137,-16.4077,
6.4328,66.5488,18.998,-5.8623,21.2498,-20.4162,27.4651,-12.0432,23.8582,-15.8082,13.1496,-21.212,40.2091,-14.6999,
7.9753,63.038,18.3403,-3.1002,28.6517,-13.8888,27.7451,-8.4283,29.1756,-14.8595,17.1811,-25.2417,44.5452,-19.6027,
6.5327,49.1326,14.8295,-5.8065,24.0403,-14.5015,24.1525,-7.9226,14.4097,-21.199,8.9192,-22.2812,45.7291,-25.1752,
10.7205,41.6054,18.0376,-5.2171,19.4649,-16.7649,32.1033,-7.2061,12.8222,-17.7574,4.7691,-17.8108,50.9391,-15.711,
12.7283,53.2091,20.5703,-0.80674,25.7683,-14.5537,36.6846,-6.0508,22.8989,-7.7744,12.9186,-18.4294,49.57,-10.1886,
9.0721,64.1165,17.4079,-0.2764,31.935,-13.1986,30.6271,-3.2776,23.9351,-7.7903,21.7845,-17.3237,45.1495,-12.9517,
