"AF3","AF4","F3","F4","F7","F8","FC5","FC6","O1","O2","P7","P8","T7","T8",
-25.5629,-52.6296,13.5334,-38.5947,101.7501,-2685.1121,-7.5181,-18.5454,8.5213,7.5181,-18.5454,37.5925,13.5334,18.5454,
-33.0815,-57.1411,5.0126,-48.1187,96.2369,-2700.1121,-5.0126,-25.0618,5.0126,14.0345,-12.03,35.0859,16.0389,12.0291,
-32.5799,-62.6543,2.5065,-53.6323,111.2369,-2715.1121,9.9874,-31.5777,15.5383,20.5504,-2.5065,22.5558,20.5504,-2.9709,
-26.5647,-60.6489,8.5218,-57.6417,126.2369,-2700.1121,24.5612,-29.5723,23.558,5.5504,6.5164,7.5558,29.5732,-7.5186,
-37.0909,-61.15,-2.0049,-58.1428,141.2369,-2685.1121,15.0377,-26.064,11.0278,-9.0214,10.0256,2.0049,29.0716,4.0103,
-39.5974,-67.6668,-11.5284,-64.6592,153.8786,-2670.1121,9.523,-33.5831,0.50111,3.5087,-0.50111,17.0049,14.5361,8.5208,
-24.5974,-53.6323,-4.5114,-53.6323,168.8786,-2655.1121,10.5257,-25.5629,4.5114,18.5087,-5.5137,32.0049,7.5181,23.5208,
-20.5513,-60.6498,-3.5087,-50.6247,153.8786,-2640.1121,4.511,-33.5831,6.5154,27.5678,-14.5361,47.0049,3.5087,34.5853,
-31.0761,-68.1679,-2.0049,-49.1209,138.8786,-2625.1121,2.0049,-34.0837,15.0367,25.0618,-6.0148,48.1187,10.0246,31.0771,
-44.1088,-67.1652,-10.0251,-57.1406,123.8786,-2610.1121,-7.0175,-27.0667,18.0448,18.0448,7.0175,33.1187,16.0394,16.0771,
-43.6072,-63.6565,-2.506,-63.6565,108.8786,-2595.1121,3.5083,-26.5651,30.575,5.5137,16.541,18.1187,31.0394,1.0771,
-31.5777,-51.6269,7.5186,-54.6346,112.7779,-2580.1121,18.5083,-20.5504,37.5929,-0.50111,25.5634,3.1187,46.0394,0.50111,
-24.5604,-48.62,15.538,-45.6124,127.7779,-2565.1121,30.5752,-18.5457,34.5851,-6.5161,40.5634,-11.8813,54.6343,6.5161,
-32.0788,-53.1303,13.0323,-54.133,136.3363,-2550.1121,23.0574,-19.0465,24.0596,-2.0049,28.0694,-11.0268,39.6343,2.0049,
-44.1083,-53.1307,-1.9677,-60.1477,121.3363,-2535.1121,8.0574,-18.0443,21.0519,11.0278,13.0694,3.9732,26.064,8.0202,
-36.5902,-55.6368,-5.5137,-59.6466,120.7971,-2520.1121,5.5137,-33.0443,33.5826,9.5235,3.5083,0.50159,41.064,-0.50159,
-21.5902,-50.6247,9.4863,-47.6171,135.7971,-2505.1121,12.5311,-33.5826,25.5629,1.5038,15.5388,-1.5038,35.588,-5.5137,
-13.5334,-48.6193,14.5365,-32.6171,147.8648,-2490.1121,16.541,-18.5826,20.5508,-5.5137,8.5213,-6.5159,23.5585,5.5137,
-18.0443,-51.1258,14.0345,-35.0864,132.8648,-2475.1121,21.0519,-7.017,31.0761,-13.0322,7.017,-17.0421,36.0891,10.0246,
-29.5728,-56.6395,4.511,-50.0864,117.8648,-2460.1121,6.5164,-9.523,27.5678,-13.5329,11.5284,-4.511,34.5853,8.5208,
-36.0882,-71.1751,-5.0125,-60.1477,102.8648,-2445.1121,-1.0027,-19.0465,25.0618,1.0027,9.0224,10.489,22.0542,14.0345,
-27.5678,-64.6592,-4.511,-54.6346,117.8648,-2430.1121,3.5087,-22.5558,21.5526,16.0027,-3.5087,25.489,18.5459,29.0345,
-29.0712,-61.1504,0,-53.1307,102.8648,-2415.1121,0,-22.0547,18.0448,31.0027,-6.0153,40.489,19.047,27.0667,
-44.0712,-76.1504,-3.5087,-53.6323,87.8648,-2400.1121,-15,-29.5732,15.5383,26.5647,3.5087,37.592,12.5307,12.0667,
-44.1083,-70.1728,-5.0121,-44.1083,102.8648,-2385.1121,-7.0175,-34.0842,10.0241,27.0667,9.0219,22.592,15.0372,5.0121,
-29.1083,-55.1728,9.0219,-50.1236,117.8648,-2370.1121,7.9825,-37.0918,22.0537,12.0667,8.0197,7.592,29.0712,0,
-14.1083,-43.6072,12.5307,-46.6149,132.8648,-2355.1121,22.9825,-31.5777,30.5755,-2.9333,4.511,-7.408,30.5755,-4.511,
-4.0098,-52.1285,4.0098,-34.0842,147.8648,-2340.1121,13.0318,-25.0613,28.0689,-6.0153,6.0143,-12.0295,31.0766,6.0143,
-19.0098,-67.1285,2.0049,-49.0842,140.3452,-2325.1121,12.0291,-40.0613,20.0488,-2.0049,-3.0081,2.9705,22.0542,6.0148,
-34.0098,-71.1755,0,-64.0842,138.3403,-2310.1121,5.0121,-40.0985,16.0394,1.0022,-12.0295,11.0273,15.0372,0,
-46.6149,-64.6592,-0.50111,-56.6395,123.3403,-2295.1121,14.5361,-29.5728,31.0394,4.511,2.9705,0.50111,30.0372,-3.5087,
-44.1088,-61.1509,-2.0049,-52.1285,122.3014,-2280.1121,26.064,-24.0596,46.0394,2.0049,17.9705,-14.4989,45.0372,4.0094,
-40.099,-68.1684,0,-58.1438,122.3009,-2265.1121,22.0537,-26.0645,40.0985,0,21.0515,-23.0574,36.0886,1.0022,
-44.1088,-77.1903,8.0202,-58.1433,112.2763,-2250.1121,17.0421,-38.094,37.0913,5.0125,6.0515,-8.0574,26.064,-13.9978,
-48.1182,-73.18,5.0126,-48.1182,114.2817,-2235.1121,11.0278,-37.0913,31.0771,20.0125,-5.0126,6.9426,28.0694,-7.017,
-54.1334,-80.1975,-1.0022,-50.1236,109.2691,-2220.1121,12.0295,-41.1012,27.0667,35.0125,1.0022,21.9426,31.0766,-8.0197,
-54.6346,-81.7013,3.5087,-52.6296,100.7483,-2205.1121,6.5164,-44.6099,27.5678,26.5656,-3.5087,22.5558,30.5755,-10.5262,
-50.6242,-71.6762,-0.50111,-47.6171,108.768,-2190.1121,0.50111,-34.5848,30.5755,31.5777,-4.511,29.5732,32.5809,4.4738,
-58.6444,-85.7111,-15.5011,-60.6493,97.7402,-2175.1121,2.506,-45.6126,28.5705,25.5629,-2.506,16.541,24.5607,7.5181,
-51.6269,-74.6838,-11.528,-53.6319,101.751,-2160.1121,13.5334,-36.5902,38.5947,23.5585,7.5181,14.5356,32.5804,-7.4819,
-42.605,-63.657,2.506,-47.6171,115.785,-2145.1121,17.5432,-27.5678,45.6122,14.5356,11.528,-0.46441,46.6144,-9.5235,
-40.5996,-67.6663,3.5087,-51.6269,130.785,-2130.1121,11.5284,-34.5848,31.5777,6.5164,-0.50111,-10.5253,38.5952,0.50111,
-36.0891,-67.1657,-6.0148,-50.1236,142.3506,-2115.1121,12.0291,-40.099,24.0586,14.0345,-9.0224,4.4747,34.0837,6.0148,
-21.5526,-62.6538,3.5087,-41.6023,139.8446,-2100.1121,25.5634,-36.5898,37.5929,21.5535,-3.5087,19.4747,39.5974,-3.5087,
-26.5661,-66.6646,-1.5038,-40.6001,135.8343,-2085.1121,10.5634,-35.588,22.5929,9.5235,-16.541,13.5334,24.5974,1.5038,
-29.5728,-67.6668,1.5038,-40.6001,121.8003,-2070.1121,5.5137,-31.5782,28.5705,-1.5038,-12.5311,1.5038,30.575,16.5038,
-31.0766,-66.163,10.0246,-48.1182,106.8003,-2055.1121,20.5137,-32.0788,43.5705,-6.0148,2.4689,-12.0291,45.575,6.0148,
-46.0766,-69.1706,3.0071,-51.1258,91.8003,-2040.1121,23.0564,-38.094,35.0859,-2.0049,3.0071,-1.0027,37.0913,1.0027,
-45.6126,-72.6789,3.5087,-53.6323,103.755,-2025.1121,24.5602,-39.5974,26.5656,-5.5141,-3.5087,13.5329,25.5624,16.0027,
-30.6126,-65.1603,1.0022,-60.1477,118.755,-2010.1121,25.0623,-36.0886,18.0448,-2.0044,-1.0022,14.035,29.0721,25.0623,
-25.0618,-69.1706,-5.0126,-65.1608,133.755,-1995.1121,29.0716,-42.1039,19.0465,5.0126,-6.0148,12.0291,27.0662,11.0268,
-30.575,-75.686,-1.5038,-56.6395,148.755,-1980.1121,35.588,-40.6001,26.5651,1.5038,-16.541,17.5432,19.5486,7.5191,
-43.1061,-73.18,-4.0098,-45.111,133.755,-1965.1121,25.0623,-32.0788,13.0327,4.0098,-22.0537,31.0766,13.0327,22.5191,
-57.6422,-79.6964,-8.5213,-55.6373,119.7949,-1950.1121,23.5575,-39.5979,10.5257,8.5213,-15.5388,29.5728,16.541,25.5629,
-63.657,-83.7062,-11.5284,-58.6444,105.7604,-1935.1121,22.5558,-43.6072,19.5481,7.5186,-7.5186,18.5459,15.5383,17.5427,
-67.1652,-84.2073,-9.0219,-52.1285,93.2297,-1920.1121,24.0591,-49.1209,27.0667,1.0022,-1.0022,6.0153,21.0515,7.0175,
-64.1576,-82.2019,-6.0148,-57.1401,90.2226,-1905.1121,36.0891,-55.1352,32.0793,4.0103,2.0049,-2.0049,35.0869,9.0224,
-57.6417,-74.6838,-15.5378,-59.6466,105.2226,-1890.1121,36.5902,-40.1352,28.5705,7.5181,-1.5038,1.5038,35.588,23.5585,
-45.6122,-71.6767,-12.5311,-53.6319,120.2226,-1875.1121,43.6077,-30.5755,38.5947,-0.50159,4.5114,0.50159,34.5848,24.5607,
-38.5947,-67.6663,-10.5257,-51.6269,135.2226,-1860.1121,44.6099,-34.5848,34.5858,1.5038,-1.5038,6.5159,29.5728,17.5432,
-36.5902,-57.6422,-9.524,-42.605,150.2226,-1845.1121,45.6117,-25.5634,26.5656,8.5208,-8.5208,21.5159,26.5656,22.5558,
-36.5898,-61.652,-3.5087,-35.5875,159.8938,-1830.1121,44.6095,-28.5701,26.5656,3.5087,-9.524,27.5678,24.5602,21.5526,
-48.1187,-63.1554,-10.0246,-41.1012,144.8938,-1815.1121,33.0815,-27.0662,26.064,9.0224,-9.0224,28.0694,28.0694,12.03,
-63.1187,-70.1728,-17.0421,-56.1012,129.8938,-1800.1121,37.0913,-30.0739,37.0913,16.0399,-1.0027,13.0694,42.1034,1.0027,
-78.1187,-83.7062,-28.5701,-65.6614,114.8938,-1785.1121,27.5678,-45.0739,22.5558,7.5186,-6.5164,6.5164,27.1034,9.524,
-91.7259,-74.6838,-26.5656,-54.6346,107.7648,-1770.1121,24.5602,-40.6001,21.5526,6.5164,-6.5164,14.5361,26.5656,24.524,
-96.2369,-65.1603,-17.0416,-51.1258,117.2888,-1755.1121,39.0963,-33.0815,36.5526,4.0098,-4.0098,4.0098,41.5656,14.035,
-103.2548,-61.1509,-20.0497,-52.1285,120.296,-1740.1121,43.1056,-27.0672,39.0958,8.0192,-2.0049,2.0049,46.1133,15.0367,
-108.2669,-64.1585,-18.0443,-54.1334,115.2839,-1725.1121,41.1012,-29.0721,40.098,10.0246,2.0049,-2.0049,50.1231,19.0465,
-100.7483,-67.6668,-9.524,-49.6225,119.7944,-1710.1121,36.5898,-39.5979,30.5755,6.5154,-3.5087,3.5087,41.6018,18.5459,
-99.2445,-70.1728,-21.0515,-49.1209,117.2888,-1695.1121,28.0689,-46.1137,17.0416,7.0175,-7.0175,18.5087,29.0712,17.0416,
-107.2637,-75.1849,-26.0635,-56.1379,102.2888,-1680.1121,23.0569,-46.1133,22.0546,8.0197,-8.0197,21.0524,30.0743,12.0295,
-109.2691,-71.1751,-20.0492,-51.1258,87.2888,-1665.1121,20.0492,-35.0864,19.047,13.0318,-13.0318,29.0712,30.0743,24.0591,
-119.2942,-76.1876,-26.0645,-56.1384,85.21,-1650.1121,23.0569,-41.1017,18.0438,12.0295,-12.0295,31.0766,29.0712,25.0613,
-134.2942,-89.721,-37.5925,-70.674,70.21,-1635.1121,10.5257,-52.6296,24.5607,8.5213,-8.5213,18.5454,30.575,10.0613,
-140.8463,-85.7107,-30.575,-57.6417,55.21,-1620.1121,5.5137,-41.6023,25.5629,18.5464,-5.5137,31.5782,32.5804,9.5235,
-133.8293,-89.721,-27.5674,-53.6319,40.6001,-1605.1121,10.5257,-45.6122,18.5454,17.5432,-10.5257,39.5979,18.5454,14.5356,
-128.3161,-81.2002,-26.0645,-42.1039,53.1303,-1590.1121,5.0121,-38.094,20.0492,25.0613,-5.0121,44.1083,17.0416,29.5356,
-130.3211,-79.1952,-20.0492,-34.0842,41.1007,-1575.1121,1.0022,-39.0963,25.0613,25.0613,-1.0022,42.1039,28.0689,21.0515,
-127.815,-81.7018,-18.5459,-35.5875,30.5745,-1560.1121,3.5087,-51.6274,25.5624,24.5602,-3.5087,41.6018,25.5624,11.5284,
-123.3036,-68.1679,-20.0492,-23.0569,35.0864,-1545.1121,-1.0022,-39.0963,27.0667,38.094,1.0022,53.1312,21.0515,26.5284,
-133.3282,-75.1854,-21.0519,-28.0694,20.0864,-1530.1121,1.0027,-36.0891,31.0761,30.0739,-1.0027,48.1187,28.0694,36.0891,
-129.8195,-78.6937,-18.5459,-38.5952,5.0864,-1515.1121,9.523,-37.5925,35.5875,34.5853,-0.50111,51.6269,37.5929,21.0891,
-129.3184,-77.1898,-25.0613,-45.111,18.0448,-1500.1121,3.0076,-39.0963,32.0788,35.0864,-3.0076,52.129,32.0788,23.0569,
-129.3184,-70.1724,-24.0586,-37.0913,30.0739,-1485.1121,2.0049,-32.0783,29.0716,23.0574,-2.0049,49.1209,29.0716,28.0694,
-128.3161,-64.1581,-21.0524,-29.0721,25.0613,-1470.1121,4.0098,-29.0721,31.0766,26.0635,-4.0098,38.0931,33.081,27.0667,
-130.3211,-79.1581,-26.064,-44.0721,13.0322,-1455.1121,6.0148,-44.0721,36.0891,25.0618,-6.0148,23.0931,32.0793,22.0542,
-124.3063,-85.21,-32.0793,-49.1209,28.0322,-1440.1121,6.0148,-42.1039,28.0694,28.0694,-6.0148,34.0837,24.0596,31.0761,
-120.296,-79.1948,-39.0963,-49.1209,40.0985,-1425.1121,7.0175,-37.0909,24.0591,36.0886,-7.0175,49.0837,22.0546,36.0886,
-119.2937,-82.2024,-41.1007,-50.1236,34.0842,-1410.1121,4.0098,-43.1061,32.0788,41.1017,-4.0098,64.0837,22.0546,31.0766,
-122.802,-77.691,-43.6072,-44.6095,39.5979,-1395.1121,-1.5038,-37.5925,29.5728,51.6274,1.5038,78.6941,21.5531,38.5956,
-134.3309,-80.1975,-47.116,-55.1357,34.0837,-1380.1121,1.0027,-44.1088,31.0761,49.1209,-1.0027,86.2127,23.0564,43.1066,
-126.3112,-77.1898,-43.1061,-54.1334,38.094,-1365.1121,3.0076,-39.0963,31.0766,46.1137,-3.0076,88.2176,19.047,49.1214,
-113.279,-74.1827,-42.1039,-47.1164,42.1039,-1350.1121,1.0022,-28.0689,28.0689,44.1083,-1.0022,77.1903,19.047,47.116,
-118.291,-74.1822,-39.0963,-52.128,29.0721,-1335.1121,3.0076,-34.0832,36.0886,34.0842,-3.0076,62.1903,28.0689,37.0918,
-116.7877,-61.6516,-34.5853,-44.6099,44.0721,-1320.1121,9.5235,-26.5651,33.5826,33.5826,-9.5235,49.622,29.5728,50.6252,
-106.7631,-71.6767,-30.5755,-37.5929,59.0721,-1305.1121,11.5284,-28.571,23.558,36.5898,-11.5284,56.639,29.5723,46.6149,
-101.2494,-76.1876,-24.0591,-34.0842,50.1236,-1290.1121,7.0175,-34.0842,28.0689,43.1061,-7.0175,55.1357,34.0832,36.0886,
-107.7653,-63.6565,-24.5602,-37.5925,44.6095,-1275.1121,8.5208,-33.5826,34.5853,36.5898,-8.5208,44.6095,34.5853,30.5755,
-110.2713,-67.1652,-27.0667,-51.1258,46.1137,-1260.1121,16.0394,-43.1061,32.0788,21.5898,-15.0372,29.6095,29.0712,17.0416,
-101.7505,-66.6641,-27.5683,-45.6126,51.6274,-1245.1121,12.5311,-38.5952,24.5607,22.5553,-12.5311,22.5553,28.5705,24.5607,
-97.2396,-65.1603,-23.0564,-37.0913,36.6274,-1230.1121,8.0202,-33.0815,31.0761,32.0793,-8.0202,30.0739,33.0815,24.0596,
-92.227,-64.1581,-18.0443,-41.1012,33.0815,-1215.1121,11.0268,-36.0891,37.0913,24.0596,-11.0268,24.0596,32.0793,16.0399,
-92.2275,-66.163,-26.064,-44.1088,48.0815,-1200.1121,14.0345,-34.0842,34.0837,29.0716,-14.0345,28.0685,30.0739,23.0564,
-100.7478,-73.6811,-34.5848,-50.6242,33.0815,-1185.1121,15.5383,-31.5777,31.5777,23.558,-15.5383,26.5656,29.5732,20.5513,
-100.2467,-61.1504,-29.0716,-46.1133,18.0815,-1170.1121,13.0322,-19.0465,31.0771,22.0542,-10.0246,31.0771,33.0815,26.064,
-106.262,-69.1706,-32.0793,-51.1263,10.0246,-1155.1121,9.0224,-33.082,28.0685,19.0465,-9.0224,31.0761,31.0761,16.0389,
-104.2566,-72.1778,-30.0743,-48.1187,25.0246,-1140.1121,10.0251,-44.1088,29.0712,14.0349,-10.0251,29.0712,29.0712,11.0273,
-93.7304,-58.6439,-23.5575,-33.1187,40.0246,-1125.1121,13.5334,-29.1088,23.5585,13.5334,-13.5334,23.5585,27.5683,26.0273,
-84.7084,-66.6636,-17.5432,-27.5674,41.6033,-1110.1121,17.5432,-25.5629,21.5531,17.5432,-18.5454,29.5728,19.5486,32.5804,
-78.193,-63.1558,-16.0394,-23.0569,47.116,-1095.1121,15.0372,-25.0623,21.0515,32.5432,-15.0372,44.5728,23.0569,35.0864,
-79.1952,-54.1334,-22.0546,-20.0492,44.1083,-1080.1121,12.0295,-26.0645,23.0569,29.0712,-12.0295,51.1258,31.0766,32.0788,
-76.6887,-56.6395,-16.5405,-22.5558,59.1083,-1065.1121,15.5383,-32.5799,23.558,25.5624,-15.5383,44.6095,21.5526,32.5799,
-78.6941,-55.6373,-15.5383,-29.5732,66.6641,-1050.1121,15.5383,-28.571,16.5405,31.5777,-17.5437,46.6149,16.5405,38.5952,
-88.7188,-56.6395,-18.5459,-31.5777,51.6641,-1035.1121,14.5361,-31.5777,16.5405,22.5558,-14.5361,35.5875,29.5723,32.5799,
-79.1952,-50.1236,-16.0399,-16.5777,36.6641,-1020.1121,10.0246,-22.0542,19.0465,31.0761,-17.0421,45.111,28.0685,47.5799,
-69.6717,-52.6296,-13.5334,-5.5137,21.6641,-1005.1121,5.5137,-16.541,23.5575,38.5947,-24.5607,57.6417,17.5432,62.5799,
-61.6516,-52.6296,1.4666,-6.5159,6.6641,-990.1121,6.5159,-12.5311,34.5848,48.6198,-15.5378,72.6417,29.5728,76.6887,
-59.1455,-51.1258,5.0125,-5.0125,-5.0125,-975.1121,7.017,-9.0224,34.0837,47.1164,-15.0367,80.1975,29.0716,77.1898,
-58.6444,-50.6247,4.5114,-4.5114,-5.5137,-960.1121,6.5159,-5.5137,31.5782,45.6122,-14.5356,79.6964,27.5683,76.6887,
-57.1411,-50.1236,3.0076,-5.013,-6.0153,-945.1121,7.0175,-3.0076,30.0734,43.1061,-15.0372,80.197,26.0635,76.1871,
-56.64,-50.6252,1.5038,-5.5137,-7.5191,-930.1121,5.5137,-1.5038,26.5651,40.6001,-16.541,78.6932,23.5575,74.6833,
-55.6373,-50.6247,-0.50159,-5.5137,-8.5213,-915.1121,4.5114,0.50159,24.5607,37.5925,-17.5432,77.691,22.5553,73.6811,
-56.1384,-50.1236,-3.0076,-5.013,-11.0273,-900.1121,4.0098,3.0076,21.0515,34.0832,-17.0426,77.1903,19.047,73.1795,
-66.1625,-47.116,-1.0027,-9.0224,-15.0367,-885.1121,12.03,-1.0027,36.0515,36.0891,-2.0426,65.1603,34.047,67.1657,
-57.1406,-41.1012,3.0071,-12.03,-10.0246,-870.1121,6.0148,-7.017,43.1056,43.1056,-3.0071,59.146,31.0761,60.1482,
-45.111,-47.116,-1.0022,-10.0241,4.9754,-855.1121,0,0,28.1056,43.1061,-15.0372,66.163,16.0761,60.1487,
-40.5996,-52.6292,-3.5087,-13.5329,19.9754,-840.1121,7.5186,-8.5208,13.1056,43.6072,-21.5526,70.674,3.5087,71.6771,
-37.0913,-37.6292,-6.0148,-8.0202,33.0815,-825.1121,6.0148,-10.0246,18.0443,58.6072,-14.0354,85.674,11.0268,86.6771,
-44.1088,-39.0963,-12.0295,-17.0416,18.0815,-810.1121,1.0022,-7.0175,29.0712,73.6072,-1.0022,100.674,22.0546,72.1773,
-37.0913,-36.0891,-13.0322,-24.0596,7.017,-795.1121,1.0027,-4.0103,30.0739,71.1755,-1.0027,102.2521,22.0542,67.1657,
-27.0662,-24.0586,-9.0224,-20.0488,21.0519,-780.1121,2.0049,-2.0049,30.0739,60.1482,-11.0268,87.2521,22.0542,80.1975,
-32.0793,-35.0869,-5.0126,-30.0739,13.0322,-765.1121,5.0126,-9.0224,28.0685,45.1482,-11.0278,72.2521,21.0519,68.1679,
-41.6028,-42.605,-9.524,-34.5853,9.523,-750.1121,2.5065,-2.5065,17.5427,30.5755,-11.5284,60.6489,13.5329,59.6466,
-50.6247,-38.5952,-10.5262,-29.5732,6.5164,-735.1121,2.5065,-2.5065,23.558,43.6072,-19.5481,58.6444,18.5459,60.6489,
-41.1007,-25.0613,0,-15.0372,10.0251,-720.1121,0,-1.0022,28.0689,46.1137,-17.0416,70.1728,25.0613,64.1576,
-32.0788,-34.0842,-3.0076,-16.0394,6.0153,-705.1121,-9.0219,3.0076,13.0689,43.1061,-18.0448,77.1903,14.0349,68.1674,
-28.0699,-40.0995,0,-23.0569,-4.0099,-690.1121,3.0067,0,24.0591,45.1106,-16.0404,62.1903,22.0537,67.1652,
-32.0783,-26.064,1.0027,-12.0291,-1.0027,-675.1121,8.0202,-4.0094,35.0869,41.1012,-14.0345,47.1903,29.0716,55.1361,
-38.5952,-34.5853,5.5132,-4.511,-8.5208,-660.1121,4.511,-6.5164,29.5723,27.5678,-10.5262,34.5853,31.5777,40.1361,
-34.0837,-49.5853,12.03,-7.017,-8.0192,-645.1121,2.0049,-2.0049,27.0672,28.0694,-12.0291,27.0672,31.0771,42.1044,
-39.0967,-43.1066,0,-12.0295,1.0022,-630.1121,0,-4.0099,24.0591,41.1007,-11.0273,39.0963,27.0667,51.1258,
-47.6171,-32.5804,1.5038,-10.5257,-6.5159,-615.1121,9.5235,-15.5378,29.5728,41.6023,-1.5038,44.6099,29.5728,52.6296,
-41.6028,-29.5728,11.528,-5.5137,-7.5191,-600.1121,5.5137,-6.5159,16.541,37.5925,-7.5191,41.6023,22.5553,65.6614,
-34.0837,-38.0936,10.0246,-4.0103,-2.0049,-585.1121,2.0049,-5.0126,6.0148,28.0694,-20.0497,32.0793,10.0246,58.1428,
-39.5974,-52.6292,0.50111,-13.5329,-0.50111,-570.1121,4.511,-20.0126,5.5132,16.5405,-26.5656,25.5634,0.50111,43.1428,
-47.116,-43.1056,-2.0049,-15.0367,2.0049,-555.1121,7.017,-22.0542,12.03,29.0716,-14.0345,40.5634,14.0345,45.111,
-46.1137,-39.0963,4.0103,-12.03,-12.9951,-540.1121,19.0465,-7.0542,24.0596,40.099,-7.017,55.5634,29.0345,60.111,
-48.1187,-47.1164,1.0022,-11.0273,-19.047,-525.1121,20.0492,-1.0022,16.0394,30.0734,-22.017,46.1137,17.0416,55.1357,
-49.1209,-48.1187,-1.0027,-6.0148,-4.047,-510.1121,24.0596,-5.0126,21.0519,20.0497,-28.0694,31.1137,17.0421,40.1357,
-52.6296,-46.6149,-4.511,-10.5262,4.511,-495.1121,28.5701,-11.5284,28.5701,17.5427,-22.5558,28.5701,22.5558,42.605,
-57.6422,-44.6095,-14.5361,-13.5338,-0.50111,-480.1121,22.5558,0.50111,14.5361,28.5701,-26.5656,43.5701,14.5361,57.605,
-63.1558,-52.1285,-16.0399,-17.0421,-2.0049,-465.1121,26.064,2.0049,9.0224,36.0891,-30.0739,54.133,12.0291,63.1549,
-61.652,-47.6176,-19.5486,-20.5508,10.5257,-450.1121,32.5804,-10.5257,11.528,46.6144,-31.5782,63.657,15.5378,55.6373,
-50.6247,-45.6122,-23.5575,-22.5553,25.5257,-435.1121,34.5858,-13.5334,13.5334,50.6252,-28.5705,67.6668,16.541,64.6592,
-43.1061,-53.1312,-14.0349,-24.0591,29.0712,-420.1121,34.0842,-13.0318,16.0394,35.6252,-24.0591,53.1303,13.0318,55.1357,
-46.1133,-46.1133,-19.0475,-14.0345,26.064,-405.1121,29.0716,-6.0148,6.0148,24.0586,-33.0815,47.1155,9.0224,48.1187,
-45.1115,-44.1093,-24.0601,-17.0426,27.0667,-390.1121,38.0931,-4.0098,4.0098,25.0613,-36.0896,37.0909,17.0416,45.1106,
-43.6077,-50.6252,-18.5464,-27.5683,31.5772,-375.1121,37.5925,-5.5137,5.5137,22.5553,-34.5858,27.5674,16.54,48.6198,
-49.1209,-51.1258,-22.0537,-26.0635,27.0667,-360.1121,34.0842,-8.0197,8.0197,32.0798,-38.0931,35.0864,12.0295,54.1334,
-53.1307,-53.1307,-21.0519,-26.065,22.0542,-345.1121,40.098,-14.0345,15.0367,31.0761,-46.1142,35.0859,14.0345,39.1334,
-47.1164,-51.1263,-17.0421,-28.0694,37.0542,-330.1121,35.0859,-10.0246,10.0246,17.0421,-51.1263,23.0564,12.0291,24.1334,
-40.0985,-49.1214,-12.0295,-30.0743,44.1083,-315.1121,42.1039,-13.0327,14.034,14.034,-44.1083,21.0515,12.0295,35.0864,
-40.0985,-48.1182,-12.0295,-21.0515,33.082,-300.1121,47.116,-11.0273,18.0448,29.034,-39.0963,36.0515,11.0273,50.0864,
-45.6122,-46.6144,-15.5378,-16.541,48.082,-285.1121,36.5902,-6.5159,9.5235,36.5902,-48.6198,50.6252,6.5159,45.6122,
-42.605,-49.6225,-8.5208,-23.558,33.082,-270.1121,36.5898,-16.5405,8.5208,24.5602,-55.6368,35.6252,8.5208,40.5996,
-30.0739,-44.1088,-7.017,-13.0323,26.064,-255.1121,45.111,-10.0246,7.017,30.0739,-51.1263,38.0936,9.0224,55.1352,
-15.0739,-34.5858,-7.5191,-10.5257,41.064,-240.1121,56.6395,-5.5137,6.5159,15.0739,-54.635,25.5629,5.5137,40.1352,
-0.073872,-19.5858,7.4809,-7.5181,56.064,-225.1121,70.6744,-8.5203,5.5137,0.073872,-61.6516,10.5629,8.5213,25.1352,
14.9261,-4.5858,22.4809,4.5105,71.064,-210.1121,78.6932,-8.5213,-1.5038,-5.5137,-64.6597,-4.4371,1.5038,13.5334,
29.9261,0.50111,24.5602,6.5154,86.064,-195.1121,92.7286,-8.5208,-4.511,-11.5284,-69.6717,-19.4371,-0.50111,5.5132,
44.9261,15.5011,24.5607,5.5137,101.064,-180.1121,95.7358,-5.5137,-16.541,-15.5378,-78.6937,-34.4371,-0.50159,0.50159,
59.9261,25.5629,36.5902,16.541,116.064,-165.1121,98.7434,-1.5038,-11.5289,-10.5257,-76.6892,-43.6077,1.5038,-7.5191,
74.9261,24.5607,30.5759,15.5388,131.064,-150.1121,96.7389,-1.5038,-9.5235,-11.528,-82.7035,-45.6122,-6.5159,-22.5191,
89.9261,30.0739,15.5759,3.0071,146.064,-135.1121,91.2248,-3.0071,-16.0399,-16.0399,-89.2199,-39.0967,-6.0148,-17.0421,
104.7577,22.5553,22.5553,-2.506,161.064,-120.1121,97.7412,-9.5235,-8.5213,-21.5531,-77.6914,-32.5804,2.506,-20.5508,
103.2543,21.0519,29.0716,3.0071,176.064,-105.1121,101.2499,-3.0071,-12.0291,-19.0465,-77.1898,-32.0793,-5.0126,-19.0465,
97.7407,17.5437,14.0716,-4.511,191.064,-90.1121,97.7407,-6.5164,-22.5558,-22.5558,-90.7232,-47.0793,-3.5087,-4.0465,
84.7089,2.5437,7.5186,-14.5361,206.064,-75.1121,89.721,-21.5164,-20.5504,-23.558,-92.7286,-49.6225,-2.5065,5.5132,
74.1827,5.0121,19.047,-3.0076,221.064,-60.1121,90.2221,-14.0349,-9.0219,-9.0219,-77.7286,-34.6225,1.0022,-1.0022,
60.1487,0,21.0524,0,236.064,-45.1121,99.245,-7.0165,-1.0022,-12.0295,-71.1751,-23.0569,9.0229,-14.034,
53.6314,-4.511,14.5351,3.5087,251.064,-30.1121,91.7254,-9.524,-3.5087,-14.5361,-77.6914,-23.558,7.5186,-7.5186,
45.6122,-6.5159,11.528,-2.506,262.1459,-15.1121,78.6941,-7.5181,-1.5038,-7.5181,-77.6914,-14.5356,10.5257,1.5038,
37.0909,-9.0219,19.047,-13.0318,247.1459,-0.11212,82.2024,-9.0219,3.0076,-3.0076,-77.1903,-20.0492,18.0438,-3.0076,
24.0591,-9.0219,9.0219,-5.0121,232.1459,14.8879,79.1948,-5.0121,-5.0121,-1.0022,-90.2221,-23.0569,12.0295,1.0022,
10.0246,-19.0465,2.0049,-4.0094,217.1459,29.8879,75.1854,-10.0246,-4.0094,-2.0049,-91.2243,-16.0389,7.017,11.0268,
0,-29.0712,-2.0044,-14.034,202.1459,44.8879,63.1563,-18.0438,-8.0197,2.0054,-86.2118,-1.0389,4.0098,19.047,
-5.5132,-30.5755,-8.5208,-12.5307,187.1459,51.6269,56.64,-16.5405,-9.523,13.5329,-85.7111,13.9611,5.5132,17.5437,
-9.0219,-38.094,-12.0295,-20.0492,172.1459,47.116,58.1433,-24.0591,-3.0076,11.0273,-87.2145,18.0448,3.0076,9.0229,
-3.0076,-29.0721,-2.0054,-16.0394,157.1459,62.116,61.1509,-15.0372,-1.0022,12.0295,-75.1854,19.047,1.0022,20.0492,
-5.0121,-33.082,0,-14.035,142.1459,67.1652,64.1576,-14.035,-2.0054,3.0076,-73.1805,4.047,0,11.0273,
-12.5307,-37.5929,-6.5164,-13.5329,127.1459,55.6368,57.6422,-16.5405,-1.5033,8.5208,-71.6767,1.5033,8.5208,16.5405,
-27.5307,-42.6045,-19.5477,-23.5575,112.1459,48.6198,42.6422,-28.5705,-1.5038,12.5311,-75.686,1.5038,9.5235,15.5388,
-42.5307,-38.5952,-8.5208,-18.5459,97.1459,49.6225,53.6323,-22.5558,13.4962,12.5307,-72.6789,-0.50111,18.5459,0.53876,
-47.1155,-39.0958,-8.0192,-15.0367,82.1459,49.1209,51.1263,-14.0345,7.018,13.0323,-83.2046,-2.0049,9.0224,2.0049,
-43.1061,-36.0886,0,-6.0143,67.1459,58.1433,51.1258,-17.0416,0,23.0569,-80.1975,-2.0044,11.0273,17.0049,
-48.1187,-37.0913,-2.0049,-10.0246,52.1459,62.1527,46.1133,-30.0748,2.0049,14.0345,-81.2002,-7.018,6.0148,6.0148,
-49.6225,-33.5826,-8.5213,-8.5213,37.1459,77.1527,48.6198,-20.5508,15.5378,11.528,-71.6767,-1.5038,13.5334,1.5038,
-50.6242,-41.6018,-7.5186,-9.523,22.1459,92.1527,54.6346,-9.523,26.5656,19.5481,-61.6516,-8.5208,22.5558,7.5186,
-49.1214,-39.0967,-12.03,-11.0278,7.1459,89.2194,48.1187,-6.0148,23.0564,29.0716,-60.1482,-9.0224,18.0443,13.0323,
-49.1214,-35.0869,-14.0345,-17.0421,1.0027,78.1921,46.1133,-15.0377,23.0564,20.0488,-62.1531,-1.0027,18.0443,1.0027,
-50.1231,-42.1034,-8.0192,-11.0268,2.0049,85.2095,40.099,-19.0465,8.0564,13.0322,-73.18,5.0126,11.0268,-2.0049,
-48.1187,-40.099,-10.0246,-3.0071,11.0268,99.2445,31.0761,-9.0224,-6.9436,13.0322,-81.2002,3.0071,5.0126,12.9951,
-44.1088,-31.0761,-7.017,-10.0246,7.017,94.2324,41.1012,-10.0246,8.0564,8.0202,-72.1778,-7.017,18.0443,22.0542,
-53.6314,-37.592,-16.5405,-23.558,0.50111,91.7264,30.5755,-19.5481,5.5141,1.5043,-79.6959,-0.50111,10.5262,14.5361,
-58.6439,-51.6265,-21.5531,-26.5651,11.5289,101.751,23.5585,-21.5531,-2.506,8.5213,-82.7035,14.4989,2.506,10.5257,
-52.6296,-52.6296,-13.5334,-22.5553,22.5553,107.7653,28.5705,-23.5575,-4.5114,11.5289,-74.6838,18.5454,4.5114,14.5356,
-44.6099,-39.5979,-10.5257,-14.5356,25.5629,112.7774,34.5848,-17.5432,-7.5181,13.5334,-73.6816,23.5585,7.5181,24.5607,
-47.6171,-45.6126,-13.5338,-19.5481,14.5351,97.7774,39.5974,-21.5535,3.5087,0.50111,-75.6865,8.5585,10.5253,9.5607,
-40.6001,-31.5782,-8.5213,-8.5213,22.5553,102.7532,54.5974,-6.5535,18.5087,9.5235,-60.6865,-6.4415,25.5253,6.5159,
-52.1285,-27.0667,-22.0546,-12.0295,12.0295,117.7532,52.128,-13.0318,19.047,14.035,-49.1209,-15.0372,30.0743,18.0448,
-59.6471,-40.5996,-28.5701,-27.0295,-2.9705,115.7855,37.5929,-28.0318,7.5186,6.5164,-62.6543,-0.037174,15.0743,25.5634,
-52.6292,-46.6149,-31.5777,-24.5602,-0.50111,111.7756,27.5678,-22.5558,0.50111,17.5437,-64.6592,14.9628,5.5141,23.558,
-52.128,-52.128,-35.0864,-23.0569,-3.0076,114.2812,34.0842,-19.047,6.0143,25.0613,-59.146,27.0667,15.0372,8.558,
-54.133,-46.1133,-30.0739,-20.0497,-9.0224,121.2982,36.0891,-20.0497,9.0224,22.0542,-62.1531,27.0662,16.0389,10.0246,
-58.1433,-47.1164,-17.0421,-17.0421,-6.0148,118.2915,34.0837,-24.0596,6.0148,19.0465,-65.1608,27.0662,9.0224,19.0465,
-63.1558,-55.1357,-10.0251,-20.0492,-4.0098,111.2736,34.0842,-32.0788,4.0098,18.0448,-66.163,19.047,8.0197,6.0143,
-59.6471,-42.605,-13.5338,-14.5361,-4.511,126.2736,32.5799,-21.5535,4.511,23.558,-58.6444,32.5799,12.5307,21.0143,
-55.6368,-47.6171,-17.5437,-19.5481,-3.5087,132.8271,36.5898,-30.5755,6.5154,8.558,-49.6225,24.5602,8.5208,26.5656,
-41.6023,-46.6144,-12.5302,-12.5302,11.4913,145.8594,45.6122,-37.5925,6.5159,-5.5137,-44.6099,9.5602,8.5213,12.5311,
-40.6001,-31.6144,-11.528,-1.5038,26.4913,150.8714,48.6198,-30.575,12.5311,1.5038,-47.6166,-3.5083,12.5311,13.5334,
-55.6001,-42.605,-16.5405,-6.5164,11.4913,135.8714,38.5952,-31.5777,11.5284,3.5087,-62.6166,-3.5087,4.511,13.5329,
-59.146,-45.111,-20.0497,-2.0049,3.0071,137.3385,31.0761,-24.0596,-2.0049,18.5087,-68.1679,11.4913,2.0049,18.0443,
-44.146,-40.0985,-17.0416,-6.0143,4.0098,148.3654,33.082,-21.0515,-4.0098,32.0798,-62.1527,26.4913,8.0197,17.0426,
-41.6023,-42.6055,-19.5486,-17.5432,1.5038,147.8638,26.5651,-26.5661,-1.5038,27.5674,-61.6516,41.4913,5.5137,25.5629,
-56.6023,-55.6373,-33.5826,-32.5432,12.5311,145.8594,21.5531,-34.5848,-2.506,12.5674,-61.6516,40.6001,2.506,23.5585,
-69.1701,-55.1357,-29.0712,-47.116,11.0273,148.3654,36.5531,-38.094,11.0273,0,-47.116,25.6001,12.0295,14.0349,
-54.1701,-40.1357,-15.5378,-32.116,13.5334,163.3654,37.5925,-23.5575,17.5432,4.5114,-43.6072,10.6001,19.5486,24.5607,
-39.1701,-25.1357,-5.5137,-17.116,14.5356,163.9032,41.6023,-12.5311,20.5508,5.5137,-50.6247,-4.3999,28.5705,23.5575,
-24.1701,-21.0519,-2.0049,-10.0256,2.0049,167.4119,46.1133,-7.018,17.0411,6.0148,-54.1339,-12.03,26.064,14.0345,
-18.0448,-16.0394,-1.0022,-4.0098,1.0022,182.4119,39.0963,-1.0022,11.0273,17.0416,-52.1285,-1.0022,21.0515,13.0318,
-33.0448,-31.0394,-6.0148,-10.0246,5.0125,179.4424,38.0945,-16.0022,15.0377,19.0475,-54.133,-2.0049,20.0497,2.0049,
-48.0448,-43.1061,-21.0148,-25.0246,0,164.4424,32.0798,-31.0022,12.0295,15.0372,-59.1455,0,15.0372,5.013,
-56.6395,-37.5929,-31.5777,-34.5853,-15,171.9234,31.5777,-24.5602,17.5427,16.5405,-51.6274,15,21.5526,20.013,
-43.1056,-28.0685,-18.0443,-21.0519,-17.0421,180.4447,33.0815,-19.0465,19.0475,24.0596,-48.1177,30,17.0421,35.013,
-35.588,-24.5607,-12.5311,-14.5356,-3.5083,193.9775,26.5651,-15.5388,4.0475,19.5477,-57.6422,37.5925,3.5083,50.013,
-27.5683,-30.575,-7.5181,-12.5311,-3.5083,196.9852,28.5705,-20.5508,3.5083,5.5137,-62.6538,26.5651,5.5137,35.588,
-37.0909,-30.0743,-8.0197,-7.0175,-12.0295,205.5065,28.0689,-18.0438,10.0251,15.0372,-60.1482,27.0667,7.0175,20.588,
-52.0909,-27.0667,-8.0197,-14.034,-25.0613,220.5065,28.0689,-18.0438,19.047,30.0372,-49.1209,32.0798,8.0197,32.0798,
-64.6597,-32.5809,-8.5208,-28.571,-33.5831,235.5065,23.558,-33.0438,15.5383,30.5755,-47.6171,32.5799,8.5208,22.5548,
-53.1307,-26.064,-6.0148,-15.0367,-19.0465,250.5065,30.0739,-30.0739,13.0323,30.0739,-44.1088,24.0596,20.0497,7.5548,
-38.1307,-19.0475,8.0192,-3.0081,-4.0465,265.5065,45.0739,-20.0497,23.0564,16.0389,-39.0967,9.0596,28.0685,2.0049,
-23.1307,-4.0475,17.0416,-3.0076,10.9535,280.5065,48.1182,-19.047,15.0372,1.0389,-45.1115,-5.9404,16.0394,3.0076,
-23.5585,-4.5114,14.5356,-2.506,18.5454,295.5065,42.6045,-22.5553,11.528,-7.5181,-45.6122,-20.9404,12.5311,2.506,
-38.5585,-19.5114,7.5181,-10.5257,3.5454,281.192,39.5979,-21.5531,13.5334,5.5137,-47.6176,-5.9404,15.5378,11.528,
-43.6072,-28.571,-3.5087,-17.5437,-11.4546,296.192,26.5656,-7.5186,3.5087,13.5329,-55.6368,9.0596,7.5186,26.528,
-32.5804,-19.5477,-5.5137,-20.5499,-13.5334,311.192,22.5562,-5.5137,5.5137,8.5213,-61.6516,16.541,6.5159,25.5629,
-27.5678,-13.5338,-3.5087,-20.5513,-26.5656,326.192,26.5656,-8.5208,3.5087,15.5383,-63.657,24.5602,7.5186,29.5723,
-23.0569,-5.013,-4.0098,-18.0448,-15.0372,341.192,35.0864,-5.013,4.0098,22.0537,-56.1388,28.0689,7.0165,29.0712,
-16.0394,-3.0076,-6.0153,-22.0547,-0.037174,356.192,34.0832,-9.0229,7.0165,7.0537,-48.1192,13.0689,5.0121,14.0712,
-10.5257,9.5235,-1.5038,-16.541,9.5235,371.192,36.5902,-0.50159,10.5257,-1.5038,-38.5947,-1.9311,20.0121,0.50159,
-18.5454,9.5235,4.5114,-21.5531,-5.4765,363.3944,47.6176,-4.5114,13.5334,-10.5257,-39.5979,-16.9311,30.575,6.5159,
-21.0524,13.0318,4.0099,-16.0394,-17.0426,362.8938,39.0963,-3.0076,8.0197,-14.0349,-49.1214,-29.0721,23.0569,3.0076,
-23.0569,9.0219,-3.0076,-12.0295,-13.0318,368.9081,24.0963,4.0098,3.0076,-6.0143,-58.1433,-19.047,15.0372,10.0251,
-17.5427,3.5087,3.5087,-12.5307,-19.5481,374.4222,29.5732,-4.511,6.5164,-3.5087,-62.6543,-7.5186,13.5338,21.5535,
-5.5137,13.5334,13.5334,-0.50159,-8.5213,386.4513,28.5705,-3.5083,-2.506,-4.5114,-64.6592,0.50159,8.5213,25.5629,
-3.5087,11.5284,15.5383,-2.5056,-0.50111,386.4518,29.5732,-3.5087,-6.5154,0.50111,-61.6516,-9.523,8.5208,12.5307,
-18.5087,1.5033,0.53829,-17.5056,-5.5132,377.4298,25.5634,-14.5361,-1.5033,12.5307,-56.639,3.5087,6.5164,18.5459,
-27.5683,-0.50159,-14.4617,-32.5056,-11.528,369.4097,20.5508,-26.5651,0.50159,17.5432,-53.6319,18.5087,2.506,17.5432,
-14.5356,1.5038,-1.5038,-23.5585,-5.5137,365.3998,33.5826,-23.5585,10.5257,5.5137,-49.622,13.5334,11.528,2.5432,
-9.0224,10.0246,3.0071,-16.0399,7.017,363.8955,34.0837,-13.0322,4.0094,-9.4863,-58.1433,-1.4666,13.0322,-3.0071,
-5.0121,15.0372,6.0153,-10.0241,4.0098,353.8719,39.0963,-12.0295,6.0153,-24.4863,-56.1379,-16.4666,18.0448,-4.0098,
2.5065,15.5383,20.5504,-2.5065,-2.5065,353.3698,47.6171,-3.5087,21.0153,-17.5427,-43.6072,-31.4666,27.5678,-9.523,
-11.5289,4.5114,9.5235,-10.5257,-8.5213,361.39,32.6171,0.50159,8.5213,-2.5427,-55.6373,-46.4666,15.5378,-13.5334,
-7.017,5.0125,8.0192,-10.0246,-1.0027,376.39,25.0618,-5.0126,1.0027,9.0224,-63.1558,-31.4666,10.0246,-5.0126,
-7.0175,7.0175,-3.0076,-24.0591,4.0099,387.9551,19.047,-13.0318,-13.9973,6.0153,-70.1728,-16.4666,-4.9754,3.0076,
-1.5038,14.5356,-1.5038,-31.5782,15.5378,387.4545,19.5486,-7.5181,-11.528,1.5038,-59.6471,-1.4666,-2.506,18.0076,
11.0278,9.0224,2.0049,-31.0761,30.5378,384.9479,18.0443,-17.0421,-13.0322,-13.4962,-64.1581,-8.0192,-2.0049,20.0497,
19.5486,14.5356,6.5159,-16.0761,45.5378,399.484,20.5508,-15.5378,-24.5607,-28.4962,-79.1581,-23.0192,-6.5159,11.5289,
12.0295,14.035,18.0448,-1.0761,44.1083,395.9748,29.0712,-15.0372,-25.0613,-43.4962,-89.2199,-38.0192,0,-3.4711,
12.5316,14.5361,18.5459,0.50111,43.6072,395.4737,27.5678,-14.5351,-27.5678,-58.4962,-84.7084,-53.0192,-0.50111,-18.4711,
20.0497,19.0475,9.0224,-3.0071,51.1263,410.4737,29.0716,-2.0049,-16.0389,-46.1133,-70.1724,-68.0192,2.0049,-15.0367,
15.0367,16.0399,-2.0049,-14.0345,40.099,411.0124,18.0443,2.0049,-17.0421,-31.1133,-74.1827,-53.0192,1.0027,-1.0027,
15.0372,15.0372,-5.0121,-8.0197,45.1115,420.0339,8.0197,5.0121,-31.0766,-16.1133,-77.1903,-38.0192,-7.0175,13.9973,
18.0448,8.0197,-4.0098,-16.0394,60.1115,428.0545,13.0327,-8.0197,-36.0886,-6.0143,-82.2024,-23.0192,-22.0175,28.9973,
19.047,11.0273,-5.0121,-25.0613,75.1115,422.0393,5.0121,-18.0448,-44.1083,-13.0318,-93.2297,-8.0192,-31.0766,18.0448,
26.064,19.0465,6.0148,-11.0268,76.1876,416.0245,12.03,-12.03,-30.0739,-10.0246,-80.1975,-6.0148,-16.0766,14.0345,
22.0542,17.0421,9.0224,-8.0192,61.1876,413.0169,20.0497,-17.0421,-15.0739,-7.017,-67.1647,-21.0148,-1.0766,1.0027,
14.5356,23.5575,1.5038,-8.5213,46.1876,425.5476,11.528,-20.5508,-18.5454,-1.5038,-69.6717,-6.0148,-12.5311,4.5105,
23.5585,10.5267,-1.5038,-15.5378,47.6176,434.5704,5.5137,-20.5499,-28.5696,-15.5378,-75.6856,1.5038,-8.5203,6.5168,
38.5585,14.5361,0.50111,-14.5361,60.6489,449.5704,3.5087,-5.5499,-33.5831,-22.5558,-77.6914,-5.5141,-3.5087,7.5186,
41.1012,26.064,-3.0071,-20.0497,55.1361,464.5704,3.0071,7.017,-40.099,-28.0694,-82.2024,-16.0399,-14.0345,6.0148,
41.6023,23.5575,2.506,-19.5486,50.6242,468.6537,8.5213,-2.506,-37.5925,-43.0694,-81.7013,-31.0399,-13.5334,3.5083,
48.1182,27.0667,0,-8.0197,65.6242,480.1826,3.0076,0,-35.0864,-58.0694,-77.1903,-46.0399,-6.0153,3.0076,
50.1241,35.0869,5.0126,-5.0116,73.1809,486.1974,5.0126,-2.0049,-25.0608,-56.1374,-69.1701,-61.0399,-7.017,2.0049,
49.622,33.5826,15.5378,-1.5038,62.6538,484.6931,1.5038,-5.5137,-32.5804,-51.6274,-76.6892,-58.6449,-12.5311,6.5159,
46.1142,30.0739,8.0202,5.0126,47.6538,487.1996,-13.4962,-1.0027,-45.111,-58.1428,-91.6892,-48.1187,-11.0268,1.0027,
46.6149,38.5952,8.5208,6.5164,37.5929,495.7209,-12.5307,-1.5033,-34.5853,-46.6149,-87.7161,-38.5952,-7.5186,1.5033,
43.1061,43.1061,7.0175,3.0076,52.5929,510.7209,-18.0448,-3.0076,-44.1083,-31.6149,-86.2122,-23.5952,-22.5186,16.5033,
47.6171,36.5898,4.511,-4.511,67.5929,525.7209,-19.5481,-5.5141,-53.6323,-23.558,-88.7188,-8.5952,-29.5732,31.5033,
54.6346,31.5777,8.5208,-11.5284,78.6937,527.7997,-15.5383,-8.5208,-52.6301,-17.5437,-76.6892,6.4048,-21.5535,29.5732,
40.5996,32.5799,8.5208,-15.5383,63.6937,521.7844,-19.5481,-8.5208,-48.6203,-13.5338,-68.6695,12.5307,-18.5459,30.5755,
28.5705,33.5826,6.5159,-13.5334,48.6937,510.7576,-26.5651,-2.506,-33.6203,-13.5334,-67.6668,2.506,-11.528,31.5782,
24.0591,33.082,-3.0076,-9.0219,33.6937,520.2811,-39.0963,3.0076,-24.0591,-4.0098,-57.1401,17.506,-7.0175,40.0985,
18.5454,25.5629,-1.5038,-16.541,18.6937,526.797,-34.5848,-0.50159,-16.541,6.5159,-44.6099,27.5683,0.50159,45.6122,
15.5383,24.5602,0.50111,-18.5459,3.6937,512.7625,-35.5875,-0.50111,-21.5535,4.511,-59.6099,12.5683,-3.5087,42.605,
22.0546,39.5602,-5.0121,-11.0264,13.0327,520.2811,-43.1061,4.0098,-29.0712,-4.0098,-70.1724,17.0426,-9.0219,35.0864,
34.5858,43.6077,2.506,-15.5378,28.0327,535.2811,-33.5826,-2.506,-20.5499,-18.5454,-55.6363,6.5159,-4.5105,24.5607,
49.5858,42.6045,1.5038,-16.541,43.0327,550.2811,-33.5826,7.5181,-21.5531,-21.5531,-53.6319,-5.5137,-1.5038,25.5629,
64.5858,54.6346,-3.5087,-10.5262,58.0327,543.8391,-33.5831,12.5307,-26.5656,-36.5531,-64.6587,-20.5137,3.5087,10.5629,
79.5858,69.6346,11.4913,1.0022,73.0327,558.8391,-23.0569,8.0197,-28.0689,-51.5531,-79.6587,-35.5137,-7.0175,-1.0022,
94.5858,70.6744,25.5629,1.5038,88.0327,573.8391,-34.5848,0.50159,-43.0689,-65.6614,-94.6587,-50.5137,-22.0175,-0.50159,
109.5858,72.6794,33.5831,14.5361,103.0327,588.8391,-26.5647,0.50111,-58.0689,-50.6614,-99.7451,-51.6269,-37.0175,-0.50111,
124.5858,87.6794,34.0842,23.0569,118.0327,601.4813,-31.0766,-3.0076,-70.1728,-35.6614,-98.2418,-36.6269,-46.1137,3.0076,
112.2767,75.1849,19.0842,8.0569,133.0327,616.4813,-46.0766,-14.0349,-84.2078,-37.0918,-113.2418,-21.6269,-61.1137,10.0241,
113.2785,64.1581,21.0519,1.0027,148.0327,631.4813,-50.1231,-9.0224,-78.193,-30.0739,-116.2861,-6.6269,-65.1603,19.0465,
99.2445,67.1657,11.0278,2.0049,163.0327,646.4813,-58.1428,-6.0148,-81.1997,-32.0783,-106.261,-2.0049,-55.1352,14.0345,
87.7156,59.6466,5.5132,-4.511,153.8786,661.4813,-52.6301,-10.5262,-72.6794,-38.5952,-105.7604,4.511,-54.6346,21.5526,
86.7134,60.6489,14.5361,-1.5043,138.8786,676.4813,-43.6072,0.50111,-57.6794,-38.5952,-93.7308,-0.50111,-46.6149,36.5526,
71.7134,63.1558,15.0377,-2.0049,123.8786,691.4813,-41.1012,2.0049,-44.1079,-48.1187,-79.1943,-15.5011,-31.6149,21.5526,
57.6422,62.6543,20.5513,-0.50111,108.8786,706.4813,-27.5678,0.50111,-29.1079,-48.6193,-64.1943,-30.5011,-16.6149,6.5526,
47.6176,53.6319,11.528,0.50159,93.8786,720.2739,-38.5947,-0.50159,-39.5979,-43.6077,-58.6449,-30.575,-18.5454,21.5526,
44.1083,52.128,21.0515,1.0022,78.8786,712.7548,-36.0886,-1.0022,-29.0712,-30.0743,-57.1411,-15.575,-21.0515,26.0645,
48.1191,57.1411,28.0689,-3.0076,63.8786,697.7548,-34.0832,3.0076,-28.0689,-18.0438,-58.1433,-3.0076,-14.034,11.0645,
37.5925,43.6077,13.0689,-13.5334,48.8786,682.7548,-49.0832,-1.5038,-43.0689,-22.5553,-62.6538,1.5038,-20.5508,12.5311,
34.0842,39.0963,11.0273,-10.0251,33.8786,667.7548,-49.1214,0,-30.0743,-26.0645,-52.128,0,-6.0153,27.5311,
31.0766,46.1137,20.0492,-4.0099,18.8786,673.6586,-50.1236,8.0197,-25.0613,-28.0689,-47.116,-3.0076,-4.0099,38.094,
30.575,45.6122,25.5629,1.5038,3.8786,658.6586,-41.6023,10.5257,-27.5683,-19.5486,-41.6023,-1.5038,-7.5191,33.5826,
25.5624,37.592,19.5481,-0.50111,-11.1214,643.6586,-49.6225,3.5087,-27.5678,-5.5141,-50.6247,0.50111,-6.5164,32.5799,
10.5624,31.0766,14.034,-11.0273,-26.1214,629.5502,-64.6225,-4.0098,-34.0842,4.0098,-63.1554,15.5011,-19.047,29.0712,
8.5208,26.5656,21.5535,-14.5361,-33.5821,626.0415,-69.6717,-8.5208,-37.592,9.524,-52.6292,30.5011,-30.5755,35.5875,
9.5235,28.5705,16.541,-9.5235,-40.5991,616.0168,-73.6811,-10.5257,-38.5947,14.5365,-41.6023,45.5011,-24.5597,42.6055,
7.0175,28.0689,17.0416,-13.0318,-50.1236,609.501,-68.1674,-11.0273,-23.5947,12.0295,-27.0667,47.116,-9.5597,37.0909,
9.523,34.5853,25.5634,-17.5427,-57.6422,614.0119,-61.652,-6.5164,-8.5947,6.5164,-16.5405,40.5996,-6.5164,40.5996,
3.5087,38.5952,25.5634,-14.5361,-70.674,620.0272,-65.6619,-2.5065,-4.511,2.5065,-18.5459,25.5996,-3.5087,50.6247,
-0.50159,37.5925,33.5826,-5.5137,-74.6838,616.0168,-59.6471,2.506,-8.5213,-1.5038,-23.5585,10.5996,10.5257,43.6077,
0.50159,37.5925,27.5683,-3.5083,-59.6838,610.0025,-64.6592,0.50159,-23.5213,-0.50159,-38.5585,4.5114,-1.5038,38.5947,
-0.50111,33.5831,19.5481,-10.5262,-49.6225,613.0097,-65.6619,0.50111,-16.5405,2.5065,-31.5777,19.5114,-1.5033,46.6149,
-15.5011,20.0497,10.0246,-25.5262,-64.6225,603.4862,-71.1751,-2.0049,-7.017,2.0049,-21.0519,20.0497,2.0049,41.1012,
-14.5356,22.5553,8.5213,-22.5553,-79.6225,591.9577,-73.6816,0.50159,-14.5356,15.5378,-13.5334,26.5651,-0.50159,42.6045,
-1.5038,24.5607,18.5454,-17.5432,-85.7111,582.9358,-65.6619,-11.528,-13.5334,14.5356,-7.5181,25.5629,1.5038,45.6122,
-1.5033,16.5405,14.5361,-21.5526,-85.7111,586.9452,-68.669,-11.5284,-19.5481,4.511,-9.523,19.5481,1.5033,47.6171,
0,11.0264,9.0219,-22.0546,-87.2149,581.4311,-69.1706,-10.0251,-17.0426,6.0143,-12.0295,22.0537,0,39.0963,
11.5284,21.5526,18.5459,-14.5361,-75.686,570.9058,-68.6695,-23.558,-17.5437,11.5284,-17.5437,37.0537,-11.5284,40.5996,
11.0268,23.0564,13.0323,-11.0268,-67.1657,573.4118,-77.1898,-26.064,-32.5437,14.0345,-31.0761,51.1263,-22.0542,48.1187,
8.5208,16.5405,7.5186,-19.5481,-82.1657,574.9156,-65.6619,-22.5558,-29.5723,16.5405,-26.5656,47.6171,-7.5186,43.6072,
-4.0098,19.047,4.0098,-30.0743,-97.1657,568.3993,-64.1585,-19.047,-14.5723,17.0416,-15.0372,36.0886,4.0098,44.1083,
-14.0345,21.0519,9.0224,-30.0739,-112.1657,559.3778,-63.1554,-15.0367,-6.0148,12.03,-7.017,21.0886,6.0148,40.099,
-0.50111,24.5612,22.5558,-23.558,-97.1657,552.862,-53.6314,-17.5427,-13.5329,0.50111,-6.5154,6.0886,4.511,25.099,
14.0345,39.5612,28.0694,-11.0268,-94.2324,563.3867,-52.1285,-2.5427,-9.0224,-3.0071,-4.0103,1.0027,9.0224,30.0739,
15.5378,35.5871,26.5651,-12.5311,-91.7259,554.8659,-51.6274,-9.5235,-2.506,-11.5289,-7.5191,2.506,7.5181,29.5728,
23.558,30.5755,27.5678,-3.5087,-76.7259,552.861,-54.6346,-15.5383,-10.5262,3.4711,-11.5284,17.506,-5.5141,44.5728,
8.558,22.5558,16.5405,-6.5164,-91.7259,540.8314,-66.6641,-11.5284,-19.5481,18.4711,-11.5284,32.506,-14.5361,59.5728,
0.50159,27.5683,23.5585,-6.5159,-106.7259,532.8122,-61.6516,-10.5257,-7.5181,25.5629,-2.506,47.506,-0.50159,45.6122,
4.0098,31.0766,21.0515,-10.0251,-91.7259,540.3303,-57.1411,-17.0416,-17.0416,10.5629,-12.0295,32.506,-4.0098,30.6122,
17.0416,33.081,25.0613,-11.0273,-76.7259,555.3303,-42.1411,-5.013,-9.0229,-4.4371,0,17.506,10.0241,44.1083,
6.0153,26.0645,15.0372,-20.0492,-61.7259,542.3357,-43.1061,-4.0098,-11.0264,-6.0143,4.0098,2.506,16.0394,44.1093,
-8.9847,24.5602,0.50111,-24.5602,-76.7259,527.3357,-58.1061,-13.5329,-12.5307,-0.50111,0.50111,2.5065,11.5284,29.1093,
-16.0394,19.047,0,-30.0743,-91.7259,512.3357,-59.146,-15.0372,-10.0251,1.0022,0,3.0076,11.0273,18.0438,
-4.0094,11.0278,4.0103,-31.0761,-96.2364,521.2838,-62.1527,-15.0367,-21.0519,8.0202,-2.0049,18.0076,2.0049,33.0438,
9.523,7.5186,9.523,-30.5755,-81.2364,509.7549,-59.6466,-25.5624,-15.5383,1.5033,-3.5087,33.0076,-1.5033,42.605,
8.5213,18.5454,13.5334,-27.5674,-70.674,500.7334,-57.6417,-19.5477,-6.5159,-4.5105,-1.5038,18.0076,8.5213,30.5759,
1.5038,23.5585,7.5191,-28.5705,-71.6762,508.7531,-58.6444,-10.5257,-9.5235,-1.5038,5.5137,3.0076,13.5334,30.5759,
-0.50111,14.5361,3.5087,-40.5996,-78.6937,499.7307,-53.6323,-14.5361,0.50111,-5.5132,12.5307,-6.5164,13.5329,20.5504,
-0.50159,23.5585,0.50159,-37.5925,-86.7134,495.7204,-58.6444,-6.5159,4.5114,-3.5083,6.5159,-13.5334,15.5388,21.5531,
9.0224,24.0596,3.0071,-29.0716,-76.1876,497.2247,-67.1652,-14.0345,-10.4886,4.0103,-8.4841,-3.0071,7.017,36.5531,
17.0426,12.0295,10.0251,-24.0591,-68.1674,487.2001,-74.1827,-28.0689,-25.4886,8.0197,-16.0394,11.9929,-7.983,51.5531,
7.0175,8.0197,2.0054,-29.0712,-83.1674,478.1781,-78.1921,-26.0635,-23.0569,0,-1.0394,3.0076,-2.0044,49.1214,
2.506,3.5083,-2.506,-39.5979,-98.1674,479.681,-67.6668,-16.541,-8.0569,-2.506,13.9606,-11.9924,12.9956,34.5848,
-1.5038,2.506,-6.5159,-41.6028,-113.1674,486.6985,-69.6717,-8.5213,6.9431,1.5038,23.5575,-17.5432,26.5651,36.5902,
2.0049,7.017,1.0027,-39.0958,-113.279,483.1897,-68.1679,-16.0399,-1.0027,-5.0126,20.0497,-20.0497,24.0596,37.0913,
17.0049,14.5361,16.0027,-24.0958,-98.279,477.6761,-61.6516,-20.5504,-8.5208,-12.5307,16.5405,-33.5821,9.0596,29.5732,
31.5782,20.5508,22.5553,-9.0958,-83.279,488.7029,-62.6543,-5.5504,-17.5432,-0.50159,12.5311,-28.5705,0.50159,33.5826,
16.5782,5.5508,10.0246,-23.0564,-75.1854,489.205,-65.1608,-10.0246,-24.0596,-1.0027,1.0027,-23.0564,4.0094,38.0936,
11.0273,6.0153,-1.0022,-33.081,-74.1827,495.2198,-68.1679,-21.0515,-30.0743,2.0054,1.0022,-8.0564,-3.0076,53.0936,
17.0421,9.0224,3.0071,-34.0837,-74.1827,484.1929,-74.1827,-19.0465,-30.0739,1.0027,-1.0027,6.9436,-7.017,68.0936,
21.0515,14.034,18.0071,-24.0601,-81.2002,477.175,-61.1509,-4.0465,-15.0739,0,0,-8.0564,7.983,59.1455,
23.0559,20.0492,17.0416,-19.047,-81.2002,481.1848,-58.1438,4.0098,-13.0327,-7.0175,-4.0098,-23.0564,12.0295,44.1455,
38.0559,25.0613,25.0613,-13.0318,-66.2002,492.2121,-50.1236,-3.0076,-10.0241,-9.0219,3.0076,-38.0564,11.0273,44.1083,
48.1182,29.0712,38.094,-9.0229,-51.2002,504.2417,-45.1115,1.0022,-16.0394,-5.0121,-1.0022,-39.0963,17.0416,59.1083,
33.1182,21.051,29.0707,-15.0377,-48.1191,489.2417,-53.1312,2.0049,-21.0519,-2.0049,-6.0148,-52.129,17.0411,55.1352,
18.1182,7.5186,14.0707,-26.5656,-63.1191,474.2417,-68.1312,-12.9951,-19.5481,1.5033,0.50111,-37.129,2.0411,44.6095,
9.0224,11.0268,6.0148,-26.064,-48.1191,459.2417,-74.1827,-11.0268,-23.0564,10.0246,3.0071,-22.129,-8.0192,59.6095,
13.0313,8.0192,10.0246,-27.0672,-33.1191,449.1055,-59.1827,-14.0345,-23.0574,-4.9754,-6.0148,-26.065,6.0148,44.6095,
16.0399,9.0224,6.0148,-28.0694,-18.1191,434.1055,-56.1384,-29.0345,-24.0596,-19.9754,-6.0148,-41.065,7.017,29.6095,
18.5459,10.5262,-1.5033,-38.5952,-3.1191,419.1055,-53.6323,-38.5952,-18.5459,-8.5208,4.511,-36.5898,1.5033,35.5875,
19.5477,-1.5038,1.5038,-53.5952,11.8809,404.1055,-39.5979,-39.5979,-13.5334,-3.5083,6.5159,-33.5826,7.5181,31.5782,
20.0492,0,0,-53.1312,26.8809,392.9672,-41.1017,-35.0864,-14.035,-2.0054,5.0121,-19.047,13.0318,16.5782,
15.0367,-2.0049,-2.0049,-62.1531,41.8809,377.9672,-41.1012,-46.1133,-12.03,2.0049,10.0246,-19.0475,12.0291,7.017,
10.0251,-7.0175,-1.0022,-70.1728,56.8809,367.9058,-40.0985,-52.128,-17.0416,1.0022,14.0349,-34.0475,8.0197,18.0448,
10.5257,1.5038,-1.5038,-61.652,71.8809,378.4316,-41.6023,-45.6122,-11.5289,-9.5235,15.5378,-49.0475,15.5378,9.5235,
13.5329,4.511,4.511,-59.6471,76.6883,376.4267,-42.605,-43.6072,-4.511,-24.5235,7.5186,-64.0475,17.5427,-5.4765,
9.0224,1.0027,6.0148,-53.1307,66.1625,372.9184,-50.1236,-38.0936,-16.0399,-39.5235,-1.0027,-79.0475,11.0268,3.0071,
6.0143,-5.0121,6.0143,-52.1285,66.163,368.9081,-43.1061,-43.1061,-10.0251,-28.0689,5.0121,-93.2297,13.0318,7.0175,
5.5137,1.5038,-1.5038,-61.652,71.6767,372.4163,-37.5925,-49.6225,2.506,-13.0689,7.5181,-78.2297,13.5334,-5.5137,
-2.0054,1.0022,-7.0175,-61.1509,56.6767,375.9255,-41.1017,-50.1241,0,1.9311,3.0067,-63.2297,12.0295,0,
-6.5164,-13.9978,5.5132,-51.6274,41.6767,363.3949,-38.5952,-49.6225,-1.5033,16.9311,1.5033,-48.2297,12.5307,2.5065,
-4.0094,-3.0071,13.0322,-46.1133,56.6767,366.9031,-37.0913,-41.1012,-7.017,27.0662,3.0071,-33.2297,14.0345,11.0268,
-10.5257,10.5257,6.5159,-50.6247,57.6417,362.3922,-32.5804,-40.6001,-4.5114,12.0662,4.5114,-48.2297,25.5629,0.50159,
-6.0153,10.0251,6.0153,-47.116,42.6417,352.8687,-29.0712,-44.1088,7.0175,-2.9338,16.0394,-63.2297,31.0766,-11.0273,
1.0022,0,1.0022,-49.1209,48.1182,348.8588,-32.0788,-51.1258,0,-10.0251,20.0492,-78.2297,17.0416,-7.0175,
0,0,3.0076,-51.1263,58.1433,350.8642,-24.0591,-47.1164,1.0022,-7.0175,22.0537,-79.1952,21.0515,-6.0153,
-5.0121,10.0251,1.0022,-40.099,43.1433,362.8938,-30.0743,-32.1164,-1.0022,-3.0076,15.0372,-64.1952,26.0645,4.0098,
2.0054,0,8.0197,-32.0788,48.1182,364.8982,-38.094,-21.0515,-8.0197,-6.0143,0.037176,-49.1952,14.035,19.0098,
17.0054,4.0098,23.0197,-20.0492,63.1182,365.9014,-25.0613,-26.0645,-14.034,-4.0098,-8.0197,-34.1952,9.0219,34.0098,
19.5481,17.5427,17.5427,-18.5459,76.6892,364.3971,-26.5656,-22.5558,-24.5602,-8.5208,-13.5338,-37.5929,8.5208,19.0098,
15.0372,11.0273,14.035,-29.0712,72.1782,353.8719,-25.0613,-30.0743,-16.0394,-20.0492,-4.0098,-48.1182,8.0197,4.0098,
20.0497,5.0126,13.0322,-31.0761,87.1782,351.8669,-32.0793,-42.1034,-16.0389,-18.0443,2.0049,-33.1182,-2.0049,19.0098,
22.0547,14.035,8.0197,-28.0689,98.2418,355.8763,-36.0886,-41.1007,-15.0372,-8.0197,0,-39.0963,0,28.0689,
33.5826,19.5477,17.5432,-27.5683,86.7129,356.3769,-31.5782,-32.5804,-11.5289,-9.5235,-1.5038,-47.6176,1.5038,13.0689,
39.5974,16.5405,31.5777,-16.5405,82.7035,365.3993,-28.571,-17.5804,-19.5481,-8.5208,0.50111,-32.6176,-0.50111,28.0689,
24.5974,12.5311,25.5629,-26.5651,83.7062,357.3801,-24.5607,-29.5728,-26.5651,-23.5208,-6.5159,-47.6176,6.5159,29.5728,
18.5459,25.5634,21.5535,-40.5996,98.7062,355.3752,-16.5405,-32.5799,-17.5427,-35.5875,-7.5186,-62.6176,20.5504,14.5728,
18.0438,10.5634,11.0264,-51.1263,98.2418,341.8413,-23.0569,-34.0842,-10.0251,-43.1061,0,-77.6176,14.034,0,
12.5311,0.50159,6.5159,-46.6144,83.7062,334.3232,-27.5683,-36.5902,-7.5181,-31.5782,10.5257,-64.6592,7.5181,-0.50159,
14.5356,15.5016,4.5114,-40.6001,82.704,342.3429,-30.575,-30.575,-15.5388,-16.5782,3.5083,-49.6592,2.506,-2.506,
19.5477,13.5334,8.5213,-48.6198,83.7062,335.3255,-22.5553,-35.588,-8.5213,-25.5629,-4.5114,-56.6395,6.5159,4.5114,
14.034,10.0241,13.0318,-46.1137,85.21,333.8217,-26.0645,-39.0963,-8.0197,-22.0546,-7.0175,-51.1258,7.0175,19.5114,
15.0372,20.0492,21.0524,-31.1137,79.1957,339.8369,-31.0766,-34.0832,-15.0372,-11.0264,-8.0197,-36.1258,8.0197,30.0743,
29.5723,14.5351,32.5799,-26.5656,64.1957,336.3282,-29.5732,-31.5777,-17.5437,-8.5208,-9.524,-26.5656,8.5208,15.0743,
39.0963,12.0295,31.0766,-21.0515,79.1957,337.8315,-33.082,-28.0689,-24.0591,3.0076,-6.0153,-13.0318,-3.0076,30.0743,
43.6072,20.5504,38.5952,-9.523,94.1957,340.338,-20.5504,-27.5678,-19.5481,-0.50111,0.50111,-19.5481,-5.5132,40.5996,
51.1258,35.5504,48.1182,-5.0121,109.1957,347.8566,-12.0295,-22.0537,-19.047,-15.5011,0,-34.5481,0,26.0645,
36.1258,32.5799,33.1182,-20.0121,104.7582,341.3402,-19.5481,-29.5732,-23.558,-30.5011,0.50111,-49.5481,-0.50111,13.5329,
21.1258,17.5799,19.0465,-35.0121,89.7582,326.8047,-17.0421,-41.1012,-8.558,-37.0913,14.0345,-64.5481,9.0224,-1.4671,
6.1258,5.5137,11.5289,-43.6068,74.7582,328.3089,-31.5772,-37.5925,-5.5137,-25.5629,9.5235,-61.6516,11.5289,-6.5159,
6.0143,5.0121,6.0143,-51.1258,59.7582,324.7997,-38.094,-39.0963,-12.0295,-31.0766,-5.0121,-56.1379,6.0143,8.4841,
3.0076,12.0295,14.0349,-46.1137,44.7582,323.7975,-28.0689,-40.0985,-10.0241,-31.0766,-3.0076,-61.1504,5.0121,20.0492,
6.0148,22.0542,21.0519,-37.0913,46.1133,332.8189,-31.0771,-36.0891,-15.0377,-32.0793,-2.0049,-73.1805,8.0192,5.0492,
21.0148,23.5585,29.5728,-39.5969,60.6493,337.3309,-20.5508,-34.5848,-13.5334,-47.0793,-2.506,-86.7134,14.5356,2.506,
17.5437,17.5437,16.5405,-46.6149,60.6498,334.3237,-19.5481,-36.5898,-22.5558,-57.6417,-4.511,-88.7183,4.511,7.5186,
14.0345,27.0662,15.0367,-40.099,55.1352,336.8288,-12.03,-32.0793,-19.0475,-42.6417,2.0049,-73.7183,6.0148,-2.0049,
27.0672,30.0739,29.0716,-26.064,70.1352,338.8342,-5.0126,-29.0716,-18.0443,-27.6417,-2.0049,-58.7183,6.0148,2.0049,
34.0842,24.0591,34.0842,-17.0426,84.2068,341.8413,-5.0121,-27.0667,-23.0569,-25.0623,-14.0349,-43.7183,5.0121,17.0049,
27.5678,27.5678,38.5952,-20.5504,69.2068,330.3139,-4.511,-28.5701,-22.5548,-26.5656,-14.5351,-41.6018,4.511,32.0049,
28.5705,42.5678,45.6122,-13.5334,54.2068,341.3407,-2.506,-14.5356,-21.5531,-15.5388,-3.5092,-26.6018,2.506,47.0049,
13.5705,27.5678,30.6122,-27.5678,46.6149,330.3129,-3.5087,-28.571,-26.5656,-30.5388,-5.5141,-38.5952,3.5087,32.0049,
1.0027,12.5678,15.6122,-42.5678,48.1187,315.3129,-5.0125,-41.1012,-24.0596,-41.1012,-1.0027,-53.5952,8.0192,17.0049,
-0.50111,21.5535,3.5087,-52.6292,50.6247,307.257,-14.5351,-28.5701,-21.5526,-26.1012,11.5284,-62.6543,8.5208,2.0049,
-1.0027,11.0268,6.0148,-59.146,35.6247,300.7402,-6.0148,-27.0672,-6.5526,-11.1012,26.5284,-47.6543,23.5208,-7.018,
-2.0049,23.0574,10.0246,-57.1406,20.6247,306.7554,2.0049,-25.0618,8.4474,-13.0322,38.0936,-47.116,38.5208,-4.0094,
-2.0049,37.0913,7.018,-50.1231,5.6247,318.785,-6.0148,-20.0488,2.0049,-12.0291,29.0716,-54.133,34.0847,10.0256,
12.9951,22.0913,6.0148,-47.1164,-9.3753,327.8069,-19.0475,-25.0618,-6.0148,-8.0202,15.0367,-39.133,19.0847,25.0256,
15.0362,11.0264,0,-53.1312,-24.3753,339.8369,-34.0475,-31.0766,-17.0426,-8.0197,0.036698,-24.133,5.0121,40.0256,
0.036221,15.0372,8.0197,-49.1214,-39.3753,340.8391,-46.1137,-31.0766,-20.0492,0,-2.0054,-9.133,4.0098,46.1137,
-1.5033,19.5481,12.5307,-34.1214,-54.3753,331.3161,-44.6095,-23.558,-23.558,4.511,1.5033,5.867,-5.5132,32.5799,
-0.50111,20.5504,8.5208,-31.5777,-69.3753,327.3053,-36.5907,-16.5405,-21.5535,-6.5164,1.5033,10.5253,0.50111,24.5602,
-0.50111,17.5437,7.5186,-46.5777,-75.686,335.3259,-30.5755,-17.5427,-18.545,-15.5383,0.50111,2.5065,10.5262,32.5809,
6.5164,21.5535,0.50111,-51.6269,-66.6641,332.3183,-35.5875,-18.545,-25.5624,-4.511,-0.50111,17.5065,1.5043,47.5809,
12.0291,23.0564,-3.0071,-49.1209,-64.1581,317.3183,-36.0891,-25.0618,-17.0421,-9.0224,5.0126,12.0291,3.0071,45.111,
18.0448,28.0689,9.0219,-42.1039,-62.1531,315.7778,-32.0788,-22.0546,-9.0219,-13.0318,10.0251,-2.9709,15.0372,30.111,
20.5504,22.5558,10.5262,-39.5974,-47.6171,318.2834,-28.5701,-22.5558,-13.5338,-8.5208,8.5208,-17.9709,12.5307,28.5701,
24.0596,17.0421,8.0202,-46.1133,-32.6171,312.7707,-25.0618,-27.0662,-9.0224,-9.0224,8.0202,-6.0148,6.0148,31.0771,
16.0399,21.0519,1.0027,-46.1133,-38.0936,326.8047,-39.0958,-18.0443,-15.0367,-9.0224,4.0103,8.9852,-1.0027,32.0793,
3.5087,13.5338,0.50111,-49.6215,-53.0936,324.2986,-47.6171,-13.5329,-17.5427,-0.50111,0.50111,17.5437,-3.5087,35.5875,
-0.50111,12.5307,7.5186,-52.6292,-66.6641,309.2986,-46.6149,-20.5504,-12.5307,14.4989,0.50111,13.5329,-2.5065,37.5929,
-3.5092,16.54,3.5083,-52.6296,-51.6641,299.2368,-40.6001,-24.5607,-10.5257,8.5203,2.506,9.5235,-2.506,25.5629,
0.50111,15.5383,-0.50111,-52.6292,-43.6072,299.2373,-29.5732,-24.5602,-5.5132,-2.5065,6.5164,14.5361,0.50111,20.5504,
6.5159,19.5477,-2.506,-52.6296,-31.5782,306.2543,-35.588,-11.528,-12.5311,6.5159,1.5038,29.5361,-1.5038,35.5504,
10.5262,17.5437,1.5033,-47.6171,-27.5678,313.2713,-36.5898,-14.5361,-13.5329,14.5361,-4.511,43.6072,-1.5033,41.6028,
18.0448,23.0569,5.0121,-34.0842,-37.0909,319.7877,-34.0842,-23.0569,-17.0416,18.0448,-8.0197,53.1312,-5.0121,44.1083,
27.5683,37.5925,4.5114,-26.5651,-22.0909,325.3013,-30.575,-14.5356,-21.5531,18.5454,-9.5235,50.6242,-4.5114,53.6319,
35.0859,30.0739,7.017,-38.0936,-7.0909,310.3013,-28.0694,-22.0542,-25.0618,3.5454,-16.0399,35.6242,-10.0246,38.6319,
50.0859,34.5848,17.5432,-30.575,7.9091,313.2718,-24.5607,-19.5477,-25.5629,-11.4546,-14.5356,20.6242,-14.5356,25.5629,
63.6565,40.5996,26.5656,-23.558,22.9091,326.3031,-17.5437,-21.5535,-27.5678,-8.5208,-12.5307,8.5208,-12.5307,28.5701,
78.6565,49.1214,35.0864,-16.0394,37.9091,341.3031,-7.0175,-14.035,-30.0743,-12.0295,-15.0372,7.0175,-12.0295,19.047,
93.6565,61.15,31.0756,-14.0349,52.9091,355.8763,-6.0153,0,-38.094,-20.0502,-30.0372,0,-24.0601,4.047,
108.6565,76.15,45.1115,-8.0197,67.9091,369.9113,8.9847,-5.0121,-35.0864,-23.0569,-36.0886,-8.0197,-23.0569,5.0121,
123.6565,78.6937,42.605,-6.5164,82.9091,384.9113,6.5164,-15.5383,-50.0864,-32.5799,-41.6028,-9.523,-31.5777,12.5307,
136.3354,77.1898,38.0936,-5.0126,97.9091,390.9622,5.0126,-8.0202,-46.1133,-28.0694,-33.0815,-6.0148,-28.0694,14.0345,
134.3309,77.1898,42.1034,-17.0421,112.9091,375.9622,13.0323,-2.0049,-31.1133,-27.0662,-27.0662,-16.0399,-20.0497,2.0049,
119.3309,81.1997,31.0761,-30.0739,127.9091,368.9086,9.0224,2.0049,-34.0837,-27.0662,-28.0694,-16.0399,-14.0345,-2.0049,
109.2691,71.1751,24.0591,-38.094,142.9091,371.9157,7.0175,-3.0076,-32.0788,-26.0645,-24.0591,-7.0175,-7.0175,3.0076,
111.274,57.1406,24.0586,-29.0716,127.9091,364.8977,-7.9825,-12.03,-38.0945,-19.0475,-30.0748,7.9825,-22.0175,12.0291,
97.7407,42.1406,11.5284,-31.5777,112.9091,349.8977,-22.9825,-17.5427,-50.6247,-11.5284,-43.6072,22.9825,-37.0175,12.5307,
87.7161,38.5956,5.5137,-45.6122,97.9091,334.8977,-19.5477,-11.528,-39.5969,-5.5137,-36.5902,32.5804,-35.5871,23.5585,
72.7161,46.1137,4.0098,-47.116,82.9091,319.8977,-13.0327,-7.0175,-31.0766,-4.0098,-21.5902,32.0788,-23.0569,34.0832,
57.7161,31.1137,9.0224,-48.1187,67.9091,304.8977,-22.0542,-14.0345,-32.0793,-9.0224,-14.0345,24.0596,-21.0519,19.0832,
48.1191,25.0623,15.0372,-46.1128,52.9091,297.733,-25.0613,-12.0295,-36.0886,0,-18.0438,35.0864,-23.0569,10.0251,
61.6516,34.5848,26.5651,-35.588,37.9091,292.2193,-10.0613,-14.5356,-27.5683,1.5038,-10.5257,20.0864,-11.5289,12.5311,
69.1706,34.0842,41.5651,-28.0689,22.9091,282.6958,4.9387,-13.0318,-16.0394,-13.4962,-1.0022,5.0864,3.4711,1.0022,
74.6843,34.5848,41.6023,-21.5531,7.9091,287.2073,-2.506,1.9682,-22.5553,-27.5683,-4.5114,-9.9136,2.506,7.5181,
75.6865,37.5925,35.5871,-25.5629,-7.0909,287.2073,-7.5191,2.506,-18.5454,-17.5432,-2.506,5.0864,-3.5092,17.5432,
65.1603,35.0859,29.0716,-36.0891,-20.0497,281.6931,-13.0322,-12.494,-19.0475,-2.5432,-2.0049,20.0864,-14.0345,23.0564,
50.1603,30.5759,19.5486,-44.6099,-35.0497,275.1777,-6.5159,-12.5302,-18.5454,2.506,-2.506,35.0864,-3.5083,25.5629,
35.1603,20.0492,14.035,-56.1379,-50.0497,260.1777,-5.0121,-16.0394,-16.0394,-12.494,-1.0022,20.0864,2.0054,10.5629,
50.1603,31.0766,28.0699,-41.1379,-45.1106,265.6542,-16.0394,-3.0067,-20.0492,2.506,0,33.082,-8.0197,0,
52.6292,27.5678,25.5624,-29.5732,-42.605,255.128,-25.5634,-4.511,-29.5732,10.5253,-15,47.6171,-23.0197,4.511,
48.1187,28.0694,23.0574,-30.0739,-57.605,247.6099,-17.0421,-5.0126,-25.0618,5.0126,-11.0268,32.6171,-16.0389,9.0224,
49.1204,30.0734,23.0569,-28.0699,-64.1585,258.6367,-15.0372,0,-18.0448,-7.0175,3.9732,17.6171,-7.0175,8.0197,
42.6045,19.5477,12.5311,-43.0699,-71.6767,255.1285,-26.5651,-6.5159,-12.5311,-18.5454,6.5159,15.5378,-12.5311,8.5213,
36.5898,22.5558,-2.4689,-51.6269,-82.704,256.1302,-28.5701,-3.5087,-12.5307,-3.5454,3.5087,30.5378,-16.5405,23.5213,
29.0716,13.0322,-7.017,-59.146,-89.2199,249.6143,-21.0519,-7.017,-13.0322,11.4546,7.017,45.5378,-15.0367,38.5213,
24.5607,1.5038,-1.5038,-65.6614,-98.7434,241.0935,-30.575,-13.5334,-16.541,20.5508,2.506,60.5378,-17.5432,23.5213,
25.5629,8.5213,1.5038,-59.6462,-89.7205,248.111,-31.5772,-12.5302,-17.5432,19.5486,-1.5038,66.6646,-15.5378,22.5562,
29.0721,4.0098,6.0153,-56.1379,-88.2172,240.5929,-24.0591,-24.0591,-21.0515,19.047,-4.0098,65.1608,-17.0416,24.0591,
35.0859,6.0148,9.0214,-52.1285,-88.2176,234.5772,-35.0869,-21.0519,-29.0716,16.0389,-6.0148,62.1527,-25.0618,22.0542,
37.5929,3.5087,6.5164,-53.6323,-73.2176,225.0546,-37.592,-18.5459,-23.558,7.5186,-3.5087,47.1527,-24.5602,17.5437,
45.111,2.0049,7.017,-55.1361,-58.2176,223.5498,-22.592,-24.0596,-23.0574,5.0116,-2.0049,33.0815,-23.0574,19.0465,
50.1231,8.0192,6.0148,-52.1285,-55.1361,226.5575,-18.0453,-14.0354,-34.0847,12.0291,-6.0148,44.1079,-34.0847,24.0586,
57.1401,4.0098,12.0295,-54.1334,-60.1487,218.5382,-15.0372,-10.0251,-32.0788,18.0438,-4.0098,55.1357,-32.0788,20.0492,
56.639,-0.50111,9.523,-51.6269,-66.6641,223.0492,-21.5535,-13.5338,-31.5777,14.5361,0.50111,60.6489,-22.5558,26.5656,
41.639,0.50111,-0.50111,-50.6247,-81.6641,225.0546,-27.5678,-24.5602,-29.5723,0.50111,0.50111,45.6489,-19.5481,25.5634,
46.6153,12.5311,9.5235,-54.6341,-81.7013,226.0563,-16.541,-25.5629,-19.5477,-5.5137,8.5213,30.6489,-11.528,10.5634,
61.6153,19.5481,21.5535,-51.6269,-66.7013,240.0908,-4.511,-10.5629,-9.523,-0.50111,16.5405,15.6489,0.50111,0.50111,
54.133,4.5481,17.0421,-54.133,-51.7013,231.5705,-4.0103,-14.0345,-1.0027,-5.0125,18.0443,0.64886,2.0049,1.0027,
40.0985,0,7.0175,-57.1411,-66.7013,217.5351,-17.0426,-23.0569,-10.0251,0,13.0318,8.0197,-9.0229,13.0318,
42.1039,0,0,-66.162,-57.1401,217.536,-23.0559,-20.0492,-17.0416,11.0273,11.0273,16.0404,-13.0318,10.0251,
45.6126,-5.5132,2.5065,-66.6641,-46.6149,220.0416,-12.5307,-16.5405,-10.5262,9.524,12.5307,27.5678,-2.5065,6.5164,
42.1039,-4.0098,1.0022,-58.1433,-55.1357,223.5503,-13.0318,-9.0219,-14.0349,11.0273,5.0121,42.5678,-1.0022,18.0448,
51.1263,-6.0148,7.018,-58.1428,-45.111,216.5333,-7.017,-14.0345,-12.0291,7.018,2.0049,31.077,-2.0049,6.0148,
63.657,-1.5038,7.5181,-59.6471,-30.111,211.0192,-1.5038,-15.5388,-7.5191,7.5181,16.541,20.5508,-6.5159,1.5038,
48.657,0,-7.4819,-65.1608,-40.0994,213.5252,0,-7.0175,-3.0076,11.0264,30.0734,20.0492,0,4.0099,
33.657,-8.5203,-8.5203,-79.6959,-55.0994,215.03,1.5038,-11.528,-1.5038,1.5038,19.5486,11.5289,5.5137,-10.9901,
43.1061,-3.0076,3.0076,-72.1778,-47.116,228.5624,5.0121,-12.0295,-7.0175,11.0273,14.035,26.5289,-7.0175,-7.0175,
44.6099,-13.5334,-2.506,-67.6668,-34.5858,223.0487,2.506,-27.0295,-12.5311,16.54,13.5334,40.6001,-22.0175,4.5105,
34.0837,-22.0542,-5.0125,-65.1603,-49.5858,222.5476,5.0125,-24.0596,-8.0202,27.0662,17.0421,52.1285,-13.0323,15.0367,
20.0492,-20.0492,-12.0295,-80.1603,-64.5858,209.5163,7.0175,-19.047,-12.0295,13.0327,11.0273,42.1039,-4.0099,4.0099,
35.0492,-5.5137,-3.5092,-83.7062,-57.6417,204.0017,22.0175,-13.5334,-2.506,2.506,23.5575,27.1039,7.5181,-2.506,
28.0689,-10.0251,-12.0295,-82.2024,-42.6417,209.5154,25.0613,-10.0251,-3.0076,3.0076,28.0689,15.0372,6.0143,-8.0197,
13.0689,-23.5585,-16.541,-89.721,-50.6242,205.0049,18.5454,-14.5356,-1.5038,1.5038,22.5553,13.5334,5.5137,-15.5378,
18.0448,-13.0318,-4.0099,-79.1948,-61.15,204.5033,19.047,-17.0416,-8.0197,0,20.0492,17.0426,0,-0.53781,
21.5535,-1.5033,0.50111,-65.6619,-76.15,205.0044,12.5307,-13.5329,-16.5405,-0.50111,18.5459,9.523,-2.5065,3.5087,
15.0367,-12.03,1.0027,-71.1755,-91.15,196.4841,8.0192,-17.0421,-4.0103,-1.0027,18.0443,13.0323,6.0148,-11.4913,
25.5629,-10.5257,-5.5137,-71.6767,-88.7183,211.4841,2.506,-19.5477,-8.5213,4.5114,9.5235,28.0323,-2.506,3.5087,
36.5898,-0.50111,-5.5141,-68.6695,-73.7183,226.4841,6.5164,-16.5405,-22.5558,12.5307,0.50111,43.0323,-15.5383,18.5087,
42.1039,-1.0022,1.0022,-62.1531,-88.7183,241.4841,2.0044,-2.0054,-25.0623,19.047,-7.0175,58.0323,-24.0591,12.0295,
46.6149,0.50111,-0.50111,-49.6225,-103.7183,256.1312,-9.523,6.5164,-24.5602,18.5459,-10.5262,65.6619,-27.5678,23.558,
41.6028,1.5033,5.5132,-49.6225,-118.7183,250.1159,-1.5033,-3.5087,-21.5535,9.523,-1.5033,54.6346,-19.5481,38.558,
32.0788,0,4.0098,-55.1366,-119.2942,246.6072,-7.0175,-6.0153,-27.0667,13.0318,0,59.1455,-22.0547,25.0613,
35.5875,-0.50111,-4.5119,-55.6377,-128.8177,244.1007,-12.5316,0.50111,-25.5634,18.545,2.5056,60.6489,-19.5481,20.5504,
39.0968,1.0027,-5.0125,-62.1527,-135.3331,234.5781,-4.0094,-1.0027,-20.0488,7.018,2.0049,48.1187,-13.0322,35.5504,
34.5853,0.50111,-0.50111,-63.6565,-136.837,231.0689,-1.5043,-3.5087,-18.5459,11.5284,1.5033,61.652,-10.5262,44.6095,
30.575,-9.5235,-0.50159,-64.6592,-129.8195,222.0465,0.50159,-12.5311,-12.5311,19.5486,7.5191,67.6668,-6.5159,29.6095,
34.5853,-0.50111,-0.50111,-58.6444,-114.8195,223.0492,0.50111,-11.5284,-13.5329,23.558,8.5208,52.6668,-8.5208,24.5602,
32.0793,1.0027,5.0125,-58.1428,-119.2937,224.553,-4.0094,-8.0192,-11.0268,17.0421,-1.0027,37.6668,-15.0367,34.0837,
26.5656,-5.5132,7.5186,-65.6609,-134.2937,227.059,-9.523,0.50111,-4.511,7.5186,-0.50111,34.5853,-11.5284,34.5853,
17.5432,-5.5137,-5.5137,-60.6493,-149.2937,233.0738,-19.5477,9.5235,-15.5378,6.5159,5.5137,49.5853,-7.5181,36.5902,
23.5585,-9.5235,-4.5114,-49.622,-134.2937,229.064,-15.5378,4.5114,-11.528,20.5508,7.5191,62.6547,-8.5213,35.588,
26.5656,-8.5208,-0.50111,-48.6193,-128.8168,231.0689,-17.5427,0.50111,-12.5307,35.5508,4.5119,77.6547,-15.5383,33.5831,
17.0416,-4.0098,-1.0022,-58.1433,-139.343,229.5656,-8.0197,1.0022,-17.0416,40.0985,11.0273,92.6547,-3.0076,39.0963,
6.0143,-8.0197,-5.013,-71.1755,-148.3659,214.5656,0,-9.0229,-20.0492,25.0985,10.0241,77.6547,0,45.1106,
15.5383,0.50111,-0.50111,-57.6412,-134.8316,202.9999,-7.5186,-2.5056,-12.5307,26.5656,14.5361,77.6914,-3.5087,44.6104,
21.5535,-3.5087,3.5087,-58.6444,-133.8293,212.0228,-17.5427,-8.5208,-11.5284,17.5437,14.5361,62.6914,-9.523,29.6104,
28.0694,-2.0049,2.0049,-62.1527,-118.8293,222.5486,-13.0322,-6.0148,-26.064,14.0345,3.0081,47.6914,-12.0291,25.0618,
35.588,1.5038,-1.5038,-55.6373,-105.7604,230.0662,-5.5137,7.5181,-28.5705,18.5454,-1.5038,52.6296,-3.5083,33.5826,
31.5782,-7.5181,1.5038,-60.6493,-120.7604,220.042,-10.5257,1.5038,-27.5674,4.5114,-1.5038,37.6296,-3.5083,18.5826,
36.0891,1.0027,7.017,-53.1307,-123.3036,228.5629,-15.0367,2.0049,-33.0815,-1.0027,-1.0027,24.0596,-10.0246,8.0192,
47.6171,0.50111,13.5338,-46.6149,-108.3036,225.0546,-2.5065,-5.5132,-26.5656,-0.50111,10.5262,19.5481,-6.5164,17.5437,
44.1088,-7.017,13.0322,-51.1263,-93.3036,210.0546,-2.0049,-15.0367,-17.0421,2.0049,21.0519,15.0367,-3.0071,11.0268,
29.5728,-1.5038,4.5114,-62.6543,-93.7304,210.0169,-10.5257,-10.5257,-17.5432,1.5038,18.5464,5.5137,-5.5137,11.5289,
37.0918,0,9.0229,-60.1477,-100.2462,225.0169,0,-8.0197,-18.0438,-4.0098,17.0426,9.0229,-9.0219,22.0547,
47.1155,-2.0049,6.0148,-47.1164,-85.2462,230.5673,-6.0148,2.0049,-32.0793,-2.0049,13.0322,24.0229,-17.0421,34.0837,
37.5929,-4.511,-0.50111,-50.6247,-94.7331,216.0317,-15.5383,0.50111,-32.5799,3.5087,8.5208,30.5755,-15.5383,29.5732,
42.6045,-2.506,2.506,-51.6274,-95.7358,217.0344,-15.5388,-4.5114,-24.5607,18.5087,9.5235,45.5755,-20.5508,26.5651,
51.6269,-0.50111,0.50111,-49.6225,-80.7358,217.0349,-13.5329,-0.50111,-23.558,33.5087,18.5459,60.5755,-25.5624,27.5678,
46.6149,-10.5262,3.5087,-60.6489,-76.6887,202.0349,-3.5087,-6.5164,-13.5329,33.5831,25.5634,62.6543,-14.5361,17.5437,
39.5979,-7.5181,2.506,-64.6592,-91.6887,208.0125,-5.5137,-5.5137,-8.5213,18.5831,28.5705,47.6543,-2.506,25.5629,
32.5799,-3.5087,-3.5087,-67.6668,-97.7412,201.9968,-4.511,-4.511,-8.5208,5.5132,27.5678,32.6543,3.5087,22.5548,
33.081,-8.0197,0,-67.1657,-88.2176,186.9968,0,-8.0197,-13.0327,-1.0032,23.0569,17.6543,1.0022,12.0295,
38.5956,-15.5378,2.506,-60.6493,-79.6959,182.9512,-8.5203,-2.506,-28.0327,4.5114,18.5464,24.5607,-7.5181,14.5365,
38.5947,-17.5432,2.506,-60.6493,-70.6744,189.9677,-12.5311,-2.506,-33.5826,18.5454,12.5311,39.5607,-12.5311,7.5181,
42.1034,-2.5432,-2.0049,-60.1482,-57.1406,198.4885,-8.0202,2.0049,-31.0771,33.0815,13.0322,50.1231,-14.0345,22.0542,
45.6122,-1.5038,-7.5191,-69.6717,-68.6695,192.9753,-6.5159,1.5038,-21.5531,18.0815,18.5454,35.5871,-14.5356,33.5826,
48.6198,-12.5302,1.5038,-70.674,-77.691,183.9534,-3.5083,-1.5038,-11.528,3.5092,22.5562,27.5683,-3.5083,29.5728,
33.6198,-16.5405,-0.50111,-67.6668,-72.6794,171.9234,-8.5208,-7.5186,-22.5558,1.5033,10.5253,17.5427,0.50111,14.5728,
24.0596,-10.0246,8.0202,-69.1701,-77.1898,175.4316,1.0027,-7.017,-7.5558,7.017,23.0574,2.5427,15.5011,-0.42724,
27.5678,-1.5033,2.5065,-73.6811,-90.7232,183.9529,-0.50111,-6.5154,-2.5056,14.5361,28.5701,0.50111,18.5459,-2.5056,
22.5558,-4.511,-7.5186,-70.674,-88.7183,175.9332,-4.511,-10.5262,-16.5405,17.5427,13.5701,15.5011,4.511,12.4944,
29.5723,-11.5284,3.5087,-63.6565,-78.6941,177.9377,-3.5087,-6.5164,-28.5701,13.5329,4.511,19.5481,-4.511,14.5361,
43.1061,-15.0372,4.0098,-60.1477,-64.1576,192.9377,-10.0251,-4.0098,-33.082,12.0295,7.0175,28.0689,-14.035,11.0273,
44.6099,-15.5388,-1.5038,-64.6592,-52.6296,196.9852,1.5038,-15.5388,-18.082,10.5257,17.5432,36.5902,-13.5334,19.5477,
37.5929,-7.5186,-8.5208,-74.6838,-48.6193,189.9682,6.5164,-12.5307,-9.523,13.5338,20.5504,30.5755,-6.5164,24.5602,
33.082,-9.0219,-15.0362,-81.1997,-54.1325,179.442,4.0098,-9.0219,-18.0438,14.035,13.0327,15.5755,-4.0098,14.035,
35.5871,-13.5334,-5.5137,-77.6919,-46.6153,166.9108,6.5159,-13.5334,-23.5585,10.5257,5.5137,14.5356,-8.5213,10.5257,
31.0766,-8.0197,6.0143,-74.1827,-44.1083,170.42,-1.0022,-4.0098,-23.0569,12.0295,1.0022,23.0569,-11.0273,14.035,
29.5732,-15.5383,13.5329,-75.6865,-54.6346,173.9288,5.5132,-3.5087,-11.5284,8.5208,4.511,8.0569,-0.50111,0.50111,
44.5732,-9.5235,7.5181,-67.6668,-39.6346,172.9261,7.5181,-9.5235,-21.5531,2.506,2.506,-2.506,-4.5114,3.5083,
45.6126,2.5065,-0.50111,-66.6641,-24.6346,166.9113,-0.50111,-8.5208,-24.5602,0.50111,0.50111,10.5262,-11.5284,6.5164,
36.0886,0,5.0121,-80.1975,-39.6346,163.4026,3.0076,-10.0251,-9.5602,3.0076,7.0175,-2.0054,-6.0153,0,
37.0913,-1.0027,1.0027,-77.1903,-45.111,178.4026,4.0094,-7.017,-12.03,9.0224,2.0049,-10.0246,-2.0049,15,
41.1012,1.0027,-1.0027,-67.1657,-53.1307,184.4545,6.0148,-1.0027,-14.0345,3.0071,-9.0224,-1.0027,9.0224,27.0662,
37.5925,0.50159,3.5083,-62.6538,-68.1307,185.9578,-0.50159,0.50159,-19.5477,-5.5137,-21.5531,7.5181,-3.5083,14.5356,
36.5898,-1.5033,7.5186,-50.6247,-64.6587,196.9847,-4.511,9.524,-27.5678,1.5033,-25.5624,13.5338,-18.5083,9.524,
35.0864,-5.0121,6.0153,-51.1258,-79.6587,191.4715,0,9.0229,-23.0569,0,-22.0537,12.0295,-9.0219,12.0295,
35.5875,0.50111,-0.50111,-59.6466,-94.6587,194.9802,-8.5208,8.5208,-27.5678,0.50111,-26.5656,6.5154,-4.511,15.5383,
39.0963,0,1.0022,-60.1477,-94.2319,191.4715,-11.0273,3.0076,-31.0766,3.0076,-30.0743,0,-11.0273,8.0197,
38.5947,-1.5038,3.5092,-57.6417,-102.7528,176.4715,-2.506,1.5038,-18.5454,7.5191,-21.5531,15,-9.5235,5.5137,
32.5804,1.5038,-1.5038,-65.6614,-117.7528,168.9162,-2.506,7.5191,-15.5378,10.5267,-17.5432,30,-7.5181,11.5289,
32.5804,2.506,-0.50159,-76.6887,-102.7532,183.9162,-1.5038,2.506,-22.5553,0.50159,-24.5607,35.5871,-13.5334,8.5213,
32.0793,2.0049,-2.0049,-71.1746,-89.2194,190.4688,-6.0148,7.018,-29.0716,4.0103,-31.0761,25.0618,-16.0389,15.0377,
29.5732,-5.5132,3.5087,-68.669,-104.2194,186.9605,-3.5087,14.5361,-19.5481,17.5437,-25.5634,28.5701,-3.5087,22.5558,
28.5701,-8.5208,8.5208,-77.6914,-107.7653,186.9606,-5.5132,5.5132,-18.5459,13.5338,-28.5701,22.5558,-7.5186,10.5262,
24.5607,-0.50159,0.50159,-75.6865,-92.7653,181.948,-3.5083,4.5114,-20.5508,13.5334,-23.5575,28.5705,-17.5432,6.5159,
15.0367,-3.0071,-3.0071,-76.1876,-106.2615,166.948,4.0094,3.0071,-14.0345,15.0367,-15.0367,25.0618,-10.0246,8.0192,
8.0197,-1.0022,-3.0076,-78.1925,-121.2615,181.4474,1.0022,11.0273,-13.0318,26.0645,-16.0394,39.0963,-2.0044,23.0192,
3.5083,-9.5235,-2.506,-76.6887,-116.7877,196.4474,2.506,7.5181,-10.5257,27.5683,-15.5378,54.0963,-6.5159,38.0192,
5.5141,-19.5481,2.5065,-68.6686,-102.7528,188.965,3.5087,-2.5065,-11.5284,18.5459,-15.5383,57.6422,-15.5383,35.5875,
9.0224,-8.0202,4.0094,-61.1504,-95.2346,196.4841,-3.0071,3.0071,-23.0564,18.0443,-20.0497,42.6422,-16.0399,34.0837,
5.5137,-13.5334,0.50159,-71.6767,-101.7505,183.9524,2.506,-0.50159,-24.5607,7.5181,-30.575,27.6422,-20.5508,19.0837,
1.0022,-24.0591,-1.0022,-77.1903,-95.2346,172.4245,9.0219,4.0098,-20.0492,5.0121,-34.0842,32.0788,-17.0416,8.0197,
0.50159,-15.5378,-1.5038,-81.7013,-104.7582,176.9359,11.528,12.5311,-13.5334,5.5137,-27.5683,17.0788,-2.0416,14.5356,
9.0224,-9.0224,2.0049,-78.1925,-119.2937,174.4294,20.0497,11.0268,-9.0224,-2.0049,-26.064,2.0788,2.0049,6.0148,
12.5311,-13.5334,-1.5038,-63.657,-104.2937,176.9359,20.5508,9.5235,-20.5508,1.5038,-36.5902,17.0788,-12.9951,11.528,
5.5137,-19.5477,-1.5038,-65.6614,-89.2937,183.9534,15.5388,1.5038,-20.5508,14.5356,-38.5947,32.0788,-19.5477,26.528,
1.0022,-22.0546,0,-68.1684,-85.21,189.4661,8.0197,0,-19.047,26.0635,-28.0689,47.0788,-22.0546,40.0985,
-1.5038,-24.5607,1.5038,-65.6614,-75.6865,181.948,11.528,1.5038,-23.5585,18.5454,-24.5607,54.6341,-22.5553,31.5772,
-1.0022,-20.0492,15.0372,-61.1509,-60.6865,186.4594,24.0591,1.0022,-16.0394,9.0219,-24.0591,39.6341,-13.0318,17.0416,
-6.5159,-16.541,9.5235,-69.6713,-63.657,187.9623,14.5356,6.5159,-15.5388,8.5213,-22.5553,27.5674,-15.5388,12.5311,
1.0027,-22.0542,-1.0027,-79.1952,-67.1657,172.9623,16.0399,7.017,-15.0367,8.0202,-15.0367,31.0761,-14.0345,12.03,
6.0152,-23.0569,-4.0098,-78.1925,-76.1876,173.4277,13.0327,4.0098,-24.0591,6.0152,-19.047,25.0623,-19.047,13.0327,
-1.0027,-15.0367,1.0027,-70.1728,-91.1876,188.4277,4.0103,10.0246,-18.0443,8.0202,-21.0519,21.0519,-16.0389,16.0399,
3.0076,-19.047,1.0022,-79.1948,-76.1876,173.4277,8.0197,4.0099,-14.034,-1.0022,-26.0635,13.0327,-7.0175,8.0197,
18.0076,-9.523,-0.50111,-76.6887,-61.1876,171.9234,19.5481,0.50111,-25.5624,-3.5087,-32.5799,11.5284,-16.5405,8.5218,
33.0076,5.477,11.5284,-63.6565,-46.1876,186.9234,34.5481,0.50111,-22.5558,-13.5329,-28.5701,-3.4716,-24.5602,-0.50111,
48.0076,20.477,26.5284,-54.1334,-31.1876,186.4594,49.5481,8.0197,-17.0416,-18.0438,-22.0537,-12.0295,-13.0318,-8.0197,
63.0076,25.0623,28.0699,-66.1625,-16.1876,171.4594,64.5481,4.0098,-26.0635,-21.0515,-30.0734,-23.0559,-4.0098,-23.0197,
78.0076,13.5334,20.5508,-73.6816,-1.1876,156.4594,71.6767,-1.5038,-18.5454,-22.5553,-23.5575,-34.5848,1.5038,-38.0197,
93.0076,17.0421,16.0389,-68.1679,13.8124,145.3582,71.1755,3.0071,-17.0421,-17.0421,-16.0399,-30.0739,-3.0071,-37.0913,
95.2346,21.0519,30.0748,-64.1576,28.8124,130.3582,82.2029,-2.0049,-4.0094,-5.0116,-8.0192,-15.0739,2.0049,-26.064,
82.2019,7.017,38.0936,-67.1657,43.8124,115.3582,76.1876,-12.03,-2.0049,-5.0125,-11.0268,-0.073871,-1.0027,-19.0465,
72.1778,3.0071,30.0739,-64.1581,58.8124,119.2937,73.18,-8.0192,-3.0071,-11.0268,-10.0246,-5.0126,5.0126,-15.0367,
57.1778,-4.511,19.5481,-79.1581,73.8124,104.2937,78.6937,-17.5437,4.511,-26.0268,-4.511,-20.0126,12.5307,-24.5602,
42.1778,-4.0099,13.0318,-88.2176,88.8124,89.2937,71.1751,-5.0121,1.0022,-17.0426,-1.0022,-27.0667,14.034,-9.5602,
27.1778,-19.0099,3.5083,-81.7013,103.8124,99.7456,65.6614,1.5038,1.5038,-11.5289,-1.5038,-20.5508,21.5531,-1.5038,
12.1778,-33.5826,2.506,-89.721,118.8124,85.7116,66.6646,-13.4962,15.5388,-11.528,5.5137,-18.5454,27.5683,-14.5356,
-2.8222,-34.0842,-1.0022,-102.2516,115.2844,70.7116,53.1312,-25.0613,12.0295,1.0022,10.0251,-3.5454,18.0448,-2.0044,
-17.8222,-45.6117,-12.5307,-111.7752,100.2844,57.6422,45.6126,-31.5777,2.5065,-0.50111,0.50111,2.5065,9.524,-13.5329,
-32.8222,-35.588,-10.5267,-97.7412,85.2844,64.6592,49.622,-27.5683,2.506,-2.506,5.5137,3.5083,19.5477,-28.5329,
-46.1137,-28.0689,1.0022,-92.227,70.2844,49.6592,51.1258,-20.0492,6.0153,-6.0153,17.0416,-1.0022,26.0645,-17.0416,
-55.1357,-36.0882,2.0049,-103.2539,55.2844,38.0945,48.1187,-23.0564,6.0148,-10.0246,5.0126,-2.0049,22.0542,-13.0322,
-52.6296,-34.5853,-8.5208,-94.7331,40.2844,53.0945,49.6225,-24.5602,8.5208,-0.50111,0.50111,10.5262,25.5634,-21.5526,
-53.6323,-40.6006,-4.5119,-91.7264,25.2844,45.6117,50.6247,-28.571,10.5253,3.5087,12.5307,-3.5087,28.5701,-19.5481,
-58.6444,-41.6028,1.5033,-94.7335,20.5504,36.5898,40.5996,-25.5634,4.511,-1.5033,11.5284,-18.5087,14.5361,-16.5405,
-52.1285,-31.0771,-2.0049,-84.2078,27.0662,44.1088,52.1285,-13.0322,18.0443,2.0049,20.0488,-13.0322,21.0519,-20.0497,
-65.6619,-46.0771,-17.0049,-90.7237,12.0662,33.5831,46.6149,-28.0322,12.5307,-1.5033,10.5262,1.9678,16.5405,-28.5701,
-79.1952,-54.133,-23.0574,-91.2248,6.0148,47.1155,31.6149,-33.0815,-2.0049,13.4967,4.0094,16.9678,2.0049,-13.5701,
-84.2073,-61.15,-17.0416,-99.244,12.0295,44.1083,34.0842,-39.0963,1.0022,10.0251,3.0076,31.9678,-1.0022,-6.0143,
-80.1975,-58.1433,-16.0394,-96.2369,12.0295,45.1106,35.0864,-38.094,1.0022,9.0219,0,36.0886,0,-5.0121,
-75.6865,-54.635,-13.5334,-90.7237,14.5356,46.6144,37.5925,-34.5858,2.506,8.5203,-1.5038,33.5826,1.5038,-2.506,
-72.1782,-53.1307,-14.0345,-88.2176,14.0345,46.1133,38.0936,-33.0815,2.0049,6.0148,-6.0148,29.0716,2.0049,-2.0049,
-69.1701,-51.1253,-13.0313,-85.2095,15.0377,46.1142,39.0967,-31.0761,2.0049,4.0103,-9.0214,26.065,3.0081,-2.0049,
-65.6614,-48.6198,-12.5302,-82.7035,14.5356,46.6153,39.5979,-30.575,1.5038,1.5038,-12.5302,21.5531,3.5092,-1.5038,
-61.1509,-45.111,-12.03,-78.1925,16.0389,47.1155,42.1034,-27.0672,2.0049,1.0027,-15.0367,18.0443,3.0071,-1.0027,
-55.1357,-38.0936,-10.0246,-63.1925,15.0377,62.1155,46.1142,-19.0465,5.0125,-2.0049,-13.0323,3.0443,6.0148,2.0049,
-48.6198,-31.5777,4.511,-63.657,8.5208,64.6587,54.6346,-15.5383,10.5262,-3.5087,1.9677,-11.9557,17.5427,-12.9951,
-51.6269,-28.5701,3.5087,-65.6614,-3.5087,49.6587,48.6203,-16.5405,9.524,3.5087,6.5164,-7.5186,21.5535,-17.5427,
-65.1608,-36.0896,-1.0032,-58.1438,-18.5087,34.6587,44.1083,-27.0667,15.0362,11.0264,0,7.4814,14.034,-2.5427,
-77.691,-44.6099,-9.5235,-64.6592,-21.5531,26.5661,35.588,-29.5728,5.5137,17.5432,-2.506,22.4814,2.506,5.5137,
-71.1755,-46.1137,-22.0546,-72.1778,-6.5531,34.0842,40.0985,-24.0591,0,25.0613,0,35.0864,8.0197,-1.0022,
-66.163,-52.1285,-22.0542,-76.1876,8.4469,22.0542,51.1263,-38.0936,4.0103,10.0613,-4.0094,20.0864,7.017,-3.0071,
-62.6547,-38.5952,-7.5186,-63.657,23.4469,25.5624,53.6314,-28.571,13.5329,-3.5087,3.5087,5.0864,14.5351,5.5132,
-55.1357,-29.0716,-1.0022,-58.1433,38.4469,32.0788,67.1652,-13.571,28.5329,1.0022,18.5087,-9.9136,29.5351,-9.4868,
-42.1034,-26.064,1.0027,-60.1482,53.1307,31.077,81.1997,-7.017,35.0869,-1.0027,26.064,-24.9136,44.5351,-18.0443,
-43.1056,-29.0712,-6.0143,-69.1701,60.1487,26.0645,71.176,-13.0318,20.0869,0,16.0404,-9.9136,29.5351,-5.0121,
-53.1307,-44.0712,-21.0143,-84.1701,45.1487,11.0645,58.1433,-28.0318,16.0394,-1.0022,1.0404,5.0864,23.0569,-14.035,
-56.6395,-49.6225,-36.0143,-90.7237,30.1487,13.5334,50.6242,-25.5629,12.5311,2.506,-2.506,11.528,28.5705,-14.5356,
-71.6395,-59.6466,-38.5952,-95.7358,15.1487,11.5284,46.6149,-24.5602,10.5262,-2.5065,1.5033,1.5033,27.5678,-1.5033,
-78.1925,-70.1728,-29.0716,-98.2418,11.0268,2.0049,43.1066,-35.0859,21.0519,-2.0049,5.0126,-13.4967,20.0497,8.0202,
-68.1679,-59.1455,-27.0662,-90.2221,13.0323,9.0224,43.1066,-30.0739,22.0542,2.0049,6.0148,-13.0323,17.0421,-2.0049,
-53.1679,-44.1455,-12.0662,-77.1898,28.0323,23.0574,58.1066,-15.0739,34.0837,7.017,21.0148,-7.017,32.0421,-17.0049,
-38.1679,-39.0963,-6.0148,-71.1751,43.0323,28.0694,67.1657,-7.017,32.0793,6.0148,27.0672,-12.0291,47.0421,-12.0291,
-37.5925,-35.5875,-6.5154,-62.6543,28.571,25.5634,60.6498,-14.5351,30.5755,4.511,13.5338,-4.511,40.6006,-5.5132,
-50.1236,-50.1236,-14.035,-71.1751,13.571,10.5634,45.6498,-29.5351,22.0546,-1.0022,1.0022,8.0197,25.6006,-19.047,
-57.6422,-50.6247,-26.5656,-70.674,21.5526,1.5033,31.5777,-32.5799,12.5307,13.9978,-1.5033,23.0197,10.6006,-4.047,
-62.1531,-52.1285,-26.0645,-70.1728,21.0515,-1.0022,44.1083,-36.0886,12.0295,17.0416,-5.0121,25.0613,20.0492,1.0022,
-68.669,-57.6417,-23.558,-71.6762,6.5164,-0.50111,37.5929,-32.5799,5.5141,2.0416,-14.5361,10.0613,20.5504,1.5043,
-58.6449,-43.6077,-17.5437,-63.657,12.5307,8.5208,39.5974,-20.5513,12.5307,-0.50111,-1.5043,0.50111,19.5481,11.5284,
-51.6269,-34.5853,-13.5329,-54.6346,13.5338,12.5307,54.5974,-17.5427,24.5602,6.5164,8.5208,-6.5164,32.5799,-3.4716,
-52.1285,-35.0864,-13.0318,-52.1285,10.0241,19.047,57.1401,-5.0121,28.0689,11.0273,5.0121,-8.0197,47.5799,-18.4716,
-42.605,-33.5826,-6.5159,-54.6346,17.5432,28.5705,60.6493,-7.5181,37.5925,6.5159,13.5334,-11.528,49.622,-21.5531,
-49.1209,-39.0963,-14.0345,-55.1357,21.0519,30.0739,50.1241,-18.0443,22.5925,2.0049,11.0278,-2.0049,34.622,-7.017,
-64.1209,-54.0963,-28.0694,-62.1531,6.0519,22.0542,35.1241,-21.0519,7.5925,8.0192,1.0027,8.0192,19.622,-1.0027,
-79.1209,-66.6641,-32.5799,-77.1531,-8.9481,17.5427,33.5831,-32.5799,7.5186,11.5284,-2.5065,9.523,17.5427,2.5065,
-87.2145,-68.1679,-45.1106,-84.2073,-23.9481,26.0645,24.0591,-36.0886,5.0121,14.035,-5.0121,20.0492,6.0153,12.0295,
-95.2342,-72.1778,-50.1231,-89.2194,-38.9481,22.0542,25.0618,-38.0936,3.0071,5.0126,-1.0027,12.03,5.0126,1.0027,
-87.2149,-58.1438,-35.1231,-74.2194,-28.0699,28.0689,40.0618,-34.0842,4.0098,0,3.0067,3.0067,14.034,0,
-74.6838,-43.1438,-20.1231,-59.2194,-18.5459,43.0689,52.6292,-24.5602,8.5208,-0.50111,0.50111,5.5132,16.5405,15,
-70.1724,-35.0859,-5.1231,-49.1204,-22.0537,49.1214,67.6292,-14.034,23.5208,-1.0022,15.5011,0,31.5405,8.0207,
-75.1849,-35.0859,0,-48.1182,-14.034,57.1411,75.1859,-7.0165,38.5208,9.0229,30.0743,0,45.1115,-5.0121,
-89.2199,-50.0859,-15,-55.1357,-29.034,42.1411,60.1859,-22.0165,23.5208,11.0268,15.0743,9.0224,30.1115,-9.0224,
-88.7183,-63.657,-19.5481,-56.639,-44.034,27.1411,45.1859,-37.0165,8.5208,18.5459,0.07435,24.0224,15.1115,3.5087,
-96.2373,-63.1558,-28.0689,-61.1509,-43.1061,29.0712,45.1106,-33.082,9.0219,19.047,-1.0022,33.081,6.0143,1.0022,
-104.2566,-59.1455,-35.0864,-70.1728,-38.094,27.0667,51.1258,-32.0788,17.0416,5.0121,4.0098,18.081,14.035,-4.0098,
-89.721,-44.1455,-20.0864,-55.1728,-23.094,42.0667,60.6493,-17.0788,27.5674,6.5159,18.5454,3.081,26.5651,10.9902,
-81.2002,-31.077,-5.0864,-40.1728,-24.0596,55.1357,68.1674,-5.013,36.0886,4.0098,27.0667,-11.919,39.0963,25.9902,
-81.7013,-33.5826,-9.523,-37.5925,-29.5723,44.6095,63.6565,-11.5284,35.5875,2.5065,20.5504,-2.5065,36.5898,13.5338,
-96.7013,-43.6072,-24.523,-48.6198,-31.5777,32.5799,48.6565,-23.558,20.5875,-2.5065,5.5504,3.5087,21.5898,2.5065,
-95.2346,-46.1137,-13.0327,-50.1236,-22.0547,37.0909,58.1433,-22.0547,16.0394,-1.0022,12.0295,1.0022,16.0394,11.0273,
-84.2073,-42.1034,-8.0192,-47.1155,-11.0268,38.0936,61.1504,-23.0564,4.0103,-2.0049,5.0126,2.0049,7.017,8.0202,
-69.2073,-32.0788,-4.0099,-32.1155,3.0076,45.1115,65.1608,-20.0492,2.0054,0,0,6.0153,12.0295,0,
-66.6641,-34.5853,-0.50111,-32.5799,-3.5087,54.6346,61.652,-11.5284,7.5186,-4.511,0.50111,0.50111,16.5405,11.5284,
-81.6641,-40.0985,-15.5011,-46.1137,-18.5087,54.1334,46.652,-10.0241,5.0121,-3.0076,3.0076,14.0349,7.0175,26.5284,
-93.7304,-46.6144,-30.5011,-55.6363,-32.5804,39.1334,42.6055,-25.0241,3.5092,-1.5038,1.5038,27.5683,4.5114,14.5356,
-95.7358,-44.6095,-30.5755,-59.6471,-26.5656,33.5831,41.6028,-23.558,2.5065,8.5208,-2.5065,26.5656,6.5164,3.5087,
-99.7456,-53.6323,-30.5755,-64.6592,-31.5777,23.558,41.6028,-27.5678,10.5262,12.5307,-0.50111,11.5656,10.5262,2.5065,
-84.7456,-41.1012,-15.5755,-49.6592,-41.1012,31.0771,56.6028,-17.0421,25.5262,22.0542,14.4989,-3.0071,25.5262,3.0071,
-86.7138,-31.5782,-12.5311,-34.6592,-56.1012,46.0771,48.6198,-2.0421,22.5553,13.5334,9.5235,1.5038,21.5531,-2.506,
-88.7188,-36.5898,-9.524,-42.605,-71.1012,61.0771,38.5952,6.5164,20.5504,6.5164,1.5033,-1.5033,20.5504,-1.5033,
-81.2002,-51.1263,-23.0574,-45.111,-86.1012,76.0771,23.5952,-8.4836,6.0148,4.0094,-2.0049,2.0049,5.5504,5.0116,
-77.6914,-43.6077,-22.5553,-30.575,-101.1012,91.0771,9.5235,-9.5235,2.506,19.0094,4.5114,17.0049,-2.506,20.0116,
-84.2073,-33.0815,-7.5553,-35.0869,-116.1012,106.0771,8.0192,1.0027,7.017,34.0094,-5.0126,32.0049,-1.0027,35.0116,
-76.6887,-29.5728,-0.50159,-24.5607,-131.1012,121.0771,1.5038,11.5289,0.50159,39.5979,-12.5311,47.0049,-1.5038,50.0116,
-74.1832,-37.0918,1.0022,-14.0349,-146.1012,136.0771,0,8.0197,0,39.0963,-10.0251,62.0049,-6.0153,65.0116,
-85.21,-27.0667,2.0044,-18.0448,-161.1012,138.3403,-1.0022,11.0273,1.0022,37.0909,-9.0219,74.1827,-3.0076,58.1433,
-96.738,-18.5459,-3.5087,-16.5405,-176.1012,150.8719,-4.511,20.5504,3.5087,26.5656,-5.5132,59.1827,4.511,48.6193,
-95.2346,-30.0743,-3.0076,-16.0394,-191.1012,140.3457,0,17.0416,9.0219,23.0569,-2.0054,44.1827,0,47.116,
-86.2122,-27.0672,-1.0027,-21.0519,-201.4961,125.3457,1.0027,12.0291,9.0224,34.0837,-1.0027,49.1209,-4.0103,47.1155,
-90.2221,-25.0623,-7.0175,-35.0864,-200.4939,110.3457,0,0,8.0197,26.0645,-1.0022,35.0864,5.0121,37.0909,
-90.7232,-24.5597,-3.5083,-23.5575,-193.9775,123.8047,-3.5083,1.5038,1.5038,31.5782,-1.5038,50.0864,5.5137,47.6176,
-90.2221,-23.0569,-1.0022,-10.0251,-183.4518,138.8047,-8.0197,14.034,4.0099,46.5782,-4.0098,65.0864,1.0022,62.6176,
-105.2221,-34.0837,-5.0126,-25.0251,-198.4518,133.3287,-9.0224,11.0268,17.0421,43.1066,-6.0148,80.0864,5.0126,63.1558,
-120.2221,-35.0864,-9.0219,-33.081,-213.4518,131.3238,-13.0318,16.0394,14.0349,54.1334,-3.0076,80.1979,3.0076,64.1585,
-110.7729,-33.5831,-10.5262,-28.5701,-210.0169,127.815,-13.5329,13.5338,12.5307,64.6597,-0.50111,95.1979,0.50111,53.6323,
-95.7729,-38.094,-10.0251,-22.0546,-195.0169,113.279,-8.0197,9.0219,16.0394,54.1334,0,96.2373,0,47.116,
-100.7483,-39.5974,-13.5329,-24.5602,-180.0169,108.768,-7.5186,1.5033,6.5164,40.5996,-0.50111,81.2373,0.50111,51.6269,
-106.262,-33.0815,-5.0126,-31.0771,-195.0169,110.2709,-4.0103,-2.0049,10.0246,34.0837,8.0192,66.2373,2.0049,47.1155,
-95.2342,-26.064,-6.0148,-31.0761,-201.4957,121.2991,-9.0214,10.0246,9.0224,31.0771,6.0148,51.2373,-6.0148,52.1285,
-89.2194,-32.0793,-4.0094,-25.0618,-186.4957,136.2991,1.0027,13.0323,11.0268,31.0771,-1.0027,62.1536,-1.0027,61.1504,
-93.7308,-40.6006,1.5033,-20.5504,-171.4957,130.8217,-0.50111,0.50111,0.50111,28.5701,-8.5208,58.6444,-1.5043,54.6346,
-91.7254,-25.6006,5.5137,-16.54,-170.9207,118.7926,-6.5159,15.5011,-1.5038,25.5629,-4.5105,54.635,1.5038,55.6373,
-91.2248,-36.0891,2.0049,-30.0739,-175.4321,107.2642,-3.0071,10.0246,3.0071,10.5629,-12.03,39.635,1.0027,47.1155,
-78.193,-36.0891,4.0094,-19.0475,-175.4321,116.2861,-5.0125,8.0192,2.0049,7.017,-15.0377,24.635,-2.0049,57.1406,
-68.669,-28.5705,6.5159,-4.0475,-180.9453,105.7609,-9.5235,13.5334,2.506,22.017,-8.5213,39.635,-7.5181,55.6373,
-55.1352,-23.0564,10.0246,-5.0126,-165.9453,110.2718,-3.0071,9.0224,3.0071,18.0443,-10.0246,40.099,-9.0224,47.1164,
-40.1352,-8.0564,14.5356,-0.50159,-150.9453,125.2718,1.5038,11.5289,-8.5213,3.0443,-21.5531,29.5728,-7.5181,62.1164,
-25.1352,-4.5114,17.5432,0.50159,-135.9453,140.2718,1.5038,13.5334,-20.5508,-0.50159,-33.5826,30.575,-18.5454,55.6373,
-10.1352,-6.0143,12.0295,-4.0098,-120.9453,153.3784,-5.0121,9.0229,-34.0832,-8.0197,-48.1182,21.0524,-33.5454,40.6373,
4.8648,4.0098,19.047,-4.0099,-105.9453,168.3784,2.0044,0,-41.1017,-23.0197,-55.1357,6.0524,-42.1039,25.6373,
19.8648,19.0098,30.0739,-6.0148,-90.9453,169.4173,15.0367,-10.0246,-46.1133,-34.0837,-58.1428,-8.9476,-40.099,10.6373,
34.8648,27.5683,26.5651,-5.5137,-75.9453,164.9064,17.5432,-1.5038,-51.6274,-33.5826,-61.6516,-23.9476,-53.6319,1.5038,
49.8648,20.5508,24.5607,-9.5235,-60.9453,160.8965,22.5562,9.5235,-43.6068,-48.5826,-60.6493,-38.9476,-48.6198,-13.4962,
64.8648,28.5705,30.575,-5.5137,-45.9453,171.9229,28.5705,5.5137,-37.5925,-50.6242,-56.6395,-50.6242,-33.6198,-19.5477,
79.6964,36.5902,32.5804,1.5038,-30.9453,173.9283,35.5871,-1.5038,-30.5759,-37.5925,-48.6198,-40.6001,-25.5629,-9.5235,
77.1894,27.0667,32.0788,-4.0098,-15.9453,159.3918,37.0909,4.0098,-21.0524,-23.0569,-37.0918,-25.6001,-26.0645,-7.0175,
62.1894,13.5334,17.0788,-19.0098,-0.9453,144.3918,22.0909,5.5137,-33.5826,-20.5508,-45.6122,-10.6001,-39.5979,-9.5235,
47.1894,18.0443,20.0488,-15.0377,14.0547,137.3376,26.064,-2.0049,-20.0497,-18.0443,-42.1034,1.0027,-25.0618,-1.0027,
48.6203,15.5383,26.5656,-6.5164,29.0547,124.8074,25.5634,-9.523,-19.5481,-28.5701,-40.5996,-13.9973,-17.5427,6.5164,
44.6104,14.5361,23.558,-3.5087,44.0547,119.7953,18.5459,3.5087,-24.5602,-33.5821,-34.5844,-28.9973,-14.5351,-5.5132,
38.5947,17.5432,31.5772,-5.5137,59.0547,107.7653,29.5728,5.5137,-11.5289,-21.5531,-24.5607,-43.9973,-11.5289,-18.5454,
32.0788,22.0547,35.0864,0,74.0547,102.2516,32.0788,-3.0076,-12.0295,-6.5531,-21.0515,-28.9973,-13.0318,-3.5454,
28.0694,17.0421,39.0967,1.0027,89.0547,105.2597,33.0815,-3.0071,-11.0268,-8.0192,-15.0367,-20.0488,-2.0049,-1.0027,
21.0524,8.0197,35.0864,-5.0121,104.0547,102.2516,22.0547,4.0099,-10.0241,-11.0273,-18.0438,-19.047,-4.0099,-10.0241,
6.0524,0,21.0524,-7.0165,89.0547,94.2329,7.0547,0,-16.0394,-9.0219,-28.0689,-14.034,-13.0318,1.0032,
-0.50111,0.50111,28.571,1.5043,75.687,89.721,15.5383,-1.5033,-8.5208,-6.5154,-28.5701,-13.5329,-4.511,4.511,
1.0022,0,28.0689,1.0022,81.1992,84.2068,10.0241,-1.0032,-16.0394,-11.0273,-35.0864,-18.0448,-7.0175,0,
5.0121,2.0044,25.0613,0,83.2046,86.2122,14.035,-5.0121,-12.0295,-12.0295,-29.0712,-27.0667,-5.0121,0,
1.5043,4.511,22.5558,-0.50111,72.6794,95.7362,14.5361,0.50111,-10.5253,-13.5329,-21.5526,-42.0667,-4.511,-6.5154,
-3.0071,8.0202,22.0542,-5.0126,67.1657,106.262,5.0125,7.017,-8.0192,-3.0071,-11.0268,-44.1088,-1.0027,1.0027,
-10.0241,-1.0022,20.0492,-14.034,56.1388,91.262,2.0054,-7.983,1.0022,2.0054,-12.0295,-29.1088,-2.0044,15.0372,
-16.0389,-2.0049,17.0421,-10.0246,49.1219,79.1952,3.0081,-14.0345,-6.0148,2.0049,-23.0564,-14.1088,-7.017,21.0519,
-20.5504,-4.511,18.5459,-14.5351,34.1219,80.6991,9.524,0.50111,-6.5154,-0.50111,-17.5427,-15.5383,1.5043,6.0519,
-24.0601,-13.0327,14.034,-25.0623,19.1219,81.1992,9.0219,-10.0251,4.0098,4.0098,-4.0098,-25.0623,10.0241,-8.9481,
-34.5853,-7.5186,1.5033,-22.5558,16.5405,88.7188,10.5262,-6.5164,12.5307,13.5329,-1.5033,-10.0623,8.5208,-3.5087,
-43.6077,-8.5213,1.5038,-32.5804,24.5607,93.7304,23.5575,-6.5159,17.5432,3.5083,-1.5038,-5.5137,10.5257,-5.5137,
-36.0891,-14.0345,6.0148,-33.0815,27.0662,108.7304,22.0542,-11.0268,2.5432,-5.0126,-2.0049,-9.0224,6.0148,9.4863,
-25.0623,-10.0251,12.0295,-18.0815,23.0569,115.2834,23.0569,-5.0121,0,0,-4.0099,-2.0054,6.0143,24.4863,
-30.0743,-13.0318,13.0318,-21.0515,15.0372,102.2516,28.0689,0,6.0153,0,-12.0295,-6.0143,0,21.0524,
-32.0788,-11.0264,10.0251,-24.0591,30.0372,105.2593,28.0699,1.0032,0,7.0175,-8.0197,0,-1.0022,6.0524,
-27.5683,-7.5191,23.5575,-12.5311,38.5947,107.7653,34.5848,-4.5114,2.506,-2.506,-2.506,-8.5213,7.5181,9.5235,
-27.0667,0,32.0788,-1.0022,30.0743,109.2691,36.0886,0,4.0099,-17.506,-11.0273,-22.0537,-2.0044,17.0426,
-32.5804,0.50159,23.5585,-1.5038,26.5651,110.7729,34.5848,-0.50159,2.506,-20.5508,-8.5213,-20.5508,-7.5181,14.5356,
-46.1137,-14.035,17.0416,-16.0394,11.5651,110.2713,27.0667,-8.0197,2.0044,-10.0251,1.0022,-13.0318,-1.0022,25.0613,
-57.6412,-15.5383,9.524,-29.5723,0.50111,114.7833,19.5481,-2.5056,-0.50111,4.9749,-4.511,1.9682,-1.5033,33.5831,
-54.1339,-15.0377,5.0116,-40.099,10.0246,103.2543,24.0586,-9.0224,-2.0049,2.0049,-16.0399,10.0246,-6.0148,18.5831,
-39.5974,-9.523,12.5316,-26.5647,0.50111,101.7505,23.558,-8.5208,-0.50111,6.5164,-14.5351,25.0246,-4.511,19.5481,
-46.1133,-11.0268,16.0399,-21.0519,-14.4989,107.2642,19.0465,-6.0148,2.0049,17.0421,-15.0367,28.0694,-2.0049,28.0694,
-40.099,-6.0148,23.0574,-22.0542,0.50111,106.262,34.0465,-4.0094,4.0103,2.0421,-20.0488,13.0694,1.0027,15.0377,
-30.0739,2.0049,18.0443,-14.0345,15.5011,100.2467,33.0815,3.0071,-9.0224,-12.9579,-30.0739,-1.9306,-2.0049,12.03,
-36.5902,-2.506,16.54,-14.5356,30.5011,85.7107,34.5848,2.506,-3.5092,-18.5454,-25.5629,-16.9306,8.5203,18.5454,
-44.1093,-16.0394,11.0264,-25.0623,22.0537,75.1849,27.0667,-12.494,-5.013,-3.5454,-25.0623,-1.9306,0,18.0438,
-32.5804,-16.541,15.5378,-17.5432,37.0537,81.7008,22.5553,-13.5334,-12.5311,9.5235,-27.5683,13.0694,-9.5235,24.5607,
-21.0519,-14.0345,21.0519,-10.0246,49.1209,88.2172,26.064,-12.03,-14.0345,9.0224,-31.077,25.0618,-9.0224,29.0716,
-25.5629,-10.5257,10.5257,-15.5378,38.5956,95.7358,16.541,-10.5257,-21.5531,11.5289,-29.5728,40.0618,-16.541,35.588,
-35.5875,-10.5253,4.511,-26.5647,34.5853,89.721,22.5558,-7.5186,-6.5531,9.524,-14.5728,31.5777,-4.511,28.571,
-44.1088,-12.0291,1.0027,-36.0891,21.0519,80.1975,26.064,-7.017,5.0125,-4.0094,-4.0094,16.5777,8.0202,13.571,
-35.0864,-4.0098,6.0153,-25.0613,35.0864,90.2221,25.0623,-4.0098,4.0098,-6.0143,-5.0121,1.5777,10.0251,17.0426,
-20.5508,-3.5083,16.541,-17.5432,50.0864,83.7062,27.5683,-10.5257,1.5038,-1.5038,-9.5235,-7.5181,4.5114,18.5454,
-13.0327,1.0022,7.0165,-14.0349,52.128,84.2068,20.0492,0,-9.0229,0,-20.0492,-3.0076,-2.0054,21.0515,
-10.0246,-2.0049,1.0027,-13.0322,48.1187,88.2172,21.0519,7.017,-6.0148,-1.0027,-16.0399,10.0246,-5.0125,22.0542,
-19.5481,-14.5351,4.511,-25.5624,48.6203,75.687,15.5383,-7.983,-4.511,8.5218,-7.5186,17.5437,-11.5284,10.5262,
-32.5799,-8.5208,3.5087,-27.5678,47.6171,75.686,10.5262,-17.5427,-8.5208,23.5218,-5.5132,30.5755,-3.5087,14.5361,
-34.0842,-10.0251,0,-26.0645,37.0909,75.1849,13.0318,-11.0273,-8.0197,18.0448,-13.0318,43.1061,0,29.5361,
-32.5804,-13.5334,2.506,-26.5651,36.5902,73.6811,4.5114,-2.506,-12.5311,4.5114,-23.5585,45.6122,-13.5334,44.5361,
-30.575,-8.5213,13.5334,-20.5508,26.5651,80.6986,8.5213,-2.506,-0.50159,0.50159,-15.5378,30.6122,-3.5083,29.5361,
-23.0569,0,15.0372,-19.047,18.0448,87.2154,14.0349,-5.0121,0,-14.4984,-7.0165,15.6122,11.0273,19.047,
-27.0667,3.0076,5.0121,-23.0569,29.0721,86.2122,4.0099,0,-15,-22.0537,-16.0394,0.61216,0,29.0721,
-27.0667,0,19.047,-17.0416,33.081,80.197,13.0318,-6.0153,0,-12.0295,-22.0547,-14.035,0,22.0546,
-25.5629,1.5038,21.5531,-6.5159,34.5858,82.704,14.5356,-12.5302,3.5092,-6.5159,-19.5477,-9.5235,-1.5038,18.5464,
-40.5629,-3.0071,6.5531,-14.0345,19.5858,79.1952,9.0224,-5.0126,-5.0126,-1.0027,-11.0268,5.4765,1.0027,17.0421,
-55.5629,-15.0377,-3.0071,-29.0345,4.5858,64.1952,8.0192,-3.0071,5.0126,3.0071,-8.0202,9.0224,15.0367,3.0071,
-65.1603,-9.0219,-6.0153,-33.081,11.0273,69.1706,7.0175,2.0054,11.0273,-6.0153,-13.0318,-2.0054,19.047,13.0318,
-50.1603,-1.0027,-3.0071,-23.0564,26.0273,81.1997,22.0175,-3.0071,5.0126,-16.0399,-14.0345,1.0027,12.03,28.0318,
-35.1603,1.0027,2.0049,-14.0345,41.0273,70.1724,27.0662,-14.0345,-9.9874,-1.0399,-25.0618,16.0027,-2.97,26.064,
-43.1056,-3.0071,4.0103,-17.0421,56.0273,55.1724,14.0345,-20.0488,-22.0542,3.0071,-35.0859,14.0345,-14.0345,13.0322,
-44.6095,-4.511,14.5361,-11.5284,71.0273,46.6149,25.5634,-5.5132,-7.0542,-4.511,-20.5504,2.5065,0.96553,13.5329,
-57.6422,-2.5065,3.5087,-16.5405,84.7089,57.6422,28.5701,-3.5087,2.5065,-8.5208,-12.5307,-7.5186,14.5361,5.5132,
-60.6493,-0.50159,2.506,-31.5405,69.7089,52.6296,26.5651,-13.5334,11.528,-16.541,0.50159,-22.5186,19.5477,-3.5083,
-54.6346,-6.5164,3.5087,-33.5831,77.6914,44.6095,14.5361,-13.5329,5.5132,-31.541,-2.5065,-37.5186,10.5262,2.5065,
-48.6198,0.50111,-0.50111,-21.5535,92.6914,45.6126,21.5526,-7.5186,2.5065,-43.6072,-8.5208,-52.5186,20.5504,0.50111,
-54.133,3.0081,2.0049,-31.0761,77.6914,35.0869,30.0739,-10.0246,13.0322,-29.0716,-2.0049,-61.1504,27.0672,-14.4989,
-57.6417,0.50111,1.5043,-40.5996,62.6914,38.5952,17.5437,-6.5164,11.5284,-14.0716,-0.50111,-46.1504,12.0672,-3.5087,
-55.6368,-1.5033,0.50111,-35.5875,54.6346,46.6149,17.5437,-6.5154,13.5338,-4.511,-0.50111,-31.1504,13.5338,3.5087,
-65.1608,-7.018,-10.0246,-39.0967,49.1209,36.0882,9.0214,-21.0519,8.0192,2.0049,-5.0126,-16.1504,13.0313,-2.0049,
-69.1701,-19.047,-19.047,-46.1128,50.1236,26.0645,1.0032,-29.0712,0,4.0099,-6.0143,-1.1504,10.0251,0,
-54.1701,-18.5459,-4.047,-34.5853,53.6323,34.5853,16.0032,-16.5405,14.5361,-5.5132,5.5141,-16.1504,25.0251,3.5087,
-44.1088,-5.0121,4.0098,-21.0515,53.1312,43.1061,16.0394,-1.5405,12.0295,-12.0295,0,-31.1504,23.0569,-5.0121,
-37.5925,-0.50159,13.5334,-12.5311,64.6592,42.6045,10.5257,0.50159,10.5257,-4.5114,-3.5083,-21.5531,9.5235,-11.528,
-41.1007,-11.0273,9.0229,-17.0416,72.1782,42.1039,3.0076,-14.4984,-1.0022,2.0054,-10.0241,-6.5531,-5.4765,1.0022,
-49.1204,-13.0318,-3.0076,-16.0394,63.1554,49.1214,3.0076,-11.0273,-4.0098,17.0054,-8.0197,8.4469,3.0076,16.0022,
-64.1204,-19.047,-12.0295,-27.0667,48.1554,34.1214,3.0076,-10.0251,3.0076,4.0099,-8.0197,7.0175,9.0219,1.0022,
-63.1554,-10.0246,-5.0126,-22.0542,33.1554,26.064,4.0103,-5.0126,8.0202,-5.0126,-1.0027,1.0027,8.0202,2.0049,
-65.6619,-20.5508,-1.5038,-25.5629,26.5651,27.5674,7.5181,-10.5267,10.5257,-10.5267,3.5083,-4.5114,11.528,1.5038,
-57.6417,-15.5378,6.5159,-18.5454,16.541,36.5902,18.5454,-6.5159,19.5486,-14.5356,10.5257,-19.5114,25.5629,-9.5235,
-59.6466,-6.5164,3.5087,-13.5329,23.558,38.5952,10.5262,-3.5087,16.5405,-28.5701,3.5087,-34.5114,26.5656,-11.5284,
-59.6471,-10.5262,15.5383,-18.5459,30.5755,23.5952,15.5383,-4.511,24.5602,-26.5656,4.511,-49.5114,30.5755,-7.5186,
-62.1527,-13.0322,9.0224,-27.0662,24.0596,16.0399,10.0246,2.0049,15.0377,-11.5656,-2.0049,-34.5114,19.0475,-21.0519,
-58.1433,-11.0273,9.0219,-26.0645,32.0788,19.047,10.0251,2.0054,13.0318,-10.0251,-2.0054,-19.5114,19.047,-17.0416,
-54.1334,-9.0224,9.0224,-25.0618,39.0958,21.0519,10.0246,2.0049,11.0268,-11.0278,-2.0049,-19.0475,20.0488,-12.03,
-50.1236,-7.017,10.0246,-25.0618,47.1164,24.0596,10.0246,2.0049,9.0224,-12.03,-2.0049,-19.0465,20.0497,-8.0202,
-47.1164,-7.018,9.0214,-25.0618,54.133,26.064,10.0246,2.0049,6.0148,-14.0354,-2.0049,-20.0497,19.0465,-4.0103,
-44.1088,-6.0148,8.0202,-25.0618,61.1504,28.0694,9.0224,1.0027,3.0071,-16.0399,-3.0071,-22.0542,18.0443,-1.0027,
-40.0985,-4.0098,8.0197,-24.0591,68.1674,30.0743,9.0219,0,0,-17.0416,-4.0098,-22.0546,18.0448,4.0099,
-25.0985,-0.50111,18.5459,-15.5383,76.6892,34.5853,17.5437,-0.50111,0.50111,-23.558,-2.5056,-22.5558,20.5504,9.524,
-21.5531,2.506,22.5553,-7.5191,90.7227,38.5947,10.5257,-2.506,-5.5137,-29.5728,-6.5159,-22.5562,12.5302,4.5105,
-27.0662,5.0126,27.0672,-7.017,89.2194,32.0793,14.0345,-5.0125,2.0049,-19.0465,-2.0049,-7.5562,16.0399,-7.017,
-42.0662,-1.5038,12.0672,-17.5432,74.2194,27.5683,6.5159,-6.5159,3.5092,-14.5356,-4.5105,1.5038,9.5235,-8.5203,
-55.1361,-8.0202,-2.0049,-19.0475,59.2194,33.0815,6.0148,2.0049,13.0322,-20.0497,2.0049,-13.4962,17.0421,-8.0202,
-55.6368,-14.5356,5.5137,-27.5674,44.2194,18.0815,9.5235,-5.5137,20.5508,-19.5477,6.5159,-28.4962,29.5728,-23.0202,
-57.6422,-4.5114,7.5181,-27.5683,29.2194,6.5159,2.506,-10.5257,16.541,-4.5477,9.5235,-17.5432,27.5674,-17.5432,
-55.6368,-2.506,3.5092,-22.5553,14.2194,14.5356,1.5038,-14.5356,9.5235,-8.5203,3.5092,-23.5575,14.5356,-2.5432,
-40.6368,6.5159,15.5378,-7.5553,29.2194,29.5356,1.5038,-3.5092,-5.4765,-13.5334,-11.4908,-8.5575,5.5137,12.4568,
-25.6368,3.5092,16.541,-1.5038,14.2194,44.5356,-13.4962,1.5038,-17.5432,-14.5356,-26.4908,6.4425,-7.5181,27.4568,
-25.0613,0,12.0295,0,-0.78061,59.5356,-13.0318,10.0251,-2.5432,-11.0273,-22.0537,21.4425,-5.0121,39.0963,
-30.5755,5.5132,2.5065,0.50111,-15.7806,74.5356,-18.5459,8.5208,-3.5087,-0.50111,-13.5329,31.5777,-5.5132,41.6028,
-22.0542,5.0125,10.0246,-3.0071,-30.0739,78.193,-15.0367,1.0027,-3.0071,11.0268,-7.017,46.5777,-1.0027,46.1133,
-23.0564,-4.0094,11.0268,-12.0291,-45.0739,80.1975,-10.0246,6.0148,2.0049,16.0399,-10.0246,58.1438,-2.0049,40.099,
-28.5705,-3.5092,1.5038,-13.5334,-46.6153,90.7227,-6.5159,5.5137,2.506,29.5728,-9.5235,56.6395,-1.5038,46.6144,
-27.0672,-6.0148,4.0094,-14.0345,-41.1012,87.2149,-2.0049,-4.0103,5.0126,30.0739,-5.0126,59.146,2.0049,57.1406,
-21.5526,-5.5132,4.511,-6.5154,-33.5821,90.7232,-3.5087,10.9897,-0.50111,15.5383,-6.5154,52.6301,0.50111,58.6444,
-31.5772,-2.506,-1.5038,-3.5083,-44.6099,92.7281,1.5038,15.5388,4.5114,0.53829,-2.506,37.6301,2.506,43.6444,
-39.0967,-1.0027,-4.0103,-9.0224,-52.1285,89.2194,6.0148,1.0027,10.0246,-14.4617,2.0049,22.6301,7.017,29.0716,
-39.5979,1.5038,-1.5038,-10.5267,-43.6077,91.7259,6.5159,4.5105,6.5159,-9.5235,-4.5114,7.6301,10.5257,28.5696,
-45.6117,-11.5284,-3.5087,-17.5427,-57.6417,87.7165,8.5208,5.5141,6.5164,4.511,-14.5351,-3.5087,3.5087,19.5481,
-48.6193,-13.5329,-18.5087,-21.5526,-59.6466,93.7308,3.5087,6.5164,5.5141,19.511,-9.523,11.4913,-3.5087,33.5831,
-55.1361,-9.0224,-27.0672,-32.0793,-58.1438,97.2391,2.0049,3.0071,-3.0081,34.511,-2.0049,26.4913,4.0094,45.111,
-49.1209,-2.0049,-12.0672,-33.0815,-51.1253,105.2597,6.0148,7.017,-12.0291,45.111,-3.0071,41.4913,2.0049,49.1209,
-39.0958,1.0027,-1.0027,-23.0564,-39.0958,111.274,2.0049,14.0345,-17.0421,45.111,-6.0148,56.4913,-11.0268,63.1558,
-39.5979,-6.5159,-4.5114,-22.5553,-40.6001,106.7631,11.528,11.528,-5.5137,35.5871,-2.506,71.4913,2.506,56.6395,
-54.5979,-7.018,-16.0399,-31.0771,-48.1187,108.2664,8.0192,6.0148,-11.0278,20.5871,-6.0148,56.4913,10.0246,41.6395,
-52.1285,-4.0103,-17.0421,-30.0748,-47.1164,112.2763,2.0049,2.0049,-9.0224,10.0246,-2.0049,41.4913,10.0246,38.0936,
-37.1285,0.50111,-9.524,-23.558,-36.5907,108.768,4.511,-1.5043,-6.5164,10.5253,-0.50111,48.6193,2.5056,36.5898,
-23.0569,4.0098,-7.0175,-21.0524,-26.0645,110.2713,6.0143,13.0318,-10.0251,14.034,-6.0153,60.1477,-4.0098,39.0963,
-20.0492,-5.0121,-1.0022,-22.0546,-29.0721,109.2691,12.0295,22.0547,-3.0076,9.0219,-2.0054,55.1357,1.0022,49.1204,
-17.0416,0,0,-18.0438,-35.0864,104.257,4.0099,12.0295,-6.0143,9.0219,-3.0076,59.1455,-4.0098,56.1388,
-25.0618,12.03,-2.0049,-17.0421,-40.099,94.2324,2.0049,5.0126,-3.0071,10.0246,-3.0071,55.1361,-4.0094,43.1066,
-40.0618,0,-10.0251,-27.0667,-55.099,80.197,-1.0032,0,5.0121,7.0165,0,40.1361,3.0067,28.1066,
-46.1137,-5.0121,-15.0372,-22.0547,-67.1657,88.2167,-7.0175,6.0143,0,19.047,0,44.1083,10.0241,29.0712,
-41.1007,-8.0197,-7.0175,-23.0569,-70.1728,85.21,1.0022,5.0121,-1.0022,18.0448,-11.0273,54.1334,7.0175,33.082,
-28.571,-5.5141,-0.50111,-23.558,-56.64,78.6937,0.50111,5.5132,-2.5065,19.5481,-12.5307,69.1334,1.5033,43.6072,
-25.5629,-1.5038,-4.5105,-24.5607,-56.6395,83.7062,-8.5203,5.5137,-2.506,28.5705,1.5038,80.6986,4.5114,51.6274,
-33.0815,-13.0322,-9.0224,-34.0837,-65.1603,79.1952,-16.0389,-1.0027,1.0027,20.0497,2.0049,65.6986,3.0071,48.1187,
-26.5651,-6.5159,-8.5203,-29.5728,-50.1603,77.6919,-12.5302,7.5191,1.5038,17.5432,-1.5038,58.6449,6.5159,51.6274,
-28.5701,-2.5056,-6.5154,-32.5799,-35.1603,65.6619,-0.50111,7.5186,-1.5033,10.5262,0.50111,50.6247,18.5459,36.6274,
-31.5782,-4.5114,-4.5114,-34.5858,-43.6077,75.6865,-1.5038,9.5235,-2.506,5.5137,1.5038,37.5925,19.5477,32.5804,
-30.0743,-3.0076,-6.0143,-28.0689,-41.1007,89.2199,-9.0219,13.0318,4.0098,3.0076,-3.0076,41.1017,8.0197,47.5804,
-28.5705,-4.5114,-6.5159,-27.5683,-41.6023,80.6986,-9.5235,8.5213,6.5159,2.506,-2.506,53.6319,3.5083,57.6417,
-28.0689,1.0022,-10.0241,-29.0712,-33.081,90.2221,-12.0295,21.0515,-1.0022,12.0295,-1.0022,63.1554,3.0076,68.1684,
-40.099,-12.0291,-14.0345,-43.1056,-46.1133,80.1975,-11.0268,10.0246,3.0071,8.0202,-3.0071,48.1554,4.0103,53.1684,
-45.111,-11.0273,-11.0273,-44.1083,-61.1133,68.1684,-7.0175,-4.0098,13.0327,17.0426,4.0098,49.1214,16.0394,38.1684,
-45.1115,-1.0022,-14.0349,-33.082,-71.1755,83.1684,-15.0372,10.0241,1.0022,30.0734,-2.0054,64.1214,11.0273,41.1007,
-37.5929,-0.50111,-10.5262,-27.5678,-62.6547,98.1684,-16.5405,21.5526,0.50111,20.5504,-8.5208,65.6619,0.50111,56.1007,
-30.0739,-2.0049,-12.03,-27.0672,-77.6547,113.1684,-27.0672,26.064,4.0094,18.0443,-10.0246,79.1952,2.0049,71.1007,
-29.5728,-5.5137,-8.5213,-26.5651,-92.6547,128.1684,-28.5705,23.5585,5.5137,29.5728,-6.5159,94.1952,6.5159,84.7084,
-29.5728,1.5038,1.5038,-24.5597,-96.738,137.8397,-25.5629,15.5388,-1.5038,25.5629,-12.5302,97.7412,-8.4841,79.6964,
-26.064,7.017,5.0126,-18.0443,-81.738,134.3309,-24.0596,24.0596,-5.0126,24.0596,-15.0367,87.2149,-14.0345,78.1921,
-28.0689,-7.983,1.0022,-28.0689,-96.738,132.326,-21.0515,18.0448,2.0054,22.0547,-13.0318,77.1903,-1.0022,67.1652,
-28.0689,1.0022,-1.0022,-29.0712,-105.2588,131.3238,-26.0635,17.0426,1.0022,13.0327,-11.0273,66.163,-1.0022,55.1357,
-32.5799,9.523,-0.50111,-25.5634,-96.738,116.3238,-25.5634,20.5504,3.5087,0.50111,-5.5132,51.163,-2.5065,46.6149,
-38.0931,2.0054,-5.0121,-29.0712,-109.2686,117.2888,-27.0667,20.0502,4.0099,0,-9.0219,44.1093,0,59.1465,
-30.0743,13.0318,-4.0098,-24.0591,-96.2369,132.2888,-22.0546,27.0667,-3.0076,15,-11.0273,59.1093,3.0076,74.1465,
-28.0689,16.0394,0,-26.0635,-81.2369,137.3381,-22.0537,13.0327,-10.0241,25.0623,-14.034,74.1093,0,76.1881,
-26.0645,16.0394,0,-21.0524,-78.193,127.313,-26.0645,17.0416,-6.0153,34.0832,-3.0076,89.1093,0,77.1894,
-38.0931,1.0394,-13.0318,-36.0524,-93.193,118.292,-31.0766,20.0502,0,27.0667,1.0032,75.1859,-1.0022,77.1903,
-41.6028,-1.5043,-14.5361,-42.605,-108.193,111.7747,-26.5656,19.5481,6.5154,28.5701,-0.50111,75.686,0.50111,74.6838,
-35.5875,13.4957,-15.5383,-30.5755,-93.193,113.7801,-28.571,22.5558,0.50111,43.5701,-1.5043,90.686,-0.50111,88.7178,
-26.5656,15.5383,-5.5132,-28.5701,-78.193,117.7899,-21.5526,21.5535,-1.5033,41.6028,-5.5132,105.686,1.5033,99.7461,
-20.5499,14.5365,5.5137,-24.5597,-66.6636,132.7899,-21.5531,29.5728,-7.5181,31.5782,-7.5181,117.7904,-5.5137,100.7488,
-26.0635,8.0197,4.0099,-25.0613,-70.1728,131.3238,-34.0842,27.0667,-6.0143,23.0569,-4.0099,105.2593,-10.0241,85.7488,
-31.0771,1.0027,-1.0027,-39.0968,-82.2024,116.3238,-35.0869,13.0322,5.0125,14.0345,-1.0027,90.2593,-3.0071,70.7488,
-29.0716,8.0192,-8.0202,-38.0936,-77.1903,108.2664,-32.0793,16.0399,1.0027,12.0291,-1.0027,79.1952,-3.0071,84.2073,
-31.0761,-2.0049,-11.0268,-32.0793,-75.1849,109.2696,-28.0685,12.03,2.0049,7.017,2.0049,64.1952,-6.0148,71.1755,
-31.0766,-1.0022,-6.0143,-28.0689,-72.1773,105.2593,-26.0635,16.0394,6.0153,5.013,0,49.1952,0,62.1531,
-26.5651,11.5289,-2.506,-28.5705,-73.6811,104.7586,-26.5651,21.5531,-1.5038,1.5038,-8.5203,40.6001,1.5038,69.6722,
-11.5651,15.5388,12.494,-13.5705,-58.6811,108.7675,-19.5477,16.541,-5.5137,5.5137,-7.5181,48.6198,-6.5159,76.6887,
-11.0268,9.0224,6.0148,-8.0202,-46.1133,106.262,-28.0694,15.0367,-16.0399,8.0192,-6.0148,59.146,-10.0246,77.1898,
-24.5602,-1.5033,-8.5208,-23.0202,-61.1133,94.7331,-26.5656,15.5383,-1.5033,2.5065,1.5033,49.6225,3.5087,67.6663,
-23.558,0.50111,-12.5307,-35.5875,-76.1133,96.7385,-24.5602,14.5361,6.5164,6.5164,-0.50111,42.605,-5.5132,69.6717,
-14.5356,11.528,-3.5083,-20.5875,-61.1133,109.7707,-27.5683,20.5508,0.50159,17.5432,-0.50159,54.6341,-11.528,77.691,
-17.5437,3.5087,4.511,-25.5634,-54.6346,98.7429,-30.5755,12.5307,-5.5141,4.511,-3.5087,50.6247,-7.5186,62.691,
-13.0318,8.0197,3.0076,-29.0712,-60.1477,99.245,-33.081,16.0394,-8.0197,6.0153,-7.0175,51.1258,-3.0076,57.1411,
-7.017,17.0421,1.0027,-28.0694,-45.1477,105.2588,-28.0694,18.0443,-4.0103,10.0246,-7.017,57.1406,-1.0027,72.1411,
-0.50111,25.5634,4.511,-24.5602,-30.1477,110.7725,-27.5678,21.5535,-0.50111,0.50111,-2.5065,52.6301,-3.5087,76.6892,
0,25.0623,-3.0076,-25.0613,-15.1477,113.279,-35.0864,17.0426,0,-11.0273,-10.0241,37.6301,-11.0273,61.6892,
12.5307,21.5535,-3.5087,-26.5656,-0.14775,116.7877,-29.5723,13.5338,-5.5132,-17.5427,-17.5427,22.6301,-7.5186,46.6892,
27.5307,17.5437,-3.5087,-26.5656,14.8523,130.8227,-38.5952,20.5504,-20.5132,-21.5526,-32.5427,7.6301,-22.5186,35.5875,
42.5307,24.5602,7.5186,-20.5513,29.8523,145.8227,-30.5755,23.558,-35.5132,-26.5656,-45.6126,-7.3699,-37.5186,25.5624,
57.5307,36.0891,18.0443,-18.0443,44.8523,160.8227,-21.0519,20.0497,-38.0936,-37.0913,-51.1253,-22.3699,-32.0793,22.0542,
72.5307,50.6252,13.5334,-15.5378,59.8523,175.8227,-26.5651,21.5531,-40.6001,-36.5902,-48.6198,-13.5334,-30.575,25.5629,
87.5307,49.1214,15.0372,-20.0492,74.8523,175.4321,-25.0613,18.0448,-36.0886,-35.0864,-43.1061,-13.0318,-40.0985,13.0318,
86.7138,46.6153,19.5486,-18.5454,89.8523,185.9578,-23.5575,23.5585,-39.5969,-32.5804,-44.6099,-13.5334,-44.6099,13.5334,
75.6865,42.6055,5.5137,-19.5477,104.8523,189.9677,-30.575,18.5464,-48.6198,-38.5947,-51.6265,-5.5137,-39.5969,28.5334,
70.6744,47.6176,0.50159,-19.5477,119.8523,174.9677,-32.5804,12.5311,-43.6077,-44.6099,-49.622,-0.50159,-33.5826,43.5334,
72.6789,53.6319,13.5334,-13.5334,123.8047,159.9677,-23.5585,26.5651,-32.5804,-35.588,-38.5947,-13.5334,-23.5585,42.6045,
68.1679,38.6319,19.0465,-14.0345,112.2763,147.3627,-22.0542,23.0564,-31.077,-28.0694,-36.0891,-28.5334,-21.0519,27.6045,
54.6341,37.5925,14.5356,-14.5356,97.2763,132.8266,-31.5782,16.541,-30.575,-17.5432,-33.5826,-26.5651,-28.5705,23.5575,
40.0985,42.1039,13.0318,-28.0689,82.2763,117.8266,-28.0689,16.0394,-16.0394,-25.0613,-18.5826,-18.0448,-13.5705,38.5575,
25.0985,27.1039,2.5065,-43.0689,67.2763,102.8266,-31.5777,4.511,-12.5307,-40.0613,-13.5329,-33.0448,-2.5065,23.5575,
31.5777,28.571,3.5087,-28.0689,52.2763,104.7582,-26.5656,14.5361,-16.5405,-25.0613,-7.5186,-18.0448,-3.5087,18.5459,
27.5678,25.5624,0.50111,-34.5853,37.2763,97.7407,-33.5831,-0.46394,-31.5405,-21.5535,-22.5186,-3.0448,-18.5087,20.5504,
32.0793,17.0421,3.0071,-31.0761,28.0694,100.2467,-42.1034,-3.0071,-41.1012,-29.0716,-37.5186,11.9552,-33.5087,35.5504,
31.5777,5.5132,0.50111,-16.0761,23.558,101.7505,-43.6072,-0.50111,-36.5907,-26.5656,-42.605,22.5558,-35.5875,50.5504,
31.5782,17.5432,8.5213,-11.528,8.558,90.7237,-32.5804,1.5038,-21.5907,-24.5607,-27.605,7.5558,-20.5875,35.5504,
31.0771,32.5432,11.0268,-14.0345,-5.0125,93.2292,-30.0739,16.5038,-6.5907,-22.0542,-12.605,-7.4442,-5.5875,34.0837,
28.5705,23.5585,8.5213,-21.5531,-15.5378,84.7084,-26.5651,21.5531,0.50159,-28.5705,-6.5159,-18.5454,-0.50159,41.6023,
31.5782,19.5486,11.5289,-17.5432,-15.5378,81.7018,-24.5597,16.541,-9.5235,-14.5356,-11.528,-3.5454,-6.5159,45.6122,
20.0488,26.064,2.0049,-14.0345,-10.0246,78.1921,-36.0891,12.0291,-18.0443,-2.0049,-14.0345,11.4546,-11.0278,41.1012,
14.5356,26.5651,1.5038,-13.5334,-7.5181,76.6887,-26.5651,16.541,-3.0443,-4.5114,-6.5159,18.5454,-1.5038,49.622,
12.5307,22.5558,-1.5033,-20.5504,-21.5535,82.7035,-24.5602,24.5602,1.5033,-9.523,-2.5065,3.5454,3.5087,53.6323,
9.523,14.5361,-3.5087,-29.5732,-33.5831,73.6816,-30.5755,9.5602,0.50111,-8.5208,-0.50111,-6.5164,4.511,38.6323,
4.5114,11.5289,-10.5257,-32.5794,-20.5499,64.6592,-34.5848,-5.4398,-5.5137,6.4792,1.5038,8.4836,-1.5038,36.5902,
-10.4886,12.5307,-20.5504,-38.5952,-18.5459,72.6794,-36.5898,9.5602,-6.5164,18.5459,4.511,23.4836,-4.511,50.6247,
-19.047,8.0197,-18.0448,-48.1182,-33.5459,69.1706,-39.0963,4.0098,-3.0076,3.5459,8.0197,38.4836,-9.0219,59.1455,
-4.047,21.5535,-3.0448,-33.1182,-18.5459,75.686,-33.5831,6.5164,-6.5164,0.50111,8.5208,43.6072,-11.5284,69.6717,
10.953,24.5607,4.5114,-18.1182,-22.5553,80.6986,-30.575,4.5114,-16.541,-14.4989,-4.5114,28.6072,-15.5378,54.6717,
25.953,31.077,17.0421,-3.1182,-14.0345,95.6986,-26.064,11.0278,-9.0224,-12.0291,-5.0126,13.6072,-11.0268,42.1034,
10.953,26.065,2.0421,-17.0411,-15.0367,99.2445,-31.0761,8.0202,-12.0291,-2.0049,-8.0192,12.03,-16.0389,55.1361,
-4.047,19.5481,-1.5033,-30.5755,-30.0367,84.2445,-16.5405,14.5361,2.5065,-3.5087,5.5132,0.50111,-1.0389,40.1361,
-18.5459,15.5383,-4.511,-29.5732,-45.0367,79.6959,-21.5535,13.5329,6.5164,-16.5405,11.5284,-13.5329,4.511,27.5678,
-16.5405,15.5383,-5.5132,-27.5678,-56.639,84.7089,-17.5427,7.5186,11.5284,-7.5186,14.5361,-3.5087,3.5087,42.5678,
-19.047,15.0372,-3.0076,-37.0918,-50.1236,77.1894,-11.0273,0,8.0197,4.0098,7.0165,-6.0153,0,46.1128,
-17.5432,19.5477,-1.5038,-38.5947,-50.6242,80.6986,-12.5311,-3.5083,1.5038,6.5159,5.5137,-0.50159,0.50159,46.6144,
-23.5585,9.5235,-12.5311,-50.6252,-64.6597,74.6833,-8.5213,-6.5159,2.506,2.506,2.506,1.5038,-1.5038,38.5947,
-26.064,14.0345,-22.0542,-52.1285,-55.1352,76.1876,-5.0126,6.0148,-3.0071,8.0202,3.0071,3.0071,-3.0071,28.0694,
-28.5705,16.541,-17.5432,-53.6319,-52.6296,72.6789,-2.506,1.5038,2.506,-1.5038,11.5289,-11.9929,5.5137,23.5585,
-20.5513,20.5504,-3.5087,-43.6072,-55.6373,76.6883,3.5087,-3.5087,17.506,-3.5087,20.5504,-24.5612,17.5427,38.5585,
-17.5427,19.5481,-8.5208,-32.5799,-52.6292,78.6937,-6.5164,-0.50111,7.5186,0.50111,9.523,-9.5612,2.5427,53.5585,
-14.0345,14.0345,1.0027,-28.0685,-42.1034,73.18,-3.0071,3.0071,-1.0027,4.0103,-2.0049,5.4388,-8.0192,40.099,
-15.5383,12.5307,0.50111,-36.5898,-39.5974,69.6717,-1.5033,4.511,-6.5164,8.5208,-0.50111,16.5405,-9.523,42.605,
-18.0448,8.0197,-14.4989,-49.1214,-44.1083,64.1576,-5.0121,1.0022,-3.0076,6.0143,9.0219,10.0241,-1.0022,47.116,
-23.558,2.5056,-18.5459,-61.652,-45.6126,51.6269,-8.5208,-3.5087,5.5132,1.5033,9.523,-0.50111,0.50111,39.5974,
-34.0842,1.0022,-20.0492,-62.1531,-47.116,57.1411,-12.0295,5.0121,-1.0022,5.0121,4.0098,1.0022,-8.0197,46.1137,
-31.0771,-3.0071,-16.0399,-51.1263,-52.1285,68.1679,-4.0103,2.0049,5.0125,9.0224,15.0367,8.0192,-2.0049,51.1263,
-23.0569,4.0098,-16.0394,-41.1017,-55.1357,72.1773,-9.0229,-7.0175,5.0121,14.034,16.0394,19.047,-4.0098,45.1106,
-21.0519,11.0268,-17.0421,-34.0837,-50.1231,72.1778,-12.03,-2.0049,1.0027,25.0618,5.0126,19.0465,-1.0027,40.099,
-15.0362,0,-6.0143,-32.0788,-50.1226,68.1684,-5.0121,-2.0044,5.013,28.0699,0,15.0372,2.0054,42.1039,
-10.5257,5.5137,-0.50159,-29.5728,-50.6242,73.6811,-8.5213,7.5181,0.50159,32.5804,-2.506,29.5728,-7.5181,55.6373,
-13.5329,18.5459,-5.5132,-29.5723,-49.6215,76.6892,-4.511,15.5383,-0.50111,23.558,0.50111,38.5952,-4.511,53.6323,
-7.5191,18.5454,-8.5213,-25.5629,-41.6023,77.691,-4.5114,12.5302,-4.5114,9.5235,1.5038,30.575,-1.5038,50.6242,
-3.5087,12.5307,-5.5132,-20.5504,-41.6018,78.6937,-9.523,16.5405,-0.50111,19.5481,0.50111,22.5558,-5.5132,52.6301,
-9.5235,5.5137,-4.5114,-30.575,-50.6242,74.6843,-8.5213,11.5289,1.5038,20.5508,-1.5038,18.5454,-5.5137,49.622,
-5.0126,11.0268,-10.0246,-26.064,-38.0936,73.18,-11.0268,13.0322,-7.017,8.0192,3.0071,24.0596,-3.0071,58.1428,
1.5038,14.5356,-10.5257,-26.5651,-41.6023,58.18,-10.5257,4.5114,-1.5038,-3.5083,4.5114,13.5334,-6.5159,49.622,
2.506,22.5562,-6.5159,-30.575,-32.5804,53.6328,-8.5203,1.5038,-1.5038,5.5137,-2.506,13.5334,-11.528,54.635,
0.50159,24.5607,-1.5038,-18.5454,-17.5804,68.6328,-10.5257,14.5356,-9.5235,19.5486,-0.50159,26.5651,-7.5181,66.6646,
0.50111,13.5338,-0.50111,-18.5459,-8.5208,71.6762,-12.5307,8.5208,-3.5087,11.5284,-1.5033,18.5459,-8.5208,51.6646,
-2.0049,23.0564,1.0027,-24.0596,-1.0027,68.1679,-15.0367,9.0224,-3.0071,6.0148,-4.0103,19.0465,-12.03,55.1361,
-12.03,19.0465,1.0027,-28.0694,-7.017,77.1898,-12.03,12.03,-11.0268,4.0094,-1.0027,9.0224,-8.0202,68.1679,
-18.0443,13.0322,-1.0027,-21.0519,-22.017,80.1975,-8.0202,16.0389,-2.0049,7.017,10.0246,-1.0027,1.0027,60.1482,
-33.0443,10.5257,-16.0027,-32.5804,-37.017,65.1975,-19.5486,2.506,5.5137,2.506,10.5257,-5.5137,-2.506,45.1482,
-38.0936,6.0148,-13.0322,-41.1012,-43.1066,50.1975,-20.0497,-1.0027,11.0268,1.0027,19.0465,-8.0202,1.0027,46.1133,
-27.5678,7.5186,-10.5262,-33.5831,-37.5929,53.6323,-20.5504,7.5186,3.5087,3.5087,17.5437,-3.5087,-5.5132,53.6323,
-24.0591,13.0318,-14.0349,-31.0766,-26.0645,68.1674,-9.0219,0,6.0143,0,10.0241,3.0076,-9.0219,51.1258,
-18.0443,19.0465,-7.017,-25.0618,-13.0323,74.1822,-3.0071,-1.0027,9.0224,1.0027,14.0345,14.0345,-10.0246,42.1034,
-7.0175,15.0372,-4.0098,-14.035,-8.0197,65.1598,-18.0071,8.0197,-5.9776,4.0098,6.0143,15.0372,-25.0246,44.1083,
1.5043,7.5186,4.511,-15.5383,-6.5164,58.6444,-15.5383,-0.50111,-6.5164,0.50111,-7.5186,7.5186,-21.5526,53.6323,
-2.506,13.5334,6.5159,-18.5454,-1.5038,68.669,-6.5159,2.506,-3.5092,1.5038,-5.5137,11.528,-9.5235,49.622,
-11.5289,17.5432,3.5083,-19.5486,-10.5257,56.6395,-4.5114,11.528,-2.506,-1.5038,5.5137,1.5038,-9.5235,39.5969,
-12.0291,13.0322,6.0148,-25.0618,-14.0345,42.1034,-3.0071,7.017,3.0071,-2.0049,2.0049,-13.4962,-11.0268,42.1034,
-5.0126,15.0367,5.0126,-22.0542,-2.0049,57.1034,-8.0202,11.0268,2.0049,5.0126,-8.0202,-15.0367,-10.0246,48.1187,
1.0027,14.0345,11.0278,-19.0465,2.0049,69.1701,-3.0071,7.018,-4.0094,-1.0027,-5.0126,-13.0323,-10.0246,41.1012,
2.0049,14.0345,10.0246,-20.0497,16.0389,69.1701,-2.0049,3.0071,-18.0443,-13.0322,-6.0148,-23.0574,-12.03,39.0958,
13.5338,24.5612,8.5208,-11.5284,1.0389,74.6838,-0.50111,15.5383,-5.5132,-4.511,-4.511,-13.5329,-2.5056,48.6203,
-1.4662,11.5284,0.50111,-22.5558,-13.9611,59.6838,-15.5011,4.511,-0.50111,10.489,-3.5087,1.4671,-12.5307,42.605,
-16.4662,12.03,1.0027,-24.0586,-27.0662,46.1133,-14.0345,-1.0027,-2.0049,25.489,9.0224,16.4671,-12.0291,48.1187,
-24.0591,6.0143,-7.0175,-33.082,-12.0662,32.0788,-7.0175,-16.0027,0,10.489,0,1.4671,-4.0098,33.1187,
-9.0591,14.5361,-4.511,-28.5701,2.9338,20.5513,-3.5087,-10.5253,6.5164,-3.5087,1.5043,-13.5329,0.50111,27.5678,
0.50111,5.5132,-5.5141,-35.5875,17.9338,7.5186,-0.50111,-12.5307,1.5033,-6.5164,8.5208,-28.5329,-0.50111,12.5678,
0.50111,2.5065,-0.50111,-43.6072,32.9338,-0.50111,13.5338,-20.5504,7.5186,-17.5427,16.5405,-43.5329,6.5164,-2.4322,
-3.0076,7.0175,-15.5011,-52.128,47.9338,-8.0197,4.0098,-12.0295,3.0076,-21.0515,15.0372,-58.1433,3.0076,8.0197,
-7.5191,4.5105,-23.5585,-58.6449,62.9338,-9.5235,2.506,-6.5159,10.5257,-6.0515,23.5575,-43.1433,8.5203,13.5334,
-0.50111,4.511,-8.5585,-45.6117,77.9338,5.4765,0.50111,-16.5405,-0.50111,7.5186,9.524,-28.1433,-2.5056,5.5141,
8.5208,16.5405,6.4415,-30.6117,92.9338,14.5361,-1.5033,-15.5383,-15.5011,1.5033,-5.476,-13.1433,-12.5307,13.5338,
9.0229,18.0448,8.0197,-31.0766,82.2024,-0.46394,6.0153,-11.0264,-3.0067,-10.0241,0,-24.0591,0,14.035,
11.5284,16.5415,-0.50111,-36.5898,80.6991,-0.50111,0.50111,-8.5208,3.5087,-6.5154,8.5208,-27.5678,-0.50111,15.5383,
20.0492,13.0327,8.0197,-36.0886,78.1925,8.0197,0,-14.034,0,-15.0372,0,-42.5678,-7.0175,15.0372,
23.558,17.5437,17.5437,-33.5831,71.6762,-1.5033,7.5186,-15.5383,-0.50111,-25.5634,-3.5087,-57.5678,0.50111,9.523,
8.558,10.5262,8.5208,-42.605,65.6619,-16.5033,-0.50111,-19.5481,2.5065,-15.5383,5.5132,-53.6323,0.50111,-3.5087,
-1.5033,-0.50111,7.5186,-47.6171,54.6346,-15.5383,0.50111,-18.545,17.5065,-0.53829,20.5132,-38.6323,6.5164,-5.5132,
-2.506,1.5038,-7.4814,-45.6126,39.6346,-13.5334,-1.5038,-15.5388,29.5728,14.4617,31.5772,-26.5651,20.5508,2.506,
-1.5038,2.506,-19.5486,-48.6198,24.6346,-26.5651,-2.506,-18.5454,23.5575,3.5083,33.5826,-33.5826,26.5651,1.5038,
7.5186,-0.50111,-6.5164,-45.6126,29.5723,-18.5459,0.50111,-10.5262,15.5383,-1.5043,27.5678,-28.571,17.5427,1.5033,
0,-4.0098,-4.0098,-42.1039,44.1083,-6.0153,0,0,4.0099,-11.0273,12.5678,-33.082,10.0241,0,
1.0022,-1.0022,-2.0044,-39.0963,39.0963,-8.0197,8.0197,-8.0197,12.0295,-19.047,8.0197,-38.094,12.0295,1.0022,
12.5311,7.5181,-4.5114,-37.5925,47.6176,1.5038,-1.5038,-15.5378,3.5083,-7.5181,7.5181,-23.094,-2.9705,12.5311,
16.541,5.5137,-2.506,-35.5871,62.6176,12.5311,-4.5105,-10.5257,-5.5137,2.506,12.5311,-12.5302,-8.5203,20.5508,
10.0246,1.0027,1.0027,-36.0891,77.1898,6.0148,-1.0027,-17.0421,-11.0268,-6.0148,10.0246,-17.0421,-6.0148,20.0497,
13.5329,10.5253,0.50111,-21.5535,62.1898,16.5405,-0.50111,-9.524,-9.524,-2.5065,5.5132,-10.5262,-4.511,26.5656,
19.047,6.0143,-2.0054,-27.0667,47.1898,15.0372,-1.0032,-12.0295,0,-8.0197,2.0044,-23.0569,0,13.0318,
16.5415,8.5208,-8.5208,-33.5821,43.6072,0.50111,-7.5186,-9.523,-0.50111,-4.511,1.5043,-26.5656,0.50111,18.5459,
6.0143,8.0197,-14.035,-35.0864,40.0985,-8.0197,-10.0251,-9.0229,0,1.0022,2.0044,-26.0645,0,25.0613,
1.5038,2.506,-10.5257,-43.6077,26.5651,-1.5038,-6.5159,-14.5356,3.5083,-6.5159,1.5038,-36.5902,1.5038,10.0613,
3.5083,7.5181,-14.5356,-45.6122,23.5575,5.5137,-9.5235,-5.5137,6.5159,-5.5137,0.50159,-33.5826,8.5213,-0.50159,
10.5257,5.5137,-17.5432,-49.622,23.5575,-5.5137,-5.5137,-4.5114,15.5378,-2.506,8.5213,-32.5804,14.5356,2.506,
11.5289,1.5038,-15.5378,-47.6166,30.5759,-6.5159,-5.5137,-5.5137,10.5257,-1.5038,14.5356,-27.5674,3.5092,8.5213,
9.0229,0,-8.0197,-36.0886,38.094,-1.0022,-1.0022,-4.0099,8.0197,3.0076,14.0349,-12.5674,0,20.0492,
8.5213,-0.50159,-2.506,-39.5979,29.5728,-10.5257,2.506,-11.528,8.5213,-6.5159,4.5114,-15.5378,0.50159,7.5181,
13.0313,12.0291,-4.0103,-46.1142,30.0739,-10.0246,2.0049,-6.0148,8.0192,-17.0421,5.0116,-27.0672,6.0148,-2.0049,
12.0291,2.0049,-8.0202,-47.1164,23.0564,-11.0278,-2.0049,-8.0202,10.0246,-20.0497,8.0192,-38.0945,16.0389,2.0049,
25.5624,-2.5065,0.50111,-32.1164,36.5898,-0.50111,-4.511,-7.5186,3.5087,-5.0497,9.523,-23.0945,8.5208,17.0049,
24.0601,1.0032,0,-36.0886,44.1093,8.0197,-6.0143,-11.0264,0,-1.0022,11.0273,-8.0945,-6.4792,23.0569,
9.0601,3.0071,-8.0202,-47.1164,29.1093,8.0192,-4.0103,-12.03,11.0268,-5.0126,11.0268,-10.0246,-3.0071,9.0224,
0,0,-20.0492,-36.0886,17.0416,6.0143,-12.0295,-9.0219,-2.0054,3.0076,2.0044,-7.0175,1.0022,16.0394,
15,-4.511,-6.5164,-21.5535,22.5558,8.5208,-2.5065,-7.5186,-0.50111,5.5132,5.5132,-3.5087,0.50111,26.5656,
18.0443,-2.0049,-4.0103,-26.064,30.0739,15.0367,-5.0125,-4.0103,3.0071,1.0027,3.0071,-1.0027,-9.0224,32.0793,
8.5208,12.9951,-11.5284,-25.5634,40.5996,18.5459,-7.5186,0.50111,-1.5033,-0.50111,-1.5033,1.5033,-6.5164,34.5853,
15.0372,9.0219,-6.0143,-29.0712,35.0864,3.5459,4.0098,-7.0175,1.0022,-13.0318,-1.0022,-13.4967,7.0175,19.5853,
19.5477,1.5038,-8.5213,-36.5902,20.5508,-3.5083,2.506,-1.5038,6.5159,-14.5356,5.5137,-28.4967,15.5378,4.5853,
9.0219,-3.0076,-19.047,-46.1137,5.5508,1.0022,-3.0076,0,15.0372,-14.0349,13.0318,-35.0864,19.047,0,
14.0349,0,-19.047,-40.0985,11.0273,-2.0044,0,-1.0022,13.0327,-16.0394,13.0327,-36.0886,21.0524,2.0054,
27.5678,5.5132,-15.5383,-25.5634,26.0273,-2.5065,-1.5043,-0.50111,0.50111,-8.5208,8.5208,-21.5535,12.5307,7.5186,
31.077,7.017,-6.0148,-19.0465,40.099,-5.0126,2.0049,-7.017,-1.0027,-8.0192,6.0148,-12.0291,1.0027,20.0497,
28.5701,6.5154,-2.5065,-22.5558,30.5755,-0.50111,0.50111,-5.5141,1.5033,-14.5361,1.5033,-17.5437,-0.50111,24.5602,
22.5548,1.5033,-11.5284,-37.5558,15.5755,-2.5065,0.50111,-2.5065,8.5208,-19.5481,-0.50111,-32.5437,12.5307,9.5602,
24.0591,2.0054,-10.0241,-41.1007,12.0295,0,0,0,12.0295,-11.0273,7.0175,-36.0886,22.0547,0,
18.5459,-0.50111,-12.5307,-33.5821,21.5535,2.5065,-8.5208,-0.50111,0.50111,-10.5262,7.5186,-34.5853,9.524,3.5087,
19.0475,-4.0094,-12.0291,-41.1012,20.0497,-2.0049,2.0049,-6.0148,5.0125,-23.0564,6.0148,-35.0859,8.0202,8.0202,
30.0743,-2.0044,-9.0219,-32.0788,35.0497,8.0197,3.0076,-3.0076,1.0022,-17.0416,-1.0022,-20.0859,13.0318,23.0202,
32.0798,-8.0197,-6.0143,-24.0591,50.0497,13.0327,-2.0044,-5.0121,1.0032,-2.0416,0,-5.0859,11.0273,30.0743,
23.0564,-12.03,-5.0126,-37.0913,35.0497,3.0071,-5.0126,-6.0148,6.0148,-2.0049,12.0291,-6.0148,2.0049,23.0564,
13.0318,-7.0175,-20.0126,-46.1137,20.0497,0,-8.0197,0,2.0054,-17.0049,14.0349,-21.0148,4.0098,22.0546,
13.0322,-11.0268,-20.0497,-43.1056,33.0815,-3.0071,3.0071,-3.0071,13.0322,-24.0596,16.0399,-36.0148,14.0345,7.0546,
17.0416,-14.0349,-14.0349,-41.1017,48.0815,4.0099,0,-7.0175,12.0295,-15.0372,10.0241,-33.082,3.0076,0,
23.558,-7.5186,-11.5284,-36.5907,46.6149,18.545,-0.50111,-5.5141,2.5056,-5.5141,1.5033,-18.082,0.50111,15,
25.0623,-10.0241,-16.0394,-36.0886,34.0842,16.0404,0,-15.0362,0,-2.0044,4.0099,-9.0219,1.0032,13.0327,
10.0623,-20.0488,-31.0394,-43.1056,27.0672,14.0345,-9.0224,-14.0345,2.0049,6.0148,16.0399,-2.0049,-9.0224,8.0202,
-1.0022,-27.0667,-30.0743,-49.1214,12.0672,11.0273,1.0022,-9.0219,11.0273,-3.0076,20.0492,-11.0273,2.0044,9.0219,
0.50111,-19.5481,-29.5723,-49.6215,-0.50111,7.5186,5.5141,-13.5329,4.511,-18.0076,5.5141,-26.0273,10.5262,3.5087,
3.0071,-13.0322,-27.0662,-36.0891,6.0148,17.0421,10.0246,-10.0246,9.0224,-15.0367,8.0202,-34.0837,11.0268,-3.0071,
2.0049,-26.064,-21.0519,-30.0739,10.0246,24.0596,12.0291,-9.0224,8.0192,-20.0497,9.0224,-42.1034,2.0049,-2.0049,
12.5307,-11.064,-16.5415,-18.5459,20.5504,30.5755,16.5405,0.50111,-1.5043,-9.524,0.50111,-27.1034,-0.50111,12.9951,
13.5329,-4.511,-17.5427,-26.5656,13.5329,18.5459,17.5437,-9.523,1.5033,-1.5033,-3.5087,-12.1034,-2.5065,27.9951,
2.506,-14.5356,-21.5531,-41.5656,2.506,15.5388,6.5159,-17.5432,5.5137,-5.5137,-2.506,2.8966,-8.5203,18.5464,
-3.0071,-14.0345,-17.0421,-39.0958,-4.0094,30.0739,11.0268,-2.5432,18.0443,-1.0027,8.0202,-8.0202,6.4797,21.0519,
-1.0027,-18.0443,-17.0421,-41.1012,-13.0323,27.0662,17.0421,1.0027,22.0542,-5.0126,8.0192,-23.0202,18.0443,6.0519,
12.03,-10.0246,-13.0323,-34.0837,1.0027,25.0618,7.017,-2.0049,7.0542,-11.0268,-1.0027,-23.0564,10.0246,2.0049,
18.545,-6.5164,-4.511,-24.5612,4.511,23.558,5.5132,-9.524,0.50111,-16.5405,-0.50111,-24.5612,3.5087,1.5033,
