"AF3","AF4","F3","F4","F7","F8","FC5","FC6","O1","O2","P7","P8","T7","T8",
-24.5156,-16.3437,27.5803,-16.3437,161.3958,19.4084,80.6974,-1.0212,-3.0647,-11.2366,1.0212,-21.4509,18.3872,11.2366,
-28.0914,-14.8124,29.1117,-13.7901,171.099,26.0479,80.1863,-1.5323,-2.5536,-12.7689,1.5323,-21.962,17.8761,8.682,
-34.2198,-14.8114,30.1339,-11.7467,179.2719,32.1773,76.1014,-2.5536,-1.5323,-16.8548,1.5323,-26.0479,13.7901,1.5323,
-20.4302,-8.1724,31.6657,-6.1289,194.2719,47.1773,76.612,2.043,-5.1077,-17.3655,-2.043,-21.4514,10.2148,5.1077,
-10.7259,-4.5966,31.1556,-3.5753,209.2719,62.1773,74.0574,3.5753,-12.7684,-19.919,-9.7047,-19.919,4.5966,5.6178,
0.51062,-0.51062,31.1556,-0.51062,224.2719,77.1773,72.0149,6.64,-18.8978,-22.9837,-15.8331,-17.8756,-1.5319,6.64,
6.1289,-2.043,25.5373,-3.0642,239.2719,88.8698,64.3542,3.0642,-30.6445,-30.6445,-28.601,-21.4514,-13.2795,2.043,
14.8109,-0.51062,21.9615,-2.5541,254.2719,101.6377,59.7571,2.5531,-39.3275,-36.2628,-37.285,-21.9625,-21.9625,0.51062,
22.4726,1.0217,19.4079,-2.043,269.2719,113.3854,55.1601,2.043,-49.0317,-40.8598,-46.9882,-22.4726,-29.6233,-1.0217,
30.6445,2.043,16.3442,-2.043,284.2719,125.6432,50.0529,2.043,-58.2248,-46.9882,-56.1813,-23.4939,-38.8164,-3.0642,
39.327,3.5748,13.7901,-1.5323,299.2719,138.4116,45.4564,1.5323,-66.9073,-51.5848,-65.886,-24.0045,-47.4988,-4.597,
48.0104,5.1077,10.2148,-1.0217,314.2719,151.18,40.8598,1.0217,-75.5907,-57.2035,-74.5685,-24.5161,-56.1823,-6.1289,
55.6707,6.6395,7.6608,-0.51111,329.2719,162.9272,36.2623,0.51111,-85.2945,-61.8001,-84.2732,-25.0267,-63.8436,-7.6617,
63.8426,7.6608,4.597,-0.51111,344.2719,175.185,31.1551,0.51111,-94.4876,-67.9295,-93.4663,-26.0479,-73.0367,-9.7042,
73.0367,10.7255,1.5323,-0.51111,359.2719,189.4862,27.0692,0.51111,-104.7029,-70.9932,-105.7241,-27.0692,-82.2298,-10.7255,
73.5468,18.3862,10.2143,0,374.2719,191.0186,28.6015,0,-89.7029,-58.2253,-97.0421,-23.4944,-69.4618,-11.2366,
73.5468,24.5156,18.3862,0,373.8653,191.0186,29.6228,0,-74.7029,-45.9675,-88.8703,-20.4297,-56.1818,-11.2366,
69.972,22.9833,16.8548,-1.5323,360.0752,176.2072,37.2845,1.5323,-59.7029,-34.2198,-73.8703,-35.4297,-41.1818,-24.0045,
64.3537,21.4509,23.4944,-13.279,349.3497,167.5242,49.0312,13.279,-44.7029,-39.8381,-58.8703,-50.4297,-29.6237,-32.6875,
56.6924,29.1122,22.9837,-22.9837,334.3497,155.777,53.6277,14.8119,-29.7029,-30.1344,-43.8703,-37.284,-14.8119,-17.6875,
41.6924,27.5803,14.3013,-37.9837,319.3497,140.777,49.0322,8.1719,-21.4509,-29.6228,-28.8703,-28.6015,-9.1931,-8.1719,
28.602,12.5803,3.0642,-51.0742,304.3497,125.777,41.8811,-3.0642,-36.4509,-18.3867,-25.5373,-13.6015,-23.4939,6.8281,
22.9833,6.6395,2.5536,-49.5423,289.3497,110.777,39.327,-2.5536,-43.4129,-20.9408,-26.0479,-12.7689,-22.9833,7.6608,
17.8761,3.5748,2.5536,-47.4998,274.3497,98.5735,38.3057,-2.5536,-41.3704,-21.962,-26.0479,-14.8124,-20.9408,6.6395,
13.7897,0.51062,3.5753,-44.4346,259.3497,92.4446,37.284,-0.51062,-39.3275,-22.9837,-25.0272,-15.8331,-18.8978,6.639,
10.2153,-1.0212,5.1072,-40.8593,244.3497,86.8268,37.7956,1.0212,-36.7734,-22.4731,-23.4944,-16.3437,-16.3437,6.1294,
6.1289,-3.0642,6.1289,-37.7951,229.3497,80.6979,36.7739,3.0642,-34.7304,-23.4939,-22.4726,-17.3655,-14.3008,6.1289,
3.5753,-3.5753,8.6825,-33.1991,214.3497,75.0787,38.3053,5.6178,-30.1344,-21.9625,-19.919,-16.8553,-9.7047,7.6612,
3.0647,-3.0647,13.28,-26.5581,199.3497,72.5256,40.8593,11.2366,-24.5156,-19.4084,-15.3225,-14.3003,-4.0859,11.2366,
0.51062,-3.5753,15.8331,-21.9615,184.3497,67.929,42.3922,13.7906,-20.9403,-17.8756,-12.7684,-13.7897,-0.51062,11.7472,
-3.0642,-5.1077,16.3442,-16.3432,169.3497,60.2682,40.8598,15.323,-16.3432,-19.4079,-13.2795,-14.3008,3.0642,10.2148,
-2.5536,-5.6183,16.8548,-15.8326,154.3497,59.7576,41.3704,14.8124,-15.8326,-17.8761,-13.7901,-11.7467,2.5536,11.7477,
-1.5319,-5.6178,17.8766,-15.8331,139.3497,58.7359,41.3699,13.7906,-16.8544,-16.8544,-15.8331,-8.6825,1.5319,12.7684,
0,-6.1284,19.4084,-15.3225,124.3497,57.204,41.8815,13.28,-16.3437,-14.3003,-16.3437,-6.1284,0,14.3013,
0.51062,-5.6178,20.9413,-13.7897,116.9612,56.6934,41.3709,13.7906,-16.8544,-12.7684,-17.8756,-2.5531,-0.51062,14.8119,
1.0217,-7.1501,20.4302,-14.3008,115.4288,55.1611,40.8598,12.2583,-17.3655,-12.2573,-19.4079,-1.0217,-2.043,15.323,
-0.51062,-8.6825,19.919,-15.8331,112.8752,52.6075,39.3275,9.7047,-19.919,-12.7684,-22.9828,0.51062,-4.5966,14.8119,
-1.0212,-11.2366,19.4084,-17.365,109.2989,49.0312,37.7946,7.1506,-21.4509,-12.2578,-25.5368,1.0212,-8.1719,14.3013,
-2.5536,-13.7901,18.8973,-17.8761,106.7454,46.4776,35.241,5.6183,-24.0045,-12.7689,-29.1126,2.5536,-10.7255,12.7689,
-3.0647,-15.3225,17.3659,-19.4084,104.1918,43.924,33.7097,3.0647,-25.5368,-13.279,-31.6662,3.0647,-13.279,12.2578,
-2.5536,-14.8114,18.8973,-18.8973,102.6594,43.4129,34.2198,2.5536,-26.0479,-11.7477,-33.1986,6.6395,-13.7901,13.7901,
-1.5323,-15.8326,19.9195,-18.8973,101.6382,41.3704,34.2198,1.5323,-26.0479,-9.7042,-34.2198,8.683,-15.8326,14.8114,
-1.5319,-15.8331,20.9403,-18.8978,100.6165,40.3487,33.1981,1.5319,-27.0697,-8.6825,-36.2628,11.7472,-16.8544,14.8119,
-0.51062,-16.8544,20.9403,-17.8756,99.5952,39.3275,33.1981,0.51062,-27.0697,-7.6612,-37.284,13.7906,-17.8756,15.8331,
0,-16.3437,22.4731,-17.365,99.0846,38.8168,33.7097,0,-27.5803,-6.1284,-38.8159,17.3659,-18.3862,17.3659,
1.0217,-17.3655,23.4939,-17.3655,97.0416,36.7739,33.7092,-1.0217,-27.5798,-4.0854,-39.8376,19.4079,-20.4302,18.3867,
1.0212,-17.3659,24.5156,-16.3437,96.0199,35.7522,32.6875,-1.0212,-28.6015,-3.0647,-41.8815,22.4721,-21.4519,18.3862,
2.043,-18.3877,24.5151,-16.3442,94.9982,34.7304,32.687,-2.043,-28.602,-2.043,-42.9033,24.5151,-22.4736,19.4079,
1.5323,-18.8973,25.0267,-16.8548,93.4663,33.1986,32.1773,-3.5748,-30.1339,-1.5323,-45.4564,27.0692,-25.0267,19.9186,
1.0212,-21.4509,24.5156,-18.3872,89.8915,29.6237,30.645,-6.1284,-31.6662,-1.0212,-48.01,27.5803,-27.5803,19.4084,
-0.51062,-24.005,21.9625,-19.919,81.209,20.9403,29.1131,-9.7037,-33.1981,0.51062,-56.6924,27.0697,-32.1768,17.8766,
-6.1289,-22.4726,15.322,-25.5373,66.209,17.3655,27.5798,-6.1289,-19.4089,6.1289,-41.6924,19.4079,-23.4948,28.601,
-15.3225,-23.4944,5.1072,-33.7087,51.209,11.2366,23.4944,-5.1072,-8.1719,9.1931,-26.6924,10.2153,-16.3437,35.7522,
-13.2795,-22.4726,2.043,-43.9235,36.209,14.3008,29.6233,-2.043,-7.1501,4.0864,-20.4292,2.043,-11.2361,27.5808,
-8.683,-18.8973,1.5323,-50.5635,21.209,19.9195,40.3492,3.5748,-2.5536,2.5536,-10.7255,-1.5323,-2.5536,21.962,
-7.6608,-20.9398,-1.5323,-51.5848,12.7689,20.9408,37.2845,2.5536,-6.6395,1.5323,-13.7901,1.5323,-6.6395,22.9842,
-5.6183,-19.9186,-2.5536,-50.5635,14.8114,24.0055,36.2633,2.5536,-8.683,2.5536,-14.8114,6.6395,-8.683,26.0479,
-2.5536,-19.9195,-2.5536,-49.5423,15.8326,27.0692,35.241,2.5536,-9.7042,3.5748,-15.8336,11.7467,-10.7255,29.1126,
-1.5323,-19.9195,-4.597,-49.5423,16.8548,28.0904,33.1986,1.5323,-12.7689,3.5748,-18.8973,15.8326,-12.7689,32.1764,
-0.51062,-21.9625,-7.6612,-50.564,16.8544,29.1122,30.1334,0.51062,-16.8553,2.5531,-21.9625,18.8968,-16.8553,33.1981,
0.51062,-21.9625,-9.7047,-50.564,17.8756,31.1546,28.0909,-0.51062,-19.919,2.5531,-24.005,22.9828,-19.919,35.2415,
2.043,-23.4939,-11.2361,-51.0742,17.3655,32.6879,25.5373,-2.043,-22.4726,2.043,-26.5586,26.5586,-23.4939,36.7739,
3.5758,-22.9833,-12.7679,-50.5635,18.8973,34.2198,24.0055,-2.5536,-25.0267,2.5536,-29.1126,31.1561,-25.0267,40.3492,
5.6183,-24.0045,-14.8114,-50.5635,19.9195,36.2633,21.962,-2.5536,-28.0904,2.5536,-31.1551,35.242,-28.0904,42.3917,
7.6608,-22.9833,-15.8326,-49.5423,21.962,39.327,20.9408,-2.5536,-30.1339,2.5536,-32.1773,40.3492,-30.1339,45.4564,
9.7042,-24.0045,-16.8548,-49.5423,21.962,41.3704,18.8973,-3.5748,-32.1773,3.5748,-34.2198,44.4351,-33.1986,47.4988,
10.7259,-25.0262,-17.8766,-50.564,24.005,41.37,16.8544,-4.5966,-35.2415,4.5966,-35.2415,49.5418,-34.2203,50.564,
14.3013,-15.3215,-8.1719,-41.8806,9.005,52.0959,21.4519,8.1719,-25.5368,19.5966,-30.644,64.5418,-29.6228,65.564,
9.1936,-15.322,-9.1936,-43.9245,-5.995,52.0954,16.3432,12.2573,-26.5586,32.6879,-34.7304,79.5418,-34.7304,80.564,
4.0859,-11.2366,-4.0859,-36.7744,-20.995,63.3315,14.3003,15.3215,-22.4731,24.5156,-29.6237,66.3962,-22.4731,80.6974,
-1.0217,-6.1289,1.0217,-29.6233,-35.995,74.5685,13.2795,18.3867,-19.4079,16.3442,-24.5151,52.0964,-9.1936,65.6974,
4.597,-12.7689,-4.597,-37.2845,-50.995,66.9073,6.6395,19.9186,-21.962,25.0267,-30.1339,67.0964,-20.9408,80.6974,
14.8119,-15.8331,-5.6178,-40.3487,-65.995,63.8431,5.6178,27.0697,-19.919,39.3275,-31.1556,82.0964,-28.0909,95.6974,
7.1506,-17.3659,-7.1506,-37.7956,-80.995,57.2031,9.1931,19.4084,-14.3013,41.8806,-26.5591,90.9127,-21.4519,90.9127,
4.0864,-15.322,-4.0864,-30.6445,-95.995,56.1823,17.3655,15.322,-4.0864,49.0317,-16.3442,96.0204,-10.2148,82.7404,
0,-22.4731,0,-35.7522,-110.995,54.1384,14.3003,13.279,-9.1941,44.9453,-21.4519,81.7187,-16.3447,85.8046,
-3.5753,-30.1344,3.5753,-41.3709,-125.1325,52.6065,9.7037,11.7472,-15.8331,41.3699,-26.0484,66.9068,-24.005,89.3799,
-2.043,-22.4726,2.043,-34.7304,-110.1325,57.2035,13.2795,12.2583,-9.1936,32.6879,-17.3655,65.3754,-14.3008,84.7838,
-0.51111,-15.8326,0.51111,-28.0904,-95.1325,59.7576,16.8548,11.7477,-3.5748,22.9833,-9.7042,61.8001,-6.6395,80.1873,
-4.597,-16.8548,4.597,-27.0692,-87.3374,61.8001,12.7689,9.7042,-5.6183,37.9833,-13.7901,76.8001,-11.7467,92.4451,
-7.1501,-17.3655,9.1936,-24.5161,-89.891,64.3542,9.1936,7.1501,-8.1724,52.9833,-17.3655,91.8001,-17.3655,104.1923,
-22.1501,-30.1344,4.5966,-36.2628,-104.891,49.3542,11.7472,2.5541,-2.5541,37.9833,-13.7906,76.8001,-12.7684,89.1923,
-37.1501,-22.9837,0.51062,-36.2628,-109.8101,45.4559,9.7037,11.7472,-4.5966,22.9833,-12.7684,61.8001,-0.51062,74.1923,
-40.8593,-17.365,-3.0647,-35.7522,-106.2347,44.9453,9.1931,14.3013,-11.2366,22.4731,-17.365,46.8001,3.0647,72.5256,
-35.7517,-20.4292,6.1289,-22.4726,-102.1488,50.0529,5.1077,11.237,-13.2795,25.5373,-14.3008,48.0104,-5.1077,67.4189,
-20.7517,-11.2366,19.4084,-7.4726,-87.1488,65.0529,4.0859,19.4084,-11.2366,32.6875,-9.1931,63.0104,-4.0859,82.4189,
-15.3225,-13.279,13.279,-20.4297,-72.1488,65.3749,7.1506,6.1294,-10.2153,29.6228,-17.365,78.0104,-6.1294,97.4189,
-21.4514,-6.1289,8.1714,-26.5586,-57.1488,66.3967,6.1289,10.2148,-11.237,44.6228,-17.3655,93.0104,-16.3442,96.0194,
-34.7309,-14.3003,4.0859,-33.7087,-68.4396,71.5043,1.0212,15.3225,-1.0212,50.0534,-9.1931,89.8915,-10.2143,81.0194,
-49.7309,-29.3003,-4.597,-48.7087,-83.4396,68.9507,-4.597,5.6183,9.7042,35.0534,-2.5536,74.8915,2.5536,66.0194,
-52.606,-19.9186,-7.6608,-52.606,-68.4396,76.1014,-1.5323,10.7255,1.5323,31.1561,2.5536,63.8436,-2.5536,81.0194,
-37.606,-12.7684,1.5319,-39.3275,-57.7137,73.0362,5.6188,8.6825,-8.6825,32.1768,-1.5319,61.8006,-14.8119,74.0584,
-22.606,-4.0859,13.279,-27.5803,-48.01,75.5902,4.0859,11.2366,-11.2366,20.4297,-7.1506,46.8006,-13.28,59.0584,
-16.8544,-5.6178,11.7472,-33.1981,-52.6065,78.1443,0.51062,13.7906,-0.51062,13.7906,-7.6612,32.1768,-5.6178,54.65,
-31.6662,-20.6178,-3.2528,-48.1981,-67.6065,70.4831,3.0647,11.2366,12.2578,28.7906,-3.0647,47.1768,-5.1072,69.65,
-39.327,-15.8326,-18.2528,-55.6707,-61.8001,75.0791,-0.51111,16.8548,9.7042,43.7906,0.51111,62.1768,-3.5748,84.65,
-41.8811,-17.3655,-18.3867,-54.1389,-53.1176,71.5038,-2.043,9.1936,5.1067,37.7951,-2.043,67.4179,2.043,69.65,
-29.6233,-22.4726,-9.1936,-55.1601,-38.1176,72.526,2.043,12.2583,3.0642,31.6657,-2.043,52.4179,-2.043,54.65,
-17.8756,-13.7897,-0.51062,-53.6277,-23.1176,81.208,11.7472,18.8978,0.51062,40.3487,-3.5753,57.7147,-5.6178,69.65,
-17.3655,-11.2361,-1.0217,-46.9882,-8.1176,93.9769,11.237,13.2795,-3.0642,36.7739,-3.0642,48.0104,1.0217,81.7191,
-16.8548,-5.6183,-11.7467,-34.2198,-4.597,108.9769,-1.5323,20.9408,0.51111,44.4351,-0.51111,63.0104,4.597,75.0791,
-19.4089,-11.237,-2.043,-35.7526,-10.2148,114.4066,-4.0864,17.3655,9.1926,45.967,-6.1289,78.0104,2.043,74.5685,
-18.8973,-17.8761,8.683,-34.2198,-2.5536,103.6816,-3.5748,11.7477,2.5536,40.3492,-13.7901,63.0104,-2.5536,82.2298,
-13.7897,-19.919,0.51062,-26.0475,12.4464,101.6387,-0.51062,10.7259,-8.6825,37.284,-13.7897,48.0104,-7.6612,67.2298,
-10.7259,-17.8756,1.5319,-26.0475,27.0697,101.6387,-1.5319,10.7259,-8.6825,34.2203,-13.7897,42.3922,-8.6825,59.7571,
-8.683,-17.8761,2.5536,-27.0692,35.241,100.6169,-2.5536,9.7042,-10.7255,31.1551,-15.8336,37.2845,-9.7042,56.6929,
-5.6178,-15.8331,3.5753,-27.0687,44.4346,100.6174,-3.5753,9.7047,-11.7472,28.0909,-15.8331,34.2203,-9.7037,54.65,
-4.0859,-14.3003,4.0859,-27.5793,52.0969,100.1068,-4.0859,9.1941,-13.279,24.5166,-16.3437,29.6237,-10.2143,52.0969,
-3.0647,-14.3013,3.0647,-29.6228,59.2465,98.0634,-7.1506,7.1506,-15.3225,19.4084,-18.3872,23.4944,-13.279,46.9887,
-2.5536,-15.8326,2.5536,-32.1764,65.886,95.5098,-9.7042,4.597,-18.8973,14.8114,-21.962,16.8548,-15.8326,42.3917,
-1.5323,-15.8336,1.5323,-36.2633,73.0357,95.5088,-13.7901,1.5323,-21.962,8.682,-25.0267,10.7255,-18.8983,38.3057,
1.0217,-18.3867,-1.0217,-30.6445,58.2248,80.5088,-16.3432,5.1077,-14.3008,21.4514,-20.4292,25.7255,-15.322,40.8598,
0.51062,-29.1122,-0.51062,-34.2193,73.2248,68.9512,-3.5753,0.51062,-16.8544,26.0484,-20.9403,40.7255,-13.7897,47.4993,
-1.0217,-14.3008,-1.0217,-33.7092,88.2248,79.6757,11.2361,1.0217,-10.2148,32.6879,-13.2795,44.9457,-3.0642,58.2248,
-13.7897,-14.8109,-9.7037,-48.5206,103.2248,64.6757,17.8766,-10.725,-0.51062,17.8766,-4.5966,29.9457,0.51062,43.2248,
-4.0854,-15.322,-7.1501,-45.967,118.2248,49.6757,25.5373,-7.1501,-1.0217,12.2583,1.0217,22.4726,-2.043,34.7304,
6.6395,-24.0045,1.5323,-43.4129,133.2248,34.6757,28.0914,-12.7679,-5.6183,3.5758,-7.6608,7.4726,-1.5323,19.7304,
7.1501,-27.5798,3.0642,-45.967,148.2248,19.6757,29.6233,-18.3867,-4.0854,-1.0217,-6.1289,-7.5274,1.0217,10.2148,
1.0212,-22.4731,-4.0859,-50.0524,163.2248,29.6237,31.6662,-17.365,-3.0647,0,3.0647,-2.0425,0,25.2148,
-8.683,-34.2198,-4.597,-58.7359,178.2248,28.0904,29.1126,-18.8983,2.5536,-5.6183,6.6395,-2.5536,7.6608,17.8761,
-16.8548,-33.1986,-5.6183,-53.6287,193.2248,29.1126,16.8539,-15.8336,2.5536,-2.5536,7.6608,-10.7255,14.8114,3.5748,
-12.2583,-23.4948,-5.1077,-53.1176,208.2248,39.8376,24.5151,-18.3867,13.2795,-2.043,21.4514,-25.7255,26.5586,2.043,
-6.1289,-31.6657,-2.043,-58.2248,223.2248,31.6657,31.6657,-14.3008,18.3867,-9.1936,18.3867,-40.7255,24.5161,2.043,
-11.7472,-34.2203,-4.5966,-49.5418,238.2248,28.0909,21.9615,-4.5966,3.3867,-0.51062,3.3867,-25.7255,9.5161,7.6612,
-13.2795,-30.6445,-5.1077,-53.1176,225.749,39.8386,16.3442,-16.3432,-5.1077,11.2361,-1.0217,-10.7255,1.0217,17.3655,
-13.279,-31.6662,-15.3225,-59.2465,218.5989,48.01,9.1931,-24.5156,-3.0647,20.4297,-1.0212,4.2745,1.0212,30.645,
-21.962,-46.4776,-28.0914,-67.929,205.83,33.01,1.5323,-20.9408,-1.5323,13.7901,-4.597,14.8114,1.5323,15.645,
-15.8336,-45.4564,-22.9842,-75.0796,204.8087,19.9186,11.7467,-19.9195,7.6608,10.7255,2.5536,-0.18861,12.7679,0.64498,
-9.1931,-30.4564,-16.3437,-69.4613,219.8087,31.6662,18.3862,-21.4519,3.0647,13.279,6.1284,-15.1886,19.4084,-3.0647,
-10.725,-27.0697,-4.5966,-62.8213,223.1954,31.1556,25.0262,-21.9615,8.6825,7.6612,4.5966,-30.1886,24.005,-13.7897,
-10.7259,-33.1981,-7.6612,-73.0367,223.1954,32.1768,26.0475,-12.7684,11.7472,12.7684,2.5541,-15.1886,20.9403,-2.5541,
-14.3008,-34.7304,-22.6612,-88.0367,211.4478,26.5586,15.322,-26.5586,1.0217,13.2795,-1.0217,-0.18861,10.2148,-4.0864,
-12.2578,-37.7946,-18.3862,-103.0367,211.4482,21.4519,12.2578,-35.7522,0,4.0859,3.0647,0,11.2366,-2.0425,
-13.7906,-35.2415,-16.8544,-114.9177,224.2167,29.1121,6.639,-20.7522,-4.5966,3.5753,0.51062,-0.51062,6.639,12.9575,
-16.8548,-37.2845,-21.962,-119.0036,217.0665,21.962,9.7042,-18.8973,0.51111,2.5536,-0.51111,-6.6395,7.6608,1.5323,
-1.8548,-26.0479,-7.6608,-104.0036,226.2596,33.1986,20.9408,-16.8548,15.5111,1.5323,14.4889,-12.7689,20.9408,-13.4677,
4.5966,-22.9837,-4.5966,-89.3804,228.3026,40.3487,18.8978,-16.8544,10.7259,-9.7047,16.8544,-27.7689,19.919,-4.5966,
1.0212,-26.5591,-3.0647,-92.9557,216.5554,31.6662,21.4509,-13.28,7.1506,-1.0212,10.2143,-27.5803,24.5156,-4.0859,
-7.1506,-31.6662,-9.1931,-89.891,211.4482,37.7946,12.2578,-2.0435,-1.0212,13.279,1.0212,-12.5803,20.4297,-19.0859,
4.5966,-32.1768,-9.7037,-89.3799,210.9376,50.564,12.7684,-12.7684,-4.5966,5.6188,-4.5966,2.4197,8.6825,-13.7897,
5.6183,-30.1339,-10.7255,-85.2945,209.9159,52.607,11.7467,-13.7901,-5.6183,6.6395,-5.6183,17.4197,7.6608,-12.7689,
5.6183,-29.1126,-11.7467,-82.2298,208.8947,54.6495,10.7255,-14.8114,-5.6183,6.6395,-6.6395,17.8761,5.6183,-11.7467,
7.6617,-26.0479,-11.7467,-77.1221,208.8947,58.7364,10.7255,-14.8114,-5.6183,8.683,-6.6395,18.8983,5.6183,-9.7042,
8.6825,-22.9837,-11.7472,-72.0154,209.9154,61.7996,9.7037,-14.8119,-4.5966,9.7037,-6.64,18.8978,4.5966,-6.64,
10.725,-19.919,-11.7472,-66.9078,209.9154,64.8643,9.7037,-14.8119,-4.5966,11.7472,-6.64,19.919,4.5966,-4.5966,
11.2366,-18.3872,-12.2578,-63.3324,209.4048,67.4184,9.1931,-15.3225,-4.0859,12.2578,-7.1506,20.4297,3.0647,-3.0647,
13.7897,-14.8119,-12.7684,-56.6924,208.8942,72.0149,7.6612,-16.8544,-3.5753,14.8119,-7.6612,20.9403,0.51062,-0.51062,
27.5803,-14.3013,-5.1072,-57.2031,199.1904,87.0149,5.1072,-14.3013,-7.1506,-0.18813,-6.1294,8.1719,8.1719,11.2366,
28.0909,-20.9403,-14.8119,-63.8431,184.1904,102.0149,-2.5541,0.69875,-11.7472,-2.5541,-3.5753,11.7472,7.6612,10.7259,
16.3442,-27.5798,-26.5586,-63.332,169.1904,117.0149,-17.5541,3.0642,-14.3008,12.4459,-3.0642,26.7472,-6.1289,13.2795,
25.0267,-19.9195,-12.7689,-52.607,154.1904,132.0149,-26.0479,2.5536,-8.683,27.0692,-3.5758,41.7472,-2.5536,28.2795,
17.8766,-19.919,-14.8119,-57.7137,139.1904,147.0149,-28.0909,4.5966,-19.919,12.0692,-18.5758,35.2415,-4.5966,31.1556,
3.0642,-29.6233,-17.3655,-61.2895,154.1904,132.7938,-19.4079,2.043,-12.2583,1.0217,-22.4726,20.2415,-1.0217,16.1556,
3.5748,-26.0479,-14.8114,-46.4776,161.9059,147.6057,-30.1339,3.5748,-14.8114,9.7042,-19.9186,33.1986,-3.5748,30.1339,
13.28,-19.4084,-11.2366,-38.8168,165.4817,162.6057,-35.7522,7.1506,-18.3862,20.4297,-22.4721,48.1986,-7.1506,45.1339,
13.7901,-25.0267,-8.683,-44.4351,180.4817,159.8625,-28.0914,5.6183,-6.6405,28.0904,-17.8761,63.1986,-5.6183,30.1339,
13.28,-24.5156,-12.2578,-41.8806,195.4817,158.3311,-30.644,8.1719,-8.1719,25.5378,-15.3225,52.0959,-8.1719,20.4297,
24.5156,-21.4519,-4.0859,-35.7522,195.1045,159.3524,-26.559,4.0859,-11.2366,10.5378,-20.4297,37.0959,-9.1941,24.5156,
28.6015,-20.4297,0,-36.7734,209.4058,155.2664,-23.4944,6.1294,-18.3862,0,-21.4509,22.0959,-7.1506,10.2153,
19.919,-24.005,-9.7047,-39.3275,212.9801,143.5192,-30.1344,4.5966,-19.919,8.6825,-20.9403,7.0959,-4.5966,8.6825,
32.6879,-16.3432,-2.043,-24.3275,217.5771,151.181,-28.601,2.043,-10.2148,23.6825,-20.4292,22.0959,-8.1714,23.6825,
31.6662,-11.2366,-4.0859,-20.4297,228.8132,163.4383,-30.645,4.0859,-15.3225,33.7087,-19.4084,37.0959,-14.3013,15.3225,
18.3862,-11.2366,-7.1506,-35.4297,239.0285,153.223,-23.4944,0,-11.2366,33.7087,-9.1941,31.6662,0,4.0859,
22.4726,-6.1289,-5.1077,-34.7304,254.0285,158.3306,-21.4514,2.043,-10.2148,41.8811,-10.2148,46.6662,-2.043,19.0859,
19.919,-14.8119,-3.5753,-19.919,269.0285,161.9064,-25.0262,3.5753,-10.7259,53.6287,-19.919,61.6662,-15.8331,34.0859,
8.1719,-23.4944,-4.0859,-26.559,271.716,146.9064,-25.5378,4.0859,-6.1294,45.9665,-13.28,71.5043,-8.1719,19.0859,
-1.0217,-13.2795,-19.0859,-41.559,286.716,141.9869,-31.6667,6.1289,-10.2148,30.9665,-3.0642,56.5043,1.0217,10.2148,
-7.6612,-18.8978,-25.0262,-56.559,301.716,156.9869,-29.1122,0.51062,-6.64,15.9665,1.5319,41.5043,2.5541,20.9403,
-10.2153,-24.5156,-16.3437,-61.289,316.716,169.5677,-30.645,2.0425,-8.1719,12.2578,1.0212,36.7734,-1.0212,18.3872,
-9.1931,-11.2356,-9.1931,-46.289,331.716,167.5242,-24.5156,9.1941,-7.1497,24.5166,0,49.0322,0,11.2366,
-13.7901,-11.7467,-4.597,-41.3704,346.716,165.9919,-16.8548,7.6608,0.51111,24.0055,-3.5748,41.3704,-0.51111,21.962,
-22.4731,-9.1931,-11.2366,-56.1818,361.716,174.6748,-25.5368,17.365,-1.0212,34.7309,1.0212,56.3704,-3.0647,36.962,
-33.1986,-22.9833,-25.0267,-70.9932,376.716,163.9494,-28.0904,7.6617,-5.6183,29.1126,4.597,70.9932,-4.597,32.1773,
-25.0262,-25.0262,-19.919,-55.9932,391.716,162.9277,-18.8978,3.5753,1.5319,24.005,-1.5319,55.9932,-1.5319,17.1773,
-15.323,-13.2795,-10.2148,-40.9932,403.4876,166.5025,-21.4514,11.2361,2.043,26.5586,-11.237,43.9235,-2.043,18.3867,
-13.2795,-15.322,1.0217,-38.8164,388.4876,162.4166,-22.4726,8.1724,-6.1289,24.5161,-13.2795,41.8811,-1.0217,15.322,
-13.7901,-19.9186,1.5323,-37.2845,373.4876,169.0566,-26.0479,12.7689,-14.8114,19.9195,-13.7901,43.4139,-1.5323,10.7255,
-12.2578,-26.5591,-5.1081,-52.2845,388.4876,166.502,-22.4731,14.3003,-4.0859,12.2578,-7.1506,41.8806,4.0859,16.3437,
-11.7472,-31.1546,-10.725,-64.8643,401.9562,159.863,-22.9828,3.5753,-4.5966,12.7694,-3.5753,46.4781,3.5753,31.3437,
-10.7255,-16.8548,-9.7042,-49.8643,386.9562,174.863,-22.9833,10.7255,-9.7042,18.8973,-6.6395,39.327,6.6395,44.4342,
-11.2366,-13.279,-4.0859,-38.8168,371.9562,179.782,-20.4297,9.1931,-3.0647,3.8973,-12.2578,24.327,12.2578,29.4342,
-8.1719,-14.3013,4.0859,-33.7097,376.929,176.7173,-18.3872,9.1931,-6.1294,6.1284,-11.2366,9.327,10.2143,14.4342,
-18.3862,-26.5581,1.0212,-43.924,390.209,170.5889,-22.4721,2.0435,-13.279,13.28,-18.3862,8.1719,6.1294,-0.56584,
-23.4939,-25.5373,-10.2148,-51.0742,405.209,183.8684,-20.4302,6.1289,-6.1289,20.4302,-17.3655,23.1719,9.1936,14.4342,
-9.1926,-14.3008,-10.2148,-41.8811,420.209,198.8684,-15.322,17.3655,-6.1289,35.4302,-6.1289,38.1719,6.1289,29.4342,
-0.51062,-18.8968,0.51062,-42.3912,435.209,209.9164,-14.8109,3.5753,-14.8109,28.0909,-13.7897,53.1719,-7.6612,44.4342,
0,-15.3225,0,-37.7956,450.209,224.9164,-16.3437,3.0647,-24.5156,20.4297,-25.5378,57.2031,-15.3225,41.8806,
2.5536,-9.7042,-2.5536,-34.2198,465.209,234.4315,-5.6183,10.7255,-13.7901,30.1339,-13.7901,72.0154,-5.6183,26.8806,
11.2361,-9.1936,-2.043,-40.8598,480.209,230.8562,-3.0652,2.043,-6.1289,29.6233,-4.0864,57.0154,-4.0864,27.5798,
13.279,-6.1294,-4.0859,-31.6662,495.209,245.8562,-18.0652,4.0859,-15.3225,25.5368,-10.2153,42.0154,-7.1506,42.5798,
0,-21.1294,-1.0212,-32.6875,510.209,244.1367,-25.5368,9.1941,-15.3225,24.5156,-18.3862,41.8815,0,39.8381,
-1.0212,-23.4944,-6.1294,-40.8593,525.209,229.1367,-15.3225,11.2366,-15.3225,27.5803,-23.4944,48.01,1.0212,27.5803,
12.7684,-11.7472,-7.6612,-42.3912,540.209,214.1367,-0.51062,-3.7634,-7.6612,21.9625,-19.919,38.3062,0.51062,29.1131,
20.4297,-15.3225,-3.0647,-53.1171,555.209,202.2551,4.0859,-18.7634,-6.1294,6.9625,-18.3872,23.3062,7.1506,14.1131,
28.601,-9.1936,-3.0642,-56.1823,570.209,212.47,18.3867,-9.1936,2.043,1.0217,-3.3872,8.3062,22.1506,-0.88688,
28.0914,-14.8114,-10.7255,-65.886,585.209,215.024,32.1773,-20.9408,7.6617,-6.6395,6.6395,-6.6938,24.0055,-15.8869,
30.6445,-13.2795,-4.0854,-58.2248,600.209,230.024,26.5586,-18.3867,-2.043,2.043,6.1289,-12.2573,13.2795,-30.8869,
26.5591,-14.3013,1.0212,-46.9887,615.209,245.024,19.4084,-8.1719,-10.2153,9.1931,-1.0212,-2.0435,14.3003,-18.3872,
25.0262,-25.0262,0.51062,-50.564,630.209,260.024,20.9403,-22.9837,-9.7047,-0.51062,-16.0212,-1.5328,9.7037,-3.3872,
30.645,-11.2366,4.0859,-48.01,615.209,271.716,18.3872,-26.5591,-11.2366,-4.0859,-25.5378,-6.1294,6.1284,11.6128,
43.924,1.0212,17.365,-34.7309,600.209,280.9091,26.5591,-11.5591,-1.0212,-3.0647,-10.5378,-10.2153,21.1284,-3.3872,
43.4139,-10.7255,4.597,-39.327,585.209,269.1624,22.9842,-21.962,-1.5323,-8.682,1.5323,-13.7901,16.8548,-18.3872,
31.6662,-10.2143,-10.403,-53.1171,570.209,262.5229,24.5166,-34.7299,4.0859,-4.0859,5.1081,-15.3215,5.1081,-11.2356,
18.8973,-15.8336,-20.9408,-68.1171,555.209,260.9905,16.8548,-31.1561,1.5323,-1.5323,8.682,-7.6617,5.6183,-13.7901,
24.5156,-28.6015,-18.3862,-60.2678,540.209,267.6301,5.1072,-24.5156,-13.4677,8.1719,0,0,3.0647,-28.7901,
27.0702,-31.1551,-13.7901,-56.692,525.209,255.8834,18.8983,-35.241,1.5323,8.683,-1.5323,-15,13.7901,-16.8539,
12.0702,-36.2623,-28.7901,-71.692,510.209,240.8834,4.597,-48.5201,-1.5323,6.6405,-15.8326,0,4.597,-31.8539,
25.0267,-21.2623,-13.7901,-56.692,495.209,255.8834,4.597,-33.5201,-4.597,21.6405,-12.7689,15,6.6395,-46.8539,
38.8164,-35.7517,1.2099,-46.9882,480.209,258.4374,1.0217,-32.687,-8.1714,26.5586,-23.4939,30,-1.0217,-38.8164,
35.7522,-26.5591,0,-53.1171,465.209,256.3935,0,-39.8381,-8.1719,17.365,-23.4944,15,1.0212,-23.8164,
36.7739,-18.3867,-2.043,-46.9882,450.209,262.5234,5.1077,-26.5586,-4.0854,32.365,-20.4292,12.2583,2.043,-25.5373,
37.284,-25.0262,-8.6825,-49.5418,435.209,258.9476,6.64,-32.1768,-1.5319,18.8978,-13.7897,20.9403,1.5319,-27.0697,
35.242,-20.9408,-9.7042,-47.4988,420.209,248.7327,4.597,-37.2845,-1.5323,3.8978,1.2103,5.9403,16.5319,-12.0697,
40.8593,-22.4721,4.0859,-49.0312,405.209,233.7327,12.2578,-46.9887,-4.0859,-11.1022,11.2366,-9.0597,17.3659,-22.4721,
49.0312,-12.2578,7.1506,-46.9887,390.209,238.0073,22.4731,-39.8381,-7.1506,-14.3003,8.1719,-24.0597,12.2578,-24.5156,
51.5848,-14.8114,4.597,-44.4351,375.209,237.4962,20.9408,-30.1339,-4.597,-15.8326,4.597,-39.0597,14.8114,-15.8326,
56.1818,-27.5803,6.1294,-40.8593,360.209,224.7273,6.1294,-34.7309,-13.279,-4.0859,-10.403,-24.0597,4.0859,-16.3437,
61.289,-18.3872,6.1284,-40.8593,345.209,226.7707,4.0859,-46.9887,-20.4297,1.0212,-25.403,-9.0597,-1.0212,-18.3872,
73.5478,-6.1284,21.1284,-25.8593,330.209,236.9861,19.0859,-37.7946,-5.4297,-1.0212,-18.3862,-24.0597,13.9788,-11.2366,
59.7576,-21.1284,14.8114,-20.9408,315.209,222.1737,4.0859,-39.327,-16.8548,2.5536,-33.3862,-9.0597,-1.0212,-1.5323,
59.246,-29.6233,4.0854,-35.9408,300.209,218.5984,-2.043,-48.0104,-14.3017,17.5536,-25.5373,5.9403,-6.1299,2.043,
59.7571,-20.9403,0.51062,-50.9408,285.209,210.9376,12.957,-49.5418,-0.51062,13.7906,-10.5373,-9.0597,8.8701,-12.957,
54.1389,-27.5798,-6.1289,-50.0529,270.209,210.4265,18.3867,-35.7517,-8.1714,-1.0217,1.0217,-24.0597,11.2361,2.043,
51.5853,-39.3275,-3.5753,-47.4993,255.209,211.9589,13.7897,-42.3922,-10.7259,5.6178,-8.6825,-9.0597,3.5753,17.043,
47.4998,-26.0479,-2.5536,-46.4776,240.209,211.9594,8.683,-49.5423,-13.7901,6.6405,-14.8114,-11.7467,2.5536,21.962,
47.4993,-22.9828,-0.51062,-40.3487,225.209,206.8517,9.7047,-47.4993,-5.6178,0.51062,-5.6178,-26.7467,5.6188,9.7047,
45.4564,-37.9828,-1.5323,-49.5423,210.209,195.6156,1.5323,-51.5848,5.6183,-9.7042,-12.7689,-36.2633,8.683,18.8973,
44.4342,-27.0702,-2.5536,-50.5635,195.209,206.8512,2.5536,-41.3704,4.5961,-6.6395,-20.9408,-32.1773,17.8761,17.8761,
54.65,-12.0702,12.4464,-40.3487,180.209,215.0236,17.5536,-37.284,4.5966,-6.64,-7.6612,-30.1344,18.8978,2.8761,
69.65,-18.8978,24.005,-25.3487,165.209,210.9376,19.919,-35.2415,-7.6612,-4.5966,-5.6178,-15.1344,3.8978,8.6825,
77.6332,-30.6445,9.005,-31.6667,150.209,198.1687,4.919,-40.8598,-22.4726,-2.043,-15.323,-0.13436,-11.1022,23.6825,
72.0144,-31.1561,-1.5323,-46.4786,135.209,195.6146,13.7901,-46.4786,-13.7901,1.5323,-7.6617,14.8656,-3.5758,30.1339,
69.4613,-25.5373,1.0217,-42.9023,120.209,199.1909,12.2583,-42.9023,-12.2573,-1.0217,-1.0217,10.2148,-6.1289,16.3442,
76.1014,-22.9833,6.6395,-34.2198,105.209,195.6156,16.8548,-45.4564,-4.597,-5.6183,-0.51111,-3.5748,0.51111,18.8973,
74.569,-24.5156,9.1931,-39.8381,90.209,195.1045,18.3872,-51.0746,-8.1719,-4.0859,-9.1931,-18.5748,4.0859,18.3872,
68.4401,-22.4726,10.2148,-41.8811,75.209,201.2334,15.323,-41.8811,-3.0642,-3.0642,-16.3432,-25.5373,3.0642,14.3008,
61.8001,-32.1764,3.5758,-48.5211,60.209,189.4862,8.683,-52.607,1.5323,-15.8326,-24.0045,-25.0267,-1.5323,14.8114,
76.8001,-17.8756,5.6178,-37.284,52.6065,204.4862,14.8119,-50.564,-3.5753,-1.5319,-9.0045,-10.0267,1.5319,29.8114,
89.3804,-17.8761,10.7255,-32.1764,64.8648,202.7653,16.8548,-42.3917,-14.8114,-1.5323,0.51111,-0.51111,-2.5536,14.8114,
89.8915,-21.4509,19.4084,-19.4084,49.8648,193.0611,12.2578,-31.6662,-14.3013,-4.0859,-10.2153,4.0859,-4.0859,6.1294,
82.7409,-21.4509,13.279,-16.3437,59.2465,195.1045,16.3437,-38.8168,-13.279,-6.1294,-25.2153,1.0212,-1.0212,21.1294,
78.6549,-21.4509,13.279,-31.3437,74.2465,195.1045,31.3437,-53.1171,-8.1719,-12.2578,-18.3872,-13.9788,8.1719,28.6015,
79.6762,-16.3437,17.365,-46.3437,89.2465,183.868,40.8593,-54.1393,-1.0212,-17.3659,-3.3872,-28.9788,17.365,13.6015,
66.9073,-21.962,17.8761,-51.5848,104.2465,168.868,41.3704,-59.7571,6.6395,-22.9833,-6.6395,-42.3917,18.8973,-1.3985,
60.2678,-13.279,21.4509,-44.9453,119.2465,153.868,49.0312,-56.1818,4.0859,-20.4297,-4.0859,-54.1384,24.5156,-9.1931,
63.8431,-9.7047,9.7037,-52.607,134.2465,140.4546,50.564,-57.7142,-6.64,-29.1122,1.5319,-66.9078,24.005,-1.5319,
60.7789,-24.7047,-5.2963,-67.607,149.2465,125.4546,48.5211,-70.9932,5.6183,-37.2845,16.5319,-63.8431,26.0479,-16.5319,
45.7789,-24.5161,-18.3867,-77.6332,164.2465,124.6219,34.7304,-67.4184,18.3867,-22.2845,31.5319,-48.8431,32.687,-25.5373,
30.7789,-23.4944,-17.365,-80.6974,179.2465,110.3212,29.6237,-64.3537,16.3437,-16.3437,42.9028,-55.1601,36.7734,-22.4721,
29.1126,-34.2198,-6.6395,-80.1868,194.2465,95.3212,33.1986,-65.886,6.6395,-31.3437,27.9028,-70.1601,31.1561,-18.8973,
19.4079,-31.6667,-6.1289,-73.5473,185.9109,92.9557,28.601,-61.2895,6.1289,-46.3437,25.5373,-85.1601,28.601,-27.5808,
4.4079,-30.1344,-0.51062,-74.0584,170.9109,97.5518,27.0687,-66.9078,10.725,-54.65,34.2193,-98.574,39.3275,-42.5808,
4.0854,-34.7314,2.043,-68.4401,157.3094,82.5518,24.5151,-70.4831,-2.043,-60.2682,20.4292,-113.3859,39.8376,-57.5808,
11.7472,-33.1981,-1.5319,-64.8648,155.777,72.0149,28.0909,-70.9937,1.5319,-73.0367,15.8331,-127.1755,35.2415,-63.8431,
4.5966,-31.1556,-4.5966,-78.1438,140.777,84.2727,20.9403,-76.1009,4.5966,-62.8218,15.8331,-117.9819,25.0262,-73.0367,
17.3659,-25.5368,0,-65.3749,141.9874,99.2727,8.1719,-64.3537,0,-47.8218,20.4297,-102.9819,24.5156,-58.0367,
32.1773,-28.0914,0.51111,-50.5635,156.9874,93.4663,2.5536,-67.929,-0.51111,-39.327,17.8761,-87.9819,22.9833,-43.0367,
38.8164,-13.0914,-1.0217,-42.9023,171.9874,102.1488,7.1501,-57.2035,1.0217,-41.8811,16.3432,-72.9819,22.4726,-28.602,
31.1551,-4.597,-1.5323,-47.4998,160.8847,109.8101,7.6608,-44.4351,1.5323,-31.1561,21.962,-57.9819,33.1976,-39.328,
26.5581,-19.597,1.0212,-57.2035,145.8847,101.1271,-1.0212,-53.1176,2.0425,-30.645,21.4509,-45.9675,32.6875,-24.5156,
28.0909,-18.8978,10.725,-49.5428,130.8847,106.7449,-3.5753,-45.4569,3.5753,-22.9837,19.919,-35.2415,36.2628,-9.5156,
13.0909,-15.3225,16.3437,-52.0959,115.8847,91.7449,-4.0859,-49.0312,8.1719,-37.7951,18.3872,-50.2415,43.924,-24.5156,
2.5536,-10.7255,25.0267,-37.0959,100.8847,78.1438,-2.5536,-42.3922,16.8548,-24.0055,33.3872,-50.564,52.606,-27.0697,
5.6183,-20.9403,16.8548,-37.284,85.8847,75.0801,-10.7255,-39.327,17.8761,-9.0055,48.3872,-35.564,51.5858,-19.919,
4.5966,-26.0484,9.7037,-52.284,70.8847,63.8431,-4.5966,-38.3062,32.8761,-13.7906,63.3872,-37.2845,66.5858,-22.9837,
1.0215,-11.0484,7.1504,-56.1816,55.8847,65.3752,-1.0215,-23.4941,47.8761,-18.3865,78.3872,-52.2845,81.5858,-7.9837,
4.0862,-6.1291,13.2793,-41.1816,40.8847,51.0749,-10.2151,-24.5158,49.0314,-13.2793,81.7189,-58.225,76.6117,-4.0862,
11.2366,-18.3872,14.3003,-39.8381,28.6015,36.0749,-25.2151,-39.5158,34.0314,-11.2366,66.7189,-43.225,61.6117,-19.0862,
19.4079,-21.4514,17.3655,-38.8168,16.3432,21.0749,-40.2151,-41.8811,25.5373,-7.1501,52.0954,-28.225,50.0529,-10.2148,
21.4514,-20.4292,30.6455,-31.6657,1.3432,11.237,-42.9023,-43.9235,23.4948,-2.043,52.0964,-13.225,49.0317,2.043,
7.1501,-25.5373,23.4939,-28.602,-13.6568,6.1289,-57.9023,-53.1176,8.4948,1.0217,41.8811,-1.0217,34.0317,-10.2148,
4.0854,-20.4302,33.7092,-28.602,-28.6568,2.043,-53.1176,-43.924,23.4948,12.2583,56.8811,-2.043,49.0317,-14.3008,
1.0217,-15.3225,37.7951,-35.7522,-43.6568,1.0217,-58.2253,-30.645,38.4948,19.4079,71.8811,-1.0217,64.0317,-3.0642,
-2.5536,-19.919,22.7951,-40.3487,-37.284,2.5536,-73.2253,-38.3057,35.242,13.7901,78.1438,9.7042,52.607,-6.6395,
6.1289,-25.5373,11.2361,-45.967,-22.284,-7.1501,-61.2895,-44.9457,42.9023,8.1714,71.5038,-5.2958,62.3107,-21.6395,
18.898,-10.7257,13.7899,-51.585,-7.284,-12.7687,-46.2895,-29.9457,52.6068,10.7257,73.0364,-20.2958,77.3107,-18.8976,
29.6233,-4.0859,23.4948,-53.1171,7.716,-13.279,-51.0742,-29.6228,57.2035,4.0859,85.8051,-35.2958,84.7838,-18.3867,
42.3917,-1.5323,38.3057,-38.3057,22.716,-5.6183,-58.7354,-32.1768,64.8648,1.5323,100.8051,-29.1121,89.3804,-22.9833,
28.6018,-3.0644,23.4946,-46.9885,14.3005,-20.6183,-73.7354,-30.6447,57.2033,3.0644,108.278,-36.7736,91.9342,-37.7954,
32.6875,0,34.7309,-43.924,0,-22.4726,-76.6115,-23.4944,72.2033,18.0644,123.278,-21.7736,103.1705,-22.7954,
17.6875,-15,19.7309,-57.7142,-15,-21.962,-91.6115,-35.2415,57.2033,20.9403,109.8096,-6.7736,88.1705,-7.7954,
14.3005,-16.344,18.3869,-51.0744,-30,-8.1721,-94.9984,-20.2415,68.4394,34.7307,122.5787,-1.0215,96.0197,1.0215,
26.0477,-1.344,28.0907,-45.4561,-30.1341,-12.7687,-84.273,-20.9405,82.23,39.3272,135.3471,-7.661,110.8315,-1.5321,
17.3652,-9.1933,21.4511,-46.9885,-29.6235,-21.4511,-99.273,-35.9405,67.4186,34.7302,120.3471,7.339,95.8315,-14.301,
17.3655,-18.3872,22.4726,-51.0746,-44.6235,-31.6667,-100.1063,-32.6879,69.4613,32.687,116.4491,18.3867,93.9769,-17.3655,
14.8114,-17.8761,14.8114,-65.886,-49.5423,-44.4346,-101.6382,-32.1768,61.8001,22.9833,126.1538,5.6183,89.3804,-5.6183,
7.661,-20.9405,18.8976,-65.8863,-63.8433,-39.3272,-101.6384,-33.1983,75.0799,33.1983,141.1538,2.5538,101.6379,-2.5538,
9.7042,-14.8114,33.8976,-50.8863,-78.8433,-26.0479,-88.3587,-18.1983,90.0799,48.1983,156.1538,17.5538,116.6379,-9.7042,
6.1289,-8.1719,31.6662,-40.8598,-82.7409,-35.7522,-103.3587,-23.4944,75.0799,56.1818,141.1538,32.5538,101.6379,-6.1289,
1.0212,-16.3437,31.6662,-43.924,-83.7621,-48.01,-115.4283,-38.4944,60.0799,41.1818,126.1538,28.6015,86.6379,-1.0212,
0.51086,-12.7687,40.349,-38.306,-88.3589,-41.3702,-100.6167,-23.4944,70.9939,47.4996,141.1538,35.2418,90.4014,-0.51086,
-3.0644,-7.1504,39.8378,-30.6447,-103.3589,-48.0102,-94.9984,-10.2151,85.9939,57.2038,156.1538,40.8601,105.4014,3.0644,
-5.1074,-12.258,32.6872,-28.6018,-118.3589,-39.8383,-109.2997,-17.3652,71.5041,42.2038,146.0731,25.8601,96.0197,5.1074,
-5.1072,-9.1931,22.4731,-27.5798,-133.3589,-24.8383,-124.2997,-8.1719,56.5041,27.2038,131.0731,10.8601,81.0197,8.1719,
-4.0864,-21.4514,22.4726,-36.7739,-148.3589,-9.8383,-138.9227,-21.4514,41.5041,12.2038,116.0731,-2.043,66.0197,3.0642,
-4.5966,-36.2628,14.8119,-42.3912,-163.3589,5.1617,-153.9227,-34.2193,26.5041,-0.51062,101.0731,8.6825,51.0197,6.64,
-1.5323,-21.2628,18.8973,-27.3912,-178.3589,20.1617,-168.9227,-19.2193,11.5041,1.5323,86.0731,23.6825,36.0197,21.64,
-16.5323,-28.0909,11.7472,-30.1334,-193.3589,35.1617,-183.9227,-25.0262,4.5966,-4.5966,71.0731,25.0272,21.0197,33.1991,
-29.6237,-30.645,0,-40.8603,-208.3589,36.7734,-198.9227,-24.5166,0,10.4034,70.4821,40.0272,20.4297,34.7299,
-33.1981,-28.0909,-3.5753,-44.4346,-223.3589,31.1556,-193.5722,-24.005,3.5753,25.4034,82.2303,55.0272,24.005,22.9837,
-37.7946,-32.6875,-4.0859,-37.7946,-238.3589,29.6237,-198.1687,-29.6228,4.0859,29.6237,91.934,70.0272,15.3225,36.7744,
-37.7946,-36.7734,1.0212,-30.645,-253.3589,29.6237,-196.1258,-32.6875,-1.0212,34.7309,89.8915,85.0272,5.1072,51.7744,
-52.7946,-41.3699,-3.5753,-45.645,-268.3589,14.6237,-186.422,-35.2415,3.5753,19.7309,84.2727,70.0272,12.7684,41.3699,
-62.8213,-26.3699,-10.7259,-55.6712,-283.3589,14.8119,-186.4215,-20.2415,15.8331,10.7259,99.2727,55.0272,27.7684,30.1344,
-60.7789,-25.0267,-2.5536,-44.4351,-298.3589,2.5536,-191.5292,-22.9833,13.7901,17.8761,102.6594,48.5211,24.0045,21.962,
-46.9887,-34.7309,4.0859,-34.7309,-313.3589,-4.0859,-185.9114,-30.645,5.1072,24.5156,90.9118,63.5211,13.279,36.962,
-42.9023,-23.4939,-5.1077,-30.6445,-322.7902,5.1077,-179.782,-19.4079,14.3008,36.7739,105.2135,63.3329,28.279,51.962,
-45.9675,-18.3872,1.0212,-30.645,-331.9842,-1.0212,-183.8684,-19.4084,18.3862,32.6875,107.2565,55.1606,32.6875,58.2243,
-45.4559,-19.919,8.6825,-27.0697,-316.9842,1.5319,-197.6581,-15.8331,3.3862,18.8978,92.2565,56.6924,17.6875,43.2243,
-42.9033,-25.5373,2.043,-33.7092,-301.9842,7.1501,-195.105,-15.323,-2.043,23.4939,90.9123,54.1389,4.0854,34.7304,
-30.1339,-24.0045,-2.5536,-34.2198,-286.9842,10.7255,-185.3998,-19.9186,2.5536,38.4939,100.6169,69.1389,6.6395,38.3057,
-19.919,-12.7684,6.64,-28.0909,-271.9842,15.8331,-180.2926,-12.7684,-3.5753,36.2628,89.3799,84.1389,3.5753,42.3922,
-16.3442,-19.4079,12.2583,-41.8811,-256.9842,7.1501,-174.6748,-17.3655,-1.0217,21.2628,82.7404,69.1389,6.1289,39.8376,
-3.0642,-18.3867,5.1077,-43.9235,-241.9842,10.2148,-171.6102,-16.3432,-2.043,6.2628,96.0204,54.1389,6.1289,32.6879,
11.2366,-12.2578,-1.0212,-37.7946,-226.9842,11.2366,-165.4813,-19.4084,-4.0859,8.1719,97.0421,43.924,1.0212,17.6879,
26.2366,0.51111,13.7901,-30.1339,-211.9842,14.8114,-156.7988,-20.9408,-6.6395,-0.51111,89.3804,28.924,-0.51111,12.7689,
41.2366,15.5111,27.5803,-22.4731,-196.9842,27.5803,-154.2452,-13.279,-12.2578,-11.2366,82.7409,13.924,1.0212,10.2143,
56.2366,24.5156,41.8806,-13.279,-181.9842,29.6228,-139.2452,-5.1072,2.7422,-10.2153,89.8905,-1.076,16.0212,-3.0647,
54.649,16.8544,29.1122,-19.919,-166.9842,15.8331,-134.3261,-8.6825,-4.5966,-11.7472,85.294,4.5966,6.639,-8.6825,
42.3912,9.7037,17.8756,-33.1981,-151.9842,3.5753,-141.4763,-21.9625,-16.8544,-16.8544,75.0796,12.7684,-3.5753,3.5753,
37.7956,13.28,24.5156,-35.7522,-136.9842,-7.1506,-143.0081,-27.5803,-11.2366,-11.2366,74.569,16.3437,7.1506,18.5753,
22.7956,7.1501,12.2573,-31.6667,-123.6002,-18.3867,-158.0081,-26.5586,-10.2148,-7.1501,76.612,14.3008,10.2148,22.4726,
7.7956,3.0647,12.2578,-24.5156,-138.6002,-19.4084,-150.1588,-17.365,-3.0647,-6.1284,84.7834,18.3872,14.3013,24.5156,
8.1724,5.1077,18.3867,-21.4514,-153.6002,-27.5798,-155.2664,-16.3432,-13.2795,-5.1077,73.5473,20.4302,8.1724,29.6233,
-0.51062,7.6612,25.0262,-20.9403,-168.6002,-38.3062,-159.863,-17.8756,-5.6178,0.51062,78.1443,20.9403,15.8331,28.0909,
-15.5106,-6.1289,21.4514,-27.5808,-183.6002,-49.0317,-160.3741,-26.5595,6.1289,10.2148,90.9123,29.6233,10.2148,27.5798,
-30.5106,-7.6612,15.8331,-27.0697,-198.6002,-48.5206,-160.8847,-26.0484,7.6612,25.2148,102.6599,44.6233,7.6612,42.5798,
-40.3492,-10.7255,10.7255,-36.2633,-213.6002,-63.5206,-159.8635,-28.0914,19.9186,40.2148,109.8101,59.6233,22.6612,57.5798,
-52.0959,-5.1077,5.1077,-40.8593,-228.6002,-59.246,-152.2017,-14.3008,30.6445,49.0317,116.4501,74.6233,34.7304,72.526,
-57.2035,-7.1506,5.1072,-39.8381,-243.6002,-44.246,-145.0516,-5.1072,22.4731,43.924,114.4071,85.8056,30.645,84.7834,
-60.2678,-22.1506,13.2795,-39.8376,-258.6002,-59.246,-145.0511,-13.2795,19.4089,34.7314,110.3207,71.5048,32.6879,69.7834,
-75.2678,-13.7897,8.6825,-41.3704,-273.6002,-74.246,-146.5835,-8.6825,20.9403,19.7314,104.7024,56.5048,38.3062,54.7834,
-73.0362,-0.51062,17.8766,-34.2198,-288.6002,-77.1221,-131.5835,-3.5753,35.9403,4.7314,111.853,41.5048,50.564,40.3487,
-58.0362,-11.2366,26.5591,-28.6015,-284.9955,-76.6115,-123.6002,-12.2578,30.645,11.2366,114.4071,26.5048,49.0312,48.01,
-60.2678,-17.365,18.3872,-35.7522,-269.9955,-85.8051,-138.6002,-15.3225,15.645,26.2366,109.2989,41.5048,34.0312,43.924,
-72.5256,-18.3867,12.2583,-49.0317,-274.7807,-91.934,-143.0086,-12.2583,25.5373,41.2366,104.1923,56.5048,25.5373,46.9882,
-69.4613,-11.237,9.1936,-44.9457,-289.7807,-86.8268,-141.9874,-9.1936,25.5373,56.2366,102.1488,71.5048,28.601,61.9882,
-72.5256,-12.2583,12.2583,-44.9457,-304.7807,-101.8268,-143.0086,-21.4514,20.4302,49.0317,99.0841,78.6545,33.7092,70.4826,
-80.6974,-15.3225,15.3225,-48.01,-317.683,-112.3636,-150.1588,-17.365,23.4944,37.7956,94.9987,74.569,29.6237,55.4826,
-79.6767,-14.3008,10.2148,-45.9675,-303.3827,-105.2135,-150.1592,-10.2148,27.5798,36.7729,90.9123,78.6545,23.4939,51.0742,
-68.9502,-9.7042,9.7042,-47.4988,-301.8499,-113.8955,-138.4116,-19.9186,25.0267,30.1339,92.4451,63.6545,30.1339,41.3704,
-69.972,-6.64,6.64,-42.3917,-301.8499,-120.0249,-147.6052,-15.8331,16.8544,33.1981,87.3374,55.6712,29.1122,42.3922,
-71.5043,-10.2148,10.2148,-29.6233,-298.275,-122.579,-150.1588,-15.322,25.5373,37.7951,82.7404,62.3107,24.5161,57.3922,
-76.6115,-10.2148,10.2148,-33.7092,-310.5328,-127.6861,-150.1588,-27.5798,18.3867,27.5798,76.612,59.246,14.3008,60.2682,
-81.2085,-9.7042,9.7042,-42.3917,-325.5328,-117.9824,-153.7346,-20.9408,10.7255,29.1117,77.1226,59.7566,17.8761,49.5423,
-75.5902,-16.3437,12.2578,-49.0317,-329.9413,-123.6002,-151.1805,-12.2578,22.4721,36.7734,83.7621,58.2243,20.4297,53.1171,
-66.3971,-7.1506,7.1506,-38.8168,-314.9413,-132.7938,-153.2235,-11.2366,17.365,45.9665,76.6115,67.4184,14.3003,68.1171,
-71.5043,-6.1289,6.1289,-40.8598,-307.4682,-135.858,-146.0728,-20.4302,20.4302,41.8811,75.5907,63.332,25.5373,64.3542,
-78.1443,-11.7472,11.7472,-54.65,-316.1511,-133.3044,-131.0728,-19.919,33.1981,32.1768,88.3587,48.332,31.1556,49.5418,
-78.6549,-9.1936,7.1501,-52.0959,-313.5975,-131.7721,-125.6432,-7.1501,30.6445,30.6445,94.9982,33.332,28.602,59.246,
-77.1226,-5.6178,5.6178,-52.6065,-327.3872,-138.4116,-125.1325,-8.6825,37.284,35.2415,95.5093,31.1556,38.3062,63.8431,
-70.9937,-3.5753,3.5753,-57.7142,-320.2371,-133.3044,-134.3261,-14.8119,32.1768,40.3487,88.3587,43.4134,29.1121,74.0574,
-60.2678,-8.1724,8.1724,-56.1818,-305.2371,-135.858,-135.858,-13.2795,25.5373,30.6445,86.8263,45.967,21.4514,68.4401,
-60.2682,-12.2578,12.2578,-61.2895,-290.2371,-150.1593,-130.7508,-21.4519,25.5368,19.4084,84.7834,36.7734,28.6015,53.4401,
-68.4401,-3.0647,3.0647,-63.3324,-303.3827,-149.1375,-133.8155,-19.4084,19.4084,28.6015,75.5902,41.8806,19.4084,56.1818,
-63.3324,-9.1931,9.1931,-53.1171,-294.1886,-137.901,-132.7933,-12.2578,16.3437,38.8168,66.3971,56.8806,13.279,61.289,
-48.3324,-10.2148,21.4514,-39.8376,-279.1886,-122.901,-131.7721,-7.1501,7.1501,38.8164,64.3542,71.8806,18.3867,69.4613,
-36.7739,-3.0642,19.4079,-42.9023,-264.1886,-124.6214,-123.6002,-12.2573,3.0642,23.8164,59.246,56.8806,14.3008,62.3107,
-32.6879,2.043,18.3867,-36.7739,-249.1886,-128.7074,-118.4925,-18.3867,7.1501,8.8164,50.0529,41.8806,-0.69924,47.3107,
-23.4944,13.279,16.3437,-21.7739,-234.1886,-113.7074,-125.6432,-5.1072,3.0647,18.3872,53.1171,56.8806,-3.0647,62.3107,
-30.645,1.0212,5.1072,-34.7309,-219.6201,-112.3641,-132.7938,-12.2578,-1.0212,28.6015,49.0312,71.8806,3.0647,73.5468,
-28.0909,4.5966,4.5966,-41.3709,-206.8517,-109.8105,-130.2402,-13.7906,-4.5966,19.919,38.3053,56.8806,4.5966,59.7571,
-14.3003,19.5966,9.1931,-35.7522,-191.8517,-102.1488,-122.5785,-3.0647,-5.1072,12.2578,34.7309,42.9028,3.0647,44.7571,
-9.1936,14.3008,13.2795,-30.6445,-176.8517,-99.0846,-115.4283,1.0217,-3.0642,13.2795,36.7739,50.0529,-1.0217,57.2035,
-10.7255,9.7042,5.6183,-27.0692,-168.0353,-89.3804,-121.0466,5.6183,-6.6395,8.682,41.3704,48.5201,-5.6183,72.2035,
-1.0212,17.365,7.1506,-31.6662,-164.46,-93.9769,-109.2994,4.0859,-1.0212,-3.0647,46.9887,42.9028,1.0212,62.3112,
-0.51062,15.8331,4.5966,-36.2628,-158.8417,-99.5952,-103.6812,6.639,-9.7047,0.51062,32.1768,55.6712,-4.5966,54.65,
-6.1289,11.237,6.1289,-28.601,-149.137,-89.8905,-105.213,10.2158,-12.2573,15.5106,23.4948,70.6712,-6.1289,69.65,
-4.5966,8.6825,16.8544,-27.0697,-144.541,-88.3592,-99.5952,4.5966,-5.6188,22.9837,37.284,70.9937,-4.5966,78.1433,
-4.5966,12.7684,12.7684,-36.2628,-149.6481,-90.4021,-104.7029,4.5966,-14.8119,7.9837,38.3053,55.9937,-17.8766,72.0149,
7.1501,17.3655,27.5798,-29.6233,-144.0299,-93.9769,-90.9127,5.1077,-5.1077,-7.0163,32.6879,40.9937,-9.1936,62.3107,
10.2148,12.2583,35.7526,-21.4514,-137.901,-98.0629,-84.7834,2.043,-2.043,-3.0642,28.602,36.7739,-5.1077,55.1611,
-4.7852,7.1511,21.4514,-29.6233,-152.901,-96.0199,-92.9552,5.1077,-12.2573,11.237,25.5373,51.0751,-13.2795,65.3754,
-4.597,14.8114,27.0692,-28.0914,-167.901,-91.4234,-90.4021,4.597,-10.7255,26.237,30.1339,66.0751,-7.6617,80.1863,
-0.51062,25.0272,32.1768,-13.7897,-164.9701,-89.3799,-93.4658,0.51062,-15.8331,37.285,25.0272,81.0751,-9.7037,76.1009,
1.0217,15.323,31.6667,-16.3432,-163.4383,-98.0629,-86.8263,-1.0217,-6.1289,26.5586,27.5808,80.6979,-6.1289,61.1009,
-1.0217,2.043,26.5586,-31.3432,-178.4383,-113.0629,-96.0199,1.0217,-2.043,11.5586,27.5808,65.6979,-12.2573,46.1009,
-5.1072,17.043,25.5368,-31.6662,-193.4383,-117.4713,-105.2135,5.1072,-3.0647,3.0647,31.6662,50.6979,-10.2153,31.1009,
-11.2366,19.4084,28.6015,-33.7097,-208.384,-124.6219,-94.9987,-3.0647,1.0212,-1.0212,33.7087,35.6979,4.7847,16.1009,
-4.597,6.6395,26.0479,-39.327,-214.0018,-129.2185,-92.4446,-0.51111,-7.6608,4.597,25.0267,27.0692,0.51111,21.962,
5.6183,5.6183,32.1773,-29.1126,-201.744,-134.3261,-97.5523,-5.6183,-17.8761,17.8761,10.7255,42.0692,-14.4889,34.2198,
20.4297,20.6183,47.1773,-14.1126,-186.9322,-119.5138,-88.8693,-12.2578,-25.5368,21.4519,4.0859,57.0692,-26.5581,49.2198,
22.9833,29.1126,40.3492,-0.51111,-180.2931,-104.5138,-88.3592,-10.7255,-36.2633,8.683,0.51111,59.7566,-29.1126,51.5848,
14.8114,15.8326,35.241,-15.5111,-191.5292,-110.8318,-86.3157,-2.5536,-21.2633,2.5536,11.7467,44.7566,-20.9408,36.5848,
-0.18862,12.2578,33.7087,-27.5803,-206.5292,-125.8318,-83.7621,0,-6.2633,1.0212,19.4084,32.6875,-7.1506,34.7309,
-15.1886,11.7467,29.1126,-30.1339,-221.5292,-128.1972,-77.1226,-10.7255,-1.5323,2.5536,26.0479,31.1551,1.5323,41.3704,
-0.51062,9.7037,32.1768,-22.9837,-206.8517,-121.0466,-73.0362,-9.7047,0.51062,14.8119,33.1981,46.1551,-7.6612,36.2628,
1.5319,8.6825,24.005,-28.0909,-209.9164,-123.0896,-88.0362,-1.5319,-10.7259,16.8544,20.9403,61.1551,-21.9625,30.1334,
-8.6825,3.5753,27.0697,-33.1981,-217.0665,-128.1968,-82.2298,2.5541,-2.5541,15.8331,22.9837,60.7784,-7.6612,36.2628,
-15.8331,3.5753,15.8331,-37.284,-212.9801,-132.2827,-70.9927,-0.51062,0.51062,19.919,25.0272,45.7784,-9.7037,28.0909,
-5.1072,16.3437,12.2578,-36.7734,-213.4912,-133.815,-63.3324,-7.1506,5.1072,24.5156,28.6015,45.9665,-7.1506,19.4084,
-1.5323,12.7689,11.7477,-46.4776,-219.109,-136.3686,-69.972,-16.8539,1.5323,18.8983,25.0267,41.3704,-2.5536,25.0267,
-1.0212,9.1941,13.28,-40.8593,-204.2976,-122.5785,-69.4609,-1.8539,-8.1719,23.4944,20.4297,52.0959,-11.2366,40.0267,
5.6178,1.5319,16.8544,-38.3062,-200.7228,-125.1325,-63.8431,-1.5319,-17.8766,21.9615,5.6178,67.0959,-26.2366,34.2203,
20.6178,16.5319,31.8544,-23.4948,-185.7228,-114.4071,-62.3107,-3.0642,-21.4514,35.7517,3.0642,82.0959,-33.7092,49.2203,
35.2415,21.9615,39.3275,-15.8331,-170.7228,-114.9177,-61.8006,-7.6612,-28.0909,24.005,7.6612,76.1009,-34.2203,52.6065,
33.7097,27.5803,41.8815,-20.4297,-165.4813,-116.4496,-48.01,-3.0647,-15.3225,9.005,17.365,61.1009,-21.4509,37.6065,
21.962,20.9408,26.8815,-35.4297,-180.4813,-119.0036,-63.01,-4.597,-14.8114,4.597,8.683,46.1009,-24.0055,33.1986,
6.962,17.3655,14.3008,-43.9245,-195.4813,-126.6649,-64.3542,-10.2148,-6.1289,18.3867,12.2583,37.7951,-14.3008,26.5586,
5.6183,22.9842,7.6617,-42.3917,-181.3139,-128.1968,-57.7142,-11.7467,-5.6183,17.8761,18.8983,39.328,-9.7042,15.8336,
20.6183,18.3877,2.043,-48.0095,-166.3139,-113.3849,-53.1166,-3.0642,-2.043,17.3655,22.4736,48.0104,-5.1067,30.6455,
35.2415,6.64,8.6825,-60.7784,-172.1208,-120.0249,-54.65,-11.7472,-6.64,10.7259,17.8766,46.4781,-11.7472,31.1556,
20.2415,19.4084,7.1506,-53.1171,-164.4595,-122.5785,-61.289,-7.1506,-12.2578,9.1941,22.4731,46.9887,-18.3862,23.4944,
14.3008,18.3867,2.043,-55.1601,-154.2447,-117.4708,-55.1601,-5.1077,2.043,-2.043,30.6445,31.9887,-14.3008,10.2148,
29.3008,17.3655,10.2148,-51.0751,-139.2447,-103.1705,-45.967,-5.1077,5.1077,-7.1511,29.6233,16.9887,-12.2583,10.2148,
44.3008,32.3655,23.4948,-36.0751,-124.2447,-88.1705,-39.8376,3.0642,-7.1501,-3.0642,17.3655,12.2583,-10.2148,14.3008,
59.3008,47.3655,38.4948,-21.0751,-109.2447,-73.1705,-26.5591,3.0647,-7.1506,-3.0647,10.2153,27.2583,-6.1294,19.4084,
74.3008,51.5853,42.3922,-6.0751,-94.2447,-58.1705,-26.0475,0.51062,-18.8978,-12.7684,-3.5753,29.1121,-20.9403,26.0484,
89.3008,64.8648,43.4129,7.6608,-79.2447,-43.1705,-20.9408,-1.5323,-28.0914,-27.7684,-12.7689,14.1121,-33.1986,13.7901,
104.3008,79.8648,58.4129,19.4079,-64.2447,-28.1705,-5.9408,13.2795,-24.5161,-22.4726,-6.1289,-0.88785,-26.5586,1.0217,
119.3008,87.3369,53.6282,9.7042,-49.2447,-13.1705,-8.683,17.8761,-34.2198,-16.8548,-13.7901,5.6183,-35.242,-11.7477,
134.3008,79.6757,46.9882,7.1501,-34.2447,-18.3867,-6.1289,7.1501,-34.7304,-23.4939,-21.4514,6.1289,-41.8811,-8.1724,
145.5622,74.0579,45.4564,14.8114,-19.2447,-20.9408,-17.8761,1.5323,-49.5423,-35.2411,-36.4514,2.5536,-51.5848,-1.5323,
152.2017,75.5902,52.0959,19.4084,-4.2447,-16.3437,-11.2366,6.1294,-44.9453,-31.6662,-37.7946,-1.0212,-42.9028,1.0212,
150.6694,72.0154,46.4776,6.6395,10.7553,-19.9186,-6.6395,5.6183,-40.3492,-29.1126,-31.1551,0.51111,-43.4129,-0.51111,
135.6694,70.4821,33.7087,0,25.7553,-24.5156,-21.6395,5.1072,-53.1181,-35.7522,-38.8168,1.0212,-51.0746,0,
129.218,67.929,41.3699,5.6178,40.7553,-29.1131,-19.919,9.7037,-43.4134,-33.1991,-35.2415,-4.5966,-36.0746,4.5966,
130.7503,70.4826,37.7951,1.0217,55.7553,-25.5373,-14.3008,7.1501,-42.9023,-30.6445,-33.7092,-1.0217,-37.7951,9.1936,
122.0674,74.0574,35.2415,-3.5753,59.7571,-18.8978,-19.919,3.5753,-46.4781,-35.2415,-33.1991,3.5753,-43.4134,14.8109,
123.6002,76.6115,43.924,1.0212,44.9453,-26.5591,-24.5156,10.2153,-39.8381,-29.6228,-30.645,-1.0212,-31.6662,17.365,
131.7721,78.6549,42.9028,7.1506,43.924,-36.7734,-21.4519,8.1719,-35.7522,-20.4297,-24.5156,-7.1506,-28.6015,7.1506,
129.7291,78.6545,50.0529,9.1936,39.8386,-39.8376,-6.4519,2.043,-22.4726,-23.4939,-10.2148,-6.1289,-25.5373,1.0217,
116.9607,75.0791,42.3917,4.597,28.0904,-37.2845,-4.597,1.5323,-27.0692,-18.8973,-3.5748,-1.5323,-26.0479,16.0217,
112.8747,63.8426,29.1126,-5.6183,13.0904,-44.4351,-17.8761,4.597,-32.1773,-4.597,-5.6183,9.7042,-24.0055,13.7901,
115.939,59.7571,39.3275,-6.64,-1.9096,-40.3487,-8.6825,15.8331,-17.1773,3.5753,-3.5753,24.7042,-11.7472,11.7472,
114.9182,72.0154,42.3917,-3.5748,-5.6183,-26.0479,-7.6608,21.962,-12.7679,-1.5323,1.5323,24.0055,-10.7255,26.7472,
129.9182,80.1868,42.3922,-5.6178,3.5753,-28.0909,-7.6612,15.8331,-9.7037,-14.8109,8.6835,9.0055,-8.6825,21.9625,
144.9182,85.8046,43.924,3.0647,18.5753,-19.4084,-10.2153,21.4509,-17.3659,-16.3437,-3.0647,-5.1081,-14.3013,9.1931,
159.9182,89.3804,42.3917,3.5748,33.5753,-4.4084,-6.6395,21.962,-32.3659,-28.0914,-18.0647,-11.7467,-29.3013,13.7901,
174.9182,94.9982,43.9235,-6.1289,48.5753,2.043,3.0642,6.962,-46.9892,-43.0914,-33.0647,-26.5586,-44.3013,-1.2099,
189.9182,109.2994,39.8376,-2.043,63.5753,13.2795,2.043,12.2573,-45.967,-49.0317,-29.6233,-20.4302,-41.8811,-14.3008,
198.6793,98.5735,34.2198,-1.5323,78.5753,1.5323,2.5536,8.683,-54.6495,-57.7142,-44.6233,-35.4302,-42.3917,-19.9195,
209.9164,96.5305,38.3053,0.51062,93.5753,-0.51062,12.7684,2.5531,-61.8006,-72.7142,-55.6712,-50.4302,-45.4569,-26.0484,
213.4917,105.214,38.8168,-4.0859,108.5753,6.1294,12.2578,4.0859,-59.2465,-87.7142,-54.1384,-65.4302,-44.9453,-41.0484,
209.4048,108.2777,53.1171,0,123.5753,0,20.4297,4.0859,-49.0312,-76.6115,-45.9675,-76.6115,-39.8381,-43.924,
207.8729,115.939,59.7571,7.6612,138.5753,-7.6612,31.1556,10.7259,-48.5206,-61.6115,-39.3275,-61.6115,-36.2628,-28.924,
217.0665,123.0901,62.8213,4.597,153.5753,-4.597,46.1556,19.9195,-33.5206,-46.6115,-24.3275,-46.6115,-21.2628,-24.0045,
223.1949,125.1325,60.7789,5.6183,168.5753,-5.6183,50.5635,22.9833,-18.5206,-31.6115,-9.7042,-31.6115,-12.7689,-22.9833,
214.0023,119.0036,59.7571,8.6825,183.5753,-20.6183,43.4134,16.8544,-29.1121,-35.2415,-8.6825,-32.1768,-17.8756,-19.919,
205.83,110.8313,60.7789,1.5323,198.5753,-35.6183,49.5423,9.7042,-19.9186,-37.2845,-4.597,-43.4129,-2.8756,-22.9833,
195.6151,104.7024,45.7789,-8.6825,213.5753,-45.4559,50.564,16.8544,-17.8756,-43.4134,-1.5319,-53.6277,1.5319,-30.1344,
180.6151,92.9552,35.7522,-20.4297,201.2339,-60.4559,50.0534,14.3013,-19.4084,-52.0959,0,-65.3754,0,-36.7734,
167.0136,98.574,45.4559,-17.8756,186.2339,-63.8431,45.4559,10.7259,-17.8756,-37.0959,-2.5541,-50.3754,2.5541,-21.7734,
160.8852,100.6165,33.1981,-25.0262,171.2339,-58.7359,30.4559,3.5753,-32.1768,-33.1981,-17.5541,-35.3754,-12.4459,-6.7734,
160.3741,96.0204,35.7517,-40.0262,156.2339,-64.3542,28.602,6.1289,-25.5373,-35.7517,-15.322,-20.3754,-10.2148,-3.0642,
145.3741,93.4658,38.3053,-55.0262,141.2339,-73.0367,21.9615,13.7897,-14.8119,-29.1131,-5.6188,-11.7472,-0.51062,0.51062,
130.3741,78.4658,27.0697,-65.8865,126.2339,-86.3162,11.7472,0.51062,-6.64,-37.285,-1.5328,-25.0262,-0.51062,5.6178,
134.8368,72.5265,34.7309,-69.4609,111.2339,-72.5256,15.3225,0,-2.0425,-35.7522,4.0859,-13.279,0,9.1941,
134.3261,85.2949,43.4134,-57.7137,96.2339,-57.5256,17.8766,15,-10.725,-34.2193,0.51062,-18.8968,-0.51062,10.7259,
121.0466,84.2732,45.4564,-44.4342,81.2339,-67.929,26.0479,18.8983,-7.6608,-39.327,-2.5536,-33.8968,4.597,2.5536,
114.9172,82.2298,41.3704,-36.2633,66.2339,-63.8431,14.8114,18.8973,-7.6608,-30.1339,-1.5323,-18.8968,1.5323,10.7255,
104.7024,83.2515,38.3062,-32.1768,51.2339,-55.6712,1.5319,18.8978,-11.7472,-31.1556,-1.5319,-9.7037,1.5319,25.7255,
100.1063,82.7404,36.7739,-26.5586,36.2339,-64.3537,5.1077,18.3867,-9.1936,-40.8598,-5.1077,-24.7037,6.1289,35.7526,
93.9769,77.6332,32.688,-29.6233,21.2339,-69.4613,3.0642,18.3867,-7.1501,-33.7092,-3.0642,-21.4514,7.1501,35.7517,
87.3374,73.0371,28.0909,-34.2193,6.2339,-75.0791,0.51062,16.8544,-4.5966,-27.0697,-0.51062,-13.7897,6.64,35.2415,
82.2303,67.929,24.005,-38.3062,-8.7661,-80.1868,-1.5319,15.8331,-2.5541,-19.919,1.5319,-5.6178,7.6612,35.2415,
72.526,60.2682,16.3442,-45.967,-23.7661,-89.891,-7.1501,11.2361,-4.0854,-17.3655,1.0217,-1.0217,5.1077,32.6879,
61.8001,50.5635,7.6608,-53.6282,-38.7661,-99.5952,-13.7901,6.6395,-6.6395,-14.8114,-1.5323,2.5536,1.5323,28.0914,
54.1389,44.9457,1.0217,-59.246,-53.7661,-107.2565,-18.3867,4.0864,-5.1077,-9.1936,1.0217,10.2148,-1.0217,26.5586,
64.3537,46.9887,9.1931,-57.2031,-68.7661,-109.2994,-4.0859,0,-2.0425,-5.1072,4.0859,13.28,0,15.3225,
78.6549,51.0746,20.4297,-51.0746,-83.7661,-104.1918,1.0212,5.1072,-1.0212,-17.365,-3.0647,10.2143,-6.1294,27.5803,
79.6757,54.1389,21.4514,-38.8164,-98.7661,-100.1058,-2.043,5.1077,1.0217,-13.2795,-1.0217,8.1714,-3.0642,42.5803,
64.6757,45.4564,13.7901,-46.4776,-113.7661,-113.896,-9.7042,-2.5536,-2.5536,1.7205,2.5536,21.962,-4.597,50.5635,
54.1393,38.8168,0,-55.1596,-128.7661,-114.4066,-13.279,0,-2.0425,16.7205,6.1294,36.962,-13.279,40.8603,
47.4993,30.1344,-13.7897,-70.1596,-143.7661,-119.0036,-8.6825,-15,12.7684,31.7205,8.6825,51.5853,-11.7472,32.1768,
41.8811,29.6233,-21.4514,-75.5902,-158.7661,-117.4713,-15.322,-11.2361,7.1501,38.8164,8.1714,46.9882,-7.1501,38.8164,
48.5211,30.1339,-18.8973,-61.8001,-173.7661,-114.9177,-26.0479,3.7639,-6.6395,34.2198,6.6395,56.6929,-8.683,46.4776,
63.3324,24.5156,-3.8973,-53.1181,-188.7661,-123.6002,-14.3013,-1.0212,-7.1506,19.2198,4.0859,50.0524,-15.3225,39.8381,
68.4396,33.7087,7.1506,-49.0322,-203.7661,-117.4713,-7.1506,-4.0859,-9.1941,21.4509,4.0859,59.2465,-18.3872,43.924,
58.2248,35.7517,-1.0217,-53.1176,-218.7661,-121.5572,-10.2148,-9.1936,1.0217,17.3655,10.2148,49.0317,-8.1724,38.8164,
55.6717,28.0914,-6.6395,-58.7354,-233.7661,-132.2827,-8.682,-17.8761,6.6395,2.5536,17.8761,34.0317,-2.5536,39.328,
55.1601,20.4302,-10.2148,-73.7354,-248.7661,-138.9227,-8.1724,-15.322,5.1077,13.2795,23.4939,31.6657,-5.1077,38.8164,
49.0312,9.1931,-10.2153,-88.7354,-263.7661,-144.0299,-15.3225,-20.4297,7.1506,19.4084,14.3013,24.5156,-7.1506,23.8164,
52.0959,19.4084,-6.1284,-97.0412,-278.7661,-129.0299,-19.4084,-11.2366,8.1719,14.3013,5.1072,24.5156,-5.1072,27.5803,
58.7359,18.8978,-1.5319,-88.3587,-290.6138,-125.1325,-9.7037,-7.6612,6.64,9.7037,1.5319,34.2203,-4.5966,42.5803,
62.8218,12.7684,3.5753,-97.5523,-286.5279,-134.3261,-8.6825,-15.8331,-0.51062,9.7037,0.51062,41.3699,-10.7259,38.3053,
63.3324,18.3872,7.1506,-87.848,-272.7377,-125.6432,-10.2153,-14.3013,-5.1072,7.1506,5.1072,28.6015,-9.1931,40.8593,
62.3107,19.4089,12.2583,-73.5473,-278.8666,-126.6644,-2.043,-7.1501,-1.0217,1.0217,9.1936,13.6015,-2.043,41.8811,
67.9285,29.1126,12.7689,-72.0154,-280.399,-126.1543,-7.6617,-2.5536,-4.597,2.5536,9.7042,27.0692,-7.6617,42.3917,
77.6332,32.688,19.4089,-77.6332,-265.399,-114.4066,-6.1289,-3.0642,-3.0642,3.0642,18.3867,33.7092,-5.1077,46.9882,
72.0154,21.962,12.7689,-76.1009,-250.399,-113.896,-3.5748,-7.6608,-2.5536,2.5536,16.8548,32.1773,-9.7042,52.607,
63.8431,25.0262,1.5319,-61.1009,-249.754,-102.6594,-1.5319,-2.5541,-2.5541,13.7897,10.7259,43.4134,-9.7037,55.6712,
60.2687,24.5166,4.0859,-65.3749,-260.4794,-111.3419,-4.0859,-7.1497,-5.1072,6.1294,4.0859,28.6025,-8.1719,40.6712,
64.3537,27.5803,10.2143,-56.1818,-251.2868,-114.4071,-10.2153,-8.1719,-9.1941,8.1719,8.1719,31.6662,-11.2366,42.9018,
58.7359,24.005,7.6612,-48.5206,-256.9046,-107.7671,-9.7037,-7.6612,-7.6612,8.6825,11.7472,31.1556,-11.7472,40.3487,
63.8436,26.0479,8.683,-55.6707,-263.0335,-102.6594,-12.7689,-5.6183,-1.5323,1.5323,14.8114,17.8761,-5.6183,38.3057,
75.0791,35.241,7.6608,-51.5848,-248.0335,-100.6165,-20.9408,-6.6395,-5.6183,4.597,12.7689,24.0055,-4.597,49.5423,
69.4618,31.6662,8.1728,-38.8159,-247.1999,-100.1054,-20.4297,-10.2143,-4.0859,4.0859,11.2366,39.0055,-8.1719,46.9887,
54.4618,28.0904,1.5323,-38.3057,-257.9263,-85.1054,-25.0267,-1.5323,-4.597,3.5748,8.683,45.4564,-11.7477,42.3917,
51.0746,27.5803,0,-50.0534,-258.437,-75.5902,-22.4731,6.1284,0,0,7.1506,32.6875,-11.2366,51.0746,
53.1176,19.4089,4.0864,-51.0742,-248.2216,-83.7616,-21.4504,-4.0854,2.043,-2.043,10.2158,36.7739,-10.2148,61.2895,
53.1171,24.5156,1.0212,-36.0742,-243.1145,-81.7191,-24.5156,-1.0212,-1.0212,12.2578,20.4297,51.7739,-2.0425,66.3971,
49.0317,18.3867,-4.0864,-45.967,-258.1145,-92.9557,-25.5373,-8.1724,2.043,17.3655,16.3432,43.9235,-2.043,51.3971,
54.1389,21.4514,1.0217,-53.1176,-268.6518,-92.9557,-29.6233,-1.0217,-5.1077,26.5586,3.0642,53.1176,-15.322,39.8376,
50.5635,22.9833,-1.5323,-46.4776,-253.6518,-93.4663,-29.1126,5.6183,-6.6395,25.0267,1.5323,61.8001,-18.8973,48.5211,
46.9877,10.2143,-4.0859,-48.01,-257.4157,-99.0846,-21.4519,-9.1941,5.1072,17.365,4.0859,54.1384,-6.1294,43.924,
51.5853,20.9403,-4.5966,-53.6287,-254.8616,-90.4021,-24.005,-9.7047,8.6825,27.0697,3.5753,53.6277,-3.5753,48.5206,
55.1601,18.3867,-6.1289,-59.246,-254.351,-104.1918,-28.602,-9.1936,11.2361,30.6445,6.1289,50.0529,-12.2583,43.9235,
61.8001,7.6617,-7.6608,-52.607,-255.8829,-116.9607,-32.1764,-5.6183,5.6183,30.1339,9.7042,47.4998,-13.7901,37.2845,
67.4179,15.322,-3.0642,-40.8598,-252.3081,-101.9607,-27.5808,-3.0642,3.0642,30.6445,8.1714,38.8164,-4.0864,45.967,
68.9502,22.9837,4.5966,-37.284,-253.8399,-87.3374,-20.9403,-8.6825,-1.5319,15.6445,1.5319,29.1122,-5.6178,49.5418,
73.5473,33.7092,5.1077,-30.6445,-258.437,-92.9557,-26.5586,2.043,-6.1289,6.1289,-2.043,40.8598,-9.1936,60.2682,
67.4179,24.5161,2.043,-37.7951,-265.5876,-107.9557,-29.6233,-2.043,5.1077,3.0642,-4.0864,30.6445,-2.043,45.2682,
63.3329,18.3867,2.043,-40.8598,-250.5876,-114.4066,-28.602,-12.2573,8.1724,4.0864,-2.043,15.6445,-4.0854,30.2682,
70.4831,24.5156,0,-39.8381,-243.1145,-106.2347,-30.645,-7.1506,0,5.1072,3.0647,14.3013,-10.2143,26.5591,
72.0149,27.0697,1.5319,-46.4781,-258.1145,-110.8318,-28.0909,-0.51062,-1.5328,3.5753,0.51062,17.8756,-3.5753,41.5591,
69.9715,29.1122,-0.51062,-37.285,-245.6685,-102.6599,-29.1131,8.6825,-4.5966,7.6612,0.51062,27.0697,-5.6188,49.5418,
74.0584,24.005,-0.51062,-30.1334,-231.3668,-108.7883,-27.0687,0.51062,-6.639,2.5541,1.5328,27.0697,-13.7897,36.2628,
88.3587,37.285,14.4894,-27.0687,-224.2167,-108.7883,-21.9615,-0.51062,-0.51062,9.7047,0.51062,29.1131,-5.6178,42.3922,
80.1868,40.3487,7.6612,-29.1122,-215.0236,-109.8101,-27.0697,0.51062,-8.6825,8.6825,-7.6612,26.0484,-0.51062,43.4134,
70.4831,27.5803,0,-30.645,-205.3193,-115.4283,-17.365,-10.2143,-1.0212,0,0,19.4084,5.1072,32.6875,
63.8436,25.0267,-1.5323,-36.2623,-214.0018,-114.9172,-18.8973,-6.6395,-5.6183,1.5323,1.5323,18.8973,1.5323,28.0914,
59.7576,25.0267,1.5323,-40.3492,-229.0018,-119.0036,-24.0055,-2.5536,-5.6183,3.5748,-0.51111,16.8548,0.51111,18.8973,
60.2678,19.4084,0,-42.9028,-226.7712,-127.6866,-24.5156,-15.3225,2.0425,5.1072,0,16.3437,0,23.4944,
63.8431,25.0262,-4.5966,-32.1768,-211.7712,-120.0254,-22.9837,-10.7259,-0.51062,12.7684,0.51062,21.9615,0.51062,38.4944,
63.8436,30.1339,2.5536,-31.1551,-209.9159,-119.0032,-20.9398,-3.5748,-3.5748,1.5323,2.5536,10.7255,-1.5323,42.3917,
62.3102,29.6228,8.1719,-37.7956,-204.2981,-118.493,-25.5378,0,-12.2578,0,2.0425,15.3225,-13.28,34.7299,
58.7354,24.0055,4.597,-36.2623,-203.787,-116.9602,-25.0267,0.51111,-9.7042,13.7901,-0.51111,30.3225,-12.7689,47.4998,
57.7142,20.9408,3.5748,-30.1339,-216.0448,-114.9177,-20.9408,-4.597,-1.5323,17.8761,1.5323,45.3225,-6.6395,56.6929,
57.7147,19.919,2.5541,-36.2628,-216.0448,-111.853,-24.005,-2.5541,-8.6825,11.7472,3.5753,39.3275,-10.7259,46.4781,
56.1823,16.3442,10.2158,-41.8811,-215.5337,-111.3419,-23.4939,-2.043,-10.2148,12.2583,2.043,36.7739,-9.1926,42.9033,
60.2682,25.5373,12.2583,-26.8811,-203.2764,-105.213,-35.7517,6.1289,-12.2573,18.3867,-6.1289,51.7739,-13.2795,57.9033,
73.0371,33.1991,15.8331,-11.8811,-188.2764,-104.7024,-35.2406,7.6612,-13.7897,17.8766,-13.7897,66.7739,-16.8544,72.9033,
81.7196,31.6662,29.6237,-12.2578,-183.868,-100.1058,-20.2406,7.1506,-7.1506,25.5378,-13.279,79.6762,-12.2578,74.569,
66.7196,29.6228,17.365,-7.1506,-195.1045,-90.9127,-31.6662,7.1506,-18.3872,36.7734,-18.3872,94.6762,-25.5378,81.7187,
64.3542,36.7739,19.4079,-8.1724,-187.9539,-86.8268,-32.6879,7.1501,-7.1501,44.9457,-7.1501,107.256,-19.4079,96.7187,
63.332,28.601,14.3008,-23.1724,-181.8255,-99.0846,-32.6879,6.1289,-8.1724,29.9457,-6.1289,92.256,-18.3867,92.9557,
57.204,23.4944,4.0859,-22.4721,-196.1258,-96.0194,-34.7299,7.1506,-8.1719,17.3659,-4.0859,77.256,-17.365,83.7621,
55.1606,23.4944,5.1081,-20.4297,-211.1258,-89.8905,-33.7087,4.0859,-5.1072,20.4306,-4.0859,62.256,-10.2143,74.569,
55.6717,33.1986,9.7042,-24.0045,-208.8947,-83.2515,-32.1773,11.7477,-14.8114,31.1551,-9.7042,69.972,-10.7255,82.2298,
55.6712,27.0697,15.8331,-17.8756,-206.8517,-92.4446,-27.0697,6.64,-13.7897,26.0484,-6.64,65.8865,-16.8544,88.3587,
61.8001,27.0692,21.962,-6.6395,-204.8087,-94.488,-31.1551,6.6395,-12.7689,24.0045,-6.6395,69.972,-20.9408,97.5523,
64.3537,38.8168,20.4297,-13.279,-208.3836,-85.8051,-32.6875,12.2578,-12.2578,29.6237,-19.4084,84.972,-18.3862,96.0199,
71.5048,38.8164,21.4514,-13.2795,-215.5342,-86.8263,-24.5151,10.2148,-10.2148,33.7092,-18.3867,88.8698,-16.3432,90.9132,
64.8648,35.2411,9.7042,-9.7042,-207.8734,-88.3592,-36.2633,9.7042,-25.2148,31.1551,-12.7689,77.1226,-21.962,96.531,
64.3542,32.6879,14.3008,-14.3008,-195.104,-87.848,-29.6233,9.1936,-15.322,27.5808,-9.1936,67.4189,-16.3432,89.891,
76.612,30.6445,22.4726,-14.3008,-180.8033,-87.848,-20.4292,5.1077,-5.1077,29.6233,-16.3432,70.4826,-22.4726,81.7191,
83.2515,39.3275,21.9625,-6.64,-173.1425,-84.2727,-20.9403,6.64,-13.7897,30.1344,-17.8756,78.1443,-27.0697,87.3374,
75.5902,39.8381,29.6237,-7.1506,-177.7391,-85.8051,-16.3437,7.1506,-10.2143,23.4944,-13.279,69.4618,-16.3437,89.8915,
65.886,36.2633,22.9842,-9.7042,-174.1637,-85.294,-26.0479,9.7042,-14.8114,28.0914,-20.9398,73.0367,-22.9833,93.4663,
63.8426,26.0479,15.8326,-5.6183,-175.186,-87.3379,-27.0702,5.6183,-17.8761,36.2623,-25.0267,87.3369,-32.1773,92.4441,
64.3537,25.5368,19.4075,-4.0859,-175.6966,-88.8703,-13.28,4.0859,-19.4084,31.6662,-25.5378,84.7834,-26.5591,82.7399,
64.8643,39.3275,22.9837,-8.6825,-163.9489,-83.2515,-9.7037,8.6825,-18.8978,27.0697,-26.0475,69.7834,-17.8756,75.0796,
71.5043,44.9453,30.645,-8.1719,-158.3311,-82.7409,-8.1719,8.1719,-11.2366,27.5803,-16.3437,60.2678,-13.279,77.6327,
66.3962,35.7522,19.4084,-12.2578,-173.3311,-86.8268,-16.3437,12.2578,-18.3872,26.5581,-16.3437,60.2678,-18.3872,80.6974,
63.8431,31.1546,15.8331,-27.2578,-185.4008,-87.3379,-11.7472,11.7472,-14.8119,28.0909,-11.7472,66.9068,-12.7694,80.1868,
66.3971,37.7956,21.4519,-42.2578,-170.5884,-84.7834,-8.1719,7.1506,-7.1506,35.7522,-7.1506,74.569,-15.3225,79.6762,
56.1818,32.6875,13.279,-52.0959,-169.5672,-88.8698,-14.3013,11.2366,-11.2366,31.6662,-15.3225,59.569,-18.3872,70.4831,
46.9887,21.4509,12.2578,-63.3324,-177.7391,-94.9987,-16.3437,8.1719,-10.2153,17.365,-20.4297,44.569,-8.1719,61.289,
58.7364,32.1773,18.8983,-52.606,-170.0778,-83.251,-20.9398,10.7255,-12.7679,26.0479,-20.9398,46.4776,-10.7255,76.289,
69.9725,38.3062,27.0697,-37.606,-168.0348,-86.3157,-12.7684,11.7472,-11.7472,28.0909,-13.7897,47.4993,-11.7472,80.1868,
68.9507,31.1551,27.0692,-42.3917,-163.9494,-101.3157,-5.6183,5.6183,-16.8548,13.0909,-16.8548,32.4993,-13.7901,65.1868,
68.9507,42.3917,25.0267,-43.4139,-148.9494,-100.6169,-9.7042,9.7042,-21.962,9.7042,-24.0055,39.327,-16.8548,73.0367,
74.0579,38.3057,29.1126,-45.4564,-148.6269,-93.4663,-4.597,4.597,-12.7689,18.8973,-19.9195,43.4129,-15.8336,74.0579,
78.6545,31.6657,36.7739,-41.8811,-140.9657,-86.8268,-4.0864,4.0864,-21.4514,26.5586,-17.3655,58.4129,-21.4514,70.4826,
72.526,38.8164,43.9245,-36.7739,-139.9439,-84.7838,-8.1724,8.1724,-26.5586,22.4726,-26.5586,65.3754,-25.5373,71.5038,
75.0791,41.3704,43.4129,-33.1986,-150.6699,-92.4451,-10.7255,10.7255,-11.5586,21.962,-25.0267,50.3754,-16.8548,70.9932,
84.2722,44.4342,36.2623,-26.0479,-138.4121,-77.4451,-13.7901,12.7689,-12.7689,35.241,-19.9195,52.607,-17.8761,85.9932,
83.2515,41.3709,42.3922,-20.9403,-140.4546,-62.4451,-7.6612,7.6612,-17.8756,40.3497,-18.8968,67.607,-18.8968,96.5315,
77.6332,42.9023,46.9882,-9.1936,-155.4546,-64.3542,-13.2795,9.1936,-11.2361,39.8376,-15.322,78.6545,-15.322,86.8263,
70.4831,41.8815,31.9882,-8.1719,-166.5025,-79.3542,-20.4297,8.1719,-8.1719,32.6875,-14.3003,63.6545,-11.2366,71.8263,
65.886,36.2633,29.1126,-19.9186,-151.5025,-90.4016,-12.7679,5.6183,-11.7467,17.6875,-14.8114,48.6545,-5.6183,67.9295,
57.7147,36.2628,30.1344,-24.005,-136.5025,-84.2727,-15.8331,5.6178,-10.7259,13.7906,-5.6178,33.6545,-12.7684,63.8431,
45.4564,22.9833,24.0045,-27.0692,-121.5025,-99.2727,-18.8973,-2.5536,-2.5536,14.8114,2.5536,18.8973,-15.8336,48.8431,
45.4564,22.9833,24.0055,-25.0267,-113.896,-98.5735,-11.7467,0.51111,-5.6183,11.7467,-0.51111,16.8548,-9.7042,44.4351,
41.3704,22.9833,28.0914,-18.8973,-108.7888,-89.3804,-10.7255,4.597,-7.6608,14.8114,-4.597,25.0267,-9.7042,54.6495,
31.1556,13.7906,33.1981,-14.8119,-112.8747,-101.6382,-15.8331,-0.51062,0.51062,19.919,-4.5966,28.0909,-11.7472,46.4781,
37.7946,24.5156,32.6875,-7.1506,-103.171,-94.9987,-14.3013,4.0859,-4.0859,16.3437,-6.1294,26.5581,-7.1506,52.0959,
36.7739,26.5586,31.6667,-16.3432,-118.171,-88.8693,-3.0642,2.043,-3.0642,3.0642,-6.1289,20.4302,-2.043,54.1389,
21.7739,19.919,26.0484,-24.005,-133.171,-97.5518,-6.639,-3.5753,3.5753,3.5753,-6.639,19.919,-7.6612,51.5853,
17.8756,21.9615,24.005,-13.7906,-118.171,-100.617,-9.7047,-4.5966,4.5966,5.6178,-5.6188,19.919,-8.6825,53.6277,
30.645,20.4297,39.005,-11.2366,-103.171,-100.1058,1.0212,-6.1294,-1.0212,3.0647,-4.0859,18.3872,-6.1294,39.8381,
27.5798,26.5586,42.9023,-15.322,-101.1276,-90.9127,-2.043,2.043,-8.1724,16.3432,-8.1724,31.6657,-7.1501,37.7951,
15.322,25.5373,27.9023,-22.4726,-110.3207,-97.0412,-8.1714,-1.0217,1.0217,15.322,-5.1077,20.4302,-4.0854,46.9882,
13.28,15.3225,17.3659,-27.5803,-115.4278,-106.2347,-15.3215,-11.2356,4.0859,5.1081,-4.0859,5.4302,-6.1284,46.9887,
21.962,24.0055,27.0702,-17.8761,-109.8101,-96.5305,-13.7901,-2.5536,2.5536,16.8548,-3.5748,19.9195,-6.6395,47.4998,
23.4939,17.3655,32.6879,-22.4726,-112.3641,-96.0199,-8.1724,-1.0217,1.0217,8.1714,-7.1501,21.4514,-11.2361,43.9235,
22.9837,18.8978,26.0484,-21.9615,-104.7024,-85.294,-10.725,4.5966,-4.5966,10.7259,-4.5966,27.0697,-9.7037,55.6712,
13.7897,18.8978,19.919,-21.9615,-116.9607,-87.3374,-16.8544,1.5319,-1.5319,22.9837,-4.5966,25.0262,-6.64,44.4346,
4.0859,13.28,20.4297,-28.6015,-131.9607,-96.0199,-23.4944,-1.0212,1.0212,19.4084,-7.1506,20.4297,-12.2578,40.8593,
1.5323,19.9195,13.7901,-28.0904,-137.3899,-92.4446,-22.9833,8.683,-3.5748,7.6617,-1.5323,21.962,-12.7679,52.607,
13.7897,21.9615,13.7897,-27.0697,-134.3261,-95.5093,-13.7906,0.51062,-0.51062,3.5753,-1.5328,6.962,-3.5753,38.3053,
23.4939,22.4726,22.4726,-22.4726,-127.6861,-87.848,-19.4089,2.043,-2.043,16.3432,-5.1077,12.2573,-3.0642,42.9023,
11.7472,21.9615,25.0262,-28.0909,-132.2832,-91.4234,-20.9413,3.5753,-3.5753,10.725,-9.7047,21.9615,-3.5753,46.4771,
8.1719,17.365,22.4731,-31.6662,-137.901,-103.1705,-16.3437,-5.1072,1.0212,3.0647,-20.4297,17.365,-1.0212,34.7309,
10.7259,6.64,14.8119,-30.1334,-134.3257,-96.5305,-25.0262,-0.51062,0.51062,12.7684,-17.8756,19.919,-1.5319,33.1991,
3.0642,-1.0217,14.3008,-40.8598,-143.0086,-98.0634,-25.5373,-1.0217,2.043,9.1936,-9.1936,18.3867,1.0217,27.5798,
10.7255,13.9783,19.9186,-29.1126,-128.1968,-91.4234,-20.9408,-1.5323,-4.597,9.7042,-15.8326,29.1126,1.5323,34.2198,
25.7255,24.005,29.1121,-14.1126,-113.1968,-79.1656,-21.9615,1.5319,-11.7472,15.8331,-19.919,44.1126,-1.5319,48.5206,
28.0914,13.7901,34.2198,-11.7467,-101.6382,-80.1868,-19.9186,7.6608,-7.6608,15.8336,-18.8973,47.4988,-9.7042,48.5211,
15.8331,19.919,19.919,-24.005,-102.6599,-83.2515,-20.9403,11.7472,-8.6825,8.6825,-25.0272,32.4988,-12.7684,44.4346,
14.8114,24.0055,19.9195,-21.962,-115.939,-88.3587,-14.8114,-2.5536,3.5748,0.51111,-14.8114,17.4988,-0.51111,50.5635,
11.7472,10.725,16.8544,-30.1344,-124.1113,-95.5093,-21.9625,-16.8544,5.6178,4.5966,-4.5966,20.9403,-6.64,40.3487,
6.1289,4.0864,12.2583,-42.9023,-126.6644,-87.848,-27.5798,-5.1077,3.0642,19.5966,-3.0642,23.4948,-7.1501,25.3487,
2.043,6.1289,15.323,-39.8376,-130.7503,-88.8693,-28.602,4.0864,-2.043,15.323,-13.2795,16.3442,-5.1077,24.5161,
8.683,13.7901,19.9195,-24.8376,-119.0036,-86.3157,-34.2198,9.7042,-10.7255,11.7467,-19.9186,31.3442,-8.683,39.5161,
15.3225,5.1072,22.4731,-19.4084,-119.5143,-84.7838,-30.645,5.1072,-5.1072,14.3013,-16.3437,40.8593,-9.1931,46.9887,
15.322,12.2573,15.322,-25.5373,-120.536,-74.569,-27.5808,3.0642,-4.0864,14.3008,-10.2148,25.8593,-3.0642,41.8811,
4.5966,22.9837,4.5966,-30.1344,-114.9177,-76.1009,-28.0909,2.5541,-8.6825,2.5541,-7.6612,10.8593,-2.5541,48.5206,
14.3008,14.3008,17.3655,-26.5586,-99.9177,-84.7834,-21.4514,-1.0217,2.043,1.0217,-7.1501,12.2583,-8.1714,46.9882,
28.0914,16.8548,30.1339,-11.7467,-84.9177,-75.0796,-22.9833,2.5536,-2.5536,8.683,-14.8114,26.0479,-16.8548,41.3704,
27.0697,15.8331,35.2415,-0.51062,-82.2298,-75.0791,-17.8756,0.51062,-5.6178,1.5328,-15.8331,20.9413,-10.725,38.3062,
25.5373,10.2148,32.6879,3.0642,-87.848,-81.7191,-19.4079,-2.043,-4.0854,2.043,-12.2573,20.4302,-9.1936,39.8386,
24.5166,14.3013,26.5591,0,-87.8476,-77.6327,-21.4509,-3.0637,0,3.0647,-14.3003,15.3225,-14.3003,46.9887,
27.0692,18.8973,32.1773,-10.7255,-83.2515,-74.0579,-8.683,-3.5748,14.8114,-0.51111,-2.5536,0.51111,0.69972,45.4564,
18.3862,14.3003,24.5156,-24.5156,-97.0416,-80.6979,-23.683,-4.0859,4.0859,-1.0212,1.0212,0,0,33.7087,
9.7037,4.5966,20.9403,-27.0697,-111.853,-87.3374,-33.1981,-4.5966,2.5541,3.5753,-2.5541,15,-12.7684,29.1122,
6.1294,10.2153,20.4306,-24.5156,-100.1054,-80.6974,-30.644,0,0,5.1081,-11.2356,28.6025,-17.365,42.9028,
13.7901,19.9195,19.9195,-16.8539,-85.1054,-68.9502,-31.1551,10.7255,-6.6395,6.6395,-13.7901,16.8548,-13.7901,54.6495,
20.9403,9.7037,29.1122,-15.8331,-77.1226,-72.0154,-25.0262,7.6612,-3.5753,3.5753,-12.7684,13.7897,-14.8119,45.4559,
13.279,12.2578,27.5803,-13.279,-76.612,-73.5473,-25.5368,8.1719,-5.1072,5.1072,-9.1931,27.5803,-16.3437,51.0746,
14.8114,15.8326,21.962,-17.8761,-73.0367,-68.9507,-22.9833,2.5536,-2.5536,5.6183,-7.6617,25.0267,-5.6183,53.6282,
29.8114,13.7906,31.1556,-14.8109,-65.8855,-53.9507,-21.9615,0.51062,-0.51062,9.7047,-7.6612,34.2203,-4.5966,49.5428,
23.4944,16.3437,30.645,-7.1506,-77.6332,-54.1393,-33.7097,12.2578,-9.1931,7.1506,-14.3013,48.01,-19.4084,50.0534,
13.28,20.4297,33.7097,-5.1072,-90.9123,-68.4396,-23.4944,13.28,-4.0859,4.0859,-21.4509,33.01,-12.2578,45.9675,
20.9413,16.8553,33.1991,-3.5753,-75.9123,-58.7349,-17.8756,9.7047,-12.7684,3.5753,-31.1556,18.01,-8.6825,47.4993,
33.7092,14.3008,41.8811,-2.043,-60.9123,-46.9882,-16.3432,13.2795,-17.3655,2.043,-22.4726,11.237,-10.2148,50.0529,
39.327,20.9408,49.5423,-1.5323,-45.9123,-52.607,-14.8114,13.7901,-8.683,1.5323,-9.7042,20.9408,-5.6183,40.3482,
24.5161,25.5373,34.7304,-5.1077,-43.9235,-57.2035,-19.4079,8.1724,-5.1077,3.0642,-17.3655,18.3867,-3.0642,31.6667,
10.7259,16.8553,33.1991,-18.8968,-43.4134,-64.8643,-16.8544,0.51062,1.5328,-2.5531,-17.8756,7.6612,-0.51062,33.1991,
20.4297,17.365,40.8593,-16.3437,-42.9028,-60.2678,-13.279,8.1719,-5.1072,5.1072,-9.1931,22.6612,-8.1719,48.01,
30.1344,15.8331,36.2628,-4.5966,-48.5206,-54.65,-18.8978,4.5966,-11.7472,18.8978,-15.8331,37.6612,-20.9403,48.5206,
24.5156,16.3437,40.8593,0,-54.1393,-57.204,-21.4519,-3.0647,0,27.5803,-16.3437,52.6612,-19.4084,46.9887,
9.5156,15.8336,36.2633,-11.7467,-69.1393,-66.9073,-25.0267,7.6608,-5.6183,16.8548,-14.8114,45.4564,-15.8326,49.5423,
0,10.2153,35.7522,-18.3862,-84.1393,-74.5685,-17.365,19.4084,0,3.0647,-8.1719,31.6662,-5.1072,48.01,
0.51062,12.7684,30.1344,-20.9403,-99.1393,-72.0149,-20.9403,8.6825,3.5753,-0.51062,-8.6825,16.6662,-3.5753,39.3275,
9.1931,21.4509,26.5591,-18.3872,-84.1393,-69.4613,-17.365,-1.0212,8.1719,1.0212,-7.1506,1.6662,1.0212,24.3275,
19.4084,16.3437,36.7734,-11.2366,-69.1393,-70.4831,-13.279,5.1072,9.1931,0,-13.279,-12.2578,0,11.2366,
19.919,18.8978,36.2628,3.5753,-57.7147,-58.7359,-21.9625,13.7897,-3.5753,7.6612,-22.9837,-4.5966,-9.7047,26.2366,
20.9408,25.0267,30.1339,-0.51111,-65.886,-60.7789,-8.683,-0.51111,0.51111,13.7901,-12.7689,-5.6183,3.5748,30.1339,
13.2795,18.3867,20.4302,-15.322,-70.4831,-73.5473,-4.0864,-12.2583,-2.043,12.2573,-9.1936,9.1936,2.043,15.1339,
8.1714,9.1936,21.4514,-11.2361,-63.3324,-71.5043,-4.0864,-1.0217,1.0217,12.2573,-2.043,24.1936,-2.043,25.5373,
13.7897,7.6612,25.0262,-16.8553,-70.9937,-67.9295,-3.5753,-4.5966,6.639,-2.7427,3.5753,9.1936,7.6612,22.9828,
20.9403,22.6612,27.0697,-18.8978,-73.0367,-60.7789,-7.6612,0.51062,0.51062,-13.7906,-0.51062,-5.8064,9.7037,16.8544,
22.9833,26.0479,38.3057,-11.7467,-58.7359,-62.8218,-0.51111,0.51111,1.5323,-10.7255,-9.7042,-20.8064,6.6395,22.9833,
36.7734,17.365,46.9877,-1.0222,-43.7359,-60.2678,6.1284,-7.1506,1.0212,-2.0435,-20.4297,-5.8064,0,25.5368,
39.8381,18.3872,48.01,4.0859,-30.645,-49.0312,0,-3.0647,-2.0425,5.1072,-24.5156,0,-8.1719,17.3659,
24.8381,23.4944,45.9675,4.0859,-45.645,-56.1818,-1.0212,1.0212,5.1072,-1.0212,-11.2366,-9.1931,-7.1506,11.2366,
9.8381,25.5378,31.6662,5.1072,-60.645,-64.3537,-9.1931,1.0212,6.1294,-10.2143,-1.0212,-8.1719,-2.0425,17.365,
7.6608,17.8761,35.241,1.5323,-75.0796,-59.7571,-8.683,-5.6183,10.7255,-10.7255,-1.5323,-12.7689,2.5536,14.8114,
10.2148,13.2795,45.967,3.0642,-90.0796,-51.0742,-12.2573,-5.1077,5.1077,1.0217,-5.1077,-1.0217,-6.1289,29.8114,
6.639,13.7897,30.967,4.5966,-77.1226,-52.6065,-22.9837,-4.5966,-9.7047,5.6178,-12.7684,13.9783,-15.8331,44.8114,
15.8331,13.7906,29.1122,-2.5541,-62.1226,-50.564,-7.9837,-6.64,2.5541,2.5541,-14.8119,24.005,-3.5753,37.284,
15.8331,15.8331,37.284,-12.7684,-47.1226,-50.564,-0.51062,-13.7906,-4.5966,0.51062,-29.1131,12.7684,-3.5753,22.284,
14.3013,18.3872,35.7522,-5.1072,-32.1226,-65.3754,7.1506,-14.3003,-1.0212,1.0212,-28.6015,-2.2316,3.0647,7.284,
6.1289,12.2573,28.601,-8.1724,-17.1226,-80.3754,11.2361,-9.1936,13.9788,-13.2795,-17.3655,-17.2316,7.1501,-6.1289,
-8.1724,13.2795,27.5798,-16.3442,-2.1226,-76.612,6.1289,-1.0217,17.3655,-25.5373,-4.0864,-32.2316,9.1936,1.0217,
-8.6825,11.7472,27.0697,-19.919,12.8774,-67.929,-0.51062,-7.6612,18.8978,-27.0697,10.7259,-47.2316,20.9403,0.51062,
-7.6608,8.683,14.8114,-17.8761,11.7477,-62.8213,-10.7255,-6.6395,11.7477,-12.7689,6.6395,-34.2198,11.7477,7.6617,
-16.3437,6.1284,21.4509,-20.4297,-3.2523,-56.1823,-4.0859,1.0212,15.3225,0,0,-19.2198,2.0425,22.6617,
-20.4297,7.1506,32.6875,-25.5368,0,-62.3107,2.0435,-4.0859,20.4297,0,-1.0212,-4.2198,4.0859,36.7734,
-21.9625,6.64,20.9403,-24.005,4.5966,-76.1009,-10.7259,-13.7897,5.4297,3.5753,-7.6612,2.5541,-2.5541,26.0484,
-19.919,1.5319,27.0697,-11.7472,-3.5753,-76.1009,-1.5319,-10.7259,8.6825,10.7259,1.5319,-8.6825,3.5753,11.0484,
-27.5803,4.0859,23.4944,-13.28,5.1072,-72.526,3.0647,-10.2153,10.2143,-4.2741,11.2366,-23.6825,7.1506,-3.0647,
-25.5373,13.2795,18.3867,-22.4726,6.1289,-69.4613,11.2361,-13.2795,15.322,-17.3655,20.4292,-38.6825,14.3008,-6.1289,
-10.7255,20.9408,32.1773,-16.8548,-5.6183,-54.4613,26.2361,-2.5536,30.1339,-2.3655,31.1551,-35.2415,29.3008,-7.6608,
-24.005,7.6612,18.8978,-19.919,-10.7259,-52.607,11.2361,-2.5541,15.1339,3.5753,16.1551,-20.2415,14.3008,-6.64,
-22.9837,6.639,22.9828,-17.8766,4.2741,-58.7359,-3.5753,-6.64,16.8544,-4.5966,7.6612,-5.2415,7.6612,3.5753,
-17.3659,5.1072,26.5591,-19.4084,4.0859,-63.3324,-2.0435,-11.2366,12.2578,-1.0212,-6.1294,9.7585,1.0212,12.2578,
-18.3862,4.0859,19.4084,-20.4297,-8.1719,-59.246,0,-12.2578,7.1506,11.2366,-8.1719,23.4944,0,27.2578,
-28.0909,0.51062,11.7472,-28.0909,-1.5328,-67.9295,-0.51062,-20.9413,11.7472,5.6178,-5.6188,13.7897,1.5319,26.0475,
-37.284,2.5541,7.6612,-31.1556,2.5541,-64.8643,-2.5531,-16.8544,12.7684,-0.51062,0.51062,-0.51062,8.6825,11.0475,
-29.6223,10.2158,21.4514,-29.6223,-10.2148,-60.2673,12.4469,-8.1714,27.5808,6.1289,15.5106,-10.2148,23.6825,-3.9525,
-27.5798,9.1936,19.4089,-31.6657,-18.3867,-65.3749,5.1077,-11.2361,21.4514,2.043,24.5161,-17.3645,22.4736,-2.043,
-22.4721,11.2366,19.4084,-16.6657,-6.1284,-54.1384,0,0,23.4944,-1.0212,20.4306,-11.2356,24.5166,10.2153,
-26.0475,3.5753,24.005,-18.8978,-21.1284,-69.1384,5.6178,-6.64,35.2415,-2.5541,20.9403,-19.919,30.1344,2.5541,
-37.7946,2.043,19.4089,-25.5364,-36.1284,-84.1384,-2.043,-11.2361,24.5161,10.2158,18.3877,-11.2361,15.323,4.0864,
-31.1551,1.5323,18.8973,-19.9186,-48.5201,-69.1384,-11.7467,-9.7042,9.5161,4.597,5.6183,3.7639,0.32298,6.6395,
-16.1551,16.5323,31.1556,-4.9186,-33.5201,-54.1384,-9.7047,-0.51062,2.5531,0.51062,-3.5753,18.7639,-5.6188,21.6395,
-22.9833,21.962,25.0267,-0.51111,-48.5201,-39.1384,-11.7467,0.51111,2.5536,3.5748,-6.6395,33.7639,-7.6608,36.6395,
-32.6875,6.962,23.4944,-13.279,-63.5201,-24.1384,-10.2143,-1.0212,11.2366,-1.0212,2.0435,31.6662,1.0212,51.6395,
-22.9837,-0.51062,18.8978,-9.7037,-78.5201,-9.1384,-22.9837,0.51062,0.51062,-4.5966,3.5753,25.0272,3.5753,40.3487,
-25.5373,1.0217,18.3867,-7.1501,-93.5201,-5.1077,-26.5586,6.1289,2.043,-5.1077,-1.0217,11.2361,5.1077,28.602,
-26.5586,5.1077,24.5161,-4.0854,-108.5201,-5.1077,-21.4514,18.3867,9.1936,-3.0642,-5.1077,3.0642,7.1501,36.7739,
-24.5156,7.1506,16.3437,3.0647,-107.2565,-5.1072,-26.5591,12.2578,-1.0212,1.0212,-16.3437,11.2366,-3.0647,45.9675,
-23.4944,1.0212,22.4731,3.0647,-96.0199,-5.1072,-18.3862,-2.7422,6.1294,1.0212,-5.1072,26.2366,-1.0212,53.1171,
-27.5798,-1.0217,22.4726,-11.2361,-91.934,-5.1077,-20.4302,2.043,4.0864,-5.1077,6.1289,31.6667,1.0217,48.0104,
-30.6455,-2.043,12.2573,-23.4948,-103.171,-13.2795,-22.4736,6.1289,2.043,-9.1936,3.0642,18.3867,3.0642,34.7304,
-34.7304,-2.043,13.2795,-15.322,-112.3641,-9.1936,-18.3867,2.043,9.1936,-2.043,2.043,27.5798,4.0854,49.7304,
-39.328,3.5748,10.7255,-11.7477,-109.8105,-3.5758,-27.0702,4.5961,4.5961,-4.597,1.5323,27.0692,-1.5323,53.6282,
-26.0479,5.6183,13.7901,-21.962,-102.6594,-13.7901,-31.1551,7.6608,4.597,-6.6395,2.5536,12.0692,-2.5536,38.6282,
-20.9403,6.639,17.8756,-19.919,-93.4663,-9.7047,-32.1768,7.6612,5.6178,3.5753,-0.51062,0.51062,-7.6612,27.0697,
-31.6662,1.0212,18.3872,-17.365,-98.0629,-5.1072,-26.5591,5.1072,11.2366,4.0859,5.1072,-1.0212,-2.0425,32.6875,
-36.7739,-1.0217,17.3655,-18.3867,-104.1923,-16.3442,-26.5586,1.0217,7.1501,1.0217,7.1501,-7.1501,6.1289,18.3867,
-30.644,0,13.28,-16.3437,-97.0412,-18.3862,-29.6228,4.0859,0,5.1081,-1.0212,6.1294,0,28.6025,
-24.0055,-1.5323,18.8973,-19.9186,-97.5523,-13.7901,-17.8761,3.5748,9.7042,4.597,1.5323,21.1294,-2.5536,43.6025,
-29.1131,6.639,13.7897,-27.0697,-95.5093,-9.7047,-24.005,9.7037,0.51062,2.5531,-0.51062,30.1334,-10.7259,49.5418,
-16.8553,19.919,22.9828,-16.8553,-80.5093,-2.5541,-16.8553,21.9615,-3.5753,11.7472,0.51062,39.3275,-0.51062,51.5853,
-3.5753,13.7906,30.1344,-13.7897,-65.5093,-8.6825,-3.5753,13.7906,-0.51062,3.5753,-4.5966,32.1768,0.51062,50.564,
-2.5536,22.9833,28.0914,-9.7042,-60.7789,0.51111,-7.6608,25.0267,4.597,-5.6183,-1.5323,21.962,-0.51111,61.8001,
-13.7901,25.0257,25.0257,-15.8336,-75.7789,1.5323,-12.7689,29.1126,9.7042,-16.8548,-1.5323,6.962,7.6608,56.692,
-14.8114,15.8326,24.0045,-14.8114,-87.3374,2.5536,-14.8114,21.962,3.5748,-15.8336,-2.5536,-8.038,5.6183,41.692,
-17.8761,6.6395,21.962,-8.683,-74.0579,0.51111,-17.8761,8.683,4.597,-17.8761,4.597,-19.9195,-0.51111,26.692,
-28.0914,1.5323,21.962,-7.6608,-89.0579,-1.5323,-15.8336,1.5323,12.7689,-18.8973,5.6183,-18.8973,9.7042,27.0692,
-28.6015,10.2153,18.3872,-12.2578,-85.8051,6.1294,-12.2578,13.28,4.0859,-7.1506,-4.0859,-16.3437,16.3437,32.6875,
-16.3442,13.2795,24.5151,-17.3655,-70.8051,-1.0217,-2.043,10.2148,10.2148,-2.043,1.0217,-14.3008,14.3008,21.4514,
-8.6825,6.64,18.8978,-18.8978,-62.8213,-6.639,-5.6178,-1.5319,11.7472,0.51062,3.5753,-0.51062,6.64,26.0484,
-11.2361,-2.043,3.8978,-22.4726,-76.6115,3.0652,-9.1926,5.1077,2.043,-2.043,-5.1067,3.0652,2.043,41.0484,
-17.8761,3.5748,7.6608,-24.0055,-88.3587,4.597,-5.6183,18.8973,4.597,-12.7689,-5.6183,-3.5748,3.5748,56.0484,
-16.8548,17.8761,10.7255,-15.8336,-90.4016,7.6608,-19.9195,29.1126,-1.5323,-10.7255,-0.51111,11.4252,0.51111,60.7789,
-9.1936,10.2148,5.1077,-18.3867,-97.0412,14.3008,-17.3655,22.4726,-1.0217,-2.043,-1.0217,26.4252,1.0217,55.1601,
-11.7467,2.5536,3.5748,-30.1339,-100.6165,8.683,-7.6608,15.8336,-3.5748,2.5536,-8.683,29.1126,-2.5536,54.6495,
-9.7042,10.7255,16.8548,-25.0267,-85.6165,2.5536,-2.5536,21.962,-4.5961,12.7689,-2.5536,28.0914,-2.5536,52.607,
-0.51062,5.6178,21.9615,-21.9625,-70.6165,-8.6825,-3.5753,15.8331,-2.5541,10.725,0.51062,28.0909,-0.51062,37.607,
4.0859,10.2143,13.279,-16.3437,-70.4831,-5.1081,-11.2366,15.3215,-10.2153,7.1497,-11.2366,22.4721,-4.0859,22.607,
-1.5323,14.8124,12.7689,-17.8761,-77.1221,1.5323,-8.682,13.7901,-10.7255,3.5758,-24.0045,15.8336,-7.6608,25.0267,
-1.5323,1.5323,12.7689,-26.0479,-75.0796,1.5323,-18.8973,9.7042,-10.7255,2.5536,-22.9833,18.8973,-17.8761,35.2411,
5.1072,0,19.4084,-15.3225,-81.7191,0,-22.4731,14.3013,0,15.3225,-7.9833,32.6875,-9.1931,50.2411,
-9.8928,-11.2366,21.4509,-22.4731,-96.7191,-15,-13.279,4.0859,3.0647,15.3225,1.0212,29.6228,-1.0212,43.924,
-7.1497,0,23.4944,-18.3862,-81.7191,-2.0425,-3.0637,14.3013,0,28.6025,-3.0637,42.9028,0,52.0959,
0.51062,3.5753,18.8978,-18.8978,-79.1656,-1.5319,-6.64,6.64,-0.51062,18.8978,-5.6178,27.9028,-3.5753,39.3275,
4.5966,-0.51062,20.9403,-30.1344,-88.3591,-6.64,-4.5966,-3.5753,0.51062,3.8978,-6.64,12.9028,3.5753,27.0697,
-0.51062,6.64,12.7684,-36.2628,-73.3591,3.5753,-0.51062,6.64,0.51062,-3.5753,-7.6612,-1.5319,13.7906,34.2203,
-3.5748,-0.51111,9.7042,-40.3492,-66.9078,0.51111,5.6183,6.6395,3.5748,-8.683,-3.5748,-16.5319,13.7901,30.1339,
-1.0212,1.0212,12.2578,-39.8381,-68.4396,4.0859,1.0212,3.0647,-6.1284,-3.0647,-3.0647,-7.1506,6.1294,42.9028,
-3.0647,0,16.3437,-51.0746,-68.4396,0,-1.0212,5.1072,-9.1931,10.2153,-4.0859,7.8494,7.1506,51.0746,
-2.043,-6.1289,23.4948,-59.2465,-56.1813,-10.2148,3.0642,11.2361,-3.0642,17.3655,-1.0217,22.8494,1.0217,36.0746,
-0.51111,0.51111,21.962,-60.7789,-48.5211,-4.597,0.51111,11.7467,-7.6608,17.8761,-5.6183,32.1773,-9.7042,28.0914,
-5.1072,2.0435,22.4731,-71.5043,-63.5211,-2.0425,2.0435,0,-2.0425,6.1294,-8.1719,18.3872,0,32.6875,
-4.0859,6.1294,22.4731,-71.5043,-78.5211,-2.0425,1.0212,-2.0425,4.0859,-1.0212,-2.0425,6.1294,8.1719,38.8168,
1.0212,5.1072,19.4084,-64.3537,-63.5211,1.0212,-2.0425,2.0435,-2.0425,-6.1284,-1.0212,-7.1506,2.0435,28.6015,
4.0859,3.0647,31.6662,-56.1818,-52.0959,16.0212,-4.0859,13.279,-3.0647,-10.2153,-4.0859,-8.1719,4.0859,28.6015,
-2.043,4.0864,33.7092,-49.0312,-61.289,31.0212,-10.2148,27.5808,-2.043,-4.0854,-3.0642,2.043,7.1511,43.6015,
-15.3215,0,24.5166,-57.2031,-76.289,21.4519,-17.365,12.5808,-6.1284,0,-4.0859,7.1506,2.0435,58.6015,
-10.2148,12.2573,29.6233,-52.0964,-72.526,24.5161,-17.3655,1.0217,-4.0864,15,-2.043,22.1506,-1.0217,57.2035,
-15.8336,5.6183,27.0692,-53.6282,-66.9078,29.1126,-18.8983,7.6608,-6.6395,10.7255,-5.6183,36.2623,-7.6617,55.6707,
-24.0055,-2.5536,28.0914,-52.607,-75.0796,22.9833,-10.7255,12.7689,-4.597,0.51111,1.5323,21.2623,-0.51111,57.7142,
-38.3057,-3.5748,20.9408,-43.4129,-78.1438,18.8973,-16.8548,3.5748,-11.7467,2.5536,2.5536,6.2623,-2.5536,42.7142,
-34.2193,-0.51062,27.0697,-35.2415,-70.9932,20.9403,-8.6825,-7.6612,0.51062,4.5966,6.64,-8.7377,2.5541,27.7142,
-19.2193,2.043,32.6879,-30.6445,-58.2248,25.5373,-2.043,-5.1077,2.043,-8.1714,3.0642,-23.7377,2.043,23.4939,
-13.2795,10.2148,30.6445,-16.3442,-51.0746,28.602,-1.0217,9.8923,-3.0642,-14.3008,3.0642,-26.5586,1.0217,33.7092,
-19.919,13.7897,31.1556,-12.7684,-63.8431,31.1556,-3.5753,14.8119,-1.5319,-5.6178,0.51062,-11.5586,-0.51062,40.3487,
-25.5368,14.3013,25.5378,-16.3437,-56.1818,46.1556,-18.5753,21.4519,-13.279,9.3822,-13.279,3.4414,-11.2366,55.3487,
-26.0484,8.6825,29.1121,-19.919,-46.4781,49.5418,-16.8544,18.8978,-11.7472,24.005,-13.7906,18.4414,-8.6825,70.3487,
-31.1556,6.64,24.005,-22.9837,-61.4781,34.5418,-14.8119,7.6612,-10.7259,32.1768,-10.7259,33.4414,-6.64,70.9937,
-36.7734,11.2366,20.4297,-17.365,-74.5685,23.4944,-18.3872,3.0647,-7.1506,33.7097,-3.0647,48.4414,-5.1072,55.9937,
-41.3699,-0.51062,32.1768,-22.9837,-77.1221,25.0262,-12.7684,-6.639,3.5753,18.7097,-2.5531,33.4414,2.5541,40.9937,
-43.9245,6.1289,27.5798,-29.6233,-76.612,17.3655,-10.2148,7.1501,1.0217,3.7097,-6.1289,18.4414,11.2361,25.9937,
-46.4776,13.7901,13.7901,-35.2411,-84.2727,18.8973,-8.683,14.8114,4.597,-6.6395,-4.597,3.4414,21.962,14.8114,
-51.5853,-1.2099,7.6617,-34.2198,-82.2298,28.0914,-13.7901,5.6183,9.7042,1.5323,-4.5961,-11.5586,10.7255,29.8114,
-59.2465,-10.2153,8.1719,-33.7097,-85.8051,24.5156,-22.4731,6.1284,0,7.1506,-7.1506,0,1.0212,39.8381,
-53.1176,-2.043,17.3655,-35.7517,-88.8698,14.3008,-10.2148,10.2148,6.1289,-4.0864,-3.0642,2.043,16.0212,39.8386,
-44.9457,0,15.3225,-37.7956,-73.8698,17.365,-17.3659,3.0647,0,-6.1294,-7.1506,5.1072,16.3437,45.9665,
-44.4342,-3.5748,17.8761,-31.1551,-66.9073,14.8114,-20.9408,-1.5323,2.5536,5.6183,-3.5748,1.5323,8.683,39.328,
-51.0746,0,17.365,-22.4731,-81.9073,0,-16.3437,1.0212,12.2578,6.1294,0,-7.1506,11.2366,29.6228,
-54.1389,4.0859,8.1719,-19.4084,-87.8476,5.1081,-25.5368,0,4.0859,0,-11.2366,-8.1719,5.1081,32.6884,
-39.1389,9.1931,23.1719,-14.3013,-72.8476,20.1081,-14.3013,12.2578,0,0,-7.1506,-2.0435,3.0647,35.7522,
-24.1389,24.1931,37.284,-2.5541,-57.8476,35.1081,-3.5753,25.0262,-5.6188,0.51062,-6.64,-0.51062,0.51062,37.284,
-9.1931,19.4084,24.5156,-1.0212,-42.8476,32.6875,1.0212,10.0262,-7.1506,-12.2578,-21.64,-15.5106,2.0435,30.645,
-10.7259,4.5966,35.2415,-2.5541,-31.1556,30.1344,-1.5319,3.5753,1.5319,-10.7259,-22.9837,-15.8331,7.6612,35.2415,
-21.9615,0.51062,36.2628,-6.639,-32.1768,40.3487,-14.8119,12.7684,-2.5531,0.51062,-14.8119,-0.83311,7.6612,40.3487,
-33.7097,6.1284,29.6228,-10.2153,-32.6875,28.6015,-9.1931,0,1.0212,0,-7.1506,-7.1506,10.2143,29.6228,
-29.1122,12.7684,24.005,-1.5319,-35.2415,26.0484,-14.8119,7.6612,-4.5966,1.5319,-4.5966,5.6178,-3.5753,36.2628,
-20.4297,1.0212,17.3659,-1.0212,-37.7946,38.8168,-21.4509,22.6612,-10.2143,8.1719,-6.1284,20.6178,-11.2366,50.0534,
-16.3432,-5.1077,22.4726,-10.2148,-30.6445,49.0317,-13.2795,20.4302,-2.043,23.1719,-2.043,35.6178,2.043,54.1389,
-28.602,2.043,11.2361,-19.4079,-39.8376,39.8386,-17.3655,15.322,-13.2795,20.4302,-12.2573,41.8811,-2.043,60.2682,
-31.1561,2.5536,9.7042,-14.8114,-50.5635,27.0692,-15.8336,19.9186,-7.6617,16.8539,-10.7255,43.4129,-2.5536,60.7789,
-30.645,0,10.2153,-11.2366,-35.7522,32.6875,-15.3225,19.4084,0,30.645,-4.0859,32.6875,-2.0425,45.7789,
-40.8593,-2.0425,1.0222,-22.4721,-42.9018,24.5156,-13.279,4.4084,3.0647,24.5156,-2.0425,17.6875,0,30.7789,
-36.2628,-0.51062,7.6612,-17.8756,-57.9018,11.7472,-0.51062,-2.5531,14.8119,12.7684,0.51062,2.6875,12.7684,15.7789,
-35.7522,2.0425,7.1497,-10.2153,-51.0751,4.0859,-12.2588,0,0,9.1931,-13.28,-12.3125,3.0637,17.365,
-34.2203,-1.5319,14.8119,-11.7472,-36.0751,9.7037,-12.7684,2.5541,1.5319,5.6178,-7.6612,-17.8766,2.5541,17.8756,
-36.2623,-7.6608,8.683,-17.8761,-27.0692,24.7037,-10.7255,6.6395,4.597,-1.5323,3.5758,-2.8766,1.5323,32.8756,
-40.3492,-2.5536,-0.51111,-24.0055,-42.0692,30.1339,-13.7901,8.683,4.597,0.51111,5.6183,3.5748,-0.51111,47.8756,
-40.8593,-7.1506,3.0647,-32.6875,-57.0692,18.3862,-14.3013,1.0212,-1.0212,3.0647,-1.0212,6.1284,1.0212,40.8593,
-39.328,-3.5758,7.6608,-24.0055,-48.5211,25.0257,-15.8336,1.5323,-10.7255,10.7255,-1.5323,21.1284,1.5323,32.1764,
-40.3487,-1.5319,11.7472,-16.8544,-42.3912,19.919,-5.6178,-1.5319,-0.51062,13.7906,0.51062,13.7906,4.5966,28.0909,
-41.37,-2.5541,4.5966,-27.0697,-57.3912,4.919,-8.6825,0.51062,1.5319,10.7259,-9.7037,-0.51062,2.5541,20.9403,
-42.9028,1.0212,-5.1072,-33.7097,-64.3542,7.1506,-19.4084,5.1072,-1.0212,9.1931,-11.2366,7.1506,4.0859,22.4721,
-43.4129,-2.5536,-0.51111,-37.2845,-51.5848,20.9408,-12.7689,-2.5536,5.6183,9.7042,0.51111,3.5748,8.683,30.1339,
-43.4134,-2.5531,-0.51062,-37.284,-37.284,31.1556,-10.725,0.51062,0.51062,11.7472,2.5541,-2.5531,4.5966,30.1344,
-39.8376,-3.0642,-1.0217,-32.6879,-41.8811,30.6445,-8.1714,10.2148,6.1289,3.0642,1.0217,-5.1077,10.2148,29.6233,
-41.3709,-4.5966,0.51062,-29.1131,-42.3922,29.1122,-10.7259,14.8109,7.6612,-0.51062,-5.6188,0.51062,10.725,44.6233,
-39.3275,-3.5753,8.6825,-22.9837,-27.3922,30.1334,-13.7906,26.0475,-7.3388,9.7037,-10.7259,15.5106,3.5753,59.6233,
-24.3275,4.0859,19.4084,-18.3862,-12.3922,27.5803,-5.1072,23.4944,-12.2578,22.4731,-9.1931,30.5106,-4.0859,56.1818,
-21.962,-0.51111,4.4084,-26.0479,0.51111,30.1339,-18.8973,8.4944,-20.9408,26.0479,-20.9408,45.5106,-19.0859,41.3704,
-18.8973,-10.7255,11.7467,-25.0267,5.6183,34.2198,-9.7042,14.8114,-5.9408,29.1126,-5.9408,53.6282,-5.6183,53.6282,
-19.4079,-10.2148,18.3867,-34.7304,-4.0854,19.2198,-2.043,12.2583,-2.043,14.1126,2.043,38.6282,7.1501,38.6282,
-12.2578,4.7852,9.1931,-34.7309,10.9146,25.5378,-1.0212,16.3437,-5.1072,-0.88736,-6.1284,23.6282,1.0212,23.6282,
-1.0212,17.365,8.1719,-33.7097,25.9146,39.8381,1.0212,14.3013,-1.0212,-6.1294,-6.1294,8.6282,-4.0859,19.4084,
1.5323,2.365,1.5323,-37.2845,40.9146,48.5211,-13.9788,-0.69875,-16.0212,5.6183,-15.8326,23.6282,-19.0859,34.4084,
9.1936,-3.0642,3.0642,-34.7304,55.9146,54.1389,-17.3655,-3.0642,-31.0212,5.1077,-30.8326,38.6282,-31.6667,49.4084,
20.4297,-1.0212,5.1072,-35.7522,70.9146,45.9665,-18.3872,1.0212,-43.924,-9.1931,-45.8326,23.6282,-46.6667,44.9453,
34.2203,11.7472,3.5753,-33.1981,85.9146,58.7359,-19.919,-3.5753,-54.65,-12.7684,-51.5853,16.8544,-53.6277,35.2415,
41.3704,15.8326,7.6608,-32.1773,100.9146,73.7359,-7.6608,-11.7467,-41.3704,-13.7901,-52.607,10.7255,-39.327,20.2415,
44.4346,21.9615,8.6825,-29.1121,115.9146,83.2515,-4.5966,-1.5319,-36.2628,-15.8331,-55.6712,1.5319,-31.1556,9.7037,
50.5635,24.0045,5.6183,-35.2411,130.9146,78.1438,-2.5536,2.5536,-45.4564,-29.1126,-51.5848,-13.4681,-39.327,14.8114,
54.65,12.7684,-0.51062,-40.3487,145.9146,72.0149,2.5531,0.51062,-54.65,-44.1126,-59.7571,-28.4681,-47.4993,4.5966,
44.9453,11.2356,-4.0859,-32.6884,160.9146,63.3324,4.0859,7.1497,-59.2465,-52.0959,-65.3759,-38.8168,-41.8815,12.2578,
38.3057,14.8114,5.6183,-29.1126,175.9146,49.5423,8.683,-5.6183,-48.5201,-44.4342,-54.6495,-35.241,-37.2845,14.8114,
38.3062,17.8766,11.7472,-20.9403,182.3361,57.7147,7.6612,-7.6612,-45.4559,-29.4342,-49.5418,-20.9403,-40.3487,14.8119,
23.3062,4.597,5.6183,-26.0479,167.3361,50.5635,1.5323,-1.5323,-45.4564,-18.8973,-49.5423,-10.7255,-36.2623,16.8548,
11.7472,0.51062,11.7472,-35.2415,152.3361,35.5635,4.5966,-0.51062,-30.4564,-11.7472,-34.5423,-0.51062,-21.2623,14.8119,
-1.5323,7.6608,1.5323,-41.3704,137.3361,20.5635,-2.5536,3.5748,-25.0267,-2.5536,-19.5423,3.5748,-12.7689,13.7901,
-3.5748,11.7477,2.5536,-35.241,122.3361,16.8548,6.6395,9.7042,-17.8761,-4.5961,-17.8761,-2.5536,-6.6395,25.0267,
-4.597,7.6617,8.683,-38.3057,107.3361,13.7901,5.6183,2.5536,-20.9408,-9.7042,-32.8761,-2.5536,-11.7467,25.0267,
-5.1067,2.043,8.1724,-41.8811,92.3361,18.3877,-2.043,2.043,-25.5364,-6.1289,-28.601,5.1077,-16.3432,20.4302,
-6.6395,-1.5323,2.5536,-46.4776,77.3361,13.7901,1.5323,5.6183,-22.9833,-13.7901,-14.8114,11.7477,-8.682,24.0055,
-3.5753,7.6612,-1.5319,-36.2628,62.3361,14.8119,1.5319,7.6612,-26.0475,-11.7472,-22.9837,16.8544,-3.5753,33.1981,
-3.0642,-2.043,2.043,-30.6445,47.3361,16.3442,10.2148,2.043,-16.3432,-4.0854,-24.5151,10.2148,-4.0854,24.5161,
-10.2143,-14.3003,5.1072,-36.7734,32.3361,12.2578,14.3013,8.1719,-1.3432,-4.0859,-9.5151,1.0212,-4.0859,22.4731,
-23.4944,-12.2578,0,-41.8815,17.3361,2.0425,3.0637,7.1497,0,-6.1294,5.4849,-13.9788,0,26.5581,
-23.4939,-6.1289,5.1077,-39.8376,2.3361,-1.0217,5.1077,1.0217,7.1501,-2.043,11.2361,-24.5161,14.3008,27.5798,
-27.5808,-2.043,-2.043,-37.7951,-12.6639,13.2786,4.0854,9.1926,2.043,-2.043,5.1067,-9.5161,9.1926,27.5798,
-33.1986,-8.683,-0.51111,-42.3917,-26.0479,18.8973,4.597,0.51111,-1.5323,2.5536,-0.51111,5.4839,1.5323,30.1339,
-34.2198,-12.7689,2.5536,-45.4564,-16.8548,18.8973,-2.5536,-8.683,-3.5758,14.8114,5.6183,20.4839,3.5748,42.3917,
-42.9028,-8.1719,-10.2153,-39.8381,-18.3872,18.3862,-11.2366,3.0647,-3.0647,12.2578,12.2578,28.6015,6.1284,34.7309,
-50.0534,-11.2366,-5.1072,-41.8815,-33.3872,16.3437,-1.0212,-2.0435,1.0212,7.1506,6.1284,24.5156,7.1506,19.7309,
-44.4346,-2.5541,7.6612,-36.2628,-25.0272,31.1556,0.51062,-1.5328,-3.5753,19.919,-0.51062,39.5156,10.725,34.7309,
-51.0746,-2.043,-1.0217,-38.8164,-35.7517,26.5586,-1.0217,4.0864,-1.0217,16.3442,1.0217,38.8164,11.2361,49.7309,
-58.7359,-7.6612,-6.64,-41.3699,-50.7517,20.9403,-1.5319,5.6178,-1.5319,9.7037,1.5319,32.1768,3.5753,44.4346,
-50.564,-1.5323,7.6608,-30.1339,-42.3917,35.9403,-2.5536,11.7467,-3.5748,17.8761,-1.5323,38.3057,1.5323,38.3057,
-46.9882,-6.1289,10.2148,-34.7304,-41.8811,30.6445,-3.0642,4.0864,-1.0217,2.8761,-3.0642,23.3057,8.1724,31.6667,
-43.4134,-5.6188,0.51062,-38.3062,-48.5211,27.0687,-2.5541,8.6825,-0.51062,-8.6835,2.5531,8.3057,10.725,38.3053,
-48.0104,-6.1294,0,-39.8381,-49.0322,31.6652,-2.0435,8.1719,0,-1.0222,7.1497,6.1284,11.2356,40.8593,
-45.4559,-12.7684,5.6178,-41.3699,-39.3275,34.2203,-0.51062,-1.5319,-2.5541,3.5753,0.51062,10.7259,7.6612,34.2203,
-51.5858,-21.962,2.5536,-39.328,-54.3275,27.0692,-4.597,4.5961,-4.597,10.7255,-2.5536,24.0045,7.6608,37.2845,
-66.5858,-29.6233,3.0642,-46.9882,-69.3275,12.0692,-6.1289,-2.043,1.0217,6.1289,-1.0217,13.2795,10.2148,31.6667,
-60.7789,-14.6233,10.7259,-45.4559,-54.3275,15.8331,0.51062,-4.5966,-2.5541,3.5753,-0.51062,9.7037,8.6825,34.2203,
-50.0529,-12.2583,6.1289,-50.0529,-39.3275,7.1501,15.322,2.043,-2.043,-3.0642,-3.0642,-3.0642,9.1936,23.4939,
-51.5853,-25.0267,2.5536,-61.8001,-24.3275,-7.8499,29.1126,1.5323,8.683,-8.683,-1.5323,-18.0642,18.8973,8.683,
-53.1176,-15.3225,0,-60.2678,-9.3275,-19.4084,26.5591,-8.1719,8.1719,0,9.1931,-26.5591,27.5803,11.2366,
-55.6712,-17.8761,0.51111,-63.8431,5.6725,-18.8973,25.0267,-13.7901,11.7477,-0.51111,20.9408,-11.5591,25.0267,6.6395,
-70.6712,-32.8761,-9.7042,-75.0796,20.6725,-32.1773,12.7679,-10.7255,1.5323,-1.5323,6.6395,3.4409,10.0267,9.7042,
-70.4826,-29.6228,-9.1931,-69.4613,35.6725,-29.6228,8.1719,-10.2143,-3.0647,11.2366,3.0647,11.2366,8.1719,24.5156,
-65.3754,-29.6233,-1.0217,-69.4613,46.9882,-32.6879,9.1936,-16.3442,-4.0854,5.1077,7.1501,1.0217,16.3442,9.5156,
-61.289,-23.4939,-3.0642,-67.4179,35.7526,-25.5373,10.2148,-5.1067,-2.043,2.043,10.2148,5.1077,18.3867,5.1077,
-61.289,-26.5581,-7.1497,-71.5038,33.7097,-25.5368,15.3225,-12.2578,4.0859,0,5.1081,0,18.3872,9.1941,
-57.7142,-24.005,-0.51062,-69.972,39.3275,-21.9625,15.8331,-7.6612,0.51062,2.5541,4.5966,-0.51062,12.7684,14.8119,
-58.7354,-27.0697,-3.5753,-69.972,41.3709,-25.0262,11.7472,0.51062,-6.639,-0.51062,0.51062,2.5541,1.5328,4.5966,
-60.7789,-31.1556,0.51062,-62.8218,35.2415,-30.1344,16.8544,-6.64,1.5319,4.5966,-0.51062,3.5753,6.64,-1.5319,
-61.8001,-26.0479,-0.51111,-50.564,36.2633,-24.0055,11.7467,-2.5536,0.51111,16.8548,-1.5323,0.51111,2.5536,7.6608,
-56.6929,-33.1986,-1.5323,-51.5848,35.2411,-28.0914,14.8114,1.5323,0.51111,10.7255,1.5323,-8.683,-0.51111,3.5748,
-55.6712,-34.2193,0.51062,-55.6712,21.9625,-32.1768,16.8544,-10.725,1.5328,3.5753,7.6612,-0.51062,2.5541,-6.639,
-70.6712,-27.5808,-4.0864,-62.3112,6.9625,-29.6233,6.1289,-22.4736,2.043,9.1926,3.0642,8.1714,3.0642,-2.043,
-81.208,-35.241,-7.6608,-72.0149,-1.5323,-35.241,1.5323,-21.962,8.683,18.8973,2.5536,7.6617,8.683,7.6617,
-77.6332,-34.7309,-12.2578,-73.5473,3.0647,-40.8593,-3.0647,-17.3659,4.0859,24.5156,6.1284,16.3437,11.2366,8.1719,
-76.6115,-20.4297,-2.0435,-69.4613,-3.0647,-32.6875,9.1931,-18.3872,13.279,21.4509,13.279,12.2578,21.4509,2.0435,
-73.0367,-12.7684,4.5966,-66.9078,-0.51062,-17.6875,21.9615,-11.7472,28.279,14.8119,20.9403,-1.5328,26.0475,0.51062,
-74.0584,-13.7906,0.51062,-66.9078,3.5753,-19.919,27.0697,-0.51062,33.1981,6.639,28.0909,-10.7259,31.1556,-3.5753,
-73.0367,-11.7477,13.7901,-68.9507,1.5323,-34.2203,38.3057,-1.5323,33.1986,1.5323,35.241,-8.683,43.4129,-1.5323,
-80.6974,-22.4721,2.0435,-79.6762,9.1941,-40.8593,23.3057,-15.3225,18.1986,0,20.241,-6.1284,28.4129,0,
-69.9725,-28.0914,1.5323,-73.0367,6.6395,-34.2203,24.0045,-9.7042,28.0904,15,27.0692,-1.5323,29.1126,-5.6183,
-68.4396,-27.5803,7.1501,-69.4613,-8.3605,-36.7734,32.6879,-3.0642,43.0904,28.602,42.0692,3.0642,44.1126,-10.2148,
-80.1868,-24.005,-3.5753,-73.0362,-23.3605,-24.005,17.6879,-4.5966,33.1991,28.0909,37.285,18.0642,35.2415,3.5753,
-72.0149,-25.0262,-4.5966,-73.0367,-38.3605,-9.005,2.6879,-7.6612,18.1991,13.0909,22.285,33.0642,20.2415,10.7259,
-61.2895,-27.5803,-3.0647,-61.2895,-53.3605,5.995,-1.0212,4.0859,6.1294,1.0212,7.285,32.6875,5.2415,16.3437,
-72.526,-31.6667,-9.1936,-59.2465,-68.3605,20.995,-15.323,9.1936,2.043,1.0217,-1.0217,30.6445,7.1501,18.3867,
-76.1009,-25.0262,-6.64,-56.6924,-83.3605,26.0484,-22.9837,10.7259,0.51062,8.6825,-0.51062,45.6445,2.5541,20.9403,
-64.8648,-12.7684,-0.51062,-43.4134,-98.3605,34.2203,-17.8766,20.9403,0.51062,23.6825,4.5966,60.6445,-1.5319,29.1122,
-68.4401,-25.5373,-4.0864,-48.0104,-113.3605,25.5373,-19.4079,15.322,3.0642,27.5798,1.0217,56.1813,-1.0217,19.4079,
-70.4826,-25.5368,-4.0859,-44.9453,-128.3605,28.6015,-28.6015,20.4297,2.0435,38.8168,0,70.4831,0,24.5156,
-66.3967,-24.5156,-4.0859,-44.9453,-130.7503,27.5803,-26.5591,20.4297,3.0647,35.7522,3.0647,75.5902,-3.0647,27.5803,
-53.1171,-23.4944,0,-46.9887,-121.5572,26.5591,-16.3437,9.1931,0,21.4519,4.0859,63.3324,-2.0425,26.5591,
-49.0312,-8.4944,4.0859,-39.8381,-106.5572,34.7309,-16.3437,18.3862,-8.1719,22.4731,3.0647,71.5043,-3.0647,33.7087,
-61.289,-12.2578,0,-50.0524,-121.5572,25.5378,-22.4721,19.4084,0,19.4084,2.0435,62.3112,-5.1072,24.5156,
-67.4184,-23.4944,-4.0859,-53.1171,-136.5572,23.4944,-29.6228,11.2366,1.0212,18.3872,5.1072,52.0959,-1.0212,25.5378,
-67.4184,-24.5161,-2.043,-41.8811,-138.9227,21.4514,-27.5798,2.043,-2.043,25.5373,6.1289,56.1823,4.0864,23.4948,
-68.9507,-25.0262,3.5753,-38.3062,-137.3903,13.7897,-21.9625,0.51062,5.6178,39.3275,-0.51062,65.8855,-4.5966,14.8119,
-67.4184,-27.5808,4.0854,-42.9023,-128.7079,24.5161,-22.4726,14.3008,2.043,48.0095,-2.043,71.5038,-11.2361,29.8119,
-62.8218,-35.2411,8.683,-56.6929,-119.0036,25.0267,-14.8114,11.7467,1.5323,35.2411,-1.5323,58.7354,-3.5748,31.1551,
-58.2248,-24.5161,13.2795,-66.3967,-113.3854,22.4726,-16.3432,8.1724,3.0642,38.8164,-3.0642,65.3754,-4.0854,18.3867,
-63.3324,-19.4084,13.279,-73.5473,-127.6861,22.4731,-20.4297,12.2578,1.0212,53.8164,-1.0212,79.6762,-7.1506,33.3867,
-72.526,-28.602,6.1289,-87.848,-136.8797,12.2583,-15.322,4.0854,-2.043,50.0529,2.043,79.6757,-10.2148,39.8376,
-72.0154,-14.8114,-2.5536,-86.3162,-121.8797,24.0045,-9.7042,9.7042,2.5536,50.5635,6.6395,86.3157,-2.5536,31.1551,
-72.0149,-24.0055,-4.597,-90.4016,-114.9177,22.9833,-14.8114,7.6608,5.6183,38.3057,0.51111,71.3157,-0.51111,16.8548,
-57.7142,-28.0914,9.7042,-85.2945,-107.7671,17.8761,-13.7901,7.6608,0.51111,35.241,-0.51111,56.3157,-7.6608,25.0267,
-61.289,-15.3225,9.1931,-75.5902,-99.0841,17.3659,-7.1506,11.2366,1.0212,38.8168,-1.0212,64.3537,-5.1072,22.4731,
-76.289,-23.4944,1.0212,-86.8263,-114.0841,14.3013,-11.2366,7.1506,3.0647,24.5156,-7.1506,54.1393,-1.0212,11.2366,
-67.929,-24.005,-0.51062,-87.3369,-113.896,26.0484,-11.7472,15.8331,4.5966,26.0484,0.51062,47.4993,-2.5531,26.0484,
-67.929,-31.1551,-1.5323,-87.3374,-122.0679,13.7901,-8.683,1.5323,7.6608,24.0055,5.6183,48.5211,-1.5323,15.8326,
-70.9937,-27.0697,0.51062,-86.3162,-125.1325,18.8978,-10.7259,4.5966,3.5753,24.005,-2.5541,50.5631,-0.51062,22.9837,
-55.9937,-12.0697,4.0864,-73.5473,-110.1325,33.8978,-12.2573,19.5966,1.0217,32.6879,-2.043,53.1176,-1.0217,37.9837,
-52.0954,-15.322,6.1289,-76.6115,-125.1325,48.8978,-13.2795,20.4302,1.0217,25.5373,-1.0217,56.1823,-11.2361,49.0317,
-54.1393,-16.3437,14.3003,-63.3324,-140.1325,63.8978,-7.1506,23.4944,0,39.8381,0,71.1823,-9.1931,53.1171,
-48.5206,-8.6825,16.8544,-56.6924,-151.6911,78.8978,-3.5753,28.0909,2.5541,54.8381,-2.5541,86.1823,-6.64,59.7571,
-50.0529,-17.3655,12.2583,-57.2035,-136.6911,70.4826,-9.1936,18.3867,2.043,51.0751,-2.043,82.7404,-11.2361,54.1389,
-60.7789,-9.7037,9.7037,-49.5418,-142.498,68.9502,-11.7472,26.0484,-1.5319,38.3062,1.5319,75.0796,-4.5966,47.4993,
-62.8218,-9.7042,6.6395,-51.5848,-157.498,54.6495,-8.683,25.0267,-1.5323,30.1339,-3.5748,60.0796,1.5323,34.2198,
-49.5423,-9.7042,3.5748,-41.3704,-143.5192,52.607,-5.6183,24.0055,1.5323,42.3917,-4.597,59.7566,-1.5323,43.4129,
-47.4988,-13.7901,2.5536,-38.3057,-135.3469,67.607,-2.5536,24.0055,5.6183,40.3492,-2.5536,74.7566,-5.6183,56.6929,
-50.564,-15.8331,9.7037,-40.3487,-141.4763,79.1656,-7.6612,24.005,1.5319,33.1981,-5.6178,79.1656,-1.5319,58.7359,
-39.3275,-4.5966,21.9615,-26.0484,-126.4763,85.294,-11.7472,34.2203,-2.5541,41.37,-2.5541,65.8865,2.5541,60.7784,
-48.5206,-15.8331,13.7906,-41.0484,-113.896,70.294,-12.7684,21.9625,1.5319,27.0697,-1.5319,50.8865,-10.7259,45.7784,
-56.1813,-12.2573,-1.0217,-52.0954,-128.896,76.612,-10.2148,19.4089,8.1724,30.6445,1.0217,49.0317,-8.1714,41.8811,
-62.8218,-16.8544,-6.64,-42.3922,-141.4763,78.1433,-15.8331,21.9615,4.5966,44.4346,3.5753,62.8218,-3.5753,46.4771,
-71.5038,-25.5373,1.0217,-36.7739,-128.7079,66.3967,-24.5161,22.4726,-1.0217,42.9023,3.0642,76.612,-16.3442,59.246,
-73.0367,-12.7689,10.7255,-24.0045,-113.7079,81.3967,-19.9186,33.1986,-1.5323,48.5211,1.5323,91.612,-11.7467,74.246,
-75.5907,-11.2366,11.2356,-25.5378,-116.4501,85.8046,-10.2153,24.5156,0,40.8593,-4.0859,82.7399,0,63.3324,
-78.6549,-16.3442,10.2148,-30.6445,-116.4501,86.8263,-13.2795,28.602,2.043,32.6879,-2.043,75.5898,-3.0642,50.0529,
-90.4016,-26.0479,2.5536,-35.241,-122.0679,84.2732,-19.9186,30.1339,3.5758,28.0914,-2.5536,68.9507,-6.6395,50.5635,
-92.9557,-27.5808,-1.0217,-31.6667,-130.7508,79.6757,-11.2361,17.3655,4.0854,20.4302,1.0217,53.9507,-2.043,44.9457,
-89.8915,-19.4089,2.043,-26.5595,-115.7508,83.7616,-10.2148,20.4292,-2.043,16.3432,8.1714,53.1166,-8.1724,52.0954,
-96.0204,-22.4726,6.1289,-41.5595,-105.214,76.611,-10.2148,21.4514,2.043,12.2573,-2.043,43.9235,-8.1724,43.9235,
-92.4446,-15.8331,1.5319,-48.5206,-104.7029,80.1868,-1.5319,21.9625,-1.5319,11.7472,-17.043,28.9235,1.5319,28.9235,
-85.294,-10.7255,1.5323,-35.2411,-92.4446,81.2085,3.5758,27.0702,-8.682,4.597,-18.8973,24.0055,-1.5323,18.8973,
-79.1656,-14.8119,15.8331,-31.1556,-77.4446,77.1221,4.5966,24.005,-0.51062,0.51062,-9.7047,38.3053,-7.6612,25.0262,
-70.4826,-11.2366,13.279,-21.4509,-62.4446,92.1221,0,23.4944,0,15.5106,-5.1072,53.1171,-10.2143,40.0262,
-58.7359,-14.8119,10.7259,-15.8331,-47.4446,107.1221,5.6178,25.0262,-5.6178,19.919,-8.6825,44.4346,-11.7472,44.4346,
-51.5853,-8.6825,18.8978,-18.8978,-32.4446,119.0036,8.6825,28.0909,-11.7472,13.7897,-19.919,41.3699,-13.7906,43.4134,
-54.1393,6.1294,11.2366,-25.5368,-17.4446,127.6861,-3.0647,23.4944,-15.3225,3.0647,-32.6875,30.645,-19.4084,34.7309,
-43.4139,0.51111,8.683,-21.962,-2.4446,136.3691,-0.51111,24.0045,-9.7042,-3.5758,-32.1773,15.645,-18.8973,19.7309,
-28.4139,0,8.1719,-18.3872,12.5554,151.3691,0,37.7946,-24.5166,-10.2153,-43.925,5.1072,-31.6662,20.4297,
-13.4139,8.1724,8.1724,-27.5798,27.5554,166.3691,5.1077,22.7946,-39.5166,-25.2153,-58.925,-9.8928,-38.8164,12.2583,
1.5861,21.4514,17.3655,-23.4939,42.5554,171.6106,16.3442,10.2148,-39.8376,-40.2153,-56.1813,-24.8928,-34.7304,-2.7417,
15.8331,28.0909,19.919,-15.8331,57.5554,161.9064,19.919,25.2148,-38.3053,-37.284,-51.5853,-33.1981,-34.2193,-17.7417,
19.919,24.005,22.9828,-19.919,72.5554,146.9064,29.1122,29.1122,-38.3062,-52.284,-51.5853,-48.1981,-29.1131,-30.1344,
19.9195,27.0692,22.9833,-17.8761,87.5554,131.9064,28.0914,17.8761,-44.4351,-52.607,-49.5423,-62.8213,-27.0692,-29.1126,
13.7901,32.1764,31.1551,-13.7901,102.5554,116.9064,29.1126,14.8114,-35.241,-37.607,-44.4351,-47.8213,-21.962,-15.8336,
3.5753,17.8766,28.0909,-16.8544,117.5554,101.9064,27.0697,15.8331,-37.284,-22.607,-48.5206,-32.8213,-24.005,-3.5753,
3.0647,12.2578,21.4519,-13.279,132.5554,94.9987,31.6662,20.4297,-33.7087,-20.4297,-33.5206,-17.8213,-18.3862,-3.0647,
1.0217,18.3867,26.5586,-11.2361,147.5554,87.8485,39.8386,21.4514,-18.7087,-11.2361,-18.5206,-21.4514,-3.3862,-11.2361,
-13.9783,22.4731,20.4297,-16.3437,151.1805,72.8485,32.6884,25.5378,-6.1284,-9.1931,-6.1284,-28.6015,4.0859,-4.0859,
-28.9783,7.4731,16.8544,-27.0697,136.1805,58.7349,30.1334,18.8968,-5.6188,-19.919,-12.7684,-33.1991,4.5966,-4.5966,
-41.3704,-2.5536,21.962,-29.1126,121.1805,56.6929,26.0479,13.7901,2.5536,-17.8761,-2.5536,-21.962,8.683,-8.682,
-51.0746,3.0647,7.1506,-34.7309,106.1805,56.1818,11.2366,17.365,-3.0647,-10.2153,-6.1294,-6.962,7.1506,-5.1072,
-55.1606,-4.0859,2.0435,-49.0312,91.1805,45.9675,21.4509,16.3437,-1.0212,-11.2366,-16.3437,1.0212,7.1506,-1.0212,
-60.7789,-7.6608,6.6395,-49.5423,76.1805,41.3704,19.9186,13.7901,-9.7042,-10.7255,-17.8761,2.5536,-2.5536,13.9788,
-64.3542,-2.0435,12.2578,-35.7522,61.1805,35.7522,17.365,9.1931,-8.1719,-8.1719,-6.1294,0,0,20.4297,
-68.9507,-6.64,8.6825,-38.3062,46.1805,26.0484,18.8978,2.5541,3.5753,-3.5753,-2.5541,-4.5966,8.6825,5.4297,
-81.208,-19.919,-6.3175,-49.5418,31.1805,31.1556,5.6188,5.6188,0.51062,10.7259,-11.7472,8.6825,3.5753,-0.51062,
-83.251,-31.1556,-0.51062,-50.5631,16.1805,26.0484,8.6825,0.51062,3.5753,12.7684,-9.7037,17.8766,2.5541,-1.5319,
-71.5038,-20.4292,12.2583,-39.8376,1.1805,19.4089,16.3442,-6.1289,-2.043,2.043,-6.1289,7.1511,3.0652,2.043,
-68.4396,-13.279,15.3225,-33.7087,-6.1284,26.5591,19.4084,4.0859,-13.279,0,-11.2366,0,4.0859,14.3013,
-82.2298,-28.279,0.51111,-42.3917,1.5323,19.9195,7.6617,2.5536,-21.962,-0.51111,-26.2366,8.683,-10.9141,12.7689,
-76.612,-25.5368,-3.0647,-30.645,12.2578,28.6015,3.0647,6.1284,-14.3013,14.3013,-26.559,23.683,-13.279,24.5156,
-67.929,-17.8756,5.6178,-35.2415,-2.7422,22.9837,7.6612,-1.5319,-1.5319,9.7037,-11.559,16.8544,1.5319,17.8756,
-59.246,-20.4302,9.1936,-44.9457,-17.7422,17.3655,3.0642,2.043,-2.043,6.1289,-6.1289,9.1936,-6.1289,14.3008,
-52.0959,-22.4721,0,-37.7946,-10.2143,24.5156,0,9.1931,4.0859,13.279,-2.0425,10.2153,-5.1072,22.4731,
-56.1818,-27.5803,-1.0212,-37.7946,-16.3437,28.6015,8.1719,-2.0425,15.3225,1.0212,10.2153,-4.7847,9.8928,8.1719,
-62.3112,-21.4514,2.043,-40.8598,-13.2795,37.7951,13.2786,8.1714,12.2573,-5.1077,12.2573,-16.3442,17.3645,-2.043,
-70.9932,-32.1768,-0.51062,-48.5206,-21.9615,25.0272,3.5753,6.64,3.5753,-0.51062,0.51062,-1.3442,3.5753,6.64,
-72.0149,-38.3062,3.5753,-46.4781,-21.9625,19.919,-4.5966,0.51062,-0.51062,11.7472,0.51062,10.7259,-2.5541,18.8978,
-70.9937,-32.1768,6.639,-40.3487,-7.6612,26.0475,-0.51062,1.5319,0.51062,9.7037,-0.51062,3.5753,-2.5541,3.8978,
-66.3967,-29.6228,4.0859,-44.9453,-17.365,22.4731,8.1719,0,12.2578,4.0859,0,5.1081,0,0,
-66.3967,-30.6445,-4.0854,-44.9457,-32.365,21.4514,-5.1077,2.043,8.1724,9.1936,3.0642,20.1081,-2.043,15,
-67.4189,-28.602,-2.043,-44.9457,-38.8173,19.4079,-8.1724,6.1289,2.043,10.2148,3.0642,21.4514,-2.043,29.6233,
-56.6924,-19.919,4.5966,-40.3487,-30.1344,22.9837,0.51062,7.6612,-0.51062,14.8109,-3.5753,19.919,-1.5328,14.8109,
-48.5206,-22.9837,3.5753,-36.2628,-15.1344,25.0272,-0.51062,7.6612,-4.5966,17.8766,-4.5966,25.0272,0.51062,19.919,
-54.1389,-37.9837,3.0642,-46.9892,-8.1724,10.2148,3.0642,2.043,-3.0652,2.8766,-2.043,10.0272,-2.043,19.4079,
-42.9023,-25.5373,12.2573,-35.7526,-1.0217,18.3867,11.2361,9.1936,-3.0642,1.0217,2.043,-4.9728,-2.043,19.4079,
-31.1556,-17.8766,14.8119,-20.9403,-10.7259,25.0262,12.7684,8.6825,-2.5541,-0.51062,0.51062,-11.7472,2.5541,4.4079,
-26.0484,-13.7897,14.8119,-21.9625,-11.7472,22.9837,9.7037,15.8331,2.5541,-5.6178,0.51062,-2.5541,4.5966,-0.51062,
-28.602,-2.043,11.2361,-29.6233,-3.0642,20.4292,8.1714,24.5151,-1.0217,-4.0864,-1.0217,4.0854,1.0217,14.4894,
-34.7304,-10.2148,11.2361,-29.6233,-11.2361,13.2795,10.2148,16.3432,1.0217,-1.0217,-2.043,-6.1289,1.0217,18.3867,
-36.2628,-18.8978,6.639,-19.919,-13.7906,19.919,0.51062,13.7897,-0.51062,10.725,-4.5966,8.8711,-1.5328,25.0262,
-35.7522,-18.3872,3.0647,-28.6015,-13.279,22.4731,1.0212,9.1931,-1.0212,9.1931,-6.1294,23.8711,-2.0435,22.4731,
-31.1556,-16.8544,4.5966,-38.3062,-5.6178,13.7897,12.7684,4.5966,-1.5319,0.51062,-1.5319,8.8711,0.51062,7.4731,
-33.1981,-16.8544,0.51062,-30.1344,-3.5753,19.919,7.6612,9.7037,-5.6178,6.64,5.6178,1.5319,-0.51062,-2.5541,
-42.3922,-27.0697,-0.51062,-36.2628,-18.5753,19.919,-0.51062,0.51062,-2.5541,1.5319,1.5319,5.6178,1.5319,9.7037,
-39.3275,-16.8544,-0.51062,-38.3053,-33.5753,19.919,2.5541,7.6612,-4.5966,0.51062,-2.5531,10.7259,2.5541,24.7037,
-27.5803,-14.3003,4.0859,-27.5803,-18.5753,17.365,7.1506,13.279,-9.1931,0,-5.1072,2.0435,0,21.4509,
-12.5803,-10.7255,19.0859,-16.8548,-3.5753,26.0479,13.7901,16.8548,-3.5748,0.51111,-4.597,-0.51111,8.683,9.7042,
-17.3655,-4.0854,15.322,-27.5798,10.2148,29.6233,8.1724,17.3655,-15.322,-14.4889,-12.2573,-3.0642,3.0642,11.2361,
-21.4514,-10.2148,5.1077,-33.7092,13.2795,27.5798,22.4726,8.1714,-5.1077,-23.4948,-5.1077,-9.1936,7.1501,15.322,
-21.962,-18.8973,0.51111,-36.2633,-1.7205,25.0267,17.8761,1.5323,0.51111,-15.8336,-0.51111,-16.8548,11.7467,9.7042,
-19.919,-14.8119,6.64,-37.284,-14.8119,15.8331,11.7472,8.6825,-0.51062,-17.8766,6.64,-26.0484,16.8544,0.51062,
-13.279,-14.3003,13.28,-39.8381,0.18813,10.2153,16.3437,4.0859,0,-26.5581,0,-30.644,14.3013,-6.1284,
-6.1294,-5.1072,10.2143,-28.6015,7.1506,25.2153,8.1719,4.0859,-4.0859,-11.5581,-11.2366,-15.644,5.1072,8.8716,
-16.3437,-7.1506,7.1506,-28.6015,-7.1506,26.5591,-1.0212,9.1931,-5.1072,3.4419,-6.1294,-0.64401,3.0647,23.4944,
-27.0697,-16.8544,1.5319,-40.3487,-2.5541,19.919,-2.5541,11.7472,-10.7259,4.5966,-0.51062,8.6825,0.51062,28.0909,
-29.1122,-19.919,-12.7684,-54.65,1.5319,28.0909,6.64,11.7472,-8.6825,-0.51062,-5.6178,4.5966,0.51062,19.919,
-21.4509,-17.365,-6.1284,-56.1818,9.1931,22.4731,13.279,12.2578,0,-5.1072,-5.1072,0,4.0859,16.3437,
-17.8766,-8.6825,6.639,-41.1818,24.1931,21.9615,-0.51062,20.9403,-8.6825,-7.6612,-11.7472,13.7897,0.51062,25.0262,
-18.8978,-18.8978,6.64,-39.3275,38.3062,25.0262,-1.5319,13.7906,-16.8544,-17.8756,-19.919,5.6178,1.5319,18.8978,
-7.6612,-16.8544,13.7897,-34.2203,53.3062,32.1768,13.4681,16.8544,-11.7472,-14.8119,-9.7047,-3.5753,3.5753,19.919,
-17.3659,-10.2153,10.2143,-36.7734,68.3062,30.645,12.2578,18.3862,-6.1294,-12.2578,0,-12.2578,0,21.4509,
-32.3659,-16.3437,-1.0212,-51.7734,83.3062,25.5378,8.1719,8.1719,1.0212,-19.4084,-1.0212,-27.2578,8.1719,19.4084,
-30.1334,-12.7684,0.51062,-54.6495,98.3062,37.285,4.5966,18.8978,-6.639,-12.7684,-0.51062,-12.7684,13.7906,30.1344,
-33.7092,-23.4948,6.1289,-55.1601,113.3062,29.6233,7.1501,10.2148,-14.3008,-23.4948,-6.1289,-16.3442,7.1501,21.4514,
-36.7739,-21.4514,11.2361,-52.0959,128.3062,30.6445,19.4079,5.1077,-7.1501,-34.7304,-5.1077,-31.3442,18.3867,10.2148,
-41.3704,-12.7689,0.51111,-52.6065,143.3062,43.4139,18.8973,14.8114,-5.6183,-30.1339,-0.51111,-41.3704,25.0267,11.7477,
-50.564,-16.8548,-1.5323,-60.7789,158.3062,39.327,16.8548,7.6608,-1.5323,-20.9408,1.5323,-26.3704,14.8114,9.7042,
-61.2895,-10.2153,0,-57.2035,173.3062,41.8815,17.365,9.1931,-2.0435,-12.2578,0,-11.3704,12.2578,12.2578,
-67.4184,-12.2578,-3.0647,-56.1818,188.3062,53.1171,23.4944,11.2366,-1.0212,-17.365,1.0212,-15.3225,21.4509,17.365,
-70.4831,-26.5591,-7.1506,-51.0746,203.3062,59.2465,21.4509,4.0859,-4.0859,-19.4084,7.1506,-14.3013,15.3225,28.6015,
-68.4396,-23.4939,-11.2361,-46.9882,218.3062,59.247,20.4302,3.0652,-10.2148,-18.3867,3.0652,-2.043,2.043,32.6879,
-61.2895,-17.365,-2.0425,-46.9887,233.3062,57.2031,28.6015,0,-3.0647,-19.4084,0,1.0212,12.2578,25.5378,
-61.8006,-17.8761,-1.5323,-46.4776,248.3062,63.8426,25.0257,6.6395,-5.6183,-13.7901,1.5323,-5.6183,16.8539,24.0045,
-65.3754,-19.4084,-3.0647,-48.01,263.3062,66.3971,35.7522,14.3013,-4.0859,-15.3225,3.0647,-20.6183,19.4084,13.279,
-65.3749,-17.3655,2.043,-50.0529,278.3062,62.3107,39.8386,12.2583,-6.1289,-22.4726,-2.043,-20.4292,15.323,10.2148,
-57.2035,-12.2578,0,-41.8815,293.3062,70.4821,26.5581,12.2578,-8.1719,-15.3225,-4.0859,-5.4292,7.1506,24.5156,
-53.6287,-19.919,-8.6835,-48.5211,308.3062,59.7571,32.1768,8.6825,0.51062,-14.8119,-0.51062,-6.64,12.7684,9.7037,
-51.5853,-16.8544,-16.8544,-51.5853,323.3062,56.6924,42.3922,14.8119,-3.5753,-19.919,3.5753,-15.8331,25.0262,8.6825,
-50.0529,-5.1077,-10.2148,-43.924,338.3062,65.3754,41.8811,14.3008,-5.1077,-19.4079,5.1077,-17.3655,29.6233,23.4939,
-42.3922,-4.5966,1.5319,-43.4134,353.3062,64.8643,36.2628,13.7897,-6.64,-24.005,-1.5319,-25.0262,17.8756,12.7684,
-40.3487,1.5319,-1.5319,-43.4134,368.3062,66.9078,30.1334,28.0909,-17.8766,-32.1768,-7.6612,-25.0262,9.7037,8.6825,
-45.9665,0,0,-43.924,383.3062,61.289,33.7097,17.365,-9.1931,-30.645,-8.1719,-22.4731,12.2578,7.1506,
-41.3699,-6.64,3.5753,-42.3922,398.3062,56.6924,34.2203,5.6178,-3.5753,-15.645,-6.64,-9.7047,15.8331,7.6612,
-41.37,-12.7684,-5.6188,-47.4993,413.3062,48.5206,28.0909,10.7259,-7.6612,-5.6188,-2.5541,2.5541,18.8978,13.7897,
-48.01,-18.3872,-20.6188,-62.4993,428.3062,36.7734,20.4297,5.1072,-9.1941,-11.2366,0,0,11.2356,9.1931,
-42.9028,-11.2366,-26.5591,-67.4184,443.3062,43.924,17.365,6.1284,-4.0859,-16.3437,5.1072,-9.1941,11.2366,4.0859,
-31.6662,-12.2578,-12.2578,-68.4396,458.3062,44.9462,26.5591,10.2153,8.1719,-31.3437,9.1941,-24.1941,26.2366,-8.1719,
-25.5368,-12.2578,-1.0212,-60.2678,473.3062,48.01,25.5368,16.3437,1.0212,-34.7309,5.1072,-38.8168,32.6875,-4.0859,
-25.5373,-9.1936,-2.043,-45.9675,488.3062,54.1389,20.4292,15.322,-11.237,-21.4514,2.043,-23.8168,22.4726,10.9141,
-18.3872,-7.1506,1.0212,-43.924,503.3062,56.1818,24.5156,3.0647,-12.2578,-11.2366,-4.0859,-8.8168,12.2578,25.9141,
-9.7037,1.5319,-6.64,-48.5206,518.3062,59.7571,22.9837,1.5319,-19.919,-9.7037,-17.8766,-1.5319,8.6825,11.7472,
-1.5319,-0.51062,0.51062,-42.3912,533.3062,62.8218,37.285,8.6825,-8.6825,-11.7472,-4.5966,-7.6612,21.9625,0.51062,
-14.8119,-14.8119,1.5319,-45.4569,548.3062,51.5853,30.1334,-0.51062,-9.7047,-11.7472,0.51062,-4.5966,10.725,15.5106,
-16.3442,-3.0642,-4.0864,-37.7951,563.3062,42.9023,26.5586,3.0642,-5.1077,-6.1289,-7.1501,4.0854,10.2148,30.5106,
-13.28,0,0,-36.7744,578.3062,32.6875,39.8381,8.1719,-1.0222,-17.3659,-9.1941,-5.1081,18.3862,15.5106,
-26.5581,-10.2143,0,-38.8159,593.3062,35.7522,34.7309,9.1941,-13.279,-15.3225,-1.0212,1.0222,12.2578,0.51062,
-40.8593,-25.2143,-11.2366,-45.9675,608.3062,42.9028,24.5156,5.1072,-16.3437,-16.3437,0,0,11.2366,5.1072,
-25.8593,-10.2143,-5.1081,-31.6662,623.3062,57.9028,33.7087,20.1072,-2.0435,-12.2588,0,0,21.4509,20.1072,
-29.6233,-3.0642,-3.0642,-31.6657,621.0652,72.9028,18.7087,27.5808,-17.0435,-12.2573,-15,3.0642,6.4509,35.1072,
-44.6233,-16.8544,-2.5541,-36.2628,606.0652,73.0362,4.5966,12.5808,-25.0262,-12.7684,-15.8331,13.7906,2.5541,20.9403,
-46.4776,-9.7042,-7.6608,-28.0914,591.0652,82.2298,8.683,20.9408,-16.8548,-11.7467,-12.7689,25.0267,7.6608,27.0692,
-44.4346,-10.725,-3.5753,-28.0909,576.0652,89.3809,17.8766,22.9837,-12.7684,-6.639,-10.725,30.1344,3.5753,42.0692,
-55.6717,-20.9408,-8.683,-39.328,561.0652,76.1004,5.6183,9.7042,-18.8973,2.5536,-14.8114,44.4342,-2.5536,52.607,
-61.289,-10.2153,-17.365,-32.6875,546.0652,82.7409,-3.0647,20.4297,-23.4944,8.1719,-17.365,57.2031,3.0647,59.2465,
-59.2465,-9.1931,-10.2153,-35.7522,531.0652,84.7834,8.1719,24.5156,-18.3872,-6.8281,-15.3225,42.2031,9.1931,48.01,
-58.7354,-14.8114,-6.6395,-45.4564,516.0652,77.1226,14.8114,21.962,-16.8539,-17.8761,-5.6183,27.2031,5.6183,34.2198,
-69.4613,-17.365,-13.279,-49.0317,501.0652,68.4396,16.3437,19.4084,-7.1506,-11.2366,4.0859,12.2031,14.3013,28.6015,
-84.2727,-27.0692,-24.0045,-55.6707,486.0652,53.4396,9.7042,11.7477,-12.7679,-5.6183,-7.6608,5.6183,9.7042,22.9842,
-85.8051,-28.6015,-26.5581,-55.1606,494.4008,54.1393,1.0212,13.28,-21.4509,6.1294,-17.365,20.6183,-1.0212,25.5378,
-78.6549,-29.6228,-26.5591,-58.2253,485.2077,57.2031,1.0212,9.1931,-15.3225,6.1284,-10.2153,35.6183,-1.0212,23.4944,
-66.9078,-20.9403,-22.9837,-45.4559,487.7608,63.8431,0.51062,12.7684,-20.9403,4.5966,-6.64,29.1122,-0.51062,29.1122,
-66.9078,-11.7472,-10.7259,-35.2415,500.0196,64.8643,11.7472,16.8544,-20.9403,-2.5541,-10.7259,18.8978,2.5541,26.0484,
-75.5902,-16.3437,-5.1072,-48.01,493.3796,57.204,17.3659,15.3225,-8.1719,-6.1284,-10.2143,5.1072,7.1506,19.4084,
-82.2298,-27.0697,-18.8968,-52.6065,489.8043,53.6287,2.3659,12.7684,-12.7684,6.64,-10.725,14.8119,0.51062,22.9837,
-73.0362,-36.2623,-15.8326,-37.6065,504.105,50.5645,2.5536,5.6183,-15.8326,15.8336,-8.682,29.8119,-2.5536,35.242,
-67.929,-29.1121,-10.7259,-29.1121,508.1905,49.5418,7.6612,8.6825,-24.005,12.7684,-14.8119,44.8119,-7.6612,48.5206,
-73.0362,-19.9186,-14.8114,-39.327,496.9554,53.6282,2.5536,10.7264,-26.0479,10.7264,-19.9186,41.3704,-2.5536,41.3704,
-70.4826,-28.601,-15.322,-43.9235,507.6803,54.1398,-2.043,2.043,-23.4939,6.1299,-17.3645,37.7951,3.0652,26.3704,
-57.7142,-18.8973,-11.7467,-35.2411,522.6803,58.7354,-0.51111,10.7255,-20.9408,9.7042,-4.597,44.4351,0.51111,29.1126,
-64.3542,-25.5373,-14.3008,-44.9457,507.6803,43.7354,2.043,4.0864,-21.4514,5.1077,-2.043,29.4351,-7.1501,26.5586,
-68.4396,-26.5581,-13.279,-36.7734,501.5514,46.9887,8.1719,6.1294,-21.4509,-2.0425,-1.0212,14.4351,1.0212,40.8593,
-77.1226,-22.9837,-19.919,-41.3709,510.2339,50.564,9.7037,10.7259,-22.9837,-14.8119,-3.5753,3.5753,3.5753,28.0909,
-79.6762,-23.4939,-16.3442,-55.1601,495.4225,40.8598,9.1936,7.1501,-13.2795,-6.1289,-2.043,9.1936,2.043,13.0909,
-83.2515,-19.9195,-19.9195,-47.4998,489.8038,45.4564,1.5323,9.7042,-15.8336,8.8711,-5.6183,24.1936,-1.5323,24.0045,
-86.8263,-27.5798,-27.5798,-52.0954,490.3154,39.8386,2.043,5.1077,-17.3645,12.2583,-11.2361,19.4089,-2.043,35.7526,
-77.1226,-26.0484,-21.9625,-56.6924,497.9761,36.2628,0.51062,5.6178,-15.8331,1.5319,-13.7906,5.6178,-0.51062,20.7526,
-63.3324,-12.2573,-9.1936,-41.6924,512.9761,51.2628,8.1724,15.322,-9.1936,-3.0642,-7.1501,13.2795,3.0642,16.3442,
-58.2243,-12.2578,-4.0859,-30.645,514.8305,55.1606,18.3872,17.3659,-2.0425,-7.1506,-1.0212,3.0647,1.0212,18.3872,
-62.3112,-14.3013,-14.3013,-42.9028,499.8305,40.1606,10.2143,12.2578,-10.2153,0,0,2.0425,-2.0435,16.3437,
-70.9937,-26.0475,-25.0262,-46.4781,487.7608,25.1606,8.6825,3.5753,-14.8119,-3.5753,-8.6825,13.7906,4.5966,4.5966,
-60.7789,-18.8973,-16.8548,-38.3057,502.7608,40.1606,12.7689,18.5753,-19.9186,0.51111,-20.9408,28.7906,-0.51111,19.5966,
-47.4993,-7.6612,-7.6612,-33.1991,517.7608,55.1606,7.6612,33.5753,-31.1556,15.5111,-22.9837,43.7906,-11.7472,34.5966,
-57.2035,-22.6612,-14.3008,-44.9457,530.1525,66.3967,2.043,18.5753,-26.5586,16.3432,-17.3655,58.7906,-2.043,36.7739,
-68.4396,-26.5581,-25.5368,-43.924,515.8527,58.2253,-4.0859,6.1294,-23.4934,14.3013,-15.3215,43.7906,4.0859,36.7744,
-69.972,-18.8973,-25.0267,-43.4129,512.2769,60.7789,0.51111,11.7477,-22.9833,1.5323,-12.7689,28.7906,-0.51111,34.2198,
-66.3962,-14.3003,-17.365,-44.9453,514.8305,65.3759,10.2153,14.3013,-19.4084,-8.1719,-10.2143,18.3872,8.1719,22.4731,
-58.2248,-11.2361,-15.322,-41.8811,527.0888,62.3107,7.1501,19.4079,-18.3867,-7.1501,-13.2795,16.3442,12.2583,27.5808,
-48.0095,-18.3867,-7.1501,-39.8376,524.0241,51.0751,11.237,13.2795,-12.2573,-7.1501,-14.3008,19.4089,7.1501,39.8386,
-51.5853,-19.919,-14.8119,-37.284,511.2552,63.8431,6.64,11.7472,-13.7897,-0.51062,-14.8119,34.4089,0.51062,44.4346,
-55.6707,-20.9408,-28.0904,-42.3917,505.1263,70.9932,1.5323,8.683,-15.8326,4.597,-18.8973,39.327,-1.5323,34.2198,
-42.9028,-15.3225,-14.3003,-36.7734,512.788,61.29,11.2366,14.3013,-9.1931,4.0859,-16.3437,24.5156,-4.0859,42.9028,
-49.5423,-10.7255,-12.7679,-34.2198,505.1272,56.6929,13.7901,24.0055,-9.7042,-1.5323,-12.7679,16.8548,1.5323,43.4139,
