"AF3","AF4","F3","F4","F7","F8","FC5","FC6","O1","O2","P7","P8","T7","T8",
30.7693,51.282,35.3845,81.5383,-50.7695,-44.6155,-21.0256,-3.0769,39.9998,-7.1794,32.8206,-67.1797,-16.9231,3.0769,
26.667,45.6411,27.6924,68.2051,-42.564,-50.2563,-25.1279,-5.6411,31.2822,-4.1025,22.0513,-59.4871,-23.5898,4.1025,
17.4355,35.3843,20,53.333,-46.1541,-55.8975,-29.231,-7.1797,21.5386,-0.5127,12.8203,-60,-37.436,0.5127,
16.4102,28.2051,14.8716,44.6152,-43.0769,-53.3333,-26.6665,-10.2563,22.0513,8.2051,16.9229,-62.0513,-27.6924,-8.2051,
19.231,25.3848,14.1025,41.7949,-31.0254,-55.6409,-20.769,-14.6152,17.6924,7.9487,15.1284,-56.6665,-32.564,-7.9487,
19.9998,24.1028,14.3591,30.2566,-19.4871,-55.3845,-13.8459,-11.7947,16.4104,1.0256,4.1028,-46.1538,-41.0256,-1.0256,
20.5129,19.4871,11.282,16.4104,-14.3591,-45.6411,-13.3333,-9.2307,13.3333,0.51294,-0.51294,-41.0256,-30.2566,1.5383,
15.8975,15.3848,2.5645,10.7695,-10.769,-42.564,-10.769,-9.7437,2.0513,3.0771,0,-35.8975,-23.0767,0,
19.4868,15.3843,-0.51318,4.1025,4.231,-37.436,0,-3.0771,0,1.5386,-1.5386,-22.5645,-18.4614,1.0254,
28.9744,21.282,4.8718,1.282,17.6926,-28.4617,2.3079,1.7952,-3.3333,-1.282,-4.8718,-15.1282,-15.6409,-1.7947,
30.2563,25.1284,8.2051,-2.0513,17.9487,-29.7437,4.6152,2.0513,-9.7437,7.6924,-7.6924,-9.231,-16.4102,-3.0767,
18.4617,19.9998,3.5896,-11.7952,15.3845,-34.3591,7.6921,-0.51294,-10.7693,8.718,-12.3079,-7.6926,-21.5383,0.51294,
11.0259,16.6665,0.25635,-11.5386,19.231,-27.9487,3.8462,-0.25635,-6.4102,4.3589,-12.564,-9.4873,-25.8975,3.8462,
12.3074,12.3074,-1.0256,-15.8977,23.5896,-20.5129,6.1536,1.5383,-9.2307,10.2561,-15.3845,-6.1541,-17.949,1.0256,
15.8975,11.7949,-4.6152,-28.2051,31.7949,-20,15.8975,3.0767,-16.9233,9.2305,-22.564,-0.5127,-2.949,-1.0259,
13.8462,7.1797,-9.231,-40,31.7949,-22.564,10.769,0,-20.5127,5.6411,-24.1025,2.564,-1.5386,0,
10.2561,2.051,-7.6926,-35.8977,19.4871,-26.1541,3.5896,-1.0256,-13.3333,13.8459,-15.3845,1.0256,-10.7693,2.051,
13.8464,6.6667,-2.051,-20.8977,13.8464,-32.3074,9.2312,-1.0256,1.0256,12.3079,-8.7175,-13.9744,-5.6409,4.6155,
15.8975,8.2051,2.0513,-5.8977,17.9487,-41.0254,10.2568,-7.6919,11.7949,-2.0513,-6.6665,-28.9744,-11.2817,10.7695,
9.231,5.6411,5.1284,7.6924,9.7437,-56.0254,-2.0513,-18.9741,9.7437,-10.2563,-3.0767,-43.9744,-26.2817,2.0513,
15.6409,14.1028,18.718,22.6924,-0.25659,-67.4358,0.25659,-16.6667,12.0515,-13.0769,9.4871,-58.9744,-18.718,-0.76929,
10.2563,17.9487,21.0259,37.6924,-15.2566,-71.7949,-2.564,-20.5127,20,-23.5898,15.3848,-73.9744,-13.3335,2.564,
4.6152,30.769,26.1538,52.6924,-22.5642,-63.5898,-4.6152,-12.8203,35,-12.8203,30.3848,-73.3333,-19.4873,10.769,
4.6155,33.8464,31.282,67.6924,-25.6409,-63.0769,-9.2307,-4.6155,43.0769,-8.2048,42.0515,-73.3333,-22.564,6.6667,
5.1284,33.8462,37.436,75.3848,-26.6667,-63.5898,-10.2563,-5.1284,40,-14.3589,40,-76.9231,-17.436,7.1797,
3.8462,40.2563,40.2563,77.1792,-19.231,-53.5898,-5.3848,-3.8462,42.8203,-6.4106,39.2305,-61.9231,-14.6157,15.1279,
2.0513,33.8462,30.7695,70.7695,-17.9487,-51.7947,-5.1279,-4.6152,44.1025,-2.0513,43.0771,-50.769,-27.1794,12.8208,
2.564,30.2563,30.2563,67.1792,-15.3848,-51.2822,-2.564,-2.564,44.1025,-3.5898,45.6411,-57.9487,-22.5642,15.3848,
-5.3848,26.9229,30.5127,54.1025,-11.5386,-51.0256,-1.2822,-3.8462,43.3335,1.2822,36.1538,-53.0769,-7.5642,20.769,
-10.7693,17.4358,17.9485,39.4871,-8.718,-53.3333,-6.6667,-7.1794,36.9231,6.6667,23.0769,-46.6667,-9.2307,21.0256,
-11.0259,7.436,6.4102,32.0513,-0.25635,-56.6667,-8.9746,-13.0771,24.3589,0.25635,20.769,-50,-18.7178,17.6924,
-13.0769,0.76929,3.3333,20.2566,6.4104,-58.7178,-0.76929,-14.6155,18.718,-2.8206,21.7952,-41.7949,-13.0769,16.1541,
-13.8459,-1.0256,-1.5383,11.282,2.0515,-58.4614,3.5901,-11.282,15.3845,1.0256,10.2566,-30.769,-10.2561,15.3845,
-12.3079,-1.5383,-4.6155,4.1028,8.2053,-53.8462,1.5383,-11.282,13.8459,5.1282,3.0769,-23.5898,-12.3079,16.9231,
-10.769,0,-2.564,0,23.2053,-46.6667,1.0259,-12.3076,14.3589,10.2563,2.564,-11.7949,-8.7178,16.9233,
-9.7434,4.6155,-2.051,-1.0256,31.7952,-37.4358,8.2053,-6.1536,10.2566,23.5901,-1.0256,1.0256,-8.2048,13.8464,
-14.6155,2.3079,-3.3333,-7.4358,31.5383,-33.5898,15.6409,-1.282,4.8718,29.9998,-1.282,1.282,-10.5129,14.1028,
-16.1538,0.25635,-6.4102,-10,37.1797,-35.6409,14.6152,-0.25635,5.3848,20.7695,0.25635,-6.4102,-12.0513,19.7437,
-7.949,2.8206,-8.4617,-14.1028,48.9744,-30.5129,16.6667,2.3079,8.4617,15.6409,-2.3079,-6.9231,-10.0002,22.8206,
-11.7949,0,-9.231,-25.6411,52.8203,-27.1794,20.5127,0,3.5898,18.9746,-4.1025,-3.0771,4.9998,18.9746,
-15.8975,-2.0513,-11.2817,-27.6921,52.3076,-23.0767,21.5386,0,0,24.1025,-4.1025,10.2563,19.9998,17.436,
-8.7183,-1.5386,-13.8462,-26.1541,56.9229,-21.0259,20,1.5386,-2.5645,17.9487,-10.7695,11.2817,16.9229,20.5127,
-7.6919,6.1543,-6.1538,-11.7944,52.3081,-21.0254,20,4.1025,5.6411,13.8462,-7.1792,-3.7183,1.9229,27.1797,
-19.7437,4.8721,-4.3589,-0.25635,37.3081,-30,7.436,-0.25635,16.1538,7.436,0.25635,-18.7183,-3.3335,19.7437,
-21.0256,1.0256,-1.0256,10.2566,22.3081,-41.0256,1.5383,-7.1794,17.4358,-3.0769,7.1794,-22.5642,-4.6155,11.7952,
-22.8203,3.3335,1.2822,25.2566,7.3081,-53.5898,-1.2822,-12.564,14.1025,-12.564,12.0513,-37.5642,-19.6155,12.564,
-20,18.3335,13.3335,40.2566,-2.0513,-45.1282,1.5386,-1.5386,29.1025,-2.0513,27.0513,-49.2307,-9.7437,22.0513,
-32.5642,25.3845,16.1541,55.2566,-17.0513,-45.8975,-2.8206,-4.3591,44.1025,-3.3333,35.1282,-57.6924,2.8206,18.718,
-37.1794,22.3076,23.3335,70.2566,-32.0513,-53.0769,0.25635,-5.8975,56.1538,-7.436,50.1282,-67.9487,-0.25635,22.8203,
-27.9487,24.8721,30,85.2566,-23.3333,-51.5383,-0.25635,0.25635,61.7949,-0.25635,61.7949,-62.8206,-3.3333,27.9487,
-30.5128,27.4357,26.923,88.4615,-25.8976,-49.4872,-7.4359,1.795,56.6666,-1.795,54.1027,-55.1283,-7.9489,31.0255,
-34.1025,23.3335,25.8975,81.2822,-24.3589,-45.3845,-3.8462,3.8462,61.7949,-3.8462,51.0259,-59.7437,-13.0769,39.231,
-26.4102,15.1282,19.7434,71.5383,-9.3589,-46.9231,-8.4614,-2.8206,59.2307,2.8206,42.3079,-59.7437,-7.9487,30.5129,
-17.1794,4.8718,7.4358,56.5383,2.8206,-59.2307,-17.1794,-16.6667,44.2307,-5.3845,27.3079,-55.1282,-2.8206,15.5129,
-6.6667,8.718,6.6667,45.6409,7.6921,-55.3845,-9.7434,-8.718,29.2307,-18.4617,27.1794,-53.8462,-8.2053,15.3845,
-6.1538,13.3335,2.0513,45.1284,9.231,-48.7178,-16.4102,-2.0513,23.5898,-17.4358,20.5127,-56.9231,-22.0513,9.7437,
-2.8206,10.0002,0.76929,42.3079,13.5901,-46.4102,-16.6665,-1.282,30.0002,-2.4358,16.6667,-42.3076,-7.9485,17.1794,
0.5127,0,-4.1025,35.8975,8.7178,-51.2822,-14.3591,0,24.6152,-8.7183,16.9229,-41.0259,-6.667,22.564,
8.718,-3.5896,-5.6409,26.6667,14.3591,-51.7949,-12.8206,3.5896,12.3079,-20.5129,14.8718,-48.2051,-21.667,11.7947,
21.5386,-3.0767,-2.0513,16.9233,23.0771,-45.6409,-8.2051,2.0513,8.7183,-10.769,10.7695,-36.4102,-14.8716,12.8208,
29.4871,-1.282,-7.4358,14.1023,21.282,-41.7949,-10.0002,-3.8464,5.8972,-3.8464,1.7947,-26.4104,0.12842,18.718,
32.3076,0,-13.3335,7.6919,22.0513,-37.949,-13.8462,-2.5645,3.0767,-3.0771,0,-24.1025,7.1792,15.8975,
38.4614,0,-10.769,0,24.6152,-30.7693,-14.3589,1.5386,0.5127,-0.5127,0,-19.4873,2.564,12.8203,
47.4358,2.3079,-10.0002,-1.7947,32.5642,-20.2566,-11.5383,4.8718,-3.3333,4.8718,-7.949,-10.5129,1.7947,12.5642,
50.5125,3.3333,-14.1028,-6.9231,45.3845,-15.6414,-4.8718,6.9231,-5.3845,5.8972,-15.6414,-3.3333,9.4871,15.6409,
45.1282,1.0256,-16.9231,-15.3845,50.2566,-13.8459,-1.0256,6.1541,-8.718,4.6155,-19.4871,-3.5896,5.6409,11.282,
46.6663,-1.0256,-16.4104,-18.4617,45.6409,-9.7439,-3.0769,6.6663,-6.6667,7.6921,-17.949,1.0256,2.5637,9.7434,
44.1023,1.0256,-17.949,-8.2053,30.7688,-14.3591,-8.718,3.5896,-2.5642,5.6409,-12.8206,2.051,-1.0256,13.8459,
34.1025,3.8462,-15.6411,6.7947,15.7688,-19.231,-14.1025,1.7949,3.8462,-1.7949,-5.3848,-8.9746,-15.1284,14.6152,
33.0767,6.4102,-5.3848,20.2563,0.7688,-18.7178,-15.6411,6.9229,14.1025,-1.2822,-0.25635,-16.6665,-15.1284,12.564,
32.8206,10.7693,2.5642,33.3333,-9.7434,-28.718,-24.6155,1.0256,10.7693,-1.0256,-1.0256,-22.5642,-6.6667,8.2053,
31.0259,15.6411,7.436,48.3333,-20.769,-37.6924,-33.5898,-6.4102,8.4614,-6.4102,7.436,-37.5642,-12.0513,6.4102,
28.4617,17.6921,11.5383,63.3333,-31.5386,-38.2051,-37.6924,-4.3591,22.3079,-15.1282,17.6921,-52.5642,-25.8972,4.3591,
24.1025,21.5386,16.9229,78.3333,-46.5386,-40.5127,-41.0256,-2.564,37.3079,-24.6155,21.0259,-67.5642,-35.3845,2.564,
19.7437,21.7949,20.769,91.0254,-59.231,-44.8718,-41.7949,-6.4102,40.2563,-25.3848,27.9487,-80.2566,-39.7437,6.4102,
18.2051,20.769,21.2822,90.5127,-49.4871,-47.9487,-39.2307,-7.9487,38.2051,-19.2307,30.5127,-82.3076,-32.564,7.9487,
21.0254,19.4873,21.5386,86.1538,-37.436,-45.6411,-31.7949,-7.1797,38.9741,-16.4104,29.7437,-77.436,-17.9487,7.1797,
22.5637,15.3845,15.8972,75.8972,-36.4104,-34.3591,-29.231,-7.1794,31.7947,-23.5898,25.6409,-68.718,-13.3333,7.1794,
18.2048,14.1023,6.9231,63.8459,-34.6155,-31.5386,-33.0771,-6.9231,16.7947,-34.1028,14.6155,-61.2822,-12.0515,8.4612,
15.6411,9.4873,6.9229,50.5127,-30,-37.1794,-32.0513,-6.9229,10.5127,-26.9229,12.564,-57.1794,-12.0513,11.0259,
16.6667,4.8718,7.9485,49.4871,-30.5129,-35.6411,-28.4617,-4.8718,16.6667,-14.1028,14.6155,-54.6155,-20.7693,12.5637,
15.6409,3.3333,2.8206,44.3591,-25.8975,-31.0256,-22.8206,-2.8206,13.5896,-14.6155,8.9744,-48.4617,-25.8975,21.282,
14.6155,3.3333,2.3079,30.5129,-16.1541,-30,-16.6667,-2.3079,5.8972,-15.1282,3.3333,-41.7949,-30,36.282,
19.4871,5.1282,0.51294,24.1023,-7.1794,-22.5642,-14.3591,0.51294,1.5383,-14.3591,-0.51294,-40,-33.3335,38.9744,
28.7178,8.2051,0,18.4614,7.8206,-7.5642,-7.1797,7.6924,0,-11.7949,-2.564,-32.3079,-18.3335,32.8203,
24.6152,8.2051,-1.5386,12.8208,14.3589,-7.1792,-3.5898,6.1538,-1.5386,-10.2563,-3.0767,-24.1025,-3.3335,34.8721,
17.4358,3.0769,-6.6667,9.7434,9.2307,-12.8206,-6.6667,4.1028,4.1028,-11.282,-3.0769,-22.5642,-8.2053,32.8206,
21.5386,2.564,-8.7178,8.2051,16.9229,-2.564,-7.6924,10.769,4.1025,-8.7178,-7.6924,-17.9487,-13.3335,21.5386,
21.2817,4.8716,-13.5898,2.3076,23.8462,4.8716,-4.3589,9.4868,-9.4873,-2.3076,-16.1538,-9.4873,-15.6411,19.2305,
13.5898,0.25635,-19.231,-11.5386,23.3335,5.3848,-0.25635,6.9229,-7.436,3.3335,-18.2051,-3.3335,-11.5386,21.7949,
11.7949,-3.5898,-17.9487,-18.4614,28.7178,3.0771,0,13.3335,-5.6411,0,-16.4102,4.6152,-2.0513,15.8975,
15.6411,-5.3843,-16.6665,-21.7949,39.231,-0.25635,2.3076,11.0259,-20.6411,0.25635,-22.8203,12.0513,-3.333,17.6924,
17.1794,-7.9485,-16.1536,-25.8972,42.3079,-2.3079,6.9231,3.3333,-27.4358,2.3079,-30.5129,2.3079,-4.8718,20.7693,
23.3333,1.7947,-3.8459,-10.8972,34.1028,-1.7947,8.9744,9.4871,-13.5896,-2.8206,-21.282,-12.6921,3.3333,11.0256,
17.4358,7.6921,3.0769,4.1028,19.1028,-7.6921,-3.0769,8.2053,-6.1541,-15.8977,-9.7434,-25.6409,-3.0769,6.1541,
5.6411,10.2563,2.0513,19.1028,4.1028,-10.2563,-10.7695,2.564,5.6411,-17.9487,-2.564,-31.7949,-18.0769,18.4614,
-1.2822,12.0513,5.8975,34.1028,-10.5127,-13.0771,-16.6665,1.2822,14.6152,-15.6411,3.8462,-42.3076,-29.4873,17.6924,
-1.282,12.5642,13.0769,49.1028,-25.5127,-17.1794,-20.7693,1.282,24.8718,-11.5383,18.8462,-52.0513,-23.3333,15.6409,
-2.0513,20,16.4102,64.1028,-35.3848,-17.949,-21.5386,2.0513,37.9487,-7.1797,29.7437,-57.949,-21.0259,24.1025,
-2.8203,28.4614,18.7178,79.1028,-32.0513,-17.6924,-20.7693,2.8203,42.3076,-3.3335,29.4873,-52.5642,-27.9487,27.9487,
-1.2822,29.4873,19.7437,88.4614,-34.1025,-18.2051,-21.282,1.2822,40.769,-4.8716,34.6152,-53.0769,-36.6667,24.3589,
-3.0769,24.615,19.4871,88.2048,-34.8721,-20.0002,-22.0515,3.0769,39.9998,-8.2053,39.9998,-65.1284,-32.8206,25.6409,
-3.5898,16.9233,19.4873,79.4873,-24.6152,-21.5383,-16.9231,3.5898,34.8721,-5.6411,35.3848,-62.0513,-17.8206,28.7183,
-1.2822,18.2051,17.6924,72.564,-17.6924,-18.2051,-7.436,1.2822,28.9746,-2.3076,26.4102,-47.0513,-11.0254,26.4102,
-4.8716,15.6411,9.4873,64.3589,-16.6667,-13.5898,-6.4102,3.8462,28.4614,-3.8462,25.3848,-42.3076,-17.6924,24.3589,
-10.769,5.6411,3.0771,50.2563,-13.3335,-16.9229,-14.8716,3.5898,20,-3.0771,21.0259,-47.6924,-27.1794,18.9746,
-4.8716,8.4614,7.436,43.3335,-2.3076,-14.1025,-11.5386,-1.7949,7.9487,1.7949,6.0259,-33.0769,-23.3335,18.2051,
0,8.2051,9.231,34.3594,10.2568,-9.2305,0,-2.564,6.1538,-5.1279,-3.5894,-29.7432,-15.3843,21.0259,
-4.1025,0,3.0771,26.667,20,-14.8716,1.0259,-1.5381,5.6411,-14.3589,0,-44.7432,-14.3589,16.4106,
1.0256,-1.0256,1.5383,20.0002,31.282,-10.2566,5.1282,-2.051,2.0515,-7.6921,-2.051,-36.4102,-16.9231,13.3333,
7.4358,0.76929,1.282,12.0515,36.6667,-5.8972,9.9998,-1.282,-5.3845,-0.76929,-10.0002,-21.4102,-19.2307,12.5642,
4.3589,-0.76904,-0.25635,7.436,34.1025,-10,10,4.8721,-5.3843,0.25635,-8.9741,-11.5386,-11.5386,18.2051,
-1.2817,0.25635,-1.7949,-0.25635,37.6924,-5.8975,14.6152,8.9746,1.7949,2.3076,-5.3848,-6.4102,-5.3848,25.3848,
-8.9746,0.76904,-6.4102,-3.3335,38.7178,-0.76904,16.1538,1.7949,-1.2822,1.2822,-14.6152,1.7949,-13.0771,22.8203,
-6.4106,-0.25635,-5.3848,-1.7949,35.1279,0.25635,16.6665,3.8462,-3.3335,8.4614,-15.1284,8.4614,-7.9487,23.8462,
-8.7178,-5.1279,-11.7949,-13.8462,33.3335,3.5898,13.3335,8.2051,-9.2305,7.1797,-16.9229,8.7178,-3.5898,26.1538,
-11.0259,-0.25635,-13.0771,-17.6924,47.4355,17.1792,13.5898,11.5386,-14.6157,0.25635,-22.8208,12.0513,-1.7949,27.9487,
-13.0771,2.3076,-6.9233,-18.2051,54.1025,18.7178,14.6152,11.5381,-17.1797,-2.3076,-23.8462,10.5127,-2.3076,24.8716,
-15.3848,5.1284,-5.1279,-10.2563,39.4873,16.9233,17.9487,14.3589,-14.3589,-1.5386,-21.0254,1.5386,-14.8716,25.6411,
-20.0002,10.2561,-5.6409,4.6155,24.4873,19.4871,15.3845,17.4358,-5.1282,-4.6155,-15.3845,-7.6926,-25.1282,29.7434,
-35.0002,3.3335,-8.9746,13.5898,12.0513,4.8716,0.38452,5.3848,2.3076,-12.564,-12.564,-19.231,-22.8203,23.8462,
-43.0771,9.7434,-1.0256,28.5898,1.0256,-5.6414,-3.5901,2.5642,16.9231,-8.2053,1.0256,-23.0771,-13.3333,25.6409,
-47.4358,8.9746,0.25635,42.8208,-13.9744,-8.9741,1.2822,-0.25635,23.3335,-8.4614,11.5386,-32.0513,-20.7693,24.8721,
-50.2561,10.2568,6.1538,57.8208,-21.0254,-5.6406,-1.0254,0,30.7695,0,25.6411,-34.8716,-25.1279,30.7695,
-59.7434,14.1025,10,72.0513,-29.9998,-16.1538,-16.0254,-4.3589,32.0513,4.3589,32.0513,-46.4102,-26.9229,30,
-45.3846,24.8717,24.359,82.3077,-28.9742,-11.5385,-6.923,4.359,47.0513,-4.359,41.795,-53.5897,-11.9229,36.6666,
-43.3335,18.2051,22.8203,77.1792,-27.9487,-14.1028,-2.3076,2.3076,45.8975,-19.359,32.0513,-51.5386,-10.5127,27.4355,
-50.5127,11.0259,18.7183,70,-29.9998,-20.769,-9.4868,1.7949,39.7437,-4.359,30.5132,-36.5386,-21.7947,26.4106,
-52.3076,10.7695,14.8721,65.1284,-36.9231,-16.9231,-15.3845,1.5386,30.7695,-1.5386,29.7437,-27.6921,-26.1538,29.231,
-43.0769,14.8718,12.8206,62.5642,-21.9231,-3.5896,-4.6155,3.5896,25.1282,-16.5386,24.1023,-42.6921,-18.4617,28.2053,
-44.6155,8.2051,11.7949,51.7949,-6.9231,-8.2051,-2.0513,0,24.6152,-29.7437,20,-42.5642,-17.436,25.1279,
-45.3845,9.4873,14.6157,47.9487,-2.8203,-7.4355,-8.4614,-0.25635,23.8462,-14.7437,18.7183,-29.9998,-18.7178,27.9487,
-50.5129,9.4873,3.8462,33.0767,-15.6411,-1.2822,-13.5898,-3.3335,14.6152,0.25635,3.7183,-25.8975,-27.436,16.6665,
-48.2051,12.3079,0.51294,23.0769,-0.64111,2.0515,-10.7693,2.0515,14.8718,-1.0256,-3.5896,-11.7947,-31.7949,15.3845,
-37.1794,10.5129,-0.25659,19.2307,14.3589,0.25659,-10.0002,2.8206,8.4617,-3.8459,-5.8972,-14.1028,-38.2051,23.3333,
-22.1794,16.9231,1.0256,13.3333,27.1794,7.1794,2.0515,-1.0256,-3.5896,-4.1023,-9.7434,-17.4358,-40,19.4871,
-7.1794,26.6665,1.0254,2.0513,26.1538,8.7178,-5.6411,-7.1797,-18.5896,-0.51269,-24.1025,-4.1025,-48.718,4.4871,
7.8206,41.0256,5.6414,-2.051,34.8718,14.3591,-17.4358,-2.5637,-23.0769,-1.0256,-26.1536,2.0515,-55.8972,1.0256,
22.8206,53.5896,1.7952,-1.282,48.9744,22.3079,-17.6921,1.282,-21.282,-9.4871,-23.3333,-8.9744,-47.9487,8.4617,
37.8206,65.8975,2.3076,1.2822,55.1284,25.3848,-10.5127,-1.2822,-21.2822,-12.564,-22.3076,-15.1284,-34.1025,6.9229,
52.8206,79.7434,12.0515,0.25659,52.0515,32.0515,-9.9998,2.3079,-26.9231,-22.8206,-26.9231,-21.7947,-36.6667,-0.25659,
67.8206,94.7434,15.1282,6.4104,54.1028,41.7947,-17.6921,9.4871,-28.4617,-33.0769,-36.6667,-26.9231,-49.4871,-6.4104,
82.8206,107.1794,15.8972,11.282,62.051,41.5383,-23.0769,7.1794,-14.8718,-24.6155,-34.8718,-22.0515,-47.6921,-7.1794,
97.8206,110.2563,22.564,14.8716,60,38.4614,-21.5386,5.6411,-6.6665,-19.4873,-26.1538,-27.1797,-37.9487,-5.6411,
112.8206,119.4873,29.231,27.1792,52.8203,42.564,-21.5386,8.7178,-14.3589,-28.2051,-26.1538,-40,-42.0513,-8.7178,
127.8206,127.4358,34.1028,38.2053,51.0256,41.282,-33.0769,6.9231,-11.0256,-30.5129,-24.8718,-39.2307,-54.1025,-6.9231,
136.4104,127.6921,34.8718,49.2307,47.6921,29.7434,-40.5129,5.1282,-7.1794,-28.2053,-21.0256,-43.0769,-69.1025,-5.1282,
132.0515,126.4104,33.0769,54.1028,37.6921,30.0002,-37.6921,7.9485,-7.9485,-27.4358,-22.8206,-48.9744,-70.5127,-11.5383,
117.6924,118.7178,30.5127,48.4614,22.6921,28.4614,-46.4102,0.25635,-0.25635,-29.4873,-23.3335,-50.5127,-68.4617,-14.6157,
115.8977,121.0256,33.3333,56.9231,14.3591,27.6921,-50.7693,-3.5896,3.5896,-32.8206,-11.7947,-50.7693,-65.1282,-9.2307,
116.9229,124.6152,34.8716,62.0513,26.1538,33.8462,-48.7183,4.1025,-4.1025,-41.5386,-6.667,-59.4873,-59.4873,-6.1538,
107.1792,119.4868,29.2305,54.8716,23.5894,24.6152,-58.4617,2.0513,-2.0513,-50.2566,-11.2822,-72.8208,-67.6926,-8.7183,
108.4614,117.1797,27.436,51.0259,26.4102,21.7949,-62.3076,-1.7949,1.7949,-48.4614,-11.0254,-69.4871,-63.8459,-11.0254,
123.4614,126.9229,37.1797,52.0513,41.4102,36.7949,-51.0254,7.436,-7.436,-33.4614,-8.4614,-54.4871,-48.8459,-10,
119.4873,126.667,31.7949,47.6924,53.3335,44.6152,-57.4358,12.3076,-16.9229,-23.0767,-22.0513,-39.4871,-50.2563,-12.3076,
104.4873,115.3845,16.7949,41.0256,57.949,36.9231,-68.2051,10.7693,-11.7947,-35.8972,-28.718,-44.1023,-65.2563,-10.7693,
102.0513,116.9233,8.2051,38.4614,70.2563,51.9231,-66.6665,11.2822,-9.2305,-33.3335,-25.1279,-39.4873,-63.5896,-8.2051,
106.6667,119.4871,7.1794,28.718,70.7693,56.9231,-66.6667,12.8206,-12.3079,-18.3335,-30.2566,-24.4873,-53.8462,-10.2566,
112.3079,118.9744,5.1282,21.0256,73.3337,51.7952,-58.4614,20.0002,-14.8718,-5.1282,-38.4612,-12.3074,-58.9741,-10.2561,
118.2051,122.8208,4.3589,21.2822,81.7949,64.8721,-52.564,27.436,-24.3589,-20.1282,-41.7949,-27.3074,-60.769,-4.3589,
116.6667,116.1541,1.282,13.5901,84.8718,65.3845,-57.6921,24.3591,-29.4871,-35.1282,-40.2561,-34.1023,-57.1794,-1.282,
122.8203,116.6665,3.3335,17.1797,90.5127,56.6665,-53.5898,27.9487,-23.3335,-33.0771,-36.1538,-19.1023,-50.5129,-3.3335,
126.6667,124.1023,2.5642,26.6667,94.3586,65.1282,-46.6667,34.3586,-16.9231,-26.1541,-33.8464,-19.4871,-52.8206,-2.5642,
121.5386,122.0513,-0.5127,24.6152,97.436,75.8975,-49.7437,33.3335,-12.8203,-25.1284,-31.2822,-21.5386,-50.7693,0.5127,
131.5386,118.2051,2.3076,22.3076,109.4873,75.1284,-52.5642,35.1284,-21.7949,-14.1025,-35.1284,-8.4614,-36.1538,-2.3076,
146.5386,112.564,1.2822,14.1025,114.6152,72.564,-52.564,36.6665,-36.7949,-13.0771,-48.9746,-1.2822,-42.8208,-8.4614,
144.8718,107.4358,-0.76929,10.5125,109.4871,75.1282,-50.0002,39.2307,-38.2053,-13.5901,-51.5388,0.76929,-50.5129,-3.3337,
131.5388,97.1794,-2.3074,10.0002,110.5129,75.1282,-44.8718,38.2053,-30.5125,-12.051,-46.9231,1.282,-35.5129,-1.282,
126.1538,82.1794,-5.6411,1.5386,120.5127,72.8203,-44.6152,30.769,-36.4102,-12.8203,-46.6665,8.2051,-25.1284,-1.5386,
120.2563,71.0254,-11.0259,-2.3076,124.8716,68.9741,-51.5386,25.8975,-38.2051,-10.5127,-46.9233,15.1279,-40.1284,2.3076,
110.2563,61.5386,-13.3335,-9.231,128.2051,65.1279,-50.2563,25.1279,-31.7949,-2.0513,-48.2051,25.1279,-41.0259,2.0513,
99.4871,53.3333,-18.9744,-17.4358,126.1541,62.5642,-46.6667,22.051,-31.7947,-0.51294,-50.7693,32.8206,-29.7434,0.51294,
85.8972,50.0002,-20.2566,-5.3845,111.1541,57.1794,-49.4871,20.2566,-29.9998,-10.5129,-45.8972,26.4104,-33.5896,5.3845,
70.8972,35.3845,-18.9744,8.2053,96.1541,42.1794,-62.0513,12.3079,-23.5896,-23.0769,-41.0256,11.4104,-38.9744,0.51294,
55.8972,35.8975,-6.6665,23.2053,81.1541,27.1794,-62.564,12.8208,-8.5896,-18.4614,-26.0256,-3.5896,-25.6411,6.6665,
48.2051,35.3848,-8.2051,38.2053,71.7949,28.7178,-68.2051,8.2051,-7.6924,-29.7437,-22.0513,-18.5896,-25.1279,7.6924,
46.4102,34.6152,-3.8462,45.3843,72.0513,24.8716,-68.9746,12.0513,-3.8462,-33.5898,-21.2822,-21.7949,-30,3.8462,
38.9746,31.7949,2.0513,47.1797,68.7183,17.436,-63.5896,12.8208,-2.0513,-20,-20,-21.0254,-44.6152,-3.5898,
30.2563,28.7178,-1.5386,44.1025,72.8203,22.564,-50.7693,8.7178,-3.0771,-11.7949,-14.3589,-17.9487,-44.1025,1.5386,
24.8718,25.385,-11.0256,42.3079,84.8718,22.8206,-49.4871,7.4363,-4.8718,-13.5896,-16.6663,-15.6409,-29.1025,4.8718,
16.9229,16.9229,-13.8462,40.5127,90.769,13.8462,-58.4617,9.2305,0,-5.6411,-17.9487,-14.3589,-20.5127,0,
1.9229,3.0767,-19.4873,35.3843,77.9487,5.1279,-65.1284,1.5386,0,-4.6157,-18.4614,-23.0771,-33.8462,0,
-1.282,11.0256,-17.6921,42.8206,74.1028,10.0002,-57.1794,5.8977,1.282,-5.8972,-15.1282,-8.9744,-34.1023,13.5896,
-7.9487,7.436,-21.2822,33.0767,70,6.4102,-63.8462,4.3589,-3.3335,-6.4102,-20.769,3.3335,-27.9487,11.5386,
-11.2825,6.1536,-20.5129,31.282,77.4358,9.7434,-64.1028,3.0769,-5.6414,-3.0769,-24.1028,3.5896,-25.6414,8.2048,
-2.3076,14.1025,-13.0771,39.7437,92.4358,22.3076,-49.1028,10,-11.0259,-12.5645,-20.2563,2.3076,-30,14.6152,
3.5898,11.2822,-5.6411,38.4614,105.6411,24.6152,-40.5129,15.8975,-11.2822,-27.1797,-16.4102,-3.5898,-32.3076,12.8203,
-2.5637,8.2053,-1.0256,42.0515,99.4875,23.0769,-34.3589,16.4104,1.0256,-19.4871,-7.6921,-6.6663,-23.0769,14.3591,
-17.5637,4.1025,-9.7437,40.5127,91.2817,20.5127,-31.2822,8.2051,5.6411,-6.1538,-4.1025,-5.1284,-16.9233,24.1025,
-28.4617,0.76929,-14.6155,42.3074,95.1282,20.2561,-32.5642,6.9231,7.9485,-0.76929,-1.7952,-1.282,-21.282,28.9744,
-33.5898,-11.0256,-15.6409,37.6921,95.1282,13.0769,-40.7693,2.3079,14.1028,2.3079,-2.3079,-3.3333,-30.5129,17.1794,
-34.3589,-16.9229,-17.4355,30.2563,89.7437,10.7695,-38.9741,-3.0767,15.8975,9.231,-2.0513,2.0513,-25.6406,10.2563,
-44.1025,-15.3845,-20.5129,29.2307,83.5896,7.1794,-39.4871,-5.1282,5.1282,5.1282,-10.2561,8.718,-20.5129,11.7952,
-46.6667,-13.3335,-12.8208,29.7437,89.7437,6.1538,-40.5129,0,5.1279,0,-11.2822,15.3843,-23.0771,21.5381,
-41.282,-12.0513,-11.0254,28.9746,93.0771,13.0771,-40.2563,0.76904,8.9746,-0.76904,-3.8462,11.0259,-24.3589,26.9229,
-39.4871,-10.7693,-17.9485,32.3079,88.718,15.3845,-38.9744,1.5383,9.2307,-1.5383,-2.051,3.0769,-19.9998,24.1028,
-41.5383,-12.3076,-17.9487,32.3076,89.231,12.3076,-38.9744,4.6152,9.7437,-4.6152,-5.1279,7.1797,-23.0767,23.5898,
-42.5642,-11.2822,-14.3589,29.231,86.6665,12.3076,-36.4104,4.1025,5.6411,-3.5898,-8.7178,3.5898,-26.6665,22.564,
-45.1284,-12.8208,-14.3589,25.1279,81.0254,10.2563,-29.7437,1.0254,2.0513,0,-10.7695,0,-18.9746,16.4102,
-51.5386,-16.6667,-17.6926,26.9231,84.3591,7.4358,-30.0002,-3.3333,6.4104,3.3333,-9.4871,14.1023,-6.4104,18.2048,
-52.8206,-22.0515,-22.5642,23.0769,75.3845,7.1794,-38.9744,-5.6409,8.718,5.1282,-9.2307,16.9231,-5.1282,20.5129,
-47.4358,-24.8716,-21.7949,15.6411,65.8975,5.3848,-45.3845,-2.8203,6.4102,2.8203,-8.9741,3.3335,-12.0513,13.0771,
-46.9231,-18.2051,-18.7178,22.3076,80.8975,4.3589,-42.3076,3.8462,4.8716,-3.8462,-7.436,4.8716,-14.6152,8.4614,
-53.5898,-20.7693,-16.6667,23.3333,84.8718,5.3845,-39.7437,1.282,7.4358,-1.282,-6.9231,14.6155,-22.3079,18.2053,
-55.3848,-27.6926,-15.3845,14.8718,69.8718,6.1536,-46.1541,-5.1282,6.1536,5.1282,-12.3079,12.8206,-33.8464,21.5383,
-40.3848,-17.436,-8.2051,17.9487,68.7178,11.2822,-40.5127,2.0513,-1.5386,1.5386,-13.8462,14.8716,-19.4873,11.7949,
-31.5386,-11.5386,-6.9233,20.2563,83.7178,15.6411,-27.9487,9.4868,-2.8208,-2.3076,-8.9746,21.7949,-4.4873,11.5381,
-46.5386,-19.4871,-16.4104,20.0002,69.2307,8.718,-34.3586,1.5383,7.6926,-1.5383,-6.1536,12.3079,-11.7947,22.5642,
-61.5386,-22.8203,-14.1025,22.8208,54.2307,6.9233,-41.282,0.25635,18.2051,-0.25635,-0.25635,2.8208,-19.2305,30,
-48.9744,-19.7434,-3.3333,23.3333,66.4104,8.4617,-36.1538,2.8206,9.4871,-5.3845,-2.8206,5.8972,-5.3845,20.7693,
-42.0515,-14.3589,-2.0513,27.1792,80,9.2305,-31.7949,2.0513,3.5894,-4.1025,-7.1797,14.8716,-7.1797,18.9741,
-53.8464,-15.8977,-8.718,26.1536,84.1023,10.2561,-38.4617,1.0256,12.8206,-1.0256,-3.5901,11.7947,-11.2825,22.5637,
-54.6155,-15.6411,-7.436,25.8975,77.1797,11.0259,-37.6924,3.8462,12.0513,-3.8462,-4.8716,8.9741,-7.436,18.2051,
-44.6155,-15.8975,-2.0513,24.1025,72.8203,8.7178,-23.5898,2.0513,6.1538,-3.5898,-8.7183,10.769,-13.3335,17.9487,
-50,-16.6665,-4.3589,22.3076,76.1538,8.4614,-18.2051,0.25635,11.5386,-0.25635,-2.8203,2.3076,-20.2563,24.3589,
-57.6924,-12.0513,-6.4106,26.9229,72.0513,9.4868,-30.5129,5.8975,14.1025,-4.3594,2.3076,-2.3076,-20.2563,28.4614,
-57.6921,-15.1279,-8.9741,23.8462,67.436,6.4102,-37.1794,2.8208,12.0513,-9.4873,-1.7949,1.7949,-24.8716,23.8462,
-54.1025,-15.1282,-7.4358,25.8972,82.436,7.9485,-30,0.76929,18.2053,-5.3845,2.3079,-0.76929,-13.5896,22.3079,
-60,-13.8462,-10.769,28.7178,83.5898,6.1538,-31.282,0,15.8975,-10.2563,4.6152,-12.8203,0,23.0771,
-58.9746,-11.7949,-5.1284,31.7949,74.3589,5.1279,-27.1797,5.6411,13.8462,-6.667,4.1025,-5.6411,-4.1025,26.6665,
-61.7947,-14.1025,-2.3076,27.9487,75.6411,3.3335,-28.4614,0.25635,9.4873,-0.25635,-4.8716,4.8721,-18.2051,20.2563,
-68.2051,-8.2051,0,25.6411,89.231,12.8208,-28.2051,-3.0767,10.769,0,-3.0767,10.2563,-16.4102,26.1538,
-79.7437,-3.3335,0.25635,27.9487,91.5386,13.5898,-23.8462,-0.25635,10,-11.5386,-1.2822,1.2822,-15.6411,28.4614,
-93.8462,-8.7183,2.0513,30.2563,87.1792,6.6665,-27.1797,2.564,9.2305,-16.9233,-2.0513,-10.7695,-14.3589,17.9487,
-104.3591,-16.1541,0.76929,27.4358,75.6409,4.8718,-37.1797,1.7947,14.1023,-13.0769,-0.76929,-12.0515,-17.6926,18.718,
-103.5896,-12.3076,0,32.3081,70.7695,8.7183,-29.2305,0,20.5132,-5.1279,6.667,-3.0767,-14.3589,31.7949,
-108.4614,-16.6665,-1.282,27.4358,79.7439,1.282,-17.1794,-5.3845,17.1794,-11.0256,12.5642,-10.5125,0.64111,29.4875,
-115.1282,-16.1538,0.76929,29.4871,88.4617,-0.76929,-16.1538,-0.76929,19.7434,-16.6667,15.1282,-14.6155,15.6411,27.9485,
-123.3333,-14.6152,-3.333,30.5132,75.1284,-0.25635,-26.4102,0.25635,25.8975,-14.1025,10,-5.3843,1.2822,30.5132,
-129.7437,-13.8462,-2.0513,26.1538,65.6411,1.0254,-25.6411,0,29.2305,-10.2566,17.436,-4.1025,0,35.3848,
-143.8462,-14.6155,-4.8721,25.3843,62.3076,-0.25635,-26.4104,0.25635,14.2305,-16.1541,14.1025,-13.5898,1.2817,32.0513,
-153.5898,-15.1282,-10.0002,26.9231,58.718,3.3333,-37.6924,2.3079,5.8972,-12.5642,1.282,-1.282,-13.7183,29.9998,
-155.8975,-15.8972,-10.7693,25.1282,55.3845,6.1541,-37.9487,-1.0256,12.3079,-8.718,1.0256,5.6409,-28.7183,30.7693,
-153.0767,-12.0513,-3.8462,26.4102,62.8208,10,-22.9487,1.7949,16.667,-12.0513,7.436,-1.7949,-13.7183,30,
-156.4104,-14.3591,-3.5898,25.6411,61.0254,6.6665,-17.436,3.5898,15.8975,-22.5642,8.2051,-8.2051,-10.2563,29.231,
-156.4104,-15.8975,-3.0769,31.7947,55.3845,4.6155,-19.4873,3.0769,21.5383,-24.1025,10.7693,-11.7949,-22.5642,35.8972,
-154.3591,-22.0515,-2.0513,32.3076,56.9229,3.0767,-14.3591,2.0513,23.5894,-16.9233,10.769,-9.231,-10.2566,34.3589,
-156.9231,-27.1794,-6.1541,28.2048,56.4104,-1.5383,-17.436,1.5383,21.0256,-18.4617,8.718,-2.5642,3.5896,29.2307,
-166.1538,-29.2307,-10.7693,27.1794,51.282,-1.5383,-27.6924,1.5383,18.9744,-29.2307,8.2053,-5.6409,3.0769,28.718,
-167.6924,-28.2051,-4.6152,28.2051,49.7437,6.6665,-27.6924,4.1025,17.9487,-27.6924,10.2563,-7.6924,-4.1025,32.8203,
-164.3589,-25.3845,-2.3076,26.9229,40.2563,2.3076,-24.8718,6.9229,14.6152,-22.3076,10,-4.8716,-15.6411,31.5386,
-161.0259,-24.6155,-6.667,22.564,34.3589,0,-20.5129,8.7178,13.8462,-22.5642,12.8203,0,-4.6157,30.2563,
-168.2051,-29.7434,-11.7947,17.949,33.3333,2.5642,-25.6409,-2.5642,12.8206,-28.2051,4.6155,-8.2048,8.718,22.5642,
-172.3076,-23.0769,-10.2561,27.6926,41.5383,4.6155,-29.2307,-4.6155,21.0256,-26.6665,5.6414,-14.8718,4.6155,25.6414,
-171.7947,-22.564,-7.1792,27.1797,42.0513,2.0513,-26.1536,2.5645,18.9746,-26.6665,10.7695,-10.2563,-2.0513,37.436,
-165.6409,-26.1538,-1.5381,20.5132,42.5645,6.667,-18.9741,4.1025,3.9746,-27.6921,0,4.7437,-6.6665,32.8208,
-157.6924,-18.2051,0.25635,24.3589,46.4102,12.0513,-15.6411,2.8203,-0.25635,-25.3848,-4.8716,9.4873,-12.0513,24.3589,
-154.6152,-11.5386,-5.8975,28.4614,47.436,5.8975,-23.8462,3.8462,13.5898,-28.4614,4.8716,-3.8462,-8.4614,27.436,
-151.5383,-8.9744,-5.3845,28.4617,48.9744,2.8206,-31.0256,5.3845,11.5383,-34.1025,2.3079,-8.4617,-2.3079,30.0002,
-139.2307,-1.7949,1.7949,24.8721,51.0259,11.5386,-26.9231,4.3589,5.3848,-34.1025,-8.4614,-8.4614,-5.3848,23.3335,
-124.2307,10.5129,-1.282,25.3845,49.9998,20.2566,-28.9744,5.3845,1.282,-36.6667,-7.949,-15.1282,-10.5129,14.6155,
-109.2307,23.5896,0.51294,29.2307,55.3845,23.0769,-27.6924,9.7434,-0.51294,-37.436,-7.1794,-15.8977,-11.7952,14.8718,
-94.2307,30,7.4355,20.769,60.769,19.2305,-21.2822,3.8462,-3.8462,-43.8462,-18.2051,-22.8208,-22.3076,9.4873,
-79.2307,44.1028,11.7947,22.5642,68.2053,22.051,-23.5896,0.51294,-0.51294,-50.2563,-16.9231,-32.3079,-24.6155,4.6155,
-64.2307,49.7439,8.718,22.5642,69.2307,23.0769,-29.2307,0.51294,3.5901,-48.7178,-16.9231,-34.8718,-24.6155,-0.51294,
-49.4871,56.1541,10.5129,23.8464,72.0515,26.4104,-20.2566,6.4104,-2.3079,-44.3589,-23.8459,-24.8718,-28.9744,2.3079,
-38.4617,68.2053,18.4617,26.6667,79.9998,37.4358,-10.2566,11.7947,-12.8206,-55.3845,-24.6155,-17.949,-26.1541,10.2566,
-36.9233,68.718,19.4871,26.6667,87.1794,42.051,-10.7693,10.7693,-10.7693,-60.5129,-20.5129,-22.5642,-17.4363,11.7947,
-51.9233,54.6155,11.0256,29.9998,82.3074,28.4617,-14.1028,5.3845,-5.3845,-47.436,-22.3079,-31.5383,-22.3079,11.0256,
-66.9233,40.2561,6.4099,29.4871,69.4871,17.1794,-16.6667,1.282,-1.282,-46.4104,-17.1794,-38.718,-35.1284,11.5383,
-80.2563,34.6155,4.3591,26.9231,61.7947,11.5383,-23.3333,-0.76929,0.76929,-57.6924,-16.1541,-43.8462,-35.1282,7.4358,
-93.5898,28.4614,4.8716,27.436,62.8203,1.7949,-18.7178,-1.2822,1.2822,-57.6924,-18.2051,-45.3845,-20.2563,8.9741,
-107.6924,16.9231,5.1282,29.2307,57.9485,-0.51294,-10.7693,0.51294,5.1282,-50.2563,-9.7434,-42.5642,-10.7693,19.4871,
-113.8462,11.7952,-1.5383,36.4104,42.9485,1.5383,-19.4871,6.1541,12.8206,-46.1538,-2.5642,-32.8206,-5.1282,26.6667,
-119.2307,6.4102,-6.9229,36.1538,34.1025,-4.3589,-25.8972,7.9487,17.1797,-43.3333,-0.25635,-21.7947,0.25635,24.3589,
-116.6665,5.3848,-0.25635,36.667,36.667,-2.3076,-18.2051,8.9746,16.667,-40.2563,0.25635,-17.1794,-8.4614,23.8462,
-112.0513,2.3076,-2.3076,35.1279,31.5386,5.8975,-18.718,8.9741,10.5127,-41.2822,-6.9233,-10.5127,-16.6667,21.7949,
-105.8975,-0.76929,-5.8972,32.0515,36.1541,3.3333,-15.6411,12.0515,11.0256,-34.1025,-5.3845,0.76929,-5.3845,22.3079,
-104.6155,0,0,40.5127,46.1538,-4.6152,-8.2053,10.2563,19.4873,-28.718,5.1279,-11.7949,-4.6152,27.1792,
-108.7178,-5.6409,2.0513,46.667,42.5645,-2.0513,-13.8459,5.1284,26.1538,-32.8203,11.2822,-26.7949,-13.8459,30.2563,
-104.1024,-5.641,-1.5385,44.6156,41.0258,1.5385,-12.3075,8.7181,23.5897,-34.3588,9.2308,-28.7179,-5.641,27.6923,
-100.5127,-1.5386,-6.6667,43.5898,44.1025,-4.1025,-4.6155,12.8203,19.4873,-32.8206,7.1797,-14.3589,1.5386,25.1284,
-105.8975,-1.7949,-3.3333,46.9231,44.3591,-4.3589,-6.9231,15.1282,27.4358,-27.9487,14.1028,-12.564,1.7949,36.1541,
-119.7437,-8.4617,-3.8462,46.4102,35.1279,-3.3335,-13.0769,11.0254,23.8462,-31.5386,11.5386,-20.7693,3.3335,35.6411,
-121.282,-11.5386,-8.9744,38.718,33.0769,-2.3079,-14.1025,7.4358,13.0769,-31.0256,2.8206,-17.6924,2.3079,27.9485,
-116.9231,-9.231,-11.7949,39.4873,29.7437,0.5127,-15.3848,8.7178,20.5127,-21.5386,5.6411,-8.718,-0.51269,30.769,
-122.3079,-10.5129,-7.949,45.3843,17.6924,-1.7949,-13.0771,11.0254,30.5127,-20.7693,11.5381,-13.5898,1.7949,31.5381,
-127.436,-16.1541,-2.3076,41.2817,19.7437,-10.0002,-11.5386,8.4614,22.3076,-30.0002,11.0254,-18.2053,2.3076,28.9741,
-119.231,-8.4617,2.3076,50.5127,31.0254,-6.9233,-17.6924,10,23.333,-28.4617,13.0767,-7.949,-2.3076,33.0767,
-118.9742,-1.5385,1.5385,63.5897,23.077,-2.5641,-22.0511,12.308,38.333,-20.5128,23.077,-10.7692,-7.1793,32.8207,
-129.9999,-2.8204,1.2821,68.9742,8.4615,-4.359,-17.6923,11.0255,49.4874,-21.2821,31.0255,-18.7179,-1.2821,29.4874,
-131.282,-3.5898,2.5642,77.9485,5.1282,-8.718,-20.5129,10.7693,38.9744,-23.5898,27.1794,-10.7693,-2.5642,33.3333,
-121.7947,-4.3589,6.4102,78.2051,4.3589,-10.5127,-20.769,13.5898,33.5898,-19.2307,22.3076,-8.9744,-17.5642,36.1538,
-114.8716,-1.0256,13.8462,76.4102,1.0256,-5.1282,-17.4358,14.8721,39.4873,-19.4871,27.1797,-20,-16.4102,35.8975,
-117.1796,0.25647,11.0255,78.7179,-4.8717,-1.7948,-23.3334,10.5128,44.359,-22.8204,31.0255,-20.7692,-1.4102,39.7438,
-120.5128,-0.51282,0.51282,84.1027,-9.2306,-5.1281,-24.1024,10.7692,47.1798,-17.9486,36.923,-14.8717,6.1539,40.5128,
-123.5898,1.0256,1.5383,91.7947,-12.8206,-12.3076,-22.0513,13.8459,46.1541,-16.9231,41.5383,-24.1025,-1.0256,30.2566,
-122.0514,2.5641,14.8717,99.4869,-12.3077,-12.8207,-18.9745,12.3077,50.7692,-21.5385,46.6666,-32.8207,-2.5641,33.3331,
-119.9999,1.5385,18.4618,104.6156,-11.7948,-14.359,-13.3334,9.7435,55.8973,-22.0511,49.7435,-34.359,-1.5385,48.3331,
-121.5385,-0.51282,13.8463,96.923,-10.7692,-14.359,-9.2308,12.8204,47.692,-18.9745,45.6407,-30.2565,0.51282,60.0001,
-119.7435,-1.2821,9.9999,81.923,-1.7948,-6.4103,-13.077,19.7435,41.7948,-17.1796,36.1537,-19.2308,1.2821,63.3334,
-118.7179,-3.3334,2.8204,68.9742,7.4362,-2.8204,-22.3077,14.6154,37.6925,-14.6154,26.4103,-12.5641,-3.3334,53.59,
-124.1025,-11.282,-4.1025,54.3589,5.1284,-9.2307,-17.9487,6.6665,28.7178,-13.8462,23.5898,-11.7949,4.1025,38.59,
-128.4615,-12.5641,-8.4615,43.8461,6.9232,-6.9232,-8.4615,6.9232,21.2821,-17.1796,19.7435,-10.0001,12.0511,28.4613,
-131.7949,-13.8462,-14.8718,34.8721,21.5386,-2.0513,-13.3333,9.231,19.4873,-21.0256,11.2822,-9.2305,2.0513,17.9487,
-129.7437,-18.4614,-13.8462,31.7952,31.7952,1.0256,-11.7949,16.4104,22.0515,-14.3589,16.4104,-1.5383,-1.0256,24.6155,
-133.5896,-22.3076,-14.6155,27.4358,27.4358,2.3079,-4.8718,11.5383,10.5129,-16.6667,8.9744,-2.3079,-2.3079,27.949,
-138.9744,-20,-15.8975,18.4614,29.7437,5.1284,-5.1284,4.6152,8.7178,-21.5386,-0.5127,-5.6411,0.5127,23.0767,
-141.2822,-20.2566,-17.6924,15.1279,23.8462,1.7949,-10,6.4102,15.6411,-17.1797,0.25635,-5.3848,-0.25635,23.333,
-131.7949,-24.6155,-20,14.3589,21.0254,2.564,-2.564,11.7949,12.3076,-11.2822,0,0,-2.0513,29.7437,
-122.8206,-35.6411,-27.436,-0.64111,36.0254,4.8716,0.25635,5.3843,-0.25635,-13.5898,-8.9746,5.8975,4.8716,26.9229,
-117.6924,-33.0769,-29.4871,-13.5898,51.0254,11.5386,3.3335,6.9229,-3.3335,-9.4873,-11.0256,14.1025,15.6411,28.4614,
-121.7949,-39.7437,-35.1282,-28.5898,59.2305,13.0767,9.4873,9.4873,-9.4873,-11.5386,-23.3335,17.1792,14.6152,22.8203,
-118.2048,-47.4358,-39.7434,-43.5898,66.4106,17.6924,11.0259,10,-21.7944,-10,-38.3335,31.0259,11.5386,17.1797,
-112.8203,-45.6409,-45.6409,-58.5898,68.718,20.5129,3.0769,10.2566,-30.2563,-3.0769,-45.6409,42.0515,4.6155,17.4363,
-120.7693,-46.9231,-47.436,-59.7437,56.6667,11.5383,1.7947,4.3591,-25.8972,-1.7947,-40.2563,33.5896,5.3845,15.1282,
-129.4871,-45.3845,-40.2563,-44.7437,48.4614,3.8462,5.3848,5.8975,-18.2051,-3.8462,-34.1025,26.4102,15.1284,13.5898,
-121.2822,-34.1028,-32.5642,-29.7437,34.6152,11.5381,3.8462,13.0767,-11.5386,-3.8462,-24.8721,28.9741,10,20.769,
-106.2822,-19.1028,-19.7437,-14.7437,24.3589,26.5381,6.4102,16.1538,-0.76904,-4.8716,-13.0767,24.8721,0.76904,25.3848,
-107.1794,-9.231,-17.9487,-0.51269,25.6411,20,0.5127,6.1538,-3.5898,-12.3076,-17.9487,9.8721,4.6152,12.8203,
-110.0002,-12.5642,-14.1028,7.4358,32.051,13.0769,0.76929,8.9744,-0.76929,-7.949,-15.6414,-1.282,16.1536,14.1023,
-113.5898,-13.5898,-12.0513,19.231,17.051,5.8975,0.25635,11.0254,-0.25635,-16.6665,-15.6411,-10.5127,6.4102,13.0767,
-115.6411,-8.4614,-8.9746,26.9229,2.051,7.9487,-1.2822,8.4614,2.8203,-22.3076,-11.5386,-17.1797,6.4102,10,
-118.9744,-7.6924,-6.1538,26.6665,2.0513,14.8716,-8.2051,8.7178,7.6924,-15.3848,-2.0513,-12.3076,13.3335,16.4102,
-117.4358,-7.1794,-3.0769,34.3591,1.0256,17.4363,-7.1794,10.2566,10.2566,-11.282,-1.0256,-5.6409,8.2053,25.6414,
-112.8206,-6.6665,-2.0513,37.9487,9.7437,18.4614,0.51269,13.8462,18.4614,-8.2051,-0.5127,-4.6152,-0.5127,28.7178,
-117.4358,-14.3589,-12.3076,28.2051,8.2051,13.8462,-7.1792,8.7183,15.3848,-9.2305,1.5386,-1.5386,-6.6665,22.0513,
-123.0769,-17.436,-13.8459,25.6409,-6.6667,12.8206,-8.718,5.6409,10.7693,-8.718,5.6409,10.2566,-5.6409,23.0769,
-127.1797,-20.5129,-15.3848,27.1792,-10.2563,14.8716,-5.6411,7.1792,14.8716,-6.1538,5.6411,8.7178,-7.1797,25.6411,
-121.5386,-23.5898,-18.9746,25.6411,0,8.7178,-4.6157,7.6924,13.8462,-5.1284,0,2.0513,-4.6157,19.4873,
-114.3589,-24.1023,-12.3079,18.9744,3.0769,-1.0256,-4.6155,6.1541,3.5896,-9.2307,-5.6409,1.0256,1.0256,11.7947,
-116.4102,-17.4358,-2.5642,26.6667,2.0515,8.2053,-4.1028,9.2307,9.7434,-6.1541,-2.0515,-3.5896,10.7693,17.9485,
-125.3845,-17.1794,-4.3589,33.0771,-6.4102,14.1025,-4.3589,13.5898,21.7949,-7.9487,4.3589,-8.9741,11.5386,25.8975,
-126.1541,-18.4617,-3.5898,32.8203,-17.949,9.2305,-2.0513,18.4614,23.0767,-11.2822,6.1538,-5.1284,2.0513,25.1279,
-122.8206,-7.9487,1.2822,39.231,-17.6924,11.0259,-1.2822,17.6924,19.7437,-5.8975,7.9487,-1.2822,-2.3076,24.3589,
-119.4873,-4.1028,-2.5642,38.4612,-11.7952,14.8718,-4.1028,11.282,15.8972,-1.0256,11.282,1.0256,-2.0515,25.1282,
-109.9998,-6.9231,-3.3333,40.2566,-10.5125,12.0515,-3.8459,10.5129,14.1028,-0.76929,7.949,0.76929,-6.4099,24.3591,
-109.2307,-4.6155,3.5896,49.7439,-17.4358,7.1794,-3.5896,14.3591,21.0256,-3.5896,8.718,-11.282,-16.4102,22.0515,
-116.6667,-2.3076,5.8975,56.1538,-27.949,2.3076,-3.8462,18.2051,30,-5.3848,18.2051,-20.2566,-17.6924,21.2817,
-118.2053,-0.25635,2.3076,60.769,-33.5898,0.25635,-5.3848,18.7178,27.4355,-10.0002,16.6665,-18.2053,-9.4873,22.8203,
-118.718,-4.3589,4.3589,57.6924,-32.564,5.8975,-4.3589,10.5127,26.4102,-7.436,8.9746,-14.1025,-4.8716,24.8721,
-129.2307,-8.718,3.5896,56.4104,-40,3.0769,-2.5642,2.5642,28.2053,-3.0769,13.3333,-22.0513,-13.3333,20.5129,
-123.5896,0,6.667,71.4104,-45.6409,0,0,14.8721,37.9487,-1.5381,28.3333,-30.2563,-17.4358,22.5645,
-113.8459,2.0513,7.6924,82.0513,-44.1025,-2.0513,-3.0769,16.9233,39.4873,-11.7947,40,-32.3076,-18.9741,23.0771,
-115.8975,2.5642,7.1794,82.051,-37.9487,-2.5642,-5.1282,7.6921,30.2561,-17.436,29.7434,-28.718,-21.0256,24.6155,
-119.4871,3.5898,9.231,81.0259,-41.0256,-4.6152,-3.5898,8.2051,27.6924,-15.3845,23.5898,-34.8718,-28.2051,20.5127,
-118.2053,4.8718,7.4358,78.2048,-52.5642,-7.949,-4.8718,8.9744,27.9485,-19.231,23.3333,-42.3079,-31.5386,10.5125,
-115.3848,5.6411,6.1538,80,-47.6924,-6.6665,-5.6411,10.2563,31.2822,-11.7949,28.7178,-29.7437,-19.4873,19.4873,
-122.051,-3.0769,4.6155,75.8977,-43.5896,-10.2563,-9.7434,10.2566,34.8718,3.0769,33.8464,-23.5896,-14.3589,32.3079,
-124.6155,-3.5896,7.1794,73.3333,-46.6667,-6.6667,-13.3335,10.7693,36.9231,3.5896,35.3845,-25.6411,-20.5129,26.1536,
-112.8206,0,9.2305,68.7178,-34.3591,0,-6.1541,10.2563,39.4873,-4.6155,33.8462,-21.5386,-14.3591,22.0513,
-106.4102,-6.4102,4.3591,62.8206,-23.8462,-5.8975,2.8206,6.4104,39.2307,-8.4614,34.6155,-27.4358,-2.8206,25.8977,
-106.6669,-9.2308,3.077,65.1283,-29.2308,-6.1539,9.2308,9.2308,39.4872,-5.6412,38.4613,-33.3334,-3.077,24.6151,
-108.2053,-11.7949,0,52.3076,-37.9487,0,2.564,7.6924,29.7437,-11.2822,24.6152,-26.6667,-13.8462,20.5127,
-103.5896,-9.2305,-0.5127,45.1284,-28.7178,3.5898,0.5127,7.1797,18.4614,-11.2817,10.7695,-14.8718,-18.4614,26.6665,
-100.5129,-10.2566,-1.5383,41.0256,-18.9744,1.5383,8.718,5.6409,12.8206,-6.1541,10.7693,-10.2566,-15.3848,25.6409,
-99.7437,-14.1025,-9.4873,31.0259,-22.3076,1.7949,10,8.4614,8.4614,-6.9229,11.0259,-1.7949,-6.9229,21.2822,
-94.6155,-15.1282,-18.718,20.2566,-26.4104,2.8206,0.76929,7.9485,2.3079,-14.6155,1.7947,-0.76929,-9.4871,21.282,
-79.6155,-8.2048,-9.7434,16.9231,-11.4104,11.282,13.3333,7.6926,8.2053,-7.1794,4.6155,-6.6667,-5.1282,22.5642,
-64.6155,-8.7178,-11.2822,9.7437,3.5896,2.0513,18.4614,2.564,2.564,-8.7178,-2.0513,-17.9487,-7.1797,7.5642,
-49.6155,2.0513,-10.2563,10.2563,16.4102,4.1025,14.8721,10.769,-2.0513,-11.2822,-8.2051,-10.769,-9.231,7.1797,
-34.6155,17.0513,-6.1538,6.1538,30.2563,19.1025,13.8462,9.7437,-7.6924,-12.8203,-15.8975,-12.3076,-17.9487,8.7178,
-19.6155,32.0513,-3.3333,1.7947,39.2307,32.5642,21.7947,-1.282,-18.718,-19.7434,-24.3591,-24.8718,-26.9231,1.282,
-4.6155,40.5127,0,0,37.4355,21.0254,27.1792,-0.51318,-18.9746,-24.1025,-23.5898,-25.6411,-15.8975,0,
10.3845,52.8208,-2.0513,2.0513,27.6924,22.564,15.8975,4.1025,-13.8462,-23.5898,-21.5386,-25.1279,-11.2817,-2.564,
25.3845,62.3076,-1.7949,1.7949,26.9233,36.1538,10.5132,3.3335,-18.2051,-24.8716,-23.333,-20.769,-18.7178,-3.333,
40.3845,59.7437,-0.25635,-4.8716,33.0771,32.564,15.6411,4.3589,-22.8203,-26.4102,-26.4102,-13.5898,-14.1025,0.25635,
55.3845,62.3079,-3.3333,-0.25659,34.1028,23.8464,13.0769,6.9231,-17.6921,-22.3079,-27.4358,-12.5642,-8.9744,0.25659,
56.9231,60.5129,-5.1282,1.5383,19.1028,25.1282,9.2307,2.051,-15.8977,-22.5642,-23.5896,-17.949,-20.0002,-1.5383,
57.6924,52.564,-1.2822,2.3076,6.9229,26.9229,11.5386,1.2822,-19.7437,-30.5129,-21.7949,-26.9229,-25.3848,-1.7949,
66.1536,53.8459,-3.0769,3.0769,15.8972,25.1282,10.2561,6.1536,-23.0769,-31.7952,-28.2053,-34.3591,-21.0256,-8.718,
72.0513,63.8462,-3.8462,3.8462,24.3589,33.5898,9.4873,14.6152,-15.6411,-22.8203,-23.8462,-24.8716,-14.1025,-4.8716,
68.2053,57.949,-7.6921,1.5383,11.282,38.4617,4.6155,13.3333,-19.4871,-25.1282,-23.0769,-19.9998,-10.7693,-1.5383,
77.1794,48.9744,-4.8718,0.76929,16.6667,40.7693,8.4617,13.0769,-24.3591,-22.3079,-22.8206,-14.6155,-0.76929,-0.76929,
82.0513,45.1279,-4.1025,-5.1284,31.6667,33.8462,14.3589,15.3848,-23.0771,-23.5898,-25.1284,-11.2822,0.5127,-0.51269,
72.3076,41.0259,-12.8203,-12.8203,27.1797,30.2563,17.9487,16.4102,-21.0254,-25.6411,-31.282,-14.3589,-1.5386,1.5386,
65.3848,30,-16.6665,-15.1279,18.2051,32.564,21.2822,15.1284,-25.8975,-16.1538,-35.1282,-15.1279,-2.3076,2.3076,
63.5896,26.6667,-9.2307,-7.1794,15.8972,29.2307,19.4871,17.4358,-27.1797,-11.7952,-30.7693,-5.1282,-4.6155,4.6155,
49.2307,21.5388,-10.2561,-2.5642,2.5642,18.9744,9.7439,15.3845,-19.9998,-21.0256,-25.1282,-7.1794,-10.7693,4.6155,
34.2307,13.0767,-14.1025,6.4102,-6.4102,16.6665,6.4102,6.4102,-8.4614,-17.6924,-19.231,-18.2053,-11.0259,7.436,
23.3333,6.9231,-13.0769,19.2307,-12.051,12.0515,2.3079,-0.25659,0.25659,-13.5896,-9.9998,-27.4358,-4.8718,8.9744,
10.5127,8.9741,-10,34.2307,-27.051,0.25635,-8.4614,0.25635,6.4102,-20.7693,-0.25635,-39.7437,-1.2822,2.8203,
-0.25635,17.6924,-0.76904,49.2307,-42.051,0.25635,-13.5896,1.7949,21.2822,-22.8203,12.0513,-51.0256,-6.4102,1.7949,
-11.5383,12.0513,0.25635,64.2307,-57.051,2.3076,-20.2563,-0.25635,33.0771,-25.8975,21.7949,-54.6152,-16.6665,8.4614,
-14.6152,13.0769,-0.25635,79.2307,-71.0256,0.25635,-20.7693,7.949,36.1541,-21.282,28.9744,-41.7949,-18.7178,17.6921,
-17.4359,17.9489,3.5897,94.2307,-84.6154,-3.5897,-19.4872,17.4362,35.3849,-10.7692,33.3336,-27.1793,-21.5385,18.4615,
-21.282,8.9744,3.8462,96.1541,-87.9487,-3.8462,-17.6924,18.718,43.3333,-10,40.2566,-28.4617,-13.5898,23.3333,
-21.282,6.4102,2.3076,94.1023,-72.9487,-2.3076,-13.5898,16.1538,43.3333,-18.718,42.8206,-40.2563,-2.3076,30.5129,
-23.0769,5.6409,3.0769,87.1792,-70.2563,-3.0769,-9.7437,15.3848,32.3076,-18.4617,35.8975,-37.9487,-7.6924,31.2822,
-29.4871,-0.25635,2.8206,79.2307,-84.3589,0.25635,-8.4614,24.3591,34.6155,-9.4871,30.5129,-25.3845,-13.0769,28.9744,
-34.8718,0,0,77.9487,-70.2563,4.6155,-5.6411,29.231,37.436,-4.1025,26.6665,-20.5127,-9.7437,24.6152,
-37.1796,-3.3334,-4.8719,68.9745,-55.2563,7.4359,-4.8719,27.4359,35.1283,3.3334,25.3846,-13.5897,-4.8719,27.9486,
-46.4103,-18.2052,-18.2052,57.1796,-63.3334,8.4615,-12.5641,24.3588,31.0258,5.8973,26.9232,-5.8973,-8.9745,36.6669,
-54.1025,-24.8718,-20.2566,50.5127,-61.2822,6.4102,-6.9231,28.4614,32.0513,2.8206,28.9741,-4.3591,-2.8206,40.2563,
-55.8973,-28.2052,-15.3846,39.4869,-46.6666,-2.5641,2.5641,25.6412,30.7692,-4.6154,24.1027,-15.3846,11.2821,33.3331,
-54.359,-35.8973,-19.9999,32.8207,-47.6923,-2.0514,2.0514,19.9999,28.7181,-2.0514,20.5131,-14.359,15.3846,33.3334,
-63.077,-44.1027,-33.8461,23.0768,-62.6923,-1.5385,-4.6154,17.9486,27.6925,5.641,17.4359,-0.51282,0.51282,35.8976,
-67.9487,-43.8462,-36.1538,17.1794,-66.4102,-8.4614,-5.8975,21.7949,24.3589,5.3848,13.5898,4.8718,-4.8718,32.564,
-62.8204,-50.5128,-31.5385,9.4872,-54.6154,-13.5897,-0.25647,20.7692,14.1027,0.25647,5.3846,-2.8204,0.76916,28.9742,
-64.6152,-55.8975,-31.282,1.0256,-52.8206,-7.6924,4.1025,16.4104,7.1794,2.0513,1.0256,-1.0256,-3.5896,30.2566,
-72.3076,-46.1538,-36.4102,1.0256,-60.5127,3.0769,-1.0256,21.5383,1.5386,10.2566,-2.564,13.9744,-2.564,31.282,
-71.0256,-42.3076,-37.6924,-5.3845,-52.564,10.0002,0.76929,27.949,-0.76929,13.5896,-1.282,22.3079,7.949,32.5642,
-72.5641,-53.5897,-42.8204,-19.2308,-44.359,3.8461,4.8717,20.2562,-3.8461,10.5131,-4.8717,15.641,6.923,31.5385,
-68.2052,-55.8973,-42.0511,-22.0511,-37.4359,3.5897,10.2565,24.1027,-3.5897,17.9489,-11.2821,24.6154,16.923,34.359,
-59.7437,-57.6924,-42.8206,-36.1541,-23.3335,10,11.5386,26.9229,-10,17.6924,-23.8462,37.1792,24.3589,31.5386,
-53.077,-60.7692,-45.3846,-47.9489,-12.0514,16.6666,13.5895,22.3077,-16.1539,12.0514,-32.5641,37.1793,17.1793,26.923,
-53.5896,-58.2051,-42.8206,-45.8975,-16.1538,13.5898,18.7178,18.7178,-12.0513,12.0513,-27.9487,27.9487,13.5898,25.3848,
-59.7435,-51.5385,-35.641,-30.8975,-31.0255,2.3077,19.2308,17.6923,-2.3077,11.0258,-16.6666,15.641,15.1283,25.8973,
-69.231,-48.718,-30.7693,-15.8975,-46.0255,-11.7949,10.769,10.2563,3.5898,-0.5127,-7.6924,0.64099,0.5127,25.1279,
-67.6923,-34.8717,-15.8973,-0.89746,-61.0255,-10.7692,9.7435,15.8973,18.5898,2.5641,7.3076,-8.7179,-2.5641,38.4618,
-75.3846,-22.5641,-4.1027,14.1025,-76.0255,-13.8461,5.641,20.5128,33.5898,1.5385,22.3076,-23.7179,-1.5385,38.4615,
-83.0769,-15.8975,6.1538,29.1025,-91.0255,-23.5896,3.0769,16.4104,48.5898,-5.1282,37.3076,-38.7179,-3.0769,37.436,
-81.5385,-7.6923,15.3846,44.1025,-106.0255,-30.7692,0.51282,14.8717,63.5898,-10.2565,52.3076,-53.7179,-0.51282,48.205,
-85.6411,-1.5386,19.4873,59.1025,-121.0255,-33.3333,-4.1025,18.4614,78.5898,-15.3845,67.3076,-68.7179,1.5386,48.718,
-85.1283,-0.51282,26.6666,74.1025,-136.0255,-31.2821,-1.5385,22.0514,85.6412,-11.2821,82.3076,-74.8717,0.51282,47.6925,
-77.6924,-0.25635,28.9744,89.1025,-140.2563,-28.4614,0.25635,21.7949,84.8721,-8.4614,85.8975,-65.8975,-10,51.0259,
-77.6923,-0.25647,21.7948,104.1025,-127.9486,-21.7948,0.25647,24.359,81.2819,-4.359,73.0768,-54.6154,-10.5128,51.5387,
-83.3334,-7.9489,12.5641,115.1281,-128.9745,-20.2565,-0.25647,19.2308,67.4357,0.25647,62.8204,-46.9232,-0.76917,44.8717,
-78.9745,-11.2821,10.2562,102.5641,-124.1027,-25.1283,1.5385,13.8461,56.923,-1.5385,58.4615,-34.8719,-4.1027,43.5895,
-73.3334,-15.3846,5.641,90.2562,-109.7438,-21.0258,7.1793,22.0511,59.4872,-5.641,54.8719,-21.5385,-11.2821,42.5638,
-70.5128,-26.4103,-2.3077,75.2562,-100.2565,-16.6666,12.5641,20.7692,48.9745,-3.3334,42.8207,-17.6923,2.3077,38.205,
-70.0001,-40.2565,-12.0514,60.2562,-96.1539,-20.7692,11.5385,5.7692,33.9745,-5.3846,27.8207,-21.2821,11.5385,34.6154,
-67.1794,-36.9231,-11.7949,45.6411,-82.0513,-13.3333,14.3589,12.3076,22.564,-5.1282,22.0513,-9.2307,5.1282,38.4614,
-74.1027,-40.2565,-21.2821,33.0768,-76.1539,-16.1539,14.6154,14.6154,21.2819,-2.3077,19.2306,2.3077,-2.3077,35.6412,
-80.7693,-55.1282,-35.1282,18.0768,-80.7693,-26.9231,13.0769,6.9231,10.5129,-1.282,5.3845,-0.76929,0.76929,27.4358,
-75.6409,-47.9487,-33.0769,3.0768,-78.718,-11.9231,14.1028,15.1282,4.3591,-3.8462,-1.282,1.282,4.8718,24.8718,
-71.0258,-38.2052,-31.5385,-2.8207,-72.0514,3.0769,15.1281,15.1281,1.795,-4.359,-1.795,8.9742,5.3844,22.3077,
-71.5386,-44.3591,-35.1282,-17.8207,-66.4104,4.8718,20.7693,6.4104,-0.76929,0.76929,-4.8718,18.718,13.5896,21.282,
-63.5898,-41.0256,-33.3335,-21.0256,-53.3335,2.564,26.6665,11.7949,-2.564,9.2305,-10.2566,33.718,20.5127,28.2051,
-58.9744,-44.1025,-34.3591,-26.6667,-44.1025,11.2822,25.1279,15.3848,-11.2822,12.8203,-18.9744,47.1792,13.8462,26.6665,
-56.6667,-45.8975,-35.1282,-32.5642,-41.282,17.6924,32.564,18.2051,-14.1025,19.231,-18.2051,54.6152,14.1025,24.8716,
-52.5642,-45.3845,-38.718,-38.2051,-37.1794,15.6411,35.6411,19.7437,-15.6411,19.7437,-17.1794,55.1284,18.2051,28.9741,
-44.8717,-49.4872,-36.6666,-46.4103,-24.8717,18.2052,33.0768,18.7179,-18.2052,18.2052,-23.8461,61.795,23.8463,31.0255,
-43.5897,-51.7948,-33.8463,-46.6666,-18.4615,20.0001,38.9742,20.5128,-22.5641,18.4615,-31.7948,66.6666,28.2052,22.0514,
-46.4102,-47.4358,-30.5129,-36.1538,-21.7949,18.718,47.9485,23.8459,-18.718,19.7434,-23.8462,55.1282,34.6155,23.8459,
-58.205,-44.3588,-27.4359,-21.1538,-36.7949,12.0511,37.6923,18.2054,-9.9999,9.9999,-14.1024,40.1282,19.6155,25.3846,
-71.0256,-40.2563,-21.7949,-6.1538,-51.7949,-1.282,22.6923,11.0256,1.282,1.7947,-9.4871,25.1282,4.6155,15.1282,
-78.4617,-35.3848,-14.8718,8.8462,-66.7949,-15.8975,15.3848,2.564,12.3076,-0.5127,2.564,10.1282,0.5127,13.3335,
-79.2308,-25.8976,-3.8463,23.8462,-81.7949,-18.7179,15.1281,2.3077,27.3076,-2.3077,17.564,-4.8718,6.923,26.4103,
-81.2821,-18.2052,5.8973,38.8462,-96.7949,-19.2308,12.5641,6.923,42.3076,-9.9999,32.564,-19.8718,-5.8973,29.4874,
-81.0258,-6.1539,14.8717,53.8462,-111.7949,-20.5128,9.7438,6.1539,53.3331,-9.7435,47.1793,-29.2308,-12.8204,27.1793,
-83.5897,-2.5641,22.0514,68.8462,-126.7949,-21.5385,1.5385,3.0768,60.5128,-1.5385,54.359,-26.6666,-6.6666,29.2306,
-86.4102,-4.8718,20.2566,83.8462,-141.7949,-22.8206,-4.8718,5.8975,72.051,4.8718,62.8206,-25.8975,-6.4102,34.6155,
-88.2051,-3.0769,9.7437,98.8462,-154.3591,-29.2307,-10.2563,5.6409,64.6152,3.0769,63.5898,-24.6155,-16.4104,30.2563,
-80,0,11.7952,108.2053,-139.3591,-25.6409,-0.5127,7.1794,52.8206,0,58.9744,-18.4614,-13.8459,28.2053,
-77.1793,-5.3846,12.0511,93.2053,-124.3591,-21.7948,7.4359,5.3846,42.8207,-5.8973,43.9744,-22.3077,-6.4103,25.3846,
-76.4104,-11.2822,4.1023,78.2053,-110.2563,-18.4617,2.5642,1.0256,29.2307,-8.718,28.9744,-21.0256,-1.0256,13.8459,
-65.1282,-11.7949,0.5127,66.6665,-109.7437,-11.2822,3.5898,6.1538,28.7178,-3.0771,34.3589,-6.0256,-0.51269,15.3848,
-59.4873,-14.3591,-2.5642,57.9485,-94.7437,-12.3079,9.7434,9.7434,26.6667,-4.6155,30.7693,2.5642,-4.1028,24.1023,
-58.2053,-21.2822,-5.3848,42.9485,-79.7437,-10.5129,14.1025,7.4355,16.1538,-5.8975,16.6665,2.3076,-2.3076,20.769,
-58.2053,-30,-12.0513,27.9485,-68.9744,-5.8975,11.0254,3.3335,3.8462,-3.3335,7.9487,9.4873,-5.8975,6.9229,
-56.9231,-30.769,-18.4614,12.9485,-73.8459,-5.1279,9.231,4.1025,-1.0254,0.5127,7.1797,21.5386,-0.5127,11.7949,
-51.7949,-37.9487,-19.4873,3.0767,-58.8459,-8.2051,14.3589,4.1025,-4.6152,1.5386,-1.5386,26.1538,12.8203,17.436,
-39.2307,-35.1282,-12.0513,1.2822,-43.8459,-1.2822,29.3589,10.5127,-2.3076,11.5386,-1.7949,30.5127,20.2563,17.1797,
-38.9744,-36.4104,-17.9487,-11.7947,-31.7949,1.5383,30.7693,9.7434,-2.0515,12.8206,-1.5383,34.3591,13.8459,21.0256,
-38.9744,-41.5383,-25.6409,-26.7947,-34.3589,4.1025,25.6411,7.1797,-4.1025,13.3335,-7.6924,42.0513,15.8975,25.1284,
-40.2563,-40.2563,-23.3333,-23.8462,-36.6667,3.8459,24.8718,6.9231,-3.8459,12.0515,-6.9231,39.2307,15.6409,23.8459,
-41.7949,-38.718,-21.7949,-20.7693,-38.718,3.3335,23.8462,6.4102,-3.3335,10.5127,-6.4102,36.6665,15.6411,22.8203,
-43.0769,-37.436,-19.4873,-16.9231,-41.0256,3.0769,23.0769,6.1541,-3.0769,9.7434,-5.6409,33.8459,15.3845,21.5383,
-44.1025,-35.8975,-17.4358,-13.3333,-42.564,2.5642,22.5642,6.1541,-2.5642,8.718,-4.6155,31.282,15.8977,21.0256,
-45.3845,-34.6152,-15.1279,-9.4873,-44.8718,2.3076,21.7949,5.8975,-2.3076,7.436,-3.8462,28.9746,15.6411,19.7437,
-46.9231,-33.0769,-13.5896,-6.4104,-46.9231,1.7947,20.7693,5.3845,-1.7947,5.8977,-3.3333,25.8977,15.1282,18.718,
-48.2051,-31.282,-11.2822,-2.564,-49.7437,1.5386,20.5127,5.6411,-1.5386,4.1025,-2.0513,22.564,15.8975,16.9229,
-48.2048,-26.1536,-6.6665,12.436,-64.7437,-11.7947,9.231,3.0771,13.4614,0,12.3081,7.564,0.89746,13.8462,
-46.6665,-18.4614,2.5645,27.436,-79.7437,-19.4871,6.1538,2.0513,28.4614,-3.5894,25.6411,-7.436,-2.0513,17.9487,
-45.6411,-9.7437,11.2817,42.436,-94.7437,-20,0.5127,-0.5127,40.5127,-7.6924,38.9741,-22.436,12.9487,21.5386,
-39.4873,-1.5386,17.4355,57.436,-109.7437,-22.0515,-6.6667,1.5386,41.0254,-3.0771,50.769,-33.8462,13.333,20,
-33.5897,1.2821,22.8207,72.436,-124.7437,-28.9742,-9.9999,7.4359,56.0254,-1.2821,64.3588,-48.4615,-1.667,19.7435,
-27.9486,8.4615,32.0514,87.436,-139.7437,-27.9486,-11.5385,11.0258,71.0254,-8.4615,76.1539,-47.4359,-11.0255,27.9489,
-18.7178,14.6155,33.5896,102.436,-139.2307,-23.8462,-11.5383,7.9487,66.9231,-11.0256,75.1282,-42.8206,-7.9487,35.6409,
-12.5642,4.8718,23.3333,117.436,-130.5129,-26.9231,-11.5386,3.3333,51.9231,-11.5386,60.7693,-46.4102,-3.3333,29.4871,
-10.5128,-3.8461,17.6923,112.0511,-116.6666,-27.4359,-9.9999,3.8461,45.8973,-14.6154,50.5131,-40.7692,4.8717,24.3588,
-5.1282,-3.5896,19.4873,97.0511,-105.1282,-19.4871,0,4.6155,45.6411,-8.7178,50.7695,-28.7178,0,31.7949,
-0.25647,-4.8717,14.1027,84.8717,-101.2821,-15.641,0.25647,5.3846,38.2052,-2.8204,51.0255,-25.8973,-8.9742,30.5128,
-1.282,-13.5898,2.8206,71.0256,-93.5898,-14.6155,-5.8975,8.9744,31.0256,-5.8975,43.3333,-21.7949,1.282,24.3591,
0.76917,-24.359,-6.4103,56.0256,-78.5898,-12.0511,-0.76917,5.8973,25.8973,-9.9999,28.9745,-14.6154,11.0258,22.8207,
3.5898,-25.1282,-14.8718,41.0256,-65.1282,-12.8206,0.5127,-0.5127,10.8973,-12.8206,13.9745,-11.7949,1.0259,13.8462,
13.3335,-22.051,-15.3843,26.0256,-61.5383,-5.6406,0.51318,5.1284,-4.1027,-7.6919,0,3.2051,0,7.6924,
17.9485,-30.7693,-22.5642,11.0256,-60,-1.0256,1.0256,5.1282,-11.7952,-8.2053,-6.1541,8.2048,5.1282,2.5642,
20.2566,-32.0513,-26.4102,1.282,-49.4871,-1.282,5.8977,3.3333,-14.6155,-11.5383,-13.5896,4.8718,5.8977,3.3333,
27.1794,-25.1282,-21.0256,-4.6155,-34.4871,4.6155,12.3079,11.7952,-21.5383,-8.2048,-15.8972,18.4617,10.7693,14.3591,
28.718,-30.2566,-27.6921,-19.4871,-23.5896,8.2053,10.2566,8.2053,-36.5383,-8.2053,-25.1282,28.718,9.7434,10.2566,
32.3079,-34.3586,-29.7434,-31.282,-18.4612,8.718,14.3591,1.0256,-39.9998,-1.0256,-30.2561,32.8206,9.7439,1.0256,
32.3076,-36.9231,-31.7949,-42.564,-14.8716,4.6157,16.9233,2.564,-42.0513,-1.5386,-37.9487,36.4102,5.6411,1.5386,
32.8206,-41.5386,-42.0513,-53.8462,-2.0515,7.6921,16.4104,3.0769,-48.2051,-6.1541,-47.1794,39.4871,2.0515,2.0515,
34.3589,-46.1538,-48.718,-65.1282,7.1797,14.3589,18.9741,0,-48.2051,0,-48.718,38.4614,10.769,-1.0259,
27.4358,-48.4614,-46.9231,-62.8206,-7.8203,10.0002,17.6921,0.76929,-46.9231,2.8206,-46.9231,37.6921,8.4617,-0.76929,
18.4614,-48.2051,-39.4868,-47.8206,-22.8203,3.0771,10.2563,1.5386,-37.9487,-1.5386,-37.4355,37.436,3.0771,1.5386,
24.3591,-33.2051,-24.4868,-32.8206,-32.5642,1.282,11.5383,3.3333,-22.9487,-1.282,-22.4355,25.3845,14.6155,5.8972,
27.4358,-18.2051,-9.4868,-17.8206,-47.5642,-12.5642,11.0256,1.282,-7.9487,-3.8464,-7.4355,10.3845,7.9485,1.7947,
17.9485,-18.4617,3.0769,-2.8206,-62.5642,-22.0513,3.5896,-3.0769,7.0513,-10.2566,7.5645,-4.6155,-7.0515,11.282,
12.3076,-6.6667,12.8203,12.1794,-77.5642,-17.9487,2.0513,-2.0513,22.0513,-13.3335,22.5645,-19.6155,-20.5129,26.282,
4.1023,3.0769,16.4104,27.1794,-92.5642,-27.6924,-3.0769,-3.5896,31.7947,-23.0769,31.7947,-34.6155,-8.2053,31.7947,
1.5383,6.6667,23.5896,42.1794,-107.5642,-34.3591,-5.6409,-1.5383,43.0769,-24.1025,42.051,-49.6155,-8.718,34.3591,
-0.25647,12.5643,31.5385,57.1794,-122.5642,-28.9742,-9.9999,0.25647,56.6669,-17.1796,57.051,-47.4359,-20.7692,40.2562,
-1.282,15.1282,34.1028,72.1794,-121.7949,-26.9231,-11.5386,1.282,56.6667,-15.6411,67.9485,-49.4871,-15.1282,31.0256,
-2.0513,14.3589,31.7949,87.1794,-117.9487,-27.1794,-8.718,2.0513,51.7949,-18.9744,66.1538,-52.8206,-5.1282,20.5127,
-3.8461,10.5128,20.2562,102.1794,-112.0514,-22.3077,-9.4872,3.8461,51.0258,-20.7692,55.1283,-45.3846,-13.5897,25.3846,
-2.5642,3.5896,8.718,93.3333,-103.5898,-17.9487,-12.8206,2.5642,42.0515,-16.4102,41.0256,-30.3846,-14.3589,26.1541,
4.6152,-2.564,6.1538,78.3333,-88.5898,-17.9487,-11.7949,-5.1279,27.0515,-15.8975,29.7437,-21.5383,0.64111,12.3076,
12.564,-6.9229,6.4102,63.3333,-73.5898,-14.6155,-4.3589,-5.3848,12.0515,-14.6155,28.9746,-14.1025,4.3589,8.4614,
12.5642,-10.5125,-1.282,48.3333,-62.8203,-8.9744,-3.8459,1.282,10.5129,-5.8972,20.2566,0.89746,-10.6411,11.0256,
14.1028,-14.6155,-4.8718,33.5896,-64.3589,-1.7947,-3.8459,4.8718,-1.282,1.282,5.3845,15.8975,-17.6921,7.4358,
16.4102,-18.9741,-5.6411,18.5896,-49.7437,-0.51269,0.5127,2.564,-16.282,-3.0767,-1.5386,18.9746,-2.6921,1.5386,
17.6924,-18.7178,-11.0254,3.8462,-34.7437,-2.3076,2.8208,2.3076,-19.7437,-12.564,-2.8203,12.0513,12.3079,3.3335,
28.9746,-19.7437,-13.5898,-1.7949,-20.7693,1.7949,11.0259,4.8721,-11.5386,-15.6411,-4.3589,17.6924,22.3076,13.0771,
35.8977,-20.5127,-11.7947,-7.1794,-9.2307,9.2307,23.0769,7.1794,-14.8718,-7.1794,-9.2307,32.6924,21.0256,21.0256,
23.3333,-28.4617,-20.2566,-22.1794,-4.8718,5.3845,17.6921,3.8459,-29.8718,-3.8459,-18.718,32.0515,18.718,12.0515,
21.7952,-32.0513,-23.8459,-32.0513,-1.282,8.9744,13.5896,5.8977,-28.9744,-2.3074,-21.7947,30.5129,17.1794,1.282,
26.1536,-37.949,-32.3079,-43.5898,3.0769,12.8206,15.8972,1.0256,-42.0515,-1.0256,-36.7947,42.051,5.6409,-9.7439,
22.0513,-48.2051,-43.5898,-58.5898,5.6411,8.7178,19.4873,-4.1025,-57.0515,4.1025,-51.7947,51.7949,14.3589,-10.7695,
17.9487,-50.769,-45.1279,-73.5898,4.1025,3.5898,20.5132,-9.2305,-57.9485,2.0513,-55.3845,44.6157,26.667,-2.0513,
24.3591,-42.3076,-34.6155,-60.7693,10.5129,10.0002,22.8206,-8.9744,-46.4102,-1.7947,-42.8206,38.2053,21.7947,1.7947,
23.0769,-36.4104,-29.2307,-45.7693,4.1023,10.7693,18.9744,-4.6155,-35.8975,0.51294,-30.7693,32.3079,23.5896,-0.51294,
15.6411,-23.3335,-22.8206,-30.7693,-10.8977,-1.7949,13.0767,1.7949,-20.8975,3.8462,-15.7693,17.3079,32.0513,5.8975,
4.8721,-15.1279,-13.5894,-15.7693,-25.8977,-16.7949,3.8462,-3.8462,-5.8975,-7.4355,-0.76929,2.3079,19.7437,3.8462,
5.1279,-6.1538,0,-0.76929,-40.8977,-16.4102,1.5386,-5.6411,3.0767,-13.8462,6.6665,-12.6921,10.769,0,
1.5386,-1.5386,3.5898,14.2307,-55.8977,-14.3589,-4.1025,-7.1797,12.8203,-13.3335,16.4102,-16.4102,7.1792,1.5386,
-3.3333,3.3333,11.5388,29.2307,-70.8977,-20.2563,-7.4358,-6.4099,27.8203,-11.0256,31.4102,-24.8716,10.0002,10.5129,
-12.8206,6.6667,18.4612,44.2307,-85.8977,-31.2822,-20.0002,-6.6667,38.9744,-23.0771,43.5896,-39.8716,7.6921,10.2561,
-9.231,15.3843,25.6406,59.2307,-100.8977,-28.7183,-17.949,-2.0513,44.1025,-24.1028,52.3076,-54.8716,2.0513,18.4614,
-0.76929,17.1797,33.0771,74.2307,-85.8977,-25.8975,-3.8462,-0.76929,54.6152,-14.1025,64.3589,-55.1282,0.76929,22.3076,
-3.0769,7.1794,25.1282,89.2307,-85.6411,-35.3848,-7.6924,-10.7693,40.5129,-23.0769,51.7947,-57.9487,3.0769,9.2307,
-1.5383,1.5383,15.3845,96.4104,-88.2051,-35.3848,-10.7693,-12.3079,35.8972,-30.2566,41.0256,-55.3848,7.1794,11.7947,
-1.7948,0.25647,13.077,85.8973,-73.2051,-28.9742,-0.25647,-7.4359,42.308,-18.205,41.7948,-50.5128,0.76917,20.2562,
-1.5385,-4.1024,11.2821,71.7948,-58.2051,-22.0511,11.7948,-7.1793,30.2567,-7.1793,42.0516,-39.9999,1.5385,17.9486,
-0.51294,-14.8718,0.51294,56.7948,-43.2051,-22.564,11.7952,-13.3333,15.2567,-19.4871,29.7439,-33.3333,15.8977,11.7952,
3.5896,-16.9231,-3.5896,41.7948,-28.2051,-23.5898,19.4871,-9.7434,7.6921,-27.1794,16.4104,-26.1538,26.1536,12.8206,
5.3848,-19.7434,-4.3589,26.7948,-14.1025,-24.3589,28.9746,-7.9487,4.3589,-24.8716,7.9487,-24.8716,11.1536,11.0259,
17.9487,-12.8206,0.5127,19.4873,-0.5127,-9.7437,36.9229,-2.564,-0.5127,-10.7693,13.333,-14.8718,16.4102,17.436,
20.7693,-18.718,-4.8718,8.9744,7.4358,-7.4358,32.0515,-7.4358,-7.4358,-8.4617,4.8718,-8.9744,31.4102,10.5129,
22.3076,-20.2566,-2.3076,-0.25635,20.769,-8.9746,44.3589,-1.2822,-3.8462,0.25635,-0.25635,1.2817,35.1279,12.0513,
21.5386,-21.5383,-8.7178,-9.7432,30.2568,-9.2305,49.7437,0,-13.8459,0,-10.769,1.5386,24.6157,13.3335,
26.4102,-26.4102,-11.0256,-19.2307,44.3589,-1.2822,50,-0.76904,-18.2051,0.76904,-12.0513,9.4873,32.0513,16.6665,
24.6155,-33.8462,-16.9231,-32.3079,45.1282,-4.6155,51.7947,-2.5642,-22.0513,2.5642,-11.7949,19.9998,47.0513,16.4104,
16.6667,-39.231,-30.5129,-47.3079,42.8206,-9.4871,51.0256,-2.8206,-25.8975,2.8206,-19.231,19.2307,45.8972,15.6409,
13.0769,-44.3591,-40.2566,-61.7949,49.9998,-4.8718,47.9485,-4.8718,-27.9487,4.8718,-26.9231,19.7434,35.1282,18.2048,
14.1025,-49.4873,-41.7949,-68.4617,54.1025,-3.8462,52.564,-10,-37.6924,3.8462,-33.5898,28.4614,43.8462,12.564,
16.9231,-48.7178,-33.3333,-65.6409,54.3591,-3.5896,64.1028,-6.1536,-35.3845,3.5896,-28.2051,30.2566,58.8462,15.3845,
17.9489,-36.41,-18.4615,-50.6409,41.5387,-1.5385,64.1027,-2.0511,-20.3845,1.5385,-13.2051,15.2566,56.923,28.7179,
3.3333,-33.5896,-12.564,-35.6409,26.5387,-16.5385,49.1027,-16.6665,-5.3845,-11.0256,1.282,0.25659,41.923,25.3845,
-1.0256,-23.5896,1.0256,-20.6409,11.5387,-30.7693,41.0259,-15.3845,9.6155,-4.6152,16.282,-14.7434,32.3076,26.6665,
-4.359,-18.2052,4.359,-5.6409,-3.4613,-30.5128,39.7435,-18.2052,24.6155,-9.4872,20.7694,-29.7434,22.8207,26.41,
-5.1282,-18.4614,5.1282,9.3591,-18.4613,-39.4871,33.3335,-26.6665,29.231,-20,25.1284,-44.7434,15.8975,25.6411,
-10,-16.6667,10,24.3591,-33.4613,-44.8718,27.4358,-24.3589,30.5129,-17.1794,37.1794,-59.2307,26.9231,24.8718,
-20.5127,-13.3333,13.3333,39.3591,-48.4613,-45.1282,21.5386,-20.5127,38.9746,-17.4358,40.5127,-60.5127,23.0771,24.6152,
-16.1538,-10,20.2563,54.3591,-63.4613,-50.5127,20.2563,-27.4358,42.8208,-27.4358,44.3589,-68.4614,10,24.8721,
-1.1538,-10.2565,18.9745,69.3591,-64.1027,-65.5127,14.8719,-39.4872,30.2562,-38.4615,42.5638,-81.0258,0.51282,17.4359,
7.1796,-14.359,10.7689,69.7435,-62.5643,-76.4103,12.3075,-43.077,24.1024,-39.4872,33.3334,-83.077,-7.1796,11.2821,
10.7693,-16.9231,8.718,60.5129,-51.7949,-78.4614,13.3333,-43.0769,26.1541,-38.4614,26.6667,-83.0769,-8.718,9.2307,
14.6155,-18.2051,5.8972,52.5642,-45.3845,-79.2307,9.9998,-44.8718,14.6155,-45.3845,20.7693,-87.436,-3.8459,3.8459,
11.5383,-24.3591,-0.76929,38.718,-41.7949,-76.6667,12.051,-43.3335,4.3586,-45.3848,16.6667,-83.3335,0.76929,0.76929,
7.436,-24.8718,-2.8203,28.9741,-28.9744,-72.5642,17.1797,-40.2563,2.8203,-33.0769,16.1538,-69.4873,4.8716,3.3335,
11.5386,-26.9231,-3.8462,20.769,-25.3845,-68.4617,17.6924,-37.1794,3.8462,-26.9231,14.6152,-55.6411,8.4614,6.9229,
21.7949,-32.0513,-7.9487,14.1025,-25.8975,-60.2563,21.2822,-32.0513,7.9487,-24.8718,11.5386,-42.8206,10.5127,11.0259,
35.6409,-22.8206,-8.4617,15.1282,-10.8975,-45.8975,28.9744,-22.3079,8.4617,-16.1538,10.5129,-27.8206,20.7693,16.6667,
44.6152,-23.0769,-9.7437,6.1538,3.0771,-41.5383,30.2563,-20.5127,-2.564,-13.3333,2.564,-14.3589,24.6152,16.9233,
59.6152,-24.3591,-1.282,3.3333,11.0256,-34.1028,38.718,-10.5129,-3.3333,-3.3333,1.282,-5.8977,26.4099,22.3074,
74.3591,-28.2051,-1.5383,-4.6155,15.8977,-30.7693,40.0002,-9.2307,-6.6667,4.6155,-5.6411,1.5383,26.1541,20.0002,
78.2052,-26.4103,-6.923,-7.9486,18.2052,-28.9742,38.7179,-12.0511,-12.0511,6.923,-9.9999,8.4615,30.0001,19.2311,
77.1794,-25.8972,-11.5383,-4.8718,11.5383,-28.9744,40.2566,-12.564,-15.6409,4.8718,-11.0256,7.4358,29.4871,18.718,
80.5131,-30.2565,-7.6923,-7.6923,7.1796,-26.1539,43.077,-7.1796,-10.7692,10.2562,-9.2308,13.8461,30.7694,22.0511,
81.0254,-30.2566,-8.2053,-5.1284,3.5898,-27.6924,38.4614,-6.6667,-3.5898,4.1025,-6.6667,10.769,29.2305,23.0767,
81.7948,-21.2821,-6.4103,9.8716,-3.3334,-27.9489,37.1796,-11.0258,3.3334,-8.9745,5.3846,-4.231,25.3846,21.7948,
85.8972,-16.1538,-1.7947,23.8459,-18.3334,-30,27.4358,-18.718,1.7947,-15.1282,3.3333,-11.0256,14.6155,14.6155,
99.4871,-5.1282,2.5642,35.3845,-23.0769,-33.3333,16.4104,-16.9231,2.5642,-10.7693,-2.5642,-6.6667,8.2053,15.8977,
108.7178,-1.5386,-4.6152,35.3848,-25.6411,-43.0769,8.7178,-22.0513,6.6665,-17.9487,3.5898,-21.6667,1.5386,6.6665,
122.8203,10.5127,-3.3335,41.7949,-25.3845,-39.7437,8.9746,-25.3845,4.3589,-21.282,11.0259,-36.6667,3.3335,-3.8462,
137.8203,25.5127,5.3848,43.8462,-20.2563,-27.4358,11.0259,-23.8459,-10,-19.7434,1.7949,-30.5127,3.8462,-1.7949,
152.8203,40.5127,14.8718,40.0002,-12.8206,-18.9744,13.8459,-16.4104,-9.7434,-24.1025,-1.0256,-38.9744,7.6921,1.0256,
167.8203,55.5127,22.3076,50,-9.4873,-13.5898,11.0259,-8.4614,-3.8462,-26.9231,2.3076,-43.3333,4.8721,-2.3076,
182.8203,70.5127,28.718,57.949,1.0256,-1.0256,15.8977,-6.6663,-2.5637,-19.9998,4.6155,-28.3333,-4.615,-1.0256,
197.8203,78.2048,23.3333,49.4871,2.3079,2.8206,16.6667,-14.6155,-7.4358,-25.8975,-2.3079,-31.5386,-13.0769,-2.8206,
203.0769,89.7434,28.718,53.8459,-3.5901,9.7434,19.4871,-5.6414,-3.0769,-22.0515,-4.1028,-30.2566,-6.1541,3.0769,
199.2307,93.0769,33.0769,56.6663,-11.5388,11.5383,14.615,-0.76929,-0.76929,-16.6667,-7.949,-25.8977,-5.8977,0.76929,
205.3848,94.6152,33.0771,57.6924,-2.3076,15.6411,15.1284,-0.25635,-1.7949,-15.1279,0.25635,-19.7437,-4.8716,-1.2822,
203.8462,84.3589,27.436,42.6924,2.3076,10.5127,11.0254,-7.9487,-12.0513,-21.2822,-2.8203,-18.2051,-2.3076,-7.9487,
197.1794,78.2048,29.9998,36.1536,-1.282,8.9744,8.4612,-11.5388,-12.0515,-19.7439,-11.5388,-19.2307,1.282,-6.9231,
192.8206,79.4871,30.7693,47.6921,-5.1282,10.2566,11.282,-4.1028,-1.5383,-12.8206,-8.718,-22.5642,-6.1541,1.5383,
179.7437,73.0771,22.3076,42.8208,-9.4868,6.4106,4.8721,-3.8462,-4.8716,-20.2563,-2.3076,-28.9741,-7.4355,2.3076,
165.6414,69.7439,22.0515,38.4617,-12.8206,8.718,-1.0256,-8.2048,-12.3074,-22.0513,-4.1023,-30.2563,5.1282,1.0256,
157.436,65.6411,25.6411,43.0771,-19.4873,11.2822,1.5386,-7.6924,-5.6411,-12.3076,-4.6152,-25.1282,-1.5386,4.6152,
142.436,55.8975,16.9233,42.0513,-26.1538,7.1797,0.51269,-7.6924,-2.564,-13.333,-0.5127,-20.5127,-16.5386,6.667,
130,51.0259,9.4873,38.7178,-16.1538,3.8462,-0.25635,-5.8975,-1.2822,-17.6924,0.25635,-13.5898,-1.5386,4.3589,
118.9746,41.5386,3.0771,31.7949,-12.8203,-0.51269,-5.6411,-8.7178,0.5127,-15.8975,-4.1025,-12.3076,13.4614,1.0259,
103.9746,36.4102,0,34.3589,-27.8203,1.5386,-11.7949,-11.2817,0,-12.8203,-4.1025,-18.4614,2.5645,4.6157,
88.9746,32.3079,2.5642,37.4358,-42.8203,6.1536,-10.2566,-12.3079,-0.51294,-9.7434,0.51294,-16.4104,-5.1282,9.2307,
73.9746,20.2566,0.25659,33.5896,-38.718,-0.25659,-10.5129,-11.5383,-3.3333,-6.4104,0.25659,-12.5642,6.4104,6.9231,
71.5386,17.1797,0.25635,37.6924,-37.6921,-3.8462,-13.5898,-5.8975,-0.25635,-7.9487,2.3076,-13.5898,16.1538,5.8975,
60.2566,12.0515,-0.76929,32.0515,-52.6921,-9.4871,-16.1536,-13.0769,5.3845,-10.5129,0.76929,-16.1536,6.4104,6.4104,
52.3076,12.8203,0,33.8462,-57.436,-9.231,-10.2563,-12.8203,6.1538,-4.1025,4.1025,-6.1538,0,7.6924,
48.4617,10.0002,0.25659,36.1541,-46.4102,-4.8718,-12.051,-6.9231,-2.8206,-13.5896,6.9231,-0.25659,6.9231,8.4617,
44.8718,5.3845,0.76929,36.1541,-51.5386,-9.4873,-13.0769,-6.9231,-0.76929,-15.6411,10.5129,-4.3591,21.282,15.1282,
41.282,-0.76929,0.76929,39.2307,-60.2566,-21.2822,-6.9233,-10.5129,8.4612,-3.3335,14.615,-14.1028,25.8972,16.1536,
37.1796,-0.76917,0.76917,42.308,-57.6923,-14.1024,-2.3077,-4.359,13.5897,-1.7948,19.2308,-14.1024,17.6923,18.205,
26.6665,1.5386,-3.5898,40.5127,-60.5129,-2.564,-7.1797,-1.5386,7.6924,-8.2053,15.8975,-7.6924,12.3076,20.5127,
23.5896,-0.51294,-5.1282,37.4358,-62.564,-3.0769,-5.6411,-1.0256,6.6667,0.51294,14.3591,-1.5383,24.6155,22.5642,
18.2051,-11.5386,-8.4617,32.564,-67.949,-8.4617,-13.0771,-0.25635,5.3843,-1.7949,9.4868,0.25635,22.8203,18.7178,
3.2051,-18.4617,-17.949,31.2817,-81.0259,-8.7183,-27.6924,-2.0513,8.7178,-9.7439,7.1792,2.564,10.2563,15.8975,
-0.76929,-16.1541,-18.2053,28.4612,-81.7949,-8.4617,-23.3335,-3.8464,19.7434,0.76929,19.7434,1.282,20.2561,12.5642,
4.8718,-11.5386,-11.5386,29.4871,-78.2053,-12.0515,-15.6411,-7.436,18.2048,5.8972,18.718,-4.8718,28.4612,5.8972,
2.564,-5.6411,-8.2053,36.4102,-84.6155,-10.2566,-22.0513,-5.1284,17.9487,6.1538,12.3076,-2.564,16.4102,16.4102,
-4.1028,-7.1797,-10.2566,35.8975,-90.7693,-9.7437,-26.6667,0,22.564,6.6665,19.4873,0,6.1538,25.6411,
-1.0256,-10.769,-7.6921,36.4104,-85.6409,-12.8203,-21.0254,1.0256,16.4104,3.0769,21.0256,-3.0769,8.2053,15.8977,
1.5386,-14.8718,-6.6667,32.3076,-82.0515,-16.4104,-17.436,-1.5386,9.2305,5.1279,12.3076,-2.0515,16.4102,13.333,
-3.3333,-15.1282,-9.4871,33.5896,-88.4614,-16.1538,-14.6152,-0.25635,14.6155,7.949,14.6155,0.25635,20.2566,27.4358,
-4.6152,-13.8459,-9.2307,39.4871,-92.3076,-14.3589,-11.7947,5.1282,18.4617,-1.0256,20.0002,1.0256,15.8977,28.718,
-5.6411,-14.8718,-7.1794,35.8975,-90.7693,-10.7693,-11.7949,7.1797,19.4873,-5.6411,17.436,5.6411,17.9487,23.5898,
-15.3846,-19.4872,-10.2565,31.2819,-94.359,-12.3077,-12.8204,2.5641,17.4357,-2.5641,14.8717,5.6412,17.4357,27.6925,
-20,-25.1282,-12.3079,33.3333,-93.3335,-15.8975,-11.2822,2.0513,22.5642,6.1538,21.0256,-2.0513,15.3845,26.1536,
-9.4872,-20.7692,-5.8973,37.6923,-82.3077,-13.5897,-7.9489,5.8973,33.5897,17.1796,31.0258,-7.4359,28.9745,23.3334,
-7.4359,-15.1283,-0.25647,31.5387,-77.1796,-15.1283,-2.8204,0.25647,26.4103,10.5128,31.0255,-4.359,35.6412,28.4615,
-14.6154,-15.641,-3.3334,25.8976,-80.2565,-14.1027,0.76917,-2.3077,18.7179,-0.76916,24.359,2.8204,25.3844,33.0768,
-19.2307,-16.1538,-12.0513,33.0769,-89.4871,-6.9231,-6.4102,5.8975,22.8206,2.3076,19.2307,-2.3076,11.5383,26.4104,
-17.6924,-12.5642,-10,35.6411,-90,-5.3845,-8.9744,10.5127,26.4102,5.3845,20.2563,-7.9487,10,23.3335,
-13.8462,-7.1794,-5.6409,33.3335,-79.4871,-13.8462,-2.0513,7.1794,18.9746,1.0256,22.0513,-1.0256,13.3335,25.1284,
-15.8972,-10.2563,-10.769,31.7952,-82.564,-14.3589,-5.6409,4.1028,11.282,0,16.4104,0,13.8464,23.5901,
-20.7693,-16.6667,-12.0513,30.5127,-91.5386,-7.9487,-11.0256,8.4614,14.1025,1.7949,13.5898,-1.7949,11.0254,24.3589,
-22.0513,-14.3589,-10.2563,33.8462,-86.1538,-13.8459,-10.2563,8.7183,15.8975,1.0256,12.8208,-1.0256,9.231,24.6152,
-18.2051,-12.0513,-8.4614,32.5642,-80.7693,-19.7437,-7.4358,4.8718,19.2307,4.3589,17.6921,-4.3589,18.718,27.4358,
-16.4102,-11.282,-4.1025,32.8206,-85.1282,-15.8975,-6.1538,4.6155,21.5383,4.1025,21.5383,-7.6921,18.4617,30.2566,
-15.8976,-5.641,-2.5641,40.0001,-82.0514,-10.7694,-2.5641,9.7435,23.5895,2.5641,23.0768,-4.6154,4.6154,26.6666,
-17.9486,-7.6923,-5.641,35.8976,-77.9486,-8.7179,-3.077,11.7948,27.1793,3.077,27.6925,-3.5897,5.1283,28.2052,
-21.7949,-8.4617,-5.3845,33.0767,-81.7949,-6.4104,-8.4617,12.0513,25.8975,2.8206,25.3848,-2.8206,16.6665,36.1538,
-20,-5.6411,-6.1538,34.3591,-81.0256,-8.2051,-9.7437,16.9231,22.051,4.1025,21.5383,-4.1025,22.5642,36.4104,
-22.0511,-11.2821,-10.7692,33.8461,-77.4359,-14.359,-4.6154,15.8973,23.077,4.6154,27.6923,-7.6923,27.1796,31.7948,
-31.5383,-16.6665,-12.0513,36.1541,-83.3333,-15.1282,-3.8462,11.0256,27.4358,3.8462,32.0515,-3.8462,26.9231,33.5896,
-32.8207,-18.4615,-11.795,29.7433,-89.2308,-17.4359,-7.1796,7.6923,26.6666,2.5641,26.6666,-2.5641,11.9231,30.2565,
-24.3589,-17.1794,-8.4614,30.0002,-84.8718,-19.7434,-4.8718,11.5386,28.9744,5.8975,25.8977,-6.4102,4.8718,27.4358,
-30.5128,-21.7948,-10.5128,33.59,-78.7179,-19.7435,-4.359,8.4615,28.9742,4.359,26.4103,-6.4103,19.8718,32.5641,
-32.3079,-20,-11.7949,30.2563,-76.9231,-13.8462,-4.6155,3.0769,23.5898,3.0769,25.6411,-3.0769,27.1792,34.3589,
-18.2052,-9.9999,-9.4872,26.9232,-77.1796,-11.5385,-2.8204,6.9232,14.6156,2.8204,22.3075,-4.8717,13.5897,24.8719,
-12.3075,-5.1281,-6.6666,26.6669,-75.8973,-9.7435,-0.51282,12.8207,12.308,0.51282,19.4872,-7.6923,12.8207,26.6669,
-17.6924,-1.7949,-3.8462,35.1284,-74.6155,-6.4104,-1.7949,10,20.769,1.7949,21.7949,-10,24.3589,35.6411,
-21.5383,-4.6152,-6.1538,35.8975,-70.7693,-8.2051,-2.0513,3.5898,23.5898,2.0513,23.5898,-11.282,25.6411,31.7949,
-25.1282,-11.7949,-10.7693,29.7434,-68.2051,-16.9231,4.1025,5.6409,17.4358,-4.1025,20.5129,-12.8206,12.8206,25.6409,
-26.1538,-9.2307,-7.6921,37.9487,-70.2563,-16.9231,8.718,9.7437,18.9746,-4.1025,22.564,-17.4358,4.1025,33.8462,
-30.7692,-12.8204,-11.2821,35.8973,-72.8204,-15.8973,1.5385,4.6154,24.6156,-1.5385,25.641,-25.1283,2.5641,31.7948,
-32.8207,-11.795,-12.8207,33.3334,-66.1539,-13.3334,-1.5385,8.7179,25.641,1.5385,27.1796,-16.9232,5.641,25.1283,
-39.4872,-13.3334,-14.8719,29.7435,-68.2052,-14.359,-7.6923,10.7694,17.4359,1.5385,23.077,-1.9232,9.2308,25.641,
-49.4871,-24.8718,-22.8206,20.2563,-75.1282,-18.718,-19.7437,0.76929,13.5898,3.3335,19.231,-0.76929,14.6152,23.3335,
-45.1283,-24.1027,-24.1027,25.641,-60.1282,-14.359,-12.8207,1.5385,19.9999,9.2306,22.0511,-1.5385,15.3846,26.1537,
-39.2308,-26.4103,-25.8973,21.7948,-45.1282,-17.1796,-8.4615,1.7948,17.1796,6.923,19.7435,2.3077,0.38464,29.4872,
-42.3077,-27.4359,-27.9486,17.6923,-47.9486,-14.6154,-20.2565,0.25647,15.1283,1.7948,21.2821,2.3077,-0.25647,29.4872,
-33.8462,-17.4358,-16.4102,32.6923,-32.9486,-2.564,-18.9744,11.7949,27.6924,0,33.8462,0,14.7435,36.4102,
-18.8462,-13.8461,-9.7435,36.9232,-17.9486,-3.077,-7.1796,18.9742,31.7948,-3.5897,33.8461,-4.6154,27.6923,39.4872,
-3.8462,-10.2563,-12.8206,30.7693,-2.9486,-4.6152,-10.7693,16.4104,21.0256,-6.1538,24.1028,-8.2051,12.6923,35.8977,
-1.7949,-9.4873,-15.1282,31.0256,12.0514,-4.8718,-18.2051,14.1025,20.7693,-4.8718,23.3333,-11.5386,1.7949,32.051,
-3.0769,-24.4873,-27.6921,25.1282,27.0514,-19.8718,-22.0513,3.0769,14.8718,-12.8206,16.4104,-26.5386,7.1794,17.4358,
9.4872,-24.359,-29.4872,24.3593,42.0514,-23.8461,-16.6666,2.3077,6.4105,-14.1024,10.5131,-33.0768,-2.3077,14.6156,
22.3077,-15.1281,-18.7179,23.8463,57.0514,-15.641,-17.6923,7.9489,6.923,-8.4615,10.0001,-19.7435,-6.923,21.795,
21.7949,-22.8206,-21.7949,21.2822,70,-23.8462,-28.9744,1.2822,2.8203,-12.5642,2.3076,-20.7693,-1.2822,10.5127,
33.5898,-22.3076,-24.3589,26.4102,83.3335,-23.3333,-23.8462,-0.25635,0.25635,-12.0513,2.8203,-17.1794,3.8462,8.9741,
41.7947,-13.5898,-21.7949,32.5642,98.2048,-13.5898,-17.6924,8.4617,4.3591,-11.5386,7.9485,-4.3591,-7.436,23.9741,
41.7948,-13.0768,-17.6923,34.1024,108.4618,-9.9999,-18.2052,11.5385,10.5131,-19.2308,7.9486,-7.9486,-12.5641,26.9232,
41.0259,-20.5127,-17.9487,27.6924,111.7949,-14.3589,-20.5127,4.1025,10.2563,-26.1538,8.7183,-22.9486,-4.1025,15.8975,
40.0001,-21.5385,-21.5385,28.2052,102.5641,-18.9745,-24.6154,2.5641,6.6666,-24.6154,5.6412,-26.1539,-2.5641,13.8463,
35.3843,-24.1028,-29.7437,23.5898,96.4102,-20.5129,-27.6924,1.0254,5.1279,-24.6155,-0.5127,-19.4873,0.5127,11.2817,
38.9744,-25.1282,-32.3079,20.5129,101.5383,-16.9231,-26.1538,-1.5383,3.5896,-27.6924,2.051,-23.5898,1.5383,7.1794,
47.4359,-15.641,-24.359,33.5897,100.7689,-11.5385,-19.7438,7.4359,9.4872,-20.7694,4.8719,-18.7181,-4.8719,15.1283,
46.1536,-14.3591,-18.9744,36.4104,91.7947,-9.7437,-18.9744,14.3591,19.9998,-11.2822,5.1282,-6.6667,-5.1282,21.5383,
44.359,-18.2052,-21.795,32.5641,93.5895,-12.0514,-22.3077,6.4103,14.1027,-19.2308,7.4357,-10.0001,-6.4103,16.6666,
48.9742,-14.6154,-19.7435,34.1027,93.59,-14.1024,-16.1537,6.4103,7.9489,-26.4103,11.0255,-16.1537,-6.4103,21.795,
41.0258,-20.5128,-25.1281,27.6923,78.59,-21.0255,-23.5897,6.1542,8.2054,-23.5897,5.641,-20.5128,-5.641,30.2567,
36.1538,-20.7693,-29.4871,30.5127,63.59,-14.6152,-30,4.3589,8.9746,-20.2563,6.4102,-17.6924,-4.3589,40.2563,
40.0001,-16.4103,-25.641,29.7438,67.1798,-7.6923,-22.5641,1.5385,4.6154,-32.8204,9.2311,-14.3588,-1.5385,44.6154,
40.5129,-18.9744,-23.0769,22.5642,61.0256,-14.3591,-22.0513,-1.0256,1.0256,-45.1284,2.5642,-25.6411,5.1282,29.6154,
36.6665,-26.4102,-27.4358,22.8203,48.9741,-19.2307,-30,-0.76904,3.8462,-34.6155,0.76904,-28.9744,7.9487,14.6154,
36.1541,-22.3076,-28.9744,26.9231,43.3333,-12.0513,-28.4617,-0.25659,1.282,-24.3589,2.3079,-13.9744,0.25659,8.4617,
41.2822,-7.436,-19.7437,35.1279,38.7178,-3.8462,-22.8206,3.8462,4.8716,-21.7949,6.4102,-7.436,-5.8975,10.5127,
39.2307,-11.5386,-19.7437,29.4871,27.9485,-6.4104,-27.9487,6.4104,12.5642,-21.7949,11.5383,-21.2822,-10,10.5129,
31.5386,-17.1794,-28.9744,19.7437,17.6924,-10.5129,-34.6155,4.8716,3.3335,-24.8718,2.8203,-6.2822,-4.3589,13.0767,
33.8462,-10.7695,-25.6411,22.0513,16.9229,-9.7437,-31.2822,4.1025,-5.1284,-28.2053,-4.1025,8.7178,5.1279,15.8975,
34.3589,-15.8975,-15.8975,25.6411,12.3076,-16.9231,-26.1538,1.5386,7.6924,-26.6667,7.1797,-5.6411,-1.5386,11.7949,
29.2306,-20.0001,-13.3334,28.7179,5.6412,-22.5641,-26.6666,0.51282,14.8717,-26.6666,17.4357,-20.6411,-0.51282,6.6666,
27.6926,-15.3845,-16.4102,23.5901,2.0515,-17.9485,-31.7947,1.0256,-0.1283,-32.8203,6.6667,-26.6665,6.6667,3.0769,
28.9741,-6.4102,-8.9746,26.4102,1.7949,-7.436,-26.4104,8.9741,-1.7949,-25.8975,2.3076,-11.6665,1.7949,3.8462,
25.641,-6.6666,-5.641,29.2308,-3.5897,-5.1281,-20.5126,13.3334,10.2567,-18.9742,9.7435,-13.8461,3.5897,5.641,
17.6921,-11.5386,-14.6155,20.2566,-15.6411,-6.9231,-30.5129,12.051,6.9231,-22.3076,9.4871,-14.6155,15.6409,6.9231,
13.8462,-7.6924,-17.4358,17.9487,-25.6409,-4.1025,-43.0769,14.8721,-1.5386,-22.564,1.5386,0.38452,8.2051,6.1538,
19.2305,-3.3335,-11.0259,20.2563,-26.4104,-0.25635,-37.6924,18.7178,0.25635,-14.1025,0.25635,11.0254,-4.8721,6.4102,
20.2566,-3.3333,-15.1282,21.282,-26.4102,3.3333,-33.5896,14.6155,-0.76929,-17.6924,0.76929,10.5129,-4.3591,7.4358,
22.3079,0.25659,-15.6409,28.4617,-29.4871,10.0002,-34.1025,14.6155,-2.8206,-22.8206,-0.25659,11.5383,-3.3333,8.9744,
21.0256,-3.5896,-10.2561,27.1794,-38.4614,5.6414,-34.8716,17.4358,0.51294,-24.6152,-0.51294,3.5901,-3.0769,5.6414,
15.3848,-8.2051,-10.769,25.1284,-46.1538,-2.0513,-32.8206,15.8975,2.0513,-27.1794,3.0767,-6.6665,7.1797,6.1538,
14.1023,-6.9231,-13.0771,26.4099,-44.3591,-2.3079,-28.9744,13.5896,1.282,-24.3591,6.9231,-1.282,7.9485,14.6155,
12.8206,-12.8206,-15.8975,25.1282,-47.1794,-6.6667,-29.2307,8.2053,-0.51294,-23.5896,3.5896,2.0515,0.51294,11.282,
11.5386,-12.0513,-12.0513,30.5127,-49.4873,-7.9487,-22.8206,12.0513,8.9741,-20.7693,8.9741,-0.76904,0.76904,10.5127,
7.1798,-9.2306,-13.3331,28.7179,-44.1024,-6.6666,-18.9742,16.4103,12.8204,-19.4872,13.3336,-0.51282,0.51282,17.9489,
4.3589,-12.5642,-22.8206,22.8203,-44.8718,-9.4873,-27.436,10.5127,2.3076,-24.3589,5.3848,-2.3076,2.3076,17.6924,
7.4362,-16.6666,-18.7179,21.2823,-44.359,-13.0768,-23.3331,5.8976,4.8717,-24.359,7.4362,-4.8717,12.0514,15.6412,
8.2052,-17.9489,-8.7181,22.5641,-37.4359,-16.9232,-9.7438,8.7179,11.2819,-20.5131,13.3331,-8.2052,14.359,13.3331,
4.3589,-13.5896,-13.5896,27.436,-43.3333,-13.0769,-11.0256,14.1025,5.8975,-19.2307,7.436,-4.3589,7.9487,15.6411,
1.7948,-14.1024,-17.6923,26.9232,-53.0768,-4.359,-17.1796,14.1024,11.0258,-20.2565,8.4618,0.76917,-0.76917,22.3075,
5.1283,-14.8717,-5.641,32.3077,-48.7179,-7.6923,-6.6666,11.2821,24.1027,-18.4615,21.0255,0.51282,-0.51282,28.2052,
0.25635,-16.1538,-4.8718,31.5383,-47.436,-16.1538,-0.25635,6.9231,23.3333,-19.7437,24.3591,-6.4104,9.4871,27.4358,
0.51282,-9.2308,-5.1283,37.9489,-52.3077,-8.7179,-0.51282,16.4103,30.2565,-12.3077,29.2306,-6.6666,16.923,33.3331,
0.76917,-1.7948,-0.76917,46.41,-56.1539,-3.3334,-1.7948,26.4103,35.1283,-8.4615,30.5131,-3.3334,13.077,36.1537,
-6.4103,-6.923,-0.76917,38.2052,-58.7179,-7.4359,0.76917,21.2821,30.5128,-17.6923,26.923,-4.359,14.1027,31.0255,
-6.6666,-8.7179,-2.0514,35.8973,-61.0258,-7.6923,-1.0258,15.3846,27.6923,-14.359,28.7181,1.0258,13.8461,32.8207,
-3.0769,-11.7949,-7.1794,33.8464,-65.6409,-11.7949,-11.282,15.8977,15.3845,-9.7437,17.949,4.1025,3.0769,27.6921,
1.0256,-6.6667,-4.6155,37.4355,-64.1028,-7.1797,-6.1541,25.1279,19.4873,-15.8975,20,-1.0256,7.1794,32.8203,
-1.5385,-1.5385,-2.0514,45.1283,-62.0514,-3.5897,1.5385,22.5641,31.2821,-27.1796,31.7948,-12.3077,10.7692,38.4613,
-0.25635,-6.4102,-0.76929,42.3076,-61.7949,-6.9231,0.25635,15.6411,28.9746,-23.8462,31.0259,-11.0256,8.9744,34.6152,
-2.8204,-6.4103,2.8204,43.8461,-69.4872,-6.923,-3.8461,19.7435,25.3846,-15.641,24.8719,-7.4359,7.4359,35.1283,
-11.0256,-3.8462,3.8462,47.4358,-72.0513,-8.4614,-4.3589,20.2563,28.9744,-15.1282,31.0256,-15.6411,5.3845,40.7693,
-10.7694,-5.641,3.5897,38.9745,-60.5128,-11.2821,-3.5897,12.8204,27.6923,-13.3334,37.4359,-15.8976,12.8204,39.4872,
-5.1281,-5.641,1.5385,38.9742,-53.8461,-11.2819,-1.5385,13.3334,24.6154,-10.7692,31.795,-7.6923,22.0514,32.8204,
-7.9486,-6.923,1.7948,43.3334,-64.8717,-11.5385,-1.7948,15.641,31.5385,-8.4615,27.9486,-2.3077,7.0514,36.1537,
-8.9744,-3.3333,10.5127,47.9485,-64.3589,-11.0256,2.3076,14.6155,35.1282,-6.9231,32.564,-2.3076,-7.9486,45.3845,
-13.0769,-7.9487,7.9487,42.8206,-59.2307,-17.6924,0.76929,10,21.282,-21.9231,27.4358,-17.3076,-0.76929,36.1541,
-18.2052,-14.6154,1.2821,34.6154,-65.8976,-18.2052,-1.2821,6.4103,18.7179,-33.077,25.3844,-32.3076,14.2307,27.4357,
-21.2821,-14.1027,-0.25647,35.641,-72.0514,-15.1283,0.25647,2.3077,23.8461,-27.4359,24.3588,-26.9232,11.5385,30.5126,
-18.9744,-9.7437,5.1282,42.0513,-62.0513,-13.8462,5.1282,4.1025,29.2307,-16.4104,26.6665,-21.0256,-3.4615,37.9487,
-23.5897,-10.2565,5.1281,40.5126,-63.077,-16.9232,-0.51282,1.5385,28.205,-21.5385,28.7179,-26.6666,0.51282,34.3588,
-15.8975,-7.6924,9.7437,41.0256,-68.2051,-13.8462,-1.0256,1.0256,33.3333,-17.9487,29.7434,-14.3591,12.3076,31.7947,
-8.4617,-15.6411,6.4102,34.6155,-68.4617,-19.2307,-1.7949,1.7949,27.9485,-13.0769,20.2566,-6.9231,4.8718,25.8972,
-11.0256,-10.5129,3.3333,35.6409,-64.3589,-17.1794,-3.3333,4.8718,14.6152,-16.6667,15.1282,-13.5898,4.8718,26.9231,
-16.6667,-1.282,8.4614,36.1538,-66.4104,-6.9231,-2.8206,1.282,11.5383,-22.3079,17.6921,-18.718,8.9744,34.1025,
-15.1282,-5.3848,11.0256,35.6409,-67.436,-5.3848,-0.76929,0.76929,18.7178,-23.3335,17.6921,-18.2051,1.282,35.1282,
-15.1281,-7.9486,13.077,42.3077,-65.3846,-9.4872,-2.3077,5.3846,24.8717,-22.3077,18.7179,-17.6923,2.3077,35.1281,
-26.923,-9.4872,12.0514,38.7181,-70.5128,-15.641,-3.3334,3.3334,25.3846,-22.8204,23.8461,-22.3077,3.3334,37.1796,
-32.3076,-6.6667,8.2051,36.4102,-74.8718,-11.282,0,5.6409,26.1538,-13.3333,25.6409,-17.436,0,36.9229,
-32.0513,-5.8975,4.3589,36.1541,-74.6152,-1.7949,-1.7949,10,26.4104,-11.5383,22.8206,-7.9487,1.7949,34.6155,
-25.8975,-5.8975,7.9487,40.769,-67.9487,-1.7949,-4.3589,11.0256,27.9487,-10,27.9487,-1.282,1.282,42.8203,
-15.1283,-3.8463,13.0768,50.5128,-59.2308,-5.3846,-0.76917,13.0768,31.0255,-1.795,33.0768,0.76916,-13.5897,49.4869,
-20.5128,-7.1796,7.6923,43.5895,-62.5641,-0.51282,0.51282,9.2306,27.6923,-6.6666,27.1793,-4.1027,-12.8207,38.4615,
-31.5386,-10,-0.25635,33.0769,-71.0256,0.76929,-7.9487,1.282,18.7178,-21.6666,17.1794,-11.5386,0.25635,27.9485,
-19.2307,-3.3333,7.436,38.718,-64.8718,-1.7949,-5.8975,8.9744,22.3076,-23.3333,19.7437,-9.4871,1.7949,36.6667,
-14.3591,0,14.8718,42.051,-61.5386,-1.5386,0,15.3845,24.1025,-17.9487,22.0513,-9.2307,-1.5386,38.9744,
-29.3591,-0.25647,10.0001,39.2306,-67.4359,0.25647,-2.8204,7.9489,17.6923,-21.2821,19.2308,-10.5128,-0.76917,30.5128,
-35.8976,-0.51282,7.1796,37.9486,-71.2821,0.51282,-4.1027,5.641,26.1537,-18.4615,25.1281,-5.1283,-3.5897,34.3588,
-27.9487,-0.76929,8.9744,38.2053,-72.0513,0.76929,-3.3333,7.436,27.949,-19.2307,26.9231,-7.4358,-5.8975,34.6155,
-22.3076,-5.8975,5.8975,31.0256,-67.9487,1.7949,-6.9231,3.8462,17.1794,-21.7949,19.7434,-10,-1.7949,23.3333,
-21.282,-10,4.8718,28.4614,-65.3845,-1.282,-7.436,2.3076,23.8462,-8.4617,23.3335,1.282,-2.8206,25.3848,
-13.8461,-4.1027,9.7435,35.8973,-60.0001,-5.1283,-5.641,3.077,30.7694,-4.6154,25.1283,2.0514,-2.0514,29.7435,
-1.0256,-2.564,8.718,29.231,-46.6665,-2.0513,-8.2051,1.0256,15.7694,-19.6154,15.3848,-7.6921,8.2051,21.5386,
-0.76929,-8.9744,0.76929,24.3591,-48.9744,-0.25635,-15.1282,0.25635,3.8464,-33.5896,10.0002,-11.5383,4.8718,14.6155,
1.0256,-7.6921,-1.0256,33.3335,-57.9487,-2.0513,-12.8206,3.0769,17.436,-25.6409,16.9233,-9.7434,1.5386,20,
13.077,-4.8717,0.76917,34.1024,-60.7692,-3.3334,-11.5385,0.25647,20.7694,-18.2052,13.5897,-6.4103,-0.25647,17.6923,
20.2565,-4.8717,-0.25647,31.5387,-64.8717,-3.3334,-19.7435,2.8204,7.9489,-17.6923,2.3077,0.25647,-12.5641,13.59,
22.0515,-7.1794,-2.0513,30.7693,-66.6665,-2.0513,-23.0769,7.1794,8.718,-15.8975,6.1541,2.0513,-16.4102,22.0515,
29.7434,-3.5898,-1.0256,32.3079,-60.5129,0,-17.436,4.1025,12.3079,-16.4104,12.3079,0,-4.6155,25.6409,
31.0256,-1.7949,0.25659,29.9998,-64.3591,-3.8462,-18.718,1.282,5.3845,-20.7693,5.3845,-0.25659,-3.3335,16.6667,
30.5129,-3.8462,2.8206,28.4617,-66.9231,-5.8975,-20.7693,3.3333,6.4104,-19.231,5.8972,-2.8206,-5.8975,13.5896,
33.3333,-2.564,3.5898,33.8464,-56.9231,-5.6409,-14.3589,1.0256,11.7952,-14.8716,10.2566,-5.6409,-1.0256,12.8206,
36.6666,-2.8204,4.8717,34.1027,-52.5641,-5.3846,-9.9999,0.76917,14.6154,-15.1283,13.59,-1.2821,-0.76916,17.1793,
37.4358,-3.0769,3.0769,32.3079,-60,-4.6152,-18.4614,3.5898,16.9231,-19.4871,14.8718,-6.1538,-10.2563,20.0002,
36.4105,0.51282,-0.51282,34.3593,-58.9742,-3.5897,-21.5385,3.5897,10.7694,-21.5385,8.7181,-11.2819,-16.923,12.8207,
35.6411,1.7949,-1.7949,35.6411,-56.6667,-2.3076,-14.6152,2.8206,5.3848,-22.8206,6.9233,-4.3589,-14.1025,12.0513,
34.3589,1.0256,-1.5383,41.0259,-60.5127,-1.0256,-13.8462,5.1282,14.8721,-21.0256,14.3589,-4.1025,-12.3076,24.1025,
32.564,-1.282,-0.76929,38.7178,-57.6924,0.76929,-18.2051,3.3333,19.231,-17.6924,16.1538,-10.5129,-4.8718,22.8203,
31.7948,-0.51282,-1.5385,35.3846,-56.923,-1.5385,-17.4359,0.51282,7.1796,-18.4615,9.2308,-4.6154,3.077,13.8461,
28.2054,0.51282,-4.1024,35.3846,-64.6154,-4.6154,-16.41,-0.51282,3.077,-17.9486,6.1542,6.6669,-11.923,17.4359,
28.4618,-1.2821,-1.7948,31.5385,-60.7692,-2.8204,-14.6154,1.2821,11.5385,-12.5641,9.9999,8.4618,-16.6666,27.4359,
30.7693,-1.0256,0,32.3079,-53.8462,0,-13.8462,1.0256,10.2566,-16.9231,7.1794,-2.0513,-1.6666,22.5642,
33.5898,-0.76929,-1.7949,35.1284,-53.5898,0.25635,-14.1025,0.76929,12.0513,-25.3845,8.4614,-11.5383,-0.25635,17.6924,
27.9486,-2.3077,2.3077,35.641,-51.5385,-8.4615,-13.077,2.3077,15.1283,-22.8204,13.5897,-10.0001,-7.4359,18.7181,
26.1539,-2.5641,4.6154,35.3844,-44.6154,-13.3334,-12.3077,2.5641,6.6666,-18.9745,8.2052,-9.7435,-3.077,16.4103,
29.231,-1.0256,0,31.2822,-47.6924,0,-14.8718,1.5383,8.2051,-21.0256,6.6665,-12.8206,-11.7949,15.3848,
17.4362,-0.51282,-4.1024,32.8204,-62.6924,9.7435,-22.0511,0.51282,16.923,-19.9999,15.3849,-10.7692,-24.6154,20.0001,
3.3334,-3.3334,-6.9232,37.1796,-73.077,7.9486,-21.2821,3.8461,20.2562,-7.9489,20.7694,-3.8463,-14.1027,28.9745,
2.0513,-5.6411,-11.7949,33.8462,-60,5.6409,-18.9744,2.564,15.3848,-2.0513,11.282,-3.0769,-8.2053,27.6924,
3.0769,-4.6152,-9.7434,28.2053,-53.8459,5.6414,-23.0769,-1.0256,7.1794,-9.2307,1.0256,5.6414,-9.7434,18.4617,
0,-4.1025,-3.5896,26.667,-59.4871,7.1797,-18.4614,0,8.7183,-11.7947,7.6924,15.8975,0,20,
-0.76929,-2.8206,-4.3589,33.5898,-57.6924,8.4614,-10,0.76929,15.1284,-15.6411,18.7178,2.8206,-1.282,26.9229,
-0.51282,0.51282,-1.5385,39.4869,-47.6923,9.7435,-7.6923,5.1283,21.5387,-18.4615,25.1281,-9.2308,-3.077,30.2565,
-4.8719,-1.2821,-1.795,34.6151,-48.9745,8.9742,-11.5385,8.4615,26.41,-13.5897,25.8973,-7.4359,1.2821,28.9745,
-3.5897,1.5385,-3.0768,33.8463,-51.2821,8.2052,-12.3077,6.6666,23.0768,-8.7179,20.0001,-9.2308,-1.5385,28.2052,
1.0255,-0.51282,-2.0514,29.2306,-44.6154,5.1281,-11.2821,0.51282,12.8204,-10.7694,11.795,-14.359,-8.2052,21.5382,
1.5385,-1.5385,-1.5385,30.2565,-35.3846,7.6923,-11.2821,3.5897,11.795,-2.5641,10.2565,-5.641,-4.6154,18.9742,
-5.3845,-2.8206,-6.4102,27.4358,-41.282,3.3333,-15.1282,0.25635,16.6667,0.76929,14.6155,-0.25635,-0.76929,22.3079,
-2.8206,-1.282,-2.8206,27.436,-41.7949,3.3333,-14.1025,1.282,22.8203,-2.8206,23.3335,-1.282,8.9744,28.9741,
0.51282,-1.5385,-2.5641,29.2306,-38.9745,6.1537,-17.9489,4.1024,15.8976,-3.5897,14.359,-2.5641,-0.51282,22.0514,
1.2821,-2.8204,-1.7948,25.8973,-34.1024,6.4105,-19.2308,2.3077,13.5897,-2.8204,8.4618,-1.2821,-15.5128,17.1796,
1.5385,-2.5641,-0.51282,28.7181,-33.8461,1.0258,-15.8973,0.51282,19.4872,-14.359,12.308,-6.1537,-13.3334,22.5643,
2.3077,-5.3846,0.25647,34.6154,-37.6923,-0.25647,-11.0258,2.8204,20.7692,-14.6154,15.1281,-6.4103,-3.8461,24.359,
0.5127,-11.2822,0,25.6409,-37.436,0,-13.3335,1.0256,13.8459,-1.0256,11.282,-1.5386,-13.3335,15.3845,
0,-4.6155,-2.5642,20,-32.3079,0,-20,1.0254,7.6924,-1.5386,5.6411,2.564,-5.6411,13.8462,
-2.8203,-3.3335,-8.4617,19.7437,-32.5642,-0.76904,-20.2563,2.3076,6.9229,-7.9487,3.8462,0.76904,9.3589,20.2563,
-5.1283,-8.2052,-4.1027,24.6156,-30.7692,1.5385,-12.3077,4.1024,11.7948,-7.1796,8.7181,-1.5385,11.7948,19.9999,
-6.1537,-3.5897,1.5385,27.1798,-25.641,4.6154,-13.8461,5.641,15.8976,-10.7692,13.3336,-1.5385,-3.0768,15.8976,
-6.9231,-1.7949,-1.282,21.7949,-28.4614,5.3848,-19.7437,5.3848,13.0771,-9.4871,13.5898,1.282,-3.3333,20.769,
-3.8462,-3.3333,-3.3333,26.4104,-30.5127,3.8464,-15.1282,4.8718,11.5383,-6.9231,10.0002,3.3333,-4.8718,31.0256,
0,-3.5898,-1.0256,31.282,-20.5129,3.5896,-9.7437,5.1282,17.4358,-11.2822,9.7434,0,-4.6155,31.282,
-1.282,-4.8718,-0.25635,30,-17.1794,2.8206,-12.5642,2.8206,16.1538,-6.4102,12.564,-1.7949,0.25635,24.3589,
-7.4358,-8.4614,-2.3076,25.8977,-24.8718,-1.282,-14.1025,4.3591,7.4358,1.282,9.4871,3.8464,-2.8206,20.2566,
-7.6921,-7.6921,0,23.5898,-20.5127,0,-4.6152,6.667,9.7437,-7.6921,4.6157,6.1538,-1.0256,22.5645,
-7.6921,-3.5896,2.0513,29.7437,-19.4871,1.0256,-3.0769,3.0769,13.3335,-14.3589,6.6667,-4.1025,-1.0256,23.5898,
-11.0258,-7.4359,1.2821,33.0768,-28.9745,0.76916,-11.0258,5.3846,16.6666,-1.2821,14.1027,-0.76917,-5.3846,24.359,
-12.0513,-9.4871,-3.8462,25.8972,-31.0256,1.282,-14.1025,8.4617,15.1282,-4.3589,11.0256,5.3845,-1.282,24.8718,
-8.4614,-4.8718,-4.8718,27.436,-21.282,4.8718,-9.4871,6.4102,11.5386,-19.3589,5.8975,-9.4871,7.436,28.9746,
-7.6924,-6.6667,-4.1025,28.718,-17.4358,4.6155,-5.6411,10.2563,18.9744,-20.5127,13.3333,-16.4102,4.1025,33.3333,
-9.4873,-3.3333,-4.8718,28.4617,-15.1282,2.8206,-7.9487,14.6152,23.3333,-12.0513,19.7434,-2.8206,4.3589,28.9744,
-10,-2.3076,-4.8718,26.4102,-12.0513,2.3076,-8.4614,6.9231,11.5386,-17.1794,14.6152,-4.8718,11.5386,21.2822,
-10.2565,-7.6925,-1.5385,28.2052,-18.4615,3.0768,-6.6669,6.6666,14.3588,-13.8463,16.923,-11.795,1.5385,26.6666,
-15.6411,-5.3848,0.76929,29.9998,-25.3848,5.3845,-8.9744,8.9744,21.7947,-5.8975,18.2053,-0.76929,-9.4873,29.4871,
-19.4872,-4.1027,-2.0514,22.0514,-20.5128,2.0511,-9.2308,1.5385,14.359,-12.3077,9.7438,-1.5385,5.5127,22.5641,
-18.718,-2.3076,0.25635,23.8459,-10,-0.25635,-3.8462,5.3845,16.6667,-8.4614,14.1028,-8.9744,18.2053,25.3845,
-21.0256,0,1.5383,29.2307,-16.9231,0,-4.1025,14.3589,27.6921,-4.1025,26.6667,-3.5898,3.2053,33.8459,
-27.4359,-5.8973,-1.2821,28.4615,-31.9231,1.2821,-6.923,10.5128,30.0001,-14.6154,31.5387,1.2821,-4.359,39.7438,
-26.923,-11.0255,-1.2821,33.5897,-23.3334,-3.8461,-9.4872,4.359,27.9486,-12.0511,25.8973,1.2821,10.641,39.2308,
-18.9744,-6.6665,-1.0256,32.8206,-8.3334,-6.6665,-15.3845,8.2053,26.1541,-2.564,21.5386,1.0256,6.6667,31.282,
-12.0514,-0.76917,-0.25647,27.4359,-0.25647,0.25647,-16.6666,8.4615,19.2308,-17.564,18.7181,-8.9745,3.3334,24.3588,
-15.641,-6.4103,-0.25647,22.3075,0.25647,3.3334,-17.1796,-1.2821,11.0258,-32.564,14.1024,-14.6154,12.5643,27.9486,
-15.8972,-7.6921,-3.0769,17.9487,3.0769,4.6157,-17.9487,-3.5896,9.231,-28.7178,10.2563,-5.1282,6.667,27.1797,
-9.4872,-2.8204,-6.4103,23.3334,11.5385,6.923,-15.1283,2.8204,8.9745,-22.3077,5.3846,-4.359,-5.3846,23.3334,
-11.0258,-7.4359,-3.3334,23.3331,20.2565,3.3334,-14.1027,3.8461,9.9999,-25.8973,7.9486,-6.923,-4.359,29.4869,
-16.923,-11.7948,-4.1024,15.8976,22.0514,0.51282,-24.6154,0.51282,2.5641,-25.641,5.6412,-4.1024,-0.51282,24.6154,
-10.2566,-6.1538,-9.231,13.8462,23.5898,7.6924,-28.718,3.0767,-1.5386,-26.6667,0,0,8.7178,11.2822,
-10.5127,-7.9487,-12.0513,8.9746,23.3335,1.7949,-27.4358,0.25635,-0.25635,-29.4871,-2.3076,3.8462,6.4102,5.3848,
-18.9745,-7.6923,-7.1796,15.8976,20.0001,-2.5641,-25.641,2.5641,5.1281,-16.923,4.6154,9.2306,-8.5898,15.3844,
-22.3076,-11.0256,-12.0513,12.564,21.2822,1.2822,-33.5898,2.3076,-0.25635,-16.6667,2.8203,0.25635,-23.3333,15.1279,
-8.4617,-0.25659,-4.8718,18.2053,31.5383,16.1536,-33.0769,9.9998,0.25659,-19.2307,5.3845,-0.25659,-8.3333,20.7693,
-18.718,-3.8462,-4.3591,19.7437,16.5383,12.0513,-35.6411,8.9741,-1.2822,-22.3079,2.8203,-3.8462,1.2822,17.6924,
-21.2822,-5.8975,-6.4104,19.7434,5.3845,9.4871,-26.9231,10.5129,3.8459,-20.2566,2.3079,-3.3335,-2.3079,18.718,
-10.5129,-1.7947,-8.9744,18.2053,20.3845,9.9998,-24.3589,5.8972,2.3079,-21.7949,-2.3079,-2.8206,1.7947,18.2053,
-9.231,-8.2051,-6.1538,8.2051,35.3845,7.6919,-26.6667,-0.51318,1.0254,-19.4873,0,0,6.1538,15.8975,
-14.8716,-19.4871,-5.1279,4.1025,44.1025,-2.0513,-26.1536,-2.0513,3.0771,-19.4871,2.5645,2.0513,3.0771,11.7949,
-11.2822,-19.4873,-9.231,11.7947,43.5896,-10.7695,-22.0515,-1.0256,4.1023,-22.5642,2.051,4.615,1.0256,10.2561,
-14.6154,-24.8717,-11.5385,12.0514,40.2565,-12.0511,-22.8204,-4.359,6.923,-21.7948,4.8717,4.359,4.8717,11.5387,
-15.8972,-25.6409,-8.7178,13.8464,36.4104,-9.7434,-25.1282,-3.0769,7.6926,-19.4871,6.1541,3.0769,7.1794,10.7693,
-2.3076,-19.231,-5.8977,15.1279,39.2305,-9.4873,-25.3848,-0.25635,0.25635,-23.8462,3.333,1.2817,0.76904,8.4614,
10.5127,-16.6667,-1.7949,14.1025,38.2051,-5.8975,-24.8718,-0.25635,-5.3848,-25.8975,0.25635,2.8203,0.25635,12.0513,
15.8975,-19.4871,-4.1025,12.8208,37.436,-0.5127,-27.6921,0.5127,-10.2563,-22.564,-4.6152,4.6157,5.6411,8.7183,
23.3335,-20.2563,-6.4102,8.9746,41.2822,-0.25635,-28.4614,0.76904,-13.5898,-17.6924,-7.9487,4.8721,0.25635,1.7949,
31.0259,-12.564,-1.7949,13.0771,37.6924,1.7949,-22.8203,2.8208,-12.0513,-18.7178,-8.4614,8.9746,-7.9487,4.8721,
27.6924,-13.333,-3.0767,12.3076,28.2051,5.1284,-22.564,1.5386,-9.2305,-21.0256,-7.6924,9.231,-1.5386,6.1538,
25.3848,-20.2563,-7.9487,10.5127,30,2.8203,-28.4614,-0.25635,-4.3589,-7.9487,-3.8462,9.4873,5.3848,0.25635,
33.5898,-18.2051,-5.8975,15.6411,34.6152,0.25635,-29.4871,0.76904,-4.8716,-0.25635,-4.3589,12.0513,0.76904,-0.76904,
43.0769,-12.8201,-4.1023,15.8977,31.7952,4.1028,-24.1023,3.0769,-5.1282,-7.6921,-5.6409,12.3079,-3.0769,3.0769,
42.0515,-10.7693,-4.1023,16.4104,26.6667,1.0256,-23.5896,-1.0256,1.0256,-9.2307,-4.6155,12.8206,-3.5896,4.1028,
40.5127,-13.3335,0.51269,15.8975,25.6411,-10.769,-20,-4.6152,2.564,-4.1025,-6.6665,12.3076,0,0,
45.6411,-14.8716,5.1284,15.3848,29.7437,-9.7437,-13.3335,-2.0513,-5.1284,-8.7178,-6.1538,10.769,11.2822,2.0513,
46.4102,-11.5386,6.4102,19.231,29.4873,-2.8203,-11.5386,-0.76904,-8.9741,-15.1279,-4.3589,9.4873,12.564,0.76904,
45.8975,-7.9487,11.0259,17.1797,26.4106,-2.3076,-7.4355,-0.25635,-3.333,-7.4355,-1.7949,12.0513,5.8975,0.25635,
43.8464,-5.8972,13.5901,16.6667,26.4104,-4.3586,-7.4358,-3.3333,-3.3333,-4.8718,-2.8206,8.9744,2.8206,4.8718,
43.5894,-7.1797,9.7437,19.4868,30.769,-2.0513,-12.3076,-5.6411,-6.667,-10.7695,-5.1284,4.6152,5.6411,2.0513,
47.9485,-9.4871,11.0256,15.6409,29.9998,1.282,-10.0002,-1.282,-6.4104,-9.4871,-1.282,7.9485,9.4871,-5.8977,
48.2051,-5.6411,11.7949,13.333,26.1538,-1.0259,-4.6157,0,-6.667,-5.1284,0,10.2563,8.2051,-0.51318,
43.3335,-7.9487,7.9487,13.0767,27.436,-7.436,-8.9746,-3.8462,-5.8975,-6.4102,-2.3076,7.9487,2.3076,9.4873,
45.6409,-5.6409,11.7947,21.0256,28.718,-5.6409,-12.8206,0.51294,-3.5896,-5.1282,-0.51294,4.6155,-5.6409,7.1794,
50.2563,-4.1025,10.7695,20,21.5386,1.0259,-13.8462,3.5898,-7.6924,-5.6411,-6.1538,0,-17.4358,0,
45.3848,-8.4614,7.436,12.564,18.7178,0.76904,-12.564,-0.76904,-5.8975,-8.4614,-5.8975,4.3589,-7.436,14.1025,
37.9487,-13.3335,4.1025,13.8462,19.4873,-6.667,-14.8721,-4.1025,-8.2051,-11.7949,-4.1025,5.1279,5.6411,24.1025,
43.0771,-11.7949,3.0771,13.3335,21.0259,-4.6152,-13.8462,-1.5386,-12.3076,-11.7949,-8.7178,1.5386,4.6152,15.8975,
42.051,-9.2307,-1.0256,9.7434,15.3845,-1.0256,-13.3333,1.0256,-10.7693,-12.3079,-9.7439,3.0769,2.051,3.0769,
34.3589,-9.231,-0.5127,12.8203,14.3589,-3.0771,-14.3589,0.5127,-6.1538,-12.3076,-0.5127,8.2051,2.564,1.0254,
36.9231,-8.7175,1.0256,15.385,18.9744,-5.6409,-13.8459,-2.5637,-1.0256,-8.2048,3.0769,8.718,-3.5896,6.6667,
45.6411,-2.5645,3.5894,18.9741,18.9741,-2.0513,-11.2822,2.0513,-2.0513,-3.5898,-4.1025,12.3076,-6.1538,10.769,
38.4614,-5.1279,6.667,15.8975,20.5127,-2.0513,-8.7178,2.0513,-7.1792,-6.6665,-6.6665,11.2822,-3.0767,5.6411,
31.7949,-7.6924,10.2563,15.8975,25.1279,0,-6.1538,-3.0771,-4.6157,-13.3335,3.5894,0,-2.0513,4.1025,
29.2307,-7.1794,11.282,18.9744,19.4871,-2.5642,-9.7434,-5.6409,-4.6155,-17.9487,4.1028,-3.0769,2.5642,6.1541,
22.3076,-14.1025,3.8462,14.1025,11.0259,-7.4355,-11.5381,-5.8975,-3.8462,-19.7434,-1.7949,1.7949,8.4619,6.4106,
21.0254,-13.8462,1.0254,13.8462,15.8975,-5.6411,-5.6411,-5.6411,1.5381,-17.949,0,-2.5645,9.7437,0,
24.8718,-5.8972,7.949,15.6409,24.8718,-3.3333,-1.282,-2.8206,1.282,-9.4871,9.4871,-1.282,14.6155,-1.282,
16.1538,-13.0767,1.7949,8.4619,16.667,-11.5381,-10.5127,-3.8462,-12.564,-10,5.3848,4.3594,10.5132,-1.7949,
16.4102,-17.436,-0.5127,11.7949,10.769,-12.3076,-8.2051,-2.564,-8.7178,-10.769,0.5127,6.6665,4.1025,2.564,
24.8716,-16.6667,7.436,12.0513,12.564,-8.4614,-0.25635,-2.8203,0.25635,-13.0769,3.3335,-0.25635,-0.25635,7.436,
27.9487,-9.4873,12.0513,15.1279,18.7178,-3.8462,1.7949,-3.3335,-2.8208,-14.6155,7.4355,-1.7949,-2.8208,10,
22.8203,-7.9487,6.9233,14.1025,18.2051,-6.4102,-2.8203,-6.4102,-6.4102,-11.5386,7.9487,1.2822,-1.2822,5.3848,
18.4612,-13.3337,6.6663,7.6921,16.4099,-13.3337,-7.6926,-9.7439,-10.7693,-15.385,1.5383,1.0256,3.5896,-1.0256,
23.8464,-11.5383,10.0002,11.0256,23.8464,-8.9744,-4.8718,-7.4358,-11.5383,-21.7949,-1.282,3.8464,1.282,3.3333,
24.6155,-9.7434,4.6155,11.282,21.5383,-4.1028,-1.0256,-3.5896,-6.6667,-21.5386,2.5642,1.0256,-6.1541,8.2053,
20.5127,-6.667,5.1279,15.8975,16.4102,-4.1025,0,0,-3.0771,-14.3591,5.6406,-2.0513,-2.0513,9.2305,
13.0769,-10.5129,4.3591,15.1282,15.1282,-6.9231,-3.8459,-5.3845,-3.3333,-9.4871,10.5129,-1.7947,1.7947,5.8972,
10.769,-13.3335,0.5127,12.3076,15.8975,-9.231,-3.5898,-5.6411,1.5386,-5.1284,13.8462,-0.5127,1.5386,-0.5127,
11.7949,-6.6665,2.564,17.436,12.8208,-9.7437,-2.0513,0,0,-4.6152,5.1284,0,2.0513,-2.0513,
10.769,-7.1797,5.1279,15.8975,9.7437,-7.1797,-5.1284,-2.0513,-4.6157,-6.1538,2.0513,3.0767,-5.6411,4.6152,
10.5127,-11.0254,4.8721,11.5386,11.0259,-3.8462,-6.4102,-8.4614,-2.8203,-3.8462,8.9746,2.8203,-3.8462,10,
7.6926,-12.8206,1.5388,7.6926,9.2307,-8.718,-7.6921,-10.2561,-7.1794,-13.8459,0.51294,-0.51294,3.0769,4.1028,
13.3335,-4.1025,5.1279,15.8975,15.3848,-5.1284,-3.5898,-1.5386,-5.6411,-17.436,-1.5386,5.6411,1.5386,9.231,
14.1025,-2.3076,1.2822,18.2051,18.7178,-1.2822,-3.8462,-4.8716,-6.9229,-14.1025,4.3589,2.8203,-2.3076,10,
10.7693,-9.7434,-3.5896,7.1794,22.0515,-0.51294,-4.1028,-12.3079,-9.2307,-16.4104,3.0769,0.51294,5.6409,4.6155,
10.2566,-7.6921,-2.5642,8.718,24.6155,-0.51294,-6.1541,-8.718,-6.1541,-17.436,0.51294,3.0769,2.051,4.6155,
14.3589,-4.1025,0,13.8462,25.6411,0,-2.564,-5.6411,-3.0771,-8.2051,8.2051,2.564,-8.7178,6.1538,
14.3589,-9.231,2.0513,5.1279,23.0767,-2.0513,2.564,-10.7695,-7.1797,-7.1797,7.1792,-2.0513,-5.6411,3.0767,
10.7693,-6.6667,6.1536,9.2307,16.9231,-1.0256,1.0256,-6.6667,-10.2566,-15.8977,3.0769,-4.1028,-7.1794,1.5383,
6.9229,-5.8975,4.3589,12.564,15.1279,0.25635,-0.25635,-5.3848,-7.9487,-18.2051,4.3589,-7.9487,-13.5898,0.25635,
6.6667,-7.6921,2.5642,8.2053,20.0002,-5.1282,4.1028,-12.8206,-2.5642,-13.3333,3.0769,-7.6921,-8.718,2.5642,
8.718,-5.6409,3.0769,8.2053,20.5129,-9.2307,2.0515,-13.3333,-1.0256,-14.3591,1.0256,-6.6667,-11.282,5.6409,
10,-2.8208,6.4102,8.4614,17.6924,0.25635,-0.25635,-7.9487,-0.76953,-15.6411,4.3589,-3.8462,-15.1284,3.8462,
2.564,-3.0771,3.0767,6.6665,13.333,2.0513,0,-10.2563,-6.1538,-13.8462,0,0.5127,-13.3335,-2.0513,
5.8972,-1.7952,1.282,4.8718,19.2307,1.282,1.282,-8.4617,-11.0256,-8.9744,-1.282,6.4099,-18.2053,-1.282,
12.8203,-3.5898,3.0771,6.1538,21.5386,0,1.0259,-8.7178,-14.8716,-14.8716,-0.5127,0,-32.8206,0.5127,
11.2822,-6.6665,7.1797,13.3335,18.9741,-5.6411,4.1025,-6.6665,-8.2051,-17.436,4.1025,-4.1025,-29.2307,4.6152,
4.1025,-8.2051,6.6665,11.2822,18.4614,-6.1538,3.0771,-3.0771,-5.1284,-14.3589,6.6665,-4.6152,-20,5.6411,
3.5896,0.51294,4.1028,8.718,16.9231,7.6921,-0.51294,-4.1028,-15.3845,-18.9744,0.51294,-5.6409,-34.8718,-0.51294,
1.5386,6.1538,4.1025,9.7437,3.5898,20.5127,-5.1284,-3.0767,-15.3848,-18.9741,-1.5386,0.5127,-45.1282,-0.5127,
-8.4612,0.76929,2.3079,11.5388,-11.4102,19.7439,-8.9744,2.3079,-4.3586,-11.0256,5.8977,-0.76929,-42.3076,8.4617,
-12.0515,1.282,2.8206,14.1023,-20.7693,20.7693,-6.4104,7.9485,-1.282,-3.8464,9.4871,-5.3845,-38.718,11.5383,
-11.5386,3.3335,0.76904,9.4873,-10.5127,22.8203,-10,4.3589,-8.4614,-6.4102,1.2822,-0.76904,-28.4617,2.3076,
-9.4873,11.5386,2.8208,15.1284,-4.3589,32.564,-10.5127,6.9233,-7.9487,-1.7949,0.25635,12.0513,-13.5898,-0.25635,
-16.9229,7.6924,0,11.7949,-12.8203,34.8721,-9.231,4.1025,-12.3076,-1.0254,0,10.769,-28.5898,0.51269,
-15.8977,3.0769,-1.0256,8.2048,-14.3591,28.2048,-10.2566,3.5896,-13.3337,-5.6414,1.0256,10.2561,-43.5898,2.051,
-8.9744,9.4871,1.282,15.6409,-9.4871,24.8718,-11.5383,6.9231,-7.9485,-5.3845,-1.282,15.1282,-43.3333,1.282,
-9.2312,8.7175,3.0769,13.8459,-11.2825,23.5896,-1.5388,3.0769,-1.0256,-1.0256,-1.0256,4.615,-43.5901,1.0256,
-8.718,4.1028,3.0769,9.7434,-11.282,20.0002,2.5642,-1.0256,-6.1541,-1.0256,1.0256,-5.6409,-49.7437,1.5383,
-5.6411,7.1792,5.1279,12.8203,-6.667,23.0767,-4.6157,0,-14.8721,-0.5127,0,9.3591,-37.436,3.0767,
-12.5642,3.8459,1.282,9.4871,-12.5642,24.8718,-4.8718,-1.282,-13.0769,-4.8718,2.3079,18.2053,-23.3333,1.7947,
-13.5901,2.8206,-4.3591,9.9998,-12.5642,24.3586,0.76929,-0.76929,-4.8718,-11.5388,9.4871,7.9485,-17.1794,2.8206,
-10.5127,5.8975,-3.8462,13.0771,-8.4614,20.769,-2.3076,0.76904,-0.76904,-4.3589,13.5898,3.8462,-17.1792,7.436,
-20.769,2.3076,-5.8975,11.5386,-21.282,13.5898,-9.4868,-3.333,-2.3076,7.9487,7.436,7.9487,-32.1792,3.8462,
-18.4614,-0.51269,-2.0513,10.7695,-22.0513,17.9487,-4.6152,-0.51269,0.5127,8.7183,6.1538,16.4102,-33.8459,3.5898,
-13.5898,-2.8203,-0.25635,6.9229,-15.1284,17.6924,-5.3848,0.25635,-3.8462,3.8462,2.8203,20.769,-26.9231,2.8203,
-16.6665,-0.25635,-1.2817,10,-16.1538,11.0259,-8.9741,0.25635,-6.4102,8.9746,1.7949,22.8208,-40.2563,3.3335,
-11.7952,-1.0256,-2.5642,8.7175,-15.8977,10.7688,-9.7439,3.5896,-5.6414,7.1794,2.051,18.9744,-45.1284,1.0256,
3.2048,0,0,11.2822,-12.3076,17.436,-11.7949,5.6411,-9.231,0.5127,-2.0513,18.9746,-30.1284,-3.0767,
9.4871,0.76929,0.76929,13.5896,-8.9744,17.1794,-14.1028,-0.25659,-11.0256,0.25659,-4.3591,20.2566,-25.3845,-4.8718,
12.3076,-0.51318,-3.0771,12.8203,-5.6411,15.8975,-13.3335,0,-6.1543,0.5127,1.0254,17.9487,-31.7952,0,
17.4363,-1.0256,-5.6409,15.8977,-15.8972,14.3591,-13.3333,3.0769,-5.1282,-4.1023,1.0256,16.9231,-34.8716,1.0256,
18.718,-4.3591,-5.8977,13.5896,-22.3079,12.5637,-12.5642,1.282,-3.8464,0.76929,1.282,16.6667,-37.6924,-0.76929,
18.9746,-6.6665,-9.7437,12.3076,-16.9229,13.3335,-14.3589,0.5127,-10.769,0.5127,1.5386,9.7437,-47.6924,-0.5127,
31.5386,-1.7949,-6.4102,18.2051,-13.5898,18.2051,-8.9741,4.8721,-13.5898,-5.8975,1.7949,11.0259,-48.4614,1.7949,
43.5894,0,0.5127,16.4102,-11.7949,16.4102,-1.5386,1.5381,-12.8208,-8.2056,0,13.8457,-33.4614,0,
47.1794,1.0256,3.0769,17.4358,-1.0256,11.7947,-0.51294,0.51294,-19.4871,-7.1794,-2.5642,10.7693,-20.5129,-1.5383,
48.4614,-0.25635,0.76953,19.231,-0.25635,12.0513,-2.3076,5.3848,-15.1279,-5.8975,0.25635,12.0513,-21.2817,-0.25635,
49.7437,0,0.51318,17.436,-5.6406,15.3848,-4.1025,3.5898,-3.0767,-2.564,0,12.8208,-26.6665,-2.0513,
49.4871,3.3333,3.8459,18.2048,-2.3079,18.2048,-5.8977,-1.282,-7.949,1.282,-2.3079,2.8206,-28.4617,-2.8206,
42.5642,0.51294,1.5383,18.9744,-8.2053,13.8459,-11.7952,-0.51294,-10.7693,-3.0769,2.5642,-5.6414,-39.4873,0.51294,
42.3076,2.8208,-2.3076,24.8721,-8.4614,14.1025,-14.6152,0.25635,-2.3076,-6.9229,5.3848,6.4102,-39.7434,-0.25635,
54.3589,7.1797,2.0513,24.1025,5.6411,19.4873,-7.6924,-3.0767,-6.1538,-4.1025,-2.0513,17.9487,-24.7434,-3.5898,
57.6921,5.3845,7.4358,18.2053,7.4358,12.5642,-5.3845,-4.3591,-12.0515,-6.9231,-3.3333,3.3333,-26.9231,-5.3845,
47.6921,1.0256,3.5896,20.5129,-1.0256,4.6155,-14.8718,1.5383,-7.1794,-11.7952,3.5896,-10.2566,-33.3335,-6.6667,
45.1279,-0.5127,0.5127,21.5386,-3.0771,12.3076,-12.8208,6.1538,-11.7949,-8.7183,3.5898,4.1025,-32.3079,-4.1025,
46.9233,1.7949,2.8208,19.231,-1.7949,18.7183,-3.8462,4.3589,-21.7949,-6.9229,-4.3589,13.0771,-41.282,-1.7949,
42.0513,1.5386,-1.5386,11.2822,4.1025,17.436,-9.2305,4.6152,-19.4873,-16.9229,-5.6411,2.0513,-37.9487,-4.6152,
42.564,2.564,-4.6152,12.3076,5.1279,18.9741,-16.9233,8.2051,-16.4102,-18.4614,-2.0513,2.0513,-22.9487,-5.6411,
43.3335,4.3589,-0.25635,18.7183,0.25635,18.7183,-14.1025,7.9487,-21.7949,-7.4355,-7.4355,10.5132,-26.9229,-6.9229,
37.436,1.0254,2.564,9.231,0,15.8975,-8.7178,0,-22.564,-7.6924,-13.8462,8.7178,-41.9229,-12.8203,
41.282,6.9231,6.9231,15.6409,-0.25659,21.282,-6.4104,0.25659,-7.564,-11.0256,-4.3591,6.9231,-26.9229,-6.9231,
44.6155,4.1028,4.6155,22.0515,-10.7693,14.3591,-13.3333,3.0769,-2.5637,-7.6921,1.0256,-1.0256,-28.2051,-3.0769,
43.5898,2.564,4.1025,16.4102,-7.6924,10.2563,-8.2051,6.1538,-7.6924,-0.51269,0.5127,-3.5898,-38.9744,-5.1279,
36.4104,6.1536,5.1282,14.8718,-1.0256,14.3591,-0.51294,5.1282,-13.3333,-11.7952,-1.0256,0.51294,-31.7949,-5.6409,
29.7437,1.5386,3.0771,15.8975,-6.1538,14.8721,-8.7178,0,-9.231,-23.0767,0.51269,0,-30.7693,-2.0513,
30.769,3.5898,2.0513,17.9487,-4.1025,14.8716,-11.7949,3.5898,-3.5898,-12.8208,0,0,-31.2822,-2.564,
31.7952,6.6667,0.51294,14.3591,-0.51294,11.7952,-3.0769,7.6921,-11.282,-5.6409,-5.1282,7.1794,-17.4358,-6.6667,
28.718,4.1028,1.0256,13.3337,-5.1282,16.9231,-4.615,9.2307,-13.3333,-4.1023,-1.5383,13.8464,-13.3333,-1.0256,
22.051,0.51294,1.0256,12.8206,-14.3591,20.5129,-16.9231,6.1536,-10.2566,-2.0515,-0.51294,9.7434,-27.6924,-0.51294,
20,1.5386,4.6152,7.6924,-13.8462,11.2822,-10.769,4.6152,-5.6411,-5.6411,-1.5386,4.1025,-33.8462,-4.1025,
17.1794,7.4358,8.4617,11.5383,-6.4104,10.0002,-5.3845,6.4104,-13.0769,-12.0515,-3.8459,3.8459,-34.6155,-6.4104,
13.5901,10.5129,6.4104,15.1282,-5.3845,24.8718,-17.6921,7.949,-23.3333,-14.6155,-7.9485,5.3845,-39.7434,-6.9231,
12.3079,6.1536,5.1282,13.3333,-10.2566,25.6409,-22.0515,6.6667,-17.4358,-16.9231,-7.1794,5.6409,-37.436,-5.1282,
14.6155,5.3845,7.4358,18.2048,-14.6155,16.1536,-13.0769,4.8718,-16.1541,-15.1282,-5.8977,6.4099,-30.5129,-4.8718,
17.436,10.7695,8.2051,16.9233,-12.3076,17.436,-9.2305,5.6411,-20.5127,-9.2305,-6.1538,7.6924,-32.3076,-5.6411,
16.9231,14.8718,8.718,13.8464,-5.6409,18.9744,-13.3333,5.6409,-14.3591,-8.718,-6.1536,6.1541,-36.4102,-6.6667,
13.5901,13.0769,10.0002,16.1541,-2.8206,18.718,-10.5125,2.8206,-8.4612,-7.4358,-4.8718,4.3591,-27.9485,-6.9231,
12.5642,8.4617,4.8718,13.0769,-4.8718,20.7693,-5.8972,2.8206,-12.051,-3.8459,-2.8206,6.9231,-15.6409,-3.8459,
11.7949,7.6919,2.0513,14.3589,-12.3081,20.5127,-7.1797,6.1538,-12.3081,-8.2051,-4.1025,12.3076,-24.6157,-2.0513,
5.1284,5.6411,4.6152,13.8462,-13.8462,21.5386,-7.6924,7.1797,-10.2563,-11.2822,-6.6665,12.3076,-39.6157,-4.6152,
1.282,1.7947,4.3591,14.1028,-8.4617,19.7434,-6.4104,7.4358,-3.8459,-5.3845,-1.282,2.8206,-28.4617,-1.7947,
0,0,0,13.3335,-10.2563,11.7949,-7.1797,3.5898,4.1025,-5.1284,8.2051,-8.2051,-13.4617,5.6411,
0.76929,-0.76929,1.7952,8.4617,-8.9744,11.5383,-6.9231,-1.282,-0.76929,-5.8972,5.3845,3.8464,-17.1794,3.3333,
0.76904,1.2822,2.8203,10,1.7949,18.2051,-7.9487,-0.76904,-12.564,-1.7949,-5.3848,17.6924,-25.8975,-3.8462,
-1.0256,0.51294,-1.0256,10.2566,2.0515,17.949,-10.7693,0.51294,-9.7434,2.0515,-1.5383,5.6409,-24.6155,-0.51294,
1.0256,1.0256,-0.51294,7.6921,-7.6921,15.3845,-9.2307,0.51294,-5.6409,-6.6667,3.0769,-9.3591,-30.2563,2.5642,
8.4614,8.4614,3.333,14.6152,-2.3076,21.2817,-0.76953,5.8975,-7.9487,-13.0771,0.25635,-0.25635,-23.8462,-0.76953,
2.3079,4.3591,-0.25659,15.6409,0.25659,22.3079,-1.282,2.3079,-7.4358,-10.5129,-2.3079,4.3591,-12.5642,-4.3591,
2.3079,10.5129,7.4358,20.7693,-4.3591,21.282,-0.76929,2.3079,-3.3333,-2.8206,0.25659,-1.282,-17.6921,-0.25659,
11.5381,16.6665,16.1538,21.2817,-7.436,17.6924,-1.2822,6.9229,-6.9233,-1.7949,-1.7949,-0.25635,-22.3076,0.25635,
11.5381,7.9487,11.0254,17.6924,-8.4619,15.1279,-1.7949,4.8716,-6.9233,-3.3335,-3.8462,1.7949,-16.667,-2.3076,
2.5642,6.6667,4.6155,18.4617,-3.0769,19.4875,-1.0256,3.5901,-5.1282,-4.1023,-1.0256,1.0256,-21.5383,-2.051,
-2.3076,11.5386,6.4102,14.6157,-0.25635,24.8721,-4.3589,6.9233,-5.8975,-2.3076,-0.76904,10,-28.4614,0.25635,
-0.76929,9.4875,1.7952,11.5388,-8.4612,21.7952,-9.9998,2.8206,-9.4871,0.76929,-4.3586,13.5901,-19.2307,-1.282,
0.76904,5.3848,-1.2822,11.5386,-5.3848,16.6665,-8.9746,0.76904,-2.8203,-5.3848,-0.25635,4.8716,-12.564,0.25635,
-9.4871,1.282,-0.76929,10.5129,0.76929,14.6155,-7.4358,-0.25659,0.25659,-16.1541,2.8206,-2.8206,-24.8718,1.7947,
-10,4.8721,2.8208,13.5898,-0.25635,19.7437,-5.8975,0.25635,-5.8975,-11.0254,-0.76904,3.3335,-20.769,0.76953,
1.0256,6.6667,2.5642,9.7439,2.0515,19.4871,-4.6155,-1.0256,-6.6667,-3.5896,-4.6155,9.2307,-5.769,-5.1282,
2.8206,10.5129,2.3079,8.9744,9.4871,15.6409,-4.8718,-2.3079,-7.4358,-3.3333,-4.8718,10.5129,-9.4871,-11.0256,
-2.8203,11.0259,4.8716,10,12.0513,19.7437,-2.3076,0.76904,-10,-2.8203,-4.3589,14.1025,-24.4871,-0.76904,
-6.9231,-0.76929,0.76929,3.3333,1.282,19.2307,-5.3845,0.76929,-12.0515,-3.3333,-6.9231,6.9231,-32.5642,5.8972,
-2.5642,4.6155,0.51294,8.718,-0.51294,19.9998,-4.1028,6.1536,-4.6155,-0.51294,-2.5642,6.1536,-21.0256,2.5642,
-1.2822,10.5127,-1.7949,11.5386,0.76904,17.6924,-1.7949,4.8716,-10.5127,-2.8203,-0.76904,4.8716,-14.1025,2.8203,
-1.0256,10.2566,-0.51294,11.7952,0.51294,18.9744,-4.6155,1.0256,-19.4871,-7.1794,-4.6155,2.0515,-21.5383,16.9231,
-1.0254,8.2056,3.5898,7.6924,0,22.5645,-9.7432,0,-16.9229,-8.7178,-11.2817,11.2822,-23.5894,24.6157,
-4.3591,4.8718,3.3333,3.8464,-1.282,17.1794,-6.9231,1.282,-14.6155,-6.4104,-11.0256,17.6921,-13.0769,17.6921,
-4.3589,5.8975,1.2822,11.0259,-0.76904,13.0771,-5.8975,0.76904,-15.1284,-4.8716,-7.9487,6.9229,-21.7949,12.564,
-1.282,8.4617,5.8972,9.4871,5.3845,22.3079,-6.9231,0.76929,-11.0256,-5.8972,-8.4617,-0.76929,-28.4617,5.3845,
-7.6921,8.718,6.1541,4.6155,7.6926,32.3079,-6.1536,7.6926,-9.7434,-9.2307,-9.7434,5.1282,-13.8459,-4.6155,
-17.1794,8.4617,5.3845,11.5383,2.3079,34.6155,-3.8459,13.0769,-6.9231,-4.3591,-3.8459,11.5383,-12.5642,-2.3079,
-23.8459,3.8459,7.4358,12.051,-3.3333,37.6921,-4.8718,12.051,-5.8972,0.25659,-0.25659,11.5383,-20.7693,-1.7947,
-34.1025,1.282,4.8718,11.5388,0.76929,44.3591,-1.7947,14.1028,-7.9485,-2.3074,-1.282,15.1282,-6.4099,-0.76929,
-48.9744,-6.4104,-5.3845,11.5383,0.25659,43.8459,-0.25659,14.1028,-3.8459,-0.25659,-2.3079,18.718,1.7947,7.9485,
-49.4873,-6.9233,-5.3848,16.6665,-4.3589,44.3589,-5.3848,16.1538,1.2822,8.9741,-1.2822,21.2822,-3.8462,14.6152,
-43.3333,-4.8718,0.76929,15.6414,-2.8206,43.3333,-5.3845,17.1794,-9.4871,6.9231,-2.3074,21.7952,-0.76929,8.4617,
-46.9233,-10.5132,-1.2822,8.4614,-1.2822,37.6924,0.25635,11.5381,-10.5132,1.7949,-0.25635,18.7178,-1.7949,5.3843,
-50.7693,-9.7434,-4.1028,14.3591,-6.6667,33.3333,-3.5896,7.6921,-3.5896,4.1028,3.5896,12.3079,-12.3079,6.6667,
-48.9744,-10,-1.7949,13.0771,-12.564,32.564,-11.5386,7.9487,-7.436,1.7949,3.3335,7.436,-18.7178,3.3335,
-47.1797,-11.7952,-0.51294,6.6667,-10.2566,32.8206,-7.1794,9.2307,-5.6414,0.51294,4.6155,11.282,-11.282,4.1023,
-59.7437,-17.6924,-9.4873,6.4102,-15.6411,23.8462,-10,2.3076,-0.25635,0.25635,0.76904,3.8462,-14.6157,3.8462,
-63.3335,-18.2053,-6.4104,7.4358,-18.2053,24.8718,-10.5129,3.8459,0.76929,8.9744,-0.25659,0.25659,-18.718,1.282,
-48.3335,-7.9487,3.3335,11.5386,-6.4102,35.6411,-0.25635,12.0513,-4.8716,16.667,-1.7949,14.1025,-3.718,0.25635,
-39.7437,-9.4871,-4.8718,8.4617,-6.4104,31.5383,-1.282,11.5383,-9.9998,10.5129,-8.4617,15.6409,9.4871,1.282,
-41.282,-10.5127,-8.9746,12.0513,-15.1284,32.564,-6.9229,14.6152,-2.3076,13.0771,-1.7949,13.5898,1.7949,9.4873,
-42.0513,-12.3079,-9.7439,13.8459,-21.0256,34.3586,-14.3591,15.3845,-0.51294,20.5129,0.51294,21.0256,-7.1794,9.2307,
-35.3848,-13.8462,-7.1797,11.2817,-16.9233,28.7178,-11.7949,12.3076,-0.5127,18.9741,0.5127,33.8462,-5.6411,8.2051,
-29.7437,-11.2822,-7.6924,15.3843,-20,23.5898,-9.7437,9.7437,-1.5386,6.6665,1.5386,30.2563,-10.7695,8.2051,
-24.8718,-9.4873,-7.436,17.1797,-23.3335,26.9229,-14.6152,9.4873,-0.25635,5.3848,0.25635,19.231,-10.5127,3.3335,
-16.1538,-9.4873,-6.4102,14.6157,-17.1792,24.8721,-15.1279,11.5386,-0.76904,9.4873,-0.25635,16.1538,0.25635,2.8208,
-7.4358,-6.4104,-6.9231,18.718,-13.0769,19.7434,-13.5896,12.5642,-6.4104,6.9231,-0.76929,16.1541,0.76929,2.8206,
4.8716,-6.4106,-5.8975,19.7437,-12.0513,24.3589,-13.5898,9.4868,-4.3589,10,-0.25635,13.5894,-3.8462,0.25635,
16.1538,-8.4614,-4.8716,17.1797,-13.5898,24.8721,-15.6411,4.3589,-2.8203,12.0513,-0.25635,2.3076,-7.436,0.25635,
18.718,-7.4363,-4.8718,16.6667,-11.5388,20.2561,-14.6155,6.4099,-6.4104,8.4612,-0.76929,2.3074,-4.8718,0.76929,
15.6414,-2.3074,-2.8206,18.2053,-7.4358,23.8464,-12.5642,11.0256,-4.8718,9.4871,-1.282,16.1541,-1.7947,1.282,
17.949,0.51294,-1.0256,19.4871,-6.6667,27.1794,-12.3079,9.7434,-8.718,14.3591,-5.1282,19.4871,-14.3591,-0.51294,
27.6924,-0.51269,-1.0259,17.436,-6.1538,26.6665,-9.231,11.7949,-14.3589,15.8975,-2.0513,21.0254,-17.9487,0.5127,
18.4617,-5.6409,-6.6667,15.8977,-16.9231,22.0515,-14.3586,8.718,-10.2561,6.6667,-1.0256,14.3591,-16.4099,1.0256,
7.4358,-12.0515,-11.0256,12.5642,-21.282,19.7434,-16.1541,1.7947,-0.76929,2.3079,-2.8206,3.8459,-18.718,0.76929,
19.231,-13.5898,-6.9229,8.4614,-6.9229,20.7695,-6.9229,3.3335,-4.3589,7.9487,1.7949,5.3848,-4.3589,-1.7949,
23.8459,-14.1028,-8.4617,4.8718,-3.8464,14.615,-8.4617,0.76929,-17.1794,3.3333,-0.76929,8.4612,9.9998,-13.0769,
22.8203,-10,-7.436,8.9741,-6.4102,16.6665,-12.0513,1.7949,-8.4614,1.7949,-1.7949,6.9229,8.9741,-7.436,
24.8721,-7.436,-5.3848,16.667,-5.8975,19.231,-13.5898,4.3589,-1.2817,6.9233,-0.25635,0.25635,-5.8975,1.2822,
26.4102,-6.9229,-5.3848,17.1797,-5.3848,18.2051,-11.5386,4.3589,-6.4102,10,-0.25635,4.3589,-8.4614,0.25635,
24.8716,-5.3848,-2.3076,12.0513,-6.4102,18.2051,-10,4.3589,-6.4102,9.4873,-1.2822,15.1279,0.25635,-0.25635,
25.6411,-2.0513,0,14.3589,-12.8208,20.5127,-15.3848,3.0767,-8.2051,9.7437,-7.6924,10.769,-12.3076,0,
27.6921,-2.5642,-1.5383,16.9231,-16.9231,19.4871,-17.4358,3.0769,-8.2053,12.8206,-3.5896,4.1023,-24.6155,1.5383,
22.5642,-7.1794,-3.5896,18.4617,-12.8206,17.4358,-15.8972,3.0769,-4.6155,10.2566,1.0256,9.7434,-10.2566,-1.0256,
18.4617,-6.6667,-1.5383,14.3591,-5.6409,19.4871,-13.3333,1.5383,-10.2561,3.0769,-7.1794,11.7952,2.0515,-5.1282,
18.4617,-6.1536,1.5388,7.1799,-1.0256,21.0256,-7.6921,1.0256,-14.8713,4.1028,-11.7947,7.6926,-6.1536,-3.5896,
16.4102,-5.6411,-0.5127,12.3076,-1.0254,19.4873,-7.1792,1.5386,-8.2051,7.1797,-7.6924,7.6924,-9.7437,0.51269,
14.8721,-6.1538,-1.5386,16.9233,0,20,-8.2051,-2.564,-3.0767,9.7437,-2.0513,12.8203,0,0.51269,
13.8462,-7.1792,-2.564,12.3076,0,19.4873,-5.6411,-5.1279,-10.2563,9.7437,-6.1538,13.8462,0,0.5127,
15.1282,-1.282,-3.8464,13.5896,1.282,17.1794,-3.3333,-1.7952,-11.5383,3.3333,-8.9744,10.5129,-1.282,5.3845,
14.3589,-2.564,-2.564,15.3848,-0.5127,15.8975,-6.667,0.5127,-1.0259,-0.5127,-1.0259,2.0513,2.564,8.2051,
10,-7.9487,-1.7949,13.0771,-8.4614,11.0259,-11.0254,-2.3076,1.7949,3.3335,2.8208,-5.3848,-2.8203,3.8462,
10.7693,-6.6667,-1.5383,9.2307,-7.1794,9.2307,-9.2307,-3.0769,-0.51294,8.718,0.51294,4.6155,-1.5383,1.5383,
11.7947,-1.0256,-1.5383,10.2561,-2.5642,14.8718,-11.282,-0.51294,-4.1028,7.6921,-0.51294,14.8718,4.6155,0.51294,
4.8718,-1.7952,-2.3079,11.0256,-12.0515,18.2048,-16.1541,-0.76929,-6.9231,8.9744,-1.7952,17.6921,5.3845,0.76929,
2.3076,-8.9741,-6.9229,3.8462,-17.6924,15.6411,-14.6152,-1.2822,-8.9741,7.9487,-5.3848,20.769,9.4873,1.2822,
9.4873,-4.3589,-5.3848,7.9487,-6.9233,16.1538,-10.5127,0.25635,-10,1.2817,-3.8462,11.0254,9.4873,-0.25635,
13.3333,1.0256,7.1794,15.3845,2.5642,12.8206,-7.1794,-1.0256,-10.2566,-4.6155,1.0256,-3.9746,-1.5383,-4.6155,
14.1025,1.2822,9.4873,14.6152,8.4614,10.5127,-3.8462,-3.3335,-13.0771,-4.3589,-3.3335,-0.25635,0.25635,-4.3589,
10.769,-4.1025,-1.5386,10.769,5.6411,15.8975,-8.7183,-6.1538,-16.9233,0,-14.8721,7.6924,8.2051,0,
4.6152,-10.7695,0,6.1538,-5.1284,18.4614,-12.8208,-5.1284,-13.3335,1.0254,-15.3848,3.0767,0,1.5386,
7.4358,-0.25659,11.5383,14.1028,-2.8206,19.2307,-4.8718,-0.25659,-4.8718,2.3079,-3.8459,7.4358,-6.4104,0.25659,
7.436,0.76904,2.3076,15.6411,-0.76904,18.7178,-5.8975,-1.7949,-6.4102,2.3076,-3.3335,13.0771,-1.2822,-4.3589,
7.436,-5.8975,-6.9229,11.0259,-2.8203,22.8203,-12.564,1.7949,-6.4102,7.9487,-3.3335,12.0513,10.5127,-1.7949,
3.0771,-4.1025,-7.6924,10.7695,-5.6411,16.9233,-16.9229,3.0771,-6.1538,2.0513,-3.5898,1.5386,6.1538,-1.5386,
1.5386,-0.5127,-4.6157,11.7949,-7.6924,13.8462,-13.8462,1.5386,0,-3.5898,0.5127,-1.0259,1.5386,0,
0,-2.0513,-1.0254,11.7949,-13.8462,15.8975,-14.8716,0,0,0,0.5127,1.0259,-0.5127,1.5386,
4.3589,-0.25635,-0.76904,10.5127,-9.4873,18.7178,-17.1797,2.8203,-5.3848,1.7949,-3.3335,0.25635,-1.2822,5.3848,
5.8975,1.2822,-1.7949,7.9487,-6.4102,19.231,-16.1538,2.3076,-5.8975,-1.2822,-4.3589,-1.2822,4.8716,6.4102,
1.7947,1.7947,-0.76929,10.5129,-7.9485,18.2053,-15.1282,-1.282,-7.4358,-2.3079,-3.8459,1.282,12.5642,0.76929,
4.1025,2.0513,-1.5386,10.2563,-5.1279,18.4614,-16.4102,-2.564,-8.7178,1.5386,-3.0767,6.1538,10.2563,-1.5386,
12.8203,5.1279,-0.5127,12.3076,-7.6924,18.9741,-16.4102,0,-7.1797,5.1279,-3.0771,7.1792,-4.7437,0,
13.8462,2.5645,0,12.3081,-11.7949,18.4619,-18.4614,-2.564,-7.6919,2.0513,-6.1538,5.1284,-16.4102,0,
8.2048,0.51294,-2.0515,10.7693,-5.1282,23.0769,-16.9231,-3.5896,-3.5896,2.051,-3.5896,6.6667,-1.4102,6.1536,
0.76904,-1.7949,-5.8975,13.0767,-8.4619,17.6924,-16.667,-1.7949,-3.3335,-0.25635,0.25635,0.76904,13.5898,6.9229,
2.051,-3.5901,-1.0256,14.3586,-12.8206,12.8201,-13.8464,1.0256,-3.0774,-4.1028,2.5637,-8.2053,5.1282,3.0769,
5.1284,1.5386,5.1284,17.9487,-8.2051,19.4873,-11.7949,0,-1.5386,-8.7178,0,-9.7437,-9.8718,3.5898,
4.3589,4.3589,5.3848,20.769,-10,21.2822,-13.5898,0.76904,-0.76904,-12.564,-2.3076,-4.3589,-7.9487,3.8462,
5.8972,0.25659,3.3333,9.9998,-11.0256,13.0769,-14.1028,1.7947,-4.3591,-9.4871,-1.7947,-3.8459,7.0513,-0.25659,
9.2312,3.0769,3.5901,5.6414,-3.0769,17.4363,-9.7434,-1.0256,-10.2561,-2.051,-5.1282,1.0256,14.3591,-2.5637,
3.5898,4.6152,4.6152,9.7437,-0.5127,26.1538,-3.5898,-2.564,-6.6665,-1.0259,-6.1538,10.769,0.5127,-0.5127,
-5.1282,1.5383,4.6155,13.8459,-8.718,23.5896,-7.1794,1.5383,-1.5383,-3.5896,-1.5383,13.3333,-6.6667,1.5383,
-9.2307,0.51294,-0.51294,12.3079,-14.3591,19.4871,-16.4104,4.1028,-5.1282,-1.0256,-2.5642,11.282,2.0515,1.0256,
-10,-1.7949,-4.3589,7.436,-10,21.2822,-17.1792,1.7949,-6.4102,5.8975,-4.3589,16.1538,14.1025,4.8721,
-5.3848,0.25635,-3.8462,10.5127,-7.9487,17.6924,-14.6152,-0.25635,-4.8716,5.3848,-4.3589,17.1797,8.9741,3.8462,
3.5898,5.1284,-0.51269,11.7949,-10.769,15.8975,-11.7949,0.5127,-3.0767,-2.0513,-0.51269,8.7178,0.5127,-1.0254,
-3.8464,-0.25659,0.25659,9.4871,-17.1794,14.6155,-11.5383,-1.282,1.282,-1.7947,4.3591,-0.76929,0.76929,3.3333,
-18.8464,-8.4617,-3.8464,9.4871,-23.3333,6.9231,-14.6155,-5.8977,0.76929,3.8459,2.3074,-0.76929,0.76929,5.8972,
-11.0256,-0.76929,-1.282,10.5129,-13.0769,8.9744,-9.9998,-1.282,-4.3591,2.8206,0.76929,11.5383,9.4871,3.3333,
0.51294,5.6409,1.0256,9.7434,-2.5642,15.3845,-5.1282,-0.51294,-11.282,-6.6667,-3.5896,7.6921,12.3079,-3.0769,
-2.8206,3.8464,5.8977,8.9744,-2.8206,15.6414,-0.76929,-1.282,-6.9231,0.76929,-4.8718,1.7952,12.5642,-3.8459,
-10.5129,1.7947,1.282,3.3333,-8.4617,7.949,-9.9998,-1.282,-7.4358,4.3591,-6.9231,5.3845,11.0256,-4.8718,
-6.1538,8.7178,-3.5898,8.7178,-6.667,13.8462,-16.4106,3.0767,-10.7695,0,-7.1797,10.2563,7.1792,0,
-6.1541,6.1541,-4.6155,7.6921,-8.2053,18.9744,-11.7947,1.0256,-9.7434,-1.0256,-8.2053,3.5896,3.0769,2.051,
-13.8462,5.6411,-7.1792,2.0513,-9.7437,17.436,-12.8203,0,-12.3076,4.1025,-12.3076,4.6157,9.7437,0,
-17.6924,6.9233,-10.5127,-0.25635,-13.5898,16.1538,-23.8462,1.7949,-14.1025,8.4614,-13.0767,11.5386,7.436,0.25635,
-17.6921,4.3591,-8.4617,6.4104,-24.8718,17.6926,-24.3586,5.3845,-3.8459,7.4358,-3.3333,3.3333,-7.564,5.8977,
-10,9.4873,-4.3589,14.1025,-22.8203,17.6924,-15.6411,7.436,-2.8203,2.8203,-1.2822,1.2822,-6.9233,4.8716,
-4.1025,13.8462,0,6.667,-9.2305,20,-10.2563,6.667,-12.8203,0,-8.2051,15.3848,8.0767,-3.0767,
-8.9746,11.5386,2.3076,5.3848,-11.0259,20.2563,-10,7.436,-15.6411,-2.8208,-7.436,18.2051,23.0767,-2.3076,
-13.0769,5.8977,-0.76929,8.4617,-17.1794,13.0769,-9.4871,6.9231,-11.0256,-9.9998,-5.8972,5.3845,8.9744,0.76929,
-7.9485,6.9231,2.3079,9.4871,-8.4617,12.5642,-6.9231,5.8972,-4.3591,-4.8718,-4.8718,-0.25659,5.3845,0.25659,
-12.5642,5.8972,3.3333,13.5896,-10.5129,12.051,-8.9744,3.8459,-2.8206,2.3079,-4.3591,-4.8718,2.8206,-2.3079,
-17.436,3.5898,-1.0254,11.7949,-14.3589,10.2563,-7.6924,4.6152,-3.0767,0.5127,-0.51269,-4.1025,5.6411,0.5127,
-6.1536,8.718,1.0256,7.1794,-5.6409,14.8718,-5.1282,6.6667,-7.6921,-1.0256,-3.5896,4.1028,14.8718,-3.5896,
-4.8718,5.3845,3.3333,3.3333,-7.4358,9.9998,-14.1028,1.282,-15.1282,-1.282,-15.1282,3.8459,7.9485,-10.5129,
-12.564,1.7949,1.2817,2.8203,-13.5898,3.8462,-14.1025,-0.25635,-11.0259,0.76904,-12.564,0.25635,-0.25635,1.2817,
