"AF3","AF4","F3","F4","F7","F8","FC5","FC6","O1","O2","P7","P8","T7","T8",
-92.5641,-64.359,47.4357,0.76916,17.1793,-41.7948,-23.8461,19.2306,23.8463,48.9742,-1.2821,5.3846,-5.8973,-0.76917,
-94.359,-68.2052,44.6154,-1.5385,13.3331,-34.359,-25.1283,10.7692,22.5641,55.8976,1.5385,7.1793,-8.2052,-4.1027,
-104.8717,-71.5385,36.6669,-3.8461,15.641,-38.205,-21.2821,2.8207,19.2308,57.1796,4.359,1.2821,-3.8461,-1.2821,
-112.0514,-73.5897,32.5641,-9.4872,13.5897,-48.9745,-26.4103,1.2821,19.7438,52.0514,2.8204,-1.2821,-7.4359,1.2821,
-98.4615,-72.3077,45.1283,-3.5897,11.2821,-35.8973,-26.6666,7.1796,21.0258,53.8461,2.0514,1.5385,-13.8461,-1.5385,
-84.6155,-67.1794,55.3848,-1.5383,24.1025,-20.8973,-17.4358,15.3845,18.9746,54.3589,4.1025,0,-11.282,0,
-87.9489,-62.3077,50.5128,-5.3846,25.3844,-32.5641,-18.7179,15.641,17.1793,52.0514,3.3334,-3.3334,-13.077,3.3334,
-96.1539,-65.8973,47.4357,-4.8717,14.1027,-41.7948,-25.3846,7.4359,18.7179,52.5641,-1.2821,1.7948,-15.1283,1.2821,
-91.5385,-68.9745,53.077,-4.8717,24.3588,-26.9232,-20.2565,7.9486,23.3334,49.4872,0.25647,3.3334,-4.8717,-0.25647,
-86.6667,-64.6155,54.8718,0,30.2561,-27.6924,-15.3848,16.9229,22.5642,38.4617,4.6152,-5.6411,-3.0771,0,
-92.3079,-67.6924,46.1536,0,15.8972,-36.4104,-21.5386,11.7947,19.9998,38.4612,2.564,-6.1541,-10.2566,0,
-92.3077,-67.1796,44.6151,-2.5641,18.9745,-25.641,-24.6154,9.2306,18.4613,52.3075,-4.1027,8.205,-9.2308,2.5641,
-86.9231,-61.282,46.9231,-3.3333,22.8206,-21.7949,-25.3845,18.718,14.6155,52.0515,-8.9744,10.5129,-10,3.3333,
-82.3077,-63.8461,53.0768,-3.8461,14.6154,-30.5128,-21.7948,19.2306,19.2306,54.1027,-2.3077,2.3077,-7.9486,4.8717,
-77.6924,-69.4873,59.7434,-2.8206,17.6921,-31.0256,-23.3333,7.4358,23.3333,58.2053,2.3076,-2.3076,-5.8975,3.3333,
-74.6154,-65.3846,64.359,-3.3334,26.923,-25.8976,-20.7692,4.359,20.7692,52.5641,2.8204,-0.25647,-4.359,0.25647,
-85.641,-64.1027,58.9745,-5.1283,15.3846,-25.641,-22.0514,8.205,16.9232,50.7689,0.51282,2.5641,-7.1796,-0.51282,
-92.3077,-65.641,55.8973,-0.51282,3.077,-28.2052,-29.7435,8.7179,19.9999,57.9486,0.51282,-1.0255,-7.6923,4.1027,
-84.8719,-63.8463,62.3077,-0.25647,7.4359,-33.5897,-25.3846,8.4615,25.3844,54.6154,3.8461,-10.0001,-5.3846,0.25647,
-84.6155,-61.5383,63.5898,2.5642,10.7693,-35.8975,-17.4358,12.3076,27.1797,48.2051,5.6411,-2.5642,-4.6155,-4.6155,
-93.8463,-66.1539,59.4872,-0.51282,7.1793,-30.2565,-22.5641,8.205,21.5385,52.8202,0.51282,7.6923,-8.7181,-0.51282,
-94.3591,-64.1025,61.0256,-5.6411,4.1025,-23.0769,-26.1538,4.1025,17.4358,56.9231,-3.0769,3.0769,-11.2822,4.6152,
-83.0769,-53.3333,66.1541,1.0256,10.2563,-23.0769,-20.5127,15.3845,18.9744,56.9231,-1.5383,-1.0256,-7.1794,2.0513,
-77.9489,-53.3334,64.6154,1.5385,16.923,-24.1027,-20.5128,16.923,15.3844,57.9489,-2.0514,1.5385,-3.5897,-1.5385,
-90,-56.6667,58.718,0.25635,8.9744,-22.3076,-24.8718,5.3845,7.949,58.2053,-7.4358,-0.25635,-5.8975,0.25635,
-97.4358,-53.3333,57.436,0,1.5383,-18.9744,-25.6411,9.231,9.7437,58.9741,-10.7693,0,-6.1538,3.0771,
-87.6923,-53.3331,62.0511,-2.5641,4.6154,-16.4103,-26.6666,16.9232,16.4105,59.9999,-7.6923,2.5641,-7.6923,3.077,
-79.7437,-54.1025,71.0256,0.25635,10,-22.3076,-23.3333,12.564,19.7434,58.718,-0.25635,-0.25635,-8.4617,3.3333,
-82.5642,-56.9231,74.8716,-4.1025,10.2563,-35.3845,-15.3845,11.282,19.4873,55.8975,4.1025,-3.5898,0,0,
-86.4103,-60.2565,70.5128,-5.8976,8.4615,-32.0514,-14.6154,11.5385,17.1793,52.0514,0.25647,-5.3846,5.8973,-0.25647,
-88.7179,-59.4872,67.6923,-1.0255,8.2052,-23.5897,-19.9999,3.5897,21.0258,54.3593,0.51282,-4.1024,-0.51282,4.6154,
-95.3846,-61.0258,66.6666,-5.641,3.5897,-34.8719,-21.0258,0.51282,24.1027,53.8463,0.51282,-0.51282,-8.2052,3.0768,
-94.359,-57.4359,69.7438,-7.6923,2.5641,-36.4103,-14.359,10.7692,14.8717,53.3336,-5.641,6.6666,-2.5641,4.1027,
-86.4102,-51.0256,75.1282,-8.9744,7.949,-21.4103,-16.6665,12.5642,3.3333,57.6921,-12.564,12.5642,-3.3333,5.3845,
-82.0514,-45.641,77.4359,-3.5897,13.3334,-18.4615,-21.5385,6.6669,11.2821,60.5126,-8.7179,14.3588,-5.1283,3.5897,
-86.9231,-55.1282,73.5896,-6.9231,8.9744,-33.4615,-19.7437,6.4102,17.1794,56.6667,-5.8975,4.8718,0.25635,-0.25635,
-86.9231,-60.7693,70.5127,-14.1025,3.8462,-37.1794,-17.1794,7.436,11.5386,56.1538,-8.9744,-1.7949,1.7949,3.3333,
-82.5642,-46.6667,73.3335,-7.1794,4.1025,-26.1538,-17.436,7.1797,11.2822,54.8716,-9.2307,1.0256,-1.0256,2.564,
-78.9742,-38.4615,77.9486,-3.0768,5.641,-25.641,-15.8973,7.6923,17.4359,50.2567,-5.641,4.1027,1.5385,-1.5385,
-81.7949,-46.9231,73.0771,-8.4614,-0.25635,-34.1025,-17.1794,3.3333,11.0259,47.9487,-7.4358,0.25635,1.282,3.8462,
-84.8718,-47.4358,71.5386,-10,-0.25635,-33.5896,-13.0769,2.3076,11.0259,49.4873,-6.9231,0.25635,2.3076,11.0259,
-88.718,-45.6411,72.8203,-9.2307,1.0256,-31.7949,-10.7693,2.564,18.9741,44.1025,-2.0513,-1.0256,3.5896,4.6152,
-85.3845,-45.8975,76.1538,-1.282,-0.25635,-32.0513,-8.9744,4.3589,16.6665,47.9487,-0.25635,0.25635,2.8206,3.3333,
-81.0256,-50.2566,76.9231,-7.1797,0.51294,-33.8462,-6.6667,2.051,6.1536,54.8718,-8.718,6.1536,-0.51294,8.2048,
-81.7949,-47.436,80.7693,-13.0769,3.8459,-34.6155,-4.3591,1.7947,6.4104,48.4617,-14.1025,2.8206,-1.7947,5.3845,
-79.2307,-39.2307,82.8206,-3.8462,2.3076,-29.4871,-1.7949,6.9231,14.1028,42.3079,-11.0256,0.25635,-0.25635,4.8718,
-80.5129,-42.0513,73.8459,-4.1025,-1.0256,-29.2307,-3.0769,4.6155,11.7947,45.6409,-12.8206,9.2307,1.0256,12.3079,
-84.1025,-46.1538,66.1538,-8.718,0,-36.9231,-8.718,0,5.1279,43.0767,-16.9231,4.6152,2.0513,8.7178,
-77.1794,-44.3591,69.4873,-7.436,7.9487,-38.2051,-0.76904,0.76904,8.4614,38.2051,-7.436,-4.3591,8.9741,3.3335,
-77.1794,-51.5383,68.9744,-13.0769,3.3333,-43.3333,5.8977,-6.4102,11.0256,37.6926,-8.4614,0.76929,5.3845,-0.76929,
-78.9744,-49.7437,76.9231,-10.2566,-3.5896,-46.1541,7.1794,-10.2566,17.9485,38.4617,-9.7437,8.718,3.5896,7.6921,
-77.1794,-46.4102,89.4871,-1.282,-3.3333,-43.3333,14.6155,-5.8975,19.7434,32.0515,-0.25635,0.25635,14.1028,16.6667,
-78.4614,-51.7949,87.6921,0,0,-48.2051,23.0769,-10.7693,11.282,23.0769,-3.0769,-6.6667,11.7947,5.6409,
-79.231,-53.5898,86.9229,-7.436,1.7949,-54.1028,27.9487,-19.7437,7.4355,28.4614,-11.0259,-0.25635,0.25635,0.76904,
-75.1282,-44.8716,95.6411,-5.8975,-4.3589,-46.9229,32.5645,-16.1538,10.5132,33.0771,-7.4355,4.3589,5.3848,15.769,
-71.7952,-42.5642,92.3074,1.0256,-11.2822,-43.0771,36.9231,-9.7439,7.1794,22.051,-7.1794,-1.0256,13.3333,15.3845,
-64.6155,-42.5642,92.3076,1.5386,-3.0771,-44.1025,47.1792,-6.1538,9.2305,20.5127,-7.1797,-1.5386,16.4102,6.1538,
-60.5129,-38.4617,95.3848,0,0,-41.5386,48.7178,-11.2822,8.2051,22.564,-14.3591,-1.5386,13.3335,5.6411,
-59.231,-36.6667,92.564,-0.25635,-4.3589,-34.6155,50,-16.1541,6.9229,23.333,-21.2822,0.25635,12.564,12.0513,
-61.7949,-41.2822,89.4871,-2.8206,-6.9231,-35.6411,58.2048,-14.1028,12.051,26.4104,-12.5642,2.8206,13.0769,14.1023,
-65.1282,-42.0513,92.3076,-4.1025,-12.3076,-43.5898,58.9741,-15.3848,11.7949,31.2822,-4.6152,4.1025,12.3076,9.231,
-60,-38.9744,97.436,-6.1538,-11.7949,-41.0256,59.4873,-18.4617,8.2051,34.3589,-8.7178,7.1797,17.9487,6.1538,
-58.718,-35.6411,101.7949,-5.3848,-13.0771,-37.6924,68.9741,-16.1538,10.5127,30,-10,5.3848,22.3076,16.1538,
-58.9741,-33.3333,106.1538,-2.0513,-18.4614,-38.4614,76.9233,-12.3076,14.3594,27.1797,-3.5894,2.0513,26.1538,26.1538,
-50.769,-34.3589,106.6667,-3.0769,-12.8206,-37.9487,74.3591,-16.9231,13.8464,31.282,-2.5642,2.5642,28.718,15.8977,
-51.5386,-39.7437,106.9229,-1.7949,-8.4614,-43.3335,68.9741,-24.3591,14.6152,26.9229,-7.436,1.7949,27.436,6.9229,
-58.2051,-45.8975,106.4102,-3.3335,-17.1792,-50,68.9746,-27.4358,16.6665,19.7437,-11.5386,3.3335,28.9746,14.1025,
-51.282,-43.5896,108.2053,-3.0769,-21.0256,-47.6921,68.2053,-25.6409,12.3079,29.2307,-15.3845,3.0769,31.282,16.4104,
-43.5896,-38.9744,117.4358,0.51294,-12.8206,-41.5383,65.1282,-21.0256,11.282,33.3333,-15.3845,-0.51294,30.2566,13.3333,
-50,-43.8462,118.2053,-3.8459,-14.1028,-46.4102,65.3845,-24.3591,11.5383,18.3333,-16.6667,3.8459,24.8718,10.5129,
-50.769,-48.2051,111.7952,-4.6155,-23.5896,-55.8975,67.1794,-31.7947,4.6155,11.7952,-16.9231,5.6409,23.5896,8.2053,
-36.9231,-42.5642,117.4358,-2.5642,-14.3591,-47.6924,74.3591,-24.6155,8.2048,26.7952,-9.2307,2.5642,30.2566,12.8206,
-33.3335,-36.4104,122.051,-3.0769,-7.1794,-36.9231,69.7434,-17.949,9.2307,27.6921,-10.7693,3.0769,26.1536,8.718,
-34.6155,-39.231,118.7175,-2.8206,-14.6155,-38.7183,58.2048,-25.8977,2.8206,15.1282,-15.6414,7.4358,25.8972,8.9744,
-32.0513,-46.9231,117.1797,-5.3848,-23.3335,-48.9744,61.2822,-30.5127,5.3848,15.1284,-10.5127,5.3848,37.1797,14.6152,
-30.2566,-42.5642,119.9998,-3.0769,-21.0256,-48.718,67.1794,-24.1028,8.718,20.5125,-9.7439,3.0769,37.9485,13.8459,
-27.9485,-38.2051,124.8718,-4.8718,-14.1023,-40.769,64.3591,-22.3074,5.8977,20.2566,-13.5896,4.8718,33.0769,13.0769,
-26.1538,-47.1797,128.7178,-5.6411,-16.4102,-47.1797,62.564,-26.1538,6.1538,17.4355,-11.2822,5.6411,38.4614,12.8203,
-29.9998,-52.0513,125.8977,-2.8206,-23.3333,-62.1797,64.8718,-26.4104,5.8977,16.1541,-12.051,2.8206,39.7434,8.4617,
-30.0002,-45.8975,126.9231,-2.8206,-23.8464,-60.2566,60.7693,-22.8206,4.3591,15.6409,-14.6155,2.8206,36.6667,11.0256,
-24.1028,-43.5898,132.3079,0.51294,-24.6155,-51.7949,52.3079,-24.6155,-0.51294,12.8206,-18.9744,5.6409,32.8206,13.8459,
-21.7949,-45.3845,133.5898,0.25635,-27.436,-55.1282,50,-26.4102,-0.25635,17.1797,-19.2305,12.564,32.0513,10.5127,
-26.6665,-45.6411,130.2563,-4.1025,-32.8203,-60.5129,49.231,-27.6924,4.1025,17.436,-15.8975,9.7437,32.8203,14.8716,
-29.2307,-48.2051,125.1282,-3.0769,-34.3591,-64.1025,47.6921,-28.2053,3.0769,12.3079,-17.4358,3.5896,31.7947,15.3845,
-27.1797,-49.7437,125.1279,-1.5386,-34.8721,-61.5386,45.1279,-25.1284,1.5386,16.4102,-16.9233,14.3589,37.4355,13.8462,
-26.4102,-51.0256,123.3335,-2.8203,-43.3335,-60.7693,38.2051,-22.3076,2.8203,16.1538,-14.1025,16.6665,41.7949,13.5898,
-26.6667,-61.5386,121.0256,-7.1794,-48.718,-67.6924,35.3845,-26.6667,7.1794,11.282,-12.3079,7.1794,39.4871,9.2307,
-24.1025,-64.1025,123.0771,-7.1797,-45.6411,-69.7437,36.9233,-34.3589,10.769,11.7949,-11.2822,7.1797,42.0513,9.231,
-21.5386,-60,125.1284,-4.6152,-45.1282,-64.1025,31.7949,-35.8975,4.6152,6.6665,-10.769,8.2051,43.0771,10.2563,
-13.3333,-58.4617,129.2307,-3.5896,-38.9744,-55.3848,28.2048,-23.5896,3.5896,5.6409,-8.2053,10.2561,43.5896,12.8206,
-14.8718,-61.5383,125.6409,-2.5642,-41.5383,-58.9744,22.0515,-22.051,2.5642,6.6667,-16.4104,5.6409,38.9744,6.6667,
-18.4614,-62.5642,124.6152,-1.5386,-53.3335,-59.4873,19.4873,-31.7949,1.5386,4.6152,-27.6924,3.5898,35.8975,4.6152,
-15.1284,-62.3076,127.9487,-0.25635,-59.2307,-53.0767,18.2051,-30,0.25635,2.3076,-22.8203,6.9233,34.1025,19.6152,
-21.5383,-65.6409,121.5383,-1.0256,-63.5896,-58.4614,4.6155,-26.6667,1.0256,2.5642,-14.3591,3.0769,27.6926,24.1028,
-23.3333,-69.4873,121.7947,-3.8459,-66.4102,-63.8462,3.8459,-27.949,9.9998,9.4871,-14.1028,6.4104,33.5896,14.6155,
-20.5127,-77.9487,125.1279,-4.1025,-71.7949,-73.3335,5.6411,-33.3335,4.1025,4.6152,-21.0259,7.1792,35.3848,8.7178,
-15.8975,-80.5127,126.667,2.0513,-75.3845,-80.5127,3.0771,-32.3076,-2.0513,4.1025,-14.3589,5.6411,32.8208,18.4619,
-15.3843,-80,129.231,1.0259,-77.9485,-77.4358,0.5127,-30.2563,6.667,12.8208,-6.6665,-0.51269,35.3848,19.4873,
-17.949,-78.4617,135.3845,1.0256,-79.4873,-71.7952,-1.0256,-28.718,11.7947,14.8713,-10.2566,2.051,42.051,11.7947,
-13.3333,-76.4104,137.4358,1.5383,-78.9744,-75.3848,-1.5383,-24.1028,9.2307,10.7693,-8.2053,13.3333,43.0769,9.2307,
-5.1282,-75.3848,138.4617,5.1282,-76.9231,-76.9231,-6.6667,-22.0515,8.718,10.7693,-5.1282,12.8206,39.4871,11.7947,
-3.0769,-77.436,142.5637,3.0769,-76.9233,-70.2566,-13.8464,-24.1028,9.2307,11.282,-9.2312,7.1794,39.4871,19.9998,
-0.25659,-76.6667,145.3845,0.25659,-73.5898,-67.436,-14.6155,-23.8459,12.051,8.9744,-5.3845,16.1541,43.8459,29.9998,
0.25635,-82.8206,141.7949,0.25635,-79.231,-82.436,-21.2822,-30,4.8716,-0.25635,-10,8.4614,40.769,19.2305,
8.7178,-87.1794,147.6924,-1.5386,-81.0256,-88.2051,-23.0771,-30.2563,6.1538,2.564,-10.2563,1.5386,44.6152,19.4873,
6.4102,-93.5896,141.7949,-5.8975,-87.4358,-85.8972,-30,-33.0767,6.9233,8.9746,-12.564,5.8975,42.3076,20.7695,
2.3076,-94.1025,137.6924,-2.3076,-93.5898,-88.9744,-33.0771,-31.0259,7.436,7.9487,-11.5386,11.5386,42.3076,16.1538,
5.3845,-90.5129,145.8972,-2.3079,-92.5642,-93.0769,-26.9231,-25.3845,12.051,2.3079,-2.8206,10.5129,49.9998,22.3079,
4.8718,-87.436,146.9231,-3.8464,-97.6924,-93.0769,-26.9231,-26.9231,11.5383,2.3079,-2.3079,8.9744,49.9998,29.4871,
4.8718,-85.3845,141.282,-4.8718,-103.3333,-88.9744,-34.1023,-26.4099,7.4358,6.4104,-7.4358,11.5383,44.3591,25.8977,
3.5896,-82.564,137.4358,-3.5896,-104.1025,-87.1794,-39.9998,-23.0769,4.1028,6.1541,-11.7947,11.282,41.5383,14.8718,
-0.25635,-79.2307,140.2563,0.25635,-103.3333,-87.9487,-38.7178,-22.8203,4.3589,6.9229,-14.1025,7.9487,45.8975,10,
-0.25635,-80.2563,144.3589,0.25635,-101.282,-88.9741,-40.769,-22.8203,6.4102,5.3848,-12.564,5.8975,49.4873,7.436,
0.5127,-76.4102,143.0771,5.1284,-105.6409,-89.2307,-46.1538,-18.9741,8.7178,-0.51269,-6.1538,10.2563,48.7178,9.231,
-2.3076,-77.6924,138.2051,3.8462,-115.1282,-90,-48.9744,-17.6924,12.564,2.3076,-3.3335,16.1538,46.4102,21.2822,
-0.76929,-82.3076,134.1028,0.76929,-117.1792,-88.9741,-52.564,-15.1282,15.1282,9.4875,-1.7947,16.1541,50.0002,31.5388,
-2.5642,-81.5386,130.7693,1.5383,-117.4358,-92.3076,-62.0513,-13.8459,13.8459,5.6409,-1.5383,15.3845,52.3079,29.7434,
-11.0256,-76.6665,133.0769,0.76929,-120.2563,-92.564,-63.3333,-11.5383,15.1282,4.8718,-0.76929,19.7439,51.0256,31.5388,
-12.5642,-78.718,134.1023,2.3079,-121.2822,-94.6155,-61.2822,-13.5896,13.5896,4.3591,-2.3079,18.718,48.4617,34.6155,
-8.2048,-82.564,129.2307,3.5901,-119.4871,-94.3589,-64.6152,-15.3845,13.8464,-1.0256,1.0256,17.949,50.7693,26.6667,
-23.2048,-88.7178,120.5132,0,-134.4871,-101.0254,-76.9229,-17.9482,16.4106,0,2.0518,17.436,50.2568,14.3594,
-34.6152,-93.5896,118.2051,1.2822,-145.8975,-109.4871,-85.3845,-21.2822,16.6665,5.3848,-1.2822,18.2051,51.0259,21.7949,
-19.6152,-92.3076,124.6155,0.51294,-130.8975,-106.1538,-77.9487,-20.0002,15.3845,6.1541,-0.51294,17.9485,55.8972,32.3079,
-8.4617,-92.0513,125.8977,-1.282,-115.8975,-105.8975,-73.5896,-18.718,14.6155,4.3591,1.282,6.4104,52.5642,23.3333,
-8.9741,-99.7437,123.3335,-1.2822,-102.8206,-114.1025,-78.718,-23.8462,17.6924,2.3076,1.2822,4.8721,54.1025,17.1797,
-9.2307,-109.2305,124.6155,-1.0256,-95.3843,-123.0767,-83.0767,-28.2048,20.5129,1.0256,1.5388,17.4363,61.0256,22.5642,
-10.7693,-109.2307,124.6155,-0.51294,-94.8718,-130.2563,-84.1025,-28.2053,16.4104,3.5896,0.51294,21.0256,53.8459,22.5642,
-8.2051,-105.1282,126.6665,-3.0771,-101.0256,-130.2563,-78.9744,-24.1025,17.9487,3.5898,3.0771,18.4614,53.8462,21.5386,
0,-101.0256,135.3848,0,-95.3845,-126.1538,-75.3845,-18.9741,22.564,-2.564,5.1284,22.0513,68.7183,26.1538,
0,-105.1282,132.3076,0,-94.8718,-126.6667,-86.6667,-23.5898,18.4614,-4.6152,1.0254,21.0254,70.2563,31.2822,
-2.3074,-109.9998,126.9231,-1.282,-105.8972,-128.9741,-96.6665,-27.9485,18.2053,1.282,3.3337,21.282,63.8464,33.5901,
-10,-114.6155,127.9487,1.2822,-117.6924,-135.1282,-101.7949,-28.4614,16.1538,-1.2822,1.2822,19.7437,59.2305,21.2822,
-13.3335,-115.8975,126.1538,2.564,-114.8718,-132.8206,-101.5386,-24.6152,18.4614,-1.5386,1.5386,21.5386,65.1284,21.0254,
-13.3333,-114.8716,120.0002,-0.51294,-114.3589,-125.6409,-107.1794,-25.6409,20.0002,0.51294,3.0769,29.2307,65.1282,33.8464,
-16.4104,-115.3845,121.0256,-2.0515,-123.5898,-127.1794,-114.8718,-21.5383,17.4358,2.0515,2.0515,37.4358,54.8718,37.4358,
-16.6665,-117.1794,120.2563,-1.7949,-122.8206,-130,-117.1794,-17.6924,17.6924,1.7949,2.3076,31.5386,49.4873,31.5386,
-13.5896,-117.6924,115.1282,0.76929,-114.6155,-130.5129,-115.1282,-23.8464,20.7693,-0.76929,1.7947,16.5386,56.6667,24.3591,
-8.4617,-113.5896,123.3333,-1.282,-108.4614,-126.9231,-112.0513,-22.8206,25.8977,1.282,6.4104,19.2307,66.4104,22.3079,
-8.2051,-110.7693,128.2051,0,-111.7949,-124.6155,-117.436,-17.436,23.5898,0,8.7178,28.7178,61.0254,24.6152,
-6.9231,-111.0259,120.2561,6.9231,-110.5129,-123.3335,-119.7437,-15.6414,22.3074,-6.9231,8.9744,24.8718,56.6667,34.1023,
-0.76929,-113.5896,114.1028,0.76929,-105.3845,-126.4102,-115.6409,-19.2307,20.7693,-7.4358,4.3591,23.8464,63.3333,36.6667,
6.4102,-111.0256,117.6924,0.25635,-110.5127,-127.9487,-121.282,-19.2305,17.1797,-5.8975,-0.25635,30.5127,63.8462,32.0513,
0,-116.9231,116.4102,1.5386,-121.0259,-129.231,-130.2566,-21.0259,15.3843,-11.7949,0,24.6152,51.2817,29.7437,
-4.8718,-116.6667,120.7693,6.4104,-114.6152,-128.4614,-123.3333,-17.6921,20.2566,-7.9485,4.8718,23.8459,56.1541,35.1282,
-7.6926,-114.8718,122.051,6.1536,-113.3335,-126.1541,-124.6155,-15.3845,15.8972,0.51294,-0.51294,35.8972,62.051,33.8459,
-11.5386,-121.282,120.2563,1.2822,-123.8462,-122.3076,-135.1282,-15.1279,15.1284,2.8208,-1.2822,39.7437,56.6665,34.6152,
-19.2307,-130.5127,115.1282,4.8718,-131.0256,-129.4871,-142.3076,-18.2053,20.2566,-4.8718,6.4104,26.4104,53.0769,36.6667,
-25.1284,-133.3333,107.6924,6.1538,-130.2563,-137.9487,-148.718,-23.5898,23.0767,-6.1538,9.231,22.564,55.8975,33.8462,
-24.6155,-127.1794,105.1282,5.6409,-129.2307,-133.8462,-152.8206,-22.0515,23.5896,-5.6409,7.6921,29.7434,55.3845,39.9998,
-19.231,-121.7949,105.8975,10.5127,-131.0256,-123.3333,-153.0769,-18.2051,23.8462,-9.4873,9.4873,30.5127,56.1538,41.7949,
-19.2307,-124.3589,103.3333,8.4617,-134.1025,-123.3333,-152.5642,-16.6667,24.3591,-8.4617,12.0515,25.3845,59.7434,28.4617,
-24.3591,-127.9487,98.718,7.4358,-139.2307,-135.6411,-158.2051,-19.2307,21.7947,-7.4358,7.4358,24.8718,54.1028,24.8718,
-22.8206,-128.9744,100.7693,9.4871,-140.7693,-139.2307,-164.3589,-21.7947,22.8206,-7.4358,7.4358,30.0002,51.5383,39.2307,
-22.3079,-127.9487,103.8459,11.0256,-134.6155,-130.0002,-164.8718,-20.7693,27.4358,-11.0256,15.1282,33.5896,60.2561,45.3845,
-26.4099,-129.4871,102.3079,11.5383,-136.1538,-130.5127,-166.9229,-21.282,28.4617,-11.5383,16.1541,32.5642,60.2566,44.3591,
-29.7437,-130.7693,101.0259,11.7949,-137.4358,-130.7693,-169.2307,-21.5386,29.231,-11.7949,17.436,31.2822,60.5127,43.0771,
-33.5898,-132.0515,99.2305,12.0513,-139.231,-132.0515,-171.5386,-21.7949,30,-12.0513,18.2051,30,60.2563,41.2817,
-37.1794,-133.5896,97.6924,12.564,-141.282,-132.564,-174.1025,-22.3076,30.5127,-12.564,19.231,28.4614,60.2563,39.7437,
-41.282,-135.1282,96.1541,13.0769,-142.8203,-133.0769,-176.1538,-22.8206,31.5383,-13.0769,20.2566,27.4358,60.2566,38.718,
-45.1282,-136.9231,94.8716,13.3335,-144.6155,-133.3333,-178.4614,-23.5898,32.3076,-13.3335,21.0259,26.1538,60,37.436,
-44.6155,-135.8975,93.8459,13.3333,-133.8462,-129.231,-177.9487,-20.0002,21.5383,-13.3333,18.4617,33.8459,57.9485,36.9231,
-48.4617,-136.1538,86.4102,17.6924,-134.1025,-125.8975,-186.9231,-15.1284,15.6411,-16.1538,15.1284,32.0513,53.5898,37.1797,
-46.9231,-135.1282,84.3589,19.231,-139.2307,-122.8206,-189.4873,-14.6152,25.8975,-15.1284,14.6152,31.5386,54.1025,41.2822,
-42.0513,-133.3333,90.769,12.8203,-136.9231,-119.4871,-191.282,-16.9229,30.769,-12.8203,16.9233,40.5127,60,40.5127,
-42.5642,-130.7693,94.8716,16.4102,-137.436,-124.1025,-196.4104,-16.4102,27.6924,-17.436,17.436,37.436,61.5386,33.8462,
-37.9487,-130.2563,95.8977,17.4358,-129.2307,-124.6152,-195.3845,-14.8718,27.6921,-23.0769,14.8718,28.718,59.4871,38.4617,
-32.0515,-127.949,97.6924,15.1279,-121.2822,-118.2053,-195.1284,-14.1025,26.9229,-17.6924,14.1025,31.0254,59.2305,47.4355,
-38.2051,-128.9744,93.5901,12.5642,-129.4871,-117.1794,-199.7434,-17.6921,27.4358,-12.5642,14.1028,37.6926,58.718,43.8464,
-44.1025,-131.7949,91.7949,14.8716,-126.6667,-116.4102,-194.8718,-14.8716,32.3076,-14.8716,16.9233,37.436,60,44.6152,
-44.8716,-134.6152,91.0259,16.667,-118.2051,-118.7178,-198.2051,-14.1025,22.3076,-21.7949,14.1025,30,57.6924,45.3848,
-39.2307,-129.4873,91.0254,14.6152,-117.6924,-116.1538,-208.4614,-14.6152,19.7437,-16.6665,16.1538,36.6665,59.7437,46.4102,
-43.0767,-127.6921,85.6414,14.8718,-126.1538,-119.4871,-209.2307,-14.8718,29.2307,-17.4358,18.4617,41.5388,61.5388,41.0256,
-49.2307,-135.3845,84.1028,15.8972,-126.1538,-125.6411,-207.1794,-15.8972,34.3591,-22.0513,17.9485,34.3591,63.0769,37.9485,
-42.5642,-135.8975,92.3076,16.4102,-117.436,-125.6411,-202.0515,-16.4102,35.8975,-17.436,22.0513,35.8975,66.1538,46.1538,
-41.0256,-129.7437,88.7178,18.9741,-119.4873,-124.6155,-198.9744,-18.4614,27.1792,-18.9746,18.4614,40.5127,64.1025,40,
-51.2822,-134.3591,83.5898,17.9487,-126.1541,-132.8206,-197.436,-17.9487,22.564,-22.5642,20.5127,38.4614,64.1025,34.3589,
-59.9999,-142.0511,88.7179,18.4615,-133.8461,-139.4872,-201.0255,-18.4615,33.3336,-18.4615,28.7179,40.0001,63.0768,46.6666,
-64.8718,-141.7949,85.3848,16.1538,-143.3335,-127.9487,-210,-19.7437,35.6411,-16.1538,21.7949,40.2563,53.0767,52.564,
-59.9998,-131.282,79.4873,13.8462,-139.4871,-112.9487,-206.1538,-13.8462,30.2563,-13.8462,17.436,40,53.3335,49.7437,
-65.3848,-125.8975,73.5896,13.5896,-139.2307,-109.4873,-209.4873,-16.6667,24.8718,-13.5896,17.6921,35.1282,51.5383,37.6921,
-75.8975,-127.1794,71.7947,12.3079,-146.1538,-117.4358,-220.5127,-24.6155,31.282,-12.3079,18.9744,35.8972,49.2307,35.3845,
-78.718,-128.9744,73.5896,14.6155,-146.4104,-115.1282,-222.3079,-21.2822,38.2048,-14.6155,21.7947,41.282,54.1023,50.3845,
-82.5642,-132.3076,68.7178,16.4102,-146.6667,-115.8975,-214.8718,-16.4102,26.6665,-20.5127,19.4873,40.5127,50.769,53.3335,
-82.3076,-128.9744,66.9231,15.1282,-141.282,-108.9744,-204.8718,-15.1282,22.3079,-16.6667,21.7947,45.8972,48.9744,48.4617,
-84.1028,-126.6667,71.282,16.9231,-140,-105.6411,-209.7437,-16.9231,23.5896,-17.4358,24.1023,45.6409,52.3074,50.2561,
-89.7437,-130.2563,72.8203,16.4102,-141.5386,-112.8206,-212.8206,-16.4102,24.1025,-23.5898,25.6411,37.9487,55.8975,48.7178,
-88.718,-129.7437,69.7434,15.3845,-135.8975,-113.8462,-204.6155,-15.3845,32.8206,-17.949,29.2307,35.3845,57.9485,39.4871,
-85.3848,-130,68.4614,13.5898,-134.1025,-113.0769,-206.4104,-18.7178,32.0513,-13.5898,20.2563,38.2051,51.0254,32.564,
-81.282,-128.4614,75.1282,12.5642,-130,-105.8975,-206.9231,-15.1282,26.4104,-12.5642,17.1794,50.0002,51.0256,44.8718,
-86.9231,-128.4614,71.5383,15.6409,-128.9744,-104.8718,-205.8975,-18.2048,28.4617,-15.6409,30.0002,48.4617,55.1282,53.5896,
-91.0256,-132.0513,62.8206,16.6667,-128.4614,-113.0769,-204.8718,-21.282,37.1794,-16.6667,32.5642,41.282,55.6409,51.0256,
-88.9746,-132.5642,62.3074,11.0256,-123.3335,-114.1028,-203.3335,-18.2053,33.0769,-11.0256,22.3074,40.7693,51.5383,46.9231,
-90.2566,-130.7693,65.6411,12.3076,-121.5386,-114.3591,-203.5898,-21.5386,29.7437,-12.3076,28.2051,36.9229,50.2563,43.0767,
-89.4871,-128.9741,70.5132,18.2051,-118.7178,-116.6665,-197.6921,-19.7434,43.8462,-18.2051,41.2822,38.7183,55.6411,43.8462,
-92.5642,-128.4617,65.3843,17.6924,-123.3335,-118.2053,-199.231,-18.718,41.7949,-17.6924,32.564,46.9229,51.5386,44.3589,
-93.8462,-130.2563,61.0259,12.8203,-128.2051,-117.9487,-204.1025,-20.5129,33.8462,-12.8203,30.2563,45.6411,48.7178,47.6924,
-86.9233,-128.4617,69.4868,14.1025,-116.6667,-115.1284,-201.7952,-14.6157,37.6919,-14.1025,42.3076,40.769,57.6919,56.1538,
-86.9231,-124.3589,68.9746,16.1538,-111.5383,-115.6409,-205.3845,-16.1538,32.564,-22.3076,34.1025,36.1538,54.6152,50.5127,
-86.9233,-120.7693,67.4358,15.1282,-111.0259,-110.0002,-199.7437,-18.2053,32.5637,-15.1282,31.0256,43.3333,52.5637,46.9231,
-90.2563,-125.1282,65.6414,11.282,-111.282,-108.7178,-191.7947,-15.3845,34.3591,-11.282,33.3333,46.6667,53.3333,49.2307,
-90.5129,-123.3335,67.9487,11.5386,-106.4104,-107.436,-188.9744,-11.5386,34.1025,-13.0771,34.1025,49.4873,56.1538,48.4614,
-91.0256,-123.3335,67.9485,9.4871,-110,-112.0513,-191.5386,-17.6921,33.0769,-9.4871,36.1536,49.9998,54.6155,37.6921,
-93.8462,-127.1794,61.0259,11.7949,-112.8206,-120.5129,-188.718,-18.4614,35.3848,-11.7949,36.4102,45.6411,51.7949,36.4102,
-96.9233,-127.6924,60.5125,12.8206,-108.2053,-118.4617,-181.0259,-12.8206,42.051,-19.4873,40.5125,41.0256,57.9485,46.1536,
-101.0255,-124.1024,63.077,13.8461,-115.3846,-116.923,-180.5128,-13.8461,44.1024,-19.9999,44.1024,40.5131,59.9999,45.641,
-105.1282,-118.4617,57.9487,15.3848,-126.1538,-123.5898,-182.5642,-15.3848,39.4873,-18.4617,41.0254,43.5898,47.6924,38.4614,
-105.1284,-115.8977,54.8716,13.8462,-120.0002,-123.5898,-182.0515,-13.8462,38.9741,-17.436,39.4868,42.564,44.1025,42.0513,
-102.8208,-115.6414,59.7434,13.0769,-112.5642,-120.2566,-181.2822,-13.0769,42.3074,-18.2053,40.2561,38.2048,51.5383,43.3333,
-100.2563,-110.5129,64.3591,11.0256,-110.5129,-117.1794,-176.6667,-11.0256,46.4104,-15.1282,46.9231,43.3333,55.1282,43.8459,
-96.6665,-102.8203,61.282,11.0256,-106.9231,-113.0769,-173.0769,-11.0256,48.9744,-11.0256,50.0002,54.1028,52.5642,48.4617,
-98.205,-106.923,57.6925,11.0255,-101.7948,-114.1024,-177.6923,-13.0768,46.4103,-11.0255,44.359,54.6154,53.0773,50.0001,
-97.9485,-111.282,62.0515,9.2307,-96.9229,-112.8203,-181.0254,-9.7434,45.1282,-9.2307,43.5901,50.7693,58.9744,49.7439,
-94.3591,-104.1028,61.5383,10.7693,-97.436,-109.231,-184.1028,-10.7693,42.051,-13.3333,42.5637,45.6409,53.3333,43.5896,
-92.0514,-98.7181,57.1793,12.0514,-96.1539,-105.3846,-179.7438,-12.0514,43.8458,-14.6156,42.3077,47.9484,49.4869,44.359,
-107.0514,-104.1023,53.3335,10.2563,-108.7178,-111.282,-177.9485,-12.8203,49.231,-10.2563,45.1284,51.7949,52.3076,49.7437,
-117.436,-106.6667,51.282,10.7693,-116.4104,-115.3848,-179.4873,-17.9487,49.7434,-10.7693,47.1794,51.7947,51.7947,48.718,
-102.436,-98.7179,55.641,11.0258,-101.4104,-106.4103,-166.9232,-13.077,46.9232,-11.0258,52.5638,55.641,55.641,50.5126,
-95.3846,-98.9742,53.3331,8.7179,-86.4104,-109.7435,-160.5128,-8.7179,37.4362,-14.359,49.2306,54.359,53.8463,48.2052,
-98.4613,-102.5638,52.8207,11.7948,-71.4104,-113.3331,-161.5382,-11.7948,41.0258,-12.8204,47.1796,58.9745,54.8719,47.1796,
-97.1796,-101.2821,54.6154,12.0514,-71.0258,-107.9489,-159.7435,-13.077,48.4615,-12.0514,48.9742,63.3331,58.7179,48.9742,
-96.923,-101.0255,54.8719,9.7435,-67.6923,-107.6923,-156.4103,-9.7435,47.1796,-13.3334,49.2308,56.9232,63.5897,50.7694,
-98.205,-107.4359,57.6923,7.9486,-62.8204,-111.0255,-153.5897,-12.5641,53.077,-7.9486,50.5131,57.1796,67.9486,52.5643,
-104.8718,-110.5127,56.1538,7.9487,-66.4102,-111.5383,-154.6152,-21.282,54.1025,-7.9487,51.0259,57.6924,62.3076,51.5386,
-104.6156,-106.1539,53.8461,7.1796,-63.59,-105.6412,-149.7438,-18.9745,42.0511,-7.1796,47.1796,56.9227,58.4613,53.8461,
-101.0256,-105.6409,51.7949,4.1025,-61.5383,-108.718,-147.6924,-13.3333,38.9746,-4.1025,38.4614,61.5386,54.3589,50.2563,
-100,-100.5127,54.3591,8.718,-67.6921,-111.282,-149.2307,-12.8206,46.1541,-8.718,35.3845,63.5896,51.282,46.6667,
-91.5383,-92.0513,61.7952,11.5383,-61.7947,-96.6665,-142.8203,-11.5383,45.3845,-12.0513,40.7693,57.6926,55.1282,52.0515,
-92.3077,-96.4103,56.923,10.7692,-58.9742,-96.923,-142.0511,-15.3846,35.3849,-10.7692,37.4362,53.3331,52.8204,52.3077,
-104.8716,-103.3333,52.0515,13.0769,-70,-108.9744,-143.3333,-18.7178,37.6926,-13.0769,38.2053,58.718,53.0769,53.5896,
-106.1538,-100,56.4102,14.3589,-66.6665,-105.1282,-135.8975,-14.8718,52.6926,-14.3589,51.2822,57.9487,63.0771,55.8975,
-105.3846,-102.3077,46.923,10.0001,-67.9489,-107.4359,-139.2308,-20.7694,53.0768,-10.0001,48.4615,48.4615,58.2052,46.923,
-107.9487,-108.4614,38.2051,3.8462,-78.7178,-113.5896,-143.8459,-24.3589,53.0771,-3.8462,42.8208,55.6411,52.0513,51.0259,
-107.9487,-104.3589,42.8208,7.9487,-76.1538,-110,-140.7693,-18.718,57.1797,-7.9487,44.3589,61.7949,55.6411,57.1797,
-106.6665,-101.5383,46.1541,11.282,-72.3076,-106.1538,-139.9998,-17.4358,51.282,-11.282,42.0515,56.4104,52.8206,46.6667,
-100.769,-102.3076,48.4617,7.4358,-74.6152,-105.8975,-136.6665,-18.2051,44.3591,-7.4358,39.7439,57.1794,49.4871,44.3591,
-91.5386,-97.6924,53.0769,8.9744,-64.3589,-106.9231,-130,-16.6667,40.7693,-8.9744,35.6409,57.1794,49.9998,51.0256,
-88.2051,-92.3076,55.8977,11.282,-49.3589,-101.5383,-124.1025,-14.3589,40.0002,-11.282,36.9231,54.3591,52.8206,51.282,
-93.3334,-93.3334,50.2562,13.3334,-53.3334,-92.3077,-125.6412,-13.8463,37.9486,-13.3334,39.4872,56.41,54.3588,51.7948,
-93.5896,-94.1025,41.282,13.0769,-63.3333,-88.9744,-126.9231,-13.0769,37.6926,-13.0769,38.2053,59.7439,50.5129,54.6155,
-92.3076,-93.8462,40.5127,9.7437,-62.5642,-93.3333,-123.5898,-11.282,39.4873,-9.7437,39.4873,60.5127,46.1538,55.3848,
-96.6666,-92.5641,43.8463,10.5128,-60.2565,-95.641,-121.7948,-13.0768,40.7692,-10.5128,42.3077,58.2052,45.8976,48.4615,
-94.8721,-90.2566,46.1538,11.7949,-53.8464,-91.2822,-118.9746,-15.8977,46.1538,-11.7949,46.1538,60,49.7437,44.1025,
-88.2053,-88.2053,47.1792,13.8462,-49.7437,-88.718,-111.7949,-13.8462,46.1538,-13.8462,44.6152,62.0513,47.1792,51.2817,
-87.9487,-87.9487,48.4617,11.0256,-53.0769,-90.5127,-107.4358,-11.0256,36.1541,-21.282,36.1541,57.1794,42.3079,53.5896,
-86.6667,-84.1028,49.2307,6.6667,-50.7693,-86.6667,-106.6667,-6.6667,36.4099,-18.9744,37.9485,59.9998,45.6409,54.3586,
-86.6667,-82.0515,43.5896,8.718,-49.7437,-86.1541,-109.231,-8.718,41.0256,-14.3591,41.0256,59.9998,44.1023,56.4099,
-85.8976,-83.8463,43.3334,11.0258,-48.9745,-86.4103,-102.3077,-15.641,45.8973,-11.0258,44.3588,55.641,46.9232,54.6151,
-84.6155,-83.5898,46.1538,9.7437,-45.1284,-87.6924,-95.3848,-18.9746,49.7437,-9.7437,49.7437,55.3843,53.8462,48.7178,
-85.6411,-82.5642,41.5381,9.7437,-43.0771,-93.3335,-98.9746,-16.4104,50.2563,-9.7437,49.7437,61.5381,50.769,46.6665,
-85.8975,-86.9231,35.6409,9.4871,-46.9231,-99.2307,-100.2563,-18.2051,49.4871,-9.4871,46.4104,64.3591,47.4358,46.9231,
-91.5383,-90.5127,33.0769,13.5896,-55.6411,-96.6667,-100.2563,-23.8462,46.9231,-13.5896,43.8459,59.2307,46.9231,43.8459,
-98.9742,-88.205,34.3593,13.8461,-59.4872,-90.7692,-99.4872,-18.9742,48.2054,-13.8461,46.1537,63.5897,43.077,48.7181,
-95.641,-81.2819,36.6666,10.5128,-53.0768,-90.5128,-95.1281,-11.5385,52.5641,-10.5128,52.0514,66.923,46.4103,57.1798,
-91.5383,-79.7434,32.5642,15.1282,-47.9487,-91.5383,-94.1025,-17.6921,53.5896,-15.1282,53.0769,59.2307,53.0769,53.5896,
-93.3333,-84.1025,31.2822,13.8462,-45.6409,-85.1282,-90.2563,-20,50.2563,-13.8462,49.231,59.4873,50.7695,50.7695,
-91.5385,-81.2821,34.6156,11.5385,-43.3334,-79.7435,-84.8717,-14.6154,46.9232,-11.5385,44.3588,59.7435,45.3846,48.9745,
-90.5128,-76.6669,32.5641,14.1027,-44.359,-81.2821,-85.3846,-14.1027,45.8976,-21.795,42.8204,57.692,47.4357,45.8976,
-95.8973,-78.9742,31.2823,14.8717,-44.6154,-81.5385,-87.6923,-14.8717,45.1281,-23.5897,44.1027,60.0001,46.1539,46.1539,
-98.9745,-81.5387,32.8202,15.3846,-46.1539,-83.59,-87.1796,-15.3846,42.0511,-18.4618,42.0511,54.8715,33.3334,45.641,
-95.3846,-77.4359,34.3593,15.8973,-44.1024,-85.1281,-83.5897,-15.8973,45.1283,-23.5897,46.1537,49.7435,35.3846,47.6923,
-94.8717,-75.3846,31.2823,16.923,-47.1793,-87.1793,-86.6666,-16.923,45.6412,-26.1537,45.6412,58.4615,42.5641,46.6666,
-92.8206,-76.9231,29.7437,15.8975,-46.6667,-87.1797,-83.5898,-15.8975,42.0513,-17.949,42.0513,66.6665,38.9741,47.6924,
-91.0254,-72.564,29.4875,15.1282,-38.2051,-82.3076,-68.9741,-15.1282,47.4358,-16.6665,47.949,58.718,38.2053,52.5642,
-95.641,-69.4869,25.8973,17.6923,-36.6666,-85.3844,-62.8204,-17.6923,48.4618,-21.7948,47.9486,53.5897,39.7435,47.4359,
-93.0768,-71.0255,26.4105,14.1024,-33.5897,-84.359,-66.4103,-14.1024,43.3334,-17.1796,41.7948,61.2821,39.2308,43.8461,
-86.6667,-69.2307,28.2053,12.8206,-32.8206,-76.9231,-69.7437,-12.8206,42.5642,-16.9231,44.1028,62.051,37.4358,46.6667,
-86.1537,-64.1024,31.2821,15.8973,-32.8204,-73.8461,-66.1537,-15.8973,48.7181,-21.0255,42.0511,54.3593,37.9486,50.7694,
-89.2306,-66.1537,29.7435,13.3334,-31.7948,-77.4359,-63.0768,-13.3334,47.6923,-21.0255,36.9232,51.7948,36.9232,48.7181,
-93.5897,-70.5128,23.3334,12.0511,-32.0511,-77.6923,-63.8461,-12.0511,41.2821,-21.7948,41.2821,49.9999,33.077,43.8461,
-91.0256,-68.4614,25.8975,14.1025,-29.4871,-72.564,-57.1794,-14.1025,46.4102,-18.718,44.3589,47.9487,34.6152,46.9233,
-87.436,-64.8718,31.5386,15.6411,-30,-74.1028,-53.5898,-17.6924,47.9487,-15.6411,37.6924,50.5127,33.5898,46.9229,
-89.4871,-66.4102,27.436,16.1538,-32.564,-78.718,-58.2051,-18.718,42.8203,-16.1538,36.1538,52.0513,30.5127,42.3076,
-87.9486,-69.4872,22.8204,14.6154,-31.0255,-77.1796,-57.6923,-14.6154,46.4103,-14.6154,38.7179,52.5641,34.1027,45.3844,
-84.3589,-66.4102,24.3591,15.1282,-34.1025,-79.2307,-53.5898,-15.1282,41.7947,-20.2563,32.5642,49.4871,32.5642,46.4104,
-78.7179,-60.7692,28.9745,17.1796,-31.0255,-74.1024,-47.9486,-17.1796,35.641,-27.4359,32.5643,48.9745,31.0258,43.8461,
-75.1282,-61.7949,30,18.2051,-20.2563,-71.5383,-48.4614,-18.2051,40.2563,-27.4358,34.1025,45.8975,31.5386,42.8203,
-78.2051,-63.3335,28.9741,15.6411,-19.7437,-86.5383,-51.0256,-15.6411,41.7949,-25.3848,27.9487,42.3076,27.436,40.2563,
-77.6921,-56.1538,32.5642,11.0256,-22.8203,-101.5383,-43.8462,-11.0256,35.1282,-21.7947,27.4358,52.0515,24.8718,41.282,
-77.9486,-50.2565,31.2821,13.8461,-21.5385,-111.7948,-38.4615,-13.8461,34.8719,-21.5385,27.6923,54.8719,25.641,43.077,
-77.1796,-55.6412,26.923,14.1027,-17.6925,-100.7694,-38.7181,-14.1027,42.8204,-22.8207,31.0255,44.359,28.9742,42.8204,
-73.3334,-56.923,27.6925,10.2565,-11.7948,-85.7694,-36.4103,-10.2565,41.5387,-23.5897,36.4103,41.0255,27.6925,39.4869,
-75.6409,-53.5896,24.3589,10,-12.564,-70.7694,-39.2307,-10,33.0771,-24.8716,32.0513,45.3848,22.3076,36.667,
-79.4872,-52.8204,24.6154,12.8204,-16.923,-55.7694,-37.4359,-12.8204,35.8976,-22.5641,29.2306,47.6925,26.1539,41.5387,
-76.6666,-53.5897,28.4615,14.6154,-14.6154,-44.8717,-26.923,-16.6666,39.2306,-26.923,28.4615,40.7692,26.923,41.2819,
-75.3845,-57.4358,30.2563,8.2051,-8.2051,-48.2051,-25.6409,-20,31.2822,-34.3589,24.1025,36.4102,20,34.3589,
-72.3075,-55.8973,31.795,8.7179,-8.7179,-45.1281,-26.1537,-13.8461,32.8204,-29.2306,25.1285,40.5128,20.5128,35.8976,
-73.0768,-53.0768,28.9742,10.5128,-10.5128,-49.4872,-26.923,-12.0511,32.0514,-25.8973,21.795,38.7179,18.7179,33.59,
-73.5896,-55.1282,28.4617,3.3333,-3.3333,-49.9998,-32.564,-16.6665,27.949,-31.5383,16.1541,34.6155,15.1282,30.0002,
-69.9998,-54.1025,30.5129,3.3333,-3.3333,-47.9485,-32.564,-20.769,26.9231,-38.2051,15.1282,32.0515,15.1282,30.5129,
-65.1282,-53.3333,30.769,0.5127,-0.5127,-45.6411,-22.5642,-27.1794,22.0513,-40,12.8203,31.7949,11.2822,24.1025,
-64.8718,-54.6152,30,-7.9487,8.9746,-40.2563,-18.7178,-25.8975,17.1797,-38.2051,9.4873,34.6152,7.9487,19.231,
-69.7437,-53.3333,26.1541,-3.5896,3.5896,-42.0513,-28.718,-20,19.4871,-37.4358,10.2566,30.7693,10.7693,26.1541,
-67.9487,-48.4614,30.5129,3.3333,-3.3333,-43.8459,-23.3333,-15.6409,33.5896,-26.4102,21.7952,33.0769,20.7693,31.5383,
-70,-49.4873,32.5642,0.25659,-0.25659,-48.9744,-14.6155,-21.7949,31.0256,-25.3845,20.7693,34.6155,17.6921,18.2053,
-73.0769,-54.6152,23.8462,-5.3848,5.3848,-53.5896,-19.2305,-28.9744,16.1538,-37.1794,7.9487,27.436,6.4102,12.0513,
-74.1025,-54.1025,18.2053,-5.3845,5.8977,-52.0513,-20.7693,-24.8718,17.1794,-38.2051,5.3845,24.3591,5.8977,20.7693,
-78.9744,-49.7437,23.0769,-0.51294,0.51294,-51.282,-18.4617,-14.8718,25.1282,-27.1794,10.7693,29.7434,10.7693,25.6409,
-76.1538,-42.8203,30.5129,-1.282,1.282,-45.3845,-14.1025,-8.4612,25.8977,-18.2051,18.718,35.1282,16.1541,29.4871,
-71.0256,-39.2307,24.8718,-3.8459,3.8459,-42.3076,-14.1025,-8.4617,24.3591,-17.6924,17.1794,32.0515,15.6409,22.3079,
-71.7947,-41.5383,18.9746,-4.1025,4.1025,-45.1282,-17.4358,-11.7949,21.0259,-25.6409,8.2051,29.231,11.2822,16.9233,
-68.718,-42.0513,25.1282,-7.6921,7.6921,-46.1538,-20.5129,-18.4617,19.9998,-31.7949,7.6921,29.7434,10.2566,23.0769,
-66.6667,-39.4873,27.6924,-7.6924,9.2305,-47.6924,-23.0771,-26.6667,17.4355,-35.3848,9.2305,24.6152,7.6924,15.3843,
-69.2307,-36.4102,26.1541,-7.1794,10.2566,-43.5896,-21.5383,-20.5127,17.4358,-36.4102,12.3079,24.6155,7.1794,13.8464,
-71.5383,-34.6152,26.9231,-8.4617,9.4871,-43.8462,-21.282,-15.1282,16.1541,-38.718,13.5896,25.8977,8.4617,26.9231,
-69.4873,-34.1025,31.5386,-10,10.5127,-49.4873,-18.2053,-20.2566,14.1025,-36.1541,12.0513,26.9229,10,20.769,
-68.9741,-35.6409,34.1028,-11.0256,11.5388,-44.3589,-8.9744,-20.769,15.6414,-34.6152,10.0002,30.0002,8.9744,10.0002,
-65.6411,-31.2822,34.8718,-5.1282,10.2561,-36.9231,-7.1794,-15.3845,16.4099,-38.9746,8.2048,28.2048,5.1282,19.4871,
-55.6409,-24.3589,37.1797,-6.4102,18.7178,-35.1282,-7.436,-16.1538,19.231,-35.1282,6.9233,24.3589,6.4102,22.8208,
-59.2307,-27.436,34.1025,-13.0771,21.2822,-36.6667,-5.8975,-25.3848,20.2563,-29.4873,5.8975,22.8203,7.9487,8.9741,
-72.8206,-33.8462,30.7693,-14.3591,11.282,-44.6155,-6.6667,-27.6924,22.051,-34.3591,7.6921,23.5896,6.6667,8.718,
-73.0769,-37.1797,32.0513,-17.6924,7.436,-52.0513,-7.436,-24.8718,20.769,-40.7693,10,21.7949,7.436,13.0767,
-62.0513,-35.8972,31.7952,-15.8972,10.7693,-46.6665,-7.1794,-29.2307,13.3333,-41.0256,7.6926,19.4871,7.1794,10.2566,
-57.9485,-36.4102,31.7949,-14.8716,13.8462,-42.564,-6.1538,-30.2563,16.9233,-37.4358,6.1538,20.5132,6.1538,7.6924,
-63.8459,-33.0767,36.6667,-16.1536,13.5901,-47.4358,-6.9231,-23.8459,23.3337,-35.1279,8.9744,22.8206,6.9231,7.949,
-67.9487,-30,39.2307,-15.1282,7.949,-46.9231,-7.4358,-22.8206,19.2307,-34.6152,10.5129,24.3591,7.4358,8.9744,
-65.8977,-33.5898,33.5894,-24.3591,8.9741,-44.8721,-2.3076,-30.0002,8.9741,-42.3079,3.333,19.7437,2.3076,4.8716,
-60.2563,-32.0513,28.9744,-23.3333,21.7947,-44.3589,3.8459,-27.9487,5.3845,-42.3076,-0.76929,16.1541,0.76929,3.3333,
-62.3079,-34.1028,25.8972,-20.7693,20.7693,-47.949,-1.282,-27.949,3.8459,-38.2053,1.7947,14.1023,1.282,6.9231,
-63.5898,-33.3333,30.2566,-22.5642,16.4104,-47.1794,-2.0515,-26.6667,7.1794,-37.9487,6.1541,14.8718,2.0515,8.718,
-63.0767,-26.1538,35.3845,-22.051,23.0769,-34.8716,2.0515,-25.6409,6.1541,-44.1025,1.0256,8.2053,-1.0256,3.0769,
-63.8462,-25.8975,35.6409,-21.282,33.0769,-28.9744,4.8718,-28.4617,6.9231,-48.9744,0.76929,2.3079,-0.76929,3.3333,
-69.4871,-32.0513,30.5129,-20.2561,28.4617,-41.7947,1.282,-34.6152,4.3591,-53.0769,2.3079,1.282,-1.282,2.3079,
-65.8975,-28.4614,31.5383,-22.3076,26.4104,-38.7178,1.7952,-32.564,1.282,-50.5127,2.8206,7.949,2.8206,-1.282,
-62.3076,-27.9487,28.9746,-27.9487,27.9487,-30,0.76953,-31.5383,5.3848,-43.8459,-0.25635,13.5898,0.25635,1.7949,
-61.0256,-23.5898,27.1794,-18.9744,30.7693,-29.231,5.1282,-23.5898,16.9231,-30.7693,3.0769,20.5129,-3.0769,16.7949,
-68.9744,-24.8718,20.7693,-23.8462,29.4871,-32.0513,4.8718,-21.7947,15.1282,-27.9487,2.3079,19.7434,-2.3079,16.6667,
-73.3333,-29.7437,18.9744,-28.718,27.6921,-27.1794,2.0515,-28.2051,13.8459,-31.7949,1.5383,18.4617,-1.5383,3.5896,
-68.2053,-29.231,24.6155,-24.6155,25.1282,-25.1284,4.6155,-29.7437,17.9485,-31.2822,2.5642,23.5896,-2.5642,6.6667,
-67.1797,-30.7693,29.7437,-26.1541,22.0513,-29.231,4.1025,-29.231,16.4102,-28.718,1.5386,21.0254,-1.5386,15.3843,
-67.949,-31.0259,35.1282,-25.3848,26.9231,-31.5386,4.3586,-27.436,15.6409,-32.5642,2.8206,15.1282,-2.8206,7.9485,
-62.051,-27.1792,38.4617,-21.0254,39.4875,-26.6665,13.3337,-23.0767,23.0769,-36.9229,8.2053,17.949,-3.0769,3.0769,
-61.5386,-25.1282,39.4873,-20,39.4873,-22.5642,12.3076,-28.718,20.5127,-35.3845,6.1538,16.4102,-6.1538,6.1538,
-63.8462,-20.7693,42.3076,-14.6152,38.2051,-18.2051,9.4873,-24.8718,20.769,-23.8462,5.8975,11.5386,-5.8975,11.5386,
-65.3848,-19.7437,34.6152,-18.718,36.1538,-19.231,12.0513,-16.1538,22.3076,-23.3335,5.8975,7.9487,-5.8975,8.9741,
-62.0515,-19.4873,27.1792,-21.5386,36.9229,-21.0259,19.4868,-18.4614,18.4614,-27.6924,5.6411,14.3589,-5.6411,6.1538,
-58.718,-23.3335,30,-22.3079,45.3848,-16.1538,22.8203,-24.8718,14.6152,-27.9487,4.3589,18.7178,-4.3589,4.8716,
-56.9229,-17.9485,34.8718,-21.5383,54.8718,-1.1538,17.949,-19.9998,14.8718,-25.1282,1.0256,15.8977,-5.1282,3.5901,
-56.9231,-13.8464,32.3079,-23.0769,52.8206,5.1282,13.3333,-14.8718,10.7693,-28.2053,-3.0769,15.3845,-10.2566,3.0769,
-56.4102,-16.4102,35.3848,-20,51.7949,-3.5898,21.0259,-13.8462,5.1284,-36.9231,3.5898,18.9741,-8.7178,10.769,
-60.5129,-18.4617,36.9229,-14.3589,54.3589,-8.7178,23.5898,-17.436,6.6665,-43.5898,5.6411,12.8203,-5.6411,7.6924,
-65.3848,-18.718,34.1023,-22.8206,53.0769,0.76929,20.2561,-23.3333,14.1023,-34.1028,1.282,12.5637,-7.4363,-0.76929,
-66.6665,-21.0256,29.2307,-27.1794,48.2053,5.1282,17.949,-22.051,12.3079,-30.2563,-1.0256,17.949,-13.3333,1.0256,
-65.3848,-23.8462,27.9487,-19.7437,53.0767,0.25635,22.3076,-15.6411,6.4102,-37.6924,-0.25635,12.0513,-14.1025,4.3589,
-61.282,-23.8462,26.9233,-18.7178,64.3589,-0.25635,28.4614,-14.6152,8.9746,-32.564,0.25635,10,-8.9741,3.3335,
-59.7437,-18.7178,23.3335,-19.231,65.8975,1.2822,29.4873,-16.6665,8.4614,-23.3335,-1.2822,16.1538,-10.5127,1.7949,
-57.9487,-17.9487,24.1025,-15.8975,62.564,0,28.2051,-15.8975,8.7178,-28.718,0,17.9487,-12.8208,2.564,
-53.8462,-17.436,28.2051,-10.2563,64.6152,-6.1538,28.2051,-12.3076,14.8716,-30.7693,6.1538,21.0254,-8.2051,7.1797,
-54.8716,-15.3845,30.7693,-11.282,68.718,-6.6667,28.2053,-9.2307,12.3079,-24.6152,6.6667,26.1541,-7.1794,8.718,
-58.7178,-17.1794,32.0515,-19.7434,69.4871,-2.8206,27.4358,-12.5642,4.3591,-32.0513,2.8206,18.2053,-12.051,4.8718,
-55.3848,-17.436,31.7949,-11.7949,69.7437,-6.1538,28.2051,-15.8975,7.6924,-44.6155,6.6665,8.2051,-8.2051,6.1538,
-55.3845,-20,24.6155,-11.282,70.2566,-5.6409,31.282,-19.4873,9.2307,-46.1538,7.1794,6.1541,-7.1794,5.6409,
-54.3591,-22.5642,26.1536,-17.949,78.9744,-2.5642,39.4871,-18.9744,8.2048,-36.9231,3.5896,5.6409,-10.7693,2.5642,
-45.6409,-16.9231,36.9233,-7.6924,91.2822,-11.2817,45.6411,-13.333,11.2822,-28.2051,7.6924,13.8462,-5.6411,5.6411,
-44.1025,-12.8203,35.8975,-8.2051,88.2051,-15.3848,45.1284,-12.3076,6.6665,-31.7949,5.1284,18.4614,-5.1284,5.6411,
-46.1541,-2.0513,34.3589,-12.3076,80,-0.38477,42.564,-10.2563,2.0513,-33.8462,-2.564,10.769,-12.3076,2.0513,
-40.5129,7.1794,33.3333,-8.718,75.8972,14.6152,36.9231,-9.2307,2.5642,-34.3591,-3.5896,0.51294,-16.9231,-0.51294,
-34.6155,9.4871,30.5129,-8.9744,76.1541,15.6409,33.0769,-9.4871,1.7947,-40.7693,-1.7947,3.3333,-16.6667,-1.7947,
-32.0513,15.1284,34.1025,-7.9487,77.1797,17.6924,36.1538,-7.436,1.7949,-41.7949,-2.3076,6.4102,-19.7437,-1.7949,
-37.9487,12.3076,34.3589,-9.7437,68.7178,16.9229,38.4614,-9.231,3.5898,-33.8462,-2.564,2.564,-22.0513,-2.564,
-52.3079,3.5896,24.6155,-12.3079,58.4617,8.2048,33.3333,-10.2566,1.5383,-34.3591,-2.0515,6.1536,-20.5129,-1.5383,
-46.9233,8.4612,28.9744,-11.5388,67.9485,8.4612,37.6921,-3.8464,-0.76929,-40.7693,-2.8206,9.4871,-17.6926,0.76929,
-34.3591,11.7949,41.5381,-13.8462,82.0513,7.6919,47.6919,-2.0513,3.0767,-42.5642,-2.5645,2.0513,-14.8721,-2.5645,
-37.9487,9.2307,41.0256,-8.2053,79.4871,2.5642,45.6409,-2.0515,8.718,-41.5386,0.51294,-0.51294,-11.7952,-4.1028,
-41.7949,8.9744,32.5642,-6.9231,76.6667,1.282,39.7434,-1.282,6.9231,-37.6924,-1.282,5.8977,-13.5896,-2.8206,
-32.3079,12.8206,36.4104,-8.2053,84.1023,6.6667,46.6667,-0.51294,0.51294,-29.231,-5.1282,12.3074,-18.9744,-3.0769,
-32.8206,12.3079,42.0515,-8.718,88.718,6.6667,45.6409,0.51294,-1.5383,-27.1794,-4.1023,11.7952,-18.4617,-0.51294,
-42.3076,7.9487,36.6665,-12.564,86.4102,1.7949,32.0513,-3.8462,0.25635,-28.4617,-3.3335,7.436,-13.5898,-0.25635,
-40.7693,14.1023,35.1282,-5.3845,85.8972,-0.25659,32.5642,-2.8206,4.3591,-23.3335,-6.9231,5.8972,-16.6667,0.25659,
-44.1025,9.2307,32.8206,-6.1541,80.5129,-6.6667,32.3079,-1.5383,5.1282,-24.1025,-11.7947,8.2053,-26.6667,1.5383,
-44.8718,2.8206,28.9744,-8.4617,80.2561,-7.4358,26.9231,-4.8718,4.3591,-30.5129,-2.8206,7.9485,-27.9487,3.3333,
-42.5642,5.6411,25.1284,-6.6665,85.6411,-5.6411,24.6152,-11.2822,5.1284,-38.9744,2.0513,2.0513,-23.0769,-2.0513,
-41.282,8.4617,27.4363,-3.8459,91.0256,-6.4099,28.9744,-2.3074,11.0256,-37.1794,1.282,10.0002,-19.2307,-1.282,
-41.5386,0.51294,27.1794,-7.1794,85.6409,-10.2566,23.5896,2.5642,5.1282,-38.9744,-6.1541,10.2566,-29.2307,-0.51294,
-32.3076,-0.51269,27.6924,-11.7949,86.667,-8.2051,23.0771,0.5127,4.6157,-37.9485,-5.1279,6.667,-29.2307,1.0259,
-22.8206,8.4614,29.4873,-7.9487,98.2051,-12.564,26.4102,2.3076,9.4873,-37.1794,-3.8462,2.8203,-22.8206,-2.3076,
-7.8206,17.949,36.9231,0.51294,113.2051,-19.4871,31.7952,2.0515,6.6667,-40,-4.1023,-0.51294,-20.5127,-5.1282,
7.1794,26.6667,44.6155,-1.5383,127.6921,-13.3335,33.3333,1.0256,0.51294,-42.0513,-2.0515,-0.51294,-24.6155,-1.0256,
22.1794,39.7437,43.3335,-2.8203,123.8462,1.6665,25.3848,6.9229,-2.3076,-46.9231,-5.3848,-2.3076,-31.5383,-1.7949,
37.1794,47.6924,40.5127,-5.1284,115.3848,7.1797,14.3589,5.1284,-7.6924,-59.4871,-13.8462,-10.2563,-41.5386,-11.7949,
52.1794,62.3079,49.4871,-5.3845,126.9231,5.3845,16.6667,7.4358,-13.0769,-60.2563,-15.6409,-14.6155,-44.8718,-16.1541,
67.1794,77.3079,53.0769,1.282,141.282,-1.282,23.3333,17.6921,-14.6155,-45.8975,-18.2053,-7.949,-44.8718,-17.1794,
82.1794,79.4873,49.2305,0,131.2817,0,20,22.0513,-14.3589,-46.6667,-21.5386,-6.667,-50.7693,-14.3589,
97.1794,74.1025,47.436,-6.4102,117.1797,6.4102,14.6157,16.1538,-18.2051,-61.6667,-25.3843,-20.769,-56.1538,-16.1538,
112.1794,83.5896,50.7693,-4.6155,126.6667,4.6155,25.1282,24.1023,-16.4104,-64.6155,-23.5898,-19.4871,-48.718,-21.5383,
123.8459,93.5896,47.9485,-0.76929,135.1282,0.76929,29.9998,31.5383,-12.0515,-54.6155,-23.8464,-13.0769,-46.9233,-23.8464,
114.3591,89.7434,33.8459,-3.5896,126.1536,3.5896,14.9998,22.051,-18.4617,-67.6924,-31.2822,-28.0769,-60.5129,-33.3335,
104.3594,86.9233,33.0771,-7.9487,122.3081,7.9487,10,24.3594,-19.2305,-71.5383,-27.4358,-32.564,-62.3074,-37.1792,
105.1282,91.7947,41.5383,-3.0769,114.3591,3.0769,14.3591,34.3591,-14.3591,-60.5129,-20,-17.564,-57.9487,-27.6924,
110,94.6152,35.6411,-3.8462,107.9487,5.8975,3.8462,34.6152,-16.1538,-58.718,-21.7949,-18.2051,-60.7693,-24.3589,
111.0259,99.231,29.4873,-5.8975,116.667,20.8975,5.8975,37.1797,-14.1025,-56.6665,-20.2563,-22.3076,-60.2563,-28.9741,
102.3076,99.231,27.436,-4.3589,110,35.8975,4.3589,41.7949,-15.6411,-58.718,-22.3076,-19.2307,-66.4102,-33.0769,
110.5127,103.333,35.6411,-1.7949,106.4102,46.4102,1.7949,54.6152,-12.0515,-57.1797,-16.1541,-13.0771,-64.3591,-24.3591,
110.2566,106.6667,36.9231,-1.0256,108.718,31.4102,1.0256,57.4363,-11.7947,-51.7947,-12.3076,-17.4358,-58.9741,-26.1536,
103.5896,105.6409,35.8972,0.51294,117.9485,16.4102,-0.51294,51.282,-10.2566,-46.1541,-12.3079,-13.8462,-53.8462,-25.6411,
105.6411,103.0767,41.0254,0.5127,116.9229,26.6665,-0.5127,51.7949,-9.7437,-51.2822,-16.4104,-12.8206,-55.8975,-20.5129,
103.8462,102.8208,41.2822,1.7949,101.9229,22.3076,-1.7949,58.2051,-18.2051,-58.2051,-22.8203,-20.769,-65.3845,-25.8972,
100.0001,106.6666,36.4103,4.1027,108.2052,19.4874,-4.1027,66.6666,-14.8717,-46.6666,-14.359,-15.3846,-61.5385,-22.0514,
95.3845,106.1541,31.7947,6.6667,123.2052,24.1023,-15.3848,65.1282,-6.6667,-41.5386,-8.718,-12.3076,-55.8975,-17.436,
97.4357,106.1539,40.0001,6.1539,114.359,26.6666,-18.9742,56.923,-6.1539,-47.6923,-13.8461,-17.4359,-58.4615,-22.5641,
103.3334,108.9745,45.3846,4.8719,104.8719,31.0258,-15.1283,61.7948,-4.8719,-41.795,-13.077,-6.4103,-56.1539,-18.2052,
94.3591,105.1282,31.282,5.1282,96.9231,20.5129,-28.718,62.0515,-12.8206,-43.5898,-14.3589,-5.1282,-66.1538,-20,
96.6667,107.9485,35.6409,8.9744,99.2307,13.5896,-24.8718,59.2307,-12.5642,-48.9744,-8.9744,-14.6155,-67.9487,-26.4104,
102.3076,108.4614,41.2817,5.8975,107.9487,18.7178,-19.231,60.2563,-9.4873,-55.6411,-5.8975,-19.231,-58.2053,-27.436,
90.2563,100,30.2563,4.1025,103.5898,16.9229,-34.231,61.0254,-10.7693,-60,-4.1025,-18.9744,-60,-24.1025,
78.9746,97.436,29.231,4.1025,91.7949,8.2051,-49.231,62.0513,-10.2563,-57.4358,-4.1025,-18.4614,-67.6921,-25.1282,
82.8207,104.8719,36.6669,7.9486,91.0258,17.1796,-49.4872,64.3588,-10.5128,-51.5385,-7.9486,-18.2052,-64.8717,-24.8717,
87.9486,106.41,38.205,6.4103,99.2308,32.1796,-43.8461,67.4359,-11.5385,-49.4872,-6.4103,-14.6154,-57.6923,-18.2052,
83.3335,99.7437,36.1538,3.8462,98.2051,24.3589,-55.1282,65.8975,-9.4871,-43.3333,-3.8462,-8.4614,-61.7949,-19.7437,
72.8204,91.2819,30.7692,2.5641,86.1539,9.3589,-62.0514,58.9742,-2.5641,-42.0514,-9.7435,-13.8461,-66.1539,-26.6666,
76.6666,90.5128,25.8976,0.25647,90.0001,18.2052,-51.0255,57.1793,-0.25647,-52.0514,-6.923,-20.2565,-59.7435,-20.7692,
79.4872,95.3846,25.641,4.6154,99.9999,24.1024,-51.2821,59.9999,-15.2565,-55.8973,-4.6154,-19.9999,-64.1024,-21.5385,
71.0259,98.7178,29.4873,6.4102,98.7178,20.769,-54.6155,62.3076,-19.2307,-46.4102,-6.4102,-13.0769,-68.9744,-25.8975,
67.4357,98.7179,22.8204,2.3077,91.5387,23.8463,-50.5128,53.0768,-6.4103,-50.5128,-2.3077,-10.0001,-62.8204,-18.7179,
66.1539,98.9742,12.8204,1.5385,91.2823,28.2052,-51.7948,53.3336,-10.2565,-65.5128,-1.5385,-16.923,-62.5641,-19.4872,
65.3848,102.8203,18.7178,3.8462,93.0771,28.9741,-50.5129,68.3336,-13.0769,-62.3076,-3.8462,-20.2563,-65.8975,-27.9487,
56.6669,94.6156,18.7181,5.3846,78.0771,13.9741,-51.5385,59.7435,-5.3846,-56.1537,-5.8973,-25.8973,-66.923,-33.5897,
56.6665,87.436,13.5896,5.3845,72.564,1.282,-59.7437,47.436,-1.282,-55.1282,-1.282,-22.8206,-63.3333,-24.3591,
67.9487,94.6152,19.7437,3.3333,87.564,16.282,-59.7437,53.5898,-13.5898,-58.718,-3.3333,-20.2563,-61.7949,-21.282,
76.9233,102.0513,31.7949,6.1538,102.564,30.2563,-49.7437,54.8721,-20,-65.6409,-6.1538,-23.0769,-64.1025,-26.6665,
69.2308,98.9745,30.2562,5.641,96.9232,16.9232,-56.9232,52.8207,-16.9232,-63.5897,-5.641,-11.2821,-66.6666,-23.5897,
57.949,97.949,22.0515,6.1538,83.0769,10.7693,-66.6665,51.7952,-17.9487,-56.9231,-7.1794,-6.1538,-66.1538,-17.4358,
58.205,95.641,15.641,3.3334,87.4359,14.6154,-60.2565,44.8719,-10.0001,-56.6666,-3.3334,-19.7435,-66.4103,-17.6923,
57.4357,87.6925,11.2821,-1.5385,81.5387,9.2308,-58.4615,40.5128,-2.0514,-58.4615,1.5385,-26.6666,-70.2565,-27.1796,
52.8203,85.1279,15.3845,2.0513,74.3589,3.0769,-63.0769,41.0254,-7.6924,-59.4873,-2.0513,-21.5386,-67.6924,-31.7949,
59.2307,90.0002,23.8464,4.8718,85.8977,14.6155,-54.6152,44.8718,-14.1025,-61.282,-4.8718,-15.6409,-61.282,-22.8203,
65.8972,94.6155,20.2566,5.8975,99.7434,23.8459,-50,52.5642,-15.1282,-62.8206,-5.8975,-13.5898,-70.5129,-21.282,
63.8462,94.1025,14.6152,6.4102,99.7437,19.231,-57.1794,57.6924,-14.6155,-60.2563,-6.4102,-10,-73.0769,-22.8206,
62.0513,88.7178,17.9487,2.5642,96.4102,16.9231,-55.3845,48.7178,-18.9744,-69.2307,-2.5642,-16.4102,-60.5127,-19.4871,
58.9744,86.6667,17.4358,2.0513,95.8972,12.3076,-49.7437,42.5642,-23.5898,-81.5386,-2.0513,-22.5642,-61.5386,-21.5386,
48.4615,84.8717,14.6154,3.3334,87.4362,0.25647,-55.1281,45.8976,-17.6923,-66.5386,-0.25647,-13.5897,-66.923,-23.8461,
33.4615,74.3589,10.7693,3.0769,72.4362,-2.0513,-63.5898,38.9741,-9.2307,-54.3589,2.0513,-15.8975,-68.2051,-22.0513,
33.8461,68.2054,5.1283,-1.5385,74.8719,3.077,-62.0511,28.7181,-6.6666,-63.5897,1.5385,-29.2306,-69.7435,-21.0255,
45.6411,73.8462,9.7437,-3.5896,86.667,2.0513,-54.3589,29.7437,-2.0513,-63.5896,4.1025,-26.6665,-65.1282,-22.564,
46.41,80.2562,15.1281,2.8204,77.1796,-0.25647,-53.5897,34.6151,-6.9232,-55.641,0.25647,-19.2308,-62.8207,-27.4359,
49.4871,82.8206,16.1538,3.8462,74.6155,11.5386,-50,42.8206,-15.1282,-59.2307,-3.8462,-18.2051,-65.8975,-22.3076,
49.2307,82.5642,13.3333,1.0256,77.4358,16.4102,-50.7693,44.6155,-9.7437,-65.1282,-1.0256,-17.9487,-71.282,-14.3589,
47.4359,83.8461,13.5897,2.8204,78.7181,10.5128,-48.9745,39.2308,-7.9489,-65.3846,-2.8204,-19.2308,-71.0258,-19.2308,
55.1284,86.9233,21.2822,5.8975,92.0513,13.5898,-33.9745,38.2051,-15.1282,-70.5127,-5.8975,-22.8203,-65.3845,-21.7947,
53.0769,85.8977,19.2307,5.8975,94.6155,12.5642,-26.9231,36.1541,-21.7947,-75.1282,-5.8975,-22.8203,-64.8718,-19.2307,
42.0511,79.9999,9.7435,3.077,91.2821,5.641,-33.3334,29.7435,-17.9486,-63.5897,-3.077,-11.7948,-65.641,-13.8461,
34.3591,69.7434,3.0769,0.51294,90.2566,0,-35.8975,23.5896,-16.4102,-61.0256,0,-16.4102,-64.1025,-12.8206,
34.8719,67.1796,7.1796,1.5385,90.2567,-1.5385,-25.641,21.5385,-11.2819,-68.7179,7.6925,-30.7692,-54.8717,-17.4359,
36.9233,69.231,11.7949,0,92.3076,-2.564,-14.3589,17.436,0,-56.9231,12.8206,-22.0513,-49.2307,-17.9487,
33.8464,65.1282,9.231,2.0513,84.1028,-3.0769,-21.5383,12.8206,-2.0513,-42.564,8.2053,-8.7178,-62.0513,-13.3333,
32.564,60.2563,9.4873,3.8462,78.7178,-3.8462,-25.3845,19.7437,-7.4358,-50.5127,5.8975,-16.6665,-68.9744,-17.6921,
44.6154,65.6412,20.5128,3.077,93.7178,-3.077,-11.2821,21.5387,-8.2052,-56.923,4.6154,-23.5897,-60.5128,-25.1283,
50,68.9741,25.8975,3.3333,106.9229,5.8975,-3.3333,13.0771,-16.6667,-57.1794,-4.3589,-22.8206,-60.7693,-23.3333,
41.7949,62.3076,24.8716,5.3845,91.9229,8.4614,-7.4358,12.564,-17.6924,-53.0769,-5.3845,-19.7437,-63.8462,-15.1282,
38.4614,63.5898,28.7178,9.2307,84.1025,-1.0256,-10.2563,20,-11.7949,-49.2307,1.0256,-11.282,-62.564,-11.282,
42.8207,66.41,32.0511,4.8717,94.6156,0.76917,-3.8461,18.205,-19.2308,-54.1027,-0.76917,-9.4872,-67.4359,-15.1283,
44.3591,62.8206,29.4871,-2.8206,92.5642,14.6155,2.8206,7.949,-33.0769,-65.8975,-12.564,-24.4872,-76.1538,-22.8206,
44.3591,61.282,27.4358,-0.76929,88.9744,11.0256,0.76929,5.8972,-33.0769,-76.6667,-16.1538,-36.1538,-74.6155,-23.3335,
44.3589,57.6924,31.5386,1.282,95.6411,-3.9744,5.8975,11.0259,-19.2307,-70.5129,-1.282,-26.4102,-61.282,-17.1794,
37.436,48.7178,33.3335,-2.0513,87.1797,-9.7437,5.1282,4.6155,-15.3845,-58.4614,2.0513,-25.1282,-61.5383,-21.5383,
42.8203,55.1284,37.6924,-0.76929,92.564,5.2563,-1.282,3.3333,-10,-43.8462,0.76929,-17.6924,-63.3333,-13.5898,
52.8203,61.0254,36.9229,-3.0769,102.564,18.4614,-5.6411,5.1282,-5.1282,-36.9231,3.0769,-9.231,-60,-5.1282,
52.8203,58.9741,38.4614,0,101.5386,3.4614,4.6152,7.6921,-7.1794,-32.3079,0,-9.2307,-55.3848,-10.2563,
49.2307,53.8459,43.5896,1.0256,102.5642,-1.0256,19.6152,8.2053,-10.2563,-30.2563,-2.5642,-8.718,-53.3335,-12.8206,
45.3848,45.8975,34.1025,-1.7949,107.9487,1.7949,25.3848,2.3076,-15.1282,-41.282,-4.8718,-17.1794,-55.6409,-16.6667,
50.2565,46.1539,32.3077,1.5385,122.5641,-1.5385,21.5382,7.6925,-18.9745,-45.641,-4.1027,-16.923,-48.2052,-13.8461,
49.7434,47.6921,42.5642,-1.5383,125.6409,1.5383,18.9744,9.7434,-23.0771,-46.1541,-6.1541,-11.7949,-49.231,-9.7437,
42.5642,46.1536,44.6155,-0.51294,116.4104,11.7947,25.1282,0.51294,-19.4873,-50.7693,-8.2053,-16.4104,-55.3848,-14.3591,
40.0001,37.4357,36.4103,-2.0514,118.9742,10.7692,27.6925,2.0514,-17.9486,-56.923,-8.2052,-26.1539,-50.2565,-16.923,
42.564,34.3589,36.4102,2.0513,133.9742,-2.0513,26.1538,16.4102,-16.9231,-52.8206,-3.5898,-21.5386,-40.5129,-8.2051,
34.8718,30.2566,36.9231,2.5642,138.4617,-13.3333,29.2307,9.7434,-12.3076,-47.6924,-2.5642,-16.9231,-39.4871,-12.3076,
27.9486,22.8207,37.6923,-4.8717,127.9486,-5.3846,32.0511,0.25647,-0.25647,-40.2565,0.76916,-13.0768,-34.6154,-17.6923,
23.3331,15.1281,35.1281,-6.923,122.8204,-7.4359,25.8976,0.25647,0.76917,-36.1539,-0.25647,-9.9999,-36.1539,-13.5897,
23.0768,12.3077,38.9742,-2.0514,125.6412,-22.4359,26.6666,2.5641,-0.51282,-27.6923,0.51282,-10.7692,-37.4359,-8.2052,
17.6923,8.9745,39.7435,0.76916,123.8461,-37.4359,20.2562,2.3077,-4.359,-27.4359,-0.76917,-16.6666,-33.5897,-15.641,
17.9487,8.2051,41.5386,1.0256,115.3848,-22.4359,13.8462,7.6924,-6.6665,-25.6409,-1.0256,-5.6409,-30.2563,-13.8462,
21.0256,4.6155,48.2048,-4.6155,113.8459,-10.2566,24.6155,6.6667,-9.231,-21.5386,-6.1541,4.6155,-36.4104,-7.6924,
25.1284,9.231,57.436,0,128.8459,-20.5129,34.3589,7.6924,-9.7437,-21.0256,-3.5898,0,-33.3333,-4.6155,
19.4871,8.7178,54.3591,-3.0769,131.7947,-24.6155,19.3589,11.282,-8.2051,-29.7437,3.0769,-12.3079,-26.6667,-8.718,
4.4871,3.5897,42.0511,-5.1283,116.7947,-29.7435,4.3589,11.7948,-1.5385,-40.5128,3.5897,-20.0001,-29.7435,-14.8719,
-8.9742,1.2821,37.6925,3.3334,108.4615,-32.5641,-1.2821,16.1539,2.8204,-43.8461,4.359,-14.1027,-27.4359,-11.5385,
-5.3848,2.8206,41.7949,0.25635,121.7949,-17.5641,-0.25635,22.3076,2.8206,-40.2563,10.5127,-3.8462,-18.718,-1.282,
-6.4103,4.359,38.2052,0.25647,122.3077,-8.9742,-0.76917,21.7948,10.0001,-28.9742,15.1283,-3.8461,-19.7435,-0.25647,
-21.4103,-1.7949,30.5127,5.8975,107.3077,-23.9742,-6.9231,25.8975,19.2307,-13.9742,16.1538,0.25635,-26.4102,-0.25635,
-35.3848,-10.2563,24.6152,0,92.3077,-38.9742,-13.8462,35.3848,12.8206,0,10.7693,7.1794,-26.1538,0,
-38.7179,-12.5641,17.6923,-7.4359,107.3077,-23.9742,-15.1281,35.1281,4.8719,0.25647,8.4615,5.8976,-22.3077,-0.25647,
-42.8207,-17.6923,16.6666,-10.0001,115.641,-38.9742,-16.1539,31.0258,7.4359,2.3077,7.9486,6.923,-27.4359,-2.3077,
-45.6411,-22.0513,23.5898,-4.6155,114.8716,-53.9742,-16.9231,34.3589,4.6155,5.1282,3.5898,11.282,-34.8718,-3.5898,
-53.3335,-27.6924,24.1025,-2.0513,117.4358,-62.0513,-12.3079,36.9231,2.564,-8.2051,7.1794,5.1282,-29.2307,2.0513,
-57.1793,-32.5641,23.8463,1.2821,122.308,-48.4615,-5.8973,41.2821,16.6666,-18.7179,22.1794,-1.2821,-14.2307,11.0258,
-65.8975,-36.1538,20.7693,0.25635,116.6665,-55.6411,-12.5642,44.3589,19.2307,-23.3333,21.282,-0.25635,-7.436,5.8975,
-67.4359,-29.4872,20.2565,-2.8204,120.2562,-53.5897,-10.5128,50.5126,20.2565,-24.359,19.7435,12.5641,-14.6154,2.8204,
-74.6155,-30.5129,14.6155,-3.8462,116.1538,-47.4358,-12.5642,50,21.282,-32.5642,19.2307,11.0256,-19.2307,3.8462,
-86.4102,-40.2563,13.0769,-3.3333,104.3589,-58.718,-23.3333,54.6152,21.7949,-24.3589,12.0513,4.8718,-18.718,3.3333,
-92.5642,-48.4617,12.0513,-5.3845,90,-73.718,-28.4617,61.7949,15.1282,-9.3589,4.3589,10.5127,-20.2563,1.7949,
-98.9744,-53.8462,6.1538,-8.2051,79.9998,-75.8975,-31.7949,56.4104,2.564,0,0,16.9231,-28.2051,1.5383,
-105.3846,-55.641,3.8461,-9.4872,93.077,-72.5641,-35.1283,52.5643,7.4359,-2.3077,4.8717,13.5897,-26.4103,2.3077,
-111.282,-60.5127,1.0256,-8.2051,94.3591,-77.4358,-33.8462,56.9231,14.3591,4.1025,8.718,7.1794,-21.5383,-1.0256,
-108.4614,-61.7949,-0.76929,-3.8462,82.8203,-71.5386,-27.9487,61.7949,11.5383,2.3076,6.9231,12.5642,-19.7437,0.76929,
-110.5128,-54.6154,-0.25647,0.25647,84.8717,-62.8204,-35.641,66.4103,13.0768,-4.359,8.9742,19.2308,-18.7179,7.9486,
-116.923,-51.7948,-0.51282,0.51282,89.2308,-69.7435,-46.6666,66.1537,15.3846,-3.5897,12.3077,13.3334,-19.9999,4.1027,
-113.5896,-58.2051,2.8206,-5.3845,76.1538,-66.4102,-34.1025,63.8462,16.1538,-2.8206,16.1538,15.1282,-16.6665,5.3848,
-122.8204,-60.7692,1.2821,-1.2821,63.8461,-57.6923,-34.6154,68.9745,23.3334,-12.0514,19.7435,23.8461,-11.0258,20.3848,
-132.3077,-58.9742,-7.1796,7.1796,71.2821,-67.6923,-49.6154,79.9999,33.8461,-13.8461,24.1027,23.077,-7.6923,24.6154,
-125.1282,-60.5129,-12.8206,5.1282,67.6924,-73.8462,-54.3591,80,34.8718,-5.1282,26.1538,27.6921,-8.2051,12.8206,
-128.2051,-64.1025,-22.0513,-1.0256,52.6924,-68.718,-55.3845,66.6665,26.6667,1.0256,18.4614,35.3845,-19.4873,12.8206,
-143.2051,-77.1797,-34.1025,-11.0256,44.3591,-83.718,-70.3845,59.7434,25.3845,11.0256,13.0769,27.9487,-31.0256,15.6409,
-158.2051,-85.3848,-29.4873,-10,40.2563,-98.718,-72.5642,64.3589,30,19.7434,19.2307,20.769,-27.436,10,
-151.5383,-77.6924,-21.282,-5.8975,38.718,-93.5896,-59.7437,62.8206,19.7437,7.436,16.1538,22.3076,-22.8206,5.8975,
-139.4873,-67.1794,-22.5642,-4.1025,53.3335,-78.5896,-48.718,71.2822,15.8975,4.1025,15.3845,31.282,-19.4873,17.9487,
-150.7692,-77.9486,-34.359,-7.1796,43.077,-79.4872,-52.3077,75.3846,17.4359,7.1796,16.4103,23.077,-24.6154,11.7948,
-147.6924,-80.5129,-28.718,-6.1538,39.4871,-86.1538,-41.0256,75.3845,27.1794,9.2307,24.1025,19.4871,-14.3591,6.1538,
-140.2563,-75.6411,-27.9487,-4.8718,54.4871,-84.8718,-39.7437,68.4614,32.0513,4.8718,24.3589,16.1538,-9.4871,5.8975,
-152.3077,-77.4359,-33.3334,-3.5897,52.3077,-90.2565,-54.7437,69.2306,32.3077,3.5897,23.0768,13.3334,-16.4103,3.5897,
-154.8717,-78.9742,-28.2052,-7.1796,37.9489,-89.7435,-50.2565,75.8976,40.5128,10.7692,30.2565,27.1796,-13.8461,7.1796,
-145.641,-76.923,-31.7948,-9.7435,37.9489,-82.0511,-35.2565,70.7694,39.4872,12.3077,30.2565,33.3334,-14.8717,9.7435,
-151.7948,-84.1024,-45.1281,-8.7179,35.8976,-92.3077,-28.2052,63.59,33.8463,8.7179,27.6923,22.5641,-18.9742,9.7435,
-162.3079,-90.5129,-45.3848,-8.9744,28.9744,-106.4104,-34.1025,63.8459,39.7437,10,31.0256,22.3076,-16.6667,8.9744,
-158.7178,-84.3589,-35.6409,-7.9487,32.0513,-99.7434,-28.4614,71.0259,43.3335,12.0513,31.5386,28.9744,-16.1538,7.9487,
-152.8206,-75.8975,-33.3333,-9.2307,36.9231,-91.7949,-20.5127,75.3848,36.9231,11.282,29.7437,23.5898,-17.9487,9.2307,
-150.5127,-73.0769,-36.1538,-5.8975,34.6155,-98.7178,-23.8459,75.1282,32.5642,9.4873,26.9231,18.718,-14.6152,5.8975,
-146.4103,-72.0511,-25.8973,-3.3334,35.1283,-87.4359,-25.3846,77.1796,39.2308,13.5897,27.9489,30.0001,-9.4872,3.3334,
-148.2052,-69.2308,-19.9999,-5.1283,38.9745,-76.4103,-17.9486,76.923,38.9745,15.3846,30.7692,33.8461,-10.2565,5.1283,
-160.5128,-70.7694,-34.9999,-5.641,31.7948,-91.4103,-11.795,68.205,30.2562,9.2306,24.6154,21.0255,-18.9745,5.641,
-162.8204,-74.1024,-38.205,-7.4359,28.4615,-97.1793,-8.4615,64.8719,36.6666,14.1027,26.9232,18.7181,-17.1793,7.4359,
-155.1281,-68.9742,-23.8461,-3.3334,31.5385,-89.4872,-11.0255,68.9745,41.2821,18.7179,31.5385,23.8463,-14.6154,3.3334,
-147.6924,-64.1025,-22.0513,-1.5386,28.2051,-90.7693,-7.1794,69.7434,37.9487,13.3333,28.718,25.6411,-18.4614,1.5386,
-149.2308,-72.3077,-32.3077,-10.2565,24.6154,-87.6923,-3.5897,61.0255,33.8461,6.1539,24.1027,20.5128,-19.4872,3.5897,
-147.4359,-70.5128,-29.4872,-9.4872,38.2052,-82.8204,-5.3846,55.1281,32.0511,6.923,27.4359,17.1796,-17.6923,5.3846,
-135.8976,-61.5385,-16.9232,-3.5897,52.8204,-85.1283,-8.7181,61.5382,32.8204,14.8717,30.7692,24.1024,-12.8207,3.5897,
-131.0256,-64.8718,-18.718,-2.3076,43.8462,-81.282,-15.1282,62.8206,31.5383,15.6411,28.4614,30.5127,-5.8975,2.3076,
-130.5129,-68.4614,-25.8975,-5.8975,35.1282,-70.5129,-16.6667,52.0515,32.5642,8.4614,26.4102,31.0256,-6.4102,5.8975,
-122.3076,-61.282,-17.1794,-8.4614,47.4358,-71.5383,-7.4358,46.4102,35.1282,9.4873,27.4358,25.3845,-11.5383,7.4358,
-121.7948,-56.1539,-9.4872,-5.3846,56.6666,-74.6154,-4.359,47.4362,34.1027,14.1027,26.4103,19.2308,-8.9742,4.359,
-121.5385,-59.9999,-11.7948,-7.1793,56.4103,-68.7179,-5.1281,44.6154,31.795,12.8207,28.7181,21.5385,-3.5897,3.5897,
-117.6923,-61.2821,-14.1024,-10.5128,54.1024,-71.5385,0.25647,34.1027,25.3846,6.4103,22.8207,21.795,-9.9999,-0.25647,
-123.8462,-62.8206,-20.7693,-14.6155,54.6152,-74.6155,1.282,26.4102,21.7949,2.3076,10.5127,15.1282,-15.1282,-1.282,
-129.4871,-65.3845,-27.9487,-18.718,52.0513,-68.4614,-2.8206,23.3333,23.3333,2.8206,14.6155,15.6411,-14.1025,4.3591,
-122.8207,-64.359,-25.8976,-15.1283,52.0511,-66.9232,3.3334,17.6923,18.205,4.8717,18.7179,15.1281,-11.5385,-3.3334,
-117.1796,-63.3334,-18.2052,-18.2052,62.8204,-62.8204,12.0511,16.1539,18.7179,4.8717,12.5641,10.5128,-4.8717,-10.5128,
-119.4872,-60.0001,-20.0001,-17.4359,61.5382,-60.0001,7.1793,20.5128,30.2562,-1.5385,13.3331,12.8204,-4.1027,1.5385,
-121.795,-57.6923,-24.359,-10.0001,50.5126,-66.4103,8.9742,14.6154,29.4872,-6.4103,17.6923,16.6666,-8.9745,6.4103,
-116.4102,-60.5127,-18.4614,-12.8206,60.0002,-58.9744,23.9742,3.0769,23.0769,-3.0769,18.4614,20.5129,-6.1538,5.6411,
-115.1282,-62.8206,-19.2307,-14.6155,65.3848,-50.5129,23.3333,4.3589,20.2563,-4.3589,15.1282,17.1794,-7.436,7.9487,
-120.2565,-60.7692,-23.3334,-12.0514,57.6925,-56.6666,16.1539,9.4872,20.7692,-6.4103,15.1283,11.5385,-12.0514,6.4103,
-120.769,-59.2307,-18.2051,-11.5383,59.2307,-56.6665,26.4104,5.8975,21.2822,-5.8975,16.1538,12.0513,-10.5127,6.4104,
-114.8718,-58.9744,-11.282,-10.7693,65.6411,-49.7437,33.3333,7.1794,22.0513,-7.1794,15.8975,15.8975,-8.718,10.2563,
-113.8461,-59.9999,-16.923,-12.3077,62.5641,-54.8717,29.7435,7.6923,21.0258,-5.641,14.359,12.3077,-12.3077,5.641,
-115.3846,-56.4103,-14.8719,-6.1539,60.5126,-57.4359,32.3075,-1.5385,23.0768,1.5385,15.8973,10.2562,-6.1539,1.5385,
-114.1027,-54.1027,-9.4872,-8.4615,63.3331,-50.0001,32.0511,-5.3846,20.7692,0.76917,12.5641,9.9999,-0.76916,6.923,
-107.9486,-51.5385,-9.9999,-11.0258,65.3846,-48.4615,30.5131,3.8461,16.1539,-3.8461,6.923,8.9742,-6.923,12.0514,
-105.3846,-55.641,-7.9489,-6.923,56.6666,-56.6666,41.795,2.8204,17.6923,-2.8204,11.0255,11.5385,-13.077,9.4872,
-108.7181,-58.4615,-2.0514,-7.6925,50.2562,-52.8207,52.3075,-0.51282,24.1024,0.51282,19.4872,15.3844,-6.1539,6.6666,
-109.4873,-48.9744,-1.7949,-5.8975,48.9744,-42.3076,45.8972,1.7949,25.3845,-1.7949,17.1794,8.4614,-4.3591,6.4102,
-107.9489,-42.3077,-7.9489,-2.3077,44.8719,-40.2565,39.7435,2.3077,22.3077,-5.8976,11.5385,14.1024,-10.0001,11.0255,
-107.9489,-45.3846,-9.4872,-4.359,45.3846,-42.3077,45.3846,4.359,19.2308,-6.9232,9.9999,24.359,-8.4615,14.6154,
-105.641,-46.6666,-2.5641,-10.2565,48.7181,-43.077,47.1796,2.5641,11.7948,-9.2308,5.641,10.7692,-8.7179,6.1539,
-97.1794,-44.8718,0.25635,-14.1025,52.5642,-37.6924,48.9744,-0.25635,11.5386,-5.3845,4.8718,7.436,-10,3.3333,
-98.4617,-45.6411,-10.7693,-8.718,49.2307,-39.4873,49.7434,4.6152,13.3333,-3.0769,3.0769,18.9744,-9.7437,7.1794,
-97.6923,-42.3077,-10.5128,-5.3846,50.5131,-36.1537,52.0511,8.4615,15.641,-1.7948,1.7948,21.2821,-5.3846,4.359,
-90.5127,-41.7949,1.7949,-12.564,53.0771,-28.4614,50.5127,-2.3076,17.6924,1.7949,1.7949,13.0769,-5.3845,-1.7949,
-87.9487,-43.8462,6.4104,-14.1025,48.9746,-33.5896,45.3848,-5.3845,13.0769,-0.25635,0.76929,3.8462,-14.6152,0.25635,
-87.4358,-41.282,4.8718,-15.6409,53.5898,-36.6665,50,-0.25635,8.4617,-10.5127,0.76929,2.8206,-13.5896,0.25635,
-83.3334,-32.5641,10.0001,-14.6154,57.6925,-21.6665,63.3336,0.25647,13.077,-8.4615,1.2821,12.5641,-2.3077,-0.25647,
-86.4103,-28.9745,9.9999,-14.6154,53.077,-12.0514,63.8461,-2.3077,15.641,-0.25647,-0.76941,18.205,0.25647,8.4615,
-91.7947,-30.769,6.1541,-16.4102,56.9231,-20.5127,60.0002,0,8.2053,-5.6409,0,13.3335,-2.564,14.3591,
-92.8207,-29.7438,4.1024,-14.359,59.9999,-17.9489,59.9999,1.5385,2.0511,-11.2821,-1.5385,11.2819,-5.1283,6.1537,
-93.5897,-28.9745,3.8461,-13.5897,54.6151,-17.6923,63.3334,1.7948,11.5385,-2.8207,-1.7948,14.6154,-1.7948,2.3077,
-98.2051,-27.4358,1.7949,-13.5896,49.4871,-28.4614,62.3079,0.76929,16.1538,-1.282,-0.25635,7.436,-1.282,0.25635,
-97.9487,-22.5642,3.5896,-13.3335,55.8975,-20,61.5386,1.0256,9.2307,-1.0256,-2.0513,4.6152,-4.1028,1.5383,
-94.1025,-23.3333,3.3333,-20.2563,56.1538,-15.1282,64.8716,-0.25635,2.3076,1.7949,-8.4614,8.4614,-11.0256,0.25635,
-87.6924,-16.9231,3.5898,-15.3845,56.9231,-21.0256,77.4358,3.0769,8.2051,2.0513,-2.0513,7.6924,-7.6924,-2.0513,
-94.6154,-17.1793,3.3334,-11.0255,60.2562,-16.6666,80.2562,0.25647,14.1027,-4.359,7.9489,-0.25647,0.76917,-3.3334,
-107.4359,-22.3077,0.76916,-14.1027,60.2565,-13.5897,78.2052,-11.0258,11.5385,-3.3334,4.359,4.359,1.2821,-0.76917,
-104.6155,-14.3589,-2.0513,-12.3076,63.5898,-11.282,87.6924,-6.1538,11.7949,5.1282,1.0256,18.4614,-1.0256,4.1025,
-99.4871,-8.718,-7.1794,-11.282,60.0002,-5.6411,98.4617,4.6155,8.718,-1.0256,1.5386,11.7949,-1.0256,1.0256,
-96.4102,-7.1794,0,-4.6152,62.0513,-5.1282,99.4873,3.0769,6.1538,-5.1282,0,6.6667,4.6155,0,
-96.4102,-11.282,3.5898,-8.2051,69.7437,-7.6921,88.2051,-5.1282,7.6924,0,-2.0513,12.8208,6.6667,0,
-97.6923,-12.0514,-5.8973,-14.6154,67.4357,3.8461,90.0001,-6.923,8.9742,0.76916,-0.76917,9.9999,5.3846,-1.2821,
-94.1025,-6.4102,-7.9487,-12.0513,65.3848,12.0513,105.0001,-3.3333,7.9487,0.76929,-1.7949,10,4.3589,-0.76929,
-96.6667,-9.4871,-2.3076,-19.2307,66.4102,3.3333,117.1797,-3.3333,5.8975,0.76929,-4.8718,17.6924,2.8206,-0.76929,
-101.5385,-11.795,-5.641,-17.4359,66.1537,1.0255,110.2562,-6.6666,10.7692,-2.0514,-0.51282,13.3334,7.1793,0.51282,
-97.4359,-9.7438,-9.7438,-13.3334,68.7177,6.1537,110.7689,-16.9232,9.2306,-2.0514,0.51282,3.0768,4.6154,-0.51282,
-99.4871,-5.6409,-1.0256,-17.9487,76.4104,7.1794,116.9231,-15.3845,1.0256,4.1025,-3.0769,8.2053,1.5386,-2.0513,
-95.1282,-4.3589,-0.25635,-18.7178,78.7178,8.9746,118.2051,-5.3845,1.2822,0.25635,-5.3845,15.1284,8.4614,-3.3333,
-92.564,-1.7949,-3.8462,-14.6152,76.1538,12.564,121.7949,-5.8975,12.564,-4.3589,-2.3076,12.564,15.6411,1.7949,
-107.564,1.5385,-1.5385,-12.8204,73.3334,11.7948,121.5385,-10.7692,12.8207,-2.0511,-2.5641,10.2567,9.7435,-2.0511,
-122.564,-0.51294,-4.1023,-22.0513,76.4104,10.7693,121.5383,-12.8206,0.51294,2.5642,-10.2563,11.282,6.6667,-12.8206,
-137.564,3.0769,-3.0769,-23.5896,80.0002,19.4875,124.1028,-11.7947,-3.5896,7.1799,-14.8716,10.2566,9.7439,-8.2048,
-152.564,6.9231,-1.282,-16.6665,74.1028,23.3333,121.282,-10.5125,-6.4099,1.282,-19.2307,5.8977,3.8464,-2.8206,
-167.564,5.6409,-3.0769,-17.9487,79.9998,17.4358,127.1794,-8.2053,-1.5383,1.5383,-13.8462,8.2048,9.7434,-1.5383,
-182.564,5.3845,-3.8459,-21.7949,91.0256,16.1541,124.3591,-13.5898,1.282,-1.282,-11.5383,4.8718,16.1541,-3.8459,
-197.564,16.1538,10,-14.6155,92.0513,31.1541,124.8716,-5.3848,-2.3076,-6.4102,-9.4873,2.3076,14.1025,-4.8721,
-212.564,18.2053,8.4617,-18.2048,90.0002,33.5901,139.7439,0.76929,-12.051,-5.3845,-15.6409,-0.76929,7.949,-10.5125,
-227.564,18.718,-1.282,-22.8206,101.7947,29.4871,151.0256,-11.0256,-9.4871,1.282,-20.7693,5.3845,7.9485,-5.3845,
-242.564,15.8972,3.0769,-25.1282,107.1794,29.7434,141.0256,-22.5642,-7.6921,-3.0769,-22.0515,7.6921,10.7693,-4.6155,
-257.564,19.4873,18.0769,-16.4102,103.0771,33.3335,135.8975,-15.3843,-8.7178,-2.0513,-18.9741,2.0513,16.4106,-10.2563,
-272.564,22.8206,17.1794,-13.5896,101.7952,37.1794,144.8718,-12.051,-4.8718,3.3333,-18.2048,-3.3333,17.1794,-8.4617,
-274.6152,18.718,8.4617,-24.8718,110.0002,36.6667,150.5129,-14.1023,-7.4358,-2.8206,-23.3333,2.8206,17.1794,-8.4617,
-272.0513,19.231,14.1025,-26.9229,109.4873,37.1797,144.8721,-9.4873,-17.1792,-7.9487,-28.4614,7.9487,16.1538,-14.1025,
-268.7178,26.1541,21.0256,-24.6155,101.5383,45.6414,144.1028,-7.1794,-15.3845,-3.0769,-27.1794,3.0769,15.8977,-11.282,
-264.6155,29.231,15.8975,-25.1284,104.6152,53.3335,151.2822,-10.769,-12.8203,-1.5386,-30.2563,1.5386,13.8462,-8.7178,
-258.2051,27.436,14.1025,-27.9487,107.436,46.9233,155.1284,-14.6152,-20.2563,-2.3076,-37.1792,2.3076,11.0259,-15.1279,
-255.3845,27.1797,19.4873,-28.2051,101.0254,36.4102,151.2822,-15.8975,-14.3589,0.5127,-30.769,-0.5127,12.8203,-11.7949,
-258.4617,29.2307,17.4358,-18.9744,96.9231,32.3079,149.7434,-14.8718,-3.5896,1.0256,-20.0002,-1.0256,11.7947,-6.6667,
-259.4873,22.0513,7.1797,-22.0513,98.4614,32.3076,146.1538,-17.9487,-11.7949,-2.0513,-26.6665,2.0513,8.7178,-14.3589,
-258.9744,16.9233,3.0771,-25.6411,90.769,35.8975,140.5127,-19.4873,-20.5127,-1.5386,-35.3848,1.5386,8.7178,-18.4614,
-248.718,25.6409,8.2048,-17.949,89.7434,38.9744,151.7947,-12.3079,-9.7439,1.0256,-24.6155,-1.0256,13.3333,-8.718,
-233.718,31.7949,16.4102,-14.3589,104.7434,44.6152,166.6665,-8.2051,0,-4.1025,-14.3589,0,21.5386,0,
-226.6665,29.7439,18.4617,-13.8459,111.282,47.1794,168.718,-13.3333,-2.5637,-1.0256,-18.4612,1.0256,28.718,-3.0769,
-237.6924,20.2566,9.4871,-21.282,97.1794,36.1541,164.3591,-18.718,-7.9485,4.8718,-25.3845,-4.8718,20.7693,-12.5642,
-234.3589,26.1541,10.2566,-19.4871,96.4104,39.4871,167.1794,-9.2307,-4.6155,2.5642,-21.0256,-2.5642,12.3079,-8.2048,
-219.3589,37.1794,15.6409,-14.6155,108.4617,51.5383,169.9998,-3.3333,-4.3591,-0.25659,-18.2053,0.25659,13.0769,-0.76929,
-213.8462,36.4104,13.8459,-17.4358,106.1536,48.2048,171.282,-10.2566,-5.6409,2.5642,-21.0256,-2.5642,14.8718,-3.0769,
-214.6155,39.231,13.5898,-12.564,96.1538,42.8203,171.0254,-12.0513,-0.76904,0.76904,-17.6924,-3.8462,19.231,-3.8462,
-205.1279,43.0771,19.4873,-8.7178,98.4619,51.2822,170.2563,-5.6411,0,0,-14.8716,-1.0254,23.0771,-0.5127,
-201.0259,39.4868,20,-13.3335,98.4614,52.8203,168.2051,-5.6411,-10.7695,2.0513,-27.1797,-2.0513,11.7949,-8.2051,
-199.7434,41.7949,17.1797,-8.4614,96.6665,48.4614,167.9487,-1.2822,-14.6152,1.2822,-33.5898,-6.4102,6.9233,-13.5898,
-193.333,45.6414,20.0002,-9.2307,98.4617,53.3337,175.385,1.0256,-10.7688,-1.0256,-26.6663,-10.2561,12.3079,-10.7688,
-184.6152,49.7439,26.1541,-8.2048,99.4875,62.0515,182.5642,-3.0769,-5.6409,3.0769,-20.5125,-3.0769,16.4104,-3.5896,
-188.4617,43.333,19.7437,-10.5132,92.0513,52.0513,173.0767,-6.9233,-3.3335,-0.25635,-20.2563,0.25635,14.1025,-0.25635,
-190.7693,36.4102,12.8203,-11.7949,94.8716,41.0259,171.2822,-2.564,-0.5127,-0.5127,-15.8975,-0.5127,18.4614,0.5127,
-184.3591,38.718,17.6921,-9.4871,105.8972,45.8972,180.2561,-8.4617,-6.4104,4.8718,-19.7439,-4.8718,16.6667,-5.8977,
-172.8203,43.5898,26.1538,-11.2817,109.7437,57.436,183.5898,-10.769,-7.1792,6.1538,-23.0767,-7.1792,12.8208,-6.1538,
-158.4614,52.8206,28.718,-6.6667,105.6409,59.4871,181.5383,0.51294,-3.5896,-0.51294,-19.4871,-6.1536,14.3591,-1.5383,
-143.4614,67.8206,34.3589,-2.0513,116.4102,56.4102,187.1797,2.0513,-5.6411,-3.5898,-21.5386,-6.1538,16.4102,-4.1025,
-128.4614,79.7437,47.9487,-2.3076,131.4102,58.7183,193.5898,-7.9487,-3.333,2.3076,-20.769,-9.4873,17.6924,-4.8716,
-113.4614,86.1538,49.7437,-0.51269,131.2822,60,190.2563,-7.1797,-3.5898,0.5127,-15.8975,-16.4102,15.3848,-1.5386,
-98.4614,97.1797,40.769,-0.76904,130.5127,64.3589,182.8203,0.76904,-13.5898,-6.4102,-24.3589,-19.7437,10.5127,-5.8975,
-83.4614,112.1797,43.8459,-0.76929,141.282,70.5125,174.615,0.76929,-20.7693,-10.0002,-39.3589,-23.3337,3.8459,-15.1282,
-68.4614,125.3848,52.5645,0.25635,136.667,71.0259,175.1284,-0.25635,-16.1538,-10.5127,-33.5894,-24.3589,0.25635,-12.0513,
-53.4614,129.7432,46.6665,0,127.1792,72.8203,181.5381,0,-14.8721,-6.1538,-22.0513,-21.0259,0,-8.2051,
-38.4614,136.9231,39.9998,5.6409,124.1023,77.9485,177.4358,3.0769,-18.9744,-3.0769,-26.6667,-19.4875,-3.0769,-9.7439,
-23.4614,141.7947,49.9998,5.8972,123.3333,77.1794,169.4871,5.3845,-18.2053,-5.3845,-28.4617,-17.6926,-5.3845,-7.949,
-8.4614,143.3333,57.6926,6.4104,129.4875,75.1282,166.4104,3.3333,-16.1536,-8.9744,-21.282,-19.2307,-3.3333,-8.9744,
-9.4873,143.3335,49.4873,3.8462,131.0259,76.6665,160.2563,6.4102,-23.3335,-13.5898,-28.4614,-27.9487,-3.8462,-20.2563,
-8.718,146.6667,45.6409,2.0515,124.1028,84.1028,156.9231,14.8718,-23.5896,-13.8459,-34.3591,-27.1794,-2.0515,-17.9485,
-7.1797,148.7178,43.5894,8.7178,115.8975,87.1792,154.3589,6.1538,-16.9233,-9.7437,-30.2563,-24.1025,-6.1538,-10.7695,
-1.2822,143.8462,42.3076,5.8975,118.7178,81.7949,155.1284,1.2822,-16.1538,-3.8462,-28.9741,-25.3848,-5.3848,-13.5898,
2.0513,139.4873,42.564,-2.0513,119.4873,75.8975,154.8721,12.3076,-25.1279,-8.2051,-36.4102,-28.2051,-5.1279,-21.0254,
0.51269,141.0259,46.1538,-0.5127,118.9746,78.9746,145.6411,8.7183,-31.7949,-13.8462,-44.1025,-26.6665,-11.7949,-29.2305,
-1.282,144.8718,48.4612,1.282,122.3074,87.4358,138.2048,7.9485,-25.8977,-7.4358,-41.282,-23.3333,-9.4871,-28.4617,
-5.3848,139.2305,47.4355,3.8462,111.0254,83.8462,139.2305,16.1538,-19.231,-6.4106,-32.5645,-27.436,-3.8462,-17.6924,
-13.0769,124.2305,42.3074,3.3333,100.2561,76.1536,135.1282,5.8972,-23.8464,-14.1028,-30.0002,-26.9231,-3.3333,-14.6155,
-17.1797,121.2822,41.7949,5.8975,110.5127,79.231,133.0771,3.3335,-22.8203,-11.5386,-26.4102,-15.1284,-3.3335,-19.7437,
-28.2053,123.0769,46.1536,6.6667,108.718,76.9231,134.3586,16.9231,-13.8464,-6.6667,-25.1282,-18.4617,-7.6926,-23.5901,
-37.6924,116.1541,49.4871,2.8206,100.7693,66.4104,130.0002,24.3591,-13.5896,-4.8718,-26.9231,-25.8972,-2.8206,-19.7434,
-46.1538,104.6152,40.5127,1.0259,99.4873,59.4873,116.9229,18.4614,-26.6665,-10.2563,-35.8975,-25.1284,-1.0259,-26.6665,
-58.9744,94.3589,32.3076,4.1025,94.3589,74.4873,112.3076,18.4614,-18.9746,-9.231,-32.3076,-18.4614,-4.1025,-27.1797,
-73.9744,81.5386,29.7437,4.6152,83.5898,84.6152,106.1538,17.9487,-7.1792,-4.6152,-23.5898,-21.0254,-7.6924,-17.9487,
-84.6152,75.8977,27.1794,2.5642,87.1794,69.6152,94.3591,17.4358,-13.8459,-2.5642,-25.1282,-16.4104,-5.1282,-15.3845,
-84.1025,76.4102,25.6411,2.0513,91.2822,54.6152,91.7949,22.564,-15.8975,-2.564,-24.1025,-7.1792,-2.0513,-18.4614,
-97.1797,70.5129,19.2307,4.8718,85.3845,44.3586,89.9998,20.2561,-13.0769,-9.4871,-22.8206,-18.718,-4.8718,-21.7952,
-105.8975,64.3589,17.6924,0.76904,86.4102,41.2822,86.9229,24.3589,-14.6152,-4.8716,-22.8203,-20.2563,-0.76904,-21.2822,
-113.3333,58.4617,18.4617,-3.5896,75.8977,26.2822,76.9231,21.5383,-16.9231,2.5642,-24.1023,-8.718,-2.5642,-22.5642,
-121.282,54.1028,18.2053,1.7947,65.8972,24.3591,70.0002,7.4358,-16.1541,-1.7947,-24.3591,-14.1028,-6.9231,-22.8206,
-116.9229,53.8464,21.5388,-3.0769,75.8977,39.3591,76.9231,16.4104,-10.2561,-6.6663,-21.0256,-25.1282,3.0769,-17.4358,
-116.1538,55.1282,18.718,-9.4871,78.718,45.8972,78.2053,30.5129,-12.0515,-9.9998,-21.7947,-23.3333,9.4871,-17.1794,
-120.5129,54.8716,15.3848,-7.1797,71.2822,42.0513,69.7437,22.564,-23.0771,-12.8203,-26.6665,-17.436,7.1797,-21.0259,
-118.718,52.0513,16.6665,-5.8975,69.4873,35.6411,72.0513,20.2563,-22.8208,-6.4102,-25.3848,-12.0513,5.8975,-21.7949,
-125.3845,42.8206,8.4617,-7.9485,58.2053,21.7952,71.5383,22.3079,-17.6921,2.8206,-29.4871,-12.051,-2.8206,-26.9231,
-134.8718,34.3589,4.1025,-11.2822,43.2053,25.1284,66.1538,14.3589,-15.8975,6.1538,-31.2822,-12.3076,-4.1025,-25.6411,
-137.9487,33.3333,3.5896,-9.2307,35.8972,35.3845,64.1028,14.8718,-15.3845,1.5383,-26.6667,-17.9485,-1.5383,-21.5383,
-135.6411,35.6409,3.3333,-0.76929,41.7947,30.5125,72.051,29.8718,-4.3591,0.76929,-17.1794,-17.6926,-0.76929,-16.6667,
-138.4614,29.7437,3.5898,-3.0767,43.0771,24.1025,75.3848,29.7437,-2.0513,-2.0513,-15.8975,-11.2822,2.0513,-20,
-140,26.6665,7.6924,-6.1538,35.3848,31.7949,70.769,20.5127,-13.8462,-3.5898,-22.564,-6.1538,3.5898,-22.0513,
-144.3591,26.4099,2.8206,-5.385,28.4612,32.051,65.3845,23.8459,-14.1028,5.3845,-23.8464,-7.4363,-2.8206,-17.1794,
-145.6409,24.6157,0,0,28.7183,29.231,62.5645,25.1284,0,11.7949,-12.8203,-10.769,-1.0254,-16.4102,
-141.7947,17.1797,-0.25635,-7.9487,35.1284,24.3589,64.8721,12.5645,-3.333,0.25635,-13.0767,-15.1279,1.2822,-24.3589,
-130.5129,22.8203,6.9229,-10.5127,46.4102,26.9229,72.564,20.769,-6.9233,1.7949,-17.6924,-4.8721,-1.7949,-19.231,
-134.6155,24.3589,3.3335,-3.8462,36.1538,34.6152,59.231,31.0259,-8.9741,9.4873,-24.3589,-3.3335,-6.9229,-17.6924,
-135.3845,22.0515,-0.51294,-1.0256,30.2566,46.6667,56.9231,32.8206,-2.5642,16.9231,-17.9485,-4.1023,0.51294,-16.4104,
-135.6411,16.1538,-1.2822,-9.4873,26.4102,41.2822,64.8716,26.9229,-2.3076,8.4614,-18.2051,-3.3335,1.2822,-17.6924,
-136.9231,13.8462,0,-15.8975,27.1797,35.3848,61.5386,24.6152,-10.769,0,-28.2051,-4.1025,1.5386,-22.0513,
-131.7949,11.282,-1.0256,-18.9744,35.3845,37.9485,54.3591,26.6667,-13.8459,3.0769,-29.2307,-12.3079,1.0256,-25.1282,
-127.9487,11.0256,1.282,-11.0256,36.6667,34.1023,53.0769,28.4612,-4.3591,7.4358,-18.2053,-15.6414,-1.282,-22.3079,
-129.4873,7.436,-1.7949,-13.5898,30,31.0254,51.0254,22.8203,-5.8975,2.8203,-20.769,-17.6924,1.7949,-23.3335,
-125.1282,11.7952,-2.5642,-17.4358,34.8718,35.8977,56.9231,29.2307,-12.8206,2.5642,-29.2307,-16.4104,6.1541,-22.051,
-128.7178,14.3591,0.51294,-13.8459,34.3591,37.4358,52.3079,38.9744,-8.2048,3.0769,-25.1282,-13.3333,-0.51294,-17.4358,
-129.7434,9.2307,-1.0256,-13.3333,34.8718,47.6926,44.1028,31.7952,-3.0769,1.0256,-18.4612,-4.6155,5.6414,-11.282,
-121.5383,8.7183,-12.3076,-15.8975,40,46.667,45.6411,20.5132,-12.8203,2.0513,-26.6665,-2.0513,16.4106,-16.4102,
-119.7434,10.0002,-14.6155,-20.2561,32.5642,42.3079,46.9231,24.3591,-15.6409,4.8718,-30.5125,-4.8718,5.8977,-20.2561,
-121.0254,11.7952,-8.2048,-17.4358,31.7952,57.3079,46.6667,32.3079,-10.2561,9.2307,-25.1282,-1.0256,1.0256,-9.7434,
-125.6411,7.6921,-14.8718,-21.0256,31.7947,52.3074,34.3586,29.2307,-24.1028,5.1282,-36.9233,-5.1282,5.1282,-8.718,
-121.7949,6.9229,-14.6152,-23.8462,30,42.3076,30,36.6665,-20.769,4.8716,-35.6411,-4.8716,6.9229,-9.4873,
-118.4617,10.769,-9.7437,-20,29.7437,47.1792,41.0254,38.4614,-11.2822,10.769,-28.2053,0.5127,-0.5127,-12.8208,
-121.0256,8.2053,-10.7693,-26.6667,32.8206,46.6667,40.0002,26.6667,-18.9744,9.7434,-33.8462,-3.0769,3.0769,-16.9231,
-116.6667,5.8975,-6.9233,-27.436,35.1279,48.4614,34.6152,31.5381,-16.1538,5.8975,-30.0002,-5.8975,18.0769,-8.4619,
-111.0256,4.8718,-8.4617,-26.9231,31.5383,47.4358,43.3333,41.7947,-13.5896,4.8718,-30,-5.3845,16.1536,-4.8718,
-108.2053,1.5386,-15.8975,-40.5129,40.5127,46.6665,47.1792,27.6924,-25.6411,10.769,-44.1025,-1.5386,7.6924,-10.7695,
-105.3845,1.7949,-16.6665,-48.9741,50.5132,54.1025,37.1797,16.667,-28.9741,7.9487,-53.0769,-1.7949,9.4873,-8.9741,
-101.7947,5.3848,-14.1025,-47.4358,48.9746,56.667,37.6924,31.667,-20.769,2.3076,-51.5383,-2.8203,13.5898,-2.3076,
-105.1282,2.0513,-18.9746,-61.0256,49.2305,51.7949,33.8462,34.8716,-29.7437,3.0767,-57.436,-2.0513,12.3076,-7.6924,
-103.8462,-0.25635,-23.3335,-67.9487,52.0513,62.3076,22.3076,21.2822,-37.6924,3.8462,-62.3076,0.25635,11.5386,-10.5127,
-101.0256,4.1025,-19.4873,-52.9487,38.4614,63.5898,25.1279,23.0767,-22.6924,1.5386,-49.231,-1.5386,10.2563,-4.1025,
-103.5898,15.3845,-5.6409,-37.9487,23.4614,48.5898,28.2053,30.7693,-7.6924,2.5642,-34.231,-7.1794,7.6921,-2.5642,
-109.7437,13.333,0,-22.9487,9.7437,33.5898,16.9229,20.5127,-12.3076,0,-25.1284,-13.3335,2.0513,-16.4102,
-101.5386,8.2048,1.5383,-7.9487,14.3586,34.3586,20.5129,20.5129,-9.2307,-1.5383,-27.1797,-10.2566,5.1282,-14.8718,
-95.8975,9.231,-5.6411,-0.5127,5.6411,24.1025,19.4873,26.1538,0.5127,-5.6411,-27.1794,-13.8462,4.1025,-8.2051,
-93.5898,11.5386,-6.4102,4.8716,-2.8203,28.9746,11.0259,26.9229,2.8203,-3.8462,-18.2051,-14.1025,4.8716,-7.436,
-95.3845,7.1797,-4.6152,0.5127,0,42.0513,5.1284,26.1538,-6.6665,0,-19.4873,-9.7437,4.6152,-10.769,
-100,4.1025,-8.2051,-1.5386,2.564,34.8721,2.0513,24.1025,-14.3589,3.0771,-29.7437,-8.7178,1.5386,-9.7437,
-96.1538,8.9746,-3.8462,2.8203,-2.8203,24.8721,1.7949,26.9233,-3.8462,9.4873,-20.2563,-8.9741,5.3848,-1.7949,
-91.2822,9.2307,-1.0256,1.0256,-4.6155,23.5896,1.5383,27.6921,-3.0769,3.5896,-14.8721,-15.3848,5.1282,-9.2307,
-92.8206,8.2051,2.0513,-3.0771,0,24.6152,3.5898,26.1538,-7.1797,0,-21.5386,-12.3076,2.0513,-11.2822,
-102.5642,8.718,2.5642,4.6155,-11.282,16.4104,-2.5642,23.5896,-0.51294,6.1541,-19.4873,-7.6921,0.51294,-3.5896,
-94.8721,10.2561,2.5637,9.7434,-7.1794,17.9485,-3.5901,28.718,-1.0256,6.6663,-17.949,-12.8208,1.0256,-8.718,
-79.8721,7.1797,2.564,-3.0767,7.8206,24.6152,8.2051,30.2563,-11.7949,-1.5386,-24.1025,-23.5898,1.5386,-20,
-77.6921,4.3589,8.4614,-4.3589,22.8206,11.0259,13.0771,19.7437,-9.4873,-8.4614,-20.769,-24.3589,7.436,-17.1792,
-79.4873,2.0513,11.2822,4.6152,24.6152,-3.9741,3.5898,12.3076,-2.0513,-8.2051,-16.9231,-12.8206,8.2051,-7.6924,
-77.1794,-0.76904,5.8975,7.9487,17.6924,-0.25635,0.25635,14.1025,-1.7949,1.2822,-19.7437,-4.3589,1.7949,-4.8716,
-83.3333,-7.9485,0.25659,3.8459,11.5383,6.4104,1.7947,20.7693,-0.25659,3.3333,-17.1794,-10.5129,-0.25659,-4.8718,
-83.0769,-6.1541,3.5896,-3.5896,11.282,3.0769,4.6155,27.1794,1.5383,-1.5383,-12.8206,-17.436,4.1023,-4.6155,
-80.2563,-0.25635,7.436,0.25635,8.4614,0.25635,-0.25635,21.2822,-2.3076,0.76953,-16.6665,-11.0256,3.3335,-13.0769,
-86.1538,-5.6409,4.6155,5.6409,-1.0256,0.51294,-6.1536,12.3079,-0.51294,2.0515,-17.4358,1.5383,1.5383,-15.3845,
-84.1023,-8.7178,5.1284,3.0771,2.0513,0,-6.6665,18.9746,-0.5127,0,-19.9998,3.5898,2.0513,-3.5894,
-83.0769,-0.51294,7.6921,5.1282,3.5896,-0.51294,-6.1536,28.2053,0.51294,5.1282,-20.5127,-10.2563,-0.51294,2.5642,
-88.2052,0.51282,7.6925,10.2565,-6.1539,-2.5641,-0.51282,24.6154,8.7179,9.7438,-7.1796,-11.7948,2.5641,-1.0258,
-82.3076,-2.8206,7.4358,17.1794,-7.4358,-4.3589,-0.25635,20.7693,6.9231,5.3845,-4.3589,0.25635,4.8718,-0.25635,
-76.1538,-3.3333,6.9233,17.1797,0.25635,-5.3845,-3.3333,25.3848,0.76953,3.3335,-14.6152,-1.282,-0.25635,2.8208,
-79.4872,-1.5385,7.1793,14.359,-1.5385,-0.51282,-3.5897,27.6925,8.2052,6.1539,-8.7179,-2.0514,4.6154,0.51282,
-78.4615,-2.0514,0.51282,13.8461,-7.6923,0.51282,-12.8207,24.1024,13.3334,4.6154,-3.077,-0.51282,11.7948,-5.1283,
-66.1538,-2.564,0,13.3335,0,0,-18.9744,25.6411,13.8462,9.7437,-5.6409,-1.0256,14.8721,-1.0256,
-68.9745,-1.795,1.795,11.5382,1.795,-4.8719,-16.6666,24.8717,8.4615,18.2052,-14.1027,-6.9232,7.9489,-1.795,
-72.0511,-0.25647,1.7948,8.4618,-2.8204,0.25647,-11.0255,23.3334,9.4872,24.8719,-11.5385,-2.8204,5.8973,-2.3077,
-70.769,-3.0769,-3.5896,3.0769,-10.2563,2.0513,-15.8975,18.4617,12.8206,17.4358,-7.1794,0,3.0769,0,
-64.3589,8.9746,1.7949,14.6152,-5.3845,-6.4102,-15.6409,21.7949,11.0259,13.0771,-7.9487,-1.282,-1.282,1.282,
-64.3589,17.1794,7.4358,14.6155,0.76929,-1.282,-11.5383,26.9231,5.3845,18.2053,-10.5127,-1.7949,-0.76929,-5.8975,
-78.9744,7.1797,-1.0256,5.1284,-11.7947,10.7695,-20,27.1797,3.5898,16.4102,-12.8203,-3.0769,1.0256,-6.6665,
-89.4872,1.2821,-5.3846,7.4362,-18.2052,4.359,-27.9486,29.4874,0.76917,9.4874,-9.4872,-0.76917,-1.2821,1.2821,
-83.3333,6.4102,-0.25635,11.5383,-7.9487,-6.9231,-23.3333,29.4871,2.3076,10.0002,-5.3845,-1.282,0.76929,0.25635,
-76.1538,3.3333,0.25659,4.8718,-2.8206,-0.25659,-19.2307,17.6921,3.8459,3.8459,-13.0769,-8.4617,7.4358,-10.5129,
-75.6409,0.76953,0.25635,-2.3076,-0.25635,7.436,-19.7434,15.6411,1.7949,2.3076,-17.6921,-0.76904,11.0259,-9.4871,
-77.9487,5.1282,-1.5383,4.1023,1.0256,-3.0771,-23.5898,26.1536,-1.0256,9.7434,-14.3591,6.1536,3.0769,-5.6411,
-78.4614,8.7178,-3.0769,10.769,0,0,-17.9487,30.769,1.5386,10.2563,-12.3076,-2.0513,0,-6.1538,
-82.0513,10.2561,-1.5383,3.5896,-7.6924,12.8206,-11.7949,26.6667,3.0769,4.1023,-15.3848,-8.718,1.5383,-6.1541,
-82.5641,14.8717,0.51282,6.6666,-9.7435,7.1793,-13.8461,26.1539,4.1027,9.2306,-11.2821,-1.5385,-0.51282,-6.6666,
-80.7692,12.5641,-1.7948,11.0255,-5.8973,-0.76916,-15.641,28.4615,5.8973,18.2052,-5.3846,2.8204,0.76917,-7.4359,
-80.5128,6.6666,-2.5641,7.6925,-10.7692,3.5897,-15.3846,28.2052,3.077,12.8204,-9.2306,-2.5641,2.5641,-4.1024,
-77.6924,14.6155,-0.25635,10.0002,-11.5383,-2.8206,-11.0256,30.0002,5.8975,10.5129,-10,0.25635,1.7949,-2.3076,
-73.5897,21.2819,-2.8204,9.4874,-3.8461,-17.6923,-6.923,22.8204,8.9742,15.1281,-9.4872,3.3334,2.8204,-7.9486,
-70.5127,18.2053,-1.282,6.4104,1.7952,-4.3589,-5.8975,17.6926,1.282,7.949,-14.6152,-6.4102,6.9231,-13.5896,
-71.2822,13.8459,5.6409,5.1282,-7.6924,10.6411,-7.6924,25.1282,-2.5642,2.5642,-16.4104,-11.2822,5.6409,-11.7949,
-79.2306,13.5897,2.308,3.8461,-21.7948,1.7948,-13.0768,27.4359,2.308,8.9745,-14.6154,-2.8204,-1.7948,-6.923,
-73.8459,19.4871,-1.0256,5.6414,-16.4102,2.5642,-15.8972,29.7439,7.6926,12.3079,-12.8203,1.0256,-1.5383,-2.0513,
-65.1279,13.3335,1.0259,0,-7.1794,5.6411,-13.3333,30.2563,0,2.0513,-15.3845,-9.7434,1.5386,-9.2307,
-63.5898,11.7949,8.7178,7.1792,-3.0771,0,-1.5386,34.8716,0,9.2305,-7.6924,-6.6667,7.6924,-7.1797,
-68.9742,8.4618,5.3846,4.8719,-8.4615,-4.8717,-5.3846,22.3075,3.8461,18.205,-5.8973,-3.8461,6.4105,-6.923,
-62.564,12.3079,3.0769,-1.0256,-5.6411,2.5642,-5.6411,16.4104,1.0256,10.7693,-13.8462,-2.5642,3.5896,-10.2563,
-59.231,14.6152,3.333,3.333,-8.9746,4.3589,-0.25635,27.9487,-7.9487,2.3076,-23.3335,-2.8208,0.25635,-8.9746,
-60.769,12.0513,5.3848,8.9746,-11.5383,0.25635,-0.25635,34.6152,-2.3076,16.667,-18.2051,-3.333,5.3848,-3.333,
-60.7693,13.0771,5.3848,9.4873,-4.8718,-1.7949,-5.8975,26.9233,1.7949,22.8208,-12.0513,-9.4871,7.436,-7.9487,
-61.0254,15.3845,4.6155,6.1541,-6.1538,2.0515,-4.1025,23.0769,1.0256,10.2566,-9.2307,-6.6665,-1.0256,-6.1538,
-67.1796,11.2821,1.5385,4.1024,-18.4615,6.1537,-4.6154,27.1796,1.0258,5.641,-12.3077,-1.0258,-5.641,-1.0258,
-66.9231,13.5896,-1.7947,8.9744,-17.6924,7.4358,-10.5129,26.9231,1.7947,14.1023,-17.6924,-1.7947,3.3333,-5.3848,
-59.4871,14.3589,2.564,6.6665,-5.6411,-2.564,-5.6411,25.6411,3.5898,11.7949,-18.9744,-8.2051,7.6924,-12.8206,
-59.4871,12.3076,4.1025,4.6152,-8.718,-11.7949,0.5127,23.5898,1.0259,5.6411,-21.5383,-13.3333,-0.5127,-12.8206,
-54.8718,18.4617,1.0256,7.1794,-9.2307,2.0515,0.51294,21.5383,-3.0769,11.7952,-21.5383,-11.282,-0.51294,-4.1023,
-50.2563,14.8718,1.5383,4.1023,-4.6155,1.5383,-1.5383,18.4617,-5.6409,16.4104,-18.4617,-9.7434,5.1282,-10.7693,
-55.1284,6.9231,5.8972,6.4099,-13.0771,-13.4617,1.282,18.2048,-1.282,17.6921,-13.5898,-2.3079,5.8972,-22.8206,
-58.2051,10,1.7949,2.3076,-19.7434,-15.1282,1.7949,20.7695,-2.3076,13.5898,-16.1538,0.25635,-0.25635,-15.1282,
-53.3333,25,2.0515,5.6409,-16.4102,-0.12817,0.51294,34.8718,-4.1023,13.3333,-17.4358,-2.051,-1.5383,-0.51294,
-57.6924,33.5898,3.333,9.4873,-29.4873,14.8718,-0.25635,40.769,-4.8721,13.5898,-19.231,0.25635,-1.2822,-4.3589,
-63.5896,32.8208,-2.0513,6.6665,-44.4873,29.8718,0,36.9233,-2.564,16.9233,-18.4614,1.0259,0,-7.1792,
-71.0256,35.1284,-6.9231,10.5127,-56.6667,44.8718,-3.8462,39.7437,1.7949,20.769,-14.1025,-4.3589,4.3589,-1.7949,
-83.8462,29.4868,-6.9233,7.4355,-59.231,54.1025,-9.4873,42.8203,-2.3076,19.2305,-18.2053,2.8203,1.7949,-1.7949,
-82.3076,29.4871,-4.3591,8.9744,-58.718,67.949,-2.3079,44.8718,-6.4104,19.2307,-20.7693,13.5896,-0.76929,0.76929,
-76.4102,27.1794,-9.7437,12.3079,-60,71.7952,3.5896,38.9744,-5.6409,19.4871,-16.4102,-1.4104,0.51294,-0.51294,
-83.8462,16.1538,-16.1541,5.8975,-61.2822,56.7952,0.25635,33.5894,-0.25635,16.1538,-13.5898,-12.5642,2.3076,-3.3335,
-85.1282,14.8718,-14.3589,6.6667,-61.5383,43.0769,0.51294,34.3591,-0.51294,10.2566,-16.9231,-10.2563,0.51294,-1.0256,
-78.4614,18.9744,-13.3333,10.2566,-60.5127,51.7952,10.7693,31.282,-0.51294,12.3079,-15.8975,-12.8206,0.51294,-1.0256,
-82.8203,17.1797,-22.8203,7.9487,-65.8972,56.667,9.4873,32.0513,1.7949,18.7183,-14.6152,-7.4355,-1.7949,-1.7949,
-85.1282,18.9746,-24.1025,6.667,-71.282,54.3589,5.1284,40,-2.0513,21.5386,-20.5127,2.0513,-7.1792,-4.1025,
-71.0256,29.4873,-9.1025,13.5898,-59.7437,60.2563,20.1284,43.8462,-3.3335,23.3335,-17.1794,1.2822,-1.2822,-2.8203,
-65.6411,32.8206,-1.5383,15.3845,-51.7949,66.1541,31.7947,34.8718,-8.718,20.5129,-18.9744,1.5383,-3.5896,-1.5383,
-79.7437,21.282,-14.6155,1.282,-65.3845,61.7947,16.7947,31.0256,-17.6921,10.5129,-32.0513,2.3079,-17.1794,-1.282,
-73.8462,23.5896,-4.1028,9.2307,-63.5898,62.5637,26.6667,38.9744,-6.6667,12.3074,-22.0515,-1.0256,-7.1794,1.0256,
-63.3333,22.3079,1.282,12.0515,-55.6411,52.0515,41.6667,24.8718,-1.7947,12.0515,-16.1538,-8.9744,-1.282,-11.5383,
-63.5896,20.5127,-3.0767,2.564,-51.7949,53.3335,43.5898,24.1025,-1.5386,14.8716,-21.0254,1.5386,-3.0767,-7.1797,
-68.4614,21.7947,-4.8718,1.7947,-53.0769,61.282,40.2566,33.0769,-5.8972,12.5642,-25.8972,1.7947,-6.4104,-1.7947,
-58.7178,28.4617,0.76929,6.9231,-45.8975,70.0002,53.5896,30.5129,-1.282,18.718,-17.6921,-2.8206,-0.76929,-5.8972,
-56.9231,29.7437,-3.5898,1.5386,-49.2307,65.1284,56.9233,21.5386,-3.0767,23.0771,-20,-1.5386,1.5386,-10.769,
-59.231,32.5642,-4.3591,2.3074,-50,64.8718,59.2307,27.9485,-11.5383,18.2048,-28.4617,-1.282,1.282,-3.8464,
-51.7952,32.8201,-1.0256,1.5383,-39.4875,71.282,70.2561,26.6663,-17.4363,13.8459,-32.8206,-8.2053,1.0256,-4.6155,
-43.3333,33.0771,0.25635,3.8462,-33.0767,68.4614,77.6924,18.2051,-17.6924,17.6924,-33.0767,-5.8975,-0.25635,-10,
-45.8975,31.5386,-0.25635,4.3589,-36.6665,63.8462,78.2051,19.231,-20.769,15.6411,-36.1538,0.25635,-3.8462,-6.4102,
-38.718,35.1282,6.9231,-0.76929,-30.5129,71.5383,84.3586,21.7947,-22.3079,14.1023,-36.1541,-1.7952,0.76929,-3.8464,
-29.2307,33.8464,8.2053,-2.5642,-23.5896,71.282,87.1794,11.7952,-28.2048,9.7439,-41.5383,-13.3333,2.5642,-13.8459,
-26.4104,25.8977,4.3591,-2.8206,-24.3591,62.3079,88.4617,3.3333,-29.9998,3.3333,-45.3845,-15.6409,2.8206,-17.6921,
-24.8718,26.9231,5.8977,-1.282,-25.3845,63.8464,95.6414,1.282,-28.4612,5.3845,-39.2307,-10.5125,1.282,-11.5383,
-25.6409,30.2566,10.7693,-1.5383,-23.0769,67.6921,97.9485,2.5642,-30.2566,10.7693,-35.8977,-9.2307,1.5383,-12.3079,
-27.6924,25.1284,10.2563,-1.5386,-25.6411,61.5386,97.436,6.1538,-29.7437,10.2563,-39.4873,-12.8203,1.5386,-13.8462,
-28.7178,21.0254,8.2051,2.0513,-36.4102,55.3848,96.9229,3.0767,-25.6411,8.2051,-40.5127,-17.9487,-2.0513,-9.231,
-21.282,25.8977,11.5388,-0.76929,-34.6155,59.2307,102.8206,0.76929,-26.4099,9.4875,-38.2048,-13.5896,0.76929,-8.4612,
-18.4617,28.718,9.2307,-3.0769,-32.3079,62.051,107.1794,5.6409,-30.7693,3.5896,-41.5388,-11.7952,3.0769,-15.8977,
-23.5898,26.6665,3.5898,-1.5386,-38.4614,61.0254,104.6152,4.1025,-28.7178,5.1284,-43.5898,-13.3335,1.5386,-14.8716,
-22.564,28.7178,9.7437,1.5386,-34.8721,64.6152,106.1538,-1.5386,-24.1025,18.4614,-37.9487,-8.7178,2.564,-5.6411,
-18.4614,31.2822,13.8462,3.5898,-30.769,61.5386,105.6411,-3.5898,-27.6924,15.8975,-33.8462,-7.1797,5.6411,-8.2051,
-18.7178,28.4614,8.9746,0.25635,-36.1538,56.1538,105.3848,-0.25635,-26.9229,5.3848,-33.0771,-9.4873,5.3848,-9.4873,
-21.5381,28.2051,10.7695,4.6157,-40.5127,54.8721,104.6157,0,-19.4868,11.7949,-30.769,-10.769,-0.5127,0,
-16.4102,28.2051,13.3335,6.6665,-37.436,53.8462,105.1284,-5.6411,-20,14.8716,-31.7949,-17.436,-0.5127,0.5127,
-3.3333,26.9231,9.4871,3.3333,-32.051,55.6414,115.6414,-8.4617,-19.7434,11.0256,-32.051,-21.282,10.5129,-4.8718,
-7.1792,30.7695,6.1538,8.2051,-42.0513,55.8975,115.8975,-11.7949,-19.4868,12.3076,-30.2563,-14.3589,11.2822,-6.1538,
-15.8977,29.7434,6.6667,3.5896,-48.2053,49.2307,108.718,-17.949,-22.5642,14.8718,-29.7439,-10.2566,2.5642,-2.5642,
-0.8977,26.6665,11.7944,-1.0259,-33.2053,45.1279,120.5127,-21.0259,-20.5132,14.8716,-26.1543,-16.9233,8.7178,0,
8.4614,19.231,8.4614,-3.8462,-18.2053,33.5898,127.9487,-34.1025,-30,3.8462,-34.1025,-26.9229,6.4102,-13.5898,
8.4617,19.2307,12.5642,-3.3333,-10.5129,31.0256,122.8206,-39.2307,-32.0515,3.3333,-33.5896,-15.6409,3.8459,-15.6409,
3.8462,18.2051,6.9233,-1.7949,-19.7437,31.5386,112.564,-36.1538,-33.0767,4.8721,-34.6152,-14.1025,1.7949,-12.0513,
1.0256,16.9231,-1.0256,1.0256,-26.6667,32.8206,111.7947,-37.949,-32.3079,4.6155,-38.9744,-25.1282,1.5383,-9.2307,
6.4102,18.7178,5.8975,2.8203,-19.7437,33.5898,115.6411,-45.3848,-29.4873,-2.3076,-39.231,-28.9746,2.3076,-7.436,
11.7949,22.0513,10.2563,5.1279,-9.7437,29.231,120,-44.6152,-28.7178,-4.6152,-38.4614,-28.7178,4.6152,-9.231,
8.4614,17.6924,4.8716,0.25635,-16.6665,23.8462,118.7178,-42.3076,-26.4102,-0.25635,-38.2051,-24.8716,7.9487,-9.4873,
7.6926,14.3591,7.6926,1.0256,-25.6409,26.1541,117.949,-46.6663,-24.615,-1.0256,-35.8972,-24.1023,4.1028,-7.6921,
13.3335,18.9746,11.7949,5.1284,-21.5386,31.2822,121.5386,-47.6924,-19.4873,-2.564,-26.6665,-25.6411,2.564,-2.564,
6.1541,18.4617,1.0256,3.0769,-26.6667,20.5129,113.3333,-48.2051,-19.4871,-2.5642,-27.6921,-28.2053,1.0256,-1.0256,
1.2822,16.1538,2.3076,7.9487,-34.1025,11.0254,106.4102,-52.5642,-20.769,-0.76904,-34.1025,-32.564,0.76904,-1.7949,
11.0254,16.6665,16.1538,6.9229,-28.9746,19.7437,108.9741,-53.0769,-20.2563,-2.3076,-31.5386,-29.4873,2.3076,-3.8462,
15.6411,20.769,14.6152,5.8975,-23.8462,29.4873,110,-46.4104,-22.3076,-1.7949,-31.5386,-21.7949,1.7949,-1.7949,
4.3591,15.1282,1.282,5.8977,-36.1536,16.6667,103.8464,-48.9744,-23.3333,-1.7947,-34.1023,-29.9998,-0.76929,0.76929,
0,5.6411,0,7.6924,-47.1794,2.564,100.5127,-57.4358,-17.436,1.5386,-27.1792,-36.9231,-2.0513,0,
5.6411,8.7178,2.564,8.2051,-43.0769,7.6924,98.4614,-62.5642,-19.4873,3.0767,-25.6411,-30.769,-5.6411,-2.564,
5.3845,15.6409,1.7947,6.4104,-39.7434,16.6667,99.2307,-60.7693,-26.4104,-1.282,-30.0002,-26.4104,-8.4617,1.282,
9.2307,21.5383,5.1282,15.3845,-40.5129,16.4104,103.0769,-58.9744,-24.6155,-5.1282,-27.1794,-26.1541,-7.6921,6.6667,
18.718,21.282,6.4104,17.6921,-38.718,9.9998,99.7434,-62.3079,-24.8718,-3.3333,-27.4358,-31.5383,-8.9744,3.3333,
15.8975,16.9233,2.5645,11.2822,-42.0513,5.1284,97.436,-68.2051,-26.6665,-0.51269,-28.7178,-40.5127,-9.7437,0.5127,
7.4358,18.718,1.282,16.6667,-47.9487,7.4358,96.1536,-71.5386,-23.3333,-1.282,-25.3845,-30.5129,-10.0002,6.9231,
8.718,17.949,-1.0256,18.9744,-44.6152,13.8464,96.9231,-69.2307,-16.9231,1.0256,-21.0256,-16.4099,-5.1282,14.8718,
2.3076,10,-10.5132,16.6665,-49.4873,6.9229,97.6919,-72.0515,-13.0771,1.7949,-18.7183,-27.949,-1.7949,13.0767,
-1.5383,8.718,-7.6921,23.5896,-49.7437,1.5383,102.5642,-73.3333,-1.0256,6.1541,-8.718,-28.7178,1.0256,14.3591,
-3.0771,6.1538,-10.2563,19.4873,-47.6924,1.5386,94.3589,-77.9487,-0.5127,8.2051,-9.231,-21.0256,0.5127,16.4102,
-3.5898,6.1538,-17.9487,17.436,-49.2307,7.1797,84.6152,-80.5129,-7.6924,9.231,-14.8716,-22.0513,3.5898,20,
-0.25635,5.8975,-17.1797,16.6665,-52.0515,7.9487,87.9487,-80.7693,-10,5.8975,-15.6411,-23.3335,0.25635,21.7949,
8.2053,10.2566,-9.7434,16.4104,-50.7693,6.1541,90.7693,-81.0256,-6.6667,5.1282,-12.3079,-24.1025,-5.1282,15.8972,
10.2561,6.6663,-12.8206,11.7947,-56.9233,5.1282,82.5637,-88.7183,-8.718,3.0769,-16.4104,-32.8208,-3.0769,8.2048,
12.8203,6.6665,-16.9233,11.7949,-58.4617,12.3076,84.6152,-90.7693,-13.8462,-2.0513,-21.0259,-35.8975,2.0513,13.333,
22.3076,20.769,-6.9233,17.6924,-47.949,18.2051,97.1792,-83.3335,-17.6924,-0.25635,-18.7183,-32.0515,0.25635,17.6924,
19.4871,20.5125,-3.0769,8.7175,-47.6926,11.7947,97.4358,-85.1284,-15.8977,3.0769,-20.0002,-28.7183,-9.2312,10.7688,
13.5898,18.7178,-1.7949,10,-52.0513,12.0513,93.5898,-82.8206,-5.3848,1.7949,-14.6152,-24.8718,-6.9233,19.2305,
18.4617,26.1536,-3.0769,18.4617,-51.7949,14.3591,94.3591,-76.9231,-2.5642,-0.51294,-7.6921,-33.3335,0.51294,25.1282,
20.5129,23.5901,-11.7947,10.7693,-53.3333,5.6414,90.7693,-80.5127,-10.2561,2.5642,-13.3333,-36.9229,-2.5642,10.1282,
15.6409,17.1794,-13.0769,13.5896,-50,2.8206,89.9998,-79.7437,-7.4358,11.5383,-12.5642,-22.3079,-2.8206,12.051,
9.4873,9.4873,-13.0767,12.564,-47.9487,2.8203,85.3848,-85.3845,-5.3848,2.8203,-7.9487,-26.4102,-2.8203,22.8203,
10.2563,16.4102,-11.2822,14.3589,-44.6155,6.1538,82.0513,-86.6667,-3.0771,-0.5127,-4.6152,-33.8462,0.5127,20,
4.3591,24.3591,-14.1025,17.6921,-50.5127,2.3079,78.718,-82.3076,-5.8972,7.4358,-8.9744,-34.6155,-2.3079,10.0002,
2.0513,24.1025,-8.2051,14.3589,-48.718,6.1538,82.0513,-79.4873,-4.1025,11.7949,-6.1538,-31.2822,-2.0513,13.8462,
3.3333,21.7947,-7.4358,9.4871,-42.8206,10.5129,77.6921,-82.8206,-5.8972,4.3591,-9.4871,-34.1025,-3.3333,14.6155,
4.8718,24.8718,-7.9485,11.5383,-42.3076,4.3591,74.6155,-82.8206,-5.3845,3.3333,-12.5642,-32.564,-3.3333,14.1028,
9.7434,24.1028,0.51294,17.4358,-46.6665,-5.1282,81.5383,-82.0513,-2.5642,5.1282,-3.5896,-30.7693,-0.51294,16.9231,
17.9487,27.6924,0.5127,22.0513,-42.5642,6.1538,81.0254,-78.9744,-4.6152,-1.5386,-3.5898,-33.3335,-0.5127,14.8716,
32.9487,42.6924,1.0256,22.051,-33.8464,21.1538,77.4358,-68.2053,-3.5901,-1.5388,-9.2307,-26.6667,-1.0256,19.4871,
47.9487,57.6924,4.3591,22.3079,-45.8975,36.1538,75.6409,-69.4871,-14.6155,-4.3591,-18.718,-26.9231,-9.9998,16.6667,
62.9487,72.6924,9.4873,26.9229,-59.2307,51.1538,76.1538,-66.4104,-23.8462,-9.4873,-21.7949,-32.0513,-15.6411,12.564,
77.9487,87.6924,11.5386,25.3848,-63.3333,66.1538,68.9741,-54.1025,-21.2822,-10.5127,-22.3076,-41.7949,-18.2051,10.5127,
92.9487,102.6924,17.1792,26.9229,-68.4617,81.1538,62.8203,-48.9744,-19.231,-5.8975,-26.4102,-47.436,-21.2822,5.8975,
107.9487,117.6924,19.4873,29.231,-78.4617,96.1538,62.0513,-46.1538,-23.0771,-4.6152,-29.7437,-42.0513,-24.1025,4.6152,
122.9487,132.6924,19.7439,36.1541,-89.4871,111.1538,58.718,-36.6665,-21.7947,-11.0256,-28.4612,-34.6152,-29.4871,11.0256,
114.1028,147.6924,26.9231,42.8206,-98.718,126.1538,55.1282,-32.0513,-17.6921,-14.6155,-24.8718,-37.1794,-32.5642,14.6155,
120.769,162.6924,28.9746,47.9487,-104.3589,141.1538,55.1284,-31.5386,-20.2563,-7.9487,-23.8462,-40.2563,-33.0769,7.9487,
128.2048,177.6924,21.5383,51.7947,-118.9746,156.1538,52.3074,-27.6926,-23.0769,-3.0769,-27.1794,-34.3591,-35.8977,3.0769,
118.9744,192.6924,21.0256,46.1541,-129.7437,171.1538,51.282,-25.6409,-20.5129,-8.2053,-26.1541,-34.3591,-32.3079,8.2053,
103.9744,193.0769,28.4617,47.4358,-126.4102,183.3333,53.5896,-27.4358,-23.3333,-10.5129,-24.3591,-41.7949,-24.8718,10.5129,
94.8716,180,26.6665,51.7949,-124.6155,182.0513,52.8203,-24.6152,-24.1025,-3.5898,-27.1797,-38.4617,-23.5898,3.5898,
82.8206,167.949,11.6665,38.2053,-139.6155,174.1028,43.3333,-27.9485,-17.6921,1.282,-31.5383,-33.0769,-31.0256,-1.282,
67.8206,154.6152,0.76904,28.9741,-154.6155,168.4614,33.5898,-36.1538,-18.7178,-0.76904,-32.0513,-33.0771,-35.1284,10.5127,
52.8206,139.6152,1.2822,29.4873,-167.9487,161.7949,28.4614,-38.2051,-24.3589,-1.2822,-29.4873,-29.4873,-30.5127,20.2563,
37.8206,124.6152,-2.8206,26.9231,-166.9229,154.1028,19.2312,-34.615,-21.7947,2.8206,-31.0256,-34.1023,-30.5125,6.9231,
22.8206,109.6152,6.6667,29.2307,-168.7178,156.9231,20.0002,-29.7434,-18.9744,7.1794,-28.718,-42.0513,-31.7947,-2.5642,
7.8206,94.6152,21.6667,43.8459,-162.8206,166.9231,35.0002,-25.8972,-13.0769,10.0002,-20.2566,-36.1538,-20.7693,8.9744,
2.5642,94.8718,8.718,43.0769,-159.4873,158.9744,35.8972,-32.3079,-12.3079,-2.5642,-25.1282,-44.6155,-22.0515,3.5896,
17.5642,109.8718,1.7949,40.769,-144.4873,173.5898,40.2563,-17.3079,-11.0259,-1.7949,-19.7437,-34.1025,-18.7178,10.5127,
7.9487,124.8718,5.8975,40.2563,-146.9229,180.7695,41.2822,-5.8975,-24.8716,-6.4102,-22.8203,-25.3843,-25.3843,18.7183,
-3.3333,139.8718,20.8975,55.1282,-141.7949,179.7434,51.5383,-10.0002,-10.0002,3.3333,-16.6667,-23.8464,-17.1794,28.9744,
-18.3333,134.3589,17.436,40.5127,-145.1282,167.6924,42.564,-21.0259,-5.6411,5.6411,-21.0259,-37.9487,-21.5386,17.436,
-33.3333,129.4871,14.1028,44.3591,-148.4614,164.8718,41.7952,-12.5642,-11.0256,11.5383,-16.1536,-35.6409,-21.282,11.0256,
-48.3333,116.9229,22.564,56.4102,-149.7437,163.5898,46.6665,-14.8716,-8.2051,17.436,-11.7949,-40,-14.8716,8.2051,
-63.3333,128.2053,24.6155,46.1541,-143.5896,178.5898,44.1028,-20.5125,-5.1282,13.3337,-17.9485,-51.7947,-16.9231,5.1282,
-78.3333,143.2053,21.282,36.1536,-135.1284,193.5898,44.3586,-8.4617,-11.5383,8.4617,-17.6926,-45.3848,-22.8206,12.051,
-93.3333,158.2053,17.4358,40.5129,-134.8716,178.5898,48.718,-9.2307,-10.7693,9.2307,-17.4358,-38.9744,-22.051,14.8718,
-108.3333,163.3333,28.9744,54.1028,-137.1794,163.5898,42.8206,-17.6921,-7.4358,10.5129,-26.4104,-42.3079,-22.3079,7.4358,
-123.3333,178.3333,43.9744,49.7434,-128.2051,151.282,37.4358,-4.6155,-15.3845,8.718,-29.2307,-38.4617,-24.6155,4.6155,
-138.3333,193.3333,32.3076,34.7434,-113.2051,166.282,40.5127,3.5898,-30.3845,0.5127,-32.8203,-44.6152,-26.6665,-0.5127,
-128.9744,208.3333,23.3335,27.9487,-98.2051,158.7178,50,4.3589,-28.4614,4.8716,-38.2051,-50.5127,-19.231,-4.3589,
-134.1025,200.2566,27.949,42.9487,-90.5127,151.0256,52.5642,3.3333,-15.6409,12.0515,-35.1282,-47.9485,-14.1023,-3.3333,
-149.1025,214.3591,25.6409,39.4871,-98.9744,156.4104,42.5642,4.1028,-18.9744,1.5383,-32.3079,-48.2053,-18.9744,-1.5383,
-164.1025,229.3591,40.6409,43.5898,-103.0769,158.9746,38.9746,10.7695,-18.9741,-4.1025,-30.769,-46.6665,-15.3843,4.1025,
-179.1025,214.3591,55.6409,52.3074,-99.4873,143.9746,47.6921,1.0256,-16.4104,4.1023,-30.7693,-54.8718,-13.8464,-1.0256,
-175.8975,199.3591,47.6924,46.1538,-84.4873,140,62.6921,0.5127,-10.769,19.1023,-23.0771,-58.9744,-10.769,-0.5127,
-160.8975,209.7437,32.6924,31.1538,-69.4873,147.6924,65.1284,15.5127,-18.4614,12.8203,-28.7178,-67.1794,-12.3076,-6.6665,
-175.8975,219.231,42.8208,38.7183,-63.333,153.0771,60.7695,30.5127,-22.3076,7.436,-30.5127,-62.8203,-8.9741,-7.436,
-190.8975,206.9229,57.8208,53.7183,-48.9746,160.769,69.4868,45.5127,-23.3335,7.9487,-27.9487,-58.7183,-7.9487,-8.9746,
-175.8975,221.9229,72.8208,45.6406,-37.436,173.333,74.8716,60.5127,-20,6.1538,-28.7183,-53.3335,-6.1538,-8.2056,
-160.8975,236.9229,71.7947,45.1282,-47.1794,179.9998,72.3079,75.5127,-21.0256,3.0769,-39.4871,-45.1282,-15.8977,-3.0769,
-145.8975,221.9229,56.7947,48.718,-49.2307,174.8718,75.8977,69.2312,-16.9231,1.0256,-38.9744,-52.3074,-27.6921,-1.0256,
-130.8975,229.7437,71.7947,48.7178,-34.2307,164.1025,82.0513,56.9229,-5.1284,1.5386,-23.9744,-66.1541,-14.8721,-1.5386,
-115.8975,222.8206,86.7947,48.4617,-29.9998,155.6414,79.2307,71.0256,-4.3586,2.8206,-17.1794,-68.4614,-2.8206,-5.8972,
-100.8975,207.8206,101.7947,42.3076,-37.6924,153.5898,73.5898,73.5898,-7.9487,7.9487,-27.436,-63.8462,-15.6411,-15.1284,
-85.8975,192.8206,116.7947,41.282,-34.6155,157.1794,71.0256,68.4617,-8.4617,8.4617,-26.4104,-66.4104,-25.3845,-15.6409,
-70.8975,177.8206,131.7947,41.5386,-21.5386,160,76.9233,75.8975,-19.4873,2.0513,-27.6924,-75.3845,-22.564,-14.3589,
-55.8975,162.8206,146.7947,36.1538,-18.7183,153.5894,74.1025,71.0254,-34.4873,-10,-42.6924,-90.3845,-30.5132,-29.3589,
-40.8975,147.8206,154.6155,23.3333,-23.3333,145.8977,63.3333,56.1541,-49.4873,-24.3591,-57.6924,-98.718,-45.3845,-44.3589,
-25.8975,132.8206,168.4614,15.6411,-15.6411,148.4614,75.1284,48.9746,-55.6411,-30,-57.6924,-99.7437,-45.8975,-41.2822,
-10.8975,117.8206,166.4106,7.9487,-7.9487,136.1538,80.7695,34.1025,-69.4868,-36.6665,-72.0513,-114.7437,-55.1279,-56.2822,
4.1025,102.8206,151.4106,-3.5898,3.5898,128.2051,74.8721,30.7695,-75.8975,-36.4102,-84.1025,-129.7437,-59.4873,-71.2822,
19.1025,87.8206,154.1025,-4.3589,4.3589,127.9487,68.9746,32.0513,-67.9487,-38.2051,-80.2563,-122.3076,-58.2051,-82.3076,
34.1025,72.8206,153.3335,-14.8716,14.8716,114.8716,68.7178,17.9487,-82.9487,-51.2822,-95.2563,-137.3076,-69.231,-97.3076,
49.1025,59.4871,153.8459,-18.9744,21.5383,108.7175,66.1536,18.9744,-97.9487,-49.7439,-109.2312,-152.3076,-72.3079,-99.4875,
34.1025,44.4871,138.8459,-3.9744,6.5383,93.7175,51.1536,33.9744,-82.9487,-34.7439,-94.2312,-137.3076,-72.8206,-84.4875,
19.1025,29.4871,123.8459,11.0256,-8.4617,78.7175,36.1536,47.4359,-67.9487,-19.7439,-79.2312,-122.3076,-76.1537,-69.4875,
4.1025,14.4871,108.8459,26.0256,-23.4617,63.7175,21.1536,46.4102,-52.9487,-4.7439,-64.2312,-107.3076,-88.4614,-54.4875,
-10.8975,-0.51294,93.8459,41.0256,-38.4617,48.7175,6.1536,61.4102,-37.9487,10.2561,-49.2312,-92.3076,-86.9232,-39.4875,
-25.8975,-15.5129,78.8459,56.0256,-53.4617,33.7175,-8.8464,76.4102,-22.9487,25.2561,-34.2312,-77.3076,-87.6923,-24.4875,
-40.8975,-30.5129,63.8459,71.0256,-68.4617,18.7175,-23.8464,91.4102,-7.9487,40.2561,-19.2312,-62.3076,-94.359,-9.4875,
-55.8975,-45.5129,48.8459,86.0256,-83.4617,3.7175,-38.8464,92.3077,7.0513,55.2561,-4.2312,-47.3076,-92.3077,5.5125,
-70.8975,-60.5129,33.8459,101.0256,-98.4617,-11.2825,-53.8464,93.5897,22.0513,70.2561,10.7688,-32.3076,-93.5897,20.5125,
-85.8975,-75.5129,18.8459,116.0256,-113.4617,-26.2825,-68.8464,85.3846,37.0513,85.2561,25.7688,-17.3076,-104.8717,35.5125,
-100.8975,-90.5129,3.8459,131.0256,-128.4617,-41.2825,-83.8464,70.3846,52.0513,100.2561,40.7688,-2.3076,-104.1024,50.5125,
-115.8975,-105.5129,-11.1541,146.0256,-143.4617,-56.2825,-98.8464,55.3846,67.0513,115.2561,55.7688,12.6924,-104.6155,65.5125,
-130.8975,-99.7437,-26.1541,161.0256,-158.4617,-71.2825,-113.8464,40.3846,82.0513,130.2561,70.7688,27.6924,-118.2051,80.5125,
-145.8975,-114.7437,-19.7435,176.0256,-173.4617,-86.2825,-128.8464,25.3846,97.0513,115.2561,85.7688,42.6924,-120.7692,95.5125,
-160.8975,-129.7437,-34.1025,191.0256,-188.4617,-101.2825,-143.8464,34.1025,112.0513,130.2561,100.7688,57.6924,-120.7693,110.5125,
-175.8975,-144.7437,-49.1025,206.0256,-203.4617,-116.2825,-158.8464,49.1025,127.0513,145.2561,115.7688,72.6924,-126.6666,125.5125,
-190.8975,-159.7437,-64.1025,221.0256,-218.4617,-131.2825,-173.8464,64.1025,142.0513,160.2561,130.7688,87.6924,-123.8462,140.5125,
-205.8975,-154.1027,-76.6666,236.0256,-233.4617,-146.2825,-188.8464,76.6666,157.0513,175.2561,145.7688,102.6924,-109.9999,155.5125,
-220.8975,-169.1027,-81.0256,251.0256,-248.4617,-161.2825,-203.8464,81.0256,172.0513,190.2561,160.7688,117.6924,-101.5383,170.5125,
-235.8975,-184.1027,-68.2052,266.0256,-263.4617,-176.2825,-218.8464,68.2052,187.0513,205.2561,175.7688,132.6924,-102.5641,185.5125,
-250.8975,-199.1027,-53.2052,281.0256,-278.4617,-191.2825,-203.8464,53.2052,202.0513,190.2561,190.7688,147.6924,-115.641,200.5125,
-265.8975,-214.1027,-38.2052,267.9486,-293.4617,-206.2825,-188.8464,38.2052,217.0513,175.2561,205.7688,150.5128,-128.4615,215.5125,
-280.8975,-229.1027,-23.2052,252.9486,-308.4617,-196.4103,-173.8464,23.2052,232.0513,160.2561,220.7688,135.5128,-135.3846,230.5125,
-295.8975,-244.1027,-8.2052,237.9486,-323.4617,-181.4103,-158.8464,8.2052,247.0513,145.2561,235.7688,120.5128,-135.6411,245.5125,
-310.8975,-259.1027,-4.1025,222.9486,-333.3333,-167.1794,-143.8464,4.1025,256.9231,130.2561,250.7688,105.5128,-129.7437,235.3845,
-298.4615,-274.1027,-4.6154,207.9486,-318.3333,-158.9742,-128.8464,4.6154,250.7694,115.2561,265.7688,90.5128,-124.1024,228.7181,
-309.4873,-289.1027,-5.8975,201.282,-309.4873,-159.7437,-118.718,5.8975,260.2563,100.2561,280.7688,75.5128,-124.3591,236.1538,
-324.4873,-304.1027,-7.9487,216.282,-324.4873,-173.0769,-133.5898,7.9487,275.2563,85.2561,295.7688,60.5128,-118.718,251.1538,
-339.4873,-319.1027,-9.7435,227.6923,-339.4873,-180.0001,-134.359,9.7435,290.2563,98.9742,310.7688,69.2308,-107.1796,266.1538,
-354.4873,-334.1027,-7.6924,242.6923,-354.4873,-190.2563,-149.359,7.6924,305.2563,106.6667,325.7688,72.8206,-108.718,281.1538,
-369.4873,-349.1027,-8.2052,257.6923,-369.4873,-205.2563,-164.359,8.2052,320.2563,107.1796,340.7688,84.6154,-112.8204,296.1538,
-381.795,-364.1027,-8.4615,253.5897,-377.6925,-211.5385,-152.0514,8.4615,335.2563,110.5128,355.7688,94.1024,-107.4359,294.6154,
-366.795,-379.1027,4.359,238.5897,-362.6925,-196.5385,-137.0514,-4.359,320.2563,95.5128,340.7688,79.1024,-111.0255,279.6154,
-351.795,-394.1027,19.359,223.5897,-347.6925,-181.5385,-122.0514,-15.8973,305.2563,80.5128,325.7688,64.1024,-113.3334,264.6154,
-336.795,-409.1027,34.359,208.5897,-332.6925,-166.5385,-107.0514,-4.8718,290.2563,65.5128,310.7688,49.1024,-98.3334,249.6154,
-321.795,-424.1027,49.359,193.5897,-317.6925,-151.5385,-92.0514,-15.8975,275.2563,50.5128,295.7688,34.1024,-83.3334,234.6154,
-306.795,-439.1027,64.359,178.5897,-302.6925,-136.5385,-77.0514,-0.89746,260.2563,35.5128,280.7688,19.1024,-68.3334,219.6154,
-291.795,-454.1027,79.359,163.5897,-287.6925,-121.5385,-62.0514,14.1025,245.2563,20.5128,265.7688,4.1024,-53.3334,204.6154,
-276.795,-469.1027,94.359,148.5897,-272.6925,-106.5385,-47.0514,29.1025,230.2563,5.5128,250.7688,-10.8976,-38.3334,189.6154,
-261.795,-484.1027,109.359,133.5897,-257.6925,-91.5385,-32.0514,44.1025,215.2563,-9.4872,235.7688,-25.8976,-23.3334,174.6154,
-246.795,-499.1027,124.359,118.5897,-242.6925,-76.5385,-17.0514,47.6921,200.2563,-24.4872,220.7688,-40.8976,-8.3334,159.6154,
-231.795,-514.1027,139.359,103.5897,-227.6925,-61.5385,-2.0514,48.7178,185.2563,-30.769,205.7688,-55.8976,6.6666,144.6154,
-216.795,-529.1027,154.359,88.5897,-212.6925,-46.5385,12.9486,54.1023,170.2563,-37.1794,190.7688,-70.8976,21.6666,129.6154,
-201.795,-544.1027,169.359,73.5897,-197.6925,-31.5385,27.9486,52.564,155.2563,-42.8203,175.7688,-85.8976,36.6666,114.6154,
-186.795,-559.1027,184.359,58.5897,-182.6925,-16.5385,42.9486,47.1794,140.2563,-47.1794,160.7688,-100.8976,49.7434,99.6154,
-171.795,-574.1027,199.359,43.5897,-167.6925,-1.5385,57.9486,53.0771,125.2563,-53.0771,145.7688,-115.8976,61.2822,84.6154,
-156.795,-589.1027,214.359,28.5897,-152.6925,13.4615,72.9486,59.7434,110.2563,-59.7434,130.7688,-130.8976,68.9744,69.6154,
-141.795,-604.1027,229.359,13.5897,-137.6925,28.4615,87.9486,59.4871,95.2563,-59.4871,115.7688,-145.8976,74.8718,54.6154,
-126.795,-619.1027,244.359,-1.4103,-122.6925,43.4615,102.9486,62.3079,80.2563,-62.3079,100.7688,-160.8976,76.6667,39.6154,
-111.795,-634.1027,259.359,-16.4103,-107.6925,58.4615,117.9486,68.7178,65.2563,-68.7178,85.7688,-175.8976,80.5127,24.6154,
-96.795,-649.1027,274.359,-31.4103,-92.6925,73.4615,132.9486,66.4102,50.2563,-66.4102,70.7688,-190.8976,92.0513,9.6154,
-81.795,-664.1027,289.359,-46.4103,-77.6925,88.4615,147.9486,63.0769,35.2563,-63.0769,55.7688,-205.8976,105.1282,-5.3846,
-66.795,-679.1027,304.359,-61.4103,-62.6925,103.4615,162.9486,70.7693,20.2563,-70.7693,40.7688,-220.8976,110.7693,-20.3846,
-51.795,-694.1027,319.359,-76.4103,-47.6925,118.4615,177.9486,77.1794,5.2563,-77.1794,25.7688,-235.8976,112.051,-35.3846,
-36.795,-709.1027,334.359,-91.4103,-32.6925,133.4615,192.9486,74.1025,-9.7437,-74.1025,10.7688,-250.8976,112.0513,-50.3846,
-21.795,-724.1027,349.359,-106.4103,-17.6925,148.4615,207.9486,70,-24.7437,-70,-4.2312,-265.8976,117.6924,-65.3846,
-6.795,-709.1027,364.359,-121.4103,-2.6925,163.4615,222.9486,70,-39.7437,-70,-19.2312,-270,125.8975,-80.3846,
8.205,-694.1027,379.359,-136.4103,12.3075,178.4615,237.9486,76.9231,-54.7437,-76.9231,-34.2312,-275.3845,125.6409,-95.3846,
23.205,-679.4871,394.359,-151.4103,27.3075,193.4615,252.9486,83.0769,-69.7437,-83.0769,-49.2312,-286.1536,127.6926,-110.3846,
38.205,-664.4871,409.359,-166.4103,42.3075,208.4615,267.9486,84.6155,-84.7437,-84.6155,-64.2312,-288.718,129.7434,-125.3846,
53.205,-649.4871,424.359,-181.4103,57.3075,223.4615,282.9486,87.4358,-99.7437,-87.4358,-79.2312,-289.4871,127.949,-140.3846,
68.205,-634.4871,439.359,-178.9741,72.3075,238.4615,297.9486,88.2051,-114.7437,-88.2051,-94.2312,-289.231,131.2822,-155.3846,
83.205,-619.4871,454.359,-185.6409,87.3075,253.4615,312.9486,83.5896,-129.7437,-83.5896,-109.2312,-281.0256,127.6921,-170.3846,
98.205,-604.4871,447.6919,-188.2056,102.3075,268.4615,327.9486,84.1025,-144.7437,-84.1025,-124.2312,-289.7437,124.6152,-185.3846,
113.205,-589.4871,462.6919,-173.2056,117.3075,283.4615,342.9486,89.231,-159.7437,-89.231,-139.2312,-304.7437,138.4614,-200.3846,
128.205,-574.4871,475.8975,-161.0254,132.3075,298.4615,357.9486,86.1538,-174.7437,-86.1538,-154.2312,-305.6411,146.1538,-215.3846,
143.205,-559.4871,460.8975,-176.0254,147.3075,313.4615,372.9486,80,-189.7437,-80,-169.2312,-290.6411,133.8462,-230.3846,
158.205,-561.2822,447.9487,-179.231,162.3075,328.4615,387.9486,80.2563,-204.7437,-80.2563,-184.2312,-301.7949,131.5386,-245.3846,
173.205,-552.3074,458.4617,-169.2307,177.3075,343.4615,402.9486,83.0769,-219.7437,-83.0769,-199.2312,-305.6409,137.4358,-255.3845,
188.205,-550.7693,443.4617,-172.3079,192.3075,358.4615,393.8459,84.6155,-234.7437,-84.6155,-214.2312,-294.3591,130.2566,-254.8718,
203.205,-548.9744,432.051,-171.0256,207.3075,358.718,387.9485,83.8459,-249.7437,-83.8459,-229.2312,-288.4617,127.4358,-259.2307,
218.205,-533.9744,434.6152,-170,222.3075,359.2305,390.5127,81.7949,-264.7437,-81.7949,-244.2312,-281.7949,133.5894,-255.6411,
233.205,-528.9741,427.436,-173.5898,237.3075,350,379.7437,84.3589,-269.4873,-84.3589,-259.2312,-279.7437,130,-258.7178,
248.205,-543.9741,416.9231,-173.8459,252.3075,336.9231,364.7437,85.6409,-270.7693,-85.6409,-274.2312,-277.9485,122.5642,-263.5896,
263.205,-552.0513,406.9229,-168.9746,267.3075,330.5127,356.6665,78.7178,-260.2563,-78.7178,-289.2312,-266.9233,123.8462,-249.4873,
278.205,-551.0254,401.2822,-162.3076,282.3075,320.7695,350,74.6152,-246.9229,-74.6152,-292.0513,-262.8203,127.9487,-234.4873,
293.205,-563.5896,400.5127,-158.9741,297.3075,307.6924,339.4873,76.4102,-241.5386,-76.4102,-282.0513,-266.1538,125.1284,-225.6411,
308.205,-578.5896,396.6665,-149.4873,312.3075,300.769,333.0771,74.6152,-237.1792,-74.6152,-270,-263.8462,119.7437,-218.7178,
319.231,-593.5896,385.8975,-143.3335,327.3075,289.4873,331.0254,70,-226.4102,-70,-260.769,-264.8716,121.7949,-215.6411,
304.231,-578.5896,374.8718,-143.0769,342.3075,274.4873,320.5129,67.1794,-215.8972,-67.1794,-250.7693,-265.6409,124.1028,-214.3591,
289.231,-563.5896,366.1538,-136.4102,357.3075,259.4873,305.5129,66.1538,-210.769,-66.1538,-239.4868,-253.8462,119.4873,-205.6406,
274.231,-578.5896,357.1797,-134.1025,372.3075,244.4873,290.5129,62.3076,-198.2051,-62.3076,-228.4614,-240.2563,113.0771,-194.1025,
259.231,-563.5896,350.2563,-132.3076,387.3075,229.4873,275.5129,55.8975,-189.231,-55.8975,-227.1797,-234.8716,107.1797,-194.3589,
244.231,-548.5896,335.2563,-147.3076,385.3848,214.4873,260.5129,40.8975,-204.231,-70.8975,-242.1797,-249.8716,92.1797,-209.3589,
229.231,-533.5896,320.2563,-162.3076,370.3848,199.4873,245.5129,25.8975,-219.231,-85.8975,-257.1797,-264.8716,77.1797,-224.3589,
214.231,-518.5896,305.2563,-177.3076,355.3848,184.4873,230.5129,10.8975,-234.231,-100.8975,-272.1797,-279.8716,62.1797,-239.3589,
199.231,-503.5896,290.2563,-168.4617,340.3848,169.4873,215.5129,-4.1025,-247.4358,-115.8975,-272.0515,-294.8716,47.1797,-229.4871,
184.231,-488.5896,275.2563,-153.4617,325.3848,170.2561,200.5129,-7.1794,-232.4358,-130.8975,-257.0515,-309.8716,32.1797,-214.4871,
169.231,-473.5896,260.2563,-138.4617,310.3848,172.564,185.5129,-1.2822,-217.4358,-122.8203,-242.0515,-294.8716,17.1797,-199.4871,
154.231,-458.5896,245.2563,-123.4617,295.3848,161.2822,170.5129,-0.25635,-202.4358,-107.8203,-227.0515,-279.8716,2.1797,-184.4871,
139.231,-443.5896,230.2563,-112.5642,280.3848,153.0769,155.5129,0.76929,-191.5383,-100.7693,-212.0515,-274.1023,-0.76929,-177.6921,
124.231,-428.5896,215.2563,-115.1279,265.3848,146.9233,140.5129,-0.25635,-195.1279,-113.5898,-213.0767,-278.7178,0.25635,-181.2822,
109.231,-413.5896,219.7437,-122.8203,250.3848,132.564,130,-5.8975,-196.6665,-113.5898,-218.7178,-274.1025,5.8975,-186.9229,
99.7437,-398.5896,225.8975,-120.2563,247.9487,127.9487,130,-7.9487,-202.8203,-105.8975,-221.7949,-270.5127,7.9487,-184.3589,
84.7437,-383.5896,222.3081,-114.1025,246.4106,132.0513,134.1025,-10,-202.8203,-113.5894,-216.6665,-274.1025,10,-177.1792,
69.7437,-368.5896,213.0769,-106.9231,231.4106,131.5383,129.4871,-12.5642,-190.5129,-116.6667,-205.8972,-276.6667,12.5642,-174.6155,
59.2305,-353.5896,210,-107.9487,216.4106,131.0254,120.2563,-13.5898,-185.3848,-102.3076,-200.7695,-270,13.5898,-171.5386,
74.2305,-338.5896,209.7437,-108.2051,221.0259,131.7949,121.0259,-14.3589,-187.6924,-93.8462,-205.1279,-261.5386,14.3589,-165.6411,
89.2305,-323.5896,211.5386,-102.3076,229.4873,134.6152,123.333,-17.6924,-178.7183,-94.6157,-203.3335,-257.6924,17.6924,-160.7695,
104.2305,-308.5896,221.5383,-109.2307,233.8459,141.5383,117.4358,-25.1282,-177.9485,-100.0002,-200.0002,-267.1794,25.1282,-167.1794,
119.2305,-293.5896,233.8462,-112.3076,248.8459,154.8716,123.0767,-37.9487,-189.7437,-91.7949,-206.1538,-266.6665,37.9487,-173.3335,
134.2305,-278.5896,237.6926,-105.8972,263.8459,167.4363,138.0767,-48.9744,-184.3586,-76.7949,-208.4612,-251.6665,48.9744,-158.718,
149.2305,-263.5896,242.051,-102.5642,278.8459,182.4363,141.5383,-53.3333,-178.9744,-71.282,-204.6155,-243.0769,53.3333,-152.8206,
164.2305,-248.5896,253.3335,-101.5386,293.8459,197.4363,141.5386,-55.8975,-193.3335,-86.282,-208.7178,-258.0769,55.8975,-166.1538,
179.2305,-233.5896,267.1792,-97.436,308.8459,208.7178,156.5386,-62.0513,-188.2051,-81.5386,-205.6411,-255.8975,62.0513,-156.4102,
194.2305,-218.5896,270.5127,-93.0771,320.769,210,165.8975,-77.0513,-173.5898,-66.5386,-201.2822,-240.8975,59.7437,-141.4102,
209.2305,-203.5896,264.8718,-95.1282,314.6155,215.6409,155.1282,-92.0513,-179.2307,-59.7434,-203.3333,-245.3845,59.7434,-151.0256,
224.2305,-188.5896,260.5127,-96.9229,310.2563,226.1538,147.6924,-95.8975,-184.6152,-64.1025,-203.5898,-250.769,64.1025,-158.9741,
239.2305,-173.5896,260.7693,-95.6409,314.1028,235.6409,150.0002,-97.6921,-182.3074,-64.3591,-204.8718,-244.3586,64.3591,-153.5896,
254.2305,-158.5896,268.4614,-97.6924,325.3848,244.8716,156.1538,-98.7178,-184.8716,-65.3848,-207.9487,-240.769,65.3848,-150.5127,
269.2305,-143.5896,275.1282,-94.6155,327.949,251.5388,155.1282,-95.6409,-187.9485,-68.9744,-207.4358,-245.8972,68.9744,-151.5383,
284.2305,-128.5896,269.4871,-95.6414,327.9485,254.6155,152.051,-96.1541,-186.9231,-68.9744,-207.949,-244.8718,68.9744,-153.0769,
299.2305,-113.5896,258.9744,-106.1541,329.2307,246.1536,152.8206,-107.1794,-190.2566,-65.1282,-214.8718,-244.1028,65.1282,-161.0256,
314.2305,-98.5896,257.9487,-105.1284,332.3076,235.3848,157.436,-114.8716,-193.8462,-68.7178,-215.8975,-255.8975,68.7178,-161.5386,
329.2305,-83.5896,254.6152,-101.2822,332.564,236.6665,159.7437,-112.5645,-189.4873,-76.1538,-208.9746,-259.231,76.1538,-152.0513,
344.2305,-68.5896,242.564,-100,317.564,225.6411,153.8462,-114.8716,-182.564,-74.3589,-204.6152,-255.3848,74.3589,-149.7437,
359.2305,-53.5896,236.1541,-100.7693,302.564,210.6411,149.4871,-120.7693,-178.2048,-68.4617,-199.7434,-252.5642,68.4617,-147.9485,
374.2305,-38.5896,231.0256,-103.3333,299.7434,198.718,148.9744,-118.2048,-184.8718,-64.8718,-200.7693,-240.7693,64.8718,-146.4104,
389.2305,-23.5896,226.1538,-100,298.4614,205.1284,148.7178,-113.3335,-187.1797,-66.1538,-202.564,-233.3335,66.1538,-143.0771,
404.2305,-8.5896,220.5127,-103.0771,283.4614,192.3076,143.0767,-118.4614,-172.1797,-66.1538,-196.9229,-243.0771,66.1538,-140,
419.2305,6.4104,215.3843,-104.6157,272.8203,184.1025,132.3076,-118.4619,-164.1025,-60,-196.4102,-247.6924,60,-142.5645,
434.2305,21.4104,219.4871,-91.7947,287.8203,199.1025,141.5383,-103.4619,-176.9231,-65.1282,-195.8972,-237.4358,65.1282,-132.3079,
449.2305,36.4104,227.6924,-80,300,214.1025,156.5383,-90.2563,-172.8208,-76.4102,-184.6157,-229.231,76.4102,-117.3079,
464.2305,51.4104,226.6667,-74.8718,285,212.3079,163.0769,-92.3074,-159.9998,-74.8718,-175.8972,-233.8459,74.8718,-118.4612,
479.2305,66.4104,214.6152,-80.769,270,197.3079,148.0769,-99.7437,-160.769,-69.4873,-173.0771,-234.6152,69.4873,-120.2563,
494.2305,81.4104,203.8464,-85.3845,255,191.0256,142.8206,-103.3333,-164.3586,-66.9231,-173.0769,-228.9744,66.9231,-113.5896,
509.2305,96.4104,194.6155,-90.5129,246.4104,183.8464,137.1794,-107.9485,-164.8718,-64.3591,-181.282,-231.0256,64.3591,-125.8972,
524.2305,111.4104,190,-105.5129,237.1792,178.7178,124.3589,-114.1025,-172.564,-59.7437,-195.6411,-232.564,59.7437,-139.231,
