"AF3","AF4","F3","F4","F7","F8","FC5","FC6","O1","O2","P7","P8","T7","T8",
-0.76929,-17.1794,-3.8459,-262.8206,18.2053,-258.718,-126.4102,4.8718,-196.1538,0.76929,6.9231,3.8459,7.9485,2.8206,
7.4358,-2.1794,2.3074,-277.8206,13.5896,-273.718,-111.4102,-0.76929,-206.9231,-6.4104,-2.3079,3.3333,2.3074,0.76929,
5.3845,-14.6155,-11.0259,-292.8206,6.9231,-288.718,-96.4102,4.8718,-210.5129,0.76929,4.3586,13.5896,-0.76929,4.3586,
3.0767,-2.0513,0,-301.5386,21.9231,-296.9233,-102.0515,0,-195.5129,-1.5386,10.2563,1.0254,14.2307,6.1538,
12.0513,-17.0513,-15,-316.5386,8.4614,-311.9233,-117.0515,10.5127,-210.5129,5.3848,2.3076,8.4614,-0.76929,9.4873,
3.5898,-17.436,-5.1284,-302.5642,22.0513,-296.9233,-114.3591,3.5898,-198.9744,-3.5898,10.2563,6.6665,12.8203,5.1279,
9.7434,-2.436,9.8716,-287.5642,19.9998,-281.9233,-99.3591,5.6409,-183.9744,-4.6155,0.51294,1.5383,-0.51294,-2.5642,
9.231,0,-2.0513,-302.5642,15.3848,-296.9233,-84.3591,12.3081,-177.4358,9.231,3.5898,10.7695,-6.1538,0,
3.5896,7.1794,8.2048,-296.9231,30.2561,-292.3079,-80.5129,0.51294,-191.7949,-1.5383,6.1536,-2.5642,8.8462,-0.51294,
18.5896,-7.8206,-6.7952,-311.9231,23.0771,-307.3079,-95.5129,15.5129,-206.7949,8.2051,2.0513,11.7949,-2.0513,12.3076,
6.6667,-22.8206,-4.6155,-323.0769,29.7434,-314.3589,-110.5129,4.1028,-203.5896,-3.0769,4.6155,4.1028,10.2566,3.0769,
13.3333,-7.8206,10.3845,-308.0769,27.6921,-299.3589,-95.5129,1.0256,-188.5896,-4.1028,-0.51294,0.51294,4.6155,-3.0769,
14.8716,-2.564,-0.51269,-293.0769,17.9487,-284.3589,-80.5129,11.2817,-173.5896,8.2051,1.0254,12.3076,-8.2053,0.5127,
7.4358,2.3079,8.9744,-278.0769,32.9487,-269.3589,-75.6409,0.76929,-188.5896,-2.3074,5.8977,-2.6924,6.7947,-0.76929,
22.4358,-12.6921,-6.0256,-293.0769,24.6152,-284.3589,-90.6409,15.7693,-203.5896,8.7178,-1.5386,10.2563,1.5386,5.6411,
11.2817,-27.6921,-14.8721,-308.0769,25.6411,-299.3589,-105.6409,3.0767,-218.5896,0,0.5127,7.1792,4.1025,0,
11.0259,-12.6921,0.12793,-293.0769,27.9487,-284.3589,-90.6409,-1.7949,-203.5896,-4.3589,1.7949,-2.8203,7.436,3.3335,
8.4614,-1.7949,-6.9229,-278.0769,12.9487,-269.3589,-75.6409,5.8975,-188.5896,1.7949,1.7949,6.4102,-5.3843,1.7949,
8.9746,7.9487,8.0771,-263.0769,27.9487,-254.3589,-68.4614,-2.8203,-184.8716,-5.3843,11.0259,1.7949,9.6157,-1.7949,
18.4617,-7.0513,-6.9229,-278.0769,20.5129,-269.3589,-83.4614,7.6921,-199.8716,3.0769,1.0256,4.6155,1.5383,-1.0256,
3.4617,-22.0513,-21.5386,-293.0769,13.333,-284.3589,-98.4614,5.6411,-214.8716,2.0513,5.6411,2.564,7.6924,-2.0513,
10,-7.0513,-6.5386,-278.0769,20.2563,-269.3589,-83.4614,0.25635,-199.8716,-3.8462,4.3589,-0.25635,9.4868,-0.76953,
13.8459,-14.3589,-0.51294,-263.0769,8.718,-254.3589,-72.8206,10.2566,-184.8716,6.6667,0.51294,12.3079,-5.5132,1.0256,
3.8462,-3.3335,13.5898,-248.0769,22.8203,-247.436,-80.2563,0.76904,-169.8716,-0.25635,10,0.25635,9.4868,-3.3335,
18.8462,-18.3335,-1.4102,-263.0769,11.282,-262.436,-95.2563,8.2053,-184.8716,7.1794,5.6409,4.6155,1.5383,-1.5383,
11.7949,-20.5127,-5.1279,-278.0769,10.2563,-277.436,-109.7434,5.6411,-199.8716,8.2051,8.2051,5.1284,2.564,-2.564,
7.9487,-5.5127,9.8721,-263.0769,14.6157,-262.436,-94.7434,1.7949,-184.8716,-2.8203,5.3848,-3.333,11.0259,-1.7949,
16.9231,-20.5127,-5.1279,-248.0769,2.5642,-247.436,-109.7434,16.7949,-173.3333,12.1797,7.6921,11.667,-2.5642,7.6921,
1.9231,-5.6406,2.5645,-233.0769,12.8208,-232.436,-101.5383,1.7949,-170.2561,6.667,12.3081,6.667,11.7949,-2.0513,
10.5127,1.2822,-3.3335,-248.0769,-0.25635,-247.436,-112.5642,7.9487,-185.2561,3.8462,3.8462,3.8462,-2.8203,0.25635,
7.1792,-10.769,-2.564,-263.0769,-2.0513,-262.436,-97.5642,12.8203,-200.2561,5.1279,14.3589,12.3076,2.0513,5.6411,
1.5383,2.5642,8.2048,-278.0769,8.2048,-261.0256,-82.5642,0.51294,-185.2561,-3.5896,12.8206,-0.51294,14.3591,-4.6155,
16.5383,-12.4358,-6.7952,-265.8976,1.2821,-262.8207,-97.5642,15.5129,-200.2561,11.4104,8.4613,14.4871,-0.64087,5.8973,
1.5383,2.5642,5.8977,-250.8976,5.8977,-247.8207,-112.564,8.9744,-195.6409,-2.8206,3.8464,-0.51294,3.8464,-2.8206,
11.0259,17.5642,10.5132,-265.8976,4.3589,-262.8207,-97.564,12.5645,-204.3589,-2.3076,0.25635,0.25635,-1.2817,-0.25635,
8.2051,7.1797,0.51269,-280.8976,-0.5127,-277.8207,-82.564,11.2822,-205.6409,3.0771,6.1538,10.2563,-1.5386,-0.5127,
9.4873,13.5898,10,-286.9231,14.4873,-273.5898,-84.3589,1.7949,-190.6409,-6.4102,10.5127,-2.8203,13.4614,-1.7949,
19.2305,-1.4102,-5,-301.9231,3.8462,-288.5898,-99.3589,16.7949,-205.6409,5.8975,5.3843,6.9229,-1.5386,2.3076,
5.6409,-10.2561,-1.5383,-286.9231,13.3333,-273.5898,-106.6665,8.718,-190.6409,1.5383,15.8977,3.5896,13.4614,-1.5383,
7.9487,4.7439,5.8975,-271.9231,3.8462,-258.5898,-91.6665,3.3335,-175.6409,-4.8716,3.8462,-3.3335,3.8462,-6.9229,
5.8972,7.4358,1.282,-268.9744,0.76929,-246.9231,-76.6665,5.3845,-160.6409,-2.8206,5.3845,-0.76929,3.3333,-5.8972,
6.1536,5.6409,-2.0515,-267.1797,-1.0256,-242.5642,-61.6665,8.7175,-153.3335,1.0256,9.2307,3.5896,4.1023,-3.0769,
4.8721,1.7949,-6.9229,-266.4102,-3.8462,-239.7434,-49.9998,10.5132,-154.1023,3.3335,11.0259,6.4106,3.8462,-1.7949,
4.6152,-0.5127,-10.769,-265.1282,-6.1538,-236.4102,-51.7947,13.3335,-154.3589,6.6665,14.3589,10.2563,4.1025,0.5127,
3.8462,-2.8203,-14.1025,-263.3333,-7.9487,-232.5642,-53.5898,16.6665,-154.1025,10,17.1797,14.1025,4.8716,2.8203,
4.6155,-4.6155,-16.9231,-261.0259,-9.231,-228.2053,-54.3591,20.5125,-153.3335,14.3586,21.5383,18.4612,5.6409,5.6409,
-6.9233,-1.7949,-3.8462,-270.5129,5.769,-243.2053,-69.3591,6.4102,-168.3335,3.3335,19.2305,5.3848,18.7178,1.7949,
3.3335,-16.7949,-18.8462,-285.5129,-3.3335,-258.2053,-84.3591,17.6924,-183.3335,13.5898,14.1025,16.6665,4.3589,9.4873,
-3.0769,-31.7949,-27.1794,-300.5129,3.0769,-273.2053,-99.3591,17.949,-198.3335,16.9231,29.1025,22.5642,19.3589,15.3845,
-2.5642,-16.7949,-12.1794,-285.5129,-2.5642,-258.2053,-84.3591,6.1541,-183.3335,5.6409,18.4617,7.5642,13.8464,6.1541,
6.1538,-10.2563,-14.8718,-270.5129,-6.1538,-243.2053,-69.3591,17.436,-168.3335,16.4102,20,18.9741,8.2051,8.2051,
-5.6409,-2.051,0.12817,-261.0254,8.8462,-238.4612,-84.3591,3.5901,-172.8203,2.5642,22.5642,5.6414,23.2051,-1.0256,
7.949,-17.051,-14.8718,-276.0254,-2.3079,-253.4612,-99.3591,15.1282,-187.8203,10.0002,14.6155,11.0256,8.2051,2.3079,
-0.25635,-32.051,-25.3848,-291.0254,0.25635,-268.4612,-114.3591,10,-202.8203,8.9741,23.333,9.4873,12.564,1.7949,
0.25659,-17.051,-10.3848,-276.0254,-2.3079,-253.4612,-99.3591,4.3591,-187.8203,-0.25659,16.1541,0.76929,14.1028,-3.3333,
15.1282,-10.5129,-6.4102,-261.0254,-5.3845,-238.4612,-113.5898,19.3591,-172.8203,14.7434,18.2053,15.7693,5.3845,6.9231,
0.12817,-5.8975,4.3589,-246.0254,9.6155,-227.9487,-108.4614,4.3591,-178.718,1.2822,20.2563,2.3076,18.7178,-1.2822,
8.7178,-20.8975,-10.6411,-261.0254,-1.5386,-242.9487,-123.4614,5.1279,-193.718,5.1279,14.8716,6.6665,3.7178,1.5386,
6.9231,-21.2822,-14.6155,-276.0254,-1.282,-257.9487,-123.8462,9.4871,-208.718,14.6155,22.8206,17.1794,11.0256,1.282,
0.25635,-6.2822,0.38452,-272.0515,2.8203,-261.2822,-108.8462,-0.76953,-193.718,0.25635,12.0513,2.1794,16.6665,-3.8462,
15.1281,-21.2821,-13.0768,-257.0515,-6.923,-246.2822,-123.8462,14.2305,-178.718,15.2563,19.2306,17.1794,6.923,11.1538,
0.12805,-6.9229,1.7949,-242.0515,-1.7949,-242.8203,-113.5896,2.8208,-165.3845,3.8462,21.7949,5.8975,18.7183,3.3335,
7.9487,-3.8462,-11.5386,-257.0515,-4.3594,-257.8203,-123.8464,7.9487,-180.3845,4.3589,13.0767,6.4102,11.5381,3.8462,
1.7949,-10.5127,-13.0769,-272.0515,-1.7949,-272.8203,-113.5896,13.5898,-195.3845,10.5127,21.2822,15.6411,17.1797,7.9487,
-4.6157,1.0254,1.0254,-287.0515,7.1792,-275.8977,-98.5896,0,-180.3845,-3.0771,22.564,0.64111,26.1538,1.0254,
6.9231,-13.9746,-13.9746,-298.718,-6.9231,-290.8977,-113.5896,13.5896,-195.3845,9.9998,18.718,14.6155,11.1538,7.9485,
-5.1284,-23.0769,-7.6924,-283.718,5.1284,-275.8977,-128.5896,6.6665,-180.3845,8.2051,24.6152,11.7949,26.1538,5.1284,
1.7949,-8.0769,-5.8975,-298.718,-5.3848,-290.8977,-113.5896,8.9741,-178.2051,11.0254,16.1538,9.4873,19.231,2.3076,
6.4104,-10,-10.5129,-313.718,-6.4104,-305.8977,-98.718,18.718,-189.4873,22.3074,26.4104,22.3074,13.5896,15.1282,
-1.0256,-9.2307,-6.1536,-312.3074,1.0256,-303.5896,-113.718,5.1282,-189.7434,7.3074,21.5388,7.3074,19.4875,8.718,
12.8204,-24.2307,-21.1536,-327.3074,-9.7435,-318.5896,-128.718,20.1282,-204.7434,19.4874,18.4615,22.3074,9.7435,13.3336,
0.25635,-27.9485,-18.7178,-312.3074,-0.25635,-303.5896,-143.718,11.5386,-202.3076,7.436,21.7949,10.5132,23.8462,5.8975,
5.6411,-12.9485,-3.7178,-297.3074,-6.1538,-288.5896,-128.718,6.1538,-187.3076,0,7.1797,0,10.2563,2.0513,
5.1283,-5.1283,-9.2308,-301.5385,-7.6925,-286.1539,-113.718,14.8715,-178.9745,8.7177,12.3075,12.3075,9.2308,7.1796,
-1.0256,6.1536,5.6409,-286.5385,7.3075,-276.9233,-102.0515,1.5383,-193.9745,-6.1541,15.3845,-2.6925,24.2308,1.0256,
12.051,-8.8464,-9.3591,-301.5385,-5.3845,-291.9233,-117.0515,15.6409,-208.9745,7.4358,12.051,9.9998,9.2308,5.3845,
-2.949,-21.0256,-9.7439,-316.5385,3.5896,-306.9233,-132.0515,7.1794,-196.4104,6.1536,23.5896,6.1536,24.2308,3.0769,
0.51294,-6.0256,5.2561,-301.5385,5.1282,-291.9233,-117.0515,2.5642,-181.4104,-1.0256,16.4099,-3.5901,24.1023,-0.51294,
3.8459,-1.7947,-6.4104,-286.5385,-5.3845,-276.9233,-102.0515,11.5383,-166.4104,8.4617,18.2053,8.9744,11.0256,1.7947,
-6.9231,3.8464,3.3333,-271.5385,9.4871,-261.9233,-103.8459,1.282,-181.4104,-0.76929,25.8977,-1.7947,26.0256,0.76929,
3.0769,-11.1536,-11.6667,-286.5385,-3.0769,-276.9233,-118.8459,13.8464,-196.4104,5.6414,16.4104,5.6414,14.3591,7.1794,
-2.8206,-26.1536,-18.718,-301.5385,2.8206,-291.9233,-133.8459,6.4104,-211.4104,3.8464,22.3079,5.3845,25.8977,5.3845,
0.5127,-11.1536,-3.718,-286.5385,4.1025,-276.9233,-118.8459,-1.0259,-196.4104,-0.5127,18.9741,-4.6157,28.2051,1.0254,
3.5896,-3.5896,-14.3591,-271.5385,-3.5896,-261.9233,-103.8459,12.8206,-181.4104,10.2561,22.051,9.2307,16.9231,5.6409,
-2.5642,3.0769,-2.5642,-256.5385,11.4104,-246.9233,-110.7693,2.5642,-177.4358,-0.51294,26.1541,0.51294,31.9231,4.1028,
2.8206,-11.9231,-17.5642,-271.5385,0.76929,-261.9233,-125.7693,6.9231,-192.4358,1.7947,11.1541,-0.76929,16.9231,3.8459,
-5.1282,-23.5896,-25.6409,-286.5385,7.6926,-276.9233,-140.7693,8.718,-207.4358,5.1282,18.9744,6.1541,17.949,6.1541,
-1.7949,-8.5896,-10.6409,-271.5385,11.5381,-261.9233,-125.7693,1.7949,-192.4358,-4.8721,13.5894,-1.7949,23.8462,2.3076,
4.3589,-10.5129,-14.6155,-256.5385,-3.4619,-246.9233,-115.1284,10,-177.4358,4.3589,7.4355,6.4102,8.8462,5.3843,
-5.3845,3.8459,0.38452,-241.5385,11.5381,-231.9233,-106.4104,-0.25659,-167.9487,-2.3079,22.4355,0.25659,23.8462,5.3845,
1.5383,-11.1541,-14.6155,-256.5385,0.51294,-246.9233,-121.4104,6.6667,-182.9487,-0.51294,24.6155,4.6155,13.3333,2.5642,
-2.0513,-26.1541,-23.5896,-271.5385,6.1538,-261.9233,-126.1538,8.7183,-197.9487,5.6411,32.3076,6.667,20.5132,2.0513,
1.2822,-11.1541,-8.5896,-261.282,17.6924,-246.9233,-111.1538,-1.2822,-182.9487,-2.3076,27.9487,-5.8975,25.3848,2.8203,
6.4102,-26.1541,-20.7693,-246.282,2.6924,-231.9233,-126.1538,10.5127,-180.2563,6.9229,23.3335,8.9741,10.3848,8.9741,
-4.6155,-11.7947,-5.7693,-232.8206,9.2307,-227.1794,-111.1538,6.1541,-165.6411,2.5642,31.7947,4.1023,25.3848,6.1541,
4.1025,-3.0767,-12.3076,-247.8206,0,-242.1794,-122.564,7.1797,-180.6411,0,16.7947,0,10.3848,0.51318,
2.3076,-8.9741,-10,-262.8206,-2.3076,-257.1794,-107.564,7.436,-195.6411,4.8716,21.7949,10.5127,8.4614,4.3589,
-0.5127,-2.0513,1.0254,-277.8206,3.5898,-268.718,-92.564,1.0254,-180.6411,-5.1284,27.6924,0.5127,23.4614,2.0513,
12.3079,-17.0513,-13.9746,-286.1538,-6.6667,-278.4614,-107.564,16.0254,-195.6411,8.2053,22.0515,13.3333,8.4614,6.6667,
0,-6.1538,1.0254,-271.1538,8.3333,-263.4614,-110.2561,5.1284,-180.6411,-2.564,22.5645,1.0259,17.436,0,
5.8975,8.4614,4.3589,-286.1538,2.8203,-278.4614,-95.2561,1.2822,-192.5642,-5.3848,13.5898,-4.3589,6.4102,-1.2822,
3.5896,-5.1282,-4.6155,-301.1538,-3.0769,-293.4614,-80.2561,14.3591,-197.9487,4.1023,23.5896,10.2566,7.1794,3.0769,
0.51294,7.1794,5.6409,-294.8718,11.7947,-288.718,-87.1794,4.1028,-182.9487,-5.6409,26.6667,-0.51294,18.9744,-1.0256,
12.8206,-7.8206,-9.3591,-309.8718,-3.0769,-303.718,-102.1794,11.7952,-197.9487,8.2053,18.9744,10.2566,3.9744,4.1028,
2.3074,-13.0769,-6.9231,-294.8718,6.9231,-288.718,-117.1794,2.3074,-182.9487,0.76929,26.4104,4.8718,18.9744,-0.76929,
8.4617,1.9231,4.3591,-279.8718,4.3591,-273.718,-102.1794,3.3333,-167.9487,-3.3333,19.2307,-3.8464,10.5129,-6.9231,
9.7439,8.2053,-5.1282,-288.7178,-1.0256,-274.3589,-87.1794,13.8464,-164.1023,9.2307,22.0515,6.1541,1.0256,-1.5383,
8.2051,18.4619,9.8718,-273.7178,13.9744,-269.7434,-84.6152,2.0513,-179.1023,-2.0513,20.5132,-4.6152,16.0256,-3.0767,
22.3079,3.4619,-5.1282,-288.7178,5.3845,-284.7434,-99.6152,14.1028,-194.1023,4.8718,10.0002,7.4358,1.0256,-0.76929,
11.2817,-1.5386,-8.2051,-303.7178,16.9229,-299.7434,-114.6152,8.2051,-209.1023,1.5386,18.4614,4.1025,13.3335,-1.5386,
20.5127,13.4614,6.7949,-288.7178,21.0259,-284.7434,-99.6152,5.6411,-194.1023,-6.1538,9.7437,-8.2051,8.7178,-5.6411,
23.333,28.4614,6.9229,-273.7178,15.1279,-269.7434,-84.6152,11.0254,-179.1023,-1.7949,4.8716,0.25635,-0.25635,-8.4614,
19.7434,42.3079,21.9229,-258.7178,29.9998,-254.7434,-69.6152,3.3333,-194.1023,-3.8459,15.6409,-3.3333,14.7437,-3.3333,
27.6921,27.3079,6.9229,-273.7178,14.9998,-269.7434,-84.6152,14.3586,-209.1023,2.051,2.051,0.51294,0.51294,-0.51294,
18.718,12.3079,-5.8972,-288.7178,21.7952,-284.7434,-99.6152,14.1028,-224.1023,-1.282,5.8977,0.76929,6.4104,-0.76929,
22.0513,27.3079,9.1028,-273.7178,20,-269.7434,-84.6152,11.7949,-209.1023,-6.667,2.0513,-4.6157,9.7437,-2.0513,
22.0513,42.3079,6.6665,-258.7178,5,-254.7434,-69.6152,17.9487,-194.1023,2.564,-1.5386,1.5386,-4.1025,-4.6152,
13.0769,45.8972,18.718,-243.7178,20,-239.7434,-84.3591,5.3845,-179.1023,-5.3845,6.4099,-13.0769,10.8975,-9.4871,
26.9233,30.8972,3.718,-258.7178,12.564,-254.7434,-99.3591,19.7437,-194.1023,1.7949,1.7949,-0.25635,0.25635,-0.76904,
14.1025,15.8972,-11.282,-273.7178,5.8975,-269.7434,-114.3591,13.0767,-209.1023,-1.7949,2.8203,1.7949,1.7949,-2.3081,
16.9231,30.8972,3.718,-258.7178,17.4358,-254.7434,-99.3591,10.2566,-194.1023,-3.5896,1.0256,-1.0256,12.3079,-2.051,
17.1794,16.6667,-3.3333,-243.7178,2.4358,-239.7434,-107.436,18.718,-179.1023,3.8459,-7.436,9.4871,-0.76929,0.76929,
5.8975,26.9233,9.4873,-228.7178,14.6152,-224.7434,-93.0769,4.3589,-187.4358,-6.9229,0.25635,-3.3335,14.2307,-0.25635,
14.6152,11.9233,-5.5127,-243.7178,2.3076,-239.7434,-108.0769,12.564,-202.4358,-0.25635,-3.8462,2.3076,0.25635,4.3589,
6.1538,1.0254,-12.3076,-258.7178,-2.0513,-254.7434,-110.2563,11.2822,-217.4358,-0.5127,1.0254,4.1025,4.6152,0.5127,
12.051,16.0254,2.6924,-248.4617,11.5383,-241.282,-95.2563,3.3333,-202.4358,-10.5129,1.7947,-8.4617,19.2307,-1.7947,
20.2561,1.0254,-12.3076,-233.4617,-1.282,-226.282,-110.2563,18.3333,-192.0515,4.3586,1.282,6.5383,4.2307,9.9998,
5.2561,14.3589,2.6924,-233.3333,0,-228.718,-115.8975,9.7437,-194.3589,-10.2563,0.51269,-3.0771,10.769,2.0513,
16.6665,28.4614,8.9741,-248.3333,0.25635,-243.718,-104.8718,15.1284,-209.3589,-3.8462,-4.3589,-0.25635,4.3589,6.4102,
2.564,13.4614,-4.6152,-263.3333,-3.0771,-258.718,-96.4102,11.2822,-224.3589,0.5127,-0.5127,4.6152,3.0771,4.1025,
-3.0769,21.0256,2.5642,-276.9231,3.0769,-257.9487,-91.2822,8.2048,-209.3589,-4.1028,1.5383,-1.5383,17.4358,4.6155,
11.9231,6.0256,-12.4358,-289.9999,-2.3077,-271.0255,-106.2822,23.2048,-221.2821,10.8972,2.3077,13.4617,8.9742,16.1539,
1.2822,0.76953,-6.4102,-274.9999,9.4873,-256.0255,-112.0513,8.2048,-206.2821,-3.3335,0.25635,-0.25635,18.2051,1.1539,
8.2053,15.7695,3.0769,-289.7434,3.0769,-271.0255,-97.0513,5.1282,-191.2821,-1.0256,-4.1023,-0.51294,7.6926,0.51294,
6.6667,15.3845,-3.5896,-304.7434,-8.718,-286.0255,-82.0513,13.8459,-206.2821,6.6667,1.0256,12.8206,-1.0256,4.6155,
-0.5127,14.3589,6.1538,-289.7434,3.5898,-277.436,-92.3079,3.0767,-193.8462,-3.0771,1.5386,-0.5127,13.8462,0.5127,
14.4873,-0.64111,-8.8462,-304.7434,-3.5896,-292.436,-107.3079,18.0767,-208.8462,11.9229,3.5896,12.3079,7.1794,10.7693,
1.282,-6.4104,-9.9998,-307.9487,-1.282,-291.0256,-122.3079,6.4104,-193.8462,2.8206,15.1282,4.8718,21.282,7.949,
2.0513,8.5896,-4.6152,-292.9487,-14.3589,-276.0256,-107.3079,4.6157,-178.8462,-2.0513,4.103,2.5645,6.667,5.1284,
-0.51294,3.5896,-12.8206,-298.9744,-17.436,-285.6411,-92.3079,14.8718,-172.8206,8.2048,2.051,11.7947,0.51294,6.1536,
-4.8716,7.9487,2.1794,-290,-2.436,-282.3076,-95.1282,1.7949,-187.8206,-1.7949,8.4614,-3.2053,15.5129,2.3076,
10.1284,-7.0513,-12.8206,-305,-7.4359,-297.3076,-110.1282,16.7949,-202.8206,13.2051,7.4359,11.7947,9.4872,12.0511,
-2.3076,-22.0513,-13.0771,-320,2.3076,-312.3076,-125.1282,10.5127,-217.8206,8.9741,12.564,14.6152,18.2051,12.0513,
2.3076,-7.0513,1.9229,-305,3.8462,-297.3076,-110.1282,1.2822,-202.8206,-6.0259,-1.2822,-0.38477,9.4873,3.3335,
6.9231,7.9487,1.282,-290,-8.9744,-282.3076,-95.1282,9.9998,-187.8206,0.76929,-1.282,4.3586,-0.76929,4.3586,
-4.6152,7.1797,3.5898,-275,4.6152,-267.3076,-102.564,2.0513,-193.3333,-4.6152,6.1538,-2.0513,14.2307,3.5898,
8.4614,-7.8203,-11.4102,-290,-1.7949,-282.3076,-117.564,17.0513,-208.3333,10,1.7949,11.5386,3.3335,10,
-1.0256,-22.8203,-20.0002,-305,1.0256,-297.3076,-132.564,13.8459,-223.3333,5.6409,2.5642,6.6667,10.2561,4.6155,
3.8464,-7.8203,-5.0002,-290,1.282,-282.3076,-117.564,5.8977,-208.3333,-1.7947,-1.282,-2.3079,8.9744,3.8464,
8.4618,3.8461,-3.8461,-275,-8.4615,-267.3076,-102.564,16.1537,-193.3333,13.077,4.3593,12.6921,-5.8973,11.5385,
-5.8975,2.3076,0.76953,-260,4.8721,-252.3076,-102.3076,1.1537,-178.3333,0.25635,2.3076,-2.3076,4.8721,2.8208,
9.1025,-12.6924,-14.2305,-275,3.5896,-267.3076,-117.3076,16.1537,-193.3333,12.3074,-1.0256,11.282,1.0256,15.8972,
3.0767,-25.1284,-23.0771,-290,-1.5386,-282.3076,-132.3076,8.7178,-208.3333,2.564,1.5386,6.1538,5.6411,5.1279,
5.6409,-10.1284,-8.0771,-275,2.051,-267.3076,-117.3076,3.5896,-193.3333,-3.5896,1.0256,-3.0769,5.1282,-1.0256,
16.6667,0.25635,-0.25635,-260,-2.3076,-252.3076,-102.3076,18.5896,-178.3333,11.4104,1.282,11.9231,-7.9487,13.5896,
1.6667,11.0254,9.4868,-245,5.8975,-237.3076,-104.3591,3.5896,-174.6155,-1.7949,2.3076,-2.3076,7.0513,4.3589,
8.2048,-3.9746,-5.5132,-260,-2.5642,-252.3076,-119.3591,15.3845,-189.6155,10.2561,5.1282,7.6921,2.5642,10.2561,
0.76929,-17.6921,-15.1282,-275,-0.76929,-267.3076,-126.9229,14.1028,-204.6155,10.0002,7.4363,12.0515,3.3333,9.4875,
0.76929,-2.6921,-0.12817,-269.4871,14.2307,-256.6667,-111.9229,-0.89722,-189.6155,-3.3333,1.282,-0.76929,11.0256,4.3591,
11.0254,-17.6921,-15.1282,-254.4871,4.3589,-246.9231,-126.9229,10,-181.7949,10,2.3076,11.0254,-2.3076,6.4102,
-1.2822,-5.8975,-0.12817,-239.4871,13.0771,-236.6665,-111.9229,2.8208,-166.7949,1.2822,11.0259,-0.25635,12.6924,0.25635,
8.4614,6.4102,-1.7949,-254.4871,2.3076,-251.6665,-117.1794,8.4614,-181.7949,0.25635,-3.9741,0.25635,1.2822,-0.25635,
3.333,-1.2822,-4.8721,-269.4871,0.25635,-266.6665,-103.3335,8.4614,-196.7949,7.436,-0.25635,10,2.8203,3.333,
-0.51269,4.1025,5.1279,-284.1025,9.2305,-281.6665,-90.2566,-4.1025,-181.7949,0.5127,8.7178,-1.5386,17.8203,0.5127,
12.8203,-10.8975,-9.8721,-299.1025,-2.564,-294.8718,-105.2566,10.8975,-196.7949,10.2563,2.564,12.8203,3.0767,5.6411,
0,-8.7178,0.5127,-284.1025,12.436,-279.8718,-118.9744,0.5127,-182.564,-0.51269,7.1797,2.0513,15.8975,0,
4.1028,6.2822,-0.51294,-299.1025,6.1541,-294.8718,-103.9744,3.5896,-196.4102,-2.0515,0.51294,-4.1028,6.6667,2.5642,
-0.5127,0.51269,-9.2305,-314.1025,-2.564,-309.8718,-88.9744,10.7695,-202.0513,0.51269,0.51269,3.0771,4.1025,6.1538,
-0.51269,5.1284,5.7695,-299.1025,12.436,-294.8718,-92.3076,0.5127,-187.0513,-7.6924,4.1025,-5.1279,19.1025,3.5898,
6.1538,-9.8716,-9.2305,-314.1025,0,-309.8718,-107.3076,9.231,-202.0513,4.6152,0,6.1538,4.1025,4.6152,
-4.1025,-17.9487,-15.8975,-299.1025,11.7949,-294.8718,-122.3076,6.6665,-187.0513,4.6152,12.3076,4.1025,18.9741,5.1279,
1.5381,-2.9487,-0.89746,-284.1025,7.1792,-279.8718,-107.3076,4.6152,-172.0513,-3.0771,0,-5.6411,8.2051,2.564,
2.8206,-7.9485,-14.1025,-279.7437,-0.25659,-266.4102,-92.3076,7.4358,-172.564,4.3591,1.7947,5.3845,0.25659,5.8972,
0.76904,1.2822,0.89746,-280.2563,14.7434,-268.4617,-102.8206,-0.76904,-187.564,-1.2822,10.5127,-2.3076,15.2566,5.3848,
5.8975,-13.7178,-14.1025,-295.2563,-0.25635,-283.4617,-117.8206,9.4873,-202.564,2.3076,0.25635,2.8203,3.8462,2.8203,
-3.0769,-28.7178,-17.4358,-310.2563,6.6667,-298.4617,-132.8206,5.1282,-217.564,3.5901,9.2307,6.6667,15.385,3.0769,
2.3076,-13.7178,-2.4358,-295.2563,8.9741,-283.4617,-117.8206,-0.25635,-202.564,0.25635,-3.8462,-2.3081,8.4614,1.2817,
5.3845,-5.8972,-9.4873,-280.2563,5.3845,-268.4617,-102.8206,8.4617,-187.564,6.9231,-2.3079,6.9231,2.3079,5.3845,
0,8.7178,5.5127,-265.2563,20.3845,-253.4617,-87.8206,0,-178.4614,-5.1279,7.6924,-1.5386,17.3079,6.1538,
12.051,-6.2822,-9.4873,-280.2563,5.3845,-268.4617,-102.8206,11.0256,-193.4614,3.3333,-2.8206,4.3586,2.8206,6.9231,
0.76929,-21.2822,-21.7947,-295.2563,8.9744,-283.4617,-117.8206,3.8459,-208.4614,0.76929,3.3333,-0.76929,12.0515,0.76929,
3.0771,-6.2822,-6.7947,-280.2563,10.7695,-268.4617,-102.8206,1.0259,-193.4614,-3.5894,0,-4.6152,13.8462,0,
11.0258,-2.3077,-6.923,-265.2563,-0.25647,-253.4617,-87.8206,16.0259,-178.4614,11.4106,0.25647,10.3848,2.308,9.4872,
-3.9742,1.282,4.8718,-250.2563,9.4871,-238.4617,-93.5898,1.0259,-163.4614,0.76929,0.76929,-3.3333,16.1541,-0.76929,
11.0258,-13.718,-10.1282,-265.2563,4.8716,-253.4617,-108.5898,14.1025,-178.4614,11.0254,-3.8462,8.9741,3.8462,8.9741,
2.5642,-20.5129,-21.0256,-280.2563,6.1541,-268.4617,-123.5898,8.2053,-193.4614,7.1794,-2.5642,7.1794,6.1541,5.1282,
7.9485,-5.5129,-6.0256,-265.2563,13.0769,-253.4617,-108.5898,0.76929,-178.4614,0.25659,-0.25659,-5.3845,13.5896,-0.25659,
13.3333,-5.6411,-6.1538,-250.2563,2.5642,-238.4617,-104.1025,15.7693,-163.4614,13.8459,-1.0256,9.6155,1.0256,3.5896,
-0.25635,9.3589,8.8462,-235.2563,16.6665,-223.4617,-91.0259,5.3843,-172.0515,0.25635,0.25635,-0.25635,16.0256,-1.2822,
14.3591,0.51294,-5.1282,-250.2563,4.6155,-238.4617,-106.0259,9.7434,-187.0515,0.51294,-9.7439,-0.51294,2.051,0.51294,
9.2307,-3.5896,-3.5896,-265.2563,5.6409,-253.4617,-107.1794,7.6921,-202.0515,5.1282,-3.0769,7.1794,6.1541,3.0769,
6.6663,11.4104,11.4104,-250.2563,17.9485,-250.2566,-92.1794,1.0256,-187.0515,-1.0256,-3.5901,-1.0256,14.8718,2.5637,
20.2567,-3.5896,-3.5896,-235.2563,8.9745,-235.2566,-107.1794,16.0256,-172.0515,13.077,-1.7948,13.9744,1.7948,12.5643,
5.2567,7.6924,11.4104,-225.6411,17.9487,-221.0256,-92.1794,2.564,-160.5129,-1.923,-2.0513,-1.0256,15.3843,2.0513,
15.1284,22.6924,13.0771,-240.6411,11.5386,-236.0256,-95.1282,7.9487,-175.5129,-2.8203,-11.0254,-6.4102,4.3589,2.8203,
4.1023,8.7175,4.1023,-255.6411,1.5383,-251.0256,-89.7439,6.6663,-190.5129,-1.0256,-7.1799,1.0256,-3.5901,1.5383,
8.4614,20.2563,19.1023,-255.6411,14.1025,-261.2822,-74.7439,4.3589,-175.5129,-4.8721,-4.3589,-5.8975,11.4099,6.9229,
23.4614,5.2563,4.1023,-270.6411,7.9487,-276.2822,-89.7439,19.3589,-190.5129,10.1279,-3.3335,9.1025,3.3335,20.769,
8.4614,5.8977,5.3845,-255.6411,10.5129,-261.2822,-104.7439,4.3589,-175.5129,-3.8459,-1.282,-5.8975,12.5642,5.769,
12.5642,20.8977,19.7434,-270,8.4617,-271.5386,-89.7439,6.4104,-164.3591,-1.282,-9.4871,-5.8977,4.3591,1.282,
11.0254,12.0513,10,-285,2.3076,-286.5386,-74.7439,11.0254,-179.3591,2.8203,-15.1284,0.25635,-3.8462,-0.25635,
7.9487,18.7178,18.7178,-276.1541,16.1538,-273.0771,-75.1284,2.3076,-172.5642,-2.3076,-7.436,-4.8721,11.1538,4.3589,
20.5131,3.7178,3.7178,-291.1541,5.1283,-288.0771,-90.1284,17.3076,-187.5642,12.6924,-3.5897,10.1279,3.5897,17.9486,
5.5131,-11.0256,-6.4104,-298.718,11.5383,-299.7437,-105.1284,14.1023,-186.4104,6.4099,-1.282,11.5383,13.5896,12.5637,
4.1025,3.9744,0.5127,-283.718,-0.5127,-284.7437,-90.1284,7.1797,-171.4104,-2.0513,-11.2822,2.0513,5.1284,10.2563,
12.0513,-0.76904,-3.3335,-269.4873,-2.3079,-274.6155,-75.1284,17.1792,-156.4104,12.9487,0.76904,16.6665,10,18.2051,
1.2817,-1.2822,7.9487,-268.4617,12.564,-289.6155,-88.9746,2.1792,-171.4104,2.8203,0.25635,1.6665,23.8462,7.9487,
16.2817,-16.2822,-7.0513,-283.4617,0.51294,-304.6155,-103.9746,17.1792,-186.4104,14.3591,-0.51294,14.8718,8.8462,20.5129,
1.7947,-9.4871,-15.1282,-298.4617,-1.7947,-308.9744,-118.9746,14.6155,-198.718,6.4104,3.3333,9.4871,12.051,16.1536,
2.564,5.5129,-0.12817,-283.4617,-2.564,-293.9744,-103.9746,8.7178,-183.718,4.1025,-5.6411,-2.564,6.1538,11.7949,
9.2311,-0.51282,-8.205,-268.4617,-8.205,-278.9744,-88.9746,20.5128,-168.718,17.9489,1.026,12.436,0.51282,20.5128,
-0.76929,0.25659,-0.76929,-253.4617,3.8459,-263.9744,-90.5129,5.5128,-172.5642,2.9489,2.8206,4.8718,15.5128,10.5129,
14.2307,-14.7434,-15.7693,-268.4617,1.7949,-278.9744,-105.5129,19.231,-187.5642,16.1538,-1.7949,17.6924,11.0254,18.7178,
0.51294,-28.718,-21.5386,-283.4617,4.1028,-293.9744,-120.5129,12.3079,-202.5642,12.8206,-0.51294,8.2053,12.8206,16.4104,
1.7949,-13.718,-6.5386,-268.4617,0.25635,-278.9744,-105.5129,3.8462,-187.5642,-0.25635,-5.8975,-1.7949,10.5127,8.9746,
8.2048,0.51294,-10.2566,-253.4617,-8.718,-263.9744,-90.5129,17.9485,-172.5642,13.8459,-0.51294,13.2051,5.1282,14.8718,
-6.7952,1.5386,-0.5127,-238.4617,5.1279,-248.9744,-91.2822,3.0767,-169.7437,0.5127,1.0254,-1.7949,20.1282,12.3076,
8.2048,-13.4614,-15.5127,-253.4617,1.0256,-263.9744,-106.2822,17.9485,-184.7437,11.7947,-1.0256,8.2053,12.8206,22.051,
-0.76904,-17.6924,-20.7693,-268.4617,0.76904,-278.9744,-121.2822,12.0513,-199.7437,10,3.8462,10,18.7178,14.1025,
-0.76929,-2.6924,-5.7693,-253.4617,2.8206,-263.9744,-106.2822,4.8718,-184.7437,0.76929,-0.76929,-2.8206,15.6409,5.8977,
14.2307,-9.9999,-9.9999,-238.4617,-3.8461,-248.9744,-95.1283,19.8718,-169.7437,15.7693,3.8461,12.1794,6.923,18.7179,
-0.76929,1.5386,5.0001,-225.6409,5.1284,-233.9744,-99.9998,5.6411,-161.5383,0.76929,0,0,21.923,10.7695,
13.5898,-6.9233,-9.9999,-240.6409,1.7949,-248.9744,-114.9998,18.7178,-176.5383,12.564,-1.7949,11.0254,7.9487,20.2563,
4.1025,-14.8718,-13.8462,-255.6409,-2.564,-263.9744,-119.4873,15.8975,-191.5383,16.9229,2.564,15.3848,3.5898,17.436,
-4.1025,0.12817,1.1538,-260,3.0771,-249.7437,-104.4873,2.564,-176.5383,1.9229,-5.1279,0.5127,11.2822,10.2563,
10.8975,-14.8718,-13.8462,-245,2.8206,-234.7437,-119.4873,17.564,-171.5383,13.0769,-2.8206,15.5127,5.3845,23.8464,
0,-0.5127,1.1538,-230,13.8462,-219.7437,-104.4873,4.1025,-156.5383,-1.9231,0,0.5127,18.9741,10.2563,
4.3589,8.4614,-5.3848,-245,-0.25635,-234.7437,-103.8462,10.5127,-171.5383,0.25635,-9.4873,1.7949,6.9229,8.9741,
0.25635,1.2817,-6.4102,-260,-7.436,-249.7437,-96.6667,16.1538,-186.5383,9.4873,-0.25635,12.0513,4.3589,14.1025,
0,8.2051,5.1279,-275,6.1538,-264.1025,-86.6667,1.1538,-171.5383,-4.1025,4.1025,-2.9487,11.7949,6.6665,
9.4871,-6.7949,-9.8721,-290,1.282,-279.1025,-101.6667,16.1538,-186.5383,8.4617,-0.76929,6.4104,0.76929,14.1028,
-5.5129,-6.9231,-2.8206,-275,13.0769,-264.1025,-116.6667,6.9231,-171.5383,4.3591,2.8206,4.3591,15.7693,14.1023,
-0.25659,8.0769,0.25659,-290,0.76929,-273.5896,-101.6667,1.282,-164.3589,1.7952,-7.9485,-2.3079,2.3079,12.5642,
6.4102,-0.76904,-5.8975,-305,-1.7949,-288.5896,-86.6667,7.9487,-179.3589,9.4873,1.7949,4.8716,0.76904,16.6665,
0.25659,9.4871,9.1025,-291.0256,13.2051,-274.1025,-83.8462,-0.25659,-174.1025,-2.3079,4.3591,-6.9231,15.769,12.5642,
15.1279,-5.5129,-5.8975,-306.0256,10,-289.1025,-98.8462,14.7434,-189.1025,12.6921,-1.7949,8.0769,1.7949,23.8462,
0.12793,-14.8716,-9.7437,-298.9741,10.7695,-274.1025,-113.8462,9.231,-179.4871,4.1025,0,6.1538,8.7183,13.8462,
4.6155,0.12842,5.2563,-283.9741,2.5642,-259.1025,-98.8462,3.5896,-164.4871,-5.6414,-2.5642,-6.1541,5.1282,7.6921,
3.0771,-0.5127,-6.1538,-268.9741,3.0771,-245.6409,-83.8462,12.8208,-163.5896,-0.5127,0.51269,5.1284,1.5386,10.2563,
0.76953,7.436,3.8462,-259.2307,18.0771,-240.769,-92.564,0.25635,-178.5896,-11.0254,-0.25635,-4.8716,15.6411,6.4102,
15.7695,-7.564,-11.1538,-274.2307,15.8975,-255.769,-107.564,15.2563,-193.5896,3.9746,0,9.2305,0.64111,15.8975,
1.2822,-16.1538,-8.4614,-289.2307,14.6157,-270.769,-122.564,7.436,-208.5896,0.25635,4.8721,-0.25635,6.9233,7.436,
1.282,-1.1538,6.5386,-274.2307,11.5383,-255.769,-107.564,5.8972,-193.5896,-2.8206,-1.282,-6.4104,3.8459,4.8718,
6.9233,1.7949,-3.333,-259.2307,2.8208,-240.769,-92.564,13.5898,-178.5896,8.9746,-1.7949,6.4102,-6.4102,9.4873,
0.25659,16.7949,11.667,-244.2307,17.8208,-225.769,-84.8718,-0.25659,-180.2563,-2.3079,2.3079,-4.8718,8.5898,8.4617,
15.2566,1.7949,-3.333,-259.2307,12.8206,-240.769,-99.8718,14.7434,-195.2563,7.1794,-2.5642,5.6414,2.5642,13.3333,
1.0256,-13.2051,-18.333,-274.2307,14.8718,-255.769,-114.8718,8.718,-210.2563,2.5642,2.5642,-1.0256,8.2053,4.6155,
6.6667,1.7949,-3.333,-259.2307,17.4363,-240.769,-99.8718,4.6155,-195.2563,-4.1023,-3.0769,-8.2048,4.1028,3.0769,
14.3591,9.7439,-1.0256,-244.2307,2.4363,-225.769,-84.8718,19.4875,-180.2563,9.2307,-5.1282,6.7952,-7.1794,9.7439,
-0.64087,12.8206,8.7175,-229.2307,11.7947,-212.3079,-98.4617,4.4875,-175.3848,-4.6155,1.0256,-8.2048,7.8206,2.051,
14.3591,-2.1794,-6.2825,-244.2307,9.231,-227.3079,-113.4617,14.3589,-190.3848,4.6152,-2.564,2.564,5.1284,10.769,
7.9485,-12.0515,-13.0769,-259.2307,10.5125,-242.3079,-128.4617,5.8972,-205.3848,2.3074,-1.282,3.3333,1.282,6.9231,
8.718,2.9485,1.9231,-246.1538,15.8977,-227.3079,-113.4617,-2.5642,-190.3848,-5.6409,3.0769,-7.6921,9.2307,2.5642,
15.8975,-1.5386,-6.6665,-231.1538,1.5386,-212.3079,-112.8206,12.4358,-175.3848,9.3591,2.564,5.1279,-2.0513,12.3076,
1.282,13.4614,8.3335,-216.1538,15.1282,-197.3079,-108.9744,4.3591,-166.4104,-1.282,-5.3845,-8.4617,8.9744,7.9485,
14.6155,12.5642,-3.3333,-231.1538,9.4871,-212.3079,-123.9744,12.0515,-181.4104,3.3333,-9.4871,-0.25659,0.25659,12.5642,
2.051,9.7434,-1.5383,-246.1538,2.051,-227.3079,-119.4873,6.6667,-196.4104,0.51294,-0.51294,-0.51294,5.6409,9.2307,
1.7949,24.7434,13.4617,-231.1538,10.5127,-212.3079,-104.4873,1.7949,-181.4104,-5.3848,-1.7949,-12.0513,16.1538,10,
14.3591,9.7434,-1.5383,-227.1794,-0.51294,-207.6924,-119.4873,16.7949,-171.2822,9.6152,0.51294,2.9487,3.5896,21.5383,
-0.64087,5.6411,2.0513,-241.5383,6.667,-222.6924,-130.2563,4.6157,-162.0513,-2.0513,4.6157,-2.0513,18.5896,11.2822,
8.2051,20.6411,3.0767,-256.5383,1.5386,-237.6924,-117.436,8.2051,-177.0513,-1.5386,-8.2051,-6.1538,3.5896,10.769,
4.3589,7.9487,-3.8462,-271.5383,0.25635,-252.6924,-106.9229,13.5898,-192.0513,10.5132,-0.25635,5.8975,-1.2817,13.5898,
-3.0769,7.1794,1.5383,-286.5383,6.6667,-267.6924,-111.282,0.51294,-177.0513,1.0256,-0.51294,-5.1282,12.3079,9.7434,
11.9231,-7.8206,-13.4617,-301.5383,-0.51294,-282.6924,-126.282,15.5129,-192.0513,16.0256,0.51294,9.8718,3.0769,23.5896,
-2.0513,-5.1279,-0.51269,-286.5383,10.7695,-267.6924,-132.3076,2.0513,-177.0513,4.1025,6.1538,0.5127,12.8208,13.8462,
4.3591,9.8721,6.4104,-292.5642,7.9485,-276.1538,-117.3076,4.3591,-167.436,-1.282,-3.3333,-5.3845,1.282,7.4358,
3.8462,-0.25635,-1.7949,-307.5642,2.8203,-291.1538,-102.3076,11.0254,-182.436,2.3076,-6.4102,0.76904,0.25635,10.5127,
5.1282,11.282,11.7947,-292.5642,17.8203,-277.9487,-96.9231,3.5896,-195.8975,-3.5896,-4.1028,-6.1541,15.2563,13.8459,
20.1282,-3.718,-3.2053,-307.5642,14.3588,-292.9487,-111.9231,18.5896,-210.8975,10.7694,-5.641,8.8459,5.641,23.5897,
10.5129,1.282,5.8972,-307.436,17.6921,-285.3848,-126.9231,8.4617,-213.5898,-4.2306,-4.8718,-1.282,6.4104,11.0256,
11.5386,16.282,19.7437,-292.436,7.9487,-270.3848,-111.9231,6.4102,-198.5898,-0.25635,-10.5127,-10,0.25635,9.4873,
11.282,7.1794,4.7437,-277.436,-1.0256,-255.3848,-96.9231,16.9231,-183.5898,14.7437,-9.7434,5,-1.0256,14.8718,
3.8459,5.3845,6.4099,-262.436,10.5125,-252.0515,-92.5642,3.3333,-198.5898,-0.25635,-10.5129,-3.3333,12.051,5.8972,
18.8459,-9.6155,-8.5901,-277.436,6.1538,-267.0515,-107.5642,18.3333,-213.5898,14.7437,-3.5898,11.6667,3.5898,18.9741,
4.1025,-18.4614,-14.3589,-292.436,10.7695,-282.0515,-122.5642,5.1284,-225.1279,8.2051,-4.1025,4.1025,12.8208,13.3335,
12.8208,-3.4614,0.64111,-277.436,10.7695,-267.0515,-107.5642,2.0513,-210.1279,-2.0513,-15.8975,-3.5898,9.7437,11.7949,
17.9489,5.6412,-5.1283,-262.436,-2.0514,-252.0515,-92.5642,17.0513,-195.1279,8.7179,-9.7435,10.2565,2.0514,15.3844,
2.9489,4.8716,2.8203,-247.436,5.3848,-240.2563,-93.5898,2.0513,-190.5129,0.25635,-5.8975,-2.8203,16.6665,9.4873,
17.9489,-10.1284,-12.1797,-262.436,9.231,-255.2563,-108.5898,17.0513,-205.5129,15.2563,-8.2051,12.1797,8.2051,24.4873,
6.6667,-17.9487,-21.5383,-277.436,10.7693,-270.2563,-123.5898,15.3845,-220.5129,8.2053,-6.6667,7.1794,13.3333,19.4871,
6.6667,-2.9487,-6.5383,-262.436,10.7693,-255.2563,-108.5898,4.1028,-205.5129,-4.1028,-10.2566,-7.8206,16.4104,9.2307,
14.3589,5.1279,-5.1284,-247.436,0,-240.2563,-93.5898,17.9482,-190.5129,8.7178,-14.8721,7.1794,1.4104,13.8457,
0.76929,9.4871,9.8716,-232.436,11.0256,-225.2563,-84.8718,3.3333,-175.5129,-0.76929,-11.0256,-2.3079,12.051,6.4104,
15.7693,-5.5129,-5.1284,-247.436,8.2051,-240.2563,-99.8718,17.9487,-190.5129,11.7949,-6.6665,6.6665,8.2051,18.9741,
3.8459,-15.6411,-17.6924,-262.436,7.949,-255.2563,-114.8718,11.5383,-205.5129,4.8718,-3.8459,6.4104,15.1282,19.2307,
1.0256,-0.64111,-2.6924,-248.2053,9.2307,-240.2563,-99.8718,5.6409,-190.5129,-1.0256,-7.6926,-2.0515,16.4099,14.8718,
16.0256,-8.2051,-8.718,-233.2053,0,-225.2563,-107.1794,20.6409,-175.5129,13.9744,0,12.9485,6.6665,24.1023,
3.0769,5.1282,6.282,-218.2053,6.6667,-211.7949,-95.3848,5.6409,-160.5129,-1.0256,-6.1541,-2.0515,17.9485,9.2307,
14.8721,-2.0513,-8.718,-233.2053,2.0513,-226.7949,-110.3848,16.4102,-175.5129,8.2051,-10.769,10.2563,7.1797,18.9746,
8.2051,-8.2053,-9.7437,-248.2053,1.5386,-241.7949,-115.8975,24.1025,-190.5129,22.0513,-1.5386,22.0513,8.7178,24.1025,
1.0256,6.7947,5.2563,-263.2053,5.1282,-256.7949,-100.8975,9.1025,-175.5129,7.0513,-12.8206,7.0513,13.3333,9.1025,
16.0256,-8.2053,-9.7437,-248.2053,-1.0256,-249.7434,-115.8975,21.5383,-165.6409,19.4871,1.0256,14.8718,9.7439,23.0769,
1.0256,-2.3076,-0.25635,-234.1028,0.25635,-235.6411,-110.5129,6.5383,-150.6409,10.5127,2.3076,2.8203,16.6665,13.5898,
6.4104,12.6924,1.7947,-249.1028,-6.4104,-250.6411,-95.5129,4.3591,-165.6409,3.8459,-12.6924,-1.7947,2.3079,6.9231,
5.3845,4.3591,0.25659,-264.1028,-6.9231,-265.6411,-80.5129,3.3333,-180.6409,2.3079,-7.4358,-0.25659,5.3845,5.8972,
1.7949,8.4614,10.5132,-274.1025,6.4102,-274.6152,-85.8972,-2.3076,-165.6409,-1.7949,3.8462,-8.9741,20.3845,9.4873,
16.6667,-6.5386,-4.4868,-289.1025,-0.76929,-289.6152,-100.8972,12.6924,-180.6409,13.2051,0.76929,6.0259,11.0256,24.4873,
1.6667,-8.9744,4.3586,-274.1025,3.3333,-274.6152,-115.8972,2.8206,-165.6409,4.8718,-6.4104,3.8459,21.7947,11.0256,
6.1541,6.0256,14.8718,-289.1025,1.5388,-289.6152,-100.8972,1.0256,-164.1023,-1.0256,-7.1794,-5.6409,13.8464,10.2566,
2.3074,-7.4358,-0.12817,-304.1025,-0.76929,-304.6152,-85.8972,6.4099,-179.1023,5.8972,0.76929,5.8972,7.9485,13.0769,
-0.25635,-3.8462,0.76953,-289.1025,8.9746,-299.2307,-99.7434,-1.7949,-194.1023,0.76953,1.7949,0.25635,20.2563,7.436,
14.7437,-18.8462,-14.2305,-304.1025,-0.5127,-314.2307,-114.7434,13.2051,-209.1023,15.7695,0.5127,15.2563,10.2563,20.5127,
0.25635,-12.0513,-2.3076,-307.9485,5.3848,-300.769,-124.8716,4.3589,-194.1023,3.8462,1.7949,0.25635,20.2563,10,
8.9746,2.9487,12.5645,-292.9485,0.25635,-285.769,-109.8716,-0.25635,-179.1023,0.76953,-3.333,-3.333,9.4873,8.9746,
17.4359,-3.59,-1.0258,-277.9485,-2.0514,-270.769,-94.8716,14.7437,-164.1023,15.7695,1.0258,11.667,4.6151,23.077,
2.4359,3.0769,5.6409,-262.9485,11.282,-262.564,-90.2563,1.0256,-179.1023,0.76953,-3.0769,-1.0256,17.949,13.3333,
17.4359,-11.9231,-9.3591,-277.9485,3.3333,-277.564,-105.2563,16.0256,-194.1023,12.5637,-3.3333,10.5125,7.4358,18.718,
3.3335,-26.9231,-7.9487,-292.9485,4.8721,-292.564,-120.2563,2.3076,-209.1023,7.9487,-1.7949,1.7949,15.1284,10.5127,
2.0513,-11.9231,7.0513,-277.9485,6.1538,-277.564,-105.2563,-2.0513,-194.1023,3.0771,-7.6924,-5.6411,10.2563,11.2822,
7.4355,-16.6667,-7.9487,-262.9485,0.25635,-262.564,-90.2563,12.9487,-179.1023,17.1792,-0.25635,9.3589,4.8716,18.2051,
-1.7949,-7.9487,5.3848,-247.9485,11.5386,-247.564,-82.3076,-1.7949,-172.5642,4.8716,1.7949,2.3076,19.8716,10,
13.2051,-22.9487,-9.6152,-262.9485,1.0256,-262.564,-97.3076,13.2051,-187.5642,16.4104,-1.0256,14.8718,6.1541,19.4871,
-1.7949,-24.3589,-15.1279,-277.9485,1.7949,-277.564,-112.3076,8.9746,-202.5642,11.0259,5.8975,9.4873,5.8975,13.5898,
0.25635,-9.3589,-0.12793,-262.9485,4.3589,-262.564,-97.3076,-0.25635,-187.5642,1.2817,-1.2822,-2.8208,7.4355,7.4355,
12.5641,-10.5128,-7.4359,-247.9485,-1.795,-247.564,-82.3076,12.5641,-172.5642,14.6154,1.795,12.1792,2.3077,16.6666,
-0.76904,4.4872,7.5641,-232.9485,7.436,-232.564,-87.9487,-0.76904,-157.5642,-0.38464,3.8462,0.76904,14.6152,5.8975,
14.231,-8.9744,-7.4359,-247.9485,0.76929,-247.564,-102.9487,14.231,-172.5642,14.6154,-0.76929,14.1028,1.7947,16.1541,
6.9233,-12.564,-7.436,-262.9485,-1.7949,-262.564,-117.9487,17.1797,-187.5642,16.6665,1.7949,10,2.3076,19.231,
1.0254,2.436,7.564,-247.9485,0,-247.564,-102.9487,2.1797,-172.5642,1.6665,-0.5127,-5,8.2051,13.8462,
15.1281,-12.564,-7.436,-232.9485,-5.3846,-232.564,-116.6666,17.1797,-157.5642,16.6665,6.4103,10,5.3846,22.3077,
0.12805,-5.8972,3.8464,-220.2563,3.3333,-219.7434,-110.5127,2.1797,-145.8972,4.3591,1.282,-1.282,14.6155,10.0002,
15.1281,-2.8206,-4.3591,-235.2563,3.8459,-234.7434,-124.8721,15.1282,-160.8972,11.5383,-3.8464,2.8206,4.3586,20.7688,
7.1794,-6.1541,-2.0515,-250.2563,1.5383,-249.7434,-109.8721,10.7693,-175.8972,7.6921,-1.5383,8.2053,4.1023,16.9231,
5.8975,8.8459,12.9485,-263.3333,11.5386,-258.718,-94.8721,-0.25635,-160.8972,-0.25635,0.25635,-2.8203,15.6411,12.0513,
18.974,-6.1541,-2.0515,-248.3333,1.5385,-250.7694,-109.8721,14.7437,-174.359,14.7437,-1.0258,12.1797,1.0258,19.9999,
3.974,-8.9744,1.282,-248.4617,7.9485,-245.8975,-112.0513,4.8718,-159.359,5.3845,-1.282,1.7947,13.0769,12.5642,
4.6155,4.1028,-1.0256,-263.4617,2.5642,-260.8975,-97.0513,7.6921,-174.359,2.0515,-11.7947,-2.051,1.0256,11.7952,
6.4104,-5.3845,-1.7947,-278.4617,4.8718,-275.8975,-82.0513,11.0256,-189.359,1.7947,-3.8459,2.3079,4.3591,13.0769,
-0.25635,5.8975,10,-275.6411,14.6152,-279.231,-82.3079,0.25635,-174.359,-6.4102,1.7949,-8.4614,19.3591,12.0513,
8.7175,-9.1025,-5,-290.6411,1.0256,-294.231,-97.3079,15.2563,-189.359,8.5898,-1.0256,6.5386,4.615,20.5125,
-3.8462,-3.3335,-1.7949,-275.6411,14.6152,-279.231,-112.3079,9.4873,-174.359,5.8975,1.7949,1.7949,13.0771,11.0259,
6.9233,11.6665,12.0513,-279.7434,10.5132,-272.051,-97.3079,8.9746,-167.9485,-1.7949,-5.8975,-5.3843,1.7949,11.0259,
5.3848,12.0513,1.7949,-294.7434,0.76904,-287.051,-82.3079,8.4614,-182.9485,1.2822,-3.8462,-0.76904,-2.8203,12.564,
6.9231,20.2566,15.1282,-279.7434,15.769,-276.1538,-84.8716,-0.76929,-179.2307,-4.8718,0.76929,-5.3845,12.1797,9.4871,
21.9231,5.2566,0.12817,-294.7434,12.3076,-291.1538,-99.8716,14.2307,-194.2307,9.7437,-4.1025,9.6155,4.1025,15.8975,
6.9231,-0.5127,0.5127,-309.7434,15.3848,-306.1538,-114.8716,7.1797,-202.0513,-2.564,1.5386,-1.5386,12.3076,9.7437,
12.3076,14.4873,15.5127,-294.7434,14.8716,-291.1538,-99.8716,3.5898,-187.0513,-8.7178,-3.5898,-7.1797,7.6924,5.1284,
9.7437,12.8203,1.5381,-279.7434,0,-276.1538,-84.8716,7.6924,-172.0513,0,-7.6924,3.0767,-5.1284,4.6152,
7.436,25.8975,16.5381,-264.7434,14.6157,-261.1538,-93.0769,1.7949,-187.0513,-5.3843,-1.7949,-6.4102,9.8716,9.4873,
20.769,10.8975,1.5381,-279.7434,8.9746,-276.1538,-108.0769,16.7949,-202.0513,7.9487,-0.25635,5.3848,0.25635,19.7437,
5.769,-4.1025,-9.4871,-294.7434,12.5642,-291.1538,-123.0769,5.3845,-207.4358,3.8459,7.9485,-1.282,11.5383,12.5642,
5.6409,10.8975,5.5129,-279.7434,10.2566,-276.1538,-108.0769,-1.0256,-192.4358,-4.1023,1.0256,-11.7947,9.2307,7.6921,
10.5127,7.436,-1.7949,-264.7434,1.7949,-261.1538,-93.0769,10.5127,-177.4358,5.3848,-1.7949,3.2053,-4.3589,9.4873,
1.0256,17.4358,12.3079,-249.7434,14.8718,-246.1538,-97.9487,-0.51294,-186.6665,-4.1023,0.51294,-7.1794,9.2307,4.1028,
16.0256,2.4358,-2.6921,-264.7434,4.3591,-261.1538,-112.9487,14.4871,-201.6665,10.0002,1.282,6.4104,-1.282,18.2053,
1.0256,-12.5642,-17.6921,-279.7434,3.3333,-276.1538,-127.9487,1.282,-216.6665,0.25659,4.3591,0.76929,5.3845,11.0256,
4.1025,2.4358,-2.6921,-264.7434,9.7437,-261.1538,-112.9487,-2.0513,-201.6665,-5.6411,2.0513,-7.1792,13.3335,7.6924,
11.0259,-0.25635,-12.0513,-249.7434,-5.2563,-246.1538,-102.3076,7.9487,-186.6665,3.8462,0.25635,2.8203,0.25635,10,
2.0513,12.8203,2.9487,-234.7434,9.7437,-231.1538,-100.5129,-2.0513,-171.6665,-2.5645,10.769,-4.1025,15.2563,11.7944,
10.7693,-2.1797,-12.0513,-249.7434,4.1023,-246.1538,-115.5129,7.6921,-186.6665,3.0769,0.51294,-0.51294,6.6667,13.8459,
3.3335,-15.1284,-13.0771,-264.7434,3.8462,-261.1538,-125.8975,3.3335,-201.6665,0.76904,4.3589,-0.76904,14.6152,8.9741,
3.5901,-0.12842,1.9229,-249.7434,8.2053,-246.1538,-110.8975,-5.6409,-186.6665,-3.0769,3.0769,-6.6663,24.1028,7.1794,
12.308,-13.8461,-13.0771,-234.7434,-3.5897,-231.1538,-125.8975,9.3591,-171.6665,11.9231,3.5897,8.3337,13.3334,18.9745,
-2.0513,-2.0513,-2.0513,-232.8206,8.2051,-220.0002,-117.436,5.6406,-156.6665,2.0513,9.7437,3.0767,28.3334,14.3589,
8.4617,-5.3845,-13.5896,-247.8206,-2.3079,-235.0002,-132.436,15.6409,-171.6665,7.9485,2.3079,8.9744,21.282,15.6409,
4.3591,-6.9231,-8.9744,-262.8206,-4.3591,-250.0002,-117.436,17.6921,-186.6665,13.5896,7.4358,13.0769,29.4871,14.6155,
0.51294,8.0769,5.1282,-277.8206,3.0769,-265.0002,-102.436,2.6921,-171.6665,-1.4104,4.6155,-1.9231,38.9744,5.6409,
12.3077,-6.9231,-9.8718,-262.8206,-4.6154,-256.923,-117.436,17.4362,-186.6665,8.7179,4.6154,12.3077,23.9744,16.4103,
-2.6923,0.76929,2.8206,-247.8206,1.282,-241.923,-114.6152,3.3333,-171.6665,-3.3333,2.8206,-0.76929,34.1028,7.4358,
9.9998,15.7693,2.8206,-262.8206,-2.3079,-256.923,-99.6152,5.8972,-186.6665,-0.76929,-3.3333,0.76929,27.9485,9.9998,
2.5645,0.76929,-7.1792,-277.8206,-5.6411,-271.923,-95.3845,3.5898,-201.6665,6.1538,-0.51269,7.6924,27.1797,7.1797,
1.0256,9.7439,7.8208,-278.4614,8.718,-283.0767,-88.7178,-3.0769,-186.6665,-1.0256,2.5642,-5.6409,42.1797,2.5642,
16.0256,-5.2561,-7.1792,-293.4614,-2.0513,-298.0767,-103.7178,11.9231,-201.6665,8.7178,2.0513,9.3591,39.4873,13.8462,
4.8716,-7.436,-3.8462,-288.4614,4.3589,-283.0767,-118.7178,4.3589,-186.6665,-0.76904,5.3848,0.76904,44.3589,7.9487,
3.3333,7.564,4.8718,-286.4104,0.76929,-281.7949,-103.7178,0.76929,-171.6665,-0.76929,-4.3591,-3.8464,29.3589,5.8972,
1.5386,-1.5386,-7.1792,-294.8718,-1.5386,-296.7949,-88.7178,9.7437,-172.3076,8.7183,4.1025,10.7695,14.3589,14.3589,
-1.2822,5.3848,-0.25635,-279.8718,7.436,-281.7949,-93.0769,-0.25635,-181.7949,0.25635,10.5127,1.7949,29.3589,10,
13.7178,-9.6152,-15.2563,-294.8718,-6.6667,-296.7949,-108.0769,14.7437,-196.7949,14.8718,6.6667,16.7949,44.3589,14.8718,
0.25659,-24.6152,-13.0769,-309.8718,-0.25659,-311.7949,-123.0769,1.282,-186.9231,3.3333,9.4871,5.3845,52.0515,7.9485,
4.6152,-9.6152,1.9231,-294.8718,0.5127,-296.7949,-108.0769,-0.5127,-171.9231,-3.5898,3.0767,-4.6157,54.8716,5.6411,
4.1025,-2.0513,-12.3079,-279.8718,-8.2051,-281.7949,-93.0769,10.2563,-156.9231,4.6152,2.0513,4.6152,61.0254,7.6919,
-1.7949,3.8462,2.6921,-264.8718,6.7949,-268.4614,-96.1538,0.25635,-171.9231,-0.25635,4.8721,-0.76904,71.5386,7.436,
13.2051,-11.1538,-12.3079,-279.8718,-3.8462,-283.4614,-111.1538,14.6152,-186.9231,14.7437,3.8462,14.231,56.5386,13.0771,
2.0513,-26.1538,-22.5642,-294.8718,-2.0513,-298.4614,-126.1538,3.5898,-201.9231,5.6411,7.1797,11.2822,60.5127,4.6152,
5.8977,-11.1538,-7.5642,-279.8718,1.282,-283.4614,-111.1538,-0.76929,-186.9231,-3.8459,0.76929,-1.282,59.2307,2.8206,
10.2565,-4.6154,-11.2819,-264.8718,-4.6154,-268.4614,-96.1538,13.3336,-171.9231,10.7692,7.6925,10.2565,47.1798,4.6154,
1.0259,0,0,-249.8718,6.1543,-253.4614,-97.4358,2.5645,-186.9231,0,8.7183,0,57.9487,-1.5381,
16.0259,-15,-15,-264.8718,0.51282,-268.4614,-112.4358,17.5645,-201.9231,15,-0.51282,15,49.7438,13.4619,
8.718,-16.9229,-22.564,-279.8718,5.1282,-283.4614,-127.4358,12.8206,-216.9231,14.8718,-5.1282,10.7693,56.4104,6.6667,
12.3076,-1.9229,-7.564,-264.8718,16.4102,-268.4614,-112.4358,4.6152,-201.9231,2.0513,-3.0771,-2.0513,60.5127,-5.1284,
17.6924,1.7949,-17.1794,-249.8718,1.4102,-253.4614,-97.4358,17.1797,-186.9231,8.9746,-3.3333,11.5386,45.5127,1.7949,
5.6411,10.7695,-2.1794,-234.8718,9.231,-238.4614,-107.1792,2.1797,-171.9231,-3.5894,-2.564,0.51318,54.8721,0,
20.6411,-4.2305,-17.1794,-249.8718,15.1284,-253.4614,-122.1792,13.5898,-186.9231,6.4102,-2.8203,7.436,47.9487,2.8203,
17.436,-9.231,-16.9231,-264.8718,15.3843,-268.4614,-124.6155,13.333,-201.9231,6.6665,2.564,7.6924,47.1792,-2.564,
18.7178,5.769,-1.9231,-263.3335,13.0767,-258.718,-109.6155,6.9229,-186.9231,-0.25635,-2.3076,0.25635,43.333,-3.8462,
27.692,-9.231,-16.9231,-248.3335,2.5641,-243.718,-124.6155,19.4869,-174.359,14.7437,-2.5641,15.2563,29.7433,5.1281,
12.692,5.769,-4.3586,-233.3335,15.1282,-228.718,-115.6409,4.4869,-176.1538,-0.25635,1.282,0.76929,44.7433,-2.8206,
23.8462,10,-12.0513,-248.3335,8.4614,-243.718,-130.6409,14.6152,-191.1538,-0.25635,-5.3848,3.3335,33.5898,0.25635,
20.769,-2.3079,-11.5386,-263.3335,8.4614,-258.718,-115.6411,14.6152,-206.1538,3.3335,-1.7949,10.5127,33.5898,1.7949,
15.8975,12.6921,-0.5127,-278.3335,17.9487,-273.718,-100.6411,0.5127,-191.1538,-2.0513,-1.5386,0.5127,47.1792,1.0254,
21.0255,-2.3079,-15.5127,-280.5128,2.9487,-268.205,-115.6411,15.5127,-206.1538,9.7438,-2.5641,14.8717,32.1792,4.1027,
6.0255,4.3589,-7.436,-265.5128,13.0767,-253.5898,-125.3848,4.8716,-191.1538,-2.3076,2.3076,2.3076,41.7949,-5.8975,
14.1025,19.2305,-11.5386,-280.5128,7.436,-268.5898,-110.3848,7.436,-206.1538,0.25635,-8.4614,1.2822,32.0513,-0.25635,
7.4355,4.2305,-21.7949,-295.5128,-0.25635,-283.5898,-95.3848,7.4355,-221.1538,2.3076,-9.4873,7.4355,29.4868,3.8462,
8.4614,11.5386,-6.7949,-306.4102,14.7437,-284.8718,-100.2563,2.8208,-206.1538,-5.3848,-0.25635,-1.2822,44.4868,1.7949,
23.0769,-3.4614,-21.7949,-321.4102,3.5901,-299.8718,-115.2563,16.9231,-221.1538,6.6667,-3.0769,10.7693,29.4868,3.0769,
11.7944,0.5127,-9.231,-306.4102,16.4102,-284.8718,-114.8721,3.0767,-206.1538,-3.0771,0,3.0767,33.333,0,
15.3848,15.5127,-0.5127,-291.4102,10.769,-269.8718,-99.8721,5.1279,-191.1538,-7.1797,-8.2051,0.5127,28.7178,3.5898,
11.7947,3.5896,-12.3076,-306.1538,-2.5642,-284.8718,-84.8721,15.3845,-203.0769,2.5642,-4.6155,11.7947,24.6155,7.6921,
7.9487,14.6157,1.2822,-291.1538,8.4619,-286.4102,-99.8721,0.38452,-211.0254,-4.8716,-0.76904,-0.25635,39.6155,3.3335,
22.9487,-0.38428,-13.7178,-306.1538,0,-301.4102,-114.8721,15.3845,-226.0254,10.1284,0,14.7437,24.6155,13.8459,
7.9487,-15.3843,-27.6924,-321.1538,1.0256,-316.4102,-129.8721,8.2053,-231.282,-1.0256,1.5383,4.6155,18.4617,4.6155,
18.2048,-0.38428,-12.6924,-306.1538,1.7947,-301.4102,-114.8721,7.9485,-216.282,-5.385,-0.76929,-0.76929,12.051,4.3586,
14.1028,4.8718,-8.4614,-291.1538,-13.0769,-286.4102,-99.8721,11.0256,-201.282,0.76929,-0.76929,10.0002,12.0515,2.3079,
2.8206,8.9744,4.3591,-276.1538,1.9231,-272.564,-114.6152,0.76929,-215.6409,-6.4099,2.8206,-0.76929,27.0515,-0.76929,
17.8206,-6.0256,-10.6409,-291.1538,0.76929,-287.564,-129.6152,15.7693,-230.6409,6.9231,-0.76929,11.5383,13.5896,10.5129,
2.8206,-21.0256,-21.7949,-306.1538,1.7949,-302.564,-144.6152,3.8462,-222.3079,-0.25635,10,8.9741,24.8716,4.3589,
0,-6.0256,-6.7949,-291.1538,2.564,-287.564,-129.6152,0,-207.3079,-5.1284,9.7437,-1.0254,33.8462,0,
6.1539,-8.2052,-21.7949,-276.1538,-6.1539,-272.564,-114.6152,15,-192.3079,9.8716,8.2052,10.7692,22.5641,11.2819,
-2.0513,-1.5386,-10.769,-265.6409,4.6152,-257.564,-113.8462,9.231,-184.1025,4.6152,11.7949,1.5386,36.4102,11.7949,
12.9487,-16.5386,-25.769,-280.6409,-7.9487,-272.564,-128.8462,19.231,-199.1025,14.1025,7.9487,14.1025,21.4102,16.1538,
3.5896,-27.6924,-28.718,-295.6409,-3.5896,-287.564,-143.8462,10.2566,-214.1025,11.282,10.7693,13.8459,22.5642,9.7434,
-2.0515,-12.6924,-13.718,-280.6409,-3.0769,-272.564,-128.8462,1.0256,-199.1025,-1.0256,2.051,1.0256,16.9231,4.1023,
8.9742,-8.9742,-19.2308,-265.6409,-12.5641,-257.564,-123.3334,16.0256,-184.1025,13.9744,11.0255,16.0256,10.0001,16.6666,
-1.5383,-1.0256,-4.2308,-250.6409,1.0256,-242.564,-120,3.0769,-169.1025,3.5896,18.9744,5.6409,25.0001,10.2566,
11.7949,-16.0256,-19.2308,-265.6409,-7.6924,-257.564,-135,10.769,-184.1025,9.2305,7.6924,10.2563,12.3076,10.2563,
6.4103,-16.1537,-16.6666,-280.6409,-6.4103,-272.564,-143.3334,14.1027,-199.1025,12.0514,18.7179,17.1793,15.1281,12.5641,
0,-1.1537,-1.6666,-272.8203,-9.7437,-269.7434,-128.3334,1.0259,-184.1025,-2.0513,13.3335,2.1793,17.9487,6.667,
15,-9.7437,-15.3848,-257.8203,-13.8464,-254.7434,-143.3334,16.0259,-169.1025,12.9487,14.8716,17.1793,9.7437,21.667,
0.76929,3.8459,-0.38477,-242.8203,-6.4104,-239.7434,-128.4617,1.0259,-166.9231,-1.282,5.8972,2.8206,13.5896,6.667,
11.0256,5.8972,-7.949,-257.8203,-11.5383,-254.7434,-143.4617,4.3591,-181.9231,-0.25659,0.25659,2.3079,3.8459,4.3591,
3.0771,-2.0513,-4.6152,-272.8203,-12.8203,-269.7434,-128.4617,6.667,-196.9231,2.0513,6.1543,8.2056,6.1543,4.6157,
5.3848,12.9487,10.3848,-280.2563,2.1797,-271.0256,-113.4617,-3.333,-181.9231,-7.9487,6.9233,-2.3076,17.1797,3.8462,
18.9741,-2.0513,-4.6152,-281.0256,-4.1025,-280.5129,-128.4617,11.667,-196.9231,4.1025,4.6152,9.2305,6.6665,11.7949,
3.9741,-2.0515,1.0256,-266.0256,5.1282,-265.5129,-128.2053,5.6409,-183.0771,-3.0769,9.7434,-1.0256,21.6665,6.6667,
2.3076,-1.7949,0.25635,-257.1797,2.8203,-254.1028,-121.2822,6.4102,-183.3335,-2.3076,8.9741,-0.25635,20.769,6.4102,
1.282,-1.282,-0.25659,-265.3845,0.76929,-260.7693,-114.1025,6.9231,-183.8462,-1.282,7.4358,0.25659,17.1794,5.8972,
1.2817,-0.25635,-0.25635,-272.5642,-0.25635,-265.8975,-106.4104,8.4614,-183.3335,0.25635,7.4355,1.2817,14.6152,6.4102,
0.25659,-0.25659,-1.282,-280.7693,-2.3079,-272.5642,-99.2307,8.9744,-184.3591,1.282,6.4104,1.7947,11.0256,6.4104,
-0.25635,0.25635,-1.7949,-287.9487,-4.3589,-278.2051,-92.0513,10,-184.3591,2.3076,5.8975,2.8203,7.9487,6.4102,
-1.0256,1.0256,-2.0515,-295.8975,-6.1541,-284.6155,-84.6155,10.7693,-184.6155,3.5896,4.6155,3.5896,4.6155,6.1541,
-1.282,1.282,-2.8206,-303.8459,-7.9485,-291.0254,-77.1794,11.5388,-184.3589,4.8718,4.3591,3.8464,1.7952,6.4104,
0,4.6157,9.7437,-291.282,7.0515,-285.1279,-92.1794,0,-194.8716,-2.564,16.9233,-5.1279,16.7952,5.1284,
10.2563,-10.3843,-5.2563,-306.282,-3.5898,-300.1279,-107.1794,9.7437,-209.8716,8.2051,11.7949,5.1284,3.5898,12.8208,
-2.8206,-25.3843,-17.1794,-321.282,2.8206,-315.1279,-122.1794,5.3845,-200.2566,5.8972,16.6667,3.8459,13.5896,15.6409,
-1.0256,-10.3843,-2.1794,-306.282,2.0515,-300.1279,-107.1794,1.0256,-185.2566,-3.5896,8.2053,-1.5383,7.6926,12.3079,
3.0771,-2.0513,-5.1279,-291.282,-5.6406,-285.1279,-92.1794,10.7695,-170.2566,7.6924,10.2563,11.2822,2.0513,16.9233,
-1.7952,-0.76929,3.8459,-276.282,6.9231,-270.1279,-107.1794,3.3333,-185.2566,0.76929,8.4617,-3.7178,15.6409,11.0256,
12.8203,-15.7693,-11.1541,-291.282,1.5386,-285.1279,-122.1794,18.3333,-200.2566,10.769,3.0767,8.7178,0.64087,20,
-2.1797,-19.7434,-16.1541,-306.282,8.9744,-300.1279,-137.1794,7.4358,-215.2566,3.8459,12.051,4.8718,9.4871,15.6409,
-1.7949,-4.7434,-1.1541,-291.282,6.4102,-285.1279,-122.1794,1.7949,-200.2566,-4.3594,3.8462,-7.9487,7.9487,7.4355,
9.7438,2.5641,-6.1539,-276.282,-2.0514,-270.1279,-107.1794,16.7949,-185.2566,7.6925,2.0514,7.0513,-4.1027,17.4357,
-2.5642,9.7434,7.1794,-261.282,12.9486,-255.1279,-107.1794,1.7949,-182.0513,-6.1541,5.6409,-1.0256,10.8973,12.3079,
5.6406,-5.2566,-7.8206,-276.282,3.5894,-270.1279,-122.1794,10.769,-197.0513,3.5894,0,2.564,0,10.769,
-3.5896,-16.4104,-17.4358,-291.282,8.718,-285.1279,-137.1794,10.7693,-212.0513,5.1282,8.718,3.5896,3.5896,10.7693,
-0.76904,-1.4104,-2.4358,-276.282,10,-270.1279,-122.1794,0.76904,-197.0513,-6.4102,6.4102,-5.8975,6.9229,8.4614,
11.7949,-3.0769,-5.6411,-261.282,-1.5386,-255.1279,-107.1794,15.769,-182.0513,8.5898,12.3076,9.1025,1.5386,17.9487,
-3.2051,1.282,3.3333,-246.282,7.949,-244.8716,-110,1.7952,-180.2563,-1.282,7.949,-2.8206,6.4104,5.3845,
8.718,-11.7947,-11.6667,-261.282,10.2566,-259.8716,-125,14.8718,-195.2563,4.6155,9.2307,4.6155,-4.6155,15.8977,
-1.7949,-21.282,-18.718,-276.282,4.8721,-274.8716,-118.718,11.5386,-210.2563,4.3589,16.1538,8.4614,1.7949,14.6152,
-5.6414,-6.282,-3.718,-281.5386,11.7947,-268.2053,-103.718,3.0769,-195.2563,-1.5383,10.2561,-1.0256,9.7434,7.6921,
8.2051,-21.282,-18.718,-266.5386,6.1538,-253.2053,-118.718,18.0769,-185.6409,11.7949,8.2051,10.7695,-5.2566,12.8208,
-1.5386,-7.6924,-3.718,-251.5386,16.4102,-241.5383,-115.3845,8.2051,-179.4871,0,14.3589,1.5386,9.7434,10.7695,
2.0513,-0.5127,-9.231,-266.5386,1.4102,-256.5383,-123.0769,11.2817,-194.4871,1.0254,1.5386,2.0513,-4.6152,9.2305,
0.25635,-15.1282,-9.4871,-281.5386,4.3589,-271.5383,-112.564,13.5898,-209.4871,13.0771,12.5645,10.5127,-0.25635,12.0513,
0,-9.7437,0,-296.5386,18.9741,-286.5383,-97.564,2.564,-194.4871,2.0513,17.4355,-2.5645,14.7437,9.2305,
6.4104,-24.7437,-15,-299.2307,5.3845,-291.5383,-112.564,16.1541,-209.4871,5.3845,7.4358,8.9744,-0.25635,14.6155,
-2.3079,-9.7437,0,-284.2307,20.3845,-276.5383,-102.3076,9.4871,-194.4871,-1.282,16.6667,3.8459,11.0256,15.1282,
-0.51294,5.2563,7.1794,-299.2307,11.282,-291.5383,-87.3076,3.5896,-198.9744,-11.282,5.6409,-8.2053,0.51294,4.1028,
-6.9233,20.2563,15.1284,-314.2307,14.6152,-306.5383,-72.3076,4.8716,-183.9744,-5.8975,12.564,-3.3335,11.5386,3.3335,
-3.8464,35.2563,30.1284,-299.2307,29.6152,-291.5383,-57.3076,1.282,-168.9744,-1.282,24.3591,-7.949,26.5386,18.2053,
2.3076,20.2563,15.1284,-314.2307,19.231,-306.5383,-72.3076,14.6152,-183.9744,5.3848,9.3591,-2.3076,11.5386,23.8462,
1.0256,5.2563,3.0769,-309.7439,26.1536,-291.5383,-87.3076,15.3845,-198.9744,-1.5388,14.8713,-1.0256,16.9226,17.9485,
5.1279,19.4873,12.8203,-294.7439,14.3589,-276.5383,-72.3076,6.6665,-183.9744,-10.2563,-0.12866,-7.6924,1.9226,4.6152,
1.5381,4.4873,-2.1797,-309.7437,4.6152,-291.5383,-57.3076,14.3589,-176.9233,4.7437,0,6.6665,-12.8208,12.8203,
1.2822,3.8462,-2.8203,-318.2051,19.6152,-306.5383,-72.3076,12.0513,-191.9233,-1.2822,8.4614,-2.3076,2.1792,16.6665,
16.2822,-11.1538,-17.8203,-333.2051,18.4617,-321.5383,-87.3076,27.0513,-206.9233,4.6155,6.6667,8.718,-4.6155,22.5642,
1.7949,-22.3076,-19.2305,-348.2051,17.6924,-335.1282,-102.3076,14.1025,-221.9233,-1.7949,7.9487,1.7949,3.3335,18.2051,
8.4617,-7.3076,-4.2305,-333.2051,17.1794,-320.1282,-87.3076,14.1028,-206.9233,-2.8206,2.8206,-5.3845,-2.8206,17.6926,
6.9231,1.7947,-15.1282,-318.2051,7.9485,-305.1282,-72.3076,19.7434,-191.9233,-1.7947,2.3079,2.3079,-17.1794,11.5383,
0.51294,9.7434,-2.0515,-303.2051,22.9485,-290.1282,-87.3076,11.7947,-206.9233,-7.1794,11.282,-0.51294,-2.1794,14.3586,
13.5898,-5.2566,-17.0515,-318.2051,11.5386,-305.1282,-102.3076,26.7947,-221.9233,7.8206,7.9487,12.0513,-7.9487,27.9487,
2.0513,-20.2566,-32.0515,-333.2051,13.333,-320.1282,-117.3076,20,-236.9233,7.6924,12.3076,9.2305,-2.0513,26.6665,
1.0256,-5.2566,-17.0515,-318.2051,12.8206,-305.1282,-102.3076,12.3079,-221.9233,-1.0256,4.6155,2.0515,-6.6663,21.0256,
4.1028,0.51294,-20,-303.2051,-0.51294,-290.1282,-87.3076,25.1282,-206.9233,8.2053,5.1282,14.3591,-19.4871,23.0769,
-1.282,5.3845,-7.9485,-288.2051,14.4871,-275.1282,-102.3076,14.1028,-191.9233,-1.282,14.1028,1.282,-4.4871,20.7693,
13.718,-9.6155,-22.9485,-303.2051,18.9744,-290.1282,-117.3076,26.6667,-206.9233,11.282,9.2307,10.2566,-9.2307,29.7434,
5.6409,-21.5386,-23.5898,-318.2051,19.4871,-305.1282,-132.3076,19.9998,-221.9233,9.2307,13.3333,6.6667,-5.6409,24.6155,
0.76929,-6.5386,-8.5898,-303.2051,15.1282,-290.1282,-117.3076,8.4612,-206.9233,-3.3333,9.9998,-8.3333,-0.76929,14.615,
15.1283,-7.4359,-11.5385,-288.2051,7.4359,-275.1282,-116.1539,23.4612,-191.9233,11.6667,14.6156,6.6667,-8.4615,29.615,
0.1283,0.25659,-5.8972,-273.2051,15.1282,-260.1282,-114.1025,14.1028,-183.8462,1.282,10.0002,7.4358,-0.25659,23.3333,
7.9487,-13.5898,-20.8972,-288.2051,10.5127,-275.1282,-129.1025,24.8721,-198.8462,8.9746,7.9487,7.436,-7.436,28.4614,
3.0769,-21.0259,-27.6924,-303.2051,12.3074,-290.1282,-127.6924,22.051,-213.8462,9.7434,15.8972,6.1536,-3.0769,23.5896,
1.5386,-6.0259,-12.6924,-307.6924,20,-295.3845,-112.6924,9.7437,-198.8462,-1.5386,10.769,-2.0513,1.5386,19.4873,
14.3591,-21.0259,-27.6924,-292.6924,9.2307,-280.3845,-127.6924,24.7437,-184.1025,13.4614,11.282,12.9487,-9.2307,34.4873,
-0.64087,-6.0259,-12.6924,-277.6924,19.231,-265.3845,-119.2307,17.6924,-183.3333,5.8975,15.6411,3.8462,5.7693,26.4102,
1.0256,6.1541,-14.8718,-292.6924,11.282,-280.3845,-124.1025,16.9231,-198.3333,1.5383,6.6667,-1.0256,-9.2307,20.5129,
3.0769,-3.0769,-16.4104,-307.6924,12.8206,-295.3845,-111.2822,24.1023,-213.3333,11.7947,15.8972,13.9744,-12.8206,27.6921,
0.5127,1.5386,-8.2051,-322.6924,19.4873,-310.3845,-101.5383,12.8208,-198.3333,1.5386,11.7949,-0.51269,-1.0254,23.5898,
9.4871,-13.4614,-23.2051,-337.6924,8.4617,-325.3845,-116.5383,25.3845,-213.3333,11.5383,8.9744,8.4617,-8.4617,25.3845,
-1.282,-3.3333,-8.2051,-322.6924,23.4617,-310.3845,-111.5383,13.5896,-198.3333,4.3591,21.282,1.282,6.5383,23.3333,
3.8459,11.6667,1.282,-327.436,19.7434,-322.8206,-96.5383,13.5896,-194.6155,-1.282,6.282,-6.4104,-4.3591,19.7434,
-0.51294,3.0769,-12.3079,-342.436,9.2307,-337.8206,-81.5383,21.0256,-208.718,2.051,4.6155,0.51294,-11.7947,19.4871,
-0.76929,11.5383,0.76929,-327.436,24.2307,-322.8206,-88.9744,12.051,-193.718,-5.3845,11.0256,-6.9231,3.2053,20.7693,
14.2307,-3.4617,-14.2307,-342.436,23.8459,-337.8206,-103.9744,27.051,-208.718,9.6155,6.9231,8.0769,-6.9231,31.0256,
0,-11.7949,-8.7178,-330.2561,35.3848,-323.0767,-118.9744,20,-203.5896,2.5645,14.8721,0,3.5898,26.667,
3.3335,3.2051,6.2822,-315.2561,22.8208,-308.0767,-103.9744,16.1538,-188.5896,-3.3335,6.9233,-8.4614,-4.8716,22.8208,
2.3079,17.1794,-2.8206,-315.6409,11.5383,-306.4102,-88.9744,19.7434,-180.7693,3.8459,1.7947,-1.7947,-11.5383,21.282,
-2.564,14.3589,2.564,-312.3076,26.5383,-311.282,-97.9487,10.7695,-195.7693,-5.6411,3.5898,-13.8462,3.4617,18.4614,
12.436,-0.64111,-12.436,-327.3076,24.8716,-326.282,-112.9487,25.7695,-210.7693,9.3589,10,1.1538,-9.4873,33.4614,
-0.25659,-3.3333,-12.5642,-342.3076,29.4871,-341.282,-127.9487,19.2307,-203.8462,6.9231,18.2053,5.8972,0.25659,34.6155,
1.5386,11.6667,2.4358,-327.3076,28.2051,-326.282,-112.9487,12.3076,-188.8462,-1.5386,6.6665,-7.6924,-3.0771,26.6665,
0.5127,13.8462,-5.6411,-312.3076,13.2051,-311.282,-97.9487,18.4614,-173.8462,4.6152,4.1025,-0.5127,-16.4102,24.6152,
-7.1794,7.1794,2.5642,-300,22.051,-298.4617,-96.4104,5.6409,-185.6411,-1.5383,13.8459,-10.2566,-1.4102,21.5383,
7.8206,-7.8206,-12.4358,-315,27.9487,-313.4617,-111.4104,20.6409,-200.6411,13.4617,13.5894,4.7434,-7.9487,35.1279,
2.3076,-15.6411,-20.7695,-330,33.5898,-328.4617,-126.4104,22.8203,-215.6411,5.3843,11.0254,0.25635,-0.25635,32.564,
2.564,-0.64111,-5.7695,-315,30.769,-313.4617,-111.4104,12.3076,-200.6411,-2.564,4.1025,-13.3335,-3.0771,28.2051,
1.5383,11.7947,-6.1541,-300,15.769,-298.4617,-96.4104,15.8972,-185.6411,4.1023,1.0256,-1.0256,-18.0771,27.6921,
-4.1025,18.4614,7.6924,-285,30.769,-283.4617,-90.7693,10.769,-183.5898,-4.6152,8.2051,-5.6411,-3.0771,29.7437,
10.8975,3.4614,-7.3076,-300,30.769,-298.4617,-105.7693,25.769,-198.5898,8.2051,7.1797,4.1025,-4.1025,36.9229,
2.564,-9.7437,-18.4617,-315,31.2822,-313.4617,-120.7693,25.6411,-213.5898,11.2822,17.9487,8.2051,-2.564,32.3076,
1.2822,5.2563,-3.4617,-300,36.1538,-298.4617,-105.7693,17.1797,-198.5898,-3.3335,11.0254,-5.8975,-1.2822,27.9487,
2.0513,4.1025,-7.6924,-285,21.1538,-283.4617,-104.1028,25.6406,-183.5898,4.1025,2.0513,-2.0513,-16.2822,29.2305,
-7.6924,15.3848,3.0771,-270,33.8462,-268.4617,-106.6665,14.3589,-180.5127,0.5127,11.2822,-8.2051,-1.2822,27.1797,
5.8975,7.436,-11.9229,-285,25.8975,-283.4617,-121.6665,21.7949,-195.5127,3.3335,4.3589,-3.3335,-12.564,31.0259,
3.0769,7.6921,-12.3079,-300,34.8713,-298.4617,-114.3591,21.0256,-210.5127,5.6409,11.282,-3.0769,-4.1028,32.3074,
-1.0256,22.6921,2.6921,-286.6665,40.0002,-289.2305,-99.3591,7.6926,-195.5127,-2.5637,7.6926,-17.4358,1.0256,25.1287,
10.5129,7.6921,-12.3079,-271.6665,25.0002,-274.2305,-114.3591,22.6926,-190,12.4363,6.4099,-2.4358,-13.0771,35.6409,
-2.0513,22.6921,2.0513,-256.6665,35.3848,-259.2305,-115.8975,15.3848,-180,-2.5637,11.7949,-4.1025,1.9229,30.2563,
7.1792,36.9229,3.5898,-271.6665,29.7437,-274.2305,-119.4873,16.9229,-195,-2.0513,2.0513,-8.7183,-8.2051,29.2305,
1.2822,21.9229,-3.8462,-286.6665,25.8975,-289.2305,-110,20.2563,-210,5.3848,6.4102,-1.2822,-7.436,33.5898,
-1.5383,22.5642,1.5383,-301.6665,37.949,-304.2305,-96.4102,11.7952,-195,-2.5642,9.7439,-9.2307,7.564,33.3333,
13.4617,7.5642,-13.4617,-316.6665,29.7435,-319.2305,-111.4102,26.7952,-210,12.4358,9.2308,5.7693,-7.436,42.0516,
0.51294,8.2053,-0.51294,-301.6665,36.9231,-304.2305,-119.4871,14.3591,-195,-2.051,9.7434,-7.1794,1.0256,30.7693,
4.6155,23.2053,8.718,-316.6665,30.7693,-308.718,-104.4871,18.9744,-184.1028,-2.5642,2.5642,-8.2053,-6.6667,30.7693,
0.51294,31.282,-6.282,-331.6665,21.0256,-323.718,-89.4871,24.6155,-199.1028,5.1282,2.5642,-0.51294,-13.8459,30.7693,
0,28.7178,0,-321.5386,35.8975,-318.4617,-103.0769,10.2563,-198.4617,-6.6665,6.1538,-13.8462,1.0254,27.6924,
15,13.7178,-15,-336.5386,32.0513,-333.4617,-118.0769,25.2563,-213.4617,8.3335,11.0254,1.1538,-7.9487,42.6924,
0,3.333,-17.1797,-335.1284,35.6411,-322.3079,-133.0769,20.2563,-198.4617,7.9487,17.6924,-0.25635,0.25635,37.1792,
5.3845,18.333,-2.1797,-320.1284,34.6155,-307.3079,-118.0769,23.8459,-183.4617,1.7947,17.6921,-1.7947,-3.8459,36.1541,
-0.25635,18.7178,-14.1028,-307.9487,19.6155,-300.2566,-103.0769,22.3076,-174.1025,0.25635,12.564,4.3589,-12.0513,29.4873,
-3.0767,23.0771,0.89722,-311.2817,34.6155,-303.0767,-104.1023,10.7695,-189.1025,-2.0513,16.9233,-6.6665,2.9487,27.6924,
11.9233,8.0771,-14.1028,-326.2817,33.5896,-318.0767,-119.1023,25.7695,-204.1025,12.9487,13.5896,7.4358,-7.4358,40.7693,
-1.0256,1.0256,-22.0515,-341.2817,36.4099,-333.0767,-134.1023,21.0256,-219.1025,4.615,15.8972,1.0256,-2.0515,35.3845,
2.3076,16.0256,-7.0515,-326.2817,32.0513,-318.0767,-119.1023,8.4619,-204.1025,-2.3076,7.436,-10.5127,-4.8716,25.3848,
-1.0254,31.0256,0,-311.2817,22.0513,-303.0767,-104.1023,13.3335,-189.1025,4.6157,6.667,0,-16.9229,25.6411,
-2.3076,26.4102,2.3076,-296.6667,37.0513,-294.6155,-91.0256,13.0771,-197.1794,-3.8462,18.7178,-3.8462,-1.9229,34.6152,
12.6924,11.4102,-12.6924,-311.6667,33.3335,-309.6155,-106.0256,28.0771,-212.1794,8.2051,16.9233,5.6411,-5.6411,40,
3.5898,-1.5386,-25.1279,-326.6667,37.436,-324.6155,-121.0256,18.9746,-227.1794,9.231,25.1284,1.5386,-1.5386,30.769,
1.7949,13.4614,-10.1279,-311.6667,35.6411,-309.6155,-106.0256,11.0254,-212.1794,-1.7949,15.6411,-9.4873,-3.8462,25.8975,
3.3335,28.4614,-8.9746,-296.6667,20.6411,-294.6155,-91.0256,19.7437,-197.1794,1.2822,6.9229,-1.2822,-18.8462,25.3848,
1.282,30.5129,4.8718,-281.6667,35.6411,-283.8462,-95.1282,12.0515,-197.6924,-1.7947,19.2307,-7.9485,-3.8462,25.3845,
15.8975,15.5129,-10.1282,-296.6667,34.8716,-298.8462,-110.1282,24.1025,-212.6924,6.1538,16.4102,-1.5386,-11.2822,32.3076,
5.3843,13.5898,-12.5645,-311.6667,35.1279,-313.8462,-124.3591,19.7437,-227.6924,2.3076,18.7178,-2.3076,-7.436,26.9229,
5.1282,28.5898,2.4355,-296.6667,38.4617,-298.8462,-109.3591,10.2566,-212.6924,-5.1282,10.2566,-15.3845,-8.2048,21.0256,
8.2051,14.3589,-10.769,-281.6667,23.4617,-283.8462,-111.282,22.564,-197.6924,5.6411,6.6665,-5.6411,-23.2048,28.2051,
1.0256,29.3589,4.231,-266.6667,36.4104,-268.8462,-99.4871,13.8464,-204.1025,-1.0256,16.9231,-10.7693,-8.2048,25.6409,
13.0771,22.8203,-10.769,-281.6667,21.4104,-283.8462,-114.4871,17.1797,-219.1025,5.3848,8.4614,-5.3848,-19.7437,22.3076,
1.0256,7.8203,-25.769,-296.6667,15.8977,-298.8462,-129.2307,15.8977,-234.1025,7.6926,15.3845,-1.0256,-18.4612,22.0515,
2.0513,21.5386,-10.769,-311.6667,30.8977,-313.8462,-114.2307,13.8462,-219.1025,0,24.1025,-5.1284,-3.4612,26.6665,
15.3849,6.5386,-25.769,-296.6667,25.6412,-298.8462,-129.2307,27.6925,-209.2306,11.2823,21.5387,9.8716,-17.4357,32.8204,
5.8975,21.5386,-10.769,-281.6667,40.6412,-283.8462,-114.2307,16.1538,-202.8206,0.25635,24.3589,-2.3076,-3.8462,28.4614,
12.8206,36.5386,1.0256,-296.6667,32.8206,-298.8462,-106.1536,20.0002,-217.8206,-1.0256,14.3591,-5.6409,-15.3845,31.7952,
-0.25659,21.5386,-13.9744,-311.6667,21.7947,-313.8462,-103.3335,19.2307,-232.8206,3.3333,16.6667,0.25659,-19.7434,31.5383,
-0.76929,20.2566,-14.1023,-326.6667,36.7947,-326.4102,-90.5127,13.5901,-217.8206,0.76929,24.8718,-5.3845,-4.7434,30.0002,
14.2307,5.2566,-29.1023,-341.6667,25.6409,-341.4102,-105.5127,28.5901,-232.8206,15.7693,24.1023,9.6155,-12.8206,36.9231,
10,-7.9487,-28.4614,-328.9741,30.5132,-326.4102,-120.5127,21.7949,-232.051,13.0771,26.9233,7.9487,-8.4614,35.1284,
8.4617,7.0513,-22.3076,-343.9741,18.718,-341.4102,-105.5127,22.8206,-237.6921,1.282,11.9233,-1.282,-23.4614,25.8977,
1.0256,5.6409,-27.6924,-358.9741,12.3079,-356.4102,-90.5127,24.6155,-242.5642,-1.0256,16.9231,2.5642,-31.282,17.9485,
7.436,11.0259,-13.0767,-356.1538,27.3079,-352.564,-105.5127,15.6411,-233.5896,1.2822,29.4873,-2.3076,-16.282,22.3076,
19.7438,-3.9741,-28.0767,-371.1538,20.7692,-367.564,-120.5127,30.6411,-248.5896,16.2822,26.923,12.6924,-16.6666,36.6666,
4.7438,-11.0254,-29.4871,-358.7178,33.0771,-352.564,-135.5127,22.3076,-235.6409,4.8721,34.1025,10,-1.6666,35.1284,
7.1794,3.9746,-14.4871,-343.7178,28.2053,-337.564,-120.5127,21.5383,-220.6409,-1.5383,25.1282,1.5383,-5.1282,32.3079,
0,10.769,-29.4871,-336.4104,13.2053,-334.8718,-105.5127,18.9741,-214.8718,2.564,13.3335,0,-20.1282,22.564,
2.8208,24.3594,-14.4871,-328.4614,28.2053,-329.4871,-102.3076,13.0771,-229.8718,1.7949,28.3335,-3.333,-5.1282,29.4873,
17.8208,9.3594,-29.4871,-343.4614,25.6411,-344.4871,-117.3076,28.0771,-244.8718,11.7949,30.2563,10.2563,-10.2563,38.4614,
2.8208,-2.3076,-25.8975,-355.1282,31.5386,-353.5898,-132.3076,17.1797,-233.0769,-1.2822,30.5127,1.2822,1.2822,27.436,
3.0769,12.6924,-10.8975,-340.1282,34.3591,-338.5898,-117.3076,7.1794,-218.0769,-10.7693,22.5642,-12.8206,-3.0769,20.5129,
2.3076,27.6924,1.2822,-325.1282,20.769,-323.5898,-102.3076,13.0767,-203.0769,-1.2822,19.7437,-6.9233,-17.6924,20.2563,
-3.8462,41.7949,15.6411,-310.1282,35.769,-308.5898,-87.3076,3.8462,-195.6409,-7.4355,26.9233,-14.6152,-2.6924,19.231,
11.1538,26.7949,0.64111,-325.1282,36.6667,-323.5898,-102.3076,18.8462,-210.6409,4.8718,26.4104,0.38477,-1.282,33.0769,
-0.5127,11.7949,-13.8462,-340.1282,34.8716,-338.5898,-117.3076,14.3589,-225.6409,0.5127,30.2563,-4.6152,2.0513,29.231,
0.76929,26.7949,1.1538,-325.1282,35.1282,-323.5898,-102.3076,7.9485,-210.6409,-2.3079,25.8972,-16.1541,-0.76929,23.3333,
2.3076,38.2051,-2.3076,-310.1282,20.1282,-308.5898,-89.4873,12.564,-195.6409,4.3589,21.2822,-5.3848,-15.6411,22.8203,
-5.385,36.6667,5.8972,-295.1282,33.5896,-293.5898,-99.231,2.8206,-187.436,-2.8206,32.5637,-12.0515,-0.64111,27.4358,
9.615,21.6667,-9.1028,-310.1282,27.6924,-308.5898,-114.231,17.8206,-202.436,12.1794,33.333,0.5127,-4.6152,38.4614,
1.282,6.6667,-24.1028,-325.1282,28.9744,-323.5898,-129.231,16.1541,-217.436,10.0002,37.6926,3.3333,-1.282,32.0515,
-1.5383,21.6667,-9.1028,-310.1282,33.3333,-308.5898,-114.231,1.5383,-202.436,-1.5383,32.8206,-9.2307,6.1541,24.1028,
3.0769,7.6926,-15.8972,-295.1282,18.3333,-293.5898,-110.2563,14.3591,-187.436,8.2053,28.2053,-3.0769,-8.8459,23.5901,
-10.769,22.6926,-0.89722,-280.1282,32.3076,-278.5898,-98.9744,6.6665,-176.4104,-1.5386,34.8716,-16.9233,6.1541,17.436,
4.231,16.9231,-15.8972,-295.1282,27.1794,-293.5898,-113.9744,17.9485,-191.4104,10.7693,28.718,-5.1282,-5.6414,27.1794,
0.76929,4.8718,-19.2307,-310.1282,26.9231,-308.5898,-121.7949,15.6409,-206.4104,9.9998,29.4871,-0.76929,-5.8977,29.9998,
-3.0769,19.8718,-4.2307,-295.1282,36.4104,-293.5898,-106.7949,7.1794,-191.4104,-5.0002,25.1282,-15.7693,7.6921,24.6155,
7.9487,4.8718,-19.2307,-280.1282,24.8721,-278.5898,-121.7949,22.1794,-193.0767,5.8975,23.8462,-0.76929,-4.3589,32.0513,
-4.6152,19.8718,-4.2307,-265.1282,39.8721,-263.5898,-106.7949,9.2305,-178.0767,-2.0513,28.2051,-7.6924,10.6411,25.6411,
3.8462,34.8718,-0.76904,-280.1282,32.564,-278.5898,-110,9.4873,-193.0767,-4.3589,16.6665,-10.5127,0.76904,26.4102,
-1.7949,33.0771,-8.4614,-295.1282,27.9487,-293.5898,-98.718,13.0771,-208.0767,0.76904,20.769,-0.76904,1.7949,30,
-2.3076,36.1538,2.3076,-287.4358,42.9487,-284.8718,-83.718,4.8721,-193.0767,-6.4102,26.4102,-11.5386,16.7949,30,
9.7437,21.1538,-12.6924,-302.4358,30.2563,-299.8718,-98.718,19.8721,-208.0767,8.2051,21.0259,-1.0259,1.7949,34.8716,
-1.0256,17.949,-4.615,-292.3076,41.5388,-285.6409,-113.718,12.3079,-199.9998,1.0256,25.1282,-6.1536,16.7949,29.7439,
-1.0256,32.949,7.6921,-307.3076,31.7947,-300.6409,-98.718,6.1536,-201.0256,-11.7952,10.1282,-12.3079,1.7949,22.5642,
-2.564,25.6411,0,-322.3076,27.1792,-315.6409,-83.718,14.8716,-197.436,0.5127,15.3843,0,-2.564,28.2051,
-5.8975,25.3843,1.7949,-329.4873,36.1538,-316.6667,-97.1797,4.8716,-193.0771,-1.7949,20.2563,-14.6157,12.436,24.3589,
8.9741,10.3843,-13.2051,-344.4873,22.8203,-331.6667,-112.1797,19.8716,-208.0771,10,16.6665,0.38428,-0.76904,36.1538,
-3.3335,-0.25635,-8.9741,-329.4873,33.5898,-316.6667,-127.1797,11.0259,-203.3333,2.3076,26.4102,0.25635,13.0771,35.6411,
-2.564,14.7437,6.0259,-314.4873,27.6924,-301.6667,-112.1797,8.7183,-188.3333,-2.564,12.8208,-10.2563,2.564,24.6152,
1.0256,29.7437,-1.5383,-305.1282,27.6926,-294.8716,-97.1797,22.0515,-173.3333,7.1794,14.3591,-1.0256,-1.0256,29.2307,
-2.5642,28.718,2.5642,-307.1794,42.6926,-295.8975,-85.6411,10.2566,-188.3333,-2.5642,23.0769,-11.282,13.9744,28.718,
1.7949,13.718,-12.4358,-322.1794,27.6926,-310.8975,-100.6411,18.7178,-203.3333,8.4614,14.1025,-1.2822,1.2822,28.9741,
-5.3845,-1.282,-27.4358,-337.1794,32.051,-325.8975,-115.6411,20.2561,-218.3333,15.6409,25.8972,5.3845,16.2822,36.6667,
-4.8716,13.718,-12.4358,-322.1794,28.4614,-310.8975,-100.6411,5.8975,-203.3333,0.64087,10.8972,-9.6155,11.0259,28.4614,
-2.3079,17.6921,-12.0515,-307.1794,16.6667,-295.8975,-85.6411,11.0256,-188.3333,2.8206,9.4871,1.7947,-1.7947,25.8972,
-6.1538,21.0254,2.0513,-292.1794,31.6667,-296.4104,-100.6411,2.0513,-193.8462,-2.0513,16.9229,-5.6411,13.2053,25.6411,
8.8462,6.0254,-12.9487,-307.1794,27.1797,-311.4104,-115.6411,11.7949,-208.8462,4.1025,2.564,-2.564,2.564,29.231,
3.3333,3.8464,-7.9485,-322.1794,34.1028,-326.4104,-130.6411,8.9744,-223.8462,-3.3333,7.949,-4.3591,12.0515,28.4617,
-1.0256,18.8464,7.0515,-307.1794,36.9231,-311.4104,-115.6411,4.1023,-208.8462,-12.3079,1.0256,-15.3845,4.6155,23.5896,
0.5127,32.3076,-0.5127,-292.1794,22.0513,-296.4104,-100.6411,14.8716,-193.8462,2.564,1.0259,-2.564,-10.3845,23.5898,
-2.5642,30.2566,6.1541,-277.1794,36.9231,-281.4104,-108.2051,2.5642,-183.5896,-2.5642,13.3333,-8.2048,4.6155,24.6155,
8.4617,15.2566,-8.8459,-292.1794,28.9744,-296.4104,-123.2051,13.0769,-198.5896,3.8464,7.949,-0.76929,0.76929,31.5388,
0.25635,0.25659,-19.7437,-307.1794,34.1025,-311.4104,-138.2051,14.1025,-213.5896,3.3335,11.5386,-0.25635,3.3335,28.4614,
3.0769,15.2566,-4.7437,-292.1794,33.3333,-296.4104,-123.2051,1.5383,-198.5896,-11.6665,-1.5383,-15.2563,6.1536,19.4871,
15.1282,14.6155,-8.9744,-277.1794,23.3333,-281.4104,-134.1025,16.5383,-190.5129,3.3335,-1.7952,-0.25635,-1.282,29.9998,
0.12817,28.4614,5.8975,-262.1794,34.1025,-266.4104,-123.8462,4.8716,-196.1538,-5.3848,3.3335,-10.5127,13.718,20.769,
7.4358,17.6921,-9.1025,-277.1794,22.3079,-281.4104,-138.8462,15.6409,-211.1538,5.3845,-1.7947,-3.3333,1.7947,26.4104,
-2.8206,2.6921,-15.6409,-292.1794,15.6409,-296.4104,-142.3076,11.5383,-226.1538,8.9744,-0.76929,0.76929,1.282,29.4871,
-2.8206,16.6667,-0.64087,-297.1797,27.4358,-294.6155,-127.3076,4.8718,-211.1538,-3.8464,3.8459,-12.0515,14.1023,25.8972,
5.6409,1.6667,-15.6409,-282.1797,16.9231,-279.6155,-142.3076,19.8718,-202.0513,5.6409,5.6409,1.0256,-0.89771,27.1794,
-6.9231,5.3845,-0.64087,-268.9744,30.5129,-267.4358,-127.3076,4.8718,-187.4358,-0.25659,3.8459,-7.949,12.5642,17.6921,
7.4358,20.3845,11.0256,-283.9744,22.3079,-282.4358,-112.3076,7.949,-202.4358,3.3333,-9.9998,-8.4617,-2.4358,18.2053,
5.3848,17.6924,-3.9744,-298.9744,15.1279,-297.4358,-101.2822,12.564,-217.4358,5.8975,-1.2822,1.2822,-4.8721,23.8462,
2.0513,18.9746,-2.0513,-312.3076,30.1279,-312.4358,-95.8975,3.5898,-202.4358,-2.0513,3.5898,-7.6924,10.1279,17.9487,
13.5896,3.9746,-17.0513,-327.3076,27.949,-327.4358,-110.8975,18.5898,-217.4358,12.5642,0.25659,4.8718,-0.25659,20.2566,
0.51294,11.7947,-3.5896,-312.3076,37.4358,-312.4358,-120,5.6409,-202.4358,-0.51294,5.6409,-6.1536,12.8206,16.9231,
12.0513,26.7947,11.4104,-298.718,31.0254,-307.9487,-105,12.564,-187.4358,-2.3076,-1.7949,-9.4873,1.7949,19.231,
8.7183,41.7947,17.436,-313.718,27.6924,-322.9487,-90,16.9233,-192.8203,2.0513,-2.0513,-5.6406,-4.1025,15.3848,
2.051,39.9998,19.4871,-298.718,42.5637,-307.9487,-75,1.9233,-189.7437,-9.7439,1.0256,-17.949,10.8975,11.7947,
17.051,24.9998,4.4871,-313.718,27.5637,-322.9487,-90,16.9233,-204.7437,5.2561,1.282,-2.949,-1.282,26.7947,
2.051,9.9998,-2.8206,-319.7437,32.5642,-323.3333,-105,4.3591,-212.564,-0.25659,5.8972,-6.9231,8.9744,20.7693,
7.1794,24.9998,12.1794,-304.7437,35.3845,-308.3333,-90,1.0256,-197.564,-4.6155,-1.0256,-15.8977,5.1282,18.4617,
6.4102,35.1284,11.0259,-295.6411,20.769,-301.7949,-75,7.9487,-182.564,3.3335,-3.3335,-8.4614,-3.8462,20.2563,
0.76929,28.4617,11.5383,-296.6665,33.0769,-298.2051,-90,-0.76929,-193.5896,-5.3845,5.3845,-16.1536,11.1538,19.7439,
15.7693,13.4617,-3.4617,-311.6665,24.3589,-313.2051,-105,14.2307,-208.5896,9.6155,3.8462,-1.1536,-3.8462,30,
3.8462,-1.5383,-18.4617,-326.6665,24.3589,-328.2051,-120,11.0259,-223.5896,5.3848,0.25635,-0.25635,0.25635,21.2822,
9.7432,13.4617,-3.4617,-311.6665,22.0513,-313.2051,-105,9.2305,-208.5896,0,-8.2056,-7.1797,0,19.4868,
10.5127,12.0513,-7.9487,-296.6665,13.5898,-298.2051,-90,19.7437,-193.5896,10.5127,-7.9487,7.8203,-11.0256,25.8975,
2.8206,6.4104,-3.8459,-292.564,28.5898,-287.9487,-94.1025,7.949,-208.5896,0.76929,-0.76929,-3.8459,3.9744,21.7952,
17.8206,-8.5896,-18.8459,-307.564,26.6665,-302.9487,-109.1025,22.949,-223.5896,15.7693,2.564,8.2051,-2.564,28.7178,
4.1023,-23.5896,-27.6924,-322.564,23.0769,-317.9487,-124.1025,9.2307,-238.5896,7.6921,3.5896,1.5383,-1.5383,19.9998,
6.6665,-8.5896,-12.6924,-307.564,25.1279,-302.9487,-109.1025,5.6406,-223.5896,-2.0513,-7.1797,-11.2822,2.0513,14.8716,
14.8717,6.4104,-4.1027,-292.564,12.8204,-287.9487,-98.9745,20.6406,-208.5896,11.2819,-7.6925,3.7178,-9.7438,17.9484,
0,3.0767,0.5127,-277.564,22.0513,-272.9487,-107.1797,5.6406,-206.1541,0.5127,-4.103,-8.2056,0,11.7944,
15,-11.9233,-14.4873,-292.564,25.8972,-287.9487,-122.1797,20.6406,-221.1541,15.5127,0.76929,6.7944,-0.76929,26.7944,
11.0256,-18.2051,-25.8975,-307.564,22.3079,-302.9487,-133.5896,13.0769,-236.1541,8.4617,-1.7947,1.7947,2.3079,18.2053,
8.9746,-3.2051,-10.8975,-292.564,24.3594,-287.9487,-118.5896,5.8975,-221.1541,-1.7949,-6.9229,-6.9229,1.7949,12.0513,
23.9746,1.0256,-9.7437,-277.564,16.9231,-272.9487,-105.1282,20.8975,-206.1541,13.2051,-1.0256,8.0771,-10.2563,25.6409,
8.9746,8.2051,3.5898,-262.564,29.231,-257.9487,-97.4358,8.7183,-191.282,-1.7949,-3.0767,-6.1538,2.564,13.3335,
23.9746,1.0256,-11.4102,-277.564,26.1536,-272.9487,-112.4358,23.7183,-206.282,13.2051,-1.0256,8.8462,-1.0256,27.6921,
13.0767,-11.5386,-18.2051,-292.564,15.6411,-287.9487,-117.1794,18.2051,-221.282,14.1025,1.2822,15.6411,-1.2822,22.3076,
8.4614,3.4614,-3.2051,-297.1797,30.5127,-290.0002,-102.1794,5.3843,-206.282,-0.89746,-1.7949,0.64111,7.4355,14.1025,
23.4614,-11.5386,-18.2051,-282.1797,29.2308,-277.4359,-117.1794,20.3843,-210.2565,14.1025,2.5641,15.6411,-2.5641,27.6923,
8.4614,-8.2048,-3.2051,-267.1797,25.6414,-262.4359,-106.6665,5.3843,-195.2565,2.0515,-1.0256,0.64111,7.1794,12.6923,
17.1794,6.7952,2.8206,-282.1797,16.6667,-277.4359,-102.3076,8.4617,-210.2565,2.8206,-12.051,-2.8206,-4.8718,9.4871,
15.6411,4.3589,-4.3589,-297.1797,21.2822,-292.4359,-96.6665,18.7183,-225.2565,7.9487,-6.4102,5.3848,-6.4102,17.1797,
14.1025,9.4873,3.3335,-307.4358,32.0513,-305.3845,-92.0513,5.3848,-210.2565,-6.4102,-3.3335,-5.8975,8.4614,15.6411,
29.1025,-5.5127,-11.6665,-322.4358,20.7692,-320.3845,-107.0513,20.3848,-225.2565,8.5898,2.8204,9.1025,-2.8204,27.9489,
14.1025,-9.2307,-6.1536,-307.4358,26.6667,-305.3845,-122.0513,6.1541,-210.2565,0.51294,6.6667,-0.51294,8.718,15.8977,
13.5898,5.7693,5.8975,-321.282,14.6152,-315.6411,-107.0513,7.436,-195.2565,1.7949,-6.4102,-7.436,-1.7949,12.564,
12.051,3.3333,-5.8975,-336.282,7.9485,-330.6411,-92.0513,15.1282,-210.2565,11.5383,-6.4104,6.4104,-3.3333,17.6921,
7.9487,6.9229,0.25635,-321.282,22.9485,-317.1797,-94.1028,1.2817,-206.9233,-0.25635,-4.3594,-3.3335,8.9741,11.5381,
22.9487,-8.0771,-14.7437,-336.282,22.8203,-332.1797,-109.1028,16.2817,-221.9233,14.7437,2.3076,11.6665,-2.3076,25.3848,
7.9487,-20.5129,-15.3845,-321.282,16.9231,-318.9744,-124.1028,6.1536,-206.9233,1.5383,-1.5383,1.5383,2.5642,10.3848,
13.3335,-5.5129,-0.38452,-306.282,11.7949,-303.9744,-109.1028,6.6665,-191.9233,2.0513,-7.1792,-5.1279,-2.0513,8.2051,
11.7949,2.564,-1.5386,-291.282,1.5386,-296.4104,-94.1028,10.769,-185.1284,7.6924,-8.718,4.1025,-14.8718,7.6924,
6.1536,5.1282,7.1794,-296.4104,16.5386,-304.1028,-109.1028,2.5642,-200.1284,-4.6155,-2.5642,-7.6926,0.12817,5.6409,
21.1536,-9.8718,-7.8206,-311.4104,10.7692,-319.1028,-124.1028,17.5642,-215.1284,10.3845,2.0514,7.3074,-2.0514,20.0001,
6.1536,-24.8718,-17.1794,-326.4104,9.9998,-334.1028,-139.1028,8.9744,-230.1284,6.9231,-1.282,1.282,2.8206,9.9998,
13.3333,-9.8718,-2.1794,-311.4104,13.8464,-319.1028,-124.1028,4.6155,-215.1284,-0.51294,-9.7434,-3.5896,0.51294,12.3079,
16.1541,0.25659,-0.25659,-296.4104,3.3333,-304.1028,-109.1028,15.6409,-200.1284,6.9231,-9.4873,6.4104,-11.5386,13.5896,
7.436,-3.3335,7.436,-281.4104,18.3333,-289.1028,-94.1028,4.8716,-201.282,-2.3076,2.3076,-4.8721,3.4614,10,
22.436,-18.3335,-7.564,-296.4104,17.1794,-304.1028,-109.1028,16.6667,-216.282,8.9744,-1.282,8.4612,1.282,18.2048,
11.5383,-20.7695,-15.1282,-311.4104,19.2307,-319.1028,-124.1028,10.5125,-231.282,7.4358,-2.8206,7.4358,2.8206,13.0769,
17.1794,-5.7695,-0.12817,-296.4104,23.8459,-304.1028,-109.1028,9.9998,-216.282,-1.282,-6.9231,-2.8206,1.282,10.5129,
16.9229,6.1538,11.7949,-281.4104,8.8459,-289.1028,-94.1028,14.8716,-201.282,-0.5127,-11.7949,0.5127,-13.718,8.2051,
14.6155,18.2048,26.7949,-266.4104,23.8459,-274.1028,-85.8975,0.76929,-191.0259,-3.3333,-0.76929,-5.8977,1.282,7.9485,
29.6155,3.2048,11.7949,-281.4104,28.4617,-289.1028,-100.8975,15.7693,-206.0259,11.6667,-0.76929,7.949,0.76929,17.6921,
17.6921,-11.7952,-3.2051,-296.4104,21.282,-304.1028,-115.8975,9.4871,-221.0259,5.3845,-0.25659,3.3333,0.25659,13.0769,
19.4868,3.2048,11.7949,-281.4104,29.7432,-289.1028,-100.8975,2.0513,-206.0259,-4.6157,-2.0513,-5.6411,12.8203,13.333,
25.3845,-3.8459,3.8459,-266.4104,14.7432,-274.1028,-115.8975,16.6667,-191.0259,5.3845,-6.4104,6.4104,-2.1797,14.1028,
10.3845,3.333,7.4355,-251.4104,19.2305,-259.1028,-115.6411,2.3076,-188.4617,-2.3076,-2.8208,-7.9487,8.9741,5.3843,
22.8206,-7.4358,-7.5645,-266.4104,19.2307,-274.1028,-130.6411,10.0002,-203.4617,11.0256,-2.8206,5.3845,2.8206,16.1541,
7.8206,-22.4358,-11.7949,-281.4104,11.7949,-289.1028,-128.7178,2.0513,-218.4617,5.6411,-1.5386,7.1797,1.5386,11.7949,
11.7949,-7.4358,3.2051,-285.6409,23.0771,-274.1028,-113.7178,0,-203.4617,-2.564,2.0513,-5.1279,15.3848,9.231,
21.7947,-22.4358,-11.7949,-270.6409,12.5642,-259.1028,-128.7178,15,-188.4617,9.4871,0.25659,7.9485,0.38477,14.1028,
6.7947,-7.4358,3.2051,-255.6409,24.615,-244.1028,-118.9746,0,-173.4617,-1.5388,6.1536,1.0256,15.3848,9.7434,
9.4871,7.5642,6.9231,-270.6409,9.615,-259.1028,-124.8718,-0.25659,-188.4617,0.25659,-8.8464,0.25659,0.38477,6.4104,
7.1794,-0.51294,3.5896,-285.6409,0.51294,-274.1028,-117.9487,5.1282,-203.4617,9.2307,-2.5642,9.7434,-3.5896,10.2566,
7.4358,1.7947,6.9231,-300.6409,15.5129,-289.1028,-112.0513,-1.7947,-188.4617,-3.3333,2.3079,-5.2566,11.4104,12.0515,
22.4358,-13.2053,-8.0769,-315.6409,5.3848,-304.1028,-127.0513,13.2053,-203.4617,11.6667,3.3335,9.7434,-3.3335,25.3848,
7.4358,-17.4358,1.0256,-300.6409,4.1023,-289.1028,-142.0513,-1.7947,-188.4617,3.5896,1.0256,-1.0256,5.1282,10.3848,
12.8206,-2.4358,16.0256,-311.282,4.6155,-299.4871,-127.0513,-1.0256,-177.4358,1.0256,-4.6155,-1.0256,1.5383,8.718,
6.9229,1.2817,2.3076,-326.282,0.25635,-314.4871,-112.0513,3.8462,-192.4358,-0.25635,-2.8208,0.25635,-3.3335,8.9741,
3.0769,5.1282,9.2307,-311.282,14.3586,-299.4871,-108.718,-3.0769,-192.8206,-8.718,3.0769,-10.2566,10.7693,5.6409,
18.0769,-9.8718,-5.7693,-326.282,6.6667,-314.4871,-123.718,11.9231,-207.8206,6.282,3.0769,4.7434,-3.0769,19.4871,
3.5898,-23.0767,-2.0513,-323.0767,9.7437,-319.9998,-138.718,0,-211.7947,3.5898,0,2.0513,6.667,13.3335,
12.5642,-8.0767,12.9487,-308.0767,4.3591,-304.9998,-123.718,0.76929,-196.7947,-0.76929,-4.3591,-6.4104,3.3333,14.1028,
12.3076,6.6665,-2.0513,-293.0767,-0.5127,-289.9998,-108.718,11.7949,-181.7947,9.7437,0.5127,8.5896,-4.6152,14.8716,
3.0771,3.0771,4.6152,-290.2563,14.4873,-283.5896,-123.718,-3.2051,-196.7947,-5.2563,0.51269,-0.5127,10.3848,7.1797,
18.0771,-11.9229,-10.3848,-305.2563,6.4102,-298.5896,-138.718,11.7949,-211.7947,5.8975,-0.25635,6.9233,0.25635,16.6665,
6.4102,-20.7695,-15.1284,-320.2563,8.4614,-313.5896,-153.718,4.8716,-226.7947,2.3076,6.4102,-2.3076,7.4355,11.0254,
8.7178,-5.7695,-0.12842,-305.2563,8.7178,-298.5896,-138.718,1.5386,-211.7947,-1.5386,-2.0513,-4.1025,2.564,10.2563,
9.7434,5.6409,7.6921,-290.2563,-3.5896,-283.5896,-123.718,6.6667,-196.7947,3.5896,-8.2053,8.2053,-6.6667,11.7947,
9.231,9.7437,14.8721,-275.2563,11.4104,-268.5896,-115.8975,0,-202.564,-5.1279,0,-4.1025,8.3333,11.7949,
24.231,-5.2563,-0.12793,-290.2563,8.2051,-283.5896,-130.8975,15,-217.564,5.6411,-3.5898,7.1797,3.5898,19.4873,
9.231,-20.2563,-15.1279,-305.2563,0.5127,-298.5896,-145.8975,4.1025,-232.564,0,0,3.0767,5.1279,13.333,
1.7949,-5.2563,-0.12793,-290.2563,3.8462,-283.5896,-130.8975,1.2822,-217.564,-3.3335,-1.2822,-5.3848,8.4614,11.0259,
11.0256,9.7437,0.76929,-275.2563,-5.3845,-268.5896,-115.8975,14.1028,-202.564,11.0256,-0.76929,9.6152,-3.3333,13.5901,
0.51269,3.0771,-0.5127,-260.2563,6.1538,-253.5896,-124.1025,-0.89722,-187.564,0.51269,2.0513,-1.0254,11.6667,6.6665,
15.5127,-11.9229,-15.5127,-275.2563,3.3333,-268.5896,-139.1025,6.9231,-202.564,9.4871,-0.76929,6.9231,0.76929,17.6921,
6.1538,-18.9746,-16.4102,-290.2563,2.0513,-283.5896,-143.0769,5.1279,-217.564,2.0513,0.5127,-0.5127,4.1025,11.2822,
9.231,-3.9746,-1.4102,-275.2563,2.0513,-268.5896,-128.0769,2.0513,-202.564,-2.0513,-5.1279,-8.2051,8.7183,5.1284,
24.231,0,2.5642,-260.2563,-2.0513,-253.5896,-113.0769,17.0513,-187.564,12.9487,0,6.7949,0,16.9233,
9.231,0.76929,6.9231,-245.2563,7.4358,-238.5896,-104.8721,2.0513,-192.5642,-2.0513,-0.76929,-3.8464,11.5383,4.8718,
16.4102,-9.7437,-8.0769,-260.2563,-2.0513,-253.5896,-119.8721,10.7695,-207.5642,4.1025,2.0513,7.6924,5.6411,16.4102,
7.6924,-12.8208,-10.7695,-275.2563,-6.1538,-268.5896,-131.7949,12.3076,-222.5642,13.8462,7.6924,17.4355,6.1538,15.3843,
2.8203,2.1792,4.2305,-280.2566,5.3843,-257.1797,-116.7949,-1.7949,-207.5642,-0.25635,0.25635,2.4355,10.5127,4.3589,
17.8203,-12.8208,-10.7695,-265.2566,-0.76929,-246.4102,-131.7949,11.5388,-192.5642,12.0515,2.8206,11.0256,0.76929,11.5388,
3.3333,-7.949,4.2305,-250.2566,5.3845,-231.4102,-116.7949,-3.4612,-177.5642,0.25659,9.4871,-0.25659,15.7693,3.8459,
11.0254,7.051,9.4873,-265.2566,-5.3848,-246.4102,-110,2.3076,-192.5642,0.76904,-3.8462,0.25635,0.76929,6.4102,
11.2822,-0.5127,7.1797,-280.2566,-1.5386,-261.4102,-97.4358,12.8203,-207.5642,9.231,0.5127,13.3335,-1.0259,13.8462,
5.3848,0.25635,13.5898,-282.3076,10,-273.5896,-92.051,-1.2817,-192.5642,-3.8462,1.2822,-0.25635,7.9487,4.3589,
20.2563,-14.7437,-1.4102,-297.3076,1.7949,-288.5896,-107.051,13.7183,-207.5642,11.1538,7.9487,14.7437,-1.7949,18.2051,
5.2563,-8.4617,11.0256,-282.3076,3.8464,-273.5896,-122.051,-0.76929,-192.5642,2.3079,4.8718,-0.25635,5.8977,6.9231,
15.3848,6.5383,26.0256,-292.8203,1.5386,-278.4614,-107.051,6.1538,-177.5642,5.1284,-4.6152,-1.5386,-2.564,4.6157,
11.2822,13.3335,16.4102,-307.8203,-3.5898,-293.4614,-92.051,11.7949,-192.3076,9.231,-4.6152,5.6411,-10.769,3.5898,
7.436,14.6152,20.2563,-292.8203,11.4102,-278.4614,-98.718,0.25635,-182.8206,-2.8208,-0.25635,-6.4102,3.3335,2.8203,
22.436,-0.38477,5.2563,-307.8203,5.1282,-293.4614,-113.718,15.2563,-197.8206,12.1792,6.1541,8.5898,-5.1282,17.8203,
7.436,-15.3848,1.2822,-301.282,1.2822,-296.1538,-128.718,0.25635,-203.3333,4.3589,1.2822,2.3076,-2.3076,4.8721,
17.4355,-0.38477,16.2822,-286.282,8.2051,-281.1538,-113.718,1.5386,-188.3333,1.5386,-6.1538,-1.5386,-4.6157,4.6152,
19.4868,8.2051,11.7949,-271.282,2.0513,-266.1538,-98.718,5.6411,-173.3333,4.1025,-8.7183,4.6152,-14.3589,-2.0513,
18.7178,16.6665,24.8716,-261.7949,17.0513,-262.8206,-86.4102,-0.25635,-188.3333,-0.25635,6.2817,-1.7949,0.64111,0.25635,
33.7178,1.6665,9.8716,-276.7949,6.1536,-277.8206,-101.4102,14.7437,-203.3333,14.7437,4.6155,13.2051,-4.6155,15.2563,
18.7178,-13.3335,-5.1284,-291.7949,4.1025,-292.8206,-116.4102,7.6924,-218.3333,10.2563,-0.5127,8.7178,0.5127,3.0767,
16.4104,1.6665,9.8716,-276.7949,2.0515,-277.8206,-101.4102,0.51294,-203.3333,6.1541,-1.0256,-0.51294,-1.5383,1.0256,
20.0002,-3.0769,3.0769,-261.7949,-4.6152,-262.8206,-86.4102,15.5129,-188.3333,19.4871,10.7693,14.4871,-12.3076,13.3333,
7.949,-1.282,16.6667,-254.6152,10.0002,-255.1282,-89.4871,0.51294,-196.6665,4.4871,7.4358,2.3079,0.76929,4.3591,
22.949,-16.282,1.6667,-269.6152,4.8718,-270.1282,-104.4871,11.5383,-211.6665,15.1282,5.8972,15.6409,-4.8718,13.0769,
11.282,-31.282,-7.6921,-284.6152,-1.0256,-285.1282,-119.4871,1.0256,-226.6665,4.6155,8.2053,7.1794,1.5383,2.0515,
15.1282,-16.282,7.3079,-269.6152,1.282,-270.1282,-104.4871,0.25659,-211.6665,-0.25659,4.3591,-2.3079,0.76929,-0.25659,
17.6921,-1.282,0.76929,-254.6152,-13.718,-255.1282,-89.4871,7.4358,-196.6665,11.0256,0.76929,6.9231,-14.2307,-0.76929,
6.9231,10.5129,15.7693,-239.6152,-0.25659,-240.1282,-104.4871,-2.8206,-181.6665,0.76929,12.5642,0.25659,0.76929,-3.3333,
21.9231,-4.4871,0.76929,-254.6152,0,-255.1282,-119.4871,12.1794,-196.6665,15.7693,18.4614,15.2566,0,11.6667,
23.5898,-15.3848,-4.6152,-269.6152,-2.0513,-270.1282,-134.4871,16.4102,-211.6665,19.4873,25.1279,19.4873,2.0513,17.9487,
16.1538,-0.38477,10.3848,-254.6152,-7.9487,-255.1282,-119.4871,1.7949,-196.6665,4.4873,16.667,4.4873,-1.7949,4.8721,
25.6407,-6.1539,6.1539,-239.6152,-17.9489,-240.1282,-116.9232,16.7949,-181.6665,17.9484,22.5641,16.923,-9.2308,15.3844,
10.6407,1.7952,17.1794,-224.6152,-6.4104,-225.1282,-111.5383,1.7949,-166.6665,2.9484,22.3079,1.923,3.8464,2.3079,
23.3333,-5.3845,2.8206,-239.6152,-2.8206,-240.1282,-126.5383,9.9998,-181.6665,11.0256,21.282,5.3845,-4.3591,6.4104,
16.4102,-16.9229,3.5898,-254.6152,-0.5127,-255.1282,-113.3333,4.1025,-196.6665,4.6152,22.0513,4.6152,-8.2051,0.5127,
16.1538,-1.9229,18.5898,-252.564,13.0771,-244.8716,-98.3333,-4.3589,-181.6665,-2.3076,21.2822,0.25635,-0.25635,1.7949,
31.1538,-16.9229,3.5898,-237.564,2.0513,-229.8716,-113.3333,10.6411,-173.3333,12.6924,28.2053,15.2563,-11.7947,14.3591,
16.1538,-1.9229,18.5898,-224.6157,12.8201,-214.8716,-98.3333,-1.0256,-171.2822,-2.3076,32.8201,0.25635,3.0769,1.0256,
23.8462,10,17.1792,-239.6157,5.8975,-229.8716,-104.3591,0.25635,-186.2822,0.25635,20.769,-1.2822,-10.5127,-0.25635,
13.0771,-5,2.3076,-254.6157,-2.3076,-244.8716,-107.9485,5.8975,-201.2822,8.4614,26.4102,13.5898,-9.4868,2.8208,
5.1279,-3.0771,10.2563,-269.6157,6.1538,-259.8716,-92.9485,-3.5898,-186.2822,-0.51269,31.7949,0.5127,3.5898,1.0254,
20.1279,-18.0771,-4.7437,-284.6157,5.1282,-274.8716,-107.9485,11.4102,-201.2822,14.4873,38.4617,15.5127,-5.1282,13.3333,
8.9746,-23.333,6.4106,-269.6157,8.4619,-259.8716,-118.7178,-3.5898,-186.2822,4.3594,35.1284,1.7949,4.3594,-1.6667,
17.1794,-8.333,17.1794,-284.6157,-0.76929,-274.8716,-103.7178,-0.76929,-176.6667,1.282,27.4358,1.282,-7.4358,0.76929,
14.6157,-8.4614,5.8975,-299.6157,-4.3589,-289.8716,-88.7178,7.9487,-191.6667,11.5386,30.5127,13.0771,-13.0769,4.3589,
11.5383,2.3079,17.6921,-284.6157,10.6411,-274.8716,-92.0513,-4.3591,-184.8718,0.25659,32.051,-1.7947,1.9231,-0.25659,
26.5383,-12.6921,2.6921,-299.6157,1.2822,-289.8716,-107.0513,10.6409,-199.8718,15.2566,27.9487,13.2053,-1.2822,11.5386,
11.5383,-15.3845,6.1541,-297.4358,-1.0256,-288.7178,-122.0513,-0.51294,-194.3589,2.5642,26.1541,5.1282,4.1028,0.51294,
18.4617,-0.38452,21.1541,-282.4358,-8.2053,-273.7178,-107.0513,1.5383,-179.3589,-0.51294,18.4617,0.51294,-5.1282,0.51294,
17.949,-3.0769,10.7693,-267.4358,-18.4614,-262.0513,-92.0513,7.1794,-175.8972,4.1028,12.3079,9.7439,-11.7947,3.0769,
11.5388,2.3079,24.8718,-252.4358,-3.4614,-258.2051,-107.0513,-5.3845,-190.8972,-1.282,15.1282,2.3079,3.2053,-0.76929,
26.5388,-12.6921,9.8718,-267.4358,-1.2822,-273.2051,-122.0513,9.6155,-205.8972,13.718,23.3335,17.3079,1.2822,14.2307,
12.8206,-24.1028,-1.0256,-282.4358,-6.1541,-288.2051,-137.0513,6.6667,-204.1025,12.3074,19.4871,12.8206,1.0256,10.7693,
8.4614,-9.1028,13.9744,-267.4358,-12.564,-273.2051,-122.0513,-1.2822,-189.1025,1.2822,4.4871,1.7949,-7.436,2.3076,
18.7178,-13.0769,7.436,-252.4358,-10,-258.2051,-107.0513,9.4873,-174.1025,16.2822,9.4873,16.7949,-7.436,7.436,
8.7183,-9.2305,13.8462,-249.7434,5,-244.6152,-93.3333,-5.5127,-189.1025,1.2822,11.2822,1.7949,7.564,0,
20.5129,-24.2305,-1.1538,-264.7434,-0.51294,-259.6152,-108.3333,5.6409,-204.1025,6.1541,4.1028,8.2053,0.51294,6.6667,
5.8972,-39.2305,-9.9998,-279.7434,6.9231,-274.6152,-123.3333,-1.7947,-219.1025,1.7947,7.949,5.3845,7.4358,1.7947,
11.0254,-24.2305,5.0002,-264.7434,12.0513,-259.6152,-108.3333,-6.4102,-204.1025,-1.7949,4.3589,-0.25635,6.4102,0.25635,
17.1792,-22.3079,-0.25635,-249.7434,0.25635,-244.6152,-93.3333,8.5898,-189.1025,12.564,7.4355,14.7437,-6.4104,8.4614,
2.1792,-14.8716,8.2051,-234.7434,12.8203,-229.6152,-103.5896,-5.1279,-176.9231,-0.51269,9.7437,2.564,8.5896,0.5127,
17.1792,-29.8716,-6.7949,-249.7434,3.0771,-244.6152,-118.5896,5.6411,-191.9231,11.2822,3.5898,10.769,-3.0771,3.5898,
9.7437,-44.6152,-17.4358,-264.7434,2.0513,-259.6152,-133.5896,0,-206.9231,12.8208,10.2568,10.2568,1.0259,0,
9.4871,-29.6152,-2.4358,-249.7434,6.9231,-244.6152,-118.5896,-5.8972,-191.9231,3.3333,4.8718,1.282,7.4358,-1.282,
24.4871,-21.2821,-2.8204,-234.7434,0.25647,-229.6152,-111.5385,9.1028,-176.9231,18.3333,4.359,16.282,-0.25647,11.5387,
9.4871,-6.2821,12.1796,-219.7434,4.8716,-215.6411,-112.0513,-2.8208,-165.8975,5.8975,2.3076,2.8203,8.4614,-2.3076,
23.333,-11.0259,-1.7949,-234.7434,-0.25635,-230.6411,-127.0513,8.4614,-180.8975,19.2305,3.8462,12.564,0.25635,8.4614,
17.6924,-21.282,-2.8203,-249.7434,-2.3076,-245.6411,-132.564,5.3848,-195.8975,18.7183,8.4614,16.1538,2.3076,8.9746,
12.5642,-6.282,12.1797,-264.7434,3.8459,-258.2051,-117.564,-7.4358,-180.8975,3.7183,0.25659,1.1538,6.4104,-1.282,
27.5642,-21.282,-2.8203,-249.7434,-0.76916,-243.2051,-132.564,7.5642,-165.8975,18.7183,9.4872,16.1538,0.76917,13.718,
12.5642,-19.7437,12.1797,-234.7434,-1.7949,-228.2051,-121.7949,-3.8462,-155.6411,3.7183,5.3848,8.4614,8.9741,1.7949,
21.5383,-9.7434,8.718,-249.7434,-4.6155,-243.2051,-123.5898,4.1028,-170.6411,5.1282,-0.51294,8.718,0.51294,7.6921,
12.5642,-20.2563,0.76929,-264.7434,-3.8459,-258.2051,-117.6924,6.9231,-185.6411,11.5383,5.3845,13.0769,-0.76929,8.4617,
5.1282,-10.2566,8.2053,-270.2563,5.1282,-268.718,-103.5896,-4.1023,-172.3076,-1.5383,3.0769,1.5383,8.718,4.6155,
20.1282,-25.2566,-6.7947,-285.2563,-1.5385,-279.4872,-118.5896,10.8977,-187.3076,13.4617,9.2306,16.5383,1.5385,18.9742,
5.1282,-33.5898,-2.8203,-278.2051,4.3589,-264.4872,-133.5896,-1.7949,-172.3076,7.436,11.5386,9.4873,12.564,3.9742,
10.0002,-18.5898,11.0256,-293.2051,2.8206,-279.4872,-118.5896,-2.8206,-184.3589,7.4358,-2.3079,2.3079,3.3333,2.3079,
13.5896,-17.1794,6.4104,-308.2051,1.7947,-294.4872,-103.5896,6.9231,-199.3589,13.5896,-4.3591,13.5896,-1.7947,5.8972,
11.0256,-5.3845,18.718,-293.2051,12.051,-280.2563,-108.4617,-2.8206,-192.5642,3.8459,-0.76929,2.3079,8.9744,0.76929,
26.0256,-20.3845,3.718,-308.2051,1.282,-295.2563,-123.4617,12.1794,-207.5642,18.8459,4.3589,17.3079,-1.282,14.1025,
11.0256,-29.7434,-2.0513,-293.2051,4.1025,-280.2563,-138.4617,-2.564,-192.5642,9.7437,2.0513,8.7183,10.2563,3.0771,
13.3333,-14.7434,12.9487,-278.2051,6.1541,-265.2563,-123.4617,0.51294,-177.5642,1.0256,-7.1794,3.5896,4.6155,-0.51294,
13.8459,-16.9231,4.6155,-266.1541,-0.51294,-265.6411,-108.4617,10.2561,-178.4617,9.2307,-3.5896,16.4104,0.51294,2.5642,
7.436,-8.4614,12.564,-264.8716,9.4873,-267.9487,-114.1025,-4.7439,-193.4617,0.25635,0.76953,1.4104,15.5129,-0.25635,
22.436,-23.4614,-2.436,-279.8716,2.8203,-282.9487,-129.1025,10.2561,-208.4617,15.2563,0.25635,15.6411,0.51294,7.9487,
8.7178,-24.1025,-3.0771,-294.8716,8.2051,-297.9487,-144.1025,2.564,-220.5129,9.2305,2.0513,9.2305,8.7178,-2.0513,
9.7437,-9.1025,11.9229,-279.8716,3.0771,-282.9487,-129.1025,-1.0259,-205.5129,1.0259,-7.6924,2.564,1.0259,-5.6411,
22.8207,-13.077,-1.7948,-264.8716,1.7948,-267.9487,-114.1025,13.9741,-190.5129,16.0259,1.7948,17.564,-5.8973,9.3589,
7.8207,-1.2822,13.2052,-249.8716,15.6411,-252.9487,-105.8975,-0.76904,-190.5127,4.8721,-0.76904,9.4873,9.1027,0.76904,
22.8207,-16.2822,-1.7948,-264.8716,9.7433,-267.9487,-120.8975,14.231,-205.5127,19.4869,-2.0514,23.5895,2.0514,6.6666,
12.8203,-31.2822,-7.1797,-279.8716,9.7437,-282.9487,-135.8975,10.769,-220.5127,12.3076,2.0513,15.3848,4.6152,-2.0513,
14.8718,-16.2822,7.8203,-264.8716,9.7434,-267.9487,-120.8975,3.0769,-205.5127,-1.0256,-6.1541,1.0256,2.5642,-8.718,
24.6154,-8.7179,8.2052,-249.8716,1.5385,-252.9487,-105.8975,18.0769,-190.5127,13.9744,-2.0514,16.0256,-1.5385,2.0511,
9.6154,-7.4358,12.5642,-234.8716,6.9231,-237.9487,-94.6155,3.0769,-175.5127,7.4358,-2.8206,12.051,11.5383,-9.4871,
24.6154,-22.4358,-2.4358,-249.8716,-0.25659,-252.9487,-109.6155,18.0769,-190.5127,20.2566,0.25659,21.7947,4.3591,0.76929,
14.3591,-24.6155,-8.2053,-264.8716,1.0256,-267.9487,-124.6155,11.7947,-205.5127,14.8718,6.6667,15.8972,7.6921,-1.0256,
10.5129,-9.6155,6.7947,-249.8716,3.8459,-252.9487,-109.6155,-2.3079,-190.5127,2.3079,-3.8464,3.8459,4.8718,-6.9231,
23.8459,-17.1794,4.3589,-234.8716,-2.8206,-237.9487,-101.7949,12.6921,-175.5127,17.3079,-0.76929,18.8459,0.76929,4.8718,
8.8459,-5.3848,19.3589,-219.8716,4.8716,-222.9487,-91.0256,-2.3076,-160.5127,6.9229,2.3076,10,15.7693,-7.436,
23.8459,-13.8462,4.3589,-234.8716,-0.5127,-237.9487,-106.0256,12.6924,-175.5127,21.9229,0.5127,19.4873,2.564,1.5386,
21.2819,-22.3077,-4.8717,-249.8716,-1.7948,-252.9487,-108.4615,15.6412,-190.5127,22.3077,5.8976,25.3849,4.8717,1.7948,
10.2566,-7.3077,7.6926,-258.4614,1.0256,-243.5896,-93.4615,0.64124,-175.5127,7.3077,0.51294,10.3849,9.7439,-8.718,
25.2566,-22.3077,-7.3074,-243.4614,-1.0256,-228.5896,-108.4615,15.6412,-160.5127,22.3077,7.1794,25.3849,1.0256,3.5898,
10.2566,-12.5642,7.6926,-228.4614,1.282,-217.6924,-101.7949,0.64124,-162.3076,7.3077,0.25659,10.3849,6.9231,-11.4102,
23.3333,2.4358,13.5896,-243.4614,-1.282,-232.6924,-106.9231,12.0515,-177.3076,10.0002,-1.282,12.5642,1.282,-8.9744,
19.2305,-2.8208,9.4868,-258.4614,0.25635,-247.6924,-96.1541,15.6406,-192.3076,17.6919,2.8203,22.8203,-0.25635,-7.436,
11.0254,0.25635,13.5898,-266.4104,5.3848,-260.2563,-81.1541,0.64063,-177.3076,2.6919,-3.3335,7.8203,3.8462,-17.6924,
26.0254,-14.7437,-1.4102,-275.3845,0,-269.2307,-96.1541,15.6406,-192.3076,17.6919,5.1282,22.8203,0,-2.6924,
11.0254,-25.8975,3.8462,-260.3845,1.2822,-254.2307,-111.1541,0.64063,-177.3076,4.8721,-0.25635,12.5645,5.3848,-14.6152,
19.9998,-10.8975,7.6921,-275.3845,1.5383,-269.2307,-96.1541,3.5896,-178.4614,9.2307,-1.5383,14.3591,3.0769,-9.7434,
22.0511,-11.7948,1.5385,-290.3845,-1.5385,-284.2307,-81.1541,17.9486,-191.2819,19.4872,8.2052,25.1283,5.1283,-1.5385,
12.3079,-2.5642,12.3079,-275.3845,4.1028,-269.2307,-82.0513,3.5901,-184.6152,4.4872,-0.51294,10.1283,8.2053,-14.3586,
27.3079,-17.5642,-2.6921,-290.3845,0,-284.2307,-97.0513,18.5901,-199.6152,19.4872,4.6152,24.6155,0,0.64136,
12.3079,-31.0254,-1.282,-301.282,1.282,-293.5896,-112.0513,7.4363,-184.6152,17.1794,12.5642,20.7693,15,-5.8972,
11.7952,-16.0254,13.718,-286.282,-6.6667,-278.5896,-97.0513,9.2307,-169.6152,14.3591,3.0769,14.8718,6.1541,-12.3074,
22.8206,-15.6411,7.4358,-271.282,-6.9231,-263.5896,-82.0513,22.8206,-166.4102,23.8459,10,27.9485,4.3589,-4.3589,
11.5386,-12.564,13.0771,-262.3076,0.25635,-274.6152,-96.1538,7.8206,-181.4102,8.8459,5.8975,12.9485,15.1284,-16.6665,
26.5386,-27.564,-1.9229,-277.3076,1.282,-289.6152,-111.1538,22.8206,-196.4102,23.8459,12.564,27.9485,6.9231,-1.6665,
13.0769,-26.9231,2.3079,-292.3076,-2.3079,-304.6152,-126.1538,14.6155,-205.3845,19.7434,5.3845,20.2566,2.8206,-14.6155,
19.4873,-11.9231,17.3079,-277.3076,-0.5127,-289.6152,-111.1538,9.7437,-190.3845,10.2563,-4.6157,10.2563,0.5127,-12.8208,
33.0771,-1.7949,20.769,-262.3076,3.3333,-274.6152,-96.1538,24.7437,-175.3845,22.8203,0.76929,25.2563,-0.76929,-3.8462,
18.0771,-0.25659,27.4358,-247.3076,11.0256,-259.6152,-81.1538,9.7437,-183.8462,7.8203,-2.8206,10.2563,10.5129,-18.8462,
32.8208,-15.2566,12.4358,-262.3076,9.231,-274.6152,-96.1538,23.0771,-198.8462,20,4.1025,25.2563,8.7183,-4.1025,
17.8208,-30.2566,-2.3076,-277.3076,6.4102,-289.6152,-111.1538,8.4614,-213.8462,10.5127,2.3076,18.7178,6.4102,-13.0771,
14.6152,-15.2566,12.6924,-262.3076,3.8462,-274.6152,-96.1538,0.25635,-198.8462,1.7949,-3.3335,10.5127,0.25635,-20.7695,
26.6669,-9.2308,8.7179,-247.3076,-4.1024,-259.6152,-81.1538,15.2563,-183.8462,16.7949,7.1796,25.5127,3.5897,-5.7695,
11.6669,-10.769,15.8975,-232.3076,2.5645,-244.6152,-96.1538,2.0513,-181.5383,3.5898,-2.0513,10.5127,16.4106,-13.8457,
26.6669,-25.769,0.89746,-247.3076,7.436,-259.6152,-111.1538,17.0513,-196.5383,18.5898,0.76904,23.3335,5.3848,-0.76904,
18.7178,-32.5642,-1.7949,-262.3076,1.7949,-274.6152,-121.2822,10,-211.5383,15.1279,5.3843,20.769,2.3076,-10.5127,
11.5386,-17.5642,13.2051,-247.3076,4.3589,-259.6152,-106.2822,-2.8208,-196.5383,2.3076,-1.2822,5.769,10.5127,-16.6665,
22.5641,-13.8463,18.9742,-232.3076,2.0514,-244.6152,-91.2822,12.1792,-181.5383,17.3076,-2.0514,20.769,5.1281,-5.1283,
9.231,1.1537,33.8462,-217.3076,9.7437,-229.6152,-80.5127,-1.5386,-166.5383,5.6411,-7.1797,7.1797,11.2822,-16.9229,
24.231,-10,18.8462,-232.3076,6.4102,-244.6152,-95.5127,13.4614,-181.5383,18.7178,-3.8462,18.2051,3.3335,-3.3335,
16.6667,-24.8718,12.051,-247.3076,-1.7947,-259.6152,-104.8718,12.5642,-196.5383,19.7434,1.7947,19.7434,2.8206,-5.3845,
11.5386,-9.8718,27.051,-242.8203,2.3076,-254.1025,-89.8718,-0.25635,-181.5383,8.4614,-2.8203,7.436,8.9746,-12.0513,
26.5386,-24.8718,12.051,-227.8203,0,-239.1025,-104.8718,14.7437,-166.6667,23.4614,-1.0256,22.436,4.1025,1.5383,
11.5386,-11.7949,22.564,-212.8203,8.7183,-224.1025,-100.5127,3.5898,-153.3333,8.4614,-3.5898,8.2051,15.8975,-12.3076,
21.5383,3.2051,28.718,-227.8203,-0.51294,-239.1025,-96.4104,13.3333,-168.3333,8.718,-11.282,10.2561,0.89746,-12.8206,
19.7437,1.7949,31.5386,-242.8203,-1.7949,-254.1025,-84.3589,16.6665,-183.3333,18.7178,-5.3848,17.6924,1.7949,-8.4617,
13.0767,7.4355,33.0767,-248.4617,8.9741,-253.0771,-76.6667,1.6665,-168.3333,8.4614,-4.8721,2.6924,12.0513,-12.0513,
28.0767,-7.5645,18.0767,-263.4617,3.0769,-268.0771,-91.6667,16.6665,-183.3333,23.4614,0.5127,17.6924,0,0,
13.0767,-22.5645,12.8206,-253.3333,5.6414,-253.0771,-106.6667,1.6665,-168.3333,8.4614,0.51294,6.6667,8.718,-13.8459,
13.8462,-7.5645,20,-268.3333,0,-268.0771,-91.6667,1.0254,-173.8462,9.7437,-4.6157,9.2305,0,-11.7949,
18.9746,-12.8203,12.3076,-283.3333,0,-283.0771,-76.6667,10.7695,-188.8462,20.5132,0,22.0513,2.0513,-7.6921,
14.6152,-3.3335,26.9229,-277.6924,13.5898,-271.0256,-78.718,0.25635,-173.8462,7.9487,-0.25635,7.0513,17.0513,-11.5386,
29.6152,-18.3335,11.9229,-292.6924,0.51282,-286.0256,-93.718,15.2563,-188.8462,22.9487,3.5897,22.0513,7.1796,-0.51282,
14.6152,-33.3335,7.6921,-291.2822,-0.51294,-284.6155,-108.718,0.51294,-178.4617,8.718,5.6409,14.3586,7.6921,-15.5128,
17.1797,-18.3335,22.6921,-276.2822,1.2822,-269.6155,-93.718,3.8462,-163.4617,9.4873,-4.8716,9.4873,1.7949,-15.6411,
22.5641,-12.8204,17.9489,-261.2822,0.51282,-254.6155,-78.718,18.8462,-155.3846,24.4873,-0.51282,24.4873,4.6154,-4.1024,
9.4871,-10.5129,22.8206,-255.6409,10.5129,-259.7434,-90,3.8462,-170.3846,9.4873,1.282,9.4873,17.6921,-12.051,
24.4871,-25.5129,7.8206,-270.6409,2.3079,-274.7434,-105,18.718,-185.3846,22.8206,0.76929,24.3591,2.6921,0.25635,
9.4871,-28.4614,2.8206,-285.6409,-0.25659,-289.7434,-120,6.4104,-200.3846,12.5642,0.25659,15.1282,6.4104,-7.9485,
12.5642,-13.4614,17.8206,-270.6409,-3.3333,-274.7434,-105,1.7947,-185.3846,6.4104,-0.76929,7.4358,9.4871,-11.0256,
18.4618,-22.0511,2.8206,-255.6409,-7.6923,-259.7434,-90,16.7947,-170.3846,21.4104,9.2308,22.4358,5.1283,-1.5385,
3.4618,-15.1284,13.5898,-240.6409,2.3076,-244.7434,-94.6155,1.7947,-179.2307,7.436,6.4102,8.9741,15.1279,-12.0513,
18.4618,-30.1284,-1.4102,-255.6409,2.3077,-259.7434,-109.6155,16.1539,-194.2307,22.3077,6.4103,23.3331,9.4869,-2.3077,
10.769,-42.5642,-3.5898,-270.6409,3.5898,-274.7434,-124.6155,3.5898,-209.2307,10.769,8.2051,14.8716,16.4102,-10.2563,
6.9231,-27.5642,11.4102,-255.6409,1.282,-259.7434,-109.6155,-1.282,-194.2307,7.4363,2.3079,8.9744,13.5901,-12.051,
14.3589,-26.6665,4.1025,-240.6409,-6.1538,-244.7434,-94.6155,13.718,-179.2307,22.4363,6.1538,23.9744,4.1025,-4.1025,
0.51294,-17.9485,19.1025,-225.6409,5.1282,-229.7434,-95.3845,-0.51294,-164.2307,8.2053,4.1028,11.282,17.4358,-13.8459,
15.5129,-32.9485,4.1025,-240.6409,-1.7949,-244.7434,-110.3845,14.4871,-179.2307,22.3076,4.8721,25.8975,6.4102,1.1541,
18.9744,-40.5129,-3.0769,-255.6409,1.0256,-259.7434,-125.3845,14.8718,-194.2307,26.1541,16.4104,29.2307,15.3845,-1.0256,
6.4102,-25.5129,11.9231,-240.6409,0.76904,-244.7434,-110.3845,-0.12817,-179.2307,11.1541,1.4104,14.2307,10.5127,-16.0256,
21.4102,-27.9486,14.1024,-225.6409,-2.3077,-229.7434,-105.3846,14.8718,-164.2307,25.3846,6.923,29.2307,-2.3077,-1.0256,
6.4102,-21.282,22.3079,-210.6409,1.282,-214.7434,-105.3845,-0.12817,-156.1538,10.3846,3.3333,14.2307,5.3845,-12.5642,
21.4102,-27.1794,7.3079,-225.6409,0,-229.7434,-120.3845,14.8718,-171.1538,20,3.0771,18.4619,3.5898,-1.0254,
12.8207,-35.3846,-4.1027,-240.6409,-1.5385,-244.7434,-135.3845,15.3846,-186.1538,24.6156,8.205,28.205,4.1024,1.5385,
6.9233,-20.3846,8.9746,-255.6409,-0.25635,-256.1538,-120.3845,0.38464,-171.1538,13.0771,4.8721,13.5898,5.3848,-8.9741,
21.9233,-35.3846,-6.0254,-240.6409,-3.3334,-241.1538,-135.3845,15.3846,-156.1538,28.0771,14.6154,28.5898,3.3334,4.359,
6.9233,-23.3333,8.9746,-225.6409,-0.76929,-227.436,-120.3845,0.76929,-152.0515,13.0771,5.3845,13.5898,12.051,-10.641,
16.6667,-11.5383,5.8972,-240.6409,-1.282,-242.436,-123.8462,7.949,-167.0515,20.7693,1.282,14.6155,2.8206,-5.3845,
15.3844,-23.5897,1.5385,-255.6409,-2.0514,-257.436,-115.8976,15.8976,-182.0515,28.2052,9.7438,25.1281,3.5897,-1.5385,
2.8208,-15.6411,12.564,-270.6409,-1.7949,-268.4614,-101.7949,1.7949,-167.0515,13.2052,3.3335,10.1281,8.4614,-11.0254,
17.8208,-30.6411,-2.436,-279.2308,-2.8204,-274.6154,-116.7949,16.7949,-180.7692,28.2052,11.0255,25.1281,2.8204,3.9746,
2.8208,-26.1541,5.6409,-264.2308,-0.51294,-259.6154,-116.4104,1.7949,-165.7692,15.3845,4.6155,14.8718,10.7693,-3.5896,
16.1541,-11.1541,12.5642,-279.2307,-3.8459,-274.6152,-101.4104,10.0002,-159.7434,16.6667,0.76929,17.6926,7.949,-0.76929,
13.8462,-22.5642,3.0769,-294.2307,-8.718,-289.6152,-91.282,16.9229,-174.7434,25.1279,10.2563,27.1797,5.1282,-3.0769,
3.8459,-19.7434,9.4871,-282.3076,1.7947,-274.6152,-106.282,1.9229,-168.4614,10.5129,6.9231,12.1797,11.5383,-15.6409,
18.8459,-34.7434,-5.5129,-297.3076,0.51282,-289.6152,-121.282,16.9229,-183.4614,25.5129,6.1539,24.6154,1.0258,-0.64087,
3.8459,-36.1538,2.3079,-289.4873,1.7947,-289.4873,-136.282,1.9229,-171.5386,10.5129,3.3333,9.6154,5.3845,-14.6155,
8.9741,-21.1538,17.3079,-274.4873,0.25635,-274.4873,-121.282,-0.25635,-156.5386,11.0254,0.76904,5.8975,0.76904,-13.0771,
18.2053,-31.0256,8.9744,-275.1282,-1.282,-260.2563,-106.282,12.5642,-156.6665,26.0254,8.9744,20.8975,1.282,-2.3076,
4.8716,-22.3076,17.6924,-260.1282,9.4873,-255.6411,-106.4104,-2.4358,-171.5386,11.0254,4.8716,5.8975,11.0254,-8.9746,
19.8716,-37.3076,2.6924,-275.1282,3.5897,-270.6411,-121.4104,12.5642,-186.5386,24.6151,6.1537,20.8975,-3.5897,3.5897,
4.8716,-43.0769,-0.51294,-290.1282,2.5642,-285.6411,-136.4104,3.0769,-201.5386,11.7952,5.6414,14.8718,3.5901,-9.2307,
5.3848,-28.0769,14.4871,-275.1282,1.7949,-270.6411,-121.4104,-0.25635,-186.5386,11.5386,0.25635,8.4614,5.8975,-10,
15.3849,-27.6923,6.6666,-260.1282,-5.1281,-255.6411,-106.4104,14.7437,-171.5386,26.5386,6.6666,23.4614,1.5385,-1.5385,
0.38489,-16.1536,16.6667,-245.1282,5.8977,-240.6411,-100.2563,0.76929,-169.9998,11.5386,6.9231,8.4614,12.5642,-13.0769,
15.3849,-31.1536,1.6667,-260.1282,-0.25635,-255.6411,-115.2563,15.7693,-184.9998,25.3848,6.9233,22.3076,2.3076,0.25635,
11.2822,-38.9744,-4.6152,-275.1282,2.564,-270.6411,-130.2563,11.2822,-199.9998,20,9.231,20,15.8975,-2.564,
7.1797,-23.9744,10.3848,-260.1282,0.51318,-255.6411,-115.2563,0,-184.9998,5,-4.6152,5,10.2568,-14.3589,
16.41,-12.8204,6.1537,-245.1282,-2.0514,-240.6411,-100.2563,15,-169.9998,20,4.6154,20,1.5385,-1.5385,
1.41,-12.0513,14.1025,-230.1282,4.8721,-225.6411,-85.2563,0.25635,-154.9998,10,6.4102,10.5127,14.1025,-11.0254,
16.41,-27.0513,-0.89746,-245.1282,0.51282,-240.6411,-100.2563,15.2563,-169.9998,25,7.6925,25.5127,9.7438,-0.51282,
11.7952,-31.7947,-3.0769,-260.1282,3.0769,-255.6411,-112.3076,13.3337,-184.9998,21.5388,7.1794,28.718,13.8464,-4.1023,
9.2307,-16.7947,11.9231,-245.1282,6.6667,-240.6411,-97.3076,-0.51294,-169.9998,6.5388,0.51294,13.718,11.282,-11.7947,
20.2565,-25.8973,1.2821,-230.1282,-0.76916,-225.6411,-84.359,14.4871,-154.9998,21.5388,2.8204,28.718,0.76917,-2.8204,
18.7179,-24.359,1.7948,-215.1282,-1.2821,-210.6411,-86.923,18.2052,-139.9998,21.2819,2.8204,26.4103,1.2821,-4.8717,
17.9489,-23.077,3.0768,-218.4615,-2.0514,-221.5385,-89.2308,15.8976,-151.7948,20.5128,3.0768,23.59,2.0514,-6.1539,
16.6665,-21.2822,3.8462,-233.4615,-2.3076,-236.5385,-91.5386,13.5894,-166.4104,19.2305,3.333,21.2817,2.3076,-7.949,
15.8977,-19.4871,5.1282,-248.4615,-3.0769,-251.5385,-93.8462,11.282,-181.0256,17.949,3.5896,18.9744,3.0769,-9.2307,
14.3591,-17.9487,5.6409,-263.4615,-3.5896,-266.5385,-96.4102,8.718,-195.8975,16.4104,3.5896,16.4104,3.5896,-11.282,
13.8462,-16.4102,7.1797,-278.4615,-4.1025,-281.5385,-98.4614,6.667,-210.2561,15.8975,4.1025,13.8462,4.6157,-12.3076,
12.8206,-14.8718,8.2053,-293.4615,-4.6155,-296.5385,-100,4.6155,-225.2561,14.8718,5.1282,11.7947,4.6155,-13.8459,
12.8208,-16.4102,12.3076,-308.4615,-3.5898,-311.5385,-85,7.6924,-223.0769,18.9746,6.1538,19.4873,3.5898,-9.7437,
11.7944,-8.2056,21.0254,-293.4615,8.2051,-296.5385,-70,-2.0513,-208.0769,6.1538,2.0513,5.6406,12.3076,-13.8462,
26.7944,-23.2056,6.0254,-278.4615,2.5641,-281.5385,-85,12.9487,-193.0769,21.1538,6.1542,20.6406,3.5897,-2.5641,
11.7944,-18.9746,11.7949,-263.4615,1.5386,-266.5385,-100,0,-178.0769,6.1538,5.1284,6.1538,13.8462,-17.436,
15.3843,-3.9746,16.4102,-278.4615,-3.5898,-278.9744,-85,9.2305,-178.9744,14.8716,2.0513,13.333,7.1792,-8.2051,
16.4103,-17.4359,7.1798,-293.4615,-3.5897,-293.9744,-70,17.9489,-191.7948,25.1281,8.2052,26.1539,2.5641,-2.5641,
2.8206,-6.9231,18.2053,-278.4615,5.8977,-278.9744,-77.1794,2.9489,-178.2051,10.1281,3.8464,11.1539,11.5383,-17.5641,
17.8206,-21.9231,3.2053,-293.4615,3.8462,-293.9744,-92.1794,17.9489,-193.2051,25.1281,10.0002,26.1539,8.4617,-3.8462,
4.1028,-32.3076,3.0769,-279.9998,6.6667,-281.5383,-107.1794,2.9489,-178.2051,12.3079,6.1541,11.282,14.3591,-16.4099,
15.1284,-17.3076,18.0769,-264.9998,6.9229,-266.5383,-92.1794,0.25635,-163.2051,8.4614,-0.25635,10.5127,5.8975,-12.564,
16.4105,-16.923,8.7181,-249.9998,-0.51282,-251.5383,-77.1794,12.308,-160.5128,23.077,7.1796,25.5127,0.51282,-5.1281,
4.6155,-12.8206,12.3074,-251.2822,9.7434,-251.2822,-78.4617,-2.692,-175.5128,9.2307,9.7434,10.5127,15.5128,-15.3845,
19.6155,-27.8206,-2.6926,-266.2822,4.359,-266.2822,-93.4617,12.308,-190.5128,23.8463,6.4103,22.8204,5.8976,-4.359,
5.6411,-37.4358,-3.5898,-281.2822,5.1284,-281.2822,-108.4617,3.5898,-205.5128,15.3848,6.6665,14.8716,12.3076,-10.2563,
5.3845,-22.4358,11.4102,-266.2822,-1.7947,-266.2822,-93.4617,1.7947,-190.5128,8.9744,1.7947,6.9231,4.8718,-16.1541,
20.3845,-13.5898,0.76929,-251.2822,-0.76929,-251.2822,-78.4617,16.7947,-175.5128,23.9744,12.0513,21.9231,4.8718,-2.3076,
6.1538,-11.2822,9.231,-236.2822,6.1538,-236.2822,-86.1538,1.7947,-177.9487,8.9744,0.5127,6.9231,13.3335,-12.3076,
21.1538,-26.2822,-5.769,-251.2822,2.0513,-251.2822,-101.1538,16.7947,-192.9487,22.5645,4.1025,20.5127,5.6411,-2.0513,
10.2566,-36.9231,-3.0769,-266.2822,3.0769,-266.2822,-116.1538,8.718,-207.9487,13.8459,9.2307,18.4617,11.282,-12.3079,
10.2566,-21.9231,11.9231,-251.2822,1.5383,-251.2822,-101.1538,0.51294,-192.9487,7.1794,-3.5896,8.2053,6.1541,-14.8718,
20.2565,-17.1796,-1.7948,-236.2822,0.25647,-236.2822,-86.1538,15.5129,-177.9487,22.1794,6.923,23.2053,2.3077,-0.25647,
5.2565,-8.7175,11.7952,-221.2822,11.7952,-221.2822,-71.7947,0.51294,-162.9487,10.7693,14.3591,13.3337,17.3077,-12.3074,
20.2565,-23.7175,-3.2048,-236.2822,2.0513,-236.2822,-86.7947,13.8462,-177.9487,24.1025,9.231,28.3337,6.1538,-2.0513,
8.4614,-37.1794,-18.2048,-251.2822,2.3076,-251.2822,-101.7947,10.5127,-192.9487,20.7695,11.0259,22.8208,6.9233,-2.3076,
4.8718,-22.1794,-3.2048,-236.2822,5.8972,-236.2822,-86.7947,-2.8206,-177.9487,5.7695,4.3591,7.8208,5.8972,-11.0256,
19.8718,-19.7435,2.3077,-221.2822,-1.7948,-221.2822,-87.9489,12.1794,-162.9487,20.7695,6.923,22.8208,-0.76916,0.76917,
4.8718,-12.3076,10.769,-206.2822,2.564,-206.2822,-91.282,1.0254,-154.8718,7.6924,0.5127,8.7178,7.6924,-11.7949,
19.8718,-23.8459,-4.231,-221.2822,6.4102,-221.2822,-106.282,16.0254,-169.8718,22.6924,7.9487,21.2822,0.25635,-0.25635,
11.0256,-32.5642,-1.282,-236.2822,3.8459,-236.2822,-108.4617,13.0769,-184.8718,21.7947,14.6155,23.8459,1.282,-7.436,
7.436,-17.5642,13.718,-242.3079,4.8716,-237.1794,-93.4617,-1.2822,-169.8718,6.7947,1.2822,8.8459,7.436,-13.5898,
22.436,-31.5386,-1.282,-227.3079,-0.76929,-222.1794,-108.4617,13.7178,-154.8718,21.7947,3.8462,23.8459,0.76929,1.4102,
7.436,-17.6924,7.9487,-212.3079,1.7949,-207.9485,-107.9485,0.25635,-166.4102,6.7947,3.3335,8.8459,5.8975,-13.5898,
15.1282,-2.8206,9.4871,-227.3079,1.7947,-222.9485,-105.8975,5.3845,-181.4102,3.3333,0.76929,7.4358,-0.76929,-15.1282,
7.436,-10.5127,6.4102,-242.3079,-0.25635,-237.9485,-90.8975,6.4102,-196.4102,9.4873,1.2822,11.0259,0.25635,-11.5386,
3.0767,-1.0259,15.8975,-249.231,5.6411,-252.8206,-82.0513,-0.5127,-181.4102,6.1538,0.5127,4.1025,9.2305,-9.7437,
18.0767,-16.0259,0.89746,-264.231,0.51282,-263.077,-97.0513,14.4873,-189.2308,21.1538,10.7692,19.1025,-0.51282,5.2563,
3.0767,-23.5898,1.5386,-249.231,3.5898,-248.077,-111.7949,-0.5127,-174.2308,6.1538,6.6665,9.7437,7.1792,-8.2051,
12.3079,-8.5898,11.282,-264.231,1.0256,-263.077,-96.7949,3.5901,-173.8459,7.6926,-1.0256,6.6667,3.0769,-8.2048,
7.4358,-18.2051,3.3333,-279.231,-2.3079,-278.077,-81.7949,12.051,-188.8459,17.6921,5.3845,18.718,2.3079,-4.8718,
0.51294,-9.7434,9.7434,-270.2563,11.7947,-265.1282,-81.5386,-0.51294,-173.8459,3.5896,6.6667,6.6667,14.3591,-9.2307,
15.5129,-24.7434,-5.2566,-285.2563,4.8718,-280.1282,-96.5386,14.4871,-188.8459,18.5896,7.4358,21.6667,1.7949,-1.7949,
7.4358,-37.1794,-5.3845,-300.2563,8.9744,-287.9487,-111.5386,5.3845,-184.8718,15.6409,14.6155,14.6155,14.1028,-8.4617,
7.6924,-22.1794,1.5386,-285.2563,-1.5386,-272.9487,-96.5386,4.1025,-169.8718,8.2051,3.5898,9.2305,2.564,-7.1797,
11.2822,-25.6409,-5.1282,-270.2563,-1.0256,-257.9487,-81.5386,14.8721,-168.2051,19.4873,9.7437,24.2305,3.5898,1.0256,
3.3333,-13.0769,8.9744,-259.7434,11.5383,-254.1025,-92.0513,-0.12793,-183.2051,5.3845,11.0256,9.2305,16.6667,-13.9744,
18.3333,-28.0769,-6.0256,-274.7434,3.0769,-269.1025,-107.0513,14.8721,-198.2051,20.3845,13.8464,23.0769,1.6667,-1.0256,
6.9231,-33.0769,-7.4358,-289.7434,3.3333,-284.1025,-122.0513,7.949,-203.8462,13.0769,11.5383,13.0769,7.949,-3.3333,
11.0256,-18.0769,7.5642,-274.7434,0.76929,-269.1025,-107.0513,-0.76929,-188.8462,7.4358,3.3333,5.8977,3.3333,-7.4358,
22.3076,-14.6155,6.9231,-259.7434,-0.76929,-254.1025,-92.0513,14.2307,-173.8462,22.4358,15.6411,20.8977,0.76929,-0.76929,
7.3076,-13.3335,11.2817,-244.7434,8.7178,-239.1025,-98.4617,-0.76929,-181.0259,7.4358,8.2051,5.8977,12.8203,-12.8208,
18.718,-28.3335,-3.7183,-259.7434,0.25659,-254.1025,-113.4617,14.1023,-196.0259,16.1536,2.3079,18.2053,-0.25659,0.76929,
5.6409,-38.4617,-13.8462,-274.7434,1.5383,-269.1025,-128.4617,9.2307,-211.0259,13.8459,12.8206,19.9998,6.6667,-1.5383,
0.76929,-23.4617,1.1538,-259.7434,-0.76929,-254.1025,-113.4617,-3.3333,-196.0259,3.8464,1.7952,4.9998,2.3079,-11.5383,
15.7693,-12.5642,-1.282,-244.7434,-0.25635,-239.1025,-98.4617,11.6667,-181.0259,18.8464,7.4358,19.9998,0.25635,2.3076,
2.8203,-7.9487,10,-229.7434,7.9487,-224.1025,-102.8206,-2.8203,-166.0259,6.4102,8.9746,7.9487,14.6152,-7.9487,
17.8203,-22.9487,-5,-244.7434,1.5383,-239.1025,-117.8206,12.1797,-181.0259,17.949,9.2307,21.0256,3.0769,-1.5383,
8.718,-33.3335,-15.3848,-259.7434,6.1536,-254.1025,-132.8206,7.6921,-196.0259,16.9231,11.282,17.4358,5.6409,-5.6409,
11.0259,-18.3335,-0.38476,-244.7434,14.6152,-239.1025,-117.8206,-1.2822,-181.0259,5.8975,4.3589,2.4358,10.5127,-11.0254,
23.5895,-20.5128,-0.51282,-229.7434,7.1793,-224.1025,-102.8206,13.7178,-166.0259,20.8975,5.1281,17.4357,0.51282,-5.641,
8.5895,-5.5128,14.4872,-214.7434,18.718,-209.1025,-91.5383,-1.2822,-152.051,5.8975,1.282,2.8206,8.4617,-12.5637,
23.5895,-4.1023,6.1541,-229.7434,18.4617,-224.1025,-106.5383,13.7178,-167.051,14.3591,-1.5383,15.8977,-3.0769,1.5383,
21.282,-12.5642,2.3079,-244.7434,14.1028,-239.1025,-121.5383,9.4871,-182.051,11.0256,0.76929,13.5896,-0.76929,-8.4617,
14.8718,2.4358,17.3079,-243.0771,23.0769,-241.5386,-106.5383,-4.6155,-167.051,1.5383,-0.51294,0.51294,9.7434,-15.8977,
29.8718,-12.5642,2.3079,-228.0771,15.8976,-226.5386,-121.5383,10.3845,-168.2052,16.4103,4.1024,15.5129,-0.51282,-0.8977,
15.8977,2.4358,17.3079,-213.0771,22.0515,-211.5386,-106.5383,-0.51294,-154.8716,1.4103,3.0769,0.51294,9.2307,-7.6921,
26.4104,17.4358,17.6921,-228.0771,15.6409,-226.5386,-108.9744,5.3845,-169.8716,4.8718,-6.4104,4.8718,-4.8718,-10.0002,
15.8975,4.6152,15.8975,-243.0771,12.3076,-241.5386,-99.4873,8.7178,-184.8716,10.769,-5.1284,10.2563,-4.6152,-12.3079,
14.3591,8.2053,23.0769,-247.1794,20.5129,-240,-88.718,-0.51294,-175.3845,2.5642,-3.0769,0.51294,9.7434,-12.8206,
29.3591,-6.7947,8.0769,-255.8976,16.9232,-246.1539,-103.718,14.4871,-190.3845,17.5642,1.5385,15.5129,-1.5385,2.1794,
14.3591,-4.6155,14.8718,-242.0513,21.5383,-231.1539,-118.718,2.051,-175.3845,4.6155,-1.5383,5.1282,1.5383,-11.282,
23.3333,10.3845,24.3586,-257.0513,17.1794,-246.1539,-103.718,6.4099,-190.0002,5.8972,-1.282,1.282,-3.8464,-5.3845,
15.1282,3.3333,9.3586,-272.0513,4.3591,-261.1539,-88.718,5.3845,-205.0002,5.8977,-3.3333,6.4104,-10,-6.4099,
11.282,18.3333,22.5637,-257.0513,19.3591,-246.1539,-95.8977,1.0256,-190.0002,1.0256,-1.0256,-1.5388,5,-10.2566,
26.282,3.3333,7.5637,-272.0513,12.5642,-261.1539,-110.8977,16.0256,-205.0002,16.0256,2.8206,13.4612,-2.8206,2.8206,
11.282,-8.4617,8.9744,-261.7949,8.4617,-246.9231,-125.3845,1.0256,-190.0002,3.3333,0.76929,2.3079,-0.25659,-9.4871,
18.7178,6.5383,21.7949,-246.7949,9.4873,-231.9231,-110.3845,1.2822,-175.0002,5.3848,-5.3848,4.8716,-1.2822,-7.436,
25.3849,0.76917,7.4362,-249.9999,9.4874,-237.1793,-95.3845,14.6154,-180.7692,16.6666,-0.76917,17.6925,-3.8461,-2.3077,
14.6152,11.5386,19.7437,-242.8206,22.8203,-239.231,-99.231,1.2817,-195.7692,1.6666,0.25635,2.6925,7.436,-9.4873,
29.6152,-3.4614,4.7437,-257.8206,16.6669,-254.231,-114.231,16.2817,-210.7692,16.6666,2.8204,17.6925,-2.8204,4.8717,
14.6152,-13.5896,-0.76929,-272.8206,14.1023,-269.231,-129.231,9.9998,-223.8462,16.1536,0.76929,12.051,3.8459,-1.282,
19.9998,1.4104,14.2307,-257.8206,12.8206,-254.231,-114.231,7.1794,-208.8462,7.1794,-9.2307,1.5383,-1.5383,-1.5383,
19.7439,2.8206,11.5383,-242.8206,5.8977,-239.231,-99.231,14.1028,-193.8462,8.4617,-7.9487,11.5383,-13.5896,-2.8206,
10.5127,11.5386,23.3335,-227.8206,20.8977,-224.231,-84.231,-0.25635,-182.3076,0.25635,1.7949,-0.25635,1.4104,-6.9229,
25.5127,-3.4614,8.3335,-242.8206,12.8206,-239.231,-99.231,14.7437,-197.3076,15.2563,0.51294,13.3333,-0.51294,4.1028,
13.0767,-15.6411,-5.3848,-257.8206,13.5898,-254.231,-114.231,7.436,-212.3076,10.5127,3.8462,8.4614,8.4614,-3.8462,
14.8721,-0.64111,9.6152,-242.8206,13.8462,-239.231,-99.231,1.5386,-197.3076,3.0771,-3.0767,-1.5386,8.7183,-10.769,
24.3589,1.2822,7.436,-227.8206,6.9229,-224.231,-84.231,16.5386,-182.3076,16.6665,-1.2822,13.4614,-2.8206,-4.3591,
9.3589,3.8462,16.1538,-212.8206,17.1797,-209.231,-77.1794,1.5386,-167.3076,1.6665,1.2822,2.8208,10.5127,-9.4873,
24.3589,-11.1538,1.1538,-227.8206,6.4102,-224.231,-92.1794,12.564,-182.3076,14.1025,1.2822,17.1797,-1.2822,2.3076,
11.5383,-22.8206,-13.8462,-242.8206,5.3845,-239.231,-107.1794,7.9485,-197.3076,13.0769,5.8972,14.6155,2.8206,-2.8206,
7.1794,-7.8206,1.1538,-232.3076,8.2053,-224.231,-92.1794,-0.51294,-182.3076,2.0515,-1.0256,0.51294,3.5896,-9.7434,
21.7948,-11.5385,-2.3077,-217.3076,2.3077,-209.231,-91.0258,14.4871,-167.3076,17.0515,5.3846,15.5129,-3.3334,5.2566,
6.7948,-3.8462,4.3589,-203.3335,8.9741,-194.231,-91.5386,-0.25635,-155.6411,6.4102,4.8716,6.9229,8.9741,-5.8975,
14.8718,-13.3333,-10.6411,-218.3335,3.0769,-209.231,-106.5386,11.282,-170.6411,15.8977,2.5642,17.949,-1.0256,1.0256,
5.3848,-20.7693,-11.0256,-233.3335,0.76904,-224.231,-111.5386,7.9487,-185.6411,19.231,3.8462,20.2563,-0.76904,0.76904,
5.1282,-5.7693,3.9744,-237.4358,9.2307,-231.282,-96.5386,-1.5383,-170.6411,4.6155,-1.5383,5.2563,10.2566,-4.6155,
16.1539,-20.7693,-11.0256,-222.4358,-0.76917,-216.282,-111.5386,13.4617,-156.6666,17.6925,4.359,15.6412,0.76917,2.3077,
1.1539,-6.6667,3.9744,-214.3589,11.282,-203.5898,-96.5386,2.5642,-148.718,8.718,12.3079,5.6409,15.7692,-3.0769,
9.7437,-0.5127,0.5127,-229.3589,3.0767,-218.5898,-102.5642,7.6924,-163.718,13.333,-0.5127,6.6665,0.76917,-0.5127,
10,-12.564,-5.3845,-244.3589,-0.25635,-233.5898,-94.6152,14.6152,-178.718,20.7695,2.3076,16.6665,1.7949,0.25635,
3.0769,-7.1794,1.5383,-259.3589,7.1794,-248.5898,-79.6152,0.51294,-175.3845,7.1794,-0.51294,4.6155,7.1794,-9.2307,
18.0769,-22.1794,-13.4617,-274.3589,0.76929,-263.5898,-94.6152,15.5129,-190.3845,22.1794,5.3845,19.6155,-0.76929,5.7693,
3.0769,-22.8203,-5.8975,-259.3589,5.8975,-248.5898,-103.3333,2.8208,-175.3845,12.564,7.436,11.0259,12.0513,0.25635,
10.5127,-7.8203,-0.76904,-274.3589,5.3848,-263.5898,-88.3333,6.4102,-190,8.9741,0.76904,8.4614,1.7949,-3.3335,
10.7693,-9.7437,-1.0256,-289.3589,2.5642,-278.5898,-73.3333,11.7947,-205,13.8459,7.1794,16.4099,1.0256,-1.5383,
3.0769,2.5642,13.8464,-274.3589,9.2307,-263.5898,-81.5383,-3.2053,-190,1.0256,7.6926,1.4099,15.3845,-4.6155,
17.1793,-12.4358,-1.1536,-289.3589,0.25647,-278.5898,-96.5383,11.7947,-205,16.0256,4.8717,15.1281,0.38452,3.3336,
3.0769,-12.3074,-3.0769,-293.8459,11.7952,-282.564,-111.5383,4.6155,-190,16.4104,11.282,11.7952,14.8718,-3.5896,
5.8975,2.6926,3.8462,-278.8459,0.25635,-267.564,-96.5383,-1.2822,-175,6.9229,-0.25635,3.3335,5.3848,-7.436,
12.8203,-12.3074,-4.6155,-265.6411,-2.0513,-261.0256,-81.5383,13.7178,-167.6924,18.9741,7.6924,16.4102,5.1284,2.0513,
1.7949,-7.9487,5.8975,-260.769,10,-258.2048,-87.9485,-0.25635,-182.6924,8.9746,11.5386,1.4102,19.231,-2.3076,
15.6407,-22.9487,-9.1025,-275.769,-1.795,-273.2048,-102.9485,14.1027,-197.6924,23.8463,7.9489,16.4102,4.231,8.4615,
0.64075,-20.2566,-9.4871,-290.769,1.7947,-288.2048,-117.9485,5.3845,-193.5898,13.5896,8.4617,14.1023,7.9485,0.25659,
0.25659,-5.2566,5.5129,-275.769,-1.282,-273.2048,-102.9485,1.7952,-178.5898,8.9744,-0.25659,3.3333,4.3591,-3.8459,
12.8207,-8.7179,-5.1281,-260.769,-2.5641,-258.2048,-87.9485,16.7952,-163.5898,23.9744,10.7694,18.3333,2.5641,10.7694,
-0.5127,0.5127,1.0254,-245.769,4.6152,-243.2048,-88.718,1.7952,-167.6924,8.9744,6.6665,3.3333,10.769,-3.5898,
14.4873,-14.4873,-13.9746,-260.769,-2.3076,-258.2048,-103.718,11.0259,-182.6924,19.231,7.9487,15.6411,2.3076,2.3076,
-0.25635,-27.436,-15.6411,-275.769,0.25635,-273.2048,-118.718,5.3848,-197.6924,14.6152,14.6152,13.5898,10.5127,1.2817,
-0.76929,-12.436,-0.64111,-260.769,1.7952,-258.2048,-103.718,0.76929,-182.6924,1.2825,1.7952,-1.4102,1.7952,-2.8206,
7.6923,1.0258,-3.59,-245.769,-1.0258,-243.2048,-88.718,15.7693,-167.6924,16.2825,4.6151,13.5898,-5.6412,6.1537,
