"AF3","AF4","F3","F4","F7","F8","FC5","FC6","O1","O2","P7","P8","T7","T8",
197.6022,1087.946,172.6177,129.463,-213.5011,26.1199,232.8072,-56.7823,36.3403,-26.1199,-91.9873,-189.6525,-641.6382,-71.5453,
194.7633,1097.5993,165.2362,114.463,-198.5011,35.7732,218.6114,-69.8417,33.5014,-33.5014,-85.7406,-204.6525,-626.6382,-83.4694,
208.3898,1108.954,165.2351,99.463,-183.5011,45.9936,204.9826,-56.2146,19.8738,-19.8738,-77.792,-208.3909,-611.6382,-72.1135,
223.3898,1116.3372,150.2351,84.463,-168.5011,60.9936,191.9238,-41.2146,17.0343,-17.0343,-71.5453,-193.3909,-596.6382,-57.1135,
213.5006,1109.5234,135.2351,69.463,-153.5011,75.9936,176.9238,-37.4757,24.9845,-24.9845,-65.8674,-178.3909,-581.6382,-42.1135,
213.5006,1112.9294,120.2351,54.463,-138.5011,90.9936,186.2453,-23.8481,39.9845,-9.9845,-50.8674,-163.3909,-566.6382,-27.1135,
198.5006,1097.9294,105.2351,39.463,-123.5011,105.6144,172.6182,-38.8481,26.1193,-5.6784,-46.5613,-148.3909,-551.6382,-12.1135,
183.5006,1082.9294,90.2351,24.463,-108.5011,120.6144,157.6182,-53.8481,12.4917,-6.8138,-38.6116,-133.3909,-536.6382,2.8865,
168.5006,1067.9294,75.2351,9.463,-93.5011,135.6144,142.6182,-60.189,1.1359,-15.8989,-28.3912,-118.3909,-521.6382,7.9492,
153.5006,1052.9294,60.2351,-5.537,-78.5011,150.6144,127.6182,-45.4249,-6.8138,-10.2199,-17.0343,-103.3909,-506.6382,22.9492,
138.5006,1037.9294,45.2351,-20.537,-63.5011,153.3116,112.6182,-55.6464,-18.1696,-6.8138,-22.7122,-88.3909,-491.6382,37.4762,
123.5006,1022.9294,30.2351,-35.537,-48.5011,147.6337,97.6182,-70.6464,-33.1696,-21.8138,-37.7122,-73.3909,-476.6382,29.5265,
108.5006,1007.9294,15.2351,-50.537,-33.5011,162.6337,82.6182,-70.41,-38.6122,-27.2553,-32.9332,-58.3909,-461.6382,44.5265,
93.5006,992.9294,0.23512,-65.537,-18.5011,177.6337,67.6182,-74.3848,-47.1296,-21.0097,-21.0097,-43.3909,-446.6382,59.5265,
78.5006,977.9294,-14.7649,-80.537,-3.5011,187.3812,52.6182,-80.6309,-56.7818,-14.7635,-23.8486,-28.3909,-431.6382,46.5613,
63.5006,962.9294,-29.7649,-95.537,11.4989,202.3812,37.6182,-65.6309,-44.2895,-6.8138,-31.7983,-13.3909,-416.6382,61.5613,
48.5006,947.9294,-44.7649,-110.537,26.4989,199.8735,22.6182,-64.7315,-40.8834,-10.221,-29.5265,1.6091,-401.6382,76.5613,
33.5006,932.9294,-59.7649,-125.537,36.9086,184.8735,37.6182,-68.7064,-45.9936,-9.6533,-16.4666,16.6091,-386.6382,61.5613,
20.4414,917.9294,-74.7649,-140.537,21.9086,169.8735,52.6182,-65.8669,-44.2895,-15.8989,-30.6619,19.3061,-371.6382,55.6464,
35.4414,902.9294,-68.7064,-155.537,11.924,154.8735,67.6182,-51.6716,-29.2895,-11.924,-34.6368,18.7384,-356.6382,58.4859,
50.4414,887.9294,-53.7064,-140.537,-3.076,139.8735,82.6182,-36.6716,-14.2895,3.076,-22.7122,3.7384,-341.6382,43.4859,
57.35,872.9294,-38.7064,-125.537,-18.076,124.8735,97.6182,-36.908,0.71048,-0.56768,-37.7122,-11.2616,-333.3114,28.4859,
72.35,857.9294,-23.7064,-110.537,-33.076,109.8735,112.6182,-21.908,15.7105,1.1359,-46.5613,-26.2616,-348.3114,13.4859,
81.1992,842.9294,-8.7064,-95.537,-48.076,94.8735,127.6182,-26.6876,9.6528,-9.6528,-59.6207,-41.2616,-363.3114,-1.5141,
96.1992,827.9294,6.2936,-80.537,-63.076,79.8735,142.6182,-23.2809,3.9749,-3.9749,-72.1135,-56.2616,-378.3114,-16.5141,
110.7246,812.9294,21.2936,-65.537,-78.076,64.8735,140.2517,-22.145,10.7887,-10.7887,-87.1135,-71.2616,-393.3114,-31.5141,
125.7246,797.9294,36.2936,-50.537,-93.076,49.8735,136.8456,-19.8738,11.924,-11.924,-98.2329,-86.2616,-408.3114,-46.5141,
140.7246,782.9294,51.2936,-35.537,-85.1735,64.8735,146.4978,-9.0851,9.0851,-11.3569,-86.3089,-101.2616,-415.6454,-61.5141,
155.7246,767.9294,66.2936,-20.537,-70.1735,49.8735,131.4978,-24.0851,-5.9149,-26.3569,-101.3089,-116.2616,-430.6454,-76.5141,
170.7246,752.9294,81.2936,-5.537,-55.1735,36.3403,118.1072,-39.0851,-20.9149,-41.3569,-116.3089,-131.2616,-427.0012,-91.5141,
185.7246,737.9294,96.2936,9.463,-40.1735,34.6373,126.6235,-43.7224,-18.7379,-56.3569,-120.9461,-146.2616,-412.0012,-106.5141,
200.7246,722.9294,103.9108,11.9246,-25.1735,30.0948,141.3876,-30.0948,-11.9246,-41.3569,-120.9461,-161.2616,-397.0012,-111.8611,
215.7246,707.9294,115.8354,2.2713,-10.1735,34.0696,156.3876,-27.2553,-2.2713,-26.3569,-105.9461,-176.2616,-382.0012,-96.8611,
230.7246,700.691,106.75,-5.6782,4.8265,31.7975,171.3876,-27.2555,5.6782,-13.6279,-90.9461,-191.2616,-367.0012,-81.8611,
245.7246,685.691,97.0981,-7.3815,19.8265,16.7975,186.3876,-13.0599,20.6782,1.3721,-75.9461,-179.9992,-352.0012,-66.8611,
260.7246,670.691,82.0981,-22.3815,34.8265,1.7975,198.1696,-11.9243,34.637,11.9243,-60.9461,-164.9992,-337.0012,-61.8928,
275.7246,655.691,67.0981,-37.3815,49.8265,-13.2025,183.1696,-26.9243,25.5522,15.3312,-45.9461,-149.9992,-322.0012,-59.6213,
283.3431,640.691,52.0981,-52.3815,64.8265,-28.2025,168.1696,-41.9243,23.2807,18.7381,-30.9461,-137.9807,-307.0012,-51.6718,
268.3431,625.691,56.7823,-51.1039,79.8265,-43.2025,166.9398,-54.5111,32.9337,21.5773,-21.5773,-126.0564,-292.0012,-36.6718,
253.3431,610.691,41.7823,-66.1039,94.8265,-58.2025,164.668,-69.5111,24.984,18.1702,-18.1702,-116.9713,-277.0012,-49.968,
238.3431,595.691,26.7823,-81.1039,109.8265,-73.2025,149.668,-84.5111,13.6279,7.9495,-22.7124,-131.9713,-262.0012,-64.968,
223.3431,580.691,11.9249,-74.3845,124.8265,-88.2025,134.668,-99.5111,23.2807,-3.9746,-27.8232,-146.9713,-247.0012,-79.968,
208.3431,565.691,26.9249,-59.3845,139.8265,-103.2025,149.668,-98.8008,38.2807,11.0254,-13.6279,-132.8699,-232.0012,-69.2743,
193.3431,550.691,41.9249,-44.3845,154.8265,-118.2025,153.8796,-112.9967,41.4508,11.9243,-11.9243,-147.8699,-217.0012,-84.2743,
178.3431,535.691,48.8326,-29.3845,169.8265,-133.2025,148.7691,-118.1067,39.7475,2.2713,-14.763,-162.8699,-202.0012,-99.2743,
163.3431,520.691,63.8326,-14.3845,184.8265,-148.2025,150.4724,-112.9967,47.1293,10.7884,-29.763,-177.8699,-187.0012,-114.2743,
148.3431,505.691,78.8326,0.61546,169.8265,-163.2025,146.4984,-106.7503,57.9177,23.8486,-38.6116,-192.8699,-172.0012,-129.2743,
133.3431,490.691,93.8326,15.6155,154.8265,-178.2025,133.4381,-110.7249,60.7569,23.2807,-23.6116,-207.8699,-157.0012,-140.2514,
118.3431,475.691,95.3945,30.6155,139.8265,-193.2025,129.463,-115.8354,60.189,26.1199,-32.9337,-222.8699,-142.0012,-144.2265,
103.3431,460.691,90.8519,45.6155,124.8265,-208.2025,135.142,-112.4287,68.1387,29.5265,-37.4762,-207.8699,-127.0012,-129.2265,
88.3431,445.691,94.2588,60.6155,109.8265,-223.2025,123.7848,-105.6147,65.8671,17.0345,-22.4762,-193.0594,-120.3782,-114.2265,
73.3431,430.691,82.3345,50.5362,94.8265,-238.2025,108.7848,-98.2329,58.4854,17.6025,-13.0599,-208.0594,-105.3782,-106.1826,
58.3431,415.691,80.063,52.8077,79.8265,-253.2025,112.9967,-83.2329,72.1133,32.6025,-9.653,-193.0594,-90.3782,-92.5547,
43.3431,400.691,85.7409,55.0785,64.8265,-268.2025,108.4536,-68.2329,82.3337,47.6025,5.347,-178.0594,-75.3782,-77.7917,
28.3431,385.691,78.3591,40.0785,49.8265,-283.2025,93.4536,-62.4602,87.4442,60.189,20.347,-163.0594,-60.3782,-84.0376,
13.3431,370.691,63.3591,25.0785,34.8265,-298.2025,78.4536,-77.4602,86.3086,54.5108,5.6782,-148.0594,-45.3782,-85.1732,
-1.6569,355.691,48.3591,10.0785,19.8265,-313.2025,63.4536,-79.495,79.4956,53.3751,-6.8138,-133.0594,-30.3782,-71.5453,
-16.6569,340.691,38.0442,11.9243,4.8265,-328.2025,48.4536,-64.495,68.7066,44.858,8.1862,-118.0594,-15.3782,-69.842,
-31.6569,325.691,31.7981,18.1704,-10.1735,-338.4213,45.4257,-52.2395,68.1384,46.5616,23.1862,-109.0218,-18.1704,-65.8671,
-46.6569,310.691,39.1796,22.1448,-25.1735,-342.3962,49.4006,-48.2652,81.1984,58.4856,18.7381,-119.8105,-18.7381,-67.5707,
-51.6716,295.691,50.5362,22.145,-40.1735,-341.2605,50.5362,-47.129,83.4699,52.8075,10.7887,-115.2677,-10.7887,-67.5705,
-37.4762,280.691,40.8834,18.1702,-55.1735,-326.2605,40.8834,-53.3751,85.1729,48.8326,13.6276,-119.2426,-13.6276,-61.3249,
-22.4762,265.691,35.2047,32.9334,-70.1735,-311.2605,39.7478,-45.4257,100.1729,63.8326,20.4417,-104.2426,-28.6276,-51.1041,
-13.6276,250.691,47.6967,47.9334,-85.1735,-299.8094,44.2901,-32.9337,97.6652,74.9525,9.0851,-89.2426,-13.6276,-39.7475,
-9.6528,235.691,62.6967,56.2146,-76.6555,-294.6992,56.2146,-33.5014,88.0124,65.2997,1.7036,-77.7914,-1.7036,-40.3152,
-5.6784,220.691,77.6967,59.0536,-91.6555,-296.4028,60.189,-40.8829,90.8514,62.4602,5.6784,-84.0376,-16.7036,-48.8326,
-9.0851,205.691,85.1729,74.0536,-106.6555,-302.0813,60.189,-36.3409,97.6652,71.5453,9.0851,-99.0376,-31.7036,-43.1547,
-7.9495,190.691,95.3937,89.0536,-121.6555,-298.6743,69.2738,-24.9843,103.3434,73.8163,7.9495,-114.0376,-39.7478,-37.4765,
-2.8392,175.691,88.0122,83.4696,-130.031,-284.4785,58.4856,-22.1448,89.1481,61.8928,2.8392,-99.0376,-45.9934,-52.4765,
-2.2713,160.691,84.0376,78.3597,-141.9553,-274.8255,49.9685,-18.1702,87.4448,63.5961,2.2713,-86.3089,-60.9934,-64.7315,
-4.5425,145.691,93.1227,87.4442,-154.4475,-277.0967,51.1039,-17.0348,96.5293,70.41,4.5425,-101.3089,-46.5613,-64.7315,
-7.3818,130.691,89.1481,88.0122,-165.2359,-276.5288,44.858,-19.8735,86.8768,65.2995,7.3818,-106.1823,-33.5017,-49.7315,
-0.56795,115.691,90.2834,81.1984,-164.1,-265.1724,43.7221,-14.1956,86.8768,74.3845,0.56795,-91.1823,-40.3155,-34.7315,
7.3818,100.691,90.2834,73.2486,-151.6083,-260.6299,36.9083,-15.3315,90.2834,76.6558,-7.3818,-90.284,-45.9939,-45.9939,
-6.2461,85.691,80.0627,65.2997,-166.6083,-261.7655,22.145,-26.6876,76.6561,65.2997,6.2461,-85.7406,-60.9939,-60.9939,
-12.492,70.691,73.8169,61.3246,-181.6083,-255.5196,12.492,-26.1196,74.9522,69.2743,13.6279,-74.9522,-49.9682,-46.5611,
-22.713,55.691,62.46,47.697,-170.3467,-256.6556,-1.1356,-28.3914,79.4948,63.5959,1.1356,-59.9522,-34.9682,-34.0693,
-29.5268,40.691,60.1892,43.1544,-170.3462,-248.7058,-5.6782,-30.6622,72.6815,49.9682,5.6782,-54.5108,-19.9682,-27.2555,
-14.7633,38.6119,64.7318,54.5108,-173.7533,-233.7058,-7.9494,-17.0345,67.003,56.7821,15.8992,-69.5108,-4.9682,-12.2555,
-6.2461,45.9937,64.1638,61.8925,-182.2705,-218.7058,-8.5174,-6.2461,70.9776,63.0279,5.1102,-75.5202,9.6528,-5.1102,
-19.874,30.9937,65.2995,76.8925,-193.6271,-203.7058,-10.7889,-1.7033,77.7912,64.1636,1.7033,-60.5202,6.2459,-9.653,
-25.5522,24.4163,68.7064,91.8925,-183.4064,-190.2202,-18.7384,3.9749,84.6053,65.2992,5.1102,-52.8075,-3.9749,-7.382,
-17.0345,23.8483,73.8169,99.9367,-172.6174,-175.2202,-12.492,1.1356,85.1738,56.7821,2.2715,-37.8075,-9.0848,-1.1356,
-22.1453,8.8483,82.3343,114.9367,-187.6174,-169.7785,-1.7033,3.9746,70.9774,50.5359,-0.56795,-22.8075,-6.2459,0.56795,
-24.4163,-6.1517,92.555,129.9367,-189.0843,-162.9644,0.56768,18.9746,74.3848,65.5359,14.432,-37.8075,-0.56768,-1.7036,
-19.3058,-19.3058,85.1732,144.9367,-176.0246,-155.5832,1.1356,19.3058,89.3848,78.3594,22.713,-52.8075,-4.5428,-1.1356,
-14.7638,-30.6627,72.681,146.4975,-185.1097,-164.6683,1.1356,6.8135,89.7152,64.7312,7.713,-37.8075,-19.5428,-1.1356,
-28.3909,-45.6627,80.6307,158.9903,-200.1097,-171.4821,9.0854,9.0854,81.766,62.4605,12.492,-22.8075,-26.1196,-9.0854,
-37.4762,-60.6627,89.7155,173.9903,-201.0089,-176.0243,12.4923,19.3061,89.7155,73.8166,27.492,-37.8075,-14.7635,-12.4923,
-37.4765,-75.6627,74.7155,161.2605,-207.8229,-191.0243,5.6782,7.9495,86.3091,70.4097,12.492,-27.2555,-29.5268,-5.6782,
-34.6373,-90.6627,67.5705,155.0152,-210.6616,-193.6274,10.7887,-0.56768,83.4699,65.2992,-0.56768,-12.2555,-34.6373,0.56768,
-31.2301,-99.3688,81.1981,165.2357,-200.4412,-181.1351,15.3312,6.2461,78.9268,63.0279,10.7887,-6.2461,-31.2301,-6.2461,
-33.5017,-105.047,80.063,159.558,-189.0846,-179.9995,14.1956,6.2459,75.5204,64.1636,13.0597,-21.0094,-44.858,-6.2459,
-36.3406,-119.2428,77.224,155.5826,-180.5672,-176.0246,13.6274,1.1356,71.545,65.8671,3.4069,-15.8992,-42.0191,-1.1356,
-43.1542,-127.1917,76.0879,156.7183,-191.9238,-176.0243,18.1702,4.5425,71.5453,60.189,-4.5425,-0.89917,-32.9337,-11.3564,
-39.7475,-136.2774,70.41,154.4475,-193.0591,-177.1602,30.6624,17.0348,76.0879,61.3249,-2.2713,2.2713,-29.5265,-11.3564,
-35.205,-151.2774,62.4602,156.7183,-178.0591,-165.8039,22.7127,19.3061,63.5961,64.7315,4.5425,-12.7287,-14.5265,-4.5425,
-47.1293,-166.2774,63.0282,147.0658,-172.0498,-161.8288,8.5171,7.3818,55.0785,57.3497,-1.7033,-6.2459,0.47347,-7.3818,
-53.3751,-170.3464,61.3249,135.142,-187.0498,-164.668,6.8138,2.2713,54.5111,45.426,-4.5425,8.7541,-14.5265,-2.2713,
-63.5956,-181.7028,46.3249,134.0061,-198.7371,-163.5321,-2.2713,0,51.1039,39.7475,0,2.2713,-29.5265,2.2713,
-70.4097,-191.9235,38.6119,145.3627,-193.0589,-160.1252,1.1356,5.6782,56.7821,45.4257,-1.1356,-4.5423,-37.476,5.6782,
-56.7821,-191.9235,53.6119,140.8196,-178.0589,-160.1257,5.6782,-1.1356,46.5611,43.1544,-13.6279,6.8135,-22.476,1.1356,
-41.7821,-187.9489,67.5705,136.845,-163.0589,-156.1506,14.1959,-0.56768,48.2649,49.4003,0.56768,-1.7036,-7.476,-2.839,
-45.9934,-193.6271,57.3497,141.3873,-148.0589,-164.1006,9.653,-1.7033,51.6718,44.858,1.7033,-16.7036,7.524,-17.839,
-39.7472,-178.6271,64.7323,149.9053,-148.7688,-149.1006,7.9495,1.1356,66.6718,54.5108,-1.1356,-6.8135,22.524,-2.839,
-32.3655,-181.1351,60.7566,134.9053,-133.7688,-141.3876,-0.56768,-13.0599,63.0285,57.3505,0.56768,-2.839,16.4671,7.382,
-41.4511,-190.2202,58.4854,142.523,-140.2517,-148.2014,-1.7036,-11.924,49.4003,55.0793,2.839,1.7036,1.4671,3.9749,
-49.9682,-197.602,68.1384,157.523,-155.2517,-155.5832,2.2715,-1.1356,53.3754,59.0533,1.1356,-10.2207,-2.271,5.6782,
-49.4006,-199.305,63.0287,145.9299,-156.1509,-158.4221,-7.3818,1.7033,60.7569,63.0287,-2.8392,-1.7033,7.3818,1.7033,
-47.129,-199.3053,55.0793,134.5732,-148.2014,-144.7942,-10.7887,-2.839,58.4854,58.4854,2.839,13.2967,14.1959,-9.6528,
-43.1544,-203.2804,68.1384,148.7688,-155.5832,-140.8196,1.1356,-1.1356,59.0533,54.5108,9.0848,-1.7033,6.8135,-11.3566,
-28.1544,-198.7376,72.6807,156.7183,-140.8199,-138.5486,-13.8644,7.9492,63.5956,57.9177,-2.2713,-16.7033,9.0851,2.2713,
-30.0945,-199.3055,57.6807,141.7183,-131.1669,-135.7094,-28.8644,0.56795,57.3497,57.3497,-7.3818,-1.7033,24.0851,-0.56795,
-45.0945,-203.2801,42.6807,129.4635,-140.8199,-143.0912,-21.5773,-7.9497,51.1039,57.9182,7.6182,13.2967,23.8486,-15.568,
-46.5616,-196.4661,35.2047,137.4125,-136.2771,-140.8196,-21.5771,3.4069,56.7821,60.1892,13.6279,-1.7033,8.8486,-4.5428,
-52.8072,-207.2547,26.6873,122.4125,-141.3873,-139.116,-36.5771,2.8392,52.8072,45.1892,-1.3721,13.2967,-5.1105,8.5171,
-60.1892,-210.0942,38.6113,123.7854,-147.6334,-140.8196,-46.5616,-7.9495,47.6964,40.8832,-3.4069,6.8135,7.9494,3.4069,
-57.9177,-202.1442,53.6113,138.7854,-136.2774,-148.7691,-31.5616,-7.9497,52.2398,55.8832,7.9497,-8.1865,15.8989,10.221,
-68.7066,-207.2547,58.4856,137.9807,-140.252,-163.7691,-19.874,-9.653,48.2652,44.858,-7.0503,6.8135,16.4669,7.3818,
-64.7315,-203.2801,45.426,132.8707,-137.4127,-155.5829,-20.4414,-2.2713,47.6967,32.9337,-11.3564,21.8135,31.4669,2.2713,
-49.7315,-197.034,51.6716,137.981,-123.2174,-147.066,-19.8738,-0.56768,47.129,43.7218,1.7036,6.8135,44.8583,0.56768,
-47.129,-200.4412,53.9428,127.76,-111.8611,-148.2014,-34.6373,-15.5677,38.0445,42.587,-0.56768,19.8738,34.6373,0.56768,
-48.8326,-204.4155,43.1547,119.2426,-98.8006,-144.2265,-31.7978,-14.763,39.7475,34.0696,-9.0851,34.8738,49.6373,9.0851,
-40.8829,-198.7376,48.8331,131.7343,-90.8514,-140.8199,-16.7978,0.23701,46.5613,37.4762,-4.5425,19.8738,64.6373,9.0851,
-32.9334,-186.2456,63.8331,140.8196,-90.8511,-134.0058,-20.4417,5.6782,38.6119,36.3406,-1.1356,4.8738,49.6373,1.1356,
-39.1798,-191.3561,73.2489,128.8959,-105.8511,-135.7091,-23.2809,-7.3815,36.9086,31.2301,-10.7887,15.3312,34.6373,7.3815,
-41.4511,-195.8986,67.5705,126.6246,-109.5898,-139.1163,-23.2809,-8.5174,40.3152,32.3655,-16.4671,8.5174,19.6373,17.6025,
-27.2555,-181.7025,67.0025,131.7345,-94.5898,-124.1163,-20.4417,1.1356,48.8323,45.4262,-1.4671,-5.6782,34.6373,14.7633,
-35.2052,-187.381,54.5108,121.5136,-93.1229,-132.8705,-15.8992,-1.1356,49.9682,42.0185,-2.2715,3.4069,42.0185,1.1356,
-40.3155,-195.8984,55.079,119.81,-105.047,-137.9807,-9.653,3.9746,42.5867,28.9586,-8.5171,1.7033,38.0442,-1.7033,
-26.6878,-191.3558,61.8928,120.9459,-90.047,-123.2171,-7.3818,10.7884,43.7226,34.6376,3.9746,-13.2967,53.0442,-3.9746,
-19.8738,-184.5417,50.5362,123.2169,-75.047,-118.6749,-17.6025,7.3815,40.3157,43.7218,5.1102,-23.2804,68.0442,-5.1102,
-24.4163,-187.9489,43.7218,124.3533,-82.334,-124.3528,-28.9588,7.3815,31.2307,33.5014,-9.8898,-8.2804,53.0442,-2.839,
-22.713,-189.6522,58.7218,130.5986,-84.0379,-112.4285,-21.5771,21.5776,40.8832,29.5263,-10.2207,-1.1356,42.0185,1.1356,
-17.0345,-189.6522,69.2743,134.0064,-73.8169,-107.8859,-18.1704,23.8483,42.0191,34.0693,-3.4069,-11.3561,27.0185,3.4069,
-18.7381,-190.2199,55.079,124.3525,-72.1133,-114.1321,-17.6022,10.7884,34.637,33.5017,-6.2459,-3.9746,31.2298,3.9746,
-14.7633,-181.7031,62.46,122.6495,-60.1892,-99.1321,-10.2207,14.7638,37.4765,35.2047,-3.4069,-5.6782,46.2298,3.4069,
-14.7633,-189.6522,67.0025,120.3777,-62.4605,-103.3434,-11.3566,26.1196,39.7472,35.2047,3.4069,-17.0345,61.2298,-3.4069,
-21.0094,-203.8481,65.2989,111.8608,-68.7066,-118.3434,-13.0597,18.7381,39.1801,30.095,0.56795,-2.0345,56.2138,-9.653,
-18.1702,-188.8481,62.4608,105.6155,-53.7066,-115.8354,-22.7127,6.8138,36.3409,27.2558,-9.0851,12.9655,71.2138,-6.8138,
-19.3061,-185.11,54.5105,104.4796,-46.5613,-101.0724,-28.3912,10.2205,27.2553,22.7127,-7.9497,7.9497,81.7658,-10.221,
-14.7633,-186.2456,60.1887,119.4796,-55.6467,-109.0218,-13.3912,25.2205,35.2052,23.8483,7.0503,-7.0503,66.7658,-13.6279,
-24.416,-186.8133,50.5359,110.7254,-60.7569,-119.8105,-16.4669,17.6022,33.5011,11.9243,0.56795,-0.56795,75.5204,-10.7884,
-35.205,-193.0597,47.6967,95.7254,-56.7823,-105.6149,-28.3912,2.6022,22.7122,14.7635,-6.8144,12.4917,90.5204,-1.1359,
-24.4163,-191.3561,55.0787,100.5042,-50.5362,-93.6903,-34.6373,3.9743,15.3312,23.2809,-10.7887,-2.5083,81.1986,3.9743,
-10.2207,-185.1097,57.9174,115.5042,-47.697,-102.208,-24.9843,18.1699,27.255,24.9843,-15.8992,-12.492,73.8169,10.2207,
-8.5174,-187.9489,52.8069,110.7257,-55.0787,-115.2677,-19.8738,21.0091,31.2307,26.6881,-17.6025,-0.56768,81.1986,0.56768,
-5.6779,-183.9741,44.2901,95.7257,-40.0787,-105.6149,-34.0696,6.0091,16.2307,21.5773,-11.3569,13.6276,96.1986,-14.4323,
-17.0343,-185.1094,44.2906,82.9017,-29.5265,-102.2078,-36.3403,1.1359,12.4917,12.4917,-1.1359,6.8138,84.0381,-15.8989,
-28.3906,-185.1094,54.5105,97.9017,-44.5265,-109.0216,-23.8481,16.1359,27.4917,24.9845,4.5425,-8.1862,69.0381,-4.5425,
-23.2804,-185.6776,52.808,95.9616,-49.4003,-103.9113,-24.4163,14.1959,32.366,31.2307,0.56768,-23.1862,84.0381,-0.56768,
-11.3558,-188.5161,49.9691,80.9616,-34.4003,-93.1221,-37.4757,4.5425,22.7127,18.1702,-4.5425,-8.1862,95.3945,-5.6779,
-12.4917,-194.1951,49.9685,87.4442,-43.1547,-105.6149,-42.0188,6.8138,15.8989,7.9492,-6.8138,6.8138,80.3945,-12.4917,
-15.3312,-195.8981,49.4008,89.1483,-58.1547,-120.6149,-38.0439,7.3815,16.4666,15.3312,-7.3815,9.6533,65.3945,-23.2804,
-7.3815,-183.4064,49.3997,85.7412,-64.1644,-116.4036,-49.4008,11.924,18.7373,17.6019,-9.6533,7.3815,64.1638,-19.8743,
-5.6774,-185.1094,52.2403,85.1735,-62.4602,-105.6144,-51.1033,13.6282,17.0353,6.8138,-12.4917,2.2713,62.4608,-4.8743,
-1.1356,-183.9738,57.918,93.1229,-71.545,-103.3434,-36.1033,11.3572,21.5776,11.3572,-7.9494,-12.7287,47.4608,1.1356,
10.7887,-173.1854,60.7566,94.8263,-63.0285,-100.5047,-31.2301,10.7887,17.6019,19.8738,-10.7887,-17.6025,35.7721,-11.9246,
5.1097,-184.5423,45.7566,79.8263,-50.5362,-105.0472,-46.2301,2.839,2.6019,4.8738,-22.1456,-2.6025,50.7721,-18.7384,
0,-179.4315,34.0696,74.9525,-47.6967,-98.8006,-52.2392,3.4072,0,1.1354,-14.763,11.3569,65.7721,-7.9497,
-5.6784,-173.7531,49.0696,87.4442,-62.6967,-99.9365,-37.4762,12.4917,14.7635,14.7635,-10.221,5.6784,50.7721,-7.9492,
-13.0605,-187.9489,52.8069,72.4442,-77.6967,-105.0472,-52.4762,7.3815,9.6522,7.3815,-21.0091,20.6784,35.7721,-7.3815,
-5.1108,-191.3561,37.8069,67.5699,-68.7069,-100.5047,-67.4762,3.9743,6.2461,-1.7036,-17.603,30.0942,50.7721,1.7036,
-4.5425,-193.0591,32.9342,82.5699,-81.7658,-109.0216,-52.4762,11.3569,21.2461,12.4923,-2.603,15.0942,46.5619,-1.1354,
-19.5425,-204.9837,42.587,84.6053,-95.9622,-124.0216,-38.0439,8.5174,17.6025,6.2456,-1.703,1.703,42.587,-13.0599,
-22.7122,-202.1442,42.0188,74.953,-80.9622,-112.4282,-53.0439,1.1359,9.0856,5.6784,-1.1359,16.703,57.587,-5.6784,
-13.6271,-197.6017,32.9337,74.953,-69.274,-97.4282,-54.5105,-3.4066,14.7635,20.6784,-6.8138,22.7133,46.5613,3.4066,
-17.603,-202.7125,31.2301,84.6053,-73.2494,-110.7257,-42.587,-0.56768,14.1953,21.0086,-21.8138,7.7133,31.5613,3.9749,
-30.6624,-213.5006,37.4757,91.9873,-78.3591,-120.3779,-39.7475,5.6779,20.442,7.9497,-20.4414,-3.4072,44.2901,3.4072,
-26.6876,-209.5263,41.4506,103.9108,-74.3848,-124.3528,-26.6876,15.3312,35.442,21.0097,-5.4414,-2.839,41.4506,1.7036,
-13.6276,-201.0083,34.0696,95.3945,-59.3848,-120.3779,-23.8481,17.0348,29.5271,30.6624,-2.2713,2.2713,39.7475,-2.2713,
-6.2461,-204.9837,33.5014,80.3945,-52.8075,-105.3779,-34.6373,14.1948,14.5271,19.8738,-17.2713,1.7036,54.7475,-1.7036,
-13.6282,-207.8227,31.7983,70.4094,-67.0028,-90.3779,-48.8326,10.221,3.4066,9.0845,-27.2558,1.1359,52.2392,-1.1359,
-15.8994,-201.0089,24.9834,74.9525,-63.5961,-93.1227,-44.2901,4.5425,13.6276,14.763,-12.2558,9.0851,37.2392,-4.5425,
-10.221,-189.6525,26.1194,76.0873,-49.9685,-95.3939,-32.9337,3.4066,20.4414,21.5768,-3.4066,4.542,24.984,-4.5431,
-14.7635,-185.11,31.7978,78.3586,-64.9685,-91.9873,-37.4762,5.6779,22.7127,29.526,-13.6282,-5.6779,15.8984,5.6779,
-18.7384,-187.9489,42.5859,85.7406,-79.9685,-100.5047,-38.0439,7.382,32.3655,34.6373,-2.8395,3.9749,0.89836,2.8395,
-18.7379,-182.2705,39.1804,88.013,-69.8417,-101.6401,-44.8577,2.839,22.1456,24.4163,9.6533,18.9749,-8.5169,-2.839,
-17.0348,-177.1602,37.4757,89.7155,-63.5961,-93.1227,-52.2398,13.6276,12.4923,21.5773,-5.3467,10.2205,-1.1354,1.1354,
-12.4923,-173.7531,52.4757,104.4796,-73.8166,-84.0376,-44.2901,28.6276,23.8481,29.5271,-20.3467,13.6276,-15.8989,12.4923,
-23.2809,-174.3213,49.4008,103.9113,-85.7412,-88.0124,-50.5362,23.2809,14.1959,17.6019,-5.3467,18.7384,-10.7887,1.7036,
-36.3409,-177.1608,37.4757,104.4785,-99.937,-99.937,-47.6972,23.8481,14.763,17.0337,9.6533,4.5425,-17.0353,-4.5425,
-40.8826,-172.6174,38.6124,110.1577,-90.8511,-96.5296,-46.5611,31.7981,27.2555,26.1202,-5.3467,7.95,-32.0353,5.6782,
-44.8583,-177.7285,31.2301,103.9108,-88.0124,-94.8263,-49.4008,25.5511,35.7727,22.145,-9.6528,22.95,-47.0353,9.6528,
-52.2392,-191.9232,27.2558,106.7508,-99.9365,-106.7503,-52.2392,18.1707,31.7983,12.4917,-1.1359,17.0343,-62.0353,1.1359,
-47.6972,-185.11,37.4762,121.7508,-84.9365,-97.6657,-54.5111,30.6619,27.2547,26.1194,2.2713,2.0343,-77.0353,16.1359,
-41.4506,-175.4567,52.4762,133.4379,-69.9365,-85.7406,-45.9936,39.1798,31.2301,39.1798,3.9749,-3.9749,-92.0353,31.1359,
-45.426,-186.2459,46.5608,118.4379,-84.9365,-97.6657,-57.9182,24.9834,17.0337,24.1798,-4.5425,4.5425,-107.0353,16.1359,
-39.7475,-180.5674,39.747,116.9713,-69.9365,-84.0376,-54.5111,29.5265,10.221,9.1798,1.1359,-1.1359,-92.0353,9.0845,
-32.9334,-165.5674,46.5616,123.7848,-54.9365,-69.0376,-39.5111,44.2898,12.492,24.1798,6.8141,-6.8141,-77.0353,24.0845,
-35.2055,-170.347,45.4254,120.3779,-51.1044,-57.9182,-47.6972,38.6111,4.5425,20.4409,-4.5425,8.1859,-62.0353,38.6111,
-45.4254,-185.347,37.4762,112.4287,-66.1044,-60.189,-52.2392,28.3912,6.8138,10.221,-6.8138,23.1859,-47.0353,43.1542,
-44.8577,-184.5417,42.587,127.4287,-80.0627,-60.7566,-42.5865,40.3152,19.8743,25.221,-3.9749,8.1859,-39.1793,43.7224,
-42.0188,-188.5166,37.4757,130.5984,-79.495,-71.5453,-47.6972,42.0182,19.3055,24.9845,-9.0851,9.0851,-24.1793,28.7224,
-47.6967,-199.873,22.4757,115.5984,-64.495,-82.9017,-54.5105,29.5265,12.4917,9.9845,-12.4917,7.9492,-9.1793,13.7224,
-47.6967,-191.9238,9.0851,114.7,-49.495,-80.6304,-54.5105,27.2553,11.3569,12.4923,-9.0851,-7.0508,5.8207,10.2204,
-45.9936,-192.492,19.8732,114.1313,-56.2146,-84.6058,-59.6218,23.2804,14.1953,27.4923,-5.1102,-14.1959,5.1102,11.9235,
-47.6972,-197.6022,24.984,113.5641,-71.2146,-88.5801,-69.2746,14.7635,18.1696,22.7122,-4.5431,0.80415,-3.4066,3.4066,
-51.6716,-198.1699,13.0594,112.9964,-75.5202,-89.1478,-67.571,11.924,17.6019,17.6019,-7.3815,15.8041,7.3815,-9.6533,
-56.2146,-200.4412,10.7881,117.5384,-78.9274,-88.0124,-60.7572,16.466,15.3307,26.6876,-8.5179,5.1102,22.3815,-5.1102,
-60.189,-205.5509,18.1707,116.9713,-93.9274,-91.9868,-75.7572,12.4928,9.0856,22.7133,-15.8989,6.8138,28.3912,-6.8138,
-56.2141,-202.7125,26.687,109.5892,-98.2329,-88.0124,-85.7412,15.3312,8.5169,21.0091,-19.8738,15.3312,17.6019,-8.5169,
-61.8925,-202.7125,25.5517,112.9964,-105.0472,-84.6053,-81.1986,22.1445,9.6533,13.0594,-22.145,0.33122,32.6019,5.1108,
-69.274,-205.5514,24.984,127.9964,-120.0472,-95.3939,-72.6812,23.8486,23.8486,5.6784,-19.3061,-5.6784,43.1542,12.4917,
-62.4602,-206.6873,29.5265,138.5486,-135.0472,-110.1575,-62.4602,19.3061,28.3912,20.4414,-13.6276,2.2713,28.1542,-2.2713,
-47.4602,-191.6873,38.6119,143.0904,-120.0472,-95.1575,-62.4605,31.7975,19.3063,35.4414,-3.4069,-12.7287,35.2047,3.4069,
-32.4602,-176.6873,35.7724,128.0904,-114.1321,-81.1984,-77.4605,32.3652,10.7889,20.4414,-10.7889,-25.5519,50.2047,18.4069,
-38.6122,-185.11,26.1199,113.0904,-114.7,-85.1735,-92.4605,22.7127,4.5425,5.4414,-24.9845,-10.5519,47.6972,9.0851,
-30.6624,-178.2956,22.7127,122.6497,-99.7,-70.1735,-93.1227,26.1199,3.4072,20.4414,-17.0348,0,40.8829,0,
-35.2052,-179.4318,23.8483,129.4633,-114.7,-70.4102,-81.7666,23.8483,9.0854,22.713,-13.6279,-9.0854,34.0688,9.0854,
-50.2052,-183.4061,23.2807,125.4884,-129.7,-85.4102,-83.4696,15.3309,7.3818,11.9249,-22.1448,-7.3818,38.0437,10.7884,
-45.9936,-173.1854,32.366,136.8445,-114.7,-81.1986,-73.2489,28.9588,7.3815,26.9249,-7.3815,-0.56768,45.9936,0.56768,
-35.205,-165.8039,47.366,151.0404,-119.2426,-66.1986,-65.8674,40.8829,-2.2713,38.6122,7.6185,-5.6784,51.1033,2.2713,
-27.8235,-159.5578,62.366,152.7439,-116.4036,-51.1986,-68.7064,48.2644,-9.6528,33.5014,9.6528,-9.6528,66.1033,17.2713,
-27.2558,-169.2111,53.3746,139.684,-101.4036,-36.1986,-73.8171,47.6967,-3.4072,28.3912,-2.2713,2.2713,78.3591,32.2713,
-36.9086,-178.8638,38.3746,127.7594,-99.3688,-51.1986,-88.8171,32.6967,-15.3312,19.8738,-14.1959,14.1959,63.3591,17.6019,
-23.8486,-165.8039,44.2895,135.1415,-88.5801,-56.7823,-89.716,29.5265,-12.4923,31.7983,-11.3564,11.3564,78.3591,15.8989,
-22.7124,-179.4312,39.7472,121.5141,-84.0373,-59.0533,-86.3086,23.8489,-7.9495,31.7986,-13.6274,7.9495,93.3591,15.8992,
-32.9337,-191.9238,24.7472,112.4287,-91.9868,-69.274,-98.8011,23.8486,-13.6276,27.2558,-3.4066,22.9495,108.3591,3.4066,
-47.9337,-192.4915,24.4163,114.1318,-106.9868,-84.274,-98.2329,25.5517,-13.0599,31.2307,7.3815,37.9495,98.2334,-7.3815,
-52.8072,-191.3558,28.9586,120.9459,-121.9868,-91.4193,-89.1481,28.9586,-8.5171,30.095,-0.56795,22.9495,83.2334,7.6185,
-59.0536,-196.4663,18.1702,115.8354,-136.9868,-78.3591,-91.9873,22.7127,-20.4414,19.3055,-12.4923,12.4923,68.2334,21.5773,
-61.8923,-201.5763,17.6028,110.7254,-143.6586,-85.7409,-86.8768,21.0099,-22.1448,22.1453,-10.7884,27.4923,60.7575,10.7884,
-63.0285,-204.9837,21.0091,116.4036,-133.4384,-99.3688,-92.555,26.687,-14.1959,22.1445,-9.6533,17.6019,51.6716,9.6533,
-61.8926,-202.7119,18.7379,112.997,-122.0815,-85.7406,-98.2329,30.0948,-14.1953,18.7379,-8.5174,8.5174,66.6716,13.0599,
-54.5111,-194.1951,15.8994,111.2928,-113.5641,-70.7406,-91.9868,29.5271,-20.4414,22.7127,-7.9497,23.5174,81.6716,7.9497,
-62.46,-195.3301,14.7633,106.7506,-115.8351,-73.8163,-93.1224,15.8997,-22.7124,14.7633,-5.6782,38.5174,96.6716,5.6782,
-62.4605,-194.1953,18.1704,103.3434,-100.8351,-76.0881,-95.3942,6.8135,-17.0351,11.3561,7.9489,23.5174,111.2931,4.5428,
-47.4605,-179.1953,15.3315,102.7762,-85.8351,-61.0881,-93.6906,15.3315,-15.3309,19.874,10.7889,8.5174,126.2931,8.5171,
-34.6368,-177.7279,21.0097,106.1826,-70.8351,-58.4854,-91.4191,17.6025,-13.0599,22.145,9.6528,-6.4826,141.2931,9.6528,
-32.3658,-174.321,28.9586,110.7254,-72.1133,-56.2144,-88.0127,21.0089,-10.7889,25.5514,8.5177,-8.5177,147.0658,10.7884,
-31.2304,-170.9144,35.7724,114.1321,-74.3845,-55.079,-84.6055,24.4166,-7.3818,27.8227,7.3818,-8.5177,143.6591,13.0597,
-30.6622,-168.0749,43.1539,118.1064,-78.3594,-53.3754,-81.766,27.2555,-5.6782,30.6627,5.6782,-7.9494,138.5484,14.7633,
-31.2301,-167.5069,48.2644,120.9461,-82.334,-53.9428,-80.0627,28.9588,-3.9749,32.366,3.9749,-9.6528,133.4384,15.3312,
-30.0945,-165.2359,55.079,124.3525,-86.8768,-53.9431,-76.6558,32.3663,-1.7033,34.637,1.7033,-10.7884,127.7597,14.1961,
-28.3909,-161.2611,44.2898,123.7848,-76.0876,-49.9682,-79.4948,38.6119,-5.6782,32.934,5.6782,-6.8135,134.0064,13.6284,
-36.9083,-167.5072,29.2898,118.6751,-65.2995,-56.2144,-89.1481,23.6119,-14.1956,25.5525,-3.9746,3.9746,119.0064,8.5177,
-28.3909,-164.6683,31.7981,129.4633,-71.5456,-51.1036,-74.1481,22.713,-6.8135,36.3406,3.4069,-3.4069,104.0064,22.713,
-30.0945,-165.2359,36.9083,128.8956,-86.5456,-60.7569,-70.9779,26.6878,-10.7884,31.2304,1.7033,-1.7033,89.0064,13.0597,
-30.6622,-171.4821,35.2052,119.2428,-81.766,-67.003,-73.8169,29.5273,-5.6782,29.5273,-3.4069,3.4069,74.0064,5.6782,
-24.984,-168.0752,35.2044,118.1067,-81.7663,-61.3249,-67.0028,22.7133,4.5425,28.3912,-4.5425,-11.5931,59.0064,15.8989,
-17.6022,-153.0752,45.9939,130.0315,-73.2486,-48.2647,-61.8923,28.9591,-0.56795,35.7724,6.2459,-13.0597,44.0064,17.6022,
-26.1199,-166.9393,30.9939,115.0315,-61.3249,-55.6464,-74.9525,19.3055,-15.568,26.1199,5.6779,1.9403,29.0064,2.6022,
-28.3912,-176.0243,17.0348,100.0315,-54.5105,-52.2392,-79.495,7.9497,-11.3558,14.763,5.6779,10.2205,42.0193,-5.6779,
-36.9086,-170.9147,23.2804,88.0124,-67.571,-57.35,-74.3848,8.5174,-11.9246,11.9235,-0.56768,0.56768,34.6373,2.8384,
-48.8321,-179.431,29.5271,94.2591,-77.2232,-70.4094,-76.0879,9.0851,-19.3055,9.0851,0,15.5677,19.6373,0,
-59.6213,-187.9489,17.6025,93.6903,-85.7412,-70.9776,-84.6053,1.703,-23.2809,9.6528,5.1102,8.5174,21.0097,-1.703,
-59.0541,-177.1608,13.6271,94.2575,-93.1232,-64.732,-72.6818,2.2713,-12.4928,22.7122,6.8138,-2.2713,6.8138,9.0845,
-51.1039,-164.6685,12.4923,94.258,-78.1232,-52.2398,-72.6812,4.5425,-23.8486,13.6276,-3.4072,12.7287,3.4072,14.763,
-47.129,-166.3716,10.7881,91.4196,-63.1232,-37.2398,-80.0627,5.1102,-38.0439,0.56768,-0.56768,27.7287,18.4072,9.6528,
-47.129,-167.5075,17.6019,99.3688,-59.6213,-22.2398,-68.7064,11.924,-24.4163,13.0594,-0.56822,12.7287,33.4072,13.0594,
-36.9083,-161.8288,10.7884,108.4536,-57.3497,-28.9586,-64.1636,15.3309,-15.3309,11.9248,-9.653,9.653,48.4072,26.6878,
-27.8235,-164.1003,2.8395,98.2329,-50.5362,-25.5522,-69.8423,5.1102,-13.0599,-1.703,1.703,16.4671,63.4072,24.4158,
-27.8235,-157.2865,15.3307,93.6903,-35.5362,-19.8738,-69.8423,7.382,-7.382,9.6528,9.6528,1.4671,78.4072,18.7379,
-42.0188,-157.8542,7.9492,78.6903,-23.8486,-31.7978,-81.7663,3.4066,-18.1696,4.5431,1.1359,-1.1359,93.4072,11.3564,
-42.0188,-156.7188,6.8133,80.6304,-34.0696,-30.6624,-73.8171,1.1354,-23.8481,-1.1354,2.2707,9.0851,108.4072,5.6779,
-28.9586,-141.7188,21.8133,95.6304,-45.9934,-16.4669,-58.8171,15.3315,-8.8481,13.8646,7.3818,-5.9149,114.1321,11.9243,
-30.0948,-134.5738,28.9583,92.555,-52.8075,-18.7384,-64.1638,22.145,-7.382,17.6025,7.382,-10.7887,106.1826,18.7379,
-28.9594,-143.6589,18.7379,83.4699,-48.2649,-17.603,-78.9274,15.3307,-22.382,8.5174,-0.56768,0.56768,121.1826,10.7881,
-14.1953,-135.7091,31.2301,98.4699,-35.7727,-5.1102,-64.1638,9.6528,-7.382,14.1953,-5.1102,5.1102,133.4379,9.6528,
-22.145,-136.845,32.3655,93.6903,-42.5865,-17.6025,-61.8925,0.56768,0.56768,9.6528,-5.1102,-0.56768,118.4379,9.6528,
-15.3312,-130.0307,32.3655,102.7754,-45.9931,-21.0091,-65.2992,15.5677,-10.7887,15.3318,3.9749,-3.9749,133.4379,10.7892,
-8.5174,-128.8953,41.4511,111.8611,-49.4003,-16.4666,-51.6716,19.8738,-2.839,18.7384,2.839,-9.6528,148.4379,6.2461,
-13.0599,-128.8953,47.1296,106.1826,-52.8075,-18.7384,-55.0787,7.382,1.703,7.382,-1.703,-8.5174,133.4379,6.2456,
-15.8984,-119.242,43.1547,96.5298,-53.3746,-13.6276,-70.0787,12.4923,-12.4912,7.9497,4.5425,-4.5425,118.4379,9.0851,
-19.8738,-122.0815,43.7218,102.776,-68.3746,-23.2809,-64.1638,16.4666,-5.1108,16.4666,5.1108,5.1108,111.8611,-5.9149,
-23.8486,-128.3276,49.9685,113.5641,-83.3746,-38.2809,-64.732,1.4666,4.542,9.0845,-1.1359,20.1108,106.7498,-10.221,
-12.4917,-118.1072,59.0536,112.4287,-77.2238,-35.205,-64.7315,2.2713,-3.4066,9.0845,-2.2713,15.8989,121.7498,4.779,
-1.703,-107.3185,66.4351,123.2174,-85.7412,-32.366,-53.9428,17.2713,1.703,14.1953,-2.8395,0.8989,136.7498,8.5174,
-16.4666,-122.0815,60.7566,132.303,-100.7412,-47.366,-63.0279,15.3312,6.2461,9.6533,-2.839,2.839,121.7498,-6.4826,
-24.4168,-135.7097,67.5705,133.4379,-115.7412,-56.2146,-65.2997,7.381,3.9749,10.7881,-3.9749,-7.382,106.7498,5.1102,
-9.4168,-121.5138,82.5705,138.5486,-100.7412,-43.1547,-60.189,15.8989,2.2713,18.1696,-13.6282,-14.7635,121.7498,17.0343,
3.4072,-124.9205,78.3597,123.5486,-85.7412,-44.2901,-75.189,7.9497,-7.9497,4.5425,-14.763,0.23647,127.1923,2.0343,
-2.2713,-123.7846,65.868,119.2431,-70.7412,-42.0183,-82.9011,5.6784,-11.3564,-5.6774,0.23701,15.2365,112.1923,3.4077,
-10.2205,-109.0216,63.5967,123.7851,-55.7412,-30.6624,-76.0879,11.3569,-5.6779,1.1354,-1.1354,2.2718,121.5144,18.4077,
-13.6271,-113.5641,57.9182,124.921,-57.9177,-31.7978,-68.1387,15.8989,2.2713,6.8138,-2.2713,-5.6784,136.5144,17.0343,
-18.1707,-126.0564,48.8321,123.7846,-63.5961,-37.4762,-78.3597,14.7635,-2.2713,2.2713,3.4066,-14.7635,130.5989,15.8989,
-27.2553,-119.2426,56.7818,121.5138,-61.3243,-22.4762,-82.9017,18.1707,1.1359,13.6282,-1.1359,-26.1199,115.5989,30.8989,
-42.0188,-122.6497,47.6967,107.8862,-62.4602,-20.4414,-89.716,15.8989,-3.4066,6.8138,-14.7635,-11.1199,106.7508,26.1194,
-30.6619,-127.1917,32.6967,105.6155,-47.4602,-13.6271,-95.3934,23.8486,-3.4066,2.2713,-2.2713,3.8801,104.479,28.3912,
-39.7475,-142.1917,21.5768,94.2586,-43.1547,-17.0343,-109.0216,13.6282,-6.8138,6.8138,-12.4917,18.8801,89.479,30.6619,
-53.3757,-144.2271,15.8989,82.9017,-35.2055,-6.8138,-124.0216,6.8138,-21.8138,11.3564,-27.4917,26.1193,96.5293,40.8823,
-48.8331,-139.684,0.8989,67.9017,-20.2055,8.1862,-139.0216,10.221,-23.8486,2.2713,-13.6282,41.1193,111.5293,43.1542,
-41.4511,-143.6594,-6.2461,56.2141,-15.3312,7.3815,-139.1163,13.0594,-8.8486,6.2461,-7.3815,56.1193,98.2324,31.2296,
-46.5613,-146.4984,-1.1359,53.3746,-9.0856,1.1359,-136.2774,11.3564,-17.0353,12.4917,-13.6282,67.0022,94.2586,23.8486,
-50.5367,-151.6086,-3.9754,48.2644,1.7036,-5.1108,-121.2774,10.7887,-13.0605,10.7887,-1.7036,75.5196,109.2586,36.9075,
-51.6721,-156.1511,-15.3318,47.1296,-9.6528,-8.5174,-122.0815,11.9246,1.9395,10.7881,-2.8395,60.5196,124.2586,34.6373,
-44.8577,-153.8793,-11.9246,57.35,-15.3307,-2.8395,-120.9456,23.2804,-1.703,16.4671,1.703,45.5196,139.2586,42.587,
-51.6716,-158.4219,-15.3307,55.0793,-18.7379,-1.703,-112.9964,16.4671,-16.703,6.2467,1.703,49.4003,144.7948,55.0793,
-53.3751,-149.905,-14.763,51.1044,-6.8144,9.0851,-113.5641,7.9497,-22.7127,4.5425,-4.5425,38.6122,158.9901,51.1044,
-48.2649,-148.2014,-9.6533,51.6716,-7.3815,11.924,-110.7252,17.6019,-16.4666,7.3815,-8.5179,28.9588,161.829,36.1044,
-44.2906,-147.6337,-2.2713,66.6716,-17.0353,9.0845,-96.5298,32.6019,-14.7635,2.2713,-5.6784,43.9588,156.7188,29.5265,
-43.1542,-140.8194,10.221,72.6812,-5.6784,5.6784,-98.8006,22.7133,-17.0343,-10.221,-14.7635,58.9588,171.4818,34.0691,
-38.0445,-131.1671,25.221,77.7915,-6.2461,2.839,-98.2334,22.1445,-5.1108,-2.839,-18.7384,47.129,157.2865,36.9086,
-49.4003,-137.9804,16.4666,84.6058,-21.2461,-12.161,-94.8257,27.8235,-2.839,2.839,-16.4666,32.129,142.2865,22.1456,
-45.426,-141.9553,3.4066,82.9017,-36.2461,-14.7635,-85.1735,31.7983,-7.9492,4.542,-3.4066,26.1194,127.2865,23.8486,
-34.0691,-134.0055,18.4066,81.7669,-21.2461,-3.4072,-93.1227,31.7978,-13.6276,3.4072,-5.6779,18.1702,139.6845,26.1199,
-42.0188,-128.3276,32.9342,87.4448,-34.0691,-3.4072,-107.8857,27.2553,-9.0851,3.4072,-20.6779,6.8144,124.6845,17.0348,
-47.129,-132.3025,21.0091,81.1986,-49.0691,-10.7887,-102.7754,19.8738,-3.9743,3.9743,-21.0091,21.8144,109.6845,19.8738,
-36.3403,-129.463,23.8481,72.6807,-34.0696,-3.4072,-102.2077,19.3055,-12.4923,3.4072,-6.0091,36.8144,124.6845,34.8738,
-36.3409,-129.463,29.5265,69.274,-27.2558,2.2713,-112.4287,19.3061,-15.8989,-2.2713,-15.8989,28.3912,130.5989,29.5265,
-32.3655,-117.539,19.8732,74.3848,-41.4506,7.382,-116.4036,17.6025,-10.7892,-7.382,-21.0097,35.7727,115.5989,23.2804,
-30.0948,-110.7252,13.0599,81.1981,-36.908,5.1102,-116.4036,19.8732,-15.3318,-5.1102,-17.6025,50.7727,109.5898,38.0434,
-30.0947,-125.4881,28.0599,90.2832,-21.908,-9.6528,-101.4036,34.8732,-7.382,7.382,-15.3307,39.1798,124.5898,41.4506,
-28.9588,-128.8953,25.5517,88.0119,-24.4163,-6.2461,-101.6401,30.0942,-6.2461,6.2461,-13.0594,24.1798,139.1163,35.7732,
-34.6368,-125.4881,10.5517,80.0633,-39.4163,-6.2461,-109.5892,15.0942,-7.3815,6.2461,-13.0594,39.1798,124.1163,30.0942,
-48.2649,-135.7097,14.1959,82.334,-54.4163,-21.2461,-106.1826,11.924,-6.2461,6.2461,-23.2809,42.5865,109.1163,15.0942,
-42.587,-131.1666,19.8732,89.1478,-39.4163,-26.6876,-108.4539,26.6876,-0.56768,0.56768,-8.5174,36.908,124.1163,22.145,
-44.2906,-130.5995,11.3564,78.3591,-40.8834,-11.6876,-115.8359,27.2547,-2.2713,-10.221,2.2713,51.908,136.2768,32.9326,
-49.4003,-127.7594,18.7384,83.4694,-55.8834,-0.56822,-114.1318,24.4163,0.56822,-1.7036,-10.7887,66.908,121.2768,40.3157,
-43.7224,-131.1666,21.0097,88.0124,-53.9434,-2.8395,-117.539,21.0097,-5.1102,2.8395,-14.1953,53.9428,119.8102,40.3152,
-35.7727,-133.4379,17.6025,83.4699,-38.9434,-1.703,-125.4881,22.145,-14.1953,-0.56768,0.56768,38.9428,108.4544,32.3666,
-30.0942,-127.76,15.3312,77.7914,-38.0439,3.9743,-125.4881,26.6881,-13.0594,-3.9743,-10.7887,23.9428,93.4544,26.6881,
-26.1193,-128.3271,12.4928,77.2238,-23.0439,1.1359,-119.242,22.7133,-14.7635,-1.1359,-25.7887,28.3912,103.3437,20.4414,
-17.0353,-124.921,17.0343,91.9868,-8.0439,-7.9503,-112.4287,23.8486,-9.0856,2.2713,-12.4928,13.3912,105.6144,11.3564,
-2.0353,-121.5133,26.1199,96.5298,6.9561,-9.0851,-110.1569,20.442,0,-7.9486,0,-1.6088,94.2591,12.4923,
12.9647,-120.9456,11.1199,81.5298,21.9561,5.1102,-125.1569,5.442,-15,-22.9486,-15,-16.6088,79.2591,-2.5077,
27.9647,-105.9456,9.6533,74.3843,36.9561,20.1102,-120.9461,16.4666,-30,-37.9486,-30,-9.6533,77.7914,-17.5077,
42.9647,-90.9456,24.6533,76.0884,51.9561,35.1102,-105.9461,24.984,-30.6619,-39.747,-42.0188,-24.6533,62.7914,-24.984,
57.9647,-75.9456,14.7635,61.0884,66.9561,50.1102,-120.9461,11.3564,-45.6619,-54.747,-57.0188,-39.6533,47.7914,-37.4762,
72.9647,-60.9456,-0.23647,46.0884,81.9561,65.1102,-132.3025,9.6528,-60.6619,-69.747,-72.0188,-53.9428,32.7914,-49.4003,
87.9647,-45.9456,-2.2713,32.9337,96.9561,80.1102,-117.3025,12.4917,-75.6619,-84.747,-87.0188,-68.9428,17.7914,-64.4003,
102.9647,-30.9456,12.7287,44.8577,111.9561,95.1102,-102.3025,16.4671,-90.6619,-95.9616,-102.0188,-83.9428,2.7914,-76.6555,
117.9647,-15.9456,4.5425,44.2901,126.9561,110.1102,-87.3025,24.9834,-95.3945,-88.5807,-117.0188,-98.9428,-4.5425,-67.0028,
132.9647,-0.9456,-10.4575,29.2901,141.9561,125.1102,-91.9878,24.984,-96.5304,-88.5807,-121.5144,-105.6155,10.4575,-67.0033,
147.9647,14.0544,-3.4072,15.8994,156.9561,140.1102,-101.0724,24.9845,-103.3431,-101.0724,-126.0558,-95.3945,3.4072,-74.9525,
162.9647,29.0544,11.5928,30.8994,171.9561,155.1102,-86.0724,36.3409,-88.3431,-86.3089,-121.5133,-84.037,-11.5928,-59.9525,
177.9647,44.0544,11.924,33.5014,186.9561,170.1102,-75.5196,34.6368,-82.334,-88.0119,-136.5133,-97.0975,-11.924,-51.6716,
192.9647,59.0544,-1.1359,18.5014,201.9561,185.1102,-90.5196,26.1204,-97.334,-103.0119,-147.6332,-109.0216,1.1359,-66.6716,
207.9647,74.0544,13.8641,18.1707,216.9561,200.1102,-98.8011,24.984,-105.6144,-101.0718,-132.6332,-113.5641,-13.8641,-74.952,
222.9647,89.0544,13.0599,18.7379,231.9561,215.1102,-97.0975,21.0097,-100.5047,-94.8257,-123.2174,-124.3528,-13.0599,-59.952,
237.9647,90.8514,1.1359,3.7379,246.9561,230.1102,-106.7508,21.5768,-106.7508,-98.8011,-118.1066,-109.3528,1.9401,-44.952,
252.9647,78.3586,1.1354,1.1354,261.9561,245.1102,-115.8354,28.3906,-102.2078,-98.8017,-110.1575,-94.3528,-1.1354,-34.0696,
267.9647,69.8417,9.6533,15.3312,276.9561,260.1102,-110.7246,34.6368,-88.0119,-89.1483,-114.1323,-79.3528,-9.6533,-31.2307,
282.9647,67.5705,13.0599,19.8732,291.9561,275.1102,-105.0472,30.0948,-93.6903,-93.6903,-129.1323,-64.3528,-13.0599,-16.2307,
297.9647,57.3505,8.5179,7.3815,306.9561,290.1102,-107.3185,24.4163,-101.6395,-101.6395,-126.6241,-63.0285,-28.0599,-7.3815,
282.9647,52.2398,21.5773,9.0851,321.9561,305.1102,-92.3185,35.205,-86.6395,-86.6395,-111.6241,-48.0285,-30.6624,-9.0851,
267.9647,37.2398,6.5773,1.7036,336.9561,290.1102,-95.9616,20.205,-84.6058,-89.1483,-103.9113,-63.0285,-15.6624,-24.0851,
252.9647,22.2398,-1.1359,16.7036,351.9561,275.1102,-90.8514,10.221,-69.6058,-79.4956,-88.9113,-67.0033,-0.66243,-9.0856,
237.9647,7.2398,-1.703,15.3307,342.3959,260.1102,-86.8771,1.703,-54.6058,-64.4956,-73.9113,-52.0033,14.3376,2.8395,
222.9647,-7.7602,-2.2713,18.1696,327.3959,245.1102,-87.4453,2.2713,-44.2906,-49.4956,-59.0536,-37.0033,29.3376,10.2199,
207.9647,-22.7602,-3.4072,21.5773,312.3959,230.1102,-79.495,5.6779,-38.6122,-43.1547,-44.2901,-43.1547,44.3376,3.4072,
192.9647,-37.7602,5.1108,26.6881,297.3959,215.1102,-76.6561,6.2461,-31.2296,-28.9588,-30.0942,-28.1547,59.3376,-5.1108,
177.9647,-52.7602,-0.56768,19.8732,282.3959,200.1102,-84.6058,0.56768,-33.5019,-25.5522,-27.8229,-13.1547,74.3376,5.1102,
162.9647,-67.7602,6.8144,34.8732,267.3959,185.1102,-69.6058,15.5677,-18.5019,-14.763,-12.8229,-21.5773,89.3376,20.1102,
147.9647,-82.7602,10.7881,43.7224,252.3959,170.1102,-78.9274,22.145,-3.5019,-0.56768,-2.8395,-6.5773,103.9108,35.1102,
132.9647,-97.7602,5.1108,30.0942,237.3959,155.1102,-93.6903,17.603,-5.1108,5.1108,-6.2461,8.4227,88.9108,50.1102,
117.9647,-112.7602,1.7036,32.366,222.3959,140.1102,-98.2334,15.3312,-11.924,-1.7036,2.839,23.4227,73.9108,52.8069,
102.9647,-127.7602,1.1354,40.8829,207.3959,125.1102,-96.5298,6.8133,-3.4072,-1.1354,10.2205,32.9332,70.41,37.8069,
87.9647,-139.684,-7.9492,30.6619,192.3959,110.1102,-102.2078,-1.1359,7.9492,1.1359,11.3564,47.9332,85.41,30.6619,
72.9647,-135.7097,-22.9492,16.4666,177.3959,95.1102,-107.3185,2.839,1.7036,-1.7036,15.3312,62.9332,100.41,45.6619,
57.9647,-137.9804,-24.4163,14.1959,162.3959,80.1102,-99.3688,13.0605,-3.9743,3.9743,19.8738,59.6213,112.9964,60.6619,
42.9647,-140.2517,-27.8235,9.6533,147.3959,65.1102,-107.318,5.1108,-5.1108,5.1108,10.7887,44.6213,97.9964,45.6619,
27.9647,-134.5738,-30.0947,9.6528,132.3959,50.1102,-116.4031,-1.703,9.8892,1.703,14.1953,59.6213,82.9964,50.5367,
12.9647,-144.7942,-24.4163,18.7384,117.3959,35.1102,-106.1826,5.1108,8.5169,-5.1108,13.0594,74.6213,92.5544,61.8931,
-2.0353,-140.8199,-26.1199,26.1199,102.3959,20.1102,-96.5298,11.3558,-4.5425,4.5425,12.4923,82.9022,84.0376,57.9177,
-17.0353,-141.9553,-29.5265,12.4917,87.3959,5.1102,-107.8862,-1.1359,1.1359,4.542,11.3564,67.9022,71.5459,42.9177,
-32.0353,-143.6589,-15.3307,16.4671,72.3959,-9.8898,-110.7252,2.8395,14.1953,-2.8395,19.8743,70.9776,85.7406,40.3152,
-47.0353,-152.7434,-17.6019,21.0102,57.3959,-24.8898,-107.318,7.3815,9.6533,-7.3815,17.603,85.9776,92.5555,53.9434,
-62.0353,-155.5829,-29.5265,11.3564,42.3959,-39.8898,-107.8857,-2.2713,6.8138,2.2713,12.4928,70.9776,77.5555,49.9685,
-77.0353,-145.9301,-33.5008,10.7892,27.3959,-54.8898,-114.1318,-6.2456,10.7892,6.2456,13.0599,55.9776,76.6555,34.9685,
-92.0353,-149.3373,-30.0942,16.4666,12.3959,-69.8898,-109.5898,-2.839,8.5169,2.839,13.0594,69.8417,84.6047,40.3147,
-107.0353,-155.5834,-29.5271,14.763,-2.6041,-84.8898,-111.2934,0,0,2.2707,7.9497,74.9525,69.6047,48.8326,
-122.0353,-144.7942,-32.366,21.0091,-17.6041,-80.0622,-109.5892,7.3815,-1.7036,1.7036,2.839,59.9525,66.4356,49.4008,
-137.0353,-139.6845,-31.7978,36.0091,-32.6041,-82.9022,-98.8011,5.6779,4.5425,0,0,45.4254,81.4356,54.5105,
-152.0353,-145.3624,-27.2553,45.4254,-47.6041,-79.495,-104.4796,6.8133,3.4072,-3.4072,4.5425,60.4254,84.0376,56.7823,
-167.0353,-144.2265,-22.7122,37.4762,-62.6041,-73.8166,-97.6652,15.8989,2.2713,-2.2713,17.0353,70.4105,89.716,54.5111,
-177.1602,-135.1415,-27.2553,35.205,-77.6041,-82.9022,-82.6652,18.1702,5.6779,-5.6779,17.0348,64.732,104.716,55.647,
-168.6428,-135.7091,-30.0942,47.129,-92.6041,-97.9022,-67.6652,9.6533,3.9743,-3.9743,16.4666,49.732,95.9616,45.9937,
-179.4315,-150.7091,-21.5768,43.1542,-107.6041,-112.9022,-56.7818,2.2713,-1.1359,1.1359,15.8989,34.732,80.9616,30.9937,
-164.4315,-141.3876,-11.924,47.129,-122.6041,-127.76,-58.4859,10.7887,1.7036,-1.7036,11.924,49.732,75.5207,32.366,
-149.4315,-126.3876,-6.2461,57.3505,-137.6041,-112.76,-43.4859,19.8738,2.839,-2.839,22.1456,64.732,77.7915,43.7229,
-152.1763,-128.3276,0,64.732,-152.6041,-107.8862,-31.7978,17.0348,-3.4072,0,20.442,49.732,62.7915,43.1547,
-152.7439,-139.1158,-6.2456,68.7069,-167.6041,-109.5892,-45.9931,16.4671,0.56768,-0.56768,5.442,34.732,47.7915,51.6721,
-146.4978,-136.2768,-7.9492,71.5459,-171.4818,-111.2928,-34.0691,19.3061,11.3564,-2.2713,2.2713,49.732,62.7915,55.6464,
-149.905,-136.2774,-5.6784,76.0884,-186.4818,-118.1072,-23.8486,14.7635,1.1359,-1.1359,1.1359,34.732,51.1039,40.8834,
-140.8194,-131.7343,2.2718,74.9525,-198.7376,-110.1575,-31.7978,21.5773,0,4.5425,-3.4072,19.732,37.4768,32.9342,
-139.684,-135.1415,1.1359,67.0022,-183.7376,-107.8862,-32.9337,21.5768,4.542,-1.1359,-6.8138,34.0691,52.4768,34.0691,
-149.3373,-142.5235,-1.7041,66.4351,-168.7376,-106.1832,-22.145,13.0599,0.56768,0.56768,-0.56768,49.0691,44.8577,49.0691,
-161.2613,-154.4475,-1.1354,60.1895,-183.7376,-112.4287,-15.8994,9.0851,1.1354,5.6779,2.2718,48.8326,29.8577,52.2398,
-162.9649,-155.0152,-10.7881,55.0782,-176.5926,-115.2677,-30.8994,3.9749,5.1102,1.703,0.56768,35.7727,14.8577,37.2398,
-162.3962,-156.7183,-23.8475,46.5613,-161.5926,-105.6144,-45.8994,-2.2713,9.0856,2.2713,6.8149,50.7727,21.5779,26.1204,
-162.9644,-161.829,-22.1445,41.4511,-152.7439,-102.7754,-38.0439,-1.7036,9.6533,1.7036,10.7887,57.3505,6.5779,41.1204,
-149.3373,-150.4727,-7.1445,56.4511,-159.5578,-109.5898,-25.5517,13.0594,8.5169,6.2461,7.3815,42.3505,-8.4221,53.9434,
-138.5481,-140.8199,2.2713,71.4511,-149.905,-106.7503,-21.5768,15.8989,19.3061,14.7635,10.221,27.3505,-2.2713,48.8331,
-135.7091,-140.2517,-8.5169,57.3495,-137.9804,-91.7503,-33.5014,1.7036,13.0594,-0.23646,6.2461,19.8738,2.839,33.8331,
-124.921,-130.5989,-3.4072,60.1884,-122.9804,-76.7503,-24.9845,11.3558,3.4072,-12.4923,14.763,34.8738,4.5425,44.2901,
-126.0569,-130.5995,4.5425,65.8663,-119.2431,-76.0884,-11.3569,20.4409,7.9486,-4.5425,10.2205,43.1536,-7.9497,52.2387,
-131.7348,-139.684,3.4066,55.6464,-128.3276,-86.3089,-26.3569,7.9492,5.6784,2.2713,-2.2713,28.1536,-10.221,42.0188,
-133.4379,-145.9301,0.56768,43.7224,-126.6241,-84.6053,-36.908,-0.56768,7.382,-8.5174,1.703,40.3152,4.779,40.3152,
-130.0312,-135.7091,-6.2456,44.8577,-116.4036,-81.1986,-28.9594,7.382,11.9246,-5.1102,5.1102,25.3152,8.5174,39.1798,
-122.0815,-128.8953,-5.1102,49.4003,-102.7754,-78.9274,-17.6025,11.9246,9.6528,9.8898,7.382,10.3152,5.1102,38.0445,
-128.8953,-142.523,-7.381,49.4003,-116.4031,-82.334,-22.145,5.1102,0.56768,13.0599,10.7892,25.3152,-0.56768,39.1798,
-126.6241,-133.4379,-8.5174,58.4854,-119.8102,-76.6555,-31.2301,11.9246,13.0599,8.5174,16.4671,40.3152,-15.5677,43.7224,
-116.9707,-120.3779,-11.3564,55.6464,-104.8102,-72.6812,-24.984,12.4917,23.8486,11.3564,17.0353,48.8331,-30.5677,38.6116,
-111.8605,-117.539,-8.5174,55.0782,-95.9616,-72.1135,-19.8732,9.6528,10.7881,8.5174,16.4671,33.8331,-45.5677,44.8577,
-117.5395,-128.8959,-1.7036,61.892,-106.1832,-82.3345,-18.7384,17.6019,8.5169,1.7036,8.5169,36.9086,-39.1804,42.5865,
-123.2174,-136.845,0.56768,66.4351,-107.3185,-97.3345,-13.0599,23.2804,17.6025,0.56768,-0.56768,41.4506,-54.1804,27.8229,
-112.4293,-126.0569,-4.5425,71.5453,-96.5298,-82.3345,-14.7641,22.7127,13.6276,13.6276,4.5425,32.9332,-69.1804,39.7475,
-110.1575,-124.921,-5.6779,60.1884,-95.3939,-67.3345,-15.8994,18.1702,10.2205,17.0348,5.6779,18.1702,-54.1804,49.968,
-124.921,-132.8702,1.1354,56.7823,-97.6652,-77.2238,-13.6276,15.8984,7.9497,3.4072,-1.1354,28.3906,-57.9177,34.968,
-128.8953,-126.6241,16.1354,71.7823,-93.6909,-78.9274,-10.7887,24.4163,15.3312,-2.839,2.839,43.3906,-72.9177,35.7721,
-128.3276,-137.4127,15.8989,71.5448,-99.937,-90.8514,-19.3061,14.7635,11.3564,1.1359,-1.1359,28.3906,-87.9177,38.6116,
-136.2774,-139.684,2.2713,60.189,-99.9365,-101.0724,-29.5265,7.9492,1.1359,2.2713,-1.1359,13.3906,-102.9177,23.6116,
-140.2517,-124.684,-0.56768,67.5705,-97.097,-86.0724,-18.7379,22.145,7.382,0.56768,13.8641,28.3906,-87.9177,28.9594,
-143.0917,-124.921,2.2713,64.7315,-99.937,-86.3094,-18.1707,18.1696,7.9492,-2.2713,5.6774,13.3906,-91.9873,36.3398,
-128.0917,-109.921,17.2713,78.9268,-84.937,-77.7914,-3.9743,26.6881,21.0091,12.7287,3.9743,-1.6094,-97.0975,32.366,
-131.1671,-120.9461,15.3312,70.9771,-92.555,-82.3345,-2.839,28.9588,19.8738,15.3312,2.839,-6.2461,-105.0472,17.366,
-134.0055,-129.463,0.33122,68.1392,-90.8514,-82.9017,-5.6779,27.2553,17.0348,0.33122,3.4072,7.9497,-95.3939,28.3917,
-119.0055,-124.3528,-1.7036,67.571,-75.8514,-72.113,-2.839,22.1456,7.3815,1.7036,1.7036,22.9497,-80.3939,43.3917,
-105.0472,-112.997,3.9749,70.9776,-60.8514,-57.113,-2.8395,25.5511,0.56768,10.7881,-0.56768,28.9583,-65.3939,35.7727,
-112.4287,-105.6149,3.4072,65.8674,-68.1387,-52.2398,-15.8994,19.3055,1.1354,1.1354,-1.1354,13.9583,-62.4608,27.2553,
-111.8611,-115.2682,7.3815,60.7566,-72.1135,-66.4356,-17.603,6.2461,2.839,-2.839,5.1097,3.9743,-52.808,33.5014,
-105.0472,-107.3185,22.3815,75.7566,-57.1135,-57.3505,-11.924,18.7373,-2.839,2.839,7.3815,18.9743,-37.808,38.0439,
-111.8605,-98.2329,15.3312,70.9782,-43.7218,-42.3505,-15.3312,25.5528,-1.7036,1.7036,6.2461,8.5179,-22.808,33.5014,
-111.2923,-101.0718,0.33122,56.7823,-58.7218,-36.3403,-13.6276,20.442,12.4923,4.5425,12.4923,5.679,-17.0337,38.6122,
-109.5898,-102.7754,-2.8395,60.7572,-73.7218,-45.9931,-16.4671,26.6876,2.8395,6.2456,10.7881,20.679,-32.0337,47.1296,
-111.8605,-102.7754,12.1605,61.8931,-70.9776,-43.7218,-11.924,34.6378,1.7036,-1.7036,8.5179,24.4163,-39.1793,39.1804,
-96.8605,-94.8263,7.381,53.9428,-55.9776,-32.3655,-5.1102,27.8229,5.1102,-16.7036,5.1102,9.4163,-24.1793,31.2301,
-81.8605,-79.8263,1.1359,53.3757,-40.9776,-23.8486,-1.1359,22.7133,-9.8898,-20.4414,1.1359,24.4163,-9.1793,35.2055,
-66.8605,-65.2997,9.6528,52.8075,-25.9776,-15.3307,-0.56768,26.6876,-24.8898,-10.7881,0.56768,24.4168,-14.1953,32.3655,
-51.8605,-71.5453,0,44.2901,-10.9776,-9.0851,-6.8133,26.1199,-29.526,-15.8984,0,10.2215,0.80469,27.2553,
-60.189,-79.4945,-1.1359,42.0188,4.0224,-19.3061,1.1359,21.5768,-22.7133,-18.1707,3.4066,-4.5431,15.8047,26.1194,
-59.0536,-74.952,2.2713,44.2895,13.6282,-32.9337,-2.2713,9.0856,-31.7983,-22.7133,3.4066,-15.8989,7.9492,18.1707,
-53.9428,-64.1644,2.8395,44.8577,18.7379,-17.9337,-2.8395,10.7881,-33.5019,-19.8743,8.5174,-0.8989,-2.8395,27.8229,
-68.1381,-74.9525,3.4072,39.7475,14.763,-11.3569,3.4072,12.4923,-29.5271,-13.6276,-3.4072,14.1011,-7.9497,34.0696,
-77.2232,-84.0376,1.1354,42.0182,5.6779,-18.1702,0,5.6779,-28.3906,-7.9497,-14.763,12.4923,0,34.0696,
-72.1125,-82.334,1.7036,41.4511,3.9754,-23.2799,5.1108,7.3815,-24.4163,-7.3815,-1.7036,-2.5077,15,32.366,
-76.6555,-81.1981,0.56768,33.5008,-3.9749,-27.8229,0.56768,6.2456,-27.8229,-18.7379,8.5174,-0.56768,15.3307,23.2804,
-72.6812,-73.8177,-2.2713,31.7973,6.8138,-21.5779,-4.5431,3.4066,-35.2055,-15.9,2.2713,12.4917,9.0845,20.4414,
-59.6213,-61.892,0.56822,45.9937,15.3312,-16.4666,9.6533,11.924,-27.8235,-1.7036,-0.56822,-2.5083,16.4666,28.9588,
-58.4854,-61.8925,0.56768,57.35,0.33122,-17.6025,23.2804,19.8732,-18.7379,6.2456,-2.8395,-17.5083,11.9235,26.6876,
-72.113,-76.6555,1.7041,47.1296,-14.6688,-22.145,21.0097,15.3318,-21.0086,-0.56768,-7.381,-2.5083,0.56768,16.4671,
-69.8412,-70.9776,16.7041,43.7224,-8.5174,-26.6876,17.6025,14.1964,-21.0086,-10.7881,-9.6528,12.4917,8.5174,13.0599,
-56.2141,-63.0274,21.0102,49.4008,2.839,-23.2799,11.924,18.7384,-23.2799,-16.4666,-9.6522,2.839,-2.839,18.7384,
-47.129,-65.2992,6.2461,47.129,0.56822,-14.1959,18.7384,23.2809,-27.8235,-13.0594,-0.56822,2.839,-17.6019,28.9588,
-36.3403,-59.0531,18.1702,46.5619,0,-12.4923,18.1702,15.8994,-34.0696,-14.763,0,15.8994,-3.4072,23.8481,
-42.5859,-59.6207,28.9594,41.4516,0.56768,-25.5522,9.6528,0.89944,-41.4506,-29.763,-15,3.9749,5.1102,8.8481,
-43.1542,-59.0536,23.8486,52.2392,7.9492,-19.3061,23.8486,11.3564,-29.5265,-21.5768,-7.9492,-11.0251,14.7635,21.5768,
-40.3152,-61.8925,8.8486,47.1296,1.703,-10.7881,11.9246,21.0097,-30.0947,-8.5174,-1.703,-17.6025,25.5522,30.0948,
-47.6972,-68.1392,3.4072,32.1296,-11.3569,-19.3066,5.6779,7.9497,-35.205,-21.5773,-3.4072,-2.6025,11.3558,19.3055,
-49.968,-61.3249,9.0851,34.0696,-4.5425,-13.6276,20.6779,6.8144,-30.6624,-23.8481,4.5425,12.3975,-3.6442,24.9845,
-51.6716,-61.8931,-5.9149,26.687,7.3815,-5.1108,9.6522,2.839,-39.1804,-17.603,-2.839,7.3815,11.3558,34.6368,
-44.8572,-52.8069,-15.3312,19.8738,22.3815,-1.7036,1.7036,6.2461,-38.0439,-6.2461,-9.6522,6.2461,26.3558,36.9086,
-53.9434,-50.5362,-11.924,30.0942,30.0942,-6.2461,10.7887,7.3815,-26.6881,-14.1959,-8.5179,6.2461,21.0091,31.2296,
-56.7823,-52.2392,3.076,45.0942,15.0942,-10.221,25.7887,12.4917,-11.6881,-7.9492,6.4821,-8.7539,6.0091,37.4762,
-58.4859,-50.5362,7.3815,48.2644,0.56822,-21.0091,10.7887,8.5169,-13.0594,-0.56822,6.2461,-23.7539,-8.9909,27.8235,
-48.8331,-37.4762,-7.6185,40.8823,15.5682,-6.0091,2.2713,12.4917,-27.2558,3.4066,4.542,-37.4762,-23.9909,22.7122,
-45.4254,-45.4254,-22.6185,37.4768,30.5682,8.9909,4.5425,10.2215,-32.9332,-11.3558,-4.5425,-22.4762,-38.9909,21.5773,
-38.0445,-35.7727,-24.4168,45.9931,15.5682,5.1102,3.9749,23.2804,-28.9594,-17.6025,-3.9749,-7.4762,-53.9909,30.0948,
-33.5014,-23.2809,-9.6533,56.2141,23.2809,7.3815,15.3312,34.6368,-13.9594,-7.3815,7.3815,-21.0091,-68.9909,45.0948,
-36.9086,-22.1456,-2.839,69.8417,34.6368,19.8738,19.8738,32.366,-13.0605,-1.7036,1.7036,-26.6881,-83.9909,41.4511,
-36.9086,-19.8738,-3.9743,77.7914,27.8235,18.7384,21.0091,32.366,-15.3312,-0.56822,0.56822,-11.6881,-98.9909,32.366,
-47.129,-19.8738,-3.9743,69.8428,12.8235,3.7384,23.2809,30.0953,-10.7887,-2.839,3.9754,-6.2461,-113.9909,44.8583,
-50.5362,-17.603,7.3815,83.4694,3.9743,1.7036,24.4163,38.0439,-13.0605,-2.839,-1.7036,-3.9743,-128.9909,53.9434,
-53.9434,-27.8235,5.1108,92.5544,2.839,-6.2461,21.0091,45.9937,-21.0091,-0.56822,-10.7887,0.56822,-143.9909,38.9434,
-44.2906,-28.3912,-5.6784,90.8514,17.839,1.1359,21.5768,42.0188,-19.3061,-1.1359,-6.8138,3.4066,-158.9909,23.9434,
-40.3152,-31.2301,-13.0599,78.9274,32.839,10.7892,11.9246,27.824,-23.2804,-8.5174,-14.1953,8.5174,-173.9909,30.0948,
-44.8577,-38.0445,-5.1102,78.9274,31.2301,3.9749,25.5522,35.7727,-22.145,-3.9749,-15.3318,11.9246,-188.9909,28.9583,
-47.129,-42.5865,-6.2461,86.8765,22.1456,-3.9743,40.5522,48.2655,-16.4666,2.839,-2.839,13.0605,-203.9909,39.1804,
-56.2141,-52.8069,-14.1959,81.1986,7.1456,-13.0594,42.5865,38.0439,-9.6533,-0.56822,0.56822,13.0594,-218.9909,40.3157,
-61.3249,-44.2895,-2.2713,89.716,-6.8138,-20.4414,54.5111,37.4762,-1.1359,1.1359,1.1359,15.8989,-233.9909,31.7983,
-66.4351,-36.9086,3.9743,84.6058,1.7036,-19.8738,59.6213,35.7732,-14.1959,-8.5169,-1.7036,13.0594,-235.6456,28.9588,
-55.0782,-38.0445,1.703,72.113,16.7036,-14.1953,64.1644,33.5019,-18.7379,-8.5174,-1.703,8.5174,-220.6456,30.0948,
-40.0782,-31.7978,0,84.0376,31.7036,-9.0851,74.9525,40.8829,-13.6276,-9.0851,0,14.763,-205.6456,29.5271,
-45.4254,-37.4757,-10.2205,73.8171,46.7036,-3.4072,84.0376,31.7978,-28.6276,-22.7127,3.4072,15.8994,-190.6456,29.5271,
-50.5367,-41.4516,-13.0599,58.8171,61.7036,-8.5174,90.2832,26.6876,-34.6373,-15.3318,8.5174,19.8732,-175.6456,28.9583,
-43.1547,-38.6122,-10.2204,52.2398,76.7036,-11.3569,88.5801,30.6624,-23.8481,-5.6779,5.6779,31.7978,-160.6456,30.6624,
-44.2901,-51.1033,-25.2204,37.2398,90.8519,3.6431,74.9525,15.8994,-38.8481,-20.6779,-9.0851,17.0348,-145.6456,18.1702,
-43.1542,-49.9685,-40.2204,22.2398,101.0718,18.6431,71.5459,5.6784,-53.8481,-35.6779,-19.3061,21.5768,-130.6456,10.221,
-33.5014,-40.3157,-55.2204,7.2398,107.3185,33.6431,78.9268,9.6533,-65.2992,-50.6779,-10.7887,36.5768,-115.6456,22.1445,
-24.4163,-41.4511,-70.2204,-7.7602,106.1832,48.6431,63.9268,1.7036,-70.9771,-59.6213,-1.7036,51.5768,-100.6456,33.5014,
-9.4163,-26.4511,-78.9279,-22.7602,121.1832,63.6431,50.5362,-2.839,-85.9771,-69.8428,2.839,66.5768,-85.6456,48.5014,
-4.5431,-11.4511,-79.4956,-37.7602,136.1832,78.6431,65.5362,2.2713,-81.7663,-65.8679,-2.2713,81.5768,-70.6456,63.5014,
-9.0851,-10.2204,-77.2232,-52.7602,151.1832,93.6431,68.1381,5.6779,-77.2232,-67.0028,-5.6779,96.5768,-55.6456,71.5453,
-9.6522,-25.2204,-92.2232,-67.7602,166.1832,108.6431,53.1381,-1.7036,-92.2232,-82.0028,1.7036,111.5768,-40.6456,66.4356,
-7.382,-25.5522,-107.2232,-82.7602,181.1832,123.6431,58.4854,-7.382,-105.0472,-88.0124,7.382,126.5768,-25.6456,59.6207,
-2.2713,-12.4928,-106.7508,-97.7602,196.1832,138.6431,72.6801,-11.3564,-98.8011,-86.3089,2.2713,141.5768,-10.6456,59.0525,
-1.7036,-9.6522,-105.0467,-112.7602,211.1832,153.6431,77.7914,-13.0594,-110.7246,-97.097,1.7036,156.5768,4.3544,74.0525,
-8.5169,-8.5169,-107.3185,-127.7602,226.1832,168.6431,76.6561,-18.7384,-125.7246,-112.097,8.5169,171.5768,19.3544,82.334,
-15.8984,-12.4923,-114.7,-140.8199,241.1832,183.6431,87.4448,-28.3906,-120.3779,-127.097,12.4923,186.5768,34.3544,67.334,
-18.7384,-15.3312,-129.7,-139.1163,256.1832,198.6431,102.4448,-34.6368,-128.8959,-135.7091,15.3312,189.0843,49.3544,65.2992,
-20.442,-13.6276,-143.0917,-153.3122,271.1832,213.6431,97.6652,-37.4768,-143.8959,-144.2271,13.6276,204.0843,64.3544,80.2992,
-17.0348,-21.5773,-140.8199,-158.9901,286.1832,228.6431,98.8006,-35.205,-151.0404,-147.6343,17.0348,219.0843,79.3544,85.1729,
-17.6025,-32.3666,-155.8199,-164.1003,301.1832,243.6431,101.6401,-43.7224,-158.4224,-153.8798,17.6025,216.3401,94.3544,77.7909,
-15.8989,-17.3666,-163.5321,-179.1003,316.1832,258.6431,115.8359,-45.426,-168.0746,-157.8542,14.7635,231.3401,109.3544,92.7909,
-22.145,-8.5174,-161.8285,-194.1003,331.1832,273.6431,130.8359,-43.7213,-159.5578,-167.5064,8.5174,246.3401,124.3544,105.0472,
-30.0948,-11.9246,-174.3208,-192.492,346.1832,288.6431,133.4379,-44.8577,-165.2357,-179.9997,11.9246,251.5451,139.3544,90.0472,
-26.687,-15.3312,-179.9992,-202.7119,361.1832,303.6431,136.8456,-49.3997,-178.8638,-191.355,15.3312,236.5451,154.3544,75.5207,
-11.687,-9.6533,-176.592,-215.2042,376.1832,318.6431,149.3368,-49.4008,-191.3561,-193.6268,5.1108,243.5959,169.3544,82.334,
0,-2.2707,-187.3807,-218.0431,391.1832,328.2006,153.3122,-51.1033,-206.3561,-196.4658,0,258.5959,184.3544,81.7669,
-15,-1.7036,-202.3807,-212.9324,406.1832,320.8191,156.1511,-51.6716,-202.7119,-207.2545,1.7036,248.1384,184.5417,70.9782,
-26.6876,0.56768,-211.7975,-208.3904,421.1832,325.3611,164.1003,-39.1798,-190.2202,-210.6622,-0.56768,239.0528,190.2202,70.9776,
-27.8229,-8.5174,-208.3904,-219.7462,436.1832,323.0904,179.1003,-28.9583,-187.9484,-207.255,8.5174,254.0528,181.1351,80.0627,
-34.0696,-13.6276,-196.4669,-223.7221,451.1832,308.0904,188.5161,-29.5271,-193.0597,-211.2299,13.6276,269.0528,170.3459,78.3586,
-32.3655,-7.382,-204.9832,-222.018,466.1832,293.0904,187.9495,-25.5522,-198.1699,-224.2898,7.382,273.1224,181.1351,78.9274,
-26.6876,-13.0599,-218.6119,-237.018,481.1832,298.1059,195.8981,-17.6025,-199.3053,-232.2395,13.0599,284.4782,193.6263,85.7406,
-26.6881,-21.0091,-217.476,-252.018,496.1832,300.3771,191.3561,-16.4666,-209.5263,-235.6462,16.4666,299.4782,194.7622,86.8765,
-27.2558,-19.3061,-222.5862,-267.018,511.1832,295.2669,187.3812,-10.221,-223.7216,-237.3492,10.221,314.4782,190.7873,81.7663,
-30.0948,-4.3061,-237.5862,-266.3081,526.1832,284.4782,199.3053,-3.9749,-232.2384,-244.7307,3.9749,316.2771,185.6776,68.7069,
-30.6624,4.5425,-248.7056,-268.0111,541.1832,277.0973,214.3053,-4.5425,-237.3487,-249.8409,-7.9497,306.6233,179.4321,59.0531,
-31.2301,0.56768,-237.9174,-281.071,556.1832,273.1224,229.3053,-0.56768,-240.1882,-252.6804,-14.1953,295.8351,177.7279,61.8925,
-44.2895,-2.2713,-243.0271,-291.8597,571.1832,258.1224,230.5359,2.2713,-252.1122,-267.6804,-18.1696,288.4536,183.9741,48.8331,
-51.1039,-6.8138,-258.0271,-297.5376,586.1832,243.1224,245.2989,6.8138,-253.2476,-282.6804,-22.7122,274.826,171.4818,36.3409,
-56.7823,-12.4923,-273.0271,-297.5382,601.1832,228.1224,260.2989,12.4923,-256.6553,-282.7752,-37.7122,259.826,156.4818,39.7475,
-63.029,-13.0599,-288.0271,-301.513,616.1832,213.1224,267.4434,13.0599,-269.7152,-296.9705,-47.1296,244.826,144.7937,33.5008,
-68.1381,-15.8994,-288.4531,-314.573,631.1832,198.1224,271.4183,15.8994,-270.2829,-306.6233,-46.5608,241.8923,139.6845,20.442,
-80.6304,-18.1702,-291.8603,-321.3862,646.1832,183.1224,278.2326,28.3917,-277.0962,-303.2161,-54.5105,236.2133,124.6845,18.1702,
-83.4694,-16.4666,-293.5628,-329.9042,661.1832,179.9992,282.207,33.5014,-292.0962,-311.734,-57.3495,226.5611,109.6845,16.4666,
-68.4694,-13.6282,-286.1818,-340.6923,676.1832,164.9992,295.2669,26.1194,-287.3172,-322.5222,-54.5111,213.5011,124.6845,13.6282,
-55.6464,-6.8138,-280.5028,-331.6072,691.1832,149.9992,310.2669,34.0702,-279.3675,-327.0647,-52.2392,208.9586,139.6845,6.8138,
-59.6207,-3.9749,-269.7152,-318.5478,706.1832,134.9992,325.2669,49.0702,-276.5285,-325.3611,-40.3152,203.8478,152.7445,3.9749,
-57.3495,-2.839,-265.1721,-326.497,721.1832,119.9992,340.2669,56.2141,-282.207,-325.3616,-36.9086,197.034,144.7942,2.839,
-57.35,-5.1102,-274.2578,-335.5816,736.1832,104.9992,345.8031,66.4351,-275.3931,-327.6329,-43.7224,200.4417,141.3876,5.1102,
-61.8925,-1.703,-276.5285,-329.9036,751.1832,101.6401,360.8031,81.4351,-266.3081,-328.7683,-42.587,194.7627,135.7097,1.703,
-58.4859,6.2461,-284.4788,-324.2263,766.1832,94.8263,373.0589,85.7412,-275.3937,-332.176,-44.8583,179.9992,120.7097,-6.2461,
-60.7566,8.5169,-277.6644,-316.2766,781.1832,79.8263,388.0589,98.2334,-266.3086,-323.0898,-41.4511,178.8638,116.4036,-8.5169,
-65.8674,11.3569,-262.6644,-301.2766,796.1832,69.2746,400.8824,113.2334,-254.3835,-315.7083,-36.3403,185.11,120.3779,-11.3569,
-63.0285,10.7887,-253.8163,-307.1915,811.1832,64.1638,402.5849,123.2169,-264.0368,-323.0898,-41.4511,186.8136,112.9964,-10.7887,
-59.0531,10.2205,-268.8163,-319.1155,826.1832,61.3249,409.9664,122.6497,-266.8757,-319.1155,-46.5619,191.9232,110.1575,-10.2205,
-63.5961,15.8989,-269.1481,-310.031,841.1832,62.4597,416.7802,137.6497,-263.4691,-313.4381,-47.6978,197.6017,120.3774,-15.8989,
-68.7064,16.4666,-266.3075,-310.5976,856.1832,50.5362,424.1633,152.6497,-262.9014,-320.8191,-50.5362,190.2207,112.9964,-16.4666,
-71.5459,11.3564,-281.3075,-325.5976,871.1832,43.1542,419.052,140.8194,-271.4188,-330.4719,-60.189,180.5669,97.9964,-11.3564,
-69.8412,8.5174,-283.3429,-334.4462,886.1832,49.4014,411.6705,134.5743,-271.986,-334.4462,-56.2136,182.2716,82.9964,-8.5174,
-64.1638,15.3312,-268.3429,-325.3616,901.1832,50.5362,426.6705,147.066,-270.8511,-327.6335,-47.129,179.9992,67.9964,-15.3312,
-63.0285,23.2809,-267.444,-320.8191,916.1832,41.4511,441.6705,153.8793,-274.2583,-320.8191,-53.9434,164.9992,61.892,-23.2809,
-69.274,19.3061,-270.2824,-321.3868,931.1832,34.0691,438.3586,147.6337,-263.4691,-316.8442,-48.8321,158.9906,53.3757,-19.3061,
-78.3591,15.8989,-260.0619,-313.4371,946.1832,28.3912,445.1719,153.3116,-248.4691,-312.3017,-35.2044,165.8039,68.1387,-15.8989,
-76.6555,21.0097,-251.5451,-306.0556,945.422,16.4671,454.8252,168.3116,-242.46,-306.0556,-36.908,155.0152,83.1387,-16.4671,
-69.2746,29.5271,-238.4851,-295.2674,930.422,11.3569,458.8001,183.3116,-237.3497,-302.0807,-40.8829,141.9553,82.9022,-11.3569,
-70.4105,29.5265,-243.0282,-290.7244,915.422,14.7635,458.7995,188.5166,-247.5707,-308.8945,-45.426,145.3619,70.4094,-14.7635,
-68.1381,24.9845,-254.3835,-291.8603,901.7007,13.6276,471.2912,193.0597,-249.8409,-305.4879,-47.6972,144.2271,69.2746,-13.6276,
-55.6459,24.9845,-243.0266,-281.6387,886.7007,0,470.157,204.4166,-243.0266,-300.9453,-52.2387,129.2271,69.2746,0,
-62.4597,24.984,-237.3492,-279.3675,871.7007,-2.2713,457.6641,205.5514,-245.2989,-303.2166,-57.9172,114.2271,64.7315,2.2713,
-73.8166,26.1204,-235.0774,-286.1818,856.7007,3.4066,465.6139,210.094,-236.2138,-288.2166,-48.8321,129.2271,69.274,-3.4066,
-60.7566,30.0942,-232.239,-286.7495,841.7007,3.9743,461.639,218.6114,-229.9672,-273.2166,-41.4511,144.2271,84.274,-3.9743,
-53.9434,31.2307,-228.8318,-278.7998,832.9943,1.7036,468.4523,231.1036,-228.8318,-271.9865,-35.7732,159.2271,99.274,-1.7036,
-48.8326,44.2901,-213.8318,-263.7998,817.9943,-1.1354,483.4523,246.1036,-213.8318,-262.3332,-20.7732,152.1768,104.4796,1.1354,
-44.8583,47.129,-212.9324,-248.7998,808.0098,5.1108,493.4368,249.2738,-212.9324,-259.4942,-18.7384,157.2865,114.1318,-5.1108,
-48.2644,32.129,-217.4749,-259.4942,794.3822,11.924,478.4368,249.2738,-214.0688,-264.0368,-33.7384,158.4219,116.4036,-11.924,
-52.8075,25.5522,-218.6108,-244.4942,779.3822,3.9749,467.3175,260.6301,-199.0688,-259.4948,-27.8229,143.4219,102.7754,-3.9749,
-50.5357,30.0948,-219.7473,-241.3235,764.3822,1.703,475.2661,256.0876,-195.8981,-259.4948,-21.0097,132.3025,93.6904,-1.703,
-48.2655,18.7384,-210.6616,-251.5445,749.3822,11.924,470.7241,241.0876,-204.9837,-267.444,-27.8235,130.0312,100.5042,-11.924,
-53.3751,14.7641,-201.0083,-239.6205,734.3822,3.4072,455.7241,239.6205,-197.6011,-266.8757,-36.3403,130.5995,105.6149,-3.4072,
-57.3495,17.6019,-201.5765,-233.3743,719.3822,-11.5928,458.2318,251.5445,-189.0843,-253.8163,-41.4511,128.8959,95.9616,11.5928,
-61.3249,10.2205,-212.3652,-240.7558,704.3822,0,462.2062,246.4348,-204.0843,-258.9271,-43.1547,121.5133,89.7155,0,
-60.7572,5.1102,-207.255,-228.8323,689.3822,11.9246,454.8252,247.0025,-199.3053,-265.1727,-33.5019,125.4881,103.9119,-5.1102,
-62.4602,10.2215,-208.958,-223.721,674.3822,0,457.6647,255.5199,-195.3304,-262.3332,-38.6111,121.5144,102.2078,0,
-61.3249,19.3055,-204.4155,-225.9929,659.3822,4.5425,470.1559,257.7906,-210.3304,-255.5199,-53.6111,109.021,87.2078,-4.5425,
-56.7818,17.0343,-189.4155,-214.6365,644.3822,19.5425,476.9697,258.9266,-206.6868,-250.9768,-54.5111,95.3939,87.4442,-17.0343,
-52.8069,21.0091,-177.7285,-200.4412,629.3822,22.1456,470.7241,260.6296,-191.6868,-254.9517,-47.129,86.8765,102.4442,-21.0091,
-43.1542,23.8486,-182.8387,-201.0089,623.4675,15.8989,479.2415,260.0619,-183.9741,-254.384,-37.4762,78.3591,115.8359,-15.8989,
-33.5019,18.7379,-169.7782,-200.4406,620.6285,11.9246,494.2415,262.9009,-168.9741,-239.384,-26.6876,70.9776,101.6401,-11.9246,
-38.6122,19.3055,-172.6177,-195.3304,605.6285,13.6276,479.2415,258.926,-153.9741,-231.6718,-31.7989,77.2232,98.8006,-13.6276,
-43.7224,16.4671,-187.6177,-208.3904,590.6285,14.1953,464.2415,245.8661,-162.9649,-239.0528,-35.7727,92.2232,88.0124,-14.1953,
-31.2296,10.7887,-183.4064,-215.2042,575.6285,10.7887,469.5887,244.7312,-177.7274,-229.9672,-36.9086,103.9113,73.0124,-10.7887,
-31.2307,1.7036,-182.271,-210.6616,560.6285,10.7887,470.7241,243.5959,-165.2362,-222.0185,-38.0439,97.097,58.0124,-1.7036,
-45.426,2.2713,-179.4315,-205.5514,545.6285,5.6774,463.3421,235.0774,-156.7188,-225.9934,-37.4762,82.9017,43.0124,-2.2713,
-30.426,17.2713,-172.0495,-193.6268,530.6285,9.6533,470.7241,248.1373,-161.829,-222.0185,-38.0439,86.8765,32.366,-9.6533,
-19.3055,12.4923,-174.8884,-196.4658,515.6285,14.763,474.6984,252.1127,-170.3459,-214.636,-43.1547,94.258,28.3906,-12.4923,
-29.5265,7.9492,-166.9393,-195.331,500.6285,7.9492,469.02,237.1127,-165.8039,-216.9072,-42.0188,84.0381,19.3061,-7.9492,
-22.7133,22.9492,-153.3116,-183.9741,485.6285,6.8138,474.699,246.4343,-152.1763,-205.5514,-34.0691,78.3591,15.8989,-6.8138,
-7.7133,26.1194,-156.7188,-186.2459,470.6285,5.6784,467.8846,256.6547,-146.4984,-197.6017,-32.9337,73.8166,5.6784,-21.8138,
0.56768,25.5522,-157.2859,-182.2705,463.9103,3.9749,452.8846,251.5451,-151.608,-208.3904,-35.7727,78.9274,-0.56768,-28.9583,
-4.5425,30.6624,-145.3624,-169.2105,448.9103,4.5425,466.7487,260.0625,-146.4978,-199.873,-29.5271,87.4448,4.5425,-13.9583,
-6.8133,28.3906,-144.2271,-157.8547,433.9103,3.4072,481.7487,266.8757,-136.2774,-184.873,-24.9845,82.9022,1.1354,-1.1354,
-3.9749,25.5511,-143.6594,-156.1517,420.7556,3.9749,468.4517,256.0865,-133.4379,-191.3566,-22.145,89.1478,5.1102,-7.382,
-3.9749,25.5522,-130.0307,-157.2859,419.6202,3.9749,462.7749,253.8158,-131.1661,-193.6274,-19.8732,98.2329,10.7892,-7.381,
-5.6784,24.984,-130.5989,-156.7188,414.5095,3.4066,462.2067,255.5194,-135.1415,-186.2448,-34.8732,85.1735,3.4066,-3.4066,
-1.7036,30.0942,-134.5738,-157.2865,407.1274,8.5169,455.96,251.5445,-134.5738,-185.6771,-40.3157,77.7914,1.7036,-5.1108,
0,30.6624,-130.5984,-160.1254,396.3398,6.8144,445.1724,240.7569,-134.0056,-186.2453,-40.8829,76.0879,0,-9.0851,
0.56768,27.8229,-125.4892,-164.1003,403.7208,9.6528,443.4683,237.9163,-140.2522,-191.3556,-49.4003,70.9776,-0.56768,-2.8395,
5.1108,23.2809,-128.8959,-161.829,394.6362,6.2461,455.96,240.1887,-148.2014,-198.1694,-60.7566,55.9776,-5.1108,-7.3815,
20.1108,35.7721,-123.2169,-146.829,379.6362,1.7036,458.2318,242.4594,-142.5235,-183.1694,-52.808,40.9776,-1.7036,-13.0605,
21.5773,42.0193,-110.1575,-135.1409,364.6362,-1.1354,457.6636,245.2984,-127.5235,-168.1694,-38.6122,38.6122,1.1354,-4.5425,
11.924,33.5014,-101.6406,-134.5738,349.6362,-5.1108,472.6636,252.6799,-112.5235,-161.829,-36.9086,40.3157,-1.7036,1.7036,
17.0348,31.7978,-96.5298,-132.8702,334.6362,-7.9497,475.8338,246.4338,-111.2928,-164.668,-39.7475,39.7475,7.9497,-7.9497,
14.763,27.2553,-87.4448,-135.1409,319.6362,-10.2205,464.478,231.6708,-110.1575,-160.1254,-38.6122,26.1199,10.2205,-19.3055,
14.7635,29.5265,-79.4956,-120.1409,311.1653,-6.8138,474.6979,246.6708,-95.1575,-147.6337,-30.663,18.1696,6.8138,-14.7635,
29.7635,38.6122,-76.0879,-105.1409,307.7597,-4.5425,489.6979,261.6708,-89.7155,-139.6835,-30.6624,19.3066,4.5425,-5.6779,
40.3147,42.5865,-67.571,-95.9616,292.7597,-2.839,492.3014,266.3075,-97.0981,-142.5235,-36.9086,16.4666,2.839,-6.2461,
39.1798,45.9931,-65.2997,-93.6904,277.7597,1.703,480.944,258.3583,-100.5047,-140.2522,-31.2301,19.8732,-1.703,-9.6528,
45.9942,44.8577,-64.1633,-84.6053,281.0721,3.9749,483.2158,265.1727,-92.555,-125.4881,-26.6876,30.0948,-10.7881,-3.9749,
45.9936,49.4008,-50.5362,-82.334,273.1219,2.839,486.6225,265.1721,-91.4191,-120.9461,-38.0439,33.5014,-2.839,-2.839,
38.0439,51.6716,-42.5876,-82.334,258.1219,-10.7887,485.4871,257.2224,-86.8776,-128.8959,-40.3157,18.7373,10.7887,-13.0605,
49.968,48.8326,-36.3403,-69.2746,243.1219,-21.5773,491.7332,260.0625,-72.6818,-123.7851,-25.3157,14.763,9.0851,-9.0851,
49.968,39.7475,-51.1044,-76.0879,232.8061,-17.0348,481.5128,256.6553,-81.7669,-126.0569,-31.7978,14.763,9.0851,-9.0851,
41.4506,35.7727,-55.0793,-88.0124,224.2887,-14.1953,482.0805,250.4086,-75.5202,-126.6246,-33.5019,13.0599,16.4671,-13.0599,
32.366,25.5517,-55.0787,-84.6058,217.4749,-29.1953,468.4523,235.4086,-75.5207,-126.6241,-35.7732,11.924,9.6533,-9.6533,
21.0091,13.0594,-67.571,-92.5544,202.4749,-32.366,453.4523,223.1539,-90.5207,-133.4384,-42.5865,18.7384,5.1108,-5.1108,
21.5779,23.8486,-64.7315,-91.9868,191.9238,-21.5768,455.3923,238.1539,-87.4442,-130.5989,-35.2044,22.7133,7.9492,-7.9492,
25.5522,34.6373,-49.7315,-76.9868,201.5771,-22.145,465.0456,253.1539,-72.4442,-116.4031,-31.2301,24.4168,9.6528,-9.6528,
24.4168,23.2804,-47.1296,-72.113,200.4406,-33.5019,460.5031,238.1539,-73.2494,-116.4031,-34.6373,26.6876,2.8395,-2.8395,
39.1798,23.2804,-59.6207,-78.9274,206.1196,-21.0097,458.2313,233.3749,-77.792,-126.6246,-36.908,23.2804,2.8395,-2.8395,
43.7224,26.6876,-60.7572,-78.9274,209.5257,-10.7892,452.5534,242.4589,-76.6566,-124.3528,-38.0445,10.7881,9.6528,-9.6528,
43.1547,20.4409,-45.7572,-65.8674,195.3304,-18.1702,465.6133,245.2984,-61.6566,-109.3528,-27.2553,-1.1354,11.3558,1.1354,
56.7829,29.5276,-30.7572,-50.8674,186.2459,-19.305,478.1061,249.8415,-46.6566,-94.3528,-13.6271,-2.2713,15.8989,2.2713,
68.7064,40.3157,-22.1456,-35.8674,192.4915,-11.924,488.8943,261.7661,-33.5014,-79.3528,-6.2461,2.839,23.2809,-2.839,
57.3495,31.2296,-17.603,-35.7732,184.5417,-19.8738,491.165,256.0871,-28.9588,-73.2489,-7.3815,1.7036,24.4163,-1.7036,
45.4249,20.4414,-20.4425,-38.6127,169.5417,-32.9337,479.2404,241.0871,-35.2055,-81.7663,-10.221,-2.2713,12.4917,2.2713,
56.7818,24.984,-14.7635,-23.6127,154.5417,-31.7983,490.5973,254.384,-29.5265,-67.0033,-9.0856,-1.1359,1.1359,3.4066,
68.7069,32.3655,-8.5174,-16.4671,144.7948,-27.8229,495.7081,268.5799,-25.5522,-58.4854,-13.0599,6.2456,1.703,-1.703,
70.9782,32.366,-7.3815,-27.8224,150.4732,-26.687,486.6235,264.0368,-28.9588,-72.1125,-15.3312,3.9754,1.7036,-1.7036,
76.0884,40.8834,-5.6784,-20.4414,158.9895,-17.0343,494.0045,269.147,-22.7133,-64.7315,-11.3564,-1.1359,1.1359,4.542,
74.952,45.4249,-11.3564,-17.0353,147.6326,-28.3912,491.7327,265.7398,-22.7133,-59.0536,-10.221,-2.2713,7.9492,2.2713,
70.9771,38.0439,2.839,-21.0091,132.6326,-43.3912,484.3517,252.6799,-22.1456,-63.0285,-6.2461,-9.6533,22.9492,-2.839,
64.1638,26.6881,11.924,-14.1948,117.6326,-52.8069,472.9959,243.5959,-21.0091,-66.4346,-14.1948,-24.6533,24.4163,-11.924,
68.7064,23.2809,1.7036,-14.1959,102.6326,-37.8069,466.1816,242.4594,-22.1456,-67.571,-18.7384,-17.603,9.4163,-1.7036,
76.6561,28.9588,-5.1108,-24.4163,87.6326,-22.8069,461.639,237.9169,-33.5014,-77.7914,-16.4666,-2.839,2.839,9.6533,
70.4094,31.7983,1.1359,-28.3912,72.6326,-7.8069,449.7144,235.0785,-40.8834,-81.7663,-22.7133,-17.839,12.4917,-1.1359,
68.1381,24.9845,5.6779,-17.0348,57.6326,-14.763,458.8001,246.4348,-25.8834,-66.7663,-17.0348,-32.839,4.5425,-4.5425,
67.571,24.4163,7.3815,-2.0348,42.6326,-29.763,470.7241,252.681,-14.1959,-57.3495,-15.3312,-42.5865,-10.4575,-6.2461,
64.7315,36.3409,22.3815,12.9652,27.6326,-24.984,470.1564,255.5194,-22.7133,-51.1039,-12.4917,-44.2906,-13.6282,-14.7635,
63.5961,36.3409,29.5265,-1.1359,12.6326,-28.3912,458.7995,249.8415,-15.8989,-57.9171,-11.3564,-59.2906,1.1359,-19.3061,
78.5961,35.7721,17.6019,-3.9743,9.6533,-31.2307,449.1467,241.3241,-11.924,-67.571,-17.603,-72.1135,3.9743,-15.3312,
76.0884,31.7983,17.0343,-2.2713,6.8138,-27.2558,446.3073,236.2138,-21.5768,-63.5961,-24.984,-76.0884,2.2713,-23.8486,
64.731,35.2039,19.3055,0,0,-30.6624,438.357,235.0779,-15.8994,-54.5116,-20.442,-72.6818,10.2205,-22.7138,
64.7315,43.1542,15.8989,1.1359,-5.6784,-31.7983,438.3575,238.4846,-1.1359,-59.0536,-17.0343,-57.9182,11.3564,-7.7138,
61.3249,37.4768,24.9845,3.4072,-20.4409,-36.3403,453.3575,247.5702,0,-52.2387,-20.4409,-51.1033,0,-10.2204,
63.0285,35.7732,39.1804,17.603,-25.5517,-43.7218,465.0462,244.7312,2.839,-37.2387,-14.1959,-57.3495,-2.839,-9.6533,
57.9177,27.2553,27.2553,20.442,-39.7475,-57.9177,457.6636,247.5702,9.0851,-22.2387,-13.6276,-70.41,-17.839,-9.0851,
61.8925,27.8229,27.8229,26.6876,-42.587,-48.2649,454.8252,262.5702,11.9246,-26.6876,-11.9246,-63.0279,-25.5522,-11.9246,
63.5961,29.5265,28.3912,26.1193,-31.7983,-44.2906,444.0365,277.5702,1.1359,-32.9337,-13.6282,-56.7818,-10.5522,-22.7133,
56.7818,28.3912,35.2044,24.984,-39.7481,-56.7818,437.2222,292.5702,1.1359,-23.8486,-13.6282,-59.0536,-1.1359,-21.5779,
59.0531,38.6122,32.9332,27.2553,-44.2901,-51.1033,428.1376,307.5702,7.9497,-23.8481,-10.2205,-46.5608,-9.0851,-7.9497,
61.3243,32.9337,19.3061,12.4917,-35.2044,-42.0188,425.8664,322.5702,2.2713,-38.8481,-11.3564,-38.6116,-2.2713,-3.4066,
61.3249,30.6624,28.3917,14.7641,-40.8829,-47.6962,429.273,337.5702,0,-44.2901,-15.8984,-42.0182,0,-6.8133,
56.7823,35.205,35.205,28.3906,-53.3751,-56.7823,417.9161,352.5702,-1.1354,-44.2901,-23.8492,-35.205,1.1354,-15.8994,
46.5608,20.205,22.7127,15.8984,-49.969,-63.5967,403.1531,367.5702,-4.5425,-53.3751,-29.5271,-37.4768,4.5425,-24.9845,
38.6116,9.0856,15.8989,11.3564,-48.8321,-62.4608,397.4746,382.5702,-3.4066,-54.5111,-28.3912,-52.4768,3.4066,-22.7133,
32.9337,4.542,24.984,21.5768,-63.8321,-64.7315,404.289,397.5702,-3.4066,-44.2906,-28.3912,-61.3254,3.4066,-14.7635,
24.4158,-1.703,36.908,22.145,-67.5705,-75.5202,408.2633,405.9926,1.703,-49.4003,-27.8229,-72.113,9.6528,-22.145,
19.8732,-0.56768,33.5019,21.0097,-58.4854,-64.1644,400.3136,401.45,0.56768,-59.6218,-27.8229,-81.1981,15.3307,-26.6876,
23.2804,9.6528,32.3655,31.2301,-66.4351,-49.1644,405.9926,405.9926,-3.9749,-44.6218,-31.2301,-80.0627,3.9749,-16.4671,
23.8486,14.7635,38.6116,46.2301,-77.2238,-54.5111,419.052,417.9166,6.8138,-29.6218,-20.4414,-82.9017,-6.8138,-10.221,
16.4671,5.1102,40.3152,52.8075,-78.9274,-67.5705,416.213,412.8059,14.1953,-31.2301,-15.3307,-90.2832,-5.1102,-18.7379,
31.4671,10.221,42.0188,46.5613,-69.274,-52.5705,409.9669,406.5597,7.9492,-42.0188,-24.984,-80.6309,-7.9492,-15.8989,
46.4671,23.2809,35.7732,47.129,-65.2992,-37.5705,403.7213,407.1285,1.7036,-27.8235,-39.984,-65.6309,-22.9492,-5.1097,
42.5859,24.4158,33.5008,45.9931,-75.5202,-22.5705,403.7208,405.9915,3.9749,-21.0097,-39.1798,-69.8423,-27.824,-9.6528,
52.808,30.0953,44.8583,60.7566,-76.6561,-7.5705,405.992,408.2639,6.2461,-25.5517,-24.1798,-59.6213,-12.824,-7.3815,
55.6464,22.7133,38.6116,56.7818,-82.9017,-1.1359,397.4746,402.0172,1.1359,-26.1194,-31.7983,-44.6213,-13.6271,-5.6784,
46.5608,12.4923,30.6624,45.4254,-95.3945,-5.6779,392.9326,395.2034,5.6779,-19.3055,-40.8829,-38.6122,-18.1702,-10.2205,
49.4003,21.0097,32.3655,41.4506,-93.6903,-5.1102,381.0081,387.8213,-0.56768,-22.145,-35.7727,-33.5019,-3.1702,-1.7041,
47.129,17.603,28.9588,40.3157,-102.7749,-10.7887,369.6517,383.2793,-2.839,-23.2799,-31.2296,-36.9086,-8.5169,2.839,
51.6716,17.6019,26.687,48.2644,-114.1329,-22.1456,373.0578,369.6517,6.2461,-21.0102,-35.7732,-51.6716,-23.5169,-6.2461,
57.3495,19.8738,36.9086,49.4008,-117.539,-18.7384,377.6014,354.6517,10.7887,-19.8738,-31.2307,-59.6213,-15.3312,-10.7887,
49.3997,7.3815,40.3147,48.2644,-124.3533,-26.6881,374.1943,339.6517,11.924,-27.8235,-27.8235,-74.6213,-7.3815,-17.603,
55.647,11.3569,39.7475,59.0531,-122.6497,-36.3403,375.8978,324.6517,15.8994,-26.1199,-30.6624,-79.495,-11.3569,-22.7127,
60.1895,14.763,46.5619,56.7823,-126.0558,-30.6624,379.305,309.6517,20.442,-14.763,-26.1199,-68.1381,-20.442,-22.7127,
51.1039,9.0856,48.8331,53.3757,-130.5989,-23.8486,369.084,294.6517,13.6282,-10.221,-31.7983,-60.189,-26.1193,-9.0856,
47.6972,5.6779,40.8829,53.3751,-141.9553,-37.4768,359.9984,279.6517,7.9497,-13.6276,-37.4768,-69.2746,-24.9845,-5.6779,
50.5362,5.1108,38.0439,55.0787,-152.7439,-42.5865,365.1092,264.6517,21.0091,-5.1108,-27.8235,-75.5207,-17.603,-11.924,
44.8572,6.2461,43.7218,57.3495,-150.4732,-34.6378,352.6169,249.6517,18.7373,-6.2461,-30.0953,-66.4356,-11.9251,-9.6533,
39.1798,3.9749,49.4003,59.6218,-158.4224,-40.3152,349.2103,234.6517,15.3318,-13.0599,-35.7727,-70.9776,-19.8732,-3.9749,
49.9685,6.8138,48.8321,67.0033,-169.2111,-37.4762,355.4564,224.8569,27.2558,-15.8989,-32.9337,-79.4956,-17.0343,-6.8138,
51.671,5.1102,43.7224,59.6207,-158.4224,-40.3152,349.2103,222.018,26.6876,-19.8743,-27.8229,-76.6555,-5.1102,-18.7379,
44.2906,3.4066,51.1039,60.189,-153.3116,-51.1039,355.4564,218.0437,36.3409,-11.3564,-14.7635,-74.952,-3.4066,-17.0343,
34.6368,3.9743,50.5362,61.8931,-162.9649,-53.9434,342.3965,208.3909,27.8235,-16.4666,-27.8235,-89.952,-3.9743,-18.7384,
29.5271,-3.4072,36.3403,46.8931,-157.8547,-48.8326,327.3965,197.6022,12.8235,-31.4666,-42.8235,-103.3431,3.4072,-30.6624,
38.0445,-7.382,30.0947,43.7224,-142.8547,-45.9931,331.0401,201.576,7.382,-30.0948,-31.2301,-99.3693,10.7881,-38.0445,
39.7475,-11.3569,42.0182,55.647,-139.6845,-40.8829,333.8785,211.2299,21.5773,-21.5773,-22.7127,-87.4448,11.3569,-29.5271,
36.908,-14.1953,57.0182,58.4854,-151.608,-34.6373,333.3108,215.2047,23.2804,-23.2804,-28.9583,-80.0627,11.9246,-14.5271,
32.3655,-14.1953,42.587,49.4003,-162.9649,-31.2301,325.3622,206.1196,14.1953,-25.5522,-33.5008,-92.555,17.6025,-15.3307,
27.2558,-20.4414,27.587,40.8834,-171.4818,-37.4762,319.1161,199.8735,19.3061,-19.3061,-32.9337,-102.2072,19.3061,-24.984,
26.1199,-21.5773,39.7475,45.4254,-178.2956,-49.968,320.2509,208.958,27.2553,-12.4923,-29.526,-91.9873,12.4923,-22.7127,
25.5517,-16.4666,42.5865,56.2141,-184.5417,-49.4008,321.9545,215.2042,35.7732,-8.5169,-27.8235,-82.334,8.5169,-18.7384,
21.0097,-21.0097,40.3152,58.4854,-191.3556,-49.4003,328.7683,210.6622,43.7224,-5.1102,-24.4168,-85.7406,5.1102,-19.8743,
18.7379,-17.6025,49.4003,59.6207,-189.0843,-57.35,317.4125,209.5257,39.1798,-5.1102,-22.145,-89.1478,5.1102,-21.0097,
20.442,-17.0348,46.5619,63.5956,-196.4663,-57.9177,303.2172,210.0945,38.6122,-1.1354,-21.5773,-91.9873,1.1354,-22.7127,
22.145,-24.4168,39.1798,60.7572,-199.3053,-52.8075,308.3274,212.9329,39.1798,-1.703,-19.8732,-92.555,1.703,-19.8732,
13.0599,-24.4158,28.9594,45.7572,-189.0843,-50.5357,295.8351,201.5771,25.5522,-13.0599,-19.8732,-89.1478,16.703,-19.8732,
10.2204,-17.0348,22.7127,37.4768,-191.9232,-47.6972,291.8603,207.8227,34.0696,-10.2204,-23.8481,-87.4448,21.5773,-15.8984,
17.0343,-17.0353,20.4414,52.4768,-206.9232,-46.5613,306.8603,222.8227,37.4762,-6.8138,-32.9337,-78.3591,6.8138,-12.4917,
24.4163,-17.6019,31.2307,64.1638,-199.3053,-41.4511,315.1412,207.8227,25.5517,-2.839,-27.8235,-63.3591,2.839,-9.6522,
18.1707,-18.1707,34.0691,59.0536,-191.9238,-43.1542,304.352,192.8227,24.984,6.8138,-22.7133,-62.4608,-6.8138,-18.1707,
20.4414,-11.3564,44.2895,72.6812,-201.0089,-43.1542,300.9448,177.8227,36.3409,10.221,-22.7133,-70.4094,-10.221,-17.0343,
30.6624,-18.1702,53.3751,73.8171,-207.8227,-45.4254,307.7586,162.8227,38.6122,0,-22.7127,-71.5453,0,-10.2204,
22.145,-24.4158,38.3751,69.8423,-209.5257,-50.5357,293.5644,147.8227,30.0948,-0.56768,-34.6362,-84.6053,0.56768,-21.0086,
9.6528,-25.5522,24.4168,76.6555,-214.0688,-55.0782,289.0208,132.8227,38.0445,8.5174,-30.0948,-95.9622,-8.5174,-25.5522,
12.4917,-32.9337,31.7973,72.6812,-214.637,-57.9182,292.9951,117.8227,42.0188,2.2713,-18.1707,-95.3939,-2.2713,-18.1707,
17.0343,-28.3912,26.1193,57.6812,-199.637,-42.9182,281.6393,102.8227,27.0188,-6.8138,-28.3912,-91.9878,6.8138,-9.0856,
9.6528,-16.4671,18.7379,59.6207,-207.255,-27.9182,282.2075,87.8227,28.9583,2.8395,-38.0445,-81.1981,-2.8395,-3.9749,
7.3815,-21.0091,31.2296,74.6207,-222.255,-36.9086,279.9362,72.8227,33.5014,10.7887,-40.3157,-81.1986,-7.3815,-18.9749,
22.3815,-32.9332,43.1547,81.7669,-211.2293,-51.1033,274.8255,57.8227,37.4768,9.0851,-38.6122,-96.1986,-9.0851,-32.9332,
37.3815,-21.5768,47.6967,79.4956,-196.2293,-42.0188,289.8255,62.4608,52.2392,10.221,-31.7983,-111.1986,-12.4917,-17.9332,
25.5511,-14.1953,44.8577,82.3335,-181.2293,-47.1296,300.3777,51.671,43.7224,8.5174,-35.7727,-96.1986,-18.7389,-8.5174,
21.0102,-22.1445,48.2655,88.013,-166.371,-62.1296,289.0213,55.0787,36.9086,19.8738,-30.0942,-90.2826,-19.8738,-23.5174,
22.7133,-29.5265,45.426,88.5807,-164.668,-77.1296,281.6393,67.0033,40.8834,17.0343,-27.2558,-105.2826,-17.0343,-32.9337,
22.145,-24.4158,47.1296,92.555,-178.8633,-73.2484,290.1572,67.5705,47.1296,16.4671,-38.0434,-100.5042,-16.4671,-19.8732,
20.442,-20.442,53.3751,89.7155,-178.2962,-61.3249,292.9956,60.1895,42.0182,22.7127,-45.4254,-101.0724,-24.9845,-22.7127,
24.984,-17.0353,49.9685,82.9017,-164.6685,-64.7315,279.3675,56.7818,34.0691,15.8989,-31.7983,-107.8862,-15.8989,-37.7127,
25.5522,-23.2804,42.587,74.3848,-175.4567,-72.113,270.8506,56.2146,42.587,8.5174,-25.5522,-98.2329,-8.5174,-41.4506,
13.6271,-26.1204,36.3398,76.0873,-190.4567,-71.5459,268.0116,57.9171,40.8823,11.3564,-40.5522,-97.6657,-11.3564,-28.3912,
6.8138,-27.2558,34.0691,79.4945,-188.5166,-68.1387,256.6547,52.2392,25.8823,6.8138,-47.6967,-107.8862,-6.8138,-35.2055,
18.7384,-32.366,45.9936,78.9268,-179.9992,-74.3843,266.3086,48.2644,23.2809,5.1108,-32.6967,-117.539,-5.1108,-39.1793,
19.8738,-32.366,45.9936,72.1135,-179.9997,-77.7915,262.9014,44.8572,28.9588,6.2461,-35.7732,-117.5395,-6.2461,-30.0953,
4.8738,-40.3152,32.3655,57.1135,-187.9489,-69.8423,247.9014,40.3152,17.6025,-0.56768,-50.7732,-118.6749,3.9749,-35.7727,
-1.703,-39.1798,35.7727,59.6207,-186.813,-55.0782,244.7307,41.4506,18.7379,3.9749,-44.8577,-109.5898,1.703,-32.3655,
7.3815,-31.2296,40.3157,73.2489,-186.813,-55.0787,252.681,40.3157,26.6881,13.0605,-41.4511,-106.1826,-7.3815,-25.5517,
3.4072,-35.205,44.2901,74.9525,-195.331,-68.1392,249.8409,38.6122,30.6624,12.4923,-35.205,-121.1826,-3.4072,-36.3403,
1.7036,-34.6368,41.4511,78.9268,-190.2202,-64.1638,250.4092,44.8583,34.6368,3.9743,-35.7732,-136.1826,-1.7036,-44.8583,
14.763,-22.7127,40.8829,88.5801,-186.2459,-49.1638,265.4092,59.8583,47.6962,9.0851,-39.7475,-134.0061,-9.0851,-30.6624,
17.6025,-17.6025,51.671,94.8257,-201.2459,-40.3152,273.1213,58.4854,56.2136,24.0851,-34.6373,-126.6246,-23.2815,-25.5522,
17.0348,-17.0348,49.968,99.937,-207.8227,-52.2398,258.9271,49.968,49.968,26.1199,-38.6122,-141.6246,-27.2553,-30.6624,
22.7133,-19.3061,46.5613,102.2083,-192.8227,-47.6967,269.147,63.5961,52.2392,19.3061,-42.0188,-151.0404,-24.984,-32.9337,
27.2553,-19.3055,49.968,97.6652,-204.416,-44.2901,263.4686,68.1381,48.8326,19.3055,-43.1547,-136.0404,-34.0696,-40.8829,
27.8229,-17.6025,44.8577,90.2832,-219.416,-50.5367,248.4686,53.1381,42.5859,17.6025,-50.5367,-123.2174,-41.4516,-42.587,
22.7127,-22.7127,44.2901,102.2078,-234.416,-56.7823,245.2984,54.5105,57.5859,32.6025,-42.0193,-118.1072,-27.2553,-40.8829,
18.7384,-21.0091,52.8069,114.1318,-235.6462,-60.7572,256.0871,65.2992,72.5859,43.7218,-27.0193,-103.9113,-18.7384,-34.6368,
22.145,-22.145,49.4003,100.5047,-243.5953,-59.6213,247.0025,58.4854,63.0279,31.2301,-35.7727,-106.1826,-33.7384,-28.9583,
25.5522,-25.5522,44.8577,91.4185,-241.3241,-45.9942,232.0025,58.4854,49.4003,25.5522,-48.2649,-114.1323,-39.1798,-28.9594,
18.1702,-23.8492,55.6459,104.4785,-236.2138,-37.4768,237.3487,71.5453,56.7812,30.6624,-33.2649,-106.7508,-24.1798,-22.7138,
10.7887,-19.8738,47.129,109.5892,-244.7307,-41.4511,243.5959,67.571,61.8931,26.6881,-23.2809,-97.097,-10.7887,-18.7384,
15.3312,-16.4666,34.6368,106.1821,-243.5953,-36.9086,228.8318,67.571,58.4848,24.4163,-35.7732,-83.4699,-15.3312,-19.8738,
17.6019,-23.2809,44.8583,103.9113,-231.1031,-35.7732,220.8821,75.5207,59.6213,34.6368,-25.5517,-84.6053,-18.7384,-17.6019,
15.3312,-25.5517,51.6726,114.1329,-232.2384,-43.7218,224.2903,78.9279,57.3505,26.6881,-22.1445,-99.6053,-21.0091,-15.3312,
14.7635,-18.1707,39.7481,127.1917,-247.2384,-51.1039,225.9934,77.2238,45.426,20.4414,-37.1445,-114.6053,-23.8486,-14.7635,
10.7887,-21.0091,43.7229,125.4887,-248.1379,-51.6716,219.7467,72.1135,45.9936,30.0942,-36.9086,-114.1318,-27.8235,-10.7887,
5.1108,-18.7384,48.2644,126.6241,-233.1379,-45.9936,215.2042,74.3843,50.5362,35.7721,-21.9086,-114.1323,-17.603,-5.1108,
5.1108,-18.7384,42.5865,127.7594,-227.6964,-42.5865,218.6114,84.6058,50.5362,34.6368,-21.0091,-119.8102,-25.5517,-5.1108,
11.3564,-21.5779,45.426,128.3271,-236.2138,-45.426,218.0437,87.4442,52.2392,30.6619,-36.0091,-123.7851,-40.5517,-11.3564,
13.0599,-23.2815,53.9428,131.1661,-223.1544,-45.9942,222.018,81.1981,57.35,34.6362,-35.7727,-114.1323,-25.5517,-13.0599,
3.9743,-28.9588,48.2644,132.302,-222.018,-51.6716,237.018,80.0633,60.7566,35.7732,-21.0091,-116.4031,-10.5517,-11.924,
7.3815,-21.0097,53.9434,147.302,-226.5605,-57.35,237.9169,92.5544,70.9782,40.3157,-19.8738,-125.4887,-10.7887,-7.3815,
9.653,-25.5519,65.3,153.8801,-231.1033,-67.5707,229.968,94.826,80.063,53.9431,-21.0094,-120.9459,-22.1448,-9.653,
11.3564,-24.984,70.4094,160.126,-231.6713,-55.6464,244.968,98.8011,87.4442,64.7315,-19.3061,-106.7503,-23.8486,-11.3564,
17.6025,-22.145,58.4854,158.4224,-239.0528,-40.6464,232.2395,93.6903,74.3848,49.7315,-34.3061,-121.7503,-38.0439,-17.6025,
26.1199,-29.5271,46.5608,143.4224,-254.0528,-34.0696,217.2395,80.6304,59.3848,34.7315,-49.3061,-136.7503,-52.2398,-26.1199,
36.9086,-25.5517,36.9086,128.4224,-257.223,-25.5517,202.2395,75.5196,44.3848,25.5517,-58.4859,-135.7091,-44.8583,-27.8235,
30.0942,-30.0942,27.8235,124.3533,-262.9009,-23.2809,191.3561,67.571,41.4511,23.2809,-57.35,-125.4881,-44.8572,-38.0439,
35.205,-29.5271,42.8235,128.3276,-269.1475,-22.7127,188.5161,74.9525,52.2398,22.7127,-48.8331,-135.142,-44.2906,-36.3403,
39.1798,-27.8229,52.8075,122.081,-257.223,-22.145,184.5423,72.113,48.2649,22.145,-51.6721,-127.76,-40.3152,-27.8229,
24.1798,-29.5265,37.8075,119.242,-263.4691,-23.8486,185.1094,61.3243,43.1542,24.984,-56.7823,-116.9713,-46.5613,-31.7983,
19.3061,-23.8486,36.3398,134.0061,-278.4691,-19.3061,182.8387,67.0022,45.426,29.5265,-54.5111,-116.9713,-49.9685,-26.1204,
25.5522,-25.5511,48.2649,128.8953,-275.3931,-18.7379,185.6776,75.5202,43.7224,17.6025,-48.2644,-120.9456,-44.8577,-17.6025,
32.9337,-20.4414,63.2649,134.0061,-264.605,-22.7133,197.6017,86.3089,55.6464,18.1707,-35.205,-115.8354,-37.4762,-18.1707,
29.5271,-23.8481,51.1044,127.1923,-265.7404,-29.5271,183.9746,71.3089,47.6972,23.8481,-49.9685,-115.8354,-42.0182,-27.2553,
27.2553,-38.8481,36.1044,112.1923,-261.1973,-32.9332,171.4823,56.3089,34.0696,22.7127,-56.7812,-107.8857,-28.3906,-22.7127,
28.9583,-40.3152,32.3655,103.9108,-257.2235,-33.5019,165.2357,63.0279,30.0948,9.6528,-48.2649,-92.8857,-13.3906,-23.2815,
28.3912,-28.3912,43.1542,111.2923,-252.1127,-27.2558,169.2111,72.6812,36.3409,11.3564,-43.1542,-91.9873,-11.3564,-34.0691,
23.8486,-28.3912,44.2906,112.4287,-254.384,-34.0691,180.5669,62.4608,40.8834,26.1193,-49.9685,-106.9873,-23.8486,-39.747,
14.7635,-38.6116,40.8834,110.1569,-252.1127,-38.6116,166.9393,61.3243,31.7983,26.1194,-54.5111,-103.3437,-14.7635,-35.2055,
13.6276,-40.884,46.5608,105.6138,-246.4348,-32.9342,158.989,74.9525,35.205,17.0337,-47.6972,-90.8519,-13.6276,-30.6624,
28.6276,-25.884,51.6726,120.6138,-232.2384,-33.5014,173.989,77.7914,50.205,19.8738,-33.5014,-103.9108,-19.8738,-26.687,
22.145,-28.9594,48.2649,123.2174,-232.239,-47.1296,170.9136,62.7914,41.4506,16.4671,-35.7727,-118.9108,-16.4671,-41.687,
15.8989,-32.9337,53.3746,113.5641,-227.1288,-38.6116,161.2613,56.7818,34.0691,12.4917,-47.6967,-122.6497,-12.4917,-51.1039,
26.6876,-24.4158,56.2146,111.8605,-212.9329,-23.6116,159.5578,66.4351,40.3152,18.7379,-48.2649,-107.6497,-21.0097,-36.1039,
27.2553,-28.3917,57.9177,119.2426,-208.9586,-26.1199,169.2105,69.2735,45.4254,26.1199,-42.0193,-95.3945,-30.6624,-27.2553,
23.8481,-24.9845,56.7823,128.3276,-198.7376,-30.6624,172.6177,74.9525,40.8829,22.7127,-45.4254,-102.2078,-22.7127,-30.6624,
22.1456,-19.8738,51.6716,125.4887,-195.8981,-18.7384,162.9644,77.7914,39.1804,18.7384,-49.3997,-99.3683,-23.2809,-25.5517,
18.7379,-28.9594,44.8577,119.8102,-204.9837,-18.7379,164.1003,70.9776,42.587,19.8732,-44.8577,-99.3688,-33.5019,-25.5522,
30.6619,-22.7133,45.426,127.1917,-189.9837,-20.4414,163.5321,77.2238,36.3409,20.4414,-39.7481,-96.5298,-23.8486,-26.1204,
40.8834,-20.4414,44.2906,122.6492,-174.9837,-18.1696,157.8542,81.7663,28.3912,17.0343,-45.426,-84.0376,-17.0343,-18.1696,
25.8834,-26.6881,40.3147,109.5892,-176.5931,-16.4677,148.2014,70.9771,24.4163,15.3312,-51.6726,-69.0376,-28.9588,-15.3312,
10.8834,-23.8486,34.0691,106.7508,-189.652,-14.7635,139.684,71.5459,23.8486,14.7635,-49.9685,-54.0376,-40.8834,-7.9492,
5.1102,-32.3655,35.7727,106.1826,-193.6268,-29.7635,145.9301,78.9274,31.2301,11.9246,-42.587,-55.0782,-49.4003,-5.1102,
11.3564,-39.747,38.6116,119.242,-183.9741,-44.7635,155.5834,81.7663,31.7983,18.1707,-42.0188,-64.7315,-42.0188,-11.3564,
16.4671,-34.6373,35.7727,128.8953,-174.3208,-43.7224,160.6931,81.1992,32.3655,24.4168,-43.7224,-65.2992,-34.6373,-16.4671,
12.4917,-35.2044,39.7481,131.7343,-177.1602,-38.6116,161.2613,86.3089,43.1542,19.3061,-38.6116,-78.3591,-46.5613,-12.4917,
7.3815,-40.3157,39.1793,130.0312,-178.8638,-44.8583,158.4219,94.8263,35.7721,19.8738,-40.3157,-82.334,-53.9434,-7.3815,
8.5174,-41.4511,42.587,130.0307,-165.2357,-49.4003,168.6428,97.0975,28.9594,28.9594,-43.7224,-84.6053,-49.4003,-8.5174,
6.8138,-37.4762,43.1552,134.0061,-150.2357,-54.5105,164.6685,85.1735,32.9337,20.4414,-40.8823,-88.5796,-45.4249,-6.8138,
-3.4066,-42.0188,30.663,121.5138,-137.4127,-42.0188,149.6685,81.7663,26.1204,6.8138,-42.0188,-73.5796,-43.1542,3.4066,
-0.56768,-43.7224,18.7379,110.7252,-144.7948,-27.0188,134.6685,93.6903,11.1204,0.56768,-57.0188,-58.5796,-50.5367,1.703,
6.8144,-32.9332,12.4923,109.0221,-152.1763,-12.0188,131.7348,94.258,10.2205,-6.8144,-72.0188,-73.5796,-65.5367,-10.2205,
1.1359,-32.9337,18.1707,105.6144,-167.1763,2.9812,138.5486,94.2586,21.5768,-1.1359,-61.3243,-88.5796,-80.5367,-12.4917,
0.56768,-35.7727,16.4671,103.9119,-182.1763,17.9812,134.5732,102.7754,11.9246,-0.56768,-70.9776,-90.2837,-93.6903,-13.0599,
14.1953,-26.6876,13.0599,106.1826,-197.1763,32.9812,127.76,109.5898,8.5174,-8.5174,-77.7909,-80.0627,-94.8263,-8.5174,
2.2713,-36.3398,9.0856,95.3939,-204.4155,47.9812,126.0564,101.0729,6.8138,-19.3061,-81.7663,-95.0627,-107.8857,-2.2713,
-2.839,-35.7732,19.8738,106.1832,-193.6268,52.8069,141.0564,116.0729,11.924,-4.3061,-72.1135,-80.0627,-93.6903,2.839,
-0.56768,-35.7727,14.1953,114.1323,-193.6268,42.587,153.8799,128.8953,14.1953,0.56768,-67.5705,-69.8412,-86.8765,-9.6528,
5.1108,-22.1445,13.0605,114.1318,-189.0843,48.2644,138.8799,131.1666,10.7887,-5.1108,-60.7566,-72.1135,-83.4699,-8.5169,
0.56822,-25.5517,16.4666,99.1318,-178.8638,56.2141,134.5738,126.6241,-0.56822,-14.1959,-59.6213,-68.7064,-88.0119,1.7036,
-3.4066,-37.4762,13.6282,93.1232,-163.8638,48.8331,141.9558,127.1917,3.4066,-12.4917,-51.1039,-62.4608,-82.9017,11.3564,
-2.2713,-34.0691,2.2713,102.2083,-148.8638,51.1039,135.1415,138.5486,5.6784,-6.8138,-48.8321,-63.5961,-74.952,10.221,
0,-36.3414,3.4061,102.2078,-155.5834,62.4602,128.3266,152.1757,0,-9.0862,-63.8321,-59.0541,-89.952,10.2205,
-1.1354,-35.205,7.9497,107.8857,-143.0912,68.1381,131.7348,162.3973,1.1354,-2.2707,-71.5453,-44.0541,-91.9873,21.5773,
-11.3569,-35.205,10.2205,105.6149,-128.3276,64.732,141.9553,160.1254,1.1354,-1.1354,-56.5453,-30.6624,-76.9873,23.8481,
-15.8989,-42.0188,13.6282,106.7508,-134.0061,54.5111,147.6337,168.0746,5.6784,-5.6784,-49.9685,-45.426,-84.037,19.3061,
-18.1707,-52.2403,2.2713,119.242,-135.142,46.5613,146.4973,176.0243,13.6271,-2.2713,-61.3254,-52.2403,-97.6657,20.4414,
-30.0942,-63.0285,-1.7036,116.4036,-128.8959,39.1793,150.4721,170.9141,21.0091,1.7036,-65.2992,-55.0787,-88.0124,24.4163,
-42.0193,-67.0028,7.9497,106.7503,-134.0061,36.3403,144.226,178.2956,13.6276,-7.9497,-60.1895,-70.0787,-86.3094,17.0348,
-32.9337,-55.6464,10.221,113.5641,-119.0061,51.3403,146.4984,193.2956,7.9492,-7.9492,-49.9685,-85.0787,-101.0724,18.1707,
-24.9834,-53.3751,7.9497,118.1072,-104.0061,53.3751,161.2619,207.8227,10.2204,-7.9497,-51.1033,-100.0787,-116.0724,14.7641,
-21.0091,-45.9936,10.7887,119.8108,-89.0061,55.0787,158.4219,210.6616,10.7887,-10.7887,-51.6716,-88.0124,-128.8953,17.603,
-17.6025,-38.0445,8.5174,111.8605,-74.0061,70.0787,156.1506,225.6616,9.6528,-8.5174,-48.2649,-73.0124,-113.8953,25.5511,
-7.9503,-32.9337,5.6784,110.1569,-59.0061,84.037,166.9393,240.6616,7.9492,-5.6784,-56.7829,-59.0536,-104.4796,23.8486,
-3.9749,-26.6876,13.0599,119.8102,-44.0061,86.8771,175.4572,248.1379,3.9749,-8.5174,-56.2136,-51.671,-97.097,21.0097,
-10.2215,-20.442,27.2553,130.5984,-29.0061,89.7155,186.2453,263.1379,9.0851,-9.0851,-41.2136,-36.671,-82.097,28.3906,
-16.466,-23.2804,17.6025,127.76,-15.3307,81.1992,175.4572,267.4445,8.5174,-8.5174,-47.1285,-38.0434,-73.2484,22.145,
-13.6276,-38.2804,5.6779,120.3779,-21.5773,66.1992,170.347,264.605,9.0851,-5.6779,-53.3751,-53.0434,-85.1729,10.2215,
-15.3307,-42.587,11.9246,120.9456,-34.6373,51.6721,182.2705,267.4434,8.5174,-8.5174,-45.9931,-68.0434,-85.7412,11.9246,
-20.4414,-31.7983,11.3564,120.3774,-28.3912,66.6721,178.2951,272.5542,10.221,-10.221,-46.5613,-59.0536,-86.3094,18.1696,
-16.4666,-31.2296,1.7036,117.539,-13.3912,74.3843,172.0495,281.0716,13.0605,-1.7036,-40.3157,-58.4859,-75.5196,16.4666,
-13.0605,-38.0439,5.1097,109.5892,-1.7036,61.892,161.829,282.207,1.7036,-3.9754,-34.6378,-60.7577,-60.5196,8.5169,
-18.7384,-39.1793,15.3312,94.5892,-6.2461,57.3505,162.9655,275.3937,6.2461,-13.0594,-41.4511,-47.129,-59.6213,8.5179,
-28.9583,-40.3152,5.1102,92.555,-5.1102,57.35,166.3721,276.5296,10.7892,-17.6025,-47.1285,-33.5008,-64.1633,13.0599,
-24.9851,-45.426,2.2713,104.479,7.9492,57.9171,155.5824,289.5879,-2.2713,-21.5779,-44.2906,-36.3409,-49.9685,15.8989,
-28.3912,-48.8331,12.4917,103.3437,6.8138,56.7818,152.1763,294.1315,-6.8138,-21.5779,-42.0188,-36.3409,-59.0536,12.4917,
-38.6122,-39.7475,3.4072,110.1575,4.5425,69.2735,154.4475,290.7238,-3.4072,-21.5773,-40.8829,-24.9845,-73.8171,23.8481,
-28.9588,-28.9588,-0.56822,125.1575,19.5425,83.4694,157.2865,305.7238,0.56822,-10.7887,-31.2307,-14.1959,-58.8171,38.8481,
-31.7978,-38.6122,1.1354,129.463,34.5425,68.4694,151.0404,307.7597,-1.1354,-11.3569,-37.4757,-28.3906,-43.8171,23.8481,
-42.0188,-43.1542,-1.1359,123.7846,24.984,53.4694,139.684,292.7597,1.1359,-24.984,-39.7481,-36.3409,-54.5111,12.4917,
-44.8577,-48.2649,-1.703,127.76,22.145,65.2997,142.523,283.3429,1.703,-22.145,-34.6373,-24.4168,-53.9428,27.4917,
-42.5865,-44.8583,2.839,136.8445,25.5517,76.6561,141.387,286.7495,-2.839,-13.0605,-42.5865,-11.924,-47.129,39.1793,
-36.9086,-29.8583,3.9743,139.1163,40.5517,77.7914,135.7091,284.4788,-3.9743,-22.1456,-40.3157,-9.6533,-42.5865,27.8235,
-36.9086,-25.5528,-1.7036,134.5738,55.5517,75.5196,142.5224,282.207,1.7036,-21.0102,-27.8235,-21.0102,-40.3157,33.5014,
-36.908,-30.0948,-5.1102,139.1158,58.4854,77.792,143.6583,278.8003,5.1102,-11.9246,-31.2301,-17.6025,-34.6373,40.3152,
-40.8829,-31.7978,-3.4072,143.0906,64.732,80.6304,145.3624,270.2829,3.4072,-21.5773,-34.0696,-5.6779,-38.6122,30.6624,
-41.4511,-30.0942,-13.0594,141.387,69.8417,86.8765,144.7942,269.7147,7.3815,-26.687,-32.366,-7.3815,-45.9936,26.6881,
-36.9086,-27.8235,-25.5528,136.8445,66.4346,80.0622,141.387,268.5793,10.7887,-18.7384,-31.2307,-10.7887,-45.9936,34.6368,
-32.9342,-27.2553,-10.5528,147.6332,60.1884,65.0622,146.4978,265.7404,9.0851,-13.6276,-28.3917,-25.7887,-49.968,24.9834,
-26.1204,-22.7133,-3.4066,158.9895,56.7818,56.7818,149.9045,258.9266,3.4066,-9.0856,-32.9337,-15.8989,-64.7315,18.1696,
-32.3655,-36.908,-18.4066,143.9895,50.5367,64.1644,142.524,243.9266,-3.9749,-16.466,-47.9337,-0.8989,-76.6555,18.7389,
-32.9337,-44.2906,-28.3912,128.9895,57.9182,49.1644,140.8194,233.942,2.2713,-22.7133,-48.8331,-2.2713,-61.6555,17.0343,
-38.0439,-40.3157,-19.8738,131.1666,55.0787,44.8572,145.9296,245.8666,7.3815,-14.1959,-41.4511,-7.3815,-49.4008,14.1948,
-45.9937,-47.129,-31.2307,126.6241,45.9937,55.0787,142.5235,234.5097,3.9743,-14.1959,-34.6368,-3.9743,-60.7566,15.3312,
-30.9937,-43.1547,-22.7127,130.5995,60.9937,56.7823,140.8199,229.4,4.5425,-28.3906,-21.5773,-4.5425,-45.7566,23.8492,
-22.1456,-41.4511,-7.7127,135.7091,75.9937,45.9936,155.8199,239.0523,7.3815,-28.9588,-21.0091,-16.4666,-33.5014,30.0942,
-26.687,-33.5014,-7.3815,140.2517,90.9937,50.5362,170.8199,243.5959,7.3815,-24.4163,-19.8738,-21.0091,-32.366,31.2307,
-22.7133,-24.984,-7.9492,140.8194,105.9937,59.0536,170.3464,246.4343,7.9492,-31.7983,-12.4917,-24.984,-20.4414,26.1193,
-37.7133,-39.984,-11.924,132.302,94.8263,49.4008,173.1859,242.4594,11.924,-31.2307,-16.4666,-26.6881,-35.4414,21.0091,
-49.4008,-45.9937,-11.924,128.8959,97.097,51.6716,170.9141,231.1036,7.3815,-22.1445,-28.9588,-11.6881,-50.4414,25.5517,
-36.9086,-35.7732,-1.7036,122.0815,112.097,58.4848,172.0495,227.6964,1.7036,-22.1456,-30.0953,-6.2461,-35.7732,27.8235,
-31.7989,-29.5271,-4.5425,121.5133,127.097,55.6459,179.431,237.3487,4.5425,-20.442,-20.442,-10.2215,-20.7732,29.526,
-43.7218,-32.366,-19.5425,127.7605,142.097,47.129,182.271,236.7815,7.3815,-22.1445,-15.3312,-7.3815,-22.1445,30.0953,
-40.8834,-42.0188,-20.4414,139.684,157.097,46.5613,197.271,225.9934,11.3564,-26.1194,-13.6271,-11.3564,-37.1445,29.5265,
-35.2044,-44.2895,-17.0343,144.2265,164.6685,46.5613,203.2807,216.9083,10.221,-21.5768,-10.221,-10.221,-52.1445,29.5265,
-49.4008,-48.2644,-15.3312,130.0312,162.9644,32.366,192.4915,209.5263,5.1108,-24.4163,-5.1108,-17.6019,-67.1445,24.4163,
-47.129,-44.8583,-3.9743,130.0312,166.3716,35.7732,191.3561,211.797,3.9743,-36.9086,-10.7887,-24.4163,-67.571,15.3312,
-32.129,-33.5014,-5.1108,135.7091,181.3716,50.7732,203.8484,214.0688,0.56822,-27.8235,-11.924,-9.4163,-52.571,22.1456,
-31.7973,-43.1542,-14.7635,121.5138,196.3716,38.6116,206.6868,203.2807,-5.6784,-17.0343,-6.8138,5.5837,-37.571,24.984,
-26.1199,-38.6122,-6.8144,116.9707,211.3716,34.0685,199.873,204.4155,-4.5425,-23.8492,-5.6779,4.5425,-22.571,30.6624,
-21.5773,-35.205,-17.0348,105.6149,214.637,49.0685,189.6525,197.6022,-13.6276,-36.3403,-15.8984,12.4923,-12.4923,23.8492,
-28.9588,-38.0439,-17.603,108.4539,208.3898,43.7218,202.7119,191.355,-14.1959,-31.2307,-8.5179,2.839,-2.839,19.8738,
-37.4757,-46.5608,-9.0851,109.0221,212.3652,28.7218,208.958,187.3807,-18.1702,-40.8829,-5.6779,-12.161,12.161,10.2204,
-42.5859,-60.7572,-13.0599,94.0221,208.3904,13.7218,193.958,177.7279,-26.6876,-55.8829,-20.6779,0.56768,22.145,-0.56768,
-55.0782,-67.5705,-28.0599,79.0221,210.6622,5.1102,178.958,162.7279,-41.6876,-70.8829,-35.6779,3.9749,25.5522,-3.9749,
-58.4854,-69.8423,-35.7727,64.0221,225.6622,1.703,167.5075,147.7279,-50.5357,-75.5202,-27.8229,-1.703,40.5522,1.703,
-52.2398,-72.6818,-29.5271,61.3249,222.5857,1.1354,181.7028,152.1757,-44.2901,-69.2746,-24.9845,4.5425,32.9332,-1.1354,
-43.7224,-69.8423,-40.3152,67.5705,226.5605,8.5174,170.9147,157.287,-43.7224,-69.8423,-35.7727,0.56768,28.9594,-0.56768,
-34.6368,-72.1135,-44.8572,65.3003,241.5605,1.7036,173.1859,153.8804,-42.5865,-80.0622,-31.2296,-1.7036,43.9594,2.839,
-40.3152,-73.2484,-33.5008,58.4854,240.1882,-8.5174,188.1859,147.0655,-38.0434,-70.9776,-19.8732,13.2964,51.6721,8.5174,
-53.3751,-79.495,-39.7475,57.9177,231.6708,-10.2205,196.4658,144.226,-46.5619,-64.732,-30.6624,17.0348,36.6721,10.2205,
-38.3751,-75.5202,-48.2649,60.7561,246.6708,4.7795,193.6263,151.608,-47.1296,-77.792,-35.7727,2.0348,35.7727,5.1102,
-25.5517,-70.9782,-49.4008,45.9936,261.6708,19.7795,184.5417,144.7942,-59.6213,-90.2837,-31.2307,6.2461,50.7727,-6.2461,
-40.5517,-82.3345,-55.0793,30.9936,246.6708,24.4158,170.9136,129.7942,-74.6213,-90.2843,-44.8577,8.5174,45.9931,-8.5174,
-45.4254,-72.6807,-51.1033,34.0696,231.6708,39.4158,180.5674,136.2774,-68.1381,-82.9022,-49.968,-3.4072,30.9931,3.4072,
-30.4254,-59.6207,-36.1033,49.0696,246.6708,54.4158,195.5674,151.2774,-53.1381,-73.2484,-34.968,-6.2456,45.9931,6.2456,
-32.9337,-70.4094,-26.1194,57.9182,257.7912,46.5613,208.9586,162.3967,-46.5613,-64.7315,-19.968,-7.9492,57.9182,7.9492,
-38.6122,-72.6807,-37.4757,54.5105,242.7912,36.3403,195.3304,160.1254,-51.1033,-68.1381,-26.1199,-10.2204,45.4254,10.2204,
-23.6122,-71.5453,-39.7475,65.8674,257.7912,37.4768,210.0945,169.2105,-38.6122,-71.5453,-27.2553,-4.5425,45.4254,4.5425,
-18.7379,-81.1981,-30.0948,78.9274,272.7912,43.7224,225.0945,175.4572,-39.1798,-74.3848,-24.4168,-0.56768,45.9931,0.56768,
-25.5511,-86.876,-42.5859,69.8423,278.8003,48.2649,212.9329,170.9147,-54.1798,-73.2484,-35.7727,-0.56768,41.4516,0.56768,
-15.3307,-84.6053,-49.4003,69.8423,283.3429,48.2649,224.2898,168.6428,-50.5357,-64.1633,-28.9583,2.8395,53.9428,-2.8395,
-24.9845,-95.3945,-54.5116,77.2232,268.3429,46.5608,224.8575,163.5326,-60.1895,-72.6818,-29.5271,7.9497,47.6972,-7.9497,
-39.9845,-110.3945,-69.5116,65.2997,253.3429,42.587,209.8575,165.2357,-75.1895,-84.6053,-44.5271,7.382,32.6972,-7.382,
-24.9845,-95.3945,-54.5116,78.9268,245.8666,34.6368,224.8575,180.2357,-60.1895,-69.6053,-29.5271,1.7036,41.4511,-1.7036,
-9.9845,-84.6053,-39.5116,89.1478,260.8666,25.5522,239.8575,184.5423,-48.2649,-64.1633,-24.4158,3.9749,56.4511,-7.382,
-24.9845,-99.6053,-54.5111,74.1478,264.6045,23.8486,224.8575,169.5423,-63.2649,-79.1633,-39.4158,15.8989,41.4511,-15.8989,
-39.7475,-114.6053,-69.5111,59.1478,249.6045,32.9342,209.8575,168.0752,-78.2649,-85.1729,-48.8326,21.5773,26.4511,-13.6276,
-31.7978,-109.021,-60.1884,52.2398,258.9271,28.3917,203.2801,166.9398,-86.3083,-86.3083,-49.968,13.6276,36.3414,-13.6276,
-40.3152,-116.4031,-45.9931,48.2649,273.1224,21.0097,210.6622,157.287,-88.0124,-92.555,-55.0782,16.4671,43.7224,-16.4671,
-45.9937,-110.7246,-50.5362,48.2644,275.3937,34.6368,206.1191,162.9644,-90.2837,-93.6909,-50.5362,13.0594,34.6368,-13.0594,
-36.3409,-104.479,-51.1039,55.6464,286.1818,49.6368,221.1191,177.9644,-81.7663,-88.5807,-45.426,1.1359,36.3409,-1.1359,
-40.3157,-111.8611,-58.4859,52.8069,301.1818,44.8572,231.1025,176.592,-83.4704,-94.8263,-56.2141,1.7036,51.3409,-1.7036,
-45.4265,-119.2426,-61.3249,47.6962,304.3514,36.3403,216.9078,163.5326,-88.5801,-95.3945,-60.1895,4.5425,57.9177,-4.5425,
-33.5019,-114.1323,-46.3249,60.7561,296.9705,50.5357,219.7462,178.5326,-82.3345,-85.7417,-57.35,-5.1102,42.9177,5.1102,
-26.6881,-105.0467,-34.6368,64.1638,307.1915,65.5357,231.1036,187.9489,-73.2489,-78.9268,-52.808,-5.1108,43.7218,5.1108,
-16.4666,-106.1832,-36.9086,60.7566,322.1915,61.892,246.1036,181.1346,-59.6213,-67.571,-37.808,1.7036,58.7218,-1.7036,
-1.4666,-109.0216,-34.0691,71.5459,337.1915,46.892,258.9266,177.1608,-52.2392,-59.0536,-23.8486,-7.9492,73.7218,-2.2713,
1.7036,-108.4539,-31.2296,72.1135,338.9893,59.6213,261.7661,176.5931,-50.5362,-65.2992,-33.5014,-21.0091,58.7218,-1.7036,
-4.5425,-103.3431,-29.526,74.9525,342.9647,74.6213,263.4696,176.0249,-45.4254,-61.3238,-22.7127,-6.0091,62.4613,4.5425,
-9.0851,-116.9707,-44.526,62.4602,333.8796,59.6213,248.4696,161.0249,-60.4254,-71.5453,-27.2553,8.9909,53.3751,-10.2205,
-0.56768,-117.5384,-43.7224,48.2649,342.3959,44.6213,250.4097,162.9649,-61.8925,-72.113,-28.9583,0.56768,38.3751,-11.9246,
7.9497,-105.6149,-35.205,48.8326,353.1851,44.2901,261.1978,171.4823,-53.3751,-64.731,-28.3906,-14.4323,36.3403,-7.9497,
4.5425,-111.2928,-45.4254,53.3751,342.9636,48.8326,246.1978,161.2608,-65.8674,-64.732,-35.205,-4.5425,42.0183,-13.6276,
-10.221,-126.2928,-60.4254,38.3751,338.4216,33.8326,231.1978,146.2608,-80.8674,-78.3591,-46.5613,10.221,34.0691,-28.6276,
-2.2713,-116.9713,-57.9171,28.3912,348.642,18.8326,237.3492,155.5834,-79.4945,-74.952,-36.3409,2.2713,34.0691,-21.5768,
4.5425,-109.0221,-47.6972,43.3912,333.642,27.2553,249.8409,168.0741,-65.8674,-71.5464,-32.9342,-9.0862,23.8481,-6.5768,
6.8138,-121.5138,-59.0536,43.1542,318.642,34.0691,235.0774,161.2603,-67.0033,-74.953,-39.7481,-6.8138,27.2547,-9.0856,
9.0851,-123.7851,-62.4602,30.6624,333.642,24.9845,227.1282,156.7183,-74.9525,-76.0879,-37.4757,-9.0851,23.8481,-18.1702,
17.0348,-108.7851,-47.4602,45.6624,348.642,13.6276,242.1282,168.0752,-59.9525,-61.3249,-23.8481,0,8.8481,-3.1702,
19.3061,-115.8359,-32.4602,60.6624,356.5918,-1.3724,257.1282,165.8039,-46.5613,-60.189,-32.9337,9.0856,-6.1519,2.2713,
28.3912,-129.4635,-43.1542,72.6812,371.5918,-16.3724,254.384,168.0757,-37.4762,-51.1039,-18.1696,6.8138,8.8481,-6.8138,
31.2301,-122.0821,-33.5019,68.7069,376.4655,-22.145,260.6301,178.8633,-36.908,-50.5357,-5.1102,-0.56768,9.6528,0.56768,
27.8229,-114.1323,-28.9583,70.9776,366.2451,-14.1953,259.4948,178.8633,-51.908,-61.8925,-20.1102,-3.9749,3.9749,6.2456,
40.3152,-115.2677,-34.6373,75.5202,381.2451,-10.7881,267.4445,175.4572,-55.0782,-56.2136,-27.8229,0.56768,13.0599,-0.56768,
42.0193,-127.1923,-48.8326,65.8674,381.5757,-19.3055,252.4445,165.8044,-54.5105,-59.0531,-35.205,5.6779,10.2215,-5.6779,
38.6122,-134.0056,-52.2398,54.5105,366.5757,-17.0348,237.4445,160.1254,-63.5956,-70.41,-42.0183,1.1354,3.4072,-1.1354,
53.6122,-119.0056,-37.2398,69.5105,381.5757,-2.2713,250.9768,175.1254,-48.8331,-55.41,-27.0183,-4.5431,12.4917,2.2713,
68.6122,-109.5892,-22.2398,84.5105,396.5757,-0.56822,265.9768,173.1859,-40.3157,-49.4008,-27.8235,-5.1108,5.1108,0.56822,
74.9525,-119.2426,-23.8492,77.2232,381.5757,5.6779,253.2481,168.0752,-48.8326,-61.3249,-40.8829,-1.1354,-9.8892,1.1354,
89.9525,-109.0216,-13.6271,92.2232,380.4409,13.6282,249.8415,183.0752,-46.5613,-51.1039,-30.6619,-7.9492,2.2713,-2.2713,
104.9525,-96.5293,-4.542,107.2232,384.9835,3.4066,264.8415,190.7884,-34.0691,-36.1039,-15.6619,-17.0343,17.2713,-3.4066,
119.9525,-109.0221,-4.5425,101.0713,369.9835,0,279.8415,178.2956,-34.0696,-24.9845,-10.2215,-18.1702,12.4912,0,
134.9525,-114.1323,-15.3318,89.1478,357.16,2.8395,264.8415,172.05,-33.5019,-35.7727,-19.8743,-8.5174,11.9246,-2.8395,
149.9525,-106.7508,-12.4917,91.9868,372.16,-9.0856,264.6045,178.2962,-18.5019,-24.984,-14.7635,6.4826,26.9246,-6.8138,
164.9525,-102.2083,-2.2713,103.3437,373.6266,-14.7635,279.6045,179.4315,-12.4928,-21.5779,-5.6784,2.2713,41.9246,-4.5431,
179.9525,-98.8006,0,102.2088,378.1697,-4.5425,280.5044,178.2967,-14.763,-28.3906,-4.5425,-10.2205,56.9246,0,
194.9525,-99.3688,-1.7036,93.6909,377.6014,1.7036,266.3086,167.5069,-14.1959,-30.0942,-10.7887,-8.5169,63.0285,-13.0594,
209.9525,-100.5047,-6.2467,97.0975,365.1086,0.56768,264.0362,160.6931,-22.145,-35.7727,-8.5174,-0.56768,68.7058,-17.6025,
224.9525,-108.4544,0.56768,105.0472,368.5158,-0.56768,279.0362,168.6428,-31.2301,-33.5019,-6.2467,-13.0599,69.8423,-2.6025,
239.9525,-110.7252,-0.56768,95.9611,357.1589,0.56768,275.3931,160.6931,-40.3152,-30.0948,-21.2467,-22.145,56.2146,-5.1102,
254.9525,-106.1826,-2.8395,93.6903,345.8031,0.56768,266.3081,148.2009,-39.1798,-36.908,-33.5019,-7.145,50.5357,-11.9246,
269.9525,-116.9718,0,107.8857,360.8031,-12.4923,281.3081,153.3111,-27.2553,-34.0696,-18.5019,0,59.0531,-7.9497,
284.9525,-111.8605,8.5174,116.4031,375.8031,-10.7881,296.3081,166.3721,-22.145,-19.0696,-8.5174,-9.6528,74.0531,-10.7881,
299.9525,-110.7252,5.1102,109.5898,382.1434,-5.1102,281.3081,161.8296,-23.2804,-19.8732,-17.6025,-16.4671,74.3848,-14.1953,
314.9525,-115.2677,2.8395,120.9456,370.7876,-7.382,285.6136,157.2859,-21.0097,-27.8229,-13.0599,-22.145,75.5202,-2.8395,
329.9525,-120.3774,5.6784,124.921,372.4912,-11.3564,292.9962,160.126,-20.4414,-19.3061,-10.221,-28.3912,76.0884,-5.6784,
344.9525,-119.242,7.9492,119.2431,358.8636,-20.4414,299.8094,168.0757,-7.9492,-11.3564,-17.0343,-35.2044,67.0033,-20.4414,
359.9525,-111.8611,3.9743,117.539,367.381,-24.4163,304.9197,161.829,-3.9743,-23.2809,-18.7384,-39.1793,75.5207,-17.6019,
374.9525,-110.7246,1.7036,111.8611,371.9235,-9.4163,311.734,155.0158,-9.6533,-21.0091,-13.0594,-24.1793,84.6058,-5.1108,
389.9525,-114.1323,-1.703,114.1323,356.9235,1.703,303.7838,155.0152,-16.4671,-13.0599,-26.6876,-18.7379,69.6058,-16.4671,
404.9525,-106.7503,3.4072,129.1323,349.7779,-3.4072,302.0807,164.668,-5.6779,-7.9497,-22.7127,-24.9845,55.6459,-17.0348,
419.9525,-109.5887,-0.56768,127.76,348.0749,-3.9749,307.192,159.5578,0.56768,-9.6528,-8.5174,-31.2301,68.7069,-16.466,
434.9525,-116.4036,1.7036,115.2672,333.0749,-2.839,296.9699,151.6075,-1.7036,-5.1108,-10.7887,-17.603,73.2489,-22.1456,
449.9525,-123.2174,8.5174,102.7754,318.0749,-8.5174,289.0208,145.9301,-9.6528,-9.6528,-18.7379,-8.5174,77.792,-26.6876,
464.9525,-115.8359,10.221,98.8011,315.7089,-12.4928,295.2669,148.7691,-10.221,-21.5779,-15.8989,-18.1707,80.6299,-23.8486,
479.9525,-123.2174,2.8395,107.318,308.3263,-25.5522,291.2926,149.3373,-2.8395,-21.0097,-15.3318,-33.1707,72.113,-28.9594,
494.9525,-137.9804,2.839,119.8108,293.3263,-38.0439,286.7495,150.4732,-2.839,-11.924,-16.4666,-47.129,61.8931,-40.3157,
509.9525,-122.9804,5.6779,126.0569,295.2674,-23.0439,292.9956,165.4732,-5.6779,-7.9497,-13.6276,-32.129,67.0028,-26.1199,
524.9525,-107.9804,1.1354,116.9707,287.3177,-10.2204,296.4028,165.8033,-1.1354,-7.9497,-23.8481,-22.7127,67.0028,-18.1702,
539.9525,-111.8611,7.3815,111.8611,277.6644,-21.0091,287.8859,151.6086,-7.3815,-13.0594,-31.2296,-37.7127,52.0028,-28.9588,
554.9525,-107.8862,9.0856,107.8862,282.7746,-9.0856,272.8859,153.3116,-22.3815,-17.0343,-29.5265,-32.9337,47.6967,-24.984,
569.9525,-99.9365,-5.6784,103.3437,289.589,5.6784,279.3685,158.9895,-20.4414,-9.0856,-23.8486,-18.1707,62.4608,-12.4917,
584.9525,-93.6903,-6.2467,111.8605,298.1058,-0.56768,291.2926,155.0152,-9.6528,0.56768,-18.7379,-21.0097,76.6555,-9.6528,
599.9525,-93.6903,3.9749,116.4031,295.8351,-3.9749,283.3429,148.2009,-14.1953,-7.382,-19.8743,-31.2301,68.7058,-21.0097,
614.9525,-102.776,-2.839,118.6743,280.8351,2.839,273.1219,144.7942,-18.7384,-18.7384,-32.366,-46.2301,53.7058,-28.9588,
629.9525,-98.8011,-5.6784,118.1067,275.9614,5.6784,275.9614,145.3619,-12.4917,-7.9492,-29.5265,-47.6967,56.7818,-20.4414,
644.9525,-99.3693,3.9749,103.9108,284.4782,-8.5174,278.8003,140.2511,-9.6528,-3.9749,-19.8743,-43.7224,61.8925,-23.2815,
659.9525,-105.6149,2.2713,106.7498,298.6741,-2.2713,274.8249,143.0912,-10.221,-3.4066,-26.1204,-55.6464,67.0022,-27.2558,
674.9525,-109.5898,-3.9749,112.9959,296.9705,3.9749,271.986,141.3876,-15.3318,-10.7892,-36.9091,-65.2997,59.6207,-28.9594,
689.9525,-107.3185,10.7887,109.5892,294.6992,-10.7887,277.6644,133.4373,-14.1959,-19.8738,-27.8235,-59.6213,53.9423,-34.6378,
704.9525,-113.5646,5.6779,94.5892,296.4028,-5.6779,263.4686,128.3276,-18.1702,-18.1702,-28.3906,-46.5619,61.3249,-32.9332,
719.9525,-120.3774,-9.3221,79.5892,281.4028,9.3221,253.2486,128.3282,-19.3061,-11.3564,-34.0691,-47.6967,52.2403,-23.8486,
734.9525,-105.3774,-15.3312,84.6047,273.1219,15.3312,254.9517,130.0301,-18.7384,-16.4677,-36.9086,-51.6726,37.2403,-34.6378,
749.9525,-101.0724,-5.6779,86.3083,283.9105,5.6779,261.1978,122.6497,-29.5271,-26.1199,-40.8829,-47.6972,36.3403,-49.6378,
764.9525,-103.3437,-7.9492,81.7663,273.6895,7.9492,266.8763,131.7343,-20.4414,-13.6282,-37.4762,-45.426,38.6116,-34.6378,
779.9525,-101.6401,-14.1953,82.3345,260.6301,14.1953,251.8763,132.3025,-19.8732,-14.1953,-34.6373,-56.2146,36.908,-28.9594,
794.9525,-111.8605,-8.5174,76.6566,254.9522,8.5174,245.8671,118.6749,-26.6876,-27.8229,-36.908,-71.2146,33.5019,-43.9594,
809.9525,-119.2426,-9.0851,71.5453,239.9522,9.0851,245.2984,120.3779,-24.9845,-24.9845,-47.6972,-71.5453,21.5773,-57.9177,
824.9525,-116.4031,-10.7881,73.2494,224.9522,23.2804,244.7307,131.1671,-23.2804,-19.8732,-45.9931,-56.5453,10.7881,-43.7224,
839.9525,-125.4881,-5.1102,77.792,212.9329,13.0599,244.7318,116.4041,-31.2301,-34.8732,-42.5859,-68.7058,5.1102,-58.7224,
854.9525,-121.5138,-1.1359,92.792,204.416,3.4066,245.2989,105.6144,-32.9337,-49.8732,-57.5859,-83.7058,1.1359,-73.7224,
869.9525,-106.5138,13.8641,107.792,189.416,17.6025,260.2989,120.6144,-24.4158,-36.908,-65.2986,-98.7058,-13.8641,-70.9776,
884.9525,-91.5138,28.8641,122.792,174.416,13.0599,275.2989,135.6144,-13.0599,-21.908,-50.5357,-113.7058,-28.8641,-66.4351,
899.9525,-78.3597,43.8641,137.792,159.416,-1.9401,290.2989,143.0906,1.9401,-14.763,-59.0531,-128.7058,-43.8641,-77.2232,
914.9525,-89.1478,58.8641,152.792,144.416,-16.9401,305.2989,140.2517,16.9401,-23.2809,-74.0531,-143.7058,-58.8641,-92.2232,
929.9525,-75.5202,73.8641,167.792,129.416,-25.5522,320.2989,155.2517,13.0599,-13.0599,-59.0531,-158.7058,-73.8641,-84.6053,
944.9525,-72.6812,88.8641,182.792,144.416,-27.2558,333.879,162.3967,11.3564,-11.3564,-57.9182,-162.3973,-88.8641,-96.5298,
959.9525,-87.6812,103.8641,197.792,129.416,-42.2558,328.2011,147.3967,20.4414,-20.4414,-72.9182,-177.3973,-103.8641,-111.5298,
974.9525,-93.1232,118.8641,212.792,114.416,-54.5111,330.4713,140.8199,21.5773,-21.5773,-72.6812,-192.3973,-118.8641,-118.1072,
989.9525,-92.555,133.8641,227.792,129.416,-49.4003,335.5826,145.9301,18.7379,-18.7379,-64.1638,-207.2545,-122.0815,-109.5892,
1004.9525,-107.3185,126.6235,242.792,141.3876,-61.8925,320.8186,139.1158,17.6025,-17.6025,-65.2997,-198.1699,-114.1323,-118.6749,
1019.9525,-99.3683,118.6754,248.1384,144.7953,-46.8925,305.8186,141.3881,15.3312,-15.3312,-56.2141,-183.1699,-103.9108,-106.1821,
1034.9525,-91.4196,105.0467,233.1384,137.981,-31.8925,291.292,142.5235,9.6533,-23.2809,-65.2997,-168.6428,-109.5898,-100.5047,
1049.9525,-106.1826,90.0467,218.1384,122.981,-16.8925,276.292,128.8959,-1.7036,-31.2296,-80.2997,-167.5069,-122.0815,-110.7252,
1064.9525,-109.5892,75.0467,203.1384,122.0815,-1.8925,261.292,126.6241,-15.3312,-28.9588,-81.1986,-152.5069,-117.539,-106.1826,
1079.9525,-102.2078,60.0467,188.1384,137.0815,13.1075,246.292,134.0061,-30.3312,-32.9337,-88.5796,-137.5069,-104.479,-93.1221,
1094.9525,-103.3431,45.0467,173.1384,152.0815,28.1075,231.292,135.142,-21.5773,-28.3906,-86.3083,-122.5069,-89.479,-78.1221,
1109.9525,-101.6401,30.0467,158.1384,167.0815,43.1075,219.7467,135.7091,-9.6533,-30.0942,-74.3843,-107.5069,-74.479,-75.5207,
1124.9525,-86.6401,16.4666,143.1384,182.0815,58.1075,233.3743,150.7091,-17.6019,-16.4666,-59.3843,-92.5069,-59.479,-60.5207,
1139.9525,-71.6401,2.2713,128.1384,197.0815,73.1075,222.5862,165.7091,-17.0343,-4.542,-44.3843,-77.5069,-44.479,-45.5207,
1134.5068,-86.6401,-12.7287,113.1384,212.0815,88.1075,207.5862,150.7091,-13.6276,-17.0348,-45.4254,-62.5069,-29.479,-30.5207,
1119.5068,-101.6401,-27.7287,98.1384,227.0815,102.2077,192.5862,135.7091,-28.6276,-32.0348,-57.9177,-47.5069,-14.479,-45.5207,
1104.5068,-116.6401,-42.7287,83.1384,242.0815,117.2077,177.5862,140.2517,-43.6276,-31.2296,-59.6213,-32.5069,0.52098,-40.3147,
1089.5068,-131.6401,-57.7287,68.1384,257.0815,132.2077,162.5862,125.2517,-58.6276,-46.2296,-74.6213,-17.5069,15.521,-25.3147,
1074.5068,-146.6401,-72.7287,53.1384,272.0815,147.2077,147.5862,110.2517,-73.6276,-61.2296,-78.9274,-2.5069,30.521,-16.4671,
1059.5068,-161.6401,-87.7287,38.1384,287.0815,162.2077,132.5862,97.6652,-88.6276,-67.0028,-69.2735,12.4931,45.521,-1.4671,
1044.5068,-176.6401,-102.7287,23.1384,302.0815,177.2077,117.5862,99.3683,-103.6276,-63.0279,-63.0279,27.4931,60.521,13.5329,
1029.5068,-191.6401,-117.7287,8.1384,317.0815,192.2077,102.5862,84.3683,-118.6276,-78.0279,-56.2141,42.4931,75.521,28.5329,
1014.5068,-206.6401,-132.7287,-6.8616,332.0815,207.2077,87.5862,69.3683,-133.6276,-88.5801,-53.3751,57.4931,90.521,43.5329,
999.5068,-221.6401,-147.7287,-21.8616,347.0815,222.2077,72.5862,54.3683,-148.6276,-94.8263,-38.3751,72.4931,105.521,58.5329,
984.5068,-236.6401,-162.7287,-36.8616,362.0815,237.2077,57.5862,39.3683,-163.6276,-109.8263,-28.3912,87.4931,120.521,73.5329,
969.5068,-221.6401,-177.7287,-51.8616,377.0815,252.2077,42.5862,40.8829,-178.6276,-124.8263,-40.8829,102.4931,135.521,88.5329,
964.1604,-206.6401,-192.7287,-66.8616,392.0815,267.2077,27.5862,55.8829,-173.7536,-126.0564,-55.8829,117.4931,150.521,73.5329,
979.1604,-191.6401,-189.652,-52.2398,377.0815,252.2077,42.5862,70.8829,-158.7536,-111.0564,-56.7823,102.4931,135.521,58.5329,
994.1604,-176.6401,-174.652,-37.2398,362.0815,237.2077,57.5862,85.8829,-143.7536,-96.0564,-41.7823,87.4931,120.521,43.5329,
1009.1604,-161.6401,-159.652,-22.2398,347.0815,222.2077,72.5862,100.8829,-128.7536,-83.4699,-56.7823,72.4931,105.521,28.5329,
1024.1604,-146.6401,-144.652,-7.2398,332.0815,207.2077,87.5862,115.8829,-113.7536,-69.8423,-71.7823,57.4931,90.521,13.5329,
1039.1604,-131.6401,-129.652,7.7602,317.0815,192.2077,102.5862,130.8829,-98.7536,-70.9776,-86.7823,42.4931,75.521,-1.4671,
1054.1604,-116.6401,-114.652,22.7602,302.0815,177.2077,117.5862,145.8829,-83.7536,-64.1638,-101.7823,27.4931,60.521,-16.4671,
1069.1604,-101.6401,-99.652,37.7602,317.0815,162.2077,132.5862,160.8829,-68.7536,-72.1135,-116.7823,12.4931,45.521,-31.4671,
1084.1604,-86.6401,-84.652,52.7602,332.0815,147.2077,147.5862,159.5578,-53.7536,-87.1135,-131.7823,-2.5069,30.521,-46.4671,
1099.1604,-71.6401,-69.652,67.7602,347.0815,132.2077,159.5572,144.5578,-61.8931,-102.1135,-146.7823,-17.5069,15.521,-61.4671,
1114.1604,-56.6401,-54.652,82.7602,362.0815,137.981,151.6086,149.3378,-67.5699,-112.9964,-133.4379,-32.5069,0.52098,-76.4671,
1129.1604,-41.6401,-39.652,97.7602,377.0815,152.981,147.6332,164.3378,-67.0028,-106.7503,-128.3276,-47.5069,-14.479,-91.4671,
1144.1604,-26.6401,-42.587,82.7602,392.0815,167.981,141.3876,169.7782,-63.0279,-105.0472,-119.8102,-62.5069,-29.479,-88.0124,
1159.1604,-11.6401,-57.587,67.7602,407.0815,182.981,126.3876,154.7782,-78.0279,-120.0472,-121.5138,-77.5069,-29.5265,-102.2083,
1174.1604,3.3599,-72.587,52.7602,422.0815,197.981,111.3876,139.7782,-93.0279,-135.0472,-113.5641,-92.5069,-14.5265,-114.7006,
1189.1604,18.3599,-87.587,37.7602,437.0815,212.981,115.8359,152.1763,-97.6647,-132.8696,-113.5641,-107.5069,0.47347,-99.7006,
1204.1604,33.3599,-97.6652,22.7602,452.0815,227.981,130.8359,167.1763,-96.5298,-124.9205,-118.1072,-92.5069,4.5425,-84.7006,
1219.1604,48.3599,-95.3934,7.7602,467.0815,242.981,137.4127,152.1763,-101.0724,-137.4127,-112.4282,-90.8509,13.6276,-89.7155,
1234.1604,63.3599,-80.3934,-2.2713,482.0815,257.981,152.4127,152.1763,-102.2072,-145.3619,-116.9713,-105.8509,2.2713,-102.2072,
1249.1604,78.3599,-65.3934,12.7287,497.0815,272.981,167.4127,166.3716,-103.9113,-147.066,-131.9713,-120.8509,-12.7287,-92.5544,
1264.1604,93.3599,-50.3934,27.7287,512.0815,287.981,182.4127,153.8798,-105.0472,-161.829,-146.9713,-135.8509,-27.7287,-107.5544,
1279.1604,108.3599,-35.7727,35.7727,527.0815,302.981,193.6274,138.8798,-120.0472,-176.829,-161.9713,-150.8509,-42.7287,-122.5544,
