"AF3","AF4","F3","F4","F7","F8","FC5","FC6","O1","O2","P7","P8","T7","T8",
-1.8809,8.4657,13.1697,20.695,-47.9739,-0.94044,0.94044,14.1101,10.3475,-8.4657,-10.3475,-4.7031,-21.6354,31.0425,
-0.47067,9.8768,25.8678,24.9274,-49.385,-7.9959,0.47067,15.5212,7.9959,-6.1142,-9.8768,-15.5212,-36.6354,34.3344,
-3.2924,7.0551,39.038,28.6905,-55.9694,-16.4612,3.2924,13.6399,9.8773,-3.2924,-14.5803,-30.5212,-51.6354,26.8096,
-4.2333,4.2333,37.1566,27.7496,-61.6134,-20.2243,4.2333,9.8768,6.1142,-7.9959,-21.1647,-23.9869,-46.5628,19.2839,
-0.47067,0.47067,28.69,25.8678,-67.2578,-17.4021,7.0546,12.699,7.0546,-2.3515,-18.3434,-8.9869,-42.8006,22.1052,
-1.8813,-0.94088,22.5754,26.338,-65.8467,-15.9914,7.5248,12.2288,11.2875,0.94088,-24.4572,-21.6359,-57.8006,25.3976,
-1.8809,6.5848,19.7545,31.9829,-53.6179,-5.6435,0,15.9919,12.2293,0,-25.3981,-17.8728,-53.6179,27.2798,
-6.5848,-2.8222,10.3475,32.9233,-68.6179,-7.5253,2.8222,19.7536,17.8728,5.6435,-14.1101,-12.2284,-45.1521,37.6264,
-3.7631,-5.644,1.8813,39.5077,-83.6179,-7.5257,7.5248,28.2198,26.3389,20.6435,-3.7631,-1.8813,-45.1521,44.2108,
-3.2924,-0.47022,-1.4116,41.8593,-68.6179,-10.8177,0.47022,28.6905,17.4025,16.4612,-4.2329,4.2329,-44.6819,29.2108,
-4.2333,-4.2333,7.0555,39.0375,-53.6179,-19.2839,3.292,23.0465,12.699,3.292,-3.292,-10.7671,-40.9188,23.9869,
-1.4111,1.4111,16.4617,36.2162,-43.7406,-11.7577,7.9959,18.3434,11.7586,-1.4111,-1.4111,-15.5203,-25.9188,34.3344,
-1.8818,4.7031,15.991,31.0416,-36.686,-5.6444,0,20.6941,6.5848,0,-10.3475,-5.6444,-39.5082,21.6354,
0.94044,0.94044,0.991,20.6941,-39.5082,-10.3475,-12.2293,23.5163,0,0,-25.3475,-11.2879,-54.5082,9.4062,
4.2333,1.4111,-3.292,23.0465,-43.7406,-11.7577,-1.4111,23.0465,9.8777,4.2333,-16.4617,-17.4021,-39.5082,24.4062,
-5.1733,-3.2924,7.0551,30.5713,-45.6224,-19.2834,6.1146,15.5208,17.4026,3.2924,-7.9955,-22.1056,-38.0971,36.2158,
0.47067,-3.2929,8.9364,29.6305,-30.6224,-13.6395,-0.47067,17.4021,7.9959,3.292,-14.5808,-7.1056,-35.2749,23.9869,
-0.94044,-13.1697,6.5848,15.991,-30.1011,-15.991,0.94044,13.1697,0.94044,-1.8809,-23.5163,0.94044,-32.9233,15.0506,
-4.7035,-1.8813,21.5848,28.2198,-45.1011,-16.9319,8.4662,15.051,15.9404,1.8813,-10.347,-2.8218,-29.1602,24.4572,
-11.7581,-3.2924,18.343,35.2744,-48.4446,-17.4026,3.2924,17.4026,21.1652,3.2924,-6.1146,-7.0551,-37.1566,34.334,
-10.8177,-18.2924,20.2239,37.1562,-53.1476,-23.0465,11.7581,22.1056,23.9865,10.8177,-15.5208,-12.6995,-43.741,40.9188,
-3.7626,-15.991,22.5758,31.9829,-55.4992,-30.1011,10.3475,18.8132,13.1697,3.7626,-29.1607,-27.6995,-47.9739,25.9188,
-1.4111,-1.4111,12.699,27.7496,-45.6228,-21.1656,5.1737,20.2243,12.699,1.4111,-14.1607,-29.6314,-32.9739,21.1647,
-7.9955,-9.8773,2.352,27.75,-47.5037,-23.9865,-2.352,19.2834,17.4025,7.9955,0.83931,-14.6314,-23.9865,30.5713,
-3.2924,-11.7581,3.2924,26.8087,-48.4441,-32.4531,-8.9359,11.7581,9.8773,7.0551,-14.1607,0.36864,-38.9865,24.9278,
7.9955,0.47022,3.2924,25.8683,-35.2753,-23.047,-0.47022,12.6986,9.8764,-0.47022,-22.1056,-8.9368,-41.8602,18.343,
8.9359,3.2924,-3.2924,27.7491,-33.3935,-9.8773,-0.47022,26.8087,13.639,-7.0551,-18.343,0.47022,-26.8602,21.1643,
6.5839,-1.8818,4.7031,33.8638,-48.3935,-13.1697,-5.6444,31.0416,16.9314,0,-22.5758,0,-37.6269,28.2194,
6.5844,-0.94088,3.7622,33.8642,-63.3935,-14.1097,-9.4066,25.3976,13.1692,0.94088,-24.4572,-15,-52.6269,24.4572,
2.8222,11.2879,0.94044,35.7455,-52.6774,-0.94044,-5.6444,33.8638,11.2879,-0.94044,-14.1101,-4.7031,-38.5673,28.2203,
-8.4657,0.94044,9.4062,39.5082,-67.6774,-10.3475,-0.94044,43.2708,17.8728,4.7031,-11.2879,-2.8222,-38.5673,34.8042,
-6.1146,-5.1733,15.5208,39.9784,-71.0204,-7.0551,-1.4107,45.6219,22.1056,14.5803,-8.9359,1.4107,-38.0971,36.2158,
-10.347,-2.8218,6.5844,29.1611,-67.728,-9.4066,-6.5844,31.042,15.051,3.7631,-11.2875,2.8218,-31.9824,28.2198,
-10.8177,0.47022,19.2843,37.1562,-69.1386,-15.5208,0.47022,27.75,19.2843,-0.47022,-16.4612,-12.1782,-35.2749,36.2158,
-4.2329,-0.47022,32.4531,42.7997,-58.792,-8.9368,0.47022,28.6905,20.2239,3.2924,-18.343,-26.8092,-41.8597,34.334,
-0.47022,-3.2924,39.9784,40.9188,-65.3764,-10.8177,0.47022,27.7491,26.8087,8.9359,-7.9955,-33.394,-56.8597,28.6905,
-3.2924,-6.1137,43.741,44.6815,-80.3764,-22.1056,3.2924,27.75,30.5722,10.8177,-7.9955,-34.334,-71.8597,35.2753,
0,-6.5848,37.6264,44.2113,-90.3038,-26.3385,0,28.2203,26.3385,9.4071,-22.9955,-19.7541,-63.9653,37.6264,
0.94044,-8.4657,31.9829,35.7455,-75.3038,-28.2203,-6.5848,25.398,20.695,6.5848,-18.8132,-4.7541,-48.9653,22.6264,
-6.1142,-6.1142,23.9869,32.4536,-75.7235,-25.8678,-8.9364,24.9283,15.5212,7.9959,-7.0546,6.1142,-43.7406,21.1656,
-3.7626,-0.94044,26.3385,46.093,-90.7235,-15.9914,-0.94044,31.9829,26.3385,14.1101,-9.4062,0.94044,-50.7957,36.1656,
-1.4111,1.4111,33.394,42.8002,-81.3674,-14.5799,-9.8768,25.8687,19.2839,5.1737,-18.3425,-1.4111,-56.9098,32.4536,
0,0,31.982,27.8002,-66.3674,-16.9323,-14.1101,21.6354,6.5848,-2.8222,-16.9323,13.1688,-47.9743,17.4536,
-2.8218,-5.644,22.5763,28.2198,-78.0755,-21.635,-10.347,17.8723,9.4066,2.8218,-22.5763,12.2288,-47.9739,23.5167,
-2.3515,1.4111,18.3434,37.1566,-77.6048,-18.3425,-19.2839,17.4021,8.9364,-1.4111,-25.8678,5.1737,-42.8002,25.8687,
-2.8222,6.5848,28.2203,38.5677,-65.8462,-13.1688,-14.1101,21.6354,10.3475,-5.6435,-15.0506,2.8222,-29.1607,21.6354,
-7.9959,3.292,34.3344,28.69,-59.7325,-18.3434,-9.8768,17.4021,14.5799,-2.3515,-10.8182,2.3515,-17.4021,17.4021,
-1.4107,-0.47022,36.2158,25.8683,-56.9103,-17.4026,-7.9955,15.5208,14.5803,0.47022,-4.2329,5.1733,-15.5208,17.4026,
7.5253,-4.7031,39.5082,29.1607,-52.677,-15.0506,-0.94044,19.7545,12.2293,-0.94044,-1.8809,0.94044,-23.5163,26.3385,
-0.94044,0.94044,29.1607,20.695,-47.0335,-15.991,-12.2284,14.1101,2.8222,-6.5848,-16.8809,2.8222,-18.8132,28.2203,
-13.1697,3.7626,21.6354,15.0506,-54.5587,-15.991,-11.2879,12.2284,3.7626,-3.7626,-21.6354,14.1101,-30.1011,22.5758,
-8.4662,-2.8218,27.2794,24.4572,-48.9148,-7.5257,-0.94088,24.4572,8.4662,0.94088,-16.9319,20.6945,-45.1011,20.6945,
-0.47022,0.47022,28.6905,23.0461,-33.9148,-2.352,-7.0551,23.9865,4.2329,-5.1742,-16.4621,10.8177,-40.9193,23.0461,
4.2329,12.6995,36.2158,21.1652,-35.2744,-7.9955,-3.2924,12.6995,3.2924,-7.0551,-9.8773,-4.1823,-30.5713,19.2834,
5.6444,8.4657,38.5677,27.2789,-41.3895,-13.1697,-3.7626,6.5848,3.7626,-6.5848,-15.991,-18.8132,-35.7455,8.4657,
3.2924,-0.47022,29.6309,30.5713,-41.8597,-11.7581,-3.2924,14.5803,12.6986,0.47022,-19.2834,-9.8773,-49.385,19.2834,
-1.4111,1.4111,14.6309,18.3425,-51.2668,-11.7586,-9.8777,18.3425,5.1737,-3.2929,-16.4617,3.292,-52.2072,21.1647,
2.3511,7.9955,-0.36909,20.2239,-50.3259,-9.8773,-8.9368,21.1643,0.47022,-4.2329,-15.5217,12.6986,-37.2072,20.2239,
-4.2324,-2.3515,14.6309,33.394,-65.3259,-24.8773,-6.1142,18.3434,13.6404,2.3515,-14.5799,4.2333,-52.2072,27.7496,
-5.1737,-1.4111,23.0465,30.5718,-74.7826,-29.6305,-12.699,13.6404,12.699,1.4111,-10.8173,3.2929,-66.3164,28.6909,
-3.2929,1.4111,8.9364,23.9869,-66.3173,-14.6305,-18.3434,18.3425,4.2324,-1.4111,-18.3434,12.699,-55.0294,17.4021,
-6.5844,-5.644,12.2288,26.3389,-66.7871,-13.1692,-19.7541,20.6945,5.644,11.2884,-24.4572,20.6945,-56.4396,14.1106,
-4.704,-3.7626,11.2879,21.6354,-65.8467,-23.5172,-18.8132,14.1101,3.7626,8.4657,-16.9323,31.982,-44.2117,22.5758,
-3.2929,-1.4111,-3.7121,19.283,-62.5547,-29.6314,-3.8132,14.5799,10.8173,2.3515,-1.9323,29.6305,-29.2117,30.5709,
-11.2884,-5.644,-18.7121,24.4572,-65.8467,-28.2198,-0.94088,15.9914,11.2884,2.8218,0.94088,18.8137,-14.2117,20.6945,
-4.7031,-1.8809,-33.7121,31.0425,-61.1431,-15.991,-0.94044,21.6354,13.1697,9.407,0.94044,33.8137,-26.3385,26.3385,
7.5253,-0.94044,-18.7121,25.398,-57.3805,-7.5253,-1.8818,17.8728,13.1697,0.94044,-6.5848,48.8137,-25.398,40.4486,
9.8768,-2.3515,-26.8092,20.2243,-42.8002,3.2929,-2.3515,13.6395,2.3515,-8.9364,-7.0546,33.8137,-10.398,37.1566,
1.4107,-9.8773,-33.3936,19.2834,-39.9784,0.47022,1.4107,7.0551,-0.47022,-4.2329,-3.2924,19.2834,-5.1742,25.8683,
7.9955,-6.1146,-18.3936,25.8683,-41.8597,-7.9955,-2.352,11.7581,12.6995,2.352,-11.7581,13.6399,-8.9359,23.9874,
14.1097,0.94088,-4.7035,32.9229,-41.3895,-9.4066,-1.8813,26.3389,26.3389,11.2875,-0.94088,-1.3601,-3.7631,34.8047,
0.94044,-8.4657,-17.8728,23.5163,-47.0335,-22.5758,-0.94044,18.8132,15.0506,12.2284,4.7031,-16.3601,-18.7631,35.7455,
4.2333,0.47067,-32.8728,13.6395,-32.4527,-13.6395,-3.292,13.6395,0.050562,2.3515,-10.2969,-1.3601,-33.7631,25.8678,
11.7581,6.1146,-37.1562,14.5803,-25.8683,-2.352,-4.2329,18.343,2.352,-7.0551,-25.2969,13.6399,-36.2158,15.5208,
15.991,5.6435,-25.398,27.2789,-32.9233,-3.7626,3.7626,28.2194,11.2879,-3.7626,-17.8728,-1.3601,-21.2158,20.6941,
11.2884,5.644,-23.5167,21.635,-42.3299,-6.5844,1.8813,18.8137,4.7035,-1.8813,-9.4066,-16.3601,-28.2198,23.5167,
11.2884,0.94088,-23.5167,15.051,-27.3299,-4.7035,-3.7622,11.2884,0.94088,-0.94088,-18.8137,-1.3601,-43.2198,16.9319,
22.1061,-1.4111,-28.69,8.9364,-12.3299,1.4111,-14.5799,14.5799,-8.9364,-15.9409,-33.8137,13.6399,-50.3254,5.1737,
36.686,13.5889,-26.3385,0.94044,2.6701,9.4071,-13.1688,14.1101,-12.2284,-24.4567,-37.6264,-0.94044,-40.4486,6.5848,
51.686,28.5889,-17.4025,-0.47022,17.6701,24.4071,0.47022,11.7581,-13.6399,-20.2239,-38.0966,-15.9404,-38.0966,5.1733,
66.686,43.5889,-9.8773,4.2329,32.6701,39.4071,11.7581,23.0461,-24.9278,-25.8683,-42.8006,-28.6905,-37.1562,-4.2329,
81.686,58.5889,0,0,47.6701,54.4071,7.5253,35.7455,-27.2789,-37.6264,-43.2708,-23.5163,-52.1562,-5.6435,
96.686,73.5889,6.1142,-1.4111,62.6701,69.4071,1.4111,33.394,-34.3344,-44.6819,-49.385,-27.7496,-55.9698,-1.4111,
111.686,88.5889,8.4657,-8.4657,77.6701,84.4071,14.1101,19.7536,-49.3344,-58.3214,-64.385,-42.7496,-70.9698,-15.9919,
126.686,103.5889,17.8728,-17.8728,92.6701,99.4071,29.1101,24.4567,-58.3214,-63.9658,-79.385,-52.6779,-85.9698,-30.9919,
141.686,118.5889,17.4021,-17.4021,107.6701,114.4071,26.8092,38.0971,-48.4446,-56.9103,-67.2578,-37.6779,-74.783,-33.394,
156.686,133.5889,10.3475,-10.3475,122.6701,125.1085,15.991,26.3385,-44.2113,-54.5587,-73.3719,-52.6779,-71.4902,-28.2203,
171.686,148.5889,4.7031,-4.7031,137.6701,117.5832,17.8728,11.3385,-46.0921,-56.4396,-86.5412,-67.6779,-70.5497,-22.5758,
186.686,163.5889,0.94044,-0.94044,152.6701,122.2863,32.8728,26.3385,-31.9829,-41.4396,-71.5412,-52.6779,-55.5497,-8.4657,
197.0698,148.5889,-6.1146,-0.47022,167.6701,107.2863,34.334,37.1562,-21.1652,-26.4396,-56.5412,-37.6779,-40.5497,-3.2924,
182.0698,133.5889,-8.9364,1.4111,182.6701,92.2863,19.334,24.9283,-23.9869,-17.4021,-45.6224,-22.6779,-25.5497,-2.3515,
167.0698,118.5889,-14.1097,-0.94088,197.6701,77.2863,4.334,10.347,-20.6945,-29.1602,-34.8047,-20.6945,-27.2794,0.94088,
152.0698,103.5889,-28.2203,0,212.6701,62.2863,-10.3475,6.5839,-18.8132,-28.2203,-44.2113,-5.6945,-42.2794,2.8213,
137.0698,88.5889,-20.695,9.4062,197.6701,47.2863,-10.3475,13.1688,-8.4657,-13.2203,-41.389,9.3055,-50.7961,8.4657,
122.0698,73.5889,-10.3475,15.991,182.6701,32.2863,-7.5253,15.0506,2.8222,-2.8222,-26.389,18.8132,-35.7961,13.1697,
107.0698,58.5889,-25.3475,11.7586,167.6701,17.2863,-19.2839,16.4617,3.292,-3.292,-11.389,33.8132,-20.7961,19.2839,
92.0698,43.5889,-29.6309,16.4612,152.6701,2.2863,-10.8177,25.8683,7.0551,11.708,-5.1733,48.8132,-5.7961,31.5127,
77.0698,28.5889,-17.8728,24.4576,137.6701,-12.7137,-5.6444,22.5758,7.5253,12.2284,-9.4071,33.8132,5.6444,31.0416,
62.0698,13.5889,-20.6945,29.1602,122.6701,-18.8137,-12.2288,17.8723,12.2288,3.7631,-3.7631,31.9824,20.6444,31.042,
47.0698,-1.4111,-24.9274,33.394,107.6701,-15.5212,-15.5212,25.8678,6.1142,4.2333,-4.2333,38.0971,24.9274,29.6305,
32.0698,-4.2333,-23.0465,25.8678,92.6701,-0.52123,-18.3434,35.2749,-2.3515,2.3515,-5.1737,25.8678,36.2153,23.9869,
17.0698,-14.1101,-25.398,23.5163,77.6701,-12.2284,-10.3475,28.2203,10.3475,0.94044,-0.94044,30.1011,21.6354,38.9869,
2.0698,-25.3976,-32.9233,30.1016,62.6701,-27.2284,-6.5844,15.9914,15.9914,5.644,-5.644,45.1011,6.6354,53.9869,
-12.9302,-23.5163,-28.2203,19.7536,47.6701,-19.7536,-8.4657,8.4657,7.5253,6.5848,-6.5848,45.1517,11.2879,47.0335,
-27.9302,-26.3385,-16.9323,13.1688,32.6701,-9.407,-2.8222,13.1688,8.4657,0.94044,0.94044,36.686,-0.94044,32.0335,
-42.9302,-11.3385,-17.403,22.1052,17.6701,-1.4111,-1.4111,26.8083,9.8768,-1.4111,1.4111,51.686,7.9951,28.69,
-46.0926,-7.5257,-23.5167,22.5763,2.6701,-4.7035,-1.8813,19.7541,10.347,1.8813,-8.4662,45.1521,22.5763,32.9229,
-56.9107,-22.5257,-21.1652,21.1643,-12.3299,-17.4025,-8.9368,7.9955,17.4017,7.0551,-7.0551,30.1521,7.9955,30.5713,
-55.4992,-27.2789,-23.5163,15.0506,-27.3299,-23.5163,-10.3475,8.4657,13.1697,2.8222,-1.8818,22.5758,1.8818,23.5163,
-56.4401,-16.9319,-36.6855,4.7035,-42.3299,-22.5763,-5.644,10.347,6.5844,2.8218,-2.8218,37.5758,15.9914,22.5763,
-59.2623,-26.3389,-40.4491,10.347,-57.3299,-15.051,-11.2884,13.1692,9.4066,5.644,-5.644,52.5758,7.5248,28.2198,
-45.6219,-23.0461,-25.4491,25.347,-72.3299,-4.2329,-4.2329,26.8096,23.9874,18.343,4.2329,67.5758,-6.1137,38.0975,
-49.385,-17.4026,-25.8683,10.347,-87.3299,-15.5208,-13.6399,13.6399,8.9874,5.1742,-3.2924,65.3764,7.9955,23.0975,
-39.5082,-6.5848,-33.8638,-1.8809,-102.3299,-0.94044,-7.5253,19.7536,1.8818,2.8222,0.94044,80.3764,22.9955,37.6264,
-48.9148,-15.0506,-30.1011,3.7626,-111.9392,-0.94044,-12.2293,17.8728,5.6435,0.94044,-8.4666,71.4902,32.9233,35.7455,
-52.6774,-14.1101,-28.2203,0,-104.414,0,-15.0506,15.991,0,1.8818,-12.2284,70.5497,37.6264,20.7455,
-41.8593,-13.639,-32.4531,-4.2329,-103.9433,6.1146,-3.2924,21.1652,-0.47022,7.0551,0.47022,78.5461,42.8006,25.8683,
-46.5632,-17.4025,-30.5713,0.47022,-107.7064,-2.352,-6.1146,19.2834,4.2329,1.4107,-0.47022,63.5461,29.6309,39.038,
-49.8552,-9.4066,-24.4572,8.4662,-96.8882,-4.7026,-11.2875,12.2288,5.644,1.8813,-1.8813,56.4401,36.6864,39.5086,
-46.5628,-12.699,-32.4527,1.4111,-103.0029,-4.2333,-12.699,2.3515,-1.4111,3.292,1.4111,71.4401,38.0971,27.7496,
-39.9779,-10.8173,-28.69,-1.4111,-98.2998,4.2333,-13.6395,6.1142,-3.292,2.3515,1.4111,86.4401,43.7406,32.4527,
-45.6224,-11.7586,-15.5212,5.1737,-97.3589,3.292,-11.7586,12.699,0.47067,-0.47067,-6.1142,71.4401,28.7406,38.0971,
-49.3854,-14.5808,-22.1061,11.7577,-108.6473,-2.3515,-9.8777,7.9951,2.3515,5.1737,-8.9364,56.4401,13.7406,27.7496,
-47.5037,-7.0551,-33.3935,12.6986,-109.5877,-6.1146,-4.2329,4.2329,6.1146,7.0551,-7.0551,42.8006,28.7406,19.2834,
-50.7961,-12.2284,-28.2203,14.1101,-121.3458,-14.1101,0,11.2879,11.2879,0,-11.2879,29.1607,13.7406,21.6354,
-35.7961,-6.5848,-19.7536,20.695,-121.3458,-0.94044,-7.5253,25.398,11.2879,3.7626,-7.5253,35.7455,0.94044,31.0416,
-38.5673,-8.4662,-30.1016,11.2875,-120.4054,-4.7035,-12.2288,15.0501,8.4662,4.7035,-5.644,49.8552,15.9404,26.338,
-53.5673,-23.4662,-30.5718,11.7586,-134.9857,-19.7035,-4.2333,5.1737,9.8768,4.2333,-11.7586,48.4446,8.9364,26.8092,
-46.0926,-17.8723,-19.7541,22.5763,-126.9898,-20.6945,-3.7631,15.9914,12.2288,14.1097,-8.4662,50.7957,3.7631,40.4491,
-34.3349,-12.6995,-28.6905,13.639,-112.4099,-7.0551,-10.8177,15.5208,7.0551,12.6986,-11.759,38.0966,9.8764,34.334,
-37.1566,-12.699,-36.2153,7.0546,-106.7655,0.47067,-9.8768,13.6395,-0.47067,2.3515,-19.2839,29.6314,14.5799,21.1647,
-42.8006,-9.8773,-22.1056,21.1652,-114.2912,0.47022,-7.0551,23.0461,7.9955,2.352,-9.8773,35.2744,-0.4201,28.6905,
-39.5082,-7.5253,-12.2293,32.9233,-127.9307,-9.4071,-7.5253,23.5163,22.9955,15.0506,5.1227,32.9233,-8.4666,42.3295,
-51.2663,-19.2834,-27.2293,17.9233,-134.0449,-18.343,-17.4025,8.5163,7.9955,5.1742,-4.2329,17.9233,6.5334,27.3295,
-49.8557,-18.8137,-34.8047,3.7622,-119.0449,-3.343,-12.2288,5.644,0.94088,1.8813,-11.2884,19.7541,21.5334,19.7541,
-47.0335,-20.695,-19.8047,10.3475,-110.9988,0,-25.3981,9.4062,0,0,-15.9919,27.2789,6.5848,25.398,
-47.9739,-16.9323,-12.2284,16.9323,-107.2357,-7.5253,-21.6354,17.8728,6.5848,12.2284,-6.5848,42.2789,12.2284,34.8051,
-61.1436,-19.7545,-19.7545,13.1688,-110.9988,-7.5253,-13.1697,13.1688,3.7626,11.2879,-3.7626,48.9143,22.5758,38.5668,
-53.6183,-17.8732,-23.5167,6.5844,-95.9988,2.8218,-20.6945,6.5844,-3.7631,2.8218,-2.8218,47.033,10.347,32.9229,
-46.5628,-15.5208,-13.6399,10.8177,-91.7149,-1.4107,-21.1652,11.7581,6.1146,11.7581,-0.47022,36.2158,0.47022,25.8683,
-55.9694,-15.5208,-20.2239,17.4025,-103.9433,-7.9955,-17.4025,14.5803,11.7581,17.4025,-11.7581,37.1562,7.9955,24.9278,
-56.9107,-22.1061,-35.2239,9.8768,-100.1811,-1.4111,-22.1061,7.9951,1.4111,5.1737,-17.403,49.385,7.0546,23.0456,
-48.4446,-31.5122,-33.394,7.0546,-99.2402,2.3515,-15.5212,8.9364,5.1737,4.2333,-2.403,44.6819,-7.0555,25.8678,
-46.5628,-27.7491,-26.8087,11.7581,-113.3503,-2.352,-13.6399,16.4621,13.6399,5.1742,2.352,34.334,-16.4612,28.6905,
-47.9739,-15.9914,-21.635,19.7541,-124.168,-6.5844,-14.1097,20.6945,24.4572,14.1097,4.7035,38.5673,-4.7035,34.8047,
-45.6219,-17.4021,-19.283,14.5808,-118.0534,-10.8173,-20.2243,11.7586,13.6404,16.4617,-2.3515,35.2749,2.3515,25.8687,
-30.6219,-10.347,-17.8723,15.9914,-103.0534,0.94088,-12.2288,14.1106,6.5853,13.1692,-3.7622,31.9824,-0.94088,30.1016,
-29.6309,-14.5803,-25.8683,7.9955,-92.6558,-4.2329,-15.5208,11.7581,7.0551,4.2329,-7.0551,22.1056,4.2329,24.9278,
-34.8047,-7.5257,-20.6945,8.4662,-96.8887,-9.4066,-22.5763,13.1692,6.5844,9.4066,-6.5844,30.1016,15.9914,18.8137,
-22.1052,1.4111,-7.0546,21.1647,-99.2402,-3.292,-13.6395,23.0465,8.9364,21.1647,-1.4111,31.5122,0.99145,29.6314,
-18.8128,1.8813,-12.2288,19.7541,-95.9478,-1.8813,-14.1097,18.8137,5.644,15.9914,-2.8218,19.7541,-14.0086,31.9824,
-31.5122,0.47067,-16.4617,6.1142,-83.2492,-4.2333,-25.8687,8.9364,-0.47067,4.2333,-8.9364,20.2243,0.47067,18.3425,
-34.8042,-3.7626,-6.5848,8.4657,-90.3038,-9.4071,-24.4576,5.6444,4.7031,9.407,-8.4657,21.6354,3.7626,17.8728,
-34.334,-5.1733,-5.1733,15.5208,-88.8927,-6.1146,-19.2834,7.0551,4.2329,9.8773,-3.2924,21.1652,3.2924,31.5127,
-39.038,-9.8773,-8.9368,9.8764,-76.6644,-5.1742,-21.1652,7.9955,4.2329,0.47022,-0.47022,8.9359,5.1733,27.7491,
-24.038,-6.5844,0.94088,18.8137,-72.4315,-0.94088,-16.9319,15.9914,14.1097,8.4662,3.7631,-3.7631,-1.8813,24.4572,
-19.7536,-3.7626,0,18.8132,-75.2533,8.4666,-20.6941,14.1101,8.4666,16.9323,-3.7626,0,0,27.2798,
-34.7536,-2.3511,-0.47022,7.9955,-68.1982,11.7581,-24.9278,9.8773,0.47022,8.9368,-3.2924,14.5803,-1.4107,23.9874,
-21.6354,7.5253,0.94044,6.5848,-55.4992,14.1101,-28.2203,10.3475,-0.94044,-0.94044,-2.8222,21.6354,-14.1101,16.9323,
-12.2293,9.4062,-0.94044,4.7031,-63.9653,10.3475,-25.398,5.6435,-0.94044,0.94044,-10.3475,7.5253,-18.8132,17.8728,
-19.7536,7.5253,2.8222,3.7626,-64.9058,9.4071,-22.5758,11.2879,-2.8222,7.5253,-10.3475,-2.8222,-10.3475,22.5758,
-12.699,10.8173,-4.2333,1.4111,-49.9058,13.6395,-28.69,17.4021,-7.9959,6.1142,-9.8768,8.9364,-1.4111,12.699,
-10.8177,3.2924,-9.8773,4.2329,-49.3854,5.1733,-24.9278,10.8177,-3.2924,4.2329,-9.8773,7.9955,-16.4111,3.2924,
-10.8173,5.1737,3.292,10.8173,-57.8512,5.1737,-23.9869,8.9364,0.47067,-1.4111,-8.9364,-0.47067,-26.8092,10.8173,
-14.1101,10.3475,7.5253,7.5253,-63.9653,3.7626,-30.1011,4.7031,-6.5848,-3.7626,-10.3475,14.5293,-16.9323,18.8132,
-20.695,0,4.7031,10.3475,-74.3124,-6.5848,-20.695,2.8222,0,9.4071,-11.2879,28.2203,-22.5758,20.695,
-16.4617,-4.2333,13.6395,20.2243,-67.2573,-10.8173,-17.4021,10.8182,7.9959,10.8182,-6.1142,13.2203,-20.2243,20.2243,
-8.4662,2.8218,28.6395,23.5167,-53.6179,-14.1097,-23.5167,11.2884,8.4662,3.7631,-2.8218,-1.7797,-9.4066,22.5763,
-10.3479,6.5844,43.6395,26.338,-51.737,-17.8732,-21.6359,6.5844,6.5844,5.644,-9.4066,-16.7797,-5.644,18.8128,
-15.0506,3.7626,43.2708,36.686,-63.0245,-11.2879,-7.5253,17.8728,16.9323,10.3475,-3.7626,-21.6354,-16.9323,18.8132,
-21.1652,-1.4107,48.4441,39.038,-66.3169,-10.8177,-9.8773,20.2248,18.343,11.7581,1.4107,-27.7496,-31.9323,19.2834,
-13.6395,7.9959,44.6819,35.2758,-51.3169,-11.7577,-17.4021,9.8777,5.1737,7.0555,-5.1737,-15.5203,-28.69,20.2243,
-1.4111,10.8182,43.7415,39.9788,-43.741,-19.2839,-7.0546,8.9364,10.8182,1.4111,-9.8768,-10.8173,-13.69,27.7496,
-2.3515,5.1737,50.3254,39.0375,-48.4441,-22.1052,-6.1142,8.9364,16.4617,2.3515,-6.1142,-24.9274,-12.699,23.9869,
-5.1742,5.1733,46.5623,26.8087,-39.9788,-14.5803,-18.343,3.2924,9.8764,6.1137,-3.2924,-33.3935,-27.699,20.2239,
1.8813,1.8813,44.2117,28.2198,-40.4486,-24.4572,-16.9319,-1.8813,14.1097,8.4662,-2.8218,-33.8642,-42.699,19.7541,
6.5844,1.8813,46.0926,31.042,-29.1602,-24.4572,-15.9914,-3.7631,14.1097,6.5844,-1.8813,-18.8642,-27.699,14.1097,
-3.2924,1.4107,42.8006,27.75,-23.9865,-13.6399,-14.5803,2.352,12.6995,7.9955,-3.2924,-3.8642,-18.343,23.0461,
-7.0546,7.0555,37.1566,31.5122,-23.0465,-17.4021,-15.5212,6.1142,12.699,8.9364,-13.6395,-6.1142,-33.343,25.8687,
-1.8813,13.1692,39.5086,29.1611,-15.9914,-24.4572,-18.8128,1.8813,9.4066,5.644,-10.347,-2.8218,-46.0926,17.8732,
-2.8222,2.8222,37.6264,26.3385,-29.1607,-31.9829,-14.1101,-2.8222,13.1688,4.7031,4.653,-5.6444,-42.3304,24.4567,
-6.5844,-0.94088,31.042,34.8047,-44.1607,-35.7451,-15.9914,-4.7035,16.9319,6.5853,0.94088,1.8813,-33.8638,27.2794,
-9.8764,3.2924,39.038,45.6228,-58.7916,-33.3936,-8.9359,-0.47022,21.1652,13.6399,-9.8764,0.47022,-43.7406,22.1056,
-10.3475,3.7626,42.3295,51.7365,-52.6774,-28.2203,-3.7626,5.6435,24.4576,14.1101,-3.7626,-14.5298,-47.9739,20.6941,
-16.9319,-1.8813,35.7451,42.3299,-53.6179,-32.9233,-13.1692,1.8813,20.6945,5.644,2.8218,-15.9914,-37.6264,19.7541,
-19.2839,-1.4111,44.6819,42.8002,-65.3764,-37.1562,-8.9364,1.4111,23.9869,10.8173,4.2333,-1.4111,-46.5628,25.8687,
-21.1647,3.292,43.7406,42.8002,-57.8507,-27.7496,-7.0546,-1.4111,19.2839,12.699,-7.9959,1.4111,-42.8002,22.1061,
-26.3385,1.8813,37.6269,38.5673,-43.2704,-21.635,-5.644,-1.8813,23.5167,15.051,-7.5248,6.5844,-32.9233,21.6359,
-24.4572,0,38.5677,38.5677,-48.9143,-28.2198,-8.4657,0,21.6354,7.5253,-10.3466,6.5848,-44.2108,24.4576,
-21.6354,4.7031,35.7455,39.5082,-48.9148,-23.5163,-15.991,0.94044,6.6354,-0.94044,-16.9323,12.2284,-32.9233,17.8728,
-23.5163,2.8222,25.398,40.4486,-38.5673,-21.6354,-12.2284,-2.8222,10.3475,6.5848,-10.3475,9.4071,-28.2194,16.9323,
-18.8137,5.644,10.398,41.3895,-24.4572,-19.7541,-12.2288,-0.94088,15.9914,9.4066,-8.4662,0.94088,-31.042,26.3389,
-23.9869,5.1737,0.47067,31.5122,-31.5122,-19.2839,-14.5799,-0.47067,8.9364,0.47067,-14.5799,1.4111,-24.9274,19.2839,
-24.4576,4.7031,11.2879,25.398,-46.0926,-16.9323,-15.0506,-3.7626,7.5253,3.7626,-15.991,8.4657,-28.2203,7.5253,
-16.4621,7.0551,11.7581,29.6309,-38.0975,-13.6399,-24.9278,0.47022,-0.47022,4.2329,-16.4621,19.2834,-43.2203,16.4612,
-19.2839,4.2333,13.6395,36.2153,-45.6224,-18.3425,-19.2839,7.0555,1.4111,-1.4111,-12.699,15.5212,-58.2203,18.3434,
-17.4021,5.1737,22.1061,33.394,-51.2659,-15.5203,-11.7577,5.1737,5.1737,-1.4111,-10.8173,7.9959,-51.2659,3.3434,
-8.4657,11.2879,22.5758,26.3385,-36.2659,-8.4657,-22.5758,0.94044,0,2.8222,-12.2293,15.0506,-36.2659,0,
-15.9914,7.5257,29.1611,26.3389,-29.1602,-8.4662,-29.1602,1.8813,-1.8813,3.7631,-14.1097,30.0506,-28.2198,12.2288,
-22.5758,6.5848,29.1607,20.6941,-35.7455,0.94044,-27.2798,8.4657,-2.8222,-0.94044,-19.7545,41.389,-32.9233,9.4062,
-18.343,4.2329,17.4026,16.4612,-37.1562,-1.4107,-24.9278,7.0551,-1.4107,1.4107,-18.343,29.6309,-22.1056,7.9955,
-15.9914,-4.7035,13.1692,23.5167,-28.2198,-15.9914,-25.3985,3.7622,-0.94088,0.94088,-8.4662,14.6309,-7.1056,15.9914,
-13.1697,0,28.1692,30.1011,-26.3385,-13.1697,-13.1697,14.1101,8.4657,0,-5.6444,0,7.8944,22.5758,
-22.1056,1.4107,30.5713,19.2834,-41.3385,-15.5217,-19.2843,9.8764,-0.47022,0.47022,-20.6444,1.4107,-7.1056,8.9359,
-21.1647,9.8768,20.2243,17.4021,-26.3385,-6.1142,-33.3931,3.2929,-9.8768,2.3515,-14.5799,13.6395,-2.3515,5.1737,
-18.8137,8.4662,16.9319,22.5763,-11.3385,-2.8218,-31.042,1.8813,-3.7622,-7.5248,-1.8813,1.8813,12.6485,9.4066,
-15.051,10.347,17.8723,21.635,-20.6945,-7.5257,-26.3389,3.7622,1.8813,-9.4066,-10.3479,-1.8813,5.644,5.644,
-16.9319,12.2288,19.7541,13.1692,-24.4572,-6.5844,-24.4572,1.8813,-1.8813,-3.7622,-15.9914,13.1187,19.7541,6.5853,
-27.2794,1.8813,25.3985,8.4662,-22.5754,-1.8813,-23.5167,1.8813,-11.2875,-13.1692,-13.1692,21.6359,23.5167,10.3479,
-29.6314,-0.47067,20.2243,2.3515,-13.6395,5.1737,-31.5122,3.292,-20.2243,-19.2839,-18.3425,15.5212,8.5167,0.47067,
-27.2798,2.8222,16.9314,4.7031,-17.8728,0.94044,-31.9829,3.7626,-8.4657,-5.6444,-18.8132,14.1101,0.94044,-0.94044,
-28.6905,3.2924,20.2239,13.6399,-30.5713,-3.2924,-30.5713,7.0551,-2.352,-1.4107,-15.5208,12.6986,1.4107,9.8773,
-26.3385,8.4657,17.8728,14.1101,-25.398,3.7626,-28.2203,9.4062,-5.6444,-6.5848,-14.1101,10.3475,-3.7626,15.0506,
-20.2243,5.1737,19.283,17.4021,-29.6314,-2.3515,-17.403,5.1737,1.4111,-1.4111,-11.7586,7.0546,-8.9364,7.9951,
-15.9914,7.5257,16.9319,16.9319,-33.8633,-2.8218,-22.5754,1.8813,-1.8813,-4.7026,-13.1692,17.8732,6.0636,6.5853,
-22.1061,13.6395,16.4617,5.1737,-35.2749,-1.4111,-35.2749,1.4111,-12.699,-16.4617,-15.5212,11.7586,6.1142,1.4111,
-16.4621,22.1056,28.6905,11.7581,-30.5713,5.1733,-31.5127,10.8177,-3.2924,-4.2329,-8.9359,20.2239,-0.47022,0.47022,
-15.5203,24.9283,22.1061,10.8182,-35.2749,7.0555,-35.2749,13.6395,-9.8768,-4.2324,-7.9951,35.2239,-1.4111,1.4111,
-30.5203,15.051,13.1692,4.7035,-43.2704,0.94088,-42.3299,6.5844,-15.9914,-15.0501,-8.4662,34.8047,-0.94088,6.5844,
-40.4482,9.4066,10.347,3.7631,-37.6269,-1.8813,-44.2108,4.7035,-17.8723,-15.9914,-15.9914,19.8047,8.4662,1.8813,
-36.686,7.5253,6.5848,4.7031,-38.5677,8.4657,-40.4486,13.1688,-15.0506,-8.4657,-19.7536,18.8132,7.5253,-4.7031,
-31.5122,8.9364,0.47067,6.1142,-39.0375,16.4617,-36.2153,17.4021,-9.8768,-8.9364,-18.3434,32.4527,3.292,-0.47067,
-40.4491,5.644,-1.8813,2.8218,-45.1521,3.7622,-38.5673,7.5248,-11.2884,-19.7541,-23.5167,21.635,1.8813,7.5248,
-36.6855,1.8813,13.1187,17.8218,-55.4992,-3.7622,-23.5673,9.4066,3.7116,-4.7541,-12.2288,9.4066,-5.644,22.5248,
-32.9233,0,15.991,17.8719,-46.093,0,-25.3981,4.7031,1.8809,0,-11.2888,5.6435,-4.704,14.1092,
-45.6219,0.47022,4.2329,2.8719,-37.1562,2.352,-39.038,-0.47022,-13.1191,-15,-20.2248,9.8773,0.47022,7.0551,
-42.8002,7.9959,12.699,10.8173,-45.6224,0.47067,-30.5718,7.9959,-0.47067,-5.1737,-12.699,24.8773,-5.1737,21.1647,
-29.1607,8.4657,-1.8809,11.2879,-48.9148,0.94044,-32.9233,4.7031,-1.8809,4.7031,-11.2879,31.0425,-0.94044,14.1101,
-22.1056,4.2329,-9.8773,3.2924,-43.741,4.2329,-34.334,3.2924,-9.8773,-3.2924,-16.4612,22.1056,4.2329,3.2924,
-18.343,13.6399,-2.352,7.0551,-41.8593,11.7581,-35.2753,18.2924,-9.8773,-11.7581,-13.6399,22.1056,2.352,6.1146,
-17.8723,20.6945,-4.7035,7.5257,-45.1521,16.9319,-35.7451,24.4572,-5.644,-2.8218,-9.4066,33.8642,3.7631,2.8218,
-11.2875,22.5763,-2.8218,4.7035,-31.042,22.5763,-31.9824,21.6359,-2.8218,2.8218,-4.7035,38.5673,18.7631,-3.7622,
-10.3475,23.5163,-3.7626,0,-16.042,29.1607,-38.5677,17.8728,-11.2879,-8.4657,0,37.6264,33.7631,1.8809,
-23.5158,17.8732,-6.5844,-1.8813,-28.2198,21.6359,-34.8047,11.2884,-15.0501,-12.2279,1.8813,33.8642,27.2794,10.3479,
-21.1652,23.9865,-6.1146,0.47022,-41.8602,23.9865,-31.5127,15.5208,-10.8177,-5.1742,-0.47022,42.7997,25.8683,13.6399,
-12.2288,29.1602,-12.2288,1.8813,-31.042,32.9229,-37.6269,23.5167,-12.2288,-4.7035,-1.8813,46.0926,31.042,8.4653,
-17.4026,23.0461,-14.5803,0.47022,-29.6309,30.5713,-40.9188,19.2834,-15.5208,-8.9368,-0.47022,44.6815,16.4612,7.0551,
-22.5763,29.1602,-13.1692,-1.8813,-22.5763,41.3886,-42.3299,15.9914,-18.8137,-6.5853,1.8813,59.2614,31.4612,11.2875,
-21.1643,25.8683,-17.4017,0.47022,-25.8683,41.8602,-42.7997,19.2843,-15.5208,-5.1733,-0.47022,57.8512,46.4612,7.9955,
-19.7541,16.9319,-15.0501,6.5844,-36.6855,31.042,-44.2108,27.2794,-14.1097,-9.4066,-6.5844,50.7965,31.4612,9.4066,
-25.3976,26.3389,-2.8218,2.8218,-39.5077,33.8642,-47.9743,23.5167,-19.7541,-13.1692,-6.5844,50.7957,25.3976,15.051,
-25.3985,29.1602,4.7035,-4.7035,-40.4491,35.7451,-47.9743,10.347,-18.8137,-14.1106,-4.7035,43.2704,40.3976,6.5844,
-12.699,29.6314,3.292,-6.1142,-25.4491,42.8002,-42.8002,17.4021,-14.5799,-6.1142,-2.3515,56.9103,50.3254,2.3515,
-21.6354,25.398,6.5848,-5.6444,-19.7536,33.8638,-42.3304,18.8132,-16.9323,-5.6444,-3.7626,41.9103,35.3254,3.7626,
-25.8683,24.9278,21.1652,0.47022,-32.4531,23.9874,-43.741,12.6986,-14.5803,-10.8177,-2.352,26.9103,20.3254,-0.47022,
-15.0506,28.2203,14.1101,0,-19.7536,32.9233,-42.3304,15.991,-10.3475,-11.2879,0,21.6354,35.3254,-6.5848,
-13.6399,29.6309,4.2329,-3.2924,-10.8177,44.6815,-32.4531,21.1652,-11.7581,-5.1742,0.47022,36.6354,50.3254,-0.47022,
-10.8177,40.9188,4.2329,-4.2329,-8.9359,45.6228,-30.5713,17.4025,-19.2834,-4.2329,-5.1733,51.6354,35.3254,5.1742,
-8.9364,43.7406,5.1737,-5.1737,-11.7586,39.0375,-28.69,13.6395,-19.2839,-6.1142,-7.9959,51.2668,20.3254,11.7586,
-16.4612,33.3935,4.2338,-7.9955,-17.4017,37.1562,-28.6896,11.759,-19.2834,-9.8764,-3.2924,45.6228,32.4531,3.2924,
-12.6986,27.75,7.0551,-7.9955,-16.4612,41.8602,-32.4531,14.5803,-22.1056,-14.5803,3.2924,59.732,47.4531,-3.2924,
-15.0501,17.8732,10.3479,-9.4066,-22.5754,27.2794,-33.8633,9.4066,-21.635,-13.1692,-1.8813,55.4996,32.4531,1.8813,
-20.2243,17.4021,16.4617,-6.1142,-23.0465,21.1647,-38.0971,8.9364,-19.2839,-7.0555,-4.2333,40.9193,28.69,4.2333,
-24.9278,14.5803,18.343,-2.352,-24.9278,23.0461,-39.9784,17.4025,-17.4025,-8.9368,-0.47022,33.3936,36.2158,0.47022,
-22.5754,15.9914,21.6359,-0.94088,-24.4572,24.4572,-41.3895,19.7541,-17.8723,-9.4066,-1.8813,36.6864,21.2158,0.94088,
-15.9914,28.2198,28.2198,-4.7035,-24.4572,31.042,-40.4491,12.2288,-22.5763,-9.4066,-6.5853,33.8633,12.2288,4.7035,
-20.6945,21.6359,29.1611,-2.8218,-39.4572,16.042,-30.1007,4.7035,-15.9914,-12.2288,-8.4662,18.8633,25.3985,2.8218,
-21.635,15.9914,21.6359,2.8218,-38.5673,1.042,-31.9824,5.644,-12.2288,-8.4662,-8.4662,18.8137,32.9238,6.5844,
-19.2834,13.6399,12.6995,-0.47022,-38.0966,12.6995,-43.741,0.47022,-18.343,-10.8177,-7.9955,33.3935,17.9238,3.2924,
-13.6395,16.4617,12.699,-2.3515,-42.8002,27.6995,-43.7406,7.0555,-18.3425,-12.699,-4.2333,30.5718,18.3434,2.3515,
-10.8182,30.5709,14.5799,-8.9364,-37.1566,42.6995,-51.2668,15.5203,-22.1061,-11.7586,-8.9364,32.4527,31.5122,8.9364,
-11.7586,33.3931,18.3425,-16.4617,-48.4446,57.6995,-52.2072,8.9364,-24.9283,-16.4617,-8.9364,33.3931,16.5122,10.8173,
-9.4062,31.9829,4.704,-15.0506,-49.8548,63.0245,-49.8548,7.5253,-24.4567,-21.6354,-3.7626,32.9233,7.5253,3.7626,
-6.5844,34.8047,1.8813,-6.5844,-42.3299,52.6774,-44.2117,14.1097,-20.6945,-16.9319,-1.8813,28.2198,12.2288,4.7035,
-6.1146,32.4531,16.8813,-1.4107,-44.6815,44.6815,-39.9784,7.0551,-9.8773,-8.9359,-7.0551,16.4621,1.4107,11.7581,
-2.352,33.3936,13.6399,-7.0551,-29.6815,59.6815,-46.5632,2.352,-13.6399,-19.2834,-5.1733,29.6309,16.4107,2.352,
-0.94044,34.8051,0.94044,-17.8728,-14.6815,65.8467,-54.5587,4.7031,-16.9314,-31.9829,1.8818,44.6309,31.4107,-5.6435,
0.94088,39.5077,7.5257,-22.5763,-16.9319,57.3805,-54.5583,4.7035,-19.7541,-29.1602,-3.7622,57.3805,22.5763,-0.94088,
0.47022,34.334,6.1137,-25.8683,-29.6309,48.4441,-49.3854,5.1733,-30.5722,-24.9278,-8.9368,56.9098,26.8087,-0.47022,
0.94044,34.8042,2.8222,-15.9919,-32.9233,48.9143,-39.5082,11.2879,-23.5172,-20.695,-1.8818,44.2113,25.398,-0.94044,
0.94088,44.2108,8.4662,-1.8813,-27.2794,47.9734,-39.5086,9.4066,-15.9914,-17.8732,-2.8227,47.033,11.2875,-0.94088,
-14.0591,30.1007,14.1097,1.8813,-42.2794,32.9734,-46.0935,6.5844,-18.8137,-18.8137,-6.5853,41.3886,-1.8813,1.8813,
-20.695,22.5758,3.7626,-3.7626,-43.2708,34.8051,-47.9739,14.1101,-15.0506,-21.6354,-4.7031,26.3886,6.5848,10.3475,
-7.0546,37.1566,-1.4111,-8.9364,-28.2708,49.8051,-32.9739,21.1656,-5.1737,-19.283,1.4111,28.6909,21.5848,15.5212,
-7.9959,30.5718,2.3515,-7.0555,-25.8687,52.2072,-25.8687,9.8768,-13.6395,-22.1061,-2.3515,29.6305,25.8678,9.8768,
-20.6945,15.9914,1.8813,-1.8813,-40.8687,37.2072,-40.8687,6.5844,-27.2794,-27.2794,-5.644,27.2794,21.635,8.4662,
-29.6309,10.8177,1.4107,0.47022,-51.2663,22.2072,-40.9188,10.8177,-13.6399,-28.6905,-0.47022,14.5803,6.635,6.1146,
-25.8687,20.2243,3.292,7.9959,-46.5628,19.2839,-25.9188,12.699,-7.0546,-25.8687,-3.292,4.2333,-8.365,3.292,
-19.7541,30.1016,6.5844,13.1692,-32.9238,34.2839,-24.4572,14.1097,-13.1692,-15.051,-6.5844,16.9319,-12.2288,16.9319,
-15.0501,27.2794,9.4066,13.1692,-31.9824,30.1016,-34.8047,6.5844,-11.2875,-12.2288,-6.5844,17.8732,-7.5248,21.6359,
-7.9955,33.3935,8.9359,21.1652,-36.2158,28.6905,-34.334,4.2329,-4.2329,-17.4026,-5.1733,6.1146,-7.9955,18.343,
-14.5808,30.5718,9.8768,24.9274,-46.5628,29.6314,-24.9274,11.7586,-1.4111,-19.2839,-9.8768,-5.1737,1.4111,20.2243,
-9.8764,26.8096,14.5803,19.2834,-51.2663,22.1056,-19.2834,22.1056,-4.2329,-12.6986,-7.9955,4.2329,-9.8764,19.2834,
-10.8182,33.394,7.9959,19.2839,-55.029,17.4021,-19.2839,23.9869,-0.47067,-7.9959,-6.1142,0.47067,-24.8764,14.5799,
-25.8182,25.8683,10.8177,25.8683,-70.029,8.9368,-25.8683,8.9869,7.9955,-7.9955,-18.343,-14.5293,-39.8764,20.2248,
-20.2248,29.6309,20.2239,34.334,-69.1391,17.4017,-26.8096,16.4612,7.0551,-7.0551,-14.5803,-11.759,-24.8764,35.2248,
-5.2248,33.394,5.2239,30.5718,-55.9698,21.1647,-17.4021,24.9274,0.47067,-10.8182,-1.4111,3.241,-9.8764,30.5718,
-4.7035,31.9824,-9.7761,26.338,-50.7961,16.9319,-12.2288,20.6945,4.7035,-5.644,5.644,-4.7035,-17.8732,24.4572,
-1.4111,37.1557,-8.9364,29.6305,-41.8597,19.283,-22.1061,20.2243,1.4111,-5.1737,1.4111,-15.5212,-13.6404,19.283,
1.4111,38.0971,-0.47067,39.0375,-37.1566,18.3425,-16.4617,26.8092,0.47067,-5.1737,-5.1737,-6.1142,-9.8768,19.2839,
-4.7031,34.8051,-9.4062,33.8647,-31.0416,19.7545,-8.4657,24.4576,0,-3.7626,-3.7626,8.8858,0,22.5758,
-13.6399,29.6309,-14.5803,19.2834,-25.8683,20.2248,-11.7581,15.5208,-7.0551,-12.6986,-2.352,7.0551,2.352,24.9278,
-1.8813,39.5086,-1.8813,26.3389,-10.8683,29.1611,-11.2875,18.8137,-1.8813,-15.9914,2.8227,-7.9449,1.8813,28.2207,
3.7626,40.4486,-10.3475,22.5758,4.1317,32.9233,-13.1697,18.8132,-5.6444,-18.8141,-10.3475,-22.9449,-3.7626,19.7536,
6.5844,30.1007,-4.7035,25.3976,-6.5853,29.1602,-1.8813,23.5167,1.8813,-7.5257,-10.3479,-37.9449,-16.9319,25.3976,
2.352,25.8683,0.47022,24.9278,-15.5208,17.4025,-14.5803,18.343,-0.47022,-8.9368,-5.1733,-42.8006,-27.75,19.2834,
0.94088,34.8047,-2.8218,22.5754,-9.4066,13.1692,-18.8137,15.0501,0.94088,-9.4066,-0.94088,-27.8006,-14.1106,17.8723,
3.7626,32.9233,-8.4657,31.0425,-13.1688,15.9919,-8.4657,18.8132,9.4071,-3.7626,-3.7626,-24.4567,-14.1101,30.1011,
11.2879,34.8042,-22.5758,33.8638,-2.8222,29.1607,-13.1697,19.7536,2.8222,-7.5253,-7.5253,-25.398,-18.8132,33.8638,
16.9319,40.4482,-12.2288,30.1016,0.94088,28.2198,-9.4066,20.6945,-0.94088,-13.1692,-2.8218,-22.5763,-15.051,30.1016,
7.5253,29.1607,2.7712,21.6354,-14.0591,13.2198,-14.1101,14.1101,-7.5253,-16.9323,-14.1101,-23.5163,-15.0506,17.8728,
9.4062,27.2789,15.0506,23.5163,-18.8132,9.4062,-21.6354,9.4062,-8.4657,-13.1697,-18.8132,-30.1011,-19.7545,8.4657,
15.991,33.8638,2.8222,24.4576,-3.8132,11.2879,-15.991,10.3475,-5.6435,-15.0506,-16.9323,-45.1011,-24.4576,8.4657,
15.5208,42.8006,-0.47022,21.1652,0.47022,9.8773,-16.4621,17.4025,-7.0551,-21.1652,-19.2834,-44.6815,-14.5803,13.6399,
14.5799,41.8597,-1.4111,28.69,-10.8182,5.1737,-17.4021,20.2243,1.4111,-11.7586,-12.699,-29.6815,-16.4617,21.1647,
15.0501,36.6855,-13.1692,30.1016,1.8813,8.4662,-21.6359,11.2875,-1.8813,-6.5844,-8.4662,-15.051,-9.4066,24.4572,
4.2333,25.8687,-16.4617,15.1016,-2.3515,11.7586,-34.3344,2.3515,-16.8813,-21.5844,-14.5799,-16.4617,5.5934,10.8182,
-0.94088,19.7541,-1.4617,8.4662,-17.3515,8.4662,-24.4572,10.347,-10.347,-21.635,-6.5844,-17.8723,0.94088,6.5844,
1.8818,19.7545,0,17.8728,-9.4062,8.4666,-22.5758,10.3475,-6.5839,-16.9314,-11.2879,-18.8132,0,9.4071,
-1.4107,18.343,1.4107,14.5803,-3.2924,7.9955,-28.6905,4.2329,-11.7581,-24.9278,-17.4025,-21.1652,14.5803,12.6995,
0.47022,19.2843,16.4107,13.6399,-13.639,-0.47022,-27.7491,6.1146,-4.2329,-21.1643,-16.4612,-31.5118,4.2329,9.8773,
7.9959,27.7496,12.699,16.4617,-3.292,3.292,-26.8092,5.1737,-11.7586,-17.4021,-20.2243,-16.5118,-10.7671,11.7586,
6.1137,21.1643,-0.47022,5.1733,0.47022,8.9359,-39.038,-5.1742,-24.9278,-30.5722,-28.6905,-1.5118,0.47022,4.2329,
9.4066,20.6945,6.5844,-1.8813,6.5844,15.9914,-34.8047,-0.94088,-14.1106,-32.9238,-19.7541,0.94088,15.4702,-7.5257,
0.94044,19.7536,13.1688,-7.5253,7.5253,15.0506,-29.1607,-0.94044,-6.5848,-20.695,-9.4071,5.6435,14.1101,-2.8222,
-1.8813,15.9914,5.644,-8.4662,8.4662,15.0501,-38.5673,-6.5844,-11.2884,-22.5763,-10.3479,16.9319,1.8813,4.7035,
10.8177,14.5803,0.47022,-5.1742,20.2239,15.5208,-38.0975,-5.1742,-16.4621,-33.3935,-15.5217,6.1137,16.8813,-0.47022,
10.3475,15.0506,11.2879,0,10.3475,5.6444,-31.0416,-4.7031,-21.6354,-26.3385,-15.0506,-8.8863,16.9323,0,
0.94088,27.2794,7.5257,4.7035,-0.94088,9.4066,-39.5077,-6.5844,-31.042,-26.3389,-8.4662,-12.2288,5.644,10.347,
7.0546,29.6314,0.47067,10.8182,-1.4111,18.3434,-29.6314,-0.47067,-16.042,-18.3425,-1.4111,-7.0546,3.292,22.1061,
7.9955,18.343,-1.4107,13.6399,-10.8177,7.9955,-19.2834,5.1733,-1.042,-3.3425,-7.0551,-11.7581,-10.8177,23.0461,
9.4071,27.2798,0.94044,23.5163,-8.4657,8.4657,-23.5163,15.991,-2.8222,-1.8809,-3.7626,-0.94044,-2.8222,29.1607,
7.0551,23.047,7.9955,19.2843,-13.639,3.2924,-27.7491,11.7581,-8.9359,-16.8809,-3.2924,-14.5803,-9.8764,16.4621,
6.5844,17.8732,10.3479,4.7035,-4.7035,6.5844,-20.6945,4.7035,-10.347,-21.635,-8.4662,-15.9914,-13.1692,4.7035,
-0.94088,17.8732,0.94088,2.8218,-0.94088,13.1692,-15.9914,0.94088,-12.2288,-15.0501,-5.644,-0.99145,-3.7622,18.8137,
-0.94044,17.8728,9.4062,16.9323,-9.407,14.1101,-18.8132,4.7031,-14.1101,-11.2879,-0.94044,-3.7626,0.94044,23.5163,
0.94088,13.1692,15.051,7.5257,-13.1692,8.4662,-31.9824,4.7035,-14.1097,-14.1097,-8.4662,-12.2288,-0.94088,8.5163,
-3.2924,7.9955,18.343,10.8177,-17.4025,4.2329,-24.9278,2.352,0.47022,-10.8177,-0.47022,-9.8764,-1.4107,19.2834,
-7.0551,6.1146,14.5803,21.1652,-27.75,-0.47022,-23.0461,-3.2924,0.47022,-9.8773,4.2329,-15.5208,2.352,34.2834,
0,6.5848,21.6354,19.7545,-20.6941,4.704,-23.5163,-1.8809,0,-5.6435,0,-23.5163,4.704,25.3981,
4.7031,1.8818,28.2203,15.991,-11.2879,6.5848,-18.8132,0.94044,-0.94044,-8.4657,-9.4062,-19.7536,-0.94044,17.8728,
4.7031,9.4062,14.1101,14.1101,-4.7031,3.7626,-18.8132,-2.8222,-15.9404,-20.695,-14.1101,-4.7536,2.8222,14.1101,
7.9959,22.1061,20.2243,22.1061,-2.3515,3.292,-7.0546,-0.47067,-8.9364,-14.5799,0.47067,-7.9959,-2.3515,11.7586,
7.5253,15.991,22.5758,18.8132,-4.7031,0.94044,-11.2879,-4.7031,0,-16.9323,0,-22.9959,-6.5848,8.4657,
6.1146,12.6995,7.9955,11.759,-0.47022,0.47022,-25.8683,-7.9955,-8.9359,-24.9269,-7.0551,-10.8177,0.47022,12.6995,
8.9364,18.3425,14.5799,23.9869,-4.2333,-0.47067,-19.2839,-2.3515,-4.2333,-9.9269,7.0546,-7.0546,0.47067,25.8687,
-0.47067,17.4021,15.5212,19.2839,-9.8768,0.47067,-23.0465,-3.292,-3.292,-3.292,5.1737,-17.4021,5.1737,18.3434,
-8.4662,12.2288,5.644,4.7035,2.8218,8.4662,-33.8642,-8.4662,-10.347,-16.9319,-3.7631,-2.8218,13.1692,7.5257,
-7.0546,6.1142,-0.47067,4.2333,8.9364,-5.1737,-37.1566,-15.5212,-15.5212,-24.9274,0.47067,12.1782,18.3425,6.1142,
-8.4657,1.8818,2.8222,3.7626,-0.94044,-20.1737,-31.9829,-17.8728,-17.8728,-22.5758,6.5848,10.3475,29.1607,0.94044,
-1.4111,11.7586,8.9364,1.4111,7.9959,-5.1737,-27.7496,-9.8768,-10.8173,-14.5799,3.2929,-1.4111,40.9193,7.0555,
13.5889,26.7586,0.47022,-0.47022,22.9959,9.8263,-38.0966,-4.2329,-14.5803,-20.2248,-11.7071,-5.1733,34.334,7.9955,
28.5889,41.7586,-9.8768,0.47067,37.9959,24.8263,-36.2153,7.0546,-13.6395,-24.9274,-16.4617,-5.1737,19.334,-0.47067,
43.5889,56.7586,-13.6399,4.2329,52.9959,39.8263,-38.0975,22.0546,-18.343,-24.9278,-18.343,-12.6995,9.8764,-4.2329,
58.5889,71.7586,-2.3515,1.4111,67.9959,54.8263,-46.5628,37.0546,-33.343,-33.394,-26.8092,-24.9283,14.5799,-1.4111,
73.5889,86.7586,6.1137,3.2924,82.9959,69.8263,-35.2753,44.6815,-40.9188,-40.9188,-29.6309,-20.2248,-0.4201,-3.2924,
88.5889,101.7586,3.2924,5.1742,97.9959,84.8263,-25.8683,59.6815,-39.038,-41.8593,-29.6309,-5.2248,-15.4201,-7.0551,
103.5889,116.7586,9.8773,2.352,112.9959,99.8263,-34.334,74.6815,-47.5037,-47.5037,-34.334,-12.6995,-30.4201,-2.352,
118.5889,131.7586,9.4066,-0.94088,127.9959,114.8263,-39.5077,87.4816,-51.737,-57.3805,-44.2117,-10.347,-45.4201,0.94088,
133.5889,146.7586,-5.5934,-2.8222,136.3964,129.8263,-32.9233,101.5922,-53.6183,-53.6183,-50.7961,4.653,-60.4201,2.8222,
148.5889,161.7586,-6.5844,8.4662,121.3964,144.8263,-24.4572,113.8201,-42.3299,-40.4491,-48.9148,-6.5844,-72.4311,6.5844,
163.5889,176.7586,1.4111,4.2333,106.3964,159.8263,-39.4572,99.2407,-50.3254,-49.385,-53.1476,-1.4111,-85.1305,3.2929,
178.5889,191.7586,3.7626,-3.7626,91.3964,174.8263,-47.0326,95.0074,-50.7952,-49.8548,-46.0921,13.5889,-71.4902,17.8728,
174.0228,206.7586,-3.7626,3.7626,76.3964,189.8263,-47.0335,100.6509,-44.2113,-39.5082,-32.9233,28.5889,-56.4902,24.4567,
159.0228,221.7586,-10.8177,10.8177,61.3964,204.8263,-61.6138,103.9433,-41.8593,-34.334,-23.9865,43.5889,-41.4902,16.4621,
144.0228,206.7586,-9.4066,9.4066,46.3964,219.8263,-53.6179,104.414,-33.8642,-27.2794,-18.8137,58.5889,-56.4902,24.4572,
129.0228,196.5987,-11.2879,11.2879,31.3964,234.8263,-46.093,107.2357,-31.0425,-22.5758,-13.1697,73.5889,-42.3304,39.4572,
119.9347,195.1885,-17.4021,9.8768,16.3964,249.8263,-52.2072,104.8842,-30.5718,-29.6305,-9.8768,88.5889,-27.3304,38.0971,
104.9347,180.1885,-7.5253,7.5253,1.3964,264.8263,-49.8548,91.2447,-33.8638,-38.5668,-15.0506,103.5889,-42.3304,27.2798,
89.9347,165.1885,-2.3515,2.3515,-13.6036,279.8263,-55.0285,81.3679,-43.7406,-45.6224,-24.9274,88.5889,-57.3304,25.8687,
74.9347,150.1885,-6.5848,6.5848,-28.6036,294.8263,-47.9739,81.8377,-32.9233,-43.2708,-24.4576,73.5889,-42.3304,32.9233,
75.7239,135.1885,-12.6986,12.6986,-43.6036,309.8263,-33.3935,75.7239,-23.0461,-44.6815,-20.2239,58.5889,-52.2068,23.0461,
79.0159,120.1885,-7.5257,7.5257,-58.6036,297.25,-30.1016,60.7239,-33.8642,-47.9743,-15.9914,43.5889,-66.7875,8.0461,
71.0204,105.8246,-2.3515,6.1142,-73.6036,282.25,-30.5718,50.3254,-32.4527,-42.8002,-16.4617,28.5889,-55.0285,17.4021,
60.2027,103.4735,-10.347,10.347,-88.6036,267.25,-24.4572,46.0926,-28.2198,-36.6864,-28.2198,17.8723,-52.6774,28.2198,
63.0249,99.7109,-13.1692,13.1692,-103.6036,260.5649,-18.8128,47.9743,-26.338,-32.9229,-28.2198,32.8723,-67.6774,24.4581,
76.6648,97.3589,-12.699,12.699,-118.6036,255.3907,-27.7496,54.089,-24.9274,-35.2749,-22.1052,34.3344,-71.0204,18.3434,
69.6089,93.126,-5.644,5.644,-133.6036,240.3907,-27.2794,43.2704,-33.8642,-35.746,-28.2207,20.6945,-65.8471,17.8723,
54.6089,79.4861,1.4111,-1.4111,-148.6036,225.3907,-30.5718,28.6909,-40.9184,-38.0971,-40.9184,5.6945,-78.5457,4.2333,
59.732,80.427,-6.1146,11.7581,-145.3328,210.3907,-32.4531,36.2158,-34.334,-37.1562,-33.3935,13.6399,-87.9523,6.1146,
63.9658,79.9568,-15.991,21.6354,-145.803,195.3907,-17.4531,41.3891,-25.398,-26.3385,-21.6354,15.991,-100.6513,21.1146,
60.6725,81.3674,-12.6995,16.4612,-156.6212,180.3907,-7.0551,35.2744,-28.6905,-16.4621,-24.9278,7.0551,-85.6513,33.3935,
60.2023,79.0164,-8.4657,8.4657,-144.8626,174.9641,-17.8728,31.0425,-32.9233,-29.1607,-31.0416,10.3475,-70.6513,23.5163,
62.084,79.0164,-0.94044,23.4657,-129.8626,170.2602,-8.4657,44.2113,-17.9233,-26.3385,-16.0416,0.94044,-80.8972,22.5758,
66.7871,90.3043,-15.9404,32.9233,-114.8626,177.7863,2.8222,49.8557,-17.8728,-11.3385,-2.8222,-8.4657,-71.4906,26.3385,
67.728,92.1856,-30.9404,17.9233,-126.9898,183.4303,-2.8218,42.3299,-31.042,-10.347,-17.8222,2.8218,-63.9653,26.3389,
64.436,84.1896,-28.6905,10.8177,-134.9853,182.0192,-10.8177,44.6815,-25.8683,-23.0461,-29.6309,14.5803,-71.9604,31.5127,
62.0845,79.0159,-32.9229,12.2288,-119.9853,176.8455,-12.2288,50.7965,-16.9319,-31.9824,-25.3976,24.4572,-64.9058,33.8642,
56.4401,72.432,-37.626,9.4066,-104.9853,169.3202,-9.4066,43.2713,-16.9319,-23.5167,-25.3976,31.9833,-49.9058,28.2207,
54.0876,80.427,-23.047,14.5803,-92.6558,170.7304,-14.5803,41.8593,-19.2843,-16.4621,-18.343,23.9865,-34.9058,25.8683,
55.0285,83.2488,-12.699,23.0465,-96.4185,164.146,-6.1142,49.385,-8.9364,-20.2243,-11.7586,8.9865,-42.8002,32.4527,
52.2077,68.2488,-21.1643,24.9278,-99.2398,150.9767,-0.47022,42.8006,-7.0551,-21.1643,-25.8683,0.47022,-57.8002,29.6309,
53.1481,62.5542,-25.8683,23.9874,-88.8927,155.6807,-6.1146,39.9784,-13.6399,-9.8773,-24.9278,6.1146,-42.8002,34.334,
55.4992,72.4315,-28.2203,27.2789,-86.5412,153.3287,0.94044,47.0335,-12.2284,-5.6444,-9.9278,-0.94044,-42.3304,49.334,
62.0836,81.8372,-33.8642,26.338,-77.135,153.3283,1.8813,51.7361,-13.1692,-10.3479,-5.644,-1.8813,-49.8552,45.1512,
71.02,81.3674,-29.6309,28.6905,-64.436,160.3829,0.47022,55.9694,-7.0551,-7.0551,-16.4621,-0.47022,-34.8552,33.3936,
67.2573,72.9017,-36.2158,29.6309,-70.0795,151.9172,3.2924,50.3259,-12.6986,-11.7581,-23.9865,-3.2924,-33.3935,30.5713,
54.0881,67.2578,-51.2158,14.6309,-78.5457,142.5106,-8.9364,35.3259,-27.6986,-25.8687,-26.8092,8.9364,-45.6224,23.0456,
50.7961,65.8467,-60.2023,9.4071,-87.4821,139.2186,-9.4071,34.8042,-15.991,-16.9323,-15.991,17.8728,-47.0335,19.7536,
42.7997,58.7916,-61.6138,10.8177,-89.8341,131.2222,-10.8177,29.6309,-22.1056,-18.343,-25.8683,17.4017,-46.5632,12.6986,
38.5673,63.0249,-72.4311,6.5844,-81.8381,137.3373,-6.5844,31.042,-37.1056,-26.3389,-29.1602,32.4017,-31.5632,16.9319,
42.8002,68.1982,-67.2578,8.9364,-79.4861,140.6297,-8.9364,39.0375,-30.5718,-27.7496,-17.4021,35.2749,-19.2839,30.5718,
48.4441,72.9017,-58.7916,13.6399,-73.8422,140.6293,-19.2834,47.5037,-25.8683,-22.1056,-13.6399,20.2749,-20.2248,37.1562,
45.6224,71.0204,-55.9689,19.2839,-72.9013,136.8671,-11.7577,51.2668,-20.2243,-10.8173,-8.9364,8.9364,-23.9869,38.0971,
34.8047,56.0204,-63.9653,9.4066,-74.3128,121.8671,-21.635,36.6864,-25.3976,-24.4572,-19.7541,12.2288,-9.4066,27.2794,
30.5718,41.0204,-55.9698,0.47067,-78.5457,118.9943,-30.5718,30.5718,-29.6314,-37.1566,-25.8687,18.3425,-0.47067,18.3425,
37.1562,53.1481,-42.8006,9.8773,-77.6048,133.9943,-16.4612,43.741,-19.2834,-22.1566,-10.8687,24.9278,-9.8773,19.2834,
26.8087,56.9107,-57.8006,9.8773,-78.5457,126.52,-24.9278,38.0975,-23.9865,-17.4025,-9.8773,33.3936,-10.8177,17.4025,
17.4017,41.9107,-61.6138,10.8177,-91.7154,111.52,-27.75,24.9269,-21.1652,-22.1056,-16.4621,34.334,-10.8177,26.8087,
27.7496,33.394,-53.1476,6.1142,-84.1896,104.8842,-26.8092,22.1052,-14.5808,-25.8687,-10.8182,23.0465,-6.1142,22.1052,
31.5122,44.681,-61.6143,-8.8858,-69.1896,110.5277,-33.394,19.2839,-22.1061,-31.5122,-6.1142,11.7577,6.1142,7.1052,
30.1016,49.8552,-59.2623,-1.8813,-59.2623,112.8797,-23.5167,20.6945,-19.7541,-29.1611,-12.2288,5.644,1.8813,14.1097,
42.7997,54.0876,-45.6228,13.1187,-62.5542,118.0534,-11.759,29.6309,-8.9368,-21.1652,-15.5217,4.2329,-4.2329,19.2834,
48.4441,56.9107,-39.9784,18.343,-58.7916,112.4099,-7.9955,32.4531,-2.352,-13.6399,-4.2329,2.352,-2.352,21.1652,
34.3344,46.5628,-47.5041,7.0546,-71.9608,97.4099,-22.9955,21.1647,-13.6395,-22.1061,-12.699,0.47067,-0.47067,19.2839,
28.6905,39.9784,-43.741,8.9368,-86.9608,84.1896,-23.0461,21.1652,-19.2834,-26.8087,-19.2834,7.9955,-7.9955,18.343,
31.0416,42.3295,-32.9233,21.6354,-101.5922,78.075,-14.1101,29.1607,-10.3475,-15.0506,-13.1697,10.3475,-22.9955,21.6354,
26.8092,41.8597,-42.8002,17.4021,-96.418,75.7235,-29.1101,25.8687,-14.5799,-19.2839,-12.699,12.699,-19.2839,15.5212,
20.2243,26.8597,-52.2072,2.4021,-92.6558,71.9608,-36.2162,15.5203,-18.3434,-33.394,-13.6395,18.3425,-4.2839,6.1142,
15.0506,19.7536,-46.093,0,-80.8972,64.9062,-34.8051,11.2879,-15.0506,-35.7455,-13.1697,15.0506,0,1.8809,
15.5212,30.5718,-44.6819,5.1737,-65.8972,67.2578,-31.5122,12.699,-23.0465,-33.394,-15.5212,8.9364,-5.1737,6.1142,
25.8683,42.8006,-34.334,11.7581,-62.5542,77.6048,-16.5122,23.0461,-23.0461,-21.1652,-13.6399,6.1146,-6.1146,18.343,
30.5718,42.8002,-33.394,4.2333,-54.0881,81.3679,-16.4617,29.6314,-17.4021,-18.3434,-15.5212,7.0546,-4.2333,21.1647,
30.1016,36.6864,-33.8642,6.5844,-43.2704,84.6603,-20.6945,34.8047,-10.347,-20.6945,-14.1097,15.9914,-6.5844,24.4572,
18.8132,23.5163,-31.0425,10.3475,-58.2704,78.075,-24.4576,25.398,-25.347,-29.1607,-21.6354,11.2879,-10.3475,17.8728,
11.7581,20.2239,-31.5127,5.1733,-68.1987,74.7826,-23.9874,17.4017,-38.0975,-29.6309,-23.9874,0.47022,-0.47022,10.8177,
26.7581,35.2239,-19.283,20.1733,-53.1987,88.8932,-8.9874,32.4017,-23.0975,-14.6309,-8.9874,2.3515,-2.3515,25.8177,
36.2153,32.4527,-23.0465,24.9274,-49.385,81.367,-13.6395,34.3344,-8.0975,-7.0555,-7.9959,5.1737,-17.3515,32.4527,
23.047,27.75,-20.2239,23.9874,-46.5623,75.7239,-7.0551,20.2248,-15.5208,-7.9955,-7.9955,7.0551,-11.7581,34.3349,
24.4572,22.5763,-27.2794,13.1692,-47.9743,76.1937,-8.4662,15.9914,-8.4662,-12.2288,0.94088,-7.9449,-0.94088,22.5763,
39.4572,31.042,-37.6269,8.4662,-36.6864,80.8968,-18.8137,26.338,-7.5257,-15.9914,-2.8218,2.8218,-3.7631,15.0501,
38.0971,32.4527,-34.3344,12.699,-38.0971,75.7235,-18.3425,25.8687,-18.3425,-13.6395,-15.5212,17.8218,-12.699,22.1061,
27.7496,33.3931,-28.6909,8.9364,-42.801,82.3083,-12.699,23.9869,-22.1061,-10.8182,-11.7586,32.8218,-8.9364,23.9869,
30.5718,33.3931,-23.9869,8.9364,-39.9788,86.071,-10.8182,26.8092,-13.6395,-10.8182,-8.9364,30.5718,-15.5212,16.4617,
22.1052,21.1647,-28.69,15.5212,-49.385,71.071,-17.4021,21.1647,-16.4617,-15.5212,-20.2243,20.2243,-21.1647,18.3425,
18.8132,20.695,-37.6264,8.4657,-56.4396,56.071,-28.2203,15.0506,-31.4617,-22.5758,-22.5758,10.3475,-8.4657,22.5758,
32.9238,35.695,-26.338,9.4066,-49.8552,56.4401,-25.3976,19.7541,-29.1602,-21.635,-9.4066,15.9914,-14.1097,23.5167,
40.9188,47.5037,-21.1652,14.5803,-36.2158,69.1391,-24.9278,22.1056,-17.4026,-17.4026,-16.4621,30.9914,-14.5803,19.2834,
30.1007,39.5077,-35.746,5.644,-40.4491,69.6089,-31.9833,19.7532,-16.9328,-21.6359,-27.2794,34.8047,-5.644,20.6945,
33.3931,38.0971,-27.7496,8.9364,-40.9193,63.4942,-26.8092,25.8678,-14.5808,-16.4617,-14.5808,32.4527,-8.9364,26.8083,
38.0966,36.2158,-24.9278,4.2329,-25.9193,64.4351,-31.5127,18.343,-29.5808,-23.047,-21.1652,36.2158,-4.2329,13.639,
31.9829,24.4576,-33.8638,-10.3475,-17.8728,68.6689,-29.1607,10.3475,-39.5082,-32.9233,-28.2203,34.8051,10.7671,13.1697,
22.1061,22.1061,-37.1566,-10.8173,-29.6314,64.4356,-24.9274,10.8173,-39.9779,-39.0375,-24.9274,19.8051,15.5212,16.4617,
32.4527,37.1061,-23.9869,4.1827,-24.9274,66.3164,-14.5808,21.1647,-25.8687,-24.0375,-11.7586,4.8051,2.3515,23.9869,
39.0375,33.394,-17.4021,17.4021,-21.1647,55.9698,-14.5799,23.0465,-10.8687,-9.0375,-4.2333,2.3515,-2.3515,24.9274,
35.2744,18.394,-22.1056,2.4021,-22.1056,54.0876,-29.5799,13.639,-25.8687,-16.4621,-15.5217,10.8177,-0.47022,9.9274,
44.2108,25.3976,-11.2884,2.8218,-15.9914,62.0836,-21.6359,15.9914,-28.2198,-22.5763,-20.6945,8.4662,-2.8218,14.1097,
44.6819,32.4527,-7.9959,12.699,-15.5212,52.2072,-6.6359,18.3434,-14.5799,-13.6395,-16.4617,6.1142,-8.9364,23.0465,
32.4527,23.9869,-11.7586,9.8768,-29.6305,43.7415,-16.4617,16.4617,-19.2839,-14.5799,-13.6395,15.5212,-9.8768,23.0465,
26.3389,15.051,-8.4662,11.2884,-38.5673,42.3299,-22.5763,8.4662,-15.9914,-19.7541,-15.9914,11.2884,-13.1692,24.4572,
30.5718,19.2839,-5.1737,20.2243,-23.9869,38.0971,-15.5212,8.9364,-2.3515,-17.4021,-8.9364,2.3515,-3.292,25.8687,
23.5172,12.2284,-4.7031,15.9919,-28.2203,29.1607,-10.3475,13.1697,0,-14.1101,0,-12.2284,-6.5848,20.695,
24.4572,9.4066,1.8813,11.2875,-31.9833,31.9824,-5.644,16.9319,-2.8227,-1.8813,-1.8813,-9.4066,-14.1106,28.2198,
24.9274,18.3434,-1.4111,14.5799,-27.7496,29.6314,-8.9364,15.5212,-11.7586,-3.292,-9.8768,1.4111,-16.4617,30.5718,
25.3985,22.5763,1.8813,23.5167,-29.1602,30.1016,-8.4662,17.8732,-1.8813,-14.1097,-5.644,-1.8813,-10.347,30.1016,
23.9865,15.5208,-10.8177,8.5167,-26.8087,31.5118,-23.4662,3.2924,-8.9368,-29.1097,-17.4026,-3.2924,4.653,20.2239,
23.0465,15.5212,-14.5808,1.4111,-19.2839,30.5718,-22.1061,0.47067,-13.6395,-23.0465,-14.5808,-0.47067,16.4617,16.4617,
22.1056,16.4621,0.41921,14.5803,-23.9865,29.6309,-8.9359,11.7581,-18.343,-15.5208,-6.1146,-14.5803,1.4617,19.2834,
19.7536,19.7536,-0.94044,9.4062,-13.1697,36.686,-15.9919,8.4657,-31.0425,-30.5208,-19.7545,-9.407,0.94044,15.991,
20.6945,18.8137,-14.1097,1.8813,-1.8813,37.6269,-15.051,0.94088,-25.3976,-32.9229,-24.4572,-0.94088,1.8813,10.347,
26.338,19.7541,-12.2288,8.4662,4.7035,37.6269,-13.1692,8.4662,-21.6359,-17.9229,-15.9914,-4.7035,-9.4066,12.2288,
21.1656,20.2243,-6.1142,11.7586,-3.292,35.2749,-15.5203,10.8182,-25.8678,-13.6395,-12.699,1.4111,-1.4111,20.2243,
10.8182,19.2839,-11.7586,7.0555,-15.5212,23.0465,-22.1052,2.3515,-23.0465,-26.8092,-14.5799,-2.3515,7.9959,17.4021,
16.4617,27.7496,-18.3434,4.2333,-4.2333,29.6314,-25.8687,5.1737,-19.2839,-26.8092,-12.699,-6.1142,6.1142,8.9364,
20.2239,33.3936,-8.9368,10.8177,-8.9368,39.038,-17.4025,11.7581,-16.4621,-11.8092,-7.0551,2.352,-2.352,13.6399,
15.9914,31.9833,-5.644,19.7541,-23.9368,28.2207,-9.4066,15.051,-18.8128,-7.5248,-6.5844,5.644,-7.5248,26.3389,
19.2839,31.5122,-2.3515,30.5718,-28.69,20.2243,2.3515,23.0465,-6.1142,-7.0546,-7.9959,-7.0546,-21.1647,29.6314,
12.6995,22.1056,-3.2924,29.6309,-39.9784,7.0551,0.47022,14.5803,-0.47022,-1.4107,-20.2239,-22.0546,-36.1647,14.6314,
17.8728,23.5163,-2.8222,25.398,-32.9233,2.8222,-4.7031,11.2879,-6.5848,3.7626,-19.7545,-14.1101,-31.9829,17.8728,
26.3389,25.3976,-0.94088,26.3389,-20.6945,3.7622,0.94088,18.8137,-6.5844,-1.8813,-13.1692,-4.7035,-18.8137,27.2794,
25.8683,33.3936,-7.0551,35.2753,-14.5803,9.8773,3.2924,19.2843,-5.1733,-7.0551,-17.4017,-3.2924,-12.6986,20.2248,
15.991,33.8638,-16.9314,30.1011,-25.398,5.6444,2.8222,9.4071,-4.7031,-15.0506,-21.6354,-2.8222,-19.7536,18.8132,
15.9914,31.042,-2.8218,30.1016,-27.2794,-0.94088,10.347,16.9319,0.94088,-6.5844,-13.1692,-4.7035,-28.2198,32.9238,
20.2239,23.0461,0.47022,31.5118,-12.2794,-0.47022,4.2329,17.4017,-5.1742,-3.2924,-7.9955,-14.5803,-13.2198,27.7491,
13.6395,14.5808,-2.3515,33.394,-15.5212,-7.9951,2.3515,7.0555,-2.3515,-7.9951,-9.8768,-22.1052,1.7802,23.9869,
4.7031,12.2284,0,30.1011,-30.5212,-17.8728,4.7031,4.7031,0,-7.5253,-19.7545,-24.4576,-13.2198,30.1011,
3.2924,13.639,-0.47022,23.0461,-32.4531,-19.2843,7.9955,8.9359,-0.47022,0.47022,-22.1056,-22.1056,-28.2198,31.5118,
7.0546,7.9959,-3.292,30.5718,-27.7496,-23.0465,7.9959,7.9959,3.292,-3.292,-12.699,-26.8092,-33.394,23.0465,
15.5208,11.7581,-3.2924,39.0371,-12.7496,-10.8177,7.0551,13.639,3.2924,-7.9964,-10.8177,-28.6905,-27.75,12.6986,
13.6395,8.9364,-5.1737,29.6314,1.4111,-6.1142,12.699,14.5808,-1.4111,-1.4111,-13.6395,-31.5122,-19.2839,15.5212,
10.8182,6.1142,-4.2324,27.7496,-2.3515,-15.5203,12.699,7.9959,-4.2324,2.3515,-7.9951,-25.8678,-17.4021,30.5212,
10.347,15.0501,-0.94088,31.042,-5.644,-19.7541,7.5248,6.5844,0.94088,-3.7631,-5.644,-17.8732,-19.7541,37.6269,
10.347,7.5257,-4.7035,29.1611,-13.1692,-22.5763,13.1692,5.644,4.7035,-4.7035,-7.5248,-16.9319,-24.4572,22.6269,
14.5803,5.1733,-13.6399,27.75,-0.47022,-17.4025,19.2834,6.1146,-2.352,-5.1733,-6.1146,-1.9319,-19.2834,14.5803,
13.1692,11.2875,-5.644,36.6855,1.8813,-27.2794,9.4066,6.5844,-1.8813,-12.2288,-4.7035,-13.1692,-27.2794,21.635,
7.5248,3.7622,2.8218,38.5673,-13.1187,-42.2794,0.94088,-0.94088,3.7622,-18.8137,-15.051,-28.1692,-42.2794,12.2288,
7.0555,-2.3515,10.8182,35.2749,-24.9274,-43.7406,15.5212,2.3515,11.7586,-3.8137,-14.5799,-43.1692,-44.6815,21.1656,
0.47022,-7.9955,11.7581,36.2158,-27.7491,-52.2068,13.6399,4.2329,8.9368,-0.47022,-13.6399,-39.9784,-37.1562,30.5713,
9.4066,-1.8813,8.4653,39.5077,-17.8732,-48.9152,5.644,5.644,1.8813,-9.4075,-11.2884,-31.042,-22.1562,24.4572,
12.6986,-7.9955,6.1146,34.334,-18.343,-43.741,15.5208,4.2329,5.1733,-10.8177,-4.2329,-25.8683,-22.1056,24.9278,
6.5844,-10.347,8.4662,31.9824,-18.8137,-50.7961,9.4066,3.7631,7.5257,-5.644,-3.7631,-26.3389,-28.2198,33.8642,
4.704,0,6.5848,29.1607,-10.3466,-45.1517,0,4.704,-1.8809,-5.6435,-9.4062,-13.1688,-13.2198,22.5758,
3.292,-1.4111,2.3515,31.5122,-8.9364,-40.9193,15,2.3515,1.4111,-10.8182,-4.2333,-9.8768,-2.3515,16.4617,
0.94044,-4.7031,2.8222,33.8638,-2.8222,-41.389,21.6354,0,4.7031,-16.9323,0,-21.6354,-10.3475,26.3385,
0,-0.94044,8.4666,35.7455,-4.7031,-34.8042,6.6354,4.704,2.8222,-10.3466,-0.94044,-13.1688,0,34.8051,
-2.352,1.4107,10.8177,40.9188,-16.4621,-36.2158,12.6986,9.8773,5.1733,-2.352,-4.2329,-1.4107,-10.8177,36.2158,
0.94088,-0.94088,13.1692,34.8047,-11.2884,-38.5673,10.347,2.8218,2.8218,-10.347,-8.4662,-16.4107,-25.8177,28.2198,
7.9955,-1.4116,21.1643,28.6896,-0.47022,-32.4531,14.5803,0.47022,3.2924,-8.9368,-6.1146,-31.4107,-28.6905,25.8683,
6.5844,4.7035,6.1643,22.5754,0.94088,-32.9238,13.1692,0.94088,-2.8218,-6.5844,-9.4066,-38.5673,-23.5167,16.9319,
11.7581,10.8177,-8.8357,29.6309,-4.2329,-30.5722,10.8177,5.1733,3.2924,-3.2924,-6.1146,-23.5673,-22.1056,16.4612,
14.1097,0.94088,-0.94088,33.8642,-16.9319,-31.9824,11.2884,3.7631,3.7631,-7.5248,-9.4066,-18.8137,-25.3976,17.8723,
16.4617,7.9959,-1.4111,30.5718,-1.9319,-23.9869,12.699,7.9959,-6.1142,-15.5212,-13.6395,-21.1647,-10.3976,23.9869,
7.9959,10.8182,-9.8768,26.8092,7.0555,-25.8678,9.8768,5.1737,-5.1737,-18.3425,-14.5799,-19.2839,-13.6395,34.3344,
9.8768,3.292,-0.47067,26.8092,-0.47067,-30.5718,7.0546,2.3515,0.47067,-15.5212,-16.4617,-19.2839,-23.9869,33.394,
16.9323,-0.94044,2.8222,25.3981,2.8222,-31.9829,12.2284,0.94044,-6.5848,-21.6354,-15.991,-27.2798,-15.0506,25.3981,
17.8728,5.6435,-4.7031,31.9829,2.8222,-23.5172,20.6941,6.5848,-2.8222,-17.8728,-7.5253,-27.2798,-13.1697,28.2203,
11.2884,11.2884,-11.2884,33.8642,-1.8813,-21.635,13.1692,9.4066,1.8813,-12.2288,-10.347,-19.7541,-21.635,23.5167,
10.3475,2.8222,-8.4666,31.9829,-2.8222,-36.635,11.2879,4.7031,4.7031,-11.2879,-8.4666,-29.1607,-30.1011,18.8132,
14.5803,-7.0551,-3.2924,31.5118,3.2924,-42.8006,17.4017,-0.47022,4.2329,-11.759,0.47022,-29.6309,-28.6905,23.9865,
8.4666,-14.1101,0,31.0425,6.5848,-38.5668,15.0506,0,4.704,-11.2879,-2.8213,-26.3385,-26.3385,25.3981,
9.8773,-12.6986,-1.4107,34.334,9.8773,-35.2749,7.9955,1.4107,11.7581,-6.1146,-1.4107,-35.2749,-12.6986,34.334,
10.8177,-7.9955,-14.5803,24.9278,17.4025,-29.6309,0.47022,-5.1733,2.352,-10.8177,0.47022,-30.5713,-0.47022,39.9784,
9.4071,-8.4657,-14.1101,24.4576,16.9323,-26.3385,8.4657,-0.94044,0.94044,-12.2284,0.94044,-24.4576,-9.4062,31.0425,
18.8132,-6.5848,-10.3475,28.2194,19.7536,-26.3385,4.7031,0.94044,7.5253,-6.5848,-0.94044,-28.2203,-15.0506,16.0425,
26.3385,-2.8222,-12.2293,21.6354,31.9829,-18.8132,5.6435,-2.8222,2.8222,-6.5848,7.5253,-13.2203,-6.5848,26.3385,
15.5208,-9.8773,-16.4621,22.1056,28.6905,-19.2843,15.5208,-4.2329,-0.47022,-11.7581,2.3511,0.47022,-13.6399,40.9188,
17.4025,-4.2329,-19.2834,16.4621,25.8683,-20.2239,3.2924,-2.352,3.2924,-18.343,-10.8177,2.352,-19.2834,25.9188,
23.0465,2.3515,-21.1647,9.8768,27.7496,-24.9274,-1.4111,-5.1737,1.4111,-15.5203,-3.292,1.4111,-22.1052,13.6395,
16.4617,0.47067,-17.4021,21.1647,29.6314,-28.69,13.5889,-6.1142,-0.47067,-8.9364,-5.1737,2.3515,-18.3425,23.9869,
18.3434,1.4111,-10.8173,22.1061,27.7496,-23.9869,6.1142,-4.2324,-1.4111,-16.4617,-17.4021,5.1737,-15.5203,15.5212,
22.1061,1.4111,4.1827,16.4617,20.2243,-25.8678,-1.4111,-4.2324,-3.292,-19.283,-11.7577,4.2333,-26.8092,16.4617,
15.0501,1.8813,7.5248,20.6945,18.8137,-26.3389,8.4662,-1.8813,-13.1692,-16.9319,-6.5844,-6.5844,-26.3389,30.1016,
13.1692,4.7035,-0.94088,23.5167,18.8137,-18.8137,9.4066,0.94088,-14.1097,-21.635,-17.8723,-17.8723,-15.051,19.7541,
19.2839,5.1737,1.4111,23.9869,20.2243,-13.6395,3.292,-1.4111,-9.8768,-24.9274,-16.4617,-3.2929,-11.7586,7.0546,
16.4617,3.292,-5.1737,23.9869,23.9869,-21.1647,8.9364,-3.292,-9.8768,-23.0465,-7.9959,7.9959,-16.4617,22.0546,
10.8177,-0.47022,-7.0551,24.9278,17.4026,-36.1647,18.343,0.47022,0.47022,-12.6986,-8.9359,-7.0041,-31.4617,34.3349,
20.2243,0.47067,2.3515,16.4617,27.7496,-34.3344,10.8173,-0.47067,-7.0546,-14.5799,-13.6395,-18.3425,-25.8687,19.3349,
14.5803,-3.2924,0.47022,7.9955,35.2753,-25.8683,1.4107,-9.8773,-18.343,-24.9278,-12.6986,-3.3425,-10.8687,9.8773,
7.9955,-0.47022,0.47022,19.2834,33.3935,-27.75,4.2329,-7.9955,-3.343,-22.1056,-2.352,4.2329,-7.0551,24.8773,
14.1097,-0.94088,5.644,23.5167,42.3299,-29.1611,2.8218,-6.5844,0.94088,-17.8732,-0.94088,-10.7671,-22.0551,27.2794,
11.7586,-15.5212,12.699,15.5212,37.1566,-35.2749,7.9959,-15.5212,-0.47067,-10.8173,0.47067,-14.5799,-18.3434,20.2243,
2.3515,-23.9869,-1.4111,5.1737,22.1566,-48.4446,1.4111,-22.1061,6.1142,-13.6395,-4.2333,0.4201,-11.7586,17.4021,
4.2333,-22.1052,-16.4111,7.0546,17.4021,-43.7406,2.3515,-15.5212,7.0546,-16.4617,-2.3515,7.9959,-18.3425,16.4617,
9.4062,-16.9323,-5.6444,22.0546,26.3385,-31.0425,16.9314,-8.4666,3.7626,-7.5253,8.4657,-3.7626,-22.5767,14.1092,
9.8764,-15.5217,-0.47022,28.6905,22.1056,-34.3349,9.8764,-10.8177,2.3511,-8.9368,0.47022,-7.9955,-26.8096,12.6986,
14.5803,-17.4025,4.2329,22.1056,7.1056,-46.5628,12.6995,-4.2329,12.6995,-4.2329,-4.2329,-12.6986,-37.1562,26.8087,
19.7536,-16.9323,6.5839,19.7536,0,-47.9743,16.9314,-3.7626,8.4657,0,0,-23.5172,-27.2798,33.8638,
13.1692,-18.8137,4.7035,21.635,-0.94088,-50.7961,9.4066,-17.8723,0.94088,-5.644,3.7631,-20.6945,-17.8723,22.5763,
3.7626,-30.1011,3.7626,13.1688,0,-65.7961,4.7031,-31.0425,0,-14.1101,0.94044,-16.9323,-32.8723,14.1101,
10.8182,-28.69,6.1142,5.1737,15,-60.6729,13.6404,-27.7496,-11.7577,-14.5799,1.4111,-1.9323,-25.8678,14.5808,
7.9959,-23.9869,9.8768,7.0555,30,-55.9698,13.6395,-20.2243,-19.2839,-15.5212,-3.292,3.292,-10.8678,7.9959,
4.7031,-17.8728,15.991,15.0506,26.3385,-55.4992,2.8222,-16.9323,-4.2839,-15.0506,-8.4657,0,-13.1697,0.94044,
3.2924,-23.0461,8.9359,8.9359,22.1056,-60.6734,1.4107,-24.9278,5.1733,-20.2248,-8.9368,-0.47022,-22.1056,0.47022,
1.4111,-25.8678,17.403,8.9364,19.2839,-62.5542,12.699,-25.8678,1.4111,-14.5799,-1.4111,-8.9364,-13.6395,10.8182,
0,-17.8728,23.5163,13.1688,31.0416,-51.7365,9.4062,-18.8132,-8.4666,-14.1101,0,-23.5172,0.94044,8.4657,
4.2329,-12.6986,14.5803,25.8683,35.2753,-38.0966,16.4612,-11.7581,-2.352,-10.8177,2.352,-19.2834,-10.8177,13.6399,
-0.94044,-24.4576,1.8818,28.2203,20.2753,-45.1517,16.9323,-18.8132,6.5848,-8.4657,0.94044,-15.991,-25.8177,18.8132,
-3.292,-23.9869,5.1737,21.1647,17.4021,-54.0885,9.8768,-20.2243,6.1142,-11.7586,3.292,-20.2243,-21.1647,16.4617,
0,-18.8132,5.6435,13.1688,18.8132,-53.6183,6.5839,-15.9919,5.6435,-17.8728,0,-26.3394,-19.7545,4.7031,
13.639,-8.9368,3.2924,12.6986,25.8683,-38.6183,9.8764,-7.9955,7.0551,-7.9955,-3.2924,-11.3394,-26.8096,11.7581,
7.9959,-21.1647,5.1737,13.6395,23.0465,-44.6819,12.699,-19.2839,4.2333,-4.2333,-7.9959,-6.1142,-27.7496,20.2243,
4.7035,-22.5754,20.1737,26.3389,22.5763,-59.6819,18.8137,-18.8128,11.2884,-4.7035,-6.5844,-21.1142,-15.0501,22.5763,
12.2284,-11.2888,24.4567,23.5163,31.982,-52.6779,15.0506,-10.3475,7.5253,-14.1101,-7.5253,-35.7455,-17.8728,14.1092,
17.4021,-8.9364,10.8173,11.7586,30.5718,-41.8597,7.0546,-12.699,5.1737,-18.3425,-3.292,-25.8687,-31.5122,3.292,
16.4617,-3.292,2.3515,16.4617,22.1061,-41.8597,4.2333,-15.5203,4.2333,-18.3425,-2.3515,-10.8687,-25.8678,5.1737,
3.7626,0.94044,2.8222,21.6354,13.1697,-41.389,12.2284,-13.1697,-0.94044,-16.9323,-0.94044,-1.8818,-24.4576,15.0506,
-0.94088,-2.8218,6.5844,14.1097,15.9914,-40.4491,6.5844,-14.1097,-6.5844,-12.2288,0.94088,4.7035,-30.1016,16.9319,
7.0546,-0.47067,10.8182,13.6395,23.0465,-39.0375,-1.4111,-10.8173,-6.1142,-8.9364,0.47067,19.7035,-26.8092,20.2243,
5.644,-1.8813,14.1097,24.4572,8.0465,-45.1521,10.347,-6.5844,-2.8218,-14.1097,0.94088,4.7035,-30.1016,26.3389,
9.4066,1.8813,10.347,30.1016,3.7631,-40.4482,13.1692,-5.644,-8.4662,-19.7541,-1.8813,-10.2965,-20.6945,21.635,
8.4662,2.8218,5.644,28.2198,17.8723,-34.8047,6.5844,-6.5844,-2.8218,-13.1692,-9.4066,-3.7631,-14.1097,15.9914,
1.4111,-1.4111,9.8768,32.4527,15.5203,-44.6819,13.6395,-4.2333,3.292,-10.8182,-15.5212,-5.1737,-29.1097,13.6395,
0.94088,1.8813,4.7035,31.9824,13.1692,-41.3895,18.8128,-0.94088,-2.8218,-17.8732,-18.8137,-20.1737,-44.1097,15.0501,
-1.4111,2.3515,-0.47067,31.5122,8.9364,-28.69,20.2243,0.47067,2.3515,-12.699,-11.7586,-16.4617,-45.6224,26.8092,
-1.4107,2.352,-5.1733,31.5127,11.7581,-29.6309,17.4026,0.47022,8.9368,-8.9359,-0.47022,-4.2329,-30.6224,23.0461,
3.292,1.4111,-9.8768,27.7496,18.3425,-44.6309,13.6395,-1.4111,7.0546,-10.8182,-3.2929,-18.3434,-20.2243,14.5799,
5.1737,-0.47067,0.47067,37.1566,16.4617,-47.5037,20.2243,-1.4111,10.8173,-4.2333,-7.0555,-15.5212,-29.6314,28.69,
-1.4111,-2.3515,1.4111,35.2749,8.9364,-36.2153,14.5808,-4.2324,8.9364,-4.2324,-6.1142,-0.52123,-31.5122,30.5718,
-4.2333,-3.292,-6.1142,30.5718,7.9959,-36.2153,11.7586,3.292,8.9364,-6.1142,-6.1142,9.8768,-31.5122,18.3425,
-0.94044,0,-2.8222,37.6273,8.4666,-41.389,18.8132,3.7626,8.4666,-4.7031,-11.2879,0,-24.4567,18.8132,
-0.47022,-1.4107,3.2924,39.9784,0.47022,-52.2068,23.0461,-7.9955,13.6399,0.47022,-3.2924,-7.0551,-31.5118,31.5127,
1.8813,-6.5844,-1.8813,41.3895,-4.7026,-59.2614,22.5763,-4.7026,21.6359,6.5853,5.644,-6.5844,-46.5118,34.8047,
1.4111,-8.9364,-11.7586,35.2749,-1.4111,-51.2663,13.6395,3.2929,7.9959,1.4111,-6.1142,-4.2333,-47.5037,22.1061,
0,-5.6435,1.8818,38.5677,-1.8809,-45.1517,15.0506,0.94133,8.4666,0,-6.5848,-14.1101,-32.5037,27.2798,
-1.8813,-3.7631,12.2288,48.9148,-5.644,-47.9739,15.9914,1.8813,17.8723,3.7622,-2.8218,-13.1692,-27.2794,36.6855,
-7.5248,-2.8218,6.5853,48.9148,-10.347,-46.0921,18.8137,1.8813,13.1701,6.5853,-2.8218,-1.8813,-23.5158,31.042,
-2.352,-7.0551,6.1146,40.9188,1.4107,-50.3254,25.8683,-7.0551,11.7581,5.1742,-1.4107,-16.8813,-20.2239,27.75,
0.94044,-5.6435,3.7626,39.5082,16.4107,-56.4396,21.6354,-9.4062,12.2293,-0.94044,-0.94044,-31.8813,-15.991,31.0425,
-6.5848,0,6.5839,47.9739,21.6354,-53.6183,20.6941,-4.704,17.8728,0,0,-19.7545,-17.8728,36.686,
-7.5253,0,7.5262,44.2122,6.6354,-47.9734,15.0515,-8.4657,11.2888,0,-3.7626,-16.9314,-15.991,31.9829,
0,0,-0.94044,29.2122,21.6354,-39.5073,8.4666,-7.5253,0,-3.7626,-8.4657,-21.6354,-0.991,23.5172,
0.47067,5.1737,-7.0546,25.8678,29.6314,-38.0971,21.1647,-1.4111,4.2333,-2.3515,-6.1142,-20.2243,-0.47067,24.9274,
1.4111,7.0546,-7.9959,31.5122,29.6305,-36.2162,20.2243,-1.4111,1.4111,-4.2333,-10.8182,-25.8687,-6.1151,29.6305,
1.8813,-7.5248,-0.94088,34.8047,21.6359,-36.686,13.1692,-3.7622,5.644,0.94088,-10.347,-37.6264,-16.9319,31.9824,
2.8222,-18.8132,-4.7031,36.686,8.4657,-40.4486,12.2284,-8.4657,12.2284,7.5253,-2.8222,-24.4576,-19.7536,31.9829,
5.6435,-4.704,-19.7031,25.3981,20.6941,-36.686,4.7031,-15.0506,0,0,-8.4666,-9.4576,-4.7536,18.8132,
9.8773,10.296,-15.5208,27.75,30.5713,-29.6309,6.1146,-8.9359,-3.2924,-2.352,-8.9359,2.352,-10.8177,11.7581,
15.5203,19.283,-6.1142,32.4527,28.69,-22.1061,9.8768,-4.2333,-1.4111,-2.3515,-1.4111,1.4111,-24.9283,20.2243,
7.5253,9.4071,-17.8728,22.5758,18.8132,-27.2789,8.4657,-15.991,-2.8222,-5.6435,-7.5253,2.8222,-25.398,23.5172,
-1.8813,4.7035,-16.9319,26.3389,3.8132,-40.4482,7.5257,-17.8723,2.8218,1.8813,-16.9319,-6.5844,-25.3976,19.7541,
1.4111,13.6395,-6.1151,40.9184,-1.4111,-43.7415,13.6395,-4.2333,7.0546,7.0546,-1.9319,-8.9364,-11.7586,28.69,
-5.6444,4.7031,-7.5253,38.5677,-4.7031,-49.8552,13.1697,-8.4657,6.5848,0.94044,12.2284,-17.8728,-0.94044,40.4486,
-5.6444,0.94044,-7.5253,30.1011,2.8222,-47.9743,10.3475,-17.8728,6.5848,-0.94044,6.5848,-23.5172,-13.1697,38.5668,
-2.352,-0.47022,-1.4115,33.3936,0.47022,-45.6228,13.639,-16.4621,8.9359,1.4107,0.47022,-34.3349,-28.1697,28.6896,
-3.292,-2.3515,7.0555,40.9193,-2.3515,-47.5037,14.5808,-9.8768,11.7586,10.8182,2.3515,-46.5628,-43.1697,32.4527,
-4.2333,-1.4111,3.292,36.2153,1.4111,-44.6819,9.8768,-10.8182,7.0546,12.699,-4.2333,-38.0975,-58.1697,34.3335,
-4.7031,-2.8222,3.7626,34.8042,2.8222,-37.6269,16.9323,-9.4071,14.1101,8.4657,-6.5848,-23.0975,-73.1697,31.0416,
-4.2324,1.4111,3.2929,32.4536,17.8222,-35.2749,20.2243,-9.8768,16.4617,-1.4111,-2.3515,-14.5799,-71.9608,25.8687,
-5.1733,2.352,-0.47022,27.75,27.75,-40.9188,15.5208,-18.343,6.1146,-6.1146,0.47022,-13.6399,-70.0795,28.6905,
-1.8813,-0.94088,4.7035,33.8642,15.9914,-46.0926,17.8732,-15.9914,6.5853,0.94088,-0.94088,-16.9319,-65.8462,35.7451,
-1.4111,-3.292,6.1142,34.3344,12.699,-47.5037,19.2839,-8.9364,9.8768,1.4111,-5.1737,-23.0465,-54.0881,27.7496,
-7.9955,-5.1733,3.2924,33.3935,12.6995,-54.0881,20.2248,-9.8764,17.4026,3.2924,-3.2924,-26.8087,-62.5538,26.8096,
-7.5253,-9.4071,2.8222,32.9233,15.0506,-53.6179,13.1697,-15.991,15.991,2.8222,-2.8222,-19.7536,-59.2618,28.2203,
-0.47022,-11.7581,4.2329,31.5118,12.6986,-44.6819,13.6399,-15.5208,14.5803,0.47022,-0.47022,-19.2834,-44.2618,23.9865,
-6.1142,-10.8182,-2.3515,33.3931,2.3515,-45.6224,20.2243,-9.8768,17.4021,4.2324,3.292,-25.8687,-31.5127,25.8678,
-6.5844,-1.8813,-5.644,37.6269,12.2288,-40.4482,14.1106,-7.5248,15.051,8.4662,1.8813,-10.8687,-16.5127,31.9833,
-1.4111,-1.4111,1.4111,35.2749,14.5808,-39.9784,17.4021,-10.8173,12.699,4.2333,-6.1142,-14.5799,-10.8173,23.0465,
4.2333,-7.0546,2.3515,28.69,7.0555,-43.741,17.4021,-12.699,5.1737,-2.3515,-12.699,-29.5799,-25.8173,8.0465,
4.2329,-4.2329,0.47022,26.8087,12.6986,-40.9188,7.0551,-13.6399,1.4107,-0.47022,-4.2329,-14.5799,-18.343,2.3511,
-6.5844,-13.1692,11.2884,27.2794,2.8227,-53.6179,11.2884,-21.635,4.7035,-1.8813,-5.644,0.4201,-12.2288,1.8813,
-5.1733,-7.0551,23.9874,29.6309,11.7581,-39.9784,17.4026,-11.7581,4.2329,-6.1137,-7.9955,-0.47022,0.47022,11.7581,
-5.1737,6.1142,13.6395,24.9283,23.9869,-24.9784,15.5212,-3.292,-2.3515,-9.8768,-8.9364,2.3515,-8.9364,13.6395,
-5.6435,0.94044,3.7626,28.2203,16.9323,-32.9233,15.991,-8.4657,0.94044,-1.8809,-13.1697,-0.94044,-20.695,15.0506,
-9.4066,-12.2288,0.94088,32.9229,14.1097,-36.6855,17.8723,-10.347,5.644,1.8813,-6.5844,-8.4662,-5.695,22.5763,
-7.0546,-7.9959,-2.3515,27.7496,26.8092,-21.6855,17.4021,-7.9959,5.1737,-1.4111,2.3515,-16.4617,1.4111,12.699,
1.8813,7.0041,-10.347,23.5167,41.8092,-6.6855,16.9319,-6.5844,-1.8813,-5.644,-6.5844,-17.8732,5.644,1.8813,
0,0,-8.4657,30.1011,47.9739,-5.6435,25.3981,-8.4657,1.8818,0,-10.3475,-26.3385,20.644,16.8813,
-5.644,-12.2288,-4.7035,21.635,38.5673,-15.9914,20.6945,-11.2884,0.94088,3.7622,-0.94088,-28.2198,15.0501,17.8723,
-0.47022,-3.2924,-7.0551,10.8177,43.741,-9.8764,18.343,-6.1137,-1.4107,1.4115,1.4115,-13.2198,0.47022,4.2329,
-0.94088,-7.5257,-0.94088,22.5763,38.5673,-11.2884,24.4572,-3.7622,5.644,0.94088,-2.8218,-17.8723,3.7631,10.347,
-4.7031,-13.1697,0.94044,28.2203,36.686,-21.6354,26.3385,-12.2284,2.8222,-0.94044,-3.7626,-32.8723,9.4071,10.3475,
0,-6.5848,-0.94044,25.398,43.2708,-24.4576,32.9233,-11.2879,1.8818,0,0.94044,-30.1011,-4.7031,0,
-0.94088,-3.7631,3.7622,28.2198,42.3299,-28.2198,27.2794,-8.4662,3.7622,2.8218,-0.94088,-15.1011,-5.644,0.94088,
-6.1146,-6.1146,13.639,24.9269,39.9784,-33.3935,23.9865,-10.8177,-0.47022,0.47022,-4.2329,-18.343,7.9955,9.8764,
-7.0546,-9.8768,28.639,21.1647,32.4527,-45.6224,32.4527,-8.9364,-0.47067,-4.2333,0.47067,-33.343,1.4111,10.8173,
-6.1137,-6.1137,38.0975,21.1652,24.9278,-49.385,24.9278,-9.8773,4.2329,-11.7581,3.2924,-24.9278,-3.2924,4.2329,
-3.292,-2.3515,33.394,25.8687,11.7586,-45.6224,18.3434,-11.7586,9.8768,-3.292,2.3515,-9.9278,-9.8768,11.7586,
0,-10.3475,31.0416,32.9233,5.6435,-40.4486,23.5163,-10.3475,4.7031,0,-3.7626,-6.5848,-17.8728,14.1101,
0.47022,-7.0551,25.8683,27.75,20.6435,-25.4486,25.8683,-6.1137,-6.1137,-7.0551,-5.1733,-0.47022,-2.8728,6.1146,
-3.7631,0.94088,27.2794,20.6945,26.3389,-15.9914,28.2198,-1.8813,-0.94088,-0.94088,-3.7631,-5.644,12.1272,12.2288,
0.47022,2.352,30.5722,16.4621,29.6309,-14.5803,23.0461,-4.2329,-3.2924,-2.3511,-11.7581,-13.6399,-0.47022,10.8177,
3.2924,3.2924,29.6309,19.2843,39.9784,-8.9359,17.4026,-7.0551,-8.9359,-11.7581,-3.2924,-7.9955,-3.2924,7.0551,
-7.5253,0.94044,28.2194,23.5163,40.4486,-16.9323,21.6354,-15.0506,-3.7626,-10.3475,0,-7.5253,0,9.4062,
-10.8177,3.2924,25.8683,19.2834,52.2068,-19.2834,24.9278,-14.5803,-1.4107,-6.1146,-15,-3.2924,1.4107,10.8177,
-7.9955,-2.3511,29.6309,13.6399,51.2663,-19.2834,30.5722,-9.8764,0.47022,-2.3511,-11.7581,2.352,-0.47022,7.0551,
-0.94088,-5.644,35.7451,16.9319,41.3895,-18.8137,33.8642,-6.5844,1.8813,0.94088,-1.8813,-2.8218,-0.94088,10.347,
6.5844,1.8813,31.042,19.7532,47.9734,-15.9914,28.2198,-8.4662,-1.8813,-2.8227,-3.7631,-11.2884,-4.7035,16.9319,
1.4111,4.2333,19.2839,19.2839,52.2072,-16.4617,25.8687,-14.5799,-1.4111,-7.0546,-3.292,-2.3515,-10.8173,15.5212,
0.47022,-0.47022,8.9359,12.6986,49.3845,-16.4621,23.0461,-12.6995,-7.9955,-5.1742,-5.1742,12.6485,-0.47022,7.0551,
4.7031,-7.5253,7.5253,7.5253,44.2113,-22.5758,24.4576,-11.2879,-10.3475,-0.94044,-8.4657,20.695,0,0,
7.5253,0,16.9314,15.0506,40.4486,-23.5172,27.2789,-11.2879,-4.704,0,-2.8222,5.695,-7.5253,6.5839,
0.47022,-0.47022,19.2834,17.4025,25.8683,-21.1652,23.0461,-13.6399,-7.9955,-8.9359,1.4107,-7.9955,-5.1733,3.2924,
-4.2324,-11.7586,23.9869,17.4021,15.5212,-28.69,27.7496,-10.8173,-2.3515,-7.9951,2.3515,-6.1142,3.2929,6.1142,
-3.2929,-14.5808,23.0456,18.3425,23.0456,-43.69,30.5718,-7.9959,3.292,-1.4111,-2.3515,-13.6404,1.4111,10.8173,
-8.4662,-12.2288,19.7541,20.6945,23.5167,-48.9148,30.1016,-13.1692,0.94088,0.94088,-3.7631,-15.051,-0.94088,8.4662,
-15.9914,-10.347,16.9319,13.1692,15.051,-38.5673,18.8137,-18.8137,-12.2288,-10.347,0.94088,-0.94088,14.0591,10.347,
-12.699,-12.699,11.7586,1.4111,22.1061,-30.5718,7.0555,-19.2839,-23.0465,-22.1052,-1.4111,11.7586,25.8687,8.9364,
-2.352,-13.6399,7.9955,6.1137,37.1061,-29.6309,17.4025,-15.5208,-12.6995,-9.8773,-0.47022,13.6399,17.4025,0.47022,
-3.292,-9.8768,6.1142,13.6395,40.9193,-35.2749,26.8092,-10.8173,-2.3515,-4.2324,7.0555,1.4111,25.8687,-1.4111,
-18.292,-13.6395,12.699,13.6395,25.9193,-39.9779,23.0465,-9.8768,-0.47067,-9.8768,0.47067,-7.9959,10.8687,10.8173,
-15.9914,-6.5844,19.7541,17.8723,25.3976,-24.9779,21.635,-5.644,0.94088,-3.7631,-0.94088,7.0041,-4.1313,14.1097,
-6.5839,0,4.7541,5.6444,40.3976,-9.9779,15.9919,-13.1688,-12.2284,-13.1688,-0.94044,8.4666,5.6444,-0.89032,
-3.7626,4.7031,0.94044,5.6435,25.3976,2.8222,22.5758,-7.5253,-11.2879,-11.2879,-0.94044,-6.5334,-3.7626,3.7626,
-3.7626,19.7031,15.9404,18.8132,10.3976,17.8222,17.8728,3.7626,-10.3475,-7.5253,-3.7626,-3.7626,-17.8728,8.4657,
4.7035,20.6945,6.5844,12.2288,21.635,19.7541,14.1097,-9.4066,-19.7541,-22.5253,-13.1692,-6.5844,-25.3976,-4.7035,
19.7035,28.2198,0.94088,18.8137,36.635,15.0501,29.1097,-1.8813,-10.347,-15.051,-15.051,-16.9319,-33.8642,-0.94088,
34.7035,43.2198,-3.7626,19.7536,51.635,21.6354,40.4486,3.7626,-17.8728,-14.1101,-30.051,-31.9319,-48.8642,-9.4071,
49.7035,58.2198,6.1142,14.5808,66.635,17.4021,40.9193,-6.1142,-25.8678,-29.1101,-40.9193,-46.9319,-63.8642,-24.4071,
64.7035,73.2198,21.1142,17.8732,81.635,8.4662,55.9193,-8.4662,-19.7541,-36.6855,-36.6855,-61.9319,-48.8642,-24.4572,
79.7035,88.2198,24.4576,25.398,96.635,4.7031,70.9193,-4.7031,-12.2284,-23.5172,-29.1607,-60.2027,-34.8051,-10.3475,
94.7035,103.2198,32.4531,37.1562,111.635,0.47022,85.9193,-0.47022,-6.1146,-21.1652,-25.8683,-75.2027,-47.5041,-10.8177,
109.7035,118.2198,47.4531,39.9784,126.635,-8.9368,100.9193,7.0551,-7.0551,-19.2843,-21.1652,-84.1901,-32.5041,-10.8177,
124.7035,122.2867,47.0339,31.042,141.635,-23.9368,115.7019,-7.9449,-17.8723,-18.8128,-27.2794,-87.4816,-17.5041,-8.4662,
139.7035,107.7064,42.8002,40.9193,156.635,-38.9368,124.6378,-22.9449,-7.0555,-15.5212,-32.4527,-88.8932,-2.5041,-2.3515,
154.7035,92.7064,45.6224,47.5032,171.635,-53.9368,122.7569,-23.9869,4.2333,-11.7586,-25.8683,-92.6554,-4.2333,-6.1142,
139.7035,77.7064,30.6224,32.5032,186.635,-68.9368,107.7569,-38.9869,-8.4657,-23.5163,-22.5758,-107.6554,8.4657,-20.695,
124.7035,62.7064,18.343,19.2843,201.635,-83.9368,94.5371,-53.9869,-10.8177,-17.4017,-17.4017,-121.8161,23.4657,-7.0551,
109.7035,47.7064,20.2243,28.69,216.635,-98.9368,103.9437,-68.9869,1.4111,-10.8182,-19.2839,-115.2317,17.4021,-1.4111,
94.7035,32.7064,25.8687,36.2153,231.635,-113.9368,99.2407,-75.7235,16.4111,-4.2333,-4.2839,-111.469,21.1647,-0.47067,
79.7035,17.7064,10.8687,21.2153,246.635,-128.9368,84.2407,-84.1897,2.352,-9.8773,-0.47022,-102.0624,36.1647,0.47022,
64.7035,2.7064,1.4111,18.3425,261.635,-143.9368,77.6044,-91.7149,2.3515,-1.4111,-12.699,-94.5371,40.9184,4.2324,
49.7035,-12.2936,3.7626,26.3385,252.0978,-158.9368,87.4812,-89.3638,17.3515,12.2284,-9.407,-89.3638,35.7446,-3.7626,
34.7035,-27.2936,0.47022,21.1652,238.4588,-173.9368,87.9523,-97.3589,22.1056,10.8177,-0.47022,-86.0705,48.4441,-11.7581,
19.7035,-42.2936,-0.94044,17.8728,223.4588,-188.9368,73.3719,-107.2362,14.1101,0.94044,0.94044,-80.8972,57.3809,-6.5848,
4.7035,-57.2936,-3.2924,26.8087,208.4588,-203.9368,72.9017,-98.2998,17.4025,3.2924,11.7581,-65.8972,71.02,-3.2924,
-10.2965,-72.2936,-3.2924,23.9874,193.4588,-218.9368,75.7239,-99.2402,19.2843,3.2924,11.7581,-70.0795,61.6138,-11.7581,
-25.2965,-87.2936,-0.47022,23.0461,178.4588,-233.9368,65.3764,-103.9437,14.5803,0.47022,4.2329,-79.4861,50.3259,-7.9955,
-40.2965,-102.2936,-3.7626,22.5758,163.4588,-248.9368,57.3809,-98.77,21.6354,3.7626,9.4062,-91.2447,47.9739,-6.5848,
-55.2965,-117.2936,-4.7031,23.5163,148.4588,-263.9368,62.084,-91.2447,24.4576,4.7031,18.8132,-89.3634,62.9739,-12.2284,
-70.2965,-132.2936,-4.7031,25.398,142.0408,-278.9368,58.3214,-91.2443,16.9323,4.7031,19.7545,-75.2533,77.9739,-7.5253,
-85.2965,-147.2936,-7.5248,17.8732,127.0408,-293.9368,47.0339,-99.7104,15.9914,1.8813,5.644,-78.075,63.9653,-1.8813,
-100.2965,-162.2936,-2.3515,20.2243,112.4095,-308.9368,55.0294,-95.4776,19.2839,2.3515,6.1142,-63.075,67.2578,-2.3515,
-115.2965,-160.3838,-0.47022,23.0461,105.8251,-323.9368,55.029,-94.5371,17.4025,0.47022,16.4612,-48.075,65.3764,-3.2924,
-123.6974,-164.146,-2.352,25.8683,99.2402,-338.9368,49.3845,-88.8927,19.2834,-0.47022,16.4621,-51.2663,51.2663,0.47022,
-118.9943,-161.3242,-2.352,22.1056,104.8846,-353.9368,55.029,-83.2488,21.1652,2.352,13.6399,-57.8512,66.2663,-7.9955,
-132.6338,-155.2096,-2.8222,13.1697,96.8891,-348.0461,54.5587,-90.3038,21.6354,2.8222,12.2284,-51.7365,67.7284,-11.2879,
-135.9262,-146.2737,-4.2333,9.8768,97.3589,-338.1693,41.8597,-89.8336,10.8182,1.4111,8.9364,-38.0971,52.7284,-1.4111,
-126.5196,-146.2737,-3.2924,15.5208,98.2998,-331.5849,46.5632,-81.3679,14.5803,3.2924,9.8773,-39.038,59.732,-3.2924,
-126.0494,-150.507,-5.644,18.8128,89.3634,-329.2333,53.6179,-85.6008,17.8723,5.644,13.1692,-45.1521,74.732,-13.1692,
-127.46,-144.3924,-12.6986,8.9368,89.8341,-314.6525,39.038,-92.6554,8.9368,4.2329,10.8177,-34.3344,71.9613,-4.2329,
-131.2227,-145.3328,-16.4617,0.47067,75.7235,-313.7121,38.0971,-92.6554,11.7586,3.2929,3.2929,-36.2158,56.9613,-0.47067,
-122.7569,-134.9857,-15.5212,13.6395,74.783,-309.0086,46.5628,-78.5457,19.2839,9.8768,5.1737,-25.8683,61.6134,-5.1737,
-118.5241,-137.3373,-19.7536,24.4576,66.7871,-308.5383,40.4486,-80.8972,12.2284,4.7031,7.5253,-32.9233,49.8557,-4.7031,
-122.7565,-145.3328,-9.8764,27.75,51.7871,-311.8303,36.2158,-87.0114,12.6995,6.1146,4.2329,-47.9233,34.8557,-4.2329,
-118.9943,-130.3328,-6.1142,23.0465,55.0285,-297.7211,36.2153,-78.5457,13.6395,6.1142,8.9364,-32.9233,49.8557,-12.699,
-108.6468,-118.0534,-5.1737,25.8687,70.0285,-290.1954,51.2153,-67.2578,22.1061,5.1737,23.9364,-24.9278,64.8557,-8.9364,
-111.469,-131.2231,-9.8768,26.8092,85.0285,-305.1954,55.0285,-74.783,20.2243,5.1737,17.4021,-39.9278,78.5457,-5.1737,
-114.7614,-130.7524,-7.5253,30.1011,91.2447,-306.657,52.677,-81.8381,21.6354,11.2879,2.4021,-47.9739,63.9649,0,
-115.2312,-134.0449,-8.9359,22.1056,76.2447,-304.305,47.5037,-85.1301,20.2248,3.2924,3.2924,-32.9739,48.9649,-3.2924,
-110.5281,-131.2227,-1.4111,20.2243,91.2447,-290.1954,48.4446,-73.8422,17.4021,-0.47067,18.2924,-23.9869,59.7325,0.47067,
-118.0539,-132.1635,0.47022,15.5208,106.2447,-288.314,43.741,-77.6053,6.1146,-0.47022,22.1056,-36.2158,74.7325,-9.8773,
-110.9988,-122.2867,-4.7031,15.991,109.1175,-282.1999,44.2113,-80.8972,5.6444,4.7031,17.8728,-30.1011,89.7325,-18.8132,
-110.0579,-123.2272,-15.0501,15.051,105.3544,-271.8524,42.3299,-77.1346,13.1692,8.4662,20.6945,-20.6945,88.423,-8.4662,
-118.0539,-136.8671,-20.2248,13.6399,90.7745,-278.9074,36.2158,-80.427,7.9955,-0.47022,10.8177,-35.6945,73.423,0.47022,
-106.7655,-121.8671,-6.1142,19.2839,103.0033,-266.6786,43.7415,-73.8422,7.0555,-2.3515,7.9959,-35.2749,63.4951,2.3515,
-109.1175,-118.5241,-2.8222,15.0506,96.8882,-263.3867,46.093,-71.4906,10.3475,2.8222,12.2284,-32.9233,73.3719,-5.6444,
-110.5281,-121.8161,-9.8764,15.5217,95.4776,-257.272,39.038,-69.1386,8.9368,7.0551,11.759,-21.1643,69.1391,-7.0551,
-108.6473,-109.5877,-12.6995,16.4612,101.1211,-244.1032,35.2744,-69.1391,7.9955,3.2924,8.9359,-6.1643,77.6048,-7.9964,
-103.4731,-109.1175,-4.7035,23.5167,94.0665,-251.1578,43.2704,-67.728,16.9319,4.7035,23.5167,-19.7541,81.8381,-4.7035,
-96.8882,-112.8797,-3.7626,25.398,94.0669,-254.9205,38.5677,-64.9058,9.407,3.7626,26.3385,-34.7541,76.1941,-4.7031,
-97.3589,-101.1215,-3.2924,19.2834,93.5958,-239.9205,37.1562,-59.7325,7.0551,3.2924,14.5803,-23.9874,67.2573,-5.1742,
-96.4185,-91.7154,-5.1737,17.4021,97.3589,-224.9205,39.0375,-59.7325,11.7577,5.1737,12.699,-8.9874,70.0791,-8.9364,
-96.8887,-102.5326,-12.2288,13.1692,99.71,-221.0567,33.8642,-68.6689,2.8218,-2.8218,13.1692,2.8218,81.8381,-15.9914,
-95.9478,-105.3544,-0.94044,19.7545,94.0669,-231.4038,42.3304,-63.9649,9.4071,0,18.8132,0,83.7194,-1.8809,
-94.5367,-102.062,0.47022,16.4621,83.2492,-229.9927,39.038,-62.5538,6.1146,-0.47022,9.8773,-15,70.0795,-2.3511,
-84.6599,-101.5918,0.94088,23.5167,86.5412,-221.0563,41.3895,-59.2618,9.4066,-0.94088,7.5257,-24.4572,71.4906,-1.8813,
-93.126,-105.3544,-3.7631,23.5167,93.126,-216.3532,38.5673,-61.1431,8.4662,-3.7631,9.4066,-15.051,77.135,3.7631,
-103.0029,-102.0624,-7.9955,12.6986,93.5958,-214.0017,33.3935,-59.7325,3.2924,-1.4107,17.4026,-16.4621,81.3674,1.4107,
-100.1806,-102.062,-4.2329,11.7581,84.1896,-217.7638,38.0975,-56.9103,5.1742,4.2329,15.5208,-21.1652,77.6048,-9.8773,
-90.7745,-96.4185,-0.47022,16.4612,94.5362,-209.2986,37.1562,-54.0885,4.2329,0.47022,11.7581,-13.6399,92.6048,-13.6399,
-83.719,-89.3629,-0.94088,17.8732,105.3544,-194.2986,40.4491,-49.8552,7.5257,0.94088,16.9319,-10.347,104.414,-0.94088,
-88.8927,-95.4776,-9.8773,11.7581,90.7745,-193.3067,33.3936,-62.5542,2.352,0.47022,8.9368,-14.5803,89.414,-0.47022,
-79.4861,-90.7745,-7.0551,12.6986,95.4776,-186.7223,29.6309,-60.6729,2.352,-1.4107,7.9955,-2.352,74.414,1.4107,
-75.2537,-95.0074,0.94088,13.1692,96.8887,-189.0743,39.5077,-51.737,10.347,-0.94088,21.635,-1.8813,71.4906,-1.8813,
-87.0119,-98.2998,-9.8768,6.1142,92.6558,-188.6036,34.3344,-56.9103,3.292,-3.292,15.5212,5.1737,56.4906,-13.6395,
-87.4825,-89.3638,-13.1697,6.5839,92.1851,-173.6036,28.2194,-56.4405,0,0,9.4062,18.8132,41.4906,-12.2293,
-83.2488,-95.4776,-7.0546,6.1142,80.4275,-179.1966,27.7496,-58.7916,1.4111,-1.4111,8.9364,3.8132,36.2162,-16.4617,
-76.6648,-90.7745,-5.1737,12.699,87.0114,-185.7818,35.2749,-52.2072,4.2324,-1.4111,15.5203,1.4111,41.8597,-3.2929,
-79.9568,-83.7194,-10.3475,5.6435,93.1256,-172.1419,31.9829,-61.1436,-2.8222,-5.6444,10.3475,5.6435,28.2203,2.8222,
-71.0204,-71.9608,0.47022,-0.47022,100.1806,-157.1419,23.9874,-58.7916,-5.1733,0.47022,13.6399,20.6435,43.2203,-3.2924,
-68.6684,-73.3719,7.5253,0,91.2447,-167.4384,20.695,-50.7961,-4.7031,0,19.7545,28.2203,58.2203,-9.4062,
-71.9608,-88.3719,4.2333,5.1737,80.4275,-182.4384,28.6909,-62.5542,-2.3515,-12.699,10.8182,13.2203,45.6224,-6.1142,
-77.1346,-88.4225,-0.94044,10.3475,87.4821,-175.9046,30.1011,-68.6684,2.8222,-10.3475,9.407,-1.7797,46.093,0.94044,
-85.6008,-88.423,-4.7035,13.1692,72.4821,-166.498,29.1602,-59.2623,1.8813,-6.5853,17.8723,-1.8813,54.5583,4.7035,
-70.6008,-84.1896,-3.2924,19.2834,80.427,-161.3242,32.4531,-51.2663,0.47022,-14.5803,19.2834,-0.47022,61.6138,5.1733,
-55.6008,-75.2537,-5.644,16.9319,95.427,-158.0323,47.4531,-61.1436,1.8813,-15.051,11.2875,0.94088,70.5493,-0.94088,
-56.9103,-71.02,-6.1142,17.4021,110.427,-163.2056,62.4531,-70.0795,9.8768,-3.292,7.0555,-0.47067,60.6729,0.47067,
-57.8512,-65.3764,-6.1146,22.1056,123.6978,-152.8585,47.4531,-59.7325,7.0551,0.47022,6.1146,-6.1146,56.9098,-0.47022,
-54.5587,-66.7875,-6.5848,23.5163,126.9894,-146.7443,46.0921,-52.6774,3.7626,10.3475,7.5253,-15.9919,62.084,-3.7626,
-68.1982,-78.5457,-21.5848,11.7581,111.9894,-159.4429,52.2068,-64.4356,-2.352,14.5803,5.1733,-13.6399,49.3845,2.352,
-57.8507,-78.5452,-34.3344,2.3515,106.7659,-150.9767,48.4446,-63.4947,-2.3515,9.8768,8.9364,-4.2324,59.7325,17.352,
-47.9734,-76.1937,-30.1016,1.8813,109.117,-140.159,47.033,-53.6179,-1.8813,6.5844,10.347,-19.2324,74.7325,14.1097,
-44.2108,-62.084,-25.3976,5.644,108.1766,-126.0489,46.0926,-40.4482,-5.644,15.051,15.051,-34.2324,89.7325,13.1692,
-47.9743,-62.0845,-26.3389,1.8813,93.1766,-128.8716,36.6855,-41.3895,-1.8813,10.347,15.9906,-49.2324,74.7325,17.8723,
-59.7325,-70.08,-25.8683,2.3511,78.1766,-142.511,30.5713,-49.3854,-0.47022,0.47022,11.7581,-62.5547,59.7325,8.9359,
-52.2072,-57.8512,-31.5122,8.9364,67.2578,-135.9262,42.8002,-43.7406,-4.2333,4.2333,13.6395,-47.5547,74.7325,4.2333,
-50.3259,-59.7325,-28.69,3.292,68.1982,-132.1635,50.3254,-39.0375,-3.292,4.2333,16.4617,-51.2663,84.1892,17.4021,
-51.737,-62.084,-20.695,3.7626,56.4396,-134.5155,42.3295,-37.6264,4.7031,-3.7626,18.8132,-63.9653,69.1892,26.3385,
-47.9743,-57.3809,-25.398,12.2284,60.2023,-136.3969,41.389,-37.6264,4.7031,-4.7031,30.1011,-48.9653,84.1892,20.6941,
-43.2708,-61.1431,-30.1011,15.991,52.677,-133.5746,47.0335,-39.5082,0.94044,-0.94044,36.686,-33.9653,99.1892,20.695,
-51.7365,-60.2027,-29.1607,17.8728,37.677,-126.9898,45.1517,-36.686,2.8222,-2.8222,23.5163,-46.0926,84.1892,28.2203,
-66.7365,-54.5587,-33.8642,17.8723,22.677,-126.9898,35.7451,-34.8047,5.644,-5.644,12.2288,-61.0926,69.1892,27.2794,
-56.4401,-39.5587,-35.7451,24.4572,37.677,-112.8801,35.7451,-29.1611,4.7035,-4.7035,19.7541,-48.9148,84.1892,29.1602,
-49.385,-35.2753,-27.75,33.3936,36.2158,-109.5877,46.5632,-28.6905,3.2924,-3.2924,23.0461,-53.1476,86.0705,35.2744,
-56.4401,-50.2753,-23.5167,38.5673,21.2158,-124.5877,49.8552,-32.9233,-0.94088,0.94088,15.051,-68.1476,71.0705,29.1602,
-53.6179,-48.9143,-14.1097,37.6269,29.1611,-126.0489,47.9743,-31.9824,-5.644,5.644,14.1106,-75.2533,56.0705,26.3389,
-52.6774,-42.3299,-10.347,32.9229,37.6269,-114.7614,47.033,-29.1607,-5.644,5.644,14.1097,-78.0755,45.1521,31.042,
-52.2072,-40.9193,-25.347,32.4531,30.5713,-109.5877,50.3259,-23.0461,-7.9955,7.9955,9.8773,-69.1391,46.5632,31.5118,
-54.5583,-47.9739,-22.5754,34.8047,15.5713,-120.405,55.4996,-28.2198,-8.4662,12.2288,8.4662,-57.3805,41.3895,32.9238,
-53.6179,-54.5583,-7.5754,41.3891,0.57134,-135.405,55.4992,-34.8047,3.7626,7.5253,7.5253,-72.3805,26.3895,32.9233,
-50.3259,-50.3259,-22.5754,33.3931,15.5713,-126.5196,46.5628,-31.5127,1.4111,-1.4111,2.3515,-87.3805,23.9869,21.1647,
-49.8552,-46.0926,-37.5754,30.1016,23.5167,-116.6428,47.033,-28.2198,-2.8218,4.7035,2.8218,-79.9568,26.3389,24.4572,
-39.0375,-37.1562,-40.9188,41.8602,8.9368,-117.1125,52.2076,-24.9274,-3.2924,9.8773,3.2924,-71.9608,23.047,28.6905,
-36.2158,-30.5718,-25.9188,44.681,14.5799,-113.3503,55.9698,-21.1647,-5.1737,8.9364,5.1737,-57.8512,31.5122,25.8678,
-51.2158,-40.9193,-29.6314,29.681,12.699,-110.5286,42.8002,-30.5718,-4.2333,9.8768,4.2333,-53.1476,32.4527,25.8678,
-49.8552,-44.2108,-33.8642,17.8723,15.9914,-100.6513,30.1016,-31.042,-6.5844,7.5257,6.5844,-47.9739,36.6864,26.3389,
-42.3295,-44.2113,-31.9829,21.6354,24.4576,-98.77,44.2113,-28.2203,-6.5848,6.5848,15.991,-48.9148,36.686,13.1697,
-48.4441,-39.9779,-32.4527,27.7496,29.6314,-103.9433,52.2072,-32.4527,-5.1737,5.1737,17.403,-58.7912,41.8597,11.7586,
-49.385,-28.69,-25.8687,31.5122,32.4527,-96.4185,44.6819,-22.1061,-6.1142,6.1142,9.8768,-59.7325,56.8597,26.7586,
-44.6819,-36.2158,-17.4021,30.5718,23.9869,-87.9523,43.7406,-18.3434,-6.1142,10.8173,6.1142,-58.7916,45.6224,31.5122,
-39.038,-38.0975,-23.047,21.1643,25.8683,-79.4866,40.9188,-27.75,-3.2924,3.2924,5.1733,-55.9698,32.4522,17.4017,
-44.6819,-30.5718,-31.5122,14.5799,27.7496,-79.4861,34.3344,-30.5718,4.2333,-4.2333,4.2333,-47.5037,29.6314,19.2839,
-41.8597,-25.8687,-22.1061,22.1052,29.6314,-77.6048,32.4527,-29.6314,-3.292,3.292,7.9959,-37.1566,34.3344,22.1052,
-26.8597,-15.5212,-18.3434,33.394,44.6314,-62.6048,40.9193,-24.9274,-7.9959,7.9959,20.2243,-38.0971,47.5032,25.8678,
-11.8597,-10.347,-33.3434,30.1016,49.8552,-49.8552,47.0339,-15.9914,1.8813,-1.8813,18.8137,-47.033,42.3299,28.2198,
-24.4572,-13.1692,-48.3434,28.2198,43.2713,-56.4396,38.5673,-12.2288,1.8813,-1.8813,11.2884,-32.033,42.3299,22.5763,
-26.3389,-23.5167,-37.6269,31.9824,36.6864,-60.2027,31.9824,-18.8137,-2.8218,2.8218,15.051,-18.8137,40.4491,17.8723,
-13.1692,-14.1097,-22.6269,30.1016,42.3299,-57.3805,35.7451,-11.2884,0.94088,-0.94088,18.8137,-19.7541,26.3389,24.4572,
-13.1697,-0.94044,-7.6269,22.5758,47.0335,-50.7961,38.5677,-3.7626,0.94044,-0.94044,21.6354,-9.407,15.991,25.398,
-28.1697,-15.9404,-16.4621,22.1056,32.0335,-61.6138,39.038,-14.5803,-2.352,2.352,22.1056,-12.6995,13.6399,20.2239,
-33.8638,-20.695,-24.4576,31.0416,17.0335,-66.7871,33.8638,-20.695,0,0,12.2284,-18.8132,28.6399,26.3385,
-35.2753,-20.2248,-14.5803,32.4531,4.2329,-69.1391,31.5118,-21.1652,2.352,-2.352,7.0551,-32.4531,13.6399,25.8683,
-37.1562,-24.9278,-0.47022,36.2158,1.4107,-63.4947,36.2158,-16.4612,0.47022,5.1742,8.9368,-40.9188,-1.3601,23.0461,
-31.9829,-20.695,-7.5253,38.5668,15.0506,-50.7961,40.4486,-12.2284,0.94044,12.2284,6.5848,-26.3385,-0.94044,33.8638,
-31.0416,-26.3385,-18.8132,29.1607,0.050562,-63.0245,34.8051,-22.5758,0,2.8222,8.4666,-31.982,4.704,31.9829,
-23.0465,-21.1647,-7.0546,32.4527,0.47067,-59.732,28.69,-18.3425,-0.47067,3.2929,23.4666,-32.4527,9.8768,21.1647,
-35.7451,-25.398,-0.94044,32.9233,1.8818,-58.3209,31.0425,-15.991,-6.5848,8.4666,21.6354,-38.5673,0.94044,20.695,
-40.9188,-26.8092,-0.47022,39.038,6.1146,-57.8507,39.038,-17.4025,0.47022,15.5208,8.9359,-53.5673,-3.2924,34.334,
-41.389,-22.5754,-7.5248,34.8047,-0.94088,-56.4396,24.038,-17.8723,0.94088,15.051,15.9914,-47.9739,11.2884,32.9238,
-51.2663,-31.5122,-6.1142,31.5122,-15.9409,-67.2578,20.2243,-16.4617,6.1142,14.5808,16.4617,-41.8597,14.5808,28.69,
-47.5041,-37.1566,-7.0551,27.7491,-3.2924,-71.0204,23.0461,-19.2843,3.2924,7.0551,5.1733,-50.3259,6.1137,23.9865,
-34.8042,-31.982,-8.4657,26.3385,11.7076,-61.1431,22.5758,-20.6941,-3.7626,7.5253,14.1101,-49.8552,3.7626,21.6354,
-43.2708,-36.686,-9.407,29.1607,10.3475,-64.9058,21.6354,-22.5758,-5.6444,15.991,19.7536,-43.2708,5.6444,22.5758,
-42.3299,-31.042,-9.4066,31.042,9.4066,-57.3805,23.5167,-15.0501,-9.4066,15.051,9.4066,-28.2708,15.051,26.3389,
-38.0971,-26.8092,-4.2333,27.7496,7.9959,-52.2072,17.4021,-18.3434,-7.9959,4.2333,9.8768,-18.3434,10.8173,24.9274,
-40.9188,-26.8087,6.1146,33.3935,-7.0041,-53.1472,8.9368,-20.2239,4.2329,3.2924,16.4621,-28.6896,-3.2924,23.047,
-39.9784,-21.1652,7.9955,39.0371,-7.9955,-47.5037,23.0461,-10.8177,11.7581,9.8764,18.343,-30.5718,-9.8773,36.2158,
-30.5713,-22.1056,-5.1733,29.6309,5.1742,-44.6815,31.5127,-13.6399,3.2924,13.6399,20.2248,-25.8683,-3.2924,43.741,
-30.5718,-24.9274,-17.4021,18.3434,8.9364,-46.5628,16.5127,-23.0465,-8.9364,11.7586,17.4021,-20.2243,11.7076,30.5718,
-36.686,-19.7536,-3.7626,18.8132,0,-50.7957,8.4666,-15.0506,0,12.2293,9.4071,-25.3981,26.7076,19.7545,
-30.1011,-15.0506,0.94044,17.8728,1.8818,-47.0335,17.8728,-12.2284,-7.5253,-0.94044,0.94044,-25.398,23.5172,18.8132,
-15.1011,-7.5253,0,26.3385,16.8818,-32.0335,23.5163,-15.0515,-10.3475,0,15.9404,-10.398,38.5172,24.4567,
-24.9274,-20.2243,2.3515,20.2243,27.7496,-42.8002,14.5799,-26.8092,-14.5799,-2.3515,18.3425,-25.398,40.9193,12.699,
-33.8638,-20.6941,3.7626,19.7545,27.2798,-46.0921,8.4666,-23.5163,-13.1688,-3.7626,10.3475,-40.398,25.9193,15.0506,
-35.2744,-22.1056,-3.2924,23.9874,19.2834,-47.5037,9.8773,-20.2239,0.47022,-0.47022,16.4621,-25.398,33.3935,24.9278,
-36.2158,-28.6905,-0.47022,12.6986,11.7581,-52.2072,6.1146,-18.343,-5.1733,0.47022,13.6399,-10.398,23.0461,26.8087,
-28.6905,-19.2834,1.4107,9.8773,26.7581,-37.2072,9.8773,-13.6399,-12.6986,-1.4107,10.8177,-20.2248,15.5208,25.8683,
-16.4617,-13.6404,-13.5893,23.0456,35.2749,-22.2072,21.1647,-15.5212,-2.3515,2.3515,16.4617,-35.2248,15.5203,24.9274,
-10.8177,-19.2834,-28.5893,24.9278,24.9278,-31.5127,19.2834,-21.1652,-3.2924,3.2924,10.8177,-44.6819,15.5208,15.5208,
-11.7586,-15.5212,-28.6909,23.0456,33.3931,-22.1061,27.7496,-9.8777,-5.1737,5.1737,9.8768,-34.3344,17.4021,18.3425,
-18.8132,-10.3475,-14.1101,23.5163,42.3295,-11.2879,28.2194,-3.7626,-10.3475,3.7626,7.5253,-36.686,17.8728,22.5758,
-16.9319,-12.2288,-12.2288,30.1016,30.1016,-16.9319,16.9319,-4.7035,-10.347,6.5853,4.7035,-37.626,13.1692,30.1016,
-19.7541,-21.635,-8.4662,37.6269,15.1016,-31.9319,19.7541,-9.4066,2.8218,9.4066,7.5257,-39.5082,-1.8308,36.6855,
-20.2243,-8.9364,-7.0546,36.2162,17.403,-23.0456,23.0465,-7.0546,5.1737,7.9959,11.7586,-29.6305,-5.1737,30.5718,
-14.5808,2.3515,-5.1737,23.0465,32.403,-8.0456,16.4617,-5.1737,-4.2333,7.9959,9.8768,-14.6305,-8.9364,19.2839,
-15.0501,-5.644,-6.5844,11.2884,26.3389,-12.2288,9.4066,-14.1097,-13.1692,1.8813,1.8813,0.36954,-1.8813,14.1097,
-12.2284,0,-9.4062,19.7536,24.4576,-17.8728,22.5758,-7.5253,-9.4062,0,12.2284,-3.7626,13.1187,29.1097,
-22.5758,-10.3475,-13.1697,23.5163,9.4576,-26.3385,20.695,-5.6435,-0.94044,0.94044,14.1101,-18.7626,2.8222,36.686,
-19.2839,-14.5799,-4.2333,28.69,-2.3515,-30.5718,9.8768,-5.1737,7.0555,8.9364,3.2929,-21.1647,2.3515,27.7496,
-14.5803,-8.9368,-2.352,25.8683,0.47022,-35.2753,9.8773,-10.8177,-0.47022,8.9359,5.1733,-7.0551,11.7581,19.2834,
-9.8768,-1.4111,-2.3515,25.8687,7.9959,-24.9274,21.1647,-6.1142,-2.3515,10.8182,20.1733,-21.1647,1.4111,22.1061,
-10.8177,-8.9368,-4.2329,20.2239,13.639,-21.1652,13.639,-0.47022,0.47022,6.1137,14.5803,-34.3349,-4.2329,20.2239,
-15.5212,-22.1061,6.1142,20.2243,1.4111,-33.394,9.8768,-1.4111,5.1737,7.9951,-0.41965,-24.9283,-1.4111,18.3425,
-15.5208,-13.6399,4.2329,21.1652,4.2329,-21.1652,9.8773,-4.2329,-0.47022,9.8773,0.47022,-9.9283,-2.3511,22.1056,
-8.4662,-4.7035,-6.5853,16.9319,15.0501,-6.1652,9.4066,-1.8813,-4.7035,4.7026,3.7622,-6.5853,-8.4662,29.1602,
-7.9959,-11.7586,-1.4111,23.9869,2.3515,-2.3524,9.8768,1.4111,1.4111,7.0546,-4.2333,-21.5853,-14.5808,24.9274,
-17.4026,-10.8177,1.4115,28.6905,-5.1733,-11.7581,10.8177,-0.47022,2.352,15.5208,0.47022,-22.1056,-13.6399,18.343,
-26.8092,-18.3425,2.3515,24.9274,-14.5799,-21.1647,11.7586,-1.4111,1.4111,17.4021,7.9959,-19.2839,-28.6399,27.7496,
-21.1652,-24.9278,3.2924,26.8087,-23.047,-26.8096,10.8177,-3.2924,3.2924,14.5803,5.1733,-29.6309,-41.8602,27.7491,
-8.9359,-17.4025,4.2329,28.6905,-16.4612,-22.1056,12.6995,-3.2924,7.0551,13.6399,3.2924,-39.0375,-36.2158,19.2834,
-7.9959,-18.3434,7.9951,25.8678,-4.2333,-22.1061,9.8768,-1.4111,1.4111,8.9364,1.4111,-36.2162,-26.8092,24.9274,
-11.7577,-17.4021,14.5808,29.6314,-5.1737,-18.3425,15.5212,2.3515,-2.3515,13.6404,4.2333,-21.2162,-11.8092,38.0971,
-17.8723,-23.5167,14.1106,29.1611,-20.1737,-23.5167,20.6945,-2.8218,2.8218,17.8732,9.4066,-15.0501,-15.9914,30.1016,
-11.7581,-23.0461,14.5803,28.6905,-19.2834,-25.8683,11.7581,-4.2329,4.2329,10.8177,6.1146,-11.7581,-19.2834,22.1056,
-10.3475,-17.8728,15.0506,32.9233,-10.3475,-27.2789,10.3475,-0.94044,7.5253,8.4657,0.94044,-8.4657,-26.3385,26.3385,
-15.5208,-18.343,13.6399,29.6309,-25.3475,-28.6905,16.4621,-5.1733,15.5208,7.9955,5.1733,-23.0461,-35.2749,24.9278,
-11.2884,-15.9914,16.9319,15.9914,-24.4572,-15.051,7.5257,-1.8813,1.8813,3.7631,8.4662,-10.347,-20.2749,22.5763,
-14.5808,-20.2243,15.5212,12.699,-15.5212,-10.8182,3.292,0.47067,-8.9364,4.2333,7.0546,-0.47067,-16.4617,23.9869,
-16.9319,-15.051,9.4066,23.5167,-10.347,-11.2884,6.5844,-0.94088,0.94088,9.4066,5.644,-1.8813,-31.4617,26.3389,
-11.2884,-11.2884,12.2288,21.635,-5.644,-8.4662,-1.8813,-1.8813,1.8813,9.4066,1.8813,13.1187,-31.042,22.5754,
-10.3475,-15.0515,19.7536,15.991,-12.2293,-6.5848,-1.8818,0,0,12.2284,4.7031,22.5758,-33.8647,19.7536,
-10.347,-14.1106,11.2875,18.8128,-2.8218,2.8218,-8.4662,2.8218,-4.7035,9.4066,9.4066,7.5758,-29.1611,12.2288,
-11.7586,-22.1061,2.3515,20.2243,11.7586,2.3515,-14.5799,0.47067,-7.9959,-0.47067,7.9959,-7.4242,-17.4021,6.1142,
-4.7031,-19.7536,6.5848,15.9919,6.5848,0,-12.2284,0,-4.7031,-1.8809,0,3.7626,-18.8132,12.2293,
-0.94088,-4.7536,9.4066,14.1097,-3.7622,7.5257,-6.5844,2.8218,-1.8813,0.94088,0.94088,-6.5844,-31.042,24.4572,
-10.8173,-15.5212,0.47067,24.9274,-18.7622,-7.4743,-0.47067,2.3515,6.1142,7.0555,7.0555,-21.5844,-46.042,27.7496,
-2.3515,-13.6395,-14.5293,39.9274,-14.5808,-16.4617,2.3515,9.8768,15.5212,18.3425,14.5799,-36.5844,-61.042,36.2153,
-9.4071,-8.4666,-29.5293,29.1607,0,-9.4071,0,0,8.4657,8.4657,3.7626,-21.5844,-46.042,30.1011,
-2.8218,-1.8813,-44.5293,40.4491,-8.4653,-10.347,15,7.5257,19.7541,20.6954,1.8813,-6.5844,-40.4482,37.6269,
5.644,-11.2875,-45.1517,50.7965,-23.4653,-25.347,12.2288,12.2288,25.3985,26.3389,-5.644,-21.5844,-55.4482,38.5673,
4.2329,-6.1146,-39.0375,53.1472,-17.4025,-26.8092,4.2329,14.5803,30.5713,25.8683,-4.2329,-23.0465,-70.4482,44.6815,
-0.94044,0.94044,-38.5673,48.9143,-15.9914,-11.8092,0.94044,8.4657,22.5758,20.6941,-10.3475,-11.2879,-85.4482,44.2113,
4.2329,-4.2329,-32.4527,49.3854,-16.4617,-26.8092,5.1742,4.2329,24.9278,24.9278,-21.1647,-11.7581,-77.6048,40.9188,
5.644,-5.644,-20.695,48.9139,-9.4071,-41.8092,8.4653,5.644,36.6855,29.1602,-18.8137,-26.7581,-75.2537,39.5077,
-1.8818,0.94044,-28.2203,46.0921,-0.94044,-35.7455,1.8809,3.7626,33.8638,22.5758,-9.407,-23.5167,-77.1346,39.5082,
0.47022,2.3511,-36.2158,49.3845,-5.1742,-27.75,7.0551,-0.47022,37.1562,24.9269,-4.2333,-8.5167,-81.3679,48.4441,
11.2877,0.94066,-28.22,46.0928,-8.4659,-31.9827,12.229,-0.94066,36.6857,31.0422,-7.5255,-23.5167,-78.0752,47.0332,
14.1104,-0.94066,-13.22,47.9741,-7.5255,-31.0418,13.169,0.94066,26.3387,35.7449,-9.4068,-38.5167,-84.6601,41.3893,
7.0553,-2.3518,-12.6988,52.207,0.47044,-23.0463,10.8179,-0.47044,27.7494,39.0373,-11.7584,-26.8089,-92.6556,49.3848,
0.94088,-0.94088,-27.6988,41.3895,8.4662,-15.051,0.94088,-5.644,31.9824,30.1016,-20.695,-11.8089,-92.1856,47.033,
5.1737,-4.2329,-24.9274,42.8002,1.4111,-19.2834,9.8768,-1.4111,45.6224,35.2749,-16.4617,-22.1056,-103.0029,49.385,
7.0548,-11.7584,-24.9276,43.7408,3.2922,-29.6307,9.877,-3.2922,39.0377,33.3933,-19.2836,-22.1054,-109.5875,40.9195,
7.5253,-0.94044,-35.7455,31.9829,9.4062,-18.8132,0.94044,-6.5848,24.0377,18.3933,-19.7536,-7.1054,-97.8296,32.9233,
7.5253,2.8222,-33.8642,31.0416,4.7031,-4.7031,-2.8222,-2.8222,18.8132,19.7536,-17.8728,-8.4657,-87.4821,35.7455,
4.7031,-2.8222,-33.8638,40.4486,11.2879,-5.6435,0,0,23.5172,29.1607,-26.3385,-2.8222,-84.6599,39.5082,
0.47022,-2.3511,-24.9274,42.8006,7.0551,-11.7581,12.6995,-0.47022,33.3935,26.8087,-18.343,-0.47022,-99.6599,47.5037,
3.2924,3.2924,-13.6399,40.9188,-3.2924,-8.9364,5.1733,-3.2924,39.9784,25.8683,-4.2329,-7.9959,-100.1811,48.4441,
9.4068,5.6442,-10.3473,47.0332,-10.3473,-9.4064,0.94066,-0.94066,41.3897,40.8683,-4.7033,-0.94066,-85.1811,53.6181,
-0.47022,0.47022,-5.1737,55.0294,-18.343,-20.2243,15.9407,3.2924,39.0375,46.5628,-8.9364,-4.2329,-90.774,57.8507,
-8.4657,0,0,48.9148,-15.0506,-21.635,7.5257,0,32.9238,32.9238,-7.5253,-6.5844,-76.1937,42.8507,
2.3522,-1.4109,6.1149,49.3848,-14.5801,-17.4023,-0.47044,0.47044,39.0382,36.216,-5.1735,-2.3518,-69.1389,39.0382,
9.4068,-0.94066,-0.94066,54.5585,-12.2286,-14.1099,0.94066,5.6442,34.8049,38.5675,-15.0503,-4.7033,-84.1389,47.9746,
-3.7631,3.7622,-15.9407,42.3299,-6.5844,-9.4066,-2.8218,6.5844,22.5754,28.2198,-18.8137,2.8218,-74.3128,43.2704,
-4.2333,-0.47067,-13.6399,39.0375,-1.4111,-7.9959,0.47067,5.1737,24.9274,30.5718,-9.8768,7.0546,-59.3128,45.6224,
1.8809,0,-8.4666,38.5668,9.4062,-5.6444,-1.8818,0,16.9314,26.3385,-19.7545,-1.8818,-70.5502,51.7365,
-3.7626,4.704,-9.4062,36.686,6.5848,0,0,-0.94044,16.9323,20.695,-19.7536,-12.2284,-85.5502,40.4486,
-2.352,10.8177,-7.0551,44.6815,-0.47022,-0.47022,3.2924,0.47022,26.8087,26.8087,-4.7536,-9.8773,-70.5502,29.6309,
-5.1733,5.1733,-10.8177,37.1562,3.2924,0.47022,-1.4107,-4.2329,20.2248,18.343,-7.9955,-0.47022,-55.5502,35.2753,
-7.0546,4.2333,-7.9951,25.8687,1.4111,4.2333,-2.3515,-1.4111,21.1656,14.5808,-15.5203,-7.0546,-40.5502,36.2162,
-2.8218,8.4662,-4.7035,25.3976,-0.94088,0.94088,-9.4066,3.7622,24.4572,22.5763,-12.2288,-12.2288,-47.9739,24.4572,
0,0,-0.94044,40.3976,-6.5848,-8.4662,-0.94044,4.7031,32.9233,32.9233,-0.94044,2.7712,-60.2027,39.4572,
-3.7629,-12.2286,3.7629,46.0924,-21.5848,-23.4662,7.5255,-0.94066,36.6862,31.0418,0.94066,-4.7033,-71.4904,44.2115,
2.3515,2.7714,0.47067,40.9193,-17.4025,-15.5212,-0.47067,-2.3515,30.5718,23.9869,-6.1142,-19.7033,-66.3169,29.6314,
12.2293,9.4071,-8.4657,35.7455,-12.2284,-0.52123,-7.5253,-3.7626,26.3394,18.8132,-15.991,-34.7033,-81.3169,24.4576,
16.4621,7.0551,-17.4017,35.2753,-16.4612,4.2329,-8.9359,-4.2329,19.2843,13.6399,-19.2834,-30.5713,-84.1892,23.9874,
10.3475,12.2284,-20.695,27.2789,-15.9919,0,-12.2293,0,12.2284,10.3475,-22.5758,-16.9323,-69.1892,18.8132,
9.4062,13.1688,-28.2203,20.6941,-11.2879,0.94044,-21.6354,-0.94044,10.3475,5.6435,-30.1011,-5.6444,-64.9062,15.991,
13.6399,0.47022,-34.334,19.2834,-14.5803,0.47022,-30.5713,-9.8773,0.47022,0.47022,-30.5713,-0.47022,-75.7235,12.6995,
28.6399,8.9359,-19.334,32.4531,-16.4612,1.4107,-15.5713,-4.2329,15.4702,11.7581,-18.343,-1.4107,-74.783,18.343,
43.6399,22.5763,-10.347,30.1016,-4.7035,1.8813,-16.9319,-1.8813,14.1097,9.4066,-30.1016,-12.2288,-65.8467,17.8723,
58.6399,12.699,-24.9274,18.3425,9.8768,2.3515,-31.9319,-4.2333,-0.89032,3.292,-31.5122,-15.5212,-57.8512,15.5212,
53.1476,9.8777,-13.6395,14.5808,24.8768,14.5808,-46.9319,-5.1737,-1.4111,1.4111,-26.8083,-9.8768,-69.1386,20.2243,
68.1476,24.8777,-8.4657,19.7536,39.8768,29.5808,-61.9319,-2.8222,2.8222,-2.8222,-35.7455,-15.991,-73.3719,25.398,
83.1476,39.8777,-9.8773,22.1056,54.8768,14.5808,-76.9319,-10.8177,0.47022,-0.47022,-33.3936,-30.991,-86.071,23.9874,
98.1476,54.8777,-0.94044,27.2789,69.8768,-0.41921,-91.9319,-16.9323,0.94044,6.5848,-23.5167,-45.991,-97.8296,24.4576,
113.1476,69.8777,-0.94088,27.2794,84.8768,-5.644,-76.9319,-13.1692,0.94088,-2.8218,-37.6264,-36.686,-112.8296,22.5763,
128.1476,84.8777,-3.2924,22.1056,99.8768,-0.47022,-61.9319,-10.8177,0.47022,-6.1137,-52.6264,-51.686,-127.8296,14.5803,
143.1476,99.8777,-2.352,19.2834,114.8768,-15.4702,-46.9319,-16.4621,0.47022,-0.47022,-50.3259,-66.686,-142.8296,8.9359,
158.1476,114.8777,-1.8809,21.6354,129.8768,-30.4702,-31.9319,-21.635,0,0,-54.5583,-70.5497,-157.8296,7.5253,
173.1476,129.8777,-2.3515,25.8687,144.8768,-20.2243,-16.9319,-6.635,-12.699,2.3515,-69.5583,-85.5497,-172.8296,2.3515,
188.1476,144.8777,-1.8813,19.7532,159.8768,-12.2293,-1.9319,8.365,-20.695,1.8813,-82.779,-100.5497,-187.8296,-3.7631,
203.1476,159.8777,2.3515,15.5212,174.8768,-23.9869,13.0681,5.1737,-12.699,-5.1737,-85.1305,-115.5497,-202.8296,-2.3515,
218.1476,174.8777,1.8813,23.5167,189.8768,-8.9869,28.0681,14.1097,-16.9323,-3.7631,-94.0669,-130.5497,-217.8296,-1.8813,
233.1476,189.8777,-13.1187,8.9368,204.8768,6.0131,43.0681,23.9874,-31.9323,-7.0551,-109.0669,-145.5497,-232.8296,-16.8813,
248.1476,204.8777,-13.6399,12.6986,219.8768,1.4107,58.0681,38.9874,-23.9869,-1.4107,-120.8756,-160.5497,-247.8296,-12.699,
263.1476,219.8777,-6.5846,17.873,234.8768,4.7033,73.0681,48.9146,-15.9912,-4.7033,-113.8203,-164.6164,-262.8296,-6.5846,
278.1476,234.8777,-21.5846,6.5848,249.8768,19.7033,88.0681,56.4396,-24.4576,-6.5848,-118.5241,-174.0233,-277.8296,-11.2884,
293.1476,249.8777,-36.5846,2.8222,264.8768,34.7033,103.0681,71.4396,-30.1011,-2.8222,-121.3458,-184.3703,-292.8296,-13.1688,
308.1476,264.8777,-39.5082,6.5844,279.8768,49.7033,118.0681,85.6008,-26.3389,-6.5844,-124.168,-173.0828,-300.0726,-17.8728,
323.1476,279.8777,-43.2704,6.5848,294.8768,64.7033,133.0681,79.9568,-28.2198,-6.5848,-125.1085,-173.0824,-295.3691,-19.7541,
338.1476,294.8777,-39.038,-0.47022,309.8768,79.7033,148.0681,79.4857,-35.2753,0.47022,-115.2317,-169.7904,-280.3691,-19.2834,
353.1476,309.8777,-24.038,2.352,324.8768,94.7033,163.0681,84.1896,-28.6905,-2.352,-105.8251,-157.5616,-265.3691,-22.1056,
368.1476,324.8777,-23.0465,5.1737,339.8768,109.7033,178.0681,83.2488,-27.75,-5.1737,-105.8251,-142.5616,-250.3691,-20.2243,
383.1476,339.8777,-38.0465,-1.4107,354.8768,118.9939,193.0681,75.7239,-36.2158,1.4107,-106.7655,-127.5616,-235.3691,-8.9359,
398.1476,354.8777,-45.1517,-0.94088,369.8768,104.414,208.0681,67.728,-40.4486,0.94088,-114.761,-128.8711,-225.7598,-9.4066,
413.1476,369.8777,-41.8597,3.2924,384.8768,109.5877,223.0681,71.9604,-31.5127,-3.2924,-116.1725,-116.1725,-225.2896,-18.343,
428.1476,384.8777,-39.0375,0.47067,399.8768,124.5877,238.0681,71.0204,-23.0465,-0.47067,-105.8251,-101.1725,-210.2896,-18.3434,
443.1476,399.8777,-45.6228,-3.2924,414.8768,139.5877,253.0681,70.0795,-29.6309,3.2924,-95.478,-90.7745,-195.2896,-11.759,
458.1476,414.8777,-48.4446,-4.2329,429.8768,138.7484,268.0681,67.2573,-31.5127,4.2329,-91.7149,-87.9523,-180.2896,-10.8177,
473.1476,429.8777,-36.686,-2.8222,444.8768,123.7484,283.0681,62.084,-28.2203,2.8222,-91.2447,-81.8377,-165.2896,-15.0506,
488.1476,444.8777,-28.69,0.47067,459.8768,118.0539,298.0681,60.6729,-31.5122,-0.47067,-85.1301,-72.9017,-150.2896,-12.699,
503.1476,459.8777,-26.3385,0.94044,474.8768,113.8206,313.0681,58.3214,-30.1011,-0.94044,-81.8381,-82.7785,-135.2896,-10.3475,
518.1476,474.8777,-19.7536,0,489.8768,107.2357,328.0681,62.084,-25.3981,0,-85.6008,-76.1937,-120.2896,-2.8222,
533.1476,489.8777,-27.2798,-11.2879,504.8768,104.4135,343.0681,62.084,-29.1607,-2.8222,-87.4821,-63.9653,-105.2896,2.8222,
548.1476,504.8777,-40.4486,-12.2284,519.8768,101.5922,358.0681,55.4992,-26.3385,3.7626,-72.4821,-71.4906,-90.2896,-3.7626,
563.1476,519.8777,-46.0926,-2.8218,534.8768,104.414,373.0681,51.7361,-28.2198,2.8218,-62.084,-64.9062,-75.2896,-12.2288,
578.1476,534.8777,-43.741,-0.47022,549.8768,97.3584,388.0681,52.2068,-28.6905,0.47022,-65.3764,-51.2663,-60.2896,-3.2924,
593.1476,549.8777,-47.9743,-8.4662,564.8768,88.4221,403.0681,43.2704,-33.8642,-0.94088,-78.0755,-57.3809,-45.2896,0.94088,
608.1476,564.8777,-37.1566,-2.3515,579.8768,94.5367,418.0681,42.8002,-25.8687,-2.3515,-68.1982,-71.0204,-30.2896,2.3515,
623.1476,579.8777,-33.8647,0,594.8768,82.7781,433.0681,39.5073,-22.5767,-13.1697,-59.2623,-86.0204,-15.2896,-4.704,
638.1476,594.8777,-47.0335,-10.3475,609.8768,80.8972,448.0681,32.9233,-35.7455,-6.5848,-73.3719,-79.0159,-0.28958,-11.2879,
653.1476,609.8777,-51.7361,-20.6945,624.8768,81.8381,463.0681,29.1611,-41.3895,0.94088,-85.6003,-76.1937,-0.94088,-17.8723,
668.1476,624.8777,-46.5628,-15.5212,639.8768,74.783,478.0681,33.394,-38.0971,-8.9364,-71.9608,-87.9523,8.9364,-20.2243,
683.1476,639.8777,-59.2618,-19.7536,654.8768,66.7871,493.0681,21.6354,-45.1517,-16.9323,-70.5502,-83.7194,16.9323,-25.398,
698.1476,654.8777,-64.9058,-23.5167,669.8768,64.9058,508.0681,15.051,-43.2704,-15.051,-82.7785,-68.7194,19.7541,-25.3976,
713.1476,669.8777,-66.7871,-23.5163,684.8768,66.7871,523.0681,17.8728,-42.3304,-17.8728,-77.1346,-53.7194,34.7541,-23.5163,
728.1476,683.8642,-67.728,-23.5167,699.8768,62.0836,538.0681,15.9914,-50.7957,-17.8723,-62.1346,-54.5583,33.8642,-15.9914,
743.1476,686.2162,-57.8507,-19.283,714.8768,65.3769,553.0681,12.699,-54.0881,-17.4021,-66.3164,-54.0881,39.9788,-12.699,
758.1476,690.9193,-58.7912,-22.1052,729.8768,72.9022,568.0681,19.2839,-43.7406,-22.1052,-61.6134,-39.0881,54.9788,-19.2839,
773.1476,675.9193,-66.3169,-25.8683,744.8768,69.1391,583.0681,22.1056,-33.3935,-22.1056,-46.6134,-24.0881,65.3764,-23.9874,
781.6933,660.9193,-74.3124,-26.3385,759.8768,62.084,598.0681,18.8132,-46.0921,-36.686,-54.5587,-32.9233,71.4911,-18.8132,
766.6933,645.9193,-75.723,-26.8087,774.8768,49.3854,613.0681,14.5803,-54.0885,-51.686,-69.1391,-47.9233,66.3169,-14.5803,
751.6933,630.9193,-64.9062,-17.8728,789.8768,50.7961,628.0681,17.8728,-42.3295,-36.686,-61.1436,-40.4486,72.4315,-17.8728,
736.6933,615.9193,-66.3173,-20.2243,804.8768,58.7912,643.0681,20.2243,-41.8597,-36.2162,-54.089,-27.7496,76.6639,-23.9869,
725.2537,600.9193,-67.7284,-21.6354,819.8768,56.4396,658.0681,21.6354,-44.2113,-48.9143,-54.5587,-33.8638,64.9062,-21.6354,
710.2537,585.9193,-70.5493,-20.6945,834.8768,51.737,673.0681,20.6945,-45.1512,-48.9139,-61.1431,-25.3976,53.6179,-22.5754,
695.2537,570.9193,-71.9604,-13.6399,849.8768,41.8602,688.0681,13.6399,-39.0371,-38.0966,-59.732,-23.0461,59.732,-17.4025,
680.2537,555.9193,-77.6048,-4.2329,864.8768,26.8602,703.0681,4.2329,-36.2158,-34.334,-54.0885,-38.0461,73.8422,-10.8177,
665.2537,540.9193,-81.8381,-10.3475,879.8768,28.2194,718.0681,10.3475,-44.2113,-38.5677,-56.4405,-53.0461,74.3124,-11.2879,
650.2537,525.9193,-72.4311,-20.6945,894.8768,35.7451,733.0681,15.9914,-40.4491,-44.2117,-55.4996,-42.3299,64.9058,-15.9914,
635.2537,510.9193,-63.4951,-15.5212,909.8768,39.9788,748.0681,15.5212,-36.2153,-48.4446,-41.8597,-57.3299,79.9058,-20.2243,
620.2537,495.9193,-63.024,-13.1692,924.8768,28.2198,763.0681,13.1692,-37.6269,-40.4482,-44.2108,-72.3299,73.3724,-24.4572,
605.2537,480.9193,-67.2578,-15.5212,939.8768,22.1052,778.0681,15.5212,-36.2162,-26.8092,-56.9103,-57.3299,58.3724,-21.1647,
590.2537,465.9193,-72.4306,-19.7536,954.8768,28.2203,793.0681,18.8132,-36.686,-31.982,-55.4992,-42.3299,71.4911,-18.8132,
575.2537,450.9193,-61.1436,-17.8728,969.8768,30.1011,808.0681,17.8728,-33.8638,-36.686,-41.389,-31.0425,86.4911,-19.7545,
566.2815,435.9193,-57.38,-14.1101,984.8768,39.5082,823.0681,14.1101,-36.686,-32.9233,-47.0335,-16.0425,101.4911,-20.6941,
551.2815,420.9193,-71.4902,-13.1697,999.8768,43.2708,838.0681,13.1697,-39.5082,-34.8042,-49.8557,-18.8132,104.4144,-17.8728,
536.2815,405.9193,-72.9013,-13.6395,1014.8768,28.69,853.0681,13.6395,-37.1566,-45.6224,-45.6224,-33.8132,89.4144,-18.3434,
522.0702,390.9193,-66.7871,-18.8132,1029.8768,37.6273,868.0681,18.8132,-37.6264,-48.9143,-47.0335,-48.8132,74.4144,-25.398,
529.5951,375.9193,-69.6089,-19.7541,1044.8768,47.9743,883.0681,19.7541,-34.8047,-46.0926,-41.3886,-35.7451,89.4144,-21.635,
517.8369,360.9193,-73.8426,-11.7586,1059.8768,37.1566,898.0681,11.7586,-37.1566,-43.7406,-39.0375,-21.1647,104.4144,-12.699,
502.8369,345.9193,-65.8467,-7.5253,1074.8768,28.2203,913.0681,7.5253,-37.6264,-37.6264,-39.5082,-18.8132,112.8801,-15.0506,
503.7268,330.9193,-53.1476,-11.7586,1089.8768,32.4527,928.0681,11.7586,-34.3344,-31.5122,-48.4446,-31.5122,120.8761,-17.4021,
501.8455,320.2974,-56.9098,-18.343,1104.8768,44.6815,943.0681,13.6399,-39.0371,-43.741,-54.0885,-27.7491,135.8761,-13.6399,
486.8455,309.0081,-66.3173,-18.3434,1119.8768,43.7406,958.0681,12.699,-34.3344,-42.8002,-39.0885,-17.403,148.155,-12.699,
482.0914,296.7806,-67.2578,-17.4021,1134.8768,40.9193,973.0681,13.6395,-28.69,-27.8002,-24.0885,-13.6395,133.155,-19.2839,
484.4425,285.962,-65.8471,-21.6359,1149.8768,41.3895,988.0681,5.644,-36.6864,-26.3389,-34.8047,-5.644,127.9302,-20.6945,
475.9768,270.962,-56.4401,-16.9319,1164.8768,31.042,1003.0681,0.94088,-31.9824,-33.8642,-45.1521,-0.94088,112.9302,-11.2884,
467.511,258.6831,-57.3805,-15.9914,1179.8768,17.8732,1018.0681,4.7035,-28.2198,-33.8633,-38.5673,-4.7035,97.9302,-13.1692,
459.5155,247.8654,-56.9103,-16.4617,1194.8768,16.4617,1033.0681,5.1737,-25.8687,-24.9274,-33.394,-5.1737,110.5277,-13.6395,
460.9266,244.5734,-47.9739,-8.4657,1209.8768,23.5172,1048.0681,6.5848,-18.8132,-13.1688,-28.2203,-6.5848,124.168,-6.5848,
454.8125,232.8149,-55.9698,-4.2333,1224.8768,17.4021,1063.0681,4.2333,-23.0465,-19.2839,-38.0971,-18.3425,109.168,-9.8768,
439.8125,217.8149,-63.024,-1.8813,1239.8768,8.4662,1078.0681,1.8813,-24.4572,-28.2198,-47.033,-18.8128,95.9482,-7.5248,
424.8125,211.6501,-56.4396,-3.7626,1254.8768,13.1697,1093.0681,0.94044,-23.5163,-28.2203,-43.2708,-7.5253,110.0579,-0.94044,
412.0114,199.4209,-50.7961,-1.8818,1269.8768,8.4657,1108.0681,-0.94044,-17.8728,-17.8728,-41.389,-10.3475,101.5922,0.94044,
404.0159,184.4209,-65.3764,0.47022,1284.8768,-4.2329,1123.0681,2.352,-16.4621,-17.4025,-37.1562,-24.9278,87.0119,-0.47022,
393.6689,177.3157,-71.02,-1.4111,1299.8768,1.4111,1138.0681,8.9364,-19.283,-23.9869,-24.9274,-13.6395,102.0119,-7.0546,
378.6689,173.5526,-56.02,-3.2924,1314.8768,7.9955,1153.0681,3.2924,-17.4025,-23.0461,-31.5127,-3.2924,117.0119,-15.5208,
373.9148,163.206,-48.4441,-1.4107,1329.8768,12.6986,1168.0681,1.4107,-15.5208,-19.2834,-39.038,-7.0551,107.7059,-3.2924,
372.9743,148.206,-62.5542,-10.8177,1344.8768,7.0551,1183.0681,-0.47022,-27.7491,-27.7491,-38.0966,-22.0551,92.7059,0.47022,
373.445,150.507,-47.5542,-1.8813,1359.8768,14.1106,1198.0681,1.8813,-28.2198,-24.4572,-38.5673,-15.9914,107.7059,-5.644,
371.5632,149.5665,-43.2704,1.8813,1374.8768,23.5167,1213.0681,-2.8218,-21.635,-22.5754,-47.033,-1.8813,116.6432,-9.4066,
361.6864,135.9262,-46.5632,0.47022,1389.8768,19.2834,1228.0681,-0.47022,-10.8177,-22.1056,-35.2753,-10.8177,105.8251,-1.4107,
346.6864,132.6338,-43.2708,-0.94044,1404.8768,15.991,1243.0681,0.94044,-25.398,-24.4576,-35.7455,-7.5253,111.9388,-13.1697,
342.8728,135.9266,-53.1476,-2.3515,1419.8768,23.0465,1228.0681,2.3515,-26.8083,-21.1647,-42.8002,-3.292,116.173,-16.4617,
334.4071,120.9266,-67.2578,-0.47067,1434.8768,8.0465,1213.0681,0.47067,-11.8083,-16.4617,-45.6224,-18.292,101.173,-6.1142,
319.4071,106.2953,-52.2578,4.7031,1449.8768,-6.9535,1198.0681,5.6435,-11.2879,-6.5848,-39.5082,-30.1011,86.5407,-4.7031,
317.005,104.4144,-37.2578,0,1461.7954,-1.8809,1183.0681,9.4071,-16.9314,0,-29.1607,-15.1011,98.77,-8.4657,
315.5934,93.5967,-48.4441,-1.4107,1446.7954,1.4107,1168.0681,1.4107,-20.2239,-10.8177,-31.5127,-18.343,100.1806,-12.6986,
301.9535,87.4821,-49.8557,8.4657,1431.7954,-3.7626,1153.0681,3.7626,-14.1101,-16.9323,-31.9829,-26.3385,101.5922,-8.4657,
298.1909,84.6599,-48.9143,0.94044,1416.7954,-2.8222,1138.0681,6.5848,-15.0506,-15.0506,-25.398,-15.991,109.1175,-0.94044,
296.7806,79.4861,-63.9143,-14.0596,1401.7954,9.8768,1123.0681,5.1737,-30.0506,-17.4021,-28.69,-10.8173,124.1175,-5.1737,
283.611,71.0204,-78.9143,-6.1142,1386.7954,6.1142,1108.0681,7.0546,-23.9869,-11.7586,-37.1566,-21.1647,128.4005,-7.9959,
271.3826,63.4951,-82.3083,3.292,1371.7954,-3.292,1093.0681,5.1737,-18.3425,-12.699,-33.394,-23.9869,113.4005,-10.8173,
275.1452,56.9103,-81.3674,-2.3515,1356.7954,7.9959,1078.0681,2.3515,-23.9869,-21.1647,-20.2243,-8.9869,121.8165,-6.1142,
271.8528,47.033,-83.7194,-9.4066,1341.7954,10.347,1063.0681,-0.94088,-25.3976,-26.3389,-28.2198,0.94088,118.5241,-6.5844,
260.5649,47.9743,-75.2533,-1.8813,1326.7954,15.9914,1048.0681,1.8813,-24.4572,-25.3976,-40.4491,-2.8218,111.9392,-9.4066,
250.217,38.5668,-68.6689,-0.94044,1311.7954,18.8132,1033.0681,0.94044,-24.4576,-23.5163,-31.0416,-12.2284,112.8801,-8.4657,
259.6236,43.2704,-63.0249,-10.3479,1296.7954,31.042,1018.0681,0.94088,-28.2198,-25.3985,-22.5763,-0.94088,121.3454,-6.5853,
248.3361,41.389,-78.0249,-20.695,1281.7954,31.0425,1003.0681,-8.4657,-43.2198,-37.6264,-37.5763,8.4657,109.1175,-20.695,
238.4593,26.389,-73.8422,-5.695,1266.7954,16.4617,988.0681,-1.4111,-28.69,-23.0465,-39.0375,1.4111,94.1175,-13.6395,
237.0477,15.9914,-65.8467,3.7631,1251.7954,1.8813,973.0681,-3.7622,-18.8128,-16.9319,-29.1602,-11.2875,79.1175,-1.8813,
231.4033,19.7541,-62.0845,-1.8813,1236.7954,15.0501,958.0681,-2.8227,-15.9914,-18.8137,-23.5167,-19.7541,84.6594,1.8813,
223.8785,16.9323,-66.7875,-5.6444,1221.7954,29.1607,943.0681,3.7626,-15.991,-17.8728,-26.3385,-8.4657,93.1256,-3.7626,
212.5906,3.7626,-67.7275,-10.3475,1206.7954,17.8728,928.0681,-2.8222,-21.6354,-22.5758,-29.1607,2.8222,78.1256,-8.4657,
199.8911,-1.4107,-52.7275,1.4107,1191.7954,6.1146,913.0681,-1.4107,-10.8177,-18.343,-23.0461,-8.9359,72.9017,5.1733,
184.8911,-2.8218,-57.3805,-0.94088,1176.7954,7.5257,898.0681,0.94088,-15.9914,-19.7541,-35.7451,-1.8813,87.9017,2.8218,
184.3707,-0.94088,-63.024,-11.2875,1161.7954,13.1692,883.0681,0.94088,-20.6945,-20.6945,-35.7451,10.3479,95.9482,-1.8813,
184.8405,1.4107,-63.4947,-8.9359,1146.7954,14.5803,868.0681,0.47022,-18.343,-18.343,-22.1056,-4.6521,85.1301,-0.47022,
178.2557,0.47022,-74.783,-3.2924,1131.7954,16.4612,853.0681,2.3511,-18.343,-17.4025,-20.2248,-19.6521,96.418,-0.47022,
172.1419,-11.2879,-79.9568,0,1116.7954,8.4657,838.0681,0,-14.1101,-21.6354,-25.3981,-6.5848,95.0074,4.7031,
167.9091,-18.343,-85.1301,-2.352,1101.7954,10.8177,823.0681,2.352,-15.5208,-26.8087,-22.1056,-9.8773,91.7149,7.9955,
167.9086,-11.7586,-87.0114,-6.1142,1086.7954,18.3434,808.0681,8.9364,-16.4617,-15.5212,-12.699,-14.5799,103.0033,6.1142,
168.3793,-12.2284,-80.8968,-6.5839,1071.7954,15.9919,793.0681,3.7626,-18.8132,-7.5253,-23.5163,0.4201,113.8206,-3.7626,
161.7945,-16.9323,-87.4821,-6.5848,1056.7954,23.5163,778.0681,2.8222,-21.6354,-9.4071,-25.3981,15.4201,126.9902,-2.8222,
146.7945,-31.9323,-98.2993,-16.4612,1041.7954,15.5208,763.0681,-0.47022,-27.7491,-21.1652,-22.1056,14.5803,119.9352,0.47022,
148.6252,-27.2794,-83.2993,-14.1097,1026.7954,18.8137,748.0681,1.8813,-25.3976,-20.6945,-18.8128,17.8732,120.4059,-1.8813,
154.2692,-22.5758,-68.2993,-2.8222,1011.7954,26.3385,733.0681,2.8222,-21.6354,-13.1688,-18.8132,14.1101,105.4059,-5.6435,
143.4519,-35.2749,-55.9689,2.3515,996.7954,15.5212,718.0681,1.4111,-18.3425,-12.699,-18.3425,-0.88987,90.4059,-1.4111,
147.2146,-39.0375,-62.5542,0.47067,981.7954,7.0546,703.0681,4.2333,-15.5212,-15.5212,-13.6395,-4.2333,75.7235,-0.47067,
147.6848,-39.5077,-55.4987,-1.8813,966.7954,4.7035,688.0681,4.7035,-13.1692,-14.1097,-11.2875,1.8813,90.7235,-5.644,
142.0408,-42.3295,-54.5587,0.94044,951.7954,6.5848,673.0681,2.8222,-20.6941,-15.0506,-20.6941,-0.94044,95.0074,-2.8222,
139.2186,-43.2708,-56.4396,-1.8818,936.7954,9.407,658.0681,4.7031,-25.398,-18.8132,-24.4576,0.94044,92.1851,-0.94044,
136.8671,-40.9193,-55.0285,-7.0546,921.7954,16.4617,643.0681,5.1737,-17.4021,-21.1647,-17.4021,14.5808,107.1851,-5.1737,
138.2777,-35.746,-53.6188,-6.5853,906.7954,21.635,628.0681,1.8813,-19.7541,-25.3985,-13.1701,27.2794,122.1851,-1.8813,
134.9853,-40.9193,-45.6224,-1.4111,891.7954,7.0546,613.0681,1.4111,-20.2243,-16.4617,-13.6395,24.9274,121.8165,-1.4111,
120.8761,-50.3254,-51.2659,-4.2333,876.7954,4.2333,598.0681,7.0555,-22.1052,-10.8173,-18.3425,29.6314,115.2317,-5.1737,
105.8761,-57.3809,-66.2659,-18.8132,861.7954,8.4657,583.0681,0.94044,-31.9829,-25.398,-27.2798,30.1011,111.9388,-0.94044,
102.0624,-54.0885,-53.1481,-13.6399,846.7954,2.352,568.0681,-2.352,-21.1652,-18.343,-14.5803,15.5208,115.2312,6.1146,
107.7064,-50.3254,-50.3254,-11.7586,831.7954,2.3515,553.0681,2.3515,-24.9274,-14.5808,-9.8768,23.9869,130.2312,-2.3515,
105.8251,-53.1481,-63.4947,-19.2834,816.7954,15.5208,538.0681,4.2329,-31.5127,-21.1652,-13.6399,38.9869,145.2312,5.1733,
107.7068,-50.325,-55.9694,-7.9955,801.7954,25.8683,523.0681,7.0551,-23.0461,-14.5803,-7.0551,39.9784,151.9181,19.2843,
97.3589,-59.7316,-53.1476,-2.3515,786.7954,10.8683,508.0681,2.3515,-22.1052,-22.1052,-7.9951,24.9784,143.4519,4.2843,
88.8932,-70.0795,-55.9698,5.1737,771.7954,-0.47067,493.0681,4.2333,-12.699,-17.4021,-3.292,9.9784,128.4519,5.1737,
85.6003,-79.0159,-67.728,4.7031,756.7954,2.8222,478.0681,3.7626,-13.1688,-5.6435,-11.2879,-2.8222,113.4519,11.2879,
91.7149,-83.2488,-67.2573,8.9368,741.7954,0.47022,463.0681,9.8773,-4.2329,-0.47022,-13.639,-17.8222,106.7655,14.5803,
97.8296,-78.0755,-64.9062,15.0506,726.7954,0.94044,448.0681,15.0506,-2.8222,-7.5253,-0.94044,-12.2284,121.7655,15.0506,
89.3634,-80.8972,-67.728,5.644,711.7954,0.94088,433.0681,6.5844,-15.9914,-8.4662,-6.5844,-0.94088,106.7655,1.8813,
86.0705,-82.3083,-52.728,16.4612,696.7954,-6.1146,418.0681,11.7581,-7.0551,6.5338,-14.5803,-15.9409,91.7655,6.1146,
89.3634,-74.3128,-44.2117,24.4572,681.7954,-14.1106,403.0681,15.0501,-2.8218,2.8218,-15.9914,-15.051,76.7655,15.0501,
75.7235,-88.8927,-58.7916,13.6395,666.7954,-22.1052,388.0681,5.1737,-8.9364,-5.1737,-19.2839,-0.051011,76.6648,12.699,
60.7235,-103.8927,-57.8512,15.5203,651.7954,-35.2749,373.0681,2.3515,-5.1737,2.3515,-26.8092,-2.3515,61.6648,10.8173,
64.9058,-107.2357,-45.1521,19.7541,636.7954,-38.5673,358.0681,4.7035,-1.8813,1.8813,-21.635,-15.9914,63.0249,15.9914,
75.2528,-101.5922,-42.3304,15.0506,621.7954,-26.3385,343.0681,7.5253,0.94044,-0.94044,-10.3475,-1.8818,78.0249,15.991,
65.376,-107.7064,-52.2072,14.5799,606.7954,-20.2243,328.0681,8.9364,-12.699,-7.9959,-11.7586,9.8768,93.0249,7.9959,
53.1472,-103.9437,-48.4441,19.2834,591.7954,-21.1652,313.0681,8.9359,-17.4026,-7.9955,-11.7581,7.9955,78.0249,9.8764,
57.8507,-98.2993,-43.741,24.9274,576.7954,-21.1647,298.0681,9.8768,-2.4026,2.3515,-16.4617,-5.1737,69.1395,12.699,
50.3254,-106.7655,-47.5037,30.5718,561.7954,-24.9274,283.0681,10.8173,-3.292,3.292,-23.0465,-12.699,78.5457,10.8173,
38.5677,-115.7019,-35.7446,37.6273,546.7954,-29.1607,268.0681,13.1697,-2.8222,2.8222,-12.2284,-13.1688,65.8467,25.398,
41.8602,-115.2317,-36.2158,29.6309,531.7954,-23.9865,253.0681,7.9955,0.47022,-0.47022,-12.6986,-14.5803,67.2573,22.1056,
43.2704,-118.5241,-50.7961,22.5754,516.7954,-17.8732,238.0681,4.7035,2.8218,-2.8218,-15.9914,-4.7035,82.2573,9.4066,
40.9184,-126.52,-50.3259,25.8678,501.7954,-22.1061,223.0681,7.9951,1.4111,-1.4111,-13.6404,-4.2333,72.9013,12.699,
