"AF3","AF4","F3","F4","F7","F8","FC5","FC6","O1","O2","P7","P8","T7","T8",
-2.3076,-228.9744,91.0259,43.8462,-16.6665,27.436,-34.1025,57.6924,15.6411,-1.2822,-44.3589,49.4873,0.25635,-0.25635,
2.3076,-217.6924,84.3589,41.7949,-5.8975,22.8203,-28.4614,59.231,6.9229,-4.8716,-50.5129,34.4873,-2.3076,-3.3335,
-3.8462,-223.8462,75.6411,38.2051,6.4102,12.0513,-20.7695,48.9741,-5.3848,-19.8716,-60.2566,19.4873,3.8462,-9.4873,
-8.4617,-224.3589,75.6409,42.3079,-1.7947,13.0769,-21.7947,40.2566,2.8206,-21.7947,-75.2566,16.1541,1.7947,-12.0515,
3.8462,-211.5386,81.7944,48.4614,-14.6157,26.4102,-28.9746,52.0513,17.8206,-10.5132,-78.7183,31.1541,-3.8462,-6.4106,
2.5642,-207.1794,82.0515,48.718,-11.282,25.1282,-21.0256,58.9744,15.8977,-10.7693,-63.7183,28.718,-2.5642,-3.5896,
2.5642,-206.1538,74.8718,43.5896,-7.6921,10.1282,-9.2307,56.4104,5.1282,-15.8977,-53.8462,19.4871,-2.5642,-7.6921,
9.7437,-207.1794,71.2822,46.1538,-15.8975,-4.8718,-9.7437,62.0513,-0.5127,-3.0771,-65.1282,19.4873,3.0771,0.5127,
2.0513,-208.7178,67.6924,50.7695,-15.3843,-2.0513,-9.7437,58.9746,-2.564,-4.6152,-71.282,25.6411,4.1025,4.6157,
-11.5386,-221.282,56.6665,45.8975,-0.38428,-0.25635,5.2563,43.9746,-1.7949,-19.6152,-68.9744,30.5127,0.25635,-10,
-13.3335,-228.718,52.8203,36.4102,2.564,-4.6157,16.9229,39.4873,-2.0513,-23.5898,-77.9487,25.1279,2.0513,-14.8721,
-2.8206,-220.2563,66.9231,38.718,-11.0256,-5.8972,23.8459,52.0515,2.8206,-10.5129,-79.2307,18.718,3.8459,-5.3845,
-6.9229,-226.4102,70.5127,47.436,-10,-1.7949,32.0513,44.3589,17.8206,-6.4102,-70,30.5127,1.7949,-3.8462,
-12.5642,-227.9487,55.5127,50.5129,-5.3845,-1.282,36.1541,42.3079,16.1541,-5.3845,-75.1282,45.5127,1.282,-5.8972,
-1.282,-218.718,55.6409,53.5896,-5.8977,-1.7952,41.7947,56.1536,1.1541,-2.3079,-82.3079,56.6667,5.3845,1.282,
-9.7434,-227.1794,63.5896,55.8977,-3.0769,1.5383,42.0515,55.3845,-9.2307,-9.2307,-74.3589,43.0769,-1.5383,3.0769,
-11.7947,-233.3333,62.5642,45.6414,-1.0256,2.0515,40.0002,44.6155,1.0256,-17.4358,-70.769,32.3079,-8.718,-2.5642,
-5.3845,-233.5896,59.7439,35.6414,-6.4099,-12.9485,41.7952,45.3845,15.6414,-9.4871,-67.9485,41.7952,1.282,-1.282,
-14.6152,-237.6924,47.9487,36.1538,-13.0771,-27.9485,40.769,46.9229,13.0771,-8.4614,-67.9487,40.2563,3.8462,-3.8462,
-9.9998,-237.6924,47.9485,39.7434,-1.7947,-24.8718,41.7947,48.9744,1.7947,-10.5129,-70.5127,33.0769,3.3333,-6.4104,
-10.2563,-242.564,52.3076,27.6924,-10.769,-29.7437,26.7947,47.6924,15.3848,-5.6411,-69.7437,40,4.1025,-4.1025,
-13.3335,-238.4617,45.6411,27.1792,-22.564,-35.8975,20,43.0767,23.5898,-5.1284,-72.8206,46.1538,2.0513,-2.0513,
-10.5129,-234.6152,49.4871,42.1792,-7.564,-20.8975,35,41.282,8.5898,-13.0769,-74.6152,46.9231,2.8206,-2.8206,
-8.9744,-234.6155,47.4358,46.9231,-1.7947,-5.8975,36.6667,45.3845,-2.3079,-13.0769,-72.564,51.5383,1.7947,-3.8459,
-3.0767,-233.8462,36.9233,31.9231,-16.7947,-13.8462,21.6667,47.1797,12.6921,0,-70.2563,59.4873,0,-2.0513,
-8.7178,-237.9487,36.4102,28.7178,-20,-26.6665,21.0254,42.564,25.1279,-0.5127,-65.1282,55.8975,0.5127,-2.564,
-13.5896,-236.1538,38.2053,35.1282,-14.1023,-18.718,27.949,43.3333,16.6667,-6.4099,-60.769,54.1028,5.3845,-5.3845,
-18.2053,-243.3335,26.9231,28.9744,-15.6414,-16.6667,25.3845,38.2048,14.1023,-4.8718,-64.8721,63.3333,4.8718,-9.4875,
-16.9233,-243.0769,24.6152,28.2051,-7.1797,-18.4614,22.564,37.436,20.5127,-3.0771,-62.0513,64.6152,2.0513,-2.0513,
-16.1541,-246.4102,25.8972,21.7947,-10.5129,-31.5383,13.5896,33.5896,25.3845,-7.4358,-55.1282,50.0002,2.8206,-2.8206,
-25.6409,-256.4102,23.0769,16.4104,-20.5129,-41.5383,11.282,27.6926,18.4617,-7.1794,-62.564,52.8206,7.1794,-10.7693,
-21.282,-247.9487,20.7693,20.7693,-13.0769,-35.1282,12.5642,31.5383,11.0256,-4.8718,-72.5642,65.3845,4.8718,-8.9744,
-15.3848,-250.2563,13.3335,16.4102,-6.6665,-29.2305,13.8462,32.3076,26.0256,-2.0513,-59.4871,67.1797,2.0513,-5.6411,
-24.3586,-260.769,7.949,5.8977,-18.718,-36.6667,14.1028,27.949,33.0769,-3.3333,-49.4871,64.8718,3.3333,-9.4871,
-15.6409,-253.5896,19.2307,4.8718,-18.718,-45.3845,11.5383,30.0002,27.4358,-4.8718,-49.9998,65.3845,11.5383,-4.8718,
-17.9487,-255.3845,11.2822,3.5898,-8.7178,-48.2051,2.564,25.6411,29.7437,-6.6665,-51.2817,66.1538,14.3589,-2.564,
-18.718,-245.8975,-0.76929,7.9485,-3.3333,-34.6155,12.0515,27.4358,43.8459,-1.282,-40.7693,73.5896,16.6667,0.76929,
-12.564,-244.8718,1.7949,5.3848,-12.0513,-31.0254,15.1284,26.9229,41.7949,-2.3076,-36.6665,66.4102,11.0259,-1.7949,
-17.1797,-253.0771,-1.7949,1.7949,-22.3076,-39.7437,2.3076,27.9487,35.6411,2.8203,-41.2822,71.0254,5.8975,-5.8975,
-15.3845,-242.051,-6.6663,7.1794,-21.5383,-35.3845,5.1282,30.2566,35.385,9.2312,-43.5896,82.0515,8.2053,-5.1282,
-15.3845,-237.4358,-0.51294,11.282,-17.9485,-24.6155,17.949,28.2053,37.949,0.51294,-43.5896,68.2053,7.6921,-2.051,
-15.8975,-237.9487,-2.564,8.7178,-18.9741,-32.3076,19.4873,31.2822,51.2822,2.0513,-34.3589,60,8.2051,-2.0513,
-15.3845,-237.4358,-7.6921,9.7434,-21.5383,-38.9744,8.2053,28.718,41.5383,5.6409,-34.8718,69.2307,12.3079,-5.6409,
-18.9744,-231.7947,-3.5896,18.4617,-15.8972,-23.9744,4.1028,27.6921,34.3591,0.51294,-43.0769,77.4358,15.3845,-0.51294,
-11.7952,-223.5898,-8.718,14.3591,-13.3333,-18.9744,7.6921,31.282,49.3591,-1.5383,-36.9231,74.8718,10.7693,1.5383,
-2.3076,-219.7434,-14.1025,18.7183,-10.5127,-23.8462,17.1797,33.0771,61.7949,2.3076,-27.436,78.2051,12.0513,-2.3076,
-0.76929,-211.0256,-8.4612,33.0769,-6.9231,-20.2561,18.718,34.1028,46.7949,-1.282,-42.3074,78.2053,13.0769,0.76929,
-0.25635,-213.0771,-13.0771,21.7949,-14.6157,-23.3335,7.9487,33.0767,31.7949,-12.0513,-50.5127,63.2053,12.564,0.25635,
0.25635,-212.5642,-22.8203,8.9741,-15.6411,-22.8203,4.8716,35.1284,39.231,-6.9233,-35.5127,61.2822,16.6665,-0.25635,
2.8206,-207.4358,-31.5383,4.3591,-16.1536,-25.8972,0.76929,36.6667,46.9231,-1.7947,-20.5127,74.6155,14.6155,-0.76929,
0.25635,-214.1025,-38.7178,-0.25635,-21.7949,-27.9487,-2.3076,38.2051,38.2051,6.4102,-33.5898,82.8203,16.6665,2.8203,
-0.25635,-209.4873,-40.7695,0.25635,-19.231,-16.667,-1.2822,42.3076,53.2051,16.1538,-18.5898,81.7949,19.7437,5.3843,
4.1028,-206.1538,-34.8718,1.0256,-15.3845,-18.9744,-6.1536,42.0515,65.1282,13.3333,-9.2307,77.4358,20.0002,-1.0256,
-0.51294,-215.3845,-29.2307,0.51294,-14.8718,-32.8206,-11.7947,40.5129,61.5383,16.9231,-24.2307,83.5896,23.5896,3.0769,
-5.1282,-218.9741,-33.3333,5.1282,-17.9485,-33.3333,-13.3333,35.8977,60.5129,14.3591,-33.3333,93.3333,16.9231,6.1541,
-5.6411,-217.9487,-25.1279,20.1282,-18.4614,-18.3333,-10.769,33.3335,75.5129,10.769,-18.3333,108.3333,14.3589,5.6411,
-7.436,-216.6667,-18.7178,24.3589,-17.1797,-16.1538,-20.769,34.1025,77.6924,15.6411,-9.4873,111.5386,23.3335,7.436,
-5.6411,-218.4614,-32.8203,9.3589,-11.7949,-31.1538,-29.2305,34.3589,62.6924,18.4614,-24.4873,96.9233,27.6924,5.6411,
-1.5386,-217.4358,-35.3845,1.5386,-7.1792,-46.1538,-16.9229,36.4102,58.4614,22.0513,-36.4102,101.0259,24.6152,10.769,
-3.8462,-217.6921,-28.4614,3.8462,-9.4868,-42.8203,-7.9487,28.9746,73.4614,13.5898,-21.4102,103.3335,16.667,7.9487,
-11.5388,-223.8462,-26.9231,7.9485,-1.282,-36.1541,-16.6667,21.7947,64.8718,5.3845,-20.7693,95.6409,11.0256,1.282,
-11.7949,-216.9231,-22.564,15.8975,-2.0513,-32.3076,-27.6924,27.1792,49.8718,10.769,-35.7693,92.8203,14.3589,2.0513,
-1.7947,-212.0513,-16.1541,18.2053,-17.0513,-36.1541,-21.282,26.9231,52.5642,12.5642,-41.282,89.4871,17.6921,1.7947,
-7.4358,-215.6411,-19.2307,19.2307,-14.1028,-35.1282,-6.282,22.8206,65.8972,2.8206,-35.6409,83.8459,13.0769,2.3079,
-6.6667,-204.6155,-28.718,16.4104,-7.6926,-30.2566,5.6409,27.1794,50.8972,-2.5642,-40.0002,76.4104,12.3074,2.5642,
2.0513,-200.5129,-32.3076,5.6411,-11.7949,-32.3076,-2.5645,27.1792,37.4355,1.5386,-41.0259,73.333,14.8716,-1.5386,
-1.0256,-197.436,-32.8206,6.6663,-10.7693,-30.7693,-5.1287,26.6663,52.4355,4.1023,-31.2825,79.4871,14.3586,1.0256,
-0.51294,-190.7693,-41.5383,8.2048,-16.9231,-34.8718,-14.8718,23.0769,66.1536,4.1023,-29.2307,75.3845,13.3333,0.51294,
1.7949,-193.5896,-43.8459,8.9746,-23.8462,-39.2305,-27.9487,22.8208,63.3335,10.5132,-25.3843,72.0513,16.1538,-1.7949,
3.0769,-192.8206,-34.3591,17.4358,-20.5129,-31.7947,-17.9485,25.6409,58.4617,11.282,-24.6155,83.0769,10.2566,-3.0769,
0.76929,-197.6921,-32.5642,19.7439,-12.051,-27.4358,-2.9485,19.7439,58.2053,8.9744,-26.4099,88.4617,3.8464,-5.8972,
-4.1028,-195.8975,-41.0256,16.9231,-1.0256,-26.1541,1.0256,21.0256,59.9998,9.7434,-27.1794,82.051,11.7947,-2.0515,
-0.25659,-187.4358,-39.2307,16.1541,0.25659,-22.3079,-3.3333,17.6921,44.9998,0.25659,-38.718,71.5383,11.5383,-6.9231,
1.2822,-190,-25.8975,28.4614,-1.2822,-12.564,8.4614,15.1284,35.6411,-1.7949,-32.564,78.7178,10,-7.436,
-1.7947,-191.5386,-30.5129,27.9485,-5.3845,-19.2307,1.7947,19.2307,45.8972,1.7947,-24.8718,79.7434,7.4358,-6.4104,
4.3591,-188.4617,-30.5129,21.7947,-4.3591,-26.9231,-8.4617,21.7947,44.8718,4.8718,-31.0256,70.5129,6.4104,-8.9744,
-0.25659,-197.1794,-29.4871,21.282,-5.3845,-24.3591,0.25659,10.0002,43.3333,2.3079,-32.5642,66.9231,3.3333,-12.5642,
-1.282,-195.1282,-33.0769,28.4617,-3.8459,-17.6921,7.9485,6.9231,52.0515,1.282,-23.8459,68.9744,2.8206,-11.5383,
-2.3076,-188.4617,-32.0513,37.1792,-5.3848,-16.1538,3.333,12.564,44.8716,2.3076,-28.9746,63.8462,3.333,-9.4873,
-2.0513,-186.1538,-32.3076,36.9229,-6.6665,-16.9233,4.6152,12.3076,33.8462,4.1025,-33.8462,62.564,2.0513,-11.2822,
-0.51269,-191.7947,-35.3843,32.3076,-5.6411,-18.9741,3.0771,7.6924,32.8208,0.5127,-27.6924,64.6157,1.5386,-16.4102,
-1.0256,-186.1538,-33.3333,35.3845,2.5642,-15.8977,1.0256,14.8718,39.9998,-1.0256,-18.9744,70.7693,10.7693,-10.7693,
3.3333,-180.7693,-39.7434,23.8459,3.8459,-23.8459,-3.3333,17.1794,34.6155,-3.8459,-22.3079,67.9485,9.4871,-7.4358,
8.9744,-186.4102,-35.1282,21.7947,0.25659,-27.9485,-4.8718,12.5642,36.6667,-0.25659,-20.7693,68.4617,5.8972,-6.4104,
5.8975,-182.8206,-34.6152,30,-2.8203,-34.6152,-6.4102,10.5127,47.436,2.8203,-17.1797,68.4614,4.3589,-7.9487,
3.5898,-178.4617,-42.564,28.7178,2.0513,-40.5127,-3.5898,11.2817,42.564,-2.0513,-20.5127,64.1025,6.6665,-9.7437,
1.5386,-184.6152,-43.0767,26.1538,10.769,-35.8975,-1.5386,8.2051,27.564,-6.1538,-24.1025,62.0513,8.2051,-8.7178,
5.1279,-183.5898,-41.5386,25.1279,8.7178,-45.1284,-16.5386,7.6924,21.5386,-3.5898,-24.1025,57.436,3.5898,-12.3076,
0.51294,-187.6921,-48.2048,24.1028,3.0769,-55.8975,-31.5386,6.6667,28.2053,-0.51294,-22.051,54.3591,1.5383,-13.8459,
0.76929,-185.8975,-45.8972,26.9231,9.4871,-50,-25.3845,7.4358,22.8206,-0.76929,-25.8972,49.4871,2.8206,-6.4104,
12.3079,-182.0513,-31.282,26.6667,13.3333,-52.3076,-10.3845,9.2307,16.4104,-4.6155,-31.282,41.0256,4.6155,-4.6155,
4.6152,-186.6667,-26.6665,29.7437,13.8462,-54.3591,-10.2563,7.1792,24.6152,-4.6152,-23.0771,45.1279,6.6665,-8.7183,
2.8203,-177.6924,-30.5127,35.6411,14.1025,-47.436,-16.1538,9.4873,28.9741,-2.8203,-13.5898,45.3848,5.8975,-7.9487,
8.2048,-177.436,-35.8977,26.6667,7.1794,-48.718,-17.949,9.7434,27.6921,-3.0769,-14.3591,39.9998,3.0769,-4.1028,
2.0513,-184.1023,-42.0513,16.4106,3.0771,-52.3076,-24.1025,6.667,24.6157,-2.0513,-19.4868,48.2051,4.1025,-5.1279,
3.5896,-178.4617,-41.5383,22.051,12.3079,-46.1541,-23.0769,8.2048,11.7947,-3.5896,-26.6667,54.3591,10.7693,-7.6921,
8.2048,-172.8208,-35.8977,30.2561,17.9485,-42.0515,-9.2312,14.8713,1.0256,-1.0256,-33.3337,49.7434,15.3845,-2.5642,
9.2305,-171.7949,-37.436,25.1279,16.9229,-43.5898,-17.9487,9.7437,1.5386,-1.5386,-34.8721,42.0513,5.6411,-4.6152,
8.2053,-171.7949,-38.9744,25.1282,22.5642,-39.4871,-32.9487,1.0256,16.5386,-1.0256,-32.8206,46.1541,1.0256,-6.1536,
3.5898,-168.718,-42.564,30.2563,15.3848,-43.5898,-37.9487,2.0513,28.2051,-2.0513,-35.3848,46.6665,8.2051,-4.1025,
10.769,-164.1025,-41.0254,28.2051,8.2051,-55.8975,-29.231,2.0513,31.2822,-2.564,-24.1025,42.564,15.3848,-2.0513,
12.0513,-165.3848,-36.6665,23.3335,14.6152,-55.1282,-25.8975,-0.25635,20.2563,-0.25635,-14.6152,47.436,14.1025,0.25635,
6.4104,-160.7693,-40.7693,23.8459,18.718,-45.3848,-20.7693,2.8206,5.2563,-4.8718,-29.6152,45.3845,13.5896,-1.7947,
6.4104,-161.7949,-43.8459,24.8718,20.2566,-48.9744,-15.1282,2.8206,10.5129,-6.9231,-39.7434,39.7434,17.1794,-2.8206,
6.1536,-163.0771,-48.2053,18.4612,20.5129,-63.9744,-22.0515,-2.0515,16.9231,-0.51294,-26.1541,37.9485,13.8459,0.51294,
9.2305,-158.9746,-51.7949,9.7437,15.8975,-78.9744,-29.231,-5.6411,1.9231,3.0767,-20.5132,26.1538,11.7949,0,
4.6155,-161.5386,-48.2051,16.4104,12.3079,-76.9231,-24.6155,-7.6921,6.1541,2.0515,-27.6921,22.5642,12.3079,-2.0515,
7.6924,-150.2566,-42.0515,31.4104,12.8203,-61.9231,-25.6411,-4.1025,15.3843,0,-37.9487,34.3589,4.1025,0,
14.1023,-147.436,-39.2307,32.5642,3.3333,-65.3848,-36.6667,-4.8718,1.7947,1.282,-39.7434,35.1282,2.3079,-1.282,
7.1792,-153.8462,-43.0771,23.5898,0.5127,-66.1541,-41.0259,-4.6157,13.8462,11.2817,-30.2563,35.3843,10.2563,-0.5127,
7.436,-148.4617,-56.1538,16.1538,0.25635,-64.8718,-39.7437,-4.8721,28.8462,6.9229,-35.6411,27.9487,5.8975,-0.25635,
10.2561,-147.6924,-58.9746,17.9485,2.051,-70.7693,-37.4358,-5.1282,13.8462,-1.0256,-46.6667,12.9487,8.718,3.0769,
8.7178,-150.2563,-58.9744,9.7437,4.1025,-85.7693,-40,-4.1025,-1.1538,4.1025,-45.1282,10.769,14.8716,5.1279,
14.3589,-148.718,-57.9487,-1.5386,9.231,-86.1538,-33.8462,-4.1025,1.5386,9.7437,-32.8203,21.5386,15.8975,5.1279,
9.7437,-149.2307,-55.8975,4.6152,6.1538,-74.3589,-34.3589,-9.7437,3.5898,-0.5127,-35.3848,10.769,9.7437,0.5127,
14.8721,-142.0513,-48.2051,19.6152,3.0771,-71.282,-35.8975,-10.2563,3.5898,0,-42.564,1.0259,6.667,0,
13.5898,-140.2563,-46.9231,31.5386,15.1279,-58.2051,-25.3848,-11.5386,9.4873,2.3076,-43.8462,3.8462,5.8975,-2.3076,
15.8972,-128.718,-47.6924,42.0515,30.1279,-43.2051,-16.9231,-6.1541,1.0256,1.5383,-40.5129,9.2307,13.8459,-1.0256,
22.3079,-128.4614,-55.1282,37.1794,30.0002,-28.2051,-26.9231,-6.4104,2.8206,1.282,-41.7947,8.9744,14.1028,-1.282,
19.7437,-132.051,-55.6409,28.4619,27.436,-19.7432,-30.5127,-8.9741,17.8206,4.8721,-43.3333,-1.7949,7.9487,1.7949,
25.1282,-117.051,-42.0515,36.9231,38.4612,-4.7432,-21.5388,-4.6155,5.6409,2.5642,-49.231,-16.7949,9.7434,3.5896,
28.2051,-111.282,-31.7949,51.2822,49.7437,6.667,-14.3589,0,-9.3591,0,-49.2307,-27.1792,12.8208,5.1284,
26.4106,-115.1279,-38.7178,43.3335,43.3335,-1.7949,-11.5381,-2.3076,4.3594,1.7949,-45.3845,-30,5.8975,4.3594,
33.8462,-113.3335,-43.5898,37.4355,30.769,-1.5386,-14.3589,-7.1797,15.8975,1.5386,-52.3079,-38.9746,4.1025,2.564,
38.2051,-108.9744,-38.2051,50.5127,38.2051,3.8462,-12.564,-3.8462,0.89746,5.3848,-61.282,-34.1025,13.0771,5.8975,
42.3076,-100.769,-38.7178,48.9746,53.2051,-2.3076,-6.9229,2.3076,-14.1025,11.0259,-60.2563,-35.1282,16.667,8.4619,
42.3079,-101.282,-46.9231,33.9746,51.5383,-13.0769,-10.5129,3.3333,-3.3333,10.5129,-54.6155,-50.1282,17.1794,12.051,
32.564,-110.0002,-59.7437,18.9746,36.5383,-28.0769,-20.7695,-2.3076,7.9487,2.3076,-63.3335,-65.1282,11.5381,4.3589,
36.1538,-108.9744,-57.1794,10,33.5898,-35.1282,-7.9487,-2.3076,9.4873,2.3076,-61.282,-60.7693,14.1025,2.3076,
31.0256,-115.1284,-61.7949,6.9231,39.7434,-28.4617,-2.8206,-7.949,16.6667,5.8972,-57.6924,-65.3848,16.1536,2.8206,
34.3589,-108.718,-66.1541,11.7949,32.3076,-13.4617,-6.667,-5.6411,8.2051,5.6411,-68.718,-62.5642,17.4355,7.6924,
37.6921,-101.7949,-58.718,24.3591,33.0769,1.5383,-0.76929,0.76929,-6.7949,-4.8718,-79.7437,-62.3076,19.2307,11.5383,
36.1541,-95.6409,-59.7434,19.2307,35.6414,11.5383,-6.9231,6.9231,-11.5383,-6.9231,-66.9229,-72.0513,20.7693,17.1794,
36.9233,-99.4871,-74.7434,4.2307,22.564,-2.0513,-21.9231,2.0513,3.4617,4.6152,-67.6921,-84.6152,10.2563,13.3335,
37.6924,-101.7949,-80.7693,1.2822,13.5898,-7.436,-18.7178,-1.2822,18.4617,14.1025,-81.7949,-99.6152,8.4614,6.4102,
43.5898,-88.718,-72.8206,16.2822,17.436,-2.564,-3.7178,4.1025,3.4617,0.5127,-89.7437,-114.6152,12.3076,3.5898,
43.0771,-89.7434,-65.6409,20.5127,29.231,6.1538,-1.5386,1.5386,-11.5383,-7.1792,-91.282,-129.6152,12.8208,2.0513,
28.0771,-99.7437,-68.9744,10.5129,24.8718,9.4871,-9.4871,-5.8972,3.4617,-0.76929,-93.5896,-115.1282,6.9231,0.76929,
31.7952,-96.4102,-77.4358,-1.5383,9.8718,2.0515,-12.3074,-6.6667,18.4617,1.5383,-100.5127,-120,9.7439,2.0515,
36.4104,-90.2563,-76.4102,3.0769,7.1794,12.8206,-12.3079,-3.0769,15.8972,-3.0769,-113.8462,-117.9487,11.7947,3.0769,
41.2817,-75.2563,-67.9487,18.0769,21.2817,27.8206,-6.4102,5.8975,0.89722,-5.8975,-109.4873,-102.9487,14.6152,10,
35.8975,-82.564,-82.9487,3.0769,7.1797,26.1538,-19.4873,-1.5386,1.5386,-10.769,-109.2307,-117.9487,5.6411,4.6157,
38.4614,-78.9744,-97.9487,0,0,11.1538,-21.0254,0,16.5386,2.564,-121.0256,-132.9487,2.564,7.1797,
45.1282,-71.7947,-98.4614,-0.51294,-1.0256,5.1282,-21.5383,1.5383,18.9744,6.6667,-136.0256,-143.5896,0.51294,5.6414,
46.9229,-76.1538,-102.8206,-15.1284,-1.2822,1.2822,-21.7949,3.3335,33.9744,4.3589,-141.7949,-154.1025,9.4873,10,
44.8718,-75.6409,-114.1025,-19.2307,0.76929,-0.76929,-14.1023,3.8464,18.9744,4.3591,-138.2051,-159.7434,16.6667,12.0515,
44.3589,-76.1538,-117.6924,-10,6.4102,6.4102,-2.8203,2.8203,3.9744,6.9229,-153.2051,-162.8206,21.2822,8.4614,
42.8208,-78.2051,-121.282,-10,7.9487,9.4873,-3.8462,3.8462,-11.0256,10,-167.9485,-177.1794,23.3335,13.0771,
51.2822,-67.6924,-122.0513,-12.8203,0,0,-6.6665,9.7437,3.9744,15.3848,-162.564,-173.8462,25.1284,21.0259,
54.1028,-66.9229,-111.5383,-9.9998,-3.3333,-0.76929,0.76929,15.6414,18.9744,22.3079,-162.3076,-158.8462,33.5901,26.9231,
47.1797,-78.4617,-108.2051,-18.9744,1.5386,-11.2822,-1.5386,13.8462,33.9744,26.1538,-172.3076,-151.282,34.3589,26.6665,
43.5896,-87.1794,-103.0769,-20.5129,1.5383,-26.2822,-1.5383,7.6921,43.0769,28.718,-187.3076,-157.9487,28.2053,26.1536,
37.436,-92.3076,-94.8718,-5.6411,-2.564,-29.2307,7.6924,2.564,28.0769,26.667,-202.3076,-150.769,29.231,26.667,
35.3845,-97.9487,-92.8203,-10.2561,-1.0256,-33.3333,3.0769,1.0256,13.0769,23.0769,-209.2307,-143.5896,33.3333,24.6155,
42.3077,-92.5641,-81.2819,-13.5897,4.8717,-34.6154,-4.8717,6.923,28.0769,36.1539,-196.1537,-132.5641,39.7438,37.6925,
47.1796,-81.0255,-75.3844,-5.641,-0.51282,-37.9486,0.51282,11.2821,43.0769,45.641,-204.1024,-144.1024,42.0511,44.1029,
43.5896,-85.1282,-77.436,-5.6409,-9.231,-52.9486,7.1794,5.6409,45.1282,35.3845,-219.1024,-159.1024,37.9485,33.8459,
40.5127,-83.0771,-70.7693,-3.5898,-7.6924,-57.436,3.5898,7.1792,39.4873,36.4102,-224.1028,-160,40.5127,39.4873,
47.6924,-73.8462,-60.5129,3.0769,-3.0769,-51.7949,-3.5898,13.8462,51.7949,48.7178,-229.7437,-154.8718,51.2822,49.231,
41.2821,-86.9232,-58.7179,4.8719,-4.8719,-55.1283,-7.4359,5.8973,57.1796,44.8719,-231.0258,-156.1539,48.9745,39.2308,
34.1025,-82.8206,-59.231,4.3589,-2.3076,-53.5898,-7.436,2.3076,45.8975,37.1792,-221.7949,-152.5642,42.8203,37.1792,
43.5897,-67.8206,-60.0001,-0.51282,0.51282,-52.3077,-9.7435,4.6156,39.4872,40.5126,-226.1539,-151.7948,45.641,47.6923,
49.2306,-56.923,-55.3846,-2.5641,2.5641,-56.923,-7.1793,9.2308,54.4872,47.1793,-232.3077,-150.7692,52.3077,53.8463,
47.436,-48.4614,-56.1538,-7.4358,3.3333,-60.2563,-3.3333,9.4873,55.1284,39.231,-219.7437,-164.8718,47.436,46.4102,
41.0258,-42.0514,-67.1796,-19.9999,4.6156,-62.5641,-3.077,3.077,40.1284,26.1537,-213.8461,-179.8718,46.6669,37.9486,
43.3331,-28.4615,-67.4359,-14.1027,8.4615,-58.7181,-5.8976,5.8976,35.1281,31.0255,-218.2052,-188.4615,53.5895,42.8204,
49.7434,-17.9487,-64.6155,-4.6155,4.6155,-60.5129,-9.7437,7.1794,42.5642,39.4871,-214.8718,-173.8462,50.2561,44.6155,
42.564,-20.5127,-68.7178,-7.6921,5.1282,-66.1538,-5.1282,9.7437,45.6411,45.6411,-205.1282,-176.9231,51.2822,47.6924,
41.2822,-19.2307,-68.9744,-12.0513,5.8975,-71.0256,-5.8975,8.4614,47.436,48.9746,-204.3589,-175.6411,51.5386,47.9487,
45.1283,-23.0768,-58.4615,-2.5641,3.5897,-67.6923,-11.7948,2.5641,49.7435,45.1283,-202.0511,-166.1537,50.7694,45.1283,
35.8972,-26.6667,-61.5386,-0.51294,2.0515,-71.282,-17.4358,0.51294,36.4104,31.282,-199.4871,-181.1537,52.8206,42.0515,
44.1025,-11.6667,-62.5642,-4.1025,4.1025,-74.8718,-12.3076,6.6665,24.1025,29.231,-193.3333,-196.1537,55.3848,44.6152,
45.6409,-2.5642,-59.4873,6.1541,-1.0256,-62.0513,-8.718,1.0256,30.2566,36.4104,-185.1282,-211.1537,47.6921,43.5896,
36.4102,3.5898,-74.4873,7.6924,-14.3589,-58.4614,-23.718,-3.5898,36.9233,31.7949,-183.0769,-202.0513,34.8721,34.3589,
42.0514,17.4357,-89.4873,-7.3076,-18.4615,-72.8207,-37.9489,8.2052,41.0255,33.8458,-168.0769,-194.8719,41.0255,37.4357,
46.4104,22.8206,-90.5127,-15.1282,-17.6921,-81.7947,-33.0769,15.1282,35.1282,48.4617,-153.0769,-187.9485,54.6155,49.4875,
49.231,18.9746,-87.6921,-12.3076,-18.4614,-82.564,-25.6409,12.3076,31.7949,52.8208,-142.564,-180.5127,58.9746,53.8462,
40.5129,8.2051,-83.5898,-8.2051,-17.436,-86.1538,-24.6155,9.7434,46.7949,52.8206,-132.8206,-171.7949,53.8459,53.3333,
29.2305,3.5898,-77.949,-3.5898,-15.3848,-90.7693,-24.1028,3.5898,31.7949,43.5898,-135.3848,-169.7437,42.0513,41.5381,
37.9486,8.2054,-65.641,5.641,-3.5897,-81.5385,-16.41,3.5897,16.7949,36.4105,-143.5897,-173.3331,54.8719,42.0516,
40.5131,11.2821,-65.641,-0.51282,0.51282,-80.5128,-18.4615,6.1539,1.7949,32.8207,-136.923,-184.6154,65.641,51.2821,
46.6667,20.0002,-70.2563,-2.0513,-9.7434,-85.1282,-26.1538,7.1794,2.0513,28.718,-125.1282,-186.6665,50.641,48.2053,
45.3849,19.2311,-69.4872,11.0255,-19.7435,-74.6154,-36.1537,6.4103,-6.4103,30.0001,-118.7179,-171.6665,38.7179,38.7179,
43.8459,26.4104,-74.1025,11.0256,-19.2307,-66.9231,-38.2051,12.5642,-11.0256,40.2566,-108.4617,-164.3591,52.5642,41.282,
49.4872,30.5131,-82.3077,-1.2821,-18.2052,-77.6923,-32.5641,15.1283,1.2821,45.8973,-99.7435,-169.9999,52.5643,46.4105,
41.0255,15.5131,-81.5385,-1.5385,-23.077,-87.6923,-32.3077,10.2565,1.5385,44.1027,-106.6666,-166.6666,39.4869,44.6154,
35.3846,5.1283,-66.6669,5.1283,-23.077,-91.795,-30.2565,5.641,-5.1283,45.641,-107.1796,-167.6925,47.1796,42.5638,
29.9999,-3.3334,-59.2308,3.8461,-16.6666,-100.2565,-20.7692,3.3334,7.4359,45.3846,-92.1796,-168.4615,56.1537,45.8973,
35.6409,-2.8206,-59.2307,2.8206,-8.9744,-101.7949,-21.7949,8.9744,15.6409,42.3079,-78.2051,-158.2051,51.0256,52.5642,
47.9486,2.3077,-54.1027,6.4103,-2.3077,-88.4615,-21.2821,12.5641,0.64087,43.3334,-82.3077,-155.1283,56.6669,55.1283,
43.59,2.5641,-49.2308,14.8717,-2.5641,-73.4615,-13.3334,11.2821,-13.3334,41.5387,-73.8461,-154.8717,63.59,51.795,
40,4.1025,-48.718,15.3848,-11.7949,-68.2051,-21.0256,5.1284,-4.1025,34.3589,-64.1025,-153.3333,51.7949,46.1538,
39.4874,2.5641,-48.7179,15.3844,-8.2052,-70.7692,-21.0255,4.6154,-2.5641,34.8717,-58.4615,-150.2565,50.7692,48.2052,
39.7434,6.9231,-57.1797,17.1794,-6.9231,-71.0256,-13.5898,11.0256,-6.9231,36.1536,-55.6411,-154.6155,56.6667,49.4871,
40.0001,2.5641,-61.5385,10.7692,-21.9231,-86.0256,-22.5641,4.6154,-2.5641,34.8717,-53.3334,-158.4615,54.359,43.5895,
35.3848,-3.0769,-48.7178,18.9746,-23.0769,-94.3589,-26.1538,5.6411,3.0769,45.6411,-47.1794,-143.4615,55.8975,47.6924,
36.1537,-1.2821,-50.5128,20.7694,-12.5641,-79.3589,-21.2821,12.0511,1.2821,46.9232,-50.5128,-132.0511,52.0511,48.9745,
42.8204,-5.8973,-53.5897,18.7179,-8.9742,-64.3589,-15.641,13.0768,5.8973,44.359,-47.4359,-138.7179,50.0001,50.0001,
48.2053,0,-38.5897,28.718,-2.5642,-52.3076,-8.2051,21.0256,0,49.2307,-34.8718,-134.8718,59.4871,62.0515,
49.7437,4.1025,-35.3845,32.3076,-4.1025,-55.3845,-8.718,23.5898,-15,45.1284,-37.9487,-126.1538,67.6924,65.1284,
48.7178,1.0256,-36.9231,33.8462,-1.0256,-45.1282,-5.6411,25.6411,-5.1282,49.7437,-31.7949,-114.8718,77.436,68.7178,
43.0768,-3.5897,-41.0255,24.1027,-4.6154,-54.359,-10.7692,15.8973,3.5897,46.6666,-22.0511,-119.9999,67.1793,58.9742,
49.2307,1.0256,-33.8462,28.718,-1.0256,-53.8462,-7.1794,16.9231,-1.0256,44.6155,-14.3589,-123.5896,60.5129,57.949,
49.2305,1.0256,-34.3591,31.7949,-1.0256,-45.1284,-7.6924,19.4873,-12.8206,43.5898,-22.0515,-132.3079,59.4873,58.9741,
51.0256,2.8206,-37.1794,31.0256,-2.8206,-46.4104,-5.3848,17.6921,-12.0513,41.282,-23.8462,-133.5898,63.3333,58.718,
46.9232,0.76917,-42.3077,25.3846,-4.8717,-50.5128,-0.76916,14.6156,-3.3334,40.7694,-15.1283,-126.4103,63.8461,59.7435,
51.0258,2.3077,-51.0255,13.5897,-6.4103,-57.6923,-2.3077,20.2565,-5.8973,48.9745,-12.5641,-128.4615,67.9486,64.8719,
56.4104,1.0256,-52.3079,8.7178,-1.0256,-60.5129,-3.5898,28.2051,-10.2566,55.3845,-13.3335,-134.8718,79.9998,70.2561,
45.641,-1.5385,-48.7179,11.7948,1.5385,-61.0258,-2.0514,24.6154,-3.077,51.2821,-7.1796,-126.1539,75.8973,66.1537,
45.8972,-1.7949,-40.2563,20.2566,-0.25635,-63.8462,-2.8206,17.1794,0.25635,54.1023,-1.282,-111.1539,61.7947,64.8718,
46.923,-4.359,-37.6923,32.0514,-0.76917,-60.7692,-3.8463,18.205,-2.8207,61.2819,0.76916,-100.2565,61.795,71.0255,
42.5641,0.51282,-48.2052,30.2565,-5.641,-62.5641,-8.7179,18.4615,-2.5641,49.2306,-0.51282,-115.2565,62.0514,63.0768,
41.5383,-3.5898,-47.1797,25.1282,-5.6411,-68.2053,-10.2566,15.8972,0,39.9998,0,-128.2053,64.1023,55.3845,
47.6921,-3.5898,-35.8975,32.8206,-1.0256,-63.5898,1.0256,22.564,-5.6411,50.2566,-1.5386,-120.5129,73.3333,66.1541,
52.5642,0.25635,-44.3591,25.8972,-9.4873,-66.9231,-0.25635,21.7947,-20.6411,45.8972,-10.5129,-130,67.4358,63.8459,
48.4618,-2.3077,-43.8461,22.308,-8.9742,-65.3846,1.2821,21.2821,-17.1793,44.3593,-1.2821,-125.8973,64.3593,62.308,
41.7948,-3.8461,-43.3334,22.8207,-12.5641,-72.0514,0.25647,18.7181,-14.1027,43.8461,-0.25647,-119.2308,60.7694,60.7694,
45.1282,-1.0256,-44.6152,22.5642,-20,-87.0514,1.0256,14.3591,-21.0256,38.9744,-4.1025,-125.6409,56.4104,58.9744,
41.0254,-5.6411,-41.0256,22.0513,-22.5642,-102.0513,1.0256,9.7434,-21.5386,36.9229,-1.0256,-124.1025,54.8716,55.8975,
41.7947,-8.4614,-35.6411,21.7947,-21.282,-104.8718,-0.76929,13.5896,-18.718,38.2053,0.76929,-117.1794,58.2053,53.0769,
46.1537,-7.6923,-35.8973,21.5385,-25.641,-106.6666,0.51282,15.8973,-17.9486,40.5131,-0.51282,-115.3846,61.0258,58.9745,
46.1538,-3.0769,-42.5642,16.4102,-34.8718,-121.6666,-1.0256,10.7693,-17.9487,42.0513,1.0256,-112.8206,54.8716,61.5386,
44.3591,-6.9231,-43.8462,12.564,-37.1794,-136.6666,-4.8718,8.9744,-17.6924,42.8206,4.8718,-116.1538,54.6155,57.6921,
39.7438,-11.0258,-40.2565,16.1537,-34.6154,-148.4615,-1.2821,12.5641,-19.7435,42.3077,1.2821,-127.9489,60.2565,59.7438,
44.8719,-7.4359,-40.2565,13.0768,-42.3077,-158.7179,0.76917,11.0255,-25.8976,38.7181,-0.76917,-133.5897,57.1796,61.7948,
46.4102,-9.4871,-40.769,10.5129,-50,-169.4871,-4.8718,5.3848,-31.0256,33.0771,4.8718,-127.4358,60.2563,58.2051,
44.1028,-4.6155,-42.0513,15.3845,-46.6667,-162.564,-10.2563,7.1794,-33.8462,27.1794,4.6155,-125.6411,65.1282,57.949,
43.5896,-4.1025,-43.0769,14.3591,-48.2051,-155.3845,-10.2563,9.2307,-30.7693,31.282,4.1025,-122.0513,61.0256,63.0769,
38.7179,-7.9489,-42.8204,14.6154,-54.1027,-152.0514,-7.4359,7.4359,-15.7693,41.795,15.1281,-107.0513,61.2819,64.8717,
40.2562,-5.3846,-46.9232,9.4872,-62.3077,-157.6923,-16.1539,5.3846,-11.0258,38.205,13.5897,-108.4615,58.7181,59.7435,
46.923,-6.4103,-40.7692,6.4103,-59.7435,-161.2821,-12.0514,11.0255,-10.0001,41.795,16.6666,-103.8463,63.8463,66.923,
47.1796,-10.2565,-37.4359,3.5897,-62.0514,-172.8204,-5.641,13.3334,-3.5897,49.2308,24.6156,-96.4103,69.7435,69.7435,
53.5896,-7.9487,-35.6411,1.282,-71.5383,-184.3589,-10.5127,10.5129,-1.282,51.0256,24.8718,-106.9231,73.0769,66.4104,
55.3849,-8.2052,-31.7948,1.5385,-74.8717,-185.641,-14.359,12.8207,-1.5385,48.7179,31.2821,-117.4359,73.8463,71.2819,
59.2307,-2.3076,-31.0256,2.3076,-67.9487,-185.3845,-8.9744,19.2307,-10.5129,47.4358,35.1282,-122.3076,74.1023,75.6409,
53.077,-2.3077,-33.5897,2.3077,-73.077,-181.2821,-10.5128,14.1027,-20.2565,43.3334,23.3334,-124.359,70.5126,71.5385,
40.2562,-5.3846,-35.1283,5.8973,-88.077,-173.077,-25.5128,5.3846,-19.2308,37.1796,19.2306,-119.7438,58.205,65.3846,
44.359,-3.3334,-32.0514,12.0511,-83.3334,-170.0001,-25.8976,3.3334,-17.1796,35.6407,26.923,-115.1283,56.6666,61.795,
46.6667,-4.6155,-31.7949,6.1538,-68.3334,-175.3845,-15.8975,4.6155,-18.4617,38.9744,22.564,-113.8462,64.1028,66.6667,
54.8718,2.0513,-30.2563,-2.0513,-66.1538,-178.9744,-16.4102,10.7693,-14.8718,43.0769,21.5386,-109.2307,65.6409,73.3333,
57.1793,-2.8204,-29.9999,2.8204,-74.1027,-178.7179,-19.7435,8.4615,-16.1539,38.7179,33.0768,-109.9999,62.8204,69.4874,
50.7692,-5.641,-31.7948,8.7179,-65.1283,-177.9489,-18.9745,5.641,-21.5385,35.8976,30.2565,-110.2565,65.6407,67.6925,
52.0511,-1.7948,-32.0511,1.7948,-64.8717,-180.2565,-23.3334,1.7948,-19.7435,39.7435,18.7179,-104.359,64.3593,66.9232,
54.359,-1.5385,-26.6666,4.6154,-71.2819,-175.3846,-23.0768,1.5385,-7.6923,47.1798,27.6925,-97.9486,66.6666,69.7438,
53.0771,0.25635,-30.5127,5.3848,-77.1794,-179.2307,-27.4358,-0.25635,-14.1025,37.6924,27.9487,-108.4614,62.8203,65.3848,
50.7693,0,-29.7437,4.1025,-77.436,-178.9744,-32.3076,0,-17.436,30.2566,25.6409,-111.282,59.9998,63.0769,
45.6409,-2.0513,-27.6924,5.1282,-77.436,-175.3845,-34.3589,2.0513,-15.3845,34.8718,24.6155,-105.6411,55.8972,63.5896,
50.7692,0.51282,-29.7438,2.5641,-77.9489,-183.077,-32.3077,-0.51282,-20.5128,30.7692,18.9742,-112.3077,52.8204,60.5128,
53.3333,1.0256,-21.0256,6.6667,-66.1538,-175.3845,-20,-1.0256,-15.8972,29.7439,26.1541,-113.3333,60.0002,64.6155,
49.2306,1.5385,-19.4872,6.1539,-57.9486,-163.077,-19.4872,-1.5385,-15.3846,29.7438,32.8204,-109.2308,59.4869,62.5641,
53.8461,0.51282,-20.0001,4.1027,-53.8461,-165.1283,-23.077,-0.51282,-12.3077,32.8207,32.8207,-100.5128,58.4613,63.5897,
54.3588,-0.51282,-17.9489,4.6154,-52.3077,-170.2565,-22.0514,0.51282,-5.641,39.4872,36.41,-93.3334,64.6151,72.3075,
55.8975,1.5383,-18.4617,0,-56.9231,-170.7693,-20,0,-8.2051,38.9741,38.4614,-93.3335,68.2051,71.2822,
54.8716,-1.0256,-13.8462,4.6152,-55.3848,-163.0769,-14.3591,1.0256,-9.2307,38.4614,40,-84.6155,67.6924,68.2051,
51.5386,-0.76929,-12.0513,7.436,-53.0769,-160.2563,-19.7437,0.76929,-12.0513,38.2051,42.3076,-87.4358,62.3076,66.9233,
55.8973,-0.51282,-12.8207,0.51282,-51.795,-157.9489,-24.6154,1.0255,-11.795,42.0511,43.5897,-94.8719,65.641,69.7435,
56.4102,-1.0256,-9.2307,1.0256,-47.1794,-154.3589,-19.4871,2.5642,-12.8206,42.0513,41.0259,-90.7693,72.3076,72.3076,
56.1537,3.8461,-4.8717,8.4615,-48.4615,-156.6666,-18.7179,-3.8461,-22.8204,30.5131,30.5131,-97.6923,66.4105,65.3846,
52.8207,2.0514,-2.0514,14.359,-50.2565,-150.2565,-23.5897,-11.2821,-26.1539,27.6923,25.641,-102.0514,61.0258,62.0511,
52.3079,3.0769,-3.0769,16.4102,-51.7949,-145.1282,-23.5898,-10.2563,-22.5642,31.282,28.2053,-93.3333,58.4617,60.5129,
53.3331,2.5641,-2.5641,11.2819,-57.9489,-156.9232,-23.59,-10.2565,-22.0514,31.7946,26.6666,-91.795,51.2819,54.8717,
48.718,0,0,12.3076,-60,-158.9744,-23.0769,-10.2563,-20.5127,31.7947,26.1541,-93.3333,51.282,56.4104,
48.7181,2.5641,-2.5641,13.8461,-57.4359,-150.7692,-24.1024,-15.8973,-23.5897,30.2562,28.7181,-85.641,50.2562,54.8719,
47.4359,0.25647,-0.25647,18.7181,-55.641,-150.0001,-20.7692,-17.6923,-17.6923,33.5897,42.3075,-70.641,57.6923,52.0511,
43.8462,1.282,-1.282,18.7178,-62.8206,-159.7437,-24.3589,-13.5898,-7.9487,33.5898,49.4873,-60.7693,59.231,50.5127,
45.3846,4.8717,-4.8717,13.077,-64.359,-159.7435,-30.5128,-16.1539,-20.2565,26.4105,36.6669,-75.7693,44.3588,45.8973,
40.7695,3.8462,-3.8462,18.2051,-53.5896,-148.4614,-26.9231,-24.3589,-35.2565,17.6924,22.3076,-90.7693,36.1538,40.2563,
39.2308,7.9486,-7.9486,22.308,-59.2306,-157.1793,-32.5641,-27.4359,-41.7948,11.0258,16.6669,-105.7693,36.6669,33.5897,
38.718,6.9231,-6.9231,20.2566,-66.9231,-172.1793,-37.6924,-28.4614,-27.4358,11.0256,18.718,-120.7693,34.1028,34.1028,
37.4358,4.6155,-4.6155,11.7952,-55.3845,-186.6665,-35.8975,-34.3589,-30.7693,8.2053,13.8464,-135.7693,27.1794,34.3591,
52.0511,10.5126,-6.9232,6.9232,-40.3845,-196.6666,-32.5641,-30.0001,-43.3334,9.9999,10.5126,-150.7693,37.6923,41.2821,
58.2052,16.1539,-9.4872,9.4872,-26.923,-211.5385,-27.9486,-19.7435,-38.205,22.3077,22.8204,-142.8204,52.6923,54.6154,
59.4871,24.6155,-8.718,8.718,-24.6152,-226.5385,-27.6924,-20.5127,-32.3076,25.6409,26.1541,-134.3589,54.8718,55.8977,
66.9231,28.4617,-4.8718,4.8718,-19.7434,-241.5385,-26.9231,-25.8975,-33.0769,25.3845,25.3845,-131.5383,57.6926,56.6667,
75.8977,37.4358,-5.1282,5.1282,-13.8462,-256.5385,-24.6152,-21.5383,-26.1538,35.8977,32.3079,-119.4871,60.5129,65.6409,
78.7181,44.8719,-6.4103,6.4103,-15.641,-271.5385,-26.4103,-26.4103,-18.7179,31.5385,32.5643,-119.7435,54.6156,63.3334,
76.6667,43.8464,-3.8462,3.8462,-18.2051,-286.5385,-27.4358,-28.4614,-12.0513,27.949,34.1028,-121.282,57.6921,62.8206,
89.9998,58.2053,-2.3076,2.3076,-14.6155,-290,-22.8206,-16.1538,-14.1025,40.7693,35.6409,-112.5642,62.3079,71.5383,
91.7948,62.0511,-7.6923,7.6923,-10.7692,-278.9745,-18.9745,-20.0001,-21.0258,38.4613,35.8973,-103.5897,59.9999,66.6664,
76.7948,58.4617,-15.8975,14.8718,-14.8718,-274.8718,-24.1025,-32.3076,-17.9487,24.1028,42.0515,-102.564,58.9744,55.8977,
85.1281,68.7179,-15.8973,14.359,-17.4359,-279.9999,-26.6666,-26.6666,-14.359,29.7438,46.1539,-105.641,64.6154,61.5387,
85.1283,64.6156,-18.4615,12.8204,-18.9745,-278.9745,-27.6923,-24.1027,-12.8204,41.5385,43.077,-101.5385,59.9999,65.1283,
71.282,55.3845,-25.6411,14.3591,-23.5898,-273.8462,-30.2563,-36.4104,-14.3591,29.7434,32.8206,-100,45.1282,52.8206,
73.0769,52.051,-20.7693,16.6667,-23.3335,-271.5386,-30,-43.8462,-16.6667,25.8972,25.8972,-106.4104,42.8206,48.4617,
70.2565,47.6925,-20.0001,20.0001,-25.641,-267.1796,-34.359,-44.1027,-20.0001,31.2819,25.6407,-109.2308,39.4869,46.1539,
65.1282,46.6667,-22.5642,24.1028,-25.1282,-255.8975,-35.8975,-45.6411,-27.6924,22.5642,26.1541,-105.1282,34.8718,44.6155,
60.7693,43.3333,-17.6921,27.4358,-19.7437,-242.3076,-31.0256,-45.8975,-29.4871,17.6921,22.3079,-98.2051,39.2307,50.5129,
66.4102,47.436,-16.1538,26.4102,-20.2563,-241.282,-27.9485,-39.2307,-29.4871,23.3335,16.1538,-101.7947,45.3848,57.1797,
67.1798,43.59,-18.4615,17.9489,-16.4103,-245.1281,-25.1281,-41.0255,-41.0255,18.4615,16.4103,-113.3331,46.6666,53.8463,
56.4102,37.9487,-18.9744,15.3848,-7.6924,-237.9487,-24.6155,-50.7693,-56.0255,7.6924,13.8462,-113.3333,43.5898,45.1284,
67.4358,51.0256,-11.5383,26.4104,-7.4358,-224.8718,-19.7437,-42.3076,-49.4871,15.6409,7.4358,-108.9744,44.8718,46.9231,
69.7434,50.2566,-7.1794,30.2566,-11.2822,-221.5386,-17.436,-37.436,-40.5129,18.9744,7.1794,-114.8718,43.5896,48.718,
61.026,43.59,-11.2819,19.4874,-8.7179,-226.1537,-22.0511,-46.1537,-50.2562,8.7179,9.7438,-123.0768,37.4362,44.1027,
61.5383,40.0002,-13.3333,17.949,-7.1794,-223.5896,-22.0513,-51.282,-48.718,7.1794,13.8459,-118.4614,40.0002,42.5642,
58.4612,39.9998,-10.7693,27.6921,-10.7693,-210.2566,-19.4873,-47.1797,-42.0515,10.7693,12.8206,-115.3848,41.5383,45.1282,
63.3333,50.0002,-8.9744,27.949,-13.0769,-197.6921,-22.8206,-43.8462,-48.9744,8.9744,12.5642,-122.8206,38.718,44.8718,
62.8206,46.9231,-8.9744,22.3079,-16.6665,-201.7947,-23.8462,-46.9231,-52.564,8.9744,12.0515,-123.3333,35.6409,41.7952,
63.8459,51.5383,-5.8975,21.7947,-14.6155,-207.9487,-17.6924,-39.7437,-44.3589,16.1541,5.8975,-115.6411,38.2053,49.4871,
69.4872,54.6156,-9.4872,19.2308,-13.5897,-200.2565,-20.7692,-33.5897,-41.7948,16.1537,9.4872,-113.5897,42.8207,54.1024,
64.8717,47.9489,-17.6923,19.2306,-16.6666,-190.5128,-27.9486,-36.6666,-39.2308,16.6666,20.2565,-113.5897,43.3331,52.0514,
65.3846,52.5638,-13.5897,17.1796,-11.5385,-190.0001,-21.795,-39.7438,-38.7181,18.7177,11.5385,-107.4359,41.2821,49.9999,
63.8463,51.5387,-4.8717,15.6412,-3.3334,-182.3077,-14.6154,-39.7435,-45.3846,16.6666,3.3334,-100.7692,45.3849,53.0768,
58.9742,48.2052,-13.3331,11.2823,-8.7179,-177.4359,-22.0511,-39.4872,-49.2306,12.8204,8.7179,-106.1537,41.0255,51.795,
63.333,49.4873,-14.6155,9.4873,-9.4873,-180.7693,-22.3079,-40.7693,-39.231,15.6411,17.6924,-106.4104,38.7178,46.4102,
59.4871,43.5896,-9.7437,5.1282,-5.1282,-183.5898,-18.9744,-42.5642,-31.7949,12.8206,19.4871,-103.5898,43.5896,44.1028,
65.641,51.7948,-9.7435,4.6154,-4.6154,-175.3846,-20.0001,-35.8976,-29.7435,14.3588,25.1283,-101.5385,46.6664,49.7435,
63.8463,52.0514,-10.5128,10.5128,-14.1027,-166.923,-26.4103,-34.6154,-31.0258,19.7438,22.8204,-98.7179,42.8204,52.5641,
55.1283,46.9232,-11.5385,14.1024,-17.1796,-169.4872,-28.4615,-39.7435,-36.1539,14.6156,11.5385,-96.1539,39.2308,49.4872,
61.795,48.9742,-8.4615,8.4615,-8.4615,-177.1796,-19.7435,-41.2821,-44.8717,10.5128,10.5128,-100.7692,42.8204,47.4362,
64.1027,50.7692,-5.641,5.641,-6.6666,-174.8717,-16.4103,-37.4359,-49.2308,15.8976,15.3849,-102.0511,48.7179,53.8463,
64.8718,54.6155,-8.9744,8.9744,-14.1025,-168.4614,-23.8462,-35.6411,-49.4873,14.6155,14.6155,-101.282,47.9485,52.5642,
61.5386,48.7183,-8.2051,8.2051,-12.3076,-165.6409,-22.564,-38.9744,-43.5896,8.7183,14.8721,-102.0513,44.6152,46.1538,
56.1538,50,-7.4358,7.4358,-7.4358,-159.7437,-19.2307,-37.1794,-39.2307,12.564,20.769,-98.718,46.9229,51.5386,
63.3334,55.641,-11.5385,11.5385,-12.5641,-160.2562,-25.3844,-33.5897,-36.1537,16.6669,24.8719,-99.2306,49.9999,55.641,
61.2819,50.5128,-12.5641,12.5641,-13.077,-168.4615,-23.3334,-38.2052,-28.4615,16.1539,23.3331,-94.1027,49.4869,50.5128,
53.5898,50.5127,-13.5896,10,-10,-162.8206,-23.8462,-43.8462,-29.4871,14.6152,17.6924,-81.7949,42.8203,45.3848,
52.3075,50.7689,-13.3334,13.3334,-13.3334,-147.8206,-32.3077,-40.5131,-28.7181,14.8715,25.641,-89.7438,40.5126,47.1796,
53.3333,51.7947,-12.8206,14.3591,-16.9231,-146.1538,-33.3335,-33.3335,-21.5386,12.8206,39.9998,-104.7438,48.2048,53.3333,
65.1284,58.9741,-6.6667,6.6667,-10.2563,-153.8462,-22.5642,-27.6924,-17.9487,19.4871,43.5898,-119.7438,60.5127,61.5386,
65.6409,53.8464,-3.0769,3.0769,-8.2051,-145.6409,-22.0513,-23.0769,-16.9231,28.718,41.5383,-124.6152,64.6155,68.718,
65.641,58.9745,-5.641,5.641,-10.2562,-140.5128,-27.1793,-18.4615,-13.8461,30.7694,44.1024,-128.205,65.641,70.7694,
69.2307,64.6155,-6.1538,6.1538,-9.231,-144.6155,-25.1282,-20,-8.2051,33.8459,52.8206,-130.2566,71.7947,69.7434,
57.6921,56.1541,-8.9744,6.4102,-14.1025,-144.3589,-30,-25.3845,-6.4102,30.5129,52.5642,-128.4614,64.3591,65.8972,
62.8204,58.2052,-6.4103,6.4103,-13.0768,-145.3846,-28.9742,-21.2821,-11.0255,26.4103,49.4874,-133.5897,60.7692,67.4362,
67.6921,59.9998,-5.1282,5.1282,-9.2307,-142.5642,-23.5898,-22.0513,-18.9744,25.1282,49.2307,-137.9487,66.6667,69.7434,
60.7693,58.718,-10,10,-12.564,-135.6409,-26.9231,-28.4614,-17.1794,22.8206,44.3591,-133.0769,62.3079,62.3079,
54.3589,49.7437,-13.3335,7.1794,-19.4873,-146.1538,-34.8718,-33.8462,-7.1794,20,39.4873,-128.718,53.3335,54.3589,
51.282,45.6409,-12.3076,2.0513,-24.1025,-153.8462,-38.4614,-33.3333,-2.0513,24.1028,41.0256,-124.1025,53.8459,56.9231,
57.9489,53.3331,-6.1539,3.5897,-25.1283,-148.2052,-34.359,-29.2308,-3.5897,28.2052,45.6412,-123.5897,56.4103,59.4874,
55.8975,46.1538,-3.5896,3.0769,-20.5127,-148.718,-25.1282,-32.3076,-3.0769,24.6152,52.8203,-132.3076,55.8975,57.436,
52.8203,46.6665,-4.6155,4.1025,-15.8975,-147.6924,-22.0513,-32.8206,-4.1025,19.4873,53.3335,-134.8718,57.436,55.8975,
49.7438,45.6412,-9.2306,5.641,-27.1793,-143.0768,-33.8461,-37.9486,-5.641,12.8204,45.1281,-133.8461,53.3336,49.2311,
37.4362,35.3849,-17.4359,-0.51282,-36.923,-148.7179,-43.5897,-44.1024,0.51282,12.8204,45.6412,-136.41,48.2052,42.5641,
43.5897,41.0258,-15.3846,-4.6154,-29.2308,-162.5641,-40.0001,-36.9232,4.6154,18.9745,50.2562,-133.8463,53.8461,47.6923,
44.6154,40.5128,-7.1793,1.5385,-26.6666,-162.5641,-34.359,-37.9486,-1.5385,17.4362,41.0255,-124.1024,54.359,50.7692,
36.6665,39.7437,-6.4102,6.4102,-37.1794,-147.5641,-39.2307,-44.8718,-15.1282,10.5127,31.0259,-121.282,43.8462,45.8975,
41.2817,42.8203,-5.3848,5.3848,-39.7437,-132.5641,-41.7949,-41.2822,-21.7949,11.0254,33.0767,-124.8718,44.3589,47.436,
37.1793,37.6925,-3.3334,3.3334,-34.6154,-141.7948,-39.7435,-39.7435,-21.7948,12.5641,28.4615,-124.8717,47.4362,48.4615,
39.2308,40.7694,-3.8461,3.8461,-37.1796,-146.923,-36.1537,-40.7692,-18.7179,11.5385,27.4359,-124.359,42.3075,44.3593,
39.7437,44.3589,-6.4102,6.4102,-42.3076,-134.6152,-36.6667,-40.2563,-16.6667,13.0771,35.1284,-119.7437,43.8462,43.8462,
34.3589,48.7183,-8.2051,8.2051,-44.6152,-129.2307,-40.5127,-35.8975,-14.8718,15.8975,34.3589,-109.7434,46.1538,46.667,
38.9746,47.6924,-6.1538,6.1538,-41.0256,-133.8459,-40,-33.8459,-12.3076,13.8462,30.7695,-103.5896,42.564,45.1284,
35.6412,40.7692,-4.8717,4.8717,-36.1539,-133.0768,-34.1024,-39.7435,-14.1024,13.0768,32.0514,-101.7948,43.8463,44.8717,
35.1283,46.41,-5.3846,5.3846,-36.1539,-132.5641,-34.6154,-40.7694,-14.1027,10.5126,31.0258,-103.3334,45.8973,46.9232,
34.6152,42.8203,-5.8975,5.8975,-44.3591,-131.5386,-40.2566,-38.718,-7.9487,6.9229,32.564,-102.8206,40.769,44.3589,
32.0511,38.7181,-4.8717,3.8461,-46.923,-133.0768,-35.1281,-36.6666,-3.8461,12.0511,39.2308,-98.2052,41.2821,44.3593,
38.2053,44.3591,-0.76929,0.76929,-38.2051,-128.9744,-24.3589,-32.0513,-6.4102,20.2566,41.7947,-91.0256,54.6155,51.5383,
34.1028,38.2053,-1.282,1.282,-35.6411,-119.7437,-27.9487,-32.564,-12.564,15.6409,35.1282,-86.9231,56.1541,51.5383,
33.8464,38.9744,-4.1025,4.1025,-37.4358,-118.4614,-32.8203,-34.8716,-13.8459,11.7952,32.3079,-83.5896,45.6414,48.718,
32.0511,37.6923,-5.3846,5.3846,-39.2308,-117.1793,-29.9999,-37.6923,-11.5385,13.077,36.6669,-79.2308,44.8719,48.4618,
22.0511,33.3334,-7.1796,7.1796,-39.9999,-110.7692,-32.3077,-39.4872,-10.2565,9.2308,36.4105,-78.9742,44.6156,41.5385,
23.3335,34.1025,-3.3335,7.9487,-37.6924,-112.5642,-34.1025,-43.3333,-11.5386,3.3335,34.1025,-80.7693,38.7178,33.0771,
17.9485,26.1536,-2.5642,2.5642,-39.4873,-118.4617,-33.8462,-45.6411,-13.8462,2.5642,35.8972,-81.5386,36.9231,34.3591,
24.3589,34.1025,-3.8462,3.8462,-38.2051,-114.1025,-32.5642,-34.1025,-13.5898,11.0254,36.6665,-76.1538,45.8975,42.8203,
26.1538,31.7949,-4.1025,4.1025,-35.8972,-119.4871,-36.4102,-36.9229,-21.0256,10.7695,29.7437,-79.9998,46.667,39.4873,
21.2819,22.8204,-1.795,1.795,-35.1283,-122.8207,-35.1283,-42.3077,-21.2821,7.4357,35.6407,-80.7694,43.3331,39.7433,
28.4615,27.4362,-0.76917,0.76917,-40.7692,-116.6666,-33.0768,-36.6666,-17.1793,13.59,43.3336,-75.641,43.8463,44.8717,
21.0256,19.4871,-2.5642,2.5642,-46.6667,-115.8975,-38.9744,-38.4614,-16.4102,15.8972,35.8972,-70.2563,47.1794,38.9744,
14.8718,13.8464,-4.6155,4.6155,-47.1794,-114.8718,-41.0256,-41.5383,-17.9487,6.6667,34.3591,-65.6409,44.1028,33.8464,
22.5642,14.8718,-3.0769,3.5901,-45.1282,-109.2307,-34.8716,-39.4871,-18.4614,3.0769,37.949,-67.1794,41.5388,36.9231,
15.6409,15.6409,-2.3079,3.8459,-45.3845,-102.8206,-34.6155,-41.7949,-19.2307,2.3079,31.0256,-71.0256,39.2307,34.1028,
10.2563,12.8208,-0.5127,3.0771,-48.7178,-98.4614,-35.3845,-47.1794,-18.4614,0.5127,28.2051,-69.2307,35.8975,28.2051,
8.9744,3.3333,-1.282,1.282,-50.5129,-96.1541,-34.1025,-47.9487,-17.6924,1.7947,31.0256,-62.8206,32.5642,31.0256,
12.5645,14.6157,-1.7949,6.9233,-50,-87.4358,-37.1794,-38.7178,-22.3076,1.7949,32.0513,-61.7947,33.0771,34.6157,
20,19.4873,0,9.7437,-50.2566,-78.4617,-37.9487,-33.8462,-22.5642,0,34.8716,-59.4873,37.9487,34.3589,
15.6411,5.8975,-0.25635,5.3848,-48.4617,-79.2307,-33.5898,-36.6667,-17.6924,0.25635,33.0771,-53.0769,35.6411,35.1284,
17.6921,9.4871,2.8206,4.3586,-44.8718,-82.8206,-32.0515,-38.718,-21.7949,-2.8206,22.3074,-57.1797,29.9998,35.1282,
14.3589,10.2563,5.6411,6.6665,-44.6152,-82.0513,-36.9231,-44.1025,-28.2051,-5.6411,17.436,-64.1025,28.2051,28.2051,
10.769,7.1797,2.564,4.1025,-44.6155,-77.9487,-38.9744,-46.1538,-26.6667,-2.564,24.6152,-63.5898,27.1797,25.6411,
15.8975,5.6411,4.6152,4.1025,-41.0259,-71.7949,-32.3079,-47.1797,-24.1028,-4.1025,29.2305,-58.4617,28.7178,30.2563,
14.3589,6.6665,12.3076,15.8975,-36.4104,-58.9744,-25.6411,-46.1538,-21.0256,-6.6665,27.6924,-47.1794,31.2822,31.2822,
13.0767,10.5127,6.4102,15.1279,-41.7949,-58.2051,-35.1282,-45.8975,-25.3848,-6.4102,20.769,-45.3848,22.8203,24.3589,
11.5383,4.8718,2.3079,16.6667,-46.4102,-59.2307,-40.2563,-45.3845,-23.8462,-2.3079,22.8206,-42.8206,21.7952,22.8206,
9.7437,6.6665,3.5898,24.1025,-47.1794,-51.7949,-35.8975,-44.1025,-22.0513,-3.5898,24.6152,-38.4614,28.2051,26.6665,
14.8718,13.3333,6.1541,23.0769,-42.0513,-40,-31.7949,-42.5642,-27.1794,-6.1541,23.0769,-36.9231,31.7947,29.2307,
9.4873,7.436,5.3848,20.769,-39.231,-34.6155,-31.0256,-43.8462,-29.4873,-5.3848,20.769,-37.6924,25.3848,24.8716,
10.5127,8.4614,5.8975,21.7949,-43.3335,-40.2563,-31.5386,-42.3079,-26.4104,-5.8975,21.2822,-37.1794,20.2563,24.3589,
11.5383,7.4358,7.9485,19.2307,-44.3591,-41.2822,-29.4873,-42.8206,-23.3335,-7.4358,23.8459,-33.0769,31.0256,28.4617,
10.2561,10.7693,4.6155,13.8459,-40.0002,-33.8462,-30.2566,-41.0259,-24.1028,-4.6155,18.4612,-29.231,35.3845,28.2048,
15.6409,18.2048,2.8206,12.5642,-37.6924,-31.0256,-31.5386,-34.6155,-24.3591,-2.8206,16.6667,-29.4873,27.4358,28.9744,
10.7695,10.7695,4.1025,13.8462,-38.4614,-35.3845,-28.7178,-35.8975,-22.0513,-4.1025,27.6924,-28.7178,25.1284,32.8208,
13.0769,7.949,2.8206,11.0256,-37.6921,-39.2307,-24.8716,-38.2051,-19.7434,-2.8206,26.9231,-25.3845,30.5129,32.0515,
15.3848,8.7178,2.564,9.7437,-38.4617,-33.3333,-24.6155,-40.5129,-20.5129,-2.564,15.8975,-22.0513,32.8203,25.1279,
13.3335,16.4106,4.1025,21.0259,-36.9229,-18.9741,-23.5896,-37.9485,-19.9998,-4.1025,24.1025,-18.4614,32.3081,29.7437,
16.9229,21.5381,7.6924,27.1792,-30.7693,-17.949,-21.5386,-37.436,-23.0771,-7.6924,33.8462,-21.5386,31.2817,34.3589,
11.282,12.3079,12.8206,21.5383,-26.6667,-25.6411,-21.5386,-42.5642,-28.718,-11.282,26.1541,-19.4873,29.7434,27.6921,
8.9744,10.5129,11.5383,18.2053,-30,-22.3076,-22.3076,-41.282,-29.4871,-9.4871,19.2307,-8.9744,26.9231,25.3845,
10.2563,7.1792,4.1025,15.8975,-30.2566,-12.8208,-21.0259,-40.5129,-25.1284,-7.6924,23.5898,-4.1025,26.1538,27.6924,
14.8718,14.3591,3.5896,17.4358,-17.9487,-4.6155,-13.8459,-35.8975,-21.5383,-4.6155,28.2053,-3.5896,32.3079,30.7693,
16.4104,16.9231,4.6155,16.9231,-17.4358,-4.6155,-15.3845,-38.9741,-34.8716,-9.2307,13.2053,-9.2307,30.2566,27.6926,
5.6409,1.9231,0.51294,14.8718,-23.0769,-0.51294,-22.0515,-46.6667,-47.6924,-15.3845,1.0256,-15.3845,22.051,23.0769,
3.8462,4.8721,-3.8462,12.5645,-20.2563,4.3589,-22.3076,-49.4871,-47.4358,-22.8203,5.3848,-24.3589,14.6157,19.231,
3.8462,8.9746,-3.8462,9.4873,-19.231,5.3848,-22.8203,-55.1282,-43.3333,-32.0513,11.0259,-25.3848,11.0259,13.0771,
1.7949,9.4873,-1.7949,13.5898,-12.0513,20.2563,-23.3335,-51.5383,-47.4358,-27.9487,3.3335,-16.6665,12.0513,12.0513,
13.3333,21.5383,-1.0256,23.5896,1.0256,35.2563,-20.5129,-46.6665,-59.4871,-24.1023,-10.7693,-20.5129,10.7693,12.3079,
12.0513,25.3848,-1.7949,31.5386,1.7949,50.2563,-17.1792,-51.5383,-61.282,-33.5898,-11.5386,-25.8975,3.3335,11.5386,
8.2051,27.6924,-1.5386,27.1792,1.5386,63.0767,-14.3589,-52.3079,-53.3335,-35.3848,-5.6411,-12.3076,5.6411,10.2563,
15.1284,18.7183,-1.7949,15.1284,5.8975,48.0767,-16.1538,-52.564,-57.1792,-31.5381,-11.5381,-9.4868,7.436,1.7949,
13.8464,9.7439,1.5388,14.3591,14.3591,50.2566,-14.3586,-54.3586,-59.9998,-32.3074,-10.2561,-14.8713,-1.0256,1.0256,
9.7437,15.8975,5.6411,24.6152,14.3589,65.2566,-13.3335,-56.9231,-55.8975,-38.9741,-1.0254,-6.1538,-0.5127,0.5127,
2.051,13.3333,6.6667,30.7693,1.5383,65.1282,-20.5129,-62.0513,-54.8718,-44.1028,-7.1794,-1.5383,5.1282,-4.6155,
5.3845,16.1541,9.4871,29.4871,-2.3079,50.1282,-21.282,-55.6411,-49.4873,-39.7434,-10.0002,-5.3845,3.3333,2.3079,
7.6926,10.2566,5.6414,15.3845,2.5642,39.4875,-18.4612,-53.8459,-46.1538,-37.9485,-5.6409,-7.6921,-2.5642,4.6155,
1.0256,2.5642,-1.5383,14.8718,6.6667,47.1794,-16.9231,-54.8716,-42.051,-37.4358,-3.5896,4.1028,-1.0256,1.5388,
7.1792,10.769,-0.5127,27.1792,0.5127,53.333,-17.9487,-52.8206,-33.3335,-31.7949,-1.5386,19.1028,-0.5127,2.0513,
4.3591,9.9998,1.7947,27.4358,-5.8972,49.9998,-21.282,-54.6155,-31.5383,-27.949,-1.7947,32.051,-2.3079,3.8459,
-0.76953,12.0513,0.25635,23.8462,-0.25635,49.4868,-18.2051,-51.0259,-38.2051,-29.4873,-7.436,33.5894,4.8716,7.9487,
0.25635,6.9229,-2.3076,15.6406,-0.25635,46.9229,-19.231,-56.1541,-41.2822,-40.7695,-11.0259,23.8462,2.3076,1.2817,
0,2.5645,4.1025,16.9233,-1.0254,53.8462,-17.9487,-57.4358,-28.2051,-37.9487,-1.0254,29.231,0,1.0259,
0.5127,7.6924,1.0259,14.8716,-4.6152,51.7949,-21.0254,-53.8462,-33.8462,-33.8462,-2.564,36.4102,-0.5127,4.6152,
2.3076,4.3589,-1.7949,13.5898,-3.8462,45.3848,-21.2817,-51.5383,-46.9231,-34.6152,-4.3589,44.3589,1.7949,6.9233,
0,0,2.564,15.897,-6.667,47.1792,-21.0259,-51.7952,-46.1541,-35.8975,-3.0771,47.6919,1.0254,3.5894,
3.3333,0.76929,4.8718,15.6409,-11.0256,52.5642,-19.2307,-51.0256,-45.3848,-35.6409,-8.9744,45.8972,-0.76929,2.3079,
4.6152,-1.5386,1.5386,15.3843,-6.1538,54.8716,-15.3848,-49.231,-48.2053,-35.8975,-12.3076,50.2563,5.1279,11.2817,
7.1794,1.0256,-1.0256,9.7434,-6.6667,46.1536,-21.0256,-49.231,-38.4617,-36.4104,-8.718,52.8206,7.1794,9.2307,
3.0767,-2.0513,2.0513,7.6924,-12.3076,40.5127,-21.5386,-49.7437,-23.4617,-35.3848,-2.5645,50.769,4.1025,3.0767,
-2.8206,2.8206,5.3845,16.6667,-11.0256,49.9998,-16.6667,-50,-25.8977,-36.6667,-3.8464,51.0256,4.8718,7.4358,
-1.0256,2.5642,6.6667,21.0256,-11.7952,52.3074,-21.0256,-55.3848,-26.6667,-40.0002,-6.1541,51.7947,1.0256,4.6155,
-0.25659,-8.4617,10.0002,20.2566,-9.4871,56.1541,-18.2048,-53.0769,-11.6667,-31.0256,0.25659,66.7947,0.76929,1.7952,
3.0769,-3.0769,7.1794,17.9485,-7.1794,61.0256,-9.7434,-46.1538,-23.5896,-29.2307,-4.6155,78.4617,3.5896,6.6667,
0,0,5.6406,13.333,-10.7695,63.0767,-12.3081,-50.2566,-37.9487,-36.4106,-8.7183,78.9741,3.5894,7.1792,
-3.8464,-2.3079,7.4358,11.0256,-10.0002,68.4617,-17.1794,-48.9744,-22.9487,-30.0002,5.3845,89.9998,2.3079,7.4358,
1.5383,-6.1541,1.0256,8.718,-12.8206,61.0256,-19.4871,-48.2053,-8.2053,-30.7693,5.1282,95.8972,-1.0256,4.1023,
0,-7.6924,0,13.3335,-11.7949,57.9487,-15.8975,-51.7949,-19.4873,-36.9229,3.0771,93.3335,3.0771,4.1025,
-0.76953,-0.25635,0.25635,14.6152,-8.9746,61.7949,-17.6924,-47.9487,-8.9746,-36.6665,14.1025,91.5386,5.8975,9.4873,
-2.3079,-9.4871,-5.3845,6.9231,-12.5642,63.3333,-22.3079,-46.4102,3.8464,-35.6409,17.6921,94.6155,2.3079,10.0002,
-4.3589,-10,-5.8975,10,-12.564,68.4619,-17.6924,-44.3589,4.8721,-25.3843,20.7695,109.6155,4.3589,12.0513,
-1.0256,-2.051,-4.1023,13.8464,-9.2307,69.2312,-15.3845,-44.6152,1.0256,-23.0769,23.0769,112.8206,5.1287,10.2566,
-8.718,-11.7952,-1.5383,14.8718,-7.1794,72.8206,-17.949,-49.231,1.5383,-31.7952,16.4099,109.7434,6.1536,5.1282,
-12.564,-11.5386,0.76904,16.6665,-7.9487,77.1797,-17.6924,-48.4617,-0.76904,-36.6665,12.0513,116.1538,2.8203,2.8203,
-7.1797,-7.6924,-0.5127,14.3589,-4.1025,77.9487,-12.8208,-47.1797,1.0254,-28.7183,19.4873,124.6152,0.5127,3.5898,
-9.4871,-8.4617,-4.8718,18.718,-2.3079,80.7693,-9.4871,-46.9231,13.5896,-23.8464,29.9998,130.5129,2.3079,7.9485,
-6.4102,-9.4873,-5.3848,18.2051,-4.3589,76.6665,-10,-47.4358,18.2051,-24.8716,30,133.5898,4.3589,5.3848,
-4.8721,-16.1538,-1.2822,12.0513,-2.3076,75.1279,-11.0259,-46.9231,23.8462,-22.8208,37.6924,139.7437,10.5127,1.2822,
-6.667,-13.3335,-2.0513,10.769,-4.6157,83.5898,-15.8975,-46.6667,29.2305,-22.5645,46.1538,141.0254,7.6924,2.0513,
-8.4614,-13.0767,-4.3589,13.0771,-7.9487,84.8721,-15.1279,-52.564,18.7183,-25.8975,37.6924,136.1538,4.8721,4.3589,
-13.0771,-17.1797,-4.3589,15.1279,-2.3076,83.8462,-9.4873,-53.5898,9.4868,-29.4873,26.4102,137.1792,6.9229,2.3076,
-9.2307,-13.3333,-0.51294,13.3333,3.5896,85.6409,-14.3591,-52.3076,12.8206,-30.7693,27.1794,142.0515,0.51294,-2.5642,
-13.5896,-16.1541,0.76929,11.0256,-1.7947,88.4617,-18.2053,-53.0769,12.5642,-29.4871,32.5642,142.8206,-0.76929,0.76929,
-18.9744,-15.8977,-3.5896,13.3333,-5.6409,91.282,-10.7693,-52.8206,6.1536,-32.8206,28.718,141.5383,4.1023,3.5896,
-10.7693,-14.3591,-1.5383,16.4104,0.51294,88.718,-5.6409,-52.3076,5.1282,-34.3591,22.0515,143.0769,-0.51294,1.0256,
-12.3079,-16.4104,2.051,14.3591,0.51294,78.9744,-9.2307,-53.8462,6.1536,-32.8206,26.6667,141.5383,-3.5896,-0.51294,
-15.3845,-12.8206,0.51294,12.3079,-3.5896,79.4871,-10.7693,-53.8462,11.282,-36.4104,36.9231,140.5129,8.2048,-0.51294,
-17.436,-15.8975,0,19.4873,0,94.4871,-9.231,-54.8718,18.4614,-34.8721,34.3589,150.2563,5.6411,-2.564,
-15.1282,-16.1541,1.282,26.9231,3.8459,103.3333,-5.3845,-52.0513,16.1541,-25.3845,23.3333,157.1794,-9.3589,-1.282,
-8.2051,-16.4106,3.0767,17.4355,0,98.9741,-4.6157,-51.2822,10.769,-29.231,25.6406,151.2817,-5.6411,0,
-12.5642,-19.7434,1.7947,10.5129,-2.8206,94.6155,-8.4617,-52.0513,8.9744,-38.718,29.4871,149.4871,3.8459,-1.7947,
-9.2307,-9.7434,1.0256,18.4617,-1.0256,95.385,-6.1536,-44.1023,7.1794,-32.3074,27.6926,151.7952,-2.051,1.5388,
-10.7695,-10.7695,0,21.5381,0.5127,98.4614,-6.1538,-47.6926,12.3076,-29.7437,35.8975,150.2563,-4.6157,0,
-16.9233,-13.8462,0.5127,20,4.1025,101.5386,-9.7437,-55.3848,22.0513,-37.436,40,151.2822,-0.5127,-7.1797,
-10.5127,-10,2.3076,17.6924,6.4102,98.2051,-4.8716,-53.5898,11.0259,-43.8462,28.9746,146.9233,-2.3076,-7.436,
-11.282,-10.7693,1.0256,12.8206,12.8206,88.718,5.1282,-51.7949,-3.5896,-41.0256,28.2053,136.4104,-7.1794,-1.0256,
-11.0256,-6.9231,1.282,10.5129,21.7952,85.3845,6.9231,-55.6409,-1.7947,-38.718,33.5901,134.6155,-8.9744,-1.282,
-15.897,-16.9229,0,13.3335,22.5645,91.2822,0.51318,-62.051,0,-46.6665,26.667,139.4873,-8.7178,-9.7432,
-17.6921,-18.718,-1.282,18.2053,31.5383,101.7947,1.282,-54.1023,1.7947,-46.4104,27.949,146.4104,-4.3591,-7.4358,
-12.8206,-12.3074,-0.51294,19.4871,35.3845,96.4104,0.51294,-53.8459,1.5383,-43.0769,32.8206,148.2053,-6.6667,-11.282,
-14.1025,-12.564,6.9233,26.4106,32.0513,90.5132,-0.25635,-60.769,0.25635,-44.3589,35.1284,150,-7.9487,-14.1025,
-10.7695,-10.2563,9.2305,23.5898,32.8203,84.6152,0,-57.949,0,-45.1284,28.2051,144.6152,-9.7437,-11.7949,
-13.3335,-18.9746,5.1284,12.8203,30.769,74.8716,-0.5127,-58.9744,0.5127,-42.0513,20.5127,135.8975,-12.3076,-14.8716,
-20,-22.0513,4.1025,18.4614,28.7178,80.5127,-1.5386,-60.0002,1.5386,-42.0513,23.5898,138.9741,-10.7695,-15.8975,
-15.6409,-12.5637,6.9231,24.3591,33.0769,87.949,-2.8206,-59.7434,2.8206,-43.8459,30.0002,145.385,-7.9485,-16.6663,
-21.5383,-17.9485,4.6155,19.4871,31.282,85.1282,-4.6155,-65.1282,6.6667,-46.6667,24.1028,148.2053,-14.3591,-19.4871,
-21.5386,-17.436,3.5898,19.4873,24.6152,88.2051,-3.5898,-63.0767,8.2051,-47.6924,22.0513,150.2563,-20.5127,-17.436,
-15.6414,-14.1028,6.9231,22.8206,26.4099,93.5896,-1.282,-59.2307,1.282,-47.4363,27.4358,151.5383,-14.1028,-15.6414,
-22.3076,-12.564,1.7949,19.2305,25.8975,95.1279,0.25635,-59.7437,-0.25635,-45.8975,24.3589,155.6411,-8.9746,-14.6152,
-18.718,-5.8972,-3.3333,14.6155,20.7693,93.5896,3.3333,-53.0769,14.1028,-39.7434,24.8718,160.2566,-9.9998,-8.4617,
-19.7434,-11.5383,0.25659,17.6921,16.6667,91.0256,-0.25659,-53.0769,19.2307,-36.1536,30.0002,166.9231,-13.5896,-11.5383,
-19.7434,-5.8972,5.3845,25.8977,17.1794,99.7439,-5.3845,-56.6667,9.4871,-38.2048,27.4358,170.5129,-14.6155,-16.6667,
-18.9746,-5.1284,2.0513,25.1279,16.4102,103.5898,-2.0513,-60,4.1025,-47.1797,18.4614,155.5129,-16.4102,-18.4614,
-24.6155,-10.2566,-1.0256,23.5896,19.4871,94.3586,1.0256,-58.4617,9.2307,-46.6667,18.4617,151.282,-17.949,-16.9231,
-18.9744,-2.5642,1.0256,23.5896,22.5642,89.2307,-1.0256,-55.3845,4.6155,-43.0769,24.1028,164.6155,-15.3845,-16.9231,
-21.0254,-5.6406,0,24.1025,22.0513,102.0513,0,-61.0254,3.5898,-48.7178,29.7437,172.3081,-14.3589,-19.4868,
-21.0254,-4.1025,-1.5386,28.2051,20.5127,107.6924,1.5386,-59.4873,17.436,-43.5898,36.4102,178.4614,-13.3335,-14.3589,
-12.5642,-1.7947,-1.282,27.4358,21.7952,94.1028,1.282,-55.6409,17.1794,-37.6921,30.0002,173.0769,-13.5896,-13.0769,
-17.6921,-7.4358,-0.76929,21.7947,20.7693,88.4617,0.76929,-60.7693,4.3591,-46.4104,19.7434,160.7693,-13.5896,-18.2053,
-20.2563,-4.3589,2.3076,23.3335,10.5127,90.5127,-2.3076,-62.8203,7.436,-52.0513,28.9741,167.436,-10.5127,-18.2051,
-22.564,-6.6665,2.0513,23.5898,7.1797,83.5898,-2.0513,-64.1025,20.5127,-45.6411,40,182.0513,-10.2563,-17.436,
-24.8721,-5.8975,-3.8462,12.564,20.769,74.1025,3.8462,-65.3848,21.2817,-40.2563,35.1279,179.2305,-16.1538,-21.7949,
-21.7949,-6.4102,-4.3589,4.3589,24.3589,65.8975,4.8716,-70,18.2051,-43.8462,35.1284,170,-18.7178,-26.4102,
-23.0771,-8.7183,-2.564,9.2305,18.9741,56.9229,2.564,-68.718,27.1792,-44.6152,41.5386,170.769,-14.3589,-18.4614,
-16.6667,-0.76929,-5.8972,4.8718,22.3079,41.9229,0.76929,-64.3589,24.8718,-44.3591,32.0515,164.3591,-16.6667,-17.1794,
-12.3074,-1.0256,0.51294,-0.51294,32.3079,40.0002,7.6926,-61.0256,14.8718,-43.0769,29.7439,163.5901,-12.3074,-18.9744,
-21.0256,-6.6667,-3.0769,3.0769,27.1794,48.2048,4.615,-64.6157,7.6921,-50.7693,33.3333,169.7434,-11.7952,-19.4875,
-17.9487,-2.0513,-9.7437,8.7178,23.0767,51.2817,2.0513,-65.6411,11.2817,-48.2051,33.8462,177.9487,-17.436,-18.4614,
-22.3076,-3.3335,-9.4873,3.3335,23.8462,44.3589,3.3335,-63.8462,13.0767,-41.2822,27.436,175.1279,-18.7178,-20.2563,
-18.4614,0.5127,-5.1284,-0.5127,27.1797,46.6665,3.5898,-61.5386,10.2563,-44.1025,25.1284,169.231,-9.7437,-17.9487,
-13.5898,-0.76904,-6.4102,0.76904,28.4614,51.0254,4.3589,-62.8206,13.0767,-43.8462,29.4873,172.564,-3.8462,-14.6152,
-22.0515,-1.5383,-13.8464,1.5383,23.5896,44.6155,2.051,-65.6411,16.4099,-38.4617,30.7693,177.9485,-15.3845,-18.9744,
-19.7434,4.3591,-12.5642,4.8718,20.7693,47.9485,-4.3591,-66.9231,17.1794,-42.3079,30.5129,178.718,-21.7947,-23.8459,
-16.6667,2.8206,-9.4871,7.4358,25.3845,61.282,-2.8206,-62.8206,24.3591,-39.7434,40.2566,186.4104,-11.0256,-15.6409,
-14.8718,4.6155,-11.282,-4.1028,28.2053,51.282,3.5896,-54.3591,30.7693,-30.2566,47.1794,192.3079,-3.5896,-12.3079,
-16.1538,4.3589,-7.9487,-9.4868,28.9746,40.2563,5.8975,-54.1025,35.6411,-28.4614,47.9487,194.6157,-4.3589,-16.6665,
-23.0769,2.5642,-9.7434,0.51294,23.5901,47.1794,-0.51294,-61.0256,34.3591,-32.3074,45.1282,190.7693,-13.8459,-15.8972,
-20.7693,4.3591,-14.6155,5.3845,16.6667,48.4617,-4.3591,-61.282,25.8972,-38.2053,40.2566,178.2053,-20.7693,-20.2566,
-22.564,4.6152,-10.2563,10.769,18.9746,47.1797,-4.6152,-58.4614,21.0259,-42.0513,42.564,175.3848,-17.9487,-25.6411,
-26.9231,6.9231,-6.9231,13.5896,19.7434,46.9231,-8.4617,-65.8977,12.051,-47.4358,31.5383,175.6409,-27.949,-30.0002,
-23.3335,3.8462,-3.8462,12.564,17.1797,46.9229,-5.3848,-68.9741,17.1797,-41.7949,19.231,184.8716,-32.0513,-25.8975,
-24.8721,1.7949,-5.8975,11.5381,10,46.4102,-1.7949,-63.8464,26.9229,-36.1538,28.4614,196.1538,-21.7949,-19.231,
-24.8713,6.9231,-12.051,11.0256,10.0002,42.3079,-6.9231,-62.3074,18.2053,-37.1794,41.7952,195.1282,-17.6921,-24.3586,
-24.6152,8.2051,-12.3076,12.3076,18.9746,40.5132,-8.2051,-63.0767,22.0513,-27.1792,43.0771,203.0771,-20,-22.0513,
-22.5642,13.3333,-10.2566,6.6667,13.8459,38.9744,-6.6667,-63.5896,30.2561,-29.2307,44.6155,200.5129,-25.6414,-22.5642,
-24.8721,7.9487,-7.436,4.3589,7.4355,40.2563,-4.3589,-64.8721,15.2561,-44.2307,47.9487,185.5129,-28.4614,-30.5127,
-26.4102,10.5127,-1.7949,18.2051,22.3076,51.5381,1.7949,-61.2822,0.2561,-47.9487,41.7949,170.5129,-18.7183,-24.8721,
-17.949,25.5127,-3.0769,22.5642,27.1794,54.8718,3.0769,-59.4871,-14.3591,-42.5642,35.3845,176.4104,-16.9231,-22.0515,
-20.7693,20.7693,-6.4099,15.6414,14.6155,46.4104,-0.76929,-62.8206,0.64087,-47.4358,47.4358,179.7439,-25.8972,-28.4612,
-19.231,19.2305,-6.4102,10.5127,5.8975,37.6924,-5.8975,-58.7183,8.4614,-44.3589,51.5386,171.5386,-32.0513,-27.9487,
-14.3591,26.1536,-4.6155,12.3079,5.1282,38.9744,-9.7434,-60.5129,4.6155,-36.4104,39.4871,172.3079,-29.7434,-27.6921,
-22.8206,27.949,1.282,22.8206,11.0256,53.9744,-3.8459,-60.2561,-1.282,-35.6409,41.282,183.8464,-24.8718,-28.4612,
-25.8977,23.8459,-4.8718,17.6921,7.4358,49.4871,-9.4871,-60.7693,4.8718,-40.2566,51.0256,191.0256,-31.0256,-34.1028,
-18.4614,22.0513,-2.0513,18.9746,2.0513,43.5898,-11.2817,-55.3843,19.8718,-26.6665,66.0256,205.6411,-21.0254,-26.1538,
-16.4104,29.7434,2.5642,24.1023,-2.5642,46.1536,-9.2307,-48.718,34.8718,-24.1028,72.3074,197.4358,-19.4871,-21.0256,
-13.3333,32.3079,3.0769,22.0515,5.6414,52.3079,-3.0769,-49.2307,19.8718,-39.1028,57.3074,182.4358,-27.6921,-24.1023,
-18.2051,23.333,0.25635,22.3076,12.564,59.2305,-0.25635,-54.1025,4.8718,-52.5645,56.6665,174.1025,-27.436,-27.436,
-11.0256,28.4612,-2.8206,29.4871,3.8459,55.6409,-7.949,-52.0515,2.8206,-37.5645,71.5383,189.1025,-22.3079,-25.3845,
-7.6921,27.1794,-3.0769,35.8977,3.0769,56.9231,-10.7693,-43.5896,17.8206,-22.5645,79.4871,195.8977,-13.8459,-17.9485,
-11.7949,27.1797,-2.0513,34.3589,8.7178,69.7437,-10.769,-38.9746,2.8206,-30.2563,74.8716,188.7178,-13.3335,-16.9229,
-7.436,25.3843,0.25635,28.4614,-0.25635,62.8203,-14.1025,-43.3335,17.8206,-17.6924,73.5894,202.3076,-20.7695,-19.7437,
-11.0256,12.0515,0.25659,27.949,-4.3591,55.1282,-11.5383,-47.9485,32.8206,-2.6924,78.718,217.3076,-24.3591,-15.1282,
-16.9231,7.1794,-5.1282,25.1282,5.1282,62.0515,-8.718,-49.2307,17.8206,-17.6924,69.2307,202.3076,-24.6155,-22.051,
-10.2568,12.8203,0,32.8203,20.1282,77.0515,0,-42.5645,2.8206,-32.6924,71.2817,187.3076,-16.9233,-24.1025,
-9.231,13.333,0,36.4102,15.3843,75.8975,-4.1025,-48.7183,0,-38.9746,75.8975,173.8462,-23.0771,-27.6924,
-8.9744,7.9485,1.282,33.5896,11.5383,81.282,-8.9744,-56.6667,-1.282,-37.6926,73.5896,184.8718,-33.5901,-34.1028,
-8.718,5.6409,6.6667,31.7947,23.5896,96.282,-5.6409,-52.3079,-10.7693,-41.5383,73.3333,179.4871,-33.3333,-30.2566,
-2.3076,16.1538,0.25635,23.8462,23.3335,94.6152,-7.436,-46.9229,-0.25635,-38.2051,67.436,164.4871,-34.6152,-30.5127,
-1.282,14.1023,-3.3333,25.8972,19.2307,95.6409,-6.9231,-47.949,1.282,-36.1541,66.4099,158.718,-33.5901,-33.5901,
-10.5127,7.9487,-3.8462,34.1025,22.3076,108.9746,-3.8462,-52.564,3.8462,-38.2051,67.436,158.2051,-39.7437,-35.6411,
-9.7437,5.6411,-5.6411,30.769,25.1284,103.0771,-7.6924,-58.9741,7.6924,-43.0771,60,146.1538,-48.2051,-39.4873,
-4.8718,2.3074,1.282,32.5642,23.8459,97.6921,-5.8977,-54.1028,-1.282,-37.1794,55.6409,144.3586,-39.7439,-33.5896,
-0.76953,0.25635,5.3843,32.564,20.2563,103.333,-0.25635,-46.4102,-7.436,-32.564,54.6152,155.6411,-35.1284,-31.0259,
-1.282,-7.4358,3.8459,31.0256,23.3333,114.6155,1.282,-48.4617,-2.3079,-34.6155,60.2566,164.8718,-37.1794,-32.5642,
-3.8459,-4.3591,-1.282,33.5896,25.3845,116.6667,1.282,-48.9744,3.8459,-31.5383,66.4104,161.282,-34.1028,-28.4617,
0,-1.0259,-1.5386,30.2563,19.4873,103.5898,2.0513,-48.7178,0,-28.7178,60.5127,152.3076,-32.3076,-30.2563,
-4.8718,-13.0769,6.4104,29.4871,18.2048,94.6155,4.8718,-53.5896,-10.0002,-33.5896,51.0256,145.8972,-36.1541,-33.5896,
-6.4104,-11.5383,8.4617,34.6155,15.1282,96.1541,6.4104,-51.0256,-17.6921,-39.7434,48.9744,132.0515,-36.6667,-30.5129,
-4.8718,-13.0769,5.3845,30.5129,4.8718,95.6409,5.3845,-50.0002,-12.5642,-37.1794,54.1023,122.8206,-34.6155,-28.4617,
-12.051,-17.6921,3.3333,23.3333,3.3333,91.0256,1.282,-55.6409,-1.282,-32.5642,55.1282,128.9744,-39.7434,-33.5896,
-8.7178,-13.333,3.0771,26.1538,7.1797,93.8462,2.564,-53.8462,-2.564,-33.333,49.7437,132.8208,-39.4873,-29.7437,
-4.6152,-12.8208,5.1279,32.3076,4.6152,99.4873,10.2563,-45.1284,-5.6411,-29.7437,53.8462,127.6924,-28.7183,-16.9233,
-1.7949,-9.4873,4.8721,27.9487,1.7949,93.0771,7.436,-42.8203,-3.3335,-22.3076,57.1797,120.2563,-25.3848,-17.6924,
-2.8206,-13.0769,4.3591,21.7952,2.8206,81.7952,3.3333,-48.4617,-3.3333,-20.2561,50.0002,120.2566,-28.4617,-22.8206,
-8.4614,-20.2563,1.2822,20.769,-1.2822,74.6152,7.9487,-46.9233,1.7949,-21.2822,47.9487,125.3848,-24.8721,-19.7437,
-2.3079,-18.718,2.3079,20.7693,-5.8977,71.0256,12.5642,-42.8206,12.051,-18.718,53.0769,124.3591,-20.2566,-17.1794,
-4.8718,-24.8718,4.8718,15.1282,-8.4612,72.5642,10.0002,-49.4871,6.9231,-21.7947,52.0515,114.6155,-25.3845,-19.7434,
-2.3079,-18.2053,7.4358,19.2307,-0.76929,78.718,16.1541,-47.4358,0.76929,-26.9231,58.2053,111.0256,-21.282,-16.1536,
-4.3586,-22.8206,0.76929,19.2307,1.7952,67.4358,14.6155,-52.051,-0.76929,-33.5896,54.6155,104.8718,-18.718,-21.7947,
-10.2563,-25.1284,-0.5127,18.4614,3.5898,60.5127,8.2051,-53.3335,0.5127,-25.1284,43.5898,109.7437,-25.6411,-22.0513,
-3.0769,-15.3845,1.5383,15.3845,5.1282,63.0769,8.2053,-47.1794,-1.5383,-14.3591,42.0515,109.7434,-31.282,-17.9485,
-1.5386,-17.436,1.5386,14.8716,8.7178,61.5386,13.3335,-45.6411,-5.6411,-15.3848,49.231,98.4614,-22.0513,-14.3589,
-3.8462,-11.0254,3.8462,19.231,17.6924,60.7695,16.1538,-42.8203,-12.0513,-25.3843,43.8462,91.0259,-15.1279,-11.5381,
-6.4104,-12.5642,6.4104,16.1541,20.7693,63.8464,15.6409,-44.8718,-15.1282,-33.5896,36.6667,90.5129,-19.7434,-17.6921,
-7.4358,-21.282,7.4358,12.051,18.718,65.3845,17.6921,-44.8718,-7.949,-25.8977,40.2561,100.7693,-20.7693,-16.1541,
-2.3076,-20.769,2.3076,4.8721,10,50.3845,9.4873,-46.9229,-10,-22.3076,36.6665,92.564,-23.8462,-13.5898,
-5.8975,-22.8203,5.3848,6.4102,10,44.8721,7.9487,-51.5386,-5.3848,-30.5127,39.7437,77.564,-20.769,-17.1792,
-19.231,-24.8716,1.2822,1.2822,7.9487,49.4873,5.3848,-55.6411,-1.2822,-38.2051,34.6152,67.436,-26.4102,-25.8975,
-4.3591,-13.5896,4.3591,1.282,7.9485,43.3333,11.5383,-42.3079,-1.282,-23.2051,33.0769,82.436,-21.7952,-13.5896,
-3.3335,-15.1284,3.3335,3.8462,5.3848,39.7437,11.5386,-39.7437,-10,-14.1025,38.7178,88.9741,-16.1538,-7.436,
-4.3589,-7.9487,4.3589,9.4873,9.4873,54.7437,10.5127,-40.7695,-8.9746,-18.7183,47.9487,89.4873,-16.1538,-12.0513,
-3.0769,-6.6667,3.0769,9.7439,3.5896,69.7437,8.718,-39.4871,-3.5896,-16.4104,41.0256,91.282,-21.5383,-14.3586,
-1.0256,-1.5383,1.0256,11.7947,-9.2307,69.2307,6.1541,-31.7947,8.2053,-3.5896,39.4871,91.7947,-16.9231,-4.6155,
-2.051,1.0256,-4.1023,10.2566,-15.3845,54.2307,1.0256,-31.7947,17.4358,-4.6155,48.718,88.2053,-12.3079,-1.0256,
-2.3076,0.76904,-2.3076,14.1025,-8.4614,60.769,4.8716,-28.9746,26.9229,-1.2822,60.2563,98.7178,-7.436,-0.76904,
-1.0256,1.0256,-7.1794,9.2307,-12.8206,68.718,4.1028,-30.7693,15.8977,-2.5637,52.8206,94.3591,-5.6409,-3.0769,
-2.564,-3.5898,-8.7183,6.6665,-11.7949,68.2051,8.2051,-34.8721,11.2817,-8.2051,46.6665,86.1538,-2.564,2.564,
-5.8975,-3.8462,-7.436,11.0259,-6.9229,63.8462,11.0259,-32.0513,19.7437,-4.8716,47.436,93.5898,-10.5127,3.8462,
-1.2822,1.2822,-5.3848,10.5127,-15.1284,59.7437,3.3335,-30,17.6924,-3.3335,48.4614,93.0767,-16.6665,-1.2822,
-4.1025,-0.5127,-1.0254,13.8462,-20,57.9487,1.5386,-31.2822,17.9487,-3.0771,51.7949,82.0513,-9.231,0.5127,
-5.6411,-2.0513,-4.6157,16.4102,-17.436,53.8457,5.1279,-30.7695,15.897,-3.5898,41.0254,76.4102,-9.7437,2.0513,
-1.5386,-3.0771,-8.2051,11.7949,-14.8721,55.3843,1.5386,-28.2051,9.7437,-1.5386,34.3589,75.8975,-11.2822,3.0767,
-6.4102,1.7949,-11.0259,4.3589,-19.231,54.1025,-1.7949,-27.9487,8.4614,-2.3076,40.769,66.9229,-8.4614,2.3076,
-6.1538,3.5898,-11.7949,2.0513,-24.6157,48.7178,0,-29.7437,11.7949,-6.1538,45.1279,62.564,-10.2563,0,
-8.9741,-7.436,-8.9741,5.8975,-18.7178,54.6152,2.3076,-30.5127,23.8462,-2.3076,45.8975,77.1797,-10.5127,3.8462,
-7.9487,-4.3594,-12.0513,8.4614,-18.7183,56.6665,-1.7949,-28.4619,24.8716,1.7949,37.1792,82.8203,-14.1025,4.3589,
-6.6667,-3.5901,-12.3079,5.6409,-27.1794,45.1282,-1.5383,-30.2566,16.9231,3.5896,33.8459,75.8972,-13.3333,1.5383,
-14.3591,-10.2566,-11.282,4.1028,-26.1541,43.5896,1.5383,-30.2566,20.0002,-1.0256,40.5129,73.8459,-7.6921,1.0256,
-7.4358,-0.76929,-8.4617,10.5129,-15.1282,52.051,4.8718,-25.8977,27.9485,-4.3591,46.4104,72.051,-4.3591,0.76929,
-7.1797,-2.0513,-9.231,13.8462,-13.8462,53.8462,6.6665,-28.2051,25.6411,0,45.6411,68.7178,-7.1797,0,
-9.7439,-6.1541,-12.8206,5.1282,-21.5383,44.1023,4.1023,-28.718,15.3845,-0.51294,41.0256,63.5896,-10.7693,0.51294,
-0.51294,-3.0769,-10.2561,0.51294,-20.5129,37.4358,6.6667,-24.6155,11.7952,-2.051,40.5129,53.3333,-2.051,5.1282,
-6.1538,-6.6665,-13.8457,3.0771,-19.4868,36.9233,2.0513,-28.7178,9.231,-2.0513,35.3848,46.1543,-4.6152,3.5898,
-6.9229,-5.3848,-14.6152,6.4102,-18.2051,43.3335,0.25635,-30,11.5386,0.25635,34.1025,56.6665,-12.0513,-0.25635,
-5.6414,-5.1282,-7.1794,13.8459,-16.9231,47.1794,9.7434,-29.2307,15.3845,-1.5383,34.3586,61.0256,-7.6926,1.5383,
-8.4617,-0.25659,-7.4358,14.6155,-20.2566,41.282,8.4617,-33.0769,9.9998,-9.4871,30.5129,46.0256,-7.4358,0.25659,
0.5127,-0.5127,-6.1538,11.2817,-14.3589,46.6665,4.6152,-27.6924,12.8203,-2.5645,35.3843,31.0256,-3.5898,-1.0259,
-3.5896,-9.2307,-11.282,7.6926,-13.3333,50.7693,0.51294,-25.6409,9.2307,-0.51294,32.8206,16.0256,-7.1794,0.51294,
-2.5645,2.564,-12.8208,10.769,-12.8208,51.7949,4.1025,-28.2051,5.6411,-5.6411,30.2563,1.0256,-12.3076,2.0513,
-0.25635,4.3589,-3.8462,17.1792,-6.9233,60.2563,11.5386,-29.4873,17.6924,-4.3589,34.6152,-6.4102,-9.4873,0.25635,
-2.3076,2.3076,-2.3076,19.2305,-5.3848,58.7178,12.564,-25.8975,18.2051,-3.3335,37.1792,-9.4873,-6.4102,3.3335,
-2.8203,1.7949,-10,14.6152,-8.4614,43.7178,12.564,-24.3589,6.4102,-1.7949,37.1797,-14.6152,-5.3848,7.436,
-7.1797,-0.5127,-12.8203,9.231,-10.2563,37.436,14.8716,-23.0771,11.7949,0.5127,39.4873,-20.5127,-1.0259,7.1797,
-5.1279,3.5898,-11.2817,7.6924,-14.8716,39.4873,11.7949,-26.6665,18.9746,-6.6665,34.8721,-23.5898,-1.5386,1.5386,
-2.0515,3.0769,-6.1541,17.9485,-6.6667,46.6667,14.3591,-28.718,13.3333,-5.1282,33.3333,-15.3845,-3.5896,2.0515,
-4.3589,-1.2822,-6.4102,17.6924,-0.25635,56.1538,17.6924,-26.4102,7.436,1.2822,32.564,-11.5386,-4.8721,0.25635,
0.76929,-2.8206,-4.8718,11.5383,-3.3333,63.8459,18.718,-24.8718,15.1282,1.282,34.1023,-15.6409,-2.3079,-0.76929,
0.25659,-0.76929,-1.7947,17.1794,-2.3079,67.4358,18.718,-26.9231,17.1794,-0.25659,37.1794,-10.5129,-2.8206,3.3333,
-0.76929,4.8718,-6.9231,22.3074,-3.8464,59.2307,16.1536,-28.4617,8.9744,-1.282,32.5637,-4.8718,-7.949,0.76929,
-0.76929,3.3333,-5.3845,27.9485,-10.5129,52.051,16.1536,-26.4104,14.1023,0.25659,30.5129,-5.3845,-4.8718,-0.25659,
-5.6414,1.5383,-7.6926,31.282,-18.4617,43.5896,9.7434,-29.7439,16.9231,0.51294,28.718,-8.718,-5.6414,-0.51294,
-2.051,3.5896,-9.2307,26.1541,-13.3333,44.1028,8.718,-31.7947,20.5129,-1.5383,37.4358,-8.2053,-5.1282,1.5383,
-3.3335,0.25635,-4.3589,23.3335,-2.8208,59.1028,17.6924,-30.5127,33.5898,-0.25635,48.4614,-2.3076,-0.25635,4.8716,
-3.5898,-4.1025,-9.231,17.9487,-8.7183,65.6411,13.333,-29.7437,34.8716,2.0513,37.4355,-0.5127,-7.6924,0.5127,
-1.5386,-7.6924,-10.769,12.3076,-20,50.7695,7.6924,-28.2051,27.1797,3.5898,30.2563,-3.0767,-11.2817,1.5386,
-4.6155,-3.0769,-8.2048,15.8977,-14.8718,47.1794,11.7952,-26.6667,22.0515,3.0769,37.4358,-10.2561,-3.5896,4.1028,
-4.1023,-6.1536,-9.2307,20.5129,-9.2307,57.949,11.7952,-29.7434,13.8464,-1.0256,33.8464,-11.7947,1.0256,2.0515,
-9.2305,-18.9741,-10.769,16.9233,-24.1025,63.5898,5.6411,-31.2817,13.8462,0,27.6924,-1.5381,0,5.6411,
-5.8975,-14.1025,-10,10.5127,-29.4873,53.0767,4.8716,-24.8721,20.2563,4.3589,33.0767,-4.3589,-4.8721,7.436,
-1.2822,-15.6411,-8.4614,8.9746,-14.4873,42.3076,9.4873,-27.9487,18.2051,2.8208,36.1538,-16.6665,-8.9741,1.2822,
-2.3076,-16.1538,-6.9233,17.6924,0.5127,37.6924,14.1025,-34.6152,15.1279,0.25635,28.9741,-17.1797,-9.4873,-0.25635,
2.564,-7.1797,-3.5898,25.6411,-4.6157,33.333,17.4355,-33.3335,12.3076,-0.5127,23.5898,-16.9233,-7.6924,0.5127,
-2.3074,-14.615,-0.76929,23.8464,-4.3586,37.1794,16.1541,-31.5383,10.0002,1.2825,28.4617,-13.0769,-4.8718,0.76929,
-2.8208,-18.7178,-0.25635,12.564,-2.8208,40.769,11.5386,-29.4873,6.4102,0.25635,29.4873,-9.4873,-5.3848,0.25635,
3.0771,-20.5127,0,4.6157,-6.1538,35.3848,12.3081,-28.2051,15.3848,0,32.3081,-17.4355,-0.5127,-0.5127,
-4.6152,-22.564,-9.231,7.6924,-10.769,31.7949,10.769,-33.3335,30.3848,1.0254,43.5898,-23.0771,0,0,
-1.0256,-8.2053,-7.1794,22.6924,-8.718,38.9744,8.2053,-34.3591,31.282,1.0256,38.4617,-15.3845,-3.5896,2.5642,
1.0256,-13.8464,3.0769,32.3074,-3.5901,42.5642,11.282,-30.2566,16.4099,-2.0515,23.4617,-8.718,-6.1541,-1.0256,
1.7949,-23.3335,2.3076,22.3076,-3.8462,34.1025,18.7178,-28.4619,17.1792,-1.7949,13.5894,-11.0259,-8.9746,-4.8721,
5.8975,-23.8462,-2.8208,24.8716,-5.8975,26.9229,18.7178,-33.5898,20.769,1.2822,22.8203,-14.6152,-6.9233,-1.2822,
-1.2822,-23.8462,-3.3335,31.0254,-6.9233,41.9229,16.6665,-32.0513,20.769,1.2822,16.1538,-8.4614,-5.8975,2.8203,
-1.0256,-21.5383,-8.718,16.9231,-10.7693,54.3591,16.4104,-26.1536,24.6155,1.5388,10.7693,-1.0256,-10.2561,1.0256,
-4.6157,-31.7949,-16.9233,12.8203,-15.3848,39.3591,10.769,-31.2822,26.1538,3.5898,14.8716,0,-10.2563,0,
-6.9231,-40.2566,-19.7439,21.7947,-18.718,29.4871,1.282,-31.5388,14.615,3.3333,11.0256,-0.76929,-7.949,0.76929,
2.564,-43.5898,-16.4102,13.8462,-20.5127,44.4871,-1.5386,-26.6665,14.3589,3.5898,10.769,0,-7.1797,0,
-0.76929,-44.8718,-8.9744,18.718,-16.1536,59.4871,0.76929,-28.4617,26.4104,2.8206,17.6921,3.3333,-7.9485,-1.282,
0.5127,-39.4873,-0.51269,33.718,-12.8203,53.3335,3.0771,-32.3076,24.1025,-2.564,15.3848,1.0259,-11.7949,-3.0767,
3.333,-46.9233,2.3076,36.6665,-16.667,41.2817,8.9741,-34.6157,14.1025,-2.3076,8.9741,-5.8975,-18.2051,-5.8975,
2.5645,-57.9485,-2.0513,21.6665,-17.9487,36.9233,8.2051,-31.2817,6.667,2.0513,2.5645,-10.769,-16.9229,-6.1538,
3.5898,-66.1541,-6.667,9.2305,-15.3848,38.9741,5.1279,-29.231,5.6411,2.0513,6.6665,-2.0513,-7.1797,-2.5645,
-6.1536,-74.3589,-14.8718,14.8718,-16.4099,35.8977,5.6414,-34.8718,10.7693,-1.0256,14.8718,12.9487,-7.1794,1.0256,
-3.0771,-76.9231,-21.0254,14.8716,-16.4102,27.1797,5.6411,-36.9229,15.3848,0,11.2822,16.9229,-12.8203,0,
-0.51294,-91.282,-17.9485,1.0256,-13.8459,32.3079,4.6155,-33.8459,16.4104,0.51294,7.6926,12.8206,-8.718,-2.051,
-1.282,-88.9744,-15.6409,-4.3591,-12.5642,40.2561,6.4104,-29.4871,15.6409,1.282,16.6667,17.1794,-3.8464,3.3333,
-1.2817,-83.3333,-18.7178,5.3848,-10,36.1538,3.8462,-35.6411,17.1797,-0.25635,18.7183,26.9233,-10,0.25635,
-6.9231,-93.5898,-16.6667,17.6921,0.76929,45.3845,-0.76929,-36.6667,20.7693,0.76929,15.6409,34.6155,-14.1028,-8.4617,
-2.3079,-87.436,-11.5383,17.6921,8.9744,49.9998,-0.25659,-30.5129,6.9231,0.25659,5.8972,19.6155,-16.1541,-5.8977,
7.4358,-77.1797,0.76929,21.7947,17.6921,37.6921,12.051,-28.9744,-3.8464,-0.76929,-3.8464,4.6155,-8.9744,2.3074,
0.76929,-85.3845,-0.76929,21.282,22.3079,29.4871,15.6409,-33.5896,2.3079,-8.4617,-1.282,8.9744,-4.3591,-3.8459,
-2.3079,-97.1794,-15.6409,6.282,20.7693,29.9998,7.9485,-36.6667,2.3079,-8.9744,9.4871,15.6409,-9.4871,-6.4104,
-1.2822,-97.1794,-17.1797,-5.3848,19.231,23.8462,5.8975,-33.0769,-4.3589,1.7949,13.5898,6.9229,-10,1.2822,
0.5127,-87.1794,-9.7437,-4.1025,16.9229,21.0254,8.7178,-27.6924,-0.5127,1.0254,8.2051,7.6924,-4.6152,-2.564,
-2.0513,-89.7437,-7.6924,2.0513,16.4102,34.8716,9.7437,-32.8208,6.6665,-5.6411,8.7178,16.9229,-8.7183,-6.1538,
-6.4102,-90,-10,5.3848,19.231,42.3076,8.9746,-35.1279,3.3335,-6.4102,17.1797,21.2822,-18.7178,-3.3335,
-1.282,-86.4104,-9.4871,1.282,19.2307,29.4871,7.4358,-32.0515,4.3591,-5.3845,22.3079,20.2566,-14.6155,-7.4358,
-1.5386,-93.8462,-7.6924,1.5386,18.9741,26.1538,10.769,-33.8462,15.3843,-1.5386,19.4868,22.0513,-6.1538,-7.6924,
-2.3076,-89.4873,-10,0.76904,19.231,28.4614,13.0767,-37.6924,5.8975,-0.76904,13.0767,23.3335,-13.5898,-4.3589,
0.5127,-83.5898,-6.1538,1.0259,21.5386,30.769,16.4102,-33.3335,-2.564,-0.5127,17.9487,32.3076,-10.769,-4.1025,
-10.5127,-88.4617,-11.5386,2.3076,10,30.5127,7.436,-32.0513,8.4614,-2.3076,19.231,37.1797,-6.4102,-4.3589,
-8.2051,-86.1541,-14.3589,0,2.0513,31.2817,1.5386,-30.7695,17.9487,0,14.8716,30.2563,-14.3589,-1.0259,
0.5127,-86.1538,-5.6411,-4.6152,13.3335,34.8721,10.2563,-24.6152,15.3848,-1.0254,18.4614,28.7183,-16.4102,-0.5127,
2.8206,-81.7947,-5.8972,-2.8206,18.718,26.9231,12.0515,-23.3333,7.949,-6.9231,21.7952,28.9744,-13.0769,-4.3586,
-1.5383,-80,-10.2566,7.1794,11.7947,13.8459,6.6667,-29.7434,1.5383,-7.1794,16.9231,25.1282,-11.282,-7.6921,
-5.6411,-80.5129,-5.6411,11.2817,11.2817,18.4614,13.333,-25.1284,1.5386,-1.5386,10.2563,26.6665,-8.7183,-6.1538,
-0.76929,-82.3079,-3.8464,0.76929,13.5896,26.9231,20.2561,-20.7693,2.3079,-5.3845,0.76929,28.4617,-7.4358,-7.4358,
-0.76929,-86.9233,-7.4363,0.76929,15.1282,27.4358,17.1794,-25.8977,5.8972,-6.9231,1.7947,36.6663,-4.3591,-2.8206,
-3.5898,-82.5642,-12.8203,4.6152,9.7437,21.0259,10.2563,-26.1538,3.0771,-3.0771,-1.5386,35.3848,-8.2051,1.5386,
1.2822,-83.8462,-8.9741,1.7949,9.4873,23.8462,10.5127,-24.8716,-0.25635,0.25635,-8.4614,33.0771,-6.9229,-0.25635,
-0.76929,-84.3589,-1.7947,4.8718,17.1794,38.718,17.6921,-23.8459,6.9231,0.76929,-0.76929,48.0771,-2.3079,-1.282,
-4.1025,-77.9487,-6.1538,4.1025,15.3843,39.4873,16.9229,-25.1284,6.1538,-7.1797,4.6152,47.6924,-10.7695,-7.1797,
-2.5642,-77.4358,-7.6921,2.5642,14.8718,34.3591,16.4104,-27.1794,4.1028,-4.1023,5.6414,37.4358,-8.2048,-3.0769,
-4.3586,-73.5896,-12.051,2.8206,10.0002,35.1282,13.5901,-32.051,-2.8206,0.76929,1.2825,38.2053,-7.4358,-0.76929,
-3.3333,-71.0256,-12.5642,1.7947,5.3845,43.8459,17.1794,-29.4871,-1.282,1.282,2.3079,46.4104,-10.5129,-2.3079,
-4.1025,-73.3333,-10.769,-4.6152,6.1538,51.7949,20,-22.0513,9.231,0,8.7183,45.6411,-6.6665,0,
1.282,-66.4102,-15.1282,-9.4871,4.8718,42.8206,10.0002,-23.8459,4.3591,-2.3079,3.8459,41.282,-7.9485,-1.282,
0.5127,-68.2051,-13.333,-4.6152,7.6924,38.4614,8.7183,-29.7437,1.0259,0,-0.51269,53.3335,-9.7437,0,
-4.6155,-76.4102,-9.2307,-8.2053,11.7947,46.1541,13.8459,-31.7947,3.5896,1.5383,2.0515,52.3079,-9.2307,-1.5383,
0.25635,-76.6665,-5.3848,-15.6411,10.5127,47.9487,14.6152,-27.436,1.7949,-0.25635,5.3848,37.3079,-11.5386,-7.9487,
0,-70.769,-4.1025,-10.2563,15.3848,57.9487,18.9746,-22.0513,5.1284,0,8.2051,39.4873,-14.8716,-7.6924,
1.5386,-62.564,-6.1538,-4.1025,29.231,72.9487,22.0513,-25.6411,5.6411,-1.5386,6.667,50.7695,-13.333,-5.1279,
2.8206,-59.231,-2.8206,5.3845,34.1023,77.6921,24.3586,-31.5388,-2.8206,-5.385,2.8206,46.4099,-12.0515,-6.9231,
7.4355,-52.0515,3.8462,13.5894,34.1025,79.7437,25.8975,-27.436,-11.5386,-8.4619,-3.8462,39.2305,-14.1025,-9.4873,
18.9741,-49.7437,8.2051,10.769,48.2051,94.7437,27.1792,-29.231,-14.8721,-12.3076,-8.2051,38.9741,-15.8975,-11.2822,
14.1028,-47.9485,7.4358,16.6667,58.2053,109.7437,28.9744,-37.6921,-16.1541,-15.1282,-7.4358,38.718,-22.8206,-14.1028,
15.8975,-32.9485,8.2051,31.6667,52.3076,109.231,31.2822,-30.769,-16.4102,-12.3076,-8.2051,38.4614,-26.1538,-13.3335,
20.7693,-37.6921,10.5129,25.3845,46.9231,100.2566,24.8718,-29.9998,-17.1794,-10.5129,-15.1282,36.1541,-24.8718,-15.1282,
17.1797,-47.9487,11.0259,15.6411,55.6411,108.4614,22.8203,-35.6411,-16.1538,-11.0259,-12.0513,30.5127,-25.8975,-19.231,
20.7693,-38.718,4.8718,16.6667,61.7952,100.7693,27.949,-34.6155,-19.2307,-14.1023,-4.8718,20.2566,-24.8718,-23.8459,
22.3079,-35.1282,3.3333,17.6921,62.8206,90.5129,35.1282,-24.3591,-14.1028,-6.4104,-3.3333,28.4617,-15.1282,-16.1541,
20,-41.0256,1.5386,9.231,58.4614,93.8462,35.8975,-24.6152,-11.2822,-1.5386,-9.231,41.5386,-10.769,-8.7178,
19.7437,-46.4102,2.3076,7.9487,56.6665,92.564,36.1538,-28.9741,-14.1025,-2.3076,-7.9487,45.3848,-10.5127,-5.8975,
12.8203,-46.1538,1.5386,11.7949,52.8203,83.0771,29.231,-27.1797,-11.7949,-1.5386,-2.0513,50.2563,-13.8462,-3.5898,
7.436,-52.564,-4.3589,6.4102,39.231,84.8721,18.7183,-32.0513,-4.3589,-7.9487,4.3589,54.1025,-21.2817,-10,
6.1538,-61.0256,-2.564,2.564,37.436,96.4102,21.0254,-33.3335,-5.1284,-9.231,8.7178,54.3589,-18.9746,-12.8208,
15.1279,-54.6155,-0.25635,2.8203,38.2051,84.8716,21.2817,-27.9487,-15.6411,-6.9233,0.25635,44.3589,-25.8975,-8.9746,
21.0256,-50.7693,4.1028,8.718,35.8972,70.7693,23.5896,-27.1794,-10.7693,-4.6155,-4.1028,42.0515,-22.5642,-8.2053,
10.2563,-49.7434,2.0513,8.2051,32.3076,63.0771,24.6157,-33.8462,-6.6665,-7.6924,-2.0513,44.6157,-7.5642,-13.8462,
12.051,-44.3591,-0.25659,0.25659,30.5129,55.6409,24.8718,-34.6155,-11.0256,-8.9744,2.8206,44.8718,-4.3591,-14.6155,
12.8203,-58.4614,0.5127,-0.5127,30.2563,62.0513,28.2051,-31.2822,-2.0513,-2.564,13.8462,57.436,-11.7949,-5.1284,
4.6152,-63.5898,-7.1797,0,28.2051,63.0767,23.0767,-32.8208,0,-3.0771,13.3335,64.1025,-17.436,-4.1025,
10.2563,-48.5898,-7.1792,4.1025,28.7183,60.5132,23.0771,-31.2817,-4.6152,-4.1025,9.231,62.0513,-12.3076,-5.1279,
4.1025,-49.7434,-8.7178,6.1538,17.9487,59.4873,18.9746,-34.3589,-4.1025,-4.6152,8.7183,60,-15.3843,-6.6665,
1.5386,-51.7949,-8.7183,6.1538,9.2305,58.9741,13.8462,-33.3335,-1.5386,-3.5898,10.769,67.6924,-19.4873,-8.7183,
-0.25635,-53.0769,-6.4102,7.9487,6.9229,58.2051,11.0259,-34.1025,0.25635,-8.4614,10,73.5898,-21.7949,-12.0513,
-2.0513,-49.231,-7.1797,13.333,2.0513,58.9741,9.2305,-35.8975,4.6152,-10.7695,6.6665,71.7949,-27.6924,-11.7949,
3.0769,-44.1023,-4.1023,16.4104,-3.0769,52.8206,9.2307,-33.8459,5.1282,-4.1023,6.6667,72.3079,-25.1282,-8.718,
0.51294,-49.7437,-3.0769,11.282,-3.5901,37.9485,9.7434,-34.8718,3.5896,-0.51294,9.2307,70.2561,-21.0256,-13.3333,
1.5383,-53.3335,-5.6414,-1.0256,1.0256,25.1282,14.8713,-38.4617,2.051,-1.5388,11.7947,59.4871,-15.385,-16.9231,
0.76929,-58.7178,-7.9485,-11.5383,3.8464,20.7693,19.7439,-39.2307,1.7952,-0.76929,17.6921,56.6667,-6.4104,-12.051,
-1.0256,-53.3333,-11.7947,-11.7947,3.0769,27.1794,19.4871,-32.3074,3.5901,1.0256,21.5388,69.7439,-6.1536,-7.6921,
-1.2822,-50,-16.1538,-10.5127,2.8203,36.6665,16.1538,-29.4873,4.8716,1.2822,18.2051,76.6665,-10.5127,-6.9233,
-3.8462,-49.9998,-12.564,-7.4355,3.8462,42.3081,15.1284,-28.4614,8.4619,3.8462,18.2051,74.6157,-8.4614,-3.8462,
4.103,-44.1023,-10.769,-9.2305,-2.0513,35.8975,11.2822,-25.6406,7.6924,2.0513,22.0513,71.2822,-9.2305,-3.0767,
6.1538,-50.2563,-10.769,-5.1284,-4.6152,34.3589,9.7437,-28.2051,7.6924,2.564,23.0771,75.3848,-10.2563,-2.564,
-3.8459,-52.564,-7.9485,2.8206,-4.3591,45.8977,11.0256,-32.051,10.0002,2.8206,17.6921,83.8464,-8.4617,-2.8206,
-3.5898,-44.6152,-2.564,5.6411,-2.0513,53.8462,14.3589,-30.769,14.8721,2.0513,22.0513,93.8462,-8.7178,-4.6152,
-2.0513,-42.5642,-2.564,6.6665,-5.1284,49.231,13.8462,-29.231,22.0513,2.0513,31.2822,97.9487,-15.3848,-5.6411,
-1.0256,-46.1541,-8.2053,1.0256,-13.3333,38.9744,9.2307,-29.2307,18.4617,2.051,26.1536,88.2048,-17.949,-10.7693,
-0.76929,-50.0002,-3.8464,0.76929,-7.4363,38.7175,15.1282,-26.9231,22.8206,12.051,28.9744,92.051,-4.8718,-7.4363,
-6.9229,-46.4102,-6.9229,1.7949,-6.9229,37.6924,13.0771,-30,25.3848,10.5127,28.4614,99.231,-6.9229,-1.7949,
-1.5383,-36.4104,-11.7947,1.0256,-17.4358,36.9231,9.2307,-28.718,22.0515,6.1541,23.5896,96.4104,-11.282,-1.0256,
-3.0769,-39.4873,-10.2566,2.5642,-18.9744,41.0256,12.8206,-23.5901,25.1282,11.282,32.3074,95.3845,-6.1541,-2.5642,
-3.8462,-43.8464,-10,3.8462,-14.6157,37.6924,11.0254,-29.4873,27.9487,7.9487,34.6152,92.564,-12.0513,-10.5132,
0.51294,-43.5896,-7.1794,11.282,-10.7693,41.0256,7.6921,-35.3845,28.718,-0.51294,27.1794,91.7947,-15.8977,-10.2566,
-0.76953,-33.0771,-3.3335,22.3076,-4.3594,49.4868,16.6665,-26.9233,28.4614,0.25635,29.4868,95.6406,-6.9233,-0.25635,
-2.0513,-31.7949,-4.1025,12.8208,-6.1538,42.0513,15.8975,-28.7178,17.9487,2.0513,30.2563,91.2822,-10.2563,-4.1025,
-3.0767,-45.1282,-2.0513,2.0513,-3.0767,43.0771,13.8462,-31.7949,15.3848,8.2051,32.8208,95.8975,-12.8203,-10.2563,
-3.8462,-47.436,-9.4873,-0.76904,0.76904,40.2563,11.5386,-27.9487,15.6411,7.9487,28.4614,95.1279,-10,-8.9746,
-3.8464,-44.8718,-13.5896,-2.8206,4.8718,27.4358,11.0256,-29.4871,16.1536,2.8206,23.8459,83.3333,-11.5383,-7.949,
-3.0769,-41.5383,-8.2048,-2.5642,10.7693,24.6155,13.3333,-32.3074,19.4871,2.5642,27.1794,79.4871,-13.3333,-10.2561,
0.25635,-40.2563,-7.436,-1.2817,7.9487,25.3848,9.4873,-33.5898,16.1538,-0.25635,27.436,77.1797,-14.6152,-13.5898,
-3.0767,-47.1794,-4.1025,-1.5386,12.3076,34.8721,13.8462,-29.7437,17.436,1.5386,31.2822,80.5132,-11.7949,-7.6924,
-5.1282,-46.1541,-5.1282,-7.1794,17.9485,32.3074,15.3845,-29.7439,16.9231,5.1282,31.7947,83.0769,-14.3591,-5.1282,
-6.4104,-47.9487,-11.5383,-6.4104,13.5896,22.3079,9.9998,-33.5896,10.5129,6.4104,27.4358,80.2566,-13.0769,-8.9744,
-13.5898,-51.0259,-12.5645,-5.8975,11.5381,26.9229,10,-32.0513,10,5.8975,26.4102,84.3589,-7.9487,-12.5645,
-7.1794,-42.0513,-7.1794,-9.2307,16.9231,31.7952,16.4104,-29.7434,15.3845,7.1794,30.2566,91.282,-8.2048,-11.7947,
-5.8975,-46.9229,-5.8975,-8.9741,16.1538,31.0259,14.6157,-35.6406,15.1284,5.8975,30,89.4873,-9.4868,-9.4868,
-7.6921,-45.6409,-3.5896,-3.0769,13.8464,41.0256,10.2566,-30.2561,11.282,3.0769,32.3079,88.718,-8.2048,-7.1794,
-8.2051,-41.0259,-7.1797,-0.51269,12.3076,42.564,4.1025,-30.2563,6.6665,0.5127,26.6665,85.1279,-13.3335,-14.3589,
-12.8208,-42.564,-15.8975,3.5898,11.2822,40.5127,1.5386,-35.8975,5.1279,-1.5386,20.5127,86.1538,-21.0259,-13.8462,
-8.4614,-38.7178,-14.1025,0.25635,19.231,45.3848,9.4873,-31.0254,6.9229,-0.25635,25.3848,96.6665,-21.2822,-10,
-7.1797,-39.4873,-4.6152,-5.6411,27.6924,48.7178,20,-27.1797,12.3076,4.6152,34.8716,102.0513,-8.2051,-13.3335,
-5.3843,-33.5894,-4.8716,-5.8975,20.2568,49.4873,18.7183,-30,12.5645,3.8462,32.0513,94.1025,-3.8462,-13.5894,
-0.51294,-36.4104,-10.7693,-6.6667,14.8718,53.3333,14.8718,-30.2566,8.718,0.51294,27.6921,90.7693,-9.2307,-8.718,
-14.3591,-46.1536,-13.3333,-3.5896,15.8977,57.4358,13.3333,-32.8206,8.2053,3.5896,31.7952,101.0256,-11.7947,-10.2566,
-18.7178,-40.769,-12.564,-0.25635,12.564,62.3076,8.4614,-40.2563,3.3335,0.25635,26.9233,101.2822,-16.1538,-21.2822,
-13.8462,-43.0771,-10.2563,3.5898,3.0767,63.5898,2.0513,-39.4873,5.1284,-2.0513,26.1538,97.9487,-24.1025,-17.9487,
-7.6921,-35.8972,-3.5896,16.4104,-4.1028,61.5383,1.0256,-26.1541,18.9744,12.9487,36.9231,109.7434,-21.0256,-2.9487,
-6.667,-32.3081,-5.1284,15.8975,0,64.6152,0,-28.2056,17.4355,11.7944,36.4102,110.769,-17.436,-8.7183,
-18.2053,-47.3081,-14.1023,1.7947,15,67.949,2.8206,-36.1536,5.3845,-1.7947,27.4358,100.7693,-19.7434,-18.718,
-11.0256,-41.282,-8.4617,-2.8206,30,65.8972,13.5896,-25.3845,4.8718,2.8206,30.5129,101.7947,-12.0515,-4.8718,
-8.4614,-35.6411,-2.8208,-2.3076,28.4614,60.2563,19.2305,-25.8975,4.8716,1.2822,38.7178,101.2822,-5.3848,-1.2822,
-8.4617,-32.5642,-4.3591,1.282,27.4358,65.3845,26.9231,-28.4617,9.9998,-1.282,44.3586,101.7947,-4.3591,-3.3337,
-2.3074,-34.1023,-6.9231,-1.282,25.8977,68.9744,24.3591,-25.8972,15.6409,1.282,46.9231,100.7693,-3.3333,-1.7947,
-8.4614,-37.6919,-6.9229,-2.3076,19.231,71.0259,14.6157,-26.9229,19.231,1.7949,48.4619,99.7437,-3.333,-1.7949,
-7.1792,-29.7437,-8.7178,0,17.436,69.231,13.8462,-28.7178,15.3848,0,43.5898,96.4102,-11.2817,-9.7437,
-4.1025,-34.8716,-7.1797,-1.5386,15.3848,73.8462,14.3589,-33.3335,9.7437,1.5386,36.4102,95.8975,-14.3589,-10.769,
-14.6155,-41.282,-11.0256,-2.3079,8.9744,88.8462,4.8718,-36.1541,11.5383,2.3079,35.6409,102.3079,-16.6667,-8.4617,
-17.436,-40.5127,-15.8975,-0.5127,7.1797,94.8716,0.5127,-31.2822,17.436,1.5386,39.4873,107.6924,-22.0513,-13.3335,
-23.333,-47.4355,-12.0513,1.7949,12.0513,98.2051,2.8208,-34.6152,16.667,-1.7949,33.5898,114.1025,-23.333,-18.7178,
-24.6155,-44.6155,-8.2053,5.6409,13.3333,107.1794,3.0769,-37.949,16.4099,-3.0769,32.3074,120.5129,-22.5642,-17.4358,
-21.0256,-47.6921,-14.8718,1.0256,4.1028,100.5129,2.5642,-35.3845,13.3333,-1.0256,35.3845,116.4104,-23.0769,-16.9231,
-20,-45.1279,-22.0513,-3.5898,5.6411,88.7178,3.5898,-29.231,4.1025,3.5898,34.8721,108.2051,-18.4614,-11.2822,
-11.5383,-31.5383,-17.6921,-1.282,16.6667,90.0002,7.949,-24.8718,1.282,8.4617,40.2566,109.4871,-8.9744,-2.3079,
-13.5898,-42.3079,-16.1538,-6.4102,16.1538,95.1279,10.5127,-28.4614,5.3848,8.4614,48.4614,110,-9.4873,-5.3848,
-7.949,-41.7952,-13.5901,-9.4875,17.1794,93.5896,12.051,-25.8977,6.9231,8.4612,49.9998,101.282,-9.4875,-6.9231,
-6.4104,-33.0769,-7.4358,-2.3079,18.2053,87.4358,10.5129,-27.9485,2.3079,7.4358,44.8718,98.2053,-12.051,-10.5129,
-19.231,-36.667,-9.4873,2.3076,9.4868,91.5381,4.3589,-28.9746,-2.3076,4.3589,37.1792,106.4102,-17.1797,-18.7183,
-12.5642,-37.6921,-9.4871,0.76929,10.0002,103.3333,9.4871,-23.8459,-0.76929,8.9744,35.6409,115.1282,-12.5642,-12.051,
-10,-39.7437,-5.8975,-3.8462,19.7437,103.3335,16.6665,-23.8462,3.3335,11.5386,43.3335,117.6924,-10.5127,-3.3335,
-9.7437,-31.7949,-6.667,-6.1538,17.4355,95.3843,11.7949,-22.0513,5.6411,10.769,52.3076,114.8716,-12.8208,-5.6411,
-5.8975,-31.5386,-8.4614,-5.3848,10.5127,90,5.8975,-22.8203,5.3848,10.5127,48.9746,112.564,-12.0513,-9.4873,
-14.3591,-44.1025,-9.2307,-9.7434,9.7434,81.5383,10.2566,-26.1541,9.2307,9.2307,46.6667,114.8718,-12.3079,-10.2566,
-11.5386,-37.6924,-9.4873,-12.0513,8.4614,76.6665,11.5386,-21.7949,14.1025,13.0771,51.0259,117.6924,-12.0513,-8.4614,
-9.7434,-31.7947,-7.1794,-2.5642,4.1023,88.718,2.5642,-19.4871,7.1794,14.8718,44.1023,114.8718,-14.8718,-8.2053,
-10.7693,-29.7434,-3.5896,5.1282,3.0769,100.5129,2.0515,-23.0769,-2.0515,10.2566,34.3591,113.3333,-19.4871,-9.2307,
-10.2566,-33.3333,-3.5896,3.5896,4.6155,96.9231,8.2048,-26.1541,-5.6409,5.6409,41.5383,113.8459,-19.4871,-9.2307,
-16.6663,-32.051,-5.8972,6.4104,4.8718,96.6667,8.9744,-21.282,-6.4099,7.949,53.5901,113.5901,-16.1536,-4.8718,
-12.3079,-23.5896,-5.6409,4.6155,10.7693,101.0256,8.2053,-17.949,-5.1282,11.282,46.1541,111.7947,-15.8972,-4.6155,
-9.4873,-29.4873,-4.3589,0.25635,17.1792,93.5898,12.0513,-21.2822,-0.25635,14.1025,38.2051,115.6411,-14.6152,-8.4614,
-12.0515,-30.5129,-4.8718,2.3079,11.5383,81.7947,11.5383,-22.3079,-2.3079,13.0769,46.4104,115.6409,-16.1541,-8.9744,
-10.5127,-22.8203,-4.3589,4.3589,5.8975,87.9487,11.5386,-20.769,-10,6.4102,50,109.4873,-18.2051,-8.4614,
-17.436,-23.5898,-5.1284,6.6665,7.6924,100.5127,9.231,-23.5898,-9.7437,5.1284,39.4873,110.769,-22.564,-10.769,
-15.6411,-20.2563,-5.3848,7.436,12.0513,94.1025,5.3848,-21.2817,-6.4102,8.4614,33.0771,112.0513,-23.3335,-11.5386,
-12.8203,-25.6411,-3.0771,3.0771,17.9487,86.1538,12.3076,-18.4614,-11.7949,12.3076,37.9487,110.769,-14.8716,-8.7178,
-14.6155,-26.9231,-3.3333,3.3333,19.7434,96.1536,18.718,-19.7439,-18.718,14.6155,37.6921,112.5642,-14.1028,-7.4358,
-13.5898,-22.3076,-4.3589,10,4.7434,97.6924,8.4614,-21.2817,-16.1538,8.4614,35.6411,115.6411,-19.7437,-12.0513,
-15.8972,-24.1028,-4.1028,10.7693,4.1028,85.1282,4.6155,-18.4617,-11.282,6.6667,36.9231,112.3079,-17.4358,-8.2053,
-6.1541,-20.5129,-1.0256,1.0256,19.1028,77.4358,19.6155,-11.2825,-12.3079,11.7947,40.5125,105.1282,-11.2825,-1.0256,
-1.5386,-21.5386,0,-2.564,34.1028,75.8975,25.6411,-11.2822,0,13.8462,55.5125,104.1025,-3.5898,-1.5386,
-12.5642,-26.9231,-10.0002,-10.5129,19.2307,65.3845,11.5383,-19.2307,7.4358,11.5383,59.2307,99.2307,-7.4358,-7.949,
-3.3333,-21.7952,-6.9231,-14.1028,17.6921,60.2561,14.1023,-14.1028,3.3333,16.1536,56.6667,97.1794,-8.4617,-3.8464,
-2.5642,-24.1028,-2.5642,-7.1794,29.2307,61.5383,19.9998,-12.3079,-1.0256,15.3845,56.4104,95.3845,-7.6926,1.0256,
-7.436,-19.231,-4.3589,1.2822,30.5127,66.4102,15.1284,-15.6411,-1.2822,13.0771,52.564,96.6665,-12.564,-4.8716,
-8.4617,-21.7947,-5.8972,0.76929,26.9231,72.5642,13.5896,-17.1794,-0.76929,13.5896,44.3591,102.8206,-16.1541,-8.9744,
-5.1282,-21.5383,-4.6155,0.51294,26.1541,67.1794,20.0002,-11.282,-0.51294,14.3591,43.0769,106.6667,-12.8206,-3.5896,
1.2822,-13.0771,-1.2822,-1.2822,27.436,54.1025,17.6924,-12.0513,-3.8462,12.564,44.3589,99.231,-13.0771,-3.8462,
-7.4358,-18.2053,-1.282,1.282,24.8718,56.6667,13.5896,-16.1541,-1.7952,11.5383,41.7947,97.1794,-17.1794,-6.4104,
-16.9229,-23.5898,-13.8462,3.0771,12.3076,54.8716,6.6665,-20,-3.0771,5.1284,32.3076,100,-24.1025,-12.3076,
-14.8721,-24.1025,-18.9746,4.1025,13.333,47.6924,2.0513,-22.5645,-2.0513,11.7949,35.3843,106.6665,-20.5127,-13.3335,
-19.4871,-24.6155,-19.9998,-0.51294,13.8464,47.6926,0.51294,-24.6155,1.0256,14.8718,43.0769,114.3591,-20.5129,-11.282,
-12.0515,-20.7693,-18.718,-4.8718,13.5896,52.051,6.4104,-20.2566,4.8718,10.5129,43.8459,113.5896,-21.282,-8.9744,
-12.8203,-26.6665,-16.4102,-6.1538,13.3335,47.6924,7.6924,-19.4873,6.1538,9.7437,39.4873,103.5898,-17.436,-10.2563,
-18.2048,-25.3845,-15.6409,-4.3591,9.4871,37.1794,4.3591,-22.3079,4.3591,8.9744,38.2053,96.1541,-17.1794,-13.0769,
-13.3335,-23.5898,-9.231,-3.5898,8.2051,33.3335,6.6665,-24.6152,4.1025,3.5898,42.0513,94.8716,-20.5127,-10.2563,
-14.1023,-25.3845,-5.8972,-4.3591,12.0515,36.6667,7.4358,-22.8206,6.4104,4.3591,42.8206,98.2053,-22.8206,-8.9744,
-14.6155,-20.7693,-11.5383,-3.3333,15.6409,42.3079,3.3333,-18.718,9.9998,10.5129,41.282,104.8718,-23.3333,-13.0769,
-18.4614,-26.1538,-16.9233,-4.1025,17.436,44.6152,4.1025,-22.564,14.3589,8.7178,44.6152,106.6665,-23.5898,-14.3589,
-13.5901,-23.8464,-15.6414,-6.9231,21.282,38.2048,8.4612,-19.7439,13.0769,6.9231,47.4358,102.3074,-21.2825,-10.0002,
-12.3079,-23.5896,-14.3591,-6.1541,22.051,29.2307,6.6667,-17.949,6.1541,6.6667,40.5129,97.9485,-17.949,-11.282,
-26.6665,-29.2305,-20.5127,0,25.1284,33.8462,0,-24.1025,0,4.1025,30.7695,95.3848,-23.0767,-17.4355,
-18.2051,-22.8208,-20.2563,1.2822,37.1792,40.2563,0.25635,-22.8208,-0.25635,4.3589,36.6665,94.6152,-23.3335,-15.1284,
-12.051,-25.8972,-11.5383,-3.3333,39.2307,33.0769,10.5129,-21.282,3.3333,4.8718,42.8206,96.6667,-17.6921,-9.4871,
-20,-25.1279,-6.6665,0,33.8462,34.3589,13.8462,-23.0767,2.5645,0,34.3589,92.8208,-20,-15.8975,
-16.6665,-20.2563,-7.9487,6.4102,42.8208,49.3589,9.4873,-27.4355,2.3076,-2.3076,30.5132,86.9233,-24.3589,-25.3843,
-14.3591,-23.5896,-15.8977,1.5383,53.8459,54.8718,5.1282,-28.718,3.0769,-1.5383,31.7947,83.0769,-29.7434,-24.6155,
-9.2307,-13.8464,-11.282,1.5383,63.0769,63.0769,12.3074,-20.5129,0.51294,-0.51294,31.7947,78.9744,-29.7439,-18.4617,
-8.2053,-1.0256,-1.0256,15.8972,78.0769,78.0769,25.1282,-17.949,-2.0515,1.0256,30.2561,76.4104,-24.6155,-19.4871,
-6.6667,3.5896,-5.1282,16.9231,82.5642,86.1541,21.0256,-25.1282,-9.7434,-3.5896,20.0002,72.3079,-30.2566,-25.1282,
3.5898,-3.5898,-4.6152,8.7178,72.8208,71.1541,17.436,-27.1792,-6.1538,-5.1279,15.3848,65.1284,-35.3848,-26.1538,
-9.2305,-15.8975,-1.5386,9.231,71.7949,78.9746,18.9746,-31.7949,1.5386,-6.6665,14.3589,66.1538,-33.8462,-34.3589,
-9.4873,-2.3076,2.3076,17.6924,84.3589,93.5898,22.3076,-28.4614,-4.3589,-4.8721,15.6411,77.1792,-31.0259,-32.564,
-3.0769,-0.51294,0.51294,20.5129,80.5129,91.282,22.0515,-24.1023,-9.2307,-5.6409,18.4617,80.5129,-37.9485,-26.6667,
-12.3079,-7.1794,-4.6155,25.1282,69.2307,89.2307,18.9744,-29.2307,4.6155,-8.718,22.5642,81.0256,-42.5642,-34.3591,
-14.3589,-6.6665,-4.1025,25.6411,67.1797,80,17.436,-33.333,4.1025,-6.1538,18.4619,82.0513,-38.4614,-39.4868,
-11.5386,-8.4614,2.8203,22.8203,63.8462,68.9746,17.6924,-26.9229,-10.8975,-2.8203,15.1284,74.6152,-34.6152,-28.4614,
-7.9487,-4.8716,4.8716,25.3848,56.6665,66.9229,20.2563,-22.3076,-10,-5.8975,20.2563,67.436,-33.0771,-24.8716,
-11.5383,-6.4104,-2.8206,24.3591,53.5896,56.1536,18.2048,-31.0256,2.8206,-7.4358,21.282,69.9998,-32.0515,-33.0769,
-16.1541,-8.9744,-5.8977,19.7434,50.5125,46.4099,11.5383,-36.6667,2.8206,-2.8206,16.6663,73.0769,-34.6155,-35.1282,
-12.564,-6.9229,1.7949,16.667,46.9233,54.6157,13.0771,-32.0513,-2.3076,-1.7949,14.1025,74.6157,-36.1538,-31.0254,
-17.9487,-11.2822,0,16.9229,42.0513,51.7949,12.8203,-30.2563,0,-7.6924,13.333,76.4102,-38.9746,-29.231,
-14.3591,-8.2048,-6.6667,19.4871,38.9744,36.7949,11.7952,-27.6921,2.5642,-2.5642,15.8977,77.949,-39.9998,-26.6667,
-9.9998,-11.5383,-0.76929,17.1794,46.4104,36.6667,17.6926,-27.4358,-5.8972,0.76929,18.718,74.1028,-33.0769,-24.3586,
-11.0259,-7.9487,4.3589,14.6152,54.1025,47.436,21.7949,-20.769,-6.9229,-4.3589,23.8462,74.1025,-26.9229,-19.7437,
-8.9741,-5.3848,-2.3076,7.9487,43.8462,37.1797,16.1538,-18.2051,2.3076,-4.8716,23.8462,75.1284,-26.9229,-22.8203,
-20.2563,-18.7183,-6.9233,1.7949,28.8462,22.1797,10,-30.5127,4.3589,-1.7949,17.1792,72.564,-31.5386,-31.5386,
-18.9744,-8.718,-4.1023,5.1282,27.6926,22.0515,11.282,-28.718,2.5642,-2.5642,18.9744,69.7439,-31.7947,-26.1536,
-13.0769,-5.3845,-4.8718,7.4358,32.5642,20.2566,15.6409,-24.3591,4.8718,-8.4617,24.3591,66.4104,-31.5383,-23.8459,
-21.282,-13.5901,-4.8718,5.3845,29.4871,19.2307,16.1536,-29.4871,4.8718,-10.0002,21.282,73.0769,-31.5383,-30.5129,
-13.3333,-5.1282,-3.0769,5.1282,32.8206,22.5642,14.8718,-28.2048,3.0769,-6.6663,22.5642,83.5901,-27.1794,-23.5896,
-10,-6.4102,-6.4102,5.8975,34.6152,23.8462,19.2305,-22.8208,6.4102,-5.8975,34.6152,84.8716,-24.8721,-15.1284,
-14.8716,-7.1792,-10.2563,4.1025,31.7949,21.5386,23.5898,-18.4614,11.7949,-4.1025,38.9746,85.1284,-21.5381,-16.4102,
-15.3845,-8.2048,-12.3079,1.5383,31.7952,16.4104,13.8464,-19.9998,9.2307,-1.5383,28.718,87.1794,-19.9998,-17.9485,
-19.7437,-14.6152,-13.0771,-0.25635,31.0259,13.5898,3.8462,-24.3589,4.8716,0.25635,26.4102,84.3589,-22.8203,-17.1797,
-15.3845,-8.718,-10.2566,-1.5383,28.718,7.6921,11.7947,-21.0256,14.8718,1.5383,41.4102,81.5383,-18.4617,-17.9485,
-12.3079,-4.1028,-5.6409,1.5383,25.1282,-1.5383,13.3333,-16.9231,26.6667,5.6409,51.282,87.1794,-11.282,-14.8718,
-12.8206,-1.0256,-4.6155,8.718,20.0002,-10.7693,1.0256,-21.0256,18.4617,6.1541,36.282,82.5642,-22.051,-13.8459,
-16.1538,-3.3335,-1.7949,14.1025,18.2051,-16.667,1.7949,-25.3848,9.4868,4.3589,21.7949,72.0513,-31.5386,-21.2822,
-23.333,-6.9229,-5.8975,8.9746,25.8975,-17.6919,14.6157,-22.8203,12.5645,5.8975,26.4106,74.1025,-23.8457,-22.8203,
-13.8462,0.5127,-10.2563,-0.51269,35.3848,-8.2051,20,-15.3843,13.8462,11.2822,36.9233,81.5386,-11.7949,-10.2563,
-13.5896,-1.282,-8.9744,-0.25659,35.1282,0.25659,18.2053,-15.1282,19.2307,9.4871,46.4104,84.3591,-5.3845,-5.8972,
-21.282,-3.3333,-12.5642,3.3333,27.9485,-7.949,12.5642,-17.1794,23.3333,4.3591,43.8459,88.4617,-8.9744,-12.5642,
-15.3845,-1.5383,-13.8459,1.5383,22.0515,-10.7693,10.2566,-16.4104,18.9744,10.2566,35.8972,94.8718,-12.3079,-11.7947,
-17.9487,-2.5645,-9.7437,2.0513,20.5127,-2.0513,9.7437,-20,22.564,13.333,38.4614,97.4355,-16.4102,-9.7437,
-26.4104,-0.25659,-11.5383,2.3079,17.1794,-4.8718,3.8459,-27.9485,21.7947,0.25659,34.6155,82.4355,-26.4104,-23.3333,
-23.3333,0.76929,-7.4358,5.3845,21.282,-9.4871,8.4617,-25.8977,15.6409,-0.76929,30.5129,67.4355,-20.2566,-22.8206,
-19.4871,1.0256,-6.6667,-1.0256,26.1536,-12.3079,15.3845,-21.0256,14.3586,6.6667,32.3074,64.1023,-18.9744,-14.8718,
-20.2561,2.8206,-6.4099,-2.8206,31.0256,-9.9998,15.1282,-24.3586,23.3333,3.8464,39.7439,79.1023,-23.3333,-18.718,
-32.0513,-0.25635,-8.9741,7.436,31.0259,-0.76904,8.4614,-29.4873,22.8208,0.25635,42.3076,93.0771,-21.2822,-19.7437,
-33.8462,1.0254,-16.4102,6.1538,17.9487,-1.5386,0.5127,-31.7949,12.3076,-0.5127,34.8716,86.1538,-26.667,-17.436,
-25.6411,-0.5127,-12.3076,1.5386,16.4102,-5.6411,0.5127,-29.231,16.4102,2.0513,35.8975,86.6665,-26.6665,-16.9233,
-24.6155,2.5642,-8.2053,1.0256,25.1282,-5.1282,-1.0256,-22.051,23.0769,3.5896,40.0002,87.1794,-17.9485,-16.9231,
-21.282,9.9998,-9.4871,1.7947,28.4617,-5.8977,-1.7947,-18.718,26.9231,3.3333,42.8206,78.718,-12.5642,-14.6155,
-25.6409,6.6667,-4.6155,7.6921,28.718,-5.1282,-7.1794,-23.5896,32.3079,4.6155,43.0769,82.051,-17.4358,-16.4104,
-27.6924,7.6924,-4.1025,11.2822,32.3076,-8.2051,-14.8716,-26.1538,27.6924,4.1025,37.9487,85.1284,-25.1279,-22.564,
-24.8718,7.9485,-8.9744,9.9998,37.1794,-12.0515,-2.8206,-24.3591,23.8459,2.8206,37.6921,75.1282,-21.7952,-22.3079,
-30.7693,3.5896,-15.8977,4.6155,32.3079,-17.4358,6.1536,-28.2053,18.9744,-3.5896,34.8718,69.2307,-18.4617,-22.5642,
-24.3589,6.9229,-10,1.7949,35.6411,-21.2822,-1.2822,-26.4102,19.7437,1.2822,36.1538,77.6924,-17.1797,-20.769,
-25.3848,6.4102,-7.9487,0.25635,46.9229,-17.6924,-0.25635,-22.3076,26.9229,5.3843,42.3076,81.2817,-19.7437,-15.6411,
-26.6667,12.8201,-14.3591,-1.0256,49.7434,-13.8464,13.3333,-21.0256,26.6663,1.0256,44.1023,72.8201,-20.0002,-16.9231,
-25.1282,10.2561,-11.282,-3.5896,45.1282,-23.0769,13.8459,-23.0769,23.0769,3.5896,43.0769,68.2048,-11.282,-21.0256,
-33.3333,5.6409,-13.3333,-5.6409,39.9998,-33.3333,7.1794,-24.6155,27.6921,6.6667,43.0769,70.2561,-14.3591,-22.0515,
-32.0513,13.5898,-15.6411,-0.25635,46.4102,-24.8716,13.0771,-25.3843,27.436,0.25635,39.7437,67.436,-25.3843,-23.333,
-36.1536,7.4363,-10.5125,3.3333,45.8977,-29.4871,8.4617,-33.0769,16.6667,-3.3333,32.5642,63.3333,-29.9998,-28.4612,
-38.9746,6.6665,-6.1538,4.1025,34.3589,-44.4871,0,-35.8975,13.3335,0,28.7178,67.6924,-31.2822,-31.7949,
-36.1538,8.9746,-13.5894,3.8462,37.6924,-29.4871,8.9746,-34.1025,15.6411,-3.8462,29.4873,72.5645,-33.5894,-30.5127,
-44.3589,3.8462,-27.9487,-2.3076,41.7949,-14.4871,12.0513,-33.5898,8.9741,-8.4614,24.3589,68.9741,-38.7178,-32.0513,
-45.8972,6.4104,-31.5383,-2.8206,31.0256,0.51294,2.8206,-33.0769,5.8977,-10.5129,18.718,72.0515,-40.7693,-33.5896,
-54.3589,0,-30.769,0,23.5898,1.5386,0,-39.4873,6.6665,-16.4102,20.5127,78.9741,-40.5127,-35.3848,
-52.5645,1.7949,-26.9233,-1.7949,34.1025,8.9741,8.9741,-36.667,5.8975,-11.5386,25.8975,74.6152,-36.667,-35.1284,
-42.8206,7.949,-21.7947,-2.8206,40.2566,8.9744,17.1794,-32.051,2.8206,-5.3845,22.3079,70.5129,-33.0769,-29.4871,
-48.4619,6.9229,-25.3848,-0.25635,32.564,1.7949,13.0767,-32.0513,0.25635,-12.5645,10.5127,76.1538,-39.231,-27.9487,
-41.5386,12.8203,-25.1284,0,34.8716,7.6924,9.7437,-27.6924,0,-13.8462,11.7949,78.9741,-39.4873,-24.6157,
-36.6667,13.5896,-20.2566,-1.282,41.7947,12.051,24.7437,-24.8718,1.282,-3.3333,25.3845,75.6409,-32.0515,-23.3333,
-44.6157,14.8716,-24.6157,-1.5386,37.9487,1.5386,35.3843,-27.6924,5.1279,-2.5645,27.1792,74.8716,-34.8721,-26.667,
-41.5386,18.4614,-24.1025,0.5127,37.9487,-0.5127,30.769,-27.1797,19.4873,-1.5386,28.7178,82.564,-35.3848,-23.0771,
-49.2307,9.7439,-28.2048,-4.6155,32.8206,4.6155,20.0002,-31.7947,9.2307,-10.2561,25.1282,71.7952,-39.9998,-27.6921,
-44.8718,16.6667,-26.9231,0.76929,34.6155,7.4358,26.4104,-31.0256,-0.76929,-14.6155,21.7947,62.8206,-37.1794,-27.949,
-48.4617,14.1028,-27.9485,5.3845,39.2307,-0.76929,20.2566,-38.718,0.76929,-17.6921,13.0769,63.3333,-42.3079,-37.1794,
-52.3079,13.3333,-24.6155,7.1794,46.1536,-2.5642,11.7947,-38.4617,2.5642,-14.3591,10.7693,67.6921,-47.6921,-40.0002,
-44.1023,16.4104,-21.0256,6.6667,56.4104,-5.6409,24.6155,-30.2566,5.6409,-9.7434,22.5642,68.2053,-41.5383,-32.3079,
-46.4104,11.5383,-28.9744,6.9231,61.7952,-6.9231,38.2053,-32.5642,8.9744,-9.9998,25.3845,63.3333,-37.1794,-29.4871,
-40.5125,18.4617,-31.282,4.6155,63.0769,-2.5642,43.5901,-31.282,2.5642,-4.1023,15.3845,58.4617,-33.8459,-27.6921,
-36.6665,18.2051,-25.3848,0.76904,69.4873,-4.8716,45.3848,-23.8462,-0.25635,0.25635,18.7178,60.2563,-30,-20.769,
-39.4871,18.9744,-27.1794,3.0769,84.4873,-8.718,47.1794,-19.9998,8.2053,-3.0769,31.282,68.2053,-25.6409,-17.9485,
-33.5898,24.3589,-26.4102,6.4102,90.5132,-6.4102,47.9487,-20.2563,10,-6.9229,31.0259,60.7695,-22.3076,-25.8975,
-39.4871,18.4617,-22.0515,5.1282,79.9998,-1.0256,45.6409,-21.0256,1.0256,-8.2053,20.5129,46.1536,-25.1282,-28.718,
-39.7439,22.3074,-22.8206,3.3333,77.1794,-1.282,45.3845,-20.2566,1.282,-7.949,15.6409,46.9231,-29.4871,-22.8206,
-38.718,19.2307,-22.8206,4.8718,85.8972,-6.4104,48.9744,-24.8718,13.5896,-4.8718,21.7947,59.7434,-31.5388,-22.8206,
-46.1536,13.3333,-26.6667,2.5642,85.6414,-13.8459,45.1282,-29.2307,14.8718,-2.5642,24.1028,64.6155,-36.4099,-30.7693,
-40.5127,21.5386,-27.6924,-1.5386,80.5127,-13.333,47.1797,-21.0254,3.0771,1.5386,20.5127,60,-31.2817,-25.6411,
-39.2307,22.8206,-21.7947,-0.25659,80.7693,-12.5642,59.7434,-15.6409,0.25659,1.282,15.1282,54.1028,-24.8718,-16.1541,
-37.6924,25.3848,-14.6152,5.8975,85.8975,-11.5386,70,-17.6924,7.9487,-5.8975,18.2051,53.0771,-28.4614,-21.7949,
-39.231,22.8203,-11.5386,11.5386,75.6411,-11.0259,61.7949,-26.4102,10,-10,20.769,55.1279,-28.9746,-30,
-46.1538,20.5127,-18.9741,11.2822,60.6411,-16.4102,46.7949,-29.231,5.6411,-5.6411,12.8203,48.7178,-30.769,-23.5898,
-40.5129,27.1794,-21.5388,10.7693,61.5383,-16.4104,42.051,-24.1028,4.6155,-4.6155,10.2561,43.5896,-37.949,-20.5129,
-44.3591,21.282,-20.2566,7.4358,70.5129,-7.4358,50.5129,-29.4871,7.4358,-9.4871,13.5896,49.4871,-43.8464,-27.949,
-49.7437,21.0254,-21.5386,6.6665,57.9487,-6.1538,50.2563,-33.8462,6.1538,-11.2822,13.3335,53.8462,-44.6152,-30.2563,
-42.564,23.5898,-15.8975,10.2563,58.4614,-8.7178,52.8203,-27.6924,7.6924,-7.6924,11.2822,56.4102,-40,-28.2051,
-38.2053,26.4104,-10.5129,7.4358,73.4614,-11.5383,56.1536,-23.3333,12.051,-7.4358,13.5896,54.1023,-38.718,-27.949,
-30,34.1025,-12.0513,3.8462,69.4873,-18.7178,59.231,-18.7178,10.5132,-3.8462,19.231,41.7949,-34.1025,-21.2817,
-34.1025,26.4102,-17.1797,1.2822,59.7437,-26.9229,58.7178,-13.5898,3.3335,-1.2822,18.7178,27.9487,-28.9741,-20.769,
-31.0254,31.0259,-11.5386,2.3076,70,-21.7949,61.2822,-10,5.8975,-2.3076,21.7949,32.5645,-22.8203,-21.7949,
-25.6414,37.4358,-13.3337,1.0256,63.5896,-24.6155,63.5896,-14.8718,10.7688,-1.0256,25.6409,36.4099,-17.949,-16.4104,
-33.0769,32.5642,-28.3337,-2.3079,48.5896,-35.6409,60.2566,-15.1282,9.9998,2.3079,23.3333,35.1282,-19.2307,-14.1028,
-25.8972,35.1282,-30.0002,0.25659,63.5896,-30.5129,61.7947,-6.4104,7.4358,-0.25659,21.7947,37.6921,-23.8459,-19.7434,
-24.8721,35.6411,-19.7437,3.8462,78.5896,-19.231,71.0254,-7.9487,4.8716,-3.8462,23.8462,34.6152,-22.3076,-20.7695,
-28.4617,39.2307,-15.6409,2.8206,75.6409,-31.0256,72.5642,-14.1028,6.9231,-2.8206,22.3079,28.4617,-23.8459,-17.1794,
-20.7693,40.7693,-12.5642,4.8718,72.051,-42.8206,68.4617,-16.6667,11.5383,-4.8718,17.6921,25.3845,-27.4358,-20.7693,
-21.0254,39.4873,-10.2563,11.2822,74.8721,-34.3589,70.769,-14.3589,7.1797,-7.1797,14.3589,19.4873,-22.564,-21.5386,
-15.6409,44.8718,-8.9744,5.8977,76.1541,-39.2307,70.0002,-10.5129,0.76929,-0.76929,15.6409,14.6155,-18.2048,-16.1536,
-12.8203,37.436,-6.6665,-0.5127,77.9487,-52.3076,69.231,-10.769,10.769,0.5127,23.0771,26.1538,-20.5127,-14.8716,
-21.5386,31.2817,-17.436,3.5898,68.7178,-47.1797,70.2563,-15.3848,14.3589,-3.5898,18.4614,31.2817,-27.6924,-20.5127,
-29.2307,28.2053,-30.7693,2.5642,58.4617,-48.2048,59.4871,-23.5896,3.0769,-2.5642,9.2307,22.5642,-30.2561,-24.6155,
-32.564,28.4614,-25.8975,1.2822,59.7437,-53.0767,49.4873,-22.3076,2.3076,-1.2822,11.0259,27.436,-29.4873,-22.8203,
-27.6921,37.4358,-16.4104,9.2307,56.4104,-43.5896,48.2053,-14.8718,4.6155,-4.6155,8.2053,35.8977,-35.8972,-25.1282,
-24.6155,35.3845,-14.3591,17.4358,56.9231,-31.282,58.9744,-13.8459,2.5642,-2.5642,3.0769,36.4104,-36.4104,-23.5896,
-21.7947,36.6667,-15.6409,14.1028,60.7693,-36.6667,65.3845,-15.1282,5.3845,-3.3333,3.3333,31.5388,-31.5383,-18.718,
-19.7437,38.2051,-13.5898,7.9487,59.7437,-44.3589,56.6665,-18.7178,7.9487,-7.9487,8.4614,24.3589,-30.5127,-23.3335,
-30,29.4873,-17.6924,6.4102,58.2051,-41.7949,50.5127,-19.231,5.8975,-5.8975,11.5386,23.8462,-31.5386,-28.9746,
-25.3848,33.5898,-24.8716,0.76904,61.2822,-46.4102,58.7178,-14.6152,8.4614,-0.76904,13.0771,26.9229,-25.8975,-24.8716,
-18.2053,33.0769,-24.3591,-3.3333,62.8206,-52.0515,64.3586,-14.1028,15.1282,3.3333,14.1023,30.5125,-18.718,-17.1794,
-23.8459,32.5642,-24.3591,-2.8206,58.2053,-51.0256,55.6409,-14.6155,12.5642,2.8206,14.1028,27.4358,-20.7693,-16.1536,
-21.0256,36.4104,-23.5896,3.0769,53.8459,-46.1538,50.7693,-11.7947,4.1028,-3.0769,13.8459,25.6409,-24.1023,-16.4104,
-22.564,32.3076,-20.5127,11.2822,53.3335,-37.436,54.8721,-13.3335,5.6411,-5.6411,10.769,38.9746,-24.1025,-14.8716,
-26.4102,32.0513,-24.3589,4.3589,55.6411,-37.1797,54.1025,-15.6411,10.5127,-4.3589,9.4873,46.9229,-21.7949,-18.2051,
-20.0002,38.9744,-23.0769,-4.6155,56.9231,-44.6155,55.3845,-7.1794,13.3333,4.6155,21.0256,40.5129,-13.8459,-12.8206,
-19.231,40.769,-23.8462,-3.8462,48.9746,-52.564,49.4873,-8.4614,7.9487,3.8462,20.769,31.5386,-14.6152,-10.5127,
-20,37.9487,-24.1025,4.1025,51.2822,-50.2563,44.6152,-15.8975,7.1797,-4.1025,12.8208,32.3076,-18.4614,-16.9229,
-25.3848,32.0513,-24.3589,2.3076,54.6152,-49.4871,42.3076,-13.5898,17.6924,-2.3076,15.6411,35.1284,-17.6924,-20.2563,
-22.564,37.436,-26.1538,-5.6411,48.7178,-50.7693,42.0513,-6.6665,20.5127,5.6411,20,37.436,-15.8975,-11.2822,
-26.4102,33.5898,-32.0513,-3.8462,41.7949,-44.3589,39.231,-15.1279,7.9487,3.8462,17.1797,42.8208,-19.7437,-12.0513,
-38.4617,29.2307,-34.3586,4.1028,36.9231,-38.4617,32.3079,-23.5896,2.5642,-2.5642,14.8718,46.6667,-28.718,-23.0769,
-32.5642,34.1028,-32.051,3.8459,27.949,-44.3591,31.5383,-19.7434,4.8718,-3.8459,7.949,38.718,-34.6155,-24.8718,
-29.7432,31.2822,-31.2817,0,30.7695,-43.0767,32.8208,-16.9229,0,0.51318,2.5645,31.7949,-30.769,-19.4868,
-24.6157,40.5127,-26.667,4.6152,45.6406,-37.436,34.3589,-12.8208,-4.1025,4.1025,11.7944,36.4102,-23.5898,-14.3594,
-16.6667,44.3591,-20.2561,9.4871,47.949,-41.282,40.7693,-11.5383,-1.282,1.282,19.7439,35.6409,-18.718,-13.0769,
-21.0256,41.0256,-18.9744,13.8459,45.1282,-38.4617,44.6155,-9.2307,-1.5383,1.5383,16.9231,32.3079,-17.4358,-11.282,
-14.6155,45.3845,-19.7439,11.5383,44.3591,-34.1028,41.7947,-4.3591,-8.9744,4.3591,16.1536,31.5383,-17.6921,-9.4871,
-10.5127,41.2822,-15.6411,3.8462,40.2563,-41.282,35.1284,-6.4102,-3.8462,3.8462,20.7695,34.6157,-14.6152,-10,
-16.4102,40,-16.4102,4.6152,36.9229,-45.6411,26.6665,-10.769,-2.0513,2.0513,15.8975,35.3848,-22.0513,-13.3335,
-17.4363,41.0256,-17.4363,10.7688,42.5637,-36.4104,33.8459,-9.7439,-3.0769,3.0769,11.282,33.3333,-26.6667,-14.3591,
-25.6411,34.8716,-22.0513,6.1538,38.9741,-33.3335,38.9741,-14.3589,0,0,8.7178,27.1792,-30.7695,-19.4873,
-19.4873,40,-19.4873,7.1792,35.8975,-31.7949,34.3589,-13.3335,0,0,11.2817,31.2817,-26.667,-18.4614,
-11.0259,42.3076,-11.0259,13.0767,47.436,-21.7949,39.7437,-5.3848,-7.436,5.3848,19.7437,38.2051,-14.1025,-7.436,
-12.051,41.282,-12.051,3.3333,50.5129,-22.8206,47.949,-3.3333,-11.5383,4.3591,18.2053,23.8464,-15.6409,-9.9998,
-5.3845,43.8459,-10.5129,0.76929,45.3845,-28.9744,42.3079,-0.76929,-4.3591,6.9231,14.6155,18.2053,-14.6155,-11.0256,
-12.3076,37.9487,-18.4619,4.1025,37.9487,-27.6924,27.6924,-4.1025,-6.667,5.1279,5.1279,21.5381,-17.9487,-9.231,
-14.1025,44.3589,-18.7183,5.8975,39.2305,-26.4102,33.5898,-4.8721,-3.3335,3.3335,8.9741,20.2563,-21.2822,-11.0259,
-22.3081,38.7178,-15.6411,2.8203,27.4355,-41.4102,33.5894,-12.0513,0.25635,-0.25635,11.0254,14.6152,-25.3848,-19.231,
-20.7693,36.1536,-18.2053,6.9231,18.718,-39.7434,23.8459,-11.0256,-2.8206,2.8206,2.8206,20.2566,-23.3333,-14.6155,
-13.0769,38.2053,-23.3333,5.3845,22.3079,-24.7434,23.8464,-7.4358,-2.3079,2.3079,2.8206,20.2566,-21.7947,-13.5896,
-23.0769,36.9231,-25.1282,2.5642,16.9231,-9.7434,26.1541,-9.7434,2.0515,-2.0515,14.3591,17.4358,-21.0256,-17.9485,
-24.6152,43.0771,-25.6411,4.6152,4.1025,-2.564,17.9487,-7.6924,0.5127,-0.5127,17.436,23.5898,-22.564,-15.8975,
-24.6152,34.3589,-27.1792,6.1538,3.0771,-2.564,9.231,-11.2822,-4.6152,2.564,9.7437,27.1797,-30.2563,-16.4102,
-28.718,30.7693,-26.6667,11.282,5.6409,-1.0256,7.1794,-12.8206,-5.6409,1.0256,6.6667,26.1541,-29.7434,-18.9744,
-21.0256,37.4358,-25.1282,10.7693,2.5642,0.51294,6.1536,-5.6414,-5.6414,-0.51294,12.8206,24.1023,-23.5896,-17.4358,
-20.5127,35.3848,-25.1279,5.1284,5.1284,-2.564,8.7183,-1.5386,-3.0767,1.5386,15.8975,21.0259,-20,-12.3076,
-20.7693,36.6667,-27.949,0.76929,11.5383,-16.6667,7.9485,-5.3845,-0.76929,1.282,6.9231,15.1282,-19.7434,-13.0769,
-18.7178,33.5898,-31.5386,-1.2822,15.1279,-18.2051,2.8203,-7.9487,1.2822,1.2822,3.3335,14.6152,-17.6924,-14.6152,
-22.3076,31.5386,-32.564,-1.2822,12.564,-11.5386,2.8203,-6.9233,1.2822,1.2822,13.0767,17.6924,-16.1538,-12.564,
-19.4873,34.3589,-24.6157,7.1792,10.769,-12.3076,6.6665,-7.6924,0,0,20.5127,14.3589,-17.436,-13.8462,
-21.7949,33.0767,-19.7437,13.0767,7.4355,-14.6157,5.3843,-10.5132,0.25635,-0.25635,11.0254,14.1025,-20.7695,-16.667,
-17.1797,40.2563,-21.2822,10.5127,4.8716,-11.5386,5.8975,-8.9746,1.2822,3.3335,-1.2822,25.3848,-20.769,-15.1284,
-17.9487,35.8975,-22.0513,8.2051,1.0259,-15.3848,10.2563,-13.8462,-0.51269,0.5127,1.5386,28.2051,-21.0254,-17.9487,
-22.0515,33.8459,-21.0256,10.7693,-2.0515,-22.0515,14.8718,-9.2307,6.6667,2.0515,14.8718,24.1028,-18.9744,-14.8718,
-15.3848,37.436,-22.564,0.5127,-8.2051,-26.6665,10.769,-0.5127,8.2051,6.1538,14.3589,17.9487,-11.7949,-9.7437,
-10.7693,36.9231,-16.9231,-2.5642,-11.282,-20.5129,10.7693,2.5642,8.2048,12.3079,13.8459,17.4358,-2.5642,-3.5896,
-13.3335,36.4102,-14.3589,4.1025,-20.5127,-22.0513,8.7178,-4.1025,5.6411,7.6924,10.2563,6.6665,-13.3335,-9.231,
-11.0259,38.7178,-7.9487,18.2051,-24.8721,-21.2822,11.0254,-2.3076,11.5386,8.9741,5.8975,2.3076,-17.6924,-10.5127,
-17.436,36.4102,-12.8203,21.0254,-33.8462,-22.0513,2.0513,-2.0513,15.8975,8.2051,2.564,5.6411,-21.0259,-10.2563,
-9.2305,43.0771,-13.333,17.436,-36.4102,-24.1025,-0.5127,0.51269,17.436,10.2563,10.2563,13.8462,-19.4873,-7.6924,
-9.4871,36.6667,-12.5637,10.0002,-38.2051,-28.9744,1.282,-1.282,18.718,10.5129,13.5901,14.1028,-14.1023,-8.4612,
-10.7695,43.5898,-10.7695,12.8203,-45.1282,-31.7949,-5.6411,3.5898,25.6411,14.8716,16.9229,16.4102,-9.7437,-3.5898,
-8.718,50.7693,-11.282,17.949,-49.7437,-36.4102,-11.7947,3.0769,23.0769,15.3845,16.4104,16.4104,-11.282,-3.0769,
-8.4614,47.9487,-7.436,26.9229,-36.1541,-26.4102,-0.25635,0.25635,19.2305,15.6411,12.564,22.3076,-10.5132,-5.3848,
-5.1284,48.2051,-4.1025,30.769,-30.769,-20.5127,1.5386,-1.5386,17.436,13.3335,8.2051,28.2051,-12.3076,-4.6152,
-5.1279,48.7183,-1.5381,31.7949,-39.4871,-27.1792,-6.1538,0,16.9233,14.3594,12.8208,28.2056,-10.769,0,
-2.3076,50.5132,-2.3076,27.9487,-47.4358,-36.1538,-5.8975,2.3076,8.9746,12.0513,14.6157,14.1025,-11.0254,-5.8975,
0.25635,45.3848,-0.25635,23.8462,-47.4358,-42.3076,-2.3076,-1.7949,7.9487,7.436,11.0259,5.8975,-14.6152,-11.0254,
-5.3845,45.3845,2.3079,26.9231,-44.3589,-42.3076,-2.3079,-3.3333,15.1282,10.5129,13.0769,17.1794,-12.0515,-4.3591,
-1.0256,54.3591,-5.6409,18.9744,-51.7949,-50.2563,-12.3079,1.0256,12.3079,14.3591,16.4104,23.0769,-4.6155,-3.0769,
-0.51294,48.718,-11.282,12.8206,-60,-58.9744,-14.8718,0.51294,13.8464,17.949,26.1541,30.2566,-1.0256,-7.1794,
0.76929,49.4871,-4.8718,22.8206,-53.5896,-58.7178,-5.3845,-0.76929,21.282,21.7952,30.5129,40.2566,-5.3845,-4.3586,
3.8462,49.4868,-5.3848,20.2563,-55.6411,-64.3591,-7.9487,-3.8462,11.5386,14.6152,19.2305,25.2566,-13.0771,-7.436,
1.5383,51.7947,-3.0769,15.3845,-61.5383,-62.564,-9.2307,3.0769,3.5896,13.3333,15.8977,10.2566,-5.1282,-2.051,
0.5127,58.9741,-4.6152,18.4614,-63.0769,-58.4617,-7.1797,3.5898,0.5127,9.2305,12.8203,-2.0513,-0.5127,-2.564,
1.7949,54.1025,-6.4102,21.7949,-60.2563,-59.7437,-6.4102,-1.7949,7.436,7.9487,19.231,12.9487,-3.8462,-7.436,
-0.25635,48.4614,-14.6157,7.9487,-65.3848,-74.7437,-17.1797,0.25635,12.564,13.0767,23.333,22.8203,-5.3848,-6.9233,
1.0256,46.6663,-23.5901,-7.0513,-70.7695,-89.7437,-26.1541,3.0769,11.282,16.4099,16.4099,9.7434,-1.0256,-3.5901,
-0.51269,47.1797,-23.5894,-3.0767,-67.6921,-104.7437,-23.0767,0,12.3076,15.3848,22.0513,9.231,1.0259,0,
4.3589,55.6411,-20.2563,5.8975,-62.8206,-119.7437,-23.3335,-4.8716,11.5386,11.0259,25.8975,11.0259,-4.3589,-4.3589,
10.2563,58.9746,-10.769,7.6924,-55.3845,-134.7437,-24.1025,-2.564,13.3335,11.2822,16.9233,0,0,-4.6152,
8.9744,59.2307,-10.0002,3.3333,-59.2307,-149.7437,-27.436,-3.3333,12.051,13.0769,12.5642,-13.0769,2.8206,-2.8206,
17.949,65.1282,-14.3586,1.0256,-66.1536,-164.7437,-28.7178,-3.5896,13.8464,14.3591,24.6155,-9.7434,2.0515,-1.0256,
15.3845,65.1282,-18.4617,1.5383,-71.7952,-179.7437,-35.3848,-2.5642,23.0769,13.3333,30.2561,-1.0256,1.0256,-1.0256,
15.1279,73.0767,-19.231,-0.25635,-80.7693,-194.7437,-44.3591,-0.25635,31.0254,15.6411,26.9229,0.25635,0.76904,-0.76953,
20.769,73.5898,-16.1538,-0.25635,-87.436,-209.7437,-42.3076,0.25635,28.4614,18.7178,23.8462,-5.3848,-0.25635,2.8203,
16.1538,68.4614,-23.333,0.25635,-92.564,-224.7437,-42.3076,-0.25635,19.7437,15.6411,15.1284,-15.1279,-3.8462,1.2822,
16.6667,71.5383,-30,-5.3845,-100.769,-239.7437,-46.4102,0.76929,20.7693,16.6667,15.6414,-13.0769,-0.76929,0.76929,
12.5642,64.3591,-31.5386,-14.6155,-99.2307,-254.7437,-48.4617,-0.76929,23.3333,18.2053,21.282,-12.5642,1.7947,0.76929,
16.1538,65.3848,-31.0256,-11.5386,-86.9231,-269.7437,-44.8718,4.3589,19.2305,17.1792,21.7949,-21.7949,-2.3076,2.3076,
19.7437,65.3848,-25.3845,0.25635,-92.0513,-284.7437,-46.4102,2.8208,17.1797,16.1538,18.7183,-21.2817,-4.3589,-0.25635,
13.8459,65.1282,-20.0002,7.6921,-102.0513,-285.6411,-47.6924,1.0256,22.051,16.9231,20.5129,-8.718,-3.5901,-1.0256,
9.7437,62.0513,-24.1025,1.5386,-97.9487,-290.2563,-43.5898,1.5386,14.8716,13.3335,14.3589,-12.8203,-6.1538,-1.5386,
7.1797,51.7949,-25.6411,3.0771,-94.3589,-288.718,-43.0769,0,12.3076,14.8716,7.1797,-14.3589,-1.5386,0,
7.6926,54.3591,-25.1282,6.1541,-108.7178,-285.6409,-49.2307,-1.0256,15.8977,15.3845,2.5642,-9.2307,-5.1282,1.0256,
8.4614,56.6665,-23.8462,3.3335,-108.4617,-285.3848,-46.9231,-0.25635,19.231,13.0767,0.76904,-13.5898,-10,0.25635,
7.6924,54.3589,-17.9487,8.7178,-93.4617,-275.8975,-45.1282,0,20,16.9229,3.0771,-13.8462,-6.1538,0,
15.3843,57.4355,-11.2822,11.2817,-94.8721,-271.7952,-49.7439,0,11.2817,17.9487,0,-11.7949,-5.6411,0,
12.8203,55.8975,-12.3076,6.1538,-101.0256,-268.2051,-44.6155,-0.5127,11.2822,12.8203,1.0259,-12.8203,-4.6152,0.5127,
13.333,61.5381,-12.3081,9.2305,-87.1797,-253.2051,-37.436,0,19.4868,11.2817,5.6406,-9.231,-1.5386,0,
19.231,59.7437,-3.8462,17.6924,-75.1282,-242.3076,-34.1025,-0.25635,21.2822,14.6152,5.3848,-6.9229,0.25635,-0.25635,
10.2566,52.8206,-5.1282,15.8972,-79.4871,-237.4358,-34.3589,1.0256,17.949,17.4358,3.5896,-9.7434,-2.5642,-1.0256,
11.0259,57.1797,-9.4873,9.4873,-82.3076,-231.0256,-42.8206,2.3076,19.7437,16.6665,5.8975,-13.0767,-4.3589,-2.3076,
15.3843,55.3843,-4.6157,12.3076,-74.8718,-224.6155,-39.4873,1.5386,26.6665,17.9487,9.2305,-13.8462,-1.5386,-2.0513,
11.2822,56.4102,-9.231,16.4102,-71.282,-209.6155,-30.2563,3.5898,18.9746,17.9487,5.6411,-18.4614,-3.5898,-4.1025,
11.7947,60.5129,-11.7947,18.9744,-67.6924,-194.6155,-33.3333,3.5896,6.6667,19.4871,12.3079,-14.3591,-3.5896,-3.5896,
10.5129,58.718,-4.8718,21.7947,-57.6924,-179.6155,-35.1282,0.25659,8.4617,16.1536,8.9744,-5.8977,-7.4358,-0.25659,
16.4099,63.5896,-1.5383,23.0769,-43.5898,-164.6155,-23.0771,4.6155,13.8459,10.2561,-6.0256,-8.2053,-8.2053,1.5383,
15.6411,58.7178,-1.7949,22.8203,-37.1794,-149.6155,-16.6665,7.9487,13.5898,15.1279,-2.3076,-7.9487,0.25635,-0.25635,
5.6414,49.7439,-9.2307,18.9744,-42.564,-134.6155,-30.769,3.0769,14.8718,16.4104,3.5901,-7.1794,-3.0769,-4.6155,
12.8206,54.3591,-8.2053,19.4871,-32.8206,-119.6155,-32.8206,7.6921,23.0769,14.8718,-3.0769,-8.2053,-5.6409,3.0769,
12.0513,52.0513,-5.8975,15.1284,-24.8716,-104.6155,-27.9485,10.5132,16.1538,13.0771,-8.4614,-6.4102,-5.8975,5.8975,
10,48.4614,-3.8462,18.2051,-22.3076,-89.6155,-22.8206,7.9487,1.1538,14.1025,-9.4873,0.25635,-4.3589,-0.25635,
3.5896,42.051,-6.1541,26.1536,-17.4358,-74.6155,-20.5129,1.5383,4.1023,10.7693,-15.3845,-1.5383,-6.1541,-7.1794,
3.0769,50.7693,-3.0769,29.2307,-8.718,-59.6155,-18.9744,6.1541,19.1023,8.718,-11.282,-7.1794,-4.6155,-3.5896,
3.0769,50.2566,-3.0769,24.1028,-9.7434,-44.6155,-20.5129,4.1028,10.7693,3.5896,-10.7693,-10.7693,-6.6667,-6.1541,
0,44.6152,0,30.769,-6.1543,-29.6155,-12.8208,3.0767,8.7178,8.7178,-9.231,-5.1284,-5.6411,-2.5645,
2.3076,49.4873,-2.3076,28.9741,-6.4102,-14.6155,-10.5127,4.3589,7.9487,4.3589,-13.5898,-20.1284,-10.5127,-3.8462,
8.2051,49.7437,-1.5386,31.2822,2.0513,0.38452,-4.6152,6.6665,0.5127,-0.5127,-21.0254,-35.1284,-6.1538,-3.0771,
0,43.0767,-5.6411,29.7432,7.6919,15.3845,0,4.6152,-9.7437,0,-25.6411,-26.667,-7.1797,-3.5898,
0,44.1025,-7.1797,20,0,30.3845,0,5.1279,-1.0259,2.564,-17.436,-23.5898,-10.2568,-5.1284,
0.76929,43.3333,-2.8206,21.7947,-3.3333,45.3845,-0.76929,9.4871,13.5896,2.3079,-10.0002,-22.8206,-7.4358,-0.76929,
-1.7949,40.769,-4.3589,30,0.25635,60.3845,-0.25635,6.4102,11.0254,2.8203,-18.2051,-11.0259,-12.564,-2.8203,
-5.3845,29.9998,-7.4358,25.3845,2.8206,75.3845,0.76929,-2.3079,10.5129,6.9231,-19.2307,-0.76929,-14.1028,-7.949,
-8.9741,27.9487,-7.9487,18.7183,6.4102,90.3845,0.25635,-0.25635,6.4102,4.3589,-12.564,-8.9741,-7.9487,-3.333,
-5.8975,32.0513,-10.5132,20.769,7.9487,105.3845,1.7949,3.8462,-1.7949,2.3076,-16.667,-16.667,-7.9487,-2.8208,
-16.6665,20.769,-14.6152,23.3335,0.25635,120.3845,0.76904,-0.25635,1.2822,1.7949,-23.3335,-13.0767,-15.1284,-11.0254,
-13.8464,27.1794,-13.8464,21.5383,-1.5383,135.3845,1.5383,2.5642,10.7693,7.6921,-17.4358,-6.1541,-12.3079,-7.6921,
-3.3335,33.5898,-11.5386,17.1792,0.25635,150.3845,-0.25635,4.8716,8.4614,14.1025,-10,-6.9233,-4.3589,-3.8462,
-7.9485,29.4871,-8.4617,21.282,1.282,165.3845,-1.282,5.8977,2.3079,11.0256,-10.5129,-4.3591,-3.3333,-3.8459,
-12.0515,26.4099,-10.5129,18.718,-2.8206,173.5896,1.7947,2.8206,2.8206,1.282,-15.6414,-1.282,-11.5388,-7.4358,
-14.6155,22.3074,-15.1282,14.1023,-6.4104,165.3845,3.8459,1.282,8.4612,3.8459,-15.6414,-1.282,-15.6414,-7.4358,
-12.8206,26.1536,-17.4363,17.4358,-5.6414,156.4099,1.0256,4.615,6.6663,5.6409,-17.4363,-1.0256,-13.8464,-8.2053,
-11.2817,25.1284,-9.7432,24.1025,-4.1025,155.3848,5.1284,2.0513,4.1025,-2.0513,-13.333,2.0513,-10.2563,-9.2305,
-17.6924,22.3076,-6.4102,29.4873,-8.9741,164.3589,6.4106,-1.7949,16.667,1.7949,-6.4102,7.436,-14.6152,-6.9229,
-14.8718,27.6921,-9.2307,29.7434,-10.7693,163.0769,1.0256,-1.0256,23.0769,8.2048,-13.3333,3.0769,-20.0002,-10.7693,
-12.8208,29.231,-2.564,30.769,-4.1025,161.0254,4.6152,1.5386,8.0769,1.5386,-18.9746,-1.5386,-15.3848,-9.231,
-8.7178,31.7949,-2.0513,22.0513,-6.1538,161.5386,5.1284,4.1025,12.3076,0.5127,-10.2563,-0.5127,-13.8462,-2.564,
-5.6411,27.6924,-11.2822,11.2822,-13.8462,150.7695,-0.5127,1.0259,27.3076,9.7437,0.51269,-1.5386,-12.8203,-7.1792,
-9.7439,26.6667,-6.1541,23.0769,-8.2053,151.7947,3.0769,1.0256,21.0256,10.2561,-1.5383,-1.0256,-7.1794,-5.1282,
-8.2053,34.8718,-0.51294,31.282,-8.2053,161.5383,1.0256,3.5896,6.0256,0.51294,-16.5383,2.051,-15.8977,-3.0769,
-7.6926,35.3845,-3.5901,24.1023,-11.282,161.0256,-3.0769,5.6409,21.0256,3.0769,-18.9744,5.6409,-19.4875,-5.6414,
