"AF3","AF4","F3","F4","F7","F8","FC5","FC6","O1","O2","P7","P8","T7","T8",
-1.0254,4.6152,7.1797,11.2822,-26.1538,-0.5127,0.5127,7.6924,5.6411,-4.6152,-5.6411,-2.564,-11.7949,16.9233,
-0.25659,5.3845,14.1023,13.5896,-26.9231,-4.3591,0.25659,8.4617,4.3591,-3.3333,-5.3845,-8.4617,-25.8975,18.718,
-1.7949,3.8462,21.2822,15.6411,-30.5127,-8.9741,1.7949,7.436,5.3848,-1.7949,-7.9487,-19.7434,-35.1279,14.6157,
-2.3079,2.3079,20.2566,15.1282,-33.5896,-11.0256,2.3079,5.3845,3.3333,-4.3591,-11.5383,-13.0769,-25.3845,10.5129,
-0.25659,0.25659,15.6409,14.1023,-36.6667,-9.4871,3.8459,6.9231,3.8459,-1.282,-10.0002,-4.8718,-23.3335,12.051,
-1.0256,-0.51294,12.3074,14.3586,-35.8975,-8.718,4.1023,6.6667,6.1536,0.51294,-13.3333,-11.7952,-36.4104,13.8459,
-1.0254,3.5898,10.7695,17.436,-29.2307,-3.0767,0,8.7183,6.667,0,-13.8462,-9.7437,-29.2307,14.8721,
-3.5898,-1.5386,5.6411,17.9487,-44.1025,-4.1025,1.5386,10.769,9.7437,3.0767,-7.6924,-6.6665,-24.6155,20.5127,
-2.0515,-3.0769,1.0256,21.5383,-50.7693,-4.1028,4.1023,15.3845,14.3591,11.282,-2.0515,-1.0256,-24.6155,24.1023,
-1.7949,-0.25635,-0.76953,22.8203,-35.7693,-5.8975,0.25635,15.6411,9.4873,8.9741,-2.3076,2.3076,-24.3591,14.6152,
-2.3079,-2.3079,3.8464,21.282,-27.4358,-10.5129,1.7947,12.5642,6.9231,1.7947,-1.7947,-5.8972,-22.3076,13.0769,
-0.76929,0.76929,8.9744,19.7439,-23.8459,-6.4099,4.3591,10.0002,6.4104,-0.76929,-0.76929,-8.4612,-14.1023,18.718,
-1.0259,2.564,8.7178,16.9229,-20,-3.0771,0,11.2817,3.5898,0,-5.6411,-3.0771,-21.5386,11.7949,
0.5127,0.5127,0.5127,11.2817,-21.5386,-5.6411,-6.667,12.8203,0,0,-13.8462,-6.1538,-29.7439,5.1279,
2.3079,0.76929,-1.7947,12.5642,-23.8459,-6.4099,-0.76929,12.5642,5.385,2.3079,-8.9744,-9.4871,-20.2563,16.1541,
-2.8203,-1.7949,3.8462,16.6665,-24.8718,-10.5127,3.3335,8.4614,9.4873,1.7949,-4.3589,-12.0513,-20.7693,19.7437,
0.25659,-1.7952,4.8718,16.1536,-13.5896,-7.4358,-0.25659,9.4871,4.3591,1.7947,-7.949,-3.8464,-19.2307,13.0769,
-0.5127,-7.1797,3.5898,8.7178,-16.4102,-8.7178,0.5127,7.1797,0.5127,-1.0254,-12.8203,0.5127,-17.9487,8.2051,
-2.5642,-1.0256,12.3079,15.3845,-24.6155,-9.2307,4.6155,8.2053,8.718,1.0256,-5.6409,-1.5383,-15.8972,13.3333,
-6.4102,-1.7949,10,19.2305,-26.4104,-9.4873,1.7949,9.4873,11.5386,1.7949,-3.3335,-3.8462,-20.2566,18.7178,
-5.8975,-11.0259,11.0254,20.2563,-28.9744,-12.5642,6.4102,12.0513,13.0767,5.8975,-8.4614,-6.9233,-23.8462,22.3076,
-2.0513,-8.7178,12.3076,17.436,-30.2563,-16.4102,5.6411,10.2563,7.1797,2.0513,-15.8975,-17.9487,-26.1538,12.8208,
-0.76929,-0.76929,6.9231,15.1282,-24.8721,-11.5388,2.8206,11.0256,6.9231,0.76929,-4.3591,-16.1541,-16.1541,11.5383,
-4.3589,-5.3848,1.2822,15.1284,-25.8975,-13.0767,-1.2822,10.5127,9.4873,4.3589,3.3335,-1.2822,-13.0767,16.6665,
-1.7949,-6.4102,1.7949,14.6152,-26.4102,-17.6924,-4.8716,6.4102,5.3848,3.8462,-7.9487,2.3076,-23.3333,13.5898,
4.3589,0.25635,1.7949,14.1025,-19.231,-12.5645,-0.25635,6.9229,5.3843,-0.25635,-12.0513,-4.8721,-22.8208,10,
4.8716,1.7949,-1.7949,15.1279,-18.2051,-5.3848,-0.25635,14.6152,7.4355,-3.8462,-10,0.25635,-12.0513,11.5381,
3.5894,-1.0259,2.564,18.4614,-31.2822,-7.1797,-3.0771,16.9229,9.2305,0,-12.3076,0,-20.5129,15.3843,
3.5896,-0.51294,2.051,18.4617,-35.8975,-7.6921,-5.1282,13.8459,7.1794,0.51294,-13.3333,-9.7434,-32.8206,13.3333,
1.5386,6.1538,0.5127,19.4873,-28.718,-0.5127,-3.0771,18.4614,6.1538,-0.5127,-7.6924,-2.564,-21.0256,15.3848,
-4.6152,0.5127,5.1279,21.5386,-37.436,-5.6411,-0.5127,23.5898,9.7437,2.564,-6.1538,-1.5386,-21.0256,18.9741,
-3.3335,-2.8203,8.4614,21.7949,-38.718,-3.8462,-0.76904,24.8716,12.0513,7.9487,-4.8716,0.76904,-20.7693,19.7437,
-5.6409,-1.5383,3.5896,15.8977,-36.9231,-5.1282,-3.5896,16.9231,8.2053,2.0515,-6.1536,1.5383,-17.4358,15.3845,
-5.8975,0.25635,10.5132,20.2563,-37.6921,-8.4614,0.25635,15.1284,10.5132,-0.25635,-8.9741,-6.9229,-19.2307,19.7437,
-2.3076,-0.25635,17.6924,23.333,-32.0515,-4.8721,0.25635,15.6411,11.0254,1.7949,-10,-14.6155,-22.8206,18.7178,
-0.25635,-1.7949,21.7949,22.3076,-35.6411,-5.8975,0.25635,15.1279,14.6152,4.8716,-4.3589,-18.2053,-32.0515,15.6411,
-1.7949,-3.333,23.8462,24.3589,-50.6411,-12.0513,1.7949,15.1284,16.667,5.8975,-4.3589,-18.7178,-39.2307,19.231,
0,-3.5898,20.5127,24.1025,-49.2307,-14.3589,0,15.3848,14.3589,5.1284,-13.3333,-10.7693,-34.8718,20.5127,
0.5127,-4.6152,17.436,19.4873,-36.9231,-15.3848,-3.5898,13.8462,11.2822,3.5898,-10.2563,-0.5127,-26.6667,12.3076,
-3.3333,-3.3333,13.0769,17.6926,-41.282,-14.1023,-4.8718,13.5901,8.4617,4.3591,-3.8459,3.3333,-23.8459,11.5388,
-2.0513,-0.5127,14.3589,25.1284,-51.282,-8.718,-0.5127,17.436,14.3589,7.6924,-5.1279,0.5127,-27.6921,22.564,
-0.76929,0.76929,18.2053,23.3333,-44.3589,-7.9485,-5.3845,14.1028,10.5129,2.8206,-9.9998,-0.76929,-31.0254,17.6926,
0,0,17.4355,14.8716,-35.8975,-9.231,-7.6924,11.7949,3.5898,-1.5386,-9.231,7.1792,-26.1541,9.2305,
-1.5383,-3.0769,12.3079,15.3845,-42.5642,-11.7947,-5.6409,9.7434,5.1282,1.5383,-12.3079,6.6667,-26.1538,12.8206,
-1.282,0.76929,10.0002,20.2566,-42.3076,-9.9998,-10.5129,9.4871,4.8718,-0.76929,-14.1023,2.8206,-23.3333,14.1028,
-1.5386,3.5898,15.3848,21.0259,-35.8972,-7.1792,-7.6924,11.7949,5.6411,-3.0767,-8.2051,1.5386,-15.8975,11.7949,
-4.3591,1.7947,18.718,15.6409,-32.5642,-10.0002,-5.3845,9.4871,7.9485,-1.282,-5.8977,1.282,-9.4871,9.4871,
-0.76904,-0.25635,19.7437,14.1025,-31.0256,-9.4873,-4.3589,8.4614,7.9487,0.25635,-2.3076,2.8203,-8.4614,9.4873,
4.1025,-2.564,21.5386,15.8975,-28.7178,-8.2051,-0.5127,10.7695,6.667,-0.5127,-1.0254,0.5127,-12.8203,14.3589,
-0.5127,0.5127,15.8975,11.2822,-25.6411,-8.7178,-6.6665,7.6924,1.5386,-3.5898,-9.7437,1.5386,-10.2563,15.3848,
-7.1797,2.0513,11.7949,8.2051,-29.7437,-8.7178,-6.1538,6.6665,2.0513,-2.0513,-11.7949,7.6924,-16.4102,12.3076,
-4.6155,-1.5383,14.8718,13.3333,-26.6667,-4.1028,-0.51294,13.3333,4.6155,0.51294,-9.2307,11.282,-26.6667,11.282,
-0.25635,0.25635,15.6411,12.564,-17.1797,-1.2822,-3.8462,13.0767,2.3076,-2.8208,-8.9746,5.8975,-22.3079,12.564,
2.3076,6.9233,19.7437,11.5386,-19.2305,-4.3589,-1.7949,6.9233,1.7949,-3.8462,-5.3848,-4.8716,-16.6665,10.5127,
3.0771,4.6152,21.0259,14.8716,-22.5642,-7.1797,-2.0513,3.5898,2.0513,-3.5898,-8.7178,-10.2563,-19.4873,4.6152,
1.7949,-0.25635,16.1538,16.6665,-22.8206,-6.4102,-1.7949,7.9487,6.9229,0.25635,-10.5127,-5.3848,-26.9231,10.5127,
-0.76929,0.76929,3.3333,9.9998,-27.949,-6.4104,-5.385,9.9998,2.8206,-1.7952,-8.9744,1.7947,-28.4617,11.5383,
1.2817,4.3589,-0.25635,11.0254,-27.436,-5.3848,-4.8721,11.5381,0.25635,-2.3076,-8.4619,6.9229,-20.2563,11.0254,
-2.3074,-1.282,10.5129,18.2053,-35.6409,-15.1282,-3.3333,10.0002,7.4363,1.282,-7.9485,2.3079,-30.5127,15.1282,
-2.8206,-0.76929,12.5642,16.6667,-40.769,-16.1536,-6.9231,7.4363,6.9231,0.76929,-5.8972,1.7952,-36.1536,15.6414,
-1.7952,0.76929,4.8718,13.0769,-36.1541,-7.4363,-10.0002,9.9998,2.3074,-0.76929,-10.0002,6.9231,-30.0002,9.4871,
-3.5896,-3.0769,6.6667,14.3591,-36.4102,-7.1794,-10.7693,11.282,3.0769,6.1541,-13.3333,11.282,-30.769,7.6926,
-2.5645,-2.0513,6.1538,11.7949,-35.8975,-12.8208,-10.2563,7.6924,2.0513,4.6152,-9.231,17.4355,-24.1028,12.3076,
-1.7952,-0.76929,-8.8462,10.5125,-34.1028,-16.1541,-1.7952,7.9485,5.8972,1.282,0.76929,16.1536,-9.1028,16.6663,
-6.1541,-3.0769,-23.8462,13.3333,-35.8975,-15.3845,-0.51294,8.718,6.1541,1.5383,0.51294,10.2566,-7.1794,11.282,
-2.564,-1.0254,-21.5383,16.9233,-33.3333,-8.7178,-0.5127,11.7949,7.1797,5.1284,0.5127,21.5386,-14.3589,14.3589,
4.1025,-0.5127,-7.1797,13.8462,-31.282,-4.1025,-1.0259,9.7437,7.1797,0.5127,-3.5898,26.6665,-13.8462,22.0513,
5.3845,-1.282,-14.6155,11.0256,-23.3333,1.7952,-1.282,7.4358,1.282,-4.8718,-3.8459,17.6926,-2.3074,20.2566,
0.76904,-5.3848,-18.2051,10.5127,-21.7949,0.25635,0.76904,3.8462,-0.25635,-2.3076,-1.7949,10.5127,-2.8208,14.1025,
4.3589,-3.3335,-7.9487,14.1025,-22.8206,-4.3589,-1.2822,6.4102,6.9233,1.2822,-6.4102,7.436,-4.8716,13.0771,
7.6921,0.51294,-2.5642,17.9485,-22.5642,-5.1282,-1.0256,14.3591,14.3591,6.1536,-0.51294,-1.5383,-2.0515,18.9744,
0.5127,-4.6152,-9.7437,12.8203,-25.6411,-12.3076,-0.5127,10.2563,8.2051,6.6665,2.564,-9.231,-15.8975,19.4873,
2.3079,0.25659,-18.718,7.4358,-17.6921,-7.4358,-1.7947,7.4358,-0.25659,1.282,-8.9744,5.769,-23.3335,14.1023,
6.4102,3.3335,-20.2563,7.9487,-14.1025,-1.2822,-2.3076,10,1.2822,-3.8462,-18.2051,9.4873,-19.7437,8.4614,
8.7178,3.0767,-13.8462,14.8716,-17.9487,-2.0513,2.0513,15.3843,6.1538,-2.0513,-9.7437,-5.5127,-10.2563,11.2817,
6.1541,3.0769,-12.8206,11.7947,-23.0769,-3.5896,1.0256,10.2566,2.5642,-1.0256,-5.1282,-10.2566,-15.3845,12.8206,
6.1541,0.51294,-12.8206,8.2053,-13.8459,-2.5642,-2.051,6.1541,0.51294,-0.51294,-10.2566,4.7434,-28.718,9.2307,
12.0515,-0.76929,-15.6409,4.8718,1.1541,0.76929,-7.9485,7.9485,-4.8718,-9.4871,-18.718,9.4871,-27.4358,2.8206,
20,8.2051,-14.3589,0.51269,16.1541,5.1284,-7.1792,7.6924,-6.6665,-13.333,-20.5127,-0.5127,-22.0513,3.5898,
35,23.2051,-9.4873,-0.25635,31.1541,15.1284,0.25635,6.4102,-7.436,-11.0254,-20.769,-13.5898,-20.769,2.8203,
50,38.2051,-5.3848,2.3076,46.1541,30.1284,6.4102,12.564,-13.5898,-14.1025,-23.3335,-15.6411,-20.2563,-2.3076,
65,53.2051,0,0,61.1541,45.1284,4.1025,19.4873,-14.8716,-20.5127,-23.5898,-12.8203,-28.7178,-3.0767,
80,68.2051,3.3333,-0.76929,76.1541,59.2307,0.76929,18.2053,-18.718,-24.3591,-26.9231,-15.1282,-30.5129,-0.76929,
95,83.2051,4.6152,-4.6152,91.1541,59.4873,7.6924,10.769,-29.7437,-31.7949,-41.9231,-30.1282,-42.564,-8.7183,
110,98.2051,9.7437,-9.7437,106.1541,65.1279,17.4355,13.333,-31.7949,-34.8721,-46.667,-28.7183,-52.3079,-17.9487,
125,108.4612,9.4871,-9.4871,121.1541,74.6155,14.6155,20.7693,-26.4104,-31.0256,-36.6667,-15.6414,-40.7693,-18.2053,
135.8975,108.2051,5.6411,-5.6411,136.1541,68.2051,8.7178,14.3589,-24.1025,-29.7437,-40,-30.6414,-38.9741,-15.3848,
132.8203,102.564,2.564,-2.564,151.1541,64.1025,9.7437,6.1538,-25.1279,-30.769,-47.1794,-45.6414,-38.4614,-12.3076,
129.7437,93.8462,0.5127,-0.5127,166.1541,66.6665,18.9746,14.8716,-17.436,-22.564,-35.8975,-30.6414,-24.6152,-4.6152,
114.7437,78.8462,-3.3335,-0.25635,181.1541,53.5898,18.7178,20.2563,-11.5386,-11.5386,-27.436,-15.6414,-15.6411,-1.7949,
99.7437,63.8462,-4.8718,0.76929,196.1541,38.5898,8.9744,13.5901,-13.0769,-9.4871,-24.8718,-0.76929,-12.051,-1.282,
84.7437,49.7434,-7.6921,-0.51294,198.4617,23.5898,1.5383,5.6409,-11.282,-15.8972,-18.9744,-11.282,-14.8718,0.51294,
69.7437,34.7434,-15.3848,0,183.4617,8.5898,-5.6411,3.5894,-10.2563,-15.3848,-24.1025,0,-24.1025,1.5381,
54.7437,19.7434,-11.2822,5.1279,168.4617,-6.4102,-5.6411,7.1792,-4.6152,-5.6411,-22.564,11.2822,-27.6924,4.6152,
39.7437,10.769,-5.6411,8.7178,153.4617,-10.2563,-4.1025,8.2051,1.5386,-1.5386,-8.2051,10.2563,-12.6924,7.1797,
24.7437,4.3591,-15.6409,6.4104,138.4617,-14.1028,-10.5129,8.9744,1.7947,-1.7947,-1.7947,25.2563,2.3076,10.5129,
9.7437,-5.8975,-16.1538,8.9741,123.4617,-11.5386,-5.8975,14.1025,3.8462,6.9229,-2.8203,31.0254,2.8203,17.1797,
-5.2563,-5.1284,-9.7437,13.3335,108.4617,-7.1797,-3.0771,12.3076,4.1025,6.6665,-5.1284,16.0254,3.0771,16.9229,
-20.2563,-5.1282,-11.282,15.8972,93.4617,-10.2566,-6.6667,9.7434,6.6667,2.0515,-2.0515,17.4358,11.7947,16.9231,
-29.4873,-7.949,-13.5896,18.2053,78.4617,-8.4617,-8.4617,14.1023,3.3333,2.3079,-2.3079,20.7693,13.5896,16.1536,
-33.0769,-2.3079,-12.5642,14.1023,63.4617,3.3333,-10.0002,19.2307,-1.282,1.282,-2.8206,14.1023,19.7434,13.0769,
-43.0769,-7.6924,-13.8462,12.8203,48.4617,-6.6665,-5.6411,15.3848,5.6411,0.5127,-0.5127,16.4102,11.7949,22.0513,
-37.436,-13.8459,-17.9487,16.4104,33.4617,-18.4617,-3.5896,8.718,8.718,3.0769,-3.0769,26.1541,3.5896,32.3079,
-29.2307,-12.8203,-15.3848,10.769,18.4617,-10.769,-4.6152,4.6152,4.1025,3.5898,-3.5898,24.6152,6.1538,25.6411,
-29.7437,-14.3589,-9.231,7.1792,3.4617,-5.1284,-1.5386,7.1792,4.6152,0.5127,0.5127,20,-0.5127,15.3843,
-24.3591,-4.8718,-9.4875,12.051,-11.5383,-0.76929,-0.76929,14.615,5.3845,-0.76929,0.76929,28.9744,4.3586,15.6409,
-25.1282,-4.1028,-12.8206,12.3079,-26.5383,-2.5642,-1.0256,10.7693,5.6409,1.0256,-4.6155,24.6155,12.3079,17.9485,
-31.0259,-15.6411,-11.5386,11.5381,-41.5383,-9.4873,-4.8721,4.3589,9.4868,3.8462,-3.8462,9.6155,4.3589,16.6665,
-30.2563,-14.8716,-12.8203,8.2051,-56.5383,-12.8203,-5.6411,4.6152,7.1797,1.5386,-1.0259,12.3076,1.0259,12.8203,
-30.7693,-9.2307,-19.9998,2.5642,-71.5383,-12.3079,-3.0769,5.6409,3.5896,1.5383,-1.5383,27.3076,8.718,12.3079,
-32.3079,-14.3591,-22.0515,5.6409,-75.8975,-8.2053,-6.1541,7.1794,5.1282,3.0769,-3.0769,36.9231,4.1023,15.3845,
-24.8716,-12.564,-8.4614,14.6157,-70.5127,-2.3076,-2.3076,14.6157,13.0771,10,2.3076,38.2051,-3.333,20.7695,
-26.9231,-9.4873,-14.1025,1.7949,-71.5383,-8.4614,-7.436,7.436,3.3335,2.8208,-1.7949,35.6411,4.3589,12.564,
-21.5386,-3.5898,-18.4614,-1.0254,-63.0769,-0.51269,-4.1025,10.769,1.0259,1.5386,0.5127,45.6411,19.3589,20.5127,
-26.6667,-8.2051,-16.4102,2.0513,-61.0256,-0.5127,-6.667,9.7437,3.0767,0.5127,-4.6157,38.9741,17.9487,19.4873,
-28.718,-7.6924,-15.3848,0,-56.9231,0,-8.2051,8.7178,0,1.0259,-6.6665,38.4614,20.5127,9.231,
-22.8203,-7.4355,-17.6924,-2.3076,-56.6665,3.3335,-1.7949,11.5386,-0.25635,3.8462,0.25635,42.8208,23.3335,14.1025,
-25.3848,-9.4873,-16.6665,0.25635,-58.718,-1.2822,-3.3335,10.5127,2.3076,0.76904,-0.25635,32.564,16.1538,21.2822,
-27.1794,-5.1282,-13.3333,4.6155,-52.8203,-2.5637,-6.1536,6.6667,3.0769,1.0256,-1.0256,30.7693,20.0002,21.5388,
-25.3845,-6.9231,-17.6921,0.76929,-56.1538,-2.3079,-6.9231,1.282,-0.76929,1.7947,0.76929,43.3333,20.7693,15.1282,
-21.7947,-5.8972,-15.6409,-0.76929,-53.5898,2.3079,-7.4358,3.3333,-1.7947,1.282,0.76929,48.9744,23.8459,17.6921,
-24.8718,-6.4104,-8.4617,2.8206,-53.0769,1.7947,-6.4104,6.9231,0.25659,-0.25659,-3.3333,33.9744,14.1023,20.7693,
-26.9233,-7.949,-12.0515,6.4099,-59.231,-1.282,-5.385,4.3586,1.282,2.8206,-4.8718,20.2561,6.9231,15.1282,
-25.8975,-3.8462,-18.2051,6.9229,-59.7437,-3.3335,-2.3076,2.3076,3.3335,3.8462,-3.8462,23.3335,17.1797,10.5127,
-27.6924,-6.6665,-15.3848,7.6924,-66.1538,-7.6924,0,6.1538,6.1538,0,-6.1538,15.8975,6.6665,11.7949,
-19.4873,-3.5898,-10.769,11.2822,-66.1538,-0.5127,-4.1025,13.8462,6.1538,2.0513,-4.1025,19.4873,0.5127,16.9229,
-21.0256,-4.6155,-16.4104,6.1536,-65.6411,-2.5642,-6.6667,8.2048,4.6155,2.5642,-3.0769,27.1794,8.718,14.3586,
-30,-13.5896,-16.6667,6.4104,-73.5898,-15.1282,-2.3079,2.8206,5.3845,2.3079,-6.4104,26.4104,4.8718,14.6155,
-25.1282,-9.7434,-10.7693,12.3079,-69.2307,-11.282,-2.0515,8.718,6.6667,7.6921,-4.6155,27.6921,2.0515,22.0515,
-18.7183,-6.9233,-15.6411,7.4355,-61.2822,-3.8462,-5.8975,8.4614,3.8462,6.9229,-6.4106,20.769,5.3843,18.7178,
-20.2566,-6.9231,-19.7434,3.8459,-58.2051,0.25659,-5.3845,7.4358,-0.25659,1.282,-10.5129,16.1541,7.9485,11.5383,
-23.3335,-5.3848,-12.0513,11.5386,-62.3079,0.25635,-3.8462,12.564,4.3589,1.2822,-5.3848,19.2305,-0.25635,15.6411,
-21.5386,-4.1025,-6.667,17.9487,-69.7437,-5.1284,-4.1025,12.8203,13.8462,8.2051,4.1025,17.9487,-4.6157,23.0767,
-27.9487,-10.5127,-21.2817,5.3848,-73.0769,-10,-9.4873,2.3076,3.8462,2.8208,-2.3076,7.9487,8.4614,11.0259,
-27.1797,-10.2566,-18.9744,2.051,-64.6155,-0.51294,-6.6667,3.0769,0.51294,1.0256,-6.1541,10.7693,16.4104,10.7693,
-25.6411,-11.2822,-10.2563,5.6411,-60.5129,0,-13.8462,5.1279,0,0,-8.7183,14.8716,3.5898,13.8462,
-26.1538,-9.231,-6.6665,9.231,-58.4614,-4.1025,-11.7949,9.7437,3.5898,6.6665,-3.5898,23.5898,6.6665,18.9746,
-33.3335,-10.7695,-10.7695,7.1792,-60.5129,-4.1025,-7.1797,7.1792,2.0513,6.1538,-2.0513,26.6665,12.3076,21.0254,
-29.231,-9.7439,-12.8206,3.5896,-51.2822,1.5383,-11.282,3.5896,-2.0515,1.5383,-1.5383,25.6409,5.6409,17.9485,
-25.3845,-8.4614,-7.436,5.8975,-50,-0.76904,-11.5386,6.4102,3.3335,6.4102,-0.25635,19.7437,0.25635,14.1025,
-30.5127,-8.4614,-11.0254,9.4873,-56.6665,-4.3589,-9.4873,7.9487,6.4102,9.4873,-6.4102,20.2563,4.3589,13.5898,
-31.0259,-12.0515,-21.7952,5.3845,-54.6155,-0.76929,-12.0515,4.3586,0.76929,2.8206,-9.4875,26.9231,3.8459,12.5637,
-26.4104,-17.1794,-18.2053,3.8459,-54.1025,1.282,-8.4617,4.8718,2.8206,2.3079,-1.282,24.3591,-3.8464,14.1023,
-25.3845,-15.1279,-14.6152,6.4102,-61.7949,-1.2822,-7.436,8.9746,7.436,2.8208,1.2822,18.7178,-8.9741,15.6411,
-26.1538,-8.718,-11.7947,10.7693,-67.6924,-3.5896,-7.6921,11.282,13.3333,7.6921,2.5642,21.0256,-2.5642,18.9744,
-24.8716,-9.4871,-10.5125,7.949,-64.3589,-5.8972,-11.0256,6.4104,7.4363,8.9744,-1.282,19.2307,1.282,14.1028,
-14.8718,-5.6409,-9.7434,8.718,-50.2563,0.51294,-6.6667,7.6926,3.5901,7.1794,-2.051,17.4358,-0.51294,16.4104,
-16.1538,-7.9487,-14.1025,4.3589,-50.5129,-2.3076,-8.4614,6.4102,3.8462,2.3076,-3.8462,12.0513,2.3076,13.5898,
-18.9744,-4.1028,-11.282,4.6155,-52.8206,-5.1282,-12.3079,7.1794,3.5896,5.1282,-3.5896,16.4104,8.718,10.2566,
-12.051,0.76929,-3.8459,11.5383,-54.1025,-1.7947,-7.4358,12.5642,4.8718,11.5383,-0.76929,17.1794,-6.282,16.1541,
-10.2561,1.0256,-6.6667,10.7693,-52.3076,-1.0256,-7.6921,10.2566,3.0769,8.718,-1.5383,10.7693,-16.4099,17.4358,
-17.1794,0.25659,-8.9744,3.3333,-45.3848,-2.3079,-14.1028,4.8718,-0.25659,2.3079,-4.8718,11.0256,-1.4099,9.9998,
-18.9741,-2.0513,-3.5898,4.6152,-49.2307,-5.1284,-13.3335,3.0771,2.564,5.1284,-4.6152,11.7949,2.0513,9.7437,
-18.7178,-2.8203,-2.8203,8.4614,-48.4614,-3.3335,-10.5127,3.8462,2.3076,5.3848,-1.7949,11.5386,1.7949,17.1797,
-21.2822,-5.3848,-4.8721,5.3843,-41.7949,-2.8208,-11.5386,4.3589,2.3076,0.25635,-0.25635,4.8716,2.8203,15.1279,
-11.282,-3.5896,0.51294,10.2566,-39.4873,-0.51294,-9.2307,8.718,7.6921,4.6155,2.0515,-2.0515,-1.0256,13.3333,
-10.769,-2.0513,0,10.2563,-41.0256,4.6157,-11.2817,7.6924,4.6157,9.231,-2.0513,0,0,14.8721,
-19.2305,-1.2817,-0.25635,4.3589,-37.1794,6.4102,-13.5898,5.3848,0.25635,4.8721,-1.7949,7.9487,-0.76904,13.0771,
-11.7949,4.1025,0.5127,3.5898,-30.2563,7.6924,-15.3848,5.6411,-0.51269,-0.51269,-1.5386,11.7949,-7.6924,9.231,
-6.667,5.1279,-0.5127,2.564,-34.8718,5.6411,-13.8462,3.0767,-0.5127,0.5127,-5.6411,4.1025,-10.2563,9.7437,
-10.769,4.1025,1.5386,2.0513,-35.3845,5.1284,-12.3076,6.1538,-1.5386,4.1025,-5.6411,-1.5386,-5.6411,12.3076,
-6.9231,5.8972,-2.3079,0.76929,-24.8718,7.4358,-15.6409,9.4871,-4.3591,3.3333,-5.3845,4.8718,-0.76929,6.9231,
-5.8975,1.7949,-5.3848,2.3076,-26.9233,2.8203,-13.5898,5.8975,-1.7949,2.3076,-5.3848,4.3589,-11.0259,1.7949,
-5.8972,2.8206,1.7947,5.8972,-31.5386,2.8206,-13.0769,4.8718,0.25659,-0.76929,-4.8718,-0.25659,-14.6155,5.8972,
-7.6924,5.6411,4.1025,4.1025,-34.8718,2.0513,-16.4102,2.564,-3.5898,-2.0513,-5.6411,8.7178,-9.231,10.2563,
-11.2822,0,2.564,5.6411,-40.5127,-3.5898,-11.2822,1.5386,0,5.1284,-6.1538,15.3848,-12.3076,11.2822,
-8.9744,-2.3079,7.4358,11.0256,-36.6665,-5.8972,-9.4871,5.8977,4.3591,5.8977,-3.3333,2.3079,-11.0256,11.0256,
-4.6155,1.5383,21.0256,12.8206,-29.2307,-7.6921,-12.8206,6.1541,4.6155,2.0515,-1.5383,-12.6921,-5.1282,12.3079,
-5.6414,3.5896,24.1023,14.3586,-28.2053,-9.7439,-11.7952,3.5896,3.5896,3.0769,-5.1282,-14.3591,-3.0769,10.2561,
-8.2051,2.0513,23.5898,20,-34.3589,-6.1538,-4.1025,9.7437,9.231,5.6411,-2.0513,-11.7949,-9.231,10.2563,
-11.5386,-0.76904,26.4102,21.2822,-36.1538,-5.8975,-5.3848,11.0259,10,6.4102,0.76904,-15.1282,-20.7693,10.5127,
-7.4358,4.3591,24.3591,19.2312,-23.8459,-6.4099,-9.4871,5.385,2.8206,3.8464,-2.8206,-8.4612,-15.6409,11.0256,
-0.76929,5.8977,23.8464,21.7952,-23.8462,-10.5129,-3.8459,4.8718,5.8977,0.76929,-5.3845,-5.8972,-7.4358,15.1282,
-1.282,2.8206,27.4358,21.282,-26.4102,-12.051,-3.3333,4.8718,8.9744,1.282,-3.3333,-13.5896,-6.9231,13.0769,
-2.8208,2.8203,25.3843,14.6152,-21.7952,-7.9487,-10,1.7949,5.3843,3.333,-1.7949,-18.2051,-16.667,11.0254,
1.0256,1.0256,24.1028,15.3845,-22.0513,-13.3333,-9.2307,-1.0256,7.6921,4.6155,-1.5383,-18.4617,-25.6411,10.7693,
3.5896,1.0256,25.1282,16.9231,-15.8972,-13.3333,-8.718,-2.0515,7.6921,3.5896,-1.0256,-6.6667,-14.3591,7.6921,
-1.7949,0.76904,23.3335,15.1284,-13.0767,-7.436,-7.9487,1.2822,6.9233,4.3589,-1.7949,-0.76904,-10,12.564,
-3.8459,3.8464,20.2566,17.1794,-12.5642,-9.4871,-8.4617,3.3333,6.9231,4.8718,-7.4358,-3.3333,-19.7437,14.1028,
-1.0256,7.1794,21.5388,15.8977,-8.718,-13.3333,-10.2561,1.0256,5.1282,3.0769,-5.6409,-1.5383,-25.1282,9.7439,
-1.5386,1.5386,20.5127,14.3589,-15.8975,-17.436,-7.6924,-1.5386,7.1792,2.564,3.5898,-3.0771,-23.0771,13.333,
-3.5896,-0.51294,16.9231,18.9744,-26.6665,-19.4871,-8.718,-2.5642,9.2307,3.5901,0.51294,1.0256,-18.4614,14.8718,
-5.3843,1.7949,21.2822,24.8721,-32.0513,-18.2051,-4.8716,-0.25635,11.5386,7.436,-5.3843,0.25635,-23.8459,12.0513,
-5.6411,2.0513,23.0767,28.2051,-28.718,-15.3848,-2.0513,3.0767,13.3335,7.6924,-2.0513,-10.7693,-26.1538,11.2817,
-9.2307,-1.0256,19.4871,23.0769,-29.2307,-17.9487,-7.1794,1.0256,11.282,3.0769,1.5383,-8.718,-20.5127,10.7693,
-10.5129,-0.76929,24.3591,23.3333,-35.6411,-20.2563,-4.8718,0.76929,13.0769,5.8972,2.3079,-0.76929,-25.3845,14.1028,
-11.5383,1.7947,23.8459,23.3333,-31.5383,-15.1282,-3.8459,-0.76929,10.5129,6.9231,-4.3591,0.76929,-23.3333,12.0515,
-14.3589,1.0256,20.5129,21.0256,-23.5896,-11.7947,-3.0769,-1.0256,12.8206,8.2053,-4.1023,3.5896,-17.9487,11.7952,
-13.3333,0,21.0259,21.0259,-26.6665,-15.3845,-4.6152,0,11.7949,4.1025,-5.6406,3.5898,-24.1023,13.3335,
-11.7949,2.564,19.4873,21.5386,-26.6667,-12.8203,-8.7178,0.5127,3.5898,-0.5127,-9.231,6.6665,-17.9487,9.7437,
-12.8203,1.5386,13.8462,22.0513,-21.0256,-11.7949,-6.6665,-1.5386,5.6411,3.5898,-5.6411,5.1284,-15.3843,9.231,
-10.2566,3.0769,5.6409,22.5642,-13.3333,-10.7693,-6.6667,-0.51294,8.718,5.1282,-4.6155,0.51294,-16.9231,14.3591,
-13.0769,2.8206,0.25659,17.1794,-17.1794,-10.5129,-7.9485,-0.25659,4.8718,0.25659,-7.9485,0.76929,-13.5896,10.5129,
-13.3335,2.564,6.1538,13.8462,-25.1282,-9.231,-8.2051,-2.0513,4.1025,2.0513,-8.7178,4.6152,-15.3848,4.1025,
-8.9746,3.8462,6.4102,16.1538,-20.7695,-7.436,-13.5898,0.25635,-0.25635,2.3076,-8.9746,10.5127,-23.8462,8.9741,
-10.5129,2.3079,7.4358,19.7434,-24.8718,-9.9998,-10.5129,3.8464,0.76929,-0.76929,-6.9231,8.4617,-32.0513,10.0002,
-9.4871,2.8206,12.0515,18.2053,-27.9485,-8.4612,-6.4099,2.8206,2.8206,-0.76929,-5.8972,4.3591,-27.9485,0.76929,
-4.6152,6.1538,12.3076,14.3589,-18.4614,-4.6152,-12.3076,0.5127,0,1.5386,-6.667,8.2051,-17.436,0,
-8.718,4.1028,15.8977,14.3591,-15.8972,-4.6155,-15.8972,1.0256,-1.0256,2.0515,-7.6921,16.4104,-15.3845,6.6667,
-12.3076,3.5898,15.8975,11.2817,-19.4873,0.5127,-14.8721,4.6152,-1.5386,-0.5127,-10.7695,22.564,-17.9487,5.1279,
-10,2.3076,9.4873,8.9741,-20.2563,-0.76904,-13.5898,3.8462,-0.76904,0.76904,-10,16.1538,-12.0513,4.3589,
-8.718,-2.5642,7.1794,12.8206,-15.3845,-8.718,-13.8464,2.051,-0.51294,0.51294,-4.6155,2.5642,2.9487,8.718,
-7.1797,0,16.4102,16.4102,-14.3589,-7.1797,-7.1797,7.6924,4.6152,0,-3.0771,0,5.6411,12.3076,
-12.0513,0.76904,16.6665,10.5127,-24.8721,-8.4619,-10.5132,5.3843,-0.25635,0.25635,-12.5645,0.76904,-9.3589,4.8716,
-11.5383,5.3845,11.0256,9.4871,-13.5896,-3.3333,-18.2048,1.7952,-5.3845,1.282,-7.9485,7.4358,-1.282,2.8206,
-10.2566,4.6155,9.2307,12.3079,-5.6409,-1.5383,-16.9231,1.0256,-2.051,-4.1023,-1.0256,1.0256,7.6921,5.1282,
-8.2053,5.6409,9.7434,11.7947,-11.282,-4.1028,-14.3591,2.051,1.0256,-5.1282,-5.6414,-1.0256,3.0769,3.0769,
-9.2307,6.6667,10.7693,7.1794,-13.3333,-3.5896,-13.3333,1.0256,-1.0256,-2.051,-8.718,10.2566,10.7693,3.5901,
-14.8718,1.0256,13.8464,4.6155,-12.3074,-1.0256,-12.8206,1.0256,-6.1536,-7.1794,-7.1794,11.7952,12.8206,5.6414,
-16.1541,-0.25659,11.0256,1.282,-7.4358,2.8206,-17.1794,1.7947,-11.0256,-10.5129,-9.9998,8.4617,4.3591,0.25659,
-14.8721,1.5386,9.2305,2.564,-9.7437,0.5127,-17.436,2.0513,-4.6152,-3.0771,-10.2563,7.6924,0.5127,-0.5127,
-15.6411,1.7949,11.0254,7.436,-16.6665,-1.7949,-16.6665,3.8462,-1.2822,-0.76904,-8.4614,6.9229,0.76904,5.3848,
-14.3589,4.6152,9.7437,7.6924,-13.8462,2.0513,-15.3848,5.1279,-3.0771,-3.5898,-7.6924,5.6411,-2.0513,8.2051,
-11.0256,2.8206,10.5125,9.4871,-16.1541,-1.282,-9.4875,2.8206,0.76929,-0.76929,-6.4104,3.8459,-4.8718,4.3586,
-8.718,4.1028,9.2307,9.2307,-18.4612,-1.5383,-12.3074,1.0256,-1.0256,-2.5637,-7.1794,9.7439,4.1028,3.5901,
-12.0515,7.4358,8.9744,2.8206,-19.2307,-0.76929,-19.2307,0.76929,-6.9231,-8.9744,-8.4617,6.4104,3.3333,0.76929,
-8.9746,12.0513,15.6411,6.4102,-16.6665,2.8203,-17.1797,5.8975,-1.7949,-2.3076,-4.8716,11.0254,-0.25635,0.25635,
-8.4612,13.5901,12.0515,5.8977,-19.2307,3.8464,-19.2307,7.4358,-5.3845,-2.3074,-4.3586,24.8718,-0.76929,0.76929,
-16.9231,8.2053,7.1794,2.5642,-23.5896,0.51294,-23.0769,3.5896,-8.718,-8.2048,-4.6155,18.9744,-0.51294,3.5896,
-22.051,5.1282,5.6409,2.0515,-20.5129,-1.0256,-24.1023,2.5642,-9.7434,-8.718,-8.718,6.1541,4.6155,1.0256,
-20,4.1025,3.5898,2.564,-21.0259,4.6152,-22.0513,7.1792,-8.2051,-4.6152,-10.769,10.2563,4.1025,-2.564,
-17.1794,4.8718,0.25659,3.3333,-21.282,8.9744,-19.7434,9.4871,-5.3845,-4.8718,-10.0002,17.6921,1.7947,-0.25659,
-22.0515,3.0769,-1.0256,1.5383,-24.6155,2.051,-21.0256,4.1023,-6.1541,-10.7693,-12.8206,11.7947,1.0256,4.1023,
-19.9998,1.0256,10.7693,10.7693,-30.2563,-2.051,-11.282,5.1282,3.5901,-1.0256,-6.6667,5.1282,-3.0769,12.3079,
-17.9487,0,8.7178,9.7432,-25.1284,0,-13.8462,2.564,1.0254,0,-6.1543,3.0767,-2.5645,7.6919,
-24.8716,0.25635,2.3076,1.2822,-20.2563,1.2822,-21.2822,-0.25635,-7.436,-8.4614,-11.0259,5.3848,0.25635,3.8462,
-23.3333,4.3591,6.9231,5.8972,-24.8718,0.25659,-16.6667,4.3591,-0.25659,-2.8206,-6.9231,13.5896,-2.8206,11.5383,
-15.8975,4.6152,-1.0254,6.1538,-26.6667,0.5127,-17.9487,2.564,-1.0254,2.564,-6.1538,16.9233,-0.51269,7.6924,
-12.0513,2.3076,-5.3848,1.7949,-23.8462,2.3076,-18.7178,1.7949,-5.3848,-1.7949,-8.9741,12.0513,2.3076,1.7949,
-10,7.436,-1.2822,3.8462,-22.8203,6.4102,-19.231,10,-5.3848,-6.4102,-7.436,12.0513,1.2822,3.3335,
-9.7434,11.282,-2.5642,4.1028,-24.6155,9.2307,-19.4871,13.3333,-3.0769,-1.5383,-5.1282,18.4617,2.0515,1.5383,
-6.1536,12.3079,-1.5383,2.5642,-16.9231,12.3079,-17.4358,11.7952,-1.5383,1.5383,-2.5642,21.0256,14.8718,-2.051,
-5.6411,12.8203,-2.0513,0,-5.6411,15.8975,-21.0259,9.7437,-6.1538,-4.6152,0,20.5127,25.1279,1.0254,
-12.8201,9.7439,-3.5896,-1.0256,-15.3845,11.7952,-18.9744,6.1541,-8.2048,-6.6663,1.0256,18.4617,14.8718,5.6414,
-11.5386,13.0767,-3.3335,0.25635,-22.8208,13.0767,-17.1797,8.4614,-5.8975,-2.8208,-0.25635,23.333,14.1025,7.436,
-6.6667,15.8972,-6.6667,1.0256,-16.9231,17.9485,-20.5129,12.8206,-6.6667,-2.5642,-1.0256,25.1282,16.9231,4.615,
-9.4873,12.564,-7.9487,0.25635,-16.1538,16.6665,-22.3076,10.5127,-8.4614,-4.8721,-0.25635,24.3589,8.9741,3.8462,
-12.3079,15.8972,-7.1794,-1.0256,-12.3079,22.5637,-23.0769,8.718,-10.2566,-3.5901,1.0256,32.3074,20.5125,6.1536,
-11.5381,14.1025,-9.4868,0.25635,-14.1025,22.8208,-23.333,10.5132,-8.4614,-2.8203,-0.25635,31.5386,26.4106,4.3589,
-10.7693,9.2307,-8.2048,3.5896,-19.9998,16.9231,-24.1023,14.8718,-7.6921,-5.1282,-3.5896,27.6926,12.8206,5.1282,
-13.8459,14.3591,-1.5383,1.5383,-21.5383,18.4617,-26.1541,12.8206,-10.7693,-7.1794,-3.5896,27.6921,13.8459,8.2053,
-13.8464,15.8972,2.5642,-2.5642,-22.0515,19.4871,-26.1541,5.6409,-10.2566,-7.6926,-2.5642,23.5896,25.1282,3.5896,
-6.9231,16.1541,1.7947,-3.3333,-9.9998,23.3333,-23.3333,9.4871,-7.9485,-3.3333,-1.282,31.0256,27.4358,1.282,
-11.7949,13.8462,3.5898,-3.0771,-10.769,18.4614,-23.0771,10.2563,-9.231,-3.0771,-2.0513,21.5386,12.4358,2.0513,
-14.1025,13.5898,11.5386,0.25635,-17.6924,13.0771,-23.8462,6.9229,-7.9487,-5.8975,-1.2822,6.5386,9.4873,-0.25635,
-8.2051,15.3848,7.6924,0,-10.769,17.9487,-23.0771,8.7178,-5.6411,-6.1538,0,11.7949,24.4873,-3.5898,
-7.436,16.1538,2.3076,-1.7949,-5.8975,24.3589,-17.6924,11.5386,-6.4102,-2.8208,0.25635,26.7949,29.4873,-0.25635,
-5.8975,22.3076,2.3076,-2.3076,-4.8716,24.8721,-16.6665,9.4873,-10.5127,-2.3076,-2.8203,38.7178,14.4873,2.8208,
-4.8718,23.8459,2.8206,-2.8206,-6.4104,21.282,-15.6409,7.4358,-10.5129,-3.3333,-4.3591,27.949,4.8718,6.4104,
-8.9741,18.2051,2.3081,-4.3589,-9.4868,20.2563,-15.6406,6.4106,-10.5127,-5.3843,-1.7949,24.8721,17.6924,1.7949,
-6.9229,15.1284,3.8462,-4.3589,-8.9741,22.8208,-17.6924,7.9487,-12.0513,-7.9487,1.7949,32.564,29.4873,-1.7949,
-8.2048,9.7439,5.6414,-5.1282,-12.3074,14.8718,-18.4612,5.1282,-11.7947,-7.1794,-1.0256,30.2566,16.4104,1.0256,
-11.0256,9.4871,8.9744,-3.3333,-12.5642,11.5383,-20.7693,4.8718,-10.5129,-3.8464,-2.3079,22.3079,15.6409,2.3079,
-13.5898,7.9487,10,-1.2822,-13.5898,12.564,-21.7949,9.4873,-9.4873,-4.8721,-0.25635,18.2051,19.7437,0.25635,
-12.3074,8.718,11.7952,-0.51294,-13.3333,13.3333,-22.5642,10.7693,-9.7434,-5.1282,-1.0256,20.0002,8.718,0.51294,
-8.718,15.3845,15.3845,-2.5642,-13.3333,16.9231,-22.0515,6.6667,-12.3079,-5.1282,-3.5901,18.4612,6.6667,2.5642,
-11.282,11.7952,15.8977,-1.5383,-21.5383,5.6414,-16.4099,2.5642,-8.718,-6.6667,-4.6155,7.1794,13.8464,1.5383,
-11.7947,8.718,11.7952,1.5383,-21.0256,-1.5383,-17.4358,3.0769,-6.6667,-4.6155,-4.6155,10.2566,17.949,3.5896,
-10.5127,7.436,6.9233,-0.25635,-20.769,6.9233,-23.8462,0.25635,-10,-5.8975,-4.3589,18.2051,9.4873,1.7949,
-7.4358,8.9744,6.9231,-1.282,-23.3333,19.2307,-23.8459,3.8464,-9.9998,-6.9231,-2.3079,16.6667,10.0002,1.282,
-5.8977,16.6663,7.9485,-4.8718,-20.2566,30.5125,-27.949,8.4612,-12.0515,-6.4104,-4.8718,17.6921,17.1794,4.8718,
-6.4104,18.2048,9.9998,-8.9744,-26.4104,34.1023,-28.4617,4.8718,-13.5901,-8.9744,-4.8718,18.2048,6.4099,5.8972,
-5.1279,17.436,2.5645,-8.2051,-27.1792,34.3589,-27.1792,4.1025,-13.333,-11.7949,-2.0513,17.9487,4.1025,2.0513,
-3.5896,18.9744,1.0256,-3.5896,-23.0769,28.718,-24.1028,7.6921,-11.282,-9.2307,-1.0256,15.3845,6.6667,2.5642,
-3.3335,17.6924,10.5127,-0.76904,-24.3589,24.3589,-21.7949,3.8462,-5.3848,-4.8716,-3.8462,8.9746,0.76904,6.4102,
-1.2822,18.2051,7.436,-3.8462,-13.5898,32.564,-25.3848,1.2822,-7.436,-10.5127,-2.8203,16.1538,12.564,1.2822,
-0.5127,18.9746,0.5127,-9.7437,-6.1538,35.8975,-29.7437,2.564,-9.2305,-17.436,1.0259,26.1538,18.9746,-3.0767,
0.51294,21.5383,4.1028,-12.3079,-9.2307,31.282,-29.7434,2.5642,-10.7693,-15.8972,-2.051,31.282,12.3079,-0.51294,
0.25635,18.7178,3.333,-14.1025,-16.1538,26.4102,-26.9233,2.8203,-16.667,-13.5898,-4.8721,31.0254,14.6152,-0.25635,
0.5127,18.9741,1.5386,-8.7183,-17.9487,26.6665,-21.5386,6.1538,-12.8208,-11.2822,-1.0259,24.1025,13.8462,-0.5127,
0.51294,24.1023,4.6155,-1.0256,-14.8718,26.1536,-21.5388,5.1282,-8.718,-9.7439,-1.5388,25.6409,6.1536,-0.51294,
-7.6926,16.4099,7.6921,1.0256,-25.1287,17.4358,-25.1287,3.5896,-10.2566,-10.2566,-3.5901,22.5637,-1.0256,1.0256,
-11.2822,12.3076,2.0513,-2.0513,-23.5898,18.9746,-26.1538,7.6924,-8.2051,-11.7949,-2.564,13.3335,3.5898,5.6411,
-3.8459,20.2566,-0.76929,-4.8718,-8.5898,31.5388,-16.6663,11.5388,-2.8206,-10.5125,0.76929,15.6414,13.5901,8.4617,
-4.3591,16.6667,1.282,-3.8464,-14.1028,28.4617,-14.1028,5.3845,-7.4358,-12.0515,-1.282,16.1536,14.1023,5.3845,
-11.282,8.718,1.0256,-1.0256,-25.6409,16.9231,-24.1028,3.5896,-14.8718,-14.8718,-3.0769,14.8718,11.7947,4.6155,
-16.1538,5.8975,0.76904,0.25635,-27.9487,8.4614,-22.3076,5.8975,-7.436,-15.6411,-0.25635,7.9487,-3.2053,3.3335,
-14.1028,11.0256,1.7947,4.3591,-25.3845,10.5129,-13.5896,6.9231,-3.8459,-14.1028,-1.7947,2.3079,-18.2053,1.7947,
-10.7693,16.4104,3.5896,7.1794,-17.949,20.5129,-13.3333,7.6921,-7.1794,-8.2053,-3.5896,9.2307,-6.6667,9.2307,
-8.2048,14.8718,5.1282,7.1794,-17.4358,16.4104,-18.9744,3.5896,-6.1536,-6.6667,-3.5896,9.7439,-4.1023,11.7952,
-4.3589,18.2051,4.8716,11.5386,-19.7437,15.6411,-18.7178,2.3076,-2.3076,-9.4873,-2.8203,3.3335,-4.3589,10,
-7.949,16.6667,5.3845,13.5896,-25.3845,16.1541,-13.5896,6.4104,-0.76929,-10.5129,-5.3845,-2.8206,0.76929,11.0256,
-5.3843,14.6157,7.9487,10.5127,-27.9487,12.0513,-10.5127,12.0513,-2.3076,-6.9229,-4.3589,2.3076,-5.3843,10.5127,
-5.8977,18.2053,4.3591,10.5129,-30,9.4871,-10.5129,13.0769,-0.25659,-4.3591,-3.3333,0.25659,-20.3843,7.9485,
-18.2051,14.1025,5.8975,14.1025,-41.282,4.8721,-14.1025,4.8721,4.3589,-4.3589,-10,-14.7434,-32.564,11.0259,
-11.0259,16.1538,11.0254,18.7178,-37.6924,9.4868,-14.6157,8.9741,3.8462,-3.8462,-7.9487,-6.4106,-17.564,19.2305,
-1.7947,18.2053,-0.25659,16.6667,-30.5129,11.5383,-9.4871,13.5896,0.25659,-5.8977,-0.76929,4.3591,-3.3333,16.6667,
-2.5642,17.4358,-8.2053,14.3586,-27.6924,9.2307,-6.6667,11.282,2.5642,-3.0769,3.0769,-2.5642,-9.7439,13.3333,
-0.76929,20.2561,-4.8718,16.1536,-22.8206,10.5125,-12.0515,11.0256,0.76929,-2.8206,0.76929,-8.4617,-7.4363,10.5125,
0.76929,20.7693,-0.25659,21.282,-20.2566,9.9998,-8.9744,14.6155,0.25659,-2.8206,-2.8206,-3.3333,-5.3845,10.5129,
-2.564,18.9746,-5.1279,18.4619,-16.9229,10.7695,-4.6152,13.3335,0,-2.0513,-2.0513,7.1797,0,12.3076,
-7.436,16.1538,-7.9487,10.5127,-14.1025,11.0259,-6.4102,8.4614,-3.8462,-6.9229,-1.2822,3.8462,1.2822,13.5898,
-1.0256,21.5388,-1.0256,14.3591,-3.5896,15.8977,-6.1536,10.2566,-1.0256,-8.718,1.5388,-10.7693,1.0256,15.385,
2.0513,22.0513,-5.6411,12.3076,3.0767,17.9487,-7.1797,10.2563,-3.0771,-10.2568,-5.6411,-25.7693,-2.0513,10.769,
3.5896,16.4099,-2.5642,13.8459,-3.5901,15.8972,-1.0256,12.8206,1.0256,-4.1028,-5.6414,-28.2053,-9.2307,13.8459,
1.2822,14.1025,0.25635,13.5898,-8.4614,9.4873,-7.9487,10,-0.25635,-4.8721,-2.8203,-23.3335,-15.1284,10.5127,
0.51294,18.9744,-1.5383,12.3074,-5.1282,7.1794,-10.2566,8.2048,0.51294,-5.1282,-0.51294,-14.8718,-7.6926,9.7434,
2.0513,17.9487,-4.6152,16.9233,-7.1792,8.7183,-4.6152,10.2563,5.1284,-2.0513,-2.0513,-13.333,-7.6924,16.4102,
6.1538,18.9741,-12.3076,18.4614,-1.5386,15.8975,-7.1797,10.769,1.5386,-4.1025,-4.1025,-13.8462,-10.2563,18.4614,
9.2307,22.051,-6.6667,16.4104,0.51294,15.3845,-5.1282,11.282,-0.51294,-7.1794,-1.5383,-12.3079,-8.2053,16.4104,
4.1025,15.8975,5.6411,11.7949,-10.769,5.1284,-7.6924,7.6924,-4.1025,-9.231,-7.6924,-12.8203,-8.2051,9.7437,
5.1279,14.8716,8.2051,12.8203,-10.2563,5.1279,-11.7949,5.1279,-4.6152,-7.1797,-10.2563,-16.4102,-10.7695,4.6152,
8.7178,18.4614,1.5386,13.3335,-1.5386,6.1538,-8.7178,5.6411,-3.0767,-8.2051,-9.231,-28.2051,-13.3335,4.6152,
8.4614,23.3335,-0.25635,11.5386,0.25635,5.3848,-8.9746,9.4873,-3.8462,-11.5386,-10.5127,-24.3589,-7.9487,7.436,
7.9485,22.8206,-0.76929,15.6409,-5.8977,2.8206,-9.4871,11.0256,0.76929,-6.4104,-6.9231,-12.0515,-8.9744,11.5383,
8.2048,19.9998,-7.1794,16.4104,1.0256,4.6155,-11.7952,6.1536,-1.0256,-3.5896,-4.6155,-8.2053,-5.1282,13.3333,
2.3079,14.1028,-8.9744,4.3591,-1.282,6.4104,-18.718,1.282,-11.5383,-13.5896,-7.9485,-8.9744,3.8464,5.8977,
-0.51294,10.7693,1.5383,4.6155,-11.7947,4.6155,-13.3333,5.6409,-5.6409,-11.7947,-3.5896,-9.7434,0.51294,3.5896,
1.0259,10.7695,0,9.7437,-5.1279,4.6157,-12.3076,5.6411,-3.5894,-9.2305,-6.1538,-10.2563,0,5.1284,
-0.76904,10,0.76904,7.9487,-1.7949,4.3589,-15.6411,2.3076,-6.4102,-13.5898,-9.4873,-11.5386,7.9487,6.9233,
0.25635,10.5132,8.9746,7.436,-7.4355,-0.25635,-15.1279,3.3335,-2.3076,-11.5381,-8.9741,-17.1792,2.3076,5.3848,
4.3591,15.1282,6.9231,8.9744,-1.7947,1.7947,-14.6155,2.8206,-6.4104,-9.4871,-11.0256,-8.9744,-6.4104,6.4104,
3.333,11.5381,-0.25635,2.8203,0.25635,4.8716,-21.2822,-2.8208,-13.5898,-16.667,-15.6411,-0.76953,0.25635,2.3076,
5.1282,11.282,3.5896,-1.0256,3.5896,8.718,-18.9744,-0.51294,-7.6926,-17.949,-10.7693,0.51294,15.2563,-4.1028,
0.5127,10.769,7.1792,-4.1025,4.1025,8.2051,-15.8975,-0.5127,-3.5898,-11.2822,-5.1284,3.0767,7.6924,-1.5386,
-1.0256,8.718,3.0769,-4.6155,4.6155,8.2048,-21.0256,-3.5896,-6.1541,-12.3079,-5.6414,9.2307,1.0256,2.5642,
5.8975,7.9487,0.25635,-2.8208,11.0254,8.4614,-20.7695,-2.8208,-8.9746,-18.2051,-8.4619,3.333,12.0513,-0.25635,
5.6411,8.2051,6.1538,0,5.6411,3.0771,-16.9229,-2.564,-11.7949,-14.3589,-8.2051,-8.7178,9.231,0,
0.51294,14.8718,4.1028,2.5642,-0.51294,5.1282,-21.5383,-3.5896,-16.9231,-14.3591,-4.6155,-6.6667,3.0769,5.6409,
3.8459,16.1541,0.25659,5.8977,-0.76929,10.0002,-16.1541,-0.25659,-7.9485,-9.9998,-0.76929,-3.8459,1.7947,12.0515,
4.3589,10,-0.76904,7.436,-5.8975,4.3589,-10.5127,2.8203,0.76904,-1.7949,-3.8462,-6.4102,-5.8975,12.564,
5.1284,14.8721,0.5127,12.8203,-4.6152,4.6152,-12.8203,8.7178,-1.5386,-1.0254,-2.0513,-0.51269,-1.5386,15.8975,
3.8462,12.5645,4.3589,10.5132,-7.4355,1.7949,-15.1279,6.4102,-4.8716,-10.5127,-1.7949,-7.9487,-5.3843,8.9746,
3.5896,9.7439,5.6414,2.5642,-2.5642,3.5896,-11.282,2.5642,-5.6409,-11.7947,-4.6155,-8.718,-7.1794,2.5642,
-0.51294,9.7439,0.51294,1.5383,-0.51294,7.1794,-8.718,0.51294,-6.6667,-8.2048,-3.0769,0.51294,-2.051,10.2566,
-0.5127,9.7437,5.1279,9.231,-5.1284,7.6924,-10.2563,2.564,-7.6924,-6.1538,-0.5127,-2.0513,0.5127,12.8203,
0.51294,7.1794,8.2053,4.1028,-7.1794,4.6155,-17.4358,2.5642,-7.6921,-7.6921,-4.6155,-6.6667,-0.51294,3.0769,
-1.7949,4.3589,10,5.8975,-9.4873,2.3076,-13.5898,1.2822,0.25635,-5.8975,-0.25635,-5.3843,-0.76904,10.5127,
-3.8462,3.3335,7.9487,11.5386,-15.1284,-0.25635,-12.564,-1.7949,0.25635,-5.3848,2.3076,-8.4614,1.2822,19.231,
0,3.5898,11.7949,10.7695,-11.2817,2.5645,-12.8203,-1.0254,0,-3.0767,0,-12.8203,2.5645,13.8462,
2.564,1.0259,15.3848,8.7178,-6.1538,3.5898,-10.2563,0.5127,-0.5127,-4.6152,-5.1279,-10.769,-0.5127,9.7437,
2.564,5.1279,7.6924,7.6924,-2.564,2.0513,-10.2563,-1.5386,-8.7178,-11.2822,-7.6924,-1.5386,1.5386,7.6924,
4.3591,12.0515,11.0256,12.0515,-1.282,1.7947,-3.8459,-0.25659,-4.8718,-7.9485,0.25659,-4.3591,-1.282,6.4104,
4.1025,8.7178,12.3076,10.2563,-2.564,0.5127,-6.1538,-2.564,0,-9.231,0,-13.3335,-3.5898,4.6152,
3.3335,6.9233,4.3589,6.4106,-0.25635,0.25635,-14.1025,-4.3589,-4.8716,-13.5894,-3.8462,-5.8975,0.25635,6.9233,
4.8718,9.9998,7.9485,13.0769,-2.3079,-0.25659,-10.5129,-1.282,-2.3079,-3.8459,3.8459,-3.8459,0.25659,14.1028,
-0.25659,9.4871,8.4617,10.5129,-5.3845,0.25659,-12.5642,-1.7947,-1.7947,-1.7947,2.8206,-9.4871,2.8206,10.0002,
-4.6155,6.6667,3.0769,2.5642,1.5383,4.6155,-18.4617,-4.6155,-5.6409,-9.2307,-2.0515,-1.5383,7.1794,4.1028,
-3.8459,3.3333,-0.25659,2.3079,4.8718,-2.8206,-20.2566,-8.4617,-8.4617,-13.5896,0.25659,8.4617,9.9998,3.3333,
-4.6152,1.0259,1.5386,2.0513,-0.5127,-13.8462,-17.436,-9.7437,-9.7437,-12.3076,3.5898,5.6411,15.8975,0.5127,
-0.76929,6.4104,4.8718,0.76929,4.3591,-0.76929,-15.1282,-5.3845,-5.8972,-7.9485,1.7952,-0.76929,22.3079,3.8464,
11.5386,21.4104,0.25635,-0.25635,19.3591,14.2307,-20.769,-2.3076,-7.9487,-11.0259,-6.9233,-2.8203,18.7178,4.3589,
26.5386,36.4104,-5.3845,0.25659,34.3591,29.2307,-19.7434,3.8459,-7.4358,-13.5896,-8.9744,-2.8206,7.9485,-0.25659,
41.5386,51.4104,-7.436,2.3076,49.3591,44.2307,-20.7695,15.1279,-10,-13.5898,-10,-6.9233,5.3843,-2.3076,
56.5386,66.4104,-1.282,0.76929,64.3591,59.2307,-25.3845,21.282,-22.8206,-18.2053,-14.6155,-13.5901,7.9485,-0.76929,
71.5386,81.4104,3.333,1.7949,79.3591,74.2307,-19.231,24.3589,-22.3076,-22.3076,-16.1538,-11.0259,-6.4102,-1.7949,
86.5386,96.4104,1.7949,2.8208,94.3591,89.2307,-14.1025,34.6152,-21.2822,-22.8203,-16.1538,-1.7949,-20.769,-3.8462,
101.5386,111.4104,5.3848,1.2822,109.3591,104.2307,-18.7178,43.3335,-25.8975,-25.8975,-18.7178,-6.9233,-26.4102,-1.2822,
116.5386,126.4104,5.1282,-0.51294,94.3591,119.2307,-21.5383,47.6921,-28.2053,-31.282,-24.1028,-5.6409,-30.2566,0.51294,
131.5386,141.4104,-5.6411,-1.5386,79.3591,134.2307,-17.9487,55.3848,-29.231,-29.231,-27.6924,3.0771,-33.3335,1.5386,
136.9231,153.3333,-3.5896,4.6155,64.3591,149.2307,-13.3333,62.051,-23.0769,-22.0515,-26.6667,-3.5896,-39.4871,3.5896,
121.9231,145.3845,0.76929,2.3079,49.3591,164.2307,-23.8459,54.1028,-27.4358,-26.9231,-28.9744,-0.76929,-46.4104,1.7952,
109.7437,134.8721,2.0513,-2.0513,34.3591,179.2307,-25.6406,51.7949,-27.6919,-27.1792,-25.1279,14.2307,-38.9741,9.7437,
94.8716,130.2563,-2.0513,2.0513,19.3591,194.2307,-25.6411,54.8716,-24.1025,-21.5386,-17.9487,29.2307,-23.9741,13.333,
80.7695,122.8208,-5.8975,5.8975,4.3591,209.2307,-33.5898,56.6665,-22.8203,-18.7178,-13.0767,39.231,-21.7949,8.9746,
70.2561,108.2048,-5.1282,5.1282,-10.6409,224.2307,-29.2307,56.9231,-18.4617,-14.8718,-10.2566,42.051,-36.7949,13.3333,
68.2051,107.1792,-6.1538,6.1538,-25.6409,239.2307,-25.1284,58.4614,-16.9233,-12.3076,-7.1797,54.3589,-23.0771,22.564,
65.3845,106.4104,-9.4871,5.3845,-40.6409,239.2307,-28.4617,57.1794,-16.6667,-16.1536,-5.3845,64.8718,-9.4871,20.7693,
55.3848,91.4104,-4.1025,4.1025,-55.6409,224.2307,-27.1792,49.7437,-18.4614,-21.0254,-8.2051,56.9233,-24.4871,14.8721,
43.8464,76.4104,-1.282,1.282,-70.6409,209.2307,-29.9998,44.3591,-23.8459,-24.8718,-13.5896,41.9233,-36.6667,14.1028,
38.4614,68.2051,-3.5898,3.5898,-85.6409,194.2307,-26.1538,44.6152,-17.9487,-23.5898,-13.3335,26.9233,-23.0771,17.9487,
41.2822,69.4873,-6.9229,6.9229,-100.6409,179.2307,-18.2051,41.2822,-12.564,-24.3589,-11.0254,19.7437,-28.4614,12.564,
43.0769,64.6155,-4.1028,4.1028,-94.8718,164.2307,-16.4104,32.8206,-18.4617,-26.1541,-8.718,8.718,-36.4104,4.1028,
38.718,57.6921,-1.282,3.3333,-96.1538,149.2307,-16.6667,27.4358,-17.6921,-23.3333,-8.9744,1.282,-29.9998,9.4871,
32.8206,56.4104,-5.6409,5.6409,-91.7949,138.4617,-13.3333,25.1282,-15.3845,-20.0002,-15.3845,9.7434,-28.718,15.3845,
34.3591,54.3591,-7.1794,7.1794,-85.6409,142.0515,-10.2561,26.1541,-14.3586,-17.9485,-15.3845,18.9744,-38.9744,13.3337,
41.7952,53.0769,-6.9231,6.9231,-77.6921,139.2307,-15.1282,29.4875,-13.5896,-19.2307,-12.051,18.718,-38.718,10.0002,
37.9485,50.7693,-3.0769,3.0769,-78.4617,126.6667,-14.8718,23.5896,-18.4617,-19.4875,-15.385,11.282,-35.8977,9.7434,
27.4363,43.3333,0.76929,-0.76929,-87.4358,114.6155,-16.6667,15.6414,-22.3074,-20.7693,-22.3074,0.76929,-42.8206,2.3079,
32.564,43.8462,-3.3335,6.4102,-79.2307,110,-17.6924,19.7437,-18.7178,-20.2563,-18.2051,7.436,-47.9487,3.3335,
34.8721,43.5898,-8.7178,11.7949,-79.4871,101.0259,-9.231,22.564,-13.8462,-14.3589,-11.7949,8.7178,-54.8718,13.8462,
33.0767,44.3589,-6.9233,8.9741,-85.3848,97.1792,-3.8462,19.2305,-15.6411,-8.9746,-13.5898,3.8462,-44.8721,18.2051,
32.8203,43.0771,-4.6152,4.6152,-78.9744,95.3848,-9.7437,16.9233,-17.9487,-15.8975,-16.9229,5.6411,-36.9229,12.8203,
33.8462,43.0771,-0.5127,15.3848,-67.1794,92.8203,-4.6152,24.1025,-8.7178,-14.3589,-4.1025,0.5127,-44.1025,12.3076,
36.4102,49.231,-9.2305,17.9487,-62.564,96.9233,1.5386,27.1797,-9.7437,-6.1538,-1.5386,-4.6152,-38.9744,14.3589,
36.9231,50.2566,-17.9485,7.1794,-69.2307,100.0002,-1.5383,23.0769,-16.9231,-5.6409,-12.8206,1.5383,-34.8718,14.3591,
35.1284,45.8975,-15.6411,5.8975,-73.5896,99.231,-5.8975,24.3589,-14.1025,-12.564,-16.1538,7.9487,-39.2305,17.1797,
33.8464,43.0769,-17.9485,6.6667,-63.0767,96.4104,-6.6667,27.6926,-9.2307,-17.4358,-13.8459,13.3333,-35.3845,18.4617,
30.7693,39.4875,-20.5125,5.1282,-52.3076,92.3079,-5.1282,23.5901,-9.2307,-12.8206,-13.8459,17.4363,-24.1023,15.385,
29.4868,43.8462,-12.5645,7.9487,-50.5129,93.0767,-7.9487,22.8203,-10.5132,-8.9746,-10,13.0767,-15.6411,14.1025,
29.9998,45.3845,-6.9231,12.5642,-52.5642,89.4871,-3.3333,26.9231,-4.8718,-11.0256,-6.4104,3.3333,-23.3333,17.6921,
28.4619,35.6411,-11.5381,13.5898,-54.1023,82.3076,-0.25635,23.3335,-3.8462,-11.5381,-14.1025,0.25635,-31.5381,16.1538,
28.9746,34.1025,-14.1025,13.0771,-48.4614,84.8721,-3.3335,21.7949,-7.436,-5.3848,-13.5898,3.3335,-22.3076,18.7178,
30.2563,39.4873,-15.3848,14.8716,-47.1794,83.5898,0.5127,25.6411,-6.6665,-3.0771,-2.564,-0.5127,-23.0771,27.1792,
33.8459,44.615,-18.4617,14.3586,-42.0515,83.5896,1.0256,28.2048,-7.1794,-5.6414,-3.0769,-1.0256,-27.1794,24.615,
38.7178,44.3589,-16.1538,15.6411,-35.1284,87.4355,0.25635,30.5127,-3.8462,-3.8462,-8.9746,-0.25635,-17.6924,18.2051,
36.6665,39.7437,-19.7437,16.1538,-38.2051,82.8203,1.7949,27.436,-6.9229,-6.4102,-13.0767,-1.7949,-18.2051,16.6665,
29.4871,36.6667,-34.1028,5.8972,-42.8206,77.6921,-4.8718,19.2307,-17.1794,-14.1028,-14.6155,4.8718,-24.8718,12.5637,
27.6924,35.8975,-32.8203,5.1284,-47.6924,75.8975,-5.1284,18.9741,-8.7178,-9.231,-8.7178,9.7437,-25.6411,10.769,
23.333,32.0513,-33.5898,5.8975,-48.9746,71.5381,-5.8975,16.1538,-12.0513,-10,-14.1025,9.4868,-25.3848,6.9229,
21.0256,34.3591,-39.4871,3.5896,-44.6155,74.8718,-3.5896,16.9231,-20.5129,-14.3591,-15.8972,18.9744,-16.9231,9.2307,
23.3333,37.1794,-36.6667,4.8718,-43.3333,76.6667,-4.8718,21.282,-16.6667,-15.1282,-9.4871,19.2307,-10.5129,16.6667,
26.4102,39.7437,-32.0513,7.436,-40.2563,76.6665,-10.5127,25.8975,-14.1025,-12.0513,-7.436,9.4873,-11.0259,20.2563,
24.8718,38.718,-30.5125,10.5129,-39.7434,74.6155,-6.4099,27.949,-11.0256,-5.8972,-4.8718,4.8718,-13.0769,20.7693,
18.9744,28.2053,-34.8718,5.1282,-40.5129,65.6409,-11.7947,20.0002,-13.8459,-13.3333,-10.7693,6.6667,-5.1282,14.8718,
16.6667,21.7947,-30.5129,0.25659,-42.8206,64.8718,-16.6667,16.6667,-16.1541,-20.2566,-14.1028,9.9998,-0.25659,9.9998,
20.2563,28.9746,-23.3335,5.3848,-42.3076,73.0771,-8.9741,23.8462,-10.5127,-11.5386,-5.3848,13.5898,-5.3848,10.5127,
14.6152,31.0259,-33.0767,5.3848,-42.8206,68.9746,-13.5898,20.7695,-13.0767,-9.4873,-5.3848,18.2051,-5.8975,9.4873,
9.4868,20.769,-33.5898,5.8975,-50.0002,58.2051,-15.1284,13.5894,-11.5386,-12.0513,-8.9746,18.7178,-5.8975,14.6152,
15.1282,18.2053,-28.9744,3.3333,-45.8975,57.1794,-14.6155,12.051,-7.949,-14.1028,-5.8977,12.5642,-3.3333,12.051,
17.1794,24.3586,-33.5901,-4.8718,-33.0769,60.2561,-18.2053,10.5129,-12.0515,-17.1794,-3.3333,6.4099,3.3333,3.8459,
16.4104,27.1794,-32.3079,-1.0256,-32.3079,61.5383,-12.8206,11.282,-10.7693,-15.8977,-6.6667,3.0769,1.0256,7.6921,
23.333,29.4868,-24.8721,7.9487,-34.1025,64.3589,-6.4106,16.1538,-4.8721,-11.5386,-8.4619,2.3076,-2.3076,10.5127,
26.4102,31.0259,-21.7949,10,-32.0513,61.2822,-4.3589,17.6924,-1.2822,-7.436,-2.3076,1.2822,-1.2822,11.5386,
18.718,25.3845,-25.8977,3.8459,-39.2307,51.0256,-13.0769,11.5383,-7.4358,-12.0515,-6.9231,0.25659,-0.25659,10.5129,
15.6411,21.7949,-23.8462,4.8721,-49.4871,45.8975,-12.564,11.5386,-10.5127,-14.6152,-10.5127,4.3589,-4.3589,10,
16.9229,23.0767,-17.9487,11.7949,-55.3848,42.564,-7.6924,15.8975,-5.6411,-8.2051,-7.1797,5.6411,-13.8462,11.7949,
14.6155,22.8206,-23.3333,9.4871,-52.564,41.282,-16.1536,14.1028,-7.9485,-10.5129,-6.9231,6.9231,-10.5129,8.4617,
11.0256,14.6155,-28.4617,1.282,-50.5129,39.2307,-19.7439,8.4612,-10.0002,-18.2053,-7.4358,9.9998,-1.282,3.3333,
8.2051,10.769,-25.1284,0,-44.1025,35.3848,-18.9746,6.1538,-8.2051,-19.4873,-7.1797,8.2051,0,1.0254,
8.4617,16.6667,-24.3591,2.8206,-35.1282,36.6667,-17.1794,6.9231,-12.5642,-18.2053,-8.4617,4.8718,-2.8206,3.3333,
14.1025,23.3335,-18.7178,6.4102,-34.1025,42.3076,-8.4614,12.564,-12.564,-11.5386,-7.436,3.3335,-3.3335,10,
16.6667,23.3333,-18.2053,2.3079,-29.4871,44.3591,-8.9744,16.1541,-9.4871,-10.0002,-8.4617,3.8459,-2.3079,11.5383,
16.4104,20.0002,-18.4617,3.5896,-23.5896,46.1541,-11.282,18.9744,-5.6409,-11.282,-7.6921,8.718,-3.5896,13.3333,
10.2563,12.8203,-16.9233,5.6411,-32.3076,42.564,-13.3335,13.8462,-14.3589,-15.8975,-11.7949,6.1538,-5.6411,9.7437,
6.4102,11.0254,-17.1797,2.8203,-37.1797,40.769,-13.0771,9.4868,-20.7695,-16.1538,-13.0771,0.25635,-0.25635,5.8975,
18.718,19.7439,-10.5125,12.0515,-27.9485,48.4617,-3.3333,21.282,-5.7695,-3.3333,-1.7947,1.282,-1.282,15.6414,
19.7434,17.6921,-12.5642,13.5896,-26.9231,44.3586,-7.4358,18.718,-2.8206,-3.8464,-4.3591,2.8206,-13.0769,17.6921,
12.5645,15.1284,-11.0254,13.0771,-25.3843,41.2822,-3.8462,11.0259,-8.4614,-4.3589,-4.3589,3.8462,-6.4102,18.7183,
13.3333,12.3079,-14.8718,7.1794,-26.1541,41.5383,-4.6155,8.718,-4.6155,-6.6667,0.51294,-6.6667,-0.51294,12.3079,
24.6155,16.9231,-20.5129,4.6155,-20.0002,44.1023,-10.2566,14.3586,-4.1028,-8.718,-1.5383,1.5383,-2.0515,8.2048,
20.7693,17.6921,-18.718,6.9231,-20.7693,41.282,-9.9998,14.1028,-9.9998,-7.4358,-8.4617,16.5383,-6.9231,12.0515,
15.1282,18.2048,-15.6414,4.8718,-23.3337,44.8718,-6.9231,13.0769,-12.0515,-5.8977,-6.4104,20.2561,-4.8718,13.0769,
16.6667,18.2048,-13.0769,4.8718,-21.7952,46.9231,-5.8977,14.6155,-7.4358,-5.8977,-4.8718,16.6667,-8.4617,8.9744,
12.051,11.5383,-15.6409,8.4617,-26.9231,35.6409,-9.4871,11.5383,-8.9744,-8.4617,-11.0256,11.0256,-11.5383,9.9998,
10.2563,11.2822,-20.5127,4.6152,-30.769,28.2051,-15.3848,8.2051,-17.9487,-12.3076,-12.3076,5.6411,-4.6152,12.3076,
17.949,19.4875,-14.3586,5.1282,-27.1794,30.7693,-13.8459,10.7693,-15.8972,-11.7947,-5.1282,8.718,-7.6921,12.8206,
22.3076,25.8975,-11.5386,7.9487,-19.7437,37.6924,-13.5898,12.0513,-9.4873,-9.4873,-8.9746,19.231,-7.9487,10.5127,
16.4099,21.5383,-19.4875,3.0769,-22.0515,37.9485,-17.4363,10.7688,-9.2312,-11.7952,-14.8718,18.9744,-3.0769,11.282,
18.2048,20.7693,-15.1282,4.8718,-22.3079,34.615,-14.6155,14.1023,-7.949,-8.9744,-7.949,17.6921,-4.8718,14.615,
20.769,19.7437,-13.5898,2.3076,-13.0771,35.1279,-17.1797,10,-17.1797,-12.5645,-11.5386,19.7437,-2.3076,7.4355,
17.436,13.3335,-18.4614,-5.6411,-9.7437,37.436,-15.8975,5.6411,-21.5386,-17.9487,-15.3848,18.9746,8.7183,7.1797,
12.0515,12.0515,-20.2566,-5.8972,-16.1541,35.1282,-13.5896,5.8972,-21.7947,-21.282,-13.5896,6.9231,8.4617,8.9744,
17.6921,21.282,-13.0769,5.3845,-13.5896,36.1536,-7.949,11.5383,-14.1028,-11.5383,-6.4104,-1.282,1.282,13.0769,
21.282,18.2053,-9.4871,9.4871,-11.5383,30.5129,-7.9485,12.5642,-5.8972,-1.282,-2.3079,1.282,-1.282,13.5896,
19.2305,8.9741,-12.0513,0.25635,-12.0513,29.4868,-18.2051,7.4355,-15.1284,-8.9746,-8.4619,5.8975,-0.25635,5.3843,
24.1023,13.8459,-6.1541,1.5383,-8.718,33.8459,-11.7952,8.718,-15.3845,-12.3079,-11.282,4.6155,-1.5383,7.6921,
24.3591,17.6921,-4.3591,6.9231,-8.4617,28.4617,-3.3333,10.0002,-7.9485,-7.4358,-8.9744,3.3333,-4.8718,12.5642,
17.6921,13.0769,-6.4104,5.3845,-16.1536,23.8464,-8.9744,8.9744,-10.5129,-7.9485,-7.4358,8.4617,-5.3845,12.5642,
14.3591,8.2053,-4.6155,6.1541,-21.0256,23.0769,-12.3079,4.6155,-8.718,-10.7693,-8.718,6.1541,-7.1794,13.3333,
16.6667,10.5129,-2.8206,11.0256,-13.0769,20.7693,-8.4617,4.8718,-1.282,-9.4871,-4.8718,1.282,-1.7947,14.1028,
12.8208,6.6665,-2.564,8.7183,-15.3848,15.8975,-5.6411,7.1797,0,-7.6924,0,-6.6665,-3.5898,11.2822,
13.3333,5.1282,1.0256,6.1536,-17.4363,17.4358,-3.0769,9.2307,-1.5388,-1.0256,-1.0256,-5.1282,-7.6926,15.3845,
13.5896,10.0002,-0.76929,7.9485,-15.1282,16.1541,-4.8718,8.4617,-6.4104,-1.7947,-5.3845,0.76929,-8.9744,16.6667,
13.8464,12.3079,1.0256,12.8206,-15.8972,16.4104,-4.6155,9.7439,-1.0256,-7.6921,-3.0769,-1.0256,-5.6409,16.4104,
13.0767,8.4614,-5.8975,3.3335,-14.6152,17.1792,-14.1025,1.7949,-4.8721,-16.1538,-9.4873,-1.7949,3.8462,11.0254,
12.5642,8.4617,-7.949,0.76929,-10.5129,16.6667,-12.0515,0.25659,-7.4358,-12.5642,-7.949,-0.25659,8.9744,8.9744,
12.0513,8.9746,0.76904,7.9487,-13.0767,16.1538,-4.8716,6.4102,-10,-8.4614,-3.3335,-7.9487,-0.76904,10.5127,
10.769,10.769,-0.5127,5.1279,-7.1797,20,-8.7183,4.6152,-16.9233,-17.436,-10.7695,-5.1284,0.5127,8.7178,
11.282,10.2566,-7.6921,1.0256,-1.0256,20.5129,-8.2053,0.51294,-13.8459,-17.9485,-13.3333,-0.51294,1.0256,5.6409,
14.3586,10.7693,-6.6667,4.6155,2.5642,20.5129,-7.1794,4.6155,-11.7952,-9.7439,-8.718,-2.5642,-5.1282,6.6667,
11.5388,11.0256,-3.3333,6.4104,-1.7947,19.2307,-8.4612,5.8977,-14.1023,-7.4358,-6.9231,0.76929,-0.76929,11.0256,
5.8977,10.5129,-6.4104,3.8464,-8.4617,12.5642,-12.051,1.282,-12.5642,-14.6155,-7.9485,-1.282,4.3591,9.4871,
8.9744,15.1282,-10.0002,2.3079,-2.3079,16.1541,-14.1028,2.8206,-10.5129,-14.6155,-6.9231,-3.3333,3.3333,4.8718,
11.0254,18.2051,-4.8721,5.8975,-4.8721,21.2822,-9.4873,6.4102,-8.9746,-5.3848,-3.8462,1.2822,-1.2822,7.436,
8.718,17.4363,-3.0769,10.7693,-13.3333,15.385,-5.1282,8.2053,-10.2561,-4.1023,-3.5896,3.0769,-4.1023,14.3591,
10.5129,17.1794,-1.282,16.6667,-15.6409,11.0256,1.282,12.5642,-3.3333,-3.8459,-4.3591,-3.8459,-11.5383,16.1541,
6.9233,12.0513,-1.7949,16.1538,-21.7949,3.8462,0.25635,7.9487,-0.25635,-0.76904,-11.0254,-14.1025,-24.8716,7.9487,
9.7437,12.8203,-1.5386,13.8462,-17.9487,1.5386,-2.564,6.1538,-3.5898,2.0513,-10.7695,-7.6924,-17.436,9.7437,
14.3591,13.8459,-0.51294,14.3591,-11.282,2.051,0.51294,10.2566,-3.5896,-1.0256,-7.1794,-2.5642,-10.2566,14.8718,
14.1025,18.2051,-3.8462,19.231,-7.9487,5.3848,1.7949,10.5132,-2.8203,-3.8462,-9.4868,-1.7949,-6.9229,11.0259,
8.7178,18.4614,-9.2305,16.4102,-13.8462,3.0771,1.5386,5.1284,-2.564,-8.2051,-11.7949,-1.5386,-10.769,10.2563,
8.718,16.9231,-1.5383,16.4104,-14.8718,-0.51294,5.6409,9.2307,0.51294,-3.5896,-7.1794,-2.5642,-15.3845,17.949,
11.0254,12.564,0.25635,17.1792,-5.8975,-0.25635,2.3076,9.4868,-2.8208,-1.7949,-4.3589,-7.9487,-3.8462,15.1279,
7.4358,7.949,-1.282,18.2053,-8.4617,-4.3586,1.282,3.8464,-1.282,-4.3586,-5.3845,-12.051,1.282,13.0769,
2.564,6.6665,0,16.4102,-18.4614,-9.7437,2.564,2.564,0,-4.1025,-10.7695,-13.3335,-11.2822,16.4102,
1.7949,7.4355,-0.25635,12.564,-17.6924,-10.5132,4.3589,4.8716,-0.25635,0.25635,-12.0513,-12.0513,-15.6411,17.1792,
3.8459,4.3591,-1.7947,16.6667,-15.1282,-12.5642,4.3591,4.3591,1.7947,-1.7947,-6.9231,-14.6155,-18.2053,12.5642,
8.4614,6.4102,-1.7949,21.2817,-4.3594,-5.8975,3.8462,7.4355,1.7949,-4.3594,-5.8975,-15.6411,-15.1284,6.9229,
7.4358,4.8718,-2.8206,16.1541,0.76929,-3.3333,6.9231,7.949,-0.76929,-0.76929,-7.4358,-17.1794,-10.5129,8.4617,
5.8977,3.3333,-2.3074,15.1282,-1.282,-8.4612,6.9231,4.3591,-2.3074,1.282,-4.3586,-14.1023,-9.4871,18.2053,
5.6409,8.2048,-0.51294,16.9231,-3.0769,-10.7693,4.1023,3.5896,0.51294,-2.0515,-3.0769,-9.7439,-10.7693,20.5129,
5.6409,4.1028,-2.5642,15.8977,-7.1794,-12.3079,7.1794,3.0769,2.5642,-2.5642,-4.1023,-9.2307,-13.3333,9.7434,
7.9487,2.8203,-7.436,15.1284,-0.25635,-9.4873,10.5127,3.3335,-1.2822,-2.8203,-3.3335,0.25635,-10.5127,7.9487,
7.1794,6.1536,-3.0769,19.9998,1.0256,-14.8718,5.1282,3.5896,-1.0256,-6.6667,-2.5642,-7.1794,-14.8718,11.7947,
4.1023,2.051,1.5383,21.0256,-9.7439,-25.6411,0.51294,-0.51294,2.051,-10.2566,-8.2053,-22.1794,-24.1028,6.6667,
3.8464,-1.282,5.8977,19.2307,-13.5896,-23.8459,8.4617,1.282,6.4104,-1.7947,-7.9485,-25.8972,-24.3589,11.5388,
0.25635,-4.3589,6.4102,19.7437,-15.1279,-28.4614,7.436,2.3076,4.8721,-0.25635,-7.436,-21.7949,-20.2563,16.6665,
5.1282,-1.0256,4.615,21.5383,-9.7439,-26.667,3.0769,3.0769,1.0256,-5.1287,-6.1541,-16.9231,-6.6667,13.3333,
6.9229,-4.3589,3.3335,18.7178,-10,-23.8462,8.4614,2.3076,2.8203,-5.8975,-2.3076,-14.1025,-12.0513,13.5898,
3.5896,-5.6409,4.6155,17.4358,-10.2566,-27.6924,5.1282,2.0515,4.1028,-3.0769,-2.0515,-14.3591,-15.3845,18.4617,
2.5645,0,3.5898,15.8975,-5.6406,-24.6152,0,2.5645,-1.0254,-3.0767,-5.1279,-7.1792,-0.38452,12.3076,
1.7947,-0.76929,1.282,17.1794,-4.8718,-22.3079,12.051,1.282,0.76929,-5.8977,-2.3079,-5.3845,-1.282,8.9744,
0.5127,-2.564,1.5386,18.4614,-1.5386,-22.564,11.7949,0,2.564,-9.231,0,-11.7949,-5.6411,14.3589,
0,-0.51269,4.6157,19.4873,-2.564,-18.9741,3.5898,2.5645,1.5386,-5.6406,-0.51269,-7.1792,0,18.9746,
-1.2822,0.76904,5.8975,22.3076,-8.9746,-19.7437,6.9229,5.3848,2.8203,-1.2822,-2.3076,-0.76904,-5.8975,19.7437,
0.51294,-0.51294,7.1794,18.9744,-6.1541,-21.0256,5.6409,1.5383,1.5383,-5.6409,-4.6155,-9.2307,-14.3591,15.3845,
4.3589,-0.76953,11.5381,15.6406,-0.25635,-17.6924,7.9487,0.25635,1.7949,-4.8721,-3.3335,-20.2563,-15.6411,14.1025,
3.5896,2.5642,-0.51294,12.3074,0.51294,-17.949,7.1794,0.51294,-1.5383,-3.5896,-5.1282,-21.0256,-12.8206,9.2307,
6.4102,5.8975,-6.9233,16.1538,-2.3076,-16.667,5.8975,2.8203,1.7949,-1.7949,-3.3335,-10.5132,-12.0513,8.9741,
7.6921,0.51294,-0.51294,18.4617,-9.2307,-17.4358,6.1541,2.0515,2.0515,-4.1023,-5.1282,-10.2566,-13.8459,9.7434,
8.9744,4.3591,-0.76929,16.6667,0.76929,-13.0769,6.9231,4.3591,-3.3333,-8.4617,-7.4358,-11.5383,-4.3591,13.0769,
4.3591,5.8977,-5.3845,14.6155,3.8464,-14.1023,5.3845,2.8206,-2.8206,-9.9998,-7.9485,-10.5129,-7.4358,18.718,
5.3845,1.7947,-0.25659,14.6155,-0.25659,-16.6667,3.8459,1.282,0.25659,-8.4617,-8.9744,-10.5129,-13.0769,18.2053,
9.231,-0.5127,1.5386,13.8462,1.5386,-17.436,6.6665,0.5127,-3.5898,-11.7949,-8.7178,-14.8721,-8.2051,13.8462,
9.7437,3.0767,-2.564,17.436,1.5386,-12.8208,11.2817,3.5898,-1.5386,-9.7437,-4.1025,-14.8721,-7.1797,15.3848,
6.1541,6.1541,-6.1541,18.4617,-1.0256,-11.7947,7.1794,5.1282,1.0256,-6.6667,-5.6409,-10.7693,-11.7947,12.8206,
5.6411,1.5386,-4.6157,17.436,-1.5386,-20,6.1538,2.564,2.564,-6.1538,-4.6157,-15.8975,-16.4102,10.2563,
7.9487,-3.8462,-1.7949,17.1792,1.7949,-23.3335,9.4868,-0.25635,2.3076,-6.4106,0.25635,-16.1538,-15.6411,13.0767,
4.6157,-7.6924,0,16.9233,3.5898,-21.0254,8.2051,0,2.5645,-6.1538,-1.5381,-14.3589,-14.3589,13.8462,
5.3848,-6.9229,-0.76904,18.7178,5.3848,-19.2307,4.3589,0.76904,6.4102,-3.3335,-0.76904,-19.2307,-6.9229,18.7178,
5.8975,-4.3589,-7.9487,13.5898,9.4873,-16.1538,0.25635,-2.8203,1.2822,-5.8975,0.25635,-16.6665,-0.25635,21.7949,
5.1284,-4.6152,-7.6924,13.3335,9.231,-14.3589,4.6152,-0.51269,0.5127,-6.6665,0.5127,-13.3335,-5.1279,16.9233,
10.2563,-3.5898,-5.6411,15.3843,10.769,-14.3589,2.564,0.5127,4.1025,-3.5898,-0.5127,-15.3848,-8.2051,8.2051,
14.3589,-1.5386,-6.667,11.7949,17.436,-10.2563,3.0767,-1.5386,1.5386,-3.5898,4.1025,-7.1797,-3.5898,14.3589,
8.4614,-5.3848,-8.9746,12.0513,15.6411,-10.5132,8.4614,-2.3076,-0.25635,-6.4102,1.2817,0.25635,-7.436,22.3076,
9.4873,-2.3076,-10.5127,8.9746,14.1025,-11.0254,1.7949,-1.2822,1.7949,-10,-5.8975,1.2822,-10.5127,12.564,
12.5642,1.282,-11.5383,5.3845,15.1282,-13.5896,-0.76929,-2.8206,0.76929,-8.4612,-1.7947,0.76929,-12.051,7.4358,
8.9744,0.25659,-9.4871,11.5383,16.1541,-15.6409,7.4358,-3.3333,-0.25659,-4.8718,-2.8206,1.282,-9.9998,13.0769,
10.0002,0.76929,-5.8972,12.0515,15.1282,-13.0769,3.3333,-2.3074,-0.76929,-8.9744,-9.4871,2.8206,-8.4612,8.4617,
12.0515,0.76929,2.3079,8.9744,11.0256,-14.1023,-0.76929,-2.3074,-1.7947,-10.5125,-6.4099,2.3079,-14.6155,8.9744,
8.2048,1.0256,4.1023,11.282,10.2566,-14.3591,4.6155,-1.0256,-7.1794,-9.2307,-3.5896,-3.5896,-14.3591,16.4104,
7.1794,2.5642,-0.51294,12.8206,10.2566,-10.2566,5.1282,0.51294,-7.6921,-11.7947,-9.7434,-9.7434,-8.2053,10.7693,
10.5129,2.8206,0.76929,13.0769,11.0256,-7.4358,1.7947,-0.76929,-5.3845,-13.5896,-8.9744,-1.7952,-6.4104,3.8459,
8.9744,1.7947,-2.8206,13.0769,13.0769,-11.5383,4.8718,-1.7947,-5.3845,-12.5642,-4.3591,4.3591,-8.9744,13.0769,
5.8975,-0.25635,-3.8462,13.5898,9.4873,-20.769,10,0.25635,0.25635,-6.9229,-4.8716,-9.4873,-19.2305,18.7183,
11.0256,0.25659,1.282,8.9744,15.1282,-18.718,5.8972,-0.25659,-3.8459,-7.9485,-7.4358,-9.9998,-14.1028,7.9485,
7.9487,-1.7949,0.25635,4.3589,19.231,-14.1025,0.76904,-5.3848,-10,-13.5898,-6.9229,4.3589,-0.25635,5.3848,
4.3589,-0.25635,0.25635,10.5127,18.2051,-15.1284,2.3076,-4.3589,-0.25635,-12.0513,-1.2822,2.3076,-3.8462,15.1284,
7.6921,-0.51294,3.0769,12.8206,23.0769,-15.8977,1.5383,-3.5896,0.51294,-9.7439,-0.51294,-10.2566,-12.3079,14.8718,
6.4104,-8.4617,6.9231,8.4617,20.2566,-19.2307,4.3591,-8.4617,-0.25659,-5.8972,0.25659,-7.9485,-10.0002,11.0256,
1.282,-13.0769,-0.76929,2.8206,9.9998,-26.4104,0.76929,-12.0515,3.3333,-7.4358,-2.3079,2.3074,-6.4104,9.4871,
2.3079,-12.051,-8.9744,3.8459,9.4871,-23.8459,1.282,-8.4617,3.8459,-8.9744,-1.282,4.3591,-9.9998,8.9744,
5.1279,-9.231,-3.0771,14.8716,14.3589,-16.9233,9.2305,-4.6157,2.0513,-4.1025,4.6152,-2.0513,-12.3081,7.6919,
5.3843,-8.4619,-0.25635,15.6411,12.0513,-18.7183,5.3843,-5.8975,1.2817,-4.8721,0.25635,-4.3589,-14.6157,6.9229,
7.9487,-9.4873,2.3076,12.0513,2.3076,-25.3845,6.9233,-2.3076,6.9233,-2.3076,-2.3076,-6.9229,-20.2563,14.6152,
10.769,-9.231,3.5894,10.769,0,-26.1541,9.2305,-2.0513,4.6152,0,0,-12.8208,-14.8721,18.4614,
7.1794,-10.2566,2.5642,11.7947,-0.51294,-27.6924,5.1282,-9.7434,0.51294,-3.0769,2.0515,-11.282,-9.7434,12.3079,
2.0513,-16.4102,2.0513,7.1792,0,-36.4104,2.564,-16.9233,0,-7.6924,0.51269,-9.231,-21.5386,7.6924,
5.8977,-15.6409,3.3333,2.8206,15,-33.0769,7.4363,-15.1282,-6.4099,-7.9485,0.76929,-0.76929,-14.1023,7.949,
4.3591,-13.0769,5.3845,3.8464,19.7434,-30.5129,7.4358,-11.0256,-10.5129,-8.4617,-1.7947,1.7947,-3.3333,4.3591,
2.564,-9.7437,8.7178,8.2051,14.3589,-30.2563,1.5386,-9.231,0,-8.2051,-4.6152,0,-7.1797,0.5127,
1.7949,-12.564,4.8716,4.8716,12.0513,-33.0771,0.76904,-13.5898,2.8203,-11.0259,-4.8721,-0.25635,-12.0513,0.25635,
0.76929,-14.1023,9.4875,4.8718,10.5129,-34.1025,6.9231,-14.1023,0.76929,-7.9485,-0.76929,-4.8718,-7.4358,5.8977,
0,-9.7437,12.8203,7.1792,16.9229,-28.2051,5.1279,-10.2563,-4.6157,-7.6924,0,-12.8208,0.5127,4.6152,
2.3076,-6.9229,7.9487,14.1025,19.231,-20.769,8.9741,-6.4102,-1.2822,-5.8975,1.2822,-10.5127,-5.8975,7.436,
-0.5127,-13.3335,1.0259,15.3848,8.7178,-24.6152,9.231,-10.2563,3.5898,-4.6152,0.5127,-8.7178,-18.4614,10.2563,
-1.7947,-13.0769,2.8206,11.5383,9.4871,-29.4873,5.3845,-11.0256,3.3333,-6.4104,1.7947,-11.0256,-11.5383,8.9744,
0,-10.2563,3.0767,7.1792,10.2563,-29.231,3.5894,-8.7183,3.0767,-9.7437,0,-14.3594,-10.7695,2.564,
7.4355,-4.8721,1.7949,6.9229,14.1025,-19.231,5.3843,-4.3589,3.8462,-4.3589,-1.7949,-2.3076,-14.6157,6.4102,
4.3591,-11.5383,2.8206,7.4358,12.5642,-24.3591,6.9231,-10.5129,2.3079,-2.3079,-4.3591,-3.3333,-15.1282,11.0256,
2.5642,-12.3074,12.8206,14.3591,12.3079,-32.8203,10.2566,-10.2561,6.1541,-2.5642,-3.5896,-16.4099,-8.2048,12.3079,
6.6665,-6.1543,13.333,12.8203,17.4355,-28.7183,8.2051,-5.6411,4.1025,-7.6924,-4.1025,-19.4873,-9.7437,7.6919,
9.4871,-4.8718,5.8972,6.4104,16.6667,-22.8206,3.8459,-6.9231,2.8206,-9.9998,-1.7947,-14.1028,-17.1794,1.7947,
8.9744,-1.7947,1.282,8.9744,12.0515,-22.8206,2.3079,-8.4612,2.3079,-9.9998,-1.282,-3.3333,-14.1023,2.8206,
2.0513,0.5127,1.5386,11.7949,7.1797,-22.564,6.6665,-7.1797,-0.5127,-9.231,-0.5127,-1.0259,-13.3335,8.2051,
-0.51294,-1.5383,3.5896,7.6921,8.718,-22.0515,3.5896,-7.6921,-3.5896,-6.6667,0.51294,2.5642,-16.4104,9.2307,
3.8459,-0.25659,5.8977,7.4358,12.5642,-21.282,-0.76929,-5.8972,-3.3333,-4.8718,0.25659,14.1028,-14.6155,11.0256,
3.0769,-1.0256,7.6921,13.3333,3.0769,-24.6155,5.6409,-3.5896,-1.5383,-7.6921,0.51294,-0.51294,-16.4104,14.3591,
5.1282,1.0256,5.6409,16.4104,2.0515,-22.051,7.1794,-3.0769,-4.6155,-10.7693,-1.0256,-14.3591,-11.282,11.7947,
4.6155,1.5383,3.0769,15.3845,9.7434,-18.9744,3.5896,-3.5896,-1.5383,-7.1794,-5.1282,-2.0515,-7.6921,8.718,
0.76929,-0.76929,5.3845,17.6921,8.4612,-24.3591,7.4358,-2.3079,1.7947,-5.8977,-8.4617,-2.8206,-17.6926,7.4358,
0.51294,1.0256,2.5642,17.4358,7.1794,-22.5642,10.2561,-0.51294,-1.5383,-9.7439,-10.2566,-14.8718,-27.1797,8.2048,
-0.76929,1.282,-0.25659,17.1794,4.8718,-15.6409,11.0256,0.25659,1.282,-6.9231,-6.4104,-8.9744,-24.8718,14.6155,
-0.76904,1.2822,-2.8203,17.1797,6.4102,-16.1538,9.4873,0.25635,4.8721,-4.8716,-0.25635,-2.3076,-13.0767,12.564,
1.7947,0.76929,-5.3845,15.1282,9.9998,-25.3845,7.4358,-0.76929,3.8459,-5.8977,-1.7952,-10.0002,-11.0256,7.9485,
2.8206,-0.25659,0.25659,20.2566,8.9744,-25.8975,11.0256,-0.76929,5.8972,-2.3079,-3.8464,-8.4617,-16.1541,15.6409,
-0.76929,-1.282,0.76929,19.2307,4.8718,-19.7434,7.949,-2.3074,4.8718,-2.3074,-3.3333,3.3333,-17.1794,16.6667,
-2.3079,-1.7947,-3.3333,16.6667,4.3591,-19.7434,6.4104,1.7947,4.8718,-3.3333,-3.3333,5.3845,-17.1794,9.9998,
-0.5127,0,-1.5386,20.5132,4.6157,-22.564,10.2563,2.0513,4.6157,-2.564,-6.1538,0,-13.333,10.2563,
-0.25635,-0.76904,1.7949,21.7949,0.25635,-28.4614,12.564,-4.3589,7.436,0.25635,-1.7949,-3.8462,-17.1792,17.1797,
1.0256,-3.5896,-1.0256,22.5642,-2.5637,-32.3074,12.3079,-2.5637,11.7952,3.5901,3.0769,-3.5896,-28.7178,18.9744,
0.76929,-4.8718,-6.4104,19.2307,-0.76929,-27.9487,7.4358,1.7952,4.3591,0.76929,-3.3333,-2.3079,-25.8975,12.0515,
0,-3.0767,1.0259,21.0259,-1.0254,-24.6152,8.2051,0.51318,4.6157,0,-3.5898,-7.6924,-16.4102,14.8721,
-1.0256,-2.0515,6.6667,26.6667,-3.0769,-26.1538,8.718,1.0256,9.7434,2.051,-1.5383,-7.1794,-14.8718,19.9998,
-4.1023,-1.5383,3.5901,26.6667,-5.6409,-25.1279,10.2566,1.0256,7.1799,3.5901,-1.5383,-1.0256,-12.8201,16.9231,
-1.2822,-3.8462,3.3335,22.3076,0.76904,-27.4358,14.1025,-3.8462,6.4102,2.8208,-0.76904,-11.0254,-11.0254,15.1284,
0.5127,-3.0767,2.0513,21.5386,15.769,-30.769,11.7949,-5.1279,6.667,-0.51269,-0.51269,-18.4614,-8.7178,16.9233,
-3.5898,0,3.5894,26.1538,11.7949,-29.231,11.2817,-2.5645,9.7437,0,0,-10.7695,-9.7437,20,
-4.1025,0,4.103,24.103,3.5898,-26.1536,8.2056,-4.6152,6.1543,0,-2.0513,-9.2305,-8.7178,17.436,
0,0,-0.51269,14.3594,12.8208,-21.5381,4.6157,-4.1025,0,-2.0513,-4.6152,-11.7949,0.51318,12.8208,
0.25659,2.8206,-3.8459,14.1023,16.1541,-20.7693,11.5383,-0.76929,2.3079,-1.282,-3.3333,-11.0256,-0.25659,13.5896,
0.76929,3.8459,-4.3591,17.1794,16.1536,-19.7439,11.0256,-0.76929,0.76929,-2.3079,-5.8977,-14.1028,-3.3337,16.1536,
1.0256,-4.1023,-0.51294,18.9744,11.7952,-20,7.1794,-2.051,3.0769,0.51294,-5.6409,-20.5127,-9.2307,17.4358,
1.5386,-10.2563,-2.564,20,4.6152,-22.0513,6.6665,-4.6152,6.6665,4.1025,-1.5386,-13.3335,-10.769,17.436,
3.0767,-2.5645,-12.3081,13.8462,11.2817,-20,2.564,-8.2051,0,0,-4.6157,0.5127,-2.0513,10.2563,
5.3848,6.9229,-8.4614,15.1284,16.6665,-16.1538,3.3335,-4.8716,-1.7949,-1.2822,-4.8716,1.2822,-5.8975,6.4102,
8.4612,10.5125,-3.3333,17.6921,15.6409,-12.0515,5.3845,-2.3079,-0.76929,-1.282,-0.76929,0.76929,-13.5901,11.0256,
4.1025,5.1284,-9.7437,12.3076,10.2563,-14.8716,4.6152,-8.7178,-1.5386,-3.0767,-4.1025,1.5386,-13.8462,12.8208,
-1.0256,2.5642,-9.2307,14.3591,1.5383,-22.051,4.1028,-9.7434,1.5383,1.0256,-9.2307,-3.5896,-13.8459,10.7693,
0.76929,7.4358,-3.3337,22.3074,-0.76929,-23.8464,7.4358,-2.3079,3.8459,3.8459,-0.76929,-4.8718,-6.4104,15.6409,
-3.0771,2.564,-4.1025,21.0259,-2.564,-27.1794,7.1797,-4.6152,3.5898,0.5127,6.6665,-9.7437,-0.5127,22.0513,
-3.0771,0.5127,-4.1025,16.4102,1.5386,-26.1541,5.6411,-9.7437,3.5898,-0.5127,3.5898,-12.8208,-7.1797,21.0254,
-1.2822,-0.25635,-0.76953,18.2051,0.25635,-24.8721,7.4355,-8.9746,4.8716,0.76904,0.25635,-18.7183,-22.1797,15.6406,
-1.7947,-1.282,3.8464,22.3079,-1.282,-25.8975,7.949,-5.3845,6.4104,5.8977,1.282,-25.3845,-37.1797,17.6921,
-2.3079,-0.76929,1.7947,19.7434,0.76929,-24.3591,5.3845,-5.8977,3.8459,6.9231,-2.3079,-20.7695,-52.1797,18.7175,
-2.564,-1.5386,2.0513,18.9741,1.5386,-20.5129,9.231,-5.1284,7.6924,4.6152,-3.5898,-12.3076,-47.1794,16.9229,
-2.3074,0.76929,1.7952,17.6926,10.0002,-19.2307,11.0256,-5.3845,8.9744,-0.76929,-1.282,-7.9485,-39.2307,14.1028,
-2.8203,1.2822,-0.25635,15.1284,15.1284,-22.3076,8.4614,-10,3.3335,-3.3335,0.25635,-7.436,-38.2051,15.6411,
-1.0256,-0.51294,2.5642,18.4617,8.718,-25.1282,9.7439,-8.718,3.5901,0.51294,-0.51294,-9.2307,-35.8972,19.4871,
-0.76929,-1.7947,3.3333,18.718,6.9231,-25.8975,10.5129,-4.8718,5.3845,0.76929,-2.8206,-12.5642,-29.4871,15.1282,
-4.3589,-2.8203,1.7949,18.2051,6.9233,-29.4871,11.0259,-5.3843,9.4873,1.7949,-1.7949,-14.6152,-34.1023,14.6157,
-4.1025,-5.1284,1.5386,17.9487,8.2051,-29.2307,7.1797,-8.7178,8.7178,1.5386,-1.5386,-10.769,-32.3076,15.3848,
-0.25635,-6.4102,2.3076,17.1792,6.9229,-24.3591,7.436,-8.4614,7.9487,0.25635,-0.25635,-10.5127,-19.231,13.0767,
-3.3333,-5.8977,-1.282,18.2048,1.282,-24.8718,11.0256,-5.3845,9.4871,2.3074,1.7947,-14.1028,-17.1797,14.1023,
-3.5896,-1.0256,-3.0769,20.5129,6.6667,-22.051,7.6926,-4.1023,8.2053,4.6155,1.0256,-4.1023,-8.7175,17.4363,
-0.76929,-0.76929,0.76929,19.2307,7.949,-21.7949,9.4871,-5.8972,6.9231,2.3079,-3.3333,-7.9485,-5.8972,12.5642,
2.3079,-3.8459,1.282,15.6409,3.8464,-23.8462,9.4871,-6.9231,2.8206,-1.282,-6.9231,-18.2048,-15.1282,4.3591,
2.3076,-2.3076,0.25635,14.6152,6.9229,-22.3076,3.8462,-7.436,0.76904,-0.25635,-2.3076,-3.2048,-10,1.2817,
-3.5896,-7.1794,6.1541,14.8718,1.5388,-29.2307,6.1541,-11.7947,2.5642,-1.0256,-3.0769,2.0515,-6.6667,1.0256,
-2.8203,-3.8462,13.0771,16.1538,6.4102,-21.7949,9.4873,-6.4102,2.3076,-3.333,-4.3589,-0.25635,0.25635,6.4102,
-2.8206,3.3333,7.4358,13.5901,13.0769,-12.051,8.4617,-1.7947,-1.282,-5.3845,-4.8718,1.282,-4.8718,7.4358,
-3.0767,0.5127,2.0513,15.3848,9.231,-17.9487,8.7178,-4.6152,0.5127,-1.0254,-7.1797,-0.5127,-11.2822,8.2051,
-5.1282,-6.6667,0.51294,17.9485,7.6921,-19.9998,9.7434,-5.6409,3.0769,1.0256,-3.5896,-4.6155,-0.51294,12.3079,
-3.8459,-4.3591,-1.282,15.1282,14.6155,-9.9998,9.4871,-4.3591,2.8206,-0.76929,1.282,-8.9744,0.76929,6.9231,
1.0256,4.1023,-5.6409,12.8206,25.6409,-1.0256,9.2307,-3.5896,-1.0256,-3.0769,-3.5896,-9.7439,3.0769,1.0256,
0,0,-4.6152,16.4102,26.1538,-3.0767,13.8462,-4.6152,1.0259,0,-5.6411,-14.3589,12.8208,9.231,
-3.0769,-6.6667,-2.5642,11.7947,21.0256,-8.718,11.282,-6.1541,0.51294,2.051,-0.51294,-15.3845,8.2048,9.7434,
-0.25635,-1.7949,-3.8462,5.8975,23.8462,-5.3843,10,-3.333,-0.76904,0.76953,0.76953,-4.8716,0.25635,2.3076,
-0.51294,-4.1028,-0.51294,12.3079,21.0256,-6.1541,13.3333,-2.051,3.0769,0.51294,-1.5383,-9.7434,2.0515,5.6409,
-2.564,-7.1797,0.5127,15.3848,20,-11.7949,14.3589,-6.6665,1.5386,-0.5127,-2.0513,-20.5127,5.1284,5.6411,
0,-3.5898,-0.5127,13.8462,23.5898,-13.3335,17.9487,-6.1538,1.0259,0,0.5127,-16.4102,-2.564,0,
-0.51294,-2.0515,2.051,15.3845,23.0769,-15.3845,14.8718,-4.6155,2.051,1.5383,-0.51294,-7.1794,-3.0769,0.51294,
-3.3335,-3.3335,7.4355,13.5894,21.7949,-18.2051,13.0767,-5.8975,-0.25635,0.25635,-2.3076,-10,4.3589,5.3843,
-3.8459,-5.3845,17.6921,11.5383,17.6921,-24.8718,17.6921,-4.8718,-0.25659,-2.3079,0.25659,-18.2053,0.76929,5.8972,
-3.333,-3.333,20.7695,11.5386,13.5898,-26.9231,13.5898,-5.3848,2.3076,-6.4102,1.7949,-13.5898,-1.7949,2.3076,
-1.7947,-1.282,18.2053,14.1028,6.4104,-24.8718,10.0002,-6.4104,5.3845,-1.7947,1.282,-5.3845,-5.3845,6.4104,
0,-5.6411,16.9229,17.9487,3.0767,-22.0513,12.8203,-5.6411,2.564,0,-2.0513,-3.5898,-9.7437,7.6924,
0.25635,-3.8462,14.1025,15.1284,12.5645,-12.0513,14.1025,-3.333,-3.333,-3.8462,-2.8203,-0.25635,3.8462,3.3335,
-2.0515,0.51294,14.8718,11.282,14.3591,-8.718,15.3845,-1.0256,-0.51294,-0.51294,-2.0515,-3.0769,9.7434,6.6667,
0.25635,1.2822,16.667,8.9746,16.1538,-7.9487,12.564,-2.3076,-1.7949,-1.2817,-6.4102,-7.436,-0.25635,5.8975,
1.7949,1.7949,16.1538,10.5132,21.7949,-4.8716,9.4873,-3.8462,-4.8716,-6.4102,-1.7949,-4.3589,-1.7949,3.8462,
-4.1025,0.5127,15.3843,12.8203,22.0513,-9.231,11.7949,-8.2051,-2.0513,-5.6411,0,-4.1025,0,5.1279,
-5.8975,1.7949,14.1025,10.5127,28.4614,-10.5127,13.5898,-7.9487,-0.76904,-3.3335,-8.4614,-1.7949,0.76904,5.8975,
-4.3589,-1.2817,16.1538,7.436,27.9487,-10.5127,16.667,-5.3843,0.25635,-1.2817,-6.4102,1.2822,-0.25635,3.8462,
-0.51294,-3.0769,19.4871,9.2307,22.5642,-10.2566,18.4617,-3.5896,1.0256,0.51294,-1.0256,-1.5383,-0.51294,5.6409,
3.5896,1.0256,16.9231,10.7688,26.1536,-8.718,15.3845,-4.6155,-1.0256,-1.5388,-2.0515,-6.1541,-2.5642,9.2307,
0.76929,2.3079,10.5129,10.5129,28.4617,-8.9744,14.1028,-7.9485,-0.76929,-3.8459,-1.7947,-1.282,-5.8972,8.4617,
0.25635,-0.25635,4.8716,6.9229,26.9229,-8.9746,12.564,-6.9233,-4.3589,-2.8208,-2.8208,13.0767,-0.25635,3.8462,
2.564,-4.1025,4.1025,4.1025,24.1025,-12.3076,13.3335,-6.1538,-5.6411,-0.5127,-4.6152,11.2822,0,0,
4.1025,0,9.2305,8.2051,22.0513,-12.8208,14.8716,-6.1538,-2.5645,0,-1.5386,-1.0259,-4.1025,3.5894,
0.25635,-0.25635,10.5127,9.4873,14.1025,-11.5386,12.564,-7.436,-4.3589,-4.8716,0.76904,-4.3589,-2.8203,1.7949,
-2.3074,-6.4104,13.0769,9.4871,8.4617,-15.6409,15.1282,-5.8972,-1.282,-4.3586,1.282,-3.3333,1.7952,3.3333,
-1.7952,-7.949,12.5637,9.9998,12.5637,-23.8464,16.6667,-4.3591,1.7947,-0.76929,-1.282,-7.4363,0.76929,5.8972,
-4.6155,-6.6667,10.7693,11.282,12.8206,-26.6667,16.4104,-7.1794,0.51294,0.51294,-2.0515,-8.2053,-0.51294,4.6155,
-8.718,-5.6409,9.2307,7.1794,8.2053,-21.0256,10.2566,-10.2566,-6.6667,-5.6409,0.51294,-0.51294,10.7693,5.6409,
-6.9231,-6.9231,6.4104,0.76929,12.0515,-16.6667,3.8464,-10.5129,-12.5642,-12.051,-0.76929,6.4104,14.1028,4.8718,
-1.2822,-7.436,4.3589,3.333,20.2563,-16.1538,9.4873,-8.4614,-6.9233,-5.3848,-0.25635,7.436,9.4873,0.25635,
-1.7947,-5.3845,3.3333,7.4358,22.3079,-19.2307,14.6155,-5.8972,-1.282,-2.3074,3.8464,0.76929,14.1028,-0.76929,
-10.5129,-7.4358,6.9231,7.4358,9.9998,-21.7947,12.5642,-5.3845,-0.25659,-5.3845,0.25659,-4.3591,2.3079,5.8972,
-8.718,-3.5896,10.7693,9.7434,13.8459,-7.6926,11.7947,-3.0769,0.51294,-2.0515,-0.51294,5.1282,-4.6155,7.6921,
-3.5894,0,0,3.0771,27.6924,2.0513,8.7183,-7.1792,-6.6665,-7.1792,-0.51269,4.6157,3.0771,-0.51269,
-2.0513,2.564,0.5127,3.0767,12.6924,1.5386,12.3076,-4.1025,-6.1538,-6.1538,-0.5127,-5.6411,-2.0513,2.0513,
-2.0513,11.2822,9.231,10.2563,-2.3076,10.769,9.7437,2.0513,-5.6411,-4.1025,-2.0513,-2.0513,-9.7437,4.6152,
2.5642,11.282,3.5896,6.6667,11.7947,10.7693,7.6921,-5.1282,-10.7693,-13.3333,-7.1794,-3.5896,-13.8459,-2.5642,
17.5642,15.3845,0.51294,10.2566,26.7947,8.2048,22.5642,-1.0256,-5.6409,-8.2053,-8.2053,-9.2307,-18.4617,-0.51294,
32.5642,26.6665,-2.0513,10.769,41.7947,11.7949,22.0513,2.0513,-9.7437,-7.6924,-16.4106,-17.9487,-28.2051,-5.1284,
47.5642,37.1794,3.3333,7.949,56.7947,9.4871,22.3079,-3.3333,-14.1023,-18.2053,-22.3079,-31.5383,-35.6409,-15.1282,
62.5642,51.7952,11.7952,9.7439,71.7947,4.6155,36.4104,-4.6155,-10.7693,-19.9998,-19.9998,-33.8462,-25.1282,-13.3333,
77.5642,64.6152,13.3335,13.8462,86.7947,2.564,45.6411,-2.564,-6.6665,-12.8208,-15.8975,-32.8206,-18.9746,-5.6411,
91.0254,66.4102,17.6924,20.2563,101.7947,0.25635,48.4614,-0.25635,-3.3335,-11.5386,-14.1025,-44.3591,-25.8977,-5.8975,
106.0254,71.5381,26.9229,21.7949,116.7947,-4.8721,55.6406,3.8462,-3.8462,-10.5132,-11.5386,-45.8977,-11.0259,-5.8975,
104.1028,66.6667,25.6414,16.9231,131.7947,-19.8721,63.0769,-5.1282,-9.7434,-10.2561,-14.8718,-47.6921,3.9741,-4.6155,
96.1536,58.718,23.3333,22.3079,146.7947,-34.8721,67.9485,-13.0769,-3.8464,-8.4617,-17.6921,-48.4617,1.282,-1.282,
86.9231,47.949,24.8718,25.8972,161.7947,-49.8721,66.9231,-13.0769,2.3079,-6.4104,-14.1025,-50.5127,-2.3079,-3.3333,
71.9231,32.949,14.3589,12.8203,176.7947,-64.8721,52.3076,-24.1025,-4.6152,-12.8203,-12.3076,-65.5127,4.6152,-11.2822,
56.9231,17.949,10,10.5132,191.7947,-79.8721,51.5386,-31.5383,-5.8975,-9.4868,-9.4868,-66.4102,19.6152,-3.8462,
41.9231,2.949,11.0256,15.6409,206.7947,-94.8721,56.6667,-39.231,0.76929,-5.8977,-10.5129,-62.8206,9.4871,-0.76929,
26.9231,-12.051,14.1028,19.7434,191.7947,-109.8721,54.1028,-41.282,10.5129,-2.3079,0.25659,-60.7693,11.5383,-0.25659,
11.9231,-27.051,4.3589,11.5386,182.3076,-124.8721,42.8203,-45.8975,1.2822,-5.3848,-0.25635,-55.6411,26.5383,0.25635,
-3.0769,-42.051,0.76929,9.9998,167.3076,-139.8721,42.3074,-50,1.282,-0.76929,-6.9231,-51.5386,22.3074,2.3074,
-18.0769,-57.051,2.0513,14.3589,152.3076,-154.8721,47.6919,-48.7183,10.769,6.6665,-5.1284,-48.7183,19.4868,-2.0513,
-33.0769,-72.051,0.25635,11.5386,137.3076,-169.8721,47.9487,-53.0769,12.0513,5.8975,-0.25635,-46.9229,26.4102,-6.4102,
-48.0769,-79.4873,-0.5127,9.7437,122.3076,-184.8721,40,-58.4617,7.6924,0.5127,0.5127,-44.1025,31.2822,-3.5898,
-55.6411,-78.2053,-1.7949,14.6152,107.3076,-199.8721,39.7437,-53.5898,9.4873,1.7949,6.4102,-35.6411,38.7178,-1.7949,
-65.8972,-85.8972,-1.7949,13.0771,92.5645,-212.564,41.2822,-54.1025,10.5132,1.7949,6.4102,-38.2051,33.5898,-6.4102,
-67.9487,-86.4102,-0.25635,12.564,84.3589,-214.1025,35.6411,-56.6667,7.9487,0.25635,2.3076,-43.3333,27.436,-4.3589,
-64.1025,-85.1282,-2.0513,12.3076,75.8975,-211.7949,31.2822,-53.8462,11.7949,2.0513,5.1279,-49.7437,26.1538,-3.5898,
-63.0769,-83.5898,-2.564,12.8203,75.8975,-206.6667,33.8462,-49.7437,13.3335,2.564,10.2563,-48.718,35.8975,-6.6665,
-65.1282,-81.0256,-2.564,13.8462,77.436,-202.0513,31.7949,-49.7434,9.231,2.564,10.7695,-41.0256,45.1284,-4.1025,
-70.769,-89.7434,-4.1023,9.7439,64.6155,-206.6665,25.6414,-54.3589,8.718,1.0256,3.0769,-42.564,34.8718,-1.0256,
-69.4871,-89.4871,-1.282,11.0256,61.282,-203.3333,30.0002,-52.0513,10.5129,1.282,3.3333,-33.0769,36.6667,-1.282,
-69.4873,-87.436,-0.25635,12.564,57.6924,-199.7437,30,-51.5386,9.4873,0.25635,8.9741,-22.8206,35.6411,-1.7949,
-67.4358,-89.4871,-1.2822,14.1025,54.1025,-199.7437,26.9229,-48.4614,10.5127,-0.25635,8.9746,-27.9487,27.9487,0.25635,
-64.8718,-87.9487,-1.2822,12.0513,57.1797,-193.5898,30,-45.3845,11.5386,1.2822,7.436,-31.5386,36.1538,-4.3589,
-72.3076,-84.6152,-1.5386,7.1797,52.8208,-189.7434,29.7437,-49.2307,11.7949,1.5386,6.6665,-28.2051,36.9233,-6.1538,
-74.1025,-79.7437,-2.3079,5.3845,53.0769,-184.3589,22.8206,-48.9744,5.8977,0.76929,4.8718,-20.7693,27.949,-0.76929,
-68.9744,-79.7437,-1.7949,8.4614,53.5898,-180.7693,25.3848,-44.3591,7.9487,1.7949,5.3848,-21.2822,32.564,-1.7949,
-68.718,-82.0515,-3.0769,10.2561,48.718,-179.4873,29.2307,-46.6667,9.7434,3.0769,7.1794,-24.6155,41.0256,-7.1794,
-69.4871,-78.718,-6.9229,4.8721,48.9746,-171.5383,21.2822,-50.5127,4.8721,2.3076,5.8975,-18.718,39.231,-2.3076,
-71.5383,-79.2307,-8.9744,0.25659,41.282,-171.0256,20.7693,-50.5127,6.4104,1.7952,1.7952,-19.7437,30.5129,-0.25659,
-66.9231,-73.5898,-8.4617,7.4358,40.7693,-168.4614,25.3845,-42.8206,10.5129,5.3845,2.8206,-14.1025,33.5896,-2.8206,
-64.6155,-74.8718,-10.769,13.3335,36.4102,-168.2051,22.0513,-44.1025,6.6665,2.564,4.1025,-17.9487,27.1797,-2.564,
-66.9229,-79.2307,-5.3843,15.1284,21.4102,-169.9998,19.7437,-47.4358,6.9233,3.3335,2.3076,-26.9229,18.2051,-2.3076,
-64.8718,-70,-3.3333,12.5642,29.9998,-162.3079,19.7434,-42.8206,7.4358,3.3333,4.8718,-16.1541,33.0769,-6.9231,
-59.2307,-64.3589,-2.8206,14.1028,44.9998,-158.2051,27.949,-36.6667,12.0515,2.8206,15.6409,-13.5898,43.8459,-4.8718,
-60.7693,-71.5386,-5.3845,14.6155,58.718,-167.436,29.9998,-40.7693,11.0256,2.8206,9.4871,-28.5898,42.8206,-2.8206,
-62.5642,-71.282,-4.1025,16.4102,49.7437,-167.1794,28.7178,-44.6155,11.7949,6.1538,0,-26.1538,34.8716,0,
-62.8203,-73.0769,-4.8716,12.0513,40.7695,-165.8972,25.8975,-46.4102,11.0259,1.7949,1.7949,-17.1794,19.8716,-1.7949,
-60.2563,-71.5383,-0.76929,11.0256,53.0769,-158.2051,26.4104,-40.2563,9.4871,-0.25659,13.0769,-13.0769,32.5642,0.25659,
-64.3591,-72.0513,0.25635,8.4614,58.2051,-157.1794,23.8462,-42.3079,3.3335,-0.25635,12.0513,-19.7437,47.5642,-5.3848,
-60.5129,-66.6667,-2.564,8.7178,59.4873,-153.8462,24.1025,-44.1025,3.0771,2.564,9.7437,-16.4102,57.436,-10.2563,
-60,-67.1794,-8.2048,8.2053,57.4358,-148.2051,23.0769,-42.0513,7.1794,4.6155,11.282,-11.282,48.2053,-4.6155,
-64.3591,-74.6155,-11.0259,7.436,49.4873,-152.0513,19.7437,-43.8462,4.3589,-0.25635,5.8975,-20.7693,33.2053,0.25635,
-58.2051,-65.3845,-3.3333,10.5129,56.1541,-145.3845,23.8464,-40.2563,3.8464,-1.282,4.3591,-19.2307,34.6155,1.282,
-59.4873,-64.6155,-1.5386,8.2051,52.8203,-143.5898,25.1284,-38.9744,5.6411,1.5386,6.6665,-17.9487,40,-3.0771,
-60.2563,-66.4102,-5.3843,8.4619,52.0513,-140.2563,21.2822,-37.6921,4.8721,3.8462,6.4106,-11.5381,37.6924,-3.8462,
-59.231,-59.7437,-6.9233,8.9741,55.1279,-133.0771,19.2305,-37.6924,4.3589,1.7949,4.8716,-1.7949,42.3076,-4.3594,
-56.4102,-59.4873,-2.5642,12.8206,51.282,-136.9231,23.5896,-36.9231,9.2307,2.5642,12.8206,-10.7693,44.6155,-2.5642,
-52.8203,-61.5383,-2.0513,13.8462,51.2822,-138.9744,21.0259,-35.3845,5.1284,2.0513,14.3589,-20,41.5386,-2.564,
-53.0769,-55.1282,-1.7949,10.5127,51.0254,-130,20.2563,-32.5642,3.8462,1.7949,7.9487,-13.0771,36.6665,-2.8208,
-52.5642,-50.0002,-2.8206,9.4871,53.0769,-117.6924,21.282,-32.5642,6.4099,2.8206,6.9231,-3.3337,38.2048,-4.8718,
-52.8206,-55.8975,-6.6667,7.1794,54.3586,-120.5129,18.4617,-37.436,1.5383,-1.5383,7.1794,1.5383,44.6155,-8.718,
-52.3076,-57.4358,-0.51269,10.7695,51.2822,-126.1538,23.0771,-34.8716,5.1284,0,10.2563,0,45.6411,-1.0254,
-51.5383,-55.6409,0.25635,8.9746,45.3848,-125.3845,21.2822,-34.1023,3.3335,-0.25635,5.3848,-11.5381,38.2051,-1.2817,
-46.1538,-55.3845,0.51294,12.8206,47.1794,-120.5127,22.5642,-32.3076,5.1282,-0.51294,4.1028,-13.3333,38.9744,-1.0256,
-50.7693,-57.4358,-2.0515,12.8206,50.7693,-117.9487,21.0256,-33.3333,4.6155,-2.0515,5.1282,-8.2053,42.0515,2.0515,
-56.1538,-55.6411,-4.3589,6.9229,51.0254,-116.6667,18.2051,-32.5642,1.7949,-0.76904,9.4873,-8.9746,44.3589,0.76904,
-54.6152,-55.6409,-2.3076,6.4102,45.8975,-118.7178,20.7695,-31.0256,2.8208,2.3076,8.4614,-11.5386,42.3076,-5.3848,
-49.4873,-52.5642,-0.25635,8.9741,51.5381,-114.1028,20.2563,-29.4873,2.3076,0.25635,6.4102,-7.436,51.5381,-7.436,
-45.6409,-48.7178,-0.51294,9.7439,57.4358,-105.6409,22.0515,-27.1794,4.1028,0.51294,9.2307,-5.6409,56.9231,-0.51294,
-48.4614,-52.0513,-5.3848,6.4102,49.4873,-105.3845,18.2051,-34.1025,1.2822,0.25635,4.8721,-7.9487,42.3076,-0.25635,
-43.3333,-49.4873,-3.8462,6.9229,52.0513,-101.7949,16.1538,-33.0769,1.2822,-0.76904,4.3589,-1.2822,38.7178,0.76904,
-41.0259,-51.7949,0.51294,7.1794,52.8206,-103.0771,21.5383,-28.2053,5.6409,-0.51294,11.7947,-1.0256,38.9744,-1.0256,
-47.436,-53.5898,-5.3845,3.3333,50.5129,-102.8206,18.718,-31.0256,1.7947,-1.7947,8.4617,2.8206,28.9744,-7.4358,
-47.6926,-48.7183,-7.1797,3.5894,50.2563,-92.3079,15.3843,-30.7695,0,0,5.1279,10.2563,20.5127,-6.667,
-45.3845,-52.0513,-3.8459,3.3333,43.8464,-97.6921,15.1282,-32.0513,0.76929,-0.76929,4.8718,1.282,19.7439,-8.9744,
-41.7952,-49.4873,-2.8206,6.9231,47.4358,-101.2822,19.2307,-28.4617,2.3074,-0.76929,8.4612,0.76929,22.8206,-1.7952,
-43.5898,-45.6411,-5.6411,3.0767,50.769,-93.8462,17.436,-33.3335,-1.5386,-3.0771,5.6411,3.0767,15.3848,1.5386,
-38.718,-39.2307,0.25635,-0.25635,54.6152,-83.3333,13.0771,-32.0513,-2.8203,0.25635,7.436,12.0513,30,-1.7949,
-37.4358,-40,4.1025,0,49.7437,-91.282,11.2822,-27.6924,-2.564,0,10.7695,15.3848,40,-5.1279,
-39.2307,-48.4614,2.3079,2.8206,43.8464,-102.3076,15.6414,-34.1025,-1.282,-6.9231,5.8977,1.282,25,-3.3333,
-42.0513,-48.2051,-0.5127,5.6411,47.6924,-95.8975,16.4102,-37.4358,1.5386,-5.6411,5.1284,-2.0513,25.1284,0.5127,
-46.6667,-48.2053,-2.5642,7.1794,39.4871,-90.7693,15.8972,-32.3079,1.0256,-3.5901,9.7434,-1.0256,29.7434,2.5642,
-36.6667,-45.8975,-1.7949,10.5127,43.8462,-87.9487,17.6924,-27.9487,0.25635,-7.9487,10.5127,-0.25635,33.5898,2.8203,
-27.1797,-41.0259,-3.0769,9.2307,58.8462,-86.1541,26.6667,-33.3335,1.0256,-8.2053,6.1536,0.51294,38.4612,-0.51294,
-31.0256,-38.7178,-3.3333,9.4871,65.3845,-88.9744,34.6155,-38.2051,5.3845,-1.7947,3.8464,-0.25659,33.0769,0.25659,
-31.5386,-35.6411,-3.3335,12.0513,67.436,-83.3335,25.3848,-32.5642,3.8462,0.25635,3.3335,-3.3335,31.0254,-0.25635,
-29.7437,-36.4104,-3.5898,12.8203,69.2305,-80.0002,25.1279,-28.718,2.0513,5.6411,4.1025,-8.7183,33.8462,-2.0513,
-37.1794,-42.8206,-12.564,6.4102,58.7178,-86.9231,28.4614,-35.1282,-1.2822,7.9487,2.8203,-7.436,26.9229,1.2822,
-31.5383,-42.8203,-18.718,1.282,58.2053,-82.3076,26.4104,-34.6152,-1.282,5.3845,4.8718,-2.3074,32.5642,9.4871,
-26.1536,-41.5383,-16.4104,1.0256,59.4871,-76.4102,25.6409,-29.2307,-1.0256,3.5896,5.6409,-17.3074,45.6409,7.6921,
-24.1023,-33.8462,-13.8459,3.0769,58.9744,-68.7178,25.1282,-22.051,-3.0769,8.2053,8.2053,-32.3074,52.8206,7.1794,
-26.1541,-33.8464,-14.3591,1.0256,45.6409,-70.2566,19.9998,-22.5642,-1.0256,5.6409,8.7175,-38.9746,39.4871,9.7434,
-32.5642,-38.2053,-14.1025,1.2817,30.6409,-77.6924,16.6665,-26.9233,-0.25635,0.25635,6.4102,-34.1028,32.0513,4.8716,
-28.4617,-31.5386,-17.1794,4.8718,36.6667,-74.1025,23.3333,-23.8459,-2.3079,2.3079,7.4358,-24.3591,47.0513,2.3079,
-27.436,-32.5642,-15.6409,1.7947,37.1794,-72.0513,27.4358,-21.282,-1.7947,2.3079,8.9744,-27.9487,45.8972,9.4871,
-28.2053,-33.8462,-11.2822,2.0513,30.769,-73.3335,23.0767,-20.5127,2.564,-2.0513,10.2563,-34.8718,37.4355,14.3589,
-26.1541,-31.2822,-13.8462,6.6665,32.8203,-74.3591,22.564,-20.5127,2.564,-2.564,16.4102,-23.5898,47.6924,11.2817,
-23.5898,-33.3333,-16.4102,8.7178,28.7178,-72.8206,25.6411,-21.5386,0.5127,-0.51269,20,-15.3848,55.8975,11.2822,
-28.2051,-32.8206,-15.8975,9.7437,13.8462,-69.2307,24.6152,-20,1.5386,-1.5386,12.8203,-25.1282,43.5898,15.3848,
-36.9231,-29.7437,-18.4617,9.7434,7.6921,-69.2307,19.4871,-18.9744,3.0769,-3.0769,6.6667,-34.3589,32.8206,14.8718,
-30.7693,-20.0002,-19.4871,13.3333,22.051,-61.5386,19.4871,-15.8977,2.5642,-2.5642,10.7693,-26.6667,47.8206,15.8972,
-26.9231,-19.231,-15.1284,18.2051,19.7437,-59.7437,25.3848,-15.6411,1.7949,-1.7949,12.564,-28.9744,46.9229,19.2305,
-30.7693,-28.2051,-12.8206,21.0256,6.1536,-71.282,27.1794,-17.9487,-0.51294,0.51294,8.2053,-41.5386,31.9229,15.8972,
-29.2307,-26.6665,-7.6921,20.5129,15.8977,-68.7178,26.1541,-17.4358,-3.0769,3.0769,7.6926,-41.0256,22.5642,14.3591,
-28.718,-23.0769,-5.6409,17.9485,20.5129,-62.5642,25.6409,-15.8975,-3.0769,3.0769,7.6921,-42.5642,24.6155,16.9231,
-28.4617,-22.3079,-14.1025,17.6924,16.6665,-59.7437,27.436,-12.564,-4.3589,4.3589,5.3848,-37.6924,25.3848,17.1792,
-29.7434,-26.1538,-12.3074,18.9744,6.1541,-65.6409,30.2566,-15.3845,-4.6155,6.6667,4.6155,-31.282,22.5642,17.949,
-29.2307,-29.7434,-3.0767,22.564,-2.0513,-73.8462,30.2563,-18.9744,2.0513,4.1025,4.1025,-44.6152,12.3076,17.9487,
-27.436,-27.436,-14.1028,18.2048,9.9998,-68.9744,25.3845,-17.1797,0.76929,-0.76929,1.282,-50.5129,13.0769,11.5383,
-27.1794,-25.1282,-27.1794,16.4104,12.8206,-63.5898,25.6409,-15.3845,-1.5383,2.5642,1.5383,-43.5898,14.3591,13.3333,
-21.282,-20.2563,-22.3076,22.8208,4.8721,-63.8459,28.4619,-13.5896,-1.7949,5.3848,1.7949,-39.2307,12.5645,15.6411,
-19.7437,-16.6667,-14.1028,24.3586,7.9485,-61.7949,30.5129,-11.5383,-2.8206,4.8718,2.8206,-31.5386,17.1794,14.1023,
-29.4873,-22.3079,-16.1541,15.6409,6.9231,-60.2566,23.3333,-16.6667,-2.3079,5.3845,2.3079,-28.9744,17.6921,14.1023,
-27.1794,-24.1023,-18.4617,9.7434,8.718,-54.8718,16.4104,-16.9231,-3.5896,4.1028,3.5896,-26.1538,20.0002,14.3591,
-23.0767,-24.1025,-17.436,11.7949,13.3335,-53.8462,24.1025,-15.3848,-3.5898,3.5898,8.7178,-26.6667,20,7.1797,
-26.4102,-21.7947,-17.6921,15.1282,16.1541,-56.6665,28.4617,-17.6921,-2.8206,2.8206,9.4875,-32.051,22.8206,6.4104,
-26.9231,-15.6409,-14.1028,17.1794,17.6921,-52.5642,24.3591,-12.0515,-3.3333,3.3333,5.3845,-32.5642,31.0256,17.6921,
-24.3591,-19.7437,-9.4871,16.6667,13.0769,-47.9487,23.8459,-10.0002,-3.3333,5.8972,3.3333,-32.0513,24.8718,17.1794,
-21.2822,-20.7695,-12.5645,11.5381,14.1025,-43.3335,22.3076,-15.1284,-1.7949,1.7949,2.8203,-30.5129,17.6919,9.4868,
-24.3591,-16.6667,-17.1794,7.9485,15.1282,-43.3333,18.718,-16.6667,2.3079,-2.3079,2.3079,-25.8975,16.1541,10.5129,
-22.8206,-14.1028,-12.0515,12.051,16.1541,-42.3076,17.6921,-16.1541,-1.7947,1.7947,4.3591,-20.2566,18.718,12.051,
-9.4871,-8.4617,-10.0002,18.2053,27.4358,-30,22.3079,-13.5896,-4.3591,4.3591,11.0256,-20.7693,25.8972,14.1023,
-6.1536,-5.6409,-21.0256,16.4104,27.1794,-27.1794,25.6414,-8.718,1.0256,-1.0256,10.2566,-25.6409,23.0769,15.3845,
-13.3333,-7.1794,-28.2051,15.3845,23.5901,-30.769,21.0256,-6.6667,1.0256,-1.0256,6.1541,-16.9231,23.0769,12.3079,
-14.3591,-12.8206,-20.5129,17.4358,20.0002,-32.8206,17.4358,-10.2566,-1.5383,1.5383,8.2053,-10.2566,22.0515,9.7434,
-7.1794,-7.6921,-6.1541,16.4104,23.0769,-31.282,19.4871,-6.1541,0.51294,-0.51294,10.2566,-10.7693,14.3591,13.3333,
-7.1797,-0.5127,-2.0513,12.3076,25.6411,-27.6924,21.0259,-2.0513,0.5127,-0.5127,11.7949,-5.1284,8.7178,13.8462,
-16.6665,-9.4873,-8.9746,12.0513,12.564,-33.5898,21.2822,-7.9487,-1.2822,1.2822,12.0513,-6.9233,7.436,11.0254,
-18.4614,-11.2822,-13.3335,16.9229,7.1797,-36.4102,18.4614,-11.2822,0,0,6.6665,-10.2563,19.4873,14.3589,
-19.231,-11.0259,-7.9487,17.6924,2.3076,-37.6924,17.1792,-11.5386,1.2822,-1.2822,3.8462,-17.6924,7.436,14.1025,
-20.2563,-13.5898,-0.25635,19.7437,0.76904,-34.6152,19.7437,-8.9741,0.25635,2.8208,4.8721,-22.3076,-7.564,12.564,
-17.436,-11.2822,-4.1025,21.0254,8.2051,-27.6924,22.0513,-6.6665,0.5127,6.6665,3.5898,-14.3589,-0.5127,18.4614,
-16.9229,-14.3589,-10.2563,15.8975,0,-34.3589,18.9746,-12.3076,0,1.5386,4.6157,-17.4355,2.5645,17.436,
-12.5642,-11.5383,-3.8459,17.6921,0.25659,-32.564,15.6409,-9.9998,-0.25659,1.7952,16.1541,-17.6921,5.3845,11.5383,
-19.4871,-13.8462,-0.51269,17.9487,1.0259,-31.7947,16.9233,-8.7178,-3.5898,4.6157,11.7949,-21.0256,0.5127,11.2822,
-22.3076,-14.6155,-0.25635,21.2822,3.3335,-31.5383,21.2822,-9.4873,0.25635,8.4614,4.8716,-29.4871,-1.7949,18.7178,
-22.564,-12.3074,-4.1023,18.9744,-0.51294,-30.769,12.8206,-9.7434,0.51294,8.2053,8.718,-26.1538,6.1541,17.949,
-27.9487,-17.1794,-3.3333,17.1794,-11.0256,-36.6667,11.0256,-8.9744,3.3333,7.949,8.9744,-22.8206,7.949,15.6409,
-25.8977,-20.2566,-3.8462,15.1279,-1.7949,-38.718,12.564,-10.5132,1.7949,3.8462,2.8203,-27.436,3.333,13.0767,
-18.9741,-17.4355,-4.6152,14.3589,12.3076,-33.3333,12.3076,-11.2817,-2.0513,4.1025,7.6924,-27.1794,2.0513,11.7949,
-23.5898,-20,-5.1284,15.8975,5.6411,-35.3845,11.7949,-12.3076,-3.0771,8.7178,10.769,-23.5898,3.0771,12.3076,
-23.0769,-16.9231,-5.1282,16.9231,5.1282,-31.282,12.8206,-8.2048,-5.1282,8.2053,5.1282,-12.8206,8.2053,14.3591,
-20.7693,-14.6155,-2.3079,15.1282,4.3591,-28.4617,9.4871,-10.0002,-4.3591,2.3079,5.3845,-10.0002,5.8972,13.5896,
-22.3076,-14.6152,3.3335,18.2051,-4.8716,-28.9741,4.8721,-11.0254,2.3076,1.7949,8.9746,-15.6406,-1.7949,12.5645,
-21.7949,-11.5386,4.3589,21.2817,-4.3589,-25.8975,12.564,-5.8975,6.4102,5.3843,10,-16.6667,-5.3848,19.7437,
-16.6665,-12.0513,-2.8203,16.1538,2.8208,-24.3589,17.1797,-7.436,1.7949,7.436,11.0259,-14.1025,-1.7949,23.8462,
-16.6667,-13.5896,-9.4871,10.0002,4.8718,-25.3845,4.8718,-12.5642,-4.8718,6.4104,9.4871,-11.0256,13.2051,16.6667,
-20,-10.769,-2.0513,10.2563,0,-27.6921,4.6157,-8.2051,0,6.667,5.1284,-13.8462,16.4106,10.7695,
-16.4102,-8.2051,0.5127,9.7437,1.0259,-25.6411,9.7437,-6.6665,-4.1025,-0.5127,0.5127,-13.8462,12.8208,10.2563,
-6.667,-4.1025,0,14.3589,16.0259,-15.8975,12.8203,-8.2056,-5.6411,0,10.2563,-4.1025,27.8208,13.333,
-13.5896,-11.0256,1.282,11.0256,15.1282,-23.3333,7.9485,-14.6155,-7.9485,-1.282,9.9998,-16.6667,22.3079,6.9231,
-18.4614,-11.2817,2.0513,10.7695,14.8721,-25.1279,4.6157,-12.8203,-7.1792,-2.0513,5.6411,-22.0513,12.8208,8.2051,
-19.2305,-12.0513,-1.7949,13.0771,10.5127,-25.8975,5.3848,-11.0254,0.25635,-0.25635,8.9746,-12.0513,18.2051,13.5898,
-19.7437,-15.6411,-0.25635,6.9229,6.4102,-28.4617,3.3335,-10,-2.8203,0.25635,7.436,-5.3848,12.564,14.6152,
-15.6411,-10.5127,0.76904,5.3848,16.6665,-15.6411,5.3848,-7.436,-6.9229,-0.76904,5.8975,-11.0259,8.4614,14.1025,
-8.9744,-7.4363,-10.0002,12.5637,19.2307,-11.5388,11.5383,-8.4617,-1.282,1.282,8.9744,-23.3335,8.4612,13.5896,
-5.8975,-10.5127,-22.8203,13.5898,13.5898,-17.1797,10.5127,-11.5386,-1.7949,1.7949,5.8975,-24.3591,8.4614,8.4614,
-6.4104,-8.4617,-15.6414,12.5637,18.2048,-12.0515,15.1282,-5.385,-2.8206,2.8206,5.3845,-18.718,9.4871,9.9998,
-10.2563,-5.6411,-7.6924,12.8203,23.0767,-6.1538,15.3843,-2.0513,-5.6411,2.0513,4.1025,-20,9.7437,12.3076,
-9.2307,-6.6667,-6.6667,16.4104,16.4104,-9.2307,9.2307,-2.5642,-5.6409,3.5901,2.5642,-20.5125,7.1794,16.4104,
-10.7693,-11.7947,-4.6155,20.5129,3.0769,-18.4617,10.7693,-5.1282,1.5383,5.1282,4.1028,-21.5386,-1.5383,19.9998,
-11.0256,-4.8718,-3.8459,19.7439,9.4875,-12.5637,12.5642,-3.8459,2.8206,4.3591,6.4104,-16.1536,-2.8206,16.6667,
-7.949,1.282,-2.8206,12.5642,18.718,-1.282,8.9744,-2.8206,-2.3079,4.3591,5.3845,-4.3591,-4.8718,10.5129,
-8.2048,-3.0769,-3.5896,6.1541,14.3591,-6.6667,5.1282,-7.6921,-7.1794,1.0256,1.0256,1.0256,-1.0256,7.6921,
-6.6665,0,-5.1279,10.769,13.3335,-9.7437,12.3076,-4.1025,-5.1279,0,6.6665,-2.0513,12.8208,16.9233,
-12.3076,-5.6411,-7.1797,12.8203,2.0513,-14.3589,11.2822,-3.0767,-0.5127,0.5127,7.6924,-16.4102,1.5386,20,
-10.5129,-7.9485,-2.3079,15.6409,-1.282,-16.6667,5.3845,-2.8206,3.8464,4.8718,1.7952,-11.5383,1.282,15.1282,
-7.9487,-4.8721,-1.2822,14.1025,0.25635,-19.231,5.3848,-5.8975,-0.25635,4.8716,2.8203,-3.8462,6.4102,10.5127,
-5.3845,-0.76929,-1.282,14.1028,4.3591,-13.5896,11.5383,-3.3333,-1.282,5.8977,13.5896,-11.5383,0.76929,12.0515,
-5.8975,-4.8721,-2.3076,11.0254,7.4355,-11.5386,7.4355,-0.25635,0.25635,3.333,7.9487,-18.7183,-2.3076,11.0254,
-8.4617,-12.0515,3.3333,11.0256,0.76929,-18.2053,5.3845,-0.76929,2.8206,4.3586,-1.7952,-13.5901,-0.76929,9.9998,
-8.4614,-7.436,2.3076,11.5386,2.3076,-11.5386,5.3848,-2.3076,-0.25635,5.3848,0.25635,-3.8462,-1.2817,12.0513,
-4.6155,-2.5642,-3.5901,9.2307,8.2048,1.0256,5.1282,-1.0256,-2.5642,2.5637,2.051,-3.5901,-4.6155,15.8972,
-4.3591,-6.4104,-0.76929,13.0769,1.282,-1.2825,5.3845,0.76929,0.76929,3.8459,-2.3079,-12.5642,-7.949,13.5896,
-9.4873,-5.8975,0.76953,15.6411,-2.8203,-6.4102,5.8975,-0.25635,1.2822,8.4614,0.25635,-12.0513,-7.436,10,
-14.6155,-9.9998,1.282,13.5896,-7.9485,-11.5383,6.4104,-0.76929,0.76929,9.4871,4.3591,-10.5129,-16.1536,15.1282,
-11.5386,-13.5898,1.7949,14.6152,-12.5645,-14.6157,5.8975,-1.7949,1.7949,7.9487,2.8203,-16.1538,-22.8208,15.1279,
-4.8716,-9.4873,2.3076,15.6411,-8.9741,-12.0513,6.9233,-1.7949,3.8462,7.436,1.7949,-21.282,-19.7437,10.5127,
-4.3591,-10.0002,4.3586,14.1023,-2.3079,-12.0515,5.3845,-0.76929,0.76929,4.8718,0.76929,-19.7439,-14.6155,13.5896,
-6.4099,-9.4871,7.949,16.1541,-2.8206,-9.9998,8.4617,1.282,-1.282,7.4363,2.3079,-8.9744,-5.8972,20.7693,
-9.7434,-12.8206,7.6926,15.8977,-14.3586,-12.8206,11.282,-1.5383,1.5383,9.7439,5.1282,-8.2048,-8.718,16.4104,
-6.4102,-12.564,7.9487,15.6411,-10.5127,-14.1025,6.4102,-2.3076,2.3076,5.8975,3.3335,-6.4102,-10.5127,12.0513,
-5.6411,-9.7437,8.2051,17.9487,-5.6411,-14.8716,5.6411,-0.5127,4.1025,4.6152,0.5127,-4.6152,-14.3589,14.3589,
-8.4614,-10,7.436,16.1538,-15.1279,-15.6411,8.9746,-2.8203,8.4614,4.3589,2.8203,-12.564,-19.2307,13.5898,
-6.1541,-8.718,9.2307,8.718,-13.3333,-8.2053,4.1028,-1.0256,1.0256,2.0515,4.6155,-5.6409,-6.6667,12.3079,
-7.949,-11.0256,8.4617,6.9231,-8.4617,-5.8977,1.7947,0.25659,-4.8718,2.3079,3.8459,-0.25659,-8.9744,13.0769,
-9.2307,-8.2053,5.1282,12.8206,-5.6409,-6.1541,3.5896,-0.51294,0.51294,5.1282,3.0769,-1.0256,-18.9744,14.3591,
-6.1541,-6.1541,6.6667,11.7947,-3.0769,-4.6155,-1.0256,-1.0256,1.0256,5.1282,1.0256,9.7434,-16.9231,12.3074,
-5.6411,-8.2056,10.769,8.7178,-6.667,-3.5898,-1.0259,0,0,6.6665,2.564,12.3076,-18.4619,10.769,
-5.6409,-7.6926,6.1536,10.2561,-1.5383,1.5383,-4.6155,1.5383,-2.5642,5.1282,5.1282,-1.5383,-15.8977,6.6667,
-6.4104,-12.0515,1.282,11.0256,6.4104,1.282,-7.9485,0.25659,-4.3591,-0.25659,4.3591,-5.8972,-9.4871,3.3333,
-2.564,-10.769,3.5898,8.7183,3.5898,0,-6.6665,0,-2.564,-1.0254,0,2.0513,-10.2563,6.667,
-0.51294,-2.5642,5.1282,7.6921,-2.051,4.1028,-3.5896,1.5383,-1.0256,0.51294,0.51294,-3.5896,-16.9231,13.3333,
-5.8972,-8.4617,0.25659,13.5896,-14.1023,-6.4104,-0.25659,1.282,3.3333,3.8464,3.8464,-18.5896,-31.9231,15.1282,
-1.282,-7.4358,-14.7434,22.8206,-7.949,-8.9744,1.282,5.3845,8.4617,9.9998,7.9485,-20.2566,-41.2822,19.7434,
-5.1284,-4.6157,-29.7434,15.8975,0,-5.1284,0,0,4.6152,4.6152,2.0513,-6.667,-26.2822,16.4102,
-1.5383,-1.0256,-31.2817,22.0515,-4.615,-5.6409,10.2566,4.1028,10.7693,11.2825,1.0256,-2.5637,-22.051,20.5129,
3.0769,-6.1536,-24.6152,27.6926,-13.3333,-18.4614,6.6667,6.6667,13.8464,14.3591,-3.0769,-12.3076,-37.051,21.0256,
2.3076,-3.3335,-21.282,28.9741,-9.4873,-14.6155,2.3076,7.9487,16.6665,14.1025,-2.3076,-12.5642,-51.0256,24.3589,
-0.51269,0.5127,-21.0256,26.6665,-8.718,-5.1284,0.5127,4.6152,12.3076,11.2817,-5.6411,-6.1538,-46.6667,24.1025,
2.3076,-2.3076,-17.6921,26.9233,-8.9744,-15.6409,2.8208,2.3076,13.5898,13.5898,-11.5383,-6.4102,-42.3076,22.3076,
3.0769,-3.0769,-11.2822,26.6663,-5.1284,-26.667,4.615,3.0769,19.9998,15.8972,-10.2566,-16.4104,-41.0259,21.5383,
-1.0259,0.5127,-15.3848,25.1279,-0.5127,-19.4873,1.0254,2.0513,18.4614,12.3076,-5.1284,-12.8206,-42.0513,21.5386,
0.25635,1.2817,-19.7437,26.9229,-2.8208,-15.1284,3.8462,-0.25635,20.2563,13.5894,-2.3079,-3.3335,-44.3591,26.4102,
6.1537,0.51282,-15.3846,25.1283,-4.6154,-17.4359,6.6669,-0.51282,19.9999,16.9232,-4.1027,-13.3334,-42.5641,25.641,
7.6925,-0.51282,-7.1796,26.1539,-4.1027,-16.923,7.1793,0.51282,14.359,19.4869,-5.1283,-25.1283,-46.1539,22.5641,
3.8463,-1.2821,-6.923,28.4615,0.25647,-12.5641,5.8976,-0.25647,15.1281,21.2819,-6.4103,-14.6154,-50.5128,26.923,
0.51294,-0.51294,-16.9231,22.5642,4.6155,-8.2053,0.51294,-3.0769,17.4358,16.4104,-11.2822,-5.1284,-50.2566,25.6409,
2.8206,-2.3076,-13.5896,23.3333,0.76929,-10.5127,5.3845,-0.76929,24.8718,19.2307,-8.9744,-12.0513,-56.1538,26.9231,
3.8461,-6.4103,-13.5897,23.8461,1.7948,-16.1537,5.3846,-1.7948,21.2821,18.205,-10.5128,-12.0511,-59.7435,22.308,
4.1025,-0.5127,-19.4873,17.436,5.1279,-10.2563,0.5127,-3.5898,10.2563,9.7437,-10.769,-3.0771,-53.3335,17.9487,
4.1025,1.5386,-18.4617,16.9229,2.564,-2.564,-1.5386,-1.5386,10.2563,10.769,-9.7437,-4.6152,-47.6924,19.4873,
2.564,-1.5386,-18.4614,22.0513,6.1538,-3.0767,0,0,12.8208,15.8975,-14.3589,-1.5386,-46.1538,21.5386,
0.25635,-1.2817,-13.5896,23.3335,3.8462,-6.4102,6.9233,-0.25635,18.2051,14.6152,-10,-0.25635,-56.1538,25.8975,
1.7949,1.7949,-7.436,22.3076,-1.7949,-4.8718,2.8203,-1.7949,21.7949,14.1025,-2.3076,-4.3591,-54.6155,26.4102,
5.1283,3.077,-5.641,25.641,-5.641,-5.1281,0.51282,-0.51282,22.5643,22.5643,-2.5641,-0.51282,-46.1537,29.2308,
-0.25635,0.25635,-2.8206,30.0002,-10,-11.0256,8.9744,1.7949,21.282,25.3845,-4.8718,-2.3076,-49.4871,31.5383,
-4.6152,0,0,26.6667,-8.2051,-11.7947,4.1028,0,17.949,17.949,-4.1025,-3.5896,-41.5383,23.0769,
1.2823,-0.76917,3.3336,26.923,-7.9486,-9.4872,-0.25647,0.25647,21.2823,19.7438,-2.8204,-1.2821,-37.6923,21.2823,
5.1283,-0.51282,-0.51282,29.7435,-6.6666,-7.6923,0.51282,3.077,18.9745,21.0258,-8.205,-2.5641,-50.7692,26.1542,
-2.0515,2.051,-9.7437,23.0769,-3.5896,-5.1282,-1.5383,3.5896,12.3074,15.3845,-10.2566,1.5383,-40.5129,23.5896,
-2.3079,-0.25659,-7.436,21.282,-0.76929,-4.3591,0.25659,2.8206,13.5896,16.6667,-5.3845,3.8459,-25.5129,24.8718,
1.0254,0,-4.6157,21.0254,5.1279,-3.0771,-1.0259,0,9.2305,14.3589,-10.7695,-1.0259,-38.4617,28.2051,
-2.0513,2.5645,-5.1279,20,3.5898,0,0,-0.51269,9.231,11.2822,-10.769,-6.6665,-47.6921,22.0513,
-1.2822,5.8975,-3.8462,24.3589,-0.25635,-0.25635,1.7949,0.25635,14.6152,14.6152,-1.2822,-5.3848,-32.6921,16.1538,
-2.8203,2.8203,-5.8975,20.2563,1.7949,0.25635,-0.76904,-2.3076,11.0259,10,-4.3589,-0.25635,-17.6921,19.231,
-3.8459,2.3079,-4.3586,14.1028,0.76929,2.3079,-1.282,-0.76929,11.5388,7.949,-8.4612,-3.8459,-21.7947,19.7439,
-1.5383,4.6155,-2.5642,13.8459,-0.51294,0.51294,-5.1282,2.051,13.3333,12.3079,-6.6667,-6.6667,-26.1538,13.3333,
0,0,-0.5127,22.0513,-3.5898,-4.6155,-0.5127,2.564,17.9487,17.9487,-0.5127,3.0771,-32.8206,21.5386,
-2.0514,-6.6666,2.0514,25.1281,-12.3077,-15.3846,4.1027,-0.51282,20.0001,16.923,0.51282,-2.5641,-38.9742,24.1027,
1.282,1.7947,0.25659,22.3079,-9.4873,-8.4617,-0.25659,-1.282,16.6667,13.0769,-3.3333,-17.5641,-36.1538,16.1541,
6.667,5.1284,-4.6152,19.4873,-6.6665,2.0513,-4.1025,-2.0513,14.3594,10.2563,-8.7178,-23.0767,-45.1279,13.3335,
8.9746,3.8462,-9.4868,19.231,-8.9741,2.3076,-4.8716,-2.3076,10.5132,7.436,-10.5127,-16.6665,-45.8972,13.0771,
5.6411,6.6665,-11.2822,14.8716,-8.7183,0,-6.667,0,6.6665,5.6411,-12.3076,-9.231,-34.3591,10.2563,
5.1279,7.1792,-15.3848,11.2817,-6.1538,0.5127,-11.7949,-0.5127,5.6411,3.0767,-16.4102,-3.0771,-35.3848,8.7178,
7.436,0.25635,-18.7178,10.5127,-7.9487,0.25635,-16.6665,-5.3848,0.25635,0.25635,-16.6665,-0.25635,-41.282,6.9233,
22.436,4.8716,-5.3848,17.6924,-8.9741,0.76904,-5.8975,-2.3076,8.4614,6.4102,-10,-0.76904,-40.7693,10,
37.436,12.3079,-5.6409,16.4104,-2.5642,1.0256,-9.2307,-1.0256,7.6921,5.1282,-16.4104,-6.6667,-35.8975,9.7434,
39.2307,6.9231,-13.5896,9.9998,5.3845,1.282,-23.8462,-2.3079,-1.282,1.7947,-17.1794,-8.4617,-31.5386,8.4617,
28.9744,5.385,-7.4358,7.949,15.1282,7.949,-36.6665,-2.8206,-0.76929,0.76929,-14.615,-5.3845,-37.6921,11.0256,
43.9744,20.385,-4.6152,10.769,30.1282,16.9229,-51.6665,-1.5386,1.5386,-1.5386,-19.4873,-8.7178,-40,13.8462,
58.9744,33.5898,-5.3848,12.0513,45.1282,4.3589,-66.6665,-5.8975,0.25635,-0.25635,-18.2051,-23.7178,-46.9231,13.0771,
73.9744,48.5898,-0.5127,14.8716,60.1282,-8.2051,-57.436,-9.231,0.5127,3.5898,-12.8206,-25.6411,-53.3335,13.3335,
88.9744,63.5898,-0.51294,14.8718,75.1282,-3.0769,-42.436,-7.1794,0.51294,-1.5383,-20.5127,-20,-63.5896,12.3079,
103.9744,78.5898,-1.7949,12.0513,90.1282,-0.25635,-27.436,-5.8975,0.25635,-3.333,-28.9741,-32.0513,-78.5896,7.9487,
118.9744,93.5898,-1.2822,10.5127,105.1282,-10.5129,-12.436,-8.9746,0.25635,-0.25635,-27.436,-38.718,-93.5896,4.8716,
133.9744,108.5898,-1.0254,11.7949,120.1282,-19.4871,2.564,-11.7947,0,0,-29.7434,-38.4614,-108.5896,4.1025,
148.9744,123.5898,-1.282,14.1028,135.1282,-11.0256,17.564,-3.3333,-6.9231,1.282,-38.7178,-47.9487,-115.6409,1.282,
163.9744,138.5898,-1.0256,10.7688,150.1282,-6.667,32.564,5.1282,-11.2822,1.0256,-45.1284,-62.9487,-130.6409,-2.0515,
178.9744,153.5898,1.282,8.4617,165.1282,-13.0769,47.564,2.8206,-6.9231,-2.8206,-46.4104,-77.9487,-145.6409,-1.282,
193.9744,168.5898,1.0256,12.8206,180.1282,-1.0256,62.564,7.6921,-9.231,-2.0515,-51.2822,-82.5642,-137.9487,-1.0256,
208.9744,183.5898,-11.0256,4.8721,195.1282,3.8462,77.564,13.0771,-19.7434,-3.8462,-65.8972,-97.5642,-147.9485,-10,
223.9744,198.5898,-7.436,6.9229,210.1282,0.76904,92.564,21.7949,-13.0769,-0.76904,-65.8975,-104.8718,-162.9485,-6.9231,
238.9744,213.5898,-3.5897,9.7438,225.1282,2.5641,107.564,26.6666,-8.7179,-2.5641,-62.0511,-89.8718,-167.6923,-3.5897,
253.9744,228.5898,-14.8718,3.5898,240.1282,12.3076,122.564,30.769,-13.3335,-3.5898,-64.6155,-94.8718,-168.718,-6.1541,
268.9744,243.5898,-23.0769,1.5386,255.1282,27.3076,137.564,42.0513,-16.4102,-1.5386,-66.1538,-100.5127,-163.0769,-7.1792,
283.9744,258.5898,-21.5386,3.5896,270.1282,37.9485,152.564,46.6667,-14.3591,-3.5896,-67.6924,-94.3591,-163.5898,-9.7437,
298.9744,273.5898,-23.5896,3.5898,285.1282,44.1025,167.564,43.5898,-15.3845,-3.5898,-68.2051,-94.3589,-161.0256,-10.7693,
313.9744,288.5898,-21.2822,-0.25635,300.1282,57.6924,182.564,43.333,-19.231,0.25635,-62.8206,-92.5642,-146.0256,-10.5127,
328.9744,303.5898,-11.0254,1.2822,315.1282,59.7437,197.564,45.8975,-15.6411,-1.2822,-57.6924,-85.8975,-131.0256,-12.0513,
343.9744,318.5898,-12.5642,2.8206,330.1282,61.7947,212.564,45.3845,-15.1284,-2.8206,-57.6924,-76.6667,-116.0256,-11.0256,
358.9744,333.5898,-21.282,-0.76904,345.1282,64.8716,227.564,41.2822,-19.7437,0.76904,-58.2051,-68.9744,-107.4358,-4.8716,
373.9744,348.5898,-24.6152,-0.51294,360.1282,56.9231,242.564,36.9231,-22.0513,0.51294,-62.564,-70.2563,-122.4358,-5.1282,
388.9744,363.5898,-22.8206,1.7949,375.1282,59.7437,257.564,39.2305,-17.1797,-1.7949,-63.3335,-63.3335,-122.8206,-10,
403.9744,378.5898,-21.282,0.25659,390.1282,72.051,272.564,38.718,-12.5642,-0.25659,-57.6924,-54.1025,-107.8206,-10.0002,
418.9744,393.5898,-24.8721,-1.7949,405.1282,80.769,287.564,38.2051,-16.1538,1.7949,-52.0515,-49.4873,-92.8206,-6.4106,
433.9744,408.5898,-26.4104,-2.3076,420.1282,75.6411,302.564,36.6665,-17.1797,2.3076,-50,-47.9487,-77.8206,-5.8975,
448.9744,423.5898,-20,-1.5386,435.1282,64.1025,317.564,33.8462,-15.3848,1.5386,-49.7437,-44.6152,-71.282,-8.2051,
463.9744,438.5898,-15.6409,0.25659,450.1282,64.3591,332.564,33.0769,-17.1794,-0.25659,-46.4102,-39.7437,-56.282,-6.9231,
478.9744,453.5898,-14.3589,0.5127,465.1282,62.0513,347.564,31.7949,-16.4102,-0.5127,-44.6155,-45.1282,-49.7437,-5.6411,
493.9744,468.5898,-10.769,0,480.1282,58.4614,362.564,33.8462,-13.8462,0,-46.6667,-41.5383,-49.7437,-1.5386,
508.9744,483.5898,-14.8721,-6.1538,495.1282,56.9229,377.564,33.8462,-15.8975,-1.5386,-47.6924,-34.8718,-35.3848,1.5386,
523.9744,488.7178,-22.0513,-6.6665,510.1282,55.3848,392.564,30.2563,-14.3589,2.0513,-39.4871,-38.9744,-31.282,-2.0513,
538.9744,478.9744,-25.1282,-1.5383,525.1282,56.9231,407.564,28.2048,-15.3845,1.5383,-33.8462,-35.3848,-17.4358,-6.6667,
553.9744,468.9741,-23.8462,-0.25635,540.1282,53.0767,422.564,28.4614,-15.6411,0.25635,-35.6411,-27.9487,-8.4614,-1.7949,
568.9744,461.0256,-26.1541,-4.6155,555.1282,48.2048,437.564,23.5896,-18.4617,-0.51294,-42.5642,-31.2822,-14.3591,0.51294,
583.9744,455.1282,-20.2566,-1.282,570.1282,51.5383,452.564,23.3333,-14.1028,-1.282,-37.1794,-38.718,-6.9231,1.282,
598.9744,440.1282,-18.4619,0,585.1282,45.1279,467.564,21.5381,-12.3081,-7.1797,-32.3079,-49.231,0,-2.5645,
600.5127,425.1282,-25.6411,-5.6411,600.1282,44.1025,482.564,17.9487,-19.4873,-3.5898,-40,-43.0769,3.5898,-6.1538,
590.7693,415.3845,-28.2048,-11.282,615.1282,44.6155,497.564,15.8977,-22.5642,0.51294,-46.6665,-41.5383,-0.51294,-9.7434,
589.9998,408.4617,-25.3845,-8.4617,630.1282,40.7693,512.564,18.2053,-20.7693,-4.8718,-39.2307,-47.9487,4.8718,-11.0256,
580,395.8975,-32.3076,-10.769,645.1282,36.4102,527.564,11.7949,-24.6152,-9.231,-38.4617,-45.6411,9.231,-13.8462,
565,385.1282,-35.3845,-12.8206,660.1282,35.3845,542.564,8.2053,-23.5896,-8.2053,-45.1282,-34.3591,10.7693,-13.8459,
550,378.4614,-36.4102,-12.8203,675.1282,36.4102,557.564,9.7437,-23.0771,-9.7437,-42.0513,-27.1797,18.9746,-12.8203,
535,372.8206,-36.9231,-12.8206,690.1282,33.8459,572.564,8.718,-27.6921,-9.7434,-33.3333,-29.7434,18.4617,-8.718,
520,374.1028,-31.5383,-10.5125,705.1282,35.6414,587.564,6.9231,-29.4871,-9.4871,-36.1536,-29.4871,21.7952,-6.9231,
505,376.6667,-32.051,-12.051,720.1282,39.7439,602.564,10.5129,-23.8459,-12.051,-33.5896,-18.718,31.5383,-10.5129,
490,368.4614,-36.1538,-14.1025,735.1282,37.6924,617.564,12.0513,-18.2051,-12.0513,-24.3589,-12.0513,35.6411,-13.0771,
475,360,-40.5127,-14.3589,750.1282,33.8462,632.564,10.2563,-25.1279,-20,-29.7437,-17.9487,38.9746,-10.2563,
460,347.436,-41.2817,-14.6152,765.1282,26.9233,647.564,7.9487,-29.4873,-28.4614,-37.6924,-28.4614,36.1538,-7.9487,
445,332.436,-35.3848,-9.7437,780.1282,27.6924,662.564,9.7437,-23.0767,-20,-33.3335,-22.0513,39.4873,-9.7437,
430,317.436,-36.1541,-11.0256,795.1282,32.051,677.564,11.0256,-22.8206,-19.7439,-29.4875,-15.1282,41.7947,-13.0769,
415,305.6411,-36.9233,-11.7949,810.1282,30.769,692.564,11.7949,-24.1025,-26.6665,-29.7437,-18.4614,35.3848,-11.7949,
400,296.9231,-38.4612,-11.282,825.1282,28.2053,707.564,11.282,-24.615,-26.6663,-33.3333,-13.8459,29.2307,-12.3074,
385,282.8208,-39.2305,-7.436,840.1282,22.8208,722.564,7.436,-21.2817,-20.769,-32.564,-12.564,32.564,-9.4873,
370,267.8208,-42.3076,-2.3076,855.1282,14.6152,737.564,2.3076,-19.7437,-18.7178,-29.4873,-27.564,40.2563,-5.8975,
355,261.5386,-44.6155,-5.6411,870.1282,15.3843,752.564,5.6411,-24.1025,-21.0259,-30.7695,-30.2563,40.5127,-6.1538,
340,258.9744,-39.4871,-11.282,885.1282,19.4871,767.564,8.718,-22.0515,-24.1028,-30.2566,-23.0769,35.3845,-8.718,
325,254.1028,-34.6155,-8.4617,900.1282,21.7952,782.564,8.4617,-19.7434,-26.4104,-22.8206,-31.5383,44.3591,-11.0256,
322.5642,244.1028,-34.3586,-7.1794,915.1282,15.3845,797.564,7.1794,-20.5129,-22.051,-24.1023,-39.4871,40.0002,-13.3333,
317.6921,234.6155,-36.6667,-8.4617,930.1282,12.051,812.564,8.4617,-19.7439,-14.6155,-31.0256,-30.0002,26.9231,-11.5383,
313.8462,229.231,-39.4868,-10.769,945.1282,15.3848,827.564,10.2563,-20,-17.4355,-30.2563,-17.9487,38.9746,-10.2563,
310.769,221.5386,-33.3335,-9.7437,960.1282,16.4102,842.564,9.7437,-18.4614,-20,-22.564,-16.9233,50.769,-10.7695,
308.7183,218.9746,-31.2817,-7.6924,975.1282,21.5386,857.564,7.6924,-20,-17.9487,-25.6411,-8.7178,55.3848,-11.2817,
300.5127,215.8975,-38.9741,-7.1797,990.1282,23.5898,872.564,7.1797,-21.5386,-18.9741,-27.1797,-10.2563,56.9233,-9.7437,
287.4358,205.3845,-39.7434,-7.4358,1005.1282,15.6409,887.564,7.4358,-20.2566,-24.8718,-24.8718,-25.2563,41.9233,-10.0002,
284.6157,201.0259,-36.4102,-10.2563,1020.1282,20.5132,902.564,10.2563,-20.5127,-26.6665,-25.6411,-28.7178,36.9233,-13.8462,
288.718,199.4875,-37.9485,-10.7693,1035.1282,26.1541,917.564,10.7693,-18.9744,-25.1282,-22.5637,-19.4871,51.9233,-11.7947,
282.3079,193.5896,-40.2566,-6.4104,1050.1282,20.2566,932.564,6.4104,-20.2566,-23.8459,-21.282,-11.5383,66.9233,-6.9231,
273.8462,182.5645,-35.8975,-4.1025,1065.1282,15.3848,947.564,4.1025,-20.5127,-20.5127,-21.5386,-10.2563,61.5386,-8.2051,
274.6155,175.1282,-28.9744,-6.4104,1080.1282,17.6921,962.564,6.4104,-18.718,-17.1794,-26.4104,-17.1794,65.8977,-9.4871,
273.5898,174.6157,-31.0254,-10,1095.1282,24.3589,977.564,7.436,-21.2817,-23.8462,-29.4873,-15.1279,80.8977,-7.436,
264.3586,168.4612,-36.1541,-10.0002,1110.1282,23.8459,962.564,6.9231,-18.718,-23.3333,-17.1794,-9.4875,80.7693,-6.9231,
262.8206,161.7952,-36.6667,-9.4871,1125.1282,22.3079,947.564,7.4358,-15.6409,-13.0769,-8.9744,-7.4358,69.4871,-10.5129,
264.1023,155.8972,-35.8977,-11.7952,1140.1282,22.5642,932.564,3.0769,-20.0002,-14.3591,-18.9744,-3.0769,69.7434,-11.282,
259.4871,146.6667,-30.7693,-9.2307,1155.1282,16.9231,917.564,0.51294,-17.4358,-18.4617,-24.6155,-0.51294,57.4358,-6.1541,
254.8718,141.0256,-31.282,-8.718,1170.1282,9.7439,902.564,2.5642,-15.3845,-18.4612,-21.0256,-2.5642,50.7693,-7.1794,
250.5129,135.1282,-31.0256,-8.9744,1185.1282,8.9744,887.564,2.8206,-14.1028,-13.5896,-18.2053,-2.8206,60.2561,-7.4358,
251.2822,133.3335,-26.1538,-4.6152,1200.1282,12.8208,872.564,3.5898,-10.2563,-7.1792,-15.3848,-3.5898,67.6924,-3.5898,
247.949,126.9231,-30.5129,-2.3079,1215.1282,9.4871,857.564,2.3079,-12.5642,-10.5129,-20.7693,-9.9998,57.1794,-5.3845,
237.949,117.949,-34.3586,-1.0256,1230.1282,4.6155,842.564,1.0256,-13.3333,-15.3845,-25.6409,-10.2561,52.3079,-4.1023,
231.2822,115.3848,-30.769,-2.0513,1219.4873,7.1797,827.564,0.5127,-12.8203,-15.3848,-23.5898,-4.1025,60,-0.5127,
224.6152,108.7178,-27.6924,-1.0259,1204.4873,4.6152,812.564,-0.5127,-9.7437,-9.7437,-22.564,-5.6411,55.3848,0.5127,
220.2563,97.6924,-35.6411,0.25635,1189.4873,-2.3076,797.564,1.2822,-8.9746,-9.4873,-20.2563,-13.5898,47.436,-0.25635,
214.6155,96.6667,-38.7178,-0.76929,1174.4873,0.76929,782.564,4.8718,-10.5125,-13.0769,-13.5896,-7.4358,62.436,-3.8459,
202.8203,94.6152,-28.9741,-1.7949,1159.4873,4.3589,767.564,1.7949,-9.4873,-12.564,-17.1797,-1.7949,68.4614,-8.4614,
203.8462,88.9746,-26.4102,-0.76904,1144.4873,6.9229,752.564,0.76904,-8.4614,-10.5127,-21.2822,-3.8462,58.7178,-1.7949,
203.3335,79.231,-34.1025,-5.8975,1129.4873,3.8462,737.564,-0.25635,-15.1279,-15.1279,-20.769,-13.5898,50,0.25635,
203.5901,82.0515,-24.1023,-1.0256,1114.4873,7.6926,722.5642,1.0256,-15.3845,-13.3333,-21.0256,-8.718,60.5129,-3.0769,
202.5642,81.5388,-23.5896,1.0256,1099.4873,12.8206,707.5642,-1.5383,-11.7947,-12.3074,-25.6409,-1.0256,63.5901,-5.1282,
197.1797,74.1025,-25.3848,0.25635,1084.4873,10.5127,698.2051,-0.25635,-5.8975,-12.0513,-19.231,-5.8975,57.6924,-0.76904,
187.1797,72.3076,-23.5898,-0.5127,1069.4873,8.7178,683.2051,0.5127,-13.8462,-13.3335,-19.4873,-4.1025,61.0254,-7.1797,
186.9231,74.1028,-28.9744,-1.282,1054.4873,12.5642,668.2051,1.282,-14.615,-11.5383,-23.3333,-1.7947,63.3337,-8.9744,
182.3079,63.8459,-36.6667,-0.25659,1039.4873,2.3079,653.2051,0.25659,-6.4104,-8.9744,-24.8718,-16.7947,48.9744,-3.3333,
172.8203,57.9487,-27.1797,2.564,1024.4873,-5.6411,643.0767,3.0767,-6.1538,-3.5898,-21.5386,-16.4102,47.1792,-2.564,
172.8208,56.9233,-16.4102,0,1009.4873,-1.0254,629.231,5.1284,-9.2305,0,-15.8975,-4.6152,53.8462,-4.6152,
172.0513,51.0259,-26.4102,-0.76904,994.4873,0.76904,614.231,0.76904,-11.0254,-5.8975,-17.1797,-10,54.6152,-6.9229,
164.6152,47.6924,-27.1797,4.6152,979.4873,-2.0513,599.231,2.0513,-7.6924,-9.231,-17.436,-14.3589,55.3848,-4.6152,
162.564,46.1538,-26.6665,0.5127,964.4873,-1.5386,592.8203,3.5898,-8.2051,-8.2051,-13.8462,-8.7178,59.4873,-0.5127,
161.7952,43.3333,-41.6665,-8.4617,949.4873,5.3845,577.8203,2.8206,-16.6667,-9.4871,-15.6409,-5.8972,71.5383,-2.8206,
154.6155,38.718,-52.0513,-3.3333,934.4873,3.3333,562.8206,3.8459,-13.0769,-6.4104,-20.2566,-11.5383,69.9998,-4.3591,
147.949,34.6155,-44.8718,1.7947,919.4873,-1.7947,555.6409,2.8206,-9.9998,-6.9231,-18.2053,-13.0769,58.718,-5.8972,
150.0002,31.0256,-44.3589,-1.282,904.4873,4.3591,543.8459,1.282,-13.0769,-11.5383,-11.0256,-1.7947,66.4104,-3.3333,
148.2053,25.6409,-45.6411,-5.1282,889.4873,5.6409,531.282,-0.51294,-13.8459,-14.3591,-15.3845,0.51294,64.6155,-3.5896,
142.0515,26.1541,-41.0256,-1.0256,874.4873,8.718,518.4617,1.0256,-13.3333,-13.8459,-22.0515,-1.5383,61.0256,-5.1282,
136.4102,21.0254,-37.436,-0.5127,859.4873,10.2563,507.1797,0.5127,-13.3335,-12.8203,-16.9229,-6.6665,61.5386,-4.6152,
141.5383,23.5896,-34.3591,-5.6414,844.4873,16.9231,497.4358,0.51294,-15.3845,-13.8464,-12.3079,-0.51294,66.1536,-3.5901,
135.3848,22.564,-42.564,-11.2822,829.4873,16.9233,482.4358,-4.6152,-24.1025,-20.5127,-23.5898,4.6152,59.4873,-11.2822,
130.0002,14.1028,-40.2563,-1.7947,814.4873,8.9744,475.1282,-0.76929,-15.6409,-12.5642,-21.282,0.76929,46.4104,-7.4358,
129.2307,8.718,-35.8975,2.0515,799.4873,1.0256,470.2566,-2.051,-10.2561,-9.2307,-15.8972,-6.1536,41.0256,-1.0256,
126.1536,10.7693,-33.8464,-1.0256,784.4873,8.2048,461.0256,-1.5388,-8.718,-10.2566,-12.8206,-10.7693,46.1536,1.0256,
122.0513,9.231,-36.4104,-3.0771,769.4873,15.8975,447.1797,2.0513,-8.7178,-9.7437,-14.3589,-4.6152,50.769,-2.0513,
115.8975,2.0513,-36.9229,-5.6411,754.4873,9.7437,435.3848,-1.5386,-11.7949,-12.3076,-15.8975,1.5386,41.5386,-4.6152,
108.9741,-0.76904,-28.4614,0.76904,739.4873,3.3335,428.4614,-0.76904,-5.8975,-10,-12.564,-4.8716,39.7437,2.8203,
100.0002,-1.5383,-31.282,-0.51294,724.4873,4.1028,413.4614,0.51294,-8.718,-10.7693,-19.4871,-1.0256,52.3079,1.5383,
100.5129,-0.51294,-34.3586,-6.1536,709.4873,7.1794,403.0769,0.51294,-11.282,-11.282,-19.4871,5.6414,52.3079,-1.0256,
100.769,0.76904,-34.6152,-4.8716,694.4873,7.9487,396.1538,0.25635,-10,-10,-12.0513,-8.9741,46.4102,-0.25635,
97.1792,0.25635,-40.7693,-1.7949,679.4873,8.9741,382.3076,1.2817,-10,-9.4873,-11.0259,-12.564,52.564,-0.25635,
93.8462,-6.1538,-43.5898,0,664.4873,4.6152,377.4355,0,-7.6924,-11.7949,-13.8462,-3.5898,51.7949,2.564,
91.5386,-10,-46.4102,-1.2822,649.4873,5.8975,368.4614,1.2822,-8.4614,-14.6152,-12.0513,-5.3848,50,4.3589,
91.5383,-6.4104,-47.4358,-3.3333,634.4873,10.0002,355.1282,4.8718,-8.9744,-8.4617,-6.9231,-7.9485,56.1541,3.3333,
91.7949,-6.6665,-44.1023,-3.5894,619.4873,8.7183,343.5898,2.0513,-10.2563,-4.1025,-12.8203,3.0771,62.0513,-2.0513,
88.2051,-9.231,-47.6924,-3.5898,604.4873,12.8203,333.8462,1.5386,-11.7949,-5.1284,-13.8462,13.8462,69.231,-1.5386,
77.6924,-18.2051,-53.5896,-8.9741,589.4873,8.4614,320.7695,-0.25635,-15.1279,-11.5386,-12.0513,7.9487,65.3848,0.25635,
81.0256,-14.8718,-41.5383,-7.6921,574.4873,10.2566,312.8206,1.0256,-13.8459,-11.282,-10.2561,9.7439,65.6414,-1.0256,
84.1025,-12.3076,-28.7178,-1.5386,559.4873,14.3589,311.2822,1.5386,-11.7949,-7.1792,-10.2563,7.6924,56.9233,-3.0767,
78.2053,-19.2307,-30.5125,1.282,544.4873,8.4617,304.3591,0.76929,-9.9998,-6.9231,-9.9998,-2.8206,41.9233,-0.76929,
80.2566,-21.282,-34.1025,0.25659,529.4873,3.8459,292.5642,2.3079,-8.4617,-8.4617,-7.4358,-2.3079,41.282,-0.25659,
80.5129,-21.5383,-30.2561,-1.0256,514.4873,2.5642,287.1794,2.5642,-7.1794,-7.6921,-6.1536,1.0256,53.8464,-3.0769,
77.436,-23.0767,-29.7437,0.5127,499.4873,3.5898,278.4614,1.5386,-11.2817,-8.2051,-11.2817,-0.51269,51.7949,-1.5386,
75.8975,-23.5898,-30.769,-1.0259,484.4873,5.1284,265.6411,2.564,-13.8462,-10.2563,-13.3335,0.5127,50.2563,-0.5127,
74.6155,-22.3079,-29.9998,-3.8459,469.4873,8.9744,257.1794,2.8206,-9.4871,-11.5383,-9.4871,7.949,60.2566,-2.8206,
75.3845,-19.4875,-29.2312,-3.5901,454.4873,11.7947,251.7947,1.0256,-10.7693,-13.8464,-7.1799,14.8718,71.7947,-1.0256,
73.5896,-22.3079,-24.8718,-0.76929,439.4873,3.8459,246.9231,0.76929,-11.0256,-8.9744,-7.4358,13.5896,66.4104,-0.76929,
65.8977,-27.4358,-27.9485,-2.3079,424.4873,2.3079,233.0769,3.8464,-12.051,-5.8972,-9.9998,16.1541,62.8206,-2.8206,
54.8716,-31.2822,-36.4102,-10.2563,409.4873,4.6152,218.4614,0.5127,-17.436,-13.8462,-14.8721,16.4102,61.0254,-0.5127,
55.6411,-29.4873,-28.9746,-7.436,394.4873,1.2822,217.1792,-1.2822,-11.5386,-10,-7.9487,8.4614,62.8203,3.3335,
58.718,-27.4358,-27.4358,-6.4104,379.4873,1.282,208.9744,1.282,-13.5896,-7.949,-5.3845,13.0769,75.1282,-1.282,
57.6924,-28.9746,-34.6152,-10.5127,364.4873,8.4614,201.2822,2.3076,-17.1797,-11.5386,-7.436,23.8462,80.2563,2.8203,
58.7183,-27.4355,-30.5127,-4.3589,349.4873,14.1025,198.7183,3.8462,-12.564,-7.9487,-3.8462,21.7949,82.8208,10.5132,
53.0769,-32.5637,-28.9744,-1.282,334.4873,4.3591,188.4617,1.282,-12.051,-12.051,-4.3586,6.7949,78.2053,1.7952,
48.4617,-38.2051,-30.5129,2.8206,319.4873,-0.25659,185.3845,2.3079,-6.9231,-9.4871,-1.7947,0.25659,64.8718,2.8206,
46.6665,-43.0769,-36.9231,2.564,304.4873,1.5386,177.9487,2.0513,-7.1792,-3.0767,-6.1538,-1.5386,52.8208,6.1538,
50,-45.3845,-36.6665,4.8721,289.4873,0.25635,173.5898,5.3848,-2.3076,-0.25635,-7.4355,-13.0767,58.2051,7.9487,
53.3335,-42.5642,-35.3848,8.2051,274.4873,0.5127,171.7949,8.2051,-1.5386,-4.1025,-0.51269,-6.6665,66.6665,8.2051,
48.718,-44.1025,-36.9231,3.0769,259.4873,0.51294,161.5383,3.5896,-8.718,-4.6155,-3.5896,-0.51294,54.8718,1.0256,
46.9229,-44.8718,-26.4102,8.9741,244.4873,-3.3335,158.7178,6.4102,-3.8462,3.8462,-7.9487,-10,40.2563,3.3335,
48.718,-40.5129,-24.1028,13.3333,229.4873,-7.6926,153.8459,8.2048,-1.5383,1.5383,-8.718,-8.2053,41.5383,8.2048,
41.282,-48.4614,-32.0513,7.4358,214.4873,-12.051,145.3845,2.8206,-4.8718,-2.8206,-10.5129,3.3333,41.7952,6.9231,
33.0769,-60.2566,-31.5386,8.4612,199.4873,-19.2307,138.2048,1.282,-2.8206,1.282,-14.6155,-1.282,32.5637,5.8972,
35.3845,-58.4614,-24.6155,10.7693,184.4873,-21.0256,132.8206,2.5642,-1.0256,1.0256,-11.7947,-8.718,34.3591,8.718,
41.0254,-55.3848,-23.0771,8.2051,169.4873,-14.3589,129.7437,4.1025,0.5127,-0.5127,-5.6411,-1.0259,49.3591,8.7178,
35.6409,-58.718,-28.4617,7.9485,154.4873,-11.0256,118.2053,4.8718,-6.9231,-4.3591,-6.4104,5.3845,54.1028,4.3591,
28.9741,-56.6667,-26.4102,10.5127,139.4873,-11.5386,113.0767,4.8716,-9.4873,-4.3589,-6.4102,4.3589,41.7949,5.3843,
31.5383,-53.5896,-23.8462,13.5896,124.4873,-11.5383,112.0515,5.3845,-1.282,1.282,-8.9744,-2.8206,37.6926,6.9231,
27.4358,-58.2051,-25.8975,16.6667,109.4873,-13.5896,103.8459,5.8972,-1.7947,1.7947,-12.5642,-6.9231,42.8206,5.8972,
21.0259,-63.0769,-19.4868,20.5132,94.4873,-15.8975,98.9746,7.1797,-1.5386,1.5386,-6.6665,-7.1792,35.8975,13.8462,
22.8208,-62.8206,-19.7437,16.1538,79.4873,-13.0767,97.6924,4.3589,0.25635,-0.25635,-6.9229,-7.9487,36.6665,12.0513,
23.5896,-64.6155,-27.6924,12.3074,64.4873,-9.7439,97.4358,2.5642,1.5383,-1.5383,-8.718,-2.5642,45.1282,5.1282,
22.3074,-68.9746,-27.436,14.1023,49.4873,-12.0515,88.4612,4.3586,0.76929,-0.76929,-7.4363,-2.3079,39.7434,6.9231,
25.3848,-64.3589,-29.4873,12.0513,34.4873,-6.9233,79.231,4.3589,-3.8462,-0.25635,-7.436,0.25635,43.8462,10,
22.564,-65.6411,-35.8975,6.1538,19.4873,-5.6411,74.8716,-1.5386,-3.5898,1.5386,-5.1284,2.0513,58.8462,6.1538,
15.8975,-71.282,-32.8203,8.2051,4.4873,-13.8462,67.1797,-2.0513,-3.5894,2.0513,-2.0513,2.0513,69.7437,6.1538,
13.0769,-75.6411,-25.3848,9.4871,-10.5127,-21.282,64.8718,1.282,-2.8206,1.282,-6.4104,-1.282,54.7437,7.9485,
15.8972,-74.8718,-24.6155,8.2048,-25.5127,-17.949,62.5642,1.5383,-1.5383,1.5383,-7.1794,-2.5642,39.7437,5.6409,
17.9487,-70.7693,-31.2822,4.6152,-40.5127,-12.8208,48.7178,2.564,-6.6665,-2.0513,-5.6411,2.0513,54.3589,3.0767,
20.2563,-68.4617,-24.8716,8.4614,-55.5127,-10.5127,47.9487,6.9229,-0.25635,-2.8203,-5.3848,0.25635,61.2822,9.4873,
22.3079,-63.8462,-20.7693,9.9998,-70.5127,-3.3333,49.4871,8.9744,2.3079,-5.8977,-7.949,-2.3079,55.6409,9.9998,
20,-63.0769,-28.7178,3.0771,-85.5127,1.5386,40.5127,8.2051,-7.6924,-10.769,-4.6152,-1.5386,61.0259,1.5386,
16.4102,-66.6667,-24.1025,3.0767,-100.5127,0,37.9487,6.6665,-9.231,-5.6411,0,0.5127,69.2305,0,
11.7949,-66.1538,-21.5386,5.6411,-115.5127,0.5127,31.7949,3.5898,-8.2051,-6.6665,-7.6924,-0.5127,68.7178,3.0767,
11.7949,-62.051,-20.5127,9.7437,-130.5127,4.1025,29.231,10.2563,-4.1025,-6.1538,-8.7178,-5.6406,63.0771,8.7183,
11.0254,-64.3591,-18.7183,10.5127,-145.5127,3.8462,25.3843,11.0254,-4.3589,-3.8462,-4.3589,-8.4614,67.9487,6.4102,
5.6411,-69.7437,-21.0259,6.1538,-160.5127,4.1025,20,5.6411,-7.6924,-7.1797,-2.0513,-2.5645,73.8462,2.0513,
1.5386,-74.3591,-23.0771,4.6152,-175.5127,1.5386,16.9229,6.1538,-8.2051,-9.7437,-5.6411,-1.5386,59.4873,4.1025,
2.0513,-75.3848,-18.4619,7.1792,-190.5127,4.6152,8.7178,8.2051,-10.2563,-7.1797,-7.6924,-2.0513,58.9741,4.6152,
0.51294,-73.8462,-14.8718,7.6926,-205.5127,6.6667,5.1282,6.6667,-8.2048,-8.2048,-1.5383,-0.51294,72.8206,4.6155,
0.76904,-71.5386,-18.7178,8.4614,-220.5127,6.4102,5.3848,6.9229,-4.3589,-8.9741,-0.76904,-0.76904,78.2051,5.8975,
2.8208,-70,-16.6665,12.0513,-235.5127,7.9487,1.7949,8.4614,-1.7949,-3.8462,-4.3589,-6.9229,79.231,7.436,
1.2817,-70.0002,-8.9746,11.0254,-250.5127,3.8462,-1.2822,6.9229,-0.25635,-2.8208,0.25635,-16.1538,72.564,8.4614,
0.51294,-67.1797,-9.2307,10.2561,-265.5127,4.6155,-4.6155,8.718,-0.51294,-5.6409,3.5896,-10.7693,62.5642,10.2561,
-2.0513,-70.769,-10.2563,13.3335,-280.5127,7.1797,-7.1792,9.231,0,0.51318,-1.0254,0,59.4873,16.4106,
-3.8459,-74.6155,-11.0256,12.5642,-295.5127,1.7947,-12.0515,6.4104,-1.7947,1.7947,-5.8972,4.8718,67.4358,18.2053,
0.25635,-70.5129,-10.5127,12.0513,-310.5127,1.2822,-17.1797,7.9487,-0.25635,-2.8203,-4.3589,11.5386,79.231,17.1797,
-1.0256,-73.8462,-6.6667,13.3333,-325.5127,2.0515,-21.5383,9.2307,1.0256,-3.5896,-3.5896,7.1794,74.3591,13.8459,
0.5127,-69.7437,-1.5386,16.9233,-340.5127,10.2563,-18.9741,11.2822,-1.0254,-0.5127,-1.5386,6.1538,73.8462,10.2563,
0,-68.2051,-4.6152,14.8721,-355.5127,10.2563,-17.9487,7.6924,0,-2.0513,-1.5381,8.2051,76.9233,9.231,
-3.8462,-74.6155,-4.8716,11.5386,-370.5127,8.9741,-25.8975,4.8716,1.2822,-2.3076,-1.2822,6.9229,79.231,14.6152,
-2.8203,-73.5898,-1.7949,12.0513,-385.5127,18.2051,-31.0256,10,-2.8203,-2.3076,1.7949,5.3848,82.8203,18.7178,
-2.051,-68.718,-0.51294,15.3845,-400.5127,22.5642,-27.6924,12.8206,-2.5642,-4.1023,0.51294,1.5383,84.1028,15.3845,
-2.3076,-63.8464,-1.7949,18.2051,-415.5127,28.9741,-31.0259,12.564,0.25635,-0.25635,-0.76953,6.4102,90,16.1538,
-8.7178,-67.6921,-6.1538,11.7949,-430.5127,30.7695,-39.4871,8.7183,-3.0767,0,0,9.7437,82.0513,13.8462,
