"AF3","AF4","F3","F4","F7","F8","FC5","FC6","O1","O2","P7","P8","T7","T8",
89.231,491.2822,77.9487,58.4614,-96.4104,11.7949,105.1284,-25.6411,16.4102,-11.7949,-41.5386,-85.6411,-289.7437,-32.3076,
87.949,495.6414,74.6155,45.8977,-81.4104,16.1541,98.718,-31.5383,15.1282,-15.1282,-38.7178,-99.7434,-275.1279,-37.6921,
94.1023,500.7688,74.615,39.2307,-66.4104,20.7693,92.5637,-25.3848,8.9744,-8.9744,-35.1284,-94.1028,-272.5642,-32.5642,
101.0256,504.1028,66.1541,30.2566,-56.4102,32.3079,86.6667,-17.9485,7.6921,-7.6921,-32.3076,-79.1028,-261.0256,-19.4873,
96.4102,501.0259,51.1541,15.2566,-41.4102,43.5898,78.4614,-16.9229,11.2822,-11.2822,-29.7437,-64.1028,-246.0256,-17.436,
96.4102,502.564,41.5386,2.564,-26.4102,52.3076,84.1025,-10.769,20.5127,-2.564,-18.9741,-49.1028,-231.0256,-4.6152,
87.6921,489.7434,26.5386,-12.436,-17.9485,47.6921,77.949,-19.4871,11.7947,-2.5642,-21.0256,-34.1028,-216.0256,2.5642,
82.5642,478.9744,11.5386,-27.436,-7.6921,56.4104,64.6155,-26.1541,5.6409,-3.0769,-17.4358,-19.1028,-201.0256,3.0769,
70.7693,466.6667,-0.51294,-42.436,2.0515,66.1541,52.3079,-27.1794,0.51294,-7.1794,-12.8206,-5.1282,-186.0256,3.5896,
62.0515,462.5642,-15.3845,-57.436,11.7952,72.3079,48.718,-20.5125,-3.0769,-4.615,-7.6921,3.0769,-171.0256,14.8718,
53.8464,450.7693,-30.3845,-72.436,16.9231,69.2307,38.4617,-25.1282,-8.2048,-3.0769,-10.2561,3.0769,-156.0256,16.9231,
38.8464,435.7693,-45.3845,-87.436,16.9231,66.6667,23.4617,-36.4104,-17.949,-13.3333,-20.0002,13.3333,-141.0256,13.3333,
31.2822,423.0771,-60.3845,-102.436,31.9231,81.6667,12.3076,-31.7949,-17.436,-12.3076,-14.8716,28.3333,-126.0256,28.3333,
23.3335,415.6411,-75.3845,-117.436,46.9231,86.9229,9.4873,-33.5898,-21.2822,-9.4873,-9.4873,43.3333,-111.0256,27.9487,
16.4104,405.6409,-84.6152,-132.436,47.6921,84.6155,6.6667,-36.4104,-25.6409,-6.6667,-10.7693,44.1028,-96.0256,21.0256,
18.4617,404.6155,-88.2051,-144.1025,50.2566,95.3845,3.0769,-28.718,-19.9998,-3.0769,-14.3591,58.4617,-84.6152,36.0256,
10.7693,392.3079,-86.6665,-137.4358,38.9744,90.2566,4.6155,-29.2307,-18.4617,-4.6155,-13.3333,52.8206,-99.6152,37.949,
4.3591,377.6921,-71.6665,-123.8462,23.9744,75.2566,17.6921,-31.0256,-20.7693,-4.3591,-7.4358,37.8206,-114.1025,24.8718,
9.2307,368.2053,-56.6665,-110.2563,8.9744,60.2566,25.1282,-29.7434,-19.9998,-7.1794,-13.8459,22.8206,-110.2563,25.1282,
22.3079,374.6155,-41.6665,-95.2563,5.3845,57.6921,34.1023,-23.3333,-7.4358,-5.3845,-15.6409,8.4617,-118.718,26.4104,
30.7693,382.0515,-26.6665,-80.2563,-9.6155,55.8977,48.718,-16.4099,1.0256,2.5642,-10.2561,-1.0256,-133.718,13.8464,
25.8975,370,-11.6665,-65.2563,-24.6155,40.8977,54.1025,-16.6665,1.7949,-0.25635,-18.7178,-16.0256,-148.718,0.25635,
33.3333,366.1541,3.3335,-50.2563,-39.6155,28.718,62.5642,-8.2048,13.3333,0.51294,-21.0256,-31.0256,-163.5896,-4.6155,
36.667,353.5898,18.3335,-35.2563,-54.6155,13.718,60.7695,-12.0513,4.3589,-4.3589,-26.9229,-46.0256,-178.5896,-19.6155,
46.9229,348.9741,33.3335,-20.2563,-69.6155,15.1284,65.8975,-10.5129,1.7949,-1.7949,-32.5642,-61.0256,-179.2307,-22.8206,
49.9998,344.8718,48.3335,-5.2563,-84.6155,18.718,63.3333,-10,4.8718,-4.8718,-44.8718,-70,-194.2307,-23.3333,
58.718,337.6926,59.2307,9.7437,-99.6155,21.282,61.7952,-8.9744,5.3845,-5.3845,-44.3589,-72.564,-202.8203,-32.564,
73.718,336.9229,66.1538,24.7437,-84.6155,31.7949,66.1538,-4.1025,4.1025,-5.1284,-38.9744,-72.8206,-187.8203,-30.2566,
88.718,321.9229,51.1538,12.8203,-69.6155,20.5127,51.1538,-19.1025,-10.8975,-20.1284,-53.9744,-87.8206,-202.564,-45.2566,
103.718,315.8975,46.667,9.7437,-54.6155,16.4102,53.3335,-25.6409,-9.7437,-29.2307,-61.0256,-96.4102,-192.8203,-54.8716,
118.718,319.2305,44.3589,8.4614,-39.6155,15.6411,57.1792,-19.7437,-8.4614,-25.8975,-54.6155,-102.8206,-177.8203,-58.718,
133.718,318.7178,46.9229,5.3848,-24.6155,13.5898,63.8462,-13.5898,-5.3848,-18.2051,-54.6155,-101.7949,-162.8203,-50.5129,
148.718,318.9741,52.3076,1.0256,-9.6155,15.3848,71.7949,-12.3076,-1.0256,-11.282,-45.1282,-98.9744,-147.8203,-38.4617,
163.718,316.41,48.205,-2.5641,5.3845,14.3588,80.5126,-12.3077,2.5641,-6.1539,-30.1282,-93.8461,-132.8203,-30.2565,
175.1282,303.8464,43.8464,-3.3333,20.3845,-0.64124,92.5642,-5.8975,14.1025,2.8206,-23.8462,-81.282,-117.8203,-25.8975,
162.3075,288.8464,33.077,-10.5128,35.3845,-15.6412,89.4872,-5.3846,15.641,5.3846,-18.7181,-69.4872,-102.8203,-27.9489,
147.949,273.8464,23.8464,-20.2563,50.3845,-30.6412,79.2307,-13.5896,11.5386,6.9231,-6.9231,-59.7434,-87.8203,-26.9231,
132.949,258.8464,22.3077,-25.3846,65.3845,-45.6412,72.5641,-22.8204,10.5128,8.4615,-8.4615,-62.3077,-72.8203,-23.3334,
117.949,243.8464,25.6411,-23.0769,80.3845,-60.6412,75.3848,-24.6155,14.8718,9.7437,-9.7437,-56.9231,-57.8203,-12.8206,
102.949,228.8464,15.8975,-30.2563,95.3845,-75.6412,74.3589,-33.8462,11.282,8.2051,-8.2051,-52.8206,-42.8203,-22.564,
87.949,213.8464,2.5641,-36.923,110.3845,-90.6412,63.5897,-46.6666,6.1539,3.5897,-10.2562,-64.1024,-27.8203,-37.564,
72.949,198.8464,5.3849,-33.5897,125.3845,-105.6412,59.7438,-49.9999,10.5128,-1.7948,-12.5641,-68.9742,-12.8203,-41.2821,
57.949,183.8464,20.3849,-18.5897,140.3845,-120.6412,70.7692,-44.6154,21.0255,6.1539,-6.1539,-59.9999,-12.3077,-31.2821,
42.949,168.8464,24.3588,-6.9232,155.3845,-135.6412,69.4872,-51.0258,18.7179,5.3846,-5.3846,-74.9999,-20.2565,-40.7694,
27.949,153.8464,22.0513,-1.0256,154.3591,-150.6412,67.1794,-53.3333,17.9487,1.0256,-6.6665,-89.9999,-7.1794,-54.8716,
12.949,138.8464,29.9999,8.4615,139.3591,-165.6412,67.9486,-51.0258,21.2821,4.8717,-16.1539,-92.0514,-22.1794,-61.7948,
-2.051,123.8464,41.0256,20,124.3591,-180.6412,66.1541,-48.2051,26.1538,10.7693,-17.4358,-97.9487,-37.1794,-59.4871,
-12.0511,109.4874,45.8976,22.3077,109.3591,-195.6412,60.2565,-49.9999,27.4359,10.5128,-10.5128,-112.9487,-47.9486,-63.3331,
-11.7949,108.2051,43.0771,23.0769,94.3591,-210.6412,58.4614,-52.3076,27.1794,11.7949,-14.8718,-115.3845,-41.5383,-65.1282,
-13.3333,103.0771,41.0259,29.2307,79.3591,-216.4102,61.0259,-50.7693,30.7693,13.3333,-16.9231,-100.3845,-49.7437,-53.3333,
-10.7692,96.4105,42.5643,29.7435,64.3591,-213.3334,55.8973,-47.6923,29.7435,7.6923,-7.6923,-87.1796,-54.359,-45.1283,
-14.1025,92.564,37.1797,22.8206,49.3591,-208.4614,46.9229,-44.3589,26.4102,7.9487,-5.8975,-97.6924,-43.3333,-47.9487,
-15.1281,95.641,36.1539,23.8463,34.3591,-197.1793,51.0258,-36.1537,32.5641,20.7694,-4.359,-82.6924,-28.3333,-41.7948,
-13.077,93.5895,38.7179,24.8717,19.3591,-190.0001,48.9742,-28.9745,37.1793,27.4359,4.359,-67.6924,-13.3333,-35.1283,
-14.3589,81.5386,35.3845,17.4358,4.3591,-189.7437,41.5383,-28.2051,39.4871,27.1794,12.8206,-61.0256,-12.8206,-37.9487,
-21.0255,71.2823,22.0514,7.1796,-10.6409,-185.1281,30.2565,-36.4103,38.9742,24.6154,2.5641,-66.1537,-2.5641,-38.4615,
-23.5896,70.2566,16.4104,4.1025,-14.8716,-170.2563,22.5642,-35.8975,35.8977,24.1025,-3.0769,-51.1537,3.0769,-32.3076,
-20.2565,72.5643,17.1796,5.3846,-20.7692,-158.7179,21.7948,-27.4359,31.0258,20.2565,5.3846,-38.2052,-5.3846,-31.5385,
-19.9999,73.8461,14.359,8.2052,-22.5641,-152.8204,20.5128,-23.5897,30.7692,21.0258,10.7692,-49.2308,-8.2052,-29.7435,
-24.359,69.4869,17.6923,9.9999,-32.5641,-154.6154,22.3077,-21.795,36.6666,26.4103,8.4615,-54.1027,-8.4615,-30.5128,
-23.3333,64.8718,22.8206,10,-42.8206,-154.1025,22.8206,-21.282,37.6924,23.8462,4.8718,-52.0513,-4.8718,-30.5127,
-16.9231,65.6411,18.4617,8.2051,-38.4614,-146.1538,18.4617,-24.1025,38.4614,22.0513,6.1538,-53.8462,-6.1538,-27.6924,
-9.2308,68.205,15.8973,14.8717,-35.8973,-138.4615,17.9489,-20.5128,45.641,30.7692,9.2308,-42.0511,-14.359,-23.077,
-6.1538,67.6921,21.5383,24.1025,-38.4617,-135.3845,20,-14.8718,44.1025,33.8462,4.1025,-32.3076,-4.1025,-17.9487,
-4.3589,65.3848,30.5129,25.3848,-34.6152,-133.0769,25.3848,-15.1282,39.7437,29.4873,0.76929,-35.1282,-0.76929,-18.2051,
-2.5642,63.0769,35.3845,26.6667,-41.5386,-133.8462,27.1794,-18.4614,41.0256,28.2051,2.5642,-37.9487,-15.7693,-22.0513,
-4.1025,57.436,38.4614,35.3845,-56.5386,-136.4104,27.1794,-16.4104,44.1025,32.3076,4.1025,-49.2307,-30.7693,-19.4873,
-3.5897,52.8204,43.0768,41.5385,-65.1283,-134.8719,31.2819,-11.2821,46.6666,33.3331,3.5897,-53.8463,-17.9489,-16.9232,
-1.2821,52.0514,39.7435,37.6923,-58.7179,-128.4615,26.4103,-9.9999,40.2565,27.9489,1.2821,-39.7435,-20.7692,-23.8461,
-1.0256,47.1797,37.9487,35.3848,-64.1025,-124.1025,22.5642,-8.2051,39.4873,28.718,1.0256,-38.9744,-30.769,-29.2307,
-2.0513,38.9744,42.0513,39.4871,-69.7437,-125.1282,23.0769,-7.6924,43.5896,31.7949,2.0513,-53.9744,-21.0256,-29.2307,
-3.3334,36.6666,40.2565,39.7435,-74.6154,-124.8717,20.2565,-8.9742,39.2308,29.4872,3.3334,-47.9486,-15.1283,-22.3077,
-0.25647,38.7179,40.7692,36.6666,-74.1024,-119.7435,19.7435,-6.4103,39.2308,33.5897,0.25647,-37.6923,-18.2052,-13.5897,
3.3334,35.641,40.7692,33.0768,-68.4615,-117.6923,16.6666,-6.9232,40.7692,34.6154,-3.3334,-40.7694,-20.7694,-20.7694,
-2.8206,25.3848,36.1538,29.4873,-76.6665,-118.2051,10,-12.0513,34.6155,29.4873,2.8206,-38.7178,-29.4871,-28.9744,
-5.641,23.5897,33.3334,27.6923,-83.0768,-115.3846,5.641,-11.7948,33.8461,31.2821,6.1539,-33.8461,-22.5641,-21.0255,
-10.2565,19.9999,28.205,21.5385,-76.9232,-115.8976,-0.51282,-12.8207,35.8973,28.7179,0.51282,-26.1539,-7.5641,-15.3846,
-13.3334,11.2821,27.1796,19.4872,-76.923,-112.3077,-2.5641,-13.8461,32.8207,22.5641,2.5641,-24.6154,7.4359,-12.3077,
-6.6666,17.4359,29.2308,24.6154,-78.4615,-97.3077,-3.5897,-7.6923,30.2565,25.641,7.1796,-34.8717,3.5897,-4.1024,
-2.8206,20.7693,28.9744,27.9487,-82.3076,-82.3077,-3.8462,-2.8206,32.0513,28.4614,2.3076,-34.1025,4.3589,-2.3076,
-8.9745,13.0768,29.4872,36.6666,-87.4359,-90.0001,-4.8719,-0.76917,35.1281,28.9742,0.76916,-25.8976,2.8204,-4.359,
-11.5386,11.0256,31.0256,43.8462,-82.8206,-85.8975,-8.4617,1.7949,38.2051,29.4871,2.3076,-23.8462,-1.7949,-3.3335,
-7.6923,10.7692,33.3334,45.1283,-77.9486,-75.8973,-5.641,0.51282,38.4618,25.641,1.0258,-12.3077,-4.1024,-0.51282,
-10.0001,2.3077,37.1796,55.641,-85.3846,-76.6666,-0.76916,1.7948,32.0511,22.8204,-0.25647,-9.4872,-2.8204,0.25647,
-11.0256,-5.8975,41.7949,70,-85.3845,-73.5896,0.25635,8.9744,33.5898,31.0256,7.436,-24.4872,-0.25635,-0.76929,
-8.7179,-8.7179,38.4615,69.2308,-79.4872,-70.2565,0.51282,8.7179,42.0511,35.3846,10.2565,-31.2821,-2.0514,-0.51282,
-6.6669,-13.8463,32.8204,66.1537,-83.5897,-74.359,0.51282,3.0768,40.5126,29.2306,2.5641,-16.2821,-9.7438,-0.51282,
-12.8204,-23.0768,36.4103,71.795,-90.7692,-77.4359,4.1027,4.1027,36.923,28.2052,5.641,-8.2052,-11.7948,-4.1027,
-16.9231,-27.6924,40.5127,78.9741,-90.7693,-79.4871,5.6411,8.718,40.5127,33.3333,13.3333,-23.2052,-6.6667,-5.6411,
-16.9232,-36.9232,32.8204,72.8202,-93.8463,-87.6925,2.5641,3.5897,38.9745,31.7948,5.641,-12.3077,-13.3334,-2.5641,
-15.6411,-46.4104,30.5127,70,-95.1282,-87.436,4.8718,-0.25635,37.6924,29.4871,-0.25635,0.25635,-15.6411,0.25635,
-14.1025,-44.8718,36.6665,74.6152,-90.5129,-81.7949,6.9231,2.8206,35.6409,28.4614,4.8718,-2.8206,-14.1025,-2.8206,
-15.1283,-47.4359,36.1539,72.0514,-85.3846,-81.2821,6.4103,2.8204,34.1027,28.9742,5.8973,-9.4872,-20.2565,-2.8204,
-16.4103,-53.8463,34.8719,70.2562,-81.5385,-79.4872,6.1537,0.51282,32.3075,29.7435,1.5385,-7.1796,-18.9745,-0.51282,
-19.4871,-57.4358,34.3589,70.769,-86.6667,-79.4871,8.2051,2.0513,32.3076,27.1794,-2.0513,4.6155,-14.8718,-5.1282,
-17.9487,-61.5386,31.7949,69.7437,-87.1794,-80,13.8462,7.6924,34.3589,27.6924,-1.0256,1.0256,-13.3333,-5.1282,
-15.8975,-68.718,28.2051,70.769,-75.8975,-74.8718,10.2563,8.718,28.718,29.2307,2.0513,-11.7949,-4.1025,-2.0513,
-21.2821,-75.641,28.4615,66.4103,-77.6923,-73.0768,3.8461,3.3334,24.8717,25.8973,-0.76916,-2.8204,0.76917,-3.3334,
-24.1025,-76.9231,27.6924,61.0259,-86.1538,-74.3589,3.0769,1.0256,24.6155,20.5129,-2.0513,10.2566,-6.6665,-1.0256,
-28.7178,-82.0513,18.4617,60.5129,-89.7434,-73.8459,-1.0256,0,23.0769,17.9487,0,1.0256,-16.4102,1.0256,
-31.7948,-86.6666,17.4359,65.6412,-87.1793,-72.3075,0.51282,2.5641,25.641,20.5128,-0.51282,-2.0511,-16.923,2.5641,
-25.641,-86.6666,24.6156,63.5897,-72.1793,-72.3077,2.5641,-0.51282,21.0255,19.4872,-6.1539,3.0768,-1.923,0.51282,
-15.1282,-84.8718,30.5127,61.7949,-57.1793,-70.5127,6.4104,-0.25635,21.7949,22.3076,0.25635,-0.76929,13.077,-1.282,
-20.7692,-87.4359,25.8973,63.8461,-64.8717,-74.1027,4.359,-0.76916,23.3334,20.2565,0.76917,-8.9742,14.1027,-8.4615,
-17.9486,-79.9999,29.2311,67.6925,-67.1793,-65.641,3.5897,0.51282,31.2823,24.6154,-0.51282,-3.0768,12.8207,-1.0255,
-14.6152,-81.7949,27.4358,59.2307,-58.7178,-63.8462,-0.25635,-5.8975,28.4617,25.8977,0.25635,-1.282,7.436,3.3335,
-18.718,-85.8975,26.4102,64.3589,-63.3333,-66.9231,-0.76929,-5.3845,22.3076,24.8721,1.282,0.76929,-0.76929,1.7949,
-22.5641,-89.2308,30.7692,71.7948,-74.359,-70.2565,1.0258,-0.51282,24.1027,26.6666,0.51282,-4.6154,-1.0255,2.5641,
-22.3077,-89.9999,28.4618,65.8973,-70.5128,-71.5385,-3.3334,0.76917,27.4359,28.4618,-1.2821,-0.76917,3.3334,0.76917,
-21.282,-90,24.8721,60.769,-66.9231,-65.3845,-4.8718,-1.282,26.4102,26.4102,1.282,7.436,6.4104,-4.3589,
-19.4872,-91.795,30.7692,67.1793,-70.2565,-63.5897,0.51282,-0.51282,26.6666,24.6154,4.1024,-7.564,3.0768,-5.1283,
-12.3079,-89.7437,32.8203,70.769,-63.5898,-62.5642,-6.6667,3.5896,28.7178,26.1538,-1.0256,-11.282,4.1025,1.0256,
-13.5897,-90.0001,24.3588,60.7694,-59.2308,-61.2821,-14.6154,0.25647,25.8973,25.8973,-3.3334,3.718,12.0511,-0.25647,
-21.5386,-91.7949,17.9487,58.4617,-63.5898,-64.6155,-9.7437,-3.5898,23.0769,26.1541,3.5898,9.2307,10.7693,-8.718,
-21.0258,-88.7179,15.8973,62.0511,-61.5385,-63.5897,-9.7435,1.5385,25.641,27.1796,6.1539,-1.5385,2.0511,-2.0514,
-23.8461,-93.5897,12.0511,54.6156,-63.8461,-62.8204,-20.2565,1.2821,23.8461,18.7181,-1.2821,9.4872,-2.3077,3.8461,
-27.1796,-94.8719,17.4357,55.8976,-66.6666,-63.5897,-21.0258,-3.5897,21.5382,18.4615,-1.5385,3.0768,3.5897,1.5385,
-26.1538,-91.282,27.6924,66.1538,-61.5386,-67.1794,-10.7693,-3.5898,23.5898,26.6665,3.5898,-4.1025,7.1794,4.6155,
-31.0258,-93.5897,26.4103,62.3077,-63.3334,-74.1027,-8.9745,-4.359,21.795,20.2565,-3.3334,9.4872,7.4359,3.3334,
-29.2307,-91.7949,20.5129,60.0002,-62.0513,-70.2563,-9.2307,-1.0256,21.5383,14.8718,-5.1282,13.3333,20.5129,1.0256,
-22.3079,-88.9744,23.3333,62.3079,-55.6411,-66.4104,-8.9744,-0.25635,21.282,19.7434,0.76929,-0.25635,20.2566,0.25635,
-21.282,-90.5129,24.3589,57.6924,-50.5129,-66.9231,-15.6411,-8.4614,17.1797,19.231,-0.25635,8.9744,15.6411,0.25635,
-22.0513,-92.3076,19.4873,53.8462,-44.6152,-65.1282,-14.3589,-6.6665,17.9487,15.3848,-4.1025,17.436,25.1284,4.1025,
-18.4614,-89.7437,22.0515,59.4871,-41.0256,-63.5898,-7.1794,2.0513,21.0256,16.9231,-2.0513,2.436,30.2566,4.1025,
-14.8717,-84.1027,30.7694,63.5897,-41.0255,-60.5128,-9.2308,2.5641,17.4359,16.4103,-0.51282,-10.2565,22.0511,0.51282,
-17.6924,-86.4104,33.0769,58.2053,-48.4617,-61.282,-10.5129,-3.3333,16.6667,14.1025,-4.8718,4.7435,7.0511,3.3333,
-18.718,-88.4617,30.5127,57.1797,-49.4873,-62.8206,-10.5129,-3.8462,18.2051,14.6152,-7.436,3.8462,8.4614,7.9487,
-12.3077,-82.0511,30.2562,59.4872,-36.4103,-55.8973,-9.2308,0.51282,22.0511,20.5131,-0.51282,-2.5641,23.4614,6.6666,
-15.8976,-84.6154,24.6154,54.8717,-42.0514,-60.0001,-7.1796,-0.51282,22.5641,18.9742,-1.0258,1.5385,18.9742,0.51282,
-18.2052,-88.4615,24.8719,54.1024,-47.4359,-62.3077,-4.359,1.7948,19.2308,13.0768,-3.8461,0.76917,17.1796,-0.76916,
-12.0514,-86.4103,27.9489,54.6154,-33.077,-55.641,-3.3334,4.8717,19.7438,15.6412,1.7948,-13.5897,30.0001,-1.7948,
-8.9744,-83.3333,22.8206,55.6409,-25.8975,-53.5898,-7.9487,3.3333,18.2053,19.7434,2.3076,-10.5127,31.0256,-2.3076,
-11.0256,-84.8718,19.7434,56.1541,-37.1794,-56.1538,-13.0769,3.3333,14.1028,15.1282,-4.8718,1.282,22.3079,-1.282,
-10.2565,-85.641,28.7179,58.9742,-37.9489,-50.7692,-9.7435,9.7438,18.4615,13.3331,-4.6154,-0.51282,18.9742,0.51282,
-7.6923,-85.641,31.2821,60.5131,-33.3334,-48.7179,-8.2052,10.7692,18.9745,15.3846,-1.5385,-5.1281,8.7179,1.5385,
-8.4615,-85.8973,24.8719,56.1537,-32.5641,-51.5385,-7.9486,4.8717,15.641,15.1283,-2.8204,-1.7948,14.1024,1.7948,
-6.6666,-82.0514,28.205,55.3846,-27.1796,-44.1027,-4.6154,6.6669,16.9232,15.8973,-1.5385,-2.5641,29.1024,1.5385,
-6.6666,-85.641,30.2562,54.3588,-28.2052,-46.6666,-5.1283,11.7948,17.9486,15.8973,1.5385,-7.6923,29.7435,-1.5385,
-9.4872,-92.0514,29.4869,50.5128,-31.0258,-58.2052,-5.8973,8.4615,17.6925,13.59,0.25647,-0.25647,25.3844,-4.359,
-8.2051,-85.1282,28.2053,47.6926,-23.0769,-52.3076,-10.2563,3.0769,16.4104,12.3079,-4.1025,8.718,40.3844,-3.0769,
-8.718,-83.5898,24.6152,47.1797,-21.0256,-45.6411,-12.8206,4.6152,12.3076,10.2563,-3.5898,3.5898,36.9229,-4.6155,
-6.6666,-84.1027,27.1793,54.359,-25.1283,-49.2308,-4.6154,12.8204,15.8976,10.7692,3.5897,-3.5897,24.6154,-6.1539,
-11.0255,-84.359,22.8204,50.0001,-27.4359,-54.1027,-7.4359,7.9486,15.1281,5.3846,0.25647,-0.25647,34.1027,-4.8717,
-15.8975,-87.1797,21.5383,41.5383,-25.6411,-47.6924,-12.8206,0.51294,10.2561,6.6667,-3.0771,5.6409,42.5642,-0.51294,
-11.0256,-86.4104,24.8718,45.3845,-22.8206,-42.3076,-15.6411,1.7947,6.9231,10.5129,-4.8718,-1.7947,36.6667,1.7947,
-4.6154,-83.5897,26.1537,52.3075,-21.5385,-46.1539,-11.2821,8.205,12.3075,11.2821,-7.1796,-5.641,33.3334,4.6154,
-3.8462,-84.8718,23.8459,50.0002,-24.8718,-52.0513,-8.9744,9.4871,14.1028,12.0515,-7.9487,-0.25635,36.6667,0.25635,
-2.564,-83.0769,20,41.5386,-15.8975,-47.6924,-15.3848,2.564,5.6411,9.7437,-5.1284,6.1538,46.6665,-6.6665,
-7.6921,-83.5896,20.0002,37.4358,-13.3333,-46.1538,-16.4102,0.51294,5.6409,5.6409,-0.51294,3.0769,37.949,-7.1794,
-12.8203,-83.5896,24.6152,45.6411,-23.5896,-49.2307,-10.769,8.2051,14.3589,11.2822,2.0513,-7.1794,26.667,-2.0513,
-10.5127,-83.8462,23.8464,43.3333,-22.3076,-46.9231,-11.0256,6.4104,14.6155,14.1028,0.25635,-11.5383,39.7434,-0.25635,
-5.1279,-85.1279,22.5645,36.4106,-14.3589,-42.051,-16.9229,2.0513,10.2563,8.2051,-2.0513,3.4617,43.0771,-2.564,
-5.6409,-87.6924,22.5642,39.4871,-19.4873,-47.6924,-18.9744,3.0769,7.1794,3.5896,-3.0769,15.3845,28.0771,-5.6409,
-6.9231,-88.4614,22.3079,40.2566,-29.4871,-56.6665,-17.1794,3.3333,7.4358,6.9231,-3.3333,4.3591,18.2053,-10.5127,
-3.3333,-82.8206,22.3074,38.718,-28.9746,-52.5642,-22.3079,5.3845,8.4612,7.9485,-4.3591,3.3333,28.9744,-8.9746,
-2.5637,-83.5896,23.5901,38.4617,-28.2051,-47.6921,-23.0767,6.1541,7.6926,3.0769,-5.6409,1.0256,28.2053,-1.0256,
-0.51282,-83.0768,26.1539,42.0514,-32.3075,-46.6666,-13.8461,5.1285,9.7438,5.1285,-3.5897,-13.9744,14.359,0.51282,
4.8718,-78.2051,27.4358,42.8206,-28.4617,-45.3848,-14.1025,4.8718,7.9485,8.9744,-4.8718,-7.9487,16.1536,-5.3848,
2.3074,-83.3335,19.7434,32.051,-22.8206,-47.436,-24.8718,1.282,-1.282,1.282,-10.0002,7.0513,28.9744,-8.4617,
0,-81.0256,15.3848,33.8462,-21.5383,-44.6152,-23.5896,1.5386,0,0.51269,-6.6665,5.1284,31.2822,-3.5898,
-2.5642,-78.4614,23.0769,39.4871,-31.7949,-45.1282,-16.9231,5.6409,6.6667,6.6667,-4.6155,2.5642,16.4104,-3.5896,
-5.8977,-84.8718,23.8459,32.051,-36.1541,-47.436,-23.8462,3.3333,4.3586,3.3333,-9.4871,14.1023,14.1023,-3.3333,
-2.3079,-86.4104,14.615,30.5125,-31.0259,-45.3848,-30.5129,1.7947,2.8206,-0.76929,-7.949,13.5896,24.8718,0.76929,
-2.0513,-87.1794,14.8721,37.9487,-36.9229,-49.2307,-18.4614,5.1284,9.7437,5.6411,0,0,21.0259,-0.5127,
-9.4873,-92.5642,19.231,38.2051,-43.3335,-59.7437,-17.1794,3.8462,7.9487,2.8203,-0.76904,0.76904,19.231,-5.8975,
-10.2561,-91.282,18.9744,33.8464,-34.3589,-50.769,-27.1794,0.51294,4.1028,2.5642,-0.51294,14.3591,30.7693,-2.5642,
-6.1536,-89.2307,14.8718,33.8464,-31.282,-43.0769,-24.6152,-1.5383,6.6667,11.7952,-3.0769,10.2566,21.0256,1.5383,
-7.949,-91.5386,14.1025,38.2051,-33.0771,-50.0002,-19.231,-0.25635,6.4102,9.4868,-11.0259,0.25635,11.5381,1.7949,
-13.8462,-96.4102,16.9229,41.5386,-35.3845,-54.3589,-17.9487,2.564,9.231,3.5898,-9.2307,-1.5386,20,1.5386,
-12.0513,-94.6155,18.7178,46.9229,-33.5898,-56.1538,-12.0513,6.9231,17.1797,9.4873,-0.76929,-1.282,18.7178,0.76929,
-6.1538,-90.769,15.3848,43.0771,-24.6152,-54.3589,-10.769,7.6924,13.3335,13.8462,-1.0256,1.0256,17.9487,-1.0256,
-2.8206,-92.5642,15.1282,33.5896,-23.8462,-45.3848,-15.6411,6.4099,4.3586,8.9744,-8.4617,0.76929,27.9485,-0.76929,
-6.1541,-93.8462,14.3591,31.7947,-30.2563,-40.5129,-22.0513,4.6155,1.5383,4.1023,-12.3079,0.51294,23.5896,-0.51294,
-7.1797,-90.7693,11.2817,33.8462,-28.718,-42.0513,-20,2.0513,6.1538,6.6665,-5.1284,4.1025,10.769,-2.0513,
-4.6155,-85.6411,11.7947,34.3586,-22.5642,-43.0769,-14.8718,1.5383,9.2307,9.7434,-1.5383,2.051,11.282,-2.0515,
-6.6667,-83.5898,14.3589,35.3843,-31.7949,-41.5386,-16.9231,2.564,10.2563,13.333,-6.1541,-2.564,7.1792,2.564,
-8.4617,-84.8718,19.2305,38.7178,-41.7949,-45.3848,-17.1794,3.3335,14.6152,15.6411,-1.2822,1.7949,-7.8208,1.2822,
-8.4614,-82.3076,17.6926,39.7439,-31.5383,-45.8975,-20.2563,1.282,10.0002,11.0256,4.3591,8.9744,-3.8459,-1.282,
-7.6924,-80,16.9229,40.5127,-28.718,-42.0513,-23.5898,6.1538,5.6411,9.7437,-5.6411,4.6152,-0.5127,0.5127,
-5.6411,-78.4614,26.1538,47.1797,-33.3333,-37.9487,-20,14.8716,10.769,13.3335,-9.7437,6.1538,-7.1794,5.6411,
-10.5129,-78.718,22.3079,46.9231,-38.718,-39.7437,-22.8206,10.5129,6.4104,7.9485,-0.76929,8.4617,-4.8718,0.76929,
-16.4104,-80.0002,16.9229,47.1792,-45.1284,-45.1284,-21.5386,10.769,6.6665,7.6919,4.6152,2.0513,-7.6926,-2.0513,
-18.4613,-77.9486,17.4362,49.7438,-41.0255,-43.5897,-21.0255,14.359,12.3077,11.795,-2.5641,3.59,-22.6926,2.5641,
-20.2566,-80.2566,14.1025,46.9229,-39.7437,-42.8206,-22.3079,11.5381,16.1538,10,-4.3589,10.5127,-37.6926,4.3589,
-23.5896,-86.6665,12.3079,48.2053,-45.1282,-48.2051,-23.5896,8.2053,14.3591,5.6409,-0.51294,7.6921,-50.2563,0.51294,
-21.5386,-83.5898,16.9231,57.4358,-34.8721,-44.1028,-24.6155,13.8459,12.3074,11.7947,1.0256,-1.0256,-46.1541,7.6921,
-18.7178,-79.2307,24.8721,60.2563,-31.5383,-38.7178,-20.7693,17.6924,14.1025,17.6924,1.7949,-1.7949,-51.0256,14.6152,
-20.5129,-84.1028,21.0254,53.333,-41.5386,-44.1028,-26.1541,11.2817,7.6919,3.5894,-2.0513,2.0513,-54.3591,3.0767,
-17.9487,-81.5386,17.9485,52.8206,-28.2053,-37.9487,-24.6155,13.3333,4.6155,2.5642,0.51294,-0.51294,-39.3591,4.1023,
-14.8717,-73.8461,21.0258,55.8973,-15.8973,-28.2052,-16.923,19.9999,5.641,13.3334,3.077,-3.077,-24.3591,14.3588,
-15.8977,-76.9233,20.5127,54.3589,-23.0771,-26.1541,-21.5386,17.4355,2.0513,9.2305,-2.0513,10.2563,-9.3591,17.4355,
-20.5127,-85.1282,16.9231,50.7693,-31.7949,-27.1794,-23.5896,12.8206,3.0769,4.6155,-3.0769,13.8464,-11.7949,19.4871,
-20.2563,-83.3333,19.231,58.2051,-36.1538,-27.4358,-19.2307,18.2051,8.9746,14.6152,-1.7949,1.7949,-17.6921,19.7437,
-18.9744,-85.1282,16.9229,58.9741,-35.8975,-32.3076,-21.5386,18.9741,8.7178,11.2822,-4.1025,4.1025,-4.6155,8.7178,
-21.5383,-90.2563,7.1794,50.7693,-24.1025,-37.4358,-24.6152,13.3333,5.6409,-0.51294,-5.6409,3.5896,10.3845,0.51294,
-21.5383,-86.6667,4.1025,51.7949,-15.3845,-36.4102,-24.6152,12.3076,5.1284,5.6411,-4.1025,-9.2307,9.7437,4.6152,
-20.7693,-86.9233,8.9741,51.5381,-25.3848,-38.2053,-26.9233,10.5127,6.4102,13.5894,-2.3076,-6.4104,2.3076,5.3843,
-21.5386,-89.231,11.282,51.282,-35.3848,-40,-31.2822,6.6667,8.2048,10.2561,-2.0515,8.5896,-1.5383,1.5383,
-23.3333,-89.4873,5.8972,51.0256,-34.1025,-40.2563,-30.5129,5.3845,7.9485,7.9485,-3.3333,11.0256,3.3333,-4.3591,
-25.3848,-90.5129,4.8716,53.0767,-35.6411,-39.7437,-27.436,7.4355,6.9229,12.0513,-3.8464,2.3076,18.2051,-2.3076,
-27.1794,-92.8203,8.2053,52.8206,-44.6152,-41.5383,-35.3845,5.6414,4.1028,10.2566,-7.1794,3.0769,12.8206,-3.0769,
-25.3845,-91.5386,12.051,49.4871,-44.3589,-39.7437,-38.718,6.9231,3.8459,9.4871,-8.9744,6.9231,7.9485,-3.8459,
-27.9487,-91.5386,11.5383,51.0256,-47.436,-38.2051,-36.6667,9.9998,4.3591,5.8972,-10,-2.3079,22.8206,2.3079,
-31.282,-92.8206,11.282,57.9485,-61.0256,-43.0769,-32.8206,10.7693,10.7693,2.5642,-8.718,-2.5642,19.4871,5.6409,
-28.2051,-93.3335,13.3333,62.5642,-61.0256,-49.7437,-28.2051,8.718,12.8206,9.2307,-6.1538,1.0256,4.4871,-1.0256,
-15.8976,-82.0514,17.4359,64.6151,-48.2052,-41.0258,-28.2052,14.3588,8.7181,17.4359,-1.5385,-7.6923,15.8973,1.5385,
-14.1027,-78.7179,16.1537,56.1537,-51.5385,-36.6666,-38.2052,14.6151,4.8719,7.9486,-4.8719,-11.5385,28.9745,8.9745,
-17.436,-83.5898,11.7949,49.7437,-51.7949,-38.4617,-46.1541,10.2563,2.0513,2.0513,-11.2822,-2.0513,21.5386,4.1025,
-13.8462,-80.5127,10.2563,55.3848,-42.0513,-30.2563,-42.0513,11.7949,1.5386,11.2822,-7.6924,0,18.4614,0,
-15.8976,-81.0258,10.7692,58.4615,-51.795,-31.795,-36.9232,10.7692,4.1027,10.2565,-6.1539,-4.1027,15.3844,4.1027,
-22.8204,-82.8204,10.5128,56.6666,-58.7179,-41.2821,-37.6923,6.923,3.3334,5.3849,-9.9999,-3.3334,17.1793,4.8717,
-20.7693,-78.2051,14.6155,61.7947,-50,-36.6667,-33.0769,13.0769,3.3333,13.5896,-3.3333,-0.25635,20.7693,0.25635,
-15.8975,-74.8718,23.0767,68.2051,-53.8462,-27.1794,-29.7437,18.4614,-1.0256,17.436,5.6409,-2.5642,23.0767,1.0256,
-12.5642,-72.0513,29.9998,68.9744,-52.5642,-16.6667,-31.0256,21.7947,-4.3589,15.1282,4.3589,-4.3589,38.0767,14.1028,
-12.3079,-76.4104,24.1023,63.0769,-44.6155,-14.3591,-33.3335,21.5383,-1.5386,12.8206,-1.0256,1.0256,35.3845,18.9744,
-16.6667,-80.7693,13.5896,57.6921,-44.8718,-24.3591,-43.3335,14.6155,-6.9231,8.9744,-6.4104,6.4104,20.3845,7.9485,
-10.7693,-74.8718,19.9998,61.0256,-40,-25.6411,-40.5129,13.3333,-5.6411,14.3591,-5.1282,5.1282,35.3845,7.1794,
-10.2562,-81.0255,17.9486,54.8719,-37.9486,-26.6666,-38.9742,10.7694,-3.5897,14.3593,-6.1537,3.5897,50.3845,7.1796,
-14.8718,-86.6667,10.2566,50.7693,-41.5383,-31.282,-44.6155,10.7693,-6.1538,12.3079,-1.5383,18.5897,52.3079,1.5383,
-21.7949,-86.9231,11.0256,51.5383,-51.0256,-42.3076,-44.3589,11.5383,-5.8975,14.1028,3.3333,21.282,44.3591,-3.3333,
-23.8461,-86.4103,13.0768,54.6154,-57.6923,-41.2821,-40.2565,13.0768,-3.8461,13.59,-0.25647,6.282,29.3591,5.3849,
-26.6667,-88.718,8.2051,52.3076,-64.6155,-35.3845,-41.5386,10.2563,-9.2307,8.7178,-5.6411,5.6411,20.5127,9.7437,
-27.9486,-91.0255,7.9489,50.0001,-64.8717,-38.7179,-39.2308,9.4874,-9.9999,10.0001,-4.8717,18.7179,27.4362,4.8717,
-28.4617,-92.5642,9.4871,52.5642,-60.2566,-44.8718,-41.7949,12.051,-6.4104,9.9998,-4.3591,7.9485,23.3333,4.3591,
-27.9487,-91.5383,8.4614,51.0259,-55.1282,-38.7178,-44.3589,13.5898,-6.4102,8.4614,-3.8462,3.8462,31.0259,5.8975,
-24.6155,-87.6924,7.1797,50.2563,-51.282,-29.2307,-41.5383,13.3335,-9.2307,10.2563,-3.5898,18.8462,46.0259,3.5898,
-28.205,-88.205,6.6666,48.2052,-52.3075,-33.3331,-42.0511,7.1798,-10.2562,6.6666,-2.5641,18.4615,56.923,2.5641,
-28.2052,-87.6925,8.2052,46.6666,-45.1283,-34.359,-43.077,3.0768,-7.6925,5.1281,3.5895,3.4615,50.2565,2.0514,
-15.641,-80.7692,6.9232,46.4105,-30.1283,-26.4103,-42.3077,6.9232,-6.923,8.9745,4.8719,-3.8461,65.2565,3.8461,
-15.6409,-80.2563,9.4873,47.9487,-31.5383,-26.4102,-41.282,7.9487,-5.8975,10,4.3589,-4.3589,67.9487,4.3589,
-14.6154,-78.7179,13.0768,50.0001,-32.5641,-25.3846,-39.7438,9.4869,-4.8719,11.5382,3.8463,-3.8463,66.4103,4.8717,
-14.1027,-77.1796,16.1537,51.5385,-33.5897,-24.8719,-38.2052,11.0258,-3.3334,12.5638,3.3334,-3.8463,64.8719,5.8973,
-13.8461,-75.8973,19.4869,53.3331,-35.3846,-24.1027,-36.923,12.3077,-2.5641,13.8463,2.5641,-3.5897,62.5641,6.6666,
-14.1025,-75.6409,21.7947,54.6155,-37.1794,-24.3589,-36.1538,13.0769,-1.7949,14.6155,1.7949,-4.3589,60.2566,6.9231,
-13.5897,-74.6154,24.8719,56.1537,-39.2308,-24.359,-34.6154,14.6156,-0.76917,15.641,0.76916,-4.8717,57.6923,6.4105,
-12.8204,-72.8204,19.9999,55.8973,-34.3588,-22.5641,-35.8973,17.4359,-2.5641,14.8719,2.5641,-3.0768,60.5131,6.1542,
-16.6666,-75.641,9.4874,53.59,-29.4872,-25.3846,-40.2565,10.0001,-6.4103,11.5387,-1.7948,1.7948,48.4615,3.8463,
-12.8204,-74.359,14.359,58.4615,-32.3077,-23.0768,-31.2819,10.2565,-3.0768,16.4103,1.5385,-1.5385,33.4615,10.2565,
-13.5897,-74.6154,16.6666,58.2052,-39.7435,-27.4359,-32.0514,12.0514,-4.8717,14.1027,0.76916,-0.76917,18.4615,5.8973,
-13.8461,-77.4359,15.8976,53.8463,-36.923,-30.2565,-33.3334,13.3336,-2.5641,13.3336,-1.5385,1.5385,11.795,2.5641,
-11.282,-75.8975,15.8972,53.3333,-36.9231,-27.6924,-30.2563,10.2566,2.0513,12.8206,-2.0513,-11.282,7.6921,7.1794,
-7.9486,-67.9486,20.7694,58.7181,-33.0768,-21.7948,-27.9486,13.077,-0.25647,16.1537,2.8204,-5.8973,0.25647,7.9486,
-11.7949,-75.3845,13.3335,48.7178,-27.6924,-25.1282,-33.8462,8.7178,-7.1794,11.7949,2.564,9.1027,5.6411,-2.564,
-12.8206,-79.4871,7.6924,40,-24.6152,-23.5896,-35.8975,3.5898,-5.1279,6.6665,2.564,4.6152,18.9746,-2.564,
-16.6667,-77.1797,10.5127,39.7437,-30.5129,-25.8975,-33.5898,3.8462,-5.3848,5.3843,-0.25635,0.25635,15.6411,1.2817,
-22.051,-81.0254,13.3335,42.5645,-34.8716,-31.7947,-34.3589,4.1025,-8.7178,4.1025,0,8.7183,8.7183,0,
-26.9231,-84.8718,7.9487,42.3076,-38.718,-32.0513,-38.2051,0.76904,-10.5129,4.3589,2.3076,3.8462,9.4873,-0.76904,
-26.667,-80.0002,6.1536,42.5637,-42.0515,-29.231,-32.8208,1.0256,-5.6414,10.2561,3.0769,-1.0256,3.0769,4.1023,
-23.0769,-74.3591,5.6411,42.564,-34.3591,-23.5898,-32.8206,2.0513,-10.7693,6.1538,-1.5386,13.9744,1.5386,6.6665,
-21.282,-75.1282,4.8716,41.2822,-26.4102,-12.0513,-36.1538,2.3076,-17.1794,0.25635,-0.25635,20.769,14.1025,4.3589,
-21.282,-75.6411,7.9485,44.8718,-26.9231,-9.4873,-31.0256,5.3845,-11.0256,5.8972,-0.25659,5.769,27.9485,5.8972,
-16.6666,-73.0768,4.8717,48.9742,-25.8973,-13.0768,-28.9742,6.923,-6.923,5.3849,-4.359,4.359,38.2052,12.0514,
-12.5642,-74.1025,1.2822,44.3589,-22.8206,-11.5386,-31.5386,2.3076,-5.8975,-0.76904,0.76904,7.436,46.9229,11.0254,
-12.5642,-71.0256,6.9229,42.3076,-15.6411,-8.9744,-31.5386,3.3335,-3.3335,4.3589,4.3589,-5.3848,57.6924,8.4614,
-18.9744,-71.282,3.5896,35.3845,-10.7693,-14.3589,-36.9231,1.5383,-8.2048,2.0515,0.51294,-0.51294,63.5896,5.1282,
-18.9744,-70.7693,3.0767,36.4102,-15.3848,-13.8462,-33.3335,0.5127,-10.769,-0.5127,1.0254,4.1025,61.5386,2.564,
-13.0768,-62.3077,12.0511,46.9232,-20.7692,-7.4359,-24.8717,6.9232,-3.3334,7.4359,3.3334,-5.3846,51.5385,5.3846,
-13.5898,-60.7693,13.0767,41.7949,-23.8462,-8.4617,-28.9744,10,-3.3335,7.9487,3.3335,-4.8718,47.9487,8.4614,
-13.0771,-64.8718,8.4614,37.6924,-21.7949,-7.949,-35.6411,6.9229,-12.0515,3.8462,-0.25635,0.25635,55.6411,4.8716,
-6.4102,-61.282,14.1025,44.8721,-16.1538,-2.3076,-28.9744,4.3589,-3.333,6.4102,-2.3076,2.3076,60.2563,4.3589,
-10,-61.7949,14.6152,42.3076,-19.2307,-7.9487,-27.9487,0.25635,0.25635,4.3589,-2.3076,-0.25635,51.0254,4.3589,
-6.9231,-58.7178,14.6152,46.4102,-20.769,-9.4871,-29.4871,7.436,-4.8718,6.9233,1.7949,-1.7949,60.2563,4.8721,
-3.8462,-58.2051,18.718,50.5129,-22.3076,-7.4358,-23.3333,8.9744,-1.282,8.4617,1.282,-4.3589,67.949,2.8206,
-5.8975,-58.2051,21.2822,47.9487,-23.8462,-8.4617,-24.8718,3.3335,0.76904,3.3335,-0.76904,-3.8462,55.6411,2.8203,
-7.1792,-53.8459,19.4873,43.5898,-24.1023,-6.1538,-32.3076,5.6411,-5.6406,3.5898,2.0513,-2.0513,52.8208,4.1025,
-8.9744,-55.1282,19.7434,46.4104,-32.0513,-10.5129,-28.9744,7.4358,-2.3079,7.4358,2.3079,2.3079,50.5129,-2.8206,
-10.7693,-57.9487,22.5642,51.282,-38.4617,-17.9487,-29.231,0.51294,2.051,4.1023,-0.51294,11.7947,48.2048,-4.6155,
-5.6409,-53.3335,26.6667,50.7693,-34.8718,-15.8975,-29.2307,1.0256,-1.5383,4.1023,-1.0256,7.1794,59.4871,5.6409,
-0.76904,-48.4617,30,55.6411,-38.718,-14.6155,-24.3589,8.9741,0.76904,6.4102,-1.2822,-3.3335,62.3076,3.8462,
-7.4358,-55.1282,27.4358,59.7439,-53.718,-22.3076,-28.4614,6.9231,2.8206,4.3591,-1.282,1.282,48.4617,-3.8459,
-11.0259,-61.2822,30.5127,60.2563,-57.6924,-25.3848,-29.4873,3.333,1.7949,4.8716,-1.7949,-3.3335,43.333,2.3076,
-1.0256,-54.8718,39.9998,62.5642,-42.6924,-19.4873,-27.1794,7.1794,1.0256,8.2048,-6.1541,-6.6667,56.4104,7.6921,
1.5386,-56.4102,35.3848,54.8721,-27.6924,-20,-34.3589,3.5898,-3.5898,2.0513,-6.6665,2.564,57.436,-1.5386,
-1.0256,-55.8972,29.7439,53.8464,-22.051,-18.9741,-37.4355,2.5642,-5.1282,-2.5637,1.0256,8.2053,50.2566,1.5388,
-4.6152,-49.2307,28.7183,55.8975,-22.0513,-13.8462,-34.3589,5.1284,-2.564,0.5127,-0.5127,1.0259,54.8721,10.7695,
-6.1536,-51.282,26.1541,56.4104,-26.1538,-14.3589,-30.7693,7.1794,1.0256,3.0769,-1.0256,-2.5642,66.1541,7.6921,
-8.2053,-56.9231,22.051,55.8972,-28.718,-16.9231,-35.3848,6.6667,-1.0256,1.0256,1.5383,-6.6667,58.9744,7.1794,
-12.3076,-53.8462,25.6409,54.8718,-27.6921,-9.7434,-37.4358,8.2053,0.51294,6.1541,-0.51294,-11.7949,49.2307,14.3591,
-18.9744,-55.3848,21.5383,48.718,-28.2051,-9.2307,-40.5129,7.1794,-1.5383,3.0769,-6.6667,1.5383,48.2053,11.7947,
-13.8459,-57.4358,13.3337,47.6926,-19.9998,-6.1536,-43.0767,10.7693,-1.5383,1.0256,-1.0256,16.5383,47.1794,12.8206,
-17.9487,-65.1282,9.7434,42.5642,-19.4873,-7.6921,-49.2307,6.1541,-3.0769,3.0769,-5.6409,13.3333,35.3845,13.8459,
-24.1028,-65.1284,7.1794,37.4358,-15.8977,-3.0769,-58.9744,3.0769,-10.2566,5.1282,-12.8206,11.7947,43.5896,18.4612,
-22.0515,-63.0769,-1.0256,29.7434,-8.2053,4.1023,-63.5898,4.6155,-10.7693,1.0256,-6.1541,23.0769,53.3333,19.4871,
-18.718,-64.8721,-2.8206,25.3845,-6.9231,3.3333,-62.8206,5.8972,-3.8464,2.8206,-3.3333,26.4099,44.3586,14.1023,
-21.0256,-66.1541,-0.51294,24.1023,-4.1028,0.51294,-61.5386,5.1282,-7.6926,5.6409,-6.1541,30.2561,42.5642,10.7693,
-22.8208,-68.4617,-1.7952,21.7947,0.76929,-2.3079,-54.6155,4.8718,-5.8977,4.8718,-0.76929,34.1023,53.5896,16.6663,
-23.3335,-70.5129,-6.9233,21.2822,-4.3589,-3.8462,-55.1282,5.3848,1.2822,4.8716,-1.2822,22.3076,59.231,15.6411,
-20.2563,-69.4871,-5.3848,25.8975,-6.9229,-1.2822,-54.6152,10.5127,-0.76904,7.436,0.76904,19.231,65.3848,19.231,
-23.3333,-71.5383,-6.9229,24.8721,-8.4614,-0.76904,-51.0256,7.436,-10,2.8208,0.76904,22.3076,65.3848,24.8721,
-24.1025,-67.6924,-6.6665,23.0771,-3.0771,4.1025,-51.282,3.5898,-10.2563,2.0513,-2.0513,17.436,71.7949,23.0771,
-21.7949,-66.9231,-4.3591,23.3333,-3.3333,5.3845,-50,7.9485,-7.4358,3.3333,-3.8464,13.0769,73.0769,15.6409,
-20.0002,-66.6667,-1.0256,31.282,-7.6926,4.1023,-43.5898,15.8972,-6.6667,1.0256,-2.5642,22.051,70.7693,13.3333,
-19.4871,-63.5896,4.6155,32.8206,-2.5642,2.5642,-44.6152,10.2566,-7.6921,-4.6155,-6.6667,28.2053,77.4358,15.3845,
-17.1797,-59.231,14.6155,35.1282,-2.8206,1.282,-44.3591,9.9998,-2.3079,-1.282,-8.4617,21.282,71.0256,16.6667,
-22.3076,-62.3076,7.4358,38.2053,-17.8206,-6.9231,-42.8203,12.5642,-1.282,1.282,-7.4358,10.5129,56.0256,10.0002,
-20.5129,-64.1025,1.5383,37.4358,-17.436,-6.6667,-38.4617,14.3591,-3.5896,2.051,-1.5383,11.7947,48.2053,10.7693,
-15.3845,-60.5127,11.2822,36.9233,-6.6665,-1.5386,-42.0513,14.3589,-6.1538,1.5386,-2.564,8.2051,63.0771,11.7949,
-18.9744,-57.9487,14.8721,39.4873,-15.3845,-1.5386,-48.7178,12.3076,-4.1025,1.5386,-11.2817,3.0771,50.7695,7.6924,
-21.282,-59.7437,9.4871,36.6667,-26.9231,-4.8718,-46.4102,8.9744,-1.7947,1.7947,-9.4871,10.5129,49.4871,8.9744,
-16.4102,-58.4614,10.769,32.8203,-15.3848,-1.5386,-46.1538,8.7178,-5.6411,1.5386,-2.0513,20.5127,64.4871,17.9487,
-16.4104,-58.4614,13.3333,31.282,-12.3079,1.0256,-50.7693,8.718,-7.1794,-1.0256,-7.1794,12.8206,58.9744,13.3333,
-14.6152,-53.0769,8.9741,33.5898,-18.7178,3.3335,-52.5642,7.9487,-4.8721,-3.3335,-9.4873,16.1538,43.9744,10.5127,
-13.5898,-50,5.8975,36.6665,-16.6665,2.3076,-52.5642,8.9741,-6.9233,-2.3076,-7.9487,30.5127,49.4873,17.1792,
-13.5898,-56.6665,14.1025,40.769,-7.9487,-4.3589,-44.3589,16.1538,-3.3335,3.3335,-6.9229,17.6924,60.769,18.7178,
-13.0769,-58.2051,11.5383,39.7434,-11.0256,-2.8206,-45.8975,13.5896,-2.8206,2.8206,-5.8972,8.9744,62.8206,16.1541,
-15.6409,-56.6665,3.3333,36.1541,-26.0256,-2.8206,-49.4871,6.4104,-3.3333,2.8206,-5.8972,22.3079,47.8206,13.5896,
-21.7949,-61.2822,6.4104,37.1794,-31.0256,-13.5896,-47.9487,5.3845,-2.8206,2.8206,-10.5129,19.2307,36.6667,6.4104,
-19.231,-59.2307,8.9741,40.2563,-16.0256,-12.0513,-48.9744,12.0513,-0.25635,0.25635,-3.8462,16.6665,51.6667,10,
-20.0002,-58.9746,5.1282,35.3845,-18.4617,-4.1028,-52.3079,12.3074,-1.0256,-4.6155,1.0256,26.1536,61.5383,14.8713,
-22.3076,-57.6921,8.4617,37.6921,-31.0256,-0.25659,-51.5383,11.0256,0.25659,-0.76929,-4.8718,35.6409,51.5383,18.2053,
-19.7437,-59.2307,9.4873,39.7437,-24.3591,-1.2822,-53.0769,9.4873,-2.3076,1.2822,-6.4102,24.3589,54.1025,18.2051,
-16.1538,-60.2563,7.9487,37.6924,-16.1538,-0.76904,-56.6665,10,-6.4102,-0.25635,0.25635,9.3589,48.9746,14.6157,
-13.5896,-57.6924,6.9231,35.1282,-17.1794,1.7947,-56.6665,12.0515,-5.8972,-1.7947,-4.8718,6.9231,41.7947,12.0515,
-11.7947,-57.9485,5.6414,34.8718,-10.2561,0.51294,-53.8459,10.2566,-6.6667,-0.51294,-12.8206,12.8206,46.6667,9.2307,
-7.6926,-56.4104,7.6921,41.5383,3.5896,-3.5901,-50.7693,10.7693,-4.1028,1.0256,-5.6414,-1.0256,47.6921,5.1282,
-0.5127,-54.8716,11.7949,43.5898,13.8462,-4.1025,-49.7434,9.231,0,-3.5894,0,-13.3333,42.5645,5.6411,
5.8975,-54.6152,3.8462,32.0513,25.3848,2.3076,-58.2051,2.3076,-10,-15.6411,-15,-7.9487,34.6152,-2.3076,
20.8975,-39.6152,4.3591,33.5896,40.3848,17.3076,-54.6155,7.4358,-14.1028,-17.1794,-22.3079,-4.3591,35.1282,-8.9744,
35.8975,-24.6152,13.3333,34.3591,55.3848,32.3076,-46.1538,11.282,-13.8459,-17.9485,-18.9744,-19.3591,26.6667,-11.282,
50.8975,-9.6152,6.6667,22.051,70.3848,47.3076,-55.8975,5.1282,-27.1794,-29.2307,-33.9744,-25.1282,13.3333,-16.9231,
65.8975,5.3848,-4.3589,14.6152,85.3848,62.3076,-59.7437,4.3589,-37.6924,-37.1797,-48.9744,-24.3589,12.0513,-22.3076,
80.8975,17.949,-1.0256,14.8718,100.3848,77.3076,-51.7949,5.6409,-37.9485,-41.0256,-50.7693,-39.3589,1.0256,-30.7693,
95.8975,28.4614,7.9487,20.2563,115.3848,92.3076,-45.3845,7.436,-41.7949,-43.3333,-51.5383,-54.3589,-7.436,-34.6152,
110.8975,38.9741,2.0513,20,130.3848,107.3076,-37.949,11.2817,-43.0771,-40.0002,-53.3335,-52.3079,-2.0513,-30.2563,
125.8975,44.615,-7.1794,12.3074,145.3848,122.3076,-41.5388,11.282,-43.5901,-40.0002,-54.8721,-47.6926,7.1794,-30.2566,
140.8975,46.1538,-1.5386,7.1797,160.3848,137.3076,-45.6411,11.2822,-46.6665,-45.6411,-56.9229,-43.0771,1.5386,-33.8462,
155.8975,48.718,10.7693,15.3845,175.3848,152.3076,-33.3333,16.4104,-36.4099,-38.9744,-54.8716,-37.9485,-10.7693,-25.6409,
170.8975,51.5383,5.3845,15.1282,190.3848,157.1794,-34.1023,15.6409,-37.1794,-39.7434,-61.7947,-43.8462,-5.3845,-23.3333,
183.0769,51.7952,-0.51294,5.1282,205.3848,168.2053,-45.6409,11.7952,-48.2048,-48.718,-66.6665,-49.2307,0.51294,-34.8718,
180.5129,52.8206,7.1794,8.2053,220.3848,182.051,-44.6155,11.282,-47.6921,-45.6409,-58.9744,-51.282,-7.1794,-33.8459,
177.1797,47.9487,5.8975,8.4614,235.3848,176.1538,-43.8462,9.4873,-45.3848,-42.8203,-55.6411,-56.1538,-5.8975,-19.7437,
170.7693,41.0256,0.51294,-0.51294,250.3848,177.9485,-48.2053,9.7434,-48.2053,-44.6155,-53.3333,-41.1538,4.1023,-12.8206,
157.4355,35.3843,0.5127,0.5127,265.3848,190.2563,-52.3076,12.8203,-46.1538,-44.6157,-49.7437,-26.1538,-0.5127,-15.3848,
150.5129,31.5383,4.3591,6.9231,280.3848,182.8206,-49.9998,15.6409,-39.7434,-40.2566,-51.5386,-20.2566,-4.3591,-14.1028,
149.4873,30.5127,5.8975,8.9741,272.564,167.8206,-47.436,13.5898,-42.3076,-42.3076,-58.718,-28.9741,-5.8975,-6.9229,
136.1541,25.8977,3.8464,3.3333,257.564,154.1028,-48.4617,11.0256,-45.8972,-45.8972,-57.1794,-28.4617,-20.8975,-3.3333,
124.6152,23.5898,9.7437,4.1025,242.564,150.2563,-36.9229,15.8975,-33.8462,-34.8716,-42.1794,-21.5386,-13.8462,-4.1025,
109.6152,8.9744,-0.76929,0.76929,227.564,135.2563,-43.3333,5.3845,-38.2053,-40.2566,-46.9231,-36.5386,1.1538,-15.1282,
94.6152,0.51294,-0.51294,7.6921,212.564,120.2563,-41.0256,4.6155,-30.2566,-35.8977,-39.4871,-30.2566,8.2048,-4.1028,
79.6152,-14.4871,-0.76904,6.9229,197.564,105.2563,-39.231,0.76904,-22.8203,-27.436,-31.5386,-16.6665,11.0254,1.2822,
64.6152,-24.6155,-1.0256,8.2048,182.564,90.2563,-39.4875,1.0256,-20.0002,-21.0256,-26.6667,-14.3591,26.0254,4.615,
49.6152,-34.8721,-1.5386,9.7437,167.564,75.2563,-35.8975,2.564,-17.436,-19.4873,-20,-19.4873,37.4355,1.5386,
34.6152,-41.282,2.3079,12.0515,152.564,60.2563,-34.6155,2.8206,-14.1023,-13.0769,-13.5896,-6.9231,34.6155,-2.3079,
19.6152,-45.3848,-0.25635,8.9741,137.564,45.2563,-38.2053,0.25635,-15.1284,-11.5386,-12.564,-3.3335,43.3335,2.3076,
4.6152,-42.564,3.0771,16.9233,122.564,30.2563,-31.282,7.6924,-4.1025,-6.6665,-2.564,-9.7437,51.7949,15.8975,
-10.3848,-45.8975,4.8716,19.7437,107.564,15.2563,-35.6411,10,0.25635,-0.25635,-1.2822,5.2563,46.9229,18.7178,
-24.3591,-51.5383,2.3079,13.5896,92.564,0.25635,-42.3076,7.949,-2.3079,2.3079,-2.8206,20.2563,37.1794,22.8206,
-34.6155,-53.5898,0.76929,14.6155,77.564,-14.6155,-44.3591,6.9231,-5.3845,-0.76929,1.282,21.282,30.5129,23.8459,
-46.1538,-58.4617,0.5127,18.4614,62.564,-22.564,-43.5898,3.0767,-1.5386,-0.5127,4.6152,14.8716,31.7949,14.3589,
-55.8975,-63.0769,-3.5896,13.8459,47.564,-28.718,-46.1538,-0.51294,3.5896,0.51294,5.1282,25.6409,43.5896,13.8459,
-60.7695,-61.2822,-11.5388,7.4358,32.564,-29.4875,-48.4617,1.282,0.76929,-0.76929,6.9231,36.1536,58.5896,25.3845,
-61.7949,-62.3076,-11.0256,6.4104,17.564,-30.5129,-44.8718,5.8977,-1.7947,1.7947,8.9744,26.9231,51.0256,27.949,
-68.4614,-63.3333,-12.5642,4.3591,2.564,-37.6924,-48.4614,2.3079,-2.3079,2.3079,4.8718,15.1282,36.0256,20.2566,
-75.6409,-60.7693,-13.5898,4.3589,-12.436,-39.2307,-52.564,-0.76904,4.8721,0.76904,6.4102,28.9746,36.1538,22.8208,
-78.718,-65.3845,-11.0256,8.4617,-27.436,-41.282,-47.9487,2.3079,3.8459,-2.3079,5.8972,42.3079,41.7947,27.949,
-78.4617,-63.5898,-11.7949,11.7949,-42.436,-41.5386,-43.5898,5.1279,-2.0513,2.0513,5.6411,37.436,37.9487,26.1538,
-85.6411,-64.1025,-13.3333,5.6409,-57.436,-47.1794,-48.718,-0.51294,0.51294,2.051,5.1282,22.436,32.3079,17.4358,
-84.8718,-64.8718,-6.9229,7.436,-72.436,-44.8718,-50,1.2822,6.4102,-1.2822,8.9746,32.0513,38.7178,18.2051,
-84.3589,-68.9741,-7.9485,9.4875,-87.436,-38.7178,-48.4614,3.3333,4.3591,-3.3333,7.949,39.7439,41.7952,24.3591,
-91.282,-70.2563,-13.3333,5.1282,-102.436,-45.6409,-48.7178,-1.0256,3.0769,1.0256,5.6414,24.7439,34.8718,22.5642,
-91.0256,-65.8975,-15.1279,4.8721,-117.436,-54.1025,-51.5383,-2.8203,4.8721,2.8203,5.8975,9.7439,34.6152,15.6411,
-85.3848,-67.436,-13.5896,7.4358,-132.436,-48.9744,-49.4873,-1.282,3.8459,1.282,5.8972,24.7439,38.2048,18.2048,
-88.2053,-70.2566,-13.3335,6.6665,-147.436,-39.4873,-50.2566,0,0,1.0254,3.5898,33.8462,31.2817,22.0513,
-89.4871,-65.3845,-14.6155,9.4871,-145.3845,-36.1536,-49.4871,3.3333,-0.76929,0.76929,1.282,18.8462,30.0002,22.3079,
-86.6667,-63.0771,-14.3589,16.4102,-133.3335,-37.436,-44.6155,2.564,2.0513,0,0,20.5127,37.9487,24.6152,
-90.7693,-65.6411,-12.3076,20.5127,-136.4104,-35.8975,-47.1797,3.0767,1.5386,-1.5386,2.0513,29.7437,37.9487,25.6411,
-90.769,-65.1282,-10.2561,16.9231,-129.2307,-33.3333,-44.1025,7.1794,1.0256,-1.0256,7.6926,31.7952,40.5129,24.6155,
-80,-61.0256,-12.3076,15.8975,-114.2307,-37.436,-34.3589,8.2051,2.564,-2.564,7.6924,29.231,49.231,25.1284,
-76.1538,-61.282,-13.5896,21.282,-99.2307,-47.9487,-25.8972,4.3591,1.7947,-1.7947,7.4358,14.231,43.3333,20.7693,
-81.0256,-70.2563,-9.7434,19.4871,-97.436,-59.4873,-25.6409,1.0256,-0.51294,0.51294,7.1794,10.7693,28.3333,11.282,
-73.5898,-63.8462,-5.3845,21.282,-87.4358,-57.6924,-26.4104,4.8718,0.76929,-0.76929,5.3845,25.7693,34.1028,14.6155,
-64.3589,-53.0769,-2.8206,25.8977,-78.7178,-48.4614,-18.2048,8.9744,1.282,-1.282,10.0002,29.4871,35.1282,19.7439,
-68.718,-57.9487,0,29.231,-89.2307,-48.718,-14.3589,7.6924,-1.5386,0,9.231,14.4871,20.1282,19.4873,
-68.9744,-62.8203,-2.8203,31.0259,-84.3589,-49.4871,-20.769,7.436,0.25635,-0.25635,1.2822,12.0513,19.231,23.3335,
-66.1538,-61.5383,-3.5896,32.3079,-77.4358,-50.2563,-15.3845,8.718,5.1282,-1.0256,1.0256,24.6155,32.8206,25.1282,
-67.6924,-61.5386,-2.5642,34.3591,-89.7437,-53.3335,-10.7693,6.6667,0.51294,-0.51294,0.51294,9.7434,23.0769,18.4617,
-63.5896,-59.4871,1.0259,33.8462,-89.7437,-49.7437,-14.3589,9.7437,0,2.0513,-1.5386,0,16.9233,14.8721,
-63.0769,-61.0256,0.51294,30.2561,-77.436,-48.718,-14.8718,9.7434,2.051,-0.51294,-3.0769,15,25.6409,15.3845,
-67.436,-64.3591,-0.76953,30,-76.1541,-47.949,-10,5.8975,0.25635,0.25635,-0.25635,30,20.2563,22.8203,
-72.8206,-69.7437,-0.51269,27.1797,-86.6667,-50.7693,-7.1797,4.1025,0.5127,2.564,1.0259,22.0513,5.2563,23.5898,
-73.5898,-70,-4.8716,24.8716,-79.7437,-52.0513,-14.1025,1.7949,2.3076,0.76904,0.25635,16.1538,-0.25635,14.1025,
-73.333,-70.769,-10.7688,21.0256,-66.6665,-47.6921,-21.0256,-1.0256,4.1028,1.0256,3.0774,24.6155,9.7439,11.7952,
-73.5896,-73.0769,-9.9998,18.718,-68.9744,-46.4102,-17.1794,-0.76929,4.3591,0.76929,4.8718,25.8977,2.3079,18.718,
-67.436,-67.9487,-2.8206,27.4358,-72.0513,-49.4873,-11.5383,5.8972,3.8459,2.8206,3.3333,10.8977,-4.8718,24.3591,
-62.564,-63.5898,1.0256,32.3079,-67.6924,-48.2051,-9.7434,7.1794,8.718,6.6667,4.6155,-4.1023,-1.0256,22.0515,
-61.282,-63.3333,-3.8459,25.8972,-62.3076,-39.7437,-15.1282,0.76929,5.8972,-0.76929,2.8206,8.9744,1.282,15.1282,
-56.4104,-58.9744,-1.5386,27.1792,-53.3335,-30.769,-11.2822,5.1279,1.5386,-5.6411,6.6665,23.9744,2.0513,20,
-56.9233,-58.9746,2.0513,29.7432,-53.8464,-34.3591,-5.1284,9.2305,3.5894,-2.0513,4.6152,19.4868,-3.5898,23.5894,
-59.4873,-63.0769,1.5383,25.1282,-57.9487,-38.9744,-12.3079,3.5896,2.5642,1.0256,-1.0256,5.6409,-4.6155,18.9744,
-60.2563,-65.8975,0.25635,19.7437,-57.1794,-38.2051,-16.6665,-0.25635,3.3335,-3.8462,0.76904,18.2051,3.8462,18.2051,
-58.718,-61.282,-2.8203,20.2563,-52.5642,-36.6667,-13.0771,3.3335,5.3848,-2.3076,2.3076,8.9746,3.8462,17.6924,
-55.1282,-58.2051,-2.3076,22.3076,-46.4102,-35.6411,-7.9487,5.3848,4.3589,6.9229,3.3335,-3.8462,2.3076,17.1797,
-58.2051,-64.3589,-3.333,22.3076,-52.564,-37.1794,-10,2.3076,0.25635,5.8975,4.8721,11.1538,-0.25635,17.6924,
-57.1794,-60.2563,-3.8462,26.4102,-54.1025,-34.6152,-14.1025,5.3848,5.8975,3.8462,7.436,26.1538,-10,19.7437,
-52.8203,-54.3589,-5.1282,25.1282,-46.1538,-32.8206,-11.282,5.6409,10.7693,5.1282,7.6926,22.0515,-24.1023,17.4358,
-50.5127,-53.0769,-3.8462,24.8716,-43.3333,-32.5642,-8.9741,4.3589,4.8716,3.8462,7.436,10,-22.3076,20.2563,
-53.0771,-58.2053,-0.76929,27.9485,-47.949,-37.1797,-8.4617,7.9485,3.8459,0.76929,3.8459,16.6667,-17.6926,19.2307,
-55.6411,-61.7949,0.25635,30,-48.4617,-44.3591,-5.8975,10.5127,7.9487,0.25635,-0.25635,18.7178,-32.6926,12.564,
-50.7695,-56.9233,-2.0513,32.3076,-43.5898,-35.3848,-6.667,10.2563,6.1538,6.1538,2.0513,14.8716,-33.8464,17.9487,
-49.7437,-56.4104,-2.564,27.1792,-43.0769,-28.2051,-7.1797,8.2051,4.6152,7.6924,2.564,8.2051,-21.5386,22.564,
-56.4104,-60,0.5127,25.6411,-44.1025,-34.8718,-6.1538,7.1792,3.5898,1.5386,-0.51269,12.8203,-26.1538,12.8203,
-58.2051,-57.1794,7.4358,35.6409,-42.3079,-35.6411,-4.8718,11.0256,6.9231,-1.282,1.282,21.7947,-35.6411,16.1536,
-57.9487,-62.0513,7.1794,32.3074,-45.1284,-41.0256,-8.718,6.6667,5.1282,0.51294,-0.51294,6.7947,-49.231,17.4358,
-61.5386,-63.0769,1.0256,27.1794,-45.1282,-45.6411,-13.3333,3.5896,0.51294,1.0256,-0.51294,0.51294,-46.6667,7.6921,
-63.3333,-54.6152,-0.25635,30.5127,-43.8459,-38.7178,-8.4614,10,3.3335,0.25635,7.9487,15.5129,-32.0513,13.0771,
-64.6157,-56.4104,1.0256,29.2307,-45.1284,-38.9746,-8.2053,8.2048,3.5896,-1.0256,2.5637,3.5896,-41.5386,16.4099,
-55.6409,-49.4871,11.0256,35.6409,-36.1538,-35.1282,-1.7947,12.0515,9.4871,9.4871,1.7947,-4.8718,-43.8462,14.6155,
-59.231,-54.6155,6.9231,32.051,-41.7949,-37.1797,-1.282,13.0769,8.9744,6.9231,1.282,-2.8206,-47.436,6.4104,
-60.5127,-58.4614,0,30.7695,-41.0256,-37.4358,-2.564,12.3076,7.6924,0,1.5386,3.5898,-43.0769,12.8208,
-51.5383,-56.1538,-0.76929,30.5129,-30,-32.564,-1.282,10.0002,3.3333,0.76929,0.76929,12.5642,-30,21.282,
-47.436,-51.0259,1.7949,32.0513,-26.9233,-23.8462,-1.2822,11.5381,0.25635,4.8716,-0.25635,13.0767,-23.8462,16.1538,
-50.7693,-47.6924,1.5386,29.7437,-30.7693,-23.5898,-7.1797,8.7178,0.5127,0.5127,-0.51269,1.5386,-28.2053,12.3076,
-50.5129,-52.0515,3.3333,27.4358,-32.5642,-30.0002,-7.949,2.8206,1.282,-1.282,2.3074,1.7947,-23.8464,15.1282,
-47.436,-48.4617,10.5125,34.6155,-24.3591,-25.8977,-5.3845,8.4612,-1.282,1.282,3.3333,13.5896,-8.8464,17.1794,
-50.5127,-44.3589,6.9231,32.0515,-19.7434,-17.6921,-6.9231,11.5388,-0.76929,0.76929,2.8206,3.8464,-1.7947,15.1282,
-50.2561,-45.6409,-2.0513,25.6411,-30.2563,-16.4102,-6.1538,9.231,5.6411,2.0513,5.6411,2.5645,-7.6919,17.436,
-49.4873,-46.4102,-1.2822,27.436,-39.7437,-20.769,-7.436,12.0513,1.2822,2.8203,4.8716,17.5645,-15.1284,21.2822,
-50.5127,-46.4102,5.8977,27.949,-32.0513,-19.7434,-5.3845,15.6414,0.76929,-0.76929,3.8464,11.0256,-17.6921,17.6926,
-41.7949,-42.8206,3.333,24.3589,-17.0513,-14.6152,-2.3076,12.564,2.3076,-8.9746,2.3076,3.333,-6.4102,14.1025,
-26.7949,-34.3586,0.51294,24.1028,-2.0513,-10.7693,-0.51294,10.2566,-4.6155,-9.2307,0.51294,11.282,-1.5383,15.8977,
-16.6665,-29.4873,4.3589,23.8462,12.9487,-6.9229,-0.25635,12.0513,-11.5386,-4.8716,0.25635,11.0259,-6.4102,14.6152,
-22.564,-32.3076,0,20,19.4873,-4.1025,-3.0767,11.7949,-13.333,-7.1792,0,4.6157,2.0513,12.3076,
-27.1794,-35.8972,-0.51294,18.9744,14.8718,-8.718,0.51294,9.7434,-10.2566,-8.2053,1.5383,-2.0515,12.3079,11.7947,
-26.6667,-33.8459,1.0256,19.9998,6.1541,-14.8718,-1.0256,4.1028,-14.3591,-10.2566,1.5383,-7.1794,3.5896,8.2053,
-24.3589,-28.9746,1.2822,20.2563,8.4614,-7.436,-1.2822,4.8716,-15.1284,-8.9746,3.8462,7.8206,-1.2822,12.564,
-30.769,-33.8462,1.5386,17.9487,6.6665,-5.1284,1.5386,5.6411,-13.3335,-6.1538,-1.5386,22.8206,-3.5898,15.3848,
-34.8716,-37.9487,0.51269,18.9741,2.564,-8.2051,0,2.564,-12.8203,-3.5898,-6.6665,7.8206,0,15.3848,
-32.5637,-37.1794,0.76929,18.718,1.7952,-10.5125,2.3079,3.3333,-11.0256,-3.3333,-0.76929,-6.4099,8.4617,14.6155,
-34.6152,-36.6665,0.25635,15.1279,-1.7949,-12.564,0.25635,2.8203,-12.564,-8.4614,3.8462,-0.25635,6.9229,10.5127,
-32.8206,-33.3337,-1.0256,14.3586,3.0769,-9.7439,-2.0515,1.5383,-15.8977,-7.1799,1.0256,5.6409,4.1023,9.2307,
-26.9231,-27.9485,0.25659,20.7693,6.9231,-7.4358,4.3591,5.3845,-12.5642,-0.76929,-0.25659,-4.8718,7.4358,13.0769,
-26.4102,-27.9487,0.25635,25.8975,-0.25635,-7.9487,10.5127,8.9741,-8.4614,2.8203,-1.2822,-11.0259,5.3843,12.0513,
-32.564,-34.6152,0.76953,21.2822,-7.4355,-10,9.4873,6.9233,-9.4868,-0.25635,-3.333,1.7949,0.25635,7.436,
-31.5381,-32.0513,8.9746,19.7437,-3.8462,-12.0513,7.9487,6.4106,-9.4868,-4.8716,-4.3589,10,3.8462,5.8975,
-25.3845,-28.4612,9.4875,22.3079,1.282,-10.5125,5.3845,8.4617,-10.5125,-7.4358,-4.3586,1.282,-1.282,8.4617,
-21.282,-29.4871,2.8206,21.282,0.25659,-6.4104,8.4617,10.5129,-12.5642,-5.8972,-0.25659,1.282,-7.9485,13.0769,
-16.4102,-26.6665,8.2051,21.0259,0,-5.6411,8.2051,7.1797,-15.3848,-6.6665,0,7.1797,-1.5386,10.769,
-19.2305,-26.9229,13.0771,18.7183,0.25635,-11.5386,4.3589,-0.25635,-18.7178,-15.6411,-6.9229,1.7949,2.3076,3.8462,
-19.4871,-26.6667,10.7693,23.5896,3.5896,-8.718,10.7693,5.1282,-13.3333,-9.7434,-3.5896,-8.2053,6.6667,9.7434,
-18.2051,-27.9487,2.8208,21.2822,0.76904,-4.8716,5.3848,9.4873,-13.5898,-3.8462,-0.76904,-7.9487,11.5386,13.5898,
-21.5386,-30.7695,1.5386,12.3076,-5.1284,-8.7183,2.564,3.5898,-15.8975,-9.7437,-1.5386,5.6411,5.1279,8.7178,
-22.564,-27.6924,4.1025,15.3848,-2.0513,-6.1538,10.2563,3.0771,-13.8462,-10.769,2.0513,11.7949,-2.0513,11.2822,
-23.3333,-27.949,-3.3333,12.051,3.3333,-2.3079,4.3586,1.282,-17.6926,-7.949,-1.282,3.3333,12.9487,15.6409,
-20.2561,-23.8459,-6.9231,8.9744,14.1028,-0.76929,0.76929,2.8206,-17.1794,-2.8206,-4.3586,2.8206,27.9487,16.6667,
-24.3591,-22.8206,-5.3845,13.5896,13.5896,-2.8206,4.8718,3.3333,-12.0515,-6.4104,-3.8464,2.8206,12.9487,14.1023,
-25.6411,-23.5896,5.1282,23.5896,1.5383,-4.6155,14.8718,5.6409,-1.5383,-3.5896,4.1028,-6.1541,-2.0513,16.9231,
-26.4104,-22.8206,3.3333,21.7947,0.25659,-9.4871,4.8718,3.8459,-5.8972,-0.25659,2.8206,-21.1541,-17.0513,12.5642,
-22.0515,-16.9231,-4.6155,18.4612,15.2566,-1.0256,1.0256,5.6409,-12.3079,1.5383,2.051,-16.9231,-32.0513,10.2561,
-20.5127,-20.5127,-11.2817,16.9233,15.3848,5.1284,2.0513,4.6157,-14.8716,-5.1279,-2.0513,-1.9231,-47.0513,9.7437,
-17.1797,-16.1538,-11.0259,20.769,6.9229,2.3076,1.7949,10.5127,-13.0771,-7.9487,-1.7949,10.5127,-62.0513,13.5898,
-15.1282,-10.5129,-4.3591,25.3845,10.5129,3.3333,6.9231,15.6409,-5.8972,-3.3333,3.3333,-4.4873,-77.0513,20.7693,
-16.6667,-10.0002,-1.282,31.5383,15.6409,8.9744,8.9744,14.6155,-5.8977,-0.76929,0.76929,-12.0515,-92.0513,18.718,
-16.6667,-8.9744,-1.7947,35.1282,12.5642,8.4617,9.4871,14.6155,-6.9231,-0.25659,0.25659,-0.25659,-107.0513,14.6155,
-21.282,-8.9744,-1.7947,31.5388,2.8206,1.282,10.5129,13.5901,-4.8718,-1.282,1.7952,-2.8206,-122.0513,20.2566,
-22.8206,-7.949,3.3333,37.6921,1.7947,0.76929,11.0256,17.1794,-5.8977,-1.282,-0.76929,-1.7947,-118.718,24.3591,
-24.3591,-12.5642,2.3079,41.7947,1.282,-2.8206,9.4871,20.7693,-9.4871,-0.25659,-4.8718,0.25659,-120.2563,12.5642,
-20.0002,-12.8206,-2.5642,41.0256,8.2048,0.51294,9.7434,18.9744,-8.718,-0.51294,-3.0769,1.5383,-125.1282,10.2566,
-18.2051,-14.1025,-5.8975,35.6411,15.1284,4.8721,5.3848,12.5645,-10.5127,-3.8462,-6.4102,3.8462,-120.769,13.5898,
-20.2563,-17.1797,-2.3076,35.6411,14.1025,1.7949,11.5386,16.1538,-10,-1.7949,-6.9233,5.3848,-118.718,13.0767,
-21.282,-19.2307,-2.8206,39.2307,10.0002,-1.7947,18.718,21.7952,-7.4358,1.282,-1.282,5.8977,-115.1282,17.6926,
-25.3845,-23.8459,-6.4104,36.6667,1.282,-5.8972,19.2307,17.1794,-4.3591,-0.25659,0.25659,5.8972,-108.9744,18.2053,
-27.6924,-19.9998,-1.0256,40.5129,-3.0769,-9.2307,24.6155,16.9231,-0.51294,0.51294,0.51294,7.1794,-107.1794,14.3591,
-30,-16.6667,1.7947,38.2053,0.76929,-8.9744,26.9231,16.1541,-6.4104,-3.8459,-0.76929,5.8972,-106.4102,13.0769,
-24.8716,-17.1797,0.76904,32.564,10.5127,-6.4102,28.9746,15.1284,-8.4614,-3.8462,-0.76904,3.8462,-94.1025,13.5898,
-17.9487,-14.3589,0,37.9487,24.1025,-4.1025,33.8462,18.4614,-6.1538,-4.1025,0,6.6665,-79.1025,13.3335,
-20.5127,-16.9229,-4.6152,33.3335,31.2822,-1.5386,37.9487,14.3589,-13.3335,-10.2563,1.5386,7.1797,-64.1025,13.3335,
-22.8208,-18.7183,-5.8975,23.8462,34.6152,-3.8462,40.769,12.0513,-15.6411,-6.9233,3.8462,8.9741,-49.1025,13.0767,
-19.4873,-17.436,-4.6152,23.5898,40.5127,-5.1284,40,13.8462,-10.769,-2.564,2.564,14.3589,-34.1025,13.8462,
-20,-23.0767,-11.7949,15.8975,41.0259,4.1025,33.8462,7.1797,-18.9741,-16.4102,-4.1025,7.6924,-19.1025,8.2051,
-19.4871,-22.5642,-24.1028,3.5896,45.6409,19.1025,32.3079,2.5642,-30.2566,-28.2053,-8.718,9.7434,-4.1025,4.6155,
-15.1282,-18.2053,-30.5129,-4.3591,48.4617,34.1025,35.6409,4.3591,-29.4871,-24.3591,-4.8718,24.7434,8.9744,9.9998,
-11.0256,-18.718,-33.5896,-11.0256,47.949,49.1025,27.4363,0.76929,-32.051,-26.9231,-0.76929,36.6667,21.7952,15.1282,
-2.8206,-11.5388,-35.6414,-17.1794,62.949,64.1025,22.8206,-1.282,-39.2307,-31.5388,1.282,51.0256,33.5896,23.8459,
-2.0515,-5.1282,-35.8977,-26.1541,77.949,79.1025,31.7947,1.0256,-36.9231,-29.7439,-1.0256,62.051,30.2561,30.7693,
-4.1025,-4.6152,-34.8716,-30.2563,91.7949,86.6665,30.769,2.564,-34.8716,-30.2563,-2.564,64.6152,31.7949,32.3076,
-4.3586,-11.5383,-44.3586,-39.7434,93.0769,92.0515,22.3079,-0.76929,-45.3845,-37.6921,0.76929,71.0256,44.3591,30.0002,
-3.3335,-11.5386,-49.4873,-46.9233,101.2822,96.6665,26.4102,-3.3335,-47.436,-39.7437,3.3335,81.7949,47.9487,26.9229,
-1.0256,-5.6414,-48.2053,-45.6414,112.8201,101.5383,32.8201,-5.1282,-44.6155,-38.9744,1.0256,77.9485,42.5637,26.6663,
-0.76929,-4.3586,-47.4358,-51.5383,123.8464,110.0002,35.1282,-5.8972,-49.9998,-43.8459,0.76929,76.6667,42.3079,33.5901,
-3.8459,-3.8459,-48.4617,-61.282,133.0769,122.3079,34.6155,-8.4617,-57.1794,-52.5642,3.8459,91.5383,50.5129,37.1794,
-7.1792,-5.6411,-51.7949,-63.5898,141.5386,125.1284,39.4873,-12.8203,-54.3589,-59.4873,5.6411,92.3076,51.2822,30.2563,
-8.4617,-6.9231,-58.718,-62.8206,156.5386,124.3591,46.4104,-15.6409,-58.2053,-61.282,6.9231,85.3845,51.0256,29.4871,
-9.231,-6.1538,-64.6157,-69.231,171.5386,130.2563,44.1025,-16.9233,-69.7437,-65.1284,6.1538,96.4102,58.9741,36.9229,
-7.6924,-9.7437,-63.5898,-71.7949,183.5894,133.333,44.6152,-15.8975,-68.2051,-66.667,7.6924,104.6152,63.0767,38.4614,
-7.9487,-14.6157,-71.0259,-74.1025,189.4868,130,45.8975,-19.7437,-71.5386,-69.4873,7.9487,97.6924,61.2817,35.1279,
-7.1794,-6.6667,-73.8459,-82.051,204.4868,139.4871,52.3079,-20.5129,-75.8972,-71.282,6.6667,107.6926,73.3333,43.5901,
-10,-3.8462,-73.0767,-88.4614,219.4868,147.436,59.231,-19.7432,-72.0513,-75.6406,3.8462,118.2051,81.2822,47.436,
-13.5898,-5.3848,-78.7178,-86.9233,233.0767,145.8975,60.2563,-20.2563,-74.6152,-81.2822,5.3848,113.5898,77.1797,38.7178,
-12.051,-6.9231,-81.282,-91.5383,242.8206,142.8206,61.7952,-22.3074,-80.7693,-86.4099,6.9231,105.8977,78.718,34.1028,
-2.3079,-4.3591,-79.7434,-97.1794,257.8206,145.3845,67.4358,-22.3079,-86.4104,-87.4358,2.3079,110.0002,86.4104,37.1794,
0,-1.0254,-84.6152,-98.4614,272.8206,148.2051,69.231,-23.0767,-93.333,-88.7178,0,117.436,85.6411,36.9233,
-7.9485,-0.76929,-91.5383,-96.1536,274.6155,144.8718,70.5129,-23.3333,-91.5383,-93.5896,0.76929,112.0515,83.3333,32.0515,
-12.0513,0.25635,-95.6411,-94.1025,284.3589,146.9229,74.1025,-17.6924,-85.8975,-95.1284,-0.25635,107.9487,85.8975,32.0513,
-12.564,-3.8462,-94.1025,-99.2305,288.9746,145.8975,81.2822,-13.0767,-84.8716,-93.5898,3.8462,119.231,81.7949,36.1538,
-15.3848,-6.1538,-88.7183,-101.0259,288.7178,135.8975,85.1279,-13.3335,-87.1797,-95.3848,6.1538,126.6665,76.9229,35.3843,
-14.6152,-3.3335,-92.564,-100.2563,299.231,132.0513,84.8721,-11.5386,-89.4873,-101.2822,3.3335,123.3335,81.7949,35.6411,
-12.0513,-5.8975,-98.7183,-107.436,314.1025,134.6152,88.4614,-7.9487,-90,-104.8721,5.8975,128.4614,87.4355,38.7178,
-12.0515,-9.4871,-98.2053,-119.2307,325.8972,135.6409,86.4104,-7.4358,-94.6155,-106.4104,7.4358,141.7947,87.9485,39.2307,
-12.3079,-8.718,-100.5129,-124.1028,334.8718,133.3333,84.6155,-4.6155,-101.0256,-107.1794,4.6155,145.6409,86.1536,36.9231,
-13.5898,-1.7949,-108.9741,-120.2563,343.3335,128.4614,90,-1.7949,-104.8716,-110.5127,1.7949,142.8208,83.8462,31.0259,
-13.8462,2.0513,-112.3076,-121.0254,353.3335,125.1284,98.4614,-2.0513,-107.1792,-112.8203,-3.5898,138.4614,81.0259,26.6665,
-14.1025,0.25635,-107.436,-126.9229,360.769,123.3335,105.3848,-0.25635,-108.4614,-114.1025,-6.4102,133.5898,80.2563,27.9487,
-19.9998,-1.0256,-109.7434,-131.7947,362.0515,115.3845,104.1028,1.0256,-113.8459,-123.5896,-8.2048,130.2566,83.0769,22.0515,
-23.0769,-3.0769,-117.9485,-134.3586,366.1541,104.1028,110.7693,3.0769,-114.3586,-128.718,-10.2561,124.1028,77.4358,16.4104,
-25.6411,-5.6411,-127.1797,-134.3589,369.231,96.4102,121.5386,5.6411,-115.8975,-127.6924,-17.436,111.7949,66.1538,17.9487,
-28.4619,-5.8975,-132.0513,-136.1538,374.6152,92.0513,120.769,5.8975,-121.7949,-134.1025,-21.2822,107.4355,65.3843,15.1279,
-30.769,-7.1797,-130.2563,-142.0513,380.5127,86.6665,122.564,7.1797,-122.0513,-138.4614,-21.0254,109.231,63.0771,9.231,
-36.4102,-8.2051,-131.7949,-145.1279,380,82.0513,125.6411,12.8208,-125.1279,-136.9229,-24.6152,106.6665,50.769,8.2051,
-37.6921,-7.4358,-132.5637,-148.9744,392.0515,81.282,127.4358,15.1282,-132.051,-140.7693,-25.8972,102.3079,47.949,7.4358,
-29.7434,-6.1541,-129.2307,-153.8459,407.0515,73.8459,133.3333,11.7947,-129.7434,-145.6409,-24.6155,96.4104,56.9231,6.1541,
-25.1282,-3.0769,-126.6663,-149.7434,422.0515,62.5642,142.5642,15.385,-126.1536,-147.6921,-23.5896,94.3591,66.6667,3.0769,
-26.9229,-1.7949,-121.7949,-143.8462,437.0515,55.6411,153.5898,23.3335,-124.8716,-146.9229,-18.2051,92.0513,68.9746,1.7949,
-25.8972,-1.282,-119.7434,-147.4358,452.0515,46.9231,155.6409,25.3845,-127.4358,-146.9231,-16.6667,88.9744,65.3845,1.282,
-25.8975,-2.3076,-123.8462,-151.5381,467.0515,42.3076,156.1538,30,-124.3589,-147.9487,-19.7437,90.5132,63.8462,2.3076,
-27.9487,-0.76904,-124.8716,-148.9741,471.5386,45.8975,164.3589,37.6924,-120.2563,-148.4614,-19.231,87.9487,61.2822,0.76904,
-26.4104,2.8206,-128.4617,-146.4104,470.5129,42.8206,168.4617,38.718,-124.3591,-150.0002,-20.2566,81.282,54.1023,-2.8206,
-27.4358,3.8459,-125.3845,-142.8206,468.9744,34.6155,175.6409,44.3591,-120.2566,-145.8972,-18.718,80.7693,52.5642,-3.8459,
-29.7437,5.1284,-113.8462,-134.8716,469.231,31.2822,181.0259,55.3848,-114.8716,-142.564,-16.4102,83.5898,54.3589,-5.1284,
-28.4617,4.8718,-114.6155,-138.718,471.0256,28.9744,181.7947,55.6409,-119.2307,-145.8972,-18.718,84.3591,51.0256,-4.8718,
-26.6665,4.6152,-122.564,-144.1025,468.2051,27.6924,185.1279,55.3848,-120.5127,-144.1025,-21.0259,86.6665,49.7437,-4.6152,
-28.718,7.1794,-121.5388,-140.0002,467.1794,28.2048,188.2048,66.6663,-118.9744,-141.5388,-21.5388,89.2307,54.3586,-7.1794,
-31.0256,7.4358,-120.2561,-140.2561,462.8206,22.8206,191.5388,71.5388,-118.718,-144.8718,-22.8206,85.8977,51.0256,-7.4358,
-32.3079,5.1282,-127.1794,-147.6926,452.3074,19.4871,189.2307,63.5896,-122.5642,-149.2307,-27.1794,81.5383,36.0256,-5.1282,
-31.5381,3.8462,-127.9487,-151.0254,446.4106,22.3081,185.8975,60.7695,-122.8203,-151.0254,-25.3843,82.3081,27.9487,-3.8462,
-28.9744,6.9231,-120.7693,-146.9231,447.9485,22.8206,195.1282,66.4104,-122.3079,-147.949,-21.282,81.282,30.5129,-6.9231,
-28.4617,10.5129,-120.7693,-144.8718,444.3586,18.718,200.2561,69.4871,-123.8464,-144.8718,-24.3591,74.1023,27.9485,-10.5129,
-31.282,8.718,-122.051,-145.1282,434.8718,15.3845,197.949,66.6667,-118.9744,-143.0769,-22.051,71.7952,24.1028,-8.718,
-35.3845,7.1794,-117.4358,-141.5383,431.282,12.8206,201.0256,69.2307,-111.282,-141.0256,-15.8972,74.8718,30.7693,-7.1794,
-34.6152,9.4873,-113.5898,-138.2051,426.9229,7.436,205.3848,76.1538,-109.4873,-138.2051,-16.6665,70,39.231,-7.436,
-31.2822,13.3335,-107.6924,-133.3335,418.9741,5.1284,207.1797,83.5898,-107.1797,-136.4102,-18.4614,64.1025,37.436,-5.1284,
-31.7952,13.3333,-109.7439,-131.282,411.282,6.6667,207.1794,85.1282,-111.7952,-139.4871,-20.5129,65.6409,31.7947,-6.6667,
-30.769,11.2822,-114.8716,-131.7949,407.1797,6.1538,212.8203,87.1797,-112.8203,-137.9487,-21.5386,65.1284,31.2822,-6.1538,
-25.1279,11.2822,-109.7432,-127.1792,398.9746,0,212.3081,92.3081,-109.7432,-135.8975,-23.5894,54.3594,31.2822,0,
-28.2048,11.282,-107.1794,-126.1536,386.1541,-1.0256,206.6667,92.8206,-110.7693,-136.9231,-26.1536,50.7693,29.2307,1.0256,
-33.3333,11.7952,-106.1536,-129.2307,377.949,1.5383,210.2566,94.8718,-106.6667,-129.7434,-22.051,64.6155,31.282,-1.5383,
-27.4358,13.5896,-104.8718,-129.4871,378.2053,1.7947,208.4617,98.718,-103.8459,-123.3333,-18.718,78.2053,41.282,-1.7947,
-24.3591,14.1028,-103.3333,-125.8972,376.1541,0.76929,211.5383,104.3591,-103.3333,-122.8206,-16.1541,75.6409,46.9231,-0.76929,
-22.0513,20,-95.8975,-113.333,368.7183,-0.5127,226.1538,112.8208,-94.8716,-118.4614,-6.6665,68.7183,47.1797,0.5127,
-20.2566,21.282,-96.1536,-111.5383,364.8718,2.3079,222.8206,112.5642,-96.1536,-117.1794,-8.4617,71.0256,51.5383,-2.3079,
-21.7947,12.0515,-98.2048,-117.1794,358.718,5.3845,210.5129,112.5642,-96.6667,-119.2307,-15.6409,71.5383,52.5642,-5.3845,
-23.8462,11.5386,-98.7178,-110,345.3848,1.7949,211.0259,117.6924,-88.4614,-117.1797,-12.564,64.3589,46.4102,-1.7949,
-22.8203,13.5898,-99.231,-108.9741,336.1538,0.76904,214.6152,115.6411,-88.4614,-117.1797,-9.4873,59.7437,42.3076,-0.76904,
-21.7952,8.4617,-95.1282,-113.5896,334.1023,5.3845,212.5642,107.4358,-92.5642,-120.7693,-12.5642,58.718,45.3845,-5.3845,
-24.1025,6.667,-90.769,-108.2051,324.1025,1.5386,204.6157,108.2051,-89.2305,-120.5127,-16.4102,58.9746,47.6924,-1.5386,
-25.8972,7.9485,-91.0256,-105.3845,311.0256,-5.3845,206.9231,113.5896,-85.3845,-114.6155,-18.718,58.2053,43.3333,5.3845,
-27.6924,4.6152,-95.8975,-108.7178,307.1797,0,208.7178,111.2822,-92.3076,-116.9233,-19.4873,54.8716,40.5127,0,
-27.436,2.3076,-93.5898,-103.3335,305.3848,5.3848,205.3848,111.5386,-90,-119.7437,-15.1284,56.6665,46.9233,-2.3076,
-28.2051,4.6157,-94.3589,-101.0254,294.3594,0,206.667,115.3848,-88.2051,-118.4614,-17.4355,54.8721,46.1538,0,
-27.6924,8.7178,-92.3076,-102.0513,286.6665,2.0513,212.3076,116.4102,-97.436,-115.3848,-25.6411,49.2305,37.9487,-2.0513,
-25.6409,7.6921,-82.051,-96.9231,279.4871,9.7434,215.3845,116.9231,-93.3333,-113.3333,-24.6155,43.0769,39.4871,-7.6921,
-23.8459,9.4871,-80.2566,-90.5129,275.1282,10.0002,212.5642,117.6921,-83.3333,-115.1282,-21.282,39.2307,50.5129,-9.4871,
-19.4871,10.7693,-82.5642,-90.7693,281.5383,7.1794,216.4104,117.4358,-83.0769,-114.8718,-16.9231,35.3845,52.3079,-7.1794,
-15.1284,8.4614,-76.6665,-90.5127,280.2563,5.3848,224.3589,118.7178,-76.1538,-106.4102,-12.0513,32.0513,45.8975,-5.3848,
-17.436,8.7178,-77.9487,-88.2051,270.2563,6.1538,213.333,116.9229,-67.6924,-104.6157,-14.3594,34.8716,44.6152,-6.1538,
-19.7437,7.436,-84.8721,-94.1025,259.7437,6.4102,205.8975,111.0254,-73.5898,-107.9487,-16.1538,42.3076,39.7437,-6.4102,
-14.1023,4.8718,-82.8206,-97.1794,251.0256,4.8718,212.0515,110.5129,-80.2561,-103.8459,-16.6667,46.9231,29.4875,-4.8718,
-14.1028,0.76929,-82.3079,-95.1282,245.8972,4.8718,212.5642,110.0002,-74.6155,-100.2566,-17.1794,43.8459,23.3333,-0.76929,
-20.5129,1.0256,-81.0256,-92.8206,236.9231,2.5637,209.2307,106.1536,-70.7693,-102.0515,-16.9231,37.4358,17.9485,-1.0256,
-13.5896,8.4617,-77.6921,-87.4358,235.6409,4.3591,212.5642,112.051,-73.0769,-100.2566,-17.1794,39.2307,14.6155,-4.3591,
-8.7178,5.6411,-78.9741,-88.7178,232.3076,6.6665,214.3589,113.8462,-76.9229,-96.9229,-19.4873,42.564,12.8203,-5.6411,
-13.3333,3.5896,-75.3845,-88.2053,217.3076,3.5896,211.7947,106.6667,-74.8718,-97.9485,-18.9744,37.949,8.718,-3.5896,
-10.2566,11.7947,-69.2307,-83.0769,205.6409,3.0769,214.3591,111.282,-68.718,-92.8206,-15.3845,35.3845,7.1794,-3.0769,
-2.5642,11.7947,-70.7693,-84.1028,208.718,2.5642,211.282,115.8972,-66.1541,-89.2307,-14.8718,33.3333,2.5642,-10.7693,
0.25635,11.5386,-71.0254,-82.3076,209.4873,1.7949,203.3335,113.5898,-68.4614,-94.1025,-16.1538,35.6411,-0.25635,-13.0767,
-2.0513,13.8462,-65.6411,-76.4102,198.9741,2.0513,210.769,117.436,-66.1538,-90.2563,-13.3335,39.4873,2.0513,-4.6152,
-3.0767,12.8203,-65.1284,-71.2822,190.2563,1.5386,218.4614,120.5127,-61.5386,-82.564,-11.2822,37.436,0.5127,-0.5127,
-1.7949,11.5381,-64.8721,-70.5132,190,1.7949,211.5381,115.6406,-60.2563,-86.4106,-10,40.2563,2.3076,-3.3335,
-1.7949,11.5386,-58.7178,-71.0254,189.4873,1.7949,208.9746,114.6152,-59.2305,-87.436,-8.9741,44.3589,4.8721,-3.333,
-2.5642,11.282,-58.9744,-70.7693,187.1794,1.5383,208.718,115.3845,-61.0256,-84.1023,-15.8972,38.4617,1.5383,-1.5383,
-0.76929,13.5896,-60.7693,-71.0256,183.8459,3.8459,205.8972,113.5896,-60.7693,-83.8459,-18.2053,35.1282,0.76929,-2.3079,
0,13.8462,-58.9741,-72.3076,178.9746,3.0771,201.0259,108.7183,-60.5127,-84.1025,-18.4614,34.3589,0,-4.1025,
0.25635,12.564,-56.667,-74.1025,182.3076,4.3589,200.2563,107.4355,-63.3335,-86.4102,-22.3076,32.0513,-0.25635,-1.2822,
2.3079,10.5129,-58.2053,-73.0769,178.2053,2.8206,205.8972,108.4617,-66.9231,-89.4871,-27.4358,21.7947,-2.3079,-3.3333,
9.9998,16.1536,-55.6409,-64.3591,163.8459,0.76929,206.9231,109.4871,-64.3591,-81.7952,-23.8464,16.1536,-0.76929,-5.8977,
9.7437,18.9746,-49.7437,-61.0254,156.9233,-0.5127,206.6665,110.769,-57.436,-73.3335,-17.436,17.436,0.51269,-2.0513,
5.3845,15.1282,-45.8977,-60.7693,155.1282,-2.3079,215.1282,114.1023,-50.0002,-73.0769,-16.6667,18.2053,-0.76929,0.76929,
7.6924,14.3589,-43.5898,-60,148.2051,-3.5898,214.8716,111.2817,-50.2563,-74.3589,-17.9487,17.9487,3.5898,-3.5898,
6.6665,12.3076,-39.4873,-61.0254,138.9746,-4.6152,209.7437,104.6152,-49.7437,-72.3076,-17.436,11.7949,4.6152,-8.7178,
6.6667,13.3333,-35.8977,-52.8206,140.5125,-3.0769,214.3586,113.8459,-42.5642,-66.6667,-13.8464,8.2048,3.0769,-6.6667,
14.8721,17.436,-34.3589,-43.0767,138.9746,-2.0513,222.0513,124.1025,-40.5127,-63.0767,-13.8462,8.7183,2.0513,-2.564,
18.2048,19.2307,-30.5129,-43.3333,127.4358,-1.282,222.3079,120.2561,-43.8464,-64.3591,-16.6667,7.4358,1.282,-2.8206,
17.6924,20.769,-29.4873,-42.3076,123.8462,0.76904,217.1792,116.6665,-45.3848,-63.3335,-14.1025,8.9741,-0.76904,-4.3589,
20.7695,20.2563,-28.9741,-38.2051,126.9233,1.7949,218.2051,119.7437,-41.7949,-56.6665,-12.0513,13.5898,-4.8716,-1.7949,
20.7693,22.3079,-22.8206,-37.1794,123.3333,1.282,219.7434,119.7434,-41.282,-54.6155,-17.1794,15.1282,-1.282,-1.282,
17.1794,23.3333,-19.2312,-37.1794,112.051,-4.8718,219.2307,116.1536,-39.2312,-58.2053,-18.2053,8.4612,4.8718,-5.8977,
22.564,22.0513,-16.4102,-31.2822,108.2051,-9.7437,222.0513,117.436,-32.8208,-55.8975,-11.2822,6.6665,4.1025,-4.1025,
22.564,17.9487,-23.0771,-34.3589,105.1279,-7.6924,217.436,115.8975,-36.9233,-56.9233,-14.3589,6.6665,4.1025,-4.1025,
18.7178,16.1538,-24.8721,-39.7437,101.2817,-6.4102,217.6924,113.0767,-34.1025,-57.1797,-15.1284,5.8975,7.436,-5.8975,
14.6155,11.5383,-24.8718,-38.2053,98.2048,-13.5896,211.5383,105.8972,-34.1028,-57.1794,-16.1541,5.3845,4.3591,-4.3591,
9.4871,5.8972,-30.5129,-41.7947,91.0256,-14.6155,201.7947,100.7693,-42.3079,-60.2566,-19.2307,8.4617,2.3079,-2.3079,
9.7439,10.7693,-29.2307,-41.5383,86.6667,-9.7434,205.6409,108.718,-39.4871,-58.9744,-15.8972,10.2566,3.5896,-3.5896,
11.5386,15.6411,-20.2563,-32.564,91.0259,-10,210,114.6157,-32.564,-52.564,-14.1025,11.0259,4.3589,-4.3589,
11.0259,10.5127,-21.2822,-32.564,90.5127,-15.1284,207.9487,105.8975,-33.0771,-52.564,-15.6411,12.0513,1.2822,-1.2822,
17.6924,10.5127,-26.9229,-35.6411,93.0771,-9.4873,206.9229,105.3848,-35.1284,-57.1797,-16.6665,10.5127,1.2822,-1.2822,
19.7437,12.0513,-27.436,-35.6411,94.6152,-4.8721,204.3589,109.4868,-34.6157,-56.1538,-17.1797,4.8716,4.3589,-4.3589,
19.4873,9.2305,-17.9487,-29.7437,88.2051,-8.2051,210.2563,110.769,-26.1538,-47.6924,-12.3076,-0.5127,5.1279,0.5127,
25.6414,13.3337,-13.3333,-19.4871,84.1028,-8.7175,215.8977,112.8206,-20.5125,-42.051,-6.1536,-1.0256,7.1794,1.0256,
31.0256,18.2053,-10.0002,-13.5896,86.9231,-5.3845,220.7693,118.2053,-15.1282,-35.6409,-2.8206,1.282,10.5129,-1.282,
25.8972,14.1023,-7.949,-16.1541,83.3333,-8.9744,221.7947,115.6409,-13.0769,-33.0769,-3.3333,0.76929,11.0256,-0.76929,
20.5125,9.2307,-9.2312,-17.4363,74.8718,-14.8718,216.4099,108.2048,-15.8977,-36.9231,-4.6155,-1.0256,5.6409,1.0256,
25.6409,11.282,-6.6667,-9.7434,68.2053,-14.3591,221.5383,114.8718,-13.3333,-30.2566,-4.1028,-0.51294,0.51294,1.5383,
31.0259,14.6152,-3.8462,-7.436,65.3848,-12.564,223.8462,121.2822,-11.5386,-26.4102,-5.8975,2.8203,0.76904,-0.76904,
32.0515,14.6155,-3.3333,-12.5637,67.949,-12.051,219.7439,119.2307,-13.0769,-32.5637,-6.9231,1.7952,0.76929,-0.76929,
34.3591,18.4617,-2.5642,-9.2307,71.7947,-7.6921,223.0769,121.5383,-10.2566,-29.2307,-5.1282,-0.51294,0.51294,2.051,
33.8459,20.5125,-5.1282,-7.6926,66.6663,-12.8206,222.051,119.9998,-10.2566,-26.6667,-4.6155,-1.0256,3.5896,1.0256,
32.051,17.1794,1.282,-9.4871,58.718,-22.8206,218.718,114.1023,-10.0002,-28.4617,-2.8206,-4.3591,11.0256,-1.282,
28.9744,12.0515,5.3845,-6.4099,49.4875,-23.8459,213.5901,110.0002,-9.4871,-29.9998,-6.4099,-11.5383,11.0256,-5.3845,
31.0256,10.5129,0.76929,-6.4104,40.7693,-14.1028,210.5129,109.4871,-10.0002,-30.5129,-8.4617,-7.949,2.8206,-0.76929,
34.6155,13.0769,-2.3079,-11.0256,34.1028,-4.3591,208.4617,107.4358,-15.1282,-35.1282,-7.4358,-1.282,1.282,4.3591,
31.7947,14.3591,0.51294,-12.8206,28.718,-1.5383,203.0769,106.1541,-18.4617,-36.9231,-10.2566,-9.7434,5.6409,-0.51294,
30.769,11.2822,2.564,-7.6924,20.5127,-6.6665,207.1797,111.2822,-8.7178,-29.7437,-7.6924,-17.9487,2.0513,-2.0513,
30.5129,11.0256,3.3333,2.8206,7.949,-13.5896,212.5642,114.1028,-6.4104,-25.8972,-6.9231,-19.2307,-7.4358,-2.8206,
29.2307,16.4104,11.7947,6.1541,5.6409,-11.282,212.3079,115.3845,-10.2566,-23.0769,-5.6409,-20.0002,-6.1541,-6.6667,
28.718,16.4104,13.3333,-0.51294,5.1282,-12.8206,207.1794,112.8206,-7.1794,-26.1536,-5.1282,-27.6921,0.51294,-8.718,
35.6409,16.1536,7.9485,-1.7947,4.3591,-14.1028,202.8206,108.9744,-5.3845,-30.5129,-7.949,-32.5642,1.7947,-6.9231,
34.3591,14.3591,7.6921,-1.0256,3.0769,-12.3079,201.5383,106.6667,-9.7434,-28.718,-11.282,-34.3591,1.0256,-10.7693,
29.2305,15.897,8.7178,0,0,-13.8462,197.9482,106.1538,-7.1797,-24.6157,-9.231,-32.8208,4.6152,-10.2568,
29.2307,19.4871,7.1794,0.51294,-2.5642,-14.3591,197.9485,107.6921,-0.51294,-26.6667,-7.6921,-26.1541,5.1282,-3.0769,
27.6924,16.9233,11.2822,1.5386,-9.2305,-16.4102,205.1284,111.7949,0,-23.5894,-9.2305,-23.0767,0,-4.6152,
28.4617,16.1541,17.6926,7.949,-11.5383,-19.7434,210.0002,110.5129,1.282,-11.0256,-6.4104,-25.8972,-1.282,-4.3591,
26.1538,12.3076,12.3076,9.231,-17.9487,-26.1538,206.6665,111.7949,4.1025,-9.7437,-6.1538,-31.7949,-11.2822,-4.1025,
27.9487,12.564,12.564,12.0513,-19.231,-21.7949,205.3848,126.7949,5.3848,-12.0513,-5.3848,-28.4614,-11.5386,-5.3848,
28.718,13.3333,12.8206,11.7947,-14.3591,-20.0002,200.5129,141.7949,0.51294,-14.8718,-6.1541,-25.6409,-0.51294,-10.2566,
25.6409,12.8206,15.8972,11.282,-17.949,-25.6409,197.4358,156.7949,0.51294,-10.7693,-6.1541,-26.6667,-0.51294,-9.7439,
26.6665,17.436,14.8716,12.3076,-20,-23.0767,193.3335,171.7949,3.5898,-10.769,-4.6152,-21.0254,-4.1025,-3.5898,
27.6921,14.8718,8.718,5.6409,-15.8972,-18.9744,192.3079,186.7949,1.0256,-17.9485,-5.1282,-17.4358,-1.0256,-1.5383,
27.6924,13.8462,12.8208,6.667,-18.4614,-21.5381,193.8462,199.4873,0,-20,-7.1792,-18.9741,0,-3.0767,
25.6411,15.8975,15.8975,12.8203,-24.1025,-25.6411,188.7178,194.8716,-0.5127,-20,-10.7695,-15.8975,0.5127,-7.1797,
21.0254,8.2051,10.2563,7.1792,-22.5645,-28.7183,182.0513,189.7432,-2.0513,-24.1025,-13.3335,-16.9233,2.0513,-11.2822,
17.4358,4.1028,7.1794,5.1282,-22.051,-28.2053,179.4871,186.1541,-1.5383,-24.6155,-12.8206,-24.1023,1.5383,-10.2566,
14.8718,2.051,11.282,9.7434,-29.2307,-29.2307,182.5642,185.1282,-1.5383,-20.0002,-12.8206,-27.6926,1.5383,-6.6667,
11.0254,-0.76904,16.6665,10,-30.5127,-34.1025,184.3589,183.3335,0.76904,-22.3076,-12.564,-32.564,4.3589,-10,
8.9741,-0.25635,15.1284,9.4873,-26.4102,-28.9746,180.769,181.2822,0.25635,-26.9233,-12.564,-36.6665,6.9229,-12.0513,
10.5127,4.3589,14.6152,14.1025,-30,-20.7695,183.3335,183.3335,-1.7949,-18.7178,-14.1025,-36.1538,1.7949,-7.436,
10.7693,6.6667,17.4358,24.1028,-34.8718,-24.6155,189.2307,188.718,3.0769,-8.718,-9.2307,-37.4358,-3.0769,-4.6155,
7.436,2.3076,18.2051,23.8462,-35.6411,-30.5127,187.9487,186.4102,6.4102,-14.1025,-6.9229,-40.769,-2.3076,-8.4614,
15.3845,4.6155,18.9744,21.0256,-31.282,-17.4358,185.1282,183.5896,3.5896,-18.9744,-11.282,-36.4104,-3.5896,-7.1794,
22.3079,10.5129,16.1541,21.282,-29.4871,-2.4358,182.3079,183.8464,0.76929,-12.5642,-18.718,-29.4871,-11.5383,-2.3074,
19.2305,11.0254,15.1279,20.769,-34.1025,-1.7949,182.3076,183.333,1.7949,-9.4873,-17.6924,-31.5386,-12.5645,-4.3589,
23.8464,13.5901,20.2566,27.4358,-34.6155,-2.8206,183.3333,184.3591,2.8206,-11.5383,-9.9998,-26.9231,-4.3586,-3.3333,
25.1282,10.2566,17.4358,25.6409,-37.4358,-0.51294,179.4871,181.5383,0.51294,-11.7947,-14.3591,-17.9485,-6.1536,-2.5642,
21.0254,5.6411,13.8462,20.5127,-43.0771,-2.564,177.436,178.4614,2.564,-8.7178,-18.4614,-17.436,-8.2051,-4.6152,
22.3076,9.4873,14.6152,18.7178,-42.3076,-2.3076,172.0513,175.1279,-0.25635,-10,-16.1538,-15.1284,0.25635,-0.76953,
21.282,7.949,13.0769,18.2053,-46.4099,-4.8718,166.9231,173.0769,-1.282,-10.5125,-14.1023,-16.6667,-3.8459,1.282,
23.3333,7.9485,12.051,21.7947,-51.5388,-10.0002,168.4612,166.9231,2.8206,-9.4875,-16.1541,-23.3333,-12.5642,-2.8206,
25.8972,8.9744,16.6667,22.3079,-53.0769,-8.4617,170.5129,151.9231,4.8718,-8.9744,-14.1028,-26.9231,-6.9231,-4.8718,
22.3074,3.3333,18.2048,21.7947,-56.1541,-12.0515,168.9744,136.9231,5.3845,-12.5642,-12.5642,-34.1028,-3.3333,-7.949,
25.1284,5.1284,17.9487,26.6665,-55.3848,-16.4102,169.7437,121.9231,7.1797,-11.7949,-13.8462,-35.8975,-5.1284,-10.2563,
27.1797,6.6665,21.0259,25.6411,-56.9229,-13.8462,171.2822,106.9231,9.231,-6.6665,-11.7949,-30.769,-9.231,-10.2563,
23.0769,4.1028,22.0515,24.1028,-58.9744,-10.7693,166.6667,98.4617,6.1541,-4.6155,-14.3591,-27.1794,-11.7947,-4.1028,
21.5386,2.564,18.4614,24.1025,-64.1025,-16.9233,162.564,94.3589,3.5898,-6.1538,-16.9233,-31.2822,-11.2822,-2.564,
22.8206,2.3079,17.1794,24.8718,-68.9744,-19.2307,164.8718,98.718,9.4871,-2.3079,-12.5642,-34.1028,-7.949,-5.3845,
20.2561,2.8206,19.7434,25.8972,-67.949,-15.6414,159.2307,100.2561,8.4612,-2.8206,-13.5901,-30.0002,-5.385,-4.3591,
17.6924,1.7949,22.3076,26.9233,-71.5386,-18.2051,157.6924,99.231,6.9233,-5.8975,-16.1538,-32.0513,-8.9741,-1.7949,
22.5642,3.0769,22.051,30.2566,-76.4104,-16.9231,160.5129,101.5383,12.3079,-7.1794,-14.8718,-35.8977,-7.6921,-3.0769,
23.333,2.3076,19.7437,26.9229,-71.5386,-18.2051,157.6924,100.2563,12.0513,-8.9746,-12.564,-34.6152,-2.3076,-8.4614,
20.0002,1.5383,23.0769,27.1794,-69.2307,-23.0769,160.5129,98.4617,16.4104,-5.1282,-6.6667,-33.8459,-1.5383,-7.6921,
15.6409,1.7947,22.8206,27.949,-73.5898,-24.3591,154.6155,94.1028,12.5642,-7.4358,-12.5642,-41.282,-1.7947,-8.4617,
13.3335,-1.5386,16.4102,20,-71.2822,-22.0513,146.6665,89.231,2.0513,-15.3848,-20,-46.6665,1.5386,-13.8462,
17.1797,-3.3335,13.5898,19.7437,-63.8462,-20.769,149.4873,91.0254,3.3335,-13.5898,-14.1025,-44.8721,4.8716,-17.1797,
17.9487,-5.1284,18.9741,25.1284,-63.0771,-18.4614,150.769,95.3848,9.7437,-9.7437,-10.2563,-39.4873,5.1284,-13.3335,
16.6665,-6.4102,26.9233,26.4102,-68.4614,-15.6411,150.5127,97.1797,10.5127,-10.5127,-13.0767,-36.1538,5.3848,-5.3848,
14.6152,-6.4102,19.231,22.3076,-73.5898,-14.1025,146.9233,93.0771,6.4102,-11.5386,-15.1279,-41.7949,7.9487,-6.9229,
12.3079,-9.2307,11.282,18.4617,-77.4358,-16.9231,144.1028,90.2566,8.718,-8.718,-14.8718,-46.1536,8.718,-11.282,
11.7949,-9.7437,17.9487,20.5127,-80.5127,-22.564,144.6152,94.3589,12.3076,-5.6411,-13.333,-41.5386,5.6411,-10.2563,
11.5383,-7.4358,19.2307,25.3845,-83.3333,-22.3079,145.3845,97.1794,16.1541,-3.8459,-12.5642,-37.1794,3.8459,-8.4617,
9.4873,-9.4873,18.2051,26.4102,-86.4102,-22.3076,148.4614,95.1284,19.7437,-2.3076,-11.0259,-38.7178,2.3076,-8.9746,
8.4614,-7.9487,22.3076,26.9229,-85.3845,-25.8975,143.3335,94.6152,17.6924,-2.3076,-10,-40.2563,2.3076,-9.4873,
9.231,-7.6924,21.0259,28.7178,-88.718,-26.1538,136.9233,94.8721,17.436,-0.5127,-9.7437,-41.5386,0.5127,-10.2563,
10,-11.0259,17.6924,27.436,-90,-23.8462,139.231,96.1538,17.6924,-0.76904,-8.9741,-41.7949,0.76904,-8.9741,
5.8975,-11.0254,13.0771,19.231,-85.3845,-22.8203,133.5898,91.0259,11.5386,-5.8975,-8.9741,-40.2563,7.9487,-8.9741,
4.6152,-7.6924,10.2563,16.9233,-86.6665,-21.5386,131.7949,93.8462,15.3848,-4.6152,-10.769,-39.4873,9.7437,-7.1792,
7.6921,-7.6926,9.2307,25.1282,-93.8462,-21.0256,138.9744,105.1282,16.9231,-3.0769,-14.8718,-35.3845,3.0769,-5.6409,
11.0256,-7.9485,14.1028,28.9744,-90,-18.718,142.3079,90.1282,11.5383,-1.282,-12.5642,-26.9231,1.282,-4.3586,
8.2053,-8.2053,15.3845,26.6667,-86.6667,-19.4871,137.4358,75.1282,11.282,3.0769,-10.2566,-28.2053,-3.0769,-8.2053,
9.2307,-5.1282,19.9998,32.8206,-90.7693,-19.4871,135.8972,60.1282,16.4104,4.6155,-10.2566,-31.7947,-4.6155,-7.6921,
13.8462,-8.2051,24.1025,33.3335,-93.8462,-20.5127,138.9741,45.1282,17.436,0,-10.2563,-32.3076,0,-4.6152,
10,-11.0254,16.667,31.5386,-94.6152,-22.8203,132.5645,30.1282,13.5898,-0.25635,-15.6406,-38.2051,0.25635,-9.4868,
4.3589,-11.5386,11.0259,34.6152,-96.6667,-24.8716,130.5127,15.6411,17.1797,3.8462,-13.5898,-43.3335,-3.8462,-11.5386,
5.6409,-14.8718,14.3586,32.8206,-96.9233,-26.1541,132.3074,19.4871,18.9744,1.0256,-8.2053,-43.0769,-1.0256,-8.2053,
7.6921,-12.8206,11.7947,25.6409,-89.7439,-17.4363,127.1794,19.4871,11.7947,-3.0769,-12.8206,-41.5388,3.0769,-4.1028,
4.3589,-7.436,8.4614,26.9229,-93.5898,-10,127.436,20.769,13.0767,1.2822,-17.1797,-36.6665,-1.2822,-1.7949,
3.3333,-9.4871,14.1023,35.6409,-105.3848,-16.6667,126.4104,22.8206,15.1282,4.8718,-18.2053,-36.6667,-3.3333,-9.4871,
11.2822,-14.8716,19.4873,36.9233,-95.3845,-23.0767,124.1025,25.1284,16.9233,4.1025,-17.436,-48.7178,-4.1025,-14.8716,
17.4358,-9.7434,21.5383,35.8977,-80.3845,-18.9744,133.8464,28.2053,23.5896,4.6155,-14.3591,-52.3076,-5.6409,-4.6155,
11.5381,-6.4102,20.2563,37.1792,-78.2053,-21.2822,135.6411,23.333,19.7437,3.8462,-16.1538,-42.3076,-8.4619,-3.8462,
9.4875,-9.9998,21.7952,39.7439,-75.1279,-32.051,130.5129,24.8718,16.6667,8.9744,-13.5896,-40.7688,-8.9744,-12.051,
10.2566,-13.3333,20.5129,40.0002,-74.3589,-38.9744,127.1794,30.2566,18.4617,7.6921,-12.3079,-49.7437,-7.6921,-14.8718,
10,-11.0254,21.2822,41.7949,-80.769,-33.0767,131.0259,30.5127,21.2822,7.436,-17.1792,-45.3845,-7.436,-8.9741,
9.231,-9.231,24.1025,40.5127,-80.5129,-27.6924,132.3076,27.1797,18.9741,10.2563,-20.5127,-45.6411,-11.2822,-10.2563,
11.282,-7.6926,22.5642,37.4358,-74.3591,-29.2307,126.1536,25.6409,15.3845,7.1794,-14.3591,-48.718,-7.1794,-18.9744,
11.5386,-10.5127,19.231,33.5898,-79.2307,-32.564,122.3076,25.3848,19.231,3.8462,-11.5386,-44.3589,-3.8462,-18.7178,
6.1536,-11.7952,16.4099,34.3586,-86.1541,-32.3079,121.0256,26.1536,18.4612,5.1282,-20.5129,-44.1028,-5.1282,-12.8206,
3.0769,-12.3079,15.3845,35.8972,-85.1282,-30.7693,115.8972,23.5896,9.7434,3.0769,-21.5383,-48.718,-3.0769,-15.8977,
8.4617,-14.6155,20.7693,35.6409,-81.282,-33.5896,120.2566,21.7947,10.5129,2.3079,-13.0769,-53.0769,-2.3079,-17.6921,
8.9744,-14.6155,20.7693,32.5642,-81.2822,-35.1282,118.718,20.2561,13.0769,2.8206,-16.1541,-53.0771,-2.8206,-13.5901,
0.25635,-18.2051,14.6152,24.3589,-84.8718,-31.5386,108.4614,18.2051,7.9487,-0.25635,-23.3335,-53.5898,1.7949,-16.1538,
-0.76904,-17.6924,16.1538,26.9229,-84.3589,-24.8716,110.5127,18.7178,8.4614,1.7949,-20.2563,-49.4873,0.76904,-14.6152,
3.3333,-14.1023,18.2053,33.0769,-84.3589,-24.8718,114.1028,18.2053,12.0515,5.8977,-18.718,-47.9487,-3.3333,-11.5383,
1.5386,-15.8975,20,33.8462,-88.2053,-30.7695,112.8203,17.436,13.8462,5.6411,-15.8975,-60.5129,-1.5386,-16.4102,
0.76929,-15.6409,18.718,35.6409,-85.8975,-28.9744,113.0769,20.2566,15.6409,1.7947,-16.1541,-70.5129,-0.76929,-20.2566,
6.6665,-10.2563,18.4614,40,-84.1028,-18.9746,121.5381,27.1792,21.5381,4.1025,-17.9487,-60.5129,-4.1025,-13.8462,
7.9487,-7.9487,23.333,42.8203,-93.5898,-18.2051,123.333,26.4102,25.3843,12.564,-15.6411,-57.1797,-10.5132,-11.5386,
7.6924,-7.6924,22.564,45.1284,-93.8462,-23.5898,116.9233,22.564,22.564,11.7949,-17.436,-68.2051,-12.3076,-13.8462,
10.2566,-8.718,21.0256,46.1541,-86.6665,-21.5383,121.5383,28.718,23.5896,8.718,-18.9744,-68.2051,-11.282,-14.8718,
12.3076,-8.7178,22.564,44.1025,-92.3079,-20,118.9741,30.769,22.0513,8.7178,-19.4873,-57.9487,-15.3848,-18.4614,
12.564,-7.9487,20.2563,40.769,-102.8206,-22.8208,110,23.8462,19.2305,7.9487,-22.8208,-55.6411,-18.7183,-19.231,
10.2563,-10.2563,20,46.1538,-106.1538,-25.6411,110.769,24.6152,27.1792,14.8716,-18.9746,-53.3335,-12.3076,-18.4614,
8.4617,-9.4871,23.8459,51.5383,-106.4104,-27.436,115.6409,29.4871,33.5896,19.7434,-11.5383,-46.9231,-8.4617,-15.6409,
10,-10,22.3076,45.3848,-110,-26.9231,111.5386,26.4102,28.4614,14.1025,-16.1538,-47.9487,-16.1538,-13.0767,
11.5386,-11.5386,20.2563,41.2817,-108.9744,-20.7695,104.3589,26.4102,22.3076,11.5386,-21.7949,-51.5386,-17.6924,-13.0771,
8.2051,-10.7695,25.1279,47.1792,-106.6667,-16.9233,107.1792,32.3076,25.6406,13.8462,-12.3081,-48.2053,-8.2051,-10.2568,
4.8718,-8.9744,21.282,49.4871,-110.5127,-18.718,110.0002,30.5129,27.949,12.0515,-10.5129,-43.8459,-4.8718,-8.4617,
6.9231,-7.4358,15.6409,47.9485,-110,-16.6667,103.3333,30.5129,26.4099,11.0256,-16.1541,-37.6924,-6.9231,-8.9744,
7.9485,-10.5129,20.2566,46.9231,-104.3589,-16.1541,99.7434,34.1028,26.9231,15.6409,-11.5383,-38.2051,-8.4617,-7.9485,
6.9231,-11.5383,23.3337,51.5388,-104.8716,-19.7434,101.2825,35.6414,25.8977,12.0515,-9.9998,-49.4871,-9.4871,-6.9231,
6.6667,-8.2053,17.949,57.4358,-111.7949,-23.0769,102.0515,34.8718,20.5129,9.2307,-17.9485,-54.8718,-10.7693,-6.6667,
4.8718,-9.4871,19.7439,56.6667,-112.0513,-23.3333,99.2307,32.5642,20.7693,13.5896,-16.6667,-51.5383,-12.5642,-4.8718,
2.3079,-8.4617,21.7947,57.1794,-102.8206,-20.7693,97.1794,33.5896,22.8206,16.1536,-7.4358,-51.5386,-7.949,-2.3079,
2.3079,-8.4617,19.2307,57.6921,-102.8206,-19.2307,98.718,38.2053,22.8206,15.6409,-9.4871,-54.1025,-11.5383,-2.3079,
5.1282,-9.7439,20.5129,57.9485,-106.6667,-20.5129,98.4617,39.4871,23.5896,13.8459,-20.0002,-55.8975,-21.0256,-5.1282,
5.8975,-10.5132,24.3589,59.2305,-100.7695,-20.7695,100.2563,36.6665,25.8975,15.6406,-16.1538,-51.5386,-10.5132,-5.8975,
1.7947,-13.0769,21.7947,59.7434,-100.2563,-23.3333,107.4358,36.1541,27.4358,16.1541,-9.4871,-52.564,-1.7947,-5.3845,
3.3333,-9.4873,24.3591,67.9485,-102.3076,-25.8975,107.4358,41.7947,32.0515,18.2053,-8.9744,-56.6667,-4.8718,-3.3333,
4.359,-11.5385,29.4874,69.4874,-104.359,-30.5128,103.8463,42.8204,36.1539,24.359,-9.4872,-54.6154,-9.9999,-4.359,
5.1282,-11.282,31.7947,72.3079,-104.6155,-25.1282,110.7693,44.6155,39.4871,29.2307,-8.718,-48.2051,-10.7693,-5.1282,
7.9487,-10,26.4102,71.5386,-107.9487,-17.1794,104.8721,42.3076,33.5898,22.3076,-16.1538,-56.1538,-17.1794,-7.9487,
11.7949,-13.3335,21.0254,60,-115.8977,-15.3848,92.3076,36.4102,23.5894,11.7949,-24.6155,-68.2053,-23.5898,-11.7949,
16.6667,-11.5383,16.6667,56.6667,-116.1538,-11.5383,88.9744,34.1023,18.718,11.5383,-26.4104,-61.282,-20.2566,-12.5642,
13.5896,-13.5896,12.5642,56.1541,-118.7178,-10.5129,86.4104,30.5129,18.718,10.5129,-25.8975,-56.6665,-20.2561,-17.1794,
15.8975,-13.3335,23.5898,57.9487,-121.5386,-10.2563,85.1279,33.8462,23.5898,10.2563,-22.0515,-61.0259,-20.0002,-16.4102,
17.6924,-12.564,23.8462,55.1279,-116.1538,-10,83.3335,32.564,21.7949,10,-23.3335,-57.6924,-18.2051,-12.564,
10.7693,-13.3333,13.8459,53.8459,-118.9744,-10.7693,83.5896,27.6921,19.4871,11.282,-25.6411,-52.8206,-21.0256,-14.3591,
8.718,-10.7693,16.4099,60.5129,-126.6667,-8.718,82.5642,30.2561,20.5129,13.3333,-24.6155,-52.8206,-22.5642,-11.7952,
11.5386,-11.5381,21.7949,58.2051,-124.3589,-8.4614,83.8462,34.1025,19.7437,7.9487,-21.7947,-54.6152,-20.2563,-7.9487,
14.8718,-9.2307,28.718,60.5129,-119.4873,-10.2566,89.2307,38.9744,25.1282,8.2053,-15.8975,-52.3076,-16.9231,-8.2053,
13.3335,-10.769,23.0771,57.436,-120,-13.3335,83.0771,31.2822,21.5386,10.769,-22.5642,-52.3076,-18.9741,-12.3076,
12.3076,-17.9487,14.8721,47.6924,-117.9485,-14.8716,77.436,24.1025,15.3848,10.2563,-25.6406,-48.7178,-12.8203,-10.2563,
13.0767,-18.2051,14.6152,46.9229,-116.1541,-15.1284,74.6152,28.4614,13.5898,4.3589,-21.7949,-41.7949,-4.3589,-10.5132,
12.8206,-12.8206,19.4871,50.2561,-113.8462,-12.3079,76.4104,32.8206,16.4104,5.1282,-19.4871,-41.5386,-5.1282,-15.3845,
10.7693,-12.8206,20.0002,50.7693,-114.8718,-15.3845,81.5383,28.2053,18.4617,11.7947,-22.5642,-49.2307,-10.7693,-17.9485,
6.6667,-17.4358,18.4617,49.7434,-113.8462,-17.4358,75.3845,27.6921,14.3591,11.7947,-24.6155,-46.6667,-6.6667,-15.8977,
6.1538,-18.4619,21.0254,47.6919,-111.2822,-14.8721,71.7944,33.8462,15.8975,7.6919,-21.5386,-41.0259,-6.1538,-13.8462,
14.1028,-9.9998,23.3337,55.1282,-104.8716,-15.1282,80.2566,35.1282,22.8206,8.9744,-15.1282,-46.9229,-8.9744,-12.051,
10,-13.0771,21.7949,55.6411,-104.8718,-21.2822,77.1792,26.9229,18.7178,7.436,-16.1538,-57.6924,-7.436,-19.7437,
7.1794,-14.8718,24.1023,51.282,-102.5642,-17.4358,72.8206,25.6409,15.3845,5.6409,-21.5383,-55.3848,-5.6409,-23.0769,
12.0513,-11.0254,25.3848,50.5127,-96.1538,-8.4614,72.0513,30,18.2051,8.4614,-21.7949,-44.8716,-9.4873,-15.6411,
12.3076,-12.8208,26.1538,53.8462,-94.3591,-11.7949,76.4102,31.2817,20.5127,11.7949,-18.9746,-43.0771,-13.8462,-12.3076,
10.769,-11.2822,25.6411,57.9487,-89.7437,-13.8462,77.9487,33.8462,18.4614,10.2563,-20.5127,-46.1538,-10.2563,-13.8462,
10.0002,-8.9744,23.3333,56.6667,-88.4614,-8.4617,73.5896,35.1282,17.6926,8.4617,-22.3074,-44.8716,-10.5129,-11.5383,
8.4614,-13.0771,20.2563,54.1025,-92.5642,-8.4614,74.1025,32.0513,19.231,8.9741,-20.2563,-44.8718,-15.1284,-11.5386,
13.8459,-10.2566,20.5129,57.4358,-84.1025,-9.2307,73.8459,34.8718,16.4104,9.2307,-17.949,-43.5898,-10.7693,-11.7952,
18.4617,-9.2307,20.0002,55.3845,-75.3845,-8.2048,71.282,36.9231,12.8206,7.6921,-20.5129,-37.9487,-7.6921,-8.2048,
11.0256,-12.0515,18.2048,49.4871,-79.7439,-7.4363,66.9231,32.051,11.0256,6.9231,-23.3337,-28.4617,-13.0769,-6.9231,
3.5896,-10.7693,15.3845,48.2053,-85.6409,-6.6667,63.0769,32.3079,10.7693,6.6667,-22.5642,-19.4871,-18.4617,-3.5896,
2.3076,-14.6152,16.1538,47.9487,-87.4358,-13.5898,65.8975,35.6411,14.1025,5.3848,-19.231,-24.8716,-22.3076,-2.3076,
5.1282,-17.9485,17.4358,53.8459,-83.0769,-21.5383,70.2566,36.9231,14.3591,8.2053,-18.9744,-29.2307,-18.9744,-5.1282,
7.436,-15.6411,16.1538,58.2051,-78.7178,-19.7437,72.564,36.667,14.6152,11.0259,-19.7437,-29.4871,-15.6411,-7.436,
5.6409,-15.8972,17.949,59.4871,-80,-17.4358,72.8206,38.9744,19.4871,8.718,-17.4358,-35.3845,-21.0256,-5.6409,
3.3333,-18.2053,17.6921,58.718,-80.7693,-20.2566,71.5383,42.8206,16.1536,8.9744,-18.2053,-37.1794,-24.3591,-3.3333,
3.8462,-18.718,19.231,58.7178,-74.6152,-22.3076,76.1538,43.8462,13.0771,13.0771,-19.7437,-38.2051,-22.3076,-3.8462,
3.0769,-16.9231,19.4875,60.5129,-64.1025,-24.6152,74.3591,38.4617,14.8718,9.2307,-18.4612,-39.9998,-20.5125,-3.0769,
-1.5383,-18.9744,13.8464,54.8718,-62.0513,-18.9744,65.1282,36.9231,11.7952,3.0769,-18.9744,-31.282,-19.4871,1.5383,
-0.25635,-19.7437,8.4614,50,-65.3848,-3.9744,60.769,42.3076,4.8716,0.25635,-27.9487,-26.4102,-22.8208,0.76904,
3.0771,-14.8716,5.6411,49.231,-68.718,6.6665,59.4873,42.564,4.6152,-3.0771,-32.8203,-37.9487,-31.7949,-4.6152,
0.51294,-14.8718,8.2053,47.6921,-80.5129,8.718,62.5642,42.5642,9.7434,-0.51294,-27.6921,-47.6924,-40,-5.6409,
0.25635,-16.1538,7.436,46.9233,-91.5383,18.2051,60.769,46.4102,5.3848,-0.25635,-32.0513,-40.7693,-42.3076,-5.8975,
6.4102,-12.0513,5.8975,47.9487,-91.5383,28.4614,57.6924,49.4873,3.8462,-3.8462,-35.1279,-36.1538,-42.8206,-3.8462,
1.0256,-16.4099,4.1028,43.0769,-92.3076,24.6155,56.9231,45.6414,3.0769,-8.718,-36.9231,-44.6152,-48.7178,-1.0256,
-1.282,-16.1541,8.9744,47.949,-87.4358,23.8459,67.949,53.5896,5.3845,-1.282,-32.5642,-36.1538,-42.3076,1.282,
-0.25635,-16.1538,6.4102,51.5386,-87.4358,19.231,69.4873,58.2051,6.4102,0.25635,-30.5127,-31.5381,-39.2307,-4.3589,
2.3079,-9.9998,5.8977,51.5383,-85.3845,21.7947,61.7947,59.2307,4.8718,-2.3079,-27.4358,-32.5642,-37.6924,-3.8459,
0.25659,-11.5383,7.4358,44.3591,-80.7693,25.3845,60.7693,57.1794,-0.25659,-6.4104,-26.9231,-31.0256,-39.7434,0.76929,
-1.5383,-16.9231,6.1541,42.0515,-69.7437,22.0515,64.1028,57.4358,1.5383,-5.6409,-23.0769,-28.2053,-37.4358,5.1282,
-1.0256,-15.3845,1.0256,46.1541,-65.1282,23.0769,61.0256,62.5642,2.5642,-3.0769,-22.051,-28.718,-33.8459,4.6155,
0,-16.4106,1.5381,46.1538,-70.2566,28.2051,57.9482,68.7178,0,-4.103,-31.2822,-26.667,-42.5645,4.6152,
-0.5127,-15.8975,3.5898,48.7178,-64.6155,30.769,59.4873,73.3335,0.5127,-1.0254,-32.3076,-15.8975,-41.5386,9.7437,
-5.1284,-15.8975,4.6152,47.6924,-57.9487,29.231,64.1025,72.3076,0.5127,-0.5127,-25.1284,-13.8462,-32.8203,10.769,
-7.1794,-18.9744,6.1541,48.2053,-60.5129,24.6155,66.6667,75.8972,2.5642,-2.5642,-22.5642,-20.5129,-37.9485,8.718,
-8.2053,-23.5901,1.0256,53.8459,-61.0259,21.0256,66.1536,79.4871,6.1536,-1.0256,-27.6926,-23.5901,-44.1028,9.2307,
-13.5896,-28.4617,-0.76929,52.5642,-58.2053,17.6921,67.9485,77.1794,9.4871,0.76929,-29.4871,-24.8718,-39.7437,11.0256,
-18.9746,-30.2563,3.5898,48.2051,-60.5129,16.4102,65.1279,80.5127,6.1538,-3.5898,-27.1797,-32.8208,-38.9746,7.6924,
-14.8718,-25.1282,4.6155,51.282,-52.8206,23.5896,66.1541,91.7947,3.5896,-3.5896,-22.5642,-40,-45.6411,8.2053,
-11.2817,-24.1025,3.5898,53.3335,-44.6152,24.1025,72.8208,93.8462,4.6152,-3.5898,-23.0767,-46.6665,-59.4871,6.667,
-9.4871,-20.7693,4.8718,54.1028,-32.5642,24.8718,71.5383,95.1282,4.8718,-4.8718,-23.3333,-39.7437,-58.2051,7.949,
-7.9487,-17.1797,3.8462,50.5127,-17.6924,33.0767,70.5127,103.333,4.3589,-3.8462,-21.7949,-27.9487,-46.4104,11.5381,
-3.5901,-14.8718,2.5642,49.7434,-14.3591,37.9485,75.3845,108.718,3.5896,-2.5642,-25.6414,-26.6667,-47.1797,10.7693,
-1.7949,-12.0513,5.8975,54.1025,-16.6665,39.231,79.231,112.0513,1.7949,-3.8462,-25.3843,-23.333,-43.8459,9.4873,
-4.6157,-9.231,12.3076,58.9741,-12.3076,40.5127,84.1025,119.4868,4.1025,-4.1025,-17.436,-12.8208,-31.7949,12.8203,
-7.4355,-10.5127,7.9487,57.6924,-6.9229,36.667,79.231,120.7695,3.8462,-3.8462,-21.2817,-17.1792,-33.0767,10,
-6.1538,-17.436,2.564,54.3589,-9.7437,26.667,76.9233,119.4873,4.1025,-2.564,-24.1025,-29.7437,-38.4614,4.6157,
-6.9229,-19.231,5.3848,54.6152,-15.6411,23.3335,82.3076,120.769,3.8462,-3.8462,-20.769,-32.0513,-38.718,5.3848,
-9.2307,-14.3591,5.1282,54.3586,-12.8206,30.2561,80.5125,123.0769,4.6155,-4.6155,-21.0256,-26.6667,-38.9746,8.2048,
-7.4358,-14.1023,0.76929,53.0769,-3.8459,33.5896,77.6921,126.9231,5.8977,-0.76929,-18.2053,-26.4104,-34.1023,7.4358,
-5.8977,-17.1794,2.3074,49.4871,-0.76929,27.9485,73.0769,127.4358,0.76929,-1.7952,-15.6414,-27.4363,-25.385,3.8459,
-8.4617,-17.6921,6.9231,42.3079,-2.8206,25.8977,73.5901,124.3591,2.8206,-5.8972,-18.718,-21.282,-26.9231,3.8464,
-13.0767,-18.2051,2.3076,41.7949,-2.3076,25.8975,75.1284,124.8721,4.8721,-7.9487,-21.2817,-15.1279,-28.9741,5.8975,
-11.2825,-20.5129,1.0256,47.1794,3.5896,26.1536,70.2561,130.7688,-1.0256,-9.7439,-20.0002,-16.4104,-22.5642,7.1794,
-12.8206,-22.0515,5.6409,46.6667,3.0769,25.6409,68.718,132.8206,-3.0769,-9.7439,-18.9744,-16.4104,-26.6667,5.6409,
-17.436,-17.9487,1.5386,49.7437,2.0513,31.2817,69.7437,131.2817,-1.5386,-9.7437,-18.4614,-11.2822,-33.3335,10.769,
-13.0769,-13.0769,-0.25659,58.718,14.1023,37.6921,71.0256,138.718,0.25659,-4.8718,-14.1028,-6.4104,-21.7947,19.7434,
-14.3589,-17.436,0.5127,58.4614,15.8975,30.2563,68.2051,138.9746,-0.5127,-5.1284,-16.9229,-12.8203,-18.4614,10.2563,
-18.9744,-19.4871,-0.51294,55.8972,11.282,24.1023,63.0769,131.282,0.51294,-11.282,-17.949,-16.4104,-24.6155,5.6409,
-20.2563,-21.7949,-0.76904,57.6924,10,29.4873,64.3589,127.9487,0.76904,-10,-15.6411,-11.0259,-24.3589,15.6411,
-19.2307,-20.2566,1.282,61.7947,11.5383,34.6155,63.8459,129.4871,-1.282,-5.8977,-19.2307,-5.3845,-21.282,17.6921,
-16.6667,-13.0769,1.7947,62.8206,21.7947,35.1282,61.282,128.4617,-1.7947,-10.0002,-18.2053,-4.3591,-19.2307,12.5642,
-16.6667,-11.5388,-0.76929,60.7693,26.4099,34.1023,64.3586,127.4358,0.76929,-9.4875,-12.5642,-9.4875,-18.2053,15.1282,
-16.6665,-13.5898,-2.3076,62.8203,26.4102,35.1284,64.8716,125.8975,2.3076,-5.3848,-14.1025,-7.9487,-15.6411,18.2051,
-18.4614,-14.3589,-1.5386,64.6152,29.231,36.4102,65.6411,122.0513,1.5386,-9.7437,-15.3848,-2.564,-17.436,13.8462,
-18.718,-13.5896,-5.8972,63.8459,31.5383,39.2307,65.3845,121.7947,3.3333,-12.051,-14.6155,-3.3333,-20.7693,12.0515,
-16.6667,-12.5642,-11.5388,61.7947,29.9998,36.1536,63.8459,121.282,4.8718,-8.4617,-14.1028,-4.8718,-20.7693,15.6409,
-14.8721,-12.3076,-4.1025,66.6665,27.1792,24.1025,66.1538,120,4.1025,-6.1538,-12.8208,-11.7949,-22.564,11.2817,
-11.7952,-10.2566,-1.5383,71.7947,25.6409,25.6409,67.6921,116.9231,1.5383,-4.1028,-14.8718,-7.1794,-29.2307,8.2048,
-14.6152,-16.6665,-13.5894,60.7695,22.8208,28.9746,64.3594,106.4106,-1.7949,-7.4355,-22.3076,1.7949,-34.6152,8.4619,
-14.8718,-20.0002,-12.8206,55.8972,26.1541,21.0256,63.5896,105.6409,1.0256,-10.2566,-22.0515,-1.0256,-26.6667,7.6921,
-17.1794,-18.2053,-8.9744,59.2307,24.8718,20.2561,65.8972,111.0256,3.3333,-6.4104,-18.718,-3.3333,-22.3079,6.4099,
-20.7693,-21.282,-14.1028,57.1794,20.7693,24.8718,64.3591,105.8972,1.7947,-6.4104,-15.6409,-1.7947,-27.4358,6.9231,
-12.8203,-19.4873,-10.2563,58.9746,29.7437,25.6411,63.5898,103.5898,2.0513,-12.8203,-9.7437,-2.0513,-18.9741,10.7695,
-10.0002,-18.718,-3.3333,61.282,35.6409,20.7693,71.0256,107.9485,3.3333,-13.0769,-9.4871,-7.4358,-15.1282,13.5896,
-12.051,-15.1282,-3.3333,63.3333,41.282,22.8206,77.6926,110.0002,3.3333,-11.0256,-8.9744,-9.4871,-14.6155,14.1028,
-10.2566,-11.282,-3.5896,63.5896,48.718,26.6667,76.9231,111.282,3.5896,-14.3591,-5.6409,-11.282,-9.2307,11.7947,
-17.1794,-19.2307,-5.3845,59.7434,42.8206,22.3079,78.2053,109.4871,5.3845,-14.1028,-7.4358,-12.0515,-18.2053,9.4871,
-22.3079,-20.7693,-5.3845,58.2053,43.8459,23.3333,77.1794,104.3591,3.3333,-9.9998,-13.0769,-3.3333,-25.3845,11.5383,
-16.6667,-16.1541,-0.76929,55.1282,58.8459,26.4099,77.6921,102.8206,0.76929,-10.0002,-13.5901,-2.8206,-16.1541,12.5642,
-14.3594,-13.3335,-2.0513,54.8716,65.1279,25.1279,81.0254,107.1792,2.0513,-9.231,-9.231,-4.6157,-6.667,13.333,
-19.7434,-14.6155,-9.4871,57.6926,66.9231,21.282,82.3079,106.9231,3.3333,-9.9998,-6.9231,-3.3333,-9.9998,13.5901,
-18.4617,-18.9744,-9.2307,63.0769,71.7952,21.0256,89.2307,102.0515,5.1282,-11.7947,-6.1536,-5.1282,-24.9998,13.3333,
-15.8972,-19.9998,-7.6921,65.1282,74.3591,21.0256,91.7952,97.949,4.6155,-9.7434,-4.6155,-4.6155,-39.9998,13.3333,
-22.3079,-21.7947,-6.9231,58.718,73.5896,14.6155,86.9231,94.6155,2.3079,-11.0256,-2.3079,-7.9485,-38.2053,11.0256,
-21.282,-20.2566,-1.7947,58.718,75.1282,16.1541,86.4104,95.6409,1.7947,-16.6667,-4.8718,-11.0256,-30.5129,6.9231,
-12.051,-15.1282,-2.3079,61.282,84.3591,25.8977,92.0515,96.6667,0.25659,-12.5642,-5.3845,-0.25659,-21.282,10.0002,
-14.3586,-19.4871,-6.6667,54.8718,89.2307,17.4358,93.3333,91.7952,-2.5642,-7.6921,-3.0769,2.5642,-14.8718,11.282,
-11.7949,-17.436,-3.0771,52.8203,97.436,15.3843,90.2563,92.3076,-2.0513,-10.7695,-2.564,2.0513,-7.6924,13.8462,
-9.7437,-15.8975,-7.6924,47.6924,96.9233,25.1284,85.6411,89.231,-6.1538,-16.4102,-7.1792,5.6411,-5.6411,10.7695,
-13.0769,-17.1794,-7.949,48.9744,94.1023,19.7434,91.5383,86.4099,-6.4104,-14.1028,-3.8464,1.282,-1.282,8.9744,
-16.9229,-21.0254,-4.1025,49.231,95.8975,4.7434,94.3589,84.6152,-8.2051,-18.4614,-2.564,-6.6665,7.6924,4.6152,
-19.2305,-27.436,-5.8975,39.7437,94.1025,0.25635,86.9233,80.2563,-12.0513,-26.4102,-10.5127,0.25635,10,-0.25635,
-24.8716,-30.5127,-15.1279,30,95.1284,2.3076,74.1025,70.5132,-19.7437,-32.564,-17.6924,1.7949,11.5386,-1.7949,
-26.4102,-31.5386,-16.1538,27.9487,103.3335,0.76904,75.6411,66.4102,-22.8203,-34.1025,-12.564,-0.76904,18.7178,0.76904,
-23.5898,-32.8208,-13.3335,27.6924,100.5127,0.5127,82.0513,68.7178,-20,-31.2822,-11.2822,2.0513,14.8716,-0.5127,
-19.7437,-31.5386,-18.2051,30.5127,102.3076,3.8462,77.1797,71.0259,-19.7437,-31.5386,-16.1538,0.25635,13.0771,-0.25635,
-15.6409,-32.5642,-20.2561,29.4875,112.5642,0.76929,78.2053,69.4875,-19.2307,-36.1536,-14.1023,-0.76929,20.2566,1.282,
-18.2051,-33.0767,-15.1279,26.4102,108.4614,-3.8462,88.4614,66.4102,-17.1792,-32.0513,-8.9741,10,23.3335,3.8462,
-24.1025,-35.8975,-17.9487,26.1538,104.6152,-4.6152,88.7178,65.1279,-21.0259,-29.231,-13.8462,7.6924,15.8975,4.6152,
-14.6157,-34.1025,-21.7949,27.4355,119.6152,3.333,87.4355,68.4614,-21.2822,-35.1284,-16.1538,-2.3076,16.1538,2.3076,
-11.5383,-32.0515,-22.3079,20.7693,132.051,11.5383,83.3333,65.3845,-26.9231,-40.7693,-14.1028,2.8206,26.9231,-2.8206,
-25.8975,-37.1797,-24.8721,8.4614,117.051,11.0254,77.1792,55.6411,-36.667,-40.7695,-20.2563,3.8462,20.769,-3.8462,
-20.5127,-32.8203,-23.0767,15.3848,102.051,18.4614,81.5386,61.5386,-30.769,-37.436,-22.564,-1.5386,13.8462,1.5386,
-8.9741,-26.9229,-16.1538,27.436,117.051,25.3848,92.0513,72.564,-21.2822,-33.0767,-13.0767,-2.8203,22.8203,2.8203,
-14.8718,-31.7947,-11.7947,26.1541,116.4104,21.0256,94.3591,73.3333,-21.0256,-29.2307,-7.1794,-3.5896,26.1541,3.5896,
-17.436,-32.8203,-16.9229,24.6152,106.667,16.4102,88.2051,72.3076,-23.0767,-30.769,-11.7949,-4.6152,20.5127,4.6152,
-8.7178,-32.3076,-17.9487,29.7437,118.4614,16.9233,94.8721,76.4102,-17.436,-32.3076,-12.3076,-2.0513,20.5127,2.0513,
-8.4614,-36.6665,-13.5898,35.6411,126.4102,19.7437,101.7949,79.231,-17.6924,-33.5898,-11.0259,-0.25635,20.769,0.25635,
-11.5381,-39.2305,-19.2305,31.5386,125.8975,21.7949,96.1538,77.1797,-25.3843,-33.0767,-16.1538,-0.25635,18.7183,0.25635,
-6.9229,-38.2051,-22.3076,31.5386,127.9487,21.7949,101.2822,76.1538,-22.8203,-28.9741,-13.0767,1.2822,24.3589,-1.2822,
-11.2822,-43.0771,-24.6157,34.8716,119.4873,21.0254,101.5386,73.8462,-27.1797,-32.8208,-13.3335,3.5898,21.5386,-3.5898,
-21.7949,-50.5127,-32.564,29.4873,104.4873,19.231,94.6152,74.6152,-36.1538,-38.2051,-20.769,3.3335,8.9741,-3.3335,
-11.0256,-41.7952,-24.3591,35.6409,111.0256,15.6409,104.3591,83.8459,-26.4104,-30.0002,-13.0769,0.76929,18.718,-0.76929,
-1.7949,-38.2051,-15.6411,40.2563,126.0256,11.5386,110,83.3335,-21.7949,-28.9741,-11.0254,1.7949,26.4102,-3.3335,
-13.3333,-51.282,-24.6155,29.7434,119.4871,10.7693,97.9485,74.3591,-32.8206,-36.9231,-21.0256,7.1794,11.4102,-7.1794,
-17.9487,-51.7949,-32.8203,24.6152,111.2822,14.8721,88.2051,75.8975,-38.4614,-38.4614,-22.0513,9.7437,6.1538,-6.1538,
-14.3589,-49.2305,-27.1792,23.5898,116.9233,12.8208,91.7949,75.3848,-38.9741,-38.9741,-22.564,6.1538,16.4106,-6.1538,
-18.2051,-52.564,-20.769,21.7949,123.3335,9.4873,95.1284,71.0259,-39.7437,-41.7949,-24.8716,7.436,19.7437,-7.436,
-20.7693,-49.9998,-22.8206,21.7947,124.3591,15.6409,93.0769,73.5896,-40.7693,-42.3079,-22.8206,5.8972,15.6409,-5.8972,
-16.4104,-47.1794,-23.0769,25.1282,129.2307,22.5642,101.0256,82.051,-36.9231,-40.0002,-20.5129,0.51294,16.4104,-0.51294,
-18.2053,-50.5129,-26.4104,23.8459,137.1794,20.2561,104.3586,79.7434,-37.6926,-42.8206,-25.3845,0.76929,24.3586,-0.76929,
-20.5132,-53.8462,-27.6924,21.5381,137.4355,16.4102,97.9487,73.8462,-40,-43.0771,-27.1797,2.0513,26.1538,-2.0513,
-15.1284,-51.5386,-19.7437,27.4355,134.1025,22.8203,99.2305,80.769,-37.1797,-38.7183,-25.8975,-2.3076,18.2051,2.3076,
-12.0515,-47.4358,-15.6409,28.9744,138.718,31.5383,104.3591,84.8718,-33.0769,-35.6409,-23.8464,-2.3079,19.7434,2.3079,
-7.4358,-47.949,-16.6667,27.4358,150.5129,27.9485,111.5383,81.7947,-26.9231,-30.5129,-14.1028,0.76929,32.051,-0.76929,
1.0256,-49.2307,-15.3845,32.3079,156.4104,20.5129,116.9231,80.0002,-23.5896,-26.6667,-10.7693,-3.5896,33.8464,-1.0256,
0.76929,-48.9744,-14.1023,32.5642,153.0769,26.9231,118.2053,79.7439,-22.8206,-29.4871,-15.1282,-9.4871,25.8977,-0.76929,
-2.0513,-46.6665,-13.333,33.8462,154.8721,33.8462,118.9746,79.4873,-20.5127,-27.6919,-10.2563,-2.564,28.2056,2.0513,
-4.1025,-52.8203,-21.0254,28.2051,150.7695,20.5132,109.7437,71.2822,-29.7437,-32.3076,-12.3076,4.1025,24.1025,-4.6152,
-0.25635,-53.0767,-19.7437,21.7949,154.6152,14.1025,113.0771,73.5898,-27.9487,-32.564,-13.0767,0.25635,16.6665,-5.3848,
3.5898,-47.6924,-15.8975,22.0513,159.4873,20,117.9487,77.436,-24.1025,-29.2305,-12.8203,-10.769,16.4102,-3.5898,
2.0513,-50.2563,-20.5127,24.1025,154.8716,22.0513,109.7437,72.8203,-29.7437,-29.231,-15.8975,-2.0513,18.9741,-6.1538,
-4.6155,-60.5129,-30.2566,12.3079,152.8206,9.7434,99.9998,63.5896,-38.4617,-35.3845,-21.0256,4.6155,15.3845,-14.3591,
-1.0256,-52.8206,-26.1536,12.8206,157.4358,7.1794,107.1794,70.2566,-35.8972,-33.8459,-16.4104,1.0256,15.3845,-9.7434,
2.0513,-49.231,-21.5386,20.5127,142.4358,12.3076,112.8203,75.897,-29.7437,-32.3081,-14.8721,-4.103,10.769,-2.0513,
3.0769,-54.8718,-26.6667,19.4871,135.3845,15.3845,106.1536,72.8201,-30.2566,-33.8464,-17.949,-3.0769,12.3074,-4.1028,
4.1025,-55.8975,-28.2051,13.8462,150.3845,11.2822,102.564,70.769,-33.8462,-34.3589,-16.9229,-4.1025,10.769,-8.2051,
7.6924,-48.7178,-13.8462,22.0513,164.1025,6.1538,117.436,75.8975,-25.1279,-27.6924,-10.769,0,0,0,
8.718,-52.3079,-13.3333,31.7952,161.0256,-1.0256,118.4617,74.8718,-21.0256,-27.1794,-14.8718,4.1028,-3.5896,1.0256,
12.8206,-58.4617,-19.4871,32.8206,170.2566,-7.6921,114.8718,75.8977,-16.9231,-23.0769,-8.2048,3.0769,4.6155,-3.0769,
14.1025,-55.1284,-15.1284,31.0259,170,-10,117.6924,80.769,-16.6665,-22.8203,-2.3076,-0.25635,4.3589,0.25635,
12.564,-51.5386,-13.0767,32.0513,165.3848,-6.4102,117.1797,80.769,-25.3848,-27.9487,-9.4873,-1.7949,1.7949,2.8203,
18.2051,-52.0513,-15.6411,34.1025,174.1025,-4.8716,120.7695,79.231,-24.8716,-25.3843,-12.564,0.25635,5.8975,-0.25635,
18.9746,-57.436,-22.0513,29.7437,172.3076,-8.7178,112.8208,74.8721,-24.6152,-26.6665,-15.8975,2.564,4.6157,-2.564,
17.436,-60.5127,-23.5898,24.6152,163.5898,-7.6924,102.564,72.3076,-28.7178,-31.7949,-18.9741,0.5127,1.5386,-0.5127,
28.2048,-51.282,-12.3079,35.3845,173.3333,-1.0256,113.3333,79.4871,-22.0515,-24.6155,-11.7952,-2.0515,5.6409,1.0256,
34.1023,-49.4871,-10.0002,38.2053,179.7434,-0.25659,120.7693,78.2053,-18.2053,-22.3079,-12.5642,-2.3079,2.3079,0.25659,
33.8462,-53.8462,-10.7695,34.8716,171.2817,2.564,114.3589,75.8975,-22.0513,-27.6924,-18.4614,-0.5127,-4.6152,0.5127,
45.6414,-49.2307,-6.1536,42.5642,171.7952,6.1541,112.8206,83.0769,-21.0256,-23.0769,-13.8459,-3.5896,1.0256,-1.0256,
57.4358,-43.5896,-2.051,48.718,173.8464,1.5383,126.6667,86.1541,-15.3845,-11.282,-4.1023,-7.6921,8.718,-1.5383,
61.0254,-49.231,-2.0513,45.6406,162.0513,0,128.7178,80.5127,-15.3848,-11.2822,-4.6157,-8.2051,5.6406,0,
67.9487,-51.5386,-6.9233,40.2563,161.2822,1.2822,116.6665,77.6924,-15.1284,-16.1538,-8.9746,-3.8462,5.3848,-1.2822,
77.4358,-48.2053,-5.6409,41.5383,169.7434,-4.1028,119.4871,80.5129,-7.6921,-11.282,-6.6667,3.0769,17.4358,-3.0769,
86.1536,-46.1541,-1.0256,46.6667,168.718,-6.6667,126.6667,81.0256,-5.6414,-9.7439,-2.5642,1.0256,24.6155,-2.0515,
100.5132,-44.6152,0,46.1543,170.7695,-2.0513,126.667,80.5132,-6.6665,-12.8203,-2.0513,-4.6152,26.667,0,
108.4617,-44.8718,-0.76929,42.3079,170.5129,0.76929,120.2566,75.6409,-6.4104,-13.5896,-4.8718,-3.8459,28.4617,-5.8972,
107.436,-45.3848,-2.8208,43.8462,164.8716,0.25635,119.2305,72.564,-10,-16.1538,-3.8462,-0.25635,31.0254,-7.9487,
113.5898,-48.9746,0.25635,47.436,166.4102,-0.25635,127.9487,76.1538,-14.1025,-15.1284,-2.8208,-5.8975,31.5386,-0.25635,
120.2563,-50,-0.25635,43.333,161.2817,0.25635,124.3589,72.564,-18.2051,-13.5898,-13.0771,-10,25.3848,-2.3076,
123.8462,-47.9487,-1.2822,42.3076,156.1538,0.25635,120.2563,66.9229,-17.6924,-16.6665,-15.1284,-0.25635,22.8203,-5.3848,
134.3589,-52.8208,0,48.7178,167.1792,-5.6411,131.2822,69.2305,-12.3076,-15.3848,-5.6411,0,26.6665,-3.5898,
149.3589,-50.5127,3.8462,52.564,181.2822,-4.8716,134.6152,75.1284,-10,-7.436,-3.8462,-4.3589,34.6152,-4.8716,
157.6924,-50,2.3076,49.4873,172.564,-2.3076,126.9233,73.0771,-10.5127,-8.9741,-7.9487,-7.436,33.5898,-6.4102,
162.3076,-52.0513,1.2822,54.6152,167.436,-3.3335,128.9741,71.0254,-9.4873,-12.564,-5.8975,-10,34.1025,-1.2822,
175.8977,-54.3586,2.5642,56.4104,168.2053,-5.1282,132.3079,72.3079,-9.2307,-8.718,-4.6155,-12.8206,34.3591,-2.5642,
183.5896,-53.8459,3.5896,53.8464,162.0515,-9.2307,135.3845,75.8977,-3.5896,-5.1282,-7.6921,-15.8972,30.2566,-9.2307,
189.4871,-50.5129,1.7947,53.0769,165.8977,-11.0256,137.6921,73.0769,-1.7947,-10.5129,-8.4617,-17.6921,34.1028,-7.9485,
204.4871,-49.9998,0.76929,50.5129,167.949,-0.76929,140.7693,70.0002,-4.3591,-9.4871,-5.8972,-10.5129,38.2053,-2.3079,
214.1025,-51.5386,-0.76904,51.5386,154.1025,0.76904,137.1792,70,-7.436,-5.8975,-12.0513,-8.4614,25.3848,-7.436,
222.0513,-48.2051,1.5386,60.5127,157.9487,-1.5386,136.4102,74.3589,-2.564,-3.5898,-10.2563,-11.2822,25.1279,-7.6924,
233.0771,-49.4868,-0.25635,57.6924,157.1797,-1.7949,138.7183,72.0513,0.25635,-4.3589,-3.8462,-14.1025,31.0259,-7.4355,
246.4099,-52.5642,0.76929,52.051,144.3586,-1.282,134.1023,68.4612,-0.76929,-2.3079,-4.8718,-7.949,33.0769,-10.0002,
254.6152,-55.6411,3.8462,46.4102,138.7183,-3.8462,130.5127,65.8975,-4.3589,-4.3589,-8.4614,-3.8462,35.1284,-12.0513,
262.051,-52.3079,4.6155,44.6155,142.5642,-5.6414,133.3333,67.1794,-4.6155,-9.7439,-7.1794,-8.2053,36.4099,-10.7693,
267.436,-55.6411,1.2822,48.4614,139.2305,-11.5386,131.5386,67.436,-1.2822,-9.4873,-6.9233,-18.2051,32.564,-13.0771,
274.1028,-62.3076,1.282,54.1028,132.0515,-17.1794,129.4871,67.949,-1.282,-5.3845,-7.4358,-21.282,27.949,-18.2053,
283.5898,-52.3076,2.564,56.9233,133.3335,-8.2051,132.3076,74.8721,-2.564,-3.5898,-6.1538,-8.7178,30.2563,-11.7949,
289.7437,-46.6665,0.5127,52.8203,129.7437,-4.6152,133.8462,74.8716,-0.5127,-3.5898,-10.769,-10.2563,30.2563,-8.2051,
303.8459,-50.5129,3.3333,50.5129,125.3845,-9.4871,130.0002,68.4617,-3.3333,-5.8972,-14.1023,-20.7693,22.8206,-13.0769,
318.8459,-48.718,4.1028,48.718,127.6921,-4.1028,123.0769,69.2307,-11.282,-7.6921,-13.3333,-14.8718,21.5383,-11.282,
328.718,-45.1282,-2.5642,46.6667,130.7693,2.5642,126.1541,71.7947,-9.2307,-4.1028,-10.7693,-8.2053,28.2053,-5.6409,
335.6411,-42.3076,-2.8208,50.5127,134.6152,-0.25635,131.5386,70,-4.3589,0.25635,-8.4614,-9.4873,34.6152,-4.3589,
345.3843,-42.3076,1.7949,52.564,133.5898,-1.7949,127.9487,66.9229,-6.4102,-3.3335,-8.9746,-14.1025,31.0254,-9.4873,
353.0769,-46.4104,-1.282,53.5896,125.8972,1.282,123.3333,65.3845,-8.4617,-8.4617,-14.6155,-23.3333,22.8206,-13.0769,
362.5642,-44.6155,-2.5642,53.3333,124.6155,2.5642,124.6155,65.6409,-5.6409,-3.5896,-13.3333,-21.5383,25.6409,-9.2307,
366.9229,-44.8721,1.7949,46.9229,128.4614,-3.8462,125.8975,63.333,-4.3589,-1.7949,-8.9746,-19.7437,27.9487,-10.5132,
374.3586,-47.6924,1.0256,48.2048,134.8718,-1.0256,124.1023,64.6155,-4.6155,-1.5383,-11.7952,-25.1282,30.2561,-12.3079,
385.3843,-49.4873,-1.7949,51.0254,134.1025,1.7949,122.8203,63.8462,-6.9233,-4.8721,-16.667,-29.4873,26.9229,-13.0771,
391.0256,-48.4617,4.8718,49.4871,133.0769,-4.8718,125.3845,60.2561,-6.4104,-8.9744,-12.5642,-26.9231,24.3586,-15.6414,
388.2051,-51.2822,2.564,41.5386,133.8462,-2.564,118.9741,57.9487,-8.2051,-8.2051,-12.8203,-21.0259,27.6924,-14.8716,
383.5896,-54.3586,-9.7434,33.3333,124.6155,5.1282,114.3591,57.949,-8.718,-5.1282,-15.3845,-21.5383,23.5901,-10.7693,
386.9226,-47.4363,-6.9231,38.2048,123.3333,6.9231,115.1282,58.7175,-8.4617,-7.4363,-16.6667,-23.3337,16.6663,-15.6414,
391.2822,-45.6411,-2.564,38.9741,128.2051,2.564,117.9487,55.3848,-13.3335,-11.7949,-18.4614,-21.5386,16.4102,-23.5898,
394.8718,-46.6667,-3.5896,36.9231,123.5896,3.5896,120.5129,59.4871,-9.2307,-6.1541,-16.9231,-20.5129,17.4358,-15.3845,
394.6152,-45.8975,-6.4102,37.1797,117.6924,6.4102,113.5898,59.7437,-8.9741,-6.4102,-15.6411,-25.3848,16.6665,-13.0771,
392.0513,-50.5127,-3.8462,34.6157,115.1284,3.8462,111.0259,53.5898,-12.0513,-12.564,-16.6665,-32.564,15.1284,-23.8462,
393.3335,-53.8462,-4.1025,32.3076,102.564,4.1025,110.769,54.3589,-11.2822,-11.2822,-21.5386,-32.3076,9.7437,-26.1538,
397.6924,-52.564,-4.8716,33.0771,94.6152,10.5127,110.5127,59.231,-10.5127,-8.9741,-20.769,-22.3076,4.8716,-19.7437,
396.1538,-56.6665,-2.3076,35.1284,96.1538,5.8975,110.5132,52.5645,-14.1025,-16.6665,-19.2305,-31.0254,2.3076,-26.9229,
396.9231,-54.8718,-0.51294,44.6155,92.3079,1.5383,110.7693,47.6921,-14.8718,-22.5642,-27.6921,-46.0254,0.51294,-34.8718,
405.8975,-47.4355,8.9746,56.667,82.8208,7.9487,117.6924,57.1797,-11.0254,-16.6665,-29.4868,-54.1025,-7.9487,-32.0513,
418.7178,-40.2563,23.9746,71.667,78.2051,5.8975,128.9741,64.3589,-5.8975,-8.4614,-22.8203,-53.0769,-18.2051,-30,
425.6411,-35.3848,38.9746,86.667,65.6411,-8.7178,139.4873,64.6152,6.6665,-6.6665,-26.6665,-58.9744,-27.1797,-34.8716,
426.4104,-40.2563,53.9746,101.667,50.6411,-19.7434,143.8459,63.3333,10.5129,-10.5129,-34.6155,-73.9744,-42.1797,-42.8206,
441.4104,-34.1025,68.9746,116.667,56.1538,-11.5386,149.4873,72.0513,5.8975,-5.8975,-26.4102,-74.6152,-48.4614,-38.2051,
456.4104,-32.8206,74.3586,129.7434,69.7434,-12.3079,150.7693,73.3333,5.1282,-5.1282,-26.1541,-73.3335,-51.7949,-43.5898,
455.8972,-43.5898,73.3333,128.718,54.8718,-26.1538,148.2053,65.1282,9.2307,-9.2307,-35.3845,-86.6667,-61.5383,-56.9231,
454.3589,-42.0515,74.8716,131.2817,49.2305,-24.6155,149.2305,63.5898,9.7437,-9.7437,-32.8206,-92.8206,-60.0002,-53.3335,
460.2563,-41.7949,69.4873,126.4102,59.231,-22.3076,151.5386,65.8975,8.4614,-8.4614,-28.9744,-93.5896,-55.1282,-49.4871,
466.4102,-48.4617,57.1792,117.6924,63.8462,-27.9487,144.8716,62.8203,7.9487,-7.9487,-29.4873,-89.4873,-51.5386,-53.5898,
480.2566,-44.8716,53.5901,112.0515,65.385,-20.2561,137.6926,63.8464,6.9231,-6.9231,-25.3845,-79.2305,-46.9229,-47.9485,
488.9744,-41.2822,47.4358,103.8459,62.3079,-5.2561,131.5383,64.3591,4.3591,-10.5129,-29.4873,-76.1538,-49.4873,-45.3848,
485.8977,-47.9487,32.4358,91.5383,53.0769,0.76929,120.2566,58.2053,-0.76929,-14.1023,-36.6665,-75.6409,-55.1282,-50,
490.0002,-49.4871,19.7434,79.7434,55.1282,6.9231,116.1541,57.1794,-6.9231,-13.0769,-36.6667,-66.4102,-53.0769,-47.9487,
497.9485,-46.1538,14.8718,69.2307,65.6409,21.9231,108.718,60.5129,-15.3845,-14.8718,-39.9998,-55.3845,-47.1794,-42.051,
501.5386,-46.6665,9.7437,61.5386,73.8462,35.3848,100,61.0259,-9.7437,-12.8203,-38.9741,-47.1794,-40,-34.3589,
504.8718,-45.8975,4.3591,54.1023,85.3845,31.5383,99.2307,61.282,-4.3591,-13.5896,-33.5896,-44.3591,-28.9744,-34.1028,
519.8718,-33.0769,7.4358,56.1541,100.3845,45.8977,105.3845,74.6155,-7.9485,-7.4358,-23.8459,-29.3591,-13.9744,-24.8718,
526.1541,-31.7947,1.0256,49.7439,109.7439,60.8977,100.5129,76.9231,-7.6921,-2.051,-19.9998,-14.3591,-1.0256,-11.282,
512.3076,-40.5127,-13.9744,35.8975,107.6924,60,86.6665,67.1797,-6.1538,-7.6924,-20.5127,-9.7437,6.1538,-9.231,
497.436,-54.8716,-28.9744,20.8975,116.4102,46.1538,71.6665,59.4873,-15.8975,-17.9487,-26.1538,-14.8716,17.9487,-23.0771,
495.6409,-58.2048,-43.9744,5.8975,126.9231,61.1538,60.7693,63.3333,-23.3333,-14.1023,-26.9231,0.12842,30.0002,-18.2048,
481.2822,-71.5386,-58.9744,-9.1025,124.3589,71.5386,45.7693,49.4873,-38.3333,-27.436,-34.6152,10,36.1538,-10,
466.4102,-84.8721,-73.9744,-24.1025,139.3589,71.0254,30.7693,37.1797,-49.4873,-39.231,-35.6411,17.6924,51.1538,-7.436,
463.5898,-81.5381,-88.9744,-39.1025,154.3589,86.0254,15.7693,44.1025,-53.333,-30.2563,-31.2817,32.6924,66.1538,5.6411,
452.0513,-87.9487,-103.9744,-54.1025,169.3589,101.0254,0.76929,44.8716,-61.7949,-28.4614,-28.4614,47.6924,81.1538,19.7437,
437.1794,-102.9487,-118.9744,-69.1025,184.3589,116.0254,-14.2307,33.5901,-75.1282,-36.1536,-25.3845,62.6924,96.1538,25.3845,
428.2051,-112.8203,-133.9744,-84.1025,199.3589,131.0254,-29.2307,24.1025,-90.1282,-40,-24.1025,77.6924,111.1538,31.7949,
419.7439,-116.1536,-148.9744,-99.1025,214.3589,146.0254,-44.2307,17.1794,-95.1282,-42.8206,-17.1794,92.6924,126.1538,44.3591,
417.9485,-115.3845,-163.9744,-114.1025,229.3589,161.0254,-59.2307,12.8206,-97.4358,-51.7952,-12.8206,107.6924,141.1538,51.7947,
426.6665,-100.3845,-178.9744,-129.1025,244.3589,169.7437,-63.5898,18.4614,-97.436,-56.9229,-18.4614,122.6924,156.1538,43.5898,
435.3845,-85.3845,-184.1025,-140,229.3589,154.7437,-48.5898,31.282,-82.436,-56.9231,-31.7952,107.6924,141.1538,28.5898,
450.3845,-70.3845,-169.1025,-125,214.3589,139.7437,-33.5898,46.282,-67.436,-41.9231,-25.6411,92.6924,126.1538,13.5898,
465.3845,-55.3845,-154.1025,-110,199.3589,124.7437,-18.5898,61.282,-52.436,-26.9231,-14.3589,77.6924,111.1538,-1.4102,
480.3845,-40.3845,-139.1025,-95,184.3589,109.7437,-3.5898,68.9741,-37.436,-37.6924,-29.3589,62.6924,96.1538,-16.4102,
495.3845,-32.0515,-124.1025,-80,169.3589,94.7437,11.4102,76.6665,-22.436,-31.5386,-44.3589,47.6924,81.1538,-31.4102,
510.3845,-35.6409,-109.1025,-65,154.3589,79.7437,26.4102,77.1797,-7.436,-32.0513,-54.6152,32.6924,66.1538,-46.4102,
525.3845,-27.4358,-94.1025,-50,139.3589,64.7437,41.4102,81.2822,1.7949,-28.9744,-52.0513,17.6924,51.1538,-61.282,
540.3845,-21.7952,-79.1025,-35,154.3589,49.7437,56.4102,84.3589,-5.8975,-32.5642,-55.1284,2.6924,36.1538,-65.8977,
555.3845,-26.9233,-64.1025,-20,169.3589,34.7437,71.4102,72.0513,-18.7178,-47.5642,-68.4617,-12.3076,21.1538,-70.5129,
570.3845,-18.718,-49.1025,-5,184.3589,42.3074,72.051,62.8206,-27.949,-56.1541,-68.4617,-27.3076,6.1538,-63.3335,
585.3845,-6.9231,-34.1025,10,199.3589,57.3074,68.4617,67.4363,-30.5125,-51.0256,-60.2563,-42.3076,-8.8462,-58.2051,
600.3845,5.6411,-19.1025,25,214.3589,72.3074,66.6665,75.3848,-30.2563,-48.2051,-57.9487,-57.3076,-23.8462,-52.8203,
615.3845,19.231,-19.231,35.1284,229.3589,87.3074,63.8462,76.6665,-28.4614,-47.436,-54.1025,-51.5386,-23.3335,-39.7437,
630.3845,18.9744,-34.231,20.1284,244.3589,102.3074,51.7947,61.6665,-40.0002,-56.9231,-54.8718,-59.4871,-13.3333,-46.1541,
645.3845,30.7693,-49.231,5.1284,259.3589,117.3074,44.615,55.8972,-46.6667,-63.5901,-51.282,-70.2566,-3.0769,-51.7952,
660.3845,45.7693,-46.6667,-0.51294,274.3589,132.3074,52.3079,68.718,-44.1023,-59.9998,-51.282,-55.8972,0.51294,-39.9998,
675.3845,60.7693,-44.1025,-2.0513,289.3589,147.3074,59.4873,76.4102,-43.5898,-56.4102,-53.3335,-40.8972,2.0513,-30.7695,
690.3845,75.7693,-43.0767,-6.1538,304.3589,162.3074,62.0513,68.2051,-45.6411,-62.0513,-50.769,-41.0254,6.1538,-40.5127,
705.3845,90.7693,-32.8206,-1.0256,319.3589,177.3074,70.7693,68.718,-46.1536,-65.6409,-52.8206,-50.2561,1.0256,-46.1536,
720.3845,105.7693,-20.7693,11.5383,334.3589,192.3074,81.282,75.1282,-46.9231,-66.4104,-60.2566,-62.8206,-11.5383,-41.7947,
735.3845,115.6411,-15.1284,15.1284,349.3589,207.3074,87.9487,69.4873,-47.436,-73.0769,-66.4102,-77.8206,-26.5383,-55.6411,
750.3845,110.5127,-16.1538,16.1538,364.3589,222.3074,87.436,55.1279,-55.6411,-85.3848,-77.1797,-92.8206,-41.5383,-70.6411,
765.3845,103.5896,-16.9231,16.9231,379.3589,237.3074,87.6921,41.5383,-68.718,-93.8462,-92.1797,-107.8206,-56.5383,-85.6411,
780.3845,104.8718,-17.1794,17.1794,394.3589,252.3074,93.0769,36.1536,-76.1541,-100.7693,-103.3335,-122.8206,-71.5383,-100.6411,
795.3845,111.0259,-18.7178,18.7178,409.3589,267.3074,95.1284,39.231,-78.2051,-112.0513,-109.4871,-137.8206,-86.5383,-115.6411,
810.3845,112.564,-18.2051,18.2051,424.3589,282.3074,105.3848,39.7437,-77.6924,-119.7437,-120.2563,-152.8206,-101.5383,-130.6411,
825.3845,122.5642,-19.4871,19.4871,439.3589,297.3074,119.4871,32.8206,-73.8459,-121.0256,-124.1025,-167.8206,-116.5383,-138.4614,
840.3845,137.5642,-20.5127,20.5127,454.3589,312.3074,130.769,29.7437,-69.7437,-122.0515,-119.4873,-182.8206,-121.5386,-141.0256,
855.3845,152.5642,-19.7437,19.7437,469.3589,327.3074,126.9229,35.1279,-78.2051,-132.5642,-127.436,-197.8206,-119.2307,-150,
870.3845,167.5642,-22.0513,22.0513,484.3589,342.3074,119.4873,41.5386,-88.7178,-139.9998,-142.436,-212.8206,-110.2561,-158.9741,
885.3845,182.5642,-22.5642,22.5642,499.3589,357.3074,134.4873,49.7434,-88.2051,-139.4873,-148.2051,-217.436,-104.1025,-163.0769,
900.3845,197.5642,-15.3848,15.3848,514.3589,372.3074,149.4873,64.7434,-90.2563,-146.6667,-147.6924,-214.3589,-89.1025,-170.7693,
915.3845,212.5642,-10.769,10.769,529.3589,387.3074,164.4873,79.7434,-89.7437,-144.1025,-144.6152,-203.0769,-74.1025,-169.2307,
930.3845,227.5642,-12.0513,12.0513,544.3589,402.3074,179.4873,94.7434,-83.8462,-134.1028,-141.2822,-188.0769,-59.1025,-159.231,
945.3845,242.5642,-10.7693,10.7693,559.3589,417.3074,194.4873,109.7434,-93.8462,-145.1282,-150.2563,-193.3333,-52.8206,-167.1794,
960.3845,257.5642,-4.1025,4.1025,574.3589,432.3074,209.4873,124.7434,-108.8462,-160.1282,-165.1282,-208.3333,-56.4102,-182.1794,
975.3845,272.5642,0.76929,-0.76929,589.3589,447.3074,224.4873,139.7434,-111.0259,-166.9233,-173.0771,-223.3333,-62.3079,-189.4873,
990.3845,287.5642,2.8206,-2.8206,604.3589,462.3074,239.4873,154.7434,-108.9744,-166.9231,-175.1282,-224.8718,-62.8206,-189.4873,
1005.3845,302.5642,4.6152,-4.6152,619.3589,477.3074,254.4873,169.7434,-118.4614,-181.9231,-178.9744,-239.8718,-67.6924,-204.1025,
1020.3845,317.5642,7.6924,-7.6924,634.3589,492.3074,269.4873,184.7434,-127.6924,-196.9231,-189.2307,-254.8718,-67.6924,-216.4102,
1035.3845,332.5642,16.1541,-16.1541,649.3589,507.3074,284.4873,199.7434,-132.0513,-211.9231,-204.2307,-269.8718,-71.5383,-224.8718,
1050.3845,347.5642,20.7693,-20.7693,664.3589,522.3074,299.4873,214.7434,-141.7949,-226.9231,-219.2307,-284.8718,-86.5383,-239.8718,
1065.3845,362.5642,18.718,-18.718,679.3589,537.3074,314.4873,229.7434,-154.1025,-241.9231,-231.0256,-299.8718,-100.7693,-251.5383,
1080.3845,377.5642,20.5129,-20.5129,694.3589,552.3074,329.4873,244.7434,-157.9487,-241.5386,-234.8718,-314.8718,-97.4358,-253.8462,
1095.3845,392.5642,25.3845,-25.3845,709.3589,567.3074,344.4873,259.7434,-162.8206,-236.1541,-240.2566,-323.3335,-93.5901,-262.8206,
1110.3845,407.5642,27.6924,-27.6924,724.3589,582.3074,359.4873,274.7434,-169.2307,-233.8459,-245.6409,-314.3589,-90.2563,-264.6152,
1125.3845,422.5642,25.8975,-25.8975,739.3589,597.3074,374.4873,289.7434,-170,-227.4358,-248.9744,-314.1025,-90.5127,-257.1794,
1140.3845,437.5642,30.5129,-30.5129,754.3589,612.3074,389.4873,304.7434,-168.9744,-216.6665,-250.5127,-319.2307,-95.6409,-257.1794,
1155.3845,452.5642,38.9744,-38.9744,769.3589,627.3074,404.4873,319.7434,-172.8203,-208.2051,-253.3333,-327.6921,-96.9231,-272.1794,
1170.3845,467.5642,38.4617,-38.4617,784.3589,642.3074,419.4873,334.7434,-183.0769,-200,-260,-337.9487,-95.8972,-287.1794,
1185.3845,482.5642,39.2307,-39.2307,799.3589,657.3074,434.4873,349.7434,-188.4617,-185,-263.8462,-338.2053,-95.1282,-283.8462,
1200.3845,497.5642,47.4358,-47.4358,814.3589,672.3074,449.4873,364.7434,-189.4873,-170,-263.8462,-327.436,-88.9744,-276.1538,
1215.3845,512.5642,48.2051,-48.2051,829.3589,687.3074,464.4873,379.7434,-195.8975,-155,-261.5383,-324.1025,-79.4873,-283.0769,
1230.3845,527.5642,45.3845,-45.3845,844.3589,702.3074,479.4873,394.7434,-200.7693,-140,-265.3848,-336.1541,-84.3591,-293.5898,
1245.3845,542.5642,48.9744,-48.9744,859.3589,717.3074,494.4873,409.7434,-205.8977,-130.5129,-279.231,-334.1028,-91.0256,-290.0002,
1260.3845,557.5642,55.6411,-55.6411,874.3589,732.3074,509.4873,424.7434,-210,-126.9233,-284.8718,-324.8718,-86.9233,-281.7949,
1275.3845,572.5642,57.9487,-57.9487,889.3589,747.3074,524.4873,439.7434,-208.2051,-114.8716,-282.564,-336.9231,-91.7949,-286.1538,
1290.3845,587.5642,58.2051,-58.2051,904.3589,762.3074,539.4873,454.7434,-211.5386,-105.3848,-285.3848,-345.3848,-96.6665,-290.5129,
