"AF3","AF4","F3","F4","F7","F8","FC5","FC6","O1","O2","P7","P8","T7","T8",
-91.9469,91.9469,-402.3295,-451.9517,-396.4912,353.6801,707.8475,-110.4338,-329.3558,-267.0842,210.6518,818.7676,1016.2836,149.353,
-78.6463,78.6463,-392.2898,-438.9346,-358.6017,323.7027,658.5655,-117.9077,-323.6945,-265.1591,183.9127,757.9658,941.2066,126.2918,
-60.3058,70.0351,-382.8524,-426.6985,-322.9856,302.3346,608.3481,-124.9333,-318.3728,-263.3496,158.778,698.3879,870.6342,104.6143,
-42.5874,79.933,-373.9812,-415.1966,-289.5065,298.2945,584.983,-131.5373,-313.3704,-261.6486,135.1513,642.3846,804.2962,84.2374,
-25.9322,89.237,-365.6424,-404.3848,-258.0361,286.2423,563.9841,-113.9404,-308.6682,-260.0497,112.9422,589.7415,741.9384,65.0832,
-10.2763,97.9828,-357.8038,-394.2217,-228.4539,261.2844,543.2884,-110.0227,-304.2481,-258.5467,92.0657,540.257,683.3221,47.0782,
4.4403,87.7512,-350.4356,-384.6684,-200.6467,231.5074,496.5911,-117.5214,-300.0932,-257.1339,72.4417,493.7416,628.2228,30.1535,
18.2739,88.8104,-343.5095,-375.6883,-174.5079,203.5169,463.382,-124.5701,-296.1876,-255.8059,53.9952,450.0171,576.4294,14.2443,
31.2775,82.0226,-336.9989,-367.247,-149.9374,177.2059,435.0927,-131.1959,-292.5164,-254.5575,36.6555,408.9161,527.7436,-0.71037,
43.5008,84.8851,-330.879,-359.3122,-126.8412,152.4735,414.8255,-109.2241,-289.0654,-253.3841,20.3562,370.2811,481.979,-14.7678,
54.9908,83.683,-325.1262,-351.8535,-105.1307,129.2251,404.036,-96.3626,-285.8215,-252.281,5.0348,333.9642,438.9603,-27.9817,
59.0554,81.0953,-319.7186,-344.8423,-84.7229,107.3716,393.8938,-104.6808,-282.7722,-251.2442,-9.3673,299.8264,398.5227,-40.4028,
41.8899,77.2023,-314.6355,-338.2517,-65.5395,86.8293,379.5198,-84.3,-279.9059,-250.2695,-22.9052,267.7368,360.5113,-52.0786,
25.2765,70.6238,-309.8574,-332.0566,-47.5071,67.5196,362.586,-65.142,-277.2115,-249.3533,-35.6309,255.4728,352.8889,-63.0539,
9.6599,69.7923,-305.3659,-326.2332,-30.5567,49.3684,354.9309,-47.1335,-274.6788,-248.4921,-47.5931,254.2444,345.8155,-73.3707,
-5.0197,69.9831,-301.144,-320.7592,-14.6233,60.5063,347.735,-30.2055,-272.2981,-247.6826,-39.5025,253.0897,331.3994,-83.0684,
-18.8185,79.4063,-297.1754,-315.6137,0.35411,70.9759,340.9709,-14.2931,-270.0602,-246.9217,-24.4838,252.0043,325.6154,-63.9843,
-31.7894,60.5419,-293.4448,-310.7769,14.4329,52.6174,308.8621,0.66445,-267.9566,-246.2064,-12.7982,250.9841,291.9785,-53.4502,
-43.9821,42.8094,-289.9381,-306.2303,27.6669,35.3603,276.2304,6.5043,-265.9792,-245.534,-5.706,250.025,260.3598,-56.5674,
-55.4431,26.1408,-286.6419,-301.9564,40.1069,20.0292,246.0267,5.1408,-264.1204,-244.9019,-15.0935,249.1235,240.3523,-43.4436,
-66.2165,10.4724,-283.5433,-297.939,51.8005,4.7274,227.3723,-9.2676,-262.3732,-244.3078,-14.1878,238.118,237.606,-40.837,
-76.3436,-4.256,-280.6307,-294.1627,62.7924,-9.6562,204.4865,-16.5044,-260.7308,-243.7494,0.76342,219.4521,209.2496,-50.5494,
-85.8629,-18.1006,-277.8929,-290.6129,73.1249,-23.1769,190.2718,-4.8111,-259.187,-243.2244,14.8176,220.385,182.5947,-37.7861,
-94.8112,-31.1146,-263.8347,-287.2762,82.8374,-35.8862,190.0445,9.5775,-257.7358,-242.7309,17.8367,212.0356,163.839,-21.419,
-103.2225,-43.3477,-233.9046,-284.1396,91.9672,-47.8331,188.8589,23.1029,-228.3537,-242.2671,30.8665,185.2135,168.1086,-6.0338,
-111.1291,-45.6781,-205.7704,-281.1912,100.5491,-59.0631,176.0678,35.8167,-200.5525,-241.8311,43.1145,165.8219,161.4362,8.4282,
-118.5614,-52.1813,-184.1631,-278.4197,80.615,-69.6193,161.1254,47.7677,-174.4194,-241.4212,54.6276,169.9726,138.6142,22.0225,
-125.5477,-63.1504,-168.2487,-275.8146,61.6781,-79.5421,148.5387,59.0016,-149.8542,-241.0359,55.2675,173.8742,127.3791,34.8012,
-132.1148,-69.0993,-144.0538,-263.382,43.8774,-83.5937,137.1936,69.5615,-126.763,-240.6738,62.1672,177.5418,133.8364,46.8131,
-135.51,-65.4397,-124.2135,-233.4791,27.1447,-92.6781,120.6918,78.0863,-105.0572,-240.3333,72.5372,180.9893,116.5709,54.7572,
-115.7037,-64.4325,-102.6607,-211.678,11.4161,-101.2174,117.3422,76.3203,-84.6537,-240.0133,82.2849,158.0011,110.5494,53.4173,
-104.8695,-64.4584,-82.4011,-185.3551,-3.3689,-102.458,113.2208,75.633,-65.4745,-239.7125,91.4478,143.6563,118.0164,64.3123,
-108.3071,-62.5369,-63.357,-160.1338,-17.2668,-106.0403,108.3735,73.041,-47.4461,-217.3168,94.7427,136.0092,97.8086,74.5535,
-92.0794,-57.8119,-45.4556,-136.4258,-30.3308,-109.4082,104.7894,67.6857,-30.4993,-190.1778,91.9773,113.7487,77.8401,64.2586,
-72.4546,-48.0185,-28.6283,-116.0615,-42.6109,-109.1674,91.2055,57.2999,-14.5693,-164.6672,88.8915,101.0778,87.2697,62.8359,
-54.0073,-43.6783,-12.8106,-94.9978,-54.1543,-105.0502,88.165,52.4028,0.40483,-140.6871,97.658,109.1131,88.8437,73.1657,
-36.6669,-41.5439,2.0581,-76.1545,-65.005,-88.5306,85.3079,49.745,14.4805,-118.1459,102.0228,116.6663,69.4131,82.8758,
-20.3669,-37.5917,16.0346,-75.963,-75.2047,-74.948,76.7843,45.3007,27.7117,-96.9571,100.2802,111.1421,51.1483,83.2719,
-5.0449,-35.3362,28.7613,-61.6759,-84.7924,-69.4784,71.2036,42.5827,40.149,-77.0397,108.3634,118.5736,62.1794,92.3755,
-0.80843,-31.7565,37.2518,-43.8754,-93.8049,-60.931,55.7425,38.5681,51.8401,-58.3173,115.9616,123.1439,72.5486,100.933,
13.3401,-25.9592,40.855,-36.3692,-102.2766,-43.1751,49.4788,32.3621,48.8542,-40.7183,103.6685,101.6553,54.0957,92.4609,
26.6397,-20.9965,35.9704,-34.6739,-110.24,-26.4846,44.0777,27.0153,53.22,-26.5333,87.2323,97.4934,36.75,86.4264,
33.8145,-21.1959,47.9122,-28.2151,-117.7256,-21.9606,43.8649,26.8535,64.1268,-10.8413,96.0983,105.7438,20.445,95.3408,
44.9215,-19.4377,59.1375,-18.2511,-124.7621,-25.994,46.585,24.7559,74.3792,0.034335,102.5031,96.9749,5.1183,88.1698,
56.3262,-11.4608,53.6604,-17.1565,-131.3763,-15.6773,30.1682,16.4599,74.7977,1.0055,90.515,89.2105,18.9112,73.1489,
67.0466,-5.9081,59.1978,-16.1276,-137.5938,-11.818,21.5474,10.6072,82.9588,13.5932,88.0028,86.7765,3.6765,78.4897,
69.8515,-6.5268,65.3748,-12.2412,-143.4381,-25.2089,15.3895,1.2137,68.2515,6.9397,71.0474,67.47,-10.6441,68.9152,
71.9842,-12.459,47.3523,-25.6067,-142.2953,-37.7964,0.3661,-12.9591,50.0564,-7.5767,52.6845,49.3218,-24.1054,50.6803,
75.4495,-19.4957,30.4112,-38.1703,-119.6576,-49.6286,-13.7559,-26.2815,32.953,-21.2221,35.4235,32.2625,-36.7591,33.5395,
79.1927,-26.5962,14.4865,-49.9801,-98.3781,-60.7509,-27.0305,-38.8047,16.8759,-34.0487,19.1981,16.2267,-48.6536,17.4271,
88.0629,-38.6221,-0.48269,-61.0813,-82.2426,-71.2058,-39.5087,-50.5764,1.7633,-46.1058,3.9462,1.1531,-59.8344,2.2815,
96.8791,-22.2048,-14.5537,-71.5164,-63.208,-55.2986,-51.2382,-61.6418,-12.4425,-57.4395,-10.3906,-13.0161,-70.3443,-11.9554,
105.1664,-6.7725,-27.7805,-81.3254,-45.3156,-59.7655,-62.2639,-72.0433,-25.7959,-68.0931,-23.8672,-26.3351,-80.2236,-25.3381,
112.9564,7.7338,-16.9188,-76.9813,-28.4966,-62.017,-72.628,-81.8207,-38.3482,-78.1075,-36.5351,-38.855,-89.5102,-37.9178,
120.279,21.3698,-12.4986,-68.9573,-12.6868,-51.9717,-82.3704,-91.0114,-50.1473,-87.5211,-48.443,-50.6237,-98.2396,-49.7427,
127.1623,20.1204,-8.83,-71.6305,2.1744,-43.0155,-91.5281,-99.6508,-61.2385,-96.3698,-59.6364,-61.6863,-106.4452,-60.8582,
133.6325,4.8132,-8.787,-67.8195,16.1439,-38.0022,-100.1364,-107.7717,-57.6383,-94.5537,-70.1583,-72.0851,-114.1585,-71.3067,
139.7146,-9.5756,-22.3598,-70.0751,29.2753,-49.8221,-108.2283,-115.4054,-68.28,-102.9805,-80.0488,-81.86,-121.409,-81.1283,
145.4317,-13.8828,-21.0263,-69.762,41.6188,-55.5975,-115.8346,-122.5811,-78.2832,-106.54,-89.3458,-91.0484,-128.2245,-90.3606,
150.8058,-27.1499,-11.9809,-63.6308,53.2216,-59.0727,-122.9845,-129.3262,-69.2246,-97.2284,-98.0851,-99.6855,-134.631,-99.0389,
155.8574,-26.9881,2.838,-45.7129,64.1283,-56.5016,-129.7054,-135.6666,-50.9711,-77.2947,-106.3,-107.8044,-140.6531,-107.1966,
160.606,-12.7203,16.7677,-28.8702,74.3806,-57.0034,-136.0231,-141.6267,-33.8129,-58.5571,-114.022,-115.4361,-146.3139,-114.8648,
165.0696,-18.7677,29.8616,-13.038,84.0178,-55.5291,-141.9617,-147.2291,-17.6841,-40.9436,-112.6568,-122.6099,-151.6351,-115.3936,
169.2655,-26.3987,42.1699,1.8443,93.0767,-43.4403,-147.544,-152.4953,-2.523,-24.387,-94.2211,-129.3533,-156.637,-94.37,
173.2095,-19.9501,53.7398,15.8337,101.5921,-38.8884,-130.5619,-157.4456,11.7283,-8.8238,-93.4335,-135.6921,-161.3388,-100.8627,
176.917,-5.1314,64.6154,28.9836,109.5966,-22.4551,-112.9984,-162.0989,25.1246,5.8056,-80.0431,-141.6506,-165.7585,-80.711,
180.4019,9.2765,74.8384,41.3446,117.1208,-7.0078,-110.5973,-166.4729,37.7172,19.5573,-61.1406,-147.2516,-169.913,-61.7683,
183.6778,13.5936,84.4481,52.9639,108.7666,7.5127,-118.0614,-170.5845,49.5541,32.4839,-55.5176,-152.5165,-173.8182,-49.7749,
186.7572,2.5618,93.4812,63.8861,88.1406,21.1619,-120.7161,-174.4495,60.6809,44.6348,-53.6461,-157.4655,-177.4891,-36.5722,
182.0258,-0.024229,101.9724,74.1529,68.7522,33.9922,-127.5731,-178.0825,71.14,56.0567,-46.0495,-162.1176,-180.9397,-31.9456,
185.2042,1.9227,109.954,83.8038,50.5271,46.0527,-134.0187,-181.4976,80.9716,66.7933,-49.124,-166.4905,-184.1834,-31.9743,
171.6682,-11.8144,117.4568,92.8755,33.3955,57.3895,-140.0776,-184.7077,90.2133,76.8857,-60.2765,-170.6011,-187.2324,-16.4341,
147.2681,-20.8353,124.5094,101.403,17.2917,68.0461,-145.773,-187.7252,96.0893,86.3726,-65.9115,-174.465,-190.0984,-5.7183,
124.332,-27.369,131.1388,109.4188,2.1542,78.0634,-151.1266,-190.5617,104.4239,95.2902,-54.1729,-178.0971,-192.7925,2.4086,
102.7721,-38.3758,137.3705,116.9537,-12.075,87.4796,-156.159,-193.228,112.2585,103.6728,-59.6796,-181.5113,-195.325,16.3641,
82.5058,-42.8839,143.2283,124.0365,-25.4505,96.3308,-160.8894,-195.7343,119.623,111.5525,-49.2882,-184.7206,-197.7055,29.4823,
63.4554,-54.4109,148.7346,130.6943,-38.0235,104.6509,-165.3361,-198.0903,126.5456,118.9593,-32.2309,-187.7374,-199.9431,39.4057,
45.5481,-62.8305,153.9105,136.9526,-49.8421,112.4719,-169.5159,-200.3049,133.0529,125.9217,-18.6128,-190.5731,-202.0465,51.1414,
28.7152,-68.3037,158.7759,142.8355,-60.9516,119.8236,-173.445,-202.3866,139.1697,132.4664,-8.253,-193.2387,-204.0238,62.1729,
12.8923,-72.963,163.3493,148.3653,-71.3945,126.7342,-177.1383,-204.3434,144.9195,138.6185,0.99967,-195.7444,-205.8823,72.5425,
-1.9812,-72.9635,167.6484,153.5634,-81.2108,133.2301,-180.61,-206.1828,150.3244,144.4013,10.1826,-198.0998,-207.6294,82.29,
-15.9624,-74.4235,171.6895,158.4496,-90.4382,139.3363,-183.8734,-207.9118,155.4049,149.8373,23.6717,-200.3138,-209.2716,91.4526,
-29.1046,-67.5253,175.4881,163.0426,-99.1119,145.0761,-186.941,-209.3494,160.1806,154.947,36.3514,-184.2153,-210.8153,100.0654,
-41.4584,-53.744,179.0588,167.3601,-107.2652,150.4716,-189.8245,-189.0041,164.6698,159.7502,48.2703,-171.2164,-212.2664,108.1615,
-53.0709,-43.2219,182.4153,171.4185,-114.9292,155.5433,-192.535,-188.8532,168.8896,164.2652,59.4741,-162.4025,-213.6304,115.7718,
-63.9866,-41.1154,185.5704,175.2334,-122.1335,160.3107,-195.0829,-191.622,172.8562,168.5093,70.0056,-153.1452,-214.9126,122.9255,
-74.2474,-42.5404,188.5361,178.8194,-128.9055,164.792,-197.478,-194.2247,176.5848,172.4987,79.9053,-158.0565,-216.1178,115.1378,
-83.8926,-54.088,191.324,182.1902,-135.2711,169.0045,-199.7293,-196.6712,180.0897,176.2488,89.211,-155.8778,-217.2508,109.2027,
-92.959,-56.2028,193.9445,185.3588,-141.2549,172.9642,-201.8455,-198.971,183.3844,179.7739,89.7538,-132.4251,-218.3157,108.488,
-93.361,-47.4786,196.4079,188.3373,-146.8796,176.6864,-203.8348,-201.1327,186.4813,183.0874,84.8558,-116.6881,-219.3168,106.3579,
-90.6785,-55.3329,198.7234,191.137,-152.1668,180.1852,-205.7047,-203.1647,189.3924,186.2022,78.7908,-123.7868,-192.9341,100.9492,
-71.1378,-40.824,200.9,193.7688,-157.1368,183.4741,-207.4624,-205.0749,192.1289,189.1301,82.334,-102.2596,-167.258,108.9922,
-52.7696,-24.2746,202.946,196.2427,-161.8086,186.5656,-209.1147,-206.8704,194.7011,191.8823,86.637,-82.024,-143.1226,116.5527,
-36.9373,-16.9712,204.8692,198.5681,-166.2001,189.4717,-210.6678,-208.5581,197.1191,194.4693,95.5387,-91.2026,-120.4352,123.6595,
-25.4781,-21.304,206.6771,200.754,-170.3281,192.2034,-212.1277,-210.1447,199.3919,196.9012,103.9064,-95.9466,-99.1091,130.34,
-38.0494,-25.8641,182.8908,202.8088,-174.2084,194.7712,-213.5001,-211.636,201.5284,199.1871,88.4462,-94.0817,-79.0625,127.9044,
-49.8665,-38.4122,157.8173,204.7403,-177.8559,197.1849,-214.7901,-213.0378,203.5367,201.3359,69.0394,-102.5368,-60.2188,106.1301,
-60.9745,-50.2075,134.2483,206.5558,-181.2845,199.4538,-216.0027,-214.3555,205.4245,203.3557,50.797,-110.4846,-42.5057,85.6623,
-71.416,-61.2951,118.3929,208.2625,-184.5075,201.5866,-217.1425,-215.5942,207.199,205.2544,33.6492,-117.9555,-25.8553,71.7493,
-81.231,-71.7174,111.7757,209.8667,-187.537,203.5914,-218.2139,-216.7586,208.8671,207.0391,17.5303,-124.9782,-10.204,81.5444,
-90.4572,-81.5143,101.1772,211.3747,-190.3848,205.4759,-219.2211,-217.0125,210.4351,208.7168,2.3784,-131.5795,4.5082,62.5517,
-99.1298,-90.7235,86.35,212.7923,-193.0617,207.2474,-220.1678,-212.7488,211.909,210.2938,-11.4273,-137.7847,5.2946,44.6986,
-103.9428,-99.3801,86.0339,214.1247,-195.578,208.9125,-221.0578,-204.8488,213.2944,211.7761,-24.8417,-143.6177,-9.1231,27.9167,
-95.7602,-107.5172,94.9719,215.3772,-197.9433,210.4778,-221.8943,-178.4579,214.5968,213.1696,-37.4512,-149.1006,-22.6757,18.9278,
-87.5823,-115.1662,103.3736,216.5546,-200.1667,211.9491,-222.6806,-158.012,215.821,214.4794,-49.3041,-154.2546,-35.4151,15.3594,
-80.3814,-122.3562,99.6201,217.6613,-202.2567,213.3322,-223.4198,-155.3424,216.9717,215.7106,-49.2905,-159.0993,-47.3902,9.5727,
-61.4585,-129.1149,107.7429,218.7016,-204.2213,214.6322,-224.1146,-131.9219,218.0534,216.868,-32.2331,-163.6533,-58.6468,23.0983,
-60.195,-135.468,115.3784,219.6795,-206.068,215.8543,-224.7677,-138.1065,219.0702,217.9559,-44.3991,-167.9341,-69.228,7.6124,
-61.4482,-141.4399,122.5557,220.5988,-207.804,217.003,-225.3817,-135.658,203.7835,218.9786,-55.8351,-171.9581,-79.1743,-6.9443,
-60.6805,-147.0535,129.3023,221.4628,-209.4357,218.0829,-225.9588,-122.6539,186.6918,219.9398,-66.585,-175.7406,-88.5239,-20.6277,
-54.6071,-152.3303,135.6442,222.2751,-210.9696,219.0979,-226.5013,-116.754,171.1118,220.8435,-76.6899,-179.2962,-97.3124,-33.49,
-55.2226,-157.2905,141.6055,223.0386,-212.4114,220.052,-227.0112,-103.9109,169.6017,221.6928,-86.1885,-182.6384,-105.5737,-43.1813,
-53.3688,-161.953,136.0781,223.7563,-213.7667,220.9489,-227.4905,-97.1899,156.0205,222.4913,-95.1172,-185.7801,-113.3393,-46.9147,
-48.7071,-166.3359,131.3189,224.4309,-215.0407,221.792,-227.9411,-89.8989,145.1997,217.8514,-95.2892,-188.7333,-120.6389,-48.4781,
-45.2981,-170.4557,127.8178,225.065,-216.2383,222.5844,-228.3646,-82.0724,136.0011,202.3478,-90.0585,-191.5093,-127.5006,-49.948,
-41.6072,-167.6832,124.0409,225.6611,-217.364,223.3294,-228.7627,-75.2018,126.868,188.2612,-85.6279,-194.1187,-133.9505,-51.816,
-38.6244,-163.947,120.004,226.2215,-218.4221,224.0296,-229.137,-68.2574,117.7968,174.5332,-80.9766,-196.5716,-140.0135,-53.0853,
-34.361,-160.9208,117.6689,226.7482,-219.4168,224.6878,-229.4888,-63.1887,109.7558,162.1152,-78.064,-198.8773,-145.7127,-54.7653,
-31.3263,-137.644,124.7088,227.2433,-220.3518,225.3066,-229.8194,-45.2974,117.2705,166.4883,-74.3531,-201.0447,-151.0699,-37.8579,
-20.2033,-128.8986,125.0184,227.7087,-221.2307,225.8882,-230.1303,-39.6526,115.1077,162.3452,-79.1354,-203.082,-156.1057,-44.8294,
-17.0452,-127.003,103.4173,228.1462,-222.0569,226.4349,-230.4224,-30.4628,94.1012,138.5045,-76.3332,-204.9971,-160.8394,-56.2396,
-18.455,-108.1932,104.0146,228.5574,-222.8334,214.2866,-230.6971,-14.535,77.7438,138.9425,-69.3206,-206.7972,-165.289,-50.9276,
-21.726,-100.2425,111.8737,228.944,-223.5634,192.1855,-230.9553,-3.4379,85.2413,132.0655,-60.7831,-208.4894,-169.4717,-37.6558,
-18.9631,-104.4443,108.5747,229.3073,-224.2496,166.5544,-231.198,0.17364,71.8564,118.7899,-58.5955,-210.08,-173.4034,-45.6129,
-5.1764,-101.0964,87.9602,229.6489,-224.8946,142.4611,-231.4261,10.8658,60.7344,106.7978,-67.7287,-211.5752,-177.0992,-56.9761,
-0.97385,-89.1927,72.4583,229.9699,-225.501,119.8135,-231.6405,2.4304,55.1444,89.6874,-67.5569,-212.9807,-180.5732,-67.6575,
-12.5914,-88.7061,69.0838,229.3681,-226.0709,104.8161,-231.8421,-5.4994,49.8895,78.468,-51.8275,-214.3019,-183.8388,-57.7766,
-8.9168,-85.3297,59.1009,214.6332,-226.6067,99.5008,-232.0316,4.5603,44.9502,68.8953,-51.637,-215.5438,-186.9085,-41.661,
2.3208,-71.4528,45.825,194.9441,-227.1103,100.3414,-232.2097,13.0437,28.1532,56.9773,-59.2414,-216.7111,-189.794,-45.9725,
-7.0616,-64.7336,43.5617,174.0043,-227.5836,90.9156,-232.3771,19.5584,24.5097,60.8559,-46.4437,-189.6085,-164.3064,-32.9977,
-14.9084,-63.2816,48.2457,165.9966,-228.0286,88.8655,-232.5345,23.7366,28.3909,55.7452,-35.3866,-183.8488,-140.348,-16.9178,
-11.0949,-62.4037,46.3239,149.226,-228.4469,94.2363,-232.6824,22.3122,14.0387,38.3004,-36.1824,-186.9179,-136.513,-30.0028,
-9.9426,-66.9299,39.166,133.9475,-228.8401,74.4822,-232.8214,27.2979,10.7633,39.8862,-34.498,-189.8028,-135.6199,-42.3026,
-18.1031,-66.806,35.8428,132.7217,-229.2097,55.9132,-232.9522,32.4707,24.2175,46.2497,-23.6711,-164.3147,-133.3206,-30.5294,
-26.7465,-61.8247,45.3682,129.6233,-229.5571,38.4584,-233.075,36.3605,36.8645,45.4209,-12.5213,-140.3558,-114.6185,-24.8059,
-22.2228,-48.3852,56.7461,132.5491,-229.8837,22.0509,-233.1905,44.8817,21.0475,51.4524,-14.6889,-146.0344,-109.6872,-37.4176,
-18.9437,-38.6712,67.4413,137.2449,-230.1907,6.6279,-233.2991,48.9996,23.6768,51.2842,-15.7533,-151.3724,-116.7279,-37.6129,
-28.5098,-34.4052,56.6007,129.01,-230.4792,-7.8698,-233.4012,47.0326,36.3562,42.3691,-4.1053,-131.1173,-95.6242,-28.5458,
-40.8993,-35.7462,39.1046,107.1694,-230.7505,-21.4976,-233.4971,36.9134,20.0748,36.4216,-10.1835,-109.1502,-81.1216,-36.0757,
-24.3453,-20.9527,35.777,98.7847,-231.0054,-34.3078,-233.5873,40.5363,20.3297,45.9123,-8.5995,-97.728,-86.9571,-27.1008,
-9.2626,-16.2902,36.0625,83.6144,-231.2451,-46.3493,-233.672,32.7528,16.6774,29.0576,-16.354,-94.2969,-88.0642,-26.9341,
-8.2205,-9.9613,31.4669,73.2465,-231.4704,-57.6683,-233.7517,34.1932,3.5146,19.0356,-15.8591,-74.5391,-73.5369,-23.8585,
-10.1596,-7.904,18.389,54.7517,-231.6822,-68.3082,-233.8266,27.7629,-10.7963,16.4339,-12.4752,-55.9667,-75.4494,-22.9133,
-11.0096,1.8136,8.0427,37.3666,-231.8812,-78.3097,-233.897,21.7188,-24.2485,3.2857,-10.2671,-38.5087,-57.7866,-25.9168,
-9.3761,6.5697,8.5332,27.3239,-232.0684,-85.3865,-233.9632,25.2806,-20.8645,1.1424,-6.7322,-34.2273,-57.2388,-33.1191,
-5.8946,6.1753,0.23709,16.9272,-232.2443,-92.9121,-234.0254,21.8175,-23.5043,-1.8451,-12.1664,-18.0736,-67.9045,-34.0509,
-0.67575,17.4805,-9.5069,1.8116,-232.4096,-96.0935,-234.0839,17.5898,-35.7158,-6.5995,-13.3823,-2.8892,-54.5951,-23.2508,
-3.5541,27.1349,-11.8555,-12.3971,-232.565,-99.0851,-234.1388,19.4533,-47.6728,-7.1765,-6.7413,4.1119,-37.2194,-23.8019,
3.9563,35.7228,-21.3605,-25.7533,-232.7111,-107.24,-234.1905,30.4485,-54.5508,-10.1513,1.9336,12.1356,-28.1671,-20.9145,
13.9354,42.8231,-30.2953,-34.4488,-232.8485,-114.9056,-234.2391,42.7216,-44.9528,-3.2177,3.2774,25.5075,-29.8824,-7.4972,
3.3692,47.0645,-34.3152,-46.4818,-232.9776,-122.1113,-234.2847,54.2583,-45.1746,6.7049,2.1073,38.077,-14.4675,-11.9118,
0.73496,52.5106,-32.7434,-57.7929,-233.0989,-128.8846,-234.3276,65.1028,-46.8431,10.6811,16.0809,49.8924,0.50058,-8.765,
-7.0934,35.26,-44.8788,-68.4253,-233.213,-135.2515,-234.368,75.2966,-54.7351,3.2297,29.2161,60.9988,9.2354,-13.1043,
-9.1002,45.7853,-56.2861,-78.4198,-233.3202,-141.2365,-234.4059,84.8788,-49.0186,12.2793,31.3714,71.4389,22.7813,-11.8312,
-10.9865,57.1382,-50.9791,-87.8146,-210.3045,-146.8623,-234.4416,93.8861,-43.6452,19.8123,33.8679,81.2526,35.5144,-5.7698,
-3.0303,63.9341,-53.2719,-96.6458,-204.9832,-152.1505,-234.4751,96.5728,-48.3235,18.1376,31.349,90.4774,38.7513,3.8198,
11.2515,74.1981,-58.3458,-104.947,-178.5842,-157.1215,-234.5066,104.8785,-59.5241,11.6983,32.8745,99.1488,50.5262,10.8881,
10.0986,80.9437,-54.3586,-112.7502,-153.7692,-161.7942,-234.5362,112.6858,-55.4748,-1.1666,42.0905,107.2999,61.5946,12.6667,
9.4927,89.7092,-52.0699,-120.0852,-130.443,-166.1866,-234.564,116.6443,-52.1463,0.8498,44.4297,114.9619,71.9989,19.6905,
15.7342,98.4267,-54.784,-126.9801,-108.5164,-170.3154,-234.5902,111.5916,-55.8286,0.79882,46.6295,122.1641,58.4608,12.6717,
28.8902,106.6211,-47.1178,-133.4613,-87.9055,-174.1964,-234.6147,116.0859,-49.0734,-10.4385,57.9318,128.9343,69.0531,12.3977,
41.2568,114.3238,-42.8316,-139.5536,-68.5311,-177.8447,-234.6379,120.3101,-46.6153,-9.3258,68.5559,135.2982,79.0099,25.7539,
52.8813,121.5644,-45.1273,-145.2804,-50.3193,-181.274,-234.6596,103.3608,-47.7103,-4.8743,78.5425,141.2803,88.3693,38.3086,
63.8085,128.3705,-35.6085,-150.6636,-33.2001,-184.4975,-234.68,102.9975,-42.9013,-6.5283,87.93,146.9035,97.1672,50.1101,
74.08,134.7683,-25.6882,-155.7237,-17.1081,-187.5277,-219.9267,110.9177,-30.5979,-0.29827,96.7542,152.1893,105.4372,61.2035,
83.7352,140.7822,-22.6869,-160.4803,-1.9816,-190.376,-192.6311,118.3626,-24.3837,4.0979,105.0489,157.158,113.2109,71.6313,
92.8111,146.4353,-31.5423,-164.9515,12.2373,-193.0535,-166.9732,125.3608,-31.1909,-10.248,112.846,161.8285,120.5183,81.4334,
101.3424,151.7491,-26.731,-169.1544,25.603,-195.5703,-142.8548,131.9392,-24.4543,-16.4523,120.1752,166.2188,127.3872,90.6474,
109.3618,156.7442,-11.0272,-173.1051,38.1669,-197.936,-120.1835,138.1228,-24.4466,-14.0055,127.0647,170.3456,133.8439,99.3086,
116.9001,161.4395,3.7345,-176.8188,49.9769,-200.1599,-98.8725,143.9355,-23.9531,-18.0303,133.5408,174.2249,139.9133,107.4501,
123.9861,165.8532,-2.7972,-180.3097,61.0782,-202.2503,-78.8402,149.3993,-36.6159,-30.5698,139.6284,177.8714,145.6185,115.1031,
130.647,170.002,-16.7294,-183.5911,71.5135,-204.2153,-60.0097,154.5354,-48.5189,-39.9254,145.3507,181.2991,150.9814,122.2969,
136.9081,173.9019,-12.3286,-186.6757,81.3227,-206.0624,-42.3092,159.3633,-44.6512,-41.9087,150.7296,184.5212,156.0225,129.0591,
142.7937,177.5678,-4.7783,-189.288,90.5434,-207.7986,-25.6706,163.9015,-43.9181,-52.0422,155.7859,187.5499,160.7612,135.4155,
148.326,181.0137,-18.5916,-192.0307,99.2108,-209.4307,-10.0304,168.1674,-55.383,-63.0196,160.5387,190.3969,165.2155,139.0748,
153.5265,184.2529,-31.5761,-194.6089,107.3581,-210.9649,4.6714,172.1773,-66.16,-73.3385,155.4088,193.0731,169.4026,116.6303,
158.4149,187.2977,-43.7815,-197.0323,115.0166,-212.407,18.4912,175.9467,-76.2904,-83.0382,136.3549,195.5887,173.3384,95.5325,
163.01,190.1598,-55.2546,-199.3104,122.2156,-213.7625,31.4817,179.4899,-85.813,-92.1559,114.0736,197.9534,177.0381,75.7005,
167.3294,192.8502,-66.0394,-201.4518,128.9827,-215.0368,43.6928,182.8205,-94.7642,-100.7265,93.1292,200.1762,161.2141,57.0585,
171.3896,195.3792,-76.177,-203.4647,135.3437,-216.2346,55.1712,157.7513,-103.1784,-108.7829,73.4415,202.2656,137.4412,39.535,
175.2062,197.7565,-85.7064,-205.3568,141.3231,-217.3605,65.9609,134.1862,-111.0877,-116.356,54.935,198.1701,115.0948,23.0629,
178.7939,199.9911,-94.664,-207.1354,146.9437,-218.4189,76.1033,124.7829,-118.5224,-123.4746,37.5389,172.6582,94.0891,7.5791,
182.1662,202.0916,-103.0842,-208.8073,152.2271,-219.4137,85.6371,126.0535,-125.5111,-130.1661,21.1865,162.2987,74.3437,-6.9757,
185.3363,204.0661,-110.9991,-210.3788,157.1935,-220.3489,94.5989,123.8413,-132.0804,-136.4562,5.8154,165.6966,55.7831,-20.6571,
188.3161,205.9222,-118.4392,-211.8561,161.8619,-221.228,103.0229,130.5108,-138.2556,-142.3688,-8.6336,163.5381,38.3361,-33.5177,
191.1171,207.6668,-125.4328,-213.2447,166.2502,-222.0543,110.9416,136.7802,-144.0602,-147.9267,-22.2156,149.8339,21.936,-45.6066,
174.0272,209.3068,-132.0068,-214.55,170.3751,-222.831,118.3851,142.6734,-149.5166,-153.1511,-34.9826,154.9439,6.5198,-56.9702,
177.6856,210.8484,-138.1864,-215.777,174.2526,-222.9194,125.382,148.2129,-154.6456,-158.062,-46.9837,142.7371,-7.9714,-67.652,
181.1244,212.2975,-143.9952,-216.9304,177.8975,-216.8417,131.959,153.4202,-159.4669,-162.6783,-58.2646,120.0729,-21.5931,-77.6929,
175.1383,213.6597,-149.4555,-218.0146,181.3236,-217.9312,138.1415,158.315,-163.9989,-167.0176,-68.8688,113.3463,-18.9211,-87.1313,
150.53,214.9401,-154.5882,-219.0337,184.5442,-218.9554,143.953,162.0013,-168.2589,-171.0965,-78.8366,120.6455,-23.6242,-93.2174,
127.3982,216.1437,-159.4129,-219.9917,187.5716,-203.8892,149.4158,159.5783,-172.2634,-174.9307,-88.2064,127.5068,-9.0714,-92.9759,
128.9815,215.1242,-163.9481,-220.8922,190.4173,-180.9528,154.5509,154.8682,-176.0276,-178.5349,-97.0141,119.3867,-4.6352,-98.1003,
107.1426,207.0819,-167.4031,-221.7387,193.0922,-184.1956,159.3778,138.7655,-179.5659,-181.9228,-77.0932,126.3235,-15.0596,-78.1143,
86.6141,180.557,-161.7381,-222.5343,195.6067,-187.2439,163.9152,116.3396,-182.892,-185.1074,-58.3676,132.8441,-0.056068,-59.3274,
67.3172,155.6236,-164.1959,-223.2823,197.9703,-190.1093,168.1802,95.2592,-186.0185,-188.101,-55.4684,138.9734,14.0473,-41.6678,
49.1782,137.5125,-168.4442,-223.9853,200.1921,-192.8027,172.1894,75.4436,-188.9574,-190.9149,-61.8706,135.0385,-0.89554,-41.5753,
32.1275,143.3617,-172.4375,-224.6462,202.2806,-195.3346,175.9581,56.817,-186.5672,-193.56,-44.0584,126.4494,-14.9418,-35.6757,
16.0999,148.86,-175.2428,-225.2674,204.2437,-197.7145,179.5006,39.308,-165.6438,-196.0464,-27.3148,132.4846,-19.3968,-27.6968,
1.0339,154.0284,-153.5389,-225.8514,206.0891,-199.9516,182.8305,33.5026,-144.5158,-198.3836,-11.576,138.6355,-4.133,-11.935,
-13.1282,158.8867,-130.2265,-198.2003,207.8238,-202.0545,185.9607,45.5925,-121.7449,-172.3806,3.2186,144.4174,10.215,2.8811,
-26.4405,163.4535,-108.3129,-172.2083,209.4543,-189.5114,188.9031,56.9569,-100.3402,-147.9378,17.1255,149.8523,23.7021,16.8082,
-38.9541,167.7463,-87.7142,-147.7758,210.9871,-164.0408,191.6689,67.6395,-80.2198,-124.9615,30.198,154.9612,36.38,29.8997,
-50.7168,171.7815,-68.3513,-124.8093,212.4278,-140.0983,194.2688,77.6811,-61.3066,-103.3638,42.4861,159.7635,48.2972,42.2057,
-61.7738,175.5746,-50.1502,-103.2207,213.7822,-117.5924,196.7126,87.1203,-43.5282,-83.062,54.0369,164.2777,59.4993,53.7734,
-72.1674,179.1402,-33.0412,-82.9275,215.0552,-96.4369,199.0099,95.993,-26.8165,-63.9783,64.8947,168.521,70.0294,64.647,
-81.9373,182.4917,-16.9587,-63.8518,216.2519,-76.5507,201.1693,104.3335,-11.1075,-46.0396,75.101,172.5098,79.9276,74.8682,
-91.1211,185.6422,-1.8412,-49.9615,217.3768,-61.2128,203.1991,112.1734,3.6589,-29.1772,84.695,176.2592,89.232,84.4761,
-99.7538,188.6037,12.3693,-33.3421,218.4342,-66.2971,205.1072,114.2667,17.5394,-13.3266,93.7133,179.7836,97.978,93.5075,
-85.6306,191.3875,25.7271,-17.2415,219.4282,-67.6707,206.9007,112.7622,30.587,1.573,102.1905,183.0966,106.1994,101.9971,
-84.872,194.0042,21.3471,-21.5509,220.3625,-60.2049,208.5867,103.5636,42.8518,15.5786,110.159,186.2108,113.9274,109.9772,
-83.1847,196.464,16.6611,-28.5276,221.2407,-44.4301,210.1715,99.7822,54.3807,28.7439,117.6495,189.1382,121.1917,117.4786,
-64.0937,198.7761,27.3372,-13.1938,222.0663,-36.8996,211.6612,98.6608,65.2179,41.1193,124.6905,191.8899,128.0202,124.5299,
-46.148,200.9496,39.797,1.6978,222.8423,-43.929,213.0615,97.119,75.4048,52.7521,131.3091,194.4765,134.439,131.1581,
-41.417,202.9926,40.8228,12.7925,223.5718,-37.8877,214.3778,94.6974,84.9805,57.7569,137.5305,196.9079,140.4727,137.3886,
-35.0401,204.913,34.4815,1.3229,224.2575,-26.8579,215.6152,84.1509,93.6275,45.5349,143.3787,199.1934,146.1443,136.0886,
-20.2878,206.7183,38.2505,-1.6752,224.902,-28.1651,216.7783,79.1023,92.8759,53.5063,148.876,196.626,151.4757,128.8965,
-11.2871,208.4152,47.6308,12.5253,225.5079,-28.4212,217.8716,88.4562,101.4034,64.3959,152.2715,188.7199,152.2658,125.0542,
-12.5559,210.0103,56.4491,25.8738,226.0774,-27.6891,218.8993,97.2488,92.894,65.8917,139.2438,167.6669,137.2929,117.5514,
1.8192,211.5096,65.7112,38.4214,226.6128,-31.8657,219.8653,88.5104,86.3481,70.6953,127.9704,151.769,125.1629,100.7685,
15.81,212.9191,72.9574,47.8166,227.116,-37.2507,220.7734,86.6058,95.2672,74.7233,134.3922,136.3386,118.14,96.182,
13.8972,214.2439,69.5532,44.948,227.589,-45.7182,221.627,89.1937,102.2082,67.3212,135.0938,115.5093,96.9516,90.4115,
27.1634,215.4893,79.48,55.386,228.0337,-47.3543,222.4294,94.0578,93.6429,76.4177,116.7716,103.2277,86.2608,83.5268,
20.677,216.6599,70.8274,56.928,228.4517,-58.6131,223.1836,82.5765,89.9703,72.8059,95.6653,82.9341,66.9852,64.4152,
14.0849,217.7603,57.3352,59.8366,228.8446,-57.0503,223.8926,83.9471,86.0317,64.0588,85.0521,63.858,48.8661,48.8659,
22.9687,218.7947,65.5704,54.3004,229.2139,-41.952,224.559,86.6936,79.8966,67.0259,84.8132,74.1266,31.8341,56.6365,
26.4557,219.767,74.2851,54.9339,229.5611,-53.5349,225.1855,75.6541,86.779,72.7341,82.644,62.8593,15.824,57.1307,
23.8961,220.681,72.7467,65.7378,223.1877,-63.4653,225.7744,78.8983,94.2212,72.2625,85.4697,44.9878,0.7746,50.7842,
36.5623,221.5401,81.0309,75.8936,223.8964,-45.5574,226.3279,88.2644,92.4594,82.0267,91.0441,56.3885,8.471,61.8371,
48.4686,222.3477,87.8448,84.0056,213.8753,-34.5457,220.5759,82.4902,89.831,91.2051,81.6895,67.1052,9.9083,72.2269,
31.4604,223.1069,75.763,77.9925,186.9428,-46.5729,196.6384,63.4408,95.1442,88.6677,69.977,48.9789,-4.7862,53.7933,
15.4728,204.1655,72.1905,76.2326,161.6262,-57.8785,181.9214,67.8974,92.3542,82.3753,57.995,31.9401,-18.599,36.4657,
28.6445,191.9156,81.959,85.7586,137.8287,-68.5058,168.0869,77.9236,89.7321,91.5328,52.5689,37.3131,-26.2563,44.9808,
31.799,166.3006,91.1415,94.242,115.459,-78.4955,148.7587,63.5264,93.5912,100.1409,53.7931,20.9743,-38.7809,34.9844,
24.5391,142.2226,89.5811,99.7768,94.4314,-87.8858,132.5357,53.3901,95.2732,102.9052,49.1064,5.6159,-50.5541,18.7854,
26.4723,119.5892,87.6118,99.1422,74.6655,-96.7126,118.2589,54.565,95.8815,107.9202,39.8353,-4.9539,-59.7001,7.4331,
28.29,98.3139,95.4904,105.3562,56.0856,-105.0098,108.731,48.8588,92.5609,112.6349,32.0937,-18.7567,-70.2181,16.2305,
40.6926,78.3151,103.861,113.1349,38.6205,-112.8093,101.7208,54.1975,87.4936,119.9768,28.7089,-31.7313,-71.3641,12.8248,
49.9349,59.5162,98.6102,109.2731,22.2032,-117.2971,85.8877,58.729,91.9738,125.4348,30.8778,-36.6556,-52.9823,1.3518,
39.6408,41.8452,96.0996,108.0682,6.771,-124.3593,66.6345,49.8547,100.5554,121.3147,31.4575,-48.5563,-63.9033,-12.8293,
23.1624,25.2345,91.7927,115.6841,-7.7352,-130.9977,48.5364,32.7634,93.071,115.4949,22.2735,-59.7429,-74.1691,-26.1595,
12.0348,9.6204,85.3124,106.8052,-21.3711,-137.2379,31.5242,19.1133,80.6757,115.3763,8.2877,-70.2583,-74.1058,-38.6899,
9.3667,-5.0568,77.275,99.4246,-34.1888,-133.4066,15.5328,10.1822,72.9164,111.3724,-6.3096,-80.1428,-83.7595,-50.4685,
-4.3311,-18.8534,75.0703,104.6476,-46.2375,-124.9158,0.5008,-0.64538,61.244,111.9876,-20.031,-89.4342,-92.8339,-61.5404,
-12.341,-31.8222,71.0529,104.6939,-57.5633,-122.7724,-13.6292,-1.0926,51.2451,111.5926,-32.9292,-98.1682,-101.3639,-71.948,
-8.6813,-44.0129,65.817,102.3042,-68.2095,-114.4324,-26.9115,-2.9725,50.1159,102.9515,-45.0534,-106.3781,-92.8749,-77.4104,
-18.3766,-55.4721,59.4357,98.5992,-78.2169,-96.3766,-39.3968,-12.0376,47.5958,96.2876,-52.5997,-114.0954,-98.4913,-86.8658,
-26.0311,-66.2438,51.9771,95.602,-87.6239,-76.494,-51.133,-18.1269,35.0102,100.2401,-55.2816,-121.3497,-103.2844,-95.7538,
-23.0096,-76.3691,53.2373,86.4598,-96.4665,-68.0048,-62.165,-27.2554,26.5854,100.55,-66.0647,-128.1687,-111.1873,-96.8363,
-35.7291,-85.887,52.4758,81.7586,-104.7785,-78.0245,-72.5351,-32.9176,26.4494,93.0579,-76.2008,-134.5786,-118.6161,-105.1261,
-46.7287,-94.8338,40.0834,89.9889,-112.5918,-71.8916,-82.283,-33.3744,21.4569,90.8799,-85.7287,-140.6039,-123.6788,-112.9186,
-39.5467,-103.2438,33.3001,91.8861,-119.9363,-53.4781,-91.446,-36.7239,16.7639,88.8327,-94.685,-146.2676,-130.3581,-106.6469,
-38.1467,-111.1491,32.2748,88.3194,-126.8401,-36.1694,-100.0593,-46.1962,17.7045,81.5563,-103.1039,-151.5916,-116.7068,-111.923,
-48.0205,-118.5802,31.7979,92.2636,-133.3297,-20.3613,-108.1557,-53.6406,18.1018,75.2033,-103.7697,-156.5961,-95.6044,-117.3702,
-44.6529,-125.5654,38.1603,94.998,-139.4299,-5.0396,-115.7664,-62.5852,14.5829,73.1239,-99.9763,-161.3003,-75.7681,-113.7335,
-35.649,-132.1314,40.2499,83.9471,-145.1641,9.3627,-122.9204,-72.9301,9.3296,73.1148,-88.6257,-165.7223,-57.1221,-113.2333,
-47.61,-138.3036,31.5102,72.5856,-150.5543,22.901,-129.6452,-82.6543,8.2835,69.2143,-89.6329,-169.879,-39.5947,-120.5393,
-58.8534,-144.1053,28.16,82.3304,-155.621,29.8223,-135.9665,-85.0082,2.435,70.4129,-98.3549,-173.7862,-51.3191,-127.4069,
-69.4222,-149.559,32.3082,91.4906,-160.3837,38.7355,-141.9085,-89.6375,0.34291,68.1341,-106.5536,-177.459,-62.3399,-133.4018,
-69.1745,-154.6855,34.748,91.8557,-164.8607,50.5114,-147.494,-98.3593,-2.1105,59.6678,-114.2604,-180.9115,-72.6995,-135.6134,
-67.4559,-159.5044,35.096,93.6418,-169.0691,61.5807,-152.7443,-99.7637,-8.3076,59.4932,-121.5048,-184.1568,-79.0315,-135.7477,
-72.6524,-164.0341,44.1796,102.1233,-173.0249,71.9859,-157.6797,-100.1026,-1.4854,58.3555,-128.3145,-187.2074,-88.3896,-138.7922,
-60.5094,-168.292,55.1501,110.0959,-176.7434,81.7667,-162.3189,-107.7177,2.4957,49.0168,-134.7156,-190.075,-97.1863,-144.086,
-62.7167,-172.2945,52.8143,110.8043,-180.2388,90.9607,-166.6797,-110.0117,-2.5183,47.049,-129.6018,-192.7705,-90.8854,-136.414,
-73.0537,-176.0569,42.8343,107.0752,-183.5245,99.6031,-170.779,-108.2757,8.3349,57.8473,-120.8529,-195.3042,-85.4322,-121.4181,
-66.7326,-179.5934,29.0749,99.1906,-186.613,107.7269,-174.6322,-111.023,3.4565,53.8901,-126.7366,-197.686,-94.4063,-125.3224,
-76.8287,-182.9178,16.1415,80.1038,-189.5162,115.3633,-178.2543,-118.4616,-10.8509,36.5567,-133.2324,-199.9248,-102.8419,-131.903,
-86.319,-186.0428,9.8215,79.6764,-192.2453,122.5415,-181.659,-124.4974,-15.5594,25.1118,-137.4092,-202.0293,-83.5527,-124.4838,
-95.2398,-188.9802,-4.8678,68.5715,-194.8106,129.289,-184.8595,-131.1275,-16.0854,23.1182,-130.6242,-204.0076,-76.1072,-111.6633,
-80.794,-191.7414,-5.5575,64.4563,-197.2219,135.6316,-187.8679,-136.8901,-6.3637,32.4341,-113.0574,-205.8671,-71.5408,-100.0988,
-67.6753,-194.3369,6.939,74.6889,-199.4886,141.5937,-190.6958,-118.4601,4.2347,36.8128,-96.0564,-207.6151,-53.1483,-86.7954,
-58.2637,-196.7767,11.8737,84.3076,-201.6193,147.1981,-193.3541,-111.8389,17.1165,47.7389,-84.942,-209.2582,-40.7079,-67.4877,
-66.4436,-199.0701,-2.9387,65.1491,-203.6221,152.4662,-195.8529,-119.2285,10.2511,49.7402,-93.9455,-210.8027,-50.9139,-51.7541,
-76.557,-201.2259,-16.8624,47.1402,-205.5048,157.4183,-198.2017,-126.1748,5.2578,43.3502,-102.4088,-212.2545,-50.2919,-44.2706,
-77.3232,-203.2523,-29.9507,30.6905,-207.2745,162.0732,-200.4096,-132.7043,9.3206,43.1811,-90.443,-213.6193,-38.0305,-45.9926,
-67.8187,-205.1572,-33.5299,33.7142,-208.938,166.4488,-202.485,-137.9026,10.7073,54.6902,-75.2866,-199.6407,-21.6487,-45.179,
-77.8496,-206.9478,-45.6181,17.5914,-210.5018,170.5619,-204.4359,-143.7285,4.7134,60.1739,-80.9856,-188.1491,-34.4498,-37.1168,
-87.2786,-208.6309,-56.981,2.4359,-211.9717,174.4281,-206.2697,-149.2048,5.8906,48.2933,-82.4512,-190.9601,-46.4828,-36.3498,
-82.0585,-210.213,-52.6051,16.3897,-213.3534,178.0625,-207.9936,-148.0525,19.1584,47.3421,-71.6658,-193.6025,-57.7938,-47.7901,
-78.5946,-211.7003,-50.9093,11.5059,-214.6522,181.4787,-209.614,-140.6289,16.5493,48.8794,-72.7173,-189.7859,-68.4262,-43.4631,
-78.2567,-213.0982,-52.2326,3.5185,-215.873,184.69,-211.1371,-139.4886,1.4564,43.5143,-74.6785,-164.2988,-78.4206,-26.7553,
-65.778,-214.4123,-34.9986,17.4074,-217.0206,187.7086,-212.5689,-127.2274,6.226,43.8222,-59.4953,-168.5409,-87.8154,-28.0606,
-59.3989,-215.6476,-18.7987,30.463,-218.0994,190.5461,-213.9148,-105.4938,19.9525,55.2928,-53.4932,-172.5284,-96.6464,-33.6749,
-46.1057,-216.8088,-3.5708,42.7352,-219.1134,193.2133,-215.1799,-85.0641,32.8553,66.0753,-53.2028,-154.8882,-104.9477,-18.0322,
-34.095,-217.9002,10.7435,54.2711,-220.0666,195.7205,-216.3691,-74.1058,44.984,72.8309,-37.848,-134.4051,-112.7508,-5.7614,
-33.5089,-218.9262,24.1989,65.1148,-220.9626,198.0773,-217.4869,-74.0377,45.2284,67.0014,-27.3065,-139.4761,-120.0858,-11.7399,
-17.3983,-219.8906,36.8469,75.3079,-221.8049,200.2926,-218.5377,-63.2712,51.7586,74.1707,-29.0736,-133.5404,-126.9806,-6.6573,
-13.4276,-220.7972,41.4967,84.8895,-222.5966,202.3751,-219.5255,-61.4209,48.6531,64.8549,-39.005,-121.636,-133.4618,-4.3114,
-26.722,-221.6494,36.5745,71.0971,-223.3408,204.3326,-220.4539,-63.0871,38.436,52.6938,-37.1515,-111.9055,-129.4377,-15.2426,
-34.3697,-222.4504,46.5422,78.9943,-224.0403,206.1726,-221.3267,-58.8151,39.5363,50.0186,-29.5705,-117.3533,-135.7715,-27.4629,
-18.2075,-223.2034,47.6416,88.3546,-224.6979,204.7625,-222.1471,-48.4755,43.9743,44.0983,-31.6881,-114.2041,-141.7252,-19.004,
-21.9726,-223.9112,41.378,84.0342,-225.316,191.9899,-222.9183,-46.0534,39.8762,34.1554,-37.0848,-103.9467,-147.3217,-12.5123,
-34.7542,-224.5765,50.0842,78.5053,-225.8971,166.3705,-223.6432,-45.7225,31.1594,37.4576,-39.2375,-108.8988,-152.5824,-24.8969,
-21.9741,-225.2019,51.9439,77.6869,-226.4433,159.2994,-224.3246,-43.9524,22.4787,34.2365,-35.9105,-107.2296,-157.5274,-25.3495,
-16.2773,-225.7898,54.1792,81.2959,-226.9567,158.0116,-224.9651,-34.0178,30.3739,32.6696,-27.4321,-106.1478,-139.8465,-9.7285,
-14.8143,-226.3424,65.0284,90.5181,-227.4393,141.2335,-225.5672,-17.8767,42.6515,44.8094,-18.4887,-113.8789,-117.3557,4.9552,
-8.0871,-215.7168,67.9455,99.1871,-227.8929,139.5706,-226.1332,-13.8768,52.7494,50.886,-22.2441,-113.8649,-96.2144,6.6205,
-14.8993,-215.9096,51.7066,90.3338,-228.3193,137.5201,-226.6652,-25.2068,40.3406,42.4808,-27.2341,-94.8709,-104.5415,-7.8767,
-24.2211,-213.1707,52.9825,83.4546,-228.7202,120.9996,-227.1653,-31.9646,35.4883,35.5537,-27.0592,-88.6922,-112.369,-20.5476,
-34.444,-211.084,47.8576,84.2852,-229.097,99.6396,-227.6353,-40.7493,39.1969,27.5826,-39.5357,-86.2894,-99.3026,-11.5304,
-24.594,-194.5275,46.9321,93.3281,-229.4511,99.0038,-228.0772,-38.3048,46.5739,33.711,-35.7129,-83.058,-101.1288,-11.8127,
-9.0184,-170.6932,58.2162,101.8284,-222.1102,107.1635,-228.4926,-21.9065,53.0238,45.7884,-19.4702,-89.2634,-109.161,-6.7252,
-14.3066,-172.1274,64.4615,109.8187,-222.4053,114.8337,-228.883,-34.2057,49.8415,38.1845,-20.2394,-98.0076,-104.5659,-7.2944,
-18.3133,-169.5831,62.5398,110.0649,-223.161,101.6361,-229.2501,-46.2534,50.7434,34.9211,-33.125,-88.7307,-100.237,-12.6947,
-12.8358,-170.598,72.8874,115.6236,-223.4016,86.2945,-229.5951,-57.5782,48.1856,44.9875,-28.2269,-91.6775,-108.3227,-24.0956,
-19.3631,-174.4621,76.7925,120.8484,-222.1596,68.9547,-229.9193,-68.2235,40.9162,35.9645,-35.7762,-100.2768,-115.9234,-34.812,
-27.4447,-172.2731,81.4284,127.6975,-222.9301,51.6821,-230.2242,-78.2301,45.7582,29.4279,-47.7297,-108.3602,-123.068,-46.8233,
-28.2309,-159.504,90.6426,134.1356,-223.6543,52.9594,-230.5107,-87.6363,46.4183,33.9869,-56.0633,-115.9586,-129.7839,-46.4547,
-23.6178,-152.8524,99.3041,140.1875,-224.335,63.4041,-230.7801,-96.4781,36.8221,26.1093,-58.5379,-123.1011,-136.0969,-37.8291,
-10.5245,-143.6817,107.4458,145.8762,-224.9749,55.7074,-231.0333,-94.6308,48.7128,31.3543,-55.9988,-129.815,-142.0311,-34.5862,
-0.16373,-128.2498,115.0991,151.2237,-225.5764,41.662,-231.2713,-79.2227,59.89,43.5731,-39.0167,-136.1261,-147.6092,-46.1332,
7.1436,-116.1765,122.2931,156.2502,-226.1418,43.5406,-231.495,-72.0375,70.3966,53.6148,-33.2702,-142.0586,-152.8526,-46.7707,
20.8149,-111.6382,129.0556,160.9752,-222.353,55.0281,-231.7053,-72.0935,80.2728,58.6691,-42.4633,-147.635,-157.7815,-32.7751,
33.666,-101.048,135.4122,165.4167,-194.9119,65.8264,-231.903,-72.633,86.1923,59.0408,-42.8347,-152.8769,-162.4146,-27.8894,
33.1225,-99.85,141.3875,169.5917,-183.6952,75.9768,-232.0888,-82.375,88.8048,56.4714,-32.4806,-157.8043,-166.7697,-34.0001,
25.7835,-101.1567,147.0042,173.5162,-186.7735,85.5182,-228.037,-87.1704,88.8278,62.3263,-30.0451,-162.4361,-170.8635,-32.4467,
22.2903,-104.8169,152.284,177.2052,-161.4671,94.4871,-228.4548,-84.8591,69.3981,56.6405,-34.0805,-161.0512,-158.279,-24.6618,
6.8528,-112.6279,129.0469,180.6729,-137.6791,102.9179,-228.8475,-93.8676,53.064,39.1421,-35.9274,-143.604,-134.6823,-19.2904,
3.0283,-110.2568,107.2041,155.7325,-115.3183,110.8428,-229.2166,-102.3355,48.9069,31.4337,-33.7722,-131.0959,-127.0794,-18.1325,
2.3597,-103.155,86.6719,132.2886,-94.2992,118.2923,-229.5636,-108.3744,33.8099,32.9537,-32.2318,-109.1301,-105.3546,-16.5587,
-11.8819,-111.0657,67.3716,110.2513,-74.5413,125.2947,-229.8898,-106.7371,29.8358,32.922,-36.1362,-88.9525,-84.9333,-9.7268,
-25.2689,-118.5018,49.2293,89.5362,-55.9688,131.877,-230.1964,-114.4329,28.5321,25.5956,-30.5625,-73.3987,-71.0641,-12.5487,
-32.5256,-125.4917,32.1755,70.064,-38.5107,138.0644,-230.4847,-120.7103,24.3873,20.6543,-20.4585,-69.4812,-60.476,-20.066,
-36.8987,-127.7167,16.145,51.7602,-22.1,143.8806,-230.7556,-107.143,16.6003,24.7671,-24.5821,-66.7719,-42.7475,-13.511,
-35.658,-118.1082,1.0763,34.5546,-6.674,149.3477,-231.0102,-92.931,11.7119,26.1988,-31.8642,-48.6656,-26.0826,-3.9433,
-39.8433,-110.5353,-13.0883,18.3813,7.8264,154.4869,-231.2496,-95.6254,6.6309,16.3567,-29.466,-31.6456,-14.7712,-4.1931,
-43.2896,-107.7947,-26.403,3.1784,21.4568,159.3176,-231.4746,-92.8066,4.2871,15.3757,-16.0218,-15.6469,0.21506,1.8964,
-30.9625,-97.4351,-38.9188,-11.1123,34.2694,163.8586,-222.5421,-80.4271,0.13841,19.3183,-0.96048,-0.60809,14.3022,15.8826,
-15.0047,-77.489,-50.6837,-24.5455,46.3133,168.1271,-211.136,-61.5015,-0.8431,29.8345,13.1971,13.5284,27.544,29.0296,
-16.5291,-58.7396,-61.7427,-37.1728,57.6345,172.1395,-207.2245,-47.5871,4.0722,34.8555,26.5053,26.8167,39.9914,41.3879,
-29.6374,-69.3153,-72.1381,-49.0424,68.2764,175.9111,-208.891,-54.9481,0.42228,22.5476,39.015,39.3077,51.6919,53.0046,
-41.9591,-79.2563,-81.9098,-60.1999,78.2798,179.4564,-210.4575,-65.7512,-13.7031,7.0947,22.5741,51.0492,62.6904,39.1541,
-53.5416,-88.601,-91.0952,-70.6879,87.683,182.789,-211.9301,-75.9061,-26.9809,-7.431,14.4338,62.0863,73.029,50.9049,
-64.4291,-97.3849,-99.7295,-80.5466,96.522,185.9217,-213.3143,-84.5033,-39.462,-11.3796,27.6677,72.4611,82.7472,61.9506,
-74.6633,-96.91,-107.8457,-89.8138,104.8307,188.8664,-214.6154,-77.9739,-51.1943,-24.7968,11.9077,82.2134,91.8824,44.1335,
-56.0835,-76.9954,-87.275,-94.6835,112.6409,191.6344,-187.6385,-59.1955,-34.0226,-9.209,25.2932,90.0204,100.4694,48.7911,
-38.6185,-58.2756,-67.9385,-74.9025,119.9824,194.2363,-162.2802,-41.5438,-17.8813,-2.8186,9.6756,70.5192,80.3413,31.7636,
-22.2014,-40.6791,-49.7622,-56.3083,126.8835,184.7355,-138.4434,-24.9511,-2.7084,1.2425,-3.068,52.1881,61.4208,15.7578,
-10.6689,-37.7268,-32.6765,-38.8298,133.3705,169.2735,-116.0368,-9.3541,11.5541,9.4386,-1.4234,34.9568,43.6356,0.71234,
-24.1287,-49.5632,-16.6159,-22.4,113.8749,145.0171,-94.9746,-13.1383,7.4553,-0.37162,-15.438,18.7594,26.9174,-13.4304,
-36.781,-60.6894,-1.5189,-6.956,92.9424,122.2161,-75.1761,-21.1071,7.9807,-5.2149,-28.6117,3.5338,11.2024,-23.3599,
-21.4559,-48.7945,11.6909,1.7738,101.4658,100.7831,-56.5655,-5.7406,13.3407,-1.0087,-12.795,-10.7782,-3.5698,-22.9316,
-10.4388,-32.2451,9.0435,6.5325,109.4779,80.6361,-52.1822,4.829,20.3236,12.6735,2.0727,-16.9921,-17.4556,-26.4208,
-23.9124,-28.8508,7.0418,13.4381,97.0794,61.6979,-63.1513,1.1337,12.7795,5.5884,-12.1517,-22.2968,-30.5082,-32.133,
-31.7297,-22.7414,20.7193,26.7318,84.9299,46.278,-62.7763,12.2546,9.5804,-6.9095,-25.5226,-24.365,-42.7777,-18.0424,
-26.4208,-23.8093,33.5761,39.2279,92.9695,29.4013,-52.685,18.8168,19.2217,-1.1434,-34.7113,-37.0031,-54.3111,-19.3922,
-10.7356,-16.0565,45.6615,50.9742,87.8777,13.5373,-49.0375,29.8499,30.2306,13.0252,-25.3312,-48.8829,-65.1524,-25.5262,
2.0795,-14.6065,57.0218,62.0157,68.505,18.0606,-49.5006,42.1589,37.6608,21.4954,-26.2439,-60.05,-75.3433,-21.562,
1.4686,-20.0541,67.7005,72.3948,67.7922,2.8769,-60.6305,53.7294,46.5908,20.6923,-28.0746,-70.547,-84.9227,-16.863,
-7.3766,-22.7432,70.491,82.1511,77.8246,-11.3957,-71.0927,51.4955,45.7409,29.1801,-27.3633,-80.4141,-93.9273,-14.878,
-17.637,-27.2165,80.3615,91.322,59.0552,-24.8119,-80.9272,56.1896,51.7535,41.5293,-30.5862,-89.6893,-102.3917,-9.1206,
-17.0649,-27.0429,89.6398,99.9427,41.4119,-37.4232,-90.1715,66.9182,62.7483,53.1375,-31.1836,-98.4079,-110.3482,-6.1408,
-15.5544,-28.8256,98.3614,108.0462,24.8271,-49.2778,-98.8612,77.0031,73.0834,64.0493,-27.8532,-106.6035,-117.8273,-7.2317,
-22.4052,-31.9615,106.5597,115.6634,9.2375,-60.4212,-107.0296,86.4829,82.7984,74.3063,-28.1277,-114.3072,-124.8576,-4.8521,
-26.4124,-36.368,114.2662,122.8236,-5.4167,-70.8959,-103.5764,94.9406,91.9305,83.9479,-29.8456,-121.5488,-131.4662,-1.1554,
-20.4489,-36.6183,121.5102,129.5542,-19.1917,-80.7421,-83.2618,102.3795,100.5146,93.0111,-29.5145,-128.3559,-137.6782,0.37347,
-7.0601,-20.3212,128.3196,135.8809,-32.1402,-89.9976,-64.1661,110.3368,108.5837,101.5304,-28.2302,-134.7545,-143.5175,0.83767,
3.5802,-5.0019,134.7204,141.8281,-44.3118,-98.6977,-46.2162,117.8166,116.1687,109.5386,-19.2389,-140.7693,-149.0065,-6.5101,
8.7166,-11.9826,140.7372,147.4184,-55.7531,-106.8759,-29.3432,124.8476,123.2986,117.0663,-19.5439,-146.4231,-154.1661,-4.6601,
19.3828,-0.074506,146.393,152.6733,-40.7983,-114.5633,-13.4826,130.5166,130.0007,115.4684,-28.5877,-151.7377,-159.0161,5.8359,
22.5981,12.0921,151.7094,157.6129,-43.7019,-121.7895,1.4264,131.929,136.3006,118.7565,-19.575,-134.9737,-163.5752,-1.8117,
29.5129,14.7721,156.7068,162.2561,-49.35,-128.5822,15.4408,135.2026,140.8543,116.0099,-7.2111,-140.9753,-167.8606,-12.8924,
41.8421,21.6699,161.4044,166.6207,-43.47,-134.9672,28.6143,132.9286,135.322,106.1303,-11.6433,-146.6168,-171.889,-7.2539,
53.4316,32.0457,165.8201,170.7235,-26.7618,-140.9692,40.9975,125.9258,132.0676,106.5734,-10.945,-148.0526,-175.6757,-6.8185,
62.4047,41.3121,169.9709,174.5801,-11.0561,-146.611,52.6376,121.7761,123.6569,101.6388,-0.071862,-125.0694,-179.2351,-16.6258,
53.7955,33.9684,173.8727,178.2053,-12.8087,-151.9144,63.5794,121.2799,111.3726,81.4405,5.7706,-103.4653,-182.581,-21.4663,
53.0001,26.5788,177.5403,181.613,-1.824,-156.8995,73.8646,112.5435,96.4196,69.7346,5.9107,-101.1326,-185.7262,-20.6647,
63.9201,39.0841,180.9879,184.8162,12.3855,-161.5855,83.5327,96.5477,79.4452,67.9827,3.1235,-80.9647,-182.5407,-16.9923,
74.1849,50.8391,160.5479,187.8272,25.7423,-165.9904,92.6208,87.3498,60.5785,49.8037,-4.3614,-62.0068,-157.4883,-8.6753,
55.6338,37.1028,136.815,190.6576,38.2978,-159.1244,97.396,70.4328,42.8438,32.7155,-8.9646,-44.1864,-133.939,-3.2899,
38.1958,21.2545,114.5061,165.1181,50.0999,-157.3604,77.4522,52.1068,26.1732,16.6525,-5.5075,-27.4352,-111.8026,-6.0116,
21.804,22.8984,93.5358,141.111,61.1939,-141.1086,58.7051,40.7017,10.5028,1.5534,-4.2043,-11.6891,-90.9945,-6.6237,
6.3958,15.2,73.8236,118.5444,71.6223,-127.2908,41.0828,38.7462,-4.2274,-12.6398,-7.3574,3.1122,-71.4348,-2.821,
-8.088,0.18798,55.2942,97.3317,81.4249,-117.2203,24.5178,22.3214,-18.0737,-25.9814,-2.5374,17.0255,-53.0487,-7.0302,
-21.7027,-1.2912,37.8765,77.3918,90.6395,-98.025,8.9467,6.8821,-31.0893,-38.5225,-3.8448,30.104,-35.7658,-5.1488,
-34.5005,-9.9706,21.504,58.6483,99.3011,-93.1164,-5.6901,1.5874,-43.3239,-50.3112,-14.3169,42.3977,-19.5198,5.8629,
-46.5305,-17.1559,6.1137,41.0294,107.443,-77.7994,-19.4487,-5.3187,-54.8245,-61.3925,-4.701,53.9539,-4.2487,13.2952,
-57.8387,-16.1266,-8.3531,24.4676,115.0964,-64.3749,-32.3818,-12.7829,-65.635,-71.809,-4.419,64.8166,10.1063,3.7404,
-64.1562,-9.3211,-21.9519,8.8996,122.2907,-61.4851,-44.5388,2.084,-75.7969,-81.6004,-4.1538,75.0276,23.5999,10.3271,
-71.9825,-15.5734,-34.7348,-5.7344,129.0532,-65.5803,-55.9665,-1.4389,-85.3491,-90.8044,-0.012683,84.626,36.2839,16.5176,
-59.3934,-6.3683,-46.7507,-19.4903,135.41,-47.5455,-60.4756,-0.86576,-94.3282,-92.7532,14.0881,93.6484,48.2069,29.6266,
-45.1268,6.6628,-58.0457,-32.4209,141.3854,-30.5928,-45.1708,6.9705,-102.7685,-87.1871,24.9271,102.1295,59.4145,41.949,
-28.3192,20.363,-68.6629,-44.5757,147.0023,-14.6572,-31.7576,20.6523,-84.556,-67.8559,37.5315,110.1018,69.9496,53.532,
-24.666,26.9336,-78.6432,-56.0011,152.2822,0.32223,-39.0955,33.5131,-83.861,-53.0739,49.3796,117.5956,79.8526,64.4201,
-37.286,11.2176,-88.0246,-66.741,157.2452,14.4029,-50.8498,17.4023,-92.9293,-63.9895,32.3168,124.6399,89.1615,74.6549,
-49.1488,5.6709,-96.8431,-76.8366,161.9105,27.6387,-61.8988,2.2582,-101.4536,-74.2501,35.7374,131.2615,97.9118,84.2756,
-58.3787,19.4306,-105.1325,-86.3264,166.2959,40.0804,-72.2849,5.0409,-109.4663,-72.2445,47.6932,137.4858,106.1371,93.3191,
-52.4436,32.3648,-112.9246,-95.2468,170.4181,51.7756,-82.0478,13.9824,-116.9984,-55.7463,58.9316,143.3367,113.8688,101.8199,
-63.397,44.5229,-120.2491,-103.632,174.293,62.769,-63.0249,24.3324,-110.4981,-66.5016,69.4957,148.8365,121.1367,109.8107,
-73.6932,32.6333,-127.1341,-111.5141,177.9355,44.9029,-45.1434,14.1158,-93.1657,-76.6115,51.2259,154.0063,127.9685,89.1221,
-55.1716,28.7293,-116.2748,-118.9232,181.3593,28.1087,-28.3348,25.9174,-73.4757,-86.1148,34.0524,136.6864,109.2834,69.6748,
-37.7613,12.9056,-123.3983,-125.8878,184.5778,12.3222,-12.5347,18.5249,-83.1672,-95.0479,17.9092,142.1074,116.8264,51.3943,
-21.3956,26.2312,-124.7596,-132.4346,187.6031,-2.5171,2.3174,31.5134,-69.907,-93.2707,2.7347,119.4809,95.7168,34.2106,
-8.914,32.928,-103.174,-117.1663,190.4469,-16.4661,16.2783,43.7226,-54.0363,-75.9982,-11.5294,98.2121,86.5687,18.058,
-12.2715,16.8523,-111.0836,-124.2363,193.1201,-29.5781,29.4016,26.9993,-64.4168,-84.0882,-24.9376,106.4194,95.4746,2.8745,
-13.9675,17.7786,-118.5185,-130.8821,195.6329,-41.9035,41.7375,28.7929,-62.9832,-80.5016,-37.5414,114.1342,88.7814,-11.398,
-11.6699,27.9008,-97.3074,-129.8579,197.9949,-53.4892,53.3333,41.1654,-53.8536,-64.4826,-40.6737,94.1503,77.1298,-24.8141,
3.1303,29.6328,-90.9826,-124.4983,200.2152,-64.3799,64.2333,47.947,-56.9462,-60.1272,-34.8277,82.1766,86.6021,-37.4252,
1.9778,17.1518,-98.1726,-131.1284,202.3023,-74.6171,74.4793,37.2863,-63.2592,-70.6196,-39.5487,86.9758,70.7115,-49.2797,
-12.2409,9.3121,-87.4167,-118.8895,204.2642,-84.2401,84.1105,33.1036,-59.4637,-73.688,-38.1485,86.6229,52.3688,-54.1144,
-10.5417,11.1852,-86.5504,-108.352,206.1083,-93.2857,93.1639,37.4412,-47.6261,-66.8344,-24.6707,80.9386,63.3267,-52.3271,
-1.6386,8.0822,-81.8442,-108.1742,207.8418,-101.7885,96.4053,40.5462,-37.4706,-67.2021,-24.65,77.5419,55.6351,-52.5926,
-6.8922,6.1377,-70.6089,-99.2519,201.4993,-109.7812,85.2695,37.6271,-34.736,-63.6573,-24.6301,76.2949,38.197,-51.8698,
-7.9378,10.1477,-66.8587,-90.864,203.5093,-117.2943,89.3967,44.6129,-27.2999,-51.5667,-11.963,68.3117,46.1133,-43.4066,
-0.65045,11.4848,-67.7119,-86.3849,205.3988,-124.3567,84.0329,51.6659,-27.6083,-55.2838,-6.3805,58.3747,55.9955,-35.9366,
1.8209,15.1745,-69.0006,-88.4997,195.0379,-130.9953,64.891,49.0528,-34.2215,-65.1021,-19.133,68.0084,38.5357,-30.3753,
6.5763,23.9934,-51.2394,-75.4059,197.4356,-137.2356,56.1243,60.2096,-18.0683,-47.096,-27.7153,78.0279,38.161,-18.8225,
16.3979,36.6538,-34.065,-56.7816,177.8133,-143.1014,63.9462,70.697,-2.8842,-30.1702,-28.4847,62.6513,42.1956,-12.3426,
18.8196,45.6525,-21.7964,-39.2747,153.0445,-148.6153,58.6498,80.5552,11.3889,-14.26,-27.262,59.3786,28.4749,-7.2228,
8.447,39.5078,-29.732,-36.4156,157.9618,-153.7984,41.0309,88.3951,3.9183,-14.3524,-32.9233,65.0593,18.4958,-4.3571,
21.0755,44.4343,-13.8481,-20.1307,162.5841,-158.6705,24.469,97.1914,10.9811,-3.2751,-27.5428,55.8043,23.7103,-0.69063,
33.911,51.0117,0.12622,-4.8228,153.324,-163.2503,8.9009,105.4599,24.4222,10.0558,-24.4307,50.9964,9.1523,-1.136,
31.8851,51.8431,-1.8271,0.34899,148.9899,-167.5553,-5.7332,109.8518,23.9384,10.4268,-36.5868,61.5586,2.7655,3.7975,
38.7286,53.5977,12.3825,14.4281,154.1505,-171.602,2.848,114.9364,29.3132,10.774,-20.2916,43.7651,16.6996,16.2182,
50.5049,64.4818,25.7396,27.6624,159.0015,-175.4058,16.7771,122.1402,41.6544,24.2275,-4.9741,27.0392,27.8683,29.3451,
61.5746,74.7129,38.2952,40.1026,146.0725,-178.9815,29.8705,128.9118,53.2552,36.8739,9.4244,11.3168,18.8992,41.6844,
52.5448,82.4089,48.6712,51.7965,139.2536,-182.3426,20.7974,135.2771,64.1599,48.7614,0.12706,19.3697,6.089,49.4166,
43.0678,63.3644,34.562,48.722,144.9984,-185.502,9.3334,121.8342,52.0648,36.6175,-2.3129,20.6398,18.859,32.3516,
40.4845,46.9052,19.8386,42.8792,142.1447,-188.4719,0.98932,106.7401,40.1831,27.6092,-6.0663,23.2936,31.8275,25.5375,
38.5413,52.3616,29.8382,50.5227,121.4539,-191.2636,0.44359,105.6872,51.8722,40.0526,-2.2967,18.4904,18.2504,26.4376,
42.0669,59.9227,30.9668,51.383,127.7886,-193.8878,5.2819,101.2917,55.5797,29.8735,-1.186,16.408,3.0554,18.04,
53.6429,62.6518,38.3525,46.8407,134.2213,-196.3545,19.065,100.5659,53.7038,22.7298,2.2905,12.0182,16.9721,24.2558,
64.5243,65.7035,50.1513,54.7335,140.268,-177.4743,27.6594,108.6319,56.3202,33.042,15.775,-2.3248,30.0537,32.53,
46.5529,56.8964,36.9337,44.6386,145.9519,-172.664,15.2971,97.7438,42.2382,21.3294,13.8555,-1.2123,42.3505,16.4782,
29.6597,46.1852,20.6177,27.8603,134.7875,-176.4041,3.1899,77.7792,25.6039,5.9497,-0.11113,11.9957,43.718,2.8327,
25.9344,43.4141,9.6432,23.2614,134.484,-168.7472,3.9712,77.969,14.3293,-6.0912,-7.8883,19.0598,55.195,15.3117,
19.9996,33.5118,7.605,20.4061,132.7393,-148.4062,11.0304,74.7505,20.7665,-2.3206,-6.9286,17.4299,55.7833,16.8253,
14.4209,32.9602,-6.9513,5.0818,136.937,-131.2316,10.855,56.1654,14.169,-13.3703,-9.9185,19.7896,65.5716,6.5714,
16.4748,41.686,-11.4079,-1.0696,135.5319,-125.3032,15.0688,56.6793,3.5896,-26.6681,-5.4314,14.7103,75.7373,6.1781,
22.2978,43.0768,2.8983,12.6172,129.3459,-120.7037,28.2647,67.3786,2.401,-23.617,1.7055,7.0166,85.2931,18.4564,
25.338,43.8975,-3.5996,18.1838,132.7743,-105.1915,40.6688,72.1008,-5.0398,-14.9027,-0.82935,9.0282,78.7328,20.7543,
17.4928,43.6957,-3.8703,14.6606,132.1051,-108.1237,52.3287,57.5583,-1.3331,-10.6032,1.653,6.0539,80.3328,12.2113,
9.1458,38.6417,-3.1517,7.4563,128.5571,-115.7362,63.2889,50.6993,2.1525,-21.1564,1.0674,6.1771,74.0533,11.965,
4.2187,31.9449,-17.0626,-7.0911,125.2224,-118.0436,73.5916,46.1977,-12.0767,-33.987,-10.186,16.9958,72.0429,10.7608,
-0.8986,27.1095,-30.1388,-18.3495,113.8172,-119.7175,83.2761,45.3723,-21.0895,-38.767,-14.44,20.8412,75.5041,0.38532,
-8.629,24.5097,-35.6451,-17.249,106.9881,-126.6345,92.3795,44.5955,-23.7165,-41.3061,-11.6276,17.6448,68.0547,-3.5302,
-19.3006,20.6068,-39.8301,-28.3762,96.1905,-133.1364,100.9368,37.5419,-32.5092,-50.0162,-18.2274,23.8835,52.7825,1.0608,
-18.1426,29.1002,-26.7373,-26.6736,83.608,-139.2482,108.9806,42.1,-25.694,-54.7991,-15.1874,20.5041,48.6424,-3.8684,
-14.1349,35.138,-18.322,-15.3429,91.2405,-144.9933,116.5417,52.223,-14.423,-40.8081,-1.6276,6.6254,58.3728,-8.501,
-12.7999,32.5433,-23.5469,-15.8819,97.9287,-150.3937,123.6492,52.4951,-16.9627,-31.0626,-0.070369,4.7683,55.3573,-3.6121,
-11.0592,33.5095,-23.1078,-17.8482,105.6747,-155.4701,130.3303,48.3722,-23.7288,-36.9827,-7.85,12.266,50.0894,0.4965,
-1.6386,27.607,-14.9098,-23.5879,113.4342,-160.2419,136.6105,51.3078,-21.3319,-36.7097,-5.433,9.5841,52.9224,5.3309,
5.7563,22.545,-15.4752,-26.5519,106.6358,-164.7274,142.5138,49.6884,-21.512,-30.1288,-4.6207,8.5227,51.2062,6.4711,
3.4649,26.057,-25.2502,-17.1744,86.1376,-168.9438,148.063,45.7344,-19.2481,-27.3488,-10.1813,13.8492,41.3227,3.1632,
4.7171,24.9809,-29.0853,-10.792,77.0698,-162.2869,153.2792,51.261,-4.9574,-26.1933,-9.0841,12.5319,36.4115,1.5143,
1.5149,17.6441,-39.0169,-24.2445,86.5456,-160.334,158.1825,41.3742,-15.363,-38.2439,-13.4037,16.6446,40.0647,-5.3867,
-12.676,5.3961,-50.7758,-36.8898,67.2529,-161.9028,134.5915,24.7918,-28.5412,-48.1109,-21.8429,24.8894,25.4982,-16.2534,
-26.0154,0.69403,-51.1425,-48.7764,49.1177,-155.5942,125.676,14.0528,-40.9287,-48.6303,-21.9919,25.8293,9.8683,-14.7913,
-18.1469,7.9489,-45.642,-44.9028,52,-145.7726,132.2354,23.4258,-32.1654,-59.8125,-16.2941,18.9275,22.403,-18.2831,
-17.0576,6.4997,-30.2546,-39.289,62.98,-143.8369,138.4013,26.8853,-19.5329,-54.2863,-5.5866,8.0621,32.735,-18.1584,
-21.8721,4.1633,-24.5478,-29.1482,56.7769,-135.2067,142.2755,31.1096,-14.4685,-36.9291,-3.3055,5.6324,27.8518,-6.3663,
-23.4784,3.914,-33.7766,-39.0746,57.2627,-129.0403,123.0364,30.2167,-25.2767,-34.2185,-8.945,11.1323,24.2347,-8.9031,
-28.394,-1.6724,-37.1015,-40.1352,63.0704,-135.3978,123.9249,25.9714,-25.2187,-44.327,-6.9487,9.0048,19.3755,-16.6395,
-30.0964,-6.924,-33.4167,-24.5927,51.9882,-136.5259,127.6779,22.9526,-14.4631,-37.2896,-1.1803,3.113,7.9959,-8.3442,
-33.6421,-9.9132,-40.6542,-33.3324,41.5719,-133.6854,118.5585,12.333,-23.8115,-40.4037,-3.5418,10.2242,3.1383,-6.383,
-34.0559,-1.0482,-42.5937,-42.5223,48.321,-128.0966,107.0667,16.9445,-29.6798,-33.6007,-0.89699,23.7107,17.05,-8.4333,
-28.607,6.3117,-31.7679,-32.6735,55.6379,-121.8704,108.9129,30.0278,-21.5752,-26.2336,-4.2487,10.134,22.3598,-8.4137,
-12.7906,12.2573,-26.4563,-27.3075,63.489,-108.2339,114.5403,40.3964,-18.8207,-28.0652,-9.3448,9.0387,21.5041,-7.4225,
-12.0155,8.6027,-35.5719,-37.3458,60.652,-115.8399,100.8563,33.107,-29.3681,-39.0307,-15.5952,15.3075,20.2134,-12.8155,
-17.132,6.1405,-29.5457,-29.2667,59.932,-122.9895,108.905,41.8236,-18.8485,-32.796,-2.9838,2.7133,18.0279,-1.3435,
-11.2394,8.6913,-25.8274,-18.7541,57.3093,-124.3834,111.6231,41.2606,-16.7448,-24.0172,4.0064,-4.2606,9.1628,8.4673,
-8.1322,4.7647,-36.4399,-31.7289,45.6006,-127.137,91.7904,25.6496,-28.875,-33.7655,-8.3962,8.1571,-4.5223,-6.1407,
-8.6175,5.452,-34.2531,-37.6171,56.9645,-131.1841,93.094,27.0303,-27.143,-38.5502,-7.8929,16.4248,-1.3313,-19.8723,
-8.5868,9.5028,-32.6843,-39.7383,67.6467,-127.6918,90.9135,26.8676,-32.8119,-41.5892,-1.0946,1.3393,7.9915,-29.3996,
-3.2065,14.7709,-26.8317,-33.4616,67.9828,-123.9222,99.0804,30.1206,-23.0589,-30.3368,1.8898,-2.6411,-0.27227,-13.5356,
-4.4737,16.317,-22.7895,-24.1569,49.8038,-128.6495,97.5138,37.5559,-13.4056,-29.0034,-7.467,6.7608,-12.4181,-10.7694,
1.6326,21.1754,-27.26,-24.6535,48.753,-120.9305,90.6898,41.1404,-20.3846,-33.1011,-6.0458,8.3011,2.427,-16.9339,
11.2644,20.8781,-19.7865,-25.1202,58.4768,-106.8636,99.3484,40.618,-16.2428,-29.169,3.074,-3.8732,16.3814,-11.0527,
0.37241,16.2203,-24.9236,-25.0726,58.3737,-105.8033,91.4506,29.9111,-15.7542,-30.824,-0.51642,-0.23478,18.8202,-9.9027,
-10.3534,10.3815,-36.0771,-30.3798,48.0602,-111.1313,75.2601,27.1433,-20.6477,-29.9478,-3.4041,5.6163,9.9067,-10.2827,
1.944,12.6778,-19.8125,-18.8263,53.9336,-108.3553,84.8445,37.19,-8.7054,-23.2858,6.5299,-7.3688,20.9885,0.064999,
10.584,16.7823,-6.4526,-6.9937,64.7976,-99.9076,93.8538,38.8514,3.4927,-14.1048,14.8947,-15.6832,33.8292,-0.91165,
0.70596,11.3966,-16.2821,-8.0341,70.6477,-98.2919,83.8609,35.0603,-7.9063,-15.6913,8.65,-9.3912,25.9697,-10.1008,
-7.6066,3.4162,-24.5481,-13.8759,53.2739,-102.6101,65.6944,27.6056,-21.5319,-26.9119,-3.0584,2.3617,14.1958,-7.062,
-11.0421,0.29162,-17.2378,-22.7736,42.2932,-106.1837,68.5633,16.219,-15.3839,-26.27,-1.9022,10.0038,18.2087,-10.5302,
-12.8124,4.6524,-8.9061,-21.8935,40.242,-107.1102,68.8278,19.6242,-15.9199,-21.2892,-2.2744,1.1334,11.7642,-20.115,
-2.7998,16.5359,-11.7773,-10.3633,50.9633,-86.5836,66.1578,32.5467,-18.3703,-13.6871,-1.6516,0.57899,9.5993,-4.8081,
1.2597,16.5165,-22.7469,-15.5803,48.8782,-67.2886,67.053,33.5212,-14.3494,-12.8654,3.3127,-4.3209,18.7531,7.1642,
5.5619,22.8229,-17.0033,-16.1051,52.2698,-63.2351,67.4081,33.9422,-15.9207,-8.6884,0.68157,-1.6293,30.7632,-1.5363,
3.2832,19.5076,-10.1452,-20.003,57.8906,-57.4945,60.4449,30.9334,-23.7225,-9.1403,-8.1164,9.171,23.0796,-3.3892,
0.65339,16.878,-10.9956,-29.9922,53.9313,-54.5308,63.1429,23.7264,-21.8119,-9.0773,3.56,6.1889,31.9114,-0.75301,
6.9384,24.1356,-10.8227,-29.6522,61.8839,-57.5841,62.7594,21.815,-19.0445,-14.8579,5.7787,-7.3178,44.0967,-6.0603,
14.3064,25.6071,-11.1456,-25.9271,72.2708,-48.2907,56.0751,21.4803,-14.0095,-10.074,2.5133,-2.0136,55.5509,-0.83152,
8.0965,21.6374,-16.8021,-29.723,77.6729,-40.0422,41.5212,12.8935,-13.6557,-5.0917,7.714,12.2072,55.1537,-0.29479,
11.0158,26.6634,-9.4688,-29.3992,69.6075,-30.3422,48.2734,16.4987,-13.3223,-6.2458,8.7107,25.5748,53.3041,-1.7367,
14.7332,22.6308,-5.496,-17.4186,66.8901,-34.8464,54.6199,18.9134,-16.9022,-12.1958,-2.0285,31.3539,51.5649,-2.1198,
2.1739,14.4628,-10.0305,-4.6973,48.7767,-46.8556,45.5053,9.9952,-16.8603,-16.3282,-0.93361,15.3727,34.371,-6.8568,
0.097034,21.3788,-0.67206,-0.52353,31.7501,-54.2686,54.4508,14.2601,-2.2265,-9.5102,10.7982,0.35034,22.0841,-10.3373,
13.7129,26.9072,-2.5777,-7.3037,15.7451,-36.9124,52.1565,17.2969,-8.9045,-12.832,-3.9497,-1.6333,23.6777,-9.7175,
13.8634,24.3196,-15.072,-4.9195,15.2625,-20.5977,45.1356,16.2586,-16.1536,-10.1161,-8.0996,11.1137,13.5009,2.5417,
-1.0684,12.6442,-23.4111,-9.0022,0.24677,-19.8316,30.2649,9.9316,-8.8601,-15.8334,0.65706,-3.6531,-1.4091,-2.9623,
-1.4993,23.0745,-10.8166,-7.0034,8.4936,-15.2366,26.0167,14.6872,-5.8962,-16.343,0.1308,-1.0097,-15.4246,-2.2977,
12.6907,25.0956,3.9324,-1.2312,11.3896,-9.9441,38.5557,15.266,-11.8671,-14.876,-0.36342,11.213,-7.2187,4.164,
11.4514,19.2115,12.948,5.1665,14.1117,-17.6177,50.3423,8.9981,-2.8849,-18.3618,4.0367,-3.5598,7.3144,-4.3561,
10.7648,29.7351,19.9545,17.5054,19.1029,-19.4793,49.2844,20.1344,7.0189,-6.5575,6.7132,-15.03,10.7755,-7.9862,
11.5776,37.1935,31.8925,30.5551,3.8567,-20.7434,60.4273,32.0617,4.1645,7.936,2.9053,-10.7231,-3.971,-0.21002,
15.2617,35.4487,35.3305,37.9733,-3.6807,-12.2013,70.9017,26.732,5.3742,12.8194,1.2714,-8.6202,3.5562,-1.657,
21.6439,34.7813,26.8864,22.5605,10.6401,-4.1713,68.1234,21.723,8.4578,0.8613,5.5739,-12.4817,17.4428,-6.9082,
15.4797,36.5864,16.5166,24.1251,24.1017,-9.7593,56.2521,22.366,2.112,3.7288,11.0769,-17.5702,7.6477,-1.629,
9.6858,38.2827,23.309,36.7776,18.294,-8.201,66.4987,26.861,6.8504,11.2884,19.1693,-25.2731,10.1076,12.0905,
17.3753,35.4998,33.1003,41.3906,20.6019,-1.3843,76.6088,39.3494,20.5394,15.9626,20.4515,-26.189,23.6011,18.662,
20.7111,38.7208,24.7896,32.5824,33.4658,4.0503,68.6153,48.1868,20.7742,14.5185,14.8461,-20.2394,23.6532,18.0287,
5.3684,33.9653,14.0588,18.4658,37.7906,5.2669,56.2281,32.1603,13.2035,11.2151,15.4149,-20.4846,17.8562,10.6227,
-8.0976,17.8273,0.079456,3.2579,21.4232,1.5448,38.7544,20.014,7.0603,-3.5578,7.1926,-11.9581,18.2439,-4.1147,
-2.7466,15.7769,-9.6551,4.9998,24.9944,-2.4393,34.4747,21.7319,-3.0932,-17.4444,0.92312,2.8594,20.068,-8.7405,
-11.8248,10.452,-5.6693,11.0245,31.7654,-16.3929,43.5956,17.0233,-7.2859,-27.1174,4.2733,11.4535,16.432,-14.5408,
-20.3587,-2.3382,2.9406,10.849,27.4267,-25.6341,42.439,16.4879,-4.4164,-24.0307,2.5573,-3.3338,13.0129,-17.0744,
-11.8397,1.2081,-0.6414,11.6581,32.1058,-9.996,48.1633,28.6344,2.1733,-22.1025,1.9175,-2.6554,9.8002,-9.7252,
-10.643,14.2709,-4.9812,17.2824,38.4497,4.7037,54.5169,33.2401,7.394,-25.1547,6.1807,1.8822,6.7794,-3.7897,
-8.058,16.3334,-5.6551,25.9757,41.9806,10.276,59.0297,30.273,10.8423,-23.6454,9.7018,-11.8529,0.53477,1.3023,
-9.5204,2.7049,-10.1809,21.4985,33.6238,-0.070342,58.4071,24.5651,10.1922,-21.2534,7.1737,-12.115,-13.5973,-3.6409,
-13.3284,9.8396,-11.0292,17.7758,38.9039,3.3394,49.5512,25.5231,8.1206,-19.4919,3.3378,2.7119,-21.5466,-6.828,
-16.907,14.6003,-11.8275,16.2219,49.7045,17.2391,45.1181,26.4236,7.147,-21.7279,6.543,10.828,-6.1538,4.771,
-16.8653,2.0489,-12.0906,16.2223,40.8848,17.186,43.3847,23.8663,5.7454,-19.4515,11.0151,-3.9217,-6.7492,13.2423,
-12.4474,1.4396,-3.0945,18.6549,40.8641,17.6144,44.1871,21.9475,-1.8963,-8.0673,7.9219,-15.3702,-6.8307,3.2043,
0.46109,15.4533,11.1912,25.8054,52.5122,30.6576,55.6359,26.9549,-0.32387,-5.1518,8.9062,-15.9076,7.6792,1.5516,
11.6228,24.7503,14.9061,28.6354,63.4615,42.9181,50.8463,30.6887,0.18194,-7.2746,9.8309,-16.4123,21.3184,2.9185,
1.1956,9.1653,-0.088256,12.8172,60.6432,44.2511,33.6955,20.0912,-13.4507,-11.7033,-1.4615,-4.725,18.11,-9.9056,
7.4486,3.7422,-4.9557,3.2835,71.1046,45.9744,32.6384,12.561,-17.0219,-12.4602,-0.88742,2.856,9.7259,-2.0138,
21.1017,17.6176,1.179,17.1865,80.9383,56.8381,33.5988,15.6993,-9.1895,-9.7671,6.9497,-11.4154,12.0616,8.8101,
33.9356,30.6606,15.2083,30.2553,90.182,67.5278,43.2591,28.8573,5.4618,4.9189,11.3978,-24.8305,18.1485,11.2011,
45.9995,42.9209,28.3958,42.0774,98.8711,77.5761,50.3929,41.2259,19.2341,9.9834,0.98414,-31.1416,15.1132,-0.17444,
57.3395,54.4457,25.2491,32.2563,107.0388,87.0216,36.1804,32.4447,3.9801,-4.7156,-11.237,-43.3731,9.8281,-13.2998,
67.9991,65.2789,21.7887,22.537,114.7165,95.9003,20.3879,23.687,-10.3587,-18.5327,-15.4275,-54.8707,17.9954,-26.123,
78.0192,75.4622,34.5813,30.4282,121.9335,104.2462,27.4348,27.6172,-5.8457,-20.3556,-13.0432,-43.8103,16.4298,-25.0425,
87.438,85.0345,46.6065,33.4668,128.7175,112.0915,39.8887,24.987,-2.5754,-25.9458,-22.9631,-49.9392,1.344,-19.6476,
96.2917,94.0324,45.7727,43.6218,135.0945,119.466,50.1529,25.9206,-5.8264,-29.7401,-25.9636,-61.0429,-12.8366,-20.9015,
104.6142,102.4905,52.2693,55.1045,141.0888,126.398,61.2437,31.6628,-4.9904,-21.631,-16.1356,-71.4803,-15.0022,-26.9449,
112.4374,110.441,59.8366,52.78,146.7235,132.9141,71.6691,32.6817,-4.6905,-13.5225,-13.2206,-59.4238,-18.9668,-28.2469,
119.7911,117.9146,45.0561,47.1795,152.0201,139.0393,81.469,31.2072,-12.6803,-19.0359,-26.5273,-69.9584,-29.0186,-27.0385,
126.7037,124.9397,45.7587,51.6466,156.9989,137.5908,89.2545,30.7944,-5.5943,-11.5685,-22.5124,-79.8609,-22.8987,-26.8757,
133.2015,131.5433,54.2021,52.9257,161.6789,128.8485,93.1422,23.5952,3.0111,-3.5774,-7.0616,-60.9692,-16.1738,-28.6692,
139.3094,111.1102,36.85,40.9935,166.0782,110.415,76.8507,19.2603,-0.088693,-12.1203,-0.79198,-43.2111,-1.1034,-15.2724,
130.58,90.3435,20.539,24.4339,170.2135,89.6901,58.1396,13.24,-0.083371,-19.1769,-4.6364,-44.024,13.0628,-9.4914,
108.6452,70.8229,5.2067,8.8679,174.1007,70.2087,51.2376,6.6073,1.8681,-16.0799,-6.3037,-37.4906,3.5387,-5.03,
88.0265,52.4736,-9.2057,-5.7642,177.7546,51.8962,56.9204,-1.5721,-6.0279,-14.1423,-8.8446,-30.376,-7.3762,5.0021,
68.6449,35.2251,-9.659,5.7459,155.5629,43.4057,61.289,12.6223,6.9818,0.80621,4.335,-14.4535,7.1664,18.802,
50.4262,19.0116,-1.2956,15.1314,132.1292,33.9908,51.7738,17.2241,19.2124,10.0098,11.8587,0.51373,17.9339,24.9794,
33.3006,3.7709,8.9983,14.7103,110.1014,17.8513,52.0729,9.8664,22.4384,8.9233,21.3634,14.5829,9.5608,18.1291,
17.2026,-10.5553,3.1074,9.4494,89.3953,2.6802,47.489,4.8961,15.7401,11.7925,32.2437,26.868,23.0872,23.3661,
2.0704,-24.022,-11.1791,-5.2176,69.9316,-11.5806,30.5396,-9.4977,6.0387,-0.59031,24.4712,28.1746,35.802,9.3152,
-12.1538,-36.6807,-24.6083,-17.562,51.6357,-24.9857,27.7259,-20.6117,10.0556,0.90423,26.4085,33.7816,42.4271,15.0801,
-25.5246,-48.5798,-31.9055,-19.9134,34.4376,-37.5866,14.873,-19.8618,-4.6478,-5.4743,15.5806,38.079,25.7814,7.851,
-38.0931,-59.765,-27.5584,-24.0706,18.2713,-49.4314,22.2513,-19.1565,-3.8906,-5.6322,11.2402,46.0109,31.5239,-3.8094,
-49.9075,-55.7845,-26.3917,-22.1395,3.075,-44.5695,31.1324,-19.4667,5.5853,1.03,17.8637,42.7634,35.9567,4.6898,
-61.0131,-56.8153,-33.0789,-18.3788,-11.2095,-46.2736,26.8321,-13.9199,10.6017,6.3197,21.1706,46.5228,30.3943,18.5084,
-71.4523,-64.1094,-29.1482,-13.3837,-24.6369,-56.1457,30.0869,-16.0043,9.9661,8.8592,14.0616,48.5956,31.4893,17.4065,
-81.2651,-66.1007,-35.1827,-22.3104,-37.2587,-49.8578,18.5523,-23.8002,-3.2809,2.4898,11.2729,41.7884,40.3025,6.6323,
-90.4892,-64.567,-37.4505,-27.297,-49.1232,-46.3799,7.2225,-17.0216,-3.5709,0.88082,23.7309,46.5781,39.3439,1.8556,
-99.1599,-67.5041,-30.3388,-15.9289,-60.2758,-57.2193,2.8973,-16.9731,8.3191,4.7199,22.307,53.5137,33.0914,-1.1749,
-107.3103,-73.1836,-33.3831,-14.0004,-70.7592,-62.5428,4.6694,-27.6304,6.8472,6.3831,18.0504,36.2029,29.1595,4.7339,
-114.9717,-70.7386,-41.1099,-23.863,-80.6137,-58.7907,8.2807,-31.8105,-3.2934,8.9188,20.8588,25.7515,24.4912,8.3413,
-122.1734,-61.6291,-37.6701,-16.5933,-89.8769,-55.2627,14.5949,-24.064,-2.1226,7.4105,15.7158,38.3064,23.9949,8.8141,
-128.943,-59.3914,-22.275,-5.382,-98.5842,-54.3798,27.8192,-12.4035,10.1669,11.3442,10.3937,35.0433,18.1769,16.5554,
-124.2906,-50.476,-13.6411,-7.4909,-106.7692,-45.765,32.4833,-12.1457,9.0705,15.0427,11.2301,18.8407,25.3565,12.1566,
-129.4826,-50.3666,-19.6337,-20.6637,-114.463,-44.9655,17.8849,-25.5169,-5.5737,0.040164,5.6907,13.8098,29.6726,-2.6728,
-117.8222,-42.4799,-14.5633,-13.586,-121.6953,-35.457,30.4335,-28.3732,-2.8155,-5.3223,12.1608,27.0812,28.8654,0.88499,
-105.4004,-34.5796,-20.0137,-13.2567,-128.4935,-19.2296,30.0671,-23.2648,-10.9163,-6.4625,9.9716,16.7083,28.5931,2.2915,
-94.699,-29.0998,-16.3811,-17.8133,-106.6839,-5.9051,34.5873,-21.3835,-9.7759,-4.6157,5.9677,1.6058,26.3911,7.505,
-77.8272,-18.1094,-1.2982,-2.6445,-91.205,-6.0367,46.6121,-11.8289,4.9107,7.8239,10.9612,6.8524,19.4562,14.3527,
-74.6172,-17.5097,-2.6718,10.6576,-94.0033,-4.2154,55.9861,-11.6064,7.0574,8.814,17.6005,16.6574,9.0454,5.2208,
-72.5729,-21.8111,-6.8898,0.7752,-83.9853,-6.3953,45.3294,-13.3424,-1.6363,-2.9042,21.8955,8.3605,19.692,0.52835,
-60.9202,-20.9883,-5.0163,-9.4879,-72.6215,-6.4975,38.2314,-14.001,4.7866,-8.081,13.2852,0.56144,32.6105,0.98395,
-56.7795,-28.9729,-18.8154,-23.0187,-72.6429,3.1353,33.5052,-20.4584,-5.7172,-10.0289,-1.6119,2.9605,28.2296,-7.3462,
-54.3446,-20.423,-31.7864,-29.429,-54.1844,17.0472,26.6302,-20.2036,-19.4742,-13.3191,6.2601,16.8829,26.5358,1.8521,
-59.8419,-20.1708,-40.1125,-41.7633,-36.8333,11.6542,10.9324,-33.0914,-26.585,-17.3851,1.0194,29.9699,29.8088,-5.0706,
-49.4393,-19.9333,-32.8402,-41.6984,-31.687,-0.72035,18.5385,-39.3851,-18.1788,-10.5037,-6.8256,32.0803,30.9395,-12.5493,
-42.5811,-11.9262,-34.7617,-32.3854,-30.759,13.4229,29.102,-26.319,-24.8719,-13.7654,-2.5242,21.3989,29.0831,-6.9317,
-45.865,-5.3737,-30.731,-30.4427,-14.8135,26.7175,18.5988,-16.9565,-19.4872,-10.9935,9.3035,26.9256,20.5266,7.5842,
-54.7889,-10.8887,-33.7518,-37.3727,-8.5651,22.2119,11.645,-20.8038,-13.4533,-10.3339,3.8806,29.202,19.295,13.462,
-50.0415,-5.8571,-38.0514,-38.5359,-11.4567,19.4196,19.2165,-16.15,-12.1597,-6.3083,2.1877,24.0443,32.2373,2.4376,
-43.1471,-13.2895,-37.7138,-38.1693,-20.4986,25.0655,13.1989,-12.2618,-10.4565,-3.9843,15.6787,10.9259,37.1227,0.34588,
-42.0183,-20.7628,-35.9373,-32.4745,-24.6207,20.1556,-1.6931,-14.9317,-8.37,-3.2589,15.2243,2.9729,30.517,8.5953,
-42.4154,-15.6246,-31.8356,-32.4715,-20.2243,13.1088,9.103,-16.9549,-5.9223,-5.0088,0.21086,-5.9621,37.4426,1.2685,
-41.8174,-14.6876,-21.1684,-35.3884,-19.984,11.3491,18.2866,-15.9372,-9.4584,-9.5734,-6.1346,-1.7129,21.5743,-12.9076,
-32.0109,-8.4544,-16.4928,-24.0221,-12.4607,14.0732,5.0268,-15.4683,-17.162,-8.5126,1.5309,1.7954,9.0905,-11.1685,
-30.0898,-4.0557,-19.3956,-8.959,2.3869,15.1753,9.5903,-11.6205,-9.3207,1.7279,-2.4533,-12.4123,15.3557,-2.7141,
-39.4738,-6.2442,-20.6637,-4.0423,4.1987,7.9405,21.1775,-8.4905,-2.4368,1.1379,-8.6299,-11.6757,12.0025,-4.0103,
-35.1599,-1.9776,-12.6137,0.091243,4.919,8.4368,20.8796,-7.982,-0.34508,-7.687,4.5364,3.1249,6.4167,0.12127,
-18.9503,10.79,-6.9918,12.7347,18.7239,19.6064,23.5187,-2.6379,4.5408,-6.2535,11.0748,0.51361,5.0594,1.0872,
-3.7132,24.2426,-7.0586,22.1873,31.7005,31.5653,36.2076,11.6203,10.593,-11.2293,7.9785,-13.6172,7.1877,-6.2755,
10.6095,22.3097,0.6628,13.559,43.8984,31.131,48.1352,18.2287,11.4161,-24.6556,4.0938,-16.2147,2.3786,-17.0879,
20.2148,31.6737,14.723,26.8455,51.5063,41.9121,49.1556,23.9465,16.5699,-37.2762,13.5789,-10.3767,-2.6292,-1.9626,
32.1368,43.8733,27.9396,39.3348,62.516,53.4974,56.4229,36.6097,23.846,-20.9397,20.0616,-2.4567,-9.7689,12.2552,
28.7499,38.8171,24.334,44.7747,55.3676,50.782,52.5507,39.7723,19.9829,-23.5833,4.7579,5.9614,-17.4535,7.6441,
22.6462,25.2982,24.3326,32.8448,37.9455,42.3836,41.127,31.0617,15.3779,-26.547,2.0311,9.0088,-19.8113,3.7794,
22.2597,21.8344,35.5216,44.9741,41.4981,43.7325,48.3892,28.2248,17.3739,-14.2517,16.0092,6.5223,-16.6767,17.6527,
16.0594,18.5779,19.2903,32.0671,32.1971,35.2706,41.5939,15.8283,2.7093,-27.4966,6.7865,5.1582,-14.7033,19.0344,
18.5019,26.7076,4.0329,16.0431,23.9415,34.6145,36.6664,16.3391,-2.8038,-37.5306,-6.756,18.9487,-12.3616,7.6771,
21.2828,26.0769,13.0181,26.7482,34.1803,34.4831,45.1689,23.1416,5.1482,-27.495,0.46046,22.6846,-18.431,4.2964,
14.6552,15.2698,2.0209,24.6574,45.2653,32.9005,29.3235,11.537,-2.4586,-34.1159,-1.9995,7.2235,-14.8928,-2.2857,
4.5325,9.0021,-11.2357,9.0779,43.0362,34.3325,22.213,2.575,-8.6344,-38.3923,-4.3119,4.3497,-4.7558,1.2575,
3.2873,9.4352,-3.7509,2.6873,41.4268,33.2453,34.9802,8.2584,-0.33296,-27.3326,-2.1072,7.9811,-3.4972,2.1552,
8.4416,8.3823,10.5741,8.8494,53.0412,37.5743,42.6188,16.0326,6.984,-17.4229,4.3426,11.88,-8.6389,1.5382,
12.7998,14.6904,20.6508,11.2385,51.8128,46.0233,43.9541,20.909,14.3488,-2.7554,16.7314,7.2753,-12.9852,15.5459,
18.357,27.909,25.7369,22.7268,54.056,51.5326,49.5875,23.0605,11.0565,-1.1295,16.2144,-3.3774,-5.8819,28.7131,
26.0121,29.1617,26.1382,25.2551,61.5151,50.3862,60.234,20.7032,-0.30992,-12.7385,7.4577,0.71719,-9.4209,12.8994,
32.7216,20.1145,22.1371,17.4142,62.2021,48.8221,53.2139,18.9746,0.19413,-13.4333,6.5229,7.9716,-22.9556,0.93601,
36.5957,27.6643,22.7553,18.3157,66.2542,54.6498,46.1297,21.7281,0.18341,-3.8707,11.9699,2.6287,-9.9111,14.9799,
26.1302,31.3559,12.1466,12.839,63.7381,56.7223,48.7129,14.1001,-13.9276,-6.0708,5.9002,-1.9078,-4.9376,16.0356,
20.67,29.475,0.71429,1.3651,69.6441,67.419,42.8714,11.3082,-15.0469,-11.5444,-3.2109,12.3066,-11.452,19.9386,
16.998,21.3818,0.18506,-10.8789,64.9791,73.1122,33.9749,15.008,-0.044104,-10.3654,-0.58542,25.6682,-18.0624,24.0933,
9.1665,11.3418,-1.772,-16.064,46.9803,56.077,31.9364,13.1343,0.94031,-4.8783,0.42292,10.0282,-31.0786,8.5477,
11.5352,22.3376,-10.4227,-9.2623,58.2615,51.7391,35.8581,6.5083,-6.9004,-4.5861,0.39708,14.3001,-43.3139,8.5127,
13.7623,22.9428,-9.7974,-16.4904,68.8658,54.4727,30.7874,-4.5852,-13.2975,-15.9867,-1.5722,27.0634,-54.8151,13.8402,
17.3153,18.1611,3.9258,-14.0414,55.0122,58.5013,28.4538,-0.90405,-13.9592,-12.5951,1.9272,34.683,-65.6262,10.5775,
16.2769,17.071,3.6907,-11.253,46.8463,55.9644,33.5577,5.9608,-12.1484,-1.136,1.812,37.4672,-75.7886,7.9969,
8.4896,17.02,-10.6307,-20.3076,58.1355,46.7692,29.5983,-1.2075,-17.2565,-11.7703,0.73008,29.3813,-85.3413,4.5984,
2.1414,16.972,-20.2171,-22.0078,59.0342,42.0166,27.8224,-6.9729,-17.1943,-15.9293,3.605,24.6997,-94.3208,7.2412,
-0.41937,18.386,-4.9041,-9.4984,48.1952,43.8744,40.253,4.6353,-4.9737,-0.8735,12.633,19.8126,-102.7616,15.0774,
-2.827,19.7156,4.6412,-7.4694,58.4383,43.6738,33.4676,1.9235,-11,-11.0296,14.3069,19.1093,-110.6959,6.8753,
-2.1706,18.0459,-2.9343,-12.3718,69.032,46.4053,30.9732,-4.5152,-12.7724,-19.6104,11.9889,32.0627,-118.1541,-0.83425,
0.39202,14.5308,-5.1906,-13.0891,70.2502,45.0806,38.3582,2.0799,-9.5737,-6.2721,10.7827,22.8501,-125.1649,11.3775,
-0.60472,14.6321,-5.8523,-26.4038,66.0347,42.3753,21.9567,-7.7756,-23.0993,-11.7336,-0.56676,7.3791,-131.755,3.8842,
-0.56797,13.7537,-4.528,-32.1255,65.965,46.6438,18.1985,-16.0652,-19.2891,-22.7058,-1.506,-1.3424,-137.9497,-10.4489,
-2.4799,14.8745,-3.284,-16.098,58.1147,44.818,29.755,-5.3715,-8.4019,-16.4783,9.2869,0.68406,-143.7727,-4.4794,
-5.2502,16.9012,0.80494,-8.7993,51.7087,37.2638,29.9157,-1.1582,-17.6281,-7.7058,4.8378,-7.1408,-149.2463,4.5459,
-4.4488,15.4007,5.1349,-6.8122,50.0662,35.5148,35.4182,-1.5751,-18.0295,-3.8379,-7.6146,-4.2796,-154.3915,-3.997,
-1.7491,12.0439,8.2324,7.6965,58.2516,38.7354,47.3931,7.7633,-3.8119,-4.094,-0.83301,0.35549,-159.2281,-0.35168,
0.30179,9.3753,13.5763,13.0811,54.756,31.5461,55.2606,7.297,3.2274,-3.8488,11.8659,-8.4229,-163.7744,12.3184,
2.7165,12.2183,11.3026,8.8916,38.3358,19.4377,47.5672,0.53544,-2.3173,-1.1842,-2.946,-16.1877,-168.0479,1.3636,
4.0126,13.918,5.2725,3.9789,32.6301,12.9194,36.442,3.9089,-5.5838,-8.4115,-9.1025,-17.6493,-172.065,-12.8182,
11.0693,11.6229,13.2273,3.2538,39.9153,13.6038,43.4989,11.9445,3.9942,-9.366,5.5436,-15.1303,-175.8411,-11.5713,
10.4052,7.0336,3.6761,-1.807,38.4931,9.8684,42.8349,5.3895,-3.0565,-2.9666,1.3276,-10.3305,-179.3907,-9.9043,
12.7,9.5308,-9.1929,0.24784,40.0764,15.1142,38.3193,0.20148,-4.8186,5.9689,-10.4278,4.3893,-182.7272,-5.4181,
16.3159,14.3104,-8.1545,-6.0913,43.996,17.6134,25.8035,-3.2157,-8.9083,-7.5245,-15.1536,18.226,-185.8636,-1.687,
4.6339,11.5054,-9.6117,-16.4288,34.5452,10.7182,27.1745,-1.0772,-17.1304,-10.965,-12.298,10.8243,-188.8118,0.35969,
-0.99518,1.5721,-2.7103,-4.2537,25.175,-4.0249,39.644,2.3929,-2.0025,3.7929,1.5748,-3.9251,-191.5831,-0.14826,
3.4428,-1.9278,3.7761,7.1909,29.9883,0.58637,37.7594,0.78931,8.3419,9.8977,4.8858,-5.1573,-194.1881,3.2653,
-0.16929,0.62068,1.1177,0.43473,23.8116,14.6512,36.9539,1.2292,-0.42886,5.8983,-0.75835,-6.307,-196.6368,5.5021,
13.4635,11.286,5.9158,6.2475,28.2208,24.4837,48.8366,8.9398,1.5428,5.5448,5.125,-17.6048,-198.9386,-2.6114,
3.4123,8.1765,6.0467,1.4938,31.8791,14.7444,34.2392,-1.8137,-4.874,-7.9232,-7.3451,-14.1162,-172.9023,-12.6709,
2.2339,6.7132,17.3597,2.377,36.7765,26.5087,40.9415,4.1335,2.2295,-0.63672,-8.8508,0.8308,-148.4281,2.1894,
16.1998,4.3639,4.6424,3.2071,35.5426,32.7016,42.3769,7.7774,-1.7961,-0.59944,-6.3733,-5.5352,-125.4225,16.158,
29.3278,5.5617,-1.9604,-2.3359,30.9787,33.1723,34.4832,4.8784,-7.0399,-6.8868,-7.4505,-7.6354,-103.7971,4.9886,
41.6682,11.5527,3.5082,-6.575,30.5791,35.5602,29.9815,-1.739,-8.0775,-6.9609,-13.3282,3.0393,-83.4693,4.2029,
53.2681,9.8863,-1.5665,-4.2345,36.5277,27.5888,34.0204,-7.4726,-8.5652,-1.6781,-6.6906,-11.243,-64.3611,9.7886,
64.172,10.2659,8.2569,10.1196,46.9855,33.7173,46.0792,7.0758,6.0487,12.5226,7.8108,-16.9013,-46.3995,18.9306,
74.4217,0.89336,-6.3386,-1.6684,41.2472,31.6942,29.2145,-1.6104,-8.4142,0.59039,-3.8387,-1.7872,-29.5155,3.6948,
84.0564,7.164,-13.7502,-15.6683,50.934,30.279,17.245,-10.7581,-22.0093,-6.743,-9.9326,6.112,-13.6446,0.54581,
93.113,3.3286,-10.4933,-23.0075,42.5269,28.9486,25.4537,-11.5718,-14.3731,-0.98734,-2.0392,-8.3547,1.2741,1.9731,
101.6262,1.6693,-2.5658,-12.3836,34.6238,37.4283,26.3593,-2.6068,-4.2673,4.4243,3.4347,-8.3479,15.2977,9.1517,
106.7927,5.9479,-7.7633,-13.1002,42.7626,40.5341,28.1828,-0.99079,-1.5789,6.5912,2.7418,-12.2258,28.4798,11.035,
95.0341,9.9693,-11.6758,-15.7188,40.6841,40.5349,26.9787,-5.3096,-3.916,12.5204,-5.693,-15.8705,40.871,5.0218,
81.5477,4.506,-0.27273,-8.9378,26.5668,37.1291,23.414,0.84682,1.1831,17.6062,-8.2701,-2.2693,52.5188,3.7473,
74.7094,-0.62898,-6.0938,-11.3207,38.595,27.118,19.0904,1.7688,4.0313,6.8205,-2.9092,-2.1332,63.4676,-1.3422,
72.1723,8.1653,-19.8282,-24.7414,50.3793,33.2747,7.242,-10.9859,-7.8863,-5.2645,-11.4912,-11.7355,73.7596,-9.0455,
79.5177,14.4865,-21.0789,-31.5357,48.8242,45.3783,9.7262,-16.1651,-5.4667,0.88877,-17.6129,-9.0849,83.434,-1.6917,
68.9088,11.6714,-22.7329,-33.535,41.0296,30.5015,2.332,-14.2219,-12.923,-3.056,-14.6101,-17.2969,92.528,-8.4008,
50.6743,18.7549,-20.3961,-26.6583,42.4598,29.6446,-2.6726,-16.2878,-14.0931,-3.8454,-13.7335,-24.0429,101.0763,-14.7079,
41.301,16.6564,-12.3617,-19.2209,36.0207,41.966,-2.5127,-22.1212,-5.4642,3.196,-19.7201,-16.7624,109.1117,-9.9339,
36.3901,10.306,-20.8639,-16.6085,39.2105,53.548,-10.6326,-6.6939,-9.5146,3.4906,-13.1859,-1.6567,116.665,-3.9869,
20.1067,-0.042171,-33.7121,-26.3145,32.9655,64.4351,-23.6164,7.8077,-23.0437,-10.8189,-15.3134,-13.225,123.7651,-16.3957,
9.6493,7.7442,-17.5898,-10.6357,31.9603,74.669,-21.2266,21.4393,-12.4262,0.037885,-9.53,-26.0536,130.4392,-18.3311,
-0.65901,4.3604,-7.7769,1.2004,20.3134,84.2889,-25.7905,34.2529,2.4193,9.7659,-6.039,-34.2197,136.7128,-16.2585,
-0.1331,1.6669,-4.8775,12.3178,13.7435,93.3315,-14.0264,35.1497,9.0938,-0.063041,-5.1903,-34.5984,142.6101,-10.9038,
9.1178,10.8098,-3.1248,20.8217,27.0189,101.8316,-14.6444,18.9408,3.1971,-9.3022,-12.1763,-38.8472,148.1535,-16.5743,
6.6248,9.188,-3.9105,16.6537,39.4978,109.8217,-27.8657,3.7043,0.085683,0.012038,-10.4725,-42.3543,153.3643,-16.553,
6.7137,4.2585,9.459,28.7893,33.2526,117.3324,-23.2832,-10.6179,12.2427,14.1113,-5.4659,-27.6509,158.2624,-1.4598,
10.2033,2.057,22.9914,41.1619,20.5549,124.3925,-14.1019,-24.0809,25.1308,22.0302,-3.192,-24.0459,162.8667,12.7278,
4.2391,-2.4447,30.3766,42.5922,11.0505,131.0289,-19.5809,-36.736,20.2164,24.113,-0.56767,-36.7031,159.4189,5.1696,
5.4439,2.0803,33.906,47.3342,10.8739,137.2672,-28.6227,-48.6319,18.5171,10.5041,-2.9664,-34.0231,156.1776,10.2105,
11.9288,0.98222,40.6287,47.4138,13.1411,143.1312,-13.2832,-59.8139,30.055,1.1178,-4.7344,-27.1166,154.5912,10.5711,
12.6722,2.3833,46.4612,54.7846,11.8653,148.6433,1.6138,-70.3251,24.8462,15.1507,-2.9912,-28.8952,141.9102,3.613,
11.9119,5.1595,42.7008,65.5976,7.2619,153.8247,4.4447,-80.2056,13.6261,28.3417,-7.6764,-23.2695,129.5037,2.4235,
10.7112,4.3631,36.7327,73.3465,-4.3632,158.6952,11.475,-86.6573,25.9438,18.873,-4.7835,-18.4678,130.0041,3.7368,
2.7702,4.5877,31.1232,71.3776,-18.2014,163.2735,20.0295,-84.8639,25.8463,19.1998,-4.9828,-26.6036,122.6902,2.0525,
-2.2598,5.2852,34.1214,71.9605,-24.9017,167.5771,32.9277,-70.0418,16.5117,26.8053,-8.5758,-22.0878,108.5177,3.8758,
-7.963,-0.86981,38.8847,69.5888,-33.1374,171.6225,35.3394,-65.8393,17.467,22.2783,-5.1425,-6.6625,97.142,1.6973,
-19.6473,-13.953,22.4517,51.3135,-29.6896,175.4251,19.119,-75.0243,13.0134,6.8416,-9.2123,-8.2002,105.4135,-0.83644,
-32.5685,-27.2158,7.0046,34.1347,-20.6107,178.9996,3.8719,-76.8471,-1.8674,-7.6689,-22.7595,-21.8082,113.1887,-9.0569,
-31.5957,-22.6718,2.6753,19.421,-14.5094,182.3596,17.2446,-60.5605,-12.466,-6.2522,-19.4561,-27.3193,107.3868,-10.4595,
-28.7272,-25.2034,4.4612,17.2821,-10.7201,175.0057,22.0478,-53.0349,-11.7189,-3.9316,-18.2887,-18.8691,100.9435,-7.8864,
-32.3546,-37.7912,-9.9065,2.1451,-1.8067,150.4054,8.5624,-57.1503,-15.3941,-17.7957,-31.2914,-31.8369,108.9869,-16.6562,
-28.4674,-40.3974,-19.0505,-5.7755,0.24764,127.2811,-1.6812,-52.7481,-20.3083,-21.6016,-23.5846,-28.962,116.5477,-22.4674,
-37.9487,-40.4054,-15.4746,-12.7264,-13.8672,105.5442,-9.8505,-55.9074,-27.36,-22.7374,-16.8176,-13.1243,111.5179,-26.4714,
-41.0228,-33.6028,-19.8972,-21.2058,-13.5292,85.1116,-2.9348,-49.1474,-27.1776,-21.8595,-21.1605,-4.0581,106.286,-17.5856,
-39.0483,-27.2088,-26.974,-25.285,-22.9345,65.9049,7.4575,-39.8748,-26.0338,-19.0884,-20.3777,-1.3823,94.5573,-8.2598,
-41.5705,-34.3333,-28.2752,-28.633,-18.6388,47.8506,2.1449,-35.5364,-29.3369,-17.9435,-17.2091,3.5658,84.9915,-16.5213,
-40.5359,-35.6784,-30.9566,-33.2393,-3.4205,30.8795,-5.2808,-33.8901,-33.9009,-20.272,-27.3654,9.6761,93.992,-26.7189,
-24.0037,-19.4377,-14.9992,-17.1449,10.8847,14.9268,9.1361,-17.7567,-17.7668,-4.9557,-11.6235,15.4193,102.4525,-11.0158,
-23.5277,-9.5063,0.00079057,-2.0162,22.8968,-0.068837,22.6879,-2.5913,-2.6008,7.025,3.1739,0.87291,110.4053,3.7452,
-31.3595,-13.3147,-3.8755,-3.825,27.8472,-14.1647,26.2079,11.6642,0.49103,4.1712,14.6759,6.172,114.5087,13.2664,
-35.8022,-12.029,-8.0208,-3.1087,31.5279,-27.4148,35.8248,14.881,-0.99802,9.2734,3.5791,16.0179,114.9361,9.0654,
-24.8974,-1.577,6.5605,9.7263,27.6907,-39.8699,42.4319,28.0881,7.8184,9.6897,8.2291,10.1921,118.743,-1.2088,
-24.8632,-2.9419,11.0396,6.7104,20.6769,-51.5777,38.4264,40.5028,11.7281,4.7296,16.006,1.3099,113.0771,-12.3252,
-35.5335,-16.8654,-3.7228,-7.7922,10.1933,-62.5831,22.0208,24.4676,-3.0756,2.013,7.7482,8.5288,92.1924,-8.1801,
-32.4283,-21.699,-17.5994,-21.4247,3.7447,-72.9281,6.5996,13.2697,-16.9911,-2.972,-6.3384,21.6388,74.978,0.094965,
-18.8068,-6.2971,-7.3162,-10.9119,7.4111,-82.6524,20.3036,26.5736,-5.7716,5.9629,-4.0126,18.395,83.1278,9.8186,
-25.9486,3.8177,-3.4717,-1.0143,-4.223,-91.7933,33.1854,39.0791,8.6747,9.9834,5.472,8.0474,84.4639,12.635,
-34.1215,-10.5113,-7.1548,-3.8721,-18.0696,-100.3857,45.2943,33.3455,9.1351,13.2768,11.9543,0.75392,71.6127,9.931,
-22.3444,-9.4019,0.085086,8.0364,-16.5067,-108.4625,48.9099,31.3448,12.4793,25.1292,5.3992,6.5466,59.5317,8.3619,
-25.3825,-7.3782,0.56682,10.9593,-1.4163,-116.0548,38.6778,33.8424,11.2437,16.3235,-1.249,12.478,55.4738,4.4551,
-34.5626,-16.6658,-1.4136,-2.3477,-1.3232,-123.1915,38.3027,36.6765,6.6772,7.5602,7.5825,2.9728,47.2798,-2.6233,
-21.2994,-6.4219,-0.84242,0.22599,-4.6494,-129.9,44.2752,41.7734,7.7366,13.4313,14.425,-4.5031,30.343,0.93965,
-9.8058,0.28717,-4.1974,3.618,9.7296,-136.206,44.0505,39.7533,6.7851,9.219,9.1812,0.1454,14.4224,10.1262,
-23.3174,-4.5952,-7.838,-10.6991,12.0731,-142.1336,27.7862,26.6656,-7.722,-3.9822,2.7925,5.9746,11.595,-0.21114,
-33.1154,-1.4008,-13.2056,-19.3087,3.5644,-146.4538,21.2539,18.2541,-18.4566,-3.7437,0.67896,7.562,24.9993,-6.0363,
-23.831,2.0897,-6.0885,-6.9608,17.4505,-141.0717,34.0787,14.727,-4.2134,-1.0863,4.0438,3.7028,37.5993,6.4889,
-15.5896,8.775,4.0066,7.5569,30.5035,-130.6614,46.134,22.6004,9.6611,1.8976,5.7471,1.5346,49.4433,9.991,
-8.8173,12.1399,2.793,6.6247,23.3393,-114.0652,39.0043,25.1359,6.1627,11.5135,2.4836,4.3613,60.5767,-0.33825,
5.8118,14.8171,11.8693,6.7145,22.4254,-103.8157,48.8266,21.1954,7.2521,14.2283,4.7664,1.6677,58.9214,0.16842,
13.7423,22.1987,17.4814,8.744,31.296,-101.9651,59.997,18.4645,12.1685,6.0776,5.94,-8.6485,44.1963,9.4017,
5.1339,25.7315,6.7022,0.43552,26.4991,-98.7663,56.4053,20.2754,10.4656,10.5776,7.53,-9.1033,40.5717,4.9457,
5.7982,24.1881,-7.3216,-6.4022,21.0168,-88.9484,38.921,10.3023,-3.784,7.0242,7.0778,-0.77277,52.2374,-7.0272,
12.7482,23.2227,-4.449,-12.3423,24.1345,-79.2328,36.5772,1.4134,-5.0166,-5.5598,6.1672,-5.1052,57.8683,-10.0107,
11.4965,22.3162,-0.77702,-15.0068,22.2005,-74.9656,36.8153,4.7346,-0.33683,2.0717,5.3103,-0.4201,42.2336,-6.9777,
-3.2933,6.8772,-14.8304,-25.2958,6.7685,-84.5677,20.5064,-4.7933,-14.4166,-4.3773,-6.1977,11.7672,25.5996,-14.8293,
-11.374,-0.841,-14.436,-18.4266,-7.7376,-84.8532,21.6998,-2.0734,-10.1551,-10.4389,1.4712,3.7642,19.6773,-11.5072,
-11.1779,6.5069,-3.3532,-6.1316,-3.8845,-73.4378,34.4978,7.2949,-2.2483,-2.5151,7.7076,-2.7864,32.5966,-3.5193,
-14.886,3.6842,-10.449,-18.899,-9.0029,-63.68,18.328,3.4512,-16.2134,6.8783,-1.0255,5.6515,39.8928,-7.6869,
-11.0732,-2.3748,-18.5791,-29.4413,-15.2733,-62.7779,14.3096,-4.5392,-21.0866,-0.34506,-4.8554,9.2039,23.3992,-10.1444,
-14.7881,-2.7186,-25.7346,-25.242,-4.1412,-67.2815,17.8298,-11.5644,-19.335,-12.4865,-4.0777,8.1653,33.6629,-11.9685,
-21.1978,0.84956,-25.6501,-23.2407,1.4587,-59.839,10.4357,-5.519,-16.7153,-4.4394,2.4912,1.3511,45.7432,-11.7363,
-14.088,5.6637,-15.354,-18.9275,-1.5475,-46.5193,13.701,4.5419,-17.6584,4.5831,4.2877,-0.67594,43.0062,-4.2215,
-22.4862,-6.8387,-20.757,-28.008,-14.59,-52.9711,22.1224,-6.9204,-11.2474,-2.9889,-2.2938,5.6889,32.1561,-13.2116,
-29.4067,-13.7254,-26.8095,-37.5174,-16.1469,-55.1444,12.5248,-17.6941,-4.2483,-13.0257,-11.3996,14.591,31.6863,-14.8513,
-20.3458,0.23302,-22.7682,-37.6992,-1.0781,-37.7357,-1.362,-13.2269,-18.0934,-16.6234,-11.202,14.2019,31.2442,0.1398,
-23.9897,-1.7265,-20.4293,-38.3554,7.7517,-21.3716,11.3687,-7.5686,-30.6376,-10.7604,-5.6652,13.3498,31.3151,14.2314,
-33.2529,-11.3527,-21.1495,-32.1627,-6.8134,-29.3161,20.4164,-9.0605,-14.6993,-9.1416,-8.244,10.6028,24.572,0.25837,
-17.1577,3.4285,-13.5563,-16.1329,7.6954,-24.152,25.5156,5.5832,-3.1067,-2.2688,-1.4251,3.6424,31.3674,-5.1086,
-11.7419,15.393,-12.2566,-12.724,16.963,-11.5135,27.3902,15.4729,-9.2441,5.1648,5.9578,-3.8736,36.7828,4.4418,
-19.308,6.1988,-6.1697,-13.4202,2.8099,-17.147,21.3681,4.3283,-9.1763,4.3681,4.1408,-2.1816,32.1435,-7.9873,
-20.096,4.8541,2.9571,-11.6422,7.506,-22.9292,24.9507,6.0141,-4.7338,-2.7051,2.9196,-1.078,16.1149,-13.3464,
-11.5918,16.725,3.267,-6.5645,12.4076,-20.0934,29.7788,15.8699,0.90219,2.8092,7.1227,-5.3916,6.3829,-0.38259,
-14.3023,13.2891,-0.33504,-12.4958,-2.4369,-21.3206,16.8022,6.6471,-5.4771,8.9649,4.263,-2.6357,20.0999,4.0182,
-27.5442,1.7888,-7.126,-22.449,-16.3907,-19.0686,14.8209,0.40989,-14.8788,-1.3033,-7.6685,9.1982,32.9939,-3.034,
-24.9264,11.8981,-9.1303,-19.6421,-10.5592,-3.8245,13.4457,8.6564,-6.6876,-7.5489,-9.6412,11.0791,21.3007,-6.2566,
-20.9985,11.6701,-7.1229,-21.8695,-5.5469,6.6297,4.3683,0.83912,1.0106,-4.6636,-0.79207,2.1436,16.6175,-12.2064,
-33.8386,-0.21902,-14.9662,-26.8807,-19.3141,-3.0111,3.6198,-8.4537,-9.2662,-5.8434,0.71504,7.3665,21.9447,-13.9054,
-35.2219,7.0916,-7.7435,-11.1679,-22.5416,2.5211,17.5026,6.1535,-2.3855,-1.1145,2.1313,21.0245,21.1144,1.0289,
-30.6763,5.2065,2.9372,-4.1659,-20.7032,-2.9821,15.9742,17.9545,5.0546,-1.5345,-0.42895,15.3929,8.6586,-2.4302,
-32.7276,7.8133,-4.0492,-4.8878,-11.6762,-5.7214,6.2592,9.0934,-6.9244,-2.4151,3.4887,8.6319,18.8421,-4.2299,
-37.0887,14.642,-9.1582,-0.21714,-11.463,-1.0003,16.0998,15.8453,-6.9953,1.1353,7.6577,22.214,25.9818,10.1239,
-30.4846,17.1685,5.4913,13.8959,-3.4782,-0.45393,29.2338,28.9945,7.5244,12.2561,17.4144,6.7811,26.8552,22.6594,
-18.4389,20.5167,19.2618,27.1621,10.8305,10.7627,41.5798,40.3978,21.1729,25.6207,23.667,-3.8428,31.5686,29.5701,
-22.1981,9.5564,17.1491,25.5491,0.45989,5.2523,42.0203,33.1093,16.0273,27.0112,9.5985,-0.6931,15.5745,24.8767,
-16.4875,18.2255,19.5252,28.3939,1.891,4.4503,46.7961,38.4197,19.4435,23.931,3.6711,-8.9222,0.54005,13.1679,
-22.3089,24.9163,17.3814,25.718,10.5345,9.0484,44.9616,30.2767,14.3854,19.5764,1.5048,-22.4869,-0.96858,5.5672,
-27.295,16.1238,11.9603,20.7694,9.4161,10.9378,51.5073,21.1635,12.0622,25.6993,0.92817,-29.9023,-0.42409,15.4489,
-23.7109,9.319,14.1618,21.4697,4.9592,5.4169,52.3092,30.5967,20.096,29.9947,3.7916,-20.3243,1.5478,15.4956,
-23.2615,8.7594,16.2308,21.1538,-3.1217,3.1455,49.1702,33.6251,23.7545,28.1955,6.4829,-12.2943,-12.1677,4.8361,
-19.9198,11.1534,10.3918,20.8577,0.95704,10.741,42.3281,21.8778,16.4913,23.5842,1.2288,-4.745,-24.0866,12.3293,
-12.8868,5.6191,5.8769,13.7684,12.5758,5.2319,34.9237,12.7818,7.7185,19.2504,-3.7092,-10.2982,-13.8835,9.6436,
-13.0863,6.2547,14.2808,14.8887,10.8476,1.9988,33.8011,14.9331,8.2281,19.0681,-0.56838,-0.92375,-5.2675,-4.5563,
-20.0859,5.8794,6.6129,13.0217,-3.9032,3.8244,28.8543,11.118,1.8961,13.0594,-5.3989,7.8883,-19.0515,-0.39192,
-11.0964,9.4181,3.2974,13.2136,-3.1908,1.649,37.8256,23.0999,8.5939,17.1409,2.7084,-2.3148,-24.2412,13.7316,
-9.9438,6.4207,4.5592,10.9612,-1.5397,-7.6934,37.9884,27.0654,1.754,15.6256,4.0055,-1.6891,-18.408,4.1597,
-14.6992,1.6572,11.5831,7.8717,-10.6903,-5.7722,35.2232,13.2793,-7.5951,12.2562,-3.5323,4.736,-26.5465,-9.2248,
-5.5465,10.8012,18.1851,15.6691,3.0865,4.7908,45.2719,17.8341,1.1312,19.7906,-6.7255,-9.6481,-35.1698,5.4287,
-5.7001,13.5586,2.994,11.3244,7.2796,4.9901,34.2854,19.1968,-4.2877,11.3066,-13.6194,-23.1692,-40.3571,-2.1864,
0.47977,9.8264,-6.924,4.8061,-0.94151,8.5822,34.1742,15.1254,3.753,7.7086,-4.0452,-7.6791,-26.2604,-10.8123,
-2.9546,3.8858,6.6272,1.1131,-2.3441,8.5541,31.6374,6.9213,4.0142,2.8678,-4.2889,6.3953,-10.5848,-8.7035,
-2.2909,10.9492,19.3645,14.1812,11.8965,18.257,34.1174,17.6945,6.2061,8.0468,-4.5179,1.6333,2.221,0.088942,
-3.6126,2.022,5.0677,9.9248,13.6231,10.8374,37.4219,19.0656,6.3201,7.0776,-0.84129,0.076157,-12.0123,-4.2947,
-6.315,-3.9367,-9.3363,-1.3737,13.7794,4.3492,28.3655,8.1923,1.0762,2.761,10.8849,8.8282,1.3494,-5.9834,
-8.3689,-0.29498,-9.7574,0.16876,21.2229,10.4125,29.0959,5.268,3.4435,6.9736,13.6374,6.8394,5.6467,-4.1653,
-8.3527,0.20863,-2.8478,10.3748,11.6788,6.3822,39.5127,8.357,8.5884,14.8259,-1.2808,-5.7336,-8.7921,-2.4558,
-8.3383,2.6284,2.6746,17.0493,2.7074,-7.1365,42.493,13.2071,11.4782,19.2879,-0.72618,-0.038074,-22.3646,3.0431,
-14.1628,-1.9076,1.0541,3.8642,-1.8333,-9.1406,34.5919,9.9819,-3.3105,6.9412,-0.19623,4.3425,-32.2292,-3.4642,
-3.5823,11.8286,-2.9006,2.6592,9.9529,5.5078,33.4896,16.1945,-9.9301,6.5252,-8.9415,5.0552,-33.2142,-2.2832,
-7.2597,12.0921,-15.3755,-0.41909,-4.7443,19.2773,29.5338,14.2496,-2.5237,6.1332,-18.1348,3.7786,-36.0864,-2.1467,
-19.4731,5.5287,-16.399,-2.3399,-18.5596,32.2207,25.8158,12.4214,2.4919,7.7112,-12.1816,14.2545,-32.948,3.82,
-15.3855,8.1162,-12.4959,-5.1187,-31.546,44.3874,17.4563,17.5145,-5.4405,4.3293,-6.586,26.0486,-33.8903,15.2675,
-11.0569,8.1156,-3.4759,-0.43327,-43.7533,55.8242,18.8417,22.7883,-3.6549,3.5832,-3.7581,26.9176,-41.0999,22.6217,
-24.0156,3.7367,-5.2128,8.3502,-55.2281,66.5747,18.6839,23.3665,4.3482,6.2874,-6.4518,24.3298,-44.4722,15.427,
-29.3853,4.4857,-19.0001,2.9841,-66.0144,65.063,21.4548,18.0731,-3.6961,5.9097,-11.9025,32.5998,-46.6681,11.5817,
-14.0005,7.1353,-24.1933,-2.0601,-50.9141,62.1324,24.0594,16.0155,-11.2586,2.6364,-9.2424,44.7438,-47.7604,24.5085,
-4.4039,6.7072,-10.0932,-0.96373,-47.8592,67.1611,18.724,23.8111,-8.6376,1.5055,-0.90404,35.7425,-38.0837,26.9299,
-17.2745,7.7639,-3.1629,-1.3923,-55.2043,57.7794,15.1682,23.8416,-2.7674,0.92876,-4.2553,19.498,-41.1506,11.2141,
-21.5896,8.7576,-8.3246,6.9619,-47.5133,44.0965,17.6636,18.0333,-7.9528,-0.58655,-13.2434,21.7256,-52.7816,-3.5587,
-14.4563,0.44878,-9.7711,7.5174,-34.9327,44.3703,30.7038,24.7347,-9.4216,4.3138,-10.5029,34.522,-47.6768,10.2599,
-15.5349,-5.416,-12.1036,-6.5553,-38.6746,48.5187,24.4914,19.3591,-11.775,7.9464,-7.9267,46.5507,-36.0592,8.672,
-15.0887,7.0706,-9.9178,-8.5943,-31.0026,45.1208,8.9219,6.035,-17.3928,0.17261,-8.9098,35.5041,-42.1654,-4.0109,
-11.751,7.1332,-4.9439,-6.6191,-15.0425,37.063,16.6492,4.2142,-9.0522,-0.32458,-5.9429,19.2739,-41.095,-6.2026,
-7.6409,4.2729,-5.1341,-3.7905,-0.039931,36.2978,23.92,9.3119,-3.1576,2.1272,-5.1004,32.2174,-37.1707,0.49382,
-2.8042,14.2331,-3.366,4.708,-2.4532,43.3639,22.9716,11.186,-1.5081,0.54047,-6.2535,44.3844,-49.0404,11.6536,
-8.4733,10.46,-6.0833,0.53362,-9.1171,35.8964,21.5929,8.5684,6.3653,5.3727,-1.9864,27.6213,-60.198,9.9816,
-12.3437,-2.3302,-12.0425,-7.7691,-4.1918,24.5001,14.9462,2.7038,4.5247,6.5099,0.56515,14.2887,-46.8725,-2.7799,
-9.6571,-0.24444,-5.483,-5.357,6.7622,20.1105,19.8873,3.5138,-0.61187,5.1461,2.4772,27.5314,-46.0061,-3.5863,
-21.2398,4.1485,-16.3434,-13.3058,3.9246,8.6872,12.3694,-2.0481,-6.8999,-0.51368,2.8149,12.2654,-57.3457,-6.7767,
-21.9123,8.7647,-21.2007,-17.3725,4.6614,14.0039,10.654,1.9663,-6.4863,-2.4288,4.592,-2.5705,-68.005,-2.4777,
-9.4073,12.6171,-5.8286,-2.2302,7.7873,27.2636,24.1148,15.9483,2.174,1.1225,0.91094,11.6837,-72.6979,10.8059,
-5.4373,15.2657,3.7735,4.236,11.6993,32.9338,29.9739,19.3783,9.341,1.5415,-0.60284,16.8206,-82.4361,6.7529,
-9.9766,11.4306,-10.5529,-1.8556,10.9964,17.3356,25.2563,16.2691,5.8614,-2.4429,4.298,1.7114,-89.1742,-6.3017,
-4.5124,12.6911,-2.6308,2.1476,14.2295,14.35,27.6333,21.1313,-6.1661,-8.1338,-0.82455,-10.5611,-80.9046,-10.7883,
5.9749,20.1999,9.6892,10.289,24.5651,27.589,32.3,19.3771,-3.3633,-1.322,-0.2887,4.1726,-73.6175,-11.6001,
-2.6542,10.7172,1.8108,1.401,16.766,21.5635,26.956,6.0519,-2.6756,2.1624,0.21546,2.4703,-71.6337,-18.202,
-4.4414,13.9661,-2.1907,-2.575,18.6792,11.5131,23.3927,11.5271,-1.5423,4.9519,-3.6903,12.0514,-61.4973,-5.4342,
-7.5805,14.5882,-14.2204,-9.717,21.9367,5.4712,21.5028,12.2946,-3.8816,3.1956,-2.0088,23.4914,-66.0777,-2.6753,
-17.3418,5.4422,-20.6651,-9.6208,10.4044,-1.1822,20.699,5.2327,-14.8386,4.4635,0.54402,22.5687,-68.4373,-11.7582,
-19.7064,-0.23582,-16.0192,-3.6921,-2.3816,-0.62444,17.9979,10.2702,-17.3534,4.6825,-6.7856,17.8095,-50.2311,-4.7285,
-11.7138,-0.22167,-13.1126,-7.3634,8.4634,4.2777,23.7282,9.654,-3.6637,3.4279,-6.3794,10.9017,-33.1172,5.2846,
-7.6059,6.1159,-20.5965,-11.2994,22.0556,10.3453,22.7913,2.7505,-1.0115,2.7354,4.2204,24.3476,-17.0302,5.4543,
-18.3385,4.2893,-17.9011,-15.0002,33.8757,2.4276,19.9647,4.0451,-9.2206,-0.83383,5.4268,22.4089,-18.9033,3.6675,
-17.2382,2.0865,-2.7271,-8.2619,22.1138,0.33595,32.8669,9.6398,-3.8027,-1.7565,3.1548,6.9644,-23.6065,-3.3627,
-2.1039,2.934,-4.0149,0.01768,28.5708,12.9648,37.2272,3.224,-2.6018,0.29434,2.9655,-7.5535,-8.0901,-8.9993,
-6.3474,1.7853,-15.4498,-7.7672,40.9566,15.1051,27.2097,-3.7806,-2.4456,-2.6425,2.7876,-6.1437,6.4953,-0.6755,
-19.1019,5.0832,-15.9824,-18.491,52.1295,8.8473,18.2797,-0.14865,-2.7857,-13.6729,2.1344,5.4138,-7.0136,-5.0137,
-17.4694,8.1838,-16.4826,-22.7326,46.5689,15.6139,21.5612,0.34665,-7.9696,-14.3125,4.4382,-9.011,-12.9175,-18.8129,
-8.6379,11.5842,-13.5477,-16.5035,41.8288,28.7771,21.2407,0.32631,-10.4102,-4.6967,2.226,-13.3431,1.9576,-12.8276,
-7.1459,16.7275,-10.7884,-4.8103,39.3191,40.1944,17.0476,11.9825,-9.7856,-0.52209,-7.6369,1.5575,2.3355,2.0421,
-10.1232,13.2915,-12.5743,-4.0358,27.7165,23.6827,24.2949,16.615,-6.7661,1.9416,-4.7464,-4.3653,-11.9046,13.6043,
-6.1102,15.8996,-14.2517,-9.1447,34.3237,21.7673,20.4049,6.3752,-6.8465,2.3115,7.7005,-0.69783,-3.901,-0.34772,
-7.69,16.8911,-12.4239,-12.4888,40.0481,30.1906,16.261,6.9645,-5.463,-1.7201,3.3466,13.444,-2.6951,4.5378,
-14.5256,15.3917,-12.1653,2.3605,31.321,20.1094,28.4211,20.6466,0.21632,0.81639,-4.1512,15.5647,-16.6334,5.7261,
-20.9511,13.9814,-14.8405,4.6602,29.9286,4.8028,26.2295,16.9845,-5.1482,0.28056,-5.3617,2.4682,-11.2638,-5.8074,
-20.1809,10.7102,-9.5713,-9.7194,25.7005,1.1006,21.2502,12.5604,-2.4069,1.7233,1.2842,-0.11224,-15.9395,-3.0266,
-20.4296,8.608,-9.4838,-3.7928,13.9414,-5.2897,19.4883,21.0492,-5.6676,3.0795,-6.0908,-6.4307,-29.0831,-6.251,
-25.0408,8.0919,-10.8608,10.5347,10.1862,-17.6213,19.2927,18.814,-14.0846,4.8407,-12.5359,-19.6656,-23.4547,-19.9759,
-19.6469,1.7685,-5.344,8.4512,-0.15476,-24.3479,25.919,15.7392,-4.4825,4.5507,-9.8378,-32.5857,-30.8045,-28.028,
-21.3877,-11.9602,-3.0783,5.0254,-14.2455,-26.7794,25.3361,11.8752,0.65068,0.38529,-13.1399,-33.0719,-43.0562,-28.2932,
-29.3469,-13.6745,1.4856,11.0486,-10.4797,-22.7394,21.3841,8.7308,-5.7122,0.84855,-11.8642,-16.9876,-54.5729,-26.1083,
-28.5593,1.246,-1.5227,5.521,4.2491,-16.5103,12.3172,12.0989,-11.2068,-4.067,-11.1524,-3.3113,-51.8015,-14.8115,
-18.576,7.9904,-3.8637,1.7837,17.6235,-12.1146,15.956,18.67,-7.1293,-1.3907,-7.0782,-3.5994,-49.1803,-4.6803,
-13.5691,-6.589,-5.5778,3.6227,13.6474,-14.3069,19.8638,14.6311,-0.86371,0.63872,1.1299,-4.3567,-48.1754,-9.2646,
-12.7545,-6.6886,-8.1619,7.2977,26.4503,-3.7182,17.6992,9.8617,-5.677,-2.3183,0.089824,-7.0131,-36.5278,1.022,
-14.422,1.9829,-8.1585,6.3725,20.485,-0.089603,24.9074,10.7292,-5.8228,3.1718,-8.1858,-20.6923,-48.4362,3.3925,
-14.5299,-3.9739,-1.8311,16.6936,5.1559,-6.8953,37.513,17.8688,8.6266,17.0815,-4.7759,-30.1628,-57.2143,-9.46,
-12.6849,-13.4653,-2.6945,27.3673,0.45966,-12.3195,45.4869,18.7426,20.2797,9.7405,4.2677,-21.5424,-41.1325,-9.8656,
-3.1667,-5.8463,-2.5328,22.807,14.5321,-8.6611,43.7309,17.6181,13.2246,0.39945,4.9844,-31.9247,-39.6373,-3.4353,
6.2662,2.7743,-6.7596,13.1679,22.4258,-2.7904,33.8092,16.0741,8.0523,1.8351,-5.5309,-44.1092,-43.5838,-12.4726,
1.9983,-5.1756,-1.4889,11.4047,16.2151,-6.5145,40.5377,13.1647,10.4888,3.6709,-3.2531,-55.5626,-41.9415,-14.643,
-3.9594,-7.7842,6.3843,10.7204,14.2694,-14.8806,43.9433,2.6445,5.9676,6.3689,-0.13963,-38.1374,-36.5063,-7.927,
0.1705,-8.2904,-3.7286,0.34735,25.0886,-16.907,27.2067,-4.3248,-7.0394,-1.7966,-12.7793,-40.7143,-26.5321,-16.2084,
2.5921,-3.4147,-3.0185,6.6503,14.3403,-9.5683,33.3496,8.0968,4.5723,-1.2024,-15.4181,-32.9204,-33.2108,-14.7495,
-11.6634,-4.6689,1.5409,-0.072504,-0.62013,-23.0942,22.1056,4.2055,4.7843,1.3025,-14.9794,-16.8452,-45.3182,-15.3237,
-11.458,-10.713,-1.9566,-14.1682,-7.8885,-35.8086,13.4823,-6.263,-0.8533,5.6031,-9.7018,-1.7345,-43.0931,-15.8629,
3.3294,-5.6919,-5.2448,-8.9479,6.6848,-31.2439,26.7734,-5.4009,-1.2894,3.8069,-3.7687,-11.8295,-26.4075,-13.452,
17.2297,8.7496,5.2866,-0.14078,20.3837,-34.7208,36.3644,-1.6713,-4.6176,-7.6109,-1.1098,-21.3363,-10.723,-15.0777,
22.0499,16.9893,16.6447,-3.051,33.2607,-46.7375,40.9932,-2.5442,0.5246,-6.181,5.7674,-25.894,-16.8746,-14.1735,
34.8269,14.5108,15.1596,8.3205,45.3651,-58.0333,47.7766,-13.5809,1.9523,-1.4319,9.7997,-38.4404,-1.7621,-17.7014,
45.3949,6.8295,14.2505,7.8226,56.7432,-68.6513,44.9109,-20.5495,-0.10992,1.5737,2.4011,-50.234,12.4436,-24.4227,
33.4282,5.9334,16.8001,-5.7825,67.4386,-73.8003,45.6213,-15.9109,4.275,4.8839,2.7434,-33.1199,14.6328,-13.7144,
25.5846,3.6314,3.144,-4.4624,77.4923,-56.7234,45.8027,-17.8759,-4.7386,-2.2198,9.3894,-17.0327,24.4574,-4.1345,
19.6708,3.8994,-2.3961,5.0479,86.9427,-51.8608,42.5682,-6.5872,-5.9138,-2.5734,9.3129,-30.1108,19.5849,-9.2379,
13.625,4.6391,5.5315,3.7723,95.8262,-62.8492,35.149,-3.2728,-2.6398,-0.47262,-2.9216,-42.4041,4.3098,-10.6291,
22.0509,6.7931,14.443,4.0328,104.1766,-51.3025,41.3107,-10.3734,-1.0228,1.0153,5.5234,-25.7599,10.8537,4.1086,
23.1602,8.8179,-0.52356,-8.3718,112.026,-34.1243,31.5341,4.349,-5.3393,0.46757,3.7324,-10.6011,24.3025,-5.3732,
16.9059,4.3969,-13.1497,-11.7614,119.4044,-31.0956,29.6426,18.188,-2.0997,3.3587,-3.3017,-7.0459,13.1227,-2.1317,
12.4869,3.6467,-5.0632,-12.5148,126.3402,-25.8238,20.567,31.1968,-9.2712,-9.9777,-3.59,7.4769,2.1196,2.3745,
4.4398,2.9411,-7.1918,-20.0346,132.8598,-32.5455,12.0346,43.425,-22.8149,-13.7587,-8.727,9.4691,-4.3328,-10.9033,
6.1193,5.6842,0.050372,-16.8866,118.6795,-31.5656,25.4125,54.9195,-16.5899,-3.2025,-11.1221,-1.8015,6.6307,-15.1142,
12.5628,17.0185,3.9397,-5.1709,118.3693,-18.9691,27.3019,65.7243,-9.7567,-10.7946,-3.6441,-5.5858,15.9617,-5.4503,
6.458,14.5382,0.2978,-11.1844,108.8353,-23.1815,12.5289,75.8808,-12.5759,-9.6597,1.9265,-10.6017,3.8155,-2.6905,
1.6922,6.3685,-7.0175,-19.7572,92.0886,-32.0077,10.3176,85.428,-16.2005,1.1356,-8.4057,-19.2095,-2.7381,-16.6291,
12.7796,13.2834,-8.0561,-7.3819,95.8067,-19.8706,21.8606,94.4023,-3.0659,2.5271,-3.5226,-8.8135,11.5262,-14.1803,
4.7158,4.2166,-5.1404,-11.3178,81.7876,-24.0299,22.0086,102.8382,-4.3415,-2.9761,8.8513,-19.4736,12.3023,-2.1406,
-7.2429,-1.8747,-4.8319,-24.7387,62.7803,-34.2638,9.9851,110.7679,-15.7568,0.12168,6.3738,-29.0082,17.4016,-4.9313,
4.867,9.914,-6.488,-17.9114,67.2756,-20.5323,15.2243,101.2935,-7.0271,2.0603,2.0999,-13.1677,30.4575,-8.5269,
13.8179,14.6702,-3.6659,-7.5938,69.5638,-8.1114,20.6346,94.7295,-6.12,-0.49608,2.4594,0.27893,26.6926,-0.71779,
3.2595,6.9789,-2.4732,-12.0028,57.6062,-9.5707,11.6127,91.9649,-16.4549,-0.46631,4.2582,-11.4136,10.9911,-1.6484,
4.5235,5.1006,-1.838,-8.8503,56.5821,-9.4828,12.3755,87.9066,-11.0898,-1.8979,2.5432,-13.1611,24.4316,-3.0082,
18.3521,14.0389,-3.1873,0.92504,60.4851,0.33004,25.733,84.0918,-2.1528,-0.32446,-1.0145,1.7286,37.0657,9.3349,
8.9889,7.8446,-6.4016,-13.2305,42.756,-0.1766,21.7652,69.8024,-5.4301,3.1006,-2.4128,13.796,23.1746,3.4229,
2.1258,3.9684,-4.5584,-18.7699,34.8301,-8.4362,14.1351,58.3177,-5.5907,1.4554,6.0022,-0.16755,9.6219,-9.9174,
3.9442,3.7307,-2.3389,-6.9402,45.3893,-15.7139,20.0976,48.9808,-2.3356,-1.5516,6.6153,-14.2575,14.8825,-10.2956,
4.1934,-4.7638,-1.7117,-11.8763,41.2063,-19.1498,30.0807,42.6359,-1.7095,-0.97163,2.8124,-23.1399,2.7997,-7.2455,
12.6984,-0.58605,-2.5818,-16.0283,42.6259,-7.2978,22.4379,41.0505,-5.4989,0.059416,6.5355,-7.6515,9.4428,-6.8108,
13.8825,-6.3888,-4.3728,-17.0126,37.1496,-2.968,14.281,32.7496,-9.0613,-0.91736,8.0894,-2.8061,20.5525,-6.4026,
-0.57174,-14.7629,-6.0569,-10.1535,20.8206,-13.4925,22.1812,27.8654,-1.7066,0.11136,7.604,-16.7377,9.5891,-4.072,
-5.8894,-10.4716,-9.099,-3.2196,5.4714,-14.1425,27.1746,28.6263,1.8014,0.59105,6.6614,-12.8228,5.6082,-8.206,
6.1402,-2.059,-5.6334,-3.0269,17.2886,-4.5369,30.4093,29.8274,5.5857,1.5288,8.2077,-5.2419,16.9479,-11.606,
10.6364,-2.9082,-9.1883,-7.7099,20.1432,-0.37325,23.7196,22.2004,-1.5606,-0.50935,6.7425,-0.062714,21.7684,-3.1258,
8.5387,2.6168,-9.1229,-3.8422,14.5559,7.9194,25.7015,19.4088,-0.98102,0.98079,4.8783,7.238,34.5623,8.2516,
5.594,5.8658,-5.1704,-0.20663,16.1158,8.9038,25.619,15.8119,-3.3545,2.3815,2.1533,4.3714,39.7946,-0.51417,
7.2043,2.5952,0.97766,-7.0049,26.8241,6.4241,14.352,11.9445,-12.883,-0.68007,2.9973,14.8126,29.6226,-4.3748,
6.2857,0.0066706,-0.54012,-17.773,26.6747,7.4982,13.9778,8.795,-9.6772,-5.0176,4.2766,16.3567,28.3326,8.0498,
3.9621,7.7901,-1.4814,-9.8965,10.9742,9.9666,18.9765,12.1592,3.5519,1.1209,4.02,9.536,32.47,12.4315,
-8.4373,-1.9198,-7.7158,-3.9512,-3.7842,-4.7314,23.1899,10.9438,2.8529,3.486,1.3465,2.6405,16.4218,-2.4144,
-3.5523,-10.0762,-8.7125,1.6374,-17.6572,-18.5476,29.0955,9.8003,3.1676,4.7364,4.6708,1.9952,2.2931,-12.4938,
4.9306,-4.1192,-5.7574,-0.89319,-2.4977,-3.3347,19.0795,6.78,-1.4003,-0.89927,4.8773,2.3624,16.2555,0.41845,
-9.4652,-11.17,-5.8988,-10.083,-13.0671,-8.4938,14.5297,-3.843,-3.7486,0.61427,3.1251,-7.0228,29.3802,-1.0662,
-6.4731,-8.0674,-4.0853,-3.1538,-17.6345,-7.4973,27.7579,-0.20734,5.7197,13.7128,1.478,-10.9802,18.3911,-9.2729,
7.5375,3.1196,-5.7866,-3.9382,-2.4765,3.6546,25.1273,4.6698,3.4301,6.0789,-2.5026,-2.5375,17.2867,-4.8247,
4.6525,2.4461,-3.9793,-8.0793,6.4373,3.9222,18.2686,-8.7453,-1.154,0.36312,2.0259,8.8041,21.6014,1.7895,
-0.97774,-0.1335,-5.1997,-7.1082,1.6727,7.0924,12.7938,0.049628,-3.5175,-1.1187,3.3644,6.8167,24.6836,4.114,
-4.811,0.84725,-9.7533,-9.6009,3.5179,14.4507,13.9721,11.7224,-3.3065,0.89483,1.2161,-2.3498,21.2562,3.8672,
-6.4683,11.4999,-7.2221,-5.1333,0.38808,14.5564,11.1878,-3.0809,-1.1621,5.7053,-0.80284,-10.9659,12.1974,-7.0674,
2.19,24.9099,6.347,9.2747,0.85117,24.8724,15.868,-16.9961,4.2596,8.7686,5.57,-12.7398,11.952,-12.9681,
2.5455,18.0724,9.3713,11.1591,2.2597,27.7588,20.2675,-30.0763,1.5717,0.94546,3.7763,-16.3541,20.4783,-12.6759,
1.4195,16.0148,6.863,4.6516,8.9347,19.2822,14.1863,-42.3717,0.50415,3.8074,-2.2882,-22.1835,26.0602,-12.8885,
2.7939,24.2973,7.9108,6.8049,15.6966,21.5308,21.6058,-53.9294,13.6092,17.679,7.0925,-9.6636,13.3077,-12.6021,
-3.6989,20.4072,2.0847,4.937,21.079,25.5905,24.6877,-64.7937,10.3604,18.0869,8.1266,5.0162,17.8607,-8.4399,
-11.2608,5.0827,-7.7707,-8.9805,20.787,17.2439,9.1065,-75.006,-4.3613,7.2714,-6.461,18.8153,25.5457,-9.88,
-4.7468,8.1748,3.3986,-2.6033,13.7015,17.1825,8.0652,-84.6057,-1.6753,6.8351,-5.5956,7.4873,24.9866,-7.3407,
-6.8948,13.0353,5.6275,11.6529,-1.2206,18.5834,11.9595,-93.6293,5.7217,3.9922,-6.7199,1.6861,23.0001,-9.3331,
-2.5892,12.2532,0.42514,13.8805,-12.8308,18.4416,17.0803,-102.1116,7.3248,7.6446,-10.2077,7.4232,23.5665,-3.9084,
-4.8662,10.0584,2.832,8.6689,-8.6558,11.0104,21.4065,-96.0686,7.3713,1.8344,-6.1901,-4.212,13.8819,-6.1063,
-7.9797,13.8341,6.0676,16.419,-6.6774,10.8366,30.3388,-83.0061,15.2001,2.2116,1.4787,-3.4729,12.5626,-8.1718,
-15.7712,1.8147,1.3252,9.1101,-17.4661,7.7541,22.1937,-78.513,9.9089,5.4836,-7.8539,2.0874,15.2144,-4.2768,
-19.2027,-1.6993,-3.133,3.212,-19.8232,7.7757,6.7621,-72.3417,-2.8473,-1.1688,-6.8949,0.50261,21.5994,0.35853,
-18.5374,3.7533,-0.51271,10.3162,-21.0662,4.8764,15.5917,-65.5689,-3.1633,-3.5319,-3.0761,-9.7437,16.8974,-2.0953,
-18.3984,-4.2553,5.3559,15.5352,-31.4784,-4.1728,28.7562,-64.5544,-6.865,3.4916,-15.5405,-23.2591,3.2346,-0.023636,
-15.8349,-13.2434,6.4942,9.2525,-26.1837,3.3746,15.3632,-67.0054,-17.6429,-4.9886,-18.0141,-34.5211,8.3921,2.4101,
-10.0197,-10.5038,7.0777,5.7777,-10.5127,13.8746,16.3873,-59.0936,-10.7465,-8.5817,-7.2034,-24.666,21.9885,-0.6532,
-9.9053,-7.4403,3.2471,2.0259,4.2181,6.7179,17.8369,-59.9258,-13.5068,-6.6072,-15.041,-21.7264,10.9475,0.84558,
4.789,7.1061,17.1522,12.1201,16.6297,20.4148,25.0369,-44.1681,-4.4261,7.8892,-1.9764,-17.0173,-3.8093,14.8948,
4.9966,-0.61007,16.618,10.9065,1.5319,19.6849,24.9938,-45.8963,-0.75502,4.9916,-2.3442,-14.5371,-17.6808,15.4688,
4.21,2.8325,19.9997,12.6845,8.7294,10.2336,33.7108,-45.5749,0.74986,10.0436,-8.5278,0.43509,-30.7199,8.2164,
8.823,7.5273,20.7452,3.1668,13.0703,23.7196,30.7154,-41.8676,0.70487,7.4955,-5.0979,9.1746,-27.9283,15.5073,
22.3936,18.7514,7.8247,2.004,2.5567,36.3964,20.1154,-32.5445,-2.2566,-3.6572,-6.7375,-5.4759,-25.2798,8.7385,
28.3551,21.5182,3.4633,0.91105,6.2952,48.3126,16.9626,-31.5646,-12.8242,-7.3297,-18.009,-5.6423,-36.4115,-4.4343,
24.2214,16.822,13.4717,0.36955,15.1609,54.1956,25.1878,-31.1312,-11.5679,-0.56566,-6.7123,1.0205,-27.9026,7.0207,
18.8762,8.0289,11.6907,0.34738,4.521,43.16,25.6229,-32.1816,-6.9819,0.44103,2.448,-7.7973,-13.5799,11.465,
13.8517,2.6816,10.9892,4.2185,-1.5876,28.8942,27.9775,-25.386,-5.5903,5.2792,4.2466,4.3463,-10.8187,5.9115,
17.3989,5.9262,4.9788,7.3709,6.7778,24.7282,20.9473,-25.322,-6.714,6.4225,5.4509,6.5174,1.9925,7.016,
17.8146,4.111,-4.5633,0.60439,-2.8723,18.8658,16.2849,-34.0198,1.9586,0.68567,2.6915,-7.9736,3.3326,4.1627,
13.827,4.8376,5.4403,2.5141,-16.7999,15.7883,26.0108,-26.1398,3.7871,-0.32868,-2.3351,1.2537,-10.4891,2.9406,
12.5105,8.9261,2.6815,-2.0155,-7.043,22.1385,15.2068,-18.2471,-8.6018,-2.7413,-7.5465,15.2785,4.2403,5.1965,
9.8144,1.5804,-11.5794,-15.9946,7.4796,26.6485,4.565,-24.9361,-7.113,-6.4687,-9.0392,27.9921,18.0858,16.5605,
12.1438,1.4846,-7.4876,-6.7733,9.4712,33.8053,17.9119,-20.5217,-1.8215,-4.1351,0.25973,20.4742,14.5845,29.1881,
14.8207,5.7738,-4.6056,4.8225,-3.2592,30.3178,26.0811,-12.9657,-4.1441,4.3841,6.5689,22.6513,-0.39054,18.1939,
4.2017,-2.356,-10.1671,-1.3047,-17.1636,14.3988,11.8673,-18.9984,1.9424,7.0398,0.33685,11.5624,13.7329,3.0022,
-4.3207,-1.7282,-7.1252,-2.6855,-21.0075,4.7697,5.8037,-21.264,8.1497,0.29269,-6.0081,7.4631,13.8821,-2.0516,
0.80325,9.0785,-0.85936,0.39476,-10.0168,15.1865,19.5555,-12.2044,11.5526,4.167,2.1362,17.7183,-0.57297,7.8018,
-0.70453,0.26308,-5.1866,-2.0613,-23.5158,9.897,22.2826,-11.9589,2.5897,9.2685,4.4404,6.4391,11.624,3.9286,
-9.9048,-13.8527,-12.1724,-4.3699,-36.2048,-0.91295,9.7563,-18.5384,-4.8636,3.3609,-0.20385,-2.2179,25.0266,-1.6586,
-6.3918,-11.0837,-9.4961,-5.0809,-20.427,3.0338,11.1169,-18.3993,0.29334,-2.6786,-6.0295,7.6449,35.2093,-0.58591,
3.722,3.2035,-7.9535,-3.8033,-5.1014,16.9517,11.4231,-9.5115,-1.6698,-3.4907,-8.5869,12.0518,40.8806,7.2331,
1.5527,3.0109,-6.5031,-2.6019,-3.3281,18.375,12.6836,-7.9676,-5.462,-4.2544,-2.2338,-1.3202,42.3192,9.7178,
-4.8652,-8.3592,-3.6811,0.95974,-17.2284,3.1725,16.3009,-14.787,-2.7014,-6.431,-8.4245,-15.341,25.68,-4.9653,
-0.68133,-2.0193,-7.3521,-1.0443,-18.1487,5.8928,15.3229,-14.8725,0.37889,-2.1532,-16.6756,-24.1585,31.9154,-5.6486,
-0.15454,6.3716,-10.3161,-7.3059,-2.9598,14.7822,14.8894,-9.6024,0.84299,1.381,-13.2427,-8.609,44.1005,7.8256,
-4.5236,9.3949,-6.2916,-5.4084,-5.2069,8.5442,13.5097,-4.647,-4.5596,-2.1074,-8.0699,6.0076,33.1914,7.8425,
-1.8189,6.3988,-3.4817,-4.597,-17.0562,2.6805,15.1323,-7.7733,-8.6638,-1.4941,-4.1797,-4.5524,23.9039,0.074906,
7.5332,3.5821,-9.5975,-5.7803,-12.6273,5.9248,12.7644,-8.7669,1.099,2.0011,1.4221,-2.8201,36.5696,1.5295,
5.1353,0.44848,-13.8859,-14.1906,-9.9237,3.6238,-2.1015,-13.106,2.9799,-5.9033,-6.4466,11.4491,48.4755,5.3301,
0.44885,-2.0112,-2.837,-11.88,-15.653,-0.97239,1.9084,-12.806,-0.60534,-5.0627,-9.4653,21.4732,31.4669,9.3886,
-3.4705,-1.8901,-1.6936,2.4554,-21.5244,1.0324,12.4969,-5.2261,-7.3787,-3.7857,-6.9514,6.0848,15.4789,4.9329,
1.1156,2.6011,-4.0243,7.6587,-13.9087,2.4291,14.179,-0.53473,-2.5582,-1.1263,-3.1293,6.6839,28.6502,-2.661,
-1.3832,0.98595,-6.2157,-6.9008,-3.8312,2.7702,14.7883,-7.8001,1.0009,1.3741,-4.4006,3.851,37.155,-0.067594,
-12.0032,-2.9651,-5.8427,-5.5217,-7.4933,16.2257,14.8742,-4.4129,-2.9511,7.1291,-3.1638,11.4038,30.061,13.5577,
-25.383,-16.8872,-12.7896,-6.6504,-21.1437,8.9274,11.5489,-4.6345,-5.2068,0.37663,-2.4876,15.0979,24.8518,9.3387,
-15.1116,-9.071,-5.2116,-6.2509,-5.775,6.4458,17.6666,-1.4378,4.8354,0.35449,5.445,12.246,37.4607,7.8052,
-1.0695,-4.1489,-0.52016,-3.4435,8.6715,7.5187,21.9581,2.0536,-4.6982,-3.0719,2.686,-1.6241,47.8701,2.9581,
-1.9786,-2.9267,4.3762,10.8631,22.2512,8.0408,30.3705,9.7147,-11.2269,-1.9153,6.4172,-2.4998,30.8979,7.6458,
-5.2649,6.4923,-2.2106,12.1653,35.0161,13.8826,26.1159,5.7267,0.63563,-1.3135,10.4109,0.082495,40.7112,11.5658,
-5.4359,7.5623,-3.5376,-2.6646,43.156,14.5092,26.9813,1.9771,9.8409,0.22489,7.353,-2.3548,52.3686,12.3314,
-9.4871,-6.9914,1.053,-6.8911,27.4318,-0.46136,25.8492,-4.4653,-4.8495,-4.1669,-0.38472,-8.5373,39.9916,9.1596,
0.81147,-8.5269,0.01703,4.2245,28.7051,1.5037,21.3791,-4.1983,-6.5126,4.8397,9.3677,4.6225,40.5112,17.3657,
-2.6428,-7.528,-14.084,-9.1639,21.6317,-1.0184,8.9074,-10.2702,0.20285,1.1438,-2.3837,11.6436,37.5942,9.0272,
0.92135,4.1131,-3.0309,-4.2358,20.8202,-0.47089,17.616,-7.2221,4.569,-1.3567,-3.6998,13.3768,24.1492,6.0528,
10.5959,-0.026093,2.0161,-4.9539,23.4624,-1.4158,20.4509,-8.7348,-5.435,-4.195,5.2792,-1.5258,14.9159,7.6356,
20.1767,2.4083,-12.2049,-14.8733,33.2441,6.9398,9.0077,-4.8042,-3.6488,-4.4296,5.4488,5.3688,28.121,4.7456,
4.8661,7.128,-21.2109,-17.8733,21.5196,4.5774,4.5748,-9.382,-0.51211,-7.0826,2.2023,18.6683,27.4145,-3.3234,
2.1328,6.7008,-5.8383,-5.1247,7.5795,-3.4815,18.4004,-6.8731,9.2484,-1.7925,10.8272,3.9265,13.1216,7.5785,
7.3568,6.7851,-3.5344,-1.4116,9.5575,-5.705,15.3589,-0.13602,14.0455,2.6934,5.7992,-2.6338,16.7126,9.5566,
0.10433,2.4861,-1.3759,-6.1916,0.22655,-6.3354,19.3025,1.8186,11.2563,2.5318,-0.38613,3.3626,9.8715,0.22662,
-6.713,-3.5005,5.5178,0.017299,-13.887,-14.7123,25.9282,-4.1289,0.85161,-4.4312,4.5017,-3.6503,-3.3693,-11.4627,
-6.7966,1.0878,4.7003,3.4218,-15.9806,-12.37,16.1018,-8.2594,-8.4434,-3.679,3.7452,-4.8913,1.2112,-4.4512,
0.42227,8.8064,5.391,3.2165,-0.92178,2.4722,16.1085,-4.8456,-9.8823,1.4064,-0.37233,-6.5433,14.7607,6.5189,
8.1808,14.1163,10.9059,5.9427,9.3587,12.5486,24.8722,0.31069,-10.2621,-3.5426,9.3803,-11.9881,24.5781,3.2086,
-1.0676,5.4846,5.386,-1.225,1.0124,3.0386,17.542,0.29205,-5.7544,-16.9513,10.7639,-12.2425,9.0034,-4.7678,
-2.949,2.2373,4.0901,-1.1515,2.8981,4.8023,12.5976,2.2209,4.3202,-7.1777,11.0908,-3.7241,3.1036,9.1405,
0.14709,2.103,3.8447,-0.10871,-1.1677,12.2989,8.923,4.0341,-8.5875,-1.8814,-0.27674,-10.3108,12.6476,13.4567,
11.3272,13.1658,12.8574,6.2211,11.065,25.661,22.4876,16.9265,-12.451,-1.2826,3.145,4.4078,25.9888,10.217,
9.1884,19.6733,10.6268,-2.4223,24.5011,28.5077,20.6601,11.5326,-12.1904,-8.5031,3.4426,18.2433,22.0047,5.2257,
10.0972,15.0883,4.6373,-12.4927,20.6067,23.3917,16.0149,5.4896,-8.0534,-0.69547,-0.16948,10.8407,14.3597,19.0121,
8.5177,4.4518,-0.50564,-7.8522,8.6673,21.0145,13.1076,6.133,-3.6783,7.1301,4.7054,6.2983,24.2012,26.6356,
-2.21,-1.1664,-8.7464,-6.8947,3.7681,11.4834,5.0237,3.3322,-1.9985,-0.59517,4.9094,14.1906,17.3971,12.8753,
-9.8613,3.7692,-6.2752,-9.3992,2.5702,2.0378,15.4258,3.1323,3.9598,-0.55946,7.534,-0.76081,2.732,1.4007,
-1.4858,8.4077,-5.8987,-8.8353,7.2806,5.8075,16.4462,3.918,-0.16971,0.44685,6.1092,-14.8152,5.4873,1.3167,
8.3337,7.9033,-10.4095,-10.2516,15.6004,16.162,3.7832,2.7093,-0.15953,-3.4719,9.6346,0.17375,14.8874,-1.6815,
-6.2664,-2.7876,-14.1632,-14.0148,1.5295,10.814,-1.7949,3.0331,1.3092,-7.6419,13.4348,1.1284,5.7239,-15.6806,
-19.9904,0.78524,-16.7189,-4.9027,-4.887,10.6516,2.6911,13.0677,-2.174,0.11412,5.3313,-4.2912,-3.8625,-8.4236,
-12.4829,7.0624,-8.4188,-2.1762,6.5951,10.4984,9.8271,12.7705,-4.4768,7.4043,0.63263,8.1288,-6.064,1.3253,
-13.194,6.1523,5.2221,-4.4785,6.6867,8.4093,7.7779,8.5987,-4.6946,6.4736,1.082,10.0739,0.62458,-5.079,
-23.5917,-1.5143,7.3407,1.1413,-7.8145,-1.3391,6.8244,13.4338,-9.764,-3.1577,-6.2813,-4.6305,2.0462,-12.0717,
-27.0409,-12.1265,3.0083,10.8031,-18.0572,-15.3588,19.0639,20.4116,-2.367,-4.9147,-16.6065,-18.4527,-12.1766,-17.1848,
-22.9861,-9.9398,2.3414,16.4787,-19.4065,-25.1483,16.4605,14.8087,7.9907,-6.0789,-16.0974,-31.4455,-25.546,-23.4512,
-20.1473,-3.9914,6.5792,18.8955,-32.3421,-19.2607,11.0946,9.5418,5.0794,-9.1197,-6.8605,-43.6588,-27.9213,-24.4769,
-16.0198,-0.83277,5.2117,26.5193,-44.5016,-8.3752,16.2668,23.0693,-6.9021,-1.7615,-9.368,-37.6675,-15.543,-14.2517,
-19.4364,-3.2151,-0.45247,26.3877,-32.1179,-5.4399,24.5346,31.4235,-3.0819,-3.1154,-12.211,-24.218,-17.0428,-6.0987,
-27.5137,-11.2924,-4.8036,19.4534,-30.6772,-14.3569,21.603,16.4032,6.3469,-10.2259,-13.9111,-36.865,-29.1551,-13.0302,
-15.6467,-9.1562,0.83611,18.7721,-17.6477,-11.0632,13.9821,11.0394,-5.2238,-0.36893,-8.6977,-48.7531,-16.2169,-18.5727,
-12.2755,-14.9311,0.29911,9.3751,-2.4888,-6.9939,15.576,13.783,-11.2346,4.032,-1.8516,-31.7279,-1.1438,-13.0805,
-23.7011,-16.4671,-8.9618,10.2726,-12.5471,-10.953,15.1278,14.4151,2.5743,-7.3993,-5.1461,-15.7242,5.2576,-2.079,
-20.8195,-9.1548,-4.0453,15.0078,-17.1458,-6.8898,12.7605,11.1179,6.7986,-8.415,-11.1615,-14.2944,-1.3821,3.3972,
-16.6521,-9.5788,0.08884,0.0073256,-2.017,3.2529,8.1025,0.72103,-3.3391,1.8197,-9.5196,0.66328,-3.2461,-0.69899,
-13.7065,-9.004,2.0299,-2.434,11.2479,13.7608,5.6709,4.5697,-7.0306,7.5489,-1.1636,14.7235,-12.7806,5.1813,
-17.2624,-17.7067,2.3945,3.0631,-3.527,5.6376,5.817,11.593,-7.0952,2.7167,-7.4185,14.3436,-26.1138,7.3032,
-9.4161,-12.7529,1.2776,3.8525,-17.4154,3.3534,8.3867,8.9514,-0.83159,-3.2841,-14.7577,-0.61706,-38.647,-1.892,
-2.04,2.1123,-2.6914,2.6481,-8.1173,15.8007,8.8567,10.3603,2.137,-6.0058,-10.9535,1.8433,-22.2282,-2.7517,
-2.404,8.8047,2.822,0.05646,2.5863,18.2582,9.7844,16.0625,-1.3968,-5.1591,-0.079695,5.1382,-6.7945,6.6563,
-1.7738,3.8977,4.1123,1.5127,5.8362,10.8385,7.7382,10.7209,-2.7725,-8.2555,-1.5345,-4.4135,7.7132,3.8246,
-0.20735,1.232,0.46002,-0.037224,7.9189,11.6473,14.5709,6.6721,0.79936,-4.3547,7.8005,-6.5805,21.3504,-4.6751,
-2.6272,-4.1935,2.8648,-5.3865,-3.7461,-1.2137,12.2375,3.8394,-1.6809,-2.6338,9.7658,-1.8079,5.9694,-12.6652,
-5.3888,-1.0227,5.612,-3.1178,-14.2234,-9.8974,-0.17246,6.5282,-4.4992,-6.3677,0.4223,7.0581,-8.4888,-12.8781,
-6.0387,-0.96133,-0.56302,2.9076,-9.4781,-2.4925,5.6758,10.0285,-0.33737,-1.12,1.3706,15.3912,-8.4658,-2.3751,
-10.5415,-7.7152,-6.3671,0.78719,-2.0988,-5.2621,10.1999,6.5071,-3.2358,1.8659,2.2607,14.4673,-15.7422,4.578,
-15.7464,-7.2514,-4.0387,-1.2055,-14.6214,-14.6757,6.6696,5.1449,-3.0417,1.7539,-3.7124,2.8971,-28.8976,5.277,
-12.8557,-3.898,-4.77,-0.16046,-23.4743,-5.0386,6.269,5.8089,2.9792,5.5406,-9.327,8.5607,-41.2638,10.7978,
-15.4894,-9.9884,-16.6455,-11.3398,-9.9033,8.3995,-3.3501,-2.8103,-9.3622,-0.14334,-9.2543,22.1471,-29.5607,16.4742,
-10.6681,-9.3891,-3.971,-9.6866,-2.498,6.9219,4.6348,1.2503,-7.8277,-4.9994,2.004,34.9183,-13.6871,18.4049,
-4.6775,-11.2586,9.4021,2.083,-15.4839,-1.7641,11.6537,7.499,-4.9253,-10.0514,-0.54903,18.7232,-26.9658,8.0567,
-1.4776,-14.4745,12.7304,4.8777,-12.6089,-3.6038,17.7655,9.9687,-1.711,2.2279,-1.4893,3.4998,-39.4479,10.493,
-6.74,-16.0384,1.7504,-1.7392,-12.3383,-14.5769,14.2673,2.0727,2.7704,5.4993,-3.8323,-10.8102,-51.181,8.4038,
4.3669,-7.2922,3.5909,8.0945,-10.6253,-2.0265,11.4648,11.6786,12.3335,3.2238,2.236,-12.1156,-54.9384,3.034,
-2.7057,-20.9547,4.3486,1.7709,-21.664,3.9329,15.6421,6.1127,9.6475,2.0572,-1.7905,-25.4887,-65.7421,-4.9314,
-16.1655,-22.1383,1.1685,-0.28176,-28.148,-2.1414,21.5146,-2.0379,8.0959,9.7176,-7.5214,-30.2922,-75.8975,1.2019,
-11.3032,-6.71,-2.7935,3.628,-24.5127,-0.066022,14.3859,1.0036,7.6102,8.1618,-12.9067,-14.3747,-80.1164,1.1307,
3.475,7.7926,0.77966,5.8422,-9.907,14.0379,13.0359,10.1863,1.8025,4.2666,-0.9438,0.58782,-76.769,1.5492,
12.0316,12.6927,2.6788,6.4649,1.3899,27.2957,19.0643,14.4403,-2.198,4.9838,8.8426,5.9207,-60.4876,15.078,
1.5794,7.066,-1.3743,2.1855,-8.4233,13.5115,21.8129,11.6279,3.7717,5.658,3.4469,7.5114,-58.8038,13.2001,
7.8089,0.31782,-0.80498,-0.37888,-13.2694,5.4034,15.1526,8.4979,6.9505,4.8316,1.7805,17.2769,-58.6812,-1.6919,
18.0434,1.272,0.21653,-2.3021,-3.7161,17.7281,13.2702,5.0693,-0.27713,3.5685,7.5116,21.1054,-41.0603,-1.599,
13.0689,0.2229,0.20354,-3.1367,-1.5468,16.6644,20.2588,3.7924,1.6859,3.3544,8.0346,14.0017,-25.4528,5.3081,
8.3928,-2.7096,0.19133,-4.894,-0.4812,5.9348,17.0968,6.4831,2.5575,3.1532,-5.096,5.3777,-36.5746,4.0168,
12.7539,-0.60157,1.1526,-8.4932,9.277,6.5514,16.071,5.1214,1.4304,1.9912,-9.6558,-6.6216,-37.2997,-4.0089,
24.6381,10.1375,4.0026,1.7466,16.5051,15.8886,18.0259,7.7333,6.2102,-1.0474,-0.31898,-1.3587,-25.3315,-0.84831,
35.8088,12.4489,5.7084,10.3989,19.4072,14.9353,20.8368,12.1344,9.7299,-2.9305,3.5916,8.4526,-16.0273,4.0677,
39.9845,2.4586,-2.9048,-0.44122,23.5934,12.5796,15.2078,5.0821,-0.09729,-4.2143,-10.7239,-6.1546,-20.4172,-10.2763,
51.6855,16.411,-6.6219,-0.41521,36.2778,25.9248,10.4029,7.6959,-6.903,-0.069053,-12.0345,-15.5232,-9.4623,-14.5339,
62.6843,29.5264,-14.0085,-14.4903,48.2011,38.4693,8.806,3.3422,-20.1101,-14.1649,-23.9609,-0.49178,-11.8138,-9.77,
73.0233,41.8548,-5.8709,-27.7209,59.409,50.2612,10.71,-1.2371,-33.0035,-27.415,-36.6233,3.4377,-7.6989,-6.7505,
82.7419,53.4435,-6.9778,-28.0198,69.9445,61.3455,1.7972,-8.4603,-45.1233,-37.4625,-40.7596,-10.8685,6.863,-20.4455,
91.8774,64.3369,5.1166,-19.5275,79.8478,71.7648,15.7893,0.80387,-47.2981,-35.2148,-32.4757,-15.0896,14.2427,-30.903,
100.4647,74.5767,10.647,-20.3023,89.1569,81.5589,28.942,6.594,-56.136,-41.8594,-44.1484,-28.2843,-0.71188,-34.8872,
108.5368,84.2021,4.1703,-15.1917,97.9075,90.7653,35.0059,6.1979,-46.9299,-37.4019,-43.4464,-40.6872,1.7546,-23.0642,
116.1246,93.25,0.028653,-14.2807,106.1331,99.4194,36.797,3.88,-37.3026,-44.8876,-41.8119,-47.0197,-2.2421,-24.599,
123.2571,101.755,-1.9195,-27.5239,113.8651,107.5543,38.4811,-6.0821,-49.1644,-56.2943,-53.4032,-58.2985,-16.2076,-37.2231,
