"AF3","AF4","F3","F4","F7","F8","FC5","FC6","O1","O2","P7","P8","T7","T8",
185.7461,1022.6692,162.2606,121.6952,-200.6911,24.5527,218.8388,-53.3754,34.1599,-24.5527,-86.4681,-178.2734,-603.1399,-67.2526,
171.9327,970.3832,145.5864,100.2935,-174.5496,32.1536,192.3643,-62.4487,29.4417,-30.0181,-75.4081,-181.677,-552.8515,-74.426,
174.4257,922.8337,136.8502,80.1759,-149.9766,39.8317,168.0115,-45.8923,14.8652,-15.4071,-63.4119,-174.2904,-505.5804,-59.286,
178.0602,874.4038,114.5392,61.2653,-126.878,51.5418,145.6555,-29.0388,11.3042,-11.8135,-53.7353,-149.733,-461.1456,-41.6288,
158.0807,815.5346,93.5668,43.4894,-105.1653,62.5492,122.8161,-23.7819,18.0992,-18.578,-45.174,-126.649,-419.3769,-25.0311,
148.5958,769.8042,73.8528,26.7801,-84.7554,72.8963,124.2094,-9.545,31.1132,-3.3633,-28.3635,-104.9501,-380.1143,-9.4293,
125.5801,709.516,55.3217,11.0733,-65.5701,82.266,103.9474,-23.0723,16.2132,0.88622,-22.614,-84.5531,-343.2074,5.2365,
103.9453,652.845,37.9024,-3.6911,-47.5359,91.43,83.6106,-35.7879,2.4304,-0.2342,-13.7844,-65.3799,-308.515,19.0223,
83.6086,599.5743,21.5282,-17.5697,-30.5837,100.0442,64.4939,-39.6011,-8.3899,-8.7601,-3.3501,-47.3571,-275.9041,22.6399,
64.492,549.4998,6.1365,-30.6155,-14.6487,108.1416,46.5243,-23.3468,-15.3592,-2.8963,7.5264,-30.4157,-245.2498,35.3815,
46.5225,502.4299,-8.3317,-42.8786,0.33021,104.1885,29.6328,-31.5542,-25.1121,0.47924,1.7375,-14.4907,-216.4348,46.9141,
29.6312,458.1841,-21.9318,-54.4058,14.4104,92.6,13.7549,-43.761,-37.7054,-13.6495,-12.4667,0.47871,-189.3487,36.6265,
13.7533,416.593,-34.7159,-65.2415,27.6458,101.144,-1.1704,-40.913,-40.5591,-17.9455,-7.2264,14.55,-163.8878,48.5289,
-1.1719,377.4974,-46.7329,-75.427,40.087,109.1753,-15.2002,-42.1946,-46.1319,-10.9979,4.4152,27.777,-139.9545,59.7172,
-15.2016,340.7476,-58.0289,-85.0014,51.7818,111.7875,-28.3882,-45.5343,-52.4371,-4.4667,1.4817,40.2104,-117.4573,43.9469,
-28.3895,306.2027,-68.6472,-94.0013,62.7749,119.1802,-40.7849,-28.7023,-37.5481,3.2741,-6.0799,51.8977,-96.3098,55.4101,
-40.7861,273.7306,-78.6284,-102.4612,73.1084,109.6721,-52.4378,-26.1346,-32.0935,-0.12513,-3.5796,62.8839,-76.4312,66.1854,
-52.439,243.2067,-88.0107,-110.4136,78.507,88.9918,-35.1915,-28.3029,-34.9715,0.416,8.9115,73.2108,-57.7454,48.1143,
-61.5682,214.5143,-96.83,-117.8887,59.6966,69.5523,-18.98,-23.9356,-31.2713,-5.4798,-4.9668,71.3534,-40.1806,39.6674,
-43.7741,187.5435,-85.3252,-124.9154,46.7293,51.2792,-3.7412,-9.1559,-15.295,-1.4147,-8.4051,66.5385,-23.6698,39.9565,
-27.0477,162.1909,-66.1057,-103.3205,29.8256,34.1024,10.5832,5.4935,-0.27733,12.7702,3.3083,48.4462,-8.1496,23.4591,
-18.9308,138.3594,-48.0394,-83.0213,13.936,17.9563,24.0482,4.9416,13.8393,8.579,-10.9902,31.4395,0.16659,7.9516,
-3.6949,115.9578,-31.057,-63.94,-1.0001,2.7789,36.7053,18.7451,27.1089,9.6656,-18.649,15.4531,-13.9434,-6.6255,
4.845,94.9004,-15.0936,-46.0036,-15.0401,-11.4878,48.603,13.1276,19.7882,-1.0557,-29.8059,0.4259,-27.2068,-20.328,
18.6543,75.1064,-0.087971,-29.1434,-28.2377,-24.8986,59.7868,15.5422,13.2636,4.3449,-39.7608,-13.6997,-39.6744,-33.2083,
31.189,56.5,14.0173,-13.2948,-40.6434,-37.5047,53.9751,15.6774,18.8728,-2.3208,-51.4752,-26.9777,-51.3939,-45.3158,
43.4176,39.01,27.2763,1.6029,-52.3048,-49.3544,47.5348,16.8717,18.8077,-3.2488,-58.8388,-39.459,-62.4103,-56.6969,
54.9126,22.5694,39.7397,15.6067,-41.7382,-32.2931,53.7558,26.0008,15.0106,-2.5207,-44.0999,-51.1915,-65.5596,-67.395,
65.7178,7.1152,51.4553,28.7703,-25.1339,-44.4555,36.4305,10.3407,0.0099679,-16.4695,-55.5539,-62.22,-75.7261,-77.4513,
75.8747,-7.4117,62.468,41.1441,-9.5259,-54.5094,21.6575,-4.3797,-14.0906,-29.5813,-66.3207,-72.5868,-67.757,-86.9043,
85.4223,-21.067,72.8199,52.7755,5.1457,-52.8397,28.3634,-8.476,-11.1988,-41.9064,-66.7005,-82.3316,-49.5915,-95.79,
94.3969,-33.903,75.6109,51.9228,18.9369,-53.9393,40.5398,4.8426,-4.1224,-25.2921,-62.6985,-91.4917,-32.516,-95.0688,
102.8331,-45.9688,82.2833,39.7333,31.9007,-46.9666,52.2074,7.2211,5.1991,-9.6745,-44.8366,-100.1022,-16.4651,-75.2646,
110.7631,-50.0148,68.8061,29.8769,44.0867,-46.2843,63.175,6.7876,12.3596,2.8712,-28.0464,-108.1961,-1.3772,-56.6488,
118.2173,-61.1139,55.6049,26.4831,55.5415,-57.6073,73.4845,19.7242,25.7181,16.7989,-12.2636,-91.1176,12.8055,-39.1498,
125.2243,-71.5471,38.1686,10.7941,66.309,-68.2508,80.1505,19.6082,37.2963,25.7101,2.5722,-71.5506,26.1371,-32.1307,
131.8108,-81.3543,21.7785,-3.9535,76.4304,-78.2558,61.2415,4.3317,26.5188,27.37,16.5179,-53.1575,38.6689,-28.0676,
131.0636,-90.573,6.3718,-17.8163,85.9446,-87.6604,43.467,-10.0282,22.7924,28.9303,29.6268,-38.6707,50.4488,-18.9111,
109.0998,-99.2386,10.3927,-15.5464,94.8879,-96.5008,39.7029,-21.258,30.4987,29.8633,36.6559,-25.1416,61.5218,-3.6764,
88.4538,-107.3843,-4.3309,-28.7136,103.2947,-104.8108,35.1853,-34.0825,21.1961,24.8688,37.6593,-15.0931,71.9305,-15.9542,
69.0466,-115.0413,-18.1711,-41.0908,111.197,-112.6221,18.9741,-46.1376,9.2496,13.7692,31.13,-28.2875,81.7147,-29.0969,
50.8038,-122.2388,-31.0468,-32.3091,118.6252,-119.9648,3.7357,-57.4693,17.7682,1.7344,24.4581,-40.6903,90.9118,-41.4511,
33.6555,-129.0045,-15.084,-16.2706,125.6077,-126.8669,17.6115,-53.3536,30.8021,15.7303,36.3342,-24.9936,99.5571,-28.912,
17.5362,-135.3642,-0.078966,-1.1944,132.1712,-133.3549,20.5138,-63.4964,31.9339,15.6315,35.7555,-37.594,107.6837,-41.2773,
2.384,-141.3423,6.4191,12.9773,138.3409,-139.4536,14.4791,-64.49,28.4168,5.6197,30.9418,-49.4383,115.3227,-52.9007,
-11.859,-146.9618,20.1339,26.2987,144.1405,-145.1864,15.2114,-55.8173,33.6506,13.2887,14.9853,-60.572,122.5033,-63.8266,
-25.2475,-152.2441,33.0259,38.8207,121.392,-150.5752,10.5631,-46.5966,41.7727,24.7679,5.7685,-71.0377,129.2531,-74.097,
-37.8326,-157.2094,45.1443,50.5915,100.0085,-155.6407,-2.3472,-47.5369,41.9352,22.748,19.5224,-80.8754,135.5979,-79.9697,
-49.6627,-161.8769,43.9038,61.656,79.908,-160.4022,-5.943,-49.4886,38.8852,24.052,9.5883,-90.1229,141.562,-78.9081,
-60.7829,-166.2643,36.9996,72.0567,61.0135,-164.8781,-0.2482,-43.317,44.0248,25.8111,4.743,-70.6155,147.1683,-60.0736,
-71.2359,-170.3884,37.9821,81.8333,43.2527,-169.0854,-10.909,-34.3128,39.2481,12.52,18.5584,-52.4567,144.5638,-42.3692,
-81.0618,-174.2651,24.4943,67.4487,26.5576,-173.0403,-24.3545,-25.3151,29.9544,12.3026,26.2962,-63.4093,149.99,-32.2658,
-90.2981,-177.9092,20.8894,65.5371,10.8641,-176.7579,-18.9341,-9.6962,40.9673,25.6645,27.9209,-45.5048,155.0906,-17.5196,
-98.9802,-181.3346,24.9733,63.7393,-3.8877,-180.2524,-22.0685,4.9855,48.1165,38.2246,40.3457,-28.6745,159.8852,-2.5912,
-107.1414,-184.5546,16.536,45.815,-17.7545,-183.5373,-34.8444,10.1127,50.0334,47.7624,52.0249,-12.854,164.392,-8.3068,
-114.8129,-187.5813,1.4439,28.9661,-30.7892,-186.625,-46.8538,-4.594,45.9639,39.5592,35.1148,2.0172,168.6285,-8.8759,
-122.0241,-190.4264,-12.7428,13.1281,-43.0419,-189.5275,-58.1425,-6.2311,36.8018,36.1181,21.2654,15.9962,172.6108,4.4669,
-128.8027,-193.1008,-21.6742,14.0755,-54.5594,-192.2559,-68.754,8.2427,24.4521,25.9449,34.0895,29.1364,176.3542,5.8,
-135.1745,-195.6148,-26.2451,19.1024,-65.3858,-190.3262,-67.475,19.2684,22.4509,25.9896,46.1441,35.8836,163.1482,9.1883,
-141.164,-197.9779,-17.7318,21.6921,-75.5626,-182.643,-59.6901,21.8481,33.3801,35.6388,39.1943,23.5892,152.8257,7.0357,
-137.408,-200.1992,-5.9927,20.3908,-85.1289,-170.617,-55.0412,21.6052,33.5126,28.163,29.3702,26.4441,151.1286,6.6138,
-115.8199,-202.2873,-14.7067,15.431,-94.1212,-146.2799,-60.8123,14.4376,33.1027,22.7369,30.2766,21.1211,139.3923,12.0878,
-94.7707,-204.25,-19.1623,28.3826,-102.5739,-123.4031,-58.2311,21.0438,45.2165,35.4727,34.8652,33.9538,116.9288,20.97,
-80.7668,-206.095,-6.2701,40.7796,-110.5194,-105.2349,-50.4675,31.5236,40.1463,43.797,22.0981,46.0166,124.013,30.387,
-72.1844,-207.8293,8.2061,46.1172,-95.8814,-94.1172,-36.2303,29.0986,28.6639,32.0956,13.8336,54.0196,127.7808,28.0302,
-64.1175,-209.4596,21.8137,46.0188,-104.2285,-90.0715,-30.3207,20.4141,29.6127,27.5007,16.7399,44.9071,106.014,18.342,
-63.4727,-210.992,27.5326,57.3577,-112.0748,-90.005,-28.5014,23.4587,34.2409,34.3907,18.9378,28.1127,85.5532,22.5787,
-58.5968,-212.4325,35.4881,68.0162,-119.4503,-81.4022,-18.2516,32.7264,37.5239,34.462,16.734,12.3259,72.8584,26.5615,
-50.2774,-213.7865,26.4202,58.6863,-120.1562,-63.174,-27.2974,33.432,21.9289,21.1862,10.9264,25.6863,62.6161,10.8678,
-46.7269,-215.0593,21.0989,50.3618,-124.1557,-50.3097,-33.6656,35.1622,19.0121,21.5161,9.7369,36.1102,44.7591,-1.3039,
-46.0583,-216.2558,28.3729,55.8795,-128.4491,-49.4261,-30.5784,34.1197,26.4108,26.6301,11.2877,19.8436,55.6397,-1.2257,
-45.9636,-217.3804,22.9344,53.0606,-130.8832,-45.9266,-34.6148,29.4041,15.7528,20.2284,13.2793,14.0719,64.5774,12.9478,
-36.8008,-218.4376,22.6256,43.472,-121.9625,-32.4961,-33.6057,32.9771,14.8076,27.5547,6.0776,27.3276,54.2978,26.271,
-27.12,-219.4313,21.2681,33.3909,-102.9025,-26.2763,-37.9943,29.9307,17.1214,28.0364,-1.7598,26.5324,45.7022,14.108,
-38.3031,-220.3655,10.3845,23.9155,-110.8284,-25.7672,-49.5922,17.4602,3.2844,15.6795,11.156,29.2112,28.86,-0.83845,
-41.876,-221.2435,3.8903,18.744,-118.2787,-18.3501,-55.6905,16.9464,1.4857,18.4749,17.4255,37.5996,37.4926,12.7787,
-48.9712,-222.0689,-7.0186,4.8094,-100.596,-18.3168,-65.159,13.7941,5.6666,12.0286,4.6372,49.4436,49.343,23.7542,
-52.4379,-222.8448,-8.7319,0.2508,-94.5598,-9.7451,-65.5195,10.832,-1.0779,-1.5031,8.629,51.592,60.4824,28.734,
-35.4139,-211.4285,-3.938,10.9107,-92.0889,4.9396,-63.7233,22.9921,-6.351,4.9921,17.719,34.3964,70.9535,41.1099,
-25.2829,-191.8039,-4.2356,17.1949,-94.5697,18.7432,-60.4338,31.7536,-2.2338,10.5637,6.5142,26.6838,80.44,45.3599,
-36.5762,-194.3957,-2.914,30.2633,-99.5707,31.7186,-58.943,34.1187,4.305,10.9974,2.9209,39.1828,72.4111,38.3681,
-39.7191,-188.9146,0.46334,42.5475,-83.989,42.492,-62.8789,37.409,10.4519,11.405,5.9481,44.0818,58.459,38.2007,
-29.3294,-178.1136,5.2394,47.5562,-68.8081,54.0425,-53.2345,32.4956,10.3592,2.7146,2.9229,55.5369,50.1481,41.7803,
-32.3737,-181.5268,12.9314,58.8028,-78.7796,55.9152,-39.8991,33.2145,-3.607,-3.3196,0.078373,66.3047,49.8078,40.8749,
-32.566,-184.7352,21.763,69.3746,-75.4317,58.9655,-35.3704,45.3216,-0.18756,10.9796,14.1737,48.2264,52.1568,36.2871,
-25.8082,-186.016,13.5184,79.3121,-58.6297,62.3659,-32.7143,42.9137,13.9237,22.3749,21.1073,31.2328,45.2908,34.6438,
-19.9902,-185.5305,0.96453,76.0206,-63.6519,50.084,-30.7515,28.5961,13.3988,8.2219,5.7409,43.4588,28.4734,32.5651,
-31.6003,-188.4987,8.3794,83.2026,-73.9327,40.674,-21.4336,29.0159,5.1227,5.5941,9.8887,54.9513,20.5828,23.1385,
-38.2445,-191.2888,16.4164,92.3104,-70.342,33.9638,-16.9451,36.8824,12.2878,15.9332,23.3954,37.5542,30.0225,18.5477,
-35.9501,-193.9114,1.3314,74.8058,-72.5267,17.826,-22.3337,23.9942,8.3486,11.7747,7.8917,45.2198,14.3437,23.8401,
-31.1242,-196.3768,-5.4648,64.4468,-70.8435,14.3096,-16.1898,14.5485,5.1788,6.2643,-4.8579,56.6066,8.6792,28.2808,
-26.054,-192.7779,7.673,70.1872,-56.9856,25.1937,-10.9484,20.0805,0.59755,3.7535,6.1085,58.859,11.3612,20.1789,
-26.626,-186.5487,6.1457,60.639,-42.8913,24.7496,-11.359,18.8754,-2.6403,4.5958,7.8767,41.45,-2.1307,18.9685,
-27.6971,-188.6999,3.1083,53.2638,-32.3114,27.001,-11.2116,12.9393,-6.2187,5.9214,-1.6695,43.7666,0.66576,22.634,
-32.44,-184.8499,1.8538,51.1355,-41.048,25.3812,-6.2686,15.3654,-5.8454,0.22862,-9.0418,55.2406,9.166,11.6685,
-27.2913,-182.2993,-3.5947,45.9329,-39.6523,22.7905,5.8502,26.1862,-1.2247,1.2827,-6.3643,54.9064,11.8188,10.9683,
-21.3839,-185.4614,-10.8517,45.3114,-23.1732,32.0981,-1.9735,26.7501,-12.8934,4.4079,0.42257,37.512,25.2097,16.7152,
-31.3097,-188.4337,-9.6667,33.5193,-16.134,33.9088,-15.199,13.9362,-20.1264,-2.7954,-5.4739,41.3552,37.7971,13.0434,
-35.3022,-180.9526,-10.6879,20.2998,-29.2659,29.2054,-15.8882,8.2962,-19.4522,-13.836,-7.8143,52.9739,21.4293,17.0647,
-42.7913,-180.7704,-24.1466,18.0141,-38.4961,28.5209,-23.4749,5.6634,-21.4878,-18.3436,-3.0755,43.7016,6.0435,20.3108,
-46.6291,-179.5317,-29.948,27.6085,-30.8488,30.0121,-18.8639,10.6611,-14.861,-11.9055,-3.9585,34.6747,-1.7916,22.2947,
-31.0214,-168.7598,-14.0511,21.6815,-14.8979,28.2109,-13.462,3.6164,-23.5771,-13.3262,-15.4637,43.2687,12.4159,16.687,
-15.0601,-154.8981,-0.086991,16.6445,0.095997,30.2548,-4.6477,3.9333,-20.5609,-6.6555,-1.192,32.6665,25.771,11.9497,
-18.1151,-150.9417,-9.6892,19.9155,14.1902,20.9666,-8.6391,2.6298,-16.1247,-10.5259,-0.052986,16.6065,38.3247,-2.8673,
-11.1568,-127.7852,-2.1683,26.7275,12.6715,33.8086,-9.7221,5.1407,-1.0572,-0.82073,-2.7184,24.9068,50.1252,11.4047,
-3.5486,-122.4756,-5.7753,11.0238,26.0112,39.0303,-17.1449,-8.5116,-4.4186,1.8979,-0.9542,27.1485,41.4242,20.3282,
-11.8761,-123.667,-7.5638,17.523,18.3566,30.2834,-17.184,-6.9332,-16.9639,-0.35098,1.238,29.7895,24.8388,15.9057,
-19.1697,-123.1859,1.9639,30.5716,3.1552,21.5276,-12.4163,3.6239,-12.2095,3.4057,-0.43735,16.7933,19.8346,16.5525,
-17.4859,-117.3956,-2.957,17.8398,2.1207,17.5673,-20.7454,6.0751,-4.5383,6.9382,-4.1475,23.7921,27.7181,11.823,
-14.3015,-110.3521,-10.2521,6.0942,9.4659,29.3235,-22.7032,1.4409,-6.4013,2.2512,1.4389,36.4646,32.4603,0.43888,
-9.7073,-107.4676,2.6386,19.0724,1.9591,31.3002,-10.1322,2.9555,-5.4833,-1.62,7.2236,20.1767,23.5733,-1.1891,
4.9752,-96.7493,6.75,25.4005,15.719,31.5569,-23.6242,11.3179,-0.88457,1.6797,-3.8845,4.8661,24.2942,11.6925,
2.853,-91.4782,-7.755,9.7765,23.8498,32.3324,-36.3068,3.7005,-6.7026,1.045,-8.4553,18.6741,36.9365,8.3221,
-11.4182,-89.7256,-21.3897,-2.3295,13.3449,23.4536,-27.2786,-4.5282,-12.1716,1.5167,6.152,31.6537,34.498,-6.2773,
-12.1122,-77.9369,-27.1337,5.2822,16.8145,24.1816,-25.6416,6.4188,-6.1038,3.5604,11.432,15.6545,18.3282,4.463,
-17.2563,-83.402,-33.512,-9.1347,11.002,24.3321,-38.2031,5.5,-9.4739,-10.7532,-3.3539,28.8152,4.1069,16.4716,
-23.16,-81.067,-20.2927,-7.2961,4.4705,21.2708,-45.2964,-4.9713,-13.7096,-14.1557,-5.0654,20.9921,16.1368,10.6797,
-19.6352,-68.73,-4.9752,7.2417,14.877,12.5221,-28.4786,-4.6733,-8.6163,0.79364,5.9137,5.6326,22.6411,16.4441,
-28.5987,-69.4101,-0.09481,6.0508,10.2483,-2.3293,-15.7836,-5.994,-11.8354,-9.6176,-8.5411,19.3946,21.8165,12.7886,
-23.1461,-61.5093,-12.3652,0.88437,12.3022,5.5055,-15.3699,1.3045,-11.6597,-20.2494,-12.0763,32.331,34.6075,7.2174,
-7.6574,-51.9474,-5.7524,5.6349,24.9077,13.181,-13.9141,2.8276,-11.4937,-8.8936,0.92459,16.2911,45.119,5.183,
-4.7516,-52.0333,-3.2723,-4.3109,34.0882,11.3229,-26.957,-11.4421,-19.3436,-9.4267,-1.2659,27.5902,32.8041,4.872,
-6.0679,-52.6472,-13.2168,-12.0586,44.3198,14.3799,-22.6704,-9.9991,-16.5821,-16.8675,-9.1963,40.0348,44.9359,12.5861,
1.7689,-44.1511,-7.0861,0.40713,49.1328,16.7194,-7.2102,4.7008,-9.1822,-12.6532,-4.3745,23.5327,56.3397,11.8309,
9.1353,-29.7596,7.4391,8.9229,46.1851,22.1214,-10.2029,9.5335,-16.1037,-12.9615,-0.90955,8.0208,38.8594,3.6486,
2.7156,-32.7779,15.8436,-2.8208,29.314,19.193,-12.2596,-3.3146,-16.7386,-16.9877,-9.9288,17.3695,22.4278,9.3008,
0.41762,-35.0812,9.5552,-4.7865,24.0408,14.8387,-11.524,-4.1835,-12.5321,-14.9012,-14.6708,9.9224,6.9821,18.3504,
13.7364,-19.632,8.448,0.30402,36.6984,28.0484,-8.1637,5.1413,-3.774,-1.73,0.3094,-4.0168,20.6632,14.5806,
5.4395,-23.7918,-3.8011,-9.322,35.8753,18.1366,-3.4039,2.6979,-2.4798,-4.8294,-0.46531,4.7642,26.3618,0.89575,
0.30951,-30.3706,-3.0389,-10.364,22.5142,12.2448,2.6717,7.3396,-9.2697,-16.816,-6.3083,2.877,21.0442,-1.8266,
13.1009,-24.2784,3.5484,-8.6744,35.2633,25.3878,4.6464,13.3042,-7.6457,-10.4688,5.8125,-11.3957,33.8815,-3.852,
18.7201,-16.4165,-7.3397,-6.0192,47.2475,28.1343,-5.2398,9.3035,-10.3895,-1.3015,6.5312,-20.0966,45.9487,-4.6884,
13.3269,-18.6342,-13.3048,-4.5898,37.5629,21.109,-15.6004,8.7453,-18.3061,-10.8306,-7.9607,-4.7908,29.0917,-2.2721,
14.1284,-19.1173,1.5935,1.5562,33.7075,31.0513,-7.7255,21.5649,-8.1344,-13.9174,-7.7941,2.2127,16.9821,1.6003,
18.6184,-17.9703,11.4172,4.6661,41.2928,33.4582,-4.0598,22.4055,-6.5786,-8.8118,-0.92148,-7.5273,1.8632,3.6393,
15.9,-17.4257,-2.6114,-4.6885,40.4166,25.5794,-3.2821,8.7848,-13.123,-8.8168,-3.5348,-0.13704,5.71,3.9546,
18.6823,-8.3743,4.4834,-6.0081,49.2002,38.1446,3.8535,11.9946,-9.6665,-6.6869,-0.6541,-1.7302,19.4674,3.1837,
17.5614,-15.344,8.4844,-7.7831,44.1132,31.8973,2.5545,21.9494,-6.952,-6.2857,5.7901,-12.3014,32.3994,-3.4123,
10.6363,-27.7675,6.3739,-15.322,35.595,15.8834,0.80038,13.6938,-7.068,-10.7116,2.7741,2.5367,25.7404,-9.0789,
12.667,-12.0015,3.3236,-20.2732,47.5593,17.288,-8.3215,1.6633,-9.3128,-12.7378,-6.4662,16.4845,38.2959,-5.8653,
10.8393,-7.7675,-4.349,-20.1246,51.4223,30.1279,-13.16,4.7658,-17.2945,-16.244,-5.011,10.7807,45.917,-8.7162,
14.4591,-8.369,1.2494,-4.8171,39.7968,20.8477,1.7296,18.5798,-8.7838,-14.2019,9.3897,-3.9662,29.062,-11.3957,
4.518,-8.4005,-7.8992,-12.757,32.6053,9.4555,-1.2653,10.3039,-9.8587,-24.5584,2.7329,2.3652,35.5477,-8.0428,
-5.8947,-13.768,-10.0941,-26.0916,34.3851,22.232,-12.3982,-4.4143,-19.4088,-20.416,-4.3704,14.4994,47.5148,1.5131,
4.6003,-11.3406,-2.5493,-20.0341,38.1934,32.1072,-17.5257,-2.8597,-25.1823,-11.1847,-7.8441,-0.47061,35.9014,6.2259,
17.6682,-4.7885,0.27199,-4.732,38.5707,22.1742,-7.4003,10.6557,-12.4631,-8.9125,-12.1773,-9.8271,26.8085,11.724,
18.2092,-7.1701,-4.5482,-8.9398,29.3176,8.5676,-2.1524,12.6853,-7.9781,-6.7761,-13.0478,1.9714,32.1388,1.9467,
19.7858,-3.0035,-12.2812,-22.5035,41.6585,17.1272,-15.3674,-2.1759,-21.5995,-11.1737,-6.3941,15.1967,44.3105,-12.2701,
7.9236,-3.8906,-11.5438,-33.2078,49.0781,19.3023,-16.5798,-6.6261,-23.8181,-19.0437,3.5973,7.8799,30.221,-12.9125,
-3.2267,-3.6571,-1.2444,-17.1154,32.0334,11.7392,-3.8423,7.8714,-8.289,-6.1579,8.7192,-6.6929,14.3077,-1.4628,
1.7705,-3.9718,-2.7701,-17.9121,25.5301,15.8384,-4.1459,5.5755,-3.2098,0.082963,4.4597,-20.3913,27.5493,2.3614,
12.8734,-6.4016,-5.2725,-30.9374,38.0982,25.03,-16.173,-3.8331,-12.0913,-12.1989,-0.61149,-5.0678,36.5713,-2.5839,
11.0332,-11.3558,-4.9567,-22.9875,27.5832,11.7849,-19.4731,-1.4682,-17.7708,-21.0747,-2.7098,9.3363,20.277,-8.8339,
7.7021,-12.2753,-5.1929,-20.0064,11.8282,-3.0221,-14.5683,-0.84644,-16.171,-12.8711,-3.0808,11.4452,4.9604,-18.4452,
14.7127,0.20344,-4.8824,-22.0087,5.4694,1.1178,-24.3697,3.4743,-13.0662,-9.9643,-5.0315,8.623,3.5059,-14.1368,
15.4318,-1.4096,-1.9193,-21.2218,6.7432,11.1926,-24.5079,4.8678,-13.8821,-19.5073,-7.3977,3.302,1.6947,0.81145,
18.7751,-0.25755,3.5329,-12.476,-2.2012,12.6558,-8.9374,2.4409,-8.7794,-14.0661,-2.6841,-10.9961,-12.507,6.4121,
28.8575,9.899,5.9893,-10.1263,5.9365,14.5648,-3.8204,1.7601,-11.9898,-5.2166,-5.1919,-14.9177,-22.7439,-6.2492,
21.7878,-1.3704,-8.4701,-23.6188,17.323,9.4209,-17.6911,-5.8182,-25.3704,-19.0036,-15.5559,0.077373,-7.2793,-12.2793,
15.6774,3.5159,-18.9477,-26.783,18.9528,14.7276,-22.2782,-4.935,-26.294,-21.3774,-7.6829,13.1946,7.2575,-1.4011,
9.399,8.6427,-3.7108,-13.4338,3.7156,12.7761,-7.0643,3.9006,-10.8387,-7.2843,-2.9525,7.0651,-7.2779,-1.3166,
1.896,-5.22,0.024882,-26.7277,-10.6073,7.2055,-20.7405,-1.1371,-14.993,-13.7864,-12.9162,20.7412,-20.9413,-0.70395,
9.2549,-8.1095,-14.0766,-29.7059,-1.5205,11.0431,-33.596,-4.2716,-17.2951,-21.4992,-8.9395,28.3476,-5.5848,7.8783,
9.2338,-9.2238,-17.8123,-13.8236,-13.7046,2.3747,-17.4803,2.9243,-2.1574,-6.8651,5.6969,12.5467,-9.2073,4.7369,
-5.4203,-19.8795,-7.67,-11.0809,-26.2269,-11.8678,-2.8651,0.079731,-5.453,-12.3251,6.2011,-0.79378,-12.3913,-6.7564,
-8.0745,-16.0176,-7.7439,-19.4892,-10.5533,-0.25797,-16.7932,-6.8637,-13.1317,-12.1187,6.3621,13.3538,2.4522,0.58762,
0.94996,-10.7865,-15.8193,-18.3198,1.0667,13.8575,-17.1642,-10.7218,-7.0065,2.7084,0.64316,18.2022,-8.0591,9.0923,
-2.8444,-14.9435,-16.4715,-8.1475,-2.7342,0.52642,-4.9262,-7.4099,-7.1203,2.8563,-13.4954,3.0101,-21.6755,9.0809,
-14.9496,-24.1877,-9.6123,-0.71957,-7.3732,-8.5783,-1.9615,-1.0945,-0.82118,-9.5905,-11.3957,-7.6237,-8.41,8.0025,
-10.3163,-19.0006,-5.2992,10.5317,-3.195,-11.7999,10.4325,8.0453,13.3281,3.2613,3.3881,-6.6322,-10.5745,5.9209,
2.5791,-9.8537,-11.9194,1.8945,11.0967,-7.3556,12.4757,9.164,6.9684,12.1392,6.1647,-1.4306,-11.5409,1.8293,
9.3629,-12.9993,-11.7383,-12.3192,16.6136,7.1858,1.5853,5.9445,-7.5497,1.2695,-8.3051,-1.8784,3.2516,2.2532,
1.862,-14.888,-12.6349,-20.966,2.2732,20.8546,-11.8534,1.8525,-17.5499,-8.9485,-17.1923,-2.2993,0.69868,2.6516,
-0.38467,-7.5897,-18.2828,-15.4376,5.3391,17.0233,-6.8722,-3.5964,-6.8892,-3.0738,-2.0607,5.3109,-13.4432,-0.70973,
4.9761,3.5406,-16.1181,-13.4446,17.8287,13.8669,4.2151,-4.4484,-0.070874,3.5156,6.3811,0.7217,-24.1566,-0.66766,
0.40759,7.5982,-9.8133,-10.5029,2.659,16.2371,-0.30782,-2.0465,2.0684,10.7769,-3.61,-8.9283,-31.2477,8.9801,
-3.3532,4.4737,0.91638,-2.9336,-11.6006,7.2565,-0.82297,-0.32181,11.0179,14.9349,6.748,0.68099,-43.4728,5.7732,
-3.1515,9.543,-2.3398,-0.62159,-1.3853,5.7539,-7.1786,-4.573,0.75009,4.4311,18.0863,14.7401,-49.7148,0.089083,
-1.3616,13.774,-3.8018,1.0161,4.5686,13.415,-13.687,5.8427,-8.369,1.4966,2.9011,5.6266,-39.7933,3.8196,
2.9901,16.1503,10.5263,14.8333,-5.3127,21.1501,-5.393,19.5922,2.8076,8.8795,-11.3729,8.4917,-51.2834,14.2659,
-7.3306,14.6472,7.0043,13.4092,-16.2031,16.1447,-10.9408,13.3908,-6.434,-2.8629,3.4094,12.7863,-43.4028,3.2686,
-19.1672,11.0992,-4.6256,13.1378,-28.575,3.9669,-7.6157,13.1204,-5.5148,-3.2252,17.3049,-1.3249,-46.6705,-2.7989,
-22.2864,14.704,-3.2795,17.688,-18.3197,6.9319,-6.0908,19.8062,6.5591,5.5095,2.1666,1.9576,-57.9703,6.9765,
-24.6863,9.0174,-10.0221,10.7546,-14.5522,8.1171,-8.3947,12.7457,14.1716,1.4423,-2.0111,15.9401,-68.592,10.2941,
-30.1432,-4.8667,-13.1566,12.779,-24.8877,-3.5785,-10.5591,5.0434,9.5855,-7.7183,6.1154,9.4229,-78.5765,1.6706,
-24.0652,1.8298,-2.76,26.1122,-9.2944,5.1757,-12.0611,16.4825,4.7393,5.5548,8.9512,-5.2425,-87.9619,15.6703,
-16.7494,10.7941,11.5056,35.5313,5.3633,16.0748,-3.3311,23.5004,8.1918,17.4983,10.0155,-10.5765,-96.7842,28.8301,
-19.4813,0.0045818,5.2547,19.2994,-9.0585,3.9007,-14.3403,8.7458,-5.6443,2.3484,1.4082,-1.9355,-105.0772,13.0003,
-12.9747,5.342,-1.4655,16.7629,5.585,16.4771,-10.2772,12.4915,-11.7096,-11.8925,6.6615,-7.1571,-84.6725,5.592,
-5.7909,19.1215,5.0281,22.1618,19.3499,29.5885,4.4395,25.6195,-8.8723,2.9211,11.5993,-12.0652,-65.4922,19.3565,
-7.5792,13.4815,3.6584,17.6296,21.791,38.2654,-3.5219,18.7443,-15.8124,-0.76879,0.22809,2.7587,-47.4626,31.85,
-16.7312,-1.4274,-4.0333,9.0996,6.3836,33.8349,-7.5801,8.0129,-12.7287,-10.3294,-1.9206,16.6932,-30.5149,34.2095,
-15.1937,-0.58487,1.0128,22.6536,-7.1202,31.2712,1.9483,18.7408,0.3119,4.3904,0.86326,1.5916,-21.2993,32.6911,
-11.6135,-4.2861,-3.8526,24.2739,-6.1594,19.2536,-2.9727,19.2172,-0.24145,3.9047,-3.9921,2.3413,-5.9213,16.6296,
-16.2539,-14.704,-17.7214,8.7174,8.3102,7.4234,-9.1988,6.3219,-6.632,-10.4296,-6.9549,1.1331,8.5339,1.5318,
-15.2787,-6.3495,-29.2453,7.3499,21.9115,9.113,-8.6469,3.8076,-7.3008,-7.4465,-3.3353,-13.0349,22.1219,-1.8519,
-12.7611,-6.5026,-17.3498,6.3743,14.2804,4.8293,-12.9327,-0.1572,-4.1946,7.1002,0.60116,-18.9691,20.1267,-0.1399,
-13.5968,-10.9161,-11.5046,5.4587,-0.6764,0.80372,-21.2303,-8.1536,-0.20708,2.1809,1.0982,-3.731,10.9133,-8.1374,
-16.5168,-10.7948,-22.0235,4.5976,-4.683,0.22187,-18.3551,-10.3335,-0.72828,-2.7535,-1.6358,10.5929,20.3993,-19.9255,
-19.7963,-12.2821,-22.8371,8.5912,-7.6048,1.2758,-10.8488,-5.444,-2.8196,5.9522,-2.6059,-0.094987,33.2754,-14.4594,
-22.3444,-16.3482,-14.5272,7.5426,-21.2485,-2.5366,-24.2979,-8.8522,-8.5207,1.8592,-9.3877,1.5121,36.9279,-15.1932,
-17.2674,-12.6992,-5.6502,0.15095,-24.0208,1.3515,-32.225,-5.653,-8.5441,0.14576,-12.5608,9.4277,24.5704,-15.8825,
-21.5691,-11.9373,-6.3785,3.3446,-28.985,4.4731,-26.0215,1.0907,-6.9632,-7.3357,-13.9421,-5.2379,37.1962,-2.1196,
-27.2135,-13.8897,-6.5294,17.244,-41.3459,-5.9366,-16.4538,2.6271,6.7982,-13.8337,-10.437,-10.5728,44.8835,4.9457,
-19.1757,-14.124,-1.8676,26.1284,-52.9652,-19.4582,-5.8589,-1.8005,10.6603,0.87355,-4.473,-2.4657,28.0905,-9.2283,
-3.9252,0.8234,6.7847,28.8299,-35.6873,-4.1907,-5.5076,10.0495,1.4809,14.9211,5.4028,-16.4177,33.0326,-3.3371,
10.4103,14.874,3.7085,13.0001,-27.9858,9.1823,-19.2772,9.9801,-6.6143,-0.074129,-1.8604,-27.4865,45.1506,10.9631,
4.0029,6.0643,-5.5874,-1.8799,-26.8405,4.8948,-32.2205,0.30798,-12.0891,-14.1697,-15.0927,-11.7373,40.0845,1.5428,
11.2355,12.1059,-8.4549,7.2187,-11.1301,18.7011,-30.9097,3.4922,-12.431,0.7805,-6.7144,-1.1142,31.274,-7.0897,
6.2911,10.3115,-6.8801,13.1903,-24.5623,17.3565,-18.3804,1.1475,-6.3476,2.8689,-3.109,-9.5876,22.9923,1.8759,
-8.1864,5.957,-7.0009,8.6625,-37.1885,2.2151,-18.8785,-6.9277,-7.5681,-7.4441,-10.9283,-7.411,25.3491,3.3642,
-3.7363,15.2071,1.9594,18.8175,-20.8572,6.0411,-8.1383,6.2981,-7.1143,7.1026,3.6049,-0.56107,31.3012,-6.4451,
6.6292,21.2332,15.9418,31.0326,-23.8758,19.7786,-0.71137,17.1289,-15.761,17.6625,17.4886,-5.3315,34.2262,-4.457,
13.1701,25.8306,29.0853,30.772,-19.7746,32.6919,-3.3373,23.0397,-21.754,11.7986,18.3515,-8.7475,46.2726,9.9104,
12.9135,15.2067,18.8882,16.6493,-4.4881,44.8304,-7.9412,21.1237,-14.5779,6.2871,6.0418,2.9859,55.0167,23.4158,
3.0651,5.2207,3.655,4.4412,-2.3061,28.0406,-21.5647,5.7563,-24.9118,-2.0965,-5.5298,14.0159,37.6157,8.2217,
15.1575,17.1838,8.9957,11.1139,7.9736,21.1095,-21.1158,2.431,-20.7485,9.2384,-2.5289,10.5058,49.4588,6.1275,
15.3161,3.343,4.1862,-2.3627,11.7654,17.7082,-16.6458,-3.0519,-15.2333,8.6844,-4.5119,6.673,60.5913,5.7601,
4.7891,-8.6005,-10.165,-10.7611,3.587,7.0382,-27.3901,-2.869,-19.6568,3.893,5.3663,20.3726,71.0558,-6.3285,
-9.5982,-8.6181,-9.8662,-8.5146,-10.7282,-7.4841,-25.2125,-1.096,-17.9438,7.3958,15.1851,33.2502,57.2743,-16.0896,
-13.6034,-7.0335,-5.0045,-1.5985,-24.1845,-13.7516,-15.1601,2.1722,-12.5969,5.8846,6.8015,17.1552,39.7378,-1.0243,
-18.6588,-11.4154,-14.8453,-6.3064,-36.8334,-0.64994,-16.9193,-3.8292,-23.05,-4.6106,-4.8154,6.2962,23.2535,12.1585,
-20.2076,-15.5338,-14.4879,-10.7314,-40.895,-7.5498,-11.1003,-5.2001,-23.2681,-1.6646,-2.9248,20.0184,14.8309,1.2874,
-20.0632,-17.8048,-10.4167,-4.75,-28.8343,-19.907,-15.7718,0.44842,-14.4,-1.5655,-1.6824,9.5204,5.4003,0.14316,
-17.7917,-14.601,-11.9267,-7.6673,-16.4287,-5.9021,-20.1627,3.6248,-13.5355,-4.6738,-0.51367,0.40969,19.1763,3.3368,
-9.7855,-5.7191,-13.8792,-8.8091,-7.4367,8.552,-13.0816,2.8737,-18.5947,-0.65699,0.050766,14.4851,32.1257,-1.667,
-16.6704,-6.4429,-14.1144,-12.5503,-9.1252,5.1477,-13.3642,-10.1085,-19.6138,-8.0901,2.183,27.716,44.2982,-3.7022,
-15.6707,-4.9896,-10.0648,-15,5.5223,2.7034,-14.6978,-18.043,-13.1002,-10.8074,14.8615,11.953,55.3845,-4.5473,
-0.63043,9.4097,-12.1296,-14.6332,19.291,16.6412,-12.2146,-8.9535,-10.7123,-2.1521,16.6394,-2.8641,66.1615,-0.53864,
11.4617,10.2245,-6.0643,-10.5532,32.2335,18.0893,-9.3465,-6.2816,-7.9349,0.11178,14.573,-16.7923,76.2918,0.56117,
12.9088,12.8135,1.7715,-5.6497,29.098,19.1387,-5.5837,-2.7027,-5.324,3.3071,12.6317,-17.6977,77.1406,1.595,
13.2015,15.247,8.0702,-2.1085,25.2172,19.0576,-2.0459,0.66273,-1.8018,5.2436,10.806,-16.6359,69.3099,3.6343,
12.9435,17.0013,14.5246,1.7539,19.9678,19.5155,0.74596,3.2916,-0.092362,7.5986,8.5563,-15.1036,60.3472,5.0176,
11.633,16.5151,18.457,4.318,15.0336,17.8112,2.3023,4.6952,1.5143,8.7438,6.4418,-15.7985,51.923,5.2504,
12.0025,17.6589,23.7553,7.2609,9.8613,16.7423,5.3667,7.6165,3.5587,10.354,3.92,-15.9181,43.4696,3.8684,
12.8838,20.3357,12.1882,6.2916,19.4115,19.4741,2.3761,13.0304,-0.3912,8.1319,7.4212,-11.2266,46.7333,3.1027,
4.1044,13.2442,-2.6431,1.111,28.3877,12.4343,-6.8406,-1.8515,-8.3741,0.70533,-2.0977,-0.41218,29.8293,-1.8876,
11.8645,15.1182,-0.12676,11.1852,20.813,16.4924,7.6698,-2.5853,-0.93253,10.8039,4.9668,-7.3261,13.9396,11.5693,
9.5512,13.6775,4.6845,9.9805,5.4643,6.4287,10.1896,1.3061,-4.6129,5.352,3.0674,-5.2851,-0.99681,1.801,
8.4445,6.9855,2.8025,0.30805,9.6292,0.17163,6.9096,3.8969,0.46745,3.43,-1.9203,-0.1644,-15.037,-5.2457,
13.2754,9.7688,2.6336,-0.77844,9.0512,5.4988,12.9003,-2.7421,10.0469,2.1562,-2.8725,-14.2545,-28.2348,4.6765,
19.4177,23.2827,12.6177,10.4776,16.5147,17.4455,16.9301,3.2935,4.6402,8.9652,7.4409,-14.7778,-40.6407,5.9971,
10.246,8.8535,-2.2394,-4.251,26.7322,9.4599,3.6377,-5.9785,-9.7382,-0.64606,6.4606,0.20882,-52.3023,-8.4628,
7.4963,-0.2177,-15.2266,-18.096,31.5337,12.0951,-0.85055,-16.2942,-5.1945,-11.2828,6.073,7.9796,-36.9319,-15.7383,
-0.95987,4.5985,-8.4421,-28.3081,17.3649,6.5652,4.0041,-14.783,-5.4175,-13.2749,-0.16228,-1.5728,-41.6551,-6.7887,
-12.1104,-3.6828,-2.0637,-20.7378,7.2499,-6.1045,2.163,-13.3624,-12.0305,-15.1465,0.38108,12.6216,-53.2558,-9.0495,
-21.5256,-11.4687,-13.149,-20.0281,-1.192,-6.2724,-5.9732,-19.4997,-15.0456,-13.7041,5.1618,5.237,-48.7704,-10.1074,
-19.701,-0.63972,-16.0969,-18.2933,-8.0596,-0.025186,5.5933,-17.7956,-4.002,-0.60604,6.4535,-5.2185,-59.1883,0.63942,
-11.0457,11.1414,-16.1979,-17.1952,6.524,11.7191,5.2582,-14.5929,-14.4363,-9.1092,-3.5415,9.1946,-58.8393,5.9388,
-6.6465,8.872,-16.8279,-18.8316,20.2325,25.1159,-1.9959,-13.1837,-26.9138,-20.839,-0.65984,22.7429,-41.2089,0.77886,
-6.2478,7.272,-9.4132,-10.2295,22.3104,37.709,8.7989,-5.9877,-12.489,-7.8464,-0.62076,7.2783,-24.6364,3.9344,
3.7346,12.1736,-15.2531,-1.076,23.107,29.1308,12.5412,-2.4259,-3.1994,-8.4421,-9.1232,3.9505,-9.0582,16.509,
12.0502,9.308,-21.8099,-10.6189,28.1253,30.5849,6.4507,-11.8879,-0.87268,-20.7458,2.0989,10.1187,5.5853,13.3827,
11.3272,15.1545,-8.7596,-14.2518,40.5378,34.0875,6.0637,-9.0391,4.5169,-8.8266,9.4457,-4.5884,19.3502,7.2425,
-2.696,13.7116,-15.1727,-27.4967,49.0919,20.8337,-5.5088,-12.2336,-5.8944,-13.1001,0.87309,-6.76,32.2892,-0.13062,
-2.5342,13.9561,-15.33,-24.0232,36.5386,20.6509,2.294,-13.6346,-10.8785,-17.6518,1.8874,3.2534,44.4518,-5.4605,
9.8944,27.2188,-0.31024,-8.4818,23.138,32.7557,16.2564,0.52784,3.8742,-2.4927,6.5786,-11.0418,47.1661,0.73872,
8.2327,32.302,6.4247,-10.8638,15.3445,28.6551,10.2551,6.9009,5.0198,1.1704,6.1841,-14.9607,36.8637,7.0991,
8.806,21.8239,-3.568,-18.752,18.6938,28.003,-4.2379,0.08135,-9.3814,-7.4398,-1.6597,-3.3881,48.7518,-0.79955,
22.1559,27.9872,8.3888,-3.5268,29.3149,38.0661,9.8941,-5.2608,5.2815,-1.6562,-5.8301,1.0852,57.3467,-1.8188,
13.3538,25.2402,8.9527,-7.808,21.151,24.0394,11.4354,-13.4851,12.4374,-5.8268,-5.4803,-4.3171,39.8059,-1.7097,
18.9576,30.1313,8.4156,1.2005,16.6797,19.3948,7.547,1.424,1.0161,-0.13892,3.3885,-7.2608,51.5175,-0.53885,
24.2251,29.3906,16.4511,9.6689,12.4762,22.5011,19.9042,5.3863,8.4279,3.0717,2.1175,-12.1624,62.5265,-4.777,
18.5016,27.6272,20.8018,3.751,8.5249,19.0155,15.5072,-6.6791,12.1917,-7.7876,-2.2791,-10.3654,44.6749,-4.4909,
14.7234,35.0437,15.8173,-5.5476,7.4802,22.6787,0.47677,-1.4748,-1.8824,-6.7867,3.7285,-6.0071,27.8944,-1.5523,
10.1031,30.2719,15.4014,0.65659,-7.0686,12.2439,6.0082,2.3496,5.1682,1.6263,4.0389,3.4274,20.0385,-15.5592,
5.7606,22.5843,20.3492,10.758,-20.7445,-2.5907,5.1136,-11.8914,13.9317,-5.4104,-2.0753,17.3218,14.0316,-18.6733,
16.0904,30.8364,27.6682,9.0453,-13.718,0.4561,4.8073,-10.4215,5.6241,-5.0858,-3.018,12.3233,27.2897,-3.4529,
25.2663,39.1276,32.9467,18.644,-20.9013,3.0974,14.6602,4.3038,10.0897,0.023507,-3.371,-2.5161,39.7523,0.26832,
9.8726,22.9027,25.6322,26.0658,-33.7472,-11.1885,5.2406,2.2219,13.7548,-4.2474,-3.1683,-0.54149,23.2672,-13.8478,
1.807,8.7181,30.4992,25.5686,-45.8224,-18.8349,2.7906,-5.3846,10.7946,-2.9258,-4.0459,-10.1167,7.7711,-2.1197,
15.7986,21.5391,42.7693,28.8386,-28.973,-5.4284,7.4273,2.9453,8.5455,4.1883,-12.8773,-16.4483,21.4049,9.2161,
26.9053,17.0445,36.245,13.0083,-13.1346,-6.17,-7.1183,-4.7036,-1.575,-8.8724,-13.1714,-1.3614,25.2366,-5.4368,
19.9532,17.0896,22.3281,8.1806,1.7534,-3.6643,-13.9407,-6.5564,-4.6827,-17.9468,1.7189,12.8203,9.6224,-3.8196,
11.2838,29.9414,18.8534,11.9592,15.7482,7.2301,-6.6997,-0.8253,0.93601,-10.466,0.32574,-0.13574,17.8078,10.5096,
7.4045,23.875,12.3844,12.3094,12.7574,5.729,1.1745,3.4937,8.3521,-4.5003,-0.76156,-7.6008,30.8393,8.588,
2.6892,10.6997,3.1004,10.5026,6.6542,0.047523,-8.5037,2.2168,3.581,-8.5003,4.6214,-15.6848,23.4284,7.0054,
-6.0116,16.4627,10.3871,7.738,8.3905,14.1447,-12.263,5.2866,6.5688,2.6852,0.074097,-25.4187,7.9227,20.6851,
-19.5286,12.2722,1.2239,-5.5363,6.8193,15.2087,-17.9327,2.8339,1.9047,-3.8814,-12.7403,-9.7935,-0.86984,14.9512,
-7.6814,7.2664,-12.9495,-7.3386,20.5101,20.7017,-22.1935,10.1366,1.7904,-7.9185,-0.23317,4.8941,-2.9531,16.1897,
-15.761,-7.2696,-22.6253,-17.5738,23.3267,16.2568,-33.6723,-0.078838,-1.5197,-3.1734,-9.8264,18.7004,-16.876,17.3528,
-27.6258,-8.7466,-26.605,-27.1948,29.3994,24.8886,-45.752,-6.4796,-15.5285,1.287,-23.3368,24.3833,-9.2361,25.9188,
-21.6983,-3.9513,-39.1087,-39.6631,41.7354,37.4953,-57.1069,-2.8881,-16.5095,-7.3302,-8.9049,37.0203,5.418,26.4992,
-13.4573,-7.4511,-43.4785,-48.2697,43.8131,34.4892,-53.7695,-0.046684,-1.419,-3.154,-2.4987,48.8991,-7.4062,13.7001,
-17.4535,-9.6727,-36.0662,-48.0426,47.0552,26.549,-47.8747,-1.6447,-9.0294,2.9061,-8.2207,56.195,-10.6972,5.94,
-20.1431,-13.8959,-36.5713,-49.9637,54.3737,19.0842,-30.9023,-2.0797,-4.7512,1.1308,3.4817,60.8297,4.0447,17.859,
-20.0018,-17.3322,-45.052,-48.0326,40.4363,14.7369,-29.804,-0.88715,9.6338,1.0625,2.205,43.0799,17.902,14.6534,
-12.3962,-14.1567,-39.1462,-35.5434,32.6729,19.1899,-26.948,9.8405,5.6318,6.337,6.3427,26.3951,30.9279,21.247,
-18.0574,-17.5773,-39.9991,-35.5453,27.5098,19.1068,-17.8589,2.8456,-8.8061,-3.6505,5.9622,28.4592,34.2762,31.7149,
-18.5753,-8.5168,-37.0655,-37.1489,37.0673,28.1012,-17.321,-5.3315,-13.9268,-5.0333,-0.26643,16.6108,45.5632,26.0756,
-12.6572,-6.4044,-30.0385,-34.3869,34.3101,29.0838,-13.6131,4.0615,-7.2199,-2.0627,-3.9873,6.5401,45.4981,10.4111,
-8.1619,-5.4866,-21.2971,-18.2237,23.1769,24.6696,0.54725,17.9178,-5.1858,-6.7425,-1.079,20.2477,37.9646,3.6032,
-6.6039,1.2481,-8.2765,-11.4812,32.4618,19.9877,-1.6201,7.5474,-7.0091,-18.0807,-9.5542,33.1328,49.5639,7.657,
-1.4046,10.2463,6.3201,-5.9887,29.9805,16.1193,-0.98975,6.5599,4.6195,-10.0568,-12.7173,20.0248,33.2465,9.8667,
-11.9948,3.2271,-2.2883,0.77613,14.0816,1.0522,2.2729,11.5046,6.4778,-4.1161,-9.8188,4.7233,17.1517,-4.6025,
-7.5392,-0.70291,-14.4273,-0.87232,-0.86327,-1.4573,11.2096,14.5507,1.2856,-2.2683,3.0467,-1.2092,2.0226,-2.7255,
3.5886,6.812,0.5383,-1.8867,13.2885,9.3051,3.0648,13.6771,-4.1293,-3.1989,0.72891,-8.6089,13.5554,-0.42697,
-4.0994,11.7405,14.162,3.5637,0.43765,8.7468,-10.9963,8.5865,0.38843,-3.007,-13.4148,-18.7668,-1.3579,-8.9413,
-8.6571,7.2997,2.1026,-2.5215,-13.6886,1.2834,-5.5329,1.1327,5.1692,-2.2935,-12.9213,-3.5408,-15.3765,-5.7362,
2.0037,9.5309,4.6451,-10.377,1.2322,8.145,-4.6673,0.5306,-3.1478,-2.689,1.954,10.7717,-0.35386,8.7079,
1.883,8.959,9.7041,-12.9567,7.5633,12.994,-13.995,0.49927,-6.1612,-7.8654,-7.4596,2.2076,5.2269,3.1591,
5.5069,19.6301,0.04776,-7.3751,-6.2336,17.0185,-16.8917,-1.1321,-0.98838,-12.1976,-11.8162,9.0137,-9.1867,-2.9018,
7.3109,24.8572,-6.3596,-0.52816,-1.5896,13.8619,-15.8782,1.0704,-5.1991,-9.3302,-7.9045,22.5729,-14.2841,11.1495,
6.8723,9.4886,8.122,8.0435,12.6058,-0.84703,-0.82548,15.1061,2.5856,2.9723,-5.2947,10.3213,0.67294,13.6833,
7.5277,5.7165,5.2769,5.4259,9.4916,2.406,-0.99823,9.7075,3.4982,1.7262,-2.842,-4.398,14.2875,7.5255,
1.7388,8.5763,-9.1397,-2.3714,-5.1779,2.2617,-8.4106,-4.975,2.2211,1.6227,-2.6715,9.9659,-0.66975,1.7358,
-11.176,-1.5465,-5.1658,-0.094599,-18.9672,-11.974,-4.7037,-7.6564,3.1551,1.5253,-12.1194,12.5702,-14.7296,-12.4684,
-5.1682,2.8168,0.48087,6.3161,-3.7292,-16.3705,-6.5565,6.6807,8.3035,-3.904,2.4854,6.4782,0.25421,-5.0925,
-6.4595,3.1809,-7.5538,-4.2043,-4.8845,-1.2883,-13.1022,6.813,6.2039,-13.8111,12.4777,20.1895,11.6698,5.3534,
-10.875,5.6596,-0.16149,0.85161,-18.6914,9.2412,-10.7142,3.7361,8.5008,-4.976,-0.54733,33.0781,-3.1304,11.9723,
-4.8853,2.1173,1.9832,5.071,-15.7463,6.5517,-13.2741,0.30967,2.653,-0.40699,-3.7167,18.9062,-4.3211,11.2535,
2.8806,-0.14471,-1.3385,0.49676,-0.70152,7.2269,-19.9499,1.3583,-6.0461,-3.5853,10.3835,3.6718,-14.7363,3.1065,
8.0455,5.2012,-3.3932,-4.8708,0.18604,12.13,-18.7529,5.5473,-4.6156,-6.5724,-0.9145,-10.6485,-27.9521,-2.4176,
11.2991,4.356,-5.8577,-5.1122,14.2749,8.7341,-11.7563,1.4781,-5.9406,-3.51,-14.9596,-5.8282,-16.9791,-8.1444,
19.1601,7.2964,-1.2373,9.0718,27.5184,-0.33097,-4.6465,2.4567,-0.2469,-0.096634,-1.5639,-19.5785,-13.8259,-16.1957,
32.1105,10.0619,7.3774,12.798,39.9673,-1.3778,-2.2322,-0.89296,8.3084,-9.6976,10.2731,-32.5038,-23.6703,-14.1562,
44.2839,9.9918,-7.1652,-2.0699,51.6692,12.0484,-16.1983,-14.9394,-6.2901,-23.2157,-4.4433,-44.6535,-36.3501,-27.4069,
55.7269,23.4923,-8.1139,-8.6625,62.6691,25.4255,-11.2682,-3.6799,-20.0127,-35.9228,-18.2767,-35.4361,-35.5487,-39.8625,
66.4832,36.1827,6.4729,-6.5409,73.0089,38,3.5079,4.5473,-19.4341,-35.4578,-28.4777,-47.41,-47.5158,-44.4984,
76.5942,48.1118,-3.2118,-20.2485,82.7284,49.82,-10.8026,-8.5355,-32.3681,-47.4304,-40.8691,-58.6654,-58.7648,-53.5712,
86.0986,59.3251,-17.1191,-33.1335,91.8647,60.9308,-20.8294,-9.6248,-44.526,-58.6845,-52.5169,-68.5776,-69.3389,-61.5655,
95.0327,69.8656,-18.0047,-43.511,100.4528,71.3749,-5.4797,-6.3787,-55.9544,-69.2635,-63.4659,-78.5629,-79.2786,-71.9716,
103.4307,79.7736,-2.8244,-29.6917,108.5257,81.1924,8.9491,-2.2591,-66.6972,-75.6494,-73.7579,-87.9492,-88.6219,-79.1732,
111.3249,89.0872,-10.35,-28.4438,116.1141,90.4209,22.5122,5.8818,-67.144,-64.1724,-83.4325,-96.7722,-90.1985,-65.3492,
118.7454,97.842,-23.829,-40.8372,123.2473,99.0956,16.7572,5.5294,-64.1831,-60.322,-82.6524,-97.2382,-70.6866,-61.4288,
125.7207,106.0715,-15.772,-50.9741,129.9524,107.2499,7.2123,5.1981,-66.7361,-68.4449,-81.9622,-81.7961,-73.0727,-65.2153,
132.2774,113.8072,-0.72564,-33.8157,136.2553,114.9149,20.8796,15.5612,-48.6319,-50.4605,-72.7745,-66.2124,-82.7883,-47.2024,
138.4408,121.0787,-0.37076,-29.3409,142.18,122.12,29.5464,13.0257,-40.0654,-49.0337,-82.508,-74.5165,-78.1324,-36.5862,
144.2343,127.914,-12.6249,-41.6805,147.7492,128.8928,13.6736,4.2388,-51.7615,-60.1917,-88.0102,-81.2541,-61.1681,-48.491,
149.6803,134.3392,2.2326,-39.4905,152.9842,135.2592,5.0686,2.9162,-56.4394,-54.7566,-68.6296,-80.6488,-71.598,-53.3651,
154.7995,140.3788,1.3428,-36.5879,157.9052,141.2437,6.3659,-0.99463,-48.2499,-45.5998,-55.661,-85.9513,-66.5462,-36.0632,
159.6115,133.6453,-9.9464,-48.4927,162.5309,146.8691,-3.0902,-0.40183,-51.2263,-46.6007,-47.5172,-66.6942,-48.4534,-19.7994,
164.1348,113.8833,-9.3501,-48.0294,166.879,152.1569,-11.4443,6.0273,-43.8822,-43.8052,-37.194,-48.5925,-48.4371,-8.382,
168.3867,99.0445,-0.78224,-31.8036,170.9663,157.1275,-5.9535,11.537,-27.9052,-32.1027,-38.6987,-31.577,-53.5378,-5.2105,
172.3835,90.9668,2.4669,-25.6259,174.8083,161.7999,-0.25955,6.5753,-31.5686,-34.4461,-50.4768,-15.5824,-53.5277,9.2021,
176.1405,75.9021,-1.9506,-35.8305,178.4198,166.1919,-2.379,0.84303,-37.1467,-39.8515,-45.0904,-13.4026,-64.4161,16.9682,
151.4721,66.5438,10.4423,-32.0793,181.8146,170.3204,11.8638,10.9338,-20.8179,-23.3604,-28.285,1.5016,-62.9974,14.3487,
128.2837,48.4512,-4.2842,-37.0932,185.0057,146.0011,7.7274,-3.8222,-17.6571,-24.3171,-19.3379,-12.6885,-45.1176,-0.61218,
106.4867,31.4441,-11.2776,-20.7676,188.0054,123.1411,12.0674,-12.9778,-2.4977,-13.7845,-4.0776,-15.6636,-28.3105,13.524,
85.9975,15.4575,-11.1341,-20.8121,167.7385,101.6526,15.0792,-20.206,11.7522,1.1426,10.267,-0.62375,-12.5119,23.9222,
66.7377,0.43004,-11.0002,-16.8947,143.5742,81.4534,13.6403,-18.4595,20.7433,15.174,23.6173,13.5137,2.3388,29.4245,
48.6334,-13.6958,-11.4079,-12.6778,120.8598,62.4662,20.2951,-14.1497,24.8365,20.224,36.078,6.9206,16.2985,21.255,
31.6154,-26.974,-2.7166,-7.113,99.5082,44.6183,21.7461,-12.7666,30.2859,32.3547,47.2574,20.6053,29.4206,11.9729,
15.6185,-39.4556,-7.8913,-13.0922,79.4377,27.8412,12.9686,-17.3384,26.3327,33.6157,46.5569,33.469,41.7553,20.8622,
0.58137,-51.1882,-0.47873,1.7933,60.5714,12.0707,26.2904,-2.1981,38.8528,41.7406,57.8635,23.5436,53.35,33.7105,
-13.5535,-62.2169,3.2853,10.0039,42.8371,-2.7535,15.9508,4.1165,50.6216,52.5797,63.7761,36.231,63.8479,45.7879,
-26.8403,-72.5839,-2.2485,-3.4068,26.1669,-16.6883,1.1165,-0.39994,46.072,54.7627,56.7473,48.1571,45.917,57.1406,
-39.3299,-82.3289,-5.3163,-1.0669,10.4969,-29.787,-3.221,-2.5115,36.9032,45.0714,61.8825,59.3677,29.062,56.2471,
-51.0701,-91.4892,-5.5315,7.003,-4.2329,-42.0998,-1.4264,-10.3676,42.6949,42.9013,65.1081,64.7455,24.0274,38.7722,
-62.1059,-97.2082,-13.7391,-3.0249,-18.0789,-53.6738,-6.678,-17.2178,50.8081,42.4622,62.2694,74.9608,36.6858,29.7296,
-72.4795,-87.6398,-27.0147,-16.187,-31.0942,-64.5534,-11.0814,-12.4484,41.8888,37.2453,62.2696,84.5631,48.5847,42.0458,
-82.2308,-84.5159,-26.7729,-17.3503,-43.3286,-74.7802,-2.9438,-2.0932,34.0382,40.3479,62.8034,76.3762,57.5009,53.623,
-91.3969,-81.58,-28.3693,-20.5793,-54.8288,-84.3934,-10.2394,-9.4404,30.9277,38.9952,50.4952,57.6936,39.9508,36.3057,
-100.0131,-71.3479,-28.8021,-19.345,-65.6391,-93.4298,-18.165,-15.2789,43.172,33.4523,50.6678,68.332,23.4538,38.7097,
-108.1123,-76.6743,-21.7363,-9.6438,-75.8008,-101.924,-7.4679,-7.9572,39.2917,25.0401,46.5599,78.3321,31.0311,47.0621,
-115.7256,-68.338,-22.0335,-2.1266,-85.3527,-109.9085,2.0538,-1.6094,24.6583,32.6119,43.2332,81.4162,21.1634,40.5015,
-122.882,-65.3049,-23.9137,-14.8095,-94.3316,-117.414,-8.7444,-13.2551,28.5166,30.6546,39.5715,62.4312,8.1513,23.9714,
-129.6091,-62.988,-9.1348,-10.184,-102.7717,-124.4692,-10.8884,-8.7229,39.0814,21.8767,45.2041,61.5763,21.0053,20.0868,
-135.9326,-67.7482,-10.7217,-5.3025,-110.7054,-131.101,-7.0323,-3.93,32.4671,16.2947,40.3568,71.9817,26.151,31.692,
-141.8766,-66.3524,-21.2875,-14.059,-118.163,-137.335,-7.144,-12.7678,27.8499,24.3906,33.1318,53.5628,10.482,26.0541,
-147.464,-53.2977,-23.7461,-13.7485,-125.1733,-143.1949,-12.5867,-15.7376,29.9158,26.663,31.677,36.249,9.0071,10.3909,
-152.7162,-53.3026,-19.1191,-7.5869,-131.7629,-148.7032,-7.5621,-11.5911,25.9848,21.861,29.7759,47.1063,15.9389,14.7928,
-157.6532,-55.9758,-17.4388,-8.7331,-137.9571,-153.881,-8.7097,-8.2271,16.4199,20.0152,23.1862,49.0841,0.88253,21.9121,
-162.294,-42.4754,-19.0611,-2.3377,-143.7797,-140.1102,-6.5852,-0.79482,13.8333,18.2812,16.9909,32.039,-2.1494,21.1315,
-166.6564,-35.1237,-17.3833,11.9026,-149.2529,-134.3732,3.9507,-2.3485,18.8747,15.5829,13.3029,16.4612,12.0796,24.6667,
-170.757,-38.3535,-12.0703,20.0397,-154.3977,-123.1081,-1.6241,-1.1404,16.675,11.4452,16.7747,29.5736,13.8007,25.3222,
-174.6116,-34.9846,-7.0756,11.3651,-159.2339,-110.3839,4.8789,7.4686,14.6067,11.8262,27.5114,37.1851,18.3104,21.6679,
-173.6523,-24.3455,-10.9216,8.5482,-163.7798,-112.3013,18.6861,9.1554,16.9325,7.9144,25.8602,29.6163,31.3117,21.4356,
-155.2268,-23.4184,-12.9349,19.2439,-168.053,-119.6632,31.665,0.60026,14.3152,9.0409,23.7745,13.7393,21.2039,11.0753,
-156.0545,-36.1133,-4.1524,14.3529,-172.0698,-126.5834,39.9955,-6.3749,8.6527,13.3021,21.8144,-1.1851,5.8317,-3.6892,
-132.5913,-25.1843,5.1703,17.2281,-175.8457,-132.9547,35.9939,2.014,10.8027,9.8348,16.7692,12.986,0.36731,-2.1778,
-110.5358,-9.5732,10.1973,25.8027,-179.3949,-110.8774,47.9342,10.4331,11.2217,8.1775,25.3713,26.3069,2.4798,8.6283,
-106.4837,-10.8225,15.4568,31.1931,-182.7312,-99.6434,56.045,7.1385,4.6771,10.3555,22.2476,10.6285,-11.769,7.5765,
-100.6283,-20.314,8.6586,33.0579,-185.8674,-95.2657,39.3387,6.1766,8.1328,9.2005,6.8128,-4.1092,-25.1629,15.1283,
-88.7192,-16.4265,6.5377,33.743,-178.3604,-91.1511,48.187,8.4746,17.7862,7.0471,3.4235,10.2373,-9.5531,17.9564,
-86.5988,-15.4414,8.2799,35.9884,-181.7587,-92.0876,54.903,3.6961,7.1118,7.6915,2.1509,-4.4769,-19.9662,3.0018,
-72.8624,-10.2444,15.2564,32.7614,-182.3737,-79.0896,44.1366,9.8794,5.6173,12.5678,-2.2487,-18.3083,-31.5777,-4.6505,
-67.4234,-12.8325,13.2732,23.3225,-157.3312,-72.2092,40.4206,9.2861,9.5498,6.476,-5.316,-3.733,-15.5831,-3.3047,
-72.4521,-19.0017,9.8072,21.39,-133.7914,-66.2758,48.1368,0.72307,5.2409,7.6888,0.87432,10.591,-21.81,10.9936,
-79.3136,-29.0702,9.7534,14.2357,-139.8639,-68.1701,51.1194,-3.0567,5.4601,12.0311,3.491,9.7332,-34.6014,13.3144,
-76.1562,-27.8596,0.094601,8.577,-124.7557,-66.7485,33.9522,-7.6769,8.8689,7.5728,1.6796,-3.1271,-46.6253,-1.5845,
-71.0521,-27.7889,-12.1869,0.056497,-103.1704,-53.6695,17.8151,-13.0876,12.0736,7.6526,7.4512,11.1605,-37.5109,-11.9416,
-67.3232,-30.9257,-9.8548,-4.7505,-88.6625,-47.7807,24.1304,-11.7688,11.8828,6.6598,10.7395,16.6741,-49.3602,2.8749,
-50.4743,-18.3952,4.8365,9.6345,-89.7477,-51.3194,34.4253,2.8146,10.1016,10.5302,6.8924,1.5737,-60.4986,14.756,
-37.304,-8.2178,13.3971,23.1565,-75.2892,-45.5711,36.0961,5.3148,19.6374,17.9048,9.148,-12.6208,-51.0869,9.067,
-32.3971,-7.1906,2.4524,8.5115,-59.5628,-28.7368,22.7213,-8.3477,12.5872,2.7305,4.8627,-18.8917,-43.2181,-5.577,
-20.3124,2.3144,7.1084,10.6694,-41.889,-12.9126,29.3638,1.2263,2.7589,-8.9538,12.5768,-3.6582,-39.0236,4.5871,
-20.1615,2.175,14.1546,15.3665,-35.8626,-11.5157,40.412,9.6927,6.8624,-0.94383,7.5522,4.3444,-48.4249,11.7836,
-24.289,-6.4949,12.2376,4.8378,-42.2503,-20.4319,23.8873,-2.6311,4.3166,5.5178,-4.6431,-10.0163,-47.6544,1.4699,
-24.4325,-11.9766,8.8347,-6.6611,-38.1139,-17.6047,12.536,-10.4791,5.659,-4.9546,-0.62868,2.0166,-30.6951,-0.21969,
-19.7643,-1.6503,1.9001,-5.1941,-26.2199,-13.3461,19.2555,-2.3776,9.5895,-1.4546,2.6118,-12.2044,-25.3393,-1.2737,
-11.1057,4.8537,2.8534,-0.61251,-11.8362,-10.4104,28.7757,2.0351,6.8786,12.7327,4.5906,-25.5722,-27.0217,-2.2646,
-16.8444,-8.2475,0.54769,-0.57576,-23.936,-12.988,22.7792,-4.4925,-2.0741,14.9487,7.5179,-9.9378,-30.7377,-1.0615,
-13.6987,0.78735,-0.55343,7.9988,-25.7026,-6.871,12.8724,2.1825,9.7931,9.7818,12.4041,4.7584,-42.9934,3.2722,
-3.8027,13.0165,-3.1888,4.8502,-10.0604,-2.7228,17.9714,2.5847,19.3468,11.8635,12.1939,12.4798,-54.5138,-1.7282,
1.2291,14.9041,-0.32889,4.0251,-1.1391,-2.0259,21.6973,-0.23902,5.9092,8.483,10.9282,-2.369,-65.343,4.2468,
-4.1829,3.3344,6.0958,10.1886,-10.679,-11.512,21.4622,7.2475,3.4196,1.5691,2.7992,0.66404,-55.4183,1.857,
-9.2692,-4.3379,7.8651,13.8477,-11.1055,-24.9213,25.5122,12.1504,11.7549,0.40718,-5.9082,4.8937,-66.1932,-12.1321,
1.4278,6.0632,2.5896,17.8205,-0.29781,-9.326,22.3796,10.8878,7.3133,12.6591,-0.75008,-3.4063,-76.3216,-0.19509,
3.4777,6.7672,1.3669,6.0758,0.78781,5.3335,19.9696,5.9645,3.6717,15.1023,0.36216,-17.0791,-57.6423,9.4238,
-10.6087,-1.1111,7.6894,2.5095,-1.3945,-4.2824,20.9069,3.4712,1.3169,1.3862,-6.064,-6.4472,-57.6969,-5.2416,
-13.7081,4.8269,21.328,16.4589,2.4251,-5.6268,22.3211,11.2698,8.1765,-4.5683,-1.9643,8.0397,-68.3351,-4.1712,
-12.352,-5.604,19.8261,15.2481,-3.5918,-16.4978,12.9755,1.52,3.9496,-0.55788,-5.5828,-6.5427,-78.335,-1.2518,
-19.0836,-7.4028,5.8265,3.6587,-3.3758,-25.1157,2.5897,-4.9767,-5.8946,0.54284,-5.2479,-20.2501,-87.7349,-15.2767,
-21.6744,7.1414,2.8083,10.3778,-0.5041,-9.5087,12.5757,8.666,0.33041,-1.0911,9.167,-4.9351,-68.3708,-9.3332,
-23.0436,6.4901,5.3084,7.0865,-3.1435,-9.161,12.3543,4.4091,0.8437,-3.6943,0.92145,-18.739,-68.094,-1.8356,
-7.561,20.2007,19.0899,20.0049,11.1451,-0.60445,24.9576,12.152,13.0694,10.6274,-0.7347,-31.7147,-68.8119,-5.4608,
-9.9982,8.625,16.1209,11.3319,3.3155,-4.8387,24.5274,13.5573,11.218,12.4361,-1.7579,-34.1704,-72.1559,-19.2332,
-12.0664,0.10167,1.0536,7.9844,4.718,-5.0815,20.3871,11.1425,7.8763,-2.4101,-1.1183,-18.776,-58.7525,-7.715,
2.7576,4.8992,-0.9223,6.9712,18.5349,5.3648,21.8325,5.6709,-1.6704,-0.97544,-2.6525,-3.5495,-41.1273,6.8479,
15.7129,15.2797,4.4708,9.7552,31.5228,19.1429,20.5221,8.5318,-7.9751,7.6226,-4.6284,2.3116,-24.5597,-0.72491,
7.8315,21.302,3.6689,4.3662,22.7814,22.5751,7.0144,2.1491,-6.963,-1.9084,-4.8843,-11.9271,-20.3289,-8.6878,
7.8953,10.9498,7.1846,-0.69985,17.6781,7.8765,4.9922,-10.2557,-4.9438,-5.5298,1.2791,-20.5964,-10.0356,-2.2951,
13.8265,17.7655,20.8536,13.4421,30.7174,15.9439,10.0309,2.1013,-9.9845,0.13927,3.3379,-5.2607,4.6665,2.1126,
6.5925,25.2401,12.9751,8.1439,41.4626,29.0873,6.2263,8.3818,-8.3181,-0.93633,2.0703,-14.774,18.4865,-2.2842,
6.731,21.0571,-1.9034,-5.6889,24.8748,32.9916,7.4541,3.0747,5.525,1.7885,7.8175,-16.5562,22.8052,2.657,
7.9275,18.1923,-4.7697,-1.6112,9.2823,21.9385,4.3377,8.7611,-3.8801,3.282,5.7466,-1.4628,7.3369,10.5039,
5.3174,17.1007,9.6165,-0.44675,11.305,22.7572,8.3479,15.7087,-4.715,-4.3871,3.2678,2.138,0.17982,2.4015,
19.0984,23.5469,4.5467,-7.8932,24.7267,32.0668,14.252,8.3602,-1.2299,-18.2239,-0.13153,-12.0903,14.269,-5.2159,
32.0525,36.2341,-1.5964,-7.9527,37.3431,38.1486,17.1328,3.0555,-15.2561,-20.644,-3.8595,2.7352,27.5129,-1.166,
44.2293,47.715,6.5052,-8.0097,49.2025,43.8666,16.6389,6.608,-28.4407,-10.3313,-4.1621,2.5716,21.1471,-3.7657,
55.6755,38.9812,-2.9587,-15.5355,60.3503,47.1054,9.7698,5.6779,-31.0923,-14.515,-4.446,-10.9263,33.9782,-8.3434,
44.5063,29.1701,-3.8489,-16.7383,70.8293,34.6714,16.6558,1.0667,-22.8228,-15.7801,-0.97696,-24.1495,46.0395,-8.9105,
42.9031,31.6899,-0.41525,-13.5995,75.609,19.7811,12.4537,-10.739,-29.9934,-19.1033,-0.91835,-33.375,35.893,-15.8476,
45.1331,39.9289,0.1438,-12.2494,75.8756,32.6942,11.1724,-8.4943,-29.7952,-15.2885,3.9409,-17.2725,23.5981,-5.8237,
29.0815,27.3923,0.66879,-16.3181,67.5867,36.9148,16.3739,-6.3828,-24.2711,-8.4993,-7.5047,-2.1361,17.3786,0.39762,
18.7966,17.2088,-1.5068,-13.2045,54.9915,28.2954,12.1887,-12.4053,-21.7466,-2.6521,-17.7289,-3.5203,23.8086,0.37376,
22.473,17.7776,-0.8823,-12.9454,50.0916,21.7946,16.2615,-10.0596,-16.7059,-1.9589,-4.3893,-17.4091,36.4801,-1.25,
16.8541,17.7787,-1.8971,-19.6419,39.6129,16.2164,11.0153,-10.5238,-18.9058,-12.5163,5.4818,-14.5409,34.6021,-9.7155,
19.5787,23.6496,-4.4519,-20.0647,47.3775,21.1138,5.5503,-12.561,-24.7111,-9.0977,-0.71848,-1.3926,26.6546,-11.8012,
30.6803,33.4407,-1.5157,-5.5162,52.5412,24.6516,18.5619,-3.8009,-16.2893,4.7927,-3.3445,-15.409,31.9945,-3.0868,
29.9073,31.4338,-1.4252,5.4897,35.2887,22.1047,30.2576,3.8993,-6.7715,11.9774,-5.2788,-28.5845,25.8043,-5.0366,
15.3028,15.6705,-0.27146,-4.4469,19.0714,16.5085,26.3077,-0.6036,-8.4997,4.8543,-9.2311,-12.7694,13.5816,-14.3416,
16.5202,20.0675,13.8448,-7.3828,23.7094,11.248,21.5265,-1.6346,-7.9897,-5.0442,-10.8127,2.0968,20.2394,-16.6838,
28.3384,26.3367,17.0619,-1.6021,32.9618,13.7763,14.8971,2.7329,-9.6453,-10.0793,-10.1634,-7.1027,8.3501,-10.3451,
35.1781,22.621,2.1599,-3.6415,28.8496,21.4887,20.4088,6.8389,-13.3376,-6.2718,-1.0147,-6.6765,-6.0282,-0.11714,
43.2088,27.1351,13.2389,-3.9561,26.5845,21.8008,18.6501,-0.51,-18.4087,-7.4969,-0.41965,6.001,7.6766,-4.9142,
34.7454,24.9734,22.5864,-8.5224,25.5231,8.2164,9.5248,-14.5794,-24.2423,-21.147,-14.4945,-5.5682,15.2224,-18.7194,
32.1265,24.0081,16.4271,2.1293,30.9303,13.5948,22.2974,-3.8751,-11.5791,-12.1832,-6.997,-19.3341,23.3831,-5.6312,
32.8676,19.899,1.3415,-2.8015,23.2031,20.7859,9.7509,5.4315,-11.4185,0.82363,-0.70585,-24.3568,32.1215,2.7135,
23.9564,12.8332,-3.8539,-16.7335,9.5346,11.5314,3.294,-7.1707,-15.537,-11.5021,-2.2654,-8.7954,16.8496,-7.5911,
20.3845,18.4687,1.7145,-13.9058,15.368,16.1778,17.1964,-7.8077,-10.3348,-12.9465,5.3433,5.8324,1.7386,-1.7974,
17.5601,16.8264,-12.4883,-20.0111,25.6545,23.213,5.8005,-11.0762,-17.7216,-6.2994,-1.9159,0.76736,15.7343,7.3835,
22.912,24.3578,-20.5904,-25.2149,38.2152,25.0229,-2.0193,-7.2088,-15.59,4.7541,-8.2054,-0.34593,28.8903,9.076,
12.9963,25.0309,-16.1522,-14.0948,43.1723,19.2516,6.6418,-5.7091,-3.9802,-3.0039,-6.6469,-0.32517,22.131,3.1932,
9.5479,21.9281,-1.0831,0.85092,26.4819,14.3601,20.3433,-0.56291,10.3587,3.0482,7.8519,-14.4057,6.7031,8.8735,
7.3736,22.2133,3.0291,3.7798,11.2386,3.3576,5.0227,-4.2655,8.4481,9.8034,7.159,-27.6413,-7.7991,-0.73254,
16.0048,33.1569,-11.2526,-3.3861,24.6643,17.2562,-3.285,-0.27321,-5.4034,12.9516,5.1276,-38.8819,-21.4311,-5.4932,
18.2478,23.6952,-24.6775,-6.3841,37.2844,30.3208,-0.95289,-2.3908,-10.4159,-1.7022,-3.7195,-22.449,-34.2453,-6.2304,
24.091,31.3471,-24.8873,2.0043,20.9474,24.8538,-1.4293,10.028,-6.0556,-7.472,-2.9627,-7.002,-46.2906,2.1498,
26.916,41.2085,-9.5163,11.4917,26.9405,25.4975,9.3314,20.1013,8.4077,2.5841,7.89,-19.3028,-57.6131,16.1208,
22.0983,39.8032,-2.5398,23.6122,35.9985,35.7104,13.0415,16.7607,8.7482,7.7663,2.0794,-23.4829,-68.2563,11.7286,
20.7724,39.5506,-3.4547,29.6682,27.4341,32.5005,13.3263,15.7551,6.0889,8.3675,0.88738,-7.9739,-78.261,2.4849,
9.9189,37.1775,-3.2474,20.4164,11.6881,16.4505,14.6622,12.6753,9.9935,5.731,4.0369,-2.38,-87.6653,14.0785,
6.121,37.0814,7.6219,32.0004,2.6686,13.5508,14.8497,19.3865,7.2584,5.3871,-1.5436,-0.10171,-96.5054,21.7738,
2.551,25.2493,5.0301,38.6203,1.4412,5.265,10.756,25.696,-0.64882,7.1984,-9.9909,4.1744,-104.8151,6.3673,
11.4715,23.2007,-5.4136,34.7022,15.4547,11.8882,10.6442,20.4179,0.99098,6.2329,-5.6551,6.592,-112.6262,-8.1147,
14.5201,19.14,-12.0274,21.4115,28.6275,20.249,0.93248,5.8497,-2.8043,-1.0797,-12.2544,11.0006,-119.9686,-1.8455,
9.3789,11.5861,-3.833,20.1268,25.3975,12.6286,13.6865,12.9705,-1.5688,3.2551,-12.5874,13.5433,-126.8705,-2.803,
6.6812,6.6215,-4.6707,26.3914,15.3342,4.3986,26.9653,23.9355,3.863,9.4648,-0.088938,13.7985,-133.3582,6.9739,
-2.2597,-3.383,-11.8632,19.4707,0.31413,-4.4053,27.2596,12.8911,10.0357,5.6941,3.1191,12.9696,-139.4567,7.6227,
-6.9282,4.8263,0.057658,26.3088,-12.8265,-11.0801,36.8331,11.584,17.4399,6.9544,3.4656,14.8605,-145.1893,-0.84102,
-11.3161,11.4748,5.9251,19.9267,-4.0506,-9.8816,39.4268,9.2881,4.1172,-2.5365,0.58856,11.2998,-138.0334,-3.4597,
0.038321,9.7186,3.4346,6.9879,10.2924,-3.951,41.3317,6.5958,-0.39931,-2.3848,0.55375,6.3523,-115.6514,-2.1844,
14.136,15.0073,1.6276,17.7777,23.7749,1.0897,48.9926,13.1382,4.4283,-2.7754,2.1214,11.842,-94.6123,-2.5869,
8.2615,8.7697,-8.0773,7.1038,36.4484,6.3615,54.593,3.8099,-9.9374,-15.4188,5.1969,12.1997,-74.8356,-2.4317,
2.9611,4.5061,-10.2618,-7.4224,48.3615,1.1762,57.1883,-1.2223,-14.9903,-7.5556,9.6887,15.2031,-56.2455,-2.8204,
9.7226,6.9049,-6.9769,-13.1598,59.5598,-1.5635,52.1561,2.5874,-3.949,1.9724,6.4382,25.5,-38.7707,-1.0493,
8.072,-5.2511,-20.6583,-26.4702,69.2857,12.6303,36.2168,-11.445,-17.8121,-12.246,-7.8253,10.0928,-22.3445,-12.7291,
8.6554,-3.8693,-33.5188,-38.982,74.7352,25.9725,30.8415,-20.3661,-30.8433,-25.6112,-16.9635,13.7567,-6.9038,-19.4376,
17.2097,5.4364,-45.6077,-50.7431,76.123,38.5142,35.9292,-15.4077,-39.7568,-38.1745,-7.9393,27.0313,7.6104,-7.0632,
24.7171,4.043,-56.9712,-61.7985,70.4884,50.3033,19.6734,-21.956,-42.7086,-44.2908,1.077,39.5094,21.2538,4.036,
37.3341,17.9004,-61.7379,-72.1906,80.3591,61.3851,5.9058,-24.9086,-54.2461,-51.2416,5.2824,51.2389,34.0786,17.8939,
39.6749,30.9264,-58.5673,-81.9591,89.6375,71.802,19.6515,-18.6105,-47.0332,-44.4308,0.16182,62.2645,46.1338,30.9202,
33.0249,30.2276,-52.9172,-91.1416,98.3593,81.5939,20.9182,-14.2916,-39.9407,-42.8316,-3.0501,72.6287,57.4658,36.6263,
30.5103,14.314,-63.8422,-99.7731,106.5577,90.7983,5.5631,-20.3728,-51.6443,-54.3617,4.0715,82.371,68.1179,29.6256,
30.8136,13.1433,-74.1117,-107.8867,114.2643,99.4504,10.2557,-24.4881,-60.6002,-56.7491,9.1649,91.5287,78.1308,21.4421,
33.7689,24.6305,-69.2209,-115.5135,121.5084,107.5833,22.9835,-26.7547,-51.0928,-51.7428,3.8109,100.137,87.5429,19.6214,
32.2764,25.8228,-63.4658,-122.6827,128.3179,115.2283,26.4091,-26.7503,-59.2353,-58.7791,3.0486,108.2288,96.3904,32.5442,
23.9354,25.3407,-61.7933,-129.4217,134.7188,122.4146,23.7573,-30.4835,-69.7812,-69.3523,9.2702,115.835,104.7069,38.3761,
15.5606,20.0834,-65.0244,-133.9325,140.7357,129.1698,32.4732,-37.7276,-60.5684,-79.2912,12.4509,122.9849,112.5245,21.9735,
11.9574,16.2098,-75.2229,-124.2952,146.3916,135.5196,44.6248,-41.3353,-64.9412,-82.6292,14.3724,117.9629,119.8731,18.7424,
9.6385,16.8386,-83.2977,-130.1816,151.7081,141.4884,37.4546,-41.5248,-75.1447,-85.6783,11.9087,124.9851,126.7807,31.7179,
12.263,8.3555,-76.1643,-127.7079,156.7056,147.0991,36.2745,-36.8978,-77.3519,-83.7403,14.3969,131.586,133.2738,34.3961,
10.9936,-2.2877,-85.6945,-124.8491,161.4032,152.3731,36.7672,-42.6903,-79.6499,-84.5868,14.0667,121.1113,139.3774,25.3932,
11.9353,11.9496,-87.8023,-131.4581,165.819,157.3308,47.9052,-41.7303,-83.944,-83.2474,10.5541,127.9446,145.1148,37.9696,
5.3479,19.5508,-80.9328,-137.6706,169.9699,161.9909,59.1309,-37.6241,-70.9015,-87.3257,4.0495,134.3679,150.5079,47.2124,
-2.4458,15.175,-87.8195,-127.8986,173.8717,166.3715,58.0289,-36.4349,-71.9846,-93.8299,7.0093,131.1985,155.5774,30.2797,
0.90425,11.0623,-87.8881,-129.8314,177.5394,170.4892,57.7504,-38.5183,-80.476,-98.874,9.791,109.2266,160.3428,14.808,
14.95,15.7358,-79.4121,-133.7842,180.987,174.3598,66.0271,-36.2082,-87.3902,-95.0771,-0.40372,109.3008,164.8222,20.324,
25.0388,21.7312,-84.7887,-128.4258,184.2278,172.8823,65.8024,-35.6361,-96.2468,-92.0411,-5.1836,116.8427,169.0329,18.5714,
9.4365,20.9605,-93.8014,-115.9161,187.2742,155.5707,64.5228,-34.032,-87.0464,-96.66,-3.2712,100.0022,159.067,7.3158,
-2.116,21.8379,-97.0251,-104.6917,190.1377,150.506,68.1237,-20.2479,-70.0814,-94.0636,-5.2099,85.4615,154.8607,6.8763,
-3.0563,11.9876,-88.0009,-109.0847,192.8294,139.3411,78.1363,-9.4248,-63.741,-85.2171,3.6426,94.4339,137.0291,15.0037,
-8.7448,6.4647,-71.5127,-106.277,195.3597,116.8807,82.2989,-9.3939,-64.7212,-83.8404,8.2277,102.8678,118.6655,12.5016,
-6.6182,11.9477,-75.2273,-98.2985,197.7381,95.7678,76.8284,-5.0939,-65.6416,-91.0863,1.8632,100.5212,121.6874,12.2862,
-0.88391,5.8936,-83.5246,-106.5006,199.9738,94.7363,79.6904,2.6845,-62.7703,-93.0939,7.0886,105.1644,126.1279,17.9535,
-0.83138,-1.9322,-77.4454,-114.2105,202.0754,91.1871,70.6395,3.5911,-68.6118,-90.7105,9.8655,112.9545,119.628,17.944,
-1.3151,-0.21544,-77.6023,-121.4579,204.0509,80.9123,62.6647,9.2465,-77.8387,-86.8687,3.4027,120.2772,108.7139,12.0638,
-3.9048,13.8975,-87.0462,-113.5031,205.9078,65.9162,70.1135,14.5631,-81.1742,-88.5952,-2.6728,114.7516,97.388,-0.93591,
-4.2042,21.3813,-92.2756,-108.2938,207.6533,55.0231,80.0067,13.1557,-81.1074,-88.0831,-13.7215,98.7919,85.6739,-9.9544,
-4.4855,16.3621,-76.5982,-114.0725,209.2941,47.9854,89.3063,16.1027,-78.9101,-85.4672,-18.7691,82.7235,78.9315,-6.688,
-16.4922,12.7118,-76.8054,-117.3695,210.8365,31.0062,85.1047,17.8052,-85.3841,-94.4392,-21.3788,70.8215,80.067,-18.5625,
-21.9082,7.6791,-86.2971,-115.6645,212.2863,15.0459,93.8756,21.0068,-81.3283,-102.8729,-24.3661,53.7622,63.5203,-29.1915,
-25.9315,1.8806,-95.2193,-108.7252,213.6491,0.043114,102.3431,25.0842,-79.6518,-96.7896,-37.0041,36.4365,45.609,-24.2378,
-30.2474,1.2341,-103.6061,-105.938,214.9302,-14.0595,102.9183,24.1128,-87.1491,-104.3258,-43.6362,20.1503,31.8857,-28.6554,
-33.2352,-1.5091,-97.7902,-111.8581,216.1344,-27.3159,100.4796,25.3351,-82.4537,-107.1398,-40.4834,16.1836,25.1699,-39.2114,
-42.9838,-3.553,-95.1255,-111.5511,217.2663,-39.7769,100.8563,35.5577,-83.911,-97.5087,-45.5271,9.8743,9.5597,-38.9942,
-43.0734,-1.7384,-91.0183,-112.8649,218.3303,-40.3261,98.5408,38.2274,-92.9763,-99.665,-45.4641,0.20878,-5.1138,-38.2559,
-26.389,1.034,-78.6191,-116.2338,219.3305,-52.0066,104.9047,28.9946,-82.9055,-103.826,-40.0682,-12.0801,9.293,-38.6287,
-12.7521,7.3774,-68.5637,-100.7198,220.2707,-62.9862,112.7104,34.7287,-70.4584,-101.8664,-35.5286,-15.6253,22.8354,-42.7165,
-15.7228,9.6034,-54.3096,-82.4008,221.1544,-73.307,120.0478,46.745,-63.5623,-94.1531,-22.1882,-19.4919,33.7416,-42.8221,
-12.6445,10.0949,-46.7805,-84.929,221.9852,-83.0086,126.9449,50.6556,-65.0863,-88.5044,-17.6547,-24.7274,24.2439,-41.3205,
-11.8863,7.3543,-52.5142,-88.3727,222.7661,-92.1281,124.5322,57.224,-54.7761,-85.3291,-23.0004,-20.0405,19.587,-36.7063,
-15.4431,10.1157,-51.4978,-77.7331,223.5001,-89.758,131.1603,67.8905,-42.9496,-81.2766,-20.5531,-24.1763,13.0746,-37.7067,
-11.3143,16.981,-55.8812,-67.7324,224.1901,-90.7775,134.8111,67.8648,-48.9131,-79.6033,-21.455,-36.6034,-1.8099,-42.9165,
-12.7699,18.0967,-46.1228,-56.1957,224.8387,-99.4308,140.8225,75.5357,-37.4383,-66.2861,-16.9649,-35.4745,-5.749,-42.476,
-16.8078,19.6805,-29.2554,-38.724,225.4484,-103.3836,144.4272,85.1035,-23.9824,-55.3703,-11.1429,-27.4746,-1.6682,-42.5971,
-13.1308,17.9655,-19.1829,-41.9606,226.0215,-101.9847,137.3619,89.3817,-31.6176,-58.9867,-15.2784,-24.2248,-8.5067,-39.5071,
-8.606,16.3535,-32.1319,-50.6515,226.5602,-98.5342,136.0588,83.4857,-32.3891,-51.7116,-19.1659,-17.9682,-10.665,-36.6026,
-12.3602,20.71,-30.5159,-39.073,227.0666,-91.5554,134.3003,92.5766,-27.2436,-43.2722,-19.0837,-11.5524,-0.41834,-39.7441,
-16.4222,20.001,-26.0148,-37.2612,227.5426,-97.2702,133.1824,101.122,-25.0753,-47.614,-20.6067,-17.7973,-7.3313,-37.8931,
-18.106,13.9973,-38.5539,-49.1255,227.99,-98.3731,120.3868,83.9341,-31.5772,-53.8307,-28.4439,-25.8041,-20.9915,-30.8159,
-15.4172,10.4889,-38.1539,-54.4957,228.4106,-86.5983,106.225,73.0277,-30.2156,-54.3368,-23.0004,-22.6535,-33.832,-26.2983,
-9.1555,16.2645,-21.7647,-42.6865,228.806,-80.3357,113.9515,80.3883,-27.336,-44.6726,-13.0809,-23.4303,-45.9021,-31.1254,
-7.5389,22.7614,-19.6138,-35.8553,229.1776,-84.0555,121.2144,81.9695,-28.8986,-35.5867,-18.7016,-36.1244,-48.8861,-36.7306,
-12.9574,17.6594,-21.1051,-34.2376,229.527,-85.9513,110.8284,71.1804,-17.0228,-29.7152,-12.7748,-39.6051,-53.9583,-30.7904,
-20.7199,13.397,-10.2316,-24.7106,229.8553,-86.1315,110.5831,72.2468,-1.9014,-23.6623,0.80162,-30.8243,-36.8435,-25.7403,
-17.8754,17.3973,-1.6118,-16.2894,215.3485,-92.1722,113.0223,82.012,3.8612,-16.3712,-0.84786,-39.1162,-20.5329,-24.73,
-9.8648,24.3599,10.7612,-5.1712,188.3276,-91.4454,109.9773,91.1913,8.4332,-11.6525,-4.5334,-49.0455,-19.5232,-18.4426,
-10.3406,22.8978,5.8451,-0.59039,162.9279,-82.7565,103.3782,90.6125,-1.6805,-17.3584,-8.5319,-42.9006,-30.0951,-20.5382,
-7.5842,17.2544,-5.1796,-1.6227,140.2542,-78.8588,108.9177,89.4463,-3.7137,-13.1146,-10.1549,-41.3933,-29.3561,-18.2382,
4.6136,16.2191,5.8067,8.0829,117.739,-86.9373,101.3164,94.755,2.9146,-8.0577,-13.8146,-53.0097,-27.5947,-4.3339,
-2.0682,15.2455,10.795,9.7329,96.5747,-83.856,83.4942,90.1364,0.60374,-9.7093,-18.3235,-63.9291,-30.2096,-1.9389,
-12.6196,15.399,12.2828,2.7434,76.6802,-73.4874,85.9573,88.9982,9.1075,4.9733,-8.6841,-45.9934,-24.127,-7.1598,
0.41394,18.2104,14.2139,2.0452,57.9794,-68.5446,77.0635,91.6647,14.4329,18.7749,-1.2249,-29.1338,-8.5794,-7.2638,
6.7936,18.1861,16.5638,9.3952,46.3166,-66.5664,78.8441,97.9075,14.6342,18.8047,4.1858,-13.2857,6.0354,-4.6935,
11.1901,29.3707,29.67,22.9315,29.4376,-65.241,88.2135,106.1331,27.8561,26.7505,18.0346,-19.1158,10.5665,-1.7433,
14.2545,30.2771,28.7353,35.6556,18.2859,-55.4552,92.3061,102.745,27.0302,27.8141,18.8653,-13.1658,19.0056,-7.5101,
10.1975,14.3605,22.7412,23.4635,4.3788,-45.7234,72.6678,96.5803,24.3402,21.8753,3.6334,-11.3086,20.0007,-13.4639,
5.3152,7.3167,20.309,36.1557,-9.9839,-50.4522,57.8555,101.4605,36.9798,24.8322,8.9759,-24.7301,5.9902,-5.1839,
7.1318,11.1477,18.0222,36.9668,-23.4849,-49.5606,61.8559,91.1029,37.7414,23.3423,14.8418,-33.6985,-2.9092,-2.7373,
8.8378,-0.19618,25.4813,25.1411,-36.1758,-36.9792,53.8751,71.5367,26.9365,14.4695,7.5463,-33.8116,3.6704,-12.1808,
3.5045,-3.9203,33.0266,34.8412,-48.1053,-42.7663,36.5426,65.8654,32.2599,14.1355,-0.91231,-31.2487,8.2542,-3.4441,
-0.44166,-1.0175,30.5108,38.6221,-59.3189,-54.3004,36.7073,73.1221,38.3302,25.5632,-5.6617,-30.9752,-1.3151,10.8625,
-4.152,-7.895,18.5388,29.3662,-69.8598,-40.1451,38.2407,63.9317,21.9303,19.2253,-6.9234,-36.0563,-7.1076,-0.68648,
-3.3693,-12.2249,22.2301,38.8123,-79.7682,-26.5273,29.0082,60.6294,25.1068,12.2009,2.5656,-30.1565,6.6635,-5.4489,
-4.768,-6.6868,19.2954,41.2882,-89.0821,-36.1447,29.9368,64.998,27.3368,14.138,-2.3909,-32.0825,4.6618,-0.31836,
-3.4147,2.2534,22.4077,36.6754,-97.8372,-29.7061,39.8823,63.2326,11.5965,19.6942,-16.3474,-41.9013,-9.7179,-4.5692,
1.0607,-0.016828,35.1632,45.1498,-106.067,-13.8237,43.8943,60.5064,14.3258,22.783,-16.2126,-52.1967,-8.9126,-16.0373,
4.7334,3.7205,44.0393,55.7844,-113.803,-10.5474,35.3898,58.4769,27.5662,17.6797,-8.3007,-57.0712,5.7222,-18.8114,
13.523,6.1664,36.5933,51.9037,-112.5345,-15.7865,41.2728,54.4346,33.1622,17.1525,1.2709,-61.6533,17.9671,-12.8791,
21.7847,0.99234,46.6745,49.3237,-108.4511,-18.5751,52.8964,53.8372,45.2725,30.2234,11.336,-64.8927,3.5449,-8.3705,
15.674,1.4664,41.2049,51.1678,-116.044,-15.8598,35.6226,46.8706,56.6561,35.6594,5.8512,-55.1283,0.66312,-9.4692,
9.93,-1.2897,24.6327,35.8214,-123.1814,-14.3745,19.3853,31.782,44.8053,26.5818,1.7648,-37.7206,-9.5175,-9.4346,
21.0774,-6.55,27.1133,27.2672,-129.8905,-16.7143,23.2486,28.8083,28.2403,33.5273,0.59118,-24.4706,-23.0465,-5.6663,
19.8118,-14.697,26.5538,29.9011,-136.1971,-15.7115,22.9209,26.0126,38.2876,38.9874,-0.51154,-29.4078,-35.7637,3.2136,
5.2795,-13.2816,27.6297,32.9107,-142.1252,-19.5734,14.6065,16.4445,43.9967,32.9118,0.052776,-40.9869,-47.7179,2.4872,
19.0627,1.6153,32.911,42.1451,-147.6977,-14.6616,20.6692,27.7341,36.5533,34.6735,-0.48401,-34.7914,-54.8624,-4.6012,
28.3721,-2.9739,28.2677,36.9478,-152.9359,-8.9788,23.165,29.807,26.3542,39.5327,-5.2591,-25.7653,-55.3075,-6.9937,
17.0621,-7.0659,34.0439,35.7977,-157.8597,-14.8451,16.4373,13.9185,29.0425,35.0257,-3.8758,-33.8261,-60.5286,-2.3036,
22.4428,7.458,44.8112,44.3253,-162.4881,-15.0216,20.7893,21.8457,40.1099,43.5986,3.8295,-37.1347,-60.0996,-1.0981,
35.1963,9.9905,38.9198,39.5303,-166.8388,-15.1876,13.1365,30.1422,43.0405,48.4555,4.667,-39.1767,-66.1008,-15.1322,
40.8686,8.858,36.0515,40.8953,-163.1437,-15.8777,-1.7517,23.5305,35.655,35.4068,1.7183,-32.0219,-68.0062,-20.9401,
33.6128,13.1301,45.0965,50.718,-167.4551,-14.3914,11.3856,30.1251,38.3193,41.2887,7.4861,-22.0943,-59.1222,-5.5837,
29.4616,10.2068,43.458,58.3494,-171.5078,-14.5951,24.8025,34.722,45.6274,52.9114,11.3069,-25.0386,-58.7776,6.8049,
30.362,6.9253,41.3841,56.4493,-173.5827,-13.1858,10.8152,22.4969,45.5589,43.6421,13.2976,-17.6654,-51.5146,0.52471,
28.5403,6.5108,51.712,51.9961,-164.235,-12.3947,4.8301,19.0126,44.9608,38.8891,14.6353,-8.0655,-43.0854,0.49424,
25.2265,5.586,48.0752,49.4094,-159.185,-12.1851,4.0061,19.4732,38.5263,43.4953,-0.34285,-19.8574,-47.4399,4.2004,
27.4493,10.0544,41.4543,45.9112,-156.573,-6.6504,-2.1061,14.5684,36.7483,41.4192,-5.4383,-25.6051,-46.1944,2.3465,
27.4037,9.9853,42.7039,40.4879,-157.319,-7.8517,-12.1201,3.554,35.0776,38.4,-5.6451,-25.6702,-45.0241,-1.5301,
26.2931,6.7171,44.9443,34.3223,-140.9417,-4.7125,-12.9947,0.6706,27.101,31.2923,-13.3127,-28.9336,-42.8563,4.4325,
28.986,2.0445,39.0454,34.398,-141.0247,-7.632,-0.47284,2.7664,18.0028,23.0098,-23.1889,-41.2976,-44.5554,-0.10289,
41.3468,13.6636,42.0409,46.4341,-146.6632,-11.4441,1.691,4.7349,22.2598,35.7292,-14.3259,-52.9197,-38.6793,-5.435,
40.2446,18.7161,51.7943,54.6349,-151.9634,-13.426,1.0554,7.1194,35.0242,47.6855,-0.12222,-51.9681,-33.69,2.898,
28.7558,9.5863,56.6925,51.8899,-156.9456,-16.3574,15.0921,13.6308,47.0228,50.7843,1.4865,-47.2486,-34.3372,8.5955,
31.8346,7.4098,58.0951,50.3779,-161.6289,-18.0445,17.1666,6.9416,45.3582,45.0686,-1.2713,-44.9478,-23.2028,-0.99435,
27.789,2.6952,63.1493,45.2207,-166.0312,-19.0964,5.4621,-7.3521,43.704,46.6345,-0.1278,-55.0609,-19.6762,-11.6092,
26.1222,4.6685,66.8326,56.6075,-164.032,-14.7483,14.7411,7.189,55.1817,55.5786,7.3521,-59.2305,-21.6979,-6.6431,
38.6549,12.9289,66.0259,67.311,-157.3913,-11.7284,27.9566,20.8577,56.9863,59.7171,6.9115,-54.6079,-22.531,2.2959,
46.2536,15.889,70.0702,71.9009,-162.0478,-9.4234,28.7266,23.9648,46.6275,53.4645,0.62542,-54.0011,-22.7805,1.6241,
42.4117,18.1379,68.001,69.7218,-166.425,-4.5885,16.327,15.0547,40.6276,52.3916,5.9256,-47.5588,-25.6831,-1.6756,
46.2725,15.9824,64.9892,74.0785,-153.3258,-2.1777,17.4829,20.5569,45.6627,63.1263,9.8401,-35.097,-32.6821,3.7622,
43.4956,19.2939,73.8993,71.7688,-151.5995,-3.1148,19.6361,19.323,43.9907,63.6082,-1.4253,-29.7889,-23.249,4.6042,
33.4131,20.2708,76.9371,67.4627,-156.6035,-15.7378,17.3907,10.6908,45.6202,52.319,-3.4753,-41.8798,-9.0441,-5.2803,
42.6169,16.3859,78.1932,75.6907,-161.3073,-24.9349,22.2186,12.719,56.2271,53.984,10.8332,-43.1029,-10.1028,-1.2266,
40.0599,6.8628,59.6234,64.7448,-161.3257,-19.1688,11.2783,8.7531,44.3135,48.6095,4.0901,-40.5167,-9.4966,-1.153,
29.65,2.7146,52.3096,49.651,-159.6525,-15.3496,11.1352,2.3561,47.5266,45.1593,2.2428,-39.6866,-1.9877,-4.8202,
19.3315,-7.056,49.1716,49.8742,-156.4783,-28.5286,-2.3434,-11.8853,44.6745,42.4502,-0.026738,-38.3732,-8.2734,-1.3288,
7.4961,-18.3753,34.4785,39.41,-161.1896,-29.7974,-16.3028,-22.6916,27.894,33.4977,-6.4296,-29.6653,-12.047,3.021,
7.581,-7.131,35.0789,37.5791,-161.4363,-17.8677,-13.5009,-7.2301,29.1123,34.157,0.89528,-24.149,-8.6561,0.17159,
10.862,3.4383,47.0742,49.4243,-142.676,-17.3297,-3.6168,7.3037,41.4655,45.4517,4.5774,-21.0987,-6.5354,-1.4401,
9.143,-7.4435,46.6956,51.0402,-135.1837,-26.9654,-7.6698,-7.2345,38.2207,42.7246,1.1,-17.6983,-12.5477,5.0508,
22.4717,-6.9969,32.1521,41.5723,-121.7344,-13.6048,-9.3451,-11.2927,31.6574,30.5528,-1.1005,-19.8391,-11.7948,4.7478,
25.3934,-3.3744,29.1548,39.0779,-111.2286,-3.1813,-14.1216,-2.0762,30.8252,30.8552,-2.1027,-30.3915,-4.6827,-1.9416,
23.3361,-9.0438,41.5055,49.0096,-117.8985,-9.9285,-0.99796,0.71751,43.0757,43.1039,8.1653,-39.7761,-2.8009,8.3158,
34.7464,0.040367,53.1151,60.169,-119.3641,-10.3995,10.8051,4.945,54.5912,54.6176,20.4859,-38.4573,1.6377,8.8846,
43.8697,10.1788,58.0231,70.6589,-106.3314,-2.8374,20.2977,15.8574,63.6816,65.4406,26.1948,-31.3462,8.4785,3.5479,
30.5621,1.0271,58.8118,66.5079,-107.4242,-10.1399,21.2143,9.5677,64.1307,67.2518,23.5559,-30.5327,9.0371,4.4022,
17.5192,-9.1754,52.6139,59.8483,-115.0788,-21.8079,8.7323,-5.1064,54.411,55.2103,19.4734,-32.4371,-2.7143,7.8745,
27.1436,-4.3549,54.7953,70.3574,-122.2741,-19.4322,18.8839,7.6991,56.4846,65.7749,19.3723,-29.4236,-13.2259,8.4693,
36.7246,2.845,57.379,72.8528,-124.0998,-14.5294,22.555,20.5813,56.8314,69.8353,14.4741,-20.7196,-11.8992,3.158,
36.6561,2.6748,55.004,57.8077,-111.316,-12.5898,12.6622,15.0759,50.2193,52.8357,11.4706,-21.6104,-11.1847,2.968,
39.2603,10.5207,53.3046,61.2773,-96.6317,-2.7609,18.8406,18.975,53.077,56.6037,14.5188,-25.1184,-11.0473,8.6608,
35.8365,14.1584,44.7691,60.8024,-101.5093,-13.2707,15.5746,14.6337,49.8923,58.5447,14.7149,-24.6786,-3.98,6.0066,
29.9499,6.3708,55.4266,53.4189,-109.5188,-26.5744,7.7021,1.4793,47.4324,51.2956,17.5684,-30.137,10.3588,0.84264,
21.7484,-4.6859,60.6409,56.6193,-117.0476,-33.8308,-3.4345,-7.1484,45.6547,45.0162,9.0425,-42.4287,11.1164,-7.7479,
24.7135,-7.6075,47.3953,53.2211,-124.1248,-17.7009,-9.634,-7.7877,41.8472,41.2469,4.229,-33.2558,-3.6506,2.3242,
30.7034,-1.8138,38.146,40.4206,-130.7773,-2.5389,-13.3259,-11.5905,28.6619,29.1649,6.1107,-17.3822,-9.6143,12.8602,
22.9894,0.96414,41.7292,34.259,-137.0306,11.7134,-23.7355,-13.5631,20.0031,23.6786,-0.12778,-30.4392,0.036203,1.9468,
19.475,-5.4987,43.4949,42.8784,-142.9088,4.4719,-13.7708,-2.0744,32.9029,36.3579,5.2176,-42.7129,-7.4382,-1.3723,
17.7734,-5.7029,42.4866,54.4057,-148.4343,-9.8964,-1.736,3.9214,41.915,43.0283,6.5059,-49.3128,-21.0919,-2.8913,
14.0379,5.8484,54.0374,65.2414,-153.6282,-4.8103,-2.1655,6.3543,31.3938,46.3174,8.7847,-47.9559,-22.8069,-10.7242,
12.1284,5.4975,57.5115,48.0719,-158.5105,-7.7245,-12.711,0.63578,35.9156,37.1339,9.3249,-59.1785,-7.5602,-14.3507,
25.5006,4.633,42.8517,42.5195,-151.8005,-9.9301,-21.022,-7.4087,37.4971,25.8313,2.8935,-67.6814,-4.4385,-9.7533,
21.6133,0.61966,39.7469,41.5692,-145.3616,-5.5979,-22.4298,-11.7678,26.1736,28.0177,-4.2182,-67.3569,-5.7731,-17.1745,
9.6405,3.7837,39.4971,41.21,-143.0449,-8.4643,-28.5572,-12.1295,29.9399,34.8762,0.30437,-60.1132,2.0456,-15.0773,
9.0626,11.0299,33.9251,39.8051,-139.7999,-9.0242,-26.8433,-8.1995,42.0213,28.5141,3.4894,-42.6287,2.9906,-0.072648,
5.3166,5.0314,40.43,39.5518,-145.2886,-12.7522,-11.1327,0.83297,40.5677,33.2093,0.077766,-33.665,-7.8638,-2.4245,
6.599,3.1281,51.3483,50.5228,-141.3754,-18.9257,0.52261,-1.8856,40.8023,45.3167,5.9434,-37.5165,-10.0606,-1.746,
1.3989,-5.0664,37.0578,50.1601,-146.237,-31.1343,-6.4484,0.89613,44.2255,56.6977,6.121,-47.5423,-23.557,-1.1071,
5.0514,-4.2288,35.368,53.0213,-140.1319,-20.1926,-8.7296,14.9424,44.2411,49.1139,7.3546,-37.7507,-29.394,-3.7098,
6.3497,-2.3737,33.78,49.3059,-121.5826,-15.2452,-18.3472,28.1458,31.4453,40.2957,5.3119,-29.6143,-13.5304,-13.6285,
-0.43681,-3.2985,38.1577,45.2803,-121.7604,-26.0722,-23.6518,40.5571,29.5586,46.4179,4.9932,-29.9729,-3.8672,-11.7436,
1.7244,6.5071,33.7332,44.6985,-118.7243,-19.1701,-30.7722,52.2236,34.1901,43.6334,7.8969,-16.4313,-11.1074,1.7715,
3.7559,0.77895,18.8998,28.1389,-103.0603,-9.4804,-31.0608,63.1902,26.8009,26.9154,6.3553,-7.9732,-4.036,5.9357,
3.5311,-1.4028,26.3063,28.5865,-102.2144,-14.2483,-25.995,73.4988,23.0579,20.185,1.7045,-10.697,-1.6588,2.3773,
-0.95078,2.9514,31.1324,39.6803,-107.8243,-21.9344,-35.1107,83.1889,20.6071,18.9739,-5.8715,-3.6507,-0.49207,-6.3063,
-10.502,-11.3257,17.5217,25.5568,-98.1531,-27.0239,-46.8813,92.2976,16.168,9.2955,-10.8565,-5.5672,2.7402,-14.4679,
-17.3441,-21.0984,10.0654,19.7539,-91.1952,-24.3347,-49.4062,100.8597,16.2656,7.67,-9.1373,-19.3332,1.508,-11.4648,
-21.6407,-24.1035,18.0015,28.1759,-99.8235,-25.0091,-40.0363,108.9081,15.2897,16.817,-8.5891,-26.4909,1.4176,-3.3042,
-28.3491,-28.5276,28.13,27.0194,-97.3481,-33.6499,-33.8983,110.2907,19.1754,11.0049,-7.5396,-35.0418,7.2039,-10.0446,
-30.9181,-25.7487,23.2405,24.331,-82.9673,-20.9564,-39.3371,99.4032,16.9577,0.73635,-7.0872,-41.4792,12.1089,-13.7119,
-25.8603,-14.5966,20.7778,32.4784,-85.462,-5.599,-31.6386,97.709,11.6702,14.7922,-9.8647,-37.9232,0.70787,-3.2819,
-23.7746,-8.9166,25.4025,44.6297,-90.4756,-10.289,-17.4645,103.0551,21.1113,28.0046,0.8685,-38.3165,-9.476,2.7863,
-29.2867,-17.4558,25.4797,48.1346,-86.6484,-21.9475,-19.0852,92.0677,26.7833,24.8126,5.6205,-42.9561,-7.306,-5.3867,
-13.4295,-11.6043,25.5523,39.3752,-72.3754,-6.5306,-23.8115,80.6722,19.3049,13.1825,-3.7908,-31.3056,-9.5363,-2.3949,
1.4763,1.3683,18.1483,37.5463,-64.2965,7.9612,-28.2536,76.3666,12.2758,25.7351,-17.6634,-15.3273,-23.0641,7.8907,
-2.2606,2.353,14.9234,34.2258,-70.0465,21.5835,-26.5589,70.7158,13.6742,30.596,-15.8477,-18.3663,-26.2626,3.1467,
7.4838,7.5505,24.704,46.0499,-66.9114,34.3885,-22.8304,68.6089,14.9888,24.4907,-0.79682,-7.6566,-10.5869,5.0929,
9.7029,0.15839,17.3499,39.5506,-68.7676,38.3737,-29.4669,58.6205,9.2858,22.4877,-7.9104,6.9028,-10.7065,6.3882,
0.58019,-9.4588,8.8366,26.5026,-76.3848,31.8018,-31.9684,48.6982,12.9981,27.5434,-15.9753,12.1372,-14.3346,1.7354,
3.2145,-0.88496,9.9073,21.176,-70.1998,30.4273,-41.2594,38.8372,6.3474,23.2217,-10.2131,16.2126,0.62545,9.6367,
0.88664,-4.0341,6.1106,18.8387,-74.5273,23.2639,-49.4588,32.2375,3.8316,20.7616,-5.3298,12.0376,-4.438,13.329,
5.1034,-3.7931,3.6085,25.1801,-80.7322,11.1926,-43.2896,17.4933,12.1417,21.6494,-9.2811,-2.5619,-18.2717,3.9892,
10.1345,-1.43,13.0002,24.7376,-79.09,13.7238,-36.4212,2.3437,15.6831,21.4187,-4.4542,-9.8809,-9.4809,-0.5201,
2.0537,-13.0869,15.4219,22.1851,-80.7501,5.4276,-37.4387,-11.8969,15.8094,12.6608,-0.9842,-23.388,-1.4393,-6.8944,
7.8028,-8.5648,13.9635,30.9953,-74.3037,-3.9711,-33.591,-25.2831,18.5977,13.5026,-3.5938,-26.5661,-5.0898,-11.2838,
11.6046,-4.8492,19.5312,27.0011,-73.0472,1.6044,-28.3728,-37.8661,21.7518,23.3679,0.89185,-14.2966,-13.3244,-10.6068,
2.3679,-9.895,20.4943,22.1788,-72.9349,7.9131,-36.2781,-49.6942,14.0417,26.2353,-4.4994,-5.9666,-17.8617,2.8391,
-0.97644,-12.5045,11.7914,20.8476,-79.2337,-5.3722,-42.6419,-60.8125,7.8615,21.4589,-9.5672,-14.1491,-15.7232,5.872,
1.7508,-12.2874,8.4153,21.1981,-84.6211,-9.8529,-35.2793,-71.2638,19.6656,28.1773,0.08096,-19.1715,-7.8412,-0.3517,
-3.6925,-10.4829,13.2476,22.0607,-77.4093,-1.79,-44.9053,-81.0879,16.3502,25.4194,-2.0594,-9.4813,-2.0335,1.8039,
-8.8077,-11.9889,17.7905,22.8731,-80.237,-7.0194,-45.4132,-90.3227,12.168,17.4892,-7.2726,-13.1819,-9.3827,7.0334,
1.8621,-8.601,16.1889,28.4393,-85.5641,-3.9296,-36.817,-94.1104,22.6465,13.7713,-4.1676,-20.3978,-6.1511,3.9428,
3.3507,-9.6863,10.4145,19.7933,-70.2889,-6.3624,-40.4794,-91.1324,20.7536,9.2081,0.88658,-16.5043,5.4265,-7.5024,
-3.7879,-10.7065,16.7282,19.1398,-61.2675,-16.122,-32.1792,-89.4003,28.5825,16.6625,13.1092,-13.9127,6.7023,-5.4509,
-12.6352,-9.5305,15.1909,19.5933,-66.6655,-17.8238,-42.5248,-93.1099,18.8612,10.8591,0.046328,-27.1779,5.7665,-6.7257,
-16.6802,-15.8972,0.93537,4.3177,-57.862,-11.9503,-54.0733,-97.6646,3.6295,-3.8924,-14.0565,-38.1349,12.3592,-17.5308,
-7.6731,-18.6798,-4.9916,1.0782,-40.2903,-8.5641,-47.4039,-88.0694,-1.7032,-2.3694,-2.3153,-32.1115,18.5557,-23.418,
-5.6118,-21.2954,6.516,12.2226,-34.8929,-3.2467,-41.8916,-73.7106,11.7426,5.7792,5.83,-18.9757,17.977,-14.0066,
-7.9442,-22.6857,20.225,14.1574,-44.0074,2.819,-39.9117,-65.5516,12.6389,3.8316,-0.39068,-10.898,17.432,0.93381,
-11.7376,-21.3246,5.4462,4.7679,-52.0424,5.8526,-44.9887,-70.1585,3.3406,1.4662,-4.6372,-21.9869,21.7233,0.12239,
-15.8364,-25.9165,-8.9806,-3.524,-56.9257,-0.36994,-48.1608,-71.8204,7.9442,7.2496,-3.8259,-29.7408,22.0213,-8.9591,
-15.954,-25.4292,2.9891,0.95693,-59.9152,-12.09,-44.2044,-58.9717,14.9398,13.2196,-0.39308,-18.3496,14.295,-6.2865,
-15.5309,-19.0994,5.4784,11.0409,-62.1916,-10.8315,-39.9507,-49.562,22.0503,16.1633,1.2309,-8.1745,9.7005,-2.1735,
-18.8685,-22.2239,3.0147,12.5134,-64.8651,-10.1811,-31.1487,-50.8578,28.1995,18.3957,4.3593,-10.8863,5.9162,-3.1108,
-19.8719,-17.6877,11.3738,12.8299,-58.8382,-17.0429,-39.9543,-48.8746,22.2375,17.292,6.2332,-13.4359,5.5612,-3.9914,
-17.0777,-16.0928,8.0232,15.7964,-62.247,-16.554,-50.9006,-45.4074,20.3697,19.9908,6.3928,-15.2988,1.4912,-5.3528,
-14.4522,-22.0664,0.60273,12.1805,-61.1808,-10.7571,-43.0429,-40.0149,19.6811,18.2577,7.6111,-14.9145,1.9353,-2.3625,
-22.125,-20.7414,-9.0407,-2.6503,-47.9023,-7.9762,-52.2031,-48.2885,5.6903,6.4868,7.1545,-10.8169,15.9192,-2.2207,
-23.4666,-12.5588,-14.3701,-10.2749,-47.6967,-4.8295,-52.8073,-39.5203,13.3552,8.7667,2.9888,-8.567,19.5459,1.6489,
-15.6537,-11.8058,-15.6429,4.4416,-58.9349,-3.472,-35.5388,-23.0491,15.7561,11.4429,-5.731,0.48749,4.4954,4.7522,
-7.7753,-11.63,-4.5624,15.161,-48.238,1.5399,-25.6224,-35.7661,3.6017,14.4927,-0.58351,14.5582,0.48933,7.1362,
-13.1797,-11.4669,-1.6206,9.4477,-38.4051,-0.15332,-34.2269,-47.7202,2.8519,22.6968,4.2551,14.5292,-8.6136,-1.2994,
-10.2544,-4.3734,8.0839,21.6908,-44.6407,-0.14412,-35.3761,-58.957,13.3563,24.5377,3.9998,6.1857,-11.2996,-0.15316,
-0.031398,-10.516,16.1393,21.4571,-48.3673,-2.2705,-26.8485,-69.5195,14.6899,13.4577,3.7603,4.7468,-1.0139,6.261,
-8.0359,-15.7559,1.071,16.4333,-47.0661,-6.9379,-38.5802,-79.4484,5.8022,12.1166,-7.6734,-7.8143,-0.41941,-4.2555,
-19.2964,-15.8788,-12.1141,21.8518,-48.5126,-10.7916,-40.5364,-88.7815,12.9268,19.9296,-2.944,-18.0209,-8.9342,-8.2712,
-15.47,-21.8646,-4.4497,16.8048,-46.136,-12.8137,-34.3683,-97.5546,15.887,12.8625,8.4412,-16.4056,-2.5268,-0.83629,
-10.2719,-16.2828,-9.5199,1.6965,-29.2679,2.0551,-42.9807,-105.8013,0.83381,3.5508,-1.6725,-12.2195,6.1648,7.7539,
-16.5941,-4.0972,-15.8873,3.4179,-34.6727,16.0318,-39.8677,-113.5532,2.6069,12.4118,-10.6462,-1.344,-3.2792,12.0928,
-17.7335,-8.1209,-3.1919,17.3128,-46.6923,6.619,-39.6107,-120.84,6.721,19.1393,-12.1425,-1.2638,-7.3519,-2.7328,
-2.5695,-18.8422,8.2093,22.9914,-33.5266,-7.1212,-42.0381,-127.6896,10.0546,16.3896,-9.8125,-15.288,-8.5122,-15.6896,
11.6847,-7.0367,11.9862,19.4769,-17.415,1.8455,-25.4159,-115.6684,23.3281,16.474,-2.8188,-28.4707,-11.2037,-0.64827,
-0.13694,0.32411,8.5984,20.9759,-2.2701,-3.0693,-13.9718,-118.8707,13.9225,13.8842,-6.3855,-12.6625,-16.4039,8.2414,
-4.3972,-7.1676,11.2857,25.0561,11.8329,-16.9852,-23.8085,-108.5352,6.6822,23.7261,-0.66465,-6.3417,-16.4864,-6.353,
-2.5325,-13.6766,7.9395,24.0864,12.7238,-30.0661,-29.3191,-90.814,10.0176,19.6334,2.0433,-20.0612,-12.8281,-14.8232,
-2.9147,-8.0519,9.0645,26.377,-1.3833,-24.6138,-19.5531,-84.832,15.2879,17.9223,-8.2196,-14.3658,-11.5253,-1.6569,
-4.3407,-3.8334,14.3915,22.1253,-0.76715,-11.9289,-15.7118,-86.6802,9.566,22.7178,-14.6655,-14.0379,-18.8401,-4.2266,
0.18926,-0.4012,10.3257,14.3928,12.0888,-14.4154,-27.5796,-84.6827,1.5198,14.9497,-0.97615,-19.6007,-9.1692,-18.073,
0.71204,-6.2475,2.7676,5.5234,1.2227,-20.4891,-33.9306,-80.1348,9.4355,7.1142,4.9538,-9.3505,-1.6805,-20.5022,
-10.5403,-8.5423,-3.2708,6.7923,-12.9507,-18.7266,-34.5634,-73.7264,7.267,9.3559,-9.4434,-8.2564,-4.2482,-6.9963,
-16.3124,-9.097,-5.2091,9.5875,-10.35,-14.4003,-43.1651,-74.64,-7.269,4.5246,-15.5927,-17.3682,0.27664,-12.982,
-4.1245,-13.3548,6.3126,8.4787,-1.7226,-19.4071,-31.5006,-73.898,-9.2782,2.6522,-0.5571,-25.3997,1.8609,-15.9384,
-2.8098,-12.5535,5.9338,1.5655,-1.6198,-21.4454,-32.8133,-72.6669,-3.3843,3.5603,-3.4156,-23.8762,0.68201,-6.4432,
-16.7412,-19.2725,-7.2327,-12.6285,-8.9948,-12.6865,-44.9445,-72.5763,-13.8562,-3.0583,-17.3106,-23.5109,10.2488,-11.3933,
-21.9189,-17.0489,-3.596,-9.514,-7.3874,1.9529,-45.2283,-67.1545,-11.9576,1.3952,-10.7115,-13.5603,7.4984,-7.5069,
-12.0643,-8.5527,0.89027,3.8673,-6.9441,1.8353,-35.0413,-64.192,-3.7669,9.852,-6.8666,-9.5439,-1.491,-0.65154,
-15.0763,-11.7764,4.5727,5.2367,-14.5344,-10.5517,-35.6085,-61.9418,0.19499,8.7268,-0.5832,-23.0713,2.3343,-10.7538,
-15.7731,-10.5357,1.6297,8.6583,-8.8582,-6.1817,-32.9379,-52.3539,3.9191,0.19628,-1.0823,-35.787,3.7956,-18.1154,
-2.5509,1.305,0.99782,17.2129,-4.5908,8.2892,-16.8616,-35.1127,15.9598,4.9886,-4.7533,-31.5938,-3.3707,-3.6844,
0.27128,6.0303,11.0788,22.051,-18.4154,16.1095,-8.6004,-34.2965,23.0086,18.7893,0.33555,-22.7596,-16.5131,1.3403,
-0.27862,6.2021,8.8132,25.5326,-23.4927,3.9338,-21.427,-40.2451,15.7572,19.5747,-3.4209,-35.494,-19.2576,-3.5438,
5.0758,3.695,5.0822,26.1356,-7.9831,7.9683,-10.5347,-25.0199,16.9468,11.9952,-6.4179,-42.2152,-15.9672,-5.4661,
9.0408,3.4738,7.9795,20.297,-18.4019,10.6925,-15.2403,-19.2492,12.7278,11.275,-7.1006,-25.5823,-23.5496,-12.6104,
9.032,4.8663,2.6971,12.14,-31.3978,4.179,-28.4259,-32.1942,6.0922,8.9976,-13.6137,-11.9938,-29.0758,-13.4557,
3.6864,-0.22933,2.0017,22.6207,-43.6139,-1.9426,-29.7003,-28.9726,19.8267,22.5578,-4.7905,-6.4706,-13.9866,-11.0464,
-0.27062,1.3858,9.8874,32.4721,-42.1534,-5.5624,-17.7769,-17.0929,32.7371,31.6565,9.5969,7.2618,-5.1416,-4.5123,
2.9479,0.2349,6.0919,17.7143,-47.0964,-4.1609,-25.2498,-22.4723,21.7883,18.0149,0.79298,4.6911,-18.9331,1.0962,
5.9737,-2.9819,1.4564,8.1105,-42.1356,8.8982,-37.8348,-21.1239,7.6711,11.5967,-10.9973,-3.0631,-22.912,1.0294,
-1.3238,-1.2022,11.5099,19.9002,-34.8039,16.3707,-30.5393,-7.5801,14.1489,15.7046,3.7625,4.0593,-7.4373,6.8385,
-8.183,2.6068,2.8134,23.5103,-40.7215,11.6526,-22.8346,-10.8612,18.1051,11.0264,12.9217,12.8903,5.5966,10.1651,
-3.422,5.6532,-9.0981,18.8969,-37.211,15.2234,-35.3428,-10.2095,13.815,8.2293,0.40368,24.9264,0.99082,8.4879,
-1.0822,-1.0915,1.056,15.6286,-23.2356,15.3773,-40.6949,-2.1242,14.0544,17.3428,9.9877,22.3635,-2.2714,10.1141,
-3.1518,-3.1605,7.3982,24.2991,-22.9087,6.9829,-35.0495,1.206,11.0766,8.8305,12.5912,6.9217,-4.2696,11.6418,
-3.4963,3.9672,-4.2548,35.1165,-35.6342,-0.37518,-31.3456,-0.46826,-0.79707,2.4288,-2.2643,-7.5936,-6.6825,11.4769,
-7.0229,1.0611,-0.26318,31.4087,-34.3416,-0.88629,-35.3368,-5.2438,-0.21563,11.3567,-1.9067,-6.6929,-10.0179,14.5247,
-11.9387,3.1319,4.0216,30.5914,-18.1811,4.5041,-37.4866,-2.7947,4.0673,16.0125,12.3077,-6.2918,0.19035,18.9904,
-11.2224,2.944,-1.5569,29.8232,-11.9753,7.4366,-32.0346,6.9813,3.8233,13.9845,12.4147,-11.2515,-7.2928,17.851,
-4.6782,0.098232,1.2056,28.5674,-19.2631,4.3213,-30.6462,9.2305,5.1947,9.4091,-2.4301,-14.3128,-20.9552,10.9091,
-2.7961,-1.509,9.1391,29.522,-5.8315,3.5279,-25.0715,2.8053,9.6872,12.5804,-2.062,-4.3805,-5.5979,8.6532,
-11.1689,-6.7552,3.253,28.8184,-4.4133,-2.0205,-9.4672,1.5702,12.3082,12.8943,11.9394,-6.2521,8.838,9.2017,
-7.296,1.1223,8.3961,41.1893,-8.4185,-7.237,-8.0542,13.2177,21.1779,16.3907,12.2903,-14.4175,8.0849,12.9196,
-4.723,-3.2148,18.5676,44.9014,-12.1837,-16.4103,-15.043,14.5599,28.447,28.2169,10.4854,-9.2822,-3.0749,10.0092,
-2.8385,-2.488,22.2564,48.0784,-11.9865,-4.2168,-0.040378,17.423,33.6785,36.665,11.4574,4.6186,-4.492,7.8075,
3.2032,0.3299,9.7124,43.5923,-18.2059,10.1362,-12.0027,11.5735,19.382,20.3651,-3.3301,-9.7585,-17.5661,1.4677,
11.0174,-6.629,-2.0795,26.8768,-31.2136,15.7102,-25.3825,-1.3973,4.119,5.0432,-17.2303,-23.273,-29.8562,-6.6267,
20.4977,-2.4944,-11.0278,11.1642,-32.3207,22.7745,-37.9596,-6.1176,-10.2281,-3.8884,-24.8255,-20.8979,-21.1263,-7.8305,
12.8623,-6.6147,-18.9061,6.6694,-35.7187,23.5425,-45.9124,-13.2222,-12.3721,-5.7896,-22.2682,-10.0363,-19.8577,-16.9679,
16.8947,-5.6847,-3.6717,10.0051,-39.4475,22.6641,-45.8273,-5.4903,-1.4884,-5.9764,-12.9263,-18.5088,-18.1336,-14.3484,
19.6174,-3.7418,5.9335,3.5329,-25.8715,21.8379,-46.813,-7.83,-5.1355,-6.1514,-14.8193,-10.4591,-13.3087,-5.4812,
4.3403,-5.1186,-8.5225,0.65234,-30.1906,18.9262,-43.4711,-17.5016,-9.6315,-3.1137,-18.7338,0.30977,-18.3816,-8.8892,
-0.50141,0.52573,-9.3908,14.4914,-42.4791,22.0606,-42.9974,-11.1142,-6.9181,1.3431,-15.4748,0.29118,-20.4814,-3.0186,
5.4,-1.1062,2.3823,8.8178,-37.039,21.2711,-37.7489,-2.4405,-8.1044,-9.9461,-8.6744,-3.4621,-14.4484,5.1694,
12.0146,3.7633,16.3394,13.0929,-24.6758,16.258,-24.2754,7.8473,3.5905,-8.8152,4.1219,1.5492,-6.6429,4.3251,
8.0915,0.33527,3.9281,5.9023,-24.2625,8.8775,-35.6283,-6.7236,-4.0972,-2.9495,-10.0031,1.4562,-10.5138,-4.4739,
5.4705,-13.7849,-10.4076,-8.5518,-18.5363,5.1431,-45.2333,-20.4202,-16.6613,-3.8398,-15.8069,8.8416,2.927,0.064536,
6.7432,-14.3369,-13.2977,-15.8233,-13.6887,4.2999,-48.3912,-12.879,-19.398,-15.8858,-6.8532,22.4111,16.8514,-0.47398,
5.8055,-2.268,-2.3585,-7.9353,-8.0633,9.9133,-41.7509,-3.0322,-12.3628,-13.3312,-1.6378,21.9109,17.7525,-10.5859,
1.1871,-2.132,-1.1487,-6.3909,-9.7145,2.914,-28.5713,-12.4575,-7.351,1.3458,-7.9451,6.4962,4.9446,-15.288,
-7.4241,-11.6113,-4.2825,-8.143,-6.9966,-1.5308,-39.667,-12.7783,-15.4499,1.2651,-11.7384,9.5315,13.1879,-10.1017,
-8.0464,-13.0506,1.3111,-11.9249,-1.2396,3.8977,-44.7603,0.7989,-11.3207,-7.3513,-4.6291,20.7018,13.4644,-5.2251,
6.5364,1.8324,6.0376,2.8906,12.1794,3.1308,-27.9746,3.4196,3.4586,-4.2406,8.9928,7.1844,6.7852,-1.1747,
0.050582,-1.1684,2.4721,5.1645,11.4481,-9.8676,-29.1871,-10.8856,-4.9781,-7.1884,6.3182,-7.3467,9.5803,-15.2042,
-5.8238,-4.8342,7.1269,-4.2195,15.5648,-1.2686,-36.5089,-15.8815,-11.618,-10.494,-5.2695,-10.4205,12.7424,-23.1438,
4.667,3.4628,9.3689,-5.5677,27.9751,12.9075,-35.9198,-5.8545,-5.0496,-3.993,-5.4874,4.3048,3.971,-7.6552,
4.9206,-0.4824,10.4076,1.7055,30.0324,9.7753,-24.691,-2.8352,0.057008,3.1857,0.71267,15.5664,-5.3409,1.1218,
1.4226,2.7493,8.7159,10.1432,37.8382,4.9187,-20.0068,2.6732,-4.2164,-0.20817,-2.5318,8.2279,2.4523,-2.1482,
-0.26312,7.3885,3.3888,6.866,38.237,15.8322,-27.8805,5.1814,-5.5638,-3.9315,-6.1158,10.4034,1.771,2.7848,
-3.4506,-1.5953,-3.2195,1.1163,27.4023,14.8828,-25.1399,-1.5344,-2.0277,-2.6289,-1.4793,9.7787,-7.943,2.6172,
7.965,4.3717,-2.4922,7.9879,39.8582,12.3885,-24.1656,4.429,-7.7774,-1.937,3.4125,11.8606,1.6077,1.926,
17.0954,6.2449,-3.4099,3.2386,51.5667,13.7806,-28.0529,8.4332,-14.7835,-5.0236,-2.1295,22.8917,7.9167,9.2842,
1.9697,-0.0016263,-6.9427,-9.232,46.9599,14.5537,-35.4434,-2.2146,-17.6329,-6.323,-7.8736,35.6182,-3.7674,11.3953,
-12.2485,2.6676,-12.397,-11.3462,31.867,15.2823,-41.3231,-1.5471,-17.1085,-6.4773,-5.7993,47.5811,-14.7504,17.6507,
-16.9404,-5.4983,-10.0518,-11.1996,26.2186,0.26538,-32.9724,5.4843,-9.1434,-8.7572,1.4873,43.748,-21.8713,19.2603,
-10.0526,-12.107,-6.7801,1.7482,33.7191,-13.8505,-21.9199,7.8239,-8.0607,-2.3604,1.9322,32.049,-13.6204,12.2333,
-4.6454,-6.5775,-9.0419,10.7174,40.77,-12.0408,-15.8016,6.8213,-7.0439,3.6525,0.21488,29.5925,-5.8645,6.6952,
-8.1035,-6.716,-4.7625,12.743,35.6547,-6.5143,-14.3194,11.2152,3.5201,-1.3707,5.0061,15.5406,-16.7213,10.0303,
-12.4209,-11.1176,-5.0114,10.3776,31.914,-11.9953,-16.1293,18.5486,-3.6302,-0.75486,3.1039,10.8718,-22.6571,14.2321,
-10.6079,-11.5178,-1.5074,9.7544,42.8097,-15.545,-5.5539,19.5707,-9.8164,7.8309,-0.28461,8.0845,-17.0272,12.3104,
-11.5728,-7.0904,-0.88286,12.906,54.3411,-19.4159,-8.9565,7.1878,-5.4916,-0.6458,2.4021,3.8635,-12.2687,13.1732,
-20.4857,-10.9349,-12.5726,0.38893,63.1342,-6.5088,-22.5191,3.5538,-11.5665,-13.417,1.1897,17.7317,-9.3981,21.99,
-16.5879,-11.8802,-23.0279,-9.7758,52.407,7.9818,-35.2679,14.5492,-24.9725,-18.4834,-12.9817,30.7678,-15.7738,19.0692,
-8.6535,-1.0255,-27.5171,-10.7901,42.324,21.6029,-35.9096,14.2099,-24.3202,-24.3135,-26.3028,14.8218,-28.9274,6.717,
-13.472,-0.96452,-20.5283,-13.3459,25.6846,34.4067,-27.35,13.3578,-12.186,-17.5169,-14.6718,-0.16754,-41.2917,4.179,
-13.1979,-3.5753,-20.898,-14.1455,10.0435,46.4423,-29.4459,20.5622,-20.5279,-15.9318,-22.8656,-1.7594,-51.1786,3.3941,
0.40399,5.1792,-22.8468,-11.1623,-4.6591,57.7557,-34.0836,25.7339,-22.499,-22.4486,-27.8982,7.9539,-49.1757,7.4605,
-10.8288,-4.2046,-25.2119,-20.6339,-11.1845,68.3904,-33.64,16.184,-22.7504,-31.243,-29.9611,-6.6233,-58.501,12.8842,
-14.9827,-3.4197,-13.5583,-9.254,-0.37204,68.8231,-17.5216,29.313,-16.5818,-15.2685,-19.0899,7.8741,-41.6473,16.9148,
-11.9488,-3.214,-18.0826,-1.2266,-0.34972,55.087,-4.4162,39.6073,-13.4519,-9.771,-13.674,17.0099,-32.7435,4.1576,
-5.8941,9.7893,-18.0643,-1.1535,3.9413,57.1185,-18.2512,39.3658,-15.847,-14.5225,-6.4486,13.8533,-27.5766,4.9759,
-9.8104,5.9992,-13.7788,-15.1843,13.312,61.1642,-21.2039,32.7339,-25.5717,-22.1911,-4.9944,16.2248,-30.1915,14.2846,
-12.9582,-5.5699,-15.6201,-19.9213,26.6133,50.5562,-12.9925,31.3035,-20.301,-19.2578,3.3116,21.1222,-23.5764,22.5011,
-11.1135,-2.0329,-25.3584,-10.186,39.1165,49.6573,-18.6185,40.1008,-16.9474,-12.7651,5.2484,18.7876,-14.6891,20.0838,
-8.3116,-4.047,-22.7702,-9.5754,30.4531,57.3529,-23.9074,50.5042,-21.2683,-14.1352,-9.1665,21.9298,-27.9078,18.8783,
-8.8802,-2.7359,-17.133,-3.6636,40.3686,59.2489,-19.2691,57.0822,-18.925,-6.8806,-15.8669,34.7141,-28.1465,28.4211,
-17.9556,-2.5717,-13.9705,-5.5783,51.8242,52.4923,-8.5058,51.5217,-17.7895,-5.4005,-0.81493,45.2194,-12.3577,28.8503,
-21.1478,-8.8224,-9.929,-4.1758,43.377,39.735,-2.6577,55.9027,-12.4516,-9.347,5.4162,28.6285,-18.243,22.8498,
-22.0144,-17.9013,-20.0088,7.8164,39.7066,29.8782,-3.5665,60.0212,-4.2328,-5.5834,-5.5843,20.5053,-29.9594,22.5461,
-31.9016,-26.9681,-22.5446,4.6793,43.1956,21.1464,0.38387,51.6163,2.9603,-1.512,-8.9846,16.6069,-19.0877,24.9297,
-41.1971,-29.0859,-12.1178,-4.6755,35.8003,17.209,-5.5105,55.458,-4.1559,-10.4954,-3.6424,1.5105,-16.3416,16.4953,
-30.1848,-16.6657,-9.2557,2.01,47.7522,30.2764,-3.0439,66.2305,-9.2443,-9.8652,6.1839,-12.6802,-29.2383,16.5733,
-20.9005,-13.5308,-10.8354,6.1599,58.9871,30.3726,11.0165,75.9121,-6.5547,-9.2738,4.7461,-26.0193,-41.584,12.3767,
-15.9106,-5.7803,-7.5167,7.3917,69.5479,30.1516,7.6859,74.026,-5.6273,-11.386,3.9272,-13.1159,-51.1426,14.3027,
-11.7537,2.0387,-9.2007,-0.52508,79.475,42.4425,5.0897,83.6844,-6.3574,-8.5678,6.8938,1.7711,-33.974,20.9157,
-1.9754,6.7205,-11.3172,-2.095,88.8065,53.0167,14.9257,92.7634,-7.5773,-5.3851,-1.5267,14.7861,-23.0847,18.0604,
1.88,12.1886,-3.6996,7.1049,97.5781,52.5054,22.037,94.2252,-10.8585,-7.7306,-0.89993,20.8386,-14.76,14.3082,
-4.1047,17.3282,9.866,16.8194,105.8234,52.0231,30.8556,102.6717,-5.4034,-7.8004,13.2541,33.6883,0.22557,20.3878,
-9.7282,13.6204,0.20042,13.1421,112.3289,40.8964,18.8634,100.5596,-5.6128,-6.7988,6.8988,30.3769,8.5297,13.2937,
-6.4764,-1.2968,-11.0207,5.4145,99.7173,24.3426,12.928,91.8569,-4.7424,-3.7217,0.613,14.4543,-3.1912,1.288,
-7.6887,-5.2673,-4.4876,5.6232,81.4579,9.2266,23.3604,89.0136,-4.9915,-6.1675,7.5153,-0.51293,-3.5338,2.8116,
-12.0315,5.1901,-4.7525,4.7517,82.4418,22.773,18.2219,88.4769,-3.0906,-7.3989,6.5303,7.9683,-3.8559,8.5132,
-7.5733,5.4134,-13.5409,1.7985,91.5953,28.6561,11.2578,91.1747,-0.23608,1.0514,12.0093,8.0238,6.5178,6.4016,
-3.9171,-1.3169,-9.5267,-5.7821,97.0859,15.194,0.97507,86.7714,-10.8974,-1.1472,16.626,5.4069,20.2267,-1.4553,
-9.0193,-2.3052,0.6531,-19.5352,86.9908,10.0134,1.9848,75.1607,-5.9736,-9.6173,9.224,17.8934,19.8576,-1.3669,
-18.0849,-3.2346,-8.9938,-20.2753,82.8391,9.4121,5.068,71.7188,-1.3447,-13.3108,3.3338,29.6303,14.3967,2.9846,
-13.265,-7.8446,-11.1228,-7.8502,90.1446,9.3805,-5.3785,79.6905,-13.5408,-16.249,5.8014,25.1828,26.8759,5.4741,
-15.6708,-10.5767,-0.84821,-8.4464,83.6686,7.7504,-8.2575,79.1801,-16.9984,-15.274,7.5888,23.6719,16.7234,1.9429,
-24.3383,-1.4016,-9.3368,-1.5347,76.5135,19.0276,-5.6271,71.226,-12.7762,-14.3571,8.2012,32.9265,1.8423,12.5013,
-13.8039,8.8238,-12.5135,12.6574,86.0227,31.23,-2.6208,81.0524,-8.2728,-3.3543,16.7822,41.0923,15.8317,25.8512,
-15.6442,-0.77971,-10.1613,15.9452,94.9614,15.2562,-8.3349,78.103,-9.3778,-3.6872,9.905,25.2837,28.9818,10.2002,
-24.3133,-5.0024,-11.6866,9.6507,80.2786,0.24086,-18.5098,59.3168,-6.6801,-16.2754,7.1746,16.2934,17.1906,-1.0868,
-25.5231,-9.5064,-11.5185,12.8086,72.7933,11.347,-14.7306,46.906,-5.7462,-12.6303,11.5483,26.5244,16.6933,13.0784,
-21.8568,-5.7338,-6.5579,20.5795,71.6279,21.3411,-14.9145,47.2939,-9.6709,-3.333,3.3832,36.6762,22.0967,23.28,
-15.2081,8.7103,-5.0972,21.4803,81.4303,21.1279,-19.3569,42.3218,-10.1579,-11.673,5.3147,36.6101,25.0409,11.2087,
-14.2956,12.2348,-10.1286,15.9214,90.6444,17.7247,-11.791,37.647,-4.2112,-9.9054,16.7385,23.738,25.6729,15.8734,
-13.4374,7.2313,-12.7231,19.2356,87.9635,18.7972,-10.0158,32.1859,-0.75629,-0.77056,12.532,25.517,29.4703,21.326,
-16.3675,5.1965,-10.3589,21.8179,88.5575,20.3375,-7.8129,22.2484,-2.3118,-9.7979,9.1109,35.1951,23.9657,10.9729,
-15.9196,6.4861,-18.8104,18.9074,88.0472,24.9886,-7.8783,20.3794,1.5628,-14.0132,10.1656,31.482,15.5892,6.5786,
-10.6944,8.2314,-29.4256,13.503,79.5616,17.0838,-10.6084,18.0893,4.6718,-5.7006,10.6229,26.3903,14.6538,13.6556,
-6.3169,8.2717,-13.56,22.8342,68.9165,1.9588,-5.1677,14.3354,2.7901,-0.55449,12.6542,10.7069,10.0387,3.7622,
0.4671,12.0449,-6.0291,32.1391,61.5793,-5.9423,-1.6554,7.0703,-2.7151,3.7483,7.6254,19.3609,-4.4413,-2.8685,
-5.4313,-2.0209,-19.7673,16.1107,52.0142,1.3539,-8.4937,-7.454,-9.4908,-3.4142,-6.9321,32.2992,-15.3834,-2.1613,
-5.6395,-8.8393,-27.9667,1.0441,55.832,-12.8274,-9.5865,-16.3922,-3.0499,-9.0817,-7.3616,29.0712,-0.36043,-3.634,
-10.1048,-4.5726,-18.2824,3.0279,49.8129,-16.1065,-4.2077,-4.1995,1.9367,-0.53049,0.019183,22.5234,11.1806,-6.0851,
-16.9712,-10.7027,-27.8609,-1.4238,38.2842,-5.5318,-7.1569,-14.623,-1.3823,-0.49866,6.4235,24.3747,-0.16468,-4.6517,
-1.8529,-6.3247,-18.1824,2.3985,50.0871,-3.5986,-8.3289,-18.5488,-0.76522,-13.8118,18.314,22.3781,13.9452,3.6343,
6.5754,-4.3438,-2.9915,7.0577,61.1819,-13.524,6.2708,-8.3627,1.9493,-13.5172,17.7492,9.8268,24.6284,9.2865,
1.9119,3.3896,-2.5006,10.9043,71.611,-8.4426,19.9946,-3.59,1.8324,-8.4362,17.7515,4.9672,24.218,9.7976,
5.5326,11.1925,-2.8842,10.7836,81.4143,0.070348,18.3499,-0.70647,2.256,-14.8692,23.6256,0.93281,33.974,4.4051,
-8.8994,-3.579,-6.4475,2.1302,66.0321,-9.0075,19.918,-4.4004,5.857,-13.4434,18.4717,-0.72504,17.8356,-0.66279,
-19.3517,-9.0134,-6.0607,-1.1993,64.2047,-6.3325,16.5874,-14.8109,1.2356,-4.0958,5.6206,13.4185,2.6654,3.647,
-6.4479,1.1347,3.9102,-7.5328,74.4524,0.45189,16.6594,-17.125,-4.1757,-3.8511,4.2151,17.7288,16.2936,5.5637,
-1.2579,6.938,1.007,-7.615,84.0852,-2.2438,22.5984,-7.0244,-1.2566,-2.0186,13.0363,12.9282,29.416,6.8302,
-12.39,3.8531,-13.1535,-1.2857,93.1401,-10.1151,23.9122,-7.136,1.4874,-3.4979,17.0583,14.8222,26.3621,6.9555,
-8.9785,-5.4517,-13.2092,9.9995,101.6517,-10.0418,36.5774,-16.8487,5.1346,-7.0244,17.6367,10.1965,10.6803,6.0036,
-3.1016,-7.2591,-9.2139,13.6695,102.6699,-9.4393,40.0319,-24.3778,3.7592,-2.3329,19.7802,10.6519,-4.0605,5.6433,
-16.2601,-10.5599,-7.0602,-0.49423,94.9078,-22.2165,27.4881,-29.8542,-1.2699,-4.8621,23.397,3.0747,-17.9169,0.50113,
-13.149,-6.7246,4.0389,-0.46458,92.4161,-17.6808,24.7716,-25.9285,-2.262,-16.3131,16.6559,-3.5153,-17.2428,-8.0689,
1.74,4.3544,2.7283,4.9005,100.9711,-2.5199,35.028,-22.2373,-5.328,-6.7943,14.5893,10.7956,-2.1082,-1.1793,
1.9474,-4.9805,-6.509,-8.7371,109.0128,-13.8006,35.5944,-31.0439,-10.8802,3.7552,18.5176,24.2479,12.1183,1.5596,
7.1673,-0.4122,1.3538,-12.4834,116.5721,-17.2431,27.0538,-28.1145,-9.1596,-2.8761,18.4743,21.8143,25.4912,6.8037,
11.0073,2.8153,-8.3347,-22.4088,112.6473,-2.1085,15.8233,-32.8321,-17.15,-14.4452,7.7586,27.9782,33.4357,-0.0089575,
3.4082,-0.022251,-8.3687,-18.3957,100.0161,-7.0079,27.1498,-36.7346,-16.6552,-8.7754,14.2307,17.2254,40.5037,-3.7453,
-4.8021,-8.0268,0.14025,-16.7578,97.752,-20.6874,31.3922,-38.2664,-19.3917,-17.322,16.0465,2.0919,52.1735,-12.5947,
-9.3176,-20.8898,-3.6045,-29.8523,88.1505,-33.5462,15.4086,-45.044,-26.2346,-30.3827,0.98368,13.9314,58.428,-21.9799,
-20.5013,-26.0409,-17.4883,-42.1612,84.997,-39.6283,0.38411,-56.4413,-38.7605,-42.6597,-13.1753,16.2982,58.1251,-23.8638,
-22.474,-26.6139,-23.6889,-53.7315,93.9971,-40.4534,-10.4025,-67.1549,-44.7521,-44.4592,-5.0011,9.9831,68.7376,-17.0947,
-15.2547,-27.6862,-16.3967,-53.043,85.4654,-38.5598,3.5653,-58.9446,-36.1961,-35.9208,-2.033,15.255,57.4514,-18.7372,
-6.333,-23.3559,-25.5538,-43.9896,84.0738,-29.3071,-6.7895,-50.6033,-33.4907,-34.2991,-12.0518,10.6033,50.269,-17.0793,
2.5874,-24.0895,-28.29,-43.4842,93.1294,-33.9536,-4.2471,-50.7694,-30.4135,-41.8479,-7.0582,7.8321,61.3528,-12.8523,
-2.9055,-23.7109,-15.9176,-47.2812,86.2516,-41.5241,10.1077,-54.1292,-24.3182,-30.7976,4.0402,21.4622,64.9216,-6.7434,
-15.0076,-28.1601,-20.8345,-44.9779,73.0702,-40.6336,17.2843,-53.5506,-30.8665,-23.0789,-6.344,23.6886,46.9263,-4.738,
-0.0071075,-22.7342,-27.5907,-39.6111,82.786,-24.0956,13.5781,-43.3984,-29.5481,-33.9705,-10.767,8.1672,43.2653,-9.2573,
12.0474,-17.1006,-27.0031,-51.1112,91.9188,-8.5498,4.224,-47.1995,-39.5174,-43.6745,-5.8515,11.6359,54.7694,-19.3768,
-2.7755,-26.7496,-30.7206,-62.1445,72.3037,-3.6788,-8.84,-58.4675,-51.2464,-41.0545,-18.3099,13.0727,46.9904,-20.3492,
-7.1903,-16.07,-25.14,-55.5244,53.8655,10.6419,0.76506,-48.8653,-42.0775,-31.6521,-22.0149,1.0792,30.071,-7.9192,
7.3412,-2.8294,-9.5316,-38.093,64.7335,24.1034,14.8192,-31.8334,-25.4528,-20.6784,-6.594,-1.6536,42.3667,-4.7759,
4.5429,-12.801,0.42525,-27.4897,71.3027,15.2741,26.5177,-19.4712,-17.7434,-11.4318,7.9016,-3.1558,51.0343,-2.888,
-1.0674,-14.1679,-10.2752,-29.0436,52.9246,4.7499,12.1162,-20.4379,-20.9483,-13.9482,1.6447,-5.1014,36.229,-0.57971,
13.0966,-12.2506,-11.7942,-16.6255,63.8491,5.5331,25.2674,-10.6717,-7.9497,-16.314,0.47881,0.54188,34.0553,-5.8822,
16.8927,-20.5892,-2.013,-3.3516,74.1181,11.072,37.8514,-4.1595,-8.0063,-18.0043,3.1182,4.2457,32.5456,-9.2656,
9.4746,-24.6911,-13.6339,-11.6905,75.3196,14.6777,24.1484,-8.1799,-21.626,-15.8558,-7.7434,3.991,26.3239,-8.7097,
18.5134,-21.0751,-19.2214,-10.989,75.0704,13.797,33.375,-9.8246,-16.9029,-6.3644,-0.87327,6.9543,36.4862,-11.3898,
8.328,-29.9525,-22.8727,-3.3916,56.4662,11.3673,31.9061,-14.0388,-24.9633,-13.99,-1.3555,11.3406,28.4261,-15.51,
-6.2717,-42.2553,-35.6003,-14.3962,38.9782,6.9499,15.8917,-11.5956,-37.5655,-24.3586,-15.3742,10.1266,12.6206,-14.0458,
8.2046,-25.62,-19.3643,-0.72296,29.6119,-0.94031,29.0382,3.2002,-21.2116,-8.7971,-0.35173,4.1812,20.092,-7.8653,
21.8123,-13.9409,-4.1025,8.9282,41.9352,-9.4234,41.3959,7.0564,-8.7298,-3.1538,4.474,6.0654,32.9865,-12.7312,
6.4036,-27.2045,-17.9558,-5.7075,42.9326,-10.4593,24.8122,-7.467,-22.306,-17.0646,-9.8944,16.91,16.9073,-19.9731,
-7.8579,-39.6722,-30.9785,-19.4651,26.2567,-1.2913,9.2235,-8.3981,-35.0676,-21.6898,-18.1526,21.2332,1.7928,-16.6398,
0.086355,-32.0427,-20.3565,-24.7907,33.4445,-5.4838,2.4873,-8.9615,-40.5244,-21.4557,-18.1307,12.4864,10.9822,-15.6414,
-7.9252,-37.0593,-5.7915,-27.0396,44.7815,-12.0939,9.2772,-17.4974,-39.6948,-26.0402,-21.8465,14.4064,17.2613,-17.372,
-12.7874,-29.498,-9.7145,-25.4178,44.2296,1.4412,4.4501,-11.1108,-39.4481,-25.5455,-16.2662,10.3387,7.6852,-13.1264,
-2.9466,-21.8572,-9.6653,-16.9536,51.7166,15.4547,18.2831,3.6558,-29.0749,-19.2092,-10.4866,-1.4897,8.8259,-1.1308,
-6.5061,-27.4849,-16.0245,-18.6055,62.7136,10.0347,26.5705,2.1465,-28.9322,-23.9275,-19.9983,-0.86666,22.3964,-1.5965,
-10.9199,-32.7744,-17.7316,-22.2933,61.9303,1.4267,11.6332,-10.2582,-31.9994,-23.026,-22.5352,1.854,27.2348,-4.1694,
0.9444,-26.0043,-2.5677,-8.6793,51.2764,14.6847,13.6033,4.4573,-24.2086,-12.5708,-18.514,-7.3309,11.5007,5.1544,
7.2927,-15.9036,8.5732,-4.9553,57.8075,27.9036,23.4631,13.0412,-14.2156,-5.4106,-13.1337,-6.8915,11.5666,4.8456,
16.4634,-16.0176,5.9233,-7.8608,68.4391,22.8044,36.1553,5.8532,-0.55268,5.5885,1.7543,-0.072556,24.9726,-1.8506,
29.5756,-17.7247,8.237,2.7527,78.4327,7.3361,46.0396,1.7667,6.4196,13.2596,14.7709,-9.1418,37.5742,-2.2732,
30.781,-16.1276,10.4119,3.1212,75.4167,18.8615,45.9463,1.1271,7.6353,6.5931,4.811,-20.8696,21.2198,-1.6032,
23.0628,-10.3558,11.3886,5.6026,74.6286,31.8298,44.7909,0.52532,11.9813,9.9344,14.6637,-5.5175,23.4617,4.3644,
17.409,-22.5444,-3.3947,-6.4763,61.6109,15.82,28.0035,-13.6062,-2.8376,-0.26987,9.5139,8.9136,13.513,-9.7747,
24.3709,-21.7254,-2.4357,-19.4313,65.9196,0.77081,28.1469,-10.9662,-4.0464,-0.7873,7.3422,0.46097,-1.3978,-10.7901,
30.915,-9.2138,5.7168,-17.7318,72.1062,0.41321,36.5989,-2.3018,4.2027,6.1991,7.4353,-13.6667,-3.2266,-6.4063,
25.8573,-13.9982,-4.2334,-12.3979,58.1716,4.6584,20.303,-11.772,-7.7922,5.8261,0.5837,-3.5503,2.3042,-11.3592,
10.4282,-27.2583,-18.0794,-25.7541,50.4119,-9.7211,4.9848,-25.1657,-21.4246,-7.3329,-10.1263,10.5404,-5.3063,-24.7776,
17.2752,-16.8605,-14.6368,-33.5938,56.9944,-23.2378,10.468,-14.8924,-18.8486,-3.6902,0.088504,2.4353,-4.9879,-16.6632,
22.6437,-8.3767,-4.1519,-17.4781,39.4747,-13.9263,21.5822,-2.2577,-4.9083,-0.26758,3.2854,-8.3868,-14.2964,-1.5634,
23.4201,-19.6163,-14.5778,-16.6522,23.0062,-6.6857,6.4095,-8.5272,-5.6815,-3.4538,-3.3167,-5.7476,-10.2363,-3.8279,
24.1498,-20.5743,-16.9054,-27.3953,35.7258,-14.824,-1.4473,-12.2851,-12.8128,-4.3133,-0.98167,-7.5378,-12.8244,-12.1377,
30.1736,-5.2399,-1.791,-11.6516,47.6823,-24.6101,12.7396,-0.87248,2.0559,9.8227,11.8872,1.4545,-26.1549,2.6906,
30.4982,-11.5532,12.4164,3.1475,52.2941,-37.2335,26.0752,-2.9551,14.5203,10.3011,2.6335,9.9077,-38.6856,7.6441,
37.2083,-23.67,1.6192,14.2563,63.2564,-49.0995,21.9311,-0.64231,22.189,18.223,16.3537,7.1777,-22.2645,-1.3545,
37.6444,-15.3112,10.5951,9.6651,64.0424,-51.5798,26.4866,9.5366,21.3918,17.6638,27.6483,-0.19152,-20.1722,5.6654,
32.183,-6.9198,14.2304,11.2197,50.5926,-41.0123,23.8302,8.9644,6.0083,5.9285,11.8894,-3.3828,-24.2991,10.6627,
41.9947,-7.5718,8.0383,14.8165,61.6571,-35.3488,29.8731,5.2248,2.6678,10.911,3.9261,1.0902,-14.3012,3.6184,
41.0769,-18.3266,-5.7876,4.8539,58.2685,-41.2342,13.9807,-4.1623,3.0414,7.5872,-3.2486,5.8284,-16.1112,-1.4023,
35.4096,-23.6315,-8.6431,-6.1128,40.6724,-36.6257,-0.95813,-9.2508,-5.6811,-3.5435,-9.4581,1.2087,-21.5501,2.9518,
47.385,-8.1136,5.9755,8.3539,52.332,-20.5504,11.8198,5.4042,8.5365,10.7691,5.2094,-4.2016,-11.7176,5.977,
58.6419,1.2245,19.717,21.9527,63.2921,-17.7165,25.2106,3.2568,16.0307,15.7716,4.1399,-4.4831,-17.9526,4.0175,
61.0833,-7.9231,17.0212,13.7855,45.3946,-10.7822,11.7329,-1.7427,7.063,3.6167,-8.3844,-0.47724,-30.9755,4.3095,
71.5183,2.16,25.6086,27.0584,41.6042,-2.662,7.8267,12.4619,8.7742,13.0074,1.7264,-6.8536,-17.6861,0.84874,
81.3272,13.7732,32.6121,39.5349,43.3779,-12.1105,21.4571,18.9646,19.9905,26.327,15.7228,-14.9824,-2.5249,-0.26943,
90.5476,1.2035,30.6549,31.38,26.6752,-14.5861,34.2697,6.0835,18.7905,35.1995,19.8934,-15.1512,-6.8667,2.949,
99.2147,-3.6723,18.6737,18.2891,13.0207,-11.0418,18.1135,-0.15237,18.1967,22.9467,9.6262,-5.1685,-6.9873,0.10291,
107.3618,3.4867,20.2229,19.8603,26.3394,-21.5889,16.8039,5.7281,31.2049,31.7113,13.8528,9.2416,7.5319,-3.6391,
115.0201,7.5475,28.6168,29.3442,26.1376,-25.6308,29.8957,6.4517,34.9812,33.0103,21.5616,4.7285,21.18,-1.2863,
122.2189,10.2979,29.0348,26.5168,28.8399,-14.4853,28.9479,4.9979,30.7484,24.6257,21.3356,-7.2975,34.0092,3.0614,
128.9858,9.1459,25.6913,16.9189,26.5754,-7.7448,13.8669,-5.4444,29.4366,21.5468,14.1841,-5.2582,37.7063,-9.3981,
135.3466,7.5294,19.8793,19.106,13.2376,-8.3478,10.8989,-11.5227,20.1981,14.9163,15.4681,2.5295,40.7807,-13.1047,
141.3258,-0.39514,25.0921,25.4324,15.6461,-8.9142,24.345,-3.3586,10.4463,16.1558,16.6745,-9.365,39.4021,1.7815,
146.9463,-2.5059,22.5193,15.3655,4.0318,-7.3121,19.4598,-10.6298,1.2795,18.3892,1.574,-17.3431,24.228,-0.68263,
152.2295,1.9144,19.0326,12.3091,-6.8845,-6.8734,9.7522,-21.7348,2.27,10.8813,-10.0404,-2.2025,17.4361,-7.0472,
157.1957,-8.3423,20.5598,24.9141,7.6285,-18.7373,23.2671,-15.6271,13.3429,12.8966,4.662,4.646,24.3963,-2.888,
161.864,-3.0371,27.3326,31.4256,21.2708,-16.0112,35.971,-2.4121,17.3459,26.2228,13.7678,-4.7064,37.0325,-5.3828,
166.2522,-1.7877,22.4899,23.1356,25.9545,-9.7133,19.7128,-6.5373,15.2379,23.894,4.4017,-10.8295,35.1224,-8.2626,
170.377,-5.9504,19.006,32.4219,13.7228,-11.266,22.5772,-10.4161,16.4581,14.9876,8.4076,-15.517,34.0823,2.9076,
174.2544,-10.3965,20.5342,34.2135,14.5008,-14.3259,28.1622,-7.1215,16.0048,22.0942,10.5718,-20.4573,32.5715,0.06457,
177.8991,-8.7054,21.4367,26.8235,0.82075,-22.0063,32.877,0.77852,26.7872,28.2413,3.533,-25.6343,22.0772,-13.8165,
181.3252,-1.245,16.4141,23.6122,8.7779,-24.4223,35.7079,-5.1401,28.9164,15.3377,1.7191,-27.8327,28.7589,-10.3184,
184.5457,-0.10206,13.2948,16.8582,12.5212,-8.857,39.971,-11.2361,21.8431,16.553,6.9542,-12.0627,35.5734,2.0424,
187.5729,-3.2992,9.2949,17.9817,-2.3301,2.1266,30.0995,-10.5625,14.1276,23.032,-6.2735,-6.224,19.339,-8.7551,
190.4186,3.8379,13.5408,31.0028,-8.9071,-2.8046,26.6926,-0.85513,23.4218,26.4537,-2.1607,-11.7224,5.0563,-8.7634,
193.0934,0.9395,8.992,27.8526,-9.9736,-3.1699,29.8957,-5.6074,27.8873,23.2656,11.3125,-16.8899,17.0303,-7.703,
195.6078,-5.5229,10.5874,14.4382,-23.4751,-1.912,18.4932,-12.7442,24.0791,26.1392,8.4988,-3.0671,20.278,-12.5796,
197.9714,-11.5965,16.3572,1.8297,-36.1666,-7.135,9.9114,-17.3163,15.1621,20.3013,0.51662,5.6575,23.3318,-16.0943,
200.1931,-3.9621,16.9771,-2.0159,-36.2207,-10.4438,15.1881,-13.6087,13.7183,7.8736,3.1542,-3.7561,24.5995,-12.46,
202.2815,-10.663,9.0199,6.1109,-40.9871,-22.093,10.5409,-12.2581,19.8338,7.9354,3.4981,-17.6307,15.1177,-16.5165,
204.2446,-23.9004,8.4782,17.4875,-52.6279,-32.5096,5.638,-10.4548,18.6442,15.9997,2.2215,-29.6937,4.6039,-26.2005,
206.0899,-8.3664,10.6381,22.3096,-47.6455,-16.4591,11.1711,4.2725,14.857,18.7756,4.7568,-13.8121,9.1307,-11.2844,
207.8245,6.2356,5.7298,12.43,-52.2595,-3.4174,13.7035,4.3264,18.2355,17.6491,-5.1358,-4.132,8.5829,-3.1346,
209.4551,2.2137,11.2574,6.8811,-58.1981,-13.3537,4.8755,-9.2762,11.27,11.787,-11.7663,-17.9841,-6.0321,-13.0878,
210.9878,5.8172,12.1838,2.7319,-49.9026,-1.3444,-9.5171,-7.1188,-3.5062,7.3434,-9.4594,-12.4128,-9.7179,-8.5662,
212.4285,12.9409,-2.4254,-1.702,-40.5029,12.6145,-2.8524,-1.3544,-1.4721,14.3745,-3.5546,2.2092,4.7434,3.6905,
213.7828,18.0358,-2.814,6.4059,-30.0669,5.9862,8.5274,-5.009,8.7575,22.5862,1.4628,-0.59198,17.8019,6.1377,
215.0558,16.9537,6.9631,10.2916,-30.3974,2.4243,0.54297,-11.114,3.9621,13.7583,0.30673,-10.1637,9.2611,-4.9061,
216.2525,7.396,0.14029,11.8091,-42.6735,8.6838,-9.0973,-13.6494,-0.54612,2.2578,-11.4539,-23.6539,-5.3946,-12.0839,
217.3773,10.6886,-2.5373,10.5669,-44.6944,10.8319,-5.8824,-12.2968,5.3585,12.2642,-8.0975,-23.6132,-2.1795,-3.3525,
218.4347,9.5131,6.6891,-3.4112,-34.0069,-3.1621,-2.8608,-16.3631,7.7056,15.2642,1.4614,-18.4606,2.7554,-5.821,
219.4286,3.0715,4.6864,-0.53793,-18.6224,2.899,-6.426,-12.7117,6.7092,14.8825,-4.4976,-28.5615,7.3932,-9.2076,
220.3629,-0.84917,-1.4662,5.3657,-19.1064,8.5964,-8.7091,-13.5504,1.5025,7.0499,-14.3691,-35.9219,0.010959,-10.2565,
221.2411,1.3368,12.4995,1.8415,-20.0951,-5.7971,-2.8488,-20.2106,2.4801,-1.9126,-4.9665,-28.4289,-5.3274,-14.9789,
222.0666,-4.6148,6.9454,-12.369,-17.288,-0.64514,-16.022,-23.801,-1.4046,-0.19643,-5.2016,-14.4473,1.9318,-12.4778,
222.8426,-10.7419,-7.5713,-25.7268,-30.3507,13.4936,-24.6674,-22.3725,-2.3881,6.2203,-10.2273,-14.6472,-6.7236,-3.1896,
223.5721,4.0026,-12.7656,-19.4687,-36.3137,18.3325,-21.5865,-19.4303,-1.7111,1.0425,-12.2828,-17.5058,-20.4201,-13.1401,
224.2578,7.8092,-2.9256,-16.6992,-23.9936,8.1585,-14.4199,-25.2021,-11.7498,-8.0932,-15.2816,-12.7185,-20.0409,-26.4517,
224.9023,5.2056,-4.885,-19.9667,-32.1617,9.804,-8.217,-15.1505,-2.5044,4.1347,-11.1625,-9.8204,-16.7035,-10.7646,
225.5082,6.4947,-10.4633,-18.2346,-42.5078,15.0871,-21.824,-13.7073,-1.82,3.3535,-7.8241,-19.3726,-17.3026,-4.781,
226.0777,-3.5022,-4.4982,-22.4777,-45.2946,8.8446,-26.1631,-25.6948,-8.1163,-9.6577,-9.4892,-32.3102,-19.4662,-18.5941,
226.613,-10.2312,-4.762,-25.9337,-56.6769,8.8476,-25.128,-22.5523,-6.0284,-6.4101,-19.0617,-30.6824,-29.5073,-30.5993,
227.1162,-6.9482,-6.0771,-22.7758,-67.3763,21.6603,-24.1539,-11.0573,-4.0648,-1.2209,-16.3161,-14.7415,-37.8788,-15.4197,
227.5893,-15.0713,-0.37526,-17.1393,-74.6319,10.7535,-22.7036,-24.2711,-11.2937,-15.2477,-12.1344,-25.2879,-40.9433,-28.5945,
228.0339,-10.4312,3.3831,-2.0109,-78.1598,1.0341,-20.8083,-32.9572,-12.2174,-28.4328,-25.5063,-37.8706,-42.2225,-40.9789,
228.4519,4.2947,17.2801,12.2098,-87.5702,14.3162,-5.4598,-16.8797,-3.4775,-14.5395,-31.2259,-49.6984,-53.7892,-35.9401,
228.8448,18.137,30.3433,25.5772,-96.416,9.1872,8.9678,-1.7669,7.4056,0.43283,-15.4751,-60.8165,-64.6618,-29.5137,
229.2141,29.4137,42.6227,38.1425,-104.7311,-5.464,22.5297,5.3667,21.0613,7.1232,-22.553,-71.2675,-74.8821,-37.8837,
229.5612,17.508,54.1654,49.954,-112.5472,-19.2362,35.2779,2.3761,33.8976,-1.3111,-35.2998,-81.0914,-84.4892,-49.7107,
229.8876,29.2675,65.0154,61.0567,-119.8944,-26.1774,47.2612,16.3336,28.2164,8.3753,-19.0818,-90.3259,-93.5198,-39.5672,
230.1943,30.1801,75.2145,71.4933,-98.6007,-26.2081,57.1909,22.0699,24.9221,9.4742,-16.8702,-88.3763,-102.0086,-48.4022,
230.4826,14.2693,84.8016,81.3037,-106.7847,-38.7357,48.4222,6.6457,31.9667,0.36575,-29.958,-97.1737,-109.9881,-59.5981,
230.7537,8.2977,93.8135,90.5255,-114.4776,-47.9315,47.6508,0.064736,31.1165,-0.72395,-27.9377,-105.4433,-117.4888,-62.2049,
231.0085,8.3339,102.2847,99.194,-93.5089,-40.2514,49.5964,4.8645,26.5804,1.9886,-18.2551,-113.0825,-113.4639,-50.4658,
231.248,-6.0438,89.3415,107.3423,-76.6451,-49.5791,32.7424,-1.8329,23.9183,2.9365,-18.2275,-97.7581,-99.1838,-55.9783,
231.4731,1.792,76.5098,105.9275,-68.8432,-32.5043,16.6779,0.41309,20.3482,4.8953,-8.5934,-77.7926,-83.6246,-40.8764,
231.6847,9.1562,59.1082,85.4718,-71.1181,-16.4541,2.0223,1.4555,13.7901,-2.8711,-16.6183,-59.4696,-83.9453,-33.0871,
231.8836,-5.2703,41.4617,66.2435,-80.951,-1.3668,-12.1991,-11.4418,2.2872,-10.1706,-29.7212,-54.8337,-90.6508,-40.7091,
232.0706,-8.1564,24.874,48.1689,-76.9394,12.8152,-25.5671,-12.8908,-10.66,-7.4258,-28.7829,-37.4436,-80.9418,-33.9965,
232.2464,-0.72837,9.2816,31.1788,-58.223,26.1463,-38.1331,-5.1782,-24.1204,-10.7167,-33.994,-21.097,-63.8089,-19.6799,
232.4116,-1.7519,-5.3753,15.208,-40.6297,38.6775,-49.9451,-3.7998,-14.4445,-5.8032,-29.8194,-5.7312,-45.8804,-4.3991,
232.5669,-0.045935,-19.1528,0.19555,-24.0919,50.4568,-57.801,-3.0387,-2.3693,-7.0563,-16.8216,8.7127,-29.0276,-1.6898,
232.7129,14.0568,-30.7689,-13.9162,-8.5464,61.5294,-41.523,11.2437,-9.6988,6.177,-1.7123,22.2899,-13.1859,12.5116,
232.8501,27.3134,-42.2664,-27.1812,6.0664,71.9377,-49.1724,24.669,-8.5833,17.0155,12.4904,35.0525,1.7052,25.8609,
213.7601,11.5746,-53.8304,-39.6503,19.8024,81.7214,-60.3221,9.0889,-4.8661,4.2513,10.7623,47.0494,15.7029,38.4092,
186.8345,-3.2199,-64.7006,-51.3713,32.7143,90.0724,-70.8028,-5.5564,-18.6741,-10.1038,-1.6261,58.3264,28.8607,22.0047,
161.5245,-17.1267,-74.9186,-62.389,44.8514,98.7681,-80.6546,-0.95305,-31.6536,-8.7406,-3.13,68.9268,41.2291,25.5781,
137.733,-30.1991,-84.5234,-72.7457,56.2603,106.942,-89.9153,-14.9959,-43.8544,-22.3162,-17.0422,78.8912,52.8554,38.1434,
115.369,-42.4871,-93.552,-82.481,66.9847,114.6255,-98.6204,-28.1961,-55.3232,-35.0772,-20.0673,88.2577,63.784,44.1715,
94.3469,-54.0379,-102.0389,-91.6321,77.0656,121.8479,-106.8032,-38.3356,-66.1038,-38.3994,-9.7887,97.0623,74.057,55.6212,
74.5861,-64.8956,-110.0166,-100.2342,86.5417,128.6371,-114.495,-34.4346,-76.2375,-32.3591,-3.3305,105.3385,83.7136,66.3839,
56.0109,-75.1019,-117.5156,-108.3201,95.4492,135.0188,-121.7253,-46.4686,-85.7633,-44.5175,3.2743,113.1182,92.7908,76.5009,
38.5502,-84.6958,-124.5646,-115.9209,103.8222,141.0177,-128.5218,-57.7804,-94.7175,-51.7655,5.7465,120.4311,101.3233,86.0108,
22.1372,-93.714,-131.1908,-123.0657,111.6929,146.6566,-134.9105,-68.4136,-103.1344,-54.531,19.5017,127.3053,109.3439,94.9502,
6.709,-102.1912,-137.4193,-129.7817,119.0913,151.9572,-140.9158,-78.4088,-111.0464,-65.3591,27.7165,133.7669,116.8833,103.3532,
-7.7935,-81.9597,-143.2742,-136.0948,126.0459,156.9398,-146.5609,-72.2805,-118.4836,-75.5376,14.3113,139.8409,123.9703,111.252,
-12.3516,-62.9421,-148.7777,-142.0291,132.5831,161.6234,-151.8672,-53.8437,-106.793,-72.1616,-0.64736,145.5505,130.6321,90.4769,
2.4895,-45.0656,-136.9589,-119.7629,110.5281,137.826,-128.6552,-36.5131,-86.2854,-53.7319,-1.454,122.7174,108.6941,70.9482,
16.4401,-28.2617,-114.6414,-98.4771,89.7964,115.4565,-106.8359,-20.2223,-67.0083,-36.408,12.7332,101.2544,88.0725,52.5914,
29.5537,-12.466,-93.6629,-78.4685,70.3086,94.4291,-86.3257,-4.9089,-48.8878,-22.3922,-2.1307,81.0791,68.6881,35.3359,
41.8805,2.382,-73.9431,-59.6604,51.9901,74.6633,-67.0462,9.4856,-31.8545,-8.2387,-16.1029,62.1144,50.4669,19.1157,
53.4677,16.3391,-55.4065,-41.9808,34.7707,56.0835,-48.9234,23.0165,-15.8433,-8.8117,-29.2367,44.2875,33.3388,3.8688,
64.3596,29.4587,-37.9821,-25.3619,18.5845,38.6185,-31.888,35.7355,-0.79267,-1.878,-41.5825,27.5303,17.2385,-10.4633,
74.598,41.7912,-21.6032,-9.7402,31.5694,22.2014,-15.8747,47.6913,13.3549,-9.238,-53.1876,11.7785,2.1042,-23.9355,
84.2222,53.3837,-6.207,4.9442,43.7752,6.7693,-0.82225,43.5842,26.6536,-22.7837,-64.0963,-3.0283,-12.122,-36.5994,
93.2688,64.2807,8.2654,18.7476,55.2487,-7.7368,10.4798,26.8692,17.4033,-35.5167,-74.3505,-16.9466,-25.4947,-48.5035,
101.7727,74.5239,21.8695,31.7227,66.0338,-1.8458,2.3793,29.7503,11.0229,-43.6156,-57.3457,-30.0298,-38.065,-59.6932,
109.7663,84.1524,34.6573,43.9193,76.1718,12.3649,-1.5003,42.0653,10.8946,-35.1273,-49.1014,-42.328,-49.8811,-70.2116,
117.2804,93.2033,29.8189,27.1842,85.7015,25.723,-7.2812,44.6553,13.9773,-31.4188,-38.1489,-53.8883,-60.9883,-62.7515,
124.3435,101.7111,13.9298,11.4531,94.6594,38.2796,-20.9443,27.876,-0.96134,-43.6337,-37.4614,-64.755,-57.3736,-72.3306,
130.9829,109.7084,-1.006,-3.3341,103.0798,50.0829,-33.7876,12.1034,-15.0037,-55.1157,-27.7409,-74.9697,-39.8312,-79.7334,
137.2239,117.2259,-15.0456,-17.234,110.995,61.1779,-27.5789,23.0314,-18.462,-49.7618,-26.0765,-84.5715,-23.3413,-60.8494,
143.0905,124.2924,-23.6164,-30.3,118.4353,71.6072,-11.8242,35.7495,-16.2875,-39.3039,-28.7824,-65.3972,-18.1159,-43.0985,
148.6051,130.9348,-20.0639,-42.582,125.4292,81.4108,-4.9326,19.5045,-19.5803,-48.6883,-21.7172,-59.9167,-8.489,-45.2266,
153.7888,137.1787,-4.7601,-49.4567,132.0035,90.6261,9.4634,18.3343,-19.4722,-53.2393,-24.6847,-70.4217,-18.6546,-54.2552,
158.6614,143.048,9.6255,-32.3893,138.1832,99.2886,22.9956,30.5778,-19.9057,-51.6468,-37.3036,-80.2964,-31.6354,-41.9263,
163.2418,148.5651,23.148,-16.3459,143.9923,107.4313,35.7159,17.0009,-19.7791,-62.4252,-49.1654,-89.5786,-43.8372,-53.5107,
167.5473,153.7512,35.5026,-7.8039,149.4527,115.0854,44.1147,1.8809,-32.6924,-72.7797,-60.3155,-98.3039,-55.307,-64.4001,
171.5944,158.6261,31.7711,-5.7342,154.5856,122.2803,42.0009,-12.332,-44.8309,-82.5129,-70.7965,-106.5056,-66.0886,-74.6361,
175.3988,163.2086,29.3312,-4.8566,159.4104,129.0434,50.69,-25.6921,-56.241,-91.6621,-80.6487,-114.2153,-76.2233,-84.2579,
178.9748,167.5161,24.3691,-1.3629,163.9458,135.4008,51.9191,-38.2505,-66.9665,-100.2624,-89.9098,-121.4624,-85.7499,-93.3024,
182.3363,171.5651,23.9742,-2.3484,168.209,141.3768,62.9039,-41.4709,-69.5312,-108.3467,-98.6152,-128.2746,-94.7049,-101.8043,
185.4962,175.3712,19.8671,0.46112,172.2165,146.9942,73.2297,-53.0826,-57.3524,-115.9459,-106.7983,-134.6782,-103.1226,-109.796,
188.4664,178.9489,16.5401,2.5684,175.9835,152.2745,82.9359,-56.614,-45.3718,-123.0891,-114.4904,-140.6975,-111.0352,-117.3083,
191.2584,182.312,17.1486,0.81347,179.5245,157.2381,92.0597,-42.0091,-56.7495,-129.8038,-121.721,-146.3556,-118.4731,-124.3698,
193.8829,185.4733,11.316,5.5683,182.853,161.9038,80.8424,-26.1439,-67.4445,-136.1155,-128.5177,-151.6743,-125.4647,-131.0076,
196.3499,188.4449,9.5693,6.3019,185.9819,166.2895,90.0919,-10.4753,-73.6278,-139.2907,-134.9067,-156.6738,-132.0368,-137.2471,
198.6689,191.2382,23.0952,-8.1762,188.9229,170.4122,98.7864,4.2532,-73.4801,-145.0332,-140.9123,-161.3734,-137.458,-143.1123,
200.8488,193.8639,32.1627,-18.1388,191.6876,174.2874,106.9592,18.098,-68.004,-131.8385,-140.2403,-165.791,-115.1105,-148.6256,
202.8979,196.3321,27.5638,-14.3814,194.2863,177.9302,114.6416,31.1122,-51.6475,-109.8282,-124.8878,-169.9435,-94.1039,-153.808,
204.824,198.6521,28.5786,-16.1871,196.7291,181.3544,121.8631,43.3454,-62.6486,-117.3385,-131.4946,-173.8469,-74.3576,-158.6796,
206.6346,200.833,40.7416,-29.0936,199.0254,184.5731,128.6513,54.8447,-72.9897,-124.3982,-137.7049,-177.5161,-55.7962,-163.2588,
208.3365,202.883,48.4384,-37.4893,201.1839,187.5987,135.0323,65.654,-82.7103,-131.0343,-143.5426,-180.9651,-58.1422,-167.5633,
209.9363,204.81,49.8021,-39.51,203.2128,190.4428,141.0303,75.8148,-87.7553,-137.2722,-149.03,-184.2072,-55.7209,-171.6095,
211.4401,206.6214,50.5498,-40.8752,205.1201,193.1162,146.6685,85.3659,-96.59,-143.1359,-154.1882,-187.2548,-62.519,-175.4129,
212.8537,208.3242,53.9223,-44.8282,206.9129,195.6293,151.9684,94.3439,-104.8946,-148.6477,-159.0369,-190.1195,-58.7678,-178.9881,
214.1825,209.9247,64.787,-56.2385,208.5981,197.9915,156.9503,102.7833,-112.7009,-153.8289,-163.5947,-192.8123,-63.2476,-182.3488,
215.4315,211.4292,74.0211,-65.9855,210.1822,200.212,161.6333,110.7163,-120.0389,-158.6991,-167.879,-195.3436,-73.5528,-185.5079,
216.6056,212.8435,65.3098,-57.7564,211.6713,202.2993,166.0353,118.1733,-126.9365,-163.2772,-171.9063,-197.723,-83.2396,-188.4774,
217.7093,214.1729,65.1276,-58.0274,213.071,204.2613,170.1732,125.1829,-133.4203,-167.5806,-175.6919,-199.9596,-92.3452,-191.2688,
218.7467,215.4225,71.3608,-64.6866,214.3867,206.1057,174.0628,131.772,-139.5151,-171.6257,-179.2504,-202.062,-90.4082,-193.8927,
219.7219,216.5971,71.8833,-65.6095,215.6235,207.8393,177.719,137.9656,-145.2442,-175.4282,-182.5954,-204.0383,-78.0441,-196.3591,
220.6386,217.7013,63.8339,-57.9366,216.7861,209.469,181.1559,143.7877,-150.6296,-179.0025,-185.7397,-205.896,-73.895,-198.6775,
221.5003,218.7392,69.6116,-64.0681,217.8789,211.0008,184.3865,149.2604,-139.5898,-154.1623,-188.6953,-207.6422,-80.1363,-200.8569,
222.3103,219.7149,79.5349,-74.324,218.9062,212.4408,187.4233,154.4048,-139.2202,-130.8126,-191.4736,-209.2837,-77.9973,-202.9055,
223.0717,220.632,77.2092,-72.3109,219.8718,213.7943,190.2779,159.2405,-144.967,-108.8638,-194.0851,-210.8267,-71.1819,-204.8312,
223.7874,221.4941,74.1775,-69.5731,220.7795,215.0667,192.9612,163.7861,-150.369,-88.232,-196.54,-212.2771,-65.3101,-206.6413,
224.4601,222.3044,83.8268,-79.4987,221.6328,216.2627,195.4836,168.0589,-147.8414,-68.8381,-198.8476,-213.6405,-48.5816,-208.3428,
225.0925,223.0662,83.3786,-79.3101,222.4348,217.3869,197.8546,172.0754,-152.3145,-50.6078,-183.4458,-214.922,-31.5667,-209.9422,
225.687,223.7822,72.5045,-68.6802,223.1887,218.4437,200.0833,175.8509,-153.317,-33.4713,-180.446,-216.1267,-34.1654,-211.4457,
226.2458,224.4553,75.6269,-72.0321,223.8974,219.4371,202.1783,179.3998,-154.7935,-17.3631,-183.7192,-217.2591,-45.9927,-212.859,
226.771,225.0879,84.967,-81.5879,224.5635,220.3708,204.1476,182.7358,-154.0453,-2.2213,-186.796,-218.3236,-34.6937,-206.1798,
227.2647,225.6827,84.6726,-81.4962,225.1897,221.2486,205.9987,185.8717,-141.0662,12.012,-183.1491,-219.3242,-42.7529,-202.8826,
227.7289,226.2417,80.1259,-77.1401,225.7783,222.0737,207.7388,188.8194,-139.5414,25.3913,-178.032,-220.2647,-50.3286,-199.7838,
228.1651,226.7672,89.4183,-86.6117,226.3316,222.8493,209.3745,191.5902,-145.2689,37.9678,-181.4501,-221.1488,-37.168,-190.4654,
228.5752,227.2612,96.1073,-93.469,226.8517,223.5783,210.912,194.1948,-143.2691,49.7897,-181.5494,-221.9799,-29.6002,-184.3752,
228.9607,227.7255,89.8067,-87.3268,227.3406,224.2636,212.3573,196.6431,-120.5729,60.9024,-156.5564,-222.7611,-19.8173,-173.8458,
229.3231,228.162,89.2225,-89.0258,227.8002,224.9078,213.7159,198.9445,-119.9658,71.3482,-145.2503,-223.4954,-18.0952,-172.4892,
229.6637,228.5723,92.4091,-93.2925,228.2322,225.5133,214.9929,201.1079,-126.8679,81.1673,-150.6353,-224.1857,-28.7522,-176.2398,
