"AF3","AF4","F3","F4","F7","F8","FC5","FC6","O1","O2","P7","P8","T7","T8",
3.683,-3.683,87.4732,-36.8303,197.0437,-463.144,-162.9749,23.9402,-230.191,36.8312,-101.2839,-280.8329,148.2437,138.1151,
17.5621,-17.5621,75.3183,-48.7205,171.121,-422.0047,-167.2964,36.6038,-230.4795,48.7213,-109.3068,-278.0829,125.249,115.7282,
30.6083,-30.6083,74.0222,-59.8973,146.7538,-382.5844,-171.3586,48.5075,-230.7507,59.8981,-116.8484,-275.498,131.8341,119.201,
42.8718,-42.8718,63.1353,-70.4035,152.0485,-345.5293,-175.1771,59.6971,-231.0057,70.4042,-123.9375,-250.1042,138.0241,126.149,
54.3995,-54.3995,73.4472,-80.2792,140.9118,-338.8976,-178.7665,70.2153,-231.2453,80.2799,-130.6013,-249.198,143.8426,132.68,
37.0355,-37.5512,83.1404,-61.3625,145.3477,-332.6637,-153.9405,62.5461,-231.4706,61.3631,-108.6652,-248.3461,139.6987,133.8098,
48.9134,-49.3981,64.052,-67.8644,122.5269,-309.4811,-158.8041,72.8933,-231.6824,71.7813,-116.2453,-247.5453,117.2167,111.6813,
60.0786,-60.5342,74.3088,-77.8926,129.2752,-276.8123,-163.3758,82.6197,-231.8814,81.5745,-123.3706,-246.7926,124.2837,119.0804,
70.5739,-71.0021,83.9503,-87.319,135.6187,-246.1035,-167.6733,91.7625,-232.0686,90.78,-130.0683,-246.085,130.9267,126.0356,
80.4395,-80.842,93.0133,-96.1799,113.3816,-245.4373,-171.7129,100.3568,-232.2444,99.4332,-136.3642,-240.9264,137.1711,104.3734,
61.5131,-61.8915,73.3325,-76.3091,92.4787,-244.8111,-147.3101,80.2354,-204.2098,79.3672,-114.0824,-215.4219,114.8408,94.8887,
71.9223,-72.278,74.0519,-78.9801,95.5061,-244.2224,-152.5715,89.5212,-206.0572,88.7052,-121.3374,-216.5966,110.4238,100.705,
81.707,-82.0413,83.7088,-88.3413,103.8757,-215.4691,-157.5172,98.25,-207.7938,97.4829,-128.1572,-189.5008,117.8984,108.7627,
90.9046,-63.0188,64.5863,-68.9408,111.7432,-188.4409,-149.9014,106.455,-203.0296,105.7339,-131.5106,-164.0308,124.9245,116.3369,
99.5503,-45.1377,46.6111,-50.7043,90.9386,-183.8686,-126.8073,114.1677,-176.7479,113.4899,-109.5199,-155.3983,103.329,95.2567,
94.8354,-56.5295,40.4198,-47.9505,71.3823,-186.9365,-105.0989,93.3276,-152.043,92.5805,-88.8487,-160.1744,92.2373,89.2524,
103.2453,-67.2377,52.0946,-59.1734,73.5442,-189.8203,-112.8929,101.828,-157.0204,101.1256,-97.6178,-164.6639,100.8031,97.9973,
82.9506,-73.7308,34.869,-41.523,55.0316,-192.1259,-120.2194,81.6183,-161.6992,80.9581,-105.8607,-168.8841,80.6549,78.0175,
63.8736,-55.207,18.6768,-24.9317,65.8297,-166.4984,-98.9062,62.6212,-137.8972,62.0006,-85.4091,-172.851,61.7156,59.2364,
74.1412,-65.9946,21.5279,-23.7244,60.0384,-142.4085,-84.9736,72.9639,-115.5234,72.3806,-68.6033,-148.38,72.1127,44.0008,
81.6625,-76.1349,34.3362,-36.4009,49.0704,-119.764,-93.9752,82.6861,-115.6143,80.6328,-78.5871,-125.3772,81.8859,48.7272,
90.8628,-85.6668,46.376,-48.3169,32.0262,-126.6781,-102.4367,69.6097,-122.7775,81.7794,-87.9719,-131.9546,72.5406,48.1052,
71.311,-66.4268,39.3336,-31.3179,18.4234,-133.1774,-97.5548,51.3332,-129.5108,62.7726,-96.7936,-138.1373,54.0882,31.1189,
52.9324,-48.3412,22.8736,-15.3388,31.418,-115.8071,-77.6015,34.1532,-107.6402,44.9063,-76.886,-115.749,39.1619,43.3517,
63.8564,-59.5407,7.4012,-9.8147,29.2434,-94.7587,-87.0454,46.204,-111.9427,46.9325,-81.8243,-94.7041,28.0646,26.6506,
71.9947,-70.0683,21.0571,-23.3258,15.5194,-74.9732,-95.9227,57.5317,-119.3261,58.2165,-91.0149,-74.9219,40.4807,30.4045,
81.775,-79.9642,24.2254,-26.7019,28.6882,-84.5748,-104.2673,68.1798,-126.2666,68.8235,-99.654,-84.5265,52.1519,42.6802,
79.8029,-89.2663,36.8719,-39.1998,31.7424,-93.6003,-109.8648,61.0388,-104.5906,50.5941,-93.558,-93.555,34.9228,26.0194,
60.9147,-69.8103,20.5596,-50.9478,43.9378,-81.539,-89.1729,68.4254,-84.2151,44.9687,-73.8445,-84.3133,46.9274,38.5582,
71.3598,-51.5217,31.2961,-42.7101,38.2511,-62.5466,-74.9034,78.4198,-92.5129,56.3706,-55.3138,-65.1545,50.4405,35.4961,
76.2858,-58.4418,26.6558,-26.3359,21.856,-44.6938,-84.5092,87.2376,-101.0621,67.0884,-66.095,-47.1452,50.1766,38.8909,
85.8087,-64.1429,22.2944,-21.9937,34.6447,-34.3022,-93.5386,96.1034,-109.0984,77.1631,-76.2293,-44.8935,61.266,50.6574,
67.4807,-46.1943,15.4322,-15.1495,29.8035,-46.344,-73.8263,76.2372,-88.4525,58.4333,-57.5556,-56.2999,43.49,35.359,
49.3318,-29.3226,28.6063,-21.1461,42.1153,-57.6634,-55.2967,57.5629,-69.0453,40.8273,-40.0022,-38.8219,26.7806,19.1375,
48.5023,-13.4633,40.9899,-33.9774,28.2509,-68.3036,-66.0789,40.0092,-79.0026,24.2776,-51.7021,-50.5926,11.0738,3.8893,
59.6921,-7.076,25.0626,-27.5068,40.6558,-50.1054,-52.6182,51.7086,-88.3625,36.921,-62.7,-43.5856,24.5094,17.7559,
70.2106,7.4485,9.4589,-11.7564,52.3165,-32.9991,-38.412,62.7061,-97.1607,48.8057,-70.9076,-38.2084,37.1388,30.7905,
51.898,-7.0984,22.9913,-24.6907,35.0775,-45.1191,-46.6961,44.8437,-77.2311,31.7774,-52.5531,-50.0159,20.8105,14.8431,
34.6841,7.4275,12.8645,-9.1093,26.6987,-52.424,-29.7943,28.0531,-58.4972,15.7707,-35.3,-32.915,5.4619,-0.14748,
18.5031,-4.8159,-2.0073,5.5373,10.9968,-63.3786,-42.1067,12.2699,-67.1293,0.72449,-47.282,-45.0401,-8.9659,-14.2386,
3.2929,6.9822,-15.9869,19.305,-3.763,-45.4758,-53.6803,-2.5663,-77.2016,-13.419,-58.545,-56.4377,-22.5279,-27.4843,
17.1953,20.6633,-29.1277,8.9945,10.5628,-28.6473,-36.3595,11.6877,-75.9641,1.4862,-40.9323,-42.8063,-7.0762,-11.7353,
30.2636,5.3235,-13.28,-5.6452,24.029,-41.0285,-20.0779,25.0864,-57.3063,15.497,-24.3764,-54.3379,7.4483,3.0689,
14.3478,19.1041,1.6168,8.7935,25.3502,-52.6668,-4.7732,9.4813,-39.7679,0.46717,-8.8138,-65.1777,-7.0986,5.7638,
-0.6131,3.8578,13.3178,22.3659,11.3991,-63.6067,-14.7317,-5.1876,-43.9436,-13.6609,-22.385,-75.367,-20.7726,1.2744,
-14.6763,10.5321,-1.5813,6.924,21.3035,-45.6903,-27.9478,-18.9764,-27.207,-26.9412,-22.0796,-56.745,-5.4263,15.2979,
0.30427,-3.9112,12.6136,-7.5915,34.1253,-28.8489,-40.3709,-3.7378,-39.6746,-11.2247,-34.8548,-39.2403,8.9993,28.4801,
14.386,-17.7765,25.9568,-21.236,17.9778,-41.218,-41.9752,10.5865,-51.3941,3.5487,-18.6636,-50.9859,22.5593,12.6713,
-0.57715,-2.6099,10.2994,-5.8618,2.7991,-52.8449,-25.3567,-4.1487,-34.2105,-10.7642,-3.4437,-62.0267,7.1058,0.5737,
13.5575,-16.5533,16.1267,-18.5726,-10.4315,-63.7742,-37.9353,10.2002,-46.2579,3.9817,-17.3371,-72.4051,3.5728,14.6393,
26.844,-29.6601,29.2591,-31.5583,4.2944,-45.8478,-49.7592,15.0572,-57.5824,17.8428,-30.3969,-53.9608,17.4584,27.8609,
39.3334,-13.7805,13.4036,-15.5648,18.1367,-28.9969,-32.6736,28.2538,-40.0274,30.8722,-14.4731,-36.6232,30.5109,40.2893,
33.0015,1.1463,-1.5007,-0.53087,2.9485,-17.3004,-16.6132,12.4585,-23.5258,14.9199,0.49531,-20.3258,14.5802,23.7719,
16.9214,-13.0225,-15.5106,13.601,-11.3284,-8.8961,-29.7164,-2.389,-36.2142,-0.075318,-13.6344,-23.8819,-0.39458,8.2456,
30.0061,-26.3411,-0.47998,-1.3151,3.4513,-22.4623,-42.0334,11.8544,-48.1414,14.0292,-26.9163,-36.549,13.7291,21.8509,
14.1058,-10.6606,5.8223,4.46,-10.8558,-35.2146,-25.4114,-2.9569,-31.1529,-0.91255,-11.2014,-48.456,-1.1946,6.4398,
-0.84058,4.079,-8.6271,18.2924,3.8956,-47.2017,-9.7868,-16.8795,-15.1837,-14.9578,3.5707,-31.4487,-15.223,-8.0466,
-14.8901,17.9343,-22.2094,31.2949,-1.2299,-30.2696,4.9005,-29.9667,-0.17271,-28.1603,17.4565,-15.4617,-28.4096,-2.9596,
0.10326,2.7582,-6.7769,15.3172,12.9439,-14.3534,-9.4936,-14.0687,3.2323,-12.3707,2.3091,-0.43404,-12.605,11.318,
14.1971,-11.5073,7.7297,0.29815,17.863,-5.3773,-23.024,0.87541,-11.0617,2.4715,-11.9295,-14.508,2.2513,24.7389,
-0.75476,-24.9169,7.2662,-8.9271,2.6912,-19.1546,-9.2126,-13.2771,-7.808,-11.7768,-25.3137,-27.7375,14.547,9.1546,
-14.8095,-9.3218,-7.2698,5.7085,16.6297,-32.1053,5.4401,-26.5805,6.7605,-11.8742,-9.6949,-11.9733,27.7742,22.7053,
0.1791,-22.8625,7.2664,-8.734,14.2509,-16.079,-3.0012,-10.8857,20.4549,2.9383,4.9868,2.8451,40.2077,18.0033,
14.2684,-35.5908,20.9304,-22.3099,27.4959,-1.0143,11.2788,3.8675,33.3276,16.862,18.7876,16.7744,51.8953,31.0231,
27.5123,-47.5553,33.7746,-35.0714,39.9461,13.1466,-3.4979,17.7354,17.2279,29.9503,3.5604,29.868,62.8815,43.2617,
39.9615,-52.2951,33.4729,-37.4543,23.4494,-1.7422,-17.388,30.7713,2.0942,42.2533,-10.7533,13.9759,60.2562,26.566,
23.4638,-35.0574,17.3645,-21.1071,27.2785,-15.7377,-2.2447,14.825,16.0686,25.6181,3.9919,10.7186,42.5408,10.872,
7.956,-18.8539,2.2226,-5.7406,11.5418,-0.69342,11.99,-0.16447,29.2045,9.981,17.8524,24.1755,25.8884,-3.8803,
10.9907,-6.7899,-12.0107,8.7038,-3.2507,13.4482,-2.8294,13.9454,13.3522,23.4821,2.6813,36.8249,18.9277,7.23,
24.4312,-1.7787,-1.6771,-1.4314,11.0444,26.7413,-16.7597,27.2087,-1.5489,36.1732,-11.5796,48.7154,31.892,20.8962,
31.4236,-15.772,-6.6408,3.7188,-3.7183,11.0368,-1.6541,21.6056,12.644,48.1028,3.2152,31.6925,15.8785,5.5424,
15.4382,-0.72567,7.8577,-0.18739,10.6048,-3.7254,12.5452,6.2093,25.9854,31.1166,17.1223,24.6106,0.8258,2.9079,
28.6119,-9.4297,21.4862,-14.2761,1.9705,-17.6019,-2.3076,10.7285,10.3262,26.7141,1.9949,9.0339,6.1281,-11.3666,
40.9952,0.80419,7.1894,-10.829,15.9523,-2.4458,-16.2691,24.1848,-4.3933,39.2113,-12.2248,22.1312,19.8604,3.4154,
52.6355,14.8559,-7.3419,3.9208,29.0952,11.801,-1.193,36.8337,-3.0369,50.9586,2.6087,34.9033,32.7688,17.3105,
38.772,-0.13542,0.29323,-3.5091,13.2494,3.8985,12.9786,20.5236,11.2453,33.8011,16.5522,18.7091,16.7026,2.1718,
22.3457,13.9727,-3.4074,10.8014,-1.6455,-10.4354,26.2999,5.1922,24.6706,17.673,29.6591,23.5714,1.6005,-12.0585,
6.9049,-0.96565,-10.109,6.6424,-15.6468,-23.9093,10.6219,-9.2193,9.0904,2.5126,13.7795,8.0571,-12.5956,-25.435,
-7.6094,-3.2099,-23.6024,20.3439,-28.808,-8.3747,-4.1154,-22.7661,-5.555,-11.7381,-1.1473,-6.5263,-25.9398,-38.0089,
6.9472,11.0827,-36.2863,33.2232,-12.9795,6.2278,10.2315,-7.3002,4.9066,3.0662,13.0216,7.9653,-10.2834,-21.6283,
20.6304,-0.91981,-20.0091,17.1298,1.8993,19.9541,23.7176,7.2378,18.7122,16.9822,26.3403,21.5874,4.4336,-6.2306,
5.2925,-14.9646,-4.7086,2.0021,8.23,4.6568,32.7667,2.2,31.6895,24.2499,37.2453,6.1921,18.2676,8.2432,
-9.125,-11.4761,9.6739,15.9819,-6.3638,-9.7226,16.7007,-12.032,15.6881,8.6949,20.9106,-8.2794,3.0715,-6.3514,
-22.6775,3.3125,-5.0065,23.9422,5.8166,4.9608,24.7348,-25.4101,28.8468,-5.9268,33.756,6.3173,-11.2128,-12.5875,
-7.2169,17.2137,-6.5474,8.4057,19.5676,18.7631,9.1507,-9.7855,35.2861,8.5288,45.8306,20.0383,3.56,2.2678,
7.3162,2.0809,7.9454,-6.1987,4.2936,3.5374,-5.4984,4.9016,19.0689,22.1171,28.9808,4.736,17.4464,-6.9042,
-7.2228,-5.2384,3.9573,-9.3933,-10.064,13.4535,8.9315,14.7361,3.8248,26.315,20.7968,-9.6482,15.1907,7.61,
7.3106,-19.0241,13.8482,-18.958,-22.5229,26.7463,-5.7044,27.9519,-10.5047,38.8361,5.449,-23.1693,28.3792,21.2534,
-2.6798,-12.9904,25.908,-30.7111,-35.2715,11.0415,-19.4621,12.1748,4.2256,22.406,15.5388,-23.6755,12.5765,5.8782,
-16.6191,1.889,10.2535,-14.7685,-19.0552,-3.721,-4.1944,-2.6557,18.072,6.9616,28.7065,-14.8889,-2.2781,-8.5745,
-1.5219,15.8756,-4.4617,0.21763,-21.1347,10.6022,6.7624,-0.82689,10.831,9.1339,12.8841,0.10442,-16.2414,-22.16,
-6.4947,0.8231,-6.8393,2.8499,-26.3123,24.0661,-7.7433,8.4305,-3.9188,3.0615,-1.9889,14.1982,-13.3085,-34.9304,
7.995,-13.3263,7.671,-11.4211,-10.6336,8.5221,-21.3787,22.0247,-17.7837,16.9778,-15.9696,-0.75374,1.59,-18.7346,
-6.5847,1.5733,2.7789,-6.3039,-24.0956,-6.0892,-5.996,6.6032,-2.6167,1.8592,-0.91142,-14.8085,-12.6054,-31.7105,
-20.2896,15.5789,-11.4879,8.1743,-8.5499,-19.8238,8.4638,-7.893,11.6403,-12.3524,13.2433,0.18,-25.949,-19.1023,
-33.1722,28.7442,-24.8986,21.7839,-5.5623,-4.5344,22.056,-21.5194,25.0419,-25.7113,13.8297,14.2692,-38.4921,-32.0562,
-17.0819,12.9195,-9.3047,6.3768,8.8714,9.8377,6.6326,-6.1282,37.6394,-10.0686,27.0999,27.513,-22.0826,-16.0328,
-1.957,-1.9557,5.3536,-8.1058,22.4391,-4.8526,-7.8654,8.3395,21.281,4.6355,11.3739,11.7623,-6.6576,-0.97082,
12.2604,-1.206,19.1324,-21.7194,6.9928,-18.6614,-21.3767,21.9391,5.9042,18.4574,-3.4085,-3.0435,7.8418,-15.0126,
-2.5752,12.9664,3.8844,-6.3163,16.8732,-19.727,-5.9941,6.5227,19.6499,3.25,10.896,-5.9115,-6.7287,-1.2212,
-16.2318,0.3902,-10.4486,8.1627,1.7608,-4.4434,8.4656,-7.9686,21.8653,-11.045,1.9556,-4.176,-20.4249,-15.2479,
-1.1579,-13.7332,4.2783,-6.4271,-2.1995,9.9232,-6.1424,6.6095,6.4534,3.7177,-12.2617,10.1745,-5.0994,-0.23305,
13.0116,-9.3978,10.4667,-12.4865,12.0325,23.4278,-19.8738,20.3129,-8.0338,17.5946,-25.626,23.6641,9.3065,13.8809,
-1.8691,5.266,2.0121,2.3627,-2.7895,7.9222,-4.5814,4.9942,6.5482,2.4389,-9.9884,8.1442,-5.3519,-1.0519,
-15.857,19.0501,-8.2372,16.3209,-13.6714,-6.6532,9.7935,-9.4055,20.2553,-11.8074,4.7109,-6.4444,-19.1308,-15.0888,
-27.3361,32.0071,-21.8429,22.1305,-26.9512,7.846,23.3059,-22.9412,4.94,-25.199,9.4923,-4.6763,-32.0829,-28.2835,
-28.458,44.1866,-29.9116,21.7236,-22.7441,21.4753,7.8075,-34.339,-9.4564,-15.2837,-5.1773,7.5739,-24.5171,-12.4865,
-12.6505,55.6354,-34.1017,23.643,-7.2795,34.2867,-6.7609,-18.1787,-22.989,-0.26664,-18.9666,21.2195,-8.9461,2.3627,
2.2085,38.1973,-17.9556,8.1244,-2.5271,31.9967,7.7447,-2.9879,-7.5097,13.8494,-3.7286,34.0463,5.6907,16.321,
-12.024,50.0055,-2.7783,-5.8865,-5.598,15.9769,21.38,-16.9087,7.0409,-1.0816,10.5951,17.9035,-8.7507,8.1475,
2.7974,32.9052,11.4884,-19.6333,8.8379,0.91827,5.9972,-1.7941,-7.4815,13.0833,-4.1406,2.7293,5.8743,-4.3114,
16.7296,16.8308,24.8991,-32.5553,22.4076,14.9632,-8.4626,12.4135,-21.1326,26.3983,-17.9922,16.6656,19.6219,10.0473,
29.8258,1.721,9.3052,-16.502,35.1631,28.1654,6.1452,25.7687,-5.7647,38.9144,-2.8127,29.7656,32.5445,23.5444,
35.6295,-8.6274,3.2772,-2.3322,18.9533,12.3755,19.8765,10.1226,8.6812,22.4795,11.4561,13.8797,22.5325,26.1583,
19.3917,-1.2041,13.6696,-16.2922,14.0161,-2.4671,19.6597,-2.3998,22.2603,7.0308,24.8687,-1.0531,35.2805,12.1582,
32.3282,-15.2319,26.9494,-29.4147,10.8736,-16.419,4.3802,11.8442,6.8247,20.7089,9.2766,-15.0899,47.2637,25.5287,
16.2885,-28.418,14.455,-13.5498,-3.8788,-1.3339,-9.9827,-2.9664,-7.6848,5.3664,-5.38,-17.1184,30.3279,9.897,
1.2112,-12.6129,-0.51228,1.3632,10.4539,12.8461,4.7163,-10.1543,6.8763,-6.5819,9.0428,-1.9913,19.4725,23.4032,
15.2386,2.2439,-14.5815,15.3814,-3.9851,26.1754,18.5333,4.555,20.5637,7.913,22.6002,12.2281,15.0807,36.099,
0.22425,-1.1133,0.39335,0.35849,-4.6663,38.7048,19.7233,16.4236,20.2511,21.5382,11.288,-2.6055,28.2759,44.8663,
14.3108,-15.1465,14.4697,-13.763,9.7136,22.2826,4.4399,2.0867,4.936,24.2729,-3.4893,-16.5492,32.2762,28.8228,
-0.64785,-28.3377,27.7016,1.1628,8.842,6.8456,-9.9265,-12.1385,-3.3588,8.7165,-17.3799,-2.6656,16.2396,12.9934,
13.491,-12.5375,11.9395,-13.007,22.4115,20.5349,4.7691,2.6898,10.9428,22.2935,-2.2371,11.5943,29.3652,26.3138,
26.7816,-17.9419,25.3231,-26.3266,6.9668,33.4028,-9.617,16.6284,16.4429,35.0559,8.3136,-3.2014,39.1129,10.635,
11.0747,-4.4355,9.7037,-10.647,-7.5512,43.0794,5.06,21.7876,1.3563,18.8526,-6.2852,-17.1093,22.6661,4.7609,
24.5102,-18.2693,6.3592,-6.9575,1.4771,26.3946,-9.3436,34.5803,-12.8251,31.8214,-20.0081,-30.1827,35.4062,18.5753,
8.9396,-3.0732,-8.1223,7.56,-12.7116,10.711,5.317,18.4055,2.0444,15.8121,-4.7076,-42.4718,19.1818,3.3608,
-5.6968,11.2112,-21.735,21.2064,-26.0489,-4.0317,19.098,3.2012,16.0218,0.76339,9.6748,-25.8235,3.9309,-10.9409,
8.745,24.6385,-29.5219,29.025,-16.0824,10.3102,32.0521,-11.0909,29.1605,-13.3824,18.7624,-10.174,-10.405,-21.0449,
22.3203,9.0602,-13.6506,13.1835,-8.6719,23.7916,16.029,3.6746,13.3108,1.5205,3.5367,4.5364,4.3193,-5.6822,
35.0811,-5.5834,1.2684,-1.7075,5.9484,8.2641,0.96725,17.5541,-1.5878,15.5293,-10.7755,18.3642,18.1602,8.7587,
18.8762,-8.0104,15.2923,-15.705,-8.5085,-6.3317,-12.1533,2.4008,12.6075,0.49754,0.5766,3.1624,2.9706,-5.8668,
3.6436,6.5702,0.27476,-0.66273,-22.098,-20.0518,2.6759,-11.8432,25.951,-13.6323,14.642,11.2599,-11.3077,-19.6148,
-10.675,20.276,-13.8417,13.477,-34.8721,-4.7487,1.7665,-25.2326,38.4939,-26.9144,-0.33651,24.6843,-24.7292,-32.5379,
4.0655,4.9594,1.0888,-1.4316,-18.6798,9.6362,-12.4395,-9.6187,22.0843,-11.1995,-8.1427,37.3032,-9.1455,-16.4856,
17.9216,-9.4382,15.1235,-15.4457,-3.459,23.158,-25.7931,5.0585,6.6593,3.5725,-21.7541,45.0764,5.5033,-1.3965,
30.9463,-21.7627,28.316,-28.619,-17.3514,7.6685,-10.1456,18.855,-7.8403,17.4581,-32.5906,28.2718,13.5769,-9.8882,
14.9895,-6.3569,12.5171,-12.8018,-10.0371,-6.8916,4.5632,3.6237,6.7301,2.3106,-16.5351,40.6755,-1.3377,-21.7252,
-0.0098491,3.8646,-2.3339,2.0663,-23.5349,1.7539,-9.8106,-10.6938,-3.3418,-11.928,-27.8015,24.135,-15.3575,-34.5217,
14.0907,17.7328,-5.5332,-3.0054,-8.0228,15.7486,-23.322,4.0479,-17.2413,2.8877,-40.2334,36.7869,-0.33603,-18.3504,
27.3453,30.7688,-19.3012,-16.9251,6.5586,28.9037,-34.697,17.905,-30.3068,16.8144,-35.6897,48.6797,13.7841,-3.1494,
11.6046,14.8227,-20.6168,-1.8096,-7.935,13.0695,-28.9319,2.7307,-14.3884,1.7055,-19.4483,31.6589,-1.1429,-17.0604,
-3.1917,28.0333,-5.2798,12.399,-2.8548,-1.8147,-13.096,-11.5331,0.57492,-12.4968,-4.1814,15.6594,-15.1743,-30.1368,
1.4313,12.2513,8.5598,-2.445,4.2227,-15.8058,1.7898,-22.2338,-13.5596,-22.2193,-18.0306,0.6198,-26.5781,-14.2286,
15.4454,-2.5838,22.1462,-16.3983,18.0693,-0.75746,-12.4176,-6.7998,-0.94778,-6.7861,-10.3315,14.6826,-10.8834,0.72513,
18.8343,11.6713,6.7174,-1.3144,31.0852,13.388,-14.7234,7.7082,13.2091,7.721,4.3883,27.9017,3.8696,14.7816,
3.6042,25.071,-7.7856,12.8645,15.1201,-1.5153,0.25996,-6.8543,26.5165,-6.8422,18.225,12.1276,-10.4626,-0.20527,
-10.712,13.3214,-7.4902,-2.0074,0.11285,-15.5244,14.3444,-20.543,39.0255,-20.5317,31.2315,-2.7001,-23.9349,-1.4026,
4.0307,-1.5779,7.0593,-15.9869,-11.4039,-28.6929,-0.6163,-5.2104,22.584,-5.1998,15.2577,-16.6381,-8.3988,11.5727,
-10.3111,12.6168,20.7357,-0.92772,-13.9423,-12.8713,-14.6793,-18.9978,7.129,-18.9878,0.24219,-29.7398,-21.9948,-3.2217,
4.4075,25.9598,5.3916,13.2279,0.99428,2.0009,0.30144,-3.7579,7.7941,-3.7485,14.3277,-25.8806,-6.5751,11.0716,
18.2431,10.3022,-9.0319,15.3686,5.7101,15.9809,14.3834,10.5675,21.4264,10.5764,27.568,-10.2278,-2.3253,-3.6927,
3.0485,14.2879,-13.0938,0.34651,-8.7325,6.9069,12.4828,-4.1665,34.2408,-4.1582,14.9202,4.4859,-16.2858,-17.5711,
16.9656,-0.66941,1.7918,-13.7743,5.8914,-7.6076,-2.3661,10.1835,18.0864,10.1913,-0.075058,-9.8833,-1.2086,-2.4169,
17.7885,-14.7292,15.7843,-22.9596,19.6379,6.9489,-16.3242,14.52,2.9012,10.8443,-14.1706,-23.3903,12.9639,6.7634,
2.6212,0.25451,0.73725,-7.4821,32.5597,20.632,-1.2447,-0.4512,16.8271,-3.9063,0.77968,-7.8869,19.7244,20.4576,
-11.6361,12.0377,-13.407,7.0669,16.5061,33.494,12.93,-14.5241,29.9175,-17.772,14.8329,6.6864,4.441,5.1302,
-25.0379,-2.7846,-16.2858,19.4169,1.4157,36.4319,-1.9458,0.44732,14.0225,-6.4601,-0.15708,20.3852,-1.5226,13.5697,
-9.4356,-16.7175,-1.2087,4.1519,11.9196,20.146,-15.9291,14.5205,-0.91889,8.0275,-14.2477,5.0621,12.6688,26.8555,
-22.9695,-1.6145,-15.2361,18.0028,-2.8956,4.8373,-0.87333,-0.45075,13.2362,-6.5542,0.70721,-9.3417,-2.1913,11.1442,
-35.6913,12.5824,-28.422,31.0226,-0.13122,-9.553,13.2791,-14.5237,26.5421,-20.2609,14.7648,-12.2923,-16.1599,-3.6245,
-19.4498,18.733,-13.5374,15.0613,11.8467,5.1202,26.5823,0.44772,11.0214,-4.9453,16.6409,2.5452,-1.0903,2.4066,
-4.1829,3.5091,1.3748,0.057607,7.9136,18.913,10.8874,14.5209,-3.7399,9.4515,1.5425,16.4925,13.0751,16.3622,
10.1681,-10.8015,15.3923,-14.0458,21.5388,13.463,-3.8659,27.7496,-17.6155,22.9844,-12.6501,1.403,26.3906,29.4805,
-4.542,-24.2534,21.2578,-19.0714,27.7842,-1.4447,10.4661,11.9846,-2.4585,7.5053,2.2089,-12.7812,10.7072,13.6116,
-18.3695,-8.6982,5.8824,-3.8271,40.2171,-15.4581,23.9381,-2.8344,11.789,-7.045,16.1764,1.7972,-4.0352,11.5856,
-3.1673,-0.23299,-8.5706,10.5025,23.7041,-0.43058,8.4018,-16.6476,-3.0184,-4.7806,1.1058,15.7894,-17.8931,-3.2096,
11.1228,-14.319,4.4908,-2.6747,8.1819,13.6953,-6.2023,-1.5488,11.2627,9.6063,15.1395,28.942,-2.7195,11.083,
24.5554,-27.5599,18.3213,-16.6142,21.7909,26.9735,-19.9301,12.6442,24.687,23.1299,28.3311,41.3055,11.5436,24.518,
8.9821,-11.8063,5.8843,-4.2797,6.3835,11.2551,-4.6343,-2.2145,9.1057,7.6421,12.5312,24.7272,-3.249,8.9469,
-5.6569,3.0021,-8.5687,10.0771,-8.0995,-3.5202,9.7437,-16.1816,22.6594,-6.9164,19.1454,10.6962,-17.154,-5.6899,
-19.4174,15.7126,-22.1546,23.5725,-21.7135,10.791,-4.9409,-29.3107,35.3998,-20.6014,3.8967,24.1545,-30.2248,-19.4485,
-4.1524,5.562,-6.7253,8.0581,-6.3107,24.2436,-18.7444,-13.4521,19.1758,-5.2654,-10.4371,30.7036,-14.3113,-4.1816,
10.1967,-8.8717,7.7782,-6.5254,8.1679,36.889,-31.7198,1.455,3.9253,9.1506,-23.9109,14.7614,0.64737,10.1693,
23.6849,-16.7981,21.4115,-20.2338,-6.4222,20.5756,-15.7166,15.4677,-10.4102,22.7015,-27.5954,-0.22428,-1.6935,-4.5408,
8.1638,-1.6902,6.0268,-4.9198,7.4304,5.2411,-0.67359,0.43967,4.3144,7.2394,-11.8397,-14.3108,-15.6919,-18.3684,
-6.426,12.5112,13.9522,9.4754,20.7959,-9.1734,7.9425,-13.6867,-10.0445,-7.2949,-25.2293,-27.5522,-28.8504,-23.1344,
8.0596,-2.3395,27.2151,-5.1931,33.6482,5.477,-6.6341,1.2345,-12.8364,7.2428,-37.8155,-11.799,-13.0193,-7.6463,
21.676,11.9009,11.4822,-18.9815,45.7293,19.2484,7.864,15.2604,2.0338,20.9082,-21.4466,3.0089,1.8618,6.9125,
6.2754,25.2869,-3.3067,-3.7427,28.8855,3.9935,21.4921,0.2448,-12.1883,5.5537,-10.0312,-11.2716,-12.3499,-7.6023,
-8.2011,37.8696,-0.057214,10.5819,13.0524,-10.3461,34.3026,-13.8699,2.643,-8.8795,4.6706,-24.6953,-25.7089,-21.2461,
6.391,21.4975,2.7081,-4.153,-1.8308,-23.8253,18.1445,-19.483,-11.6156,-22.4467,-9.7096,-37.3136,-38.2664,-31.9419,
-8.0925,23.4855,-11.5544,-2.9829,-15.8209,-16.294,2.9558,-31.2046,-25.0186,-35.1999,-23.227,-49.1748,-30.0402,-33.7084,
-7.0293,36.1764,-24.9612,11.2961,-8.3096,-4.7276,6.0012,-15.2324,-35.6592,-18.9879,-35.9334,-60.3243,-14.1378,-17.5859,
7.4925,36.4797,-37.5635,17.6958,-21.911,9.6561,19.7411,-0.21842,-19.4197,-3.7487,-19.6774,-42.6049,0.81045,-2.4307,
-0.15125,20.1909,-21.5534,2.5341,-34.6964,-5.0233,32.6567,13.8947,-4.1545,10.2868,-4.3968,-25.9486,14.8618,-2.8617,
13.9578,4.8794,-6.1602,-11.718,-29.7353,-18.8219,16.5973,27.161,-18.0052,23.7696,-18.233,-38.4916,28.0701,-7.2938,
-0.97964,0.099182,2.6677,-2.6113,-42.0512,-31.7926,1.5014,11.4313,-31.0249,8.2434,-31.239,-50.2821,12.2859,-20.9562,
-15.0209,14.1932,-11.5924,11.6453,-25.4281,-15.785,15.5113,-3.3545,-15.0634,-6.3512,-15.2646,-61.3652,-2.5512,-17.1086,
-0.019612,-0.75836,-3.2417,6.975,-16.9964,-0.73791,1.4012,10.9467,-0.059617,8.1299,-0.24876,-43.5833,11.7018,-2.2703,
14.0816,-14.8129,11.0528,-7.5435,-1.8766,13.4064,-12.7829,24.3899,7.6535,21.7421,8.0528,-26.8683,25.0997,11.9659,
27.3367,-28.0241,17.4671,-14.1684,-15.864,-0.57726,-26.1159,37.0265,-6.9057,34.5375,-6.5304,-23.0644,37.6937,25.348,
11.5965,-12.2426,2.319,0.78174,-29.0122,-14.6426,-38.6489,20.7049,-20.5913,18.3653,-20.2386,-35.7806,21.3321,9.7271,
-3.1993,2.5919,-11.9201,14.8348,-41.3715,-27.8641,-22.23,5.3626,-11.8728,3.1634,-4.9243,-47.7337,5.9522,-4.9565,
11.0926,11.6444,-16.1522,18.8921,-24.7892,-12.0922,-6.7962,19.1409,2.9396,-2.0896,9.4712,-30.7697,-8.5049,2.7072,
6.9159,-3.1542,-1.0831,3.6585,-37.4018,2.7333,-20.4884,32.0924,-11.3368,12.1358,-5.1971,-14.8235,6.1054,11.7521,
20.601,-17.065,-5.9105,8.3314,-31.8186,16.6693,-33.3591,44.2669,-24.7566,25.5076,-18.9852,0.16589,19.839,25.147,
5.2649,-1.9411,-19.6559,21.9315,-43.7207,1.5692,-17.2576,27.5109,-9.1712,9.8772,-3.7461,-13.9441,4.5487,9.5382,
-9.151,12.2754,-25.5538,6.5157,-26.9974,-12.625,-2.1221,11.7602,5.4791,-4.8155,10.5786,0.99258,-9.8242,8.9665,
-22.7019,-2.5611,-9.9205,-7.9753,-21.0626,2.2325,12.1052,-3.0454,-8.9497,-18.6265,24.0439,15.033,4.8652,-5.6715,
-7.2398,-9.4851,4.7747,-21.5968,-5.6989,16.1986,-2.7211,11.2373,5.6873,-3.409,8.5017,28.231,18.6733,8.7688,
7.2946,-9.837,1.1485,-6.201,8.7431,29.3266,-16.6578,24.6631,-8.7539,10.8956,-6.1084,40.6372,31.6529,22.3427,
-7.2431,-23.3468,3.3814,2.2863,-5.8815,13.467,-1.5584,9.0833,5.8713,-3.8582,6.0559,24.0989,15.6537,6.9021,
-20.9085,-7.846,-10.9215,-0.61318,-19.6286,-1.441,12.6351,-5.5617,19.619,-17.7267,19.7925,33.297,0.61451,-6.864,
-21.3794,6.7248,-24.3662,13.5236,-30.8813,5.5511,-2.223,-19.328,32.5419,-30.7631,20.1579,45.3991,-13.5224,-20.5521,
-34.1967,-7.7787,-29.2326,26.8122,-43.1284,19.318,-16.1896,-32.2683,16.4894,-43.0173,4.8484,52.9752,-26.811,-33.419,
-18.0449,6.788,-13.3786,11.1035,-26.4407,32.2589,-23.3883,-16.2322,1.4,-26.3362,-9.5425,63.8967,-11.1024,-17.3139,
-2.8622,-1.7342,1.5241,-3.6627,-23.9333,16.2234,-7.885,-1.1583,15.416,-10.6561,5.1301,45.9629,3.6638,-2.175,
-16.7904,12.4698,15.5326,10.657,-27.1011,1.15,6.6881,-15.1888,28.591,-24.1167,18.9223,29.1051,-10.656,-16.1445,
-29.883,25.8216,23.8632,24.1176,-11.375,-13.019,3.4078,-28.3775,12.7756,-36.7697,3.6869,13.2588,-24.1167,-7.9812,
-13.99,20.0123,8.3314,8.5705,3.4075,1.8621,-0.9402,-12.5748,-2.091,-20.4635,-10.6343,26.5633,-8.5697,6.5976,
0.94937,4.7115,4.4371,-6.0437,17.303,15.8504,-13.3137,2.2797,-16.0655,-5.1357,-20.9286,39.0695,6.0445,20.3018,
14.9924,-9.6712,18.2708,-19.7811,2.1649,0.79937,1.5851,16.2429,-29.2016,9.2724,-29.8012,22.6253,19.7818,4.9837,
-0.0071359,5.0091,3.0746,-4.4942,-12.065,-13.3486,15.59,1.1683,-13.3495,-5.3839,-13.9131,7.1678,4.4949,-9.4153,
14.0933,-9.3914,7.9544,-6.0663,-25.4411,-26.6477,0.55461,15.1982,-26.6485,9.0391,-27.1784,-7.3623,0.59687,-1.0239,
27.3477,-22.9279,21.5771,-19.8023,-9.8147,-10.9488,-13.5787,28.3863,-31.2065,22.5968,-36.1365,7.1795,14.6611,13.1376,
39.8068,-7.4523,6.1825,-8.197,4.8742,3.8081,1.3361,40.7832,-15.2341,35.341,-19.8683,20.8487,27.8814,26.4493,
51.5184,7.0949,-8.2884,-21.8052,-3.8218,17.6796,15.3559,52.4362,-0.22007,47.3205,-4.5762,5.4978,35.2996,38.9624,
34.3273,0.052,2.1653,-34.5969,-17.6925,2.5188,28.5345,35.19,-4.0069,30.3813,9.7984,-8.9321,26.7367,50.7246,
18.1677,-14.0511,16.1354,-18.421,-12.6597,-11.7323,12.7225,18.9786,-17.8665,14.4584,-4.8895,-22.4962,11.0325,36.859,
2.9776,0.89195,1.0673,-3.2158,-26.0002,3.0717,-2.1409,3.7399,-6.8378,-0.5091,-18.6962,-35.2464,-3.7294,20.5475,
-11.301,14.9384,-13.0967,11.0772,-10.3401,16.9874,12.0876,3.282,7.6725,8.2681,-3.4744,-35.832,6.7394,30.1919,
3.477,28.1421,-26.4109,3.2181,-6.0365,30.0681,25.4623,17.1851,21.3121,21.872,10.8341,-19.5821,20.4351,26.0783,
-10.8316,12.3536,-10.7263,3.9458,-11.1991,42.364,27.6723,2.054,5.9334,6.4597,18.0657,-4.3072,12.9349,23.5924,
-11.3909,-2.4876,4.0173,-7.8006,-15.5912,25.7222,11.9119,-12.1693,-8.5226,-8.0279,2.8818,-18.1488,-1.9412,19.8753,
-24.8074,-6.0212,-2.669,6.7675,-28.7557,10.0789,-2.9028,-25.5391,-6.6298,-21.6462,-11.3911,-31.1598,-15.9248,4.5828,
-37.419,8.4401,-16.6089,20.4614,-12.9304,-4.6259,11.3714,-38.1068,7.868,-34.4474,3.3923,-43.3902,-29.0693,-9.7922,
-21.0738,-6.1663,-27.7541,33.3337,-24.1244,9.7517,6.8342,-21.7204,21.4959,-18.2806,8.5415,-26.6868,-20.4738,-16.9142,
-5.7094,-19.8963,-11.9889,17.2337,-8.5769,23.2666,-7.6758,-6.3171,18.708,-3.0838,19.5386,-10.9856,-5.1454,-1.7994,
8.7332,-32.8026,2.8305,2.0997,6.0377,27.2786,-21.3153,8.1619,3.4855,11.2013,4.2663,3.7735,9.2634,12.4086,
-5.8908,-44.9344,-11.4394,16.0737,-8.4246,11.5419,-34.1364,-6.4278,-10.7067,-3.5708,-10.0897,-10.5529,-5.3924,-2.4359,
-19.6374,-28.1383,-24.853,29.2093,-1.7622,-3.2506,-17.9882,-20.1422,4.0357,-17.4566,4.6157,-24.0197,-19.1689,-16.3898,
-4.3591,-12.35,-13.2335,19.225,12.4435,11.0444,-2.8089,-4.8336,9.0293,-2.3092,14.295,-8.4785,-7.8908,-1.3064,
10.0024,-18.6867,1.6605,3.9715,21.0764,24.4817,-16.7404,9.5564,22.5875,11.9294,24.9471,6.1302,6.6826,12.872,
23.5023,-3.4655,15.5442,-10.3668,33.9118,37.1128,-29.8359,23.083,7.1323,25.3136,9.3503,19.8624,20.3816,26.1997,
7.9921,4.2801,0.5115,4.3552,17.7771,20.7861,-13.9458,7.598,1.18,9.6948,3.0926,4.5706,5.0587,10.5277,
-6.5874,18.1233,-13.6192,-10.0061,2.6105,5.4389,0.99096,-6.9579,15.2092,-4.9869,17.0071,-9.8036,-9.3448,-4.204,
7.9078,2.9359,1.298,-23.5057,-11.6462,19.2126,-6.1459,7.5596,0.19666,9.4123,1.8866,1.5451,5.3159,-13.4479,
21.5334,13.3488,0.58773,-7.9954,3.1526,32.1598,-19.8772,21.206,-13.9151,22.9476,-12.3266,15.5524,19.097,1.459,
34.3414,10.2457,-13.5475,6.5844,17.0634,44.3302,-32.7846,34.0337,-27.1802,35.6707,-25.687,28.7192,32.0511,15.4714,
46.3809,-4.4691,1.3653,-7.9107,26.6285,27.5704,-16.7175,46.0917,-11.4494,47.6305,-10.0458,12.8961,44.2281,28.6431,
29.498,5.2955,3.5856,-21.5361,26.8723,11.8162,-1.6144,29.2262,3.3375,30.6727,4.657,24.7245,27.5297,12.8245,
13.6282,-6.532,-8.1393,-6.1439,11.1599,-2.9928,-15.6176,13.3726,-10.9627,14.7323,-9.7224,9.1411,11.7779,-2.0449,
-1.2895,-20.2401,-21.751,8.3247,-3.6097,11.2868,-28.7805,-1.5298,-24.4049,-0.25164,-23.2391,22.6926,-3.0287,-16.0222,
12.8878,-4.9257,-27.5234,21.9252,10.7069,24.7096,-34.303,12.662,-37.0406,13.8635,-7.7447,35.431,11.253,-0.9609,
26.2146,9.4698,-11.772,6.5097,21.8623,33.0665,-18.1448,26.0023,-20.7182,27.1317,6.8199,19.2052,24.6778,13.1968,
10.5417,23.0016,3.0344,16.0754,6.4505,16.9825,-2.9561,10.3422,-5.3751,11.4038,20.5108,3.9529,9.0971,-1.6951,
-4.1908,22.886,16.9523,28.9227,-8.0365,1.8636,-16.8788,-4.3784,-19.1526,-3.3805,5.1801,-5.664,-5.5487,-15.6933,
-18.0394,7.4129,1.8352,13.0873,6.5457,15.8518,-1.766,-18.2157,-32.1035,-17.2776,-9.2307,8.7759,6.8706,-0.65175,
-2.857,4.4945,11.2764,-1.7979,20.253,29.0006,12.4399,-3.0227,-44.2772,-2.141,-14.3728,22.3493,20.5584,13.4874,
11.4144,-9.8752,24.6998,-15.79,4.9378,24.4986,14.5107,11.2586,-27.5206,12.0875,0.58953,20.4313,23.6403,-1.4219,
-3.3704,4.8173,9.1178,-28.9426,-9.4585,8.9286,27.7401,-3.5169,-11.7694,-2.7378,14.6542,5.1055,8.1219,-15.4366,
10.9318,-9.5717,2.1254,-13.1061,1.8148,-5.7071,11.9757,10.7941,-25.1632,11.5265,-0.32509,-9.3009,9.7645,-0.41038,
13.8426,-23.0974,16.0979,-26.4197,15.8059,8.7353,-2.8429,14.0009,-37.7534,-1.8838,-14.4056,5.3572,23.2786,13.7142,
27.112,-7.6116,1.032,-33.8086,28.9576,22.3112,11.4277,27.2609,-21.3882,12.3292,0.55875,19.1357,35.9819,26.9914,
39.5853,6.9451,-13.1299,-17.6801,13.1201,6.8726,24.842,26.2576,-6.0049,25.6894,14.6252,3.8876,19.723,11.2719,
23.1102,-7.5716,-18.0387,-2.5193,-1.7671,-7.6398,9.2515,10.5821,-19.7446,10.0481,-0.35229,-10.4457,4.4396,-3.5044,
35.8236,-21.2173,-2.8564,-16.4681,-13.1709,-21.2814,-5.4036,24.0472,-32.6599,23.5452,-14.4312,-23.9189,6.4754,10.8059,
19.5742,-5.8443,0.24933,-1.38,-21.1273,-34.1045,9.0206,8.5044,-16.6004,8.0325,0.53472,-28.0634,-8.0131,-3.9425,
4.2997,8.6064,-13.8656,12.8028,-5.7596,-46.1583,22.5794,-6.1059,-1.5043,-6.5495,14.6026,-40.4796,-21.6323,10.3941,
18.1417,12.2335,1.0663,10.7085,8.6859,-29.2888,35.3246,8.3605,12.6859,7.9435,27.8265,-23.9509,-6.2344,23.8704,
15.8439,-2.6005,-13.0977,-4.034,-5.9352,-13.4314,19.1052,21.9588,26.0248,21.5669,21.6078,-8.4138,-4.1909,8.3382,
28.9932,-16.5445,1.7882,-17.892,8.5209,1.4744,3.8588,34.7413,10.3633,34.3729,12.9455,6.191,10.1606,21.9379,
13.1536,-1.4518,-12.4191,-30.9185,-6.0904,-12.714,9.1523,18.5568,-4.3585,18.2105,7.5647,-8.2804,-4.5491,6.5216,
-1.7356,12.7353,-25.774,-14.9634,4.5744,-26.0512,22.7032,3.3434,10.003,3.0179,21.2108,6.3164,-18.3761,-7.9697,
-15.7315,11.0502,-23.1902,0.034432,-7.6697,-10.3881,15.0673,-10.9572,23.5028,-11.2632,34.0382,20.0374,-31.3735,-1.3352,
-0.68757,-1.1219,-7.6988,-14.0676,6.8905,4.3352,0.063274,3.8002,7.9927,3.5126,17.8959,32.9352,-15.3911,12.8449,
13.4537,-8.4209,6.8631,-27.3236,20.577,18.1751,-14.0405,17.6722,-6.5869,17.4018,2.7221,23.3597,-0.36766,26.1742,
-1.4535,-22.0157,-2.4123,-11.5842,5.2424,2.9846,-27.2981,2.5119,-20.2917,2.2577,-11.5412,7.8581,-14.4456,10.5037,
-15.4663,-6.5947,-16.3676,3.2109,-9.1721,-11.2945,-11.5602,-11.7388,-4.9742,-11.9777,3.2513,-6.7134,-27.6789,-4.2265,
-28.6383,7.901,-29.4855,17.1182,-5.8593,3.4832,3.2334,-25.1345,9.4243,-25.3591,17.1562,7.7894,-40.1181,-13.1801,
-41.02,21.5269,-31.2829,25.7592,-19.6077,17.3742,-11.0606,-37.7264,2.2414,-37.9375,2.0268,21.4221,-25.7963,-1.8006,
-24.4588,21.0393,-15.3059,25.5947,-4.3313,30.4317,-24.497,-21.3628,-11.9931,-21.5613,-12.1948,34.2367,-10.1485,12.4074,
-37.0913,5.6769,-0.28755,9.959,10.0286,14.5058,-8.9271,-34.1811,2.8265,-34.3676,2.6369,18.0825,-16.2735,2.1665,
-48.9658,19.4363,-14.3703,-4.7385,0.85144,-0.46453,5.7085,-46.2302,16.7569,-46.4055,16.5787,2.8976,-28.6478,-9.4731,
-31.9279,4.1701,0.59192,-18.5542,-13.2996,-0.78039,-8.734,-29.3564,1.6515,-29.5212,11.6125,-11.3763,-12.8289,-7.523,
-15.9122,-10.1801,14.6564,-3.341,1.5983,13.3664,-22.31,-13.495,15.6524,-13.6499,-3.1842,3.4063,2.0408,7.0284,
-0.85748,4.5307,-0.32298,4.3421,15.6024,26.6644,-18.7245,1.4147,12.5836,1.2691,-2.7048,17.3019,16.0184,20.7067,
13.294,10.0718,13.7964,-6.5068,28.7663,10.9646,-3.501,15.4298,25.9286,15.2929,11.5575,30.3638,29.1573,33.5643,
-1.6037,13.1508,-1.1314,-20.2164,12.9403,-3.7933,10.809,0.40403,38.4728,0.27534,24.9641,14.442,13.3078,17.4504,
-0.9302,-1.7383,13.0365,-4.9034,11.4154,3.8006,-3.3076,-9.1713,22.0645,-13.8412,12.7611,23.7038,-1.5906,11.2224,
-14.9744,-15.734,-1.8457,9.4908,-3.3695,-10.5274,-17.2091,-22.721,6.6406,-27.1107,-2.1046,8.1816,-15.5952,-3.551,
-21.154,-0.68992,-15.8349,23.0213,10.9327,4.2042,-4.8386,-7.2578,-7.8578,-11.3841,-16.0783,21.7907,-0.67625,10.7621,
-5.7848,13.4515,-7.3469,20.142,24.3767,18.0519,9.5517,7.2777,6.7136,3.399,-1.0136,34.5832,13.4643,24.2164,
-19.5377,12.6444,7.1939,4.8335,8.8141,2.8688,23.0786,-7.259,20.4108,-10.905,13.1472,18.4082,10.0663,20.1728,
-32.4654,-2.2143,20.8623,3.9114,-5.8147,-11.4033,7.5939,-20.9234,5.0862,-24.3507,-1.7416,3.2038,-4.6377,4.8624,
-44.6175,-15.6044,5.5105,17.7767,8.6342,3.3809,-2.8182,-33.768,-9.319,-36.9896,-15.7371,10.2059,-18.4594,-9.5294,
-27.8405,-0.56814,-4.3165,2.6101,22.2161,17.278,11.4508,-17.6419,-1.5659,-20.6702,-0.6929,23.6936,-3.2519,5.1424,
-12.07,-14.634,10.0425,-11.6465,8.624,15.0318,24.8638,-2.4834,12.6281,-5.33,13.4487,33.4925,11.0432,18.9339,
-15.9496,0.34399,3.1665,-13.8819,9.0275,0.029858,13.1264,11.7656,4.676,9.0898,0.67145,17.383,4.3956,16.4172,
-0.89265,-13.7766,11.7238,1.051,17.2332,-14.0719,-1.7612,25.1596,-9.7046,22.6444,-13.4688,2.24,18.2319,29.5322,
-14.9391,-26.3014,-0.489,15.088,2.0992,-27.3276,12.4445,9.5501,4.9777,7.1857,1.4393,-11.9944,3.038,13.6603,
-28.1427,-10.6233,-14.5597,16.3677,16.0733,-39.788,25.7978,-5.1229,18.779,-7.3454,15.4529,-25.3748,16.9557,26.9407,
-12.3542,0.77481,-2.3486,24.5935,29.2089,-23.3007,38.35,9.2844,31.7523,7.1953,28.6258,-9.7523,7.3625,28.7184,
-25.7129,-13.3717,-2.2074,23.1177,13.3563,-7.8026,21.949,-5.3726,15.7471,-7.3364,12.8082,4.9329,-7.1793,12.8953,
-10.0702,-26.6694,12.025,7.6306,26.6549,-21.4345,6.532,9.0497,0.70232,7.2038,-2.0603,18.7369,7.3515,26.2216,
-7.624,-10.9692,8.2524,7.4614,22.4655,-34.2484,20.2401,-5.5933,14.7602,-7.3285,12.1633,3.5127,21.0104,10.5483,
-21.2665,3.7889,-6.3428,21.1137,32.1662,-28.2765,33.1257,-19.3577,27.9746,-20.9888,25.5335,17.4019,5.6498,24.0154,
-5.8906,9.5466,-7.9754,24.6225,18.7271,-12.4799,36.5464,-4.0962,40.3961,-5.6294,38.1015,30.4578,-8.7892,8.4745,
8.5629,-5.1262,6.6032,9.0452,31.7034,2.3689,20.2536,10.2496,35.7259,8.8083,25.2819,42.7303,5.8381,22.066,
22.1491,-18.9186,20.307,-5.5975,43.9012,16.3267,4.9384,23.7346,19.4823,22.3798,9.665,38.0368,19.5878,34.842,
34.9202,-3.6835,27.2588,-19.3617,27.1672,1.2471,18.7421,36.4105,32.4134,35.137,23.1851,21.6546,32.5126,18.6515,
18.7249,10.6375,11.5233,-4.1,11.4371,-12.9277,31.7176,20.1259,44.5686,18.9288,35.894,6.2553,16.4618,3.4324,
31.7015,-4.1007,-2.6911,10.246,24.8509,1.948,15.7145,4.8183,55.8777,13.8217,19.6404,19.98,1.3741,0.75261,
43.8994,-17.9547,8.059,-4.4687,37.4599,15.9311,28.8716,18.6292,65.8762,27.0924,32.5619,32.8812,15.3917,14.8075,
55.3654,-28.2702,21.6755,-18.3006,49.3123,29.0752,41.2393,31.6115,47.8236,39.5668,44.7082,45.0083,28.5682,28.019,
37.9435,-12.474,6.275,-3.1026,32.2535,13.2307,24.665,15.6148,30.8542,23.0928,27.9257,28.2078,12.7541,12.2379,
21.5669,2.3744,-8.2015,11.1836,16.2183,-1.6631,31.9326,0.57791,15.3083,7.6072,12.1502,12.4154,-2.1112,-2.5964,
6.1729,16.332,-16.1681,24.6126,1.1452,12.5366,15.9167,-13.5568,0.2898,-6.9492,-2.6788,6.4343,-16.0845,-16.5406,
19.9025,29.452,-29.0094,9.0358,15.1765,25.8844,0.86166,1.3566,-13.8276,7.5678,-16.6181,19.8596,-1.0194,-1.4482,
32.8083,41.7849,-20.3633,22.5937,28.3659,38.4314,-13.29,15.3752,-27.0979,21.2137,-29.721,26.4946,13.1417,12.7387,
16.7398,25.1778,-5.0415,7.138,12.564,25.4748,1.6074,0.35273,-11.3721,5.8409,-13.8377,10.8049,-1.7468,-2.1256,
1.6354,37.7672,-18.839,20.8098,-2.2899,9.8463,15.6109,-13.7684,-9.6527,-8.6096,1.0925,-3.9434,-15.742,-16.0981,
-12.5627,21.4011,-3.6087,5.4612,-13.202,4.4797,0.57427,-27.0423,-23.1735,-22.193,-13.073,-17.8068,-28.8974,-2.4134,
2.2911,6.0171,10.7079,-8.9665,1.6901,18.3109,6.1809,-11.3198,-7.6831,-6.7614,1.8114,-2.6384,-13.0636,11.8314,
16.2536,19.756,-4.0346,-5.5497,15.6887,31.3122,19.91,3.4594,6.8779,7.7443,15.8027,11.6199,1.8202,25.2215,
29.3784,22.0204,-1.3187,-19.3167,0.64737,39.9056,4.6154,17.3518,-0.26871,21.3796,11.1715,25.0227,14.1414,11.1611,
13.5157,10.5706,8.889,-32.2577,-13.4915,23.4112,18.4385,2.2107,1.5889,5.9968,24.6012,9.4214,-0.80713,-3.6086,
26.8048,-4.1636,22.4557,-44.4222,1.418,28.2802,3.2322,16.1781,-12.6064,19.737,9.0251,-5.2439,13.3413,10.7079,
39.2965,-18.0138,12.9932,-27.6569,10.7122,40.6834,-11.0617,29.3074,-25.95,32.6528,-5.6164,9.1707,26.6408,24.1655,
51.0387,-2.833,-1.8864,-11.8975,24.1694,52.3424,-24.498,41.649,-10.293,44.7936,8.8206,22.7205,39.1424,36.8155,
51.7698,11.437,-15.8732,2.9164,8.6193,63.3019,-8.9281,48.1241,4.4246,34.7944,22.3914,7.2573,22.6938,20.5066,
34.5636,24.8508,-7.438,1.3603,-5.9979,45.4038,5.7075,31.1366,18.2591,18.6067,35.1479,-7.2782,7.2322,8.8595,
46.5898,9.2597,7.1083,-12.0722,-6.2699,28.5795,-8.7349,43.3684,3.0635,31.5903,18.939,7.2585,20.8983,22.4279,
29.6944,-5.1068,-7.4182,2.7522,-19.9937,12.7648,-22.3108,26.6663,-11.2203,15.5949,3.7027,-7.277,5.5444,6.9822,
13.8128,9.2996,-21.0731,-10.5922,-32.8941,26.0989,-6.8722,10.9664,-24.6471,0.55922,8.5448,-20.9404,-8.8883,-7.5367,
27.084,-5.3584,-5.7088,-24.0567,-45.0205,38.6329,1.6551,24.4084,-9.2399,14.6257,22.1321,-5.584,5.745,6.5552,
28.9699,-1.354,-2.604,-36.7133,-37.3101,50.415,-12.5442,37.0439,-11.908,27.8481,6.7042,8.8511,8.1628,11.2264,
41.3317,-2.654,11.6523,-20.4105,-20.9715,33.2901,-25.8915,48.9212,-25.2936,40.2772,-7.7981,22.42,8.1333,24.6528,
24.7518,-1.1138,-3.1469,-5.0859,-33.8132,17.1927,-15.9349,31.886,-9.6759,23.7606,-18.5514,6.9748,-6.4547,9.0737,
9.1667,13.0531,-17.058,9.3193,-17.6844,30.2611,-0.8788,15.8728,5.0046,8.235,-3.3383,10.9885,-20.1674,-5.5708,
3.381,20.2683,-1.9346,12.615,-12.3077,42.5454,13.2739,4.6207,18.8043,-4.4,10.962,24.4292,-33.0574,-3.107,
-10.9219,4.9522,6.9286,19.6847,-25.6693,54.0927,-1.6225,2.0414,3.5761,-6.438,-3.7957,37.0634,-30.2085,11.1794,
3.8334,-9.4449,4.6714,20.3451,-30.7467,36.7471,-15.6252,16.0189,-10.7385,8.0483,-17.668,20.7396,-14.296,24.6086,
-10.4966,-5.5387,0.24779,23.2677,-43.0019,20.4423,-0.58765,0.9578,4.0058,-6.5346,-2.5079,5.3952,0.66177,9.0321,
-23.9668,8.8936,-13.8671,35.9717,-26.3218,33.3158,13.5476,-13.1997,17.8655,-20.2425,11.7426,-4.5961,-13.4779,20.1723,
-36.6288,-5.74,-27.1351,47.9134,-38.8425,45.4168,-1.3652,-26.5077,30.8935,-33.128,-3.062,9.7796,-26.7693,4.862,
-20.331,-19.4956,-11.407,30.9386,-25.634,56.7918,11.3191,-10.8172,43.1399,-17.0403,11.2217,23.2929,-11.0631,18.6702,
-5.0112,-32.4259,3.3775,14.9822,-9.996,67.4843,4.6547,3.9318,26.4515,-1.9179,24.6484,35.9953,3.7007,31.65,
9.3895,-16.5522,17.2748,-0.016685,-19.3532,49.3353,12.6627,17.7959,10.7644,12.2972,9.0695,19.7356,17.5786,15.651,
-5.2739,-1.4591,2.1383,14.0843,-32.292,32.2751,21.1107,2.6281,24.2186,-2.5406,22.6254,4.4514,2.4239,0.61196,
9.1426,-15.4715,11.2176,4.0317,-16.2544,44.4386,5.7441,6.6138,36.8655,2.6756,10.2736,18.2844,-11.8215,4.546,
22.694,-28.6432,24.6446,-10.3102,-1.1792,55.8723,19.4994,20.3169,48.6919,16.6151,23.7572,31.2873,2.9878,11.1793,
35.4324,-33.0818,30.7038,-23.7916,12.9916,66.62,32.4295,33.1979,31.6704,29.7182,36.4318,43.5101,16.9085,24.6085,
47.4064,-16.9969,15.971,-36.4641,3.3482,48.5228,16.3837,45.306,15.6702,42.0351,20.1459,26.7995,29.994,29.2889,
30.462,-1.877,0.91271,-20.1763,-10.9527,31.5114,2.0496,28.4877,24.0547,25.413,4.8371,11.0915,14.0944,13.4316,
14.5343,4.1041,14.958,-4.8657,-14.6109,15.5207,-4.0584,12.6784,8.5114,9.7882,-9.5531,10.309,-0.8513,-1.4743,
-0.43774,3.3976,-0.039527,9.5262,0.36575,28.6895,-17.9149,-2.1823,-6.0992,-4.8991,-23.0799,23.7905,3.6875,12.7141,
13.6885,17.2937,-14.1372,23.0547,14.4438,41.0681,-24.8385,12.0487,-12.0623,9.4949,-7.5951,36.4631,17.5662,26.0513,
-1.2328,2.1561,-12.2514,25.9866,-0.52282,24.504,-9.2482,-2.7743,2.7615,-5.1748,-1.326,20.1753,2.4123,10.3882,
-15.2588,16.1267,2.5837,38.5274,-7.6857,8.9338,5.4067,-16.7078,-11.5042,-18.9643,12.8535,4.8648,-11.8325,-4.3351,
-28.4433,1.0591,16.5287,22.1157,-17.3531,-5.7022,-9.0177,-29.8053,-24.914,-31.9265,-2.0177,-9.5271,-25.2225,-18.175,
-40.8367,-7.7515,3.4503,6.6888,-2.2119,8.7399,-22.5766,-42.117,-26.8138,-44.1109,-15.9966,5.1445,-9.6092,-2.9845,
-24.2865,6.8136,-10.8567,1.5118,12.0208,22.3155,-7.122,-25.49,-11.1049,-27.3642,-0.93682,18.9358,5.0674,11.2946,
-8.7293,20.5048,-9.9169,6.9459,15.7868,6.8766,7.4053,-9.8606,3.6614,-11.6224,13.2194,3.6997,-9.3367,1.6977,
-22.3055,19.1575,1.2669,-7.5709,0.73962,-7.636,21.061,-23.369,-3.1204,-25.025,26.5262,-10.6223,-22.8765,-12.5041,
-6.8672,3.908,15.2909,-21.2166,8.81,-21.2779,5.6973,-7.8668,-17.0332,-9.4235,10.8347,-24.085,-7.4039,2.3461,
-20.5552,3.0416,8.5603,-5.8436,-5.8186,-22.8798,-8.7445,-21.4948,-1.9112,-22.9581,20.0245,-36.7399,-21.0597,-11.8946,
-33.4219,16.9591,-6.0533,8.607,-6.5619,-7.407,5.8802,-34.3051,12.3035,-35.6806,32.923,-48.6355,-33.8961,-16.4171,
-17.3166,23.9394,-19.7901,22.1906,-16.7572,7.1374,19.6274,-18.1468,25.6653,-19.4398,22.3722,-31.6173,-34.6801,-24.1796,
-6.0329,8.403,-4.5027,6.7591,-7.0045,20.8092,4.3497,-2.958,10.0254,-4.1734,14.1241,-15.6203,-18.4993,-8.6288,
8.4291,-6.2012,9.8675,-7.7464,7.5158,5.4606,-10.0113,11.3195,-4.6762,10.177,-0.82336,-0.58309,-3.2894,5.9889,
-6.1767,8.2709,-4.8246,6.8184,-7.0352,-8.967,-23.5106,-3.4597,-18.4956,-4.5336,-14.874,-14.6481,-17.192,-8.4704,
-19.9061,21.8746,-18.6351,14.6959,-20.7131,-22.529,-16.5754,-17.3521,-31.4859,-18.3616,-28.0815,-27.8692,-30.2605,-22.0622,
-4.6117,6.4622,-3.417,-0.28588,-33.5703,-7.0773,-29.6809,-2.211,-20.7329,-3.1599,-24.15,-12.0971,-14.3449,-26.2628,
-16.7654,-8.0256,-17.312,-14.3687,-45.6561,7.4474,-42,12.0217,-18.5677,11.1297,-36.801,2.7288,-22.0592,-18.2417,
-1.6594,-21.644,-2.1733,-27.2012,-28.8167,21.1005,-53.58,25.4004,-31.5536,24.5619,-48.6929,15.2836,-6.6356,-3.0472,
12.5401,-34.4454,12.0571,-24.6484,-14.0801,5.7345,-36.2652,37.9763,-32.1345,37.1882,-38.7488,0.26656,7.8625,-5.9153,
-2.3123,-18.2787,-2.7663,-9.0695,0.86471,-8.7096,-19.9893,21.5978,-16.1064,20.8569,-22.3239,-13.8494,6.8133,8.2514,
-15.353,-3.0819,-3.2325,5.5747,13.4146,5.913,-4.69,6.2019,-1.04,5.5055,-6.8844,1.0815,-7.6955,-6.3437,
-3.8428,-16.997,10.3126,3.2819,-1.4903,19.6582,-18.5086,19.9298,-10.302,19.2752,7.6286,15.1166,-11.0887,8.137,
10.4878,-19.7151,9.2334,3.5455,12.6991,28.6622,-31.498,32.834,-23.7839,32.2186,-6.9291,28.3096,3.6767,21.7488,
-4.2415,-4.4322,-5.4207,17.4328,-2.1628,12.8425,-15.5082,16.764,-8.2568,16.1855,-20.6133,12.5111,-10.6439,6.3438,
-18.087,9.9337,9.0046,30.4868,12.067,-2.0281,-0.47767,1.6581,6.3386,1.1144,-5.2765,-1.1304,-24.1053,-8.1368,
-31.1018,-4.7623,-5.6357,40.9714,-2.7571,-13.2992,1.853,-12.5414,9.8134,-13.0525,-13.8238,-12.1113,-36.759,-21.7486,
-15.1357,1.6801,1.4364,24.4131,11.5084,1.5987,-12.3582,2.3111,23.3246,1.8307,-27.0944,2.7154,-20.4535,-6.3437,
-0.12752,15.6793,4.1127,8.8483,24.9179,15.0256,-25.7167,16.2724,7.8251,15.8208,-39.5687,16.6525,-5.1262,8.1369,
9.0882,0.63855,5.247,-0.77383,9.3228,0.024019,-10.0737,1.1961,21.4556,12.281,-23.0946,1.5533,0.70544,-6.4513,
-5.5571,14.7002,-9.1679,-14.8274,-5.3366,-14.0774,4.6307,-12.9757,34.2683,-2.5559,-7.6089,-12.6399,-13.4369,-20.1642,
8.8763,-0.28178,5.4822,-28.0378,8.1633,-27.3328,-9.7471,1.9029,18.1122,11.6975,3.8965,-5.4362,1.4693,-33.0543,
22.4437,-14.3649,19.2533,-40.4555,21.7735,-11.5928,4.9377,15.8887,31.1254,25.0956,17.7627,8.99,15.4812,-16.9711,
35.1971,-22.4222,3.9981,-43.1476,34.5671,3.2028,18.7414,29.0354,43.3579,37.6899,30.797,22.5506,28.6523,-1.8528,
47.1853,-6.9768,13.8865,-54.6587,18.5652,-11.0894,3.517,41.3933,26.6564,49.5285,14.8491,7.0976,28.1981,-6.5173,
30.2542,7.5418,-1.0466,-65.4792,3.3512,-24.524,1.4644,24.8097,33.6874,32.4568,-0.14181,-7.4283,12.4062,-20.2263,
14.3389,-7.0107,11.7351,-47.4504,-10.9498,-37.1526,-12.7234,9.2211,17.5662,16.4094,-14.2333,-21.0826,-2.4382,-17.3428,
-0.62143,-17.0068,-3.069,-30.5034,-12.9386,-20.8234,-26.06,-5.4322,2.4122,1.3248,-27.4793,-33.9176,-16.3919,-29.1929,
13.5159,-1.8864,-16.9848,-14.5732,1.9377,-5.474,-10.3964,8.9937,-11.8325,15.3453,-11.7305,-17.7826,-1.3084,-13.3413,
26.8049,12.3268,-1.8658,-27.7988,15.9215,-3.648,4.3274,22.5541,2.9774,28.5246,3.0733,-2.6156,12.8701,1.5592,
11.0966,21.5987,-0.084159,-40.2309,0.86618,-17.5292,18.1677,7.1009,-11.3012,12.7131,7.9532,-16.5587,12.3861,-10.6219,
24.5308,6.2028,14.0209,-51.917,-13.2858,-30.5774,2.9777,20.7748,-24.7232,26.0503,-6.624,-29.6652,25.7429,-15.5087,
8.959,19.9307,-0.92036,-34.702,-1.9,-23.101,16.899,5.4283,-24.3875,10.3873,0.50758,-13.7853,10.0984,-28.6782,
-5.6786,32.8348,-14.9651,-18.5199,12.314,-7.615,29.9851,-4.8538,-8.8243,-1.5732,14.5771,1.1419,23.5925,-12.8575,
8.7621,34.7198,-17.9224,-3.3087,14.5091,6.9419,42.286,-9.6273,-12.727,-14.8301,27.8025,3.8352,8.0769,-26.186,
-5.8636,35.8592,-20.0696,-4.7796,-0.46148,-7.5746,35.6606,-23.1497,-26.0633,-28.0403,12.0343,-10.4949,-6.5077,-38.7149,
8.5882,19.6076,-4.7654,-14.1613,-1.0659,-21.2201,19.421,-7.6607,-38.5995,-12.2579,-2.7877,-23.9652,-5.3679,-22.292,
-6.0271,4.3312,9.6205,0.78834,-15.102,-34.0469,4.1557,-21.3011,-50.3836,-25.6224,-16.7205,-36.6273,-19.1458,-35.0544,
-19.7654,18.1713,-5.0567,14.841,-0.095858,-17.9041,18.0064,-34.123,-33.2605,-38.1851,-1.6172,-20.3297,-16.7879,-18.8512,
-4.4795,31.181,-18.8533,18.8983,3.5929,-2.7298,31.026,-17.9756,-17.1649,-21.794,12.5798,-5.0099,-29.8806,-22.4953,
-18.3107,15.2102,-3.6221,3.6644,13.9662,11.534,15.0644,-17.9895,-2.035,-26.1832,-2.275,9.3907,-13.9878,-7.0456,
-3.1121,0.19757,10.6952,9.2577,14.5092,10.7247,0.060558,-7.2425,-16.0129,-15.8642,-16.2385,-5.2727,0.95146,7.4771,
-17.0254,14.2857,-4.0465,22.8023,-0.46131,-4.0188,2.4752,-20.9079,-0.95215,-29.0124,-10.372,-19.0564,-13.2056,-7.0715,
-30.1039,27.5286,-17.9037,7.3341,-14.5336,-17.8776,12.4551,-33.7535,-14.995,-41.3716,-3.3044,-32.013,-26.5133,-20.7472,
-26.3396,11.7769,-2.7295,-7.2059,-14.9259,-30.0389,-2.3922,-45.8283,-28.1953,-52.9893,-17.2061,-15.9922,-21.8716,-33.6024,
-10.6592,-3.0298,8.1948,-20.8736,0.069663,-14.1366,11.8513,-28.9786,-12.4036,-35.71,-2.0737,-0.93269,-6.4593,-17.4862,
4.0804,-6.8747,15.0694,-33.7211,14.1655,0.81164,7.4574,-13.1398,-25.7594,-19.4674,9.1,13.2233,8.0283,-2.3371,
17.9355,-18.4321,26.1351,-45.7979,15.9609,-13.3371,20.8213,1.2881,-38.3138,-4.1993,-5.546,-1.6701,-6.5534,-16.2968,
2.7594,-3.2262,10.467,-28.95,29.1032,-26.6368,33.6721,-12.8892,-21.915,-18.0474,8.8868,-15.6699,-20.2602,-29.419,
-11.5062,-17.1326,2.301,-13.113,41.457,-10.9386,45.7517,-26.2159,-6.5001,-31.0645,8.8136,-0.62972,-29.173,-41.7539,
3.2842,-30.2047,16.263,-4.3831,53.0696,3.8177,33.6825,-10.5429,7.9899,-15.1007,22.3848,13.5081,-13.3226,-25.1487,
17.1872,-14.2924,16.3798,9.9799,63.9854,-10.5114,37.6462,4.1897,21.6105,-0.094626,17.5308,26.7976,1.5768,-9.5397,
2.0559,0.66516,1.297,14.1567,46.0463,-23.9807,32.6253,-10.1617,21.4065,-14.1889,4.5088,11.0897,4.1279,-23.0673,
-12.1674,14.7253,15.3192,27.4073,57.3835,-36.6418,44.7678,-23.652,34.2221,-27.4376,18.3383,-3.6757,-10.2198,-35.7833,
-25.5374,-0.25826,5.6532,39.8629,41.2777,-48.5433,30.2835,-36.3329,18.0688,-39.8914,3.138,-17.5551,-23.7066,-31.2182,
-29.9904,-8.8184,-8.0374,39.6564,51.2306,-31.5307,14.3665,-36.9697,30.7963,-29.7269,-11.1503,-2.4018,-8.1842,-15.2451,
-14.091,-0.46255,6.5449,23.177,56.904,-15.5389,-0.59547,-20.6515,14.8485,-13.8433,-24.5813,11.8423,6.4069,-0.23041,
0.85448,-14.5348,20.2522,7.6864,39.3898,-28.7066,13.5403,-33.5124,-0.14242,-19.7462,-9.0064,-2.9682,20.1225,-14.3166,
-13.2968,0.43729,4.9371,-3.7072,22.9264,-41.0842,26.8278,-45.6016,13.9661,-32.6614,5.634,-16.8901,4.8151,-10.9837,
-1.2776,-13.6889,18.7408,-9.93,23.049,-52.7191,16.0106,-29.2263,-0.97184,-23.5075,15.8848,-1.7767,10.511,-22.295,
-15.3009,-2.9111,7.8318,4.7658,10.1561,-35.456,0.94996,-41.5727,-15.0135,-36.1971,0.83171,12.4299,17.7069,-35.0573,
-0.28286,11.3635,-6.7381,18.5798,23.6467,-19.2286,14.993,-24.9783,-28.2127,-19.9252,-3.9939,25.7841,30.7445,-18.8539,
13.8341,-3.4183,3.6226,20.5708,36.2111,-32.1749,20.5385,-9.3796,-12.42,-4.6297,10.3458,10.137,35.517,-3.6226,
-1.0959,-3.213,9.3905,5.2366,19.9385,-44.3444,22.5294,-22.9168,2.4252,-18.4519,23.825,-4.5712,19.286,-1.3914,
13.0698,-9.9262,14.8117,-2.1551,8.9027,-55.7837,7.0776,-12.334,-11.8203,-3.2448,8.2955,-18.3969,7.3679,8.3601,
-1.8144,-15.3157,-0.17699,12.0742,4.2254,-38.3367,-7.4471,-25.694,-25.2111,-17.1501,-6.3022,-20.8594,-7.1742,-6.2415,
-15.8055,-0.29673,-14.2664,25.4498,18.0719,-21.9365,7.0998,-10.0523,-9.5984,-2.0211,8.1759,-5.5078,7.3563,8.233,
-0.75718,13.8211,-26.645,21.5042,20.842,-8.0734,20.7738,4.6508,5.0775,12.2001,21.7854,8.9226,21.0149,10.5013,
-14.8117,22.5436,-15.3784,6.114,5.4915,-21.689,5.4274,-9.7283,-9.3271,-2.6319,6.3783,-5.7127,5.654,-4.2288,
-21.0005,7.091,-0.35571,-8.3528,-8.938,-34.4877,-8.9983,-23.2446,-22.8675,-13.8121,-8.1044,-19.4699,16.3643,-16.5771,
-33.8405,-7.4345,13.7656,4.6954,5.6983,-46.5184,5.6416,-35.9499,-7.3955,-27.0834,6.4818,-19.6828,4.3329,-4.5338,
-45.91,7.1116,-1.1603,18.5137,19.4564,-57.8273,19.4031,-33.2161,7.1483,-11.3584,20.1929,-21.2643,18.1729,9.8383,
-29.0554,-0.39279,0.46243,3.3029,32.389,-40.2577,32.3389,-17.1231,20.8194,3.4231,33.0813,-5.8884,31.1826,23.348,
-13.2121,-14.4692,-13.6653,-10.9953,16.3457,-23.7422,16.2986,-1.9957,33.6702,17.3177,45.1965,8.5649,31.0368,7.8471,
1.6806,-27.7011,1.2546,-24.4356,29.4649,-8.2177,1.2207,12.224,17.55,30.3787,28.3847,22.151,43.2746,21.4763,
-0.55123,-40.139,15.2793,-8.8694,13.597,-21.8246,-12.9526,-2.6094,2.397,14.4559,12.5816,6.7219,26.5781,6.0877,
-14.6182,-23.6307,0.26257,5.7627,26.8812,-34.6151,1.9246,-16.5529,16.3532,-0.51141,25.9267,-7.7814,21.3,19.8224,
0.35893,-8.1128,-13.8532,16.0056,15.3117,-18.4382,15.9091,-1.4597,29.472,13.6193,38.4711,6.7855,30.151,14.8333,
11.3872,-21.7261,1.078,0.94524,12.0914,-3.2319,0.85457,12.7279,13.6037,26.9021,22.0628,20.4783,42.4419,28.0433,
24.8039,-34.5225,15.1133,-13.2115,25.4659,-17.138,-13.2967,26.0642,-1.3126,39.388,6.6391,21.1465,53.9954,40.4607,
9.2157,-18.3511,13.9181,1.6812,9.838,-30.2097,1.6011,10.4004,12.8662,22.9247,20.3407,5.7777,36.6557,23.9331,
-5.4372,-3.1501,-1.017,15.6803,-4.8523,-42.4972,15.605,-4.3237,26.1942,7.4492,33.2203,-8.669,20.3563,8.3971,
3.0037,11.1389,-14.4789,28.8395,-18.6612,-25.8473,0.56873,-17.0714,38.7226,5.9652,17.1271,5.9512,5.035,-6.2068,
16.9235,-3.6294,-7.1649,13.0092,-3.4415,-10.1965,14.6346,-1.9471,50.4992,19.7073,30.1994,19.6941,18.8329,8.2657,
30.0081,-10.4893,7.365,-1.8714,10.865,4.5153,-0.34347,12.2697,33.3693,32.6249,18.0256,32.6125,31.8029,21.8697,
42.3076,-23.96,21.0231,-15.8591,-3.8869,-9.8556,-14.4229,25.6335,17.2671,44.7674,2.8441,16.5557,22.7003,20.7296,
25.6692,-8.4224,5.6617,-18.0138,-17.7537,-23.3643,0.54251,9.9955,18.0726,27.9813,16.7734,1.4624,7.2383,5.3858,
10.029,6.183,-8.778,-2.833,-30.7885,-16.4932,4.9417,-4.7042,10.0824,12.2024,1.667,15.4746,-7.296,-9.0373,
23.5273,4.6024,2.798,11.437,-14.8412,-1.4036,-9.4548,9.678,23.5775,25.5703,15.667,28.6462,7.2417,5.6049,
36.2156,18.4263,-11.1812,-3.3492,0.14929,12.7806,-19.188,23.1974,25.0972,38.1361,28.827,41.0274,20.9072,19.3686,
21.6677,5.5229,3.5896,-2.0556,-8.7788,-2.0862,-3.9367,12.193,9.4914,21.7479,36.477,24.4657,5.5528,4.1065,
6.2676,19.2915,8.1493,7.2755,-22.3521,-16.0611,10.3995,-2.6386,23.0219,6.343,48.3884,8.8978,-8.8804,-10.2399,
-8.2084,4.034,21.0119,-3.7496,-16.5788,-29.1974,10.1195,-16.5803,7.5406,-8.1375,31.3851,-5.7361,-22.4475,-23.7255,
-3.4557,-10.308,10.0833,6.1432,-1.4841,-13.3456,-4.5877,-1.4855,-7.0119,6.4507,15.402,8.7081,-7.0007,-11.3077,
10.8517,3.95,9.0178,-8.3254,12.7049,1.5552,-18.4124,12.7037,-20.6911,20.1637,0.37788,22.2856,7.5193,3.4707,
24.3006,-10.387,22.5767,-21.9259,-2.1574,-12.6381,-3.2077,26.0415,-33.5497,33.0538,-13.7448,6.8485,10.1191,-10.8375,
8.7425,4.3362,7.1221,-26.9389,-16.1279,-25.9798,11.0848,10.379,-17.4367,16.9706,1.1799,-7.6624,-4.5881,-6.9649,
-5.882,-10.024,20.7948,-13.8129,-2.7301,-38.5211,-3.6803,-4.3438,-30.4905,1.8524,-12.9909,-21.3027,-18.4128,-20.6471,
-19.6291,-10.5154,9.5909,1.1158,-16.6663,-50.3098,-17.5595,-18.1831,-42.7611,-12.3588,-26.3114,-34.1245,-31.408,-33.5082,
-4.3513,4.2156,-5.0846,15.1489,-1.5663,-33.1912,-2.4059,-2.9922,-26.0954,2.4828,-32.3258,-26.1473,-15.4235,-17.3977,
10.0097,-10.1374,-16.4612,28.3399,-0.55181,-17.0997,-6.1167,11.2874,-10.4297,16.4338,-44.4863,-10.4785,-17.6046,-2.2539,
-4.6908,-23.6291,-1.3735,12.5395,-1.4397,-30.1737,-2.9872,-3.4899,4.2961,1.3478,-27.7171,4.2502,-30.6483,-16.2186,
9.6906,-36.1946,12.8089,-2.3128,11.9982,-42.4633,-16.908,10.8195,-10.0617,15.3669,-40.1541,-10.1048,-14.7094,-1.1455,
8.821,-48.123,12.3841,0.2996,-2.8216,-25.8155,-29.9935,16.6157,-23.558,14.3277,-51.8448,-23.5985,0.27317,8.5913,
-5.8083,-31.1356,-2.459,14.3816,11.4477,-10.1666,-14.0939,1.5187,-8.0445,-0.63197,-34.6341,-24.0241,-2.3334,22.1758,
-19.5598,-15.1674,-16.4114,27.6187,5.6967,4.5434,0.85176,-12.6724,6.5382,-14.694,-18.4561,-8.4827,-16.2934,6.7453,
-32.4862,-0.15739,-1.3267,11.8616,-8.7451,18.3708,-13.2993,2.1879,17.3118,-4.0278,-3.2487,6.1263,-1.2158,20.4405,
-16.437,-14.248,12.8529,-2.9501,-22.3204,3.1686,-26.6014,16.1567,2.173,10.3139,-17.1538,-8.3413,12.9571,29.0541,
-29.5508,-6.3154,24.5123,5.0535,-34.6764,-11.1216,-10.9053,1.0873,16.1427,-4.405,-2.0246,-21.9408,-1.9203,13.2108,
-41.8778,8.1635,8.9415,18.8503,-18.4958,-24.5543,3.849,-13.078,17.0154,-18.2407,12.1969,-34.7244,-15.9051,-1.6818,
-25.2651,4.6228,14.218,3.6192,-3.2861,-8.981,17.7181,1.8067,30.0945,-3.0462,25.5651,-18.5409,-0.85076,-15.6809,
-9.6492,-9.7546,-0.73509,-10.6979,-17.1889,5.6578,12.2226,15.7983,42.3888,11.2365,38.1312,-3.3285,13.3003,-25.3842,
5.0298,-23.2693,13.409,-12.0694,-2.0576,19.4184,-2.6107,28.9504,25.7455,24.6624,21.7433,10.9713,26.6023,-9.7612,
-9.372,-15.7716,-1.4955,2.7547,-16.0341,4.1533,-16.5541,13.1134,10.1008,9.0826,6.3387,-3.787,10.9061,-23.2755,
-22.9097,-0.72526,-15.5058,16.6895,-0.97209,-10.1959,-1.4608,-1.7734,23.5947,-5.5623,20.0584,4.8991,-3.8482,-7.779,
-26.1945,13.4183,-28.6754,29.7881,-2.8712,4.5158,12.7268,-15.767,36.279,-19.3286,32.9549,18.7052,-17.7173,-8.0611,
-38.7228,1.4471,-33.9158,39.105,-16.7989,18.3449,-2.1368,-28.921,20.0023,-32.2689,16.8776,3.4829,-30.7543,-21.6775,
-22.2994,-12.7397,-17.7809,22.6587,-1.691,6.8274,-16.1086,-13.0857,4.7021,-16.2328,1.7649,-10.8261,-14.809,-6.2768,
-35.0615,-23.6562,-10.5573,7.1992,-15.6895,-7.6822,-1.0421,-26.4006,18.52,-29.3588,15.759,-5.2841,-20.5379,8.1998,
-47.0578,-8.1368,-14.5277,20.8672,-0.64813,-21.3213,13.1205,-38.9166,31.5088,-41.6973,28.9135,-19.0671,-33.4056,-6.3922,
-58.3343,6.4514,-6.75,33.7152,-13.04,-19.0047,-1.7668,-50.6816,15.5183,-53.2954,13.0787,-32.0231,-45.5013,-20.1087,
-40.7342,-8.0357,-10.0285,17.5923,1.8424,-3.7644,-15.7608,-33.5407,3.71,-35.9977,-1.806,-16.0017,-28.6712,-4.8021,
-24.1902,6.5465,4.6732,2.4368,15.8318,10.5614,-0.71512,-17.4282,-9.4035,-19.7378,12.4023,-0.94158,-12.8509,9.586,
-8.6388,8.799,18.4928,-11.8094,0.78192,-4.1722,13.4278,-2.2825,-22.9393,-10.1495,-2.4418,-14.9851,-26.1799,-5.0892,
-22.2205,22.371,3.2833,2.9991,-11.063,-18.0219,26.7221,-16.2456,-7.4629,-23.6406,11.8047,-28.186,-38.7091,-18.8838,
-20.5984,6.9288,-2.2664,3.3964,-6.7164,-31.0406,11.0188,-29.3708,-21.1151,-36.3221,-3.0036,-14.8685,-50.4865,-31.8508,
-5.2625,-1.7736,11.9696,-10.9074,7.7866,-15.0782,-3.7423,-13.5086,-33.9482,-20.0428,-16.9234,-27.3275,-33.3573,-15.8397,
9.1533,12.4329,-2.8486,-24.3529,21.4194,-0.073466,10.5822,1.4019,-46.0113,-4.7402,-1.808,-11.5878,-17.2559,-0.78936,
22.7041,25.7869,-16.7777,-21.8542,24.6217,-14.1691,24.0473,15.4178,-29.1507,6.5931,12.4005,-24.9926,-8.1054,-14.842,
7.2418,38.3397,-1.671,-15.9394,9.0444,-27.4189,36.7044,0.39274,-41.5016,-7.9025,19.0779,-37.593,-21.7191,-28.0515,
3.9285,21.9393,12.5292,-15.9034,-2.2592,-39.8738,20.4022,-13.7308,-53.1115,-21.5284,3.8332,-49.4374,-21.9688,-12.2684,
-10.4072,28.793,-2.3225,-13.5684,11.9764,-23.3814,5.078,-19.4076,-35.8248,-29.3275,-10.4968,-32.3712,-6.5507,-15.8477,
4.3172,32.1295,-13.6925,-26.8543,25.3578,-7.8785,-9.3266,-4.1432,-47.7753,-13.4679,4.233,-16.3289,7.9424,-10.7529,
18.1582,16.1017,1.229,-39.343,9.7363,-21.5058,-8.9387,10.2054,-59.0088,1.4402,8.4108,-29.4492,16.5567,-24.2077,
2.9687,29.2356,-12.9447,-22.8824,7.0222,-34.3154,5.6976,-4.5069,-41.3683,-12.7462,22.0061,-41.7822,1.4633,-8.6552,
16.8906,13.3815,1.932,-28.1266,20.7009,-46.3565,-6.442,9.8635,-52.9862,2.1186,6.5857,-53.3753,15.4755,5.9641,
22.9539,-1.5214,15.916,-27.3598,33.5588,-29.4751,-20.1555,23.3717,-60.3342,16.0915,-7.9094,-36.0728,28.6469,11.7627,
11.4488,12.6699,0.86107,-11.6182,45.6453,-13.6066,-4.8462,36.0694,-42.6142,23.0083,6.6652,-19.8084,41.0281,25.157,
24.8619,14.5005,-11.9096,3.1789,28.8066,1.3098,9.5446,41.0378,-25.9573,32.2164,-2.9421,-4.5199,24.4664,9.5475,
9.2702,-0.4695,2.905,-11.1119,38.4706,15.3312,23.0719,34.4318,-10.2999,27.0602,6.9018,9.8513,24.0906,7.1327,
22.8139,-14.5413,16.8307,-24.5451,49.0532,28.5113,7.5876,46.4659,-23.7819,39.5366,-7.6123,22.7828,36.7452,20.8048,
7.3451,0.43115,1.7209,-8.9724,32.01,12.7007,-6.9676,29.5779,-29.3773,23.0644,-21.2555,7.3158,20.4405,5.4565,
-7.1956,14.5053,-12.4824,5.6659,15.9894,-2.1614,7.5504,13.7033,-13.5147,7.5806,-5.8802,-7.2232,5.1141,-8.9709,
-20.8639,27.735,-25.8334,19.426,0.93004,12.0683,21.1974,-1.2189,1.3962,-6.9743,8.5726,7.3102,-9.2928,-15.9699,
-19.0348,11.9709,-10.1834,4.1604,-13.2258,25.4442,5.8256,12.9542,-12.7876,2.3087,-6.0418,20.9716,5.3648,-0.91174,
-3.7927,-2.8474,4.5276,-10.1892,-19.1045,9.9894,-8.624,26.2769,-26.1203,16.2702,-19.7793,10.0455,19.1429,13.243,
-17.6651,-16.7765,18.3559,1.6431,-32.0582,-4.7099,5.9935,10.6003,-10.4531,1.194,-4.4925,-4.6573,3.8943,-1.6516,
-30.7052,-1.6699,3.1546,15.6445,-16.0347,-18.5274,19.7339,-4.1357,4.2741,-12.9777,9.8771,-18.4778,-10.4393,-15.6525,
-14.7629,-15.5534,17.0653,0.60584,-0.97266,-3.3157,9.6855,10.2124,18.1177,1.901,16.6507,-3.2692,4.287,-0.61336,
0.22286,-28.7202,13.1626,-13.5305,-3.5045,10.9832,-4.9956,23.6997,31.1306,15.8869,29.7517,11.027,18.1298,13.5234,
14.3095,-25.3269,18.3576,-1.381,10.8058,24.4242,5.2608,36.3777,26.7277,29.0337,24.4558,24.4654,31.142,26.812,
27.5509,-25.649,31.3562,-15.3981,-0.71958,8.8588,-9.1548,46.3374,11.024,41.3917,8.8885,8.8975,15.1735,11.1033,
11.7979,-10.0101,15.375,-0.37421,13.4236,10.169,5.4945,29.4572,24.4626,24.8082,22.4552,-5.7364,0.16308,17.2262,
-3.01,-8.7769,0.35252,13.7482,-1.4818,23.6589,18.9766,13.5898,37.0948,9.2197,34.9193,8.7078,-13.9467,2.0926,
-16.9294,5.8497,-13.7686,27.0233,-7.3784,36.3393,3.738,-1.3256,20.7691,-5.4335,18.7241,22.2853,-7.9289,16.067,
-1.8136,14.4172,-1.3164,11.3019,7.1643,48.259,-10.5863,12.8539,5.423,8.9925,3.5007,35.0482,6.6469,29.203,
-15.8048,-0.5478,-10.4452,-3.4762,-7.3655,31.2634,4.1489,-2.0173,19.1976,-5.647,17.3906,18.8453,-7.8519,13.3508,
-28.9565,13.5851,-14.8823,10.8324,4.1257,15.2876,18,-15.9963,32.1458,-19.4082,30.4472,9.5996,-21.4808,13.0105,
-41.3191,-1.33,0.1106,11.2751,-10.2218,0.27036,2.82,-29.1365,16.117,-32.3437,14.5203,-4.7879,-34.292,3.9424,
-24.74,-15.3502,2.5774,-3.5014,4.4915,14.3541,-11.4492,-13.2883,29.25,-16.3031,27.7491,9.5993,-18.1345,17.8058,
-9.1556,-28.5292,-11.6772,-17.3913,18.322,27.5929,3.3377,1.609,41.595,-1.2249,40.1842,23.1234,-2.9464,30.8375,
5.4937,-12.7175,3.1234,-16.2315,18.3149,11.8373,-10.3859,15.6124,24.9993,12.9486,23.6731,7.636,11.3304,15.9799,
-8.9359,2.1456,-11.164,-17.5592,3.116,-2.9729,4.3372,0.5757,37.5993,-1.9283,8.1527,7.8099,-3.4494,0.92107,
5.7003,-12.0832,3.6058,-2.4057,-11.171,-16.8945,-10.023,-0.43515,26.4793,12.2874,-6.4364,20.6927,-17.3425,13.1241,
-8.7417,-25.4582,5.6913,10.8014,-20.9726,-1.7809,-23.5216,-14.509,10.7905,-2.5499,-20.1502,5.3511,-2.2019,0.36676,
5.8828,-9.8307,-8.7502,-3.9467,-5.6142,12.426,-8.0103,0.4615,-3.9569,11.7031,-5.185,19.1301,12.0302,14.4448,
19.6298,4.8592,-18.0649,-1.58,-15.6943,0.3427,6.5703,14.5338,10.3805,25.1009,9.2261,31.7936,3.1936,-0.52193,
4.352,18.6676,-2.881,12.6148,-28.8527,-13.7779,20.2761,-0.43822,-4.3423,9.4949,-4.9674,15.786,-11.098,-14.5906,
-10.0091,3.4476,3.909,12.9506,-26.3722,-27.0512,4.9595,-14.5119,-18.1818,-5.1748,-18.7693,0.73885,-24.5321,0.38482,
-23.5086,17.3407,-10.4255,26.2735,-13.741,-11.3281,-3.4528,-27.7412,-30.4969,-18.9643,-21.0374,-13.4055,-10.9731,9.1099,
-27.7949,30.4003,-23.9,10.5971,-8.7728,3.4516,10.8544,-24.5787,-26.3653,-31.8099,-5.6751,-4.3694,3.7853,22.6633,
-12.0272,14.4762,-8.366,-4.1387,-22.3464,-10.8555,-3.8969,-9.004,-38.8834,-15.8013,2.2033,9.9927,17.6582,7.2035,
-25.4056,3.4795,6.236,7.9076,-6.9056,3.8958,10.4369,5.6362,-50.6503,-0.75326,-1.6119,23.4932,30.6987,20.8713,
-9.7812,-10.8292,19.9618,-5.4575,3.6368,17.7621,-4.2893,19.3981,-61.7113,13.3919,-15.6152,7.9836,41.342,33.719,
-23.2944,3.9205,4.6641,8.97,-10.6814,2.5963,-18.1319,4.1342,-43.9086,-1.5116,-9.3256,-6.5954,24.7615,17.5959,
-35.9967,17.7853,-9.7157,22.5318,-13.4351,-11.6594,-2.944,-10.2139,-27.1741,-15.5209,5.3339,-12.6448,9.1758,2.4401,
-19.7369,26.5579,-10.2254,19.6821,1.1821,3.1401,11.3326,4.499,-11.4437,-0.48963,8.8684,2.2139,6.4395,1.8326,
-4.4527,10.8644,4.4881,4.4012,-9.477,17.0517,-3.4473,18.329,-13.98,13.6397,-5.7637,16.1811,20.1532,15.8226,
9.9145,-3.8874,18.3188,-9.9629,5.1917,30.1286,-17.3405,31.3293,-27.2412,26.9214,-19.5179,1.1102,33.044,28.9733,
-4.7804,10.4458,3.1197,4.7349,-9.2198,14.2209,-30.2833,15.3495,-11.5068,11.2061,-32.4468,-13.0564,16.9613,13.1349,
-18.5936,23.9191,-11.1675,18.5508,2.382,-0.73236,-14.3663,0.32855,3.2836,-3.5663,-16.4,0.15709,1.8437,-1.7532,
-31.578,36.5839,-24.5974,31.5377,-11.8609,13.4116,0.59566,-13.7912,7.8625,-17.4523,-17.6011,14.2477,-12.367,-15.748,
-15.5833,20.2889,-9.0216,15.5455,2.9507,26.7069,-13.5401,1.1363,21.4908,-2.3052,-30.645,27.4928,2.4751,-0.70314,
-0.54829,4.9715,5.6197,0.51274,11.9815,39.2045,-26.8277,15.1681,6.1013,11.9331,-42.9063,11.7432,16.4266,13.439,
-14.6154,-9.4267,4.5334,14.582,-2.8374,22.7522,-11.118,0.15804,-8.3648,-2.8828,-52.1848,-3.0614,1.341,-1.4673,
-27.8385,5.2389,-9.8386,27.8071,-10.6656,7.2871,3.6491,-13.9514,6.2371,-16.8099,-34.9537,-16.9777,-12.8395,-15.4793,
-12.0682,14.881,-8.9597,16.1822,-23.8368,20.9498,-10.6699,-23.9914,-8.2371,-29.9013,-18.7565,-10.1461,-26.1691,-28.6505,
2.7559,12.1466,-1.9766,1.1112,-10.4365,33.7929,-24.1297,-8.4519,6.3571,-14.0072,-31.7311,4.5627,-10.499,-12.8315,
16.6906,13.7198,-4.16,-13.0554,4.2897,45.8653,-36.7819,6.1552,-8.1243,0.93323,-43.9272,18.3889,4.231,2.0384,
29.7891,-1.2034,10.1896,-15.3781,-10.0677,29.0134,-24.619,-8.3141,-21.7369,-13.2228,-52.3411,3.1856,-10.1229,-12.1839,
13.9018,12.9688,12.5124,-0.35544,-12.2257,13.1726,-9.0418,-21.9152,-6.3326,-26.5294,-35.1007,-11.1055,-23.6155,-25.5529,
-1.0323,26.2907,-2.3383,13.7659,-25.5921,26.4822,5.6007,-34.7003,8.1473,-39.0376,-18.8946,-9.9787,-36.2986,-38.1197,
-15.0704,38.8133,-16.298,27.0399,-38.1566,10.7933,8.3713,-46.7183,-6.4415,-50.7954,-3.661,4.72,-48.2207,-36.3477,
-0.066154,49.7188,-29.4202,18.5671,-21.7672,-3.9543,-6.231,-29.8152,-20.155,-33.6477,-17.5413,12.4355,-31.2274,-20.0668,
14.0378,32.6357,-13.555,3.353,-6.3612,10.3829,-1.8857,-13.9263,-4.8457,-17.5288,-2.3888,25.7893,-15.2538,-4.7628,
-0.90445,16.5776,-26.8417,-10.9481,-20.0795,-4.34,12.3275,-27.1907,9.545,-30.5771,11.8545,10.142,-28.4386,-18.577,
13.2498,1.4829,-11.1312,-24.3913,-6.6171,-18.1796,-2.5122,-11.4593,-5.1277,-14.6424,25.2432,-4.5665,-12.6322,-21.4345,
-1.6452,-12.7061,-8.9655,-8.8278,-20.3201,-2.9889,-16.4614,-24.8717,-18.92,-27.8639,9.6286,9.8074,-25.9743,-34.2484,
12.5535,2.1563,-22.5276,5.8019,-5.0009,11.2905,-19.7894,-9.2794,-31.8848,-12.0921,-5.0491,23.319,-10.3159,-18.0935,
25.9003,-12.0731,-7.0759,-8.6462,9.3991,24.713,-4.502,5.3773,-15.8717,2.7335,9.3539,36.0199,4.4031,-2.9079,
10.2463,-25.4487,7.4486,-22.2274,-5.2648,9.1303,8.8306,-5.8227,-0.81943,-2.3234,22.8926,19.7587,0.74472,1.1212,
23.7315,-38.0218,21.1017,-30.1569,-9.0918,-5.5176,-5.7992,8.6266,-14.8703,11.916,7.4191,4.4731,13.5909,15.154,
8.2076,-49.8405,5.7356,-14.2475,-22.6463,8.9135,-19.5513,-5.991,-28.078,-2.899,-7.1261,-9.8952,-1.3246,0.14473,
21.8152,-32.75,-8.7085,0.70733,-7.1875,22.4787,-4.2782,8.4685,-12.2934,11.375,3.0247,4.7985,12.8549,14.236,
34.6063,-16.685,-4.0425,1.9294,7.3438,7.03,10.0785,22.0604,2.5442,24.7925,16.9432,-9.5894,25.895,12.1729,
18.4299,-1.5839,-11.166,15.9136,-7.1969,-7.4918,-3.4168,6.6367,-9.2899,9.2049,26.6873,-23.1141,10.2413,-2.6574,
3.2241,-15.5889,3.604,0.8588,-20.8651,-21.1423,-17.3118,-7.8615,-22.8325,-5.4474,10.9861,-35.8272,-4.4732,-16.598,
-11.0693,-15.5129,17.4877,6.7925,-5.5132,-33.9738,-2.1731,-21.4898,-7.3625,-19.2205,7.393,-45.2427,-11.4543,-29.2967,
-24.5052,-0.48213,2.3385,14.6716,8.9176,-46.0354,12.0573,-16.6897,7.1792,-18.2387,21.0494,-55.4188,3.3329,-13.4389,
-8.9349,13.6468,-11.4414,-0.30871,-0.65314,-29.1732,25.4338,-1.5883,20.8485,-3.0444,33.8864,-37.9937,17.2329,1.4674,
-4.5439,-1.272,-6.1511,-14.3902,-14.714,-13.3228,9.8078,6.5057,12.1145,7.8985,17.7533,-21.614,5.4932,10.9307,
9.8287,-15.2957,8.318,-27.6268,0.26888,-7.4594,-4.8807,20.2153,-2.7124,21.5246,2.5881,-6.2172,19.2636,24.3748,
4.8073,-28.4779,21.8019,-37.5339,-13.8472,-21.1118,-8.2709,4.9024,11.5504,6.1331,16.5328,-19.9442,4.0078,8.8124,
-9.5811,-12.6693,6.3938,-21.1818,1.0836,-33.9451,6.3254,-9.4917,24.9574,-8.3348,29.6408,-4.6475,13.4356,13.3475,
5.0937,2.1909,-5.2106,-5.8109,-5.4274,-17.8084,-3.0901,2.4155,37.5599,-0.18007,13.7624,9.7313,-1.4705,12.0866,
4.3281,-12.0406,9.2021,-6.4996,-19.2018,-2.6399,-17.0047,16.3706,21.8387,13.9307,17.252,23.2475,9.4951,-2.7386,
18.1684,-25.4181,22.7499,-20.2096,-3.9496,-2.021,-30.0844,29.4883,6.4284,27.1949,2.1169,16.2664,23.0254,11.5257,
2.9783,-9.793,19.4265,-25.6144,-4.1729,-15.9998,-14.1793,13.619,-8.0573,11.4632,-12.1101,1.1904,7.5439,-3.2659,
-11.3004,4.8945,4.1609,-9.9775,-18.0226,-29.1398,0.77144,-1.2981,6.5261,-3.3246,2.7165,-12.981,-7.0087,-17.1699,
3.4776,18.7009,-10.1888,4.7211,-4.2222,-13.2914,14.5365,-15.032,20.2345,-11.4119,16.6535,1.8979,-11.8241,-6.3551,
17.369,3.4788,4.5225,-7.6486,10.1311,1.6061,21.9514,-0.030121,10.7336,3.3728,1.5543,15.884,2.9853,8.1262,
30.4268,-10.8299,18.3512,-21.2896,23.6232,15.6097,6.5343,14.0717,-4.0104,17.2704,-12.639,0.83095,16.9062,21.7386,
17.8952,-10.1801,25.9977,-34.1123,8.1058,0.57314,-5.539,-0.24004,-17.8698,3.6873,-14.9866,-13.3189,1.7918,6.3343,
2.7215,4.5307,10.3378,-17.9655,-6.4805,-13.5612,8.8933,-14.3256,-2.6976,-10.6339,0.012553,-26.6198,-12.4157,-8.1457,
-11.5418,-2.0146,-4.3825,-2.7876,-20.1917,1.3524,-5.7403,-27.5661,-7.3114,-24.0959,-14.0882,-10.9226,-25.7707,-21.757,
3.2507,-2.354,7.5066,11.4797,-4.8802,15.3713,-19.4958,-11.8121,7.2273,-8.5501,-20.6092,3.8328,-10.1245,-6.3516,
17.1557,11.8872,-7.0438,-3.3091,9.5126,28.549,-10.6714,2.9966,20.8937,6.0629,-5.2726,17.7028,4.583,8.1295,
30.2263,-2.926,7.4788,-17.2106,9.1142,12.7361,4.0689,16.9168,12.6179,19.7991,9.1437,2.5406,18.408,21.7417,
14.3127,11.3496,-7.0699,-30.2779,-5.5327,-2.1281,17.9247,1.8018,25.9609,4.5111,22.6951,-11.7118,3.2035,6.3372,
12.5332,14.0632,-0.83275,-14.3613,-19.3007,-8.906,8.906,-11.1967,10.3032,4.2403,7.5771,-25.1091,-11.0887,-8.1428,
-2.3188,27.3194,-14.8828,0.60041,-32.2427,5.7284,-5.7284,-24.6249,-4.415,-10.1142,-6.9775,-9.5025,-19.1707,6.4458,
9.1583,39.7803,-28.0898,14.6644,-16.2081,19.4847,-17.9869,-9.0474,-8.9262,4.5927,-18.2405,5.1676,-3.9205,20.159,
12.7521,23.2935,-12.3044,7.5106,-1.1356,4.2156,-2.8077,-13.5689,5.7094,-9.7829,-3.0461,-9.2425,-12.2609,4.8495,
-2.113,7.7958,2.5338,11.2037,13.0325,-10.1374,11.4608,-26.8547,19.4668,-23.2959,11.2367,-22.7879,-23.9552,-9.5415,
-16.0862,-6.7719,16.4818,13.2938,-1.8494,-23.6291,-3.3269,-39.3434,4.1988,-35.9981,-3.5375,-35.5206,-27.1216,-23.069,
-29.2211,-20.4656,1.3929,26.5962,-15.8385,-8.1114,-17.2273,-51.0828,-10.1531,-47.9383,-17.4253,-19.2894,-38.8457,-35.7848,
-30.7453,-5.1377,-12.7907,21.9495,-0.78816,6.4753,-2.0936,-35.6426,-23.6439,-30.962,-16.3795,-4.032,-22.4149,-19.5378,
-34.4253,9.2706,-18.1799,27.9984,-14.8409,-8.0132,12.132,-47.6041,-8.1253,-40.2082,-1.2968,-4.5943,-35.17,-22.6811,
-46.4598,22.8144,-11.1041,24.0169,-24.4232,-21.6324,18.6534,-47.6826,6.4622,-47.4638,12.881,-18.4187,-43.188,-7.2202,
-29.5722,7.3455,3.6622,8.4759,-8.8578,-34.4345,3.4342,-30.7217,-8.0255,-30.516,-1.9918,-31.4136,-26.4967,7.313,
-13.6979,-7.1952,17.5424,-6.1327,-4.471,-18.2684,-10.8719,-14.7784,-21.644,-14.585,-15.9723,-15.4287,-10.8069,20.9742,
1.224,7.3365,2.3899,8.3353,9.8973,-3.0723,3.8804,0.20833,-6.2453,0.39007,-0.91398,-0.40301,3.9415,33.8158,
15.2506,20.9963,-11.8535,21.9352,-4.7965,11.212,17.7476,14.2958,8.2294,14.4667,13.2409,13.7212,-2.2249,17.6868,
0.23553,5.6365,2.9577,6.5191,-18.6087,24.6393,2.5828,21.9523,12.051,19.3504,-1.6536,-1.2021,5.2742,2.8691,
14.3214,-8.8017,16.8802,-7.9721,-27.7924,9.061,-11.6722,22.9368,-2.7721,22.3329,-15.6544,-15.23,14.6263,15.128,
-0.63789,0.3021,5.6228,6.6063,-39.4756,-5.5827,3.1281,7.4606,11.4943,6.8929,-28.8151,-28.4162,-0.35128,0.1203,
-14.6996,14.384,-8.8146,-7.8901,-23.007,-19.3477,17.0404,-7.0871,-3.2954,-7.6206,-12.9862,-40.8112,-14.4302,-8.3461,
-0.29466,-0.57907,5.8143,-21.5167,-8.1043,-4.0869,9.1126,-7.4652,11.0023,-3.364,1.893,-24.2625,0.53561,-6.0038,
-9.9457,-14.6443,-8.6346,-34.3257,-21.718,10.2583,-5.5341,7.0827,24.4422,10.9378,-12.3206,-8.7068,-13.5965,-19.7435,
4.751,-27.8657,5.9835,-18.1662,-6.3149,23.7428,-19.3021,20.7577,12.5587,24.3815,-25.6814,5.9156,1.3193,-4.4589,
3.2572,-30.6814,-0.361,-2.9762,-20.0361,8.2183,-6.0575,5.4123,25.9052,16.3564,-10.0405,-8.5393,2.4486,-3.7313,
-11.0382,-14.7405,-14.4393,11.3024,-4.7339,-6.3748,8.4059,-9.0125,38.4509,1.275,4.6619,-21.5497,-11.7983,8.0023,
3.7241,0.2439,-0.854,18.7394,9.6501,8.1077,22.0016,5.6283,50.2438,15.2985,18.4822,-6.1567,3.0096,21.6222,
17.6007,-13.8707,-0.34227,3.515,-5.0289,21.7212,34.7815,19.3906,61.3292,28.4806,31.4733,8.3127,16.929,34.4249,
30.6446,-27.1385,13.7783,-10.7959,9.3729,34.5179,46.7946,32.3272,43.5494,40.8717,37.4666,21.9139,30.0133,46.4594,
14.7059,-11.4102,0.23259,3.9519,-5.2895,18.3469,29.8869,16.2875,26.8365,24.3194,21.1186,6.4991,14.1125,29.5718,
-0.27642,3.3744,-13.8814,17.8148,-19.0721,3.146,40.5789,1.2103,39.3263,8.7603,33.9515,-7.9909,-0.83427,13.6975,
13.8402,5.8175,-8.1563,28.7158,-3.828,17.0573,24.0442,4.5316,51.0667,20.665,37.8994,6.5886,-9.5307,-1.2243,
27.1098,-8.6316,-0.76111,20.087,10.5017,30.1338,8.5015,18.3597,33.9027,33.5251,21.5254,20.2933,5.1412,12.9491,
39.5832,-16.5721,9.4131,8.7532,23.9716,42.4258,-6.1086,31.3582,17.7685,45.6136,6.1339,33.1757,18.9327,26.2722,
23.1082,-29.6778,-5.2517,-5.872,8.4333,25.7803,8.358,15.3767,30.8024,28.7768,19.8659,31.8726,5.2499,10.5958,
7.6217,-13.7971,-19.0366,8.5804,-6.1727,10.1335,-6.2435,0.35406,15.1982,12.9502,4.5739,15.8602,-9.1651,-4.1399,
21.2644,-21.7164,-3.7944,6.6845,-12.2477,-4.5746,-19.9689,14.4328,0.18634,25.064,-9.8005,0.80863,-12.0101,-17.9915,
34.0885,-34.5134,1.786,-7.8166,2.5872,9.7999,-4.6708,27.6669,14.2752,37.6602,4.8875,14.8601,2.8105,-2.812,
46.1432,-46.5426,-12.4212,-21.4476,16.532,23.3119,9.7095,40.1068,27.5187,49.5005,18.6943,28.0685,16.7419,11.4567,
57.4746,-29.6501,-2.6402,-34.2607,28.3143,11.3797,-3.6467,51.8004,11.7675,60.6305,3.4726,26.8451,29.8374,15.5452,
39.9261,-13.7711,-16.2932,-43.7698,12.5155,-3.4031,9.4629,34.5924,-3.0385,42.8927,-2.1435,11.1344,15.6717,0.51246,
36.8368,-7.4205,-1.2156,-27.0436,15.2757,-17.2989,-1.6939,46.6169,-11.7754,43.4256,-3.3964,2.0074,28.8314,14.5817,
20.5266,-0.069222,10.5386,-11.321,28.4592,-2.161,-15.6923,29.7198,-25.1689,26.72,-17.2926,15.987,13.0015,7.2615,
5.195,14.0349,-4.1937,3.4583,40.8516,12.0687,-28.7344,13.8367,-12.7817,11.0168,-2.1551,29.1278,26.3214,20.9258,
-6.51,27.2928,-4.1137,17.3508,24.3005,25.4446,-12.9104,3.2221,2.0852,-3.7442,12.0742,41.4801,10.6421,5.5703,
-20.2194,33.3646,-3.4064,8.7102,8.7425,9.8179,1.9643,-11.0713,-12.1399,-17.6195,10.6009,24.8913,-4.0964,-8.864,
-11.3515,17.2628,10.898,-5.9124,1.7726,-4.8712,-12.2536,-13.8014,-25.5115,-6.2009,-4.1352,9.2978,10.2494,5.7679,
-24.7704,2.127,21.4648,5.3198,5.3491,9.5211,-25.6184,-19.4191,-9.8808,-19.9289,-17.987,22.8399,22.986,7.7238,
-9.1842,16.0994,6.0769,5.0008,19.1281,23.0498,-9.9813,-4.1539,4.812,-4.6331,-2.8078,35.5695,35.7068,21.3604,
5.4668,29.2334,-8.3877,18.8007,3.8805,20.4572,4.7176,10.1953,18.6233,9.7448,11.4606,41.3168,19.4644,5.9788,
-8.9612,13.3794,6.2156,3.5727,-1.4167,5.1298,-2.5876,3.9425,3.4059,1.9662,24.873,24.7378,11.3903,19.72,
5.6765,-1.5234,19.9427,-10.7417,12.7683,-9.278,-16.5323,17.806,-10.8985,15.9482,9.2806,10.6515,24.8069,32.6368,
19.4359,-10.0623,28.4142,-5.6655,11.7136,5.3787,-19.8558,30.8376,-9.3236,29.0913,-5.3762,-4.0875,32.2379,16.5786,
4.1698,4.6414,12.6093,8.7745,18.8378,19.156,-4.5644,14.8874,-22.8642,13.2458,-18.1159,-17.9423,16.2036,1.4839,
18.0196,18.4629,-2.2472,22.348,8.0392,32.1066,9.8094,28.0941,-7.3923,24.1319,-2.9289,-2.7658,1.1314,0.93417,
20.5053,3.2552,3.0684,6.9071,2.0326,44.2802,20.6137,40.5085,7.1512,36.4953,11.3468,11.5002,13.6104,14.9781,
33.375,-11.0401,16.9843,-7.6073,16.0106,55.7234,5.2769,52.178,-7.3778,48.4056,-3.434,-3.2898,26.8938,28.1794,
44.4346,3.7223,10.6126,-3.9281,1.4102,38.28,-9.1397,34.9473,-21.0352,31.4013,-17.328,-17.1924,11.1801,12.3887,
27.6685,17.5989,-4.1242,-17.7924,15.4256,21.8832,5.5087,18.7504,-33.8731,15.4172,-17.6695,-30.2609,-3.5907,-2.4547,
11.9084,9.9809,4.6987,-30.8249,7.7662,34.6702,3.1652,3.5254,-26.1992,0.39218,-17.9904,-14.3452,-17.4752,-16.4074,
25.2939,17.2086,-3.4098,-23.3341,10.5232,46.69,-11.1247,17.4139,-10.5272,14.4686,-2.811,0.61548,-2.3267,-16.0546,
37.8762,15.2554,-2.2844,-36.034,23.9918,52.2305,-24.5572,30.4691,-23.9956,27.7005,-16.7423,14.6786,11.9129,-0.99135,
21.5037,10.1965,1.9962,-19.772,8.4523,34.9967,-8.9838,14.5409,-8.4558,11.9385,-29.8378,-0.30216,-2.9019,-15.0319,
6.1134,23.6847,-12.2236,-4.4857,15.3112,18.7969,5.6552,-0.43154,6.1515,-2.8778,-13.9475,-14.384,-16.8278,-28.23,
12.7688,8.1636,2.6098,3.3214,27.7434,24.2314,9.9197,-14.5056,5.205,-16.8051,-1.1408,0.57901,-29.9181,-22.1045,
22.5917,-6.4262,1.9927,17.2221,11.9788,36.8775,-4.7755,0.46469,-2.0129,-1.6968,-15.1724,14.6443,-14.023,-13.8726,
35.3362,5.7576,-12.2268,30.2888,25.3601,48.7648,1.7843,14.5368,-15.9921,12.505,-28.362,27.8656,0.91836,1.0597,
33.8484,16.4613,-5.68,14.3715,9.7385,31.739,-12.4228,11.2463,-0.93262,13.8853,-12.5603,12.0937,-0.6892,-13.1038,
17.7175,29.5736,1.1058,27.6092,-4.9458,15.7346,2.4226,-3.5285,13.2233,-1.0479,2.2933,-2.7319,-14.7478,-26.1285,
2.5544,13.6992,6.1044,40.0526,3.294,0.69054,-6.4699,-17.4168,-1.6701,-15.085,-11.9443,-16.668,-27.963,-26.8628,
-11.6988,-1.2228,6.198,23.5495,17.1964,14.7491,-20.1817,-21.3197,-15.6699,-28.2799,-25.3276,-1.5679,-12.1852,-11.1511,
3.1031,-15.2494,19.9261,8.0365,30.2646,27.9642,-33.0708,-5.9406,-25.0301,-12.4831,-19.5479,12.6261,2.6459,3.618,
13.162,-28.4345,32.8306,-6.5457,25.1096,12.1863,-16.9865,8.5159,-11.558,2.3659,-26.6619,-2.2314,16.5872,-10.6991,
-1.7277,-12.6284,16.7607,-20.2529,9.5031,-2.6449,-1.8673,-6.0951,3.2355,-11.8761,-14.4735,-16.1976,1.4919,-24.1571,
12.4759,-7.6104,13.6249,-33.1378,7.84,-16.5862,-15.8553,8.3706,-11.0586,2.9365,-27.7051,-11.8864,15.5024,-8.6077,
15.8707,-20.9654,24.7775,-17.0495,21.4696,-1.491,-10.4721,21.9684,-24.4951,16.8603,-40.1428,-25.2732,28.6723,6.0087,
29.0184,-5.6075,9.1909,-1.9265,34.2814,12.6985,4.2563,34.7503,-8.9254,29.9487,-23.6342,-9.6568,41.0519,19.7482,
41.3773,8.829,-5.4606,-15.9109,18.1246,24.3669,18.1009,46.7653,5.7101,42.2518,-8.1162,5.0226,46.9303,29.2068,
24.7947,22.3992,-19.2329,-29.0563,2.9371,8.8049,31.1148,29.8593,19.4675,25.6167,6.4708,-9.3788,30.0145,13.3544,
9.207,6.9553,-4.7832,-13.2129,-11.3391,-5.8234,15.148,13.9678,4.1995,9.9797,-8.0175,-22.916,14.1136,8.6985,
-5.4454,-7.562,-16.4658,1.6799,-24.7588,8.626,0.13907,-0.97028,-10.1525,-4.7191,-21.6364,-7.4411,-0.83319,-5.9234,
-19.2187,6.9917,-29.5779,15.6791,-9.1733,22.2084,14.2307,-15.0121,4.5566,-18.536,-6.2382,7.1054,13.3168,8.532,
-32.1656,-3.2126,-29.8168,28.8383,-8.334,6.7759,27.4769,-28.2113,18.3832,-31.5238,8.2361,20.7791,-1.5822,-6.0799,
-44.3356,-9.0047,-13.9278,13.008,-6.4532,-7.7306,30.9479,-40.6187,10.2579,-43.7324,-6.3581,5.4323,-13.0515,-4.5055,
-27.5755,-22.5644,1.0079,-1.8725,-5.145,-21.3668,14.991,-24.0815,-4.4576,-27.0084,-20.0766,-8.9936,1.8316,9.8648,
-40.021,-30.59,6.8157,12.3399,-18.9363,-34.1848,-0.0084477,-36.7366,9.9099,-39.4879,-9.3758,-22.554,-12.3783,-4.8271,
-51.7197,-14.6546,-7.6933,25.6995,-3.7001,-46.2337,14.0921,-48.6324,23.4153,-49.3162,5.2867,-35.3008,-19.9229,2.8279,
-34.5165,0.32468,-7.8638,26.8031,-14.067,-29.3597,9.3912,-31.6145,36.1104,-32.2572,-1.7644,-19.0827,-4.6275,1.2772,
-40.4986,-13.7948,-1.8674,11.0949,-27.3229,-13.4981,-5.2723,-15.6176,19.8438,-20.9416,-15.7585,-3.8378,-0.49476,-3.4034,
-23.9687,-27.0671,12.3446,-3.6708,-11.5836,-26.7882,-19.0559,-0.58057,4.5531,-5.5851,-28.913,10.4925,13.6349,10.9008,
-36.6306,-39.5431,17.7608,-1.032,-24.9885,-39.2809,-32.0126,-14.6457,-9.8201,-19.35,-41.2782,-4.237,-1.2832,-3.8533,
-48.5328,-23.0705,2.5952,13.1299,-28.2649,-51.0241,-32.4487,-27.867,4.8691,-32.289,-24.7015,-18.0828,-15.3062,-17.7221,
-31.5208,-7.5863,-11.6605,26.4421,-29.7918,-33.8626,-16.4018,-34.1932,18.677,-26.3805,-12.5139,-2.8978,-28.4878,-30.7587,
-15.5295,-21.2311,3.1391,10.7556,-13.9043,-17.7309,-1.3177,-18.0416,31.6564,-10.6976,2.337,11.376,-12.6785,-14.8132,
-0.49777,-26.8628,17.0508,-3.9898,1.03,-15.9735,-15.3386,-2.8591,15.657,4.0442,16.2967,24.7935,2.1822,0.17558,
-14.5679,-11.151,19.2505,-7.8937,-13.1318,-29.115,-22.9938,-16.7875,0.61758,-10.2984,9.6774,9.2059,-10.3789,-13.935,
-27.7938,3.618,7.5071,6.6799,-14.4743,-41.4681,-7.5141,-29.8803,14.6805,-23.7805,23.1968,-5.4465,-23.8562,-27.1989,
-40.2262,-10.6991,21.1566,-7.8209,-9.4623,-24.8801,2.7767,-42.1875,-0.30031,-36.4537,7.705,8.9803,-8.3248,-15.3218,
-23.7126,4.0429,5.7872,-21.4516,5.2055,-9.2872,-11.4899,-25.5562,-14.3823,-20.1665,21.3427,22.5415,6.2747,-0.30252,
-8.1899,17.9003,-1.0057,-34.2645,18.9931,5.37,-24.9006,-9.9229,-27.6194,-4.8565,5.9621,35.289,19.9982,13.8156,
6.4015,2.7263,13.1546,-46.3086,3.7535,-9.0522,-9.3065,4.7725,-11.8622,9.5349,-5.905,19.0716,32.8983,6.4253,
-8.0826,16.6627,-1.7347,-29.4301,-10.5717,-22.6091,5.3519,-9.6138,2.9495,-5.1372,8.5493,3.8273,16.8244,-8.0602,
-5.5847,1.563,4.3542,-13.5643,-9.9374,-25.5679,-9.0692,-23.137,-11.3274,-18.929,-6.0636,-8.2005,1.715,1.4589,
8.8504,-12.6308,-5.1146,1.3495,-13.9447,-9.9339,-22.6251,-7.6488,-0.23126,-3.6932,-19.7998,6.3915,5.9266,15.4714,
22.4194,2.227,-18.9077,15.3686,0.99198,4.7622,-7.1676,6.9101,13.8826,10.6284,-4.5118,20.108,19.671,28.6431,
35.1742,16.1934,-6.896,6.3311,-8.1037,-9.6236,7.3625,20.5955,27.1497,24.0907,9.8589,7.7355,4.3907,12.8245,
18.9638,29.3218,-17.0707,-8.1488,-21.7175,-23.1461,21.0207,5.2598,39.6207,8.5452,23.3673,-6.8287,-9.9727,-2.045,
3.7259,13.4625,-1.9464,-5.0692,-21.5064,-35.8574,5.6595,-9.1558,23.1434,-6.0675,7.8653,-9.3524,-13.6891,-6.5263,
-10.5976,-1.4453,0.1833,9.3349,-15.1526,-19.6059,-8.7801,-22.7064,7.6548,-19.8032,-6.7066,5.3087,-16.0901,-20.2347,
4.1382,12.7415,-13.9277,22.8748,-0.14345,-4.3296,-21.3158,-7.2441,-6.9045,-4.515,-20.4042,19.0902,-1.0247,-4.9206,
17.9899,-2.123,1.008,8.4952,-14.2348,5.3097,-5.9368,7.2906,7.6098,9.8559,-5.08,7.6993,2.431,5.0429,
2.8106,12.1044,-13.1525,-6.1145,-27.4807,-9.1089,8.5194,-7.2468,21.2532,-4.8355,9.3248,-6.8627,-11.8149,-9.3597,
16.7419,-2.7219,1.7366,-19.8477,-11.7319,-22.6624,-6.0918,7.288,5.878,9.5547,-5.3347,-20.5509,2.994,-5.7472,
29.8374,-16.6586,15.7324,-30.9704,3.072,-7.2026,-19.8263,20.9507,-8.5747,23.0814,-19.1146,-5.2179,16.9144,8.6976,
42.1472,-1.5591,0.68849,-15.0122,16.9877,7.3295,-4.5367,33.7936,6.0398,35.7965,-3.8677,9.1952,29.9995,22.2758,
53.7183,12.6345,-9.9416,-0.011451,25.0599,-7.2103,9.8355,45.866,19.7774,47.7487,10.4644,18.3118,14.0996,6.8392,
36.3952,23.9009,-6.5824,14.0892,9.4563,-20.8776,-0.99994,29.0141,4.4908,30.7838,-4.2635,3.1131,-0.84641,-7.6711,
46.409,8.3669,7.9125,3.1707,-5.2111,-33.725,-15.0399,38.0893,-9.8787,43.0368,-18.1077,-11.1737,-14.8956,6.8891,
29.5245,-6.2351,11.7529,9.8858,-6.1633,-45.8015,-0.037548,21.7039,4.8141,26.3545,-2.9212,2.0434,-18.7776,-7.6242,
13.653,8.239,-3.0522,23.3926,8.3065,-57.1534,14.0647,6.3017,18.6252,10.6733,11.354,-12.1792,-3.5509,6.9332,
-1.2662,-6.3554,-16.9691,36.0891,-3.9893,-39.6242,17.0757,-8.1764,31.6077,-4.0671,16.8295,2.6515,-17.4378,-7.5827,
-15.2902,-20.074,-30.051,19.8237,-17.8499,-23.1467,1.9512,-21.7858,15.6112,-17.9231,1.7197,16.5924,-30.4916,-19.0976,
-0.27279,-32.9696,-14.1479,4.5343,-2.6789,-7.6579,-12.2659,-6.3787,0.57457,-2.7477,-12.4835,29.6969,-14.5621,-3.8518,
-14.3564,-16.8914,0.80097,10.7078,2.5452,-21.2985,2.5701,-20.096,14.6401,-16.6828,0.3526,13.8151,-10.9259,-12.6568,
-27.595,-1.7779,-13.3471,24.1653,16.4925,-34.1206,16.5159,-32.9902,27.8617,-29.7819,14.4314,14.079,-7.9685,2.2026,
-11.8393,12.4287,1.5537,12.2984,29.603,-17.9733,29.6249,-16.9108,38.2152,-13.895,27.6656,27.3343,6.6096,16.1704,
2.971,-2.417,15.5605,-2.5395,33.2355,-2.7949,20.1927,-1.7962,21.8223,1.0387,11.9056,39.7942,20.313,29.3002,
16.8928,-16.372,28.7269,-16.4871,45.3413,-5.7335,4.8812,12.4116,6.4129,15.0764,-2.9087,23.3066,33.1942,41.6422,
14.6143,-29.4896,40.9865,-25.5097,28.5209,-19.4894,-9.5117,9.4814,-8.0718,21.5932,-16.8342,7.8082,17.4457,25.0437,
-0.36259,-13.6203,24.4273,-9.8791,12.7096,-32.4201,5.159,-5.1874,6.5125,6.1976,-1.7241,-6.7603,2.2989,9.441,
-12.4826,1.2969,8.8617,4.8136,1.6459,-16.3749,18.9495,-18.9762,20.2217,-1.7124,-15.7207,7.7453,-7.2183,-5.2254,
-5.2879,-12.8809,13.9711,-1.1163,9.8349,-1.2924,3.7125,-3.7376,4.9084,12.4904,-28.3009,21.3806,7.3148,9.1881,
9.1294,-26.208,11.7518,0.33173,23.3448,12.8852,-10.6103,10.5866,-9.4861,25.8409,-32.5879,34.1977,20.976,22.7368,
-5.5184,-28.5456,-0.92319,12.2817,7.8441,-1.9879,3.4942,-4.1486,5.1831,10.1905,-16.5326,18.0459,5.6174,7.2726,
-19.2873,-12.7328,11.1021,18.9111,-6.7265,-15.9687,17.3846,-17.9996,-1.4565,-4.5209,-1.4406,2.8631,-8.8196,-7.2638,
-32.23,-6.2722,24.5359,3.6764,-20.4229,-29.1106,2.2415,-31.0197,-15.4691,-18.3497,-15.4542,-11.4087,-22.3905,-20.9279,
-16.1962,8.2041,8.9638,-0.85956,-5.0976,-13.2639,-11.993,-15.0585,-0.44093,-3.1487,-0.42694,3.3759,-6.947,-5.5723,
-1.1244,21.8119,-5.674,-13.6986,9.3083,1.6319,-4.5395,-0.054981,7.8724,11.1402,13.6987,17.2733,7.5698,8.8621,
13.043,6.4032,8.7664,-26.9767,14.2741,-12.566,9.8329,14.0483,-6.7,24.5718,26.9768,24.6958,21.2156,22.4304,
-1.8396,20.119,-5.8596,-39.3416,-0.68233,-25.912,23.3429,-0.89458,-20.398,8.9975,32.9512,9.1141,5.8427,6.9845,
3.7956,4.8118,8.592,-25.0108,9.7751,-10.2573,7.8423,-8.3791,-33.2741,-5.6424,16.8741,-5.5328,-8.6079,-7.5345,
17.6679,-9.5769,15.9028,-9.4101,23.2886,4.4581,7.5434,6.2237,-17.1777,8.7962,28.1204,8.8992,6.0086,7.0175,
30.7078,5.0977,0.84864,5.2545,35.9913,18.2906,21.1908,19.9503,-2.047,22.3684,40.5332,22.4652,19.7481,20.6965,
18.6196,18.8919,-13.3023,19.0392,19.7318,3.0932,21.933,4.6532,-15.4469,6.9263,24.0012,7.0173,4.4632,5.3547,
3.4024,31.8584,1.5959,31.9969,4.4479,-11.1924,34.717,-9.7259,-0.42012,-7.5893,8.4611,-7.5037,-9.9046,-9.0666,
-10.9018,15.8469,14.2197,15.9771,0.037745,-12.0733,18.534,-23.2424,-14.4949,-21.2339,-6.1466,-21.1535,-23.4103,5.4613,
-24.3477,23.9875,-0.73345,29.1184,-14.0645,2.7511,3.322,-35.9478,-27.7252,-34.0599,-19.8778,-33.9843,-36.1057,-8.9664,
-36.9868,36.6483,-14.7894,19.311,0.87935,16.686,-0.27222,-47.891,-40.1617,-46.1163,-32.7851,-46.0452,-48.0394,-22.5284,
-22.1039,37.3829,-28.0021,4.0524,14.9266,29.7849,13.8441,-48.7559,-23.652,-57.4493,-16.718,-29.1825,-50.7365,-35.2767,
-9.2679,21.0399,-12.222,-10.2908,28.131,42.0978,27.1135,-31.7305,-8.1329,-39.9023,-1.6149,-13.3316,-33.5923,-19.0601,
5.3882,5.6775,2.6114,-23.7733,40.5431,29.2096,11.3867,-15.7267,-21.7449,-23.4082,-15.618,1.5683,-17.4767,-3.8165,
-9.0351,19.4369,-11.6453,-8.2469,24.0105,13.357,-3.3965,-28.8831,-34.5402,-36.1037,-28.7809,-12.6258,-30.5281,-17.6875,
-22.593,32.3706,-25.0466,6.3479,24.2945,-1.5444,10.9073,-41.2501,-18.3678,-48.0375,-12.9541,-25.9682,-42.7964,-30.7262,
-7.1374,16.3284,-9.4438,17.7652,31.1238,12.6483,6.7421,-24.6751,-3.1657,-31.0552,-24.2018,-10.3101,-26.1287,-35.8438,
-11.3128,1.2487,-13.8254,2.5993,15.1564,25.9894,-7.7624,-9.0946,-17.0758,-15.0919,-36.8497,4.4085,-10.4609,-30.4708,
3.466,-12.9262,-12.5353,16.5434,0.14702,10.33,-21.3967,5.5511,-30.1512,-0.086413,-48.7387,-9.956,-7.6482,-14.5426,
-10.842,1.9494,-25.8832,29.6508,-13.9618,-4.3898,-6.0129,-8.882,-14.2422,-14.1812,-31.7144,-23.4587,-21.2894,-27.77,
-24.2914,15.9324,-38.4302,13.7717,0.97591,0.59459,8.4479,-22.4491,0.71236,-27.4304,-15.7115,-36.1511,-17.8816,-20.1188,
-8.7339,29.0764,-22.0244,17.0887,4.7174,14.6589,22.041,-7.0021,7.1149,-11.6845,-12.4671,-19.8821,-2.7087,-9.2436,
5.8901,13.2319,-6.603,1.9634,-9.6657,27.8794,6.6186,7.518,-7.412,3.1165,-25.819,-4.5892,11.5538,2.8206,
19.6367,-1.6621,7.8932,-12.2544,-10.1786,12.1066,-7.8786,21.1669,-21.0672,17.0295,-38.3699,-18.4138,24.9606,16.7514,
4.3585,-9.7322,19.5611,-9.1002,-23.6679,-2.7198,3.4712,5.7969,-10.0186,1.9078,-21.9677,-31.409,16.612,1.6463,
-10.003,4.9517,4.2875,5.5458,-13.6726,-16.6566,17.3629,-8.6509,4.6825,-12.3067,-6.5496,-43.6244,1.5153,11.6756,
4.6972,-9.4454,18.1302,-8.8869,1.2478,-1.5572,2.2211,5.9681,-9.6984,2.5317,-13.0622,-26.907,15.5244,25.0751,
18.5153,-22.9786,31.1424,-22.4537,12.8548,12.6362,-12.0121,19.7101,-23.2165,16.4798,-14.1202,-11.1926,28.6929,37.6706,
31.5044,-35.6999,43.3739,-35.0899,26.1835,25.9781,-25.2744,32.6275,-20.1539,29.591,0.82697,3.579,41.0713,49.5104,
43.7141,-36.6642,43.8777,-43.5734,10.5125,10.3194,-21.4562,44.7698,-10.1973,41.9156,-13.3226,-10.7357,34.3468,32.4397,
26.9913,-20.3643,27.145,-26.859,-4.2182,-4.3998,-6.0688,27.9836,4.5145,25.3006,1.5767,-24.1916,18.186,16.3934,
11.2718,-5.0424,11.4163,-11.1474,-18.0651,9.9642,-19.8045,12.2046,18.3436,9.6826,15.5821,-8.6401,2.9948,1.3098,
-3.5045,-2.5544,-3.3687,3.6214,-16.8647,23.4663,-32.7162,25.5723,3.143,17.8489,0.54718,5.9783,16.9151,7.2162,
10.8058,5.4252,0.92164,-10.6959,-1.7528,36.1584,-28.163,38.138,-11.1456,30.878,-13.5856,19.7196,30.0002,20.8832,
3.1349,-9.0003,12.3759,-0.5028,-15.7476,19.8889,-15.8842,21.7497,3.6232,14.9253,1.3295,4.4364,14.1002,5.5302,
-11.1532,5.6397,16.2374,13.6274,-28.9028,4.5955,-0.83115,6.3447,17.5058,-0.07019,15.3497,-9.9298,-0.8458,-8.9016,
-24.584,19.4013,13.4214,26.9097,-41.2686,-9.7802,-14.8813,-8.136,2.3554,-14.166,0.32874,-23.434,-14.8951,-22.4675,
-37.209,19.3296,-1.4839,11.1951,-24.6925,4.9066,-28.0884,-16.3398,-11.8859,-27.416,-13.791,-7.9279,-13.1359,-7.0194,
-20.8764,32.2699,-15.4948,-3.5766,-9.111,18.7122,-22.8919,-1.2594,-25.2727,-11.6711,-5.5972,6.6477,1.7522,7.5017,
-5.5239,16.2337,-0.46515,-11.6488,-22.6643,3.4895,-7.4184,12.9162,-9.6564,3.1292,-0.1969,-7.8511,-1.4034,-3.0765,
-19.2924,1.1596,-1.0694,-10.9503,-35.4044,-10.8199,7.1267,-1.9588,5.023,-11.1585,13.9149,-21.4801,-15.4192,-16.9919,
-4.0349,-13.0099,13.0948,-10.7531,-39.6083,-24.2707,-7.4009,0.17255,-9.3784,-1.1645,-1.02,-34.2912,-15.5869,-1.8724,
-11.3307,-26.3293,11.5602,-2.7421,-23.1318,-8.7145,-21.0569,14.2622,-22.9157,10.8748,-15.0588,-18.1338,-0.55165,12.34,
3.4491,-10.6496,-3.2334,11.5224,-7.6439,5.9084,-23.9372,27.5065,-7.4407,24.3223,-0.055257,-2.9457,13.5815,25.6996,
-1.6507,4.0894,-17.1394,24.9311,-21.2853,-8.5461,-8.401,11.7561,7.1057,8.763,14.0481,-16.869,-1.3334,10.0576,
-15.6516,17.944,-22.4403,37.5352,-34.1081,-22.1333,6.2031,-3.0493,3.6283,-5.8628,27.3052,-29.9569,-15.3534,-4.6459,
-0.61254,2.7674,-6.9938,21.1831,-31.6018,-34.9053,-8.2691,11.2337,-10.6894,8.589,11.5669,-42.2595,-26.8621,9.7329,
-14.6758,3.8109,-20.6742,27.1617,-43.8057,-46.911,-21.8729,-3.5404,-24.1481,-6.0264,-3.2271,-53.8239,-39.3504,-4.9511,
-27.8952,17.6823,-33.5338,39.632,-55.2774,-58.1963,-6.4606,-17.4279,-8.5992,-19.7648,-17.1335,-64.6945,-51.0894,-18.754,
-40.3215,6.2042,-30.3119,35.1239,-43.0969,-40.6046,8.0271,-30.4823,6.0168,-32.6789,-30.2055,-46.7128,-62.124,-31.7288,
-23.8022,-8.2681,-14.3932,18.9165,-26.4111,-24.0683,-6.5546,-14.5533,-7.6951,-16.6182,-20.9106,-29.81,-44.2966,-15.7251,
-8.2741,-21.872,0.57039,3.6815,-10.7264,-8.5242,-20.2613,0.41988,-21.3334,-1.5211,-33.7559,-30.606,-27.5388,-0.68155,
-21.8777,-16.2994,-11.0902,15.0869,-24.1828,-22.1127,-33.1456,-13.7053,-34.1534,-15.5298,-37.427,-42.8696,-39.9865,-14.7407,
-34.665,-1.2214,-24.5248,28.2817,-33.1482,-22.511,-17.0569,-26.983,-18.0042,-28.698,-21.0814,-49.6764,-51.6873,-27.9562,
-18.4851,-15.2481,-21.3836,24.9152,-45.2593,-7.0603,-30.1335,-11.264,-31.024,-27.9518,-33.9165,-32.5959,-54.6262,-34.4494,
-3.276,-28.4333,-6.0006,9.3203,-46.8591,7.4633,-42.4255,3.5118,-43.2625,-12.1747,-45.9815,-16.5401,-37.2486,-18.2824,
11.0206,-40.8273,8.4594,-5.339,-29.9476,-7.0845,-53.9799,17.4011,-54.7668,2.6558,-57.3226,-29.6477,-20.9137,-3.0855,
-3.7407,-24.2776,-6.1481,9.0814,-42.2507,-20.7594,-36.6411,2.257,-37.3808,-11.6035,-39.7833,-41.9688,-33.7589,-17.0003,
-17.6162,-8.721,-19.8793,22.6365,-25.6157,-5.4138,-20.3427,-11.9784,-21.0379,-25.0073,-23.2963,-25.3507,-45.8333,-25.0162,
-19.6653,5.9023,-32.7865,35.3783,-16.5412,9.011,-5.0221,-25.3597,-6.3078,-37.6069,-7.7985,-9.7297,-51.3704,-9.4153,
-8.8171,-7.6309,-16.7193,19.1556,-4.9599,22.5703,-18.8208,-9.7381,-20.0293,-21.2505,-21.4306,4.9541,-34.1882,5.2496,
5.812,-21.273,-1.6161,3.9063,9.4377,7.1161,-31.7915,4.9462,-32.9276,-5.8755,-34.2447,18.7569,-18.0369,19.0347,
-8.6367,-5.8966,12.5808,-10.4281,11.8058,-7.4109,-15.784,-9.4506,-16.8519,-19.6229,-18.0901,3.5315,-2.8547,3.7926,
-22.2185,8.5572,-2.274,4.2976,8.3352,-5.8738,-0.73699,-22.9835,-1.7408,-32.5456,-2.9047,17.4196,-16.7834,-10.535,
-6.7854,22.1437,-4.728,0.18505,10.1368,-19.6214,13.4072,-8.5972,-15.7363,-16.4928,11.3696,30.4744,-29.8764,-3.7453,
-17.8875,6.7151,-0.30101,2.4757,11.8304,-4.3441,-1.4972,6.0187,-28.8922,-1.4032,-3.4126,14.5459,-13.9838,-17.6206,
-2.7142,20.4122,-7.649,1.4062,25.2206,10.0166,5.4984,19.7576,-41.2586,12.7809,-17.3078,27.7732,0.95523,-2.4634,
11.5486,5.0875,6.9099,-12.7782,37.8074,-4.6844,-7.7221,32.6721,-24.6831,26.1141,-2.1693,12.0068,14.9979,11.7844,
-3.2443,18.8822,20.5953,2.0885,49.6389,9.6966,6.8412,16.6118,-9.1021,10.4472,12.0608,25.3864,11.1018,25.1774,
-17.1496,31.8493,5.2596,16.0632,32.5606,23.2148,20.5308,1.5151,5.544,-4.2796,25.4372,37.9632,-3.6643,9.5667,
-2.0206,15.8383,-9.156,21.2563,16.5069,35.9219,5.1989,-12.6758,-8.8886,-18.1228,9.8109,29.8106,-17.5444,-5.1073,
-15.9994,28.988,-22.7066,5.8809,1.4165,47.8666,18.987,-26.0153,5.7447,-31.1354,23.3223,42.122,-30.5918,-18.9008,
-29.1394,41.3487,-35.4442,-8.5719,-12.7685,59.0946,31.9478,-38.5544,19.5,-43.3673,36.023,53.6946,-42.8563,-31.8668,
-41.4911,52.9678,-47.4176,-22.1576,-26.1024,69.6489,44.1309,-50.3411,32.43,-54.8653,47.9616,64.573,-54.3849,-44.0548,
-53.1016,63.8898,-58.6725,-34.9281,-38.6362,79.57,55.583,-61.4206,44.5842,-65.6734,59.1839,74.7986,-65.2218,-55.5115,
-64.0155,74.1564,-69.2522,-46.9324,-50.418,88.8958,66.3481,-71.8354,56.0091,-75.833,69.7328,84.4107,-75.4085,-66.2808,
-74.2746,83.807,-79.197,-58.2165,-61.493,97.6621,76.4672,-81.6253,66.7486,-85.383,79.6489,93.446,-84.984,-76.4039,
-83.9181,92.8786,-88.5452,-68.8235,-71.9034,105.9023,85.9791,-90.8278,76.8437,-94.36,88.9699,101.9393,-93.9849,-85.9197,
-92.983,86.5502,-97.3325,-78.7941,-81.6892,113.6482,94.9204,-99.4781,86.3331,-102.7984,97.7317,109.9229,-102.4458,-94.8645,
-101.504,88.263,-105.5925,-88.1665,-90.8878,120.9293,103.3252,-107.6094,95.2531,-110.7305,105.9678,117.4275,-82.1991,-102.9784,
-109.5138,97.0672,-113.357,-68.7765,-71.3346,127.7735,111.2257,-115.2528,103.6379,-118.1867,113.7098,124.4819,-63.1671,-82.6997,
-117.043,105.3432,-120.6556,-78.7499,-81.1545,134.2071,118.6521,-122.4377,111.5196,-125.1955,120.9872,131.113,-73.4771,-91.8377,
-124.1204,109.0346,-127.5162,-88.1249,-90.3852,140.2547,125.633,-129.1914,118.9284,-131.7837,127.828,137.3462,-83.1685,-100.4274,
-130.7732,88.3925,-133.9653,-96.9374,-99.0621,145.9394,132.195,-135.5399,125.8927,-137.9767,134.2583,143.2054,-92.2784,-108.5018,
-108.8268,68.989,-140.0273,-105.2212,-92.0741,151.2831,110.1633,-113.3075,116.7183,-115.5981,140.3028,148.7131,-79.884,-87.8917,
-116.3972,78.9497,-117.5257,-84.8079,-72.4497,156.3061,117.6535,-120.6091,123.8152,-122.7622,145.9846,153.8903,-60.991,-68.5182,
-123.5133,88.3127,-124.5742,-65.6194,-64.7081,161.0277,124.6943,-127.4725,130.4863,-129.4965,151.3255,158.7569,-71.4315,-78.5071,
-130.2025,71.5037,-119.5054,-75.7822,-58.9845,165.466,131.3126,-133.9242,136.7571,-135.8267,156.346,163.3315,-69.9081,-59.6967,
-136.4904,53.1134,-126.4351,-85.3353,-69.5454,169.6381,110.0704,-111.7887,114.4517,-113.5771,159.8984,167.6316,-79.8136,-45.5256,
-114.201,35.8266,-132.949,-94.3152,-79.4727,173.5598,89.3662,-90.9814,93.4846,-92.6625,136.2045,171.6737,-71.5132,-56.8941,
-93.2489,19.577,-128.5386,-102.7563,-70.9043,154.4965,98.1042,-71.4225,73.7755,-73.0027,142.1322,147.2733,-53.1224,-67.5804,
-101.754,32.5024,-134.9262,-82.4909,-52.5501,159.3267,106.3179,-81.2372,83.449,-82.7226,147.7043,152.5369,-39.6351,-49.4256,
-93.9116,26.0657,-121.9382,-91.6414,-40.4783,163.8671,114.0389,-90.4629,92.5421,-91.8592,152.942,157.4847,-51.357,-53.5377,
-92.8805,10.4017,-128.722,-100.243,-52.1496,168.1351,93.0965,-70.9352,73.9819,-72.2477,157.8655,162.1356,-62.3756,-64.4255,
-73.2076,-4.3224,-135.0986,-108.3284,-63.1206,172.147,73.4107,-52.5791,55.443,-53.8128,140.6223,165.6845,-72.733,-74.6599,
-82.9152,10.037,-112.8927,-87.7287,-60.1374,175.9182,83.1061,-63.5243,66.2164,-64.684,146.285,169.8435,-82.469,-82.0334,
-92.0403,23.5348,-92.0192,-68.365,-42.4292,173.5885,92.2197,-73.8129,76.3435,-74.903,151.6079,173.7528,-63.4209,-63.0114,
-72.4178,12.4546,-72.398,-50.1631,-25.7834,149.0732,72.5865,-55.2841,57.6628,-56.3088,128.4114,149.2277,-45.5156,-45.1308,
-53.9728,14.0093,-53.9541,-33.0533,-10.1364,154.2288,54.1314,-37.867,40.1031,-38.8303,106.6067,126.174,-28.6847,-28.3229,
-36.6344,-0.93124,-41.6258,-45.1701,4.5718,159.0751,36.7835,-21.495,23.5969,-22.4005,86.1103,104.5036,-12.8636,-12.5235,
-20.3363,-14.9754,-25.0283,-33.6448,18.3975,135.4306,20.4765,-6.1053,36.2811,-6.9564,66.8437,84.1334,2.0082,2.3279,
-33.2162,0.02316,-9.4266,-17.5261,3.1936,113.2047,33.3479,-19.839,48.2042,-20.639,76.9331,64.9854,15.9877,8.1114,
-17.1232,-2.4521,5.239,-2.3746,17.102,92.3124,17.247,-4.5487,31.212,-5.3007,58.2171,46.9862,29.1284,21.7247,
-1.9958,-16.405,19.0247,11.8679,30.1759,95.1773,2.1122,9.8243,15.2392,9.1173,40.6241,42.0981,41.4807,34.5212,
12.2239,-1.3207,31.9832,25.2558,42.4653,103.5666,-10.9607,23.3348,0.22489,22.6703,24.0866,53.6722,53.0919,46.55,
25.5905,-15.3414,44.1642,20.7447,54.0174,83.2526,-24.4031,36.0347,-13.8886,35.4101,8.5414,36.3519,64.0064,29.657,
9.9551,-0.32095,55.6143,7.5306,41.5625,64.1575,-8.8389,22.0812,1.0447,22.8755,-6.0711,20.0708,47.8463,13.7775,
23.4578,-14.4017,66.3775,21.1788,42.7515,46.208,-22.4086,34.8563,-13.118,35.6029,-19.8068,4.7665,41.2923,27.0509,
7.9503,-2.1999,76.4948,34.008,39.2657,29.3355,-35.164,18.6649,-26.4309,19.3668,-32.7184,-9.6195,29.6065,28.0734,
21.5733,12.0321,57.8051,46.0675,51.0097,13.4754,-18.9542,31.645,-38.945,32.3048,-24.3037,-23.1423,41.9301,40.489,
34.3789,-2.7898,68.4368,45.1997,34.7699,-1.4331,-18.4491,43.8463,-24.7487,44.4665,-36.9454,-35.8537,42.8092,23.9596,
18.2162,11.4776,78.4306,56.5877,18.8723,-15.4471,-3.2421,27.1155,-31.5506,27.6985,-34.4403,-47.8025,26.1406,28.9671,
31.2232,-3.3111,87.8248,59.3496,31.84,-28.6203,-17.1476,11.3886,-43.7576,12.8565,-46.4739,-59.0344,29.4646,36.4373,
15.2498,-17.2124,96.6553,59.9317,33.7845,-41.0031,-30.2188,10.2441,-55.2321,7.9424,-57.7855,-69.5923,29.9987,20.1511,
0.23481,-2.0797,76.756,42.2358,17.6574,-52.6429,-14.3056,2.2639,-37.8182,-1.7426,-40.2183,-79.5168,18.9912,4.842,
14.3207,-13.0042,70.3579,25.6016,30.698,-63.5843,-27.5473,16.228,-49.6491,12.462,-44.8827,-72.149,31.9517,18.6515,
27.5615,-26.324,80.2364,9.9655,14.7561,-45.6693,-39.9945,29.3544,-60.7702,25.8143,-56.2897,-53.7201,15.9346,3.4324,
11.8078,-10.6445,61.3223,-4.7324,-0.22926,-28.8291,-23.4948,13.4931,-43.0239,10.1654,-38.8123,-36.3969,0.87855,-10.8735,
-3.0007,4.0942,43.5429,2.6909,13.8845,-12.9994,-7.9851,-1.4165,-26.3425,-4.5445,-22.3836,-20.1131,14.9258,3.8789,
-16.9206,17.9485,26.8303,16.6294,17.4831,1.8806,6.594,-15.4315,-10.662,-18.3719,-6.9406,-4.8063,18.1732,17.7462,
-30.0054,30.9716,11.1205,29.7316,2.3341,15.8678,20.2984,-28.6056,4.0778,-31.3695,7.5759,9.5821,2.9828,2.5814,
-42.3051,43.2133,-3.6467,42.0477,-11.9059,29.0157,33.1805,-40.9893,17.9331,-43.5874,21.2213,23.1072,-11.2962,-11.6735,
-25.6668,26.5205,-17.5279,25.4249,-25.2915,13.1748,31.2445,-26.1551,30.9571,-26.8721,34.048,27.3559,-8.199,-19.3155,
-38.2268,39.0293,-30.5762,9.7994,-37.8741,26.4843,43.4699,-38.6858,43.1997,-39.3598,46.1051,39.8146,-21.8071,-32.2565,
-50.0332,50.7875,-42.8417,-4.8886,-49.7016,38.9952,54.9617,-50.4647,54.7077,-51.0982,57.4388,51.5257,-34.5986,-44.4211,
-61.1312,61.8403,-54.3712,-18.6953,-32.6195,50.7555,65.764,-61.5368,65.5252,-62.1323,68.0925,62.5342,-36.089,-50.8463,
-71.5633,44.0298,-65.2089,-31.6735,-44.7623,61.8102,47.7181,-57.8997,47.4937,-44.3044,49.907,72.8821,-48.0237,-51.9388,
-53.1695,27.2881,-75.3964,-43.8731,-56.1766,72.2016,30.755,-40.3257,30.5441,-27.5461,32.8125,82.6092,-59.2422,-38.2339,
-64.0793,23.576,-84.9726,-49.5827,-66.906,81.9695,43.0097,-52.0062,42.8115,-39.9934,44.9438,91.7526,-69.7877,-50.0398,
-74.3346,36.2614,-93.9742,-32.5077,-55.8068,91.1513,54.5292,-62.9858,54.3428,-51.6937,56.3472,100.3475,-79.7005,-61.1374,
-55.7745,48.1857,-74.2358,-26.7024,-38.3584,99.7822,65.3574,-73.3067,65.1822,-62.6921,67.0663,80.2266,-60.8184,-43.3692,
-46.1548,31.1946,-83.8816,-39.2002,-50.1569,107.8953,47.336,-54.8083,47.1713,-44.8306,48.9423,89.513,-69.1947,-54.867,
-29.2855,15.2229,-92.9487,-50.9482,-61.2475,115.5216,30.3958,-37.4198,30.241,-28.0408,60.1058,98.2423,-75.6319,-65.675,
-22.2922,28.4095,-73.2718,-33.7913,-43.4726,122.6903,42.6721,-49.2746,42.5265,-40.4583,70.5995,83.1336,-56.994,-70.9977,
-35.0547,40.805,-54.7755,-17.6638,-30.2763,101.2289,54.2117,-60.4181,54.0749,-52.1308,80.4635,73.0813,-43.735,-52.6378,
-39.5688,52.4567,-37.389,-2.504,-14.3597,104.7618,65.059,-70.893,64.9304,-63.103,89.7357,82.7964,-27.0109,-35.3795,
-40.8777,43.84,-46.9926,11.7462,0.60185,84.3761,47.0555,-52.5394,46.9346,-45.2168,70.2515,63.7286,-11.2903,-30.6108,
-52.5251,27.1096,-58.2731,-3.0585,-13.5343,93.4135,30.1322,-40.983,30.0185,-44.4551,51.9364,74.0049,-24.7129,-27.3933,
-60.5945,11.4996,-68.8767,-16.975,-24.5195,101.9087,42.4242,-52.6241,42.3174,-55.8878,62.9203,83.6646,-37.3301,-24.8292,
-71.0589,24.9096,-78.8441,-30.0565,-37.1484,81.6942,53.9788,-63.5666,53.8784,-66.6345,73.245,78.5278,-49.1903,-37.4394,
-52.6953,27.7307,-86.5987,-42.3531,-49.0195,62.6925,36.64,-45.6526,36.5457,-48.5364,54.7503,59.7161,-60.3389,-33.9837,
-35.4336,40.1668,-67.3028,-25.7119,-31.9783,73.031,48.5416,-28.8135,48.4529,-31.5243,65.5653,59.1845,-42.6185,-17.8447,
-47.4076,51.8568,-53.4249,-10.0692,-15.9596,82.7491,59.7291,-41.1847,36.3319,-43.7328,75.7314,41.5334,-25.9614,-2.674,
-30.4631,34.6454,-36.1194,-14.5294,-0.90202,63.6842,70.2454,-24.6136,48.252,-27.0088,58.2292,24.9414,-10.3037,11.5864,
-42.7353,18.4667,-48.0522,-27.7576,-14.9479,73.9631,51.9307,-9.0368,54.2756,-26.3097,40.6354,37.5449,-23.7855,5.4212,
-26.0712,6.7694,-56.6789,-22.1207,-28.151,71.9986,34.7148,-4.6397,36.9191,-10.6311,24.0973,21.1922,-36.4584,-9.0041,
-38.6069,20.4632,-39.1782,-6.6935,-12.362,81.7786,46.7319,-18.4613,48.8039,-24.0933,36.7515,5.8207,-20.1709,5.6361,
-22.1905,33.3354,-50.9275,-20.3919,2.4798,90.9719,58.028,-16.6054,43.1132,-36.7477,48.6464,19.5715,-4.8606,19.398,
-6.7591,17.2353,-61.9718,-33.2683,-11.769,99.6136,40.4463,-2.2582,26.4264,-20.4428,31.6276,32.4972,-18.669,4.1341,
-20.4536,30.3012,-44.1535,-17.1722,3.0371,107.7368,52.1196,7.0854,38.9408,-9.5471,38.3049,39.5831,-3.4489,17.986,
-5.1263,14.3831,-27.4043,-2.0419,16.9549,87.1726,34.8924,20.7602,22.5044,5.1258,21.9066,23.1081,10.8581,31.0069,
9.2812,-0.57986,-11.6601,12.1806,30.0376,67.8422,18.6988,33.6146,7.0541,18.9182,6.4922,7.6216,24.3066,25.3471,
-5.3756,13.5549,3.1396,25.5498,42.3353,49.6717,3.4769,17.4977,-7.4692,3.6831,0.6947,-6.9357,36.9482,37.9263,
9.0469,-1.3584,17.0512,38.1168,53.8952,32.5914,-10.8317,30.5479,-21.121,17.5621,-13.447,-20.6196,48.8313,49.7507,
22.6041,-15.3769,30.1281,21.7298,36.5615,44.7359,-24.2818,42.815,-33.9537,30.6084,-26.7402,-33.4824,55.0478,32.6657,
35.3478,-28.5543,42.4204,6.326,48.4678,27.9518,-36.9249,54.3461,-46.0165,42.8719,-39.2358,-45.5734,65.8449,44.8057,
47.327,-40.941,53.9752,20.0464,59.6597,12.1746,-48.8094,65.1853,-57.3555,54.3996,-50.9816,-56.939,75.9942,56.2174,
30.3874,-24.3845,64.8367,32.9436,70.1802,-2.6558,-59.9808,75.3742,-39.8142,65.2356,-62.0227,-67.6227,85.5346,66.9443,
42.6641,-37.0215,46.8465,16.867,51.8693,-0.077064,-70.482,56.7518,-51.5253,47.2215,-72.4014,-49.4653,66.3025,48.8277,
54.2043,-48.9002,58.1357,1.755,34.6572,14.0276,-80.3531,67.4467,-62.5338,58.4882,-82.1573,-37.1119,48.2244,31.798,
36.852,-60.0662,40.5476,-12.4503,18.4778,27.2859,-61.4319,49.2999,-44.6818,40.8789,-63.1278,-20.7852,31.2309,15.7901,
20.5409,-42.3622,24.0147,-6.4676,3.2691,39.7488,-43.646,32.2419,-27.9009,24.3262,-45.2402,-5.4381,15.257,0.74273,
5.2084,-25.7205,8.4738,8.0205,-11.0271,51.4638,-26.9272,16.2074,-12.1268,8.7666,-28.4258,8.9882,0.24163,-13.4018,
-9.2041,-10.0772,22.0654,11.8553,-24.4654,62.476,-11.2116,1.1349,2.7008,-5.8594,-12.6202,22.5489,-13.8729,-26.6977,
-12.7402,0.31266,6.6415,-2.956,-31.1127,44.6274,-24.6389,12.4601,-11.5613,-19.6078,-25.963,7.096,-1.586,-10.9959,
2.1242,-13.8061,-7.857,-16.8787,-43.3459,27.8498,-37.2605,25.8125,-24.9676,-4.3314,-38.5052,13.1711,-7.0156,3.7639,
10.9164,1.1223,-21.4856,-29.9659,-54.8452,40.2788,-20.9249,10.1637,-9.3695,-18.1715,-22.0949,26.4808,-20.6947,-10.5619,
-3.8386,15.1549,-34.2965,-14.068,-58.3442,51.9621,-5.5694,-4.5461,5.2926,-31.1812,-6.6692,38.992,-33.553,-24.0282,
4.5073,28.3456,-46.3387,-27.3239,-40.7435,34.7444,8.8647,-18.3733,-9.1249,-21.4844,1.0426,28.2491,-39.7092,-8.4865,
-4.972,12.5449,-57.6584,-39.7845,-43.6516,18.5597,22.4329,-30.966,5.5226,-23.8784,15.08,40.6542,-23.2267,-14.5945,
-18.7737,-2.3078,-68.2989,-51.4974,-27.2209,31.5461,35.1869,-29.108,19.2912,-31.6537,28.2752,52.3149,-7.7331,-10.0358,
-31.7473,11.9307,-50.1009,-34.3076,-11.4876,43.7533,47.1757,-41.4615,32.2337,-43.8545,40.6787,63.276,-21.3691,-23.5337,
-43.9425,25.3148,-32.9949,-18.1491,-15.6908,55.2281,58.4451,-53.0738,44.3997,-55.3232,52.338,55.8513,-34.187,-29.1989,
-27.2059,37.8959,-16.9152,-2.9602,-0.64935,66.0145,40.8384,-61.2818,55.8357,-66.1038,37.9151,61.7074,-18.0357,-13.3469,
-24.5356,49.7222,-1.8003,11.3175,13.4896,76.1536,24.2881,-43.5049,52.0258,-48.0376,26.892,43.9049,-2.8536,1.5539,
-37.1635,60.8389,-15.7923,-3.4616,26.7802,85.6844,36.9308,-35.6589,34.8042,-31.0553,39.3785,50.7671,11.4176,15.5606,
-48.4569,46.5376,-9.897,-17.3539,11.0734,66.4433,48.815,-47.6194,46.816,-43.292,51.1158,38.0532,-3.3674,0.52701,
-59.6494,57.8454,-23.4032,-30.4127,-3.691,67.5149,51.5211,-58.8622,58.107,-54.7945,62.1488,49.87,-17.2654,-13.6046,
-41.9705,40.2746,-36.099,-42.6879,-17.5695,77.564,34.3298,-41.2305,40.5206,-37.4068,44.3199,32.7778,-30.3295,-6.1718,
-25.3522,51.9582,-19.833,-26.0266,-2.4154,87.0102,46.37,-24.6566,49.5992,-21.0624,27.5607,18.3808,-14.4097,8.2985,
-37.9311,62.9407,-32.743,-38.565,8.9505,95.8896,57.6878,-37.2772,32.5232,-33.8987,40.007,10.3721,-27.6451,-6.2994,
-21.5552,45.0642,-44.8785,-50.3511,-5.6865,76.0362,40.1266,-20.9406,16.4718,-17.7648,23.5066,23.8498,-40.0864,-20.0215,
-16.8669,28.2604,-56.2858,-61.4301,-19.4453,57.374,23.619,-5.5842,1.3835,-2.5989,7.9962,36.5188,-46.1401,-13.9273,
-1.7548,12.4648,-67.0086,-71.8443,-32.3786,61.9289,8.1018,8.7335,-12.7995,11.6571,-6.5835,20.2277,-57.4717,-19.5372,
-15.7496,25.8169,-48.8881,-53.4336,-16.3359,72.3132,21.7157,-5.8905,2.0685,-3.1424,7.9115,7.2158,-39.9234,-4.265,
-28.9046,38.3679,-55.8499,-36.1276,-1.8879,53.8744,34.5128,-19.6371,16.0444,-17.0538,21.5368,5.4016,-47.6566,-18.1091,
-13.0703,50.1658,-38.3989,-19.8599,9.2745,36.5419,46.2536,-32.5589,29.1817,-26.3306,34.3446,19.1775,-30.6972,-2.9225,
-26.3861,33.0558,-50.1949,-32.7683,-5.382,20.2494,29.3784,-16.5054,13.3308,-10.6507,18.1839,32.1269,-37.4312,11.3528,
-10.7029,16.9725,-61.2832,-44.9022,-19.159,33.1344,13.5157,-1.415,-1.5691,4.0883,2.9929,16.0993,-49.2854,-3.4283,
4.0393,30.0541,-43.5062,-28.1081,-3.9095,45.2464,21.5686,5.4042,12.6251,8.7907,0.97221,1.0333,-32.2283,10.8774,
-10.3031,42.3509,-54.9959,-40.5216,-17.7749,56.6316,32.2441,-9.02,25.9676,-5.8367,15.0139,15.0713,-34.8977,-3.8753,
4.4151,25.7098,-65.7961,-52.1903,-30.8084,39.1337,16.2095,-22.5788,10.3095,-19.5865,15.6662,28.267,-18.7038,-17.7428,
-9.9498,10.0672,-47.7484,-63.1589,-43.0599,22.6857,1.1369,-7.1241,-4.409,-4.3113,0.62619,40.671,-19.2517,-30.7782,
4.7472,-4.6368,-58.9835,-73.4694,-54.5763,7.2245,-13.0313,7.4034,-18.2445,10.0474,-13.5114,24.1307,-32.1966,-43.0315,
18.5623,-18.4586,-41.3444,-83.1612,-64.591,20.8911,-26.3494,6.9596,-9.0904,9.4441,-25.0141,8.5829,-23.9907,-51.8425,
3.3486,-3.2511,-24.7638,-64.0715,-46.6155,33.7376,-10.6685,-7.558,5.555,-5.2226,-9.4132,22.1679,-8.4512,-34.6319,
15.7495,11.044,-9.178,-46.1272,-29.7186,17.6133,4.0716,-17.8652,19.3217,-12.9065,5.2516,34.9378,6.1558,-18.454,
0.70449,7.6197,5.4727,-29.2596,-13.8355,2.4565,-6.6441,-2.6933,32.2624,1.9679,19.0365,46.9416,19.8865,-3.2468,
9.2377,-6.9374,-8.9556,-41.604,-21.2371,0.1239,-20.3454,6.3875,16.2267,11.6886,3.7943,58.2251,4.5933,5.2904,
-0.52417,7.5788,5.6817,-25.0078,-5.8628,14.2165,-5.0247,-8.0958,29.3531,-3.1127,17.6666,40.6316,10.1855,4.052,
-14.5927,21.2241,2.0015,-9.4073,-19.6111,27.4635,9.3768,-21.71,41.6919,-17.0259,30.7066,24.0937,-4.5256,-10.2911,
-9.7453,34.0506,15.9814,5.2571,-4.3344,11.7157,22.9142,-34.5074,37.1158,-30.1044,27.7102,36.7481,9.8459,4.4264,
4.1903,37.4147,29.1225,1.6087,10.0257,-3.0873,7.4393,-18.337,20.7888,-14.1981,11.9476,20.4432,23.3552,18.2608,
18.0389,21.0698,13.2752,-12.5878,-4.6759,11.198,-7.107,-3.1367,5.4415,0.75378,-2.8693,5.1166,7.8539,3.0651,
15.7472,5.7057,-1.6213,-25.9326,-18.4953,24.6261,6.6698,-17.0485,19.215,-13.3914,11.4029,18.9096,-6.7174,-11.2188,
0.70236,19.4633,-15.6241,-10.2766,-31.4856,37.2485,20.3696,-30.1256,15.588,-26.688,24.8187,3.675,-20.4143,-24.6456,
14.7602,4.1955,-0.58661,-8.4511,-15.4965,20.9136,5.0475,-14.2181,0.55273,-10.9867,9.2296,-10.6455,-5.0895,-9.0669,
27.9746,-10.1562,-14.6514,-22.044,-9.0421,5.5588,-9.3554,0.73499,-13.5804,3.7725,-5.4242,-24.1068,9.3159,-22.6229,
12.1961,-23.6468,-27.8723,-34.8214,-22.5996,-8.8747,-22.8941,6.0431,-20.9357,0.61268,9.0013,-8.5603,-0.9109,-22.0691,
-2.6356,-8.128,-40.3,-18.6321,-25.0985,-22.4423,-7.4204,-8.4194,-16.917,-13.5241,1.8433,6.0533,-11.9058,-21.6659,
-16.5775,6.4597,-23.782,-3.4142,-9.4926,-6.9957,7.1248,-22.0143,-1.802,-26.8126,15.8327,-8.4099,2.9086,-6.266,
-1.4829,-8.0279,-8.2551,-17.3093,3.6792,-20.676,-7.4027,-6.5934,-15.7939,-11.1039,0.78278,-22.0053,16.834,-0.65385,
10.8646,6.5537,6.3402,-2.1707,17.5584,-5.3354,-16.7982,1.4562,-0.74626,3.6619,-13.3642,-6.585,29.924,13.4854,
-3.8873,20.2605,-8.1402,12.0595,30.6049,-11.4608,-1.6903,-12.7312,-0.52962,-10.6578,1.5377,6.4123,42.2286,26.7763,
0.77767,29.9221,6.4482,-1.3828,18.5231,-24.8732,12.5111,-26.0673,6.8678,-1.9036,-9.1434,6.028,25.5948,39.2697,
-13.369,22.6022,20.1613,8.8287,20.1746,-37.4808,-2.3396,-38.6033,20.5557,-15.8894,3.3753,19.7663,9.9592,22.8135,
1.5331,7.1461,33.0517,1.3932,33.0641,-49.3319,-16.2992,-22.1871,5.2224,-0.83601,-10.9273,4.4803,23.4616,35.5447,
15.5412,-7.3827,45.1686,15.4096,45.1803,-60.472,-29.4213,-6.7558,-9.191,13.3142,-24.3716,-9.8885,36.1539,47.512,
0.50869,7.1603,28.3584,0.38502,56.1645,-42.7437,-13.556,-20.4505,-18.9395,-1.5847,-8.8093,-14.9916,27.3065,30.5613,
13.8295,-7.3693,12.5569,-13.7381,38.6947,-54.2791,1.3574,-23.2493,-3.7031,-9.316,5.8192,0.0079128,11.5681,14.6276,
-1.1003,-21.0272,-2.2965,-27.0138,22.273,-65.1223,15.3759,-7.7544,10.6191,5.343,19.5701,14.1074,-3.226,-0.35005,
13.0657,-33.8655,-16.2587,-39.493,6.8366,-75.315,0.35337,6.8109,-4.1181,19.1224,4.2959,-0.83901,-17.1324,-14.429,
26.3818,-17.7336,-1.1832,-23.0234,20.5264,-56.6961,14.4322,9.0482,10.229,9.5719,13.2457,-14.8887,-2.0045,0.5367,
10.6989,-2.5696,12.9878,-7.542,33.3948,-39.1943,27.6662,-5.5947,23.7153,-5.1024,26.551,-28.0953,12.2158,-13.5955,
-4.043,10.5922,26.3086,7.0105,44.5697,-50.9427,40.1063,-19.359,36.3923,-18.8962,39.0579,-12.3096,25.5829,1.3202,
-17.9005,-4.1433,10.63,20.6899,27.7955,-61.9861,23.5999,-4.0975,20.1088,-3.6625,22.6144,2.529,28.1912,15.341,
-2.7264,-17.9947,13.8474,5.3485,12.0278,-44.1669,8.0839,10.2484,4.8023,10.6573,7.1576,-11.7228,40.5997,12.002,
11.5372,-31.0151,27.1165,19.1276,25.4061,-27.4169,21.6989,11.0138,18.6141,20.6062,20.8281,-25.1194,52.2637,13.1228,
-3.2551,-15.0542,11.3895,3.8799,23.2496,-39.8719,29.6599,-3.747,31.5973,5.2699,33.6784,-9.5123,35.0279,-1.7646,
11.0402,-28.2509,-3.3938,-10.4529,7.7547,-51.5796,13.7803,2.2912,15.6015,14.4501,17.5577,5.1585,18.8262,-15.7587,
-3.7222,-40.6559,-17.2902,-23.9257,-6.8106,-34.3848,27.0534,6.7582,28.7654,13.5831,30.6043,18.949,3.5967,-28.9132,
10.6011,-52.3165,-30.3528,-36.5901,-20.502,-18.2217,11.3302,20.4527,12.9394,26.8681,32.7952,13.0919,-10.7191,-41.2784,
24.0651,-50.9578,-24.4434,-35.8309,-28.9951,-31.2284,-3.4496,16.6345,-1.9369,39.356,16.7275,-1.7936,0.62894,-52.9017,
8.5212,-33.8004,-16.071,-19.581,-15.7455,-41.2623,-6.3488,1.5364,12.2793,22.8947,1.6238,12.414,1.9725,-35.6276,
-6.0901,-17.6723,-1.0068,-4.3062,-26.3106,-49.3758,-7.3491,-12.6558,25.6425,7.421,-1.5803,25.7692,-12.2459,-24.5087,
-16.0251,-2.512,13.1536,10.0522,-10.632,-32.3133,-21.0082,-1.1911,10.004,-5.4546,-15.5854,10.123,2.5889,-8.9382,
-0.96362,-16.4613,-1.7356,-4.6509,-4.2972,-28.3606,-33.8477,12.9804,-4.6963,8.9727,-28.7503,-4.5843,14.4036,-18.3586,
13.1942,-29.5736,-15.7315,-18.4719,-18.1394,-12.559,-27.5566,-1.8984,9.6855,0.77982,-12.9253,9.7907,-0.56061,-24.1629,
-1.6975,-13.6992,-0.68757,-3.2636,-31.151,-21.7622,-11.8032,-15.8845,23.2044,-13.367,1.9502,-3.6882,-14.627,-30.0792,
12.5044,1.2228,13.4537,11.0323,-15.182,-34.5564,3.005,-22.4694,11.4501,-3.5292,-12.2668,-17.5669,0.35065,-14.1744,
5.1921,15.2494,26.7465,24.4703,-0.17103,-18.383,-11.2753,-7.0212,-3.3369,10.7825,-25.6308,-4.7143,14.4296,0.77606,
-9.2195,0.23444,11.0417,8.9021,-14.2608,-3.1801,-24.6988,-3.6656,-17.2367,16.7525,-38.1929,9.6686,-0.53617,-13.3705,
5.4337,-13.8796,-3.7208,-5.732,-27.5051,-4.1986,-35.1865,-17.5456,-2.1025,1.6474,-21.8014,23.1885,-14.604,-26.6683,
-8.9923,1.0532,10.6024,8.7119,-11.7548,-18.0467,-18.9753,-30.5929,12.1236,-12.5515,-6.3933,7.6972,0.37224,-10.9682,
5.6472,-10.0038,24.0663,22.2892,3.0505,-31.0639,-28.2537,-14.6573,-2.7038,2.3016,-20.1097,-6.8647,14.4499,3.7899,
19.4084,-23.5036,29.583,6.8518,16.9674,-33.2269,-40.6585,0.3221,-16.6416,16.2635,-33.0031,-20.5528,27.6829,17.6625,
4.1439,-22.7255,13.708,-7.6593,1.8494,-17.1332,-36.0891,-13.7972,-3.556,1.1877,-16.9229,-5.2196,36.3224,22.1822,
-10.2047,-7.262,-1.2145,6.9003,-12.3616,-2.0052,-19.8237,-27.0694,10.7573,-12.9835,-1.8075,9.1936,20.043,6.7513,
-23.6925,7.2737,12.9584,20.5863,2.4801,-15.9849,-4.5343,-33.6149,24.2119,-17.6117,12.4009,22.7419,32.9404,19.9864,
-8.1709,-3.4078,26.2809,33.4511,16.4313,-29.1258,-18.3623,-17.498,8.6592,-2.455,-2.4431,7.2774,45.064,32.8872,
5.9586,10.8967,38.804,45.544,29.5454,-13.2783,-3.1605,-2.3481,22.2396,11.7923,11.8034,-7.2592,56.4602,45.014,
-8.4989,24.3429,22.3758,56.9114,31.3383,-26.5816,11.1291,-16.3072,35.0053,-3.0152,25.1952,7.2763,38.9726,32.0676,
1.0476,25.9885,35.1333,67.5967,43.558,-39.0867,24.5614,-29.4288,20.5299,-15.0937,9.5835,20.9398,33.123,16.0435,
-13.1152,10.3292,18.9253,49.4409,26.8446,-22.6415,8.9877,-16.1537,5.1981,-2.6782,-5.0915,33.7834,17.0357,0.98092,
1.7717,-4.3905,3.6897,32.3744,11.1339,-35.383,-5.6516,-1.0845,-9.2138,11.5825,-18.886,17.6564,1.9135,9.3254,
15.7654,-18.2271,17.5684,32.844,24.5658,-47.36,-19.4125,13.0806,-22.7609,24.9875,-31.8528,2.497,15.8987,22.8659,
0.71947,-3.0335,2.4143,44.9733,37.1919,-38.8773,-4.1477,-1.8042,-7.2953,9.3883,-15.8417,-11.7528,29.0448,7.3946,
-13.4237,0.027133,-11.8306,28.1749,20.8604,-22.4447,10.2011,-15.796,-6.741,-5.275,-0.79117,3.0523,13.2021,-7.1491,
-24.7602,-14.0745,-25.2208,12.3845,5.5088,-6.998,-4.5109,-0.74821,-20.4366,9.1415,10.5942,16.9692,-1.69,5.9986,
-9.1746,-27.33,-37.8075,-2.4586,-8.9218,-20.6781,-18.3403,13.3967,-33.3104,22.693,-4.1414,1.851,-15.6886,-8.4613,
5.4759,-11.5902,-21.4391,11.7889,5.7135,-33.5374,-3.1399,7.8715,-17.2117,12.9278,10.2071,-12.36,-0.64731,3.8437,
-8.9527,3.2052,-6.0527,25.1816,19.4707,-43.0346,11.1485,-6.7008,-2.079,-1.9478,23.6947,-25.7184,13.4915,17.7131,
-22.5155,17.1129,8.4104,37.7707,32.4025,-26.3525,24.5796,-20.3988,12.1457,-15.931,8.173,-10.0753,26.782,30.7503,
-22.5458,1.9861,-6.1942,21.4044,16.3583,-10.6713,9.0048,-5.0749,-2.683,-0.87512,-6.4174,4.6292,11.0751,21.8838,
-7.0931,-12.2331,-19.9225,6.0202,1.2768,4.0689,-5.6355,9.3296,-16.6221,13.2774,-20.1324,-9.7485,-3.6894,6.4708,
7.4325,-25.5991,-4.6272,-8.441,-12.8998,-10.2752,8.8027,22.8699,-14.8758,26.5807,-4.8244,-23.2636,-3.8115,-8.0174,
-7.1135,-9.9631,9.7504,6.1654,1.9742,-23.7587,22.3745,7.3977,0.11671,10.8859,9.565,-7.7678,10.5172,6.5636,
7.4134,4.7347,23.2654,19.8955,15.9558,-36.4332,6.932,12.9391,10.4095,10.693,-5.1089,-21.4017,23.9861,20.2698,
11.9163,-9.6494,7.7695,4.6018,2.5681,-20.1472,13.4768,26.2627,23.8849,11.4327,9.2977,-6.0176,8.447,4.9536,
24.0915,-23.1705,-6.7967,-9.7743,-11.686,-4.8383,-1.4318,30.3834,8.3518,24.8467,-5.3602,8.4434,-6.1599,-9.4436,
36.746,-21.203,-6.7326,-22.8825,-25.0849,-18.648,-15.4459,38.2287,-6.2493,37.4559,-19.1386,-6.1632,-19.8903,-22.977,
20.4413,-5.8308,7.7713,-7.4096,-9.4798,-31.6292,-0.41914,21.8349,8.2257,21.1086,-3.8903,8.3066,-4.5969,-10.6046,
5.1148,8.619,21.4051,7.135,5.189,-40.7805,13.706,6.4249,21.8321,5.742,10.4432,21.9082,9.779,4.1317,
-9.2921,22.2019,34.2208,20.8069,18.9777,-52.4337,26.9837,-5.8137,34.6222,-5.6516,23.9166,6.4937,23.2922,17.9838,
5.3654,34.9698,18.0675,5.4585,6.9622,-63.3877,11.2646,8.6351,18.4449,8.7875,8.3816,-7.9959,7.7947,20.4712,
16.8421,18.7716,2.8835,-8.969,-7.5555,-45.4844,-3.5112,-5.983,3.2382,-4.4589,-6.2213,-3.3733,-6.773,5.143,
1.7316,31.7453,16.8105,5.6691,-18.3236,-41.0857,10.7994,-19.724,17.1439,-18.2914,8.252,10.9291,-20.4666,-9.2656,
15.7277,30.9879,29.9018,19.429,-3.1242,-52.7206,-3.9485,-4.4406,2.0152,-3.0939,-6.3432,-3.8266,-5.1386,5.3903,
0.97246,15.0286,42.2077,32.3632,11.1633,-35.4573,-17.8116,9.9258,-12.2057,10.9033,-20.0626,-17.697,9.2697,-3.8523,
-13.1859,7.0501,25.5753,16.3215,24.5935,-19.2299,-7.8786,3.5169,-25.5733,5.1853,-4.7588,-16.8071,13.9494,-2.2403,
1.7053,-7.4729,9.9407,1.2422,9.0179,-32.1761,-21.5059,16.6572,-9.9389,18.9742,3.1812,-16.2589,-0.98752,-16.2059,
-12.4971,7.0755,23.4443,15.2676,9.2812,-44.3455,-6.1156,1.5578,4.7574,3.7357,17.0903,-1.1834,13.1717,-1.1336,
2.3528,-7.4491,36.1376,25.9161,22.8244,-55.7848,-19.8486,15.5643,-9.628,17.6116,1.9649,-15.2124,26.4814,13.0345,
16.3116,-21.1021,48.0694,10.2611,35.5549,-38.3377,-32.7577,28.7304,-23.1504,30.6549,-12.253,-28.3996,38.9925,26.3524,
1.2329,-33.936,31.0852,-4.4546,19.3216,-21.9374,-37.5815,12.9066,-7.6613,14.7156,-3.4022,-12.5957,34.2342,32.4811,
-4.8259,-17.7998,18.3982,9.9127,4.0623,-6.5212,-21.2266,-1.9678,6.8983,-0.26735,10.9019,2.2601,18.0802,16.4322,
-18.6363,-2.6318,31.3943,23.4179,17.9186,-20.2299,-5.853,-13.0711,20.5844,-4.8553,24.3478,-6.9112,31.0954,29.5463,
-3.4182,-16.5739,43.6107,36.1129,30.9435,-33.1161,-19.6018,1.8132,5.2494,9.536,8.7869,-20.5966,43.3296,41.8735,
10.8869,-29.6795,55.094,48.0461,43.1869,-45.2292,-32.5257,15.8044,2.1724,23.0638,-5.8403,-33.4608,54.8299,53.4611,
-3.8663,-13.7987,65.8884,59.2633,54.6956,-56.6154,-16.4742,18.4226,16.142,29.8501,8.6101,-45.5531,65.6401,64.3534,
10.4657,-27.0708,76.0351,41.6075,65.5139,-67.3185,-29.5857,31.4172,1.0735,42.1591,-6.0065,-56.9199,75.8017,46.3922,
-4.2622,-39.5465,57.373,25.0111,47.4831,-49.1794,-41.9106,43.6322,-13.0909,53.7295,-19.7461,-39.4047,57.1536,29.5087,
10.0935,-51.2738,68.0306,9.4104,58.7341,-60.3286,-53.496,55.1143,-26.4055,64.6058,-32.6613,-51.1405,67.8244,41.8382,
23.5879,-62.2973,78.0488,15.7514,69.31,-70.8089,-64.3862,65.9074,-38.9211,74.8294,-44.8016,-62.172,77.8549,53.4279,
8.0726,-44.4595,87.4658,28.9063,79.2514,-80.6604,-74.623,47.853,-50.6859,56.2397,-56.2135,-72.5417,87.2836,64.3222,
21.6882,-55.8919,96.3179,41.2719,88.5964,-73.1689,-84.2456,59.0818,-61.7447,66.9653,-66.9407,-82.2892,96.1466,74.5629,
34.487,-66.6384,76.4388,24.6956,69.1806,-54.6788,-65.0909,69.6369,-43.94,77.0474,-48.8243,-63.2519,84.6748,55.9891,
46.5177,-76.7401,85.9525,9.1139,74.0589,-65.498,-75.2855,79.5587,-55.4036,86.5245,-59.9948,-73.5567,93.6944,66.7297,
57.8267,-86.2357,94.8953,22.667,55.5154,-75.6682,-84.8683,88.8852,-66.1794,95.433,-70.4951,-83.2433,73.9727,48.626,
40.2571,-66.9616,103.3016,35.407,66.2845,-85.2281,-65.6762,69.452,-48.1086,75.6071,-80.3654,-92.3487,55.4343,36.2673,
51.9416,-61.5563,111.2035,47.3826,72.896,-94.2144,-52.9267,79.3849,-59.3221,85.1706,-85.4939,-100.9078,66.2083,48.1913,
62.9251,-71.9629,117.4705,58.6396,73.587,-74.4615,-63.8511,88.7218,-69.8628,94.1604,-94.4643,-80.7533,76.3358,59.3998,
73.2496,-81.7452,124.5223,54.8882,83.2718,-84.0938,-74.12,97.4985,-79.771,102.6108,-102.8964,-61.8081,85.8556,69.9358,
82.9547,-90.9404,131.1509,65.6949,64.1754,-93.1482,-83.7728,94.116,-85.1066,98.0009,-110.8226,-72.1997,67.2362,51.6397,
63.8774,-71.384,109.1819,75.8532,46.2249,-101.6593,-64.6465,74.369,-68.9511,78.0209,-90.0733,-81.9677,49.102,34.4413,
74.1447,-81.201,116.731,79.9321,53.8677,-109.6598,-64.3344,84.0069,-78.914,87.4396,-98.7689,-91.1496,60.2559,46.4748,
83.7961,-76.845,107.3084,88.948,59.8435,-88.9802,-74.5743,93.0664,-60.0792,96.2933,-106.9427,-71.5806,70.7406,57.7863,
92.8683,-58.1343,86.7699,85.9131,70.3529,-69.5414,-71.1923,101.5825,-42.3744,104.6157,-88.3228,-53.1858,80.5961,68.4191,
101.3962,-68.7462,95.6637,66.6584,52.0317,-79.4689,-81.0207,109.5875,-49.7884,112.4387,-97.1234,-64.0947,89.8604,78.414,
81.2124,-78.7214,77.0334,48.5589,34.8098,-88.8007,-62.0595,88.9123,-32.99,91.5924,-77.196,-74.349,70.3687,59.6091,
90.4397,-59.8981,78.3963,59.7453,18.6212,-97.5727,-59.2569,83.0001,-45.1106,83.6783,-86.6643,-83.988,52.0466,46.5913,
99.1133,-42.2043,74.1528,70.2606,3.4039,-77.6183,-69.8015,79.4013,-56.5039,70.8308,-95.5644,-64.8488,34.8238,29.6958,
107.2665,-25.572,55.6036,76.6338,17.2997,-58.8612,-71.3094,88.7372,-67.2137,80.681,-75.7305,-46.8578,46.8344,42.0141,
92.4757,-9.9377,38.1674,57.9358,2.1617,-41.2296,-52.9308,70.6947,-49.0809,64.9629,-57.0867,-58.1464,29.9243,25.3932,
72.8272,4.7586,21.7773,40.3596,-12.068,-52.8558,-35.655,52.353,-32.036,46.9651,-39.5615,-68.7576,14.0289,17.2529,
82.5576,-9.6269,34.5707,23.838,-18.4765,-63.7844,-47.6157,63.3118,-44.2139,58.2472,-51.2878,-78.7321,27.2871,2.1177,
63.5041,-23.1493,46.5964,36.5078,-3.2679,-74.0574,-58.8587,45.4131,-55.661,40.6524,-62.3105,-88.1082,33.937,-12.1094,
45.5939,-7.6604,29.7007,48.4173,11.0282,-55.5139,-41.2272,28.5883,-66.4214,32.0561,-72.6719,-96.9217,46.0007,2.7172,
56.9582,-21.3007,42.0186,37.5136,24.4665,-38.0831,-24.6536,40.973,-48.3361,44.2327,-62.6705,-77.0064,57.3407,16.6542,
67.6407,-34.1227,25.3975,21.1628,8.8985,-21.6981,-9.0744,52.6146,-31.3359,55.6788,-44.8103,-58.286,53.3232,1.5549,
77.6823,-42.9526,37.9737,33.993,22.4646,-34.4962,-22.6299,63.5578,-43.5558,66.438,-56.2217,-68.8889,64.2238,15.5616,
87.1214,-54.4754,49.7952,46.0535,9.202,-46.5265,-35.3721,68.203,-55.0424,60.2051,-66.9484,-78.8555,46.2704,5.4203,
67.7941,-37.1069,32.7075,29.1902,22.7499,-36.9391,-19.1498,69.6351,-37.6399,48.3064,-48.8315,-60.0242,57.5942,19.1951,
49.6264,-20.7805,16.6451,41.5388,7.2849,-20.6227,-3.9008,51.357,-21.2815,31.308,-31.8016,-42.3227,40.0385,3.9434,
32.5488,-5.4336,23.1296,53.1465,-7.2522,-33.4854,-17.7667,34.1756,-34.1046,15.3295,-43.9935,-53.8834,23.5362,-10.3932,
16.4959,-19.2076,35.8418,64.0577,-20.9171,-45.5762,-30.8007,18.0251,-46.1583,0.30976,-55.4539,-64.7504,8.024,-0.27361,
1.4062,-3.9552,19.5913,49.681,-14.9415,-56.9417,-14.8527,2.8436,-29.2888,-13.8088,-38.0266,-46.7654,-6.5574,-14.3572,
