"AF3","AF4","F3","F4","F7","F8","FC5","FC6","O1","O2","P7","P8","T7","T8",
346.6739,-54.8357,54.8357,-223.0607,209.1193,-223.9899,-293.6967,325.2972,-308.5673,331.8033,-182.1661,-263.0258,283.4729,253.7316,
311.7735,-59.4457,59.4457,-195.5771,182.4721,-224.6505,-261.9749,291.6794,-275.9533,297.7951,-157.1361,-261.3442,252.3645,224.4077,
278.9671,-41.7789,41.7789,-169.7425,157.4238,-225.2715,-232.1564,260.0786,-245.2961,265.8274,-133.6079,-259.7636,223.1226,196.8433,
248.1291,-30.1366,30.1366,-166.846,133.8784,-197.6552,-204.127,230.3739,-216.4783,235.7778,-111.4915,-230.0778,195.6353,170.9327,
219.1413,-33.9049,33.9049,-142.7352,139.9457,-171.6959,-177.7794,202.4514,-189.3896,207.701,-118.902,-202.1731,194.1323,174.7767,
220.0928,-27.6883,27.6883,-120.0711,145.6489,-147.2941,-156.5946,204.4044,-163.9262,209.3389,-125.8679,-175.9427,196.5843,178.3901,
192.7873,-35.3214,35.3214,-118.2961,122.81,-152.5565,-133.0989,178.0401,-139.9906,182.6786,-104.2158,-179.4861,170.6893,153.5867,
167.12,-19.1021,19.1021,-97.0983,101.3414,-157.5031,-111.013,153.2577,-117.4912,157.6179,-83.8628,-182.817,146.3479,130.2715,
142.9928,-22.7616,22.7616,-77.1724,81.1609,-160.9064,-118.4522,129.9622,-101.329,134.0608,-64.7311,-157.748,123.467,108.3552,
120.3133,-35.4959,35.4959,-86.6421,90.3913,-137.152,-125.445,108.0645,-109.3493,111.9172,-74.9472,-134.1831,105.688,115.9539,
127.1945,-19.7308,19.7308,-95.5436,99.0678,-114.8229,-106.3003,115.6806,-116.8883,119.3021,-83.4739,-112.0321,113.4467,123.0967,
105.4628,-12.5058,12.5058,-93.5284,79.0237,-122.0335,-85.8223,94.6398,-95.775,98.044,-64.3655,-119.4102,92.5399,101.6109,
85.035,2.3445,-2.3445,-73.8167,60.1823,-128.8115,-66.573,74.8614,-75.9285,78.0614,-46.4036,-99.8574,72.8875,81.4142,
65.8329,-11.8962,11.8962,-83.4877,42.4714,-135.1828,-76.6786,56.2697,-85.4728,59.2777,-57.7194,-107.9659,54.4143,62.4294,
47.783,-25.2824,25.2824,-92.5784,54.0231,-112.9718,-86.1779,41.775,-94.4444,50.9378,-68.3562,-105.0464,65.2494,72.7836,
59.016,-9.6655,9.6655,-101.1237,64.8817,-92.0935,-66.9072,53.3685,-102.8778,61.9815,-50.1548,-84.6436,75.4344,82.5166,
52.721,-8.6209,8.6209,-80.9563,48.918,-100.6679,-48.7928,40.7132,-82.6051,51.598,-33.0455,-93.665,56.8084,63.4656,
35.4577,5.9963,-5.9963,-61.9989,31.8829,-108.7278,-31.7652,24.1704,-63.5488,34.4021,-16.9628,-102.1451,39.2999,45.5577,
19.2302,-8.4635,8.4635,-63.3913,29.1988,-116.3042,-43.9593,8.6202,-73.8359,18.238,-30.045,-110.1164,22.8419,28.7242,
3.9764,-13.9967,13.9967,-73.6878,41.5469,-95.2259,-55.4217,2.3786,-55.3057,19.7847,-14.1423,-104.5865,35.5714,41.1007,
17.8378,0.94308,-0.94308,-55.1666,53.1541,-75.4124,-37.9964,16.3359,-37.8874,32.6976,0.80621,-84.2113,47.5371,52.7347,
30.8676,-0.66653,0.66653,-37.7566,43.1418,-84.9876,-21.6166,29.4557,-21.5141,37.5477,14.8578,-65.0586,30.5849,35.4706,
14.9155,-14.7265,14.7265,-21.3912,26.4533,-93.9884,-6.2196,13.5884,-34.3233,21.1948,10.8497,-75.2551,14.6498,19.2424,
28.1206,-27.9429,27.9429,-34.2077,38.9661,-102.4491,-19.9465,26.8731,-46.3639,34.0231,-3.9013,-84.8398,27.8708,32.1878,
12.3334,-12.1664,12.1664,-24.4137,22.5281,-106.9792,-32.8497,11.1607,-57.6821,17.8817,-17.7672,-93.8494,12.0985,16.1566,
-2.5067,2.6636,-2.6636,-8.8489,12.9703,-86.4604,-41.4196,-3.6089,-40.1211,2.7088,-2.6012,-94.1005,-2.7274,11.0273,
11.7437,-2.1431,2.1431,-22.4179,16.8391,-67.1728,-24.8344,10.7076,-23.6139,16.6463,8.4016,-74.3545,-1.464,24.4657,
-1.6555,-16.1145,16.1145,-35.1728,27.9112,-49.0424,-27.221,24.1651,-32.8854,29.7475,18.1211,-55.7932,12.7238,37.0978,
12.5438,-29.2476,29.2476,-41.733,40.3365,-60.1999,-39.6878,36.8152,-45.0123,42.0627,2.9338,-60.1987,26.0604,48.9719,
-2.3088,-19.2753,19.2753,-25.129,52.0163,-70.6879,-51.4065,20.5063,-56.4115,25.4389,-11.3422,-70.6868,10.3968,31.9336,
-16.2703,-4.0187,4.0187,-9.5213,62.9953,-80.5466,-34.2221,5.1759,-38.9269,9.8126,3.4383,-80.2285,-4.327,15.9176,
-1.1941,-9.9777,9.9777,-23.05,73.3156,-61.6138,-18.0688,-9.2346,-22.4912,1.0174,17.332,-61.3148,4.2971,23.1687,
12.9776,-23.479,-2.7033,-35.767,83.0167,-43.817,-31.0847,5.4195,-14.6356,15.0564,2.1921,-43.5359,18.1393,35.8786,
26.2989,-15.8704,11.5589,-47.721,92.1357,-27.088,-43.3196,19.1943,-27.8575,28.253,-12.0394,-26.8237,31.1509,47.8258,
10.621,-22.8183,24.648,-30.7577,72.5075,-39.5627,-26.6204,3.9426,-29.7454,12.4578,-25.4171,-39.3143,15.1819,30.8563,
-4.1163,-7.3492,9.0691,-14.8123,54.0571,-51.2889,-10.9232,-10.3939,-13.8606,-2.3896,-9.7921,-51.0554,0.17096,14.9049,
-14.5577,-1.0255,2.6422,-28.0235,47.8555,-34.1116,-7.9444,-23.8703,-12.7228,-16.3463,-0.05741,-33.8921,-13.9393,3.3225,
0.41577,-7.9345,9.4542,-15.1892,59.0842,-17.9649,-21.5677,-8.3381,2.1406,-1.2655,-14.154,-17.7586,0.99706,17.2231,
14.4908,-14.894,16.3225,-19.8541,69.6391,-2.787,-34.3736,6.2622,-12.0878,12.9104,-27.4047,-2.5931,15.0372,30.2897,
18.8801,-22.8297,24.1724,-21.9161,51.3608,-16.7198,-18.2112,14.0926,-22.5158,24.5249,-11.6604,-16.5375,28.235,14.3723,
3.6473,-7.3599,8.6221,-6.5011,34.1792,-29.8166,-3.0185,-0.85292,-7.0648,8.9534,3.1392,-29.6452,12.4409,-0.59,
-10.6716,-8.0065,9.193,7.9889,18.0284,-20.9094,-16.9374,-14.9017,7.1415,-5.6838,-2.6259,-13.7665,-2.4056,7.8106,
4.0687,-21.6261,22.7414,-6.5904,31.0467,-5.5549,-30.0212,0.092361,-7.387,8.7572,-16.5683,1.1595,11.8388,21.4419,
17.9246,-6.2285,7.2769,-20.295,43.2839,8.8784,-19.5374,14.1868,-21.0438,22.3318,-29.6742,15.1899,25.2285,34.2554,
30.9491,8.2452,-7.2597,-25.5834,26.5869,-5.7543,-4.2652,27.4356,-5.6811,35.0919,-13.7938,0.1785,37.8147,33.7409,
14.9922,21.8505,5.417,-9.9484,10.8917,-19.509,10.0908,11.6895,8.7597,18.8864,1.1339,14.2678,21.4459,17.6165,
-0.0073547,25.7984,19.192,4.7485,-3.8618,-32.4385,-4.6147,-3.1119,-5.8659,3.6532,-13.0342,26.0948,6.0591,2.4595,
-14.1069,10.1504,3.9405,-9.6364,-17.7301,-16.3922,-18.4378,-17.0252,-19.6139,-10.666,-26.3521,10.4292,-8.4044,-11.7881,
0.8395,23.6414,-10.3959,-23.1582,-2.5663,-1.3086,-3.2315,-1.9037,-32.5371,4.074,-10.671,-4.2966,6.1998,3.0192,
14.8891,8.1229,-11.9368,-8.2921,-12.7831,-15.3301,11.0624,12.3106,-16.4848,17.9295,4.0693,7.8966,19.9278,-5.6737,
-0.10422,21.7356,-19.1212,6.3054,-26.1162,-28.5103,24.4986,-2.5281,-1.3958,2.7537,17.9251,-6.6772,4.6322,-19.4333,
-14.198,6.3314,-3.8739,-8.1729,-38.6492,-40.8997,8.9287,-16.4764,-15.412,-11.5115,2.7496,-20.3766,-4.1693,-29.2619,
-20.4632,0.53384,-5.6586,-21.7825,-22.2302,-24.3457,-5.707,-6.8051,-28.5873,-22.5856,6.3025,-33.254,10.1809,-13.4062,
-5.1354,14.6018,-19.4191,-6.3756,-6.7964,-8.785,-4.5942,7.7032,-12.772,-7.1305,20.0244,-17.1588,23.67,1.4982,
9.2727,1.4845,-6.0128,8.107,-5.924,-14.7638,0.32852,19.1642,2.0943,7.3974,4.7229,-24.6412,12.1737,-4.9502,
-5.3836,-12.7045,8.448,-3.2264,-19.6686,-27.9779,14.4088,3.9143,-12.1314,-7.1465,5.3687,-37.2627,-2.6567,-18.7531,
9.0394,-26.0423,22.0411,-17.1328,-4.3885,-40.3993,-0.55572,17.7795,-25.5035,7.3823,-9.0534,-49.127,11.6027,-3.528,
-5.603,-10.3797,6.6186,-3.8637,-14.3485,-38.5874,-14.6224,2.6127,-38.0733,-7.1606,-22.6102,-58.8736,-3.1934,-17.4163,
-19.3668,4.3431,-7.8785,10.4681,-24.1764,-50.3721,-16.8391,-11.644,-21.6889,-20.831,-7.1536,-69.4412,-17.1018,-17.6065,
-4.1048,3.1531,-6.4764,-4.2599,-12.0372,-33.2498,-1.7287,-5.0511,-6.2876,-5.4811,7.3756,-51.1747,-1.9757,-2.4501,
7.135,-11.1361,6.9242,-18.1043,-2.0211,-17.1548,-9.6839,9.3519,-20.0103,8.9477,3.2154,-34.0042,12.2428,11.7969,
20.8069,-20.0684,17.1971,-14.5357,12.2002,-2.0255,-23.2029,22.8908,-32.9097,22.5109,-11.0775,-17.864,25.6082,25.1891,
5.4585,-7.2462,4.5473,0.43648,-2.6318,-16.004,-35.9107,7.4174,-45.0351,7.0602,-24.5128,-30.8921,9.9717,9.5777,
-8.969,7.2885,-9.8255,14.5103,-16.5739,-29.1438,-19.6561,-7.1277,-28.233,-7.4634,-8.9421,-43.1386,-4.7266,-5.0969,
5.6691,3.4394,-5.8241,-0.46032,-1.4795,-13.2951,-4.3767,-1.5886,-12.439,-2.9921,5.6944,-26.4503,4.5449,9.3089,
19.429,-6.0611,-8.2632,-14.5327,12.7093,1.6026,-18.2141,12.6068,2.4073,11.2874,10.4644,-10.7633,18.3722,22.8503,
32.3633,-14.5268,6.3326,-27.7607,26.0467,15.6064,-31.2213,25.9503,-11.8371,24.7102,-4.2634,3.9825,31.3699,35.5793,
16.3215,-24.8082,20.0527,-11.9951,10.3839,0.57004,-15.248,10.2933,-1.3564,9.1276,-18.1076,-10.3564,15.3877,19.3446,
1.2422,-9.2197,4.7495,2.8246,6.8141,-13.5642,-0.23311,-4.4243,12.825,-5.5201,-2.9212,-23.835,0.36444,4.0839,
-12.9324,5.4335,-8.2412,-11.4449,-7.6948,1.3497,2.5696,-18.2588,-2.0445,-19.2889,-2.1223,-8.3049,-13.7574,-10.2611,
1.9436,-1.716,1.5474,0.85961,6.8669,15.3687,-11.6846,-3.0633,12.1782,-4.0316,-16.0949,6.2934,1.168,4.4545,
15.927,-2.5426,2.3842,-8.4861,20.5549,28.5466,-25.0835,11.2205,-1.7231,10.3103,-29.2292,20.0158,15.1979,18.2872,
14.813,-14.4722,14.3233,-22.0769,5.2216,12.7338,-9.4785,-3.5527,-9.055,-4.4083,-13.3755,4.7148,28.3861,3.09,
-0.17578,0.49609,-0.63611,-6.6523,-9.1917,-2.1302,5.1902,-17.4396,5.5883,-18.2438,1.527,-9.6681,12.5829,-11.1954,
-14.2652,6.3486,-6.4802,7.8468,-22.7402,-16.1024,-9.2212,-30.4932,0.91193,-31.2492,-12.6646,-5.2233,-2.2721,-24.6237,
0.69069,-6.1145,5.9907,-2.542,-7.2758,-1.0363,-22.7679,-14.5636,-13.2428,-15.2742,-26.0047,9.1901,11.9642,-9.0462,
14.7492,8.3524,-8.4687,-16.4894,7.2608,13.1259,-23.4084,0.41022,-26.5482,-0.25776,-38.5331,22.7387,25.3464,5.5965,
27.9643,16.9866,-17.0959,-4.1883,-7.2749,-1.7617,-7.9039,14.4856,-10.8553,13.8577,-22.1211,7.2744,17.0028,-0.63354,
12.1864,30.0674,-30.1702,10.163,-20.9384,-15.756,6.6703,-0.48353,3.896,-1.0738,-6.6939,9.4676,1.8826,-14.6955,
-2.6448,14.1634,-14.26,-4.5468,-33.7821,-28.9106,-7.8299,-14.5545,-10.4378,-15.1093,-20.3922,-5.2005,-12.3303,-27.9138,
-14.4097,-0.78643,0.69563,-18.374,-17.6552,-13.076,-21.4601,0.41876,-23.9115,-12.65,-33.2687,9.2116,2.5095,-12.139,
0.55491,13.3608,-13.4461,-31.3716,-2.4958,1.8086,-6.0725,14.4936,-9.1474,2.209,-17.1726,22.7589,16.4589,2.6894,
14.6216,14.4177,-14.4979,-15.3893,0.13612,-11.1647,8.0747,24.6186,5.5014,8.8884,-2.0422,18.4461,1.3714,9.9631,
-0.35568,23.7767,-23.8521,-0.3659,-13.972,-24.5948,21.531,9.0415,-0.56439,-5.7449,12.1803,3.2393,-12.8109,-4.7347,
-12.5757,8.2501,-8.3209,-14.4439,-17.157,-37.2191,6.1392,-5.601,-14.6305,-19.5002,-2.6505,-11.055,-3.825,-9.403,
-25.9212,2.8017,-2.8684,-27.6773,-2.0276,-20.886,-8.3292,-6.3422,-23.3529,-14.7607,11.6085,3.7083,10.5045,5.2611,
-10.2659,16.7336,-16.7963,-11.9167,12.1941,-5.5328,6.2706,8.1383,-7.8517,0.22498,25.012,17.5858,23.9743,19.0455,
4.45,2.0942,-2.1531,2.8983,10.6801,4.0935,19.9943,21.75,6.7194,14.3115,37.6113,30.6306,29.1887,31.991,
-9.917,-12.1315,12.0761,15.7364,-1.1135,-10.2521,32.8947,6.345,12.0404,-0.64721,45.7143,14.6928,13.3374,15.9715,
4.7781,-25.5036,25.4515,0.69226,13.0533,-23.737,16.821,20.0643,-2.782,13.4916,28.8715,-0.28879,26.6372,29.1132,
-9.6086,-9.8733,9.8244,9.174,-1.8299,-27.5721,1.7117,4.7604,-9.8921,-1.4179,13.0392,-14.3715,10.9389,13.2664,
-23.1321,4.8191,-4.865,22.7236,-13.3379,-37.5353,6.8799,-9.6252,4.8015,-15.4328,26.3568,-27.6092,-3.8174,-1.6296,
-7.6442,-1.5112,1.468,10.5132,1.5624,-21.1832,20.5671,5.0523,18.6134,-0.40683,38.8754,-11.8526,-8.3822,7.6149,
6.9145,-15.5205,15.4799,-4.2176,15.5687,-5.8122,19.1741,18.8492,3.3966,13.7176,50.6429,2.9585,6.2207,21.258,
20.5996,-21.866,21.8278,-6.594,24.5403,8.6365,3.9236,31.8182,-10.9072,26.9945,33.5043,5.2632,19.9475,34.0825,
5.2636,-8.0071,7.9712,7.9017,8.9679,-5.9817,-10.4118,15.8091,-24.3528,11.2749,17.3941,-9.1526,4.6506,17.9376,
-9.1522,6.5733,-6.6071,21.5276,-3.0292,-19.7228,4.3129,0.76059,-8.7916,-3.5016,30.4504,-22.7034,-9.7284,2.7613,
5.4969,-0.95034,0.91862,6.1359,11.2526,-4.4394,18.1542,-13.385,5.8359,-17.3909,42.7234,-7.2412,2.9372,-0.19216,
19.2671,-14.9933,-12.6133,-8.3322,24.6774,9.9269,2.9649,1.5181,19.5857,-2.2474,26.06,7.2933,16.861,13.9194,
32.2111,-10.2171,2.2435,-21.9323,37.2968,23.4313,-11.313,15.527,4.3106,11.9874,10.3964,17.0792,29.9493,27.1842,
16.1784,-17.9688,16.2089,-6.5164,20.959,7.9254,-4.7401,0.49536,-10.0481,-2.8318,-4.3274,1.9545,14.0524,11.4532,
1.1077,-2.7906,1.1363,7.9746,5.6014,-6.6501,9.6443,-13.6344,4.6548,-16.7619,10.0322,-12.2628,-0.89078,-3.334,
-13.0587,0.0062621,2.3036,-6.6039,11.1474,7.8489,19.1304,-26.9163,18.4755,-29.8562,15.6302,2.573,-14.9373,-14.2872,
1.8248,-13.4707,15.642,7.269,24.5786,21.478,3.8826,-11.2013,30.9911,-13.9648,0.59237,16.5186,0.058909,0.67005,
15.8153,-8.0154,10.0564,1.2561,37.2038,34.2893,-10.4504,3.5708,15.0316,0.97306,-13.5432,29.6275,14.1554,14.7298,
10.8311,-9.8581,11.7767,-9.5074,20.8716,18.132,4.2766,4.1278,19.4002,10.9799,1.3694,13.7498,27.4061,27.4697,
-3.9187,4.8334,-3.0299,5.1631,5.5193,2.944,18.12,-10.2199,32.3362,-3.7789,15.3873,-1.1752,11.6617,11.7215,
-17.7836,-1.6563,3.3515,18.9533,2.865,10.1914,2.9328,-23.7067,16.296,-17.6522,0.36402,1.3778,-3.138,3.2773,
-2.6166,-13.6395,15.233,19.8224,16.7931,23.6799,-11.3431,-8.1843,1.2182,-2.493,-13.7578,15.3951,11.1503,17.1807,
11.6404,1.2788,0.21904,4.533,29.8855,36.3591,1.7374,6.4068,-12.9549,11.7565,-27.0324,28.5714,24.5813,30.2498,
25.042,11.7317,-10.3237,-8.1278,13.9923,20.0776,15.7332,20.1224,1.9224,24.0627,-11.3104,12.7571,30.2248,14.3348,
9.4395,25.1278,-23.8043,6.4599,-0.94719,4.7729,28.8892,4.815,15.9071,8.519,3.4682,8.5803,14.3113,-0.62524,
-5.2269,9.5201,-8.276,-8.0277,-14.9904,-9.6135,13.0558,-9.5739,0.85267,-6.0922,-10.8399,-6.0345,-0.64738,-14.6877,
-1.0364,-5.1511,6.3206,-21.6461,0.0090598,5.0633,-1.8275,5.1006,-13.2985,5.7439,-24.2895,8.4275,13.4915,0.29354,
13.1258,9.258,-8.1587,-34.4473,14.1085,18.8595,12.3821,18.8945,1.5994,19.4993,-8.7321,22.0219,26.782,14.3759,
26.4382,16.6026,-15.5693,-18.2805,0.091199,3.628,15.6629,30.1495,15.6035,11.1998,5.8918,8.9238,13.5568,-0.58663,
10.7519,19.3239,-18.3526,-3.0836,-14.0143,-10.6897,28.8231,14.2405,0.56724,-3.5722,-3.1327,-5.7116,-1.3566,-14.6514,
-3.9932,4.0645,-3.1514,-16.9986,-13.0146,-24.1483,12.9937,-0.71391,-13.5668,-15.2812,-17.0447,-19.4689,-7.6225,-10.826,
-17.8536,2.5854,-1.7271,-27.9023,1.8662,-8.5994,-1.8859,-10.1129,-26.8528,-13.8998,-1.922,-11.9424,6.9348,3.9236,
-3.1476,16.5303,-15.7235,-12.1282,15.8543,6.0165,-11.8375,4.5939,-11.1416,1.0342,12.2933,2.8742,20.6187,17.7882,
11.1412,11.662,-10.9036,2.6995,7.6149,19.7555,2.9727,18.4182,3.6269,15.0722,4.4262,16.8017,5.2816,5.7156,
-3.6272,-3.1377,3.8506,16.6376,-3.9947,4.4702,16.8944,3.2131,-10.6907,0.067844,8.8081,1.6936,-9.1353,-8.7273,
10.6904,-17.0495,17.7196,1.5393,10.345,-9.898,1.7807,17.1204,-24.1493,14.1638,-5.8204,-12.508,5.5128,5.8963,
-4.051,-1.9265,2.5564,9.9591,-4.3757,-15.6512,-12.4261,1.9931,-36.8003,-0.78605,-19.5711,-25.8575,-8.9179,-8.5575,
-17.908,12.2891,-11.697,23.4616,-13.8717,-16.571,-11.6801,-12.2265,-20.4923,-14.8389,-20.4029,-38.4061,-22.4829,-22.144,
-2.7335,18.5225,-17.9659,10.7419,1.0606,-1.4767,3.1207,-12.8869,-5.1628,-19.0611,-5.0788,-22.0017,-27.4808,-12.5979,
-10.9344,3.3111,-2.7879,-4.0026,9.2029,12.7119,4.6333,1.9863,-18.953,-3.8174,9.326,-6.5816,-11.7319,2.258,
3.8216,-10.2056,10.6974,-14.292,22.7507,26.0492,-9.7447,15.9672,-31.9158,10.5116,-5.3336,-7.1159,3.072,16.2225,
-10.5077,4.5067,-4.0445,0.66549,7.2857,10.3862,-23.26,0.90913,-24.2545,-4.2191,-19.1136,-20.7889,-11.2123,1.1491,
-23.9772,18.3363,-11.5436,14.7256,6.8483,-4.337,-7.7644,-13.2454,-31.1637,-18.0659,-3.8668,-33.6416,-24.6396,-13.0198,
-8.4386,3.1362,3.249,-0.25797,20.5374,10.0233,6.8014,1.6493,-15.1939,-2.882,10.4652,-17.5231,-9.0612,1.8614,
6.1677,-11.152,-11.0459,-14.3425,25.6523,23.5219,-7.7067,15.6503,-0.18228,11.3909,-1.6334,-2.3717,5.5825,11.8142,
19.8977,-24.5829,3.7168,-27.5819,38.2132,22.099,-21.3443,28.8113,-14.2713,24.8075,-15.6354,9.853,19.3475,25.2054,
4.6038,-21.5549,17.5938,-11.827,21.8204,6.6731,-34.1636,12.9826,-27.5151,9.219,-28.7973,-4.8382,11.2048,9.5931,
-9.7724,-6.1616,2.4382,2.9826,21.4403,-7.8273,-18.0138,-1.8963,-11.7642,-5.4341,-12.9695,-18.6479,-0.6202,-5.0825,
-14.298,8.3081,-6.696,-9.4378,6.0539,6.7423,-2.833,-15.8825,3.0417,-19.2081,1.9087,-3.429,-14.683,-18.8776,
-12.0456,0.98613,1.6059,5.2285,0.27321,20.4378,-16.763,-0.82958,16.9592,-3.9556,-12.3058,10.8767,0.29799,-3.6449,
2.7771,5.1094,-2.6729,19.0148,14.3568,33.3115,-11.2574,13.3202,1.8416,10.3818,-25.6675,24.3241,14.3801,10.6738,
16.7105,-1.2384,3.5288,7.7978,-0.60459,17.2128,3.5181,5.6975,15.8311,15.9476,-10.0274,8.7646,27.6173,7.2453,
1.6079,12.9359,-5.9775,21.43,-14.6683,2.0801,17.407,-8.7443,28.9813,0.89076,4.6742,-5.8612,11.8603,-7.2894,
-12.5886,-1.0109,2.7463,34.2442,-17.3471,11.873,2.2626,-22.3197,13.1424,-13.2627,-9.7062,-3.0271,-2.9514,-20.952,
2.2667,-15.0502,16.6815,18.0895,-2.2063,25.2606,-11.9732,-6.8805,-1.7461,1.6331,-23.2239,11.2545,11.3257,-5.5949,
16.2307,-0.047197,1.5806,2.9041,12.0261,37.845,-5.2137,7.6323,-15.7414,15.6351,-35.9304,24.6792,24.7462,8.8408,
29.3569,8.3204,-6.879,4.5887,-2.7955,21.4743,9.1991,21.2744,-0.6969,27.7088,-19.6746,9.0985,26.6611,2.7339,
13.4954,21.9211,-20.5662,18.4134,-16.7277,6.0858,22.7472,5.8979,13.4449,11.9463,-4.3941,0.028836,10.9614,-11.5302,
-1.4143,6.5059,-5.2322,3.2086,-29.6653,-8.3793,7.2823,-8.5559,-1.4618,-2.8705,-18.2305,-14.0729,-3.7963,-24.9384,
-1.9526,-7.9845,9.1817,-11.0839,-13.7854,6.2234,-7.2546,6.0574,-15.4741,11.4017,-31.2366,0.87148,10.5315,-9.3421,
12.2646,6.5946,-5.4692,-24.5189,1.1418,19.95,-4.4955,19.794,-0.44563,24.8176,-15.2625,14.9192,23.9996,5.3185,
7.6523,1.0872,-0.029391,-8.9478,15.1733,4.653,2.2799,4.5063,13.6811,9.2286,-0.2467,-0.07596,8.4596,-9.1006,
-6.9069,15.122,-14.1276,5.6891,0.16286,-9.7262,16.2431,-9.8641,25.3961,-5.4252,13.8681,-14.1714,-6.148,-22.6546,
7.6075,14.9853,-14.0506,0.2361,13.3121,-23.2426,1.1686,4.8278,9.7724,9.0003,-1.064,-0.61513,8.3209,-7.1953,
21.2511,9.9039,-9.0253,-4.89,26.6134,-7.748,-13.0016,18.6381,-2.738,22.5603,13.0999,-14.6782,21.9217,7.3364,
5.876,23.4097,-22.5838,9.5034,24.858,6.8169,-12.9921,3.4198,11.5263,7.1067,26.4139,0.30247,12.7062,20.9962,
4.5936,9.2991,-8.5228,23.0332,9.2666,-7.6922,1.8874,-7.4733,24.9347,-7.4197,38.929,14.3843,-2.1561,5.6364,
-9.782,-5.3588,6.0886,8.3221,-3.6779,-21.3306,15.8742,-1.913,33.345,-17.8099,50.6933,23.1217,12.0732,1.581,
4.9049,-19.1373,19.8233,-6.2772,0.26025,-34.1508,0.82174,12.3018,17.2443,-2.6413,33.5517,7.6344,14.6023,4.2735,
-9.4894,-3.889,4.5339,8.1994,-13.8554,-46.2017,-13.3276,-2.5363,2.1097,-16.5828,17.4386,-6.9237,-0.3738,-10.0829,
-23.02,10.4443,-9.8382,21.8074,-27.124,-57.5296,1.5721,-16.4841,16.0831,-29.6879,30.4923,5.8915,-14.4514,-23.5779,
-7.5388,-4.2824,4.8521,6.399,-11.3966,-39.9779,13.866,-1.3951,29.2181,-13.8066,21.8397,19.638,-4.9022,-8.0632,
-7.3923,-18.1254,-7.2153,-8.085,-18.9187,-23.4792,-1.066,12.7886,13.365,1.1218,6.4293,32.5597,9.4919,6.5206,
7.1512,-16.2557,7.3176,-0.93561,-3.6836,-16.018,-15.102,26.1213,-1.5369,15.1545,-8.0564,16.5061,23.0224,20.2293,
-7.3778,-15.7452,18.3375,13.2205,-17.5626,-29.157,-28.2959,10.454,-15.5447,0.14522,-21.673,1.4157,7.5411,4.9156,
-21.0352,-0.70049,3.1373,26.5273,-7.2145,-41.5075,-12.4982,-4.2732,-0.51199,-13.9635,-6.2727,-12.7692,-7.0114,-9.4794,
-5.6731,3.3655,-1.0749,10.8357,7.3184,-24.9171,2.3517,10.0832,13.6187,0.97432,8.2037,2.0969,7.5093,5.1894,
8.7673,-10.9365,1.3133,-3.9145,20.9793,-9.3221,-11.8894,23.5782,26.9016,15.0159,-6.3885,16.0711,21.1587,18.978,
22.3413,-22.6689,15.3345,-17.7796,21.7264,5.3373,-25.276,36.2635,11.1875,28.2149,-20.1052,20.0602,33.9892,31.9393,
6.9008,-24.097,27.2676,-2.6128,6.3228,-9.083,-9.6595,19.9877,-3.5837,12.422,-32.9989,4.7566,17.8498,15.923,
-7.6132,-8.5512,11.5316,11.6439,-7.8394,-21.0852,5.0201,4.6884,10.7313,-2.4233,-16.919,-9.6288,2.6789,0.86761,
-21.2564,6.0619,-3.2603,18.2223,-21.4691,-5.7201,12.3132,-9.6929,13.9638,-16.3779,-1.8038,5.0489,-11.5819,-13.2844,
-34.0811,19.7982,-17.1647,31.2289,-34.2809,-19.4769,-2.5256,-23.2113,-0.97398,-29.4952,-15.7956,18.846,-24.987,-26.5874,
-17.9362,7.4457,-4.9703,23.6201,-18.1241,-12.267,-16.474,-7.7186,-15.0155,-13.6255,-28.9479,3.6152,-9.3877,-10.8921,
-2.76,-7.101,9.4279,8.1029,-2.9366,2.5691,-1.3856,6.8445,-0.014613,1.292,-13.111,-10.7017,5.2755,-1.7151,
-16.6944,7.4251,-5.2378,16.1401,-16.8604,-11.6851,12.7975,-7.6662,14.0863,-12.8855,1.7757,-24.1596,-9.141,-15.7122,
-29.7928,1.8679,0.18817,29.2716,-29.9488,-25.084,-2.0703,-21.3062,-0.85891,-26.2124,-12.4309,-25.9515,-22.6925,-28.8695,
-13.9052,-12.3442,14.2769,13.4153,-14.0519,-9.4789,-16.0461,-5.9278,-3.9017,-10.5396,-25.785,-10.2944,-7.231,-13.0373,
1.0291,2.4965,-0.67973,-1.4896,0.89123,5.1898,-0.98332,8.5278,-17.7676,4.1927,-24.9972,4.4232,7.3029,1.8449,
15.0674,13.4997,-11.7919,-15.5002,14.9378,-9.2216,13.1757,22.1162,-2.6015,18.0412,-9.3974,-9.9422,20.9647,15.8343,
0.063329,26.7897,-20.379,-0.47019,-0.058506,-22.7683,26.4851,6.6892,11.6546,2.8587,5.2665,4.7544,5.6068,0.7842,
-14.0405,11.0823,-5.0562,-9.1127,-14.155,-35.5022,10.796,-7.8122,-3.1447,-11.4128,-9.1495,13.4459,-8.8296,-13.3629,
0.90196,-3.6826,9.3471,-22.666,0.7943,-19.2721,-3.9517,6.7566,-17.056,3.372,-22.7006,-1.4609,5.8002,1.5389,
14.9478,10.6383,-5.3137,-35.406,14.8466,-4.0157,9.9203,20.4512,-23.3096,17.2696,-7.2385,12.7268,19.5522,15.5466,
-0.04903,24.1,-19.0949,-19.1816,-0.14415,-17.8748,13.0428,5.1241,-7.811,2.1335,7.2958,24.9745,4.279,0.51379,
-14.1461,36.754,-3.8492,-3.9308,-14.2355,-30.9023,26.3602,-9.2833,6.7576,-12.0945,20.958,9.3761,-10.0777,-13.617,
-14.0673,20.4488,10.4818,-17.7949,-26.6988,-43.1482,10.6786,-22.8263,-7.7478,-14.1569,5.6006,-5.2865,-23.573,-26.5818,
-9.0412,5.1218,22.5477,-30.8272,-10.9968,-26.4593,-4.0621,-7.3568,-0.006212,0.79252,19.3645,-1.8637,-8.0587,-10.8869,
-0.59861,18.9145,7.0949,-14.8776,3.763,-10.7717,-5.983,7.1846,14.0942,14.845,32.3026,12.3481,6.5249,3.8663,
13.5373,3.6797,1.7159,0.11508,1.3606,3.9746,8.4759,1.0179,27.3485,28.0543,38.5591,25.7072,-1.461,2.3869,
-1.3749,-10.6411,15.7129,3.8258,-2.9033,-10.3639,22.0674,-13.1432,16.0963,12.271,43.2158,10.0648,-15.4733,-11.8563,
12.8076,-24.1026,28.8701,-10.5037,11.3709,-23.8421,6.6433,1.7454,1.0305,25.6348,26.5229,-4.6391,-0.4449,2.9551,
-2.0609,-24.198,16.1324,4.2265,-3.4114,-8.3115,-7.8553,-12.4593,15.0687,9.9967,10.8315,-18.4608,-14.5182,-11.3222,
-16.0372,-8.6461,1.0645,18.0729,-17.3067,2.5695,6.7161,-25.8118,28.2646,-4.7031,24.2816,-12.0822,-27.7471,-16.99,
-0.975,-15.2566,0.69458,14.5061,-7.2797,16.5153,20.4131,-10.1631,40.6687,9.6791,36.9247,2.7427,-12.7534,-1.8706,
8.377,-28.4412,14.7529,-0.46426,7.2571,29.6244,5.0883,4.5467,24.1286,23.1983,42.6096,16.6782,2.1118,12.3416,
21.9744,-27.5054,22.0737,-11.4304,18.7452,16.3768,-9.317,18.3739,8.5809,35.9064,25.953,23.7248,16.0851,25.7011,
6.5559,-11.755,6.6493,3.3555,3.5205,1.2942,-10.1522,3.1715,18.2896,19.652,10.2958,8.2014,1.02,10.0591,
-7.9375,3.0503,15.7028,17.2541,9.9737,-12.8834,4.5569,-11.1188,31.2922,4.3729,23.7781,21.8093,-13.1412,-4.6445,
6.6388,-11.2328,0.66062,2.1189,22.8517,1.9896,18.3835,3.1835,43.5147,18.1985,36.4514,34.6007,1.7473,9.7342,
20.3405,-24.6588,14.721,-12.1083,35.5806,15.9702,3.1805,17.0925,26.8038,31.2066,20.1643,46.6247,15.7425,23.2501,
31.0441,-37.2793,27.9377,-25.4818,35.6104,29.112,-11.1103,20.0908,11.0956,31.4998,4.8545,30.4978,28.8979,35.9551,
15.0814,-24.1956,40.3615,-9.8529,19.3738,13.2653,3.6563,4.7854,22.5122,15.5098,6.2746,14.568,13.064,19.6978,
0.076543,-8.6438,23.8398,4.8383,4.1114,-1.6306,17.5369,-9.6017,35.2615,0.47919,19.9981,-0.40613,-1.8198,4.416,
12.4719,-3.1721,8.3094,-4.9049,3.2533,12.5672,7.338,-23.1256,27.8756,-13.6496,14.4576,13.7182,-15.8106,-8.2485,
3.823,-17.0818,11.9937,-12.5112,14.6759,25.9132,-7.2023,-7.6381,40.303,1.2694,-0.50986,26.9951,-0.76198,6.3464,
17.6936,-9.857,3.8388,2.3395,27.8953,38.4584,7.3299,6.9202,23.7848,15.2932,-14.5793,39.4754,13.3837,20.0656,
30.732,-23.3656,15.6909,-11.9009,38.145,22.0509,12.9312,20.605,8.2578,28.4757,0.39549,23.0069,26.6807,4.7617,
14.7881,-19.0168,1.7376,-25.2868,21.7563,6.6278,26.2553,5.2687,21.8623,12.6671,14.4718,7.5265,10.9799,-9.624,
-0.19919,-3.7758,15.7333,-9.6696,6.3509,-7.8698,38.4628,-9.1474,6.4506,-2.1929,-0.49654,10.4868,-3.7789,-23.1466,
-14.2872,10.5507,0.68935,5.0106,-8.1302,6.7023,22.0551,-22.6986,-8.0365,-16.1613,-14.5668,-4.2424,-17.6522,-35.8578,
-27.53,24.0177,-13.452,18.8099,-21.7423,20.4002,8.808,-35.4367,-21.6543,-29.2917,-27.7927,-18.0879,-30.6931,-41.2893,
-28.3482,27.6772,-26.7449,22.9411,-17.9436,33.2762,22.3795,-19.2105,-34.455,-13.4342,-27.0435,-2.9026,-21.7213,-24.712,
-12.5473,24.6225,-30.8641,7.4647,-2.767,45.3796,35.1367,-3.9578,-18.2877,1.4719,-11.3209,11.3715,-6.318,-9.1292,
2.3055,21.751,-27.6181,-7.0832,11.499,56.7568,47.1285,10.3796,-3.0905,15.4836,3.4584,24.7892,8.1611,5.5185,
16.2672,16.728,-25.9612,-20.7582,24.9091,67.4514,58.4008,23.8568,11.195,28.6546,17.3509,37.4019,21.7714,19.2874,
29.3912,1.6243,-38.5035,-33.6127,37.5145,77.5043,68.9967,36.5254,24.6233,41.0353,30.4098,49.2578,34.5651,32.2302,
41.7277,15.6269,-23.9519,-17.496,21.1637,58.7541,50.7569,48.4339,9.0459,45.3847,24.2326,32.2023,18.3912,16.1963,
25.124,28.7893,-8.4148,-2.3462,5.7939,41.1288,33.6115,31.4279,-5.5969,28.5616,13.0195,16.1702,3.1877,1.1246,
37.7166,12.9619,6.1901,-12.5767,19.5462,24.5611,17.4948,15.4422,-19.3611,12.7479,-1.8617,1.1,17.0849,1.0455,
49.5536,-1.9158,19.9187,-25.9221,32.4734,37.1874,2.3451,28.6157,-32.2994,26.083,-15.85,4.2866,30.1598,15.0828,
49.3455,10.4405,4.6236,-10.2668,44.625,49.0562,-11.8956,40.9987,-16.2614,38.618,-0.79897,18.1294,42.4502,28.2778,
32.2848,15.8554,-9.7539,4.4492,27.8475,32.0128,2.9182,24.4388,-1.1858,22.2009,13.349,2.9416,25.8032,12.4812,
16.2477,0.80409,4.9314,14.2471,12.0767,15.9921,2.1195,8.8725,-15.2146,6.7689,19.0539,-11.3349,10.155,-2.3677,
29.3729,-13.3442,18.7355,-0.70776,6.2289,0.93253,-12.1077,22.4401,-28.4017,18.7625,3.8107,-24.7548,23.6457,11.8744,
13.5105,1.5565,3.5114,13.4347,-8.2449,-13.2234,-25.4812,6.9937,-12.5976,3.5367,-10.5179,-37.3695,8.127,-2.9381,
-1.4001,15.5631,17.4007,26.7286,-14.0973,-26.53,-9.8524,-7.5259,2.2582,-10.7755,4.2131,-21.0273,-6.4606,11.3382,
-15.4161,0.52931,8.445,11.0249,-27.3514,-10.8382,-13.2849,-21.1743,4.7635,-24.2289,-8.4279,-5.6657,-20.173,-3.4421,
-28.5912,-13.6024,1.4324,-3.7366,-24.623,3.9121,-26.5878,-26.5568,-9.6223,-26.0163,-21.8634,8.7743,-4.8626,10.8644,
-12.7757,-26.8863,15.4464,-17.6124,-9.0457,-10.4226,-39.0925,-10.8634,-23.145,-10.3553,-34.6516,-5.8522,9.5291,24.3126,
-26.1092,-11.1731,27.837,-2.4557,-22.6029,-23.8973,-37.8239,-24.3116,-22.8331,-23.834,-46.6725,-19.6011,-5.1426,8.7538,
-38.6426,3.5973,12.0668,11.7917,-34.7231,-36.5635,-21.4544,-36.9529,-35.5632,-36.5039,-29.7721,-32.525,-18.9341,-5.8714,
-22.2241,-10.7186,18.9373,-3.0158,-18.5397,-20.2696,-6.0672,-20.6357,-19.3294,-20.2137,-13.8858,-16.4735,-3.698,7.4931,
-6.7906,-24.1755,3.7011,-16.9349,-3.3274,-4.9535,2.3442,-5.2976,-4.0696,-4.9009,1.0473,-1.3851,10.6239,21.1435,
7.7168,-26.4313,16.185,-30.0188,10.9723,9.4437,-11.8964,9.1203,10.2746,9.4932,-13.1155,12.798,24.0864,33.9749,
-6.8462,-21.1275,11.496,-14.1176,-3.7861,-5.2229,-25.2826,-5.5269,-4.4419,-5.1764,-26.4286,-2.0699,8.5413,17.8364,
-20.5354,-5.7599,0.58317,0.82941,3.0942,-19.0095,-9.6657,-19.2953,9.9246,-18.9658,-10.7429,-16.0457,-6.0712,2.6662,
-5.2033,1.8623,-10.6052,-13.3204,-1.7383,-3.7689,5.0143,-32.2376,23.4291,-31.9279,4.0017,-0.98294,-19.8069,-11.5937,
9.2089,-12.3495,4.1311,1.5789,11.8427,10.5572,-9.3866,-16.2034,7.9234,-15.9122,-10.3384,13.176,-4.5185,3.2019,
22.7564,-25.7085,17.9832,12.7961,25.2321,24.0238,-22.9234,-1.1312,-6.652,-0.85748,-23.8181,-0.6261,9.8526,17.1098,
7.291,-10.066,2.8042,3.6634,9.6182,8.4823,-7.448,-15.1633,7.8471,-14.906,-8.289,-14.6885,-4.8386,1.9832,
-7.2465,4.638,-11.464,17.5436,-5.0589,-6.1266,7.0989,-28.3535,21.4763,-28.1117,6.3083,-27.9072,-18.6483,-12.2358,
-20.9117,15.0481,-21.4646,28.4148,-18.8554,1.5175,-7.427,-40.7523,6.0877,-40.525,-8.1702,-40.3328,-31.6294,-25.6017,
-5.557,0.045176,-6.0767,12.6099,-3.6241,15.5265,-21.0814,-24.2071,-8.3776,-23.9935,-21.78,-23.8128,-15.6316,-9.9656,
8.8764,14.1425,-19.8121,-2.2467,10.6934,28.6949,-19.4987,-8.6547,-21.9749,-8.4539,-34.5732,-8.2841,-0.59371,4.7324,
20.4376,27.3939,-32.7234,-12.9473,-4.0482,12.8732,-4.2288,5.3405,-34.7564,-13.059,-18.3988,-21.887,-14.6581,-9.6516,
5.1113,39.8503,-44.86,1.9296,-17.9053,-1.9992,-8.3161,-9.0799,-18.571,-26.3754,-3.1948,-6.4738,-27.8786,-23.1725,
-9.2954,23.3593,-28.0684,6.3021,-30.931,-14.8915,-21.9172,-22.6351,-31.5568,-38.8929,-17.1032,-20.1854,-40.3059,-35.8821,
-22.8376,36.0577,-35.0552,20.0239,-43.1751,-28.098,-33.4558,-35.377,-43.7634,-50.6593,-30.177,-33.0742,-51.9875,-47.8292,
-23.3149,47.9942,-47.0519,4.7225,-26.4846,-40.5121,-17.3485,-19.1544,-55.2376,-33.5198,-14.2663,-45.1898,-34.7683,-30.8594,
-7.816,31.0146,-30.1288,10.9448,-10.7956,-23.9814,-17.8603,-3.9051,-37.8233,-17.4086,0.68964,-28.3784,-18.5822,-14.9079,
-21.447,15.0537,-19.4911,22.3708,-24.2478,-8.4425,-2.6887,-17.7708,-21.4539,-30.4641,-9.1109,-40.7757,-31.5673,-28.1134,
-34.2602,0.050494,-4.2216,6.9285,-36.893,-22.036,-16.6274,-30.8046,-34.2667,-42.7362,-22.6643,-52.4292,-43.7732,-40.5266,
-40.4103,4.2297,-8.3096,-7.5872,-20.5794,-6.6138,-29.7298,-15.933,-46.3107,-37.3725,-19.7512,-35.1834,-27.0468,-23.995,
-23.8857,18.0759,-21.911,-21.232,-5.2446,7.883,-41.2636,-0.87697,-29.432,-21.0301,-4.4661,-18.9724,-11.324,-8.4553,
-8.3526,24.7327,-28.3377,-30.6349,-13.9067,-6.69,-24.6878,13.2756,-36.6427,-5.6683,-8.5394,-31.9341,3.4554,-21.5721,
-21.9514,9.1488,-12.5374,-14.6968,-27.1723,-20.3886,-9.1065,-1.6209,-34.4439,-19.4282,-0.5915,-44.118,-10.8519,-34.3777,
-6.5343,-5.5002,2.3148,-7.9327,-11.442,-5.0652,-22.6601,12.5764,-46.4773,-4.1625,-14.656,-55.0837,-10.1897,-18.2151,
-20.2423,4.4416,-7.4358,6.6433,-24.8555,-18.8613,-35.4005,-2.2782,-29.5886,-18.0128,-27.8766,-37.6787,-23.6783,-31.2222,
-33.1277,18.2751,-21.0896,18.1685,-37.4641,-31.8297,-30.4882,-16.2415,-13.7133,-31.032,-12.104,-40.2236,-36.3576,-33.3725,
-17.0401,13.7669,-16.4126,5.9254,-28.8581,-15.8199,-14.5589,-1.167,1.2095,-15.0701,2.7222,-23.7102,-25.4943,-17.2702,
-30.1177,-1.1591,-9.8514,-8.5301,-41.2266,-0.77068,-27.7854,-12.4085,-12.9631,-24.5482,-6.2709,-8.1876,-12.8112,-2.134,
-24.5934,-15.1895,4.8397,-22.1183,-24.653,-14.2008,-40.2183,-7.0167,-26.2853,-13.7803,-19.9946,-21.7963,-0.88913,12.0941,
-37.2178,-8.8494,18.6493,-6.6912,-32.9328,-27.4488,-51.9052,-20.6957,-38.8082,-27.0535,-32.895,-34.5885,-14.9358,-2.7316,
-49.0847,5.7816,3.4303,7.8103,-18.4089,-11.7019,-34.6909,-33.554,-22.3797,-39.5303,-16.8213,-44.5958,-28.1396,-16.6677,
-32.0396,-6.8062,4.4602,13.3827,-3.2044,3.1003,-18.5094,-17.4408,-6.9369,-23.0585,-1.712,-27.8201,-14.5166,-1.5676,
-16.0173,3.3611,-5.5664,-1.5202,11.0879,17.0142,-3.2989,-2.2943,7.5793,-7.575,12.4907,-12.0509,0.45443,12.6264,
-0.95622,3.6242,-5.6972,-15.529,24.5226,30.0934,-17.2009,11.9433,-6.9754,6.9795,-2.3587,2.7722,14.5272,25.9689,
13.2012,-10.6932,8.7446,-0.49728,8.9512,14.1878,-10.5926,20.3625,7.5431,9.1896,9.8652,-11.4941,-0.44447,10.3107,
-1.6909,4.0484,22.3199,13.6326,11.3488,27.4365,4.143,5.0408,21.1905,-5.4618,23.3733,-2.2925,-14.5178,8.7513,
-15.6895,-10.2945,7.1868,-1.2854,-3.4322,39.8903,17.9944,-9.3617,34.0191,-19.2341,7.8709,11.945,-27.7467,-5.8737,
-0.64809,-23.7769,20.8556,-2.9083,10.8738,51.5969,2.8147,5.3,17.8779,-3.9801,-6.7014,25.3283,-11.9819,8.5787,
13.4908,-22.0329,18.9809,-3.6634,24.3213,62.6011,-11.4542,19.082,2.7052,10.3587,-20.3993,37.9086,2.837,22.164,
26.7813,-20.2463,17.3774,1.6682,8.7621,44.745,3.3331,19.7951,16.6429,23.8372,-5.0753,21.5341,16.7668,23.9284,
11.0745,-4.9315,30.4348,15.6682,-5.8637,27.9603,17.2331,4.5074,29.7444,8.307,9.3292,19.9249,1.6608,17.3806,
-3.69,6.8238,42.7087,13.1757,-12.7879,12.1827,2.0991,-9.8631,13.8597,-6.2914,-5.3306,15.012,-12.5389,2.2378,
-8.2742,-7.6856,26.0462,-1.7148,2.0793,25.5517,-12.1268,4.8287,-1.0719,8.1861,-19.1107,28.2113,2.3135,16.2035,
6.3222,-4.2779,10.3834,-15.7119,16.0546,38.1186,2.7008,18.639,2.3925,21.7949,-4.1701,40.6186,16.2746,29.3313,
20.0429,-9.1329,0.46602,-8.4112,4.0851,21.7315,16.6387,29.603,16.349,25.9053,10.1801,24.0815,29.3982,13.4714,
4.7403,5.5151,-11.1791,6.1934,-10.26,6.3276,29.7404,13.7268,29.468,10.251,23.6693,36.4192,13.5343,-1.4369,
-9.6441,-8.9158,3.5917,-2.2366,-22.0321,-8.152,13.856,-1.1968,15.2995,-4.464,8.1491,20.1341,-1.3778,-15.4507,
5.0345,-22.4809,17.4762,-16.2024,-6.6102,6.4371,-1.0754,12.975,0.28156,9.9038,-6.4398,33.026,12.8049,-0.42363,
18.8325,-7.032,2.3276,-21.5776,7.8864,20.1509,13.0891,26.2965,-13.5175,23.4096,8.0466,45.1445,26.1366,13.7018,
31.8025,3.6135,-10.5185,-6.183,7.56,4.8418,12.9159,24.7194,1.3935,33.1577,21.6638,28.8002,21.7691,8.6972,
15.7944,-4.5033,4.2126,8.288,-6.9936,-9.5487,26.2409,9.1362,15.4099,17.0683,19.1176,12.9722,6.3629,-5.9246,
0.7467,-18.3331,16.8131,-0.42632,-19.4267,-23.0758,10.5665,-5.5119,0.38531,1.9442,3.8706,-1.9062,-1.2956,4.8132,
-13.3981,-3.1331,1.7043,13.6993,-32.3611,-35.7912,-4.1675,-19.2812,2.0625,-12.2725,17.7383,-15.8918,-15.3179,-9.5756,
-26.6942,11.1549,-12.4979,17.8304,-33.5133,-47.7438,-18.0175,-32.2243,16.0387,-25.6361,30.774,-29.0383,-28.4988,4.635,
-39.1926,-3.6144,2.3519,2.6606,-17.4025,-30.7791,-2.8364,-44.3909,29.1764,-38.198,22.7273,-13.196,-22.7539,-5.4027,
-50.4646,-17.4975,14.4522,-4.3112,-2.2584,-14.8324,11.4338,-27.6274,35.0084,-21.8061,35.4636,1.6958,-7.2886,4.216,
-33.3368,-30.5477,25.2024,-17.5291,11.9771,-28.0424,-3.3523,-11.8698,18.8079,-6.3977,19.2358,-12.506,7.2487,18.0631,
-45.4366,-16.3151,10.6785,-2.3774,-2.8415,-40.4599,-17.2511,-25.2576,3.5794,-20.1138,3.9817,-25.8556,-7.2862,2.8793,
-54.7932,-1.2362,-4.0622,11.8652,7.6991,-52.1323,-2.1161,-31.4719,17.4646,-16.413,17.8428,-10.2043,-8.8667,12.0004,
-37.4056,6.5793,-11.5598,25.2418,16.5313,-34.9044,12.1109,-15.4836,30.5167,-1.3283,30.8722,4.508,5.7653,25.3804,
-21.0613,-7.9154,3.2337,9.6273,1.4395,-18.7101,6.2726,-0.45461,41.2329,12.8514,43.1199,18.3375,19.5194,37.9576,
-5.6976,-21.5405,17.1397,-5.0504,15.4531,-31.6875,-8.2038,13.6727,24.659,26.1804,26.4327,3.1373,32.4482,49.7801,
8.7443,-34.3481,30.2113,9.3527,28.6259,-43.8862,-21.8116,26.9523,9.0794,38.7095,10.7467,-11.151,44.6013,46.7822,
-5.8804,-18.1872,14.2987,22.8915,22.1034,-55.3531,-6.4029,11.2352,22.6347,22.287,24.2019,-24.5819,27.8253,29.8753,
8.5724,-2.996,-0.65926,7.418,6.6772,-37.9319,8.0813,24.6611,35.3766,35.0497,36.8498,-9.007,12.0558,15.6939,
22.1581,-12.4164,8.9805,-7.1271,15.2642,-21.556,21.6964,37.2814,47.354,47.0468,20.5388,5.6334,25.4324,28.8523,
34.9286,-25.7714,22.5416,-20.7994,28.4484,-6.1626,6.2946,49.1445,30.4128,58.324,5.2065,19.3954,38.0065,41.2211,
21.1929,-38.3251,35.2891,-14.8929,25.6535,-19.8929,-8.183,32.0958,14.488,40.7245,-1.147,4.1317,49.8261,24.6479,
5.8213,-21.9256,19.0718,0.10071,10.0143,-32.7993,6.4079,16.0701,27.7187,24.181,13.0218,-10.2162,32.7365,9.069,
-8.628,-6.5101,13.1214,14.1947,-4.6866,-16.7313,6.9527,1.0059,40.1556,8.6302,14.87,4.4968,16.6723,1.5546,
-22.2103,-4.2606,-1.7659,11.1668,-9.6645,-1.6274,11.183,9.2985,51.8462,9.0309,-0.12222,18.327,1.572,15.5613,
-6.7777,-0.75193,-1.9657,-3.6032,5.0153,12.5702,24.612,22.8406,34.6355,22.589,10.7323,31.3273,15.5777,28.7276,
7.729,-14.8068,12.2522,-17.487,18.8144,-2.284,9.0353,35.5702,18.4573,35.3337,23.1001,15.3477,28.743,29.0096,
-6.8347,0.18159,-2.5829,-7.2909,3.5856,-16.247,22.5932,19.3359,31.4499,19.1137,35.8141,0.32683,12.9184,13.169,
-18.1897,14.2707,-16.5279,7.2466,-5.1533,-1.1722,7.1376,4.0758,21.0394,3.8669,19.5653,14.4072,-1.9567,-1.7211,
-2.9983,-0.68554,-1.4363,8.047,9.2559,12.9982,-7.3907,17.9312,5.677,17.7349,4.2914,27.6428,12.2607,12.4822,
11.2816,6.7909,-8.7854,-6.5358,22.8005,26.3183,-6.3241,30.9554,-8.7636,30.7708,-10.0661,40.0842,25.6251,25.8332,
24.7047,13.3539,-22.3583,-9.7028,7.3325,10.6392,8.1554,43.198,5.8622,43.0245,4.6379,23.5792,35.0702,10.1832,
9.1224,26.6527,-6.9168,4.9794,-7.2074,-4.0992,21.7661,26.5062,19.6105,26.343,18.4596,26.8115,18.866,-4.5278,
-5.5249,10.9535,7.5982,18.7806,2.984,-17.9532,6.3601,10.8158,4.3339,10.6625,3.252,11.1028,3.634,-16.9503,
-10.9289,-3.8037,16.7427,3.5538,16.9049,-2.776,-8.1215,-3.9332,-10.0262,-0.36029,-11.0431,24.5366,17.516,-1.8333,
3.8268,10.5246,1.6382,-10.7594,29.9906,11.4905,6.4658,10.4028,4.6754,13.7613,3.7195,37.1644,30.565,12.3767,
17.6972,9.4285,-12.5601,3.9861,14.0912,-3.2989,10.5663,5.4376,18.4949,20.6774,17.5963,20.8346,14.6311,-2.4659,
2.5354,22.9628,-6.3775,17.847,-0.85428,-17.201,24.0324,-8.9886,23.4267,5.3368,22.1172,5.4845,-0.34674,-16.4179,
16.4832,7.485,8.1051,2.6761,-14.903,-30.2689,8.4904,-1.7849,7.9211,3.3165,6.6902,-8.9446,-6.0497,-18.2209,
1.3942,-7.0641,1.8836,-11.5844,0.091157,-14.3528,-6.119,-12.8303,-4.4784,-8.0359,15.7413,-9.0197,8.4133,-3.0276,
12.7696,7.4598,-12.3294,3.2106,14.1857,0.6084,-19.8519,2.0395,9.8903,6.5463,28.8968,5.6214,22.0085,11.254,
26.1034,7.9416,-14.2191,17.118,2.9522,14.6719,-4.5607,16.0172,23.3969,20.2535,28.8633,19.3842,6.588,6.5431,
10.4372,-6.6349,-1.7482,1.9909,-11.3249,-0.30842,9.8129,0.95613,15.6346,4.9383,33.1728,4.1211,-7.9073,-7.9495,
23.911,-20.3368,12.4567,-12.2285,3.4546,-14.3899,-4.8759,14.9988,0.59654,18.742,17.0824,-10.2262,6.6672,6.6275,
8.3763,-13.2228,8.2977,2.6052,-10.8527,0.57348,-18.6833,-0.0011659,-9.9686,3.5175,1.9574,-23.7126,-7.8329,-7.8702,
-6.2263,1.6706,-6.3002,16.5489,-23.9844,-13.5609,-3.4623,-14.1011,4.7295,-10.7936,15.94,-36.3898,-21.4629,-21.498,
8.2473,-5.5589,-7.1579,1.4559,-10.9271,1.3527,10.8454,-1.6377,11.2574,3.954,29.0836,-20.1064,-13.0452,-6.1081,
-6.3475,-19.3254,-20.8284,-12.7314,-18.1721,15.3716,-3.9053,12.5606,-3.518,17.8168,17.5796,-4.8001,1.8375,8.3584,
8.1333,-24.978,-5.4787,-19.8674,-2.9817,14.2907,-17.771,25.9069,-17.4069,30.8478,2.4248,9.5879,15.8273,21.9569,
-6.4547,-23.9437,8.95,-4.5754,-8.0728,-0.66674,-30.8047,10.2525,-20.6924,14.8969,-11.8206,-5.0873,0.77765,6.5395,
-20.1674,-8.4071,-5.687,9.7991,1.7054,-14.7267,-14.8564,-4.4626,-5.3509,-0.096889,2.9886,-18.8821,-13.369,-7.9529,
-4.8573,-4.8084,-3.0219,-4.8888,3.927,0.25687,0.13494,-18.2949,9.0702,-14.1911,16.9093,-3.6492,-15.8199,-18.4694,
9.5341,-18.6199,-13.0643,-18.6955,11.1262,14.3415,14.2268,-3.0972,22.6259,0.76039,1.7947,10.6698,-0.77073,-3.2613,
23.062,-3.8675,1.8195,-27.3323,24.5587,27.581,-0.72677,11.1887,7.1684,14.8148,-12.413,24.1296,13.3755,11.0344,
7.5783,-10.1414,15.0282,-11.5923,8.9851,11.8261,-4.7068,-3.5827,-7.3617,-0.17412,-15.5331,8.5818,-1.527,-3.7277,
-6.9764,4.5671,0.026489,3.2032,-5.654,-2.9835,9.6756,-17.4677,7.18,-14.2637,-0.5011,-6.0331,-15.5354,-17.604,
-10.581,8.7814,-4.4634,11.9878,-0.043832,11.2956,16.3718,-30.5196,20.8492,-27.5079,-14.571,8.4289,-28.7033,-17.0128,
4.1538,-5.8455,9.9044,11.7331,14.0588,24.7178,1.2895,-14.5885,33.6982,-11.7574,-27.7968,22.0232,-12.8811,-1.892,
18.0046,-3.0123,6.8277,-3.0709,27.3153,37.3348,-10.2469,0.38684,17.5763,3.0481,-40.229,32.4666,1.9918,12.3215,
20.7883,9.2508,-5.6643,-12.952,11.5764,20.9947,4.4679,-5.6772,2.4218,-3.8,-23.7152,16.4186,5.4307,-1.2819,
5.441,22.7957,-19.4245,1.9251,-3.2182,5.635,18.2998,-19.4366,16.3765,-17.672,-8.1923,1.3335,-8.9951,-15.305,
-8.9854,9.6514,-6.4824,15.9096,-16.0372,19.3969,3.1018,-32.3704,1.2939,-30.7116,-21.8008,-11.9056,-22.5554,-28.4867,
5.6537,-5.0277,8.0065,0.855,-0.97492,32.3331,-11.1843,-16.3282,-12.8838,-14.7689,-34.5927,2.9088,-7.1021,-12.6775,
19.4145,9.374,-6.5739,-13.2963,13.1836,44.4931,-13.3017,-1.2485,-26.2107,0.2172,-46.6172,16.8342,7.424,2.1831,
32.3496,22.9116,-20.2794,0.97831,-1.7074,27.7235,1.5964,12.9264,-10.5381,10.8925,-29.7201,1.7242,-3.7098,-12.0478,
16.3086,35.6369,-33.1627,15.0196,-15.705,11.9601,15.6006,-1.9492,4.1942,-3.861,-13.8369,14.9388,-17.5872,-25.425,
1.2301,19.3986,-17.0729,0.018439,-28.8627,-2.8575,0.56461,-15.9322,-10.1575,-17.7294,-27.1067,-0.057549,-30.632,-37.9995,
0.3859,4.1347,-1.9485,-14.0827,-13.0309,11.4139,-13.5693,-0.87628,-23.648,-2.5656,-39.5803,14.0459,-14.6941,-21.6195,
14.4627,17.9866,-15.9316,-23.3027,1.8509,24.8291,1.3449,13.2763,-25.9466,11.6883,-23.1055,27.3031,0.28759,-6.2223,
27.695,21.8605,-19.9288,-7.8045,15.8399,24.8806,15.3642,26.5797,-10.2898,11.4527,-7.6192,25.5064,3.5236,-19.949,
11.9333,21.4781,-4.6331,6.7637,0.78947,9.2878,28.5423,10.8849,-23.7724,-3.3344,-16.7622,9.876,-10.7878,-32.8521,
-2.8827,6.0894,9.7449,19.5172,1.978,-5.3695,12.7298,-3.8682,-36.446,-17.2344,-29.8565,-4.8165,-22.0641,-16.7809,
-16.8098,2.63,-2.7749,7.6578,15.9593,9.0527,-2.134,-17.7361,-43.3949,-30.3003,-20.9358,-2.8162,-6.6403,-1.6741,
-1.7012,16.5722,-16.7085,14.169,27.8541,22.6095,-12.3883,-2.5719,-26.6912,-14.3823,-5.5796,11.4528,7.8581,12.5264,
12.5009,16.3487,-16.4768,27.4189,12.0829,35.3529,2.455,5.4828,-10.9897,0.58066,8.8551,19.901,-6.7134,-2.3252,
-2.3491,1.2678,-1.3882,11.6737,-2.7421,19.1318,16.4077,-8.9462,-13.4361,-13.5542,22.4238,4.6069,-20.4106,-16.2857,
11.8918,-12.9083,12.7951,-3.1267,11.5224,3.8839,1.3232,5.6906,-26.73,1.3591,6.9784,-9.7695,-5.0859,-1.2086,
-2.9217,-8.0988,7.9924,8.8375,-3.2689,12.6394,-12.8562,-8.7509,-39.2262,-12.8225,-7.5403,-23.2833,-18.8808,-15.236,
-16.8464,6.4872,-6.5872,18.5306,-17.1728,-2.219,2.0152,-22.3258,-40.2729,-26.1531,-18.3994,-35.9863,-31.8479,-28.4219,
-1.7356,7.3334,-7.4274,3.3187,-9.1599,12.0142,15.9943,-6.8863,-23.7565,-10.4839,-3.1955,-19.7272,-15.837,-12.6166,
-3.4901,-7.2066,-16.2759,-10.9804,-9.54,25.3933,0.93465,7.6269,-8.2311,4.2451,11.0963,-4.4435,-0.78682,2.2404,
10.8193,-5.6862,-1.1993,-20.6924,5.1324,16.74,-13.2214,21.2693,-21.8373,18.0904,-3.6695,9.9231,13.3604,16.206,
-3.9298,-7.2037,8.9374,-5.3508,-9.2755,1.6356,-26.5281,5.8931,-34.627,2.905,-17.5493,-4.7723,-1.5412,1.1336,
-17.7941,7.3285,-5.6988,9.0702,-4.537,-12.5625,-10.8365,-8.5604,-33.479,-11.3693,-2.3964,-18.586,-15.5488,-13.0344,
-2.6264,4.4066,-2.8747,1.2382,7.8187,2.2912,3.9137,-19.0414,-17.3703,-17.3408,11.8474,-3.3708,-0.51584,-4.0351,
11.6312,-9.9578,-16.8022,-12.9361,-6.7504,16.2537,14.6731,-3.799,-2.2281,-2.2003,-2.9634,10.9314,13.6151,10.307,
25.0333,-7.3429,-1.6941,-26.2599,7.7546,29.3785,-0.3073,10.529,-16.1944,12.0317,-16.8856,24.3756,26.8982,23.7886,
9.4313,-18.0555,12.5076,-10.5844,2.6418,13.5158,-8.9594,-4.2028,-29.3227,-2.7902,-2.8609,8.813,11.1843,8.2613,
-5.2346,-2.8722,-2.3429,4.1507,10.383,-1.3951,5.6782,-18.0506,-13.4634,-16.7228,11.4107,-5.8158,-3.5867,-6.3344,
3.4444,3.1826,1.051,9.0133,18.1248,12.7886,19.4375,-27.6557,1.4444,-25.4784,17.5382,8.6332,-6.3183,5.6635,
17.3378,-11.1083,15.0879,3.8257,31.1373,26.1212,4.1712,-11.8964,15.4578,-9.8497,25.7801,22.2152,8.1608,19.4237,
30.3975,-7.4948,11.2356,-10.5039,43.369,38.654,18.021,2.9174,11.731,4.8413,22.3745,34.9823,21.7711,32.3583,
32.9036,3.1785,0.33791,4.2262,26.6669,22.2347,31.0397,16.8424,25.1271,18.6508,35.132,18.7833,34.5648,16.3168,
16.8294,17.0877,-13.7824,18.0726,10.9669,6.8006,43.2773,1.7318,37.7195,3.4318,47.1241,3.5563,18.391,1.2378,
1.7196,1.9625,1.1446,9.8587,24.4089,-7.7074,26.5807,-12.4721,23.5212,-10.8741,30.1966,0.71351,3.1875,0.69889,
15.7164,-12.2553,15.1759,-4.8328,37.0443,6.8551,10.8858,2.3762,8.0099,3.8783,14.2848,14.7707,17.0962,14.757,
28.8735,2.5801,0.16535,-18.6428,48.9217,20.5438,-3.8673,16.3337,-6.5707,17.7456,-0.67226,27.9845,30.1705,27.9715,
41.2411,4.2845,-6.3507,-3.4243,31.8864,5.2111,-1.4702,29.4536,7.9235,30.7809,13.4681,12.2054,14.2602,12.1932,
24.6666,18.1274,-20.0696,10.8812,15.8732,-9.2015,12.718,13.5864,21.5481,14.834,26.76,-0.30329,-0.69537,-2.6383,
9.0866,2.9398,-4.7655,-2.7835,0.82081,-22.7494,-2.1451,-1.3288,6.1552,-0.15601,11.0544,-0.74991,-14.7537,-16.58,
5.9111,-11.178,9.6205,-16.7165,14.8716,-7.2845,-16.1164,12.851,-8.3141,13.9534,-3.7089,13.3951,0.23157,-1.4852,
19.6564,3.5927,-5.0568,-19.7369,28.0793,7.2526,-1.0494,26.1799,6.2848,27.2161,10.6137,26.6914,14.3177,12.7039,
32.577,5.0771,-1.9651,-4.4527,29.7955,-1.5473,11.096,33.2681,20.0077,39.6832,21.1298,31.743,22.4347,-2.1584,
16.5224,7.0962,-4.1709,9.9144,13.9078,-15.5545,19.2595,17.172,4.7072,23.2022,5.762,15.7385,6.9887,-16.1289,
18.6253,-7.4296,10.1794,-4.7804,-1.0267,-28.7212,4.004,2.0417,-9.6752,7.7101,-8.6837,0.69415,5.3341,-10.3553,
3.4078,-11.0077,13.5925,-9.2997,13.1349,-12.8979,-10.3363,2.2368,-4.5949,15.1363,-4.1274,14.7525,19.1141,4.366,
15.9093,3.7527,-1.323,5.3583,26.4468,1.976,-15.4396,16.2026,9.7808,28.3281,10.2202,27.9674,32.0672,18.2041,
29.0548,8.4809,-6.197,19.1368,10.76,-2.3249,-0.41323,14.6072,23.294,26.0044,16.4187,13.7421,16.0432,20.5119,
13.2115,1.9307,0.21616,11.1656,-3.9856,-16.2854,13.7116,-0.36919,7.7963,10.3441,16.828,-1.1824,0.9806,5.1812,
26.5188,-12.2851,14.3032,5.8483,10.3535,-29.4082,-1.2111,13.753,-6.7714,23.8234,1.7183,-15.2115,15.0218,18.9703,
10.8277,-9.5306,11.4276,19.5974,-4.3677,-13.5437,-15.2385,-1.1722,5.7172,8.294,-12.4848,-24.6694,0.020455,3.7321,
-3.922,5.1412,-3.358,17.7984,-18.2056,-26.8311,-17.5772,-15.2019,-8.7258,-6.3036,2.3643,-37.2892,-14.0808,-10.5918,
10.4133,11.1803,-9.5041,2.6305,-18.4962,-11.1213,-2.4226,-7.9318,5.8977,8.1746,16.3225,-20.9518,-3.3184,-0.80985,
-4.3115,-3.5905,-23.0339,-11.6273,-31.4864,3.646,-16.3772,6.6441,19.6439,21.7841,6.0488,-5.5947,10.9807,13.3387,
10.0472,-3.6813,-7.5518,-18.9773,-15.4972,16.4391,-29.4946,20.3455,12.2654,34.5771,-8.4142,8.8409,24.4219,26.6384,
-4.6556,-14.1488,7.0013,-3.7386,-17.3557,1.3527,-33.6077,5.0248,-2.5705,18.4025,-22.0093,-5.7895,8.8566,10.9401,
-18.4763,0.8001,-1.9423,10.5857,-9.8084,-12.8284,-17.4912,-9.3767,-8.2986,3.1983,-6.5888,-19.5421,-5.7748,-3.8163,
-10.5445,-8.7008,-2.755,-4.1495,1.9331,2.0413,-2.3417,-20.8963,6.2993,-11.0936,7.9066,-4.2696,-6.3575,9.4249,
4.1882,-19.3315,-16.6897,-18.0005,9.2522,16.0188,11.8988,-5.5425,20.0213,3.672,21.5322,10.0866,8.1239,22.9594,
18.0369,-4.0716,-1.5883,-23.4264,22.797,29.1577,-2.9151,8.89,4.7201,17.5517,6.1402,23.5814,21.7365,35.6819,
2.8547,-8.6334,12.607,-7.9208,7.3292,13.3082,-8.6341,-5.7434,-9.6631,2.3986,-7.2402,8.0665,6.3323,19.441,
-11.4166,5.9846,-2.2494,6.6545,-1.4748,-1.5903,5.984,-19.4988,5.0167,-11.8453,7.2942,-6.5175,-8.1477,4.1745,
-17.2375,4.5375,2.5326,20.3552,11.6252,12.6051,11.0426,-22.9755,18.8157,-19.6461,0.1921,7.9735,6.4412,15.0772,
-2.1032,-9.8347,-11.7193,5.0339,-3.1723,25.9488,-0.77312,-7.4969,31.7867,-4.3674,1.11,21.5951,20.1547,10.4547,
12.123,4.8554,-0.16902,-9.3681,11.1181,38.4919,13.3733,7.0529,43.9795,9.9947,15.1434,34.3994,33.0455,23.9274,
9.6847,8.7463,-1.0883,-6.1768,-3.649,22.0824,18.4536,20.7177,27.2407,7.6832,28.3348,18.2355,25.4749,8.3918,
-4.9964,22.3215,-15.123,8.2938,-17.5301,6.6574,26.6403,5.3747,34.8885,-6.8778,40.7347,3.0413,9.8464,-6.2117,
-18.7966,8.2765,-1.5098,21.8962,-5.9369,0.2169,10.9419,-9.0478,18.6951,-20.5651,24.1906,-1.1766,-4.8444,8.261,
-3.5688,-6.3201,12.6807,6.4824,8.5193,14.3039,-3.8146,5.595,3.4734,-5.2312,8.6392,12.994,9.5463,21.8653,
10.7453,4.906,1.073,-8.0066,22.1081,27.5457,10.5143,19.3593,-10.835,9.1827,-5.9792,26.3144,23.0735,34.6534,
24.2006,1.8234,-13.0914,6.5738,6.6817,11.7929,12.8304,32.2978,3.9151,22.7317,8.4796,10.6355,21.6889,18.4742,
8.6485,15.814,-26.4059,20.2794,-7.8192,-3.0147,20.4256,16.2599,17.7802,7.2678,22.0708,-4.1026,6.2876,3.2657,
-5.9704,6.3419,-10.7216,4.9626,-21.4501,-16.9338,5.1,1.1843,2.6134,-7.2683,6.6466,-17.9565,-8.1897,-11.0302,
8.4879,-8.1386,4.0217,-9.4351,-6.0631,-1.8178,-9.306,15.2133,-11.6434,7.2678,-7.8522,-2.7791,6.4017,3.7316,
22.0786,6.4497,-10.3196,-22.969,8.4007,12.3913,5.3524,28.4005,3.1552,20.9318,6.7189,11.4877,20.1176,17.6077,
34.8539,13.498,-5.8242,-7.4909,19.3552,2.6593,19.1312,35.8316,16.2955,31.5994,12.1981,2.7395,20.7691,2.4512,
18.6626,16.8704,-9.657,7.0586,4.0939,-11.6003,24.9543,19.5817,1.2178,15.6035,-2.6338,-11.5249,5.423,-11.7958,
8.5541,1.7582,5.0224,-7.4649,14.6959,-25.0043,9.357,4.3068,-12.9553,0.56727,-16.5758,-24.9334,8.5099,-2.5641,
-6.0591,-2.371,8.7448,-0.51091,27.9141,-9.404,-5.3044,13.6605,-5.3547,4.5685,-1.4812,-9.3374,22.0993,11.6897,
8.4044,11.8712,-5.8799,13.6197,40.3393,5.2602,1.8371,26.9409,9.0665,18.3944,12.7076,5.3229,34.8733,25.0883,
22.0001,12.3944,-6.7626,26.9026,23.8189,9.1271,13.8093,11.2244,22.6226,19.4553,13.3396,19.1035,18.6809,9.483,
6.5801,6.0745,-0.78055,18.0006,8.2898,-5.5205,27.0807,-3.549,7.1652,4.188,19.9743,3.8573,3.4601,-5.1859,
20.2853,-8.39,13.3663,13.6675,21.8924,-19.2893,11.3559,10.7639,-7.3647,18.0367,4.6759,-10.4742,17.3525,9.2252,
4.9682,-7.2634,11.9411,26.9474,6.4788,-4.0319,-3.4255,-3.9819,-5.9932,2.8545,-9.7047,-23.9457,2.2113,-5.4283,
-9.4299,7.2724,-2.8753,12.1598,-8.0099,-17.89,-3.5262,-17.843,-19.7336,-11.4167,-1.8341,-36.609,-12.0213,-19.2026,
5.2359,16.4362,-12.303,-2.6698,4.7117,-2.7166,10.7854,-2.6724,-4.4496,3.3683,12.3759,-20.3124,2.7999,-11.3864,
-9.1782,1.35,-25.6648,-16.6096,-9.671,11.5464,-3.9617,-5.6063,9.9174,-4.1106,-2.4666,-4.9937,-7.5918,3.3968,
5.4724,-0.431,-10.0249,-10.1838,5.0092,24.9536,-17.824,8.83,23.4223,10.2361,-16.4186,9.4059,6.9637,17.293,
-8.9559,-11.0935,4.6766,4.5272,-9.3913,9.3564,-25.8899,-5.7998,7.917,-4.4781,-29.5335,-5.2584,-7.5541,2.1554,
-22.5185,3.6721,-9.704,18.3556,-7.7399,-5.305,-10.2366,-19.5518,-6.658,-18.3094,-13.6615,-19.0429,-21.2009,-12.0739,
-7.0674,-5.0717,-9.5866,3.1542,4.3425,9.1133,4.4776,-8.4609,7.8415,-11.0108,1.2582,-3.8003,-12.7996,-22.0372,
7.4566,-14.0618,-23.1114,-11.135,-10.018,22.6665,18.309,6.1467,21.471,3.7499,15.2827,10.5277,2.0684,-6.615,
21.1092,0.8819,-7.6247,-17.9018,4.6831,35.4065,3.1104,19.8779,6.0827,17.6249,0.26575,23.996,16.0443,7.8819,
5.7427,-7.6943,6.9328,-2.7277,-9.6979,19.1821,-11.1762,4.5852,-8.3822,2.4674,4.8969,8.4563,0.98165,-6.691,
-8.7019,6.8674,-7.5832,11.536,-21.5051,3.9312,3.5944,-9.7899,-3.6968,-11.7807,18.7031,-6.1511,-13.1773,-20.3895,
-16.8501,0.72004,6.9718,24.9438,-6.1148,17.7953,17.4787,-21.2853,10.625,-25.1738,25.787,8.3179,1.7134,-5.0662,
-1.7391,-13.4232,-7.5465,9.3472,-19.8477,30.8276,7.1241,-5.9082,24.0875,-9.5634,14.4806,21.9189,13.999,-16.539,
12.4653,1.4822,4.0595,-5.3136,-4.5568,43.0779,20.7966,8.5463,29.2956,5.1104,27.7118,34.7037,27.2591,-1.4467,
-2.3827,15.3347,-4.549,-1.9005,-16.9892,26.3933,33.6489,3.0691,13.4379,8.3635,31.932,18.5215,11.5235,-8.4896,
-16.3397,28.5146,-18.3761,8.437,-30.0699,10.7097,17.5299,-11.215,6.2843,-6.2383,44.1161,3.3102,-3.2679,-22.0802,
-16.7538,12.7038,-3.1735,21.4072,-14.1657,-2.1741,2.3781,-24.6421,8.2306,-19.964,27.3692,7.2941,-1.9838,-6.6554,
-1.6485,-2.1585,6.311,6.0228,0.78428,12.0564,16.3354,-9.0636,21.8368,-4.6661,11.627,20.9564,12.2352,7.8439,
12.5504,-4.194,11.9737,-8.4386,14.8372,25.433,29.4553,5.5802,34.6266,9.7138,21.7761,33.7991,25.6011,21.4733,
25.8973,1.1697,-2.8448,-0.6442,-0.15301,9.807,13.588,19.3454,23.4021,23.231,34.5695,17.6711,9.965,6.0849,
10.2435,15.1995,-16.7741,13.4945,-14.2438,-4.8814,-1.3273,4.0847,34.5454,7.7371,38.8425,2.5108,-4.7329,-8.3802,
-4.4711,15.9876,-7.5501,-1.4152,-27.4892,-18.6885,-15.3477,-10.2604,18.3727,-6.8271,22.4119,-6.4689,-18.5489,-21.9774,
9.8972,0.92835,7.0029,-15.4303,-11.7398,-3.4672,-0.32679,4.4552,3.1703,7.6825,6.9672,8.0192,-3.336,-6.5587,
23.4033,14.9726,-7.5173,-18.0634,3.0645,10.8408,13.7928,18.2879,17.0801,21.3216,13.8375,21.6381,10.9642,7.9348,
36.0991,22.9038,-15.8958,-2.8796,15.2691,10.0318,5.3716,31.2906,15.2842,31.5011,18.1187,6.2398,14.7946,-5.2468,
19.8332,24.3176,-17.7301,11.3932,0.25294,-4.6701,-3.3157,15.3132,0.26716,15.511,2.9316,-8.2346,-0.19307,-19.032,
4.5432,8.7586,-2.5663,-0.76092,13.8732,-18.4899,-17.2167,0.2944,-13.8489,0.48035,-11.3443,-21.8405,-1.4163,-20.9842,
-9.8294,1.4213,4.3994,8.5789,27.1408,-3.2805,-30.2837,14.3767,-27.1179,4.0217,-24.7637,-6.4301,12.7687,-5.6251,
4.8604,15.4361,-9.9646,22.1642,39.6123,11.0163,-23.0374,27.6141,-11.3909,17.8804,-9.1779,8.0557,26.1026,8.8124,
18.6687,18.0688,-12.9256,22.5343,23.1356,24.4553,-7.5552,28.4286,3.3926,25.9429,5.4728,21.6724,10.4364,15.4012,
3.4486,16.0552,-11.2206,13.7467,7.6475,8.888,6.9981,12.6229,-10.911,10.2864,-2.5969,6.272,-4.2898,0.3771,
17.3417,0.99192,3.5526,27.0219,21.2886,-5.7453,-7.5218,25.9655,-24.3563,23.7692,-16.5411,-8.2043,10.0676,14.4545,
2.2012,-3.0913,7.3632,39.5006,5.9113,8.6995,-21.1705,10.3076,-8.7949,8.243,-29.6486,-21.812,-0.45417,-0.5128,
-12.0309,11.1942,-7.1786,23.0306,-8.5434,22.2775,-28.7296,-4.4109,-22.3672,-6.3515,-13.7697,-34.6033,-14.5269,-14.582,
2.791,14.0814,-10.3068,7.5488,-1.8309,35.0408,-12.9058,-10.7998,-6.9252,2.2475,1.1565,-18.4271,-14.4262,-15.713,
-11.4765,-0.86348,-23.7884,-7.0042,-15.8211,47.0384,1.9686,3.9482,7.5903,15.1246,-6.8128,-3.2215,-0.54857,-0.67018,
3.3121,3.5294,-8.2611,-20.6839,-0.77179,32.1224,-12.2496,17.8113,-6.9651,28.3172,-20.5041,11.0718,13.5843,13.47,
-10.9866,-10.7824,6.3346,-5.3429,-9.09,16.095,-25.6146,2.6426,-20.6472,12.5181,-33.3738,-3.6925,-1.3307,-1.4382,
-24.4274,3.9646,-8.1455,9.0777,-22.6446,1.0293,-25.4719,-11.6159,-33.5084,-2.333,-32.448,-17.571,-15.3509,-15.4519,
-8.8618,0.93866,4.8902,-0.76067,-14.1564,15.0676,-9.8436,-25.019,-17.3979,-16.293,-16.4012,-2.4167,-16.5947,-14.0604,
5.7699,-13.2177,-9.5032,-14.815,-27.407,28.2635,4.847,-9.4178,-2.254,-1.2154,-1.3171,11.8283,-1.499,0.88323,
19.5237,1.6754,-5.0566,-28.0261,-11.6626,39.5793,18.6562,5.2472,11.9812,12.9575,-8.0615,25.2186,12.6909,14.9302,
4.2523,-11.4371,9.3468,-12.2446,0.1899,23.1045,3.4368,-9.1676,-2.8376,-1.9199,-21.6778,9.6055,-2.1705,-0.06558,
-10.1028,3.3491,-5.314,2.5901,0.64288,7.6183,17.3306,-22.7175,-16.7674,-15.9047,-6.2772,-5.0708,-16.1403,-14.1616,
2.8915,3.919,3.3696,16.5347,14.7043,21.2612,30.3908,-33.7434,-1.6613,-23.4633,8.1995,9.3334,-1.0719,-6.8063,
6.4359,-10.4162,-10.9326,1.4426,-0.27795,34.0855,14.4673,-17.6188,12.5383,-7.9555,-6.3925,22.8734,-15.1076,-20.4979,
20.1498,3.3792,3.8234,-12.7439,13.8387,46.1404,23.3469,-2.4616,25.886,6.6218,-1.3619,35.601,-0.1011,-5.168,
4.8408,9.6826,-1.9825,-18.3269,-1.0916,29.2719,36.0461,7.5927,10.2329,12.4131,12.8198,19.3649,14.005,2.5778,
-9.5497,23.2016,-15.9636,-4.2154,-15.1261,13.4156,19.7833,-6.9628,-4.4811,-2.4317,26.1506,4.103,-0.93533,-11.6768,
-20.9001,9.5683,-2.7646,10.1375,-0.58269,-1.4893,4.4963,-20.6451,9.8878,-16.3858,26.1233,17.9569,6.3975,3.1238,
-5.5461,-5.1058,-12.3577,-4.5708,10.14,12.7,18.3266,-5.3064,23.3945,-1.3027,10.4559,30.9794,7.4077,-9.6111,
8.8867,-10.6822,-7.8985,-18.3965,23.6316,26.038,31.327,9.112,36.0908,12.8755,23.9285,43.2207,21.0632,5.0656,
22.4535,4.0588,-10.6775,-3.1927,8.1137,10.3758,15.3473,22.6653,46.314,26.203,36.5928,26.5274,24.7521,5.0679,
7.0063,17.9152,-24.1368,11.0988,-6.4731,-4.3468,0.3265,7.2054,38.4229,10.5308,31.9148,10.8358,9.167,-9.3362,
-7.5141,10.4819,-8.5886,-3.6671,-20.1847,-18.186,-13.7931,-7.3269,22.0175,-4.2011,15.8999,-3.9144,-5.483,-22.876,
7.0368,-4.247,6.0267,-17.5471,-4.8737,-2.9948,1.1345,7.2127,6.5964,10.151,0.84594,10.4205,8.9459,-7.4034,
20.7146,10.1078,-8.4349,-11.2236,9.5188,11.2849,15.1664,20.8799,20.3006,23.6419,14.8952,23.8953,22.5092,7.1408,
33.5717,18.7955,-9.7876,3.5498,8.4833,-3.4922,14.256,33.7271,33.1826,36.3234,28.1015,8.3616,23.0179,-5.3703,
17.4574,18.5972,-10.1298,17.4369,-6.1257,-17.3827,-0.69936,17.6035,17.0917,20.044,12.3154,-6.2401,7.5368,-19.1481,
13.1458,3.3813,4.578,2.2906,8.3418,-30.4397,-14.7574,2.4473,1.9662,5.6715,-2.5235,-19.9657,21.1846,-3.8992,
3.9919,-10.604,18.0857,-2.1881,21.9413,-14.5133,-19.1311,16.4004,15.9482,13.6959,3.9863,-4.6678,34.0135,10.4348,
17.8523,4.1323,2.9006,12.0432,34.7248,0.45746,-3.8832,29.5164,29.0913,26.9741,17.8471,9.7123,46.0727,23.9087,
30.5634,17.9843,-11.3734,17.668,18.5413,5.3947,10.4498,13.6454,21.3052,11.2557,2.6765,-4.9705,29.2084,8.3742,
14.6296,16.5877,-10.3735,2.5079,3.3289,-9.029,23.9228,-1.2733,5.9269,-3.5196,-0.27231,-18.7722,13.3559,-6.2283,
27.8518,1.4924,4.349,16.4574,17.2291,-22.5873,8.3874,12.9031,-8.5287,10.7915,-14.356,-31.7459,26.6545,8.2454,
12.0807,-7.7325,13.2234,29.57,2.0954,-7.132,-6.2158,-1.9711,-22.117,-3.956,-27.5946,-21.3181,10.9552,13.1686,
-2.7441,6.8315,-1.67,13.6958,-12.1303,7.3959,-19.9429,-15.9528,-34.89,-17.8186,-25.6216,-34.139,-3.8021,-1.7215,
7.0327,20.5216,-15.6698,-1.226,-15.8913,7.8813,-4.6463,-19.4844,-18.6966,-15.5034,-9.9843,-17.9906,-17.6739,-15.7182,
-7.4893,5.1903,-28.8296,-15.2524,-23.3025,21.5084,9.7325,-4.2153,-3.4748,-0.47318,-0.24988,-2.8112,-2.5135,-0.67513,
7.0601,-1.3212,-12.9999,-25.6377,-7.8044,13.0886,-2.7864,10.1376,-4.343,13.6552,-14.3349,11.4575,11.7373,13.4654,
-7.4635,-15.3419,1.8801,-9.9994,-18.1833,-1.7967,-16.7192,-4.5707,-18.1824,-1.2641,-27.5748,-3.33,-3.0669,-1.4425,
-21.1157,-0.32142,-6.4386,4.7005,-27.7806,-15.7889,-29.8161,-18.3964,-31.1915,-15.2883,-40.0203,-17.2302,-16.9829,-15.456,
-8.8437,-4.0198,2.7772,-9.6815,-12.0138,-0.74154,-13.9271,-30.769,-15.22,-27.8474,-23.5191,-2.0964,-12.3942,-4.4523,
5.7869,-17.8786,-11.4894,-23.2006,-25.393,13.403,1.0085,-14.8229,-0.20677,-12.0765,-8.0079,12.1294,2.4495,9.9148,
19.5397,-2.7059,-4.1356,-32.9613,-9.7694,26.5404,15.048,0.16649,6.3115,2.7481,-21.6275,25.5016,16.4025,23.4199,
4.2673,-9.514,10.2126,-16.8837,3.6707,10.848,0.045137,-13.9435,-8.1672,-11.5168,-30.2356,9.8715,1.3183,7.9147,
-10.0887,5.1568,-4.5002,-1.7706,4.8444,-3.9029,14.1424,-27.2069,-21.7771,-24.9258,-14.3214,-4.8207,-12.8608,-6.6602,
-23.5834,16.7712,-6.5538,12.4356,13.3829,10.4313,27.3939,-39.0513,-6.3705,-37.5303,0.63784,9.5685,-11.6241,1.6398,
-8.0684,1.6649,-20.2606,-2.4105,-1.5201,23.9054,11.6503,-22.6082,8.1117,-21.1784,7.2527,23.0944,-8.6025,-7.2883,
6.5157,12.8766,-4.945,-16.3659,12.6711,36.5711,15.9046,-7.1517,14.5955,-5.8077,2.6351,35.8087,6.0136,7.249,
7.8253,9.7808,-0.46578,-9.0368,12.3757,20.2768,29.0503,7.3774,16.0434,8.3234,16.577,19.5602,12.9295,-7.286,
-6.7443,23.2939,-14.5378,-6.171,-2.4669,4.9602,13.2073,-7.1653,0.98083,-6.276,29.6824,4.2866,-1.9462,-20.9488,
-20.4396,7.7963,0.43444,8.2993,11.7811,-9.4374,-1.6852,-20.8354,-2.6369,-19.9995,13.8014,-10.0706,-15.9295,-5.5919,
-6.8135,-6.7715,-13.6916,-6.2987,25.1743,5.2289,12.5159,-5.4852,11.6213,-8.2581,2.1262,4.6336,-22.0923,-19.3564,
7.6953,-20.4652,-15.9644,-20.0208,37.7638,19.0151,25.865,8.9439,25.024,6.3373,16.0986,18.4556,-6.6668,-4.095,
21.3336,-5.1373,-5.7122,-4.7195,21.398,3.7742,10.2131,22.5072,9.4226,20.0571,29.2327,3.2483,7.8332,10.2507,
5.9536,9.271,-19.4694,9.6637,6.0141,-10.5522,-4.4997,7.0568,19.8512,4.7537,23.4437,-11.0466,-6.7368,-4.4643,
-8.5036,15.2204,-4.2013,-5.0162,18.6655,-24.0191,-18.3297,-7.4666,8.4366,-9.6315,7.9371,-19.3717,-20.4326,-18.2965,
6.1066,0.20716,10.1508,-18.8152,31.6456,-8.478,-3.1299,7.0814,-6.1696,5.0464,-6.6391,-4.1094,-5.1066,-3.0987,
19.8402,14.2947,-4.5583,-11.951,43.8468,6.1307,11.1579,20.7565,8.3006,18.8436,7.8592,10.2372,9.2998,11.1872,
23.4443,21.3372,-9.8615,2.8661,27.116,-8.3371,8.6296,20.7352,21.9025,11.3545,21.4877,-4.4771,0.52498,-3.584,
7.9377,19.5924,-8.8052,16.7941,11.3891,-21.9369,-5.9882,5.3911,6.4884,-3.4267,6.0984,-18.3084,-13.6065,-17.469,
8.5498,4.3168,5.8231,1.6864,15.8176,-34.7207,-19.7289,3.3676,-8.0009,-9.5689,-8.3675,-31.3099,1.3099,-2.3208,
10.3605,-10.0422,19.5737,-12.5147,28.9686,-18.5374,-13.1162,17.2656,6.5791,5.1052,3.6051,-15.3313,15.3313,11.9184,
-4.3612,4.6603,4.2993,-4.3288,13.1304,-3.3252,-11.8646,30.0127,20.2844,18.8989,17.4888,-0.31146,28.5114,25.3033,
10.0005,18.4807,-10.0586,10.031,-1.7574,10.9743,2.9473,18.4528,9.6144,3.665,19.9981,0.47763,12.7007,9.6851,
-4.6995,20.6247,-12.708,21.3529,-15.7519,-3.7841,16.8704,3.2456,-5.0625,-10.6549,4.6982,-13.651,-2.1613,-4.996,
9.6825,5.2872,2.1545,29.3657,-0.70683,-17.6571,1.7582,17.1509,-18.8587,4.0844,-9.6837,-26.932,12.0684,9.4038,
-4.9985,-4.1656,11.1608,41.7037,-7.9412,-2.4977,-12.4473,2.0218,-5.7918,-10.2607,-23.2027,-11.216,-2.7557,-0.14856,
-18.7986,10.1844,-3.6088,25.1015,-21.5647,11.7522,-25.8004,-12.1995,-17.9918,-23.7451,-7.7105,3.5569,-16.6904,-14.2397,
-14.5657,19.1735,-12.9925,9.4954,-28.0122,25.1471,-10.1524,-13.009,-2.8122,-18.9087,6.8521,17.4435,-24.3606,-2.5383,
0.40821,3.9231,-12.2129,-5.1743,-12.2314,37.7382,4.5567,1.8715,11.4565,-3.6742,20.541,30.4969,-8.799,11.714,
14.4837,-3.5891,2.6199,-17.0933,2.6025,23.2328,6.4484,15.8593,-3.3309,10.6462,5.2085,42.7671,5.829,25.1111,
-0.48531,6.3854,-0.019771,-1.9677,-11.6537,7.7388,-8.0385,0.8077,-17.231,-4.0925,-9.204,26.1011,-8.6208,9.5045,
-14.5562,20.1023,14.0814,12.2504,-25.0545,-6.8255,6.5438,-13.3408,-30.1386,-17.947,5.4483,10.435,-22.2035,-5.1658,
-2.5294,4.7962,11.6837,5.6213,-9.4512,7.684,20.2512,-10.6815,-14.2303,-19.6582,19.2214,23.9089,-24.5885,-18.9559,
11.7224,-9.5916,-3.1173,-8.816,-22.9841,21.323,13.7654,4.0594,0.72352,-4.3787,32.1681,36.5744,-9.0132,-3.7185,
25.119,5.0839,-12.0658,-15.5638,-7.5051,33.9846,-1.1605,17.9158,14.7801,9.984,16.138,48.4799,5.6276,10.6046,
9.5119,-9.3211,2.7581,-0.52993,-21.1548,17.8455,-15.1909,2.7409,-0.2067,-4.715,1.0697,31.4711,-8.8101,-4.1317,
-5.1588,5.3381,-11.5074,-11.3449,-33.9855,2.6748,-0.17941,-11.5236,-14.2943,-18.5321,15.1055,15.4828,-22.3815,-17.9838,
9.2507,19.1179,-23.3639,-8.8053,-17.8464,16.6143,13.9314,3.2678,0.66336,-3.3202,28.2992,28.6539,-6.9386,-2.8047,
22.7957,3.8708,-28.0032,-22.377,-27.9288,29.7174,27.1955,17.1718,14.7236,10.979,12.5013,41.0346,3.5423,-15.648,
35.5279,-8.4441,-12.223,-10.6523,-12.153,42.0344,39.6637,30.2415,27.9401,24.4203,-2.3488,52.6726,17.4297,-0.60916,
19.2962,5.0746,2.6104,-8.1541,-14.8355,25.4123,23.1839,14.327,12.1637,8.8551,11.8921,35.4122,2.284,-12.3496,
4.0385,8.9524,-11.6462,-12.7772,-28.0454,9.7876,7.6929,-0.63264,-2.6661,-5.7762,25.2786,19.1875,-11.9531,-25.7086,
-10.3038,1.4447,3.1526,2.0895,-12.2626,-4.8997,-6.8687,-14.6947,8.7945,-19.5297,9.6619,3.9362,-0.3883,-10.0661,
-16.1911,-12.742,2.6458,-12.1359,2.5731,9.4943,7.6434,0.287,22.3669,-11.852,-2.0708,17.8,11.2523,-13.644,
-1.1196,-26.0774,-8.6659,-25.5078,16.5187,23.0247,21.2848,14.3698,35.1248,2.9591,12.1534,30.832,24.6772,1.2747,
13.0476,-10.4128,0.68339,-9.8773,7.7745,7.5432,18.9198,27.6076,38.2767,16.8816,25.5242,14.8821,32.7965,15.2982,
-1.8353,4.312,-13.4576,4.8153,-6.792,-7.0094,3.6846,11.8511,50.0801,1.7687,19.958,-0.11081,16.7287,0.2803,
-15.8252,-10.0467,1.4498,18.6264,-16.9138,-20.6889,-10.6365,-2.9599,32.9753,-12.4374,4.6605,-14.2042,1.625,-13.8365,
-7.9056,-23.5439,15.4629,3.4088,-1.799,-5.3475,4.1017,11.3177,16.8968,2.4088,-9.7191,0.74809,15.6275,1.0937,
6.6687,-8.0313,0.43508,-10.8957,12.409,9.0733,17.9556,24.7386,29.983,16.3643,-8.8186,14.8032,28.7899,15.128,
20.3686,6.5506,-13.691,3.8581,0.65869,3.5758,8.5135,37.3543,42.284,29.4824,5.8105,-0.18499,12.9625,13.4382,
5.0465,20.2575,-22.0049,17.7266,-13.4808,-10.7387,-6.0973,21.013,25.647,13.6135,-8.6381,-14.2739,-1.9153,-1.4681,
0.40311,4.9421,-6.5846,12.6282,-2.7547,-24.1944,-19.8314,5.6522,10.0081,1.3261,-22.2198,-27.5175,-15.9004,-15.48,
-13.7211,-9.4544,7.9105,-2.2295,11.5106,-8.6427,-32.7416,-0.58094,-4.6923,11.4701,-11.4339,-11.7664,-0.84634,-0.45121,
-1.5865,5.2128,-6.6642,12.0043,19.0266,5.9758,-16.6771,13.5539,7.5239,24.8819,3.3521,3.0396,10.2108,13.6759,
12.6087,19.0001,-10.6054,25.384,3.785,0.50561,-1.5764,14.4405,21.1725,25.0888,-1.6549,10.9048,-4.5018,-1.2447,
-2.2478,8.4069,4.131,18.5903,-10.5421,-13.6247,6.1118,-0.52593,5.8021,9.4835,-15.6556,-3.8495,-18.3317,-15.27,
11.987,-6.1975,17.9831,13.7574,4.1904,-26.9072,-8.3549,13.6056,-8.646,23.0145,-28.8163,-17.7185,-3.1318,-0.25381,
-2.8322,-8.4551,19.8396,27.032,11.0678,-11.1928,-21.9536,-1.3107,-22.2273,7.5336,-41.1873,-30.7554,-16.2626,11.0732,
-16.7623,6.1522,4.5492,25.7157,-3.6962,3.5788,-34.7364,-15.3321,-34.9936,-7.0184,-52.8161,-43.0101,-29.3869,-3.6912,
-26.7509,7.9479,2.1114,10.0727,10.6255,17.464,-18.5522,-28.5121,-18.794,-20.6973,-35.5471,-26.3295,-19.5647,-17.5697,
-23.7514,-6.629,-12.1153,-4.6316,-4.112,30.5162,-3.3391,-12.7014,-3.5664,-27.8082,-19.3143,-10.6497,-32.4908,-30.6156,
-8.2263,7.8688,-25.4884,-18.4537,10.2347,42.7852,10.9613,2.1607,10.7476,-12.0397,-4.0554,4.0893,-16.4414,-14.6786,
-21.8328,20.4085,-9.8591,-3.2465,-4.4794,26.1181,-3.7964,-12.069,-3.9972,-25.4173,-17.9121,-10.2561,-29.5549,-27.8979,
-34.6228,33.2839,-23.3675,11.0483,-18.3106,10.451,4.4905,-25.4448,-17.8574,-37.9923,-23.9553,-23.7407,-41.8816,-40.324,
-18.4454,17.1869,-14.2126,-3.7146,-3.112,23.924,18.3211,-38.0181,-2.686,-44.384,-8.418,-8.2163,-49.2745,-52.0046,
-3.2387,2.0557,-27.4598,-17.5917,-17.0253,36.5885,3.1218,-21.6371,11.5752,-27.6209,-22.0129,6.3767,-32.218,-34.7843,
11.0556,16.0324,-17.2889,-30.6362,-1.9037,32.9877,-11.1655,-6.2388,-3.2193,-11.8637,-34.7921,-8.1059,-16.1849,-18.5973,
-3.7077,1.5938,-2.1516,-24.9099,3.9462,16.9084,3.6044,-19.9645,-17.1262,-25.2518,-18.6046,-21.7195,-29.3138,-31.5814,
-17.5852,15.5982,12.0775,-9.3153,17.8094,1.7939,17.4882,-32.8666,-24.1457,-37.8367,-3.3883,-34.5164,-41.655,-43.7865,
-2.4301,1.0271,9.1767,5.3436,28.1992,15.7863,30.5389,-44.9946,-8.597,-41.1426,0.37383,-18.3454,-26.1443,-27.0593,
-16.3843,-13.1345,-5.4739,-9.077,12.4072,28.9391,42.8065,-46.6129,6.0188,-40.0689,14.4514,-3.1447,-38.6757,-39.5358,
-1.3013,1.7535,6.1663,-14.7324,25.7628,41.3027,54.3382,-29.7161,19.7577,-23.5648,27.6843,11.144,-22.2551,-23.0636,
-15.3232,4.9012,5.3317,-0.37166,10.117,24.7246,36.9779,-42.0332,4.4722,-36.2509,11.9233,-3.6246,-35.0198,-35.7798,
-28.5038,18.7071,-9.0882,1.0449,-4.59,9.1411,20.6592,-53.6112,-9.8961,-48.1758,25.3079,-17.5072,-47.0186,-20.2928,
-12.6936,23.4674,-14.4257,15.0822,9.7854,-5.5074,33.5196,-36.2945,4.7977,-31.1853,26.2603,-2.3567,-30.0975,-4.9752,
2.168,7.9594,-5.66,0.077253,15.3986,8.9231,17.4085,-20.0168,18.6098,-15.2142,10.5847,11.8847,-14.1917,-9.0175,
16.138,7.1756,1.1857,-14.0274,28.5747,22.4877,2.264,-4.7158,31.5932,-0.20132,-4.1504,-2.9284,0.75982,5.6235,
29.2697,5.351,2.5086,0.91426,40.9602,7.0384,16.2281,9.6671,23.4862,13.9108,10.1986,-16.8527,14.8142,19.3861,
13.4135,19.1299,-11.7419,14.9594,24.4026,-7.4839,1.1544,-5.0129,36.177,-1.0239,6.0278,-29.9415,-0.17462,4.123,
-1.4913,10.8529,-3.9081,-0.03816,8.8384,-21.1348,-13.0148,-18.8121,19.9064,-15.0625,-8.4338,-42.245,-14.2641,-10.2244,
-15.5018,-3.8983,10.4264,-14.1359,22.4081,-5.7668,1.8661,-11.3358,4.612,-5.9519,-22.0278,-25.6103,0.69171,4.489,
-0.47172,-2.1116,6.3892,-27.3877,35.1636,8.6793,15.8541,3.4443,16.5765,8.5052,-6.6061,-9.9737,14.7502,18.3197,
13.6566,11.4915,-5.6118,-11.6445,18.9538,-5.9415,0.80285,17.3376,23.4822,22.0949,7.8902,-23.4753,-0.23481,3.1205,
-1.2628,14.5199,-8.9929,3.1542,3.7166,-19.685,-13.3453,2.1974,7.9733,6.6692,-6.6832,-36.1668,-14.3207,-11.1667,
-15.287,-0.45132,5.6466,13.6529,-8.589,-32.6039,-26.6446,-12.0345,-6.6051,-7.8309,-20.3822,-48.0968,0.63852,3.6033,
-28.4698,-14.5242,19.4078,-1.2663,6.0263,-16.5477,-39.1459,-25.4124,-20.3088,-21.4611,-27.2064,-31.111,14.7002,17.4871,
-12.6616,0.44721,4.1434,-9.8608,19.7648,-1.4548,-50.8972,-9.7876,-4.9903,-6.0734,-11.474,-15.1443,27.9182,30.5379,
2.1981,8.0143,-3.6991,4.8308,4.4789,-0.58536,-33.7433,4.8996,9.4092,8.391,3.3144,-0.13565,30.8791,14.6056,
-12.0338,8.463,-4.4068,18.641,-9.8899,-14.6502,-17.6187,-9.4944,-5.2554,-6.2125,-10.9845,-14.2275,14.9263,-0.37074,
2.7882,-6.1447,9.9576,6.052,4.8035,-27.8712,-30.6616,5.1753,-19.0401,8.2603,-24.4254,-27.4739,28.1308,13.7515,
16.7209,-19.8761,23.4602,-8.4112,18.6153,-12.0989,-14.7219,18.9648,-3.7977,21.8647,-21.101,-11.7254,40.5429,27.0264,
1.6177,-4.5835,7.9525,-22.0065,4.6338,2.727,0.26139,3.7269,10.5302,6.4528,-5.735,3.0781,24.0103,11.3048,
-12.5794,6.5387,-3.3718,-7.357,-9.7442,-11.5366,-13.8543,-10.5967,-4.2016,-8.0344,-12.9852,-11.2066,8.4697,-3.4735,
-25.9246,-7.9536,10.9305,-4.1271,-12.7186,-24.9444,-27.123,-23.4375,-5.9558,-19.1706,-5.7,3.5658,0.21996,10.8349,
-10.2692,-15.2178,18.0161,-8.0617,2.1445,-30.5657,-36.7963,-7.9313,-19.0753,-3.9203,-15.1167,17.4519,14.3068,24.2848,
-23.753,-12.4461,15.0765,6.522,-12.0842,-42.8318,-24.365,-21.5554,-32.0308,-17.7851,-28.3097,2.3047,1.6724,8.7278,
-36.4278,2.4007,28.2719,20.2307,2.7409,-54.3619,-37.0031,-34.3621,-44.2089,-30.818,-27.382,-11.9335,-12.5279,-5.8959,
-48.3422,-11.8434,32.9227,33.1168,-5.4823,-37.0002,-20.6829,-46.4004,-27.4564,-43.0689,-11.6391,2.8825,-25.8762,-1.9835,
-31.3416,-25.2328,16.8473,17.0298,-19.2533,-20.6802,-5.3419,-29.5163,-11.709,-26.3848,3.1593,16.8095,-21.2178,12.2355,
-15.3611,-9.6188,1.7365,1.908,-3.9981,-5.3393,9.0786,-13.6454,3.0935,-10.7017,-9.8946,29.901,-5.8448,25.6014,
-28.5395,-23.1417,15.7323,15.8936,-16.3055,-19.119,-2.4716,-26.9266,-11.1921,-24.1596,-23.4009,14.0069,-19.5941,9.9653,
-40.9271,-7.6532,0.68836,29.0399,-21.8332,-32.0718,0.4647,-39.411,-24.6206,-36.81,-7.8969,-0.93352,-32.5184,-4.7326,
-24.3715,-21.294,-11.118,13.1975,-6.4233,-16.0475,14.5368,-22.9464,-9.0433,-20.5014,6.6769,13.2225,-16.4673,9.6513,
-8.8092,-34.1163,-24.5509,-1.6943,-20.1379,-0.98468,27.7646,-7.4696,5.5993,-5.1713,20.3763,26.5291,-29.5793,-5.0277,
5.8194,-17.9694,-13.1603,-15.6926,-4.8296,13.1744,40.1987,7.0786,19.3633,9.239,33.2537,39.0374,-13.7045,9.3739,
-4.7536,-2.7912,1.7293,-28.6923,-18.6398,-1.7161,23.6868,-7.4461,4.1015,1.556,17.1585,22.5952,1.2177,-5.2885,
-18.5684,8.9943,-12.4745,-15.3536,-31.6214,-15.7131,8.1656,-21.0994,-10.2446,-12.6374,30.229,7.1394,-12.9553,-13.8007,
-3.3543,1.9487,2.374,-0.33242,-15.6241,-28.8703,21.7757,-5.7334,4.4701,2.2209,42.5153,20.8111,1.922,1.1273,
10.947,-12.2682,6.7203,-14.4125,-0.58669,-13.0381,6.3691,8.7106,18.3019,16.1876,25.8644,33.6624,15.9067,2.7606,
24.3902,-25.6321,20.4171,-21.4476,13.5485,1.8442,-8.113,22.288,31.3038,29.3164,30.8066,45.7427,29.0523,16.6949,
8.8268,-9.9942,5.0921,-6.0608,-1.3644,-12.3665,6.4738,6.8507,27.091,13.4574,43.0582,28.8981,34.2679,29.7933,
-5.8028,4.7055,-9.3135,8.4029,-15.3825,-25.7245,-8.0147,-7.6604,30.1122,-1.4501,40.3162,13.0642,18.1118,13.9057,
8.6453,11.8582,-2.0902,-6.2013,-13.5295,-38.281,-21.6338,-1.6245,19.4764,12.7369,23.7972,-1.8196,8.3543,-1.0287,
22.2266,-2.9533,12.1352,-19.9292,1.3823,-21.8841,-6.2358,12.573,4.2078,26.0727,8.2694,12.3895,21.9531,13.133,
34.993,9.9297,-1.2987,-22.4507,15.3993,-6.4711,8.2384,25.9186,12.0142,38.6084,5.3023,25.7462,34.7359,26.4451,
46.9934,11.6576,-3.5444,-7.0036,8.5815,-20.1828,-0.77877,38.4635,8.9697,50.3919,19.0842,10.1014,35.1233,10.7584,
30.0738,16.07,-8.4436,7.5166,-6.0334,-33.0719,-14.832,22.0557,-5.6685,33.2684,3.8391,-4.6047,18.9159,-3.9871,
14.1694,1.0058,6.163,-4.4052,7.9632,-45.1875,-25.4016,6.6324,-19.4283,17.1723,-10.4912,-18.4284,3.6809,-17.8479,
-0.78076,-13.1545,19.8932,-3.6758,9.8097,-28.3763,-37.9775,-7.8656,-32.3626,2.0419,-23.9617,-31.4227,-10.6399,-23.1242,
-14.8339,1.7347,4.5996,10.6447,23.3211,-12.5737,-33.6812,-20.87,-44.5209,-12.1806,-8.424,-15.4373,4.0985,-7.6367,
0.15612,12.9424,-6.9881,24.106,17.5804,2.2807,-17.5603,-5.5178,-27.7496,2.6502,-0.32472,-0.41109,17.9526,-5.9435,
-13.9532,8.4482,-2.8512,24.6657,2.4255,-11.9561,-2.4067,4.8776,-11.9847,-11.6088,-14.4052,-14.4864,2.7754,-19.6869,
0.98395,-6.1587,11.4199,25.0444,16.38,-25.3388,-16.3623,18.6849,-25.3656,3.1877,-27.6409,-27.7172,16.7089,-4.4057,
12.3841,-11.6719,16.6174,37.6417,16.7917,-9.7184,-29.4806,25.3054,-22.4383,5.1611,-25.2001,-11.9542,29.8059,9.9587,
25.1179,3.1284,1.5204,21.2832,1.6842,4.9647,-13.6117,37.887,-6.992,18.9515,-9.5881,2.863,13.9176,-3.8094,
37.7108,17.0407,-12.6708,19.0768,10.571,11.1727,1.305,49.7138,7.5275,31.9144,5.0872,16.7913,18.3527,10.5191,
36.2188,1.9183,2.1894,3.8322,11.7958,-3.5977,15.3267,57.1022,21.1759,44.0995,18.882,29.8838,29.3344,23.988,
48.1457,-12.2968,16.1581,-10.4977,25.188,-11.1234,0.30707,67.7761,5.8053,55.5535,3.6491,25.3023,41.6743,36.6487,
31.157,-9.2354,12.8649,4.2321,9.5768,-24.556,-13.8114,49.6095,-8.643,38.1203,-10.6699,9.6842,25.0739,20.3498,
15.1875,5.4187,-2.007,18.0782,-5.0979,-37.1826,-24.2942,32.533,-22.2244,21.7331,-24.1297,-4.9969,9.4694,5.0288,
0.17628,-9.0064,12.2135,2.8935,-18.892,-20.8517,-8.7366,16.481,-28.3265,6.3291,-18.0348,-5.3089,-5.1987,-9.3729,
-13.9343,-22.566,-2.6194,-11.3801,-30.4533,-5.5006,5.8876,1.3921,-12.5269,-8.1506,-2.8527,9.1096,-9.2163,5.2894,
1.0018,-7.112,1.4143,-24.7973,-14.5261,8.9295,-8.5656,15.4086,-0.31607,6.4384,-16.7816,22.663,5.4367,19.0721,
-13.1583,-13.656,15.4294,-9.2094,-13.3485,-5.7063,-3.0988,0.38409,-14.3971,-8.0479,-29.8747,7.2033,-8.9895,3.8277,
-26.4688,1.2633,0.40363,5.4431,-19.9829,-19.4639,11.1871,-13.739,-27.6333,-21.665,-13.9822,-7.3289,-22.5501,-10.5019,
-10.7807,-12.9125,14.4794,-4.9485,-4.684,-4.1961,24.6159,-27.0146,-11.8753,-34.4651,0.95673,7.2108,-7.0971,-5.2245,
3.9661,-26.2377,-0.48935,-18.7515,9.6971,10.1557,37.2389,-11.2937,2.9372,-18.2972,14.9993,20.8781,7.4287,9.189,
17.8282,-10.5635,11.1576,-31.7265,23.2152,23.6463,49.1046,3.4839,16.861,-3.0994,-0.00063755,33.7255,21.083,22.7376,
30.8585,-6.6766,12.8118,-15.7229,35.9223,8.1276,34.8353,17.3748,29.9493,11.1866,14.0994,17.6019,33.918,7.2734,
14.907,7.6654,-2.0569,-4.3969,19.667,-6.4601,35.5336,2.2324,14.0524,-3.5846,27.3534,2.4458,17.7829,-7.263,
-0.087452,-2.5537,7.9842,9.9669,32.587,-19.0841,19.3016,-12.0016,13.5155,-9.8754,27.0949,12.3638,24.2987,7.2727,
-7.6652,-16.5004,10.2932,-4.7311,20.7033,-3.839,18.7667,2.8185,26.8046,4.6581,11.3692,25.722,8.7408,4.3542,
6.8947,-24.646,1.3111,-18.5473,33.5611,10.4913,31.7407,16.7494,39.2963,18.4786,24.7871,38.2787,22.3163,18.1929,
20.581,-9.0672,-3.8797,-3.3344,17.4475,-4.2382,15.7362,29.8444,22.8385,31.4699,37.3998,21.882,13.0768,5.3245,
5.2462,5.5768,-17.7469,10.9656,2.3006,-18.0839,0.69204,13.9538,15.2685,15.4817,23.3802,6.469,-1.8078,-9.0949,
-9.1686,-8.8578,-2.5821,18.9782,-9.7615,-31.0988,-13.4495,-0.98346,0.25244,0.45279,7.8774,-8.0191,-15.7993,5.0864,
-22.7185,-22.4263,11.6728,3.7395,4.9242,-15.1329,1.4575,-2.3078,-13.8627,-11.1924,-6.6953,6.5621,-0.75139,18.8812,
-7.2554,-6.9808,-3.1275,-10.5848,18.7288,-0.12493,15.47,11.9307,1.0691,3.5792,7.8064,20.2683,13.3937,31.8483,
7.2799,3.0385,-12.234,4.1503,3.5051,13.9826,28.6418,25.3148,15.1049,17.4644,21.438,33.1522,10.7312,15.8374,
-7.2569,16.9562,-25.6,18.0012,-10.8052,-0.95639,12.8233,9.6959,0.098615,2.3165,6.0518,17.0631,-4.0126,0.78719,
7.2786,1.8388,-9.964,2.8212,3.9431,-14.999,-2.0461,23.2142,-14.0073,16.2775,-8.4113,1.9393,10.3281,6.316,
20.9418,-12.3715,4.7339,-11.4481,17.8065,0.00093248,12.1767,35.9213,0.93314,29.4009,6.1933,15.923,23.8084,20.037,
8.6794,-25.7292,-9.6502,-24.8612,5.7326,14.1009,25.5461,21.2082,14.9771,13.5368,19.9217,29.0676,27.7976,21.9293,
22.2586,-10.0855,-13.2534,-9.2695,9.5707,27.3548,9.9133,5.8357,-0.021481,-1.0687,7.1078,13.2235,12.0298,6.5136,
6.8231,4.6196,1.6418,5.3866,11.3196,11.6135,-4.7815,-8.6144,-14.1202,-15.1046,-7.4187,-1.6699,-2.792,-7.9773,
20.5137,-9.7575,15.6433,-7.3248,24.7405,-3.1833,9.6054,6.0024,-27.373,-0.09828,-21.0736,-15.6697,11.4755,6.6014,
5.1829,4.9279,10.2049,7.2147,29.6034,11.1077,-5.0709,-8.4577,-11.6306,-14.1924,-22.7447,-0.62952,2.5808,8.2229,
-9.2281,18.7322,-4.5074,14.5232,16.2094,24.5413,-18.8667,-22.0503,-25.0328,-27.4408,-35.48,-11.7447,-11.674,-6.3705,
-22.7744,3.5083,9.863,-0.4482,1.1368,17.481,-3.6347,-34.8272,-9.4308,-39.8944,-35.9806,3.06,-25.0736,-20.0882,
-7.3079,10.7331,-4.8288,-14.5213,10.0574,30.3731,10.6834,-18.6376,5.235,-23.4007,-19.7218,16.9764,-21.3928,-4.7829,
7.2305,9.6243,2.5905,-9.6152,23.5539,42.6507,-4.0576,-3.4194,9.2613,-7.8967,-4.4385,30.0578,-6.0092,9.604,
-7.3033,-5.0531,16.535,5.0617,8.0407,25.9917,-17.9141,-17.3142,-5.3944,-21.5229,-18.2722,14.1543,-15.1011,-5.0722,
-20.9651,9.35,1.4429,18.858,-6.5417,10.3322,-30.9393,-30.3753,-19.1707,-34.3315,-31.2758,-0.79494,-28.2951,-18.8679,
-5.6072,14.8306,-4.6852,3.6265,7.9508,23.8122,-14.9829,-14.4528,-3.9205,-18.1716,-15.2993,13.3528,-12.4974,-16.4893,
-19.3708,-0.15926,-18.5041,-10.6911,-6.6263,36.4835,0.016051,-24.7277,-17.4679,-31.1813,-0.28134,26.6516,-25.8475,-29.5999,
-4.1085,-14.2497,-3.2938,-24.1496,7.8713,20.1945,14.1151,-9.1441,-17.3492,-15.2104,13.8355,39.1525,-10.1967,-13.7239,
-17.962,-27.4947,11.0038,-8.6007,-0.036965,4.8828,-0.83182,-22.6954,-30.4083,-28.3978,-1.0946,22.7033,-23.6849,-27.0005,
-30.9843,-11.745,24.4436,6.0154,-5.1466,-9.5101,-14.8819,-35.4337,-42.6838,-40.7939,-15.1289,7.2411,-36.3638,-39.4804,
-15.0252,3.0597,8.877,-7.0513,9.2622,5.1605,0.11101,-19.2077,-26.0227,-24.2463,-0.12118,20.9067,-24.5707,-29.3587,
-0.023708,-11.2239,-5.7556,-20.7282,11.3363,18.9508,3.9806,-3.9552,-10.3614,-8.6915,13.9861,33.7523,-8.9964,-13.4972,
14.0777,-12.5568,8.6897,-5.3845,24.7562,31.9138,-10.3583,10.3821,4.3603,5.93,-0.95307,45.8271,5.6433,1.4126,
-0.86695,-4.8327,17.3039,9.0385,9.1708,15.899,4.3632,-4.3408,-10.0013,-8.5258,5.2924,28.9775,-8.7953,-12.7721,
-14.9149,9.5573,2.1657,2.7607,-5.4795,0.84503,18.2014,-18.1804,-23.5012,-22.1143,19.0749,13.1389,-22.3675,-26.1058,
0.079964,-2.7927,13.8123,16.6951,8.9493,-1.3708,31.2094,-6.866,-7.9912,-6.6874,19.1661,-1.7495,-6.9255,-10.4395,
14.1752,-16.7251,11.1247,1.5934,22.3538,12.8115,29.9489,7.646,6.5883,7.8138,3.9161,12.4555,7.59,-11.3654,
27.4247,-1.6216,-1.1605,-12.6022,35.1126,26.1428,42.2519,21.2872,-7.907,21.445,8.9518,25.8082,21.2346,3.4165,
39.8792,12.5757,-5.7382,-2.3927,47.1058,10.4742,53.8168,34.11,6.6674,34.2583,22.5147,10.1597,34.0606,17.3115,
23.3864,25.9211,-19.4939,1.0037,30.1795,-4.2542,36.4878,17.9634,11.6857,18.1028,35.2638,-4.5499,17.9169,2.1728,
7.8832,22.6543,-12.5888,3.2671,14.2687,-18.099,20.1985,2.7856,-3.1154,2.9166,19.048,-18.3769,2.7419,5.1363,
-6.6898,7.195,2.2665,-11.0289,27.3538,-2.913,18.0572,-1.258,11.1715,2.8997,3.8051,-3.1743,-0.063381,18.9281,
7.8116,-3.7663,-11.9695,-24.4672,39.8125,11.3618,31.0738,12.9175,24.6012,16.8258,17.6768,11.1162,14.0404,31.8924,
21.4429,10.5597,-19.1514,-8.8991,23.3238,-3.42,15.1093,26.2424,14.6012,29.9162,19.71,22.0557,17.6865,18.9731,
6.0564,24.0261,-32.1023,5.7348,7.8244,-17.3148,0.10278,10.5679,-0.37487,14.0212,4.4274,6.6323,2.5253,3.7347,
-8.407,8.4846,-16.0762,-8.7093,-6.7451,-30.3759,-14.0034,-4.1662,-14.4524,-0.92003,-9.9382,-7.8656,-11.7262,-10.5893,
-22.0026,-6.1245,-1.0116,-22.2867,4.2005,-14.4533,-27.2632,-18.0162,-27.6852,-14.9648,-23.4419,6.7063,3.0774,4.146,
-6.5824,8.343,-15.0509,-26.2089,18.0485,0.51388,-11.5274,-2.8353,-11.9241,0.033061,-7.9354,20.4039,16.9927,17.9973,
7.9125,21.9424,-15.0773,-10.5363,25.1715,14.583,3.2643,11.4349,2.8913,14.1311,6.6407,5.0797,30.0732,2.8174,
-6.6622,17.5202,-5.8079,4.1958,9.5612,-0.39194,-11.0316,-3.3512,-11.3822,-0.81679,-7.8577,-9.3251,14.1688,-11.4516,
7.8375,2.369,8.6406,-7.526,23.0876,-14.4684,-24.4697,10.9498,-24.7992,13.3322,-21.4863,-22.8656,27.4186,3.3355,
21.4672,-11.8731,22.2221,-21.1745,35.8023,0.49969,-8.9015,24.3929,-9.2113,26.6323,-6.0971,-7.3936,39.8735,17.2353,
6.0792,2.9393,6.7888,-8.5925,32.1014,14.5697,5.7326,8.8293,5.4414,10.9343,-19.8313,7.15,23.3811,2.1012,
-8.3855,0.59805,8.5463,6.0231,16.0753,9.3547,6.9416,-5.8005,19.2149,-3.8217,-4.5414,9.203,7.8782,-12.1248,
-6.7944,-13.5378,-6.0665,-8.4383,1.0108,22.8934,-5.5572,8.6476,3.962,7.096,9.8311,22.7508,-6.6944,-25.4974,
7.7132,-22.3257,-19.8025,-22.032,15.0501,35.6198,8.8762,22.2287,10.389,20.7702,23.3412,35.4857,7.8072,-9.8675,
-6.8496,-6.8862,-4.5143,-6.6101,0.047115,19.3826,-5.7564,6.795,-4.3343,5.424,7.8408,19.2566,-6.7612,-23.3755,
-20.5386,7.627,-18.3435,7.8865,-14.0557,4.1197,-19.511,-7.7127,-18.1743,-9.0014,-6.7297,4.0012,-20.4555,-36.0729,
-5.2063,20.3286,-31.3429,-6.6867,-18.3129,17.9725,-4.2403,6.85,-2.9838,5.6386,7.7741,17.8611,-33.3171,-27.2323,
9.2061,5.0089,-43.5623,-20.3855,-31.3142,30.9941,-18.0859,14.6454,11.2952,5.7654,-6.7924,30.8895,-17.2181,-11.4984,
22.7537,-9.3916,-26.8485,-33.2623,-15.3353,15.0345,-31.1008,27.8667,-3.4825,19.5194,-20.4848,17.566,-2.085,3.2915,
8.5244,-22.9281,-11.1376,-17.1666,-0.31519,0.032422,-17.2998,12.0947,-17.3736,4.2483,-12.2735,2.412,12.1286,1.3822,
-6.0871,-7.4524,-16.6581,-2.0366,0.47457,-14.0695,-15.797,-2.731,-30.4311,-10.1066,-25.6371,-11.8327,-2.6992,-12.8007,
5.5895,7.0947,-1.5587,12.1856,1.8408,0.87465,-0.74917,-16.6671,-14.5053,-23.6002,-11.8574,2.9773,-16.6372,-10.9443,
-8.8459,-7.431,-15.5651,-2.6455,-12.3697,14.9222,13.3958,-29.7671,0.46504,-36.2842,2.954,16.8986,-29.739,-14.4705,
5.7849,2.162,-0.53122,-16.5868,2.4725,28.1268,26.692,-13.8811,14.5371,-20.0072,16.8768,29.9847,-13.8546,0.49772,
19.5378,-7.2623,13.6006,-1.4916,10.6889,12.3392,10.9905,1.0518,-0.43509,-4.7067,1.7642,14.0856,1.0766,-4.8022,
4.2655,7.2734,0.38509,12.6979,-4.0525,-2.5011,-3.7689,-13.1113,-14.509,-18.5243,-12.4417,-0.8595,-13.088,-18.614,
-10.0904,-7.263,14.462,-2.164,10.2907,-1.8865,10.5572,-26.4246,-11.462,-31.5129,-13.5542,-14.9079,1.7973,-3.3972,
-23.585,-20.9272,-0.50573,-16.1341,-4.4267,12.3267,24.0238,-22.0392,3.3257,-17.5284,1.359,0.086544,-12.4105,-17.2934,
-8.0699,-33.7716,-14.5754,-29.2661,9.9389,25.6871,36.6824,-6.6168,17.2261,-2.3767,15.3775,14.1814,2.4341,-2.1558,
-21.6857,-17.6453,0.39914,-13.4101,-4.7575,10.0459,20.3814,-20.3198,2.0926,-16.3341,0.35483,-0.76953,-11.8119,1.226,
-34.4846,-2.4866,-13.7248,1.4945,-18.572,-4.6569,5.0585,-33.2006,-12.133,-29.454,14.4335,-14.8234,-25.2032,-6.2827,
-18.3155,-11.1667,1.1987,-12.6952,-3.3577,-18.4774,18.855,-17.1086,2.695,-13.5868,27.6675,0.16604,-9.591,8.1943,
-3.1166,-24.5967,7.1678,-26.0335,10.9438,-3.2688,3.6237,-1.9821,16.6333,1.3284,11.9075,14.2561,5.0844,17.3028,
11.1704,-37.2209,6.7378,-38.5715,24.3871,11.0273,17.5063,12.2369,29.7353,15.3487,-2.1359,-0.69928,18.8794,30.3646,
24.6002,-20.8876,18.4159,-22.1572,13.471,-3.7343,30.5559,25.6027,38.6278,28.5278,12.0922,-14.7573,31.8466,42.6428,
9.0242,-5.5344,3.2109,-6.7277,-1.4373,-17.6103,14.6226,9.9665,22.2101,12.7161,-2.7333,-27.9719,15.8358,25.9842,
22.5827,-1.0201,17.1183,-17.7831,11.8189,-30.6536,-0.35479,23.4685,6.7775,26.0532,-16.6693,-40.3936,26.0389,15.9019,
35.3278,-15.0589,30.1912,-30.8161,25.2097,-14.7144,13.7665,29.0196,20.4709,35.1668,-1.5691,-23.87,38.5765,29.0477,
19.1081,-28.2553,14.2797,-43.0671,9.5972,0.26845,27.0405,13.1784,33.3426,18.9568,12.625,-8.3378,22.6263,40.6225,
32.0616,-12.46,12.9583,-26.3831,-5.0787,14.3523,11.3181,21.8404,17.2421,31.9194,25.1851,-11.2378,7.1687,35.3973,
16.0379,2.3876,1.0279,-10.7001,-18.874,-0.6088,-3.461,28.8945,2.1075,31.863,9.574,-24.6635,20.8386,33.2731,
29.1757,-11.8557,15.0662,4.0419,-10.918,-14.6723,10.8466,26.6964,10.6634,26.6984,8.6933,-37.2837,33.6883,45.3767,
13.3251,-11.4506,25.1564,17.8994,-24.363,-1.0862,-3.9041,10.9947,-4.0764,10.9965,22.2717,-37.5178,17.567,28.5541,
-1.5744,3.3365,9.547,30.9254,-33.8951,13.079,-17.7699,-3.765,-17.9318,-3.7633,17.0592,-21.1667,2.413,40.9408,
12.6201,17.2363,-5.1258,43.1699,-29.0732,26.3943,-2.6037,10.5609,-2.7559,10.5625,30.1356,-5.7967,16.3682,24.3844,
-2.2371,2.1021,-18.9183,26.4797,-41.4288,10.7106,11.6525,-4.1728,11.5094,-4.1712,42.4275,8.6511,1.2861,8.8213,
11.9971,-12.124,-3.6832,10.7909,-24.8431,-4.032,-3.1466,10.1776,-3.2811,10.179,25.7819,0.68515,15.3089,22.392,
6.4721,-25.4966,10.6378,24.2435,-9.2525,-17.8901,-17.0578,9.7259,-17.1843,5.0796,10.1349,-13.456,28.4904,35.1485,
-8.0163,-9.8668,-4.1004,36.8889,-22.7973,-30.9167,-28.7404,-4.9576,-2.0532,-9.3252,23.6268,-26.7486,12.681,18.9396,
-20.3887,4.8252,-7.7193,28.4643,-35.5295,-14.9617,-12.9159,-18.7602,12.17,-22.8657,36.3092,-11.0437,-2.1799,3.7032,
-33.2654,-9.5643,-21.3562,12.6565,-47.4977,0.036002,1.959,-15.9232,-2.6602,-27.2168,20.0307,3.7189,-16.1491,10.1459,
-17.1695,4.9512,-5.9748,1.3673,-30.5479,14.1338,-5.4461,-0.86779,11.5994,-11.4838,4.7288,17.5958,-1.0801,23.6372,
-30.2393,9.7658,8.4837,15.3852,-42.815,-0.81419,-19.2194,-14.9157,-3.1966,-24.8948,10.0216,2.4401,-12.4743,8.119,
-42.525,23.2799,18.5043,28.5621,-54.3461,-14.8653,-32.1662,-28.1208,-17.1048,-37.5011,-4.6797,-11.8064,-25.8259,-6.4682,
-25.8735,7.7831,31.3352,12.7484,-48.2858,0.12658,-16.1362,-12.3335,-1.9785,-21.151,6.4482,3.002,-14.3588,-6.8505,
-10.221,-6.7839,15.3551,-2.1165,-59.4886,14.219,-1.0681,2.5065,12.2402,-5.782,20.1613,16.9219,0.60273,7.6605,
4.4922,7.7231,0.3338,0.7985,-41.8193,27.4658,13.096,16.4561,25.6058,8.665,33.0517,30.0066,14.6666,21.3009,
4.0641,-6.8403,14.4138,14.8506,-25.2101,11.7179,-1.7897,13.7567,9.9695,16.6568,16.9686,14.1062,26.0166,5.9228,
-10.2797,7.6702,6.2724,28.0596,-26.6439,-3.0852,12.4176,-1.1687,-4.7287,1.5574,7.4272,-0.84017,10.3556,-8.5325,
-8.1104,-6.8901,19.9961,40.476,-10.9453,11.1999,25.4548,-15.1986,9.655,-12.636,-7.1185,-14.8898,4.7816,6.0794,
6.4763,-20.5767,4.6963,23.9474,3.8115,24.6279,9.8275,-0.18667,23.1757,2.2221,-20.7914,0.10362,13.7882,-4.6681,
20.1877,-7.4067,18.5145,8.4106,17.6828,37.2503,23.3378,13.9245,28.5975,16.1888,-11.7912,14.1974,27.0609,9.712,
21.9123,0.93784,19.5685,-3.8704,17.539,20.9152,7.8376,27.1891,12.7817,29.3175,3.0163,-0.75444,11.3373,23.2292,
6.4976,14.9816,4.2944,3.7971,2.3867,5.5603,-4.0917,11.4577,-2.0852,13.4584,16.9353,-14.8092,-3.443,7.7355,
-7.6751,-0.017325,18.1367,11.0051,16.3435,-8.8733,-0.12852,-3.3297,-12.3311,-1.4491,1.8192,-22.1261,10.8636,20.5899,
-21.3146,-14.1163,18.9074,-3.7552,8.8572,5.7591,-14.2208,6.323,2.5087,-13.286,-12.39,-6.6986,10.6771,5.2545,
-5.9357,-20.5461,12.1964,-17.6299,22.4257,19.5136,0.73244,20.0436,16.4582,1.6112,2.4534,7.8034,24.1364,19.0392,
8.5204,-6.7661,-0.15336,-2.4721,6.9802,4.2427,-13.4115,32.941,1.3707,15.6145,16.4062,-2.7416,8.5883,5.3492,
-6.0908,7.7399,-14.2442,11.7762,-7.5386,-10.1118,-26.7068,16.8645,15.3885,0.57765,29.5218,-16.6771,-6.027,-9.0718,
-0.61304,3.3993,0.7105,4.0989,0.043431,-23.6051,-27.1103,1.7526,28.5652,14.643,13.6505,-29.7765,8.4346,5.5726,
-14.6763,-10.9047,14.7679,-10.247,14.1408,-8.0888,-38.0313,-0.2109,12.7513,21.8118,-1.2685,-13.8899,22.0285,19.3382,
0.30432,-21.245,-0.21821,-23.7322,22.4273,6.4965,-21.6494,13.9018,-2.1138,34.6031,-5.0691,1.0435,31.2359,32.2779,
14.3861,-18.1115,-14.3051,-8.2083,6.9817,12.4541,-6.2504,24.5264,12.113,44.9153,9.3351,-8.313,15.2618,16.2412,
-0.5771,-2.9248,0.65319,6.3842,-7.5372,-2.3932,-17.8103,8.9548,25.4862,28.1204,9.5461,-21.9142,0.24607,1.1668,
13.5575,-16.8493,14.714,8.7892,-11.4145,-16.3496,-30.8417,22.5176,9.8571,40.5332,-5.1267,-34.6994,14.3313,15.1968,
-1.3559,-29.9384,27.9312,-5.8382,-24.8296,-1.2686,-43.0912,7.0665,0.58312,24.0012,-10.7018,-18.5174,-0.62857,28.3849,
-15.3746,-14.0421,12.1553,8.6121,-19.4636,12.9075,-26.4057,-7.4575,2.8716,8.4611,4.0403,-3.3064,11.8095,40.7819,
-0.3521,0.27707,-1.2798,22.1954,-32.3958,26.2331,-10.7214,7.09,16.7993,22.0534,17.8978,10.992,-1.4467,24.2349,
-14.431,-13.8396,11.809,15.5934,-36.3348,10.5591,4.0219,14.723,29.8913,12.0593,4.424,24.4325,-15.4599,8.6808,
0.53489,-27.1092,25.2005,28.7578,-20.0547,-2.6217,15.2396,27.9397,13.9978,25.4357,-9.9414,37.0665,-0.43228,22.26,
-13.5972,-11.3826,23.0651,41.1324,-26.9097,-16.5644,0.2252,12.1633,-0.94204,9.8096,-23.4449,20.7425,11.2117,10.383,
-26.8814,3.4003,7.5812,45.3176,-39.3951,-29.6705,-13.8883,-2.6665,13.2145,-4.879,-7.9382,5.398,-3.561,-4.3399,
-11.1685,-10.9037,-1.0799,28.4985,-31.2961,-13.7903,1.045,-16.6065,26.5216,9.5137,6.6381,19.1741,-17.4474,-12.2848,
-16.8459,-24.3495,-15.1151,12.6886,-43.5184,1.1371,15.0823,-1.5101,32.9777,23.0429,-7.8602,32.1237,-5.8601,2.5523,
-1.7352,-14.2062,-0.10818,-2.1727,-26.8073,15.1689,20.6835,12.6805,16.899,35.7603,-14.6654,44.2962,8.5915,16.4991,
-15.7311,-19.3951,13.9983,12.0576,-17.7637,0.15877,5.3425,-2.1804,1.7851,19.5147,-24.4736,27.5385,4.1998,1.4092,
-28.8872,-4.1314,18.5761,25.4342,-30.6393,-13.9508,-9.0781,-16.1495,-12.422,4.2438,-8.9052,11.7862,-10.1522,-12.7754,
-40.9362,-17.9835,3.3615,9.8081,-35.3064,0.98629,5.5666,-29.2806,2.4233,-10.1108,5.7291,25.179,-23.643,-26.1088,
-24.38,-31.0045,-10.9401,-4.8803,-33.1883,15.0271,19.3326,-13.4237,16.3779,4.5958,19.4854,37.7683,-8.1245,-10.4423,
-8.8172,-15.0443,-4.3897,-13.4058,-17.097,28.2255,28.8608,1.4817,29.4952,18.4201,19.699,49.6022,6.463,4.2842,
-3.9593,-0.041598,9.9737,1.4986,-1.9712,12.432,13.0292,-5.4189,13.6255,3.2149,4.417,32.526,6.0759,-9.1441,
-17.8218,14.0609,3.6402,15.5087,-15.9529,-2.414,25.4178,-19.1938,-1.292,-11.078,18.252,16.4745,-8.3887,-22.6954,
-9.6225,-0.88276,17.5218,25.8786,-0.89572,11.8309,9.7927,-32.1422,12.8855,-24.5133,3.0569,1.386,-13.7685,-7.2337,
5.0548,-14.9298,2.3705,10.2259,-8.5949,25.221,-4.8949,-16.1136,26.2124,-8.9425,-11.2265,15.4028,1.1576,7.3003,
18.8515,0.065997,5.9457,-4.4877,6.0208,37.8078,9.4988,-1.0468,33.0048,5.694,3.5471,28.5787,15.1881,20.9623,
26.2326,2.6913,-3.7052,-16.4483,-8.4404,21.4393,-3.9241,13.116,16.9245,6.7466,14.646,12.7639,0.17685,5.6046,
10.5587,16.4719,-17.5829,-8.955,-22.034,6.0529,5.6057,-1.771,1.809,-7.7582,27.8672,-2.1019,-13.9338,-8.8317,
-4.1748,1.3836,-2.4279,5.6823,-18.6941,-8.4102,-8.8306,-15.7647,-12.3995,-21.3927,12.0952,-16.0758,-19.1388,5.7982,
-16.6195,-12.7994,5.1531,-8.7587,-3.4725,6.1944,-22.4008,-0.71882,-25.7555,-8.6381,-2.7305,-1.0112,-13.343,-8.6497,
-1.5223,2.0685,2.9851,-22.3331,10.8359,19.9227,-6.9568,13.4243,-10.1102,5.9801,-16.6667,13.1494,1.5576,5.9693,
12.669,-3.4737,-11.294,-22.6936,-3.9143,4.6274,-19.3924,10.6015,2.1255,19.7213,-1.5667,-1.7395,-12.6359,-8.4889,
-2.1911,10.8347,-24.7164,-7.232,-17.7794,-9.7503,-32.3288,-4.1346,16.098,4.4381,12.6273,-15.7352,-25.9777,-22.0795,
9.3998,22.5728,-9.1334,-10.2097,-3.2365,-23.2653,-18.613,-12.5575,1.0321,-9.9282,-2.2303,-28.891,-10.319,-6.6548,
-4.6412,7.1184,5.5146,-23.6971,11.0577,-7.7694,-31.5962,-2.9748,-13.1298,0.89058,-16.1965,-13.0576,4.4001,7.8445,
9.7372,-3.838,-8.9163,-36.3753,24.4942,6.7968,-15.6004,11.3037,-26.442,14.9371,-5.613,1.8259,18.2361,21.4738,
23.253,10.4923,-2.1812,-20.0928,37.1246,9.0189,-0.56439,24.7255,-10.7555,22.7121,8.8238,-10.2188,3.0419,6.0854,
7.7578,23.9627,-6.6976,-4.7872,20.7971,-5.6222,-5.3364,9.142,-24.2102,7.2494,-5.8056,-23.7057,-11.2406,-8.3797,
21.3924,8.425,7.8042,1.5411,33.6493,-19.3849,-19.1162,22.6935,-36.8576,20.9144,-19.5573,-36.3833,3.5339,6.2231,
6.0088,-6.1805,13.6833,-12.6514,33.9429,-4.1218,-32.0692,7.2318,-20.5461,5.5596,-4.2839,-20.8712,-10.7782,12.6621,
-8.4517,8.2903,-1.2377,-14.0567,17.8063,10.2255,-21.4626,-7.3021,-7.3782,-8.874,10.0732,-33.7189,-24.2315,23.0551,
6.1554,21.8929,-11.2284,0.88669,22.4732,23.712,-6.0748,7.2361,7.1645,3.1285,18.1398,-17.5958,-8.6776,7.5718,
0.98043,14.6852,3.5453,14.9335,17.8717,8.1893,8.3897,20.9019,20.8346,5.2647,2.9514,-2.44,5.9431,-5.2707,
15.0216,-0.29587,17.4326,9.0726,30.8994,-6.4021,-6.2137,33.7478,5.4845,19.0488,-11.3257,8.7005,19.6865,9.1455,
0.020306,8.71,16.9987,22.6283,14.9455,-20.118,-19.9409,17.6229,-8.9445,3.8059,-24.7462,-5.9215,4.4053,0.53743,
-14.0809,22.2874,1.8788,35.3706,-0.051253,-33.0109,-32.8444,2.4655,5.6921,-10.5225,-9.1614,-19.6662,-9.959,-13.5948,
0.86394,20.7916,0.065771,19.1483,-14.1482,-16.9302,-16.7738,-11.7824,19.4506,-20.4214,5.4883,-4.3862,-17.2618,-17.267,
-8.9471,5.4441,-14.0382,3.8994,-27.3993,-1.8144,-1.6673,3.0246,18.8956,-5.0961,-8.941,9.9769,-7.8612,-2.1309,
5.6897,1.5584,0.90411,-10.4345,-11.6553,6.8175,2.9206,16.9431,3.6619,9.3097,-11.8051,23.4783,6.7105,12.0969,
-8.7516,2.8589,14.9499,4.2915,-19.0032,-7.6915,-11.3547,1.8265,-10.6578,-5.3489,-20.8557,7.9696,-7.7921,-2.7289,
-22.3265,16.7873,-0.047124,18.134,-31.963,-21.3301,-24.7734,-12.3831,-24.1183,-19.128,-11.2394,-6.6085,-21.4246,-16.6652,
-22.2217,11.9036,5.0676,2.946,-16.8751,-5.9502,-9.187,-25.7401,-8.5712,-32.0803,3.5349,7.888,-19.5155,-22.636,
-6.7884,-2.9106,-9.3365,-11.3308,-25.6215,8.5068,5.4642,-10.0957,6.043,-16.0555,17.4228,21.5147,-4.2446,-7.1778,
7.7189,11.3641,-14.6588,-19.7865,-9.9842,22.0964,19.2364,4.61,19.7804,-0.99215,2.2775,34.3238,10.1101,7.3528,
-6.8443,10.6822,0.32074,-4.4993,-23.0203,6.6706,3.9822,-9.7666,4.4936,-15.0326,-11.9592,18.1644,-4.5965,-7.1883,
-20.5336,24.1413,-2.1807,9.8707,-21.6393,-7.8297,17.8433,-23.2806,-9.876,-28.2307,-3.8063,2.9745,-18.4207,-20.857,
-24.8778,8.5928,12.0501,23.3784,-6.241,6.7401,15.2201,-35.9837,4.8166,-40.6368,-17.6779,-11.304,-31.4155,-25.1819,
-9.2852,-6.0228,-2.7729,7.8757,8.2335,20.4357,0.20688,-19.7247,18.6276,-24.0986,-22.9646,3.4743,-15.4306,-9.571,
5.3719,8.4386,-16.5477,-6.6968,21.8395,33.3096,-13.9055,-4.4412,21.6922,-8.5527,-8.5749,17.3658,-0.40473,5.1033,
19.1496,19.0855,-1.6136,-11.5657,6.4291,17.211,1.0288,7.9079,6.2906,6.0605,-16.4252,2.2239,-2.3981,6.3379,
3.9006,26.7695,-15.6168,-5.7599,-8.0566,2.0783,15.0671,-6.6666,-8.1868,-8.4032,-1.3396,-12.0096,-16.3542,-8.1424,
-10.4334,11.0633,-0.57982,8.6857,-21.2082,-12.1464,0.063048,-20.3666,-21.7956,-21.999,1.8348,-25.389,-14.7502,5.052,
4.2926,-3.7005,13.555,5.6826,-5.8357,2.6824,-14.0407,-5.0446,-34.5879,-6.579,-12.3753,-9.7656,0.23481,1.4967,
18.1351,10.6215,2.3593,-8.7584,8.6144,16.6215,0.90171,9.3581,-46.6126,7.9157,-25.7328,4.9203,14.3207,15.5069,
30.0474,-3.798,-11.8822,-17.8333,-6.0024,1.5242,-13.2524,15.7671,-29.7158,19.3644,-10.0888,-9.4749,-0.63853,0.47645,
14.1446,10.5299,-25.2693,-5.6101,-19.7423,-12.6673,-26.5572,0.72104,-13.8329,4.1025,4.6165,-23.0064,-14.7002,-13.6521,
-0.80409,6.0219,-9.6531,-15.497,-30.6406,-26.0072,-39.0638,-13.4222,-27.1029,-10.2436,-9.7605,-35.726,-20.3241,-20.575,
-14.8558,-8.4394,5.026,-28.6672,-14.7021,-10.3468,-50.82,-26.7169,-39.5767,-23.729,-23.2749,-19.4825,-5.0047,-15.6229,
0.1355,5.7023,-5.4991,-41.0472,0.27998,4.374,-33.6708,-11.0139,-37.3376,-8.2053,-7.7784,-4.2135,9.3956,-0.58549,
14.2274,-2.5399,-7.4928,-24.4843,-13.8368,-9.9884,-17.5505,3.747,-20.9974,6.387,6.7883,-18.0607,-5.2681,-14.6504,
-0.72627,11.7125,-10.7609,-8.9153,-27.1066,-23.4891,-26.7097,-10.5779,-11.0672,-8.0962,-1.0543,-31.0771,-19.052,-27.8713,
13.4173,-3.0903,3.9848,-3.7337,-11.3802,-36.1798,-39.2072,4.1568,-24.5032,6.4896,-15.091,-43.3125,-3.8089,-13.9577,
-1.4877,-17.0049,17.8457,-17.6097,3.4026,-19.909,-30.19,-10.1926,-37.133,-7.9998,-0.085555,-26.6137,-17.6804,0.97979,
-15.4985,-1.8846,2.675,-2.4531,-10.9016,-4.6144,-14.2786,-23.681,-20.805,-21.6198,14.0196,-38.4817,-30.7195,15.021,
-0.46856,12.3285,-7.8679,11.7941,-19.7004,9.7624,0.67808,-8.1602,-5.4567,-6.8345,20.4552,-22.0728,-35.2237,0.019746,
-14.5404,-2.5112,6.7042,25.1864,-4.4184,-4.9233,-2.9328,4.2652,-0.94704,-20.5244,5.1278,-6.6485,-31.7156,-14.0814,
0.43198,-16.4605,20.4019,9.5752,9.9467,-18.7279,-16.8568,18.1093,-14.9902,-5.1929,-9.2798,-20.3496,-15.7127,0.86345,
-13.6939,-1.3729,8.1721,23.1007,-4.7501,-31.7043,-29.9454,2.9228,0.0091955,-18.9814,-11.6583,-33.2286,-14.9287,-11.8943,
-26.9723,12.8095,-6.4182,35.8147,-18.5651,-43.902,-33.8724,-11.3526,14.1086,-31.9425,3.1412,-45.3349,-28.133,-25.2807,
-15.8904,11.4173,3.4198,19.5658,-27.2095,-27.1679,-17.7401,-24.7714,14.9628,-17.1611,-8.359,-28.5148,-40.545,-30.1112,
-15.8659,-3.3677,-10.8854,4.2918,-38.5889,-11.4378,-2.5757,-9.1852,23.359,-2.0315,-21.9575,-12.7039,-24.0123,-14.2045,
-0.81397,-15.0895,3.8677,-10.0657,-22.1736,3.3485,-16.5211,5.4659,7.8574,12.1904,-26.9874,2.1583,-8.4716,0.74776,
-14.8651,-8.1428,17.7357,4.6383,-34.9432,-10.9524,-29.6299,-8.962,-6.714,-2.641,-39.4681,-12.0712,-22.0633,-13.3971,
-28.0732,6.4457,9.0776,18.46,-44.929,-24.3953,-13.7521,-22.5243,-19.0056,-16.5826,-23,-25.4469,-34.8395,-26.6933,
-40.4888,2.6474,11.321,3.2524,-28.1332,-8.8316,1.1731,-35.2728,-3.7653,-29.6876,-7.52,-9.8201,-46.8491,-39.1917,
-23.9595,-7.7352,-3.4583,-11.0428,-12.3452,5.7983,15.2027,-19.0565,10.5606,-13.8063,-18.3806,4.8691,-29.9382,-22.7402,
-8.4219,6.8289,2.4845,-19.2095,2.4955,19.5504,0.19051,-3.8131,17.9742,1.122,-31.3778,18.677,-14.0419,-7.2758,
-22.0166,-7.6809,16.4354,-3.9569,-11.7542,4.2774,-13.9209,-17.6843,2.7957,-13.0453,-15.3951,3.4564,0.90064,-20.9392,
-34.7956,6.88,10.1791,10.3805,-17.4076,-10.0793,1.0143,-30.7232,-3.2543,-26.3626,-0.37139,-10.851,-13.2534,-33.7829,
-18.6079,-7.6328,23.6683,16.876,-2.2632,-21.7039,10.3949,-33.051,11.0409,-21.8338,-14.4491,-24.3,-19.7347,-17.6559,
-3.3914,-17.863,28.5951,16.3279,11.9726,-6.3017,-4.3288,-16.9679,24.4785,-6.4238,0.51784,-8.742,-4.4506,-2.4965,
10.9121,-2.6912,12.7794,1.2482,25.3542,8.1764,1.6659,-1.8499,27.8041,8.0617,14.2696,5.8826,9.9164,11.7532,
15.2105,-12.9123,0.088839,-7.0329,9.733,-6.4142,-5.4047,1.1966,12.0358,21.678,27.5135,-8.5704,-4.7786,-3.0519,
0.19783,1.9624,-14.0165,7.4891,-4.951,-20.1293,9.0196,-12.9752,22.1606,6.2773,39.9627,-22.1562,-18.5919,-16.9688,
-13.914,-6.6786,0.9245,21.1398,2.6226,-33.0215,-0.04491,-26.2967,6.731,-8.1993,23.4649,-34.9268,-30.0233,-15.4854,
1.0208,-20.3779,14.969,5.7714,16.5652,-16.9403,-14.1422,-10.6189,-7.7729,6.3926,7.957,-18.7312,-14.1219,-8.98,
15.0596,-5.0552,5.0828,-8.6749,29.6713,-1.8238,-18.2468,4.1183,-21.4065,20.1091,-6.6204,-3.5073,0.82538,5.6588,
28.256,7.3307,-9.3222,-8.1542,13.7911,-15.8144,-3.052,17.9712,-6.0221,22.6088,7.8768,-17.3969,0.45873,-8.7808,
12.4606,20.9909,-22.8629,3.4882,-1.1364,-28.9655,11.2311,2.7929,8.4392,7.1523,21.5042,-30.4531,-13.6688,-22.3539,
-2.387,5.6314,-7.3911,-10.821,-15.1682,-41.3276,-3.5427,-11.4747,-6.1671,-7.3768,6.1139,-42.7259,-1.0723,-15.7427,
-16.3438,-8.8065,7.1524,-24.2718,-0.15813,-24.748,-17.4302,-18.5275,-19.8971,-21.0342,-8.3529,-26.0623,13.092,-7.3624,
-29.4523,5.8219,-7.3768,-8.7155,13.9514,-9.1631,-2.2844,-3.3159,-32.8033,-5.6722,6.2483,-10.3986,26.4065,7.1794,
-13.5852,11.0491,1.1245,5.9075,23.1795,5.4867,11.9527,-0.95229,-16.7351,-4.0855,11.9142,4.3253,10.7221,-7.3514,
-26.87,24.4861,-13.0429,19.653,7.6887,-8.9425,-1.1646,-14.9952,-22.2256,-17.9404,-2.9006,-10.0342,-4.0212,-21.0103,
-11.1578,8.917,1.8396,4.3738,-6.8726,-22.5059,-15.1948,0.0045533,-34.992,-2.764,-16.8266,-23.5321,10.3201,-21.4499,
-24.5884,-3.7007,13.8119,-9.9886,-20.5602,-7.0556,-26.6715,-14.0957,-32.2691,-16.6981,-4.3469,-21.9621,5.3589,-10.404,
-37.2131,10.6214,-1.1168,-6.4427,-25.3573,7.4677,-10.9712,-27.35,-16.233,-29.7962,10.0139,-6.5444,-9.0626,4.3203,
-20.8803,14.9372,-6.0029,8.0439,-23.3708,0.35499,3.7871,-11.609,-1.159,-13.9085,-4.6869,7.9483,-12.5419,-6.7861,
-13.5857,-0.059028,8.4572,21.3441,-7.8686,-13.7663,17.6598,3.1876,-15.1895,-11.0563,-18.5057,21.5714,-3.8895,-20.479,
1.3294,-14.1555,22.0498,5.9635,6.7036,-4.417,2.5003,17.0963,-28.3781,3.707,-31.4953,6.1771,10.4439,-5.1502,
-12.8503,0.79384,6.6268,19.7056,-4.7039,-18.252,-11.7498,1.9705,-12.5754,-10.6154,-21.8523,-8.2935,-4.2827,-18.9412,
-26.1793,14.8462,-7.8708,32.6233,-18.5217,-31.2569,3.0552,-12.2477,2.2791,-24.0785,-6.4412,-21.8959,-18.1258,-31.9047,
-10.5086,26.038,-19.4811,16.5659,-27.0108,-15.2815,7.6665,-22.042,7.8665,-27.5866,-10.3962,-6.4821,-31.1382,-30.6025,
-20.1018,10.3758,-29.9298,1.472,-31.4317,-0.26459,-6.8935,-6.6195,2.2827,-11.8314,-23.8724,8.0068,-15.1699,-18.078,
-4.7957,-4.3468,-14.0341,-12.7164,-15.4458,13.8513,-20.5799,7.8777,-11.9543,2.9785,-36.5401,21.6264,-0.15972,-2.8933,
-18.608,9.2432,-0.8036,2.1466,-27.2246,-1.0798,-33.4451,-6.695,-25.337,-11.3003,-48.4477,6.2288,-14.2501,-16.8197,
-31.5915,22.7886,6.2156,16.1178,-11.4911,-15.115,-17.3384,-20.3933,-33.7235,-24.7222,-31.4408,-8.2449,-27.4951,-29.9105,
-15.596,7.3213,5.3776,1.0508,3.2984,-0.1081,-2.1981,-33.2697,-17.6001,-37.3389,-15.4543,6.3498,-17.6284,-42.2159,
-0.56025,-1.9476,-9.0451,-13.1123,17.2005,13.9984,12.0338,-17.1735,-2.4441,-20.9986,-2.7503,20.0688,-2.4707,-25.5829,
13.5734,12.2693,-20.4262,-26.4256,30.2684,27.2585,-2.7883,-2.0431,-2.1497,-5.6387,-16.6853,31.8653,11.7776,-9.948,
-1.341,-0.70803,-5.1006,-10.74,14.3523,11.523,-16.721,-16.0205,-16.1207,-19.4003,-29.7842,15.8534,-3.0291,-23.4511,
-15.3606,13.4345,9.3054,4.0044,5.5795,-3.2684,-1.6177,-29.1593,-1.0535,-32.3363,-13.8971,0.80222,-16.9473,-36.144,
-28.5389,-1.4716,15.8653,-7.6951,3.3857,-4.9311,4.2146,-41.5097,9.2335,-44.4961,-18.0166,-13.3459,-30.0305,-35.981,
-12.7266,-7.4246,12.1251,-21.3334,17.2826,9.4647,-10.1382,-24.9191,22.7795,-27.7264,-31.0356,1.5548,-14.1287,-19.7221,
2.137,7.1209,-2.7024,-34.1534,30.3456,22.9969,4.5701,-9.324,7.3127,-11.9628,-43.2735,15.5616,0.81904,-4.4388,
16.1088,2.8174,1.336,-18.0042,14.4249,7.517,18.3958,5.3355,-7.226,2.855,-26.5771,0.52786,10.8351,9.9275,
1.0422,16.7483,-12.8442,-2.8239,-0.54063,-7.034,31.3921,-9.0847,7.3075,-11.4163,-10.8824,-13.6038,-3.915,-4.7681,
-13.1203,1.6434,2.0265,-4.0485,-14.6082,-20.7119,15.4086,-22.6396,-7.2309,-24.8313,-24.3295,-26.8876,-17.7801,-11.7706,
-10.9393,-12.3966,15.8463,-13.5648,0.3683,-5.3692,0.38406,-7.1812,-20.8971,-9.2415,-36.9697,-11.1743,-2.6133,-2.2348,
3.8171,2.4472,0.79554,-26.8509,14.4462,9.0529,-13.739,7.3497,-33.7433,5.413,-48.8515,3.5961,11.6435,11.9993,
17.6881,16.4004,-13.3522,-11.1398,-0.52057,-5.5902,1.1854,21.0087,-17.6187,19.1882,-31.8204,-10.7196,20.7039,2.2915,
2.5268,29.5163,-26.6511,-4.8945,-14.5893,-19.3548,15.2142,5.6482,-2.4615,3.937,-15.8112,-24.1765,5.3616,-11.946,
-11.7248,13.6454,-10.952,-14.8246,-20.9909,-32.2935,0.20138,-8.7907,-16.4138,-10.3993,-28.9625,-36.8259,-9.0601,-25.3293,
-25.1213,-1.2734,3.8051,-28.0352,-5.6315,-16.2559,-13.9107,-22.3633,-29.529,-20.4637,-41.3248,-48.7163,-2.6222,-9.7095,
-9.5141,12.903,-10.5232,-39.6707,8.8064,-1.1806,1.0239,-6.9215,-40.758,-5.1359,-24.7453,-31.6933,11.6351,4.9731,
5.1568,-0.73548,2.9725,-23.1904,5.6375,-15.2097,15.0625,7.5938,-24.2125,9.2723,-9.1606,-15.6917,-2.2338,15.8274,
-9.2526,10.9264,-8.8236,-7.699,-8.8008,-28.3972,0.058751,-6.9618,-8.6597,-5.384,5.489,-28.8502,-16.1997,0.77778,
5.4025,-3.8291,5.8058,-9.4137,-22.3727,-40.7933,-14.0448,6.9318,-22.2402,9.039,-8.9403,-41.2192,-1.1278,-13.3689,
-9.0216,-6.6939,8.552,-21.8609,-16.9949,-34.6165,-2.3551,-7.5841,-24.7824,-5.6033,5.6961,-52.1998,-15.1601,-5.7437,
-22.5803,7.8077,-6.0612,-6.4492,-18.7639,-46.6395,8.0097,-21.229,-9.1955,-19.3671,19.4544,-63.1678,-28.3505,8.7009,
-7.1255,2.0688,-0.42703,8.0377,-3.5381,-29.7412,11.7116,-5.8553,5.4563,-4.1051,32.3871,-45.2778,-12.5495,0.12037,
-9.4862,-12.1553,12.6104,4.9149,-3.0195,-13.8567,21.2327,8.596,-8.9711,10.2412,16.3439,-28.4611,0.90906,-13.9869,
5.183,-25.526,25.9538,-9.48,11.2616,1.0747,5.8587,22.1803,-22.5329,23.7267,1.2632,-12.6534,14.9545,0.95236,
-9.228,-9.8944,10.2965,5.1888,-0.7256,-13.0898,-8.5928,6.7495,-7.0809,8.2031,15.2874,-25.9942,-0.042759,-13.2048,
-22.7743,4.7992,-4.4213,18.9775,3.5004,-26.4044,3.8577,-7.7555,7.444,-6.3891,28.4702,-10.3346,-14.1402,-25.7305,
-7.3079,3.1171,-1.6735,3.7388,9.7963,-10.7201,13.8498,-21.3902,17.8332,2.2004,18.5445,4.3855,-27.3918,-10.2455,
7.2306,-11.17,-1.1083,-10.5855,-1.4801,4.0231,-1.0812,-6.0068,20.016,16.1684,3.3318,18.2224,-11.6483,4.4692,
20.8968,-24.5998,13.0582,-24.0504,12.7087,17.8817,-15.1163,8.4536,4.7151,29.2983,-10.9681,3.029,3.1506,18.3011,
5.543,-9.3298,12.1159,-8.5073,-2.1538,2.7088,-28.3093,-6.1536,-9.6678,13.4404,-24.41,-11.2527,-11.1384,3.103,
-8.8896,5.33,20.2178,6.1031,-13.6421,-11.5537,-12.5108,-19.8844,5.0122,-1.466,-8.8454,-24.6775,-24.5701,-11.1832,
-22.4562,-7.6956,8.7816,11.778,1.2764,3.2395,2.3399,-32.7913,17.4179,-15.4781,5.7853,-9.0969,-37.1959,-20.7355,
-7.0089,-21.3339,-5.8452,-3.0287,15.2998,17.1451,7.0055,-16.7238,27.5256,-0.44937,-8.6618,5.5489,-20.8641,-5.3914,
7.5117,-5.9538,-17.4184,-16.947,28.4818,30.2164,-7.5148,-1.6204,11.7741,13.6776,-22.2421,19.316,-5.5123,9.0321,
21.161,-4.667,-2.2733,-1.8301,14.2144,14.3034,0.5302,12.5768,-3.0324,26.9569,-6.8076,4.057,8.9184,-2.0507,
5.7913,9.7131,11.9631,12.3797,-0.73848,27.5452,14.5984,-2.2778,11.2496,11.2395,7.7009,-10.2864,-5.7167,-16.0277,
-8.6562,-4.9697,25.3454,-1.8397,-2.8593,39.9925,-0.37751,-16.2411,24.6746,-3.5349,4.1446,4.4308,-19.4737,-0.96603,
5.9632,-14.8953,16.8426,-3.1238,11.4123,51.693,13.7451,-1.1667,37.2941,10.7772,17.9959,18.2649,-4.2052,13.1919,
19.7054,0.098397,1.732,-0.14769,24.8276,62.6914,27.0204,13.0033,20.9565,24.2306,2.8161,31.269,10.1471,26.5004,
14.0235,-13.0781,14.7987,10.0845,9.2379,44.8299,11.2992,7.5763,5.5991,8.6768,6.8294,15.2929,-3.9379,10.8104,
-0.91794,1.8066,-0.18922,23.5794,-5.4164,28.0401,24.7213,-6.9783,19.3631,-5.9438,20.5197,0.27533,-17.8017,-3.9382,
-11.3927,-4.5019,6.0222,18.753,-19.1914,12.2577,9.138,-20.6596,4.1013,-19.6872,5.6531,-13.8412,-11.4635,-2.3079,
-9.3144,-18.3318,19.7609,13.4456,-3.9399,25.6222,-5.5103,-5.32,-10.2447,-15.5592,-8.7861,1.0893,3.3243,1.0836,
5.3444,-3.5965,4.9398,14.4977,10.3965,38.1849,-19.2797,9.0992,-23.7301,-0.52562,-22.3589,15.1239,17.2248,15.1186,
8.5822,-13.6042,-9.4566,27.7278,16.5846,38.6592,-4.0229,12.2711,-8.2062,-14.5941,-6.9174,0.11649,9.8329,14.0531,
-6.0327,1.312,-22.9892,11.9642,1.4896,22.2396,2.2593,-2.5651,6.3861,-27.8184,7.5976,-13.9905,-4.8571,-0.89006,
-19.7708,-11.4727,-7.5098,-2.8537,1.0939,6.8053,-11.9762,-16.5112,-8.097,-40.2493,-6.9582,-27.2511,-6.7303,-14.9367,
-32.6845,-11.7137,7.0408,-16.7825,15.1283,-7.7031,-25.3577,-24.9626,-21.7112,-42.6285,-20.6407,-39.716,7.7735,0.059546,
-16.6235,3.0891,-7.4817,-13.1347,28.3206,6.8591,-9.7362,-9.3649,-19.468,-25.9708,-5.3023,-23.233,21.4071,14.156,
-1.526,15.2924,-9.6624,1.7533,15.6156,20.5476,4.948,5.297,-4.1999,-10.3125,9.1159,-7.7391,10.9753,21.6711,
-15.5345,28.4748,-23.1827,15.7481,0.5787,33.4147,18.7511,-9.1208,10.152,-23.7938,22.6689,-21.3747,-3.7832,6.2709,
-0.50242,12.6663,-7.6917,0.70326,-3.4795,17.3098,3.526,5.5265,-4.5571,-8.2661,7.2088,-34.1922,10.5438,19.9946,
13.6277,-2.1936,6.8698,-13.4389,10.8293,30.3713,-10.7855,19.2949,-18.3837,6.3298,-7.3238,-18.0407,24.0112,32.8949,
-1.2899,12.038,-7.6424,-22.3911,24.2795,42.649,-3.0087,24.6324,-3.1806,20.05,7.2157,-2.8583,34.4948,45.0212,
12.8875,21.5393,-17.4074,-6.9477,8.7227,54.19,4.6072,9.0545,11.1102,11.2414,20.8827,11.4132,18.3251,28.22,
-1.9858,6.1469,-2.263,7.5692,-5.9006,65.0386,0.14826,10.993,-3.6564,-0.12124,5.5298,-3.3716,3.1256,12.8909,
12.2334,-8.3219,11.9728,-6.9849,8.3946,47.0363,-13.9606,24.4334,-17.537,13.986,-8.902,-17.2693,17.038,26.2175,
-2.6006,-4.2522,7.684,7.5342,-6.209,30.1141,-27.223,8.8674,-20.2025,-0.95313,-10.0679,-30.3331,1.9158,10.5444,
-16.5446,10.1029,-6.877,21.1821,-19.9365,14.2073,-11.4896,-5.7646,-4.8903,-14.9959,4.6361,-36.8779,-12.2992,-4.1883,
-1.4519,2.8321,0.20028,5.8112,-12.8463,27.4549,3.2998,8.6812,-14.9788,0.0038171,13.494,-20.5652,2.5388,10.163,
-6.3173,-11.4378,-13.9117,-8.6375,-26.1755,39.9076,-10.9982,22.2604,-28.1801,14.1036,-1.4157,-5.2313,-4.2669,2.1188,
8.1618,-24.8516,1.023,-22.2192,-10.5049,51.6131,-24.4383,35.0247,-40.5893,27.3574,-15.4307,9.1826,10.0891,16.0917,
-6.4279,-18.8607,15.0616,-6.7861,-23.9747,34.4163,-37.072,18.8233,-52.2539,11.6159,-28.6049,-5.4684,-4.6163,1.0262,
-20.1422,-3.629,9.3523,7.7211,-13.0837,46.4513,-20.7477,3.5939,-35.0187,-3.181,-12.7886,-19.2403,-18.4393,-13.1354,
-33.0337,-3.1055,8.7911,-6.8422,-14.1575,57.7643,-5.4028,-10.7218,-41.8948,-17.0902,2.0787,-3.9858,-31.4329,-26.4473,
-27.4817,4.0516,1.2929,7.6683,-23.9955,40.1984,-19.1787,2.6275,-53.4811,-9.8649,-12.146,10.3533,-15.4469,-10.7604,
-11.7328,-7.8091,12.8329,-6.8918,-8.4558,26.6222,-32.128,16.5699,-64.3722,4.827,-25.5172,19.9444,-0.42013,3.9852,
-6.0755,-21.4405,26.163,-10.8195,-22.0485,39.1249,-16.1003,1.4757,-46.4099,-9.5626,-9.8862,4.6477,-14.4949,-10.3539,
-19.811,-6.0541,28.1527,3.9297,-17.4734,50.8774,-1.0343,-12.7129,-29.5253,-23.0889,4.807,-9.7312,-27.7252,-7.7159,
-32.7223,-15.4498,33.4336,17.7939,-30.525,55.4073,-15.0722,-26.0501,-21.7125,-35.8035,0.49443,1.8584,-40.1617,6.847,
-16.659,-28.6228,17.3276,2.6262,-14.5935,66.1829,-28.2679,-10.3871,-6.3097,-19.5553,-13.6352,15.8469,-23.652,20.5362,
-1.5595,-12.8055,2.1879,-11.6313,0.38214,76.3119,-12.4718,4.3361,8.1689,-4.282,-26.9171,28.9961,-8.1329,33.404,
12.6341,2.0629,-12.0433,3.1666,9.0302,57.6332,2.3765,18.176,-6.4213,10.0749,-11.2021,13.1563,6.4551,45.4998,
-2.2239,16.0391,-14.0974,0.95916,-5.6116,53.5518,16.3339,2.9854,8.064,-4.6296,3.57,-1.733,-8.0322,28.6698,
-16.1905,0.97675,0.8484,-2.3517,-19.3749,53.5915,1.2539,-11.2937,15.6275,-18.4518,-10.7442,-15.7291,-21.6503,12.8496,
-1.1191,-13.1819,14.8975,8.478,-4.1124,36.276,-12.9214,3.4839,0.58988,-3.2447,-24.1995,-0.68532,-6.2513,6.185,
13.0481,1.7091,-0.096353,-6.1307,10.2343,19.9995,-7.1814,17.3749,-13.5455,11.05,-21.9652,13.4558,8.2238,19.9139,
26.3652,-12.4935,11.8332,-19.8628,23.7203,32.8995,7.3495,30.4324,1.3672,24.487,-6.5472,26.7485,21.8304,32.8191,
10.6833,2.3561,-2.9767,-4.571,8.197,20.396,21.0085,14.5064,15.3852,8.9178,7.9456,39.2435,6.4206,16.7499,
-4.0577,-11.8852,11.3019,-14.8266,-6.3948,5.0722,5.648,-0.46395,0.36207,-5.7173,-6.6311,22.7889,-8.0647,1.6449,
-17.9143,-14.4252,18.0591,-28.037,-7.2465,-9.3321,-8.7909,-14.5361,-13.7596,-19.4743,-20.3333,7.3216,-10.2107,0.61683,
-2.7394,0.54032,2.8755,-14.5784,7.2883,5.3278,5.8366,0.43606,1.1659,-4.2058,-5.0133,20.9823,4.5019,14.6798,
11.525,3.1376,0.073307,0.39628,-3.5316,19.1081,19.5864,14.5099,15.196,10.1465,9.3875,33.8234,-2.4331,-0.30097,
-3.2665,5.273,-2.2547,14.4725,-17.4197,3.8616,17.6288,-0.4607,0.18421,-4.5622,4.3242,17.694,-16.3871,-14.3829,
11.0295,-9.1434,11.9805,-0.49584,-21.3274,-10.4701,2.4711,13.6669,-13.9268,9.8115,-10.0352,2.5323,-1.3039,0.58006,
-3.7323,-6.1128,8.7797,-14.5661,-5.9478,-23.9419,-11.7772,-1.2531,1.0088,-4.8772,4.6669,-11.255,6.2099,5.1921,
10.5916,8.354,-5.8471,-27.7921,4.9385,-8.4053,3.0294,12.9221,15.0482,9.5154,18.4869,3.5203,19.9373,18.8222,
24.0561,21.9527,-19.5962,-34.7951,-9.4578,6.199,16.9477,26.2468,0.045351,23.0445,20.9367,-10.7909,32.8411,10.722,
8.5128,6.5356,-4.3205,-18.6074,-22.9904,-8.273,4.3132,10.572,-14.0574,7.5618,5.5805,-24.2435,16.7706,18.9082,
22.102,-7.9566,10.0388,-3.391,-7.5109,-21.8766,-10.0456,24.0377,-27.3139,21.2081,-8.8543,-36.8889,29.8644,31.8737,
6.6759,-0.043648,2.0009,10.9125,-21.1603,-34.664,-23.5428,8.4954,-11.5751,5.8356,-22.423,-48.7755,13.9725,15.8613,
-7.8247,14.059,-6.0195,24.3577,-13.532,-42.6378,-8.0303,-6.1143,3.2194,-8.6145,-6.9777,-31.749,-0.96584,0.8096,
-21.4552,20.0271,5.4946,25.979,-26.8201,-25.9796,6.5516,-19.8475,-11.0738,-22.1976,0.26403,-25.3445,-15.0079,-13.339,
-34.2679,4.7255,-8.935,10.3203,-39.3109,-10.3208,-7.9415,-29.1864,-24.5093,-34.9658,-13.8518,-9.7238,-28.2074,-2.9267,
-18.1118,-9.658,5.7011,-4.399,-22.8522,4.3985,-21.565,-13.3352,-37.1388,-18.7678,-27.1207,4.9596,-12.415,11.3489,
-31.1251,-23.1785,19.459,9.965,-11.0988,-9.9654,-6.1711,-26.6351,-20.8104,-31.7418,-11.3935,-9.4379,-9.1874,-3.432,
-43.3576,-7.6878,20.9218,23.4671,3.6672,4.7325,8.2991,-39.137,-5.4618,-43.9373,3.3902,-22.9717,-22.7362,-17.3261,
-26.6561,-8.3032,8.0485,7.9591,17.5471,18.5485,21.9012,-22.6888,8.9659,-27.201,17.2867,-7.4934,-12.3839,-2.1865,
-10.9568,-21.905,-6.5344,-6.6185,30.5943,31.5356,27.399,-7.2275,22.5279,-11.469,14.2321,7.0562,2.4591,12.0447,
3.8006,-6.4907,-0.40709,1.9959,42.8586,43.7435,11.6551,7.3062,35.2763,3.3192,11.0546,20.7329,16.4116,25.422,
17.6726,-1.9188,3.7996,15.9761,26.1871,27.0189,-3.1442,8.8739,19.0597,8.6963,-0.29664,5.3889,3.4915,9.7967,
2.5122,12.2963,2.6422,29.1176,10.5159,11.2977,11.1444,-5.7586,32.0161,-5.9255,13.8212,-9.0344,-10.818,-4.8911,
-11.7385,-2.5415,16.5837,13.2705,13.2853,-3.4801,0.41079,-19.513,44.1951,-19.67,27.0919,5.6076,-14.6572,9.5023,
3.0658,-16.489,17.2889,18.357,26.5881,10.8287,-13.7139,-4.2423,27.4434,-4.3898,11.3664,19.3712,0.32226,23.0322,
16.9819,-3.7233,3.7044,3.1556,39.0928,19.3034,-26.991,10.1123,11.6968,9.9736,-3.4156,32.3089,14.4029,35.7503,
30.063,-14.6528,-3.9532,-11.1337,22.6473,4.0452,-11.2716,23.6055,25.095,23.4752,10.8893,16.2704,-0.56125,19.5052,
14.1592,0.32632,-17.816,-3.1774,7.1884,-10.2975,3.5047,8.0892,37.6893,7.9667,24.336,1.1941,-14.6276,4.2349,
-0.79037,-5.8931,-2.647,-9.9577,-7.3429,-23.7796,-10.8056,-6.4961,21.328,-6.6113,8.7758,-12.9775,-22.1149,-10.1192,
4.3692,-12.9749,11.6118,-14.9367,7.1977,-8.2529,-24.2572,7.9936,5.9483,7.8854,-5.8507,1.9011,-6.688,4.588,
18.207,1.9036,-3.1849,-28.1405,20.8658,6.3423,-8.7018,21.614,-8.5086,21.5123,8.6003,15.8871,7.8133,18.4127,
31.2146,-0.69279,-17.0938,-12.3521,5.5139,-8.1382,5.9203,34.4172,6.1019,34.3215,22.1843,14.9227,20.5044,3.2079,
15.2417,13.4488,-30.1682,2.489,-8.9169,-21.7499,19.6651,18.2521,19.8358,18.1622,34.9532,28.1274,5.1742,1.9275,
28.4272,2.7241,-14.2581,16.1223,5.7181,-34.5449,4.3852,31.257,4.5456,31.1725,18.756,12.3397,18.9637,14.3584,
12.6216,-11.5393,0.69737,1.055,19.3164,-46.5722,-9.9779,15.2816,-9.8271,15.2021,14.5246,-2.5006,31.9259,7.9206,
5.1994,3.253,-13.4445,5.7975,32.2574,-29.6779,4.7208,18.8536,4.8625,28.0727,27.7532,11.7494,44.1103,21.5454,
18.9874,17.1578,-18.9851,19.5497,16.222,-41.9972,17.9144,27.4809,18.6708,30.5708,20.818,23.1268,27.3637,6.1526,
3.7482,2.0284,-3.746,32.4767,1.1487,-53.5774,14.0508,11.7321,3.4505,14.6365,5.4689,7.6392,11.6219,-8.3165,
-10.5767,-12.1933,10.5787,16.4281,15.1798,-64.4628,-0.89224,-3.0718,-10.8565,-0.34166,-8.9593,-6.9191,3.0236,6.2825,
-24.0421,2.6383,2.1911,29.5424,5.4394,-74.695,-14.9387,-16.9875,-24.3051,-14.4212,-1.5984,-20.604,-11.2578,-8.1945,
-36.6996,16.58,-12.0403,27.9171,-8.9869,-84.3133,0.057613,-30.0683,-8.7468,-27.6559,12.5975,-33.4678,-24.6824,-2.4323,
-20.3976,9.3851,-2.7942,12.1421,-16.6534,-65.1545,14.1542,-14.1642,5.878,-11.8965,25.9416,-17.3597,-9.1014,3.2899,
-33.2738,-5.278,7.5968,-2.6864,-28.666,-47.1452,-0.79509,-17.4853,-8.5747,-9.7776,10.2851,-2.2181,3.2214,-9.9193,
-17.1773,-19.0613,21.241,-16.6252,-12.8461,-58.4165,-14.8474,-2.3361,-22.1602,4.909,-4.432,12.015,17.1282,4.7758,
-2.0467,-21.3177,27.2433,-1.5277,2.0247,-69.0115,-28.0565,11.904,-18.1894,16.5385,-18.2661,-2.8059,7.577,-0.3157,
-16.0239,-5.9387,11.5087,12.6639,-4.9205,-78.9708,-12.2732,-2.9102,-13.3808,1.4462,-3.0703,-16.7376,-6.9777,-14.3968,
-0.96246,8.5176,-3.2818,-2.1959,-16.7079,-60.1326,2.5632,-16.8356,-6.0718,-12.7406,11.2139,-1.6333,-20.659,-27.6329,
13.1953,-2.0697,6.9914,-16.1641,-1.6054,-42.4246,-11.6906,-1.7255,8.3925,2.1239,-0.30588,12.5647,-5.3195,-11.875,
26.5036,-6.5926,11.219,-29.2943,12.5909,-53.9791,-25.0891,12.4781,-6.2111,16.0964,-14.3875,-2.2892,9.0997,2.9375,
10.8134,-6.1971,10.5458,-13.4366,-2.2645,-64.8404,-12.419,-2.3706,-19.9384,1.0307,-27.6243,-16.2518,-5.5463,-11.3387,
-3.9354,8.2748,24.0131,1.4696,11.9713,-75.05,2.4261,-16.3284,-4.6421,-13.1312,-11.8668,-29.3767,-19.3135,-3.9942,
-17.7993,-5.3925,8.4723,15.4814,-2.8469,-56.447,-7.1722,-29.4487,3.5366,-26.4433,-25.2548,-13.5141,-32.2547,-17.8545,
-2.6314,5.1548,-3.189,0.4525,-6.0875,-38.9602,7.3582,-13.5818,17.4244,-10.7567,-37.8395,1.3967,-16.2194,-2.6832,
11.6265,13.2102,-11.3624,-13.6746,8.3777,-22.5225,9.5459,1.3331,2.2789,3.9887,-49.6691,15.4129,-1.1462,11.5778,
-2.5479,-1.6824,3.4193,-6.8013,-6.2249,-35.2712,-1.7152,-12.8468,-0.18103,-9.1034,-32.589,0.38814,0.011174,-3.2169,
-16.495,12.5186,-1.5921,7.7068,-19.9514,-47.2549,12.4877,-26.176,13.9298,-22.6572,-16.5337,-13.7351,-14.0895,-17.1239,
-13.9528,5.2616,-4.2844,21.3443,-18.5953,-30.3196,16.692,-38.7055,11.541,-35.3978,-5.0005,-10.111,-27.3441,-27.5557,
0.98441,-8.9954,9.9139,11.8458,-3.3796,-14.4004,1.5905,-22.2831,-3.2514,-19.1739,-18.8005,4.5956,-11.6035,-11.8023,
15.0253,5.6444,-4.7809,-2.965,10.9232,0.56358,-12.605,-6.8462,-17.1564,-3.9235,-31.7725,18.4199,3.1927,3.0058,
22.1716,14.4411,-13.6294,-12.8516,-3.8322,-13.5702,2.2513,6.1116,-2.027,-0.43524,-15.7661,3.2147,-0.25211,-11.2745,
6.7413,27.6746,-26.9117,2.0195,-17.7023,-26.856,16.2162,-8.3551,12.1946,-14.5091,-0.72014,-11.0782,-14.337,-24.6981,
-7.7631,11.9141,-11.197,-12.2017,-30.7402,-39.3447,1.1433,-21.9538,-2.637,-27.7386,-14.7769,-24.5135,-27.5768,-37.3162,
-18.1332,-2.9007,3.5748,-17.9757,-14.7958,-22.884,-13.0253,-8.2364,-16.5788,-13.6741,-27.9903,-8.9427,-11.8222,-20.9772,
-2.9452,11.3733,-10.7396,-25.7267,0.19199,-7.4109,1.8562,6.3578,-29.6841,1.2464,-12.2109,5.6939,2.9872,-5.6186,
11.3315,16.2676,-15.672,-10.0831,-3.6964,-21.0663,15.8448,20.0763,-13.803,15.2716,2.6218,-8.7478,13.0311,-19.3815,
-3.4484,23.1915,-0.63166,4.6219,-17.5746,-33.9023,28.9941,4.7717,1.1251,0.25529,16.5645,-22.3229,-1.8508,-32.3186,
-17.3415,7.7,13.5062,18.4446,-4.2788,-45.9682,13.1545,-9.6146,-13.0424,-13.86,1.4706,-35.0835,-15.8398,-16.2795,
-30.401,-6.862,5.8726,3.2379,10.078,-29.1101,-1.7348,-23.1377,-26.3598,-23.252,1.3821,-18.8785,-0.78938,-1.2027,
-14.4769,7.6497,-8.5797,-11.0564,23.5733,-13.2635,12.4693,-7.6494,-10.6782,-7.7569,15.3992,-3.6458,13.358,12.9695,
0.49169,9.2083,-11.1592,3.707,8.0589,-26.5677,12.1857,6.9095,4.0625,6.8085,11.993,-0.17399,-1.5435,-1.9087,
-13.6378,-5.4442,3.6103,17.5846,-6.5246,-39.0736,25.5546,-7.605,-10.2813,-7.7,5.697,-14.2635,-15.5509,-15.8942,
1.2805,-19.2175,17.4937,2.4295,-20.2332,-50.8292,9.9213,6.9513,-23.7644,6.862,-8.7448,-27.5077,-0.51783,-0.84053,
-12.8964,-3.9645,2.3441,1.502,-33.1192,-61.8794,-4.774,-7.5658,-26.5093,-7.6497,-22.3202,-39.9573,-14.5868,-14.8901,
-26.2226,10.3734,-11.8966,15.5119,-45.232,-72.2667,-8.5114,-21.2119,-10.8187,-21.2907,-6.8809,-51.6598,-27.8116,-27.9383,
-10.5492,0.92146,-2.3532,0.48117,-31.8186,-53.8307,6.0993,-5.8391,3.9304,-5.9133,7.6319,-34.4602,-20.09,-12.162,
4.1837,-13.2338,9.4058,-13.6477,-24.7978,-36.5008,1.392,8.6112,-10.4054,8.5415,21.274,-18.2926,-4.7846,2.6677,
18.0327,-18.7869,17.6707,-12.6703,-9.21,-26.3654,-12.7915,22.1945,-23.8811,22.129,5.8976,-3.0951,9.6025,16.6076,
2.8507,-12.0832,11.034,2.1899,-22.7574,-38.8834,-26.124,6.7629,-36.5482,6.7013,-8.5563,-17.0094,-5.0737,1.5112,
-11.4203,2.7418,-3.728,16.1585,-25.1087,-50.6504,-10.4566,-7.7429,-20.2553,-7.8008,6.0571,-30.0888,-18.8693,-12.6795,
3.3649,-3.158,2.2309,1.089,-20.35,-33.5114,4.2708,-13.7847,-4.94,-6.5626,19.7937,-14.1835,-9.3724,-23.2298,
17.263,-13.1921,-8.1265,-13.0763,-5.029,-17.4007,-10.0854,1.1424,9.4564,7.9312,4.506,0.76753,5.29,-7.736,
30.3272,-13.3302,6.4611,-26.3917,9.3727,-2.2567,-23.5803,15.1739,-5.211,21.5553,-9.8643,14.8215,19.0726,6.8281,
14.4076,-20.4303,20.1734,-10.7082,-5.2896,-16.2213,-8.0655,0.16343,9.2017,6.162,-15.62,-0.16781,3.8282,-7.6816,
-0.55685,-5.1045,4.863,4.0343,-19.0723,-28.7242,6.5185,-13.9464,22.7496,-8.3077,-0.58282,-14.2577,-10.5015,-21.3207,
-2.0765,-0.30969,1.1594,2.2392,-11.8859,-12.9007,2.4097,-27.2096,13.9375,-21.9092,-8.1415,0.69772,-23.9714,-27.9418,
12.1481,-14.3911,15.1898,6.2871,2.9272,1.9733,-11.8349,-11.477,27.2013,-6.4947,-21.753,14.7559,-8.4331,-12.1653,
25.5192,-11.5103,12.2611,-8.1901,16.8516,15.9549,-10.0366,3.3116,11.4692,7.995,-34.5478,15.7291,6.1729,2.6646,
23.2059,-4.7786,5.4843,-13.1162,1.7405,0.89762,4.6656,17.2129,9.3868,21.6153,-18.375,0.68537,19.9025,-8.5012,
7.7136,9.6082,-8.9448,1.7708,-12.4639,-13.2562,18.4857,2.0801,22.9236,6.2184,-3.1725,-13.4558,4.6084,-22.0911,
-6.8493,3.2964,-2.6728,15.7645,-17.7579,-25.1668,3.2765,-12.1447,7.4482,-8.2547,-17.0821,-11.8665,-9.7681,-12.2424,
7.6617,-11.0014,11.5876,5.6715,-2.5924,-9.5568,-11.0201,2.684,-7.0987,6.3406,-30.1572,2.9455,4.9179,2.5922,
21.302,-8.7883,9.3393,10.9077,11.6632,5.1166,-6.6412,16.623,-20.7728,20.0601,-41.0424,16.8688,18.7229,16.5367,
5.9239,3.3568,-2.8388,24.3533,-3.1366,5.4212,7.8573,1.5256,-5.4264,4.7565,-24.4799,1.7567,3.4995,2.216,
-8.5316,17.2554,-16.7685,36.9921,-17.0484,-9.0041,21.4858,-12.666,8.9992,-9.6289,-8.9111,15.7513,-10.8105,-12.017,
-22.1197,12.3438,-11.8862,20.6725,-30.1255,-22.5638,6.0967,-26.006,-5.6408,-23.1511,-22.4764,15.4183,-24.2618,-25.396,
-22.1747,-2.4968,2.927,5.3322,-14.218,-7.11,-8.3691,-10.3456,-19.4023,-7.6621,-7.0278,0.39316,-8.7061,-9.7722,
-6.7442,11.753,-11.3486,-9.0877,0.73508,7.4166,-6.9373,4.3751,-26.7502,6.8976,7.4938,14.4696,5.9162,4.9141,
7.7604,13.8359,-13.4557,5.5575,1.4616,7.9012,7.5789,18.2126,-11.0452,20.5838,21.1442,27.7014,5.4025,-9.4807,
-6.8052,27.1057,1.4516,19.3241,-12.7261,-6.6728,21.2242,3.0198,3.7176,5.2488,33.9755,11.9393,-9.0217,-23.0119,
-11.2032,11.3794,15.4645,7.3177,2.1375,-20.3725,5.8507,-11.2613,-10.6055,-9.1662,17.837,-2.877,0.043358,-7.5312,
3.569,-3.4034,28.6366,-7.2214,16.1092,-5.0501,-8.6003,3.5143,4.1308,5.4838,2.6668,11.3956,14.1408,7.0207,
-10.7451,10.9008,12.8184,-20.8881,29.2427,9.3529,-22.1843,-4.755,17.983,-8.9452,-11.5932,24.8118,27.3923,20.6995,
3.9996,0.48802,-2.0507,-5.5348,13.3881,1.821,-6.7532,-10.046,7.1335,-3.2964,3.2024,9.2231,11.6488,5.3575,
2.6721,-0.93549,-4.8747,8.8973,10.5674,-12.3883,7.7519,4.6568,-7.3945,11.0014,17.1102,-5.4303,25.0498,19.136,
16.6117,-14.9794,9.5178,-5.7366,24.0334,-25.745,-6.8132,18.4774,-21.0508,24.4413,1.9836,-19.2044,37.6469,32.0879,
1.515,-24.1454,19.0115,-17.3162,17.7855,-11.3355,-20.5044,3.2687,-33.8878,8.8748,-12.2354,-32.1522,22.83,27.0561,
-12.6759,-8.5966,3.7708,-2.1772,2.6184,-14.8374,-33.3741,-11.0274,-45.9545,-5.7577,-20.1829,-44.323,7.3602,11.3328,
2.1847,-12.4221,7.8858,-1.7405,16.5613,0.15285,-17.2717,-14.0834,-29.0973,-19.3536,-4.8719,-27.5637,-7.1814,-3.4472,
9.0241,-25.7768,-6.6873,-15.7361,1.4676,14.2437,-2.1354,0.86161,-13.2514,-4.0924,-18.6796,-11.8098,7.3494,-8.0345,
22.5826,-32.9009,7.8139,-28.8919,15.4796,-0.71094,-16.1072,14.9099,1.6437,10.2531,-31.6588,2.9987,21.0085,6.5476,
7.1277,-16.8269,21.4451,-13.0584,0.45078,-14.7683,-1.0408,-0.084685,-12.555,-4.4621,-15.6593,-11.2812,5.648,-7.9453,
-7.4,-1.7173,6.0584,1.8251,14.5237,-27.9822,13.1216,-14.1796,2.2983,-18.2943,-0.61975,-24.7043,-8.7909,-21.5685,
7.144,-5.6495,4.3009,15.8156,27.7523,-12.2033,26.4343,0.77117,16.2604,-3.0967,13.5174,-9.122,5.8365,-6.1744,
20.8154,-19.4105,-3.8575,0.76664,11.9872,2.6289,10.7483,14.8249,29.3848,11.1891,23.5413,5.5253,19.5864,8.296,
33.6665,-32.3459,10.4739,-13.3794,25.3679,16.5712,-3.9966,28.0354,13.5217,24.6178,8.0289,-7.1944,32.5112,21.8983,
17.5465,-27.2993,23.9455,-3.588,37.9459,1.4769,-17.8568,12.2533,-1.3896,9.0407,-6.5529,-20.8628,22.0365,6.4844,
