"AF3","AF4","F3","F4","F7","F8","FC5","FC6","O1","O2","P7","P8","T7","T8",
-26.2846,-9.4223,-1.4874,16.3656,-17.3572,17.3581,1.4884,15.3739,-0.49581,11.4065,-8.4307,0.49581,10.4149,-0.49581,
-26.6908,-13.817,2.5693,1.2836,-13.3409,11.3566,9.333,9.4924,-3.4419,1.7956,-0.98159,-0.52556,3.8384,-3.4419,
-19.6345,-12.4922,4.8942,-1.059,-17.9953,9.1878,7.2856,23.0229,-1.7479,-1.7838,0.56474,-1.9824,12.0387,1.2279,
-17.4648,-6.7826,-2.3418,13.1046,-12.9482,12.604,-2.078,30.8504,-6.6021,0.30652,-6.4124,1.1124,14.2922,3.1384,
-17.9039,-6.8719,-2.6976,24.5034,-4.7317,17.3031,1.5178,17.5924,-9.6771,0.78441,-10.4904,1.5419,3.0203,-1.5136,
-14.3506,-3.9796,5.895,28.4881,-11.8878,13.7849,4.8984,14.0568,-5.6249,3.2164,-6.3903,-1.0306,-1.6242,-2.9102,
-20.9281,-6.2204,4.0534,12.6788,-25.2746,-1.1422,-0.85089,10.7339,-2.8079,3.5197,1.4326,-4.4399,0.95281,-4.2235,
-23.145,-6.3439,1.3302,-0.76285,-17.5934,-6.8113,3.6634,9.594,-1.152,1.8201,-0.14171,0.28971,5.3589,0.49313,
-23.7386,-6.954,-0.7329,11.1862,-9.5936,0.54155,5.4278,7.0351,-4.0577,-4.2388,-12.0346,1.2649,5.0374,0.46354,
-19.8353,-10.0093,-0.19312,16.9615,-11.498,-0.97933,4.6063,10.0847,-0.34357,0.47783,-10.8167,-0.29938,0.27186,-5.0191,
-12.1977,-0.9771,2.2985,5.5289,-0.39326,3.5427,4.8258,12.9512,-0.81876,3.9208,-1.737,3.1902,-12.1426,-4.2222,
-10.9705,-2.4064,-1.3115,2.7177,7.0689,9.7771,6.0241,6.7188,-3.2492,-0.77724,0.84675,4.4867,-11.9103,7.4372,
-7.8327,-15.6522,-0.73656,3.0509,3.1736,3.7351,2.1906,2.8436,-3.5505,-0.23527,-0.69196,-0.24622,-7.7245,7.4872,
6.7372,-0.61309,5.2588,5.8432,2.9828,8.4706,-1.9078,15.5674,-2.3454,7.7142,-0.65092,-1.2235,-18.1713,4.0617,
2.1521,9.1283,8.9112,8.4679,2.8043,9.946,-0.80127,12.6496,-1.2126,-1.6756,-0.61139,-4.1255,-22.0405,-0.14896,
-6.4082,1.1411,20.7742,22.0599,7.0988,7.8614,6.6854,10.4027,2.3314,-4.0546,0.9132,0.58578,-6.6181,3.3311,
-10.487,-7.3581,15.0645,14.5716,-7.4271,-4.0168,-0.16317,4.3237,1.6957,0.65191,-4.5965,-0.93775,-8.4182,0.65221,
-21.2647,-6.4212,0.060598,-0.40267,-21.0815,-16.1744,-3.6245,-9.326,8.0409,6.0681,-0.84952,2.5897,-8.4094,0.11679,
-20.9805,1.8999,-3.2007,0.33126,-13.4375,-9.2523,-5.3913,-2.8157,7.5584,4.7124,3.1689,6.4027,-2.9458,5.0688,
-5.6216,10.7124,11.0913,14.4114,1.4687,2.2135,1.8755,9.2555,1.1542,-1.5219,-1.9813,-0.92474,-6.7365,-3.1702,
8.8157,10.0692,15.171,20.276,-3.7924,0.096983,1.7625,-5.3998,-6.8504,-0.43853,-11.781,-11.7804,-20.4323,-11.9069,
6.3714,1.0348,2.8547,17.5715,-4.0602,-0.40512,-1.8144,-6.3488,0.0085744,7.0264,-12.5611,3.0264,-20.4794,-0.77716,
-4.9216,-9.938,-10.2106,2.4172,-1.8334,-3.3557,-2.6972,0.97443,1.9913,7.5974,-2.8809,14.0383,-11.3157,1.2527,
2.8132,-10.8296,-9.1026,-3.9613,-1.2271,-4.6423,-2.0391,-1.5636,-1.5993,6.6452,9.6905,4.7648,-12.1247,-0.31035,
13.5551,-8.1957,-4.589,-3.7236,0.82979,-1.3888,-2.9093,0.51444,9.4064,5.2549,13.0766,-0.48011,-11.3972,-0.29173,
13.2372,4.6937,-4.809,-9.9472,8.2186,2.1666,-5.2143,5.938,6.3625,5.4349,3.8608,3.0199,-3.2748,0.22206,
9.4676,8.38,-4.5209,-6.375,8.7176,1.0445,-3.9093,0.62311,-8.1193,6.1009,-5.2978,5.814,-6.0536,1.2008,
-0.026978,-6.2228,-4.2497,-0.040854,-5.9055,1.9734,1.2843,-5.3659,-4.4423,10.694,-3.9883,4.4735,-10.6504,1.1288,
-14.1254,-16.0503,-6.4742,-0.53469,-11.7846,2.3513,-2.2639,2.3946,2.2712,5.5886,3.6905,11.6437,-5.5477,1.5564,
-19.0155,-3.6799,-17.4923,2.969,1.3215,-5.2288,-1.6323,6.7152,1.6391,1.7826,10.9081,11.4419,-1.7422,2.9514,
-3.7746,2.987,-18.9223,6.262,10.665,-1.4439,0.94521,4.8243,-1.9304,-2.7881,2.8141,-3.3447,-4.1182,1.2864,
10.5519,3.3036,-3.6869,4.3989,6.5525,2.1143,7.335,9.9898,-3.303,-7.0841,0.16526,8.9714,0.59216,5.6725,
14.9462,-8.3012,5.2473,0.66332,-0.28711,-10.4107,5.4075,0.95968,-4.5922,-3.1874,-3.3153,15.8721,-6.8824,1.8605,
12.0662,-3.8347,1.9566,11.5342,8.6566,-3.8344,-3.8435,-8.0244,-5.3083,4.9387,-9.068,3.0175,-13.4127,-0.23439,
14.8134,5.8172,-0.64029,10.3459,5.6577,0.85845,-2.125,-11.015,-1.5187,4.1461,-3.0686,-10.5538,-4.1768,2.2583,
11.4446,1.0049,-10.0242,-3.6646,-1.1283,-1.6721,-2.4933,-8.8658,-0.93173,3.4015,6.5388,1.486,-7.3978,-0.35629,
11.75,-1.0391,-7.439,-3.4452,6.8738,6.3626,-10.279,-2.3827,0.11627,10.1402,5.1543,13.2996,-10.9209,11.5679,
11.5403,-7.4237,0.44592,-10.6771,3.9819,-4.4335,-3.2153,-6.7034,4.5721,9.0355,1.373,-0.88861,-0.84384,11.3691,
9.8572,-4.9941,0.41917,-14.9955,7.7104,-3.175,5.905,-9.2761,0.33125,4.5269,5.259,-6.786,2.1836,-1.2144,
6.7853,-1.2233,-1.0939,-8.6405,21.3478,11.1155,2.0786,-13.1832,-5.144,-5.1675,4.4472,-5.8835,-4.3954,0.34545,
7.8661,-4.6211,-1.5245,0.30818,19.8525,2.2993,2.4502,-7.9295,-2.3558,-6.3453,0.70823,-4.0426,-1.6521,6.7717,
10.37,-2.3596,-8.3754,-1.6936,12.7106,-4.7819,-1.6642,-1.5021,0.76136,-1.0046,-7.2682,1.16,-8.4953,2.3989,
9.7478,2.7401,-11.8412,-9.5278,17.8987,9.605,-7.516,-5.3794,0.71474,-5.9044,-2.8656,1.0895,-16.913,-1.7134,
4.2034,7.5352,-4.187,0.96344,3.9313,2.8631,-5.0813,-11.9994,1.6639,0.40107,8.2175,2.0162,-8.9555,1.3647,
-1.0084,4.1078,3.007,9.8317,-10.4046,-7.2273,-1.8002,-14.2557,5.532,11.2872,3.7565,1.8947,-3.4586,-0.70088,
5.4996,-0.60195,1.3391,-1.1722,-4.1115,7.3063,-6.1554,-6.9529,2.7201,0.19606,-3.9079,-3.6738,-6.7227,-2.1463,
10.6245,2.9058,-7.1719,-11.5167,10.2352,20.54,-3.307,-2.0725,1.0695,-3.2873,-4.1693,-7.9166,-0.86353,4.43,
-4.113,-5.2034,-15.6681,-14.7932,1.9685,5.2076,-0.13279,-6.9072,8.9402,8.8122,4.0167,-1.49,9.1074,2.1809,
-17.9662,-3.9001,-16.7127,-9.9377,-12.2496,-7.7848,-7.0686,0.44999,10.3875,3.324,12.7017,1.5747,7.5679,2.0496,
-4.0617,2.7814,-15.2141,-9.8372,-7.8299,5.0804,-7.1393,2.903,0.34097,-5.3062,10.4522,-2.983,-2.3085,0.43823,
8.5806,-4.8241,-6.8617,-9.7433,6.031,6.2635,0.72765,-4.7098,0.8168,3.4434,-2.5735,4.6346,-5.6412,-1.075,
9.5537,-8.9984,1.9811,-9.655,9.1403,0.43235,0.1877,-4.9235,-0.72012,4.7237,-7.8745,6.836,-4.8074,2.4606,
8.4842,-7.9622,2.3586,-11.5542,4.1291,-10.9996,7.616,-1.156,-4.1481,1.9617,3.0134,-2.996,3.9123,-3.1424,
7.9751,-8.477,2.2161,-5.9029,-4.0545,-21.2503,11.1265,2.8799,-0.92431,2.8347,9.7749,-3.8088,7.645,-0.97057,
7.0008,-8.4642,-4.3634,-4.0603,-8.2744,-21.4628,5.9956,1.2197,1.6112,0.18555,-1.2256,0.88299,-2.2361,3.5519,
10.5482,-0.021487,-11.0448,-4.8083,-2.8189,-17.2001,10.5949,-5.7968,0.52286,1.166,-4.1278,1.8216,0.87298,-0.62869,
6.4437,4.4431,-10.8789,-4.025,2.8051,-14.6807,8.4709,-5.9448,-0.0052693,5.5593,6.5338,-0.76767,5.2839,-2.0793,
-8.043,-4.75,-7.2503,-15.6848,-2.3223,-22.7254,3.9961,5.3226,13.8816,11.1774,16.0608,3.2468,4.9678,7.9645,
-19.2492,-8.4325,-4.8311,-26.6461,-7.142,-22.3544,5.7396,5.9949,16.0245,3.5635,10.1381,5.0352,5.6613,9.4699,
-18.0943,-3.9591,-3.5496,-15.1292,-1.7544,-6.9132,3.411,-3.2913,7.1281,-4.5852,9.5289,3.7415,10.2807,3.9426,
-18.4965,-7.1927,-7.8004,-12.7335,-0.16124,-0.2649,3.7027,-4.5818,9.18,9.0802,20.3641,6.9882,10.1601,2.2181,
-13.9146,-1.3067,-7.8277,-14.449,-5.6069,-8.6802,10.9191,4.1234,6.1496,20.933,16.6627,14.0084,4.0952,6.5488,
-10.5997,4.2275,-3.8864,-4.1598,-15.6844,-22.2594,9.7691,3.3811,0.32579,20.1738,1.563,9.6963,4.3453,8.6359,
-20.3782,4.4701,0.8105,-3.4139,-16.2313,-18.7257,3.7276,-0.29387,0.80253,19.4596,-1.2927,3.6591,7.5567,10.5972,
-29.5708,2.714,9.1921,-7.6728,-6.8262,-10.1635,-0.95979,-1.7641,-2.7177,8.8693,-0.71882,3.9359,6.607,7.4819,
-19.8617,-3.4005,11.6164,-5.2282,-3.4418,-20.4644,2.0727,-5.6257,-2.5547,-3.5662,5.275,0.72391,6.2106,4.0562,
-7.264,10.1938,8.4399,7.4831,1.2284,-11.797,-3.5061,-7.7677,-2.8977,-3.8475,2.479,-4.7749,-0.60998,0.34167,
-14.2667,21.9808,9.4214,12.4904,0.65939,3.0108,-9.7427,-5.8138,-4.2108,-4.113,-3.1251,-7.9595,-4.0445,-4.1416,
-19.8572,15.2071,8.3603,7.2768,2.1073,5.592,-4.6949,-4.9691,-1.4791,-1.3862,2.5182,-9.962,1.654,-3.3973,
-19.6584,7.3514,-3.052,4.8569,14.8748,3.2723,-3.4216,-6.6542,-1.3903,-3.2872,0.38292,-1.4294,-6.3802,0.77398,
-18.4789,2.9419,-6.8373,0.59715,23.9004,17.176,-3.2163,-4.2717,-1.3069,-6.0658,-5.5917,11.5503,-13.9332,8.6615,
-16.3785,2.7654,2.5004,-4.3977,24.4506,25.8501,-3.0233,-2.0322,-1.2285,-3.7176,-4.2646,5.8983,-6.1539,13.1018,
-13.4116,4.5837,5.3262,-13.0604,21.9919,10.1991,-1.8503,-3.8935,3.8043,-5.4778,-3.0161,-8.5556,2.1511,-1.7843,
-6.1595,11.7477,4.5108,-8.8051,20.1766,2.3625,1.7324,-3.1641,5.0644,-5.6459,-1.3477,-13.2837,2.5179,-13.8619,
-12.7336,7.0759,-1.711,4.6176,16.9823,5.1961,-0.3553,-10.9086,-9.1255,-6.2983,-10.1929,-5.5439,-11.7332,-5.0948,
-21.3924,2.1876,-7.0637,1.861,13.4829,7.3638,1.1539,-15.7095,-4.1152,-2.4493,-8.0943,4.2115,-13.2957,-0.32636,
-15.6451,4.5359,-8.1278,-11.6409,13.1702,4.4425,-5.3623,-7.3283,2.5787,2.1605,-0.16915,3.4626,-2.0836,-2.7863,
-0.60641,2.7758,0.79011,-3.5038,24.7786,2.688,-4.5452,1.5426,-0.055557,6.4946,0.33634,-6.167,5.481,9.7795,
-2.7682,-2.8456,7.1901,10.8064,11.8854,-3.9207,2.175,-2.0216,-2.5322,4.6175,-0.17965,-13.2361,0.68888,9.6885,
-12.5202,6.2516,5.7671,16.391,-2.9278,-13.6036,1.0528,-2.8929,0.59552,-0.61959,1.8153,-7.4829,-3.3208,-4.9928,
2.331,15.2998,1.9495,8.9611,-0.058612,-8.3232,-0.49777,-3.2142,-0.92764,-1.0773,-1.7652,-0.58644,2.3352,-9.9337,
14.3753,8.4297,-1.1438,0.48804,14.0449,5.0697,0.52325,-5.9976,-8.8073,-3.9889,-8.603,-5.5108,-2.7654,-4.3791,
0.12256,1.4769,2.3969,-2.0208,21.4194,3.2776,2.9714,-3.1582,-0.83936,2.6974,3.3201,-7.6597,2.8559,5.3065,
-4.348,3.8683,-1.2185,5.5395,6.0342,-8.3256,-2.6618,-9.4152,-1.2848,0.056468,-0.35071,-1.7452,3.1813,6.4755,
10.0128,17.7362,-1.1454,19.3072,10.3489,6.274,-6.4695,0.076184,-13.111,-10.8576,-11.2404,12.246,-4.9454,8.0712,
5.2307,7.5316,-6.0362,7.0241,4.7694,12.6268,-8.0651,5.0311,-20.2587,-20.1248,-5.6064,7.5433,-3.6566,0.64318,
-9.1832,0.13597,-3.6903,-4.3076,-9.6168,1.9506,-1.63,4.7288,-7.1414,-4.8173,5.6402,15.0251,10.4488,13.499,
-9.4098,4.0962,-1.4847,-6.0324,-4.8584,2.8252,-2.5238,2.4618,-0.76125,9.5718,-1.6405,22.0595,6.847,16.6575,
-6.3657,0.37833,-1.8919,-16.0858,4.855,4.1436,-3.8603,-0.16541,1.764,2.1221,5.8965,6.6359,3.9557,1.558,
-15.4066,0.85191,-8.2254,-1.0206,-9.5363,2.4071,-13.0515,0.33985,-10.7395,-7.4271,10.9981,-1.4837,5.2063,-6.2569,
-6.051,3.2803,-3.2681,13.1406,-23.0641,10.6938,-12.7647,1.8074,-17.5347,4.4246,-3.0521,7.0365,-0.56144,1.5571,
4.2302,4.0751,4.8628,21.8433,-12.3259,10.0522,-4.0639,2.6906,-10.531,2.1749,-16.9689,1.6543,-8.4626,3.4479,
-8.9171,0.85528,-0.38846,6.6467,-3.651,2.5063,-5.8028,7.4887,-10.8912,-0.93092,-10.7768,-3.4035,-2.9953,0.26568,
-17.3091,-7.1314,-3.3405,7.24,-17.5319,2.3554,-4.4635,6.0472,-7.2624,8.0519,3.9698,7.7109,10.0788,9.1758,
-7.8398,-0.25606,0.33156,7.3014,-19.7377,7.6699,-2.7073,0.22953,0.61335,13.0246,3.0218,17.6631,9.9699,18.0485,
-9.3531,1.743,7.2545,0.91214,-4.4534,4.2334,-5.5212,3.1911,0.57607,8.2752,-9.0623,9.6606,0.44471,4.0712,
-15.7347,-5.3043,13.762,4.8244,-6.3839,1.0041,-10.1494,3.0001,-9.3771,-6.1073,-0.58413,-5.0191,-10.4922,-7.0843,
-7.8483,4.932,10.953,5.5265,-3.025,6.8945,-9.5405,-3.1315,-10.7987,-3.7576,-0.54908,-7.4798,-8.871,1.2757,
-6.3849,8.6036,3.3526,-4.7232,2.1155,7.4734,-5.9922,-4.9269,-3.2075,10.5678,-10.4343,-2.0719,2.5719,2.1917,
-5.506,-0.34334,6.623,-4.9356,-11.4011,5.5366,-3.1527,1.8152,2.4398,10.2161,-2.3701,-5.4192,4.8967,-3.3956,
0.27973,0.17354,12.6726,-7.119,-19.1482,4.7091,3.4834,5.1784,5.7656,-4.4969,11.8721,-7.5736,8.075,5.2393,
1.7509,9.5859,-0.48633,-8.1798,-3.8993,-2.0204,3.7707,-2.5718,-0.03573,-3.021,10.9463,-1.6639,9.0784,10.3803,
11.5644,8.0187,-6.4074,6.411,10.4346,-1.8997,2.5524,-4.4003,-11.9354,1.1272,-0.6207,-2.5561,-2.3766,5.7905,
21.7808,-1.3894,8.0771,7.7961,9.8769,4.1655,3.3913,-4.1368,-10.2282,-7.8674,-0.58393,-16.5028,-11.1609,-4.4765,
17.9944,4.1493,15.8087,-4.0777,16.7238,10.3635,-6.2349,-0.41739,-9.1182,-11.8581,-1.0442,-16.7865,-8.0117,-9.6623,
12.9473,9.852,0.76019,2.1177,18.6953,9.7407,-2.885,3.5751,-8.5711,-10.155,0.010046,-6.8519,1.3955,-3.1319,
10.6821,8.7641,-6.511,9.4297,5.1754,-1.2586,4.7262,-3.0869,-9.5452,-10.0415,0.50526,-12.8882,-1.1683,-0.46491,
11.0337,13.1982,7.9797,5.8881,-0.094166,-3.1663,-1.5081,-9.844,-5.0051,-5.4716,-0.51668,-6.1642,-5.0647,-0.43607,
2.9326,8.9347,-3.1266,-6.8633,-2.5685,0.49526,-9.8483,-7.7659,4.7185,-2.6633,3.9776,7.5963,1.6857,3.0617,
-4.1866,11.3735,-13.8497,-7.4432,-7.3735,10.3837,-13.2248,0.63495,1.4596,0.47137,0.7631,13.0912,2.5762,2.8771,
-0.46377,14.1637,-7.5638,-3.5249,-11.3943,15.2165,-7.9681,-1.8822,-0.11543,1.9315,1.2131,16.7699,-1.0491,2.2086,
-0.93223,5.8743,-14.5486,-7.7772,-13.1902,6.8649,3.916,-4.2488,10.3059,6.2784,15.2403,15.2675,8.4367,12.4915,
-4.8433,-0.42931,-26.5701,-15.245,-7.4402,0.50183,3.6816,0.96471,3.7364,7.8854,12.625,2.4486,10.9058,14.7173,
9.3329,-5.3626,-17.041,-16.3144,1.9327,4.4382,1.4765,0.90683,-8.3901,4.4364,1.9484,1.3101,4.2998,1.932,
18.6915,-3.0571,-8.0841,-9.3844,-1.1586,14.0915,-6.5465,3.8278,-12.8462,-5.7483,-1.1438,12.1417,0.074873,-2.1519,
6.6598,7.0449,-7.5986,1.0972,-1.0886,12.2539,-11.1133,0.62275,-16.0434,-8.3788,-6.0347,1.4946,0.069909,-3.0139,
8.7407,12.0775,-3.6706,4.5035,8.3995,4.0801,-1.0237,-6.8532,-12.6003,-1.4281,-3.1931,-6.0337,2.5462,-3.3293,
12.679,7.8817,-2.955,-2.2146,4.4234,-0.62847,-6.4176,-11.8974,-11.3489,0.1445,-2.5052,4.7428,1.8971,-3.6259,
0.51131,0.96092,-1.2898,-1.5855,-1.2973,2.8804,-11.4879,-3.7449,-2.2368,4.5996,-0.86702,5.9461,9.2219,5.0228,
-4.9742,-0.58417,-4.684,7.932,0.26891,6.1792,-8.3186,-0.048601,-3.5901,4.8194,-5.2783,-5.8172,5.197,7.2015,
7.7223,9.8648,-0.93137,13.9035,5.7076,5.3126,-9.3079,-9.468,-11.8063,-0.92559,-7.4416,-1.0049,-5.5297,2.3052,
13.2102,16.2167,7.0589,5.134,1.3982,1.026,-10.7331,-13.8595,-5.1468,-2.8528,-5.0113,1.0391,1.7458,0.18316,
8.9469,13.7562,9.1154,5.3227,1.8101,3.4444,-2.6491,-5.5888,3.5937,1.7816,-0.24742,-7.4539,10.0717,2.6522,
7.418,4.9955,4.6006,9.9619,6.6601,2.2457,-0.50741,-0.29396,0.40177,-1.3016,0.75952,-7.9988,-1.4428,-3.4581,
6.9724,2.712,9.2841,5.3972,12.2126,2.1114,-14.363,-10.1949,-10.5326,-10.1495,-6.2298,2.3998,-15.2423,-12.1776,
2.0908,-1.9139,7.2396,-1.3741,8.0082,2.4805,-16.9729,-19.9981,-11.389,-8.0531,-4.3676,4.7358,-8.8729,-5.9911,
1.9658,-4.7744,-2.1218,-2.2828,-5.3667,-0.64366,-1.8545,-10.8629,1.1971,0.36542,2.8372,-1.4995,0.58648,4.2869,
12.2623,7.9097,6.4367,0.33373,-4.5484,-1.1013,5.4824,3.8889,8.5649,4.8063,4.1549,-5.8733,-0.93662,7.5009,
17.9731,11.8984,16.4644,-6.1337,-2.7881,-8.4743,0.69017,5.4249,9.5384,5.0137,9.3605,-8,7.5503,11.5141,
12.4319,0.77005,5.0622,-4.2778,-16.7208,-13.4212,5.1115,1.6282,7.4782,2.2334,10.2868,-0.081358,11.561,7.3521,
12.1813,-4.7315,-6.6476,0.44164,-23.4389,0.7743,4.3086,0.042609,5.5416,6.5631,7.19,14.0235,1.4445,7.4063,
18.3937,3.4873,1.6861,-10.4946,-10.1293,1.7204,2.0668,4.0075,11.1607,18.0716,13.7019,16.4398,7.3095,9.9377,
14.3143,5.2622,8.5282,-22.7598,-11.5058,-12.4828,4.9186,0.79123,8.5069,10.0441,5.9365,1.3534,14.8049,2.3982,
14.9438,0.48324,8.5123,-14.9468,-13.2954,-16.9752,14.0458,-6.6953,11.4681,-4.6586,-2.8504,-12.8278,8.4617,1.7585,
11.5676,-0.042042,7.5053,-7.603,-12.993,-10.5014,5.7645,-0.83825,18.2196,-3.1725,7.7351,-1.7116,-1.4688,10.0842,
16.328,4.4233,4.5755,-9.6264,-14.6939,-14.336,-3.0126,4.6674,9.6868,8.4229,16.6938,3.8455,7.0496,10.9661,
29.4483,4.6546,-1.1539,-12.5204,-8.3565,-0.085103,6.5914,-4.0433,2.6582,0.47941,9.2447,-9.775,9.1066,1.8784,
35.8986,12.3102,1.8902,-13.7524,4.0472,14.02,1.236,-8.7598,0.51545,-10.4601,-0.2365,-4.2285,-5.5398,-0.21853,
45.6475,18.5144,15.8768,-7.9677,6.7798,16.9332,-2.8052,-8.2347,-6.4583,-14.791,-7.1651,7.928,-10.9442,-3.1808,
52.8272,17.404,22.6455,1.4364,3.3976,7.9819,6.2901,-6.7485,-12.0219,-11.9208,-8.7189,-1.4756,-2.3531,-2.9904,
35.5576,16.3593,8.3924,7.3013,-4.7416,9.4867,-4.0059,-3.3683,-13.2853,-7.2376,-5.2204,-8.3298,-3.2031,0.16532,
19.3241,11.4108,-6.2111,-0.079534,-18.5571,4.9496,-14.6767,-9.1173,-7.5286,-5.8113,-2.9235,1.0969,-4.003,-3.8125,
26.5275,10.7261,-6.6161,-0.074762,-26.1562,4.6526,-0.90122,-4.6028,-2.1169,-4.471,-2.7481,10.9502,8.1395,-0.60794,
14.521,2.6425,2.2115,-1.5587,-32.0259,-7.0331,3.6161,-2.8392,-6.4541,-7.6744,-0.10319,0.86991,7.1553,2.9002,
-0.4503,-0.49088,12.9895,0.51905,-36.055,-20.4966,-0.5683,-8.6196,-1.1068,-3.2465,7.8379,-6.1246,1.767,6.6936,
1.7744,5.4893,17.1692,7.4312,-27.941,-14.3078,-6.4858,-4.135,1.9345,-1.0684,8.3592,-10.7171,0.66837,5.2994,
7.1233,1.6887,18.6186,0.53833,-15.8502,-7.994,-2.6246,1.5685,2.3147,-1.4997,14.3047,-12.5536,7.0752,1.5103,
15.1266,5.0591,25.9331,1.9935,-0.79916,-2.0585,4.972,-6.9563,-3.2791,-8.8487,8.9831,-9.3204,0.20423,-3.0436,
25.6255,18.8555,31.8162,15.2646,13.3488,12.165,7.1527,-10.0106,-6.554,-10.7969,-5.6559,-7.2738,-8.2387,-0.38096,
23.0963,15.0307,27.923,6.4129,7.1609,19.6514,6.7235,-2.4667,-0.21004,-4.1984,-14.5253,-11.7964,-1.7937,1.6251,
22.2068,3.7144,15.8332,-5.378,12.1866,20.9528,-0.12684,2.1451,6.2505,5.4763,-4.231,-3.65,1.786,4.9997,
16.4107,2.0037,0.78324,-5.5516,1.041,26.1416,-8.5504,-4.4316,3.395,9.6105,0.48655,8.9676,-1.7932,-0.7556,
3.0275,4.363,-13.3638,-0.75474,-13.1215,22.0936,-15.476,-12.5959,-10.198,-5.0661,-4.0064,7.9333,-8.1326,-13.1089,
-0.12953,1.1249,-7.1754,3.2575,-4.6816,15.8084,-21.4911,-16.8006,-12.5624,-7.0277,-2.7739,1.5061,-12.6042,-14.3061,
0.86986,-9.8523,-7.7365,2.0704,3.5341,13.8683,-16.2333,-17.7758,-4.8654,1.3288,-1.6158,-7.5108,-6.8889,-9.4803,
6.273,-2.8142,-15.7025,-1.5249,1.8351,15.5167,-4.8449,-9.2697,1.8735,3.7296,-3.0068,-3.589,2.9482,-2.4645,
12.3441,0.82625,-12.2813,-7.8799,3.2124,11.1141,-3.0658,-5.2419,9.2001,4.9932,0.64525,3.0738,2.2755,-0.82822,
12.0988,0.28039,-6.0891,-9.8876,4.5067,7.9667,-3.3791,-3.4404,9.1435,6.1806,3.0861,-1.5743,-1.3332,-0.28318,
6.4138,1.2552,1.2186,-3.3437,10.1879,11.4562,0.7911,-4.2256,2.6442,-5.1,-0.074916,-14.3738,-5.2206,-1.2578,
2.5578,-5.2661,10.5692,0.32904,11.0645,8.2893,-2.7275,-8.4349,0.0059928,-12.2326,-2.55,-24.9174,-3.4195,-9.6135,
12.8183,3.4805,12.4141,1.7967,1.97,11.2635,-8.0187,-3.4655,1.4931,-7.0354,-1.9011,-9.3224,-0.73523,-2.5893,
15.5218,9.7191,10.1818,-5.7492,-7.5705,10.0919,3.8689,0.21402,5.8677,-9.0933,0.69293,5.337,0.79726,5.9977,
7.6467,5.1681,12.5462,-11.3554,-3.1493,7.5027,9.5879,-10.71,3.5319,-7.5556,-0.34074,4.5884,1.7415,0.67834,
6.6921,-3.5727,15.2651,-2.2434,1.5029,4.5735,-1.4022,-11.5548,-5.1107,2.3201,-0.81611,-4.1176,3.1245,-1.8424,
4.8027,-14.7653,3.9348,-3.5967,-12.6873,-9.8009,-3.7976,-5.4062,-5.3003,-3.2745,-0.27086,-2.3827,-1.5267,-4.2114,
4.5145,-3.9613,-0.26875,2.5698,-22.127,-11.4799,1.3893,1.8605,-0.023261,-6.0538,-4.222,1.7277,-5.4026,-1.9754,
-4.6829,-1.7394,0.739,1.424,-8.8971,-0.87201,-5.6373,-7.1776,-12.9158,-3.7064,-18.0687,-1.3518,-14.0049,-10.7834,
1.5493,1.3403,-1.2891,-0.64517,2.5479,-1.8118,1.6446,-7.7391,-12.1413,2.4671,-12.8032,0.71307,-6.2218,-11.1285,
-1.5195,1.2599,-12.1224,3.361,-1.5724,-13.6054,10.4725,-2.3147,0.48947,-0.6567,2.065,-5.2813,3.078,-2.5259,
-15.5283,-5.7585,-13.3788,5.143,-2.4701,-15.7644,7.8604,3.7753,11.3713,0.3748,12.6378,0.98764,10.8287,6.5526,
-26.7813,-1.9409,-12.0798,7.314,-4.8015,-5.3958,-0.049826,3.0525,3.2494,-1.1356,4.44,15.0284,7.6994,5.6641,
-20.7112,7.5979,-5.9001,11.3384,-6.0008,2.367,6.3997,1.3819,3.5503,-2.5549,2.6862,6.9695,4.7574,1.8517,
-17.9801,4.662,4.8688,11.1539,-0.18588,1.7292,6.5115,0.8032,7.8005,3.0533,2.0292,-7.5487,4.9678,1.2448,
-19.8776,2.3986,13.5036,8.501,-0.1752,-1.3508,2.1538,0.75454,2.3739,3.8622,0.91535,-15.3125,5.6618,4.1464,
-16.7012,8.2058,17.6529,12.9504,-9.0917,3.6898,5.9916,1.7014,-0.74482,0.6551,6.8116,-10.4268,3.3384,5.8813,
-14.2108,9.2018,18.0812,18.6209,-8.0504,12.8916,2.1605,5.0709,1.7799,5.079,1.9396,-5.3379,1.6507,5.0317,
-16.3344,-1.2698,15.0126,12.5441,-4.591,4.1828,-0.94452,2.782,8.6159,8.7413,-3.1363,-2.0423,8.4944,1.7544,
-26.7599,-2.6801,10.6402,5.3449,-7.7872,-5.4905,0.60053,-2.8389,8.5957,-5.173,0.52353,-3.4072,8.4806,0.16174,
-15.2357,8.3909,4.0507,10.9754,6.78,8.9389,-3.4034,-3.6606,-2.8312,-6.8463,1.4842,2.7484,-2.9385,-0.84006,
-3.4113,2.9279,-0.15936,10.3164,20.4732,21.083,-5.1829,-10.3847,-8.6125,-3.4602,-10.5076,-7.3351,-8.7134,-9.7166,
-7.1746,2.7518,12.7437,9.6969,17.8248,6.9237,2.0708,-5.7937,-1.153,-2.2605,-3.926,-16.8136,-1.2478,-6.1583,
-17.6543,3.5788,9.9953,10.1072,11.7967,4.5245,1.9471,-3.4624,-5.0508,-2.1253,6.2281,-8.862,-2.165,-5.7883,
-10.6444,0.38822,4.4366,10.4924,15.0564,12.1879,-1.1456,-13.1737,-12.6826,-4.9727,-2.0804,1.5888,-8.9784,-12.3843,
4.0943,6.3166,18.2704,12.8387,24.0711,14.4325,0.90734,-9.4075,-10.93,-7.6501,-9.8905,1.4935,-10.4229,-11.6412,
-0.3323,2.9618,19.9365,3.1419,14.6929,8.6074,0.8529,-3.883,-7.2984,-4.2153,-2.3538,-9.5069,-9.7975,-8.9586,
-9.7351,5.2636,6.3407,1.4654,0.42017,6.6022,0.30544,0.81275,-1.4061,6.452,9.1935,-9.4327,-0.77946,-0.98245,
-8.1589,14.8664,8.9366,8.3203,-4.5646,5.2149,2.2708,6.7151,7.6052,1.1054,3.6823,-4.8989,6.211,8.9951,
-6.6773,9.0148,7.4083,-5.0733,3.6446,2.9183,11.0616,9.2876,12.1085,-3.9205,2.4702,-5.597,7.8221,6.4717,
-8.2609,5.4991,0.020531,-11.7113,2.4343,-3.2085,10.3979,8.7303,11.382,9.2096,13.2327,-3.277,5.3695,5.0918,
-10.7406,4.177,4.9788,-8.0332,-11.8117,-11.9429,0.84702,5.2312,11.6911,10.6398,9.4625,-0.10504,4.0553,6.77,
-6.624,2.4385,8.1522,-6.0633,-8.4095,-1.8026,1.2925,5.4136,7.5185,2.5628,3.4403,0.39755,7.2831,-3.059,
-3.7475,5.7638,-6.4369,-6.1953,6.1951,4.752,7.6614,3.6004,-2.3559,-3.0458,10.672,-0.12306,7.3419,-7.3387,
-5.0111,3.9296,-10.7972,-10.2878,-1.3343,-9.6331,9.6818,0.90435,1.2571,-0.384,12.5117,-4.5789,6.4056,3.5155,
-4.7099,0.71944,1.7534,-6.6943,-15.3543,-16.2802,4.1413,4.818,3.1654,-1.3521,1.8424,-3.3121,8.005,9.2567,
-3.9315,0.17952,7.104,-0.83773,-12.7307,-9.8485,4.3886,2.0489,0.49548,-6.7268,1.236,-0.63337,10.0047,1.2613,
-6.6714,7.112,1.7178,8.14,-9.9836,-1.3227,8.0928,-3.0331,-3.5017,-4.339,2.1535,-3.5712,2.4611,-1.7893,
-6.2707,4.7016,-2.3523,12.6102,-15.3357,-0.25128,2.6477,1.1168,-3.2911,-0.11169,-1.9436,-8.3164,3.3056,3.2776,
-7.8782,-9.6805,-7.1707,-2.2464,-15.4077,-8.1716,-5.4456,2.041,-0.1183,-3.0803,-2.8182,-10.7928,6.0826,-2.8711,
-1.4548,-3.9267,2.1861,-5.8651,-0.38323,2.2378,0.83182,5.8859,4.8479,1.0719,1.3184,0.76546,4.726,2.2611,
-1.367,-6.6664,8.007,-7.4969,-2.5574,8.0547,5.7414,-0.41743,4.5575,-1.9677,1.2388,0.71906,7.4178,7.085,
-9.7162,-17.6734,2.0712,-13.4941,-16.504,-5.8188,5.8932,-3.8645,5.7719,-2.346,4.6366,-0.81199,8.4606,2.1962,
-3.182,-6.6944,-0.037695,-10.7007,-14.8035,-4.4776,5.5392,6.286,10.3851,10.6892,8.3253,4.1963,3.9851,3.0565,
-3.4864,-7.7807,-9.4582,-18.4899,-7.4683,-1.7294,0.74405,2.4377,10.2574,8.56,2.3705,-0.51924,3.2506,0.39265,
-8.7331,-10.7845,-16.3289,-14.9005,-12.4761,-3.1131,-3.7638,-4.156,7.1629,0.60729,5.6999,6.951,8.5105,4.8333,
-6.7207,-2.6993,-13.8617,-6.5674,-6.2717,-3.423,-2.0506,-9.3625,6.2363,8.0099,5.8537,9.0139,3.5366,8.0149,
0.1295,7.878,-14.5179,-6.6687,8.2046,6.2061,7.4952,-10.2877,11.3185,12.9847,1.0397,-1.9413,1.8365,6.0461,
-1.8625,12.3644,-18.6059,-3.2937,18.9049,19.9337,4.0697,1.2403,8.6552,3.2791,-1.0069,0.15841,1.7263,6.675,
0.72929,4.1835,-10.0505,4.343,3.6706,21.9949,-4.6052,4.6375,1.6884,0.60234,0.54192,3.6205,-5.8163,2.8028,
13.5799,3.9329,0.47117,5.0745,-4.7664,10.7566,-10.28,-8.5352,-7.3399,-5.385,-7.426,-8.4985,-16.3776,-7.2839,
21.1963,17.0872,-6.9966,7.2496,9.6196,19.534,-1.232,-4.5519,-10.3706,-13.493,-10.4516,-14.4356,-14.8987,-8.3348,
20.9162,13.0861,-9.5517,6.8146,23.1424,15.3861,0.82512,-5.2704,-2.8051,-12.6834,-6.8496,-14.562,-12.0215,-3.8673,
26.604,5.3572,3.9149,-3.5129,11.9027,1.5685,-2.1997,-12.8896,3.3143,1.9636,-5.4465,0.41168,-18.2439,1.3243,
14.098,-5.8739,-3.2623,-17.4021,0.2788,-4.4763,-2.0677,-15.0911,-10.7701,-0.13746,-9.0872,11.0837,-23.099,-7.6817,
4.82,-0.066164,-11.4978,-18.624,14.3621,7.1984,1.5275,-3.7712,-14.5876,-4.5929,-4.0782,12.8982,-12.2912,-8.7087,
7.0108,4.4011,-13.2879,-3.4066,14.278,12.2223,-5.0107,-3.0491,-6.2733,-4.8132,-11.2726,12.6211,-6.098,-8.682,
9.0697,1.6565,-8.0269,-0.44032,-0.67867,9.0085,-6.1989,-7.3299,-2.4257,-2.0449,-12.0841,4.4243,-11.1884,-6.6741,
18.4446,11.4762,6.5547,-4.3813,-0.9198,8.468,3.1005,-1.931,-3.2718,2.0453,0.54323,-3.7761,-7.5412,2.6538,
18.8253,9.3002,16.3619,0.3448,4.5903,-2.4541,6.3861,-6.2784,-6.5471,-6.5081,-0.9768,0.91376,-2.6246,-2.9612,
20.6716,8.7422,16.3727,13.219,7.2907,0.669,4.0187,-0.9417,-12.1059,-14.0525,-5.8782,6.8106,-2.4671,-4.7668,
24.3909,16.1521,15.3899,14.4086,13.796,8.5633,2.7855,8.0408,-9.3959,-9.2424,-5.525,-6.4925,-6.287,4.4462,
21.9353,9.2318,18.4344,-0.55588,9.9929,-4.8449,8.5705,-2.3602,5.2679,-1.7441,-5.194,-3.1276,0.04139,1.2031,
18.6355,-0.24816,15.3446,-11.2188,0.46635,-13.4812,7.0642,-13.1288,5.7299,-3.6232,-3.8903,7.9703,6.9817,-7.7951,
17.5178,-6.1844,2.5212,-11.5368,-0.55278,-9.6961,5.6482,-1.4309,1.4192,-2.4137,8.2459,-3.4181,10.5307,0.60701,
3.5723,-2.838,-7.5487,-12.8283,6.4232,-10.1064,6.3014,12.542,2.3261,-2.2694,5.7675,-5.1968,8.9068,8.5059,
-3.5853,6.2588,3.8149,-9.0838,9.0127,-3.5493,1.9559,6.8294,-1.7818,-5.109,-2.5135,9.215,5.3965,6.0114,
-4.858,-8.2168,2.0981,-13.0015,-5.6281,-6.8075,-7.5842,-7.6803,-9.1135,-0.33875,-2.8589,5.9691,2.5932,-1.7879,
0.3925,-11.9731,-1.0036,-4.2875,-19.3904,-13.3423,-8.1208,-13.453,-3.6076,11.5839,1.28,-3.3165,5.4134,2.2868,
3.3443,-1.3361,2.032,3.9051,-31.1898,-18.4929,-3.6666,-5.703,-4.3833,-2.9972,-0.78049,-5.1012,-0.86252,-1.8183,
17.2436,12.8441,14.8045,11.6052,-15.2184,-3.2834,5.4804,6.5419,-12.0547,-5.7927,-2.7174,0.16439,1.1729,-1.7087,
9.0523,1.9409,11.9325,-1.9846,-0.20529,4.635,2.1762,7.1415,-18.2751,2.4893,-14.4571,-4.805,1.1021,3.3533,
1.5664,-12.2756,8.2412,-11.7841,-12.5227,-9.7431,6.0126,-0.22975,-3.0786,7.2995,-2.6785,-11.4595,4.0123,3.1517,
9.904,-10.8293,2.2918,2.3127,-13.2588,-6.4645,4.1644,-3.6876,7.308,-3.5525,2.9371,-8.2919,1.2915,-6.4598,
13.773,3.9205,11.5766,16.2739,1.6367,8.0233,1.4345,2.9811,1.4137,-6.8109,-7.6531,-3.3312,3.694,-3.5931,
6.995,8.9267,16.8327,14.5882,15.6385,9.8075,1.3485,0.81805,-0.65535,-1.4432,-11.1623,-9.0829,1.4882,3.5657,
9.5502,-1.528,8.8795,-0.1736,5.8416,5.2507,4.2434,-3.1994,4.343,5.5857,-5.5335,-6.5547,-2.5685,4.3434,
0.050664,-9.3712,4.3802,-8.0981,2.5153,-1.015,7.9562,-6.974,9.0425,4.2589,-11.1522,-4.1772,1.553,2.0996,
-0.944,-7.8164,12.0523,0.3227,2.3644,-4.9216,7.4788,1.3794,6.5167,-2.9389,-13.4579,-3.9266,8.4031,8.9168,
3.5759,-3.8767,-0.077339,1.7908,-3.2324,2.8128,5.5427,10.7189,0.66985,-3.2593,-1.2449,1.7648,6.4115,8.8776,
-10.5242,-5.6274,-14.1727,-12.4167,-14.9407,-6.2825,1.2427,6.1083,4.5971,2.8879,4.7814,4.6338,5.0342,4.3775,
-9.8928,-7.273,-5.174,-12.4489,-15.0359,-15.8246,1.1681,3.7586,11.2645,5.6904,-1.4561,2.3725,7.708,10.0665,
4.8008,-13.7803,1.0876,-5.7517,-16.1184,-3.9649,5.065,-1.4265,5.6291,4.3569,-3.3534,-2.7294,4.2702,7.4779,
8.2662,-6.0102,-5.9209,1.5366,-16.143,5.2004,2.7778,-4.3167,-3.6351,6.0787,-5.1355,-1.574,-4.9126,0.085941,
0.33071,-0.19427,-9.0368,5.9082,-14.679,-9.2116,-1.8525,-1.5782,4.0216,7.2019,-8.2994,-6.9349,-4.1225,-1.4071,
1.3034,-4.1501,-9.4862,-0.39701,-22.7239,-22.7589,-1.7414,-2.4751,10.7235,2.8023,2.1176,-5.5262,7.0356,-4.2976,
-5.7185,-2.9099,-14.8682,-10.2927,-35.4604,-19.478,-6.5964,-3.3187,3.1373,2.6347,13.8924,6.7072,10.5804,-6.0234,
-11.3265,-6.7023,-10.0091,-16.618,-45.0221,-22.2772,-0.2495,0.84836,8.9003,9.4194,14.0509,5.3127,19.8642,-0.70343,
-0.23207,-17.7066,-6.9286,-19.0925,-30.9143,-33.3387,1.2529,-1.6826,9.8537,2.4068,-0.18187,-4.4284,16.1933,-2.1487,
9.2046,-9.2047,-7.0091,-7.5325,-14.9594,-21.9156,0.68239,5.8579,6.7829,3.7503,2.3086,5.2601,8.7747,4.4272,
1.2128,-6.1729,-11.0514,-4.6001,-9.3158,-15.1453,2.1294,8.9776,2.9048,5.0132,-1.3011,7.424,9.7361,8.6253,
-7.2906,-13.2416,-8.9009,-11.7632,-22.1476,-22.6673,2.4974,10.919,0.2505,-0.7425,-8.6621,6.4828,16.591,9.5952,
-17.2681,-25.8378,-2.9119,-24.4481,-29.2494,-35.4073,2.8434,12.7429,7.6745,10.7086,5.9576,11.5487,20.0588,6.5405,
-23.6706,-26.7671,-6.2084,-21.4933,-26.9986,-34.0605,-0.79838,-2.1217,10.6852,18.4963,10.3453,10.3604,11.4158,1.6843,
-11.835,-11.061,-7.3238,-6.1037,-15.9559,-17.9169,-2.2384,-7.7316,7.5646,10.9395,-0.68986,11.2267,8.2513,10.0144,
-1.2072,-3.1727,-3.909,3.4714,-11.0311,-12.593,-9.0478,3.6425,1.1595,-1.6196,-1.6406,5.5936,4.7809,6.4373,
10.2722,-2.4861,7.7325,8.7184,3.021,-13.3254,-6.0245,11.8551,-0.39794,-0.034561,3.9132,1.7858,-0.96134,4.5631,
6.1842,-6.8002,7.7644,7.6995,0.35972,-13.0217,3.7593,-2.9562,-5.8289,-3.5041,-1.7774,-5.7604,-0.40785,2.8019,
-0.13801,-7.3843,-4.6043,-2.682,-12.5563,-16.2083,7.5007,-11.9881,-4.4881,-3.2934,-2.6619,-9.3817,13.7166,1.6417,
-2.113,-1.9812,-11.2703,-9.4634,-11.8024,-9.2841,2.0916,2.8312,6.6919,2.8558,9.4001,0.10769,21.6071,8.4864,
-8.4336,-7.3181,-19.0258,-15.343,-8.6148,-1.288,-1.5055,-3.007,8.7704,3.1803,11.3152,1.5896,7.9116,4.5056,
2.9831,-3.9032,-14.9084,-0.53594,0.82958,6.7241,0.56902,-3.8182,-1.6739,3.9811,8.653,3.4775,-2.4812,2.252,
11.2348,-9.1239,-9.5506,-0.0079771,9.2105,3.8416,-4.92,-0.11846,-9.0126,-2.7052,-1.2885,-1.1944,-2.8282,-1.3547,
7.0886,-8.0811,-5.5055,-8.4387,5.1858,7.0823,-5.1211,5.344,3.9258,-0.062416,-8.6507,1.3568,4.7801,5.1735,
5.1754,1.8265,-10.6305,-11.4035,-9.2254,12.1127,-6.3017,10.4787,4.1866,6.3883,-9.6196,6.7307,3.997,10.3185,
12.8007,-3.2421,-20.9034,-13.6951,-9.9453,5.4352,-2.9478,1.9151,-0.032056,2.0376,5.0576,1.3678,-1.2018,2.7561,
18.9754,-5.0313,-14.6896,1.0126,4.7514,5.1087,4.1718,-0.18353,2.9452,0.92321,9.4993,0.29365,-4.1051,4.5745,
17.8369,-2.7462,-3.8901,5.9119,15.163,-1.1495,4.9132,4.7875,4.7527,0.86782,-3.9646,-0.7156,-7.8262,3.3084,
18.2541,-2.0847,-3.16,-2.8745,2.8468,-8.5186,8.09,4.0035,4.9633,-5.6317,1.7291,0.81477,-5.8692,0.62987,
20.1352,-0.96845,0.99659,7.2176,15.5704,-0.073118,-0.32981,-4.1711,-1.2856,-8.2691,5.5923,1.758,2.4183,1.5842,
24.3819,1.5697,11.3517,20.8845,16.1236,11.3378,-7.7491,-3.4251,-9.6392,-8.2688,-8.8433,-9.754,-0.20681,-4.9583,
35.3171,15.5755,24.7706,33.7314,16.6436,24.7575,1.1465,10.8805,-7.5734,-4.301,-16.0331,-7.6813,-3.666,-0.19663,
26.2549,16.9065,14.6392,26.3196,18.6208,21.5702,5.0452,9.5183,-3.1515,-7.0188,-7.1362,-3.2521,-7.4135,3.7826,
15.7535,1.7921,1.859,10.6404,10.5608,6.3899,2.7588,2.0035,0.012894,-11.5572,-3.7327,0.91003,-2.0092,0.57937,
6.3767,-0.58144,-2.7167,-4.098,0.50386,-6.3916,2.0974,6.3465,-1.4753,-5.408,2.9387,5.3187,1.583,-1.9345,
-8.1059,-7.9847,-14.9518,-17.9521,-8.9487,-20.1081,2.4674,-0.48075,5.0606,3.3472,16.8624,4.5037,5.9513,0.66067,
-21.7196,-16.433,-16.0389,-29.128,-10.396,-23.1514,2.3193,-2.4361,14.6751,2.1538,17.1236,10.1842,10.5533,6.5717,
-16.5168,-23.381,-15.0756,-16.4687,-8.7796,-10.8516,2.1802,2.6701,11.8114,-3.9261,1.9962,20.4848,2.9778,1.2193,
-18.9975,-13.5474,-15.6585,-9.0341,-2.798,-2.7614,2.5452,10.9406,4.6553,3.7485,1.5951,21.7348,3.2949,-1.3339,
-24.8004,0.15887,-11.7437,-6.5083,-4.6138,2.3638,-4.5503,11.2753,-0.5836,5.5073,7.4505,7.5363,4.0884,5.689,
-19.3454,-5.8018,-4.0963,-6.1173,-7.3123,-1.7459,-0.31032,1.6718,5.4026,-3.7501,10.9704,0.14131,1.8593,4.3555,
-12.7289,-16.8602,-2.3631,-15.1735,3.5403,-15.0319,2.1883,-6.8592,4.5826,-5.0125,9.8164,11.5393,1.252,-1.3607,
-16.9242,-8.9053,-3.2129,-18.2306,10.2712,-10.1616,2.057,-0.49603,7.2835,7.1906,8.2358,15.806,9.1117,9.6316,
-28.8041,-7.3789,-8.9713,-20.1121,2.7121,-4.5933,5.9006,-5.4258,13.7892,5.767,6.7496,0.75768,11.5404,2.11,
-22.6121,-5.4483,-3.9693,-13.45,8.9964,-8.7805,2.0754,-7.5798,9.4907,1.9499,9.8167,-1.5534,6.3852,-7.4384,
-13.8163,-6.6098,1.7237,-7.1881,14.904,-14.7011,-2.5124,-1.6701,1.4822,-2.6304,10.7151,8.9547,2.5304,-1.5372,
-15.4674,-2.7416,-1.8513,-5.2694,11.5298,-8.3642,4.0848,-3.0574,1.8891,-6.9368,9.5764,3.9533,0.89023,-1.9408,
-10.5714,4.3657,-0.74814,-13.8793,16.7892,-1.9112,3.8402,-6.8418,4.7511,-5.5285,6.0255,-6.2025,0.83729,-9.7597,
-6.9618,-2.839,0.28885,-16.0219,16.7739,-7.7467,-0.35717,-3.455,0.49907,-1.2288,1.697,-6.8215,0.78752,-7.1904,
-16.4627,-7.6282,-1.7122,-3.1587,7.8321,-0.33911,1.648,6.6709,0.46865,-0.16396,-0.38852,0.53053,0.7398,-0.80784,
-29.5749,-8.1617,-2.6016,-10.9036,8.3543,4.6408,1.5486,7.2627,8.3759,-4.1211,2.6101,3.474,0.69588,-2.7431,
-27.0906,-6.1845,-2.9422,-11.7378,21.2428,1.8823,-0.032666,1.3711,6.385,1.5811,0.9661,0.7856,-2.8184,2.8764,
-11.3652,6.0889,1.2027,3.0665,30.8799,12.6801,-2.013,2.2814,0.051166,4.462,-8.0184,-1.2448,-6.6158,9.648,
-1.9703,5.7235,-1.8453,16.9825,14.9271,9.9351,-4.869,3.1362,1.0397,-3.7406,-14.4805,-7.1217,-5.2273,-2.8342,
-12.7623,4.388,-6.6941,12.5603,-0.068554,4.3794,-4.5764,6.915,5.9369,0.45081,-3.6931,-2.7265,-1.9383,2.2954,
-10.0124,5.1173,-10.2599,13.7909,2.3463,14.0357,-4.3018,-0.44318,8.5565,4.3921,2.4801,2.3961,-8.7643,5.1335,
-3.4609,13.7368,-6.6685,17.9225,1.2139,18.1536,-5.0353,0.57598,7.0515,1.1528,-9.571,3.2449,-8.2384,-2.1168,
-4.7412,17.3754,-5.7721,13.376,-4.3143,2.9644,-0.27041,9.9642,5.1395,-2.3885,-11.4772,1.5623,0.68609,-1.4945,
-1.9767,5.9189,-9.889,5.1344,-1.5755,-1.9595,3.2174,6.8864,6.3195,-3.7326,0.61792,-4.9788,3.1249,2.0668,
1.1172,11.5149,-3.3455,12.7607,4.4702,12.2581,-1.9351,4.4894,0.98083,-6.484,-0.41125,-2.6964,-3.0137,1.9424,
-0.93351,18.7584,-2.1526,20.922,3.2099,23.2114,2.1489,1.2447,-4.0376,-12.0461,-3.3619,3.4165,-3.825,-5.117,
-4.8449,14.6581,-1.0319,11.7318,3.0173,14.8755,4.0032,1.1701,1.1638,-7.3559,3.7831,-1.7475,-3.5955,-4.8099,
-7.0342,11.2986,10.4366,10.5321,4.3247,14.4787,-2.6835,1.5957,-1.3851,-1.4597,1.0761,0.8364,-15.7779,-2.0413,
-5.6201,8.6369,16.7541,22.7946,-0.89435,14.6021,0.45286,0.50783,-7.2532,-4.3474,-2.9555,12.689,-13.8391,-4.8942,
-0.81964,6.6313,17.2363,27.8744,-2.3281,7.2785,2.9057,0.97317,-10.2896,-10.534,-6.2498,1.5128,-7.5539,-4.1047,
-0.27465,7.7208,16.6979,28.681,-1.6936,-5.5563,5.2104,2.4032,-2.2332,-2.4629,-3.3948,-7.0087,-1.6458,0.60479,
-14.1442,1.3064,6.7691,16.0489,-15.692,-15.1415,1.9224,-4.6848,-2.0997,-1.323,1.7675,-1.6286,1.4283,-2.4078,
-11.8072,-0.25939,14.7946,13.5995,-23.9588,-5.8023,1.3113,-2.9153,-10.4034,-5.7069,-1.8092,-1.0351,2.831,-3.7508,
0.80357,-3.2196,19.8576,14.7668,-18.5538,-1.4868,2.2242,4.2029,-10.7718,-6.3561,-10.6281,-10.8911,1.6695,-2.5341,
3.7307,3.9163,5.7717,17.8478,-22.4001,-0.40546,-5.8436,2.9586,-3.1827,-2.9994,-7.0151,-2.3032,2.5605,3.5691,
-0.95639,12.112,-3.0053,16.2811,-23.5357,-2.8611,-9.9572,-0.69053,2.4641,-0.34039,-3.1226,-0.67761,8.8543,10.794,
1.0847,8.41,5.1104,9.3531,-16.1719,-7.6481,1.5514,-7.5919,8.2674,0.67213,-6.9022,-6.5872,11.2993,-1.7554,
-1.4604,1.4579,-0.65206,1.3528,-14.7058,-5.7017,2.9457,-10.608,5.2914,-0.85563,-12.9355,-3.7129,4.1739,-15.7501,
-2.8602,0.87463,-4.0846,-4.1832,-18.2876,-3.8722,0.28899,3.4182,5.4697,3.659,-8.6877,-0.018476,2.4351,-0.70606,
-0.20952,2.3096,-4.3353,-10.3797,-3.7997,-4.1357,-2.2074,15.6113,2.6615,-0.03221,-3.7032,-4.4816,-3.1659,12.727,
-5.156,-2.788,-12.0101,-8.7653,10.3148,-3.8875,0.90085,17.6504,4.486,2.9455,-0.50521,0.74734,3.9673,11.9634,
-18.7332,-13.5315,-23.1918,-12.2068,-4.4041,-15.5575,1.8384,10.6398,6.2001,1.7762,-0.47489,6.6532,8.6884,9.2614,
-6.2017,-1.3121,-20.3119,-4.0344,-14.3403,-0.5241,2.2239,9.5065,-0.61842,-2.7926,3.0252,7.7424,2.7122,4.2434,
5.5769,0.25404,-12.6467,4.6384,0.62015,13.6073,-2.3728,-2.4704,-9.012,-8.0809,0.36371,-1.1529,-2.9064,-10.1112,
4.2502,-3.7291,-4.9451,5.3512,14.6829,25.2584,0.74495,-4.3068,-1.5285,1.3309,-5.6093,-4.06,0.24335,-0.86082,
3.0031,0.4616,-11.5912,-6.8727,0.97497,9.8559,1.6924,7.8544,3.5218,4.2264,-11.2239,0.15153,-0.76334,13.2908,
7.2861,3.9055,-17.3432,-1.9961,-13.1835,13.7287,1.095,5.8947,0.83143,-4.4579,-6.0872,1.6299,1.7625,8.8078,
1.3941,9.127,-11.8384,12.2237,-15.1539,16.3766,-4.4256,5.0462,1.2774,-2.703,-0.26614,3.0205,8.1042,-1.143,
-12.5756,1.6366,-16.0876,6.813,-26.147,1.508,-8.128,-0.21613,4.177,2.4188,-4.2181,-2.1203,3.6509,-12.9763,
-9.8373,2.5305,-16.1144,-1.5311,-23.5865,-0.56622,-0.69749,-2.1869,8.885,10.209,-4.9571,5.9423,-1.5277,-10.214,
-8.7513,7.8336,-13.6592,-4.9109,-16.716,-2.0197,1.8244,8.3583,6.8644,7.1164,1.7878,13.0248,-4.9076,-0.17881,
-20.6248,0.91658,-17.3034,-18.7162,-29.1033,-5.3706,-1.7572,9.3447,5.9563,0.24248,5.1517,5.7954,-7.0927,-5.6234,
-5.9971,2.3495,-14.7773,-10.4365,-31.8203,5.366,-2.1471,7.2961,4.111,5.6833,2.363,9.9114,-5.1792,-0.8223,
4.2809,-0.7673,-13.8916,1.1004,-22.9683,-0.90755,-0.035034,0.90669,-2.0863,4.3497,3.2129,15.2674,-2.8852,7.1619,
-9.8616,-7.6645,-12.0655,-4.9163,-18.6144,-7.7954,1.9513,-1.131,0.022088,2.1055,1.0369,7.409,2.247,2.7648,
-15.2206,-3.2372,-8.3658,-4.6213,-22.4566,-3.3602,-1.1416,-1.0631,2.9966,5.9466,-5.9686,1.0129,0.12889,-1.3686,
-8.3571,-1.0593,-8.8559,-2.3613,-21.1097,-5.1423,-3.0569,-3.9747,3.8089,3.6061,6.2923,3.9274,-4.8384,-5.2544,
-5.871,-3.971,-7.3325,-3.2108,-10.9161,-5.8259,-6.8404,-0.76083,2.5883,-0.57725,15.8334,11.6272,-3.556,-3.947,
-10.4788,-9.6844,-6.8935,-4.0107,-11.2533,-6.468,-7.4226,5.2364,4.4162,3.4239,6.9485,7.9537,-2.351,1.2489,
-9.85,-10.095,-15.4064,-5.7533,-12.5618,-4.0966,-3.0098,8.8897,0.18379,3.2184,-0.41169,0.53322,-7.169,2.1656,
-5.7874,3.9005,-12.002,2.031,2.2919,4.5798,1.6341,11.827,-4.2905,0.54534,-0.8828,1.9887,-2.2756,10.4663,
-1.4727,2.6748,-3.347,-0.075071,15.3312,4.3051,3.5202,1.1993,-2.0489,2.4968,-1.8215,4.8452,1.8284,9.8393,
3.0789,-6.908,-6.6178,-3.5422,12.9229,6.5268,1.8206,-3.336,2.5373,6.8103,-0.22473,10.0103,-2.7446,5.7773,
-10.0003,-11.453,-15.1477,-12.2557,14.1312,3.1598,-3.2472,0.83117,-0.59027,0.45048,1.7725,3.4585,-3.572,2.4544,
-12.3756,-8.7821,-9.2793,-13.5041,14.2755,-1.9893,-2.0603,0.78177,-4.5228,-0.5677,5.634,-3.6918,4.5777,1.316,
-6.6735,-3.2957,0.20445,-9.7185,13.4194,3.0896,-0.9455,5.6944,-4.2509,6.4091,1.3281,2.4809,1.3267,-1.7383,
-14.208,-6.0737,-3.7753,-11.1186,5.671,3.8958,1.0954,8.3286,3.939,6.0246,-1.7274,4.3153,-5.6952,-3.6182,
-2.4458,-1.7419,-7.5162,-5.4924,12.273,10.6053,0.037127,1.8772,7.6701,2.6873,1.352,0.088912,-4.3619,-1.4179,
9.1084,-5.109,-7.561,-10.6187,9.0576,3.5216,-9.3874,-10.6336,6.7141,3.0219,7.7184,-3.3881,-4.596,-9.7635,
5.5861,-9.7615,2.8117,-11.9648,-0.41236,-9.5837,-2.8725,-3.0523,17.2219,11.768,20.1492,7.7259,2.623,-4.2177,
4.7547,-3.7205,-3.8049,-2.8158,1.1003,0.41414,-5.1807,0.60201,6.7658,1.6391,4.8403,2.7986,-1.9981,-6.4442,
18.5694,9.3972,-7.5436,9.255,5.9929,14.4893,-3.8777,1.558,0.40873,-4.4104,-9.5502,-7.2879,-0.88608,-12.0087,
18.7296,8.3375,-9.571,1.2606,-8.4667,27.7199,-5.1325,4.9361,-2.0958,-1.6667,-6.565,-7.3464,-0.3371,-12.7765,
6.6952,4.8615,-9.9883,-2.7815,-22.0587,25.1335,-6.8078,4.64,-0.97748,-0.57412,-0.22045,3.0134,-5.2759,-8.0416,
17.6995,4.0735,-4.9263,4.824,-17.3314,16.1859,-3.9207,4.8569,1.5598,-2.0276,-5.6626,1.3447,-4.464,-9.0479,
15.6459,4.8207,-6.6139,2.5504,-21.2511,17.198,-6.6613,5.5571,-3.4929,2.0606,-2.347,3.2473,-2.213,-10.4883,
0.60715,-3.4029,-16.1357,-11.7027,-34.076,13.1908,-8.2444,-2.7107,-2.2912,1.9374,4.7366,0.077114,-2.0797,-12.8343,
-2.1902,3.7445,-8.2243,-6.8182,-46.1315,12.4003,0.18513,-0.56388,3.7979,1.8221,-0.50666,-7.8624,2.0135,-7.1052,
12.0412,12.4463,-0.78758,7.6909,-29.2636,19.5912,-1.8102,5.4206,-5.3574,-3.2472,-5.4353,-7.3906,1.8917,-10.6463,
17.0555,8.7242,-1.7324,7.0155,-14.3994,16.432,-7.6527,7.0791,-8.0113,-6.0277,1.8336,-5.9551,1.7787,-14.9671,
18.0159,11.1761,1.3469,-4.3166,-26.4298,4.5349,-6.2015,5.6623,-0.58787,-3.6824,-4.2276,-7.5815,-0.31176,-8.1179,
18.9182,4.5539,0.27443,0.90148,-32.7789,7.2386,-0.8703,4.3309,2.4232,-2.4698,-8.9339,-1.1759,-3.2689,-3.6634,
7.3696,-1.1737,-10.1564,0.35205,-26.3485,9.2838,-3.2976,1.5915,-1.1933,-3.8095,-0.95837,2.3667,-2.5765,-7.9064,
3.9516,-2.0949,-9.5471,-8.5956,-26.7513,-5.3732,-9.0505,-3.463,-3.1059,-1.5967,1.0833,-4.7185,-0.43862,-10.4078,
11.1531,-12.3846,-5.5031,-11.5519,-37.5453,-19.1508,-4.0446,-14.6622,2.5358,0.97765,8.4569,-1.9559,-2.8918,-9.288,
7.5076,-13.6253,-7.1566,-4.9077,-30.333,-17.078,3.1408,-11.7988,2.3832,0.91946,15.8839,8.0801,-2.7188,-4.7628,
10.0335,-7.8482,0.21556,-3.6211,-14.413,-4.1506,-4.982,-0.17968,-6.6859,-5.0869,8.9807,-1.3308,1.4122,-10.4282,
23.5315,6.7227,14.3026,8.498,0.55174,10.1985,-7.6585,5.7823,-9.261,-7.757,0.50647,0.73184,2.3196,-10.7946,
26.8647,16.0235,24.1412,22.0881,12.9856,23.6866,-7.199,2.4595,-17.6318,-10.2674,-11.4262,5.647,-11.9196,-5.1879,
25.2533,7.1277,19.7174,28.4838,13.1986,21.8375,-1.8075,3.304,-6.6553,-5.6834,-3.7979,-1.6346,-9.0072,-1.9003,
24.7302,4.7163,17.5423,19.8319,7.4466,7.6328,-5.6669,6.0811,-1.2965,-3.3587,3.3728,-7.4877,-1.524,-6.7458,
17.7905,2.9459,15.9939,14.1788,4.5203,-1.2559,-4.8311,-1.7228,-10.641,-3.653,0.69135,-4.5584,-7.879,-5.8453,
16.7231,-3.1825,15.0343,13.3281,8.2165,-1.1805,-2.5571,-7.5701,-10.0025,-6.4096,-2.3259,-3.2933,-12.3654,-6.4862,
20.6788,-1.9999,15.1238,8.5609,7.7235,3.8494,-5.3794,-1.1652,0.51574,-2.0576,-2.1864,-5.0789,-0.71368,-2.1296,
11.0078,-2.3753,10.7453,3.5835,-0.17894,-1.8369,-6.5446,0.3926,2.9643,-0.44625,-4.5347,-4.2789,3.7929,0.47775,
14.8106,2.2305,8.6122,15.7667,6.2788,-5.1983,-3.6729,1.8565,-3.661,-2.8995,1.1922,-1.5421,-6.8496,-2.0309,
25.329,7.552,11.5675,18.2928,8.382,3.5447,-2.9562,4.2256,-1.9525,-4.2134,6.576,-2.9375,-5.9423,-1.4128,
18.3534,-3.316,12.3609,3.8045,-0.55204,-0.14054,-1.2914,0.49946,0.64374,-3.4648,-7.9185,-4.2496,2.8449,-5.7922,
17.748,-7.5803,15.0909,2.0888,7.9118,-6.5786,0.27447,0.9653,-0.88326,0.21471,-16.1564,-3.4979,-3.7732,1.9944,
14.2036,-5.6376,16.665,4.443,-1.9853,-8.6634,-1.2299,1.4037,-1.3256,1.6897,-6.7559,-4.7759,-6.0264,12.2901,
-0.74862,-3.3156,7.7307,0.20945,-15.9661,-6.1599,-6.1147,5.2874,0.73765,4.5646,-2.3826,-1.5131,3.2622,4.6099,
-5.9446,-10.5557,-6.8332,-13.9031,-0.90817,-16.2042,-5.252,4.4743,1.1892,-0.17343,2.2236,4.0326,-0.40518,-9.7667,
8.2976,-5.9549,-11.6646,-21.2861,13.2463,-17.2162,6.9654,4.2058,3.102,-0.16303,14.9841,2.799,0.6117,-3.5114,
17.2221,6.8005,3.1353,-8.6034,13.2292,-2.0832,6.0508,-0.5107,0.43591,4.31,4.6618,-2.8248,-0.91338,5.129,
20.652,2.9208,15.6267,3.3203,12.9317,7.7464,-1.7514,-0.97587,0.90557,4.5472,-6.0318,-5.1353,-5.3218,-6.5852,
16.9338,1.2582,5.2668,7.5843,23.5623,-0.15743,-3.1337,3.5469,-2.6204,-1.1805,4.745,-1.3555,3.4282,-9.6608,
1.8178,5.1501,-9.1492,3.1618,13.2221,-8.0829,1.0217,-2.6176,-6.4306,-9.0445,1.4844,3.6858,3.2225,-0.15463,
-10.4754,7.3206,-3.9231,-0.49907,11.9325,-2.1425,10.3832,1.0116,2.3864,1.9125,-4.06,6.9358,1.5412,10.2691,
-16.2939,-7.2186,-5.1746,-5.9245,-0.1895,-10.4442,-4.3398,1.4462,-4.2038,0.31083,-1.3368,-2.9031,2.9367,-1.7531,
-16.8046,-9.5473,-12.3042,-0.11413,-8.6098,-18.2492,-2.8738,1.8553,2.495,-1.1962,11.1415,11.3711,12.1828,-2.1447,
-28.6908,-2.0308,-18.5087,-4.0743,-0.15782,-8.2273,1.2665,1.7444,8.2974,0.85929,1.547,23.8655,0.54158,3.9361,
-40.8554,-4.8852,-9.4628,-13.7493,-4.1158,-2.7741,-5.7532,5.6067,7.7991,5.7673,-2.5137,8.5466,-0.48301,2.7078,
-52.2901,-14.5107,-7.9039,-17.883,-17.9688,-16.7076,-2.4317,6.2624,13.2823,10.3798,9.5389,-0.89221,13.646,0.56165,
-56.0959,-11.6563,-8.4208,-9.8672,-27.5875,-28.3856,3.6654,3.903,13.4774,9.7575,14.9177,13.2613,13.6054,8.4624,
-49.2581,-11.4528,-6.4281,0.14809,-16.5094,-17.2602,0.96544,4.1646,12.173,3.7172,5.592,9.7717,4.3583,2.4997,
-44.8152,-10.2698,-2.5708,5.5941,-14.0314,-2.1246,-0.58087,2.4263,9.9542,3.989,-4.1658,-4.9146,4.5926,-4.0977,
-49.0695,-4.6941,6.5104,3.2747,-19.1407,-6.6743,-8.4804,-6.6462,-4.743,1.766,-0.94055,-3.91,6.3008,-5.8356,
-33.2309,1.5383,14.0547,4.0699,-7.0816,-16.192,-7.9716,-2.2791,-8.2119,-1.3149,1.1001,-0.69956,13.8576,-4.4928,
-21.318,10.3734,11.2272,10.7689,7.4433,-7.2856,-3.5259,4.8009,-2.7602,1.7398,-13.0659,-6.6092,8.0671,-0.25584,
-34.1389,4.7915,10.554,6.1558,2.8158,-3.8731,-4.3055,-0.44666,-1.6025,4.6108,-9.0922,-8.1954,0.64031,1.7432,
-40.3073,-6.9025,9.425,-6.6126,-7.768,-14.0556,-4.5439,-4.8831,-0.017923,-2.1133,2.8589,-3.2405,0.10608,-2.8246,
-23.7889,2.9349,15.3069,0.23159,6.7981,-7.7564,3.1678,4.8322,5.438,-3.4739,-11.4126,2.4088,3.5713,-1.1677,
-8.2615,7.222,22.8192,4.6809,20.4902,-3.8194,6.4503,-1.9042,0.64849,-2.7697,-18.4483,-8.1496,3.8529,-4.5693,
-14.1454,4.8045,24.4249,4.4001,30.7352,-5.5745,2.0949,-10.7174,-4.3495,-0.61932,-3.2414,-13.6123,-1.3383,-3.3035,
-0.89807,5.0125,14.5292,3.6398,39.3055,6.166,3.4571,-4.619,6.3259,-2.0701,10.1289,-4.3653,-2.7459,8.3017,
7.0907,5.7034,0.76256,1.4382,48.8495,11.7477,11.1846,-3.3503,0.98634,1.029,-3.3728,-2.1192,1.3863,10.7785,
7.1611,11.8087,-2.7548,8.7909,58.3176,14.5145,9.0261,-1.6609,-8.4952,5.4305,-2.6746,-7.4479,-0.18434,2.6927,
-5.1704,11.0997,3.3626,14.2146,40.7185,9.6757,1.5417,3.3983,5.9006,-1.8381,3.437,-7.9922,-3.1486,-3.4191,
-18.7472,8.45,0.18453,8.4022,24.1754,-0.82344,-4.5029,4.1856,8.5219,-8.6706,-1.7288,-1.5615,1.0073,2.7363,
-3.5224,0.50437,-11.2326,-0.53307,26.624,-1.2694,0.23101,1.4549,0.57199,-1.7034,-1.1287,4.9792,6.4022,10.0116,
10.789,-8.9482,-8.0786,-10.915,39.1265,-11.6081,9.6404,-2.1031,1.0335,-2.097,4.3948,1.2088,-2.4126,1.9719,
13.1858,3.9868,6.5061,-6.7885,50.8789,-25.0116,9.5578,2.4864,5.4347,-4.4502,1.6511,-0.35116,-5.7395,-4.5929,
11.8989,5.235,5.9013,-4.8937,53.8457,-35.1998,10.4718,-1.1354,4.6128,-3.6884,1.0553,-2.8101,2.0439,-3.8225,
8.2091,-5.9898,-1.396,-1.6243,51.6066,-32.0961,10.8351,-3.0505,0.36862,-2.4745,5.952,-3.6331,6.8804,-0.61733,
-5.1779,-9.5983,1.6631,2.4401,49.5023,-28.1867,10.1855,2.092,0.34603,-5.3023,0.63532,-6.3914,3.4922,-8.5147,
-7.8425,-7.0377,5.5312,-6.6323,54.4675,-31.454,16.5171,-7.9521,8.2606,-5.9753,0.59767,-7.9907,8.2422,-8.9959,
-11.8357,-11.0792,-4.2235,-18.633,44.7515,-37.998,14.0382,-11.9387,0.32639,-4.1289,8.992,-3.0485,9.2356,-2.0092,
-17.5721,-19.8367,-15.3766,-19.995,27.9665,-32.2465,13.6926,-1.7991,-6.1406,2.5663,8.9493,0.60606,8.1856,-0.40025,
-15.5266,-10.7121,-8.5028,-7.8851,29.9741,-18.4098,7.9106,-7.6433,-0.81361,-0.56398,-5.6877,-0.4224,3.7266,-4.3441,
-12.6113,-1.1424,5.8934,4.4908,30.1593,-18.2964,-0.49845,-10.16,0.2273,0.46196,-9.1004,-0.39659,0.52764,-1.1082,
-2.4318,-5.5376,8.0193,6.7009,14.9595,-17.6949,1.0194,1.8566,-3.2575,1.9221,-2.1074,-2.8523,2.9755,-4.5128,
8.129,1.2421,9.0265,12.7463,14.5578,-12.1699,4.4298,4.2242,0.40959,-3.649,-10.4116,-0.20212,6.2686,-5.7295,
0.20218,2.655,13.9398,13.4689,15.1727,-20.8621,5.6515,-7.4357,2.865,-5.9091,-12.2669,-1.6774,-1.5466,2.0524,
-5.7606,-1.4717,14.096,12.6608,5.3358,-19.6103,4.3208,-7.9812,1.7015,0.39611,-9.5467,-2.5684,-3.437,9.8651,
-5.9113,-2.8713,7.7949,6.4458,-1.4322,-11.9867,-3.3771,0.92884,4.0789,-1.1156,-8.4786,0.065227,2.2236,8.7769,
-0.59802,-3.6912,4.3509,2.0921,2.6207,-15.2355,-5.1591,-7.0622,3.8337,2.9193,1.9487,-1.9224,4.0739,1.3066,
9.3569,-6.4455,3.0982,6.9256,14.3657,-13.3297,-4.8496,-18.5408,-3.3396,9.6864,2.8234,-5.7754,-5.097,-3.7309,
2.8444,-7.0499,6.8803,0.55894,6.562,-8.562,-3.5665,-12.4688,0.82873,4.1467,5.6303,-2.4526,-1.8159,1.4525,
-11.4263,-2.1637,5.9707,-5.922,-7.9318,-16.479,0.11912,-3.29,2.2664,-2.5496,11.739,1.1662,-0.21948,11.7793,
-9.0393,-6.9934,1.6455,0.38444,-0.79539,-14.4981,-0.88012,-3.0931,-3.8207,1.5713,5.0835,12.0064,-4.1733,19.0079,
-2.05,-20.6738,4.0263,-0.13397,12.6426,-6.1897,3.6364,-6.3787,6.823,8.9156,7.258,20.7088,4.5083,13.4037,
-1.4307,-16.2431,2.2968,-11.5329,4.4454,-10.2811,4.9061,-8.4755,8.894,5.9012,7.3188,6.0761,5.7257,-0.78983,
12.7551,-1.1685,5.6306,-3.4019,7.6494,-6.1935,5.1076,-0.52882,5.8795,3.0671,-1.551,-5.695,-1.0653,-7.1899,
16.7354,-5.2803,3.8053,5.2329,5.703,-4.3335,-8.5886,4.9587,3.0476,-0.58857,-11.8728,-2.8733,-15.1014,-9.2385,
14.2438,-2.4835,-0.88717,7.399,8.8324,-1.5945,-2.6184,5.157,3.3606,10.8533,0.24605,10.6888,-12.9902,2.7223,
10.9092,-1.8386,-12.2395,-7.145,5.8234,-6.9537,8.9452,-5.5663,-0.31173,5.7388,8.6629,1.6168,-9.7298,-1.9043,
23.1491,3.2312,-0.59491,-5.0149,11.4242,2.3905,10.3922,6.6695,3.6739,-4.5241,8.1427,-2.4472,-8.1549,0.19371,
16.3043,-6.3859,-4.0308,5.7009,4.2923,3.7345,0.34539,0.81444,-2.9939,-1.7727,1.2067,0.17873,-11.1372,1.6695,
2.4321,-6.0028,-11.7239,1.3914,-2.9085,-4.4235,5.2847,-5.1851,6.1131,12.4337,10.0617,11.0787,1.4333,10.4968,
0.79827,-5.1463,-16.4758,-12.7921,-16.834,-17.5492,4.4713,-0.41123,5.2501,4.0346,4.9943,3.967,-1.1322,1.4358,
13.6448,-5.8296,-12.5119,-9.3311,-21.0654,-18.48,8.1709,1.5972,0.96715,-3.1502,2.7109,-0.23892,-2.0564,-6.5847,
14.3135,-2.9999,-6.3063,0.65112,-22.2814,-15.8828,-1.7426,-1.9703,-2.5625,8.4444,2.0524,6.2229,-2.4288,0.25685,
7.504,3.1308,-0.96792,-2.3628,-20.9446,-8.9792,-5.6055,4.0996,5.5271,14.8809,0.93673,9.8169,0.69275,8.1763,
0.60682,-3.504,-8.3494,-12.6364,-8.2809,-8.9358,3.162,-0.61014,6.6824,3.5737,1.3768,3.7726,6.1065,2.2304,
1.5616,-3.2933,-4.8721,-3.9429,0.15036,-9.3917,2.9718,-8.5089,-3.6371,-4.5752,5.2621,-0.42076,-0.21102,-2.862,
9.4032,-2.1045,9.3062,5.2207,-7.794,-9.8203,-2.166,-5.023,-11.3533,-4.3011,-1.9973,-3.3718,-10.1179,-4.675,
22.7255,0.99755,17.6744,1.9316,-0.38311,-4.272,7.883,-0.75324,-11.6647,-1.0672,-7.8282,5.758,-8.5183,-1.4187,
17.3946,-6.0046,6.6958,-12.2843,2.6157,-10.958,8.4026,-12.6104,-6.0048,-7.9465,-2.3994,0.45341,3.8952,-4.3084,
7.4239,-14.5713,2.3261,-18.2756,-0.5166,-18.2354,4.9231,-7.8858,0.30665,-2.5101,1.7124,-13.6738,15.5642,-0.081987,
7.9701,-4.7705,5.1624,-3.079,11.4167,-7.2232,6.611,6.6873,-5.6634,8.5512,-3.3503,-8.6729,10.6629,9.8411,
2.5333,-1.509,-4.0744,6.8099,10.7322,-10.7567,8.198,2.1047,-1.3557,4.0711,-3.1488,1.767,6.0562,5.2836,
1.3887,-6.3775,-3.8299,-6.4936,5.1282,-7.1365,5.722,-0.0057952,6.6606,0.85011,3.9834,-0.3232,8.6677,2.9824,
3.7854,-8.4748,1.8557,1.336,13.2522,6.6829,1.907,6.442,0.80605,-1.68,6.2244,-1.7912,6.6602,3.2993,
11.989,-9.4547,-5.6956,8.694,10.9687,4.7935,0.30516,0.59966,3.2367,-4.0592,-0.59748,-4.1638,2.788,0.62133,
20.1966,1.0321,-9.3209,3.2128,5.351,3.5138,-0.70525,4.5306,12.9611,5.1114,1.4221,-6.8902,9.5645,4.552,
15.0174,-3.9889,-7.769,-6.8981,11.9732,1.3198,2.3129,10.2104,9.2086,8.7721,7.2893,-13.4191,7.999,2.2956,
17.587,-10.197,-1.849,-8.9642,25.3548,2.728,3.6615,-0.81707,-0.76718,0.80673,1.3962,-15.094,-6.581,-5.2822,
30.6318,-5.6182,10.1648,3.4764,35.0261,16.4504,1.4581,-5.7266,-2.7049,4.7262,-8.6062,-3.2772,-5.4763,-0.0056907,
33.5399,-6.2727,9.5549,6.2437,32.9245,13.4801,-2.5968,-2.4082,-6.51,-2.5006,-10.074,-1.0973,-2.1719,-5.956,
25.5759,2.0385,4.0225,7.8523,43.843,11.6787,-3.4326,11.6228,-10.0869,-9.2938,-6.4938,-2.0231,-4.0258,-2.6238,
24.5372,3.4036,-0.68208,1.9263,36.7492,19.4087,-7.6899,10.4297,-5.0184,-0.3055,-5.6083,-3.3901,-3.2885,11.6336,
25.545,-5.2313,-12.0477,-8.6042,20.4442,16.7567,-12.6843,-2.5943,-2.2373,0.20865,-0.80858,0.28495,-4.5786,9.7305,
30.4592,-6.4053,-11.8211,-0.64933,9.5124,8.3118,-6.4679,0.039983,-2.5993,-2.2834,1.7195,5.7232,-5.7918,3.6904,
17.721,-8.0042,-4.1686,1.3738,4.9743,2.854,-1.1208,0.037582,-1.4517,-2.1464,-4.3344,1.4124,2.4906,5.4531,
9.2186,-2.0691,-3.4226,3.7704,-2.7633,9.1302,1.4265,0.53209,6.0744,3.4373,-0.6027,7.7751,10.7719,7.606,
12.6334,-3.9287,-10.1601,0.56888,-7.5561,1.6396,-0.64284,0.49969,3.7262,-0.73595,1.4172,4.3332,1.1986,-4.7532,
20.3061,-7.1646,1.856,1.0315,6.9973,-1.9304,-1.1001,7.9088,-3.9364,-2.1792,-2.1395,0.6016,-3.3366,-1.988,
19.0882,-7.7259,12.6549,5.9282,12.8109,-3.7983,-5.001,6.4431,-13.6188,-4.0322,-9.9465,0.56503,-2.1443,0.115,
22.9025,-2.3028,2.9686,6.5646,-2.0577,-4.5625,2.2418,-0.88722,-1.8905,-1.8065,-2.4059,-1.4526,-0.031918,-5.8431,
18.0567,6.2661,-11.3095,-2.26,-12.1352,-4.7845,3.5947,-7.2805,4.6694,0.78091,-1.7658,-8.8045,-2.51,-5.9883,
2.8733,-0.061517,-0.0025426,-6.0927,-16.3671,-18.5975,2.3874,-13.7879,2.4051,-2.2418,3.2992,-1.333,1.608,-1.6625,
-5.5158,-14.1578,13.3888,-3.2467,-29.485,-31.5816,-3.2112,-17.4234,-0.21784,-6.57,5.5808,1.2265,2.9995,-8.0088,
8.9151,-1.1916,9.1134,6.3709,-24.5257,-15.5867,-4.5064,-2.278,-4.6685,-1.7121,-0.20844,-7.2773,-2.6349,-4.0571,
22.4802,12.9799,3.1117,-0.45881,-8.9542,-0.55152,2.2114,4.588,-3.8926,-1.1136,-1.6843,-7.3374,1.9855,-1.3337,
16.7356,6.5318,5.8998,-4.3987,5.6831,13.5816,-2.8813,-4.6147,-9.6106,-6.9984,-4.5591,-0.94552,2.858,-8.1969,
11.7645,-1.7955,11.497,4.7922,9.3779,18.0085,-4.6912,1.6143,-10.0252,-5.5864,0.67401,3.0782,2.687,6.181,
17.0098,-2.6789,7.8319,3.5135,-5.0708,9.9843,-1.4344,4.4928,-3.4725,-2.2759,13.528,-0.081857,11.4527,17.7129,
15.9887,4.4246,7.3624,-2.6494,-0.79958,14.3448,-7.2995,-6.687,-4.2562,-0.15559,10.7326,-8.0123,6.7977,5.739,
9.575,7.6312,10.3918,5.9407,5.6963,15.9646,-9.341,-4.7979,-5.4878,0.35003,-4.0114,-11.9943,-5.0162,5.8909,
10.9837,7.1724,10.7599,19.6843,-1.5897,9.0541,-7.7889,9.59,-5.1595,-1.6552,-8.0209,-0.36398,-1.7394,16.4472,
11.3163,-2.1844,3.1711,7.3781,-9.4292,8.5109,-11.29,1.8569,-7.8257,-2.5475,-1.588,4.6169,5.3072,6.5339,
9.6457,-3.045,3.9734,-0.99854,5.2366,13.9518,-9.62,-9.1652,-0.41295,3.5561,-3.4769,-0.61916,5.9814,-2.7847,
6.0912,1.1042,0.75917,9.9711,17.6028,5.1799,-10.0354,1.3038,-1.3798,-3.6006,-10.2116,0.40961,-5.2882,-3.6102,
10.6852,-1.9374,-8.2134,4.4143,6.6281,6.8528,-1.4979,13.1283,-2.2891,-5.3673,-6.6226,1.3771,0.98024,-7.3605,
15.9957,-0.82857,-3.7531,-6.7613,2.2629,16.3607,8.511,12.3406,1.8166,1.898,-2.2578,-2.6729,11.8321,1.0169,
8.0923,-2.7635,1.4316,-7.3477,9.07,5.4595,4.0325,5.6481,1.7062,-2.1838,-0.13862,-3.5047,3.1868,-0.037122,
2.6477,-5.5726,1.3457,-0.95521,12.4941,11.0836,-1.1685,4.3185,3.588,1.9147,8.7962,0.67306,1.0124,-13.9205,
-0.48701,-3.255,-8.6541,-4.8653,13.7277,23.3125,-8.0417,-10.0406,-0.59469,7.7505,1.3252,-0.35894,-3.0158,-14.0769,
4.0055,0.41195,-8.6307,-2.0944,20.3431,15.4672,-3.0959,-23.5382,1.921,6.7896,-0.24177,0.1584,-1.3474,0.86775,
5.253,1.8751,-1.6649,3.4867,17.6346,7.1006,-0.42971,-29.6333,0.31783,-2.048,4.2365,-1.339,-3.7461,-2.3741,
4.9383,2.7547,4.3861,5.2612,8.6422,11.6332,-4.3718,-25.8716,-5.6524,-2.9172,-0.97726,-0.26657,-2.5292,-5.207,
8.1132,-1.8743,3.6267,-1.5015,1.6757,7.464,0.3542,-27.7914,-2.8337,-0.26262,1.5609,-0.74686,3.0779,4.5282,
4.6501,2.2061,-7.5021,-8.3542,6.5347,-1.9108,2.3167,-17.1969,-0.67998,2.7285,7.4184,-2.6858,5.8685,6.2402,
-9.7289,-1.8937,-17.9617,-13.8045,-1.7923,-8.7394,-1.7898,-13.1893,2.3366,1.5732,1.0226,0.45119,6.508,-5.0449,
-18.353,-8.2275,-14.404,-8.5121,-6.148,-0.77597,1.7892,-17.8528,5.6681,1.9755,2.4487,9.8474,11.5734,-2.2622,
-15.764,-10.2134,-17.0119,-16.4325,-3.2996,2.7427,-2.7818,-16.2863,-0.12737,0.36908,3.7897,6.7761,6.4153,-0.63853,
-20.7693,-12.576,-19.9581,-27.3494,-2.1095,-2.3814,-3.607,-11.3412,-0.11925,-0.64516,5.546,0.41834,5.0382,-4.5681,
-25.4748,-8.8456,-16.7774,-12.8135,-0.9913,3.7122,1.5694,-10.6607,6.8302,2.3694,8.1891,8.3281,10.6876,1.6576,
-28.4095,-7.819,-12.2991,2.0553,0.55656,8.9453,4.9459,-8.5337,13.8595,7.6821,15.1368,13.2843,10.5421,5.0288,
-28.6891,-16.2773,-2.6347,-4.7299,3.498,-3.4947,2.6659,-10.0058,1.1256,1.2695,9.2686,7.5272,2.9664,-0.23197,
-16.5534,-12.8212,4.963,-5.934,7.7519,-6.7562,3.0023,-11.885,-11.3406,-0.29456,0.28225,2.6128,2.2921,2.2615,
-12.0881,-5.604,-1.7827,-4.0901,5.7989,-2.8787,3.3175,-11.6673,-2.229,2.2036,8.6955,-2.0077,6.6183,-1.3454,
-15.8265,-3.7808,-2.1721,-1.3651,8.9221,3.74,-2.3369,-11.4635,-4.5748,-1.4007,8.6701,2.5755,1.7575,1.2149,
-10.4137,-3.0572,12.0583,9.1317,10.8668,8.9714,-2.6925,-13.2548,-12.731,-5.7799,-4.2483,1.9261,-1.8187,5.6052,
-8.7968,4.069,9.6334,9.5759,2.2794,4.4652,1.436,-7.5009,-1.0569,-3.4494,-9.9455,-4.1415,6.2249,-2.6664,
-12.2364,6.8007,4.0973,6.0264,8.0943,6.1825,-4.6009,-2.0908,4.9582,-3.2425,-4.3887,2.0586,8.8272,-2.5055,
-13.9817,-3.0301,7.3226,2.1928,19.0147,13.2501,-2.8369,-7.4207,-2.7789,-3.5442,-5.6133,2.4314,1.8506,4.0918,
-19.094,3.1028,13.826,6.0282,15.8901,17.4137,6.2603,2.9431,-0.62841,5.5954,-8.2519,-4.6583,1.7391,0.87001,
-32.0484,5.892,10.0211,-0.28469,7.0022,6.4503,1.9168,6.7335,0.40139,5.2602,1.1702,-8.3457,3.6185,-4.1408,
-24.9529,-0.41266,3.4687,1.7161,13.5249,8.047,-6.1327,1.37,0.37683,0.97666,2.0912,0.089422,0.426,5.0337,
-9.3557,2.5879,1.2764,8.5564,21.6399,16.4907,-10.7247,-3.6713,-2.6216,-4.041,-12.1343,-0.90757,-7.5344,5.7233,
-5.5362,2.9285,10.623,0.60489,19.8466,9.0547,3.3095,-1.9626,-0.97592,-2.3102,-13.6718,-10.2754,4.3241,-2.0582,
-10.1631,-0.22307,8.0015,-3.3998,20.6391,4.544,9.0625,-2.8375,-4.8848,-2.1725,1.2485,-14.6189,5.0563,-7.8864,
-8.0654,7.2299,-0.90979,2.2595,17.9128,13.6942,-3.8798,-4.1551,-7.0712,-3.5301,2.448,-7.2939,-1.694,-1.9578,
-6.0945,8.283,3.6085,7.5793,15.3502,15.352,-3.1517,-7.377,-3.1758,-4.8062,-9.1059,-7.3525,-2.0887,1.6308,
2.2069,5.8028,7.3595,14.0678,16.4133,13.4393,4.9732,-4.9502,-7.9443,-9.4759,-12.526,-11.8704,-10.8899,-10.3684,
11.4973,8.9258,4.4384,14.7117,12.949,18.0883,2.1944,1.7938,-8.9556,-12.3795,-16.2382,-0.74379,-11.7244,-8.2594,
11.7996,5.4149,2.1883,9.861,3.2451,14.0276,-3.8875,-3.2733,-10.402,-12.6288,-18.2392,-2.6829,-8.0446,6.3362,
9.1069,4.0979,11.9756,9.2699,-2.9008,2.2748,6.2634,-2.0848,-1.8425,0.031734,-5.243,-7.4814,1.3641,7.7258,
-3.3418,3.852,6.298,7.7211,-16.8267,-8.7724,9.855,-4.9356,5.2104,-0.96274,2.0148,-1.0809,3.2664,-6.8378,
2.3136,11.06,3.4401,15.6885,-19.0753,5.854,-1.1512,2.7987,-3.5329,-11.3199,-1.5786,4.4388,-2.3854,-13.6521,
10.1101,5.4368,9.1849,15.7393,-12.9712,19.6027,-4.0574,8.5829,-9.2721,-10.6402,-5.4509,-4.7545,-7.2018,-10.8493,
-1.903,6.599,14.0896,5.3726,-22.6069,29.9014,2.6335,2.613,-3.26,1.4047,-2.6438,-1.9892,0.67033,-10.6941,
-8.2358,8.6826,8.7805,-1.3967,-25.7142,35.5469,1.9801,6.919,-0.58485,-4.1349,-0.0056704,4.5771,8.0687,4.0475,
-7.2454,-0.26857,2.7983,-3.7924,-22.6834,39.8611,-0.61822,13.9434,1.9298,-11.3254,3.4668,2.8146,7.0883,17.9047,
-19.705,-4.2204,2.63,-8.5244,-35.4224,37.4689,-2.5658,14.098,4.7893,-0.72728,14.169,8.5969,8.6467,15.4104,
-25.4665,-1.9834,0.48845,-3.0544,-44.9859,30.2612,2.5477,17.22,0.535,4.2759,21.2533,11.0564,13.0875,10.5188,
-9.8385,5.5737,1.9466,8.5354,-28.1868,29.933,2.8906,19.6575,-12.8878,-1.4365,5.8781,0.97069,5.8548,9.3909,
-4.5021,3.7523,9.2693,7.5279,-22.7421,25.6575,-3.7298,12.0311,-15.5866,-5.814,-8.5746,-0.57546,-3.9193,4.3647,
-2.7446,-1.9277,13.1764,3.6046,-31.7924,18.6632,2.9415,14.7808,-0.55143,-0.0093567,-3.1685,9.8739,9.7065,1.6228,
-5.5552,1.1633,5.4431,7.3553,-29.8844,10.6006,-0.21132,9.927,-1.2281,0.9833,-0.0030476,3.3304,11.1079,3.5091,
-6.214,11.0121,3.1327,13.8577,-20.1569,15.9157,-3.174,-3.563,-6.113,2.908,-11.9057,-1.829,0.5228,4.2907,
-5.3454,4.8956,5.4248,10.5463,-26.3866,18.4324,-5.4626,-2.8534,-4.2588,-0.73809,1.2078,-0.23183,-3.9718,-7.3733,
-7.0079,3.6102,4.1067,6.9377,-30.7541,13.359,-7.119,-0.69898,-6.9791,-5.6538,3.1185,-6.1686,-0.75864,-8.9151,
-8.0749,8.8494,4.3571,11.9772,-18.494,18.0124,2.7314,-4.1277,-3.0878,3.1171,-3.5151,-0.34361,6.7259,2.0347,
-9.0787,-1.1048,-2.3518,5.8028,-14.9053,14.4526,-1.8967,-8.3433,2.5524,-2.5258,3.1423,4.1403,1.8591,-4.5339,
-3.5745,-0.046429,-0.22696,-1.4882,-18.9695,12.5933,-2.7741,-5.859,12.3178,-0.38958,13.865,-0.07513,2.7397,-8.2297,
-5.8395,-0.53993,1.2746,-4.87,-23.2877,8.3656,-2.1123,-7.9879,10.0908,3.105,3.6093,-2.5502,-0.89679,-4.2648,
-10.4487,-4.4754,-3.7614,1.3724,-19.9067,10.839,-6.9451,-7.5082,3.5342,0.93399,-0.5742,3.5531,-4.81,0.95062,
-8.8306,-1.2306,-6.512,4.2663,-15.7369,13.165,-8.5121,-4.0823,7.2892,-1.1058,4.4188,2.3487,-4.5218,0.89311,
-3.8366,5.2907,-6.6162,1.5303,-16.2802,8.9034,-9.4888,-1.3574,4.3727,0.44896,-1.3012,0.72038,-8.7138,1.3363,
-1.1269,-1.4747,-6.7155,-6.0001,-13.8154,13.8246,-5.4483,0.21195,2.6225,3.8932,3.2406,6.1316,-7.6947,3.7356,
-2.0509,-9.3211,-5.3209,-6.6317,-5.0516,22.9132,-0.16141,-2.7766,4.4484,2.668,9.9895,1.7962,-4.2572,1.5273,
3.0312,0.16561,-2.0259,6.6602,-0.78109,16.5794,-6.1034,-7.5691,-2.7608,0.52464,2.4468,-0.2948,-3.0101,-4.515,
7.8084,2.1389,-4.8801,11.2196,-12.6365,4.6739,-6.7288,-11.0823,-2.5952,-0.49941,-2.659,2.6987,0.14631,-5.2357,
5.3562,4.9859,-8.5543,2.612,-11.8779,8.3614,-2.3581,-3.4746,-1.4483,-0.46897,-2.5,0.55306,-3.8304,-1.9463,
9.4981,3.1993,-2.5862,-0.0247,-8.6861,11.3313,-7.6715,4.1729,-5.8247,-7.8799,2.1133,-1.9601,-9.0554,-8.2769,
7.4408,-7.4066,4.0164,0.47259,-22.265,4.204,-0.76375,-0.54071,0.97224,-5.9187,5.4581,1.6291,1.9028,-13.2352,
1.0436,-2.9947,0.79965,-9.4739,-30.1374,3.9518,7.217,-4.4757,-0.077718,1.3787,2.1557,0.53974,2.7802,-5.4978,
4.4517,-0.33598,-1.7283,-11.3855,-14.2292,11.1537,8.2714,-1.7281,-4.5363,3.776,5.4971,0.011545,3.1092,8.9321,
-2.2619,-12.714,-7.0795,0.70417,-27.4754,4.038,-5.6147,-0.13603,-0.7925,1.0694,7.6473,4.4741,4.4101,15.125,
-5.102,-15.9186,-8.6389,4.6294,-39.9269,-3.1485,-14.2052,0.86375,1.2383,3.9811,-0.74645,4.2057,2.1623,1.3235,
9.3041,-6.5323,0.31057,-6.0628,-23.4313,0.51254,-3.9301,5.2757,-4.2913,7.2134,-3.1812,1.4738,0.54462,-6.1954,
22.8459,-10.6041,0.78822,-15.1218,-7.9254,-13.6182,-3.198,-4.4637,-16.4325,-3.6338,0.48083,-2.0867,-1.9676,-10.2865,
23.5267,-12.4474,2.2288,-8.7592,6.6501,-26.9011,9.3925,-6.6754,-3.0479,2.0395,6.899,-1.4653,7.5733,-7.1898,
28.5626,-3.2698,0.60672,-10.7136,20.3511,-34.2824,13.2922,-3.7958,3.5824,4.3972,-7.615,-3.8573,5.6305,-3.2868,
36.2716,10.3166,2.0582,-11.5587,33.23,-18.1255,7.0393,-3.0718,-6.0553,-4.2978,-18.8464,-4.1222,3.8047,-5.57,
31.6153,13.1692,3.4231,-0.45031,45.3362,-23.2026,15.0476,-2.3917,-9.1636,-7.5116,-3.6157,-4.3697,9.0323,-11.6823,
24.2635,0.97257,1.7293,8.0074,56.7161,-25.282,13.6489,-4.7282,-13.078,-9.5409,2.3385,-6.5875,-0.93292,-11.4772,
23.7993,-6.029,2.6172,-4.3754,67.4131,-9.6651,11.8374,-4.4445,-6.3417,-0.040995,-4.7451,-2.2249,-1.8686,-5.8295,
19.8923,-3.1873,0.97274,-18.2128,53.9367,-18.722,7.6565,-5.6652,1.4779,6.4089,-4.9552,-3.5788,4.691,-6.9672,
12.7471,-0.020243,1.906,-12.4424,42.7646,-24.5419,5.2129,1.6179,4.365,9.9918,-5.6505,1.595,3.4179,-1.5901,
7.5186,-11.426,1.2963,0.70182,29.7843,-24.5564,3.4122,0.032948,3.6068,5.9202,-7.791,3.9788,-1.2509,-1.991,
19.4656,-5.2856,6.6734,11.0746,36.428,-27.5472,1.7201,-3.4407,5.8704,-0.88245,-7.8194,1.2601,-4.6475,-7.3264,
26.2325,4.9506,9.2488,7.4343,38.2097,-28.8702,1.6169,-5.2184,10.4773,1.1547,-5.3669,-5.7588,-6.3528,-8.871,
20.1953,0.19034,-1.721,-7.1118,21.8172,-24.6579,4.9915,-1.4337,11.337,9.5161,-0.58073,-9.8765,1.4674,-0.89965,
15.0166,-2.7964,-15.7177,-19.8608,9.3165,-24.1696,3.6999,3.6119,5.6972,7.954,7.3885,-8.2918,6.3389,3.1222,
11.6356,-4.117,-21.9998,-19.165,7.2691,-31.1501,2.9821,-1.0681,9.8187,4.0051,9.4252,-10.2734,7.447,-4.5042,
12.4249,2.5775,-6.5798,-7.6012,17.2479,-21.843,10.2422,0.48344,11.7095,5.2522,-2.5468,-15.1128,6.5034,-4.7297,
15.1515,4.9023,0.54429,1.2861,15.7167,-18.0529,10.123,2.934,0.59162,2.4576,-4.8735,-7.759,0.65783,-2.958,
18.2099,-3.3267,-12.3823,-3.7502,0.67372,-26.8878,3.565,1.7672,2.5403,8.2618,6.3296,6.8065,6.57,1.1869,
6.2066,-10.0703,-19.5743,-17.6252,-4.1123,-30.2336,4.3427,2.6528,6.3553,8.7577,6.9414,2.2172,9.1516,4.0915,
-8.2658,-18.8889,-19.8877,-30.6676,1.5898,-32.8833,6.5617,-0.97844,3.4945,-3.1748,2.0612,-6.347,4.1388,-0.61772,
-5.5726,-20.2356,-21.1745,-40.3029,1.9902,-29.4229,3.6889,-4.3914,-3.1626,4.4548,-1.5341,8.1338,0.41884,0.90677,
8.8617,-6.1266,-10.9775,-23.7848,9.8057,-13.771,4.4592,7.7744,-3.9645,14.1056,-2.4337,18.8379,1.3853,4.8198,
22.43,8.341,3.7812,-8.2577,23.3174,1.1552,4.1916,9.2922,-7.6941,-0.84071,-4.2709,3.6076,-7.6233,-9.3549,
35.1842,21.9406,17.6543,6.3378,33.1109,9.3027,-2.5068,-5.3654,-9.712,-14.8903,-5.5035,-2.8414,-14.6055,-5.3225,
25.9848,6.806,9.7211,15.731,17.0242,-5.3555,-12.2745,-18.2192,-12.1051,-8.1126,-7.1565,6.2556,-13.7292,6.8992,
10.3257,0.446,4.1778,10.8197,1.9028,-18.7062,1.3559,-3.0261,-3.4439,6.4741,7.3729,14.8068,1.1946,9.461,
9.9201,0.41971,8.8867,7.1952,-12.3114,-15.6002,3.2582,4.8755,-3.2377,3.8875,14.6514,6.9756,7.8522,-5.2066,
23.4249,0.89082,15.793,9.243,-0.51549,-3.2572,2.5665,-7.8147,-4.5304,-1.8011,4.3505,-7.543,5.8932,-6.1682,
28.7492,7.2843,18.3166,15.1354,7.9457,1.401,0.92457,-6.8496,-13.6814,-6.1558,-4.3417,-13.8192,-2.8916,-2.326,
13.634,7.3436,10.7706,8.7719,3.9978,0.82164,2.357,-0.98418,-7.4051,-4.2995,-6.5607,-10.5105,-3.2134,-5.6585,
8.8481,0.95179,5.1649,-3.6562,6.7332,-0.21975,5.1919,5.027,-0.01805,0.91802,-2.2001,-1.9446,0.94634,-0.35948,
1.8702,-7.5374,7.3345,-9.8848,10.792,-13.5977,2.3999,5.2207,-6.4649,-0.62497,-4.5486,1.6433,7.3365,0.15743,
5.2291,-5.5963,14.333,-3.8364,18.5757,-18.2363,10.6871,0.44373,-2.6049,2.8846,-5.7626,-1.9274,15.3275,-0.34735,
10.3712,2.1785,14.9614,6.8087,17.9569,-8.7114,3.5984,-4.0461,-2.9444,3.2074,-7.8969,-6.275,2.0097,-0.82232,
8.7568,3.039,14.0633,9.3755,4.9767,-3.2301,0.40714,0.16359,3.1834,5.9903,-1.4719,-2.9232,-2.0788,1.2098,
-1.6872,-9.0452,7.2683,-4.0814,-5.2395,-13.9466,4.3497,0.15425,2.9929,2.6555,-2.3748,-5.7231,-0.96195,-1.8381,
0.89359,-14.9504,5.3443,-7.3077,7.4725,-11.6219,3.5934,-6.302,-4.6262,-1.9675,1.2389,-8.8509,-5.368,-5.199,
14.94,-2.1501,5.0236,7.0173,10.9916,0.97873,1.3936,-6.9155,-1.3728,-2.8411,10.0911,-6.3357,-3.0617,-3.8954,
19.2854,12.0789,-2.7164,14.0348,-3.0572,8.3586,-11.0877,-1.0452,3.1733,-3.1669,-3.9037,-4.4676,0.59317,-2.1738,
4.0283,11.636,-3.545,10.2169,-7.8338,5.8729,-8.4392,-0.9825,0.99867,-0.0011029,-12.5969,-15.1112,1.5492,-5.0192,
-1.9511,5.9783,4.6021,7.6202,1.5632,3.5368,0.99413,1.0592,-2.0375,7.9334,-3.9067,-16.1882,2.4483,-4.7176,
12.266,10.5791,7.3013,4.1876,0.47735,7.2925,0.93401,8.931,0.069374,-1.4687,-6.6476,-3.3142,1.3094,1.5166,
25.2021,6.969,2.8963,4.9285,-9.4699,8.8387,5.8375,4.4282,-1.9185,-15.4805,-11.2083,-8.0748,5.1987,0.43355,
13.2751,4.0709,-2.7333,12.0709,-8.4059,6.82,1.024,-4.2691,-12.2183,-15.8261,-12.0233,-13.0452,2.4068,-4.0557,
10.4944,6.8015,-4.5526,11.3466,-5.9183,7.4024,-8.9565,0.94608,-8.5103,-0.77656,-7.3344,-5.3202,-8.6483,-0.8375,
11.3536,8.8739,1.1759,0.25238,-6.0585,2.4955,-3.9554,6.3456,0.43241,4.5119,1.5368,4.4227,-10.608,7.6449,
3.2328,-0.089702,1.6007,-10.1781,1.7436,-5.0938,2.7289,0.50858,-5.0498,-0.22255,3.9241,-1.2989,-3.5255,3.7141,
-5.3913,-12.4829,0.017704,-7.0879,11.0618,-3.2993,2.0698,-3.9847,-2.2664,-0.70548,4.185,-3.6996,2.1414,-3.9474,
-7.5474,-5.286,-0.47964,5.736,3.952,-2.6051,1.4494,-2.2577,7.2924,-2.1501,7.405,5.9452,-1.4583,2.7364,
-14.0383,-1.0019,-5.4104,3.4081,-6.2046,-15.3441,2.3545,-3.1144,4.8711,-2.0216,12.9119,9.5555,-0.37867,4.556,
-9.2281,-7.8846,-3.1021,1.2199,3.0946,-14.423,0.2295,1.0404,1.6026,7.0267,13.1293,5.0142,8.5701,-0.67692,
-11.6507,-4.4362,-1.9238,7.0979,3.901,0.32841,-5.7354,2.9617,-2.4605,1.6456,-0.5529,0.74639,6.0731,-0.63583,
-25.0516,3.2691,1.6632,11.1352,-7.7395,0.80452,4.031,3.2798,5.1262,-6.8839,-2.0072,0.2058,5.2129,3.8656,
-36.229,3.5688,-2.8998,9.9713,-7.771,-5.6912,4.285,-0.38859,-0.63722,-8.9508,-0.3993,-3.2782,0.43593,-3.8054,
-22.6483,3.8509,-2.2295,7.8851,6.7953,8.7503,0.55671,0.131,-11.0134,-4.9417,-0.87068,-1.5936,0.90606,-3.0808,
-18.8098,2.1319,11.2935,8.8999,0.22244,6.0276,0.027021,5.5775,-8.8647,1.8018,-0.3231,3.9574,6.307,4.5426,
-28.592,2.004,17.5592,21.2599,-13.8909,-8.4341,-2.9504,6.2355,-7.3412,5.6611,-0.30371,8.679,5.9286,4.2701,
-19.9336,3.8675,12.5377,24.9438,-24.7468,3.1966,1.1945,2.885,-0.94955,9.2884,1.6982,6.1745,7.5566,2.0301,
-27.1679,-3.8041,-1.6039,9.3472,-9.8708,17.1048,-2.3483,4.1999,-2.3805,3.2758,-1.8748,-2.6271,1.6479,2.4037,
-39.6378,-4.0707,2.9556,-2.902,-23.3785,30.1785,-0.71997,14.3627,3.2182,3.576,7.66,7.9454,7.0048,16.3595,
-51.3595,-10.7697,-1.1891,-2.7279,-36.0758,38.8511,-9.6033,-0.38459,-2.9266,1.3772,3.2329,7.4687,-0.35872,1.7746,
-52.3137,3.9765,-0.1257,11.3218,-48.0113,50.62,-15.9699,-1.3536,-6.7179,10.2216,-6.8796,5.0369,-6.2884,-5.2746,
-53.6382,7.9872,8.3116,14.1142,-59.2306,61.6828,-11.541,3.1909,-6.8116,4.1525,-6.9627,1.263,-7.3994,4.4632,
-50.9157,8.0038,7.3171,12.7715,-69.7768,64.4967,-13.3285,4.4868,-6.8987,2.4159,-5.0575,0.69142,-6.4597,4.6922,
-46.8691,9.5068,6.8781,12.9968,-71.9604,62.6111,-13.5204,6.2018,-6.4848,1.2793,-2.7698,1.6416,-6.0721,5.4023,
-42.5691,10.4252,6.9617,12.7133,-61.1953,60.3423,-13.2046,8.3092,-5.5994,0.70625,-0.12411,2.0393,-5.2115,6.5661,
-40.0149,10.7913,6.544,12.9421,-50.5803,58.705,-13.4039,9.7949,-5.2635,-0.32775,0.87496,2.9086,-3.9072,7.1637,
-37.1187,10.6392,5.655,11.6693,-41.099,55.679,-15.0802,10.6942,-5.4439,-1.796,2.3104,2.2378,-3.1764,7.2302,
-33.8995,10.9929,4.3236,11.9612,-32.6819,53.3294,-17.1507,12.0362,-6.1094,-4.6645,4.1555,2.104,-2.9863,8.7791,
-38.313,14.7966,-5.3581,1.8203,-40.1438,50.6255,-19.5933,16.7699,-6.2387,-2.8963,-3.5329,5.4494,-1.3197,15.6915,
-30.0621,13.9093,-3.0529,8.6548,-36.7431,49.5726,-6.5149,13.78,0.087772,4.2203,-3.3205,-2.8129,-5.2075,7.8072,
-32.7221,11.5859,-6.3409,22.2355,-29.0836,54.0369,-2.6528,15.4327,0.57785,6.4466,0.34991,-0.16461,-8.3671,9.8183,
-34.2304,7.42,-13.3995,14.7368,-28.826,49.3072,-9.9327,8.0593,-3.9201,-4.3541,4.7922,6.2927,-6.3767,4.7659,
-33.6645,7.4702,-9.1244,-0.24745,-36.5192,32.2488,-10.8247,7.0794,4.7463,-1.6134,12.9349,3.4356,-0.53879,-5.9344,
-44.5385,-1.9041,-10.5597,-14.3326,-43.2546,16.2139,-1.2482,10.6226,11.4043,6.4188,17.1192,5.2132,-1.4986,-2.6021,
-40.8746,-6.7498,-12.9029,-9.574,-38.6756,8.2289,9.7374,13.9527,12.7042,10.0002,24.026,11.8437,6.5262,1.5205,
-42.8854,0.10308,-14.6073,-8.5033,-34.8672,5.2557,-4.9469,11.6276,-2.158,1.9616,11.1784,2.7019,6.6309,-7.0009,
-45.2718,8.0313,-14.7229,-2.042,-28.8077,8.9082,-12.8673,6.963,-9.2541,-1.1315,2.5733,0.55605,2.2652,4.3294,
-28.4555,5.5657,-12.8475,7.9992,-16.169,14.3249,-2.1766,8.5289,-3.7393,-4.0389,3.4101,3.498,2.1297,9.0291,
-12.6482,5.7271,1.3127,19.9169,-3.7924,16.9366,4.4009,14.4642,-5.0029,-4.2929,-0.26569,-2.1672,3.4889,2.0395,
-4.3818,10.8398,15.3339,27.154,5.858,16.4167,9.5932,13.101,-4.2064,-2.5474,-1.7377,-4.5158,5.7601,3.406,
9.2708,17.6275,28.5139,34.947,17.9046,27.8298,11.4966,3.8833,-10.4015,-5.8662,-2.1292,0.2175,5.9103,5.6807,
13.6736,16.5699,30.343,33.8418,20.7978,32.1107,10.8068,6.6261,-10.77,-1.5468,-2.994,0.20445,5.5557,7.3231,
-1.2468,3.1785,14.4225,17.7113,12.1118,18.7785,3.7119,12.676,-3.6754,-0.95815,-2.3176,1.6806,6.7107,12.3395,
-15.272,-4.4518,-0.11545,9.9194,-0.021887,7.2364,-5.9345,7.4517,-7.9186,-6.356,0.30096,0.091818,-3.1157,3.168,
-14.9189,2.7586,13.9915,11.3084,0.97105,6.8032,-2.6026,2.0455,-8.4351,-2.0072,-0.70872,-2.8895,-3.9204,-1.9812,
-8.5689,9.0396,13.4343,4.1824,15.0128,11.8499,1.0252,2.4177,-0.49086,0.59323,-8.1053,0.75549,5.7372,10.5358,
-9.0464,-0.4293,-1.4717,-2.0201,16.3776,9.1547,-2.0122,7.2326,2.5144,-1.4266,1.3076,1.7018,7.3771,7.9204,
-8.5036,1.5806,-12.0797,2.0685,2.501,3.6463,1.0844,11.7577,0.38029,-0.3484,12.1398,1.5997,4.9513,-3.4655,
-21.3831,13.8839,-5.9,4.4244,-0.12813,5.9076,-1.4607,7.5816,-4.1058,0.16832,-2.6886,0.016261,3.1658,4.1815,
-26.5481,2.636,-9.0177,-5.2634,5.3344,2.0815,2.0986,3.6541,3.5787,2.6373,-1.3212,1.5027,3.4717,6.4106,
-20.491,-7.9366,-7.9803,-13.3787,-0.44098,-9.4495,1.4773,-4.0037,-2.0904,-0.99211,0.24596,-1.067,-7.151,-7.3642,
-5.1615,5.9294,6.5985,1.524,10.992,-0.45274,2.8761,0.69974,-6.4292,-1.4284,-2.2488,2.4687,-2.2587,0.51574,
3.8607,3.0941,6.9802,2.2102,21.7385,-0.92091,8.1589,-1.8218,-6.5388,-3.8222,0.36566,-0.15898,2.3405,5.9401,
-2.8179,-1.5543,-4.8446,-5.361,19.9389,-4.3368,4.1982,-0.22456,-6.6427,-4.0892,1.8316,-3.6206,-7.2227,-5.8223,
-1.1614,-2.9494,-6.0414,-4.5435,12.2951,-0.60498,0.47469,-0.7069,-1.7809,0.61942,-2.7415,-0.9243,-5.301,-0.017146,
-5.0591,-12.6906,-1.7114,-5.2625,-0.34495,-12.471,7.3895,-5.6236,2.2943,-0.40936,-1.5854,2.107,-1.0155,11.8862,
-12.6905,-20.8566,-1.6097,-17.8417,-7.2675,-25.6093,8.9293,0.66455,3.1473,-0.3848,1.4855,5.948,0.037091,-1.7219,
-4.9858,-13.6536,1.4627,-16.7702,-14.7663,-16.1378,8.3936,5.5837,4.9427,5.5899,3.3797,5.5911,6.9781,-14.5125,
2.2561,-1.9242,-4.5762,-3.8622,-15.8641,-7.2351,0.94719,-4.6699,-4.2809,-1.6892,-0.7901,0.29611,-0.38429,-9.6748,
-1.3504,1.6634,-10.7486,-2.1425,-5.4894,-5.3131,-5.5576,-2.9018,-1.5445,-5.059,1.7368,4.7421,-2.8408,3.3043,
-5.7326,-5.8755,-14.567,-10.4447,-6.6475,-7.4734,-12.6622,7.6872,1.0282,0.69941,4.1126,2.9701,1.7929,0.627,
7.5053,-0.56388,-8.7339,-6.8422,-14.184,-1.0743,-6.9434,10.2018,-3.0009,0.65744,2.8733,-0.18391,3.6695,-2.3864,
13.0061,-0.52958,-2.2587,-2.4647,-9.3655,0.97388,-1.5673,-1.3205,-10.7553,-9.3006,-1.2661,-0.17335,-2.5018,-3.2353,
5.2825,-5.4578,-3.1148,-5.2926,-0.86872,-4.0436,-6.4323,-2.2339,-12.0942,-9.7342,-0.19847,1.8212,-6.3191,0.92621,
-0.48979,-7.6099,-5.4074,-11.422,-6.271,-15.207,1.3922,4.3481,0.038474,3.2485,10.2278,6.1757,3.4828,10.2934,
8.9619,-6.6575,-3.5955,-12.2241,-4.4073,-16.7746,1.8045,3.5904,1.5236,5.5326,5.1509,3.3251,4.7613,9.18,
22.5242,-0.30686,5.5472,-6.5321,9.7432,-1.6681,-6.2391,-0.59196,-6.5032,-5.7096,-7.0609,1.1419,-5.443,6.6455,
22.4472,6.159,11.6618,-6.635,4.6953,6.6487,3.5585,4.8984,3.3103,-4.8712,-5.1489,1.5692,0.3394,7.7342,
7.0003,1.822,3.0272,-11.1969,-9.4729,-7.8502,6.3208,8.572,8.0707,3.356,-0.87251,-4.4766,7.2614,5.2869,
3.3226,-5.7268,5.3251,-11.0214,-0.47384,-21.4792,4.4527,9.5456,10.066,6.6258,12.5701,0.25575,11.2894,-2.4699,
9.0745,-6.3744,6.9893,-11.3513,3.522,-12.3235,0.21856,7.9807,10.4542,1.2696,18.7586,8.1758,9.6199,-4.3054,
4.0667,-4.5045,-2.8533,-13.1502,-1.1525,-1.1701,-7.2336,0.062816,5.3627,1.6893,9.2024,6.1968,-0.38052,7.3594,
8.7818,-2.25,3.2695,-10.377,0.90081,4.8517,-4.8154,2.0432,10.001,3.5712,11.6261,-1.1182,-1.3493,5.9263,
15.1981,0.85985,17.1733,0.16374,9.7733,1.5848,-4.5265,4.8965,5.4335,-5.5696,3.9853,-5.0186,-5.2358,-8.5293,
11.3104,-1.175,14.9369,3.1297,21.0892,-8.4284,-3.2633,-4.3248,-3.82,-6.2271,-7.1645,1.2342,-8.8891,-13.7548,
3.6886,-6.0645,2.1384,-8.9604,10.8964,-6.9311,0.89996,-1.0895,1.3692,5.0563,-2.7672,7.1108,-0.42086,-1.0272,
4.4593,-5.7002,-1.9569,-17.3497,1.3166,6.3792,-3.1219,7.9029,7.2382,0.78597,-4.5849,6.6846,1.5881,8.9531,
18.2918,2.5767,12.2605,-7.3822,13.1399,13.9313,2.0254,7.4287,6.8039,-6.2044,-6.294,3.3077,3.477,14.3666,
31.2943,12.837,25.6249,-3.4677,26.4515,12.5996,9.3429,1.5272,-5.0108,-7.3196,-5.4196,-2.3456,-0.20323,6.0655,
35.932,9.5868,22.6678,-9.7061,32.5858,9.3636,10.2698,2.9239,-2.2302,0.55863,-7.5744,-2.7007,-7.6301,-3.7207,
21.3779,-5.0884,7.2078,-17.5554,16.5307,-0.6205,5.1903,4.2359,5.3427,3.0042,-2.6567,-2.0428,-7.6681,-3.0017,
12.1603,-9.0319,-7.3247,-16.5021,1.4388,-2.5675,-1.0727,6.9576,3.038,1.8323,8.4134,-1.9203,0.72685,0.15424,
10.9349,2.9155,3.4608,-13.0319,-1.1954,-2.9092,1.4717,4.0601,-1.6076,1.2265,7.4128,-6.2683,-1.7968,-8.2857,
24.3788,11.1723,17.3532,1.85,8.2986,4.7044,3.8634,-0.6458,-1.0153,-2.3177,-4.4385,-6.388,-15.0787,-7.2928,
33.117,15.4605,14.6106,15.839,10.7761,14.3407,-0.33635,3.3599,4.0051,-9.1224,-5.1643,-3.0294,-13.1819,2.0718,
17.03,2.6306,-0.36604,0.78865,3.1872,3.5622,-0.31617,-3.7849,-4.17,-16.5099,-0.88699,-4.8318,-9.4152,-4.9958,
4.8152,2.9685,-12.5287,-13.3587,-2.4599,-5.0832,5.1586,-2.0704,-4.4157,-3.1212,4.622,4.8814,-1.4121,2.743,
3.5342,0.8067,-18.7198,-18.5088,-16.4123,-8.7452,-1.103,3.0134,0.80788,5.0014,0.37681,4.588,2.6405,9.5212,
8.2817,2.743,-20.5719,-3.2983,-12.2373,5.8795,-0.04378,0.84883,-3.2076,-2.2414,-1.6295,2.329,-7.4365,5.9746,
18.1992,7.0412,-11.899,0.15778,2.5969,15.7272,3.43,-2.6733,-14.4221,-10.5381,3.9236,7.6446,-12.4457,1.1524,
3.0072,-0.82084,-8.7056,-11.2587,-9.6756,0.68358,2.7279,4.9257,-3.1424,-3.4589,16.0858,10.6571,2.4011,4.5544,
-11.2732,-11.186,-10.6628,-16.0376,-18.5179,-10.0537,6.0363,12.0697,8.4532,4.1873,16.6095,7.5381,8.9858,12.7123,
3.5032,-12.9939,-7.5439,-22.5144,-3.3068,-9.9463,14.1049,0.93067,3.4827,-7.4705,11.1488,-1.3448,0.015981,6.4947,
7.9702,-12.2147,-6.0992,-31.0831,10.9916,-23.4495,4.3316,-9.0438,-5.6532,-14.9567,7.5045,-9.1995,-1.9687,-5.7978,
5.0129,-10.986,-0.27837,-19.7948,24.4321,-36.1425,2.5833,4.8886,2.1251,0.040738,11.5175,-0.2159,8.5643,1.9892,
4.2159,-10.8222,-1.7496,-14.1443,37.0662,-48.074,10.8595,2.1158,-3.4578,-2.1599,0.41203,-1.6909,4.5784,-1.6013,
2.475,3.9271,7.7791,-6.8478,48.9422,-33.1421,6.7368,-9.4172,-14.6564,-11.4521,-13.7127,-9.028,-7.1024,-7.9522,
3.3186,5.9571,15.2468,7.4491,52.8712,-34.1289,1.373,-7.8601,-6.8342,-2.8306,-18.1313,-5.511,-6.6758,-1.5239,
5.1027,-8.2869,7.3887,7.0022,36.8041,-46.1812,-1.6852,0.54545,1.5107,5.2741,-9.1086,0.77037,1.6587,3.5266,
14.2198,-2.3338,5.458,3.1104,48.6958,-44.6843,-1.0883,4.976,-0.068295,2.4777,-3.1072,0.22834,8.9983,9.7615,
27.2527,4.749,8.1058,-0.051534,59.8741,-28.1172,6.9124,-2.2644,3.9037,-3.6212,-6.8877,-4.744,5.483,3.2256,
28.0975,6.944,5.1404,3.4232,55.8551,-26.926,6.9935,-10.5602,0.19881,-6.8755,-12.9209,-6.9393,-6.2515,-9.3661,
25.9154,8.0153,10.2873,6.689,52.0075,-32.749,4.0943,-14.3894,-5.2685,-4.9751,-4.7071,-9.9941,-6.3727,-5.333,
26.8405,3.0711,14.1334,2.816,61.2852,-35.2473,5.3361,-16.006,-7.4324,-9.1408,-4.9205,-17.8261,-0.53548,-2.533,
28.7017,8.3417,17.7486,1.1596,62.0714,-23.7102,8.4876,-5.6233,-4.5064,-5.1207,-14.0476,-11.3007,0.98503,-7.8368,
20.5326,2.3859,12.22,-10.316,49.9159,-20.7996,6.4904,-5.7813,-0.76488,-0.34975,-9.7336,-3.1841,-4.5294,-6.8703,
20.7881,2.7385,7.0235,-14.1613,47.4168,-19.0558,0.64609,-7.9144,-2.2074,-3.8004,-0.71885,1.4702,-8.7219,7.6419,
21.0282,9.0217,4.1221,-4.8809,44.076,-17.4167,-1.8727,-1.9847,-0.58654,-4.0682,1.8033,0.88619,-9.686,3.0015,
13.3196,-4.9099,-4.5554,-9.0508,29.0337,-22.8187,3.695,4.5823,10.8547,1.6313,0.20817,-3.6307,-9.6011,-3.6256,
10.5367,-12.5497,-11.2249,-20.4106,21.3405,-26.4091,5.4571,4.3069,13.1797,4.5087,1.1878,-2.4208,-6.0487,7.5031,
13.3761,-5.3502,-8.0723,-14.7227,17.5801,-28.2962,4.6338,-1.4073,6.9331,1.7582,8.5546,-3.7639,1.7523,-3.3629,
16.0452,-1.5576,-8.0838,0.26069,12.0621,-22.1351,0.88416,3.1413,2.0539,0.16527,9.5288,-3.0413,-1.8245,-14.5667,
14.0908,0.51915,-9.583,14.345,6.3783,-12.8721,0.83111,7.9119,1.9306,1.147,-5.1429,4.0844,-10.6415,0.40733,
8.7812,2.968,-13.4713,0.16248,1.5324,-17.5547,8.2203,-2.9767,2.3106,7.5256,-15.0339,2.351,-5.5388,9.5917,
-3.1517,-0.68217,-17.1267,-9.2701,-11.9498,-30.6014,9.215,-5.2786,-0.30757,6.5778,-2.7258,-0.26961,0.24792,-5.0838,
-12.3854,-10.064,-7.6679,-7.2259,-14.704,-27.5602,13.1249,7.4367,9.1337,1.7194,10.828,7.1852,5.6884,-13.4918,
-15.1144,-8.9639,-2.7441,-9.2719,-2.4157,-25.4103,10.8495,8.4784,9.081,1.1199,0.75551,3.2829,4.8508,-1.2762,
-7.2638,-3.4665,-2.579,-3.7561,-3.2619,-25.8694,11.1916,6.9776,0.60172,-0.93003,-1.2735,1.1022,7.536,-2.1908,
-9.308,-10.6976,-3.9127,-2.0433,-10.5053,-18.8624,10.0233,5.0715,-4.8902,-10.2975,7.2336,1.5319,3.6123,-11.4826,
-12.2207,-5.592,-1.1984,0.55886,4.2251,-3.6306,6.9424,5.2626,-0.13306,-4.2243,7.2958,2.9279,-0.075639,-5.3383,
-8.0163,-5.7528,2.3456,-4.93,18.0716,-1.6421,8.0137,4.4515,6.3228,2.4771,1.4027,-0.71895,6.3759,-1.5459,
-8.5269,-7.3909,14.1063,-1.6584,9.6161,-14.4385,7.5329,5.176,5.9425,-1.6399,1.3186,0.31581,7.9766,-4.429,
-22.1153,-2.4842,15.7399,8.856,-5.0609,-22.0028,2.6177,5.3613,1.1227,-1.0448,-2.2322,3.7685,3.0347,-9.6191,
-29.9977,-0.3514,0.90947,4.3567,9.3428,-19.6906,3.4527,2.0642,2.0475,3.9765,-2.0987,2.5503,6.8205,-7.0582,
-21.7504,1.1571,-5.5916,2.6079,18.7008,-13.0543,7.7088,5.412,4.4046,5.2263,1.4988,-0.081794,9.8829,-2.1705,
-28.3802,-5.8546,-5.2561,3.443,3.4788,-21.1975,7.2463,5.0873,5.132,8.8802,0.41729,-1.0695,6.3142,-5.0161,
-18.743,-3.5206,6.9611,6.2118,-0.48345,-21.9094,11.7701,3.79,10.7752,14.2985,-1.5915,-3.9806,7.919,-2.7314,
-3.5184,7.1056,19.9332,8.3191,13.6456,-11.1725,12.5523,1.0826,4.6729,3.0257,-7.9434,-17.8418,8.9313,-5.0475,
3.4225,11.1425,19.234,4.3483,26.9268,-10.0063,7.3359,1.5134,-4.0382,-9.554,-3.9952,-20.5252,5.9154,-10.1996,
12.6394,9.9781,9.6492,-5.3349,39.4112,-15.8525,3.4241,-0.064824,-6.275,-7.4933,-1.2755,-5.1937,-4.8534,-12.0676,
25.9811,7.892,14.5252,-7.4948,51.1465,-22.3404,16.6084,-2.54,0.54898,4.3628,-1.6948,2.8393,-6.0497,-14.8152,
31.1515,13.8654,27.7536,2.3777,62.1778,-24.4711,26.0273,0.091937,2.9956,5.589,-3.081,-11.4311,1.7519,-13.43,
41.1852,20.9679,21.4107,0.25128,72.5471,-22.0117,15.5377,3.0618,-4.1279,-4.665,-11.8231,-16.9792,2.638,-5.6814,
52.8141,19.2145,15.6633,-0.26008,82.2943,-15.2356,18.0775,2.3818,0.58351,-2.8972,-9.6258,-8.5209,4.9602,-4.8442,
41.9922,20.0458,24.6416,12.6504,91.4566,-17.2964,20.9603,-2.7202,-6.3948,-3.715,-4.0892,-7.017,-4.264,-15.4643,
35.0099,23.3059,26.6353,17.3467,92.6892,-18.7381,16.2316,-7.0198,-12.458,-14.8981,-3.3476,-17.0114,-11.4477,-19.9918,
31.9167,15.9568,15.1181,15.3134,88.1194,-14.639,13.2735,-3.6237,-6.7515,-16.981,-12.0732,-16.9823,-3.8175,-12.8406,
15.9017,8.552,0.82122,9.9313,72.4174,-13.2648,5.038,-3.9021,-8.8264,-10.5063,-19.7805,-1.8634,-6.0685,-7.6069,
0.84763,6.0551,-3.196,1.401,61.1296,-16.4359,10.6878,-1.6843,-3.3373,-0.94895,-4.4936,8.4493,-5.7039,-3.1835,
-13.3032,-5.7152,-17.1042,-8.1058,49.0316,-28.84,10.5419,-5.0544,-0.65752,-0.39667,3.0016,-6.1576,1.0853,-4.4804,
-13.3515,-8.8434,-11.897,-1.1725,38.6501,-19.671,10.4047,2.6875,5.8289,7.0667,1.3336,-7.5589,10.443,2.2354,
1.5496,-1.8658,0.22378,-0.60587,25.9167,-16.0102,6.3093,3.0225,0.024761,5.1548,-6.185,-2.6407,-4.2836,-1.3699,
3.2273,12.3461,10.6257,6.8691,28.8254,-21.4966,8.4112,5.3207,-1.4646,4.3501,-5.3177,-2.9785,-4.8047,-3.7673,
-11.0664,0.97698,10.9793,0.50577,13.2099,-34.3068,7.9061,4.0094,6.5577,6.0719,-3.0158,-0.81608,9.3696,-2.5491,
-18.1238,-13.1816,8.3359,-8.4515,-1.4697,-34.0196,-2.4879,5.7525,6.1637,7.6913,-1.8428,10.1431,7.8153,0.57917,
-18.028,-8.2093,7.8367,-8.9361,3.5785,-18.0914,-7.2967,5.4074,-2.14,4.255,3.2269,7.5513,-1.5801,-0.4472,
-12.9788,6.3832,8.3581,5.7001,9.3145,-11.0552,6.035,-0.86869,-2.0116,-0.96035,2.0416,-1.8292,-2.4769,-3.3962,
1.8999,6.7774,5.8724,19.4581,6.7714,-12.3761,6.6646,-9.7431,-10.8184,-6.8544,-12.1809,-4.6953,-9.2716,-7.1599,
12.4822,1.4127,3.5368,17.8627,14.3009,-6.6735,3.2898,-7.1743,-9.1767,-3.4663,-19.1705,-5.4052,-8.7153,-6.7303,
7.7658,7.2786,3.3246,7.8644,26.3368,0.67013,-0.87596,0.19942,-2.6745,0.70908,-3.9202,-3.0967,-7.2007,-5.3348,
4.8198,5.3535,1.6377,4.9125,15.3334,-2.8417,-2.3108,-1.3009,-7.9698,-1.8135,-0.42783,4.5272,-11.2319,-2.5347,
-4.3963,-5.8779,-8.3801,1.6424,0.31336,-13.5824,-1.181,-3.2066,0.44277,4.2465,1.5816,-4.6704,-1.631,0.5927,
-14.0502,-11.4764,-19.7791,-12.3421,-11.3933,-17.7265,-5.0771,4.9212,14.5162,3.9912,7.4378,-17.2846,-0.54109,-1.4266,
-14.6956,-18.2269,-22.064,-25.7016,-12.1981,-27.0773,-4.2767,5.1217,15.9113,-7.6547,7.4874,-14.7601,-5.9644,-3.821,
-5.3827,-11.6779,-6.6402,-21.9623,-6.0109,-20.9894,4.4111,2.3339,12.4771,-1.7401,4.5586,-4.4517,5.7995,4.8394,
2.3794,-5.5215,7.4308,-15.1888,4.7647,-6.3398,-0.31685,-3.261,5.2819,5.8034,-8.1131,-11.6237,0.98918,1.0774,
9.1794,-0.23063,11.9445,-4.3588,12.4141,1.9759,8.6291,1.8942,10.9162,6.4473,2.2923,-8.9416,-9.9804,-1.9626,
-0.29789,1.7665,2.3004,-1.1224,0.75859,-4.0943,3.1514,2.7722,3.318,-1.8745,5.1297,-4.4386,-11.3658,-0.85318,
-6.7275,-1.8112,1.6665,-1.5499,-9.7018,-0.37699,-10.4275,5.0859,-2.3369,0.71802,-4.6004,-9.6272,-1.2615,-1.2978,
-7.8122,-6.1657,7.0214,-1.9537,-13.583,3.1173,-6.3311,8.2514,1.2749,4.1456,-6.8044,-18.4728,-5.6491,-1.7157,
-8.83,-0.33998,2.1378,-0.3481,-15.247,-4.5088,4.4646,6.2698,-0.28902,-2.5496,1.0439,-5.957,-8.7817,-2.1086,
-4.3337,3.6469,-0.96627,-2.3114,-28.2187,-12.1732,3.2041,4.9011,0.71994,-5.3725,2.9645,6.3018,-0.31996,-3.9663,
0.39055,3.9249,2.5633,0.30728,-27.0214,-10.947,-0.45975,7.087,1.1726,-0.58686,-8.6199,-1.5144,-1.7882,-4.2241,
-8.5603,-0.27902,-3.5421,3.2637,-15.482,-9.2986,6.5111,3.686,4.078,6.3916,-1.1594,-8.3668,-6.6409,-3.9707,
-12.51,-6.7088,-17.4296,-4.3702,-22.9838,-17.1709,3.6414,0.98574,10.2808,7.4965,12.2999,-10.3448,-3.7625,-1.2524,
-11.7594,-9.2821,-16.6661,-9.068,-35.7047,-20.1085,-8.4804,2.9098,8.6714,3.0783,11.5619,-2.7809,2.414,-0.18566,
-14.5254,-8.2293,-1.5662,-2.0765,-44.7555,-15.4304,0.45914,3.2311,6.6636,6.3652,5.4133,3.8325,6.7333,-0.67033,
0.4461,4.1672,12.6278,6.9751,-27.9702,-0.40456,14.5316,2.0451,1.3043,3.008,-4.8301,3.603,2.3614,0.36198,
12.604,7.3883,15.4106,2.0928,-12.1919,5.8527,12.9504,1.4271,-6.2126,-10.5627,-9.004,5.8664,-3.2356,0.83561,
-2.2523,-5.4531,5.0627,1.4715,-21.8065,-2.9291,-0.22571,2.8289,-8.3198,-7.4499,-0.033088,7.0018,-7.5047,-0.70197,
-12.8134,-5.6217,5.2548,12.7897,-23.9688,-11.1841,0.28459,5.1391,-7.3248,1.4287,1.4573,4.1026,-7.5503,-0.16404,
-5.1023,1.6579,13.866,9.0465,-34.4339,-16.4647,8.2024,1.855,-3.9095,-3.617,-6.566,1.8723,3.8135,-2.1384,
-2.8119,4.5352,18.9857,8.5037,-29.3921,-9.5251,4.7344,1.7437,-5.6582,-1.4158,-5.1795,8.7042,6.5605,-2.0091,
-4.1307,-7.1434,3.7465,7.4977,-13.5285,-5.482,0.97969,2.1349,-4.8229,6.1082,-2.3887,9.6693,-1.2722,3.5663,
-2.3959,-14.1544,-10.5783,-6.3424,-4.0043,-8.6252,4.3911,-3.4486,0.9209,4.2538,5.1932,-0.33455,3.2669,1.8644,
-4.2354,-5.3702,-23.4017,-2.987,-14.6747,-3.1481,6.1118,-0.26584,5.8247,2.0144,17.7756,3.653,11.0058,1.7525,
-18.0812,-9.5108,-19.5181,3.6401,-20.2403,-12.3816,4.2582,6.1971,5.9725,0.40658,16.2137,6.9059,11.8343,3.1353,
-19.2624,-14.8918,-16.3628,-0.54572,-17.0426,-15.6061,1.0269,6.8178,-0.33753,1.3738,10.2818,-3.4266,10.1316,2.9472,
-11.6592,-13.5025,-6.9503,-2.0004,-25.4424,-12.1902,2.4527,5.912,2.1627,-0.19606,5.2007,-1.7336,7.0447,7.2336,
-23.8546,-18.6439,0.409,-5.8488,-38.0158,-25.3453,1.313,2.5815,5.0078,-7.1285,5.8803,12.4705,2.6536,2.8321,
-17.9596,-12.07,3.8566,2.9333,-31.0577,-9.7246,-2.237,7.8819,2.2278,1.7313,8.008,14.9799,3.9823,-3.7848,
-2.782,-6.3853,1.6414,7.7169,-16.2998,4.9589,-6.0697,0.46623,-4.8486,4.6028,-4.3753,-0.0189,-4.191,1.4019,
-2.3327,-0.54776,5.0151,14.6934,-29.4218,18.7613,-6.2018,-7.992,-6.0456,-5.0962,-18.2128,2.6757,-14.354,9.7489,
-8.6402,2.9567,10.169,20.2583,-41.7565,31.7357,-7.3172,-1.066,-3.2029,-1.3188,-6.987,6.9784,-8.0379,6.684,
-13.0804,0.79561,10.551,9.1242,-53.3511,43.9315,-6.8786,-0.0098967,-1.027,3.7199,7.5322,-0.38305,0.37975,-2.644,
-20.2309,-2.2275,1.9826,-5.5233,-64.25,55.3956,-9.4412,3.9577,0.026737,-0.47121,9.8417,8.5669,-0.63513,4.4574,
-23.9761,-8.0445,-12.2364,-12.9128,-73.4262,66.1719,-10.858,9.6718,-0.96649,0.54963,2.3079,9.0445,-2.5803,13.1174,
-22.5376,3.3479,-24.1827,1.7485,-83.1206,57.2337,-10.2065,8.0999,-0.90944,3.4915,2.1694,-0.42466,-1.4338,6.3787,
-25.1532,11.0824,-18.7638,5.6105,-82.8789,51.8159,-13.562,-0.32144,3.113,-7.6282,1.0472,-9.3262,-4.3241,-3.9226,
-9.544,8.9291,-3.538,4.7781,-63.8062,49.2028,-2.3334,3.1695,2.4304,-12.6263,0.48854,-2.3201,-0.59302,-4.1831,
-3.73,7.4017,0.92409,5.483,-58.7034,37.3241,-7.1525,0.99606,-11.8154,-10.8762,-13.6408,1.7875,-6.5081,-3.9321,
-11.4411,7.9492,-2.1072,4.1624,-65.1003,35.0847,-7.7159,-0.056277,-2.9581,1.6787,0.28605,6.6393,1.8172,-0.72034,
-23.649,-2.4463,-11.9003,-10.1873,-67.1454,31.9875,-6.2609,0.9392,6.1464,2.5691,14.3689,9.2163,9.6426,2.2982,
-35.124,-8.2502,-21.1044,-16.3054,-70.0595,23.125,-7.8685,7.8261,0.81852,5.3908,6.3495,14.615,4.105,4.1445,
-34.5045,-12.219,-28.2693,-7.8885,-73.295,17.2738,-3.9252,3.8844,7.2164,11.5143,4.4807,15.226,0.38754,-0.56787,
-22.5152,-11.4858,-22.6048,-6.4226,-69.8889,19.2131,-3.6897,-0.31513,9.7592,5.8644,11.1551,12.3282,2.3475,3.4336,
-16.2057,-4.8455,-11.3308,-6.0377,-66.6881,21.0357,-7.4362,4.6624,3.2216,-0.43861,6.5179,4.6457,-1.7612,3.2272,
-14.2412,2.389,-15.6096,7.219,-57.7268,28.7005,-9.9654,0.41566,-1.9303,1.5714,-1.8076,4.3675,-5.6225,-2.9167,
-17.3542,2.2447,-21.6162,6.7858,-48.3125,30.9459,-13.3349,-4.5693,-6.7736,1.4771,3.2599,16.0068,-6.2768,2.2174,
-20.7762,-2.3533,-17.8393,-7.0111,-44.9175,22.6427,-9.0632,5.1281,-8.8472,-2.0831,11.4959,18.518,-5.4044,4.5634,
-15.5626,-1.22,-11.8103,-0.63924,-34.2881,22.2753,-3.5599,5.8116,-7.3252,-3.9419,3.8625,6.4967,-4.088,4.2901,
-6.6935,-6.1063,-4.1589,10.3093,-25.2875,15.9792,-3.3467,-5.4473,-3.9094,0.26257,2.6386,-1.8284,-0.86739,7.9996,
-14.7226,-8.219,-2.421,1.2601,-32.201,10.5582,-0.66592,-1.6489,-1.1948,5.7017,12.8952,1.7538,2.6563,6.0322,
-26.7337,-0.78306,-11.2027,-7.7425,-41.1796,11.9074,-2.6097,2.418,-4.0994,1.3926,14.1052,7.5988,2.4964,-3.2567,
-18.1869,-4.704,-11.5226,-11.2459,-33.7493,11.1935,4.4897,1.2808,6.0652,2.3002,17.2268,8.135,7.3062,1.8982,
-7.6733,-9.8776,-1.409,-16.026,-20.3183,17.96,5.7077,1.6998,3.2212,1.6664,6.7699,-3.7596,-0.57126,3.2718,
6.8871,4.8151,12.7756,-0.96442,-6.2048,30.9824,6.3574,4.5731,-4.9064,3.5501,-4.5465,-3.5336,-4.504,-6.8431,
17.6673,15.7197,20.2267,13.1934,2.5982,32.3821,1.5127,1.8197,-9.0753,-2.1178,-4.7695,2.1333,-9.6895,-7.92,
14.6231,3.8658,13.0624,13.4618,1.4507,28.4549,-8.4962,-0.27369,-15.474,-8.9339,-7.4592,-2.9537,-16.0505,6.6552,
12.7541,2.6422,10.2945,5.7109,-5.5796,27.7402,1.9317,-1.2489,-8.594,0.5286,-8.0032,-5.7523,-3.1851,13.9764,
10.5014,6.9469,6.2052,8.8398,-0.78158,16.6525,4.2958,-7.6214,-4.6077,3.9685,-7.0272,-1.9356,-5.474,-0.96222,
15.822,11.4892,3.8487,8.3094,13.3653,22.5966,-0.92197,-2.2051,-2.347,-1.2287,0.33766,0.16381,-16.0563,-5.1533,
10.4099,5.3445,-3.8208,-6.2891,10.862,20.7446,-1.362,2.391,1.265,-4.6261,2.7969,-2.3255,-9.6376,4.5787,
-4.1017,1.0569,-8.5511,-10.1615,-3.8897,8.5897,-6.2398,-0.72783,1.1896,1.6017,-0.34717,0.78933,-6.084,0.33604,
-14.2695,-10.4131,-5.5581,-6.0802,-17.7563,3.611,-8.3454,-4.1558,4.5898,7.953,0.17041,7.1894,-10.1822,-1.1716,
0.68666,-8.3008,-4.7288,-5.2196,-2.591,7.8576,-2.3889,-0.43481,9.7693,5.9884,-5.2956,8.2455,-10.0671,2.3694,
14.7455,3.6042,-5.9329,-0.44269,11.6645,10.8573,-0.75764,-1.8966,7.6952,-0.81787,-9.4407,4.2796,-7.9751,-3.2271,
9.4649,-0.57951,3.3495,-0.41613,3.5256,-3.8941,1.2711,-4.7587,10.2093,8.1577,3.0281,5.0144,-3.5292,-4.0261,
6.4175,-5.0085,1.6616,-10.8056,-10.786,-9.893,1.6911,-0.0094064,6.1256,15.1068,7.3092,5.2099,-3.8137,1.6708,
9.5045,2.7306,-6.8693,-13.6293,-6.9495,4.8006,0.10172,-0.50513,-2.6731,1.8028,0.42366,2.4177,-7.056,-2.8922,
8.9333,15.4607,-8.4413,1.2884,-2.5651,13.7209,-2.8802,-0.47482,-2.5127,-3.2654,-4.5608,7.2317,-8.6169,-2.7196,
5.9183,13.0466,-9.4223,8.4367,-2.9061,9.426,-6.1781,-0.94214,-4.841,-0.58948,-3.7914,7.2946,-9.5873,-4.0429,
14.9864,9.7838,-2.4095,3.4672,10.6581,20.267,1.6307,-1.3814,-3.0631,-0.058296,1.8919,2.3927,-5.5404,-6.2804,
16.5658,6.7163,-1.7696,13.6736,12.4981,18.5547,1.0366,-1.7948,-2.384,-3.526,-5.6611,2.7454,-7.6875,-6.3998,
4.1663,-4.1006,-5.135,13.349,2.325,3.3414,0.4786,-1.1913,0.23907,-3.8102,-2.8414,4.0682,-4.7472,-1.5526,
-5.0111,-6.8304,-0.85948,0.64575,-0.78941,-0.1163,3.4257,-0.12728,3.2005,2.3691,6.2555,0.84825,7.4399,6.4755,
-8.6779,-5.4289,-5.767,-3.3604,-8.6774,-11.02,-0.74728,-1.1122,-1.9515,4.2111,-3.0463,1.7899,4.0187,1.1279,
-5.6777,-4.6069,-5.9163,4.2798,-10.6363,-17.7974,7.7287,-5.5083,6.5968,9.4138,-1.3756,4.1621,4.2729,-0.42771,
-16.2468,-9.2896,-0.60225,1.0481,-11.9818,-7.8031,8.2566,-13.1126,6.2009,9.8406,2.6744,0.93652,7.984,4.557,
-25.6869,-13.1955,-8.0052,-9.4296,-17.7099,-3.8633,6.2738,-12.8217,6.3247,9.746,2.0181,1.3761,15.9366,7.7552,
-25.1373,-9.4279,-12.4839,-8.8639,-20.6147,-6.6073,10.8564,-9.0766,11.8969,14.1212,4.8719,1.2936,18.9478,11.2583,
-21.1495,-8.3664,-2.3126,-0.89297,-9.9551,-6.7067,4.7502,-3.0771,7.7114,14.7614,2.1005,0.72014,6.4044,8.1028,
-15.9136,-15.8003,1.7936,-3.8152,-0.43126,-7.2959,-5.4539,-4.8767,6.2571,4.9483,-1.9939,4.6444,-2.9073,-2.3025,
-17.4383,-7.4136,-0.79354,-0.11513,0.089959,6.5312,-5.623,-4.0878,9.3528,1.1802,6.5569,10.8127,-5.2124,0.31523,
-15.8957,-2.5051,-5.2097,6.3397,1.5729,16.5546,6.1214,-4.3388,8.2954,11.5238,8.643,8.676,-4.4034,8.7275,
-2.048,-8.3055,-6.8803,-0.98395,8.4223,7.6265,10.7132,-9.0375,4.8228,12.8166,-3.7779,7.1638,3.7957,7.2122,
0.058589,-2.8486,3.4511,2.0504,15.8514,7.1684,4.1192,-5.5199,3.5413,4.1122,-6.5266,0.78284,3.5675,1.8199,
-7.8798,-1.6851,6.2189,12.8381,13.9077,10.7058,1.8879,-6.1804,3.3288,-1.0936,-1.1759,-6.2074,-4.5814,-1.2651,
-6.4149,-2.5761,-1.097,11.0757,19.0244,4.1123,-1.2007,-17.7123,-2.822,-2.02,-10.0323,-0.87541,-2.3228,-4.1645,
-7.0226,-2.4215,6.9037,-3.6888,22.843,-6.0526,4.8229,-19.6254,6.2738,10.0035,-6.4546,3.1446,11.9165,3.0277,
-17.0152,-12.6906,6.9858,-17.5675,17.0087,-11.1448,9.9889,-13.9842,11.3527,10.8912,-0.61195,-11.1441,8.5085,4.3349,
-5.5803,-2.5064,1.1113,-6.1674,28.3867,2.9141,10.8765,-10.6656,5.2162,-0.17671,-0.078946,-24.5755,1.5501,1.5943,
1.2024,7.0668,0.54924,-0.34106,22.2198,8.1946,6.7528,-17.4642,3.4163,-4.6298,1.4137,-16.226,7.905,-4.9483,
-0.85393,1.6837,1.5079,0.67103,6.7866,0.75968,4.3644,-16.4164,1.2271,0.60702,-0.65532,-1.1525,4.4549,-5.6431,
0.68569,-5.8564,-0.070943,4.1024,15.0245,3.1941,6.5816,-7.0007,-3.3098,1.0674,-5.0792,7.1339,0.71598,-4.8087,
2.1315,1.9336,8.3645,4.3516,20.57,15.4001,5.6904,2.8421,0.35995,-2.4688,-1.3033,4.2254,6.1284,-6.9997,
8.9469,13.7199,14.8059,15.0012,6.4419,24.3952,-5.5608,3.6632,-1.6449,-5.2965,-2.2168,0.99697,-1.1826,-7.5713,
14.3617,14.8799,8.9575,27.9867,0.10375,18.964,-2.2523,1.4602,-1.5471,-3.9871,-8.0354,1.9288,-2.1033,-6.1254,
4.0767,9.5239,0.98099,16.8852,0.59334,6.4197,3.3387,2.86,3.0099,-2.2595,-7.0565,1.3172,2.4862,-6.2537,
-7.5744,-1.4615,-4.5327,1.7721,-5.8888,-1.4046,-1.3249,-2.7665,1.3409,-2.6197,0.80595,1.734,-3.1179,-2.4069,
-4.1441,-5.3412,-7.2366,-4.5673,3.3911,8.5978,10.6569,-13.5112,5.2279,-1.4709,14.6432,1.63,-5.9066,1.705,
-5.8787,5.8899,-8.7857,7.6091,-2.764,19.9852,10.0175,-8.7331,-5.0039,-7.3333,4.8381,1.5322,-3.569,-6.3322,
-9.4934,10.4956,-0.32363,4.1767,-15.4921,14.8187,-0.50261,-0.27421,-6.6879,-6.8933,-4.3787,6.3993,3.5884,-5.9523,
-7.9322,-2.0364,4.6548,-1.0329,-9.6035,15.9128,-1.4641,-7.201,-0.33496,-1.5207,0.84307,5.0237,5.3573,-3.6119,
-8.9446,-10.3459,-1.0793,-4.4426,-7.5389,29.058,1.1038,-4.2889,-6.7623,0.05801,0.29667,2.2423,3.5475,-4.8826,
-7.4154,-13.6926,-7.9578,-10.1277,-19.9815,29.5801,0.044977,1.9191,-10.324,-0.93709,7.2212,6.0752,6.3105,-1.6148,
-5.9784,-4.9357,-6.4882,-5.5521,-11.8389,27.8058,-4.9163,-2.163,-2.7618,-1.873,7.78,5.7112,5.9323,3.4417,
3.3064,4.2874,4.8113,7.6754,2.9715,32.0886,0.3382,-5.0086,-2.5956,-4.7359,-3.597,-4.5501,1.6085,-2.716,
16.4987,11.4693,13.9459,15.6456,16.8932,31.6507,13.7077,5.7068,-7.8947,-2.9634,-2.8854,-3.7813,0.024517,-4.0405,
6.0864,11.2769,3.6858,2.3087,22.3954,20.3294,8.422,1.8928,-7.9169,-2.2898,-2.2155,-3.0577,-6.4244,-1.318,
-4.6936,1.178,-0.99856,-10.2279,6.9517,14.6463,2.4608,-2.685,2.9721,3.3025,-1.5877,-2.3793,5.3676,1.2401,
2.5303,0.11474,3.0288,-7.631,2.2839,8.8076,-0.6617,0.45192,5.7696,3.1043,-2.4841,-0.25238,10.9962,2.1573,
3.3711,4.0762,-1.1204,-5.1889,16.2468,-2.6306,-2.6062,-8.5017,-0.52729,-1.0494,-2.335,-6.1879,4.3857,-2.9312,
1.1846,7.7982,-4.029,-1.9018,20.0176,0.50207,5.4851,-12.9516,-2.4798,2.981,-5.1707,-2.8418,6.1059,-0.77112,
6.0735,1.3796,0.18021,-2.7793,22.7849,14.5719,12.0992,-2.2554,-0.34781,1.8106,-5.8521,1.2962,5.7404,7.21,
3.2291,-7.1348,-2.3106,-11.0442,18.9369,16.9558,10.8774,2.3431,7.1121,0.21354,8.599,-0.26904,2.916,8.2649,
-5.8921,2.2207,-8.1227,-13.3574,5.8983,3.0435,-3.6617,-1.7649,0.73471,3.1765,12.3328,-2.2371,-0.23476,-3.1417,
-3.5544,12.0065,-1.6837,-2.6368,4.5528,2.8619,-7.4095,1.3168,-2.2852,2.9859,-2.2937,-3.0945,3.7468,-4.9365,
-1.3569,-1.6087,-3.5668,5.4563,7.2555,3.6818,-3.9891,-5.7054,-2.1481,-1.1606,-1.1635,-8.8595,-0.44548,-2.657,
10.6268,1.4636,-10.2961,5.1289,13.7634,15.3632,-0.77391,-7.3473,-7.9708,4.8597,1.8812,-3.3689,-1.4104,-0.51342,
23.379,14.7655,-9.1825,-2.6179,18.3925,19.8963,3.7358,0.5326,-6.9968,1.0965,-7.654,1.2965,3.1375,-0.97937,
19.9925,4.9526,-3.672,-0.47713,25.2243,12.7513,-0.45628,6.4518,-6.5765,-6.9037,-5.211,-0.765,-0.027041,2.0557,
17.3055,-5.7585,-3.9475,4.0148,23.215,12.4821,-5.8838,3.5856,-7.6693,-2.0263,2.5407,-1.2149,0.47134,4.4123,
19.2425,0.5382,-4.7018,-6.1438,11.9035,13.7178,4.3878,1.3868,-4.2338,-4.88,-2.5713,-2.1341,4.411,-1.8036,
17.0959,1.498,-3.4286,-9.744,13.173,11.9017,13.0516,3.2873,-5.9635,-10.5384,-0.43327,0.96928,2.1616,-2.6874,
13.0948,-8.5105,-13.1414,-5.1915,16.3496,13.1723,12.2689,7.058,0.34546,2.9883,11.4955,6.8623,6.9915,4.4166,
3.3821,-10.9752,-22.2716,-15.7902,1.2686,5.4391,-1.3616,10.6015,2.3084,3.8011,6.8379,3.4752,9.5483,3.1604,
-4.2594,-1.8865,-6.8353,-9.3874,-12.9075,-4.3109,-3.7604,13.4365,4.6495,-1.8823,10.8913,8.722,11.454,5.4494,
-3.0122,-5.7407,4.7674,-1.8819,-8.2335,-15.9546,5.3927,3.7038,-0.58856,-2.7619,0.31878,3.2397,6.7993,3.1392,
11.2685,-4.9005,-2.9577,-3.2564,6.3605,-25.4113,9.5324,-4.9491,-10.9681,0.87543,-13.8003,-4.3938,-1.0468,-4.4882,
24.6924,2.3368,-0.79605,-7.0285,20.0789,-33.8057,9.952,-4.6521,-4.3584,-0.16872,-10.2788,1.8205,0.99927,-6.2022,
37.3109,7.6515,2.7224,-10.0784,32.9741,-35.249,6.8749,-1.894,-4.5937,-5.6144,-7.1821,1.2155,1.4351,-4.3426,
49.1722,13.144,-2.4,-6.4979,45.0957,-24.2075,2.495,-0.78775,-11.2613,-2.3017,-16.6703,-4.8091,-1.6268,-4.0821,
60.2437,12.3549,-1.2639,2.819,56.49,-14.8197,-1.6217,-10.66,-11.5768,-1.1715,-13.6863,-4.5201,-3.5129,-6.8134,
50.6784,8.6388,5.7552,6.6173,66.9089,-23.8496,-7.476,-14.9795,-17.8254,-9.0361,-11.8726,-5.2405,-8.2612,-11.3637,
57.5563,9.1116,10.3685,7.2114,74.7972,-30.353,7.0725,0.019274,-10.8047,-3.5344,0.74164,-1.9507,5.1289,-2.7465,
40.0029,5.0937,3.2994,5.2918,56.9191,-23.0765,6.9305,-6.6428,-5.6927,-0.84282,-0.79077,-4.3132,5.3174,-4.0696,
23.5027,7.2681,-1.3618,5.4701,48.0491,-19.2119,-4.8918,-13.6824,-3.8637,-3.2713,-14.8433,-8.5177,-7.3997,-12.2561,
34.4228,14.7664,8.6385,4.1498,52.1089,-22.0271,8.2961,1.2386,0.33601,1.8836,-4.3155,1.912,3.9545,-4.578,
31.8616,13.3846,11.5918,3.405,45.5108,-22.1929,1.3518,-0.53808,-11.0907,-4.676,1.3983,2.2931,4.213,-6.7824,
23.0072,10.5978,20.8149,8.1602,45.7555,-19.8702,-1.7056,-10.4244,-0.50662,0.56319,-5.6284,-0.81984,-0.0076814,-7.3675,
24.6025,-4.138,12.6227,-6.4294,35.0752,-31.5719,3.3558,-5.8315,10.4345,6.481,-7.2749,-3.7465,3.9602,1.0094,
23.6213,-8.1395,-2.2346,-15.2534,22.5558,-30.1744,3.6503,-5.9774,3.361,4.6038,-1.3835,-0.050049,6.2026,5.4121,
14.7654,-0.21161,-5.854,-2.9312,20.7072,-16.9569,2.9359,-17.0258,4.6472,4.8238,1.18,1.4409,0.37511,-4.3354,
6.4404,-1.6873,-6.9902,-11.1861,22.9364,-12.4679,-1.7035,-12.5326,1.8884,1.0628,-4.3466,-2.1172,-9.0697,-11.5144,
13.9889,-3.5693,-5.5792,-20.434,35.6602,-8.744,8.3169,2.3194,2.7676,-0.98422,3.849,0.98563,-4.5581,-0.90443,
19.597,-2.8593,-5.7402,-20.6954,42.7284,-5.7403,12.2811,-2.4975,3.0964,2.5455,1.1381,0.42974,0.1777,0.63727,
12.9663,-0.20777,-5.8916,-14.9904,26.0647,-8.8666,7.0819,-12.7616,-3.5358,0.90534,-3.3925,-2.0751,1.6554,-6.84,
15.6599,1.2921,2.8925,-4.6677,10.4009,-11.8062,13.1035,-5.5484,2.1312,-6.588,3.2576,0.5294,5.0277,-7.9171,
25.6306,4.19,7.6785,1.5626,13.181,-15.0657,11.3252,-2.2402,4.9787,-4.209,1.0784,3.473,2.7423,-1.4909,
15.1657,-3.0042,1.2657,-10.433,9.4139,-28.2618,4.6945,-13.0169,1.7046,7.9453,1.0132,-3.6791,6.5448,1.5739,
0.1558,-4.8077,3.1744,-18.734,-5.251,-34.2875,6.3966,-11.2438,7.5535,13.4207,3.9287,-1.4747,14.0874,-7.4475,
-12.0382,-4.0229,0.50444,-18.1053,-18.1122,-29.7497,2.5416,-7.0971,8.5882,1.2085,-0.77074,4.0692,7.7868,-11.4644,
-6.8527,-9.2374,-8.9491,-14.5399,-17.5213,-25.4857,2.8849,-5.1838,14.5203,-0.35144,4.7313,6.305,12.7754,-1.3532,
-7.9285,-8.1869,-14.8591,-8.2122,-30.57,-21.4761,1.2239,-0.40907,16.1286,6.1166,7.9186,5.4314,12.5043,0.21586,
-11.4207,-5.7119,-4.049,-3.7516,-35.9604,-14.2364,1.151,-1.3766,12.1856,13.685,6.4523,12.0483,8.7787,0.20243,
-13.7117,-15.2888,0.16094,-16.4209,-23.8842,-21.3175,-5.8618,-10.221,-0.44834,4.9285,7.0563,3.39,4.284,0.19076,
-12.3927,-15.8584,-1.3357,-11.9645,-36.5511,-26.4855,-11.9571,-9.1115,-3.8926,-0.82253,5.1451,6.6578,1.5475,1.6672,
-16.6082,-16.8911,0.72771,-0.3359,-48.4581,-21.9205,-6.2806,-5.589,4.2758,3.1943,2.8531,11.2183,4.4304,2.5588,
-10.6522,-16.8697,-1.2997,-5.2753,-31.4506,-16.6383,2.0316,-8.2299,3.0272,1.0189,4.6656,-3.5548,6.1483,-0.57006,
4.0869,-7.4259,-3.7008,-13.3895,-15.4636,-14.1526,2.4055,-7.2394,1.3581,-0.52969,4.8815,-11.5592,4.292,1.9432,
16.5217,-8.4692,-3.975,-24.9847,-0.43574,-27.4034,5.7323,-8.2938,4.7478,-0.0025654,2.1081,0.54137,4.5298,0.3387,
9.0834,-13.4155,-3.2402,-26.9568,13.6904,-39.8592,12.8279,-15.2348,2.975,-2.4819,3.4705,3.98,2.7701,-5.136,
18.9524,-10.1315,5.3839,-15.917,26.969,-51.4221,11.5615,-12.8333,2.3007,0.14698,14.6678,-1.7136,5.0839,-10.2837,
24.2636,-5.0594,10.5167,-1.5713,39.4508,-40.8972,6.4055,-2.64,5.6343,3.6098,15.2761,-10.0415,4.2831,-16.1132,
18.3436,-0.29256,10.3815,3.9778,51.1838,-24.3434,16.4351,2.9742,7.7762,0.91319,1.9614,-5.9674,4.5219,-9.6915,
11.7876,-8.7062,1.3284,-2.7078,62.2128,-21.113,21.8969,-2.6596,4.8301,-1.6211,-0.63577,0.83763,6.7301,3.2886,
6.6176,-13.6392,-2.2234,-3.0416,44.38,-29.269,6.4831,-7.9554,-2.8992,-3.0118,-1.0939,2.2753,-4.0881,3.5866,
17.1308,1.2792,12.01,11.2409,45.1116,-13.4129,-0.13983,-3.5111,2.2343,-1.839,3.9313,1.1467,-4.8349,-1.5872,
13.6234,12.3955,17.5234,21.7594,49.8435,-7.3667,0.36485,-8.7558,-5.3384,-1.2323,-3.7442,-7.3533,-4.0485,-8.9315,
7.8469,7.6843,20.4394,20.4539,32.7529,-8.908,-1.6412,-10.2137,-10.9697,3.8007,-14.4293,-3.9363,-1.8224,1.5235,
13.8231,5.7353,24.6675,15.7555,17.611,-8.8698,3.9126,-1.1706,3.7885,7.0438,-2.1575,-1.2206,6.7181,2.919,
11.01,-1.5525,9.0874,0.71016,20.5222,-22.4376,5.6616,0.88333,8.8026,-0.32163,4.9148,-15.2473,3.3397,-11.3561,
11.341,-5.4259,-5.5578,-13.4325,33.3909,-22.8611,11.2735,2.8145,8.2744,7.6325,3.6283,-10.1511,4.1309,-6.4933,
16.1159,0.3541,-5.2923,-11.7037,40.5958,-7.3894,7.125,-0.82645,6.29,6.6783,-7.0039,-0.11925,1.4035,7.9963,
20.1085,14.4329,-3.9826,3.0985,44.1112,7.1539,8.6812,-1.768,-4.006,-4.6326,-11.5432,-9.0391,-2.6486,6.8072,
8.4875,11.866,-6.2232,12.1224,43.945,-2.6297,15.5999,-5.1331,-0.29352,1.1007,-4.4036,-8.0004,-4.9692,-3.024,
-2.9329,-2.946,-4.8587,-2.492,33.373,-4.4557,5.7369,-8.793,7.6585,9.9616,0.82016,2.3982,-10.6222,-2.8431,
-1.269,-6.0274,-9.0299,-10.7727,17.2706,0.27447,-3.0385,-6.7775,9.6785,2.917,3.2505,0.76639,-9.4886,0.79962,
-0.20076,-1.6978,-10.4718,-9.1342,2.1343,-3.709,6.0708,-1.4113,9.0983,0.75822,6.0308,3.6957,2.9826,4.7186,
-6.6366,-7.0513,-12.324,-2.1401,-8.477,-10.926,-3.7162,-3.8071,1.1128,9.1429,2.1978,11.9052,-0.66753,0.96434,
-4.7501,-15.0599,-2.1613,11.379,-14.4148,-14.7337,-12.9156,-5.0661,-3.4172,0.16368,-6.3648,9.7025,-6.0833,-6.5326,
7.9336,-0.7651,12.0684,22.1032,-0.15973,-17.3208,0.25702,5.6522,-0.73261,-13.9461,-2.5117,7.6334,0.72961,4.2738,
-0.47828,-3.696,13.6094,6.677,-3.126,-19.2578,10.1607,4.3215,-3.6645,-9.4238,5.5739,4.1995,5.6449,3.0257,
-7.8887,-17.5742,-1.3072,-7.8236,-15.3365,-14.6303,9.0552,-3.3769,-3.9404,0.56395,0.77617,-0.51568,0.84295,-8.5623,
6.4717,-3.9067,-3.4939,2.4956,-1.5229,0.34755,10.4956,4.7601,4.2314,1.5222,-6.2132,8.4413,1.7835,0.87839,
8.5629,3.7663,0.18693,9.7854,12.6685,11.5188,9.3696,-0.98082,1.497,-5.0161,-7.3283,16.366,2.1728,7.2727,
7.057,7.5082,5.1352,13.1652,22.1098,15.7872,5.8321,-4.8889,-8.5114,-2.7314,-3.9133,19.3519,-0.93291,3.861,
4.6503,2.0987,-0.13193,3.4488,6.6832,5.9134,-2.4527,1.356,-9.984,0.40829,-5.6617,5.2969,-6.8276,1.6451,
-2.0761,-6.4579,-0.61983,-9.1562,-7.8178,-7.8311,4.1419,0.77886,3.0132,3.8554,-0.85875,-3.4516,2.0127,5.018,
-15.8376,-11.03,-4.5506,-9.599,-3.4496,-14.305,2.9013,-5.219,3.8245,4.6153,-0.8077,-0.26919,9.8264,1.7416,
-22.3269,-14.8319,-11.7171,-6.5435,2.2127,-13.943,-0.7449,-1.4347,6.0746,5.8262,-0.26295,4.2097,7.7489,4.1166,
-27.9296,-18.9011,-12.0047,-10.1183,-5.855,-5.1706,-0.69926,0.63554,9.6775,4.485,-2.2304,5.9414,1.3333,4.8613,
-32.2054,-14.7912,-5.3337,-5.5438,-4.512,4.0662,3.3101,1.589,5.1294,7.1918,0.87827,6.5765,6.2123,2.5863,
-34.7364,-15.3921,-6.5012,-3.7228,-2.7529,3.3264,5.5906,3.9737,-2.6174,5.2728,0.32976,0.72703,10.3028,10.8619,
-33.6438,-9.5086,1.8238,-1.5162,6.3387,15.0291,7.2393,9.686,3.4913,4.9564,-4.6491,2.6667,7.7014,7.2343,
-28.154,-3.4837,5.1855,-0.92891,13.397,17.5985,11.2678,3.6495,12.7046,5.1544,-4.8664,8.9536,3.7672,-7.2997,
-12.3648,0.19747,-3.5558,0.61473,15.0727,11.0873,3.1531,-2.0249,0.53533,-2.5935,-2.0949,6.9285,2.0533,-15.5748,
2.4771,11.0963,10.5431,9.5044,24.0874,17.3653,-1.9951,-1.9034,-13.5968,-8.3895,1.0066,-3.4053,-3.029,-0.54028,
8.8443,19.8529,23.3012,11.4141,25.1222,23.7624,0.60362,-9.2282,-17.0307,-13.341,-9.4687,0.27061,-10.2863,-1.2172,
-2.1013,14.1984,7.8031,2.2976,15.1832,21.8409,-9.8475,-15.122,-17.4963,-19.9796,-23.0006,12.6525,-15.124,-7.5916,
4.4723,8.8833,-6.3371,6.624,10.8015,21.0262,-1.8166,-7.7672,-3.0559,-10.3501,-11.487,9.4134,-4.7942,5.262,
11.643,14.7977,-10.4202,18.6246,12.6335,21.2531,4.7389,-2.837,-0.3925,-1.2984,3.3022,-5.2514,-3.0182,2.4673,
2.5128,23.3322,-9.2991,22.962,20.3061,22.4569,-3.9761,-1.1793,-6.8164,-6.6754,0.90639,-4.7219,-5.3171,-3.1366,
-11.738,8.0462,-8.7417,15.6332,8.1766,12.1825,-1.7539,-0.11742,7.4786,-9.2512,7.7948,3.4958,3.9289,2.0111,
-17.2667,-4.8352,-11.6883,11.224,-6.414,7.9804,4.7983,2.3701,12.4853,-2.2482,10.7983,-0.18511,3.1969,3.3784,
-13.7517,-7.0251,-5.5321,8.0706,-7.7994,8.989,7.9821,-0.25211,3.3045,1.3574,1.7197,-2.654,0.52505,1.6873,
-13.9172,-10.571,3.7263,1.6356,-0.38816,-3.4526,9.4873,-3.2128,2.1146,0.28433,-1.3593,-0.51057,7.4368,2.5786,
-17.0501,-10.9279,1.519,3.5212,-6.316,-11.1799,2.9669,-4.0112,-2.9718,-1.7165,2.6901,1.5038,6.9911,6.3909,
-13.5471,-3.8257,-1.0512,9.7565,3.4862,3.5909,3.2847,-1.2915,1.6707,-0.12509,7.9836,-5.0339,2.1084,2.5358,
-13.7264,4.3392,-3.9644,6.1957,12.203,17.4755,0.11136,-3.1977,3.5532,-5.0771,1.5534,-1.7565,-5.9535,-4.5591,
-9.4321,5.5663,-6.2066,1.3607,2.0486,17.9827,2.5847,-4.4942,-5.0906,-6.2609,5.9235,12.4489,-5.1005,3.1535,
-6.882,-3.6942,-8.809,-7.6484,-2.0418,11.9438,2.4296,-6.2078,-14.7043,-4.8936,4.5765,20.9108,-2.8112,6.9317,
-5.9728,-6.9437,-2.8251,-7.6848,10.4793,18.6667,-2.1799,-6.3307,-9.3583,-6.0869,-8.0967,17.1766,-7.1053,1.0605,
-6.1107,-9.9992,-3.1519,-12.6791,5.3868,15.0671,-3.5361,-5.4555,-1.3573,-0.26638,0.82023,11.6832,-4.1995,-3.4659,
-12.6868,-4.4407,-5.9382,-15.8862,-7.8308,8.212,-1.3411,4.7904,-1.2763,13.8496,13.6645,6.0217,6.9627,4.6764,
-24.3242,1.2811,-3.1023,-3.5261,-16.7837,-0.71192,1.2189,7.9742,8.2231,21.2349,-0.54467,1.1977,7.0413,6.8754,
-19.3927,2.6931,11.1838,10.7855,-19.2479,-10.092,1.642,1.0497,8.226,5.8608,-14.612,-0.36211,0.1718,3.9833,
-8.8063,9.9701,24.6128,24.2384,-21.5642,-9.9818,-7.8793,-0.5012,-5.6578,-8.1629,-14.5134,-3.8115,-3.3097,1.2648,
-6.7905,12.8435,24.1965,28.8036,-25.7252,-0.95222,-14.8447,-0.96694,-2.8383,-4.2006,-15.13,-7.0545,-2.6153,-2.2827,
5.5188,10.0892,17.7851,25.0907,-24.1831,8.0309,-14.947,-3.8852,-4.6527,-7.9174,-16.2069,-8.6149,-12.3779,-5.1221,
17.0904,8.4918,12.7501,30.529,-8.6321,11.517,-7.1065,-6.6274,-13.2996,-9.4251,-7.2991,-7.1059,-10.6422,-4.8143,
1.965,8.9744,9.0098,24.7303,3.5747,0.90738,0.26271,-12.181,-11.5095,-2.9085,-4.8775,-7.6717,-2.0692,-4.5249,
-1.9069,11.4112,3.5097,12.3353,7.3271,-1.1308,-4.7126,-12.4422,-9.8278,-5.7102,-18.4709,-9.1951,-11.8637,-8.2214,
7.6308,5.2717,-6.1232,2.1729,0.44102,13.0371,-9.8847,-6.2398,-7.7497,-12.8058,-15.8742,-2.1959,-14.6235,-9.2155,
-3.7382,0.98747,-18.6503,-1.9254,-13.6854,26.3548,-3.3405,-3.8827,1.6413,-2.1198,-0.82177,9.8377,0.35391,2.2476,
-16.9037,-3.535,-28.9378,-15.1997,-24.0569,12.4438,-4.6275,-7.1204,1.047,5.4465,7.4443,-0.17491,3.5903,2.6086,
-4.4829,-0.84292,-13.1015,-17.7593,-11.2069,8.2255,1.105,3.7217,8.4242,6.6081,0.55017,-1.6519,6.8466,5.9237,
-10.1656,-5.7524,-1.1233,-17.6863,-8.5513,11.6994,2.0304,5.4817,5.9336,-0.73165,-2.4587,4.3979,7.4274,8.5441,
-17.4905,-6.3988,4.8957,-9.6819,-9.0298,10.9975,12.8192,4.1611,5.5785,-0.68775,2.6479,10.0848,10.9492,13.9821,
-7.0178,-0.55909,7.082,-1.6619,-15.9271,-1.0689,11.5543,5.3989,5.7396,2.8251,0.0099887,7.9922,9.7964,13.64,
-3.6214,-8.4609,-2.2699,-6.5208,-29.0715,-13.8992,-3.239,0.11543,0.43571,-0.31971,-12.885,0.56992,0.28166,1.9104,
2.548,-3.9853,8.7774,7.9705,-18.1863,1.0348,-3.8218,1.1006,3.3859,2.6748,-8.144,-2.4396,0.26523,-1.1796,
-1.5728,6.1724,11.2252,17.1969,-8.1681,10.6773,-3.593,-6.9008,-10.9173,-10.3801,-12.6149,-8.2453,-13.6367,-10.0358,
-2.4706,4.81,-0.3576,14.1814,-21.5641,-2.8568,-5.3611,-8.4695,-15.0078,-9.7568,-4.9143,5.1447,-13.8106,-5.4657,
0.65302,0.55344,-9.2641,9.3626,-34.1572,5.249,-7.0241,-5.9786,-0.22227,1.7388,3.314,16.737,-2.0718,1.805,
5.0776,7.9598,-9.2036,6.3213,-25.6599,12.3727,-4.1222,-9.091,-6.6559,-1.8367,-1.3476,7.3025,-1.4512,-1.7744,
18.8729,8.4738,-4.6839,5.942,-10.0203,2.7038,8.0274,-7.553,-10.223,-7.6781,2.7007,4.8811,-2.3557,-1.668,
18.0229,1.5179,-1.9238,10.0487,4.681,4.029,-3.8607,-1.6449,-7.1306,-9.6974,5.0187,18.6882,-7.6702,-1.0721,
2.8415,-1.548,-0.81581,5.4784,-9.4176,8.7473,-10.5723,1.4296,-3.7269,-7.1314,5.7092,18.8409,-2.25,0.97549,
-6.5378,-4.9268,-4.2385,-8.9503,-19.2674,-1.2008,2.4601,0.84705,-2.0159,0.73557,6.8541,3.6104,10.2832,5.3802,
-4.6581,-11.0786,-4.48,-17.1263,-8.689,1.3513,2.8093,1.293,-0.40656,2.1789,2.9721,-8.295,8.1778,8.529,
-7.8498,-14.8776,-3.7159,-1.9988,-8.663,10.693,-2.8146,2.7024,4.0806,-0.43139,1.3059,6.3027,1.2401,6.5294,
-7.8751,0.11505,-9.9389,12.2212,-7.647,22.45,-7.1095,1.0533,-1.6186,-4.8683,-5.2194,20.0245,-1.3138,2.6665,
-7.8984,8.8216,-6.8635,13.54,-0.74166,23.5821,-13.1303,-4.4658,-12.929,-13.9995,-18.297,4.7231,-11.6499,-0.96515,
3.982,2.8375,7.6483,10.2485,-3.1762,8.0671,-5.8951,-4.6936,-7.689,-7.7037,-10.7517,-9.6603,-9.4625,-0.41143,
17.8431,5.1467,19.8694,6.1615,2.4697,-4.1053,-0.086017,-2.9241,-4.7482,2.1813,2.292,-10.5686,3.5039,0.10954,
29.453,12.2765,8.2628,0.33648,9.7601,-7.3301,-0.57714,-9.1956,-0.00048717,-0.43001,0.66658,-7.455,4.7806,-2.3766,
15.783,8.5646,13.7182,6.2674,-3.7199,-19.7847,-8.4769,-15.5876,2.9758,-6.3554,-7.3088,-10.9746,-9.3923,-6.2019,
8.8853,2.0991,12.8951,9.8588,-17.5967,-6.6953,-11.9357,-14.6514,0.81309,-1.014,-4.8861,-1.3897,-10.812,-2.854,
4.3843,0.98105,-1.9786,-4.6187,-22.2786,7.8064,-11.2201,-8.8137,0.76477,3.0138,0.3657,8.6123,-3.2205,-5.6581,
-0.83782,5.8822,-15.9599,-12.2765,-20.9419,21.438,-10.5469,-1.3417,2.7021,3.8246,5.3038,3.1365,-1.0431,-1.3511,
-7.2355,5.033,-29.1023,-1.1255,-33.7854,34.2517,-7.4345,2.21,7.0037,3.0988,8.4567,9.3953,-3.461,12.8299,
-20.9013,5.7231,-34.1534,10.8448,-45.8582,46.2966,-13.9312,8.0295,8.5672,2.9134,-1.9693,22.7176,-5.2361,18.2931,
-33.7473,8.3555,-26.1535,1.2676,-57.2067,57.6188,-14.087,11.5142,9.0448,7.6976,-4.827,7.2546,-0.95541,16.2039,
-26.335,6.8626,-27.5591,0.19996,-67.8743,68.2617,-6.2985,10.8243,9.4947,6.2441,6.3734,-7.2807,6.0452,18.2075,
-10.6549,8.4336,-29.8735,14.288,-77.9019,68.3381,-17.8234,7.1986,-0.99453,-7.0249,-5.9118,7.2561,-3.2445,5.2123,
-4.2779,11.896,-13.9811,21.1516,-87.3278,64.2378,-13.7782,7.7592,-0.93391,-4.6192,-11.5078,8.0264,-3.0489,-2.0437,
-4.0212,10.1896,0.95778,10.9551,-77.3332,61.3751,-7.9924,4.3169,-3.8546,-2.3588,-6.8509,-6.5552,-3.8585,1.0547,
1.6754,13.0504,-2.0071,5.835,-70.2132,48.2698,-10.984,8.5216,-2.1355,0.26317,0.0081126,-13.387,-2.1391,-1.4881,
5.5423,16.2348,-10.8132,3.5007,-80.1004,37.4388,-12.3092,6.0271,3.9443,2.2306,3.9751,-7.6238,1.9567,-8.3421,
2.7298,14.7639,-5.7012,3.7865,-67.6418,36.6799,-13.059,-5.7411,-4.724,-5.3423,-6.6783,-8.6547,-7.584,-4.3699,
-3.881,5.4479,5.0563,1.0797,-64.0787,28.0331,-11.7782,-3.9087,-3.9433,-3.5338,1.1619,5.2548,-6.6317,-3.6114,
-6.1272,1.6494,-9.3471,-3.4483,-74.3339,21.8869,-10.5757,3.7649,7.6998,4.1173,15.1922,11.3869,4.1801,-0.91569,
-4.7684,-0.4333,-22.8863,-3.2419,-60.2381,26.5248,-13.9091,-0.4289,6.2448,2.8781,11.5867,5.7442,-0.038599,13.2393,
-1.5065,-3.3831,-22.574,-2.0548,-42.5238,26.9175,-7.1239,4.5559,9.8385,5.6813,5.9324,19.4995,2.9395,23.1416,
-15.5161,-11.6108,-18.7396,-8.3789,-54.0724,15.8792,-13.1429,8.7458,11.7272,4.8446,15.9904,18.6119,1.2757,16.2973,
-28.6851,-18.8495,-17.6157,-4.9009,-57.2745,13.9353,-20.2897,3.2625,12.0157,3.5618,15.0315,3.3952,-1.7762,11.3525,
-23.0654,-7.8,-13.5834,6.3034,-41.9362,16.0736,-16.097,-0.9012,9.311,5.3318,0.029592,8.364,-2.6626,16.6225,
-8.2908,2.0913,-20.2065,11.381,-38.9238,17.5892,-12.6512,-0.35132,-1.6625,1.5403,-14.0722,14.3096,-6.9652,18.1052,
-0.85057,-2.9937,-12.0514,10.6977,-38.5725,17.5259,-8.9167,0.66186,2.4051,2.44,0.87215,-0.64897,2.3788,13.0509,
-2.287,-5.2932,2.7717,11.5442,-43.6968,5.0679,-8.8776,-1.8569,9.6999,2.7894,14.9198,-14.71,5.7077,-0.13024,
-3.1418,-3.9844,16.7054,14.8185,-43.0587,-1.1874,-10.3286,-9.6809,6.1416,0.63829,8.0735,-9.9279,-8.5208,-11.0327,
1.0141,3.1979,11.804,13.9294,-29.5649,8.8029,-9.7089,-8.1084,-4.145,1.5916,0.64581,-12.308,-12.9687,-6.4033,
3.4328,8.4614,-3.0042,1.6876,-24.3194,12.7376,-9.6217,3.7851,-5.3842,1.0008,-6.8315,-23.9681,-6.7352,-1.5563,
6.2026,5.9695,-16.924,-1.3895,-18.8928,8.9984,1.8653,7.5254,8.8253,-1.0435,-0.47096,-12.611,3.5871,-1.4629,
2.3593,-2.8189,-15.4806,7.1251,-15.2792,3.0032,-0.72611,-2.3489,8.7912,-3.4604,4.021,-1.4399,-0.099324,-5.8379,
0.23357,-5.6256,-14.5527,0.74594,-16.3467,-7.0961,-8.6174,-2.2079,5.2879,3.6905,0.80395,-4.3293,-2.0776,2.4472,
0.71584,-2.8085,-5.2484,-1.7784,-16.8533,-7.1657,-9.5873,4.3715,7.4511,4.957,1.252,-5.5565,-0.46405,16.4004,
0.17708,5.7907,3.4982,12.4283,-18.3216,7.3643,-6.533,3.6134,0.55657,-2.7795,5.6401,-4.7273,-9.8595,14.2108,
1.6544,4.9479,3.7836,16.4278,-24.6614,9.6833,0.30592,-0.075502,-2.948,-5.0923,-0.15363,-6.9242,-9.7642,1.9512,
13.457,0.68313,8.5161,3.5402,-18.2227,-2.7995,-1.6962,1.9127,-0.78832,-2.804,-11.0556,-10.4757,-6.203,-4.1171,
19.5928,6.5938,9.9893,-3.6154,-11.1777,-4.6148,-4.5693,6.758,8.1864,-1.6432,2.5026,-11.8304,-2.854,-6.8449,
15.4414,9.173,6.4142,-6.3743,-10.5075,-1.363,-2.3119,3.3767,8.6869,-3.5288,16.4525,-11.1215,-1.6912,-8.4184,
21.954,8.1268,6.5242,-1.5286,4.223,-3.7613,-3.6615,-8.2324,-2.2492,-4.8045,8.8044,-7.9742,-8.0372,-9.4017,
31.0512,7.1439,6.629,12.6631,11.6905,-7.9984,4.9893,-7.2422,1.3578,-0.052478,5.7966,-8.9837,-4.0838,-9.3329,
17.2858,9.6911,-0.71103,19.1294,2.0626,-6.5268,-0.26909,-3.8318,-1.6995,-1.041,1.4814,-5.4688,-2.8462,-7.7813,
6.8254,13.5719,-3.1484,20.4607,-2.5249,3.2871,-11.6595,-2.1154,-6.0607,-1.4753,0.89573,8.9593,-9.1228,6.7856,
9.3921,0.85575,-7.919,15.2661,-0.38922,-0.8771,-12.9436,-6.9471,-6.6892,-5.3537,3.8183,9.6962,-16.5099,9.6361,
13.2923,4.2765,-2.9801,19.8054,0.13042,-7.2714,-9.6875,-4.0507,-6.7832,-6.5204,1.1096,3.659,-11.0565,1.6193,
-1.6052,2.5315,4.6377,25.0636,-13.9774,-20.2259,-13.5695,-1.3277,-3.8971,-2.6575,1.5389,-1.0247,-2.9541,3.0096,
-14.1894,-3.0752,2.8711,28.0231,-27.2388,-31.4104,-17.2186,3.2152,4.7674,3.9484,6.9014,-1.459,-1.2894,16.2188,
0.76201,4.5479,4.1867,19.8947,-11.5044,-32.0053,-8.7468,5.5018,3.986,-1.7438,-1.9429,-3.851,-5.6748,10.7829,
14.8163,7.2503,14.8458,4.601,3.2858,-38.0204,5.878,-2.7636,-3.1969,-2.6313,-2.8184,-9.5711,-2.359,-3.9641,
28.0273,2.3525,9.4922,-3.8913,17.1887,-49.8392,3.8244,-6.069,-8.4595,-0.98457,3.7977,-16.4355,-1.7211,-9.9593,
40.4457,3.2025,10.9064,0.30914,30.2574,-60.0251,0.61862,-5.7044,-2.9933,-7.8692,2.5777,-17.433,-3.6016,-9.3622,
52.1189,12.929,24.352,14.3906,42.5419,-49.4808,14.6815,-6.3542,-1.8216,-5.4134,-5.5114,-5.4768,-3.386,-9.7925,
46.4346,8.6826,35.0751,17.7765,54.0894,-42.0477,19.0425,-5.4771,-14.1105,-5.5844,-12.6197,-1.6766,-7.6461,-9.7008,
40.1769,1.7142,18.8706,9.2708,64.944,-41.0133,15.4199,0.30638,-1.8573,-10.7051,-3.4319,-6.0402,-2.724,-6.6387,
29.3351,5.0825,5.0584,6.235,75.1474,-38.0562,10.031,-4.1748,6.6853,-7.5823,3.221,-12.1238,-2.0643,-6.7367,
13.475,-0.67735,-5.66,1.3977,84.7386,-40.2361,4.9659,-9.3801,-0.16328,4.2791,6.4994,-7.9257,1.5312,-7.8199,
1.4744,0.35492,3.6061,8.2571,93.7542,-36.8303,7.6438,1.1018,-8.0884,5.014,0.15873,-2.4902,1.4393,-7.3507,
5.3529,4.3015,17.2758,15.696,90.3852,-26.6851,7.1856,-0.94806,-13.5542,-2.2296,-13.9508,-5.317,-11.5415,-1.9502,
-1.9106,-6.8673,10.2885,5.8278,77.0272,-31.0347,0.80283,-14.7767,-4.8061,-5.0717,-15.8756,-2.0222,-12.8322,3.1259,
-2.788,-2.4883,10.6633,4.486,75.3809,-30.1656,-2.2207,-12.899,1.4334,-4.7669,-5.9961,-4.8762,-3.1363,-3.0128,
11.4792,6.0917,24.1235,13.6401,76.313,-18.9324,11.3023,1.2647,6.8023,2.9572,-1.1731,-7.0636,0.52353,-6.3037,
11.0723,-1.2166,26.9254,1.9105,67.7672,-26.7235,11.6163,8.1326,5.4021,4.7635,-2.0948,-0.68866,-2.4832,-4.9333,
0.98474,-3.6236,16.8782,-8.619,63.2044,-39.2201,-2.4714,6.1562,-2.3611,-3.953,-4.4491,-1.1432,-1.8384,-5.1341,
0.42984,0.065477,11.4023,-4.6302,55.9415,-33.6776,5.1159,-1.6522,2.2447,-3.22,1.2737,-4.5462,-0.24068,-4.3293,
-2.076,-4.4017,0.3042,-3.8566,38.485,-24.2178,8.2806,-7.9996,3.5975,0.44484,3.6763,-0.80179,-9.6486,-3.5737,
-1.4546,-6.6167,-2.1941,1.8306,28.4545,-27.228,7.288,-3.0564,2.8858,1.9065,6.9274,0.73375,-8.5738,-9.8068,
-4.839,-3.7406,-0.57403,6.184,32.203,-28.0743,6.3549,1.5903,9.1601,3.2796,1.0568,-8.7326,2.3555,-7.73,
-18.6486,-11.451,-3.5154,-2.1219,28.2867,-34.3248,0.021952,-0.48839,6.6263,9.0344,-6.9415,-5.2328,4.1974,-1.3155,
-23.2669,-16.7156,-2.3129,-11.9136,19.6462,-38.2164,2.9965,-3.4349,5.2371,11.4672,3.3932,3.016,6.9214,-4.2124,
-16.9119,-4.801,-5.1499,-10.2063,26.4023,-25.0123,5.7925,-1.2456,7.8987,6.8118,7.157,-4.1082,10.4735,-3.9596,
-19.3683,-0.050194,5.5745,-5.1302,29.2819,-20.0404,0.98121,2.3013,1.9694,0.94865,-0.711,-13.2845,5.3814,-2.2341,
-9.2802,-0.047656,19.34,2.1195,22.5655,-20.8217,0.92186,1.1711,0.85918,0.89126,4.2902,-7.5279,-1.8843,-1.108,
-5.2517,-4.508,15.4856,-6.4384,17.7399,-19.0766,-1.6125,-3.3624,2.2951,-1.6422,5.5212,2.3461,-2.267,-1.5373,
-17.3343,-12.6678,0.45648,-19.4413,17.1718,-16.4441,-0.027848,-4.6486,3.6453,1.9284,7.6695,10.6365,7.2918,1.0344,
-22.7417,-13.3952,-6.3002,-12.82,13.6615,-16.9449,-0.52199,-1.8897,-3.0199,6.276,5.7219,10.4941,-3.5606,0.47657,
-14.4334,-8.6245,0.028971,-2.1322,13.8339,-12.9528,-6.4418,-0.78419,1.1282,5.8999,-0.5726,-0.054118,-9.2981,-1.5357,
-12.0809,-13.5628,1.5147,-14.4024,6.5564,-20.6073,-6.5521,-2.2255,2.548,4.0575,1.9408,-1.5392,5.3598,3.0196,
-20.2816,-18.6997,-1.5511,-23.4573,-3.7551,-33.4709,-3.1822,-1.1004,-9.5072,3.8141,3.8086,6.4889,5.3205,2.8385,
-18.0731,-13.6103,-12.3687,-12.1308,3.4135,-22.3212,-0.015444,5.9089,-5.961,7.5527,3.58,6.0996,4.0096,-0.30671,
-14.5097,-10.3137,-15.0982,-2.9723,2.7119,-10.5675,-9.4378,11.0093,-2.1317,5.6121,-3.0822,2.262,8.2323,1.1991,
-19.0944,-13.167,-0.8021,-4.2818,-3.8978,-14.3972,-11.352,10.845,-2.5001,0.81161,-4.3852,4.6058,5.2579,3.6058,
-24.3958,-13.8649,1.7256,-10.4719,7.7431,-14.0287,0.73611,6.7231,4.0978,2.2508,4.3091,-1.1259,-0.51198,-3.0566,
-17.4767,-6.5851,-3.8333,-3.3966,14.7171,0.20325,-3.7708,-0.12723,0.37987,4.5953,9.5059,-7.5053,-1.9692,0.59795,
-8.4932,-3.2151,-9.554,5.7337,10.8582,10.1092,-14.4553,-1.1122,-6.5862,3.328,5.9597,-4.0792,1.1239,4.5295,
-3.0245,-0.046362,-3.0301,8.3655,24.3067,17.4375,-13.588,5.8978,-9.1668,4.1199,-2.3327,4.1005,-3.9026,-0.70132,
-0.85839,5.9076,8.0629,7.864,36.9483,20.3592,-6.8215,6.536,-10.5996,-2.0784,-6.1597,-2.0967,-16.562,3.3077,
-0.80736,7.5368,8.5703,2.4326,21.4096,13.1865,1.5222,2.176,-5.9966,-0.96165,-0.83156,-10.8979,-15.5687,13.0279,
-6.7101,5.1009,-3.8467,-2.6728,11.198,8.4274,-7.4961,0.061697,-10.5964,5.0463,3.1862,-12.2278,-7.6918,0.3434,
-2.8363,1.3237,-2.1271,7.9019,24.6261,11.3938,-2.5826,4.5217,-3.5136,5.2398,10.4337,-6.0387,-0.78332,-5.1316,
3.7808,0.748,3.4549,14.8674,28.8858,12.1981,8.9784,8.7132,4.1367,0.46261,3.3607,-2.2053,-5.1991,-0.36094,
4.0507,12.1096,0.76859,10.5037,23.6819,12.9537,1.9932,9.6788,-0.57473,0.93067,-10.941,-2.5688,-5.383,-1.8267,
-6.6072,10.8872,-2.7492,2.4344,13.8303,8.7058,-5.5655,5.6264,-1.0361,1.3706,-4.1184,-0.92625,2.3791,-7.172,
-8.6908,4.7791,-3.08,4.7683,4.5689,7.6866,1.2159,3.8014,-0.47808,-1.1916,10.2287,-1.3674,4.7154,-1.2868,
-2.2177,1.5166,-2.8952,8.4497,-3.6392,8.218,6.102,1.5891,-3.4252,-1.1192,10.8879,-1.2844,0.46503,-1.2096,
-3.573,2.913,-0.24244,8.4385,-3.9176,0.28493,0.28004,1.9896,-4.7081,2.4187,0.81235,0.28006,-6.0103,-3.617,
-4.3502,3.7298,-2.2111,0.98894,1.2765,-6.6754,-3.7042,2.8618,-7.4005,-1.6939,1.7552,-0.72931,-10.6088,1.56,
10.0108,1.5228,3.8732,-3.0378,-5.7424,-2.3065,3.4613,0.70689,-4.9732,1.3836,6.609,-4.652,-4.0206,-2.501,
16.1394,3.4152,12.5668,7.063,-12.3416,3.783,-5.6733,-7.2709,-7.6501,2.2926,-2.7145,0.58567,-5.7631,-7.3105,
1.0711,1.7223,7.35,9.1197,-2.1773,1.0765,-13.7632,-7.33,-10.6623,-6.2761,-8.9977,14.6505,-12.8559,6.5184,
-7.7058,-3.8359,2.4448,-4.8182,4.3998,-1.4681,-4.5067,1.5405,-4.5677,-6.3953,2.9477,14.5492,-2.6622,17.5338,
-4.2681,-9.5569,6.266,-10.4802,2.1521,-0.38789,-3.2442,2.4402,-5.2857,-0.060448,4.7546,-0.42379,-1.5113,6.5631,
-6.9873,-12.9514,7.8738,-6.8761,4.0067,-6.3158,0.91743,2.2933,-1.0007,2.9185,2.4856,-6.1346,-1.4202,-1.766,
-6.0723,-5.7269,2.9381,-2.0003,6.2463,-7.4252,4.334,3.6441,3.5226,-1.7198,0.84903,4.6474,3.1283,-1.1642,
0.2437,1.56,2.7618,1.0956,14.798,3.931,-1.8767,2.4338,-1.6478,-7.5673,-1.1852,-0.59051,2.9406,3.8656,
-6.2188,1.9618,1.1082,-0.45806,17.3813,2.2072,-3.252,-1.1843,-7.0043,-1.6589,4.3404,-12.9537,3.2604,5.1207,
-6.8378,3.8278,-1.9346,-4.3985,2.2384,-6.8522,-8.0164,-6.0728,-17.4952,2.4086,1.1046,-12.1769,-3.8789,2.8297,
7.6725,8.0618,12.2815,1.3208,-1.1531,0.99849,-5.0559,-5.2121,-9.9985,-4.1829,-9.3761,-4.0068,-6.1257,4.1478,
18.9014,3.1149,18.2749,10.6648,13.0161,3.4186,-1.2809,0.55546,-1.9586,-10.3794,-12.2852,-4.2622,1.6809,-0.5643,
3.6673,-5.5037,3.0784,9.5281,-0.87324,-10.8865,-0.70827,3.9938,-3.3294,0.65825,-1.1341,-7.4781,11.0024,-1.0263,
3.165,-12.1158,-4.3319,-5.1436,-14.9208,-21.4264,1.3184,0.77832,-10.0729,1.6104,-6.0251,-10.0052,7.3673,-1.9563,
11.9011,-4.446,7.8298,-3.6284,0.074401,-6.2547,1.2388,7.6744,-5.5006,-2.4542,-14.5906,-0.47792,4.9416,2.128,
3.2522,-5.1709,-2.5581,-6.3865,7.0127,-8.8553,-5.7787,3.2465,0.78008,-1.3143,-7.7635,-3.4251,5.6367,5.9678,
