"AF3","AF4","F3","F4","F7","F8","FC5","FC6","O1","O2","P7","P8","T7","T8",
-7.059,-1.0087,18.1524,23.1945,76.6441,-40.3392,-7.059,-17.1442,-1.0087,-8.0682,4.0334,24.2037,1.0087,17.1442,
-9.6611,1.0692,13.0294,15.7525,82.1306,-35.9015,-7.6437,-17.1238,-0.94819,-10.6088,4.8006,28.8018,-7.1196,14.0991,
-7.5691,-3.5329,15.7774,5.2263,78.7151,-40.3028,-0.63066,-22.6518,-4.4211,0.61603,7.0331,18.5019,0.87125,12.7481,
-3.0811,-7.3548,15.839,3.9045,68.9501,-45.9524,-5.6349,-28.3522,-9.1979,0.57907,4.5947,7.3066,0.81897,9.9667,
5.1715,-10.9474,16.9061,5.6877,58.7618,-42.187,-2.2712,-23.6254,-2.5947,-3.4896,2.3016,0.81786,-5.2815,8.3605,
12.4253,-11.8034,20.4292,10.8931,58.7654,-37.1347,6.4365,-11.6191,-1.9354,2.2665,-6.4079,-5.7861,-4.46,8.3625,
10.1665,-10.5911,17.6911,10.7436,58.7692,-36.419,1.5123,-11.426,-5.349,0.61818,-16.6127,-2.9184,-3.6883,4.331,
6.0272,-3.4007,10.0747,8.5862,56.7559,-27.6789,1.9262,-12.2533,-0.48963,-1.94,-2.0015,3.8116,0.062312,4.5757,
1.1271,2.3501,10.9831,9.5838,58.8972,-22.4879,1.306,-12.0217,-2.9813,-4.3446,5.6817,-7.0059,-5.4881,5.814,
7.1108,2.2091,24.4241,15.0591,59.3973,-26.1817,10.3036,-10.2922,0.22226,1.9664,-2.7269,-13.645,-0.11673,11.5155,
0.12874,-5.4871,17.4305,0.055597,51.2955,-33.1827,5.1474,-11.187,-4.3291,1.3443,-11.1352,-18.3726,1.4036,4.2692,
-10.4683,-5.662,5.7954,-6.0171,58.807,-21.6116,-0.70766,-4.9696,-9.6155,1.7678,1.1305,-6.6809,1.8235,3.5089,
-12.8653,-6.331,10.4903,4.4286,41.1786,-30.3987,-0.66568,-9.714,0.037849,-4.3891,11.1473,2.7964,1.7145,10.3584,
-1.0005,-1.9177,15.9116,6.1798,24.6079,-29.5835,2.3994,-13.1655,2.0525,-13.2022,0.39379,0.61071,-2.4227,10.7446,
12.1708,1.2235,9.9153,-1.25,37.2314,-13.7084,2.2559,-13.3833,-3.1132,-5.3501,-3.6632,3.6002,-2.2768,4.0501,
15.4735,2.1583,7.303,-0.16678,49.0975,1.2141,-5.9472,-25.6911,-6.9603,-7.0465,1.5987,4.3924,-10.2089,2.7979,
14.0419,10.6006,17.4541,13.9432,32.0517,3.6994,-6.0945,-26.6702,-7.0468,-15.1956,3.0151,-5.4512,-13.1252,3.1351,
14.2072,5.9312,18.4238,18.6724,16.0286,0.45227,0.32203,-14.9853,-7.6327,-8.233,-5.2331,-2.099,-5.2787,-0.07914,
15.3717,0.53275,3.2184,13.5177,21.5847,9.5016,2.3196,-12.0693,-5.1578,2.3456,-10.9699,12.127,-1.9368,4.9682,
0.34937,-4.0372,-11.0747,-0.90735,13.7342,9.4356,1.6764,-23.9509,1.7071,2.709,3.7883,22.0072,0.70097,13.242,
-11.7918,-8.3334,-15.4904,-1.3575,0.3039,3.3218,-2.9627,-26.0441,4.1257,4.0593,15.6802,14.1309,1.1625,9.9264,
-1.5037,-7.3288,-4.9804,12.8239,-1.2272,-2.4232,-9.3399,-12.8834,-1.6685,2.3029,10.2019,27.383,-3.4447,0.75847,
1.1076,-11.4276,-10.2283,8.0387,-1.6572,-1.7742,-5.2502,-17.6571,-10.1408,-3.382,2.0266,28.7847,0.29125,-4.8337,
-4.0015,-8.725,-8.6059,-6.5436,2.4766,8.4179,-0.90082,-20.6311,-7.5144,-2.1703,5.9384,15.9647,4.3081,2.5163,
0.27298,-13.2441,-0.022286,-5.1608,4.344,7.9123,-1.8555,-12.3342,2.0119,-3.0488,16.676,3.913,-2.0012,5.3905,
4.7941,-24.0465,1.4919,4.7294,0.55408,-6.1768,-8.2991,-8.0648,-0.62983,-5.3869,6.0939,-2.8767,-5.4113,-4.5135,
-2.048,-26.1334,-0.10998,5.9589,-10.0675,-6.3104,-9.3135,-5.0594,-3.1126,-0.52574,4.2169,9.9026,2.477,-1.7212,
-16.0251,-31.1199,-7.667,-1.9623,-23.5634,-3.4102,-6.2331,-11.3113,6.6542,-0.99831,12.5357,19.8967,1.8242,4.9375,
-14.0739,-25.7234,-2.6685,8.7443,-21.16,3.3493,-13.4233,-11.1362,8.776,0.57441,11.279,13.1562,-1.8145,1.111,
-1.1279,-22.1635,8.584,13.2617,-18.8821,3.1484,-14.6353,-1.3921,4.2156,4.5738,4.551,-1.7331,-1.7056,0.036116,
-2.0684,-23.8584,4.0361,3.3901,-19.7666,-2.0826,-2.6638,-2.3168,4.9709,3.2912,1.2532,-0.63901,-0.59506,3.0596,
-0.4315,-8.8125,-1.7528,14.7837,-4.4806,8.6311,-7.0415,-4.6998,3.1598,-2.453,-2.3522,12.0055,-2.0722,1.3632,
9.1745,0.28815,3.8986,23.4777,9.8882,11.643,-9.1405,-1.8963,2.4661,-4.8274,-3.7234,8.7637,-1.4437,-1.2401,
12.6584,-7.7974,6.6898,14.0008,15.3833,9.9357,-3.5495,-6.8251,0.30121,-1.5116,-1.4831,2.187,-1.3566,2.8686,
1.3096,-15.9014,-1.2752,4.5889,8.9132,6.8181,-9.8919,-12.971,-3.2466,1.0997,-0.88998,-6.516,-4.805,1.1832,
-2.8033,-10.9129,-0.18997,6.3305,12.4127,1.3674,-5.2641,-2.1071,4.0082,1.0342,11.2655,-5.1173,1.5341,3.1292,
-5.1562,-8.7463,-6.7335,-1.6134,8.1387,0.78072,2.6149,1.5486,3.2631,-2.5581,5.0419,-8.3396,3.9631,6.4707,
-6.8633,-9.2298,-16.4147,-2.5249,-1.4266,9.8099,5.4837,2.4639,8.1094,6.6723,-4.3366,-13.8895,6.751,10.1163,
-4.4341,-3.6329,-12.4041,8.721,-0.3318,18.2982,-3.9213,7.3592,2.5807,1.2299,-2.059,-10.0305,4.3295,6.4847,
2.3864,0.11387,-1.0706,10.7183,13.3021,22.7465,-1.1655,2.3796,-4.1295,-9.4332,-4.4569,-2.8742,-0.46925,2.5658,
3.2515,-8.9689,-11.0915,-4.0248,1.4115,17.3479,7.9814,-0.78879,2.1696,-4.8333,-6.206,-5.7274,-2.4576,0.39541,
12.1328,3.6713,-11.4347,-8.8449,5.3602,26.3917,5.4846,10.3515,3.0481,-2.5264,-6.8423,-3.3668,-0.29316,5.4133,
13.4223,8.4931,0.34473,2.7801,7.056,14.724,3.1391,1.6626,-0.16045,-0.35836,-12.4821,3.8947,5.7748,8.1142,
0.51484,-6.1165,-9.7606,4.6302,-7.4673,-0.25947,-5.1165,-8.5218,-1.1595,10.757,-13.7501,7.6954,2.4031,4.6021,
8.5517,-4.7598,-9.175,7.3771,-21.1193,13.8561,-5.8187,2.0747,1.9357,12.1281,-4.8574,12.2757,-1.775,8.3599,
18.6279,0.064728,-5.0947,8.4478,-19.3856,27.1247,-3.9563,6.4882,-3.7267,-2.6996,-6.0792,0.95088,-4.189,-0.71357,
13.9804,12.6656,-8.3188,10.4615,-32.3225,39.5972,-5.2322,11.6451,-1.9907,-5.5823,2.8574,12.4904,0.59934,-1.1758,
1.5441,3.3338,-12.3577,-4.2662,-44.4831,51.3214,-14.4984,4.391,3.6749,2.3162,13.2752,25.841,2.0767,4.4419,
2.4602,-10.9662,-4.5572,-13.6089,-55.9142,51.8271,-22.7049,2.1115,-0.57895,-2.8644,3.4022,10.1905,-3.0905,0.14103,
13.4055,3.7918,7.8184,1.3077,-66.6593,62.8175,-13.2754,15.0942,2.4809,-3.7012,2.1894,-4.5209,3.1457,0.13209,
3.5247,7.5986,0.29022,5.2812,-76.7597,62.0931,-9.4527,2.0874,-1.7013,-7.5125,-1.9754,-8.8062,1.9483,-6.9339,
6.8435,5.6299,0.77644,7.4853,-82.8367,61.8968,-1.3224,5.4915,-1.0956,-5.5499,-4.3779,5.8221,4.3524,2.0535,
11.9791,2.7715,5.2688,11.5752,-72.3194,58.6871,-2.7554,19.262,-2.5422,-5.7201,-4.6193,3.4749,2.579,4.4518,
8.2347,8.6556,11.003,20.9649,-53.8802,53.1485,-9.6496,23.6715,-5.4153,-2.3522,-2.3257,2.2572,-2.6179,-1.8666,
5.22,14.6916,3.7884,31.3045,-55.1673,49.4564,-10.583,16.705,0.45678,3.3361,-1.6821,6.6608,2.0772,2.7844,
5.4109,10.2804,-10.5389,15.8122,-65.9573,41.9501,-7.4274,12.1729,1.9417,-2.4112,-1.077,-4.3282,3.4649,2.1122,
4.0776,6.6374,-6.3963,6.7953,-71.5994,41.45,-8.9987,11.4421,-4.2256,-7.3091,2.0128,2.9906,0.23183,-2.0479,
-1.7138,-5.3579,-5.508,11.9343,-65.7906,40.4758,-17.0302,11.2602,-8.5105,-4.3495,-4.6629,14.4082,5.7646,-2.4296,
-6.6531,-3.019,-11.2288,13.2356,-60.834,42.0812,-7.9406,16.6358,3.0935,5.9966,-1.3575,6.4851,16.5121,9.8178,
-16.8432,-0.31726,-19.1269,8.9117,-54.6624,31.9936,-4.9426,9.0823,3.412,6.1409,1.2455,-8.004,4.9321,11.7502,
-14.8239,2.7269,-17.9788,12.4104,-50.3749,26.0396,0.39554,3.4948,2.1986,6.7812,3.1877,-3.0043,1.611,3.9862,
-14.9431,3.572,-21.9427,1.5811,-45.3355,21.4511,1.3805,11.3533,2.0671,6.3738,4.0051,7.2606,6.557,-1.2956,
-23.1225,-9.7521,-23.6518,-12.6138,-44.6328,8.0624,-4.7536,9.6629,2.9513,5.9914,2.7556,3.7993,0.11225,0.79863,
-9.1299,-14.7137,-18.7034,-16.4135,-47.5006,3.0412,-11.0233,6.5621,4.2871,6.1365,5.1114,-5.001,-1.4073,7.3056,
-4.0437,-7.276,-15.0601,-14.925,-41.1213,7.3962,-12.883,5.6638,-0.50861,5.2637,-2.7585,-12.2641,2.2064,4.3462,
-15.9027,-11.8815,-19.1986,-23.1055,-30.5862,4.936,-4.0422,0.28184,4.565,8.9818,1.4409,-14.5539,3.0832,-1.9649,
-14.4439,-13.6906,-20.5678,-12.1386,-32.2803,1.1096,-5.3125,5.8116,7.8204,4.9136,8.9176,-15.1935,2.3936,4.708,
-18.1157,-7.3225,-13.787,-4.8554,-37.9076,1.5476,-6.5066,10.0014,0.7962,4.1142,1.8276,-8.7352,5.7793,10.9804,
-31.1288,-7.3873,-11.4474,-17.1698,-38.1547,4.9845,-5.6121,6.8798,1.2525,8.4053,-2.82,-5.6905,2.912,3.7662,
-17.6821,1.1242,-6.7262,-7.0641,-21.7654,9.7271,-2.2502,7.4757,5.2108,4.8758,5.4164,-10.3907,-2.3053,3.5407,
-19.1427,-3.4812,-9.8524,-5.127,-14.8938,-2.4531,-0.60189,7.5313,2.3776,1.0535,9.6304,-8.2549,2.371,3.8324,
-32.0942,-13.8616,-14.8075,-14.3994,-25.5976,-5.8357,-2.0781,3.5496,-1.2948,4.5201,9.5567,6.3404,3.742,1.0809,
-22.1193,-1.432,-8.3723,0.56454,-9.9618,8.6145,1.5759,-1.2008,3.3213,1.7278,7.4705,10.0134,-1.021,1.5206,
-8.1859,8.2336,-4.3407,14.6307,4.7359,15.1752,13.0783,3.4087,4.6339,-0.89691,6.5176,6.8906,1.5613,3.9504,
-21.7948,4.2108,-5.5926,4.2099,4.994,15.778,11.7905,10.7678,-1.1904,3.6949,5.6234,14.0417,4.9974,3.2093,
-34.5871,-10.1419,-9.796,-10.1427,-9.4057,3.2338,-2.5319,1.5499,1.4026,3.9773,1.7553,2.6099,-1.8578,-6.5643,
-32.0454,-10.5611,-3.6616,-10.5619,-18.9451,-7.55,1.1493,-4.0898,7.8734,4.2433,5.1802,0.93956,-4.2674,-2.6402,
-24.5764,3.6865,-6.9716,-2.3646,-5.2026,-1.5498,5.6183,-3.3403,-0.16267,1.4671,13.4413,5.4221,0.52661,2.0562,
-32.6815,-0.062998,-10.0826,-8.7776,-1.3602,7.1155,3.7694,-4.6517,-1.6657,2.8919,12.1312,0.5593,6.0427,-1.5965,
-28.7041,-0.060178,-5.4438,-6.2345,-6.3217,3.6629,2.534,-4.3736,-1.5658,2.7184,10.3941,-0.48345,5.6792,0.51578,
-25.9732,0.95214,-1.0838,-2.8343,-11.9932,1.4262,0.36505,-5.1199,-0.46313,1.5466,8.7618,-1.4632,5.3389,1.4935,
-22.9019,0.39042,2.5115,-1.1514,-16.8203,-2.1896,-1.1697,-6.3246,0.068292,0.95018,6.7242,-2.8882,4.514,2.9168,
-20.5191,1.3757,6.3942,1.9428,-20.8537,-4.0751,-3.1164,-6.9538,1.0729,-0.11554,5.312,-3.7236,4.2436,3.7505,
-18.2797,0.28493,9.0362,2.8345,-25.6528,-7.8645,-4.9459,-7.5458,0.00030023,-1.1178,2.9759,-5.5166,2.9798,4.5337,
-18.6958,-2.2532,10.0069,3.169,-32.685,-13.9466,-9.1876,-11.6305,-1.5125,-4.5791,-1.7402,-8.7149,0.28092,1.7406,
-15.5576,-4.1354,4.3634,7.0118,-20.6406,-12.1025,-3.5943,0.15975,-1.4218,7.7964,-0.6285,2.9004,-0.74513,1.6352,
-17.6488,-13.9715,18.2016,4.5756,-30.4946,-23.4771,-5.3951,-1.8653,-7.3868,2.2865,-6.6402,4.7438,-4.7343,-1.4876,
-15.078,-6.5793,26.7091,5.8129,-42.765,-28.6243,-7.5934,-5.2837,0.61955,-1.381,1.3204,-4.1132,4.1211,2.1309,
-16.6939,-6.6877,11.0066,-8.1498,-26.0991,-27.411,-1.5906,-8.4964,6.1286,7.2747,6.7884,-12.4382,3.3707,1.499,
-13.1707,-10.8244,-3.7538,-21.2758,-10.4331,-19.2109,-1.9993,-15.5502,4.2485,8.3506,3.8605,-2.1109,0.64695,2.9223,
-10.364,-15.218,2.4856,-15.9654,4.2929,-25.1178,-6.9214,-12.5998,5.0019,1.7992,-0.40498,8.1,7.6677,8.7973,
-11.2545,-13.8008,-0.1851,-0.90743,0.039025,-36.2165,-4.9938,2.2562,6.215,3.2036,2.1399,2.0677,7.7117,4.7397,
-13.1008,-3.3917,-3.7038,12.2759,13.6507,-22.446,-7.2157,8.1902,1.3032,1.499,1.5074,-8.6456,-2.332,-3.1083,
-15.844,-1.6754,10.6185,12.0439,16.3609,-16.5617,-14.3459,-4.9075,0.72137,0.90451,-4.1298,-13.6736,-4.7132,-5.4429,
-12.8769,-1.5758,11.5123,11.3213,2.2694,-19.6019,-11.4687,-3.6048,-4.365,2.8667,-7.9158,-4.7854,-2.413,-0.074177,
-3.0279,5.5787,-3.2785,15.6846,4.1502,-11.3657,-0.69492,1.6541,-3.0944,1.6869,-5.424,1.5525,-0.25125,4.9729,
-0.32513,6.7568,4.4638,16.2554,15.4991,-3.1206,-3.1743,1.0503,-0.38766,-2.9527,-6.6113,0.95479,-2.7572,2.1534,
-1.818,6.8555,16.8017,8.7256,25.1575,2.6128,-6.5136,4.517,-1.8767,0.75419,-2.6849,-0.61484,-5.1133,-3.522,
-9.7762,-3.6405,1.6936,-3.899,11.5469,-4.602,0.93627,-2.8131,0.2528,6.7597,4.5362,-5.6196,-2.7896,-9.3615,
-10.1988,-2.4138,-12.508,-4.6743,12.8706,-6.3443,0.8801,0.38137,3.2633,3.3285,1.2374,4.8018,-5.6479,-6.7833,
2.0107,7.3121,-11.2901,0.14415,14.6199,-7.476,-2.7025,11.956,3.5716,3.6329,12.7616,8.0435,-5.8131,2.1955,
-4.6654,2.3344,-13.1342,-3.3943,-0.35733,-14.5911,10.0654,3.675,8.9035,10.9786,25.6099,-2.0202,-2.9428,8.6192,
-6.906,-8.394,-15.8759,-14.7881,-5.397,-10.1858,13.9995,-0.075259,17.9504,16.8753,19.5353,1.6308,-6.296,16.6739,
7.6083,-5.3688,-14.4192,-21.4645,7.5325,-5.0357,10.6389,10.5185,28.4708,21.4099,23.9094,8.0883,1.6454,23.2371,
6.6658,6.0457,-14.5623,-15.1335,-4.0128,-17.8444,6.975,13.9203,28.7791,27.1839,30.5426,5.5856,0.53846,23.8603,
6.77,8.204,0.41143,-0.12552,-11.3352,-18.2866,15.1288,13.5897,35.6247,38.1591,23.1634,19.3505,-8.0662,29.9918,
1.8258,-6.3882,14.4867,9.9843,-7.1258,-18.7022,9.6826,-1.3257,19.8727,21.7695,7.6736,11.149,-21.6822,14.0923,
10.2886,8.0951,1.0484,-3.22,7.4017,-5.9821,9.6062,1.7605,7.0824,6.3634,-4.9066,-0.10877,-24.4342,0.1179,
2.6117,12.6515,-12.1243,-16.1367,-3.6121,-8.6488,7.0125,13.7565,4.641,4.9353,9.4878,-12.2039,-18.9343,4.1447,
4.472,1.8077,2.7031,-3.0673,-2.3877,-10.1468,5.583,17.9737,5.3712,-4.4364,19.0213,-12.4803,-17.7977,8.9386,
10.254,4.7249,15.6694,10.2266,11.8556,-9.538,6.2562,12.8614,-5.0362,-18.2702,3.78,2.3685,-23.7894,3.3592,
10.6475,8.4758,0.62921,1.5457,25.2443,-2.9149,13.9491,7.0471,-0.70065,-8.1166,-8.5669,16.3264,-20.3451,2.1499,
6.4788,-1.6138,-13.5085,-1.0686,9.6296,-6.2698,12.608,9.1458,7.9133,2.9588,6.0471,20.9306,-10.5525,10.5928,
0.039782,-14.6269,-16.2644,-4.0291,-5.0482,-19.9936,12.8598,11.6227,11.4733,4.7987,2.1735,23.7086,-6.8937,13.9911,
-0.97083,-6.6897,-8.229,-8.8305,5.8445,-16.7956,16.1221,6.8915,20.8691,8.5446,3.0513,25.3118,-3.4545,16.1773,
-0.91306,4.8046,0.33196,-5.2755,-7.617,-10.7453,13.1378,6.4775,26.677,15.091,16.9683,19.7587,6.8375,24.2831,
2.6715,-6.072,-7.2506,-5.4621,-21.26,-23.7145,7.8116,12.6443,18.5209,11.6649,25.5498,13.027,2.8975,19.2964,
15.6215,2.3596,1.2517,-1.101,-5.8844,-20.2757,3.3085,14.9108,10.3506,7.9389,9.9168,9.2202,-9.3785,11.0786,
16.1971,3.7308,9.7489,-14.6494,8.5687,-30.6562,-9.4953,-0.083876,-4.3704,-6.6374,-4.7782,-5.433,-22.9158,-3.6861,
29.3252,10.0619,19.7528,-6.2063,22.1546,-39.4056,-2.3706,-14.1788,-1.1016,-14.325,-16.6307,-19.207,-14.4994,-3.4831,
27.5838,2.9033,12.0117,5.7631,34.9253,-51.1413,-5.7586,-23.954,-4.5657,-11.9527,-17.1457,-32.1546,-24.2192,-6.8043,
23.4077,-2.8176,6.7535,3.9045,46.9298,-62.1728,-5.9167,-31.0891,-5.8046,-7.7062,-12.5877,-44.3253,-23.2706,-7.9089,
27.55,4.9146,5.8437,-3.8939,58.214,-72.5424,0.99319,-23.6771,-7.9774,-10.7731,-9.3114,-41.2364,-13.302,-8.9472,
26.4016,8.1499,4.9895,-5.1721,58.3442,-64.2122,9.5059,-15.7015,-3.9685,-9.6231,-9.2563,-24.6622,-8.9737,-7.9057,
10.7175,-1.9201,-2.8735,-8.3915,48.2891,-55.8214,8.4315,-12.2379,0.80761,-5.516,-10.2133,-9.0825,-11.965,-4.9099,
2.9963,3.7418,-15.3074,-8.3926,42.8697,-51.9676,6.4128,-9.9908,2.272,1.3709,-4.0538,-0.9368,-11.7517,1.9396,
1.8074,8.5594,-22.4567,-7.8891,38.2811,-51.8752,6.028,-13.4252,3.1439,3.3051,3.248,-3.9062,-6.0045,2.8315,
3.7163,1.9955,-7.0093,1.6602,32.9586,-50.7801,6.6745,-4.5529,6.9891,0.081127,3.0531,-5.6883,1.4153,3.6698,
8.5355,-0.14165,7.5113,4.5863,30.9811,-44.7076,4.2576,-0.24493,-0.48974,-6.9833,-3.1804,-10.3891,-5.7291,-0.58423,
16.5957,6.4218,8.6106,7.8404,27.6094,-45.5549,-1.5455,-10.82,-7.0153,-6.0597,-6.5198,-15.3134,-17.9916,-10.1297,
19.6343,12.0882,5.0688,16.4474,24.9441,-45.8468,-7.5026,-8.1529,-5.5857,-6.7048,-12.1795,-12.3767,-22.962,-10.5297,
16.9429,19.9348,10.3109,19.9985,22.9434,-43.6001,-1.5062,-0.10105,2.3131,-10.8405,-15.9867,-10.1218,-21.0801,-4.3517,
13.4053,21.2598,9.1876,10.2263,22.0713,-46.5313,-2.9287,-12.7012,-6.398,-4.6434,-29.1275,-10.0191,-31.4133,-9.6373,
18.6518,13.9334,0.56908,3.5619,31.84,-31.6373,1.2814,-4.8791,-5.0054,9.7352,-20.8435,4.6821,-21.4603,-8.0504,
6.9439,-1.0026,-13.5651,-2.1985,20.349,-23.1841,1.7081,3.986,-6.2179,7.6569,-5.4929,9.9664,-21.6855,-10.0884,
6.5273,8.6191,-26.3846,-3.0758,14.086,-23.81,2.6139,8.7889,-5.8448,2.1553,-0.60673,0.29244,-20.3844,-7.4666,
13.6988,5.5809,-20.2631,-13.4801,16.7701,-35.9959,9.0129,1.7066,4.0864,1.5214,-0.065732,-8.2974,-7.5643,-3.4884,
12.8773,-6.8561,-21.0643,-15.6964,18.789,-38.8782,7.4634,-0.41269,2.8325,-1.595,-1.0705,-0.7396,-12.152,-3.2796,
9.5836,-4.9319,-19.2958,-12.2336,15.1407,-30.9988,-0.54752,8.1844,-3.8924,-0.99473,-1.5099,10.9018,-14.9532,0.44745,
13.5466,-8.1648,-13.6001,-18.054,5.6603,-28.6348,6.0398,6.18,5.9222,-0.43093,2.1105,7.7271,-3.4667,7.9842,
11.2205,-7.1717,-21.3569,-21.5097,3.8084,-31.4552,8.1989,-1.7544,0.019727,-6.9605,-0.53771,-4.335,-7.7967,3.9745,
9.0349,-2.2025,-11.5026,-9.6299,9.1261,-36.1228,1.1516,2.8889,-10.5707,-6.0387,2.0151,-6.5954,-15.9007,-0.802,
15.5514,-2.0713,3.2875,-5.0182,10.595,-32.9472,-7.9945,10.7833,-10.9447,-6.6846,5.9281,-6.1997,-12.9302,-2.7703,
15.1234,-4.4676,-3.4461,-4.212,2.3966,-23.4062,-4.9923,8.6239,-4.7409,-9.8133,0.026193,-2.298,-0.55692,-3.1082,
4.6354,-1.6785,-3.7439,10.1407,-11.3616,-30.5742,9.4072,2.5598,5.1232,1.3643,-4.5138,10.4452,9.0571,4.6414,
9.904,8.0038,7.0705,23.6323,-5.1332,-29.2434,4.827,-4.1487,-8.7977,-5.2725,-12.8144,6.2892,-5.5864,-0.17457,
23.4097,21.6235,19.251,20.7381,9.2748,-13.3888,5.0415,6.6895,-12.8088,-12.5198,-12.5497,-5.6857,-18.3796,-3.6939,
36.1052,22.8653,13.0543,5.3938,22.8183,1.5145,-1.3118,17.381,-11.0315,-8.7434,-14.8228,-12.4036,-9.2095,-4.4809,
19.8389,7.3933,-1.8289,-2.0074,13.9236,1.9649,-11.3168,11.2966,-9.3609,0.85859,-7.8817,-5.6086,-7.6483,-0.17772,
7.0696,-0.12883,-12.8316,1.1382,-1.0118,-6.2212,1.4633,6.5844,5.3007,7.8652,4.6924,-6.2808,-2.1468,10.9259,
6.1408,0.3835,-7.5233,-6.4932,-4.4999,-10.3859,3.8966,5.6847,4.4967,-0.16991,-4.1615,-19.5184,-3.5308,6.7401,
4.26,-2.161,7.0281,-4.5913,-9.7771,-17.3264,4.1669,6.856,0.69709,-0.66383,-2.3985,-11.7918,-5.8405,-0.21879,
11.568,2.5066,11.6676,-3.8117,-20.788,-15.7827,8.4549,4.9323,5.1933,0.88834,9.342,-12.5976,6.1075,2.3149,
11.3781,4.8777,8.446,-2.0697,-5.9258,-4.2465,-0.62427,2.1148,3.3693,0.33093,4.2444,-20.4136,14.3129,6.715,
2.6272,-7.5161,9.9562,0.070467,8.5298,-0.96651,-7.6468,-1.0372,-8.934,-3.7223,-6.0959,-25.2396,-0.6459,-1.7562,
16.5695,-2.5271,12.8886,6.6216,18.6259,-2.4209,6.912,-0.47088,-9.9113,-10.0544,-8.2507,-26.2458,-14.7071,-7.197,
29.6754,5.6918,14.1322,-1.8439,19.5243,-2.2761,16.0969,-0.44214,1.7763,-9.4516,-13.8065,-15.5956,-6.2982,-0.71438,
19.3606,8.3769,9.2504,-11.8175,6.2522,5.9287,5.0469,9.6696,7.7211,5.2155,-11.9699,-0.55985,7.1905,9.4137,
5.0891,6.8651,-4.4145,-6.0663,-8.223,6.5812,0.71018,12.1141,5.2413,10.9729,-4.1922,0.50101,-2.3179,6.8314,
18.8837,3.9316,-4.6537,-5.1973,-11.2784,4.674,6.2138,8.8667,13.4987,6.7848,6.6487,-5.0753,-1.6747,0.87435,
19.7862,3.1916,-9.9217,-11.4408,-1.0216,9.9398,-8.259,6.8213,3.1077,1.8387,0.70255,3.8011,0.94733,-3.7161,
12.0432,3.5047,-16.8905,-12.2672,-7.5152,13.8814,-13.8334,3.891,-1.6172,5.2586,6.2071,5.0859,-0.62233,2.0536,
17.8765,4.8073,-19.4054,-15.0604,-21.1643,10.5279,1.0967,14.2464,12.5798,17.5493,19.9347,-1.7742,13.0295,14.5366,
30.9039,10.5696,-18.2416,-22.2251,-12.3489,3.8454,9.6218,17.4259,20.4169,13.4712,10.1858,-3.6847,20.3159,11.6474,
43.1496,22.0366,-3.0471,-14.8407,2.492,9.665,-2.0494,7.3039,5.0919,-1.4371,-4.5254,-9.5154,11.0287,0.86295,
54.6607,34.3289,11.2358,-0.33584,13.9581,19.6739,4.6294,4.3446,-9.3136,-15.4508,-10.8283,-23.0445,-2.2392,-2.7181,
65.481,43.8671,10.5992,7.2484,26.7351,27.0658,12.924,7.6132,-12.8263,-12.544,-12.6997,-17.646,1.4254,-1.0422,
75.6522,33.671,13.4926,9.3336,39.231,21.9126,11.644,4.6354,-22.6455,-14.3133,-24.5439,-11.0405,-0.17296,-6.5264,
83.3079,34.1727,26.783,21.3808,50.9771,27.1528,8.4243,2.8444,-28.8509,-21.0177,-27.6088,-15.9248,-8.7349,-7.6466,
71.2504,42.2071,27.7156,22.1139,61.0659,30.5662,5.9019,4.6907,-20.0598,-17.7397,-19.9014,-19.0027,-8.2104,-7.1883,
63.4456,31.1028,11.9527,6.6871,56.8979,14.6322,5.0437,4.9134,-14.3183,-11.1291,-15.1776,-17.3584,-4.188,-6.2529,
45.5389,15.1366,2.6451,-7.8142,39.384,-0.34571,9.7836,9.6612,-7.4083,-0.37667,-9.2253,-14.3,9.1727,3.1987,
28.7066,0.1284,-10.1193,-20.4928,22.921,-14.425,5.6668,4.5435,6.6501,6.2013,-7.1585,-9.9122,15.1777,4.5191,
12.8842,0.58721,-18.5882,-15.2284,7.4457,-7.5643,-4.7583,12.3386,10.2859,4.821,-5.7207,-2.258,11.2424,6.2654,
-1.9889,-6.5075,-15.4564,-18.3485,-7.101,-3.0766,-5.4811,16.6414,4.6257,1.5061,1.682,-11.1985,7.5422,5.8895,
-15.9695,-0.065799,-3.4356,-16.2394,-20.775,-1.8838,2.9156,3.5403,10.3995,8.4753,2.5893,-10.5275,15.1574,3.5187,
-23.1729,11.5357,0.30027,-1.6511,-33.6285,-2.2749,3.2447,2.8238,12.2961,8.4709,-3.1123,-9.3908,17.7777,7.8465,
-35.8825,7.3138,2.8028,-1.0479,-45.7108,-10.7112,-1.4879,12.2345,3.9947,0.39899,-2.4214,-22.9274,13.1803,4.8542,
-39.2948,3.8493,11.7106,3.0489,-28.8681,-6.0347,-5.4335,9.4839,-7.3384,-3.6588,-9.3356,-27.1179,5.33,-8.5479,
-25.8437,4.6266,14.0336,10.9337,-14.6422,4.4126,-3.0901,1.8554,-8.9145,-3.4393,-20.8771,-12.38,-0.031906,-8.035,
-24.2936,10.3998,16.2168,13.3028,-25.8657,11.2069,0.1205,8.8031,-6.3627,-4.2416,-18.6167,0.4639,-1.0387,6.5471,
-28.3822,12.2973,17.7653,10.9923,-14.7327,9.0216,1.6266,16.8468,-11.5282,-5.4995,-7.9187,3.9658,-5.5144,1.6349,
-28.6957,-2.5405,8.6326,-0.75966,-7.7975,12.5152,1.529,6.7609,-14.8694,-12.229,-6.4344,-5.3481,-9.2164,-12.5632,
-23.4452,3.14,2.5675,-0.21093,-5.8173,25.8643,3.9588,6.8584,-8.431,-4.9399,1.5144,-10.5744,1.9249,-5.2721,
-26.0723,9.002,-0.61222,3.8356,-2.4426,23.8264,-0.31263,0.3966,-12.9672,-2.627,6.4666,-18.0077,0.80116,-5.965,
-11.9023,3.9239,12.0302,12.1773,-3.8094,16.8496,-1.8072,-7.1908,-25.8041,-8.0156,6.5827,-19.4478,-2.7767,-12.1625,
0.40938,1.1669,25.4084,10.9426,-13.1609,22.3941,-2.2029,1.8125,-21.7353,-9.048,-0.36769,-10.7182,-2.106,-8.9112,
-13.7152,0.089144,26.424,4.2362,-14.3882,17.017,3.9801,6.7463,-10.3455,-3.4625,-4.379,3.0361,5.0804,-8.3761,
-25.0125,0.082836,20.8047,10.0323,-12.5166,4.9026,2.7331,3.3159,-15.7761,-0.22914,-3.1081,10.9208,4.7746,-9.8909,
-9.8968,1.5912,22.078,11.9519,-8.2359,13.1803,-1.9689,4.6302,-17.3501,-3.7452,-6.4513,7.7449,-6.1002,-8.7933,
-5.2691,1.4957,19.7441,9.2174,4.3599,26.4895,-4.8764,8.3863,-23.3686,-12.5964,-14.132,1.229,-13.8019,-15.3243,
-12.012,0.39725,13.5178,6.6474,10.1491,32.9864,-1.5586,10.9083,-32.0512,-13.8576,-10.2589,4.1813,-11.9661,-19.4474,
-7.7615,-9.2067,13.2109,-0.30588,3.9939,24.4528,6.0985,2.6902,-25.5901,-13.5302,-1.0706,4.4346,-5.7009,-12.7334,
-1.2455,-1.5948,12.4182,-5.3306,-0.27957,11.8922,3.7161,-3.5225,-21.0291,-14.7358,1.0101,4.1685,-4.3506,-6.9283,
2.3595,5.0559,1.0843,-18.6242,-6.8177,8.6576,2.9886,7.2786,-21.2802,-5.2793,3.4706,8.4569,-2.5768,-1.9741,
3.7298,0.21403,-7.5531,-22.0462,-9.9389,15.7013,15.4155,19.4471,-12.4402,6.6344,0.74129,12.487,7.1584,7.7249,
-5.0659,-1.3112,-6.5958,-6.6234,-9.8467,12.2387,11.969,12.7341,-12.1979,-1.3263,-5.8576,12.2428,5.2166,5.7491,
-8.2917,1.2881,-2.6703,4.8864,-16.8195,10.9993,9.7385,5.4146,-11.9701,0.26563,0.040045,15.037,9.4416,2.8826,
-16.8697,0.20306,-9.5691,0.55982,-29.9103,17.3993,8.1455,12.1497,-12.2606,7.3087,0.037163,10.1014,5.8499,0.69272,
-16.8667,4.2247,-6.9785,14.6262,-37.2103,15.3462,1.6055,15.4537,-9.5076,2.8363,4.0688,5.4615,-2.5698,-2.3745,
-7.7865,1.9543,-1.5172,13.7672,-29.936,0.32542,-1.516,5.451,-6.9202,-6.4103,6.8498,5.1333,-0.39868,-6.2654,
-10.3449,2.8453,2.6077,6.8899,-33.182,-8.7886,2.6088,7.1404,-8.5224,-0.98359,0.38852,4.8253,6.6848,0.16084,
-23.3387,-1.8639,3.9641,4.9637,-40.7716,-7.7572,10.0164,7.2165,-2.4644,7.6478,-1.1476,-9.0787,8.8047,3.6814,
-20.9296,-2.7598,1.7093,-5.4188,-27.2314,-2.2487,5.3811,3.7584,2.7261,5.172,0.93818,-12.5673,6.2605,-2.5903,
-12.6153,5.4726,-0.41069,-15.1789,-17.5308,8.9786,2.0326,8.575,-0.46312,1.836,3.9075,2.2867,5.8839,2.6073,
-15.8918,-0.90564,-4.4194,-9.2246,-23.537,5.4148,9.9788,13.1031,-4.4687,2.7346,3.6736,9.2276,7.5487,9.5108,
-13.93,-3.8769,-5.1625,5.4289,-8.0248,15.1741,11.3966,11.3077,-10.2519,1.5623,-4.6156,16.7417,5.0784,1.8797,
-15.1112,1.3973,-4.8532,6.129,5.5851,28.3636,6.6794,4.5784,-7.6198,-0.54842,-5.3473,22.7962,5.7814,-5.2921,
-15.2127,0.30523,-5.5703,7.7787,-4.8352,23.6557,7.2868,9.3458,-2.1206,0.49271,5.0587,19.411,4.4263,2.0849,
-13.2913,-5.7639,-7.253,6.3032,-4.5446,9.126,5.8409,14.8368,-3.0011,-2.562,5.7639,15.2212,-0.88087,2.9685,
-16.024,-7.9391,-4.2968,-0.62989,-6.7939,13.116,2.9694,6.3825,6.7586,11.2052,3.9052,16.829,1.6921,0.2684,
-20.1052,-9.4797,-1.0138,-0.59258,-20.4863,4.2617,-3.2596,-7.1108,4.3362,19.6093,1.654,11.7849,4.6167,2.2692,
-11.3347,-4.3725,4.5937,10.0327,-14.7372,-5.5745,8.533,4.9139,0.54671,8.8522,1.0501,-3.0222,11.9028,5.6633,
-5.108,8.4952,5.8309,8.9262,0.24705,1.3149,9.5339,17.2243,2.0267,-3.276,-5.5678,-16.9409,8.6676,0.78506,
-6.8184,11.0106,8.5062,4.3563,1.7636,15.336,-1.1228,6.1061,1.9046,-1.0625,-3.2168,-7.8933,1.0885,-1.279,
-12.4596,-3.75,-0.071879,-2.9637,-8.4264,10.4005,-2.0637,1.7069,3.8078,4.0444,0.0018513,-1.3684,-3.0107,-4.2269,
-5.6617,4.5246,-6.1189,5.2819,6.1792,14.8186,4.1105,15.7044,6.605,6.8264,-3.0239,1.7384,4.2285,0.0596,
-5.3225,3.2445,-8.7769,-1.0858,7.8434,16.9556,-0.16956,5.7038,1.1661,-0.64225,-6.8759,-3.4076,7.0009,-1.96,
-6.0114,0.025103,-1.1908,-4.0463,-6.7272,3.8366,5.8919,-0.68875,4.1218,-4.6376,2.6127,2.8472,7.5891,-0.83413,
-7.1635,2.5446,-0.61472,-0.27331,-15.9222,-5.9741,2.0081,3.8901,2.3616,-6.8804,-3.0908,13.2652,1.5871,-3.3051,
-8.2465,10.9634,-4.1081,1.255,-1.3524,8.4843,1.384,12.229,4.741,2.1038,1.6331,21.0416,15.5918,6.4737,
-21.8517,2.2378,-17.9616,-11.9302,-15.3713,22.0752,-5.7585,4.4358,-1.5948,2.9858,7.5855,9.694,16.1882,10.1182,
-21.0633,5.6338,-21.4404,-6.6759,-28.549,17.7622,-1.8837,6.6907,3.0394,7.3451,6.6257,4.5748,8.661,10.0157,
-10.7235,13.3635,-6.054,2.8006,-27.3778,21.7386,11.3391,17.3826,1.8488,4.888,0.17787,5.3086,11.167,5.3809,
-24.1801,2.4765,6.4299,-1.4013,-31.7864,25.4773,3.6002,14.3232,-9.3555,0.56082,1.1754,2.9726,11.5062,0.01596,
-31.3193,-8.2604,0.49692,5.2382,-41.4767,9.8487,-2.163,9.9341,3.8115,5.0652,8.6685,3.2993,8.2943,2.5356,
-21.3728,0.3025,1.4758,3.9152,-32.9368,9.7433,-2.0327,12.3632,7.6172,3.7525,-0.92707,6.1265,9.8136,4.4013,
-16.0571,3.3095,2.396,-10.4197,-29.9529,23.2587,3.1309,13.6383,-0.90805,3.5269,-4.9058,3.742,22.3351,6.1532,
-16.1019,-2.9394,-0.77343,-18.89,-32.1891,21.8818,4.9604,11.8118,1.1638,5.3327,3.4563,-3.542,22.0032,4.7758,
-8.0762,-0.74657,-3.7527,-3.6566,-26.2244,8.4663,-3.4049,13.1195,2.1022,0.97888,8.291,-2.3213,11.607,4.4893,
-13.1384,-14.3162,-16.1328,-12.9988,-35.2392,-6.1417,-5.7217,1.7436,14.5823,4.4504,21.408,6.3903,18.4738,4.7245,
-26.4501,-26.5666,-29.2648,-26.3188,-47.2249,-14.3632,-7.3953,-12.461,20.7664,8.2168,25.1661,8.0239,20.3915,1.4159,
-24.377,-10.8726,-17.9479,-11.1438,-30.2914,0.59864,-2.4131,0.87428,9.9399,3.1853,15.0838,5.0214,17.6552,5.8684,
-15.3513,3.8797,-4.2648,3.6248,-14.3739,14.6627,2.2692,10.4024,-3.2627,-0.53512,3.59,2.199,8.0235,2.9953,
-16.4471,3.6836,-0.98372,6.9552,0.58855,27.883,-4.926,0.70179,-3.0665,1.5139,-2.6762,1.0584,3.5077,-6.2609,
-25.0404,-10.6374,-12.5222,-7.0761,7.1448,25.7616,-5.1346,-2.8701,6.6976,-2.1067,1.0141,-2.5349,10.8609,-4.372,
-19,-6.9916,-25.8709,-9.1721,-3.8722,18.6696,1.7289,10.9171,9.8255,-0.46696,10.5333,0.13875,14.7482,3.454,
-7.2712,-2.0346,-23.328,-16.1859,3.9233,23.0962,-1.9051,4.7153,0.66458,-1.9518,3.3464,-7.4337,7.3074,-8.3512,
6.2759,2.1213,-7.8283,-3.1131,17.7879,28.769,-1.7908,-8.6784,-2.4009,-10.9116,-1.8965,-4.9702,5.8607,-12.8923,
11.4456,11.5751,6.7414,11.1737,24.3033,27.5479,-7.2295,2.4316,-13.8544,-21.8535,-1.2786,3.8998,0.97111,-12.6228,
14.7927,12.898,6.8781,20.1033,21.8369,30.9371,-6.7958,14.3873,-12.0139,-13.4827,5.8577,-2.3845,-1.1036,-9.8481,
13.401,6.577,-3.1146,4.7971,15.9887,31.6015,-4.8757,0.91834,-7.7643,-8.1367,-2.0574,-16.3414,-5.5763,-4.7201,
13.6057,11.224,8.1652,6.0021,23.0966,27.6884,-2.5662,6.914,-4.2733,-6.6398,-7.9848,-1.2609,-1.2074,3.6313,
3.2083,-2.0552,17.2553,5.1379,11.1215,19.4727,-6.9502,9.0198,-10.5723,-16.8307,-13.0529,10.9159,-10.716,-10.6866,
8.0579,-2.9401,16.22,18.9296,7.4296,30.406,-3.5076,6.4621,-5.9031,-14.8117,-1.1763,-1.8407,-10.0731,-10.5685,
11.1042,-2.2596,1.1468,18.317,12.53,33.1196,-3.8012,5.5703,2.0147,-4.3429,6.4579,-9.2939,0.11238,-1.3616,
7.4128,3.9268,-4.4868,3.118,8.753,32.1411,-10.6331,11.2869,4.919,4.9941,3.0453,5.3637,4.139,3.7617,
6.968,9.7425,0.82453,-0.11332,1.1683,32.2291,-7.9777,5.5676,1.5982,2.6771,-2.1796,8.0861,-8.2109,-0.49786,
11.5925,-0.92676,-6.284,-3.1317,2.1069,16.1954,-0.44004,-3.8429,-5.5567,-2.5252,-3.0575,-6.4991,-13.7691,-10.5527,
20.9812,0.13707,-8.9326,-11.0115,16.0805,6.1291,-2.4301,-0.58672,-9.2572,3.6767,-1.8658,-15.2037,-9.9173,-7.9021,
25.7731,4.1622,-4.3632,-3.2918,23.202,13.8286,-7.3269,-5.5941,-6.6848,0.4309,-3.7708,-4.2077,-8.3136,-2.3863,
23.219,-2.1383,-2.0835,2.9565,15.7591,10.982,-5.8786,-9.2928,-9.3089,-9.6796,2.5063,-5.9712,-4.7896,-5.2683,
18.8002,-3.0182,5.1,-8.3143,4.7284,-3.777,-0.48373,0.34074,-5.7257,-0.02288,14.4575,8.4871,2.5573,0.08987,
7.0834,-3.3408,4.2904,-21.9154,-4.1267,-11.1316,-2.9758,1.8341,8.7179,5.5252,9.0525,22.0778,6.9424,3.6147,
5.1455,-6.6706,2.5201,-18.6012,0.65839,1.1334,-7.3357,0.21121,12.2477,-1.3612,1.9545,17.7646,10.0551,3.9024,
1.3071,-11.8166,3.8813,-9.9224,-3.9191,-0.44795,5.7102,3.7273,9.9995,3.2584,9.3999,2.5988,12.9815,7.1971,
-10.8735,-9.0906,8.691,-20.42,-11.7522,-14.5211,12.4266,8.5463,15.4504,15.1641,14.8867,2.9284,7.1601,9.7904,
-13.2462,-2.4944,7.1608,-21.2117,-4.9962,-8.6258,-1.4283,0.97446,0.42335,4.1695,5.9262,8.8035,-7.3695,0.1275,
-8.9217,2.1933,5.2188,-12.3754,5.8928,5.9918,6.221,1.4201,-4.1586,2.407,8.0912,1.7199,-6.4418,1.6322,
-22.4864,-0.45937,6.4185,-8.1036,4.0264,4.6426,9.377,-1.1861,2.6458,0.74977,2.059,-2.9208,-7.5681,-1.995,
-27.7107,0.5769,20.1334,4.4847,7.8192,-9.736,-1.2703,-4.1401,10.5553,-2.3204,3.9534,-1.7369,-1.0623,-6.9179,
-15.9639,-1.4751,18.944,5.2239,4.3244,-2.1109,-2.2023,0.14214,10.9302,-3.1894,11.783,-5.6675,9.0857,-4.4864,
-20.5522,2.1431,3.7073,-2.6532,3.5608,6.5877,7.5099,2.6542,3.719,-3.5031,2.5041,-0.78945,6.019,0.3208,
-28.396,-5.045,2.9617,-3.5022,3.3472,2.1585,6.0511,-5.5728,1.4794,-9.3432,-1.68,-0.74208,-4.4273,-8.7744,
-18.1199,-4.2377,9.339,9.3132,4.6592,3.5418,-2.8843,-2.7174,6.9373,-4.2442,8.0014,-0.19296,-1.6397,-6.7351,
-29.1344,-6.0008,-1.3056,4.7205,6.3961,-0.70454,1.3226,3.4969,10.555,-0.96485,2.4792,1.836,2.4926,4.7624,
-37.9756,-8.1623,4.319,0.90752,6.5164,-4.192,13.849,6.8169,10.4258,-1.4111,-1.1993,-0.79566,2.8472,5.989,
-29.6462,-0.61258,11.1189,1.8618,-7.9746,-4.9492,0.91692,3.3817,0.72379,-4.3516,-1.1278,-9.8244,-3.3745,-4.4551,
-19.2951,2.9535,9.9481,1.2464,-9.0275,-5.1569,-1.6591,-4.3843,6.2271,1.4562,5.4957,-6.7139,5.3994,2.3672,
-28.7257,-5.7956,2.7958,-4.3755,-3.9469,-12.4101,-0.047256,-12.6931,7.3667,4.8986,-4.4151,-5.806,3.5631,5.7559,
-31.0361,-4.4396,1.6198,2.9465,-6.7357,-1.5813,-2.0609,-3.8638,9.9494,11.6642,-13.2261,-1.4237,-3.7102,-0.64078,
-31.6954,-2.66,-0.99889,8.3159,-19.9465,10.1111,-3.4505,-10.1874,12.8822,3.4007,-9.911,-0.83419,-1.9743,-6.1495,
-28.785,0.5248,-0.93848,9.8349,-19.7575,0.42796,-4.2512,-21.6773,10.0923,-1.8459,-3.2656,-0.78462,-2.8646,-1.7462,
-15.4604,-2.0273,0.63017,2.6894,-16.0505,-13.2117,-2.4838,-23.9064,12.0083,6.8367,-1.5573,-0.23247,-5.2142,-2.1455,
-2.4311,4.1447,-0.41586,-0.49762,-0.98745,-3.343,-1.3266,-24.4894,11.2878,3.4009,-0.45562,3.8144,-3.8922,-5.0424,
-6.3191,8.9381,-6.4412,9.6174,13.1718,1.9006,-2.2552,-13.9431,3.551,-4.87,5.623,3.5865,-1.6422,-4.7399,
-13.5041,3.8634,-7.5686,12.5696,7.8801,-5.7775,0.40116,-3.5269,3.8426,-0.040267,4.781,4.8832,2.9948,2.0994,
-7.1472,1.1105,0.44968,2.2349,-3.1824,-0.89336,-3.1532,-12.8959,0.081782,2.4832,-1.0525,10.1369,-1.7234,4.4945,
0.8453,3.5654,6.9771,-6.4711,3.5639,1.6818,5.6079,-20.694,-0.42724,1.8301,3.5486,-0.052391,-0.10761,6.7464,
-2.2306,9.4023,2.5251,-7.0915,6.3762,-6.4864,9.3058,-15.418,0.6071,2.729,-4.7316,-9.1247,6.9588,10.3759,
3.4499,15.3931,-1.1557,4.932,5.489,6.508,-0.83314,-3.9041,-1.9504,4.0781,-11.0026,-3.0306,5.0285,7.2314,
17.3429,12.9572,0.42601,14.2161,19.2597,17.7151,-2.2955,-0.14011,-0.32101,-1.7138,0.24587,5.7231,-2.8369,-0.76614,
10.2701,11.6756,-0.10366,3.7831,18.1232,9.0885,-1.6536,-10.721,-7.8654,-7.1572,-1.2812,4.8756,-8.2129,-2.2325,
-3.4564,8.9572,2.9277,-9.5542,2.9358,0.47595,6.5128,-17.1368,-3.3591,4.3652,-3.2213,-4.4934,-3.6867,4.9605,
-3.249,-2.6727,2.7521,-1.9215,-11.3404,-5.6029,4.1056,-10.0573,-0.13191,4.1033,-8.0701,-18.3238,-3.4655,2.6464,
4.5091,1.017,4.0998,12.2938,-10.1939,-6.7805,-2.6956,-4.9163,3.4053,-2.6979,-5.0649,-19.7644,-4.7704,2.9912,
15.836,6.5031,2.3414,11.5748,4.0326,-5.8686,4.0215,-17.2271,2.6969,2.002,0.78621,-4.4786,-5.9965,5.3333,
21.9454,9.1386,7.243,18.948,14.8841,8.5835,0.75456,-13.1678,-11.565,1.8819,-11.3626,2.3646,-13.7045,-6.0791,
24.6625,15.6488,20.9085,31.9111,13.991,17.1635,-3.3246,1.7223,-15.9322,-8.3152,-15.7239,7.2648,-15.9078,-6.7236,
15.1155,11.6847,19.6725,20.9391,1.0495,5.0398,-2.1164,-7.4385,-5.8998,-10.8425,-4.6958,6.8285,-12.9364,-2.2858,
0.10859,1.9072,4.3922,5.5827,-12.1238,5.7461,-9.0494,-10.0183,-12.6058,-2.1237,-0.37967,10.4531,-11.1515,-1.1409,
-4.9596,-6.275,-9.9714,-8.8522,-24.5063,8.427,-11.5311,1.6762,-8.8229,3.0459,2.6688,23.9259,-5.4403,-0.063267,
7.9442,-3.3774,-7.8979,-0.79556,-15.4727,4.3911,-6.3018,0.062792,-8.7981,-5.7092,2.004,24.0213,-8.6442,-3.5897,
11.5019,1.8678,6.676,12.3625,-0.44436,13.2041,-5.9232,-5.9918,-19.3631,-14.4422,-10.2183,8.48,-20.2267,-13.459,
14.3406,6.2937,20.3755,11.1166,10.1901,21.9929,-2.038,-0.085103,-7.613,0.52434,-12.1258,4.4229,-11.4494,-5.0878,
19.5315,-0.13424,21.7121,-3.6504,9.5797,10.5882,2.1181,-14.18,-1.1049,4.0407,-7.3644,-1.8928,-6.7286,-0.74869,
11.2996,-7.1862,14.3576,-5.4673,10.0127,7.936,8.0409,-20.4073,-4.0648,-4.27,0.13654,1.2459,-3.2997,-4.7381,
-2.9924,-9.2756,5.9334,4.4418,-4.6881,6.9557,1.004,-9.6028,-5.3332,-5.5261,-3.4014,4.7009,-5.6223,-6.9744,
6.2636,-7.7113,-6.5247,3.1666,-18.5068,1.4958,-1.0732,-9.0261,3.054,4.8902,-4.206,3.4101,-6.2937,4.537,
17.4853,0.31501,-1.5952,3.4807,-3.2964,5.944,6.5548,-11.0061,0.35022,4.0926,-5.466,-1.3325,-4.4037,-5.3153,
16.9403,7.8607,12.6005,5.7934,11.0014,8.1089,1.6236,-10.8498,-13.2848,-7.7495,-14.7181,-8.8152,-8.6775,-19.0964,
17.9408,5.3721,20.4359,4.4371,14.8802,4.5972,7.577,-8.1819,-4.4204,-1.2337,-7.7842,-9.295,1.9279,-5.3635,
15.3516,-1.5061,7.6117,1.6498,11.4654,2.8085,10.6516,-6.1782,2.3997,0.35219,-0.76227,-3.1906,4.3332,3.5307,
9.3879,-2.4244,-3.9379,-6.5174,16.8283,6.6734,2.9535,-7.8244,4.2727,0.33154,-2.7335,5.0681,-1.9776,2.3101,
9.8333,-10.3462,-5.7195,-13.1854,7.7504,2.2387,3.784,-7.3554,6.0333,6.3615,2.4722,-0.27855,2.1745,3.1793,
12.269,-7.708,-8.401,-1.3009,7.2863,5.131,9.6083,-5.9049,5.6713,3.9634,8.3751,-6.3122,4.0614,-0.036161,
11.5324,3.8474,-6.8883,5.8362,14.9164,9.8647,9.0323,-6.5593,5.3315,0.70038,8.8813,0.11737,4.8265,-0.034472,
10.8409,1.5996,-2.4416,-0.56479,16.0384,-0.81185,0.42209,-9.1909,-6.0813,-3.375,-0.72801,-3.924,2.5199,1.9855,
12.7115,-6.0596,-0.78226,1.9911,12.555,-2.275,3.927,-5.1102,-8.2385,0.35675,-5.2218,-7.2179,4.8908,2.37,
9.4278,-10.2345,-3.2564,-0.65037,5.2468,10.4668,9.2371,-6.3164,0.82819,3.8646,1.6454,2.7958,6.1092,1.7232,
6.8452,-5.587,-10.12,-9.6878,3.9233,12.8639,0.61563,-9.9708,-2.2467,-1.4098,6.5893,9.6871,-2.3256,2.6285,
12.4853,0.79904,-11.5298,-9.1061,8.7305,8.0587,1.5874,-5.3392,0.9133,-4.3504,5.1852,0.029393,2.8565,-4.5882,
7.1977,3.2722,-3.2748,-2.0048,3.6682,7.0706,1.9958,-6.5316,8.4217,1.4573,0.33661,0.53223,9.241,-0.78366,
-7.3342,-4.9919,-2.0701,-5.9184,-10.6519,-7.4537,-3.1661,-8.1562,-0.15139,1.3699,-3.7175,9.5763,7.6774,10.3568,
-2.8788,-13.7689,-11.0224,-11.6141,-20.1165,-14.0845,10.1342,-0.60779,9.9424,5.3211,8.6067,3.9591,10.2419,3.6845,
3.3447,-9.9176,-18.4292,-12.9342,-11.8505,-1.1383,7.5083,1.4456,14.3884,5.0023,7.0816,-4.3467,6.6022,-10.6365,
4.6569,2.2755,-11.7758,-3.5858,-3.5754,13.03,-6.5557,3.8799,2.9363,3.1893,-1.9147,5.4957,5.7024,-0.43633,
9.42,8.1898,-5.0185,10.7294,-2.3521,15.797,-7.1711,1.6302,-7.3246,-1.0354,-7.8506,9.1993,0.3177,3.6242,
13.3928,6.186,2.8463,24.1856,2.327,7.2855,-4.2193,-1.9974,-8.3974,-7.5287,-7.8837,1.0837,-2.2229,-9.1999,
5.0256,-1.7488,5.1961,8.6345,-6.3845,-7.2516,-3.462,-10.4494,-3.3565,-11.615,1.1612,-4.5275,6.4823,-7.1356,
5.2287,-2.1484,-0.6624,-5.9836,-10.5399,-8.8515,-3.7589,-10.327,1.3833,-0.32927,8.6547,0.28164,12.6483,6.9079,
13.4868,-4.5401,-8.1853,3.4514,4.1925,5.7796,-7.0631,0.88188,-5.2541,-1.8219,-1.4447,4.8037,4.3268,-4.0958,
12.6776,-2.2512,-5.6778,12.3203,17.574,19.0658,-11.6814,0.82896,-19.0389,-15.8125,-15.458,1.4898,-8.0354,-17.9501,
12.4211,3.431,6.2604,8.0513,19.041,14.3921,-13.5021,-3.7588,-27.4966,-18.4126,-22.1132,-7.1714,-11.0821,-9.3285,
17.223,-1.3128,18.4915,-3.0201,17.3945,-0.085395,-10.1704,-3.0291,-11.7468,-3.6929,-20.2813,-19.3469,-5.8792,-1.2051,
13.164,-0.22584,10.3225,-5.8645,16.3508,-1.0895,-11.5766,-2.8474,-4.4676,-10.5309,-22.0901,-19.1943,-7.5429,-4.1575,
3.8018,7.3509,-1.8949,2.0505,10.8313,11.5821,-0.29324,-2.1719,-5.7124,-7.378,-6.6647,-3.9426,-5.5785,-2.3962,
1.5567,-1.1575,-8.8402,0.91972,-3.9186,5.8446,5.7752,0.98354,0.6812,7.1647,3.3343,-2.1757,-0.20117,3.7984,
6.0018,-1.5926,-4.7805,-0.64828,-6.2231,0.95547,-8.6713,2.4374,4.1696,10.2827,-10.4802,-1.5405,-1.7019,12.1428,
4.633,2.5363,1.5571,-1.6181,-10.8923,0.89862,-9.6825,-4.7679,10.9794,6.6406,-12.8775,4.6027,-3.6167,4.3552,
0.32064,-1.6492,-0.55323,-7.5718,-19.3152,-2.1805,-0.025045,-2.4649,5.2781,7.2508,-4.0366,-3.7417,-5.4167,-10.0061,
-1.2105,-5.0796,-3.0411,-10.6468,-25.7195,-1.546,2.4975,3.2297,2.4403,5.303,-3.2898,-16.1224,-2.5706,-3.8776,
2.391,-3.2624,-5.3802,-2.4453,-31.7399,2.0765,-5.216,-0.49386,16.3939,8.5145,-6.6222,-1.5411,3.1298,8.9608,
5.2732,-2.0585,-9.0912,4.7609,-21.7678,5.9858,-18.0138,3.5696,9.8822,2.9616,-5.2166,6.6191,-9.1596,-2.6702,
14.0327,0.082463,-3.5027,8.5092,-6.3617,9.6605,-3.8222,17.4555,-4.8108,1.7747,8.2062,-0.83757,-7.6008,-4.5274,
0.58504,-6.4779,-16.9075,-6.1014,-20.08,-4.5331,2.9616,8.8626,-1.0114,3.1815,6.2015,1.7342,-1.5986,2.2996,
-0.45829,-7.0974,-27.9946,-14.3253,-25.4297,-5.2693,-2.2582,4.297,10.1427,8.0327,8.8551,15.7302,-2.5109,7.2037,
9.6539,-15.7481,-28.3319,-9.4324,-9.8039,-7.9793,-10.19,1.014,-3.5762,-3.5422,3.2812,7.7454,-16.4602,-6.3388,
23.1747,-3.7103,-12.532,-1.8074,4.8844,-13.5513,0.5061,-0.055577,-9.4125,-1.3127,-1.9583,0.22163,-9.4404,-4.9498,
24.8284,-0.462,2.3199,-9.7667,18.6913,-23.8307,10.5599,-8.12,-1.7882,3.8082,-3.8572,4.2422,2.2195,1.3985,
10.7325,-3.9636,-11.3961,-14.7274,31.6698,-24.9229,14.4648,-1.0779,8.9079,6.1007,1.9209,7.517,11.6659,9.886,
-1.509,-15.3233,-15.2503,-19.3899,42.9542,-37.5275,11.0754,1.5083,10.895,7.248,3.318,2.528,13.4875,2.7384,
-2.4267,-21.4634,-0.2353,-23.2696,35.3339,-45.8832,9.4026,-2.616,12.2577,5.8039,7.1528,-3.6741,7.6361,-7.5111,
0.74457,-6.0756,-1.2113,-18.8478,43.299,-29.0302,5.8128,2.583,5.4719,1.4218,7.7318,4.6141,3.1441,2.0155,
-7.872,3.8881,-15.2387,-12.1697,42.2134,-13.1884,6.9774,0.9157,2.6221,0.83239,8.7812,6.8579,7.4934,11.4757,
-9.4171,3.6548,-4.7623,2.6604,32.6211,-19.9236,11.6008,-1.1567,3.473,2.7999,9.2626,-2.6296,8.0521,3.7276,
-4.8177,-1.6071,9.6234,4.5358,23.6048,-25.7872,4.854,-0.078548,-2.7862,1.6232,2.656,-5.497,0.50989,-6.5807,
-8.0589,-7.0573,10.5764,-7.3333,12.6079,-20.7107,7.0838,1.439,5.9533,8.0807,6.0259,-1.6379,5.0168,-2.6566,
-20.6857,-5.6252,7.9259,-7.9021,9.8345,-15.4337,9.6839,-1.6725,9.6295,8.6046,3.6474,-8.5987,7.7419,-3.505,
-32.0503,-6.801,4.9288,-3.8982,3.6982,-26.1052,10.6162,-1.0681,9.5568,7.5842,7.9666,-8.5868,8.7898,-13.884,
-34.6657,-4.8801,-1.9219,-3.1597,0.95529,-26.0517,7.4572,1.5171,5.4532,13.6841,12.0271,6.0284,6.7495,-14.5637,
-29.056,-0.048344,3.7397,9.6356,14.998,-10.3886,1.4636,-5.1293,-2.4377,7.3158,0.71615,7.7017,-0.20987,0.41009,
-23.7824,-3.5757,14.1041,9.5611,28.1981,4.3347,4.905,-11.3765,-1.7868,-0.68627,1.1778,-2.341,-3.7275,4.4379,
-26.3898,-6.3863,10.2327,-5.1125,27.5516,9.1548,-0.4309,-7.6678,-1.6791,0.36361,9.1753,-5.2257,-5.5198,-8.9377,
-29.3439,0.5518,-0.97008,-4.3198,17.3271,4.0671,-2.9261,0.35543,3.9683,0.84639,10.1376,-3.3993,2.3745,-5.8804,
-28.5925,4.5526,-10.997,9.0493,6.2023,3.823,-2.7515,-9.7511,-0.30461,-0.21358,5.4946,-4.2036,1.2228,-1.4947,
-12.7769,7.3051,-2.2685,22.6063,8.8558,10.6532,0.43924,-6.1404,-11.3788,-1.209,0.12277,1.0907,-9.943,-8.4636,
-2.4107,0.31183,9.4646,21.7736,21.9389,17.5771,1.9257,0.78299,-10.1924,-5.6749,-6.4395,6.572,-17.9187,-16.5281,
-7.8123,-0.211,10.4101,12.9035,21.1267,17.0266,-3.736,-5.8184,-9.0768,-11.8889,-8.5747,3.6561,-19.3651,-8.981,
-1.7973,5.3479,4.2383,2.5483,11.2872,18.5266,1.0261,-1.9405,-3.9942,-6.6376,-1.5048,-8.1608,-4.1032,3.1554,
3.3531,-0.015578,-3.0751,-9.7058,8.5921,19.4319,10.041,9.2698,-2.7458,-4.2224,5.6445,-11.7045,10.243,-3.0848,
-1.387,-0.51876,-6.4203,-8.6193,7.5724,16.7527,6.917,11.2342,-11.1529,-8.508,5.81,-7.4725,-3.4448,-12.4807,
1.2177,2.0339,-4.5228,-7.598,2.5801,16.2526,8.0143,5.0139,-9.9796,-4.4677,-0.084838,-15.596,-9.7926,-11.2278,
9.2119,3.9278,9.8486,-3.1088,-8.6676,16.2852,7.5339,2.6961,1.7121,-3.191,-11.1736,-24.7459,-0.12953,-9.5454,
11.1807,4.1972,23.3577,3.6332,-16.7194,14.804,7.586,1.022,8.1647,4.5641,-6.9725,-9.1611,-0.62491,-13.5107,
12.0227,6.4665,28.0446,-0.1141,-15.2117,18.4542,9.6519,-2.5695,5.1538,4.7949,-2.0166,-3.5498,-2.1002,-12.1954,
8.2762,7.0872,22.3276,-2.1242,-11.2738,21.3803,5.0394,2.6272,-2.2145,-4.5693,-8.9547,-9.3877,-3.9912,-3.3964,
7.7796,9.6876,25.0228,12.1033,-11.6056,18.0811,7.7627,2.4696,2.9605,-3.2869,-6.4,-5.7987,-1.7352,-0.167,
10.8426,11.6269,19.9907,22.9927,-13.4308,15.4829,1.7497,-1.2084,-6.7982,-10.6533,-11.5632,-7.9724,-6.1691,-4.695,
13.2172,-1.1728,4.6913,14.5541,-7.5833,19.5965,-8.4399,-0.12715,-20.4903,-20.0988,-21.9623,-19.5961,-16.8919,-8.4476,
18.9796,-4.6312,4.8963,16.2023,-0.57292,29.01,-2.3864,8.4523,-17.7661,-14.3539,-15.0983,-12.8732,-13.3568,-12.4788,
14.311,8.2524,18.7025,21.7847,-6.0848,23.7396,0.2774,4.4154,-12.1622,-9.9639,-14.6965,-9.5802,-14.0687,-15.2598,
7.4016,2.7147,15.0774,6.3776,-11.7705,14.248,7.3208,-1.9003,-5.3816,-4.3235,-11.7978,-20.0983,-4.1481,-6.276,
8.9744,-8.5411,4.0881,-8.1051,-9.0473,19.4439,15.957,5.2728,9.0413,7.0289,3.0101,-13.8498,10.2007,4.1853,
4.9062,-6.5154,7.3725,-20.2616,-11.026,18.7814,8.4451,4.4532,8.0132,8.1204,6.3778,1.0812,2.0436,8.4721,
2.0912,-3.6039,5.4178,-10.4741,-14.9024,13.1165,4.4087,-1.3611,12.0704,7.1291,-0.55933,13.137,-4.6334,12.5018,
0.95658,-3.3876,-8.018,-5.8118,-25.1017,11.3203,3.135,1.7452,9.3288,5.6922,0.48149,6.2974,3.7114,6.7096,
-3.1347,-2.1762,0.53079,-2.4374,-23.5956,16.6924,2.9478,7.6918,2.7187,1.3177,5.4957,2.8949,6.5143,2.2731,
-11.0144,-0.028171,14.5989,6.7848,-8.0799,29.7909,-6.306,1.18,-3.4947,1.2377,-6.9357,7.7633,-7.9765,-1.8971,
-4.8073,6.528,24.3304,20.4777,-0.012385,39.619,-7.44,-0.40414,0.24376,4.6932,-13.075,6.7924,-10.0376,-10.3552,
-3.006,4.6235,15.3074,26.3271,-14.1116,23.1419,-5.4807,8.1925,-1.2827,-1.1351,-13.8033,-4.2039,-8.9307,-3.1789,
-4.8421,12.4138,18.4228,34.8327,-6.7291,28.2902,-4.1437,20.8108,-5.2396,-2.0752,-9.9494,0.082209,-12.4287,11.1118,
-9.0901,11.1653,13.7882,31.2299,3.2553,36.1734,-6.4161,11.999,-1.396,-5.48,-7.8397,2.5993,-14.2041,-0.12562,
-8.0401,6.9661,10.4398,16.7499,-11.0401,23.4142,-4.5183,-1.3272,2.218,1.4037,-6.8647,4.9644,-6.7969,0.38652,
-7.0531,1.0015,6.2832,12.2156,-24.4777,18.4791,-9.7939,2.2827,-1.4453,4.8488,-6.9574,3.1537,-8.9101,9.9439,
-6.6308,1.9496,2.8806,17.533,-16.9958,31.4703,-5.1724,10.2125,5.7009,0.52399,2.536,2.9645,-8.3765,7.3298,
0.32242,8.3871,4.221,10.9348,-12.4453,35.1474,-2.3415,2.0371,4.8548,-3.0372,1.8798,5.3072,-3.335,4.3695,
10.3878,2.8413,-5.1087,-0.81515,-16.7421,18.9385,-0.18406,-7.1616,7.5886,1.1794,1.7665,1.9636,3.9242,8.1407,
7.7476,-5.3965,-14.8869,-5.8079,-20.7792,3.7022,0.83569,-5.7232,9.1503,5.142,7.7123,7.8966,0.66357,8.661,
-1.7938,-3.0557,-10.9685,-2.4342,-19.533,4.4517,-3.2488,-9.4142,-4.5091,1.8083,1.1978,12.4654,-9.4619,1.0813,
5.3734,-0.85498,-6.2765,-3.2964,-15.3353,8.2184,-3.0529,-8.8493,-6.255,4.7255,-7.9491,-2.3826,-0.82547,2.0256,
9.589,5.7508,-16.4882,-10.6623,-13.9111,3.1873,-4.383,-1.7629,-1.3417,1.9204,-11.0029,-16.3396,3.762,9.4677,
8.0054,11.457,-10.4568,-6.9969,-17.1103,8.0382,-0.086186,-4.6828,6.8065,1.8052,0.75067,-1.2592,1.5189,12.9335,
2.9866,-1.8366,-4.2827,-3.0478,-25.6643,6.0431,1.4318,-11.965,5.8936,4.2179,2.2185,9.8912,-3.1097,2.577,
5.329,-4.248,-11.5894,-4.3782,-19.5864,-1.8831,0.84179,-1.667,-0.0062742,11.5285,-2.4526,7.7844,-0.40258,6.9603,
0.97486,-0.96696,-13.9202,-16.2167,-24.462,-14.8805,6.8421,-0.55828,4.0275,21.9297,4.7536,9.3343,7.6898,13.6017,
-5.6386,-6.4556,-0.47873,-16.7565,-30.5575,-19.5343,3.9105,-6.0715,7.3161,11.0343,7.9986,12.3044,3.6982,1.1886,
2.7675,-7.0775,9.6342,-1.6511,-23.6819,-16.3449,1.6585,-1.6733,9.9018,-3.7278,2.4756,9.5488,-0.55759,-1.9084,
1.5937,-10.6862,-5.0438,-4.5591,-29.3201,-19.3985,5.5933,-6.6155,11.3246,0.51122,8.3779,4.9424,2.502,6.2744,
-12.6019,-10.0451,-18.8412,-12.3524,-37.6455,-26.3014,-3.8183,0.84095,4.5948,14.5805,19.9778,6.6624,5.3775,7.9144,
-25.9458,-2.3828,-13.7135,-5.5609,-27.3191,-15.6473,-9.6405,14.8905,2.3027,15.7412,11.7196,6.2626,8.0796,6.4313,
-10.2891,9.8622,-7.8481,6.8749,-11.5799,-0.6085,0.014424,8.9735,2.164,0.69674,-2.0939,5.8873,9.6127,9.0715,
4.4283,4.732,-7.8818,3.9404,3.2149,0.95939,3.5428,-1.1455,-2.5043,-4.9103,-6.5067,9.0634,9.5396,7.0144,
-9.9374,-5.1325,-3.8796,-4.8684,-6.0169,-10.6962,-5.2421,0.43513,-1.8494,-4.1121,-4.6035,7.0068,6.4461,2.0541,
-23.4412,3.2432,-1.6294,-6.5928,3.4201,-1.9866,-3.9184,3.4347,3.3036,-8.9075,2.7322,1.5442,8.0758,4.9565,
-19.5517,-3.5068,-7.0779,-19.8112,17.3149,0.65409,9.9307,-4.335,7.6434,-2.8268,16.6683,5.9896,15.1549,6.1724,
-10.815,-9.8518,-9.1747,-21.144,30.376,-0.89846,9.839,-6.5955,6.6807,6.9239,18.7119,5.1261,14.7497,7.3144,
1.4319,-4.7222,-4.0858,-8.2783,30.1034,3.6939,-4.8514,1.3634,-4.3089,-4.0804,3.4892,0.28005,6.3016,3.3463,
6.3881,-1.4132,5.2353,-2.7386,24.2633,6.4979,-13.1507,6.3246,-12.1182,-10.8951,-6.3188,6.3145,1.8896,-6.9387,
4.4925,-1.8325,3.4079,-6.104,10.2018,-4.4812,-8.8319,-0.61025,-9.8787,1.3562,0.61477,3.4141,5.306,-2.9936,
3.2147,-11.8077,-6.8808,-19.8378,7.5723,-18.3124,4.8079,-8.6414,4.814,15.3748,13.6887,-0.82459,19.0876,11.286,
3.5259,-16.6455,-12.0141,-27.2384,12.6651,-26.8127,4.0153,-3.5849,17.1499,16.9919,17.4054,5.7803,17.4563,11.132,
2.3057,-6.5703,-7.2589,-11.5041,1.8205,-12.0937,-7.3186,-1.3529,2.0209,4.8795,9.302,7.4504,2.309,3.4051,
10.7392,4.4122,-5.3111,3.2861,0.19798,2.2469,-5.3671,-6.8179,-6.6907,0.048723,2.1885,-4.5941,-1.3779,0.67923,
19.6749,2.6352,-16.5909,-0.90827,14.2861,2.6152,-6.5574,-2.8801,-12.8447,-2.4757,-12.0428,-10.8739,-1.7993,-5.9169,
21.5206,-2.5655,-18.6196,-6.9036,27.5289,5.4844,-3.1388,3.3445,-14.091,-10.3945,-19.9107,-6.1871,-4.7165,-9.5953,
25.776,5.1525,-5.9054,-2.9601,39.9772,2.6343,3.6054,-7.445,-6.6896,-10.2754,-8.1272,-4.303,2.1214,-10.5324,
28.7674,7.3639,-8.0726,-0.26099,42.1727,-4.0791,-1.1499,-10.529,-9.819,-6.1291,-12.1776,-10.6003,-4.5613,-12.422,
27.0414,-2.1539,-12.6304,-1.2545,28.549,3.2251,-2.0891,0.18793,-10.238,-1.7284,-19.5157,-9.9643,-17.3975,-11.6767,
23.4025,-2.0247,-3.8048,-7.2296,26.837,4.0399,-5.9976,2.1941,-5.5899,-2.632,-10.276,-3.3151,-11.3115,-7.9504,
30.0651,3.1389,-3.5765,-9.8215,29.2597,-5.2785,-2.6131,-2.9806,7.8554,-0.45762,4.4406,6.968,3.4672,-3.4395,
27.253,-1.0833,-15.4635,-16.2917,15.4025,-10.0039,-2.4553,-6.8357,7.384,-1.4384,4.1922,9.5756,5.2946,-0.20751,
30.1567,-3.5389,-3.9464,-14.8091,7.9239,1.1856,4.2474,1.1381,5.4287,9.2372,3.4366,17.5729,8.5077,13.9049,
28.3473,-16.4373,2.3407,-16.9462,4.4228,-12.9855,8.0264,-0.94664,9.1368,11.7076,1.2139,4.4169,10.0137,10.5682,
22.6121,-9.3993,-5.867,-7.8612,11.2174,-25.3358,3.5105,3.1436,6.5717,4.9544,-6.9272,-4.9246,3.362,3.8833,
14.7005,-1.2722,-19.1304,-5.8777,1.972,-14.2351,-3.2551,5.476,0.63066,7.1782,-0.96483,5.9597,4.6731,5.1631,
10.2882,-8.76,-28.5714,-13.0882,-12.2463,-14.8938,-5.5808,-0.39926,0.089188,14.3116,12.7075,11.1488,9.9394,2.3313,
14.713,-2.1831,-15.7637,-7.2608,-6.9921,-12.9919,-4.2377,-0.37531,-0.92535,7.4016,7.9112,4.4296,4.3,1.1832,
15.3435,-0.53977,-3.2204,1.7467,-0.018102,-5.657,-3.4794,1.1605,1.6517,3.4277,-4.161,-5.4173,-4.5298,2.6245,
11.9019,1.0054,-5.5482,2.1465,6.5379,-4.8139,-3.7752,-0.42194,2.0562,1.7093,-3.4077,-1.5629,-1.737,0.95519,
9.6745,1.4492,-9.7533,2.5218,7.6589,-16.1226,-2.0354,0.10749,-3.6134,-8.9816,-2.6982,-10.041,-1.1287,-7.6749,
12.1196,1.3623,-3.1178,12.4547,6.1912,-9.104,2.1206,8.1688,0.63732,-7.4345,3.5141,-3.3873,-2.0692,-4.1888,
3.8293,-2.2487,-10.4939,8.1782,11.3664,1.0228,-8.5954,-1.9019,-3.9384,-1.4417,2.7996,10.916,-6.4825,-2.4246,
1.5826,-7.1564,-6.8391,-3.4054,11.6922,-7.1068,-3.0381,-11.8725,-6.7283,-2.3639,-0.39452,15.8263,-0.043733,-2.2787,
6.5302,-7.7357,7.6713,1.8415,6.9572,-10.7137,8.2381,-1.0754,-3.2984,-10.2894,-2.3878,0.77668,3.9932,0.8832,
-6.9724,-9.288,9.247,5.7639,8.5563,-7.0462,-0.32491,-1.0109,-0.075838,-8.6638,-6.2784,-10.3819,-5.3223,-4.2129,
-13.6131,-5.7056,1.6322,9.4524,17.1193,0.43654,0.70329,-7.0011,7.9969,-1.0849,8.1983,1.334,7.0982,2.0907,
-16.3261,-8.8921,-1.9946,10.3986,16.5973,-2.1102,1.1662,0.98262,3.9874,-12.6164,9.2383,3.7754,14.2369,6.5042,
-14.3378,-5.3334,5.1841,5.7403,23.6687,6.0837,-2.9382,3.9488,-5.3283,-11.8599,-3.4181,7.5833,0.27232,-7.986,
-21.5458,3.0539,8.9065,4.3872,19.2224,10.7603,-4.7788,-5.3646,-11.0594,-0.055354,-7.2474,12.1699,-9.8297,-13.5772,
-34.353,3.3748,5.8515,12.6968,3.9691,-3.9854,3.0716,-4.5376,3.7041,5.4951,2.7685,11.9448,2.3586,1.3374,
-34.8314,6.1979,-3.5755,10.9258,-10.369,-2.251,6.9211,1.785,17.1149,-0.88586,5.628,-1.8827,10.2848,7.8316,
-20.1353,16.4149,-4.8738,5.7327,-21.8852,11.9841,-3.0747,6.2163,5.4992,1.6883,3.7775,-9.3329,-0.92107,1.815,
-27.4991,9.8838,-4.0773,1.859,-34.6721,25.365,-10.4539,8.3649,2.6487,5.1168,4.055,3.8328,-11.4551,0.1938,
-30.3881,6.7692,-1.3111,6.2855,-46.6917,37.9431,-12.3472,16.4349,5.0103,1.28,-1.7345,15.2003,-9.2554,-4.3558,
-18.9842,12.918,9.3554,9.4376,-57.9902,49.7665,-17.154,10.9103,-8.9047,0.69864,-12.2202,1.6821,-15.255,-16.7007,
-17.3411,17.6901,19.3833,11.3929,-68.6108,60.8805,-12.595,5.7177,-7.8664,5.1957,-5.9398,0.068836,-18.8787,-14.1863,
-22.3509,22.679,11.1618,14.7432,-70.6197,71.3277,-15.8732,9.4085,-2.3523,-7.2187,-1.5496,13.1746,-17.746,-8.2921,
-6.9099,27.3691,-0.6018,18.9012,-57.3061,81.148,-5.8443,16.9122,5.8571,-1.743,7.6199,18.4349,-2.5812,1.2819,
-13.0321,11.6269,-14.6657,5.1614,-67.9677,90.3792,-2.9721,7.3247,-4.0744,1.8914,-5.4431,8.7569,1.1229,-0.3083,
-15.2754,3.3471,-9.2663,-1.2001,-63.4046,79.0536,-4.8108,9.9104,-2.8222,3.7948,-6.1252,18.3162,-1.9706,3.7436,
-13.3506,0.12064,-4.6765,-1.1281,-61.6168,73.3022,-3.5139,11.3332,6.4241,-0.46672,6.344,8.1413,-6.8944,2.5108,
-6.4983,7.1729,-2.3785,10.033,-57.9202,69.9123,-0.2774,7.6275,4.0212,-7.4982,6.9715,0.59326,-4.4643,1.3519,
-6.1084,14.8103,6.8402,11.4484,-50.4111,58.659,-0.26076,9.1863,2.7717,-0.99705,0.50196,13.6675,6.8969,3.2872,
-19.8419,2.8288,0.379,-0.33234,-61.4865,50.0968,-10.3298,8.6356,0.58846,5.1136,-2.5533,11.8388,2.4497,-4.9773,
-32.7514,-3.8959,0.86085,4.2261,-71.8973,43.5618,-13.2393,7.6139,4.0824,4.3022,1.1301,10.6248,-10.3035,-5.1832,
-26.2854,-5.6786,5.8513,3.9735,-77.2007,30.8638,-9.4193,0.097504,1.821,-0.99806,1.0623,4.9452,-12.7099,-3.8631,
-23.1955,0.20786,6.0048,0.20481,-58.9547,35.566,-8.3505,2.6127,-5.8523,-1.4428,-3.5399,-3.9238,-10.4355,-3.1276,
-30.3761,2.7164,4.1317,-0.31207,-47.8533,39.9879,-6.3366,5.9862,-1.971,0.15662,-2.8229,-4.193,-12.3304,-2.4354,
-34.6043,-0.47171,-2.167,4.7492,-54.0585,23.4886,-8.9816,-5.4669,6.2146,0.1477,2.389,-2.9327,-8.5654,-0.27233,
-28.9983,0.060707,-1.5329,16.0618,-39.2175,15.5053,-11.9725,-5.643,5.3376,9.7189,2.7498,1.7812,-5.53,3.2738,
-23.7291,-7.5061,8.1397,10.5596,-26.2757,16.0878,-15.7926,-5.809,-5.5715,10.6486,-3.9701,7.2211,-10.7449,-8.5206,
-13.7326,-1.5085,12.1893,1.3542,-32.2623,16.6349,-17.3656,-5.9646,-8.767,1.4378,-4.236,5.2754,-15.6464,-13.5556,
-7.8675,12.682,3.3902,9.3407,-30.3275,21.6872,-2.2237,8.4933,5.8591,0.34238,4.0849,-7.1437,-3.6152,1.3577,
-21.0084,1.3498,-5.3851,0.20837,-30.0197,11.815,6.4997,-3.5948,7.0389,-1.1895,-7.7567,-20.815,-0.87673,15.3763,
-6.1344,1.7735,9.038,6.7508,-16.6215,15.6436,0.56301,-4.8919,2.0781,9.4697,-5.7794,-5.4661,-2.3369,15.4995,
0.78952,-7.9135,9.523,6.8503,-13.1027,15.2096,-11.0678,-1.0681,-1.5759,-1.6873,-6.9445,3.4347,-14.802,0.46954,
2.2545,-6.9346,8.4465,-0.11609,0.28875,13.792,-3.8493,-0.50089,2.0484,-2.0902,-10.0586,-0.30119,-11.3933,3.4475,
2.1187,-1.4759,16.008,-9.1856,2.2888,-1.1356,4.4499,-3.496,-2.1088,6.1035,-9.4546,-14.3831,-3.6507,6.2668,
-4.5638,7.1835,26.645,4.9795,0.63821,-0.58188,8.7209,0.24352,4.5731,6.2404,-5.3576,-17.0685,5.1402,-8.2092,
-9.8357,10.2827,24.5417,18.7808,2.1132,13.553,1.6427,5.7756,7.828,8.388,-0.49763,-3.4381,8.3621,-21.8167,
-14.7923,-0.92302,9.4548,9.6052,-0.53511,-1.3601,-9.0446,0.8906,-0.20482,13.4314,2.0533,8.3652,6.3475,-34.6077,
-19.4509,0.64567,12.4172,-3.5769,1.0103,-3.7991,-6.9896,-0.67518,0.31158,13.1296,-0.59145,11.393,6.4717,-46.6312,
-10.7207,5.1444,19.2363,-3.8668,9.5211,0.96635,-2.0318,-1.1393,4.8314,9.8208,-4.0852,-1.8968,1.544,-57.9333,
4.0225,2.3147,16.5693,4.9375,18.5309,-11.6969,4.6451,1.4501,7.0625,12.7608,7.7569,-7.3297,1.956,-68.5573,
0.26949,5.201,10.5326,13.7177,9.3508,-25.0951,6.3833,4.3893,0.58796,0.90227,9.3084,-4.8729,0.8299,-78.5439,
-8.3181,7.41,7.3796,6.3397,2.2348,-28.1464,9.5296,2.6131,6.0994,-7.7242,4.2115,-4.076,3.3012,-87.9313,
-5.802,-5.1358,-5.1653,-8.1406,0.083777,-24.4407,0.89053,-2.5863,7.7504,-0.20172,4.9675,-2.8227,0.077922,-96.7554,
2.1097,-7.3491,-14.4355,-13.218,-4.4592,-26.504,-10.7604,0.090422,7.7895,2.3319,8.1992,-2.1492,-0.43087,-105.0501,
12.5719,-0.35326,-7.0144,-10.9121,0.34582,-23.4009,-1.5434,5.6307,14.8852,-4.3629,14.2622,-9.5844,4.1325,-112.8471,
20.39,5.2146,-3.0633,-7.7363,14.4251,-17.4584,4.0969,9.8323,4.4125,-6.6222,6.8515,-3.4617,-0.65297,-120.1762,
10.0896,3.8935,-8.9308,-6.2639,17.1089,-16.4109,7.884,5.2075,1.1221,-3.1992,-1.6273,10.846,3.4201,-127.0657,
-4.6158,-3.3996,-5.3703,-14.964,9.0223,-15.4272,5.3945,2.8777,14.1646,7.0769,1.496,24.2953,14.3083,-126.744,
-1.3317,-8.2382,-3.0302,-8.0154,15.5405,-16.5176,0.028213,6.7394,13.3143,11.6949,3.4231,26.9081,6.3907,-107.0373,
6.3123,-6.2311,-13.4372,0.029674,19.1465,-24.0989,4.565,1.7975,4.9523,5.4465,2.7131,16.7222,-0.54763,-107.1699,
7.9505,2.211,-14.6479,-12.0742,10.9387,-28.7037,3.2824,-0.32729,5.6638,1.0863,1.5426,13.7019,3.5186,-94.6889,
12.011,3.5902,-5.1976,-12.8626,14.8199,-19.4184,0.56439,6.2463,9.8615,11.609,4.9793,18.4256,7.846,-74.9076,
12.8036,-3.1797,-5.3899,0.51587,18.4697,-13.7143,0.02641,6.3766,6.7493,6.3754,-0.86564,16.8169,2.8372,-57.2842,
6.4877,-1.4761,-6.5793,-6.071,22.9072,-16.4217,2.5459,2.4638,4.8315,-5.6051,-5.3522,14.2941,9.2219,-44.2671,
6.6031,0.12533,-5.6799,-17.3037,24.0548,-24.0078,8.9481,9.8801,13.1139,8.8312,1.5239,8.8989,17.2409,-27.9961,
9.2321,-4.9248,-8.3653,-5.1726,8.5115,-33.6612,2.3604,11.3042,6.2753,14.8748,3.4494,2.3132,6.1208,-23.2917,
12.2084,-2.1082,-0.29924,7.743,-1.5993,-26.0948,3.7316,5.0792,-1.6643,-0.11766,1.7296,5.7047,9.2838,-22.3983,
15.5097,-2.99,0.72694,-1.7975,12.5967,-13.4357,6.5323,10.8248,-2.5727,-11.7267,-6.4419,7.3788,16.7946,-20.0462,
17.1007,-6.3403,-4.8629,-11.2698,25.9409,-12.1255,3.6198,13.7061,-6.9563,-7.4933,-10.5934,5.4238,5.1976,-9.2624,
11.5357,-9.4897,4.0007,-17.149,38.4844,-19.9698,13.991,5.3191,2.0329,1.5281,0.63053,6.6107,6.3981,5.3934,
-1.7622,-8.4162,0.23094,-16.6242,33.71,-22.3014,17.6905,2.4794,11.491,3.958,6.1399,-0.3404,13.5778,15.173,
-13.7586,-16.9877,-13.8829,-6.5503,25.6366,-28.0233,8.5608,2.3301,11.8103,4.7292,6.7802,-12.4221,8.7298,12.2457,
-1.3346,-15.4633,-22.6486,4.432,15.5265,-32.8963,6.5348,-5.3723,5.5554,3.9414,3.8518,-9.1552,1.6506,11.0069,
12.8455,-0.43553,-9.6927,9.7128,28.6949,-16.8226,0.59602,-11.6059,-3.3502,-1.8418,-3.9424,5.4941,-6.0116,16.9014,
0.99994,1.6256,-9.6152,10.6424,33.0431,-1.7132,-3.9777,-6.3716,3.4062,4.8231,-6.2274,13.2508,-5.1468,22.4427,
-13.1601,-4.5227,-15.0891,2.9448,16.9605,-13.6749,3.32,-10.0227,5.2188,11.5937,-2.8276,-1.6443,1.2128,26.1382,
-4.8263,-1.7298,-14.6888,-11.3319,10.3771,-22.4355,11.6926,-11.9428,12.4683,7.3684,8.9386,-7.1114,10.7201,26.0823,
0.50582,-6.6686,-5.7393,-24.752,23.8545,-24.1145,7.9659,-5.1754,18.7802,1.8837,10.4192,-6.6842,12.0939,23.5091,
2.4924,-5.2598,-1.3606,-13.7239,36.5232,-21.6589,3.4536,-2.848,11.6026,3.7876,7.7771,-1.2406,12.3769,34.2007,
3.3516,-3.9355,-12.3728,-6.8496,38.4033,-21.3681,4.2551,-13.77,8.8895,3.5608,11.3448,4.8847,16.6769,39.2077,
1.6377,-3.1957,-16.1679,-5.9341,27.5268,-26.6409,4.5044,-14.4566,9.8689,6.8764,11.1678,2.0705,15.1717,41.3937,
6.0774,-2.4999,-4.6095,-1.04,16.2951,-29.5805,5.7465,-9.0513,11.7974,15.0357,3.9433,0.433,9.7234,43.4481,
9.7466,-2.3499,0.71009,-2.9951,9.2661,-30.8313,10.4447,-11.5338,15.1234,12.1171,3.7067,-0.60121,9.14,43.8668,
4.1197,-0.19148,-12.4433,-6.8492,3.668,-33.0153,6.7924,-9.8326,12.1995,2.3132,6.5099,4.477,9.5998,42.243,
5.8895,-5.2226,-14.7219,-10.4717,5.4649,-34.0595,8.4018,-5.2093,13.4845,6.2087,13.1784,17.3187,12.05,42.7336,
14.6126,-9.9518,-8.797,-7.8274,3.12,-31.0082,1.8459,-3.888,8.6411,8.8614,8.3533,18.2965,6.2844,42.1865,
16.2569,0.22588,-0.70407,6.2577,4.4457,-26.6257,-12.3648,-10.2096,-5.4909,-1.2509,0.28895,11.653,4.3945,47.2195,
1.1815,2.7329,12.9512,9.411,14.7672,-19.482,-11.6415,-17.1607,-10.7086,-2.6891,0.77573,4.3974,8.6688,45.8986,
-12.9894,0.048353,8.6453,-0.73375,19.4284,-11.7576,3.157,-5.5418,-4.5199,7.0533,-3.8088,3.6295,9.662,43.6488,
-17.2898,-4.9971,-5.9734,-14.7897,19.2714,-14.0773,14.5846,-2.1841,-1.2225,1.5884,-6.6054,-1.6299,13.1157,47.0807,
-12.218,0.34528,-3.6166,-9.8865,31.2254,-11.2158,6.6495,-7.0956,-6.1918,-7.5833,-3.184,-10.6086,10.3118,45.2646,
-11.4854,4.3589,6.6851,4.8066,42.4613,-6.5094,-0.80849,-9.6951,-15.905,-1.0775,-1.9842,-10.9808,-4.4069,36.4979,
-6.7629,-4.9791,2.2496,18.6182,40.9223,-9.144,0.24873,-11.1303,-11.9255,-8.0729,5.1939,-7.2968,-12.2293,31.2819,
7.7429,3.8915,7.6618,22.0763,43.005,-5.0656,-0.27031,-7.9419,-8.6884,-21.6885,4.3781,-11.3969,-4.9401,32.9347,
5.7855,11.7263,16.2786,19.743,26.3247,-4.7622,4.7885,-5.4475,-8.1676,-15.8668,-3.9528,-17.7722,-3.635,38.0187,
-5.1514,0.43293,5.7203,18.0538,10.6452,-4.981,-4.0712,-5.6252,-3.1391,-0.81479,0.82286,-10.1509,-2.9133,41.2833,
0.70484,-6.1475,-4.203,14.45,24.1065,-2.1606,-17.9269,-7.8093,-3.4548,-11.8407,2.2858,-1.9782,-10.3012,39.3114,
9.2344,-0.23242,-3.4467,0.97631,36.7601,-3.5433,-2.7513,-13.8961,-5.7691,-14.66,-5.415,-3.3728,-8.1707,43.5071,
-1.9085,-3.7478,-4.7518,-6.6454,47.6648,-7.8692,0.94308,-20.6255,-11.9779,-2.1834,-10.6358,1.368,-2.1338,47.4526,
-4.8196,-10.5824,2.5919,-0.19541,30.7049,-8.4053,-5.1638,-10.311,-3.1914,-3.0606,0.08656,10.3629,-2.0058,50.6558,
-5.035,-10.4521,-6.135,-2.7047,14.7626,-17.4815,-2.333,-8.1805,-0.47891,-7.4155,-2.4397,1.1687,-9.4495,39.0441,
-10.7837,-7.808,-19.8669,-10.6107,16.3603,-13.4075,0.83219,-8.6984,-2.4671,6.1398,-5.3194,-8.9861,-1.8235,31.6588,
3.9633,-10.8693,-21.215,-15.5203,23.9515,-10.0815,-0.73009,-13.7227,2.2189,13.335,4.5808,-10.9684,4.8423,35.3065,
17.8255,-8.1997,-5.8421,-19.6311,14.4467,-20.57,-5.7284,-19.9589,-3.9646,1.4415,5.3142,-10.3103,-3.517,35.2055,
12.2556,-10.7329,8.6084,-20.4702,10.5547,-15.3015,-1.3513,-13.7187,-3.7262,5.3894,-3.072,-4.6491,-1.2881,30.068,
8.9987,-19.67,-0.44328,-11.6793,18.4933,-9.8454,2.2596,-17.4336,5.0683,10.6123,-1.3753,2.1852,2.318,28.7671,
15.5183,-10.422,2.609,-6.9447,14.3581,-20.348,-2.9181,-23.4471,-2.2944,-4.1245,2.7411,3.0623,-6.897,26.0328,
10.5533,3.3141,5.4781,-6.5271,11.4801,-16.1015,6.3329,-8.9295,0.86892,-9.9464,1.5684,-0.14704,-1.4402,29.5139,
-4.1799,-2.936,-8.9506,-8.1528,12.8078,-7.0677,2.9273,1.6905,1.825,-5.3157,-8.6109,-3.1639,-1.3547,29.7596,
-17.563,-10.3235,-18.0137,-9.177,9.5178,-11.1826,-1.7863,2.0932,3.2279,-0.45879,2.4951,9.6317,5.282,31.5037,
-15.5001,-17.7718,-7.8559,-17.7023,-4.1632,-16.5619,0.33829,-3.0745,7.0681,1.5862,12.4305,8.0456,12.0246,31.6309,
-22.1332,-13.1762,1.1878,-9.077,-3.4097,-11.0298,6.8729,-0.36898,9.165,6.0285,12.1883,-4.0342,6.7646,36.288,
-26.8565,-7.3426,-4.9348,-1.4729,2.8461,-13.3936,8.477,-5.3889,7.6069,6.676,13.4745,-8.8342,2.3249,30.0759,
-18.1861,-6.9025,-15.7316,-7.4353,2.6759,-13.5987,1.9176,-13.1338,3.1161,6.2749,4.5978,-6.2873,2.1859,23.2297,
-9.5308,-3.9673,-4.1989,-7.4929,1.0025,-8.2443,0.28969,-8.8156,2.4255,9.4287,2.8091,3.6706,7.6014,26.3744,
-12.9928,-5.7457,10.153,-6.0351,-1.0751,-12.7918,-0.73592,-8.2866,-1.7539,2.8117,2.6405,5.4668,1.094,18.7406,
-10.1963,-2.3758,17.6302,6.4282,7.0577,-13.033,-2.7087,-4.7643,-7.6995,-2.3996,-3.5687,0.09619,-6.0316,17.6157,
-13.6189,-13.3272,17.5811,10.0769,-0.42581,-14.2679,2.4954,-6.4963,-4.2123,7.829,-7.389,-3.9439,2.3985,18.5757,
-16.331,-19.0825,9.9713,-0.10832,5.1464,-7.8652,1.8421,-10.644,-7.4898,5.8465,-11.4831,-1.1853,4.7757,16.9575,
-1.2512,-3.8375,10.8853,6.4536,18.9377,6.7068,-3.8147,-3.45,-9.561,-1.0588,-4.2387,11.4916,-0.048868,30.0401,
4.8928,7.5047,18.8046,17.6634,4.7101,6.3229,-8.1243,-6.7732,-7.4745,1.5258,-1.4634,4.2471,-10.6347,36.324,
-1.4511,4.0297,29.7779,25.6805,5.4367,-3.1324,-3.6029,-6.3659,-2.9922,-0.58219,-10.4515,-10.1077,-7.9792,20.0446,
3.1735,9.3346,23.4528,12.5417,19.2105,0.58479,-0.86569,-6.4885,0.71663,-14.1627,-14.3629,-23.6012,3.0883,8.234,
1.4707,9.2787,12.4655,1.2009,32.1579,-6.0047,-3.3343,-10.6372,1.1787,-10.7914,-4.9293,-12.1376,6.4328,17.321,
-11.2233,-5.378,4.1539,-1.3927,16.1284,-5.1413,-1.6219,-9.4949,2.6203,3.9561,-3.1212,-7.8796,-4.5425,25.8619,
-9.0375,-15.1586,3.4006,-5.8471,22.2378,6.7647,8.0555,2.6723,9.0176,13.822,0.59586,-5.8945,-4.774,29.8564,
-6.4783,-10.2157,-1.846,-9.5307,35.0035,-2.7167,-2.5125,-8.5819,-0.599,0.89153,3.5862,-3.5238,1.5632,23.0234,
-12.6446,-9.0982,2.8032,-5.4286,19.3084,-8.1004,-5.8911,-22.167,-1.0677,2.3509,3.8747,-1.7996,7.0161,20.1292,
-11.8859,-12.5861,2.635,-7.1203,5.0391,-3.5805,-0.49549,-13.2919,5.0467,6.2427,-3.4173,-4.7173,0.54387,15.8958,
-5.1219,-5.7802,1.4682,-13.7521,12.804,-2.3579,2.5594,-11.4856,10.7947,0.82654,-8.2539,-3.4255,-2.5139,10.9077,
-1.2844,-2.9123,7.935,-8.3895,17.5825,-9.7796,16.0203,-17.3514,20.7368,1.2806,2.8301,-5.741,9.2339,11.766,
1.8183,-3.7458,7.4589,5.2247,6.4433,-15.2432,10.017,-14.2929,11.4249,-1.8209,-1.3735,-14.4726,3.6378,9.0436,
12.8022,-3.5215,12.054,14.9959,2.0224,-7.2695,-2.6852,-14.4441,-3.3606,-12.8056,-15.3911,-15.6211,-8.6816,0.43276,
23.6315,8.2882,25.4307,21.6598,16.001,0.73028,5.0396,-9.0394,-5.6991,-13.5496,-14.9903,-19.2219,0.41114,6.9622,
21.2054,9.8074,25.4363,9.2668,13.5477,-10.4069,11.7957,-5.4714,0.69415,-8.7027,0.0090817,-20.086,9.4625,10.5783,
19.9321,-3.8919,12.8167,-5.3892,-1.3652,-23.8825,9.0715,-13.2118,7.7111,-2.1302,6.0779,-5.771,9.9029,-0.14153,
13.6941,-0.6327,14.0642,-11.1362,-4.328,-17.4265,6.5098,-10.4017,9.2649,5.0571,0.67017,1.6348,8.3005,4.9091,
-1.2275,1.9258,6.6659,-11.9804,0.46968,-10.8337,8.6408,-5.2396,5.1802,0.21569,7.1854,-6.0269,7.2984,18.7145,
-3.694,-2.2231,0.2151,-14.2867,-3.5919,-9.175,8.1218,-11.9843,5.8771,-6.8563,12.8051,-3.6483,-0.19952,23.1574,
10.6276,5.978,14.3022,0.67051,5.6996,-4.5906,-0.43322,-12.2735,-7.5854,-10.4788,-2.0632,0.60443,-9.2635,7.6679,
17.5727,12.1748,27.0771,14.7303,13.9295,-3.8111,6.1482,2.5629,-8.6426,-6.3203,-12.5468,-1.9534,0.87334,7.6939,
2.9034,0.85498,11.3525,4.8076,-1.0063,-10.1378,5.2752,-2.6148,-4.5943,-7.4544,-4.2304,-1.3311,-0.69237,21.3323,
-9.8761,-4.743,1.5758,-0.019319,-8.024,-14.0671,-4.6219,-16.558,-2.8058,-6.5025,-4.4811,-1.7558,-6.1975,16.037,
-6.2579,2.6011,13.5838,9.0588,6.5575,-15.2404,1.7067,-8.0194,4.4221,-1.0703,-4.2123,-12.7439,3.2513,1.9649,
4.7059,5.9748,2.1795,13.0523,13.7467,-15.8393,7.1505,-1.992,-0.3822,-2.5184,-10.5149,-13.4925,-0.47357,4.3676,
18.5236,11.6671,-8.0359,17.3117,10.9049,-3.7951,9.7467,-5.9069,-5.4019,0.65787,-7.8671,-3.6065,-2.4631,18.2056,
11.3809,12.984,-9.5707,14.257,16.3015,3.4926,-1.9311,-6.5602,-15.1615,-4.4232,-0.33508,-7.4235,-2.3138,10.0728,
-3.402,2.6239,-4.4585,0.79492,12.8018,2.778,-2.3203,2.4053,-9.7148,-1.6373,3.2138,0.58551,1.3538,-4.6316,
-6.7472,-6.609,-1.1658,-13.3528,-0.067413,-8.4816,8.9128,-6.8155,4.9681,2.4953,7.0554,-0.45832,9.3408,3.1914,
-0.79514,5.385,0.41745,-14.0825,2.4572,-10.4942,3.8401,-13.9702,9.2276,-3.2016,13.1874,-14.5308,4.2414,9.5543,
-7.3028,2.5404,-2.1291,-8.6996,6.8487,-6.3348,-0.92833,-9.6022,3.1277,-1.4962,9.8747,-14.6862,-5.5932,0.4092,
-7.8739,-8.7054,7.0746,-10.195,12.4881,1.1048,6.1859,-6.0004,4.9565,5.6522,2.2227,0.29493,3.8184,4.4185,
-1.3497,-7.1744,13.7101,-11.6003,13.7558,-1.9867,8.8409,-9.6738,7.6843,-0.73778,5.1154,-2.7289,8.6319,7.1795,
-5.3026,-7.7521,2.8023,-18.971,-1.1696,-13.9691,4.2766,-18.1698,9.2406,4.3496,14.8937,-9.6247,-0.96201,1.7067,
-0.44689,-5.7752,-3.9207,-14.3044,-7.6734,-10.6109,0.48974,-15.5678,4.1477,15.6856,11.478,1.5416,1.6168,-3.9434,
12.6907,-4.4195,-5.7029,-4.3692,6.887,4.1258,1.4695,-9.5911,-5.1771,0.64447,0.70514,-9.6443,5.5536,-6.7315,
14.4508,9.9457,-7.8813,9.9929,20.5738,17.9782,2.8937,-0.44285,-6.3788,-13.0272,2.1752,-9.5688,-3.3515,7.7724,
7.5325,17.9389,-16.4854,23.0264,25.9319,23.4921,-9.3815,-4.4511,-8.0135,1.8544,-0.98098,-0.92787,-11.2181,13.8786,
12.1231,10.8127,-18.5214,14.5857,17.317,18.0492,-9.8274,-8.2174,-5.5158,8.8212,-4.9555,0.13651,-2.4768,5.9878,
10.387,8.147,-11.3593,5.6424,12.2445,12.9328,-2.1777,3.3685,-4.1761,-5.808,-5.6669,7.1874,-2.3287,14.704,
1.191,4.1284,-4.1223,-0.2424,-0.088594,-1.9432,8.5413,7.7044,3.6371,-1.9493,2.2368,6.252,-4.7105,17.3515,
3.1369,-0.15314,0.15888,-6.2792,8.9937,-7.3918,10.0462,-1.8338,10.4784,12.2676,2.1026,5.8769,2.6317,4.2088,
-3.6062,0.35969,-5.3974,-13.4656,10.9751,0.61484,2.8876,-4.2449,4.303,12.0543,-2.5621,14.0957,1.9692,1.4352,
-9.4402,0.3381,-4.0653,-9.632,-3.7834,-2.4477,9.7738,0.043703,8.0797,3.2642,3.6429,17.2848,-1.1737,4.3748,
-9.3779,-9.2623,-0.29161,-11.5756,-17.1894,-16.4008,3.6412,-8.5308,5.0734,10.632,-0.10539,8.684,-0.59913,-4.4596,
-3.2699,-13.2455,5.2721,-13.4026,-10.6118,-16.4441,-3.1327,-12.5579,3.2556,19.5742,0.40505,4.6332,8.0087,-6.7135,
-7.1067,-9.4242,11.0071,-5.5389,1.1183,-1.3574,0.080907,-2.7275,2.0521,7.3063,-2.6449,4.3552,2.4861,-9.3364,
-7.6885,-6.8422,12.3641,0.84472,-8.0248,-2.2652,1.0843,0.46182,-3.1131,0.81761,-4.5027,1.0683,-7.7483,-3.7331,
1.3442,-7.9445,14.1433,-3.7444,-13.09,-11.7098,4.5495,-6.1208,3.6286,5.307,6.3563,-2.5251,1.289,1.0284,
5.8025,-0.91245,8.7567,-0.99824,1.7954,-7.4775,-3.2871,-8.2751,-4.1528,-3.5842,0.4287,3.1726,0.70751,-3.5713,
5.958,7.7146,-5.3832,13.1617,3.7236,-1.4821,-9.6448,-2.2319,-9.4503,-1.8563,-9.1776,10.5464,-2.8652,-0.83598,
8.122,6.7476,-12.6238,14.407,-10.1147,-0.88908,-5.5364,3.4482,-1.3197,5.8187,-2.0725,4.3664,-0.17173,0.72748,
8.6429,4.3254,-14.892,4.4666,-7.4904,0.17249,-5.2042,-2.809,-3.2569,4.4613,-5.9811,3.0962,-3.1861,-4.3583,
10.6459,5.5782,-6.4349,0.66882,1.5309,-0.34197,2.6707,-2.1363,1.4765,11.7573,-1.0852,9.4658,-0.47438,0.44025,
5.9728,-0.80635,-9.0739,-1.3882,-2.5944,-7.3805,-3.5394,-4.0251,-6.6794,-1.0503,4.0225,-0.17857,-7.505,-9.6699,
9.1442,-4.2877,-8.0254,7.2669,2.0993,7.1623,-9.8824,-3.2795,-7.7919,-10.5673,3.2771,6.3876,-8.568,-7.5774,
12.6294,-8.0643,-2.5018,-2.2451,-4.078,11.2896,-11.3059,-1.0653,-1.2731,0.15187,0.055752,11.0464,-4.019,3.9707,
14.8973,-6.5723,11.7483,-16.2104,-10.8928,-3.4878,-4.5772,1.0151,-0.18851,-2.8838,4.0853,-3.7164,0.25501,0.7068,
17.5332,-7.6912,25.1434,-19.7948,0.35004,-11.8694,6.2857,-4.592,-0.68131,-15.3166,10.3956,-13.0925,2.7612,-7.9075,
21.0192,-7.7339,18.6299,-10.0352,8.9009,-5.611,-4.6797,-3.8124,-6.1876,-10.8678,1.2,-10.7946,-5.9763,-7.9381,
28.3304,2.3107,15.9992,3.1731,7.8623,4.3062,-13.9795,10.5163,-9.3456,2.3905,-6.4361,-0.56639,-8.1388,-2.9233,
18.5619,-4.8874,7.9798,1.9745,1.3402,1.0222,-10.1151,9.3998,-11.8105,2.2471,-5.0408,3.5015,-5.634,-1.7397,
7.3639,-0.5603,-3.5924,9.9238,4.2854,7.0122,-7.4918,5.8102,-8.0763,2.1122,1.312,2.2832,-3.2785,-4.66,
9.9473,9.558,-10.4359,14.37,1.0022,4.5735,-6.0335,5.4611,-0.53264,-0.03144,1.2328,-3.9046,-3.0823,-18.4804,
20.4443,8.985,-2.7498,1.4066,-3.0914,-4.7764,-7.6885,-3.9421,-2.5176,-4.0629,-7.9166,-12.7468,-6.9308,-16.3814,
29.3023,7.4372,11.5152,-1.7029,5.1614,6.6031,-7.2276,4.3617,-4.3835,-1.8032,-4.4165,-7.9477,-1.4733,-3.2974,
20.4847,-3.0932,-3.2757,-1.6008,-7.249,6.2069,-11.8361,8.1348,-7.1452,-8.7536,1.8998,2.6134,-4.4096,-16.2094,
16.735,-1.3953,-17.1791,1.0168,-4.2934,1.2965,-12.6383,5.1252,-6.2124,-7.7242,3.2982,6.9955,-7.6748,-11.7071,
21.7813,-2.3198,-5.5786,-3.079,10.0642,7.2691,-7.8461,1.7921,-3.8232,-3.2269,1.0828,2.541,-6.206,0.087763,
17.4492,-1.1719,1.8161,-6.9277,7.4624,7.8426,-4.3502,0.67583,-4.6025,-6.0585,-0.9981,2.389,-6.8424,-8.993,
15.8977,3.4359,-5.857,-7.0157,-7.0853,-1.2003,2.4658,3.1563,2.2296,-7.2078,-0.43458,1.7411,-3.9098,-6.9406,
17.4649,0.7087,-7.0184,-9.1158,-1.6362,-4.6576,2.8224,-0.56233,2.5994,-6.2707,5.1382,-9.9604,-2.1624,-0.97746,
14.4,1.6749,0.46175,0.50668,2.4954,-0.34472,-10.4573,-2.5455,-7.6412,-8.9206,5.8386,1.7301,-4.0506,0.088933,
6.9806,1.0703,-2.0865,8.0399,-11.7543,-11.9215,-12.3514,4.1626,-4.6612,-4.8556,3.975,15.7263,-6.3281,0.58771,
11.0998,5.5441,-3.4746,8.0616,-25.1491,-24.8212,-3.0374,15.5104,0.15644,1.9911,7.2663,0.68273,-3.4279,1.0566,
15.4769,12.2709,-5.2826,9.5953,-9.5401,-25.3484,-0.83874,6.511,-13.9529,-8.2135,2.7964,-13.4582,-3.2222,-10.0993,
13.5395,10.526,1.0851,10.0274,5.1323,-18.7858,8.288,-1.9469,-11.1179,-8.7294,-0.39655,-9.6437,2.0137,-7.4773,
15.2487,7.3729,8.5837,1.8621,15.4131,-13.1197,4.261,5.7336,-4.9036,-5.6841,-0.87687,-3.5188,1.3888,-3.4989,
21.3928,11.9731,14.1195,-1.2748,19.53,-17.3751,-5.0711,10.4312,-3.6017,-7.36,2.2009,-13.3924,-0.71147,-10.348,
18.0918,15.2886,15.2888,2.8356,21.3838,-27.426,-1.7412,-1.2881,-4.3938,-5.9102,-2.9732,-9.5632,1.3477,-9.7272,
9.9468,10.3374,18.4053,5.6911,9.0074,-26.7887,3.4054,-5.2447,-10.1815,-9.5894,-5.8205,-2.9391,-6.8009,-8.1353,
10.8633,6.1874,24.8646,-2.214,6.9546,-20.6434,5.7226,1.6254,-2.006,-4.4761,0.075909,-13.351,-8.9135,-8.1513,
10.212,9.8505,15.3055,-4.0981,2.5039,-21.4217,-0.67159,-0.48906,-0.87787,-0.17315,-10.0133,-19.61,-4.3452,-7.6617,
10.1024,13.7965,6.8235,7.7453,1.8486,-15.5984,-0.12718,-0.96383,-7.3806,-6.7182,-12.9433,-13.8954,0.45345,-7.7071,
11.5142,10.9527,3.3889,9.2975,4.7638,-4.5769,2.9056,11.1961,-6.9373,-9.3402,-10.1488,-11.0438,6.478,-9.2607,
10.8233,11.3038,0.15995,9.7479,-0.5641,-7.3279,-6.3447,14.5582,-3.4954,0.29615,-13.5737,-12.3986,1.0463,-3.6629,
12.1899,12.6425,-2.8758,16.222,-3.5564,-8.9061,-11.0066,-0.41528,-4.2944,1.2871,-17.8028,-18.7146,-13.1165,-3.4436,
25.5585,23.4819,5.8691,23.8211,10.757,5.7282,-1.7739,1.1039,-7.566,-3.3286,-12.1952,-19.1036,-13.8609,-6.7663,
35.1374,21.5684,9.0472,8.7774,24.2116,0.36148,-0.1546,4.5669,-7.6166,-4.6417,-6.926,-14.4281,-1.4313,-10.8988,
21.9358,17.2487,-0.57256,-2.8417,10.6953,-8.7362,-3.171,0.25905,-2.1166,-1.3376,-2.4766,-11.545,5.7141,-9.2357,
8.5175,17.2225,-10.6229,-4.6891,-4.0464,-12.2464,-3.9894,-5.8073,2.0438,-3.2742,-2.3285,-21.9462,-2.6969,-6.6655,
6.9987,7.1127,-12.0025,-18.5078,-16.9325,-24.6219,3.3099,-9.4923,9.9894,-2.0691,-1.1791,-30.7132,-6.5695,-6.2651,
7.0829,-0.87774,-8.7608,-31.4973,-18.4381,-28.6908,-1.4276,-5.3939,7.8767,5.6187,-1.6134,-25.3416,-4.662,-2.3595,
6.6579,4.217,-7.2269,-19.0558,-20.3574,-24.9529,-2.3502,-2.0446,7.4041,19.3816,4.5347,-9.7211,-2.3658,2.8242,
6.2585,-0.069864,-11.8354,-12.8694,-24.1781,-20.4301,3.8421,1.1037,13.0112,18.2368,13.3386,4.9622,-1.2156,3.6639,
2.8578,-3.0908,-14.1504,-11.0885,-11.6345,-10.1278,-0.42276,5.0709,7.1879,3.0426,6.4875,17.8119,-9.21,2.4354,
0.1648,-1.393,-7.7552,-3.8687,-2.3646,-10.0252,0.10672,11.322,5.2434,14.439,5.5941,9.1796,-3.1112,4.8098,
-3.879,0.70796,-7.2899,-0.61097,-16.3227,-16.4823,-1.9161,15.6848,-0.11335,13.5726,6.2667,2.5785,1.1094,2.5048,
0.89176,7.2199,-5.3401,1.9463,-17.8829,-1.3933,-0.28883,17.2652,-1.6189,-1.3417,2.3609,7.97,-3.4952,-1.1752,
-4.2034,6.7872,4.0567,6.8721,-10.7591,11.3146,-1.2802,9.1703,0.49518,-15.3612,0.20232,8.5005,-8.3271,-6.1473,
-10.0025,15.456,9.8646,20.5597,-5.0715,11.6439,-1.2034,10.6365,-3.5684,-7.9218,6.2415,11.0161,-4.8028,1.281,
-17.9747,15.0332,4.7343,11.782,-7.2883,8.4252,7.4412,12.5203,-9.9092,-6.9419,3.3459,1.7828,-1.9926,2.717,
-19.4167,16.6527,-1.096,1.4941,2.7301,6.4064,17.584,15.2989,0.26542,-12.0716,4.6575,4.1974,2.665,2.0499,
-19.765,21.1998,-6.5774,1.9085,7.1043,-8.078,7.9561,10.8502,2.771,-10.8432,3.874,10.5,0.99175,-4.6285,
-25.1341,17.4067,5.4143,7.3407,-7.422,-16.6888,5.9659,3.6443,2.1002,-6.6633,-2.9144,-4.23,3.4533,-5.8636,
-33.2066,21.9081,19.1894,21.0003,-21.0767,-5.0987,18.2142,11.997,9.5373,0.29144,-0.21749,-12.063,9.801,8.5882,
-45.3142,15.5515,5.4509,17.2373,-33.9121,-9.8349,9.0536,13.2946,8.9651,-7.7938,7.8633,-0.24585,6.1873,6.5791,
-45.1354,9.0717,-8.9762,5.6143,-45.548,-21.85,-3.0867,15.018,8.9318,-1.7795,7.8951,6.3248,2.2868,-4.4054,
-42.931,7.0155,-0.38796,4.7738,-28.7151,-12.9759,-0.38041,18.6554,6.883,10.9335,-6.6786,4.4325,3.6624,7.4569,
-36.3217,1.552,8.7118,8.5207,-12.8922,1.9027,3.6758,13.5027,0.41924,3.2175,-13.8596,3.1578,-0.59073,13.0603,
-20.0424,12.0472,16.7609,21.6235,1.9814,13.4046,-2.091,11.1792,-5.1531,-2.5218,-7.4818,10.532,-5.0942,8.7469,
-10.2485,9.3084,15.7558,13.268,8.9786,6.5504,-3.9824,6.4751,-7.8681,5.6978,-9.0488,11.917,-2.7707,7.2144,
-23.7336,-3.3527,3.7161,-1.6281,1.3794,-1.9113,4.3243,4.0691,-6.3888,11.4062,-9.5151,11.202,0.42025,2.7467,
-34.9348,-11.7229,-7.0947,-15.6304,-0.21518,-3.3094,1.5437,6.347,-2.4752,0.13306,-7.4314,16.0766,-5.1507,-6.9977,
-31.83,-7.9944,-11.7116,-23.3025,0.80548,-6.136,7.5019,9.9996,8.7662,-0.88363,-4.9686,11.0776,2.2174,-2.5445,
-15.8202,6.5853,-5.4627,-17.3664,-0.7552,-6.272,19.6576,13.9376,13.7874,7.7412,-5.1746,-2.1928,15.6983,11.7082,
-0.771,13.2678,8.965,-10.7782,-13.3166,-12.4511,16.9658,14.6137,14.4725,7.7809,0.68213,-2.5653,15.2605,14.0494,
-8.2517,-1.6283,13.4878,-2.5674,-26.6176,-19.2681,7.3755,13.2323,11.0831,8.8269,5.1797,-3.9242,7.789,5.6433,
-21.8566,-7.0958,-1.4215,4.6457,-39.1205,-6.0099,-1.1353,11.4306,4.3673,2.2464,-6.225,-16.7991,-1.7538,-2.7635,
-6.4452,0.38991,-8.4138,6.3848,-35.2966,8.4507,1.959,12.7617,12.1735,2.1121,-4.8418,-5.7055,2.3857,0.42841,
4.0271,-0.6422,-0.84992,4.993,-35.1967,4.937,-2.1929,7.9626,5.3923,-2.049,-2.5344,4.7215,-3.8082,1.4114,
3.7845,7.4641,10.2945,12.7603,-20.9833,9.6829,2.9807,9.5013,-0.98253,3.1161,2.6588,-6.6561,-8.6228,-1.6999,
3.5584,13.0675,12.7025,13.0038,-15.6895,16.1624,3.8111,8.9312,-0.92358,9.9896,-0.52538,-10.2897,-7.0962,-3.6134,
-0.68943,9.2583,2.8638,14.2405,-28.8481,15.1922,-6.5023,13.4379,-5.9107,4.3476,-14.5939,4.4277,-4.6535,-0.37141,
1.8735,0.12999,-9.9137,8.8481,-41.2172,10.7509,-2.5824,15.1532,-6.0602,0.55702,-12.2244,8.7186,2.1801,5.1971,
11.3412,1.6345,-11.8404,-5.7828,-36.7653,3.5504,1.1014,2.6455,-2.1668,5.0616,-0.9017,4.6657,3.5617,4.3812,
7.1314,12.1262,-8.609,-5.4553,-25.9871,3.841,-6.5279,-3.0599,-1.5332,5.2615,-2.3604,6.9068,7.8864,-0.42019,
5.6953,15.4325,-7.0832,7.9828,-24.4278,11.6793,-4.1188,8.2171,3.6019,-7.1558,-7.2609,-3.5918,11.4471,-1.4032,
6.8659,2.9081,-7.1633,-5.1029,-31.535,2.4057,-1.3511,10.2456,-1.1532,-19.3322,-9.3468,-17.4763,-3.3397,-5.858,
6.9586,-5.8378,3.8563,-18.8967,-34.1804,-9.3357,5.2849,9.1263,9.5058,-4.0722,1.8028,-18.4637,1.8842,3.0659,
2.0031,-2.966,5.1372,-20.8061,-30.6168,-14.3217,6.4811,10.092,17.5073,10.2721,6.2336,-5.7584,15.8712,10.4455,
-7.1945,0.23716,-5.2557,-21.5747,-25.7541,-16.4886,3.0661,11.5034,11.4142,19.7781,4.8509,4.6718,13.4251,4.7762,
-13.8219,1.2316,-9.9829,-10.1955,-20.1755,-7.431,2.8826,12.8301,9.7207,21.6165,1.5337,13.468,6.5688,-0.55197,
-16.5224,-0.35556,-10.8963,2.0137,-13.4187,-1.4389,-3.8457,5.5049,1.5738,7.7138,-6.1219,13.164,3.6531,-2.0322,
-12.0008,-5.8809,-8.7297,-2.6456,-14.1255,-6.8993,0.92349,3.6618,6.0178,3.7207,2.8177,16.9117,9.9898,2.6282,
-19.8536,-10.0661,-8.711,-3.9992,-23.8672,-12.0316,-0.64522,6.9719,6.1609,11.0611,4.161,16.4011,4.8515,0.95725,
-23.1999,-1.898,-5.6663,7.8378,-28.9901,-7.7794,-11.1944,5.0407,-2.7801,5.86,-5.6683,9.8713,7.0824,0.39618,
-15.2529,-1.2795,-0.78788,7.8721,-13.1507,-0.75774,-5.9852,5.2429,0.91594,-0.038345,-4.8245,1.7159,12.2042,4.9109,
-16.8583,-5.7417,-1.2457,-2.1803,1.7383,0.80007,-5.122,4.4242,3.3825,0.46807,-6.0474,-3.9343,3.9083,2.0947,
-22.9068,-9.4315,-4.1961,-1.0417,-7.4058,-2.2741,-3.8059,3.15,2.1709,0.43951,-3.6686,-10.7582,4.6815,-1.0571,
-14.4724,-1.8056,-3.9439,12.1311,-9.9856,-1.1279,-4.5853,4.978,-4.0102,-11.688,0.58683,-21.2047,5.4103,-2.0014,
0.49592,12.4027,10.3928,25.5032,4.7135,13.0397,-2.7983,10.226,-4.2732,-13.5078,0.04703,-14.3867,-1.4702,4.6736,
5.5268,21.7623,20.8812,25.0008,18.5307,24.3775,1.9075,1.0406,-4.5219,-6.1419,-6.5112,-4.9516,-4.9117,2.8808,
2.1696,12.3888,22.653,21.4833,25.5232,21.9067,-1.2316,1.9864,-6.2671,2.2944,0.939,3.4142,1.4343,4.7244,
2.5445,7.1075,11.7137,21.7076,23.4877,12.0204,-12.7552,5.3969,-5.3869,3.669,2.396,-4.3543,-3.1898,3.9368,
-4.1636,10.2098,-1.5958,20.9083,12.4984,13.8197,-9.4693,8.6029,5.5246,5.9695,-3.295,0.44497,-0.47783,5.213,
-12.9907,6.5716,-15.6001,17.6374,1.6633,15.007,-5.8755,5.0611,2.1675,2.5857,-4.1065,14.5183,-2.4666,-0.1419,
1.8887,7.6906,-13.1688,23.1345,13.161,12.5942,-1.9932,1.2276,-2.4996,1.9274,2.6963,20.2207,-7.8648,-1.6457,
15.4089,13.28,1.7213,26.789,12.3718,6.797,-4.8988,2.1627,-6.384,-0.20522,-8.5594,10.9402,-9.4089,-0.53828,
5.4084,8.4493,15.718,16.1048,-2.4705,-7.7109,-6.6223,8.0833,-2.9753,6.8657,-16.1136,2.215,-4.8114,-1.5152,
4.0756,4.9176,12.7951,1.0385,-16.4222,-16.3432,-6.2249,5.5818,-0.77934,9.4794,-8.0872,-11.0277,-1.4971,-5.4572,
15.9323,8.656,7.9931,-0.051581,-1.3369,-1.2626,-4.8427,0.20431,-1.7423,0.84237,-0.54295,-7.3409,-2.416,-3.1138,
10.4383,-5.9634,-4.084,-0.55164,11.3305,12.9131,0.99404,-4.3459,0.88382,-5.7626,-1.0145,2.6806,-3.7834,-3.4311,
-1.2814,-10.1626,-12.915,-2.536,-3.4493,10.6617,5.9765,4.9908,2.8482,-4.4086,7.1141,1.5106,4.5114,1.8169,
-6.2471,-4.5103,-6.0893,-5.409,-10.3205,2.9629,2.5927,2.6744,-5.3909,-12.2114,8.7042,-8.6647,10.2915,-0.30904,
8.2278,1.8107,8.3761,9.0156,4.3988,14.8878,5.4628,0.49749,-5.0675,-6.4366,4.1481,5.9551,5.6401,-3.3152,
11.2824,0.19018,20.4978,19.0825,18.2348,19.5402,-4.4455,1.9805,-15.3522,-10.5889,-6.6896,11.1636,-8.7983,-7.6547,
-0.48745,-9.9069,15.2336,17.9371,21.7159,18.3683,3.8885,10.9371,-6.3638,-10.9622,5.8129,6.4594,-6.7761,1.881,
-14.5582,-19.3967,0.21959,7.7848,6.3129,11.2149,4.6644,6.247,-3.9646,-2.2368,6.4724,4.0554,-0.31921,5.802,
-15.7212,-12.1825,-10.9051,3.2839,-8.1659,10.542,-3.6832,11.9235,-7.7606,4.957,1.0419,8.8542,0.70817,13.5216,
-0.6779,-13.4676,0.84311,2.0781,-14.7721,3.8596,-6.4874,14.2333,-5.278,-0.38208,0.9799,9.3316,2.6836,15.7355,
9.9711,-16.1898,10.3721,7.5002,-4.3052,0.097815,0.45675,4.8079,-3.4485,-2.8802,0.41651,5.2425,0.0015131,8.2365,
7.3559,-10.1758,7.7329,2.0076,-2.0299,3.1171,6.4802,-3.5488,-1.2246,2.3342,-0.61719,3.9192,1.0092,-5.3681,
6.915,-8.5565,0.20986,-10.214,4.1427,-1.1033,-2.9851,3.7231,-3.1681,3.2029,-0.57968,6.7092,2.9656,1.0048,
1.9617,-22.1431,-6.3577,-18.1735,12.4655,2.4922,-3.3106,15.0977,4.5851,2.5061,8.0274,6.8113,6.3179,15.0445,
-12.256,-31.4229,-11.0188,-27.1678,4.6585,1.3339,5.9645,7.1319,16.4121,2.3562,21.6458,5.3939,12.9978,16.6815,
-17.5905,-27.5201,-9.3494,-23.5213,-4.697,-10.8477,0.56453,1.6619,7.3597,-0.81079,17.34,4.062,10.2005,1.5806,
-2.4351,-29.9032,0.288,-8.01,0.62648,-8.1799,-3.5037,9.6304,4.9011,9.3225,7.2231,5.8352,10.5972,6.5103,
11.811,-24.5793,11.8682,-5.9985,-3.9491,2.9001,-5.815,4.5136,8.1359,4.2252,3.26,0.94616,13.4911,9.6484,
7.1056,-10.4983,5.6094,4.9512,-2.1993,7.2646,-5.9697,1.7217,1.0938,-3.5915,-3.4906,8.4535,4.1093,3.5238,
3.6546,-14.9105,-8.8271,18.7541,7.0096,15.9047,-1.5777,5.6533,0.019898,8.7256,1.7619,20.0479,-0.17014,6.338,
1.922,-20.5713,-10.8371,10.0843,5.0757,16.4628,-7.0292,-0.2331,-3.5111,5.6806,8.2107,4.745,5.3863,7.4701,
13.9088,-10.2605,3.9131,1.411,7.7963,6.3985,-2.5741,1.7978,-2.2926,-8.7603,2.6754,-5.1393,6.0709,3.9957,
16.6035,-10.1495,4.2005,-6.2378,0.77361,8.5357,-1.9151,1.1854,-4.6761,-12.7917,-10.0913,4.7497,-6.8987,-3.8072,
7.0355,-8.0272,-9.6655,-10.4006,-11.8785,14.579,-6.3381,2.6275,2.1598,2.0758,-2.9304,1.9441,-5.9806,-10.1332,
10.6472,-7.5466,-5.0517,-8.7693,-11.1658,6.6447,-0.91575,6.5028,7.0723,9.533,7.3296,-11.2834,-3.6053,-9.5261,
24.1084,-8.1015,-11.8076,-6.2252,-8.4789,5.2383,-2.8777,0.062782,-3.4367,-2.1309,-5.2113,3.4936,-6.4142,4.1558,
28.7312,-5.5985,-16.1417,-9.8861,-4.945,13.9995,-4.722,-5.9918,-4.2392,11.1063,-4.8981,17.384,3.0471,9.9572,
12.9074,-4.7589,-10.6348,-12.8222,0.89836,13.6641,-5.9515,-0.085591,-1.4638,15.9866,4.9763,2.7646,3.3689,-2.2372,
10.0974,1.0733,-9.4921,-15.5821,4.3747,13.3488,-7.1072,6.4745,-5.9135,0.92741,5.1814,10.1619,-3.3882,-0.59018,
23.5916,-0.50345,-13.4606,-21.2026,4.6163,9.0181,0.88282,3.5645,-0.012439,-1.1632,2.3499,21.1497,6.3952,10.0345,
18.1603,-10.0543,-16.1836,-21.4437,1.8178,-1.104,1.334,2.8465,-0.51581,3.4445,-0.31261,5.7807,9.5413,-0.14861,
2.9707,-10.4593,-14.2034,-21.1653,-9.3846,-1.0378,2.2622,1.6675,-3.5105,-3.8217,8.7821,6.9281,8.9688,-10.2249,
5.2954,-3.2758,-8.8128,-17.3734,-17.393,-5.513,-3.4193,-3.9793,3.256,-5.1052,14.8111,18.1095,7.9261,-9.1068,
10.5244,1.4582,-12.8225,-4.734,-13.8283,-13.7546,-17.3141,-1.2195,0.5396,-11.3538,6.3583,8.4515,-2.1291,-4.0219,
12.4135,2.8831,-24.6598,-1.9294,-5.4359,0.68468,-5.2014,9.442,-5.04,-10.1685,3.4553,4.4137,4.5531,8.8252,
13.6861,1.7019,-30.2388,-11.8978,0.9415,8.7123,5.1958,8.8765,-10.7879,-7.5409,-3.8106,-2.9097,10.3312,0.22789,
22.9501,7.6511,-14.3245,-8.1583,14.985,4.1557,0.8502,6.3265,-2.0729,-7.0885,-2.5737,-5.7607,8.7021,-13.8858,
29.6408,8.2002,0.63501,-10.6944,5.028,-0.12848,-0.21,7.9633,5.1101,-7.6724,-2.4193,-1.3812,5.1544,-9.0378,
16.7685,5.6913,-5.4168,-18.121,-7.3748,3.9136,5.8534,5.4686,-5.2812,-2.1694,-6.3085,-0.28964,2.8282,-3.4529,
1.6624,1.3164,-1.0574,-17.0333,3.1524,-6.4059,14.5796,-4.9433,-2.9474,0.98686,2.1382,-2.2892,5.6846,-7.2792,
-6.0195,-6.3272,1.5266,-17.5246,-11.1368,-20.1216,8.1577,-3.1343,3.7839,-8.6534,6.5479,5.4108,0.80457,-0.28797,
-0.11071,-8.4686,-10.162,-25.0445,-19.5631,-14.899,1.1133,10.6682,7.0871,-3.5957,4.6422,18.7016,2.2701,8.3017,
-2.6256,-10.4811,-23.6523,-32.1137,-4.2893,0.09498,5.5845,1.4562,0.10741,-0.85941,0.83393,11.0241,5.6627,4.2738,
0.5571,0.23249,-23.765,-20.1022,10.068,12.7136,6.2581,-3.6737,-7.9673,-3.833,-7.2834,-3.7374,4.3152,4.0178,
-0.48503,3.2437,-8.2391,-6.7949,23.115,5.9,3.8657,5.6232,-2.4466,-1.5861,-7.8551,-8.5743,1.0301,-1.2658,
0.55278,1.0321,6.3552,3.6984,13.6609,-0.50389,-1.4088,4.2771,-3.3086,-1.4905,-4.3576,-5.0337,-5.0815,-8.2489,
14.6196,1.4743,18.6168,2.9715,26.9412,-2.9952,-3.8458,-7.5771,-10.6737,-7.9564,-3.593,-10.2788,-11.332,-0.19129,
20.8205,-1.1352,14.9787,-3.7618,29.3772,-4.3283,4.9573,-8.6353,-5.4948,-4.958,8.2205,-7.1411,-6.1146,5.3669,
5.4713,-4.0922,2.9871,-5.553,13.5146,-4.0691,5.6685,-7.1084,-3.1482,-3.6518,8.736,-1.67,-9.7811,-9.0551,
2.0993,2.2041,1.7991,1.8392,12.6846,-1.808,8.3536,-4.665,5.108,-0.40753,5.1857,-2.5785,-9.1947,-5.5052,
8.0241,1.0632,2.6999,-9.364,26.0236,-5.7329,0.79333,-8.4185,2.7855,3.6513,5.8833,-4.4398,-6.6261,0.87687,
0.98776,-8.5812,4.0507,-21.4084,18.935,-9.9274,-8.8348,-10.4344,0.096399,5.9533,11.077,-2.6615,-7.7414,0.31966,
-0.08021,-12.1007,4.8164,-19.1152,5.6968,-8.3231,-1.2457,-7.7924,10.1753,2.5699,10.4119,-1.4931,-5.26,0.3,
6.9832,-5.3234,-3.5403,-7.8831,19.455,-1.7733,-1.171,-5.3074,2.5053,-5.652,-4.3128,2.6303,-12.0039,0.282,
13.6237,1.0473,-8.371,2.6741,32.3877,6.4008,-2.1089,3.0788,-2.6872,6.7897,-2.0557,16.5725,-20.3596,5.3081,
7.7642,-2.0411,-16.9447,-3.5367,21.4055,-4.0674,-1.9824,-2.1481,-4.5424,3.3567,5.1272,12.5716,-23.1719,1.964,
0.74291,0.60285,-17.4404,0.20526,14.574,-7.3532,3.6828,-5.5489,1.2764,-8.4422,7.3411,-1.7977,-15.2262,-2.6918,
-12.9156,-5.9887,-8.8303,8.7648,8.1534,-3.3822,2.9577,-2.6945,0.69568,-5.4142,4.3791,-10.2617,-15.825,-11.1022,
-18.192,0.42093,4.8094,11.2636,-0.40357,-0.15363,-2.2619,-1.5246,-1.3635,0.961,5.1246,-1.5782,-19.9185,-7.4114,
-11.5533,2.9172,11.0752,3.0242,-2.9009,-13.7593,3.42,-10.0059,10.3158,-0.60996,7.3386,-1.9876,-10.1516,-1.4195,
-5.3134,-2.8045,4.865,4.3555,-1.214,-21.5061,12.7954,-9.9092,17.261,-0.06877,10.4276,-12.4572,-0.97012,-5.8728,
-12.0541,-0.61884,2.5557,10.1455,2.8927,-11.1388,2.9517,0.77051,2.1253,-5.1067,10.8111,-2.6338,-6.9622,-5.5204,
-16.3734,5.4691,16.5023,8.5281,7.7617,-0.3858,-10.3357,2.7412,-12.1022,-5.8091,1.086,7.6089,-10.5789,-1.1548,
-12.87,7.662,14.0179,12.5548,-1.2763,2.1584,-9.211,1.063,-6.8752,-2.9395,-8.5597,3.6231,-14.4826,-7.6414,
-11.5932,2.6638,-0.92314,17.3473,-13.806,3.5417,-2.1034,5.5377,-1.9252,-3.2677,-3.5086,10.9689,-14.1182,-1.6363,
-12.4099,7.0429,8.1906,23.871,-3.3966,13.9185,-1.4731,16.8039,-4.3302,-5.5922,1.2408,17.8754,-9.7404,12.5619,
-14.1869,13.1748,21.7992,32.0189,6.3873,12.5783,-2.897,16.2988,-5.5837,-3.7443,-11.4394,18.3152,-9.6611,8.8016,
-16.865,-0.2219,14.4585,25.5602,-8.0959,-2.2764,-0.20216,1.2209,-4.7441,-0.99765,-8.2319,11.6696,-11.6025,-5.8265,
-6.7776,3.8258,12.5823,25.0344,-9.1415,6.414,-1.1987,4.6583,-10.5103,-4.9721,-1.6872,-3.1306,-12.9233,-8.0165,
0.18403,17.6962,21.4079,25.0451,-0.020703,20.1291,-0.62223,14.9686,-12.4007,-12.237,-10.1583,-9.5172,-12.6515,-2.9971,
-12.4323,11.6104,13.5685,10.9362,-14.1195,32.0503,1.9362,8.5238,-9.1356,-8.9817,-11.0617,-7.4334,-13.4052,-13.407,
-14.712,1.8378,10.738,18.3487,-19.8463,16.0273,-0.19743,0.95283,-8.5875,-4.4089,0.69544,-7.9956,-13.6091,-8.5677,
-6.2652,0.21473,17.6568,30.8623,-9.074,18.5768,2.3364,1.4003,-8.5759,-4.649,1.1583,-8.0195,-7.2459,0.5177,
-3.8728,11.2952,19.6231,24.9767,0.54646,30.5721,0.17883,11.4014,-6.0448,-8.4039,-10.0046,-4.5136,-7.8203,-4.5555,
-3.6409,21.7104,15.4196,17.4263,12.6148,30.7547,-1.8488,12.7333,-3.6652,-10.9248,-7.3874,-7.268,-19.4532,-0.24874,
-6.9512,13.8534,9.9574,16.8858,10.3456,21.3458,-0.22557,6.4231,-3.9494,-7.7478,0.61951,-16.412,-21.8148,9.3472,
-11.5763,14.0304,8.3517,20.9147,3.6745,27.1245,-1.2203,6.0377,-3.7125,-1.2326,0.58234,-6.3513,-15.4638,4.7525,
-18.4458,13.6922,1.2947,13.1049,-3.1018,34.0694,-5.6855,1.137,-2.9861,-6.7054,-3.9911,3.6104,-20.0827,-7.1306,
-17.3391,8.8368,-1.8086,7.2756,-17.0157,22.9483,-10.3865,-0.94771,-4.8234,-14.3708,-4.7598,7.4276,-27.9537,1.365,
-7.7269,1.7521,-5.2299,4.3185,-24.5857,19.0508,-7.2418,5.6646,-1.0042,-3.9275,0.063742,3.4522,-22.7467,12.8806,
-16.3392,-8.4381,-16.0095,-10.0406,-14.0336,26.9838,-3.7826,4.3155,3.0899,5.3841,5.102,6.2697,-13.3142,6.0574,
-24.4353,-6.9231,-15.0484,-23.5382,-1.0904,25.3643,-0.52949,2.0396,2.904,7.078,12.8641,9.9279,-9.4902,8.7191,
-13.8927,-6.5082,-14.145,-33.2564,-10.1015,9.7424,1.5192,-1.1079,7.7724,0.60253,15.1174,-4.7678,-8.9203,3.1534,
-1.9663,-2.0844,-19.3481,-17.1611,-15.5462,4.0967,0.41935,0.97454,12.3477,0.5659,4.1257,-18.5817,-13.4286,-2.0784,
-7.3945,-5.4881,-11.6318,-6.5327,-10.0745,7.3816,-7.1694,1.4211,1.0185,8.0956,-9.7358,-3.3668,-22.202,-6.4907,
-9.977,-6.1675,3.1661,-9.1659,-7.4531,-4.1551,-1.6967,-3.7067,-1.0596,7.6103,-2.0926,0.34641,-18.8539,-11.1438,
-17.4461,0.25287,1.9865,-14.6673,-13.0572,-3.9058,3.4472,-14.5777,-2.0042,2.1106,0.049405,3.3503,-11.6714,-2.4084,
-21.441,5.2812,-10.2339,-16.8124,-15.2989,8.4306,6.2665,-14.7108,4.1669,16.084,1.0551,17.2493,-1.8946,10.8474,
-10.5739,3.4515,-9.1162,-6.2231,-12.8682,-2.664,-2.6818,-12.3153,4.4214,23.7108,2.5047,11.6954,-3.2938,1.6242,
-1.8722,8.2861,-7.5605,7.2606,-7.0544,-5.5303,-0.50398,-12.5851,-1.8956,8.1882,6.3878,0.90898,-8.1387,-7.5497,
-15.8599,3.2514,-19.7131,-7.275,-10.1605,0.34822,9.1068,-17.3767,-3.2937,-2.9114,5.5009,0.35081,-11.1797,-2.5583,
-15.936,4.5687,-17.018,-18.9587,-11.0641,-0.17679,5.0307,-11.7961,1.4419,5.8351,2.6493,5.876,-2.9462,5.1579,
-0.87988,7.3197,-8.9369,-3.7212,-19.4758,-10.2509,-0.31376,-9.0714,0.34664,1.4516,4.5073,5.5229,3.2823,-0.1932,
4.2345,2.8466,-6.3842,-6.505,-16.2908,-5.6019,11.8067,-11.5528,5.3679,-8.7207,5.2451,1.1577,-2.9659,1.8349,
-10.1195,3.18,-8.5218,-20.2147,-3.7158,1.2896,11.6024,-11.3637,10.5931,-5.6759,7.4519,-2.4415,-2.2839,3.2381,
-11.5483,2.4846,-13.5581,-23.0552,-15.0909,-7.3601,2.3339,-12.1947,11.4693,3.2361,11.5423,-1.7904,9.4502,1.53,
-1.779,10.4037,-7.702,-9.5698,-20.2353,-7.9272,6.2282,-5.4122,5.7395,1.025,4.7999,2.3504,6.8663,5.4726,
-12.261,4.2328,5.3663,-8.491,-20.5345,-7.9552,11.4012,-0.54902,5.8988,-0.54936,-0.026563,-6.362,-0.10065,2.6231,
-13.0377,-6.6095,11.5997,-3.4436,-22.8317,-7.983,13.2387,-3.0376,16.1342,13.5836,8.5469,-4.468,6.4608,2.9699,
-6.7092,1.3507,0.31447,-0.71541,-16.9238,-10.0246,4.8807,-7.3933,2.5604,14.805,-3.5625,0.33906,7.5865,3.2968,
-1.2646,8.3282,0.2956,1.344,-7.8406,-2.3636,7.6126,-2.9159,-3.6445,4.8398,-7.3836,6.369,9.1477,4.1072,
-3.7102,0.26491,-0.22625,5.8013,-8.8825,5.3409,2.6178,-7.2789,-4.9382,-4.0225,-4.419,0.43973,2.0435,-0.6782,
-6.0082,-1.2633,-0.71679,11.0004,-0.78592,2.4999,-2.0772,-9.3637,3.9299,-0.25134,-4.658,-10.175,5.4506,-3.1581,
-10.6898,2.8463,0.33445,6.3065,6.3198,-1.684,-0.94436,-6.7845,4.7024,2.7894,-6.3959,-9.5645,7.141,-1.9604,
-6.0145,6.7094,1.3226,10.9702,6.9498,11.5269,-1.8959,-7.3856,-8.6896,-4.4375,-7.0204,-1.9311,-6.3983,-5.8766,
2.9177,2.7776,2.7561,12.8331,5.02,13.3563,5.781,-9.4645,-4.639,1.3754,-3.0699,-3.328,-5.5098,-5.0194,
3.7514,7.6535,-0.43445,-0.038056,-2.3403,1.462,5.4346,-5.8705,-0.32627,8.352,-0.8678,-6.1535,4.9055,0.32432,
10.5853,12.2359,3.625,-5.0784,1.8336,6.4159,3.0916,-0.47665,-2.3236,0.79084,1.2002,-5.7848,2.5942,-1.713,
20.5395,9.9894,-4.1552,0.77256,15.8235,15.612,4.4184,-4.986,-2.6883,-3.7936,-3.4098,-4.9336,-4.1168,-8.1647,
5.6931,9.8942,-18.0059,-1.7944,8.8419,5.0952,-2.4011,-6.1992,-5.0486,7.0223,-10.7678,2.9261,-0.34007,-3.1368,
-8.7484,5.7713,-17.9533,-5.2169,-5.7886,-5.7993,4.2979,-1.2888,-0.20718,11.1394,-2.5586,9.3054,9.2609,4.6145,
-8.7467,-1.635,-2.7761,-4.9034,-9.9983,-5.4518,11.099,-3.2284,6.8643,-2.6393,1.6283,7.7384,6.6883,0.30427,
-7.7173,-6.0744,11.4905,-10.1559,-3.8508,-7.6458,1.8617,-5.5558,3.9314,-2.9845,2.0352,-0.28907,3.766,0.79061,
-3.7255,1.8537,5.7961,-9.0425,-0.090941,-8.6994,0.23671,2.3403,-1.8507,0.72333,7.4593,-9.8518,8.078,3.2637,
10.5981,10.8184,4.4401,5.6001,0.9237,-6.1609,4.2564,4.2173,-4.7653,-11.4207,12.0548,-8.2525,5.5769,-0.96596,
12.5028,-2.4364,4.6778,9.8211,-8.7128,-2.2615,-2.5544,-10.1358,-3.9753,-14.2662,4.7761,-10.2789,-5.347,-10.4881,
14.7778,-3.2989,5.4058,0.15538,-9.1987,11.9742,-5.4263,-6.0164,-2.7281,0.68976,1.4644,-4.6196,-0.99282,-5.8254,
14.8993,7.9924,1.0476,-7.9217,-16.7145,13.2917,-2.0751,4.4288,-10.6321,7.7265,1.3765,3.7254,5.118,0.5754,
13.5012,4.9913,-1.5368,-1.9002,-27.3092,0.89669,4.6048,1.6425,-10.4983,-3.3254,-1.2276,1.9895,4.3068,0.036766,
17.7338,4.6923,2.5898,10.3159,-18.6106,4.8763,4.3281,1.5434,-9.8689,-6.1521,-5.1874,-1.156,2.0315,-1.9824,
15.661,8.4442,-2.6082,12.7222,-6.4011,12.651,-0.97421,-0.5661,-13.3111,-5.7824,-4.8766,10.0063,-0.10733,-6.906,
15.7301,12.9801,-1.4439,13.9758,2.0503,14.918,-0.91527,1.4848,-5.4524,-6.4442,-2.5671,20.4998,7.9664,-4.4747,
28.8863,7.6628,1.1647,1.5402,3.4401,15.5358,-6.4071,1.9003,-8.6555,-4.5447,-4.9341,5.6553,4.9673,-2.6934,
31.205,0.64813,0.59023,-12.6522,-2.313,6.0313,-0.47593,-4.7696,-9.649,-2.7592,5.9508,-8.784,9.2078,-5.0538,
15.2327,4.6436,1.5635,-21.4922,-1.1655,-3.407,8.6291,-4.4829,-4.0275,-3.6024,17.6958,-13.8222,19.7482,-0.71624,
8.2494,-2.695,2.4784,-6.1027,-5.129,-5.2196,-0.96512,-5.2227,-4.7936,-7.4196,7.5576,-17.0272,12.5125,-3.6984,
21.8544,3.5185,16.4297,8.3635,-4.8217,9.1936,-9.9837,-3.9006,-5.5147,-3.9493,2.0616,-8.9456,3.6945,-7.5099,
31.6556,17.4073,28.5728,21.9617,7.5697,22.742,-6.3595,-0.6414,-3.1669,-7.7467,1.9384,-1.3498,-0.56153,-11.0937,
17.1496,2.2629,15.261,12.1278,-1.4573,7.2775,-0.43074,-6.1491,-1.4645,-8.7942,-8.7672,-12.8663,-3.0494,-11.9414,
15.1124,-10.4791,0.24529,1.3149,-15.4699,-2.7202,-7.4644,-7.7966,-5.4105,-0.19883,-17.3172,-16.1282,-6.8993,-7.19,
21.2652,-1.7826,0.21153,11.3212,-10.5259,10.5528,-9.033,0.7389,1.9736,3.847,-6.193,-2.0497,-0.43503,-1.7165,
19.4851,-0.16329,-4.3391,10.1378,-1.3225,-0.66961,-7.9869,-2.8352,3.3676,1.0946,2.7495,2.6113,4.1291,-4.1351,
30.4172,3.8799,-2.0619,14.5712,12.8569,-2.6464,-6.5,-4.683,2.1568,5.0633,3.5932,0.43668,2.8726,-0.86181,
25.0624,-2.9073,-1.434,11.1754,16.642,2.0504,-4.5976,-3.8979,3.5407,5.2636,-1.1603,-0.093633,7.2382,-1.3142,
9.4586,-8.7837,-4.3732,-3.5951,2.5341,-5.1317,-6.3377,-0.63788,-1.7143,4.9483,-3.1077,4.9546,9.8301,-3.2523,
15.9316,-7.2489,-3.103,-14.4909,4.398,-10.8746,-2.9323,1.4173,3.4311,18.7514,4.1378,1.6321,4.1977,0.97624,
25.0613,-10.8474,-1.9081,-19.6713,8.1685,-9.2134,1.278,0.32358,6.2504,21.6783,1.8726,-2.4992,1.9289,0.91814,
22.5494,-10.1966,0.22377,-13.4489,8.6866,5.4394,-5.8582,4.338,-2.1924,6.2776,-9.3331,8.7432,8.8727,2.8805,
16.1534,-2.5252,4.2442,-4.5742,10.1828,8.1568,-7.5241,1.0531,-3.0691,-7.228,0.30381,4.1847,10.3568,2.7076,
9.1339,-1.3655,0.96392,-2.2833,-3.538,-6.4326,-4.047,-7.0779,0.14074,-2.7604,10.3698,-10.1664,-2.3663,-6.5308,
11.1074,-1.7877,-1.6154,5.4173,-16.9406,-20.1467,-2.2919,-5.1408,2.6529,-5.1154,6.2178,4.5436,-7.7705,-8.6605,
19.5164,2.353,-0.50981,14.1687,-5.8395,-4.8379,-4.1713,-0.799,2.4942,-5.8172,-1.2143,18.371,-9.3212,-3.0992,
18.85,8.7677,-6.0259,14.8314,5.0997,3.5011,-3.4164,-1.2547,-7.2361,-2.9471,-7.6963,5.1862,-11.283,-1.4005,
19.736,7.2329,-0.62178,16.9667,2.7768,-8.8101,6.8732,4.8704,-5.7941,0.25491,-6.2268,-2.185,2.5034,1.7087,
24.6021,0.74765,5.4659,15.9487,2.6101,-10.2989,1.4187,6.5956,-0.40343,-5.8107,-6.8614,-6.0878,1.3449,1.6062,
22.1178,4.7367,3.1214,14.9918,3.4618,-10.6892,-5.7259,7.2081,3.6547,-5.4621,3.6354,-6.7307,-2.7696,3.5273,
9.1937,1.9314,-6.6464,2.4952,-6.3256,-13.5771,-7.9034,5.2638,2.9308,1.4206,8.964,-5.8223,3.9515,3.8202,
5.6159,-5.2435,-6.2481,-10.7648,2.1213,-5.7035,-5.4123,6.9639,-2.2877,7.3862,2.3753,8.627,3.7149,1.5741,
9.8179,-9.4669,-1.3343,-18.6908,11.5741,-5.8654,-0.54953,5.0337,-1.6453,4.4215,-3.3144,21.7419,-0.037792,-2.0501,
14.7746,-2.344,1.2668,-5.9723,6.3421,-8.0345,-3.0376,-1.8232,1.9827,-1.3905,-3.6191,6.3374,1.4773,-1.4235,
19.4348,2.3342,1.6945,5.9831,4.4488,0.010722,-14.4533,3.8329,-2.6748,-5.8456,-2.8983,-1.1204,-5.1672,1.183,
14.2353,-8.8978,-8.4909,-6.4771,4.1823,2.028,-16.6103,7.6373,-9.5723,-6.5026,-5.7487,6.0068,-7.8814,-5.9461,
10.8606,-9.8772,-10.503,-9.6182,4.4355,-3.6409,-15.1096,4.6575,-11.5195,-2.5827,-9.9427,3.1249,1.1633,-7.1026,
20.2932,-3.2333,-1.8051,-3.999,0.13549,-2.4142,-5.1271,3.3698,1.2733,2.6144,-4.304,-2.1057,6.1357,1.3913,
31.6814,-4.5526,-0.18443,0.77989,-2.3942,-0.75604,3.7524,3.6717,3.7174,-7.1226,-3.5407,-5.5082,2.2378,0.80369,
38.3523,3.2842,4.3646,14.8331,11.8495,3.8273,-1.0107,4.9638,-1.0436,-6.1911,-5.8498,-7.6992,4.625,0.25135,
23.4455,3.5912,1.5822,19.0033,22.25,3.0926,-4.4798,1.1362,2.5488,0.73482,-4.9947,-4.7167,4.8516,-2.2853,
7.9387,-7.7172,-7.5892,3.7631,6.815,-2.1346,-2.1941,-0.94892,4.4128,-3.3427,-2.6781,4.6428,0.52618,-5.1733,
3.4095,-17.3388,-4.1087,-10.5627,8.4045,-7.0491,3.9884,3.1424,7.1732,-1.1252,2.5252,5.3729,6.5454,-1.8377,
10.2649,-10.2477,1.1804,-11.982,15.9684,-4.6092,-8.3521,2.9543,7.7515,7.0106,-0.65148,-1.0003,8.1706,1.2986,
-4.451,1.9647,-4.4366,2.3509,0.91032,-4.8368,-21.951,-1.7619,4.7649,7.0941,-4.1422,-0.43613,-2.9089,-1.3008,
-6.7245,-0.1706,-0.13752,8.2601,-13.2443,-9.5896,-6.5339,2.3777,9.5211,9.6931,2.1567,-1.4182,-1.7262,-3.2402,
7.779,-6.7153,-2.6503,-0.80781,1.6504,-6.4932,6.9675,-0.28602,-4.6646,4.573,-2.5112,-11.9229,-4.1446,-5.5668,
21.4122,-2.7826,-1.9862,-4.2881,15.6513,-4.5903,9.071,-4.8068,-8.9218,-3.264,-1.8554,-14.7363,-4.3991,-7.7534,
34.2275,1.4177,11.2423,-3.0231,28.8123,-18.4149,8.5262,-5.5271,-4.3531,-15.1703,2.2893,-17.8865,-4.1356,-19.3903,
46.2739,7.384,15.6108,-1.8325,41.1835,-26.4045,16.0824,-4.1873,-7.1175,-13.2509,2.1519,-18.8297,-2.8793,-18.2269,
50.6317,7.9496,2.5721,-1.7231,52.8125,-19.7777,20.1601,-5.952,-7.6982,-5.3968,-3.0188,-20.7251,0.31963,-11.0824,
33.4938,10.4978,3.4265,3.4229,63.7438,-21.6171,11.8914,-2.5697,0.83093,-6.0817,-1.8299,-12.4226,0.29997,-5.3749,
17.3841,4.8263,6.2461,0.19237,66.5493,-34.4201,3.1097,-6.4499,1.7898,-11.7676,-3.7371,-7.6429,-8.7935,-9.0868,
16.3045,-1.515,7.8882,8.2481,71.6318,-40.4407,4.9401,-9.0881,-2.352,-11.0611,2.538,-6.1765,-8.2664,-15.6006,
12.8047,8.1569,15.9878,17.3343,75.9067,-23.9143,5.1478,-6.0213,-6.7488,-11.9107,5.9155,1.7577,-1.215,-18.1943,
2.9599,8.6762,16.0362,2.1942,59.2502,-22.966,6.8558,-11.7118,-2.3095,-13.213,1.5262,2.6609,2.8913,-14.0775,
-1.2516,4.1218,16.0823,-7.0329,52.6696,-32.6804,8.4619,-5.966,-0.15451,-6.3689,2.4438,0.48386,1.7096,-4.1569,
-9.7488,-6.7153,15.622,3.9778,47.9966,-26.1821,2.4075,-3.087,-3.6745,-7.4996,1.7926,-8.1166,-6.9653,-4.4111,
-19.7522,-10.8504,10.1466,7.2689,36.5449,-17.0475,5.7928,-17.0018,-2.9499,-9.5712,4.2065,-8.1346,-7.0515,-13.7275,
-13.0208,3.9007,11.0502,5.3204,26.7886,-17.537,9.9832,-20.0346,-5.2945,-4.4589,0.42439,-7.1415,-1.0822,-10.3823,
-3.1627,8.2237,14.422,0.96734,31.2326,-20.5187,7.3678,-14.7986,-8.0015,-5.1996,-7.6688,-7.7212,-7.0676,-6.7337,
3.582,10.2513,20.1116,10.4899,43.4586,-9.707,16.5053,-22.4821,-1.9747,-4.383,0.35446,1.3134,-8.1564,-8.8507,
-4.7011,3.5854,16.888,12.8856,31.2891,-4.082,17.5329,-23.1501,-3.8732,-9.1626,4.3676,3.2516,-4.6418,-12.3541,
-18.5191,-9.7396,10.8316,-0.99734,21.344,-9.8884,11.4379,-14.7025,-7.6756,-4.579,2.0881,4.0647,2.6962,-3.5451,
-18.4352,-7.1388,-0.91069,-12.0309,24.0972,-13.3289,-2.3583,-20.8789,-11.248,0.73784,-5.0958,6.8465,-5.5333,-5.3488,
-3.2291,1.8624,1.6645,-3.7454,22.1473,-10.0077,-1.7127,-19.1221,-2.0012,-4.8526,-8.3198,3.9141,-0.66333,-9.5659,
0.51348,1.7507,15.6646,2.5306,21.8267,-10.4154,-0.60167,-12.9327,-2.8894,-0.52761,-10.8462,-2.371,6.436,3.1097,
-13.6173,-9.9524,12.2218,-6.1936,19.0042,-18.3628,-7.1205,-18.7116,-9.2719,7.0672,-8.6826,-7.7755,-2.5225,-0.60712,
-8.7859,-12.885,-1.1172,-9.3517,15.3425,-22.8083,2.8868,-26.1618,0.86449,10.1729,-5.6411,-13.8643,-5.9009,-9.1426,
5.8412,0.99892,-2.0584,5.3094,23.4988,-7.3398,2.7146,-20.5572,-5.2377,-2.5391,-14.3786,-5.973,-6.5551,-5.5684,
1.4754,6.9888,-1.9354,17.111,36.1889,7.2006,0.53381,-15.2904,-17.0256,-11.4632,-16.5411,4.4701,-9.187,-7.2512,
-1.6383,8.5874,5.2407,7.0079,48.1176,13.8652,13.6121,-10.3386,-4.9101,-1.6989,-1.4486,-2.8571,4.4746,-4.7992,
-9.6072,-1.0043,6.9432,-7.5126,31.1305,-0.077014,8.762,-12.7444,4.4609,-0.58829,0.67381,-13.7796,15.299,1.5396,
-20.6288,-9.5164,-1.0375,-1.5337,15.1627,-10.6612,3.6978,-10.4669,1.6722,1.9681,-3.9051,-3.3713,10.8518,0.94261,
-7.7931,-6.4244,-4.5045,2.0886,22.3202,-10.5252,3.9805,-11.3517,-9.0179,3.3628,-9.2175,-1.6571,-1.3973,-9.7027,
6.7745,-7.0471,-4.2343,-6.1055,35.081,-1.8259,12.8177,-18.7384,-4.4429,0.13538,-1.6049,-10.6337,5.7461,-4.0785,
5.8825,-1.0776,-13.5608,-4.2263,37.5327,12.3837,15.5779,-8.0335,6.4124,5.674,7.0637,0.59313,13.9727,10.2662,
-2.5382,8.063,-15.7728,-1.9553,23.1801,13.1715,0.54322,-2.5084,-3.0483,6.3418,-7.4601,6.6088,-0.96567,4.1226,
1.1438,4.0495,-0.72641,2.7,26.3272,-0.22449,-0.011569,-7.9051,-4.3777,0.41503,-9.5521,-5.3852,-10.5059,-7.7223,
-9.5145,-2.7484,9.4209,10.1012,18.1917,-2.7321,1.5019,3.158,-2.6022,-10.1987,2.6181,-1.5328,-7.3545,-1.7122,
-17.5155,-7.1215,-5.2443,-4.1189,8.5284,-7.1061,-10.1857,-0.56028,-7.9933,-17.1504,-7.1191,11.1649,-10.443,-4.1301,
-2.3646,-4.6777,-4.4446,-15.9734,6.0002,-2.6459,-3.5242,-10.6118,-4.488,-3.0115,-6.6929,14.5289,-5.7825,-3.8832,
-1.6996,-0.86731,-0.64818,-7.4513,4.1269,8.1012,3.2427,-5.4371,-6.7403,1.7072,7.8086,1.0514,-3.9232,0.88872,
-5.1274,1.7063,-2.1216,3.585,13.4603,15.1797,-0.48166,-0.57195,-4.8226,-2.9333,6.3509,-10.6082,-2.1745,-4.7118,
9.2803,10.1762,3.5524,12.9495,14.1655,14.7726,-1.9656,-2.0514,0.0042946,-0.23621,-8.1301,-8.4599,-1.5404,-3.9245,
1.1784,-0.51951,4.3475,1.0801,-0.78441,-0.2138,5.2119,-3.9448,-4.0298,-4.2559,-13.2081,-7.9523,-2.4562,0.34486,
-12.9923,-7.0438,9.6328,-13.0847,-4.2861,-0.72412,14.4792,2.8463,5.793,0.53743,1.6844,-6.971,10.2969,-0.18091,
-14.7524,-7.6294,9.0549,-12.8228,10.071,7.3871,4.5345,-9.4261,3.428,-0.50304,14.2081,-10.5866,13.7129,-5.2122,
-14.8755,-4.1459,9.5208,-3.9856,3.4345,0.89352,3.2542,-20.9621,-1.8198,-2.4893,7.3053,-9.9514,10.8737,-4.8994,
-8.4362,2.6577,12.4788,-10.3014,-1.31,-6.7242,13.6478,-6.0899,-0.19777,-1.8363,11.4045,-1.7902,14.7588,-2.0844,
-6.9218,-3.5521,8.7044,-20.7767,3.8116,-1.2777,15.8545,4.3606,1.8315,1.2995,13.7459,4.3675,25.9758,2.0755,
-20.6065,-12.4159,10.1996,-19.5301,-6.5022,-5.2359,2.8007,-8.0026,-0.29579,8.2811,12.9211,0.071578,24.4163,9.0095,
-27.4569,-4.6114,11.604,-7.2649,-8.1286,-8.9556,-7.4516,-8.5317,-2.2955,6.775,7.1038,8.135,10.8497,6.4525,
-19.7577,-9.3773,-1.1933,-4.8121,-1.59,-7.4086,-5.9958,4.0823,-4.1737,-2.707,0.62673,16.7234,4.1489,-7.045,
-15.0435,-14.3609,-2.635,-2.0028,-4.0162,-1.4179,-7.1493,7.3672,-3.4201,-1.0322,6.1353,11.182,3.3949,-2.0843,
-11.1152,-7.4489,6.6,1.143,-9.8255,-2.342,-11.7625,-0.1344,0.81991,5.081,7.7846,-3.5889,0.16555,7.1167,
-3.3888,-4.9845,1.1619,-0.94202,-3.1857,-5.2261,-1.9807,-9.2023,0.77071,2.7587,0.25804,-12.4686,-6.9029,0.6394,
-4.6983,-1.1562,-0.42064,10.7115,9.6117,3.6588,8.7279,-0.077832,-4.8222,-0.93609,-0.26204,-1.1317,-8.0016,-1.92,
-12.9887,-4.6161,3.1339,-0.51996,0.46266,-1.0982,5.6831,1.4397,-6.0457,2.6494,5.3004,-4.5931,-0.96657,-0.29199,
-8.1755,-7.3648,3.9541,-14.5888,-0.57333,-15.1323,6.3504,-5.7062,-1.6491,5.516,10.0245,-6.3349,7.1592,-2.2919,
0.38275,-3.8972,2.7086,-8.6894,13.5611,-16.2599,5.9694,-9.3977,3.492,3.1677,6.3983,-1.9209,4.7132,0.87127,
4.3937,-0.63777,5.5717,-3.126,24.8681,-1.1843,7.6277,-7.8256,7.3163,1.9694,3.997,-9.8734,3.4212,-1.1984,
5.6429,9.9893,10.7841,-8.4851,9.276,-2.608,6.6654,-2.8186,3.348,6.3897,5.27,-12.8103,8.7626,-8.6897,
2.2786,1.3212,7.1114,-18.0612,-5.3806,-15.5614,3.2398,-7.6916,3.1462,15.0823,4.9538,-8.0088,9.2451,-8.1683,
7.6891,-3.2951,10.2145,-7.3964,-7.1128,-0.52767,7.5844,-4.7086,9.5128,16.6989,1.1268,4.0702,11.2119,4.9275,
-2.3533,-6.6271,-4.4984,-6.4485,-20.786,13.604,-6.9707,-3.9219,-5.1579,2.082,-13.0408,-8.7797,-3.5608,-1.9226,
-3.724,-2.7002,-18.3285,-2.5323,-33.6388,24.4229,-7.5792,10.4134,4.2099,16.0571,1.8416,-4.7237,6.7195,-1.3036,
2.5498,3.5131,-20.292,-5.4051,-43.7588,14.8897,3.968,14.3451,11.0159,17.6338,15.8311,6.6532,20.4163,1.8003,
9.4559,-0.73205,-5.9642,-8.1069,-38.1081,3.9117,7.7642,4.408,6.3215,2.4757,6.8326,3.2288,17.1925,-1.3329,
20.4865,-0.18354,-0.059605,6.4795,-25.2328,12.2484,-1.274,12.7158,1.4038,-6.2637,-6.1836,0.51306,2.5465,6.3102,
23.2907,7.8947,-9.1325,19.7237,-21.7019,23.6156,-15.2975,7.9195,-10.7816,-4.8792,-15.8973,-6.5768,-11.7063,-1.1274,
22.9025,11.4559,-1.525,4.4403,-31.4932,22.1986,-2.2956,-1.6317,-1.0587,-3.5782,-4.8583,-11.2243,3.096,-15.1598,
23.5448,6.7337,7.6425,-6.9376,-33.6375,15.8236,4.9007,3.5074,10.0982,-0.33786,5.5174,-3.4913,17.0103,-6.2015,
19.6105,-1.2339,-0.37972,-2.9916,-32.1233,14.3701,-1.9488,8.8441,6.9708,2.2039,0.6484,9.3239,12.4785,8.2706,
14.401,3.8832,-2.3734,-3.8203,-33.2206,16.5335,-0.82267,3.2714,4.5361,3.0799,4.6434,-1.3197,14.7554,3.2554,
15.5529,9.701,-1.2223,0.44232,-30.2196,10.499,-0.77379,4.0828,-1.7869,-1.1392,10.4156,-15.3405,20.9291,-7.0246,
11.09,-0.46214,-12.7465,0.91989,-27.9023,4.3228,-2.2397,10.3933,-1.1756,-2.5832,7.2691,-6.876,14.1272,7.0109,
-3.1899,-0.939,-20.554,-12.7497,-18.665,10.6184,-3.6181,10.2743,6.4581,0.092835,4.3119,7.6366,11.7667,15.1625,
-8.0406,-3.9074,-17.3034,-12.993,-22.5872,8.973,-2.3928,11.6743,9.0963,0.087264,7.0788,11.7349,17.112,5.1759,
6.5419,-6.194,-15.7615,1.8866,-27.7869,6.9218,2.2892,19.5462,8.0459,5.6287,11.1916,9.518,15.5807,9.4038,
12.2187,-4.3095,-13.303,13.8941,-20.573,4.9937,-7.4287,8.7928,-6.5369,2.77,1.9487,6.4259,3.0488,10.3524,
10.4774,-3.0427,1.5952,-1.0396,-15.3048,0.66019,-3.9573,-2.8272,-8.6838,-1.4301,-1.1938,-2.0265,6.8998,1.6635,
13.3785,-5.3817,15.1325,-2.5086,-19.9327,-2.9092,0.81808,5.9143,5.9373,4.2019,4.425,2.6331,10.0155,-1.9661,
8.5419,-15.1439,0.12453,-0.34162,-31.8475,-9.7941,-10.3244,2.5328,4.0858,12.0175,2.1421,14.5758,4.3715,-3.8655,
10.5504,-9.6959,-3.4313,6.2348,-30.4403,-9.7101,-12.226,-2.1566,2.3288,12.8103,4.5346,18.2397,10.6651,6.9562,
12.9426,-0.038621,5.8511,8.8858,-20.5466,-1.0603,-12.5011,-3.0359,-2.8535,0.94778,2.2456,10.0863,5.9909,1.4962,
10.6546,-0.54042,-1.0544,4.8229,-8.7246,10.6018,-8.2213,-0.33226,-5.2029,-2.6388,-4.4436,2.9267,-0.92303,-10.1911,
8.5021,-0.0038803,-0.48706,-0.0044332,-3.6621,12.4863,-7.2239,1.201,-7.4122,-5.0011,-18.277,-6.83,-1.3727,-4.0324,
9.5038,7.5595,9.1218,-6.5601,-2.9397,6.1904,0.77267,3.649,2.6121,-0.16352,-6.1065,-5.9166,12.3241,10.3095,
-5.1664,0.55149,-5.5255,-15.7465,-16.8633,-4.7703,4.2561,5.9516,6.9943,0.35041,8.3599,-2.0318,7.0467,10.7168,
-16.472,9.5944,-19.294,-0.70175,-26.458,9.6159,-9.1091,15.6797,1.5326,6.3807,4.3476,5.1496,-6.486,6.0408,
-3.8862,22.6336,-17.1653,13.4404,-26.3838,23.139,-13.1006,18.2677,6.9868,20.0978,1.5652,11.3961,2.475,14.2503,
-11.7208,7.1756,-19.16,5.1074,-38.9008,15.2333,-11.3063,5.07,2.5337,10.3382,11.5565,3.6528,-0.69912,6.3357,
-15.5555,-0.83759,-15.4899,-4.7791,-31.0386,14.8234,-3.0643,8.2956,5.9115,4.1717,18.4267,6.9634,1.8644,7.4679,
-17.6483,0.22138,-16.5774,-2.4754,-31.1932,19.9848,-3.8892,9.8148,6.5645,-4.1469,3.2211,1.503,5.7859,8.0286,
-15.5807,3.2333,-19.6162,4.7321,-36.3816,17.777,-6.681,13.2602,-0.88838,-2.8893,-5.059,11.4975,-1.6203,3.5134,
-7.0822,0.51869,-15.9177,0.91845,-26.6341,13.1806,-7.7925,1.8753,-3.3556,3.8394,-5.2595,23.4143,-5.0528,-2.2436,
7.4427,6.0338,-6.3907,-5.6911,-13.4386,12.8949,-1.7787,-0.75775,5.4176,13.1892,-0.40597,8.3946,9.3503,-0.59662,
15.5875,3.6548,-0.9647,-17.4517,-18.6831,1.0273,0.34497,8.3642,3.0756,5.3388,1.6353,-6.2091,12.3376,-0.5613,
13.6426,-0.59882,2.1174,-11.3621,-15.5461,-2.0595,3.3494,5.8444,4.908,-4.058,6.5798,-11.9069,10.5887,-3.5528,
19.3799,7.0012,-2.5472,-0.091532,-6.041,3.6108,-0.38081,-3.0776,0.075023,-9.3612,4.6722,2.9075,12.4744,-1.8268,
17.208,6.5802,-2.3943,-7.1456,-9.7124,0.36849,-0.35796,5.1738,6.1209,-4.7657,6.4083,5.2731,14.7516,6.3496,
2.0755,-3.8983,-11.3271,-19.8272,-18.2061,-2.6788,-6.3873,10.9152,8.7797,5.6049,6.0243,2.9398,14.8752,3.9526,
-12.1491,-6.6906,-24.7475,-16.6206,-18.1225,5.5492,-12.0549,4.2094,-3.8492,3.2517,0.62024,12.8481,7.9319,0.68936,
-15.9947,-8.8102,-24.794,-9.0675,-23.59,7.7373,-3.7684,4.4605,-6.1393,-0.47267,3.1041,22.667,8.9688,6.1957,
-18.5648,-11.8104,-9.2064,2.0649,-27.7209,1.7269,-2.029,12.7657,-1.232,-0.94843,1.4055,26.8532,17.0025,6.328,
-15.434,-14.1269,1.9538,13.0349,-22.0232,-5.4358,-2.916,9.9828,-1.1585,-2.9085,-1.704,27.2599,14.9737,1.914,
-11.9864,-6.7249,-1.6932,13.7651,-6.6018,-1.5799,2.8062,5.8541,-3.6096,-7.2719,-0.08942,20.0771,8.529,1.295,
-17.3185,-2.2875,-4.6163,6.8889,-0.64048,4.5652,-1.3961,4.4946,-10.4525,-10.8695,-5.1262,4.7725,4.9916,2.2265,
-10.7332,-5.68,3.2234,3.9531,-14.217,5.8037,0.19906,3.7199,-7.3048,-13.748,-6.3319,-9.1478,5.1962,-6.4799,
4.0108,4.745,17.13,9.7672,-1.2623,12.515,3.2128,6.5223,-6.8665,-16.957,1.1075,-5.5733,3.8762,-16.1763,
17.8701,15.5537,25.1972,11.1986,12.9134,12.7723,-0.0046902,1.0889,-12.5049,-15.9396,-2.9928,-18.3488,1.6263,-16.2139,
30.8979,22.6892,12.5929,4.4763,26.2386,6.9648,-3.0301,-8.0524,-13.771,-15.9905,-13.9057,-20.2725,-2.5042,-12.2154,
43.1441,35.4278,7.8035,2.1903,38.7643,20.6469,-2.8483,1.5067,-16.9796,-24.108,-15.0887,-13.0058,-12.4392,-11.4825,
54.6554,47.4022,9.3517,5.0845,50.5384,33.5081,1.3565,10.4923,-14.9516,-15.602,-7.1239,-15.2502,-4.6333,-18.8613,
65.4761,58.658,15.3456,11.3344,61.6061,45.5976,-0.2377,-1.7343,-12.5417,-6.0936,-13.2514,-19.8819,3.2079,-23.2763,
75.6475,55.1942,15.9381,13.1759,72.0098,50.9852,2.2981,1.8995,-11.2851,-5.2238,-10.944,-17.1766,0.49387,-19.3582,
78.2986,47.8482,16.9978,15.4095,81.7892,46.9174,4.1771,3.8015,-9.6002,-5.9201,-10.2878,-15.1383,-1.5527,-16.1807,
66.5412,40.9435,16.9871,15.4941,72.9784,43.0941,4.9347,5.5909,-10.0325,-6.5731,-9.6705,-14.23,-5.4934,-14.2007,
53.4732,32.436,15.9674,15.5732,59.5232,37.4823,4.6391,5.2549,-11.4474,-8.1956,-11.1072,-15.3931,-9.1972,-13.3492,
40.6842,24.9432,13.4966,14.1342,46.3722,31.7041,3.8562,5.4442,-13.2816,-11.2332,-11.9527,-15.9814,-14.1921,-13.0518,
29.1662,17.3953,12.6868,14.2944,34.5129,26.7762,3.6248,5.1176,-13.4939,-12.5766,-13.2529,-16.0317,-17.3754,-12.2697,
15.8192,9.7976,10.4127,12.9331,20.8451,21.6404,2.9027,5.3151,-15.2054,-16.3595,-14.9788,-17.5908,-23.896,-12.0371,
0.77009,5.1749,13.8219,11.1479,8.501,18.3245,-2.3135,9.0301,-16.3095,-12.3533,-8.0297,-9.4759,-22.4623,-4.2554,
-3.329,5.8727,5.933,16.5303,1.9397,17.2251,-3.1829,10.5047,-13.3145,-6.569,-10.5736,5.1927,-17.0806,-2.9918,
-10.6924,1.991,-4.0026,9.9918,-10.782,10.6449,-4.5048,9.3708,-12.011,-8.6959,-21.5362,9.4377,-20.5933,-1.2995,
-24.1509,-7.2039,-8.805,-4.7077,-17.1941,0.93066,-9.2771,12.842,-9.2734,-11.1993,-16.2097,6.8545,-20.3664,-3.2385,
-36.8018,-15.3445,-15.8403,-12.0074,-17.6758,-10.7236,5.3795,12.5756,3.8887,-0.94728,-1.1371,5.9391,-5.0444,5.5277,
-41.6904,-17.9531,-24.4705,-15.8245,-20.1445,-13.6095,14.1523,9.3,10.2113,7.6819,13.0311,11.1294,6.3702,14.7766,
-47.7608,-26.457,-22.4981,-16.3883,-18.4317,-13.2971,6.7477,7.2296,14.1357,9.7416,9.7653,20.0418,0.4408,10.3603,
-56.9968,-20.8348,-8.0374,-1.305,-15.3093,-9.4736,4.3254,5.7876,12.2793,0.081091,2.1199,22.8741,-10.6781,2.6801,
-54.5862,-14.5426,-5.5387,7.8683,-28.4908,-10.9226,3.0577,7.4568,0.44913,-13.0336,-7.0833,13.4329,-14.0713,-2.5238,
-53.3275,-17.7048,-9.2403,0.33668,-40.8813,-11.2755,2.8742,11.0433,3.4478,-1.1592,2.4177,14.6434,-0.11715,4.6872,
-61.7248,-18.1544,-13.2243,0.82107,-24.8511,-8.0779,-2.8449,10.8853,8.7877,6.4745,6.8111,26.372,-0.61471,10.9609,
-58.0218,-16.0564,-14.4469,1.7805,-20.3339,-2.5506,-0.65729,12.2491,13.303,1.0434,4.3855,27.8148,-6.6277,5.2616,
-44.4563,-17.1105,-9.5471,4.6984,-30.2083,7.6866,7.4499,16.5563,11.4956,4.0065,5.1306,23.1203,1.8368,7.9706,
-43.8049,-18.1008,-6.9564,14.5012,-25.3696,9.2433,7.0034,19.5972,8.7899,5.783,6.8397,28.7931,7.7783,17.577,
-43.194,-19.0312,-4.5226,7.5808,-24.8557,0.62097,0.53189,11.3619,15.3211,3.4186,8.4458,24.0399,0.25211,13.4977,
-42.6193,-19.9063,-11.3103,-6.9741,-23.3648,-2.4424,-5.5508,6.6458,14.4023,10.2735,8.9477,13.521,-4.8056,9.6617,
-54.1622,-27.2842,-18.1958,-20.6556,-17.4254,-10.8682,5.371,3.726,12.0253,14.1946,13.9576,18.2555,9.5827,18.6626,
-58.9988,-24.1348,-16.5999,-21.4708,-13.8584,-21.8136,8.5785,-0.027304,17.8583,9.8132,13.6242,14.6396,17.0941,17.0387,
-41.3588,-8.5867,-10.0572,-6.0826,-3.4463,-6.4048,-2.525,0.47893,12.2492,5.6951,0.20152,4.1806,1.9684,4.4194,
-33.8166,-10.0694,-5.924,3.3769,-0.71799,8.0795,-3.8868,1.9625,5.9671,0.81541,0.69258,1.4083,-12.2497,4.6583,
-38.343,-15.0124,-7.0819,-2.3719,-8.2385,4.1026,1.8936,1.3407,11.1563,-0.74682,11.2403,-1.1978,-1.9722,11.9415,
-29.4861,-12.5984,-6.1519,-15.8436,-9.2566,-5.7237,3.2933,-0.25211,13.0084,5.8534,8.0453,-0.62082,9.7446,8.7044,
-19.1455,-8.3132,6.8225,-17.415,-2.1463,4.2003,5.6158,0.26665,7.6894,6.0068,-1.0097,11.0135,-2.4381,3.6437,
-19.5096,-3.2759,18.0111,-2.2701,-1.5138,7.4776,2.7578,-4.2869,1.6814,-1.9177,0.56366,15.8994,-13.8888,4.9379,
-22.877,-9.6348,18.4428,6.9616,-15.523,-3.5594,-2.9539,0.50834,-2.9575,0.71886,-0.98346,5.3653,-8.5175,3.1293,
-26.0429,-14.6034,7.7557,8.0567,-22.6779,-1.834,-5.2977,14.5778,-2.2764,3.1968,-11.5133,9.5809,-7.5028,-2.6052,
-22.4629,-11.7098,0.23176,3.5395,-19.2998,7.353,-1.9542,26.3275,6.9371,4.0132,-3.7629,17.0747,-10.0773,3.6015,
-21.6197,-18.5704,-2.3032,-10.2873,-31.7563,-6.7026,-4.358,10.6478,8.0337,5.2852,7.0516,1.9503,-5.9434,5.9074,
-18.3051,-13.4223,2.8771,-4.628,-34.893,-11.3426,-8.1304,4.4442,9.5681,4.9681,3.6039,-7.7664,-0.54374,5.553,
-16.1986,-7.5748,-5.3633,2.7092,-18.6995,1.4396,-7.6426,11.2361,18.071,-0.37207,6.4123,6.7996,-1.5203,4.2106,
-13.7143,-5.608,-19.1415,-3.0005,-3.4775,9.9251,-6.6809,13.0835,6.3975,0.15437,9.5573,14.9825,-1.9332,4.4621,
-12.891,-6.2802,-10.4479,2.2221,-9.7866,6.3044,-2.2457,15.3236,-2.0546,4.1795,-2.109,14.0831,4.2336,6.2122,
-19.1766,-16.9963,0.26364,5.1139,-23.2994,-8.1738,-0.093994,6.3369,8.1533,1.9118,-16.0825,16.2642,-1.063,-1.2205,
-3.926,-11.4381,-0.25677,4.3035,-7.8015,-3.1645,-1.6012,3.4357,3.1266,4.3181,-10.5976,19.8259,-9.5706,5.4086,
10.4096,-4.701,-2.2583,0.010893,4.2636,-5.9998,-3.522,3.229,-11.161,-4.0092,-8.954,4.5363,-11.0133,-3.9924,
20.4109,9.6811,8.9701,12.1123,-1.0348,-13.708,3.7483,15.1374,-2.4426,-8.8112,-2.366,-9.8358,1.7486,-17.8528,
19.1868,17.187,1.3729,4.3266,12.1377,-14.9015,-3.5347,8.1783,-0.27815,-6.2647,-4.24,-18.3583,-0.37225,-14.7833,
20.052,7.0789,0.28227,-10.033,25.5094,-7.9571,-0.2979,-5.4232,-1.2706,-0.84669,0.047327,-20.2825,-2.3673,-0.78642,
12.7986,-0.40444,5.3074,-19.5343,9.8788,-14.5392,0.72917,-3.0804,-1.1944,-5.838,7.104,-16.0399,1.8086,-5.7813,
-2.0694,-3.4058,5.9982,-11.3027,-4.8139,-24.7593,-4.3576,2.1466,-1.1227,-3.4713,6.6778,-0.97747,4.7257,-6.4427,
-2.9729,0.83192,5.6378,-0.54083,1.5067,-17.2239,-6.1131,8.0686,-5.0897,1.7796,-1.7911,3.1327,1.416,6.045,
7.7947,2.2953,-2.2641,13.5916,0.91316,-2.5755,-8.2669,9.0978,-8.3132,1.1687,-3.196,-5.6272,-3.2069,9.2121,
5.3096,-2.8855,-13.2216,26.8761,-6.2012,-1.4127,-4.7462,6.5345,-1.764,4.1233,-0.98683,-7.306,1.0194,4.6255,
-3.5803,-5.2334,-11.9238,17.2334,-5.3254,-1.8326,-3.9568,12.6973,0.86287,4.3805,-7.4825,4.7294,6.5049,8.8864,
3.1894,-5.424,-3.6452,2.0994,-6.5187,-1.218,-4.224,11.4319,-1.71,4.6222,-6.53,8.9841,9.6439,9.8651,
4.5109,-5.6022,2.1202,-5.1042,-6.6313,-7.6999,-2.4578,-3.354,-3.1192,6.866,3.4424,-5.6549,12.5955,1.71,
-4.8367,-5.266,8.0434,6.2945,-2.2005,-21.3379,-1.3021,-6.7021,-0.91561,5.4448,-5.8411,-19.4156,7.8059,-0.40998,
7.5551,-4.9501,14.6203,7.9343,-3.0757,-22.0931,6.8438,3.7852,6.1988,4.1099,-14.5666,-21.8181,3.3037,1.632,
17.1874,3.4142,18.7856,-4.6439,1.1422,-8.6664,2.3998,-7.5348,-1.2331,-1.1783,-13.6921,-27.568,0.080288,-6.5341,
2.0562,3.2098,23.7093,-6.3822,15.1737,-13.189,2.2553,-9.0997,0.85783,1.9175,-5.8115,-28.9401,10.1592,-5.1334,
-10.6924,-4.5464,18.757,-6.5034,24.8702,-13.91,3.6323,5.5463,5.3444,7.3487,0.083369,-14.597,12.0712,4.7547,
-9.0427,-4.2736,10.573,-9.1388,19.345,1.0246,-2.6359,11.787,-3.0441,-2.1682,2.0958,-0.6113,-2.7531,2.453,
-11.0207,-4.5213,1.3658,-3.0433,13.6463,10.5623,-2.9819,-3.0202,-3.3655,-7.5843,-0.55053,-1.0787,-14.2035,-6.2661,
-14.8974,1.2962,-4.2624,9.745,14.3399,16.4839,-3.3071,4.2015,0.36616,2.4508,-4.0473,-0.5099,-4.7794,-0.34387,
-11.483,0.71429,-3.5025,5.6306,1.882,1.88,-2.6046,14.5387,3.874,7.85,0.73356,-1.9916,4.0792,2.1983,
-8.2725,-5.883,-0.77082,-0.25349,-4.7854,-12.3328,9.1492,8.1201,16.2473,1.8328,10.2696,-3.3845,10.3899,-1.4634,
-16.8526,-2.5049,-2.7415,-8.3065,-1.474,-7.0734,15.6593,5.615,12.2473,1.7223,6.6283,-4.1901,17.8337,0.64137,
-13.8245,-4.3715,-8.6278,-12.8507,-11.4703,-2.6147,12.7028,1.2447,7.4781,5.6534,2.1962,-6.9648,16.7642,-7.4653,
-1.9021,-6.1262,-7.1024,-1.995,-14.8155,-11.5342,1.856,-6.8982,6.0216,3.2972,0.047532,0.51304,6.6819,-8.0252,
-1.7875,1.3005,-6.6758,2.1591,-2.8336,-9.8335,-1.2806,-11.5259,6.6681,2.0907,-2.9805,3.5074,6.2805,6.5563,
-1.1762,3.743,-14.8481,-8.5597,-3.1677,-12.7732,7.3681,-9.322,9.7978,1.4611,-3.3058,-1.242,16.4929,9.7103,
7.9714,-3.5401,-20.0075,-9.0544,-16.0875,-18.0572,5.9178,4.3481,4.1678,1.3734,1.9356,2.8674,16.5126,-3.9812,
4.4674,-12.4047,-17.7988,-17.5871,-22.1818,-19.9994,-2.505,13.1632,3.9177,3.3085,11.9037,1.6871,9.4705,-12.8193,
-2.356,-10.1471,-12.1929,-23.0873,-15.3047,-19.3045,-2.8588,10.8601,7.2124,12.69,15.7275,0.072583,7.389,-4.4865,
3.332,-7.0172,-10.9567,-8.0876,-8.8397,-4.5308,-2.1836,6.6792,1.233,13.4415,9.2371,11.6662,5.4338,5.3633,
10.1912,-13.6552,-11.308,4.4988,5.7907,9.841,-8.1034,7.2872,-3.8836,2.5503,2.6321,7.9401,-1.9523,3.0246,
15.631,-6.7856,-3.57,6.2463,13.5296,7.2517,-9.6337,9.8746,-2.6423,-3.654,5.4998,-0.60404,-11.9193,-5.2247,
18.2229,-1.8405,1.1821,2.3417,-1.3822,-6.7974,-3.5095,5.7524,1.046,3.1206,5.6739,4.9794,-16.7513,-1.3814,
6.5397,-1.2254,-0.4016,1.6967,-1.3178,-4.8777,-1.7861,7.9283,1.4878,5.4544,-1.2224,10.2264,-11.2088,11.3067,
-1.4158,4.3948,4.161,5.1251,9.351,-1.0548,-6.2174,10.9829,0.89393,-1.4278,-1.6527,6.0835,-0.9547,10.1247,
8.7538,5.1398,1.8944,13.894,-5.3101,-15.0915,-7.8603,1.2474,-1.1757,0.67485,-2.5613,-1.3406,-0.89693,-2.5849,
10.7492,2.3099,-0.74083,13.5645,-16.6085,-21.7682,-4.8681,-2.3572,-4.6359,10.2145,-6.9465,1.2604,-5.3821,-2.9339,
4.558,-1.3585,4.8508,-1.3494,-6.0309,-12.8994,0.97019,-1.7116,0.18028,10.1057,0.025659,-0.32752,3.5127,2.7883,
13.8651,0.23587,4.0552,-15.3684,5.928,-8.5952,0.40739,-10.1813,2.6905,0.92701,5.5699,-2.8289,10.8651,4.1339,
25.1348,5.2638,0.7862,-27.5947,19.6723,3.0139,-2.6417,-8.5612,-0.4956,-2.1533,1.2018,8.4333,7.1885,5.9023,
13.542,0.9146,-3.2944,-11.839,22.5444,5.8582,-3.4919,0.019725,-3.491,-3.0328,-4.9202,9.9452,-3.3275,2.523,
1.1325,3.3808,-4.6095,2.5053,8.5865,10.0452,-12.862,7.5827,-8.8283,-5.3719,-6.1378,-3.2578,-9.6828,-1.1567,
-2.4657,2.6733,-3.8284,-7.2256,9.5841,17.0057,-4.5272,12.6744,3.2985,5.5392,2.8019,-11.6347,3.5035,7.4841,
-9.8809,-4.042,-9.1454,-19.3983,6.488,9.4304,1.2912,1.3251,11.6729,7.7279,6.164,-5.3899,11.8656,15.6064,
-6.2624,0.2344,-7.5884,-18.2344,-2.9773,-0.21141,-8.8715,-2.7883,4.9222,2.2221,-0.25617,0.98481,1.0695,13.6628,
4.7017,3.7501,5.4726,-16.6362,-4.3119,-2.7203,-0.77555,4.9427,7.1474,-2.4492,3.288,-10.6718,-3.5327,1.2445,
8.9585,3.021,9.6832,-15.133,3.5104,-6.0858,8.852,7.1667,2.1806,-8.8567,6.6205,-16.5869,1.2173,-11.4359,
2.8738,1.3274,3.5551,-17.7547,4.8121,-11.2679,9.8333,4.2161,1.5456,1.2548,2.6935,-6.0106,10.7243,-3.1861,
-6.8787,-0.26557,-2.2045,-26.2705,-0.014576,-5.0446,7.7309,5.4755,1.957,2.6919,4.0452,-3.1285,11.5942,8.6026,
-1.4239,2.776,-12.1574,-22.6769,11.0797,5.3423,-2.8181,3.1305,-7.2364,-11.5696,4.8107,0.08394,-1.2041,-1.9987,
8.2421,0.088398,-12.9407,-20.8126,16.9698,9.5602,-3.1536,2.4381,-5.2894,-10.3899,4.0175,12.6851,-6.6776,-5.4081,
5.2265,-2.438,-8.6341,-24.1014,5.3628,4.4481,-1.4516,3.8046,-3.4601,3.8479,0.24714,5.3691,-4.7651,0.46308,
9.9551,1.7422,1.9682,-12.5711,10.0832,-0.86088,-0.35625,5.5928,-1.2351,-0.41681,4.2662,-5.0382,-0.44528,4.4692,
9.8614,7.1834,10.4215,2.2832,10.991,-8.3733,0.16972,3.7444,-1.6656,-10.9806,2.4974,-15.3247,-0.92315,-1.3457,
-3.8401,15.8293,10.8054,12.754,-3.7684,-4.8453,9.2355,4.528,-3.5821,-5.2797,2.3475,-22.473,3.1671,3.7772,
-15.7114,8.8283,6.1232,4.9293,-10.6199,2.5049,10.6988,9.2994,2.6831,-3.9537,8.258,-11.0404,8.0191,2.5423,
-16.2805,-1.281,4.243,8.1638,-2.4196,2.8592,-3.5576,14.2881,-1.0071,-8.2549,4.2323,3.722,7.0344,-3.1569,
-16.3129,0.81229,8.0223,9.6904,5.7933,2.6867,-3.3441,9.3969,-11.0319,-3.7258,0.95268,-4.0454,4.5949,0.058133,
-20.8808,2.2764,11.0712,-3.4963,6.9586,4.0383,2.4032,4.2946,-9.8654,-4.0068,-1.6255,-9.3494,6.8402,-2.4664,
-28.7044,3.1485,8.39,-5.3035,5.5323,-0.23735,-1.7753,9.0796,-3.2226,-6.7916,-9.5953,4.3219,6.4303,-4.3354,
-34.5458,-1.5794,4.3558,1.5692,5.7045,-3.7529,-2.1729,11.0554,-4.5426,1.1796,-8.5154,3.5575,0.49731,1.471,
-37.011,-2.9969,11.6581,-0.038256,11.9176,2.0185,-2.5467,9.8879,-11.8337,4.6376,-4.4757,-4.2196,-3.0623,3.9033,
-37.3114,-0.29607,25.0586,3.4943,17.7575,8.4523,-4.9149,12.8249,-5.5769,-1.1864,-4.7108,6.6224,-4.3914,-0.86841,
-39.1066,-1.2865,19.0367,7.3185,20.7259,13.9965,-7.6457,8.0215,-0.19926,-3.1326,-8.462,14.2938,-0.094013,-5.8584,
-35.7515,2.8241,9.8262,11.922,26.5424,19.2075,-6.1782,12.5828,-9.2638,-1.936,-4.9291,-0.66386,0.92034,0.54391,
-40.6655,-0.37056,7.2197,14.2318,16.8816,12.0043,-3.7906,15.8612,-13.7496,-7.8706,-2.6155,-14.724,-4.1765,-4.5313,
-38.7306,0.15579,6.2824,20.9415,12.339,5.7368,-4.0673,4.3203,-9.3958,-8.9107,-6.9975,-7.3233,-3.4228,-8.7974,
-25.3134,0.14644,6.9137,22.7107,22.692,3.3762,-4.8315,-10.0389,-9.8403,-6.3596,-8.5941,-0.83257,-3.2164,-8.2696,
-13.2048,-2.3834,10.0291,10.7593,25.869,4.6864,-1.0123,-6.9336,-7.737,-9.5073,-0.51532,-14.8826,-4.5363,-5.2524,
-5.8581,0.28114,10.9397,6.5839,23.8117,10.9606,-3.4731,0.037793,-10.8026,-11.4584,-3.0059,-15.0174,-7.7939,-2.4157,
-7.5226,-0.74444,11.292,5.1802,19.3588,-0.78993,-2.256,-5.0071,-7.1283,-3.7109,-0.80768,-4.0307,-3.2919,-3.2794,
-7.5768,6.8634,18.1777,1.3401,14.6671,-12.3405,3.4261,-0.16913,6.9129,3.0667,9.8296,-13.3704,6.4853,-11.655,
-14.6858,10.9896,16.5819,2.772,5.2142,1.0056,3.7246,6.3964,3.9766,-4.6819,2.6844,-24.1657,3.5746,-12.4681,
-25.9063,-0.76224,8.5285,-0.41993,2.8849,3.971,3.5011,1.9788,-5.338,-2.3836,-3.528,-11.6224,-0.67375,-6.6779,
-14.7713,-4.2467,8.5213,-7.9579,14.3098,1.2116,-0.23821,-2.6775,-6.5305,7.34,2.2304,1.6812,-1.137,-10.8147,
0.21495,5.0845,16.0773,-9.4974,15.4682,13.2401,3.8095,-2.5173,-1.0961,6.9001,3.1053,-4.4705,6.9985,-16.2166,
8.793,10.3261,16.6255,-2.3726,4.9585,12.9493,12.1523,-1.8626,-9.6027,-4.1037,-7.6698,-10.7572,11.1171,-11.7144,
-1.3152,7.1855,1.528,7.3503,5.1656,3.601,6.8856,-3.2627,-19.6153,-10.4124,-8.7224,-2.5486,4.9034,-16.5582,
-6.2784,-5.3472,-10.1798,9.935,-0.18643,-0.64896,4.4561,-2.0587,-4.3384,-4.7446,-0.13135,-1.3865,9.6522,-19.5986,
