"AF3","AF4","F3","F4","F7","F8","FC5","FC6","O1","O2","P7","P8","T7","T8",
9.6487,-6.7539,15.4384,11.5789,36.665,-1.9297,-34.7358,-16.403,1.9297,-15.4384,-4.8246,20.2625,-112.8904,4.8246,
3.2806,-13.1034,10.6521,2.2001,26.7466,-15.914,-35.546,-19.2779,7.6032,-15.4763,-2.6054,10.3627,-94.5386,8.3941,
8.3902,-3.1504,16.285,3.5151,24.6595,-29.0591,-30.0361,-11.8501,11.4888,-12.1361,5.7522,7.3284,-74.8753,-6.2095,
13.6769,-1.9962,17.2376,16.8123,34.7579,-22.7548,-21.4801,-14.9981,3.081,-12.3721,3.4774,11.7133,-74.2423,-16.3412,
17.6799,-1.8769,21.9926,21.5928,33.6376,-8.8469,-13.4374,-22.7823,1.931,-12.5949,7.1287,2.3264,-66.8933,-6.6767,
18.0666,3.5426,25.9799,17.8852,21.4883,-9.7625,-14.0786,-16.1085,2.297,-11.3573,15.8673,-6.014,-49.8539,-0.96921,
12.1584,2.3654,23.4556,22.6017,21.1636,-15.9311,-16.1278,-12.2471,4.0894,-8.7457,1.4066,-3.7239,-52.6519,-13.4541,
8.0518,10.4247,26.391,28.4823,28.0951,-4.8438,-14.6778,-12.9602,9.1514,-6.774,-5.9144,1.8069,-62.5186,-14.0948,
-0.15028,4.9751,15.1584,12.6733,25.4447,0.27097,-20.5514,-21.8308,-4.9063,-19.8753,1.1948,1.6985,-64.5567,-12.2835,
0.82337,4.6766,10.3894,19.2586,34.5319,7.9737,-17.3882,-22.4511,-8.4714,-13.8586,-2.7364,15.6966,-51.0346,-2.8629,
-1.6376,1.9835,12.1785,27.2699,26.1879,8.9431,-19.722,-10.9726,-3.6214,-0.96635,-16.6722,28.8548,-60.9979,1.6507,
-5.8816,-2.4768,10.0004,13.5725,17.3805,4.0643,-20.9508,-7.9022,2.8675,2.4693,-1.5719,24.9748,-71.4381,3.9637,
-4.5641,6.3554,14.2245,18.5469,27.9161,3.8204,-15.8342,-10.3229,-2.1287,-1.5393,12.6224,13.8271,-80.5514,0.83102,
5.3589,11.7628,16.2659,27.0833,30.1006,10.3446,-9.0954,-3.9138,-7.7907,-2.4116,-2.2349,18.7872,-72.8234,-2.1128,
11.7912,2.373,5.6412,12.9147,20.5752,11.6537,-14.3389,-4.6441,-7.3228,-6.1259,-16.2008,16.6948,-80.9976,-0.056255,
7.2243,1.266,1.4433,12.1399,21.2708,6.1303,-19.2673,-10.1551,-9.7782,-16.3721,-2.0934,16.6587,-88.6808,-7.7718,
4.3783,-0.25695,2.8036,18.6481,7.9338,2.3853,-11.8402,-12.9221,-12.5687,-17.8023,2.374,17.1062,-79.0181,-16.4724,
13.282,6.03,8.9069,21.8706,-0.74485,14.3034,-9.6824,-14.5597,-11.3327,-9.498,-6.9348,19.4565,-66.0758,-5.353,
11.5204,13.3872,9.3381,22.4885,9.9146,13.4452,-15.8558,-16.5801,-10.6518,-8.9272,-11.3428,19.2547,-66.9354,-5.9965,
1.6628,9.2072,-3.2834,12.9375,8.8369,7.3316,-17.3165,-17.9982,-12.4248,-15.6287,-4.3907,14.7218,-71.121,-17.6979,
-3.2611,-0.99436,-11.77,-0.38185,-1.3415,10.7512,-22.0662,-17.883,-19.3983,-13.7254,-0.26781,5.1549,-67.8183,-11.811,
-0.17102,-1.8998,-8.1694,3.5001,-3.1917,10.1057,-20.7427,-15.8449,-12.4451,-5.1834,0.71336,5.8107,-54.1006,-0.48898,
0.80434,9.7931,1.9694,17.3901,2.7899,12.3946,-14.6736,-11.9998,-11.6989,-3.9073,-9.9428,19.562,-56.6437,-1.4247,
-4.0685,2.4516,11.5,21.545,0.69279,13.5807,-14.7583,-16.1035,-17.7508,-10.4267,-22.8544,22.6211,-67.3451,3.4853,
1.9644,-7.3446,13.7048,16.3919,1.6159,2.1521,-10.9779,-12.2434,-8.0022,-9.8011,-7.9754,13.5439,-77.1859,11.9598,
10.0482,-0.6324,8.5403,23.6101,2.0017,-0.38913,-11.7667,-3.307,-8.0039,-1.9769,2.6341,2.6012,-75.9314,2.0767,
6.551,1.3353,5.1335,16.4043,-1.9783,2.5286,-4.3059,-5.0383,-13.3129,2.0017,-0.4183,-5.2743,-82.954,-7.6966,
-1.0783,-2.1215,6.2729,6.2537,-0.41223,-2.93,5.1179,-8.1127,-2.3831,3.3281,10.7025,3.243,-77.4944,0.96606,
-1.014,-6.8188,4.9314,11.6677,1.5422,-0.82447,-0.97838,-9.5557,7.4086,5.0581,10.0608,4.9781,-81.5288,3.8025,
4.3533,-0.13769,8.9773,14.3448,7.7208,9.3565,-0.43736,-3.6759,4.5516,0.41286,0.29029,-2.5572,-89.6629,-5.5916,
-2.6618,3.7296,1.6848,3.8354,21.3575,8.7955,-2.3409,-10.2092,-9.8215,-13.7119,-3.5861,-12.0525,-91.0375,-13.9402,
-2.984,0.12912,-5.6534,1.1932,30.5808,16.4686,-8.4719,-9.1148,-9.1223,-8.9198,-2.8882,-2.162,-85.0924,0.99626,
-3.2882,-8.0799,-6.7611,-2.2556,14.646,19.8223,-12.3054,5.5321,-3.2685,0.78135,-13.8119,8.0983,-91.083,15.0365,
10.4182,3.9829,7.7445,7.5285,27.8672,28.2826,0.011794,9.9157,-8.8616,-12.7737,-2.369,11.4723,-88.5124,0.40757,
8.3448,0.36719,11.9949,10.4535,38.7383,27.0675,-5.2958,-4.7793,-21.3558,-26.1073,1.1499,-3.316,-90.4388,-13.7169,
-4.699,1.3098,-2.8248,5.9668,22.314,24.4779,-4.0134,6.2299,-5.9744,-10.4408,-6.6381,-3.9731,-75.3637,1.2061,
-15.9955,-0.69807,-16.5363,-7.8989,6.8751,8.9092,5.8765,8.7509,8.484,4.2856,-6.2398,1.0894,-63.1225,5.4751,
-0.93574,-2.1041,-1.4441,-1.153,2.3398,9.4502,5.0416,1.9548,1.4849,1.5074,4.2661,5.3667,-66.5718,-8.9534,
0.45832,-3.4248,-1.9497,-5.4266,-7.932,5.5051,-9.3609,5.2137,-12.7042,-11.6094,5.4571,-3.1575,-70.7792,-9.7541,
-13.6692,0.64019,-15.9327,-16.6794,-21.5561,-3.5088,2.8883,11.6552,2.1581,3.1872,9.9538,1.8561,-52.4325,4.9311,
-11.7744,-4.7056,-16.797,-9.4066,-19.1891,-7.6401,8.986,5.6495,12.6415,17.0959,-4.7435,14.771,-57.115,8.3857,
-0.93648,-7.8004,-12.412,-0.64096,-12.7304,-1.8752,14.7189,18.3359,6.5765,6.2029,0.95754,18.2266,-53.2053,10.2951,
-11.9764,-11.6733,-14.0798,-13.6279,-26.0665,-1.2795,16.2483,19.6483,8.5945,-1.4059,15.0001,3.033,-35.913,12.0899,
-9.3285,-0.35999,-9.3756,-10.8809,-15.7099,1.6912,10.4483,12.6797,6.1486,7.3621,2.4126,-11.249,-23.2539,16.1886,
-5.874,6.4159,-12.6725,-3.4738,-13.8017,10.2742,7.8922,9.025,3.8504,10.7807,-11.8322,3.5259,-35.3664,10.3932,
-5.0392,5.5487,-8.535,2.0411,-4.7724,22.6832,-4.6421,14.7546,-4.5828,-3.9661,-4.2589,17.4144,-47.2358,4.4622,
-5.7015,-3.4688,-0.30394,-0.01065,1.3027,22.2868,-18.4636,17.7288,-13.9561,-17.1277,-5.9335,29.8782,-51.1555,7.0893,
-11.631,-2.7779,-10.4167,-5.3169,-12.8754,17.5729,-3.2558,19.078,-0.092871,-2.0001,-14.743,18.9191,-33.9862,20.6545,
-16.24,2.6957,-23.8917,-8.3755,-26.2029,3.4927,11.0396,13.5911,12.9386,12.2199,0.2416,3.6839,-17.847,17.9678,
-1.7579,1.5693,-13.6651,-4.0126,-29.2358,-6.3651,9.7858,6.9859,7.3381,-0.30978,14.3271,-5.1112,-16.9948,6.2768,
4.1373,-2.3843,-3.197,-5.702,-20.7283,-1.16,-1.416,5.6021,-7.2022,-3.187,2.1519,-0.94595,-24.6591,2.0398,
-2.383,-1.7589,-4.4512,-1.0172,-15.1419,13.0096,8.8013,12.5027,-1.8369,7.1367,-12.0772,1.5233,-14.9778,9.155,
-4.1697,0.27633,-5.1501,6.7623,-13.2683,13.0851,10.2021,8.8581,7.922,7.6726,-1.5939,-2.4271,-0.571,9.5699,
-2.9544,-0.70535,-4.8407,3.4622,-22.1218,5.5461,3.8007,2.5374,5.517,9.142,4.2909,-8.0707,4.2874,7.0659,
0.59952,-5.0044,2.6869,2.7717,-25.1358,4.7306,5.9856,-0.99245,11.4575,10.0409,-5.1329,-13.858,-2.2414,7.1248,
1.5286,-2.7753,5.42,12.2541,-20.7333,-2.3071,-0.16363,-2.8626,7.8757,4.6139,-10.6141,-12.0623,-3.072,2.8373,
-7.7294,-0.19579,-3.1069,8.1422,-16.1117,5.0675,2.2592,-1.2435,3.0609,14.4681,-0.81092,-0.24201,11.2123,1.2197,
-21.2562,-8.3858,-9.192,-6.4464,-17.5579,14.8945,7.4296,-2.6163,10.1143,17.9422,3.5791,-0.71026,18.6318,2.5939,
-19.4985,-5.4701,-8.1582,-11.2574,-16.9868,9.659,-1.2175,-2.9416,9.0251,10.5937,5.7768,-7.9043,7.3829,9.6749,
-11.5747,1.612,-15.3881,-11.5471,-30.0676,-5.0206,-4.0388,-0.83538,4.6237,15.7473,15.0789,-13.2192,12.7291,4.2698,
0.21588,2.9622,-5.298,-4.5823,-14.1635,5.0384,-2.3495,1.6273,-0.96017,3.7064,8.8678,-2.2955,12.4477,-9.0117,
14.3029,3.7496,9.1199,9.7927,0.78629,18.8361,2.616,5.3886,-13.4461,-10.616,-0.34836,8.4565,3.0172,-5.5767,
0.79263,-7.5711,-4.0803,-4.8949,10.7611,15.6676,7.766,-0.24157,-6.3678,-6.9752,5.9441,-6.1509,12.9672,-1.8654,
0.74507,-0.36341,-17.3432,-18.7012,-3.9846,4.1138,7.3,4.598,8.1143,7.5433,7.5176,-19.8819,26.2892,3.0716,
8.9016,1.1063,-2.2026,-8.3042,10.3545,17.9669,-4.2341,1.9096,-5.9903,-6.526,-7.0334,-4.589,10.6118,-2.42,
6.4378,-2.82,2.6441,-2.9804,21.7944,30.9889,-5.9098,-3.0296,-19.7308,-16.7478,-20.7114,3.9976,1.7738,1.5851,
4.6041,7.4811,-10.5404,6.3648,6.3868,23.1218,-1.2129,-0.43575,-4.447,-1.6429,-6.7066,11.9586,15.7674,15.59,
-0.97903,4.6202,-14.2493,2.6053,-5.9481,12.5681,-3.5522,8.7577,8.3634,9.4418,2.8621,20.4074,28.9214,11.1684,
-7.6741,2.4123,-5.6758,-6.2351,-3.6615,17.6033,-1.4103,14.0205,2.0723,-0.77341,1.7253,18.2179,33.7214,-1.0806,
-9.6258,-0.14449,-2.9232,-13.0972,-17.5418,11.2402,-3.7368,-0.92071,8.2195,2.6497,4.0338,10.8533,37.9701,8.1506,
-5.1887,-5.9246,-3.7125,-16.1708,-13.485,4.777,-1.5833,-4.6154,8.6919,9.245,4.7564,8.2728,44.3755,9.5918,
-1.9835,-6.5347,-2.5251,-11.3411,1.4241,0.63091,12.6117,9.7615,5.2756,2.9016,3.5064,-0.90808,55.813,7.0861,
-0.41706,-6.6254,5.8282,-3.4244,7.0179,-5.6794,13.6748,10.9965,2.5461,-11.2639,-0.081581,-2.301,55.2491,6.1781,
-2.3213,-7.1916,9.3379,-8.0431,-3.0514,-4.3731,-0.65344,-1.2417,-2.4308,-10.5881,6.6776,8.4508,48.0751,0.018668,
-1.2179,-8.6907,3.9531,-10.4558,-9.6231,-1.2163,8.0698,3.6564,5.4344,4.1472,15.9257,6.0141,59.2906,-3.8424,
9.9513,-4.7921,8.0577,4.2715,-3.7383,2.2338,10.9628,7.7798,3.6605,7.6483,0.87013,-1.5834,52.7288,-3.1295,
8.8724,-0.16234,14.8113,12.1079,-2.0666,-1.2769,-3.795,-1.8534,-10.6591,-5.8355,-13.2821,1.8892,35.4651,-2.459,
8.8219,-6.4241,9.5804,6.0746,-4.3556,-6.5081,-5.8707,-5.1198,-4.6032,-5.0035,-6.9597,13.8361,29.1044,3.9601,
4.4336,-10.8633,-0.64312,-5.8688,-3.1292,-4.187,0.27072,-6.7424,1.4622,0.12127,-6.5417,21.69,40.8668,9.5117,
7.0624,-5.3874,1.3247,-11.3054,1.8827,7.6427,-5.5343,-3.443,-0.55479,1.0786,-16.763,22.3188,31.6609,6.0462,
10.4977,-3.1344,0.28108,-4.8379,1.7702,5.2544,-13.8863,-7.0954,-1.4866,-6.7046,-15.7567,6.8797,22.0423,2.789,
11.3148,-0.53379,-2.1483,-3.1007,8.9006,5.4205,-9.6759,-5.2227,1.9788,-11.6097,-11.4351,-7.6331,31.8154,5.9988,
20.7678,-5.8087,8.1116,1.4276,22.4666,16.1919,2.9658,5.2216,0.41361,-7.5355,-0.61704,-2.132,39.0729,-0.63263,
18.0748,-6.9071,17.7564,8.5786,17.6319,5.0898,-0.58928,9.2501,-4.9176,4.9774,3.7618,11.9869,31.4221,-4.9365,
2.8903,-8.9047,2.591,-6.0361,2.474,-9.3156,-4.8962,5.3184,6.4731,15.7744,1.124,-2.8323,34.8432,-4.1584,
-5.8581,-5.4756,-11.6645,-19.0731,-11.7744,-3.823,6.0114,5.964,18.6287,18.6884,2.9859,-16.7624,46.8526,1.8808,
5.5895,4.9835,-6.8866,-3.8287,3.032,10.5064,3.2382,8.9833,3.411,10.3295,-3.4653,-1.6566,50.6863,0.32004,
-8.8459,-5.9293,-14.1923,-11.427,-11.2499,-1.8124,1.1146,8.4443,5.2446,14.5348,-8.0815,1.9285,46.68,-0.6638,
-7.2415,-11.8446,-9.9636,-18.9426,-13.7335,-3.1506,6.3542,10.3502,14.0968,22.8286,-0.35997,4.2253,45.3271,11.4377,
7.293,-7.2745,2.2126,-3.7061,1.1905,11.1384,-0.78048,-0.88465,-0.84903,7.3589,-4.1978,18.0718,31.9936,3.0316,
10.1231,-2.979,-9.499,-5.0411,7.2816,-1.7002,13.3663,-2.7613,8.4773,4.6143,-0.086959,12.5362,44.174,7.6742,
11.4455,1.0588,-21.4726,-15.352,-7.2553,-15.6982,22.5859,5.1229,22.0687,18.4375,4.7428,-2.316,55.6236,19.7573,
9.3118,-6.2414,-14.8769,-14.9132,-14.4295,-23.3313,7.1307,-9.2845,14.8454,20.1166,-3.743,-6.8926,45.7956,4.5809,
0.06947,-4.9014,-18.8093,-14.0184,-27.6637,-26.7555,6.8119,-9.583,14.9193,13.1208,9.0246,-5.5144,42.0828,4.3061,
2.9597,-2.6775,-16.7157,-12.2122,-36.0258,-26.1153,15.0873,5.092,28.1242,18.1228,22.5832,8.3247,53.6578,11.7671,
10.5011,-2.5169,-6.0636,-10.5148,-19.7643,-25.513,6.4631,-2.5588,18.1268,16.0708,28.3562,21.9252,52.7418,6.237,
6.9766,9.2121,-18.2433,-10.849,-17.2401,-23.0171,13.7938,3.384,15.1095,18.9655,12.5549,20.9834,45.7174,10.6864,
0.76834,-0.024219,-23.903,-15.9877,-26.8194,-17.7775,18.7558,8.005,17.0968,15.8974,-2.2984,14.8994,38.1497,7.1504,
6.9942,-9.1887,-8.3688,-13.5806,-22.7987,-13.3328,17.1482,-1.6421,16.5534,14.4612,3.3645,7.7343,45.9927,2.3796,
-1.1444,-1.884,-9.9059,-15.6606,-35.5308,-26.6328,22.8736,1.3513,29.0688,21.3125,12.8117,-6.8297,57.3331,9.9558,
-9.277,2.5718,-23.4116,-20.0274,-47.4989,-39.1349,26.8076,13.3309,37.4561,24.3765,2.8762,-5.3463,65.3621,8.8761,
2.3753,0.97006,-12.7306,-12.5542,-36.7106,-24.0252,18.9276,13.9785,25.0777,20.5009,-6.4627,0.28141,47.3404,-1.7875,
4.1621,-7.7727,-8.1082,-14.6958,-43.1924,-25.4785,17.792,7.351,21.6429,11.5519,0.67934,-13.8355,46.5387,4.1085,
-1.876,-10.1998,-19.1987,-14.7782,-46.3896,-34.5631,11.8999,5.9449,18.4146,4.1059,1.6037,1.0947,54.3606,11.5823,
5.9555,2.9553,-6.4693,0.20845,-29.5063,-18.3893,0.57208,9.4477,7.6605,2.894,-12.5925,9.713,42.4145,2.2029,
5.1154,5.19,-5.5984,-2.8084,-41.3536,-13.536,8.7395,18.0472,21.3009,14.7815,-6.9034,-4.9697,42.2821,1.5889,
-3.8751,-2.8403,-11.0512,-5.5347,-29.2237,-13.6885,7.2505,10.2109,14.1246,12.93,4.1246,-18.7716,46.4995,2.4582,
-3.643,-7.4945,-5.5645,1.5521,-13.3702,1.2328,-7.2845,-4.5017,-0.82288,-1.9458,-9.631,-7.2957,34.0609,-3.4785,
1.8824,4.0518,-3.7832,-1.9186,1.532,9.7334,5.8056,0.70156,6.0899,12.2709,-0.85142,-17.9536,44.0784,5.8965,
-10.7736,-1.0164,-17.6562,-15.9035,-12.6599,-4.9506,17.0348,9.3431,19.8245,19.735,5.9531,-26.5256,51.082,11.3315,
-2.891,-11.0864,-15.5227,-11.9449,-5.7383,-0.68457,18.4256,-2.3132,15.6316,11.3148,-8.5041,-10.834,38.8507,6.3094,
6.9312,-10.4217,-4.9426,-3.5098,8.706,11.8991,3.2201,-11.824,0.59367,-3.4641,-22.0939,-10.293,23.9761,-8.1692,
2.6558,-0.14723,-9.4702,-3.2992,-5.9164,-1.3579,-6.0304,2.9854,-0.78032,-1.6998,-6.6682,-23.7754,36.6375,-6.1217,
-2.3281,0.82671,-14.6912,-2.1361,-19.6614,-4.1708,5.9094,3.18,10.8454,11.9104,-6.1586,-21.7571,41.5664,-1.8953,
11.9116,3.1892,-0.78386,0.40411,-6.7938,1.3863,5.0729,-8.1073,0.062735,11.6785,-15.9201,-16.1094,37.625,0.63043,
16.3943,-0.3798,5.5338,-6.8572,-3.0094,-5.9339,7.1806,-3.2786,9.2253,6.6355,-0.86493,-11.7661,49.4675,8.7934,
1.3106,-6.1458,-7.3413,-15.1294,-7.653,-3.6477,0.96012,2.7078,2.8831,0.44865,7.7611,-13.955,37.7063,2.4771,
1.8243,5.8014,-5.9353,-5.538,4.3846,10.6712,1.8671,7.3694,-2.115,12.9648,-5.2477,-15.047,26.7599,6.1879,
-1.6619,6.9007,-3.1671,1.0667,-9.869,20.5352,4.1681,1.6204,0.42492,7.8456,-2.5208,-11.7321,38.1806,6.2994,
-10.7286,-6.5392,-8.284,2.4501,-12.6535,8.2074,-2.3535,3.9352,-2.0126,-5.651,0.042542,-2.8265,36.3726,3.5094,
-3.8128,-8.5584,-8.2693,-3.9689,2.2057,17.8464,-2.6946,6.1116,2.4499,5.7842,-5.2665,-2.1745,28.8838,6.676,
1.7228,-1.7734,-7.2903,-15.791,16.1734,24.0118,-3.9804,-4.3861,-3.004,3.9897,1.3211,-8.3156,27.6326,0.003894,
0.65344,-2.633,-2.9939,-11.9501,16.9132,8.4711,6.8718,-1.2286,-7.6483,-10.3497,10.8905,5.6906,30.7983,-4.8218,
5.9216,-1.9918,11.2857,2.8669,29.8903,0.35341,5.0125,-0.67253,-19.2502,-13.4787,-2.7883,16.4462,25.5742,-3.0846,
10.8727,5.3635,24.7086,16.7949,42.1969,14.4322,-9.3882,-7.8688,-32.1952,-14.1178,-6.9637,14.0115,11.0134,-11.1008,
-1.8399,0.70031,13.8416,6.4027,49.6861,11.0442,-16.9176,-4.02,-20.988,-15.6828,6.4799,5.9347,24.3431,-13.8115,
-8.4834,-5.1309,-1.0889,-1.7,32.605,-3.7184,-1.8026,3.9406,-5.6287,-7.988,6.0916,-1.1753,36.9825,-2.3695,
3.1217,-2.4105,6.8049,12.502,17.2504,-7.2453,-4.6978,0.32703,-19.391,-5.0962,1.3843,3.237,25.9714,-5.6045,
12.5827,1.5936,20.4966,25.8519,30.3154,7.2894,-6.3462,4.1669,-27.3939,-15.4042,5.1607,6.9023,26.3424,-13.9518,
8.4501,7.7695,21.0866,21.1865,40.9301,7.7072,-9.343,4.3997,-28.1624,-22.6817,-9.2489,-4.6084,31.998,-13.5975,
7.9435,11.1623,8.2434,13.1615,24.3743,0.49092,-6.8518,-0.68891,-21.648,-11.6721,-18.2341,-6.2617,29.113,-9.8872,
1.1958,4.2215,5.3363,20.574,23.986,8.6627,-10.7825,2.7296,-12.1479,-4.6998,-7.9732,1.3507,28.8141,-8.8108,
-8.5251,2.038,16.5946,23.199,30.2658,13.9327,-20.7493,2.5658,-24.9276,-15.0316,-21.5948,2.2343,31.9094,-10.2123,
2.5993,7.7054,29.6989,18.9122,30.38,16.9562,-6.9613,-3.3778,-25.3613,-17.0245,-12.9534,1.1356,28.0656,-8.6349,
-1.8984,-5.7832,13.817,3.6775,14.4572,1.8388,1.6577,-10.4118,-9.7396,-3.9423,1.9238,-9.064,23.9691,-4.7397,
-9.503,-10.2608,-1.1121,-10.6432,-0.51023,-4.9163,4.4535,1.7918,4.9448,10.3942,6.5239,-14.3094,36.631,4.2288,
-10.8626,-3.855,0.029266,-7.374,-8.4628,1.1679,-2.5676,4.5796,6.8416,1.4612,-7.9676,-11.5202,34.8064,-9.5331,
0.88483,4.5771,14.1275,4.1641,6.0355,6.4047,-8.686,-6.7917,0.15958,-12.7265,-0.62615,-5.523,18.618,-14.2681,
5.1745,7.6796,14.6173,7.2924,-8.4267,6.5027,-11.542,-13.6209,-1.297,-16.1961,4.7179,-10.498,12.304,-6.1753,
0.038949,13.0085,0.23256,5.8893,-10.7059,8.0418,-10.8494,0.70501,-7.9735,-7.5054,-9.6652,-15.6578,25.6657,-2.91,
-1.8931,3.544,-2.6767,-7.0076,4.0364,4.665,-5.3739,6.4519,-8.4602,-0.30121,-17.1771,-21.4722,30.2874,-7.56,
8.3519,1.8844,6.6507,-8.9988,17.8942,8.7269,5.08,-5.0313,-7.4702,-0.76546,-2.0464,-16.8067,33.7775,-6.624,
6.8862,5.6308,3.3569,-0.73989,12.2602,5.3093,4.7752,-13.413,-13.7754,-14.8195,0.86213,-12.9035,35.6103,-6.2266,
3.5782,4.3274,1.2253,4.1286,-1.984,-5.624,11.2421,1.4918,-2.336,-11.4088,-9.8043,-16.9543,33.4728,-1.9935,
7.2225,8.8923,6.9419,12.565,0.064761,-0.46194,0.91887,9.494,-12.8092,-13.6186,-21.7587,-19.7961,17.3644,-8.6278,
8.7189,12.2178,6.5249,11.8106,-5.7283,2.4602,-2.9953,0.24033,-13.0057,-14.7322,-10.8054,-13.7837,19.8097,-5.2157,
-0.48784,1.8365,-4.4804,-2.998,-19.4846,-11.7875,11.2844,6.0156,1.8746,0.25174,0.45767,-24.5351,32.7211,9.1972,
-9.6245,-1.6509,-6.6232,-8.4979,-21.1004,-25.1802,13.3932,13.8559,5.5126,2.0578,-12.5961,-31.2643,32.5781,8.5363,
-3.7406,-2.0341,2.9401,-1.716,-5.7344,-11.871,-1.4014,1.9285,-8.8091,-12.1657,-25.9403,-15.2885,25.3169,-5.9668,
4.2024,0.017659,4.6935,1.2813,-0.67573,0.41921,-14.8264,-6.8713,-10.2103,-18.0805,-24.2744,-0.27115,27.6569,-7.5385,
-0.39113,1.464,2.9644,-2.1722,-14.7352,-12.6318,0.16319,2.7073,4.5023,-3.0052,-8.7179,-9.1575,28.4096,-3.7086,
-0.84952,2.8236,-0.59012,-7.3488,-27.9511,-19.1101,14.2534,5.9216,16.1839,8.2717,5.9051,-12.9503,32.0119,-5.8991,
13.3015,10.8555,-0.072393,2.258,-18.8193,-3.8635,9.8029,3.1547,1.1128,-6.3246,4.8495,1.9267,24.7847,-5.0628,
19.6296,15.511,7.1681,15.1484,-10.453,5.4248,-1.8809,-1.3768,-13.0539,-20.0452,-0.74838,-2.6402,16.0606,-9.1004,
8.8036,12.6511,1.9139,11.3456,-23.9258,-9.0007,12.332,2.5653,1.8293,-4.7424,13.3965,-16.5818,29.1969,-4.6949,
-5.8246,3.2075,-12.3009,-3.4351,-36.5903,-22.5607,25.692,1.4467,15.8195,9.6421,14.8962,-18.8541,41.5451,-0.55369,
-8.261,0.60254,-15.3133,-14.6993,-36.5893,-12.7868,16.6949,-6.8423,10.5281,5.686,1.9408,-3.6228,37.3864,-0.038151,
0.91921,0.56639,-5.7109,-6.0975,-20.8853,-2.3713,4.1147,-3.5369,5.0723,-0.44488,-0.10497,5.1682,34.1786,4.7883,
-2.5131,-6.7042,-18.3936,-9.1088,-31.693,-9.4657,7.245,2.9473,5.2503,4.8892,5.2078,-8.1673,41.2938,5.9479,
-3.8093,-3.8895,-16.8068,-8.08,-21.5892,-10.3447,12.1177,1.3235,3.4883,4.1135,6.3432,-1.4053,38.3348,-0.68003,
10.5193,-3.6556,-1.6984,6.5048,-6.1938,3.7842,1.741,-3.5805,-4.4404,-1.9225,3.0673,12.779,32.1748,7.0793,
9.2954,-15.0157,7.4599,-0.26696,-3.5201,7.4166,-5.1178,-10.12,-4.174,-2.7727,-1.9409,4.6662,28.3141,11.4786,
2.4666,-3.9832,-1.1889,-6.522,1.9985,12.279,5.3208,-1.3115,2.3485,0.77079,7.3415,1.9737,30.9579,9.343,
2.319,-2.7791,4.6716,1.5878,15.9786,11.5418,4.0373,-9.916,-8.4058,-13.3755,6.9015,15.9553,22.3457,-4.7258,
1.2148,-7.437,8.2503,5.3525,20.2172,7.9549,-4.889,-15.1111,-13.6916,-18.735,-5.0915,15.3712,14.2511,-8.3013,
0.17682,0.72866,5.8256,3.1016,4.9042,9.4073,0.22896,-0.10446,1.2299,-3.5109,2.9334,0.34894,25.9396,6.2968,
5.4726,-7.5163,3.0644,-6.2513,-9.4901,3.5364,7.4509,-2.137,8.7665,5.2748,10.9587,-13.772,26.7957,10.6336,
11.8986,-11.8904,4.8099,-7.8055,5.1793,5.2535,8.9341,-14.5518,-2.3733,-7.5857,4.5124,1.1543,24.2224,4.2068,
3.4657,-10.2123,8.3807,-12.1623,15.591,3.0081,4.5386,-13.6796,-1.2663,-11.9547,2.3115,-11.3494,33.3829,3.9535,
2.2927,-4.775,16.562,-5.6424,16.5853,9.5824,-4.4178,-3.2093,-2.1554,-7.3784,0.24303,-18.387,29.4501,10.4711,
9.875,-4.4876,8.8139,-3.3746,20.4152,15.7618,-6.082,-4.946,-10.7097,-5.0055,-12.3146,-6.6699,13.5831,10.8074,
16.5187,0.123,-2.8106,-11.3738,17.7428,10.4738,8.2734,-4.1674,4.0329,5.4259,-2.4094,-9.6474,23.4915,10.6418,
9.2556,1.5626,-3.1243,-15.0332,11.3709,0.67947,3.4352,-0.54016,14.7776,9.4421,4.0063,-10.5155,29.3186,7.5908,
-5.3998,-4.8022,-6.314,-16.5428,1.5227,1.121,-2.0774,3.8341,3.7603,14.183,-1.5405,1.2116,19.3582,6.6539,
-15.5805,-11.2684,-19.4438,-16.5158,5.2909,9.7374,-7.7433,-0.25547,-2.2549,6.5777,-0.48348,7.8932,13.3717,12.0425,
-0.5457,0.021468,-12.4875,-2.0162,19.0734,23.2531,-7.2778,1.6901,-2.1197,6.183,12.0895,21.5196,18.3591,22.8993,
5.1672,-4.3221,-0.64255,3.4117,23.6092,16.9243,-4.4291,1.1059,-12.1235,0.50513,-1.6626,20.1189,5.1963,9.4641,
-9.2428,-13.2291,3.7383,-1.1353,12.0616,4.8132,-18.2633,-4.2674,-25.4961,-13.6252,-15.6629,6.8515,-9.2155,-4.1296,
-17.7451,-1.3397,5.926,8.0992,10.8551,9.8304,-14.6469,5.155,-12.7612,1.2923,-3.5179,20.5404,-1.3169,10.2182,
-19.0925,-1.7412,7.9825,13.8848,21.2995,12.6182,-9.4258,2.4337,-13.4429,-3.1266,10.6846,28.3648,-3.6499,4.1887,
-18.4302,-5.0139,21.6036,18.3581,34.1215,17.1675,-14.1667,3.7346,-26.7363,-17.039,1.8413,12.6711,-11.6331,-9.088,
-25.0424,-2.7838,25.9871,12.4325,17.9742,2.0375,-7.5279,2.5459,-11.0321,-13.0137,2.6964,-2.1892,2.5735,-2.754,
-22.0929,1.726,22.0162,12.1698,2.7958,-12.1848,4.9854,-10.6332,3.7298,1.8672,6.8764,-4.8427,16.41,2.7186,
-10.1535,2.5871,22.6246,11.4396,5.1505,-23.2954,9.5104,-11.9245,2.9146,6.4711,1.6397,-4.5512,14.4608,-4.1988,
-9.5443,6.2913,12.5835,0.13945,6.7708,-10.3202,1.2208,2.891,-7.874,-5.4965,1.5413,-9.1032,2.0147,-1.052,
-12.8307,11.703,7.0039,-3.7288,-3.2842,-16.4548,-12.9524,0.19553,-18.9805,-4.2016,-10.1301,-9.5221,-12.2062,-0.023815,
-6.7544,1.8349,20.5746,8.5566,11.0129,-5.3361,-19.7847,-13.9162,-23.1481,-11.1852,-21.583,-9.4331,-19.0832,-5.3297,
-7.7965,1.2421,25.6117,22.1432,17.4792,8.0099,-14.2554,-5.7342,-16.4523,-10.0323,-14.0156,-7.4197,-6.8426,6.0866,
-21.4288,5.5093,12.9789,21.1874,2.3305,-4.5323,-16.7781,0.88096,-14.9829,-7.0187,-8.8338,0.26213,-3.0549,4.2735,
-18.5866,1.8021,12.6829,18.4687,0.85227,0.081872,-11.4292,-3.5142,-13.6011,-9.0097,-8.7856,12.3076,-8.1785,-0.32421,
-9.2701,6.0358,17.2284,20.7378,-3.5407,8.2782,-0.61289,-2.821,-2.6545,-0.2678,-3.9167,11.0859,-7.2055,13.6853,
-12.0906,11.9451,19.5714,19.9754,-12.4946,-3.3141,-0.093335,-2.1689,4.7419,6.9854,2.5899,8.0087,-0.50159,17.2064,
-13.2949,0.6151,12.6088,5.2696,2.3551,3.6395,-14.1877,-7.828,-9.6426,-7.5338,-11.6655,-2.1205,-12.0495,2.074,
-4.2959,-8.5886,6.5449,-4.2134,16.3138,17.5211,-21.9106,-6.876,-22.4632,-20.4809,-22.4345,-4.4049,-22.4226,-12.1504,
-5.0033,-12.8979,-7.9478,-8.7852,11.7397,2.3699,-6.4959,-18.0424,-7.0154,-6.7085,-10.4751,-5.1057,-13.3588,-0.10718,
1.0861,1.976,-1.0899,5.2501,15.859,-11.8723,7.7748,-14.0645,4.3917,4.3074,4.2534,0.98987,1.5428,9.5479,
0.53866,0.78327,9.1061,-0.37136,16.3553,-5.7445,-3.7878,-11.7737,-6.968,-1.2575,1.9594,-11.1303,2.3062,-1.1555,
0.50634,5.5613,12.4192,-8.068,14.4084,2.3191,-0.66568,-8.1724,1.1691,2.6774,4.7358,-13.3573,-0.72696,-3.0164,
-1.9356,7.6392,3.4728,-10.9611,14.9918,-11.92,-5.9322,-13.9541,1.5822,1.0689,6.8641,-7.2494,-6.9553,-5.247,
-3.2674,-4.8799,-3.9722,-10.7858,6.8557,-17.3668,-11.8482,-23.2483,-11.5391,-7.1965,-7.6477,7.2855,-13.7747,-10.2395,
-3.0709,-7.4815,-10.4878,-4.3494,-6.0992,-16.3253,-10.1723,-17.9935,-19.5299,-12.5539,-18.6578,13.4932,-14.8779,-11.5549,
4.3496,4.0631,-6.4809,5.0779,-0.42636,-7.144,2.4993,-7.7475,-4.2581,-10.3533,-3.4383,-1.4164,-10.6076,-3.6245,
4.089,1.8896,-3.1977,-4.8754,1.529,-6.7159,2.3489,-18.8615,-3.147,-10.6963,-2.3764,-15.4314,-17.6906,-5.3368,
11.0799,7.0831,-0.59374,-14.7139,-0.97484,-14.5137,4.62,-11.4574,6.2082,3.936,5.0023,-0.40551,-6.4981,3.1843,
13.3099,5.6935,-12.1365,-18.6561,-5.7405,-26.1869,12.0618,-0.15707,15.4839,10.4542,18.8022,9.8598,7.9918,-2.7956,
15.4057,4.3868,-10.4433,-3.4368,2.3225,-18.8265,15.198,1.7821,13.5898,7.8963,28.6607,-4.8318,6.9204,-7.4524,
5.7973,1.2292,-6.9223,6.7919,-1.6759,-15.7662,10.4262,-3.1485,14.7042,-0.29602,16.3277,-9.7393,-1.2133,-9.8996,
-7.0936,8.8744,-14.2259,7.3481,1.3186,-15.7858,5.9411,5.724,18.646,10.3346,22.1024,4.9451,2.719,-15.0953,
-12.4572,10.2717,-18.1969,11.7327,5.0994,-6.1546,7.5144,2.4862,5.9493,11.6452,15.9516,18.7484,-2.2687,-13.2245,
-4.9555,1.9364,-5.5267,12.958,-0.030692,0.96899,12.8532,-6.3475,-2.1266,4.1922,2.4515,15.4747,-6.9567,-3.7474,
-5.6232,3.75,0.59506,11.2164,-4.8534,0.91131,-1.4262,3.683,-12.6124,-1.8486,-1.5546,15.5113,-10.3983,-6.417,
-7.6979,13.6569,-2.8183,14.8847,8.4636,10.9877,-2.788,15.5223,-15.2323,-4.1497,-6.7683,21.8178,-16.046,-11.3389,
-5.3067,4.153,-5.544,9.1675,20.4989,18.0464,0.2732,4.9418,-12.3891,-4.8663,-9.257,16.6483,-17.0134,-5.8344,
-4.9883,-6.71,-3.2812,-0.067056,19.269,18.8938,-9.3914,-3.0737,-21.2949,-11.3277,-6.7723,1.5494,-14.0633,-4.5188,
-6.6188,1.412,0.77473,6.6917,18.1133,14.8658,5.2721,4.8302,-11.3332,-0.99936,7.734,-8.5655,-0.676,-3.2835,
-19.7298,5.1863,-6.9912,2.4303,5.4476,0.46479,11.1178,3.5753,-3.8993,6.7791,14.3976,1.5971,3.2236,-0.19209,
-18.546,5.8398,-6.5708,0.3552,3.1915,1.4025,-3.6493,-0.49873,-9.4541,-2.3112,1.9553,5.3617,-4.6879,-4.0391,
-3.4423,7.9019,3.954,7.5705,16.99,15.3093,-12.0049,2.9083,-13.2287,-13.2687,-12.153,-0.26739,-12.6088,-11.0334,
-9.025,9.3575,3.7172,11.94,18.865,21.1446,-9.3549,8.5231,-17.2595,-14.4023,-8.5294,-2.1811,-12.8174,-11.3365,
-20.5443,5.4189,1.0817,8.812,13.3922,8.7798,-4.4509,9.4596,-12.8468,0.56184,6.0823,-5.4274,2.0517,-7.2792,
-18.8288,2.6817,0.53492,2.0117,13.0705,1.0168,-0.8071,-0.27439,-9.6639,6.6906,4.1609,-9.4431,-1.5572,-4.4303,
-16.2521,2.0385,0.98515,-6.3112,14.6988,6.2622,0.68828,-13.2842,-11.4966,-7.7018,-8.1495,2.2187,-13.5245,-3.6822,
-12.8649,5.2929,5.2674,-3.5195,18.1591,7.3339,10.7789,-3.3208,-2.6051,-5.7922,6.4395,8.358,1.387,-6.838,
-6.7861,5.4581,-6.1443,-0.89723,10.7971,-2.2725,11.5787,10.8689,5.752,2.757,15.11,-6.2434,15.4038,-6.9105,
-3.4846,4.1655,-12.5295,-2.7722,-3.9507,-5.9961,6.0603,14.0767,10.2315,10.3101,9.3788,-7.69,18.1205,4.1175,
-13.4061,9.2229,-6.4713,-3.0882,-5.5334,-3.2238,-1.5399,6.9601,2.3819,0.52558,3.5097,6.8714,2.9332,-1.436,
-21.7686,15.9053,-4.6361,-1.456,4.9291,-2.548,3.8589,7.0248,8.5101,5.8005,13.4305,9.7272,9.1383,-8.5865,
-25.287,3.373,-14.0066,-14.8768,-9.4666,-11.0783,13.276,4.6736,21.5076,13.1719,16.4837,-4.9564,22.69,-3.2467,
-16.0504,0.27622,-16.0606,-10.1251,-22.9986,-9.4494,11.5144,2.4635,15.3926,8.5216,12.6003,-8.8918,21.7009,-0.15753,
-8.3335,3.154,-10.2724,3.9905,-13.6812,-4.0579,10.824,1.3515,12.5393,6.0806,10.8792,5.7417,20.3993,-5.9373,
-12.1753,9.2359,-2.4194,-6.3795,-17.2021,-12.9812,15.481,5.6113,17.0943,7.1636,3.9545,-8.7028,24.4818,-5.0987,
-15.3042,14.4723,-1.3096,-20.0967,-30.27,-23.7799,9.728,11.0652,14.1394,12.5235,9.5069,-22.2806,15.2949,-1.898,
-12.4558,2.9902,-13.7741,-32.9909,-18.2133,-16.5643,9.1443,11.3659,20.0444,12.7367,15.6908,-9.2558,11.4823,0.1461,
-10.7443,-6.8388,-21.6317,-36.5826,-3.0205,-8.8166,12.4556,4.8938,14.0172,8.1126,4.136,3.8431,17.5473,0.13688,
-14.9237,3.2206,-9.7209,-41.1419,-16.9392,-16.0066,16.5324,5.5648,13.1761,10.5207,6.7818,-3.1418,23.2478,0.12867,
-14.9934,8.8157,-2.3838,-34.8135,-30.0229,-15.0466,8.7857,8.1253,12.3851,8.9243,14.0933,-8.7425,17.9939,3.0153,
-2.5158,9.2519,-5.1352,-18.6247,-14.1215,-0.043839,5.3641,8.6038,3.9235,5.4945,7.4594,-1.4641,14.0199,0.90467,
-3.8114,7.2502,-5.3089,-17.6162,0.82578,11.4291,13.244,10.4996,4.1709,2.7528,6.5291,0.071132,7.8718,-11.2099,
-17.6827,0.54323,-1.6132,-22.8312,-13.3238,0.61188,5.2128,11.3166,4.4029,0.17507,7.5852,2.4794,4.987,-1.3714,
-11.6886,-4.3135,2.3431,-14.7071,-21.2079,3.4691,1.0405,9.673,8.9629,4.024,8.0948,16.4306,18.7878,12.8109,
-4.2329,-0.19519,0.27319,-1.2816,-9.3217,-0.59762,3.8729,9.0926,5.5312,7.6421,11.4686,16.7827,21.8933,10.4853,
-7.838,-1.1486,5.0814,7.4794,-3.9378,-5.3863,-5.0435,4.688,-8.9007,-1.4996,2.0964,1.6757,6.4797,-4.2438,
-1.0966,-5.4215,12.9769,4.6181,0.63936,2.1726,-9.0827,-5.7247,-4.3986,-5.7523,0.52272,-7.9645,-1.5186,4.8039,
-6.3368,-2.6841,1.1026,4.8238,-2.7748,0.5957,-1.3006,-6.8287,3.1024,-0.10029,2.9043,-5.0736,0.98461,0.17435,
-16.5704,-0.59287,-1.8584,14.1835,-13.223,-9.0892,12.2851,4.1949,6.7758,9.5549,4.6594,-10.5589,5.7497,-7.5551,
-12.1995,-2.0047,5.4902,9.9549,-22.5606,-10.9559,3.3463,7.3199,6.8511,11.3937,0.037535,-8.4779,10.7116,0.13441,
-6.1601,-0.43748,-1.1112,12.7348,-12.0402,-1.1317,-10.9545,11.2234,4.0284,1.5441,-6.2358,3.1269,1.8676,0.60958,
-14.9578,-1.8586,0.40288,26.0707,2.7822,3.2775,0.90839,12.9611,4.2686,-4.821,-2.4849,1.4918,-4.516,-9.5589,
-15.9896,-1.7471,14.4787,26.3271,8.2946,1.1507,8.5728,3.4999,0.15298,0.29239,-1.3712,-9.2115,1.5437,-10.9156,
-4.4169,-3.572,13.9828,10.6475,0.078385,-3.742,5.1641,-0.56915,8.8279,6.0641,-7.0782,-16.3782,1.4516,-6.4007,
-6.0816,-9.1469,-0.36435,3.8457,0.073224,1.3071,8.7133,6.2189,14.0874,5.7007,-10.5125,-15.395,-5.3903,-2.1567,
-6.1991,-2.3261,-3.7187,13.7464,10.2003,13.2894,13.4978,3.4341,5.0409,5.841,-2.6451,-5.3045,5.0655,-1.545,
5.7513,-2.1866,6.1526,17.7467,5.7288,6.7024,4.0034,-10.2806,-2.0159,-0.29826,-1.5218,-4.9872,15.3744,-9.1713,
18.4321,7.111,13.9843,25.8473,10.692,11.6071,2.3158,0.4673,0.51712,-0.76314,0.01697,-5.1698,7.2158,-4.2797,
3.2262,11.9913,-0.95476,16.0957,9.5686,15.253,1.695,6.7108,-1.925,-0.23457,-2.3961,0.4473,-4.3128,-4.5047,
-5.542,-2.8282,-10.4367,1.0299,-1.6198,0.23778,4.4877,-1.4113,-10.4945,-1.1865,9.3256,3.3139,1.7343,-6.1651,
0.57978,-6.8913,-1.1264,0.59487,-10.2066,-7.8687,5.1835,-5.1856,-10.8299,0.81533,22.8661,1.1863,9.3496,0.95958,
-4.2787,5.1011,-3.9532,0.55964,-17.3127,-0.64182,4.873,-6.8042,2.3643,3.6608,7.3941,0.14999,3.9641,2.8317,
2.731,14.4428,0.143,11.1385,-10.4848,2.2901,3.6146,0.3579,3.1866,0.54676,-7.1495,3.0354,-1.0984,-0.23254,
10.7693,5.375,14.2344,15.7775,-0.68976,-6.0485,-2.8734,1.7843,-11.1046,-6.7227,-14.33,2.3709,-3.444,-3.5957,
7.7111,-2.1837,8.9291,0.73088,-1.1302,-10.027,0.67572,-12.4228,-12.7413,-8.7314,-9.1279,-1.148,-1.79,-8.6869,
9.6596,8.0783,-5.5972,1.2784,1.3487,-7.0133,7.8714,-20.7352,-4.7407,-3.8662,-14.8527,7.1217,-0.23609,-1.8942,
7.1512,-0.12579,0.52787,7.9555,4.1631,-8.5222,-0.31942,-14.6665,-12.1747,-9.4234,-15.8913,-2.9543,-8.906,-5.6404,
14.9229,3.2594,14.5962,17.6101,15.009,4.0494,1.1472,0.20399,-13.8563,-2.5865,-0.83782,-6.1538,0.79476,-3.8546,
14.9927,8.853,10.7165,9.7988,0.008429,-1.0172,-5.6755,0.19221,-13.0254,0.46403,-0.89659,-8.6789,11.3613,5.0607,
18.4354,12.6632,0.90717,13.5531,-9.5313,-0.47433,-0.99365,2.5927,1.8562,7.6724,3.4995,-5.7461,15.021,18.8571,
11.5396,6.1146,-1.0765,15.6347,-7.0292,-3.3398,-5.7582,-1.4223,-0.294,-1.4716,-10.8105,-3.4721,0.019726,4.1084,
14.2243,8.1603,-3.4245,9.3902,3.524,-9.4114,8.6873,0.11091,3.1008,5.8534,-10.0519,0.11433,14.1185,-0.47986,
9.9937,3.3279,-4.6669,-5.1641,13.4431,-14.1541,11.4333,-10.0281,9.1867,4.0543,-8.0028,-4.2353,24.8499,5.82,
4.0872,-5.0726,9.6045,-0.51204,20.8383,-4.1385,-3.3527,-20.5221,-4.3903,-10.289,-13.7932,-5.4286,9.2589,1.1295,
4.3247,-4.2863,5.6507,4.8247,5.488,-7.2668,-0.62998,-13.0192,0.21444,-12.9398,-9.5889,-4.6201,11.2249,8.2979,
1.1709,1.7601,-8.7884,-9.5648,-8.9413,-20.9308,13.5078,1.2701,14.3016,1.9366,-1.2951,-7.2372,24.6514,21.9,
2.5476,-0.75714,-7.186,-14.6702,-9.1514,-20.5301,11.6241,3.6064,25.878,15.9204,4.09,-4.3914,24.993,21.4421,
1.4306,-7.4656,4.8231,0.31003,-0.88286,-18.3332,-2.5815,-10.71,10.2253,11.3709,-3.8739,-2.1982,12.8801,8.5766,
6.1688,1.666,-2.2206,12.2427,-13.3739,-19.1634,5.2923,-6.5807,5.3795,16.4774,2.1473,-7.855,22.7211,13.8517,
1.4565,-2.7763,-16.1873,-2.5919,-26.6714,-32.1136,16.0705,6.8391,19.1567,29.5887,7.3253,-21.3752,27.6294,18.3266,
2.816,3.6623,-5.9407,4.9098,-12.9009,-29.595,1.0062,2.0878,23.2042,13.7134,-2.281,-5.9926,11.8716,5.1662,
12.779,15.5038,8.5158,18.7152,1.9732,-13.7193,-13.1541,-12.1374,7.712,-1.2094,-5.5209,8.4669,-0.79194,-5.2747,
4.2924,8.7839,13.685,13.6233,-4.0435,-20.7246,1.7351,-9.3704,3.4993,-2.958,-5.1896,-4.8027,11.7986,7.5848,
-0.30604,10.6694,-1.2361,-1.2941,-17.9009,-33.5811,11.3897,2.2879,17.3893,11.3195,-13.0795,-18.6146,19.292,9.5432,
13.8123,15.818,-2.0175,9.5064,-2.7268,-17.4662,-3.3937,-4.6037,4.6585,-1.0472,-20.9783,-15.4584,4.0345,-5.1294,
27.0836,19.2107,11.1289,12.3132,11.5368,-3.8752,-8.8707,-4.8098,-9.721,-11.1158,-17.308,-0.43094,10.6558,-5.6782,
11.3586,12.7511,-3.6388,-2.5256,-3.2554,-17.7427,5.7615,-9.8281,4.9622,3.6511,-15.7868,-14.5051,24.1164,-4.8547,
11.0494,8.1271,-17.5205,-16.4741,-17.1601,-30.7781,8.2016,-14.063,18.7645,14.9015,-12.9098,-27.7348,22.5604,-5.5285,
24.4864,1.8498,-2.3693,-10.9248,-30.2305,-36.9137,-3.8698,-14.1838,11.2576,1.4643,-25.6439,-30.3034,19.2766,-1.3373,
27.7323,5.1159,-16.3271,-20.4008,-32.0581,-30.3575,1.6697,-7.0608,13.9593,4.7536,-27.4824,-19.3193,32.22,-0.77477,
38.6124,18.909,-29.4475,-24.0009,-16.0346,-14.4361,9.2885,-3.7423,23.7355,18.5684,-16.1843,-9.4756,44.3868,3.1312,
50.3956,25.8667,-34.5888,-28.3505,-11.8044,0.53008,17.4148,-11.2372,13.6269,13.0025,-25.827,-23.0071,39.093,8.733,
61.4719,35.8931,-18.4134,-14.1055,3.0039,14.5983,23.1242,-20.2117,-1.2907,-1.8776,-38.3774,-35.7267,26.1336,-5.891,
71.8836,45.318,-3.2086,0.84084,16.9236,27.8224,7.6368,-33.099,-15.3133,-15.865,-50.1748,-39.1537,10.4656,-19.6375,
81.6706,52.248,-3.2347,4.0576,30.0082,40.253,1.9812,-21.8371,-11.2806,-23.3777,-38.2617,-46.4537,23.9376,-19.2058,
90.8703,39.9463,-9.3126,-10.2859,42.3077,51.9379,11.9938,-18.1153,2.4216,-10.8789,-21.866,-57.7665,36.6014,-13.7117,
99.5181,51.6495,-12.1305,-6.1821,53.8059,62.9216,11.7569,-11.7206,-6.8901,-7.8141,-15.3562,-41.1646,47.3221,-21.0898,
107.647,49.4071,-22.016,-2.9168,64.6775,73.2463,10.0864,-21.6316,-9.371,-16.0293,-28.5348,-35.8004,34.8341,-13.0705,
87.0882,33.4159,-13.4589,-6.1184,60.6869,82.9515,13.8226,-28.5354,-6.3967,-14.5857,-40.9227,-38.9597,29.3664,-5.0501,
67.7629,17.3109,1.4486,-5.7518,42.9457,92.0744,5.2747,-29.7177,-17.5918,-16.6049,-32.9424,-37.5868,21.8152,-18.8471,
49.5971,14.4525,3.1824,2.7955,26.269,79.6684,8.3354,-13.8346,-3.51,-9.3366,-23.7292,-21.3406,34.6063,-12.7818,
32.5213,2.9711,-11.1085,-7.9865,10.5928,60.7883,8.7994,-9.2546,7.3139,-11.6708,-13.6214,-17.1658,43.9998,-0.43687,
16.47,1.3463,-4.5433,4.5539,-4.1427,71.241,6.825,-16.9001,-3.2559,-15.3128,-5.567,-11.7936,27.2598,-6.6822,
9.4731,5.6073,9.8293,15.3768,-17.9942,81.0666,4.9676,-14.4392,-9.3326,-5.2272,-19.333,-19.2873,20.4264,-6.7636,
-5.1952,-8.8291,-4.8605,3.8399,-31.0145,62.1026,10.4588,-15.503,-0.088543,9.1864,-20.9592,-12.3413,33.3008,-0.56947,
-18.9835,-20.2511,-18.6688,-10.4905,-43.2537,44.2764,3.0774,-10.7133,0.88187,6.1137,-5.6017,2.4992,45.4027,7.1841,
-31.9445,-13.7291,-19.8517,-13.6105,-51.954,50.4129,6.2694,4.0295,3.241,5.2641,5.2392,1.2751,52.5915,19.7789,
-44.1278,-18.2127,-22.0382,-23.89,-50.2847,33.3972,19.9933,9.9502,16.0719,15.0788,0.58255,-12.9014,50.883,7.4961,
-42.9724,-18.085,-18.7862,-27.2817,-33.7594,20.7791,32.8937,-3.1904,26.6865,18.9986,14.6476,-13.948,48.7951,4.1519,
-43.2884,-23.7538,-18.6232,-29.5038,-45.8338,21.463,27.3248,-14.5769,26.0504,13.9997,15.1071,0.98888,51.6566,18.0028,
-46.4803,-17.504,-14.6119,-16.1551,-41.5269,27.8937,17.0013,-7.9135,19.6628,16.0541,14.2002,15.0295,55.3111,26.9442,
-43.6915,-13.5589,-7.9455,-1.0858,-24.9353,33.9391,1.8812,-3.5788,4.3831,1.5831,9.4887,24.5235,37.8924,11.2275,
-41.07,-23.3592,-21.5688,-7.4017,-15.3469,31.9027,3.3243,3.3903,9.5365,11.1364,12.7789,24.9813,29.4568,11.1461,
-46.8071,-23.405,-25.9544,-14.1938,-28.5261,36.2606,17.2249,17.2868,23.0643,24.5682,26.1122,28.7894,41.7894,24.5774,
-54.1306,-25.3779,-10.2971,-15.7547,-35.8719,28.778,25.2487,8.903,24.9481,31.1859,14.3049,30.4392,37.7247,28.2997,
-41.2341,-19.0306,4.4207,-7.09,-24.0709,26.0863,9.6338,0.64989,9.3512,15.2147,6.6923,23.7882,27.7427,12.5017,
-41.1721,-14.5121,-8.6071,-8.112,-36.7266,25.9685,1.4458,3.9885,7.9345,15.3764,14.4925,16.0894,39.104,16.6857,
-51.7271,-17.0181,-17.2566,-13.8968,-38.7553,20.0681,15.4591,-4.4525,20.4843,28.4444,20.86,21.3956,43.9939,14.2371,
-49.5886,-18.8918,-20.0811,-8.2389,-22.33,19.8287,8.6333,-4.1854,7.6768,12.6377,11.8886,23.0067,32.6707,9.5234,
-45.6477,-14.8635,-23.7003,-2.9204,-23.5118,16.7097,-3.4632,10.1657,-0.50274,-2.0016,5.3865,11.0125,27.8165,23.052,
-45.3214,-11.5596,-10.2171,-5.1573,-26.4429,6.5407,10.8446,9.4472,11.5886,12.109,13.265,0.22072,34.3483,19.6301,
-33.4362,-12.3135,4.4959,-3.4004,-10.8658,-2.0525,20.2155,-5.2196,12.3398,10.9006,15.8458,-3.1697,31.8047,9.2859,
-19.3683,-15.9165,15.2128,1.1454,2.8125,-6.2712,12.7315,4.3685,7.2576,-3.8534,21.1671,8.1171,37.1339,22.8288,
-26.8898,-15.9261,12.3707,3.9715,-7.0045,-13.6139,6.1788,7.0017,3.9283,-6.408,22.7919,21.1378,27.1869,24.2448,
-32.9968,-15.9356,7.7685,2.7681,-19.1287,-15.6923,-1.9122,-6.9275,5.6214,3.6252,13.705,5.7695,11.4557,8.6901,
-19.4376,-15.9441,3.443,3.5667,-5.437,-7.0318,-2.7622,6.0322,3.3548,-0.45181,12.8827,-8.6767,-3.3316,-5.9313,
-16.8249,-7.7513,3.7182,4.8001,8.9892,1.5918,-9.8326,13.871,-10.837,-8.6264,19.3459,5.0883,-17.2317,8.5246,
-23.0516,-4.8742,11.6969,4.0293,10.7524,-4.7762,-19.3737,-1.0612,-10.6695,-8.5907,13.8438,17.8089,-30.2978,12.4635,
-12.0193,-0.72225,14.8545,15.366,13.0021,-18.5896,-20.1414,-0.88804,-9.0647,-8.0753,2.3994,7.0912,-42.5799,2.0675,
-2.1322,0.76897,15.4111,26.5057,23.3181,-25.0832,-18.4506,-3.2473,-15.7575,-12.8981,5.6326,8.1136,-48.1631,-3.3639,
-15.0297,-9.4086,14.0042,14.7839,29.1557,-17.3062,-23.6147,-16.0778,-12.3995,-8.7471,6.7416,21.7268,-41.8961,-6.5393,
-25.7068,-10.7739,3.5152,9.0732,27.4068,-6.6191,-32.8111,-12.2179,-15.5146,-3.3977,-6.2055,21.2792,-41.3121,-1.3214,
-21.2696,-9.1628,-3.45,20.1072,20.9373,-6.222,-23.1235,0.093637,-15.5492,-4.1584,3.815,19.0369,-46.5523,4.5466,
-14.686,-9.0953,-2.7607,17.4529,19.1988,-12.1207,-18.3589,-1.3599,-13.1684,-3.4266,11.7874,27.0615,-49.0656,-2.9628,
-15.2532,-8.0668,2.7118,4.3445,25.283,-9.946,-30.2842,-7.5498,-20.58,-3.7038,-1.9457,21.0956,-53.3588,-8.0919,
-10.9609,-6.1359,16.6491,9.3912,30.038,-4.0428,-20.2649,-9.5093,-13.0732,-5.8932,9.2672,8.7337,-41.956,-0.36978,
-9.8204,-9.1444,20.8471,16.0639,20.034,-17.7907,-14.7077,-19.0698,-8.9121,-10.8474,21.737,10.6218,-34.1317,-1.795,
-12.1256,-6.666,5.4963,12.2057,14.0074,-27.3366,-17.6843,-10.2071,-8.3779,-2.4771,16.5728,20.5978,-33.0489,5.0665,
-18.6351,-6.7488,-8.9335,-2.5171,9.7903,-18.4603,-20.0008,-0.42739,-12.2165,-1.8457,9.3069,14.056,-35.4073,7.1746,
-10.7627,0.41041,-2.872,4.3873,19.8166,-10.5983,-20.73,-6.1914,-13.4137,-5.5945,13.5735,12.247,-29.4234,1.92,
-0.95057,-3.9565,11.4003,18.2241,22.9699,-24.0624,-24.7931,-19.9199,-21.7744,-15.3898,5.522,4.276,-37.789,-10.2564,
3.4483,-4.2014,20.7382,15.5742,7.4917,-36.7187,-19.9284,-15.239,-16.127,-13.9841,3.7438,10.2906,-41.7946,-3.369,
7.5827,-0.57262,10.3276,0.5397,3.7736,-39.6039,-13.4267,-3.2281,-1.168,-2.0494,16.545,23.7731,-31.0852,2.14,
2.7864,-4.8796,11.1553,3.9944,17.6472,-33.8501,-25.646,-17.1344,-15.1979,-16.0264,13.1402,23.6856,-43.3201,-12.0884,
-7.5113,-4.1045,10.0037,17.7457,14.0673,-37.1264,-24.5896,-12.6197,-27.2019,-22.1911,5.1152,16.958,-54.6014,-8.8411,
-9.956,1.931,6.5091,11.8555,-0.87676,-39.7234,-9.0142,2.2375,-11.4698,-6.7596,9.6319,21.7288,-37.2253,5.7894,
-9.3581,-1.0793,8.0483,7.2851,-14.9242,-46.0231,-11.9596,-5.2424,3.3184,6.5614,4.2303,11.7419,-34.6185,3.8851,
5.1934,-4.3917,20.5908,16.9795,0.071298,-33.1312,-9.795,-9.2706,-10.9807,-4.9284,12.1778,18.2732,-27.235,2.2041,
1.5046,-8.4709,11.1541,3.8991,-1.2718,-32.5912,-0.041422,-1.4777,1.6289,4.5341,16.7536,30.2022,-18.3651,15.0973,
-2.4451,-7.9617,13.3797,0.7712,-15.2955,-37.3891,-7.7579,-2.3537,5.3906,7.156,10.9242,32.2504,-23.052,12.2622,
11.8016,-9.4137,26.6769,14.8249,-0.27777,-25.4971,-15.9765,-14.756,-9.0328,-7.3733,12.1985,21.6313,-35.7689,-2.5736,
14.3616,-0.16578,33.1676,25.8862,13.8389,-21.0729,-10.1933,-17.7306,-22.5908,-21.0309,4.7118,6.2335,-40.7503,-15.3355,
-0.6001,8.5282,17.0775,10.2331,-1.0914,-33.3167,2.9618,-3.1577,-7.1354,-5.6691,-1.3592,-8.2405,-24.2053,-0.31537,
-4.3145,-3.0791,1.9529,-4.4809,-15.126,-35.659,-0.59259,11.1318,7.3927,8.7711,9.818,6.3539,-8.653,12.1376,
7.0405,-6.2715,-2.7694,-6.8879,-4.9425,-30.1432,-2.9695,10.8367,6.9492,7.2802,18.3949,15.2481,-4.4924,5.1373,
-7.482,-4.4478,-2.1205,-8.8867,-4.1632,-42.4346,3.4802,0.055489,14.734,7.3261,8.1257,0.23319,-2.7755,3.3826,
-20.914,-2.7335,-1.5114,-1.1173,-18.0134,-47.9808,-3.0002,7.2883,14.3318,19.9124,8.12,-3.0489,-0.19688,6.5563,
-10.0105,-7.3941,-2.3849,-2.0145,-31.0326,-38.3472,-7.6448,10.711,6.718,15.8233,19.2117,-2.8655,-5.0096,10.0229,
-14.7163,-12.2569,-16.3418,-15.9936,-43.2706,-42.3183,6.9139,5.7261,20.4149,18.251,11.787,-3.1759,2.5276,16.6572,
-4.1851,-8.6276,-22.9712,-9.1352,-26.5744,-25.6792,9.2849,0.55792,12.3267,10.4017,-1.4633,11.1146,0.44664,8.9044,
9.5746,-5.2151,-7.4929,0.096466,-10.8799,-10.0385,-5.3722,-5.2643,-2.5129,2.0586,6.3435,20.4702,-12.1232,-3.2083,
-5.0998,-2.4906,-2.3292,-14.0093,-11.0827,-23.5362,2.7781,4.2175,11.7379,16.0351,15.1288,5.142,-1.2653,7.1148,
-15.7807,0.071618,-16.2894,-15.4715,-24.5178,-36.224,16.7114,18.0644,25.1336,29.173,11.8097,-9.2665,12.9106,20.7879,
-0.73384,-5.7217,-17.1314,-12.6137,-15.2178,-28.2609,8.8454,11.0827,26.8937,19.4846,10.1353,-8.4924,15.8864,17.5014,
6.4371,1.3755,-3.5609,-14.7513,-0.20471,-14.0226,-3.2642,-3.0913,11.1801,11.5608,10.4923,6.1171,2.3897,13.5569,
-4.0806,0.81064,-5.7588,-13.3839,-14.2924,-27.2813,7.0631,4.3308,16.4075,18.1047,-4.1282,-4.0077,1.764,7.437,
5.8134,-0.20264,3.2703,-2.9317,-26.4612,-38.078,9.5342,8.896,17.3524,9.2995,-11.5995,-8.5922,-1.2367,7.9555,
11.7361,-1.6379,-2.2328,-9.9929,-26.3205,-40.1351,7.5147,1.1256,17.7595,15.013,-0.77155,-5.6637,4.1444,20.504,
20.1983,-2.987,-13.1954,-21.4545,-32.9435,-38.2102,21.1638,8.2938,30.794,28.2122,13.3747,-12.561,17.9958,21.6858,
18.5041,-1.3609,-9.9912,-13.8953,-27.5892,-37.3641,6.7591,2.4897,14.8463,12.4195,4.2615,-12.2897,9.5699,6.2847,
4.8508,1.6156,-8.4262,-8.2374,-37.5123,-43.8063,6.3535,4.2701,4.3059,5.8851,-5.6434,-4.798,0.31208,5.052,
6.9713,2.9661,-11.2982,-11.1199,-40.5689,-35.8715,18.0326,18.1139,18.1476,19.632,8.7952,-8.8523,14.3934,18.8489,
16.2022,-2.0364,-12.55,-15.2773,-24.0348,-25.0347,3.4425,11.1288,11.1609,7.7313,11.0533,-17.0053,16.3155,3.6179,
16.677,-3.3612,-13.2445,-15.8076,-16.9125,-34.6292,3.7183,-0.63553,13.8675,14.5031,14.731,-6.819,18.7129,-3.3535,
1.5764,-8.4664,-23.5455,-23.0609,-29.9978,-46.6514,3.9779,9.5341,27.1355,27.7329,23.0144,5.6513,26.7565,10.9477,
-9.9873,-11.8182,-19.2386,-21.6775,-42.2979,-47.6025,7.599,16.6808,34.0817,28.8545,19.7036,11.1012,24.1857,14.0411,
4.7119,-6.2847,-10.3651,-8.7981,-25.66,-30.6464,14.8618,10.8556,17.9368,13.6153,4.4214,5.6108,19.8404,5.4794,
15.8984,-5.4249,-4.4363,-3.928,-10.0204,-26.9867,0.9442,5.8633,2.7605,1.7027,-9.9439,4.7923,6.5897,4.6688,
7.7087,-7.511,9.8209,-3.21,2.642,-21.0252,-2.4887,9.8533,0.88488,8.8372,1.4848,8.8475,9.5715,7.7658,
7.7281,0.17541,9.7139,0.35976,-3.7881,-27.9654,11.7606,22.2875,14.9318,22.407,8.6324,-5.7834,23.0972,18.396,
14.5006,-4.1769,-1.0004,-1.1092,-14.6573,-40.3875,25.155,13.7137,14.4087,19.5052,-1.0519,-19.5364,35.8114,11.0207,
20.3858,-10.6797,13.1596,0.88705,-1.2339,-32.0655,9.5457,-1.2092,-0.55583,4.2348,-3.8832,-5.603,19.5627,-3.7405,
12.8902,-4.7329,17.0856,-8.3326,8.0065,-21.9403,2.1091,-1.9922,-4.2729,-5.5584,-7.0278,-5.7496,6.701,-7.2665,
10.6696,1.8228,11.7184,-7.35,-6.5739,-34.7239,16.0826,12.2273,10.0835,8.8751,0.63072,-11.6759,20.3989,7.2695,
10.5117,-6.4878,1.8489,-2.5672,-20.2795,-46.7405,28.0342,16.6913,23.5785,22.4426,6.8644,-8.5633,33.275,20.7145,
7.951,-12.8527,0.77314,-0.48324,-14.9851,-35.999,12.2522,1.5898,8.0637,7.3693,0.6631,-7.0851,36.8482,5.3716,
10.8516,1.909,7.9638,12.5716,0.013988,-19.7391,-2.583,6.4283,-3.1425,-5.1332,-3.718,-10.0358,20.6478,-7.3845,
6.3406,6.619,-6.614,-0.72622,-1.061,-20.5935,10.8162,20.1426,11.1461,9.2748,-0.60056,-2.6807,27.1274,7.1586,
-1.2765,-7.8781,-15.7573,-14.7827,-6.3042,-25.6294,17.4034,20.7543,24.5773,22.8183,12.4613,5.6819,39.5998,7.5847,
6.0367,-13.5684,-0.71182,-11.3741,8.174,-11.0663,2.2592,5.409,9.0027,7.3492,15.0903,-0.93058,36.6315,-6.9704,
3.7448,-6.965,7.9054,3.4083,6.6094,-14.2618,-9.3458,-9.0155,-1.7789,-7.1917,0.084925,-4.7347,20.3336,-16.0923,
-7.0932,-14.2656,-6.6689,-0.28238,-7.8871,-25.9491,-0.10096,5.6254,6.0472,2.8876,-1.2581,5.199,18.7412,-3.5479,
-5.703,-11.4804,-20.3688,-0.26544,-0.068222,-15.7086,-11.6733,7.3267,-0.10528,-0.18053,0.7476,4.8862,22.4409,1.4891,
2.3577,3.3084,-7.3492,2.6449,0.90097,-8.0118,-16.7622,1.0978,6.6558,0.7954,5.5273,5.5581,19.1647,1.4002,
-2.6075,1.5539,1.7749,-0.40821,-9.7669,-21.6311,-8.037,-4.7572,10.1155,4.6076,-0.59445,-0.56462,18.979,-5.4385,
6.2326,-5.2937,13.2469,13.7163,4.9191,-32.2849,-8.5203,-6.402,-4.5914,-9.7688,-11.1726,-1.4954,17.8402,-18.6199,
6.341,-7.3886,12.9353,13.7489,2.5847,-26.9707,-9.4561,-5.5346,-14.8198,-14.8633,-16.7733,-1.888,17.2531,-17.9851,
0.65406,0.29139,-1.9408,-1.067,-11.6703,-28.7296,5.1022,2.0336,0.1694,0.12846,-1.6669,-1.2924,23.4545,-2.806,
1.579,3.1683,-15.9244,-0.038326,-25.0701,-31.8304,4.7961,3.8413,10.6631,7.7307,10.8671,-2.1795,12.3981,6.9016,
5.3442,5.8726,-0.86893,8.6476,-9.4659,-20.2719,-9.5917,8.435,-4.0767,-6.8332,-3.8849,12.0513,-1.8544,-7.6125,
-3.6596,4.556,8.941,0.41022,5.202,-8.4413,-7.4597,11.7888,-10.9583,-7.7606,-11.7436,19.4209,9.8367,-3.6691,
-2.9577,0.90551,1.1679,-3.9562,7.7852,-12.2766,3.1194,2.8802,-3.0651,2.8365,3.061,4.1557,17.4477,4.7523,
5.9029,0.85072,7.8516,7.8592,10.2125,-11.5405,-11.1678,-10.8017,-16.9812,-8.9135,-1.0916,5.9442,2.3009,-7.1117,
-8.5513,-6.9193,3.5211,0.63421,-4.5003,-8.9183,-7.9766,-2.4337,-12.4757,-5.4839,-1.0261,19.6875,-6.8945,-3.7902,
-22.1382,-19.0472,-10.7902,-9.053,-18.3303,-21.8914,1.1856,9.2907,2.3729,1.5995,6.7544,5.3709,7.6192,-1.6335,
-11.4254,-10.6682,2.5098,5.5902,-5.9162,-12.3766,-12.8761,5.3557,-11.8695,-11.5224,3.9371,-0.25732,1.2628,-14.5613,
-5.9149,-6.1686,16.4592,13.8289,-3.6315,-9.7043,-15.963,-9.0657,-23.2185,-18.55,0.80603,-1.2074,0.22241,-15.6169,
-19.5509,-2.4209,13.4329,4.7983,-17.5136,-23.1125,-6.8035,-3.5876,-7.7254,-3.337,3.1697,-8.3712,14.3091,-0.68941,
-15.483,1.5838,6.8381,8.3699,-24.0723,-21.7258,0.35906,10.7276,6.8381,10.9632,1.0503,-6.9043,13.341,-1.6127,
-10.2118,-4.7823,7.8748,6.4207,-11.5313,-6.3222,-4.9698,-1.604,1.3851,-0.52598,-0.46063,-5.0421,3.3746,-7.787,
-15.3888,-5.4609,11.2618,5.0699,-9.8748,2.6317,-13.3552,-7.297,-3.523,-2.4246,8.2515,-3.775,9.9265,2.3285,
-6.2632,-2.7207,6.2443,8.1438,-3.9754,-6.6922,-9.1768,-0.58669,3.9259,-1.7968,15.9577,0.79334,9.8132,5.5659,
-1.5466,-3.0398,-7.1567,-1.5116,-5.1843,-14.4924,-6.2146,-0.070084,-0.65234,-9.8903,3.9041,-1.6659,1.9878,-2.9693,
-2.9007,-4.3053,5.3344,-1.9033,-6.3207,-12.1754,2.3605,3.3113,10.4829,1.7992,2.222,-5.9086,15.8595,-2.3088,
-1.2797,-9.3543,19.1143,12.3109,8.1585,-2.279,-11.8811,-10.9874,-4.2461,-12.2997,0.64172,-7.0011,0.8079,-12.3018,
11.341,5.3069,32.0675,25.6723,21.769,11.9578,-15.8833,-12.1484,-18.0913,-19.2806,2.5325,-0.79225,-13.3406,-12.5283,
-3.4394,1.02,16.0434,10.0319,6.3629,2.4472,-2.8696,-2.2536,-9.0679,-4.1328,-2.9259,-14.8447,0.22103,-9.365,
-9.8783,-2.9002,0.98082,-1.7756,-8.1189,-8.313,5.0211,5.6011,5.5762,10.2151,3.0389,-9.985,14.3078,3.7404,
-6.8731,1.616,9.1232,12.3214,-14.8684,-11.1913,-5.4112,-1.9716,5.1317,2.7389,-0.52015,-6.9739,11.411,-3.7202,
7.6393,12.1324,21.1185,16.4058,0.12372,-11.4854,-4.1214,2.9708,-2.8956,-11.5255,-6.2791,-17.1688,-1.8181,-15.0759,
18.6494,9.9571,22.2634,7.2206,2.9012,-11.2786,-5.3216,-4.4436,-12.8529,-18.4439,-14.1032,-22.4102,-7.9806,-20.4429,
15.1188,-1.7365,15.6221,1.481,11.8939,-4.3294,-5.4846,-16.2378,-10.6339,-9.136,-10.8444,-9.0048,-2.1944,-11.9797,
1.6691,-5.4913,0.58477,-7.292,-0.39768,-4.0697,0.63372,-3.6851,0.61843,0.096262,2.3498,0.21952,9.5162,-5.4707,
6.8749,-5.6446,-11.8843,-5.407,-9.5402,-3.3432,12.6569,-4.9114,-1.8307,-6.1811,13.3044,-7.0298,9.428,-8.5201,
20.5624,1.9307,2.9287,9.0174,5.1322,10.9574,4.6609,-18.7167,-15.8209,-19.8011,1.41,-8.055,-5.2377,-11.3861,
26.4558,12.9105,16.853,22.5764,18.9243,24.1814,-9.7188,-31.6937,-24.8945,-14.2708,-12.7746,2.5584,-13.0161,-1.5365,
10.7685,4.8997,1.7418,8.942,3.6888,8.6305,-1.79,-43.8921,-9.3009,-0.38871,-2.7322,9.642,-6.9283,0.0030895,
-3.9776,-6.9723,-7.1567,1.6516,-10.6325,-5.9873,-3.6123,-55.3586,-8.8519,-11.9443,0.32611,4.2389,-20.6126,-14.0971,
8.058,7.5461,7.3727,12.6482,4.1054,8.4719,-5.8076,-66.137,-13.6276,-15.5699,-3.0711,12.1854,-33.4758,-5.4233,
2.7509,3.1239,8.7515,7.0656,10.0216,6.6257,-3.5294,-76.2688,-10.8802,-8.8456,-14.4648,8.5608,-45.5673,-0.27329,
-0.30949,3.9015,17.8742,20.149,4.5948,15.8764,-0.4233,-85.7927,-20.8408,-0.59633,-1.0534,12.8708,-56.9332,-4.1168,
2.6039,8.4916,30.3103,24.7297,12.0381,15.8889,-7.1522,-94.7451,-26.3446,-12.139,8.6581,8.2391,-67.6172,-9.6595,
-3.8243,7.4998,17.3956,12.1498,-2.7842,0.83558,-0.45109,-103.1604,-10.664,-5.1396,-5.9614,-6.3553,-77.6602,-7.6321,
4.1246,8.0149,30.4519,25.5208,11.4829,6.6837,-1.3891,-111.0708,-13.9931,-0.0066118,-12.2485,8.126,-77.1691,-6.209,
13.5258,1.7448,42.7248,36.9059,24.8939,20.3827,-13.8493,-118.5066,-25.6971,-11.5842,1.0299,21.7385,-69.6445,-8.7318,
-1.3858,-7.044,26.0613,20.5916,9.3002,5.0597,-9.1584,-125.4962,-10.0552,-7.9948,-0.96162,6.3342,-55.8172,-6.2781,
-12.772,3.5097,10.3976,5.2561,-5.3578,-9.3439,5.4911,-132.0664,4.6481,6.5849,6.3323,-1.7648,-38.3681,8.089,
-12.488,-7.797,4.9496,1.3002,-19.1363,-9.156,-4.1138,-138.2424,-2.6032,1.7385,-4.1782,5.5777,-50.166,-6.4963,
-6.9146,6.7708,18.7526,15.3222,-9.5678,-0.88818,-17.967,-144.0479,-12.0962,-5.1201,-0.068067,5.243,-61.2561,-15.6457,
-5.0519,11.0796,6.9046,11.399,-8.511,-6.1409,-9.0609,-149.505,-2.2036,-3.365,-3.4411,-9.1715,-43.4807,-8.435,
1.5233,1.2489,13.727,0.58359,6.0997,0.49912,3.5435,-154.6347,-4.4839,-8.4705,-14.3308,-3.2049,-36.0473,-11.306,
-3.3927,-2.6859,23.5167,6.3378,14.3082,7.223,0.43648,-144.4633,1.5744,-6.0325,-9.611,7.6008,-46.428,-13.5221,
-15.7322,1.3347,8.0057,-8.1425,-0.65025,-2.859,1.3749,-130.971,12.0937,1.0838,2.5441,-6.9553,-33.9932,-7.8857,
-0.6883,6.562,-2.9794,-0.79057,13.4888,5.5138,-2.0847,-126.4899,-2.7319,-7.1825,1.9091,-18.972,-24.7179,-13.6845,
13.453,18.2285,11.2994,13.3569,26.7794,19.2829,-6.301,-112.6289,-10.6598,-7.2344,0.34716,-3.8432,-26.6115,-15.2755,
12.4268,17.1353,24.7214,12.4464,14.9322,18.0169,-9.7829,-105.8712,1.5578,-8.73,-6.4275,-17.7126,-32.7333,-11.4646,
-2.4188,2.5985,9.1381,-2.4004,-0.063777,2.8359,4.3127,-110.1323,6.2894,-3.3812,-7.0074,-30.7498,-27.8754,-10.7767,
6.5194,2.9254,1.2446,-3.1115,12.5926,0.84552,11.2902,-104.9717,-5.1846,-4.6258,4.5096,-14.8048,-20.896,-13.5068,
8.058,11.433,0.20485,9.6178,25.9371,14.3025,-0.00058836,-87.0955,-7.7679,-13.0323,-0.58557,0.18346,-18.6771,-11.7322,
2.7495,3.9936,-13.9074,-5.0593,10.2808,2.8306,10.6123,-75.1154,6.7982,0.29275,-4.4108,-3.2052,-6.9436,-4.274,
4.0319,2.3066,-7.1747,-14.2953,-4.436,0.24867,11.423,-81.7046,1.4558,-2.1369,-2.6988,-17.1129,-9.9037,-9.3245,
7.65,15.6764,7.3558,0.66237,-0.20086,5.0583,6.8786,-75.8372,-0.5604,-8.7625,0.35846,-13.0813,-8.3444,-10.6947,
2.8487,5.5694,9.7002,5.3386,-2.6009,-7.3059,3.0892,-63.0857,0.92064,-2.9299,-0.14582,0.72945,-5.4316,-13.4297,
4.1252,-2.0009,-0.048187,6.4657,11.6552,3.2634,1.4564,-53.0286,-8.301,1.5873,9.9949,14.7857,-2.6928,-9.2473,
-4.324,-7.1878,-13.0712,-5.0188,-3.1441,-0.30952,0.88626,-47.4353,2.3281,-5.7442,13.7365,5.5873,2.7748,-7.245,
-0.68744,-9.169,-15.664,-16.7784,-17.0555,-14.391,0.35076,-36.3874,15.2138,-3.9525,6.6403,-4.8794,5.9855,-2.4685,
-0.16296,-12.9607,-9.4168,-13.3592,-16.405,-17.7598,0.81203,-32.7563,3.2058,4.4868,-0.029177,3.6155,0.31989,-0.87252,
-7.3907,-16.5248,-6.4402,-3.3917,-6.2552,-4.6334,1.2456,-38.9931,-1.3293,-4.9492,0.45489,0.98609,-5.0067,-5.1629,
-0.67484,-9.2618,-4.6064,1.154,-0.57208,5.776,12.2675,-25.5569,7.9169,-3.2049,-1.0198,-1.4851,-0.364,4.3133,
3.7075,-14.9772,-11.5666,-11.9415,-6.8098,-1.8072,11.0491,-24.5058,0.20612,3.2594,-9.1599,-2.843,-3.7193,-1.252,
17.585,0.021455,3.2273,2.875,7.6988,12.4013,-2.1574,-22.0704,-13.3144,-4.6556,1.0384,11.4276,-4.4603,-8.8953,
30.6299,14.1202,17.1337,16.8025,21.3369,21.1964,-11.1943,-6.6462,-19.7527,-18.3667,-3.3662,7.7381,-10.4652,-9.81,
14.6921,-0.82704,2.0057,1.6943,5.9567,5.8246,3.5773,7.8526,-4.4675,-3.1647,-12.3306,-6.8262,-2.6002,-1.0196,
0.19336,3.9372,-12.2147,-1.4108,-8.5007,-2.6166,17.4627,21.4814,9.9006,11.1252,-3.3886,3.8234,11.6558,12.0679,
6.4528,9.972,-13.4115,12.6639,3.5873,11.6404,2.3149,34.2926,0.88578,-1.8226,-10.4228,3.1117,-3.1435,-2.7562,
7.9949,3.585,-2.9586,14.7989,13.9859,20.4811,-8.5473,46.335,-3.9915,-3.6425,0.81637,1.9594,-5.8507,-4.412,
-3.0981,-10.7301,-15.3237,-0.18901,-0.95329,5.1523,1.6143,57.6549,10.348,10.0842,12.3463,-8.7715,8.0095,3.5721,
-1.4643,-13.8363,-1.3789,-1.0337,-10.4357,-9.2569,-5.7192,68.2956,10.5832,6.102,14.018,0.92165,6.081,-2.9142,
2.0007,0.01927,12.8039,4.3357,4.2904,5.3985,-5.8584,78.2979,-4.1518,-0.5361,11.7291,14.9663,-8.3838,-6.1165,
-5.8383,-12.525,-2.0644,-10.0245,18.133,5.666,1.2474,79.4792,-7.6531,2.3909,5.2366,14.924,-10.6657,-1.89,
-0.66389,-8.8786,-16.0405,-23.523,5.7308,-7.217,10.8217,88.8104,6.906,16.3474,10.7111,3.4147,4.0743,12.3234,
11.4372,3.7144,-12.5561,-8.8668,10.6938,0.45261,-3.819,90.1266,8.3124,19.1175,0.90208,-1.1324,2.7557,8.5806,
23.2945,10.2463,2.2973,4.2088,24.1522,9.1095,-10.3437,83.7544,-6.2864,3.8704,-12.6593,2.7955,-11.5097,-6.0343,
17.0718,12.5254,-5.1867,0.095849,17.2871,7.5978,-3.9334,92.8291,-6.2829,-6.3838,-9.0058,4.557,-16.9816,-7.0106,
5.4341,4.0554,-9.7,-3.7698,10.4598,6.1769,-4.6625,87.6322,2.7781,-4.0719,-0.74697,-2.4703,-6.314,-4.6602,
3.6607,6.2242,-8.6353,-4.0255,20.9288,7.2537,-1.9707,83.8217,-6.5549,-5.2741,-6.9737,-14.3833,-4.4877,-1.9685,
9.2302,15.4994,-9.0823,-1.8542,22.5674,11.6426,8.7609,92.8924,-9.056,-5.9227,-7.5204,-20.2741,-6.1482,0.079304,
19.2898,2.0259,5.5627,4.0462,31.8267,11.9091,0.51674,79.9727,-10.4424,-10.392,4.5097,-4.9577,-19.2875,-14.0255,
25.369,-1.4728,18.6281,4.2858,36.1891,9.7476,-10.6104,74.692,-12.2284,-9.2861,5.687,9.4398,-19.5781,-16.9339,
9.7469,-2.8319,3.4104,-10.0714,19.9178,-4.9372,2.0875,77.4471,-3.2929,-0.52722,-6.7154,-0.99385,-4.3034,-1.8179,
-4.9379,1.198,-10.8943,-10.3227,4.6227,-15.1453,16.0622,86.3085,11.0046,13.6044,2.3716,-10.5829,1.6354,12.3912,
-1.0455,-5.6282,-2.7859,-8.7387,-9.7547,-8.4478,0.99848,77.2705,-3.7556,-0.34675,6.0888,-0.2997,-12.5627,-0.63203,
13.1172,-4.8077,-2.1359,-20.2747,4.9306,2.1901,-3.4041,77.9407,-11.7316,2.0861,9.1001,7.92,-4.9461,-3.0062,
22.3522,-5.9671,-10.2091,-25.3302,18.7348,-1.318,10.9001,75.6768,-1.8618,15.9519,-1.5764,1.1737,9.3417,2.4816,
6.911,-6.091,-0.43106,-18.5035,17.2374,-3.6515,11.5845,78.3723,-4.1621,6.793,-4.8595,12.199,-5.3188,-2.0096,
-7.6036,-2.3488,-2.8173,-14.0166,2.1032,-12.5983,-3.2106,85.7312,-1.5003,-4.7111,-4.0851,12.9145,-15.0212,-0.4416,
-0.175,4.5464,-9.4025,-4.492,5.946,-7.9834,-1.9438,78.6571,-2.375,-2.4982,-1.9107,-1.9604,-5.4363,2.4788,
0.80106,-0.55048,2.741,-2.2913,19.6892,-2.6793,5.8918,59.8377,-10.9161,-10.0673,6.8884,-13.7945,-8.0041,-9.2474,
-9.8617,-5.3425,4.5058,-7.9435,20.8104,-3.4837,2.6434,59.7346,-0.61286,-7.534,7.4398,-1.3884,-1.7351,-3.8685,
-13.6118,-5.5043,-9.8646,-14.7036,5.4618,2.0322,2.9671,70.2505,13.5239,7.0181,0.72138,5.9315,2.7108,10.4636,
-14.2425,-6.6214,-18.33,-15.2688,2.8311,3.3573,2.3063,69.3031,15.9801,8.9,3.0902,4.1282,-1.7941,19.8569,
-12.4224,-7.1879,-16.2647,-14.3526,6.5216,6.0511,2.1689,68.0398,14.0576,7.4023,6.7651,3.8805,-5.545,16.7371,
-11.6771,-6.7575,-14.3241,-13.4915,9.0251,8.5824,3.0034,66.8522,12.2486,5.9926,10.2187,3.6477,-8.1071,14.7673,
-10.4941,-5.8697,-12.0177,-13.1643,11.8599,11.4442,4.2701,66.2173,10.0658,5.1507,12.9818,3.9112,-10.0332,12.4334,
-9.3822,-5.9999,-11.779,-12.8568,13.5608,13.1696,4.4962,64.6568,8.0149,3.3938,15.5801,3.1942,-12.8084,10.2404,
-11.2313,-8.0519,-11.5541,-13.5328,15.1592,12.8617,2.7791,61.2593,5.1219,0.77809,16.0927,0.59046,-18.3114,5.2838,
-5.7328,4.9747,-7.0018,-5.967,10.3906,16.9151,-1.2467,56.6195,4.8142,7.4853,9.3379,-13.545,-28.7916,1.1077,
-16.0031,8.5352,-6.5813,0.18028,16.5211,8.1808,-13.7154,47.4331,-8.0173,-5.5065,6.8479,-11.1753,-30.9232,-3.7833,
-10.7007,9.4706,-4.739,7.4066,25.6608,20.7158,-7.5856,49.894,-13.8087,-3.7296,2.0948,-9.0583,-28.5859,-2.1089,
-11.5061,4.5601,-12.6564,4.5492,11.0953,22.8495,0.1057,44.4874,-4.7785,4.6959,-5.2671,-21.5407,-24.4587,-3.4298,
-10.8157,5.252,-12.8616,5.2418,23.9382,23.4087,0.10028,47.6088,-4.4918,-3.3048,-4.9511,-6.1482,-19.1308,-1.2938,
2.3768,14.5856,-1.4766,9.7509,36.6019,36.1042,-3.7657,57.2949,-18.3223,-17.2065,-9.4786,8.1021,-25.7023,-1.2166,
-0.6602,6.9566,3.4366,8.2017,46.3575,32.382,-0.64536,45.1731,-17.5962,-15.5818,-7.9448,-6.484,-24.1597,-3.0734,
-14.7206,-5.522,0.81832,2.4027,29.4761,27.0614,-3.0187,32.3317,-3.5146,-4.5159,-0.2319,2.6986,-10.6499,5.3128,
-11.799,0.59853,-4.0554,6.1176,31.676,37.0157,-5.732,41.9698,-6.1981,-1.3506,4.6066,16.6367,-9.0458,8.853,
-8.1962,-3.2969,-13.4612,5.7505,28.8099,20.6948,-5.388,44.2766,-8.721,-0.30489,0.47072,8.2923,-13.3281,-4.2212,
-8.6691,-2.1344,-6.8638,4.4408,14.5382,5.3531,-1.2053,36.7959,-4.3383,3.5729,6.2312,2.9707,-2.8792,5.6812,
-13.9386,-11.6546,-8.3822,-9.9256,4.9823,-9.0681,-0.16832,20.4882,-9.8667,-1.4656,8.7522,4.7217,-8.4952,2.4455,
-3.4536,-15.7799,-2.0901,-12.5977,7.5778,-12.5378,9.4905,27.5697,1.3386,10.2003,16.9111,-0.38525,-0.26702,-3.4905,
-5.1761,-14.8336,-7.7539,-7.9828,-4.4549,-22.3988,3.1318,35.5642,6.0829,13.4482,10.1072,-1.3272,3.6089,-7.141,
-14.9966,-14.4254,-19.3489,-14.7401,1.1193,-17.6777,-2.363,21.3691,-0.55365,-0.38452,0.33443,10.8136,-2.8791,-3.3349,
0.0032005,0.54012,-4.088,-3.2423,15.1522,-2.5171,-2.2207,22.9813,-6.3106,-6.1507,9.9631,17.8833,-4.637,2.6544,
5.6832,6.187,2.8012,11.0522,28.343,11.734,-13.1845,35.7025,-16.0634,-6.264,-0.7662,2.7103,-9.6653,-3.7769,
1.4827,10.6408,4.5633,24.4891,12.5425,11.2937,-3.7089,42.1349,-3.5203,3.7601,-11.3331,-5.0622,-4.2612,8.0282,
3.8058,12.4144,12.4912,19.9073,-2.3101,-3.4839,-6.8631,25.5068,-7.6513,-0.80682,-12.1005,2.4786,-5.4521,6.0991,
8.4025,7.8101,12.7064,11.9585,5.5475,-13.7792,-8.3806,14.4376,-21.2922,-13.3015,-2.6909,-0.56496,-9.95,-8.3669,
1.6259,6.8587,-2.156,4.9686,0.87237,-10.5404,1.2877,19.842,-20.8707,-10.0923,6.6369,0.91636,-9.8357,-7.7553,
-0.40094,-0.30624,-10.6007,-9.4296,-6.8989,-8.9429,5.0708,13.8283,-5.5185,4.0228,12.0284,14.37,4.8544,6.2186,
4.4472,-7.0422,-3.2104,-17.9197,2.1995,-14.1955,-0.058457,1.4201,0.010927,-1.0436,0.69288,10.613,7.8312,-0.90883,
9.0045,3.9932,4.7003,-2.7446,16.1675,-10.4499,3.8045,15.4349,-12.5337,-8.6999,-7.0676,-1.6022,-6.7386,-6.644,
8.9466,0.37647,7.7954,11.5201,13.1573,-13.2,0.1991,18.2584,-14.1933,-15.4146,-3.2673,-5.8488,-15.8735,-7.6923,
12.7529,-1.0926,4.9166,-2.8983,6.0973,-15.7838,-6.0844,7.0318,-9.9641,-9.1828,-3.5532,-2.1203,-0.92968,-3.8531,
4.2679,-3.9219,-7.9224,-12.3735,6.6961,-10.0127,1.035,16.2582,-4.5421,1.0164,-0.44514,-3.9233,11.6683,1.2012,
-7.5666,-16.2297,-8.4117,-11.6311,11.1184,-0.7283,-5.7814,24.9318,-8.1291,-1.9385,5.3703,2.1018,1.3199,-2.7294,
-1.3234,-11.3969,-1.1531,-7.0733,14.3103,-4.5445,-4.4704,21.5062,-3.7823,-2.7873,4.083,5.8347,2.2049,3.2227,
-1.244,-9.7484,-15.184,-15.3334,9.5922,-18.3719,9.8979,24.0753,7.0584,-2.62,0.94319,-8.6154,10.7571,11.7129,
-0.68704,-6.751,-19.9526,-8.1414,2.7456,-3.6519,8.2303,36.6217,2.2931,-2.9452,3.2991,-12.8126,8.6647,8.5985,
4.6611,-2.0046,-4.6555,6.4471,-0.79672,7.6629,-4.3247,25.258,-11.9445,-7.1107,-7.9945,-6.7379,-0.056877,-4.9432,
6.7935,1.4933,9.7239,16.0817,0.6985,-0.033058,0.27702,14.5762,-8.7062,-3.3064,-14.7519,-5.8508,-0.53624,-4.1639,
8.3156,5.2636,6.027,8.3639,0.65705,5.7591,-2.634,24.3159,-5.2895,-3.1085,-8.0767,-9.3588,4.3205,4.77,
4.44,-0.35907,3.2534,-4.1991,-7.5841,2.0359,-2.9587,22.3741,-8.3488,-14.0177,-3.2507,-16.999,4.5441,1.1071,
1.2787,4.4866,0.16331,-9.7369,-10.0239,-7.7354,11.3188,16.2067,3.7306,-7.3878,4.6633,-13.0842,7.1653,6.8295,
2.1671,5.1825,-13.9465,-10.1178,0.22623,0.44813,2.3289,17.164,-4.2127,-2.12,0.52446,-4.5807,4.8057,2.5598,
12.6504,4.8711,-13.483,4.5893,14.3127,14.5212,-7.4595,25.7828,-13.6086,2.8318,-8.1911,1.4834,0.65832,-4.3477,
2.2422,6.509,1.426,15.3006,12.8621,15.953,-1.2223,20.3764,-15.6869,-6.0226,-13.4893,-6.3246,-9.995,-5.0515,
-10.9172,2.7418,4.1258,0.28252,-2.0097,0.8958,12.951,12.8823,-0.64573,-1.319,1.3115,-14.1459,4.7047,9.3516,
-8.3325,-11.5227,-10.2218,-13.8344,-15.2877,-13.2579,18.8183,12.1098,13.493,4.5493,9.9169,-9.4381,18.5224,15.4349,
0.36831,-8.793,-10.4641,-20.5048,-0.27048,-16.1039,5.628,15.7246,4.7459,-5.8546,13.6632,5.2282,11.4029,5.3424,
-6.89,-0.06372,2.225,-13.002,-4.7051,-13.6902,7.7033,21.0535,8.8034,-7.9154,13.3262,6.2524,4.4472,9.3641,
-8.8886,6.2116,-9.0042,-16.5642,-17.4486,-9.4912,17.3721,27.9911,14.5468,2.6905,-1.4639,-2.3236,18.2803,20.8635,
5.7447,7.7687,-7.4997,-7.8518,-4.8237,5.1783,13.4345,24.3819,7.8847,0.59935,-5.236,-1.22,24.7934,14.7862,
11.0793,1.9952,-0.77774,-4.9682,1.7377,9.5818,-1.4716,10.8583,-4.6491,-13.4276,-0.58004,-4.5239,9.2058,-0.091023,
1.2486,11.0423,1.6805,-8.0473,-8.4981,-4.019,-4.6505,17.4425,-3.8878,-7.3155,5.7258,-2.8055,7.3155,9.0804,
-1.7212,9.4151,1.5806,-7.5644,-15.7071,-10.5313,7.207,17.3615,1.1695,4.7028,7.3125,-1.6717,6.8766,12.3959,
-3.0653,-2.2463,0.038353,-1.8037,-9.4578,-0.73347,-3.3564,9.0836,-0.34804,5.8681,-1.3271,-3.0188,-4.6316,4.4151,
1.9432,-0.18182,-9.6136,-4.5898,-5.0304,1.2403,-7.015,9.5028,11.2517,17.094,-10.8961,-8.6269,5.295,8.9748,
11.9581,6.1011,-5.6587,-1.9019,8.2977,2.6137,-9.9703,2.6615,-3.5234,1.9683,-15.5488,-8.5916,-1.2947,-5.6637,
13.6522,11.0415,7.7062,12.3122,21.8999,16.4469,-9.8553,10.7031,-17.412,-12.2498,-10.275,-2.7696,-15.3171,-13.4161,
-0.67512,5.5553,-5.2997,3.745,6.4859,3.8822,4.836,18.745,-4.5703,-4.5419,-3.8693,-12.2522,-2.7101,1.4888,
-5.9411,5.7043,-13.183,-5.6465,-8.0033,-10.4508,15.051,8.4544,9.804,9.7215,-7.9789,-18.7527,11.5525,9.9745,
-2.2074,9.7039,1.708,1.9289,-10.3093,4.2763,4.9811,5.5346,9.589,-2.9225,-9.9118,-3.5276,5.443,-1.7201,
-4.487,2.8501,0.049069,-3.4937,-12.1028,5.4671,-2.5548,10.5094,0.81191,2.5588,2.7432,-1.9785,6.5638,-3.0643,
-6.6303,-3.5929,-14.0539,-11.4854,-25.4767,-8.9609,3.8705,7.4663,14.7542,16.5053,9.8153,-11.0266,9.5471,6.2855,
-6.233,-3.3778,-8.2779,-9.8312,-35.4179,-19.8931,4.6033,-0.70106,18.6926,8.6521,3.4371,-2.6456,-1.6399,-3.7403,
-0.55118,4.062,6.3187,1.8544,-42.4583,-10.4978,-7.7341,7.5427,5.5107,6.6855,-1.1104,3.7847,-5.8829,-10.7521,
-1.0009,6.2303,-3.3353,4.1561,-43.2875,-8.4205,-7.7519,10.4678,3.7327,17.381,-1.5266,-4.6432,6.5313,0.024043,
0.9889,1.9975,3.6186,8.7304,-26.5902,6.1847,1.3963,1.1557,4.4738,6.6894,-2.4001,0.45904,2.2795,0.9877,
-1.483,3.3246,3.8838,9.6544,-10.8948,19.9136,2.7604,4.4635,-0.13643,-2.8788,-7.5625,6.7035,-10.8827,-2.4487,
-12.0078,-0.73437,-10.4492,-0.57399,-24.3411,4.6188,5.4887,15.7732,9.52,5.9775,-6.1441,-6.2427,1.3478,2.5223,
-13.6989,-3.1028,-23.9222,-3.9167,-36.9807,-9.7583,4.6771,5.6609,12.3259,2.2417,-2.3983,-14.0694,5.6096,-2.9355,
-6.1231,-0.98692,-8.3869,-2.7166,-29.9377,-4.3487,0.53745,3.3915,2.9023,-2.7164,0.63994,0.87474,4.308,-11.4434,
-7.6855,0.037394,-2.9496,-4.4834,-32.0014,-14.7011,5.3298,17.288,3.6933,3.2358,0.60201,10.8447,11.7689,-6.8978,
5.8015,8.236,-4.2201,4.9511,-25.74,-20.091,9.3513,27.7201,1.0596,-5.1601,-9.566,-3.906,13.4739,-3.1072,
16.5495,4.3656,10.1331,4.1726,-21.7821,-6.8244,6.3787,11.9569,-6.2406,-13.0518,-16.2278,-16.5884,10.2539,-6.297,
12.1799,2.6562,14.723,-4.2795,-25.7821,-15.5813,5.5132,-2.642,1.371,-3.1023,-1.2636,-2.5673,13.9809,-1.5769,
11.9309,2.9796,10.462,-4.5055,-12.1749,-20.9179,-1.0892,11.6166,-7.8777,-6.2938,6.0484,6.7531,4.9403,-10.6487,
11.6974,1.353,8.3873,1.0722,-6.1379,-5.5629,4.2826,15.1519,-3.0632,-6.3985,0.37902,-6.6775,-1.6281,-7.5982,
-3.1044,3.2015,-6.2159,-4.7813,-19.8697,-7.2683,1.1313,11.3484,8.6985,1.7049,-13.7437,-20.3768,0.40024,1.5418,
0.086168,7.3512,-16.3472,-4.0121,-32.7775,-10.2094,-4.243,13.08,3.8348,4.9797,-16.67,-18.0801,-2.0363,-4.8227,
7.3172,3.5335,-10.0595,-7.1481,-16.7108,-2.3602,2.2831,8.9176,1.1927,3.2335,-4.5732,-12.6539,-5.2908,-5.0152,
0.12429,-9.2221,-23.5559,-20.8192,-22.8349,-3.1832,6.9707,5.4881,6.9103,4.0046,1.4904,-15.7537,-0.14971,3.9697,
-4.2254,-8.186,-30.7171,-19.461,-24.8419,1.3496,14.7533,17.2201,20.4862,11.0005,5.7432,-0.81798,7.0964,10.0031,
-10.7262,1.9534,-19.2259,-4.1934,-16.5976,-0.66114,7.1137,19.0817,10.5734,6.481,-7.1454,0.19574,-3.9432,4.5779,
-13.4593,2.319,-4.0818,9.4565,-29.7017,-9.7883,-4.4087,16.4885,0.77266,0.78524,-12.0235,-5.1229,-10.9437,2.8558,
0.85639,-0.71453,9.6722,6.9602,-23.9506,1.4132,-1.2498,16.4652,3.6207,-2.1563,-5.5129,2.9039,1.2918,4.6151,
13.8313,0.77531,17.2931,10.8844,-8.4136,15.4285,-10.3408,3.4156,-10.6966,-16.0178,-8.5593,1.2818,-6.0223,-8.6881,
21.2027,1.2111,13.843,9.749,6.1912,21.6294,-6.3432,2.7283,-17.1814,-8.7848,-3.703,1.6881,-16.7571,-5.7543,
10.2814,-2.721,-1.0876,-4.9359,19.9198,6.2317,8.1374,8.3534,-2.0505,5.8423,-8.3059,-2.2736,-8.0327,2.3099,
0.01582,-0.62804,-2.3598,-3.0833,4.6246,-8.2422,14.7763,6.888,10.9884,11.6543,-15.526,-15.6449,4.0281,-2.6533,
0.01533,1.3394,11.8818,11.2017,18.4471,-8.4933,-0.21026,2.6157,-3.7709,-3.145,-15.5596,-21.4605,-10.3136,-16.5941,
8.6975,1.2595,13.4715,10.902,26.1786,-3.1596,-6.3606,9.2126,-11.6369,-6.2244,-5.9419,-10.5242,-16.8223,-9.2174,
4.7995,-4.1234,-1.4368,-3.8521,10.5079,-4.4175,8.121,14.9309,3.1613,8.2491,-0.27897,-10.375,-1.713,0.50157,
-9.5885,-0.0161,-15.4506,-0.61668,9.9869,9.9476,-0.19377,9.2114,5.7579,-0.074339,-3.1566,-2.9978,10.8243,-6.2824,
-11.7985,12.0456,-21.0593,13.4113,12.7649,23.4507,-2.5947,10.1057,-3.7544,-4.4117,8.1289,11.2821,-1.8859,6.1553,
-8.6786,2.1565,-19.313,-1.4934,4.7619,15.0708,3.8326,5.1571,3.707,1.1599,1.3696,2.2935,-10.9401,10.1283,
-11.0527,1.0625,-4.0542,-3.2245,18.5762,16.0972,0.70868,3.883,-2.3042,-0.83895,-7.3961,-2.6683,-16.0724,-1.0932,
-16.1787,0.03363,10.289,0.82892,31.5616,21.8853,0.6657,12.3341,-7.9551,-5.6132,0.76612,2.3164,-13.1783,-2.9574,
-14.2434,-1.8986,6.5583,-9.8346,17.8709,9.9579,6.4145,20.2777,3.136,8.2313,11.3339,10.861,1.7124,8.7985,
-20.1426,-9.5032,-7.9352,-23.3445,2.6986,-4.7396,6.0301,11.3425,17.0478,16.4215,16.4431,7.315,9.7023,9.2357,
-18.9341,-6.0381,-14.5862,-22.3167,-2.6602,3.856,7.5985,3.9076,22.1874,9.6474,15.4565,2.052,1.4012,-1.9322,
-8.1498,3.9724,-13.711,-8.4346,11.5994,17.7247,3.2822,9.4619,6.7562,1.3487,3.9154,7.7176,-3.5079,-3.7465,
1.0237,2.7694,1.2116,4.6146,25.0034,22.8232,-6.563,14.6839,-7.7492,-4.521,-6.9334,16.9037,-9.0871,5.1628,
-0.48559,5.0158,15.2389,8.6795,18.9424,18.0767,-10.511,9.4611,-5.6192,-10.5217,-6.035,14.4416,-19.6371,-0.45433,
-5.2806,8.5743,15.5535,7.1941,12.0162,24.711,1.6981,7.9278,1.4723,-6.9956,1.0814,0.067399,-18.4598,-5.2512,
-6.8935,8.0594,8.831,9.6568,25.3952,27.0883,-1.2982,2.6285,-7.2992,-10.4348,-4.7727,-10.55,-8.6672,-2.0408,
1.2391,21.0844,14.0899,21.6214,37.9715,33.182,-7.9746,9.2242,-3.0027,-7.8795,2.268,4.183,5.3605,5.7997,
-12.9353,5.7194,-0.85547,6.2241,21.5932,17.091,-2.1897,-0.49517,7.309,-2.1003,4.5444,1.8928,2.6264,-8.6483,
-17.3561,-4.6458,-14.9041,-8.2493,6.1976,1.9656,4.2142,6.7716,13.1429,2.368,18.2622,-4.4923,9.7059,-2.7126,
-2.2147,2.3873,0.090107,4.0426,19.9258,15.9476,-10.1387,7.33,-1.7457,-11.8741,3.0665,3.4962,-4.9765,-5.4446,
4.563,13.3397,14.1847,10.0716,32.8302,29.0908,-15.2115,6.4074,-15.741,-21.6659,-8.5873,14.3821,-1.6744,-7.53,
-5.3604,10.6096,9.9569,-4.6327,16.7604,15.2841,-0.19877,6.0234,-0.69649,-6.266,-5.1768,-0.58086,12.526,1.6058,
0.75135,3.2192,15.1487,-4.728,18.541,11.4727,5.0115,7.5917,-3.44,-0.69261,-8.7261,-6.708,-0.39534,6.3341,
2.6351,2.0609,22.9239,8.0992,31.5286,10.7839,-9.3892,8.1004,-9.9884,-10.2998,-8.2021,7.7944,-10.0203,4.0234,
-9.5838,5.3144,7.4484,12.9197,15.5369,-3.9632,-11.6112,10.0269,4.6018,1.4143,3.3861,9.1466,4.6809,8.1238,
-11.4208,0.6533,-2.0558,1.0488,0.50465,5.551,-7.5378,10.8727,4.8076,2.7769,0.77091,-5.3927,8.6323,6.1898,
-1.0869,9.2982,-6.757,-0.94382,2.9955,19.3179,-15.7696,13.1147,-9.5809,-2.2143,-11.8189,1.6847,-5.9856,2.9231,
6.6978,22.2484,-18.8952,8.7615,-4.9037,32.2588,-8.0696,18.1171,-4.5542,3.7078,-2.4266,11.2323,-2.1403,8.537,
-1.9049,13.6774,-22.1028,0.99964,-18.7094,44.4233,-5.1724,15.5835,1.9905,1.0733,3.0268,0.42827,-2.4937,9.4731,
3.033,22.5054,-6.6766,8.6582,-31.6869,55.8579,-6.7918,19.4722,0.90602,0.043766,5.7396,10.0503,-11.9928,9.8689,
3.3334,25.4969,7.824,20.1994,-43.8857,66.6064,-20.4843,9.1379,-12.1737,-14.0589,-5.7009,8.0004,-17.5452,-4.8232,
4.5808,28.3093,17.7493,23.3297,-55.3525,76.7101,-14.804,16.7914,-6.1364,-12.6235,-6.8063,-6.5797,-4.4313,-1.0472,
1.412,16.9616,2.5844,7.8299,-66.1314,67.11,-1.3726,16.7486,2.9154,-1.2523,0.35641,-16.6892,-1.2706,4.8053,
6.1505,16.9086,0.12675,-1.6967,-51.0031,66.942,-5.1498,4.1643,1.7758,-3.1074,4.1945,-1.5878,1.6996,5.4807,
4.8173,15.8945,4.9428,-0.63075,-33.8429,71.6095,-18.3489,1.0201,-12.4307,-17.0209,-10.1572,12.6075,-9.9813,-5.4615,
2.5981,12.046,14.2954,-5.417,-45.9123,71.1724,-3.148,15.0589,-7.2345,-7.6889,-9.9215,6.8074,-14.2065,-0.30965,
-9.619,6.0163,6.2006,-8.4687,-57.2576,52.8021,-4.9988,10.1863,-5.353,4.8337,4.7738,12.6714,-18.661,-0.77293,
-9.5233,7.1032,10.1713,-6.5136,-41.6514,35.5339,-10.0053,11.023,-9.3727,-8.4817,-0.92855,26.0111,-6.4443,-0.24423,
-4.6106,3.2994,14.8679,-14.3236,-25.1618,45.6817,-3.1335,13.7384,-8.3285,-6.5254,-3.2849,19.0345,2.1431,-0.71144,
-1.9214,-1.2403,4.809,-11.0526,-30.8888,38.599,-4.3924,9.5369,-2.5224,7.9661,7.0437,8.7256,-2.3272,0.7782,
-14.832,-1.6478,-6.5752,-9.9067,-43.1354,22.183,-11.3651,7.5182,4.8661,8.8256,6.1383,5.79,-10.3884,-0.71591,
-13.4602,2.7924,7.9193,-4.0054,-41.8852,17.5839,-19.8495,-0.17001,-9.5259,-5.8039,-3.3964,19.5426,-23.7565,-7.9091,
-7.8276,-3.1639,10.2295,2.9893,-25.2721,30.6289,-21.5534,-14.2598,-23.0543,-11.135,-8.0167,21.1554,-29.0855,-9.3648,
-13.6299,0.40311,-4.4843,-3.4621,-19.0407,33.5062,-6.1602,-3.646,-7.5711,1.5939,6.5643,5.7861,-13.2403,2.2932,
-26.3207,4.2375,-15.6846,-17.3544,-31.9983,17.3959,8.3094,-0.53242,6.9832,-9.1155,4.1312,-8.6611,-6.7662,-3.634,
-10.6415,4.466,-0.64356,-9.4502,-30.9344,30.4521,4.6975,-1.9488,7.0465,-8.0867,5.3307,-0.20392,-11.6671,-1.0039,
-5.7702,-4.0028,10.3821,-0.68145,-43.1784,18.9767,-9.5749,0.5811,-2.5426,-12.9075,4.5281,-14.2917,-16.2731,-3.3558,
-6.3887,3.9564,17.4782,4.1845,-38.548,13.014,-8.0358,1.5109,-9.1435,-15.0279,-1.5323,-16.2186,-7.5777,-4.1191,
-4.5579,-2.5535,14.0165,-3.3037,-22.1351,14.6443,-2.2467,-6.7815,-4.2535,-14.609,-14.4663,-1.1455,-4.711,-6.284,
-3.8017,-9.6364,10.7644,-0.69341,-7.8906,10.389,-15.1378,-3.9617,-6.4104,-19.0394,-16.975,6.0499,-18.5283,1.3302,
8.0049,-2.3039,19.7667,13.4482,1.2664,23.8656,-7.4752,-0.82911,-7.955,-15.9668,-3.4134,6.6516,-20.202,12.8288,
4.6293,-1.2006,4.4807,4.3305,4.0848,26.6669,4.5513,-14.2885,-10.373,-10.1842,-16.7168,10.1124,-13.2006,10.1293,
-1.4377,8.5192,-6.7752,-4.6134,3.8402,15.4173,7.1735,-3.7825,4.3493,4.5268,-14.7496,11.4354,1.6914,14.3452,
-1.8338,12.3508,3.7628,6.7596,11.811,24.6237,-3.3884,0.78629,3.0142,-1.644,-7.5926,8.3368,-6.2386,5.2832,
5.5129,14.0213,4.0194,6.8363,15.4442,35.207,-4.6329,3.1516,-8.2627,-6.8518,-3.7599,7.3542,-15.0311,4.4839,
13.8662,4.496,-6.8361,-7.6739,7.7637,18.9946,9.745,6.8216,1.8817,7.6593,2.2549,1.1238,-0.029211,12.898,
15.4463,-5.9048,-0.15344,-12.8932,12.6047,3.7549,9.0513,-7.6877,4.1809,9.02,-0.29245,-7.1454,5.6532,6.8182,
11.6247,-0.72546,6.6101,-9.2247,11.8485,12.9146,7.5436,-10.0109,6.8249,-2.135,3.5846,-14.4356,-3.3696,4.4789,
3.2087,3.1771,-4.3999,-15.4251,-2.9624,4.4212,9.0207,1.2031,13.1702,-1.0418,5.2992,-8.7449,-5.0972,8.0701,
10.7351,8.7761,6.477,-0.3996,-9.9118,-3.563,-0.20414,-8.5173,0.80059,-3.8741,-9.1187,4.3229,-11.5457,-0.13309,
13.4677,6.8021,20.1884,13.7244,-10.7645,-3.832,-4.5342,-14.2787,-6.4836,-10.8778,-22.6716,-7.0322,-20.0193,-5.432,
0.11657,5.4294,8.2547,-1.1991,-23.6273,-11.3211,0.56202,0.67798,6.4485,-3.4709,-8.0673,-20.7102,-10.1345,0.68268,
-3.7504,6.0678,-6.3406,-14.7448,-29.9286,-16.431,5.3529,0.04548,15.7103,8.3154,6.5167,-9.2276,0.12222,3.537,
4.6764,-8.3963,-17.4295,-18.2024,-22.826,-17.8572,6.4791,-14.0572,12.3556,2.5096,8.9115,5.4261,-4.2274,-2.9477,
5.3604,-18.3968,-4.8053,-10.3559,-25.3159,-20.6453,8.9852,0.88619,9.6841,3.3236,-0.3068,10.7807,-3.9737,4.9482,
8.8983,-3.193,6.0968,4.3654,-14.1483,-5.8988,1.6918,14.933,-1.5099,6.019,-1.254,5.3097,-5.6646,6.5815,
16.0838,-3.5932,11.5202,14.1255,0.80062,8.5551,-12.5097,-0.062966,-15.5193,-8.4421,-1.1783,-2.7283,-19.4247,-7.9134,
11.2593,-5.3069,1.1798,5.559,14.8526,11.3104,1.3758,-8.2605,-12.067,-16.992,2.7519,4.1897,-5.1234,-2.9873,
-3.5162,-8.3661,-11.9168,-8.8746,-0.13857,-3.4683,10.4596,6.3352,2.757,-1.8725,4.0342,-2.3332,9.284,11.2919,
-9.4682,-1.5926,2.8982,-15.4697,-12.3005,-4.599,1.6303,13.0826,10.6838,12.1209,3.3094,-14.2544,11.0286,18.7066,
-10.3471,-0.049172,11.7816,-0.44149,2.5375,5.8084,0.085502,2.1662,-4.0572,-2.5973,3.5931,-6.1625,-3.7331,7.4528,
-4.9021,3.8133,-0.5037,7.1949,-7.3729,9.3194,3.9399,16.1362,3.0496,-1.4769,5.3078,8.3073,1.4249,7.9702,
6.9713,8.4086,-0.47348,8.6934,-10.7896,11.6551,-9.8043,19.4008,5.7614,10.1911,-1.765,9.1467,-1.5545,11.3524,
8,-2.2274,4.8614,12.5127,3.8483,-0.14035,-8.7337,4.2458,2.0386,10.062,-4.0716,7.151,-3.8737,6.3286,
7.5196,-6.9174,1.6753,10.7977,13.2661,-2.0617,5.2985,5.9208,0.95119,2.7035,5.8214,5.7568,0.21773,3.0545,
10.9283,-8.4321,-0.35495,-3.3583,2.821,4.8159,1.1207,14.2496,6.6833,5.4366,0.64749,-8.6886,1.1698,7.6958,
10.7545,-15.1633,4.0086,-13.2887,-3.6198,-0.77996,-9.0776,10.9826,7.7298,8.4871,-8.5568,-13.847,2.547,1.9271,
13.9696,-15.2181,8.5922,-6.7017,10.6974,-4.5917,-9.4976,-3.7764,-6.834,-6.1222,-3.2193,1.0838,-2.4299,-10.7316,
14.5784,-8.9977,1.8047,-0.027628,24.1555,-6.7287,4.0977,-7.3002,-8.2442,-18.1889,-0.61361,-1.0204,-2.7665,-7.6761,
6.9494,1.1904,-5.057,2.8689,8.6062,-14.044,2.8872,5.6818,3.8289,-4.5545,-6.3665,-15.0592,3.1883,-1.4258,
14.7337,4.4961,4.4123,-2.6106,18.1118,-5.9656,-0.66321,10.6473,4.0815,4.8856,1.2522,-21.7656,8.3034,-2.7882,
12.4027,-9.8736,1.7351,-16.554,30.0514,-4.1598,5.6486,-4.0915,-3.4001,-3.6088,-2.2001,-6.3596,-0.39514,-5.9971,
6.8335,-10.1368,-1.2639,-14.4871,28.2474,-0.051651,11.0984,-13.3861,3.5583,2.3965,0.82671,8.1219,2.5225,7.8704,
-2.742,-10.0114,1.2249,-6.3807,28,3.3291,7.0558,-3.4157,5.7568,4.6648,9.9435,8.3807,0.92372,5.9508,
-5.4727,-12.3051,-5.6033,-13.7164,22.461,4.0944,11.457,5.4724,2.517,7.2802,11.2766,11.7378,2.798,5.5942,
4.9871,-7.224,-0.92441,-0.83265,24.4905,2.4018,0.63815,5.6273,-7.7646,-1.3579,-1.4607,16.3409,1.1832,-0.047894,
12.8896,-0.51999,13.2311,13.3173,30.2572,-3.0492,-13.3906,-6.7716,-15.5013,-15.2678,-8.6102,6.1931,-12.9878,-14.145,
5.8442,2.8893,14.7402,9.9962,14.3418,-7.2081,-2.4557,-2.0235,-4.4398,-3.2556,-7.6103,-8.1685,-18.371,-6.9157,
-4.6374,-4.5212,-0.24421,-4.7035,-0.61874,-8.2239,10.7166,0.51,8.8525,9.0009,-6.6719,-18.7749,-3.1688,4.5949,
-0.98203,-6.6624,-14.3296,-7.689,9.7684,-4.3524,7.662,-10.6167,8.8036,5.0837,3.8599,-18.1308,9.9382,-3.8821,
-4.7826,-11.0868,-9.3927,-6.263,5.3228,-17.5999,5.272,-7.0849,9.2401,3.814,14.2412,-7.3947,6.447,-11.3681,
-3.5305,-12.3513,-8.8287,-8.7816,-9.0965,-23.2978,19.0557,7.4402,22.7857,14.1985,20.1415,1.734,12.8141,-2.9666,
-0.42432,-4.8564,-5.4046,-14.0439,5.5493,-8.3917,12.496,-3.2467,7.3185,-0.75338,4.833,-12.4701,3.3612,-13.4029,
3.9429,7.4967,9.0197,-5,19.3163,6.2118,-1.2792,-10.2886,-7.1106,-8.3176,5.6172,-7.7538,3.6427,-11.1508,
-10.3936,-7.0531,3.0626,-11.9362,4.0573,-8.2609,1.2096,-4.3643,2.4824,5.2073,7.6922,3.8071,6.8009,-6.1404,
-10.1433,-7.0032,16.8693,-7.8433,-5.352,-20.7916,6.444,6.0285,2.8153,3.4474,3.854,17.5701,6.8747,-6.2539,
3.9739,-5.6184,26.471,-5.4425,9.0691,-7.0001,-0.697,-0.12194,-11.4536,-10.8594,-1.2023,9.7615,-7.0455,-14.5632,
3.735,-6.2464,10.7827,-8.975,22.6249,-20.6801,1.2755,-10.728,-13.0685,-10.5807,-4.0245,-4.9241,-16.2715,-12.7243,
11.2299,-6.8362,0.11378,-4.5779,35.3674,-33.5393,13.7411,-12.98,-1.6715,-4.1571,-9.5727,-10.7912,-11.4357,-3.2772,
23.0992,-5.4614,14.207,0.52087,47.3454,-45.6269,8.0925,-9.3064,-8.3255,-16.4516,-15.7518,-2.4248,-14.609,-6.9401,
24.1257,3.0675,19.9998,6.7616,58.6047,-28.7893,-3.4891,-9.2303,-11.2022,-15.9459,-6.6054,1.0979,-9.3907,-12.7947,
16.8894,-4.8355,8.186,4.4266,69.1884,-39.8697,0.5806,-13.5006,-5.706,-9.2004,-6.2091,-12.4757,-3.0376,-15.8865,
14.4282,-5.0277,10.1074,4.6434,79.1371,-43.7486,14.5358,-9.3134,-4.8813,-9.1307,-10.1783,-12.2095,-5.2678,-13.4864,
2.4664,-4.2437,8.0531,-6.7314,88.4889,-34.8526,19.9356,-13.0964,2.6482,4.4425,1.5285,2.5131,9.0392,-10.2647,
-8.2949,-12.6731,-6.5301,-20.4275,69.279,-46.8615,10.0555,-16.1706,13.1026,14.7902,15.5368,-1.4976,22.5968,-9.6493,
-0.078277,-9.0179,1.2078,-5.1018,67.0516,-43.4579,-1.1617,-13.2701,-1.7835,-0.19719,15.942,-8.1611,7.141,-10.0349,
-1.521,-7.0294,15.1258,9.3043,77.1285,-26.7505,7.1098,-14.886,-15.7765,-14.2854,7.7493,-8.1543,-7.3874,-10.8803,
-3.359,-6.6076,6.4993,7.6714,68.5327,-11.7463,13.4375,-6.2739,-0.72991,0.67176,5.3542,1.0195,7.1558,1.351,
-4.6054,-15.3771,-7.9906,-6.8889,50.3207,-25.1415,5.3946,-6.3807,10.5195,14.7315,-2.2037,-0.48953,20.8265,9.4712,
1.9425,-8.1829,-8.8496,1.8353,39.2088,-31.7248,17.1312,-2.6202,-2.1729,17.2247,4.201,9.6709,22.3622,15.1745,
-5.4107,-3.3502,-10.7311,7.9971,36.3739,-31.2692,7.9021,2.8434,-7.3489,8.9537,5.3959,15.3626,6.9205,3.1679,
-5.5679,-13.2802,-15.3932,-1.6491,21.1657,-26.0154,-0.77286,4.1202,7.192,8.8992,1.6954,14.9236,10.9565,-2.3282,
5.379,-16.3428,-2.8912,-4.445,33.9957,-11.9114,-4.5869,0.97819,-1.068,8.3653,-9.0201,12.098,17.0525,2.6356,
2.1619,-7.6438,0.17666,-7.0726,39.0831,-15.0567,-3.3466,0.91995,-3.8983,7.8638,-8.4794,5.5829,8.3109,8.2667,
-7.616,-4.2903,-7.5529,-11.4724,22.6381,-28.2533,1.6793,2.794,10.4356,13.1808,4.5734,3.3177,14.5666,2.9466,
-1.3703,-5.9622,-1.31,-11.7487,19.9419,-31.7555,-4.2112,-4.127,-0.43105,2.7417,4.299,17.2187,14.6572,-8.8086,
-2.735,-6.0877,5.0396,-21.1753,21.1579,-15.7501,-4.4408,-15.9411,-10.5367,-2.7302,-2.2309,15.1119,7.5058,-2.9737,
-8.8425,-1.3802,-1.5343,-24.247,5.7884,-19.2564,6.9213,-9.6777,4.1955,9.4948,-2.5799,0.10515,15.2572,11.3047,
-2.0404,-5.6396,-3.8543,-25.2042,-8.6589,-32.0915,13.7431,1.9995,8.1766,12.3019,5.7767,-11.8529,20.6133,5.2101,
5.8014,-11.0895,10.477,-22.7269,5.9607,-20.5174,12.9181,-3.9096,-3.892,0.95041,8.3244,-6.3171,10.6924,-9.2025,
4.0055,-1.2582,16.4932,-10.2681,19.703,-8.1902,8.7658,-5.1229,-8.0012,0.41106,0.58834,4.1925,7.6384,4.0022,
1.8354,-6.0073,1.4036,-12.5454,21.898,-10.5932,-3.3381,0.97456,-11.3802,-1.5433,-12.9551,15.5198,12.0056,7.622,
8.4796,-9.5064,-0.98365,-15.6531,29.2677,-0.30934,-9.8921,1.8798,-16.487,-14.9594,-15.0727,17.4835,3.5653,-6.9353,
13.2782,2.1601,13.1754,-9.4066,25.1001,-1.7368,-0.13178,-10.2928,-14.0499,-13.5786,-11.7549,2.3345,-6.7791,-7.3748,
6.6918,-0.86431,17.0999,-14.6319,9.4941,-15.7326,4.7002,-21.2546,-10.313,-2.151,-12.9807,-11.9056,1.3466,-4.0375,
4.3606,-4.6715,14.1442,-13.7535,1.7964,-12.2685,1.5229,-5.8793,-6.7998,2.8027,-3.5178,-18.2094,15.3658,-1.8655,
4.0989,-1.4973,-0.80446,-10.0344,11.3377,2.5676,2.3971,8.5734,0.36246,3.5991,6.3424,-3.0168,18.6761,7.8947,
-2.419,1.9697,-14.8562,-10.8793,1.4906,16.5136,6.5951,6.3935,10.4722,7.7259,7.4088,8.6336,17.0732,13.693,
6.4107,0.88691,0.13518,-2.5066,14.9098,13.8577,2.3399,-8.0901,-1.7346,-5.2807,-5.5788,-5.9844,13.154,-1.2286,
20.126,8.5527,14.2271,11.7438,28.1152,21.7098,7.0236,-5.0831,-6.4546,-17.5079,-1.3846,-18.5417,13.3303,-14.0712,
4.8185,2.2503,27.3649,-1.132,12.3283,6.8991,7.5673,-4.7777,-3.173,-5.8441,-3.2312,-27.0779,21.2136,-7.4377,
-9.5707,-11.9847,11.623,-15.1641,-2.5114,-7.6149,10.9727,-6.4212,8.5958,8.6066,-5.9322,-31.2429,34.0408,-4.0975,
-1.6512,-17.4277,-1.9917,-16.5568,-7.5585,-8.4959,3.5601,-8.9308,8.0801,6.5342,-1.7168,-16.8243,29.4768,-6.7456,
-1.5521,-16.382,-6.6963,-14.5988,-12.8938,-2.1974,-9.1966,-14.1837,1.8065,0.35245,9,-1.7149,13.6082,-3.446,
-3.871,-15.8819,-14.4963,-8.4159,-20.3219,1.3112,2.4508,-7.0621,8.9343,7.5675,16.6618,5.9975,24.4796,9.7857,
10.4612,-0.82897,-8.3196,6.189,-5.0026,15.3325,8.5753,-6.1555,5.9862,5.666,6.4957,7.0841,35.0721,14.5054,
19.3727,-0.88828,-2.9958,12.4629,9.3976,25.8819,-6.0392,-19.8862,-8.473,-8.1812,-7.9941,-0.094779,18.8678,-0.4649,
5.6678,-14.3432,3.9378,4.9613,-5.2663,10.229,-7.9794,-9.4172,-2.5482,-0.93648,6.5856,1.8416,4.8193,-0.80937,
-0.94431,-22.6494,-9.3239,-9.3282,-19.0503,-3.7839,-3.1588,-3.5457,-1.913,-1.3626,11.4969,-6.4711,18.6302,-4.138,
6.349,-21.7728,-10.2123,-20.8293,-3.8073,9.4695,-0.55678,-13.4635,6.4031,1.1307,17.0791,2.1184,22.7098,-6.3022,
-7.5406,-28.1854,-23.6996,-25.3683,10.5211,-2.6771,-1.4889,-15.5505,9.8784,1.0629,10.2646,7.781,7.2472,-4.9594,
-8.5347,-25.0464,-36.3776,-12.7501,-4.2101,-13.6121,12.7004,-2.5563,23.3857,15.0991,6.2721,-0.88668,20.9123,9.4381,
-6.0938,-22.5789,-34.4583,-0.40665,-18.0575,-4.1114,16.6544,-10.1223,27.6622,19.8738,6.8608,-1.7986,25.9296,5.8689,
0.06063,-14.4708,-18.2908,12.1608,-4.4305,5.7836,1.5551,-13.3745,11.9025,4.5814,3.5544,12.4093,10.2738,-5.098,
14.157,-13.1198,-3.0933,13.8432,1.1422,-1.8005,5.4299,-1.4754,-2.9116,-3.3039,-4.8606,6.7302,10.7315,-2.3791,
19.9528,-21.0166,4.1099,-0.49554,-13.0263,-6.5171,7.9985,-7.177,1.8239,2.6836,-9.3936,-7.7736,16.8406,-5.1317,
6.2121,-22.65,5.793,-2.3955,-22.2672,-4.1963,-4.0594,-12.5356,4.6088,4.4523,4.6782,-3.821,4.2522,-8.6828,
0.050652,-22.2557,0.62134,6.4327,-30.5794,-13.5928,-0.92103,-3.099,4.3323,8.0456,4.3984,10.5083,-2.7563,-7.1972,
14.1476,-12.2372,3.4784,19.554,-28.7451,-0.23368,6.8527,1.9106,2.1426,7.5624,4.1341,-0.36227,5.1275,-3.871,
17.5315,-13.4318,11.9538,23.2053,-17.3717,12.3239,0.65235,-12.304,-4.7398,-5.4349,3.8865,-9.0246,5.785,-10.3926,
9.7253,-13.5914,17.9909,23.7432,-17.294,4.8301,-7.1057,-7.1145,-1.5606,-3.1786,-5.0312,5.0255,-2.2811,-9.769,
8.1771,-14.7052,20.7709,29.0729,-3.7124,2.611,-16.3276,3.9262,-5.3264,-4.9181,-9.5535,11.4783,-8.8985,-4.3588,
4.3089,-27.8134,13.2531,18.1622,-1.0776,1.9716,-12.9359,-5.4758,-6.4543,-8.9653,5.0102,-3.3104,-4.9879,-2.6498,
1.6383,-29.5222,-1.5335,3.081,-15.1129,-8.2777,1.9402,-3.6998,3.0994,5.6726,2.2976,-7.3445,-5.1705,3.7807,
8.2943,-20.9966,-5.301,13.51,-28.3062,-5.8518,14.2583,10.6222,6.7729,19.4323,-9.4187,5.6392,-1.9654,14.1677,
3.4553,-24.0781,-5.4648,18.0063,-12.5078,4.6313,-0.69719,-0.73752,-7.7335,4.1664,-11.2657,-8.6896,-5.2251,6.0814,
-1.5766,-25.5287,7.4067,3.4177,1.3776,3.3883,-7.3006,-10.342,-5.2302,1.3953,2.9185,-1.4144,-1.0517,7.6463,
-12.0958,-38.097,-1.7223,-10.8873,-12.8051,-10.915,4.7158,-14.5465,9.1836,14.8202,-2.0808,4.4602,-1.9541,1.3978,
-10.4054,-46.7973,-2.5836,-22.1849,-26.1368,-23.1769,-0.39123,-7.884,9.0058,11.0361,-1.9559,9.0167,3.9528,0.34932,
0.35041,-37.7184,4.8081,-6.7538,-10.4686,-7.6863,-13.3941,-3.0692,-5.6345,-2.6523,9.2575,5.0985,5.1626,-1.1186,
9.4953,-32.0781,-2.717,-9.8357,-13.1086,5.6917,-9.2133,-2.4027,-3.7404,-5.8694,6.2896,-9.3074,2.4412,-4.4286,
17.6101,-27.2586,1.3055,-4.4214,-5.5677,-1.4041,0.024048,-2.2585,1.3081,-5.5173,-8.1878,-22.849,1.3292,-4.1629,
24.7548,-24.1761,15.3271,9.8348,8.8663,12.7801,-1.4253,-5.5002,2.6775,-10.4936,-13.3762,-14.5047,-2.1268,-5.361,
19.4095,-23.6902,18.1575,5.3857,4.3654,19.6228,-4.2341,-12.8887,-1.3431,-6.004,-7.7491,-5.9159,-1.9997,-1.1794,
9.0786,-20.8214,2.968,-2.1745,-9.9966,14.1031,10.1199,-1.0197,8.8685,8.4562,0.91667,-10.8679,12.2203,9.0224,
-0.15017,-20.5372,-11.31,0.85031,-21.8308,14.222,7.4735,5.7953,12.1963,19.4173,-1.0681,-8.286,22.9556,3.6564,
1.789,-16.4101,-9.9301,8.5192,-9.9071,11.4394,-7.0749,4.483,3.7456,4.1523,-7.7583,-1.0346,7.4782,-6.2112,
0.23381,-19.7678,-4.9925,0.77046,-23.4127,5.4457,-3.6466,-0.1278,4.0032,6.907,-3.9156,-4.3497,-7.0705,-5.3562,
-1.2272,-18.0989,-5.1753,-3.6176,-23.3459,12.3556,4.7735,-1.5671,4.2453,14.6948,5.4861,0.25312,-9.3211,4.1311,
-4.5307,-22.3199,-17.8911,-13.5311,-8.9197,5.3423,0.1453,-0.99074,2.5436,2.717,-0.1504,-0.24438,-11.1744,0.50607,
0.083856,-26.2876,-18.2646,-15.1317,-19.4797,-7.0381,1.5845,3.4105,15.4164,4.0009,6.1306,-14.3297,-9.057,6.7477,
4.4202,-24.228,-4.1428,-7.9523,-32.3024,-10.9581,-9.6072,-7.8898,8.2199,10.0324,7.2102,-19.6324,-17.6799,3.9308,
-4.5291,-25.6692,-2.9292,-17.1238,-27.4698,-7.4062,-9.0303,-13.2065,4.8323,9.4309,6.7771,-4.3545,-21.4437,-4.0245,
-7.1517,-28.9536,-8.5436,-25.7456,-18.1022,-4.0674,0.19467,1.6859,8.4014,1.1456,6.371,10.0068,-17.2627,-4.7481,
7.3774,-18.5323,-1.2762,-10.1008,-10.2622,-2.8583,0.18345,14.5011,3.0727,2.042,0.19857,4.3628,-13.3316,-0.60329,
19.8511,-12.5958,6.5189,4.6052,-18.3306,-5.5821,-3.6875,2.053,-3.8655,3.8492,-12.356,9.8912,-19.2865,-3.4615,
4.56,-11.8401,9.0231,11.8298,-30.7389,-5.2467,-0.57095,-0.96455,-1.7038,1.6885,-4.8607,2.5429,-29.7073,-5.1835,
-9.8136,-17.8835,0.76318,-2.98,-31.7889,-5.8961,-0.53715,-3.8011,0.32815,-0.34252,7.9744,-8.223,-29.8546,-8.7315,
-5.1472,-17.7756,-1.2128,-12.8232,-15.7816,-3.613,-1.4696,-10.3282,0.30846,2.572,2.6719,6.3704,-17.4495,-5.3137,
-7.7318,-22.4983,-4.0344,-5.299,-6.742,-11.1148,1.513,-7.7779,-1.6398,2.4181,8.3008,6.3619,-11.578,-0.17032,
-14.505,-16.8071,3.4438,3.2197,-18.3996,-12.8609,5.7635,3.7845,-0.093977,1.7902,16.0035,-8.1198,-13.2963,-6.4326,
-4.4679,-2.7719,17.3372,17.1266,-10.0581,2.0108,3.0061,1.1458,-2.4999,0.23586,4.9128,-2.2167,-17.8049,-4.5987,
0.14153,-12.7375,30.1784,18.402,-10.903,6.1224,2.343,-11.9497,-3.7983,-4.1206,7.0301,9.9766,-20.1143,2.9134,
-5.6566,-12.9379,18.7186,3.1979,0.36594,7.6853,-0.69151,-3.5138,-10.3238,-4.838,20.7083,7.4487,-16.0117,-0.15534,
-11.106,-12.1611,8.9118,-11.094,6.1327,12.0492,-8.369,2.4867,-13.5638,-14.1959,16.9442,5.0725,-18.9104,-0.14602,
-6.0978,-20.5983,3.0698,-24.5284,-8.3352,4.0887,-5.4552,-6.8293,0.27539,-10.9326,3.8668,-0.53918,-22.1185,5.1692,
5.8469,-5.2624,16.9856,-12.1153,5.783,17.9434,-8.0223,-14.1381,-10.3545,-3.5218,9.424,12.0367,-31.4047,-5.7543,
8.39,9.1533,30.0665,2.7116,19.536,30.9668,-11.4004,-14.2544,-23.8332,-16.8192,6.9284,23.8576,-43.6205,-16.9875,
-3.2095,6.9382,22.7375,5.3338,19.2186,42.8812,-7.3393,-4.2332,-21.3295,-19.1872,3.1355,9.4007,-45.7183,-3.9075,
-8.3234,2.1805,7.2732,-8.0116,3.9654,26.2083,-1.5915,1.3281,-5.9497,-3.9359,12.1142,7.3897,-28.9843,5.4938,
-13.6132,-0.84559,-7.2632,-11.3909,-0.022455,29.5694,-3.4267,-4.5417,-0.87723,-1.8791,8.4921,18.5243,-33.0344,-2.5552,
-14.7257,0.17024,-9.0204,-13.6013,13.4875,38.4091,-2.2555,0.55583,-5.6487,-4.6612,1.2291,11.6232,-34.9118,7.2472,
-10.9482,-0.80461,-7.5146,-19.5396,7.8542,32.245,-5.9797,-4.3016,-4.3452,-7.2763,0.19074,-3.1742,-32.8171,5.8468,
3.8087,8.8928,7.0363,-4.2672,20.8906,44.4103,-4.6563,-11.7625,-8.9086,-8.769,0.1793,-12.0406,-39.5317,-5.1178,
17.6802,18.0079,20.7141,10.0888,33.7372,50.803,9.7231,-4.3029,-9.3391,-8.2434,0.16808,-2.6341,-41.9844,-4.8102,
9.6474,3.4188,27.9363,16.9839,17.613,33.6549,7.5833,-9.8335,-10.709,-9.678,-1.7713,-6.3356,-32.711,-2.5923,
-5.0314,6.5904,17.0938,21.2718,2.4562,30.7795,-6.9717,-8.7616,-8.619,-4.756,1.7117,5.1402,-21.5829,4.8003,
-9.4455,8.1247,1.9681,15.1709,-1.4412,37.6168,-6.4444,2.3774,-9.067,-16.0486,3.5387,-4.8169,-28.972,-3.2071,
2.2173,7.1549,11.6087,21.4973,12.7453,34.8775,0.21427,1.7525,-21.5484,-28.112,-1.0154,-7.905,-37.3642,-17.1147,
-1.7752,11.5497,19.5958,34.3074,7.0465,30.8546,-11.377,-8.9665,-21.2201,-12.3253,-1.9191,6.6693,-26.4387,-10.1891,
-14.6941,7.4805,4.32,26.3503,-7.4763,19.8374,-7.3182,-1.1919,-5.8469,2.5142,12.296,17.7385,-10.7524,4.5222,
-8.9879,4.1368,-10.0392,21.8749,-21.1277,8.9985,-3.9838,7.5637,6.9375,-0.26679,13.3781,2.5742,-3.4625,13.7906,
5.6514,11.6076,4.6632,34.0706,-10.4742,20.0375,-7.6047,3.2509,-0.23263,-6.04,-1.5246,14.5905,-10.0086,4.2791,
-7.3407,2.7103,3.0459,26.7203,-19.9768,20.2826,-6.6656,-9.0054,3.1589,-3.2655,-9.0421,15.1625,-6.996,-1.2846,
-21.0003,3.5119,-11.2368,12.5727,-32.8782,6.5212,2.4184,5.6349,9.7233,3.6842,5.6004,3.6385,7.5238,5.5464,
-25.4195,1.8542,-7.5592,10.3714,-16.8055,3.7184,-3.9987,11.9416,-4.9601,-2.8079,9.0143,9.6921,16.612,1.8373,
-17.6228,-4.5295,2.0608,11.1965,-12.9032,12.6616,-9.0657,-2.8749,-14.6845,-12.7713,-1.6575,12.4873,1.5153,-4.5454,
-22.3556,0.56685,-6.7469,2.8053,-26.229,11.9015,4.0218,-0.66404,0.29658,0.53847,2.3009,0.1601,14.0765,5.3761,
-30.6629,4.3923,-15.9908,3.6021,-38.7553,-2.9126,-0.079471,6.1306,13.1951,10.1549,0.23313,-0.81461,19.0211,8.9134,
-14.7232,10.8831,-0.93138,17.4859,-22.33,10.3975,-14.1747,2.8684,-1.6966,-4.5544,-9.4296,13.3343,3.7798,1.6248,
-1.4053,8.7822,13.2245,29.8359,-6.8902,23.7646,-12.2501,-2.6111,-12.0991,-9.9613,-16.1004,10.4954,-5.021,-6.6749,
-9.0399,14.045,9.8,25.1509,-1.1699,9.7957,-2.8306,5.2654,1.1699,4.7363,-1.0344,-0.74809,4.9294,0.47989,
-22.5975,8.3777,-4.888,11.0983,-7.8544,2.4531,-13.275,-4.7001,-7.5843,10.6146,3.26,-2.6329,-3.0858,-1.4786,
-17.2731,8.3578,-14.1339,5.1255,-7.865,12.437,-0.41726,-7.7948,5.8966,15.2847,-1.277,0.90173,10.1252,7.7765,
-4.6579,14.6102,-0.74237,7.7133,-4.4988,9.761,-1.3573,5.2164,7.4726,10.5086,-6.0249,0.84808,13.3776,11.1698,
3.3401,9.8737,13.4022,9.1793,9.8712,10.1405,-15.3759,-0.88669,-7.0758,-4.2219,-6.6285,-0.1679,-1.525,-3.6004,
-1.6844,12.177,3.3226,1.8752,0.0034718,9.532,-0.35333,-6.6213,-2.199,1.4473,-5.2653,7.5611,3.9824,1.0669,
-15.6834,2.28,-10.9767,-12.3373,-14.0967,-5.1399,6.9054,-2.8473,12.0329,15.351,-7.3614,0.83593,14.8391,12.0986,
-28.8424,-11.9568,-24.4181,-21.1368,-27.3509,-11.4763,-3.1581,0.21741,22.7789,11.5351,5.6234,-0.17887,12.0186,11.3727,
-16.7613,-9.6829,-14.5337,-14.0793,-11.6099,1.7558,3.7853,-5.5848,8.8696,7.9486,11.0752,6.5857,13.2281,13.5856,
-6.5902,4.998,-16.0737,-1.1734,-8.3922,2.1323,11.7599,-5.7316,4.9598,11.8139,6.0684,-1.0456,18.706,12.2877,
4.9018,18.7982,-1.1188,12.997,1.2777,9.2415,-0.042268,2.8131,3.2148,3.868,-3.4621,-7.2553,13.2414,-1.4754,
8.4676,23.2414,13.0483,26.3172,15.3011,15.4418,-8.7229,-6.0388,-5.6612,-10.4641,-15.797,-7.7842,-1.6531,-10.071,
-5.5495,19.9163,-1.8346,10.6382,4.1434,1.0062,5.9005,-3.7468,6.2564,-2.4896,-4.2358,-8.2822,4.8271,4.6333,
-5.2156,24.511,-14.2676,2.1714,10.6491,0.94579,12.6736,9.0211,8.7759,7.308,3.7373,0.89922,18.6375,12.448,
-7.7985,8.9403,-5.6926,5.9006,21.5877,5.7132,-0.63081,-5.6201,-5.8507,-7.2305,-9.0309,2.7745,3.4192,-2.3989,
-16.4965,-0.17067,-9.6928,4.0996,6.1924,5.8536,7.6092,-7.1032,-6.3552,-8.6169,1.6424,-3.6639,-4.9872,-4.0761,
-29.6067,-0.64321,-23.2112,-10.2463,-8.2791,-8.5976,3.7755,-3.2998,8.1261,6.0001,4.921,-12.61,9.303,4.3697,
-25.791,-3.499,-35.9186,-16.2768,-21.8824,-19.5511,1.6188,2.6869,11.3889,16.1439,1.7309,2.2466,22.8448,7.0024,
-21.831,2.0183,-19.6634,-1.2002,-6.4694,-11.1414,-1.8555,3.9736,0.57414,6.0094,3.0749,16.2118,19.4349,7.0655,
-21.0044,5.2734,-4.3836,3.1045,-16.4761,-9.9906,-5.1213,-4.467,1.022,0.34238,0.47792,7.3011,6.208,4.229,
-5.7527,15.0881,9.3876,4.3657,-3.4263,1.7045,0.49286,-0.82138,6.2676,0.8037,-8.7171,-3.268,13.0717,2.5279,
-10.2322,18.0427,19.4376,10.8576,10.8793,8.357,-1.4665,3.0869,-6.652,-8.8932,-17.8428,-2.1068,8.4284,-1.4837,
-23.7182,10.2058,11.5171,0.55791,-3.8735,-6.2444,7.3051,2.9017,7.8471,-1.6053,-6.1584,-16.0804,13.7115,2.4648,
-23.1507,9.1112,6.4842,-2.8527,-2.1936,-0.93661,3.4906,-3.5435,6.3026,-1.0267,3.377,-29.2156,16.2659,-7.8137,
-8.7358,18.6955,20.1952,11.4184,12.038,13.2196,1.8337,-1.8844,-8.1756,-12.0616,-2.1325,-13.3626,13.8425,-14.5819,
-22.3117,10.3376,4.8835,14.0005,25.1967,7.01,0.27628,-5.148,-21.785,-18.5741,-15.9951,1.0568,6.7405,-11.295,
-34.8549,15.0242,-9.5095,12.6786,9.5849,-3.5416,6.5312,9.2609,-6.3779,-3.3597,-0.93537,1.4753,20.436,3.4827,
-41.9295,1.0965,-23.039,-2.073,-5.0902,-10.5658,0.83293,3.2893,1.3509,10.7234,5.2832,5.7286,22.4775,6.5414,
-28.3176,-3.3111,-16.1307,-10.1499,9.3152,-1.7305,6.0894,-4.1447,1.7512,3.808,0.62445,12.6215,18.7164,8.5614,
-13.5927,1.2298,-5.9965,-14.8478,22.8563,-5.968,8.1361,-1.484,7.9186,5.0269,3.9637,-2.1263,30.6192,14.3193,
-7.4712,1.6379,-6.1195,-13.4751,26.7918,-19.71,9.0953,-11.5259,6.9607,18.7158,9.0328,-4.4117,30.2295,7.1886,
-4.6099,4.9172,3.4141,-1.57,25.6671,-19.8653,2.2781,-18.0706,2.2017,16.1463,6.0787,2.1255,21.1795,-0.47889,
-2.8864,9.9286,17.3092,12.5151,38.2271,-4.5734,-5.0952,-12.6455,-4.2024,1.0776,2.3369,2.4802,12.6721,-7.6868,
-14.2916,9.3329,6.5125,5.9745,29.0701,5.2402,-3.8249,-10.9212,-16.4933,-12.3867,-5.5223,6.1909,0.33337,-9.1558,
-12.469,3.9493,-7.9783,-8.4839,13.2259,-9.1742,10.5046,-5.4413,-1.4037,2.4565,3.4931,2.9251,13.8215,5.4936,
2.3791,5.1588,-18.0039,-12.6895,15.4357,-22.0229,7.8355,-12.3515,12.7805,15.7082,4.7305,-11.3504,23.1237,-1.699,
16.3364,18.9493,-2.8236,2.1719,28.6096,-6.6015,-2.2833,-14.5057,-2.0863,0.66575,-9.6534,-9.5953,10.1574,-8.3518,
19.9618,19.6335,6.8854,12.5458,18.0999,7.1937,2.1955,-17.0116,-16.0611,-11.8078,-23.1742,-14.326,-4.443,2.2808,
11.5274,18.9369,-4.6238,1.6616,2.9139,-2.4047,16.1638,-5.8603,-0.99746,3.0007,-7.6837,-12.985,9.9236,16.2439,
-1.7078,10.0822,-18.4464,-4.2273,-1.0109,-9.0143,7.3655,-0.68414,10.5313,3.6758,3.0178,-6.4158,23.4282,2.6167,
-4.0169,-4.5137,-29.7732,-16.0344,8.2157,-7.0256,-4.1725,-5.9495,8.4516,-3.7814,5.2493,7.9592,16.0152,-2.8467,
5.8724,-4.2429,-35.7067,-29.1723,-0.96085,-12.3937,7.6562,-17.171,13.7341,9.9541,5.899,8.4472,18.9137,8.9016,
9.3799,4.6962,-28.7392,-25.8655,-15.0032,-18.4039,21.2969,-2.0407,25.4536,23.4569,11.3342,7.9399,31.8789,18.9818,
-4.2087,-2.8227,-25.5679,-16.1119,-28.203,-22.6066,5.9191,3.7614,13.7954,13.2559,-0.44147,13.7351,20.208,3.7429,
10.1438,-0.72357,-10.5252,-3.5667,-13.2664,-12.5666,0.25747,-1.2884,6.2134,4.7416,1.5143,13.8765,12.2412,-5.0567,
23.6352,0.28494,-1.2096,-10.1066,-2.8217,-16.6363,14.342,-13.7546,12.5944,11.2119,8.1782,-1.0561,22.121,1.0368,
24.4106,7.5045,3.2043,-9.0183,-2.1697,-18.0511,16.2664,-8.588,17.1456,14.8805,14.9237,-3.7785,27.0652,7.2461,
20.5334,8.5012,-5.1893,-15.7139,-15.0658,-21.3098,7.0891,-2.7654,16.5992,11.5752,16.4408,-1.1393,24.9581,2.4687,
27.9855,9.9213,-1.9835,-15.7361,-10.3019,-7.4877,-2.9849,-2.5999,2.0951,0.26731,13.5246,-0.10674,9.9524,-0.57384,
24.8594,13.6678,9.2316,-0.69196,4.4162,7.0616,-16.7968,-9.6805,-12.1306,-13.8487,-1.3869,13.9997,-4.7447,-1.0217,
16.1307,13.3305,-5.4223,11.3017,5.4887,4.1168,-1.689,-7.6523,-6.9515,-12.426,-15.4037,15.4627,4.8163,6.2767,
15.1633,12.5302,-19.1969,-3.4764,-8.9406,-3.8496,12.5124,6.9069,7.5656,2.4196,-0.37944,0.43493,18.6273,17.478,
0.26259,0.68231,-32.1451,-17.3678,-12.1542,-1.2061,-2.3384,0.59417,0.24786,9.8839,13.7433,-11.0601,22.2243,13.0522,
-6.0252,-7.5599,-30.853,-30.4257,-5.1529,1.2778,-13.8856,-5.7135,6.505,3.9844,8.0937,3.7035,14.6188,12.7514,
0.12557,-7.1068,-28.0376,-30.6851,-6.7744,-1.6932,-6.2986,-8.265,10.9393,2.7802,-3.0053,13.9856,5.0577,12.9514,
13.6267,6.8283,-12.2554,-14.744,-5.4024,0.33765,8.1793,-4.8743,4.4932,2.6134,3.9294,-0.95354,0.89473,4.4554,
19.0811,16.55,2.5799,0.24064,1.1938,7.5549,8.5442,1.6902,-3.0121,-0.92055,-3.543,-1.7519,0.35964,-4.9779,
17.4534,4.4605,12.8204,4.8322,15.2221,17.2327,-6.0685,-7.5776,-5.2443,-10.9963,-15.3917,11.379,-3.0396,-6.1266,
12.5467,-1.5959,11.0865,-3.1757,10.3398,6.5495,-7.5241,-9.0532,0.86001,-4.5469,-0.36816,2.0127,-0.92698,0.99529,
6.9698,10.0783,-3.0864,-14.5646,-4.3806,-7.9434,4.5057,5.59,9.492,9.8259,4.8513,-12.2081,4.9174,3.8295,
10.8934,11.8856,-17.0012,-14.173,-18.2177,-7.3569,1.8229,8.0404,16.1591,21.6704,0.21844,-25.5756,7.0349,-3.6369,
19.4057,12.6199,-11.5303,0.77738,-10.1523,7.1846,-7.4524,-6.433,5.0581,6.2702,-1.2416,-11.279,-2.5541,-6.7959,
26.9259,21.5119,-8.9083,14.8307,0.10603,20.8535,-5.076,-1.2229,-2.9634,-3.6452,0.76307,3.4978,-4.3301,5.1913,
32.0638,17.3254,-18.9885,5.5206,-6.6546,33.7023,1.9829,5.6048,-3.7512,2.3623,-3.1431,-0.1992,1.7185,11.6332,
40.7542,23.0407,-3.7492,9.0493,7.8446,27.4921,-1.996,8.1629,-13.1748,-8.3937,-7.7791,-1.1514,-7.0687,3.2167,
35.4145,23.588,6.4982,3.6818,18.361,11.7426,-4.7706,11.5331,-11.4192,-8.8543,-8.2765,5.6715,-15.3277,1.0939,
19.1897,8.0727,-7.9917,-10.6391,3.1594,-3.0619,-5.9318,6.4988,-0.60305,5.777,-14.0524,-8.7688,-6.2072,2.4748,
8.4986,2.8732,-21.6122,-11.8215,-11.1302,-16.9782,-3.6457,6.1089,13.5331,18.8286,-2.5955,-13.9228,8.2652,8.116,
11.8482,-2.1237,-11.8956,-12.0768,-24.5624,-27.2099,-5.3572,-0.046394,4.4108,3.5988,1.4197,-2.4737,4.2831,-1.0546,
20.3032,11.9947,-1.0504,-11.8345,-8.9886,-11.4773,7.025,1.4033,-3.0914,0.59804,-0.1124,6.8407,2.5791,-0.50896,
5.0941,5.003,-15.0874,-21.2564,-22.2217,3.3113,4.191,-4.9528,2.4015,5.8686,-0.58889,-7.6698,1.9412,-8.6806,
-2.4477,-4.4627,-16.4852,-12.7435,-34.9884,-1.4477,-2.3311,-1.2781,0.80995,-3.649,2.825,-19.1608,-2.5167,-16.3606,
0.59397,3.5231,-1.3961,0.56422,-27.9555,-1.3608,6.4924,3.6227,-0.20329,-1.5008,1.6899,-3.9112,-4.2949,-1.8703,
0.076007,13.4432,-8.1757,-1.8822,-20.9717,-7.5512,4.655,-2.8666,2.2205,1.9664,-6.6128,-6.6804,-5.4851,2.5837,
12.6141,21.3207,6.4149,11.739,-5.6134,7.0019,-5.273,-2.6942,0.15754,-3.9408,3.4327,3.3691,1.5978,-0.46663,
-2.2428,5.9414,19.4291,-1.9908,-6.3498,17.0861,-1.5795,-6.8743,-7.0876,-11.9056,2.7444,17.267,-1.8743,-3.8149,
-16.2082,-8.515,4.1634,-15.9713,-20.0689,1.9609,6.2347,4.1515,1.0561,2.9087,1.6147,11.2973,3.0619,5.0972,
-25.6296,4.758,-10.1864,-2.36,-32.9647,-10.5908,-0.41092,9.2093,3.4048,13.239,7.7893,-0.47616,13.9747,12.9931,
-19.2677,6.4018,-2.1205,11.8816,-16.8868,-1.2717,-4.2457,-1.9571,-3.5529,-1.6554,12.147,13.6524,10.2414,9.3196,
-18.1116,-1.7013,-1.0277,3.8221,-17.6948,-2.1601,-2.0617,-0.875,-1.4104,-5.7888,7.5587,15.1358,-1.9515,2.9707,
-16.5431,-5.941,-15.0661,-10.5072,-26.7641,-11.1969,12.162,13.2775,12.7742,8.6585,3.7276,0.12767,12.1561,-1.5498,
-12.6557,-3.6548,-0.062097,-3.013,-11.0583,-9.5604,6.4986,-0.17173,5.1439,1.2752,5.4332,-12.3145,11.4267,-6.2809,
-8.0368,10.6645,14.0416,11.2678,-3.2672,5.1132,-7.9913,-14.2614,-4.8129,-10.3798,14.7563,2.5244,-0.83734,2.7795,
-21.6546,-0.21593,2.4758,-3.5083,-17.1711,-4.4685,-5.9549,-3.1652,2.2302,2.7861,-0.22903,-3.0426,-3.6819,-0.28208,
-15.4217,6.0686,-4.9094,-7.64,-20.8564,-2.7539,8.5024,11.1247,16.1963,16.7189,-4.9299,1.4813,10.639,13.8348,
-15.4615,1.8454,9.4852,0.53779,-5.505,11.5113,13.672,1.6637,1.6069,9.8171,-11.3889,7.1817,20.5054,6.1414,
-5.8498,14.2782,23.0161,14.6055,8.9253,19.8784,-1.2483,-7.1193,-2.3495,-4.8719,0.87334,6.7512,5.1751,1.9139,
-0.67421,17.2806,19.4868,27.8292,-1.4779,4.5857,-15.2734,3.9212,-3.1736,-0.12786,-13.2791,-7.7538,-1.2984,-0.13069,
8.0503,8.5243,18.3172,30.765,9.225,6.8312,-10.279,-2.1033,-7.8068,-3.0155,-18.6453,2.9519,7.4636,-0.1233,
4.1897,8.4956,5.1578,18.7881,22.7715,10.7636,-0.49589,-7.284,-13.6109,-10.0707,-3.4265,4.2222,6.533,3.2608,
0.078808,18.5997,-6.731,3.5608,22.2603,5.2937,9.1821,7.253,-3.1451,-2.7122,10.879,-10.1311,11.9307,8.8548,
6.3461,17.0014,7.6638,7.3157,23.3372,17.0368,7.1842,10.5674,-3.4387,-1.1025,-1.5707,2.1642,14.592,4.9464,
3.5537,9.7102,8.6519,20.9767,36.037,17.4625,-7.3468,-4.0567,-17.3324,-13.0971,-6.7829,11.2012,-0.38353,-6.4456,
-4.3794,11.0569,-5.3759,19.6091,24.1166,2.3147,-9.6909,-2.8487,-13.2885,-13.2759,2.3077,-3.5709,-5.0756,-4.1296,
-1.2218,16.1822,-1.1938,12.6429,13.986,5.6611,-2.356,0.21709,-0.9128,-0.90092,4.0994,-5.6601,0.053067,-1.9525,
2.711,4.5975,11.4209,15.7438,27.2468,14.9706,-8.9681,-7.5149,-14.958,-5.6719,1.9233,8.7795,-12.4932,-14.3785,
-3.2413,-0.50246,2.052,9.975,18.2663,5.3888,-7.4654,-5.1347,-14.4338,-4.366,3.7381,8.626,-12.7082,-6.7614,
-5.458,13.5191,-2.4124,5.9998,3.0704,3.618,3.1145,9.2734,0.53221,5.0623,2.0664,3.7671,2.1543,7.7443,
0.65824,16.5665,11.8323,18.1829,-6.6535,6.2958,0.99743,10.5377,-4.4333,-0.066465,-2.8817,6.435,5.775,5.2399,
3.9954,10.2656,18.7318,21.4342,7.8457,2.5404,-10.159,2.6692,-16.2286,-8.2633,-7.0511,7.4963,-8.562,-4.24,
3.7566,9.6506,6.9941,6.6395,8.231,4.3182,-3.7598,13.1229,-1.1548,0.9161,1.0909,12.8362,3.5301,10.1144,
1.601,5.2112,-2.11,-6.3029,-6.3629,-10.0409,2.2546,8.4751,8.9369,4.7206,10.6737,3.3815,6.2122,5.0558,
0.057559,0.55717,12.008,1.3124,-18.4156,-23.5384,0.67188,-2.1644,-2.6959,-0.86952,10.5161,9.4502,-1.3967,-9.3475,
-4.2877,-5.7483,10.8052,5.5755,-12.9688,-17.0835,4.9734,3.2728,1.8076,-1.2997,1.6838,15.1552,4.9591,-5.3,
-2.5835,5.6927,5.8141,9.5827,-3.9894,-1.9585,5.1573,15.1372,4.1117,-3.6342,1.1005,1.2195,3.2137,7.0787,
-10.1474,14.0348,9.3257,6.1139,-17.8501,12.2591,-9.2522,0.12895,-10.235,-17.5162,4.8939,-2.7122,-11.0791,-7.446,
-14.8455,17.535,0.56441,1.4048,-30.8791,25.6235,-13.4116,3.1256,-3.7217,-5.7419,6.0477,10.4764,-9.3393,-8.819,
-22.1556,17.9303,-13.5695,-3.0218,-43.1263,38.1861,-8.2647,17.038,8.5619,5.6992,-4.4462,-1.2488,3.2813,-0.089047,
-14.0724,15.8894,-26.8553,5.8436,-54.6387,49.9949,-10.6632,11.0817,2.2589,4.3922,-2.2497,3.6507,2.1194,0.8814,
-2.6142,10.1119,-11.144,13.2128,-65.4604,57.0624,-18.707,-1.1617,-11.9766,2.1984,-11.7638,12.1162,-8.6207,-1.1008,
-2.4578,12.3995,3.6247,18.2084,-63.3982,57.4986,-15.6557,13.008,-8.736,13.6454,-20.7067,0.77499,-10.0332,1.8597,
3.9616,11.1733,2.4421,25.3181,-66.831,45.8474,-11.3392,23.6965,3.8489,11.3788,-5.3643,1.2108,-1.2299,-2.5946,
9.5127,9.5382,-2.5286,24.7627,-52.2078,45.9905,-24.7589,8.1747,-6.9958,-3.4039,0.63727,8.8571,-4.0509,-2.439,
6.5299,11.378,-10.5786,20.8658,-39.9085,52.3974,-27.988,2.9696,-9.9527,-5.9841,-13.501,7.8438,-13.9389,5.9091,
9.5152,16.9673,-10.4262,24.9203,-35.1015,44.9118,-15.2126,15.8168,-4.0491,-1.2833,-19.818,2.0658,-13.5849,1.2128,
7.4969,19.326,0.33041,28.732,-42.1627,35.9456,-18.6421,0.7678,1.5007,2.1704,-5.6031,-12.1581,-7.4638,-12.8514,
-0.18909,14.7897,14.4106,26.5253,-37.2204,41.025,-27.6546,-12.1946,-0.036753,0.59279,2.9348,-14.6967,-11.3573,-15.457,
1.7525,13.9023,16.3322,22.0398,-22.4436,35.6696,-18.2763,2.6371,-14.1345,-10.0557,-10.7499,-0.3063,-19.3595,-11.6348,
6.9537,12.5859,1.2523,11.5506,-35.197,22.4333,-3.0798,14.9129,0.81353,0.67825,-7.6924,-6.559,-5.1725,-1.7698,
-7.5635,0.25182,-12.9229,-3.2424,-47.1852,13.3679,-3.9691,-0.081904,13.7906,11.2509,-4.3365,-20.2655,-5.8273,0.26517,
-6.5183,5.0613,0.13135,0.43833,-34.9691,12.5663,-10.4848,-1.4149,5.2437,5.7513,-5.0414,-4.9495,-13.1961,-1.6796,
4.9694,3.3102,3.5011,-1.0354,-26.5995,-0.24893,0.27528,1.0821,6.3765,3.9597,-2.3259,-0.31122,-16.7466,-1.0969,
-4.0138,3.1111,0.39572,-8.6918,-39.1035,4.5897,-4.5658,3.9115,17.5728,16.2647,2.6373,-0.293,-11.8819,7.6529,
-16.3156,2.9249,-5.4172,-8.1707,-28.4465,14.9285,-15.8698,-3.077,3.9749,4.6755,3.4442,13.8246,-6.3444,0.43991,
-11.9595,-4.4872,-19.0832,-3.3387,-13.7139,8.7255,-11.5414,-3.3747,-4.4649,-3.8063,7.5793,13.8512,-1.6219,-6.8231,
-6.4178,-11.9369,-27.5864,-1.2082,-26.991,-1.4463,-10.8489,4.5467,5.4513,-0.68309,4.2297,5.3011,-12.1384,-4.4845,
-4.5848,-17.4927,-28.3437,-10.3016,-35.8759,-10.5254,-11.645,3.7916,14.291,1.7695,2.529,5.4654,-20.576,0.12641,
-7.2046,-8.7242,-25.6776,-10.649,-29.8638,-8.9293,-8.0514,-0.29539,5.7146,3.5935,6.2367,2.2426,-18.3768,2.049,
-6.7728,4.3428,-17.383,3.499,-19.3879,-1.6397,-13.3576,4.5469,-8.1364,-0.48203,-5.7155,3.0732,-24.0281,-2.8985,
1.3526,9.871,-3.797,17.389,-4.1247,6.1777,-21.2406,7.168,-10.5431,-4.3126,-12.1278,5.7836,-28.3761,-8.5143,
6.0964,11.2089,6.08,24.4379,1.3202,8.7019,-17.0713,16.3871,-3.1562,-1.159,2.6999,2.5418,-20.8838,1.6467,
-3.4366,-1.5248,-1.5219,12.8397,-11.7853,-3.8815,-2.0566,15.8857,4.2694,2.2872,6.2888,-7.7418,-8.5351,5.8883,
6.4183,9.1809,12.6694,18.8232,3.0218,9.8596,4.8207,10.1089,-3.7062,-5.5685,-2.7726,6.8227,-13.8122,-6.043,
20.1332,14.4193,23.861,22.5184,16.9405,11.1978,-9.5686,9.5019,-16.0265,-16.8133,-12.2549,1.9616,-27.0835,-17.2584,
27.5006,8.2472,8.4388,13.9311,12.3284,-3.5741,-4.0604,2.6603,-0.96487,-9.5329,-7.1774,-12.1466,-18.5951,-2.1229,
19.5791,8.2352,2.6256,15.5073,14.0012,-8.5571,7.2798,-11.5993,5.2551,-7.5126,-5.2993,-7.0755,-3.3794,7.0614,
22.2638,4.8462,16.568,16.5061,27.2611,-5.1488,0.088733,-18.5128,0.11563,-14.7817,-1.1219,1.068,-12.9344,-4.9408,
18.9978,-5.0937,19.8067,1.4158,36.612,-8.6993,-2.8114,-10.6477,0.10869,-6.1759,1.8394,-1.891,-18.9127,-3.6797,
3.7579,-10.5773,4.5183,-7.7256,20.3153,-7.2123,7.9706,-15.7981,7.8207,8.2947,7.5182,-6.6021,-7.1646,10.6411,
1.2299,-5.1181,-9.8528,-7.2625,18.7231,2.8692,8.4575,-20.6394,9.2812,10.1005,11.8917,-0.41673,0.98473,12.3052,
15.2561,0.97821,-2.2888,2.8229,31.6997,6.5569,-3.628,-13.6118,-0.92348,-4.0137,7.3192,4.4328,2.8554,2.8837,
25.3278,-1.0102,11.9486,9.4073,43.8978,3.2682,8.1677,-15.6895,-0.86853,-4.738,6.8796,-6.4465,-0.21032,0.78099,
9.7081,-1.4324,8.2278,0.64116,27.1639,0.66007,16.844,-22.9499,4.4905,2.7824,1.1599,-10.4019,-10.3296,6.0401,
9.2342,1.5484,10.628,2.532,39.6341,8.3394,5.2196,-16.7488,-2.5333,3.5801,-6.6287,4.3222,-15.4995,4.7131,
7.7155,-5.2988,9.0257,5.2749,51.0284,8.8037,-2.8126,-8.0249,-9.1356,-4.3536,-7.1956,4.4361,-12.6394,-9.6697,
10.147,-0.15632,-5.6158,4.9589,36.3887,19.8544,-4.5736,-5.6137,-6.6577,-1.1971,0.95557,8.0299,-13.8107,-4.6382,
22.0817,3.713,-9.5116,5.6264,45.7834,32.7631,-15.8771,-18.785,-20.3583,-8.8447,-1.9971,10.4425,-26.4903,-9.1845,
34.8568,14.5859,5.1591,19.3888,57.1364,32.6176,-8.6529,-14.2812,-18.0622,-5.902,-3.3247,6.4383,-15.7345,-16.8343,
23.9718,23.3594,-2.9785,18.1155,39.6082,18.117,-2.3446,-3.7756,-8.2944,1.2069,-8.9144,-6.4906,-7.071,-8.1057,
8.4335,19.5463,-7.1416,6.8981,23.1317,4.0046,-2.6862,-4.9961,-3.4549,2.5815,-4.0368,-4.6542,-16.7782,2.5121,
21.0629,17.8902,7.3869,14.6845,7.6438,4.2466,4.7107,-5.1786,2.0588,-0.95057,5.3713,2.8617,-13.3599,-1.9804,
33.79,12.475,-2.3322,-0.29654,21.2852,7.369,9.7354,-1.4907,4.3478,-4.2707,1.6719,-5.5113,0.46799,-8.1336,
24.5255,7.3843,-16.2922,-14.3787,21.0822,0.65529,-0.015095,3.9056,0.70933,-4.4963,2.0543,-16.2772,-11.6213,-4.2689,
31.2557,21.0412,-1.2147,0.58398,10.6518,-0.83145,-5.3202,2.2238,-6.5694,2.045,5.3078,-7.0988,-21.055,-3.529,
43.4804,29.3184,12.9582,14.6489,21.5902,-2.7118,-1.1424,-5.6285,-12.9296,3.8516,-3.6952,2.0107,-13.0374,-12.0018,
38.8323,20.3226,17.8604,13.77,24.6366,-6.8909,-4.451,-4.8085,-16.4956,-7.4756,-9.7446,1.4077,-14.6677,-9.8348,
38.9149,17.6563,21.1315,3.7779,21.7115,-5.0295,-4.6663,-7.8972,-10.1985,-9.4387,-2.8879,3.7358,-17.1648,-4.9019,
35.6149,16.5965,14.0744,-2.238,32.9523,2.9907,-6.316,-10.3177,-13.4465,-8.8728,-4.6444,5.4414,-19.9939,-10.398,
19.378,15.6012,-0.87009,-7.8929,26.1506,-0.083996,-4.972,1.8793,-15.535,-2.5512,-11.1205,1.255,-15.8999,-6.8797,
13.983,15.6297,7.4929,4.1591,35.1953,-10.6918,-5.6383,-4.0222,-13.6374,-4.3274,0.16055,6.9693,-14.9459,-8.3962,
21.3458,13.2454,18.139,18.0095,47.1836,-9.5675,-17.3612,-17.8809,-26.9191,-18.1678,-2.2611,13.7883,-25.1448,-21.9924,
18.6172,11.9675,9.814,17.3027,33.147,-6.5819,-2.2195,-13.3213,-12.1691,-8.7669,5.1112,0.89931,-9.6452,-10.4319,
7.3691,0.15378,-4.8748,2.1645,17.0582,-20.287,9.8649,-1.4264,0.62228,-3.8996,7.2165,-13.2546,-2.7958,3.2189,
11.7506,6.8984,-2.5431,-1.7158,13.2489,-33.1698,0.58893,0.58892,-2.3104,0.19432,4.8538,-5.596,-7.4518,-2.7634,
5.7396,5.0371,11.6,-2.0956,9.0773,-17.0796,-5.7179,-8.6128,1.2059,7.4188,5.0454,6.801,-13.2771,-10.7984,
2.0181,-0.57158,-1.1568,-6.3117,-5.5674,-1.9548,-1.9977,-12.4378,6.44,6.4914,2.3301,5.9097,-11.0326,-3.8794,
8.6513,-1.5019,-7.8417,1.786,-5.1234,-15.828,-4.7718,-3.9726,4.1243,5.1373,-9.3881,3.6258,-7.4758,2.143,
7.1667,-3.342,-1.5824,0.71418,5.7969,-19.7034,-7.3803,-2.7696,0.017357,8.6885,-22.9248,2.4436,-8.9575,-3.7753,
9.1497,2.1654,6.7143,0.18855,2.0724,-6.4599,-5.4901,-4.0508,3.393,12.5095,-31.089,10.4987,-7.9372,-7.8901,
6.1882,-1.3417,9.6895,1.6251,8.22,-13.3081,-6.6076,-9.1142,4.6373,2.5921,-34.5301,7.4563,-6.9787,-10.7938,
6.7811,-1.2616,13.9318,4.4211,20.2695,-16.3704,-11.0367,-16.2868,2.4284,-0.45785,-33.4234,-2.6398,-7.5251,-4.357,
2.9979,1.2275,5.8592,-4.0445,10.8529,-12.9748,-8.9266,-13.8617,-1.0935,7.7718,-29.9701,-2.9637,-7.5559,2.1764,
-2.0065,-2.707,4.5426,-4.767,6.3409,-5.4424,-3.5673,-5.3115,4.7604,2.48,-22.3836,11.3141,0.61598,-2.7787,
-1.8861,-4.4739,11.0243,9.619,18.5044,-0.29177,-17.4533,-15.6066,-9.033,-11.7688,-29.7242,10.0434,-12.9287,-16.712,
11.2524,8.82,12.7745,23.1419,14.9817,3.1029,-4.7177,-7.4336,-1.2543,-2.2691,-29.3877,3.1688,-8.7758,-4.9864,
-1.0011,8.2917,-0.53507,11.4038,-0.017244,-11.1833,9.6654,0.73139,11.364,11.967,-31.4839,-10.529,3.3292,2.0671,
-10.5898,5.8644,4.3216,-3.3804,-10.0373,-21.4989,12.3531,-7.9956,14.5421,12.5865,-24.7703,-2.1788,7.954,-3.8462,
-19.1212,-7.5137,3.58,-1.1397,4.555,-17.7974,4.3753,-21.6159,10.2915,2.6654,-16.0484,7.1179,-3.6203,-2.1685,
-17.4907,-8.5099,-3.8714,9.0611,-9.8183,-25.8954,1.7012,-12.0086,6.2978,6.8472,-19.4273,4.2792,-9.6741,3.269,
-12.099,-0.7631,0.7031,1.2803,-23.3292,-22.8943,-1.7785,-5.9812,5.4371,3.0597,-23.5685,7.3991,-1.8566,-3.1996,
-15.233,-0.71686,7.4148,0.2393,-16.8863,-16.6961,-9.3903,-17.2003,0.28723,-1.9484,-21.1893,8.8859,1.1492,-5.902,
-6.1173,-0.19198,7.4527,14.2154,-5.7421,-13.2822,-5.4502,-11.8269,-6.0025,-1.3488,-16.5412,11.7294,-6.1569,-1.2056,
-0.92613,-4.0399,5.0753,5.6436,-6.3622,-16.3448,0.66558,-7.2579,-3.7121,-2.2334,-16.5134,12.9549,0.0022232,-4.0281,
-14.9706,-4.7617,2.8411,-6.274,-10.8051,-20.1887,0.6261,-13.5762,-3.4889,-1.1343,-20.3463,5.4238,10.6154,-1.8567,
-12.0331,-3.9942,5.0826,1.3387,-5.8145,-23.3196,0.10576,-10.3496,-6.6572,-4.4439,-16.7144,-3.1034,3.707,-0.29787,
2.7889,0.58683,8.1544,2.7058,8.5249,-19.5084,1.5468,0.40239,-4.8104,-3.6944,-15.2287,-1.4698,-0.85771,-1.7274,
-3.7595,0.069755,3.3238,-6.623,5.6013,-20.7499,-3.8529,-1.0692,-7.8984,-4.9202,-19.6219,6.8202,1.6067,-3.0712,
-17.6339,-6.6878,3.1244,-6.2247,-8.8348,-32.048,9.8869,-2.9343,1.2591,-0.76458,-14.5842,4.4817,4.4052,1.9381,
-11.1604,-7.2521,4.8662,-2.9573,-12.5374,-31.0898,13.1532,0.13567,8.9025,6.0347,-5.0255,-8.3312,5.1046,7.6106,
-4.2192,-6.3351,16.6354,2.5271,2.3148,-15.1244,-1.736,-10.9681,-5.7317,-5.423,-0.38266,-3.49,-3.4025,-2.0124,
-9.7548,-3.0602,22.3916,3.3401,12.6802,-6.6075,3.3018,-5.4859,-7.2085,-6.0623,4.4653,10.228,-3.1984,-11.5408,
-23.2695,-6.2533,6.9481,-10.9603,-2.1806,-20.311,17.2037,4.9743,7.324,8.4014,1.7844,-1.4813,10.0194,0.24819,
-33.8246,-11.1845,-7.5688,-11.6402,-16.1498,-33.1924,24.2632,-0.63064,20.9846,18.884,4.0899,-2.8403,21.479,12.2941,
-25.0408,-8.5842,-0.14178,3.1583,-1.0808,-17.1008,8.7074,-6.3816,5.6255,3.6509,1.9152,6.9793,6.0902,-0.98666,
-15.8194,1.58,13.3744,12.9903,13.0841,-2.9399,0.092758,4.6142,-8.812,-3.6957,3.7296,1.7364,-6.2269,-7.6818,
-11.9759,4.3796,11.6078,7.3863,26.399,-3.7277,2.0179,1.443,-10.2126,-1.5442,-1.3178,-12.4678,6.6903,-11.0808,
-3.5388,12.8009,12.8411,10.803,22.294,6.1438,-0.99852,-12.7436,-8.6356,-9.171,-7.0289,-11.1284,7.254,-8.4862,
1.499,10.1031,8.2116,6.2958,16.1318,2.8817,2.9213,-18.141,-2.3274,-13.4444,-1.7817,-8.5309,1.9941,-3.1525,
-4.8629,4.1905,-6.3811,-1.3186,29.1548,-8.3873,6.1232,-10.7806,1.1894,-3.4718,0.73682,-4.6419,5.2516,3.3087,
-13.738,-2.3329,-15.056,-2.6873,13.3055,-7.4018,3.3433,-5.7919,5.4599,6.868,3.1051,5.7681,4.4542,-0.267,
0.59446,0.70141,-1.6091,4.2278,-1.5928,5.585,2.1776,-5.4449,8.0267,1.6313,17.0188,5.4215,1.2917,-2.1807,
8.2773,3.5537,-6.3372,-8.5694,12.6028,4.2848,6.8715,-6.0833,6.58,-2.3265,21.1942,-8.4119,7.968,3.7393,
-6.3193,-10.7595,-20.0569,-22.1553,25.9466,-10.0723,17.5558,-13.9191,20.2852,8.9097,13.651,-17.0736,21.5899,-0.82728,
-2.9354,-12.8988,-23.5686,-23.6108,34.038,-23.568,22.2917,-12.1198,29.5728,18.0238,15.7272,-2.541,28.87,0.18746,
11.3407,-5.371,-8.0545,-8.0942,46.0957,-32.0659,6.8542,-10.4275,13.6984,3.4342,4.1693,1.4714,13.0378,-0.78889,
16.3395,-6.4966,1.9684,6.4915,57.43,-35.4493,-1.1674,-10.2842,-1.2235,4.6751,-1.3873,-2.9596,2.7159,-1.2239,
19.7014,-6.5887,10.0521,-0.87041,52.8015,-35.7335,6.1397,-15.9386,0.03359,4.8774,-7.5756,-3.2639,11.7193,-7.422,
23.8262,1.0437,11.861,-1.301,63.6239,-19.4895,13.0075,-18.3599,2.4436,-1.6868,-2.7797,-2.5853,15.3584,-2.6344,
8.2967,0.015985,-2.9507,3.6017,48.2276,-20.3594,11.2629,-17.2579,-1.5629,1.3088,7.0367,-5.3245,12.5072,0.41804,
2.6019,-1.9152,-7.0068,3.3856,33.7555,-31.6818,5.7621,-12.3629,-5.3286,7.0199,4.6843,3.6785,1.143,-1.5372,
16.4359,-4.2119,4.5097,-2.1249,38.0021,-33.158,3.9694,-14.9983,-5.4912,3.2216,-2.8334,-1.8495,0.59205,-1.9273,
13.5204,-2.0299,8.0986,3.7922,34.7564,-24.4142,9.52,-11.2036,0.627,-0.83121,5.0556,-8.4929,14.6565,0.11851,
3.0605,-8.6619,-3.0007,1.635,29.7767,-20.055,10.8785,2.9768,5.414,-0.7818,11.5061,0.70075,17.0448,7.8299,
1.429,-11.5194,-7.1624,-4.7351,26.5431,-23.1935,5.884,3.2805,3.6422,1.6776,6.4739,9.8255,10.7147,8.808,
1.3433,-3.1093,-3.8378,-2.5208,13.3721,-30.4855,4.5663,-11.0163,-1.4005,3.5063,8.9803,-0.41315,15.8615,1.5252,
8.4998,0.45492,5.5588,1.9727,26.6698,-24.3141,6.7044,-13.1407,-6.6234,-2.9757,11.8191,1.0591,13.4624,-4.8379,
14.2613,-2.95,17.2856,4.2664,39.1696,-8.7553,-7.6884,-9.9402,-20.326,-16.8971,1.9427,14.0214,-1.4453,-11.7847,
2.7918,-5.6678,2.7407,-2.7439,34.6711,-4.48,-10.1219,-11.273,-16.103,-4.1954,9.546,15.1103,0.68019,-1.4285,
-11.4757,-9.1868,-11.5237,-16.6793,18.4909,-18.3112,-10.4797,-5.773,-2.5933,6.6697,1.2538,0.69457,-0.3248,8.306,
-5.3707,1.9778,-14.1004,-8.3328,4.4641,-19.5151,-11.7806,3.2574,-8.2269,-1.449,-8.4701,10.3025,-1.2704,2.983,
6.0472,-4.4124,0.84562,-1.5613,18.2963,-4.2442,-9.6264,-11.038,-21.8333,-13.4233,-9.4093,6.3067,-6.5011,-11.296,
3.2723,-6.5598,-0.76204,-6.7745,31.2985,-1.687,0.11758,-9.7834,-11.2474,-1.5222,5.2552,-0.3432,1.1252,1.5525,
-1.2663,-6.649,-0.23354,-9.7448,21.9654,-7.8573,6.3821,4.9036,3.5275,12.6691,16.8916,-1.77,15.1576,15.5594,
2.6691,-8.1802,13.2882,-4.336,22.5777,-9.316,8.894,5.4645,12.8545,14.6943,9.1238,-11.313,21.8576,0.5258,
2.0276,-6.2415,11.0449,-1.6633,27.495,-6.3446,8.8427,7.5491,8.707,10.4364,10.9889,-7.2561,6.4462,-2.4001,
-3.4014,-12.139,-0.71487,-10.7303,21.5035,-11.2703,6.8651,4.6837,8.6669,2.5736,15.636,-7.304,6.6517,3.0503,
5.0035,-0.31503,-4.0487,-11.5339,13.9409,-11.0769,3.0756,-4.7637,9.5934,4.8312,13.2504,-13.1373,13.4888,2.3845,
15.7998,7.9056,-5.2532,-8.4298,21.3061,-4.1407,1.4437,-2.0658,6.6057,9.8483,12.9382,-3.1827,1.5838,3.6889,
12.9221,-6.6687,-3.0082,-14.677,18.098,-4.8565,-0.57178,4.8129,1.3857,3.4682,5.408,2.7975,-7.1944,3.468,
9.7347,-0.36988,8.2679,0.30364,11.7053,2.6702,-1.9858,1.1465,-2.075,-1.0822,-1.1889,-3.6419,-1.4567,-1.0823,
9.1506,11.2307,8.7374,9.8241,14.8624,10.2298,0.063533,-1.8162,-5.81,-3.9121,-2.0822,-15.0018,-3.2986,-4.8769,
8.6011,3.803,-3.3657,-4.8653,13.9702,11.5458,-2.8347,3.1164,-12.2153,-3.6769,-2.9224,-14.1022,-9.8555,1.205,
13.3915,2.127,-9.4358,-15.0777,9.7548,13.2646,5.5367,11.1307,-4.2457,-2.974,5.4542,-0.23064,-1.0629,11.2632,
11.1415,-1.3773,-10.3162,-16.5851,5.7928,2.3378,7.6166,8.0508,1.3159,-8.1024,8.5046,7.0203,0.44832,9.1409,
8.061,-4.6714,0.43383,-16.0727,6.8927,-0.21457,-3.9361,1.2962,-5.0346,-6.1689,0.75816,3.2224,-4.8855,1.3554,
7.5769,0.43347,8.1263,-2.5648,14.1986,6.5522,1.1246,-3.6061,-10.5217,-2.9044,-2.1826,1.0993,-3.6272,-6.4445,
3.2628,7.1609,-2.0104,4.3434,6.5923,3.2642,11.67,-1.4596,-6.9965,0.16474,4.7026,1.0324,-1.4803,-1.2337,
1.1377,4.8019,-6.7139,-0.74136,-0.55754,-4.6506,0.35605,8.2762,-4.6465,3.0497,3.4558,-0.9588,1.5033,5.5947,
-3.2723,-6.5823,6.7152,-0.21456,13.5759,1.9004,-11.7261,5.3681,-13.5345,-10.1596,-0.12866,3.4405,-9.683,-1.013,
-11.2777,-4.7399,2.9356,-3.5793,16.029,1.3045,3.0775,-4.1204,-10.3095,-17.7508,8.0808,11.4358,-13.4433,-2.3996,
-16.8735,-5.903,-11.3405,-17.4645,0.96727,-12.8737,16.7738,-0.49647,4.4091,-2.5858,14.8321,1.5833,1.3537,9.8055,
-8.1417,-7.4785,-11.5166,-24.0266,-13.1908,-26.2013,8.0489,13.0415,18.2445,11.6694,12.9771,-7.1958,8.991,14.0409,
4.8903,-0.27596,3.2744,-8.485,1.7007,-10.5292,0.81211,9.3646,3.0499,-3.1308,1.5851,-3.8696,-3.1264,1.6204,
10.3857,8.4242,9.2404,6.1241,15.2159,1.7895,4.6229,-5.2973,-11.2331,-17.043,-3.335,-5.5667,-5.8337,-2.3363,
13.6229,18.5335,3.8619,13.258,0.20291,0.71753,-1.4433,0.43699,-1.3928,-2.0299,-2.1694,-10.0568,-1.6233,5.5229,
10.8749,9.702,17.7302,16.3215,-12.7252,2.6042,-6.1822,14.5108,-3.2399,-16.0081,-3.9689,-4.6298,1.3676,2.2971,
5.3983,6.2251,25.7237,7.6233,-7.1375,-1.4115,3.8379,9.1888,-6.904,-16.386,5.9184,1.4377,5.1459,-1.7002,
8.4515,11.158,10.0803,2.8241,6.317,-4.704,3.1253,-5.4625,-8.9023,-2.3765,11.8343,-12.7486,-1.4348,-1.1159,
6.497,3.2523,2.3483,3.1365,2.5604,3.78,0.52575,-5.5085,0.79821,-3.6813,4.8527,-26.0837,-2.7961,1.3632,
-7.9928,-3.6967,-9.3715,-5.7348,-11.6932,9.3424,-3.3648,5.4363,9.4344,3.2934,-4.1216,-10.4186,3.1608,9.9654,
-16.5692,-7.3348,-17.4923,-7.3205,-21.0131,3.9573,-10.8823,-6.4679,-1.745,8.8859,-1.9445,4.3065,-0.88782,1.649,
-1.475,-3.0357,-2.3428,7.2188,-5.6524,9.5091,-0.58071,-12.8346,-6.4658,-0.3322,12.2721,2.1179,-5.6601,-6.1694,
1.3984,-7.1949,11.8978,-3.9372,8.7868,1.7023,5.7257,-0.96885,1.1592,-0.79413,2.7423,-4.2807,-3.8721,5.2965,
-5.9222,-6.2809,-2.9161,-17.801,-5.8404,-2.7416,6.8291,13.0802,14.1151,9.3841,-6.5891,-5.4708,9.3856,18.9696,
3.5991,5.1921,-2.8511,-2.6329,-13.318,6.5888,0.14827,5.0588,-0.83183,-5.279,-5.7105,-11.4137,-2.2736,3.7314,
14.4792,15.9767,8.4161,11.6251,1.5811,10.5353,0.62169,-1.5167,-14.6629,-11.1243,-1.027,-14.1069,-15.1626,-10.3734,
12.1631,9.7112,2.6042,6.4753,12.4719,1.7014,0.10161,4.8458,-4.6168,3.5337,-5.3067,-17.6018,-9.9115,-3.4795,
9.504,0.44492,-5.271,-8.0132,-2.3764,-6.1187,2.0257,7.4508,1.4499,6.2165,-4.9883,-22.3354,0.33233,2.518,
10.3812,-1.9938,-8.3314,-14.1763,-6.9484,-11.0585,12.0352,2.6615,9.5637,5.3607,9.411,-19.5479,4.6546,5.7446,
6.8635,4.8801,-2.0428,-7.537,7.5685,-10.395,-1.23,3.4665,2.2356,3.1098,15.4911,-4.275,-8.1686,-0.38977,
-0.30312,2.6566,-3.85,-7.0852,4.5923,-10.7373,-9.8412,10.977,-1.7585,1.9581,4.912,10.0815,-17.3272,-3.2608,
-6.0732,-7.1505,-17.719,-20.7601,-9.7832,-22.6357,4.8493,9.3542,12.447,15.3488,4.6187,6.3637,-11.463,-0.17074,
-7.1563,-5.2741,-29.0898,-16.5097,-23.2962,-21.7594,9.2743,-1.3381,17.3808,12.9814,6.7536,-8.0086,-8.3632,1.2869,
-7.2092,-7.3701,-13.2445,-4.423,-14.9251,-17.0776,7.27,0.18914,3.3126,1.1055,12.6195,-2.2217,-15.098,2.6567,
-4.8469,-11.7525,1.6502,-7.052,-14.9938,-24.7361,3.9394,11.7567,0.21946,3.9344,16.6869,-3.0526,-17.0865,4.4279,
-2.144,-8.6353,-9.2807,-6.147,-26.1563,-23.7347,5.1505,8.6383,8.4071,7.0751,13.2736,-11.0721,-12.6846,3.6795,
-10.2171,-6.6698,-11.1359,-0.47129,-21.2093,-16.0391,8.2191,0.88384,8.3855,1.3437,12.96,-7.9948,-13.37,0.082003,
-6.7097,4.3438,3.6322,6.3108,-17.0424,-12.1823,3.866,2.7605,4.0224,-0.66669,8.3225,5.0275,-18.358,1.0413,
2.8592,10.3547,17.5143,5.4494,-13.6078,-11.9342,6.0461,-1.7473,3.2983,-4.9689,-1.3433,3.2785,-16.7737,-0.46863,
4.617,11.6636,9.9724,10.9121,-6.037,-7.3586,12.4376,-5.502,-1.7237,-9.4949,2.5968,-3.6716,-14.8027,-2.3698,
0.48139,11.9284,9.3741,17.9764,-4.7101,5.6269,5.9017,-1.3124,-8.3746,-6.0304,14.0194,2.3374,-16.8093,-5.1224,
-9.679,2.0468,1.575,8.6965,-9.7339,10.5957,0.24115,-4.6099,-4.495,-1.3268,13.6606,8.4692,-14.3529,-1.4379,
-12.4749,2.4068,-5.7557,4.798,-6.7369,-1.1357,2.6387,-7.71,1.0825,0.20025,7.535,-0.23979,-6.2546,5.8854,
-10.7613,4.1921,0.3789,9.3347,-4.4039,-12.6465,0.55068,-1.4591,3.9119,2.118,11.9065,-6.9802,-2.985,1.6724,
-13.9751,-0.88447,8.0751,9.7393,-1.2448,0.65633,-9.1306,-1.3715,-2.1124,-7.6573,12.1568,7.5386,-15.3499,-1.3228,
-15.0668,-0.8314,18.2044,10.1195,12.9299,14.7169,-11.4785,-6.1134,-6.8107,-9.1281,4.6731,21.1863,-16.3582,-4.1383,
-18.5055,-8.9828,3.0121,-3.5139,0.46567,-0.26607,-6.448,-13.9488,2.7647,5.5196,1.9802,10.5302,-1.2767,-7.2671,
-14.9822,-3.1369,-8.1552,-2.8203,-13.6623,-13.7592,-2.6835,-2.9799,6.9411,13.2802,1.3795,-4.2016,0.13739,2.3353,
-1.5398,11.1513,6.4341,11.4489,-2.1188,1.1664,7.1262,4.9174,-4.0896,-1.6166,-0.63302,-12.5241,-11.4488,5.0895,
0.96423,10.3727,20.1481,24.862,9.1045,7.7421,5.2517,-4.5436,-13.9748,-9.1291,6.6416,-10.3247,-13.1744,-1.4869,
-8.7419,4.9262,12.4486,9.2702,-0.12539,9.2069,-6.6419,-1.3761,-8.3122,2.0325,10.1026,-7.776,-6.5943,1.4971,
-3.8756,8.9724,8.3246,4.2627,11.9429,16.8557,-0.93692,6.9077,2.318,-10.1502,-1.5997,-7.7917,-5.7163,2.8543,
3.1108,14.2233,21.9251,18.107,25.3263,16.8095,5.8741,0.70404,-11.3292,-16.2951,-9.2222,-11.1833,-15.022,-6.9657,
6.3013,13.8522,20.5001,27.5248,21.767,23.0375,0.21427,-1.7507,-15.9568,-1.2174,3.3919,-6.1714,-14.6039,-4.1352,
6.8884,13.0206,17.3403,27.8031,15.6364,34.1988,-10.4119,-1.6452,-7.28,0.67544,4.1525,0.95368,-9.8678,-0.99274,
-6.068,14.1696,14.3706,28.0651,6.0156,32.1469,-5.9277,-0.58186,-2.9837,0.63491,4.869,5.7206,-11.205,-0.93317,
-19.8039,-0.78057,-0.59161,12.2812,-8.4454,16.1181,-7.5023,-3.4418,-7.6297,4.4563,11.3302,4.4118,-24.6327,-4.7367,
-18.5071,-6.4139,-10.0958,-2.5557,-22.0386,12.3657,-12.359,7.8613,-0.8995,4.6717,6.3091,11.3842,-28.8349,4.7139,
-10.6419,-9.8881,-4.6654,-9.4209,-19.0513,3.9043,-11.617,2.565,3.9781,6.3211,-2.7535,1.0524,-17.4561,4.4306,
-2.2844,-7.3655,5.2627,-1.1367,-14.0487,-5.9782,-3.201,-9.1673,-0.12004,5.9419,5.1306,-13.1107,-20.2682,-0.65934,
11.9526,7.1764,19.047,12.9229,0.7847,3.5469,1.3333,0.54911,-0.59469,1.2431,9.1651,-0.63613,-25.3237,3.7225,
13.0548,1.8117,17.7951,4.4281,-12.7706,7.1931,-2.6067,6.3045,2.3354,0.20341,5.7199,11.9456,-22.8401,-1.3254,
-1.8285,-3.6025,8.5261,-9.9375,-25.0297,6.2792,-9.6869,-1.3095,-4.0758,-0.2902,8.7547,11.7112,-27.7407,-8.4826,
-15.117,-5.317,0.29513,-22.7404,-10.0198,7.8322,-19.719,-7.0202,-17.9313,-14.3728,2.4402,12.9382,-37.6552,-3.149,
-5.5264,-4.0333,-2.6174,-11.7278,-6.5247,9.2915,-14.6764,0.15444,-22.0542,-19.6738,-11.2148,12.1619,-29.6071,-5.8549,
