"AF3","AF4","F3","F4","F7","F8","FC5","FC6","O1","O2","P7","P8","T7","T8",
0.97337,-14.6042,-38.944,1.9467,26.2874,-0.97337,29.2084,39.9173,17.5253,-18.4986,16.551,-2.921,-11.6832,-7.7888,
-4.3815,-1.4605,-40.4045,7.3016,23.8535,-2.4339,29.6947,32.6157,19.9591,-14.1171,13.1437,1.4605,-6.3283,-9.2493,
0,-1.9477,-36.0239,16.551,25.3131,-3.8944,30.1818,36.0229,4.9591,-8.7631,0,1.9467,-17.5252,-1.9477,
2.4339,-3.4073,-24.8269,18.9848,29.6947,-0.48715,27.7479,51.0229,0.48715,-5.3549,-3.4073,3.4073,-28.7213,-7.3016,
0.48668,-0.48668,-23.8531,17.0386,16.0643,-4.3811,18.9853,52.0881,2.4343,-14.1166,-2.4334,9.2498,-34.5629,-14.1166,
-3.8944,-2.921,-29.2084,21.4196,18.4986,0,22.393,49.6538,3.8944,-15.5776,-8.7622,17.5252,-32.1285,0,
-18.8944,-17.921,-44.2084,6.4196,11.1965,-1.4601,10.2231,38.4573,1.4601,-21.9063,-18.0119,5.3554,-34.5629,2.4343,
-21.9059,-21.9059,-52.0877,-3.4073,4.3815,0.48715,3.4082,43.3255,11.197,-21.9059,-3.0119,7.3026,-33.5891,4.3815,
-20.4458,-23.3668,-51.601,-0.97383,3.8949,-0.97383,6.815,58.3255,5.8416,-24.3402,0.97383,10.7094,-35.05,4.8682,
-18.4986,-14.6042,-57.4426,0,6.8154,3.8944,4.8687,62.3113,2.921,-25.3131,-2.921,0,-32.1285,0,
-10.7094,0.39578,-51.601,9.736,15.5781,16.5514,-7.7893,62.3108,12.657,-25.3136,7.7883,-3.8949,-26.2869,-2.9206,
-14.1166,-0.48668,-47.2194,18.9853,20.933,18.9853,-8.2755,73.5078,11.1965,-28.7208,3.4077,0.48668,-22.8797,-6.3278,
-16.5514,-12.657,-44.7856,9.736,16.5514,18.4982,6.7245,70.0996,13.6304,-23.3668,-5.8416,1.9472,-19.4724,-1.9472,
-5.8416,-9.736,-36.9968,-4.8673,21.4201,16.5514,20.4458,55.0996,23.3668,-12.6561,4.8682,1.9472,-19.4715,-1.9472,
-7.7888,-7.7888,-36.0239,-14.6042,30.1818,8.7622,18.4986,41.865,19.472,-14.6042,14.6042,7.7888,-21.4196,-13.6309,
-11.196,-16.0647,-42.3521,-18.0115,24.8269,9.2493,19.9591,42.3521,15.0914,-19.9591,10.2227,11.197,-23.8535,-9.2493,
-6.3283,-20.9325,-46.2465,-13.1437,9.8269,7.3026,10.2227,46.2465,6.3283,-27.7479,-0.48715,3.4082,-38.8535,0.48715,
-1.4605,-10.2236,-43.3255,-2.4348,-3.4082,4.3806,3.4073,58.9031,3.4073,-26.7746,1.4605,8.275,-53.8535,12.1694,
-9.7365,-8.7622,-42.8384,-7.7888,3.8944,0.97337,7.7888,50.6272,4.8678,-27.2608,0,7.7888,-54.5216,0,
-5.3544,-8.2755,-28.7208,-0.48668,14.1175,11.1965,18.9853,45.2727,17.0386,-21.9054,0.48668,6.3287,-44.2984,-9.2488,
-8.2759,-13.1437,-29.6947,0.48715,5.3549,13.1437,18.9858,57.9297,14.1171,-22.8792,-12.1703,12.1703,-51.1143,-0.48715,
-15.0914,-12.1703,-36.5101,-5.3549,5.3549,16.0647,14.1171,72.9297,15.0904,-18.9858,-14.1171,21.9059,-54.0353,14.1171,
-25.314,-16.551,-42.8384,-16.551,5.8411,11.6832,3.8944,74.9678,14.6042,-20.4454,-3.8944,13.6309,-55.4959,12.6566,
-27.7479,-22.8802,-43.3255,-18.9858,-1.4605,7.3016,3.4073,66.6919,13.1437,-25.8003,2.4339,1.4605,-52.0877,1.4605,
-13.6299,-7.8802,-39.9173,-8.7622,6.8154,17.5252,14.6042,70.1001,26.2874,-17.5243,0,9.7365,-48.6804,0,
-8.2755,0.48668,-40.404,-6.3278,14.1175,17.0386,14.1175,74.4812,24.8274,-15.0909,-8.2755,14.1175,-58.9026,-0.48668,
-15.0909,-12.1699,-35.5363,-10.2222,13.1442,19.9596,17.0386,78.3755,26.7741,-18.011,-7.3021,11.1965,-55.9816,7.3021,
-21.4187,-7.7888,-36.9972,-9.7355,8.7631,28.2351,7.7888,78.8622,32.1295,-19.472,-8.7622,9.7365,-52.5748,8.7631,
-18.4986,6.8145,-37.9706,-5.8421,6.8145,22.393,-3.8944,81.7823,21.4187,-17.5252,-16.5519,8.7622,-62.3113,3.8944,
-15.5771,-0.97383,-37.9701,-7.7883,4.8682,16.5514,6.815,80.8094,12.657,-16.5514,-13.6304,11.6837,-61.3365,0.97383,
-17.5252,-8.7622,-34.0762,-4.8678,19.8682,27.2608,18.4986,86.651,27.657,-8.7622,-2.921,24.3397,-46.3365,2.921,
-23.3668,-4.8682,-35.05,-10.7094,23.3668,25.3136,5.8416,91.5183,24.3402,-14.6038,-10.7094,15.5771,-39.9178,4.8682,
-8.3668,0.97383,-33.1024,-10.7094,8.3668,22.3925,-0.97383,105.1492,9.3402,-28.2346,-20.4458,5.8416,-49.6543,19.8682,
5.3549,1.4605,-27.7479,-3.4082,-6.6332,26.7736,2.4339,107.5835,-1.4605,-33.59,-22.8802,19.9582,-47.2199,31.6423,
5.3544,-3.4077,-31.6419,0.48668,-4.3811,24.8264,-0.48668,95.8999,1.4601,-28.7218,-27.7475,32.6162,-51.1148,25.8007,
9.736,-2.9206,-36.0234,-3.8949,-4.8682,17.5248,2.9206,86.6506,3.8939,-23.3668,-25.3136,20.4458,-54.522,10.8007,
0.48668,0.48668,-27.7475,-6.3278,-0.48668,14.1175,14.1175,81.2966,18.8939,-21.9054,-16.0643,7.3021,-44.2984,-4.1993,
-13.1432,0.48668,-18.9853,-0.48668,9.2488,17.0386,18.9853,81.2957,33.8939,-17.0376,-6.3287,14.1175,-29.2984,-14.1175,
-10.2227,-1.4605,-20.9325,1.4605,12.1703,18.0124,16.0647,82.2695,35.5367,-12.1694,-7.3016,18.0124,-24.8269,-18.0115,
-1.461,-0.48668,-12.1699,0.48668,18.9853,16.0643,17.0376,85.19,41.3783,-4.3811,-3.4077,18.9853,-26.7741,-10.2231,
-10.2227,-6.3283,-7.3016,-10.2227,15.0914,11.197,16.0647,78.3751,45.2732,-8.275,-1.4605,13.1437,-23.8535,1.4605,
-4.3811,-0.48668,-22.3016,-9.2498,0.48668,11.1965,12.1699,81.2957,37.4839,-20.933,-6.3287,6.3287,-20.933,6.3287,
-3.8944,7.7888,-36.0229,-8.7622,-2.921,9.7365,2.921,93.4665,23.3664,-22.393,-16.551,6.8154,-35.933,4.8678,
-10.7094,-1.9472,-21.0229,-13.6304,12.079,13.6313,1.9472,99.308,18.4991,-9.736,-16.5505,18.4991,-40.8912,11.6837,
-3.8944,-16.551,-17.5243,-10.7098,9.7365,20.4463,3.8944,93.4665,20.4463,-14.6042,-22.393,11.6832,-31.1552,10.7098,
9.7355,-3.8944,-26.2874,-3.8944,0,26.2874,4.8678,98.3342,27.2608,-23.3664,-23.3664,5.8411,-30.1818,0,
4.3811,7.3021,-21.9063,-11.1965,5.3554,18.0119,-4.3811,91.0321,16.0643,-24.8264,-24.8264,4.3811,-40.4049,-15,
5.3554,7.3021,-21.9054,-13.1432,9.2498,5.3554,-3.4077,76.0321,3.4077,-24.8264,-39.4307,3.4077,-34.5629,-26.7741,
14.1175,2.4343,-20.932,-2.4343,10.2231,-5.3544,11.1965,66.6924,14.1175,-23.8531,-42.3517,7.3021,-28.7208,-17.0376,
12.1703,1.4605,-14.1171,-1.4605,16.0647,-15.0914,11.196,61.8241,18.0115,-19.9591,-27.7479,6.3283,-32.6157,-13.1437,
17.0386,9.2488,-10.2231,-3.4077,16.0643,-14.1175,10.2231,49.1671,14.1175,-17.0376,-14.1175,3.4077,-30.6685,-14.1175,
13.6309,4.8678,-20.4454,-2.921,10.7098,-24.3397,8.7622,35.0496,7.7888,-25.314,-20.4454,2.921,-41.865,-5.8421,
7.7883,-3.8949,-24.3402,-1.9472,16.5505,-39.3397,1.9472,33.1024,4.8673,-28.2346,-24.3402,8.7617,-55.4963,1.9472,
16.0652,-4.3811,-18.011,7.3021,17.0386,-49.1671,4.3811,30.6685,14.1175,-18.9853,-15.0909,11.1965,-50.1405,-6.3278,
19.472,-4.8678,-12.6566,9.7365,13.6309,-48.6804,15.5776,15.6685,13.6309,-24.3397,-13.6299,4.8678,-45.7594,-21.3278,
24.8269,-2.4339,-4.3815,10.2227,24.8269,-51.1143,26.7736,2.4339,13.1437,-23.8535,-11.197,7.3016,-41.3788,-17.0381,
20.9325,-6.3283,-11.196,16.0647,31.6423,-49.1666,24.8269,6.3283,13.1437,-18.0115,-11.196,11.197,-43.3255,-14.1171,
8.7622,-13.6299,-19.472,16.5519,28.2351,-48.6804,19.472,0,12.6575,-17.5243,0,13.6309,-40.8916,-17.5243,
9.2493,-9.2493,-14.1171,16.0647,19.9591,-56.9554,18.9858,-12.1694,15.0914,-17.0381,13.1437,15.0914,-25.8916,-13.1437,
11.6832,-2.921,-9.7355,14.6042,26.2874,-67.1786,22.393,-14.6042,20.4463,-12.6566,2.921,13.6309,-18.4986,-13.6299,
14.6038,1.9472,-3.8949,23.3659,41.2874,-52.1786,32.129,-4.8682,20.4458,-3.8949,-1.9472,19.4715,-19.4724,-5.8416,
21.4196,-2.9201,0,27.2617,38.9449,-37.1786,30.1818,-1.9467,5.4458,-6.8145,-3.8944,21.4196,-21.4187,0,
29.6951,0.48668,-4.3811,22.8797,23.9449,-36.5105,33.5895,-0.48668,0.48668,-16.0643,-10.2231,18.0119,-18.9853,-2.4343,
18.0119,5.3544,-11.1965,17.0386,28.7218,-48.1937,40.4049,-2.4343,2.4343,-18.9853,-17.0376,8.2755,-21.9063,-11.1965,
3.8949,2.9206,-2.9206,14.6038,34.0767,-39.9178,35.05,-4.8682,6.815,-9.736,-9.736,13.6304,-18.4982,-6.815,
-9.2488,-5.3544,-6.3287,6.3287,23.8531,-29.6951,21.9063,-4.3811,16.0643,-2.4343,2.4343,26.7741,-19.9587,4.3811,
-24.2488,-2.4334,-21.3287,0.48668,26.7741,-33.5895,25.8007,-6.3278,18.9853,-0.48668,2.4343,31.6428,-20.932,5.3554,
-36.0239,0,-22.393,0,30.1818,-36.0239,27.2608,-6.8154,14.6042,0,-3.8944,25.314,-10.7098,0,
-30.6685,-2.4334,-10.2222,2.4343,25.8007,-27.7475,27.7484,0.48668,21.9063,2.4343,-2.4334,23.8531,-6.3278,-0.48668,
-27.7475,-2.4343,-14.1175,5.3544,22.8797,-26.7741,30.6685,4.3811,31.6419,2.4343,-6.3287,26.7741,-18.9853,-8.2755,
-31.1552,0,-18.4986,5.8411,20.4454,-29.2084,24.3397,0,20.4454,0.97337,-21.3287,29.2084,-31.1552,-15.5776,
-18.4982,2.9206,-7.7883,3.8949,26.2869,-29.208,23.3668,-1.9472,9.736,1.9472,-29.208,27.2612,-16.5514,-9.736,
-3.8939,4.8682,-1.9472,8.7626,26.2879,-26.2869,28.2346,1.9472,12.657,-2.9206,-18.4982,12.2612,-9.736,-3.8939,
-1.9472,5.8416,-4.8682,21.4192,25.3136,-19.4724,29.208,16.5514,19.4715,-9.736,-5.8416,1.9472,-20.4458,-8.7626,
-12.1699,4.3811,-4.3811,13.1432,20.933,-25.8007,23.8531,20.933,21.9063,-11.1965,-9.2488,12.1699,-21.9063,-13.1432,
-12.1699,12.1699,1.4601,-1.4601,16.0643,-27.7475,28.7218,17.0386,17.0386,-11.1965,-11.1965,15.0909,-12.1699,-12.1699,
-0.48668,12.1699,4.3811,0.48668,19.9587,-16.0643,33.5895,21.9063,8.2755,-22.8797,-8.2755,0.090903,-10.2231,-19.9587,
1.9472,0.97383,-0.97383,2.9206,27.2612,-8.7626,36.0234,30.1823,4.8682,-27.2612,-13.6304,-14.6038,-16.5514,-29.208,
-13.0528,-0.97337,0.97337,0.97337,18.4986,-10.7098,26.2874,36.9972,15.5776,-14.6042,-23.3664,0.39624,-16.551,-27.2608,
-28.0528,0.97337,1.9467,-0.97337,7.7888,-24.3407,14.6042,36.0229,19.472,-11.6832,-25.314,4.8678,-25.314,-31.1552,
-40.8916,1.9467,0,0.97337,17.5243,-26.2874,15.5776,36.0229,28.2341,-7.7888,-16.5519,0,-27.2608,-31.1552,
-37.4844,1.4605,1.4605,-1.4605,18.9848,-19.9591,14.1171,40.4045,32.6157,-5.3549,-14.118,3.4073,-17.0381,-24.8269,
-40.4045,2.4339,2.4339,-0.48715,13.1437,-22.8802,14.1171,38.4577,18.0115,-8.2759,-13.1437,0.48715,-10.2227,-28.7213,
-29.2084,1.9467,0,0,21.4187,-24.3407,28.2341,33.1028,12.6566,-4.8678,-4.8678,0,0,-34.0762,
-24.3407,-0.9743,0,0,23.3664,-10.7098,32.1285,41.865,23.3664,-3.8944,-2.921,3.8944,2.9201,-19.4729,
-27.7479,7.3026,-2.4339,2.4339,11.197,-2.4339,20.9325,56.865,16.0647,-11.196,-13.1437,3.4082,-4.3806,-5.3549,
-15.5781,16.5505,-1.9472,1.9472,18.4982,-5.8416,23.3659,58.4164,3.8939,-11.6837,-23.3668,1.9472,-9.736,-4.8682,
-7.3021,7.3021,4.3811,9.2488,26.7741,-11.1965,23.8531,49.1671,-0.48668,-11.1965,-30.6685,0.48668,-18.0119,-9.2488,
-15.0909,8.2755,7.3021,13.1442,11.7741,-13.1432,16.0652,50.1405,-3.4077,-17.0376,-31.6419,3.4077,-33.0119,-9.2488,
-20.933,15.0909,1.4601,3.4077,0.48668,-19.9587,18.9853,50.1405,-0.48668,-22.8797,-19.9587,1.4601,-31.6428,-8.2755,
-25.314,6.8145,-3.8944,4.8678,11.6832,-31.1561,22.393,35.1405,13.6299,-21.4196,-5.8421,3.8944,-16.6428,-6.8154,
-35.05,-0.97383,-5.8416,9.736,9.736,-29.208,10.7094,23.3668,25.3136,-11.6837,0.97383,17.5248,-17.5248,-3.8949,
-38.4577,3.4072,-4.3815,-1.4605,7.3016,-16.0647,6.3283,38.3668,26.7746,-7.3016,-2.4339,21.9059,-29.6947,1.4605,
-38.4573,2.4343,-7.3021,-9.2488,11.1965,-16.0643,10.2231,52.0881,22.8797,-8.2755,-2.4343,6.9059,-28.7218,2.4343,
-43.8122,0.97383,-8.7626,0.97383,11.6827,-21.4192,7.7883,40.8912,20.4458,-1.9472,4.8682,-2.9206,-25.3136,-0.97383,
-54.522,0.97337,-8.7622,-0.97337,8.7622,-25.314,9.7355,28.2341,11.6832,-2.921,1.9467,2.921,-32.1295,-1.9477,
-54.0349,2.4339,-2.4339,-3.4072,7.3026,-29.6947,17.0381,30.669,4.3815,-6.3283,-5.3549,5.3549,-26.7736,2.4339,
-39.9173,3.8944,2.921,0,10.7098,-33.1028,18.4986,28.2351,0,-3.8944,-13.6309,2.921,-11.7736,0,
-31.6419,0.48668,3.4077,-2.4343,15.0909,-27.7475,20.932,28.7218,0.48668,-7.3021,-11.1965,-0.48668,-2.4343,2.4343,
-42.8388,-3.8949,1.9472,-1.9472,12.6561,-26.2879,26.2869,33.1024,3.8939,-21.4201,-2.9215,-1.9472,1.9472,4.8673,
-49.6543,0,-0.97337,1.9467,12.6566,-31.1552,21.4187,31.1552,-1.9477,-24.3407,-3.8944,0,3.8944,2.921,
-41.3783,1.4601,-2.4343,-0.48668,14.1166,-21.9063,19.9587,38.4573,-6.3287,-17.0386,-6.3287,2.4334,0.48668,13.1432,
-32.129,1.9472,-0.97383,-4.8682,16.5514,-6.9063,28.2346,53.4573,5.8416,-12.657,-0.97383,-0.97383,0.97383,28.1432,
-36.0229,0.97337,-6.8154,-8.7622,15.5776,-4.8678,21.4196,61.337,10.7098,-13.6299,-0.97337,-5.8411,4.8678,25.314,
-40.4049,-1.4601,-11.1965,-9.2488,13.1432,-10.2231,13.1432,55.0082,1.4601,-9.2488,-4.3811,8.2755,4.3811,19.9587,
-34.5629,-2.4343,-1.4601,-2.4343,9.2488,-8.2755,22.8797,56.9559,2.4343,-3.4077,-0.48668,20.932,0.48668,22.8797,
-35.5367,-5.3549,-7.3016,-10.2227,7.3016,-6.3283,21.9059,58.9031,7.3016,-9.2493,-0.48715,5.932,0.48715,13.1437,
-44.2989,1.4605,-19.9591,-16.0647,13.1437,-7.3016,12.1703,59.8765,4.3815,-7.3016,1.4605,-4.3815,3.4073,-1.4605,
-50.1409,1.4601,-17.0386,-14.1175,6.3287,-9.2488,12.1699,58.9026,-0.48668,-4.3811,3.4077,0.48668,0.48668,-8.2755,
-46.2465,-0.48715,-2.4339,-13.1437,3.4072,-8.2759,22.8792,62.7975,7.3016,-1.4605,7.3016,0.48715,2.4339,-1.4605,
-48.6804,1.9477,0,-21.4196,9.7365,-14.6042,18.4986,61.337,10.7098,-5.8411,0,-6.8154,1.9477,0,
-41.865,3.8944,-3.8944,-21.4196,13.6309,-11.6832,20.4454,59.3902,11.6832,-1.9467,0.97337,-1.9467,3.8944,-0.97337,
-28.2341,-1.9467,-0.97337,-15.5776,9.7365,0,27.2608,66.2047,17.5252,0,7.7888,-2.921,7.7888,-5.8411,
-33.1024,3.8939,-2.9206,-14.6038,5.8416,-1.9472,21.4192,66.2052,18.4982,-12.657,1.9472,-3.8949,7.7883,-5.8416,
-33.1028,9.7355,-9.7365,-16.551,10.7098,-13.6309,21.4196,52.5748,11.6832,-16.551,-9.7365,0.97337,-0.97337,7.7888,
-18.1028,0.97337,-0.97337,-13.6309,14.6042,-9.7365,25.314,53.5482,9.7355,-7.7888,-11.6832,8.7622,-5.8421,16.551,
-15.578,-2.9206,2.9206,-15.578,0.97383,-0.97383,10.7094,68.1519,6.815,-14.6038,-10.7094,10.7094,-0.97383,14.6038,
-10.2231,2.4343,-0.48668,-19.9587,-10.2231,-2.4343,6.3287,78.3755,0.48668,-21.9063,-11.1965,3.4077,0.48668,25.8007,
0.48668,6.3287,-3.4077,-19.9587,-7.3021,0.48668,14.1175,90.0587,-1.4601,-7.3021,-3.4077,2.4343,-0.48668,37.4839,
-14.5133,-1.9472,-16.5514,-21.4192,-6.8159,0.97383,7.7883,86.6506,-0.97383,-7.7893,4.8682,1.9472,0.97383,22.4839,
-25.3136,0.97383,-11.6827,-17.5248,-7.7883,-1.9472,10.7103,74.9674,11.6837,-16.5514,6.8159,-0.97383,10.7103,8.7626,
-19.9587,4.3811,-0.48668,-10.2222,-0.48668,-4.3811,14.1175,77.4022,17.0386,-10.2222,0.48668,-7.3021,9.2498,16.0652,
-29.2084,-0.97337,-2.921,-9.7365,5.8411,-1.9477,13.6299,86.651,17.5243,0.97337,-4.8678,-4.8678,0.97337,10.7098,
-36.0239,1.9467,-8.7622,-18.4986,-1.9477,0,15.5776,87.6244,22.393,0,3.8944,-3.8944,0.97337,-4.2902,
-27.2612,11.6827,-2.9206,-24.3402,-0.97383,0.97383,11.6827,90.545,22.3926,-2.9206,12.657,-16.5514,6.815,-16.5514,
-30.6685,2.4343,-4.3811,-28.7218,2.4343,0.48668,10.2231,89.0844,18.0119,-3.4077,1.4601,-18.9853,-0.48668,-15.0909,
-20.9325,1.4605,-3.4082,-28.7213,6.3283,6.3283,25.2231,86.1639,22.8792,2.4339,-3.4082,-3.9853,-3.4082,-2.4339,
-5.9325,16.4605,5.8416,-29.2089,4.8673,1.9472,29.208,83.7295,16.5505,-1.9472,-1.9472,-4.8682,-2.9215,-1.9472,
-3.4072,22.8802,1.4605,-25.8003,-4.3815,3.4072,16.0647,95.9003,9.2493,-3.4072,-3.4072,-3.4072,-1.4605,8.2759,
-18.4072,12.657,-13.5395,-30.1823,-11.6837,11.6827,1.0647,109.0436,15.5771,-0.97383,-11.6837,10.7094,-7.7893,21.4192,
-24.8269,14.1171,-5.3549,-28.7213,-5.3549,17.0381,-2.4339,114.399,21.9059,-1.4605,1.4605,7.3016,-8.2759,20.9325,
-22.8797,12.1708,-0.48668,-22.8797,-12.1699,13.1442,0.48668,103.6896,11.1965,-12.1699,10.2231,-7.6984,-8.2755,9.2498,
-16.5514,13.6304,-0.97383,-11.6837,-10.7094,14.6038,4.8682,103.2024,13.6304,-9.736,0.97383,-7.7893,-4.8682,6.815,
-10.7089,24.3407,11.6832,-6.8145,0,17.5252,-0.97337,111.9651,24.3407,-1.9467,-4.8678,0,-2.9201,5.8421,
-4.8678,27.2608,14.6042,-6.8154,-4.8678,21.4196,-0.97337,114.8852,25.314,0,0,-3.8944,-1.9467,13.6309,
-7.7888,22.393,0.97337,-11.6832,-4.8678,24.3397,2.921,111.9641,20.4454,-5.8421,-1.9477,-0.97337,-6.8154,15.5776,
-15.5776,18.4986,-0.97337,-21.4196,-0.97337,17.5252,0.97337,106.123,18.4986,-13.6309,-5.8421,3.8944,-8.7622,7.7888,
-9.7365,11.6832,2.921,-27.2608,-11.6832,10.7098,1.9477,97.3608,13.6309,-23.3664,-1.9477,-7.7888,-3.8944,8.7622,
-0.48668,4.3811,-4.3811,-30.6685,-15.0909,8.2755,3.4077,92.9798,4.3811,-31.6419,-1.4601,-22.7888,0.48668,5.3554,
-2.9206,4.8682,-7.7893,-33.1024,-4.8682,7.7893,-1.9472,102.2281,6.815,-30.1813,1.9472,-22.3925,8.7626,3.8949,
-17.9206,6.8154,-6.8154,-42.8393,-4.8687,11.6832,-3.8944,99.3076,8.7622,-23.3664,3.8944,-19.472,9.7355,5.8411,
-23.8531,6.3287,-9.2488,-48.1937,-12.1699,12.1699,0.48668,85.191,10.2231,-15.0909,8.2755,-18.9853,3.4077,-0.48668,
-17.0386,9.2488,-7.3021,-44.2993,-6.3287,1.4601,0.48668,87.1377,24.8264,-9.2498,18.9853,-7.3021,2.4334,-0.48668,
-14.6042,10.7098,-6.8154,-36.9972,0,0,-5.8411,102.1377,29.2084,-1.9467,20.4463,3.8944,0,10.7098,
-6.8154,7.7888,-5.8421,-26.2874,-6.8154,6.8154,0,99.3076,15.5776,0,12.6566,0,-10.7098,12.6566,
2.921,2.921,-2.921,-24.3397,-12.6566,-6.8154,4.8678,84.3076,7.7888,-7.7888,8.7622,-7.7888,-17.5252,2.921,
6.815,3.8939,-0.97383,-28.2346,-13.6304,-21.8154,-1.9472,69.3076,4.8682,-11.6837,11.6827,0.97383,-18.4991,5.8416,
6.815,0.97383,1.9472,-25.3136,-10.7103,-29.208,-3.8949,54.3076,1.9472,-12.657,9.736,-0.97383,-24.3402,7.7883,
-0.48668,0.48668,9.2488,-13.1432,0.48668,-33.5895,4.3811,39.3076,11.1965,-14.1175,16.0643,-12.1699,-17.0376,-3.4077,
-5.8421,8.7622,8.7622,-12.6566,4.8678,-38.944,6.8154,24.3076,9.7355,-16.551,23.3664,-15.5776,-11.6832,-4.8678,
1.9472,5.8425,3.8949,-23.3659,-1.9472,-44.7856,6.8159,9.3076,-5.2645,-23.3659,19.4724,-14.6038,-17.5248,1.9472,
12.1708,-0.48668,5.3554,-23.8531,4.3811,-47.2194,12.1708,0.48668,-14.1166,-23.8531,19.9596,-16.0643,-13.1432,2.4343,
9.2498,-0.48668,9.2498,-18.011,14.1175,-49.1671,16.0652,9.2498,-17.0376,-23.8531,17.0386,-19.9587,-13.1432,0.48668,
12.1703,2.4339,11.197,-17.0381,6.3283,-51.1143,14.1171,12.1703,-13.1437,-30.668,17.0381,-25.8003,-24.8269,-2.4339,
6.3292,3.4082,3.4082,-19.9582,3.4082,-54.0344,5.3549,-1.4605,1.4605,-23.8526,31.6423,-28.7213,-29.6947,-3.4072,
-8.6708,4.8678,-8.7631,-18.4986,14.6042,-48.6804,0,0,1.9467,-8.8526,41.865,-13.7213,-28.2351,2.9201,
-22.3925,3.8949,-11.6827,-20.4449,5.8425,-48.68,-1.9472,1.9472,-9.736,6.1474,30.1823,1.2787,-32.1281,11.6837,
-12.657,0.97383,-0.97383,-23.3659,5.8416,-52.5744,7.7893,-13.0528,-6.815,2.9215,33.1024,6.8159,-23.3659,12.657,
-5.8416,-0.97383,1.9472,-21.4192,13.6304,-53.5477,16.5514,-28.0528,-6.815,9.736,36.9968,0.97383,-10.7094,8.7626,
-6.3283,1.4605,-1.4605,-19.9591,6.3283,-53.061,8.2759,-16.0647,-17.0381,8.2759,21.9968,5.3549,-13.1437,12.1703,
-1.4605,5.3549,3.4082,-18.9848,1.4605,-47.2199,5.3549,-5.3549,-20.9325,3.4082,6.9968,-0.48715,-22.8792,0.48715,
6.815,11.6837,4.8682,-9.736,4.8682,-32.2199,15.5781,-1.9472,-17.5248,1.9472,8.7626,-15.4871,-16.5514,-14.5129,
9.736,16.5514,1.9472,-12.657,11.6837,-22.3926,20.4458,8.7626,-11.6837,-8.7626,13.6304,-24.3402,-1.9472,-13.6304,
8.2759,9.2493,-0.48715,-21.9059,4.3815,-30.668,17.0381,4.3815,-17.0381,-14.1171,10.2227,-19.9591,-9.2493,0.48715,
9.2493,7.3026,4.3815,-7.3016,2.4339,-28.7213,17.0381,-2.4339,-20.9325,-5.3549,10.2227,-21.9059,-19.9591,8.2759,
5.3544,4.3811,3.4077,-3.4077,1.4601,-26.7741,12.1699,5.3544,-25.8007,-20.3549,3.4077,-33.5895,-21.9063,-1.4601,
17.5248,13.6304,7.7883,-6.8159,0.97383,-27.2612,21.4192,20.3544,-27.2612,-33.1024,3.8939,-29.208,-12.657,-0.97383,
31.1556,16.5514,11.6837,-6.815,1.9472,-25.3136,34.0757,13.6304,-29.208,-25.3136,4.8682,-23.3668,-4.8682,-1.9472,
16.1556,5.3549,6.3292,-17.0381,5.3549,-24.8269,28.7213,-1.3696,-24.8269,-18.0115,5.3549,-20.9325,1.4605,-4.3806,
1.1556,0.48668,3.4077,-32.0381,4.3811,-26.7741,16.0643,-0.48668,-9.8269,-4.3811,13.1442,-6.3287,4.3811,3.4077,
-13.8444,-0.48668,0.48668,-35.5372,2.4334,-24.8274,13.1432,5.3544,-5.3554,4.3811,12.1699,-4.3811,-4.3811,7.3021,
-22.8792,2.4339,-1.4605,-25.8003,17.0381,-16.0647,18.0115,11.196,-9.2493,1.4605,14.1171,-8.2759,-5.3549,7.3016,
-26.7741,0.48668,-3.4077,-25.8007,17.0376,-16.0652,24.8264,18.9853,-3.4077,6.3278,25.8007,-3.4077,6.3278,-0.48668,
-34.5634,-3.4073,-0.48715,-32.6157,8.2759,-18.9858,27.7479,18.0115,0.48715,10.2227,18.0115,-1.4605,5.3549,-1.4605,
-28.7218,3.4077,7.3021,-27.7484,14.1166,-9.2498,18.9853,16.0643,-9.2498,0.48668,3.0115,-5.3554,-7.3021,9.2488,
-13.7218,18.4077,11.1965,-12.7484,10.2222,-5.3554,11.1965,31.0643,-12.1699,4.3811,-7.3021,-4.3811,-11.1965,19.9587,
-9.2493,22.8802,14.1171,-8.2759,3.4072,-11.196,13.1437,42.3521,-8.2759,18.0115,-6.3283,-3.4072,-10.2227,13.1437,
-14.1175,12.1699,9.2488,-13.1432,1.4601,-11.1965,10.2231,30.6685,-9.2488,11.1965,4.3811,-6.3287,-9.2488,-1.4601,
-5.8421,20.4454,8.7622,-6.8154,7.7888,-3.8944,12.6566,25.314,0,0,15.5776,-2.921,-0.97337,0,
-10.2227,20.9325,9.2493,-8.2759,3.4072,-9.2493,9.2493,29.6947,-1.4605,-3.4082,9.2493,-7.3026,-8.2759,1.4605,
-17.0386,9.2488,9.2488,-14.1175,0.48668,-4.3811,1.4601,35.5363,-5.3554,-0.48668,10.2222,-6.3287,-11.1965,2.4334,
-18.9853,4.3811,10.2231,-23.8531,4.3811,-1.4601,-2.4334,29.6951,-0.48668,0.48668,23.854,-0.48668,-3.4077,7.3021,
-29.2084,-0.97337,2.921,-36.9972,2.921,-16.4601,0,22.393,0,-1.9467,26.2874,-3.8944,0,1.9477,
-29.6947,-2.4339,3.4073,-30.669,9.2493,-16.0647,14.1171,24.8269,-0.48715,0.48715,15.0904,-1.4605,0.48715,-4.3815,
-22.393,0,4.8687,-16.551,9.7365,-5.8411,16.5519,24.3407,-1.9467,9.7365,5.8421,0,-6.8145,0,
-22.8792,-1.4605,1.4605,-21.9059,7.3016,-18.9848,15.0914,16.0647,-7.3016,14.1171,11.196,-4.3815,-13.1437,9.2493,
-26.2869,-4.8682,5.8416,-28.2346,16.5514,-32.129,24.3402,10.7094,-2.9206,9.736,18.4982,-2.9206,-2.9206,2.9206,
-32.1285,0,10.7098,-20.4454,13.6309,-36.0229,16.5519,9.7365,0,0,6.8154,-3.8944,-0.97337,-8.7622,
-25.3136,15,18.4982,-5.8416,2.9206,-27.2612,6.815,16.5514,-7.7893,-2.9206,11.6827,-7.7893,-8.7626,5.8416,
-14.1166,18.0119,14.1175,-10.2222,0.48668,-15.0909,10.2231,21.9063,-20.932,-4.3811,12.1708,-11.1965,-0.48668,18.9853,
-11.1965,11.1965,15.0909,-14.1175,10.2231,-12.1699,20.933,18.0119,-18.0119,-2.4343,-2.8292,-9.2488,12.1699,3.9853,
-1.9472,10.7094,19.4724,0.88247,5.8416,-17.5248,18.4982,13.6304,-13.6304,-3.8949,-0.97383,-10.7094,1.9472,-11.0147,
4.8678,11.6832,13.6309,3.8944,-4.8678,-18.4986,11.6832,20.4454,-22.393,-3.8944,3.8944,-18.4986,-13.0528,-6.8154,
-2.4339,11.197,14.118,-7.3016,2.4339,-16.0638,12.1703,35.4454,-23.8526,5.3549,-11.1056,-20.9325,-12.1694,8.1846,
-9.2488,11.1965,10.2231,-14.1166,0.48668,-8.2755,9.2498,42.3517,-22.8797,0.48668,-12.1699,-8.2755,-0.48668,5.3554,
-9.2498,10.2231,5.3544,-13.1442,0.48668,-0.48668,12.1699,30.6685,-19.9587,-14.5133,2.8301,-2.4343,3.4077,-0.48668,
-16.0638,5.3549,7.3026,-18.9848,10.2236,-11.196,15.0914,21.9068,-17.0381,-18.9848,1.4605,-17.4343,2.4348,-1.4605,
-23.8535,4.3815,-0.48715,-25.8003,0.48715,-18.0115,9.2493,27.7479,-16.0647,-7.3016,1.4605,-21.9059,6.3283,3.4082,
-33.1028,-0.97337,-15.4871,-25.314,-11.6832,-15.5776,0.97337,20.4454,-15.5776,2.921,11.6832,-6.9059,1.9467,4.8678,
-44.2989,-1.4605,-8.275,-21.9059,-1.4605,-8.275,3.4082,18.0124,-0.57759,10.2236,10.2236,8.0941,-7.3016,12.1703,
-41.3779,-3.4073,-1.4605,-26.7736,-10.2227,-2.4339,3.4082,28.7213,3.4082,1.4605,2.4339,2.4339,-18.0115,18.0115,
-27.2608,0,-4.8687,-27.2608,-19.472,0.97337,1.9467,31.1552,-11.5918,0,4.8678,0,-22.393,13.6299,
-21.9059,6.3283,2.4339,-22.8802,-9.2493,-2.4339,5.3549,19.9591,-18.0115,2.4339,3.4073,-2.4339,-20.9325,4.3815,
-14.1166,6.3287,17.4339,-15.0909,-0.48668,0.48668,14.1175,21.9063,-12.1699,-5.3544,8.2755,-11.1965,-8.2755,5.3554,
-5.8421,3.8944,18.4986,-10.7098,0,0.97337,17.5243,25.3131,-10.7098,-12.6575,5.8411,-15.5776,0,0,
-1.4601,15.0909,22.8797,0.48668,10.2231,-0.48668,23.854,36.5105,-5.3544,-0.48668,-3.4077,-8.2755,3.4077,-8.2755,
-11.196,19.9591,27.7479,-2.4339,10.2227,-8.275,20.9325,47.2199,-6.3283,2.4339,-7.3016,-10.2227,4.3815,-13.1437,
-16.0647,18.9858,15.0904,-10.2227,0.48715,-3.4073,19.9591,46.2465,-7.3016,-0.48715,4.3815,-10.2227,14.1171,-10.2227,
-12.6566,12.6566,0.97337,-8.7622,0,10.7098,21.4196,35.0496,-5.8421,-0.97337,0,-6.8154,12.6566,-14.6042,
-6.3287,10.2231,13.1432,-7.3021,11.1965,21.9063,22.8797,42.3517,-1.4601,-0.48668,-11.1965,-6.3287,0.48668,-10.2231,
-8.2759,14.1171,23.8535,-11.196,10.2227,22.8802,24.8269,53.061,-0.48715,0.48715,-8.2759,-5.3549,-12.1703,-3.4072,
-2.4343,21.9063,22.8797,-8.2755,7.3021,22.8797,26.7741,52.0881,-4.3811,2.4343,-5.3544,-2.4343,-16.0643,-3.4077,
12.5657,20.4463,23.3664,-5.8411,3.8944,20.4463,18.4986,51.6015,-13.6299,-5.8411,-12.6566,-3.8944,-17.5243,-4.8678,
25.8007,15.0909,25.8007,-10.2231,-0.48668,18.9853,15.0909,55.9825,-14.1175,-10.2231,-14.1175,-10.2231,-14.1175,0.48668,
12.1703,17.0381,20.9325,-11.196,-3.4072,21.9068,18.9858,56.9564,-11.196,-2.4339,-8.275,-14.1171,-14.1171,2.4339,
-2.8297,18.9853,12.1699,-11.1965,2.4343,26.7741,17.0376,48.1937,-8.2755,4.3811,-2.4343,-11.1965,-14.1175,-7.3021,
-9.7365,11.6832,13.6299,-12.6575,8.7622,29.2075,17.5243,35.0496,-3.8944,3.8944,-9.7365,-10.7098,-5.8421,-18.4986,
-0.48715,10.2227,24.8269,-4.3815,0.48715,31.6423,25.8003,40.4045,-2.4339,3.4072,-16.0647,-9.2493,-1.4605,-11.197,
1.4605,19.9591,28.7213,-4.3806,-2.4339,33.59,32.6157,55.4045,-3.4072,3.4082,-4.3806,-2.4339,-1.4605,-2.4339,
-6.3283,18.9848,18.0115,-17.0381,5.3549,30.669,28.7213,57.9297,-1.4605,-0.48715,0.48715,-14.1171,-2.4339,-16.0647,
-3.4073,13.1437,18.0115,-13.1437,11.196,33.5891,27.7479,53.061,-1.4605,-2.4339,-7.3016,-25.8003,1.4605,-27.7479,
-5.3549,16.0647,22.8802,-8.275,7.3026,38.4577,28.7213,57.9297,-11.196,-2.4339,-9.2493,-17.0381,2.4339,-22.8792,
-5.3549,21.9059,21.9059,-13.1437,3.4072,37.4835,24.8269,57.9288,-12.1703,2.4339,-5.3549,-3.4082,-2.4339,-11.197,
5.3549,14.1171,19.9591,-25.8003,0.48715,24.8269,13.1437,43.3255,-15.0904,-0.48715,-20.3549,-11.196,-12.1703,-13.1437,
18.0119,18.0119,22.8797,-24.8264,4.3811,34.5629,15.0909,44.2993,-18.011,-4.3811,-30.6685,-12.1699,-11.1965,-15.0909,
10.2227,25.8003,21.9059,-13.1437,2.4339,49.5629,18.0115,58.9031,-20.9325,-2.4339,-27.7479,-5.3549,-4.3815,-10.2227,
-0.48668,18.9853,19.9587,-16.0643,0.48668,48.1937,14.1175,59.8769,-23.8531,-4.3811,-26.7741,-11.1965,0.48668,-4.3811,
-2.9206,12.657,21.4192,-31.0643,6.815,42.8388,19.4715,52.5744,-10.7094,-4.8682,-15.5781,-19.4724,2.9206,-6.815,
-7.3026,14.1171,21.9059,-28.7213,2.4339,50.14,16.0638,59.8765,-1.4605,-2.4339,-2.4339,-14.1171,1.4605,-7.3026,
1.4605,17.0381,18.9858,-13.7213,-8.2759,50.1409,7.3016,73.5073,-10.2227,-8.2759,-13.1437,-11.196,4.3815,-1.4605,
11.197,18.9858,15.0914,-12.1694,-6.3283,45.2732,7.3026,71.5606,-18.9848,-16.0638,-28.1437,-17.0381,2.4339,-2.4339,
0.97337,20.4454,19.472,-18.4986,-0.97337,50.6272,11.6832,72.0468,-12.6566,-11.6832,-26.2874,-16.551,-9.7365,3.8944,
0.48715,23.8535,28.7213,-16.0647,-7.3016,57.9297,19.9591,81.2961,-1.4605,-0.48715,-11.2874,-1.551,-6.3283,17.0381,
-2.4343,16.0643,14.1175,-25.8007,-10.2231,51.1138,9.2488,70.5868,-0.48668,-4.3811,0.48668,-1.4601,-0.48668,4.3811,
-8.7622,20.4454,6.8154,-29.2084,1.9477,51.6015,7.7888,56.4692,-0.97337,-2.921,-3.8944,-5.8411,0.97337,-5.8411,
-11.6832,26.2874,18.4986,-26.2874,2.921,55.4959,10.7098,61.337,-2.9201,0,-6.8145,-4.8678,0,-3.8944,
-2.9206,23.3668,30.1823,-22.3925,0.97383,61.3374,8.7626,73.994,-5.8416,-0.97383,-1.9472,-7.7883,7.7893,-1.9472,
0.48668,18.9853,25.8007,-22.8797,-0.48668,54.0349,6.3287,58.994,-16.0643,-5.3544,-0.48668,-8.2755,8.2755,-2.4343,
0,25.314,22.393,-25.314,-1.9477,40.8916,18.4986,43.994,-19.472,-1.9477,0,-2.921,4.8678,-0.97337,
-3.8944,16.551,23.3664,-29.2084,0,26.2874,25.3131,28.994,-23.3664,0.97337,-1.9477,-17.921,0,-15.9734,
0.48668,5.3554,20.933,-27.7475,6.3287,12.1699,20.933,13.994,-27.7475,-3.4077,-0.48668,-28.7208,-2.4334,-28.7208,
8.2755,11.1965,25.8007,-23.8531,13.1442,7.3021,27.7484,-1.006,-17.0376,-2.4334,0.48668,-13.7208,-0.48668,-13.7208,
7.3021,10.2231,27.7484,-23.8531,10.2231,2.4343,26.7741,-16.006,-8.2755,-0.48668,-5.3544,0.48668,-4.3811,-5.3544,
10.7094,1.9472,30.1813,-15.5781,15.5771,-1.9472,24.3402,-31.006,-3.8949,3.8939,8.7626,-7.7893,-5.8416,-5.8416,
8.7631,0,32.1295,-10.7089,24.3407,-7.7888,22.393,-46.006,0,0,23.7626,-9.7355,-14.6042,-1.9467,
6.3283,6.3283,22.8792,-17.0381,18.0115,-10.2227,18.0115,-61.006,-1.4605,1.4605,23.8535,-8.2759,-29.6042,-8.2759,
8.2759,4.3815,12.1703,-14.1171,8.2759,-20.9325,12.1703,-69.6129,-4.3815,8.2759,15.0914,-8.2759,-44.6042,-13.1437,
-2.4343,0.48668,18.9853,-0.48668,14.1175,-31.6419,9.2488,-72.5335,5.3544,2.4343,22.8797,-7.3021,-29.6042,-10.2231,
-17.0376,0.48668,23.8531,-2.4334,21.9063,-27.7475,13.1442,-80.3223,9.2498,1.461,29.6951,-14.1175,-14.6042,-15.0909,
-14.6038,11.6837,23.3668,-2.9206,32.129,-15.5781,27.2612,-81.7828,0.97383,16.461,26.2869,-15.5781,-0.97383,-21.4192,
-15.5776,3.8944,15.5776,-3.8944,20.4454,-27.2608,24.3397,-88.5982,-14.0262,9.7365,11.2869,-22.393,14.0262,-27.2608,
-2.9201,0,30.5776,7.7888,15.5776,-28.2341,24.3407,-86.6506,-24.3397,0,2.921,-18.4986,29.0262,-19.472,
4.3811,11.1965,36.5105,5.3544,16.0643,-14.1175,30.6685,-88.1115,-31.6419,-4.3811,-6.3287,-21.9063,44.0262,-25.8007,
12.1699,23.8531,30.6685,-0.48668,26.7741,-1.461,45.6685,-85.1905,-35.5372,0.48668,-9.2498,-24.8274,59.0262,-18.9853,
19.472,13.6309,31.1552,0,33.1028,-2.921,47.7071,-87.6244,-35.0496,0,-2.921,-24.3397,74.0262,-3.9853,
11.6832,6.8145,33.1019,0,24.3397,-4.8687,32.7071,-91.5193,-36.9972,-0.9743,0,-21.4196,89.0262,0,
-0.48668,21.8145,28.7218,0.48668,12.1699,0.48668,27.7484,-82.2695,-28.7208,-1.4601,-0.48668,-16.0643,104.0262,-5.3544,
7.7888,28.2351,31.1552,0,7.7888,-0.97337,27.2608,-70.0996,-13.7208,0,-3.8944,-11.6832,119.0262,-1.9467,
22.7888,18.0115,39.4311,-1.4605,5.3549,-6.3283,18.0115,-64.7447,-8.275,-2.4339,-4.3806,-5.3549,134.0262,1.4605,
24.3407,12.6566,29.2084,-6.8154,0.97337,-0.97337,13.6309,-72.0468,-10.7098,-9.7355,0.97337,-7.7888,149.0262,-9.7355,
11.6832,8.7622,14.2084,-16.551,-4.8678,3.8944,6.8154,-79.8356,-15.5776,-3.8944,6.8154,-19.472,164.0262,-17.5252,
-3.3168,3.8944,10.7098,-19.472,-5.8421,3.8944,8.7622,-75.9412,-19.472,6.8154,4.8678,-20.4454,179.0262,-7.7888,
-11.6832,5.8421,12.6566,-11.6832,2.921,3.8944,17.5252,-68.1524,-22.393,0,0,-8.7622,194.0262,0,
-7.7888,8.7622,16.551,-2.921,14.6042,7.7888,24.3397,-62.3108,-21.4196,-2.921,2.921,-3.8944,209.0262,-2.921,
-1.9477,3.8944,21.4187,-14.6042,19.472,3.8944,28.2341,-67.179,-26.2874,-0.97337,0.97337,-16.5519,224.0262,-9.7365,
2.4339,2.4339,25.8012,-23.8535,22.8802,8.2759,32.6157,-63.7709,-34.5624,-2.4339,-3.4072,-27.7479,209.0262,-10.2227,
5.8416,16.5514,25.3136,-12.657,19.4724,23.2759,30.1823,-48.7709,-36.9968,-9.736,-15.5781,-30.1813,194.0262,-5.8416,
4.8678,23.3664,17.5243,-5.8421,12.6566,29.2084,26.2874,-33.7709,-36.9972,-21.4196,-30.5781,-33.1028,179.0262,-4.8678,
7.3021,19.9587,12.1699,-7.3021,11.1965,23.8531,29.6951,-36.5106,-35.5363,-23.8531,-38.4573,-35.5363,166.9733,-9.2488,
11.6832,18.4986,22.393,-15.5776,10.7098,26.2874,27.2608,-48.6804,-30.1818,-10.7098,-32.1285,-37.9706,151.9733,-20.4454,
2.9206,17.5248,32.129,-19.4724,2.9206,29.208,26.2879,-44.7856,-15.1818,-2.9206,-17.5248,-26.2869,136.9733,-22.3926,
-2.4339,11.196,25.8003,-7.3026,2.4339,25.8003,23.8526,-32.6157,-0.18181,-4.3815,-3.4082,-11.2869,121.9733,-11.197,
-1.9477,8.7622,16.551,0,5.8411,26.2874,14.6042,-34.0762,0,-4.8678,-2.921,-12.6566,106.9733,-7.7888,
1.4605,22.8802,20.9325,-6.3283,4.3815,32.6157,15.0914,-34.5624,-6.3283,-3.4072,-1.4605,-23.8535,91.9733,-7.3016,
11.6837,29.2089,25.3145,-8.7617,-1.9472,32.129,24.3402,-28.2346,-6.815,-5.8416,1.9472,-14.6038,82.7571,-6.815,
19.472,18.4986,25.314,0,0,23.3664,25.314,-27.2608,-13.6309,-11.6832,-4.8678,-9.7365,78.8622,-7.7888,
13.1437,11.196,23.8535,-6.3283,2.4339,19.9591,15.0904,-36.5101,-28.6309,-12.1703,-15.0914,-17.0381,69.6129,-2.4339,
9.2498,12.1708,19.9596,-16.0643,0.48668,18.9853,17.0386,-43.325,-40.404,-13.1432,-17.0376,-18.011,55.9825,-0.48668,
11.6837,12.657,14.6038,-3.8949,0.97383,16.5514,25.3136,-42.8388,-38.9444,-18.4982,-16.5514,-15.5781,45.7589,-0.97383,
4.3811,8.2755,11.1965,-3.4077,-0.48668,8.2755,18.9853,-50.1405,-41.3783,-25.8007,-17.0386,-20.933,30.7589,0.48668,
2.4339,6.3283,13.1437,-8.2759,-2.4339,8.2759,8.2759,-54.0353,-45.2722,-22.8792,-18.0115,-21.9059,15.7589,8.2759,
12.1703,8.2759,13.1437,-1.4605,1.4605,18.9858,12.1703,-42.3521,-40.4045,-18.0115,-17.0381,-18.0115,0.75893,6.3283,
19.9587,18.0119,19.9587,3.4077,16.0643,16.0643,27.1703,-40.4049,-33.5895,-12.1699,-14.1175,-9.2498,-14.2411,-3.4077,
25.8003,27.7479,33.5891,-0.48715,23.8535,13.1437,35.5367,-55.4049,-29.6947,0.48715,-3.4072,-0.48715,-22.8802,-4.3815,
21.9063,18.9853,24.8274,-9.2488,12.1699,14.1175,25.8007,-62.7975,-26.7741,-5.3544,-6.3287,-0.48668,-37.8802,0.48668,
6.9063,5.3544,9.8274,-14.1175,-0.48668,12.1699,11.1965,-51.1148,-23.8531,-13.1442,-18.9853,0.48668,-52.0881,7.3021,
-8.0937,7.7888,3.8944,-10.7098,-3.8944,14.6042,6.8154,-44.786,-14.6042,1.8558,-11.6832,11.6832,-60.3636,16.551,
-11.6837,7.7883,13.6304,-5.8416,-4.8682,11.6827,4.8682,-48.68,-5.8416,10.7094,-5.8416,16.5514,-75.3636,16.5514,
3.3163,8.2759,17.0381,-11.196,-6.3283,11.197,7.3016,-46.2465,-8.2759,-3.4073,-15.0904,11.197,-90.3636,8.2759,
18.3163,21.4196,29.2084,-3.8944,0.97337,20.4454,22.3016,-43.8127,-12.6566,-0.97337,-9.7365,4.8678,-105.3636,-2.921,
24.8274,24.8274,35.5372,3.4077,7.3021,16.0643,34.5629,-51.1143,-20.932,-3.4077,-3.4077,-9.2488,-120.3636,-17.0376,
22.3926,24.3402,34.0757,2.9206,6.815,10.7094,27.2612,-42.8388,-20.4458,-7.7893,-2.9206,-10.7094,-135.3636,-15.5781,
17.5248,18.4982,33.1024,1.9472,7.7893,20.4458,24.3402,-39.9178,-22.3925,-4.8682,-1.9472,-8.7626,-150.3636,-19.4724,
10.7094,9.736,32.129,-1.9472,11.6827,29.208,28.2346,-48.68,-26.2879,-4.8682,1.9472,-7.7893,-162.5922,-33.1024,
-0.48668,2.4334,22.8797,-4.3811,10.2222,20.932,27.7475,-55.9825,-27.7484,-4.3811,1.4601,0.48668,-160.1583,-28.7218,
3.8944,0.97337,32.1295,0.97337,11.6832,13.6309,32.1295,-53.5482,-32.1285,-0.97337,-3.8944,-0.97337,-162.5918,-14.6042,
18.8944,10.7098,47.1295,0,16.551,23.3664,38.944,-38.944,-36.0229,-1.9467,-4.8678,0,-170.381,-9.7355,
26.7736,17.0381,36.5101,-9.2493,6.3283,23.8535,27.7479,-35.5367,-37.4844,-6.3283,-10.2227,12.1694,-185.381,-10.2227,
31.1552,15.5776,25.314,-2.921,-0.97337,19.472,23.3664,-35.0496,-26.2874,-3.8944,-12.6566,20.4454,-191.8002,0.97337,
32.129,2.9206,25.3136,-9.736,-2.9206,17.5248,18.4982,-34.0757,-25.3136,-11.6837,-20.4458,5.4454,-201.5362,7.7893,
25.8003,2.4339,18.9848,-21.9059,-2.4339,28.7213,9.2493,-27.7479,-25.8003,-18.9858,-19.9591,2.4339,-204.9439,8.2759,
15.5776,15.5776,9.7365,-12.6566,-6.8154,40.8916,10.7098,-17.5252,-13.6309,-14.6042,-7.7888,12.6566,-192.774,6.8154,
15.5785,18.4986,14.6042,-5.8411,-3.8944,37.9706,16.5519,-10.7089,-5.8411,-10.7089,-5.8411,3.8944,-184.9848,3.8944,
26.2874,22.393,28.2341,0,11.1056,36.0229,25.314,-6.8154,-8.7622,-3.8944,-2.921,-3.8944,-174.2754,0,
29.2084,27.2617,27.2617,0,17.5252,34.0762,31.1561,-19.472,-11.6832,-3.8944,0,-3.8944,-164.539,-11.6832,
30.1818,24.3407,29.2084,-8.7622,19.472,28.2351,36.9972,-34.472,-6.8145,-5.8411,0,0,-158.6974,-25.3131,
25.8003,16.0647,35.5367,-16.0647,24.8269,26.7736,39.4311,-36.5101,-9.2493,-11.197,4.3815,-4.3815,-155.2901,-31.6423,
15.5776,12.6566,40.8916,-13.6309,26.2874,32.1285,45.7594,-27.2608,-12.6566,-11.6832,10.7098,-10.7098,-152.8562,-36.0234,
15.0914,11.197,36.5101,-7.3016,17.0381,34.5634,38.4577,-22.8792,-8.2759,-5.3549,5.3549,-6.3283,-158.2107,-24.8269,
12.6566,2.921,21.5101,-17.5252,2.0381,19.5634,23.4577,-28.2351,-16.551,-8.7622,-9.6451,6.8154,-173.2107,-9.8269,
11.197,5.3549,6.5101,-18.0115,-4.3815,9.2493,12.1703,-22.8792,-22.8792,-15.0904,-16.0647,15.0914,-183.5243,4.3815,
24.3397,16.551,21.5101,-3.0115,0,24.2493,27.1703,-7.8792,-17.5252,-14.6042,-10.7098,5.8411,-182.0647,-6.8154,
30.669,6.3283,18.9858,2.4339,-2.4339,32.6157,13.1437,2.4339,-27.7479,-22.8792,-20.9325,-9.1589,-192.2869,-13.1437,
32.6157,5.3549,16.0638,2.4339,-3.4082,37.4835,5.3549,4.3806,-28.7213,-23.8535,-20.9325,-4.3815,-199.1028,-2.4339,
31.1556,19.4724,24.3402,1.9472,-4.8682,36.9968,12.657,10.7094,-18.4982,-19.4724,-15.5781,-1.9472,-198.6156,-1.9472,
22.393,24.3407,31.1552,-2.921,2.921,32.1295,19.472,14.6042,-21.4196,-14.6042,-13.6299,-12.6566,-189.853,-11.6832,
17.0376,17.0376,30.6685,-7.3021,9.2488,28.7208,18.011,7.3021,-28.7218,-12.1699,-9.2498,-15.0909,-176.7098,-13.1442,
28.7208,18.9853,30.6685,-3.4077,14.1166,29.6951,22.8797,3.4077,-16.0643,-10.2231,-3.4077,-9.2498,-166.9733,-7.3021,
32.6157,22.8802,28.7213,-5.3549,13.1437,35.5367,30.669,5.3549,-8.2759,-14.1171,-7.3016,-14.1171,-168.9205,-7.3016,
32.1295,19.4729,30.1818,-9.7355,10.7098,49.6538,27.2617,3.8944,-6.8145,-10.7089,-3.8944,-14.6033,-164.539,-7.7888,
22.393,17.5252,26.2874,-18.4977,6.8154,45.7594,13.6309,-4.8678,0,-10.7089,0,-11.6832,-163.5651,-13.6299,
7.393,22.8792,16.0638,-18.9858,-1.4605,30.7594,11.196,-7.3026,3.4072,-11.197,1.4605,-8.2759,-175.7359,-25.8012,
3.8944,22.393,25.3131,-13.6309,0,24.3397,17.5243,-10.7098,1.9467,0,-1.9477,-9.7365,-174.2754,-28.2351,
1.4605,7.393,29.6947,-26.7746,8.275,26.7736,12.1694,-19.9591,2.4339,-1.4605,-15.0914,-16.0647,-165.9999,-31.6423,
11.6832,8.7622,23.3664,-25.314,16.551,33.1028,16.551,-4.9591,0.97337,-6.8154,-14.6042,-11.6832,-163.5661,-19.472,
15.5771,12.657,14.6038,-18.4991,1.9472,35.0491,14.6038,10.0409,-12.657,-15.5781,-18.4991,-6.8159,-175.2492,-4.472,
5.8416,2.9215,1.9472,-29.208,-11.6827,34.0767,1.9472,6.8159,-10.7094,-23.3659,-22.3925,-1.9472,-178.1694,3.8949,
3.8944,0,-3.8944,-35.0496,2.921,32.1285,3.8944,9.7365,-1.9477,-21.4196,-13.6309,0,-173.3016,7.7888,
2.921,1.9477,6.8154,-31.1552,0.97337,24.3397,9.7365,15.5776,-16.551,-25.314,-16.551,-14.6042,-180.117,-0.97337,
17.921,16.9477,21.8154,-16.1552,3.8944,37.9706,19.472,24.3407,-10.7098,-14.6042,-3.8944,-9.7355,-165.117,-4.8678,
18.9848,11.196,15.0904,-9.2493,1.4605,23.8526,12.1694,15.0904,-18.9858,-21.9068,-1.4605,-17.0381,-169.8943,-14.118,
19.472,3.8944,17.5252,-16.551,2.921,12.6566,14.6042,5.8421,-29.2084,-25.314,-2.921,-24.3397,-178.1698,-3.8944,
17.0381,9.2493,29.6956,-20.9325,8.2759,11.197,12.1703,-9.1579,-22.8792,-19.9582,1.4605,-20.9325,-176.7088,-1.4605,
9.2493,17.0381,21.9059,-14.1171,18.9858,3.4073,11.196,-24.1579,-7.8792,-7.3016,16.4605,-10.2227,-168.9205,-9.2493,
-1.4605,13.1437,14.1171,-6.3283,25.8003,-5.3549,16.0647,-39.1579,4.3815,0.48715,31.4605,-0.48715,-162.1051,-12.1703,
-0.48668,6.3287,24.8264,-7.3021,32.6162,-7.3021,11.1965,-54.1579,12.1699,0.48668,32.6162,-5.3544,-159.1845,-22.8797,
0,4.8678,31.1552,-9.7365,34.0762,-20.4463,0,-69.1579,14.6033,0,32.1285,-18.4986,-161.6189,-31.1561,
-6.815,8.7626,28.2346,-11.6837,35.05,-33.1024,4.8682,-84.1579,12.657,6.815,38.9444,-4.8682,-153.8296,-19.4724,
-20.4463,0,19.472,-20.4463,31.1552,-48.1024,5.8411,-99.1579,0,0,29.2075,1.9467,-163.5661,-25.314,
-9.2493,0.48715,18.0115,-13.1437,32.6157,-45.2722,7.3016,-114.1579,-0.48715,2.4339,25.8003,0.48715,-176.7093,-31.6423,
-1.9477,0,12.6566,-15.5785,28.2341,-35.0505,11.6832,-122.6744,2.9201,6.8145,27.2608,0,-178.1703,-23.3673,
-7.7883,-0.97383,10.7094,-22.3925,39.9178,-39.9178,15.5781,-120.7268,0.97383,5.8416,33.1024,7.7893,-168.4338,-8.3673,
-4.8678,0,21.4196,-11.6832,47.7071,-49.6538,22.393,-116.8324,0,8.7631,34.0762,10.7098,-166.4862,-1.9467,
0.48668,-2.4343,26.7741,-2.4343,36.5096,-50.1405,26.7741,-123.1611,-0.48668,5.3544,26.7741,3.4077,-169.8943,-16.9467,
10.2227,0.48715,25.8003,0.48715,39.4311,-43.3255,31.6423,-112.4513,-0.48715,-0.48715,21.9059,-1.4605,-168.9205,-15.0914,
17.0381,1.4605,30.669,5.3549,41.3779,-49.1666,32.6157,-98.8209,-11.196,-1.4605,12.1703,-13.1437,-165.9999,-20.9325,
18.0115,4.3815,37.4835,9.2493,39.4311,-55.9825,31.6423,-113.8209,-19.9591,-4.3815,8.2759,-26.7746,-153.3429,-35.9325,
14.6038,9.736,36.0234,8.7626,48.68,-57.4426,29.208,-128.8209,-16.5514,-8.7626,22.3925,-29.208,-138.3429,-50.9325,
15.0904,7.3016,34.5624,1.4605,55.0087,-45.2732,35.5358,-122.1877,-9.2493,-1.4605,37.3925,-14.208,-134.8448,-35.9325,
10.7098,0,26.2874,-13.5395,40.0087,-32.1285,30.1818,-115.859,-4.8678,4.8678,34.0762,0,-134.3576,-20.9325,
-4.2902,-0.48668,15.0909,-10.2231,32.6162,-25.8007,15.1818,-112.4513,6.3287,0.48668,32.6162,1.4601,-126.0821,-18.0119,
-19.2902,0.97337,7.7888,2.921,38.944,-29.2084,7.7888,-98.3342,4.8678,-3.8944,31.1552,-0.97337,-135.3314,-6.8154,
-17.5248,0.97383,11.6827,-4.8682,29.208,-28.2346,11.6827,-88.5982,-0.97383,2.9206,20.4458,3.8939,-147.988,-2.9206,
-4.3806,-1.4605,11.197,-6.3283,23.8535,-28.7213,5.3549,-93.9527,1.4605,9.2493,6.3283,7.3026,-147.5009,-6.3283,
-6.815,4.8682,10.7094,2.9206,28.2346,-31.1556,-1.9472,-94.4398,-0.97383,5.8416,0.97383,3.8939,-143.1202,-2.9206,
-0.48668,9.2488,24.8264,0.48668,28.7208,-26.7741,0.48668,-86.1643,-5.3554,2.4334,-1.461,5.3544,-138.7392,-1.461,
14.5133,5.3544,30.6685,1.4601,30.6685,-24.8274,6.3287,-80.3223,-6.3287,2.4343,-9.2488,-1.4601,-133.8709,-16.461,
29.5133,20.3544,31.1556,16.4601,41.8655,-13.6304,21.3287,-65.3223,-10.7094,5.8416,-5.8416,-10.7094,-122.674,-26.2869,
32.6157,29.6956,34.5634,13.1437,39.4311,-1.4605,36.3287,-52.0877,-15.0904,1.4605,-1.4605,-19.9591,-119.2663,-25.8003,
26.7741,14.6956,32.6152,0.48668,40.404,-0.48668,29.6951,-56.9564,-6.3287,-2.4343,2.4334,-24.8274,-112.4518,-20.933,
34.5629,-0.30441,30.6685,0.48668,45.2727,-3.4077,27.7475,-57.9297,1.4601,-0.48668,7.3021,-21.9063,-97.4518,-19.9596,
35.0496,3.8944,34.0762,2.921,42.8384,-12.6566,35.0496,-55.4959,-2.921,-4.8678,4.8678,-25.314,-98.3342,-25.314,
21.4196,4.8678,32.1295,0.97337,42.8384,-24.3397,31.1552,-59.3898,-0.97337,-3.8944,4.8678,-28.2341,-113.3342,-30.1818,
6.4196,0,28.2341,-13.6309,40.8916,-26.2874,16.551,-74.3898,4.8678,1.9467,6.8154,-24.3407,-118.78,-35.0496,
0,0,36.0229,-9.7365,36.9963,-16.5519,10.7098,-73.0206,12.6566,8.7622,13.6299,-9.3407,-108.0702,-27.2608,
0.48668,-4.382,29.6942,-0.48668,32.6152,-23.854,5.3544,-65.7185,10.2222,8.2755,13.1432,-6.3287,-112.4518,-29.6951,
0.48668,-0.48668,27.7475,-0.48668,39.4316,-28.7208,8.2755,-73.5069,9.2498,7.3021,9.2498,-19.9587,-116.3457,-32.6152,
1.9477,-0.97337,31.1552,-5.8411,34.0762,-26.2874,7.7888,-83.73,0.97337,2.921,0.97337,-26.2874,-113.9118,-32.1285,
10.2231,-1.4601,34.5629,-0.48668,36.5106,-23.8531,7.3021,-69.6129,0.48668,5.3544,0.48668,-19.9587,-107.5835,-28.7218,
16.551,0,40.8907,3.8944,40.8907,-25.314,17.5243,-56.4697,0,1.9467,0,-24.3407,-101.2552,-35.0505,
31.1561,15,46.7337,14.6042,39.9183,-23.3664,30.1818,-42.8384,-10.7098,0,0,-32.1285,-93.466,-31.1552,
40.4045,30,53.061,29.6042,46.2465,-21.9059,30.668,-27.8384,-19.9591,3.4073,-3.4073,-28.7213,-89.0849,-18.0115,
40.4045,25.8003,56.9554,27.7479,50.1409,-12.1703,29.6947,-21.9059,-13.1437,3.4073,-3.4073,-23.8535,-88.1115,-12.1703,
31.6419,10.8003,48.1937,12.7479,43.325,-6.3287,32.6162,-36.9059,-5.3544,-0.48668,0.48668,-26.7741,-84.2171,-16.0643,
21.9063,8.2755,36.5105,1.4601,44.2993,-16.0643,27.7475,-51.9059,-1.4601,-1.4601,8.2755,-18.9853,-78.3751,-12.1699,
20.933,9.2498,28.7218,-0.48668,42.3517,-31.0643,21.9063,-66.9059,-2.4334,-0.48668,9.2498,-4.3811,-80.3223,0.48668,
28.7213,1.4605,30.669,-7.3016,30.669,-32.6157,27.7479,-74.4807,-3.4073,-1.4605,1.4605,-3.4073,-86.1639,3.4082,
36.9972,5.8421,41.865,-14.6042,30.1818,-22.393,33.1028,-59.4807,0,0.9743,0,-11.6832,-82.7562,-0.97337,
32.6162,5.3554,41.3783,-18.9853,36.5105,-26.7741,24.8274,-60.8503,1.461,-0.48668,0.48668,-18.9853,-85.1905,-14.1175,
26.2874,0.97337,34.0762,-15.5776,28.2341,-36.0239,13.6299,-66.2052,1.9467,-0.97337,1.9467,-25.314,-91.5193,-29.1175,
21.9054,14.1166,33.5895,-7.3021,20.932,-35.5372,5.3544,-57.9297,6.3278,-0.48668,0.48668,-29.6951,-92.0059,-29.6951,
20.932,20.932,37.4839,0.48668,30.6685,-29.6951,8.2755,-52.0881,8.2755,-1.4601,-0.48668,-25.8007,-92.0059,-28.7218,
25.3136,7.7893,36.9968,1.9472,28.2346,-28.2346,20.4458,-55.4954,5.8416,-3.8939,-1.9472,-30.1813,-94.4398,-43.7218,
28.7208,-0.48668,39.4307,2.4334,20.932,-30.6685,20.932,-58.9036,5.3544,-5.3554,0.48668,-45.1813,-90.0587,-58.7218,
24.8274,7.3021,45.2727,0.48668,26.7741,-31.6419,18.9853,-58.9031,1.461,-1.4601,-0.48668,-55.0087,-83.2428,-60.8503,
33.1024,9.736,54.522,-2.9206,36.0234,-26.2869,29.208,-51.601,8.7626,2.9206,-3.8949,-40.0087,-76.9146,-45.8503,
41.8655,14.6047,60.3641,1.9472,42.8388,-13.6304,36.0234,-40.8912,20.4458,-1.9472,-3.8939,-25.0087,-69.1258,-30.8503,
33.1024,25.3136,49.6533,1.9472,44.7856,-7.7893,25.3136,-39.9183,5.8416,-4.8682,-7.7893,-25.3136,-66.2057,-15.8503,
35.0496,23.3664,48.6804,0.97337,52.5748,-8.7622,25.314,-40.8916,2.921,-0.97337,-1.9477,-14.6042,-60.3636,-2.921,
38.9444,13.6304,53.5477,-1.9472,43.8122,-15.5781,28.2346,-40.8916,7.7883,-15.9734,1.9472,-20.4458,-58.4164,-8.7626,
42.3517,19.9587,48.1937,-3.4077,31.6419,-8.2755,19.9587,-31.6419,2.4343,-24.8274,1.4601,-34.5629,-58.9031,-1.4601,
45.2727,20.933,41.3783,0.48668,31.6428,-0.48668,18.9853,-25.8007,-2.4334,-11.1965,-1.4601,-27.7475,-59.8765,4.3811,
49.6543,15.578,41.8655,2.9206,34.0767,-0.97383,30.1823,-25.3136,0.97383,-0.97383,-0.97383,-23.3668,-53.5482,-0.97383,
53.0615,20.932,43.325,0.48668,34.5629,-1.4601,34.5629,-25.8007,1.4601,-0.48668,-0.48668,-30.6685,-49.1671,-2.4343,
49.1671,24.8264,37.4839,-1.4601,33.5895,-5.3544,26.7741,-27.7475,1.4601,-2.4343,-4.3811,-28.7218,-53.0615,2.4343,
34.1671,14.6042,27.2608,-4.8678,18.5895,-8.7622,11.7741,-29.2084,4.8678,-4.8678,-8.7622,-25.314,-60.3636,4.8678,
23.8531,9.2488,30.6685,-12.1699,16.0643,-7.3021,10.2222,-19.9596,10.2222,0.48668,-6.3287,-33.5895,-55.9825,-0.48668,
38.8531,17.5248,41.8655,-3.8949,31.0643,-8.7626,22.3925,-10.7094,17.5248,2.9206,-2.9206,-39.9178,-42.8388,-15.4867,
47.7066,20.4458,38.9444,4.8682,37.9711,-9.736,20.4458,-14.6038,14.6047,-10.7094,-4.8682,-43.8122,-46.7328,-30.1813,
37.4839,18.011,36.5096,-5.3554,22.9711,3.4077,13.1432,-20.933,7.3021,-20.933,-3.4077,-50.1409,-55.0092,-29.6951,
36.9968,19.4715,42.8388,-10.7103,25.3136,4.8682,12.657,-21.4192,7.7883,-21.4192,-4.8682,-53.5487,-56.4692,-14.6951,
51.9968,25.8003,44.2989,1.4605,30.669,-2.4339,21.9059,-17.0381,4.3815,-24.8269,-7.3016,-51.1143,-55.9821,-1.4605,
63.2842,27.2603,48.68,4.8682,24.3402,0.97383,32.129,-18.4991,-0.97383,-39.8269,-0.97383,-61.3374,-52.5748,-16.4605,
51.1138,14.1175,51.1138,-7.3021,23.8531,-2.4343,27.7475,-25.8007,2.4343,-46.2465,3.4077,-73.5073,-44.2993,-31.4605,
45.7599,11.6837,50.6276,-10.7094,32.129,-10.7094,29.208,-21.4192,17.4343,-31.2465,10.7094,-58.5073,-29.2993,-21.4192,
47.7071,10.7098,49.6538,-15.5776,30.1818,-10.7098,31.1552,-18.4986,23.3664,-16.2465,12.6575,-43.8122,-20.4454,-21.4187,
44.2984,6.3278,46.2461,-21.9063,37.4839,-3.4077,23.8531,-18.0119,13.1432,-17.0386,3.4077,-50.1409,-25.8007,-27.7484,
39.9173,6.8154,42.8384,-21.4196,39.9173,0.97337,15.5776,-9.7365,5.8411,-2.0386,-0.97337,-47.7071,-26.2874,-21.4196,
38.9444,8.7626,44.7856,-18.4982,24.9173,-0.97383,12.657,-9.736,4.8682,0.97383,-1.9472,-45.7589,-26.2869,-23.3668,
39.9183,15.5776,48.6804,-15.5776,25.314,3.8944,14.6042,-13.6299,13.6309,-14.0262,-3.8944,-47.7066,-23.3664,-24.3397,
36.9968,10.7094,36.9968,-24.3402,31.1547,5.8416,10.7094,-5.8416,16.5514,-23.3668,-7.7893,-52.5748,-27.2612,-19.4724,
31.1547,3.8939,28.2337,-30.1823,16.5505,1.9472,12.6561,-1.9472,11.6827,-21.4201,-15.5781,-59.3902,-29.2089,-20.4458,
33.1024,14.6047,36.0234,-20.4458,21.4192,8.7626,14.6047,-8.7626,16.5514,-20.4458,-12.657,-62.3103,-21.4192,-17.5248,
33.5895,13.1442,26.7741,-25.8007,22.8797,12.1699,7.3021,-12.1699,13.1442,-26.7741,-7.3021,-71.5597,-22.8797,-22.8797,
21.9063,0.48668,19.9587,-32.6152,14.1175,8.2755,5.3554,-0.48668,2.4343,-35.5363,-13.1432,-78.3751,-31.6419,-28.7208,
6.9063,0.97337,25.314,-31.1552,13.6309,4.8678,3.8944,5.8421,-0.97337,-43.8117,-26.2874,-75.9412,-34.0762,-26.2874,
10.7089,6.8145,25.3131,-43.8127,14.6033,11.6832,0,2.9201,0,-40.8916,-30.1818,-72.0473,-32.1295,-27.2617,
25.7089,3.4077,18.9853,-50.1409,16.0643,23.8531,6.3287,1.4601,-1.4601,-34.5629,-19.9587,-69.6129,-21.9063,-18.0119,
32.1295,0,22.393,-38.944,15.5776,19.472,18.4986,2.921,0,-32.1285,-9.7355,-63.2842,-16.551,-3.0119,
26.2879,-0.97383,34.0767,-36.9968,13.6304,4.472,13.6304,-4.8682,5.8416,-28.2346,-2.9206,-57.4426,-20.4458,1.9472,
33.1019,-0.97429,34.0762,-40.8916,17.5243,0,3.8944,-14.6042,9.7355,-16.5519,0,-50.6281,-21.4196,5.8411,
26.2874,-2.921,26.2874,-50.6276,19.472,5.8421,0.97337,-29.6042,8.7622,-17.5252,-0.97337,-47.7061,-24.3397,10.7098,
11.6832,0,30.1818,-52.5753,13.6299,-7.7888,7.7888,-44.6042,10.7089,-24.3407,0,-52.5753,-27.2617,0.97337,
26.6832,8.2759,43.3255,-37.5753,26.7736,-19.9591,14.1171,-53.0615,14.1171,-17.0381,9.2493,-60.8503,-17.0381,-8.2759,
41.6832,10.7098,48.6804,-22.5753,41.7736,-16.5519,20.4454,-61.3374,14.6042,-15.5776,11.6832,-69.1262,-10.7098,-13.6309,
48.1933,12.1703,47.2199,-17.0381,41.3788,-10.2227,33.5891,-76.3374,11.197,-18.9848,10.2227,-68.6391,-12.1703,-18.0115,
45.2732,14.1171,48.1933,-17.0381,44.2989,-13.1437,36.5101,-89.0849,6.3283,-18.9848,16.0647,-62.7975,-6.3283,-14.1171,
45.2732,11.197,51.1143,-9.2493,55.0087,-21.9059,33.5891,-97.8471,4.3815,-21.9059,21.9059,-68.6391,-4.3815,-13.1437,
43.3255,12.1703,46.2465,-15.0904,45.2732,-23.8526,32.6157,-101.7415,9.2493,-26.7736,18.0124,-76.4279,-9.2493,-11.196,
28.3255,1.9472,31.2465,-30.0904,33.1024,-32.129,27.2603,-111.9651,4.8673,-30.1823,8.7617,-70.1001,-18.4991,-1.9472,
19.9591,-8.2759,34.5624,-24.8269,40.4045,-34.5634,30.668,-120.2405,8.2759,-18.9858,13.1437,-55.1001,-16.0647,11.196,
11.1965,-6.3287,38.4573,-23.8531,38.4573,-34.5629,36.5096,-124.1349,9.2488,-15.0909,15.0909,-48.1937,-14.1175,6.3287,
13.1432,-3.4077,25.8007,-33.5895,31.6419,-28.7218,30.6685,-110.5041,3.4077,-24.8274,8.2755,-61.8241,-15.0909,13.1432,
28.1432,-0.48668,23.8531,-26.7741,40.4049,-13.7218,28.7218,-95.5041,0.48668,-22.8797,10.2231,-51.1143,-2.4343,28.1432,
31.1556,-3.8949,33.1024,-26.2879,38.9444,1.2782,35.05,-89.5721,-9.736,-22.3935,6.815,-49.6543,-2.9206,29.208,
22.8802,5.3549,48.1024,-25.8003,45.2732,-7.3016,48.1933,-104.5721,-5.3549,-16.0647,3.4072,-63.7709,-3.4072,14.208,
22.3935,8.7626,51.601,-27.2608,55.4954,-8.7626,49.6543,-110.9908,3.8949,-17.5248,2.9206,-71.073,-2.9206,-0.79202,
18.9853,0.48668,36.601,-33.5895,48.1937,-10.2231,39.4307,-108.5574,0.48668,-32.5248,6.3278,-74.4811,-0.48668,-13.1442,
17.5253,0.97337,29.2084,-33.1028,34.0762,-13.6309,33.1028,-109.0436,-0.97337,-38.944,8.7622,-80.8094,4.8678,-13.6309,
25.3136,1.9472,37.9711,-24.3402,34.0767,-7.7883,35.05,-104.1753,-3.8939,-36.9968,1.9472,-83.73,3.8949,-1.9472,
32.6162,1.461,37.4839,-21.9063,33.5895,-0.48668,34.5629,-91.0321,-10.2231,-44.2984,-2.4334,-86.1639,0.48668,3.4077,
32.1285,0,27.2608,-29.2084,26.2874,-0.97337,20.4454,-82.7566,-5.8421,-46.7328,0,-88.5982,0.97337,5.8411,
27.7484,-0.48668,25.8007,-31.6419,21.9063,11.1965,11.1965,-83.2428,-1.4601,-38.4573,0.48668,-78.3751,-0.48668,20.8411,
25.314,-0.97337,26.2874,-31.1552,22.393,24.3407,19.472,-73.994,-9.7355,-35.0496,0.97337,-63.3751,-5.8411,35.8411,
19.472,-3.8944,22.393,-41.865,23.3673,25.314,24.3407,-67.1786,-8.7622,-36.0229,3.8944,-60.3632,-3.8944,36.9972,
4.472,-8.7622,16.551,-56.865,15.5776,19.472,16.551,-80.809,-0.97337,-41.865,0.97337,-75.3632,-1.9467,21.9972,
-1.9472,-2.9206,18.4982,-58.4164,25.3136,30.1813,12.657,-82.7566,-3.8949,-29.208,1.9472,-73.994,1.9472,10.7094,
5.8421,0,28.2351,-43.4164,40.3136,42.8393,19.4729,-67.7566,-2.9201,-14.208,0,-58.994,-0.97337,22.393,
7.3021,-6.3287,31.6419,-45.2727,42.3517,40.4049,23.8531,-52.7566,4.3811,-21.9063,-4.3811,-64.7447,-4.3811,12.1699,
0.48668,-9.2488,24.8264,-55.0087,27.7475,31.6419,17.0376,-55.0087,5.3544,-36.9063,-0.48668,-79.7447,1.4601,-2.8301,
1.4605,-8.2759,23.8535,-54.0353,32.6157,28.7213,19.9591,-58.9031,6.3283,-43.3255,8.2759,-88.1115,-1.4605,-1.4605,
1.4605,-5.3549,26.7736,-55.9825,32.6157,31.6423,21.9059,-56.9559,11.196,-37.4835,11.196,-80.3223,-15.0914,-1.4605,
0.48668,-0.48668,31.6419,-54.0353,18.9853,28.7208,18.011,-55.9825,9.2488,-42.3517,7.3021,-87.1382,-23.854,-11.1965,
11.196,-3.4072,30.669,-40.4045,11.196,21.9059,18.0115,-58.9031,3.4072,-41.3779,3.4072,-96.8737,-24.8269,-10.2227,
17.5248,-4.8682,27.2612,-31.1556,21.4192,26.2869,18.4982,-60.3636,6.815,-34.0767,4.8682,-96.387,-24.3402,-8.7626,
11.1965,0.48668,34.5629,-34.5629,23.854,29.6951,13.1442,-56.9559,3.4077,-37.4839,-0.48668,-91.0316,-28.7208,-9.2488,
25.314,2.921,45.7594,-28.2341,23.3664,36.0239,15.5776,-41.9559,-2.921,-34.0762,-2.921,-79.8356,-19.472,5.7512,
32.6162,-0.48668,38.4573,-31.6419,26.7741,40.4049,15.0909,-31.6419,-3.4077,-31.6419,0.48668,-74.4807,-6.3278,20.7512,
17.6162,1.9472,26.2879,-46.6419,29.208,37.9711,0.090904,-46.6419,-1.9472,-34.0757,3.8949,-78.8618,-1.9472,31.1556,
2.6162,-1.4605,21.9059,-61.6419,34.5634,37.4844,4.3815,-59.8765,-6.3283,-38.4568,1.4605,-75.4541,2.4339,32.6157,
-3.4072,-1.4605,30.669,-53.061,49.1676,52.0886,19.3815,-55.0082,-9.2493,-37.4835,1.4605,-64.7442,17.4339,44.2989,
-2.4343,2.4343,33.5895,-55.0087,51.1148,53.0615,20.933,-52.0877,-14.1175,-39.4311,-4.3811,-68.6391,20.933,33.5895,
-14.6042,6.8154,27.2608,-63.2842,46.7337,45.7594,15.5776,-47.7066,-3.8944,-38.944,-5.8411,-74.9674,5.933,18.5895,
-18.0119,5.3544,18.0119,-58.9031,42.3517,43.325,11.1965,-48.1937,7.3021,-37.4839,-0.48668,-81.2961,0.48668,3.5895,
-20.933,-3.4077,14.1175,-62.7975,34.5629,38.4573,3.4077,-56.9559,11.1965,-32.6162,5.3544,-85.1905,8.2755,-7.3021,
-25.8003,-12.1703,7.3016,-76.4279,24.8269,28.7213,2.4339,-62.7975,11.196,-29.6947,5.3549,-84.2167,1.4605,-1.4605,
-18.0119,-5.3544,14.1175,-70.5863,26.7741,29.6951,13.1432,-55.9825,10.2231,-30.6685,5.3544,-81.2961,-0.48668,0.48668,
-3.0119,-2.4343,28.7218,-60.8503,29.6951,29.6951,12.1699,-55.0087,1.4601,-34.5629,1.4601,-84.2167,1.4601,-5.3544,
11.9881,1.4601,27.7475,-58.9031,24.8274,35.5363,7.3021,-47.2194,-8.2755,-38.4573,-1.4601,-86.1639,-1.4601,6.3287,
23.8531,9.2488,17.0376,-52.0881,12.1699,47.2194,8.2755,-32.2194,-12.1699,-48.1937,-8.2755,-87.1377,-11.1965,21.3287,
29.6951,16.0652,18.9853,-38.4573,11.1965,53.0615,16.0652,-17.2194,-13.1432,-51.1138,-19.9587,-83.2428,-15.0909,24.8274,
22.393,13.6309,15.5776,-36.9972,18.4986,47.7071,10.7098,-10.7098,-16.551,-46.7328,-20.4454,-75.9412,-13.6299,28.2351,
19.9587,13.1432,19.9587,-44.2993,22.8797,48.1928,3.4077,-21.9063,-4.3811,-38.4573,-5.4454,-64.7452,-3.4077,40.404,
13.6304,-1.8568,20.4458,-58.4164,16.5514,45.7599,3.8949,-36.9063,2.9206,-44.7856,-4.8682,-67.1786,-5.8416,32.129,
5.3544,-7.3021,14.1166,-62.798,18.011,44.2984,10.2222,-37.4839,-0.48668,-43.326,-8.2755,-73.5073,0.48668,22.8797,
-1.4605,1.4605,17.0381,-62.7975,29.6947,36.5101,11.196,-30.669,-6.3283,-37.4835,-2.4339,-81.2961,11.196,18.9848,
0.48668,-0.48668,21.9063,-68.6391,29.6951,28.7218,0.48668,-36.5096,-5.3544,-47.2199,-2.4334,-92.0055,3.4077,3.9848,
15.4867,0,22.393,-66.2052,24.3407,43.7218,2.921,-38.944,-4.8678,-48.6804,0,-85.6772,4.8678,-1.9467,
18.9853,-5.3544,15.0909,-55.0082,23.8531,52.0881,12.1699,-30.6685,-12.1699,-42.3517,-5.3544,-84.2167,18.9853,5.3544,
9.7355,-4.8678,13.6309,-53.5482,21.4196,44.786,5.8411,-17.5252,-15.5776,-51.6015,-17.5252,-95.4132,11.6832,4.8678,
17.0381,10.1322,21.9059,-55.0087,18.0115,46.2456,1.4605,-9.2493,-11.197,-58.9031,-15.0914,-92.9793,-1.4605,8.275,
20.9325,14.118,16.0647,-55.9821,14.118,46.2465,2.4339,-16.0638,-13.1437,-55.9821,-13.1437,-82.2695,-2.4339,13.1437,
20.933,5.3554,10.2231,-53.0615,11.1965,43.326,1.4601,-18.0119,-17.0376,-50.1405,-21.9063,-82.2695,-1.4601,13.1442,
26.2879,7.7893,15.5781,-58.4164,14.6047,41.8655,0.97383,-13.6304,-20.4458,-60.3632,-26.2869,-97.2695,-0.97383,10.7103,
14.6042,0.97429,2.921,-73.4164,17.5252,34.0762,0,-27.2608,-23.3664,-75.3632,-25.3131,-107.0959,2.921,0,
7.3016,-6.3283,7.3016,-71.5601,29.6947,38.4577,7.3016,-25.8003,-8.3664,-60.3632,-10.3131,-92.0959,17.921,2.4339,
0,-7.7888,13.6299,-70.0996,26.2874,34.0762,0,-25.314,2.921,-45.3632,-9.7365,-77.0959,32.921,3.8944,
0,0,5.8421,-76.9146,24.3397,34.0762,3.8944,-23.3664,-0.97337,-30.3632,-12.6566,-84.7038,28.2341,5.8421,
-1.4605,-1.4605,3.4072,-80.3223,26.7736,36.5101,8.2759,-17.0381,1.4605,-34.5634,-2.4339,-79.3489,21.9059,3.4072,
-2.921,-9.7355,13.6309,-79.8356,21.4196,32.1295,-0.97337,-8.7622,0.97337,-37.9706,4.8678,-69.1258,24.3397,1.9477,
0.97337,-0.97337,16.551,-68.1524,18.4986,34.0762,7.7888,-0.97337,-2.921,-28.2351,-4.8678,-74.9678,26.2874,4.8678,
-0.48715,0.48715,11.196,-64.7447,15.0904,42.3521,7.3016,0.48715,-11.197,-31.6423,-18.0115,-88.1115,12.1703,-2.4339,
7.3016,-6.3283,19.9591,-64.7447,16.0647,50.1409,-2.4339,11.196,-12.1703,-40.4045,-10.2227,-78.3751,11.196,2.4339,
12.657,-5.8416,20.4458,-71.073,6.8159,38.9444,-5.8416,9.736,-15.5771,-52.5744,-11.6827,-76.9146,12.657,5.8416,
19.4715,1.9472,8.7617,-70.0996,-1.9472,42.8379,-6.8159,5.8416,-9.7369,-59.3907,-14.6047,-81.7833,3.8939,11.6827,
20.932,-3.4077,3.4077,-70.5868,3.4077,57.8379,-18.9853,17.0376,-3.4077,-60.8503,-4.3811,-73.5078,3.4077,23.8531,
5.932,-5.8421,0,-80.809,-0.97337,56.4692,-27.2608,30.1818,0,-59.3902,5.8411,-59.3902,11.6832,35.0496,
1.9477,-2.921,0,-76.915,-0.97337,41.4692,-20.4454,28.2341,0,-53.5482,0.97337,-58.416,20.4454,31.1552,
9.7365,-9.7365,11.6832,-68.1524,14.0266,40.8916,-12.6566,15.5776,-9.7365,-48.6804,-10.7098,-68.1524,22.393,16.1552,
8.7626,-10.7094,15.5771,-76.915,21.4192,51.601,-4.8682,4.8682,-13.6304,-38.9444,-14.6038,-68.1524,24.3402,11.6827,
0,-1.9477,5.8411,-88.5982,19.472,52.5748,3.8944,0,-0.97337,-30.1818,-6.8154,-58.4164,32.1285,22.393,
-5.3544,0.48668,2.4343,-86.1639,23.8531,52.0881,-2.4334,6.3287,-0.48668,-31.6419,-4.3811,-57.9293,30.6685,25.8007,
-4.3811,0.48668,10.2231,-71.1639,16.0643,55.0092,-7.3021,21.3287,-5.3544,-34.5629,-0.48668,-63.7709,27.7484,16.0643,
0.97337,0,8.7622,-60.3636,1.0643,52.5748,-9.7365,27.2608,-2.921,-35.0496,-1.9477,-64.258,25.314,1.0643,
2.4339,10.2227,10.2227,-63.7713,10.2227,49.1666,-9.2493,18.9848,-2.4339,-31.6423,-8.2759,-63.7713,20.9325,-8.2759,
-0.48668,14.1175,22.8797,-66.6919,18.0119,48.1937,-4.3811,16.0643,-6.3287,-32.6162,-5.3544,-61.8241,18.0119,0.48668,
1.9472,-0.88247,15.5781,-72.0463,3.8949,38.9444,-11.6827,11.6837,-11.6827,-43.8122,-7.7883,-59.3898,11.6837,7.7893,
12.1703,-2.4339,5.3549,-72.5335,2.4339,42.3521,-20.9325,16.0647,-13.1437,-43.3255,-14.1171,-52.0877,9.2493,14.1171,
4.8687,0,0.97429,-80.809,3.8944,41.865,-26.2874,22.393,-27.2608,-42.8384,-19.472,-60.3636,0,17.5252,
0,0,3.8944,-75.9412,3.8944,42.8384,-12.6566,28.2341,-31.1552,-35.0496,-4.472,-51.6015,1.9477,32.5252,
0,0,-0.97337,-66.2047,7.7888,46.7337,-2.921,26.2874,-18.4986,-29.2075,10.528,-36.6015,12.6575,47.5252,
-3.8949,-3.8949,1.9472,-66.2057,22.7888,40.8912,-1.9472,11.2874,-10.7103,-36.0234,15.5771,-25.3145,17.5248,51.601,
-2.921,-5.8421,7.7888,-69.1262,36.0229,32.1285,2.921,-3.7126,-8.7622,-38.944,26.2874,-40.3145,22.393,36.601,
-3.4077,-3.4077,5.3554,-71.5597,33.5895,17.1285,3.4077,-18.7126,-5.3544,-35.5363,30.6685,-53.0615,24.8274,21.601,
-4.3815,0.48715,14.1171,-63.7713,32.6157,2.4339,-0.48715,-33.7126,2.4339,-30.669,30.669,-53.0615,28.7213,6.601,
-0.48715,1.4605,19.9591,-56.9559,36.5101,0.48715,-1.4605,-48.7126,0.48715,-30.669,28.7213,-58.9031,28.7213,-6.3283,
-0.48715,1.4605,12.1703,-55.0087,38.4577,0.48715,4.3815,-56.9559,-5.3549,-32.6157,24.8269,-60.8503,23.8535,-2.4339,
-3.4077,0.48668,6.3287,-41.3783,33.5895,-0.48668,6.3287,-59.8769,-4.3811,-32.6162,24.8274,-55.0082,24.8274,5.3544,
5.3544,0.48668,10.2231,-35.5363,30.6685,-3.4077,6.3287,-59.8769,-12.1699,-29.6951,19.9587,-61.8241,22.8797,-0.48668,
15.5781,3.8949,13.6304,-41.8645,32.129,-6.815,11.6837,-49.6533,-24.3402,-33.1024,4.9587,-62.3108,18.4991,-2.9206,
13.6304,9.736,8.7626,-38.9444,24.3402,-4.8682,12.657,-44.7856,-37.9701,-41.8645,-10.0413,-51.601,13.6304,4.8682,
16.551,5.8421,10.7098,-32.1285,12.6566,0,0,-52.5748,-52.5748,-44.786,-23.3664,-56.4692,0,10.7098,
31.551,2.4339,16.0647,-26.7736,15.0914,5.3549,-2.4339,-49.1666,-45.2722,-31.6423,-8.3664,-50.1409,10.2227,25.7098,
27.7475,-0.48668,7.3021,-39.4307,26.7741,0.48668,-3.4077,-52.0881,-30.6685,-31.6419,5.3554,-36.5096,25.2227,35.5372,
12.7475,-1.4601,0.48668,-50.1405,34.5629,2.4343,-0.48668,-54.0349,-22.8797,-37.4839,8.2755,-40.4049,23.8531,20.5372,
3.4077,-10.2231,-1.4601,-53.0615,26.7741,10.2231,3.4077,-50.1405,-20.932,-43.3251,14.1175,-55.0082,23.8531,5.5372,
-6.3283,-9.2493,5.3549,-47.2199,31.6423,17.0381,5.3549,-49.1666,-5.932,-39.4311,25.8012,-43.3255,38.8531,18.0124,
-19.9587,-3.4077,7.3021,-43.3251,39.4307,5.3544,-3.4077,-55.0087,3.4077,-26.7741,27.7475,-30.6685,40.4049,25.8007,
-13.1437,-4.3815,6.3283,-37.4835,36.5101,4.3815,-0.48715,-44.2989,0.48715,-11.7741,26.7746,-25.8003,25.4049,22.8792,
-6.815,-7.7883,4.8682,-34.0757,31.1556,19.3815,10.7094,-33.1024,-4.8682,-16.5514,12.657,-25.3136,23.3668,20.4458,
-13.1437,0.48715,6.3283,-38.4577,32.6157,23.8535,9.2493,-38.4577,-13.1437,-31.5514,-0.48715,-32.6157,23.8535,17.0381,
-13.1437,2.4339,4.3815,-36.5101,34.5634,8.8535,2.4339,-45.2722,-22.8792,-25.8003,-2.4339,-40.4045,16.0647,3.4082,
1.8563,3.8944,7.7888,-24.3407,30.1818,12.6566,4.8678,-40.8916,-24.3407,-19.472,-3.8944,-39.9183,16.551,-6.8154,
16.8563,11.6832,21.4196,-23.3664,27.2617,24.3407,11.6832,-37.9706,-30.1818,-31.1552,-14.6033,-38.944,14.6042,-11.6832,
17.0386,13.1432,18.9853,-31.6419,24.8274,17.0386,10.2231,-33.5895,-42.3517,-44.2993,-22.8797,-40.4049,15.0909,-10.2231,
14.1171,5.3549,6.3283,-36.5101,20.9325,18.9858,-2.4339,-21.9059,-46.2465,-47.2199,-21.9059,-46.2465,17.0381,2.4339,
20.4458,9.7369,5.8416,-37.9701,24.3402,33.9858,-5.8416,-17.5248,-46.7323,-46.7323,-24.3393,-38.9435,13.6313,12.657,
13.1442,15.0909,3.4077,-47.2194,25.8007,39.4307,-3.4077,-18.0119,-52.0881,-46.2461,-28.7208,-23.9435,14.1175,11.1965,
-0.97337,12.6575,1.9477,-48.6804,25.314,41.865,0.97337,-9.7355,-41.865,-40.8916,-21.4187,-13.6299,27.2608,12.6575,
-3.8944,14.6042,4.8687,-41.865,16.5519,41.865,3.8944,-6.8145,-26.865,-38.944,-7.7888,-16.551,31.1561,8.7631,
0.48668,13.1432,5.3544,-46.2461,17.0376,31.6419,7.3021,-13.1442,-15.0909,-39.4316,-0.48668,-22.8797,25.8007,-5.3554,
1.4605,5.3549,7.3026,-51.1143,27.7479,22.8802,3.4082,-10.2227,-15.0904,-34.5624,-1.4605,-18.9848,24.8269,-14.1171,
-0.97337,3.8944,17.5252,-38.944,35.0505,31.1561,-1.9467,0,-2.9201,-19.5624,5.8421,-3.9848,31.1561,-3.8944,
-5.3549,-1.4605,14.1171,-30.669,36.5101,29.6947,1.4605,-3.4082,-3.4082,-4.5624,6.3283,5.3549,29.6947,-2.4339,
-4.8678,5.8411,8.7622,-36.0239,28.2341,25.314,0,-7.7888,-18.4082,-10.7098,0,-2.921,24.3397,1.9467,
-6.815,11.6827,4.8682,-39.9178,13.6304,27.2612,-13.6304,-1.9472,-33.4082,-20.4458,-11.6837,1.9472,14.6038,15.5781,
-7.3016,-1.4605,9.2493,-33.5891,16.0647,24.8269,-11.196,1.4605,-37.4835,-25.8003,-19.9582,14.118,11.197,18.9858,
-3.8944,-4.8678,18.4986,-34.0762,24.3407,23.3664,3.804,-9.7355,-36.9972,-32.1285,-30.1818,5.8421,19.472,4.8678,
-0.48668,10.1322,18.9853,-33.5895,27.7475,26.7741,11.1965,-20.933,-47.2204,-33.5895,-36.5106,-1.461,28.7208,0.48668,
-3.8939,5.8416,9.736,-32.129,33.1024,12.657,1.9472,-30.1813,-56.4692,-32.129,-34.0757,0.97383,26.2879,-0.97383,
-1.4605,1.4605,8.2759,-35.5367,44.2989,2.4339,3.4073,-30.669,-46.2465,-30.669,-19.0757,9.2493,28.7213,-5.3549,
-8.2759,5.3549,10.2227,-41.3779,39.4311,2.4339,6.3283,-32.6157,-31.2465,-23.8535,-4.0757,14.1171,32.6157,-6.3283,
-18.9853,1.4601,1.4601,-41.3783,24.4311,3.4077,-1.4601,-37.4839,-19.9587,-12.1699,10.9243,18.0119,30.6685,-5.3544,
-6.3287,6.3287,2.4343,-34.5629,25.8007,15.0909,-4.3811,-31.6419,-5.3544,-2.4343,24.8274,24.8274,32.6162,-3.4077,
-5.3549,3.4073,5.3549,-40.4045,23.8535,17.0381,-8.2759,-21.9059,-5.3549,-12.1703,11.196,21.9059,24.8269,-3.4073,
-6.3283,1.4605,7.3016,-28.7213,21.9059,21.9059,-1.4605,-9.2493,-10.2227,-9.2493,-3.4072,30.669,24.8269,8.2759,
-12.1703,-0.48715,0.48715,-26.7746,23.8535,20.9325,1.4605,-15.0904,-20.9325,-6.3283,-10.2227,25.8003,19.9591,3.4072,
-6.3287,5.3544,3.4077,-27.7475,27.7475,21.9063,-3.4077,-18.0119,-19.9587,-14.1175,-8.2755,24.8274,19.9587,3.4077,
0.97383,1.9472,-0.97383,-25.3136,12.7475,9.736,-18.4077,-18.4982,-21.4192,-27.2612,-14.6038,31.1556,9.736,3.8939,
12.1699,5.3554,-3.4077,-16.0643,4.3811,10.2231,-15.0909,-11.1965,-31.6419,-27.7475,-24.8264,29.6951,8.2755,3.4077,
9.736,6.815,2.9206,-18.4982,11.6837,14.6038,-2.9206,-14.6038,-46.6419,-24.3402,-38.9444,14.6951,9.736,-9.736,
2.4339,-1.4605,9.2493,-22.8802,7.3016,3.4073,2.4339,-21.9059,-58.9031,-24.8269,-38.4577,1.4605,8.2759,-24.736,
12.1699,-0.48668,4.3811,-22.8797,3.4077,7.3021,0.48668,-11.1965,-50.1405,-31.6419,-29.6951,9.2498,6.3287,-21.9063,
11.1965,3.4077,-2.4343,-29.6951,13.1432,22.3021,-5.3554,0.48668,-35.5372,-26.7741,-23.854,16.0643,8.2755,-6.9063,
-3.8035,12.1703,2.4339,-24.8269,24.8269,29.6947,-4.3815,-2.4339,-22.8802,-11.7741,-8.854,28.7213,18.0115,8.0937,
-11.197,12.1694,1.4605,-20.9325,15.0904,22.8792,-15.0914,-12.1703,-31.6423,-9.2493,-1.4605,26.7736,9.2493,5.3549,
3.803,6.8159,1.9472,-23.3659,8.7626,31.1556,-21.4192,-1.9472,-44.7856,-24.2493,-16.4605,11.7736,-5.7507,2.9206,
18.803,3.4077,6.3287,-17.0386,6.3287,34.5629,-13.1442,10.2231,-55.9825,-31.6419,-31.4605,0.48668,-18.0119,-0.48668,
22.8802,9.2493,13.1437,-7.3016,1.4605,32.6157,-14.1171,25.2231,-54.0353,-29.6947,-34.5624,2.4339,-12.1703,-1.4605,
18.9853,11.1965,13.1432,-9.2498,-1.4601,38.4573,-19.9587,29.6951,-48.1937,-27.7475,-34.5629,1.4601,-17.0386,4.3811,
3.9853,1.9477,-0.97337,-17.5252,0.97337,34.0762,-16.551,14.6951,-54.5216,-28.2341,-49.5629,1.9477,-26.2874,6.8154,
-3.8944,5.8421,-2.921,-9.7355,13.6309,33.1028,-6.8154,16.5519,-40.8916,-16.551,-39.9173,15.5776,-11.2874,12.6566,
-14.6047,3.8939,1.9472,-12.657,9.736,23.3659,-18.4991,23.3659,-34.0767,-15.5781,-24.9173,8.7617,3.7126,-1.9472,
0.39532,10.2227,13.1437,-6.3283,16.0647,24.8269,-14.1171,20.9325,-33.5891,-8.2759,-18.9858,-0.48715,17.0381,-14.1171,
15.3953,8.2759,7.3016,-11.196,10.2227,18.9858,-6.3283,11.197,-37.4835,-18.9848,-31.6423,-15.4871,6.3283,-25.8003,
16.5514,3.8949,2.9215,-18.4982,0.97383,9.736,-0.97383,10.7103,-29.208,-28.2346,-19.4715,-14.6038,6.8159,-28.2346,
8.2759,2.4339,5.3549,-18.9858,3.4073,6.3283,-2.4339,10.2227,-25.8003,-26.7746,-6.3283,-3.4082,10.2227,-31.6423,
3.8939,4.8682,1.9472,-23.3668,8.7626,19.4715,-17.4339,23.3659,-29.208,-24.3402,-16.5514,-1.9472,5.8416,-29.208,
6.8154,8.7622,-3.8944,-13.6309,10.7098,34.4715,-27.2608,38.3659,-28.2351,-20.4463,-19.472,3.8944,9.7355,-14.208,
8.2759,0.48715,-9.2493,-7.3026,-0.48715,28.7213,-21.9059,34.5634,-43.2351,-31.6423,-25.8003,0.48715,1.4605,0.79202,
23.2759,11.6832,2.921,-1.9467,-0.97337,23.3664,-7.7888,49.5634,-58.2351,-34.0762,-31.1552,0.97337,-2.921,11.6832,
38.2759,20.4463,13.6309,-2.9201,0,31.1561,-7.7888,60.3636,-64.258,-33.1019,-36.0229,0,-0.97337,13.6309,
44.2993,6.3287,15.0909,-2.4343,-5.3544,31.6419,-15.0909,45.3636,-60.8503,-36.5106,-37.4839,2.4343,-5.3544,2.4343,
35.5367,2.4339,16.0647,3.4082,-5.3549,20.9325,-9.2493,30.3636,-52.0877,-28.7213,-33.5891,11.197,-2.4339,-2.4339,
20.5367,1.4605,11.197,-7.3016,-5.3549,5.9325,-11.196,36.5101,-37.0877,-20.9325,-39.4311,15.0914,0.48715,-0.48715,
5.5367,-1.4605,5.3549,-19.9591,1.4605,4.3815,-20.9325,40.4045,-22.0877,-18.0115,-33.5891,15.0914,7.3026,6.3283,
-9.4633,-0.48668,0.48668,-17.0386,2.4334,17.0376,-17.0386,45.2727,-14.1175,-12.1699,-18.5891,15.0909,17.0376,8.2755,
-12.1699,-8.2755,0.48668,-14.1175,1.4601,20.932,-11.1965,47.2194,-18.9853,0.48668,-10.2231,23.8531,21.9063,-0.48668,
-11.6827,-5.8416,5.8416,-14.6038,5.8416,21.4201,-12.6561,45.7599,-11.6827,11.6837,-6.815,38.8531,24.3402,-8.7617,
-18.0119,5.3544,4.3811,-17.0376,1.4601,15.0909,-17.0376,40.4049,-11.1965,-1.4601,-9.2488,31.6419,17.0386,-16.0643,
-3.0119,7.7893,7.7893,-10.7094,-1.9472,18.4982,-7.7893,44.7856,-26.1965,-16.4601,-17.5248,16.6419,6.815,-10.7094,
11.9881,7.3021,10.2222,-4.3811,-5.3554,29.6942,0.48668,54.0349,-41.1965,-28.7218,-28.7218,17.0376,-0.48668,-0.48668,
26.9881,22.3021,9.2488,-1.4601,-8.2755,24.8264,-1.4601,57.9293,-56.1965,-35.5363,-38.4573,26.7741,-10.2231,1.4601,
29.208,24.3402,11.6837,-0.97383,-12.657,17.5248,-11.6837,57.443,-52.5744,-38.9444,-39.9178,21.4192,-21.4192,0.97383,
32.6152,9.3402,16.0643,4.3811,-7.3021,21.9063,-9.2498,55.0082,-40.4049,-32.6162,-33.5895,20.932,-21.9063,-4.3811,
17.6152,2.4339,6.3283,5.3549,-2.4339,6.9063,-12.1703,40.0082,-38.4577,-24.8269,-25.8003,24.8269,-9.2493,-19.3811,
2.6152,13.1437,10.2227,1.4605,-1.4605,-8.0937,-17.0381,25.0082,-23.4577,-9.8269,-10.8003,39.8269,5.7507,-18.9858,
-11.6832,-0.97429,15.5776,-1.9477,0.97337,-13.6309,-16.5519,10.0082,-8.4577,0,4.1997,44.7851,20.7507,-19.4729,
-9.7365,-5.8421,10.7098,11.6832,7.7888,-12.6566,-8.7622,0,-5.8421,0,19.1997,46.7328,22.393,-31.1552,
-14.6038,2.9206,6.815,20.4458,4.8682,-27.6566,-11.6827,-7.7883,-15.5771,-2.9206,7.7893,49.6543,9.736,-37.9701,
-11.1965,4.3811,13.1432,21.9063,11.1965,-35.5372,-11.1965,-5.3554,-4.3811,4.3811,19.9587,53.0615,-5.264,-22.9701,
-11.1965,-3.4077,12.1699,25.8007,18.011,-29.6951,-7.3021,-4.3811,3.4077,16.0643,27.7475,63.7713,-6.3287,-7.9701,
-26.1965,-6.3278,11.1965,26.7741,7.3021,-41.3783,-11.1965,-19.3811,3.4077,18.9853,18.9853,78.7713,-5.3544,-3.4077,
-28.7213,-5.3549,16.0647,23.8535,7.3026,-56.3783,-10.2227,-34.3811,1.4605,24.8269,20.9325,88.1115,-9.2493,-1.4605,
-13.7213,-8.2759,18.0115,21.9059,19.9591,-65.7185,-6.3283,-49.3811,0.48715,27.7479,22.8802,80.3227,-8.2759,-0.48715,
-0.48668,-4.3811,21.9063,25.8007,18.9853,-61.8241,-6.3287,-64.3811,0.48668,24.8274,24.8274,81.2957,-0.48668,-4.3811,
-6.3283,-4.3815,13.1437,22.8792,13.1437,-63.7713,-9.2493,-63.7713,-1.4605,9.8274,26.7736,76.4274,1.4605,-19.3811,
-0.48715,-2.4339,10.2227,29.6947,25.8003,-61.8241,0.48715,-48.7713,-2.4339,-0.48715,24.8269,64.7452,12.1703,-24.8269,
-1.9472,4.8682,9.736,41.8645,18.4982,-65.2318,-3.8949,-42.8388,-17.4339,-8.7626,9.8269,49.7452,8.7626,-38.9444,
1.4605,18.9858,14.1171,53.062,17.0381,-59.8765,-1.4605,-39.4311,-21.9059,-5.3549,-1.4605,49.1676,10.2227,-49.1666,
-7.3021,3.9858,8.2755,38.062,12.1699,-64.7447,-0.48668,-51.1138,-15.0909,-12.1699,1.4601,45.2727,8.2755,-55.0082,
-5.3554,-10.2231,12.1699,27.7475,12.1699,-65.7185,3.4077,-61.8241,-3.4077,-7.3021,8.2755,51.1138,10.2222,-40.0082,
-1.9477,-0.97337,13.6299,31.1552,12.6566,-61.3374,4.8678,-65.2318,-4.8678,-2.921,2.921,54.5216,0.97337,-33.1028,
1.9472,7.7893,17.5248,35.05,15.5781,-46.3374,10.7103,-54.5216,-1.9472,-3.8939,-1.9472,61.3374,-3.8939,-25.3136,
3.8944,0.97337,19.472,32.1285,19.472,-31.3374,4.8678,-44.786,-1.9477,-0.97337,-5.8421,74.9678,-2.921,-10.3136,
-0.48715,0.48715,11.196,25.8003,18.0115,-35.5367,-1.4605,-38.4577,-16.0647,1.4605,-4.3815,86.1639,-5.3549,4.6864,
-2.4339,3.4073,7.3016,33.5891,8.2759,-35.5367,2.4339,-39.4311,-30.669,-6.3283,-5.3549,82.2695,2.4339,-6.3283,
-0.48668,2.4343,9.2498,41.3783,1.461,-40.404,0.48668,-49.1671,-37.4839,-6.3278,-17.0376,69.6134,8.2755,-19.9587,
0.48715,0.48715,1.4605,30.669,-0.48715,-46.2465,-3.4073,-47.2199,-33.5891,2.4339,-13.1437,61.8241,6.3283,-26.7736,
0.48668,1.4601,-7.3021,27.7475,2.4334,-33.5895,-1.461,-32.6162,-28.7218,5.3544,-0.48668,69.6125,8.2755,-18.0119,
0,9.7365,4.8678,40.8916,14.6042,-19.472,0,-17.6162,-30.1818,-0.97337,-0.97337,73.0202,17.5252,-17.5243,
-0.97337,18.4986,15.5776,38.944,20.4454,-23.3664,0.97337,-4.8678,-34.0762,-2.921,-6.8154,61.337,28.2351,-30.1818,
-5.3549,21.9059,9.2493,27.7479,10.2227,-27.7479,5.3549,-6.3283,-35.5367,-6.3283,-17.0381,48.1933,18.9848,-36.5101,
-0.48668,17.0386,6.3287,32.6162,6.3287,-19.9587,3.4077,-10.2222,-35.5363,-13.1432,-30.6685,43.326,3.9848,-45.2727,
14.5133,16.0647,12.1703,47.2199,12.1703,-11.196,1.4605,-11.196,-37.4835,-16.0647,-33.5891,42.3521,-1.4605,-55.9821,
21.4196,14.6042,8.7622,45.7594,7.7888,-18.4986,2.921,-14.6042,-36.9972,-18.4986,-29.2084,38.944,-2.921,-54.5216,
16.551,17.5243,7.7888,36.9963,8.7622,-21.4196,7.7888,-7.7888,-21.9972,-9.7365,-18.4986,45.7594,-8.7631,-40.8916,
1.551,14.1171,7.3016,30.669,15.0904,-20.9325,4.3815,-11.196,-6.9972,-4.3815,-7.3016,53.061,-8.2759,-40.4045,
-9.2488,3.4077,4.3811,28.7218,16.0643,-27.7475,-2.4343,-26.196,0.48668,7.3021,-0.48668,54.0349,-3.4077,-38.4573,
-2.4339,-1.4605,10.2227,31.6423,13.1437,-25.8003,4.3815,-30.668,-3.4072,20.9325,1.4605,57.9297,-2.4339,-30.668,
2.4339,-2.4339,18.9858,33.59,7.3026,-28.7213,10.2227,-25.8003,-16.0647,9.2493,-8.275,56.9564,-5.3549,-45.668,
-0.48668,1.461,9.2498,22.8797,0.48668,-36.5096,7.3021,-30.6685,-31.0647,-5.7507,-20.932,47.2204,1.461,-59.876,
5.3554,-2.4343,4.3811,12.1699,6.3287,-34.5629,10.2231,-29.6951,-38.4573,-13.1432,-20.932,36.5105,2.4343,-53.0615,
12.1699,-0.48668,15.0909,19.9587,17.0376,-23.8531,19.9587,-16.0643,-23.8531,-6.3287,-12.1699,44.2984,0.48668,-42.3517,
-2.4339,6.3283,6.3283,18.9848,10.2227,-28.7213,7.3016,-23.8535,-19.9591,-15.0914,-13.1437,47.2199,2.4339,-34.5634,
3.8949,16.5514,0.97383,19.4724,8.7626,-33.1024,-0.97383,-36.0234,-11.6827,-12.657,-6.815,48.68,17.4339,-22.3926,
12.1699,12.1699,3.4077,30.6685,8.2755,-35.5372,-3.4077,-34.5629,-21.9063,-14.1175,-8.2755,45.2727,8.2755,-37.3926,
10.7089,16.551,18.4077,45.6685,17.5243,-25.314,0,-19.5629,-31.1561,-6.8154,-8.7631,50.6272,0,-34.0762,
1.9472,17.5248,18.4991,52.5753,5.8416,-28.2346,-8.7626,-4.5629,-28.2346,-11.6827,-18.4982,40.8912,1.9472,-20.4458,
11.6832,12.6575,6.8154,42.8384,2.921,-35.0496,-2.921,-19.472,-21.4187,-16.551,-17.5243,35.0496,12.6575,-34.0762,
5.3544,-1.4601,1.4601,27.8384,10.2231,-47.2194,3.4077,-34.472,-36.4187,-14.1175,-22.8797,37.4839,10.2231,-49.0762,
-5.3549,-1.4605,9.2493,13.1437,13.1437,-49.1666,6.3283,-47.2199,-45.2722,0.88246,-34.5624,40.4045,7.3026,-58.9031,
-11.196,-2.4339,8.2759,11.197,2.4339,-53.061,9.2493,-50.1409,-40.4045,3.4072,-40.4045,32.6157,8.2759,-55.9821,
-7.3021,0.48668,12.1699,26.197,8.2755,-45.2727,18.9853,-35.1409,-30.6685,-0.48668,-31.6419,44.2993,18.0119,-57.9293,
-4.8682,4.8682,16.5514,28.2346,16.5514,-39.9178,11.6827,-20.1409,-33.1024,-6.815,-32.129,46.7332,17.5248,-62.3108,
-2.921,9.7365,12.6566,18.4986,14.6042,-44.786,2.921,-19.472,-44.786,-15.5776,-30.1818,31.7332,13.6309,-62.3103,
-3.4077,7.3021,3.4077,28.7218,4.382,-46.2461,3.4077,-24.8264,-36.5096,-19.9587,-21.9054,22.8797,12.1708,-59.876,
-6.3283,6.3283,14.118,41.3788,7.3026,-40.4045,16.0647,-16.0638,-21.5096,-14.1171,-17.0381,37.8797,18.0124,-55.9821,
-12.1699,8.2755,22.8797,37.4839,16.0643,-34.5629,16.0643,-12.1699,-23.854,-8.2755,-18.9853,45.2727,18.0119,-59.8769,
-11.6832,3.8944,7.8797,33.1028,3.8944,-31.1552,3.8944,-15.5776,-31.1552,-3.8944,-19.472,37.9706,10.7098,-67.179,
-3.8944,8.7631,3.8944,38.944,-6.8154,-25.3131,10.7098,-8.7622,-16.551,6.8154,-15.5776,43.8127,13.6309,-63.2837,
-15.0914,5.3549,5.3549,33.5891,-4.3815,-26.7746,6.3283,-2.4339,-19.9591,2.4339,-20.9325,40.4045,8.2759,-59.8765,
-22.8802,-2.4339,3.4073,29.6947,1.4605,-16.0647,-1.4605,3.4073,-21.9059,1.4605,-15.0914,42.3512,9.2493,-51.1143,
-18.9848,-1.4605,-1.4605,31.6423,3.4072,-22.8792,5.3549,1.4605,-13.1437,2.4339,-11.196,49.1666,11.196,-49.1666,
-18.4982,4.8682,2.9215,35.05,-1.9472,-37.8792,5.8416,1.9472,-16.5505,-5.8416,-18.4982,43.8122,9.736,-52.5744,
-15.0904,12.1703,17.9215,44.2989,-5.3549,-22.8792,2.4339,16.9472,-15.0904,-2.4339,-13.1437,49.1676,15.0914,-45.2722,
-9.736,4.8682,10.7103,36.0234,-6.815,-18.4982,-1.9472,12.657,-20.4449,1.9472,-16.5505,58.4164,8.7626,-43.8122,
0,0,1.9477,32.1295,-4.8678,-33.4982,5.8421,-0.97337,-29.2075,2.921,-22.393,67.179,4.8687,-33.1019,
1.4601,-1.461,1.4601,34.5629,-12.1708,-26.7741,4.3811,-0.48668,-27.7484,0.48668,-21.9063,66.6914,6.3278,-27.7484,
1.4601,12.1699,-0.48668,31.6419,-13.1442,-11.7741,-1.4601,14.5133,-17.0386,-2.4343,-13.1442,59.8769,5.3544,-30.6685,
0.48668,20.933,-3.4077,29.6951,-4.3811,0.48668,-0.48668,29.5133,-11.1965,-2.4334,-8.2755,53.0615,2.4343,-27.7475,
-1.4605,12.1703,-1.4605,33.59,-2.4339,-3.4073,4.3815,33.59,-8.2759,1.4605,-3.4073,55.9821,10.2227,-19.9591,
-1.4601,3.4077,-3.4077,34.5629,-17.4339,3.4077,-0.48668,32.6152,-15.0909,0.48668,-11.1965,63.7713,8.2755,-19.9587,
-1.4605,8.2759,1.4605,36.5101,-17.0381,3.4082,-2.4339,35.5367,-21.9059,-1.4605,-25.8003,65.7185,2.4339,-24.8269,
-15.0904,10.2227,5.3549,33.5891,-10.2227,-7.3016,0.48715,31.6423,-25.8003,-0.48715,-26.7736,64.7452,5.3549,-26.7736,
-20.4449,11.6837,-1.9472,35.05,-11.6827,-10.7094,3.8949,34.0767,-29.208,1.9472,-17.5248,69.1262,8.7626,-24.3393,
-14.6033,12.6575,-3.8944,40.8916,-12.6566,-5.8411,3.8944,37.9706,-30.1809,3.8944,-26.2865,70.1001,6.8154,-20.4454,
-15.5776,7.7888,0.97337,38.944,-7.7888,-10.7098,-0.97337,32.1285,-38.944,2.921,-41.2865,67.179,0.97337,-23.3664,
-12.1703,13.1437,5.3549,36.5101,0.48715,-11.196,4.3815,36.5101,-39.4311,-4.3815,-40.4045,69.6129,-0.48715,-36.5101,
-8.7617,19.4724,8.7626,41.8655,-1.9472,-8.7617,12.657,42.8388,-33.1024,-5.8416,-36.9968,72.0473,1.9472,-42.8379,
-15.0904,11.197,6.3283,43.3255,-15.0904,-12.1703,-0.48715,37.4835,-33.5891,0.48715,-45.2722,66.6919,4.3815,-29.6947,
-5.3549,9.2493,7.3016,40.4045,-16.0647,-9.2493,-5.3549,47.2199,-31.6423,5.3549,-36.511,71.5597,5.3549,-16.0647,
0.48715,14.1171,-0.48715,38.4577,-14.1171,-11.196,-1.4605,57.9297,-22.8792,4.3815,-23.8535,84.2171,3.4072,-19.9591,
-5.8421,14.6042,-0.97337,43.8117,-8.7622,-16.551,0.97337,50.6272,-10.7098,9.7365,-20.4454,95.4132,8.7622,-12.6566,
-4.8678,15.5776,0,40.8916,-5.8421,-13.6309,-3.8944,45.7594,-14.6042,9.7365,-20.4454,91.5188,8.7622,0,
0.97383,18.4982,-4.8682,33.1024,-9.736,-4.8682,-13.6304,56.4688,-24.3402,5.8416,-26.2879,88.5982,-0.97383,2.9206,
4.8673,16.5505,-1.9472,35.0491,-11.6837,1.9472,-13.6313,64.2575,-25.3145,11.6827,-41.2879,93.466,-3.8949,-2.9215,
3.8939,12.657,-0.97383,36.9968,-7.7893,0.97383,-6.815,62.3108,-24.3402,10.7094,-52.5744,90.545,-0.97383,-13.6304,
0,20.4454,0.97337,41.865,-3.8944,0,-2.921,67.1781,-27.2617,9.7355,-50.6281,88.5978,0,-16.5519,
0.97383,22.3926,8.7626,49.6533,-13.6304,-0.97383,-9.736,73.994,-32.129,13.6304,-56.4688,97.3604,-5.8416,-10.7094,
4.8678,17.5252,12.6566,36.0239,-13.6299,-4.8678,-5.8411,69.1258,-30.1818,8.7622,-59.3893,106.123,-10.7098,-11.6832,
-2.4343,21.9063,15.0909,29.6951,-0.48668,-7.3021,0.48668,58.9026,-19.9596,11.1965,-51.1148,104.662,-5.3554,-23.854,
-6.3287,25.8007,12.1699,44.2993,-3.4077,0.48668,-2.4343,58.9026,-17.0386,18.0119,-43.325,95.8999,-0.48668,-29.6951,
-2.4339,22.8792,7.3016,45.2722,-2.4339,-1.4605,1.4605,57.9288,-27.7479,3.4072,-44.2989,86.1639,-11.197,-23.8535,
-3.8939,23.3668,8.7626,37.9711,1.9472,-16.4605,2.9215,50.6276,-28.2346,-1.9472,-43.8122,93.466,-17.5248,-12.6561,
0.48715,20.9325,17.0381,42.3521,-7.3016,-31.4605,-0.48715,47.2199,-16.0647,13.0528,-31.6423,106.6102,-13.1437,-8.2759,
3.8949,7.7893,6.815,36.0234,-17.5248,-46.4605,-3.8949,32.2199,-22.3925,14.6038,-27.2612,97.3604,-20.4458,-16.5514,
3.4077,7.3021,0.48668,33.5895,-5.3544,-55.0082,-0.48668,17.2199,-33.5895,6.3287,-19.9587,97.8475,-23.8531,-5.3544,
-2.4343,14.1175,14.1175,44.2993,2.4343,-63.7713,-1.4601,2.2199,-30.6685,9.2498,-19.9587,105.6363,-18.0119,-1.4601,
-8.2755,17.0386,18.9853,52.0881,3.4077,-68.6391,4.3811,-3.4077,-27.7475,14.1175,-29.6951,101.7419,-9.2488,-13.1432,
-9.2488,9.2488,10.2231,46.2461,10.2231,-81.2961,11.1965,-18.4077,-39.4307,12.1699,-32.6162,96.8742,-12.1699,-21.9063,
-1.4601,1.4601,8.2755,36.5105,4.3811,-96.2961,9.2498,-33.4077,-39.4307,8.2755,-27.7475,98.8209,-17.0376,-18.9853,
0.97337,5.8421,10.7098,39.9183,-0.97337,-109.0436,9.7365,-48.4077,-24.4307,8.7631,-23.3664,100.2819,-8.7622,-22.393,
-13.1437,1.4605,2.4339,42.3521,14.0266,-118.2929,18.9858,-61.8232,-20.9325,12.1703,-18.0115,91.0326,-1.4605,-36.5101,
-18.9853,-0.48668,0.48668,39.4307,24.8274,-128.0289,20.933,-66.6919,-18.0119,18.9853,-6.3287,92.9788,5.3544,-34.5629,
-18.9853,4.3811,-2.4343,38.4573,9.8274,-116.3457,5.933,-54.0349,-12.1699,16.0643,-12.1699,100.7686,5.3544,-23.8531,
-15.0909,13.1442,2.4343,50.1405,1.4601,-101.3457,-1.4601,-39.0349,-11.1965,20.933,-14.1175,106.6097,6.3287,-10.2231,
-10.7098,15.5776,0.97337,54.5216,1.9467,-86.3457,0,-24.0349,-25.314,27.2608,-16.5519,99.3076,0,-4.8687,
4.2902,19.9587,-1.4601,55.0082,-2.4343,-86.1643,8.2755,-16.0643,-31.6419,13.1432,-28.7218,99.7943,-3.4077,1.4601,
19.2902,16.5514,1.9472,54.522,-10.7094,-71.1643,16.5514,-13.6304,-39.9178,-1.8568,-35.05,106.1235,-5.8416,12.657,
9.7355,1.5514,0,42.8384,-19.472,-76.9146,12.6566,-28.6304,-45.7594,2.921,-31.1552,101.2552,-9.7365,15.5776,
-3.4077,3.4077,5.3544,42.3517,-5.3554,-86.1643,11.1965,-36.5105,-30.7594,17.921,-18.0119,106.6097,-11.1965,13.1432,
-16.0647,11.196,8.2759,47.2199,6.3283,-75.4545,10.2227,-28.7213,-15.7594,14.1171,-10.2227,107.5835,-18.0115,-1.8568,
-16.0647,10.2227,16.0647,47.2199,10.2227,-67.6657,17.0381,-22.8802,-11.197,10.2227,-10.2227,93.9527,-14.1171,-16.8568,
-2.9206,5.8416,9.736,38.9444,2.9206,-81.7828,19.4724,-24.3402,-23.3668,7.7893,-21.4192,81.7828,-19.4724,-23.3668,
1.4605,6.3283,2.4339,41.3788,-1.4605,-79.3489,18.0115,-21.9059,-25.8003,2.4339,-24.8269,84.2171,-23.8535,-16.0647,
-11.6832,8.7622,16.551,46.7328,13.5395,-72.0468,20.4454,-31.1552,-10.8003,15.5776,-16.551,88.5978,-8.8535,-15.5776,
-26.6832,0.97337,17.5252,33.1028,23.3664,-83.73,22.393,-46.1552,-0.97337,29.2084,-8.7622,87.6244,-0.97337,-30.5776,
-39.9178,-1.9472,7.7883,27.2603,12.657,-91.5193,18.4982,-61.1552,-8.7626,26.2869,-4.8682,88.5982,1.9472,-34.0767,
-53.5487,-0.97337,0.97337,31.1552,5.8411,-90.5454,12.6566,-70.0996,-16.5519,12.6566,-7.7888,81.7823,2.921,-31.1552,
-42.8384,-0.97337,0.97337,28.2341,13.6299,-75.5454,19.472,-59.3902,-7.7888,23.3664,-4.8678,83.73,8.7622,-34.0762,
-27.8384,-3.8944,3.8944,26.2874,15.5776,-60.5454,21.4187,-44.3902,-6.8154,32.1285,-3.8944,93.4655,9.7355,-30.1818,
-31.6428,0.48668,4.3811,33.5895,4.3811,-62.798,12.1699,-29.3902,-16.0643,17.1285,-15.0909,86.1634,-0.48668,-19.9587,
-32.6162,14.1175,1.4601,35.5363,0.48668,-49.1671,9.2488,-14.3902,-13.1432,13.1432,-16.0643,86.1643,-1.4601,-9.2488,
-27.7479,13.1437,-4.3806,31.6423,1.4605,-34.5624,5.3549,-1.4605,-7.3016,22.8802,-7.3016,98.8214,6.3283,-4.3806,
-25.3131,3.8944,-5.8411,32.1295,-8.7622,-41.865,-2.921,2.921,-4.8678,32.1295,-12.6566,104.1763,4.8678,4.8678,
-19.9591,7.3026,1.4605,37.4835,-15.0904,-36.5101,-3.4073,12.1703,-1.4605,34.5634,-17.0381,109.5303,-1.4605,19.8678,
-21.9063,4.3811,1.4601,35.5363,-15.0909,-21.5101,-8.2755,14.1175,-9.2498,24.8264,-6.3287,103.6887,-1.4601,22.8797,
-21.4187,0,-4.8678,27.2608,-13.6299,-30.1818,0,7.7888,-17.5243,21.4196,-1.9467,94.4398,3.8944,7.8797,
-12.6566,10.7098,0.97337,28.2341,-5.8421,-44.786,13.6309,-3.8944,-16.551,24.3397,-10.7098,96.3866,5.8421,-0.97337,
-22.8792,6.3283,0.48715,26.7746,-7.3016,-54.0353,2.4339,-4.3815,-19.9591,9.3397,-14.1171,92.9793,1.4605,-0.48715,
-22.3925,0.97383,-1.9472,25.3136,-8.7626,-52.5744,4.8682,5.8416,-18.4982,7.7893,-5.8416,97.3604,1.9472,-0.97383,
-12.1703,8.2759,0.48715,25.8003,1.4605,-40.4045,18.9858,-0.48715,-14.1171,20.9325,-9.2493,100.7681,-3.4072,-6.3283,
-16.5514,0.97383,3.8939,33.1024,12.657,-32.129,18.4982,-6.815,-3.8949,27.2612,-8.7626,105.1492,-0.97383,-1.9472,
-31.1556,-14.0262,4.8682,34.0757,6.815,-44.7856,12.657,-4.8682,-2.9206,25.3136,-14.6038,104.1758,2.9206,-9.736,
-24.3397,-29.0262,13.6309,36.0239,7.7888,-42.8384,15.5776,-0.97337,-10.7098,29.2084,-20.4454,105.1496,0.97337,-14.6042,
-17.5248,-32.129,11.6827,39.9178,13.6304,-34.0767,13.6304,-0.97383,-8.7626,33.1024,-15.5781,97.3604,0.97383,-4.8682,
-26.7736,-34.5624,1.4605,33.59,9.2493,-44.2989,13.1437,-2.4339,-1.4605,28.7213,-19.9591,87.1382,5.3549,-6.3283,
-25.314,-38.944,0.97337,25.314,15.5776,-45.7594,21.4187,-0.97337,-8.7622,22.393,-26.2874,82.7566,0.97337,-21.3283,
-16.0643,-38.4573,7.3021,30.6685,19.9596,-32.6152,19.9596,-0.48668,-19.9587,19.9596,-14.1166,78.3755,0.48668,-26.7741,
-3.4077,-36.5096,3.4077,28.7218,4.9596,-39.4307,11.1965,-7.3021,-18.011,16.0652,-12.1699,78.3755,8.2755,-14.1166,
4.3811,-40.4049,6.3287,15.0909,-4.3811,-54.0349,9.2498,-18.0119,-17.0376,6.3287,-26.7741,74.4811,4.3811,-20.932,
0,-41.865,13.6309,22.393,3.8944,-49.6538,10.7098,-13.6299,-19.472,6.8154,-18.4986,73.0202,0,-26.2874,
-3.4077,-37.4839,3.4077,36.5105,8.2755,-44.2984,12.1708,-6.3278,-15.0909,18.9853,-3.4986,82.2699,14.1175,-18.9853,
1.4605,-35.5367,-1.4605,30.669,6.3283,-42.3512,12.1703,-1.4605,-8.275,20.9325,-6.3283,88.1115,22.8802,-16.0638,
-8.7631,-34.0762,0,22.393,0,-45.7594,6.8145,2.9201,-15.5776,11.6832,-18.4986,77.8879,11.6832,-19.472,
-21.4187,-31.1552,-2.921,30.1818,2.921,-51.6005,4.8687,8.7631,-20.4454,8.7631,-24.3397,78.8622,7.7888,-14.6042,
-14.1175,-41.3783,-9.2498,21.9054,8.2755,-47.2204,7.3021,9.2488,-21.9063,11.1965,-21.9063,93.8622,10.2222,-7.3021,
-12.1694,-50.14,-4.3806,12.1703,2.4339,-35.5367,7.3026,13.1437,-14.1171,16.0647,-13.1437,101.7424,14.118,-2.4339,
-27.1694,-42.3517,0.48668,19.9596,4.3811,-31.6419,-0.48668,18.0119,-7.3021,21.9063,-9.2488,86.7424,16.0643,-5.3544,
-36.9972,-27.3517,0.97337,28.2341,15.5776,-26.2874,-2.921,33.0119,-0.97337,31.1552,-2.921,87.6244,25.3131,-3.8944,
-27.7479,-30.669,-4.3815,25.8003,4.3806,-27.7479,-3.4082,35.5367,-1.4605,27.7479,1.4605,92.9793,27.7479,-5.3549,
-21.9063,-30.6685,0.48668,27.7484,-1.4601,-30.6685,9.2498,29.6951,-0.48668,21.9063,-0.48668,91.0321,26.7741,-8.2755,
-26.7741,-42.3517,-0.48668,15.0909,0.48668,-41.3783,4.3811,21.9063,-11.1965,9.2498,-15.4867,76.0321,11.7741,-18.9853,
-11.7741,-37.9706,8.7622,18.4986,9.7355,-26.3783,4.8678,36.9063,-7.7888,16.551,-13.6309,75.9412,-3.2259,-7.7888,
-8.2755,-32.6152,4.3811,22.8797,-1.4601,-19.9587,3.4077,39.4316,-13.1432,16.0652,-18.011,85.191,-0.48668,0.48668,
-11.6832,-30.1818,1.9477,19.472,-2.921,-22.393,4.8678,30.1818,-28.1432,6.8154,-30.1818,91.5188,0,0,
-2.9201,-32.1285,4.8687,17.5252,0,-26.2874,2.921,28.2351,-31.1552,2.921,-34.0762,89.5721,-2.9201,0,
2.4343,-33.5895,3.4077,19.9587,-13.1442,-28.7218,-1.4601,32.6162,-32.6162,2.4343,-31.6419,82.2699,-0.48668,0.48668,
5.3544,-25.8007,3.4077,16.0643,-7.3021,-25.8007,0.48668,26.7741,-42.3517,-0.48668,-30.6685,70.5858,3.4077,-6.3287,
0,-27.2608,3.8944,9.7365,0,-33.1028,6.8154,12.6566,-41.865,-3.8944,-35.0496,60.3636,1.9477,-19.472,
-7.3021,-32.6162,7.3021,10.2222,-7.3021,-37.4839,17.0376,8.2755,-26.865,10.2222,-27.7484,75.3636,9.2488,-21.9063,
-19.4729,-33.1028,3.8944,3.8944,-3.8944,-35.0505,6.8145,13.6299,-11.865,24.3397,-12.7484,90.3636,12.6566,-13.6309,
-21.4192,-26.2869,-0.97383,0.97383,11.1056,-29.208,-2.9206,27.2612,-4.8682,29.208,2.2516,92.4926,17.5248,-3.8939,
-23.8535,-28.7213,-2.4339,4.3815,11.197,-23.8535,2.4339,33.59,-11.196,28.7213,-4.3806,92.0059,16.0647,-4.3806,
-17.5248,-18.4991,-0.97383,16.5514,0.97383,-8.8535,5.8416,36.9968,-3.8949,35.05,-16.5514,96.387,10.7094,-1.9472,
-12.6575,-8.7631,-2.921,19.472,0,4.8678,0,44.7851,-10.7098,32.1285,-24.3407,91.5188,8.7622,-0.97429,
-2.921,-18.4986,0.97337,15.5776,6.8154,-5.8411,-0.97337,53.5482,-25.7098,22.393,-31.1552,80.809,4.8678,-8.7622,
11.6832,-27.2608,2.921,12.6566,6.8154,-2.921,-7.7888,48.6804,-29.2084,11.6832,-42.8384,68.1524,-8.7622,-19.472,
12.1708,-22.8797,0.48668,10.2231,-0.48668,0.48668,-17.0376,38.4573,-28.7208,3.4077,-55.0082,61.8246,-17.0376,-24.8264,
19.4729,-15.5776,5.8421,6.8154,0,0,-2.9201,38.9449,-43.7208,4.8687,-53.5482,67.179,-14.6033,-27.2608,
30.669,-22.8792,3.4082,-2.4339,7.3026,1.4605,-1.4605,35.5367,-57.9288,2.4339,-52.0877,63.7718,-18.9848,-26.7736,
32.1285,-18.4986,6.8154,0,5.8421,10.7098,-10.7098,36.0229,-42.9288,0,-50.6272,61.337,-14.6042,-22.393,
28.7208,-3.4986,13.1432,1.4601,-0.48668,12.1699,-5.3554,42.3517,-27.9288,0.48668,-47.2204,61.8237,-0.48668,-25.8007,
26.7741,-2.4343,3.4077,-3.4077,1.4601,9.2488,0.48668,48.1937,-32.6162,-3.4077,-43.326,55.9825,-0.48668,-25.8007,
41.7741,-5.3549,6.3283,0.48715,4.3815,21.9059,-0.48715,60.8498,-32.6157,-1.4605,-30.669,69.6129,-2.4339,-10.8007,
49.1666,-11.197,9.2493,2.4339,-5.3549,23.8535,-2.4339,59.8765,-37.4835,-2.4339,-34.5634,76.4283,-2.4339,4.1993,
36.9972,-7.7888,5.8411,0.97337,-6.8154,19.472,0,55.4949,-49.6538,-6.8154,-49.5634,61.4283,0,-6.8154,
29.2084,-0.97337,5.8421,0.97337,-0.97337,22.393,0.97337,66.2047,-56.4692,-3.8944,-52.5748,51.6015,-0.97337,-6.8154,
26.2874,-5.8421,11.6832,2.921,-4.8678,16.551,-0.97337,70.0991,-56.4692,0.97337,-52.5748,63.2846,-11.6832,-3.8944,
11.6832,-9.7365,6.8154,7.7888,-8.7622,6.8154,-0.97337,65.2314,-50.6272,0.97337,-58.416,51.6015,-14.6042,-18.8944,
3.8944,-3.8944,0,11.6832,-10.7098,5.8421,0,59.3902,-35.6272,1.9467,-47.7071,36.6015,-5.8421,-32.1285,
11.196,-7.3026,9.2493,7.3016,-6.3283,-1.4605,-6.3283,46.2465,-20.6272,5.3549,-32.7071,51.6015,1.4605,-23.8535,
11.1965,-14.1175,17.0376,8.2755,-0.48668,-15.0909,-17.0386,43.325,-9.2498,11.1965,-17.7071,66.6015,0.48668,-16.0643,
13.1437,-4.3815,24.8269,23.2755,-0.48715,-8.2759,-3.4073,58.325,-2.4339,22.8802,-13.1437,75.4541,0.48715,-11.196,
0.48668,-7.3021,16.0643,23.8531,-6.3287,-7.3021,-0.48668,56.9559,-10.2231,18.9853,-17.0386,68.6391,0.48668,-17.0386,
-8.7626,-9.736,13.6304,19.4724,-2.9206,-14.6038,-13.6304,46.7332,-5.8416,20.4458,-2.0386,80.8094,8.7626,-10.7094,
-10.7103,-17.5248,15.5771,17.5248,-2.9215,-28.2346,-12.657,31.7332,-1.9472,24.3402,12.9614,82.7562,1.9472,-8.7626,
-11.1965,-21.9063,14.1175,17.0386,2.4343,-40.4049,2.343,16.7332,-9.2488,23.8531,13.1432,81.2957,-3.4077,-11.1965,
-21.9063,-33.5895,4.3811,7.3021,-0.48668,-55.4049,0.48668,1.7332,-24.2488,10.2231,5.3544,68.6391,3.4077,-18.0119,
-14.1171,-38.4577,10.2227,8.275,2.4339,-70.4049,-2.4339,-13.2668,-22.8802,10.2227,11.196,53.6391,16.0647,-14.1171,
-25.3136,-45.7599,1.9472,9.736,0.97383,-84.7038,-0.97383,-28.2668,-28.2346,1.9472,3.8939,38.9444,7.7883,-27.2612,
-39.9178,-36.9968,-1.9472,22.3926,7.7883,-83.73,3.8939,-36.0234,-28.2346,1.9472,1.9472,46.7332,10.7094,-31.1556,
-36.9963,-33.1019,1.9477,19.4729,0,-90.545,0,-49.6538,-30.1818,5.8421,0.9743,45.7594,10.7098,-26.2874,
-21.9963,-36.5105,3.4077,9.2488,6.3278,-97.8475,0.48668,-64.6538,-27.7475,10.2231,-0.48668,51.1138,7.3021,-18.0119,
-14.1171,-28.7213,4.3815,15.0914,21.3278,-98.8209,6.3283,-66.6919,-19.9591,11.196,-3.4072,66.1138,3.4072,-16.0647,
-10.7098,-15.5776,8.7622,23.3664,17.5252,-97.3604,6.8154,-51.6919,-14.6042,23.3664,2.921,81.1138,-2.921,-8.7622,
-9.2493,-18.0115,17.0381,33.59,2.5252,-95.8999,1.4605,-44.2989,-12.1694,38.3664,5.3549,77.4017,-5.3549,6.2378,
-10.7098,-15.5776,23.3664,48.59,-7.7888,-84.7034,0.97337,-33.1028,-2.921,53.3664,5.8421,92.4017,-0.97337,19.472,
-25.7098,-18.4982,8.3664,43.8122,-5.8416,-83.7295,-2.9206,-31.1547,1.9472,60.3641,11.6837,107.4017,-1.9472,5.8416,
-40.7098,-28.2346,-5.8416,28.8122,-6.815,-91.5188,-1.9472,-46.1547,1.9472,61.3374,26.2869,110.9912,9.736,5.8416,
-55.7098,-38.4573,-7.3021,13.8122,-11.1965,-92.9793,1.4601,-61.1547,3.4077,56.9559,36.5105,95.9912,23.8531,-1.4601,
-58.9031,-37.4839,-0.48668,-1.1878,0.48668,-90.0583,7.3021,-73.5069,17.0386,41.9559,42.3517,82.2699,31.6428,-16.4601,
-49.6533,-43.8122,0.97383,-0.97383,-1.9472,-93.466,5.8416,-73.994,8.7626,26.9559,35.05,71.073,22.3935,-31.4601,
-38.4573,-43.325,3.4077,14.0262,-11.1965,-81.2957,11.1965,-64.7447,-3.4077,32.6162,29.6951,73.5078,22.8797,-16.4601,
-44.7856,-37.9711,-1.9472,11.6837,-12.657,-79.8356,1.9472,-55.4954,-15.5781,23.3668,18.4982,73.0206,16.5514,-1.4601,
-39.4316,-22.9711,-1.461,15.0909,-0.48668,-70.5868,0.48668,-40.4954,-20.933,12.1699,15.0909,73.5069,11.1965,13.5399,
-34.5629,-23.8531,-0.48668,15.0909,-6.3287,-55.5868,13.1432,-33.5895,-32.6162,18.0119,13.1432,77.4013,0.48668,26.7741,
-34.0762,-27.2608,5.8421,2.921,-3.8944,-49.6538,19.472,-38.944,-37.9706,33.0119,12.6566,92.4013,-2.921,28.2351,
-29.2075,-30.1818,5.8421,-3.8944,3.8944,-56.4683,8.7631,-46.7328,-36.9963,39.9183,5.8421,103.2029,-5.8411,23.3673,
-23.3659,-31.1547,1.9472,5.8425,-1.9472,-50.6267,5.8425,-48.68,-28.2337,37.9711,2.9215,102.2291,-14.6038,23.3668,
-27.7475,-30.6685,6.3287,18.0119,-6.3287,-49.1671,6.3287,-40.4049,-15.0909,38.4573,11.1965,93.9531,-6.3287,20.933,
-42.7475,-35.0496,8.7622,11.6832,-5.8421,-62.3108,0.97337,-37.9706,-9.7365,32.1285,20.4454,80.809,8.6713,5.933,
-51.1138,-37.4839,0.48668,-0.48668,-6.3287,-66.6919,9.2488,-51.1138,5.2635,24.8274,26.7741,77.4013,21.9063,-9.067,
-50.1409,-26.7746,-1.4605,-6.3283,1.4605,-54.0353,20.9325,-54.0353,20.2635,35.5367,41.3779,91.0316,32.6157,-5.3549,
-62.3108,-28.2341,-1.9477,-15.5776,1.9477,-48.6804,8.7622,-57.4426,35.2635,44.786,45.7594,93.4665,40.8916,-1.9477,
-72.0468,-36.0234,-4.8678,-13.6309,4.8678,-40.8916,7.7888,-63.2842,35.0496,51.6015,50.6272,95.4132,48.6804,-12.6566,
-78.3751,-39.4311,-14.1171,-19.9591,13.1437,-45.2727,15.0914,-66.6919,33.5891,49.1676,46.2465,101.7415,45.2722,-13.1437,
-70.5863,-44.2993,-22.8797,-32.6162,-0.48668,-53.0615,0.48668,-62.7975,18.5891,34.1676,31.2465,96.8742,30.2722,0.48668,
-55.5863,-29.2993,-7.8797,-17.6162,-6.8145,-38.0615,9.7365,-47.7975,3.5891,29.2084,16.2465,109.044,15.2722,15.4867,
-40.5863,-14.2993,7.1203,-2.6162,-7.3021,-23.0615,24.7365,-32.7975,-10.2231,26.7741,1.2465,109.5307,1.4601,30.4867,
-25.5863,-16.551,20.4463,12.3838,0,-24.3397,28.2351,-27.2608,-5.8411,29.2084,0,103.2029,-2.9201,20.4463,
-34.0757,-29.208,9.736,0.97383,-5.8416,-33.1024,13.2351,-42.2608,-8.7626,24.3402,1.9472,88.2029,-0.97383,5.4463,
-40.4049,-31.6419,8.2755,1.4601,-3.4077,-35.5363,8.2755,-57.2608,-1.4601,24.8264,5.3544,83.2433,10.2231,-2.4343,
-54.0349,-27.7475,0.48668,-4.3811,2.4343,-43.3255,-0.48668,-60.8503,10.2231,32.6162,20.3544,91.0321,11.1965,-2.4334,
-69.0349,-29.2084,-0.97337,-13.6309,8.7622,-46.7332,-1.9477,-64.258,21.4196,43.8127,35.3544,97.3608,17.5253,0.97337,
-80.3223,-41.3783,0.48715,-20.9325,7.3026,-53.0615,-0.48715,-79.258,18.0115,38.4577,41.3788,93.9527,20.9325,-5.3549,
-75.4541,-43.3251,1.4605,-17.0381,10.2236,-49.1666,-1.4605,-82.2695,18.0124,40.4045,41.3788,98.8214,24.8269,-5.3549,
-73.5073,-36.5101,-4.3815,-12.1703,8.2759,-47.2199,-4.3815,-76.4279,15.0914,44.2989,29.6947,100.7681,19.9591,4.3815,
-75.4545,-33.5895,-4.382,-4.382,0.48668,-51.1148,-0.48668,-69.6129,7.3021,38.4573,14.6947,94.9265,8.2755,12.1699,
-63.2842,-34.0762,0,-5.8411,0,-43.8117,3.8944,-65.2314,-5.8411,29.2084,6.8154,90.5454,0,4.8678,
-48.2842,-31.1552,5.8421,-11.6832,1.9477,-30.1818,1.9477,-56.4688,-10.7089,26.2874,0,90.5454,0,9.7365,
-33.2842,-23.3664,20.8421,3.3168,-1.9467,-18.4986,4.8678,-41.4688,-0.97337,31.1552,-2.921,93.4665,0.97337,24.7365,
-18.2842,-13.6304,28.2346,18.3168,-1.9472,-9.736,12.657,-26.4688,1.9472,31.1556,-3.8949,101.2548,-1.9472,31.1556,
-3.2842,-7.7893,18.4982,28.2346,-3.8949,-0.97383,12.657,-11.4688,-4.8682,26.2869,-6.815,109.0436,-2.9206,44.7856,
-4.3811,-10.2231,13.1432,18.9853,-12.1699,-0.48668,5.3544,-5.3544,-7.3021,22.8797,-5.3544,106.6097,0.48668,54.0349,
-19.3811,-22.8792,9.2493,6.3283,-17.0381,-9.2493,2.4339,-20.3544,-10.2227,19.9591,-2.4339,101.7424,4.3815,39.0349,
-34.3811,-29.6951,7.3021,-1.4601,-12.1699,-11.1965,16.0643,-35.3544,-9.2488,25.8007,1.4601,109.5307,12.1699,24.0349,
-44.2984,-35.5363,5.3554,-0.48668,-10.2222,-18.011,11.1965,-36.5096,-5.3544,25.8007,0.48668,112.4518,8.2755,34.5629,
-55.9821,-39.4307,0.48668,-2.4334,-9.2488,-25.8007,-0.48668,-35.5363,2.4343,27.7484,3.4077,109.5307,0.48668,23.854,
-64.258,-38.944,0.97337,-5.8421,-9.7365,-29.2084,5.8411,-50.5363,4.8678,32.1285,6.8154,98.3342,-0.97337,8.854,
-59.8769,-36.5106,8.2755,-0.48668,-12.1699,-28.7218,3.4077,-49.1671,-0.48668,32.6152,5.3544,83.3342,0.48668,3.4077,
-52.0881,-31.6419,9.2488,7.3021,-9.2488,-26.7741,-1.4601,-34.1671,-0.48668,28.7218,1.4601,79.3489,1.4601,0.48668,
-52.0877,-25.8007,9.2498,9.2498,0.48668,-20.932,1.461,-22.8797,8.2755,27.7475,-0.48668,86.1643,-1.4601,-1.4601,
-58.9031,-26.7741,7.3021,4.3811,-0.48668,-12.1699,1.4601,-24.8274,9.2488,32.6162,-0.48668,86.1643,-4.3811,0.48668,
-59.8769,-30.6685,4.3811,0.48668,-11.1965,-13.1442,8.2755,-23.854,7.3021,29.6942,-0.48668,81.2957,4.3811,-1.461,
-56.9559,-30.6685,10.2231,3.4077,-15.0909,-16.0643,10.2231,-33.5895,4.3811,20.933,-5.3544,82.2699,9.2498,-3.4077,
-54.0353,-30.6685,15.0909,0.48668,-12.1708,-11.1965,0.48668,-41.3783,0.48668,22.8797,-7.3021,87.1377,0.48668,-0.48668,
-39.9183,-28.2351,16.551,-1.9477,-12.6575,0,6.8154,-26.3783,0,27.2608,-2.921,90.5454,10.7098,4.8678,
-37.9706,-32.1295,4.8678,0,-25.314,0,7.7888,-18.4986,-15,12.2608,-15.5776,75.5454,10.7098,0.97337,
-41.8655,-26.2879,1.9472,8.7626,-18.4991,6.815,-1.9472,-10.7103,-25.3136,7.7883,-22.3935,71.073,1.9472,11.6827,
-34.5629,-20.933,3.4077,3.4077,-21.9063,10.2231,-3.4077,-5.3554,-12.1699,13.1432,-8.2755,85.19,5.3544,17.0376,
-33.1028,-29.2084,-4.8687,-11.5923,-33.1028,3.8944,-3.8944,-15.5776,2.8301,10.7098,6.7245,93.4655,12.6566,7.7888,
-44.7856,-37.9711,-7.7893,-16.5514,-21.4192,4.8682,-4.8682,-21.4192,8.7626,12.657,15.5781,93.466,14.6038,13.6304,
-42.8384,-35.0496,0.97337,-4.8678,-18.4986,6.8154,0.97337,-8.7622,-1.9467,16.5519,0.57805,98.3342,9.7365,28.6304,
-27.8384,-28.2341,6.8154,5.8421,-27.2608,8.7622,-0.97337,0.97337,-12.6566,13.6309,-14.4219,95.4132,-2.921,36.9972,
-18.4982,-24.3402,4.8682,10.7103,-23.3659,15.5781,-4.8682,14.6047,-18.4982,10.7103,-20.4458,80.4132,-8.7626,35.05,
-28.2341,-21.4196,0,14.6042,-25.314,18.4986,-1.9477,29.2084,-15.5776,5.8411,-20.4454,74.9678,0,40.8916,
-36.9972,-21.4196,2.921,13.6309,-30.1818,14.6042,-9.7365,24.3397,-13.6309,5.8411,-24.3397,73.9935,-2.921,36.9972,
-41.8645,-16.5514,11.6837,8.7626,-16.5514,16.5514,-15.5771,17.5248,-14.6038,16.5514,-16.5514,60.3641,-8.7626,21.9972,
-48.6804,-16.5519,2.921,-0.97337,-13.6309,24.3397,-7.7888,20.4454,-10.7098,13.6299,-2.921,52.5748,6.2374,6.9972,
-49.6538,-26.2874,0,-7.7888,-27.2608,20.4454,-3.8944,19.472,-4.8678,6.8154,0.97337,56.4692,21.2374,0,
-45.2727,-39.4307,6.3287,-7.3021,-25.8007,5.4454,-8.2755,10.2231,-9.2488,9.2488,-2.4343,54.0349,14.1175,3.4077,
-42.8384,-34.0762,13.6309,-6.8154,-10.8007,-2.921,2.921,2.921,-5.8411,11.6832,0.97337,53.5482,-0.88246,2.921,
-56.4692,-31.1556,12.657,-20.4458,1.9472,-1.9472,13.6304,-5.8416,1.9472,6.815,1.9472,54.522,-4.8682,-7.7883,
-66.6919,-34.5629,4.3811,-18.9853,-13.0528,-0.48668,7.3021,4.3811,6.3287,15.0909,0.48668,56.9559,-6.3278,-0.48668,
-59.8769,-33.5895,-0.48668,-10.2231,-25.8007,10.2222,2.4334,19.3811,0.48668,22.8797,-1.461,57.9293,-19.9596,14.5133,
-44.8769,-25.314,3.8944,-9.7365,-14.6042,25.2222,3.8944,30.1818,-3.8944,14.6042,-4.8678,53.5482,-22.393,22.393,
-38.4577,-19.9591,2.4339,-13.1437,-18.0115,23.8535,1.4605,40.4045,-1.4605,4.3806,-7.3026,45.2722,-14.1171,16.0647,
-37.9711,-15.5781,1.9472,-2.9215,-21.4192,19.4715,-1.9472,46.7323,11.6827,12.6561,-1.9472,51.601,-8.7626,27.2603,
-37.4835,-23.8535,1.4605,-7.3016,-26.7736,23.8535,-5.3549,33.59,8.2759,18.0124,-1.4605,55.983,-10.2227,30.669,
-34.5634,-25.8003,4.3815,-15.0904,-18.9858,29.6947,-3.4072,25.8003,-1.4605,21.9059,-3.4072,54.0353,1.4605,26.7746,
-45.2722,-28.7213,-9.2493,-17.0381,-20.9325,21.9059,-12.1703,28.7213,2.4339,17.0381,-2.4339,50.1409,4.3815,31.6423,
-54.5216,-37.9706,-21.4196,-20.4454,-34.0762,16.551,-18.4986,37.9706,13.6309,10.7098,8.7622,49.6538,-8.7622,45.7594,
-46.2465,-29.6956,-6.4196,-15.0914,-28.7213,26.7736,-18.0115,52.0877,6.3283,11.196,12.1703,52.0877,-6.3283,56.9554,
-37.9706,-15.5776,8.5804,-4.8678,-22.393,30.1818,-9.7355,57.4426,-8.6717,12.6566,-2.8297,58.4169,2.921,48.6804,
-38.9444,-22.3935,3.8939,-13.6304,-22.3935,24.3402,-1.9472,42.4426,-1.9472,7.7883,-9.736,53.5477,1.9472,33.6804,
-38.4573,-34.5629,0.48668,-28.6304,-18.0119,24.8264,-0.48668,27.4426,9.2488,-2.4343,1.4601,38.5477,-2.4343,18.6804,
-38.4577,-33.5891,14.1171,-22.8802,-18.9858,22.8802,-1.4605,21.9059,2.4339,-0.48715,0.48715,31.6423,-5.3549,13.1437,
-30.1818,-22.393,18.4986,-10.7098,-26.2874,19.472,-0.97337,29.2084,0.97337,10.7098,-9.7355,46.6423,-7.7888,21.4196,
-18.4986,-20.4454,10.7098,-15.5776,-29.2084,18.4986,-6.8154,32.1285,3.8944,12.6566,-3.8944,44.786,-7.7888,14.6042,
-16.0643,-20.932,14.1175,-18.0119,-33.5895,19.9587,-11.1965,38.4573,-2.4343,3.4077,2.4343,29.786,-10.2231,20.933,
-14.1175,-15.0909,20.932,-6.3287,-33.5895,26.7741,3.4077,49.1671,-5.3554,3.4077,-3.4077,37.4839,-11.1965,35.933,
-14.1171,-15.0914,18.0115,-8.2759,-20.9325,21.9059,8.2759,46.2465,-8.2759,8.2759,-13.1437,45.2722,-12.1703,39.4311,
-16.0638,-17.0381,18.0124,-15.0904,-19.9582,15.0914,5.3549,35.5367,-5.3549,12.1703,-7.3016,35.5367,-11.196,28.7213,
-21.9059,-20.9325,13.1437,-21.9059,-31.6423,5.3549,-0.48715,20.5367,-6.3283,4.3815,0.48715,20.5367,-11.196,21.9059,
-16.5514,-14.6038,17.5248,-6.9059,-17.5248,-4.8682,5.8416,6.815,2.9206,-2.9206,2.9206,18.4982,-5.8416,16.5514,
-21.4192,-18.4982,11.6837,6.815,-17.5248,-19.4715,5.8416,9.736,2.9206,-7.7883,-2.9206,24.3402,-18.4982,10.7103,
-26.2874,-25.314,5.8421,7.7888,-31.1552,-21.4196,0.97337,4.8678,-2.921,0.97337,-0.97337,33.1028,-27.2608,25.7103,
-19.9596,-23.854,9.2488,4.3811,-27.7484,-28.7218,3.4077,-10.1322,-3.4077,7.3021,6.3278,38.4573,-18.0119,33.5886,
-24.8269,-29.6947,6.3283,-0.48715,-29.6947,-43.7218,0.48715,-25.1322,1.4605,0.48715,3.4082,35.5367,-18.0115,18.5886,
-39.8269,-34.5634,2.4339,1.4605,-33.5891,-57.9297,-0.48715,-37.4835,8.2759,0.48715,4.3815,32.6157,-21.9059,4.3815,
-42.3512,-29.6947,2.4348,5.3549,-28.7213,-64.7442,-1.4605,-43.3255,10.2236,1.4605,15.0914,29.6956,-11.196,8.2759,
-27.3512,-27.747,6.3292,9.2493,-25.8003,-76.4279,2.4339,-44.2989,1.4605,-5.3549,17.0381,29.6956,-1.4605,3.4082,
-14.6042,-26.2874,15.5776,17.5253,-21.4196,-73.994,15.5776,-37.9706,-7.7888,2.921,22.393,41.865,5.8411,-2.921,
-24.8269,-29.6947,15.0914,15.0914,-10.2227,-71.5597,19.9591,-37.4835,-10.2227,5.3549,26.7746,39.4311,8.2759,-5.3549,
-37.4835,-39.4311,19.9591,5.3549,-2.4339,-71.5601,16.0647,-38.4577,-5.3549,2.4339,20.9325,26.7746,2.4339,-5.3549,
-36.5105,-33.5895,31.6419,11.1965,-5.3554,-64.7452,16.0643,-30.6685,-0.48668,14.1166,18.9853,29.6951,-3.4077,0.48668,
-28.2341,-23.3664,21.4196,19.4729,-14.6033,-60.3632,15.5776,-24.3397,-3.8944,9.7365,16.5519,28.2351,-11.6832,3.8944,
-13.2341,-18.4986,30.1818,26.2874,-12.6566,-51.6015,23.3664,-11.6832,-4.8678,4.8678,6.8154,31.1552,-7.7888,16.551,
-0.97383,-13.6304,45.1818,29.208,-7.7883,-36.6015,28.2346,0.97383,-3.8939,19.8678,-1.9472,46.1552,-2.9206,30.1823,
-5.3544,-9.2488,38.4573,29.6951,-3.4077,-31.6419,24.8274,-1.4601,0.48668,26.7741,-0.48668,58.9026,-3.4077,34.5629,
-11.6837,-11.6837,23.4573,24.3402,-7.7893,-39.9178,17.5248,-16.4601,0.97383,15.5771,-0.97383,54.522,-6.815,29.208,
-9.2498,-11.1965,36.5096,22.8797,-14.1175,-41.3783,20.932,-30.6685,-0.48668,18.011,0.48668,44.2984,-3.4077,23.8531,
-2.921,-8.7622,37.9706,19.472,-14.6042,-44.786,25.314,-17.5243,-6.8154,11.6832,-0.97337,29.2984,0.97337,14.6042,
-6.3283,-6.3283,24.8269,20.9325,-9.2493,-43.3255,23.8535,-8.2759,-9.2493,1.4605,-1.4605,23.8535,5.3549,8.275,
-21.3283,-14.6038,23.3668,18.4982,-11.6827,-41.8645,18.4982,-20.4458,-5.8416,2.9206,5.8416,28.2346,10.7094,-2.9206,
-36.3283,-28.2351,19.472,3.4982,-13.6309,-53.5482,15.5776,-35.4458,2.921,-0.97337,18.4986,23.3664,10.7098,-8.7622,
-40.4045,-18.0115,17.0381,-5.3549,-6.3283,-47.2199,15.0914,-37.4835,17.921,2.4339,28.7213,22.8802,11.197,-2.4339,
-40.404,-7.3021,18.0119,-0.48668,-10.2222,-35.5363,0.48668,-32.6152,26.7741,12.1699,26.7741,25.8007,2.4343,-3.4077,
-38.4577,-12.1703,14.1171,7.3016,-19.9591,-36.5101,-4.3815,-22.8802,11.7741,13.1437,19.9591,22.8802,-7.3016,4.3815,
-23.4577,-17.0376,13.1432,13.1432,-18.0119,-33.5895,10.6185,-16.0643,-3.2259,6.3287,5.3544,14.1175,-7.3021,17.0386,
-8.4577,-4.3811,28.1432,20.933,-4.3811,-18.5895,22.8797,-1.0643,-10.2231,0.48668,-8.2755,15.0909,5.3544,20.933,
-6.8154,0.97337,26.2874,17.5252,-16.551,-6.8154,8.7631,13.6309,-19.472,-14.5133,-22.393,10.7098,-0.97337,10.7098,
0.97383,1.9472,20.4458,16.5514,-21.4192,-11.6827,14.6047,23.3668,-23.3659,-24.3402,-26.2869,-0.97383,-9.736,10.7103,
8.2755,4.3811,24.8264,18.0119,-6.4192,-10.2231,26.7741,21.9063,-15.0909,-16.0643,-11.2869,-14.1175,-4.3811,8.2755,
0.97383,-0.97383,24.3402,10.7103,-13.6304,-5.8416,13.6304,11.6837,-7.7883,-1.9472,3.7131,-16.5514,-2.9206,0.97383,
0,-3.8944,22.393,7.7888,-22.393,2.921,0,12.6575,-14.6042,5.8421,-3.8944,-11.6832,-12.6566,5.8421,
3.8944,0,19.472,9.7365,-12.6566,5.8421,3.8944,11.6832,-20.4454,-3.8944,-17.5243,-16.551,-13.6299,0,
4.3815,7.3016,19.9591,5.3549,-4.3815,4.3815,15.0914,6.3283,-14.1171,-18.8944,-16.0647,-21.9059,-13.1437,-15,
18.0115,9.2493,23.8535,6.3283,-6.3283,15.0904,11.196,14.1171,-16.0647,-9.2493,-16.0647,-18.9858,-24.8269,-6.3283,
30.668,1.4605,26.7736,12.1694,-4.3815,21.9059,-1.4605,25.8003,-31.0647,-11.197,-31.0647,-19.9591,-35.5367,8.6717,
31.1552,-3.8944,18.4986,15.5776,-8.7622,17.5253,3.8944,33.1028,-46.0647,-26.197,-45.7594,-21.4196,-41.865,14.6042,
22.3935,-6.815,6.815,12.657,-23.7622,15.5781,7.7893,36.9968,-41.8645,-29.208,-43.8122,-19.4715,-49.6533,11.6837,
21.4192,-2.9206,16.5514,14.6038,-16.5514,17.5248,2.9206,36.0234,-30.1823,-14.208,-32.129,-15.5781,-40.8912,20.4458,
25.8003,0.48715,29.6947,16.0647,-4.3815,9.2493,-0.48715,28.7213,-24.8269,-15.0914,-28.7213,-21.9059,-34.5634,10.2227,
25.8007,1.461,24.8274,12.1699,-14.1175,0.48668,5.3554,22.8797,-23.8531,-20.932,-30.6685,-27.7475,-36.5096,-0.48668,
22.8792,5.3549,21.9059,13.1437,-14.1171,1.4605,14.1171,16.0647,-16.0647,-8.2759,-20.9325,-17.0381,-23.8535,-1.4605,
16.551,14.6033,30.1818,13.6299,0,0,22.393,12.6566,-7.7888,0,-7.7888,-2.0381,-8.8535,0,
14.6042,6.8154,26.2874,9.7355,-0.97337,-5.8421,18.4986,27.2608,-13.6309,-5.8421,-10.7098,-10.7098,-8.7622,0.97337,
18.4982,-0.97383,24.3402,18.4982,-6.815,0.97383,14.6038,42.2608,-8.7626,-1.9472,-10.7094,-17.5248,-7.7893,15.5781,
4.3815,1.4605,23.8535,17.0381,-12.1703,-3.4072,14.1171,42.3521,-2.4339,-5.3549,-1.4605,-4.3815,-1.4605,18.9858,
-10.6185,0.9743,15.5785,9.7365,-18.4977,-17.5243,0,28.2351,-15.5776,-18.4977,0,5.8421,-13.6299,9.7365,
-0.48668,5.3554,23.854,24.7365,-16.0643,-2.5243,-4.3811,38.4573,-13.1432,-3.4977,-6.3278,9.2498,-18.011,16.0652,
8.2759,-0.48715,32.6157,36.5101,-27.7479,0.48715,-2.4339,40.4045,-14.1171,1.4605,-21.3278,-0.48715,-27.7479,8.2759,
7.7893,0.97383,35.05,31.1556,-28.2346,-11.6837,4.8682,34.0757,-23.3668,-13.5395,-30.1813,-0.97383,-29.208,2.9206,
7.7893,1.9472,20.4458,22.3926,-17.5248,-8.7626,-1.9472,33.1024,-27.2612,-13.6304,-21.4192,2.9206,-25.3136,6.815,
1.4605,-2.4339,15.0914,14.118,-18.0115,-1.4605,-6.3283,33.59,-16.0638,1.3696,-18.9848,5.3549,-24.8269,13.1437,
-8.7626,-3.8949,23.3668,10.7094,-23.3668,-1.9472,-0.97383,36.9968,-1.0638,13.6304,-6.815,3.8939,-18.4982,7.7883,
-10.7098,-2.921,26.2874,15.5776,-18.4986,-3.8944,-9.7355,42.8384,11.6832,12.6566,2.921,-6.8154,-11.6832,4.8678,
-10.7094,-1.9472,25.3145,17.5257,-16.5505,-4.8673,-6.815,48.6809,21.4201,4.8682,1.9472,-8.7617,-10.7094,14.6047,
-11.196,-5.3549,22.8802,14.1171,-18.9848,-9.2493,8.185,48.1933,14.1171,-1.4605,1.4605,-6.3283,-10.2227,8.2759,
-9.2493,-3.4072,24.8269,18.0115,-9.2493,-1.4605,8.2759,55.0087,0.48715,4.3815,4.3815,-3.4072,-3.4072,-0.48715,
-18.9853,-1.4601,23.8531,16.0643,-10.2231,1.4601,-6.7241,59.8769,-1.4601,1.4601,2.4343,-2.4343,-2.4343,5.3544,
-27.2608,0,20.4454,5.8421,-19.472,-2.921,-1.9467,45.7594,1.9477,-3.8944,2.921,-2.921,0,10.7098,
-20.4454,-2.9201,12.6575,1.9477,-20.4454,-1.9467,3.8944,32.1295,-0.97337,1.9477,-4.8678,0,0,9.7365,
-11.1965,-5.3554,19.9587,15.0909,-19.9596,0.48668,-0.48668,47.1295,-1.461,16.9477,-9.2498,15,-3.4077,24.7365,
-12.6575,-2.921,34.9587,25.3131,-21.4196,0,-0.9743,62.1295,0,26.2874,-4.8687,26.2874,-2.921,35.0496,
-17.0381,-1.4605,19.9591,15.0914,-36.4196,1.4605,-9.2493,47.2199,-7.3016,12.1703,-12.1703,11.2874,-11.196,22.8802,
-6.815,1.9472,13.6313,12.657,-40.8912,13.6313,-7.7883,47.7066,-1.9472,10.7103,-9.736,-3.7126,-11.6827,23.3668,
-9.7365,-4.8678,28.2341,12.6566,-31.1552,13.6299,-6.8154,53.5482,3.8944,16.551,-3.8944,-4.8678,-12.6566,18.4986,
-18.9853,-10.2231,36.5105,16.0643,-20.933,13.1432,-3.4077,53.0615,2.4343,13.1432,-2.4343,-4.3811,-11.1965,17.0376,
-18.4991,-7.7893,29.208,13.6304,-19.4724,14.6038,1.9472,52.5744,4.8673,-1.8568,-3.8949,-5.8416,-7.7893,21.4192,
-18.0115,-11.197,21.9059,5.3549,-25.8012,7.3016,5.3549,49.1666,1.4605,-1.4605,-7.3026,-18.0115,-11.197,6.4192,
-10.2227,-9.2493,23.8535,13.1437,-22.8802,12.1703,12.1703,56.9564,-3.4073,12.1703,-2.4339,-15.0904,-7.3016,2.4339,
-9.2488,-9.2488,22.8797,17.0386,-28.7218,14.1175,12.1699,52.0881,-6.3287,6.3287,-7.3021,-20.932,-6.3287,10.2231,
-13.6304,-12.657,25.3136,10.7094,-33.1033,9.736,6.815,37.9701,5.8416,-5.8416,-11.6837,-33.1033,-7.7893,15.5771,
-11.196,-10.2227,35.5367,13.1437,-29.6947,13.1437,-2.4339,52.9701,20.8416,2.4339,-4.3815,-24.8269,-8.2759,17.0381,
-22.393,-17.5243,29.2084,4.8678,-44.6947,9.7365,-17.4339,67.9701,11.6832,2.921,-2.921,-20.4454,-19.472,13.6309,
-37.393,-20.9325,26.7736,-1.4605,-57.9297,17.0381,-32.4339,70.5863,5.3549,1.4605,1.4605,-23.8535,-23.8535,24.8269,
-48.1942,-20.9325,41.7736,5.3549,-53.062,21.9059,-40.4054,64.7442,9.2493,1.4605,-1.4605,-22.8802,-21.9068,26.7736,
-33.5891,-16.0638,56.7736,8.2759,-40.4045,18.9858,-25.4054,76.4283,5.3549,9.2493,-5.3549,-17.0381,-14.1171,20.9325,
-21.9059,-9.2493,71.7736,-0.48715,-36.5101,23.8535,-10.4054,77.4017,0.48715,18.9848,-6.3283,-23.8535,-8.2759,17.0381,
-31.1556,-4.8682,86.7736,-5.8416,-38.9444,26.2869,1.9472,62.4017,10.7094,25.3136,-1.9472,-33.1024,-6.815,8.7626,
-46.1556,-12.1708,101.7736,-0.48668,-32.6162,11.2869,-4.3811,55.9816,19.9587,24.8264,6.3278,-30.6685,0.48668,-6.2374,
-41.3779,-20.9325,116.7736,1.4605,-31.6423,-1.4605,-4.3815,59.8765,20.9325,12.1703,9.2493,-31.6423,5.3549,-13.1437,
-33.5895,-11.1965,131.7736,-2.4343,-40.4049,13.1432,-7.3021,58.9026,19.9587,1.4601,5.3544,-39.4307,-0.48668,0.48668,
-39.9183,-9.7365,146.7736,0,-32.1295,11.6832,-0.97337,55.4949,11.6832,4.8678,0,-52.5748,-8.7622,3.8944,
-42.3517,-20.933,161.7736,2.4343,-21.9063,1.4601,0.48668,54.0349,9.2488,4.3811,-0.48668,-62.7975,-9.2488,-6.3287,
-29.6951,-10.2231,176.7736,0.48668,-29.6951,16.4601,-5.3554,61.8237,21.9054,2.4334,5.3544,-49.1676,-0.48668,-4.3811,
-23.3668,0.97383,191.7736,5.8416,-30.1813,31.4601,-5.8416,71.073,12.657,-0.97383,-2.9206,-36.9968,-3.8939,6.815,
-12.6575,0,206.7736,20.8416,-18.4986,28.2341,0,83.73,-2.343,2.9201,-5.8421,-34.0762,-2.921,10.7089,
0.97337,-2.921,221.7736,16.551,-27.2608,26.2874,-0.97337,77.8889,3.8944,-0.97337,-2.921,-42.8384,1.9477,-2.921,
-0.97337,-3.8944,236.7736,1.9477,-33.1028,21.4196,4.8678,62.8889,8.7622,-6.8154,-4.8678,-57.8384,0.97337,-15.5776,
-5.3544,-8.2755,251.7736,1.4601,-28.7218,16.0643,8.2755,57.9293,5.3544,3.4077,-4.3811,-68.6391,-1.4601,-15.0909,
-6.3278,-8.2755,266.7736,-0.48668,-28.7208,23.854,-0.48668,72.9293,17.0386,16.0652,0.48668,-65.7181,5.3554,-2.4334,
-18.9848,-11.196,281.7736,-8.2759,-31.6423,26.7746,-13.1437,66.6919,17.0381,3.4073,-2.4339,-57.9297,5.3549,2.4339,
-28.7213,-15.0914,296.7736,-13.1437,-23.8535,26.7736,-3.4082,55.9821,22.8792,1.4605,4.3806,-54.0353,6.3283,-1.4605,
-43.7213,-24.8274,311.7736,-23.8531,-28.7218,20.932,-1.4601,55.0082,27.7475,4.3811,1.4601,-67.6657,4.3811,-13.1442,
-38.4573,-12.1699,326.7736,-12.1699,-28.7218,28.7208,-3.4077,63.7713,25.8007,8.2755,-1.4601,-70.5863,7.3021,1.4601,
-23.4573,-5.8411,341.7736,2.8301,-27.2608,29.2084,0,67.179,10.8007,0,-7.7888,-67.1786,-3.8944,8.7622,
-8.4573,4.3815,356.7736,8.2759,-24.8269,30.669,7.3026,82.179,-4.1993,-2.4339,-6.3283,-60.8503,-10.2227,1.4605,
0,16.5519,371.7736,6.8154,-28.2341,35.0505,0,87.6244,1.9477,-0.97337,-2.9201,-70.0991,-5.8411,-3.8944,
-15,2.4339,386.7736,0.48715,-29.6947,31.6423,-10.2227,72.6244,0.48715,-0.48715,0.48715,-77.4017,-6.3283,-3.4072,
-23.8535,-11.197,401.7736,-9.2493,-18.0124,28.7213,-1.4605,57.6244,5.3549,3.4073,9.2493,-72.534,1.4605,-1.4605,
-28.7208,-6.3278,416.7736,-18.0119,-14.1175,27.7475,0.48668,43.326,7.3021,-0.48668,4.3811,-82.2695,7.3021,-14.1175,
-27.2612,1.9472,431.7736,-7.7883,-20.4458,33.1024,-1.9472,58.326,6.815,-2.9206,6.815,-88.5982,12.657,-13.6304,
-24.3402,-3.8939,446.7736,0.97383,-29.208,30.1823,-0.97383,73.326,4.8682,-2.9206,4.8682,-86.6506,4.8682,-5.8416,
-21.4196,-1.9467,461.7736,1.9477,-24.3397,34.0762,0.97337,88.326,4.8678,-2.921,-0.97337,-84.7034,-1.9467,6.8154,
-20.4454,0,476.7736,0,-20.4454,41.865,-6.8145,95.4132,5.8421,-0.97337,-2.9201,-86.6506,1.9477,21.8154,
-32.6162,-4.3811,491.7736,-0.48668,-20.933,35.5363,-12.1699,85.19,6.3287,-0.48668,0.48668,-82.2695,6.3287,30.6685,
-38.4573,-7.3021,506.7736,-5.3554,-18.0119,26.7741,-12.1699,70.19,18.011,-0.48668,15.4867,-77.4017,0.48668,15.6685,
-35.5363,-8.2755,521.7736,-6.3287,-18.0119,25.8007,-3.4077,55.19,25.8007,1.4601,24.8274,-75.4545,-1.4601,1.4601,
-34.5629,-3.4077,536.7736,-0.48668,-22.8797,12.1699,-1.4601,46.2461,19.9587,0.48668,9.8274,-76.4279,-1.4601,4.3811,
-21.4196,0,551.7736,4.8678,-22.393,0.97337,-2.921,35.0496,17.5243,0,0,-77.8889,-2.921,4.8678,
-6.8154,-3.8944,566.7736,2.921,-16.5519,-5.8421,0,21.4187,11.6832,0.97337,15,-77.8884,-1.9477,0,
-14.1175,-6.3287,581.7736,2.4343,-9.2488,-20.8421,1.4601,6.4187,0.48668,1.4601,18.9853,-76.4279,-0.48668,-4.3811,
-24.8269,-6.3283,596.7736,9.2493,-5.3549,-32.6157,3.4072,-5.3549,5.3549,7.3016,11.196,-73.5073,1.4605,-1.4605,
-31.1552,-12.6566,611.7736,13.6309,-15.5776,-35.0496,1.9477,-2.9201,2.921,4.8687,18.4986,-87.6239,0,0,
-18.4982,-6.815,626.7736,27.2612,-13.6304,-29.208,6.815,1.9472,-1.9472,0.97383,25.3136,-92.4926,4.8682,-0.97383,
-3.4982,-4.3815,641.7736,35.5367,1.3696,-37.4835,9.2493,-7.3016,-0.48715,-0.48715,21.9059,-78.3751,2.4339,-1.4605,
-3.4077,-6.3278,656.7736,24.8274,-0.48668,-52.4835,13.1442,-19.9587,0.48668,-0.48668,28.7218,-71.5597,0.48668,2.4343,
-18.4077,-11.197,671.7736,12.1694,-1.4605,-55.9825,24.8269,-23.8535,1.4605,1.4605,31.6423,-83.2433,8.275,-6.3283,
-30.1823,-23.3668,686.7736,8.7626,8.7626,-56.4692,31.1556,-29.208,1.9472,-1.9472,16.6423,-98.2433,6.815,-21.3283,
-22.3926,-18.4982,701.7736,20.4458,6.815,-61.337,20.4458,-31.1556,1.9472,-1.9472,10.7094,-96.387,3.8949,-22.3926,
-26.2869,-4.8673,716.7736,28.2346,-4.8673,-52.5744,5.4458,-26.2869,1.9472,2.9215,23.3668,-84.7034,5.8416,-7.3926,
-25.3145,-2.9215,731.7736,22.3925,-8.7626,-37.5744,13.6304,-19.4724,-1.9472,4.8673,16.5505,-77.8889,4.8673,1.9472,
-10.3145,-3.8944,746.7736,25.3131,0,-26.2874,28.6304,-15.5785,-7.7888,4.8678,8.7622,-75.9417,9.7355,0,
0,-4.8678,761.7736,26.2874,0,-30.1818,32.1295,-19.472,-13.6299,0,2.921,-85.6767,23.3664,-0.97337,
-4.8687,0,776.7736,25.3131,-1.9477,-31.1561,23.3664,-22.393,-8.7631,0,1.9467,-88.5982,26.2874,5.8411,
-19.8687,-8.2755,791.7736,18.011,0.48668,-34.5629,11.1965,-36.5106,-5.3554,-0.48668,2.4334,-88.1115,11.2874,4.3811,
-30.1818,-21.4196,806.7736,7.7888,0.97337,-44.786,0,-49.6543,3.8944,0,6.8154,-87.6249,1.9467,-0.97337,
-31.1552,-16.5519,821.7736,2.921,-4.8678,-54.522,0.97337,-56.4692,9.7355,0,16.551,-90.5454,16.551,0,
-34.0762,-10.7098,836.7736,0.97337,-5.8421,-53.5487,0.97337,-62.3108,7.7888,-0.97337,30.1818,-89.5721,11.6832,3.8944,
-24.3407,-13.6309,851.7736,0,-4.8687,-38.5487,2.9201,-57.443,11.6832,0,33.1019,-86.651,7.7888,0.97337,
-9.3407,-13.1442,866.7736,0.48668,-2.4343,-33.5895,17.9201,-53.0615,6.3287,0.48668,19.9587,-89.0849,16.0643,-0.48668,
2.921,-6.8154,881.7736,0.97337,8.7622,-42.8384,32.9201,-53.5487,-8.6713,-2.921,4.9587,-93.4665,19.472,-0.97337,
3.8944,-6.8154,896.7736,10.7098,6.8154,-30.1818,28.2351,-41.865,-23.3664,-3.8944,-7.7888,-93.466,9.7365,3.8944,
6.3287,-3.4077,911.7736,15.0909,2.4343,-15.1818,18.9853,-26.865,-23.8531,-2.4343,-5.3544,-90.0583,9.2488,8.2755,
0.97337,-3.8944,926.7736,3.8944,10.7098,-8.7622,18.4986,-32.1295,-26.2874,0.97337,-0.97337,-88.5982,20.4454,-0.97337,
2.4343,-6.3287,941.7736,7.3021,9.2488,-2.4343,20.932,-28.7218,-18.9853,1.4601,-4.3811,-90.0587,27.7475,-1.4601,
7.3021,-4.3811,956.7736,10.2231,-5.7512,5.3544,13.1442,-13.7218,-19.9587,-13.5399,-19.3811,-98.8209,12.7475,4.3811,
16.5514,0.97383,971.7736,2.9206,-8.7626,10.7094,9.736,-0.97383,-34.0757,-27.2612,-28.2346,-101.2548,-2.2525,4.8682,
30.1818,1.9467,986.7736,-0.97337,0.97337,20.4454,11.6832,1.9467,-42.8393,-31.1552,-32.1295,-109.044,-1.9477,-0.97337,
38.4573,7.3021,1001.7736,10.2231,-3.4077,32.6162,12.1699,0.48668,-39.4307,-34.5629,-40.404,-122.1873,-6.3287,-0.48668,
35.05,22.3021,1016.7736,14.6038,-8.7626,32.129,11.6827,-1.9472,-30.1823,-37.9711,-40.8912,-119.7539,-15.5781,1.9472,
37.4835,33.5891,1031.7736,15.0914,-4.3815,28.7213,18.9858,0.48715,-23.8535,-34.5624,-30.668,-108.5569,-18.9848,-0.48715,
44.786,30.1818,1046.7736,16.551,-6.8154,33.1028,19.472,3.8944,-25.314,-29.2084,-24.3397,-115.859,-24.3397,-3.8944,
50.1405,24.8264,1061.7736,18.9853,-2.4343,39.4307,18.0119,-4.3811,-22.8797,-23.8531,-17.0386,-112.4513,-13.1442,2.4343,
35.1405,9.8264,1076.7736,5.8421,-3.8944,24.4307,8.7622,-19.3811,-28.2341,-30.1818,-21.4196,-102.2286,-4.8678,3.8944,
20.1405,2.921,1091.7736,-1.9477,-5.8421,9.7365,9.7365,-30.1818,-23.3664,-23.3664,-17.5252,-92.4926,1.9477,8.7622,
5.1405,5.8411,1106.7736,-3.8944,-7.7888,7.7888,13.6309,-28.2341,-17.5253,-11.6832,-11.6832,-91.5188,8.7622,13.6309,
5.3549,1.4605,1121.7736,-4.3815,-1.4605,16.0638,12.1694,-23.8535,-11.197,-5.3549,-7.3026,-94.9265,12.1694,18.9848,
9.7355,0.97337,1136.7736,0,-7.7888,12.6566,12.6566,-18.4986,-14.6042,-11.6832,-13.6309,-92.4926,0,13.6299,
18.4991,7.7893,1151.7736,5.8416,-16.5514,4.8682,21.4192,-16.5514,-24.3402,-23.3659,-20.4458,-87.6244,-4.8682,11.6837,
19.9591,1.4605,1166.7736,3.4082,-11.196,4.3815,25.8003,-22.8792,-27.7479,-27.7479,-19.9591,-92.9793,-1.4605,10.2227,
16.0643,4.3811,1181.7736,6.3287,-11.1965,6.3287,20.932,-21.9063,-21.9063,-23.8531,-16.0643,-102.7153,-4.3811,11.1965,
8.7626,16.5514,1196.7736,17.5248,-13.6304,2.9206,20.4458,-10.7094,-12.657,-13.6304,-7.7893,-95.4132,-2.9206,19.4724,
0.48715,6.3283,1211.7736,17.0381,-3.4073,-0.48715,23.8535,-10.2227,-8.2759,-5.3549,-0.48715,-80.4132,12.0794,27.7479,
-4.3806,-3.4072,1226.7736,10.2227,-2.4339,2.4339,22.8802,-18.9848,-3.4072,-5.3549,4.3815,-80.3223,24.8269,27.7479,
-11.196,-1.4605,1241.7736,14.1171,-6.3283,1.4605,18.0115,-23.8535,-4.3806,-9.2493,5.3549,-89.0844,30.669,23.8535,
-18.0119,-0.48668,1256.7736,20.933,0.48668,-3.4077,9.2498,-24.8264,-7.3021,-8.2755,0.48668,-93.9527,31.6428,15.0909,
-8.7626,9.736,1271.7736,27.2612,-2.9206,-1.9472,5.8416,-18.4982,0.97383,-0.97383,-0.97383,-79.8356,24.3402,15.5781,
-1.4605,12.1703,1286.7736,22.8802,-13.1437,-4.3806,16.0647,-9.2493,1.4605,-2.4339,-5.3549,-66.6919,14.1171,25.8012,
-3.4077,5.3544,1301.7736,11.1965,-4.3811,-2.4343,28.7208,-5.3554,0.48668,-0.48668,-4.3811,-66.6924,20.932,34.5629,
-4.8678,4.8687,1296.8425,0,-2.9201,1.9477,20.4463,-16.551,0,0,-1.9467,-73.0202,20.4463,33.1028,
-13.6304,5.8416,1281.8425,-0.97383,-10.7094,0.97383,18.4982,-31.1556,1.9472,-2.9206,-3.8939,-80.809,6.815,25.3136,
-28.6304,0,1266.8425,0.97337,-9.7355,-0.97337,22.393,-35.0496,2.921,0,-5.8411,-88.5982,5.8421,10.7098,
-32.1285,-3.8944,1251.8425,0,-8.7622,2.921,15.5776,-20.4454,5.8421,0,-1.9467,-91.5188,10.7098,3.8944,
-27.2617,0,1236.8425,0,-10.7098,6.8145,11.6832,-5.4454,3.8944,-11.6832,-2.921,-87.6249,1.9467,4.8678,
-17.0381,3.4073,1221.8425,7.3016,-17.0381,7.3016,19.9591,-11.196,1.4605,-10.2227,-3.4073,-79.3489,-1.4605,4.3815,
-16.5514,1.9472,1206.8425,9.736,-21.4192,0.97383,26.2869,-26.196,4.8682,-0.97383,-0.97383,-80.809,2.9206,-2.9206,
-21.9063,-2.4343,1193.1529,3.4077,-14.1175,-6.3287,25.8007,-37.4839,1.4601,-0.48668,0.48668,-82.2695,3.4077,2.4343,
-11.196,-3.4073,1186.3379,0.48715,-12.1703,2.4339,25.8003,-29.6947,-0.48715,-2.4339,0.48715,-69.6129,1.4605,17.4343,
-4.8682,-1.9472,1176.1148,-2.9215,-21.4201,14.6038,18.4982,-17.5248,8.7617,-4.8682,3.8939,-62.3113,1.9472,32.4343,
-19.8682,-5.3544,1161.9977,-10.2231,-33.5895,12.1699,8.2755,-16.0643,13.1442,-13.1432,12.1699,-72.5335,5.3544,27.7475,
-25.8003,-9.2493,1156.1561,-14.1171,-31.6423,14.1171,10.2227,-17.0381,9.2493,-15.0904,17.0381,-78.3751,13.1437,16.0647,
-19.472,-6.8154,1147.8802,-10.7098,-27.2608,18.4986,9.7355,-8.7622,6.8154,-11.6832,14.6042,-73.994,12.6566,27.2608,
-26.7741,-10.2231,1134.7369,-13.1442,-37.4839,11.1965,2.4343,5.3544,4.3811,-21.9063,2.4343,-83.2433,-2.3434,37.4839,
-19.472,-2.921,1149.7369,-0.97337,-26.2874,22.393,17.4343,20.3544,17.5252,-15.5776,0.97337,-75.9412,-3.8944,40.8916,
-24.8269,-1.4605,1144.4729,1.4605,-20.9325,30.669,17.0381,15.0914,17.0381,-6.3283,-7.3016,-67.6653,-8.275,25.8916,
-32.1285,-0.97337,1129.4729,0.97337,-24.3397,29.2084,2.0381,4.8678,16.551,-1.9467,-5.8411,-68.1524,-5.8411,27.2608,
-21.9063,-3.4077,1114.4729,-0.48668,-25.8007,26.7741,8.2755,4.3811,18.0119,-5.3544,0.48668,-69.6129,-3.4077,32.6162,
-20.933,-1.4601,1099.4729,-8.2755,-22.8797,25.8007,19.9587,0.48668,18.0119,-7.3021,8.2755,-66.6919,-0.48668,27.7475,
-35.933,-5.3549,1084.4729,-17.0381,-23.8535,18.9848,7.3016,-12.1703,13.1437,-11.197,11.196,-69.6129,5.3549,30.668,
-33.1028,-8.7622,1069.4729,-12.6566,-25.314,23.3664,6.8154,-6.8154,18.4986,-11.6832,22.393,-62.3108,15.5776,42.8384,
-18.9858,-14.1171,1054.4729,-22.8802,-31.6423,21.9059,15.0904,-6.3283,15.0904,-15.0914,15.0904,-56.9564,6.3283,34.5624,
-13.1437,-0.48715,1039.4729,-18.0115,-18.9858,26.7746,30.0904,-5.3549,19.9591,-6.3283,10.2227,-57.9297,0.48715,29.6947,
-26.2869,-1.9472,1024.4729,-16.5514,-13.6304,25.3136,27.2612,-9.736,27.2612,-9.736,5.8416,-69.1258,1.9472,19.4724,
-31.1552,-4.8678,1009.4729,-24.3407,-21.4196,27.2608,19.472,-5.8421,35.0496,-7.7888,12.6566,-65.2318,4.8678,16.551,
-30.669,-7.3016,994.4729,-27.7479,-30.669,27.7479,17.0381,0.48715,29.6947,-3.4072,20.9325,-61.8241,-0.48715,17.0381,
-29.2084,-6.8154,979.4729,-13.6299,-25.314,24.3407,13.6309,0.97337,27.2608,-6.8154,23.3664,-68.1524,-0.97337,14.6042,
