"AF3","AF4","F3","F4","F7","F8","FC5","FC6","O1","O2","P7","P8","T7","T8",
-114.5382,-1.0511,-184.9422,8.4069,-127.1478,1.0511,16.8133,27.3209,12.6101,32.5756,-195.4502,-26.2703,-4.2027,65.1497,
-129.2489,-10.508,-197.5518,6.3048,-134.5032,-6.3048,12.6101,21.0165,9.4575,27.3219,-207.0088,-33.6252,10.7973,77.7604,
-128.7236,-2.6269,-197.0265,2.6269,-129.7747,-2.6269,20.4913,27.8471,2.6269,24.6945,-212.7883,-38.3547,25.7973,75.133,
-123.9956,2.1016,-205.9587,-2.1016,-141.8595,7.3554,5.4913,35.7273,-12.3731,9.6945,-226.9747,-50.439,11.5586,70.4035,
-116.6398,8.4064,-211.2125,8.4064,-145.0117,22.3554,-1.0506,50.7273,-12.6096,8.4064,-228.0253,-47.2868,1.0506,85.4035,
-129.2494,5.2538,-221.7205,4.2032,-151.316,27.3214,-4.2032,46.2353,-18.9139,13.6612,-239.5844,-46.2353,6.3053,100.4035,
-132.4016,12.6101,-217.5168,2.1016,-147.1128,27.3219,-2.1016,40.982,-12.6091,16.8133,-252.1935,-45.1842,12.6101,99.8269,
-129.7747,15.2365,-221.1952,-0.52578,-153.9434,28.8977,0.52578,42.5579,-17.3386,8.9322,-261.1257,-50.9643,7.8816,84.8269,
-129.2494,13.6607,-222.7715,-2.1016,-158.6724,25.2198,2.1016,49.3874,-22.0671,10.508,-261.6515,-50.439,3.1522,96.6743,
-125.0457,18.9149,-211.212,-4.2032,-143.9601,26.2708,4.2032,55.6933,-17.8634,19.9655,-274.2606,-46.2353,8.4064,111.6743,
-121.3683,21.5418,-219.0936,-6.8301,-130.8257,26.7956,6.8301,61.4718,-13.1354,25.745,-282.1422,-39.4052,23.4064,125.5715,
-132.4016,8.4064,-234.0936,-5.2538,-130.3,13.6602,5.2538,55.6933,-9.457,27.3214,-271.1084,-33.6257,33.6257,132.4016,
-130.8257,5.779,-230.6527,4.7285,-115.3,-1.3398,12.0843,43.6079,-4.7285,35.2015,-272.6853,-24.694,27.8456,131.8763,
-120.8425,6.3048,-224.8726,8.4069,-100.3,-16.3398,14.7112,28.6079,-6.3048,34.6767,-287.6853,-24.1682,32.5756,116.8763,
-105.8425,-1.5763,-220.1442,23.4069,-85.3,-31.3398,18.3892,13.6079,1.5763,41.5073,-298.9551,-20.4903,47.5756,101.8763,
-90.8425,-8.4064,-212.2635,38.4069,-70.3,-46.3398,16.8128,8.4064,9.457,54.6417,-285.8197,-10.5085,54.6417,116.6393,
-90.8948,-15.2365,-212.7888,47.8116,-55.3,-61.3398,15.2365,6.8301,9.9827,54.1169,-284.2433,-6.8301,49.9137,131.6393,
-83.5394,-12.0838,-204.3824,62.8116,-40.3,-76.3398,30.2365,1.5763,24.6945,57.2696,-275.8374,-1.5763,64.9137,146.6393,
-68.5394,-3.1527,-194.3996,77.8116,-25.3,-91.3398,45.2365,1.0506,19.9655,60.947,-269.0073,-1.0506,79.9137,161.6393,
-56.218,-7.8811,-190.7217,92.8116,-10.3,-106.3398,47.8121,0.52528,12.0844,62.5238,-270.5832,-0.52528,94.9137,156.045,
-54.6417,-18.9144,-191.247,95.6232,-4.2032,-121.3398,48.3374,-11.5591,22.0666,67.2523,-266.9052,4.2032,81.9631,141.045,
-65.676,-27.8466,-197.027,88.7932,-1.5763,-125.572,44.659,-18.3897,16.2871,66.7266,-263.2278,1.5763,86.691,130.8252,
-71.455,-30.4735,-199.6534,92.4711,-1.0511,-114.5382,45.1852,-5.2543,9.4575,65.1507,-270.0579,1.0511,95.6237,145.8252,
-74.6077,-37.8294,-214.3651,90.369,-7.3554,-116.6398,42.0326,-2.1016,8.4059,60.9465,-272.1595,2.1016,83.0141,154.4687,
-78.8109,-32.5756,-217.5178,80.9115,-4.2032,-110.3355,46.2353,-10.5085,16.8128,65.1502,-257.1595,4.2032,88.2674,160.7735,
-81.9631,-24.1687,-210.1619,71.455,1.0511,-95.3355,49.3874,-18.9149,21.0155,73.5561,-246.9402,-1.0511,103.2674,171.2815,
-74.0819,-25.7445,-203.3313,73.0319,5.7795,-82.4883,57.2696,-19.4397,18.3892,75.133,-250.6177,-5.7795,111.9113,156.2815,
-70.9298,-21.5418,-204.3824,78.2851,6.8306,-90.8948,62.5228,-21.5418,21.5413,70.9293,-235.6177,-6.8306,105.6065,141.2815,
-71.4545,-17.8634,-208.0598,72.5061,4.2032,-83.0136,56.7438,-19.965,27.3214,74.6082,-221.7205,-4.2032,110.335,138.7069,
-65.676,-22.5929,-204.3824,70.9293,3.6779,-68.0136,57.2691,-4.965,29.9477,79.3357,-231.7037,-3.6779,112.9613,142.3838,
-55.6928,-22.0671,-207.0093,69.3529,-5.2543,-57.7944,49.3874,5.2543,19.965,68.3024,-241.686,-13.6607,97.9613,137.6558,
-40.6928,-8.9317,-201.2297,74.0819,-4.7285,-58.3196,48.8627,4.7285,21.5413,66.7271,-240.1096,-15.236,88.7937,136.0795,
-25.6928,-22.5924,-207.5345,64.6255,-6.8301,-65.6755,42.5579,-5.7795,17.3386,66.7266,-249.5666,-16.2871,95.0985,124.5209,
-10.6928,-24.1692,-211.213,61.9976,-9.458,-53.5917,37.8289,0,15.7613,69.3534,-241.6865,-6.3053,104.0297,139.5209,
-19.965,-10.508,-213.3141,63.0486,-11.5586,-39.9305,37.8294,5.2543,14.7112,65.1507,-239.5844,-5.2543,95.6237,154.5209,
-23.6434,-6.8306,-216.992,61.4723,-8.9317,-32.0498,40.4563,5.779,11.0338,66.7261,-227.5,-5.779,92.9969,147.6386,
-32.5751,-21.8306,-224.8731,50.439,-23.1176,-37.8294,31.5241,5.2543,6.3048,61.9981,-220.6699,-5.2543,95.6237,134.5032,
-38.8799,-29.4225,-225.9237,48.3374,-28.3719,-39.9305,27.3214,8.4064,4.2032,71.4555,-235.6699,-4.2032,93.5221,149.5032,
-24.6945,-15.2365,-219.0936,55.1675,-25.745,-24.9305,19.4397,6.8301,2.6269,79.3362,-234.8559,-2.6269,91.9458,156.0445,
-11.5586,-9.4575,-216.4662,44.1337,-37.8289,-11.5586,12.6101,11.5596,2.1016,64.3362,-219.8559,-2.1016,92.4711,146.0622,
-20.4908,-8.9317,-215.941,29.1337,-43.6084,-3.6779,9.9832,25.7445,3.6779,57.2691,-214.8904,-4.7285,91.9463,154.9944,
-35.4908,-9.4575,-212.263,25.2198,-33.6257,-2.1016,4.2037,29.423,2.1016,61.9981,-219.6189,-15.7618,92.4711,155.5202,
-30.4735,-1.0506,-201.7555,35.7278,-18.9149,1.0506,-6.3053,42.0321,8.4064,65.1502,-217.5173,-11.5591,99.8264,148.1638,
-35.7278,1.0511,-211.2125,35.7273,-33.6262,2.1016,-21.3053,50.439,-3.1522,60.9465,-232.2285,-1.0511,89.3184,157.6213,
-43.0831,-6.3048,-225.9237,24.1682,-48.6262,6.3048,-36.3053,43.0831,-14.7112,67.2518,-237.4828,6.3048,75.6582,172.6213,
-28.0831,-4.729,-211.7382,29.9482,-38.3547,4.729,-43.6089,38.3546,-12.0848,73.0309,-230.6527,5.7795,82.4878,169.7057,
-13.0831,8.9322,-196.7382,42.5579,-23.3547,-4.729,-28.6089,42.5579,-0.52578,69.8792,-230.6522,0.52578,97.4878,158.1466,
-1.0506,12.6096,-187.0438,33.6257,-13.6602,-10.5075,-21.016,35.7278,1.0506,58.8459,-223.8221,-7.3559,112.4878,153.4186,
2.6269,6.8301,-188.6201,40.4568,-17.3376,-4.728,-16.2871,36.2535,-2.6269,61.4728,-208.8221,-4.728,124.5209,159.1981,
7.8811,1.5758,-194.9249,53.0659,-7.8811,-6.8306,-6.8306,36.253,-4.7285,65.6755,-205.4329,-1.5758,127.6731,163.4008,
2.1016,7.3554,-193.3491,50.438,-2.1016,-13.6607,-11.5596,31.5241,-6.3048,63.0486,-201.7555,-4.2037,113.4871,160.773,
1.5758,15.237,-184.4169,47.8121,-2.6274,-13.1349,-15.237,35.2025,-8.9317,64.625,-186.7555,-1.5758,100.3517,161.2987,
1.0511,12.6101,-182.8406,47.2863,-5.2543,-15.7618,-17.8639,33.6262,-16.8123,68.3024,-195.4502,-1.0511,95.6237,158.6719,
1.0506,2.1011,-181.79,45.1847,-10.5085,-19.9655,-19.9655,24.1687,-22.0666,63.0481,-210.4502,-1.0506,108.2329,152.3671,
-2.6269,4.728,-180.2137,43.6084,-7.8816,-14.186,-16.2881,27.8461,-17.3386,67.7771,-204.3824,2.6269,108.7586,157.096,
-6.8306,5.779,-180.2137,41.5068,-5.779,-9.9822,-13.1349,29.9477,-14.1855,71.9808,-198.0776,5.779,107.7076,159.1976,
-13.6602,5.2538,-181.7895,36.7783,-5.2538,-6.3043,-12.6096,31.5246,-12.6096,73.5566,-192.298,6.3053,105.0812,159.7229,
-19.9645,4.2032,-183.8911,32.5751,-5.2538,-4.2032,-11.5581,31.5246,-11.5581,75.6587,-188.0943,7.3559,102.9801,159.7229,
-27.8461,2.6269,-186.518,26.7956,-6.8301,-2.6269,-12.0838,30.9988,-11.0333,76.1835,-183.3658,6.8301,99.3017,160.2487,
-36.2525,0.52528,-190.7217,21.5423,-7.8811,-0.52528,-12.0843,29.9487,-11.0328,77.2346,-179.1626,6.8306,95.098,160.2482,
-40.4558,1.5763,-189.6706,32.0503,-1.5763,-1.5763,-5.7795,32.0503,-9.9827,76.1835,-170.7562,21.8306,105.607,162.3498,
-38.8799,2.1016,-198.6028,21.0165,-14.7112,-2.1016,-15.7618,32.5746,-18.9144,74.6077,-170.2309,22.0671,106.1313,150.2654,
-25.7445,2.6274,-192.8233,18.3897,-20.4908,12.0843,-16.2876,47.5746,-17.3381,61.4723,-164.4514,7.0671,107.7076,156.045,
-17.8639,2.1016,-184.9422,23.1176,-14.7112,16.8133,-2.1016,51.4896,-17.8639,48.3379,-154.4687,-7.9329,107.1828,153.4181,
-16.2871,5.7795,-190.7217,13.1354,-20.4903,8.9322,-5.7795,38.3547,-22.5924,46.7611,-161.2987,-16.2871,104.5554,138.4181,
-12.6096,16.8128,-192.2975,8.4064,-29.4225,10.5085,-8.4064,36.7783,-31.5236,49.3879,-170.2309,-11.5591,101.9286,139.7574,
-19.4402,14.1855,-197.027,7.8811,-34.1519,9.9822,-13.1359,36.253,-38.3552,52.0143,-163.4008,-7.8811,86.9286,140.2827,
-22.0666,10.5085,-195.4502,8.4064,-27.3204,11.5591,-18.9139,34.6772,-26.2698,61.9976,-155.5192,-8.4064,71.9286,133.4531,
-15.7623,13.6602,-191.247,11.5591,-26.2698,18.9149,-11.5591,37.8289,-23.1181,61.9976,-152.3671,-11.5591,85.1157,132.4016,
-22.5929,7.8811,-194.9254,4.7285,-36.253,19.4392,-4.7285,34.1509,-35.2025,56.2175,-158.1471,-4.7285,88.7926,117.4016,
-24.694,4.7285,-184.4169,0.52528,-38.3542,20.4908,-11.0338,32.0498,-34.1509,62.5228,-171.8073,-0.52528,82.4883,102.4538,
-11.5591,8.4064,-175.4847,9.458,-33.6257,25.2192,-8.4064,38.8804,-24.1687,61.9976,-167.0783,-12.6096,94.5727,117.4538,
-16.2881,2.6269,-188.6201,-2.6269,-33.1009,19.4397,5.7795,37.3041,-29.9482,46.9976,-152.0783,-25.745,99.3017,126.622,
-24.694,7.8811,-182.3153,-7.8811,-27.8466,27.8466,11.0338,40.4563,-28.8972,43.6089,-144.4859,-21.5413,84.3017,111.622,
-23.6429,19.4397,-177.0615,-1.5763,-34.1514,39.4052,1.5763,49.9137,-26.7956,46.7611,-151.8418,-20.4913,69.8782,107.7081,
-16.2876,20.4908,-179.1626,0.52528,-34.1509,40.4563,-0.52528,64.9137,-26.7951,58.3206,-140.2827,-12.0843,84.8782,122.7081,
-17.3386,20.4903,-184.4169,-0.52578,-30.9988,43.6084,-5.7795,74.0814,-32.0493,65.675,-137.1305,0.52578,99.8782,131.8768,
-22.0676,19.9655,-187.0443,-9.457,-33.6257,52.5406,-1.0506,63.0481,-36.7783,67.2513,-148.1643,1.0506,94.5727,116.8768,
-17.8634,10.5085,-184.9422,-16.8128,-42.0321,42.0321,4.2032,52.5406,-31.5246,57.7944,-146.0622,-4.2032,83.0136,116.6403,
-6.3053,14.7107,-180.7395,-13.6612,-45.1847,37.8289,0,56.7428,-28.3719,53.5912,-131.0622,0,95.6232,129.2489,
-3.6774,24.6945,-183.3663,-9.9827,-45.7105,52.8289,1.5763,57.2686,-27.8461,57.2686,-127.6731,-1.5763,91.9458,116.1145,
-7.3554,25.2198,-183.8916,-13.6607,-46.2358,59.896,5.2543,54.6422,-27.3209,51.4896,-136.6053,-5.2543,76.9458,116.6398,
-1.5763,26.7956,-178.1116,-15.2365,-42.5579,57.2696,1.5763,59.3707,-27.8461,49.9137,-135.0284,-11.0333,61.9458,125.5715,
-3.6774,32.0493,-179.1631,-18.3892,-44.659,56.218,3.6774,56.218,-25.745,52.0148,-130.8257,-24.6945,66.7266,110.5715,
-11.0333,25.745,-174.9594,-17.3386,-46.7611,55.1675,11.0333,50.9643,-22.5924,43.6084,-122.4193,-23.6429,79.3362,95.5715,
-3.1527,16.8128,-173.3836,-15.7623,-49.3879,51.4891,3.1527,51.4891,-31.5246,28.6084,-116.6398,-25.2192,85.1157,100.878,
5.7795,25.745,-185.4674,-29.9482,-60.4212,45.7105,-5.7795,55.1675,-46.5246,25.745,-121.3683,-40.2192,70.1157,85.878,
-2.1016,30.4735,-184.9422,-34.6767,-66.2003,38.8799,2.1016,65.1507,-53.5907,36.7788,-131.351,-44.1337,55.1157,70.878,
-14.7112,25.2187,-169.9422,-19.6767,-52.5411,47.2863,14.7112,76.7088,-40.982,43.0831,-126.0972,-29.1337,57.7939,83.0131,
-11.5586,31.5241,-167.0788,-14.7112,-48.3369,57.7939,11.5586,78.8109,-36.7788,48.3369,-111.0972,-14.1337,72.7939,98.0131,
-2.1016,46.2358,-169.1799,-18.9144,-55.6928,55.6928,2.1016,73.5571,-37.8294,48.3369,-108.2329,-14.7112,57.7939,113.0131,
3.6779,41.5068,-162.3498,-20.4908,-60.4207,63.5744,-3.6779,71.9808,-46.7606,38.3552,-112.9613,-18.3887,42.7939,104.5559,
5.7795,27.8471,-164.4509,-29.9472,-70.9288,67.7771,-5.7795,66.7266,-61.4718,28.8977,-107.7076,-29.9472,48.8632,94.0479,
0,39.93,-164.9772,-25.2202,-66.2018,66.2008,0,75.6577,-50.4395,31.5236,-92.7076,-30.474,63.8632,100.877,
-8.9322,54.93,-159.1976,-10.2202,-51.2018,76.1835,8.9322,90.6577,-35.4395,40.4558,-77.7076,-15.474,55.1675,115.064,
-13.1349,39.93,-161.2992,-19.4402,-56.2185,74.0819,13.1349,80.3872,-34.1509,41.5068,-83.5394,-13.1349,50.9638,105.6065,
-5.7795,27.8461,-169.7057,-34.4402,-71.2185,59.3707,5.7795,65.3872,-46.7611,26.7956,-89.8442,-28.1349,60.4212,90.6065,
5.2543,34.6767,-170.2309,-38.8799,-78.8109,63.0486,-5.2543,70.4045,-55.6928,15.7618,-85.1152,-38.8799,53.5907,89.3184,
-1.0511,30.4735,-168.1293,-37.8294,-76.7088,78.0486,1.0511,79.8615,-59.896,16.8133,-86.1658,-23.8799,38.5907,86.1668,
-8.4064,32.5751,-175.4847,-29.4225,-77.7599,93.0486,8.4064,67.2523,-61.9976,22.0676,-94.5727,-8.8799,23.5907,78.8114,
-3.6779,44.6595,-174.9594,-21.5413,-71.9798,108.0486,3.6779,68.8282,-57.2691,20.4908,-86.6915,-13.1349,29.9487,89.8442,
-1.5758,40.4563,-165.5025,-33.1004,-73.0314,121.3688,1.5758,83.8282,-57.2691,17.3381,-71.6915,-16.2876,32.0498,94.0474,
-7.8811,40.4563,-159.1976,-42.5584,-80.3872,122.4193,7.8811,86.6915,-52.0153,23.6424,-60.4217,-11.0338,33.1004,79.0474,
-6.8301,47.8116,-164.4514,-40.4558,-83.5394,121.3683,6.8301,75.133,-53.0654,15.2365,-60.4212,-16.2881,23.6429,64.0474,
4.7285,45.71,-163.4008,-29.9487,-83.5399,114.0129,0.52528,70.9293,-68.0654,0.2365,-58.3196,-25.7445,13.1349,62.5228,
2.1016,35.7273,-154.4692,-33.6262,-84.0647,104.0302,-2.1016,60.9465,-67.2518,6.3048,-46.2358,-25.2197,14.7112,61.9981,
-8.4069,32.5746,-149.2149,-38.8799,-69.0647,104.0302,8.4069,61.9981,-52.2518,21.3048,-31.2358,-10.508,27.3209,53.5917,
-16.8128,24.1687,-164.2149,-38.8804,-54.0647,89.0302,9.457,53.5912,-53.5912,22.0666,-22.0676,-9.457,36.7783,56.7438,
-14.186,21.5408,-164.4519,-23.8804,-39.4052,74.0302,11.0333,38.5912,-53.0664,24.6935,-13.1354,-11.0333,42.5579,67.7771,
-11.0333,14.186,-150.7912,-12.0848,-26.7956,59.0302,7.8806,28.8967,-49.9137,32.0493,-7.8806,-11.0333,35.202,55.1675,
-0.52528,4.7285,-152.8928,-22.5929,-17.3391,44.0302,1.5758,13.8967,-58.3206,23.6424,-8.9317,-13.1349,29.9477,56.2175,
14.4747,19.7285,-138.7069,-7.5929,-2.3391,29.0302,7.3554,-1.1033,-54.6422,25.2197,-4.2037,-6.3048,30.4735,71.2175,
28.8977,6.8301,-132.9268,7.4071,-1.5763,14.0302,1.5763,-16.1033,-64.6245,15.2365,-16.2871,-16.2871,15.4735,61.4728,
36.7788,-6.3048,-125.0462,21.0165,9.4575,-0.96984,6.3048,-21.0165,-63.0486,13.6607,-7.3554,-11.5586,30.4735,53.5917,
33.6267,-17.8634,-133.4521,24.1687,4.2032,-15.9698,0,-36.0165,-70.404,6.3053,0,-18.9139,44.1342,38.5917,
29.9482,-20.4903,-140.2827,30.9988,6.8301,-30.9698,7.8806,-51.0165,-76.1835,-1.5763,1.5763,-26.7956,29.1342,23.5917,
16.2871,-25.745,-148.6896,18.3892,11.0333,-45.9698,6.8301,-66.0165,-79.3362,-2.6269,6.8301,-30.9988,14.1342,26.7956,
12.6091,-26.2703,-149.2149,17.8639,2.1016,-60.9698,1.0511,-60.9465,-71.455,-1.0511,21.8301,-24.1682,23.1176,24.1682,
20.4908,-36.253,-143.4354,28.8972,5.779,-70.9293,6.8306,-57.2691,-62.5228,-5.779,36.8301,-21.5413,23.6434,9.1682,
5.4908,-43.0826,-151.3165,17.8634,10.5085,-73.5566,8.4064,-67.2513,-64.0997,-4.2032,46.2353,-19.9655,8.6434,7.3559,
-2.1016,-28.0826,-143.9606,13.6607,2.1016,-58.5566,10.508,-63.0486,-58.8454,10.7968,46.2358,-9.4575,10.508,22.3559,
12.8984,-13.0826,-129.7747,28.6607,-2.6269,-43.5566,2.6269,-48.8622,-59.3707,21.5418,57.2696,-11.0333,21.5418,21.5418,
23.1186,-10.508,-121.8935,31.5251,-2.1016,-37.8284,3.1532,-51.4896,-72.5056,6.5418,67.2518,-2.1016,26.2703,6.5418,
13.6612,-12.6096,-119.7919,16.5251,-9.457,-34.6762,9.458,-61.9976,-76.7093,-1.0506,65.1502,2.1021,12.6096,1.0506,
16.8128,-13.6602,-121.894,14.7117,-4.2032,-22.0666,10.5075,-54.6417,-64.0997,7.3559,74.6072,-10.5085,4.2032,16.0506,
7.3554,-19.966,-113.4876,21.0155,2.1016,-15.7628,16.8123,-55.6928,-58.8454,-2.1016,87.2163,-17.8639,18.9144,12.6091,
-0.52578,-6.8301,-98.4876,35.202,16.2871,-1.5763,31.8123,-53.0664,-48.8632,8.9322,102.2163,-2.8639,33.9144,-2.3909,
-3.1527,-1.0506,-97.7253,27.3214,10.5085,-2.1011,27.3214,-47.2868,-49.3879,17.8634,102.9791,0,28.3719,0,
-3.1527,-9.457,-104.0302,18.9149,3.1527,-11.5591,12.3214,-43.0826,-49.3879,7.3559,95.6232,-8.4064,13.3719,6.3053,
11.8473,1.0511,-89.0302,33.9149,8.4059,-1.0511,21.0155,-45.1852,-53.5917,-1.0511,102.9786,-10.508,21.0155,-8.6947,
18.9144,3.1522,-95.6237,33.6262,-3.1522,3.1522,7.3554,-60.1852,-66.2013,-6.3048,105.0807,-19.965,13.6607,-23.6947,
14.7107,0,-102.9791,22.0666,-7.3559,6.3043,0,-58.8459,-61.9976,-1.0516,102.9791,-4.965,13.6602,-13.6612,
15.237,-9.9822,-100.3517,7.0666,-14.1855,8.9317,0.52528,-61.4723,-73.0314,-7.8811,91.9463,2.6274,5.779,0.52528,
30.237,0.52528,-88.7937,0.52528,-16.2876,23.9317,11.0338,-60.4217,-68.8282,-0.52528,100.3527,-7.8811,-4.7285,6.8306,
26.2698,5.2538,-80.9125,15.5253,-18.9149,38.9317,16.8128,-53.5912,-63.0491,0,106.1318,-3.1527,-10.5085,0,
16.2876,-0.52528,-76.183,21.5423,-15.236,35.2025,13.1359,-39.4047,-67.7766,-2.6264,114.0129,0.52528,0.52528,-3.6779,
26.2703,-1.0511,-76.7088,13.6607,-21.0165,31.5241,12.6101,-27.3209,-74.6077,1.0511,126.0967,-4.2037,8.4069,-2.1016,
11.2703,0.52578,-86.692,0.52578,-36.0165,32.0493,13.1354,-39.4052,-77.2341,1.5763,123.4704,-2.6269,-0.52578,-17.1016,
1.5763,-5.7795,-83.5394,7.8806,-26.7956,27.8461,15.2365,-54.4052,-63.5739,6.8301,131.8758,9.9827,-1.5763,-32.1016,
-1.5763,-16.2871,-81.4373,4.729,-20.4903,13.1354,7.8816,-63.5739,-58.3191,3.6784,139.2326,1.5763,3.6784,-47.1016,
-4.729,-1.2871,-69.8792,13.1354,-14.186,22.5924,22.8816,-48.5739,-43.6084,5.7795,150.7907,0.52578,15.2365,-41.5073,
-17.8634,0,-69.3534,25.2192,-10.5075,27.3214,30.474,-55.6923,-42.0321,6.3053,152.367,0,1.0516,-38.8794,
-4.7285,-0.52528,-54.3534,38.3552,-1.5758,35.2025,33.1004,-50.9638,-34.1509,21.3053,163.4008,15,0.52528,-26.7951,
-5.7795,-4.728,-47.8116,23.6429,-2.6269,28.8977,29.9482,-43.6084,-39.4052,6.8301,158.1466,21.5418,2.6269,-20.4903,
-6.8301,-2.6269,-44.66,23.6429,2.6269,24.6935,29.9482,-40.4568,-49.9137,-5.7795,153.9434,18.3892,7.8806,-33.1009,
1.0511,-9.4575,-50.439,38.6429,-6.3048,17.8639,22.0671,-48.3369,-52.5401,9.2205,149.2149,16.8123,-1.0511,-47.2863,
7.3559,-7.3559,-50.4385,46.2353,-13.6602,11.5591,14.7107,-53.5912,-48.3374,17.8634,152.3671,9.457,-13.6602,-32.2863,
11.5596,2.1016,-44.1337,34.6767,-14.7112,4.2037,11.5596,-61.9971,-56.7433,2.8634,160.774,10.509,-18.9144,-17.2863,
16.2871,5.7795,-35.202,35.202,-12.0848,5.7795,15.2365,-61.4728,-59.3707,-5.7795,159.1971,25.509,-12.0848,-12.0848,
10.508,-6.3048,-31.5241,44.1337,-8.4069,8.4059,11.5586,-56.7433,-53.5917,6.3048,144.1971,18.9144,-15.7618,-21.0165,
11.5586,-8.4059,-34.6767,43.0831,-6.3048,10.508,8.4069,-55.6928,-55.6928,9.4575,147.1138,6.3048,-23.1176,-14.7112,
1.0506,0,-48.3374,31.5236,-21.3048,7.3559,3.1517,-58.8459,-57.7944,0,162.1138,6.3043,-27.3214,-29.7112,
-7.3559,7.3559,-46.2353,44.1342,-24.1687,18.9149,9.457,-52.5406,-42.7944,8.4064,177.1138,16.8128,-16.8128,-44.7112,
-14.7117,-1.0506,-37.8289,50.4385,-9.458,31.5236,12.6096,-46.2363,-27.7944,23.4064,181.7895,26.2698,-1.8128,-29.7112,
-28.8967,-5.7795,-37.3031,43.6084,-8.9322,44.66,15.2365,-36.2525,-24.6935,34.1514,190.7217,41.2698,2.6269,-14.7112,
-27.8461,2.6269,-40.4558,42.5579,-8.9322,53.0664,24.6945,-37.3031,-29.9482,32.0493,202.2808,56.2698,-4.729,-2.6269,
-12.8461,-2.1016,-29.422,35.7283,2.1016,38.0664,28.3724,-52.3031,-31.5241,25.2197,190.1964,55.6928,-3.1522,-9.4575,
-5.2538,-2.1011,-14.7117,36.7783,-1.0506,32.5751,25.2193,-55.6933,-30.473,21.016,183.8916,49.3879,1.0506,-15.7623,
4.2032,-4.2032,-10.5085,43.0826,-14.7117,43.0826,26.2698,-44.1342,-35.7278,18.9139,198.8916,52.5406,-5.2538,-30.7623,
6.3048,-12.6091,-8.4059,40.982,-6.3048,45.1852,23.1176,-49.3874,-34.6767,13.6607,203.8566,45.1852,-15.7618,-39.9305,
-3.6784,-2.6269,-9.9827,39.4052,2.6269,43.6084,11.0333,-55.1675,-35.202,7.8806,199.1281,40.4558,-16.2881,-24.9305,
-2.6269,5.7795,-8.9322,39.4052,-5.7795,39.4052,2.6269,-62.5233,-45.7105,3.6774,199.1281,30.9988,-16.2881,-17.3386,
12.3731,1.0506,-1.0506,40.9815,-18.9139,35.7278,1.0506,-58.8449,-51.4891,-3.1527,193.3486,15.9988,-24.1687,-32.3386,
24.1682,5.2543,3.1522,48.3369,-25.2197,50.439,-3.1522,-43.8449,-51.4896,-5.2543,190.1964,18.9144,-33.6262,-32.5746,
32.5746,13.6607,-1.0511,48.3369,-17.8639,64.0992,-3.1522,-36.7788,-46.2358,1.0511,197.5523,33.9144,-32.5756,-26.2703,
32.5751,10.5085,-4.2032,33.3369,-14.7117,54.6417,-1.0506,-51.7788,-49.3879,1.0506,195.4507,32.5751,-29.4225,-41.2703,
17.5751,3.6779,-0.52528,25.7445,-21.5413,57.2691,0.52528,-50.9648,-47.8121,-2.6274,191.7728,26.7951,-39.4057,-42.5584,
14.7112,8.4069,-2.1016,30.4735,-27.3209,70.4045,-1.0511,-35.9648,-42.0326,1.0511,202.8061,41.7951,-47.2863,-28.3714,
26.2703,7.3564,-4.2027,28.3724,-26.2703,65.1507,-2.1016,-35.7273,-40.981,2.1016,203.8566,38.8799,-36.7778,-26.2703,
11.2703,-0.52528,0.52528,26.7961,-30.9983,60.4217,0.52528,-50.7273,-39.4057,-4.7285,189.6706,23.8799,-30.9983,-41.2703,
3.1522,9.4575,2.1016,26.2703,-40.982,68.3024,-2.1016,-53.5917,-46.2358,-10.508,178.6374,17.8639,-45.9983,-56.2703,
18.1522,21.016,3.1527,27.3214,-32.5751,68.3029,-3.1527,-39.931,-52.5406,-7.3559,182.8411,30.474,-51.4891,-56.7438,
24.6935,9.9827,4.729,21.5418,-39.4052,64.6245,-4.729,-34.1514,-57.2696,-15.2365,186.5185,22.5924,-43.6084,-41.7438,
15.7623,6.3053,4.2032,23.1181,-47.2858,74.6072,-4.2032,-19.1514,-54.6417,-17.8634,189.1454,17.8634,-38.8794,-49.3879,
6.3048,7.3554,6.3048,28.3714,-44.1337,71.455,-6.3048,-12.6101,-52.5411,-12.6101,184.9417,23.1176,-43.0831,-64.3879,
-0.52578,0.52578,21.3048,34.1514,-37.3041,62.5233,0.52578,-25.745,-45.7105,-4.729,190.7217,30.9988,-37.3041,-67.7771,
-0.52528,0.52528,21.5413,36.253,-36.253,65.6755,6.8306,-29.9477,-39.4057,-0.52528,202.2803,36.253,-35.2025,-52.7771,
-2.6264,4.7285,13.1359,32.0498,-40.4563,65.6755,-0.52528,-21.5413,-47.8111,0.52528,197.0265,27.8466,-48.8627,-67.7766,
-1.0506,2.1021,23.1181,35.7278,-39.931,64.0997,1.0506,-22.0666,-47.2858,-7.3559,187.0443,13.6612,-54.6417,-82.7766,
3.6779,-3.6779,33.1004,37.3036,-42.5574,64.625,12.0843,-32.0498,-43.6079,-21.5413,180.2137,6.8306,-57.2691,-97.7766,
-3.1522,3.1522,27.3209,35.7273,-47.2863,60.9465,3.1522,-37.8294,-56.7433,-17.8639,176.5362,11.5586,-55.6928,-100.8775,
5.2543,16.8123,34.6767,38.8799,-46.2358,63.0486,-5.2543,-22.8294,-49.3884,-12.6101,187.0438,22.0671,-40.6928,-85.8775,
10.5085,6.3053,34.6762,33.6257,-51.4901,59.8965,-6.3053,-8.4064,-39.931,-27.3214,189.1454,18.9149,-42.0321,-85.1157,
3.6779,5.78,21.5423,29.9487,-55.167,64.625,-3.6779,-7.8811,-43.6079,-18.3887,191.7728,20.4908,-57.0321,-85.641,
4.2037,20.78,24.1682,28.3714,-50.439,61.9981,-8.4069,-11.5586,-53.5917,-4.2037,185.9932,25.2197,-66.2013,-77.7594,
14.186,17.3376,29.9482,21.5408,-54.1169,49.9127,-21.5418,-14.186,-61.4728,-19.2037,170.9932,18.3892,-79.3362,-81.4383,
19.4402,12.0843,30.9993,16.2876,-64.624,64.9127,-20.4908,-12.0843,-49.9132,-22.5919,173.9094,20.4908,-85.64,-66.4383,
12.0843,12.0843,25.7445,17.3381,-69.8787,77.2346,-12.0843,-19.4402,-53.0659,-16.2876,172.8578,17.3381,-87.7421,-54.1164,
15.7623,17.8634,30.474,29.4225,-68.3029,62.2346,-11.5591,-15.7623,-66.2008,-27.3214,166.0282,11.5591,-86.1663,-69.1164,
15.237,12.0843,36.253,33.1014,-65.6755,52.0153,-12.0843,-16.2876,-53.0659,-20.4908,178.1126,19.4402,-71.1663,-84.1164,
1.5763,7.8806,30.9988,32.0493,-63.5739,67.0153,-1.5763,-24.6945,-38.0659,-5.4908,192.8228,34.4402,-57.2696,-69.1164,
-5.2538,11.5591,31.5246,32.5751,-60.947,72.5061,5.2538,-27.3204,-33.6257,-17.8634,177.8228,37.8289,-64.0987,-65.1502,
-3.6779,11.0338,42.5584,35.2025,-52.0143,60.4217,3.6779,-25.7445,-45.71,-27.8456,162.8228,26.7961,-69.8787,-80.1502,
-2.1016,2.1016,43.0831,43.0831,-51.4896,57.7949,2.1016,-26.2703,-47.2863,-12.8456,169.1804,30.4735,-72.5056,-95.1502,
-1.0506,1.0506,42.0321,45.1847,-57.7944,64.0997,6.3043,-28.3719,-40.9815,-14.7117,172.3325,32.5751,-83.0136,-89.3189,
-1.5763,9.9827,50.9643,45.7105,-68.8277,61.4728,1.5763,-23.6429,-39.4052,-29.7117,159.1981,21.5418,-85.6405,-98.2501,
-1.0506,12.6096,63.0481,52.5406,-58.8449,66.2008,1.0506,-8.6429,-38.8804,-29.4225,174.1981,28.3719,-70.6405,-87.2168,
-7.3554,4.2027,54.6422,43.0831,-57.7949,64.0992,-3.1522,3.1522,-47.2863,-14.4225,189.1981,37.8294,-55.6928,-72.2168,
0.52578,16.2881,52.0148,40.4558,-70.9298,58.3201,-7.8806,-0.52578,-46.7611,-12.0838,185.4679,33.1009,-70.6928,-63.5739,
12.6096,24.1687,57.7944,35.7278,-81.9631,61.9976,-16.8128,-12.6096,-49.3879,-27.0838,170.4679,18.9139,-85.6928,-72.5061,
18.3892,20.4903,52.0148,23.6429,-79.3362,73.0309,-23.6439,-15.2365,-58.3201,-42.0838,155.4679,15.2365,-80.3867,-78.2856,
11.5591,19.9655,47.2868,19.9655,-72.5061,59.8965,-17.8634,-11.5591,-50.4385,-42.0321,170.4679,19.9655,-88.2674,-93.2856,
7.3559,25.2192,53.5912,30.473,-75.6577,45.1847,-7.3559,-8.4064,-40.9815,-28.3719,180.739,19.9655,-100.878,-108.2856,
12.0843,22.5919,53.0659,35.2025,-84.5904,55.167,-12.0843,-14.1865,-49.9132,-34.1509,173.9084,13.1349,-94.0474,-120.3172,
20.4913,17.3386,52.0158,34.1514,-81.4373,58.3201,-14.186,-16.2871,-49.9127,-37.3031,162.3508,14.186,-87.7416,-105.3172,
14.186,20.4903,54.1169,40.4558,-82.4888,43.3201,-14.186,-15.2365,-44.659,-42.5579,161.2992,16.2871,-91.9458,-90.3172,
12.0843,26.7961,61.4723,42.5584,-85.641,45.71,-12.0843,-13.1349,-44.6595,-40.4563,176.2992,19.4402,-84.5894,-100.3517,
17.3386,20.4913,58.3201,32.0503,-84.5899,43.6084,-15.2365,-18.3892,-55.1675,-41.5063,177.0615,15.2365,-87.7426,-112.9618,
12.6096,18.9149,53.5912,33.6257,-77.7599,29.4225,-12.6096,-16.8128,-49.3879,-39.93,168.1293,17.8644,-86.1663,-109.2834,
-1.5763,30.9988,63.5739,48.6257,-76.1835,35.202,-6.8301,-1.8128,-34.3879,-29.9482,183.1293,32.8644,-71.9803,-109.8092,
-16.5763,33.1004,68.8282,55.168,-73.0314,35.2025,-7.8811,7.8811,-29.9477,-27.8466,194.9254,38.3542,-83.5389,-97.2001,
-26.2698,39.931,70.404,55.6933,-58.0314,27.3214,-8.4064,8.4064,-31.5246,-18.9149,197.5518,39.931,-87.2168,-82.2001,
-11.2698,46.2358,77.7594,70.6933,-43.0314,12.3214,-8.4069,3.1522,-23.1176,-16.8133,204.9072,44.1337,-72.5056,-67.2001,
3.7302,41.5073,92.7594,85.6933,-28.0314,-2.6786,4.729,-4.729,-16.2871,-15.2365,204.3819,54.1169,-64.6245,-52.2001,
4.2032,26.5073,90.3695,80.9115,-13.0314,-17.6786,8.4064,-19.729,-18.9149,-12.6096,192.298,48.3364,-71.4555,-67.2001,
-5.7795,15.2365,91.9458,95.9115,1.9686,-32.6786,9.9827,-34.729,-11.0333,-5.7795,190.7217,49.9137,-60.4212,-82.2001,
-3.6779,19.4402,87.7431,110.8602,7.8811,-47.6786,3.6779,-49.729,-20.4908,-17.3381,177.061,46.7616,-69.8787,-67.2001,
1.5763,4.4402,77.2341,99.3017,15.2365,-62.6786,4.728,-64.729,-32.0503,-25.745,177.0615,38.3546,-77.2351,-62.5233,
16.5763,-10.5598,90.3695,110.335,29.4225,-77.6786,13.6602,-79.729,-18.9149,-14.7117,192.0615,46.2353,-62.2351,-77.5233,
19.4402,-12.0843,87.7421,112.9613,19.4402,-91.9463,12.0843,-94.729,-19.4402,-18.3897,206.4835,43.6079,-50.9648,-80.3872,
14.7112,-9.4575,83.0141,110.3345,18.9144,-93.5216,9.4575,-109.2839,-24.1682,-27.3209,212.263,33.6262,-64.0992,-65.3872,
16.8128,-8.4064,90.3695,120.8425,29.4225,-93.5221,8.4064,-100.878,-17.8644,-23.1181,222.771,43.0826,-52.5406,-70.405,
18.9149,-13.6602,89.3189,118.7414,24.1687,-94.5727,13.6602,-96.6738,-18.9139,-18.9139,212.2635,40.9815,-42.0321,-85.405,
12.6096,-12.6096,91.42,120.8425,15.7613,-101.9291,22.0666,-110.3355,-22.0676,-15.7623,204.9077,25.9815,-57.0321,-98.7759,
8.4064,-8.4064,96.6748,125.0467,15.7623,-105.0807,14.7117,-123.9951,-25.2192,-19.9645,197.5528,18.9149,-72.0321,-104.0297,
18.3887,-2.6274,88.7937,110.0467,2.6274,-97.2001,2.6274,-127.6736,-33.1004,-34.9645,182.5528,23.6434,-78.2851,-119.0297,
26.2703,2.1016,85.1152,111.385,-2.1016,-82.2001,9.4575,-113.4871,-35.7273,-38.8799,195.4502,27.3209,-64.0992,-128.1989,
13.6607,-10.508,89.3194,125.0462,12.8984,-75.6582,10.508,-105.0807,-35.7273,-23.8799,198.6028,16.8133,-61.9971,-113.1989,
12.6101,-13.6607,97.7248,122.9451,23.1176,-73.5561,11.5586,-107.1823,-22.0671,-11.5586,183.6028,25.2197,-63.0486,-98.1989,
19.4402,-7.8811,106.657,115.0635,8.1176,-69.8787,24.694,-106.657,-11.0328,-13.1349,193.8749,40.2197,-66.7261,-83.1989,
14.7117,-4.2032,106.1318,118.7414,4.2032,-54.8787,22.0666,-99.8269,-16.8128,-11.5591,208.8749,54.6417,-79.861,-68.1989,
12.0843,-7.8811,100.3527,116.115,9.9832,-43.6079,7.8811,-100.3522,-20.4908,-13.1349,205.4329,39.6417,-83.5389,-79.3357,
15.236,-8.9317,115.3527,116.114,4.7285,-58.6079,22.5919,-103.5049,-5.4908,-12.0843,204.3824,24.6417,-70.9303,-94.3357,
0.236,-10.5075,123.9951,114.5382,0,-67.2513,28.3719,-108.2334,1.0506,-10.5075,215.4162,18.9149,-67.2513,-109.3357,
-4.2037,-3.1532,118.7409,116.6398,13.6597,-52.2513,16.8123,-101.9291,2.1016,-2.1016,205.9577,26.2693,-58.8454,-106.1323,
-1.0511,-4.2027,129.2494,123.9956,11.5586,-37.2513,17.8639,-101.9286,1.0511,-6.3048,190.9577,25.2198,-58.8454,-91.1323,
5.7795,2.6269,137.1305,122.4198,-2.6269,-42.5579,22.5924,-92.9964,-3.6774,-13.1354,204.3829,23.6429,-65.675,-89.8437,
7.3554,14.7112,131.3515,114.5387,-7.3554,-27.5579,16.8133,-77.9964,-7.3554,-17.8639,212.263,18.9144,-68.3024,-96.6743,
-0.52528,19.4402,133.9784,119.2667,-8.9317,-12.5579,20.4908,-67.7766,0.52528,-16.2876,197.263,21.5413,-66.7261,-81.6743,
1.0506,15.7623,141.8595,117.6908,-23.9317,-11.5591,13.6602,-63.0481,-1.0506,-18.9149,184.9422,21.016,-71.4545,-81.9631,
16.0506,23.1181,151.3165,114.5382,-31.5246,-3.1527,3.1527,-53.5912,-6.3053,-19.9655,199.9422,15.7623,-65.1502,-93.5221,
14.7117,17.8634,146.0627,106.1318,-46.2353,5.2538,-5.2538,-56.7438,-19.9655,-25.2193,197.5518,15.7623,-69.3534,-88.2684,
8.4064,14.7107,148.1638,111.3855,-50.4385,3.1527,-3.1527,-52.5406,-14.7117,-18.9149,194.3991,30.7623,-71.4555,-73.2684,
17.8639,22.0671,163.1638,116.6398,-35.4385,-3.1522,3.1522,-52.5401,-8.4069,-12.6101,191.247,34.6767,-66.2013,-71.455,
21.5413,24.694,176.0105,116.114,-27.8466,-4.7285,4.7285,-67.5401,-14.1865,-15.237,178.1116,19.6767,-66.7271,-86.455,
15.7623,24.1687,176.5357,121.894,-26.2708,-5.2538,4.2032,-70.404,-4.2032,-11.5591,183.8916,22.0666,-70.404,-88.2684,
5.2548,18.9149,168.1293,118.7414,-25.2193,-13.6602,-4.2032,-68.3019,4.2032,-15.7623,185.9937,26.2708,-78.8104,-77.7599,
3.6774,18.3892,182.3153,120.3177,-23.6439,-14.186,-2.6269,-67.7771,2.6269,-11.0333,180.2132,25.744,-68.8287,-70.9298,
-0.52578,14.186,185.4679,120.3177,-29.9482,-20.4913,0.52578,-69.8792,5.7795,-9.9827,186.5185,32.0493,-59.3707,-64.6245,
-5.2543,15.7618,179.6879,120.843,-29.423,-31.5241,5.2543,-68.3024,8.4069,-10.508,201.5185,39.9305,-56.7433,-67.2518,
-0.52528,12.0843,188.6201,123.4699,-23.6434,-35.2015,0.52528,-70.9293,12.0843,-5.779,203.3318,33.1004,-58.3196,-79.3357,
-3.1522,4.2037,198.6028,131.3515,-26.2703,-30.4735,-5.2543,-72.5056,23.1176,3.1522,197.5523,32.5746,-57.7949,-70.4045,
-18.1522,-0.52528,190.7222,129.7752,-30.9983,-38.3542,0.52528,-74.0819,18.3897,1.5768,198.0771,38.3541,-57.2691,-55.4045,
-15.7628,2.1016,192.2975,126.0967,-26.2703,-30.4735,5.2533,-66.2013,14.7112,-2.1016,193.3481,38.8799,-63.0486,-43.0831,
-0.76278,14.7112,205.9587,130.3,-18.9144,-15.4735,-1.0511,-57.7949,14.7112,-4.2037,188.0943,34.6767,-69.3539,-49.3884,
-9.458,16.8128,205.9582,126.0972,-25.2192,-0.47351,-1.0506,-64.0997,10.5075,-4.2032,184.9422,36.7783,-68.3029,-58.8459,
-24.458,1.8128,192.8233,125.571,-39.4057,-15.4735,-0.52528,-78.2851,9.9822,0.52528,170.7557,29.9477,-61.4723,-66.7271,
-26.7956,-2.6269,195.9755,133.9779,-28.8967,-20.4903,2.6269,-75.133,19.4397,9.9827,167.6036,27.8461,-60.4212,-80.3867,
-25.2197,6.3048,210.9755,129.2494,-27.3209,-23.1176,-5.2543,-66.2013,17.8639,5.2543,172.333,24.1682,-74.6077,-95.3867,
-20.4908,14.1865,225.9755,136.0795,-33.1004,-8.1176,-4.7285,-55.167,21.5413,4.7285,174.9599,23.6434,-74.0819,-110.3867,
-22.5924,6.8301,212.7893,131.8768,-35.202,-2.6269,-1.5763,-61.4718,17.3386,1.5763,160.2487,21.5418,-87.7426,-95.3867,
-21.5418,6.8301,212.7883,127.6736,-39.4052,0.52578,-3.6784,-60.4212,14.186,-0.52578,157.096,22.5924,-86.692,-80.3867,
-20.4913,7.8806,213.8388,124.5209,-43.6084,2.6269,-5.7795,-58.3201,12.0838,-2.6269,154.9939,23.6429,-85.6415,-65.3867,
-19.4402,7.8811,213.8393,120.3172,-47.8121,4.7285,-7.8811,-56.2185,8.9317,-4.7285,151.8418,24.694,-84.5904,-59.3712,
-17.8639,9.4575,215.4157,117.6903,-51.4896,7.3554,-9.4575,-53.5917,6.3048,-6.3048,149.2149,26.2703,-81.9626,-55.6928,
-14.186,12.0848,218.0431,116.1145,-53.0654,13.1354,-8.9312,-49.9127,5.7795,-5.7795,148.6896,29.9482,-78.2846,-49.9127,
-11.0338,15.237,221.1952,115.0635,-55.168,17.3381,-8.9317,-45.71,5.779,-5.779,148.6891,33.1004,-75.1325,-44.6595,
-6.3043,18.9149,224.8731,113.4876,-56.7438,23.1181,-7.3559,-40.9815,5.2538,-5.2538,149.2144,36.7783,-69.3534,-37.8289,
-12.6096,17.8634,220.6699,113.4876,-63.0481,22.0666,-1.0506,-47.2858,1.0506,-2.1011,145.0112,21.7783,-70.404,-47.2858,
-18.9144,17.8639,208.0598,114.5387,-65.1497,17.8639,-3.1522,-49.3874,-5.2543,3.1522,147.1138,21.0165,-73.5561,-48.3369,
-20.4903,21.5418,205.4334,106.6575,-65.675,21.5418,-2.6269,-42.5579,2.6269,-3.6774,157.096,29.9482,-70.9298,-43.6084,
-33.6262,19.965,202.8061,106.1313,-67.2518,23.1176,-5.2543,-40.982,5.2543,-6.3048,152.3676,24.1682,-76.7088,-58.6084,
-44.659,15.2365,194.9249,102.4533,-70.9298,14.186,-11.0333,-48.8622,-2.6269,2.6269,142.3843,20.4903,-86.692,-73.6084,
-38.8799,15.7618,199.6534,93.5216,-69.3539,11.5586,-1.0511,-53.5917,-1.0511,1.0511,134.5032,23.1176,-88.2679,-79.8615,
-24.694,20.4908,202.2803,100.3517,-70.9303,17.3381,0.52528,-46.7616,-0.52528,-9.9832,120.3172,28.8972,-95.098,-64.8615,
-9.694,34.6762,204.9077,115.3517,-67.2523,32.3381,0,-31.7616,0,0,121.894,38.8794,-92.4716,-58.8459,
-14.186,24.6945,199.1281,109.8092,-81.4373,24.6945,-3.6774,-35.202,-5.7795,3.6774,118.2156,24.6945,-88.7931,-73.8459,
-29.186,10.508,193.3491,95.6237,-88.2679,13.6607,-3.1522,-46.2358,3.1522,-3.1522,125.0462,17.8639,-85.1152,-80.912,
-44.186,4.2032,183.8916,93.5221,-88.2674,6.3053,-4.2032,-49.3879,5.2548,-11.5581,134.5037,14.7117,-87.2168,-78.8104,
-39.931,14.7107,187.0443,94.5727,-87.2168,11.5591,-1.0506,-40.9815,-2.1021,1.0506,138.7069,29.7117,-79.862,-80.9125,
-39.931,17.8634,191.2475,86.1663,-85.1157,17.8634,-5.2538,-39.931,-8.4064,5.2538,123.9951,37.8289,-84.0652,-76.7093,
-43.0831,7.3554,183.8911,86.1658,-74.6077,15.7618,2.1016,-45.1852,-10.508,-2.1016,114.5377,23.1176,-98.7764,-71.455,
-43.6089,-0.52528,176.0105,85.641,-70.9293,4.7285,15.237,-45.71,-12.0843,0.52528,115.0635,16.2876,-88.7936,-84.5904,
-55.6923,-10.5075,180.739,83.0146,-81.9631,4.2032,11.5591,-48.3364,-4.2032,10.5085,113.4876,23.1181,-73.7936,-97.7248,
-59.3702,-6.8306,176.0105,77.2346,-88.7937,16.2876,3.6779,-49.9132,-3.6779,6.8306,115.0635,23.6434,-74.0819,-82.7248,
-47.2868,5.2538,168.1293,75.6577,-84.0652,19.9655,14.7107,-44.1342,-12.6096,-5.2538,112.4361,14.7107,-77.7599,-67.7248,
-45.7095,9.9827,159.1981,76.1835,-81.4373,16.2881,19.4407,-29.1342,-12.0838,-9.9827,108.7586,25.745,-81.4373,-54.1159,
-55.6923,8.4064,144.1981,70.405,-89.3179,13.6612,9.458,-22.0666,-10.5075,-8.4064,95.6242,40.745,-91.42,-48.3364,
-61.4723,8.9317,138.1816,70.9293,-98.2506,4.7285,6.8306,-34.1509,-17.3381,-4.7285,80.6242,33.1004,-101.4033,-57.2691,
-61.4718,13.1354,137.1305,75.133,-98.2501,1.5763,5.7795,-39.4052,-20.4903,-1.5763,75.133,22.5924,-111.9108,-72.2691,
-61.9976,6.3043,122.1305,69.3534,-101.9286,6.3043,4.2032,-32.5751,-22.0666,-4.2032,77.7599,28.3719,-126.9108,-87.2691,
-52.0153,16.2876,119.2667,70.9293,-96.1485,9.9822,12.0843,-19.4402,-16.2876,-9.9822,71.9808,36.253,-111.9108,-72.2691,
-47.8111,31.2876,121.3688,82.4883,-99.3012,8.9317,7.8811,-20.4908,-14.1855,-7.8811,65.6755,32.0498,-96.9108,-57.2691,
-59.8965,27.3214,106.3688,74.6072,-114.3012,2.1011,1.0506,-34.6762,-16.8128,-1.0506,65.1502,27.3214,-111.9108,-72.2691,
-60.4212,21.5418,98.2511,68.8277,-112.9618,4.729,15.2365,-19.6762,-15.2365,-4.729,70.9298,34.1514,-120.3177,-65.675,
-57.7939,24.1692,93.5226,69.3539,-108.2324,6.3048,15.7628,-6.3048,-18.9144,-9.4565,72.5066,28.3724,-110.3345,-53.5907,
-63.5734,9.1692,85.641,68.8282,-110.8602,0.52528,9.9832,-21.3048,-16.2876,-0.52528,73.0314,22.5929,-121.3683,-68.5907,
-64.6245,6.8301,85.6405,76.1835,-112.9618,1.5763,12.0838,-29.9482,-17.3386,-1.5763,71.9803,29.9482,-129.7752,-83.5907,
-66.7266,21.8301,78.2856,76.1835,-117.1651,4.729,11.0333,-14.9482,-23.6429,-16.5763,70.9298,27.8461,-114.7752,-82.4888,
-76.7088,16.8133,66.2013,66.2013,-118.7409,2.1016,11.5586,-2.1016,-23.1176,-24.1682,66.2013,12.8461,-99.7752,-67.4888,
-69.3529,15.7618,77.7594,71.455,-111.386,7.3554,19.965,-7.3554,-12.6101,-11.5586,68.3024,8.4069,-113.4871,-65.1497,
-64.624,24.694,69.8787,67.7776,-118.2151,3.6779,7.8811,-3.6779,-21.5413,-20.4908,58.3206,23.4069,-114.0119,-66.7261,
-60.4217,27.8466,59.3712,73.0314,-120.3172,11.0338,0.52528,-0.52528,-28.8972,-24.694,53.0659,23.6434,-103.5044,-60.4217,
-63.5739,19.4397,63.5739,76.1835,-120.3177,9.9827,11.0333,-9.9827,-32.0493,-14.186,49.9137,15.2365,-118.5044,-69.8782,
-59.8955,30.474,75.6587,78.8104,-114.5382,3.1527,26.0333,-4.2032,-19.9655,-3.1527,60.947,30.2365,-113.4866,-64.0987,
-53.0654,32.0493,60.6587,77.2341,-114.0129,-0.52578,25.745,0.52578,-9.9827,-5.7795,69.8792,42.5579,-98.4866,-49.9137,
-53.0654,24.6945,53.0664,73.0309,-118.2161,2.6269,19.4397,-2.6269,-9.9827,-2.6269,65.676,29.9482,-89.8437,-48.8622,
-68.0654,23.1171,55.6923,71.4545,-133.2161,3.1527,16.8128,-3.1527,-18.9149,-8.4064,59.8955,23.1171,-104.8437,-59.8965,
-69.8782,20.4913,40.6923,77.2341,-143.4354,4.729,23.6429,-4.729,-29.9482,-22.5924,56.218,21.5418,-115.063,-71.9803,
-54.8782,17.3381,25.6923,68.8272,-142.3848,13.1349,21.5413,-12.0843,-34.1519,-25.7455,54.1164,12.0843,-107.7086,-82.4883,
-46.7611,28.8967,40.6923,60.4212,-133.9784,25.745,17.3386,-4.729,-20.4913,-13.1354,55.1675,4.729,-109.8092,-84.5899,
-59.3712,35.2015,49.9132,63.5734,-129.7752,12.0843,18.3887,3.6779,-19.4402,-23.6434,44.6595,-3.6779,-124.8092,-99.5899,
-67.2513,29.4225,34.9132,70.404,-139.7574,0,22.0676,0,-27.3204,-34.6762,43.0836,0,-127.1478,-114.5899,
-58.8454,23.1176,26.2693,60.9465,-149.2154,6.3048,16.8123,-6.3048,-22.0671,-22.0671,49.3874,12.6091,-121.8945,-108.2334,
-47.2863,23.1176,34.6767,63.0476,-141.8595,6.3048,14.7112,-6.3048,-15.7628,-12.6101,48.3369,15.7618,-121.8945,-93.2334,
-44.66,29.9482,38.3547,75.133,-136.08,-0.52578,16.2871,0.52578,-23.6429,-14.186,50.9643,17.3386,-109.8092,-78.2334,
-44.659,34.1514,42.5579,69.8792,-131.8763,-4.729,16.2881,4.729,-20.4903,-7.8806,64.6245,24.6945,-100.3522,-74.0814,
-47.2868,34.6762,44.1342,61.9976,-117.6908,-19.729,17.8634,4.2032,-18.9149,-4.2032,56.7438,31.5236,-114.5382,-71.4555,
-48.8627,35.2025,44.6595,76.9976,-102.6908,-33.1004,21.5413,7.8811,-18.3887,-7.8811,44.6595,36.253,-119.2667,-59.3702,
-51.4896,23.1176,43.0831,91.9976,-87.6908,-48.1004,30.4735,-7.1189,-3.3887,1.0511,53.5917,27.3209,-111.3855,-71.455,
-66.4896,8.1176,28.8977,94.0469,-72.6908,-63.1004,30.9988,-22.1189,-1.5763,1.5763,52.0148,13.1354,-103.5049,-86.455,
-66.2013,4.2027,31.5241,100.8775,-57.6908,-78.1004,32.5746,-37.1189,-1.0511,1.0511,54.6422,26.2703,-89.3184,-101.455,
-51.2013,-2.6269,41.5073,115.8775,-42.6908,-93.1004,36.2525,-52.1189,2.6269,7.8806,59.3707,34.1514,-91.9458,-86.455,
-36.2013,-5.2538,51.4901,130.8775,-27.6908,-108.1004,51.2525,-61.9976,5.2538,21.016,66.2008,32.5751,-95.6237,-71.455,
-21.2013,-4.7285,59.3702,138.1816,-12.6908,-123.1004,60.4217,-76.9976,3.6779,28.8972,65.6755,34.1509,-80.6237,-77.2346,
-13.1349,-4.7285,55.167,139.2321,-11.0338,-138.1004,54.1164,-91.9976,4.7285,22.5919,62.5228,36.253,-69.8787,-87.7421,
-22.0676,-11.5591,46.2353,150.2649,-4.2032,-153.1004,60.946,-95.6242,6.3043,7.5919,58.8449,28.3709,-84.8787,-90.37,
-12.6101,-11.5586,48.3369,157.6213,5.2543,-141.859,75.6582,-92.4711,-2.1016,2.1016,63.0486,28.3714,-88.2679,-93.5221,
2.3899,-11.5591,54.6417,149.2144,-4.2032,-138.7069,69.3534,-99.8269,-7.3559,10.5085,58.8449,29.4225,-73.2679,-88.2674,
7.3554,-3.1532,64.0992,156.5698,-5.2543,-132.4021,66.2003,-98.7764,-2.1016,2.1016,49.3874,26.2693,-71.455,-73.2674,
-7.6446,-1.0506,60.947,156.5703,2.1021,-125.0462,76.7093,-90.3695,1.0506,-6.3053,57.7944,30.473,-86.455,-66.2008,
-22.6446,-16.0506,45.947,141.5703,-1.5763,-127.6736,76.1835,-103.5049,1.5763,2.6269,63.5739,28.8967,-90.8953,-81.2008,
-35.7268,-23.1171,39.931,130.3005,-4.2032,-123.9951,70.404,-118.5049,4.2032,9.458,52.5406,15.7623,-83.0136,-96.2008,
-24.1682,-18.9144,54.931,136.6053,-5.2543,-117.6903,76.7088,-109.2839,5.2543,9.4575,48.3369,18.9144,-91.42,-101.9281,
-27.8466,-18.3887,54.1164,140.2827,-1.5758,-119.2667,80.3872,-94.2839,1.5758,13.1349,47.8121,33.9144,-106.42,-86.9281,
-34.6767,-21.0155,39.1164,134.5042,-1.0511,-118.7409,72.5056,-92.4711,1.0511,12.6101,44.1347,40.982,-115.5887,-91.42,
-30.4735,-23.1176,39.9305,133.4526,-10.508,-109.2844,75.6582,-94.5732,10.508,10.508,55.6928,32.5746,-100.5887,-81.9636,
-27.8466,-21.5413,48.8627,137.131,-11.0338,-100.3522,76.184,-89.8442,11.0338,25.508,70.6928,40.4563,-85.5887,-66.9636,
-24.6945,-9.9827,48.8622,140.2832,-6.8301,-89.8442,69.8782,-77.2346,6.8301,36.2525,70.9298,50.9643,-86.692,-64.6245,
-27.8466,-2.6274,42.5574,132.9268,-12.0844,-89.8442,74.0819,-73.0314,2.6274,21.2525,66.7261,36.253,-77.2346,-66.7261,
-30.9988,1.5763,42.5579,128.7241,-16.2881,-87.7431,81.4373,-77.2351,-1.5763,6.8301,60.4212,29.9472,-68.8287,-63.5739,
-23.1176,1.0511,42.0326,130.3,-21.0165,-72.7431,73.5561,-78.8109,-1.0511,21.0165,45.4212,36.7778,-83.8287,-67.2518,
-25.2198,-6.3048,40.981,125.0462,-27.3209,-66.2013,72.5056,-76.7088,7.3554,6.3048,43.0831,29.422,-98.8287,-66.2013,
-21.5418,1.5763,48.8622,131.8768,-20.4913,-70.9298,87.5056,-66.7266,18.3892,-1.5763,58.0831,29.9482,-85.641,-54.1169,
-11.0343,-2.6269,47.8116,126.622,-27.8471,-64.6255,85.6405,-69.8792,3.6774,2.6269,47.8116,26.7956,-83.5394,-65.676,
-2.1016,-1.0511,48.3369,134.5032,-30.4735,-49.6255,87.2173,-57.7949,1.0511,7.3554,38.8799,36.7778,-80.912,-58.8454,
-17.1016,-2.6269,37.3031,122.4188,-34.1514,-34.6255,80.3867,-56.218,3.6774,2.6269,44.659,36.2525,-85.641,-58.3201,
-32.1016,-2.1016,44.1337,107.4188,-44.1347,-28.3724,76.7088,-64.1002,2.1016,2.1016,40.981,29.422,-99.8274,-61.9981,
-27.8471,2.6269,52.0148,114.0124,-52.0158,-24.6945,79.3362,-52.0158,-2.6269,2.6269,35.202,30.9988,-96.1495,-57.2696,
-31.5236,0,45.1847,119.7929,-51.4891,-27.3204,85.1157,-40.9815,0,1.0516,44.1342,32.5751,-87.2168,-58.8449,
-35.2015,-0.52528,45.71,114.0129,-45.71,-32.0498,88.7937,-46.7606,3.6779,0.52528,59.1342,30.9993,-87.7426,-61.4723,
-33.1004,-0.52528,49.9132,108.7581,-44.6595,-32.0498,79.3357,-57.2691,0.52528,2.6264,56.2175,33.1004,-95.0985,-65.6755,
-35.7268,0,50.4395,101.9286,-50.4385,-31.5236,76.7093,-54.6417,0,5.2548,41.2175,34.6772,-98.7759,-72.5051,
-34.1509,-0.52528,49.9132,96.1495,-45.71,-30.9983,83.5399,-54.1164,0.52528,3.6779,36.253,27.8466,-94.0474,-66.7261,
-28.3719,-4.2032,50.4395,99.8274,-30.71,-32.5751,91.421,-57.7944,4.2032,6.3053,44.1342,32.5751,-88.2679,-51.7261,
-28.8972,-4.7285,40.4563,98.2506,-32.0498,-40.4563,88.7926,-55.168,4.7285,7.8811,40.4563,47.5751,-89.8447,-36.7261,
-29.423,1.0511,39.9305,92.4711,-42.0326,-39.9305,80.912,-55.6928,-1.0511,5.2543,33.6262,43.0831,-79.8615,-28.3714,
-30.474,-1.0506,40.9815,97.7253,-37.8289,-38.8804,79.861,-63.0491,1.0506,3.1527,34.6762,31.5236,-64.8615,-38.8804,
-31.5241,-6.3048,32.5746,99.8269,-39.9305,-44.1337,84.0647,-65.1497,14.7112,6.3048,43.0831,33.6262,-65.1497,-53.8804,
-35.202,-5.7795,36.2525,98.2501,-38.3547,-47.8126,85.6405,-63.5739,13.1344,5.7795,48.8622,33.0999,-80.1497,-65.676,
-30.4735,-1.0511,35.7273,98.7754,-29.423,-43.0831,77.7594,-59.896,1.0511,3.1522,47.2863,30.4735,-84.0652,-61.9981,
-30.4735,-1.0511,29.423,98.7764,-44.423,-40.981,69.3529,-55.6928,1.0511,1.0511,33.6262,32.5746,-83.0141,-55.6928,
-36.253,-7.8811,37.3036,106.657,-46.7616,-30.9993,82.4883,-45.711,9.9822,7.8811,33.1004,37.3036,-88.7937,-53.0659,
-49.3879,-8.4064,39.931,106.1318,-34.6772,-25.2192,91.42,-48.3374,8.4064,8.4064,39.931,33.6257,-86.1663,-59.8965,
-47.8126,-5.7795,39.4052,100.3522,-44.66,-28.8977,85.6405,-50.9643,5.7795,5.7795,38.3537,33.0999,-84.5904,-58.3201,
-32.8126,-7.3554,44.1337,100.8775,-48.3369,-27.3209,84.0647,-35.9643,7.3554,9.4575,34.6767,37.8294,-86.1663,-43.3201,
-24.694,-3.6779,41.5068,103.5044,-34.1509,-22.5929,97.2001,-26.7961,3.6779,11.0338,37.3036,38.3542,-80.3872,-30.9993,
-29.9482,3.6774,37.3031,100.3522,-40.4558,-24.6945,101.4028,-37.3041,-1.5763,1.5763,34.1514,26.7956,-76.1835,-45.9993,
-24.6945,7.8806,46.7611,103.5049,-45.7105,-19.4397,90.8953,-29.9482,-0.52578,0.52578,34.1514,29.9482,-68.8277,-60.9993,
-17.3381,-2.6274,49.9132,97.2001,-33.1004,-18.3887,87.7431,-26.7951,2.6274,6.8306,40.4563,34.1509,-66.7261,-45.9993,
-21.016,-4.2032,44.1342,94.5727,-28.3719,-22.0666,94.5727,-41.7951,7.3559,4.2032,42.0321,27.3214,-75.6582,-51.4891,
-26.7956,-5.7795,37.3041,96.149,-42.5579,-14.186,92.9964,-45.7105,5.7795,5.7795,40.4558,35.202,-81.4378,-56.218,
-25.7445,-18.3887,33.1004,85.641,-44.6595,-3.6779,94.0474,-30.7105,3.6779,15.237,41.5068,47.8121,-80.3867,-41.218,
-27.3214,-16.8128,31.5246,84.0642,-42.0321,-3.1527,92.4716,-24.1687,3.1527,11.5591,37.8289,40.9815,-80.9125,-37.8289,
-29.9482,-2.6279,34.1504,87.7426,-53.0664,-1.5763,86.691,-34.1514,2.6269,1.5763,34.1504,29.9472,-71.9803,-50.9643,
-28.8972,0.52528,34.1509,84.5894,-61.4723,0.52528,85.641,-22.5929,-0.52528,-1.5768,32.0488,28.8972,-59.3712,-44.6595,
-22.5924,-2.6269,32.0493,88.7932,-56.218,5.7795,91.9458,-12.0838,-2.6269,2.6269,29.9482,33.1009,-73.0309,-42.5579,
-27.8461,-0.52578,32.0493,96.149,-47.8116,12.0838,94.0469,-12.0848,-1.5763,0.52578,26.7956,25.745,-83.5394,-44.66,
-30.9988,1.5763,32.0493,100.3522,-41.5063,15.2365,85.6415,-1.5763,-1.5763,-3.6774,25.745,18.3892,-69.8782,-33.0999,
-28.8977,-3.6784,24.6935,86.691,-36.2535,21.5408,80.3867,1.5763,-1.5763,-1.5763,25.744,24.6935,-71.9803,-39.4052,
-33.6267,-6.3053,19.9645,71.691,-35.7278,28.3709,80.9115,-6.3053,0,0,21.016,31.5236,-86.9803,-52.5406,
-30.4735,2.1016,28.3714,77.7594,-46.2358,30.4735,83.0141,-5.2543,-3.1522,-2.1016,17.8639,35.7273,-90.37,-37.5406,
-29.9487,0.52528,27.8456,87.7421,-50.9648,28.8972,83.5389,-0.52528,-9.9832,-6.8306,22.5919,34.1509,-83.5399,-29.9487,
-44.9487,-10.5085,26.2698,75.6577,-43.0836,31.5246,90.3695,2.1021,-2.1021,-3.1527,31.5246,25.2192,-84.0647,-36.7783,
-59.9487,-25.2198,21.0155,60.6577,-45.1852,16.8123,97.7248,-12.8979,2.1016,-2.1016,21.0155,11.5586,-81.9636,-51.7783,
-60.4212,-26.7956,23.6429,69.8782,-52.0148,1.8123,95.0985,-23.6429,-1.5763,1.5763,8.9322,11.0333,-68.8277,-66.7783,
-45.71,-11.7956,25.7445,70.9293,-56.2185,7.8811,89.8442,-8.6429,-2.6274,2.6274,8.9317,6.8306,-69.8787,-64.625,
-41.5068,-5.779,22.5929,58.3196,-59.3702,21.5413,96.1495,0.52528,-0.52528,-2.6264,16.2876,6.8306,-76.183,-49.625,
-42.0321,-5.2538,19.9655,66.2008,-72.5061,26.2698,92.4706,5.2538,-7.3559,-5.2538,24.1687,21.8306,-73.5566,-35.7278,
-55.168,-3.6779,7.8811,67.7766,-87.5061,20.4908,77.4706,12.0843,-19.4402,-17.3381,9.1687,20.4908,-77.2346,-38.3552,
-53.5917,3.1522,10.508,61.9971,-77.7604,29.423,69.3529,25.2197,-13.6607,-15.7618,-3.1522,14.7112,-79.8615,-23.3552,
-47.2868,-4.2032,14.7107,48.3374,-73.5566,27.3214,78.8104,17.8634,-14.7117,-14.7117,4.2032,12.6096,-83.0136,-31.5246,
-39.9305,-5.2543,26.2703,54.6422,-73.5571,24.1682,91.4205,19.965,-11.5586,-10.508,5.2543,18.9144,-68.3024,-44.1337,
-36.7783,0,28.3719,60.947,-71.4545,33.6267,91.421,25.2192,-6.3043,-3.1517,0,22.0676,-61.9976,-31.5236,
-45.7105,2.6269,13.3719,49.9137,-80.3867,27.8461,81.4373,14.186,-14.186,-7.8806,-2.6269,14.186,-75.133,-39.4052,
-52.0148,14.186,6.8301,47.8116,-92.9964,12.8461,74.0824,4.729,-21.5418,-18.3892,-4.729,8.9322,-81.4373,-54.1169,
-41.5068,14.1865,8.9317,47.8121,-99.3012,20.4908,68.8282,7.8811,-22.5919,-18.3887,-7.8811,16.2876,-83.5389,-57.2691,
-26.5068,7.8811,14.1855,47.8111,-87.7431,35.4908,76.183,19.4402,-24.694,-15.237,-7.8811,20.4908,-82.4883,-42.2691,
-41.5068,14.1865,13.1349,41.5068,-88.7937,28.8972,75.1325,12.0843,-30.9993,-24.694,-6.8306,6.8306,-82.4883,-27.8466,
-56.5068,6.3048,-1.8651,36.7778,-102.9796,13.8972,64.0992,3.1522,-26.2703,-21.0165,8.1694,2.1016,-80.912,-42.8466,
-53.5917,-3.1532,2.1016,51.7778,-89.3194,25.2188,78.8099,18.1522,-11.2703,-6.0165,23.1694,17.1016,-75.6582,-53.5917,
-45.71,-5.779,7.8811,46.7606,-90.8948,22.5919,80.3872,21.5413,-12.0843,-17.3381,8.1694,8.9317,-80.3872,-44.6595,
-44.659,9.221,20.4903,52.0148,-95.0985,30.9988,83.5394,24.6935,-18.3892,-11.0333,-3.6774,3.6774,-65.3872,-37.3041,
-41.5073,21.5418,9.9827,49.9137,-102.4538,44.659,78.2856,32.0493,-21.5418,-9.9827,-8.9322,8.9322,-70.9298,-47.8116,
-26.5073,21.5423,13.1349,50.9648,-99.3012,50.9648,78.2851,47.0493,-26.7951,-17.3381,-13.1349,21.5423,-78.2851,-32.8116,
-15.7618,23.1176,22.0671,49.3874,-93.5216,45.1842,75.6582,47.2863,-32.5756,-19.965,-18.9144,14.7112,-74.6077,-17.8116,
-19.4397,29.9482,23.6429,58.3201,-82.4878,52.0148,81.4383,50.9643,-21.5418,-9.9827,-5.7795,5.7795,-62.5233,-28.8967,
-32.0498,34.1509,11.0338,59.3702,-88.7937,48.8627,88.7937,55.167,-9.9822,-13.1349,3.6779,-3.6779,-67.7776,-38.3541,
-36.7788,34.6767,6.3048,54.6422,-95.6237,43.0831,86.1658,52.5401,-8.4069,-12.6101,1.0511,-1.0511,-73.5571,-35.7273,
-35.202,28.8977,5.7795,50.9643,-96.149,49.9137,80.3867,47.8116,-13.1354,-9.9827,-5.7795,12.0838,-70.9298,-40.4558,
-37.8289,25.2193,3.1527,49.3879,-94.5727,53.5912,84.0652,50.4385,-10.5075,-11.5591,-3.1527,23.1181,-68.3029,-46.2353,
-32.0498,27.8466,2.6274,58.3196,-90.8953,56.2185,96.1485,56.2185,-3.6779,-3.6779,-2.6274,22.5919,-64.625,-31.2353,
-27.8461,24.6945,2.6269,54.1169,-92.9964,46.7611,99.3017,44.66,-7.8806,-2.6269,-16.2871,7.5919,-65.675,-25.745,
-33.1009,27.8461,4.729,49.9137,-94.0474,31.7611,98.2501,37.3031,-3.6784,-1.5763,-8.9322,1.5763,-61.4728,-40.745,
-32.5756,31.5241,2.1016,60.9465,-92.4716,32.5746,98.7754,52.3031,-6.3048,-5.2543,-2.1016,3.1522,-60.9475,-55.745,
-17.5756,45.1852,12.6101,68.3034,-84.0642,47.5746,109.2849,67.3031,-6.3048,-7.3554,-7.3554,6.3048,-51.4896,-52.5401,
-15.237,46.7606,14.1865,55.168,-89.8442,54.1164,108.7591,69.8787,-2.6274,-3.6779,-8.9317,2.6274,-52.0153,-60.4217,
-25.2198,33.6252,-0.81355,52.5401,-99.8269,47.2863,101.9281,60.9465,-8.4069,1.0511,-1.0511,4.2027,-65.1507,-63.0486,
-19.4397,43.6084,0.52578,64.6245,-92.9969,56.218,100.3522,66.7266,-17.3386,-3.6774,-0.52578,3.6774,-65.676,-48.0486,
-21.0155,58.6084,9.4575,65.1507,-93.5216,56.7443,96.6743,77.7604,-14.7112,-9.4575,-6.3048,6.3048,-57.7939,-33.0486,
-32.5751,63.0481,5.2538,50.1507,-105.0807,57.7944,92.4716,89.3189,-8.4064,-6.3043,-5.2538,21.016,-57.7944,-18.0486,
-37.8294,48.0481,-7.3554,44.1337,-108.2334,66.2013,92.4711,92.4711,-11.5586,-7.3554,-7.3554,27.3209,-65.1497,-3.0486,
-43.0831,33.0481,-22.3554,42.0326,-102.9796,51.2013,79.8615,85.1152,-14.7112,-12.6101,-7.3554,23.1176,-60.9475,7.3554,
-46.7606,28.8972,-24.694,48.8627,-91.9458,36.2013,75.1335,81.4378,-4.7285,-6.8296,4.7285,24.694,-45.9475,-7.6446,
-34.1509,38.3542,-13.1349,58.3196,-78.2851,21.2013,84.5904,71.9798,-9.9832,-1.5758,1.5758,30.9983,-36.253,-22.6446,
-19.1509,39.4047,-4.7285,66.7261,-63.2851,6.2013,99.5904,56.9798,-15.237,4.7285,-6.8306,38.3542,-45.71,-7.6446,
-30.474,26.2698,-10.5085,66.2008,-48.2851,-8.7987,114.5904,41.9798,-1.0506,10.5075,1.0506,31.5246,-50.4385,-9.457,
-45.474,11.2698,-25.5085,58.8449,-33.2851,-23.7987,99.5904,26.9798,1.0506,8.4064,5.2538,16.5246,-55.6933,-24.457,
-39.9305,1.0511,-17.8639,73.8449,-18.2851,-38.7987,107.1828,11.9798,13.6607,23.4064,18.9144,25.2198,-40.6933,-39.457,
-35.2025,-7.8811,-13.1349,88.7927,-3.2851,-53.7987,112.9613,-3.0202,12.0843,18.3887,17.3381,26.7951,-26.7961,-49.9132,
-25.7445,-11.0328,-3.6779,89.8442,3.6779,-68.7987,111.9118,-18.0202,24.694,20.4908,23.6434,27.8466,-32.0498,-64.9132,
-11.5586,-11.5586,-6.3048,102.9796,6.3048,-83.7987,108.2334,-33.0202,25.2197,22.0671,22.0671,30.4735,-34.6767,-70.404,
-2.1016,-21.0165,-15.7618,107.1828,16.8133,-98.7987,106.1313,-45.1852,10.2197,7.0671,10.508,25.2198,-37.8294,-55.404,
10.509,-21.0155,-9.4565,112.4366,24.1692,-101.9281,113.4881,-49.3874,-2.1016,2.1016,7.3564,18.9154,-46.2348,-49.3874,
1.0511,-16.8123,-11.5586,112.4366,15.7628,-101.928,106.1323,-47.2863,-1.0511,4.2037,6.3048,13.6607,-53.5907,-51.4896,
-13.9489,-9.457,-8.4064,122.9446,30.7628,-88.2674,109.2844,-32.2863,13.9489,8.4064,21.3048,28.6607,-38.5907,-44.1332,
-25.2187,-15.7618,-13.6607,123.9956,38.8799,-79.861,114.5387,-17.2863,24.1692,13.6607,36.3048,39.9315,-24.1682,-40.981,
-11.0333,-13.1354,-16.2871,116.1145,23.8799,-75.133,118.2156,-20.4913,11.0333,17.3386,24.6945,26.7956,-34.1514,-25.981,
3.9667,-11.5591,-14.7107,101.1145,13.6612,-80.912,115.5887,-34.6762,-3.9667,6.3053,9.6945,26.2708,-34.6762,-12.6096,
9.4575,-14.7112,-14.7112,95.6237,13.6607,-74.6072,107.1828,-35.7273,-1.0511,1.0511,1.0511,35.7273,-35.7273,-27.6096,
4.2032,-7.3559,-21.016,102.9791,17.8634,-59.6072,114.5382,-23.1181,6.3043,12.6096,-4.2032,30.473,-40.9815,-19.9655,
1.0511,-5.2543,-10.508,106.1313,30.4735,-53.5917,129.5382,-21.0165,13.6607,27.6096,-1.0511,29.423,-44.1337,-23.1176,
-11.5591,-14.7117,-10.5085,97.7253,28.3719,-63.0486,122.9446,-33.6257,17.8634,19.9655,10.5085,34.6772,-47.2858,-38.1176,
-23.6429,-11.0333,-21.5418,94.0479,21.5418,-48.0486,115.064,-33.0999,24.6945,11.0333,14.186,34.1514,-43.6084,-39.4052,
-11.5591,-1.0506,-21.016,105.0812,23.1181,-33.0486,120.8435,-18.0999,24.1687,19.9655,1.0506,29.4225,-45.1847,-28.3719,
-0.52528,0.52528,-19.4402,104.5559,14.1855,-29.9477,122.4193,-11.0338,9.9822,13.1349,-11.0338,22.5929,-60.1847,-32.0498,
0,0,-17.8634,97.7253,10.5075,-18.9149,119.7919,-6.3053,9.457,-1.0506,3.1527,22.0666,-72.5061,-34.6772,
1.0506,-1.0506,-29.4225,91.42,5.2538,-25.2192,110.335,-15.7623,7.3559,-5.2538,11.5591,17.8634,-57.5061,-40.9815,
16.0506,13.6602,-31.5246,99.8264,0,-22.0666,111.3855,-15.7623,5.2538,-1.0506,0,15.7623,-42.5061,-46.2353,
25.2198,19.966,-22.0671,95.6237,-3.1522,-7.0666,115.5892,-3.1522,9.4575,-3.1522,2.1016,16.8133,-57.5061,-47.2863,
10.2198,6.8301,-23.6429,81.4373,-14.186,-7.8816,111.9113,-8.9322,14.186,-6.8301,14.186,18.3892,-72.5061,-44.66,
2.1016,9.4575,-30.4735,88.2679,-19.965,-8.4059,109.2839,-6.3048,8.4069,-2.1016,5.2543,22.0671,-69.3534,-29.66,
8.9317,16.2876,-29.9477,81.4378,-22.5929,6.5941,103.5044,3.6779,-5.78,-3.6779,-9.7457,16.2876,-57.2691,-14.66,
14.7117,8.4064,-14.9477,74.6072,-23.1181,12.6096,109.2844,-1.0506,1.0506,-6.3053,-13.6602,13.6602,-64.0997,-29.66,
11.5586,16.8123,-5.2543,89.6072,-14.7112,2.1016,122.9441,-10.508,14.7112,-2.1016,-3.1532,23.1176,-73.5571,-35.7283,
6.3048,22.0671,-15.7618,87.2173,-14.7112,-3.1522,109.2839,-1.0511,12.6101,-2.1016,1.0511,19.965,-71.455,-44.1337,
0,7.0671,-27.3214,72.2173,-25.2192,-6.3043,94.2839,13.6602,3.1527,-7.3559,0,5.2538,-61.9976,-59.1337,
-1.0511,-2.1016,-25.2188,76.7088,-23.1176,7.3554,99.8269,16.8133,6.3048,-2.1016,1.0511,12.6101,-50.439,-47.2863,
-4.729,1.5763,-27.8471,67.7771,-16.2881,12.0838,98.2501,2.6269,12.0838,-3.6784,-1.5763,19.4397,-46.7611,-41.5073,
-3.6779,9.9822,-24.694,67.7776,-7.8811,0.52528,105.6065,-0.52528,15.237,4.7285,-0.52528,21.5413,-45.71,-48.8627,
0,6.3053,-30.473,71.4555,-15.7613,-14.4747,112.4371,0,7.3559,8.4064,-15.5253,14.7117,-53.5912,-52.5396,
14.186,1.5763,-30.9988,62.5233,-9.9827,-12.0848,108.7586,2.6269,7.8806,-1.5763,-24.6945,11.0333,-52.0148,-43.6084,
15.7623,4.2032,-25.2192,58.8459,-4.2032,-8.4064,102.9791,5.2538,4.2032,-6.3043,-18.9139,12.6096,-47.2858,-39.931,
12.0838,8.9322,-21.5418,73.8459,-12.0838,-11.0333,110.8607,16.2881,0.52578,-0.52578,-13.1354,17.3386,-47.8116,-26.7956,
18.9149,14.7117,-27.3214,87.2168,-14.7117,-11.5591,113.4876,19.9655,4.2032,-4.2032,-15.7623,14.7117,-45.1847,-18.9149,
13.1354,7.8806,-33.1009,73.0309,-3.6774,-11.0333,108.7586,7.8806,3.6774,-9.9827,-15.2365,5.7795,-52.0148,-33.9149,
-1.5763,-0.52578,-24.6945,70.9298,4.729,-11.0333,123.7586,0.52578,16.2871,0.52578,-1.5763,7.8806,-62.5233,-48.9149,
-1.0506,-5.2538,-23.1171,72.5061,0,-9.457,135.5542,0,24.1687,4.2032,5.2548,11.5591,-47.5233,-52.5401,
4.2032,-2.1021,-29.4225,71.4545,-1.0506,-5.2538,121.894,-2.1021,15.7623,4.2032,1.0506,4.2032,-32.5233,-55.6933,
-1.5763,3.6774,-25.745,68.8277,-4.729,-4.729,117.1651,-3.6774,15.2365,4.729,3.6774,1.5763,-43.6084,-64.625,
-0.52528,0.52528,-18.3897,68.8282,-8.9317,-4.7285,122.4193,0.52528,18.3887,-0.52528,3.6779,7.8811,-58.6084,-49.625,
3.1527,-3.1527,-24.1687,68.3019,-6.3053,-1.0506,121.894,1.0506,11.5591,1.0506,-11.3221,4.2032,-48.3374,-45.1847,
-0.52528,4.7285,-36.253,57.2691,-12.0843,0.52528,109.8097,2.6264,2.6264,-4.7285,-20.4908,3.6779,-43.6089,-60.1847,
2.1016,15.7618,-27.3219,59.896,-10.508,-2.1016,102.9786,17.6264,5.2533,-5.2543,-9.4575,12.6091,-56.7443,-49.3884,
0,3.1517,-23.1181,65.1502,-4.2032,0,104.0297,5.2538,3.1517,-6.3053,-15.7623,1.0506,-71.4555,-34.3884,
1.0511,6.3048,-25.2197,63.0486,-1.0511,15,110.3345,6.3048,9.4575,-2.1016,-15.7618,-3.1522,-57.7949,-39.9305,
-2.6274,13.1349,-27.8466,56.2185,-6.8306,25.7445,112.9623,21.3048,15.237,0.52528,-3.6779,-0.52528,-42.7949,-54.9305,
-12.6096,3.1527,-34.6772,61.9976,-7.3559,10.7445,112.4361,12.6096,15.7623,1.0506,-3.1527,-1.0506,-33.6257,-69.9305,
-8.9322,0.52578,-42.5579,64.6245,-11.0333,14.186,108.7586,0.52578,23.6429,-0.52578,-11.0333,7.8806,-39.4052,-57.2691,
-17.3381,2.6274,-39.4057,58.3196,-21.5413,25.7445,109.8097,15.5258,23.6434,-2.6274,-4.7285,13.1349,-35.2025,-42.2691,
-28.8972,2.6274,-45.71,55.167,-32.0498,20.4908,110.8602,30.5258,12.0844,-1.5758,0.52528,-0.52528,-36.253,-44.6595,
-16.8128,14.7107,-52.5406,57.7944,-25.2192,23.1171,112.4361,26.2698,14.7107,0,-6.3053,0,-51.253,-52.5406,
-16.8133,25.2198,-51.4896,54.6422,-22.0671,26.2703,109.2839,24.1682,17.8639,-6.3048,-15.7618,6.3048,-66.253,-37.5406,
-26.2703,15.7618,-49.3874,49.3884,-23.1176,28.3724,113.4871,29.423,22.0671,-4.2027,-3.1522,3.1522,-64.0992,-32.5746,
-21.0165,3.1522,-58.8454,44.1337,-30.4735,26.2703,104.0302,28.3724,16.8133,-1.0511,-3.1522,1.0511,-49.0992,-47.5746,
-11.5586,9.4575,-59.896,46.2358,-43.0831,25.2198,96.6743,29.423,5.2543,-5.2543,-16.8123,11.5586,-48.3369,-34.6767,
-13.1349,16.2876,-48.8627,41.5068,-45.71,27.8466,111.6743,27.8466,7.8811,-7.8811,-19.4402,21.5413,-54.1164,-19.6767,
-14.7107,8.4064,-48.3374,33.6257,-44.1342,26.2708,115.5887,21.016,11.5591,-8.4064,-13.6602,14.7117,-64.0987,-30.473,
-11.5591,3.1527,-53.5912,42.0321,-37.8289,31.5246,104.0297,29.4225,9.457,-3.1527,-11.5591,9.457,-59.8965,-45.473,
-21.5418,1.5763,-54.1169,38.3547,-39.4052,33.1009,106.6575,35.202,12.0838,-1.5763,-19.4397,2.6269,-50.9643,-41.5073,
-30.474,0,-50.4385,30.473,-44.1342,35.7278,116.6393,33.6257,17.8634,0,-12.6096,2.1011,-58.8454,-26.5073,
-37.8289,0,-56.7438,29.4225,-44.1342,45.1847,107.1823,39.931,10.5075,0,-9.457,3.1527,-73.8454,-23.1181,
-22.8289,15,-57.7949,30.4735,-40.982,56.7433,101.9281,53.5907,9.4575,-3.1522,-18.9144,3.1522,-60.947,-21.0165,
-7.8289,28.8977,-50.9643,27.8461,-39.4052,59.3707,110.8607,55.1675,18.3892,-3.6774,-26.7956,3.6774,-45.947,-18.3892,
-13.6607,26.2703,-53.5907,26.2703,-40.981,55.6928,115.5892,56.7433,16.8133,-3.1522,-31.5241,3.1522,-50.439,-32.5746,
-5.7795,36.2525,-47.8116,40.4558,-37.3041,66.7266,116.1145,69.8782,19.4397,-1.5763,-25.745,1.5763,-65.439,-35.202,
7.3554,48.3369,-42.0326,45.1842,-48.3369,63.0486,101.9281,64.0992,22.0671,-7.3554,-34.6767,-10.508,-63.0486,-42.0326,
7.8811,55.167,-40.4563,49.9132,-52.0153,57.2691,100.3517,58.3196,17.3381,-11.0338,-37.3036,-7.8811,-52.0153,-47.8121,
0,53.5912,-54.6417,44.1342,-50.4385,57.7944,108.2339,65.1502,11.5591,-13.6602,-29.4225,0,-67.0153,-38.8794,
-6.3043,51.4901,-55.6928,38.8804,-47.2858,67.2513,123.2339,71.4555,26.2698,-4.2032,-16.8128,4.2032,-70.404,-26.2698,
-19.4402,45.71,-52.0153,36.253,-49.9132,67.7766,114.0129,58.3196,28.8972,-0.52528,-20.4908,0.52528,-61.4728,-39.4057,
-11.5591,54.6417,-45.1847,45.1847,-46.2353,64.0987,102.9791,60.947,26.2698,-1.0506,-13.6602,1.0506,-59.8965,-27.3214,
-2.1011,52.5406,-42.0321,40.9815,-40.9815,64.0997,113.4876,75.947,28.3719,-2.1011,0,0,-63.0481,-12.3214,
-8.9322,43.6084,-47.8116,25.9815,-48.8622,69.8792,116.1145,78.2856,24.6935,-1.5763,-5.7795,1.5763,-58.3201,-24.6945,
-14.186,42.5579,-54.1159,27.8471,-56.218,75.133,109.8102,76.1835,17.3386,-5.7795,-9.9827,5.7795,-49.9127,-36.2525,
-15.2365,41.5073,-56.218,25.745,-54.1159,79.3362,103.5049,82.4888,12.0848,-9.9827,-12.0838,9.9827,-54.1159,-21.2525,
-22.5924,39.4052,-62.5233,11.0333,-59.3707,77.2341,94.0479,77.2341,12.0848,-14.186,-27.0838,8.9322,-69.1159,-8.9322,
-13.6602,47.2858,-54.6417,22.0666,-54.6417,74.6072,105.0812,75.6577,21.016,-9.457,-42.0838,9.457,-78.8109,-23.9322,
-1.0511,51.4896,-48.3369,33.6262,-48.3369,77.7604,116.6398,88.2679,14.7112,-2.1016,-37.8294,1.0511,-65.1502,-22.0671,
-1.0506,57.7944,-48.3374,33.6257,-45.1847,88.2674,114.5382,98.7759,11.5591,1.0506,-28.3719,-5.2538,-50.1502,-7.0671,
-6.3053,68.3019,-49.3879,34.6762,-45.1847,93.5221,106.1318,95.6232,24.1687,4.2032,-33.6257,-4.2032,-35.1502,-11.5591,
-6.3043,61.9976,-51.4891,34.6772,-52.5406,91.42,101.9286,90.3695,19.9655,1.0506,-44.1342,-1.0506,-50.1502,-25.2192,
-8.4064,54.6417,-57.7944,28.3719,-61.9981,86.1663,101.9286,85.1157,5.2538,1.0506,-44.1342,-1.0506,-65.1502,-19.9655,
-13.1349,60.4217,-65.6755,26.7961,-63.5739,85.641,101.4033,86.6915,14.1865,3.6779,-38.3542,-3.6779,-65.6755,-15.236,
-2.1016,64.0992,-59.8965,33.6252,-48.5739,91.4195,107.1818,91.4195,29.1865,2.1016,-38.8799,-2.1016,-65.1507,-26.2703,
3.1527,57.7944,-57.7944,31.5246,-46.2353,92.4716,105.0812,89.3189,24.1687,-5.2538,-43.0826,-3.1527,-80.1507,-41.2703,
-1.0506,57.7944,-58.8454,30.474,-51.4891,94.5727,106.1318,93.5221,15.7623,1.0506,-36.7783,-1.0506,-70.404,-36.7783,
-5.779,60.4217,-54.1164,24.694,-64.6245,84.5904,107.7086,87.7431,13.1349,3.6779,-42.5574,-3.6779,-65.6755,-21.7783,
-0.52578,61.4728,-52.0148,23.6429,-75.133,76.1835,106.6575,83.5394,6.8301,-1.5763,-46.7611,-0.52578,-66.7266,-6.7783,
1.5763,60.4212,-57.2696,22.5924,-69.8792,83.5394,108.7586,94.0469,15.2365,-1.5763,-35.202,-5.7795,-60.4217,-21.7783,
-1.0511,63.0486,-57.7944,23.1176,-65.1502,94.5732,109.2839,97.7248,26.2703,1.0511,-30.4735,-20.7795,-63.0486,-36.7783,
0,65.1502,-48.3364,25.2192,-63.0481,92.4716,111.3865,90.3695,16.8128,0,-32.5751,-30.473,-72.5056,-33.6257,
1.0506,67.2513,-48.3374,32.5751,-58.8454,88.2684,119.7919,93.5221,14.7117,-1.0506,-31.5246,-15.473,-63.0486,-26.2698,
-13.9494,64.6245,-63.3374,26.7956,-60.4212,95.0985,114.0134,96.149,15.2365,-2.6269,-35.202,-0.47301,-56.218,-22.5924,
-24.6935,67.7771,-55.1675,14.186,-50.9643,101.4028,118.2156,100.3522,18.3892,11.0333,-27.8461,-11.0333,-56.218,-22.5924,
-10.508,68.3024,-40.1675,12.6101,-48.3369,86.4028,123.9956,98.7764,17.8639,10.508,-27.3209,-14.7112,-60.9465,-31.5241,
4.492,63.5744,-44.6595,22.5929,-58.3196,71.4028,116.115,92.9969,21.5413,-4.492,-36.253,-8.9317,-64.6245,-32.0498,
-10.508,59.3707,-57.2686,24.6945,-60.4217,74.0824,106.6575,94.0469,26.7956,6.8301,-37.3041,-6.8301,-62.5233,-34.1514,
-25.508,52.5406,-72.2686,12.6096,-64.0992,59.0824,96.6748,89.3189,14.7117,16.8128,-37.8289,-12.6096,-63.0481,-42.0321,
-34.1509,50.9638,-71.9803,7.8811,-49.0992,44.0824,107.7076,87.7421,27.8466,11.0338,-28.8972,-7.8811,-59.3707,-27.8466,
-21.0165,47.2863,-61.9976,13.6607,-34.0992,29.0824,112.4366,74.6077,42.8466,6.3048,-21.0165,-6.3048,-54.6422,-12.8466,
-16.2881,46.7611,-55.1675,28.6607,-19.0992,14.0824,109.8092,59.6077,32.0493,15.2365,-24.6945,-4.729,-43.6089,-15.2365,
-18.3892,46.7611,-53.0654,42.5579,-4.0992,-0.91758,116.1145,45.7105,29.9482,18.3892,-35.202,-1.5763,-46.7606,-25.744,
-13.6607,43.0831,-55.6928,46.2358,8.4069,-15.9176,114.5377,30.7105,31.5241,7.3554,-37.8294,-7.3554,-61.7606,-27.3209,
1.3393,30.4735,-61.9976,50.439,15.7618,-30.9176,105.0807,15.7105,16.5241,-2.1016,-29.423,-19.965,-60.947,-27.3209,
16.3393,29.9482,-47.8121,59.3707,27.8461,-45.9176,112.9618,0.71051,12.0838,4.729,-24.6945,-18.3892,-45.947,-35.202,
28.3719,37.8289,-42.0326,63.0481,37.8289,-60.9176,115.5887,-5.2538,23.1181,5.2538,-39.6945,-11.5591,-35.7278,-48.3374,
30.9988,40.4558,-43.6089,76.1835,49.9137,-73.0314,117.1651,-6.8301,18.3892,6.8301,-47.8121,-8.9322,-46.7611,-42.5579,
31.5246,29.4225,-33.6257,85.1157,50.4385,-64.0992,127.1478,-12.6096,12.6096,13.6602,-34.6762,-14.7117,-39.931,-31.5246,
29.4225,23.1171,-19.9655,75.6577,56.7438,-59.8965,135.5542,-12.6096,26.2698,12.6096,-34.6772,-14.7117,-35.7278,-22.0676,
31.5246,26.2708,-30.473,69.3534,58.8459,-51.489,123.9961,-11.5581,29.4235,8.4064,-44.1337,-10.5075,-43.0826,-8.4064,
22.0676,25.2193,-45.473,69.3534,53.5912,-40.9815,109.2844,-13.6602,26.2708,11.5591,-40.9815,-11.5591,-44.1337,-14.7107,
7.0676,19.4397,-49.9132,69.8792,61.4728,-34.1514,115.064,-7.8806,36.2525,20.4913,-25.9815,-3.6774,-30.9988,-29.7107,
-4.2032,9.457,-57.7944,61.9976,59.8965,-26.2703,116.6403,-5.2538,29.4225,22.0676,-23.1176,4.2032,-29.4225,-32.5751,
6.8301,7.8816,-53.0654,55.1675,52.0158,-17.3376,116.1145,-8.9312,19.4407,13.1354,-35.202,-6.8301,-34.1509,-17.5751,
21.8301,22.8816,-39.9305,58.8459,55.6933,-11.5591,122.9446,-4.2032,23.1181,4.2032,-37.8289,-14.7107,-23.1171,-7.3559,
11.5591,24.1687,-53.5912,50.4395,43.0836,-14.7107,110.335,-4.2032,13.6612,4.2032,-45.1847,-19.9655,-27.3204,-22.0666,
8.4069,10.508,-54.6422,47.2863,28.0836,-14.7112,109.2839,-8.4069,14.7112,17.8639,-52.5406,-18.9144,-42.0326,-30.4735,
19.4397,12.0848,-42.5579,49.9137,27.8461,-15.2365,118.2156,-11.0333,29.7112,11.0333,-48.8627,-17.3386,-48.8627,-22.5924,
22.0671,16.8133,-49.3879,47.2863,19.965,-6.3048,112.4366,-6.3048,27.3209,6.3048,-42.0326,-21.0165,-49.3879,-17.8639,
7.0671,4.2032,-58.8454,38.8794,4.965,-1.0506,100.877,-15.7623,13.6602,1.0506,-48.3374,-29.4225,-59.8965,-32.8639,
11.5586,15.7618,-43.8454,42.0326,16.8123,6.3048,114.5377,-18.9144,24.1682,-6.3048,-39.9305,-27.3209,-55.6933,-32.5756,
26.5586,30.7618,-33.6252,52.5411,26.2703,6.3048,121.8935,-7.3554,26.2703,-6.3048,-34.6767,-34.6767,-52.5401,-21.0155,
19.965,18.9144,-44.1337,43.0831,11.2703,1.0511,106.8935,-1.0511,11.2703,-13.6607,-49.6767,-49.6767,-66.2008,-36.0155,
4.965,24.1687,-45.1847,38.8804,-3.7297,13.6602,100.878,7.3559,4.2032,-14.7117,-52.5406,-39.931,-61.9976,-44.1342,
0.52578,25.745,-49.9137,37.3041,-0.52578,11.0333,103.5049,1.5763,14.186,-12.0848,-53.0659,-28.8977,-55.1675,-29.1342,
1.5763,15.2365,-52.0148,30.9988,-9.9827,3.6784,89.8447,5.7795,8.9322,-12.0838,-62.5228,-43.6084,-59.3707,-14.1342,
11.0338,26.7951,-40.4563,32.0498,-5.779,18.6784,98.2506,20.7795,5.779,-7.8811,-55.1675,-37.3036,-56.2185,-6.8306,
8.9322,33.0999,-39.4052,37.3041,0.52578,33.6784,108.7586,29.9482,-0.52578,-3.6774,-50.9643,-27.8461,-56.2185,-20.4913,
-4.2037,32.5746,-44.1342,39.9305,-9.4575,38.8799,108.2334,29.423,6.3048,4.2037,-51.4896,-30.4735,-53.5912,-22.0671,
-8.9317,34.1509,-38.3542,29.9477,-8.9317,42.5574,109.8097,42.5574,21.3048,8.9317,-48.8627,-38.3542,-48.8627,-11.0338,
-12.6096,19.1509,-43.0831,16.8128,-4.2032,42.0331,111.3855,34.6772,25.2193,4.2032,-54.6417,-46.2353,-53.5912,-14.7107,
-21.016,10.5085,-52.5401,23.1181,-5.2538,31.5246,116.6403,19.9655,24.1687,5.2538,-45.1847,-48.3369,-47.2863,-27.3204,
-33.1004,17.3381,-58.3196,25.7445,-7.8811,18.3897,110.8602,19.4402,33.1004,7.8811,-38.3547,-48.8627,-44.6595,-25.7445,
-18.3892,11.0333,-60.4212,26.7956,-8.9322,16.2881,98.2511,19.4397,29.9482,5.7795,-41.5063,-37.3031,-56.218,-10.7445,
-3.3892,-1.0511,-53.5917,31.5241,-12.6101,22.0671,98.7754,17.8639,14.9482,-2.1016,-39.9305,-28.3724,-57.7949,4.2555,
0.52528,13.1349,-54.1164,26.7961,-17.3381,23.6434,105.6065,27.8466,-0.051766,-14.1855,-42.5574,-30.9983,-45.71,7.8811,
8.4064,28.1349,-55.6928,23.1181,-8.4064,21.016,110.335,37.8299,4.2032,-4.2032,-50.4385,-32.5751,-46.2353,-7.1189,
0,13.1349,-53.5917,26.2698,-11.5591,6.016,100.877,22.8299,5.2538,5.2538,-58.8459,-45.1847,-60.9475,-22.1189,
-4.2032,10.5085,-38.5917,41.2698,-10.5075,4.2032,113.4876,21.016,19.9655,12.6096,-43.8459,-39.9305,-45.9475,-9.457,
-8.4059,16.8133,-38.8799,46.2358,-2.1016,14.7112,123.9956,22.0671,28.3724,2.1016,-32.5751,-35.7273,-52.5401,-19.965,
-14.7117,12.6096,-53.8799,31.2358,-1.0506,9.457,114.5382,15.7623,28.3719,1.0506,-24.1687,-47.2863,-67.5401,-34.965,
-14.186,11.0333,-53.0664,34.1504,-5.7795,5.7795,101.4028,14.186,33.0999,14.186,-12.0848,-39.4057,-54.1169,-19.965,
-25.2192,1.0506,-57.7944,29.4225,-16.8128,3.1527,90.3695,8.4064,25.2193,-0.81405,-23.1181,-24.4057,-43.0826,-4.965,
-29.9482,1.5763,-60.4212,35.202,-11.0333,7.8816,89.8447,14.186,24.6945,-1.5763,-20.4903,-16.2871,-53.0659,10.035,
-35.202,-3.6774,-59.3707,26.7956,-16.2881,3.6774,82.4888,15.2365,18.3892,3.6774,-32.0493,-21.5418,-62.5233,19.4397,
-29.4235,-4.2032,-55.6933,18.9139,-25.2203,6.3043,84.0642,11.5581,15.7613,4.2032,-46.2363,-17.8644,-58.8459,12.6096,
-23.1176,1.0511,-53.5912,19.965,-21.0165,8.4069,79.8615,9.4575,16.8133,6.3048,-47.2863,-22.0671,-59.896,-1.0511,
-28.8977,0.52578,-60.4217,15.2365,-23.6429,0.52578,74.0824,4.729,14.186,-0.52578,-56.2185,-36.2525,-71.9803,0.52578,
-23.6429,2.6269,-61.4723,15.2365,-21.5418,5.7795,89.0824,6.8301,19.4397,0.52578,-57.2691,-30.9988,-62.5233,-0.52578,
-14.7117,9.457,-50.439,19.9655,-9.457,20.7795,101.9286,15.7623,25.2193,10.5085,-42.2691,-26.2698,-47.5233,-11.5591,
-14.7117,12.6096,-40.9815,21.016,-16.8128,35.7795,95.6232,27.3214,23.1181,6.3053,-28.3719,-31.5246,-33.6257,-6.3053,
-19.4397,5.7795,-47.8116,14.186,-31.8128,33.1009,86.692,32.0503,22.5924,-2.6269,-30.9988,-30.9988,-44.659,2.6269,
-25.7445,1.5768,-54.1164,12.0843,-35.2015,28.8972,87.7431,27.8466,22.5929,0.52528,-33.1004,-34.1509,-53.0659,-0.52528,
-29.423,4.2037,-55.6928,7.3554,-38.8799,31.5241,84.0647,26.2703,16.8133,-1.0511,-28.3714,-42.0326,-50.439,1.0511,
-18.3887,18.3897,-49.9132,17.3381,-23.8799,44.6595,94.0474,41.2703,28.8972,6.8306,-15.237,-27.0326,-35.439,-6.8306,
-22.0676,18.9139,-55.6933,19.9655,-18.9149,42.0321,96.6738,43.0826,27.3204,11.5591,-27.3214,-12.0326,-43.0836,-21.8306,
-25.7445,12.0844,-54.1169,15.237,-33.9149,41.5068,92.9969,38.3542,22.5919,11.0338,-37.3036,-17.3381,-58.0836,-11.0338,
-27.8461,9.9827,-56.2185,9.9827,-45.7105,39.4052,89.8437,34.1514,24.6935,2.6269,-32.0493,-28.8977,-43.6084,-2.6269,
-18.3887,19.4402,-54.1164,12.0843,-36.253,46.7616,92.9969,46.7616,26.7961,6.8306,-18.3887,-19.4402,-28.6084,-6.8306,
-26.7961,5.779,-56.2185,2.6264,-46.7616,41.5068,83.5389,43.6079,11.7961,0.52528,-33.1004,-22.5929,-43.6084,-0.52528,
-33.1009,1.5763,-58.3201,4.729,-48.8622,37.3041,81.4373,38.3547,12.0838,-1.5763,-48.1004,-27.8461,-58.6084,7.8806,
-28.8972,16.5763,-57.2691,7.8811,-36.253,46.7616,86.6915,45.71,24.694,8.9317,-39.4047,-23.6434,-46.7611,-7.1194,
-16.8133,27.3209,-42.2691,10.508,-29.423,61.7616,97.7248,55.6928,38.8799,16.8133,-24.4047,-16.8133,-34.6767,-10.508,
-18.3892,21.5418,-46.7611,4.729,-39.4052,62.5233,92.9964,44.66,25.745,4.729,-28.8967,-26.7956,-48.8627,-4.729,
-14.186,33.0999,-48.8627,0.52578,-33.1009,67.7771,95.0985,48.8622,22.5924,5.7795,-43.8967,-23.6429,-54.1169,-0.52578,
-8.4059,34.6767,-36.7783,2.1016,-31.5241,79.8615,102.9796,54.6422,29.423,10.508,-37.8289,-24.1682,-48.3369,-2.1016,
-5.7795,28.8977,-40.4558,4.729,-43.6084,77.2351,100.3522,50.9643,26.7956,2.6269,-36.2525,-34.1509,-46.7606,-2.6269,
-0.52528,33.1004,-47.8116,0.52528,-43.6084,66.7271,103.5054,55.168,37.3036,5.78,-41.5068,-24.694,-45.71,-8.9317,
-3.6779,36.253,-44.659,3.6779,-42.5574,69.8787,108.7591,57.2691,44.6595,19.4402,-40.4558,-9.694,-43.6084,-11.0328,
-18.6779,34.1509,-58.3201,0.52528,-50.9643,78.2851,97.2001,54.1164,29.9477,16.2876,-47.8121,-18.3897,-49.9137,-0.52528,
-16.8133,43.0831,-68.3024,-9.4575,-51.4896,79.8615,90.37,66.2013,23.1176,9.4575,-53.5912,-25.2198,-51.4896,14.4747,
-1.8133,40.9815,-60.947,-9.458,-55.6933,74.6072,91.42,74.6072,19.9655,0,-42.0321,-25.2192,-54.6422,8.4064,
5.779,36.253,-53.0664,3.6779,-62.5233,73.0314,95.098,69.8787,19.4392,-3.6779,-39.4057,-33.1004,-62.5233,-6.5936,
0.52528,35.2025,-58.3196,2.6274,-67.7771,68.8282,92.9969,67.7776,16.2876,-0.52528,-54.1164,-35.2015,-57.2691,-18.3887,
-1.5758,33.1004,-62.5233,-4.7285,-62.5233,76.184,86.6915,82.7776,12.0843,1.5758,-50.9643,-23.6434,-45.71,-3.3887,
2.1016,33.6262,-52.5401,-7.3554,-59.8965,91.184,80.912,94.5722,17.8639,-2.1016,-35.9643,-18.9144,-56.7438,11.6113,
4.2032,35.7268,-51.4901,-10.5085,-65.1507,91.42,79.861,80.9115,22.0666,-4.2032,-28.3719,-23.1181,-71.7438,24.1677,
4.2032,32.5751,-55.6928,-17.8634,-63.0486,76.42,86.1663,66.2008,19.9655,-4.2032,-43.3719,-23.1181,-60.947,9.1677,
2.1016,28.3714,-47.2863,-21.0165,-61.9981,75.6582,87.2173,69.3529,16.8123,-2.1016,-58.3719,-27.3209,-51.4896,3.1522,
0,38.8804,-45.1847,-13.6602,-65.1497,90.6582,86.1663,79.862,13.6612,0,-58.8449,-36.7783,-56.7433,2.1021,
3.1527,53.8804,-49.3879,-5.2538,-59.8965,98.7759,86.1663,91.42,13.6602,-3.1527,-46.2353,-35.7278,-41.7433,17.1021,
4.7285,67.7776,-48.8627,-4.7285,-58.3196,91.9463,80.3872,99.3012,15.237,-12.0843,-38.3542,-32.0498,-30.9983,32.1021,
4.2032,56.7438,-43.0836,-4.2032,-64.0997,93.5221,87.2168,99.8264,14.7107,-8.4064,-48.3374,-29.4225,-45.9983,23.1171,
0.52528,61.4723,-53.0659,-2.6264,-68.8277,100.3527,96.1495,103.5044,13.1349,-0.52528,-60.4212,-24.694,-60.9983,8.9317,
0,69.3534,-65.1497,-11.5591,-69.3529,100.878,89.3189,106.1318,16.8128,0,-59.896,-23.1171,-60.9465,23.9317,
-2.6269,57.2696,-60.4212,-15.2365,-60.4212,102.4543,90.8953,105.606,25.745,2.6269,-56.218,-23.6429,-60.4212,38.9317,
-8.4069,54.6422,-63.0486,-15.7618,-55.6928,107.1828,97.7248,102.9796,26.2703,8.4069,-56.7438,-14.7112,-61.9976,23.9317,
-8.9322,67.7771,-65.6755,-21.5418,-66.7266,106.6565,90.8953,104.5554,23.6429,8.9322,-56.2185,-11.0333,-46.9976,14.186,
-11.5591,70.404,-60.9465,-13.6602,-72.5056,99.8274,81.9631,106.1318,23.1181,11.5591,-56.7433,-22.0666,-52.5401,11.5591,
-1.5763,71.9803,-50.9643,-1.5763,-62.5228,102.4543,96.9631,107.7081,34.1514,14.186,-50.9643,-21.5418,-63.5739,1.5763,
3.1522,68.3024,-55.6933,-15.7628,-70.4045,100.8775,99.8269,101.9281,29.422,-0.81405,-59.8965,-27.3209,-67.2518,14.7112,
9.9827,65.676,-52.0148,-22.5924,-78.2851,109.8102,84.8269,110.8607,14.422,-9.9827,-63.5739,-34.1514,-62.5228,29.7112,
23.6434,63.5734,-42.5574,-9.9822,-75.133,119.2667,90.8948,123.4699,3.6779,-3.6779,-63.5739,-32.0498,-64.625,26.7961,
37.8289,77.7599,-44.1342,-5.2538,-76.7093,122.9446,96.6738,136.6048,5.2538,-6.3053,-65.1502,-31.5246,-67.2518,41.7961,
38.3547,88.7931,-38.3547,-5.7795,-79.3357,122.4198,90.8953,151.6048,5.7795,-9.9827,-63.5739,-33.0999,-62.5228,56.7961,
29.9482,73.7931,-32.0493,-3.6774,-74.0819,107.4198,88.7931,146.5875,3.6774,-9.9827,-74.0819,-36.2525,-73.0314,71.7961,
34.1514,58.7931,-33.1009,-5.7795,-61.4728,92.4198,98.2501,131.5875,5.7795,-9.9827,-82.4888,-30.9988,-70.9298,56.7961,
29.9482,65.675,-39.4052,-11.0333,-46.4728,77.4198,104.5554,116.5875,5.7795,-5.7795,-69.8787,-25.745,-55.9298,58.3201,
14.9482,65.676,-54.1159,-18.3892,-35.202,62.4198,92.9964,101.5875,5.7795,-5.7795,-57.2686,-32.0493,-63.5739,43.3201,
1.5763,50.676,-60.4217,-11.0333,-24.6945,47.4198,84.5899,86.5875,16.2871,-1.5763,-56.2185,-32.0493,-65.6755,28.3201,
0.52578,35.676,-62.5233,2.6269,-9.6945,32.4198,83.5394,71.5875,20.4903,-0.52578,-53.0659,-27.8461,-50.6755,32.0493,
4.7285,21.5413,-71.9808,-4.7285,5.3055,17.4198,81.4378,56.5875,8.9317,-8.9317,-46.7616,-28.8972,-36.253,35.2015,
15.7623,18.9139,-72.5061,-10.5085,16.8128,2.4198,86.1663,41.5875,8.4064,-8.4064,-49.3879,-24.1687,-45.1847,32.5751,
8.9322,3.9139,-63.5739,4.4915,21.5418,-12.5802,84.5899,26.5875,9.9827,-7.8806,-61.4723,-28.8967,-56.218,24.6945,
6.8306,1.5758,-52.0153,19.4915,23.6434,-27.5802,81.4378,11.5875,13.1349,-1.5758,-56.2185,-24.694,-55.1675,28.8972,
1.5763,1.5763,-63.5744,25.744,20.4903,-42.5802,78.2846,-1.5763,13.1344,-3.6784,-61.4728,-17.3386,-63.5744,25.744,
7.8811,-0.52528,-59.3712,16.2876,26.7951,-57.5802,84.5894,0.52528,19.4392,-0.52528,-55.168,-15.237,-59.3712,25.7445,
22.8811,-0.52528,-47.8121,25.7445,30.9983,-60.4217,77.2346,-2.6274,14.1855,0.52528,-40.168,-25.7455,-54.1169,26.7951,
36.7788,2.1016,-43.0831,36.7788,28.3714,-54.6422,77.7604,-3.1522,11.5586,-2.1016,-39.9305,-27.3209,-51.4896,28.3714,
37.8294,3.1522,-42.0326,34.6767,24.1682,-39.6422,86.1658,-3.1522,16.8123,-5.2543,-54.9305,-26.2703,-42.0326,27.3209,
36.253,3.6779,-40.4563,22.5929,30.9993,-28.8972,77.2346,-3.6779,18.3897,-4.7285,-42.5574,-23.6434,-32.0498,28.8972,
22.0671,2.1016,-44.1337,22.0671,28.3724,-31.5241,65.1497,-2.1016,15.7618,-3.1522,-29.423,-8.6434,-35.7273,32.5756,
7.0671,-3.6779,-56.2185,25.7445,14.1855,-24.694,66.7261,0.52528,20.4908,-3.6779,-34.1509,4.7285,-39.4057,41.5068,
-1.5768,0.52528,-57.2696,18.3887,13.1349,-9.694,74.0819,5.779,23.6424,-0.52528,-34.1519,-1.5768,-28.8972,56.5068,
-2.6274,2.6274,-58.3201,3.3887,11.0338,-3.6779,71.9808,2.6274,8.6424,-2.6274,-39.4057,-16.5768,-33.1004,58.3196,
-13.1349,1.5758,-59.3707,3.6779,7.8811,-4.7285,78.2851,2.6274,6.8306,-1.5758,-49.9132,-25.7445,-45.71,45.71,
-17.3381,-0.52528,-58.3201,9.9822,3.6779,-1.5758,74.0819,13.1349,17.3381,0.52528,-46.7606,-25.7445,-45.71,39.4057,
-5.779,-0.52528,-56.2185,6.8306,3.6779,0.52528,64.625,27.8466,17.3381,-2.6274,-35.2025,-22.5929,-30.71,42.5574,
3.1527,-1.0506,-48.3374,2.1011,1.0506,-2.1021,77.7599,16.8128,16.8128,-5.2538,-43.0836,-36.7783,-30.474,28.3719,
3.1527,1.0506,-46.2353,3.1527,1.0506,-1.0506,91.42,1.8128,15.7623,-1.0506,-58.0836,-48.3374,-45.474,13.3719,
1.0516,0,-52.5401,2.1021,0,12.6096,81.9631,7.3559,12.6096,-3.1517,-58.8449,-37.8289,-47.2863,-1.0506,
1.5763,6.8301,-59.3712,-1.5763,-12.0848,26.7956,69.8782,22.3559,5.7795,-13.1354,-61.4728,-33.1009,-50.9643,3.6774,
8.9317,21.8301,-60.4217,-3.6779,-27.0848,28.8972,67.7776,26.7961,3.6779,-15.237,-70.9298,-42.5574,-64.625,18.6774,
5.7795,16.2871,-61.4728,-5.7795,-34.1514,22.5924,64.6245,22.5924,6.8301,-16.2881,-66.7266,-47.8116,-60.4212,25.745,
0,10.5075,-53.5912,2.1011,-21.017,36.7783,71.4545,37.5924,15.7613,-7.3559,-53.5912,-33.6267,-45.4212,10.745,
0.52528,25.5075,-45.71,-0.52528,-23.6434,41.5068,79.3357,41.5068,18.3887,-1.5768,-52.0153,-30.9993,-43.6089,5.779,
3.1522,35.7273,-44.1337,-3.1522,-31.5241,51.4896,77.7594,50.439,19.965,-3.1522,-37.0153,-30.4735,-58.6089,20.779,
-5.779,30.9993,-44.6595,-0.52528,-32.0498,66.4896,79.3367,65.439,19.4402,0.52528,-22.0153,-20.4908,-44.6595,35.779,
-20.779,25.7445,-43.6079,-6.8306,-34.1509,61.4723,79.3367,64.625,20.4908,6.8306,-35.2015,-23.6434,-29.6595,32.0498,
-21.016,27.3214,-47.2863,-9.457,-29.4225,50.4385,80.9125,50.4385,27.3214,9.457,-45.1847,-28.3719,-25.2192,18.9149,
-10.508,27.3209,-48.3374,-11.5596,-15.7628,54.6422,87.2163,54.6422,31.5241,10.508,-33.6262,-22.0671,-40.2192,29.422,
-9.4575,32.5756,-34.6767,-11.5586,-14.7112,51.4896,88.2679,58.8454,27.3209,9.4575,-32.5746,-22.0671,-36.7783,29.423,
-3.6784,39.4052,-30.9988,-1.5763,-25.745,41.5073,87.7426,56.218,24.6935,1.5763,-36.2525,-25.745,-29.9482,14.423,
4.2032,26.2698,-45.9988,-6.3053,-27.3214,28.3709,78.8104,44.1332,23.1171,-4.2032,-42.0331,-29.4235,-37.8299,12.6096,
3.6779,19.4392,-49.9132,-21.3053,-26.7961,23.6424,63.8104,30.9983,11.0328,-3.6779,-54.1169,-37.3036,-39.4057,27.6096,
-3.1522,26.2703,-36.7788,-15.7628,-22.0671,33.6252,74.6067,36.7778,12.6091,3.1522,-39.9305,-30.4735,-26.2703,39.9305,
-14.186,19.4397,-39.4052,-2.6269,-14.186,22.5924,81.4383,42.5579,20.4913,2.6269,-29.9482,-22.5924,-26.7956,34.1514,
-6.3048,19.966,-45.1847,-2.1016,-11.5586,7.5924,68.3024,42.0326,23.1176,2.1016,-38.8799,-23.1176,-23.1176,43.0831,
3.1522,22.0661,-51.4896,-10.508,-25.2197,2.1016,63.0476,32.5746,18.9144,-2.1016,-46.2358,-34.6767,-24.1692,34.6767,
0.52578,22.5924,-48.8622,-5.7795,-17.3386,11.0333,78.0476,32.0493,22.5924,-0.52578,-31.2358,-26.7956,-23.6429,28.8967,
-3.1522,21.0165,-42.0326,-1.0511,-2.3386,17.8639,87.2173,43.0831,30.4735,1.0511,-16.2358,-13.6607,-14.7112,39.9305,
1.5763,16.2871,-42.5584,-1.5763,-6.8311,18.3892,81.4373,45.7095,26.7956,-1.5763,-26.7956,-18.3892,-18.3892,40.4558,
-1.5758,18.3887,-48.8627,-3.6779,-19.4402,20.4908,81.4378,37.3036,21.5413,1.5758,-28.8972,-24.694,-25.7445,32.0498,
-13.6607,26.2703,-46.2353,-2.1016,-18.9144,33.6262,83.0141,38.8799,24.1692,2.1016,-21.0155,-19.965,-18.9144,34.6767,
-15.7623,21.016,-42.0326,2.1021,-15.7623,40.9815,73.5566,47.2868,25.2192,-2.1021,-22.0666,-22.0666,-19.9655,40.9815,
-4.7285,6.016,-46.7606,1.5758,-17.3381,30.9983,63.5734,42.5574,21.5413,-1.5758,-29.9477,-30.9993,-33.1004,38.3541,
1.5758,7.8811,-49.9132,-2.6274,-15.237,27.8466,75.1325,30.9993,18.3887,-1.5758,-32.0498,-18.3897,-20.4908,29.9477,
0.52528,22.8811,-47.8121,-4.7285,-13.1349,33.1004,85.641,38.3542,24.694,-2.6274,-22.5929,-7.8811,-5.4908,29.9477,
2.6269,29.9482,-40.4558,-2.6269,-19.4397,33.1009,76.1835,53.3542,34.1514,-2.6269,-21.5418,-22.8811,-13.1354,34.1514,
6.8301,25.745,-40.4558,-8.9322,-34.1514,33.1009,70.9298,59.3707,23.6429,-6.8301,-32.0493,-32.0493,-28.1354,38.3547,
3.6774,30.9988,-45.7105,-22.5924,-34.1514,42.5579,75.133,59.3707,15.2365,-3.6774,-29.9482,-21.5418,-23.6429,36.2525,
-3.1527,34.6762,-47.2868,-22.0676,-24.1687,49.3879,83.0136,61.9976,23.1171,3.1527,-27.3214,-21.016,-12.6096,21.2525,
6.3048,24.1692,-51.4896,-15.7618,-36.7778,49.3884,73.5571,60.9465,14.7112,-6.3048,-38.8799,-22.0671,-23.1176,15.7618,
15.7628,24.1692,-48.3369,-19.965,-45.1842,55.6928,60.9475,67.2518,11.5586,-12.6091,-40.981,-11.5586,-30.4735,30.7618,
7.3559,30.474,-38.8794,-19.9655,-37.8289,63.0481,72.5061,74.6072,22.0666,-7.3559,-31.5246,-12.6096,-26.2698,45.7618,
3.6779,29.9477,-46.7606,-19.4402,-29.9477,64.625,84.5904,69.8787,24.694,-3.6779,-27.8466,-21.5413,-25.7445,30.7618,
5.2538,29.4225,-59.896,-23.1181,-32.5751,64.0997,80.9125,64.0997,18.9149,-5.2538,-29.4225,-32.5751,-27.3214,15.7618,
5.2543,28.3724,-55.6928,-19.965,-47.5751,60.9465,73.5571,71.455,17.8639,-5.2543,-31.5241,-31.5241,-17.8639,28.3724,
6.8301,24.6935,-45.7105,-18.3892,-54.1169,58.3191,70.9298,83.5394,18.3892,-6.8301,-32.0503,-16.5241,-19.4397,19.4397,
3.6779,25.7445,-44.6595,-22.5929,-40.4563,61.4723,70.9293,90.8948,15.236,-3.6779,-32.0498,-5.78,-22.5929,34.4397,
-4.2032,32.5751,-47.2868,-19.9655,-43.0836,74.6072,73.5566,93.5221,16.8128,4.2032,-30.474,-4.2032,-9.457,49.4397,
-2.6269,35.202,-52.0153,-13.1354,-49.9137,82.4878,80.3867,94.0469,23.6429,2.6269,-29.9482,-6.8301,-11.0343,43.6084,
0,37.8289,-48.3379,-17.8644,-36.7783,86.1663,80.9115,104.0297,23.1171,0,-27.3214,-19.9655,-26.0343,30.473,
-4.2032,38.8794,-33.3379,-24.1687,-35.7278,77.7599,77.7599,108.2329,17.8634,4.2032,-26.2708,-21.016,-27.3214,43.0826,
3.1527,33.6257,-35.7278,-23.1181,-50.7278,66.2008,72.5061,98.7759,15.7623,-3.1527,-30.473,-11.5591,-21.016,29.4225,
18.1527,32.5751,-43.0826,-22.0666,-52.5406,74.6072,75.6587,91.42,11.5591,-12.6096,-35.7278,-11.5591,-15.7623,18.9149,
28.8972,27.8466,-34.1509,-29.9477,-46.7606,85.641,77.2346,91.9453,7.8811,-11.0338,-37.3036,-12.0844,-7.8811,20.4908,
22.0676,29.4225,-38.8794,-34.6762,-55.6923,85.1157,72.5061,92.4716,9.457,-7.3559,-34.6762,-22.0666,-8.4064,7.3559,
24.6945,43.6084,-46.7611,-26.7956,-57.2686,82.4888,83.5394,88.7931,11.0333,-11.0333,-34.1514,-37.0666,-14.186,12.0848,
35.2015,55.167,-33.1004,-28.8972,-45.71,83.5389,91.9453,88.7926,8.9317,-14.1865,-35.2025,-29.9487,-8.9317,20.4908,
33.1009,47.8116,-35.202,-41.5073,-52.0148,84.5899,77.2341,92.9964,4.729,-13.1354,-39.4052,-19.4397,-4.729,5.7795,
24.1692,32.8116,-47.2863,-36.7778,-66.2008,85.1152,75.6582,93.5216,6.3048,-6.3048,-48.3369,-18.9144,-8.4059,12.6101,
9.1692,26.7956,-50.9643,-34.1514,-76.1835,83.5394,81.4383,89.8447,9.9827,-5.7795,-55.1675,-19.4397,-23.4059,21.5418,
-2.1016,41.7956,-46.2348,-33.6252,-64.0992,92.4711,79.8615,104.8447,24.9827,2.1016,-40.1675,-14.7112,-27.3209,6.5418,
7.8806,42.5579,-53.0654,-34.1514,-56.2185,96.149,74.0824,119.8447,21.5418,-3.6774,-29.9482,-17.3386,-29.9482,3.6774,
22.5929,50.9638,-49.9132,-32.0498,-62.5233,91.9453,73.0314,124.5204,8.9317,-11.0338,-44.9482,-8.9317,-26.7961,18.6774,
10.508,56.7433,-43.0831,-36.7788,-73.5566,89.3184,69.3529,120.843,11.5586,-10.508,-47.2863,-18.9144,-25.2198,10.508,
3.6779,57.2691,-30.9993,-29.9477,-62.5233,100.3517,84.3529,130.8257,26.5586,3.6779,-32.2863,-33.9144,-13.1349,-3.6779,
3.6784,42.5579,-43.6084,-34.1514,-61.4723,96.149,85.6415,115.8257,22.5924,-1.5763,-34.1514,-32.0493,-15.2365,1.5763,
3.6779,42.5584,-50.9643,-36.253,-67.7771,92.9969,79.3367,100.8257,14.1865,-3.6779,-48.8627,-25.7445,-15.237,5.78,
1.0506,51.4891,-45.1847,-38.8804,-71.455,95.6232,77.7599,115.8257,15.7623,-1.0506,-51.4901,-24.1687,-15.7623,9.457,
3.6779,54.1164,-40.4563,-37.3036,-67.7776,89.8442,77.2346,119.2667,11.0328,-3.6779,-53.0659,-14.1865,-25.7455,4.7285,
9.4575,55.6928,-45.1842,-32.5746,-54.6412,85.1162,76.7098,109.2849,2.1016,-2.1016,-58.8449,-10.508,-32.5746,7.3564,
9.9827,61.4718,-56.2185,-40.4558,-54.1169,100.1162,78.2856,119.2672,-1.5763,1.5763,-62.5233,-20.4913,-23.6429,21.5418,
13.1354,67.7771,-49.9137,-46.7611,-65.6755,115.1162,79.3362,127.6736,3.6774,-3.6774,-66.7266,-26.7956,-25.745,25.745,
25.7445,80.3872,-40.4563,-36.253,-63.5739,129.7752,77.2346,133.9784,6.8306,-6.8306,-61.4723,-12.0843,-34.1509,40.745,
32.0498,89.8442,-49.9132,-33.1004,-58.3196,124.5214,82.4883,138.1816,4.7285,-4.7285,-59.3707,-5.779,-19.1509,55.745,
19.4397,89.8437,-58.3201,-44.659,-65.6755,119.2672,84.5899,128.7241,3.6774,-3.6774,-66.7266,-9.9827,-5.7795,44.659,
4.729,83.5394,-58.3201,-46.7611,-71.9803,120.3177,76.1835,124.5209,4.729,-4.729,-69.8787,-8.9322,-20.7795,30.9988,
2.6269,79.3362,-48.8632,-36.2535,-62.5233,112.9618,76.1835,139.5209,14.186,-2.6269,-59.3712,-6.8301,-23.6439,33.0999,
10.508,73.5561,-50.439,-44.1347,-63.0491,97.9618,70.4035,134.5032,11.5586,-10.508,-59.896,-13.6607,-13.6607,18.0999,
22.5929,75.1335,-52.0143,-43.6079,-56.2175,82.9618,67.7776,122.4193,7.8811,-7.8811,-59.3702,-12.0843,-12.0843,18.3897,
14.186,68.8277,-52.0148,-35.202,-41.2175,67.9618,74.0814,115.063,5.7795,-5.7795,-54.1169,-16.2881,-27.0843,33.3897,
2.6269,53.8277,-46.7611,-29.9482,-26.2175,52.9618,86.691,100.3522,13.1344,-2.6269,-55.168,-24.6945,-37.3041,20.4903,
-2.6269,38.8277,-44.659,-32.0493,-11.2175,37.9618,80.3867,85.3522,16.2871,2.6269,-61.4723,-24.6945,-22.3041,5.4903,
-1.5763,35.202,-48.8622,-24.6945,3.7825,22.9618,69.8782,70.3522,3.6774,2.6269,-57.2691,-29.9482,-7.3041,-4.729,
8.4064,26.2698,-43.0836,-9.6945,18.7825,7.9618,76.7083,55.3522,0,0,-53.5917,-22.0676,-17.8644,0,
5.2538,11.2698,-42.0321,-5.2538,33.7825,-7.0382,68.3019,40.3522,8.4064,-3.1527,-58.8454,-10.5085,-28.3719,4.2032,
2.1016,-3.1522,-50.4385,-5.2533,40.982,-22.0382,63.0486,25.3522,18.9144,3.1532,-44.1337,-2.1016,-13.3719,11.5596,
8.4059,-5.2543,-54.6422,-2.1016,44.1337,-37.0382,68.3024,10.3522,12.6091,1.0511,-29.1337,-6.3048,1.6281,2.1016,
17.8634,-9.457,-45.1847,1.0506,53.5912,-52.0382,65.1502,0,5.2538,-5.2538,-30.473,-14.7117,0,9.457,
20.4908,-14.1865,-36.253,5.779,53.0659,-67.0382,62.5228,-0.52528,11.0338,0.52528,-34.1509,-13.1349,-11.0338,24.457,
11.5586,-16.8133,-39.9305,4.2037,46.2358,-71.455,59.896,-15.5253,12.6101,3.1522,-22.0671,-3.1522,-7.3554,32.5746,
12.0848,-12.0838,-53.0659,-3.6774,52.0148,-70.9293,55.1675,-28.8967,6.8301,-1.5763,-23.6429,2.6269,1.5763,25.745,
27.0848,-7.8811,-55.1675,-2.6274,67.0148,-61.4723,66.7261,-16.2876,8.9317,-0.52528,-38.6429,0.52528,2.6274,36.253,
37.8299,-16.8128,-50.4385,0,65.1502,-56.7433,71.4555,-2.1011,4.2032,0,-50.4385,1.0516,-2.1011,34.6772,
33.6257,-12.6096,-47.2858,0,52.5406,-44.1342,67.2513,-4.2032,4.2032,-1.0506,-38.8794,3.1527,0,35.7278,
30.4735,2.3904,-50.439,1.0511,53.5917,-31.5241,68.3024,-9.4575,15.7618,-1.0511,-26.2703,-1.0511,-1.0511,39.9305,
33.1004,-0.52528,-58.3201,0.52528,54.1164,-33.1004,69.8787,-6.8306,14.1855,-1.5768,-32.0498,-5.78,1.5758,27.8456,
34.1509,-5.779,-54.1169,1.5758,44.6595,-33.1004,65.6755,-4.7285,6.8306,-1.5758,-47.0498,-17.3381,1.5758,12.8456,
34.6767,2.1016,-46.2358,3.1522,44.1337,-21.0165,60.9465,-2.1016,4.2037,-4.2027,-58.8454,-26.2703,-13.4242,5.2543,
30.4735,1.0511,-48.3369,-1.0511,48.3369,-8.4069,63.0486,4.2027,5.2543,-5.2543,-51.4901,-32.5756,-25.2198,6.3048,
29.4225,0,-48.3364,0,45.1847,-2.1011,68.3029,6.3053,7.3559,-1.0506,-47.2858,-28.3719,-10.2198,3.1527,
31.5241,-1.0511,-43.0831,-1.0511,38.8799,-8.4059,63.0486,12.6101,2.1016,-4.2027,-60.947,-13.3719,1.0511,2.1016,
36.253,0.52528,-34.1509,-4.7285,40.4563,-3.6779,60.4217,22.5919,-0.52528,-6.8306,-57.2691,1.5758,-6.8306,17.1016,
34.6762,1.0506,-37.8299,0,30.473,0,64.0987,13.6602,-4.2032,-4.2032,-45.1847,-13.4242,-7.3559,32.1016,
22.5924,2.6269,-45.7105,-0.52578,26.7956,-2.6269,59.3707,-0.52578,-1.5763,0.52578,-46.7611,-22.5924,3.6774,32.0493,
7.5924,0,-47.2868,-15.5258,37.8289,0,49.3879,5.2538,5.2538,0,-50.4395,-7.5924,-6.3053,31.5236,
-0.52578,-3.6774,-52.0148,-20.4913,25.745,0.52578,50.9643,9.9827,2.6269,-0.52578,-47.8116,2.6269,-21.3053,33.1009,
-3.6779,-0.52528,-57.2691,-18.3887,10.745,7.8811,53.0659,4.7285,0.52528,2.6274,-49.9132,-12.3731,-36.253,26.7961,
4.729,1.5763,-57.2691,-25.745,5.7795,22.5924,47.8116,13.1354,-3.6774,-1.5763,-62.5233,-27.3731,-26.7956,20.4903,
18.3887,4.7285,-48.8627,-22.5929,12.0843,27.8466,49.9132,26.7961,-8.9317,-4.7285,-69.8787,-23.6434,-25.7445,14.1855,
14.1855,7.8811,-49.9132,-20.4908,11.0338,27.8466,63.5734,33.1004,-3.6779,0.52528,-64.625,-21.5413,-11.0338,-0.52528,
0,7.3559,-64.9132,-33.6257,0,34.6772,67.2523,33.6267,5.2548,2.1021,-57.7944,-32.5751,-3.1517,-3.1517,
-6.8296,1.5768,-68.8277,-38.3541,1.5768,28.8972,66.7261,33.1004,6.8306,-0.52528,-58.3196,-37.3036,-18.1517,0.52528,
-5.2543,9.4575,-57.7949,-28.3724,12.6091,16.8123,72.5056,38.8799,5.2543,5.2543,-55.6933,-27.3209,-24.1692,-11.5596,
-4.7285,21.5413,-55.1675,-23.6434,6.8306,27.8466,65.6755,46.7606,4.7285,8.9317,-47.8121,-22.5929,-14.1865,-16.2876,
-14.186,17.3386,-57.2691,-26.7956,1.5763,36.2525,65.676,41.5073,7.8816,7.8816,-49.9132,-24.6935,-26.7956,-1.5763,
-28.3719,13.6602,-69.3534,-32.5751,7.3559,21.2525,69.3534,28.3719,14.7117,10.5085,-55.6928,-21.016,-27.3214,-7.3559,
-26.2698,21.016,-70.404,-26.2698,12.6096,11.5591,59.8965,34.6772,17.8644,11.5591,-53.5912,-16.8128,-12.3214,-19.9655,
-11.2698,14.186,-66.7266,-23.6429,2.6269,11.0333,44.8965,38.3547,5.7795,4.729,-59.3707,-24.6945,-23.6429,-4.9655,
0.52528,5.78,-59.3707,-27.8466,-0.52528,2.6274,53.0659,28.8972,-3.6779,4.7285,-60.4212,-24.694,-28.8972,10.0345,
3.6774,7.8806,-53.0664,-26.7956,6.8301,-1.5763,68.0659,18.3892,1.5763,5.7795,-57.2696,-20.4913,-17.3386,-4.9655,
-1.0506,11.5591,-57.7949,-25.2192,17.8634,1.0506,69.3534,12.6096,2.1011,3.1527,-64.0997,-23.1181,-14.7117,-19.9655,
0,10.5075,-61.9981,-27.3214,17.8634,0,55.6923,16.8128,-3.1527,6.3043,-70.4045,-27.3214,-18.9149,-4.9655,
3.6784,8.9322,-61.4723,-28.8967,4.729,-2.6269,55.1675,14.186,-2.6269,2.6269,-79.3357,-28.8967,-26.7956,10.0345,
-2.1016,11.5586,-61.9981,-25.2197,10.508,2.1016,57.7939,10.508,3.1522,3.1522,-85.1157,-28.3724,-27.3209,-4.9655,
-3.1527,7.3559,-64.0992,-19.9655,23.1181,6.3053,53.5912,21.016,3.1527,10.5085,-88.2679,-37.8289,-21.016,-19.9655,
1.0511,11.5586,-63.0486,-19.965,10.508,9.4575,44.1337,35.7273,-1.0511,4.2037,-92.4711,-42.0326,-23.1176,-26.2703,
-1.5758,26.5586,-66.7266,-25.7445,3.6779,12.0843,43.6089,39.4057,1.5758,1.5758,-88.7932,-29.9477,-23.6434,-11.2703,
-5.2543,27.3209,-74.6072,-28.3714,17.8639,10.508,54.6422,26.2703,5.2543,9.4575,-88.2679,-26.2703,-25.2197,-9.4575,
1.5763,12.3209,-71.9803,-32.0493,19.4397,17.3386,61.4718,11.2703,-1.5763,5.7795,-100.3522,-39.4052,-24.6945,-24.4575,
12.0843,9.9822,-68.8282,-34.1509,14.1855,24.694,65.6755,14.1855,-2.6274,2.6274,-105.6065,-54.4052,-15.237,-39.4575,
13.1349,18.3897,-77.2341,-32.0498,5.78,19.4402,62.5228,29.1855,0.52528,-0.52528,-107.7076,-69.4052,-30.237,-54.4575,
25.7445,30.9983,-74.0819,-25.7445,5.779,30.9983,60.4217,40.4563,0.52528,-0.52528,-111.9113,-78.2851,-45.237,-69.4575,
40.7445,44.6595,-61.4723,-27.8466,18.3887,45.9983,58.3196,40.4563,-2.6274,2.6274,-116.1145,-63.2851,-36.253,-84.4575,
55.7445,59.6595,-56.2185,-27.8466,25.7445,60.9983,60.4207,55.4563,-7.8811,7.8811,-115.064,-50.9648,-21.253,-69.4575,
70.7445,74.6595,-50.439,-17.8644,21.016,75.9983,71.4545,70.4563,-7.3559,7.3559,-117.6908,-50.439,-19.9655,-54.4575,
74.6077,80.913,-51.4895,-8.4059,12.6101,71.455,70.4045,70.4045,-5.2543,5.2543,-121.8935,-55.6928,-26.2703,-68.3024,
75.132,77.2341,-50.9648,-13.1354,15.2365,73.0309,69.8782,76.1835,-5.7795,5.7795,-123.4704,-52.0153,-16.2881,-74.0824,
79.861,81.9631,-44.1342,-25.2192,13.6602,83.0136,74.6072,75.6577,-3.1527,3.1527,-131.3515,-55.6933,-11.5591,-59.0824,
65.1497,72.5056,-49.3884,-29.423,9.4575,75.6582,71.455,60.6577,-5.2543,5.2543,-135.5547,-70.4045,-14.7112,-49.3884,
50.1497,57.5056,-60.4217,-36.2535,9.9827,60.6582,63.5739,56.218,-5.7795,5.7795,-136.08,-78.2856,-19.4407,-64.3884,
46.2353,47.2868,-61.9976,-40.9815,5.2538,57.7944,63.0481,71.218,0,0,-148.1638,-80.912,-21.016,-57.7944,
44.6595,56.2185,-66.7261,-33.1004,-1.5758,72.7944,67.7776,83.5389,5.78,1.5758,-147.6386,-74.0819,-14.1855,-42.7944,
29.6595,53.5912,-76.7088,-35.7273,-7.3559,85.1157,64.0997,86.1663,5.2538,10.5085,-137.6558,-59.0819,-5.2538,-27.7944,
14.6595,56.7438,-80.9125,-47.2863,-12.6096,71.4545,58.8449,78.8104,4.2032,13.6602,-138.7069,-48.3374,0,-28.3719,
-0.34054,64.0992,-75.6587,-43.0836,-2.1016,72.5056,70.4035,74.6067,19.2032,25.2188,-135.5547,-45.1852,2.1016,-28.3724,
-5.7795,49.0992,-82.4883,-42.5579,1.5763,70.9298,69.8782,74.0824,27.8461,30.9988,-138.1816,-47.8116,-1.5763,-14.186,
-7.8811,44.6595,-87.7426,-43.6084,-12.0843,66.7261,57.2691,71.9808,12.8461,22.5919,-147.6386,-50.9643,5.779,-5.779,
-2.6274,54.1164,-84.5899,-38.3547,-17.3381,67.7776,55.167,73.0314,9.9822,23.6434,-154.9944,-50.9643,2.6274,-15.237,
4.2032,56.7438,-74.6072,-31.5241,-4.2032,81.9631,70.167,88.0314,24.9822,38.6434,-151.3165,-38.8799,-8.4064,-9.4575,
-1.0511,54.6422,-70.404,-36.7783,-5.2543,92.4711,84.0647,103.0314,39.9822,52.5401,-147.1133,-39.931,0,0,
-16.0511,47.8114,-80.387,-51.7783,-13.1352,80.3865,71.9801,88.0314,33.1006,37.5401,-160.2484,-54.931,13.1352,-15,
-21.5418,54.1169,-88.7932,-64.625,-7.8806,79.3362,60.4212,85.6405,21.5418,22.5401,-168.6546,-69.931,7.8806,-19.4402,
-15.7623,57.7944,-86.1663,-57.7944,-13.6607,86.1663,71.4545,100.6405,31.5246,25.2192,-169.1804,-65.1502,0,-4.4402,
-29.423,42.7944,-101.1663,-72.7944,-28.6607,72.5056,60.9465,96.6743,16.8123,18.9144,-184.1804,-69.3534,3.1522,-3.1522,
-36.253,42.5579,-116.1663,-87.7944,-40.4563,71.9803,49.9137,87.7426,1.8123,12.0848,-194.9249,-76.1835,18.1522,-1.5763,
-35.202,49.9137,-123.4699,-101.4028,-42.5574,66.7266,39.4052,86.692,-1.5763,2.6269,-209.9249,-88.7932,3.1522,12.0848,
-30.9988,44.659,-116.1145,-89.8442,-41.5068,65.676,41.5073,97.1996,7.8806,16.2871,-224.9249,-75.133,-7.8806,27.0848,
-45.9988,29.659,-131.1145,-98.7754,-39.9305,72.5066,36.7788,94.5732,6.3048,22.0671,-239.9249,-63.0481,-6.3048,27.3219,
-60.9988,36.2525,-146.1145,-107.7076,-43.6084,87.5066,24.6945,90.8953,5.7795,15.2365,-239.0591,-70.9298,-5.7795,28.8977,
-56.218,51.2525,-145.5365,-102.4533,-49.9132,92.9964,19.4407,94.0479,9.9827,6.8301,-240.1096,-77.2341,-6.8301,43.8977,
-63.5739,42.5574,-141.3338,-104.5554,-47.8116,86.6915,25.7445,95.098,8.9317,3.6779,-255.1096,-85.641,-3.6779,53.0659,
-78.5739,36.253,-151.8418,-107.7081,-45.71,94.0474,35.2025,98.2506,14.1855,16.2876,-270.1096,-94.0474,-1.5758,38.0659,
-88.2679,43.0831,-156.5708,-105.0812,-48.3374,105.0807,39.9305,105.0807,24.1682,28.3714,-276.3627,-90.3695,-9.4575,23.0659,
-95.0982,42.5581,-153.9431,-109.8094,-52.0151,95.0987,40.456,108.7589,22.5926,19.44,-291.3627,-94.0472,-19.44,36.2528,
-103.5049,37.3036,-159.1976,-118.2161,-50.9643,82.4883,42.5574,108.7581,23.6434,15.237,-306.3627,-104.5554,-15.237,21.2528,
-107.1828,36.7783,-162.8756,-116.6398,-45.1852,88.2674,44.1342,111.3855,29.4225,29.4225,-321.3627,-96.6748,-7.3559,7.3559,
-112.9618,29.9477,-172.8578,-123.4699,-52.0148,84.5904,35.2025,109.8097,17.3381,26.7961,-336.3627,-94.0474,-17.3381,22.3559,
-109.2842,30.4733,-179.6882,-133.4529,-52.5404,79.8612,30.4733,109.2837,12.6099,17.8636,-351.3627,-99.8267,-12.6099,37.3559,
-115.0635,32.0498,-190.7217,-148.4529,-50.9643,69.8787,28.8972,102.4538,2.6274,11.0338,-355.6989,-107.7081,-2.6274,22.3559,
-115.064,36.253,-188.6206,-153.9439,-46.7611,60.4207,27.8456,107.7076,-0.52528,7.8811,-364.1053,-117.1656,0.52528,22.5919,
-110.8602,41.5073,-185.4674,-147.6386,-39.4052,46.7611,28.8977,109.8092,2.6269,4.729,-379.1053,-128.7236,-2.6269,37.5919,
-121.3683,33.1004,-197.0265,-156.045,-28.8972,31.7611,28.8972,94.8092,-0.52528,7.8811,-386.1724,-123.4699,0.52528,52.5919,
-136.3683,18.1004,-205.4332,-158.1463,-13.8972,16.7611,26.7958,79.8092,2.6271,22.8811,-384.0705,-109.8094,9.983,61.472,
-149.7402,3.1004,-209.6366,-148.6896,1.1028,1.7611,25.745,64.8092,13.1354,18.3892,-397.731,-116.1145,11.0333,60.4212,
-134.7402,-11.8996,-210.1614,-139.7574,16.1028,-13.2389,38.8799,49.8092,19.966,12.6096,-402.4594,-119.7919,26.0333,55.6928,
-132.4018,-15.762,-221.7207,-137.6561,31.1028,-28.2389,43.0829,34.8092,15.762,17.8636,-408.7645,-117.6906,41.0333,54.642,
-140.283,-19.44,-222.246,-122.6561,46.1028,-43.2389,45.7108,19.8092,28.8979,28.8979,-415.5946,-104.5552,56.0333,68.8279,
-137.6558,-29.4225,-214.3651,-107.6561,61.1028,-58.2389,57.7944,29.4225,43.8979,35.7273,-430.5946,-89.5552,71.0333,73.5566,
-128.1986,-27.3211,-215.4154,-94.5724,76.1028,-73.2389,71.4548,27.3211,58.8979,50.4387,-445.5946,-75.658,80.9128,75.658,
-119.2667,-18.3892,-216.9915,-83.5389,91.1028,-68.8277,69.8792,18.3892,61.4723,60.4217,-460.5946,-73.0309,81.4383,90.658,
-104.2667,-24.1687,-213.3141,-84.0647,106.1028,-66.2013,70.4045,24.1687,61.9981,49.3879,-475.5946,-76.7093,87.2173,105.658,
-96.1488,-32.0496,-220.1444,-89.844,105.6067,-66.7263,67.7769,32.0496,54.1167,37.3038,-490.5946,-81.4375,81.438,120.658,
-102.4538,-25.745,-229.6016,-95.098,94.0469,-58.3196,59.3707,25.745,48.8627,41.5068,-504.9133,-83.5394,76.1835,135.658,
-98.7759,-24.1687,-225.9237,-102.9791,99.8264,-52.5401,60.947,24.1687,45.1847,40.9815,-510.6928,-89.3184,91.1835,136.6048,
-90.895,-30.999,-230.6524,-105.6062,106.6568,-52.0151,69.8785,30.999,43.6087,30.999,-505.9641,-96.1488,106.1835,143.4351,
-102.4538,-32.0498,-235.9064,-108.7586,104.5554,-48.8627,80.3867,32.0498,55.1675,36.253,-495.4563,-101.4033,121.1835,128.4351,
-110.86,-36.2528,-234.8556,-123.4696,106.6573,-39.405,83.5391,36.2528,61.4725,42.5581,-488.1002,-107.7078,124.5207,117.1648,
-96.6743,-46.2353,-240.6349,-138.4696,108.2334,-32.5751,72.5056,36.7783,46.4725,32.5751,-488.6257,-107.1823,130.3,129.2494,
-89.3189,-34.6767,-231.178,-133.4526,107.1823,-28.3719,81.9631,43.0831,50.439,28.3719,-484.4225,-94.5727,145.3,133.4531,
-104.3189,-29.948,-234.8556,-135.0292,105.6057,-27.8464,94.0477,47.8114,65.439,27.8464,-483.8975,-91.9461,147.6388,138.1808,
-119.3189,-44.948,-249.8556,-150.0292,106.132,-18.9147,79.0477,42.0323,68.3026,18.9147,-494.9308,-105.081,132.6388,153.1808,
-134.3189,-47.2863,-264.8556,-165.0292,96.6748,-6.3048,64.0477,43.0831,63.0486,6.3048,-509.9308,-112.4366,122.9446,164.9767,
-136.6048,-32.2863,-279.8556,-180.0292,89.3194,0,63.0486,58.0831,61.9981,0,-524.9308,-97.4366,137.9446,179.9767,
-132.9273,-27.8461,-288.4465,-189.6706,81.4378,5.7795,64.625,61.4723,55.1675,-5.7795,-539.9308,-89.8442,143.4354,194.9767,
-125.5715,-30.9988,-289.4976,-199.1281,66.4378,9.9827,55.1675,57.2691,44.6595,-9.9827,-554.9308,-104.8442,128.4354,192.8233,
-110.5715,-21.5416,-289.4978,-201.23,56.2183,7.8809,52.0151,63.5736,39.4055,-7.8809,-569.9308,-119.8442,131.8765,193.8741,
-112.9621,-23.6432,-303.158,-210.6869,48.8624,12.0841,46.7608,66.7263,29.948,-12.0841,-584.9308,-128.7239,146.8765,208.8741,
-121.3683,-32.0493,-305.2594,-222.2458,45.7105,22.5929,44.6595,70.9298,20.4908,-20.4908,-599.9308,-126.622,143.4359,220.1442,
-118.7411,-27.3211,-301.5817,-228.0256,43.0834,19.9652,52.5404,78.8107,22.0673,-19.9652,-614.9308,-131.3508,128.4359,205.1442,
-126.6223,-32.0496,-316.5817,-243.0256,28.0834,14.1857,46.7608,76.1838,21.5416,-14.1857,-629.9308,-146.3508,113.4359,190.1442,
-133.9781,-38.3544,-331.5817,-258.0256,13.0834,18.3894,45.7103,75.1332,25.7448,-11.0335,-644.6709,-149.7404,128.4359,180.2134,
-127.6733,-40.456,-344.1396,-273.0256,19.44,15.2368,49.9135,77.2348,33.1006,-15.2368,-635.2135,-144.4862,143.4359,170.756,
-115.589,-40.9813,-358.3255,-286.8705,27.3211,15.762,56.7436,81.9633,38.8802,-15.762,-630.485,-143.9609,147.1135,162.8758,
-121.8938,-45.1845,-373.3255,-295.2769,19.9652,21.0163,64.0994,80.9123,34.677,-19.9652,-626.2818,-145.0114,159.7227,177.8758,
-127.6736,-43.6089,-388.3255,-310.2769,20.4908,21.5413,67.7771,80.3867,28.8972,-20.4908,-625.7568,-138.1816,174.7227,192.8228,
-127.1478,-40.9815,-403.3255,-324.6996,18.9144,18.9144,59.896,78.8104,23.1181,-18.9144,-636.7896,-143.9606,178.6379,194.4001,
-133.4524,-31.5243,-406.6629,-327.852,23.1179,22.0668,54.642,87.2176,21.0163,-21.0163,-651.7896,-151.3162,175.4849,207.0095,
-142.9098,-31.5243,-412.9677,-334.1568,31.5243,22.0668,54.642,94.5729,23.1179,-22.0668,-666.7896,-143.9609,164.9769,212.2638,
-139.2324,-40.456,-427.1537,-340.9874,35.2022,15.2368,56.2183,94.0477,25.7448,-15.2368,-674.0939,-137.1308,168.6549,213.8396,
-127.6728,-37.3033,-428.2042,-344.1396,36.2533,15.2368,54.1167,95.0982,29.948,-15.2368,-661.4838,-132.9271,183.6549,228.8396,
-121.8935,-28.3719,-418.2217,-358.3258,39.931,17.8639,54.6422,101.9281,33.6257,-17.8639,-666.2125,-137.6558,198.6549,237.4823,
-116.114,-30.9988,-426.1029,-373.3258,39.4057,14.186,60.4217,104.5554,33.1004,-14.186,-673.0426,-150.7907,197.027,229.6021,
-109.2842,-35.7275,-430.8316,-385.6469,39.9307,11.5588,69.3532,101.9283,39.9307,-11.5588,-667.2633,-159.7227,203.8569,233.2793,
-112.4366,-40.9815,-415.8316,-400.3578,53.5912,12.6096,74.6072,96.6748,52.5406,-12.6096,-673.5684,-159.7229,212.2635,222.771,
-107.7078,-37.3038,-407.1882,-409.2898,59.3709,11.0335,76.1838,97.1998,49.9135,-11.0335,-683.5509,-152.8926,219.0939,213.8391,
-105.081,-30.4738,-422.1882,-420.3236,53.5909,5.254,83.0139,94.5724,48.3371,-5.254,-683.0256,-150.2657,219.6191,216.4665,
-116.6395,-35.7275,-430.8311,-435.3236,51.4898,5.254,86.1665,84.0649,52.5404,-5.254,-689.3304,-152.3673,209.1111,210.1617,
-118.7414,-35.7278,-423.476,-442.3904,55.6928,12.6096,76.7088,85.1152,44.1337,-12.6096,-686.178,-147.1133,219.6184,218.5678,
-106.6568,-30.9985,-422.95,-437.6617,60.4215,15.2368,74.0822,96.1493,38.3549,-15.2368,-684.6014,-146.5878,234.6184,233.5678,
-99.3012,-37.3036,-427.1534,-445.0173,50.9643,15.2365,78.2851,100.3522,40.4563,-15.2365,-690.9065,-154.9944,227.5005,248.5678,
-97.7251,-34.677,-431.8822,-459.2035,38.8797,16.8131,68.3026,107.1821,34.6765,-16.8131,-688.2794,-159.7232,213.3138,251.1427,
-97.1996,-19.677,-441.8646,-473.3892,34.1514,18.3892,56.2185,116.1145,19.6765,-22.5924,-688.8049,-161.2987,222.2463,256.9225,
-95.6235,-15.762,-449.746,-482.3212,34.6765,21.0163,50.4388,120.8427,13.6604,-13.6604,-695.6352,-160.7737,232.2283,271.9225,
-107.1823,-30.762,-460.2543,-497.3212,30.4735,7.3559,35.4388,107.1823,14.7112,-7.3559,-704.0419,-167.0788,217.2283,264.8041,
-110.86,-42.5576,-467.0841,-512.3212,32.0496,8.9319,28.8974,99.3019,19.44,-8.9319,-693.0078,-166.5533,221.195,272.685,
-118.7414,-45.1847,-476.0161,-527.3212,27.3209,18.9144,21.016,102.9796,13.6607,-13.6607,-684.0764,-168.1293,236.195,282.667,
-131.8763,-52.0148,-473.3892,-542.3212,27.8466,14.186,13.1354,104.5559,12.0843,-12.0843,-699.0764,-166.553,239.0586,268.4821,
-136.0797,-48.8624,-471.2874,-554.3015,27.8464,8.9319,13.1352,99.3019,17.3384,-8.9319,-714.0764,-169.7054,231.7035,267.4313,
-138.1813,-47.8119,-481.7954,-563.7584,12.8464,8.9319,12.0846,94.0477,17.3384,-8.9319,-729.0764,-184.7054,226.4492,273.7361,
-139.7577,-47.2866,-488.626,-573.7412,8.4067,11.5588,10.5083,99.8267,22.0668,-8.4067,-743.9726,-199.7054,229.0766,264.8034,
-137.6561,-44.1339,-491.7781,-587.4019,12.6099,15.762,12.6099,102.9789,19.9652,-12.6099,-757.6328,-199.6536,223.8223,256.3975,
-136.605,-45.185,-487.5749,-591.6051,11.5588,16.8131,22.0668,100.8778,15.762,-11.5588,-753.4296,-199.6536,208.8223,259.5501,
-129.2497,-44.1339,-473.9147,-591.6051,7.3556,17.8636,23.1179,102.9794,23.1179,-7.3556,-741.871,-197.552,204.9079,266.9055,
-114.2497,-29.1339,-458.9147,-592.1303,11.0335,29.948,27.8464,112.9616,36.2528,-11.0335,-730.8372,-199.1284,219.9079,275.8372,
-99.2497,-24.1687,-465.5081,-603.1639,14.7112,33.6257,33.6257,116.6398,30.4735,-14.7112,-715.8372,-214.1284,234.9079,265.8542,
-106.1315,-34.677,-468.6605,-615.7738,15.762,31.5243,33.6259,115.5885,16.8131,-15.762,-705.0927,-225.9239,237.4825,269.0071,
-96.6745,-25.2195,-455.0003,-612.6216,16.8131,40.9813,29.4227,113.4874,13.6604,-13.6604,-714.5497,-217.5175,236.432,284.0071,
-81.6745,-17.3384,-454.4745,-609.9942,11.0335,49.9135,30.999,116.1148,17.3384,-11.0335,-710.8717,-204.3821,239.0593,299.0071,
-78.2854,-19.44,-454.475,-616.2995,13.1352,46.7608,44.6592,130.825,21.5416,-13.1352,-695.8717,-195.9757,244.3126,305.2596,
-76.1835,-16.2876,-452.3732,-623.6552,17.3381,47.8116,38.3542,132.9268,16.2876,-21.5418,-680.8717,-201.2297,243.2618,303.1583,
-67.7771,-12.0843,-462.8812,-628.9089,14.186,57.2691,27.8461,122.4193,12.0843,-22.5924,-674.0937,-206.484,238.008,306.3109,
-73.5569,-14.7115,-463.4067,-627.3328,14.7115,60.9468,33.6259,122.9448,21.0163,-19.9652,-659.0937,-205.9585,250.0926,313.1408,
-88.5569,-9.9827,-460.7796,-627.8579,16.2876,58.3196,18.6259,124.5204,22.5924,-23.6434,-650.976,-207.5345,260.0746,298.1408,
-81.9631,5.0173,-451.8474,-622.0788,31.2876,73.3196,3.6259,137.6563,33.6257,-8.6434,-646.247,-194.3996,269.0073,293.176,
-71.4553,5.254,-450.7971,-627.3328,40.9813,78.8107,-9.4577,141.8588,39.9307,-5.254,-631.536,-194.3999,266.9055,301.5817,
-66.2008,5.2543,-447.6442,-631.5358,31.5241,78.8104,-5.2543,142.9096,48.3374,-12.6096,-616.536,-195.4502,275.3121,311.0389,
-67.2516,6.3051,-451.8476,-636.7898,27.3211,84.0649,-6.3051,137.6556,48.3371,-9.4572,-612.6211,-193.3488,277.413,311.0397,
-59.896,8.4064,-453.949,-637.8406,22.0671,84.0647,-8.4064,133.4531,37.8294,-13.6607,-627.6211,-197.5518,262.413,304.7341,
-44.896,9.9827,-451.3221,-637.3153,11.0333,82.4883,-9.9827,130.8252,27.8466,-28.6607,-627.8579,-206.484,250.6182,298.9546,
-34.1512,9.9825,-443.9665,-642.5693,3.6777,85.6407,-3.6777,127.6733,32.0496,-43.6607,-615.2485,-214.8901,265.6182,303.1585,
-32.0498,14.186,-445.0173,-654.1282,-4.7285,92.9964,4.7285,124.5209,36.253,-34.1514,-600.2485,-218.0426,280.6182,318.1585,
-24.694,23.6434,-445.0173,-645.7217,-7.8811,103.5044,7.8811,135.0284,44.6595,-29.9482,-585.2485,-204.3824,292.6503,326.2759,
-26.7958,26.7958,-442.9159,-635.214,-8.9319,100.352,8.9319,137.1303,41.5071,-44.9482,-570.2485,-203.3316,294.7521,311.2759,
-29.4225,25.2198,-440.2888,-647.2981,-12.6096,92.4711,12.6096,129.2499,36.7783,-50.4385,-555.2485,-218.3316,292.1245,296.2759,
-22.5926,28.8974,-437.6617,-662.2981,-9.9825,96.1488,9.9825,128.7239,37.3038,-50.964,-540.2485,-233.3316,282.1425,310.5144,
-15.2365,26.7956,-440.8141,-668.8394,-9.9827,98.2506,9.9827,136.08,29.9482,-65.964,-533.2852,-226.449,284.2438,322.0727,
-14.186,19.4397,-441.8651,-671.9921,-18.3892,86.6915,14.186,139.2316,23.6429,-80.964,-542.7426,-221.1952,277.9385,307.0727,
-14.7115,19.9652,-436.0854,-678.8224,-27.3211,85.1155,14.7115,145.0119,21.0163,-88.2681,-541.1666,-226.9745,262.9385,303.6833,
-13.1352,21.5416,-436.6111,-676.1955,-16.2878,86.6913,13.1352,146.5878,16.2873,-79.3364,-534.3365,-221.1955,249.5669,318.6833,
-26.2701,7.3556,-445.5428,-685.1272,-5.254,71.6913,5.254,131.5878,8.4067,-90.3697,-536.9634,-225.9239,259.5496,306.8365,
-25.2192,4.2032,-446.5936,-700.1272,-4.2032,56.6913,6.3048,116.5878,8.4064,-94.5727,-531.7088,-234.3301,266.9057,291.8365,
-27.8464,0.52553,-455.5256,-715.1272,0.52553,41.6913,0.52553,101.5878,1.5761,-95.0982,-519.6248,-236.9572,261.1259,285.2946,
-14.186,14.186,-440.5256,-700.1272,15.5255,26.6913,15.5255,86.5878,16.5761,-80.0982,-504.6248,-221.9572,276.1259,300.2946,
-5.7795,5.7795,-425.5256,-685.1272,30.5255,11.6913,24.694,73.0314,26.7956,-69.8787,-489.6248,-221.1952,291.1259,309.4631,
6.8303,-6.8303,-418.7473,-670.1272,45.5255,-3.3087,32.0496,60.4215,24.6937,-76.1838,-474.6248,-210.6869,302.107,294.4631,
11.5588,-11.5588,-428.73,-655.1272,60.5255,-18.3087,29.4227,45.4215,25.2195,-72.5058,-459.6248,-208.0601,296.3279,299.4806,
16.2876,-16.2876,-417.6964,-640.1272,75.5255,-33.3087,32.0493,30.4215,39.4052,-59.3707,-444.6248,-202.2808,302.1072,311.5642,
31.2876,-21.5416,-402.6964,-625.1272,90.5255,-48.3087,47.0493,21.5416,50.964,-59.3709,-429.6248,-188.6203,317.1072,308.4123,
43.6084,-16.2876,-387.6964,-610.1272,105.5255,-63.3087,62.0493,16.2876,55.1675,-63.5739,-414.6248,-182.3153,332.1072,311.5642,
41.5068,-16.2876,-388.274,-595.2832,120.5255,-59.3707,60.4212,16.2876,53.0659,-55.1675,-399.6248,-181.2647,326.2759,323.1233,
46.7611,-20.4908,-381.9687,-583.7242,132.9273,-55.1675,65.6755,20.4908,57.2691,-42.5579,-384.6248,-166.2647,325.2254,325.2254,
53.0656,-17.3384,-376.7147,-575.3175,138.1813,-54.1167,71.9806,17.3384,65.6753,-42.5576,-369.6248,-160.2484,337.8347,310.2254,
55.1672,-12.0841,-381.9689,-587.9271,130.8255,-50.964,68.8279,12.0841,58.3199,-54.1167,-354.6248,-173.9086,324.1746,295.2254,
60.947,-12.6096,-378.2907,-594.7575,125.0462,-45.1847,65.1502,12.6096,43.3199,-66.2008,-339.6248,-179.6879,313.141,286.8712,
59.3704,-13.1352,-375.6641,-596.3341,121.368,-38.3549,62.5231,13.1352,35.2017,-79.3364,-324.6248,-178.1123,315.7681,289.4973,
58.3199,-13.1352,-372.512,-599.4862,117.1648,-33.1006,59.3704,13.1352,29.948,-94.0477,-309.6248,-178.1123,318.9198,290.5479,
56.7438,-13.6607,-369.8848,-601.0623,113.4871,-26.2703,56.7438,13.6607,26.2703,-107.1823,-294.6248,-176.5357,321.5474,293.1755,
55.6928,-13.6607,-366.7322,-604.2149,109.2839,-19.9655,53.5912,13.6607,21.016,-120.843,-279.6248,-175.4852,324.7001,294.2261,
53.5912,-14.7112,-364.6306,-606.3165,105.0807,-13.6607,50.439,13.6607,16.8128,-134.5037,-264.8036,-174.4341,326.8012,296.3282,
51.4893,-15.7625,-363.5798,-610.52,98.7756,-9.4572,45.1845,11.5588,9.4572,-149.5037,-259.5496,-175.4849,327.852,295.2769,
66.4893,-9.9825,-356.7497,-612.0958,97.1998,-8.9319,45.7103,8.9319,12.0841,-148.6894,-244.5496,-176.0102,313.666,294.7521,
59.8962,-10.5078,-352.0207,-616.8243,95.6235,1.0508,42.0323,-1.0508,19.9652,-139.7577,-240.6352,-172.3323,298.666,292.1247,
49.3879,-14.7112,-349.9193,-624.1804,83.0136,0,35.7273,0,10.508,-126.0972,-253.2451,-177.5868,283.666,292.1245,
56.7438,-15.7618,-346.7667,-624.1799,72.5061,-4.2032,42.0326,4.2032,5.2543,-122.9446,-249.0413,-183.8911,287.9213,281.617,
63.0486,-8.4064,-336.2587,-627.3326,85.1157,2.1016,55.6928,-2.1016,18.9144,-123.9951,-234.0413,-179.6879,295.2771,274.2611,
59.8962,-7.3556,-331.0047,-642.0441,80.9123,7.3556,45.185,-12.6094,18.9147,-130.3002,-219.0413,-182.8403,285.8204,280.5657,
66.7263,-13.1352,-333.6315,-656.23,65.9123,14.1862,37.3038,-7.8809,7.8809,-129.7749,-204.0413,-187.5693,278.9898,285.2941,
59.8962,-16.8126,-337.3095,-663.0601,58.8457,21.0163,45.185,-1.0508,1.0508,-127.1476,-196.501,-184.9419,274.2608,270.2941,
46.7611,-13.1349,-329.4286,-665.6872,64.625,25.745,44.6595,0.52528,-0.52528,-132.9273,-197.0265,-181.2642,275.8369,255.2941,
47.8116,-13.1349,-314.4286,-678.2969,58.3201,29.9482,44.6595,-2.6269,2.6269,-133.9779,-188.6201,-189.6707,277.9385,259.0246,
39.4055,-16.2873,-321.0219,-691.9573,55.1677,29.948,41.5071,-4.7287,4.7287,-127.6733,-173.6201,-189.6709,269.5329,272.6845,
32.5746,-11.5591,-334.1576,-692.4828,56.7433,34.6762,35.7273,0,0,-127.1483,-159.7229,-174.6709,274.2606,262.7015,
45.1845,-3.1524,-327.8525,-695.6352,50.4388,35.7275,28.3717,3.1524,-13.6609,-136.6055,-172.3328,-169.1801,288.9721,266.9055,
52.5406,-2.1016,-315.2426,-706.143,47.2863,32.5751,23.1176,2.1016,-19.9655,-137.6558,-162.8751,-177.5868,283.7181,276.3632,
48.8629,-0.52553,-301.0564,-695.1094,62.2863,40.456,29.948,0.52553,-4.9655,-122.6558,-147.8751,-165.5022,275.8377,275.8377,
36.7783,-4.2032,-301.5819,-691.4318,70.4045,33.6262,27.3214,-14.4745,4.2032,-107.6558,-132.8751,-163.9261,270.0584,260.8377,
48.3371,-1.0508,-294.2263,-687.2283,71.4553,27.3211,24.1689,-18.9142,1.0508,-92.6558,-122.9443,-162.8753,276.3629,257.448,
63.3371,0,-279.5149,-673.5679,75.6582,24.1687,21.0165,-14.7112,0,-91.42,-110.3345,-156.5703,272.16,272.448,
78.2849,6.8303,-267.4308,-665.6875,74.0817,20.4905,19.44,-15.2368,-6.8303,-106.42,-114.0127,-157.0958,260.0749,257.448,
79.3359,13.1352,-263.2275,-667.7891,75.1327,13.1352,8.9319,-24.6942,-8.9319,-121.42,-111.911,-166.5533,262.177,242.448,
93.5219,28.1352,-248.2275,-652.7891,90.1327,24.1689,-6.0681,-11.5588,6.0681,-130.3002,-96.911,-155.5195,277.177,238.5336,
108.5219,34.6767,-233.2275,-638.8917,101.9281,35.7273,-21.0681,-6.3048,6.3048,-145.3002,-81.911,-140.8085,283.7186,253.5336,
123.5219,36.253,-225.3984,-628.9089,107.7076,45.71,-19.4397,-6.8301,6.8301,-160.3002,-66.911,-125.8085,285.2949,257.9735,
108.5219,35.7278,-228.0253,-631.5358,106.1318,44.1342,-25.2193,-10.508,10.508,-175.3002,-51.911,-121.8935,284.7696,247.9913,
93.5219,42.0326,-220.6694,-642.0438,94.5727,43.0831,-37.8289,-10.508,10.508,-190.3002,-36.911,-122.9446,283.7181,262.9913,
108.5219,42.5576,-208.5853,-638.3661,92.9966,53.0661,-32.0496,-6.8303,2.6271,-205.3002,-21.911,-120.3175,286.3452,277.9913,
114.5384,35.7275,-205.9585,-635.7393,91.4203,57.7946,-33.6259,-9.4572,-8.4067,-220.3002,-6.911,-118.7416,278.4645,282.6678,
102.9796,30.4735,-201.755,-646.247,84.0647,54.6422,-32.5751,-21.016,-6.3048,-235.3002,6.3048,-111.3855,263.4645,267.6678,
101.4033,24.694,-200.1787,-648.8739,77.2346,59.3707,-28.8972,-27.8461,-5.7795,-245.3634,5.7795,-103.5044,252.7198,263.2273,
87.2168,21.016,-212.263,-645.1965,73.5566,64.0992,-39.9305,-22.0671,-17.8639,-243.7876,17.8639,-106.1318,258.4988,262.702,
72.2168,23.6429,-213.8393,-647.8234,75.1325,58.3196,-46.7611,-22.5924,-24.694,-255.8719,22.5924,-121.1318,252.7198,249.5671,
87.2168,29.9477,-199.1281,-642.5696,77.2341,69.8787,-34.1514,-21.5418,-18.3892,-266.38,18.3892,-136.1318,249.5666,251.6687,
102.2168,25.745,-193.8739,-635.2137,70.9303,77.2346,-29.9477,-27.8461,-20.4908,-278.9896,20.4908,-151.1318,244.3134,242.2113,
89.8445,23.6432,-198.0773,-634.1629,70.9295,71.9811,-29.948,-33.1001,-23.6432,-293.9896,34.1517,-157.0958,244.3136,227.2113,
83.0141,21.016,-197.5518,-634.6885,77.7604,77.7604,-28.3719,-29.4225,-21.016,-308.9896,40.9815,-154.4687,237.4833,215.4157,
97.7256,21.0163,-185.993,-628.3834,72.5063,87.2171,-21.0163,-24.1684,-21.0163,-323.9896,48.3371,-148.1641,228.025,229.0766,
104.5552,21.5416,-193.8741,-629.9597,63.5737,78.2854,-21.5416,-32.0496,-33.1006,-338.9896,45.7103,-146.5878,224.3481,230.6524,
105.6067,25.7448,-201.2295,-631.0103,67.7769,79.3359,-25.7448,-32.0496,-44.6592,-353.9896,30.7103,-148.6894,227.4998,221.1955,
118.7416,29.4227,-186.2295,-625.2312,59.8957,91.4203,-26.2701,-24.1684,-54.642,-361.4782,24.1684,-147.113,223.8218,219.6186,
118.7416,24.1689,-182.8408,-623.1296,44.8957,81.9633,-28.3722,-24.1689,-69.3537,-361.4782,26.2701,-141.8593,209.1111,218.5681,
109.2837,24.1689,-191.2472,-617.8754,46.2355,79.8612,-24.1689,-26.2706,-78.8107,-361.4782,31.5238,-133.4529,205.9585,215.4154,
103.5051,26.7958,-191.7725,-622.6039,42.5581,85.6407,-26.7958,-37.3038,-82.4886,-360.9529,34.1517,-141.3335,203.3316,200.4154,
99.8267,22.0668,-190.1967,-621.028,38.8797,78.8107,-22.0668,-43.0834,-71.4553,-354.1228,42.0323,-143.9609,205.9585,194.3994,
87.2176,23.1179,-190.1962,-610.5195,40.9813,75.6585,-23.1179,-36.7781,-61.9978,-350.9701,55.693,-133.4524,197.5525,199.6536,
84.0644,33.6259,-182.8408,-611.5706,42.0323,74.6074,-33.6259,-43.0834,-70.4042,-357.275,70.4042,-137.6561,182.5525,190.1962,
98.7764,26.2703,-167.8408,-607.3671,42.0326,69.3539,-26.2703,-52.5401,-71.455,-348.8683,85.4042,-138.7064,189.1459,175.1962,
113.7764,25.7448,-152.8408,-592.3671,50.964,84.3539,-25.7448,-37.5401,-56.455,-333.8683,100.4042,-123.7064,204.1459,182.315,
121.3688,28.8972,-143.4354,-577.3671,53.0659,99.3539,-40.7448,-28.8972,-53.0659,-318.8683,115.4042,-108.7064,212.7888,197.315,
112.4358,35.7275,-136.6055,-572.6906,58.8447,104.0294,-55.7448,-35.7275,-52.5409,-311.0397,121.8938,-109.2842,209.1106,212.315,
104.0302,30.4735,-129.2494,-568.4872,58.8454,93.5216,-70.7448,-30.4735,-40.9815,-296.0397,128.1989,-96.6743,210.1619,197.315,
92.4711,24.1687,-130.3,-576.8936,52.5401,89.3184,-85.7448,-24.1687,-52.5406,-291.0739,117.6903,-97.7253,195.1619,182.315,
91.9453,28.8972,-136.08,-579.521,44.6595,96.1485,-100.7448,-28.8972,-67.5406,-306.0739,102.6903,-108.7586,180.1619,172.8578,
106.9453,27.8461,-128.7241,-574.2667,37.3041,100.3522,-115.7448,-27.8461,-82.5406,-310.5136,89.8447,-97.1996,165.1619,178.1121,
114.5379,30.4738,-123.9949,-571.6396,28.3717,90.3702,-130.7448,-28.3717,-83.0134,-315.2424,96.6745,-94.5724,156.571,183.8914,
116.1145,41.5073,-125.5715,-567.9619,26.7956,91.9458,-144.4859,-26.7956,-89.8437,-327.3265,111.6745,-95.098,148.6896,178.1121,
110.335,31.5246,-125.0462,-569.5382,24.1687,102.9791,-141.859,-24.1687,-84.0647,-322.598,126.6745,-84.0647,142.9101,163.1121,
104.0299,28.3722,-120.8427,-560.0805,22.0668,109.2847,-127.1475,-22.0668,-75.658,-311.0392,141.6745,-81.9628,148.1641,148.1641,
107.1823,42.0321,-115.5887,-550.6233,25.2192,104.0307,-112.1475,-25.2192,-78.8104,-312.09,156.6745,-94.5727,151.3165,162.8756,
104.0294,36.7781,-108.2336,-561.1321,31.5243,94.5724,-107.1826,-31.5243,-76.7091,-311.0397,163.9259,-94.5729,140.8077,147.8756,
91.9461,39.4055,-102.4536,-557.4536,35.2022,95.0987,-107.7078,-35.2022,-66.7263,-302.1075,171.807,-81.4375,135.0287,132.8756,
92.4711,54.4055,-96.6743,-542.4536,34.6767,98.7764,-105.0807,-34.6767,-64.0992,-290.0234,186.807,-80.9125,138.7064,117.8756,
103.5046,49.9135,-92.9966,-527.4536,25.7448,99.3014,-106.6573,-25.7448,-71.9806,-282.1425,194.9247,-85.6412,149.7399,117.1648,
95.098,34.9135,-90.8953,-539.5905,19.4402,98.2506,-111.9113,-19.4402,-78.2856,-289.4981,185.4674,-82.4888,148.6891,114.0129,
80.9123,29.4232,-91.4203,-532.7597,24.1684,88.2681,-110.3347,-24.1684,-79.8612,-291.0737,178.6376,-76.7086,133.6891,116.64,
85.1155,32.5749,-89.3187,-521.2011,31.5243,73.2681,-110.3347,-31.5243,-79.8612,-276.0737,193.3483,-70.4042,118.6891,116.64,
100.1155,31.5243,-77.7596,-514.8963,45.1845,58.2681,-107.1826,-31.5243,-73.5564,-267.956,208.0601,-55.4042,132.4023,120.8432,
109.8099,29.948,-66.7263,-499.8963,60.1845,44.6597,-101.403,-39.405,-77.2343,-269.5324,212.789,-40.4042,135.0292,135.8432,
118.7406,34.6765,-51.7263,-484.8963,75.1845,29.6597,-86.403,-46.236,-76.7096,-254.5324,227.789,-29.4227,135.5545,150.8432,
133.7406,49.6765,-36.7263,-469.8963,90.1845,20.4908,-71.403,-39.4052,-61.7096,-239.5324,242.789,-22.5924,150.5545,165.503,
148.7406,53.5912,-21.7263,-454.8963,105.1845,8.4064,-64.0997,-54.4052,-52.5406,-235.3812,257.789,-8.4064,165.5545,163.9261,
154.9947,44.6597,-16.2878,-439.8963,120.1845,-6.5936,-55.1672,-69.4052,-57.2693,-227.5003,272.789,6.5936,178.1118,168.6549,
146.5875,30.9988,-7.8811,-424.8963,135.1845,-21.5936,-56.218,-84.4052,-58.3196,-216.992,287.789,7.8811,163.1118,153.6549,
161.5875,36.7788,-2.1016,-409.8963,148.1643,-21.016,-50.4385,-80.912,-48.3369,-213.3141,302.789,2.1016,161.8245,146.0622,
172.3325,34.6762,-6.3048,-394.8963,152.3671,-18.9149,-43.0831,-89.3189,-54.6422,-213.3141,306.8362,6.3048,172.3325,133.4521,
157.3325,19.6762,-10.508,-379.8963,166.0277,-33.9149,-48.3374,-104.3189,-59.8965,-207.0093,319.4453,10.508,157.3325,118.4521,
143.9606,10.508,-10.508,-364.8963,181.0277,-35.7278,-47.2863,-112.4366,-53.5912,-201.7555,334.1566,10.508,142.3325,106.1318,
146.0622,13.6607,-6.3048,-349.8963,196.0277,-20.7278,-39.9305,-113.4871,-54.6417,-199.6534,333.1065,6.3048,155.5202,119.7924,
140.2832,9.9827,-4.7285,-352.5462,211.0277,-23.6434,-37.3036,-119.2667,-60.4212,-195.976,330.4791,4.7285,162.3498,106.6575,
135.0287,1.5761,-1.5761,-346.2412,226.0277,-28.8974,-37.3039,-121.3685,-56.2183,-191.7725,342.0384,5.7793,147.3498,97.1998,
135.0289,-2.6269,2.6269,-332.5807,227.5005,-13.8974,-47.8116,-119.2667,-63.5739,-189.6711,351.4957,2.6269,147.6386,97.2001,
133.9776,-1.5761,9.9825,-327.3267,231.703,-5.7793,-55.1672,-112.9621,-70.9295,-184.4166,351.4959,1.5761,159.1979,98.2509,
120.3177,-2.6269,2.6269,-334.6823,221.1957,-20.7793,-59.3707,-120.3172,-80.3867,-193.8739,345.1909,4.729,144.1979,89.8447,
111.3855,0,0,-338.3608,206.1957,-23.1181,-64.0997,-131.3515,-89.3189,-199.6539,342.563,13.6602,129.1979,78.8104,
110.335,-7.3559,7.3559,-334.1571,201.755,-16.8133,-73.5566,-131.351,-90.3695,-201.7555,336.2587,11.5591,114.1979,72.5061,
111.3855,-5.2538,12.6096,-320.4969,214.3646,-18.9149,-70.4045,-119.7924,-79.8615,-197.5523,344.6651,5.2538,111.3855,78.8104,
105.0807,-3.1522,9.4575,-319.4458,209.1114,-19.9655,-61.9976,-123.9951,-75.6582,-188.0948,359.6651,3.1522,110.3355,73.5571,
100.3522,-9.9827,9.9827,-325.2254,206.484,-11.0333,-59.3712,-126.6225,-79.3362,-183.3663,360.9521,14.186,101.4028,67.7771,
94.0469,-22.5924,8.9322,-324.1743,211.7377,-8.9322,-63.5739,-128.7241,-87.7426,-183.3658,347.292,22.5924,86.692,56.218,
90.37,-23.1176,12.6101,-311.0389,204.9082,-11.5586,-63.0481,-139.7574,-88.2679,-177.5863,341.5129,11.5586,78.8109,41.218,
99.3017,-8.1176,24.6935,-296.0389,203.3313,-0.52578,-58.3201,-133.9779,-73.2679,-167.6041,337.835,0.52578,75.133,30.9988,
92.9964,-6.8301,24.6935,-300.0061,197.026,-5.7795,-67.7776,-128.7241,-71.9808,-176.0105,322.835,5.7795,60.133,30.9988,
79.8615,-21.0165,12.6101,-313.141,182.026,-9.4575,-74.6072,-138.7069,-86.9808,-189.1454,309.9884,9.4575,45.133,18.9144,
