"AF3","AF4","F3","F4","F7","F8","FC5","FC6","O1","O2","P7","P8","T7","T8",
-25.1284,-23.0771,-22.0513,14.3589,126.6665,-23.5898,22.564,-90.7693,11.2822,5.6411,-5.6411,-41.0259,40,25.6411,
-16.4102,-20.5127,-27.6924,20,138.9741,-13.8462,22.564,-91.282,13.8462,9.7437,-9.7437,-38.9746,30.769,29.7437,
-23.0771,-20.5132,-34.3589,16.9229,142.0513,-14.8721,20,-95.8975,11.7949,9.7437,-9.7437,-41.5386,25.6411,25.6411,
-38.0771,-28.4617,-27.9485,7.9485,137.6921,-27.9485,17.6921,-99.7437,11.0256,3.8459,-3.8459,-37.1794,30.5129,22.8206,
-33.0769,-24.8718,-25.8972,13.5901,144.8718,-22.8206,15.1282,-97.1794,15.6414,4.8718,-4.8718,-35.1282,27.949,34.6155,
-18.0769,-16.6667,-32.0515,17.6921,154.1028,-9.4871,16.1541,-93.5898,17.6921,7.4358,-7.4358,-45.8972,16.6667,36.6667,
-22.0513,-17.436,-29.7437,15.3843,155.3843,-13.3335,17.9487,-88.2053,15.8975,8.2051,-8.2051,-44.6157,23.0767,24.1025,
-37.0513,-31.5386,-23.3335,10.5127,140.769,-25.8975,19.231,-87.9487,11.5386,7.436,-7.436,-30.5127,38.0767,25.8975,
-41.5383,-32.8206,-26.6667,12.8206,145.1282,-21.0256,16.9231,-87.6924,7.6921,5.6409,-5.6409,-32.8206,28.718,33.3333,
-26.5383,-18.4614,-33.3335,21.5386,160.1282,-12.3076,15.3848,-82.0513,9.7437,6.1538,-6.1538,-42.564,14.3589,25.6411,
-32.0513,-28.9746,-25.3848,14.1025,175.1282,-27.3076,21.7949,-82.8206,13.0767,4.3589,-4.3589,-37.1797,25.3843,20.2563,
-41.5386,-40.5129,-15.8975,11.2817,166.6665,-40.0002,27.1792,-86.6667,11.7949,2.0513,-2.0513,-29.7437,37.4355,29.2305,
-28.718,-28.2053,-19.9998,17.4358,181.6665,-25.1282,26.1541,-83.0769,11.282,3.0769,-3.0769,-29.7434,27.6921,30.7693,
-28.9741,-23.8462,-30.5127,12.0513,191.5386,-20.769,14.1025,-84.3589,11.5386,1.7949,-1.7949,-32.0513,16.6665,16.6665,
-35.6411,-30,-31.5386,6.4102,182.8208,-24.3589,6.9233,-86.9229,12.5645,1.7949,-1.7949,-37.6924,25.8975,14.6157,
-50.6411,-44.8716,-22.3074,1.7952,167.8208,-38.7178,18.718,-91.5383,13.5901,0.76929,-0.76929,-39.7434,33.0769,19.7439,
-65.6411,-51.5383,-21.2817,0.25635,152.8208,-47.4358,21.2822,-97.1794,12.0513,1.2822,-0.25635,-28.9741,26.4102,21.2822,
-54.8721,-40.5132,-32.3081,5.1279,164.6152,-32.4358,6.2822,-96.9233,9.7437,2.0513,-2.0513,-28.7183,20,25.1279,
-43.3335,-34.6152,-33.5898,7.9487,175.6411,-24.3589,5.8975,-94.6155,11.0259,0.25635,-0.25635,-35.6411,20.2563,23.8462,
-44.3589,-34.6152,-30.5127,5.8975,172.0513,-25.8975,15.1284,-98.7178,14.6152,-0.25635,0.25635,-31.5386,22.8208,18.2051,
-54.3591,-42.5642,-30.2566,-0.51294,158.4612,-28.2053,13.8459,-104.1028,17.9485,3.5896,0.51294,-30.2566,26.6667,15.3845,
-65.3845,-46.4104,-35.6411,1.7949,148.9741,-25.8975,1.2822,-102.3076,15.6411,3.8462,-1.2822,-32.564,21.7949,16.1538,
-60.5129,-37.9487,-38.9746,4.1025,156.9229,-19.4873,0.5127,-101.0256,12.8203,-0.5127,0.5127,-27.1797,20.5127,22.0513,
-51.0256,-39.7437,-30.5127,0.25635,152.0513,-22.3076,12.0513,-102.8206,18.7178,-0.25635,6.4102,-20.769,26.9229,21.7949,
-47.1792,-42.0513,-37.436,1.5386,144.1025,-21.5386,6.1538,-98.9744,21.5386,5.1284,-1.5386,-26.1538,20.5127,17.9487,
-53.0771,-45.3848,-38.2051,4.8716,141.7949,-23.3335,1.7949,-95.1284,15.1279,5.3843,-1.7949,-31.0259,19.2305,22.8203,
-61.5383,-49.7434,-26.6665,4.6157,134.8721,-28.7178,4.1025,-96.4102,6.667,-2.0513,2.0513,-26.1538,23.0771,22.5645,
-50.7695,-35.8975,-30.7695,11.7944,131.2817,-13.7178,0,-92.3079,9.2305,0,2.0513,-24.103,21.0254,24.1025,
-42.8208,-31.5386,-34.1025,13.0767,126.4102,-7.436,-3.8462,-95.6411,6.4102,3.8462,4.8716,-25.8975,18.2051,25.8975,
-40,-33.8459,-25.1282,17.4358,135.3845,-12.8206,-1.0256,-95.3845,1.5383,2.5642,1.0256,-17.9485,18.4617,21.0256,
-37.1797,-25.8975,-25.8975,22.3076,140.2563,-2.3076,0.25635,-88.4617,4.8716,3.8462,-0.25635,-19.7437,13.5898,17.1792,
-39.4873,-23.0767,-40,11.7949,125.2563,4.1025,-10.769,-95.8975,0,0,2.0513,-34.7437,4.1025,15.3848,
-36.1538,-23.3335,-37.1797,8.9741,116.6665,0.76904,-10.5127,-101.282,1.2822,-0.76904,2.3076,-35.6411,11.5386,26.4102,
-41.0256,-29.2305,-22.564,8.7178,108.2051,0,-3.5898,-98.4614,7.6924,0,1.5386,-20.6411,18.4614,32.8208,
-27.9487,-16.1538,-27.9487,16.1538,121.2822,15,-0.76904,-91.5383,10,0.25635,-0.25635,-25.3848,12.0513,26.9233,
-19.7439,-10.5129,-36.6667,13.5896,124.3586,23.8459,-0.76929,-94.6155,6.4099,-1.282,0.76929,-40.2566,12.051,15.1282,
-34.7439,-25.5129,-33.0769,3.3333,109.3586,8.8459,-3.3333,-105.8975,3.3333,-2.3079,3.8459,-43.3335,17.6921,14.6155,
-35.6409,-27.4358,-37.1794,3.3333,106.4104,8.4617,-5.8977,-107.9487,4.3591,0.25659,-0.25659,-43.8462,14.6155,28.4617,
-30.2566,-22.5642,-37.949,2.051,106.1536,7.6921,-0.51294,-105.1284,6.6667,0.51294,-0.51294,-43.0771,15.3845,26.6667,
-27.4358,-22.3074,-34.615,6.9231,109.4875,-0.76929,0.76929,-101.282,4.3591,-4.3586,2.3079,-40.2563,16.1541,11.6667,
-22.8206,-14.6155,-40.2561,13.5896,117.1794,14.2307,-3.3333,-100.2563,3.3333,-3.8459,3.3333,-39.2307,10.5129,13.0769,
-25.1282,-12.8206,-42.5642,10.2561,105.6409,26.1536,-3.5901,-104.1028,7.6921,-1.0256,1.0256,-36.9231,5.1282,23.5896,
-24.1025,-10.769,-40.5127,13.3335,104.1025,15.3848,-4.6152,-101.0256,7.1797,1.5386,-1.5386,-40.5127,7.6924,22.564,
-29.4871,-14.6155,-38.2053,17.1794,105.3845,15.1282,-2.3079,-96.1538,1.7947,-1.282,1.282,-46.9231,14.6155,14.6155,
-27.949,-14.6155,-39.2307,17.6921,105.8972,27.4358,-1.282,-97.6924,3.8459,-3.8464,1.282,-43.8462,11.0256,21.282,
-19.231,-12.0513,-40.769,14.6152,114.1025,32.564,-6.9229,-99.2307,6.9229,-1.2822,1.2822,-43.3335,6.4102,26.4102,
-22.0513,-13.8462,-37.436,9.2305,113.333,27.6924,-9.231,-98.9744,0.5127,-0.5127,2.0513,-41.5386,10.2563,14.8716,
-24.8718,-11.0256,-32.5642,16.6667,104.3591,35.6409,-2.8206,-96.1538,1.282,1.282,-1.282,-30.5129,16.1541,17.6921,
-26.9233,-17.6924,-38.2051,15.6411,96.1538,31.0254,-1.2822,-96.6667,5.3848,-2.3076,1.2822,-39.7437,6.4102,21.7949,
-24.6152,-20.5127,-42.564,10.2563,104.6152,26.1538,-7.6924,-94.8718,2.564,-2.564,5.6411,-50.7693,2.564,14.8721,
-19.7434,-8.9744,-37.6921,12.5642,112.0515,40.2566,-6.9231,-94.1025,-1.282,1.282,1.7952,-43.8462,7.4358,15.6409,
-18.4617,-0.51294,-35.8977,14.8718,102.5642,47.1794,-1.0256,-96.4104,0.51294,0.51294,3.0769,-39.4871,-4.1028,20.5129,
-21.5383,1.5383,-38.9744,15.3845,88.2048,43.5896,-3.5901,-92.8206,4.6155,-1.5383,4.6155,-44.1028,-2.5642,14.3586,
-31.282,-6.1538,-29.2307,13.3335,73.2048,35.8975,-5.6411,-88.2051,3.5898,-2.564,2.564,-38.9744,12.4358,9.231,
-28.2051,-5.6411,-24.1025,15.8975,72.3076,40,-6.1538,-86.1538,2.0513,0,0,-33.3333,12.8208,18.9746,
-20.2563,0.25635,-37.6924,15.1279,87.3076,47.9487,-12.5645,-86.4104,3.8462,2.8203,-0.25635,-41.7949,-2.1792,28.4614,
-20.5127,-4.6152,-35.8975,12.3076,85.6411,47.6924,-7.6924,-86.6667,9.231,3.5898,10.2563,-37.9487,-3.5898,23.5898,
-28.2053,-14.3591,-29.2307,10.2566,70.6411,34.3591,-4.1028,-94.8718,6.6667,-2.5642,4.6155,-32.3079,2.5642,13.3333,
-36.6665,-17.1794,-26.9231,11.5388,55.6411,23.8464,-7.4358,-98.2051,6.9231,-2.8206,2.8206,-35.6409,4.8718,14.1028,
-30.2566,-11.7947,-29.7434,17.9485,70.6411,36.9231,-12.8206,-86.1538,11.7947,0.51294,9.2307,-42.0513,-0.51294,14.8718,
-15.6411,-6.4102,-31.0254,22.8208,79.7437,51.9231,-13.0767,-71.1538,13.0771,2.3076,5.8975,-40.769,-2.3076,17.6924,
-30.6411,-20,-27.6924,10.2563,64.7437,37.9487,-10.769,-76.4102,7.1797,3.0771,1.5386,-35.8975,-1.5386,17.9487,
-35.3845,-17.949,-28.718,13.8459,75.8972,34.3586,-10.2566,-81.5386,11.7947,8.718,5.1282,-33.8464,-5.1282,16.4104,
-20.5129,-8.2048,-30.2566,23.5896,86.6667,47.6921,-7.6921,-81.0256,15.3845,7.6921,7.6921,-40.5129,-10.7693,21.0256,
-35.5129,-21.5386,-22.0513,15.3848,71.6667,34.3589,-5.1284,-81.5386,10.2563,5.1279,0.5127,-36.4104,-0.5127,20.5127,
-37.1797,-18.2053,-22.3079,20.7693,56.6667,30.5129,-8.4617,-68.4617,14.1023,14.1023,-1.282,-27.949,1.282,14.6155,
-22.1797,-5.8972,-33.0769,26.4104,71.6667,42.3079,-11.0256,-61.282,14.1028,12.0515,5.8972,-37.1794,-13.718,12.0515,
-21.0259,-7.1797,-30.7695,18.9741,56.6667,43.5898,-3.5898,-66.6667,3.5898,5.1279,6.1538,-36.4102,-8.7183,18.9741,
-29.7432,-14.3589,-26.6665,11.7949,42.5645,33.3335,-2.0513,-74.8716,0,5.1284,1.5386,-31.7947,0,16.9233,
-17.6921,-15.1282,-25.3845,15.6409,55.1282,23.8464,-6.4104,-74.1025,5.8977,7.4358,2.8206,-36.6667,-2.8206,12.0515,
-5.8972,-7.9485,-22.3079,23.3333,62.8206,27.949,-1.282,-62.3076,7.949,12.0515,1.282,-26.9231,-1.282,16.1541,
-17.436,-13.3335,-24.1025,18.4614,47.8206,20,-0.5127,-57.4358,4.1025,7.6924,0.5127,-23.5898,-8.2051,14.3589,
-14.1028,-11.5383,-27.4358,23.3333,46.4104,13.0769,-2.8206,-52.0513,7.4358,2.8206,6.4104,-33.5896,-13.0769,13.5896,
-12.8208,-14.8721,-24.1025,23.0767,38.4614,9.7437,-2.0513,-52.3079,8.7178,2.0513,4.6152,-33.8462,-5.1284,15.3848,
-25.6411,-22.0515,-18.4617,16.4104,24.1023,1.5383,-1.5383,-54.8718,8.718,4.1023,3.0769,-24.1028,-1.5383,14.8718,
-17.9485,-9.7434,-25.1282,22.0515,39.1023,5.6414,-3.0769,-44.6152,9.2307,4.6155,3.0769,-29.7434,-13.8459,11.282,
-12.8203,-9.7437,-23.5898,21.5386,54.1023,0,3.0771,-41.5386,5.6411,0,5.1284,-33.3335,-14.8716,2.0513,
-22.3076,-18.7178,-15.6411,17.6924,39.1023,-15,7.9487,-50,11.0259,2.3076,6.9233,-26.4102,-2.3076,4.8721,
-25.8975,-16.1538,-21.7949,16.1538,39.2305,-14.1025,4.3589,-47.949,18.2051,6.9229,7.4355,-34.1028,-4.3589,18.7178,
-26.9231,-12.5637,-31.5383,13.5901,49.4875,0.76929,-0.76929,-40.769,8.9744,1.7952,6.9231,-38.7175,-17.6921,15.1282,
-21.5383,-5.1282,-32.3079,25.6409,54.8718,12.3074,-3.0769,-36.9231,3.0769,3.5896,7.6921,-30.2566,-13.3333,11.7947,
-31.7949,-10.2563,-25.1284,24.1025,42.564,-2.0513,2.0513,-35.8975,4.1025,5.6411,3.0767,-33.8462,-2.564,17.9487,
-35.3848,-7.6924,-15.8975,21.0254,46.6665,-4.6157,8.7178,-24.1028,9.2305,8.2051,-1.5386,-27.6924,1.5386,20,
-24.8718,-1.282,-20.2561,24.3591,59.2307,-0.76929,0.76929,-22.8206,13.5901,12.0515,4.3591,-15.6409,-0.76929,13.0769,
-26.4102,-5.8975,-19.7437,23.8462,46.4102,-13.5898,1.2822,-27.436,15.1284,12.0513,12.564,-14.6152,-1.2822,12.564,
-21.2817,-1.7949,-23.333,23.3335,36.667,-11.5386,6.9233,-19.7437,11.5386,8.4614,1.7949,-26.4102,-3.8462,18.2051,
-16.4102,-0.5127,-23.5898,21.0254,35.8975,-6.1538,6.1538,-12.8208,13.3335,8.7178,0.5127,-31.7949,-1.0259,15.8975,
-18.4617,-2.5642,-15.8977,22.5642,37.4358,-11.282,1.5383,-10.2566,14.8718,15.3845,11.7947,-17.949,-1.5383,14.8718,
-21.2822,0.25635,-18.2051,18.2051,32.564,-15.6411,-0.25635,-13.5898,7.4355,18.2051,10,-16.667,-6.4102,24.8716,
-35.3848,-11.7952,-21.5383,3.2051,17.564,-28.718,3.5896,-21.0256,5.1282,12.3074,3.0769,-27.1797,-3.0769,25.6409,
-20.3848,-2.5642,-20.0002,16.9231,32.564,-21.5383,5.6409,-9.7439,10.2561,13.8459,1.5383,-24.6155,-1.5383,23.5896,
-5.3848,7.9487,-28.9741,21.2822,43.3335,-20.769,-3.8462,-4.3589,1.7949,9.4873,-0.25635,-34.6152,-15.1279,14.1025,
-16.6667,0.76929,-23.8459,10.5129,28.3335,-35.769,-0.76929,-7.4358,5.3845,7.949,4.8718,-33.5896,-12.051,8.4617,
-30,-2.8206,-15.6409,9.9998,26.4104,-27.436,2.8206,-6.9231,13.5896,8.4617,3.8459,-21.282,-6.9231,14.6155,
-33.8462,1.0256,-21.0256,13.8459,39.4871,-13.8464,-2.0515,-1.0256,7.6921,9.7434,3.0769,-21.5383,-10.2566,22.5642,
-23.0767,-1.0254,-22.564,21.0259,24.4871,-28.8464,-0.5127,0.51269,5.6411,16.9233,4.6152,-26.6665,-6.6665,21.0259,
-14.1025,-8.4614,-14.1025,16.667,9.4871,-43.8464,5.8975,-2.3076,16.667,21.2822,11.0259,-22.3076,-1.7949,14.1025,
-26.9233,-2.8206,-20.7693,1.667,24.4871,-28.8464,1.282,-1.282,21.282,19.7434,17.1794,-20.2566,-7.4363,19.2307,
-41.9233,1.7949,-22.8206,0.25635,23.3335,-31.0256,-0.76904,-0.25635,16.1538,18.7178,13.0767,-26.9231,-3.8462,21.7949,
-36.1538,-10,-7.8206,8.9744,8.3335,-46.0256,5.8977,-1.282,17.6926,17.1794,12.5642,-18.7178,1.7952,6.7949,
-21.1538,2.8203,-8.9746,22.8203,-3.8462,-58.2051,-0.25635,0.25635,23.3335,18.7178,17.1792,-13.5898,-5.3848,0.76904,
-19.2307,4.8718,-23.9746,12.5642,11.1538,-43.2051,-15.2563,-4.8718,10.5129,11.5388,8.4617,-28.5898,-18.7175,14.1028,
-24.8718,-1.7949,-18.2051,6.9233,1.7949,-49.4871,-5.8975,3.8462,10,7.9487,10.5127,-25.3845,-12.0513,15.1284,
-14.8716,2.0513,-15.3843,7.1797,-3.0767,-61.0254,-2.0513,12.8208,11.2822,5.1284,7.1797,-18.4614,-2.0513,6.667,
-19.4871,5.6409,-21.0256,12.8206,-0.51294,-72.3079,-12.3079,6.6667,11.282,13.8459,0.51294,-23.0769,-2.0515,15.8972,
-31.5386,4.3586,-19.7439,19.7434,0.76929,-76.1541,-21.282,5.8972,19.7434,14.615,-0.76929,-24.3591,-12.0515,12.5637,
-30.7693,-0.51294,-25.6409,7.1794,12.8206,-61.1541,-18.4617,19.9998,30.2561,0.51294,7.6921,-21.5383,-11.7952,0.51294,
-27.6924,-0.5127,-28.7178,0.5127,20.5127,-48.2051,-19.4873,31.2822,32.3076,3.0767,11.2822,-24.6152,-7.1797,15.5129,
-35.6411,4.3589,-30.5127,11.5386,13.0767,-63.2051,-34.4873,28.4614,23.3335,4.8716,-3.7178,-39.231,-21.7949,19.2305,
-36.6667,5.8977,-28.4617,16.1541,20.2566,-67.4358,-35.6409,23.8464,28.9744,-1.7947,1.7947,-35.6409,-22.3079,4.2305,
-42.0513,-1.0256,-27.6924,11.7947,35.2566,-59.4871,-33.3333,27.1794,38.9744,1.0256,12.3079,-20.6409,-7.6921,1.5383,
-56.4104,-4.6155,-23.0771,11.282,42.5642,-62.0515,-31.7949,38.9744,41.0256,13.3333,4.6155,-21.0259,-7.1794,16.5383,
-49.4873,-2.3076,-23.8462,9.4868,37.6924,-52.0515,-35.1284,42.8203,41.2817,9.4868,2.3076,-35.6411,-19.7437,16.6665,
-34.4873,1.5386,-33.8462,8.7178,50.2563,-45.1282,-47.6924,44.1025,42.0513,-1.5386,3.5898,-29.7437,-18.4614,2.564,
-44.6155,-3.5896,-27.1794,5.6409,39.4871,-60.1282,-38.9744,54.3591,44.1028,2.0515,6.6667,-15.3845,-3.4614,8.718,
-44.3591,-4.8718,-24.3591,4.8718,35.1282,-70.5129,-30.0002,63.8459,40.2561,10.5125,5.8972,-16.6667,-13.5901,19.7434,
-38.9741,-2.0513,-39.3591,4.1025,50.1282,-55.5129,-41.5386,56.4102,35.3848,6.1538,2.0513,-27.6924,-28.5901,15.3848,
-49.7437,-6.1538,-30.7693,6.1538,44.6152,-53.8462,-30.2566,56.4102,47.6924,6.6665,14.3589,-19.4873,-20,13.333,
-48.4614,-6.4102,-19.7437,6.4102,32.0513,-54.1025,-20.7693,66.4102,48.9746,13.0771,14.1025,-13.0767,-8.4614,12.564,
-42.564,-1.5386,-32.3076,1.5386,39.4873,-46.6665,-33.333,74.3589,36.9233,11.2822,2.564,-18.4614,-23.4614,9.231,
-39.4873,-1.5386,-34.8718,8.7178,53.8462,-54.8718,-31.7949,83.0767,37.436,2.0513,1.5386,-24.6152,-27.6924,12.3076,
-36.4104,-15.3848,-19.8718,13.8462,59.4873,-54.8718,-16.7949,87.6924,48.7178,3.5898,8.7178,-22.5642,-12.6924,16.9229,
-37.6924,-30.3848,-16.1538,11.0256,61.282,-42.8206,-12.5642,86.9231,53.0769,11.5383,12.5642,-11.0256,-14.1025,15.1282,
-33.0769,-25.8972,-30.5129,18.718,74.1028,-38.718,-23.3333,95.6409,50.0002,12.5642,10.5129,-10.5129,-29.1025,18.2053,
-32.3076,-20.5129,-23.0769,21.0256,78.9744,-42.5642,-15.3845,107.6921,55.3845,13.3333,23.5896,-13.3333,-14.1025,26.1541,
-41.0256,-32.8206,-15.8975,10.7693,66.1541,-51.7949,-7.6921,100.5129,49.2307,7.6921,21.0256,-21.0256,-11.7949,14.3591,
-31.7949,-26.1538,-21.5386,17.9487,68.7178,-47.6924,-6.6665,102.564,44.1025,6.6665,7.1797,-28.718,-24.6155,7.6924,
-27.4358,-19.2305,-20.2563,17.6924,64.8721,-43.8459,-6.4102,117.564,44.3589,6.4102,7.9487,-25.3845,-25.3845,14.1025,
-25.1282,-19.4873,-20,15.8975,60,-38.9744,-7.1797,127.6924,41.0259,7.1797,7.1797,-16.4102,-24.6155,17.436,
-21.0254,-13.333,-24.1025,23.5898,66.1538,-32.8203,-6.1538,128.7183,40,12.8208,6.1538,-17.4355,-24.1025,6.1538,
-27.1797,-13.3335,-23.5898,20.5127,59.4873,-32.8206,-4.1025,125.6411,42.0513,12.3076,4.1025,-21.0259,-25.1284,5.1279,
-17.1794,-8.9744,-25.8972,18.2053,64.8718,-24.3586,-2.8206,125.3845,41.7952,8.4617,2.8206,-18.718,-30.5127,20.1279,
-18.9746,-19.4873,-29.7437,10.2563,52.3076,-32.3079,0.5127,121.0254,33.3335,-0.5127,3.5898,-25.6411,-32.8206,7.1792,
-22.3076,-21.282,-15.6409,18.2053,46.9231,-24.8716,10.0002,134.6155,42.3079,5.3845,6.4104,-19.7434,-19.7434,-5.3845,
-18.718,-16.6667,-22.3074,21.282,61.9231,-15.1282,1.282,139.2307,38.718,2.3079,-1.282,-19.7434,-30,5.8977,
-12.0515,-13.5896,-25.8972,22.3079,71.5383,-24.3591,2.8206,135.1282,35.6409,-2.8206,4.8718,-21.282,-31.5386,15.1282,
-17.6924,-19.231,-27.9487,19.7437,64.3589,-26.4102,2.3076,130,35.1279,-2.3076,3.333,-22.3076,-28.9746,3.333,
-24.8716,-24.3589,-28.4614,12.564,62.3076,-12.0513,4.3589,135.6411,32.564,0.25635,-0.25635,-22.3076,-31.5386,4.3589,
-23.8462,-24.3591,-21.7947,14.1023,58.718,-11.0256,12.051,146.4104,34.6155,-1.282,1.282,-22.3079,-19.7434,14.6155,
-22.0515,-24.1028,-24.6155,17.9485,59.4871,-16.9231,9.2307,141.5383,37.9485,1.0256,-1.0256,-25.1282,-21.5388,9.7434,
-24.1023,-18.9744,-35.3845,17.949,69.7439,-9.7434,5.1282,133.8464,30.7693,5.1282,-2.5642,-25.1282,-36.4099,2.5642,
-32.3076,-13.8462,-32.3076,16.9233,64.6152,-1.5386,14.3589,142.564,26.6665,1.5386,-2.564,-22.564,-23.0767,12.8208,
-32.5642,-15.6411,-22.8206,16.6665,60.769,-2.3076,18.2051,143.3335,35.6411,-0.25635,0.25635,-18.2051,-13.5898,20.2563,
-21.5386,-12.3081,-35.8975,14.3589,75.769,2.0513,3.5894,132.3076,30.2563,-2.0513,-5.1284,-26.667,-28.5898,5.2563,
-19.4873,-13.3335,-34.8716,9.231,71.2822,9.231,12.3076,137.436,25.6411,-2.564,-2.0513,-36.4102,-31.2822,2.0513,
-32.3079,-26.6667,-25.1284,4.1023,56.2822,-0.51294,20.5129,133.8459,22.5642,-10.2566,0.51294,-40,-19.4871,1.0256,
-17.9485,-11.6667,-25.1282,19.1023,71.2822,8.718,18.4617,137.949,28.2053,-4.6155,2.5642,-29.2307,-19.9998,-2.5642,
-22.0513,-8.7178,-27.6924,17.9487,66.1538,8.2051,21.0259,142.564,27.6924,-5.1279,1.5386,-25.1279,-17.9487,-1.5386,
-31.7949,-19.4871,-22.0513,17.4358,51.1538,0.51294,23.0769,136.9231,29.7434,-4.1028,-0.51294,-19.9998,-14.3591,12.8206,
-20.2566,-5.8977,-35.1282,20.2566,62.3079,4.8718,9.9998,125.3845,22.8206,-4.8718,-9.4871,-31.0256,-29.3591,4.8718,
-19.7437,0.25635,-33.5898,17.6924,63.8462,4.8721,18.2051,132.0513,19.231,-7.9487,-8.4614,-39.7437,-34.1025,-0.25635,
-27.949,-5.8975,-24.8721,20.769,60.2563,5.8975,24.3589,140.2563,23.333,-6.4106,-8.9746,-28.9746,-19.1025,7.4355,
-21.5386,-2.564,-29.7437,26.6665,61.5386,13.8462,13.3335,134.8721,25.1284,-2.0513,-3.5898,-21.5386,-22.0513,2.0513,
-17.6924,-1.7949,-32.564,25.3848,47.9487,8.9741,12.0513,130.5127,22.3076,-7.436,1.7949,-31.5386,-27.9487,-6.4102,
-27.436,-8.4614,-27.9487,26.4102,42.8203,5.8975,23.3335,136.6665,23.8462,-7.436,-3.8462,-33.5898,-20.769,3.8462,
-37.6924,-19.7439,-35.1282,23.3333,47.4358,8.4617,18.2048,127.9485,22.8206,-4.3591,-8.9744,-28.9744,-31.0256,4.3591,
-27.4358,-11.5383,-31.5383,33.0769,58.2048,16.6667,20.2561,124.8718,29.4871,0.76929,-0.76929,-20.2566,-25.3845,-1.282,
-35.1282,-13.0771,-22.3076,34.1025,43.2048,5.3848,25.8975,123.8462,27.9487,0.76904,-0.76904,-25.3848,-14.6152,-9.4873,
-39.231,-13.5898,-28.9746,31.0254,44.3589,5.8975,22.3076,125.8975,23.333,11.5386,-5.8975,-34.1028,-26.9233,-10.5127,
-36.6667,-15.1282,-43.9746,23.3333,51.5383,12.0515,8.9744,118.2053,14.1028,17.1794,-11.0256,-45.8972,-36.6667,-8.9744,
-43.8462,-20.7693,-36.1538,20.7693,36.5383,4.3591,13.0769,117.6921,13.5896,19.2307,-4.3591,-38.718,-21.6667,-5.8972,
-36.1536,-12.5637,-34.1023,25.385,43.3337,6.9231,12.0515,122.3079,13.0769,20.2566,-6.9231,-32.051,-27.9485,-9.9998,
-33.0771,-9.4873,-44.3589,22.3076,50.5127,12.0513,9.4873,116.1538,16.1538,22.8203,-9.4873,-39.231,-41.7949,-13.5898,
-48.0771,-20,-30.2566,21.0254,35.5127,4.1025,18.9741,118.4614,21.5381,25.6406,-4.1025,-33.3335,-26.7949,-12.8208,
-44.3591,-13.5898,-27.436,25.8975,33.0767,9.4873,16.6665,126.9229,19.2305,24.3589,-9.4873,-31.0259,-22.3076,-12.5645,
-29.3591,-4.6152,-42.0513,18.9741,48.0767,14.8716,4.6152,116.9229,13.3335,17.9487,-13.3335,-44.1025,-37.3076,-18.9741,
-26.6665,-2.564,-43.5898,18.4614,49.231,12.8203,2.564,114.3589,11.2822,17.9487,-10.769,-48.2051,-42.564,-17.9487,
-40,-10.769,-30.2563,24.1025,34.231,8.2051,10.769,123.5898,15.3848,25.1279,-8.7178,-43.0769,-27.564,-8.2051,
-46.6665,-17.9487,-18.4614,27.6924,19.231,6.1538,16.9233,121.5386,18.9746,27.1797,-7.1792,-30.2563,-21.0254,-6.1538,
-36.9229,-13.8462,-26.6665,30.7695,33.3335,15.3848,11.7949,114.8721,12.3076,22.0513,-17.9487,-24.1025,-28.7178,-11.7949,
-26.9229,-8.4614,-31.0259,27.9487,43.8462,18.7178,10,121.7949,8.4614,15.1284,-21.2822,-33.0771,-32.0513,-13.5898,
-19.7434,-3.8459,-32.5642,24.8718,43.8459,22.3079,3.8459,133.5896,11.0256,10.0002,-11.0256,-40.7693,-38.718,-14.1028,
-30.2566,-12.3079,-28.718,22.5642,28.8459,16.9231,3.5896,129.2307,13.8459,11.282,-3.5896,-35.3845,-34.8718,-12.3079,
-39.4873,-17.949,-13.718,32.3074,13.8459,4.1023,17.9485,124.1023,16.4099,24.615,-3.0769,-24.6155,-19.8718,-3.5901,
-28.7178,-8.7178,-20.5127,33.8462,12.8208,6.1538,6.1538,121.5386,7.6924,21.5386,-16.4102,-34.3589,-30.2563,-6.1538,
-14.6155,0.76929,-26.4104,25.8972,27.8208,21.1538,-0.76929,127.4358,12.051,18.2053,-6.4104,-35.1282,-36.6667,-6.9231,
-20.5127,-4.1025,-23.0767,19.4873,24.6157,28.7183,1.5386,120.5127,11.2822,18.4614,-1.5386,-30.2563,-35.3843,-12.3076,
-32.564,-8.9741,-20.769,19.7437,9.6157,18.7183,8.4614,116.1538,5.8975,18.2051,-5.8975,-30,-31.0256,-13.0767,
-36.1538,-8.9744,-5.8975,25.8975,-2.3076,13.5898,22.3076,124.8716,19.7437,25.3848,2.3076,-20.7693,-21.282,-2.3076,
-34.3589,-8.7178,-12.3076,28.7183,5.6411,14.8721,11.7949,114.3589,15.8975,23.5898,-5.6411,-24.6152,-34.3589,-8.2051,
-24.6155,-2.5642,-21.5383,29.7439,17.949,26.6667,2.5642,110.2566,4.1028,18.4617,-5.6409,-31.7947,-42.564,-14.3586,
-26.4104,-4.8718,-19.7439,23.3333,9.4871,21.282,4.8718,113.0769,5.3845,14.6155,-7.949,-31.0256,-31.5383,-13.5896,
-31.5383,-6.9231,-19.2307,23.8464,11.0256,9.4875,6.9231,104.8718,10.5129,17.6926,-16.1536,-28.9744,-26.4099,-9.9998,
-29.231,-5.1284,-23.0771,25.1284,26.0256,18.4614,7.1797,101.0259,5.1284,15.8975,-10.2563,-32.8203,-38.4614,-13.3335,
-24.6152,-2.0513,-29.231,26.6665,34.8716,33.4614,5.1279,107.1792,2.0513,7.1792,-9.7437,-36.9233,-37.9487,-22.564,
-26.1541,-2.5642,-30.2566,22.051,26.1536,31.7947,4.6155,96.4104,2.5642,6.1536,-21.0256,-41.5383,-29.7434,-23.0769,
-24.3591,3.3333,-28.4617,21.282,32.5642,33.5896,5.3845,84.8718,-3.3333,10.0002,-24.8718,-43.3333,-27.4358,-8.9744,
-17.6924,13.5898,-35.6411,25.8975,44.3589,48.5896,3.8462,88.9746,-5.3848,3.3335,-22.3076,-45.3848,-29.4873,-3.3335,
-22.3076,6.9229,-33.0771,21.7949,31.5386,51.5386,10,90,1.7949,-1.7949,-13.0771,-40.2563,-31.0259,-5.3848,
-34.1025,-1.7947,-21.7947,19.2307,16.5386,36.5386,15.1282,83.8459,2.8206,1.7947,-15.1282,-38.2051,-27.9485,-4.8718,
-30,7.9487,-24.8716,25.3848,20.7695,36.1538,11.5386,76.1538,-0.25635,0.25635,-19.2305,-46.4102,-26.4102,-18.7178,
-15,19.231,-33.0767,32.0513,35.7695,48.4614,10.5127,70.5127,-0.25635,0.25635,-13.5898,-50,-30,-27.436,
-17.9487,7.6924,-30.2563,26.1538,25.1279,42.564,8.2051,68.2051,-4.1025,4.1025,-18.9746,-50.7693,-29.7437,-14.8721,
-32.9487,3.3335,-20.2563,26.9233,11.0259,41.7949,3.3335,72.564,-3.3335,5.3848,-21.2822,-42.8206,-23.8462,-10,
-17.9487,18.3335,-27.6924,41.9233,26.0259,56.7949,-2.564,77.436,2.564,3.5898,-10.2563,-40,-23.5898,-13.8462,
-2.9487,21.7949,-34.6152,36.6665,34.6152,52.0513,-1.2822,66.9233,3.8462,0.76904,-6.4102,-45.8975,-25.3848,-13.0767,
-17.9487,6.7949,-26.1541,31.282,19.6152,42.0515,5.1282,54.8718,6.6667,4.1028,-11.282,-41.5386,-25.6409,-14.8718,
-15.1284,-7.9487,-18.7183,40.769,9.4873,45.3843,10.5127,58.2051,8.4614,7.9487,-11.5386,-36.1541,-20.2563,-15.6411,
-22.3076,-15.6409,-3.7183,43.8462,-5.5127,34.6157,22.3076,63.8462,10,6.9233,2.3076,-26.4102,-10,-13.0769,
-18.4617,-8.2053,-5.1282,53.3333,-4.6155,46.6667,17.4358,61.0256,12.3079,5.1282,4.6155,-18.4617,-24.6155,-15.3845,
-14.3589,-3.5898,-16.9229,51.2822,5.1284,52.3076,9.231,54.3589,6.667,0,0,-27.1792,-33.333,-17.9487,
-29.3589,-18.5898,-1.9229,43.3333,-9.8716,37.3076,23.8459,50.0002,5.3845,-3.3333,5.8972,-25.8975,-18.333,-14.1025,
-42.0514,-29.7438,4.6154,47.692,-24.8716,22.3076,25.6407,44.6154,5.1281,-4.1027,4.1027,-24.1027,-27.1796,-20.0001,
-41.2822,-31.0259,1.282,45.3845,-37.1797,27.9485,25.8972,47.4358,5.8972,-1.282,11.0256,-17.6924,-33.0771,-21.7949,
-51.0256,-37.6924,16.282,40.7693,-52.1797,21.282,33.0769,52.5642,0.76929,-0.76929,10.5127,-5.8975,-18.0771,-14.1025,
-36.0256,-22.6924,21.7947,55.7693,-37.1797,36.282,31.5383,56.6667,-2.3076,2.3076,7.949,-12.564,-26.9231,-4.3589,
-21.5383,-7.6924,6.7947,62.0515,-22.1797,51.282,26.6667,53.8464,-3.0769,3.0769,17.4358,-21.0256,-41.9231,-6.6667,
-36.5383,-22.3076,13.5896,52.5642,-37.1797,36.282,34.6155,45.8972,-0.76929,0.76929,22.8206,-6.0256,-26.9231,-15.1282,
-48.4617,-30.5129,23.3333,49.9998,-52.0513,27.9485,37.1794,37.6921,-1.282,-2.8206,18.2053,1.282,-23.3335,-18.2051,
-33.4617,-15.5129,10.7693,57.4358,-37.0513,42.9485,28.718,43.5896,-1.5383,1.5383,17.4358,-6.1536,-38.3335,-10.2563,
-35.3848,-15.3848,9.2305,45.1279,-28.2053,43.5898,32.3076,42.0513,-1.5386,1.5386,20,-7.1797,-40.5129,-11.2822,
-49.2308,-30.3848,20.5131,33.3334,-43.2053,28.5898,41.0258,31.2821,3.077,-3.077,18.9742,-3.077,-31.7948,-20.5128,
-35.6411,-25.8975,5.8972,41.282,-39.2307,41.7947,29.4871,29.9998,2.3079,-2.3079,12.051,-7.436,-46.7948,-16.1538,
-29.4871,-13.0769,-1.2822,41.2822,-24.8718,56.7947,24.3589,33.0771,1.2822,4.8716,18.2051,-4.3589,-47.9487,-6.4102,
-38.4617,-21.0256,3.0769,35.3845,-36.9231,42.5642,27.6921,24.1023,-2.5642,2.5642,14.8718,-5.1284,-41.5386,-14.8718,
-36.923,-17.9486,5.6412,43.0773,-36.923,38.4615,32.8204,23.59,-2.5641,2.5641,12.8204,-4.6154,-39.4869,-16.923,
-41.2822,-14.6155,1.7947,38.718,-39.2307,46.9231,28.9744,24.8718,-4.3591,-0.25659,14.6155,0.25659,-42.3079,-11.5386,
-38.718,-11.5386,0.25659,36.1536,-41.7949,57.1794,26.4104,25.3845,0.25659,-0.25659,7.9485,-5.8975,-40.7693,-4.3591,
-34.3588,-12.8204,3.0773,38.9742,-41.0255,56.923,29.7438,20.5128,0.51282,-0.51282,7.1798,-13.8461,-44.1024,-11.7948,
-25.3848,-2.8206,7.436,46.4102,-26.9231,65.3848,34.6152,21.2822,-0.76904,0.25635,16.6665,-0.25635,-45.3848,-10.5129,
-27.6926,0,0,41.5381,-28.7183,69.7432,28.7178,22.564,-3.5898,-3.5898,12.8203,5.1279,-49.231,-2.0513,
-32.0513,-7.9487,-0.76929,35.6411,-40.7693,62.8208,26.9233,23.3335,1.7949,0.25635,14.1025,-0.25635,-51.0256,-2.3076,
-32.0513,-10,-0.76929,32.5642,-40.7693,59.2307,26.4104,16.6667,5.8972,0.76929,15.6409,-9.4873,-50,-15.1282,
-37.1796,-12.0511,3.8461,26.4105,-42.3077,60.2562,34.6156,9.4872,5.8973,-3.8461,17.1796,-7.4359,-45.8973,-11.5385,
-37.1794,-11.5386,5.8975,28.4617,-48.4614,56.1541,37.1794,10,-0.25635,-5.3845,13.5896,0.25635,-52.5642,-6.9231,
-25.3845,3.3335,-0.76904,37.1797,-36.1538,62.8208,26.9233,14.1025,-0.25635,0.25635,11.5386,-4.8718,-56.1538,-20.769,
-35.3848,-1.5386,-4.1028,22.1797,-35.8975,70.769,26.6665,10.2563,2.564,1.5386,11.2817,-13.3335,-44.6155,-20.5129,
-45.3846,-7.4359,3.3334,7.1797,-41.2821,77.1796,35.1283,12.0511,-2.3077,2.3077,7.4359,-2.8204,-33.5897,-5.5129,
-39.9999,2.0514,-3.5897,15.3849,-37.9486,76.4103,26.1539,7.6925,-10.2562,-0.51282,3.0773,0.51282,-48.5897,-8.205,
-36.1541,7.9485,-8.4617,22.3074,-28.9744,81.282,25.3845,11.0256,-0.76929,0.76929,13.0769,-2.8206,-52.0515,-14.1028,
-45.6411,-2.5642,-2.5642,20.5129,-34.8718,74.8718,34.8718,16.4104,1.0256,2.0513,13.8459,-1.0256,-38.4617,-10.7693,
-42.3077,-2.3077,2.3077,25.8976,-42.3077,65.8976,37.1793,12.0514,-4.359,2.3077,9.4874,-2.3077,-44.8717,-7.9486,
-37.4358,4.6152,-4.6155,28.7178,-42.0513,73.8462,32.3076,10.769,-1.5386,1.5386,8.7178,-8.2051,-50.2563,-10.7693,
-49.7437,-4.6155,-3.0769,20.5127,-55.3848,75.3848,37.436,19.4873,0,1.0256,9.2307,0,-35.2563,-7.6924,
-43.8462,-1.7949,-0.76929,22.8203,-45.8975,75.6411,37.6924,19.7437,-4.3589,0.76929,4.8718,4.8718,-32.5642,-4.8718,
-28.8462,13.2051,-10.2566,37.8203,-30.8975,90.6411,30.7693,15.8972,-2.5642,2.5642,5.1282,-2.5642,-47.5642,-2.5642,
-18.4617,19.9998,-10.2566,35.3845,-16.4104,94.8718,31.7947,13.8459,1.0256,-1.0256,9.7434,-4.6155,-50.7695,-5.6414,
-21.7949,17.6924,-5.8975,27.9487,-27.436,95.6411,32.564,21.7949,0.76904,-0.76904,6.4102,-3.8462,-37.1794,-2.3079,
-15.3848,21.5383,-10.2566,28.2048,-21.0256,98.9744,30.2561,29.7434,-5.1282,2.051,-0.51294,-9.7437,-36.9231,0.51294,
-11.7949,22.5642,-8.2051,33.8459,-22.0513,95.8972,34.8718,27.6921,-5.6411,3.0769,3.0769,-4.1025,-36.9231,-3.0769,
-8.2051,28.7183,-12.3076,30.7695,-19.4871,104.1025,28.2051,24.1025,-7.6924,1.5386,-0.5127,-6.1538,-44.1025,0.5127,
-12.564,28.4614,-19.2305,19.231,-22.8206,107.436,21.7949,24.8721,-11.5386,0.25635,-0.25635,-19.2305,-50.5127,2.3076,
-14.1025,22.8206,-11.5386,28.9744,-34.1025,98.718,31.5383,23.3333,-3.8462,2.3079,6.9231,-5.8975,-36.6667,-2.3079,
-14.6152,18.718,-9.4871,29.4871,-42.3076,92.0515,33.5896,13.0769,-0.25635,0.25635,-0.76929,6.9231,-32.564,-3.8462,
-14.1025,22.3076,-11.5383,19.231,-41.282,94.1025,32.0513,18.2051,-4.3589,1.7949,-2.3076,4.8721,-45.3845,-1.7949,
-8.718,27.6921,-16.9231,23.5896,-38.4617,97.4358,29.2307,27.6921,-8.718,2.5642,1.0256,-1.0256,-53.8462,-4.1028,
-11.5386,27.436,-17.6924,25.3848,-41.282,102.8203,26.9229,22.3076,-4.8716,1.7949,1.2822,-2.3076,-43.8462,-1.2822,
-16.6667,31.5386,-17.1797,27.436,-44.3591,105.8975,22.3076,21.7949,-5.8975,3.8462,-5.3848,-3.8462,-40.2566,4.8716,
-6.9231,38.2048,-10.5129,36.6667,-38.718,104.8718,28.9744,29.4871,-7.4358,7.4358,-4.8718,-2.8206,-43.3335,2.8206,
-1.7947,31.0256,-4.3586,33.0769,-30,107.949,35.6414,26.4104,-4.8718,3.8464,0.76929,-0.76929,-42.8203,-2.3074,
-2.051,36.4104,-10.2561,30.2566,-20.5127,116.9231,27.6926,22.5642,-1.0256,1.0256,-4.1023,-6.1536,-38.4614,6.1541,
-4.3591,45.3845,-16.1541,27.4358,-30.5129,105.8972,23.8459,16.1536,-1.282,1.282,-5.3845,-11.0256,-35.6411,6.4104,
-1.5386,48.7178,-17.436,28.7178,-28.2051,100.5127,23.0771,11.2822,-5.6411,3.5898,1.5386,-4.1025,-39.4873,-4.1025,
-4.1023,47.1794,-17.9485,30.7693,-17.4358,115.5127,17.949,16.4104,-9.2307,1.5383,1.5383,-13.8459,-42.564,-1.5383,
-19.1023,32.3076,-10.7693,21.5386,-32.4358,107.1797,22.0513,17.436,-4.6152,-1.5386,1.5386,-22.0513,-34.8718,3.0771,
-18.718,36.1541,-11.0256,19.2307,-47.4358,96.1541,21.7947,10.5129,0.25659,2.8206,-0.25659,-7.9487,-33.0769,-0.76929,
-3.718,49.4871,-20.7693,21.7947,-35.1282,108.4617,12.5642,6.9231,-6.9231,1.282,1.282,-8.9744,-43.8462,-2.3079,
-0.25659,50.5129,-17.1794,20.7693,-35.1282,109.4871,12.5642,11.5383,-9.9998,0.25659,5.3845,-13.5896,-44.3589,-0.76929,
-1.282,53.0769,-7.9487,18.2053,-50.1282,102.3079,18.718,14.1023,-3.8462,3.3333,1.282,-2.3079,-34.6155,-2.3079,
11.0254,64.3589,-8.9744,21.7949,-60.2563,111.0254,18.2051,12.0513,-6.9229,0.76904,-3.3335,-0.76904,-37.1794,-1.2822,
20.2561,77.1794,-16.1541,33.5896,-55.1282,117.1794,15.1282,6.9231,-17.1794,-3.3333,-5.8977,-6.9231,-43.8462,3.3333,
10.5129,73.5896,-19.2307,31.5383,-70,103.3333,11.0256,5.3845,-18.718,-1.7947,-7.9485,-5.3845,-42.8206,1.7947,
9.4873,74.1025,-20.769,23.3335,-74.6152,104.8721,6.9233,8.9746,-11.5381,-0.25635,-8.4614,-5.3843,-44.3589,0.25635,
20.5127,87.1797,-24.1025,26.6665,-64.1025,111.7949,4.1025,2.0513,-7.6924,-2.0513,-7.6924,-13.3335,-50.2563,2.564,
11.5386,83.3335,-15.6409,26.9233,-78.2051,96.7949,7.9487,4.8721,-7.4355,-0.25635,-1.7949,-13.5896,-45.3845,0.25635,
3.0769,82.051,-6.6667,28.2048,-78.9744,96.4104,11.7947,17.4358,-7.1797,0.51294,-0.51294,-10.7693,-36.4104,-3.5896,
6.9233,88.9746,-11.5386,29.4873,-63.9744,105.8975,8.9746,3.3335,-5.3848,0.76904,-0.76904,-12.564,-42.3076,-3.8462,
6.9229,91.0254,-11.5386,22.8203,-74.1025,105.3848,4.8716,-5.3848,-2.3076,2.8203,-0.25635,-11.0259,-50.5129,0.25635,
10.2563,103.0767,-9.7437,18.9741,-76.9231,120.3848,1.5386,9.6152,-6.1538,-2.564,-1.5386,-11.7949,-50.2563,1.5386,
11.2822,104.6157,-14.8716,15.3848,-62.564,122.5645,0,14.8721,-11.2817,-9.7437,1.5386,-17.9487,-51.7947,0,
13.0771,100.769,-13.0767,25.3848,-60.2563,107.5645,3.3335,7.436,-3.3335,-4.8716,0.25635,-13.0767,-47.4358,-0.25635,
23.3335,115.769,-4.3589,40.3848,-61.7947,100.2563,11.0259,14.6157,-1.7949,-2.8203,-4.3589,-5.3843,-41.282,1.7949,
28.7183,126.667,-11.2817,46.1538,-52.3076,115.2563,7.1797,15.8975,-16.4102,-12.8203,-3.5898,-15.8975,-53.8459,3.5898,
26.4102,122.3076,-20.769,35.6411,-47.9487,127.436,2.3076,23.3335,-13.5898,-6.9233,-2.3076,-17.6924,-55.1282,6.9229,
11.4102,116.1541,-8.9744,34.6155,-62.9487,112.436,5.8977,26.4104,-3.3333,0.76929,-6.4099,-4.3586,-40.1282,-0.76929,
19.7434,131.1541,0.76929,49.6155,-69.4873,97.436,5.3845,22.3074,-2.8206,-0.76929,-2.8206,-2.8206,-42.8206,-4.3591,
32.8208,145.6411,-14.2307,52.8208,-54.4873,112.436,-3.0767,26.667,-8.2051,-2.0513,2.0513,-17.4355,-57.8206,3.0771,
17.8208,130.6411,-18.2053,37.8208,-65.3848,110.5125,-2.8206,36.1536,-11.0256,-4.3591,3.3333,-17.6926,-66.9233,2.8206,
2.8208,129.7434,-5.6411,45.1282,-80.3848,96.4104,0.51294,48.2053,-9.2307,-0.51294,2.0515,-5.1282,-56.9231,7.1794,
-0.5127,137.436,-8.718,54.8721,-73.8462,94.8721,-4.1025,45.6411,-8.718,0.5127,2.564,-4.6152,-54.8718,7.6924,
-1.7949,138.2051,-8.9741,56.667,-58.8462,102.8208,-0.25635,45.8975,-3.8462,0.25635,10,-3.333,-52.564,3.3335,
-2.3076,141.2822,-2.8203,57.6924,-48.9744,104.3589,4.8716,56.1538,-4.3589,0.25635,8.4614,-2.3076,-50,-0.25635,
-2.8206,140.7695,0.25635,60.7695,-53.5896,91.5386,6.4102,56.6665,-7.9487,-0.25635,4.8721,-1.282,-41.282,-0.76929,
-1.5386,142.564,-2.564,68.2051,-54.8718,83.0767,1.5386,53.333,-10.7693,-5.6411,2.564,-6.1541,-37.9487,7.1792,
-8.2053,141.5386,-1.5386,59.4873,-58.9744,92.3076,1.5386,65.6411,-11.7949,-9.231,5.1279,-10.7693,-41.0256,8.2051,
-10.7692,145.6412,-2.0514,52.8204,-56.923,107.3076,5.6412,80.6411,-12.8204,-5.1283,4.6154,-6.6666,-45.1283,2.0514,
1.0259,157.436,-13.3335,65.1284,-44.6155,122.3076,-3.0771,78.4614,-14.3589,0.5127,-0.5127,-9.231,-60.1283,5.1284,
-6.9229,151.5386,-7.9487,67.436,-59.2307,107.3076,-3.3335,78.7178,-10,3.8462,3.3335,-9.4873,-54.6155,7.436,
-21.9229,142.3079,-0.25635,60.7693,-74.1025,93.5896,0.25635,86.4104,-7.4358,1.7949,0.25635,-1.282,-39.6155,-2.3076,
-12.0513,151.5383,-4.3591,63.3333,-59.1025,108.5896,-2.3079,88.9744,-4.8718,2.3079,4.8718,-4.8718,-45.8975,2.8206,
-1.7949,157.6924,-6.4102,65.8975,-51.5383,119.7437,-7.436,88.9746,-5.8975,1.7949,8.9746,-13.0767,-60.7693,8.4614,
-6.1536,156.9231,1.0256,71.282,-59.4871,105.6414,-1.0256,85.1282,-3.0769,3.0769,5.1282,-2.5637,-47.6921,-2.5637,
-6.1538,148.2053,2.0515,65.1282,-69.7434,96.9231,1.0256,74.8718,-2.564,-1.0256,6.1541,-2.0513,-39.4871,-9.2307,
-0.51294,148.2048,0.51294,60.5129,-65.6411,106.1536,1.5383,86.1536,-7.6924,-3.5896,9.7434,-6.1541,-35.3848,-2.0515,
-5.3845,146.4102,1.7949,62.8208,-64.3589,108.9746,7.9487,94.1025,-13.5896,-7.4358,6.9233,-1.7949,-33.0769,-1.7949,
-1.0259,147.6924,-0.51269,66.1538,-59.4873,101.5386,2.564,86.1538,-13.3335,-9.7437,3.0767,0.5127,-45.1282,-5.1284,
13.9741,159.4873,-2.0513,74.3589,-44.4873,107.1797,-0.5127,96.9233,-5.6411,-1.0254,6.6665,0.5127,-44.1025,-2.564,
5.6409,145.1282,-3.0769,65.6409,-46.1538,107.6921,4.6155,100.5129,-10.7693,-8.2048,3.0769,-6.1536,-41.0256,-3.5896,
0.76929,133.0769,-5.3845,55.1282,-40.2563,111.5383,4.8718,88.4617,-13.0769,-12.0513,-0.76929,-7.9485,-40.7693,2.3079,
2.3076,137.6924,-9.4873,57.6924,-31.0256,112.0513,-0.76904,78.7178,-6.9229,-2.8203,2.3076,-8.4614,-37.6924,0.76904,
-1.0256,143.5896,-9.7439,67.6921,-33.3335,113.8459,1.0256,86.1536,-2.0515,6.1536,5.6409,-4.1028,-41.0259,-4.1028,
-0.25635,142.3076,-14.1025,62.3076,-35.6411,124.8716,0.25635,98.7178,-4.3589,3.3335,-2.8208,-5.3848,-47.436,4.8716,
4.1025,143.0767,-13.3335,52.8203,-28.718,130.769,-2.0513,101.5381,-6.1538,2.0513,-2.5645,-11.2822,-38.9746,14.8716,
8.9744,154.6155,-17.6921,57.6921,-14.6155,129.4871,-7.4358,94.6155,-6.9231,2.8206,-2.8206,-12.5642,-42.3076,5.3845,
10.5127,157.6924,-14.6152,58.7178,-20.7693,132.0513,-1.7949,98.2051,-4.3589,1.2822,-1.2822,-5.8975,-37.6921,5.8975,
1.0256,143.0769,-11.282,47.1799,-35.7693,126.1541,1.0256,92.8206,-13.3333,-5.1282,-1.0256,-10.7688,-34.3589,1.5388,
15.1284,153.0767,-13.5898,59.231,-24.8716,135.6411,-4.3589,82.8203,-8.9746,4.3589,3.3335,-16.6665,-47.436,-3.3335,
13.3333,147.1794,-16.9231,52.8206,-24.6152,130.7693,-6.1536,83.0769,-3.0769,3.0769,4.1028,-15.8972,-53.8459,-5.6409,
-1.6667,132.1794,-9.7437,42.564,-39.6152,115.7693,4.1025,96.4102,-1.0254,-0.5127,4.1025,-0.89722,-38.8459,0,
-7.949,120.2561,-12.5642,44.3586,-54.1028,100.7693,-1.282,89.9998,-3.8464,1.282,1.7947,3.8459,-33.5898,-12.0515,
-1.282,127.4358,-13.5896,48.4617,-39.1028,110.5129,-7.949,81.282,-3.3333,3.8459,1.282,1.282,-42.8206,-13.5896,
9.2305,139.4868,-14.8721,54.8716,-24.1028,125.5129,-6.1538,92.8203,-4.1025,4.1025,-4.6157,-7.6924,-41.0259,1.4104,
6.1538,135.8975,-19.4868,56.4102,-29.7434,129.7437,-7.1792,92.3076,-5.6411,3.5898,-3.5898,-18.4614,-43.0769,10.7695,
1.5386,131.7949,-16.9229,56.9233,-37.9485,114.7437,-9.7437,81.0259,-1.5386,2.0513,2.0513,-11.7949,-37.9485,-4.2305,
10.5129,137.1794,-14.1023,58.718,-26.9231,129.4871,-8.4617,89.4871,1.282,2.3079,-1.282,-6.9231,-34.1025,-5.8972,
10.7693,134.8718,-15.8977,58.9744,-28.718,128.2048,-9.2307,91.282,-1.5383,1.5383,-4.1028,-21.0256,-44.1025,3.0769,
5.3845,135.1282,-14.6155,64.8718,-25.8975,114.6155,-4.8718,79.2307,-0.76929,5.3845,0.76929,-19.231,-39.231,-11.0256,
4.8716,130,-11.0259,56.1538,-21.2822,121.2817,-0.25635,74.6152,-0.25635,4.3589,0.25635,-8.4614,-30,-12.0515,
15.8975,129.7437,-11.2817,51.7949,-15.8975,132.8208,-5.6411,83.5898,0,1.5386,-4.6152,-10.2563,-36.9229,0,
19.2307,137.6921,-17.6926,60.2561,-11.0256,132.5637,-9.4875,91.0256,-1.282,3.8459,-5.3845,-17.6926,-34.6155,1.282,
13.8462,137.9487,-18.4614,63.5898,-14.3589,134.8716,-4.6157,92.3076,-3.0771,6.6665,-2.0513,-13.8462,-22.5642,2.0513,
28.2051,144.1025,-23.0767,65.1284,-4.1025,148.2051,-8.7178,88.2051,-2.0513,8.2051,-3.5894,-10.2563,-32.8203,2.0513,
29.7437,142.0513,-32.3076,54.8721,-3.0767,145.6411,-13.8462,84.1025,0.5127,8.2051,-8.2051,-12.3076,-36.4102,-0.51269,
14.7437,130.7693,-32.3079,45.6409,-18.0767,133.3333,-11.7952,88.718,-1.0256,9.2307,-17.4358,-12.3079,-29.2307,1.0256,
20.2563,137.6924,-32.564,51.0254,-11.5386,144.3589,-12.564,88.4614,-3.8462,6.4102,-22.8208,-18.7183,-38.718,3.8462,
32.3081,146.667,-29.2305,53.8462,-4.6152,150.2568,-9.7432,81.5386,0.51318,0,-10.769,-17.4355,-41.5383,0,
27.949,143.3333,-21.7947,57.6926,-19.6152,139.7439,-8.4617,89.4871,2.3079,1.282,-1.282,-9.4871,-31.5383,-3.3333,
13.5896,131.5383,-17.1794,60.7693,-34.6152,128.9744,-13.0769,96.1536,1.282,6.9231,-1.282,-14.1028,-32.5642,-6.4104,
1.0256,123.0769,-12.8206,57.4358,-49.6152,124.6155,-12.3074,86.6667,4.1028,7.6926,-1.0256,-17.9485,-39.9998,-11.282,
2.3076,125.3848,-6.9233,62.3076,-53.5898,126.9229,-5.3848,88.4614,4.3589,3.3335,-2.3076,-8.9746,-35.1282,-5.8975,
3.5898,126.6665,-0.5127,68.2051,-47.6924,125.1284,-3.0771,97.9487,0,0,1.5386,0,-31.282,-1.0259,
0.25635,122.8203,-1.7949,62.8203,-43.8462,120.769,-8.4614,85.3848,-0.25635,0.25635,8.4614,-8.4614,-30.5129,-4.8721,
-0.51294,116.4104,1.0256,53.3333,-48.718,117.9485,-6.1541,72.3079,0.51294,-3.0769,9.2307,-15.8975,-21.0256,-8.718,
1.7947,111.5383,4.3591,50.0002,-50,122.3079,-1.7947,81.7947,-9.4871,-11.5383,4.8718,-7.9485,-22.8206,-12.5642,
11.2817,120.5127,1.5386,58.4614,-35.3848,137.3079,-1.5386,96.7947,-12.8208,-9.7437,5.6411,-6.1538,-31.2822,-6.667,
6.1538,120,2.564,60,-45.1282,125.1284,-2.564,85.6411,-8.2051,-7.1797,4.6152,-20,-29.7437,-4.6152,
10,124.3589,6.9229,67.9487,-46.9231,120.2563,-0.25635,81.7949,-0.76953,-2.3076,0.25635,-11.5386,-20.2566,-1.2822,
23.8462,131.5386,-1.2822,66.9229,-31.9231,135.2563,-5.3848,93.5898,-1.7949,-0.25635,-2.3076,0.25635,-26.9231,1.7949,
24.6152,130.769,-9.7437,54.8721,-26.6665,150.2563,-8.2051,96.9233,-2.0513,-2.564,2.564,-9.7437,-31.7949,2.0513,
20.2563,127.436,-12.0513,56.667,-36.1538,135.6411,-7.9487,88.4614,2.3076,-3.333,-2.3076,-16.6665,-24.3589,3.3335,
20.769,123.3335,-13.5898,59.231,-40.2563,130.5127,-9.4873,79.231,0.25635,0.25635,-6.4102,-10,-29.4873,-0.25635,
28.9741,131.0254,-14.6152,59.7437,-30,145.5127,-7.9487,82.3076,-0.76904,3.8462,-1.7949,-2.3076,-34.6155,0.76904,
22.5642,127.1794,-19.4871,52.8206,-35.8975,144.1028,-10.7693,85.6409,-1.0256,1.0256,-6.6667,-10.2566,-31.7949,4.1028,
16.4104,117.4358,-18.9744,52.8206,-41.0256,129.1028,-9.7439,86.6667,1.5383,2.051,-6.1541,-13.8464,-28.2053,-1.5383,
30.7693,127.1794,-21.5388,61.0256,-26.0256,142.051,-11.282,87.6921,4.1023,3.0769,-5.6414,-10.7693,-28.2053,-3.0769,
25.6411,123.0771,-27.1792,50.2563,-17.9487,142.0513,-15.8975,82.564,0,0,-10.2563,-17.436,-28.2051,5.1284,
13.8462,115.8975,-31.7949,41.5386,-26.1538,136.9229,-21.0259,78.9741,-1.5386,1.5386,-13.8462,-21.0259,-33.8462,7.6924,
14.6152,118.7183,-33.5898,43.3335,-19.7437,146.4102,-23.3335,77.6924,0.25635,1.7949,-10.5127,-20.769,-34.6152,-0.25635,
7.9487,111.5386,-24.3589,43.8462,-30,138.7183,-16.1538,78.2051,1.7949,2.3076,-1.7949,-17.1792,-21.7949,-4.8716,
15.1284,114.1025,-22.3076,51.0254,-26.9231,137.1797,-13.0771,79.7437,0.25635,5.3848,-5.8975,-13.5898,-21.2822,-0.25635,
30.1284,126.6667,-28.718,49.7434,-11.9231,152.1797,-12.8206,79.9998,-0.51294,0.51294,-12.8206,-13.8464,-32.8206,7.1794,
31.2822,126.1538,-29.7437,44.1025,-14.3589,157.436,-14.3589,79.4873,2.564,-2.564,-12.3076,-19.4873,-34.3589,15.8975,
16.2822,114.3591,-32.3074,40.5129,-28.718,142.436,-20.5129,69.7439,1.5383,-1.5383,-15.3845,-27.1794,-31.7947,5.6414,
17.1794,117.1794,-27.4358,41.282,-22.3079,138.718,-13.5901,69.4871,5.8972,2.8206,-9.4875,-17.6926,-19.2307,-2.8206,
32.1794,127.6921,-32.3079,45.6409,-7.3079,151.282,-16.9231,72.8206,1.5383,-0.51294,-11.282,-18.4617,-24.1028,0.51294,
26.9233,119.7437,-32.564,42.3076,-21.2817,143.8462,-17.1792,64.3589,0.25635,-0.25635,-14.1025,-22.8203,-32.0513,0.76953,
11.9233,104.7437,-26.1538,31.7947,-36.2817,128.8462,-12.8206,58.4617,6.6667,1.5383,-16.4104,-16.4104,-24.1025,-1.5383,
13.8462,110.769,-30.2563,38.9741,-26.1538,133.333,-17.9487,70.2563,9.2305,0,-14.8721,-17.9487,-20.5132,0,
28.8462,125.769,-29.4873,48.9741,-11.1538,148.333,-14.1025,75.6406,12.564,-0.25635,-0.25635,-20.7695,-22.8208,0.25635,
37.9485,116.4104,-25.1282,44.6155,-12.8206,148.718,-5.1282,64.6155,11.7947,-2.5642,-1.0256,-17.4358,-14.3591,1.0256,
24.6157,108.2051,-29.2307,40,-24.1025,143.0771,-7.1792,64.1025,4.1025,-4.1025,-11.7949,-12.8203,-9.7437,8.7183,
25.8975,111.5386,-33.5898,43.8462,-19.231,142.8203,-15.1284,68.4614,-0.25635,0.25635,-11.0259,-12.564,-13.5898,8.4614,
22.564,108.2051,-37.436,39.4873,-20.5127,142.564,-20.5127,62.0513,1.0254,0.5127,-12.8208,-17.436,-14.3589,-0.5127,
19.7434,103.3333,-38.718,32.5637,-22.3079,150.5125,-20.7693,62.8206,2.8206,-2.8206,-16.6667,-20.7693,-20.7693,8.9744,
30.2566,111.282,-39.4871,38.4617,-8.718,160.5129,-21.0256,68.718,1.0256,-1.0256,-18.9744,-22.0515,-28.2053,15.3845,
24.3591,107.949,-38.718,39.7439,-9.4871,152.5642,-21.282,61.7952,-0.76929,0.76929,-16.6667,-20.2561,-20.2561,8.4617,
13.5898,102.3076,-28.9746,36.6665,-19.7437,148.4614,-15.1284,65.3843,2.3076,-2.3076,-5.3848,-15.6411,-5.3848,16.1538,
16.9233,107.1797,-20.5127,41.0259,-21.5386,150.2563,-9.7437,71.2822,1.5386,-1.5386,-4.1025,-15.8975,-5.1279,15.3848,
9.7434,98.9744,-12.8206,44.1023,-36.5386,135.2563,-7.6926,56.2822,0.51294,3.0769,-1.5383,-11.7952,-12.8206,0.38477,
-1.5381,90.7695,-1.5381,42.5645,-51.5386,123.5898,-4.1025,49.7437,3.0771,0,3.0771,0,-12.3076,-0.51269,
-2.0513,91.2822,4.6157,34.3589,-60.5127,136.9233,-2.0513,64.7437,0.5127,-7.1792,-2.0513,-0.5127,-12.8203,6.1538,
-0.25635,91.0254,4.8716,31.5386,-61.282,137.6924,-7.436,68.9741,-1.2822,-6.9233,0.25635,-7.9487,-23.8462,2.8203,
-8.2051,81.0259,6.667,38.9746,-74.3589,122.6924,-9.7437,53.9741,1.5386,-7.6924,7.1797,-6.6665,-23.5896,-1.5386,
-23.2051,66.0259,21.2821,37.6923,-89.3589,107.6924,-2.3077,38.9741,1.7948,-16.1537,9.9999,-1.7948,-11.5385,-9.4872,
-17.436,64.1025,25.1279,37.9487,-90.7693,98.4614,-5.1284,47.6924,-1.5386,-13.3335,11.2817,1.5386,-16.4104,-15.3848,
-11.0256,73.0769,23.3333,38.718,-81.7949,108.4617,-7.4358,59.2307,-4.3591,-7.9485,15.6409,4.3591,-24.3589,-8.4617,
-26.0256,58.0769,25.6409,33.8459,-96.7949,93.4617,-1.0256,44.2307,-10.7693,-19.4873,9.7434,1.0256,-20,-12.8206,
-23.5898,63.0771,25.1284,48.8459,-84.1025,92.3076,1.5386,40,-6.6667,-15.3845,6.6665,-1.5386,-17.9487,-6.6667,
-10.2563,72.3076,18.4614,49.7437,-69.1025,107.3076,-5.1284,49.7437,-2.564,-6.6665,9.7437,-3.0771,-27.6924,2.564,
-20.5127,60,13.3335,38.4614,-74.8718,109.231,-10.2563,51.2822,-4.1025,-11.282,8.7178,4.1025,-27.6921,-9.7437,
-9.9998,66.9231,3.3333,45.3845,-59.8718,114.1028,-12.5642,47.949,-2.8206,-13.0769,4.3591,2.8206,-21.282,-13.5896,
-0.25635,74.6152,-1.7949,45.3848,-54.1025,129.1028,-8.9746,47.9487,0.25635,-6.4102,2.8203,-3.3335,-16.1538,1.4104,
-10.2563,68.7178,0,37.4355,-58.9746,127.1792,-7.6924,52.8203,3.5898,-3.5898,-4.1025,0,-15.8975,8.7178,
-2.3079,73.5896,-3.8464,39.2307,-43.9746,126.9231,-11.0256,55.1282,10.5129,-1.282,-2.3079,1.282,-16.1541,4.8718,
12.6921,87.1794,-15.8977,44.1023,-28.9746,138.4612,-15.385,40.5125,3.0769,-3.0769,-5.6414,-9.2307,-16.4104,4.1023,
27.6921,102.1794,-16.9231,47.6926,-13.9746,153.3337,-8.7175,44.1028,-1.0256,1.0256,-8.2048,-10.2561,-12.8201,17.4363,
33.5898,97.1797,-20.769,37.6924,-9.4868,152.5645,-12.0513,56.1538,-0.25635,0.25635,-7.4355,-11.5381,-19.2305,14.6157,
29.231,90.7695,-18.9741,37.436,-21.0254,153.3335,-18.4614,59.4873,0.5127,-0.51269,-9.2305,-12.3076,-13.333,8.7183,
27.6924,90.2563,-10.2563,38.4614,-31.2817,150.7695,-15.8975,50.7695,-0.5127,0.5127,-12.3076,-9.2305,-8.7178,12.3076,
17.1794,81.282,-15.1282,32.0515,-39.7437,135.7695,-18.2053,36.1541,-0.76929,0.76929,-13.0769,-5.8972,-20.7693,10.0002,
8.7178,72.8203,-26.1538,30.769,-38.4614,129.231,-23.0771,32.8203,-0.5127,0.5127,-10.769,-7.6924,-22.564,4.1025,
1.0254,66.6665,-20,25.6411,-44.6155,131.7949,-20.5127,37.9487,0,0,-4.1025,-16.4102,-14.3589,5.6411,
-2.0513,66.667,-9.2305,26.667,-49.7434,127.6924,-15.3843,38.4619,4.1025,2.0513,-6.1538,-13.8462,-11.2817,14.3589,
-1.7947,68.9744,-7.949,34.1023,-46.9231,127.4358,-14.6155,37.6921,6.9231,1.7947,-5.8977,-5.3845,-5.8977,12.051,
1.7952,67.4358,-4.8718,38.718,-44.8718,132.5642,-11.0256,45.3845,0.76929,-2.8206,-1.7947,-3.3333,-0.76929,8.9744,
13.0771,70.5132,0.25635,46.4106,-35.1279,134.6157,-7.4355,45.8975,-0.25635,-1.7949,-2.3076,-2.3076,-2.3076,15.1284,
14.8718,70.2566,-4.1023,44.1028,-29.7437,126.6667,-13.3333,30.8975,1.0256,-1.5383,-1.0256,-2.5642,-14.3591,11.282,
14.1025,64.3589,-4.8716,35.6411,-36.1538,126.9229,-16.6665,29.4873,1.2822,-5.3848,-1.2822,-3.8462,-16.6665,8.9746,
-0.89746,52.0513,2.3076,30,-51.1538,123.8462,-13.5894,37.1797,0.25635,-5.8975,-6.4102,-6.4102,-1.6665,16.667,
-0.5127,61.0254,0.5127,39.4873,-49.7437,130.769,-15.3848,38.9741,2.0513,-0.5127,-4.1025,-7.6924,-2.564,21.0254,
14.4873,72.5642,-13.5896,42.8206,-34.7437,135.6409,-24.3591,28.9744,0.76929,-1.282,-0.76929,-11.0256,-17.564,6.9231,
2.8203,57.5642,-2.8208,31.5386,-49.7437,120.6409,-12.564,23.8462,0.76904,-2.8208,0.25635,-0.25635,-8.9746,-1.7949,
-2.3076,52.0513,0.25635,35.1284,-57.1794,115.1284,-8.4614,32.564,-1.7949,-3.3335,-7.436,3.8462,-0.25635,3.3335,
12.6924,67.0513,-12.8203,43.5898,-42.1794,130.1284,-16.9229,38.4614,0.5127,-0.5127,-8.2051,-6.1538,-15.2563,6.6665,
18.9741,73.8462,-9.7437,35.3843,-38.4617,133.8462,-17.9487,27.1792,4.1025,-4.1025,-4.1025,-9.231,-10.2563,4.6152,
3.9741,61.5386,-7.6924,32.8203,-51.2822,118.8462,-21.0259,14.3589,0.5127,-9.231,-9.231,-8.2051,-0.5127,7.6924,
11.5386,64.3589,-7.9487,37.1797,-39.2307,118.7183,-18.2051,13.5898,2.3076,-2.3076,-4.8716,-3.333,-8.9741,6.4102,
11.7949,60,-7.1797,32.8203,-34.3589,117.9487,-13.3335,17.436,3.0771,-1.5386,-7.6924,-0.5127,-8.2051,0.5127,
16.1536,64.8718,-13.0769,35.1282,-27.436,125.3845,-15.6409,28.4617,-2.3079,-3.3333,-16.6667,0.76929,-0.76929,11.5383,
31.1536,76.1536,-18.2053,38.2048,-12.436,140.2561,-21.282,28.9744,-0.76929,-1.7952,-10.0002,0.76929,-10.0002,14.6155,
36.9231,74.3591,-20.5125,34.8718,-2.5642,144.6155,-22.5642,14.8718,2.5642,-4.1023,-8.2048,-4.1023,-16.4099,2.5642,
28.718,66.1541,-15.3845,35.3845,-6.6667,137.4358,-13.8459,13.3333,1.5383,-6.1536,-12.3079,-10.2566,-1.5383,8.718,
35.1282,71.0256,-14.1023,38.718,-2.8206,142.8206,-15.1282,21.7952,2.8206,-4.3586,-10.5129,-7.4358,-2.8206,16.1541,
40,74.3594,-24.6152,31.2822,0,154.8721,-27.6924,22.5645,0,-9.2305,-10.2563,-12.3076,-17.8206,2.5645,
28.2053,64.6155,-16.9231,26.1541,-15,145.6409,-14.8718,21.5383,1.5383,-5.6409,-3.5896,-11.282,-2.8206,5.1282,
14.6152,51.0259,-15.1279,25.3848,-30,130.6409,-12.0513,13.5898,-4.3589,-4.3589,-15.1279,-8.4614,4.3589,10,
29.6152,60.5127,-20.5132,33.8462,-15,140.5127,-23.0771,16.4102,0,0,-13.8462,-7.6924,-10.6411,7.6924,
38.9746,67.6924,-27.1792,32.3081,-7.1792,148.7183,-28.2051,17.9487,2.0513,-2.0513,-6.1538,-14.3589,-24.1025,2.0513,
32.0515,64.3591,-21.7947,25.8977,-11.5383,143.8459,-17.1794,17.6921,2.8206,-2.8206,-8.9744,-10.5129,-9.1025,13.0769,
22.564,56.9229,-14.3594,21.0254,-15.8975,136.9229,-15.8975,14.8716,2.0513,-2.0513,-10.7695,-3.0771,-9.231,17.4355,
22.8206,58.2048,-15.1282,26.4099,-16.6667,135.1282,-21.7952,18.2048,-1.7952,0.76929,-10.5129,-0.76929,-7.4358,6.9231,
17.6924,51.5386,-16.1538,27.9487,-22.3076,132.0513,-17.6924,16.1538,-2.3076,0.25635,-11.0254,-3.8462,-0.25635,9.4873,
20.5127,50.7695,-17.436,28.2051,-13.333,134.8721,-14.8716,10.7695,-0.5127,0.51269,-8.7178,-7.6924,-12.3076,16.9233,
28.7178,59.4873,-24.1025,28.7178,0,141.5386,-23.5898,13.3335,0,-0.5127,-7.6924,-6.6665,-19.4873,7.6924,
13.7178,47.436,-17.1797,22.3076,-15,128.4614,-22.3076,13.0771,2.3076,-3.3335,-9.4873,-0.25635,-8.4614,0.25635,
3.5898,40,-7.1792,26.667,-25.1282,122.0513,-13.8462,12.3076,2.0513,-2.0513,-13.333,-2.564,-7.1792,5.6411,
18.5898,50.7695,-9.2305,37.9487,-10.1282,136.4102,-13.8462,9.231,-1.5386,1.5386,-6.1538,-3.5898,-15.3848,10.7695,
29.2312,54.3591,-13.8459,33.8464,2.5642,137.949,-23.0769,1.0256,-6.6663,-2.051,-1.0256,-3.5896,-15.3845,6.1541,
22.564,53.3335,-13.8462,26.6665,2.0513,136.9229,-23.0771,4.1025,-3.0771,-2.0513,-6.1538,-10.2563,-5.1284,6.1538,
16.4102,44.1025,-15.8975,22.564,-2.0513,138.4614,-18.4619,4.1025,0,0,-9.7437,-12.8208,-3.5898,3.0767,
17.1797,45.8975,-17.6924,32.564,0.25635,136.1538,-19.231,-4.8716,-0.25635,0.25635,-6.4102,-2.8203,-7.436,2.3076,
13.5896,52.5642,-7.4358,34.6155,-0.76929,125.3845,-14.1023,-6.9231,-0.76929,0.76929,-1.282,-2.3074,1.282,11.5383,
13.3333,51.7947,-3.5901,25.6409,1.0256,128.718,-13.3333,-4.1028,-2.0515,-1.0256,-4.6155,-6.1541,3.5896,12.3074,
28.2051,57.436,-17.436,28.2051,16.0256,143.718,-22.0513,-5.6411,-0.5127,0.5127,-6.1538,-3.0771,-9.7437,9.7437,
13.2051,44.1028,-15.3845,21.5383,2.0515,128.718,-21.0256,-16.4104,-1.0256,-0.51294,0.51294,-1.0256,-5.6409,4.1028,
-1.7949,29.4873,-4.8716,14.1025,-12.9485,113.718,-17.1792,-18.7178,-2.8203,-0.25635,0.25635,2.3081,3.8462,2.3081,
12.3081,37.9487,-10.769,20,-0.5127,121.5386,-20,-16.4102,0,5.6411,-2.0513,0,-4.1025,14.8721,
14.6155,38.2048,-19.7439,18.2048,5.3845,125.8972,-25.3845,-25.8977,-1.282,1.282,-2.8206,-6.9231,-11.5383,12.5642,
4.8721,36.667,-15.1279,21.2822,-0.25635,111.0259,-22.3076,-27.4355,-0.76904,1.2822,-8.4614,0.76953,-13.0767,0.25635,
6.6667,37.4358,-13.3333,23.5896,-2.051,112.3079,-17.4358,-29.2307,-1.0256,2.0515,-11.7947,2.5642,-22.5642,1.0256,
12.5642,43.8464,-13.5896,24.3591,7.949,127.3079,-21.7947,-29.9998,-1.282,1.282,-5.8972,-3.8459,-21.7947,11.0256,
10,47.436,-13.5898,25.8975,12.0513,131.0259,-25.8975,-27.9487,-4.8716,2.8203,-2.8203,-4.8716,-10.5127,11.0259,
6.6663,38.4612,-11.7952,21.5383,5.6409,119.9998,-21.5388,-30.2566,-9.7439,1.0256,-5.6414,-1.0256,-12.3079,5.1282,
11.5383,37.6921,-8.4617,24.8718,14.1023,120.2561,-18.2053,-33.5898,-4.8718,0.76929,-5.8977,-0.76929,-15.6414,4.3586,
6.4102,36.6665,-10.5127,27.9487,15.6411,116.1538,-22.8203,-37.6924,0.25635,5.3848,-1.2822,-3.8462,-14.6152,-0.25635,
2.8203,32.0513,-18.2051,25.3848,5.3848,112.0513,-29.4873,-38.718,-1.2822,12.564,0.25635,-3.8462,-21.2822,-0.25635,
1.0256,28.718,-14.3591,21.5383,-4.1023,114.8718,-28.718,-40,0.51294,14.3591,-0.51294,-3.0769,-22.051,12.3079,
-8.718,22.5642,-4.1023,17.949,-9.7434,109.2307,-26.6665,-42.0513,2.5642,8.718,0.51294,-0.51294,-17.9485,14.3591,
-2.3074,27.4358,-9.9998,22.8206,1.282,112.0515,-27.9485,-34.6152,1.282,5.3845,-2.8206,-1.282,-20.2561,2.3079,
1.7949,27.4355,-9.4873,23.8462,-0.25635,116.1538,-22.8208,-28.4617,4.8716,7.4355,0.25635,-4.8721,-15.6411,-5.8975,
-1.282,26.9231,-3.3333,24.8718,-6.9231,118.2053,-21.282,-32.051,3.3337,9.4875,2.8206,1.282,-8.4612,-1.282,
2.3079,32.0515,-13.0769,25.3845,-1.282,121.7947,-32.0513,-37.1794,-8.9744,5.3845,-3.3333,1.282,-19.2307,5.8972,
4.8716,31.0254,-18.7178,20.2563,0.76904,120.769,-37.6924,-41.2822,-10,3.8462,-3.8462,-0.76904,-30,3.3335,
4.6152,31.2822,-10.2563,24.1025,0,117.9487,-30.7693,-40,-1.5386,4.6152,0,-1.0254,-15,3.0771,
-0.25635,27.436,-0.25635,24.3589,-7.9487,113.5898,-22.3079,-30.5129,0.25635,2.3076,-1.7949,-0.76953,0,5.8975,
4.8721,32.0513,-0.25635,25.8975,-5.8975,120.2563,-22.8206,-26.4102,-0.76904,0.25635,-2.8203,4.8721,-13.5898,4.3589,
15.8972,43.0769,-12.8206,28.718,7.1794,126.1536,-29.2307,-40.5129,-3.5901,-1.5383,-0.51294,0.51294,-22.0515,1.0256,
6.1541,34.8718,-14.3591,20.0002,-0.51294,117.949,-26.1536,-49.2307,-5.6409,0.51294,7.6921,-1.5383,-7.0515,1.5383,
-2.8206,28.9744,-3.3333,24.3591,-8.9744,118.2048,-21.2822,-37.1797,-1.282,7.4358,7.9485,1.282,-1.7952,9.4871,
4.3589,32.564,-1.2817,31.5386,-13.0767,118.7183,-21.7949,-33.5896,0.25635,6.4102,-0.25635,-1.2817,-5.8975,8.4614,
9.2305,28.7178,-3.5898,25.6406,-12.8208,115.8975,-25.1284,-44.1028,-1.0259,0,0,2.564,3.5894,-3.0771,
5.8975,29.4873,-8.4614,22.8203,0.25635,124.3589,-29.4873,-46.4102,-1.7949,-0.25635,1.7949,6.4102,-1.2822,-1.7949,
-0.5127,30.769,-5.1284,26.6665,-9.231,126.6665,-24.6155,-41.5383,-1.5386,1.5386,5.6411,0.5127,-7.6924,9.231,
3.3335,25.3848,-3.8462,25.3848,-19.231,119.7437,-24.3591,-41.7949,-4.8721,-0.76904,2.3076,-0.76904,0.76904,11.5386,
8.9741,25.3848,-10,19.231,-5.3848,119.231,-34.1025,-42.8206,-9.4873,-1.2822,-4.8716,5.3848,1.2822,13.5898,
1.7947,26.4104,-7.949,23.3333,-4.3591,121.7947,-34.6155,-41.7949,-6.9231,0.25659,-0.25659,2.8206,-4.8718,14.1028,
8.4614,28.9741,-1.7949,31.5386,-4.3589,130,-32.0513,-40.2563,-3.8462,1.2822,0.76904,-0.76904,-2.8203,6.9229,
15.6411,27.9487,-1.7949,25.3848,-3.8462,130.5127,-32.5642,-36.1538,-6.4102,2.8203,0.76904,4.8716,-1.2822,-0.76904,
6.9231,30.5129,-8.4617,24.3591,-14.6155,123.8459,-34.6155,-32.0513,-11.0256,4.8718,-1.282,5.8972,-8.9744,1.282,
4.1025,33.8462,-6.6665,30.2563,-21.0259,122.0513,-31.2822,-36.4104,-8.7178,6.6665,-4.1025,4.1025,-7.1797,15.8975,
2.5642,24.1023,-1.5383,22.5642,-24.1028,111.282,-34.3591,-44.1025,-8.718,1.5383,-7.6921,1.5383,-10.7693,15.3845,
1.0256,24.6155,-1.0256,22.5642,-15.3845,115.8972,-37.436,-36.9231,-7.1794,3.0769,-4.6155,6.1536,-13.3333,4.1023,
-9.7437,18.9746,-1.0254,21.0259,-17.9487,123.0771,-33.8462,-43.0769,-12.3076,3.0771,0.5127,6.1538,-0.5127,3.0771,
-5.6411,18.4614,-0.5127,26.6665,-16.4102,120,-34.8718,-50.7693,-14.3589,3.0771,-2.0513,2.564,0.5127,8.2051,
7.949,23.8459,-8.4617,31.0256,-13.0769,118.718,-41.7949,-41.7949,-7.9485,3.3333,-0.76929,3.3333,-14.4873,0.76929,
3.3333,15.6409,-8.4617,21.282,-28.0769,115.6409,-33.0769,-35.6411,-6.9231,-0.25659,6.4104,5.8972,-21.282,0.25659,
-1.2822,14.6152,0.25635,24.3589,-27.9487,117.6924,-29.4873,-37.6924,-10,-0.25635,1.7949,0.25635,-7.9487,13.0767,
0.76929,25.3845,-0.76929,33.0769,-12.9487,123.3333,-40.2566,-39.231,-5.3845,1.282,1.7947,-2.8206,-20.7693,14.6155,
2.564,25.1284,-8.7178,27.1797,-2.0513,118.9746,-41.5383,-40.5127,-5.6411,-1.5386,3.0771,1.5386,-30.2563,6.1538,
5.6409,23.0769,-5.1282,22.0515,-12.8206,118.4617,-30.7693,-37.4358,-11.282,1.0256,0.51294,-0.51294,-15.8972,6.6667,
7.4355,25.8975,0.25635,24.8716,-17.1797,127.9487,-35.1284,-32.0515,-13.0771,3.333,-0.25635,-6.9233,-24.8721,12.0513,
17.949,34.8718,-1.5383,35.385,-4.1023,140.0002,-31.7947,-30.2561,-7.6921,7.6926,-1.0256,1.0256,-34.8716,24.6155,
14.1025,30.5132,-6.9229,30.5132,-17.6924,128.9746,-23.333,-39.2307,-13.5894,5.8975,-4.3589,4.3589,-31.0254,17.6924,
4.3589,24.3589,-8.9746,19.7437,-32.6924,116.6665,-22.8208,-39.7437,-19.7437,1.7949,-1.7949,2.8203,-35.6411,2.8203,
5.3848,22.3076,-7.9487,17.6924,-34.6152,117.1797,-17.1797,-35.6411,-8.9741,2.3076,0.25635,-0.25635,-38.2051,13.5898,
5.8975,14.1025,-0.25635,24.8721,-49.6152,116.6665,-5.3848,-38.7178,-0.25635,5.3848,-1.7949,0.25635,-27.4358,24.3589,
12.3079,21.5383,-1.0256,34.8718,-37.9487,125.6409,-10.7693,-36.9231,-12.3079,3.0769,-5.1282,1.0256,-27.1794,16.4104,
16.9233,32.3076,-3.0767,31.2822,-22.9487,134.3589,-14.8716,-30.2563,-15.8975,-2.0513,2.564,2.0513,-27.6924,15.3848,
12.564,29.4873,-1.7949,28.9746,-10.5127,136.1538,-10,-32.5642,-5.8975,-2.8203,6.4102,1.7949,-24.3589,20.769,
5.8975,28.9746,-3.333,36.667,-25.5127,136.1538,-5.8975,-34.1025,-4.8716,-0.25635,3.3335,0.25635,-24.8716,26.4102,
-9.1025,18.718,2.8206,30.5129,-40.5127,121.1538,-3.8464,-36.6667,-10.5129,-2.8206,3.3333,8.4617,-21.2822,23.3333,
-4.6155,23.5896,3.0769,29.2307,-27.6924,125.6409,-7.6926,-32.8206,-7.6926,-0.51294,0.51294,13.8459,-26.6667,21.0256,
10.3845,36.1538,-8.9741,32.0513,-12.6924,140.6409,-11.5386,-30,-6.4102,2.8208,1.7949,-1.1541,-36.6665,23.8462,
10.7693,32.3079,-4.1023,34.8718,-26.1536,132.3079,-3.5896,-34.8716,-3.5896,3.0769,11.282,-3.0769,-23.5896,27.6926,
-0.51294,24.1023,0.51294,29.7434,-41.1536,117.3079,-6.1541,-40,-7.6926,-2.5642,3.5896,1.5383,-22.0515,18.9744,
6.9231,30.0002,1.282,26.4104,-30.5127,131.5388,-1.282,-32.0513,-6.4099,-1.282,3.3333,-3.3333,-30.5127,16.1541,
7.6921,27.1794,-3.0769,23.0769,-38.9744,128.2053,3.0769,-33.3333,-6.1536,-3.0769,4.1028,-5.6409,-34.8718,13.8464,
-0.76904,20.2563,-2.3076,24.3589,-53.9744,113.2053,0.25635,-40.2563,-0.25635,-0.25635,4.3589,5.8975,-35.1282,12.0513,
-7.9485,16.1541,-8.4617,19.2307,-66.9231,113.0769,-12.5642,-47.4358,1.282,0.25659,3.8459,-0.25659,-44.8718,16.6667,
-6.9229,16.667,-6.9229,19.7437,-63.8459,118.2051,-3.8462,-40.769,3.8462,4.3589,7.9487,-3.8462,-34.6152,25.8975,
-4.6155,10.2566,-1.5383,20.5129,-72.3076,108.2053,9.2307,-38.4614,-4.1023,-1.0256,12.3079,1.0256,-27.6921,13.8464,
6.9229,16.6665,-4.8721,25.3843,-62.8206,115.1279,0.25635,-34.1028,-15.6411,-7.9487,7.9487,-0.25635,-35.6411,6.9229,
10.2563,29.7432,-3.5898,32.8203,-58.9746,130.1279,-2.5645,-25.1284,-9.7437,-2.0513,2.0513,6.6665,-26.667,21.9229,
-2.564,25.1284,0,35.8975,-73.9746,122.0513,4.1025,-31.282,-6.6665,0,0,6.667,-27.1794,28.2051,
6.1538,33.333,-5.1284,44.6152,-69.231,127.6924,0,-32.3076,-8.2051,0,4.6152,-1.0259,-39.4873,22.0513,
10.2563,35.3848,-9.231,36.9229,-59.4873,137.9487,-4.6152,-29.7437,-8.2051,0.5127,11.2822,-0.5127,-43.0769,18.4614,
-3.5896,22.5642,-2.5642,26.1541,-74.4873,124.6155,0.51294,-34.8718,-9.2307,-0.51294,10.2566,3.5896,-36.4102,19.4871,
-7.4358,14.1028,1.282,27.4358,-86.4102,111.0256,7.949,-33.5896,-11.5383,-1.282,4.8718,-1.7947,-30,23.8464,
-0.76904,12.564,0.25635,27.9487,-75.1282,113.5898,7.436,-30.5127,-10,-0.25635,4.8721,-1.2817,-29.4871,17.1797,
0.76929,14.6155,-8.4612,27.4358,-71.5383,116.1541,-0.76929,-41.282,-12.5642,-4.3586,4.3591,0.76929,-36.1538,8.9744,
-7.949,12.5637,-4.8718,26.9231,-81.7952,108.4612,4.3586,-40.7695,-13.5901,0.76929,7.4358,-0.76929,-34.6155,23.8459,
-8.4614,8.9746,-1.7949,23.3335,-84.3589,108.9746,7.436,-35.6409,-10,3.8462,1.7949,-1.7949,-36.6665,26.4102,
2.5637,12.3074,-6.6667,20.5125,-69.7437,120.5125,1.0256,-44.1028,-8.718,-1.0256,3.0769,-1.0256,-40.0002,12.8206,
1.5386,13.3335,-4.6152,16.4102,-67.6921,115.8975,3.0771,-45.6409,-15.8975,-3.5898,11.7949,-1.5386,-34.3589,12.8208,
7.1794,20.5129,-3.5896,21.5383,-61.5386,114.3591,6.1536,-33.8462,-20.5129,-3.0769,2.5642,-2.5642,-36.4104,15.8972,
6.6667,16.4104,-6.1541,21.5383,-62.0513,114.3591,5.1282,-40.5129,-16.4104,-1.0256,1.0256,-2.0515,-41.0256,8.718,
-8.3333,1.4104,-7.6924,13.8462,-77.0513,99.3591,0,-54.3589,-18.4614,0,8.7178,4.6152,-41.5383,3.5898,
-11.7947,4.1028,-4.1028,15.8972,-86.6667,94.3591,1.0256,-48.718,-24.6155,-1.0256,6.1541,3.0769,-36.4102,15.8972,
-1.7949,10.5127,1.7949,16.6665,-78.2053,104.3589,6.9229,-40.7693,-26.4104,-1.7949,3.8462,-3.3335,-31.0256,24.3589,
-4.1025,10.769,-2.564,21.5386,-78.9744,104.1025,-1.5386,-40,-24.6155,2.0513,3.5898,1.5386,-41.0256,14.3589,
-4.3591,11.0256,-3.8459,25.8972,-80.7693,100.2566,-7.949,-44.8718,-16.6667,3.8459,6.4104,10.5129,-47.436,8.4617,
-9.4871,5.8977,2.8206,20.2566,-73.5896,102.3079,-2.8206,-51.0256,-17.6924,-3.3333,11.5383,7.4358,-35.1282,13.5896,
-11.2817,9.231,2.0513,19.4873,-58.5896,110.7695,-1.5386,-45.6409,-23.0769,-2.564,6.1538,1.5386,-29.2307,16.4102,
-7.9487,12.0513,-1.7949,24.3589,-63.3335,109.4868,-2.8208,-40.7695,-18.2051,1.7949,2.8203,4.3589,-38.718,11.0254,
-6.1538,9.231,0,28.7183,-71.7947,107.1797,-3.5898,-41.5383,-15.3843,0,8.7183,10.2563,-33.8459,10.2563,
-4.6155,9.2307,2.5642,30.2566,-63.0769,112.3079,-2.5642,-37.436,-23.5898,-2.5642,11.282,6.1541,-26.6667,19.9998,
-2.5645,12.8203,-0.51318,25.1279,-51.7949,109.2305,0.5127,-38.4617,-23.0771,0,8.2051,0,-36.9231,26.1538,
-12.3076,3.5898,-5.1284,14.3589,-57.9487,100.5127,-3.0771,-52.8206,-12.8203,5.6411,3.5898,3.0771,-47.6924,15.3848,
-15.3845,-1.0256,1.0256,17.4358,-61.5383,102.5642,-1.5383,-48.2051,-12.3074,9.7439,11.282,11.7952,-46.1538,5.1282,
-8.7178,11.7949,-2.0513,25.1284,-50.769,108.7183,-2.0513,-37.9485,-27.3074,2.0513,8.2051,6.1538,-45.6409,4.1025,
-13.8459,16.4104,-6.1541,24.1028,-54.3589,110.7693,-2.5642,-43.0769,-26.6667,2.5642,5.6409,7.6921,-47.6924,14.3591,
-28.4617,2.8206,-3.8464,17.1794,-69.3589,99.7434,-2.8206,-45.3848,-20.2566,4.3586,8.4612,13.0769,-51.5386,12.051,
-25.6411,3.5896,-1.0256,17.9485,-72.8206,98.4617,-5.1282,-38.4614,-26.1538,1.0256,2.5642,7.6921,-50.2563,10.7693,
-14.1028,12.051,-0.25659,21.282,-57.8206,109.4871,-4.8718,-42.3079,-22.3079,3.3333,0.25659,8.4617,-55.1282,21.282,
-4.8721,14.1025,-3.8462,25.3848,-48.4617,115.6411,-2.3076,-49.4873,-14.1025,7.436,2.3076,11.5386,-65.8975,22.8203,
-8.9746,5.8975,-6.4106,18.7178,-57.6924,106.4102,0.25635,-49.4873,-24.3589,-0.25635,1.7949,1.7949,-58.718,12.564,
-15.8975,4.1028,0.51294,15.8977,-64.6152,101.5383,-1.0256,-48.7178,-28.7178,-0.51294,6.1541,6.6667,-43.718,11.7952,
-9.7434,14.8718,-1.5383,28.2053,-50.7693,109.7434,-6.6667,-45.1282,-22.0513,1.5383,6.6667,15.8972,-49.2307,16.9231,
-7.9487,11.0259,-1.7949,25.8975,-44.8716,111.0259,-1.7949,-40.769,-18.2051,1.7949,8.9746,12.5645,-50.5127,18.7183,
-18.7178,-3.9741,-0.25635,14.6157,-56.1538,101.2822,0.25635,-46.4102,-22.8203,5.3848,6.4106,9.4873,-42.3076,15.6411,
-13.333,3.5898,-4.6152,24.1025,-49.2307,108.2051,-3.5898,-43.0769,-18.9741,10.7695,10.2563,5.1284,-43.0769,14.3589,
-8.9741,3.8462,-3.8462,20.2563,-54.6152,106.4102,-0.25635,-44.3589,-14.6152,1.2822,15.6411,0.25635,-43.3333,8.4614,
-11.2822,-4.1025,1.5386,11.7949,-67.6924,98.4614,5.1279,-51.7949,-14.3591,-1.5386,4.6152,13.3335,-36.9231,11.7949,
-8.718,4.1028,-1.0256,17.949,-58.4614,106.6667,-2.5642,-45.1282,-13.8459,10.2566,1.0256,18.9744,-44.6152,23.0769,
-0.76929,12.0515,-9.9998,21.7952,-43.4614,116.1541,-12.5637,-44.3589,-14.1023,13.0769,2.8206,3.9744,-58.7178,15.6414,
7.4358,10.5129,-9.9998,19.2307,-43.3333,114.6155,-2.8206,-53.0769,-13.5896,10.5129,2.3079,-2.3079,-52.0513,2.8206,
-3.5901,2.5637,-9.7439,13.3333,-58.3333,104.615,-1.0256,-52.8208,-25.6414,1.0256,2.051,5.6409,-49.231,4.1023,
0.76929,13.0769,-9.4875,18.718,-43.3333,117.1794,-11.0256,-37.8208,-29.4873,-0.76929,2.8206,8.4612,-54.6155,19.1023,
0.76904,7.4355,-8.9746,12.564,-32.5642,113.5898,-12.0513,-43.8462,-27.9487,0.25635,-0.25635,4.3589,-52.5642,16.1538,
-7.9487,0.25635,-3.8462,12.564,-47.5642,99.2305,-0.25635,-48.4617,-22.8206,3.333,7.9487,15.1279,-40.7693,8.4614,
-5.1279,7.1797,-4.1025,20,-47.1794,104.1025,-1.5386,-43.5896,-24.1025,1.5386,10.2563,14.3589,-35.3845,18.9746,
-1.0256,10.2566,-1.5383,20.5129,-35.3843,109.2312,-1.0256,-39.9998,-24.1023,1.0256,4.6155,8.2053,-36.4099,18.4617,
-0.51294,11.7952,-6.1536,20.5129,-27.1794,106.1541,0.51294,-40,-24.6155,0.51294,-3.0769,7.1794,-51.4099,4.1028,
-10.5127,6.4102,-10,19.231,-38.718,100.2563,0.76904,-46.9231,-22.3076,-0.76904,2.3076,4.8716,-53.0769,12.564,
-18.9746,-5.6414,-1.0256,18.9744,-50.7695,94.8718,2.5637,-50.7695,-14.8721,1.0256,10.7688,6.6663,-38.0769,24.1023,
-3.9746,4.8718,-4.8718,24.8718,-35.7695,109.8718,-1.7952,-45.3848,-16.6667,1.282,7.4358,8.4617,-28.4617,18.2048,
-0.51294,12.3074,-9.7439,22.051,-25.6409,116.4104,-3.5896,-45.1282,-16.9231,0.51294,10.7693,9.2307,-37.436,12.3074,
-15.5129,0,-3.0771,18.9741,-40.6409,101.4104,0,-47.6924,-11.7949,0.5127,12.8203,11.7949,-31.282,12.3076,
-3.0771,0,-2.564,22.564,-36.4104,100,3.0767,-46.6667,-11.2822,0,4.1025,9.231,-33.3333,11.2822,
11.9229,15,-10.7693,23.5896,-21.4104,115,-0.51294,-48.2051,-16.4104,-2.5642,-0.51294,3.5896,-38.4617,14.3591,
23.0769,21.0256,-16.4104,22.0515,-6.4104,128.718,-9.7434,-49.7434,-17.4358,-3.0769,-1.0256,1.0256,-32.8206,23.5896,
11.7952,11.7952,-9.7434,17.949,-17.4358,113.718,-7.6921,-48.7178,-12.3074,-1.5383,2.5642,1.5383,-27.1794,24.1028,
21.7952,12.0515,-3.8459,19.7439,-14.1023,113.0769,-2.8206,-43.3333,-11.5383,-1.282,2.3079,1.282,-21.282,18.718,
25.1282,16.9231,-4.6155,19.4871,-12.8206,122.0515,-1.5383,-37.4358,-13.8459,-1.5383,1.5383,4.6155,-17.9485,20.5129,
23.5898,20.5127,-8.2051,15.3843,-14.8721,124.6152,-4.1025,-40.0002,-15.3848,0,0,5.1279,-30.7695,27.1792,
38.5898,32.0515,-7.9485,23.3333,0.12793,131.0256,-3.8459,-39.7434,-12.5642,4.8718,-0.76929,-2.3074,-29.4871,32.0515,
36.1541,26.4104,-4.3591,24.3591,-3.8459,122.3079,-1.282,-38.718,-10.5129,3.3333,1.282,-4.8718,-14.6155,20.7693,
29.231,21.0259,-6.1538,22.0513,-7.1797,121.0259,-6.1538,-40.5129,-11.7949,1.5386,4.6152,-1.5386,-16.4102,11.2822,
27.1794,17.4358,-3.5896,19.4871,-20.5129,115.8977,-4.6155,-44.1025,-14.8718,2.5642,5.1282,-2.5642,-15.8972,15.3845,
24.6152,18.9741,0.51269,22.564,-34.8718,103.0767,0,-48.718,-19.4873,0,-2.0513,-2.0513,-15.8975,20.5127,
39.6152,33.9741,-0.51294,37.564,-19.8718,118.0767,-1.0256,-34.8718,-11.7947,6.1541,-1.0256,0.51294,-15.3845,32.3079,
54.6152,48.9741,-6.1538,37.436,-4.8718,133.0767,-8.7183,-29.7437,-13.8462,2.564,-2.564,-7.1797,-20,22.564,
64.8721,63.9741,-0.25635,33.5898,10.1282,143.8462,-3.8462,-35.6411,-14.6152,0.25635,-2.8203,-3.8462,-22.3076,7.564,
64.1028,73.8464,0.51294,35.8977,11.7952,137.949,-1.0256,-43.0769,-11.282,-0.51294,-1.0256,-8.718,-19.9998,9.7439,
70.2561,82.051,1.0256,38.4612,12.8206,137.4358,-4.6155,-38.9746,-11.7952,-2.0515,-1.0256,-15.8977,-13.3333,17.9485,
85.2561,97.051,-1.282,48.9744,27.8206,152.4358,-5.3845,-32.0515,-15.1282,1.282,-7.9485,-12.0515,-18.2053,15.1282,
95.6409,109.4871,-5.3845,38.2053,31.0256,161.282,-3.3333,-37.1794,-15.6409,3.3333,-5.8972,-12.5642,-22.3079,16.1541,
80.6409,94.4871,0.25635,23.2053,16.0256,146.282,-1.7949,-41.7949,-12.564,-0.25635,-1.7949,-10.5127,-10,17.6924,
74.6152,79.4871,1.2822,33.5898,4.3589,136.1538,-2.3076,-34.1025,-14.6152,-1.2822,-8.4614,-2.8203,-8.9741,5.3848,
78.9744,81.0256,-7.1794,35.8977,14.8718,144.1028,-1.5383,-33.3333,-18.4617,1.5383,-8.2048,-2.5642,-23.0769,6.6667,
64.1023,66.6667,-9.2307,27.6921,-0.12817,138.9744,1.5383,-35.3845,-11.7952,5.1282,-1.5383,-5.6414,-21.0256,21.6667,
52.0513,52.0513,-3.333,28.4619,-15.1282,123.9744,-0.25635,-42.3076,-8.9741,3.8462,0.25635,-5.8975,-17.6924,25.8975,
50.7693,47.6921,-1.5383,31.7947,-16.9231,108.9744,-3.5896,-46.1538,-13.8459,3.0769,1.5383,-2.5642,-17.4358,10.8975,
45.3848,39.2305,-3.3335,25.3848,-17.1797,110.5127,-3.8462,-41.2822,-13.0771,3.3335,-0.25635,0.25635,-8.9746,7.9487,
30.3848,24.2305,-1.5383,22.0515,-32.1797,100.0002,-1.0256,-44.1023,-12.8201,1.0256,1.5388,-1.0256,-6.6663,15.385,
37.1792,28.4614,-1.7949,35.1279,-27.436,98.2051,-1.2822,-44.3591,-16.1538,0.25635,1.2822,-0.25635,-14.1025,8.9741,
44.6152,35.8975,-4.6152,35.3848,-15.8975,105.1279,-3.5898,-40.5127,-16.9233,0,0,0.5127,-13.3335,10.769,
31.0259,20.8975,-0.76904,25.8975,-30.8975,90.1279,0.76904,-43.8462,-14.1025,-0.76904,1.7949,-4.3589,-6.4102,11.5386,
30,13.0771,-0.76904,26.4102,-33.5898,83.8462,0.76904,-47.9487,-15.1284,2.3076,-1.7949,-5.8975,-7.9487,6.4102,
39.7434,21.282,-4.3591,26.4104,-18.5898,96.6667,-2.3079,-49.4873,-14.1028,5.3845,2.3079,-2.8206,-8.4617,8.4617,
32.3079,15.385,-4.615,24.6155,-21.0256,90.2566,-2.5637,-51.2817,-10.7688,1.0256,3.5901,-7.6921,-1.0256,10.2566,
18.4614,5.6411,-1.5386,21.0254,-33.3335,76.4102,0,-46.6667,-13.8462,-7.1797,0,-14.8721,1.0254,0.5127,
29.7437,14.3589,2.564,25.1284,-18.3335,86.6665,0,-35.3845,-14.8716,-0.51269,3.0771,-4.1025,-4.1025,0,
39.7437,21.7949,-3.8462,31.5386,-4.8721,93.5898,-6.4102,-46.9231,-12.564,3.3335,-0.76904,0.76904,-7.9487,6.9229,
24.7437,11.282,-3.0769,19.9998,-19.8721,85.6409,-1.5388,-60.0002,-11.282,-2.5642,1.0256,-1.0256,1.0256,9.2307,
14.6157,5.3848,-1.7949,10,-30.5127,81.2822,-1.7949,-53.0769,-18.2051,-3.333,2.8208,1.7949,-1.7949,12.0513,
23.0769,6.1536,-8.2053,14.3586,-22.5642,83.0769,-9.7439,-46.6667,-17.949,3.5896,1.0256,-1.0256,-11.282,13.3333,
17.6921,0.76929,-5.8972,15.1282,-28.4617,80.7693,-7.4358,-47.9487,-11.5383,4.3591,2.8206,-0.76929,-2.8206,4.8718,
2.6921,-5.3845,-0.25659,13.5896,-36.6667,78.718,-0.25659,-44.8718,-10.5129,-0.76929,1.282,0.25659,8.9744,4.8718,
-0.25659,-7.949,0.25659,19.7434,-30,77.1794,0.25659,-48.4617,-12.0515,0.25659,-0.25659,-4.3591,2.3079,14.1028,
14.7434,4.1028,-1.5383,30.7693,-15,86.6667,-3.5896,-49.2307,-13.3333,5.6409,1.5383,-2.0515,-3.0769,13.3333,
28.9744,9.9998,-3.8464,26.4099,-11.0256,91.0256,-3.3337,-46.9233,-17.1794,-3.3337,0.76929,-0.76929,2.8206,4.3586,
16.6665,4.8716,-2.3076,19.7437,-23.3335,85.8975,-2.8203,-47.4358,-18.2051,-14.6152,2.3076,-3.8462,2.3076,10,
29.9998,16.6667,-1.282,34.1023,-8.9744,100.8975,-3.8464,-35.6411,-14.6155,-2.8206,4.3586,-2.3079,1.282,18.718,
21.282,9.4871,-3.3333,26.4104,-11.5383,95.1282,-5.3845,-35.6409,-16.1541,3.3333,-3.3333,-3.8464,3.8459,5.8972,
6.282,-5.5129,3.8462,16.6665,-25.8975,80.1282,-0.25635,-45.3845,-9.4873,0.76904,-0.76904,-6.9233,8.4614,0.25635,
3.5898,-5.6411,0.5127,22.564,-13.3335,73.3335,-2.564,-54.8718,-7.1797,-0.51269,8.7178,-5.6411,5.1279,0.5127,
3.0769,-4.1023,-7.1794,17.949,1.5383,82.5642,-10.2561,-58.4614,-13.8459,2.5642,5.6414,2.0515,-1.5383,-3.0769,
9.9998,-2.3079,-2.8206,12.5642,1.7947,86.4104,-4.8718,-44.3591,-14.6155,7.9485,-1.282,1.282,-1.282,8.4617,
19.2307,-5.3845,-1.282,10.5129,-12.5642,78.2053,0.25659,-42.3076,-16.6667,2.8206,0.76929,-11.5383,-0.25659,14.1028,
14.1025,-2.3076,-0.76904,19.231,-1.7949,79.7437,-1.7949,-46.4102,-10,0.76904,9.4873,-3.8462,8.4614,6.9229,
-0.89746,-1.0256,-2.051,19.4871,12.3079,73.3333,-5.1282,-44.6152,-4.6155,0.51294,7.6921,5.6409,13.8464,-0.51294,
-9.4873,-5.3848,-0.25635,15.1279,2.3076,65.8975,-0.25635,-41.2822,-7.9487,-0.76953,5.3843,0.25635,11.0254,1.7949,
5.1282,1.0256,-6.6667,19.4875,5.6414,80.8975,-9.7434,-47.6921,-14.3586,-1.0256,-2.5642,-4.1023,5.1282,6.6667,
5.3845,1.282,-10.0002,16.1536,12.051,95.6409,-18.718,-47.949,-13.5901,-1.282,-3.8464,-3.3333,3.3333,8.9744,
1.5383,-5.1282,-1.5383,15.3845,7.1794,80.6409,-3.718,-36.9231,-9.7434,-2.0515,3.0769,-3.5896,14.8718,9.7434,
0,-4.6152,2.0513,20,10.2563,67.6924,0,-38.9744,-11.2822,-2.0513,-0.5127,-2.0513,27.1792,5.6411,
-5.8975,-7.436,0.25635,16.1538,13.0767,73.0767,-15,-42.3079,-10,-1.7949,1.2817,-0.25635,19.7437,0.25635,
0.5127,-6.1538,-4.1025,14.3589,27.6924,86.1538,-17.436,-34.3589,-9.7437,-3.5898,4.1025,-0.5127,10.769,5.1279,
4.3589,-3.8462,-7.9487,13.0767,42.6924,94.1025,-10,-27.9487,-13.0771,-2.8208,2.3076,-2.3076,18.2051,11.5386,
1.0256,-5.1282,-6.6667,14.3591,55.3845,89.2307,-11.7947,-30.2561,-10.2561,-1.0256,2.0515,-3.0769,22.5642,9.2307,
5.8972,-1.2825,-7.4363,20.2561,53.0769,82.3074,-17.1794,-39.2307,-4.8718,0.76929,-0.76929,-5.8977,11.5383,5.8972,
5.8972,-2.8206,-8.9744,16.6667,47.4358,78.2053,-16.1541,-42.8206,-7.4358,1.7947,-1.7947,-10.5129,9.4871,2.3079,
3.3333,-3.8464,-10.5129,9.4871,57.1794,82.3079,-14.6155,-34.6155,-7.949,2.3079,-0.25659,-5.8977,18.718,0.25659,
3.3333,-5.8977,-13.5896,3.8459,54.6155,84.3591,-15.6409,-29.4871,-7.4358,0.25659,-0.76929,-0.25659,16.1536,3.8459,
0.76929,-4.3586,-9.4871,11.5388,43.3337,79.7439,-15.1282,-23.8459,-9.9998,1.7952,-0.76929,-2.8206,14.1028,9.4875,
-1.7949,2.8203,-8.9746,19.7437,43.3335,79.7437,-15.1284,-20.7695,-12.0513,1.7949,-1.7949,-2.8208,16.1538,8.9741,
-8.4617,-4.3591,-11.5383,10.5129,30.0002,75.6409,-10.5129,-34.6155,-11.0256,-0.76929,0.76929,3.8464,12.5642,2.8206,
-7.1797,-6.6665,-10.769,9.231,32.8203,72.8203,-11.7949,-37.9487,-10.2563,1.0259,1.0259,2.0513,10.2563,-1.0259,
2.3076,1.7949,-12.564,15.1279,47.8203,75.6411,-15.1284,-26.9233,-12.564,-1.7949,-3.3335,-5.3848,17.1792,6.9229,
5.8975,4.3589,-15.6411,16.6665,52.564,80.2563,-12.564,-28.4614,-16.6665,-8.4614,-6.4102,-4.3589,16.1538,11.0254,
9.231,8.7183,-19.4873,22.0513,51.2822,90.2563,-13.8462,-28.7178,-17.436,-6.1538,-10.769,-10.2563,12.8208,6.1538,
7.6921,7.6921,-17.949,18.9744,52.8206,89.2307,-15.8977,-21.5388,-15.385,-5.1282,-10.7693,-17.949,14.3586,5.1282,
5.3848,3.8462,-13.5898,13.0771,48.9741,78.7178,-12.564,-23.8462,-14.6152,-3.8462,-5.3848,-7.436,14.6152,8.9741,
5.3845,-1.282,-10.5129,16.1536,49.4871,79.2307,-6.9231,-29.4871,-13.0769,-0.25659,0.25659,-1.282,23.3333,13.5896,
2.3076,-11.0259,-5.8975,16.1538,42.3076,76.1538,-7.436,-30,-10,-2.3076,2.3076,-6.9233,29.4873,12.564,
11.2817,-1.0259,-4.1025,21.0254,40.5127,76.9229,-5.6411,-22.5645,-5.1284,0,0,-5.1284,23.5898,9.2305,
17.1794,8.9744,-10.0002,18.718,47.9485,77.6921,-4.8718,-25.8977,-6.9231,-1.282,-4.3591,-4.8718,13.0769,1.282,
15.8972,7.6921,-18.4617,13.8459,55.3845,79.9998,-11.282,-35.385,-10.2566,-3.0769,-8.2053,-8.718,14.3586,3.0769,
12.3081,2.0513,-23.0767,14.3594,45.1284,80.5132,-13.8462,-33.333,-13.333,-2.0513,-12.3076,-15.3843,19.4873,8.2056,
12.564,2.3076,-13.0771,16.1538,37.6924,78.7178,-5.3848,-23.3335,-13.0771,-2.3076,-6.9233,-10.5127,25.8975,7.436,
21.5386,8.7178,-14.3589,12.8203,51.7949,88.7178,-10.2563,-24.6152,-16.4102,-5.6411,-8.7178,-8.7178,17.436,5.6411,
22.0513,3.5898,-17.436,4.1025,45.6411,88.2051,-12.8203,-33.8462,-15.8975,-3.5898,-7.1792,-12.8203,9.7437,7.1797,
16.9233,1.5386,-9.2305,4.6157,33.8462,73.8462,-5.6411,-34.8716,-12.8203,-4.6152,-1.5386,-5.1279,20.5127,7.1797,
10.5127,1.7949,-12.564,4.3589,30.5127,68.9741,-10,-33.5898,-16.6665,-14.1025,-4.3589,-0.25635,19.7437,0.25635,
1.282,-6.4104,-9.4871,0.76929,17.1794,67.4358,-4.8718,-28.9744,-13.5896,-9.4871,6.9231,3.3333,19.2307,-0.76929,
-1.282,-13.0769,-6.4104,4.8718,10.5129,56.6667,-0.76929,-32.5642,-16.1541,-7.4358,5.3845,3.3333,20.7693,0.76929,
12.5645,-6.9229,-7.4355,15.1284,25.5129,58.7183,-2.8203,-35.6406,-18.7178,-12.564,-0.25635,0.25635,16.667,2.8208,
16.6665,-2.8203,-7.9487,12.564,35.1284,71.0259,-3.8462,-28.4614,-19.231,-15.6411,0.25635,-0.25635,19.231,6.4102,
1.6665,-12.0513,-6.4102,7.436,20.1284,59.231,-0.76904,-25.8975,-18.2051,-10.5127,0.76904,-0.25635,30.5127,6.9229,
-13.3335,-24.1025,1.0254,6.6665,5.1284,44.231,0.5127,-29.7437,-12.8206,-0.5127,12.3076,8.7178,28.2051,-3.5898,
-23.0769,-24.6152,2.0515,7.1794,-1.0256,43.5896,-2.051,-34.8718,-12.8206,1.0256,17.4358,18.9744,18.4617,-6.1536,
-25.1279,-30.2561,1.0256,2.0515,-5.6409,44.1028,-1.0256,-44.6152,-14.3589,-2.051,13.3337,14.3591,25.6414,5.1282,
-19.2307,-32.564,0.76929,3.3333,-17.1794,37.1794,-0.76929,-47.4358,-10.5125,-3.8459,6.4104,3.8464,18.718,1.7952,
-4.2307,-17.564,-0.5127,13.3335,-2.1794,52.1794,-1.0254,-32.4358,-8.2051,0.5127,5.1284,5.1284,10.769,-3.0767,
-14.3591,-18.9744,-5.1282,3.5896,8.718,56.9231,-3.5896,-30.2563,-16.4104,-4.1028,5.6409,9.2307,25.769,4.6155,
-18.2051,-26.4102,-5.8975,5.3848,1.2822,43.8462,-3.8462,-35.6409,-14.1025,-1.2822,5.3848,11.5386,34.1025,12.564,
-3.2051,-14.3591,-10.2566,8.718,12.8206,50.7693,-8.718,-35.8972,-9.2307,-1.5383,4.1028,1.5383,19.1025,-2.436,
5.8977,-8.4617,-5.8972,4.8718,17.1794,60.7693,-9.4871,-35.1282,-5.3845,0.76929,8.9744,-0.76929,8.9744,-10.5129,
-9.1023,-20.5129,-6.1541,4.6155,2.1794,48.2053,-10.7693,-39.4871,-9.7434,1.5383,2.5642,3.0769,23.9744,1.0256,
-13.0769,-20.7693,-2.8206,10.5129,-11.0256,41.282,-2.8206,-30.5129,-11.0256,2.8206,6.4104,10.5129,14.6155,7.9485,
-3.8462,-16.6665,0.25635,8.9746,-3.8462,44.8721,-1.7949,-24.3589,-9.4868,3.3335,8.9746,10.5132,-0.25635,3.3335,
-12.8206,-25.1282,-1.0256,4.1028,-3.0769,41.0256,-7.1794,-29.7434,-7.6921,4.6155,4.6155,6.1541,14.7437,1.0256,
-20.5129,-30.7693,0.51294,7.1794,-3.0769,34.3586,-6.1541,-31.7949,-8.718,4.1023,3.0769,8.2048,29.7437,-0.51294,
-8.718,-21.5383,-1.0256,11.282,6.6667,37.4358,-4.6155,-30.2566,-13.3333,1.0256,1.5383,11.282,18.4617,-3.5896,
-4.8716,-21.2822,0.76904,6.9229,-0.76904,40.2563,-3.8462,-38.718,-14.1025,-2.3076,2.8203,2.8203,7.9487,1.2822,
-1.7949,-18.7178,1.7949,12.0513,1.2822,46.9229,-1.2822,-37.1794,-10,-5.3848,4.8716,-1.2822,13.0771,3.8462,
4.1025,-10.769,-5.1284,16.9229,15.3848,51.2822,-4.1025,-30.2563,-10.2563,-6.1538,6.1538,6.1538,15.8975,-4.6152,
-10.8975,-19.231,3.8459,8.9744,0.38476,42.8206,1.282,-34.1025,-9.4871,-3.3333,15.1282,14.1023,22.3074,-1.7952,
-25.8975,-33.3333,3.0771,4.6152,-14.6152,34.3589,-0.5127,-41.5383,-13.8462,-11.2817,7.6924,5.6411,18.4614,0.5127,
-11.5383,-26.9231,2.8206,12.051,-10.0002,39.2307,-0.76929,-34.6155,-13.0769,-6.4104,4.8718,11.5383,19.7434,0.76929,
-0.25635,-16.6667,8.9746,11.0259,-0.76904,36.6665,-0.25635,-35.1282,-13.5898,0.25635,9.4873,22.3076,22.3076,-1.2822,
-2.5642,-14.3591,6.1536,9.2307,-5.6414,35.8972,-4.1028,-38.9744,-18.4617,-3.5901,7.1794,11.7947,15.8972,2.5642,
-0.25635,-18.2051,0.25635,11.0259,-4.8716,41.2822,-4.3589,-39.7434,-20.769,-7.9487,2.8208,3.8462,11.0259,0.25635,
8.7178,-13.8462,0,10.769,-3.0771,45.6406,0,-40.5129,-16.4106,-2.0513,1.0254,9.7437,12.8203,-2.0513,
-6.2822,-22.3079,1.7947,1.7947,-18.0771,31.0256,-1.282,-43.3335,-15.6409,-1.282,1.282,9.4871,16.6667,3.8459,
-20.5127,-33.3333,5.6414,6.1541,-31.282,23.5896,-3.0769,-47.6921,-15.3845,-4.6155,7.6926,11.7952,24.6155,3.0769,
-7.1794,-25.6411,7.6921,15.3845,-16.282,33.3333,3.0769,-50.7693,-12.3079,-4.6155,8.2053,14.3591,28.718,-3.0769,
-1.0256,-16.9231,4.615,12.3074,-16.4104,35.3845,4.1023,-47.1797,-14.8718,-5.6414,1.0256,12.8201,15.8972,-2.5642,
4.3589,-9.4873,1.7949,17.6924,-14.1025,38.7178,-3.8462,-39.2307,-17.6924,-1.7949,-1.7949,17.6924,11.5386,7.436,
0.25659,-19.2307,-0.25659,10.5129,-8.9744,36.1541,-9.4871,-46.9231,-16.1541,-1.282,0.25659,14.1028,17.6921,4.8718,
-10.2561,-29.7434,1.5388,2.0515,-9.2307,33.3333,-8.718,-51.7947,-12.3074,-1.0256,3.0769,7.1794,18.4617,1.0256,
-19.2307,-33.0769,1.282,6.4104,-24.2307,28.9744,-5.8972,-48.4614,-14.6155,-0.76929,0.76929,5.8977,18.2053,5.8977,
-15.6409,-36.6665,4.3591,8.9744,-32.564,23.3337,-1.282,-48.9741,-17.1794,-7.9485,1.7952,7.949,16.6667,1.282,
-0.64087,-21.6665,1.2822,13.0771,-17.564,38.3337,-5.3848,-43.3333,-13.5898,-7.436,2.3076,7.436,12.0513,-1.2822,
7.1794,-17.4358,-1.5383,10.2561,-2.5642,48.2048,-8.2053,-42.0513,-12.8206,-1.5383,3.0769,1.5383,15.3845,7.6921,
-7.8206,-32.4358,6.4104,3.8459,-17.5642,33.2048,-2.3079,-49.4871,-15.6411,-3.8459,6.4104,2.3079,23.3333,7.4358,
-3.8459,-29.4871,6.9231,7.949,-19.2307,35.1282,-0.76929,-51.0256,-15.6409,-5.8972,6.9231,14.6155,23.8464,0.76929,
5.8972,-23.8459,0.76929,4.8718,-10.0002,42.8206,-2.8206,-50.5129,-14.6155,-3.8459,6.4104,17.1794,15.1282,-0.76929,
-7.9485,-27.4358,3.3333,0.76929,-25.0002,27.949,-1.7947,-47.4358,-12.5642,-0.76929,4.8718,11.0256,16.6667,1.7947,
-15.8975,-31.282,6.1541,1.5383,-40,22.5642,-4.1023,-48.2051,-12.3074,-1.5383,2.5642,10.2566,19.4871,2.0515,
-7.9487,-29.4871,1.7949,6.9233,-25,25.8975,-7.9487,-53.5896,-12.564,0.25635,1.7949,13.5898,10.5127,-0.25635,
1.7947,-23.3333,-6.9231,12.5642,-18.718,25.3845,-9.4871,-56.1541,-13.0769,2.3074,-1.282,11.0256,8.9744,1.282,
0,-24.6157,-3.0771,9.2305,-26.667,26.6665,-6.1543,-46.667,-12.3081,0,1.0254,7.6919,18.4614,5.1279,
-1.0256,-26.1538,1.0256,10.2566,-26.6667,29.2307,-9.2307,-38.9744,-12.8206,-5.1282,3.0769,7.1794,10.2566,4.1028,
3.0767,-23.0771,-0.51269,13.8462,-20,27.6924,-9.7437,-45.1282,-9.231,-5.1284,3.0767,8.7178,3.0767,0.5127,
-2.0513,-22.0513,-0.5127,9.7437,-24.6155,24.1025,-4.1025,-49.7437,-3.5898,0.5127,5.1284,16.4102,15.3848,0.5127,
-6.1541,-17.9485,-1.5383,15.3845,-17.9485,32.8206,-9.2307,-41.5386,-6.1541,2.0515,1.5383,12.8206,12.3079,9.2307,
0,-13.333,0,23.5898,-2.9485,47.8206,-10.769,-37.9485,-5.1279,3.0771,6.667,2.5645,-1.0254,15.8975,
5.6411,-12.3076,0,18.4614,-4.1025,54.3589,-4.6152,-43.5896,-6.6665,0,6.667,2.564,-5.1279,6.1538,
-0.25635,-17.6924,1.7949,13.0767,-18.7178,41.7949,-0.25635,-42.3076,-11.5386,-3.3335,3.3335,10,0.25635,3.3335,
-7.4358,-24.8718,4.8718,14.1028,-21.282,28.9744,-3.3333,-41.7949,-16.1538,-5.3845,3.3333,14.6155,7.949,7.4358,
1.282,-13.0769,-1.282,17.6926,-6.282,42.8206,-11.0256,-39.7434,-20.7693,-6.4099,-4.3586,8.4617,2.3079,10.5129,
5.1284,-5.1279,-3.5898,16.9233,3.5898,52.3076,-9.7437,-32.3076,-22.0513,-2.564,2.564,7.1797,-8.2051,12.8208,
4.8718,-5.8972,-2.3079,18.718,-6.4104,53.0769,-5.8972,-26.9231,-20.2566,2.3079,10.5129,10.5129,-7.4358,13.5896,
8.2051,-2.564,-1.0254,15.3848,-2.0513,56.9233,-4.6152,-29.2307,-15.3848,0.5127,3.0771,6.6665,-0.5127,11.7949,
-3.3333,-15.6409,5.8977,7.4363,-13.5896,41.9233,-1.282,-42.8203,-14.615,-7.9485,1.7952,8.9744,1.282,6.9231,
-2.564,-17.9487,10.7695,16.9233,-13.333,32.3076,-2.564,-37.9487,-14.8718,-4.6152,11.2822,18.9746,2.564,10.7695,
3.5896,-12.8206,3.5896,13.8459,-10.7693,42.5642,-12.3079,-28.718,-19.9998,-8.2053,7.1794,14.8718,-3.5896,6.6667,
5.3845,-12.0515,4.3591,12.5642,-12.5642,46.9231,-11.0256,-30.5129,-17.6921,-13.5896,3.3333,17.6921,-3.3333,6.9231,
5.1282,-11.7947,1.0256,21.0256,-12.3074,44.1028,-8.718,-33.8459,-14.8718,-12.3074,4.1028,16.9231,-1.0256,10.2566,
7.9485,-6.4104,0.25659,24.8718,-9.4871,51.0256,-2.8206,-22.8206,-11.5383,-7.4358,12.051,12.5642,-0.25659,12.5642,
4.6155,-9.7434,1.0256,18.9744,-7.1794,49.7439,-3.5896,-22.0513,-14.8718,-12.3074,8.718,16.4104,-1.0256,8.2053,
-2.5642,-24.7434,5.1282,11.282,-16.4102,34.7439,-3.5896,-34.3589,-16.9231,-8.718,6.6667,24.6155,3.5896,2.5642,
-9.7434,-37.9487,3.0769,2.5642,-24.1025,23.0769,-5.6409,-42.564,-14.8718,-1.0256,9.2307,14.8718,1.0256,3.0769,
-5.1284,-24.1025,-0.5127,5.6411,-9.1025,33.3335,-7.1797,-35.3845,-6.6665,0.5127,11.7949,14.3589,4.1025,8.7178,
-9.7432,-23.5896,2.0513,5.1284,-9.2305,28.7183,-8.7178,-33.8459,-7.1792,-2.0513,11.2822,24.1025,2.0513,3.0771,
-16.6667,-30.5129,4.8716,1.7949,-21.2822,22.3076,-7.436,-36.6667,-10.0002,3.8462,12.0513,22.3076,-0.25635,0.25635,
-16.6667,-29.4871,3.3333,-1.282,-21.7949,29.4871,-4.3591,-41.282,-9.4871,4.8718,18.2053,15.1282,1.282,1.282,
-11.282,-19.4873,4.6155,4.1023,-10.2566,44.4871,-7.6921,-38.9744,-8.718,-1.0256,19.9998,22.051,1.0256,2.5642,
-3.5896,-8.718,5.6414,14.8718,-3.0769,53.8464,-10.2561,-31.7947,-11.7947,-5.6409,11.282,22.5642,3.0769,6.6667,
-3.5896,-17.9487,2.5642,8.2053,-15.8975,38.8464,-2.5642,-43.0769,-17.9487,-12.3074,4.1028,7.5642,5.1282,5.1282,
2.0513,-24.1028,4.1025,1.0254,-25.6411,28.2051,-1.5386,-53.8462,-18.9746,-13.8462,1.5381,5.6411,0,0,
14.8716,-13.8462,5.6411,6.6665,-11.2822,37.4355,-6.667,-43.5898,-12.8208,-5.1284,7.6924,20.6411,-2.0513,2.0513,
10.7688,-16.4104,-6.6667,3.5896,3.7178,37.4358,-11.2825,-39.4873,-16.4104,-4.1028,8.7175,19.9998,-3.0769,3.0769,
-1.7949,-21.7949,-11.0259,5.3843,-0.25635,36.1538,-12.0513,-43.8464,-14.6157,1.2817,7.4355,9.4868,0.25635,7.9487,
-16.7949,-28.9744,2.8206,5.3845,-15.2563,24.8718,-8.9744,-49.4873,-9.4873,2.3079,11.5383,15.6409,-2.3079,3.8459,
-19.4871,-21.5383,12.8208,10.2563,-26.1536,31.2822,-1.0254,-45.6409,-5.6406,4.1025,17.436,30.6409,0,0,
-11.7947,-20.5129,0.51294,2.5642,-11.1536,44.1028,-7.6921,-50.7693,-10.7693,2.0515,9.7434,22.0515,2.0515,-0.51294,
-17.436,-25.6411,2.051,-1.0256,-12.3079,42.051,-8.718,-43.0769,-9.7434,1.0256,12.3079,14.8718,10.2566,7.6921,
-11.2822,-15.8975,6.1536,9.2307,-14.3591,41.5383,-6.6667,-36.4104,-15.3848,-4.6155,9.7434,16.9231,4.6155,11.7947,
1.0256,-3.5896,3.5896,12.3079,-2.0515,56.5383,-5.1282,-38.9744,-21.0256,-5.1282,5.6409,13.8459,-1.0256,13.3333,
-0.76929,-0.76929,0.76929,10.5129,-3.3333,66.9231,-1.7947,-30.5127,-15.6409,-1.7947,12.5642,14.6155,12.0515,10.0002,
-15.7693,-10.5127,-1.282,4.8718,-15.1282,51.9231,1.282,-28.9744,-12.0513,-3.8459,19.2307,15.6414,15.1282,12.5642,
-28.2053,-19.4873,4.1023,-1.0256,-29.231,36.9231,-2.0515,-42.5642,-12.3079,1.5383,18.4617,18.4617,1.0256,19.9998,
-20.7693,-21.7949,9.4873,-0.76904,-36.1538,25.8975,-4.8718,-49.4873,-8.9744,6.4102,12.564,25.3848,0.76904,4.9998,
-16.6667,-29.4871,13.0769,-1.7949,-34.6152,23.3333,1.282,-41.7949,-1.282,3.8462,16.6667,29.4871,15.769,-10.0002,
-20.2563,-26.4102,3.3335,-3.3335,-24.3589,28.4614,-9.4873,-41.7949,-6.4102,4.8716,14.6152,19.231,8.9741,3.3335,
-8.4617,-11.4102,0.25659,7.4358,-9.4871,40.7693,-14.6155,-46.4102,-10.5129,13.0769,11.0256,18.718,-0.25659,18.3335,
-7.4358,-15.6409,3.3333,5.385,-16.1538,33.5901,-7.9485,-51.5383,-8.4612,4.8718,8.4617,21.7952,1.282,3.3335,
-1.2822,-18.2051,-0.25635,1.2822,-4.8721,40.769,-6.4102,-37.1794,-7.436,1.7949,3.8462,17.6924,2.3076,0.25635,
-1.0256,-13.3333,-4.6155,-4.6155,4.1028,46.6667,-10.2566,-33.8462,-16.4104,5.1282,1.0256,11.282,2.5642,15.2563,
-11.5381,-15.1282,2.8208,-0.25635,-3.8462,33.5898,-7.9487,-48.4614,-19.2307,0.25635,4.8721,16.1538,12.5645,10,
-1.5386,-6.6665,0,11.7949,3.0771,37.9487,-7.1792,-39.4871,-12.3076,-3.0767,6.667,16.4102,8.2051,0,
10.2566,-6.6667,-8.718,6.1536,5.6409,41.5383,-9.7434,-33.3335,-12.3079,0.51294,7.1794,8.718,-5.1282,-0.51294,
0.25635,-18.2051,-5.3848,2.3076,-0.25635,29.4873,-9.4873,-48.3335,-13.0771,4.3589,7.9487,11.5386,1.2822,-6.4102,
-12.051,-20.2563,1.282,4.8718,-1.282,30.0002,-4.8718,-53.0767,-5.3845,8.9744,15.1282,19.2307,12.0515,-1.7947,
-10.2561,-16.9231,-1.5383,1.5383,-6.6667,37.949,-5.1282,-38.0767,-3.5896,7.1794,12.3079,18.9744,7.6926,13.2053,
-1.7949,-7.9487,-5.8975,6.9229,-1.7949,43.8462,-10,-32.5642,-5.8975,5.3843,1.7949,15.1279,6.9229,12.0513,
-2.0513,-3.0767,-6.6665,10.769,8.2051,44.6152,-12.3076,-44.1025,-11.7949,2.564,2.0513,8.7178,6.6665,-2.9487,
3.3335,-3.3335,-8.9741,7.9487,8.4614,45.8975,-13.0771,-44.3589,-19.7437,-2.8203,-1.2822,4.3589,1.2822,1.2822,
8.9744,-0.76929,-3.8459,6.4104,0.76929,46.4104,-11.0256,-39.2307,-23.3333,-5.8972,-2.8206,4.8718,1.282,8.9744,
11.0259,8.9746,-0.76904,8.4614,6.9229,53.0771,-13.0771,-37.6924,-23.8462,-10,0.76904,7.436,-2.8203,-2.3076,
18.9741,17.436,0,11.7949,21.5386,60,-10.769,-35.3848,-18.4614,-9.7437,-1.0259,8.7178,0,-3.0771,
14.1025,2.8208,-0.25635,4.3589,10.5132,45,-5.8975,-45.8972,-18.2051,-9.4868,-12.0513,5.8975,0.25635,-0.25635,
14.1023,4.3591,-3.8464,6.9231,13.5896,42.8206,-8.4617,-47.436,-16.1541,-2.8206,-8.4617,8.4617,-9.4871,2.8206,
11.282,4.6155,-10.7693,1.0256,12.3079,46.6667,-17.4358,-45.1282,-15.8972,-5.1282,1.0256,5.6414,-10.2561,-1.0256,
8.9741,-2.3076,2.8203,-4.8721,2.3076,40.2563,-9.4873,-36.6667,-11.0259,-4.8721,10,14.1025,4.7439,-4.8721,
7.1794,-5.6409,5.6409,-2.0515,6.6667,40.5129,-4.6155,-32.3076,-10.7693,-3.5896,7.6921,16.4104,2.0515,-2.5642,
0,-11.7949,1.0259,-2.564,5.6411,39.4873,-5.6406,-38.9741,-9.2305,0,9.7437,9.7437,-6.1538,10.2563,
0.25635,-14.1025,-1.2822,-2.3076,1.7949,30.5127,-10,-48.9744,-10.5127,-0.25635,1.2817,4.8716,0.76904,2.8203,
12.8206,-5.6409,1.0256,4.6155,9.7434,33.8459,-8.2053,-46.6667,-7.6921,-1.0256,-5.1282,8.718,1.5383,-10.2566,
14.1025,-6.4102,0.25635,3.3335,6.9229,40.2563,-5.8975,-42.8206,-7.9487,-4.8716,2.3076,9.4873,-10,-0.25635,
23.8464,-1.282,-1.7947,1.282,16.6667,51.5383,-3.8459,-38.2051,-13.5896,-2.8206,7.949,5.3845,-3.8459,11.5383,
30.0002,-1.282,-3.3333,-4.8718,21.7952,51.0256,-6.4104,-43.3333,-15.1282,-3.8459,2.3079,1.7952,1.282,2.8206,
27.1797,-0.5127,0.5127,1.5386,15.8975,45.1279,-8.2051,-42.5642,-7.1797,-3.5898,-1.5386,4.6152,-3.5898,9.231,
21.0256,1.0256,-1.0256,4.1023,8.2048,45.6409,-10.2566,-39.4873,-10.2566,-2.5642,-3.0769,1.0256,-6.1541,6.1536,
17.4363,-4.615,2.5642,-6.1536,5.1282,44.1028,-2.051,-42.564,-13.8459,-1.0256,1.0256,3.5901,1.0256,-8.8464,
19.231,-4.8716,5.3848,-6.4102,12.0513,39.231,-3.8462,-42.8206,-11.0259,3.8462,-0.25635,17.6924,-2.8203,0.25635,
17.949,-3.0769,-0.51294,-2.5642,5.1282,36.9231,-18.8462,-38.9744,-12.3074,8.2053,0.51294,17.4358,-13.3333,13.8464,
18.4617,-1.5383,-4.6155,1.5383,2.0515,43.0769,-29.7434,-36.9231,-13.3333,6.1541,3.5901,7.1794,-9.7434,-1.1536,
13.3333,-4.6155,-1.0256,0.51294,1.0256,41.5383,-22.0515,-41.0256,-11.282,5.1282,-0.51294,14.3591,2.051,-1.0256,
2.0513,-12.8203,6.1538,-4.1025,-8.2051,31.7949,-16.9229,-40,-11.7949,8.2051,-2.0513,23.0771,4.6152,12.8203,
14.1028,-4.8718,-0.76929,2.3079,6.7949,41.7947,-23.8459,-31.5383,-15.6409,0.76929,-8.4617,12.0515,-6.4104,2.8206,
29.1028,10.1282,-3.3335,13.5898,21.7949,56.7947,-16.6665,-27.9487,-13.0771,-4.8721,-4.8721,3.3335,-5.3848,7.436,
31.2822,13.8462,-3.5898,7.1797,30.769,60.5127,-16.4102,-39.4873,-15.8975,-6.6665,-4.1025,-1.5386,1.5386,14.3589,
17.6921,1.282,-3.3333,-1.282,15.769,49.4871,-20.7693,-41.7949,-20.2566,-8.9744,-6.9231,1.282,2.3079,4.3591,
22.8206,5.385,0.76929,1.7952,27.949,56.6667,-16.1536,-33.0769,-17.6921,-10.5125,-4.3586,10.5129,-1.282,-0.76929,
20.7693,19.7434,-6.9231,7.4358,42.949,66.9231,-20.2566,-34.1028,-16.1541,-3.3333,-12.0515,4.8718,-3.3333,3.3333,
5.7693,19.2305,-10.5132,1.7949,35.1279,66.9229,-22.3076,-35.6411,-11.5386,3.8462,-13.0771,-2.8208,-1.7949,11.5381,
-7.4358,12.0515,-0.76929,-2.3074,29.4875,66.9231,-16.6663,-28.9744,-9.4871,4.3591,-1.7947,10.0002,0.76929,18.2053,
-7.1792,10.7695,-9.2305,1.5386,33.3335,65.6411,-25.1279,-26.1538,-20.5127,-0.5127,-7.6924,1.0259,0.51269,12.3076,
-4.6152,14.8721,-6.1538,4.1025,30.2563,65.6411,-22.0513,-24.6152,-14.8716,6.1538,-4.1025,-6.1538,9.231,18.9746,
-11.0254,6.9233,-1.7949,-5.3848,19.7437,59.7437,-18.7178,-35.6411,-10,1.7949,-4.8716,4.3589,3.8462,21.7949,
-1.5386,8.2051,-3.0771,-0.5127,32.3076,64.1025,-13.8462,-34.3589,-9.231,0.5127,-7.6924,14.3589,5.1279,19.4873,
5.1279,10.769,-14.8721,-2.0513,35.8975,66.1538,-19.4873,-31.7949,-16.4106,0,-12.8208,2.564,0,5.1279,
14.1025,20.2563,-16.1538,0.25635,30,70.5127,-23.3335,-31.5386,-11.0259,5.3843,-11.0259,-0.25635,-6.4102,6.9229,
12.3079,15.8972,-12.3079,3.0769,24.1023,59.4871,-23.0769,-30.7693,-10.2566,0.51294,-8.718,-0.51294,-3.5896,16.4104,
14.6152,10.5127,-15.1284,5.3843,38.2051,57.1792,-20.7695,-27.9487,-19.7437,-5.8975,-8.4614,-0.25635,0.25635,14.6152,
13.5896,5.3845,-12.5642,3.3333,37.1794,57.1794,-18.718,-40.2566,-17.6926,-3.3333,-6.9231,5.8972,-3.3333,4.8718,
10.2563,5.6411,-4.1025,5.6411,23.5898,48.7178,-22.564,-50.7693,-12.8203,-1.5386,-8.7178,3.5898,-6.1538,1.5386,
18.7178,18.2051,-8.9746,12.564,33.5898,58.2051,-24.3589,-39.7437,-16.1538,-1.7949,-12.564,-5.3848,1.7949,10.5127,
14.6152,7.436,-16.6665,0.25635,35.1284,60.769,-22.3076,-39.7437,-24.3589,-7.9487,-16.6665,-0.25635,2.8203,2.3076,
20.7693,8.9744,-15.6414,3.8459,42.3074,66.4104,-22.8206,-37.1794,-21.282,-5.3845,-14.6155,6.9231,-2.8206,2.8206,
30.5129,23.9744,-13.5896,17.1794,51.5383,74.6155,-21.7947,-26.9231,-15.1282,2.8206,-9.9998,-7.4358,-2.8206,17.8206,
21.5386,16.4106,-6.6665,8.2051,36.9233,62.0513,-15.8975,-32.8203,-16.4102,-2.0513,-8.2051,-9.7437,2.0513,16.9233,
19.231,10.5127,-3.333,-1.7949,36.1538,54.6152,-13.5898,-37.6924,-14.6152,-8.9741,-7.436,2.8208,1.7949,4.3589,
24.1028,14.8718,-9.2307,1.5388,49.7439,67.6926,-14.8718,-30.7693,-8.2048,-3.5896,-1.0256,-3.0769,1.0256,13.3337,
15.3845,9.7434,-15.385,3.0769,36.9231,70.7693,-18.4617,-32.3079,-14.3591,-3.0769,-9.2307,-12.8206,5.1282,14.3586,
9.7437,8.2051,-4.1025,3.5898,21.9231,60,-15.3848,-31.2822,-13.8462,-5.1284,-14.3589,0,10.769,0,
12.0513,11.5386,-4.3589,2.3076,26.4102,51.5386,-12.564,-30.5127,-9.4873,-6.4102,-9.4873,7.436,-0.76904,0.76904,
27.0513,26.5386,-12.8203,12.8208,41.4102,66.5386,-13.3335,-25.1279,-10.769,-3.0767,-5.6411,2.0513,-2.0513,15.769,
30.2563,27.6924,-13.8462,8.7183,47.6924,80,-21.5386,-23.5898,-16.9229,-7.1792,-8.7178,-5.6411,5.6411,20.5127,
20.2566,20.7693,-13.0769,3.8459,35.6409,65.8972,-22.3079,-25.8972,-9.9998,-5.8972,-11.0256,-0.76929,0.76929,5.5127,
25.8975,19.231,-13.5898,7.9487,35.6411,61.2822,-13.5898,-31.5386,-10,-2.8203,-9.4873,2.8203,-5.3848,6.4102,
21.7949,10.5127,-7.436,0.25635,27.9487,54.6152,-6.4102,-33.0771,-18.7178,-9.4873,-5.3848,-0.25635,5.3848,13.0767,
11.5386,5.8975,-10,-1.7949,28.4614,51.0259,-13.0767,-32.0513,-16.1538,-16.1538,-13.5898,1.7949,10.5127,6.4102,
23.5896,17.949,-14.8718,9.7439,41.5383,66.0259,-16.4104,-29.2307,-12.8206,-11.282,-15.3845,1.5383,-1.5383,11.7952,
38.5896,30.5127,-6.4102,16.1538,48.9746,78.2051,-9.4873,-19.2305,-12.564,0.25635,-2.8203,-0.25635,-1.2817,26.7952,
26.9231,15.5127,-11.5383,3.8459,40.7693,63.2051,-17.1794,-24.8718,-15.6409,-6.9231,-9.4871,-3.8459,4.8718,15.6409,
18.2051,1.7949,-15.6411,-0.25635,35.6411,49.4868,-19.7437,-34.6157,-16.1538,-14.6157,-14.1025,0.25635,3.8462,1.2817,
33.2051,16.7949,-11.7949,12.8208,48.7183,64.1025,-15.3848,-31.2817,-12.8203,-5.1279,-9.7437,-0.5127,0.5127,6.6665,
42.0513,23.5898,-9.2305,11.2822,51.7949,69.7437,-13.8462,-31.2817,-13.3335,-2.0513,-12.3076,-5.6411,2.0513,14.3589,
40.2563,22.8203,-6.4102,7.4355,50.5127,70.5127,-13.0771,-29.4873,-18.2051,-7.9487,-14.1025,-1.7949,1.7949,18.2051,
43.8462,30,-11.5386,11.5386,56.1538,74.1025,-15.6411,-17.6924,-18.2051,-5.8975,-6.9233,-0.25635,0.25635,22.8203,
28.8462,23.8462,-14.1025,7.9487,41.1538,59.7437,-17.1797,-19.231,-17.6924,-4.3589,-6.9229,-3.8462,3.8462,16.1538,
24.1023,28.2048,-9.7439,17.4358,29.7434,58.9744,-17.949,-24.1028,-20.5129,-8.718,-15.8977,-1.0256,1.0256,7.6921,
39.1023,37.1794,-11.5388,18.2048,44.7434,69.4871,-17.6926,-21.282,-19.2307,-11.0256,-13.0769,2.8206,-2.8206,15.1282,
33.3335,24.6152,-13.8462,6.6665,38.4614,58.4614,-13.8462,-24.1025,-14.8721,-10.7695,-7.1797,-1.5386,1.5386,22.0513,
23.0769,18.9744,-9.2307,14.3591,28.718,48.718,-12.8206,-27.6921,-12.8206,-6.6667,-13.3333,-5.1282,5.1282,12.3079,
23.0769,22.5637,-9.2312,19.4871,28.7175,51.282,-16.4104,-28.718,-11.2825,-3.5901,-13.3337,5.6409,-1.0256,1.0256,
23.5896,22.051,-21.0256,10.7693,37.9485,52.8206,-22.5642,-28.718,-13.8464,-4.6155,-11.282,5.6409,-9.7439,4.6155,
22.5642,16.9231,-14.3591,8.718,43.0769,48.718,-15.3845,-25.1282,-12.3079,-3.5896,-5.1282,-2.5642,2.5642,16.4104,
13.5901,1.9231,-4.3586,9.4875,28.0769,34.1028,-11.5383,-33.5896,-9.9998,-9.4871,-0.76929,-2.3074,12.5642,8.4617,
17.9487,3.0767,-13.8462,14.8716,22.0513,38.9741,-19.4873,-34.8721,-17.436,-10.2563,-10.2563,0,0,1.5386,
32.9487,18.0767,-16.1536,19.2307,37.0513,53.9741,-18.718,-19.8721,-20.7693,0.76929,-10.5129,-0.76929,-5.8972,7.4358,
28.718,19.9998,-10.2566,10.7693,39.9998,63.5896,-14.8718,-18.4617,-20.0002,-7.1794,-9.2307,-7.6926,7.1794,7.1794,
14.8716,5.6411,-6.667,7.1792,24.9998,48.5896,-13.3335,-32.8208,-19.4873,-16.4102,-14.8721,-5.6411,10.2563,11.7949,
22.5642,14.3591,-9.7434,14.3591,33.3333,54.8718,-17.9485,-30.2566,-19.4871,-6.6667,-15.3845,5.1282,-4.7437,9.2307,
32.8208,29.3591,-14.8716,16.9233,48.3333,69.231,-18.9741,-25.1279,-16.9229,-2.564,-8.2051,2.564,-6.6665,3.5898,
17.8208,15.6411,-10.5127,7.436,33.3333,54.231,-14.6152,-34.6152,-16.6665,-12.0513,-1.7949,-8.9746,1.7949,8.9741,
10,3.8462,-9.4873,8.4614,18.3333,39.231,-19.2305,-36.1538,-19.7437,-10,-10.5127,-3.3335,3.3335,17.1797,
20.2563,8.9746,-18.7178,7.9487,26.9233,47.9487,-24.8716,-33.5898,-24.3589,-4.3589,-21.2822,-0.76904,0.76904,5.3848,
17.9485,10.2561,-10.2566,5.6409,27.6921,50.7693,-9.8716,-30.7693,-16.4104,-0.51294,-6.6667,0.51294,6.6667,-3.5901,
15.3848,8.2051,-12.8203,6.1538,25.6411,42.0513,-15.3848,-27.1797,-14.8716,-0.5127,-8.2051,0,0,3.0771,
22.3076,6.9233,-21.7949,2.8203,29.4873,40.2563,-25.8975,-28.9741,-17.6924,0.25635,-15.1279,-4.8716,-0.25635,12.564,
21.7947,4.8718,-13.0769,4.3591,29.4871,36.6667,-20.2566,-35.1282,-15.1282,-4.3591,-14.6155,-5.8972,4.8718,4.3591,
26.9231,16.6667,-8.4617,18.718,42.3079,45.3845,-15.1282,-25.8972,-8.4617,-5.3845,-14.1028,3.3333,0.76929,-0.76929,
20.5132,14.8721,-20.5127,10.7695,45.1284,48.7183,-21.5381,-26.6665,-16.9229,-8.2051,-19.4868,2.0513,-2.0513,5.6411,
18.4617,14.3586,-24.6155,3.0769,50.2561,54.8718,-25.6414,-32.8206,-22.5642,-2.5642,-20.0002,-5.1282,2.5642,9.7434,
25.3845,17.6921,-21.7947,6.4104,52.5642,59.2307,-28.9744,-31.0256,-20.2566,1.282,-16.1541,-8.9744,-1.282,7.9485,
24.3591,18.718,-21.282,7.949,48.4617,53.5901,-27.4358,-25.3845,-21.7947,1.282,-17.1794,-3.8459,-1.282,19.7439,
12.564,15.6411,-26.9229,3.3335,42.8203,47.436,-27.9487,-32.0513,-24.8716,-1.2822,-23.8462,-11.0259,1.2822,20.2563,
17.949,12.8206,-21.5383,4.6155,48.2053,49.7439,-24.1023,-35.8972,-17.4358,-3.0769,-18.4612,-19.4871,3.0769,7.6926,
32.949,16.9231,-16.4104,8.718,63.2053,55.3845,-18.9744,-32.3079,-13.3333,-2.5642,-16.9231,-9.7434,2.5642,8.2053,
37.4358,17.4358,-15.8972,3.5896,60.5129,49.2307,-16.9231,-30.2566,-13.8459,-1.5383,-16.4104,-3.5896,1.5383,17.4358,
24.6152,17.436,-13.3335,3.0771,45.6411,42.564,-19.4873,-28.2051,-12.3076,-3.0771,-15.8975,-12.8203,6.6665,13.3335,
29.4871,21.7947,-18.718,3.8459,51.0256,48.4617,-25.3845,-30.0002,-17.6921,-3.3333,-23.3333,-16.6667,9.4871,3.3333,
38.4614,22.564,-19.4873,0.51269,57.436,54.8721,-25.1279,-29.7437,-20,-0.5127,-20.5127,-12.3076,2.564,3.5898,
39.4875,28.2053,-16.4099,7.6926,55.385,57.4363,-23.0769,-25.6409,-15.3845,1.0256,-14.8718,-12.3074,-1.0256,10.7693,
24.4875,18.9744,-15.3845,1.0256,40.385,44.6155,-22.051,-29.7434,-14.8718,-1.0256,-21.5383,-14.3586,6.6667,8.718,
17.9487,14.3589,-13.8462,-3.5898,32.8203,42.0513,-21.0254,-31.7949,-10.769,3.5898,-19.4873,-9.7437,11.2822,5.1284,
32.9487,22.8203,-22.8208,2.8203,47.8203,52.564,-26.9233,-36.1538,-14.1025,1.7949,-17.1797,-15.6411,-1.7949,2.8203,
24.8716,16.1538,-15.1284,0.25635,42.3076,43.333,-17.6924,-33.5898,-11.5386,0.25635,-8.4619,-12.0513,-0.25635,6.9229,
9.8716,1.1538,-0.12842,-6.667,27.3076,28.333,-10.2563,-27.6924,-3.5898,3.0767,-3.5898,1.5386,13.333,9.7437,
1.7949,-1.7949,-3.8462,-3.8462,21.2822,38.2051,-21.2822,-31.5386,-5.8975,3.8462,-10.5127,4.3589,7.436,13.0771,
16.7949,9.231,-11.2817,8.7183,36.2822,48.7183,-26.1538,-27.6924,-9.2305,4.1025,-15.3843,-4.1025,-4.1025,23.5898,
16.9231,10.2566,-13.8459,4.6155,37.949,35.385,-24.615,-25.6409,-11.7947,-1.0256,-19.9998,-18.9744,1.0256,14.8718,
11.2825,7.6926,-1.0256,-3.5896,26.6667,34.3591,-14.3586,-30.7693,-4.1023,4.6155,-13.3333,-9.2307,16.0256,1.0256,
24.1025,12.8208,-4.1025,-0.5127,37.436,43.5898,-19.4873,-37.9487,-7.1792,5.1284,-17.9487,-0.5127,5.6411,0.5127,
39.1025,27.436,-11.5386,12.5645,52.436,53.0771,-20.2563,-34.6152,-10.5127,3.8462,-17.1792,-7.4355,-3.8462,15.1284,
35.6409,20.7693,-11.5383,2.8206,49.9998,46.4104,-18.718,-39.7434,-9.4871,-2.8206,-16.6667,-12.0515,5.8972,9.9998,
34.8718,22.5642,-8.2053,-1.5383,53.3333,48.2053,-19.4871,-35.3845,-0.51294,0.51294,-15.3845,-5.1282,17.949,6.6667,
27.436,18.2051,-10,-0.25635,51.5386,41.2822,-18.2051,-29.4873,-5.8975,0.25635,-12.0513,-12.0513,10.5127,3.8462,
19.7434,8.4617,-6.9231,0.76929,44.3586,35.6409,-11.0256,-30.0002,-10.5129,-0.76929,-11.5383,-6.4104,5.8972,4.3586,
22.0515,8.2053,-5.1282,-0.51294,41.0256,35.3845,-13.8459,-31.282,-8.718,-4.6155,-15.8972,0.51294,5.1282,9.2307,
26.4106,14.6157,-2.3076,2.3076,41.7949,37.6924,-13.5894,-26.9229,-8.4614,-4.3589,-11.0254,-4.3589,7.436,10,
24.1028,15.3845,-12.3079,3.5896,44.6155,39.4871,-18.4617,-30.7693,-15.3845,-1.5383,-17.9485,-8.2053,3.5896,1.5383,
18.9746,11.7949,-14.8716,-2.564,41.0259,38.9746,-20,-37.436,-10.769,2.564,-22.564,-6.6665,3.5898,3.0771,
21.7949,13.0771,-13.0767,-1.7949,48.4619,41.7949,-23.333,-34.6152,-5.8975,1.7949,-20.2563,-15.1279,5.8975,8.9746,
34.3589,24.6152,-22.564,4.6152,63.4619,50.769,-28.7183,-27.1797,-15.3848,-4.6152,-26.6665,-22.0513,4.6152,8.7178,
43.0771,34.3589,-16.4102,4.1025,67.1797,57.9487,-15.3843,-24.6152,-16.4102,-4.1025,-21.0254,-7.0513,7.6924,12.3076,
33.3333,25.6409,-6.6667,2.0515,55.8972,49.7434,-8.718,-26.6667,-8.718,-2.5642,-14.3591,-2.0515,13.8459,11.7947,
22.8208,13.5898,-8.9741,3.8462,50,34.7434,-16.1538,-31.0254,-10,-3.8462,-16.1538,-16.1538,13.0771,5.8975,
33.5898,26.9233,-12.0513,7.9487,54.1025,40.2563,-17.6924,-31.5386,-15.6411,-0.25635,-17.6924,-13.5898,0.25635,1.7949,
38.2051,31.5386,-9.4873,5.8975,47.9487,49.4873,-14.1025,-27.436,-13.5898,0.76904,-15.6411,-2.3076,-0.76904,2.8203,
30.7695,16.5386,-5.1279,0.51269,35.3848,34.4873,-9.7437,-25.6411,-7.6924,-0.5127,-10.2563,-1.5386,10.7695,9.7437,
38.2053,14.1028,-5.3845,0.76929,42.3079,28.9744,-13.5896,-31.0256,-11.5383,-0.76929,-12.5642,-11.0256,2.8206,7.949,
34.3589,20,0,0,34.8716,27.1797,-12.8203,-30.769,-9.231,2.564,-11.2822,-8.2051,0,5.6411,
19.3589,5,-4.8718,-2.8206,19.8716,12.1797,-17.6921,-33.0769,-12.051,-1.282,-15.6409,3.3333,2.8206,1.282,
21.5381,8.7178,-12.3081,0,11.7944,25.1279,-22.0513,-30.7695,-16.4106,0,-20,4.6152,-4.103,5.1279,
28.7178,18.9741,-4.1025,-1.5386,26.1538,34.8716,-13.3335,-21.0259,-12.8203,7.1797,-9.231,1.5386,-4.1025,16.9229,
13.7178,3.9741,-5.1282,-5.1282,14.3591,19.8716,-13.8459,-26.6667,-15.8972,1.0256,-11.7947,0.51294,-0.51294,9.2307,
5.3845,-4.8718,-2.8206,1.7947,12.5642,4.8716,-13.5896,-29.4871,-12.5642,-1.282,-8.4617,7.4358,1.282,2.8206,
11.5386,-0.76904,1.7949,0.76904,13.5898,13.5898,-15.1284,-31.0259,-14.1025,-7.436,-5.8975,2.8203,-7.9487,3.3335,
7.1794,1.5383,3.0769,2.0515,13.3333,4.6155,-11.7947,-33.3333,-18.9744,-11.282,-15.3845,-1.0256,-12.8206,1.0256,
8.7178,3.5894,10.769,8.2051,15.8975,2.0513,-2.0513,-25.6411,-16.4106,-3.5898,-10.2563,8.2051,-3.5898,-4.6157,
12.8203,9.7437,2.564,7.6924,23.5898,13.333,-17.0513,-23.5898,-21.5386,-10.7695,-7.1797,4.1025,-11.2822,-2.564,
12.3076,12.8203,-0.5127,7.1797,28.7178,22.564,-21.0259,-25.6411,-19.4873,-10.769,-7.1797,0.5127,-18.4614,12.436,
7.1792,0,4.1025,1.0254,21.5386,13.333,-12.3076,-28.7183,-14.3589,-3.0771,-9.231,0,-15.3848,8.7178,
19.4873,4.1025,-2.564,2.0513,33.8462,14.8716,-14.3589,-21.0259,-11.7949,0,-10.7695,0,-15.8975,0.51269,
26.4104,13.0769,-2.8206,3.8459,40.2566,19.7434,-15.1282,-20.7693,-11.0256,-1.7947,-8.4617,1.7947,-17.6921,6.9231,
15.1279,8.4614,1.7949,0.25635,29.4868,14.1025,-15.6411,-27.9487,-14.6157,-5.8975,-10.5132,0.76904,-15.1284,-0.25635,
15.3845,10.2566,1.5383,3.5896,25.1282,17.4358,-12.3079,-18.9744,-10.7693,-2.0515,-4.1028,4.6155,-7.1794,-1.5383,
10.2563,7.1792,-2.5645,2.0513,14.3589,14.8716,-13.3335,-20.5127,-11.2822,-5.1284,-2.0513,5.1279,-14.3589,2.0513,
6.1541,3.0769,-1.0256,2.0515,12.8206,7.6921,-16.9231,-30.7693,-19.4871,-7.6921,-9.7434,1.0256,-28.2053,1.5383,
8.9744,2.8206,2.3079,1.282,19.7434,6.9231,-16.1541,-32.5642,-20.7693,-7.4358,-5.8977,3.8459,-25.3845,-1.282,
6.9229,0.76904,0.25635,0.76904,19.7437,10,-14.1025,-23.8462,-17.1797,-9.4873,-2.8208,11.0254,-14.1025,-0.25635,
0,0,4.6152,6.6665,19.4873,5.6411,-4.6152,-12.3076,-11.7949,-2.0513,-3.5898,10.769,-2.0513,6.6665,
1.0259,-0.5127,7.6924,7.1797,23.0771,0,-4.1025,-22.0513,-10.769,0,-3.0767,8.7183,-4.1025,1.0259,
16.0259,10.5129,0.76929,11.0256,37.6921,15,-10.5129,-25.8972,-11.0256,-1.282,-3.3333,12.5642,-11.5383,-0.76929,
9.2307,3.0769,-1.5383,1.5383,25.1282,12.8206,-11.282,-18.9744,-12.8206,-4.6155,-2.5642,6.1536,-11.7952,4.6155,
-5.7693,-2.8206,7.949,2.8206,19.2307,1.7952,-4.3586,-14.6155,-9.4871,-1.282,1.282,6.4104,-5.3845,10.5129,
0,2.0513,0,8.7178,28.2051,4.6152,-11.2822,-24.1025,-17.436,-6.6665,-10.769,8.2051,-11.7949,5.1284,
5.6409,5.1282,-3.0769,6.1536,24.615,10.7688,-10.7693,-25.1287,-24.6155,-8.718,-19.4875,10.2561,-13.3337,3.0769,
10.5127,11.0254,-1.7949,11.5386,28.4614,18.2051,-8.9746,-22.8203,-23.8462,-5.8975,-20.769,1.7949,-10.5127,3.8462,
21.0256,22.051,-1.0256,19.9998,43.4614,26.1536,-7.6921,-19.4871,-11.282,-1.0256,-5.769,1.0256,-8.718,7.6921,
7.1794,9.7434,-7.6926,4.9998,35.3845,12.8201,-10.2566,-22.0515,-12.8206,-5.1287,-1.0256,4.615,-14.8718,1.0256,
-3.3333,4.3591,-1.282,0.25659,20.3845,15.1282,-2.3079,-15.6409,-12.0515,2.8206,-0.25659,11.0256,-1.282,4.8718,
-8.2051,-2.0513,1.5386,6.1538,8.2051,5.6411,-5.6411,-21.5386,-15.8975,0,-2.0513,5.6411,0,4.6152,
6.7949,1.0256,-0.51294,7.1794,23.2051,-1.0256,-11.7947,-22.0515,-9.7434,0.51294,-1.0256,10.2566,-10.2566,4.6155,
14.6155,1.282,-4.8718,-2.3079,29.9998,5.8972,-12.5642,-19.2307,-2.3079,6.4104,-1.282,11.5383,-12.5642,6.4104,
8.4612,0.76929,-4.8718,-0.76929,20.7693,14.1023,-10.5129,-21.2825,-5.8977,8.9744,-1.2825,5.3845,-5.385,2.3074,
7.9487,10,-8.9746,6.4102,19.231,13.0767,-15.1284,-25.8975,-14.1025,2.8203,-10.5127,2.3076,-4.8716,-2.3076,
5.1282,12.3079,-13.8459,1.5383,17.949,7.6926,-18.9744,-25.1282,-16.4104,-1.0256,-13.8459,1.0256,-10.2561,1.5383,
0.25635,7.9487,-13.0771,-0.25635,18.2051,13.5898,-13.5898,-14.1025,-14.6157,2.8203,-7.9487,0.76904,-11.0259,6.4102,
-2.0513,2.0513,-7.6924,3.5894,14.8716,16.4102,-7.1797,-13.3335,-15.3848,5.1279,-6.1543,6.1538,-8.2056,5.6406,
0,1.5386,-8.7178,2.5645,14.8721,7.1797,-15.8975,-24.6152,-14.8716,0,-11.7949,7.6924,-11.7949,3.0771,
9.4871,9.4871,-14.6155,5.8977,29.8721,8.9744,-23.8459,-20.2566,-9.9998,-1.282,-14.6155,1.282,-10.5129,9.4871,
9.7434,7.1794,-13.3333,4.6155,34.3591,19.4871,-12.3079,-12.3079,-10.2566,1.5383,-8.2053,-1.5383,-3.0769,13.3333,
9.4873,8.4614,-15.1284,3.3335,30,30.5127,-6.9229,-17.6924,-16.1538,-2.3076,-8.4614,2.3076,-6.4102,9.4873,
8.4614,12.564,-15.6411,3.8462,26.4102,27.9487,-14.1025,-19.7437,-13.5898,-2.3076,-10,2.3076,-8.4614,4.3589,
-0.51294,5.6409,-9.7439,0.51294,20.5129,15.3845,-14.8718,-13.8464,-8.2053,4.6155,-6.1541,2.051,-5.6409,1.0256,
-0.51294,5.6409,-9.7439,0.51294,27.6921,15.3845,-10.7693,-20.5129,-8.718,7.1794,-6.1541,4.1023,-7.6921,6.1536,
0.76904,3.3335,-7.9487,-0.76904,28.4614,15.6411,-11.0259,-25.8975,-7.436,4.3589,-2.3076,6.4102,-7.436,11.5386,
-0.25635,-0.25635,-7.9487,0.76904,19.2305,13.5894,-17.1797,-16.1538,-9.4873,1.2817,0.25635,5.3843,-7.9487,11.5381,
5.8972,4.8718,-8.9744,4.3591,17.1794,9.9998,-15.6409,-18.2053,-17.6921,-3.3333,-2.3079,2.3079,-7.949,5.8972,
13.3335,9.231,-0.5127,6.667,20,5.1284,-0.64087,-23.0767,-15.8975,-5.6411,-5.6411,8.2051,0.5127,-1.0254,
16.1538,10,-3.8462,5.3848,25.3848,15.6411,-3.3335,-10.5127,-17.6924,-4.3589,-14.6152,10.5127,-7.436,3.3335,
16.1538,11.0254,-10,0.76904,25.8975,23.8462,-11.0259,-5.3848,-21.7949,-0.76904,-8.9746,6.9229,-20.2563,10.5127,
15.6409,7.9485,-6.9231,3.3333,24.3591,8.8462,-11.5383,-16.1541,-17.6921,-2.3079,-3.3333,6.4104,-14.1028,2.3079,
9.7437,0.51318,1.5386,3.0771,24.6157,-5.6406,-4.1025,-15.8975,-9.2305,0,-3.0767,11.7949,-4.1025,0,
-4.8718,-10.0002,3.3333,-7.4358,14.6155,0.25659,-0.25659,-14.6155,-8.9744,3.3333,0.76929,15.6409,-6.4104,6.9231,
2.8206,-4.3591,-7.4358,-0.76929,19.7434,11.5383,-9.4871,-20.7693,-11.5383,1.7947,0.76929,7.4358,-5.8977,5.8972,
14.3589,8.2051,-10.769,11.2822,28.7178,10.769,-12.3076,-17.436,-11.7949,0.5127,-1.0254,1.5386,-7.1797,-0.51269,
4.3586,2.8206,-7.4363,3.8459,16.1536,2.8206,-9.4875,-11.5388,-12.5642,-0.76929,-6.9231,8.4612,-12.5642,0.76929,
2.0513,-2.0513,-5.6411,3.0767,17.9487,6.1538,-3.0771,-7.6924,-6.1538,5.6411,-2.564,16.9229,-3.5898,15.7693,
-2.3079,-6.9231,0.76929,2.3079,21.282,4.3591,-7.9485,-19.7434,-14.1028,1.282,-0.76929,8.4617,-5.3845,13.0769,
-0.25635,0.25635,15.7693,4.3589,21.2817,11.0254,-14.1025,-20.2563,-12.564,0.25635,-3.3335,7.436,-10,-1.9231,
-4.1028,-4.1028,30.7693,-1.0256,12.3079,8.2053,-10.7693,-10.7693,-1.0256,8.2053,1.0256,12.8206,-7.1794,3.5896,
-7.4358,-9.9998,45.7693,1.282,14.6155,-1.282,-4.3591,-15.1282,-3.3333,12.0515,6.9231,12.5642,-3.3333,14.1028,
-0.25635,0.25635,51.0259,7.436,23.3335,5.8975,-10,-21.2817,-17.1792,0.76953,-1.7949,3.3335,-11.5386,-0.25635,
2.5642,3.5901,55.8977,4.1028,14.3591,8.2053,-7.1794,-11.282,-16.4099,-2.5642,-5.1282,10.2566,-14.3586,-5.1282,
-1.282,-0.76929,53.5896,4.8718,10.5129,0.76929,-3.8459,-6.4104,-9.9998,6.9231,-6.9231,21.282,-9.4871,9.8718,
-1.282,-2.8206,47.4358,4.3591,11.5383,1.282,-11.5383,-16.6667,-11.0256,7.949,-8.4617,13.5896,-15.1282,4.8718,
5.3845,-3.3333,54.1023,2.3074,6.9231,0.76929,-12.0515,-17.6926,-5.3845,6.4104,-0.76929,12.5642,-19.2307,-6.4104,
6.9229,-3.8462,55.1284,4.3589,11.5386,-1.7949,-5.3848,-8.4614,-2.8203,7.436,1.7949,17.1797,-6.4102,-3.3335,
2.3076,-6.9229,52.0513,1.2822,13.5898,-1.2822,-4.3589,-12.0513,-8.4614,1.2822,-1.7949,5.3848,1.2822,-1.2822,
6.9231,-0.76929,51.5383,5.8977,14.6155,3.3333,-7.9485,-17.1794,-12.051,-5.3845,-7.4358,0.76929,-8.4617,1.282,
8.4617,1.7947,50.5129,10.0002,17.6921,2.8206,-10.5129,-11.5383,-14.1023,-8.4617,-11.0256,15.1282,-14.1023,-1.7947,
12.051,4.3591,51.0256,12.051,28.4617,8.9744,-8.9744,-5.3845,-12.5642,-5.3845,-7.4358,16.1536,-10.0002,-4.3591,
14.3589,7.6924,42.564,9.231,31.2822,13.3335,-15.3848,-13.8462,-12.8208,-4.1025,-8.7178,1.1536,-18.9746,2.564,
2.3076,0.25635,40.7695,1.7949,17.1797,-0.25635,-12.0513,-18.7178,-8.9741,-2.3076,-3.8462,1.7949,-17.1792,5.3848,
0,-6.6665,50.2563,3.5898,13.8462,-8.2051,-0.5127,-11.2817,-3.0767,3.0771,1.0259,14.3594,-2.1792,-1.5381,
2.3076,-7.9487,55.1284,6.9233,10.5127,-5.3843,-2.8203,-11.0254,-0.76904,8.4614,0.25635,9.4873,-1.2817,-0.25635,
-1.7949,-8.9741,51.5386,4.8716,4.8716,-4.3589,-9.4873,-18.2051,-0.25635,7.9487,3.8462,5.3848,-16.1538,0.25635,
3.8462,-3.3335,46.9229,6.4102,16.6665,-2.8208,-5.8975,-14.1025,-1.7949,3.8462,1.7949,12.0513,-13.5898,-7.436,
5.8972,-1.282,51.5383,7.4358,14.6155,-1.7952,0.76929,-5.3845,-3.3333,2.3074,-2.3079,14.1023,-3.8464,-0.76929,
1.2817,-1.2822,48.9741,7.436,6.9229,-0.25635,-7.436,-10.5127,-10,0.25635,-8.9746,5.8975,-14.6152,4.8716,
5.6411,0,48.7183,6.1538,15.3848,0,-7.6924,-15.3843,-12.8203,-2.564,-6.1538,7.6924,-12.8203,2.0513,
2.0513,-10.2563,57.436,0,11.2822,-7.6924,-1.5386,-12.8203,-12.8203,-9.231,1.5386,14.8716,0,1.0259,
5.3845,-4.3591,56.1541,10.5129,16.1541,-2.3079,-2.8206,-3.3333,-8.9744,-5.8972,2.3079,18.718,-5.8972,3.8464,
12.051,1.7947,46.9231,16.1536,18.718,-0.76929,-3.3333,-6.4104,-6.9231,0.76929,-0.76929,18.2048,-17.1794,-2.3079,
11.7947,-1.0256,48.2048,10.2561,9.7434,-1.0256,-1.5388,-6.6667,-11.282,1.0256,-1.0256,19.9998,-11.7952,1.0256,
6.1538,-3.5898,49.7437,5.6411,4.6152,2.0513,-6.6665,-7.6924,-17.436,-6.1538,-2.0513,13.3335,-5.6411,8.2051,
3.3335,-7.436,53.0771,10,1.7949,-7.9487,-0.76904,-17.6924,-8.4614,-1.2822,5.3848,14.6152,-0.76904,0.76904,
0.76929,-10.5129,50.0002,13.5896,0.25659,-14.1023,-0.25659,-16.6667,-7.9485,5.3845,3.8464,17.6921,-5.3845,-6.9231,
0,-6.667,49.2305,10.769,4.6152,0,-4.6157,-3.5898,-13.3335,4.1025,-2.0513,12.8203,-9.231,3.0767,
0.5127,-0.5127,50.769,10.769,12.8203,6.1538,-3.5898,-7.1797,-9.231,-1.5386,-5.1284,10.769,-10.7695,7.6924,
1.7947,-0.76929,43.8459,14.6155,18.2053,8.4617,-0.76929,-15.6409,-4.3591,0.76929,-2.3079,13.0769,-16.6667,-5.8972,
0.25635,-4.3594,36.6665,4.8716,11.5381,10.5127,-10,-12.5645,-12.5645,1.7949,-0.25635,4.8716,-22.8208,-14.1025,
3.0771,5.6411,42.0513,3.5898,0,5.6411,-12.8203,-10.2563,-15.3843,-0.5127,-5.6406,2.5645,-14.3589,0,
10.7693,15.3845,48.2053,11.7947,-5.1282,7.1794,-1.0256,-13.8459,-6.6667,1.0256,-7.1794,15.8972,-11.7947,-3.0769,
21.2822,19.7437,33.2053,7.9487,9.8718,18.7178,-14.1025,-17.6924,-17.6924,-7.9487,-15.1284,9.4873,-26.7947,-18.0769,
36.2822,34.7437,32.8203,11.2822,24.8718,30.769,-16.4102,-13.3335,-21.0259,-4.1025,-14.3589,1.5386,-27.1797,-3.0769,
33.0767,47.436,43.333,7.436,28.9741,16.6665,-6.4102,-20.7695,-22.8208,-5.8975,-13.5898,-1.7949,-12.1797,1.7949,
40.7693,52.051,39.7434,11.5383,29.9998,24.8718,-7.4358,-13.0769,-20.7693,-8.4617,-13.5896,7.4358,-18.718,-13.2051,
47.6926,55.385,32.8206,7.1794,31.7952,27.6926,-14.8718,-6.6667,-19.4871,-8.718,-13.3333,6.6667,-32.3074,-25.1282,
43.5894,56.4102,43.5894,7.6919,20.5127,17.4355,-6.667,-9.231,-16.4106,-4.1025,-6.667,4.1025,-19.4873,-10.1282,
41.7949,58.7178,43.3335,16.1538,19.7437,18.7178,-3.3335,-8.4614,-15.6411,-4.8716,-9.4873,3.3335,-15.1284,-10,
30.7693,49.2307,35.8977,11.7952,21.0256,15.3845,-8.2048,-7.1794,-17.4358,-8.718,-15.8972,7.1794,-30.1284,-15.3845,
26.9233,41.7949,28.4614,10.5127,23.8462,16.1538,-15.6411,-10,-20.2563,-8.4614,-18.7178,8.4614,-32.564,-17.1792,
32.8203,41.0254,30.769,16.4102,30.2563,22.0513,-14.8721,-7.6924,-17.9487,-4.1025,-10.7695,4.1025,-19.4873,-5.6411,
18.2048,26.0254,38.2048,8.4617,21.7947,7.0513,-8.9744,-11.5383,-18.718,-5.8977,-7.949,1.282,-19.7439,-1.282,
8.9746,11.0254,46.4102,5.8975,14.1025,-2.8203,-0.25635,-8.4614,-13.5898,0.25635,-7.436,7.9487,-10.5127,-7.9487,
2.8206,1.282,42.3079,4.3591,6.9231,-0.25659,-3.8459,-7.9485,-9.9998,0.25659,-4.8718,13.0769,-5.3845,-10.5129,
3.333,8.4614,36.6665,12.0513,15.6411,1.7949,-11.5386,-8.4614,-8.4614,-1.7949,-2.3076,16.6665,-16.1538,-3.8462,
4.6152,7.1797,35.3848,15.3848,18.4614,-4.1025,-9.7437,-2.564,-9.7437,0.5127,-0.5127,9.7437,-14.8721,-6.1538,
-1.2822,-2.8208,41.7949,8.4614,10.5127,-4.3589,-3.3335,-0.25635,-8.9746,4.3589,4.3589,14.1025,0.12793,-6.4102,
-1.5383,-2.0515,39.9998,8.2048,9.7434,3.0769,-8.2053,-8.718,-12.3079,3.0769,-3.5901,21.5383,-7.6926,1.5383,
2.8206,-3.3333,39.2307,12.5642,6.9231,-2.8206,-7.949,-7.949,-12.5642,2.8206,-3.3333,16.1541,-12.0515,4.3591,
2.0513,-12.3076,41.5386,10.2563,3.5898,-14.8716,-4.1025,-3.0771,-10.2563,4.6152,4.6152,17.436,-2.0513,-4.1025,
1.5386,-14.8716,41.5386,7.1797,11.7949,-14.8716,-3.0767,-5.6411,-8.2051,7.6924,5.6411,27.6924,-1.5386,-5.6411,
-0.76929,-17.6921,39.7434,6.4104,13.0769,-14.1028,-4.3591,-10.0002,-11.0256,6.4104,0.76929,21.7947,-6.4104,1.7947,
3.0767,-14.3589,35.8975,9.7437,16.4102,-11.2822,-5.6411,-2.0513,-10.2563,5.6411,-1.5386,19.4873,-4.6152,1.5386,
-0.25659,-14.6155,33.0769,5.8972,12.5642,-13.5896,-8.9744,2.3079,-10.0002,1.7947,0.25659,20.2566,-6.4104,-13.4614,
-1.0256,-14.8718,37.4358,6.6667,9.2307,-13.3333,-7.1794,1.0256,-5.6414,5.1282,1.0256,13.8459,-3.0769,-6.1541,
-0.51294,-14.8718,41.5383,12.8206,9.2307,-13.3333,-2.051,-3.0769,-1.5383,9.2307,-1.0256,17.4358,0.51294,8.2053,
-7.1792,-18.4614,43.5898,15.3848,6.1538,-17.4355,0.5127,-5.1279,-3.0767,5.1284,4.1025,28.2051,-6.1538,-0.51269,
-8.9744,-11.5383,38.2053,14.6155,20.2566,-6.9231,-3.8459,2.3079,-7.4358,2.8206,6.9231,18.2053,-4.8718,-2.3079,
-16.9229,-16.4102,32.3076,6.6665,13.8462,-9.231,-9.7437,-0.51269,-11.2822,0.5127,-0.51269,6.1538,0.5127,2.564,
-12.8206,-15.3845,36.4099,16.4099,7.6921,-14.3591,-6.6667,2.5642,-4.6155,3.5896,-0.51294,21.0256,-1.5383,0.51294,
-7.436,-9.4873,31.0259,18.2051,18.7178,-3.3335,-10,3.3335,-7.436,2.8203,-0.25635,19.7437,-10,0.25635,
-19.4873,-18.4614,26.1538,3.2051,8.7183,-0.5127,-10.2563,-7.6924,-16.9229,3.0771,0.5127,6.1538,-13.333,6.667,
-21.7949,-18.7178,30,8.4614,2.8203,-7.436,-3.8462,-0.76904,-10.5127,7.436,0.76904,13.0767,-10.5127,7.9487,
-15.3848,-14.3589,32.8203,13.8462,10.769,-12.8208,-2.0513,6.1538,0,5.1279,0,19.4868,-6.667,-3.5898,
-5.1279,-11.7949,35.3848,12.8208,20.5132,-9.7437,-3.0767,0,-1.0254,4.1025,5.1284,21.0259,0,-9.7437,
-3.8459,-12.5642,31.0256,11.5383,22.3079,-7.949,-5.8972,-4.8718,-8.9744,5.8972,2.8206,17.6921,-0.25659,0.25659,
-13.3335,-18.4614,31.7949,6.6665,11.7949,-9.231,-1.5386,-0.5127,-7.1797,7.6924,0.5127,16.9229,-4.6152,12.8203,
-10.7693,-17.4358,32.8206,10.7693,6.1536,-14.3591,-0.51294,-1.5383,-1.5383,5.6409,0.51294,19.9998,-9.2307,6.6667,
-3.8462,-13.0771,34.1025,14.1025,8.9741,-19.231,-0.25635,-3.8462,-1.2822,5.3843,6.9229,25.3843,-3.3335,0.25635,
-15.6411,-20.2563,32.564,6.4102,4.3589,-16.1538,-2.3076,-3.8462,-9.4873,4.3589,2.3076,20.2563,-4.8716,3.8462,
-15.3843,-17.9487,33.3335,14.8721,6.667,-5.1279,-3.5898,3.5898,-5.6411,8.7183,-4.1025,17.9487,-9.2305,7.1797,
-7.949,-20.2566,28.9744,15.1282,7.9485,-12.5642,-8.4617,1.282,-0.76929,6.4104,-0.25659,22.3079,-7.949,0.25659,
-22.949,-19.4871,24.1028,10.7693,14.8718,-10.7693,-9.7434,-7.1794,-4.1023,3.0769,1.0256,22.0515,-1.0256,7.6926,
-37.949,-11.5386,25.8975,14.1025,21.2822,4.2307,-7.436,-10,-8.9741,2.8203,-2.8203,12.0513,-3.3335,11.0259,
-52.949,-9.2307,27.1794,15.385,15.385,3.5901,-6.1536,-5.1282,-4.1023,4.1028,-1.0256,11.282,-7.1794,1.0256,
-67.949,-11.7949,26.6665,13.8462,5.1279,-8.2051,-6.1538,-0.5127,-0.5127,6.1538,0.5127,18.9741,-2.0513,0.5127,
-82.949,-19.4871,28.7183,11.2822,1.0259,-15.897,-5.1279,-5.1279,-4.6152,4.6157,2.0518,16.4106,0,0,
-97.949,-19.7437,29.4871,10.0002,10.5129,-16.1538,-4.3591,-9.9998,-1.7947,7.4358,7.4358,14.1028,1.7947,-4.3591,
-112.949,-26.4102,25.8975,-0.76904,5.8975,-18.718,-4.8716,-12.564,0.76904,5.3848,4.8721,12.564,4.3589,-4.8716,
-127.949,-24.3589,26.9231,-1.282,2.3079,-14.6155,-1.7947,-8.4617,0.76929,0.76929,2.3079,15.6409,1.7952,-0.76929,
-142.949,-10.2568,23.5894,11.2817,8.7178,-6.667,-4.6157,-11.2822,0,4.1025,0,17.9487,-6.1538,1.5381,
-157.949,-15.1284,26.4102,10,-3.3335,-18.7178,-3.8462,-19.7437,0.25635,8.9741,5.8975,17.1792,-0.25635,0.76904,
-172.949,-16.4104,32.3076,11.2822,-0.5127,-15.8975,-1.5386,-4.7437,0,8.2051,9.231,22.0513,7.6924,0,
-187.949,-5.1287,26.6663,14.8713,14.4873,-1.0256,-5.1287,3.5896,-2.5642,1.0256,2.5637,19.9998,-2.5642,-4.1028,
-202.949,-4.3591,30.5129,12.5642,12.5642,-8.4617,-1.282,-10.0002,1.7947,1.282,6.4104,22.3079,-2.3079,-4.3591,
-214.8716,-5.6409,30.7693,13.3333,11.7952,-8.718,-1.0256,-8.718,1.0256,1.0256,6.1541,22.0515,-2.5642,-4.6155,
-215.3845,-6.1538,30.769,14.3589,11.7949,-8.7178,-1.0259,-7.6924,1.0259,1.5386,6.1538,22.564,-2.564,-4.1025,
-216.1541,-6.4104,31.0256,15.6409,11.5383,-8.4617,-0.76929,-5.8977,0.76929,2.3074,6.4099,23.3333,-2.3079,-3.8464,
-216.4104,-6.6667,31.282,17.4358,11.7947,-8.2053,-0.51294,-4.6155,0.51294,3.0769,6.6667,24.1023,-2.0515,-3.0769,
-217.436,-7.6924,31.2817,18.4614,11.2817,-7.6924,0,-3.0771,0,3.0767,6.6665,24.1025,-2.0518,-3.0771,
-218.4617,-8.7183,31.7949,19.4873,11.2817,-7.6924,0,-1.5386,0,4.1025,6.6665,25.1279,-1.5386,-2.5645,
-218.2051,-4.8721,30.5127,21.7949,11.0254,-7.436,-1.7949,-3.3335,-1.2822,2.3076,3.3335,20.2563,-4.3589,1.2822,
-221.282,-14.1023,30.0002,15.1282,-1.282,-13.0769,-3.8459,-18.3335,1.282,1.282,3.8464,14.6155,-12.5642,2.8206,
-219.231,-13.0769,33.0769,16.1536,7.4358,-12.0515,-2.8206,-19.2307,2.8206,6.9231,6.9231,11.0256,-10.0002,-6.4104,
-225.3848,-15.1284,34.6152,11.0254,2.3076,-19.231,-2.3076,-10,2.3076,8.4614,7.436,14.6152,-10.5127,-10.5127,
-216.9231,-12.3076,36.9229,17.9487,-9.7437,-17.436,0,-7.6924,5.1284,11.7949,3.5898,24.1025,-15.3848,0,
-205.3845,-10,36.6665,22.8208,-6.9229,-10,0.76953,-10.5127,-0.25635,8.9746,2.3076,15.6411,-16.6665,0.25635,
-203.5898,-9.2307,38.4617,17.9485,6.6667,-6.1541,-0.51294,-8.2053,-1.5383,7.1794,5.6409,13.3333,-10.7693,0.51294,
-200.2566,-1.7952,31.5383,19.7434,9.9998,-5.8977,-3.8464,-6.4104,1.282,8.9744,-1.282,18.718,-14.1028,3.3333,
-200.2563,-2.3076,28.4614,20.2563,-1.2817,-12.0513,0.76953,-5.3843,0.25635,7.436,0.76953,13.5898,-16.6665,-0.25635,
-201.5386,-8.718,33.3333,18.9744,-1.5383,-9.2307,4.6155,-3.0769,-1.0256,7.1794,7.6921,13.8459,-4.1028,1.0256,
-199.4871,-10.7693,33.8459,16.9231,-0.51294,-2.5642,0.51294,-3.5896,-3.0769,4.6155,4.1028,20.0002,-6.6667,5.6409,
-192.0513,-0.76929,30.0002,22.8206,3.3333,0.76929,-1.282,-3.8459,-7.4358,1.282,-2.8206,21.7947,-18.718,2.8206,
-191.7947,1.0256,23.5901,24.6155,8.718,-1.0256,-4.615,-8.7175,-9.7434,2.5642,-8.2048,15.8977,-16.9231,2.0515,
-197.9485,-10.769,32.3076,20.5127,4.1025,-4.6152,0.5127,-4.1025,-1.0254,7.6924,-0.51269,17.9487,-5.6411,10.7695,
-190,-8.4617,34.1023,19.7434,12.5642,-0.25659,2.8206,0.25659,-1.7952,-0.25659,-2.3079,13.0769,-14.6155,8.4617,
-177.6924,1.7949,24.8716,17.6924,25.3848,10.5127,-1.7949,-4.8721,-8.4614,-7.9487,-5.8975,3.333,-18.7183,5.3848,
-183.8462,-3.8459,23.8459,17.1794,16.6667,12.0515,-3.3333,-2.8206,-8.9744,0.76929,-0.76929,10.0002,-4.3591,5.3845,
-194.1025,-12.564,19.7437,13.5898,3.8462,1.2817,-5.8975,-0.25635,-8.9746,3.8462,-4.3589,11.5386,-7.9487,0.25635,
-192.3076,-13.8459,20.0002,8.718,4.1028,-4.6155,-0.51294,-8.718,-4.1023,3.5896,0.51294,8.718,-11.282,8.2053,
-187.9487,-13.5896,21.7947,9.9998,7.9485,-5.8972,0.76929,-15.1282,-5.8972,4.3591,-0.76929,11.0256,-6.4104,7.9485,
-181.5383,-10.2561,26.6667,14.8718,12.8206,-1.5383,1.0256,-5.6409,-5.6409,8.718,-1.0256,18.9744,-4.1023,1.0256,
-177.1797,-14.1025,23.8462,11.0254,10,-3.8462,0.25635,-9.4873,-2.8208,7.4355,-0.25635,13.0767,-11.5386,5.8975,
-164.6152,-7.1794,20.0002,16.9231,16.9231,-1.0256,0.51294,-13.3333,-0.51294,3.5896,-1.0256,5.1282,-8.718,18.9744,
-163.8462,-3.3333,18.718,17.6921,16.6667,-1.282,1.282,-7.4358,-5.3845,4.3591,-1.7947,8.4617,-2.3079,13.0769,
-160.7693,-5.8975,18.7178,16.6665,14.6152,-1.2822,0.76904,-5.3848,-6.9229,13.0771,-1.2822,19.231,-0.76904,10.5127,
-146.4104,-6.4104,17.6921,17.6921,19.7434,-1.282,0.76929,-10.5129,-3.3333,12.5642,-0.76929,21.7947,-2.8206,19.2307,
-148.4614,-8.4614,17.6924,14.6157,16.1538,-3.333,-0.25635,-15.1279,-3.333,1.7949,0.25635,12.5645,-9.4868,14.6157,
-154.8718,-4.6152,17.9487,15.8975,15.3848,1.5386,-5.1279,-10.2563,-4.6152,2.564,-1.5386,8.2051,-5.1279,13.3335,
-159.7437,-6.4102,20.769,15.1284,7.436,-5.8975,-2.8203,-12.0513,-5.3848,7.9487,-1.2822,13.0767,1.2822,17.6924,
-158.718,-9.4871,20.2566,17.6921,6.9231,-13.0769,0.76929,-19.7434,-5.8977,3.3333,-0.76929,11.0256,-3.3333,11.5383,
-148.4614,-3.3333,17.1794,22.3079,21.9231,0.25659,-0.25659,-15.6409,-2.3079,2.8206,-1.282,5.8972,-1.7947,8.9744,
-148.9744,-9.9998,19.2307,13.5901,15.1282,-1.282,-2.3074,-13.5896,-5.8972,2.8206,-2.8206,11.0256,1.282,11.0256,
-135.8975,-4.1025,22.0513,22.0513,16.4102,0.5127,-0.51269,-15.3848,-8.2051,6.6665,-1.5386,20.5127,-1.0259,11.7949,
