"AF3","AF4","F3","F4","F7","F8","FC5","FC6","O1","O2","P7","P8","T7","T8",
7.1866,-48.3898,-325.3107,-6.2286,17.7261,-42.6406,9.1025,8.1446,0.47898,-0.47898,40.7238,-10.0614,18.685,-74.2609,
20.8554,-56.9843,-295.2512,-1.0632,28.1618,-40.0817,22.6564,14.3635,-4.3405,1.4657,41.1552,-7.5409,28.1043,-65.972,
28.9798,-51.1699,-269.392,-2.4373,28.867,-43.9055,29.7148,5.3571,-18.1801,5.6895,24.5859,-12.3591,12.318,-64.4095,
18.6175,-37.5593,-251.3116,3.4586,29.0519,-39.3543,17.3924,8.8685,-16.8835,13.0147,9.0107,-6.8259,-2.521,-59.5866,
19.4168,-49.4057,-246.7734,-0.58219,13.2088,-47.5334,2.2489,4.5031,-11.0793,6.4846,2.6535,1.2488,-2.4367,-48.3458,
24.9594,-47.673,-222.385,7.1183,-1.6838,-44.6814,0.88229,-1.5158,-13.2893,4.1787,-8.0462,7.8815,-8.0402,-36.8215,
14.3584,-30.7126,-195.1477,20.7912,11.7646,-32.8975,14.9294,1.929,-20.6365,2.491,-8.0424,3.0968,-10.9116,-32.2168,
11.102,-14.7699,-197.3326,18.859,25.1587,-32.3611,22.9304,6.125,-23.7101,-0.054312,6.5402,-7.1504,-4.0283,-30.7628,
15.2262,-11.4213,-199.5926,3.6274,20.5691,-31.3779,13.8885,-2.8665,-22.288,-1.9674,20.2478,-16.3034,10.3134,-34.6662,
6.6475,3.3639,-182.1411,-0.6962,16.4606,-15.3952,14.9725,-1.7361,-14.2426,-2.8078,33.1329,-17.2416,23.7946,-33.5442,
-7.8514,4.3937,-169.2962,3.1784,29.5729,-0.37148,22.6977,9.8665,-10.5132,0.23546,40.1091,-12.3743,32.4949,-17.4315,
-15.3191,-0.66066,-165.846,2.9877,34.7785,3.0716,8.8795,8.3165,-9.8834,10.7617,33.8698,-2.0494,16.4452,-2.2857,
-17.2743,-6.3702,-157.8117,-5.8156,20.2359,2.8877,-5.7533,5.9011,-13.1227,8.1996,33.754,12.1736,1.3585,11.9515,
-21.0295,-17.4868,-136.8446,1.2409,14.23,0.79763,8.6919,19.647,-3.7118,8.6656,42.2682,25.5432,-11.7262,25.3344,
-27.4333,-27.936,-127.6755,9.7905,3.7942,-10.7486,7.2115,21.6158,-3.4886,1.4385,25.6321,38.1106,-25.1227,22.9898,
-11.6873,-12.1598,-108.0371,17.3481,17.6666,3.9963,12.0499,23.6722,-1.8419,-5.8339,25.2589,38.0801,-9.9934,26.8807,
-2.5679,2.6697,-100.5974,7.6823,16.4008,3.5503,21.866,27.0431,-10.3558,-15.0668,23.7429,21.6953,-2.6866,11.1678,
-5.2884,-11.5904,-80.4616,19.6788,13.5001,-10.7627,34.654,39.5205,4.3655,-0.062773,29.0262,6.2935,-4.442,-3.6023,
-4.9713,-17.8084,-69.611,18.4979,8.8571,-24.217,24.2244,38.3804,13.0008,12.6715,13.1846,-8.1841,-18.2755,-17.4861,
9.427,-2.6399,-79.3281,14.9931,16.4712,-8.6639,8.671,21.9776,-1.8793,-2.1888,-1.7065,-20.4895,-31.279,-19.651,
7.2177,11.6185,-88.6684,-0.0064998,1.3829,5.9559,-5.9493,6.559,-15.8665,-16.1575,-15.7041,-33.3602,-43.5023,-32.572,
20.8846,25.0214,-84.101,4.9904,4.3805,19.6985,-12.8454,-3.0045,-29.0145,-29.288,-25.1632,-29.2359,-54.9921,-26.5795,
31.883,37.6201,-68.9935,8.0448,1.7219,27.8933,-15.4285,-6.1781,-41.3736,-36.4949,-24.1324,-20.2952,-65.7926,-35.0457,
15.8701,49.4629,-69.1661,0.37507,-12.4815,19.9915,-10.1915,-12.0356,-34.2344,-45.3251,-20.2891,-27.2225,-75.945,-47.043,
23.2677,60.5951,-50.9161,10.414,-13.9222,12.5634,2.3974,0.66393,-18.0803,-28.5056,-12.8431,-30.8598,-85.4883,-53.1176,
35.9717,60.9931,-39.4429,19.3716,-6.3792,13.7264,5.1293,8.2897,-6.6613,-12.6953,-18.7801,-29.0078,-66.259,-48.9717,
19.7134,47.7515,-45.7008,16.2929,-6.9549,5.2368,5.779,7.7928,-9.1365,2.1665,-19.5697,-13.1673,-63.4426,-53.6994,
4.4306,30.7864,-51.1029,3.3375,-16.5986,-8.9712,-1.7539,1.097,-16.7324,3.814,-7.3757,-2.0431,-67.7806,-49.0396,
-2.3357,22.4383,-39.4127,0.26289,-21.3518,-6.5165,-11.2306,1.0307,-9.9793,9.3344,7.1668,3.8287,-62.7553,-31.9972,
-6.0288,16.3008,-36.09,-1.6693,-22.9451,-6.126,-14.39,0.96935,-5.5482,5.9,4.1352,17.699,-60.9069,-15.9774,
-10.4583,9.5736,-34.8826,-8.2763,-22.5268,1.9076,-6.8186,-0.047236,-10.006,3.6296,0.054768,30.737,-61.0848,-0.91874,
4.2692,16.1853,-26.5619,-7.3012,-18.7798,7.0625,-3.0561,0.43413,-12.76,1.9744,14.1515,18.4194,-61.7324,1.392,
10.035,19.5264,-18.74,3.1979,-8.55,-3.4222,5.2714,1.8455,-1.9325,0.41851,24.1151,3.2142,-52.7582,-12.7915,
-1.5861,4.2548,-5.6378,8.2762,-1.8089,-11.3615,11.1842,-2.5775,8.2444,8.5384,11.6483,-4.9174,-46.2389,-22.8372,
5.2163,-10.1005,8.8005,11.612,-10.3243,-11.6378,2.8471,-7.2131,8.7077,15.6913,5.2002,2.0857,-57.5646,-30.0905,
7.2991,4.6056,9.0247,16.1859,-14.0167,-14.2928,-3.5514,0.40626,1.9571,5.6472,10.1589,-8.1009,-66.3608,-39.3044,
4.4658,18.4292,4.1714,23.3598,-8.8634,-11.0399,3.8478,10.4429,-3.4305,0.99617,10.0288,-3.3026,-48.2792,-43.1744,
0.84403,7.7415,8.2329,11.8968,-22.4316,-15.6477,-10.4831,-4.2837,-17.3247,2.3743,-4.4671,7.915,-37.4441,-39.1465,
8.4594,8.2354,20.1957,-0.31496,-18.0047,-11.834,-12.5227,-2.8625,-22.7861,2.2314,-2.2827,17.98,-33.2811,-22.6977,
-4.9839,-0.40372,4.884,-14.3961,-7.8223,-18.3106,-4.5843,-3.1693,-29.564,-12.0025,-11.2488,3.9654,-45.3842,-12.9181,
-10.9135,0.09949,-9.5091,-14.7639,-2.0832,-10.0263,-5.7471,-9.2087,-36.8936,-25.3824,-13.9276,6.1224,-49.642,-9.748,
3.8413,6.3217,5.1615,-8.6079,-3.3947,4.6753,-13.5473,-13.9254,-37.0754,-21.052,-8.7807,11.0253,-39.4768,4.9368,
17.7108,2.589,18.9518,0.052697,-7.5033,17.1253,-12.255,-8.7786,-35.3298,-21.2263,-9.6903,7.0104,-41.42,18.7406,
16.2357,0.51685,12.065,3.8823,-7.0531,23.7633,-5.771,-6.335,-36.0844,-34.0527,-20.6073,3.715,-53.0348,3.5162,
1.1615,14.5858,7.9878,6.0452,-4.2341,19.9417,-5.9037,-7.3919,-32.4819,-33.7197,-20.8087,8.7627,-59.2285,-10.7948,
-4.9301,21.6495,14.6951,3.2867,-6.3758,4.6452,-10.8192,-12.219,-23.3469,-28.3427,-12.3736,3.9252,-46.5722,3.9529,
6.8641,7.8942,21.479,5.0063,1.6723,-3.0924,-0.58763,-2.8614,-8.5308,-13.2269,-3.0067,-6.8507,-35.1539,8.7802,
7.4102,9.3364,20.1898,3.748,3.4888,11.1931,5.1964,7.8498,-3.2282,-0.93495,2.9224,-8.3565,-34.0031,-5.8467,
-5.9693,11.1726,17.5415,-7.4968,-7.7404,6.4825,-5.1764,2.1095,6.0685,-8.065,-3.4811,3.1647,-35.3162,-11.9972,
-10.8822,-3.3925,20.8008,-3.6936,-6.7965,-8.0064,-9.178,-2.3302,19.8044,-21.6811,-15.25,3.4533,-39.4259,-4.0913,
-2.5632,-10.8541,25.3024,4.195,7.7113,-5.4039,5.4726,9.3093,32.7161,-13.4673,-8.5858,-5.377,-50.4747,-3.8453,
-8.6372,-5.891,14.6812,-9.9509,-4.456,-2.6843,-5.6015,-4.1855,42.7984,-6.4311,-10.4656,-16.0737,-56.5492,1.6556,
1.4621,8.5624,25.2987,2.144,-6.105,11.5768,-9.0986,-6.8087,54.3305,7.3696,-6.9633,-2.6525,-39.0562,15.6563,
-4.3739,11.1967,20.9064,6.8066,-18.1956,12.1134,-9.5111,-1.609,65.1706,18.4262,-5.5871,-8.2425,-22.6129,28.8169,
-15.6107,2.8593,11.0276,-0.3094,-26.6853,2.763,-7.0236,-0.55446,75.3604,29.777,-6.2108,-15.4145,-34.1249,41.1879,
-12.2783,12.7483,12.7618,-0.76982,-10.9842,-3.6314,-8.998,-9.6246,84.9388,26.5534,-10.1499,-0.38962,-40.2224,52.8166,
-11.0626,15.3372,12.475,3.5882,-8.136,1.8562,-22.5581,-13.3589,78.0595,15.8568,-13.8527,13.7338,-30.6225,63.7476,
-15.19,1.9601,8.8517,4.3313,-17.2299,-4.0043,-25.7901,-6.8082,72.4175,12.989,-12.0631,6.749,-32.6179,59.3715,
-5.6542,-8.6979,16.9446,5.0294,-3.7397,-17.8641,-10.1427,-3.5249,73.8221,16.0424,2.7607,-7.756,-32.5773,41.7092,
-5.7944,-7.6966,17.3649,0.41538,0.79691,-29.0423,-1.1159,-13.3753,61.2478,17.4753,6.2216,-21.3906,-26.3108,25.1066,
-5.9261,6.8652,17.7604,1.8279,-8.3539,-13.1998,-7.2771,-5.3857,56.1355,27.4457,-1.3387,-22.5704,-25.2116,25.9286,
-7.0071,15.3501,14.2999,-2.5931,-21.9527,1.6922,-11.1518,-7.458,44.6233,16.6969,-9.4025,-22.6527,-37.7989,26.7683,
-7.0661,19.6993,16.7952,-0.042154,-26.6574,15.6907,-15.7529,-4.6151,27.8459,4.6761,-11.2338,-10.2746,-49.631,39.2622,
-12.8708,32.6173,21.0577,2.3562,-23.621,28.8492,-9.538,9.556,19.1947,5.8325,-10.0807,4.4419,-33.3044,51.0065,
-23.1179,26.1427,20.2732,-6.8886,-28.4324,41.2183,-7.5288,6.5868,16.6052,8.8364,-11.8717,3.4906,-43.2844,40.3475,
-17.4195,16.4291,30.0758,-1.2051,-26.247,52.8452,-1.8068,6.6702,18.9622,22.4062,-6.8472,-6.7807,-44.0412,25.9488,
-10.1452,16.8808,37.3747,3.1785,-22.2768,51.7922,-5.0518,1.0006,18.3039,33.7914,-11.7066,-6.8524,-39.9613,35.4117,
-12.4109,14.9095,27.4666,-2.7614,-23.8146,49.6422,-13.3727,-8.6414,14.3313,17.6639,-6.213,0.2659,-51.6636,28.4958,
-16.9364,9.7036,17.6741,-7.865,-28.6139,53.8507,-22.6313,-3.8116,6.2844,7.2283,8.2598,3.6042,-62.6638,12.686,
-11.1295,12.9542,24.2792,-4.5183,-24.0222,54.4525,-20.3154,-1.666,5.9082,20.2098,12.3497,1.4711,-45.5557,8.2983,
-5.6705,16.0093,24.7384,-2.3317,-16.8326,50.2269,-15.2642,-6.3573,-3.0712,21.8707,9.6914,-2.4504,-39.948,14.5076,
-2.4555,8.3411,26.1289,-0.27492,-10.073,52.004,-10.5155,0.73177,-14.3853,20.5585,16.7755,-0.38653,-44.2583,18.4288,
-8.0578,-6.2594,29.3519,-6.966,-22.8839,41.2182,-15.6333,-1.229,-14.4801,6.8686,6.1874,10.1771,-54.0596,11.5734,
-16.6773,-13.3431,26.1539,-13.7342,-31.5718,28.6841,-23.7983,-7.3834,-0.67554,4.0611,0.54597,21.5443,-53.2114,13.2744,
-16.1557,1.5574,31.7712,-7.6404,-18.6581,30.3169,-19.0166,-1.6698,8.4684,17.9174,14.4074,6.1516,-40.9157,14.8738,
-12.3115,7.007,43.2793,0.48359,-9.873,36.1635,-6.3772,4.1792,5.0846,21.4274,10.6682,-8.3175,-33.67,10.1486,
-11.0934,-3.4744,48.828,-0.98193,-13.592,33.5151,-8.39,-0.38291,-3.3646,15.8304,-4.0719,5.0499,-35.0032,13.8519,
-8.9908,-10.4526,51.1681,-1.4029,-19.0051,29.1084,-21.7808,0.11814,-11.3073,18.2335,-12.7248,11.9335,-40.09,12.5409,
-5.0975,-11.2624,60.0754,2.993,-19.3026,30.7157,-17.1201,4.4237,-16.8575,14.7445,2.1387,15.5293,-39.1216,10.3515,
-5.7497,-2.921,70.5708,3.7723,-12.3948,29.8307,-2.6777,-1.5913,-25.4276,8.1102,2.7625,17.4724,-34.8579,12.6052,
-1.5723,11.3542,80.4366,9.2943,-0.15322,33.7901,5.1481,4.2533,-18.1536,17.2056,-6.9852,8.758,-24.1429,5.1408,
2.8338,12.3827,89.7104,7.2997,5.1266,35.1165,11.0678,11.1847,-15.6265,4.1959,-8.9619,-2.7869,-22.2153,-2.3542,
3.6222,-2.4603,98.4278,3.9873,10.5682,28.2183,9.4453,9.5561,-28.7889,-9.4706,2.1167,-8.368,-17.0491,11.887,
1.4884,-9.2926,106.6221,0.87372,7.0598,27.4836,-5.2214,-1.5581,-29.2508,-0.27839,12.5296,-3.0756,-6.4442,18.1546,
-3.8715,-0.59045,114.3248,3.2162,-3.4252,31.1043,-2.7859,-3.8604,-13.3957,1.1753,12.2568,5.2535,-5.5786,2.9653,
-10.8254,-2.9504,121.5653,0.62786,3.0084,20.1351,6.4842,-3.1494,-0.82084,-7.9982,5.2932,1.585,-13.3884,-10.9006,
-7.3006,-11.3974,128.3714,-2.2842,16.9279,14.1367,4.1797,-3.9179,-9.3947,6.5817,7.85,14.9047,-6.8359,3.8535,
-1.5928,-12.1505,134.7691,5.9974,4.2086,23.3499,-6.1325,-4.1627,-14.1017,13.647,8.8169,19.281,-6.9048,12.0405,
0.41917,-18.1286,140.7829,9.4708,-9.4596,14.2829,-5.765,-1.9966,-6.5484,-0.5875,10.2043,4.7085,-14.1561,2.6941,
-5.8346,-31.1409,146.436,-1.1588,-2.6634,-0.67412,2.7255,-5.2306,1.0311,-4.864,2.4045,-0.84378,-14.7446,-9.4459,
-6.443,-32.8999,151.7498,3.701,-0.58724,-13.8427,7.3531,-0.12554,-0.94716,-7.4466,-3.489,1.1232,-5.2359,-3.1299,
-11.3261,-16.8259,156.7448,13.5404,-10.6134,1.0879,-0.27464,11.8594,-5.2021,-7.4787,5.8238,-1.34,1.3065,11.1579,
-24.7466,-9.315,161.4401,-1.372,-24.0766,15.1226,-14.3582,3.4827,-18.3048,-5.1136,-0.2748,2.5737,-12.8719,7.4082,
-15.3899,-21.6914,165.8537,-1.0835,-14.7602,13.8032,-6.5828,0.87786,-10.0199,9.2932,-1.6953,16.5192,-16.6841,-0.22285,
-0.36655,-17.0366,170.0025,-0.53904,-6.6884,-1.125,-3.7925,-4.445,-4.1485,10.9243,-3.031,10.0512,-1.7893,-6.4377,
3.7614,-19.3678,173.9023,-0.028165,-6.7657,13.0425,0.74731,-0.82405,-5.337,6.9155,-10.0362,7.0527,-7.9101,4.9685,
-0.29749,-22.9969,177.5682,2.8488,-3.4854,26.36,5.4928,8.8074,-3.1004,13.2086,-15.1832,20.7296,-21.5355,18.0851,
-6.0284,-16.8263,181.0141,-4.9877,-9.025,16.4276,-5.3763,1.5713,-5.7892,7.6244,-10.4394,33.5858,-14.7674,13.1672,
-4.2293,-15.3373,184.2533,-9.9587,-13.7537,8.2558,-8.408,0.039629,-8.7952,-6.933,-2.626,35.4709,0.21863,10.9398,
-1.1007,-17.291,187.2981,-9.3611,-10.0536,13.5092,-11.7363,4.8289,-8.2675,-13.9764,-3.4264,31.4267,-4.791,15.0742,
3.2771,-3.3182,190.1602,-2.5708,-8.0135,10.3037,-12.4691,-2.6474,-6.3345,0.96218,-12.3243,37.6856,-4.983,13.6907,
3.0796,1.6717,192.8506,2.3742,3.9657,1.061,2.3791,-4.4054,-0.20474,12.197,-11.5848,33.5077,9.416,4.2457,
-11.2052,-12.5286,191.3933,-8.7877,4.2068,-10.98,11.6121,-7.4949,-0.67144,-2.6348,-1.7863,17.3972,6.7288,-10.109,
-8.4102,-20.1947,194.0097,-1.5528,6.8292,-2.6556,4.2077,-4.1704,8.9504,7.3115,12.4209,2.2534,13.0323,-19.8371,
-15.0918,-16.5876,192.7033,-0.98109,0.19126,-9.6834,-8.9805,-11.1072,5.06,20.9728,13.3854,-6.0934,-1.8497,-12.4187,
-16.5826,-21.8205,193.118,-0.44279,0.65831,-10.5398,-8.9211,-6.1286,0.44416,11.3632,-1.5178,-6.2072,-14.4687,-11.1941,
-7.4421,-12.3667,195.4251,-2.8121,0.13983,4.1926,-2.1572,3.3417,-13.6825,-0.33798,-1.6994,1.3518,0.49942,3.5775,
-10.8288,-5.8755,192.3236,-11.2673,-6.5757,8.5265,-2.0273,3.1417,-26.9615,-2.2341,-12.1374,7.0199,0.26367,15.613,
3.9209,2.143,194.8842,3.5087,7.9188,11.8482,-0.94727,8.7023,-32.118,8.4408,-18.1173,9.474,-11.2505,16.5926,
4.4378,1.535,197.2911,1.1755,9.1539,11.6158,-0.41191,7.7008,-33.5452,-0.21066,-16.5508,8.4261,-6.2637,16.0765,
2.7346,0.96392,199.5537,-0.33195,9.0845,11.3987,0.092706,5.8018,-34.8853,-7.3846,-15.0787,6.4836,-1.5757,15.5909,
4.0079,3.3015,200.3779,0.16741,12.8508,14.0682,3.4405,7.849,-33.2717,-12.2118,-9.8618,8.49,4.7471,18.0097,
5.2044,4.5403,199.3737,1.5943,15.4335,17.5359,6.5879,9.7739,-31.7543,-15.7908,-5.9163,9.4175,11.6484,20.282,
2.4968,3.7894,195.5563,-0.89672,15.9449,16.9632,6.6711,8.7081,-33.2034,-22.9884,-5.0828,8.373,15.2617,19.5445,
-0.52741,2.6036,190.5301,-2.7593,15.9457,16.9029,7.2293,7.2271,-36.0024,-30.2331,-3.8194,6.9131,18.1788,19.3303,
-8.6408,-7.6136,192.0341,2.6764,18.3433,2.9538,1.5253,-4.2254,-19.7422,-14.3191,-5.0276,13.6845,3.1943,11.9423,
-2.8521,0.029372,194.612,6.8281,19.6381,11.8796,6.704,10.1281,-10.618,-17.0196,-3.2886,26.9634,5.398,25.3257,
7.3804,8.1722,196.6233,-1.7271,13.19,23.1442,5.8228,5.0024,-24.0809,-30.0984,-17.1912,26.5772,8.4275,25.0369,
14.6027,19.1807,198.9259,11.7913,20.0638,21.7551,11.2226,2.7859,-27.222,-29.0442,-17.8704,10.8826,22.0219,9.4347,
9.4148,8.9273,187.743,10.6058,18.3809,9.4304,13.9031,2.1397,-30.8584,-26.8226,-5.7779,-3.8704,21.4532,-5.2314,
7.8919,-5.7083,184.1431,1.345,14.4033,3.1149,11.152,-4.6963,-23.2577,-27.1301,0.31755,-6.5799,17.2912,-3.0676,
3.1062,-11.8681,187.1945,1.7437,22.6421,-6.1741,14.7951,-3.9351,-7.7622,-19.2741,14.3985,-20.2851,30.3537,-16.9836,
-9.0576,-25.0493,180.0693,-4.5895,23.6794,-19.9036,20.1361,-1.3031,6.8035,-8.0562,23.3898,-33.168,42.6325,-30.0645,
-10.4305,-34.0872,171.1815,-10.0634,9.8018,-19.4621,12.2198,-3.1422,-2.6407,5.8419,7.8864,-23.1008,25.9745,-19.2255,
-12.2005,-24.8545,168.0972,-8.9806,-4.8863,-4.1943,-2.6134,-0.55787,11.6177,9.8041,11.4522,-7.6147,10.3161,-3.972,
-4.2819,-9.2632,168.0728,2.5776,-0.07556,10.1573,-0.81291,6.6622,7.3611,-4.6784,24.8651,6.9421,23.1119,10.3663,
-5.9409,-10.8301,156.0716,-2.3678,5.6786,8.1774,3.0687,-3.32,-7.1806,-16.8549,16.4598,15.6965,28.4328,9.3328,
-12.2921,-19.7627,157.2477,-9.8913,2.4631,-6.4132,5.7594,-7.9115,-20.4373,-1.7436,1.3722,0.6547,12.6268,-5.3272,
-2.931,-14.7441,161.9128,-4.5071,1.3573,-4.3848,5.4138,-3.604,-16.3371,2.467,-5.6909,-12.115,2.0136,-12.9464,
11.3449,-1.4022,157.262,3.429,11.8163,7.3767,5.089,-2.4298,-26.8553,-11.781,-0.55872,2.7119,15.9927,-2.5871,
3.7512,-0.83958,149.2637,3.7027,15.4186,-6.0017,2.3882,-3.7215,-14.2241,-7.0351,0.91221,-11.5509,29.1332,-16.5319,
1.6093,-3.664,154.4079,12.1041,11.6196,-6.5996,10.8685,7.0422,-0.91433,2.0105,5.6482,-24.9578,32.2434,-26.833,
9.1788,-10.1513,157.8734,8.5034,8.0472,-1.4124,18.8404,8.5361,-7.5671,3.8063,3.393,-20.3797,23.6016,-11.1231,
4.3158,-13.8545,137.3812,-0.15179,5.1689,-14.2643,8.607,-4.9119,-13.3417,6.9322,3.6688,-21.5523,22.6645,-24.5557,
5.9733,-6.3152,126.2639,7.5234,9.65,-13.4071,3.2994,-1.7419,-18.2899,0.76705,7.2819,-6.1592,30.8871,-13.0205,
12.3225,-6.8951,121.5629,2.2803,-0.51142,-11.6456,-1.6894,-0.67938,-30.6078,-13.379,-4.6543,8.3104,26.1586,1.8608,
13.0206,-4.0851,114.7486,-5.0427,0.95759,-16.2162,0.80737,-5.9088,-21.5842,-10.4541,-6.7704,-6.2883,26.0269,-8.9975,
6.9691,-2.4035,100.6766,-2.3447,12.877,-11.8898,4.1123,-8.9076,-16.9358,3.109,-8.7596,-20.011,26.8607,-22.5577,
12.3006,-2.2584,97.5108,7.3784,8.2716,-7.3437,0.033663,3.1252,-18.7941,8.6721,-8.234,-13.0602,22.3747,-7.5827,
14.4365,-1.1658,94.5341,5.0188,2.9837,-13.6107,-4.76,4.8536,-20.5417,2.4021,-0.074355,-9.4027,17.1985,6.2865,
11.1749,4.1752,91.2584,5.1971,5.2009,-7.5238,5.5865,-1.6658,-15.9549,-2.0533,0.40955,-12.1919,7.0645,6.3888,
5.7132,-3.7413,86.7404,13.5084,-2.7772,-4.198,3.3349,0.35057,-6.3741,1.9022,-9.197,0.99554,-2.9418,-5.4934,
7.2868,0.31549,89.202,22.2799,-3.569,-9.6953,-4.5312,9.9115,-7.908,-0.12832,5.4548,15.0358,11.3347,-3.2474,
5.4126,8.442,84.3289,25.2558,6.7066,-8.6346,-2.8215,6.921,-19.4109,-10.182,19.2275,16.8022,24.7546,11.0475,
5.5669,4.5817,70.1666,17.5118,5.8252,0.028938,-2.1732,-6.4296,-9.1428,-17.7157,13.8291,3.8167,33.3977,7.783,
9.5456,12.4514,66.4356,10.2334,-5.5428,-5.2425,-7.3125,-9.3976,5.5058,-30.7528,7.7296,-5.5148,24.2077,-5.6193,
1.3063,21.2867,70.115,11.5353,-7.1271,-18.3432,-6.8738,-8.8338,15.5091,-43.0076,6.3069,-1.3511,22.7548,-3.3662,
-9.791,10.9065,63.5127,4.615,-3.3461,-20.5969,-5.9828,-8.7832,28.6786,-26.3271,0.65829,-1.7495,28.5761,10.9358,
-12.0784,-3.8479,52.0364,-9.7619,-6.0201,-23.1939,-12.3306,-9.2142,41.0579,-10.6475,0.61879,-15.7445,21.1124,24.3796,
-5.125,-6.286,47.4763,-9.9283,-5.179,-13.6568,-8.2369,-8.1823,52.6944,4.0913,1.0607,-28.8999,19.3666,20.5889,
1.8887,6.5479,45.5862,-0.70955,-5.8276,-3.2563,-4.8693,-9.6078,63.6327,11.3057,-6.669,-27.2328,15.3294,17.4362,
-2.0569,11.9043,39.0178,-3.5413,-18.8928,-12.6429,-17.0339,-14.7805,73.9148,11.5848,-15.8509,-11.4989,0.30959,30.4901,
-11.0365,9.7526,31.4074,-8.5982,-9.6142,-18.1125,-11.6987,-11.4983,83.5799,10.4112,-10.5876,3.2911,14.391,42.7607,
-20.4358,1.0229,24.2523,-13.3529,0.065231,-25.1703,0.97965,-12.2454,75.4117,-1.2328,-2.7657,8.4308,27.6276,40.7414,
-6.2738,2.3989,36.8972,-3.4488,-3.292,-21.2647,1.4003,-5.2825,74.2413,7.9441,11.5002,-6.1751,20.9734,24.1969,
-4.4591,-4.9312,42.6221,-7.5531,-10.2807,-22.3842,-10.6606,-11.1937,59.7258,19.4453,6.2926,-11.8265,7.7376,13.8493,
-12.8155,-5.5937,25.9648,-17.6408,-0.081837,-24.8735,-4.2718,-21.062,46.5603,6.7797,-2.7089,2.9831,21.3733,8.2271,
-6.2979,4.3234,17.4265,-17.5403,6.6307,-17.6324,4.6081,-15.9655,57.8667,7.3309,11.5536,-3.6308,31.8621,11.5654,
-4.4826,-8.8709,17.8184,-16.9674,-7.6609,-22.8026,-5.7294,-16.445,53.2305,15.995,7.7802,-1.9755,15.8503,1.7693,
-12.8367,-16.0047,18.6657,-7.3253,-5.2849,-23.3508,-2.5112,-4.9183,35.9366,15.0348,-6.7866,12.243,11.2728,-0.25321,
-16.3788,-13.607,12.2755,-7.3643,-8.322,-17.6375,-5.7139,-7.0186,30.1534,5.0297,7.7206,3.6371,20.6578,-2.6343,
-2.4607,-6.5628,16.8087,-7.4024,-13.0925,-14.1844,-17.3485,-18.5749,27.8652,5.2069,21.3574,-2.8098,23.7301,-2.9552,
0.082324,-6.6476,23.9452,-10.3116,0.62888,-19.5615,-6.2466,-10.2742,12.0933,3.4571,5.9759,11.4588,18.9525,-0.38254,
-9.5041,-9.1236,23.4665,-11.6088,14.6911,-18.3878,8.2282,-2.9502,-2.7323,3.2497,-8.4826,-0.93243,6.317,-13.7739,
-8.4549,2.4433,24.4543,-2.7677,12.645,-6.2651,9.4447,-8.0429,11.5317,17.1547,6.1263,-14.9765,10.2497,-21.092,
-0.28157,12.8366,23.9455,1.2307,0.38839,-5.8888,-4.5368,-3.728,24.9398,14.9612,2.8839,-3.3322,23.7348,-6.4117,
2.1302,18.295,14.3633,-3.1549,-7.7804,-6.0153,-10.4932,-1.1085,9.3434,-0.036459,-0.64291,7.8872,24.0208,4.0335,
8.71,22.9461,19.2511,-3.9245,0.35201,2.0112,-0.28117,-15.142,-5.3172,4.0043,13.4957,-1.2105,15.872,-5.7901,
8.6664,14.3827,28.1566,-2.2512,-0.14809,-12.2095,1.1727,-26.4849,-5.5446,12.8666,-0.936,-7.3656,7.733,-14.5461,
12.9377,15.4361,37.966,11.2987,-6.8464,-17.9783,2.0607,-10.7958,-11.9191,9.2202,-14.9798,2.6583,15.8931,0.42665,
14.0769,18.3432,34.7296,11.5783,-16.0176,-9.2336,5.7694,3.5404,-21.7448,3.8758,-10.5205,-11.6012,24.5215,-5.0754,
12.7537,11.9724,34.0833,5.6143,-4.9955,-9.159,5.9027,-10.7721,-11.3362,5.0807,-0.78632,-25.0051,27.362,-18.8709,
11.51,5.9839,35.3925,2.882,7.282,-11.9628,5.07,-5.6073,0.36382,11.9629,-1.2177,-10.6355,28.1165,-11.3033,
5.5487,8.9787,28.9572,-1.6027,4.4492,-5.0164,6.2028,8.8292,-7.8035,10.7661,-7.3742,-10.4773,29.7829,-9.1881,
2.8195,16.584,25.7815,-1.028,-2.0459,-1.3621,5.3512,8.5722,-21.4353,1.0172,0.25536,-23.9487,27.5165,-18.6987,
6.4836,29.0047,29.9847,10.5325,-1.9236,-4.1547,8.8633,1.3498,-18.9854,9.5801,14.34,-20.3891,24.9075,-3.4768,
-8.0054,19.5984,14.0856,-1.5983,-15.9082,-8.6966,-5.7685,-10.2291,-31.9463,2.2973,-0.62037,-5.0658,9.3131,10.8318,
-11.1517,19.8603,4.8222,-3.8973,-22.413,5.9252,-10.0078,-8.1784,-37.4889,-5.9852,-8.7277,9.3382,11.8349,24.2819,
3.6174,18.1888,18.6329,-1.2685,-11.9657,1.0512,-0.30479,-6.2508,-36.6765,-13.7706,5.8959,4.5331,25.2248,20.7698,
13.2556,8.9534,31.6149,5.0367,-5.0187,-10.0308,6.9006,-2.5215,-25.3729,-5.7573,3.899,-9.8389,33.5665,10.4215,
7.19,-3.5616,31.7014,-2.4526,2.4686,-11.8244,14.6306,-2.8496,-10.9147,8.6881,-9.2716,-23.3486,27.2403,6.4419,
5.8007,-0.47313,27.8834,-2.3054,2.3205,-10.1569,12.7948,-3.6366,-12.1767,7.0017,-7.7565,-27.2848,24.6479,7.9714,
2.5778,-0.44474,23.3355,-4.083,-0.69266,-9.5475,10.1112,-5.3344,-14.32,0.83287,-9.207,-26.6057,21.2531,7.494,
0.50675,0.54037,19.061,-5.7545,-1.6095,-8.9742,7.5881,-6.9307,-15.3772,-3.0503,-9.613,-25.0098,18.061,8.0028,
1.4348,4.3403,18.8758,-3.4928,-0.55453,-4.6034,8.0913,-4.5985,-13.4971,-4.7837,-7.1198,-20.634,18.8938,10.397,
2.3071,8.8711,17.7428,-1.3668,1.3951,-1.4529,8.5633,-3.3641,-12.6868,-6.4131,-3.8183,-16.5215,18.7186,13.6055,
1.2103,12.1721,15.7207,-1.2853,1.311,1.5096,9.0079,-2.2038,-11.9251,-8.9027,-1.6728,-12.6559,18.5539,15.6644,
1.1376,0.90134,6.153,-6.9578,-6.4333,-8.1634,5.5926,-3.9885,-11.2105,-1.6609,7.0511,-11.8965,19.357,10.8909,
-0.36849,8.0329,8.1787,-12.7681,-7.4851,-6.2367,2.8622,-2.3122,-6.2261,3.7085,20.7281,2.9173,20.5905,24.3374,
-7.0531,9.4678,6.7301,-9.1271,-8.952,-6.8204,0.77357,-11.755,-7.7685,-2.2627,6.8222,16.8422,11.6895,31.2959,
0.55579,17.0443,7.7641,4.3558,-6.9779,-0.18257,3.123,-2.9051,-8.7402,-0.69002,-7.6871,1.7317,14.342,25.1054,
6.7515,23.2087,10.6516,5.5319,-13.7454,12.7642,-4.2505,8.2881,-15.402,-8.7927,0.16606,-12.4722,11.0861,9.4991,
6.346,25.6485,14.8037,10.9492,-12.9211,16.7886,-2.08,7.7913,-9.6866,-3.4749,2.0725,-6.4541,4.6713,19.6753,
-3.6163,16.444,11.0407,8.3754,-11.187,1.6813,3.7944,-2.2586,-9.1054,2.4833,-12.1519,8.0331,6.3078,32.5948,
-6.7531,10.1876,19.4817,9.3107,-2.3712,-3.9616,6.9206,5.0635,-6.1633,3.7712,-17.9237,-6.069,12.1575,38.0989,
-3.4736,-3.8384,21.1872,8.7516,-1.2705,0.10843,3.631,9.5509,-5.7939,-1.2463,-13.9739,-14.3288,11.4281,49.913,
5.8378,-5.0455,16.5626,7.748,-7.4224,-9.959,3.8926,7.5404,-10.7165,0.26684,-7.8652,-2.4502,22.7207,61.0182,
4.5291,8.672,14.6104,6.3247,-5.0607,-12.2359,3.6585,4.2136,-14.8647,0.25037,2.1887,-13.8011,14.6494,71.4571,
3.299,9.1101,16.6082,5.9447,4.8249,-3.8366,4.3975,3.0024,-15.8892,-11.2635,7.8065,-27.073,-0.3296,81.2697,
5.9763,-0.060503,11.7784,1.7557,0.7022,-8.3976,3.1752,-1.969,-20.6851,-16.3369,-0.32699,-18.0563,-0.58302,90.4935,
3.2219,13.8364,7.7179,6.9201,-3.6517,-1.6651,3.4637,-1.3718,-16.0902,-5.2952,2.0876,-2.8729,10.4714,99.1639,
-1.2832,27.1062,14.4414,18.4832,-5.8284,12.5348,-1.0559,4.9391,-11.7709,-3.5406,11.0658,11.3995,-4.2569,107.3141,
7.8968,32.4611,19.804,18.8116,-14.5808,15.8882,-6.2628,0.33143,-19.2088,-1.8907,8.0064,3.1169,-18.1015,114.9752,
4.5482,16.4135,13.825,5.2257,-25.2044,0.83494,-12.5946,-13.7885,-30.5135,2.0555,-6.574,-11.1701,-22.3521,122.1767,
5.2337,18.9887,19.7027,10.6613,-16.027,1.4701,-4.1729,-6.5272,-19.1007,4.8075,-10.286,-10.7727,-12.3875,128.9461,
10.1899,25.0355,18.0411,14.3339,-4.0464,0.90334,0.38878,3.9254,-6.9348,2.1227,-9.1894,3.9737,-0.62481,135.3093,
8.1415,16.3468,11.6889,9.162,-0.44981,-13.0451,3.7193,5.1268,-13.7054,5.3492,-8.159,12.6316,3.7245,113.0908,
13.8808,14.8861,21.048,13.8821,1.0141,-4.1178,17.3903,3.3823,-19.1117,-7.908,6.4305,-2.2263,0.14718,92.2053,
17.8396,21.6594,17.8692,11.1332,0.95419,7.6276,14.431,-4.4862,-18.9229,-21.5335,3.922,-16.1927,-7.5268,72.573,
30.8692,34.4599,24.9416,21.4837,14.9969,18.1894,17.876,2.9695,-8.685,-34.3415,-3.4999,-1.1212,-0.84745,54.1186,
43.1171,46.4923,18.6544,22.1115,24.4308,28.5964,18.7203,2.7914,-16.7875,-29.4727,-8.0806,7.2974,-8.4617,36.7715,
29.0977,48.5605,4.1194,16.9516,9.5502,35.5046,8.973,-3.1253,-28.237,-19.0813,3.9021,3.9842,-13.7037,20.4652,
13.9371,32.2321,-1.876,14.0181,-5.1228,21.8755,-3.0633,-9.645,-28.4592,-23.6847,11.334,17.16,-9.0487,5.1373,
15.0172,16.1981,0.15294,6.4699,2.577,7.1482,5.7436,-4.276,-21.9604,-36.3636,17.3612,7.5073,-1.7977,-9.2709,
8.8465,1.1262,-5.1269,2.7288,12.4838,-5.2581,14.5025,-2.5815,-27.8294,-47.3908,9.1338,-7.0432,-6.96,-22.8147,
-3.1832,-3.7995,-3.8609,10.2302,14.6091,-12.6077,19.3815,6.1965,-16.5777,-30.4473,-4.8299,-18.8716,-1.7517,-35.5458,
-3.4712,0.74024,-6.983,5.3037,6.546,-14.2471,17.7387,8.2205,-2.6477,-14.5205,-1.1863,-8.6368,-2.126,-47.513,
10.8371,4.5286,-8.4809,11.6931,11.9028,-12.4343,19.5492,6.7693,-10.1544,-19.3319,12.9849,-12.9093,-2.9564,-58.7623,
16.2093,-1.4923,-5.0977,16.7407,17.8958,-19.3543,22.2095,8.2796,-20.0851,-10.506,19.1861,0.32205,2.0117,-69.3365,
9.4871,-0.44478,-13.4154,4.2378,12.0313,-10.5265,20.8769,5.8659,-13.1312,-6.0428,3.935,11.8011,2.8495,-79.2763,
0.29429,7.2484,-26.7104,-7.5148,-0.18894,4.2051,5.5243,-4.0676,-10.4265,-14.3038,6.3005,1.5115,-1.1538,-88.6198,
2.1935,11.6043,-33.0466,1.5606,2.6963,18.0528,-5.6207,2.8841,-13.6337,-8.6548,20.0225,11.0023,3.7057,-97.4026,
-8.958,-0.11184,-29.6264,5.7782,-1.7768,2.8696,-3.8461,5.1064,-26.9157,-12.4478,13.8241,10.8216,5.8792,-105.6584,
-4.5877,-2.0211,-37.4303,7.3484,-6.4609,-10.924,5.9671,4.8001,-18.3869,-9.784,20.6602,12.0883,19.6264,-113.4189,
-5.2704,-14.3571,-49.2845,-1.717,-20.1733,-11.2266,-0.14056,-4.1124,-18.2426,-11.1139,16.5458,14.2378,31.1784,-120.7138,
-9.266,-21.6402,-36.5401,3.6558,-13.0084,-5.2832,13.9679,6.1958,-14.7522,-5.1773,1.6588,7.1549,24.037,-127.5709,
-9.189,-25.6116,-36.7427,9.666,1.8721,-4.4863,22.9854,11.0947,-7.6384,-0.55395,-12.5407,-7.3744,8.4948,-134.0167,
-2.4095,-12.098,-48.6381,3.8149,11.615,-1.8227,7.5063,2.284,-12.4512,-6.7498,-13.019,5.2517,-6.1149,-140.0757,
-6.0977,2.7279,-59.8198,-10.514,-3.1819,0.20444,-7.0441,-11.9531,-25.8042,-20.4448,-1.6974,19.0366,-1.5023,-145.7711,
-1.4201,16.6642,-47.1941,4.2169,2.9644,10.2527,7.4786,-5.2805,-24.0492,-19.9694,12.5044,6.1902,12.6879,-140.7805,
-8.0425,14.7738,-52.0281,14.0262,16.2018,4.8468,13.4638,6.5347,-8.5063,-4.6712,15.3812,4.8608,17.4696,-126.5845,
-11.3927,2.389,-51.7821,-0.91539,19.0625,-7.9013,-1.444,3.2678,-7.7227,-3.1598,14.4574,10.3179,25.0449,-125.697,
-0.16875,5.1196,-42.9255,-3.0514,15.0439,-8.3852,6.035,-1.7199,-7.2602,-11.5947,16.4648,-4.4011,37.6422,-132.2552,
4.6321,0.97963,-48.0156,-1.9095,13.1824,-7.8821,19.7729,3.175,-2.9909,-3.2334,14.5189,-18.2371,46.1973,-138.4199,
1.4798,-0.99463,-49.9259,4.9123,12.3919,-10.2835,7.3618,5.8588,-9.5186,5.5846,7.8986,-10.9812,29.3255,-139.2846,
-4.3581,2.8974,-51.7216,13.2415,8.774,-7.7501,-7.1799,0.71608,-17.5715,1.4172,-6.6753,3.7777,37.8332,-116.8276,
-3.1387,3.6824,-51.4922,9.5731,10.1644,-6.3271,-6.0639,0.67403,-5.9768,3.2481,-11.3383,10.5314,42.2708,-95.7179,
-0.55452,4.8984,-51.7564,6.6029,10.9915,-5.4685,-3.3051,0.1546,5.4012,5.4491,-13.0539,9.4205,46.9211,-75.8748,
-1.0002,4.1255,-52.9628,1.895,10.811,-5.6194,-2.6278,-1.2925,14.1797,5.6011,-15.6244,6.4594,49.3756,-57.2223,
0.49674,5.315,-53.1389,-0.61458,12.5582,-3.8453,-0.074312,-0.736,24.3483,7.6609,-17.0828,5.5929,53.5997,-39.689,
1.4258,5.955,-52.8254,-3.4516,13.7206,-2.6557,1.847,-0.69184,33.4278,9.1172,-17.9738,4.2994,57.0913,-23.2077,
-0.57704,3.6803,-57.3219,-10.9106,10.023,-6.3296,0.77775,-5.4416,38.1293,7.6126,-23.6025,-0.74983,56.5402,-12.9898,
-14.6424,-8.0379,-67.9826,-22.7123,-3.0347,-13.6154,-5.9765,-19.2151,49.9415,9.0718,-8.0864,-14.8048,67.2478,-24.6668,
-19.3064,-19.5335,-62.7385,-24.7038,4.3335,-21.9015,2.5271,-19.7719,61.045,0.38247,0.81614,-28.0166,77.3129,-37.2868,
-16.232,-12.6127,-50.3515,-17.4728,4.0735,-22.5042,1.4166,-14.7537,71.4823,-6.3481,-6.8984,-40.4356,86.7742,-49.1496,
-9.9879,2.244,-47.809,-2.3245,-2.3991,-14.9249,1.811,-9.5553,67.055,4.0947,-5.0471,-30.2046,95.6677,-32.1006,
-23.4886,4.778,-55.4799,3.3593,-12.7955,-20.737,-12.3976,-9.9409,67.8225,4.807,-12.4099,-14.2923,97.7281,-16.0746,
-36.1793,-2.2159,-41.6112,7.9481,-1.4869,-7.994,-17.6762,2.1544,77.8531,14.1005,-5.9161,0.66525,105.9644,-1.0101,
-34.5545,-16.1829,-38.1565,-0.1944,-7.1474,-0.80762,-16.6156,-6.5993,60.9983,22.8369,-19.6611,14.7253,113.7065,13.1505,
-32.4808,-22.1923,-39.6995,-14.2827,-15.3425,-0.75871,-9.8695,-19.6172,43.2384,21.4663,-32.5814,16.5774,120.9841,21.5314,
-22.8668,-14.1536,-29.6524,-24.2394,-0.32198,-6.4624,-0.65329,-5.0263,44.2037,9.6383,-16.5266,29.6827,127.8251,14.4894,
-22.9318,-24.3238,-20.6866,-28.0548,13.7973,-17.094,-1.0931,-4.2448,35.3238,-4.8342,-1.435,13.8018,134.2556,-0.47992,
-13.8912,-14.2408,-5.3454,-18.7059,18.7852,-6.4869,4.7212,-8.7818,29.3707,5.9963,-12.3683,-1.1263,140.3002,-14.5511,
-13.0577,-14.3443,4.83,-18.5415,15.7421,-20.1976,5.3959,-20.7113,25.6916,2.7617,-10.6682,-15.1588,145.9822,-27.7781,
-9.3994,-24.982,12.2058,-20.3038,15.7556,-30.7565,19.1722,-19.4686,33.7325,5.4708,4.0719,-28.3492,151.3233,-40.2114,
-5.4816,-19.1713,10.9945,-12.8579,5.7077,-14.8111,7.2757,-12.0728,20.6892,14.2451,17.9276,-22.6767,156.3439,-51.8987,
-4.6729,-3.9211,0.27428,2.0136,2.0114,0.17759,-7.2609,-2.2449,5.3478,15.7862,20.2732,-7.2161,161.0633,-34.6848,
-10.6211,10.4142,7.4444,15.9928,-3.379,10.7739,-18.5959,1.2436,-4.8278,11.4852,8.0374,7.3169,165.4995,-18.5037,
-9.9834,14.169,21.0978,27.0784,-6.0506,13.9607,-9.815,8.835,4.0859,10.7966,-6.5449,18.9231,169.6695,-3.2935,
2.114,11.402,19.1467,14.9133,0.061144,17.9138,-10.1841,5.4301,-1.9089,1.5252,-7.3838,28.3281,173.5893,11.0041,
3.4237,2.5729,8.8949,1.0827,-3.2968,5.8191,-5.2617,-4.9576,-9.9394,-5.7533,-0.7126,12.5285,177.274,13.4245,
2.7397,0.98108,18.4221,4.372,2.1712,6.9074,9.154,9.2345,1.6768,1.778,-1.1484,-2.3233,180.7375,-1.2747,
4.9702,6.192,7.2554,7.4626,16.141,3.1391,16.544,12.9922,0.13834,-1.6825,-10.1829,-16.2839,183.9933,-13.1761,
15.6914,11.0911,-7.2799,2.7031,21.1944,-7.1106,9.3227,-1.6815,-13.97,-15.6815,-11.0089,-29.4068,187.0537,-26.4855,
16.1874,6.1134,-9.0327,1.1035,15.6114,-11.9542,15.9495,-7.8097,-20.1121,-13.0974,-11.7858,-41.7424,189.9305,-38.9964,
12.3413,8.6214,-7.5328,14.4525,24.2563,-6.4453,20.7422,-0.63352,-4.8054,1.7884,-8.2038,-48.7489,192.6346,-50.7566,
12.0803,12.4164,-19.0587,12.1479,20.4055,-7.496,9.4367,0.8419,-0.89052,12.9741,-8.191,-31.9302,195.1766,-61.4661,
15.1878,23.1693,-23.6634,13.3355,5.0812,-7.0458,2.1633,1.7498,-14.9371,9.3213,-5.7832,-15.9144,197.566,-43.6782,
8.5278,32.3196,-31.826,22.1178,-1.2452,3.9165,-4.6741,-3.1459,-27.7279,7.8032,-3.5193,-0.85954,185.6964,-26.9575,
-3.4823,32.2972,-44.0165,9.2914,-6.9201,6.5563,-9.1853,-6.79,-16.4827,-3.2054,2.4406,13.292,186.053,-11.24,
1.9964,44.2527,-47.8764,2.5062,-14.6495,20.2629,-8.1543,6.5528,-15.9727,-7.3249,13.3135,4.2111,188.9898,3.5344,
-0.039767,43.5149,-49.795,-2.4354,-15.6869,33.1472,-5.7487,10.9508,-24.5964,-4.0101,-1.5853,5.8748,180.319,17.4223,
7.6287,30.3631,-40.1002,-8.0385,-0.64568,21.6433,8.6963,9.3362,-12.5806,2.9377,-15.5902,-5.0176,172.3743,29.7203,
19.1483,20.3967,-39.1311,-18.5755,5.8944,6.2447,11.801,-5.3239,-24.7611,-9.216,-28.7548,-18.8165,176.1318,13.8371,
20.8738,33.2729,-42.5325,-14.5857,4.5823,-1.5893,-3.007,-19.1045,-37.3755,-20.1618,-29.2856,-31.7875,179.6639,-1.0931,
17.226,45.3766,-29.9195,-2.6916,4.7868,3.7762,-14.1192,-19.4635,-31.0944,-22.3055,-20.3423,-43.9803,154.7841,-15.1275,
20.5042,56.754,-15.1881,8.4892,4.9786,-2.679,-9.9182,-11.1082,-21.0841,-13.7806,-18.6428,-27.2415,131.397,-28.3199,
31.7312,66.6247,-3.7373,17.5623,3.7219,-1.5603,-11.2391,-14.2745,-18.8602,-6.2461,-19.4401,-31.4231,118.2434,-40.7207,
34.6176,58.794,8.9437,22.2578,5.415,-3.383,-0.98275,-12.4605,-13.8962,-5.8718,-17.3153,-35.2869,103.4828,-39.1635,
29.6662,41.1663,17.0311,20.9219,11.7973,-9.8872,12.491,2.3871,-8.2713,2.1456,-13.402,-19.0697,84.8179,-41.605,
36.5102,39.382,30.1092,18.7081,8.2151,-7.3776,20.3655,11.1407,-4.9006,13.5157,-5.8907,-3.8255,93.8289,-30.4851,
30.9654,27.9161,42.4027,15.1903,0.53511,-5.4975,14.8314,14.7845,6.4133,20.8498,4.5237,-8.3207,102.2991,-17.6366,
15.0074,12.1411,48.0701,1.343,0.98244,-17.1455,-0.15851,12.46,5.549,16.2446,5.6897,-21.9215,95.7482,-17.0578,
0.007,-2.6873,38.4787,-2.5699,13.3803,-7.4927,1.0148,8.838,2.3417,1.8551,7.2647,-6.5062,84.2542,-1.9344,
-12.9957,-5.9469,35.6905,-10.5607,8.2653,5.8926,-4.3163,-3.6701,-9.7766,-12.3562,-2.2742,7.9842,90.2188,12.2817,
-12.695,-9.9018,47.6491,-1.7825,4.4155,16.5585,1.2133,-1.054,-14.4597,-5.1799,-2.6167,15.9234,70.7056,25.6448,
-10.9753,0.27381,53.2079,3.1152,3.1926,28.0213,10.7229,8.5907,-10.7183,1.8385,-0.54288,8.2603,52.3633,38.2061,
-10.7962,2.6528,55.2857,2.4489,0.60569,29.6934,-4.0204,13.3455,-14.3874,-7.3758,-14.6103,21.6585,35.1215,50.0137,
-6.7946,-11.3997,54.3644,12.3634,0.090361,13.8118,-10.7605,8.233,-25.5006,-10.2861,-27.8337,17.9641,22.1336,61.1129,
-1.1158,-22.6935,51.5819,12.101,-0.3945,-1.1169,3.9852,10.1353,-9.8706,4.4311,-12.0637,2.7862,27.0347,43.3461,
-15.1489,-35.4319,42.2579,-2.7251,-12.3487,-15.1499,6.8941,7.1309,4.8217,18.2652,2.7602,-11.481,18.2256,26.6454,
-20.7422,-47.406,37.8065,-15.7706,-4.9001,-28.3409,-0.22719,10.5358,6.0358,28.2552,9.3017,-24.8921,27.6724,10.9466,
-5.3977,-51.3362,34.5802,-2.3671,6.8923,-25.3365,13.8864,9.9037,13.3402,12.4599,4.9108,-10.803,30.8029,7.2767,
5.7398,-35.7988,39.213,10.2313,-1.1869,-19.9835,20.0341,12.1843,20.2054,11.44,3.6582,-16.8624,14.8547,-7.2599,
-2.7487,-28.3807,38.2976,7.2221,-11.1766,-14.4723,4.732,10.0158,4.893,15.0649,6.7921,-11.5384,-0.1366,-8.534,
-4.9797,-25.2409,21.8997,-0.39787,-1.4035,0.49604,6.0913,3.1862,-9.5005,0.061023,14.5291,3.2539,-14.2284,6.078,
-16.6582,-19.4146,6.4858,-6.6017,1.0766,10.3219,-0.5019,-8.9814,-23.0305,-14.0426,4.5548,17.1587,-4.1324,19.8133,
-16.1382,-12.0216,-7.3865,-4.7691,-7.133,8.2643,-11.4916,-15.6305,-35.7487,-27.3001,-9.8185,30.2291,-17.9845,32.7245,
-1.0699,-10.3414,2.6391,0.30871,-6.7042,16.3929,-3.1365,-5.1093,-42.3622,-31.751,-23.3294,31.6304,-31.0054,44.861,
-2.6489,-16.429,8.23,0.28973,3.2792,13.4929,8.5505,3.8204,-25.7204,-38.4699,-21.0381,15.6326,-32.0873,56.2694,
-5.8438,-19.755,13.9648,9.3749,17.1824,-0.2529,20.9728,7.9029,-10.0772,-22.0617,-5.6759,0.5946,-16.0621,38.7932,
-11.2428,-32.6697,5.4613,8.8124,6.3642,-14.3377,12.0488,10.3036,-11.3215,-6.638,8.7647,14.6589,-11.4714,22.3656,
-13.4421,-43.4391,-5.4068,7.3257,-3.6001,-6.0851,12.2839,23.7853,2.7721,-7.1312,22.3388,27.8794,3.3169,33.3408,
-15.9894,-35.563,-19.1824,2.5744,-5.779,-2.3662,12.9847,23.1104,6.9184,-3.3495,35.0985,30.039,4.829,36.611,
-10.7183,-33.9082,-31.7189,5.7737,0.79542,-1.7443,8.8518,16.454,3.1495,10.9514,43.1879,22.9669,-9.5608,39.6841,
-13.908,-33.7906,-43.231,9.2601,-0.21028,-7.3893,4.4879,11.6331,5.8345,14.8793,26.4967,28.2956,-23.0871,43.0518,
-23.6139,-29.8463,-53.0935,-0.87797,-13.6129,-6.9459,3.2607,5.1864,-2.1812,1.5302,14.0932,40.6978,-35.8019,45.2603,
-17.8853,-27.5765,-64.0079,-12.8027,-11.3583,1.6154,4.502,3.4382,-14.0277,-1.9154,10.8518,27.5107,-41.181,41.1078,
-2.7122,-26.8799,-72.418,-1.4941,0.82162,2.4764,10.9395,9.9386,0.91397,6.8231,16.9083,18.1935,-43.5009,37.6824,
-7.546,-28.6209,-79.0923,4.8242,-8.3302,-10.6075,16.5117,7.9054,14.9591,9.7675,16.3728,31.2019,-54.9908,40.6921,
-11.405,-22.5919,-80.5754,-2.6519,-15.017,-11.408,13.1252,6.9521,5.9844,-1.8379,4.371,18.1046,-63.463,34.8968,
2.6936,-15.4876,-89.8409,-2.4937,-0.015985,2.6908,5.6292,3.6601,-8.4746,-15.8277,0.27598,2.9184,-45.5552,28.0113,
3.9694,-16.9538,-98.5504,-3.7815,11.2762,4.9247,0.022119,-6.6205,-19.2592,-11.7979,-5.0108,0.074674,-43.9861,40.4306,
1.8149,-14.9781,-106.7374,-2.5961,2.9345,-1.1199,5.77,3.3588,-4.0037,-0.54912,-13.3341,14.1702,-55.4469,38.757,
3.6219,-15.9954,-114.4332,1.3933,5.6333,-7.7603,19.5238,17.2572,-5.4066,-4.349,-16.3669,6.886,-52.3929,22.3316,
5.321,-16.952,-121.6672,8.9749,19.3953,-6.3363,31.0815,21.2853,-5.0827,0.70228,-15.3844,-0.23521,-35.1493,20.7189,
4.0438,-14.9769,-128.4671,3.6447,20.4202,-5.9561,15.8022,5.9082,-2.8609,6.4098,-5.8378,4.5697,-39.4752,33.5758,
8.1129,-21.2649,-134.8591,-10.674,7.2177,-7.0366,3.8347,-1.9052,-10.8338,-2.1194,8.4067,3.8165,-51.0009,20.815,
5.2308,-27.1752,-140.8676,-12.2222,9.1809,-9.0089,11.7497,6.3541,-22.1607,-1.5128,-0.24274,-0.72381,-45.5446,12.38,
5.3959,-13.5673,-146.5155,2.6111,14.8578,-6.0734,6.732,12.2006,-9.8126,4.8057,-7.4148,-3.0762,-52.8742,25.7372,
4.1142,-15.6281,-151.8246,-4.459,-0.13371,-1.8762,-7.7719,-0.029805,-11.1397,-9.5826,4.5294,-0.97479,-63.8018,37.4015,
6.7417,-28.7904,-156.8151,-13.7734,-4.2312,2.0696,-7.5784,-1.9444,-21.0122,-18.8628,7.1311,5.7909,-55.4547,34.199,
7.2956,-36.9177,-161.5062,-15.8214,10.1226,-8.5955,6.9763,-3.7441,-15.9182,-3.6311,-7.3968,-2.2226,-55.9607,38.8542,
12.1281,-20.6026,-165.9158,-10.5608,16.0171,-8.5583,10.1848,-3.0401,-4.9022,3.0886,-1.9555,-2.5678,-47.3329,30.2948,
6.6092,-9.9907,-170.0609,-3.219,5.4741,-0.37963,1.9086,4.8075,-14.19,0.9869,-13.3361,4.2934,-40.6596,14.3771,
-1.9319,-14.661,-173.9572,3.2018,3.7078,-1.7938,12.8134,5.9569,-27.4386,9.0723,-26.6359,18.1358,-52.3201,17.5535,
1.0583,-9.949,-177.6198,4.9261,2.5269,-6.4774,10.1273,-5.8994,-34.2105,2.7787,-23.8745,15.8835,-63.2808,30.6003,
2.9112,-4.5609,-181.0626,3.6721,-0.49908,-1.2975,-4.5803,-4.587,-22.5759,-4.0951,-14.776,0.83045,-73.584,29.0375,
-2.0547,-6.2036,-184.2988,1.5354,0.48838,-2.1781,-6.4946,9.7883,-7.1214,-11.5155,-19.6386,-3.3254,-81.9664,23.462,
2.8598,-16.3714,-184.8634,-6.2219,-6.2481,-6.8386,7.3098,9.4742,7.4059,-20.4065,-4.3603,10.9741,-62.9484,16.3051,
14.6661,-21.6182,-179.0418,-4.4111,-10.1845,-3.0741,4.4758,3.6355,21.0616,-18.7027,10.0013,7.2351,-45.0715,11.0145,
4.2041,-21.2786,-174.0485,-1.2721,-6.6991,-7.6808,-7.2906,-4.2487,33.8979,-5.1237,14.259,-7.299,-54.7566,6.5213,
-6.1096,-20.4818,-174.625,-9.3413,2.8054,-17.2814,3.2073,-1.5979,45.964,9.2837,5.2589,-18.1541,-53.867,15.2326,
-4.306,-33.3529,-176.1249,-17.8833,3.1161,-21.5143,11.1594,-1.981,57.3062,22.8267,4.4644,-2.9649,-40.5736,16.7145,
-6.9211,-45.4517,-173.2225,-12.0182,1.0136,-16.3902,1.8668,-6.6534,67.9678,10.5046,2.2801,-7.7831,-48.6791,17.628,
-19.4426,-45.1869,-176.9292,-13.6934,-6.2343,-15.8862,-10.223,-9.6075,77.9897,16.1025,7.4135,-20.2519,-49.1117,30.6703,
-17.797,-34.3312,-180.4134,-10.476,-18.7955,-15.412,-15.8383,-5.6782,87.4103,29.2364,0.74005,-11.8502,-47.6029,42.9301,
-8.1052,-34.1877,-169.177,-3.1402,-28.2087,-14.4877,-20.6372,-1.5042,79.3534,23.4432,-10.8032,-3.474,-58.8467,44.7326,
-10.9722,-30.699,-158.547,-5.3472,-25.0787,-9.3062,-22.7523,-2.8514,69.322,22.516,1.8228,-3.7441,-69.4159,37.7373,
-24.4139,-20.712,-159.096,-10.2966,-25.0114,-4.4366,-22.8246,-7.9505,72.3488,27.3932,10.8165,-5.9158,-71.5466,35.9516,
-14.5987,-5.3693,-150.0288,3.257,-15.3657,6.8495,-7.3551,1.6295,67.5294,16.6466,14.4797,0.66827,-53.1538,38.1067,
0.37722,0.49625,-136.2363,4.0196,-8.6941,6.4385,2.4624,1.5317,49.3776,7.0243,10.7361,-7.0374,-36.7555,32.9464,
-1.2886,2.3829,-130.9365,-0.053955,-6.2561,13.7173,3.2722,-1.4345,40.3926,16.1848,8.1755,-11.4064,-20.4502,33.844,
-15.3113,5.1143,-137.1803,-1.0091,-17.3796,14.8107,-1.7154,-3.2649,30.303,13.2973,2.8938,-0.18205,-31.4073,31.8129,
-18.4982,7.6822,-130.1811,2.8842,-24.9603,10.0902,-9.2771,-0.19414,21.7781,13.4575,9.4278,13.9289,-43.6228,41.4034,
-7.3278,4.8255,-117.1005,-2.5595,-13.4022,11.8797,-15.908,1.2545,34.3647,12.1701,22.9621,10.0125,-55.1055,45.1469,
-3.0553,-9.5641,-121.5729,-5.2799,-0.14081,8.2921,-10.1619,4.054,31.3449,8.566,25.2114,-4.0034,-37.6991,28.3381,
-3.3505,-21.2403,-116.6739,0.30714,-3.4857,-6.0992,0.50882,-4.3343,15.3642,17.155,9.5987,4.3818,-21.3372,12.5378,
4.0371,-7.0306,-95.5734,8.4333,-1.8396,-10.045,11.4977,-7.428,18.9603,30.2257,3.9584,6.5147,-34.1569,-2.1756,
7.1478,7.4913,-89.5658,9.3642,7.3733,-3.2146,6.496,-6.5033,12.553,32.5182,-1.5489,-2.0217,-46.2075,-2.5241,
12.4686,21.1418,-98.2919,9.7613,-2.6506,9.4355,-7.9937,-9.945,-2.3002,16.4671,-15.556,12.1996,-57.5351,2.4191,
24.1777,33.9733,-106.0819,10.1336,-16.5916,11.7442,-21.6141,-12.2231,-16.2622,1.3791,-28.7226,17.4905,-68.183,10.8975,
35.1834,39.9411,-91.0934,15.2743,-12.9945,15.8303,-10.3232,-1.9082,-18.7077,-5.9577,-32.3364,2.3411,-78.192,6.4108,
19.1786,26.5248,-88.0232,11.0045,1.8852,9.6103,4.3962,-5.1471,-19.9806,1.5868,-16.2962,-11.8994,-60.0125,-8.0738,
12.7573,21.5795,-87.0545,9.8652,15.8721,-1.9857,10.1548,-5.3182,-23.0936,-0.90423,-1.2185,-25.2854,-42.3117,-17.4446,
21.0948,12.1406,-75.6021,6.8779,7.3207,-7.1368,5.2333,1.23,-7.6079,0.58744,10.4205,-16.4424,-39.5003,-14.0025,
5.7291,-2.6878,-74.8993,-7.6347,-1.7426,-12.4578,-5.6207,-0.76109,6.9485,6.3014,2.1292,-1.3559,-50.546,-10.288,
-8.7146,-16.6266,-81.9032,-17.0323,1.2373,-14.5847,-2.4091,3.1178,9.4734,17.4221,2.9599,8.5802,-41.7631,-2.0047,
-2.989,-21.9246,-77.9475,-10.2612,-7.461,-10.8352,7.3174,12.5127,6.0306,30.4768,-0.093011,9.9818,-37.3409,-8.5916,
9.1687,-16.2973,-70.8752,4.4545,-16.1168,-2.9985,11.1902,15.1158,-6.3095,42.7482,-12.0648,19.4443,-49.2005,-15.2627,
3.8273,-3.8206,-80.7227,10.6886,-3.6509,1.9726,-1.9371,0.79406,-20.0309,28.7514,-18.0481,31.6924,-56.5826,-0.24691,
-0.71455,10.5086,-82.3807,13.4015,7.5871,6.1665,-15.9209,-7.3977,-32.9291,12.9263,-21.2774,23.5627,-62.2906,13.8679,
2.6826,23.5656,-69.2929,12.118,9.5272,14.8986,-8.5321,-5.5173,-40.1228,-1.9492,-25.271,8.0489,-60.9495,3.9993,
3.9581,9.2159,-71.3644,-2.7091,13.2678,12.5673,6.0798,-6.6237,-23.6155,-1.8992,-17.5265,-6.534,-50.1055,-10.3406,
11.3871,0.039363,-64.2072,-3.2983,15.3466,9.8973,13.1753,3.3562,-8.0985,0.13157,-4.0177,-20.242,-32.9991,-17.1795,
7.8291,1.9529,-53.6476,7.4391,8.6761,8.3455,-1.0305,9.8624,-1.7969,-5.626,-3.7766,-5.4738,-24.9973,-5.6083,
-3.6605,4.2311,-54.7406,6.5143,7.677,-1.2582,0.46875,7.8332,3.5811,2.8566,10.55,-8.4997,-37.5974,-19.3718,
-5.8363,-7.0417,-54.8099,4.686,6.737,-6.4529,6.6688,2.093,7.6785,16.579,24.017,-22.0897,-48.0711,-32.3095,
2.1795,-18.1175,-51.5213,4.4048,5.3748,-0.31703,10.1015,1.0095,4.3429,18.4581,19.2887,-9.0597,-34.6465,-31.8753,
5.8815,-14.1566,-48.4301,-1.6091,5.0523,-6.0467,5.6626,-2.8839,-2.6253,8.7271,4.0313,5.5839,-39.2753,-15.8628,
2.6538,-16.1811,-48.3991,-13.0109,4.7492,-19.0992,1.49,3.0379,8.0727,-0.42008,-2.2325,7.4389,-51.0188,-7.9311,
-4.2121,-23.8342,-54.1187,-11.2723,6.3801,-14.1204,11.941,14.354,19.0867,11.1035,3.6511,-7.1074,-37.6904,-21.5553,
-2.043,-15.6966,-55.6628,1.8608,6.9558,0.8268,12.183,11.5764,9.3175,24.5373,2.4736,-7.9126,-23.9311,-6.162,
-0.0044759,-1.3405,-51.3646,10.3727,9.4132,7.7576,-2.648,1.3003,-5.3416,8.9655,-6.2984,6.6622,-36.5952,8.3078,
3.3501,12.84,-47.8037,17.8954,12.2018,-3.7268,-9.9484,0.7428,-19.1211,-5.6724,-19.8142,-6.4002,-47.6076,3.7707,
17.2491,26.1696,-47.8099,16.8217,11.4697,7.9951,4.7485,3.5731,-23.7895,-19.4321,-14.7926,-20.1162,-30.6511,-9.8698,
28.9437,36.1657,-44.9413,1.7124,9.8235,18.0559,17.1931,-9.0977,-20.4453,-26.9567,-2.4066,-6.7251,-21.8312,-7.3617,
13.107,27.2881,-41.2868,-1.5375,21.6905,11.2229,15.2026,-6.6359,-5.1186,-11.2393,3.4865,-3.4477,-26.271,-1.1704,
-1.7794,11.5508,-52.9096,-0.9667,23.7424,-0.46946,5.1875,2.8653,9.2885,3.5351,4.7147,-17.1346,-32.8398,-8.2872,
-3.6564,3.3975,-57.1949,1.0082,15.6112,5.3074,-3.7473,5.5682,2.0906,17.423,7.3067,-12.2737,-31.8274,-7.79,
5.1865,5.1105,-53.7632,-3.844,0.57448,4.031,-8.3132,1.4013,-2.8265,8.0933,8.7842,-12.4953,-32.7925,-2.5318,
-7.5806,5.7623,-56.2861,-4.5709,-4.5244,6.6644,-3.0232,7.0664,5.9671,5.6913,9.2156,-6.9543,-23.159,-1.4215,
-17.6671,4.4577,-67.0089,-8.1303,9.1614,8.1805,0.99004,5.6835,2.7342,2.475,4.8298,7.5629,-18.8955,0.57976,
-18.044,-3.9544,-77.0884,-21.5358,21.5479,7.2107,5.2433,-0.88519,-8.4492,-4.8601,12.6846,6.9024,-17.2828,5.8156,
-25.5849,-17.8171,-85.9453,-25.9933,15.4643,7.736,1.0959,-0.83208,-14.649,-13.192,15.7563,-7.6117,-17.2038,1.6339,
-25.0078,-5.5229,-85.5798,-10.3337,2.0792,11.1047,-2.8026,3.0506,-18.5617,-21.983,0.71096,-9.3441,-30.2716,6.3266,
-9.4073,8.9085,-79.4866,4.3863,-3.7938,14.2716,-12.2164,-11.2324,-31.548,-34.764,-13.4317,-6.8671,-42.5553,19.3618,
5.2571,22.474,-67.0518,18.2231,-6.441,19.1641,-24.8987,-24.6585,-43.7551,-46.7781,-25.6281,-13.1627,-54.102,29.6985,
19.0417,35.2255,-48.9287,31.2297,-8.45,32.1142,-21.0094,-9.0789,-45.0291,-44.9968,-16.9043,1.7271,-64.9558,36.0616,
10.5733,47.212,-45.2408,19.4294,-22.043,30.9391,-20.7068,-1.6208,-28.2274,-28.197,-29.3052,12.9156,-75.1585,19.7979,
9.4604,54.0961,-52.5873,4.1636,-6.6204,19.9807,-5.3644,3.7466,-12.4337,-12.4052,-19.4019,1.1217,-59.5573,4.51,
10.8092,36.7503,-59.0145,-10.1862,6.7122,4.6818,9.0575,10.229,0.83606,-15.4263,-19.1962,-13.0456,-45.4439,-9.8606,
12.0766,25.6481,-52.5984,-16.3492,13.975,-9.6991,15.2891,11.5321,-3.0469,-20.2494,-19.0024,-26.3629,-50.3828,-23.3689,
11.352,38.2092,-52.3173,-3.8707,24.6349,1.8353,9.58,-1.6171,-12.4465,-24.7841,-12.1126,-11.9127,-59.8162,-36.0668,
19.2949,50.0167,-52.0531,10.4615,19.3245,-2.1081,2.2981,2.3132,-17.4489,-22.3386,-21.9267,-10.2395,-61.9764,-44.3709,
25.8023,59.0605,-58.5119,12.9818,4.7502,1.8517,-11.9398,-1.6588,-30.502,-33.4551,-34.7111,-23.7252,-71.6726,-29.2518,
29.5248,69.6168,-62.1878,0.22556,11.6518,15.8406,-14.8509,-14.4946,-42.7719,-45.5478,-19.007,-24.0123,-79.3496,-13.3967,
19.6088,79.1273,-63.7267,3.5658,8.5569,28.9901,-14.4388,-7.3963,-54.3056,-55.5445,-4.9312,-8.4715,-88.6887,1.5071,
7.4128,72.9427,-59.4241,11.4965,-6.0565,39.7736,-26.5078,2.15,-56.1781,-38.1118,-18.5296,6.1368,-85.5574,15.5167,
13.1962,64.2549,-47.7132,19.9097,-7.8827,36.9086,-11.0236,-5.1652,-38.7075,-21.7251,-23.6451,19.8686,-77.0697,28.6857,
19.5911,46.2996,-33.8314,20.152,-6.9308,30.3823,0.65722,-2.4603,-22.285,-16.5219,-8.3331,28.1201,-75.7993,35.2435,
12.187,29.4216,-17.7016,6.0076,-7.9519,14.4594,-4.652,4.8739,-6.8479,-9.3028,6.2669,12.3329,-61.1899,19.0289,
13.8516,13.5563,-2.9515,9.0009,5.4605,-0.50817,9.7272,8.8932,7.663,5.3553,18.6205,6.5289,-43.4185,3.7871,
11.5835,-1.3571,-2.2954,6.065,13.2775,-14.5777,23.2435,19.379,19.3149,19.134,17.0243,20.2372,-40.5411,-3.2151,
-1.5683,-15.3757,-5.9905,-8.3989,9.6065,-12.1272,21.4369,28.7572,5.6992,25.2395,11.2116,21.6915,-40.0251,11.0778,
-1.9536,-28.5531,-1.3193,-11.5219,11.4255,-8.0453,20.6292,26.5523,8.7106,15.5811,13.8931,20.8686,-36.1861,24.5131,
-10.4604,-40.9399,-13.6969,-8.9142,10.7404,-21.6626,15.5591,12.5024,5.3136,6.0222,16.8919,19.6169,-48.115,8.9423,
-1.6882,-28.8971,-8.5629,1.6821,19.1985,-12.491,15.1046,21.8136,10.2655,17.6382,29.9784,9.3365,-43.105,-5.6942,
5.6001,-24.7679,-12.3609,-1.7722,3.9466,1.1942,7.9701,10.4438,-1.3703,2.4799,14.0797,-5.3237,-49.6217,-12.5392,
19.3641,-21.8449,-2.5167,8.3946,-3.2706,5.4343,10.8457,2.6306,-5.5999,0.14153,2.216,-4.3191,-60.7444,-10.3489,
21.8293,-10.9517,7.2168,7.8909,-1.1575,-8.9917,1.5705,-2.3189,-7.1807,10.6734,16.183,9.3553,-71.1997,-23.828,
15.2493,2.6411,14.9283,6.939,3.2233,-9.2049,2.9137,1.1745,-16.8109,19.136,7.3402,18.8549,-66.5162,-15.4854,
0.23436,-11.6173,6.367,-0.18545,-10.3849,-7.6941,-4.9263,-4.6452,-29.9022,7.4479,-7.2002,22.5149,-75.94,-0.45627,
-4.8437,-25.0203,8.8598,-4.9646,-5.9285,-9.1489,0.15961,-4.3669,-14.0081,15.6251,-5.1246,26.9132,-63.718,13.6711,
-6.9489,-37.6191,9.7652,-18.7668,3.5297,-20.5773,1.5879,-4.5839,0.93241,16.1245,7.1603,21.9446,-46.9591,26.9508,
-5.0945,-49.4619,14.4495,-22.7052,0.92255,-20.7801,-12.6074,2.8782,-10.3487,7.97,-1.4144,21.1073,-48.4534,39.4338,
-4.3099,-46.1496,18.8527,-9.3655,-3.4446,-15.2215,-16.9153,5.1004,2.25,2.222,5.8571,29.9014,-55.6076,51.1678,
-11.2379,-29.2806,20.1174,-2.5749,5.8655,-9.9964,-4.881,5.2743,16.215,5.4425,8.8595,42.2073,-66.3711,62.1977,
-12.001,-25.3333,17.4729,-3.8578,10.7838,-11.792,-5.0667,12.144,29.3421,-0.15424,4.0166,50.4889,-76.4889,72.5658,
-12.2389,-35.3126,23.1313,-3.6264,-3.9632,-22.5829,-17.22,-2.6846,41.6816,-5.8946,16.231,33.3596,-80.1115,82.3119,
-5.2764,-19.0938,35.8434,10.6912,-15.0185,-17.8737,-12.8325,-16.6236,53.2807,8.5591,29.3572,17.258,-70.9921,91.4732,
-19.0598,-11.9258,33.966,8.4065,-28.2174,-20.156,-21.166,-17.131,64.1839,22.1455,13.4957,16.6337,-80.8326,100.0848,
-30.6458,-8.8144,32.4075,-6.1979,-35.4211,-18.4676,-21.333,-2.0031,74.4328,18.9678,5.4999,1.5356,-90.0826,108.1797,
-16.3502,-9.244,44.563,-8.4946,-19.1958,-21.1919,-9.5131,-4.0051,84.0669,31.2445,19.2699,-12.6565,-76.6001,115.7889,
-8.1826,-12.0431,50.307,-7.5059,-3.9441,-33.8137,-6.5464,-11.9094,93.1229,43.4698,32.2137,1.9301,-86.1041,122.9416,
-4.3379,-8.9247,44.8932,-7.5345,-17.8074,-45.8849,-14.2982,-15.5066,88.2828,26.7616,16.1809,-0.58059,-95.0378,129.6651,
-6.4734,-5.9943,36.9294,-5.6455,-22.6939,-57.2318,-11.0454,-23.6797,79.632,12.2206,1.11,1.8492,-103.4356,135.9852,
-11.3557,-6.1136,36.1506,-9.6186,-16.0626,-67.8979,-0.32126,-8.3647,80.1238,25.5874,1.0439,15.8382,-92.2998,141.9261,
-12.5903,-10.5376,37.8144,-17.665,-20.8485,-77.924,-7.9676,6.2372,62.8601,31.511,-3.8105,4.1417,-96.3438,147.5105,
-9.4395,-0.80233,32.1922,-5.5862,-12.4105,-87.3486,-9.8849,18.1131,54.7762,15.7266,-4.0604,-10.2068,-82.4182,152.7599,
-12.2274,7.3899,23.074,7.6848,-12.1453,-96.2076,4.8082,2.9263,50.0522,14.3036,-2.3802,4.5056,-76.0361,157.6943,
-11.9723,4.5521,26.0018,6.7452,-17.6448,-104.5352,13.4165,-3.2712,43.6957,27.5454,-0.7991,1.8399,-84.4093,162.3326,
-7.4211,-1.4707,26.3576,5.3816,-14.6701,-108.799,-1.4885,-6.9077,44.9059,38.1437,9.7883,-12.3705,-87.0108,166.6927,
-9.3717,7.7201,22.3808,13.2033,-15.2269,-109.4577,-5.0262,-20.3875,36.9418,26.7525,2.9733,0.075915,-93.7675,170.7911,
-3.0598,13.0065,18.1636,5.7044,-21.02,-107.681,3.8998,-14.3725,20.6253,20.3566,-11.3051,2.9462,-102.2415,174.6436,
11.2238,-1.1886,21.8645,-4.2199,-18.8013,-107.9278,0.79055,-5.8451,10.4915,18.1768,-14.7332,-11.3306,-96.3797,178.265,
1.2416,-10.6998,13.8455,-0.13389,-11.9235,-95.7029,0.74312,-7.4103,20.4024,8.4617,0.25077,-16.6731,-78.1406,181.6691,
-12.9329,-4.3086,-1.0852,-2.0423,-5.4589,-86.1279,0.69899,-6.0082,5.0782,0.28885,0.50939,-1.5728,-82.0757,184.869,
-18.1793,3.6155,-10.8753,-10.5442,0.61733,-70.4199,0.65705,-0.856,-9.3265,8.8951,0.47882,5.502,-65.6528,187.8768,
-4.1528,-3.7876,-16.4514,-11.349,-2.774,-53.2593,4.9289,-2.2421,-12.6671,12.6727,10.5111,-1.0563,-54.5275,190.7042,
-18.0036,-10.7469,-24.5673,-2.5234,0.74628,-50.5428,6.0702,-2.5874,-4.7205,2.8098,6.5266,10.0265,-65.1496,193.362,
-29.1739,-10.1021,-24.0513,-8.1208,9.326,-55.1758,1.8732,-2.4313,-0.60444,-9.8151,5.177,9.4249,-66.9898,195.8603,
-13.3235,-2.3098,-18.2964,-6.1961,5.4121,-39.8879,11.8227,1.068,-14.4628,-7.7888,7.2618,-1.2016,-55.7843,198.2086,
1.5759,3.578,-23.9058,8.2757,-7.3685,-25.9958,5.3641,-3.7873,-27.0089,6.7785,-7.2739,2.7028,-62.9772,200.4161,
-6.5963,13.4252,-25.8252,10.4482,-6.4469,-29.7058,-9.0577,-7.8714,-11.2884,17.6644,-18.1301,16.6407,-70.2175,202.4912,
-8.1178,9.7444,-24.2762,-0.7196,-5.1026,-37.5059,-9.2665,-10.2744,-6.985,7.0216,-7.4603,27.8928,-64.0885,204.4417,
0.99375,-3.2966,-30.4852,-0.67642,-12.462,-34.2975,-0.086921,-7.7411,-18.0643,8.5172,-2.2219,21.4285,-60.2432,206.2752,
5.2464,-7.4111,-29.1351,4.6344,-15.0677,-32.7187,-2.4771,-1.0485,-19.3758,22.1062,-1.6092,22.5381,-53.2748,207.9987,
4.9311,-2.1752,-29.3029,5.3147,-5.5396,-31.7135,-9.9936,-3.8599,-21.0876,8.1177,-4.387,13.5207,-45.2871,209.6188,
3.6773,5.6209,-38.0856,4.037,6.2903,-22.1456,-0.77133,-2.6704,-18.8644,-6.4694,9.9762,-1.3905,-36.8211,211.1416,
-8.0417,0.49288,-48.2564,-2.912,-2.7107,-25.6071,1.1918,-0.59328,-14.8577,-4.4385,23.4777,-8.2879,-41.319,212.5731,
-9.4752,-11.0351,-53.0266,-1.7793,-4.464,-25.0291,-9.4192,0.40029,-13.0083,9.9278,33.1558,6.3094,-35.965,213.9187,
-6.0328,-24.473,-55.5946,4.0771,2.5114,-9.4274,-12.6878,-0.5817,-10.3109,8.6474,17.0665,20.0308,-28.0579,215.1836,
2.9528,-8.9046,-45.5518,15.3309,11.9423,5.2382,2.1735,4.244,-5.8595,-5.9715,1.9425,17.4585,-22.5421,212.9895,
4.2135,5.7297,-52.8796,12.0152,11.7047,3.0745,15.2525,-4.1562,-16.5273,-3.4915,-12.2741,12.0992,-14.961,186.1101,
4.9186,4.2212,-60.2473,13.2102,5.2528,5.7644,1.8801,-7.7396,-14.5777,10.818,-10.9203,16.164,-22.6873,160.8435,
10.8517,-0.34335,-64.777,10.9811,-4.1645,10.6888,-4.4609,-2.963,-18.9732,10.9216,-4.0369,14.7157,-35.4261,147.7721,
10.2006,1.5932,-70.4724,0.7398,-4.8735,2.3818,-8.026,-7.576,-26.4584,-3.8337,-4.7526,18.6235,-37.8855,136.0309,
5.7558,-1.3772,-73.9096,1.6534,-4.5811,-4.4687,-15.21,-12.871,-13.3725,-3.8769,-10.2171,21.3389,-33.696,113.7691,
6.8478,-7.5228,-76.6616,0.11768,-2.8679,1.0701,-9.9852,-10.6605,-7.3,-3.1648,-17.7482,5.9585,-35.9855,92.8429,
15.54,1.0736,-71.583,-2.2857,6.4063,8.192,4.7139,-3.7927,-5.4246,-17.0749,-12.3711,0.53706,-21.849,73.1724,
14.6076,0.051238,-64.4132,-2.1476,7.9388,0.035386,5.1837,-3.5651,-7.0159,-27.3426,-1.0884,10.0873,-14.7889,54.682,
9.4189,-5.222,-62.9437,0.37662,10.8158,-8.1118,4.3933,-5.7466,-6.1155,-12.7662,1.3723,-4.618,-12.4642,50.7886,
6.9373,-5.8671,-65.8747,-0.6044,8.2504,-5.7087,3.1712,-4.4443,-7.665,-9.1259,-0.62646,-0.30231,-11.7163,44.866,
7.0005,-5.0366,-67.1925,0.86836,8.2349,-2.0128,3.4595,-1.7822,-7.6845,-4.267,-1.0683,6.902,-8.6184,41.6946,
6.1015,-4.2545,-68.4311,1.2962,8.2198,2.4202,3.7318,0.72055,-7.7025,0.30078,-2.4421,13.6745,-6.6639,38.714,
5.2564,-3.5202,-69.595,2.6553,8.2056,5.6288,3.0289,2.1143,-7.7193,5.5534,-2.7745,20.0406,-3.8682,35.9122,
4.4621,-2.83,-70.6895,2.975,7.2342,8.6449,3.3262,4.3832,-7.7351,9.532,-3.0871,25.0668,-2.1987,32.3205,
3.7149,-3.1397,-72.6768,3.2759,7.2796,11.4795,3.6051,5.5577,-9.6664,13.2723,-5.2972,30.7489,-0.62984,27.9859,
1.5756,3.7568,-74.0653,-11.0206,3.0096,-1.666,-6.1932,-8.8758,-23.1864,-1.6241,-14.5614,27.9456,5.1571,12.2067,
-3.7891,5.9267,-69.142,-11.1116,8.0992,6.579,-0.55136,-4.3047,-12.9659,3.4699,-11.2923,12.1688,0.53593,-2.6257,
-3.0828,-1.6155,-66.4313,-3.2583,17.6738,13.3708,0.91868,1.2234,-9.7921,6.6155,-10.1358,-1.2904,-1.8921,-8.7642,
-3.8558,-0.56056,-75.8598,-8.8124,18.5302,6.8194,-4.8852,-5.5567,-15.9122,-3.3629,0.054808,12.887,2.0547,-22.3383,
-10.8115,-0.047484,-80.4112,-13.5539,16.9399,2.098,-5.0715,-4.7448,-17.3528,1.1502,3.4049,26.2138,5.2852,-35.098,
-2.4968,-4.8359,-65.0461,-4.1166,22.6306,4.8469,7.6896,9.6399,-2.8969,9.7052,4.159,10.541,11.6753,-47.0922,
7.714,-14.6067,-62.5807,-5.3061,15.0446,4.0771,3.8749,1.1901,-5.1185,-4.9771,10.1376,-4.1915,4.7466,-58.3666,
4.8558,-4.6273,-72.7201,-9.3,3.1221,12.9355,-10.4576,-11.8171,-18.9114,-18.7785,19.5904,-13.0434,3.9828,-68.9646,
-2.6222,8.5857,-80.3347,-8.2639,1.4978,19.3455,-14.8946,-3.9215,-28.5907,-31.7518,13.1452,1.8392,1.348,-78.9268,
7.1176,11.9033,-75.5142,3.7312,2.3659,22.018,-7.2933,6.8542,-23.0416,-29.2284,0.85809,15.8288,-11.1892,-88.2912,
10.5233,13.106,-68.109,1.5905,4.1408,27.4046,-8.7726,4.5261,-25.4919,-41.5747,-7.8179,8.2389,-13.3927,-97.0937,
13.2457,26.2139,-57.7938,10.5985,5.3293,35.8217,-5.8504,2.8176,-11.985,-36.9576,-9.7437,11.0984,-0.61131,-105.3681,
20.1166,26.557,-54.3257,24.0626,-2.656,37.5048,3.1251,10.3141,-6.4742,-20.6401,-3.4094,23.8477,0.38379,-113.146,
14.5978,10.8636,-65.1662,8.5188,1.8151,25.1935,-0.41619,5.3835,-20.1858,-33.0227,-6.5587,9.4806,-2.0346,-120.4572,
17.5547,-0.12289,-63.9252,-6.0923,15.8062,12.1831,1.5247,0.26974,-32.1841,-28.1666,-4.2492,4.121,12.1875,-127.3298,
17.459,-7.7806,-62.9646,-6.4794,28.9578,-2.6479,8.1404,-4.5386,-16.153,-12.3766,5.5877,13.4557,9.8121,-133.79,
10.1833,-16.4168,-63.4985,-10.402,37.8282,-16.5891,16.755,1.9628,-11.5568,-22.3802,10.5227,17.9186,1.0788,-139.8626,
16.7589,-11.12,-61.126,-15.0485,49.4518,-29.6937,17.1866,5.1989,-24.9634,-35.1374,6.5375,2.7435,6.2838,-145.5708,
29.8533,-7.099,-61.7706,-0.045591,47.9217,-17.7123,13.7605,3.4491,-17.0321,-18.9291,5.6663,-11.5212,20.0068,-150.9366,
25.461,-5.2357,-60.4598,11.7292,40.735,-2.5496,12.4554,7.5544,-10.74,-14.44,-0.9019,-14.7296,27.7036,-155.9804,
15.3093,0.82767,-69.2885,-1.4314,31.5838,6.0221,3.085,-4.3968,-24.1956,-27.6736,-1.8062,-9.0546,13.585,-159.8868,
10.5579,-4.9716,-77.588,-13.8028,22.0232,2.7855,-5.7246,-18.233,-36.8439,-21.4952,4.0518,-5.6375,5.1039,-162.7509,
12.7988,-5.6309,-62.3923,-2.4337,24.5341,9.326,-4.4227,-4.9554,-20.5332,-6.1055,4.7662,8.8008,17.2545,-150.1106,
11.5519,2.8516,-66.7938,2.0241,19.7083,13.0782,-14.2187,3.4865,-23.8862,-10.7361,-3.6643,16.691,2.3254,-138.709,
7.026,8.4292,-76.8862,-4.805,9.9022,11.3355,-10.4908,-10.8227,-36.553,-24.192,-4.4024,1.5895,-11.9141,-144.4865,
12.8326,-2.1375,-65.3592,-4.9952,20.3279,8.26,4.2387,-17.6327,-32.2368,-21.5762,1.1319,-12.6059,-13.8678,-149.9173,
23.0816,-14.9451,-47.3376,2.4906,33.2082,3.4522,18.0843,-2.4747,-16.2026,-6.1817,4.4173,1.9773,1.0642,-155.0222,
20.2602,-10.6941,-35.6006,8.5694,35.3208,7.5568,10.3586,11.7737,-1.1304,6.9188,-0.15902,7.1289,14.6884,-159.8209,
15.6903,0.9665,-40.6512,7.5758,19.1016,19.0812,-1.2818,-3.0327,-12.494,0.27548,-0.62892,-6.2347,17.1604,-153.2404,
18.1023,-1.4869,-39.6495,1.851,12.8915,9.7913,-1.6844,-6.4112,-18.9314,-4.0533,1.8042,-13.0476,22.359,-151.2321,
10.7884,-7.6263,-26.2512,6.0527,26.0122,9.6833,8.4781,6.9097,-3.6955,10.2899,6.0077,-3.1613,9.0401,-144.554,
2.4751,-12.9179,-21.8013,6.6479,19.6603,23.2023,10.8438,8.4115,-0.80521,16.1739,-1.0599,5.6524,5.6233,-133.9635,
16.4266,-5.9137,-27.6798,7.6865,5.5449,35.9102,7.7978,11.2602,-14.8569,11.8501,-7.2245,15.3742,19.3859,-117.7816,
20.9844,-3.643,-31.7682,1.4756,10.9618,28.0733,9.2468,10.5846,-13.7592,4.4315,-4.8751,8.7021,13.2257,-110.7147,
6.79,-14.4438,-29.3827,-1.0078,20.3656,23.9935,7.255,5.6377,-3.8302,-1.1042,5.4789,-3.7965,5.246,-111.2575,
1.5909,-13.5772,-35.2857,4.8014,15.3099,30.2191,1.0701,4.3415,-4.5593,-6.7875,6.1081,6.9708,18.3456,-95.0005,
-4.7323,-2.7011,-34.606,2.1174,19.662,31.7597,5.3176,7.4348,8.6505,-16.4417,2.3878,20.6526,26.3479,-75.2005,
-14.9887,-12.1215,-28.6964,-8.5491,16.5654,25.0634,5.9566,5.0719,22.2315,-23.1199,4.1614,27.8312,19.0178,-84.7884,
-16.9642,-25.4942,-36.5571,-22.1362,1.4715,9.4596,-3.9824,-2.898,32.6692,-15.026,-1.8379,12.0613,5.4199,-93.8011,
-1.8464,-24.2377,-25.7396,-11.4997,-12.3043,6.7024,-2.7854,-2.7242,44.809,-0.024433,-4.6016,-2.7624,11.8024,-102.2731,
-2.4208,-17.0343,-15.5717,0.68825,2.5339,3.4254,-6.4516,-9.2679,56.2205,5.0415,-18.4255,-16.6966,14.9265,-98.1205,
-14.2529,-20.324,-17.0328,4.0008,-6.4479,2.7409,-1.7527,-4.4,66.9472,9.0507,-31.42,-13.1602,4.9284,-85.0467,
-19.6259,-24.3748,-20.3226,-3.4254,-20.161,5.9307,-5.9589,0.17621,77.0304,14.7359,-25.2904,-22.4315,-5.4283,-79.4644,
-5.5126,-13.8093,-10.9586,-9.4481,-13.4758,16.5934,-17.5791,-1.2727,74.9379,11.4563,-20.4196,-15.8163,1.1252,-60.5966,
8.9182,1.1193,-11.2591,-1.2161,-5.0012,23.2638,-18.4408,-12.6942,58.9428,12.6854,-29.7344,-0.76737,-3.7331,-42.8608,
-3.801,8.9909,-20.166,5.565,-16.2,16.1188,-19.2507,-12.891,51.5739,10.0078,-27.9499,-10.9885,-13.0911,-47.8877,
-11.2376,8.4514,-4.856,8.1059,-8.5195,20.9013,-10.4292,1.9824,53.2711,10.3663,-12.1729,-24.4292,1.7944,-59.1145,
-0.98136,-6.1556,9.5353,-1.9624,-7.0508,16.7729,-2.1383,5.012,45.2827,14.5346,-0.62936,-28.027,10.5839,-67.3387,
-13.8587,-19.8863,-5.1368,-15.9447,-20.7277,1.6665,-11.1126,-9.3887,31.5473,10.3087,-14.6916,-17.2419,-4.1511,-77.3984,
-23.0886,-32.7931,-15.0953,-25.8016,-14.9665,-12.1219,-7.0929,-18.6811,40.6729,21.6675,-11.2085,-16.6873,10.1979,-86.8545,
-14.9957,-20.1463,-0.089615,-10.1535,-9.2769,2.7054,-0.91769,-3.4602,35.3586,19.4095,3.564,-27.1844,23.6861,-67.5432,
-9.3056,-13.1883,3.0629,-1.606,-16.3863,16.6431,-5.6538,6.6026,24.6122,12.4958,0.74811,-30.3446,14.8716,-51.3079,
-12.1002,-9.0432,-8.1403,-10.6131,-14.9241,15.7114,-16.334,-7.8936,22.6565,13.183,-13.3968,-18.4625,-0.12069,-57.332,
-7.0624,5.5994,3.368,1.044,-4.9252,28.663,-13.917,-4.8183,17.9442,6.1643,-26.693,-3.2547,-5.177,-48.6223,
-8.0756,-5.0038,17.2659,7.21,-8.9415,12.8432,-9.7282,2.6574,8.723,2.4406,-30.9066,-5.6611,-5.3453,-59.805,
-11.9033,-18.8036,19.3775,-3.2845,-19.4248,-2.0274,-10.5819,-7.563,1.0125,7.5644,-14.9522,-18.2572,-2.6292,-70.3167,
-12.6265,-29.4469,7.1955,-10.2736,-12.9891,-15.3879,-11.3844,-14.2963,-4.3184,5.6731,0.044901,-13.8075,5.6731,-80.1977,
-14.7433,-13.5801,13.4709,-4.8668,-5.5026,-0.36467,-5.9101,-1.9397,-12.6833,8.2071,-3.2455,0.43572,11.0819,-61.2858,
-13.8592,0.92311,26.7626,5.0081,-19.2725,13.7572,-7.4719,8.7166,-8.0891,19.2135,0.78243,5.2008,17.1246,-45.2188,
-3.9246,-4.4034,39.2569,4.2281,-27.4919,27.0318,-13.2518,13.4638,6.4963,27.1637,14.8355,11.1169,29.0329,-41.0683,
0.14411,0.65203,51.0015,-2.7327,-22.968,39.5099,-12.4571,10.7396,8.7746,21.7006,13.7396,7.5746,28.2489,-36.6878,
-5.6137,2.5302,62.0414,-0.65234,-22.5474,51.2393,-6.9185,6.2629,1.541,24.2318,4.2912,-6.9798,25.596,-45.0265,
-10.0681,3.3359,64.6819,6.094,-20.2371,54.8002,-0.75417,9.7195,12.9474,24.6943,8.8249,-8.7502,29.8094,-49.9909,
-16.1712,-2.6134,53.135,-0.97884,-21.8972,55.3455,-2.6253,12.0107,8.3373,9.1127,12.1278,-3.434,20.3553,-59.4483,
-15.2009,2.3341,45.1561,-3.7949,-26.333,56.8155,-10.1334,9.3741,-6.263,-0.33132,6.6093,-6.1028,15.3012,-62.589,
-2.312,16.0888,56.3405,7.4517,-22.3568,51.0112,-14.7956,8.3322,-12.3886,2.0839,4.7754,-6.216,18.6949,-54.5214,
4.5348,1.7078,62.542,7.0051,-18.141,43.1593,-9.1166,8.7907,-0.14642,11.5409,7.3632,-3.9267,11.824,-62.7481,
-7.2361,-12.4947,50.166,-2.0393,-22.8017,40.5702,-2.8204,6.3469,-12.5944,16.5976,5.005,-4.6486,-2.3002,-73.0832,
-8.7183,-0.51985,49.072,8.623,-15.6844,44.8431,4.0559,7.8824,-25.2535,19.435,10.4539,9.0451,6.4614,-57.473,
-4.841,12.448,50.4403,10.502,-8.5152,40.7151,2.3761,5.9721,-17.5102,14.9156,14.1389,13.7726,20.1737,-45.8796,
-4.072,2.5982,48.8504,7.4755,-15.1913,31.0852,1.7541,3.2184,-2.3596,11.6243,8.9783,-1.1537,17.3201,-57.2268,
0.96356,-0.43209,47.8362,10.8603,-17.1533,27.3046,-3.1424,1.1089,1.409,15.7181,2.6914,3.9129,2.1809,-63.169,
8.0914,8.6964,53.1102,8.7708,-10.8553,34.7688,-4.3917,4.3952,-12.5697,24.8355,-1.7828,17.7782,4.1722,-45.2788,
4.2526,2.9044,55.1942,-1.8164,-10.6825,32.2033,4.0168,5.5699,-17.0857,19.0341,-5.9881,30.8115,18.0219,-29.833,
-1.7517,-6.8519,53.7985,-5.5398,-4.2923,26.4387,12.3998,4.2772,-7.4366,8.31,8.4712,14.8628,15.7763,-42.143,
-13.1446,-7.3992,48.6547,0.54179,-4.0343,31.5596,5.9066,6.895,-10.8236,8.7699,11.111,-0.12899,9.081,-53.7144,
-12.3559,5.502,42.8606,8.1749,-12.4168,41.1644,-2.1133,16.0637,-20.7137,-1.3388,-3.6557,8.5019,18.1181,-36.3916,
2.2797,10.4417,43.6432,9.1222,-10.2339,49.7148,-2.4655,15.5789,-20.9079,-15.3584,-12.8121,5.5968,20.3849,-20.1081,
-4.5652,-1.6828,42.9405,3.7837,-4.8286,43.8567,-7.1088,10.8109,-11.0303,-11.3559,0.41344,-4.3219,8.6214,-33.0016,
-18.3913,-14.5185,38.9267,-5.5463,-9.8091,27.1253,-12.9105,9.6837,3.5253,2.2613,2.784,8.8732,10.4995,-37.0434,
-9.8949,-7.4188,40.9033,0.0562,-7.7836,15.6426,-4.9492,7.6657,0.91885,-6.9769,-3.6107,-3.6365,17.0565,-35.2998,
-7.3849,-0.26647,43.2394,3.8852,1.3065,16.6204,-2.7359,0.49771,-10.6351,0.14792,-14.8939,-17.5184,10.2831,-47.2818,
-21.0418,-8.874,47.3531,-2.0967,-0.68691,11.7904,-6.4045,0.46785,-0.41457,14.239,-13.9993,-2.3672,2.0009,-48.5514,
-19.094,-13.1328,43.5535,-6.7621,-3.521,8.2077,-4.1039,3.3141,-1.349,6.9507,-2.6194,11.8748,7.6296,-31.5383,
-12.6782,-10.9074,28.963,-19.2922,-1.8723,16.8182,-0.50427,1.6779,-15.3681,-7.5663,-0.066849,-2.4583,21.2718,-36.5594,
-23.8953,-11.6904,30.579,-21.488,-0.32256,29.9091,-3.8274,8.7643,-20.4679,-11.2183,0.4166,-4.7061,30.8091,-20.2658,
-28.2108,-18.6541,41.2006,-11.5756,-5.0944,36.5324,-11.2638,13.0287,-5.1399,-1.9212,8.0567,9.6762,24.1694,-4.9499,
-21.7269,-29.0337,42.5618,-15.6714,-5.7472,28.5921,-6.7547,0.74907,1.1914,11.6088,11.4066,19.9083,10.2629,-15.1263,
-10.8413,-20.5836,38.0917,-13.7727,0.34684,23.0434,1.3166,-2.1702,-8.4621,15.7035,12.6386,20.6302,11.5635,-24.7587,
-17.8569,-13.5994,35.8062,0.46847,-11.1719,30.2848,-3.5536,6.584,-10.8287,8.0542,11.8798,21.3088,12.7861,-9.8584,
-19.6603,-7.9936,42.2809,7.1471,-21.0429,33.2584,-7.1741,7.146,-0.59748,16.1945,10.2091,17.1555,5.3113,-16.9334,
-4.3807,6.586,45.9727,7.1977,-9.7184,25.9927,-6.2642,1.448,-2.957,22.4089,11.9919,20.4384,12.1792,-10.6463,
1.426,20.2909,39.382,10.5991,-6.2601,19.6429,-4.9299,3.2775,-16.8796,6.9644,-2.8276,19.2125,11.4489,2.4493,
-7.284,14.3501,48.517,16.6698,-3.9685,32.5643,3.0315,14.5792,-11.3488,7.2318,-16.3459,6.5614,15.5527,-7.2801,
-11.1583,-0.61093,46.0854,1.5696,-7.0847,29.4453,-2.4206,6.5183,-1.5649,9.1932,-8.1781,-7.9323,18.9314,-20.9433,
-1.8652,2.5059,41.4034,-5.0259,-14.3252,13.5786,-3.2334,2.2935,4.2777,-5.4584,6.4126,-14.9166,17.7955,-33.7867,
-5.1071,-0.039402,44.1899,2.4622,-21.6102,12.0126,-2.5604,7.4266,5.459,-19.2309,16.3615,0.07839,10.4996,-36.1382,
0.94804,-0.037038,47.2872,0.39765,-6.8993,25.3918,0.46808,15.6045,-1.5762,-16.2276,11.547,14.1737,15.6183,-19.8699,
12.39,14.0652,42.5336,1.3322,1.1807,37.9683,-1.4764,17.5426,-15.5816,-14.2955,4.1471,27.4233,15.6397,-4.5777,
8.7722,21.1601,50.522,9.8763,2.0683,48.6921,-1.3883,14.5737,-28.7467,-25.8946,0.064981,29.9513,13.7429,9.7969,
7.7669,18.4535,60.4265,10.7216,5.298,36.668,1.0909,10.3463,-25.1725,-27.6947,-6.1666,14.0542,21.0633,23.3091,
20.2367,21.6576,54.405,9.5989,2.5847,20.3679,3.4208,7.3293,-27.9744,-36.094,-18.7333,-0.88904,12.6129,36.0106,
14.2313,14.609,44.4336,3.2737,-2.3616,5.9373,0.34117,-2.6925,-35.8779,-46.3852,-24.3165,-14.9357,5.1485,47.9499,
3.7954,7.9832,52.308,3.0778,6.4041,19.6811,1.2791,-0.61452,-28.934,-31.1452,-11.3587,-1.4444,18.2548,59.1729,
0.21433,1.2761,52.5233,1.4557,9.3732,20.2104,4.5557,2.7766,-20.0118,-17.2987,-13.0725,-3.7531,17.6385,69.7226,
3.0758,-3.5917,50.3299,-0.54805,5.9365,13.2486,6.1988,2.6096,-13.0619,-12.4284,-6.539,-5.4443,17.5387,79.6392,
3.3703,-5.772,51.6219,-4.8279,5.1013,13.8906,-1.3597,-3.7756,-16.59,-11.2038,7.9533,2.0689,20.7977,88.9609,
3.6475,-4.9463,49.962,-3.1008,4.3158,14.4946,-1.7576,-2.1117,-15.1151,-11.9689,11.5817,-2.3674,19.0708,97.7232,
4.3866,-2.7327,49.8391,-0.038994,3.0989,14.5838,-0.69326,-1.0261,-13.2503,-12.2079,11.8457,-6.0573,18.8854,77.7598,
4.6024,-2.0897,48.2857,1.4003,2.4339,15.1457,-1.1307,-0.48556,-11.9763,-12.9133,12.5719,-10.0065,17.2729,58.9942,
5.7637,0.43105,47.7839,4.6696,1.8085,15.6744,0.37369,0.98099,-10.7782,-12.6179,13.255,-12.7595,17.6735,41.3546,
5.8973,0.88372,46.3543,5.8269,1.2214,16.1713,-0.12726,2.3595,-9.653,-14.2562,12.9382,-16.3061,16.1341,24.7733,
6.501,1.7891,46.4479,8.3516,0.18972,16.1586,0.8388,3.1755,-8.1154,-13.4004,13.1203,-19.1601,16.1244,9.1869,
6.1114,3.5982,46.5354,9.7669,-0.78009,16.1475,0.78802,3.9434,-8.5869,-15.4716,13.2915,-21.8438,14.1986,-5.4643,
1.9119,-10.7177,41.8268,6.3061,-2.6501,7.513,5.5315,6.5816,3.4267,-0.44334,17.2848,-6.4331,27.4466,-19.2365,
-7.3058,-16.576,42.671,7.3651,1.8211,-3.9567,16.2195,9.5401,7.5333,13.6833,9.0616,8.0529,39.8998,-32.1823,
-6.3885,-16.0605,38.6738,-3.1373,4.1077,-10.9059,5.1849,0.82308,-3.9381,19.1579,6.1221,7.1577,23.4059,-44.3513,
4.0562,-13.659,37.7908,-6.3029,-1.4085,-3.0649,-1.3539,-1.6212,-16.6371,3.9084,12.9413,-7.3718,21.7957,-55.7903,
7.6457,-10.9235,42.2305,1.7409,1.5499,8.6174,6.3929,9.0165,-14.6809,1.9637,7.3741,7.1705,34.588,-66.5428,
4.3121,-11.226,46.4043,-2.1963,15.5569,10.9751,16.5497,13.2662,-3.2597,1.8459,2.1409,7.2193,34.7023,-76.6503,
9.803,-5.7617,48.4108,-11.647,28.7235,8.3998,24.1803,14.3862,-4.0225,-3.0556,8.7191,-7.3139,37.4109,-86.1513,
5.8606,-3.0202,39.278,-3.7611,13.6527,6.4584,17.4593,15.9193,-15.7585,-11.9753,1.0098,-8.5848,32.7709,-95.0822,
1.6761,11.261,37.8793,10.5645,21.4571,20.1709,19.2865,23.5877,-0.71302,-7.424,4.782,6.0303,33.679,-103.4772,
-3.6942,19.9607,39.9188,13.5568,28.3143,33.0606,16.6915,15.9438,13.4298,-0.75081,4.9741,10.2526,27.3465,-111.3686,
-1.0771,22.1173,44.7098,6.5152,15.5965,22.0414,8.5038,13.5498,17.0027,-5.976,-3.4694,-4.4626,18.5191,-118.7865,
-6.2827,19.3528,35.799,-2.9787,0.76691,14.4907,-4.9422,6.5086,17.42,-19.7174,-11.4053,9.9052,3.5142,-125.7593,
-14.5293,13.4009,30.7767,-3.758,0.7209,12.6624,-6.5625,-3.4643,30.4748,-4.4344,-14.5538,21.7681,3.3033,-132.3137,
-26.5938,-1.5032,22.7015,-13.5939,0.19775,-1.0336,-10.4805,-9.4851,42.7463,6.3726,-25.6588,6.362,2.6257,-138.4749,
-10.8982,0.22977,35.4394,-9.4245,9.2893,10.0487,-4.5819,4.0202,54.2815,2.6364,-10.2251,-8.1197,12.5291,-144.2664,
-8.5341,11.7144,36.94,-6.9422,-2.7664,3.6962,-6.223,-2.9286,65.1246,3.4362,-14.4024,-16.8025,16.569,-149.7104,
-17.1251,4.7833,32.3278,-7.9639,-6.9127,-5.6286,-6.329,-12.8138,66.6213,10.4162,-27.6382,-24.8973,18.9283,-154.8278,
-9.8685,0.18501,39.4916,-11.7974,-6.0185,6.6869,-8.3447,-11.5656,75.5598,7.3967,-27.2111,-23.8829,9.648,-159.6381,
0.78414,14.0672,49.099,-2.945,-4.2204,20.3857,-9.281,-1.7691,79.1708,18.9294,-11.4784,-8.3499,5.7153,-164.1599,
-8.8444,6.5165,47.1119,2.0234,-3.9672,19.9148,-8.7241,-11.2445,63.881,20.6693,-9.0796,6.2511,12.08,-168.4103,
-2.5646,0.37539,44.2848,0.94353,-0.85477,13.9287,-6.2843,-7.6954,48.5493,5.3292,-10.4512,-8.224,8.4804,-172.4057,
7.6503,11.3727,42.1067,-3.4253,-4.1568,17.4052,-9.2615,1.8693,43.2401,4.2563,-12.2195,-4.5825,-6.1284,-176.1613,
0.48363,14.5231,39.5803,-1.3029,-6.7822,8.6953,-6.7889,-1.1177,39.6877,18.101,-16.278,-9.0993,6.9018,-179.6916,
2.371,5.0277,37.2059,-0.26634,1.2907,6.2572,3.2004,-1.0502,35.39,20.1634,-7.6353,-22.6533,20.5877,-183.0101,
2.2292,3.7677,37.8479,-4.0836,1.2128,9.7141,2.0499,0.92923,36.1419,28.5356,1.4468,-33.0648,10.0437,-185.3627,
-12.0045,-3.1656,37.4934,-5.755,-4.6091,-0.45075,-5.7382,-1.0438,28.2233,30.6558,0.40161,-16.9809,-3.0157,-162.7425,
-25.3843,-17.0756,24.7034,-14.0337,-3.3742,-10.0057,-6.3523,-6.7304,12.4299,14.7164,-8.2465,-7.0662,3.8724,-154.8948,
-19.1379,-13.9289,20.8258,-11.7547,-1.7348,-6.0515,-2.6174,-2.0139,3.2668,-0.26657,-6.3138,-18.6187,12.7435,-151.8289,
-7.4487,1.0068,25.3255,-4.3414,-3.5471,-0.89723,-5.3347,0.98132,1.1544,13.8494,0.77215,-12.7112,13.8953,-136.9699,
1.1428,13.1974,23.327,-7.4347,-0.9384,1.5515,-10.2853,-8.181,-13.0149,21.3697,-13.1684,2.1514,8.7493,-114.6517,
9.6982,14.322,22.8853,-6.9891,3.9091,11.0404,-5.8349,-5.7738,-26.334,9.5467,-23.8762,10.4406,11.0992,-94.5636,
1.9293,5.3176,26.7824,-4.1743,0.32031,7.0246,4.5762,4.6336,-17.6348,-4.9199,-12.3827,-4.2859,14.745,-102.9898,
0.37609,11.2268,34.2785,8.0539,7.4882,6.1246,16.2794,12.5006,-2.4767,-5.1032,-2.5367,-18.1287,14.3398,-108.582,
8.4986,13.9074,24.0772,4.2173,10.3922,2.4029,7.1576,2.6476,5.6107,-9.1093,0.96884,-31.141,6.2928,-103.5045,
8.9471,-0.34181,12.0921,-6.5766,5.9363,-4.4484,-2.8538,-2.3016,8.1493,-5.6883,15.0107,-15.2399,18.3715,-104.0019,
-5.6898,-12.2991,4.1805,-0.91085,-2.5649,-13.2845,-7.9528,0.23192,-1.4426,6.6308,9.1135,-0.43088,12.9575,-91.5331,
-7.059,-5.8124,0.096384,11.6002,-3.3689,-10.5715,-6.5177,-0.74088,-11.8965,20.3329,-5.5333,13.695,-1.92,-71.9411,
4.8634,-8.3371,2.0075,0.36419,-4.1252,-10.8947,-5.1682,-11.2355,-11.1822,21.3026,-5.474,16.9788,-3.9939,-63.5187,
8.8834,-7.3588,3.324,-4.9283,-5.3147,-12.6369,-4.3791,-11.0412,-10.9912,8.0461,-4.6675,1.8601,6.3067,-73.8075,
8.3504,7.1827,-4.5411,9.4674,5.5437,-1.3383,-4.1164,3.7212,-20.8721,8.5213,-18.4875,-12.3515,9.7606,-76.8389,
9.7657,7.9834,-11.9342,16.8386,10.9612,0.65842,-5.7858,3.7716,-27.2849,11.8442,-16.6921,-9.7605,5.3426,-58.8133,
6.305,1.7547,-16.0094,1.7283,8.3867,-5.1307,3.1849,-7.954,-17.9822,11.1326,-1.5906,-14.9246,9.8129,-61.0342,
-7.4881,-2.1829,-27.5051,-2.4819,-1.6985,-8.6552,2.0363,-6.5183,-16.9038,-1.0332,12.6049,-28.1291,10.1825,-71.4721,
2.0642,0.34344,-29.2082,6.77,4.6316,0.96709,1.4347,2.9758,-10.6184,1.4241,8.0823,-32.9423,16.7582,-81.2838,
0.50337,-13.7772,-41.5557,-7.7362,-1.874,-12.0272,-5.838,-9.1801,-14.294,-3.9311,10.9512,-16.8657,12.3989,-65.4543,
-11.0257,-27.0505,-52.2713,-7.0658,-4.6369,-19.9287,-4.5293,-3.8381,-16.3107,7.8027,21.7929,-1.7538,11.6549,-47.4271,
-24.4641,-27.4109,-57.7591,-10.4751,-4.3582,-12.9847,-4.258,2.1414,-12.4577,21.4346,8.0276,10.8743,2.3316,-46.2251,
-17.0418,-17.6221,-68.1882,-14.1588,-4.5762,1.6882,-3.5231,1.5335,-1.6493,19.9418,9.9414,22.1988,-5.9533,-36.265,
-7.3952,-14.6475,-75.5948,-6.6012,-1.4272,0.62938,-6.186,-4.3077,-4.4247,4.6453,15.095,14.1597,2.0699,-19.9891,
-16.5335,-12.8111,-69.1432,-7.1636,-1.3421,-5.1576,-2.9405,-8.8405,-8.9504,-9.7334,0.089281,-0.78991,13.4437,-17.5586,
-16.4995,-0.54405,-64.0362,-7.6917,-0.30264,-0.057355,3.9435,-4.4773,-5.5386,0.8455,-10.7301,-13.4716,12.6375,-17.463,
-1.4095,-10.5719,-71.213,-5.7933,8.819,-1.4909,-3.4797,2.978,-12.3929,-10.2246,-10.5644,-7.3927,3.7347,-14.0194,
11.8845,-10.8956,-62.1494,1.262,22.3898,2.4314,-2.3129,10.4649,-1.1089,-13.4439,4.1695,7.1509,11.1762,-6.4711,
-2.9286,-3.0552,-71.3558,-11.7491,6.9464,-2.0263,-6.4859,-3.0984,5.1863,-8.3255,14.253,-2.1084,5.2359,-19.0182,
-16.8528,1.4394,-73.3031,-10.5656,-7.5703,-1.4262,-4.6594,-5.3087,14.9361,6.274,20.584,-6.2941,7.3166,-12.6078,
-7.7641,0.39506,-63.1552,1.5676,-4.515,-2.2986,-3.4218,-2.1145,19.7895,12.3989,14.5582,-1.1248,6.8781,2.2487,
-8.2566,4.2046,-59.3659,0.51513,-5.2025,-6.951,-2.2581,-2.946,11.8941,6.8638,10.8103,-5.8485,1.6742,-6.2366,
-7.2823,6.3473,-54.3675,-4.7864,-0.57856,-3.181,5.0631,-5.1651,5.9098,2.1402,10.6407,-13.6431,8.7599,-19.9624,
3.6951,1.1757,-50.1465,-4.4993,4.2478,-3.9481,0.92742,-0.064446,8.43,-3.737,10.9602,-14.7405,7.2763,-12.8092,
8.7436,13.082,-48.5756,3.9157,-3.1941,-4.1907,-11.106,1.3768,-0.2208,-0.1594,10.782,0.24396,1.5695,2.0593,
14.9261,26.3971,-44.7027,15.1787,-5.8768,3.7268,-8.5233,-1.5801,-14.3076,12.307,-0.40484,14.3293,2.4338,16.0358,
9.7183,29.3983,-44.4163,10.9146,-3.1288,1.1069,-2.7417,-2.9227,-17.0752,8.2143,-14.4806,-0.63043,2.7663,17.5355,
-4.9648,13.5344,-40.7929,6.4265,2.8081,1.0409,2.214,5.8766,-2.6359,4.8471,-8.6152,-14.6926,10.2664,4.027,
-12.1258,5.2634,-50.3227,-0.18726,-3.5886,-0.45801,-2.231,0.25383,-12.5387,-4.5468,-0.9112,0.28895,10.1298,0.43206,
2.0156,9.7379,-54.9694,-3.0504,6.2087,-1.3899,-0.18079,-9.3434,-12.7448,-10.0231,-4.6898,-0.89305,10.4795,-2.4691,
10.0397,23.2536,-54.0666,1.4449,18.772,5.8806,1.2675,-9.2622,-11.5007,-10.8592,-18.3022,-14.9395,-0.2102,-2.8,
11.8332,35.9584,-55.1344,11.4187,17.1667,18.4631,0.71244,-0.56192,-24.9107,-3.979,-21.5167,-21.0235,-6.4258,11.468,
9.2072,47.9009,-56.6171,9.7756,12.3039,17.3562,-3.1631,4.2635,-37.516,7.7581,-22.1417,-5.6621,-6.9982,24.8799,
10.5712,59.1269,-48.4293,6.3147,13.4821,30.4148,0.85902,3.0492,-35.332,3.4603,-14.106,-6.9655,-6.5783,28.2458,
24.0369,69.6792,-35.9411,9.7686,11.7152,42.6899,4.6403,0.94943,-22.6717,-10.8473,-1.7603,-15.1712,0.52402,29.4254,
36.6947,79.5985,-19.6846,23.2825,19.1559,54.2285,6.7577,11.9119,-19.8744,-20.5311,-1.1766,-11.866,12.4699,23.3476,
35.0385,88.9226,-11.5232,19.2839,15.6116,36.8748,1.0825,6.8854,-22.0358,-14.0295,-15.2061,-12.591,-1.214,7.8468,
18.8362,74.0008,-24.9318,4.0269,2.219,20.5623,-6.6485,-2.1509,-23.588,-5.5217,-28.3937,-13.7519,-15.2412,-6.724,
21.2661,83.6608,-37.5359,0.6377,3.0439,27.2665,-12.9572,2.769,-26.9635,3.4332,-18.1326,-11.9688,-6.9343,6.0693,
34.0901,92.7411,-21.1837,14.6994,14.3596,39.7305,-10.2629,13.1432,-31.0953,-6.3543,-2.9446,-3.5851,-0.76909,19.8051,
36.6297,101.2766,-5.8127,24.1512,13.977,40.9737,4.4528,9.9588,-34.5003,-20.0731,-9.6813,-3.849,-11.7423,22.2434,
33.4739,86.9162,-11.6921,15.9954,13.1384,30.8497,13.5614,5.5285,-36.2621,-32.9687,-15.8081,-12.2416,3.0622,24.742,
28.5911,74.0361,-20.5726,7.3696,16.1824,26.1243,6.0406,9.03,-36.0028,-35.8492,-6.2356,-4.7999,16.9785,30.9231,
12.7757,55.4939,-28.9202,-5.5284,11.3792,10.4569,-6.7787,-0.13579,-38.6338,-36.5726,-2.0282,7.9449,8.8406,15.6529,
-2.0909,38.0643,-35.8095,-9.0309,9.738,-3.859,0.33522,-6.8357,-22.901,-31.5039,8.6325,0.76101,-5.1051,2.2569,
-4.4282,21.6804,-34.6189,-4.6558,10.1112,-11.2926,14.4151,-3.5512,-7.427,-15.5137,18.6555,-6.9507,9.3012,3.0795,
-11.3496,6.2796,-42.6027,-16.3543,-4.3892,-24.715,-0.5498,-6.6915,-21.0814,-0.48284,3.4361,4.4862,18.1198,10.0813,
-0.60718,-8.1972,-45.3163,-12.9763,-6.5208,-14.8813,-5.3076,-1.9773,-25.5652,-12.3638,-4.7084,18.317,10.804,23.5764,
1.8246,-15.2995,-49.7844,-6.9284,-7.567,-16.3838,1.2391,-8.0878,-18.762,-25.722,6.5931,3.118,-3.9443,13.8115,
7.4643,-21.0887,-38.1738,6.9021,2.469,-11.5684,6.9139,6.4975,-12.8451,-22.0569,11.9467,-7.6095,6.0802,11.066,
2.2253,-20.7818,-41.6325,1.6968,-4.3863,-7.0411,-6.9157,15.0044,-26.1744,-25.5238,-2.8701,6.2619,15.2978,24.502,
-3.657,-16.6601,-46.8002,-3.1958,-6.9979,-12.3683,-2.668,6.4386,-35.4171,-21.1185,-2.0127,19.9862,0.27992,37.1319,
-8.7078,-22.8466,-50.2199,-5.3994,3.4829,-18.8123,2.7623,2.6989,-19.192,-14.5803,-0.45452,12.832,-11.029,20.804,
-1.9571,-12.3728,-46.7277,4.0275,8.5442,-6.6646,3.076,11.64,-11.0597,-19.9345,-1.8647,-2.0379,3.7327,19.8294,
1.0351,-8.7565,-49.6737,3.7859,-1.5509,-12.9724,8.6402,-1.5157,-23.8113,-28.32,-0.79481,-6.5011,17.6088,22.472,
-7.172,-22.3312,-44.2974,-7.4611,-1.9364,-26.0878,13.392,-9.5689,-26.6949,-12.5208,2.6071,4.9088,19.0146,27.3523,
-1.4715,-35.0913,-34.4534,-3.6592,5.3659,-18.2944,12.109,5.1053,-10.9932,2.3305,8.6789,0.30208,24.1014,34.8137,
6.7623,-34.9692,-39.5724,0.87213,11.2726,-13.842,14.7372,15.6121,3.7664,6.0908,20.1355,-9.7766,30.8008,23.6223,
-3.7053,-35.2664,-51.298,-5.4084,6.284,-18.2826,13.3735,13.238,10.3145,1.4122,26.1135,-7.7535,18.8909,12.1436,
-6.8368,-41.295,-60.9501,-3.6469,0.63723,-15.7478,10.1753,16.7555,-4.4043,9.473,20.2349,6.8117,18.2369,16.6851,
2.1974,-45.5254,-63.0423,-3.4276,-5.1502,-24.3849,4.7735,3.2933,-18.2401,4.1134,4.9208,12.9044,20.017,23.3496,
8.7727,-33.2119,-63.0926,-0.34762,-11.5483,-26.755,-0.30318,-0.7366,-18.1706,-10.2334,-0.43837,12.1306,4.716,36.0486,
4.414,-21.6362,-61.2234,-3.2011,-15.6467,-19.4005,-6.9931,5.0568,-7.4979,-19.4741,-9.0361,3.7367,-9.6669,41.8245,
7.0231,-12.6734,-56.592,4.6565,-14.7079,-8.6541,-2.7407,2.8365,-0.34135,-21.1805,-22.5939,-3.1951,-1.9673,43.1478,
3.2483,-15.2663,-65.1739,9.6473,-15.2628,-7.6563,-4.9716,0.27095,4.9493,-17.5143,-20.0741,-0.608,-0.41139,49.662,
-6.0495,-18.6617,-71.3244,-0.034502,-11.9517,-11.5082,-4.1939,6.4829,18.7524,-2.3634,-9.7666,2.7827,-7.5738,52.9104,
-14.7891,-24.7286,-68.4824,-6.2611,-15.5463,-24.9177,-1.5464,-0.13383,31.7272,11.8784,-21.158,0.21994,-7.5983,47.3404,
-8.632,-27.5567,-53.354,7.0508,-14.1346,-34.2363,12.4397,6.1028,43.9236,25.2657,-5.7885,14.3067,6.9576,58.6,
-4.7603,-34.0487,-51.5902,9.9807,-13.7655,-32.6611,9.2975,11.0064,55.3882,37.0252,8.6588,27.5483,12.5621,69.184,
-5.4326,-30.089,-53.286,7.4659,-11.9816,-30.7014,2.9909,10.346,66.1649,30.0129,12.5185,28.3578,12.7668,79.133,
-13.7307,-26.3672,-52.9632,5.1016,-16.0539,-24.0681,6.6447,5.892,76.295,25.3378,3.1433,14.2004,15.8336,75.2041,
-8.5951,-20.4734,-55.0556,-3.35,-17.4865,-10.6467,1.9333,6.0175,85.8173,22.3797,6.3086,-0.54582,1.9477,69.2545,
-3.7671,-9.184,-58.9389,-8.4192,-11.1671,-6.6545,-10.1605,6.1359,69.165,14.8087,0.65983,-0.99251,-7.2721,70.3689,
-11.2076,-14.3826,-51.5698,3.5843,-5.7054,-12.9629,-7.634,0.97605,69.8059,19.6689,-9.9202,5.7747,-0.12863,54.6484,
-8.6174,-18.3095,-45.6003,1.4542,-8.2379,-19.8498,-4.3012,-3.8724,68.4932,28.0721,-4.5333,-3.1954,-0.12,39.8716,
1.4807,-7.6299,-46.6975,-12.733,-9.66,-19.6172,-6.9175,-3.6405,50.2836,20.6377,-4.2617,-8.7528,-4.9045,48.0193,
-1.004,-15.3167,-42.4587,-7.9309,-5.7266,-16.0452,-5.0655,-4.8599,34.0567,16.0456,-15.9843,2.7908,-2.2148,42.7423,
-10.0453,-28.4977,-41.3477,-4.1013,-4.904,-16.5195,2.4251,-9.8372,31.5352,13.6459,-9.7537,-7.4372,2.2308,26.0777,
-1.7775,-25.6236,-41.7421,-11.5212,-2.6934,-12.654,3.238,-3.4987,31.5586,11.8688,4.9315,-16.5729,4.0129,10.4131,
-0.23389,-17.8576,-38.7582,-13.2249,-3.9688,-17.1645,-7.0177,-8.5585,27.2702,14.5104,7.3033,-2.6432,-8.2053,11.1592,
-1.1778,-26.3685,-36.4327,-7.6406,-2.7727,-18.0515,-5.6387,-15.7106,20.8432,22.2634,-6.5492,4.223,-7.713,18.1552,
6.558,-22.87,-34.2472,-9.0986,-5.4807,-2.8684,-3.384,-13.8104,5.4926,14.2204,-6.1567,-10.1304,6.8498,12.2747,
2.8107,-18.144,-36.5041,-14.7813,-4.6728,3.8051,-3.6599,-11.5439,-8.937,1.3898,-11.058,-5.4835,12.9397,-2.5618,
-11.458,-31.1554,-44.8543,-24.4348,-3.4345,-10.5232,-3.4403,-14.6841,-13.2594,-1.5684,-18.0601,-3.2386,-1.9366,-16.5081,
-5.773,-25.2466,-29.2268,-11.9484,7.791,-12.5599,4.9107,-2.7836,-0.48645,4.7543,-2.8765,-17.1443,-2.5722,-13.1892,
-0.15643,-15.5877,-26.0357,-1.1706,7.803,1.1295,-2.5701,5.5284,5.7718,7.8224,11.3961,-21.1791,8.6016,1.7022,
-11.645,-21.3596,-38.5736,-3.0167,-0.33127,-0.85471,-8.1651,-1.5114,-2.2405,12.1443,4.5521,-5.8084,-6.0145,1.3943,
-7.5929,-20.5565,-33.1786,-5.2311,-2.7068,-5.1157,-5.2798,-7.6489,-13.125,25.5157,1.8836,3.9159,-9.2802,-7.7924,
-2.3461,-13.5748,-17.0879,-1.0849,-5.4187,1.8984,-2.0887,3.35,1.0772,33.3605,14.2264,3.6814,5.3766,0.34073,
-15.6206,-18.5091,-16.7478,4.7298,-7.0105,7.5342,-0.04648,11.7735,11.553,19.8604,21.0384,16.8748,5.3267,0.32029,
-11.8085,-13.5662,-20.5342,9.2368,-6.5898,8.0401,-0.043692,12.0251,2.2354,14.836,14.0274,20.6531,4.0487,-9.2809,
3,-0.77441,-11.1571,10.1205,-2.8406,4.2048,-6.2697,8.9086,-4.1265,15.3837,5.0412,13.1862,5.2437,-6.3282,
-1.2191,-0.72841,-11.4465,4.7211,2.121,2.0352,-12.6016,0.70715,-4.8382,7.7526,9.529,4.729,-3.6954,-4.991,
-10.7279,-10.2658,-11.7173,0.60551,1.0353,7.6632,-6.0954,0.66609,-0.71377,10.1628,14.7074,11.1533,-14.0132,-8.5239,
-12.9586,-13.4831,-12.9306,3.4445,-4.776,4.3281,0.019519,9.2492,2.2034,19.135,8.0757,12.4005,-9.3396,-13.7616,
-4.036,-5.487,-11.6758,3.7163,-1.1352,1.6731,-1.4191,10.1317,-7.0318,11.7587,14.7773,-2.4435,5.3208,-16.2898,
6.2671,3.9443,-3.7887,7.8056,-3.4633,5.8849,-10.4369,3.2956,-15.7129,4.8241,13.4113,0.30471,16.7726,-2.3766,
5.8906,11.3737,10.5387,18.8352,-3.2551,13.1969,-4.0615,14.5958,-0.6701,18.6346,5.8994,14.3864,10.9751,11.866,
-6.4402,-1.287,7.7833,8.6016,-2.5808,0.42776,-0.46401,11.3242,6.8295,13.4775,1.2328,17.1489,-3.7834,-2.9459,
5.4446,-5.0426,9.2327,9.0444,8.1136,-0.55679,-0.43617,5.854,3.5449,12.6689,10.7412,2.02,-5.2671,-16.8692,
5.1179,-3.7812,12.5124,6.5858,-2.9128,4.2683,-9.9915,4.5457,-1.4586,18.6173,1.4732,14.0837,-12.6157,-6.0688,
0.97851,9.8605,25.8617,3.3154,-0.8216,9.7614,-7.4756,11.9381,6.295,12.709,7.134,27.3387,-8.9844,8.3953,
0.4399,-0.79258,35.6016,-8.8609,1.6235,-4.9243,-12.2978,-2.6724,-3.1862,-2.1535,11.9757,11.5984,3.5316,-6.2084,
1.8514,-8.8896,36.8194,-5.9334,1.0471,-8.7348,-5.3313,-12.5735,-10.1816,12.0748,3.1126,-3.1975,4.7571,-11.5855,
1.7398,-1.6491,48.7102,2.0877,0.025886,-8.2112,-1.1791,-8.9447,-10.5291,25.4503,-4.7402,7.2606,-9.6283,3.2096,
3.5518,-1.5497,59.4756,-1.8699,-1.8921,-5.8012,-12.6062,-1.7,-1.2734,9.8233,4.1682,3.9506,-12.1982,3.2902,
4.7761,-5.7689,62.1352,-3.1951,-3.216,3.6489,-17.1201,7.505,10.7808,7.7965,5.3555,-0.59865,-2.3633,-0.26101,
4.969,-3.9854,64.6357,0.34994,-3.5024,3.9094,-12.7395,1.7845,1.031,16.4317,-0.23599,3.7495,-1.7425,11.7325,
4.6704,-4.7038,60.7576,1.2874,-3.2918,1.7585,-11.0167,1.6779,1.9276,13.5303,0.73659,4.483,-0.67955,10.0701,
3.9112,-5.8594,56.6331,2.6471,-2.6153,-1.7008,-9.8767,2.0562,2.2909,11.2806,1.1714,4.693,-1.1178,8.0285,
3.6765,-6.4658,52.2767,3.4462,-2.4584,-3.5147,-8.3262,1.9319,3.1114,8.6869,2.0591,4.4114,-0.092724,6.5883,
3.4564,-7.0363,49.1401,4.1979,-2.3114,-6.1782,-7.8261,2.7744,3.8832,7.2082,2.894,5.1051,-0.087161,5.2351,
3.2486,-7.5716,46.1922,5.8633,-2.1722,-7.7239,-6.3981,2.6084,4.6086,4.8593,3.6787,5.7572,0.87649,3.963,
2.5747,-8.5552,42.9412,5.9905,-1.5629,-10.6143,-5.5353,2.9309,4.8111,3.1308,3.937,5.8908,0.34492,2.2878,
1.9412,-8.5209,39.8853,8.026,-0.99015,-12.3733,-3.7662,3.234,5.0014,1.5051,6.0966,6.0154,0.80275,1.6711,
7.5739,-15.6757,41.325,-6.5556,-6.6799,-9.7145,-5.4566,-1.7512,-9.3987,-2.4185,6.6883,11.4037,3.6294,-0.34556,
4.7236,-22.8797,48.9069,-14.5795,-0.050506,1.8878,3.0154,2.6665,-17.253,4.9141,7.7249,4.4917,14.431,3.9874,
-3.2249,-16.7157,48.8473,-1.248,6.6597,-3.0167,5.7097,6.3389,-6.6358,2.7029,12.0526,-9.8778,12.6072,-7.7502,
-6.3852,-5.6513,38.7299,1.2218,1.9483,-9.0643,-1.8195,-0.27007,-7.6747,-8.4787,8.9336,-10.9957,-2.2492,-11.597,
7.4127,8.7878,48.8624,10.7305,9.4966,5.5795,1.1641,6.4533,-19.671,-5.0956,5.5233,3.764,0.0079099,3.1988,
8.8843,8.5328,52.6383,14.8779,13.718,-2.1476,0.1358,9.8993,-26.1568,-6.7062,0.40063,1.8945,2.8818,16.6944,
13.6215,5.6254,49.959,20.2134,16.2492,-9.2049,4.4399,11.7008,-12.6095,-3.9085,12.3544,-12.3191,1.2719,2.757,
7.0545,3.372,46.9619,12.293,5.6918,2.8458,2.2566,7.1659,-12.8109,-2.716,12.5711,-17.1225,0.23765,4.5084,
-7.4688,-1.6216,47.977,2.9323,-0.39892,10.3411,2.1217,6.7364,-9.1679,1.2802,8.9425,-1.9951,14.3234,18.3379,
-12.0841,-5.3575,50.8471,0.83951,-3.2498,3.013,-1.8384,13.9978,-6.701,7.9101,8.4059,10.8537,19.4859,26.1344,
2.7409,-6.952,56.4203,0.7896,1.7364,0.9158,-5.5613,19.8651,-19.7137,14.1436,3.1104,1.5794,4.2168,26.4827,
14.3476,2.0887,54.9515,3.6161,8.3398,1.8188,-5.2277,9.0908,-22.3646,2.7545,-6.6587,12.0241,-10.1362,26.8097,
-0.40703,15.858,50.2174,17.4992,9.2769,5.064,-8.2674,5.192,-6.9227,-11.5107,-3.8629,5.0754,-14.3858,18.0154,
0.57581,16.822,50.0787,25.8259,11.5946,11.4673,-5.8549,16.3793,-6.7131,-13.4882,10.4689,-9.3291,0.57736,12.1433,
-1.3756,5.2732,48.0324,10.1763,8.983,5.0296,-1.6708,4.8561,-20.4103,-13.6369,10.1135,-9.043,7.5231,16.2059,
-2.251,7.8307,58.5648,-3.1647,18.0255,14.3094,6.095,5.5227,-19.4589,1.2813,10.4647,5.5995,2.2805,29.3336,
-0.67901,1.1332,59.3632,-1.537,12.6322,24.4702,2.3755,9.5031,-14.9376,15.3044,8.3998,19.3636,3.5811,40.7816,
-0.63781,-6.6009,51.0106,-3.3612,1.3343,11.5041,-2.5583,1.2678,-17.8737,28.4862,7.8954,14.4359,4.3246,24.2347,
-3.4744,-2.372,48.9079,0.67331,-7.3702,0.2734,-7.1955,-4.5579,-2.7012,12.7431,17.9621,27.6698,-2.6425,8.6806,
-6.1403,-9.8953,51.7227,1.5904,-12.6772,-1.6594,-9.6382,-0.45117,3.4832,-2.1215,13.0511,22.4495,-10.1495,12.4051,
-0.98109,-1.6364,57.2428,7.2446,2.1835,8.9806,-3.3111,13.6759,-10.8258,-16.0942,6.5193,7.0026,0.040987,24.1171,
-1.8802,12.5617,55.7247,7.7679,12.8661,15.1494,-7.9037,20.7932,-21.9483,-22.3821,5.1702,7.2681,-3.7938,31.2941,
1.107,15.9145,52.3812,9.2183,0.59527,6.5743,-13.1787,11.8805,-14.8822,-27.7464,9.6503,9.7064,1.2246,29.416,
1.9985,7.294,37.7404,-0.91637,0.56046,-7.9201,-11.4295,4.4601,-17.8216,-27.0396,11.947,6.2492,14.5663,21.9023,
-6.2659,15.001,31.1637,-9.9648,11.5453,-8.1971,-14.0975,-1.0773,-25.8557,-24.9382,8.8343,17.8516,10.3381,28.7327,
0.33818,27.9956,36.4805,-1.2219,13.2489,6.3947,-16.605,1.3827,-23.825,-29.6701,3.0341,13.4271,1.5737,36.1122,
7.0255,29.1898,37.1665,1.7262,10.5371,12.5124,-17.5251,4.1746,-20.4791,-29.8067,-3.8556,-1.4785,-1.3956,19.8455,
6.125,41.3326,36.3739,-6.5219,8.4679,9.3668,-9.2866,6.3199,-25.4785,-24.6645,-7.936,4.5656,-3.7072,14.0698,
12.9441,51.788,23.1716,-20.2306,3.6472,13.1165,-10.1672,-5.0796,-37.844,-30.3713,-17.5213,-4.8118,-11.6298,6.997,
26.2674,62.7807,28.0095,-8.75,17.5283,26.4295,-12.9115,-2.3794,-28.3863,-15.6132,-7.367,-18.623,-6.6202,-0.60945,
35.0256,73.1138,27.2874,3.2734,13.3965,27.5123,-26.2368,-7.9854,-31.4748,-13.7184,-12.6747,-23.0482,-20.323,-12.0713,
20.9467,82.827,24.2127,6.4308,-0.34355,25.3817,-21.582,-10.8601,-27.1905,-26.7886,-21.9747,-7.5653,-15.0646,2.753,
33.5836,88.7375,29.9466,3.6495,5.9052,28.171,-14.058,-3.9803,-20.2893,-28.5356,-21.1356,-3.9638,-0.060726,3.819,
39.7127,76.2271,42.2498,2.9511,18.4867,16.4198,-11.7775,1.5287,-10.9269,-12.7234,-10.7645,-17.826,-2.6587,-10.5101,
24.3951,69.2581,39.988,1.3376,16.899,1.3346,-7.7171,3.8333,-2.1263,-4.0212,-0.056754,-24.6952,-12.5601,-23.9795,
24.8473,74.6851,27.0483,11.7968,12.0522,12.0012,3.2864,10.31,-2.9571,-12.4035,10.4861,-21.2975,-2.2246,-8.7135,
31.0225,64.4548,23.509,17.7971,8.4547,19.9051,1.1728,4.9002,-5.6541,-15.4926,8.8986,-17.1444,10.3657,5.9093,
17.6623,46.4875,11.5585,10.0212,0.28142,6.254,-12.9976,-1.143,-8.1892,-26.0609,-2.1753,-5.5758,0.1618,15.4099,
2.5026,36.717,2.241,4.6291,-10.2759,4.9208,-17.2822,1.8004,-1.9491,-28.3301,0.83003,3.3823,-8.4719,26.9417,
-5.1069,22.5361,4.5019,7.7047,-15.8875,-0.64555,-9.0591,-7.4106,12.2678,-12.5303,-0.65719,-7.8396,-5.5682,30.5949,
-10.0712,7.084,-5.8292,0.055852,-20.204,-14.7068,-18.576,-21.066,25.6318,0.95065,-14.7178,-21.4692,-12.4207,19.6567,
-4.6757,4.9492,-9.3122,-10.4875,-14.2014,-27.9244,-24.1691,-13.8471,38.1939,-3.8967,-19.3781,-16.142,-11.6755,25.1845,
2.312,-7.8045,-3.9627,-11.7746,-17.1817,-24.3995,-23.6774,-9.183,47.2618,-0.78853,-15.341,-15.1739,-5.2258,37.7734,
6.4855,-21.4363,-5.1624,0.9097,-12.7974,-20.5402,-13.1533,-15.8191,54.4871,-3.1366,-11.0663,-28.3635,3.2323,49.607,
-5.402,-24.7346,-11.5598,7.5627,-5.322,-18.3489,0.092263,-6.2455,65.3178,-9.656,-1.7788,-24.5386,13.5793,60.7306,
-15.1393,-9.1505,-4.638,4.7131,-10.2724,-19.6438,-5.1835,5.1487,75.4988,5.0233,10.3053,-13.9637,18.9927,57.9063,
-15.1889,-13.599,-8.1925,-5.1521,-22.1133,-19.4231,-7.7473,0.048076,79.6598,18.8219,11.6038,-17.9176,8.2707,43.8915,
-12.8401,-20.9281,-15.8456,-5.3215,-15.5163,-21.6111,6.8175,-8.0989,65.7772,25.9042,7.5533,-5.8227,3.4627,55.3581,
-16.861,-21.5888,-21.6024,-10.7514,-3.0865,-34.4144,2.3704,-19.1118,50.3318,12.852,-2.4818,8.6267,17.3549,63.3292,
-11.5371,-30.3544,-15.9941,-24.2063,3.3269,-45.559,-4.0005,-9.8201,38.2098,21.1839,-4.7283,-1.6791,26.6478,50.4264,
-0.78387,-34.7613,-2.0986,-16.3195,5.5226,-42.346,4.3841,4.8691,45.9782,28.0569,8.4912,-4.9318,19.7792,44.047,
-14.8368,-27.4054,-5.3265,-4.3214,-0.078937,-40.2842,0.76772,1.0174,41.7821,24.937,9.4191,6.3831,22.9042,47.6328,
-22.3644,-13.3043,-14.5889,-6.9365,0.88423,-30.2016,-8.8608,-8.6256,25.1751,11.942,0.22996,-1.665,35.6299,54.3569,
-6.9225,-12.0275,-14.193,-7.9577,8.9753,-21.2034,-9.7665,3.8688,19.0796,-0.75236,-1.2212,-15.6651,27.5367,65.1954,
-6.234,-20.4089,-12.8624,-4.1269,1.2506,-21.3686,-8.7016,6.9909,14.5806,13.3928,-1.6265,-6.3749,11.7845,70.1805,
-18.3167,-10.5603,-9.2159,-1.9629,-8.4064,-12.4204,-9.1374,5.6131,12.7473,26.6892,0.38749,8.1076,4.5761,66.9272,
-16.2593,-11.8431,-18.2449,-11.4271,-13.6512,-5.926,-18.1712,2.4019,1.4425,16.5313,-2.511,14.602,18.4015,53.3295,
-8.5766,-14.9649,-14.2758,-2.1175,-11.8737,-7.4868,-20.9137,0.34139,-9.184,6.9154,-9.0675,1.2691,18.529,46.2974,
-5.1872,-12.151,0.6807,12.1096,-6.3705,-13.7452,-10.0769,6.0696,5.4671,20.6005,-5.6487,15.2929,9.7513,42.5612,
-1.5226,-22.4409,14.7399,-0.32161,-0.71808,-27.0205,2.5055,10.0177,19.239,23.9499,6.6681,28.4753,15.3948,38.5705,
-7.6594,-34.9882,9.6111,-13.2372,-0.19556,-39.4993,-0.9986,-2.5603,10.9655,12.4519,12.4962,15.8149,24.5321,32.9025,
-13.9075,-31.9309,9.0344,-5.7363,1.7321,-41.5081,-6.6879,-8.1563,-0.23282,20.3283,12.7044,11.0332,29.7678,34.7616,
-7.8028,-20.9121,14.7201,0.8361,8.8143,-25.1238,-1.9748,5.2689,8.8842,18.6292,12.4215,18.5153,23.6695,35.0708,
-6.3762,-16.783,17.6697,-0.1725,-3.2124,-18.8256,-2.8148,11.6599,13.1414,25.1766,14.5506,12.6132,11.7089,31.0502,
-3.1193,-12.9016,27.1499,2.7131,-14.5181,-10.9885,1.1874,15.7515,18.103,37.766,27.7776,20.4804,25.1064,43.2872,
-8.2023,-26.2275,22.1676,-11.3443,-5.5024,-14.641,-2.2377,4.7455,3.1222,21.4,12.0109,18.773,28.1854,26.5899,
6.3898,-26.3641,30.4195,-4.9145,8.9277,-18.5537,5.5622,9.251,4.8512,15.8047,-2.8097,14.7714,18.8283,10.8945,
11.5501,-22.3871,32.9059,4.4841,22.4921,-31.5405,2.8328,8.2172,2.1646,28.9564,-12.4966,17.2391,12.4286,-2.4889,
8.9404,-22.0016,31.8902,7.0892,28.8755,-43.7481,6.4959,1.9748,-12.0653,25.0969,-6.9553,20.0378,9.7667,-3.2978,
17.9864,-30.2635,36.6839,-2.9177,37.6834,-55.2232,20.2061,-6.7673,-20.2379,9.491,-10.3708,4.7355,16.8463,-17.1999,
25.5304,-42.5477,45.0228,-7.5339,49.5224,-66.0098,23.0993,-16.9021,-7.5257,8.6479,-4.9578,-9.6486,29.9355,-30.2679,
14.4172,-48.8918,40.4053,-9.9564,42.9912,-76.1492,7.6133,-17.8037,-3.2412,22.229,-3.7021,-23.1697,38.9528,-35.7052,
-0.5478,-49.3123,29.8362,-22.2946,26.3118,-80.6109,-6.9435,-19.1315,-16.9402,13.9819,-17.58,-19.2449,22.7212,-27.3345,
0.6486,-43.4788,30.9208,-20.9569,14.3982,-61.6743,-4.6774,-11.276,-24.5474,-0.27133,-10.57,-14.2574,17.5251,-28.5692,
1.5681,-35.1204,30.982,-12.0344,21.2004,-57.7006,3.2693,-2.9334,-20.2002,-7.9211,4.1642,-14.3604,10.7253,-22.0638,
6.7438,-21.0362,38.2261,-0.29293,24.2401,-56.6344,3.5516,-5.1533,-13.7184,4.5315,10.4162,-15.8946,0.020363,-18.3446,
20.4391,-8.2752,47.4313,9.3075,20.8693,-43.6539,2.381,0.90605,-14.8108,16.7165,2.1261,-13.9825,14.1191,-8.6199,
7.5086,-19.7565,40.2728,-2.2708,14.347,-49.1797,-3.9909,-3.4615,-17.2764,6.6105,-12.1015,-14.5809,23.6057,-13.3734,
-3.4814,-32.6712,39.7733,-7.8842,12.5282,-58.6853,-2.7926,-9.0025,-3.7835,-1.4517,-15.9608,-6.9985,10.691,-26.671,
-9.0221,-36.7333,39.3028,-10.2859,6.9848,-51.3318,-9.3331,-9.4212,-7.3893,-10.9471,-15.0036,-3.7046,13.8823,-10.9707,
-15.1884,-38.3621,46.5271,-9.6688,8.4826,-42.5023,-11.6475,-3.1063,-4.0711,3.8097,-14.1034,0.35134,19.757,3.7875,
-7.5695,-33.1855,57.8354,1.4522,21.3884,-33.245,3.1514,9.5369,10.2732,17.6812,-3.6748,10.8702,11.864,4.7919,
-5.1989,-26.4032,47.9309,-7.2594,7.6487,-39.8738,2.2771,-0.61688,15.6792,12.3755,-2.4963,-2.2383,9.2357,-0.28685,
6.1319,-10.719,51.2832,-4.4284,-0.95522,-37.9608,-7.921,-8.7249,0.63844,-2.4671,-2.826,-16.204,22.7816,13.8304,
13.4301,-1.6581,62.3062,9.9373,12.5169,-26.1008,-0.73765,-3.4102,-10.6925,-2.1123,-5.5308,-18.8588,25.0417,16.6276,
8.312,-0.12117,63.1533,10.0941,10.3294,-19.2645,-1.1724,5.8974,-7.6555,4.2426,-2.8031,-12.4571,11.5614,6.5269,
4.4599,9.9471,62.7174,2.3014,2.5225,-16.6717,-6.3727,6.9801,-17.2572,-6.0729,9.3425,-15.0639,18.0538,9.4891,
-3.9527,-4.7498,63.2662,-5.0237,5.7245,-20.9416,-9.3441,-4.4577,-9.9936,-10.0208,6.3865,-24.2211,13.6173,-5.1803,
-6.5903,-18.5648,60.4286,-9.5131,11.1307,-19.6851,-11.6579,-1.3154,-3.6443,-16.1272,8.8782,-13.1858,22.3827,-14.2456,
-6.1945,-20.3927,56.8029,-18.5243,4.7137,-28.086,-14.7912,-4.1117,-17.5256,-24.7415,13.1358,-20.0602,35.1397,0.7091,
-0.55305,-11.9825,67.2885,-6.3934,10.6586,-18.2562,-0.96792,-5.302,-11.4771,-10.3217,4.2031,-21.252,30.9082,0.46031,
-9.6226,-14.6171,59.8976,0.21905,10.4992,-19.556,-10.971,-6.4206,-6.4765,-7.3063,-10.1491,-5.8769,14.9537,-5.7953,
-8.5661,-20.9269,56.7825,-7.9389,3.6404,-32.4827,-15.5832,0.19213,-13.2747,-9.264,-5.9806,8.5757,2.2849,8.6525,
0.092472,-5.5713,59.6047,-2.1919,-1.8478,-16.4337,-4.5863,0.6605,-17.748,-6.3114,8.2725,-0.49541,5.5026,22.2333,
-5.6618,8.863,61.7771,7.5211,-6.5286,-1.3477,-9.1024,-1.296,-25.3076,-7.8496,-2.7643,11.9907,7.0883,28.1527,
-6.2805,22.4312,70.5273,6.1115,-9.9692,12.8332,-18.1382,10.2806,-35.287,-8.337,-11.222,25.3712,10.4963,40.5635,
5.1155,9.4479,76.3568,6.2244,-6.9755,19.7957,-7.9472,12.0594,-21.1927,-2.5664,-0.48748,19.8106,23.9665,43.6729,
-8.1266,-1.1797,71.2962,-3.2523,-9.9105,9.5052,-6.0331,0.31574,-7.9435,5.7324,9.603,4.522,36.6285,26.9525,
-14.826,-9.254,74.205,-13.1181,-17.4609,-1.1265,-10.9409,5.567,0.67811,18.3242,9.5058,-5.6048,26.8322,11.2353,
-6.7499,-22.7987,76.9393,-21.4345,-21.6835,-9.2035,-11.7219,-1.9532,-1.758,11.9546,-1.1255,-0.9567,17.0772,-3.5388,
-9.6987,-24.5784,84.3004,-15.8357,-14.1543,-2.4226,-10.5396,-15.936,-13.6303,1.1763,-8.2446,2.455,19.4069,1.6038,
-10.0747,-16.3961,93.3423,-2.4292,-13.305,-1.3193,-12.782,-2.3172,-12.8125,4.9386,-7.7499,0.39081,4.1424,2.4656,
-1.3261,-23.5573,89.4524,-5.6377,-22.5677,-8.4268,-22.0761,5.008,-7.7315,7.9956,-4.8896,1.8048,-10.2061,7.5878,
-2.2041,-10.6455,92.7093,-6.257,-25.0469,-0.25557,-25.5427,-9.3925,-20.6824,-1.1082,-9.3874,4.5709,-4.8704,20.5473,
-10.6958,4.0932,101.2467,3.7004,-14.92,13.8598,-15.3861,0.48027,-21.3583,-0.083239,-8.8237,10.0458,3.0879,24.1057,
-10.5333,-4.9819,109.2719,2.0412,-5.8796,3.2402,-13.0253,9.5547,-10.0156,14.0218,-5.8987,7.0479,-3.3263,8.5594,
-10.8595,-17.1396,103.741,-4.7891,-7.443,-11.0542,-14.1604,-2.5172,-12.2893,18.7239,1.1626,2.792,8.3724,-6.0542,
-17.3945,-20.4235,102.7863,-17.438,-13.225,-8.2686,-14.7482,2.9036,-16.8221,3.7062,8.2795,-0.72933,21.7633,-0.48816,
-22.579,-24.4683,110.7191,-19.7451,-13.8694,0.37212,-15.3007,16.6236,-8.6262,4.9208,11.1361,13.4144,16.1458,13.6411,
-27.9317,-20.1251,118.176,-8.0202,-24.5354,-4.4412,-17.2573,5.086,-5.234,18.7255,15.2589,26.7096,12.3024,22.1991,
-21.4646,-15.0848,123.6094,-6.5801,-19.2305,-1.2999,-8.5558,-3.8427,-6.8364,21.7082,10.5106,11.7594,3.8987,12.2436,
-6.0767,-4.598,130.2928,2.438,-3.9766,12.1931,6.0575,10.4878,-6.426,9.8651,0.29818,2.4301,-9.7502,16.2995,
1.747,0.94812,136.5753,0.85435,10.362,-2.6385,-5.0528,5.8193,-20.1404,-4.8268,-7.8647,-6.8187,-7.7283,11.9677,
9.7868,13.8275,142.4807,0.3241,18.9104,-16.5802,-9.0609,-8.6299,-33.032,-18.6372,4.585,-3.0558,6.8354,23.2275,
9.2,6.2898,148.0319,-2.5706,18.7333,-8.4662,-4.685,-2.1571,-35.4293,-31.619,0.47662,11.2275,-1.4465,35.9338,
6.2522,11.1826,153.25,2.8543,19.0472,4.0196,-8.7156,1.3261,-32.8241,-43.8218,1.8859,24.6539,-3.7547,36.4464,
4.9186,14.344,158.155,-0.19135,12.1552,-9.6368,-19.6915,-10.2523,-32.7715,-53.3043,8.4799,9.0747,10.5706,20.1596,
10.3732,-0.61668,162.7657,-2.0967,22.9242,-18.6406,-4.41,0.90419,-18.3484,-36.006,4.1383,-5.5698,17.8747,4.85,
7.8341,-14.6797,167.0997,-7.7199,11.0081,-25.1875,0.91921,2.7657,-19.1641,-19.7456,-10.21,-17.2132,2.7022,-9.541,
6.4059,-15.3024,171.1738,-10.1313,-3.7523,-23.6765,-13.2359,-8.8984,-32.1143,-30.4709,-12.745,-2.0804,-10.1894,-4.9964,
7.9379,-0.28422,175.0033,-1.8574,10.5728,-8.1559,-19.4224,-1.6565,-31.4183,-34.3918,2.1197,3.1081,4.5219,7.7597,
3.6289,0.96355,178.6031,3.0444,24.0384,-4.519,-4.157,9.9408,-15.4332,-24.6627,3.2237,5.7969,15.0642,1.5449,
-10.6889,-12.509,179.9936,-11.2383,10.4127,-18.3478,-11.3,-4.0704,-6.5685,-15.5174,4.9467,-2.2169,5.5363,-12.6478,
-13.1956,-9.8421,174.9427,-14.6695,-2.6684,-21.353,-24.722,-16.2834,-17.6732,-10.7535,16.1478,-12.6243,-8.2111,-18.8697,
-1.384,-3.0229,175.466,-7.5612,3.7199,-5.9718,-19.2001,-14.827,-23.7989,-16.3365,5.118,-4.6798,-8.1969,-3.6375,
0.13648,-6.1954,173.0821,-12.3777,-3.6894,-5.3403,-10.8615,-7.7092,-11.3516,-11.0441,0.49913,7.5779,-2.4349,0.68716,
-13.7664,-13.0107,176.591,-17.8632,-6.8223,-9.3321,-12.6056,-11.5589,-15.9412,-6.0701,11.4886,-4.8546,2.9805,-13.4541,
-13.8979,-12.2296,177.4948,-13.9166,3.1694,-5.8969,-17.598,-12.7813,-26.4826,-13.3715,7.9244,-5.5213,12.3841,-16.2738,
-7.7943,-12.9332,168.2816,-6.8534,2.4998,-5.0645,-19.8964,-0.99546,-10.7937,-12.0897,2.1788,7.7458,8.2877,-1.1974,
-12.5964,-14.5526,162.497,-7.8796,-4.8363,-8.114,-15.3488,2.4185,3.954,-4.1782,2.5275,6.8025,-2.2705,5.8548,
-7.5288,-6.4933,166.8471,-6.9274,3.598,0.51739,-6.2829,-2.0388,16.24,7.0914,1.8964,-0.79272,9.8426,12.6901,
-2.7653,-0.83307,164.7746,-8.9076,-10.5112,-1.909,-15.0089,-9.1031,20.5358,5.229,2.2625,-2.1821,7.8151,26.0287,
-12.1809,-9.4071,150.0974,-14.1228,-23.9805,-10.4185,-19.8575,-11.4317,33.4037,-9.1848,-0.74807,2.7396,-6.7538,38.567,
-14.8043,-15.0713,153.0689,-11.8376,-13.7123,-7.3976,-10.5215,-6.4331,45.4995,-22.7337,-10.7646,-8.4442,-9.9756,43.5065,
0.18393,-6.5014,157.9848,-5.3781,-10.0152,-3.1209,-12.7646,-7.9635,56.8695,-16.6459,-11.0772,-22.0375,-6.5027,34.189,
3.7999,4.9085,162.6057,-7.4513,-16.6,-3.4126,-21.1017,-16.5892,67.5573,-14.2092,-12.8079,-22.425,-7.5495,33.5746,
-8.8849,4.614,156.7496,-8.9206,-16.5624,-13.7483,-16.9608,-15.5934,75.1362,-8.5655,-20.663,-20.122,1.5275,44.9749,
-15.5379,0.98334,149.7404,-8.8643,-18.9225,-18.1936,-20.2549,-13.2208,63.4423,-2.7818,-10.3202,-28.9756,12.4552,52.3378,
-10.2939,9.0689,143.1514,-7.853,-7.7262,-3.002,-21.4355,-13.865,54.3656,-3.0943,1.3184,-21.0085,12.1874,61.1754,
-10.1552,5.1714,142.7069,-7.8608,6.6316,7.9917,-15.8371,-14.47,53.4986,0.44515,-12.8607,-5.6479,4.2695,57.9838,
-15.2951,-9.2389,144.6849,-6.4312,7.1917,-6.5878,-15.8453,-15.5178,50.2887,10.9588,-12.8413,-2.6409,3.0554,55.4628,
-9.1072,-14.2279,141.2735,-0.7756,-3.3003,-5.0283,-15.3736,-19.8574,42.0016,3.1147,2.0292,-7.7522,5.267,64.1124,
-3.291,0.72574,136.1509,1.6668,0.25058,9.3734,-3.4322,-11.4793,31.3369,-11.1722,6.0135,-14.4737,9.2627,67.4522,
-11.7171,1.4344,134.6895,-7.0568,-0.72242,0.93918,-7.0591,-5.0418,16.9994,-10.2961,-5.8457,-11.6893,6.791,54.7815,
-18.6801,-8.2337,134.2733,-8.5498,-14.7791,-13.2172,-17.1755,-17.1952,1.8795,-0.095396,-8.3703,2.4268,0.63439,44.7875,
-7.4979,-0.55304,140.1111,-3.725,-7.9364,1.6759,-5.1256,-18.5593,3.8898,-4.4015,2.1934,-2.0306,13.5317,50.2448,
-1.7778,-5.7901,144.6402,-4.9389,6.4335,10.1989,-0.50625,-7.3848,8.9257,-5.5757,0.62436,-16.0088,21.8228,41.9599,
-1.1922,-19.5427,144.1064,-8.9544,1.7348,-4.5131,-7.6625,-2.6299,1.2036,8.8589,-11.3905,-29.1482,15.2436,25.5481,
2.7122,-14.3315,149.56,-6.5012,-9.8677,-8.8273,-1.4535,-4.3881,-3.6594,13.8712,-17.4147,-25.0705,16.245,14.4328,
-5.1162,-8.6804,149.4831,-4.1942,-14.0664,-3.5064,-2.3243,-6.0417,-3.4398,-1.0611,-11.5786,-9.4662,15.2703,17.4005,
-8.1625,-5.7638,144.8264,-4.422,-7.9522,3.8906,-11.2878,-9.0325,-2.754,-7.4988,3.2162,5.2017,9.0838,30.4565,
-1.9241,8.6821,148.5932,-4.1567,-3.6423,10.3643,-1.987,-15.1982,-2.5888,7.0511,15.2738,-9.2104,6.6229,24.5901,
-4.2035,14.6621,148.781,2.3213,-1.0279,15.9711,7.2352,-9.9745,-4.8293,8.3382,3.3379,-20.8413,1.9137,13.0532,
-11.6174,1.326,141.7706,-1.6512,-8.6323,13.0964,-7.2989,-10.3335,-14.1215,-0.78608,-10.9623,-5.4909,-3.9503,26.37,
-1.8173,15.3464,145.2412,1.8021,-10.5097,13.7476,-19.1115,-8.277,-21.4192,-5.0512,-9.1408,8.9386,10.3867,38.8878,
-1.7087,24.7594,147.0676,2.6515,-6.0468,7.1735,-17.0069,-5.864,-26.8413,-4.7476,-14.3416,7.5113,19.1393,27.998,
-2.0848,9.1738,152.3436,-0.86092,6.2948,12.9718,-3.0502,-0.24106,-19.0017,9.6372,-19.7088,2.7484,9.8459,35.4211,
-1.4807,1.643,151.1413,-1.2883,7.3531,14.5884,-0.47228,1.2094,-15.4667,8.3738,-12.2986,3.0624,8.7761,29.942,
-0.43387,0.58646,148.7804,-2.1689,8.8288,16.5879,2.4309,3.0537,-11.6638,7.8713,-4.853,3.8367,8.2496,25.2707,
-0.40738,-2.3235,145.6028,-2.9972,9.2575,17.509,4.2014,3.8289,-9.0476,6.4406,1.1878,4.5649,7.7541,20.8801,
-0.86284,-4.58,143.0943,-4.2553,10.139,17.8954,5.3863,3.1193,-7.0678,4.6163,5.4283,3.812,5.8519,15.3146,
-1.769,-8.1375,139.2999,-5.9163,9.5311,17.7801,6.0215,2.9326,-5.6853,1.465,9.8938,2.6249,3.5844,9.6054,
-2.6213,-10.5245,135.7327,-8.4362,8.9583,17.6713,6.6182,2.7566,-4.3862,-0.53885,14.091,1.5094,1.4525,4.2374,
-7.2553,-17.5587,131.422,-12.7203,5.5465,13.7367,3.3468,-2.2,-6.0394,-6.2557,15.1619,-1.4564,-3.4259,-3.682,
-3.4657,-8.3597,137.6366,-0.9377,-4.8468,8.6011,2.6674,2.2447,-7.114,-9.2342,14.7312,1.0277,3.9672,10.4332,
0.096068,2.2029,143.4784,2.4719,-3.1186,4.7313,0.11154,-6.993,-14.8322,3.2977,18.1595,-12.9286,6.1246,-2.1707,
3.4437,8.2989,144.5187,-0.071783,9.0454,18.5474,0.58384,-1.3041,-4.8393,11.2439,11.7998,-2.092,-0.472,-0.603,
0.36267,1.0938,148.3044,1.8489,-1.0793,15.3119,-2.3256,0.69146,-6.4653,-3.5307,-3.0082,-2.924,-14.5437,0.39161,
11.8393,5.8189,153.5061,8.4456,-4.8473,15.3512,8.3539,0.64997,-3.2026,-14.132,-5.9758,-13.2894,-11.069,6.1168,
9.6915,4.9908,142.1736,0.75181,-8.8687,8.2019,4.4989,-10.4089,-4.4478,-2.2642,8.4828,-17.7618,-2.2598,5.2704,
1.9239,9.9611,135.0806,6.9349,-9.774,13.938,-1.9992,-4.5141,-1.7856,5.0578,3.4558,-2.5961,-2.6037,14.0572,
-3.4618,11.7588,141.0757,5.0814,-15.4158,27.2017,-6.1915,-2.8059,-5.0327,-9.3457,-4.8966,11.6597,1.8639,24.2336,
-0.37923,12.9706,144.8622,0.94461,-16.4067,28.2386,5.6793,-3.5955,-2.8139,-10.4947,5.9385,7.6737,15.1682,15.114,
0.12297,7.8801,135.691,0.40849,-8.2353,12.4443,16.3575,-4.8172,2.6251,4.235,1.27,-6.8867,8.9879,0.10715,
11.1345,11.7191,133.7777,12.3618,3.2778,19.09,17.7714,-3.0907,-1.8446,10.0029,2.6312,-8.6635,6.0523,3.6603,
4.7173,13.8908,123.8347,10.6617,-3.6261,30.4019,2.6051,-0.9889,-15.8339,-4.6973,0.55694,5.271,12.3973,13.9816,
-1.7944,21.2019,126.466,3.7942,2.8192,30.9727,-5.969,3.3822,-15.6356,0.58152,-1.8723,0.643,23.6308,9.7889,
6.9373,24.721,132.9781,3.5661,7.4413,30.0728,2.0548,-1.6119,-7.0324,5.3379,10.6968,5.3956,9.7561,9.2011,
5.5622,11.7385,135.8116,-8.1462,-7.1052,26.3516,-7.651,-14.9305,-20.7104,-8.3977,17.7206,11.7786,-4.9292,3.8573,
9.0617,11.9935,137.2458,-5.741,-8.8685,20.9381,-0.48384,-12.1173,-21.6565,-4.0605,11.8662,8.1984,-4.9062,0.75243,
14.2676,15.1067,143.1111,6.1018,5.7636,16.807,13.6452,-8.5164,-6.2571,2.8907,3.4886,3.8728,9.4881,6.456,
7.6615,9.4086,147.2535,7.6521,16.231,16.7566,24.5976,-0.33934,3.0146,11.3404,8.0705,-1.1508,11.1075,1.2774,
0.016087,-0.25846,141.773,-3.8264,1.1571,10.4814,9.0217,3.0348,-7.2268,11.1398,8.0653,-11.1422,-3.6589,-10.7766,
2.4105,-0.72193,145.2435,-7.9082,3.6898,13.2063,7.2497,1.4153,-17.813,4.2433,6.1439,3.6263,10.6606,3.97,
-4.4417,1.2378,148.9862,-4.5598,14.9668,18.1632,18.3131,1.3304,-14.8274,3.0298,4.8173,17.5087,24.121,17.8318,
-5.1332,-0.75289,148.6706,-6.2021,12.1528,19.9477,9.5487,1.2506,-4.3562,0.93207,12.1939,2.3582,8.5737,15.8709,
7.6311,-4.5405,151.2487,-9.6628,12.3816,25.4585,11.8502,5.9663,-3.1359,-8.7063,22.0026,-11.8833,8.0598,0.81865,
8.6107,-7.6219,149.3599,-10.5204,12.1172,12.9116,17.3674,3.2129,-12.0512,-5.7885,9.6626,-25.2703,21.6762,-9.5646,
4.2608,1.459,154.4983,-3.182,14.2646,6.3872,20.1581,3.9786,0.17021,8.6588,6.2085,-9.6541,23.0437,-2.2836,
2.0892,-1.5029,159.3284,-2.9911,7.66,11.7537,12.2415,-2.0098,-6.5476,8.4129,4.878,5.0252,7.5611,9.3518,
9.1504,1.9411,163.8687,5.3329,1.9306,14.4022,11.9864,-2.3682,-20.2548,-6.1919,5.0643,1.6435,4.4393,10.2286,
-1.4605,1.3447,156.7722,6.4504,-9.2051,5.3926,6.9545,-0.78866,-16.4383,-8.0109,3.3231,-12.5551,4.6515,-4.4852,
-14.7872,-8.3175,156.9478,-0.64383,-16.3179,6.9859,3.6629,1.1751,-7.786,4.9266,2.1653,-22.1364,-5.2087,2.6973,
-4.3175,-5.9021,161.6309,-5.3964,-16.2972,16.1487,7.2759,0.14613,-19.7752,4.6315,2.0358,-6.7082,-10.6453,16.6355,
6.961,4.5135,166.0331,-0.76085,-6.2169,7.0352,10.1936,-1.2996,-19.0676,-6.6658,6.2254,0.19564,0.053887,16.3891,
-3.0396,-9.8573,170.1711,4.0756,-0.095122,-7.4869,14.3723,-4.0964,-10.2584,-5.3079,5.8519,-13.9161,3.8834,1.3058,
-6.211,-20.5589,174.0608,7.1844,-12.0663,-21.1377,7.2813,-6.246,-23.7429,-3.552,12.6869,-4.2513,-1.6198,1.4327,
-2.4841,-5.2254,177.7172,14.8993,-20.4453,-5.7694,-7.2555,-6.3507,-36.0059,-9.5671,15.28,10.1037,-9.6667,15.4468,
-6.1674,9.1881,181.1542,12.0889,-20.177,8.6768,-10.4463,1.6964,-33.8455,-13.7843,3.8223,-1.2487,-12.9199,28.62,
-1.486,22.7368,166.174,10.8841,-29.0274,22.2562,2.1578,15.6946,-25.5866,-8.645,-2.6352,-6.444,-5.9166,41.0028,
-7.625,35.4726,142.1036,3.044,-41.3857,35.0208,-10.9074,11.1924,-38.1514,-13.3965,-12.5381,7.8364,-15.6225,52.6426,
-15.3121,42.1022,119.4774,-6.2412,-53.0026,47.0195,-24.1467,3.3352,-45.7175,-14.9885,-17.0555,10.7201,-18.039,63.5841,
-15.8308,25.4761,98.2087,1.3195,-54.6802,58.2984,-16.4698,11.2801,-31.9551,-4.9862,-12.6788,3.8487,-17.4352,73.869,
-21.5886,9.8475,78.2162,0.28277,-61.9398,63.5584,-17.398,5.8121,-23.3306,-4.6866,-16.7093,3.6173,-26.9299,83.5369,
-15.0226,16.3763,59.4232,-3.0885,-51.0368,73.8449,-15.8751,-1.7237,-28.159,-9.6756,-20.977,12.5033,-26.7516,92.6247,
-0.021231,29.4937,41.7578,11.1969,-38.3931,83.5142,-6.299,8.9201,-37.9678,-11.9699,-14.9276,6.9623,-16.5229,101.1672,
-0.70518,29.9137,25.1524,20.3802,-38.9638,78.5699,-6.8791,13.1761,-31.8569,-9.3353,-15.9474,2.7113,-13.6142,109.1971,
2.211,28.1189,9.5432,12.4498,-41.4172,59.7557,-8.3832,0.88627,-28.0296,-17.3997,-24.573,4.4655,-10.8814,116.7453,
11.1818,30.7435,-5.1294,7.391,-36.5364,63.0846,-8.3583,2.271,-34.4919,-30.4557,-13.9952,-6.8218,-0.16712,123.8406,
7.1567,32.2523,-18.9216,7.427,-34.8236,65.5268,-16.0022,2.6141,-30.027,-14.5283,-0.22059,-16.4735,1.2794,130.5102,
1.9365,24.5684,-31.8863,5.0645,-34.6501,47.4952,-21.7493,-8.0831,-22.4762,0.44337,-4.9981,-10.6943,-12.8974,136.7796,
5.1737,13.0333,-44.0731,7.156,-24.4266,30.5455,-9.4249,-5.2027,-14.8995,-1.705,-3.2608,4.0473,-20.5408,142.6728,
-1.3649,13.6887,-55.5287,8.1641,-16.7328,40.6236,0.24357,0.37962,-9.6933,-15.7027,6.0378,17.9045,-5.2084,120.0124,
-9.4276,16.2212,-66.297,3.3625,-18.1242,46.3317,1.6664,1.7938,-0.0086677,-9.2845,10.9453,30.9302,4.0013,98.7117,
-14.1317,2.3122,-76.4192,0.76534,-19.4321,30.616,6.8366,8.8732,12.9276,-0.58241,9.8101,14.9744,-2.4669,78.689,
-18.554,-6.9296,-85.934,5.9896,-15.8704,23.5088,10.7382,11.6942,10.7146,-1.0269,7.784,5.5198,-0.88149,59.8676,
-12.1706,7.5862,-94.878,5.1508,-14.4392,31.2013,6.7401,6.6812,-3.8221,-0.48586,6.8376,13.3327,5.3996,42.1756,
-3.2958,16.0278,-103.2853,-2.3444,-15.9686,22.1422,3.9403,6.7589,-12.6957,-9.5597,7.8647,13.9702,2.6802,25.545,
-3.098,11.2333,-111.1882,-1.2458,-18.8433,19.8557,2.7454,12.103,-14.8088,-17.6097,11.2256,14.0899,1.5605,9.9123,
1.8786,14.3921,-118.6169,10.3274,-25.3783,32.7643,0.66432,11.3768,-16.7947,-6.9716,8.6362,1.7462,-3.3239,-4.7824,
15.8659,27.6286,-125.5999,23.8077,-19.5438,38.2578,4.9362,13.0896,-12.4336,-1.2831,7.6385,-0.75398,-8.3946,-18.5955,
8.0006,34.3887,-132.1639,23.1315,-15.4968,25.4224,-0.1507,3.6802,-14.5624,-15.3061,-2.4018,8.8732,-9.8074,-31.5797,
4.6457,35.2002,-134.0737,18.8687,-10.7338,29.6458,-0.14166,5.3762,-3.1483,-14.6605,-10.8812,22.4408,-3.4693,-43.7849,
3.888,24.9436,-133.2159,19.1745,-20.1507,29.3049,-6.3613,5.5326,9.9764,-9.4691,-14.5401,18.0138,-12.3646,-55.2579,
10.3623,22.4881,-130.9725,26.6476,-5.5269,25.6298,7.4351,12.8663,23.4778,0.68061,0.43229,2.833,1.7925,-66.0424,
-2.7162,14.4316,-133.6541,10.9487,-7.1117,10.6772,5.0726,0.59546,36.1692,-6.0674,1.6371,-11.025,2.6434,-76.1798,
-10.2184,9.7334,-130.4261,-3.8082,-14.3506,13.8698,-1.9394,-8.0643,48.099,-10.4946,-0.37755,-2.6975,1.5264,-85.709,
-9.6053,4.3577,-130.2661,-9.8749,-13.49,14.9536,2.0098,-9.4964,59.3131,-15.6136,11.1435,-16.6356,15.5348,-94.6665,
-5.6756,2.6588,-132.5111,-4.9701,-8.3684,9.745,12.9091,-5.5732,69.8543,-5.5738,7.1215,-20.2229,24.9369,-103.0865,
-16.833,2.4998,-135.1004,-14.2539,-14.5739,5.3271,6.3849,-7.1552,70.3824,3.3837,-4.8046,-4.9095,9.3407,-111.0013,
-24.4475,10.0154,-130.8281,-16.2735,-20.4071,4.0495,-6.455,-9.6007,68.0754,6.0555,-0.68353,9.485,-2.9918,-118.4412,
-20.1058,5.5817,-127.7683,-14.3391,-21.0986,5.7234,-13.7329,-10.9406,78.0909,5.6931,1.2743,0.83833,1.9794,-125.4348,
-10.7549,4.7669,-115.7913,-12.9998,-16.4793,14.4816,-9.556,-6.9304,77.9904,-4.7108,-5.0308,6.0578,2.3387,-132.0087,
-11.5466,15.5002,-98.7824,-3.1172,-14.0531,2.5942,-5.6284,-8.9104,59.211,-13.5307,-12.8735,3.2994,-1.1545,-125.726,
-2.7096,28.6702,-89.5021,8.0896,-5.0649,9.6247,2.8539,-4.0635,41.9703,1.1749,-9.7057,-1.2108,10.8916,-113.8702,
-2.5466,37.2846,-89.8803,-5.8105,-9.5522,23.1472,-11.4173,-4.7782,37.5366,-3.6859,-23.2234,-0.17974,1.615,-102.2468,
-0.47788,49.1476,-73.9479,-9.2947,-8.0211,35.8584,-22.5039,-8.3243,21.8692,-14.0052,-35.5179,9.4126,-12.5819,-92.2792,
13.6508,60.2987,-56.0958,5.363,5.8754,47.8069,-7.7384,-6.8668,25.3478,-1.6665,-19.2869,2.1411,-4.4346,-83.8685,
15.5008,69.2046,-48.4183,8.6682,10.7926,55.8191,-0.087496,-5.017,18.5572,7.5361,-6.837,-12.0874,8.7678,-92.9364,
16.0082,65.5317,-41.201,3.8359,13.4993,56.7821,-2.4776,-1.3626,3.55,3.7305,-9.7802,-16.4265,5.8463,-98.1729,
25.1086,68.786,-41.1243,-0.70649,8.3771,39.4805,-7.5992,-7.509,-4.808,-1.7635,-4.882,-1.3409,-2.6495,-78.3883,
22.1647,67.0542,-36.2615,-0.18465,5.4791,40.466,-0.91505,-9.4539,-2.1242,0.73769,-6.0265,12.8395,-1.0531,-73.2065,
12.6898,68.3011,-23.0668,6.0546,10.4196,50.9729,3.4512,-2.6584,0.39867,6.9216,-19.7649,-2.0309,-8.177,-82.9141,
18.157,62.7652,-14.4962,6.1703,2.6088,41.6868,-4.9005,-2.9779,1.8117,5.0694,-15.9779,-16.009,-19.6637,-92.0393,
27.608,56.1254,-6.9188,7.7169,2.4522,35.3528,-1.7316,-2.7992,0.74503,-9.3348,-8.3116,-8.3413,-4.3839,-76.5229,
24.0347,54.6738,1.1619,14.9195,11.8866,39.9392,10.8291,2.1595,-4.0904,-20.5463,-21.9129,-15.5064,9.9791,-77.6807,
19.2397,37.5001,7.3208,14.5033,13.5693,35.1471,13.5332,6.3417,-5.2829,-22.6673,-24.2247,-28.676,-3.9674,-80.206,
18.5643,23.2727,15.9841,11.2373,18.0258,33.5172,23.7406,12.1898,-5.4449,-10.2879,-8.6712,-14.7714,2.4992,-61.2937,
15.5341,25.7087,14.0666,13.4383,17.9018,32.4646,29.9817,9.542,-19.2182,4.4294,-5.4819,0.21488,16.4493,-47.2819,
4.5401,15.0632,7.9524,7.3609,2.7276,20.4558,14.0828,-3.9663,-30.3157,8.7486,-14.256,8.6198,6.6321,-39.1752,
-9.8323,0.059365,11.309,-4.5782,-11.536,7.73,-0.86216,-8.5191,-25.6219,13.0144,-6.693,19.601,-4.3063,-29.1591,
-23.3423,-14.0442,7.2762,-8.6158,-17.139,0.07918,-13.8132,-5.6125,-17.8564,9.8382,-5.8129,16.0295,-3.5684,-39.3865,
-11.9473,-17.5803,14.0262,2.9206,-8.9245,-5.1953,-1.9655,-3.8388,-3.8497,7.8109,-1.1523,5.9643,1.9154,-51.1233,
2.8695,-21.3167,27.2846,14.2433,-1.6814,-15.4236,9.6513,-2.6501,6.9221,16.9243,13.0168,-3.0176,-1.0739,-56.4741,
5.3664,-15.7255,39.7476,15.785,-4.9339,-12.1028,13.384,4.6951,0.27865,9.6806,16.8208,-12.8975,3.3028,-45.8991,
10.3141,-0.68193,51.4627,27.7732,9.2555,2.7234,25.5163,18.3076,-2.1339,-5.0002,22.0402,-13.5606,17.2046,-30.2098,
13.5281,5.8608,46.3197,27.0657,22.8001,15.7685,18.2366,15.2932,-7.7546,-7.3692,16.885,-1.2486,30.2723,-21.6891,
-1.3836,-8.5908,29.4405,11.3418,11.1649,0.72243,3.0424,0.27559,-21.3893,3.6133,1.7719,7.4499,14.356,-31.8871,
-15.4006,-20.3269,29.7967,0.32663,-3.605,-1.989,9.7732,-3.368,-23.733,3.8755,-10.585,5.5659,-0.60535,-26.6196,
-13.1061,-19.5862,30.4039,2.702,-1.745,-5.2235,9.6658,-3.6449,-17.0393,4.122,-8.513,5.711,-2.9649,-24.5434,
-9.4449,-20.327,31.4545,4.4567,0.27652,-8.7429,9.0859,-3.4262,-11.2252,3.8747,-7.0433,5.3683,-2.787,-23.0708,
-4.5664,-19.5873,32.921,6.5842,2.6549,-11.5721,9.0197,-3.6996,-5.282,4.1212,-5.1837,5.5252,-1.1828,-21.2076,
-1.4185,-19.37,33.8196,7.148,3.4544,-14.7106,9.437,-3.4776,-1.1323,3.8739,-2.9568,5.1937,-0.15387,-19.9351,
2.9788,-18.6863,34.1868,9.1145,5.6426,-17.1813,9.3502,-3.7484,4.2059,4.1209,-1.3411,5.3615,1.2937,-18.2596,
7.1119,-19.003,36.4473,11.9215,7.6998,-20.4631,10.2261,-3.0445,10.1822,3.3947,1.1343,5.5188,1.6951,-18.6014,
17.7045,-14.509,28.9898,15.518,12.5076,-8.2159,13.9243,3.3668,-0.49019,-5.9125,14.9605,-2.9569,10.6959,-11.2572,
14.7259,-14.5969,21.5013,14.5864,13.6735,-6.7646,24.5873,17.2648,-2.3772,1.1503,12.1465,-2.7799,13.8865,-0.041319,
-0.25768,-27.8211,19.2532,9.8794,6.1455,-20.4587,28.8617,12.6689,11.8655,4.9141,-1.0387,-13.1526,-1.0467,-14.1388,
-11.0554,-39.8394,11.3904,10.2446,1.944,-25.254,15.6311,0.41034,19.0923,17.0756,12.438,-4.6988,4.4925,-15.4801,
-11.8286,-30.2624,-3.393,2.4433,-2.4844,-9.6388,4.6328,3.7395,5.0114,20.3638,18.8783,1.8118,18.323,-3.5315,
-10.6403,-25.0933,-11.1278,-2.0155,-7.6056,-12.6196,16.3317,2.0777,1.3565,14.8297,3.6456,2.1825,8.8728,1.9506,
-11.4388,-25.9826,-4.2315,5.292,-10.503,-20.007,16.7892,-4.2755,-2.0787,8.6693,-5.4704,14.0289,-5.7596,0.39574,
-14.5858,-25.3821,-16.4344,2.1001,-7.9565,-12.0994,3.3255,-3.0606,-2.9124,12.9403,8.9579,15.1036,-6.1657,-8.2516,
-12.2732,-29.1294,-27.4262,-3.2961,-11.7913,-17.6025,2.6465,2.3933,-2.2582,15.5173,12.0474,5.0944,-5.3173,-10.1523,
-9.1414,-27.8611,-19.5524,1.2139,-9.646,-21.8157,12.5492,0.81224,-3.5601,14.1077,8.9292,18.8887,-19.0982,4.5568,
-11.4678,-22.3566,-19.3372,-1.7338,-0.44319,-16.6739,11.7962,-9.7769,-1.4297,12.3033,18.9338,21.3819,-10.0805,16.5344,
2.1561,-16.703,-24.4052,3.6405,5.8116,-18.0689,11.5674,-4.8781,2.0095,13.0025,23.068,5.999,4.6243,1.4424,
12.5667,-23.3668,-28.6901,14.92,7.3788,-21.776,22.3718,6.9126,7.6381,21.8034,14.0179,-8.4609,18.4469,-10.8952,
-2.2873,-36.0648,-41.0687,-0.075228,-1.6875,-29.0934,11.4475,-4.0422,-4.3181,12.8301,12.2184,-2.2706,3.2401,3.1738,
-16.2501,-48.0009,-52.7045,-14.1707,-8.2938,-30.2226,-3.3394,-12.4232,-15.5583,3.4367,18.1929,11.9656,-9.6169,14.4817,
-21.0908,-59.2209,-63.6423,-8.5967,-19.7736,-32.7211,1.858,-7.366,-7.4382,8.5003,12.7895,22.5394,1.9795,13.1338,
-15.5136,-42.1136,-73.9237,2.939,-13.3169,-29.3204,12.7659,-4.5287,4.0279,16.1353,9.6268,10.1681,-12.2393,10.9084,
-9.7911,-25.4868,-83.5883,-1.0697,1.5821,-13.4612,11.042,-2.3406,-1.005,17.0836,7.1328,11.4744,-9.3823,12.1703,
4.8964,-9.8576,-92.673,0.43053,15.5871,-1.3613,7.0252,-2.6791,-15.0447,1.9585,-7.3952,5.5153,5.2806,12.877,
18.7026,4.8339,-97.3749,13.3419,28.7519,-2.7166,15.7071,-2.9973,-28.242,-12.259,-17.7651,-8.9156,3.3211,9.7095,
31.6805,18.6439,-105.6324,10.1455,28.3249,-0.15779,22.9093,-5.2133,-33.3221,-5.8412,-5.6798,-22.4807,-10.7724,-4.9731,
30.5983,31.6252,-112.024,6.183,16.5649,0.33067,18.1809,-10.1703,-27.9689,-0.22099,-4.86,-31.7379,-2.9395,-18.7747,
34.9906,38.2799,-105.782,8.2074,21.7983,-3.0434,24.2762,-4.2899,-23.8954,-5.4779,2.6177,-20.7315,4.423,-12.9249,
20.9138,24.0057,-113.3293,5.3191,20.0114,-11.9634,18.5079,-2.5955,-27.7319,-6.5862,5.8145,-5.3876,-9.7366,1.9506,
13.4303,12.504,-120.6296,4.521,12.583,-9.8086,5.42,-6.7516,-31.3377,-7.6289,2.1127,0.95849,-11.5482,7.856,
15.0204,5.5251,-125.1634,-4.8538,19.9726,-6.8243,15.1562,-7.7834,-29.9369,-8.6081,11.0885,-3.4117,3.2447,12.6543,
1.1833,-8.7002,-121.9649,-11.7487,11.5881,-20.5148,21.433,-12.5866,-22.8705,-6.6542,14.7354,10.893,9.0733,14.2914,
-0.80451,-13.9278,-128.0622,-1.4622,-2.5224,-29.6181,12.4814,-12.7903,-10.9583,-2.4222,12.8924,24.3394,-5.5711,25.8903,
11.2211,-12.6123,-134.4785,-0.89459,0.98273,-16.8216,2.63,-10.585,-24.1946,-11.3803,7.8071,12.8855,-19.3368,26.7327,
13.4227,-1.3151,-140.5098,0.11705,14.339,-1.7123,8.221,-7.0751,-36.8429,-9.7386,11.1715,-1.9876,-12.4953,20.3379,
3.5143,6.9079,-138.3748,11.1299,20.6648,10.6405,14.9148,-7.13,-29.6353,-6.7589,11.9386,-3.579,2.3544,26.3038,
6.6577,6.9729,-136.3005,17.6482,19.9044,0.90002,15.4573,-4.3069,-16.8378,-20.4534,4.0361,4.7808,11.1108,24.2461,
10.57,3.2007,-142.2225,11.3187,14.3974,-2.5087,14.0499,-0.69463,-18.2234,-33.3262,9.0637,-9.6061,9.0063,8.8972,
4.6656,-6.0943,-147.7891,10.161,10.1802,0.038115,16.5612,-2.0904,-8.027,-19.8956,22.6199,3.1539,16.611,13.6335,
-9.7143,-19.8287,-153.0218,-4.5486,-4.5306,-14.0642,1.4675,-16.0649,-11.8571,-5.7657,34.9507,17.0647,1.5143,26.7097,
-20.424,-32.739,-157.9405,-18.3757,-17.4673,-26.4298,-7.0383,-19.686,-19.7693,-6.3777,20.3973,30.1408,-9.8692,39.2072,
-20.157,-28.9256,-162.564,-15.4242,-2.3193,-21.0107,7.484,-7.006,-15.7087,-9.8283,12.4654,41.8136,-3.5278,30.4208,
-4.8476,-13.0901,-150.3416,-0.39874,11.9199,-12.5635,21.135,5.3917,-0.66622,-2.052,21.7798,25.2048,10.7839,14.4955,
9.5433,-6.2823,-147.5502,-1.06,19.4158,-9.4143,15.6216,5.5476,-14.7262,-16.0289,8.4943,9.5925,10.4096,4.7286,
15.2663,0.80225,-152.7972,6.6701,16.3349,-3.0998,11.8104,1.382,-27.9427,-29.1671,-5.4297,-5.083,3.0783,18.5449,
12.4339,-2.1203,-157.7293,5.3114,4.8148,-6.7471,2.4778,-12.8009,-36.1208,-41.5171,-12.7691,-8.4716,-7.6464,30.1622,
6.4181,-0.55608,-160.7898,-2.1939,1.1712,-4.9053,1.8492,-3.2031,-34.433,-41.7616,-15.3576,6.1367,-6.7095,34.5802,
2.1998,-3.3971,-164.5572,-0.14583,1.1014,-6.5274,15.8382,11.0891,-21.8271,-38.2984,-10.6038,15.1438,3.275,18.4054,
4.4632,-5.5886,-159.954,4.1742,3.4307,-15.2387,17.557,7.3431,-6.4175,-23.0638,4.1324,0.13518,-1.2328,3.201,
3.7168,-10.5235,-156.5849,-0.38754,5.6203,-17.6777,2.4036,2.5903,0.9484,-7.58,8.9493,-7.8108,-15.2588,13.0034,
-2.2554,-23.9921,-161.2898,-6.1135,4.3255,-18.5335,3.424,3.3933,-10.6069,-5.415,-0.21165,6.7578,-9.3467,22.7632,
-3.5579,-27.1371,-165.7124,1.4399,-0.24579,-19.8164,15.1959,0.7939,-7.5746,-6.5271,3.1549,11.8958,4.1503,8.4621,
0.9678,-26.9463,-161.1059,2.791,-3.5853,-18.1489,5.1812,-1.6491,-8.5576,-8.5308,8.2358,0.16309,-8.0765,13.2245,
-1.9651,-23.4136,-164.8548,-4.0841,-0.49536,-13.2272,-0.87841,-7.2989,-8.0441,-7.061,8.7005,-1.7635,-14.2986,26.5311,
-9.0338,-10.0314,-159.2753,-3.3601,4.8041,-11.9545,11.1507,-5.424,1.5411,2.4652,7.6986,-0.22078,0.65928,15.151,
-8.0123,-14.6988,-157.8638,-3.637,-4.5862,-14.5906,11.92,4.0044,-1.9047,-0.0781,7.7161,-5.4768,9.516,2.2641,
3.9673,-22.4409,-162.492,-2.4613,-5.2695,-15.6316,-0.29402,1.8478,-10.4145,-14.1734,13.9603,-7.0655,6.0707,16.2283,
6.1241,-16.7836,-158.2859,-0.87664,0.31644,-18.0475,3.0765,3.1738,4.3104,-8.326,13.6017,-1.3718,8.1014,25.5887,
8.1521,-11.4643,-155.0169,0.61337,5.5677,-20.3189,6.2462,3.4629,18.1518,-1.5983,12.3061,3.9807,10.0107,33.1564,
8.1424,-7.4222,-151.9441,0.098033,9.5458,-23.4111,8.2668,2.7756,31.1627,3.7678,11.0892,7.0961,10.8484,40.27,
7.1744,-5.5395,-150.9724,-1.3453,12.3264,-27.2766,8.2502,0.21373,43.3929,6.8951,7.0705,10.0237,9.718,44.082,
0.51623,-9.5198,-155.8074,-8.4511,8.233,-37.6174,2.4846,-6.9857,48.1103,4.0865,-1.4992,6.0685,2.9063,42.8749,
1.4432,-6.0738,-154.1255,-7.9441,11.5719,-40.152,4.2523,-7.5245,58.638,8.6321,-3.3252,9.5371,3.6899,47.968,
0.87765,-2.3546,-153.0216,-9.8624,14.2313,-44.9286,4.4762,-10.4269,69.014,12.4268,-6.4795,11.3617,3.9484,53.2345,
-6.8411,-16.3133,-156.298,-23.3706,18.1687,-51.8158,2.2912,-22.2581,69.6643,9.7639,-13.7568,-1.7778,15.2094,45.2492,
-6.4306,-9.8595,-154.5848,-14.5765,9.413,-40.0824,0.2378,-24.7554,77.9408,5.3453,1.1687,-9.3367,7.5892,54.9915,
5.9331,4.8321,-145.7901,-4.5989,10.2847,-31.4492,5.4928,-15.1259,82.3674,14.1276,1.8512,-12.1298,-6.9661,52.1706,
6.5351,-6.2036,-143.7494,-8.1557,10.6265,-38.1858,4.2053,-15.1763,64.0101,6.5723,-4.9675,-24.8173,-6.3419,34.9403,
1.8312,-5.3524,-141.3521,-4.3126,14.3007,-36.3737,3.4749,-17.6187,50.109,-6.7574,9.4305,-16.1407,8.1386,40.7162,
