"AF3","AF4","F3","F4","F7","F8","FC5","FC6","O1","O2","P7","P8","T7","T8",
104.3745,21.091,108.7009,-87.069,-63.2739,-123.8432,-155.2097,-18.9283,-7.0305,93.5581,295.8176,115.19,7.0305,-66.5185,
97.8852,36.091,123.7009,-72.069,-48.2739,-108.8432,-140.2097,-28.6626,7.9695,78.5581,280.8176,106.538,-7.0302,-51.5185,
82.8852,51.091,138.7009,-57.069,-33.2739,-93.8432,-125.2097,-43.6626,22.9695,63.5581,265.8176,91.538,-22.0302,-36.5185,
67.8852,66.091,153.7009,-42.069,-18.2739,-78.8432,-110.2097,-58.6626,37.9695,48.5581,250.8176,76.538,-37.0302,-21.5185,
54.0797,56.2434,155.7512,-27.069,-7.5709,-63.8432,-95.2097,-73.6626,52.9695,33.5581,235.8176,85.4468,-52.0302,-6.5185,
69.0797,50.8352,148.1792,-12.069,0,-48.8432,-80.2097,-88.6626,67.9695,18.5581,220.8176,100.4468,-37.0302,-3.245,
55.1616,37.8561,133.1792,-27.069,-6.4896,-47.5902,-91.9358,-78.9567,82.9695,6.4896,235.8176,90.855,-32.4478,-18.245,
47.05,52.8561,148.1792,-24.3358,8.5104,-32.5902,-79.4973,-89.2319,97.9695,-8.5104,220.8176,97.8852,-43.805,-11.3566,
54.08,67.8561,163.1792,-9.3358,-6.4896,-31.3668,-86.5283,-74.2319,88.691,-5.408,230.3812,111.4043,-44.3459,-10.8162,
39.08,52.8561,148.1792,5.6642,-21.4896,-16.3668,-71.5283,-89.2319,103.691,-20.408,215.3812,96.4043,-59.3459,-16.2237,
24.08,37.8561,133.1792,-4.3264,-6.4896,-1.3668,-56.5283,-104.2319,118.691,-35.408,200.3812,81.4043,-74.3459,-1.2237,
39.08,44.3462,138.4451,-17.3055,-2.1632,-16.3668,-71.5283,-89.2319,133.691,-20.408,215.3812,91.9363,-69.2226,2.1632,
54.08,42.1824,152.5056,-32.3055,-17.1632,-31.3668,-86.5283,-74.2319,118.691,-5.408,230.3812,106.9363,-54.2226,-12.8368,
69.08,34.0706,142.2306,-47.3055,-32.1632,-46.3668,-101.5283,-59.2319,103.691,9.592,245.3812,95.7218,-39.2226,-27.8368,
54.08,37.8556,127.2306,-34.6115,-17.1632,-31.3668,-86.5283,-74.2319,118.691,-5.408,230.3812,80.7218,-54.2226,-42.8368,
39.08,52.8556,112.2306,-19.6115,-2.1632,-16.3668,-71.5283,-89.2319,133.691,-20.408,215.3812,65.7218,-69.2226,-27.8368,
24.08,65.9775,127.2306,-4.6115,-11.8973,-11.8973,-69.2226,-104.2319,118.691,-5.408,200.3812,50.7218,-84.2226,-12.8368,
39.08,50.9775,142.2306,-19.6115,-26.8973,-26.8973,-84.2226,-89.2319,103.691,9.592,215.3812,65.7218,-69.2226,-27.8368,
54.08,35.9775,127.6289,-34.6115,-41.8973,-41.8973,-99.2226,-74.2319,88.691,24.592,230.3812,80.7218,-54.2226,-42.8368,
39.08,43.805,121.6808,-43.805,-26.8973,-34.0698,-84.2226,-89.2319,101.1303,39.592,215.3812,65.7218,-69.2226,-31.9072,
24.08,28.805,106.6808,-28.805,-11.8973,-19.0698,-69.2226,-104.2319,116.1303,24.592,200.3812,50.7218,-84.2226,-16.9072,
9.08,43.805,102.2111,-13.805,-5.9484,-4.0698,-54.2226,-119.2319,111.9462,36.2341,185.3812,35.7218,-99.2226,-1.9072,
24.08,56.7838,117.2111,-28.805,-20.9484,-19.0698,-69.2226,-104.2319,96.9462,51.2341,200.3812,50.7218,-84.2226,-16.9072,
39.08,41.7838,102.2111,-43.805,-35.9484,-34.0698,-84.2226,-89.2319,81.9462,66.2341,215.3812,65.7218,-69.2226,-31.9072,
30.8253,56.7838,117.2111,-30.8253,-50.9484,-49.0698,-99.2226,-104.2319,66.9462,81.2341,200.3812,75.1715,-84.2226,-30.8253,
15.8253,57.3253,102.2111,-15.8253,-35.9484,-34.0698,-84.2226,-119.2319,81.9462,66.2341,185.3812,60.1715,-99.2226,-15.8253,
0.82532,42.3253,87.2111,-2.1632,-20.9484,-19.0698,-69.2226,-134.2319,96.9462,51.2341,170.3812,45.1715,-114.2226,-0.82532,
15.8253,28.6626,102.2111,-17.1632,-35.9484,-34.0698,-84.2226,-119.2319,81.9462,66.2341,185.3812,30.1715,-99.2226,-15.8253,
30.8253,13.6626,110.3229,-32.1632,-50.9484,-49.0698,-99.2226,-104.2319,66.9462,81.2341,200.3812,45.1715,-84.2226,-30.8253,
45.8253,28.6626,125.3229,-17.1632,-35.9484,-55.7025,-100.0482,-89.2319,51.9462,96.2341,190.9021,60.1715,-69.2226,-45.8253,
30.8253,43.6626,110.3229,-2.1632,-20.9484,-40.7025,-85.0482,-104.2319,66.9462,81.2341,175.9021,45.1715,-84.2226,-30.8253,
15.8253,41.6418,95.3229,4.867,-5.9484,-25.7025,-85.9869,-119.2319,51.9462,66.2341,160.9021,30.1715,-99.2226,-15.8253,
13.5203,31.9072,89.2325,-10.133,-20.9484,-40.7025,-100.9869,-104.2319,36.9462,81.2341,168.1886,45.1715,-84.2226,-13.5203,
28.5203,22.1728,103.2927,-25.133,-35.9484,-55.7025,-115.9869,-89.2319,31.9069,96.2341,183.1886,60.1715,-69.2226,-28.5203,
26.4989,26.4989,101.1297,-40.133,-26.4989,-66.5182,-102.2111,-74.2319,46.9069,111.2341,191.9847,58.9473,-56.7841,-43.5203,
11.4989,41.4989,86.1297,-25.133,-11.4989,-51.5182,-87.2111,-89.2319,61.9069,96.2341,176.9847,43.9473,-71.7841,-28.5203,
-3.5011,56.4989,88.6913,-10.133,-17.3055,-36.5182,-86.5281,-104.2319,46.9069,81.2341,161.9847,28.9473,-86.7841,-13.5203,
2.7039,64.3555,103.6913,-2.7039,-12.438,-21.5182,-71.5281,-117.3539,61.1105,78.416,146.9847,43.9473,-101.7841,-12.438,
17.7039,49.3555,105.4561,-17.7039,-27.438,-35.1517,-74.0901,-104.3748,63.2737,68.6814,131.9847,58.9473,-92.477,-21.0912,
17.8462,36.2341,98.9671,-32.7039,-38.3967,-50.1517,-89.0901,-89.3748,73.0088,83.6814,146.9847,62.1923,-77.477,-17.8462,
8.6528,51.2341,97.344,-31.367,-29.2033,-65.1517,-104.0901,-82.2022,60.5693,98.6814,161.1584,59.488,-62.477,-8.6528,
23.6528,58.4061,112.344,-24.8764,-22.7137,-69.2226,-110.3232,-67.2022,45.5693,113.6814,176.1584,63.8149,-61.6512,-23.6528,
8.6528,57.8649,116.2716,-10.2758,-7.7137,-54.2226,-95.3232,-82.2022,50.2945,98.6814,161.1584,48.8149,-76.6512,-25.4176,
-6.3472,48.6715,101.2716,-10.8165,0,-39.2226,-80.3232,-97.2022,65.2945,83.6814,146.1584,33.8149,-91.6512,-10.4176,
-1.0813,45.4275,100.5891,-16.2242,-5.4077,-36.7742,-76.7935,-82.2022,80.2945,98.6814,161.1584,48.8149,-80.0385,1.0813,
13.9187,43.2643,115.5891,-31.2242,-20.4077,-51.7742,-91.7935,-67.2022,65.2945,113.6814,176.1584,63.8149,-65.0385,-13.9187,
28.9187,36.7747,123.3023,-46.2242,-35.4077,-66.7742,-106.7935,-52.2022,50.2945,128.6814,191.1584,78.8149,-50.0385,-28.9187,
13.9187,48.672,108.3023,-31.2242,-20.4077,-51.7742,-91.7935,-67.2022,65.2945,113.6814,176.1584,63.8149,-65.0385,-23.7961,
-1.0813,39.4791,93.3023,-16.2242,-5.4077,-36.7742,-76.7935,-82.2022,80.2945,98.6814,161.1584,48.8149,-80.0385,-8.7961,
-16.0813,54.4791,96.8034,-1.2242,-4.867,-21.7742,-61.7935,-97.2022,79.4979,83.6814,146.1584,33.8149,-95.0385,0.54067,
-1.0813,39.4791,93.0171,-16.2242,-19.867,-36.7742,-76.7935,-82.2022,64.4979,98.6814,161.1584,48.8149,-80.0385,-14.4593,
13.9187,24.4791,78.0171,-31.2242,-34.867,-51.7742,-91.7935,-67.2022,49.4979,113.6814,176.1584,63.8149,-65.0385,-29.4593,
4.867,39.4791,91.3957,-24.3352,-19.867,-44.8858,-79.4979,-82.2022,64.4979,98.6814,161.1584,49.2132,-80.0385,-14.4593,
-10.133,24.4791,76.3957,-9.3352,-4.867,-29.8858,-64.4979,-97.2022,79.4979,83.6814,146.1584,34.2132,-95.0385,0.54067,
-25.133,39.4791,62.1923,2.7044,3.7857,-14.8858,-49.4979,-112.2022,71.9264,68.6814,131.1584,19.2132,-110.0385,-2.7044,
-10.133,29.7435,77.1923,-12.2956,-11.2143,-29.8858,-64.4979,-97.2022,56.9264,83.6814,146.1584,28.6621,-95.0385,-17.7044,
4.867,14.7435,62.1923,-27.2956,-26.2143,-44.8858,-79.4979,-82.2022,41.9264,98.6814,161.1584,43.6621,-80.0385,-32.7044,
6.4896,29.7435,77.1923,-12.2956,-41.2143,-58.4061,-94.4979,-97.2022,26.9264,83.6814,146.1584,41.1006,-71.3852,-47.7044,
-8.5104,44.7435,62.1923,2.7044,-26.2143,-43.4061,-79.4979,-112.2022,41.9264,68.6814,131.1584,26.1006,-86.3852,-32.7044,
-23.5104,34.611,47.1923,0,-11.2143,-28.4061,-64.4979,-127.2022,42.1824,53.6814,116.1584,11.1006,-101.3852,-17.7044,
-8.5104,30.8258,62.1923,-15,-26.2143,-43.4061,-79.4979,-112.2022,27.1824,68.6814,131.1584,26.1006,-86.3852,-32.7044,
6.4896,15.8258,54.6214,-30,-41.2143,-58.4061,-94.4979,-97.2022,12.1824,83.6814,146.1584,41.1006,-71.3852,-47.7044,
21.4896,30.8258,69.6214,-15,-26.2143,-43.4061,-79.4979,-82.2022,-2.8176,98.6814,161.1584,56.1006,-56.3852,-32.7044,
6.4896,45.8258,58.9468,0,-11.2143,-28.4061,-64.4979,-97.2022,12.1824,83.6814,146.1584,41.1006,-71.3852,-17.7044,
-8.5104,60.8258,43.9468,14.061,3.7857,-13.4061,-59.4874,-112.2022,27.1824,68.6814,131.1584,26.1006,-86.3852,-2.7044,
6.4896,55.1621,58.9468,-0.93901,-11.2143,-28.4061,-74.4874,-97.2022,12.1824,83.6814,116.1584,41.1006,-71.3852,-14.061,
21.4896,40.1621,73.0078,-15.939,-26.2143,-43.4061,-89.4874,-82.2022,-2.8176,98.6814,131.1584,45.9682,-56.3852,-29.061,
29.2036,51.9168,76.7937,-30.939,-11.2143,-52.9981,-88.691,-67.2022,-11.8975,112.4871,146.1584,30.9682,-41.3852,-33.5294,
14.2036,66.9168,87.0693,-15.939,3.7857,-37.9981,-73.691,-82.2022,3.1025,97.4871,131.1584,15.9682,-56.3852,-18.5294,
-0.79643,68.1402,102.0693,-2.1632,11.8973,-40.0193,-58.691,-97.2022,2.1632,82.4871,116.1584,8.6522,-71.3852,-10.8159,
-3.2445,53.1402,95.1808,-17.1632,8.6533,-27.0401,-48.672,-112.2022,17.1632,67.4871,101.1584,3.2445,-70.3039,-25.8159,
-1.6225,47.05,80.1808,-32.1632,1.6225,-18.928,-63.2732,-104.3743,25.4181,52.4871,86.1584,17.8467,-61.1105,-25.4171,
13.3775,57.8654,70.8446,-29.744,5.9489,-33.928,-78.2732,-89.3743,10.4181,67.4871,101.1584,32.8467,-46.1105,-16.7643,
28.3775,72.8654,85.8446,-14.744,3.245,-48.928,-93.2732,-74.3743,-4.5819,82.4871,91.9363,47.8467,-31.1105,-16.2242,
43.3775,80.0385,100.8446,-9.7351,8.6528,-63.928,-108.2732,-59.3743,-19.5819,97.4871,106.9363,48.6715,-16.1105,-31.2242,
45.9682,82.7429,107.6198,-7.0297,23.6528,-48.928,-93.2732,-74.3743,-4.5819,82.4871,91.9363,33.6715,-31.1105,-46.2242,
30.9682,71.9264,92.6198,0.54067,38.6528,-33.928,-78.2732,-89.3743,10.4181,67.4871,76.9363,18.6715,-46.1105,-31.2242,
42.1824,85.4462,91.9363,-1.0813,43.2638,-18.928,-63.2732,-78.9572,-4.5819,52.4871,61.9363,3.6715,-61.1105,-46.2242,
57.1824,77.3347,97.8852,-16.0813,28.2638,-33.928,-78.2732,-63.9572,-19.5819,67.4871,76.9363,14.6017,-46.1105,-61.2242,
72.1824,62.3347,82.8852,-31.0813,13.2638,-48.928,-93.2732,-48.9572,-34.5819,82.4871,91.9363,9.1939,-31.1105,-76.2242,
57.1824,77.3347,86.5286,-16.0813,28.2638,-33.928,-78.2732,-63.9572,-19.5819,67.4871,76.9363,-5.8061,-46.1105,-61.2242,
42.1824,62.3347,71.5286,-1.0813,43.2638,-18.928,-63.2732,-78.9572,-4.5819,52.4871,61.9363,-20.8061,-61.1105,-46.2242,
27.1824,77.3347,83.8237,11.3566,39.4786,-3.928,-48.2732,-93.9572,-13.5203,37.4871,46.9363,-9.1939,-76.1105,-31.2242,
40.5599,62.3347,68.8237,-3.6434,24.4786,-18.928,-63.2732,-78.9572,-28.5203,52.4871,61.9363,5.8061,-61.1105,-46.2242,
42.7231,47.3347,53.8237,-18.6434,9.4786,-33.928,-78.2732,-63.9572,-43.5203,67.4871,76.9363,8.1121,-46.1105,-61.2242,
27.7231,62.3347,68.8237,-3.6434,-5.5214,-20.0099,-63.2732,-78.9572,-28.5203,52.4871,61.9363,13.5198,-61.1105,-46.2242,
12.7231,47.3347,53.8237,11.3566,8.6528,-5.0099,-48.2732,-93.9572,-13.5203,37.4871,46.9363,-1.4802,-76.1105,-31.2242,
-2.2769,62.3347,58.9478,26.3566,23.2544,9.9901,-33.2732,-108.9572,1.4797,22.4871,31.9363,-16.4802,-91.1105,-16.2242,
12.7231,47.3347,43.9478,11.3566,8.2544,-5.0099,-48.2732,-93.9572,-13.5203,37.4871,46.9363,-1.4802,-76.1105,-31.2242,
27.7231,32.3347,28.9478,-3.6434,-6.7456,-20.0099,-63.2732,-78.9572,-28.5203,52.4871,61.9363,13.5198,-61.1105,-46.2242,
33.5302,47.3347,43.9478,-18.6434,-20.55,-35.0099,-78.2732,-63.9572,-13.5203,67.4871,58.4061,28.5198,-46.1105,-61.2242,
18.5302,46.5088,32.4484,-3.6434,-5.55,-20.0099,-63.2732,-78.9572,1.4797,52.4871,43.4061,13.5198,-61.1105,-46.2242,
3.5302,52.4577,32.9885,11.3566,9.45,-5.0099,-48.2732,-93.9572,2.7039,37.4871,28.4061,-1.4802,-76.1105,-31.2242,
-4.867,38.3967,42.7231,-3.6434,-5.55,-20.0099,-63.2732,-78.9572,-12.2961,52.4871,43.4061,13.5198,-61.1105,-16.2242,
10.133,23.3967,27.7231,-18.6434,-20.55,-35.0099,-78.2732,-63.9572,-27.2961,67.4871,58.4061,28.5198,-46.1105,-31.2242,
18.3874,33.5292,42.7231,-33.6434,-18.3874,-50.0099,-84.3654,-50.8357,-42.2961,82.4871,73.4061,35.6929,-31.1105,-46.2242,
3.3874,48.5292,45.9682,-18.6434,-3.3874,-35.0099,-69.3654,-65.8357,-27.2961,67.4871,58.4061,20.6929,-46.1105,-31.2242,
-11.6126,63.5292,60.9682,-3.6434,11.6126,-20.0099,-54.3654,-80.8357,-12.2961,52.4871,43.4061,5.6929,-61.1105,-16.2242,
3.3874,78.5292,75.9682,11.3566,-3.3874,-12.9791,-41.1001,-65.8357,-23.7946,54.0802,44.3462,20.6929,-46.1105,-22.7132,
14.061,63.5292,60.9682,-3.6434,-18.3874,-27.9791,-56.1001,-50.8357,-38.7946,69.0802,59.3462,35.6929,-31.1105,-37.7132,
-0.93901,48.6718,45.9682,-9.7344,-18.3871,-42.9791,-71.1001,-35.8357,-23.7946,84.0802,74.3462,50.6929,-16.1105,-22.7132,
-15.939,63.6718,47.5907,5.2656,-3.3871,-40.0193,-60.5698,-50.8357,-8.7946,69.0802,59.3462,48.672,-31.1105,-7.7132,
-30.2847,58.4066,62.5907,-9.7344,11.6129,-43.2638,-54.0802,-65.8357,-7.5714,54.0802,44.3462,43.2638,-27.0406,7.2868,
-15.2847,51.9165,59.488,-11.8978,26.6129,-28.2638,-39.0802,-80.8357,7.4286,39.0802,29.3462,28.2638,-12.0406,-7.7132,
-22.7132,50.8352,44.488,-1.0813,11.8978,-13.2638,-24.0802,-95.8357,22.4286,24.0802,14.3462,25.9583,-17.3055,-4.3264,
-33.5297,58.4066,29.488,1.0813,-3.1022,-28.2638,-39.0802,-80.8357,7.4286,39.0802,29.3462,40.9583,-2.3055,-1.0813,
-25.9583,65.977,29.2033,0,-18.1022,-43.2638,-54.0802,-65.8357,-7.5714,54.0802,44.3462,55.9583,12.6945,0,
-10.9583,51.9171,37.8556,-15,-24.8769,-58.2638,-69.0802,-50.8357,-22.5714,69.0802,59.3462,54.0797,27.6945,-2.1632,
-25.9583,36.9171,35.1522,-22.1731,-9.8769,-43.2638,-54.0802,-65.8357,-7.5714,54.0802,44.3462,39.0797,12.6945,8.1126,
-40.9583,28.122,20.1522,-8.6528,5.1231,-28.2638,-39.0802,-80.8357,7.4286,39.0802,29.3462,24.0797,-2.3055,8.6528,
-29.2028,43.122,35.1522,6.3472,10.8159,-13.2638,-30.2852,-69.2226,-7.5714,32.4478,33.5302,19.4687,-17.3055,-6.3472,
-14.2028,28.122,35.1522,-8.6528,-4.1841,-28.2638,-45.2852,-54.2226,-22.5714,47.4478,48.5302,34.4687,-2.3055,-21.3472,
0.7972,13.122,20.1522,-23.6528,-19.1841,-43.2638,-60.2852,-39.2226,-37.5714,62.4478,63.5302,40.0195,12.6945,-36.3472,
-5.4082,28.122,35.1522,-8.6528,-4.1841,-28.2638,-45.2852,-54.2226,-22.5714,47.4478,48.5302,25.0195,-2.3055,-21.3472,
-20.4082,39.4781,20.1522,6.3472,10.8159,-13.2638,-30.2852,-69.2226,-7.5714,32.4478,33.5302,10.0195,-17.3055,-6.3472,
-35.4082,54.4781,29.744,7.0297,23.2539,-4.867,-18.9285,-84.2226,7.4286,17.4478,18.5302,4.867,-32.3055,8.6528,
-20.4082,39.4781,15.6835,-7.9703,8.2539,-19.867,-33.9285,-69.2226,-7.5714,32.4478,33.5302,19.867,-17.3055,-6.3472,
-5.4082,24.4781,9.1934,-22.9703,-6.7461,-34.867,-48.9285,-54.2226,-22.5714,47.4478,48.5302,34.867,-2.3055,-21.3472,
-2.7039,39.4781,24.1934,-7.9703,8.2539,-19.867,-37.3149,-69.2226,-37.5714,32.4478,33.5302,34.0709,-10.2753,-36.3472,
-17.7039,44.8858,9.1934,7.0297,23.2539,-4.867,-22.3149,-84.2226,-22.5714,17.4478,18.5302,19.0709,-25.2753,-21.3472,
-32.7039,50.8347,-5.4082,22.0297,22.7137,10.133,-7.3149,-99.2226,-7.5714,2.4478,3.5302,4.0709,-40.2753,-6.3472,
-17.7039,35.8347,8.1116,7.0297,7.7137,-4.867,-22.3149,-84.2226,-22.5714,17.4478,18.5302,19.0709,-25.2753,-21.3472,
-2.7039,20.8347,3.2448,-7.9703,-7.2863,-19.867,-37.3149,-69.2226,-37.5714,32.4478,33.5302,34.0709,-10.2753,-36.3472,
12.2961,35.8347,18.2448,-22.9703,-14.6011,-34.867,-52.3149,-54.2226,-22.5714,39.4781,43.8045,38.3967,4.7247,-47.0495,
-2.7039,44.3462,3.2448,-7.9703,0.39886,-19.867,-37.3149,-69.2226,-7.5714,24.4781,28.8045,23.3967,-10.2753,-32.0495,
-17.7039,59.3462,-1.6225,7.0297,13.5193,-4.867,-22.3149,-84.2226,7.4286,9.4781,13.8045,8.3967,-25.2753,-17.0495,
-17.3055,56.244,13.3775,-4.3264,-1.4807,-19.867,-37.3149,-69.2226,-7.5714,24.4781,28.8045,23.3967,-10.2753,-17.3055,
-2.3055,41.244,4.867,-19.3264,-16.4807,-34.867,-52.3149,-54.2226,-22.5714,39.4781,43.8045,38.3967,4.7247,-32.3055,
4.3264,26.244,19.867,-34.3264,-4.3264,-49.867,-67.3149,-48.672,-34.6115,54.4781,55.1616,25.9583,19.7247,-47.3055,
-10.6736,41.244,34.611,-19.3264,10.6736,-34.867,-52.3149,-63.672,-19.6115,39.4781,40.1616,10.9583,4.7247,-32.3055,
-25.6736,56.244,49.611,-4.3264,25.6736,-19.867,-37.3149,-78.672,-4.6115,24.4781,25.1616,11.3566,-10.2753,-17.3055,
-22.1726,61.11,34.611,-3.7857,10.6736,-30.8253,-39.4791,-63.672,-19.6115,13.5198,22.1726,26.3566,4.7247,-16.7648,
-7.1726,46.11,19.611,-18.7857,-4.3264,-45.8253,-54.4791,-48.672,-34.6115,28.5198,37.1726,41.3566,19.7247,-15.6835,
-22.1726,47.5909,5.408,-4.3261,-19.3264,-60.8253,-69.4791,-33.672,-19.6115,43.5198,52.1726,56.3566,34.7247,-0.68351,
-37.1726,62.5909,20.408,10.6739,-4.3264,-45.8253,-54.4791,-48.672,-4.6115,28.5198,37.1726,69.7638,19.7247,14.3165,
-28.1209,54.0802,32.4484,0,0,-35.6924,-57.3248,-63.672,-19.6115,17.3055,22.1726,63.8143,4.7247,18.3879,
-13.1209,52.9979,37.8561,1.0813,15,-20.6924,-42.3248,-78.672,-4.6115,2.3055,7.1726,48.8143,-10.2753,16.2242,
-28.1209,48.672,22.8561,2.1632,24.8774,-14.061,-27.3248,-93.672,10.3885,-12.6945,-7.8274,33.8143,-25.2753,24.8774,
-24.3363,49.2127,15.683,-2.7039,9.8774,-29.061,-42.3248,-78.672,-4.6115,2.3055,7.1726,48.8143,-10.2753,9.8774,
-9.3363,48.1313,26.4984,-11.3576,-5.1226,-44.061,-57.3248,-63.672,-19.6115,17.3055,22.1726,63.8143,4.7247,-5.1226,
-1.0819,34.6115,28.1215,-22.7137,-20.1226,-59.061,-72.3248,-48.672,-34.6115,32.3055,37.1726,78.8143,19.7247,-20.1226,
-16.0819,47.5912,28.122,-7.7137,-5.1226,-44.061,-57.3248,-63.672,-19.6115,17.3055,22.1726,63.8143,4.7247,-5.1226,
-31.0819,37.3154,13.122,7.2863,9.8774,-29.061,-42.3248,-78.672,-4.6115,2.3055,7.1726,48.8143,-10.2753,9.8774,
-45.9687,44.8863,9.1929,-2.7039,11.3566,-36.2336,-45.9687,-89.2325,-15.683,14.6017,3.7852,33.8143,-25.2753,2.7039,
-30.9687,29.8863,2.7039,-17.7039,-3.6434,-51.2336,-60.9687,-74.2325,-30.683,29.6017,18.7852,48.1313,-10.2753,-12.2961,
-15.9687,14.8863,-4.8673,-32.7039,-18.6434,-66.2336,-75.9687,-59.2325,-45.683,44.6017,33.7852,49.2129,4.7247,-27.2961,
-12.9786,29.8863,10.1327,-17.7039,-3.6434,-51.2336,-60.9687,-74.2325,-30.683,29.6017,18.7852,36.7752,-10.2753,-12.2961,
-27.9786,44.8863,-4.8673,-2.7039,11.3566,-36.2336,-45.9687,-89.2325,-15.683,14.6017,3.7852,21.7752,-25.2753,2.7039,
-42.9786,59.8863,-7.0302,12.2961,26.3566,-21.2336,-30.9687,-104.2325,-0.68299,-0.39834,-11.2148,14.6017,-40.2753,17.7039,
-27.9786,44.8863,-5.4077,-2.7039,11.3566,-36.2336,-45.9687,-89.2325,-15.683,14.6017,3.7852,29.6017,-25.2753,2.7039,
-12.9786,29.8863,-4.3264,-17.7039,-3.6434,-51.2336,-60.9687,-74.2325,-30.683,29.6017,18.7852,44.6017,-10.2753,-12.2961,
2.0214,44.8863,10.6736,-2.7039,11.3566,-36.2336,-45.9687,-77.8753,-45.683,14.6017,3.7852,50.8357,4.7247,-19.4687,
-12.9786,59.8863,-4.3264,12.2961,26.3566,-21.2336,-30.9687,-92.8753,-30.683,-0.39834,-11.2148,35.8357,-10.2753,-4.4687,
-27.9786,45.9682,-19.3264,27.2961,38.3967,-6.2336,-15.9687,-107.8753,-15.683,-15.3983,-26.2148,20.8357,-25.2753,10.5313,
-12.9786,34.0709,-15.683,12.2961,23.3967,-21.2336,-30.9687,-92.8753,-30.683,-0.39834,-11.2148,35.8357,-10.2753,-4.4687,
2.0214,19.0709,-11.8978,-2.7039,8.3967,-36.2336,-45.9687,-77.8753,-45.683,14.6017,3.7852,50.8357,4.7247,-19.4687,
10.8159,33.5292,-6.4896,-17.7039,9.7346,-51.2336,-60.9687,-62.8753,-60.683,22.7137,6.4896,43.2643,19.7247,-27.0401,
-4.1841,48.5292,-21.4896,-2.7039,24.7346,-36.2336,-45.9687,-77.8753,-45.683,7.7137,-8.5104,28.2643,4.7247,-12.0401,
-19.1841,63.5292,-34.6121,12.2961,39.7346,-21.2336,-30.9687,-92.8753,-30.683,-7.2863,-23.5104,13.2643,-10.2753,2.9599,
-16.7643,58.9478,-19.6121,-2.7039,24.7346,-21.0907,-45.9687,-77.8753,-45.683,7.7137,-8.5104,28.2643,4.7247,1.6225,
-1.7643,43.9478,-15.6833,-17.7039,9.7346,-36.0907,-60.9687,-62.8753,-60.683,22.7137,6.4896,43.2643,19.7247,-13.3775,
-7.5719,49.7534,-16.2247,-2.7039,2.1632,-44.3462,-72.4676,-47.8753,-69.2226,33.5292,16.2237,46.5083,14.061,1.6225,
-22.5719,64.7534,-8.1121,12.2961,17.1632,-29.3462,-57.4676,-62.8753,-54.2226,18.5292,1.2237,31.5083,-0.93901,16.6225,
-37.5719,75.1715,-0.54067,16.7648,31.9067,-14.3462,-42.4676,-77.8753,-39.2226,3.5292,-13.7763,16.5083,-15.939,31.6225,
-22.5719,64.8957,3.245,1.7648,33.5297,-6.4901,-27.4676,-62.8753,-24.2226,12.9791,-17.3055,31.5083,-5.4077,20.5506,
-7.5719,49.8957,-11.755,-13.2352,18.5297,-21.4901,-42.4676,-47.8753,-39.2226,27.9791,-2.3055,46.5083,5.4077,6.4891,
-17.8467,53.5391,-18.928,-0.54118,11.3566,-35.1522,-57.4676,-32.8753,-50.2945,42.9791,12.6945,53.5391,0.54118,11.3566,
-21.0907,68.5391,-3.928,14.4588,26.3566,-20.1522,-42.4676,-47.8753,-35.2945,27.9791,-2.3055,63.2742,-14.4588,26.3566,
-16.2237,73.549,-1.0819,22.7137,31.3665,-5.1522,-33.5292,-57.3248,-50.2945,17.306,-15.1423,70.3039,-29.4588,22.7137,
-17.8467,58.549,-0.54118,14.6017,46.3665,9.8478,-18.5292,-72.3248,-35.2945,2.306,-30.1423,55.3039,-44.4588,37.7137,
-32.8467,50.2945,-15.5412,12.4385,31.9067,20.0099,-3.5292,-87.3248,-20.2945,-12.694,-45.1423,40.3039,-59.4588,51.3759,
-17.8467,65.2945,-5.9484,-2.5615,32.989,11.3571,-18.5292,-72.3248,-35.2945,2.306,-30.1423,27.5813,-44.4588,36.3759,
-2.8467,63.8143,-3.245,-17.5615,25.9583,-3.6429,-33.5292,-57.3248,-50.2945,17.306,-15.1423,42.5813,-29.4588,21.3759,
1.0816,63.8151,-4.3261,-17.3053,10.9583,-18.6429,-48.5292,-42.3248,-65.2945,32.306,-0.14233,57.5813,-14.4588,6.3759,
-13.9184,63.2737,-12.4385,-2.3053,1.622,-3.6429,-33.5292,-57.3248,-50.2945,17.306,-15.1423,48.1308,-29.4588,21.3759,
-28.9184,48.2737,-27.4385,12.4385,15.6835,11.3571,-18.5292,-72.3248,-35.2945,2.306,-30.1423,33.1308,-44.4588,36.3759,
-43.9184,36.7747,-22.7132,6.4901,30.6835,4.3264,-4.3264,-87.3248,-20.2945,4.3264,-25.9583,48.1308,-59.4588,38.9374,
-28.9184,37.8556,-7.7132,-8.5099,15.6835,-10.6736,-19.3264,-72.3248,-35.2945,19.3264,-10.9583,63.1308,-44.4588,23.9374,
-13.9184,22.8556,-18.3874,-23.5099,0.68351,-25.6736,-34.3264,-57.3248,-50.2945,34.3264,4.0417,78.1308,-29.4588,8.9374,
-28.9184,37.8556,-8.6533,-8.5099,15.6835,-10.6736,-19.3264,-72.3248,-35.2945,19.3264,-10.9583,63.1308,-44.4588,-1.0819,
-43.9184,52.8556,-23.6533,6.4901,30.6835,4.3264,-4.3264,-87.3248,-20.2945,4.3264,-25.9583,48.1308,-59.4588,13.9181,
-58.9184,65.4369,-38.6533,21.4901,45.6835,19.3264,10.6736,-102.3248,-17.8467,-10.6736,-40.9583,33.1308,-74.4588,28.9181,
-43.9184,50.4369,-23.6533,6.4901,30.6835,4.3264,-4.3264,-87.3248,-32.8467,4.3264,-25.9583,48.1308,-59.4588,13.9181,
-28.9184,35.4369,-8.6533,-8.5099,15.6835,-10.6736,-19.3264,-72.3248,-47.8467,19.3264,-10.9583,63.1308,-44.4588,-1.0819,
-13.9184,50.4369,5.4077,1.0813,30.6835,2.1637,-8.6528,-65.978,-36.7747,4.3264,-25.9583,49.7539,-29.4588,13.9181,
-28.9184,50.8352,-9.5923,16.0813,45.6835,17.1637,6.3472,-80.978,-21.7747,-10.6736,-40.9583,34.7539,-44.4588,28.9181,
-43.9184,60.5698,-24.5923,31.0813,50.8357,32.1637,21.3472,-95.978,-6.7747,-25.6736,-55.9583,19.7539,-59.4588,43.9181,
-28.9184,47.5912,-9.5923,16.0813,35.8357,17.1637,6.3472,-80.978,-21.7747,-10.6736,-40.9583,34.7539,-44.4588,28.9181,
-13.9184,32.5912,-9.1934,1.0813,20.8357,2.1637,-8.6528,-65.978,-36.7747,4.3264,-25.9583,49.7539,-29.4588,13.9181,
1.0816,36.2341,-9.1934,-13.9187,26.4989,-12.8363,-23.6528,-50.978,-51.7747,17.8462,-10.9583,54.6209,-14.4588,17.8462,
-13.9184,51.2341,-24.1934,1.0813,41.4989,2.1637,-8.6528,-65.978,-36.7747,2.8462,-25.9583,39.6209,-29.4588,32.8462,
-28.9184,66.2341,-11.8973,16.0813,56.4989,17.1637,6.3472,-80.978,-21.7747,-12.1538,-40.9583,24.6209,-44.4588,47.8462,
-13.9184,51.9176,-16.2242,1.0813,41.4989,2.1637,-8.6528,-65.978,-36.7747,2.8462,-25.9583,39.6209,-29.4588,32.8462,
1.0816,36.9176,-31.2242,-13.9187,26.4989,-12.8363,-23.6528,-50.978,-51.7747,17.8462,-10.9583,54.6209,-14.4588,17.8462,
-10.2758,51.9176,-17.8462,0.54067,15.6835,-27.8363,-38.6528,-35.978,-66.7747,32.8462,4.0417,61.11,-29.4588,22.1726,
-25.2758,66.9176,-2.8462,15.5407,30.6835,-12.8363,-23.6528,-50.978,-51.7747,17.8462,-10.9583,46.11,-44.4588,37.1726,
-40.2758,81.9176,8.6528,30.5407,36.7747,2.1637,-8.6528,-65.978,-50.8352,2.8462,-25.9583,44.3462,-59.4588,52.1726,
-25.2758,66.9176,-1.622,15.5407,36.2341,3.7857,2.7044,-65.4374,-38.3967,-12.1538,-18.9286,53.5396,-69.7638,48.1308,
-10.2758,64.8967,-7.5714,0.54067,32.4484,-11.2143,-8.6528,-50.4374,-41.1001,2.8462,-3.9286,68.5396,-54.7638,49.7539,
-25.2758,53.5396,-18.9275,-0.54067,17.4484,-26.2143,-23.6528,-35.4374,-56.1001,17.8462,11.0714,53.5396,-63.2737,34.7539,
-36.7747,68.5396,-3.9275,14.4593,28.122,-11.2143,-19.4692,-37.8561,-71.1001,2.8462,-3.9286,58.4066,-78.2737,23.7956,
-27.0406,53.5396,-4.3264,20.5506,13.122,3.7857,-34.4692,-35.6934,-80.0385,17.8462,0,73.4066,-84.3649,21.6319,
-34.0704,44.8868,-17.8462,28.6626,16.7648,18.7857,-19.4692,-50.6934,-65.0385,2.8462,-15,58.4066,-99.3649,36.6319,
-28.122,59.8868,-6.4901,43.6626,31.7648,23.7946,-4.4692,-65.6934,-50.0385,-12.1538,-30,43.4066,-101.6714,51.6319,
-17.8467,66.5182,-5.9489,28.6626,27.5808,8.7946,-19.4692,-50.6934,-65.0385,2.8462,-15,28.4066,-86.6714,36.6319,
-2.8467,51.5182,-3.7857,13.6626,12.5808,-6.2054,-34.4692,-35.6934,-80.0385,17.8462,0,43.4066,-71.6714,21.6319,
8.1123,52.4575,-4.8673,-1.3374,0.54093,-21.2054,-49.4692,-20.6934,-95.0385,32.8462,15,58.4066,-56.6714,6.6319,
-6.8877,67.4575,-8.6528,13.6626,15.5409,-6.2054,-34.4692,-35.6934,-80.0385,17.8462,0,43.4066,-71.6714,21.6319,
-21.8877,82.4575,-15.1423,28.6626,30.5409,8.7946,-19.4692,-50.6934,-65.0385,2.8462,-15,28.4066,-86.6714,36.6319,
-36.8877,69.7627,-8.1121,41.6418,45.5409,9.1934,-4.4692,-58.9473,-77.3347,-11.3571,-16.7648,43.4066,-101.6714,51.6319,
-21.8877,54.7627,-23.1121,26.6418,30.5409,-5.8066,-19.4692,-43.9473,-92.3347,3.6429,-1.7648,58.4066,-86.6714,36.6319,
-6.8877,39.7627,-22.7137,11.6418,15.5409,-20.8066,-34.4692,-28.9473,-107.3347,18.6429,13.2352,73.4066,-71.6714,21.6319,
-21.6319,43.2638,-7.7137,11.8978,14.0605,-5.8066,-19.4692,-43.9473,-92.3347,3.6429,-1.7648,58.4066,-86.6714,6.6319,
-36.6319,58.2638,2.1632,26.8978,29.0605,9.1934,-4.4692,-58.9473,-77.3347,-11.3571,-16.7648,43.4066,-101.6714,21.6319,
-51.6319,73.2638,-12.8368,41.8978,40.5599,24.1934,10.5308,-73.9473,-89.2325,-26.3571,-31.7648,30.8258,-116.6714,36.6319,
-36.6319,61.6517,-8.6528,26.8978,25.5599,9.1934,-4.4692,-58.9473,-104.2325,-11.3571,-16.7648,45.8258,-101.6714,21.6319,
-21.6319,46.6517,-23.6528,11.8978,10.5599,-5.8066,-19.4692,-43.9473,-119.2325,3.6429,-1.7648,60.8258,-86.6714,6.6319,
-6.6319,60.5698,-10.8159,4.3269,25.5599,2.1632,-4.4692,-37.8556,-134.2325,-11.3571,-16.7648,48.672,-71.6714,21.6319,
-21.6319,75.5698,2.7039,19.3269,40.5599,17.1632,10.5308,-52.8556,-119.2325,-26.3571,-31.7648,33.672,-86.6714,36.6319,
-36.6319,85.9874,-7.0302,34.3269,52.4577,32.1632,25.5308,-67.8556,-119.5171,-41.3571,-46.7648,18.672,-101.6714,51.6319,
-21.6319,70.9874,-22.0302,19.3269,37.4577,17.1632,10.5308,-52.8556,-134.5171,-26.3571,-31.7648,33.672,-86.6714,36.6319,
-6.6319,55.9874,-37.0302,4.3269,22.4577,2.1632,-4.4692,-37.8556,-149.5171,-11.3571,-16.7648,48.672,-71.6714,21.6319,
-21.6319,42.1824,-22.0302,16.2242,7.4577,-12.8368,-19.4692,-22.8556,-164.5171,3.6429,-2.1637,50.8352,-56.6714,17.3055,
-36.6319,52.4582,-7.0302,31.2242,22.4577,2.1632,-4.4692,-37.8556,-149.5171,-11.3571,-17.1637,35.8352,-71.6714,32.3055,
-51.6319,57.3253,-1.0813,32.4484,36.7747,17.1632,8.6528,-52.8556,-164.5171,-26.3571,-32.1637,20.8352,-86.6714,47.3055,
-36.6319,43.2643,-7.5719,17.4484,21.7747,2.1632,-5.4082,-37.8556,-179.5171,-11.3571,-17.1637,12.9786,-76.794,32.3055,
-21.6319,49.2132,-0.54067,7.0308,6.7747,-12.8368,-20.4082,-22.8556,-194.5171,3.6429,-2.1637,27.9786,-61.794,17.3055,
-20.55,63.8149,12.9797,22.0308,-8.2253,-27.8368,-34.6115,-7.8556,-209.5171,18.6429,-17.1637,32.4478,-73.549,9.7346,
-31.3665,76.793,17.305,37.0308,6.7747,-12.8368,-19.6115,-22.8556,-206.5864,3.6429,-32.1637,17.4478,-88.549,24.7346,
-27.0401,61.793,2.305,47.5907,12.9786,1.0819,-4.6115,-37.8556,-221.5864,-11.3571,-47.1637,7.5709,-103.549,21.6314,
-12.0401,61.1105,1.6225,50.294,27.9786,-1.6225,10.3885,-31.9072,-206.5864,-26.3571,-62.1637,22.5709,-88.549,36.6314,
-18.3879,72.4671,4.3264,51.9165,34.611,-16.6225,-4.3264,-16.9072,-191.5864,-17.3065,-77.1637,27.0396,-73.5495,51.6314,
-33.3879,57.866,8.1121,36.9165,20.0099,-23.2539,-19.3264,-1.9072,-206.5864,-2.3065,-82.7424,12.0396,-88.5495,36.6314,
-36.7752,64.8952,2.1632,30.2841,15.1423,-8.2539,-4.3264,-2.1632,-221.5864,-17.3065,-97.7424,11.8973,-103.5495,21.6314,
-27.5813,78.4155,-4.867,45.2841,4.867,-13.5198,-9.1934,12.8368,-236.5864,-2.3065,-103.2934,26.8973,-88.5495,21.0912,
-42.1819,71.3863,-2.1632,60.2841,19.867,1.4802,2.1632,-2.1632,-228.2178,-17.3065,-118.2934,16.2237,-97.3435,36.0912,
-38.9379,78.9567,9.7346,75.2841,34.867,16.4802,17.1632,-17.1632,-213.2178,-32.3065,-133.2934,1.2237,-112.3435,51.0912,
-25.4181,70.8446,7.0302,60.2841,26.4995,1.4802,2.1632,-2.1632,-228.2178,-24.3358,-132.4962,-1.6225,-100.0479,36.2336,
-10.4181,56.7836,-0.54067,45.2841,11.4995,-13.5198,-12.8368,12.8368,-243.2178,-9.3358,-117.4962,13.3775,-85.0479,21.2336,
2.1632,47.5907,-2.1632,30.2841,-3.5005,-28.5198,-27.8368,27.8368,-258.2178,5.6642,-102.4962,28.3775,-70.0479,18.3874,
-12.8368,62.5907,12.8368,45.2841,11.4995,-13.5198,-12.8368,12.8368,-273.1046,-9.3358,-117.4962,13.3775,-85.0479,33.3874,
-27.8368,77.5907,27.8368,60.2841,26.4995,1.4802,2.1632,-2.1632,-269.8595,-24.3358,-132.4962,-1.6225,-100.0479,48.3874,
-25.4181,68.6819,12.8368,74.0896,11.4995,-2.7039,17.1632,-17.1632,-284.8595,-39.3358,-147.4962,5.9489,-115.0479,33.3874,
-10.4181,65.4369,-1.6225,59.0896,-3.5005,-17.7039,2.1632,-2.1632,-299.8595,-24.3358,-132.4962,20.9489,-100.0479,29.7435,
2.1632,63.8149,-16.2237,49.7534,-18.5005,-32.7039,-12.8368,12.8368,-314.8595,-9.3358,-117.4962,8.6528,-85.0479,14.7435,
-8.6522,78.8149,-1.2237,64.7534,-3.5005,-17.7039,2.1632,-2.1632,-316.909,-24.3358,-132.4962,-6.3472,-71.3852,8.6533,
-23.6522,93.8149,13.7763,79.7534,11.4995,-2.7039,17.1632,-17.1632,-301.909,-39.3358,-147.4962,-21.3472,-86.3852,23.6533,
-13.5198,108.8149,28.7763,94.7534,26.4995,12.2961,32.1632,-32.1632,-306.6338,-54.3358,-162.4962,-12.4385,-101.3852,38.6533,
1.4802,93.8149,13.7763,88.6908,11.4995,-2.7039,17.1632,-17.1632,-321.6338,-39.3358,-147.4962,2.5615,-86.3852,23.6533,
4.8673,78.8149,-1.2237,73.6908,-3.5005,-17.7039,2.1632,-2.1632,-336.6338,-24.3358,-132.4962,4.8673,-71.3852,8.6533,
-6.4896,78.9567,5.4082,68.1412,11.4995,-2.7039,17.1632,12.8368,-351.6338,-39.3358,-147.4962,-10.1327,-56.3852,1.0819,
-21.4896,93.9567,20.4082,83.1412,26.4995,12.2961,32.1632,-2.1632,-336.6338,-54.3358,-162.4962,-25.1327,-71.3852,16.0819,
-29.744,88.1506,29.744,98.1412,41.4995,27.2961,47.1632,-17.1632,-351.6338,-69.3358,-177.4962,-40.1327,-86.3852,31.0819,
-17.8462,73.1506,14.744,83.1412,26.4995,12.2961,62.1632,-2.1632,-366.6338,-54.3358,-162.4962,-54.6209,-73.0078,16.0819,
-8.6522,81.1204,3.2445,68.1412,11.4995,-2.7039,47.1632,12.8368,-381.6338,-39.3358,-147.4962,-39.6209,-58.0078,1.0819,
-18.928,88.1501,18.2445,83.1412,21.0907,-17.7039,42.7236,27.8368,-366.6338,-54.3358,-162.4962,-24.6209,-62.1918,13.5203,
-26.4995,93.5578,26.4995,98.1412,36.0907,-2.7039,57.7236,12.8368,-351.6338,-69.3358,-177.4962,-39.6209,-77.1918,28.5203,
-18.3874,84.3644,18.3874,113.1412,34.6115,12.2961,72.7236,-2.1632,-366.6338,-84.3358,-192.4962,-54.6209,-92.1918,43.5203,
-21.6319,69.3644,18.3869,99.5067,49.6115,-2.7039,87.7236,12.8368,-381.6338,-99.3358,-207.4962,-60.5703,-77.1918,28.5203,
-23.2539,61.111,25.4176,84.5067,37.3154,-17.7039,72.7236,27.8368,-396.6338,-84.3358,-192.4962,-45.9682,-62.1918,20.0099,
-9.7346,76.111,40.4176,99.5067,22.3154,-19.4687,64.8962,42.8368,-411.6338,-69.3358,-207.4962,-52.9984,-64.8962,9.7346,
-17.8462,91.111,55.4176,114.5067,37.3154,-4.4687,79.8962,27.8368,-426.6338,-84.3358,-222.4962,-65.4363,-79.8962,17.8462,
-22.1726,104.3748,55.7023,129.5067,52.3154,10.5313,94.8962,12.8368,-434.263,-99.3358,-237.4962,-50.4363,-77.3341,32.8462,
-24.8769,99.5067,42.1824,141.6892,55.1616,-4.3264,102.7518,4.3264,-419.263,-114.3358,-252.4962,-52.9989,-73.5495,47.8462,
-29.744,84.9056,27.1824,138.9858,40.1616,-16.7648,87.7518,19.3264,-404.263,-129.3358,-267.4962,-55.7023,-81.6616,62.8462,
-35.6924,69.9056,22.7132,123.9858,25.1616,-8.6528,87.6099,34.3264,-419.263,-114.3358,-271.4821,-63.8143,-71.3858,47.8462,
-31.3665,65.9775,37.7132,110.3237,40.1616,6.3472,102.6099,49.3264,-434.263,-100.5886,-277.9716,-48.8143,-56.3858,32.8462,
-35.1517,76.2528,40.5604,118.4353,41.6418,-8.6528,90.3143,64.3264,-449.263,-85.5886,-275.2673,-56.7836,-41.3858,26.4989,
-47.5907,87.6094,34.6115,133.4353,33.5292,6.3472,105.3143,49.3264,-434.263,-100.5886,-290.2673,-71.7836,-56.3858,41.4989,
-45.427,102.6094,45.427,148.4353,48.5292,21.3472,120.3143,34.3264,-419.263,-115.5886,-305.2673,-69.2226,-71.3858,56.4989,
-48.6725,87.6094,30.427,138.4451,33.5292,9.7341,127.6287,19.3264,-434.263,-130.5886,-320.2673,-74.6308,-86.3858,41.4989,
-33.6725,72.6094,15.683,123.4451,27.5808,-5.2659,112.6287,34.3264,-449.263,-115.5886,-305.2673,-59.6308,-71.3858,27.5808,
-43.2638,65.978,1.0813,124.3836,12.5808,-20.2659,97.6287,49.3264,-464.263,-100.5886,-290.2673,-64.8957,-56.3858,21.6319,
-36.7742,80.978,16.0813,139.3836,27.5808,-5.2659,112.6287,34.3264,-449.263,-115.5886,-305.2673,-79.8957,-71.3858,15.1423,
-40.5599,95.978,31.0813,154.3836,42.5808,9.7341,127.6287,19.3264,-434.263,-130.5886,-320.2673,-94.8957,-86.3858,30.1423,
-35.6929,88.6908,32.4478,147.0974,43.2633,14.061,142.6287,4.3264,-449.263,-145.5886,-335.2673,-97.3446,-82.2017,24.8764,
-20.6929,81.661,17.4478,138.9853,28.2633,-0.93901,127.6287,19.3264,-464.263,-130.5886,-320.2673,-82.3446,-67.2017,11.3566,
-15.1423,96.661,15.1423,136.282,13.2633,-15.939,112.6287,34.3264,-479.263,-115.5886,-305.2673,-67.3446,-52.2017,-3.6434,
-30.1423,97.344,30.1423,146.0166,28.2633,-0.93901,127.6287,19.3264,-494.263,-130.5886,-320.2673,-82.3446,-67.2017,-16.2242,
-44.3456,85.4468,44.3456,161.0166,43.2633,14.061,142.6287,4.3264,-479.263,-145.5886,-335.2673,-97.3446,-82.2017,-1.2242,
-29.3456,83.8237,43.805,172.515,58.2633,29.061,157.6287,-10.6736,-471.0372,-160.5886,-350.2673,-112.3446,-97.2017,13.7758,
-27.5808,91.3951,30.8248,157.515,44.8863,27.5808,142.6287,4.3264,-486.0372,-145.5886,-335.2673,-127.0885,-82.2017,-1.2242,
-22.1731,80.5787,15.8248,142.515,44.8863,12.5808,127.6287,19.3264,-501.0372,-130.5886,-320.2673,-113.0275,-67.2017,-16.2242,
-16.7648,77.3341,16.7648,127.515,59.8863,17.8462,142.6287,34.3264,-516.0372,-145.5886,-335.2673,-128.0275,-73.0088,-23.2549,
-29.744,92.3341,29.744,142.515,74.8863,32.8462,157.6287,19.3264,-501.0372,-160.5886,-350.2673,-143.0275,-88.0088,-8.2549,
-14.744,97.8852,28.6621,157.515,89.8863,47.8462,172.6287,4.3264,-516.0372,-175.5886,-365.2673,-158.0275,-103.0088,6.7451,
-3.2445,82.8852,13.6621,142.515,102.7523,38.9379,169.8117,19.3264,-531.0372,-160.5886,-350.2673,-161.1579,-88.0088,-8.2549,
2.7039,94.6402,24.3358,127.515,106.538,23.9379,154.8117,34.3264,-546.0372,-145.5886,-335.2673,-146.1579,-73.0088,-15.683,
-6.4896,97.3435,39.3358,142.515,91.538,8.9379,148.1787,49.3264,-531.0372,-160.5886,-350.2673,-147.0984,-58.0088,-9.7346,
-5.9489,112.3435,53.5391,157.515,95.7215,23.9379,163.1787,34.3264,-516.0372,-175.5886,-365.2673,-160.6182,-73.0088,5.2654,
-6.4896,127.3435,44.3456,172.515,110.7215,38.9379,178.1787,19.3264,-522.4136,-190.5886,-380.2673,-145.6182,-72.4676,6.4896,
-21.4896,112.3435,29.3456,158.9947,95.7215,23.9379,163.1787,34.3264,-507.4136,-205.5886,-395.2673,-149.2616,-70.3044,0,
-11.3571,97.3435,14.3456,164.9441,80.7215,8.9379,148.1787,49.3264,-521.8729,-190.5886,-380.2673,-134.2616,-55.7023,15,
-20.0099,82.3435,20.0099,163.8627,65.7215,21.0912,163.1787,64.3264,-536.8729,-194.1474,-390.9992,-149.2616,-61.111,0,
-21.0917,97.3435,35.0099,178.8627,80.7215,36.0912,178.1787,49.3264,-549.9944,-209.1474,-405.9992,-164.2616,-62.1929,-11.3566,
-36.0917,82.3435,20.0099,185.4946,71.9264,21.0912,166.0254,39.4781,-534.9944,-224.1474,-420.9992,-177.9232,-77.1929,-11.3571,
-50.8357,71.3852,6.4896,186.0358,56.9264,10.8159,156.8325,36.7742,-519.9944,-239.1474,-435.9992,-183.8721,-92.1929,-6.4896,
-49.2127,69.7632,-4.8676,201.0358,41.9264,25.8159,171.8325,32.9885,-534.9944,-254.1474,-450.9992,-186.5765,-107.1929,4.8676,
-34.2127,71.9269,5.9489,186.0358,56.9264,37.3149,186.8325,47.9885,-538.0966,-239.1474,-435.9992,-171.5765,-92.1929,-5.9489,
-35.1517,67.6001,2.7044,171.0358,71.9264,37.3154,201.8325,62.9885,-523.0966,-224.1474,-420.9992,-156.5765,-77.1929,-2.7044,
-37.8561,60.5703,0,157.9144,69.2231,22.3154,186.8325,77.9885,-538.0966,-209.1474,-405.9992,-164.4034,-62.1929,0,
-41.1006,75.5703,15,172.9144,76.794,37.3154,201.8325,62.9885,-523.0966,-224.1474,-420.9992,-179.4034,-77.1929,-11.8973,
-26.4995,90.5703,30,187.9144,91.794,52.3154,216.8325,47.9885,-508.0966,-239.1474,-435.9992,-175.7611,-90.3138,3.1027,
-36.2336,75.5703,15,172.9144,81.661,37.3154,212.5348,62.9885,-516.4647,-226.5958,-446.1608,-160.7611,-75.3138,-1.6225,
-21.2336,73.0083,0,175.76,66.661,22.3154,197.5348,77.9885,-531.4647,-211.5958,-431.1608,-145.7611,-60.3138,13.3775,
-36.2336,75.7127,-6.4896,188.1985,51.661,7.3154,182.5348,92.9885,-531.0658,-196.5958,-416.1608,-130.7611,-45.3138,2.1632,
-38.9374,74.6308,8.5104,195.7694,66.661,22.3154,197.5348,77.9885,-516.0658,-211.5958,-431.1608,-145.7611,-43.2638,-12.8368,
-30.8253,89.6308,23.5104,203.8815,81.661,37.3154,212.5348,62.9885,-501.0658,-226.5958,-446.1608,-147.6386,-58.2638,2.1632,
-45.8253,74.6308,8.5104,188.8815,80.039,22.3154,201.1776,47.9885,-486.0658,-241.5958,-461.1608,-162.6386,-49.7534,-3.2445,
-30.8253,76.794,10.8159,173.8815,65.039,7.3154,186.1776,62.9885,-500.7812,-226.5958,-446.1608,-147.6386,-34.7534,-14.061,
-28.6626,61.794,-4.1841,158.8815,50.039,-7.6846,171.1776,77.9885,-507.8119,-211.5958,-431.1608,-132.6386,-19.7534,-29.061,
-32.4478,46.794,2.1632,143.8815,65.039,7.3154,186.1776,84.3644,-492.8119,-220.6469,-416.1608,-126.5479,-4.7534,-14.061,
-25.9583,61.794,17.1632,158.8815,80.039,22.3154,201.1776,69.3644,-477.8119,-235.6469,-431.1608,-139.5265,-19.7534,0.93901,
-27.5813,66.5187,10.2748,173.8815,95.039,37.3154,216.1776,54.3644,-462.8119,-250.6469,-446.1608,-154.5265,-34.7534,15.939,
-39.4786,51.5187,-4.7252,158.8815,89.2325,22.3154,203.882,69.3644,-477.8119,-235.6469,-431.1608,-160.6177,-19.7534,0.93901,
-37.3151,36.5187,-17.8464,143.8815,74.2325,7.3154,188.882,84.3644,-492.8119,-220.6469,-416.1608,-145.6177,-4.7534,-14.061,
-23.7951,47.5907,-2.8464,158.8815,88.6908,-7.6846,195.7699,99.3644,-477.8119,-205.6469,-401.1608,-147.0979,10.2466,0.93901,
-22.1731,62.5907,12.1536,173.8815,103.6908,7.3154,210.7699,84.3644,-462.8119,-220.6469,-416.1608,-134.66,-4.7534,15.939,
-16.7654,77.5907,13.5203,188.8815,118.6908,22.3154,225.7699,69.3644,-447.8119,-235.6469,-431.1608,-128.1699,-19.7534,30.939,
-5.4082,62.5907,-1.4797,173.8815,114.6501,7.3154,211.9941,84.3644,-432.8119,-220.6469,-416.1608,-115.7314,-4.7534,15.939,
-14.061,47.5907,-16.4797,158.8815,99.6501,-7.6846,196.9941,99.3644,-417.8119,-205.6469,-401.1608,-116.8127,10.2466,4.3264,
-5.9489,56.7841,-1.4797,173.8815,84.9051,-4.8676,194.1469,114.3644,-402.8119,-190.6469,-386.1608,-131.8127,16.7643,-1.6225,
-17.8462,71.7841,13.5203,188.8815,99.9051,10.1324,209.1469,99.3644,-387.8119,-205.6469,-401.1608,-146.8127,1.7643,7.0308,
-32.8462,56.7841,3.2445,173.8815,114.9051,18.3874,224.1469,84.3644,-372.8119,-220.6469,-416.1608,-161.8127,-13.2357,-3.2445,
-24.8769,48.6715,-8.6528,175.2189,99.9051,3.3874,209.1469,99.3644,-357.8119,-205.6469,-401.1608,-146.8127,1.7643,11.7555,
-9.8769,35.1517,-23.6528,184.4133,84.9051,-11.6126,194.1469,114.3644,-371.53,-190.6469,-386.1608,-131.8127,9.1934,26.7555,
-11.3571,25.4176,-25.4176,169.4133,96.8034,3.3874,209.1469,127.088,-386.53,-175.6469,-371.1608,-146.8127,12.4385,11.7555,
-15.1418,37.8561,-10.4176,154.4133,111.8034,18.3874,224.1469,112.088,-371.53,-190.6469,-386.1608,-161.8127,4.3264,-3.2445,
-17.8462,25.4176,-17.8462,149.8023,96.8034,3.7857,209.1469,127.088,-356.53,-205.6469,-393.1618,-176.8127,-0.54067,0.54067,
-9.1939,40.4176,-10.2753,164.8023,108.7006,18.7857,217.9425,112.088,-341.53,-220.6469,-408.1618,-163.8622,-5.9489,5.9489,
-1.622,55.4176,-0.54067,179.8023,116.2726,33.7857,232.9425,97.088,-326.53,-230.9221,-409.386,-148.8622,-9.1934,0.54067,
-7.0308,40.4176,-13.5198,164.8023,108.7012,18.7857,233.0848,112.088,-311.53,-215.9221,-394.386,-133.8622,5.8066,-14.4593,
-22.0308,25.4176,-26.4995,149.8023,123.7012,3.7857,218.0848,127.088,-296.53,-200.9221,-379.386,-133.5781,20.8066,-1.6225,
-18.928,38.3962,-16.7654,164.8023,114.1084,5.9489,207.126,142.088,-308.7975,-185.9221,-364.386,-130.3331,35.8066,-5.9489,
-11.8973,53.3962,-1.7654,166.5666,122.2215,20.9489,222.126,127.088,-293.7975,-200.9221,-379.386,-145.3331,20.8066,-20.9489,
-11.3566,68.3962,11.3566,156.2918,137.2215,35.9489,237.126,112.088,-278.7975,-215.9221,-394.386,-160.3331,5.8066,-12.438,
-4.867,57.866,-3.6434,154.1287,129.2517,20.9489,222.126,127.088,-263.7975,-200.9221,-379.386,-145.3331,20.8066,0.54067,
-2.7039,65.4369,-18.6434,162.7809,114.2517,5.9489,207.126,142.088,-257.9623,-185.9221,-364.386,-130.3331,35.8066,2.7039,
-4.867,68.6819,-12.4385,147.7809,99.2517,-9.0511,192.126,157.088,-272.9623,-170.9221,-349.386,-115.3331,50.8066,-12.2961,
-12.439,53.6819,-1.6225,135.7413,114.2517,5.9489,207.126,142.088,-257.9623,-185.9221,-364.386,-130.3331,35.8066,-27.2961,
-4.3264,41.1011,4.3264,150.7413,129.2517,20.9489,222.126,127.088,-242.9623,-200.9221,-379.386,-145.3331,20.8066,-12.2961,
0,42.1824,-4.3264,146.0166,114.2517,5.9489,210.9122,112.088,-257.9623,-215.9221,-381.8052,-149.2606,11.8978,0,
2.1632,48.672,-2.1632,136.282,99.2517,-9.0511,195.9122,127.088,-272.9623,-200.9221,-366.8052,-134.2606,26.8978,-15,
-12.8368,33.672,-17.1632,121.282,84.2517,-24.0511,180.9122,142.088,-287.9623,-185.9221,-351.8052,-119.2606,41.8978,-30,
0.54067,32.989,-15.6835,133.5781,99.2517,-10.2748,195.9122,148.7199,-272.9623,-172.5155,-336.8052,-106.5375,26.8978,-15,
1.6225,47.989,-1.6225,148.5781,114.2517,4.7252,210.9122,133.7199,-257.9623,-187.5155,-351.8052,-118.4358,11.8978,0,
-10.8159,44.3456,-14.06,163.5781,122.2215,19.7252,225.9122,118.7199,-242.9623,-202.5155,-366.8052,-133.4358,-3.1022,10.8159,
4.1841,32.9885,-16.7648,148.5781,118.4358,4.7252,210.9122,133.7199,-227.9623,-187.5155,-351.8052,-118.4358,11.8978,-4.1841,
-2.1632,17.9885,-31.7648,133.5781,103.4358,-10.2748,195.9122,148.7199,-242.9623,-172.5155,-336.8052,-103.4358,26.8978,-19.1841,
9.1934,32.9885,-16.7648,129.2507,88.4358,-25.2748,180.9122,163.7199,-227.9623,-157.5155,-321.8052,-111.9462,39.4781,-11.3571,
-5.8066,47.9885,-1.7648,144.2507,103.4358,-10.2748,195.9122,148.7199,-212.9623,-172.5155,-336.8052,-112.4869,24.4781,3.6429,
-20.8066,62.9885,-16.7648,139.5265,118.4358,4.7252,210.9122,133.7199,-197.9623,-187.5155,-351.8052,-98.4254,9.4781,5.4077,
-12.438,47.9885,-31.7648,124.5265,122.7622,-10.2748,197.3919,148.7199,-182.9623,-172.5155,-336.8052,-83.4254,24.4781,12.438,
-23.7953,32.9885,-46.7648,109.5265,107.7622,-25.2748,182.3919,163.7199,-197.9623,-157.5155,-321.8052,-70.3042,39.4781,14.0607,
-8.7953,28.1215,-31.7648,111.405,92.7622,-10.2748,177.382,176.3007,-182.9623,-142.5155,-306.8052,-85.3042,54.4781,-0.93927,
-10.2753,41.6413,-16.7648,126.405,107.7622,4.7252,192.382,161.3007,-167.9623,-157.5155,-321.8052,-100.3042,39.4781,-10.2753,
-14.6017,29.7445,-15.683,126.0062,119.5171,15.683,201.7183,146.3007,-152.9623,-172.5155,-315.287,-103.2929,24.4781,0.54118,
-3.7852,40.5599,-30.683,132.4962,104.5171,0.68299,186.7183,158.4545,-137.9623,-157.5155,-300.287,-88.2929,22.1731,3.7852,
8.1121,45.9682,-43.8045,136.8231,89.5171,-9.1934,171.7183,173.4545,-152.9623,-142.5155,-285.287,-73.2929,37.1731,-8.1121,
-3.2445,30.9682,-47.5902,121.8231,101.6709,3.2445,186.7183,158.4545,-167.9623,-127.5155,-270.287,-88.2929,37.8566,-23.1121,
-7.5709,15.9682,-41.1006,106.8231,116.6709,11.8973,201.7183,143.4545,-152.9623,-142.5155,-255.287,-87.6094,31.3665,-25.9588,
3.245,16.2242,-40.0187,110.3232,101.6709,-3.1027,186.7183,158.4545,-137.9623,-127.5155,-240.287,-72.6094,43.2638,-10.9588,
-5.4082,18.3874,-40.0193,95.3232,89.7731,5.4082,184.9545,143.4545,-139.526,-142.5155,-255.287,-87.6094,28.2638,-25.9588,
1.6225,33.3874,-32.9895,83.8237,104.7731,13.5193,199.9545,128.4545,-124.526,-157.5155,-270.287,-98.9666,13.2638,-40.9588,
2.1632,33.5302,-47.9895,85.4468,119.7731,-1.4807,187.1172,143.4545,-109.526,-142.5155,-255.287,-83.9666,28.2638,-25.9588,
-12.8368,18.5302,-62.9895,87.0698,104.7731,-14.6017,172.1172,158.4545,-94.526,-127.5155,-240.287,-68.9666,43.2638,-10.9588,
-12.4382,33.5302,-54.6207,93.5586,93.5586,-2.7041,169.2707,173.4545,-91.3954,-112.5155,-225.287,-53.9666,58.2638,2.7041,
-19.4692,21.6319,-39.6207,78.5586,108.5586,12.2959,184.2707,158.4545,-76.3954,-127.5155,-240.287,-68.9666,43.2638,-12.2959,
-14.6017,18.928,-24.6207,76.2523,123.5586,27.2959,199.2707,143.4545,-61.3954,-142.5155,-255.287,-83.9666,28.2638,2.7041,
0.39834,15.684,-28.6621,65.4369,108.5586,12.2959,184.2707,133.5776,-56.7836,-127.5155,-240.287,-71.9259,14.6017,-7.0302,
-9.1934,9.1934,-43.6621,50.4369,93.5586,-2.7041,169.2707,148.5776,-71.7836,-112.5155,-225.287,-78.4165,29.6017,-22.0302,
-20.0099,9.1934,-58.6621,35.4369,78.5586,-17.7041,154.2707,163.5776,-86.7836,-97.5155,-210.287,-63.4165,32.989,-37.0302,
-18.3869,3.245,-44.3451,44.3462,93.5586,-2.7041,168.7298,148.5776,-71.7836,-112.5155,-216.32,-62.733,17.989,-22.0302,
-6.4896,6.4896,-40.0193,59.3462,108.5586,12.2959,183.7298,133.5776,-56.7836,-127.5155,-231.32,-59.4874,2.989,-7.0302,
8.5104,11.3571,-38.3967,74.3462,105.4561,-2.7041,168.7298,118.5776,-66.5187,-142.5155,-229.8403,-58.9473,13.5198,-11.3571,
7.5712,-3.6429,-53.3967,59.3462,90.4561,-17.7041,153.7298,133.5776,-81.5187,-127.5155,-214.8403,-73.9473,28.5198,-26.3571,
10.2753,-18.6429,-68.3967,44.3462,75.4561,-32.7041,138.7298,148.5776,-96.5187,-112.5155,-199.8403,-60.0286,43.5198,-41.3571,
5.4082,-5.4082,-53.3967,50.8357,90.4561,-47.7041,130.8742,149.2611,-81.5187,-109.2418,-184.8403,-45.0286,28.5198,-26.3571,
-9.5918,9.5918,-38.3967,65.8357,105.4561,-32.7041,145.8742,134.2611,-66.5187,-124.2418,-199.8403,-60.0286,13.5198,-11.3571,
-2.7039,2.7039,-51.3764,70.8446,120.4561,-17.7041,160.8742,119.2611,-51.5187,-139.2418,-214.8403,-63.2732,-1.4802,-2.7039,
2.1632,-12.2961,-66.3764,55.8446,109.2413,-32.7041,145.8742,134.2611,-36.5187,-124.2418,-199.8403,-48.2732,13.5198,-17.7039,
4.8673,-27.2961,-81.3764,40.8446,94.2413,-47.7041,130.8742,149.2611,-51.5187,-109.2418,-184.8403,-33.2732,28.5198,-23.2542,
19.8673,-12.2961,-66.3764,47.0498,79.2413,-54.6207,115.8742,164.2611,-36.5187,-94.2418,-169.8403,-48.2732,38.397,-25.4179,
7.5714,2.7039,-51.3764,62.0498,94.2413,-39.6207,130.8742,149.2611,-21.5187,-109.2418,-184.8403,-63.2732,23.397,-10.4179,
-4.3259,17.7039,-47.5907,67.0599,109.2413,-24.6207,145.8742,134.2611,-6.5187,-124.2418,-199.8403,-48.2732,8.397,-3.2445,
5.9492,2.7039,-62.5907,52.0599,94.2413,-39.6207,130.8742,149.2611,8.4813,-109.2418,-184.8403,-33.2732,13.5195,-5.9492,
-5.408,-12.2961,-77.5907,37.0599,79.2413,-54.6207,115.8742,164.2611,-6.5187,-94.2418,-169.8403,-35.6926,19.469,-20.9492,
9.592,-3.7857,-62.5907,36.2336,94.2413,-39.6207,126.0062,177.9237,3.7857,-79.2418,-154.8403,-37.3154,34.469,-35.9492,
5.9489,-5.9489,-55.7017,39.4786,109.2413,-24.6207,141.0062,162.9237,18.7857,-94.2418,-169.8403,-52.3154,19.469,-34.0698,
16.2242,4.3264,-50.8352,44.3462,94.2413,-12.9791,126.0062,147.9237,33.7857,-109.2418,-175.2189,-67.3154,4.469,-19.0698,
20.0094,19.3264,-48.1313,51.3754,79.2413,-22.1731,111.0062,141.149,18.7857,-94.2418,-160.2189,-56.7846,-10.531,-34.0698,
22.7143,32.4484,-51.9165,46.5088,94.099,-29.2033,111.4055,156.149,11.8978,-79.2418,-145.2189,-41.7846,-11.8978,-49.0698,
22.7132,17.4484,-56.2434,31.5088,109.099,-22.7137,126.4055,156.8325,26.8978,-64.2418,-130.2189,-26.7846,2.1632,-43.2643,
7.7132,2.4484,-71.2434,19.4692,113.5682,-11.8978,129.7924,141.8325,41.8978,-79.2418,-115.2189,-11.7846,-10.8154,-28.2643,
-6.4896,-6.4896,-78.9567,34.4692,98.5682,-26.8978,114.7924,144.9342,41.1011,-64.2418,-100.2189,3.2154,4.1846,-13.2643,
8.5104,-4.3264,-63.9567,30.2847,112.4869,-11.8978,129.7924,129.9342,40.0198,-79.2418,-115.2189,-11.7846,4.3264,-28.2643,
11.8978,10.6736,-48.9567,15.2847,127.4869,-8.6528,144.7924,114.9342,55.0198,-94.2418,-130.2189,-24.8769,-10.6736,-30.2847,
-1.0816,-4.3264,-63.9567,0.28465,112.4869,-23.6528,129.7924,129.9342,70.0198,-79.2418,-115.2189,-9.8769,4.3264,-15.2847,
-16.0816,-19.3264,-78.9567,-12.4385,97.4869,-38.6528,114.7924,144.9342,55.0198,-64.2418,-100.2189,3.7857,-3.7857,-30.2847,
-19.4687,-19.4687,-93.9567,-12.9791,82.4869,-53.6528,99.7924,159.9342,40.0198,-49.2418,-85.2189,-2.1632,2.1632,-45.2847,
-4.4687,-4.4687,-78.9567,2.0209,97.4869,-38.6528,114.7924,144.9342,55.0198,-64.2418,-100.2189,2.1632,-12.8368,-30.2847,
6.4896,-12.9786,-63.9567,17.0209,112.4869,-23.6528,129.7924,129.9342,70.0198,-79.2418,-115.2189,2.1632,-27.8368,-15.2847,
21.4896,-4.3266,-48.9567,24.8767,97.4869,-38.6528,114.7924,114.9342,85.0198,-64.2418,-100.2189,4.3266,-12.8368,-7.5712,
9.7341,-19.3266,-63.9567,9.8767,82.4869,-53.6528,99.7924,129.9342,70.0198,-49.2418,-85.2189,-10.6734,2.1632,-22.5712,
-2.7041,-34.3266,-78.9567,-5.1233,67.4869,-68.6528,84.7924,144.9342,55.0198,-34.2418,-70.2189,0.54093,1.6223,-37.5712,
6.4896,-20.55,-69.2221,-6.4896,82.4869,-53.6528,84.3654,129.9342,70.0198,-49.2418,-85.2189,15.5409,-13.3777,-22.5712,
8.1121,-9.1934,-66.5177,8.5104,90.3143,-38.6528,99.3654,114.9342,85.0198,-64.2418,-100.2189,11.3571,-28.3777,-7.5712,
23.1121,-12.9794,-62.7327,12.9794,77.8751,-31.3662,89.7729,99.9342,100.0198,-79.2418,-85.2189,26.3571,-18.3871,-20.5503,
8.1121,-27.9794,-77.7327,-2.0206,62.8751,-46.3662,74.7729,114.9342,85.0198,-64.2418,-70.2189,11.3571,-3.3871,-35.5503,
-6.8879,-42.9794,-92.7327,-17.0206,47.8751,-61.3662,59.7729,129.9342,70.0198,-49.2418,-55.2189,9.1937,11.6129,-50.5503,
8.1121,-28.1215,-77.7327,-9.7346,35.6934,-76.3662,44.7729,139.5265,85.0198,-34.2418,-40.2189,0,6.4896,-35.6929,
4.3264,-13.1215,-62.7327,5.2654,50.6934,-61.3662,59.7729,124.5265,100.0198,-49.2418,-55.2189,-7.5714,-8.5104,-20.6929,
-5.9489,1.8785,-77.7327,20.0094,65.6934,-46.3662,74.7729,109.5265,115.0198,-64.2418,-70.2189,7.4286,-23.5104,-5.6929,
1.6223,-13.1215,-92.7327,5.0094,50.6934,-61.3662,59.7729,124.5265,129.2515,-49.2418,-55.2189,22.4286,-8.5104,-3.7855,
16.6223,-28.1215,-107.7327,-9.9906,35.6934,-76.3662,44.7729,139.5265,114.2515,-34.2418,-40.2189,37.4286,6.4896,-18.7855,
28.6626,-13.5198,-92.7327,-21.0912,27.5808,-61.3662,29.7729,151.9655,129.2512,-19.2418,-25.2189,22.4286,-8.5104,-33.7855,
21.6319,1.4802,-77.7327,-6.0912,42.5808,-46.3662,44.7729,136.9655,144.2512,-34.2418,-40.2189,7.4286,-23.5104,-18.7855,
24.8764,-6.4896,-62.7327,-1.0819,57.5808,-49.7539,45.427,121.9655,159.2512,-49.2418,-55.2189,22.4286,-38.5104,-3.7855,
21.6319,-12.9791,-77.7327,-16.0819,42.5808,-64.7539,30.427,135.1996,144.2512,-34.2418,-40.2189,37.4286,-23.5104,-18.7855,
18.928,-18.928,-92.7327,-31.0819,27.5808,-79.7539,15.427,150.1996,129.2512,-19.2418,-25.2189,34.0704,-8.5104,-33.7855,
3.928,-33.928,-107.7327,-46.0819,34.0706,-94.7539,7.0305,135.1996,114.2512,-4.2418,-10.2189,19.0704,-5.9486,-48.7855,
18.928,-18.928,-92.7327,-31.0819,49.0706,-79.7539,22.0305,120.1996,129.2512,-19.2418,-25.2189,34.0704,2.7039,-33.7855,
30.2852,-15.1423,-80.0385,-21.6324,55.1611,-64.7539,33.5292,105.1996,144.2512,-34.2418,-10.2189,49.0704,-12.2961,-18.7855,
17.3055,-17.3055,-81.1204,-36.6324,41.1001,-52.9989,19.4682,90.1996,129.2512,-41.1011,4.7811,34.0704,-18.3879,-33.7855,
18.3876,-11.8975,-86.5283,-51.6324,45.4272,-67.9989,4.4682,105.1996,115.7317,-26.1011,19.7811,42.1822,-33.3879,-48.7855,
19.4687,-24.8769,-101.5283,-66.6324,43.2643,-81.1199,-10.5318,120.1996,130.7317,-11.1011,34.7811,57.1822,-37.8561,-33.7855,
4.4687,-16.7648,-116.5283,-51.6324,28.2643,-66.1199,3.7857,105.1996,145.7317,-8.1121,49.7811,72.1822,-25.4176,-18.7855,
-7.5712,-21.6322,-113.568,-51.9168,13.2643,-78.9569,-8.653,109.2421,160.7317,6.8879,64.7811,87.1822,-10.4176,-33.7855,
2.7044,-36.6322,-100.0484,-66.9168,28.2643,-63.9569,6.347,94.2421,175.7317,-8.1121,49.7811,72.1822,-2.7044,-48.7855,
17.7044,-34.0704,-85.0484,-60.0286,43.2643,-48.9569,21.347,79.2421,190.7317,-23.1121,34.7811,57.1822,-11.3571,-33.7855,
11.3569,-24.336,-79.4976,-63.2739,28.2643,-63.9569,6.347,94.2421,191.9845,-8.1121,49.7811,66.5185,2.7041,-18.7855,
18.3871,-17.3058,-90.8542,-51.9168,13.2643,-78.9569,-8.653,109.2421,176.9845,6.8879,64.7811,80.0388,17.3058,-33.7855,
3.3871,-32.3058,-105.8542,-66.9168,7.5714,-93.9569,-23.653,124.2421,168.7298,21.8879,79.7811,81.1199,2.3058,-48.7855,
-9.7346,-47.3058,-100.5886,-81.1199,22.5714,-78.9569,-8.653,109.2421,183.7298,6.8879,64.7811,75.7127,-12.6942,-33.7855,
5.2654,-32.3058,-85.5886,-66.1199,37.5714,-63.9569,6.347,94.2421,198.7298,-8.1121,49.7811,90.7127,-27.6942,-18.7855,
20.2654,-18.3874,-80.0385,-51.1199,22.5714,-59.488,-8.653,79.2421,183.7298,0,64.7811,75.7127,-12.6942,-8.6528,
16.7648,-33.3874,-95.0385,-66.1199,7.5714,-74.488,-23.653,94.2421,168.7298,15,79.7811,60.7127,2.3058,-23.6528,
18.3874,-48.3874,-110.0385,-81.1199,-7.4286,-89.488,-38.653,109.2421,169.8116,30,94.7811,60.5698,17.3058,-38.6528,
33.3874,-33.3874,-95.0385,-66.1199,7.5714,-74.6305,-23.653,94.2421,184.8116,15,79.7811,62.7327,2.3058,-23.6528,
24.3363,-18.3874,-83.8242,-51.1199,22.5714,-59.6305,-8.653,79.2421,199.8116,0,64.7811,64.355,-12.6942,-8.6528,
28.6624,-18.9278,-98.8242,-49.2129,28.6624,-44.6305,6.347,64.2421,214.8116,-15,49.7811,79.355,-9.1937,-22.1728,
13.6624,-33.9278,-113.8242,-64.2129,13.6624,-59.6305,-8.653,79.2421,207.6675,0,64.7811,94.355,5.8063,-29.2036,
24.336,-48.9278,-128.8242,-79.2129,-1.3376,-74.6305,-23.653,94.2421,192.6675,15,79.7811,109.355,20.8063,-24.336,
39.336,-33.9278,-113.8242,-67.6003,-16.3376,-81.6608,-38.653,103.2932,184.413,23.2547,94.7811,94.355,35.8063,-39.336,
28.122,-18.9278,-98.8242,-52.6003,-1.3376,-66.6608,-23.653,88.2932,199.413,8.2547,79.7811,79.355,20.8063,-24.336,
20.55,-3.9278,-93.0177,-54.0802,13.6624,-60.5698,-9.7346,73.2932,214.413,-6.7453,64.7811,71.3852,5.8063,-9.336,
19.4687,-18.9278,-108.0177,-69.0802,-1.3376,-75.5698,-24.7346,88.2932,201.1776,8.2547,79.7811,86.3852,14.061,-24.336,
30.8256,-30.8256,-118.435,-74.0894,-16.3376,-90.5698,-39.7346,103.2932,186.1776,23.2547,94.7811,101.3852,29.061,-39.336,
15.8256,-45.8256,-122.7616,-89.0894,-10.2753,-98.9666,-54.7346,97.8852,171.1776,29.744,109.7811,86.3852,23.2544,-54.336,
30.8256,-30.8256,-107.7616,-74.0894,4.7247,-83.9666,-39.7346,82.8852,186.1776,14.744,94.7811,71.3852,8.2544,-39.336,
42.1819,-23.7956,-95.1808,-59.0894,5.4082,-68.9666,-45.4275,67.8852,201.1776,-0.25602,79.7811,86.3852,-5.4082,-24.336,
30.8256,-15.6833,-83.8245,-74.0894,-9.5918,-83.9666,-60.4275,82.8852,201.7186,14.744,94.7811,78.4163,9.5918,-29.7442,
20.5506,-20.5506,-98.8245,-89.0894,-24.5918,-98.9666,-75.4275,97.8852,186.7186,29.744,109.7811,70.3039,23.7951,-44.7442,
5.5506,-35.5506,-113.8245,-104.0894,-9.5918,-113.9666,-83.8237,107.6193,200.6375,44.744,124.7811,77.3347,13.5203,-57.8654,
2.1632,-46.5083,-104.9149,-89.0894,5.4082,-98.9666,-68.8237,92.6193,215.6375,29.744,109.7811,92.3347,-1.4797,-42.8654,
10.2753,-35.1522,-105.4561,-74.0894,-7.0302,-83.9666,-64.3555,77.6193,230.6375,14.744,105.4561,107.3347,12.4385,-27.8654,
12.9797,-50.1522,-109.2418,-89.0894,-3.2445,-88.6913,-70.3039,62.6193,215.6375,3.2445,120.0578,92.3347,7.5709,-42.8654,
20.55,-60.5698,-94.2418,-104.0894,5.4082,-103.6913,-85.3039,73.549,200.6375,18.2445,135.0578,77.3347,-5.4082,-50.8352,
20.5506,-45.5698,-97.344,-112.4869,-9.5918,-118.6913,-100.3039,88.549,215.6375,33.2445,150.0578,92.3347,8.6528,-35.8352,
5.5506,-30.5698,-112.344,-97.4869,-24.5918,-103.6913,-85.3039,96.8029,230.6375,48.2445,165.0578,107.3347,-0.54118,-20.8352,
7.0305,-26.4992,-102.2113,-105.4559,-9.5918,-88.6913,-70.3039,107.6191,230.9224,63.2445,177.9235,107.6191,13.5201,-23.2542,
19.4687,-41.4992,-100.5891,-120.4559,5.4082,-76.794,-55.3039,92.6191,245.9224,48.2445,162.9235,92.6191,10.8159,-10.8159,
34.4687,-37.8566,-104.9155,-105.4559,6.4896,-77.8753,-43.2643,77.6191,260.9224,33.2445,147.9235,98.4259,-4.1841,4.1841,
34.611,-37.8561,-110.3237,-112.4869,-8.5104,-92.8753,-58.2643,68.1407,245.9224,48.2445,162.9235,83.4259,10.8159,-10.8159,
32.9888,-32.9888,-108.7009,-124.9251,-23.5104,-107.8753,-73.2643,83.1407,230.9224,63.2445,177.9235,75.1712,25.8159,-25.8159,
23.2544,-47.9888,-117.3539,-139.9251,-23.2544,-122.8753,-88.2643,98.1407,215.9224,78.2445,192.9235,90.1712,36.2335,-32.989,
8.2544,-56.2434,-113.5682,-124.9251,-8.2544,-107.8753,-73.2643,83.1407,230.9224,63.2445,177.9235,90.8545,21.2335,-17.989,
23.2544,-41.2434,-98.5682,-109.9251,6.7456,-92.8753,-58.2643,68.1407,245.9224,48.2445,162.9235,105.8545,6.2335,-2.989,
37.8561,-33.5297,-93.0177,-94.9251,-8.2544,-78.9567,-69.2226,53.1407,230.9224,33.2445,147.9235,100.5891,21.2335,-17.989,
22.8561,-48.5297,-108.0177,-109.9251,-19.469,-93.9567,-84.2226,68.1407,215.9224,48.2445,162.9235,105.9971,36.2335,-32.989,
22.1728,-62.1921,-123.0177,-124.9251,-29.7442,-108.9567,-99.2226,83.1407,204.9631,63.2445,177.9235,120.9971,51.2335,-22.1728,
32.4484,-47.1921,-108.0177,-109.9251,-30.2847,-93.9567,-89.7726,68.1407,219.9631,48.2445,162.9235,105.9971,36.2335,-17.3055,
47.4484,-32.1921,-93.0177,-94.9251,-15.2847,-78.9567,-74.7726,53.1407,234.9631,33.2445,147.9235,101.6699,21.2335,-2.3055,
43.8047,-17.1921,-78.0177,-108.7009,-0.28465,-93.9567,-71.9267,38.1407,249.9631,18.2445,132.9235,109.7828,13.5201,-11.3569,
28.8047,-32.1921,-93.0177,-123.7009,-15.2847,-108.9567,-86.9267,53.1407,234.9631,33.2445,147.9235,124.7828,28.5201,-10.275,
29.744,-38.3973,-108.0177,-116.2721,-30.2847,-123.9567,-101.9267,68.1407,219.9631,48.2445,162.9235,139.7828,43.5201,-25.275,
29.744,-27.5808,-93.0177,-111.9457,-43.805,-122.7616,-116.9267,53.1407,216.8606,50.2945,162.7814,124.7828,28.5201,-40.275,
44.744,-12.5808,-78.0177,-96.9457,-28.805,-107.7616,-101.9267,38.1407,231.8606,35.2945,147.7814,109.7828,13.5201,-25.275,
52.9984,2.4192,-63.0177,-81.9457,-13.805,-92.7616,-86.9267,23.1407,246.8606,20.2945,132.7814,124.7828,-1.4799,-10.275,
37.9984,-11.8978,-78.0177,-95.1808,-28.805,-107.7616,-101.9267,38.1407,231.8606,35.2945,147.7814,139.7828,11.8978,-14.061,
22.9984,-18.928,-93.0177,-110.1808,-43.805,-122.7616,-116.9267,53.1407,216.8606,50.2945,162.7814,124.7828,26.8978,-29.061,
15.6833,-33.928,-100.0482,-125.1808,-28.805,-123.8437,-124.9251,56.7838,231.8606,65.2945,177.7814,109.7828,34.0701,-44.061,
30.6833,-18.928,-85.0482,-110.1808,-13.805,-108.8437,-109.9251,41.7838,246.8606,50.2945,162.7814,124.7828,19.0701,-29.061,
45.6833,-16.7646,-75.1712,-95.1808,-8.1118,-93.8437,-94.9251,26.7838,261.8606,35.2945,147.7814,135.7415,18.9283,-14.061,
45.9684,-26.4992,-71.9262,-110.1808,-23.1118,-100.0476,-109.9251,26.4992,246.8606,50.2945,162.7814,120.7415,29.7442,-29.061,
42.7231,-40.5599,-78.416,-125.1808,-25.4176,-115.0476,-124.9251,41.4992,231.8606,65.2945,177.7814,105.7415,25.4176,-44.061,
29.7437,-55.5599,-93.416,-140.1808,-11.3569,-123.8432,-133.5778,55.7025,246.8606,80.2945,192.7814,110.8641,11.3569,-29.061,
20.0099,-40.5599,-78.416,-125.1808,-9.1934,-108.8432,-118.5778,40.7025,261.8606,65.2945,177.7814,125.8641,-3.6431,-14.061,
22.1728,-25.5599,-70.8448,-110.1808,-17.8464,-93.8432,-103.5778,25.7025,246.8606,50.2945,162.7814,118.4355,3.7855,-12.4382,
37.1728,-33.5297,-85.8448,-125.1808,-3.2445,-85.4462,-105.9968,10.7025,242.2787,35.2945,147.7814,103.4355,14.061,-27.4382,
37.8561,-48.5297,-100.8448,-140.1808,-18.2445,-100.4462,-120.9968,12.9791,227.2787,50.2945,154.6693,88.4355,-0.93901,-12.4382,
44.8866,-36.2338,-93.5586,-144.3938,-33.2445,-115.4462,-135.9968,26.4992,212.2787,65.2945,169.6693,73.4355,4.8673,-4.8673,
41.1006,-21.2338,-78.5586,-129.3938,-48.2445,-100.4462,-124.3842,27.0401,217.4018,78.9567,165.4853,82.2017,5.4082,-19.8673,
45.9682,-26.4995,-71.9264,-128.1699,-41.6418,-114.1089,-139.3842,42.0401,219.0243,93.9567,180.4853,97.2017,9.1934,-9.1934,
38.3967,-34.0709,-83.8242,-114.1094,-26.6418,-99.1089,-124.3842,27.0401,234.0243,78.9567,165.4853,112.2017,-0.54067,5.8066,
45.427,-19.0709,-78.9567,-99.1094,-11.6418,-84.1089,-109.3842,12.0401,249.0243,63.9567,150.4853,127.2017,3.2445,20.8066,
40.5599,-14.6017,-78.416,-100.0479,-26.6418,-99.1089,-124.3842,16.7648,234.0243,78.9567,165.4853,112.2017,14.6017,5.8066,
47.5907,-29.6017,-80.0385,-115.0479,-41.6418,-114.1089,-139.3842,31.7648,219.0243,93.9567,180.4853,98.4259,29.6017,-9.1934,
32.5907,-44.6017,-95.0385,-130.0479,-56.6418,-129.1089,-154.3842,46.7648,204.0243,108.9567,195.4853,113.4259,31.3665,-24.1934,
30.2852,-29.6017,-80.0385,-115.0479,-41.6418,-114.1089,-139.3842,31.7648,219.0243,93.9567,180.4853,118.9764,16.3665,-9.1934,
45.2852,-14.6017,-65.0385,-100.0479,-26.6418,-99.1089,-124.3842,16.7648,234.0243,78.9567,165.4853,133.9764,5.9484,5.8066,
45.4272,-5.408,-50.0385,-114.6498,-31.3662,-94.0992,-129.7921,5.408,242.279,64.8959,150.4853,129.7921,15.1426,-9.1934,
30.4272,-20.408,-65.0385,-129.6498,-46.3662,-109.0992,-144.7921,20.408,227.279,79.8959,165.4853,144.7921,30.1426,-17.8464,
19.4687,-35.408,-80.0385,-144.6498,-61.3662,-124.0992,-159.7921,35.408,212.279,94.8959,180.4853,159.7921,45.1426,-19.4687,
34.4687,-20.408,-65.0385,-129.6498,-46.3662,-109.0992,-144.7921,20.408,227.279,79.8959,165.4853,144.7921,32.9885,-34.4687,
49.4687,-5.408,-50.0385,-114.6498,-31.3662,-94.0992,-129.7921,5.408,242.279,64.8959,150.4853,129.7921,17.9885,-19.4687,
57.8657,-20.408,-35.0385,-121.68,-16.3662,-109.0992,-135.741,-9.592,244.9824,49.8959,135.4853,114.7921,4.8673,-4.4687,
42.8657,-31.3665,-50.0385,-133.0369,-31.3662,-124.0992,-150.741,5.408,229.9824,64.8959,150.4853,129.7921,9.7346,-9.7346,
27.8657,-25.9585,-65.0385,-148.0369,-46.3662,-139.0992,-165.741,20.408,214.9824,79.8959,165.4853,139.5267,24.7346,-24.7346,
40.5599,-34.0704,-56.7841,-151.965,-31.9072,-131.4144,-171.4337,35.408,227.6766,92.4765,180.4853,124.5267,31.9072,-39.7346,
55.5599,-19.0704,-41.7841,-136.965,-16.9072,-116.4144,-156.4337,20.408,242.6766,77.4765,165.4853,109.5267,16.9072,-24.7346,
64.3555,-4.0704,-26.7841,-121.965,-31.9072,-101.4144,-141.4337,5.408,232.004,62.4765,150.4853,124.5267,2.7039,-9.7346,
49.3555,-15.1423,-41.7841,-136.965,-46.9072,-116.4144,-156.4337,20.408,217.004,77.4765,165.4853,109.5267,15.1423,-24.7346,
35.1522,-30.1423,-50.2945,-151.965,-61.9072,-131.4144,-171.4337,35.408,202.004,92.4765,180.4853,96.8034,30.1423,-39.7346,
29.2031,-45.1423,-46.5091,-157.9141,-46.9072,-116.4144,-156.4337,50.408,208.7488,107.4765,195.4853,108.1597,18.3871,-28.1217,
38.9374,-30.1423,-31.5091,-142.9141,-31.9072,-101.4144,-141.4337,35.408,223.7488,92.4765,180.4853,123.1597,3.3871,-13.1217,
34.0709,-15.1423,-27.5808,-127.9141,-28.6626,-86.4144,-126.4337,20.408,238.7488,77.4765,165.4853,138.1597,8.1116,1.8783,
49.0709,-12.4385,-27.5808,-122.7616,-31.9072,-101.4144,-131.4144,12.4385,223.7488,92.4765,180.4853,123.1597,23.1116,-13.1217,
64.0709,-27.4385,-42.5808,-137.7616,-46.9072,-116.4144,-146.4144,27.4385,208.7488,107.4765,195.4853,108.1597,28.1217,-28.1217,
49.0709,-37.3154,-51.3759,-136.8226,-61.9072,-124.9248,-161.4144,42.4385,193.7488,122.4765,210.4853,103.2929,13.1217,-13.1217,
34.0709,-22.3154,-36.3759,-121.8226,-46.9072,-109.9248,-146.4144,27.4385,208.7488,107.4765,195.4853,111.4045,-1.8783,1.8783,
37.3149,-7.3154,-21.3759,-111.9457,-31.9072,-94.9248,-131.4144,26.4989,199.5551,92.4765,180.4853,116.2716,-1.6225,1.6225,
24.8764,-22.3154,-36.3759,-126.9457,-34.6115,-109.9248,-146.4144,11.4989,214.5551,77.4765,175.2194,122.2205,1.0819,7.5709,
32.9895,-18.928,-51.3759,-111.9457,-49.6115,-109.7825,-157.3727,-1.6225,213.6161,76.2533,188.7392,137.2205,1.6225,22.5709,
35.6931,-11.8975,-43.264,-116.813,-64.6115,-117.8943,-172.3727,11.8975,198.6161,91.2533,203.7392,122.2205,11.8975,7.5709,
36.2336,-10.2753,-36.2341,-107.6198,-69.7638,-114.1094,-166.0259,25.4171,183.6161,83.8237,193.0655,107.2205,10.2753,-7.4291,
36.2338,-25.2753,-42.7234,-119.5169,-63.2739,-124.9251,-181.0259,40.4171,176.8421,98.8237,207.1268,111.9454,-1.6223,1.6223,
35.6924,-10.2753,-27.7234,-104.5169,-48.2739,-109.9251,-166.0259,25.4171,191.8421,83.8237,192.1268,126.9454,-7.5714,16.6223,
33.5302,4.7247,-12.7234,-89.5169,-33.2739,-94.9251,-151.0259,10.4171,206.8421,68.8237,177.1268,141.9454,-6.4896,31.6223,
24.336,-3.7855,-23.2542,-92.4767,-48.2739,-109.9251,-155.2097,3.7855,191.8421,83.8237,167.1075,126.9454,8.5104,16.6223,
32.9888,-18.7855,-32.9888,-107.4767,-52.4575,-124.9251,-170.2097,18.7855,176.8421,98.8237,182.1075,135.741,23.5104,1.6223,
18.3874,-33.7855,-47.9888,-122.4767,-67.4575,-139.9251,-185.2097,33.7855,165.4853,113.8237,197.1075,150.741,32.4478,-13.3777,
33.3874,-18.7855,-32.9888,-107.4767,-52.4575,-124.9251,-170.2097,18.7855,180.4853,98.8237,182.1075,135.741,17.4478,-0.54067,
48.3874,-3.7855,-17.9888,-92.4767,-37.4575,-109.9251,-155.2097,3.7855,195.4853,83.8237,167.1075,120.741,2.4478,14.4593,
33.3874,-3.2448,-10.8157,-107.4767,-23.7953,-114.6498,-161.1586,3.2448,210.4853,75.7119,152.1075,120.058,5.408,-0.54067,
18.3874,-18.2448,-25.8157,-122.4767,-38.7953,-129.6498,-176.1586,18.2448,195.4853,90.7119,167.1075,135.058,16.7648,-7.0302,
21.6322,-21.6322,-40.8157,-137.4767,-53.7953,-144.6498,-191.1586,33.2448,180.4853,105.7119,182.1075,138.4449,23.7953,-22.0302,
32.9882,-8.1123,-25.8157,-122.7619,-38.7953,-129.6498,-176.1586,18.2448,195.4853,90.7119,167.1075,123.4449,15.6827,-37.0302,
47.9882,4.8676,-10.8157,-107.7619,-23.7953,-114.6498,-161.1586,3.2448,210.4853,75.7119,152.1075,108.4449,0.68274,-22.0302,
60.0286,0.54067,4.1843,-92.7619,-38.7953,-99.6498,-153.0463,-11.7552,195.4853,60.7119,137.1075,101.1297,-0.54067,-7.0302,
45.0286,-4.8673,-10.8157,-107.7619,-53.7953,-114.6498,-168.0463,3.2448,180.4853,75.7119,152.1075,113.0273,4.8673,-22.0302,
30.0286,-18.3871,-19.469,-122.7619,-68.7953,-129.6498,-183.0463,18.2448,165.4853,90.7119,167.1075,110.3234,18.3871,-37.0302,
30.8256,-33.3871,-4.469,-137.7619,-53.7953,-124.9251,-177.9235,33.2448,180.4853,104.374,181.1685,97.885,3.3871,-37.3151,
45.8256,-18.3871,10.531,-122.7619,-38.7953,-109.9251,-162.9235,18.2448,195.4853,89.374,166.1685,112.885,-4.8676,-22.3151,
32.4473,-3.3871,10.8154,-107.7619,-37.8561,-94.9251,-147.9235,3.2448,180.4853,74.374,151.1685,127.885,-8.6528,-7.3151,
35.6926,-18.3871,-4.1846,-122.7619,-52.8561,-109.9251,-162.9235,10.8157,165.4853,89.374,166.1685,112.885,6.3472,-22.3151,
45.9682,-33.3871,-19.1846,-137.7619,-67.8561,-124.9251,-177.9235,25.8157,150.4853,104.374,181.1685,97.885,21.3472,-37.3151,
30.9682,-41.1009,-25.9585,-137.3636,-52.8561,-124.3839,-176.301,40.8157,165.4853,119.374,196.1685,99.5075,10.8162,-22.3151,
22.7137,-26.1009,-10.9585,-122.3636,-37.8561,-109.3839,-161.301,25.8157,180.4853,104.374,181.1685,114.5075,-4.1838,-7.3151,
28.6629,-11.1009,4.0415,-107.3636,-32.9888,-94.3839,-146.301,10.8157,195.4853,89.374,166.1685,117.3542,-19.1838,1.6223,
41.1009,-12.9794,1.0816,-112.4866,-31.3662,-109.3839,-161.301,-1.0816,180.4853,104.374,181.1685,122.2212,-4.1838,-2.1634,
26.1009,-27.9794,-13.9184,-127.4866,-46.3662,-124.3839,-176.301,8.653,165.4853,119.374,196.1685,107.2212,-6.4898,11.8975,
28.122,-12.9794,-18.3869,-112.4866,-61.3662,-114.6495,-186.0353,5.4082,173.0567,134.374,201.1776,100.5891,-4.3264,4.3264,
30.8253,2.0206,-3.3869,-97.4866,-49.2132,-99.6495,-171.0353,-9.5918,182.2496,119.374,186.1776,93.5583,-19.3264,-5.9484,
31.3662,-12.9794,5.408,-112.4866,-41.1009,-109.2416,-164.4037,-23.7953,167.2496,104.374,171.1776,108.1602,-5.408,9.0516,
22.7143,-9.7341,-4.3264,-109.2413,-34.611,-122.2205,-177.382,-38.7953,182.2496,89.374,156.1776,123.1602,4.3264,24.0516,
8.6528,4.3264,-12.9791,-94.2413,-49.611,-111.405,-170.8935,-53.7953,183.8716,74.374,155.7507,129.7914,-4.3264,11.8968,
23.6528,-5.9486,2.0209,-100.0481,-56.7838,-107.6196,-167.1075,-38.7953,168.8716,89.374,170.7507,114.7914,10.6736,-3.1032,
38.6528,-20.9486,-3.2448,-115.0481,-45.4272,-122.6196,-182.1075,-23.7953,169.8119,104.374,185.7507,99.7914,25.6736,-18.1032,
23.6528,-35.9486,-18.2448,-130.0481,-60.4272,-137.6196,-197.1075,-8.7953,154.8119,119.374,199.5554,105.4564,11.3569,-11.3569,
28.6621,-20.9486,-3.2448,-115.0481,-51.3764,-122.6196,-182.1075,-23.7953,169.8119,104.374,184.5554,101.1292,-3.6431,3.6431,
42.7231,-5.9486,11.7552,-100.0481,-36.3764,-107.6196,-167.1075,-38.7953,184.8119,89.374,169.5554,94.6397,-18.6431,18.6431,
27.7231,2.1632,8.6528,-109.2413,-33.5297,-103.8336,-175.2194,-36.7742,169.8119,74.374,154.5554,99.5072,-3.6431,3.6431,
12.7231,-12.8368,-6.3472,-124.2413,-48.5297,-118.8336,-190.2194,-21.7742,154.8119,89.374,169.5554,114.5072,11.3569,-11.3569,
12.9791,-12.9791,-18.3874,-115.7314,-63.5297,-133.8336,-205.2194,-6.7742,139.8119,104.374,184.5554,129.5072,12.9791,-17.3055,
27.9791,2.0209,-3.3874,-100.7314,-48.5297,-118.8336,-190.2194,-21.7742,154.8119,89.374,169.5554,114.5072,4.867,-4.867,
42.9791,17.0209,11.6126,-85.7314,-33.5297,-103.8336,-175.2194,-36.7742,169.8119,74.374,154.5554,99.5072,-10.133,10.133,
45.4275,2.0209,17.3055,-100.7314,-34.611,-118.8336,-181.7089,-51.7742,154.8119,59.374,139.5554,94.099,-20.5506,11.8978,
30.4275,0,2.3055,-108.1605,-49.611,-133.8336,-196.7089,-36.7742,139.8119,74.374,154.5554,109.099,-5.5506,-3.1022,
16.7648,-15,-11.3566,-123.1605,-64.611,-148.8336,-211.7089,-21.7742,124.8119,89.374,169.5554,97.8847,9.4494,-18.1022,
31.7648,-23.2544,3.6434,-122.7616,-49.611,-133.8336,-196.7089,-36.7742,139.8119,74.374,154.5554,82.8847,23.2544,-33.1022,
46.7648,-8.2544,18.6434,-107.7616,-34.611,-118.8336,-181.7089,-51.7742,154.8119,59.374,139.5554,93.0177,8.2544,-18.1022,
48.1311,6.7456,25.4179,-92.7616,-49.611,-103.8336,-172.5158,-66.7742,155.2092,44.374,124.5554,100.0476,-6.7456,-3.1022,
33.1311,-8.2544,10.4179,-107.7616,-64.611,-118.8336,-187.5158,-51.7742,140.2092,59.374,139.5554,85.0476,2.1632,-18.1022,
32.4481,-23.2544,-4.5821,-122.7616,-79.611,-133.8336,-202.5158,-36.7742,125.2092,74.374,154.5554,76.7937,14.0607,-33.1022,
37.8561,-38.2544,0,-137.7616,-64.611,-124.3842,-187.5158,-21.7742,140.2092,89.374,169.5554,91.7937,1.0819,-18.1022,
48.1319,-23.2544,15,-122.7616,-49.611,-109.3842,-172.5158,-36.7742,155.2092,74.374,154.5554,106.7937,-11.3561,-3.1022,
33.1319,-8.2544,30,-107.7616,-37.8561,-94.3842,-157.5158,-51.7742,164.4039,59.374,139.5554,117.8951,-15.1423,11.8978,
48.1319,-17.3058,17.3058,-122.7616,-40.019,-109.3842,-172.5158,-36.7742,149.4039,74.374,154.5554,102.8951,-0.14233,-3.1022,
42.1827,-32.3058,2.3058,-137.7616,-55.019,-124.3842,-187.5158,-21.7742,134.4039,89.374,169.5554,88.6915,14.8577,-17.3053,
28.6621,-20.0099,-1.6225,-122.7616,-70.019,-126.0067,-188.7397,-6.7742,149.4039,104.374,184.5554,98.9666,-0.14233,-2.3053,
37.8561,-5.0099,13.3775,-107.7616,-55.019,-111.0067,-173.7397,-21.7742,164.4039,89.374,169.5554,95.1803,-15.1423,12.6947,
37.3154,9.9901,28.3775,-92.7616,-40.019,-96.0067,-158.7397,-36.7742,149.4039,74.374,154.5554,89.2319,-30.1423,4.867,
25.9588,-5.0099,13.3775,-107.7616,-35.6929,-111.0067,-173.7397,-30.2847,134.4039,89.374,161.1589,104.2319,-15.1423,19.867,
18.928,-7.0302,-1.6225,-104.3748,-50.6929,-126.0067,-188.7397,-15.2847,119.4039,104.374,176.1589,119.2319,-0.14233,22.1726,
28.1217,-3.2448,7.5712,-103.8339,-65.6929,-111.0067,-191.4433,-30.2847,104.4039,94.0993,161.1589,104.2319,3.2448,7.1726,
35.6929,3.2445,22.5712,-96.2622,-50.6929,-96.0067,-176.4433,-45.2847,119.4039,79.0993,146.1589,89.2319,-11.7552,-2.1632,
29.7442,-11.7555,15.6833,-107.6191,-61.1102,-108.7009,-183.3312,-30.2847,107.6196,64.0993,131.1589,82.7426,-15.6833,12.8368,
20.0094,-2.7039,20.0094,-92.6191,-63.2742,-123.7009,-185.4952,-45.2847,117.3534,49.0993,116.1589,91.3951,-5.9489,16.7643,
5.0094,12.2961,25.9583,-77.6191,-76.7935,-124.3842,-180.6271,-60.2847,125.466,34.0993,101.1589,96.2627,-20.9489,1.7643,
8.1121,1.6225,26.4989,-92.6191,-64.3555,-109.3842,-168.1891,-45.2847,120.5985,49.0993,116.1589,82.7424,-5.9489,-13.2357,
0.54067,-13.3775,11.4989,-107.6191,-53.5391,-116.2721,-183.1891,-30.2847,115.1902,64.0993,131.1589,97.7424,9.0511,-0.54067,
0.54093,-23.2547,-0.54093,-94.6404,-68.5391,-131.2721,-198.1891,-15.2847,111.9454,79.0993,146.1589,112.7424,3.7855,9.1937,
15.5409,-8.2547,14.4591,-79.6404,-67.0594,-116.2721,-183.1891,-30.2847,126.9454,64.0993,131.1589,97.7424,-11.2145,10.8159,
30.5409,6.7453,29.4591,-64.6404,-52.0594,-101.2721,-168.1891,-45.2847,141.9454,49.0993,116.1589,82.7424,-18.928,25.8159,
15.5409,-8.2547,18.3874,-79.6404,-37.8561,-116.2721,-183.1891,-31.3665,126.9454,61.6512,114.6501,90.8545,-8.6528,10.8159,
0.54093,-23.2547,3.3874,-94.6404,-52.8561,-127.6287,-198.1891,-16.3665,111.9454,76.6512,129.6501,105.8545,0,10.8159,
4.8673,-22.1728,12.4387,-109.6404,-67.8561,-142.6287,-213.1891,-1.3665,96.9454,91.6512,144.6501,114.1091,-4.8673,-4.1841,
19.8673,-7.1728,27.4387,-94.6404,-52.8561,-127.6287,-198.1891,-16.3665,111.9454,76.6512,129.6501,99.1091,10.1327,-11.8983,
34.8673,0.54067,42.4387,-79.6404,-37.8561,-112.6287,-183.1891,-31.3665,126.9454,61.6512,114.6501,84.1091,-0.54067,3.1017,
34.0709,-14.4593,27.4387,-94.6402,-52.8561,-110.8644,-176.8419,-46.3665,115.1907,46.6512,99.6501,89.2325,-15.5407,18.1017,
19.0709,-4.8673,13.5201,-109.6402,-67.8561,-125.8644,-191.8419,-31.3665,100.1907,61.6512,114.6501,84.9058,-8.1123,3.1017,
20.0094,-19.8673,0.54067,-124.6402,-82.8561,-140.8644,-206.8419,-16.3665,85.1907,76.6512,129.6501,69.9058,6.8877,-11.8983,
29.7442,-28.6624,10.275,-110.8641,-67.8561,-125.8644,-191.8419,-27.5805,84.9058,61.6512,127.0883,78.4157,-8.1123,3.1017,
31.367,-13.6624,25.275,-95.8641,-52.8561,-110.8644,-176.8419,-42.5805,99.9058,46.6512,112.0883,93.4157,-15.1418,18.1017,
16.367,1.3376,32.989,-80.8641,-55.7028,-95.8644,-161.8419,-57.5805,103.2924,31.6512,97.0883,91.3946,-13.5198,22.1726,
31.367,-13.6624,21.0912,-95.8641,-70.7028,-110.8644,-176.8419,-42.5805,88.2924,46.6512,112.0883,76.3946,1.4802,7.1726,
37.3154,-28.6624,6.0912,-110.8641,-85.7028,-125.8644,-191.8419,-27.5805,73.2924,61.6512,127.0883,65.4369,16.4802,-7.8274,
22.3154,-29.2031,3.2448,-102.752,-70.7028,-110.8644,-176.8419,-12.5805,88.2924,76.6512,142.0883,80.4369,1.4802,-3.2448,
14.6011,-14.2031,18.2448,-87.752,-55.7028,-95.8644,-161.8419,-27.5805,103.2924,61.6512,127.0883,95.4369,-13.5198,11.7552,
16.2247,0.79694,33.2448,-72.752,-40.7028,-80.8644,-146.8419,-42.5805,114.6501,46.6512,112.0883,109.2423,-28.5198,26.7552,
2.7039,-14.2031,18.2448,-87.752,-45.9682,-95.8644,-161.8419,-27.5805,99.6501,61.6512,127.0883,94.6407,-13.5198,11.7552,
-0.54093,-29.2031,3.2448,-102.752,-60.9682,-110.8644,-176.8419,-12.5805,84.6501,76.6512,142.0883,109.6407,1.4802,0.54093,
14.4591,-14.2031,18.2448,-87.752,-67.6001,-95.8644,-166.0259,-7.0302,69.6501,91.6512,157.0883,94.6407,-3.7857,-9.1934,
29.4591,0.79694,33.2448,-72.752,-52.6001,-80.8644,-151.0259,-22.0302,84.6501,76.6512,142.0883,79.6407,-9.7341,5.8066,
37.3146,9.1937,38.397,-70.8448,-37.6001,-65.8644,-136.8229,-37.0302,70.8443,61.6512,127.0883,80.5794,-18.9283,20.8066,
22.3146,-5.8063,23.397,-73.5487,-52.6001,-80.8644,-151.8229,-22.0302,56.2437,63.8151,112.0883,95.5794,-22.7135,35.8066,
7.3146,9.1937,18.9283,-64.3553,-67.6001,-95.8644,-166.8229,-18.9278,57.8657,78.8151,127.0883,110.5794,-26.4992,20.8066,
14.0607,3.2448,29.2036,-79.3553,-71.3855,-110.8644,-174.1378,-31.3662,50.8355,86.5283,113.568,95.5794,-11.4992,5.8066,
22.172,-2.7039,31.9072,-83.8247,-56.3855,-95.8644,-159.1378,-43.805,65.8355,71.5283,98.568,80.5794,1.6225,11.3566,
10.8159,-7.5714,25.9583,-68.8247,-63.8143,-110.8644,-155.7507,-28.805,80.8355,56.5283,83.568,86.5281,-10.8159,7.5714,
25.8159,7.4286,40.9583,-53.8247,-51.3759,-95.8644,-140.7507,-40.5599,95.8355,41.5283,74.0896,76.2533,-4.8676,4.8676,
40.8159,22.4286,55.9583,-48.6725,-36.3759,-80.8644,-125.7507,-55.5599,110.8355,26.5283,61.6506,68.1407,-19.8676,8.6528,
25.8159,7.4286,45.9679,-63.6725,-21.3759,-88.1504,-135.741,-40.5599,125.8355,41.5283,76.6506,83.1407,-4.8676,-0.54093,
10.8159,-7.5714,30.9679,-78.6725,-36.3759,-103.1504,-150.741,-25.5599,110.8355,56.5283,91.6506,98.1407,2.1632,7.5714,
4.8673,-8.1123,16.7646,-88.1509,-51.3759,-118.1504,-165.741,-10.5599,95.8355,71.5283,106.6506,111.9454,-4.8673,-5.9492,
19.8673,6.8877,31.7646,-73.1509,-36.3759,-103.1504,-150.741,-25.5599,110.8355,56.5283,91.6506,96.9454,-3.7852,3.7852,
34.8673,21.0912,46.7646,-58.1509,-21.3759,-88.1504,-135.741,-40.5599,125.8355,41.5283,76.6506,81.9454,-16.7648,18.7852,
27.5808,6.0912,31.7646,-73.1509,-36.3759,-103.1504,-150.741,-34.0704,110.8355,32.989,61.6506,75.1715,-31.7648,28.6626,
12.5808,-1.6223,16.7646,-88.1509,-51.3759,-118.1504,-165.741,-19.0704,95.8355,47.989,76.6506,90.1715,-25.4179,13.6626,
24.8769,-6.4896,30.2847,-103.1509,-66.3759,-133.1504,-180.741,-4.0704,80.8355,62.989,91.6506,81.1204,-11.8978,-1.3374,
39.8769,-4.8665,45.2847,-88.1509,-51.3759,-118.1504,-165.741,-19.0704,95.8355,47.989,76.6506,66.1204,3.1022,1.6225,
48.6715,5.4077,60.2847,-73.1509,-36.3759,-103.1504,-150.741,-34.0704,110.8355,32.989,61.6506,81.1204,-5.4077,16.6225,
33.6715,-5.408,45.2847,-58.1509,-51.3759,-88.1504,-135.741,-49.0704,95.8355,17.989,46.6506,96.1204,5.408,29.2036,
18.6715,-20.408,30.2847,-73.1509,-66.3759,-103.1504,-150.741,-34.0704,80.8355,32.989,61.6506,81.1204,0,14.2036,
15.1423,-35.408,15.2847,-88.1509,-81.3759,-118.1504,-165.741,-19.0704,65.8355,47.989,76.6506,66.1204,9.7346,-0.79643,
27.5811,-35.152,26.4992,-90.3135,-66.3759,-103.1504,-150.741,-5.9486,80.5789,36.2338,91.6506,79.4976,-4.8673,4.8673,
30.8248,-20.152,41.4992,-75.3135,-51.3759,-88.1504,-135.741,-20.9486,95.5789,21.2338,76.6506,94.4976,-19.8673,19.8673,
45.8248,-5.152,56.4992,-60.3135,-36.3759,-73.1504,-120.741,-35.9486,80.5789,6.2338,61.6506,109.4976,-13.5198,34.8673,
32.9888,-8.1118,41.4992,-75.3135,-51.3759,-88.1504,-135.741,-20.9486,65.5789,21.2338,76.6506,94.4976,1.4802,19.8673,
31.9074,-23.1118,26.4992,-90.3135,-66.3759,-103.1504,-150.741,-5.9486,50.5789,36.2338,91.6506,88.1504,15.6833,4.8673,
20.0094,-8.1118,23.2544,-75.3135,-81.3759,-106.538,-165.741,-9.1939,43.805,51.2338,101.1292,73.1504,0.68325,1.6225,
35.0094,6.8882,38.2544,-60.3135,-66.3759,-91.538,-150.741,-24.1939,58.805,36.2338,86.1292,63.2737,-14.3167,16.6225,
50.0094,21.8882,53.2544,-45.3135,-51.3759,-76.538,-135.741,-39.1939,73.805,21.2338,71.1292,78.2737,-14.6022,31.6225,
35.0094,6.8882,38.2544,-60.3135,-47.5907,-91.538,-150.741,-24.1939,64.8962,36.2338,86.1292,93.2737,-4.3264,35.6929,
20.0094,-8.1118,23.2544,-75.3135,-62.5907,-106.538,-165.741,-9.1939,49.8962,51.2338,101.1292,108.2737,10.6736,20.6929,
21.0915,-13.5201,31.9074,-82.7421,-76.2526,-121.538,-153.0465,-17.8464,64.8962,66.2338,116.1292,93.2737,13.5201,5.6929,
36.0915,1.4799,46.9074,-67.7421,-61.2526,-106.538,-138.0465,-32.8464,79.8962,51.2338,101.1292,78.2737,-1.4799,20.6929,
25.4176,11.3571,50.2945,-55.7028,-46.2526,-91.538,-123.0465,-26.4995,64.8962,36.2338,86.1292,89.2319,-11.3571,35.6929,
11.8978,-3.6429,35.2945,-61.6512,-61.2526,-106.538,-138.0465,-28.1209,49.8962,22.7143,75.7121,89.7726,-19.4682,20.6929,
9.7344,9.7344,34.6118,-74.6305,-76.2526,-121.538,-153.0465,-23.7948,34.8962,37.7143,90.7121,74.7726,-30.2849,5.6929,
19.4687,-2.1632,43.2643,-83.283,-61.2526,-108.16,-138.0465,-8.7948,48.672,52.7143,105.7121,60.5698,-15.2849,-4.3264,
8.6533,-17.1632,28.2643,-69.2226,-46.2526,-96.2627,-123.0465,-10.8159,47.5907,37.7143,90.7121,75.5698,-8.6533,10.6736,
20.0099,-2.1632,36.2335,-55.7023,-61.1105,-111.2627,-138.0465,-4.867,32.5907,37.3154,75.7121,90.5698,-16.7648,0.54067,
35.0099,12.8368,51.2335,-40.7023,-46.1105,-96.2627,-123.0465,-19.867,23.7946,22.3154,60.7121,75.5698,-1.7648,-11.8978,
50.0099,-0.54118,66.2335,-55.7023,-31.1105,-95.7215,-108.0465,-34.867,22.1731,7.3154,45.7121,60.5698,-12.438,0.54118,
42.1827,-15.5412,51.2335,-70.7023,-17.3058,-110.7215,-117.8943,-19.867,24.8767,22.3154,60.7121,68.141,-5.408,5.408,
27.1827,-16.2242,36.2335,-74.6308,-32.3058,-111.405,-132.8943,-4.867,9.8767,37.3154,75.7121,83.141,-20.408,0,
37.3151,-1.2242,51.2335,-73.008,-32.9888,-116.2723,-147.8943,10.133,-5.1233,52.3154,90.7121,68.141,-5.408,-8.1118,
52.3151,-5.9489,66.2335,-68.6819,-17.9888,-101.2723,-132.8943,-4.867,9.8767,37.3154,75.7121,53.141,8.1126,-21.0907,
67.3151,-1.6225,51.3754,-53.6819,-2.9888,-86.2723,-117.8943,-19.867,24.8767,22.3154,60.7121,53.5391,1.6225,-6.0907,
52.3151,-12.9794,36.3754,-60.5696,-17.9888,-101.2723,-128.7108,-25.9585,35.6926,7.3154,52.9987,68.5391,1.0816,8.9093,
37.3151,1.6223,37.3151,-75.5696,-32.9888,-116.2723,-143.7108,-10.9585,20.6926,22.3154,67.9987,53.5391,-1.6223,-6.0907,
51.9168,1.0816,47.5904,-90.5696,-47.9888,-131.2723,-158.7108,4.0415,5.6926,37.3154,82.9987,40.0195,-1.0816,-21.0907,
66.9168,-1.0819,62.5904,-75.5696,-32.9888,-116.2723,-143.7108,-10.9585,20.6926,22.3154,67.9987,55.0195,1.0819,-6.0907,
51.9168,13.9181,66.5187,-60.5696,-17.9888,-101.2723,-128.7108,-25.9585,35.6926,7.3154,52.9987,70.0195,-13.9181,8.9093,
51.3754,28.9181,67.5995,-45.5696,-32.9888,-86.2723,-113.7108,-40.9585,50.294,-7.6846,37.9987,64.3555,-1.6225,4.8665,
36.3754,13.9181,52.5995,-60.5696,-47.9888,-101.2723,-128.7108,-25.9585,35.294,7.3154,52.9987,49.3555,10.2753,-10.1335,
25.4176,-1.0819,37.5995,-75.5696,-62.9888,-116.2723,-143.7108,-10.9585,20.294,22.3154,67.9987,54.6209,25.2753,-25.1335,
10.4176,-11.3571,22.5995,-61.1105,-48.1313,-101.2723,-128.7108,-8.1121,24.3363,18.9275,82.7419,65.4363,10.2753,-17.8467,
22.1731,3.6429,37.5995,-46.1105,-33.1313,-86.2723,-113.7108,-23.1121,39.3363,3.9275,67.7419,66.5182,-4.7247,-2.8467,
36.2336,18.6429,52.5995,-32.9885,-18.1313,-71.2723,-98.7108,-38.1121,36.2336,-11.0725,52.7419,81.5182,-5.9489,12.1533,
21.2336,3.6429,37.5995,-47.9885,-33.1313,-86.2723,-113.7108,-23.1121,21.2336,3.9275,67.7419,87.6099,9.0511,3.245,
8.1118,-11.3571,22.5995,-62.9885,-48.1313,-101.2723,-128.7108,-8.1121,6.2336,18.9275,82.7419,102.6099,24.0511,-4.8673,
23.1118,1.0816,37.5995,-50.8355,-63.1313,-102.752,-139.5267,-1.0816,-3.2448,33.9275,97.7419,87.6099,14.0607,-19.8673,
38.1118,16.0816,52.5995,-35.8355,-48.1313,-87.752,-124.5267,-16.0816,11.7552,18.9275,82.7419,72.6099,-0.93927,-4.8673,
53.1118,27.5808,67.5995,-24.3358,-33.1313,-72.752,-109.5267,-31.0816,26.7552,3.9275,67.7419,66.5192,10.2753,10.1327,
38.1118,12.5808,52.5995,-39.3358,-48.1313,-87.752,-124.5267,-16.0816,11.7552,18.9275,82.7419,75.7116,2.1632,16.2237,
23.1118,10.8162,37.5995,-54.3358,-63.1313,-102.752,-139.5267,-1.0816,-3.2448,33.9275,97.7419,76.7937,3.2448,1.2237,
8.1118,-4.1838,35.6926,-69.3358,-58.4064,-113.5685,-150.3427,-12.9794,8.6525,48.9275,112.7419,61.7937,5.408,-13.7763,
22.1726,8.1121,50.6926,-54.3358,-43.4064,-98.5685,-135.3427,-27.9794,23.6525,33.9275,97.7419,49.2122,17.8462,1.2237,
15.6835,12.4385,62.1923,-39.3358,-43.805,-94.6402,-120.3427,-17.8462,8.6525,18.9275,82.7419,64.2122,15.6835,16.2237,
30.6835,27.4385,77.1923,-26.4989,-50.2945,-93.5588,-128.1699,-14.6022,-6.3475,3.9275,67.7419,57.866,20.0099,5.9484,
45.6835,12.4385,80.038,-41.4989,-48.672,-108.5588,-142.7715,-25.9588,5.4082,18.9275,82.7419,42.866,5.0099,-7.5709,
30.6835,-2.5615,65.038,-56.4989,-35.152,-123.5588,-127.7715,-11.3569,20.4082,33.9275,84.9058,42.7234,11.3569,-15.6833,
15.6835,-10.2758,50.038,-42.7231,-35.1517,-108.5588,-112.7715,-4.867,5.4082,18.9275,69.9058,57.7234,17.8462,-0.68325,
15.1423,0,58.4066,-57.7231,-46.5088,-109.2418,-127.7715,0,-9.5918,14.061,59.488,58.4066,17.3055,-10.8159,
30.1423,0.54067,68.6824,-61.11,-31.5088,-94.2418,-112.7715,-15,5.4082,-0.93901,44.488,43.4066,29.744,-25.8159,
45.1423,-3.2445,53.6824,-46.11,-16.5088,-79.2418,-97.7715,-30,20.4082,-15.939,29.488,28.4066,30.2852,-10.8159,
30.1423,-18.2445,38.6824,-61.11,-31.5088,-94.2418,-112.7715,-16.7648,5.4082,-0.93901,44.488,43.4066,16.7648,4.1841,
15.1423,-12.4382,23.6824,-73.008,-46.5088,-108.7009,-127.7715,-1.7648,-9.5918,14.061,59.488,58.4066,10.275,-4.8673,
16.2239,-15.1426,27.0399,-83.2833,-61.5088,-123.7009,-142.7715,13.2352,-24.5918,29.061,74.488,43.4066,15.1426,-17.3058,
26.4995,-17.8467,41.6423,-68.2833,-46.5088,-108.7009,-127.7715,-1.7648,-9.5918,14.061,59.488,28.4066,24.3358,-2.3058,
14.6011,-2.8467,36.233,-53.2833,-31.5088,-93.7009,-112.7715,-16.7648,5.4082,-0.93901,44.488,43.4066,20.0089,12.6942,
24.336,9.1937,35.1525,-38.2833,-42.7234,-78.7009,-97.7715,-27.581,-9.5918,-9.1937,48.1316,58.4066,35.0089,25.4173,
15.6833,-5.8063,34.0706,-53.2833,-57.7234,-93.7009,-112.7715,-12.581,-24.5918,5.8063,63.1316,43.4066,50.0089,10.4173,
9.7346,-20.8063,22.7137,-68.2833,-61.6512,-108.7009,-127.7715,2.419,-37.8561,20.8063,78.1316,58.4066,62.733,-4.5827,
4.8676,-5.8063,12.438,-53.2833,-46.6512,-93.7009,-112.7715,-12.581,-22.8561,5.8063,63.1316,73.0083,47.733,10.4173,
3.245,9.1937,27.438,-38.2833,-31.6512,-78.7009,-97.7715,-27.581,-7.8561,-9.1937,48.1316,58.0083,32.733,25.4173,
18.245,22.7137,42.438,-36.7747,-16.6512,-83.2836,-82.7715,-42.581,7.1439,-24.1937,33.1316,43.0083,25.9588,10.4173,
3.245,7.7137,27.438,-51.7747,-31.6512,-98.2836,-97.7715,-27.581,-3.7857,-9.1937,48.1316,58.0083,40.9588,-2.7039,
0.54067,-7.2863,12.438,-61.1105,-46.6512,-113.2836,-112.7715,-12.581,-18.7857,5.8063,63.1316,73.0083,55.9588,12.2961,
6.4896,7.7137,27.438,-46.1105,-56.2434,-98.2836,-105.9968,0,-8.6528,0,78.1316,59.4885,40.9588,-2.7039,
21.4896,22.7137,42.438,-31.1105,-41.2434,-83.2836,-90.9968,-15,6.3472,-15,63.1316,44.4885,25.9588,12.2961,
19.4687,7.7137,51.9171,-42.183,-26.2434,-81.1204,-76.794,-30,21.3472,-30,48.1316,50.8347,10.9588,27.2961,
4.4687,-7.2863,36.9171,-57.183,-41.2434,-96.1204,-91.794,-15,6.3472,-15,63.1316,65.8347,25.9588,34.0704,
0,7.5714,21.9171,-63.8143,-56.2434,-111.1204,-106.794,0,-8.6528,0,78.1316,80.8347,40.9588,19.0704,
15,-7.4286,26.4989,-78.8143,-41.2434,-126.1204,-105.4561,-10.2753,6.3472,15,93.1316,65.8347,55.7028,4.0704,
9.1934,-2.7044,41.4989,-63.8143,-26.2434,-111.1204,-90.4561,-25.2753,21.3472,0,78.1316,50.8347,40.7028,19.0704,
12.9797,10.8159,56.4989,-48.8143,-29.2028,-96.1204,-75.4561,-40.2753,11.8983,-15,63.1316,59.4885,37.8566,34.0704,
16.7648,-0.54067,44.8868,-48.1313,-44.2028,-111.1204,-90.4561,-25.2753,-3.1017,0,58.9473,49.2132,32.989,19.0704,
12.4385,-11.3566,42.7231,-63.1313,-59.2028,-126.1204,-105.4561,-10.2753,-18.1017,15,73.9473,34.2132,30.8258,4.0704,
8.1118,-21.0915,52.4575,-66.5185,-44.2028,-111.1204,-110.8641,2.7041,-18.9283,30,88.9473,42.7234,44.8866,-2.7041,
4.3264,-6.0915,52.9979,-51.5185,-29.2028,-96.1204,-95.8641,-11.8978,-3.9283,15,73.9473,57.7234,36.7737,12.2959,
4.3264,8.9085,43.2638,-36.5185,-40.0193,-89.7731,-99.5072,-4.3264,3.245,0,58.9473,68.1407,25.9583,18.3869,
19.3264,23.9085,58.2638,-35.6929,-25.0193,-74.7731,-84.5072,-1.0819,-11.755,-15,58.4061,53.1407,40.9583,3.3869,
34.3264,8.9085,57.3248,-50.6929,-14.061,-89.7731,-95.1808,-16.0819,-26.755,0,64.8962,38.1407,43.2643,14.061,
19.3264,-6.0915,42.3248,-65.6929,-29.061,-104.7731,-110.1808,-8.6528,-14.061,15,64.8957,44.3456,28.2643,19.4687,
4.3264,-3.245,27.3248,-50.6929,-34.611,-89.7731,-95.1808,3.245,-18.3869,4.3264,49.8957,59.3456,13.2643,21.6319,
12.9791,-18.245,42.3248,-65.6929,-36.7742,-104.7731,-108.16,12.9791,-33.3869,19.3264,61.6517,44.3456,19.4687,6.6319,
25.4171,-26.4995,48.1313,-65.4369,-21.7742,-89.7731,-93.16,-2.0209,-18.3869,4.3264,46.6517,29.3456,34.4687,-4.8676,
20.0099,-11.4995,33.1313,-50.4369,-6.7742,-74.7731,-78.16,-17.0209,-3.3869,-10.6736,31.6517,38.3967,24.3363,10.1324,
22.1731,-10.2753,27.5808,-42.7231,-21.7742,-89.7731,-77.3341,-15.683,-14.6017,4.3264,41.6418,30.8258,34.0704,10.2753,
11.3566,-10.2753,41.6413,-57.7231,-36.7742,-104.7731,-92.3341,-0.68299,-29.6017,19.3264,56.6418,15.8258,32.9885,-4.7247,
16.7648,-22.1731,35.1517,-72.7231,-51.7742,-119.7731,-107.3341,14.317,-44.6017,34.3264,71.6418,30.8258,37.3149,-16.7648,
7.5714,-27.0396,29.2033,-57.7231,-36.7742,-104.7731,-92.3341,-0.68299,-29.6017,19.3264,56.6418,45.4275,22.3149,-1.7648,
2.1632,-12.0396,44.2033,-42.7231,-21.7742,-89.7731,-77.3341,-15.683,-14.6017,4.3264,41.6418,60.4275,7.3149,13.2352,
17.1632,2.9604,59.2033,-27.7231,-28.6626,-75.1715,-62.3341,-8.1121,-29.6017,-9.1934,26.6418,71.9269,22.3149,8.1121,
22.1728,-12.0396,44.2033,-42.7231,-43.6626,-90.1715,-77.3341,6.8879,-44.6017,5.8066,41.6418,58.9476,37.3149,-6.8879,
7.1728,-27.0396,29.2033,-57.7231,-58.6626,-105.1715,-92.3341,21.8879,-59.6017,20.8066,56.6418,63.2734,52.3149,-1.6223,
-0.54067,-12.0396,38.3967,-42.7231,-43.6626,-92.4765,-81.6605,6.8879,-44.6017,5.8066,41.6418,48.2734,37.3149,0.54067,
14.4593,2.9604,53.3967,-27.7231,-28.6626,-77.4765,-66.6605,-8.1121,-29.6017,-9.1934,26.6418,33.2734,22.3149,7.0302,
20.0099,-3.7857,66.5187,-39.4781,-13.6626,-91.3951,-69.7632,-23.1121,-14.6017,-24.1934,11.6418,37.3154,10.2748,7.0308,
5.0099,-18.7857,51.5187,-54.4781,-26.4989,-106.3951,-84.7632,-8.1121,-29.6017,-9.1934,26.6418,52.3154,25.2748,20.0099,
4.8673,-4.8673,36.5187,-64.3553,-41.4989,-121.3951,-99.7632,6.8879,-44.6017,5.8066,41.6418,67.3154,38.397,5.0099,
19.8673,4.867,51.5187,-49.3553,-43.805,-116.2721,-96.8034,12.4385,-29.6017,-4.867,56.6418,52.3154,28.6626,-9.9901,
34.8673,19.867,66.5187,-34.3553,-28.805,-101.2721,-81.8034,-2.5615,-14.6017,-19.867,41.6418,37.3154,13.6626,5.0099,
49.8673,21.0917,73.0083,-19.3553,-13.805,-86.2721,-66.8034,-17.5615,0.39834,-34.867,26.6418,49.2127,-1.3374,20.0099,
34.8673,6.0917,58.0083,-32.9888,-28.805,-101.2721,-81.8034,-2.5615,-14.6017,-19.867,41.6418,63.2734,-2.7041,5.0099,
19.8673,-1.6223,43.0083,-47.9888,-43.805,-116.2721,-96.8034,12.4385,-29.6017,-4.867,56.6418,48.2734,5.9486,-9.9901,
21.6319,-15.1423,47.5902,-62.9888,-28.805,-124.3842,-111.405,20.5506,-19.4687,10.133,71.6418,33.2734,12.9791,-24.9901,
16.7643,-2.7039,54.6204,-47.9888,-13.805,-109.3842,-96.405,5.5506,-4.4687,-4.867,56.6418,41.6413,-2.0209,-9.9901,
14.0605,12.2961,51.9165,-32.9888,-17.3055,-94.3842,-81.405,-9.4494,0,-19.867,41.6418,56.6413,0,5.0099,
29.0605,1.0819,57.3248,-43.2643,-32.3055,-109.3842,-96.405,-1.0819,-15,-4.867,35.6929,41.6413,6.4896,-9.9901,
44.0605,-12.9791,72.3248,-58.2643,-23.7956,-124.3842,-111.405,13.9181,-30,10.133,50.6929,26.6413,18.3869,-24.9901,
29.0605,-23.7956,57.3248,-46.5088,-14.061,-112.4869,-96.405,28.9181,-17.3055,25.133,65.6929,41.1006,3.3869,-9.9901,
14.0605,-8.7956,44.8863,-31.5088,-9.1939,-97.4869,-81.405,13.9181,-2.3055,10.133,50.6929,49.2127,-11.6131,5.0099,
29.0605,6.2044,59.8863,-16.5088,-5.4082,-89.7731,-71.3858,20.55,-17.3055,-4.867,35.6929,36.7742,-4.3269,5.4082,
44.0605,7.0302,74.8863,-29.7445,9.5918,-89.2319,-56.3858,5.55,-32.3055,-19.867,35.1522,27.5808,10.6731,-9.5918,
50.8347,2.1632,59.8863,-28.1215,-5.4082,-83.2836,-61.6512,-2.1632,-20.5511,-6.4896,44.3456,42.1819,10.8159,5.4082,
35.8347,4.3264,44.8863,-23.7951,-20.4082,-93.0177,-76.6512,8.6528,-35.5511,8.5104,52.9989,27.1819,-4.1841,-4.3264,
40.5599,19.3264,59.8863,-8.7951,-24.3358,-78.0177,-67.5995,4.8676,-37.3149,-0.54118,40.5599,32.9885,-12.438,0.54118,
41.6413,4.3264,52.4577,-23.7951,-27.5808,-92.477,-82.5995,18.928,-52.3149,14.4588,55.5599,25.4176,-10.2753,-0.54067,
26.6413,-5.4082,41.1006,-28.1215,-12.5808,-77.477,-67.5995,3.928,-37.3149,-0.54118,40.5599,40.4176,-5.4082,14.4593,
11.6413,9.5918,37.3154,-13.1215,2.4192,-62.477,-52.5995,-11.072,-22.3149,-15.5412,25.5599,55.4176,-20.4082,29.4593,
21.6322,23.7953,52.3154,-6.4893,-12.5808,-74.6305,-58.4064,1.0816,-37.3149,-15.1426,40.5599,40.4176,-5.4082,14.4593,
26.4995,8.7953,50.294,-21.4893,-27.5808,-89.6305,-73.4064,16.0816,-52.3149,-0.14258,55.5599,25.4176,9.5918,-0.54067,
14.0607,-6.2047,45.4272,-36.4893,-42.5808,-104.6305,-88.4064,31.0816,-60.5696,14.8574,70.5599,40.4176,24.5918,-14.0607,
5.9484,8.1121,60.4272,-21.4893,-27.5808,-89.6305,-73.4064,16.0816,-45.5696,-0.14258,55.5599,42.7231,9.5918,0.93927,
-7.5714,23.1121,70.3034,-6.4893,-12.5808,-74.6305,-58.4064,1.0816,-30.5696,-15.1426,40.5599,27.7231,-5.4082,15.9393,
7.4286,8.1121,62.1918,-21.4893,2.4192,-89.6305,-56.7841,-13.9184,-15.5696,-30.1426,25.5599,35.1522,-4.8676,0.93927,
5.9489,-6.8879,47.1918,-36.4893,-12.5808,-104.6305,-71.7841,1.0816,-30.5696,-15.1426,40.5599,50.1522,10.1324,-5.9489,
3.7857,-9.1939,32.1918,-31.9072,-27.5808,-119.6305,-86.7841,16.0816,-45.5696,-0.14258,55.5599,65.1522,23.2544,-3.7857,
13.5198,5.8061,47.1918,-16.9072,-26.4989,-104.6305,-84.9056,1.0816,-30.5696,-15.1426,49.2132,50.1522,8.2544,-17.8462,
27.5808,8.1116,62.1918,-3.7852,-11.4989,-89.6305,-69.9056,-13.9184,-15.5696,-30.1426,34.2132,35.1522,-6.7456,-2.8462,
42.1819,4.3259,77.1918,-5.4082,3.2445,-96.2627,-54.9056,-19.4687,-0.56956,-45.1426,19.2132,44.3456,-3.2445,12.1538,
27.1819,4.867,62.1918,-20.0094,-11.7555,-111.2627,-69.9056,-4.4687,-15.5696,-30.1426,34.2132,59.3456,0.54067,-0.54067,
12.1819,3.2448,50.8349,-35.0094,-26.7555,-126.2627,-84.9056,10.5313,-30.5696,-15.1426,49.2132,74.3456,15.5407,-15.5407,
24.3358,-9.1934,65.8349,-40.5599,-11.7555,-115.1902,-81.6605,21.0917,-45.5696,-5.9489,64.2132,59.3456,15.683,-27.5808,
10.8159,5.4082,71.3863,-25.5599,3.2445,-100.1902,-66.6605,6.0917,-30.5696,-20.9489,49.2132,44.3456,0.68299,-12.5808,
21.6324,20.4082,83.283,-10.5599,-11.7555,-85.1902,-51.6605,-8.9083,-15.5696,-35.9489,34.2132,46.5093,-14.317,2.4192,
12.9797,5.4082,68.283,-18.3874,-26.7555,-100.1902,-66.6605,6.0917,-30.5696,-20.9489,49.2132,31.5093,-3.2445,-12.5808,
25.9585,-9.5918,53.283,-33.3874,-41.7555,-115.1902,-81.6605,21.0917,-45.5696,-5.9489,64.2132,25.9585,11.7555,-27.5808,
10.9585,-24.5918,41.642,-40.5602,-26.7555,-101.13,-66.6605,35.152,-30.5696,9.0511,79.2132,32.9888,-0.54093,-12.5808,
-4.0415,-9.5918,55.1611,-25.5602,-11.7555,-86.13,-51.6605,20.152,-15.5696,-5.9489,64.2132,47.9888,-15.5409,2.4192,
9.1934,5.4082,70.1611,-10.5602,3.2445,-71.13,-48.1308,5.152,-10.2748,-20.9489,49.2132,62.9888,-12.4385,17.4192,
24.1934,-9.1934,55.1611,-25.5602,-2.7044,-86.13,-63.1308,2.7044,-25.2748,-5.9489,55.7023,47.9888,2.5615,2.4192,
24.3358,-24.1934,40.1611,-40.5602,-17.7044,-101.13,-78.1308,17.7044,-40.2748,9.0511,70.7023,32.9888,8.1121,-8.1121,
9.3358,-16.2239,25.9585,-25.5602,-32.4481,-109.2421,-86.5283,32.7044,-25.2748,24.0511,75.7119,47.9888,-1.0816,6.8879,
-2.7039,-1.2239,40.9585,-10.5602,-17.4481,-94.2421,-71.5283,17.7044,-10.2748,9.0511,60.7119,50.2951,-16.0816,21.8879,
12.2961,11.3566,55.9585,-0.54118,-2.7039,-79.2421,-56.5283,13.5203,-25.2748,-5.9489,45.7119,41.6413,-27.5808,21.0917,
14.6011,-3.6434,49.2132,-15.5412,12.2961,-78.4165,-41.5283,0.54067,-27.5813,-20.9489,30.8253,56.6413,-12.5808,36.0917,
-0.39886,7.0308,34.2132,-0.54118,-1.623,-71.9264,-27.5813,0.54067,-15.6835,-35.9489,37.3154,71.6413,2.4192,41.6418,
5.4082,4.3264,46.5088,-2.1632,-16.623,-86.9264,-42.5813,2.1632,-30.6835,-27.0401,43.2638,56.6413,10.8159,26.6418,
20.0094,11.3566,61.5088,-12.439,-29.7445,-97.8852,-57.5813,5.9489,-45.6835,-26.4995,28.2638,41.6413,4.8676,11.6418,
9.1934,-3.6434,46.5088,-23.2544,-21.0912,-112.8852,-72.5813,20.9489,-60.6835,-11.4995,43.2638,26.6413,-1.6225,1.6225,
-5.8066,9.7346,46.5083,-8.2544,-6.0912,-97.8852,-57.5813,5.9489,-45.6835,-26.4995,28.2638,37.8556,-16.6225,16.6225,
-10.8159,24.7346,61.5083,6.7456,8.9088,-82.8852,-42.5813,-9.0511,-30.6835,-41.4995,13.2638,52.8556,-31.6225,31.6225,
1.6225,18.928,58.9468,-8.2544,-1.6225,-95.722,-54.6209,5.9489,-45.6835,-32.989,28.2638,37.8556,-16.6225,16.6225,
7.0305,3.928,43.9468,-23.2544,-7.0305,-110.722,-69.6209,20.9489,-60.6835,-17.989,43.2638,52.8556,-1.6225,1.6225,
-3.7855,-2.7041,32.9888,-27.5811,-22.0305,-125.722,-84.6209,35.9489,-75.6835,-2.989,58.2638,67.8556,13.3775,2.7041,
7.0302,12.2959,47.9888,-12.5811,-7.0305,-110.722,-69.6209,20.9489,-60.6835,-17.989,43.2638,52.8556,-1.6225,5.9489,
12.9786,27.2959,62.9888,2.4189,7.9695,-95.722,-54.6209,5.9489,-45.6835,-32.989,28.2638,37.8556,-16.6225,16.2237,
14.061,12.2959,67.0589,-12.5811,22.9695,-82.2017,-54.0797,3.2445,-30.6835,-47.989,13.2638,45.427,-3.2445,27.0401,
-0.93901,-2.7041,52.0589,-27.5811,7.9695,-97.2017,-69.0797,18.2445,-45.6835,-32.989,28.2638,60.427,7.0302,14.6017,
-3.2448,3.2448,37.0589,-27.0399,-7.0305,-112.2017,-84.0797,33.2445,-60.6835,-17.989,43.2638,71.3855,19.469,-0.39834,
11.7552,17.3055,52.0589,-24.8769,7.9695,-97.2017,-69.0797,18.2445,-45.6835,-32.989,31.367,56.3855,22.7143,-15.3983,
26.7552,19.4692,67.0589,-9.8769,22.9695,-82.2017,-54.0797,3.2445,-30.6835,-47.989,16.367,41.3855,7.7143,-0.39834,
41.1006,16.2237,55.1611,5.1231,15.1423,-72.4676,-39.0797,-6.4896,-24.8764,-62.989,1.367,28.1215,-7.2857,14.6017,
26.1006,12.9797,40.1611,-9.8769,0.14232,-87.4676,-54.0797,8.5104,-39.8764,-47.989,16.367,35.6929,-15.1423,0,
11.1006,-1.0816,33.5299,-24.8769,-14.8577,-102.4676,-69.0797,23.5104,-54.8764,-32.989,31.367,23.7953,-0.14233,-15,
0.54067,-16.0816,30.8253,-39.8769,0.14232,-104.3743,-84.0797,26.4989,-49.2127,-17.989,46.367,8.7953,3.7857,-23.2544,
-12.438,-1.0816,45.8253,-24.8769,15.1423,-89.3743,-69.0797,11.4989,-34.2127,-32.989,31.367,23.7953,-11.2143,-8.2544,
2.562,13.9184,60.8253,-9.8769,12.4385,-74.3743,-54.0797,-3.5011,-44.8858,-47.989,16.367,38.7953,-3.7857,6.7456,
17.562,-1.0816,52.9984,-24.8769,5.4082,-89.3743,-68.1407,11.4989,-59.8858,-32.989,31.367,23.7953,11.2143,-8.2544,
32.562,-16.0816,37.9984,-39.8769,-7.0305,-104.3743,-83.1407,26.4989,-74.8858,-17.989,46.367,8.7953,26.2143,-7.0305,
17.562,-28.6624,22.9984,-43.8047,0.54093,-104.3745,-68.1407,30.8261,-89.8858,-2.989,35.1525,11.3569,11.2143,-0.54093,
2.562,-13.6624,37.9984,-28.8047,15.5409,-89.3745,-53.1407,15.8261,-74.8858,-17.989,20.1525,26.3569,-3.7857,14.4591,
-0.54118,1.3376,52.9984,-13.8047,28.6621,-74.3745,-38.3973,0.82609,-59.8858,-32.989,5.1525,14.6017,-15.683,26.4995,
11.3571,-10.2748,37.9984,-28.8047,13.6621,-89.3745,-53.3973,0.54067,-74.8858,-20.0099,3.7857,5.9484,-0.68299,11.4995,
10.275,-13.5201,22.9984,-40.5602,-1.3379,-104.3745,-68.3973,15.5407,-89.8858,-5.0099,18.7857,20.9484,14.317,11.3569,
-4.725,1.4799,16.7646,-25.5602,-16.3379,-89.3745,-69.7635,30.5407,-98.9668,9.9901,12.4382,5.9484,12.4382,-3.6431,
10.275,16.4799,31.7646,-10.5602,-1.3379,-74.3745,-54.7635,15.5407,-83.9668,-5.0099,-2.5618,5.9489,-2.5618,10.2753,
24.8774,1.4799,38.9379,-11.8973,-1.0819,-85.4462,-44.3456,12.9797,-98.9668,-20.0099,-17.5618,9.7346,2.1632,10.8159,
9.8774,-1.622,26.4989,0.54067,3.7857,-96.8034,-59.3456,-0.54067,-97.8847,-35.0099,-32.5618,24.7346,16.7648,25.4176,
-5.1226,13.378,33.5297,15.5407,0,-90.855,-44.3456,0,-82.8847,-50.0099,-27.0396,39.7346,5.4077,32.4484,
-7.5712,19.469,40.019,0.54067,-14.0607,-103.8339,-51.9168,15,-72.4674,-35.0099,-12.0396,24.7346,20.4077,17.4484,
4.8676,4.469,38.3973,-14.4593,0.54118,-105.4561,-66.9168,30,-70.8451,-20.0099,2.9604,9.7346,35.4077,2.4484,
-10.1324,-4.867,23.3973,-9.1939,-14.4588,-120.4561,-81.9168,38.3967,-73.0083,-5.0099,17.9604,24.7346,38.3967,4.867,
1.0819,10.133,38.3973,5.8061,-4.3269,-105.4561,-66.9168,23.3967,-58.0083,-20.0099,2.9604,39.7346,23.3967,19.867,
11.8973,25.133,53.3973,20.8061,10.6731,-90.4561,-51.9168,8.3967,-43.0083,-35.0099,-12.0396,24.7346,8.3967,31.3665,
11.8975,10.133,54.08,5.8061,25.6731,-97.3438,-54.08,15.1426,-58.0083,-20.0099,-24.8767,14.0612,12.9799,16.3665,
1.6225,-4.867,39.08,-9.1939,10.6731,-112.3438,-69.08,30.1426,-73.0083,-5.0099,-9.8767,29.0612,27.9799,1.3665,
5.408,-5.408,24.8767,-24.1939,-4.3269,-127.3438,-84.08,45.1426,-88.0083,9.9901,5.1233,44.0612,42.9799,-13.6335,
20.408,9.592,39.8767,-9.1939,10.6731,-112.3438,-69.08,30.1426,-73.0083,-5.0099,-9.8767,29.0612,45.427,1.3665,
35.408,23.2549,54.8767,5.8061,25.6731,-97.3438,-54.08,15.1426,-58.0083,-20.0099,-24.8767,14.0612,30.427,16.3665,
26.4989,8.2549,39.8767,-9.1939,10.6731,-105.4561,-67.6001,12.4385,-56.7841,-35.0099,-39.8767,20.0099,15.427,29.744,
11.4989,4.3264,24.8767,-24.1939,-4.3269,-120.4561,-82.6001,27.4385,-71.7841,-20.0099,-24.8767,35.0099,15.1423,14.744,
7.5712,-7.5712,12.9794,-39.1939,-19.3269,-135.4561,-97.6001,42.4385,-86.7841,-5.0099,-9.8767,27.0404,30.1423,-0.25602,
22.5712,-7.0297,27.9794,-29.744,-4.3269,-120.4561,-82.6001,27.4385,-71.7841,-20.0099,5.1233,12.0404,45.1423,-4.867,
8.1121,-11.3571,42.7231,-14.744,10.6731,-105.4561,-67.6001,12.4385,-56.7841,-35.0099,-9.8767,0.54067,30.1423,10.133,
8.6528,3.6429,32.4484,0.25602,-4.3269,-90.4561,-52.6001,-2.5615,-70.3034,-50.0099,-24.8767,15.5407,31.367,25.133,
22.714,-1.0816,23.7953,-14.744,-19.3269,-103.8333,-67.6001,12.4385,-85.3034,-35.0099,-9.8767,1.0816,44.3459,10.133,
37.714,-9.1939,28.6621,-29.744,-20.0099,-118.8333,-82.6001,27.4385,-100.3034,-20.0099,5.1233,5.9489,59.3459,-4.867,
22.714,-24.1939,13.6621,-44.744,-8.1118,-119.5169,-69.7635,42.4385,-85.3034,-5.0099,20.1233,4.8673,44.3459,0.54093,
7.714,-9.1939,28.6621,-29.744,6.8882,-104.5169,-54.7635,27.4385,-70.3034,-20.0099,5.1233,19.8673,29.3459,15.5409,
-7.286,5.8061,40.5599,-14.744,15.683,-89.5169,-39.7635,12.4385,-80.5797,-35.0099,-9.8767,24.3358,14.3459,23.2544,
7.714,-9.1939,25.5599,-29.744,0.68299,-104.5169,-54.7635,27.4385,-95.5797,-20.0099,5.1233,9.3358,29.3459,8.2544,
22.714,-24.1939,10.5599,-44.744,-14.317,-119.5169,-69.7635,42.4385,-110.5797,-5.0099,20.1233,24.3358,44.3459,-3.2448,
8.653,-9.1939,15.1426,-29.744,-29.317,-104.5169,-69.2223,35.6926,-122.2207,7.5712,10.8162,9.3358,29.3459,-6.4893,
23.653,5.8061,30.1426,-14.744,-14.317,-89.5169,-54.2223,20.6926,-107.2207,-7.4288,-4.1838,-1.0813,14.3459,8.5107,
38.653,1.622,43.8045,-13.5198,0.68299,-74.5169,-39.2223,5.6926,-92.2207,-22.4288,-19.1838,-1.622,13.5198,10.2758,
23.653,-13.378,28.8045,-28.5198,0.54118,-89.5169,-54.2223,20.6926,-77.2207,-7.4288,-10.2753,13.378,28.5198,25.2758,
8.653,1.622,13.8045,-13.5198,-14.4588,-104.5169,-68.6819,27.5808,-89.2325,7.5712,4.7247,28.378,40.5599,10.2758,
19.4687,11.8973,27.0396,-19.4692,-29.4588,-97.3445,-55.1621,24.8764,-87.6099,4.3264,9.7341,13.378,51.9171,-4.7242,
24.8769,10.8154,42.0396,-16.2242,-14.4588,-82.3445,-40.1621,10.8154,-72.6099,-10.6736,-5.2659,-1.622,50.8352,10.2758,
15.1423,6.4896,33.5292,-9.7346,-6.4896,-93.0182,-44.3462,25.8154,-64.8967,-22.7143,-20.2659,13.378,61.6512,25.2758,
13.5198,12.4385,34.0704,0.54067,-21.4896,-107.6188,-59.3462,10.8154,-64.355,-37.7143,-35.2659,17.8462,46.6512,10.2758,
18.9275,27.4385,49.0704,9.1934,-9.1934,-97.8847,-45.9682,-4.1846,-49.355,-52.7143,-40.5604,27.5813,31.6512,22.1726,
3.9275,12.4385,34.0704,-5.8066,-2.1629,-100.5888,-60.9682,10.8154,-58.4064,-37.7143,-25.5604,12.5813,41.1014,7.1726,
-7.0313,-2.5615,19.0704,-20.8066,-2.7039,-107.6198,-68.6819,25.8154,-73.4064,-22.7143,-10.5604,27.5813,56.1014,2.7039,
-11.3569,-7.0305,7.0305,-17.8464,-17.7039,-122.6198,-83.6819,40.8154,-88.4064,-7.7143,4.4396,42.5813,56.7838,9.1937,
3.6431,7.9695,22.0305,-2.8464,-2.7039,-107.6198,-68.6819,25.8154,-73.4064,-22.7143,-10.5604,27.5813,41.7838,4.3259,
18.6431,22.9695,37.0305,8.1121,12.2961,-92.6198,-53.6819,10.8154,-58.4064,-37.7143,-25.5604,12.5813,26.7838,19.3259,
13.5201,7.9695,29.7442,-6.8879,8.1118,-95.7218,-50.2943,25.8154,-64.3553,-22.7143,-16.7646,26.4992,36.2333,28.6629,
-1.4799,-7.0305,14.7442,-21.8879,-6.8882,-110.3229,-65.2943,40.8154,-79.3553,-7.7143,-1.7646,41.4992,51.2333,18.3876,
7.5714,-7.5714,27.0401,-36.8879,-21.8882,-122.221,-80.2943,55.8154,-94.3553,7.2857,13.2354,29.2033,44.3456,3.3876,
22.5714,7.4286,42.0401,-21.8879,-6.8882,-107.221,-65.2943,40.8154,-79.3553,-7.7143,-1.7646,14.2033,48.6715,7.5714,
35.1527,0.54067,38.3967,-6.8879,8.1118,-92.221,-50.2943,25.8154,-64.3553,-22.7143,-16.7646,-0.79669,33.6715,22.5714,
24.3358,7.0302,28.6621,-7.0302,-6.8882,-77.221,-44.8863,18.928,-79.3553,-37.7143,-31.7646,14.2033,39.4786,37.5714,
9.3358,7.0305,13.6621,-22.0302,-21.8882,-92.221,-59.8863,33.928,-94.3553,-22.7143,-16.7646,22.1728,49.2135,22.5714,
14.0607,-7.9695,5.408,-37.0302,-36.8882,-107.221,-74.8863,48.928,-109.3553,-7.7143,-1.7646,25.9585,64.2135,7.5714,
9.1934,-22.9695,2.7044,-52.0302,-21.8882,-92.221,-59.8863,33.928,-94.3553,-22.7143,1.622,26.4989,49.2135,22.5714,
-5.8066,-7.9695,17.7044,-37.0302,-6.8882,-77.221,-44.8863,18.928,-79.3553,-37.7143,-13.378,41.4989,34.2135,37.5714,
-7.0302,7.0305,31.9072,-22.0302,-2.7039,-62.221,-29.8863,3.928,-73.0083,-52.7143,-28.378,35.1522,19.2135,34.0709,
7.9698,-7.9695,16.9072,-37.0302,-15.1423,-77.221,-44.8863,18.928,-88.0083,-37.7143,-13.378,20.1522,34.2135,19.0709,
21.6322,-22.9695,1.9072,-52.0302,-30.1423,-92.221,-59.8863,33.928,-103.0083,-22.7143,1.622,29.2036,49.2135,7.5712,
7.0302,-12.4385,-7.0302,-37.0302,-15.1423,-84.9056,-48.1313,48.928,-88.0083,-7.7143,16.622,35.1517,61.11,22.5712,
-7.9698,2.5615,7.9698,-22.0302,-0.14233,-69.9056,-33.1313,33.928,-73.0083,-22.7143,1.622,20.1517,46.11,32.988,
7.0302,5.9489,22.9698,-12.439,14.8577,-54.9056,-18.1313,18.928,-70.8456,-37.7143,-13.378,26.4984,31.11,47.988,
-7.9698,-9.0511,7.9698,-27.439,10.2753,-69.9056,-33.1313,31.9072,-85.8456,-22.7143,1.622,41.4984,46.11,43.805,
-2.1632,2.1632,-7.0302,-32.4478,-4.7247,-84.9056,-47.5902,46.9072,-93.0177,-7.7143,16.622,56.4984,61.11,48.672,
-3.7855,9.1937,0.54093,-18.9283,-19.7247,-69.9056,-36.2338,58.947,-79.4976,7.2857,31.622,41.4984,57.8657,33.672,
4.867,18.9275,15.5409,-10.2748,-4.7247,-54.9056,-21.2338,43.947,-64.4976,-7.7143,16.622,26.4984,42.8657,28.6626,
10.2758,3.9275,17.8472,-20.0089,-0.54067,-65.4363,-17.8462,28.947,-70.8441,-22.7143,1.622,23.2549,27.8657,43.6626,
1.0819,14.061,12.9786,-5.4082,-15.5407,-80.4363,-32.8462,37.8556,-71.3858,-7.7143,-1.0819,38.2549,42.8657,38.9379,
-13.9181,25.9583,-2.0214,-20.4082,-30.5407,-95.4363,-47.8462,31.367,-86.3858,7.2857,13.9181,52.9989,27.8657,23.9379,
-3.7857,10.9583,5.9489,-35.4082,-15.5407,-97.8852,-49.2132,31.9072,-75.1715,3.7857,8.1121,37.9989,42.8657,8.9379,
3.2445,-3.2445,9.7346,-21.6324,-0.54067,-82.8852,-34.6115,40.0193,-60.1715,-11.2143,-6.8879,22.9989,55.1621,16.2237,
-1.0813,11.7555,5.4077,-6.6324,-15.5407,-87.6099,-49.6115,55.0193,-75.1715,-26.2143,-21.8879,37.9989,46.5088,19.4682,
11.8978,26.7555,20.4077,1.0813,-20.5506,-72.6099,-45.4275,40.0193,-86.5286,-41.2143,-36.8879,22.9989,31.5088,4.4682,
26.8978,33.5292,35.4077,-5.4082,-5.5506,-57.6099,-30.4275,25.0193,-71.5286,-56.2143,-51.8879,7.9989,27.0391,19.4682,
11.8978,18.5292,20.4077,-20.4082,9.4494,-72.6099,-41.6415,40.0193,-57.8657,-71.2143,-36.8879,13.5201,34.0706,11.3569,
7.0302,3.5292,5.4077,-14.6017,2.7039,-71.9269,-41.6418,55.0193,-72.8657,-86.2143,-21.8879,28.5201,49.0706,26.3569,
9.1934,2.7039,9.1934,-29.6017,-12.2961,-86.9269,-56.6418,70.0193,-87.8657,-101.2143,-6.8879,32.989,42.7231,11.3569,
24.1934,17.7039,24.1934,-14.6017,2.7039,-71.9269,-41.6418,55.0193,-81.1199,-116.2143,-21.8879,17.989,45.4275,1.0813,
39.1934,2.7039,34.0698,-2.7039,17.7039,-56.9269,-26.6418,40.0193,-66.1199,-131.2143,-36.8879,2.989,30.4275,16.0813,
41.1006,-2.1632,19.0698,-17.7039,2.7039,-71.9269,-41.1006,55.0193,-81.1199,-146.2143,-37.8561,17.989,45.4275,31.0813,
26.1006,12.8368,4.0698,-32.7039,-12.2961,-86.9269,-56.1006,70.0193,-96.1199,-131.2143,-22.8561,32.989,60.4275,16.0813,
34.6113,8.653,14.0607,-47.7039,-27.2961,-101.9269,-71.1006,85.0193,-111.1199,-116.2143,-7.8561,17.989,45.4275,1.0813,
45.427,-3.2445,29.0607,-32.7039,-12.2961,-86.9269,-56.1006,70.0193,-96.1199,-131.2143,-22.8561,3.2445,34.6115,16.0813,
30.427,-6.4896,14.0607,-17.7039,2.7039,-71.9269,-41.1006,55.0193,-81.1199,-146.2143,-37.8561,-3.2445,19.6115,31.0813,
15.427,5.4082,9.7346,-2.7039,-12.2961,-61.6512,-43.2643,40.0193,-96.1199,-161.2143,-52.8561,-3.2445,22.7137,16.0813,
30.427,18.928,24.7346,-17.7039,-27.2961,-76.6512,-58.2643,55.0193,-111.1199,-146.2143,-37.8561,-1.6225,37.7137,1.6225,
21.091,3.928,10.275,-32.7039,-42.2961,-91.6512,-73.2643,70.0193,-126.1199,-131.2143,-22.8561,0.54093,52.7137,-0.54093,
9.7351,-11.072,9.7351,-32.4473,-27.2961,-76.7935,-58.2643,68.1407,-111.1199,-146.2143,-7.8561,15.5409,41.1011,14.4591,
-5.2649,3.928,18.928,-17.4473,-12.2961,-61.7935,-43.2643,53.1407,-96.1199,-161.2143,-22.8561,21.0917,26.1011,29.4591,
9.7351,18.928,33.928,-2.4473,2.7039,-61.6512,-28.2643,38.1407,-81.1199,-176.2143,-37.8561,10.8159,11.1011,14.4591,
24.7351,3.928,18.928,-17.4473,-2.1632,-76.6512,-43.2643,53.1407,-96.1199,-161.2143,-22.8561,17.3055,26.1011,0,
21.6322,-10.8162,3.928,-32.4473,-17.1632,-91.6512,-58.2643,68.1407,-111.1199,-146.2143,-7.8561,29.2031,41.1011,10.8162,
36.6322,4.1838,18.928,-17.4473,-19.4687,-76.6512,-43.2643,83.1407,-96.1199,-138.4446,7.1439,14.2031,49.7534,2.1632,
35.6934,19.1838,33.928,-2.4473,-4.4687,-61.6512,-28.2643,68.1407,-81.1199,-153.4446,-7.8561,-0.79694,34.7534,16.2242,
43.2638,18.3869,42.1824,0,10.5313,-56.244,-13.2643,53.1407,-96.1199,-168.4446,-22.8561,-15.7969,19.7534,31.2242,
28.2638,5.9489,27.1824,-15,-4.4687,-71.244,-28.2643,68.1407,-104.3748,-153.4446,-7.8561,-0.79694,21.0907,29.7435,
14.0607,20.9489,12.1824,-20.5503,-19.4687,-86.244,-43.2643,83.1407,-119.3748,-138.4446,7.1439,14.2031,36.0907,14.7435,
29.0607,35.9489,27.1824,-5.5503,-4.4687,-71.244,-28.2643,97.344,-104.3748,-134.1183,22.1439,-0.79694,51.0907,-0.25653,
17.3055,20.9489,24.8769,-16.2242,10.5313,-59.488,-13.2643,82.344,-89.3748,-149.1183,7.1439,-15.7969,36.0907,11.8978,
25.4181,17.8467,31.9072,-1.2242,-4.4687,-74.488,-18.928,67.344,-82.7424,-164.1183,-7.8561,-5.9489,21.0907,26.8978,
24.3358,20.0094,32.9885,-1.6225,-19.4687,-89.488,-33.928,70.8446,-97.7424,-179.1183,-22.8561,1.6225,12.438,11.8978,
39.3358,35.0094,47.9885,-11.8978,-7.5714,-104.488,-48.928,78.9572,-111.4045,-164.1183,-7.8561,-4.3264,20.5506,5.4087,
40.5599,20.0094,44.8863,-21.0912,7.4286,-89.488,-35.1517,93.5583,-96.4045,-149.1183,1.6225,-7.0302,35.5506,-1.6225,
25.5599,5.0094,29.8863,-6.0912,7.0302,-74.488,-32.9895,78.5583,-81.661,-164.1183,-13.3775,7.9698,26.4995,13.3775,
14.6017,11.3566,21.0917,-7.0302,-7.9698,-89.488,-47.9895,77.3347,-96.661,-171.4337,-28.3775,10.2753,23.2544,7.0302,
29.6017,26.3566,36.0917,-4.867,7.0302,-74.488,-32.9895,62.3347,-111.661,-186.4337,-43.3775,-4.7247,30.8253,-7.9698,
44.6017,11.3566,47.5907,-11.8973,22.0302,-68.1402,-17.9895,47.3347,-100.5886,-201.4337,-58.3775,-19.7247,15.8253,-2.1632,
55.1621,-2.1632,32.5907,-7.5714,7.0302,-83.1402,-32.9895,62.3347,-85.5886,-186.4337,-43.3775,-4.7247,14.061,12.8368,
40.1621,0.54067,17.5907,-21.0912,-7.9698,-98.1402,-47.9895,77.3347,-100.5886,-171.4337,-28.3775,10.2753,12.4385,9.1934,
55.1621,15.5407,32.5907,-12.4382,2.7041,-103.2927,-40.5602,92.3347,-115.5886,-156.4337,-13.3775,-4.7247,27.4385,-2.7041,
68.6809,11.3566,47.5907,-11.3566,17.7041,-88.2927,-25.5602,77.3347,-100.5886,-171.4337,-28.3775,-19.7247,40.5599,-17.7041,
53.6809,1.622,32.5907,3.6434,28.6626,-73.2927,-10.5602,62.3347,-85.5886,-186.4337,-43.3775,-34.7247,25.5599,-2.7041,
57.3248,16.2247,30.2852,10.8159,13.6626,-78.9567,-10.8159,57.3248,-100.5886,-193.6062,-58.3775,-19.7247,22.7137,12.2959,
71.3855,31.2247,45.2852,1.0816,-1.3374,-93.9567,-25.8159,72.3248,-115.5886,-178.6062,-43.3775,-9.7344,37.7137,-1.0816,
64.3553,29.7442,40.5602,-13.9184,-3.7855,-108.9567,-40.8159,87.3248,-130.5886,-163.6062,-28.3775,-24.7344,52.7137,-16.0816,
49.3553,14.7442,25.5602,-10.2753,11.2145,-93.9567,-25.8159,72.3248,-115.5886,-178.6062,-43.3775,-36.2336,37.7137,-1.0816,
34.3553,23.7956,32.4484,4.7247,19.4692,-78.9567,-10.8159,57.3248,-100.5886,-193.6062,-58.3775,-21.2336,22.7137,13.9184,
42.183,24.8764,41.1006,-2.1632,4.4692,-93.9567,4.1841,42.3248,-115.5886,-208.6062,-73.3775,-35.6929,16.2237,-1.0816,
57.183,9.8764,36.7742,-17.1632,3.245,-108.9567,-10.8159,57.3248,-130.5886,-193.6062,-58.3775,-42.1824,31.2237,-16.0816,
68.6816,8.1118,39.4783,-15.6833,-8.1118,-118.4355,-25.4179,72.3248,-145.5886,-178.6062,-43.3775,-27.1824,46.2237,-10.275,
53.6816,13.5203,25.4181,-0.68325,-7.0302,-103.4355,-10.4179,60.0291,-130.5886,-163.6062,-45.9676,-42.1824,31.2237,-25.275,
65.4369,28.5203,40.4181,14.3167,7.9698,-88.4355,4.5821,45.0291,-115.5886,-178.6062,-60.9676,-44.8863,16.2237,-10.275,
50.4369,13.5203,55.4181,9.1934,22.9698,-96.8034,-0.54067,30.0291,-100.5886,-183.3309,-75.9676,-57.8649,1.623,0.54067,
35.4369,-1.4797,40.4181,-5.8066,7.9698,-111.8034,-15.5407,45.0291,-115.5886,-168.3309,-60.9676,-42.8649,16.623,-0.54093,
31.3662,5.408,25.4181,-20.8066,-7.0302,-126.8034,-30.5407,60.0291,-130.5886,-153.3309,-45.9676,-27.8649,31.623,-15.5409,
46.3662,20.408,40.4181,-5.8066,-3.245,-111.8034,-15.5407,75.0291,-135.2006,-138.3309,-30.9676,-41.1011,46.623,-30.5409,
49.2127,31.9072,55.4181,2.7039,11.755,-96.8034,-0.54067,60.0291,-120.2006,-153.3309,-45.9676,-56.1011,31.623,-15.5409,
34.2127,16.9072,40.4181,-8.1126,2.7039,-83.8247,14.4593,45.0291,-128.1699,-168.3309,-60.9676,-71.1011,16.623,-0.54093,
45.9682,31.9072,39.4791,6.8874,-10.2748,-98.8247,-0.54067,60.0291,-143.1699,-153.3309,-45.9676,-56.1011,31.623,9.1934,
30.9682,18.3874,24.4791,-8.1126,-25.2748,-113.8247,-15.5407,75.0291,-158.1699,-138.3309,-30.9676,-41.1011,17.3055,-5.8066,
45.9682,14.0607,39.4791,-14.0607,-10.2748,-116.813,-16.2239,90.0291,-143.1699,-123.3309,-15.9676,-56.1011,32.3055,-20.8066,
30.9682,-0.93927,24.4791,0.93927,4.7252,-101.813,-1.2239,75.0291,-128.1699,-138.3309,-30.9676,-70.8446,27.5808,-5.8066,
27.0396,14.0607,25.9583,9.7341,0,-110.3237,0,60.0291,-141.6897,-153.3309,-45.9676,-55.8446,27.0396,-15.1428,
42.0396,25.9593,40.9583,0,0,-103.8331,0,58.4066,-156.6897,-138.3309,-51.9165,-70.8446,38.9384,-30.1428,
57.0396,21.6314,55.9583,-5.4082,15,-105.9973,5.4082,73.4066,-141.6897,-123.3309,-36.9165,-75.7121,53.9384,-20.5511,
63.8143,6.6314,49.7539,-6.4896,30,-91.9363,20.4082,88.4066,-126.6897,-108.3309,-21.9165,-60.7121,68.9384,-5.5511,
48.8143,-7.0297,34.7539,-0.54067,15,-87.0682,18.9286,73.4066,-141.6897,-98.966,-36.9165,-49.2122,53.9384,0.54067,
36.7737,7.9703,48.6715,8.6528,8.6528,-102.0682,3.9286,86.5276,-156.6897,-83.966,-34.6115,-55.1621,38.9384,-14.4593,
51.7737,6.4896,51.9171,-6.3472,23.6528,-90.8545,18.3874,71.5276,-141.6897,-98.966,-49.6115,-70.1621,45.427,-29.4593,
63.2737,-2.7044,36.9171,2.7044,38.6528,-75.8545,33.3874,56.5276,-132.4957,-113.966,-64.6115,-83.8242,50.2945,-14.4593,
48.2737,2.7039,21.9171,4.8676,23.6528,-90.8545,18.3874,71.5276,-147.4957,-98.966,-49.6115,-68.8242,44.8863,-2.7039,
33.5292,17.7039,19.4687,-1.0819,8.6528,-105.8545,3.3874,86.5276,-162.4957,-83.966,-34.6115,-53.8242,29.8863,-17.7039,
48.5292,2.7039,29.2033,-16.0819,0,-120.8545,-6.4896,101.5276,-177.4957,-68.966,-19.6115,-68.8242,44.8863,-32.7039,
58.4066,-4.3264,36.7747,-8.6528,15,-105.8545,8.5104,86.5276,-162.4957,-83.966,-34.6115,-70.3034,59.8863,-17.7039,
43.4066,0.54067,21.7747,6.3472,21.0912,-90.8545,23.5104,71.5276,-147.4957,-98.966,-49.6115,-71.9264,44.8863,-2.7039,
36.7747,8.6528,24.8769,15.1428,6.0912,-103.8336,38.5104,56.5276,-162.4957,-113.966,-64.6115,-86.9264,31.367,-17.7039,
51.7747,1.0816,39.8769,0.14284,-1.0816,-118.8336,23.5104,71.5276,-177.4957,-98.966,-49.6115,-101.9264,46.367,-32.7039,
43.2638,-4.3264,30.2847,-14.8572,4.3264,-133.8336,8.5104,86.5276,-192.4957,-83.966,-34.6115,-86.9264,61.367,-45.4275,
28.2638,1.0813,15.2847,0.14284,15.1428,-118.8336,23.5104,71.5276,-177.4957,-98.966,-49.6115,-71.9264,46.367,-36.7747,
38.3967,16.0813,30.2847,15.1428,30.1428,-103.8336,38.5104,56.5276,-162.4957,-113.966,-64.6115,-63.2737,31.367,-21.7747,
28.1215,7.5709,45.2847,0.14284,35.6929,-105.9973,35.6929,41.5276,-147.4957,-128.966,-79.6115,-78.2737,27.0401,-36.7747,
22.7143,-7.4291,30.2847,-14.8572,20.6929,-120.9973,20.6929,56.5276,-162.4957,-113.966,-64.6115,-63.2737,42.0401,-32.4478,
35.6926,7.5709,15.2847,-8.653,5.6929,-135.9973,5.6929,71.5276,-177.4957,-98.966,-49.6115,-48.2737,57.0401,-27.0399,
34.611,10.8165,30.2847,0,0,-139.5265,17.3055,56.5276,-184.9535,-113.966,-42.1824,-63.2737,42.0401,-42.0399,
49.611,25.8165,45.2847,15,15,-124.5265,32.3055,41.5276,-169.9535,-128.966,-57.1824,-78.2737,27.0401,-27.0399,
48.672,10.8165,45.427,2.1632,30,-121.1401,47.3055,26.5276,-154.9535,-143.966,-72.1824,-93.2737,31.3665,-12.0399,
33.672,0,30.427,-2.1637,15,-136.1401,32.3055,41.5276,-163.3221,-128.966,-57.1824,-78.2737,46.3665,-7.5714,
18.672,9.7344,15.427,-7.5712,0,-151.1401,17.3055,56.5276,-178.3221,-113.966,-42.1824,-63.2737,61.3665,-22.5714,
25.4176,-5.2656,30.427,-22.5712,15,-142.2303,9.1934,71.5276,-163.3221,-98.966,-27.1824,-78.2737,61.11,-37.5714,
31.367,2.1637,45.427,-7.5712,30,-127.2303,24.1934,56.5276,-148.3221,-113.966,-42.1824,-93.2737,47.5902,-22.5714,
16.367,0,30.427,7.4288,15,-112.2303,39.1934,41.5276,-151.4243,-128.966,-57.1824,-93.0177,32.5902,-7.5714,
31.367,15,45.427,22.4288,0,-120.599,24.1934,56.5276,-166.4243,-113.966,-42.1824,-78.0177,47.5902,-16.7654,
46.367,3.7857,56.7836,7.4288,8.1121,-135.599,9.1934,71.5276,-181.4243,-98.966,-27.1824,-83.8242,62.5902,-31.7654,
50.2945,-11.2143,52.4572,-7.5712,23.1121,-128.1699,24.1934,86.5276,-166.4243,-83.966,-12.1824,-88.1506,77.5902,-46.7654,
35.2945,-24.8775,37.4572,7.4288,38.1121,-113.1699,39.1934,71.5276,-151.4243,-98.966,-27.1824,-73.1506,62.5902,-31.7654,
20.2945,-15.1423,31.3665,15.1423,23.1121,-128.1699,24.1934,63.8138,-161.1589,-113.966,-42.1824,-61.6512,47.5902,-23.7961,
35.2945,-0.14232,46.3665,0.14232,38.1121,-113.1699,39.1934,64.8962,-176.1589,-128.966,-30.2852,-76.6512,62.5902,-38.7961,
50.2945,1.0813,59.488,-1.0813,53.1121,-101.6704,54.1934,74.6308,-161.1589,-114.6496,-15.2852,-88.6913,77.5902,-23.7961,
48.672,-13.9187,44.488,-6.4896,38.1121,-116.6704,39.1934,89.6308,-146.1589,-99.6496,-4.3264,-73.6913,62.5902,-8.7961,
33.672,-8.6528,29.488,8.5104,23.1121,-116.8133,41.1001,84.3649,-134.1188,-114.6496,-19.3264,-60.5703,47.5902,-16.2242,
48.672,-0.54067,44.488,0.54067,38.1121,-118.4353,37.3154,87.0693,-149.1188,-116.2721,-14.6022,-75.5703,50.2945,-31.2242,
63.672,0,51.9176,0,53.1121,-103.4353,52.3154,72.0693,-134.1188,-131.2721,-29.6022,-89.7726,65.2945,-17.3055,
48.672,-12.4385,36.9176,8.1121,61.111,-88.4353,67.3154,57.0693,-119.1188,-146.2721,-44.6022,-78.4155,56.7846,-3.7857,
39.4791,-8.1121,21.9176,10.2758,46.111,-103.4353,52.3154,72.0693,-134.1188,-134.6589,-30.8253,-89.2319,65.4374,-18.7857,
47.05,6.8879,28.6621,-4.7242,31.111,-118.4353,37.3154,87.0693,-149.1188,-119.6589,-15.8253,-104.2319,63.2732,-33.7857,
57.8657,-8.1121,16.7646,-19.7242,16.7646,-133.4353,22.3154,102.0693,-164.1188,-104.6589,-0.82532,-101.1295,69.763,-48.7857,
46.5093,-16.2237,21.6324,-4.7242,31.7646,-118.4353,37.3154,87.0693,-149.1188,-119.6589,-15.8253,-86.1295,58.4061,-33.7857,
31.5093,-1.2237,24.8764,10.2758,46.7646,-103.4353,52.3154,72.0693,-134.1188,-134.6589,-30.8253,-72.4676,43.4061,-18.7857,
28.6626,9.1934,25.4176,-4.7242,31.7646,-118.4353,53.5396,57.0693,-149.1188,-149.6589,-45.8253,-87.4676,28.6626,-33.7857,
43.6626,-5.8066,17.8467,-19.7242,23.2544,-133.4353,38.5396,72.0693,-164.1188,-134.6589,-30.8253,-102.4676,43.6626,-48.7857,
36.2338,-20.8066,4.8673,-20.0096,14.6019,-148.4353,23.5396,87.0693,-179.1188,-119.6589,-15.8253,-87.4676,58.6626,-56.7838,
24.8769,-5.8066,12.9791,-5.0096,12.9791,-134.1177,30.2857,72.0693,-164.1188,-134.6589,-30.8253,-97.344,43.6626,-71.7838,
39.8769,9.1934,27.9791,9.9904,27.9791,-119.1177,45.2857,57.0693,-149.1188,-149.6589,-45.8253,-100.5891,29.2033,-56.7838,
54.8769,-1.6225,42.9791,1.6225,42.9791,-104.1177,60.2857,50.294,-147.6386,-164.6589,-60.8253,-85.5891,44.2033,-41.7838,
39.8769,-16.6225,27.9791,-13.3775,34.611,-119.1177,45.2857,65.294,-162.6386,-149.6589,-45.8253,-70.5891,59.2033,-26.7838,
41.6415,-1.6225,12.9791,-13.5201,19.611,-134.1177,30.2857,80.294,-177.6386,-134.6589,-30.8253,-55.5891,74.2033,-41.7838,
44.8863,-9.1939,27.9791,-22.1731,9.1939,-149.1177,15.2857,65.294,-162.7809,-149.6589,-15.8253,-70.5891,59.2033,-56.7838,
59.8863,5.8061,42.9791,-7.1731,24.1939,-134.1177,30.2857,50.294,-147.7809,-164.6589,-30.8253,-85.5891,44.2033,-41.7838,
44.8863,-7.5719,27.9791,3.2445,30.2841,-124.3842,45.2857,35.294,-161.1589,-179.6589,-45.8253,-100.5891,29.2033,-26.7838,
36.2335,7.4281,20.0094,7.0302,15.2841,-139.3842,30.2857,50.294,-176.1589,-164.6589,-30.8253,-85.5891,44.2033,-34.0704,
49.7536,5.408,29.2031,-7.9698,0.28414,-154.3842,15.2857,65.294,-191.1589,-149.6589,-15.8253,-70.5891,59.2033,-49.0704,
55.702,-9.592,28.6624,-22.9698,15.2841,-144.3938,30.2857,77.3349,-176.1589,-134.6589,-0.82532,-85.5891,62.1921,-64.0704,
41.1011,-5.4077,22.7143,-7.9698,30.2841,-129.3938,45.2857,62.3349,-161.1589,-149.6589,-15.8253,-100.5891,47.1921,-49.0704,
26.1011,1.0813,7.7143,7.0302,31.366,-114.3938,40.0187,47.3349,-148.1792,-164.6589,-30.8253,-96.2627,32.1921,-36.7747,
41.1011,8.6528,22.7143,-7.9698,45.4275,-110.3232,25.0187,62.3349,-163.1792,-149.6589,-15.8253,-110.3232,47.1921,-51.7747,
56.1011,-6.3472,24.8769,-22.9698,60.4275,-125.3232,21.6319,77.3349,-178.1792,-134.6589,-0.82532,-125.3232,59.488,-58.4066,
71.1011,-16.2242,12.9791,-17.3055,75.4275,-110.3232,36.6319,92.3349,-163.1792,-119.6589,14.1747,-110.3232,74.488,-43.4066,
56.1011,-5.4077,3.245,-2.3055,67.0594,-95.3232,51.6319,77.3349,-148.1792,-134.6589,-0.82532,-95.3232,59.488,-28.4066,
61.111,4.867,18.245,-4.867,61.111,-80.5792,48.1319,62.3349,-163.1792,-149.6589,-15.8253,-110.3232,44.488,-43.4066,
76.111,5.9489,33.245,-19.867,76.111,-66.5182,63.1319,62.1918,-150.8831,-164.6589,-5.9489,-123.8435,59.488,-58.4066,
91.111,-4.8676,18.245,-10.2753,91.111,-69.7632,78.1319,77.1918,-135.8831,-149.6589,9.0511,-108.8435,74.488,-43.4066,
76.111,-2.1632,3.245,0,76.111,-83.2836,63.1319,92.1918,-135.2001,-134.6589,23.7951,-93.8435,67.0589,-28.4066,
61.111,12.8368,5.9489,-5.9489,61.111,-79.4973,48.1319,77.1918,-150.2001,-149.6589,8.7951,-108.8435,52.0589,-43.4066,
76.111,6.4896,16.2247,-17.305,46.5093,-81.1199,33.1319,92.1918,-162.2397,-134.6589,-6.2049,-110.3227,37.0589,-51.9165,
