"AF3","AF4","F3","F4","F7","F8","FC5","FC6","O1","O2","P7","P8","T7","T8",
-68.1648,-31.3458,-87.0719,3.483,87.0714,-3.483,-11.4438,-7.4634,53.2385,-20.3994,11.4438,15.4242,24.3799,35.3262,
-63.1895,-43.2875,-93.0425,-11.517,78.1153,-18.483,-26.4438,-5.4732,39.3061,-5.3994,26.4438,11.4433,37.3164,20.3262,
-52.7406,-28.2875,-78.0425,-5.9706,91.5498,-3.483,-11.4438,-2.9851,54.3061,-7.9613,19.9025,18.9067,34.8283,21.8922,
-62.1946,-28.3612,-82.0966,-8.4582,82.0962,7.4634,-21.3953,-4.4778,43.287,-21.3953,6.4676,4.4778,19.8283,20.3994,
-52.7406,-26.868,-78.6132,-9.9505,91.5502,0,-30.8484,0.99487,37.8143,-6.3953,20.8969,0,22.8876,21.8927,
-57.2189,-21.3948,-77.1209,-0.49791,97.0225,0.49791,-15.8484,-5.4732,52.8143,-12.4391,5.8969,11.4433,22.3897,36.8927,
-67.1699,-36.3948,-85.0817,-15.4979,82.0225,-14.5021,-30.8484,3.4825,38.3113,-3.4825,20.8969,10.4484,26.3701,21.8927,
-59.7065,-27.8628,-70.0817,-3.9804,85.5791,0.49791,-16.9165,-3.9804,48.7607,-18.4825,15.9216,5.9711,24.8773,22.8876,
-55.7261,-23.8824,-57.7163,0,86.574,7.9608,-13.9319,-8.9557,44.7803,-14.9267,0.92161,3.9804,17.9123,25.8731,
-44.7798,-26.868,-50.7509,-2.9855,86.574,-7.0392,-17.9123,-0.99486,44.7793,0.073252,15.9216,0.99486,31.8432,20.8969,
-51.2483,-25.3752,-46.2721,4.4783,87.0719,5.4732,-2.9123,-15.9949,40.3019,-14.9267,0.92161,-9.4536,23.3855,33.336,
-49.2576,-27.3654,-31.2721,-2.4876,80.106,-9.5268,-14.4288,-0.99486,25.3752,0.073252,15.9216,-2.4876,29.3556,26.3701,
-53.7359,-28.8582,-16.917,-2.9851,91.5498,-7.9603,-2.9851,1.9902,40.3752,2.9851,16.917,-1.9902,29.853,26.8684,
-54.2334,-28.3603,-24.3799,-0.49743,90.057,-1.4923,-5.4727,0.49743,50.2529,-3.483,14.4293,0.49743,31.3458,41.2973,
-53.7354,-37.8138,-30.8479,-11.9412,78.6142,-16.4923,-20.4727,3.9804,44.7802,11.517,24.8782,-3.9804,34.8288,28.8586,
-50.7504,-28.8577,-15.8479,-0.99486,93.54,-1.4923,-5.4727,-7.9608,59.7802,0.99486,9.8782,-9.9505,20.8969,36.8194,
-51.7457,-32.8386,-0.99534,-11.9417,78.54,-4.9757,0.99534,-0.99534,44.7802,15.9949,14.9263,-19.9025,13.9314,21.8194,
-60.204,-35.3267,6.468,-16.4195,66.1741,-12.4391,-6.468,-9.4536,35.3257,22.3897,13.434,-33.3365,12.4391,10.4484,
-58.7112,-37.8138,7.9613,-16.917,70.6529,-18.9067,-1.9902,-17.9118,36.819,34.8292,1.9902,-36.819,7.9613,21.8922,
-50.7504,-41.7947,16.9165,-25.8726,56.7215,-26.868,-15.9216,-7.9608,27.8628,49.8292,12.9361,-37.8138,7.9608,11.9412,
-52.2432,-27.3649,31.9165,-10.8726,68.1648,-11.868,-0.92161,-16.4186,42.8628,40.3019,-2.0639,-42.2917,-1.4928,22.3906,
-45.2772,-32.3411,39.3066,-14.4293,66.1746,-12.4386,-12.4386,-6.4685,32.3407,50.2529,7.4634,-41.2968,6.4685,19.4046,
-30.2772,-26.868,49.755,-22.8876,74.6333,-1.9902,-3.9799,-6.9655,27.8633,62.6921,1.9902,-34.8288,5.9706,17.9118,
-30.3505,-15.4247,61.1988,-17.4144,81.1008,13.0098,10.4484,-18.4092,23.3845,47.6921,-13.0098,-40.3019,-9.0294,22.3897,
-30.8484,-21.8927,55.7256,-21.8927,66.672,5.9701,-4.5516,-10.9463,15.9216,32.8381,1.9902,-48.7602,-2.9855,13.9309,
-23.8824,-6.9659,53.7359,-9.9505,79.609,20.9701,6.9659,-16.9165,24.8782,21.8927,-13.0098,-36.8185,-13.9309,28.9309,
-20.3999,-4.4783,54.2329,-21.3948,81.1008,35.9701,4.4783,-4.4783,9.8782,36.8927,-22.3897,-38.3113,-22.3897,35.3257,
-17.9123,-2.9855,65.6771,-16.9165,83.5885,39.804,2.9855,-2.9855,22.8876,49.7555,-7.3897,-47.7653,-9.9515,28.8577,
-27.8628,-6.9659,55.7266,-18.9072,83.5894,39.805,6.9659,-17.9855,18.9072,34.7555,-22.3897,-56.7205,-23.8824,31.8432,
-12.8628,-2.4876,69.1606,-31.3458,98.5894,44.2823,19.4051,-5.4732,3.9072,34.3318,-7.4629,-56.2231,-12.4382,22.3906,
-1.9902,-6.9655,72.6426,-33.8334,113.5894,59.2823,34.4051,-13.9314,1.9902,19.3318,-22.4629,-66.6725,-27.4382,22.8871,
-0.49791,-1.4928,76.1256,-18.8334,117.9203,72.1452,19.4051,-14.4288,0.49791,24.3803,-37.4629,-51.6725,-37.3164,37.8871,
3.9804,-3.9804,68.6617,-19.903,109.4616,57.1452,17.9113,-25.8731,-6.9659,24.8773,-39.805,-66.6725,-42.7896,35.8236,
0.99534,-0.99534,70.6529,-19.9025,124.3888,55.7261,32.9113,-34.8283,4.9757,9.8773,-54.805,-81.6725,-48.7602,33.8334,
-0.49743,-8.4582,74.1354,-27.3654,109.3888,40.7261,21.3953,-19.8283,0.49743,24.8773,-39.805,-68.1643,-33.7602,27.3654,
-15.4974,-12.4391,67.1699,-21.3948,94.3888,53.238,20.3999,-21.3948,12.4391,29.3556,-45.2772,-58.2142,-31.3463,33.336,
-21.8927,-12.9361,63.6865,-22.8876,81.5987,41.7947,12.9361,-20.8969,17.9123,39.804,-30.2772,-50.7504,-26.868,41.7947,
-19.4051,-17.4149,60.204,-33.3365,74.1349,26.7947,1.4928,-8.4587,18.4092,49.2576,-15.2772,-52.2432,-27.3659,40.3019,
-21.8917,-15.9216,60.7019,-26.868,72.6431,35.8236,15.9216,-17.9113,21.8927,34.2576,-30.2772,-55.7256,-35.8236,55.3019,
-7.4634,-11.4438,69.1601,-25.3752,66.1746,20.8236,0.92161,-2.9113,26.3705,49.2576,-15.2772,-43.287,-20.8236,69.1601,
-14.9267,-8.9557,66.672,-18.9072,65.6771,25.8721,8.9557,-17.9113,32.8381,34.2576,-15.9216,-56.7215,-32.839,61.6967,
-11.9407,-8.9561,70.6529,-17.9118,63.6869,32.8386,15.9221,-18.9067,17.8381,29.853,-19.9025,-62.6916,-34.8283,63.6869,
-2.4876,-19.4046,73.14,-32.9118,61.1988,17.8386,2.4876,-9.4536,2.8381,44.853,-4.9025,-55.2287,-19.8283,53.238,
-3.9804,-13.9309,75.6286,-25.8721,72.6431,23.8834,17.4876,-21.8917,3.9804,32.839,-15.9216,-43.7844,-30.8484,64.6823,
-9.4531,-19.4046,70.155,-34.3309,57.6431,8.8834,2.4876,-6.8917,5.4736,39.3066,-0.92161,-51.2478,-33.336,58.2138,
-17.9118,-23.8829,67.6673,-31.8437,59.7065,3.9809,3.9809,-13.9314,19.9025,35.8241,-3.9809,-65.6771,-31.8437,63.6869,
-19.9015,-27.8624,66.6725,-25.8726,60.7014,10.9468,5.9706,-21.8922,19.9025,49.756,-5.9706,-50.7504,-29.853,74.6333,
-10.4487,-33.3358,70.1547,-40.3017,57.2187,-0.49767,0.49767,-7.4631,26.3703,64.756,9.0294,-37.3166,-15.4239,68.165,
-21.8922,-34.8292,67.6673,-40.7994,69.6571,6.9655,15.4977,-20.8974,35.8241,49.756,-5.9706,-52.3166,-29.853,75.6281,
-19.902,-39.804,69.6575,-40.7994,54.6571,-8.0345,7.9608,-7.9608,20.8241,52.7411,8.9557,-57.7163,-22.8876,66.672,
-14.4284,-41.2968,74.1354,-41.2968,41.2973,-4.4778,4.4778,-12.4386,27.3654,53.2385,12.4386,-48.2623,-15.4242,71.1508,
-20.8978,-37.8143,65.6762,-40.7998,35.8236,0,0,-18.9072,42.3654,50.7504,16.9165,-33.2623,-26.868,86.1508,
-13.4337,-28.3605,68.165,-33.3362,41.297,-4.4781,-9.4533,-3.9072,56.2238,65.7504,31.9165,-18.2623,-16.4193,92.0474,
-28.4337,-40.7994,54.7303,-42.79,37.8138,-0.99534,0.99534,-18.9072,41.7942,50.7504,16.9165,-33.2623,-31.4193,83.5889,
-19.9025,-40.7998,55.7261,-47.7653,37.8138,-1.9902,1.9902,-19.9025,36.819,55.7261,17.9118,-43.7849,-37.8143,78.6127,
-19.4041,-41.2968,48.2627,-46.2725,33.336,3.4825,-3.4825,-23.3845,47.2679,57.2184,16.4195,-40.3019,-42.2921,77.1204,
-15.4237,-28.3607,52.2432,-32.3411,33.336,11.4433,-2.4876,-15.4237,47.2679,51.2483,2.4876,-44.2823,-43.2875,92.1204,
-15.4242,-30.3509,54.2334,-37.3164,25.3747,-0.49743,-17.4876,-0.42371,32.2679,66.2483,17.4876,-53.2385,-41.2968,93.0425,
-28.3598,-24.3794,53.239,-25.3752,32.3411,14.5026,-2.4876,-15.4237,27.3659,51.2483,2.4876,-50.2525,-56.2968,96.0285,
-24.8782,-31.8432,42.7896,-30.8484,24.8773,10.9463,-3.9804,-17.9123,28.8577,51.7452,3.9804,-41.7947,-54.7313,90.5544,
-10.9463,-39.804,45.7751,-33.8334,32.839,0,0,-7.9608,28.8586,49.7555,15.9216,-45.7746,-39.7313,83.5894,
-20.8969,-44.7802,39.804,-37.8143,37.8143,10.9463,8.9557,-22.9608,17.9123,34.7555,0.92161,-57.7163,-54.7313,83.5885,
-15.9211,-42.7896,34.8292,-41.7942,33.8334,5.9706,-5.9706,-18.9067,16.917,49.7555,15.9216,-51.7452,-47.7648,79.6085,
-26.3701,-41.2968,24.3803,-36.3215,31.3463,18.4092,8.4587,-33.9067,29.3556,34.7555,0.92161,-51.2483,-48.2627,86.0771,
-33.8334,-43.7849,14.9263,-47.7653,19.9015,6.9655,-0.99534,-25.8726,19.9015,42.7891,0.99534,-37.8138,-48.7607,91.5498,
-26.868,-43.7849,7.9608,-55.7261,26.868,7.9608,-7.9608,-14.9268,16.9165,57.7891,9.9515,-31.8437,-50.7504,93.54,
-18.9067,-28.7849,13.9314,-40.7261,41.7942,22.9608,7.0392,-26.8675,23.8829,42.7891,-5.0485,-37.8138,-55.7261,108.54,
-24.3803,-31.3463,13.434,-42.2926,26.7942,18.4092,-1.4928,-23.3855,8.8829,27.7891,2.4876,-52.8138,-60.2044,98.0173,
-21.3948,-23.3845,19.4051,-28.3607,41.7942,33.4092,13.5072,-21.3948,12.4391,18.4092,-12.4391,-60.204,-66.1741,102.9935,
-6.3948,-14.9272,29.853,-13.9314,56.7942,45.7746,21.8922,-6.3948,1.9902,33.4092,-7.9613,-49.755,-53.7359,103.491,
0.49743,-13.4335,35.3262,-20.3994,41.7942,43.288,7.4634,-5.4727,-9.4531,42.2921,-0.49743,-64.755,-52.2427,88.491,
-4.4778,-3.483,30.3509,-15.4242,56.2231,58.288,20.3994,-18.4097,3.483,27.2921,-15.4974,-79.1106,-67.2427,88.0673,
5.4732,-11.4433,21.3948,-22.3897,71.2231,51.2483,10.4494,-5.4732,-11.517,28.3607,-9.4536,-84.0864,-72.1447,76.1265,
16.9165,-4.9753,18.9072,-14.9268,86.2231,66.2483,25.4494,-20.4732,-18.9072,13.3607,-24.4536,-88.5647,-85.5791,69.6575,
27.3659,8.4587,16.4195,-14.4288,101.2231,71.1503,27.3659,-25.3752,-33.9072,-1.6393,-39.4536,-88.0668,-96.0281,72.1452,
33.8334,4.9757,20.8974,-25.8726,115.4322,56.1503,17.9118,-16.917,-48.9072,-4.9757,-38.8087,-103.0668,-88.5642,57.1452,
39.8045,8.9561,31.8437,-10.8726,130.4322,57.7159,32.9118,-27.8633,-34.8292,-12.9365,-49.755,-116.4275,-86.5745,59.7065,
33.336,-6.0439,16.8437,-25.3752,133.8419,42.7159,41.2968,-31.3453,-49.8292,2.0635,-34.755,-113.9394,-83.091,44.7065,
30.8484,0.99486,10.9463,-19.902,148.8419,40.7998,56.2968,-25.8721,-45.7751,-0.99486,-39.804,-98.9394,-70.6524,40.7998,
28.3607,-8.4587,8.4587,-24.3803,161.7047,29.3556,71.2968,-23.3855,-30.7751,10.4484,-30.3505,-85.0817,-62.1946,53.238,
33.336,-23.4587,-6.468,-36.3211,147.7738,14.3556,57.2194,-18.4092,-15.7751,25.4484,-15.3505,-86.0766,-49.2576,55.2287,
32.8386,-8.4587,-4.9757,-21.3211,158.2217,29.3556,72.2194,-24.8778,-0.77511,10.4484,-13.9314,-76.6235,-45.7756,70.2287,
30.8484,0,-1.9907,-14.9268,144.2903,27.8628,63.6865,-9.8778,-8.9557,25.4484,0,-61.6235,-30.7756,83.5885,
28.8582,-2.9851,-6.9664,-19.9025,140.3095,39.8045,67.6673,-6.9664,-0.99534,36.819,0.99534,-63.6869,-45.7751,84.5838,
33.336,0.49791,-11.4433,-11.4433,142.7976,53.238,68.1648,-5.4732,-2.4876,26.3701,-0.49791,-66.1746,-60.7751,97.0234,
22.8876,-13.9319,-25.8731,-26.4433,127.7976,38.238,53.1648,-6.9659,-17.4876,32.8381,6.9659,-67.6673,-75.7751,82.0234,
21.8927,1.0681,-15.9216,-11.4433,125.3841,37.8143,67.6678,-13.9309,-9.9505,18.9072,-3.9804,-60.7009,-90.7751,93.5409,
15.4242,-11.4438,-30.9216,-20.3995,110.3841,22.8143,52.6678,-12.4386,-24.9505,13.4335,11.0196,-75.7009,-105.7751,78.5409,
10.4489,-23.385,-44.2823,-32.3407,104.9837,8.4582,37.6678,-18.4097,-9.9505,9.4531,8.4582,-76.1256,-120.7751,78.1158,
0,-14.9267,-48.7607,-18.9072,101.5008,14.9268,41.7938,-20.8978,3.9804,18.9072,0,-61.1256,-135.7751,93.1158,
6.468,-17.4144,-53.238,-20.3995,86.5008,6.468,26.7938,-6.468,-8.4578,33.9072,15,-53.238,-150.7751,96.0276,
11.4443,-23.3845,-61.1988,-26.3701,94.0379,19.4051,41.7938,-21.468,3.4825,18.9072,0,-65.1792,-165.7751,96.0276,
17.9113,-22.8876,-64.6823,-34.8288,97.5204,10.9463,43.7844,-10.9463,-10.9463,29.8526,12.9361,-50.7509,-180.7751,104.4863,
13.4335,-17.4149,-70.155,-34.3313,92.0477,20.3995,42.2921,-11.4438,-25.9463,16.419,11.4438,-64.1844,-195.7751,100.0085,
25.3752,-2.4149,-64.1844,-19.3313,98.0183,35.3995,57.2921,-15.4237,-15.4237,1.4928,-1.4928,-67.1699,-210.7751,115.0085,
24.3803,-12.4391,-68.1652,-28.3607,83.0915,20.3995,42.2921,-12.4391,-29.3561,16.4928,13.5072,-75.1307,-225.7751,100.0085,
26.868,-6.9659,-59.7061,-14.9268,98.0915,30.8484,57.2921,-14.9268,-14.3561,6.9659,8.9557,-64.6813,-236.8354,99.511,
11.868,-21.9659,-74.7061,-27.8633,83.0915,15.8484,42.2921,-17.9118,-8.9561,13.9314,16.917,-56.721,-247.7818,107.4714,
-3.132,-27.8633,-89.7061,-29.8535,68.0915,5.9706,27.2921,-13.9314,6.0439,28.9314,31.917,-44.7798,-242.806,112.4466,
-11.9412,-25.8721,-104.7061,-26.868,65.6771,11.9412,26.868,-20.8969,21.0439,42.7896,16.917,-42.7896,-248.7766,119.4131,
3.0588,-29.3561,-118.9156,-36.3215,56.2231,-3.0588,15.4242,-7.4634,10.448,53.2375,31.917,-35.3267,-240.3184,119.9105,
-4.4778,-26.3705,-130.8564,-30.3509,41.2973,11.4438,12.4386,-22.4634,4.4778,38.2375,16.917,-50.2529,-255.3184,118.9156,
-1.9902,-16.916,-128.3682,-20.8964,46.7705,17.9128,13.9324,-17.9118,1.9902,24.8778,11.9417,-45.7746,-269.6735,115.4331,
-5.4732,-28.3607,-134.8368,-35.3257,54.2338,9.4536,13.434,-13.434,5.4732,32.3411,25.3752,-50.2529,-268.1812,101.0038,
-5.4732,-20.3999,-137.8223,-26.3701,57.2184,24.4536,27.3659,-28.434,13.434,17.3411,10.3752,-58.2133,-281.1173,113.9399,
9.5268,-12.9361,-135.3347,-23.8824,49.7555,19.902,12.3659,-14.9268,-1.566,32.3411,22.8876,-59.7065,-279.625,110.4564,
13.9314,-4.9757,-131.3543,-8.9561,64.7555,34.902,27.3659,-13.9314,-11.9417,17.3411,7.8876,-55.7261,-282.6105,119.4126,
5.9706,-5.9706,-144.2908,-11.9417,59.7065,35.8232,26.8675,-14.9272,-21.8922,11.9407,11.9407,-51.7457,-278.6301,114.4373,
16.4186,-12.4391,-148.7686,-22.3901,44.7065,20.8232,11.8675,-6.468,-10.4484,26.9407,26.9407,-50.2529,-263.6301,101.0029,
1.4186,-26.3705,-163.6954,-19.4046,39.3066,15.4242,18.4088,-21.468,-0.49743,11.9407,17.4139,-64.1848,-275.1476,108.9641,
3.4834,-18.4092,-165.6851,-14.4288,43.2875,2.4876,10.4484,-6.468,-2.4876,26.9407,32.4139,-49.1848,-260.2204,118.9151,
-2.9855,-20.8978,-178.1242,-29.4288,36.8185,2.9855,5.9701,-14.9267,2.9855,41.9407,47.4139,-34.1848,-257.7328,118.4172,
-2.9855,-28.8586,-186.085,-36.8194,29.8535,14.9268,2.9855,-18.9072,6.9659,52.7401,44.7793,-19.1848,-261.7132,130.3584,
2.9855,-32.8386,-189.0701,-33.8334,32.839,16.9165,-4.9753,-3.9072,3.9804,66.672,59.7793,-22.8876,-255.7426,122.3986,
-4.4783,-26.3701,-198.5237,-25.3752,46.2721,31.9165,10.0247,-18.9072,4.4783,51.672,44.7793,-37.8876,-270.7426,124.8862,
6.9655,-18.9067,-194.0459,-30.8479,44.7798,36.819,8.9561,-14.9263,-6.9655,44.7798,54.7313,-32.8386,-263.7034,128.3692,
5.4727,-19.4046,-199.519,-37.3169,40.3015,39.3066,6.4685,-13.4345,-5.4727,38.3117,47.2674,-37.3169,-261.2158,118.9156,
-1.4928,-28.3607,-214.519,-32.3411,41.2968,33.336,2.4876,-15.4237,1.4928,23.3855,45.2772,-41.2968,-254.2498,119.91,
11.9417,-33.8334,-211.9577,-28.8577,43.7849,24.8778,-1.9902,-2.9851,1.9902,38.3855,60.2772,-28.8577,-239.2498,120.4084,
6.9655,-22.8871,-211.9577,-30.8479,52.7406,39.8778,13.0098,-17.9851,-6.9655,23.3855,45.7746,-30.8479,-253.7524,124.3888,
9.951,-11.9417,-223.8994,-34.8292,60.7014,37.8138,18.9067,-9.951,-21.9655,28.8582,54.7303,-29.853,-250.7673,121.4033,
9.951,-12.9365,-231.8602,-19.9025,61.6963,40.7994,4.9757,-6.9664,-6.9655,31.8428,57.7158,-37.8138,-240.8163,123.393,
-1.9902,-20.8974,-237.8308,-14.9272,46.6963,43.784,1.9902,-21.8922,6.9655,21.8922,42.7891,-38.8096,-250.7673,126.3785,
8.4582,-15.4242,-239.3235,-27.3659,31.6963,28.784,-5.4736,-6.8922,-0.49743,36.8922,57.7891,-23.8096,-245.2941,116.9249,
0.99534,-13.9314,-248.7766,-24.8778,42.7891,35.8241,4.9757,-16.917,-0.99534,27.8633,51.7457,-29.853,-254.7472,120.4074,
5.4732,-24.3794,-245.2937,-26.3701,45.2782,28.3607,1.4928,-15.4237,-1.4928,42.8633,66.7457,-24.3794,-239.7472,128.8666,
4.4774,-33.3365,-255.2451,-41.3701,38.3113,18.4092,-2.4876,-21.3948,2.4876,56.2236,73.14,-20.3999,-224.7472,119.91,
-2.4876,-23.3855,-267.1864,-38.3122,37.3164,28.3607,2.4876,-30.3514,2.4876,41.2968,58.14,-14.4288,-239.7472,125.8811,
12.5124,-19.4043,-254.2496,-32.3409,45.277,22.3904,-3.4827,-15.3514,3.4827,56.2968,73.14,-4.4781,-224.7472,128.8664,
-1.4923,-34.4043,-269.1766,-43.287,41.2973,18.4097,1.4923,-30.3514,1.4923,41.2968,65.1797,-19.4781,-228.3772,114.9352,
0.49791,-24.3803,-270.1714,-30.3505,47.2679,29.3556,-0.49791,-15.4247,2.4876,38.3113,72.1452,-25.3752,-227.3818,123.8904,
0.99534,-18.9067,-276.6399,-27.8633,47.7653,38.8087,-5.9706,-0.99534,3.9799,53.3113,87.1452,-17.9118,-217.9287,125.3837,
-7.4634,-25.3747,-284.1028,-29.3551,41.2973,48.2632,7.4634,-15.9953,8.4582,38.3113,72.1452,-25.3747,-222.4061,134.8372,
2.9846,-29.8535,-285.5961,-36.8194,40.7989,33.2632,0,-3.9804,0,44.7793,87.1452,-26.8684,-207.4061,121.4028,
-3.483,-30.3509,-294.0538,-38.3117,54.2334,35.3262,13.4345,-13.4335,3.483,30.3509,77.1209,-32.3407,-206.4845,106.9744,
-2.9851,-16.917,-289.576,-30.8479,41.7942,37.8138,7.9613,-6.9655,2.9851,45.3509,83.5889,-17.3407,-203.9969,114.4373,
0.99534,-8.9561,-287.5863,-32.8386,34.8283,38.8087,-0.99534,-0.99534,5.9706,60.3509,98.5889,-10.9463,-189.0706,119.4126,
-11.4438,-22.3892,-302.5863,-42.2921,49.8283,53.8087,14.0047,-15.9953,11.4438,45.3509,83.5889,-25.3747,-200.5139,131.8517,
-2.4876,-32.3411,-304.0053,-46.2725,45.2772,38.8087,1.4928,-1.4928,3.4825,57.2184,97.0234,-12.4391,-197.5288,124.8862,
6.9655,-17.3411,-289.576,-31.2725,45.7746,23.8087,16.4928,-12.9365,10.9459,61.6963,100.5054,-6.9655,-196.0361,121.4033,
4.9753,-12.9361,-304.576,-41.7947,52.7401,22.8876,20.8969,-26.868,-4.0541,46.6963,85.5791,-21.9655,-199.0216,123.3935,
15.9221,-9.951,-316.444,-46.77,57.7158,37.8876,5.8969,-11.868,-6.9655,33.8334,91.5498,-31.8437,-193.051,131.3538,
7.9608,-4.9753,-321.4197,-31.77,47.7648,52.8876,4.9753,-7.9608,-5.9711,19.902,76.5498,-22.8876,-208.051,146.281,
2.4876,-3.4834,-330.8733,-31.3463,32.7648,67.8876,-10.0247,7.0392,-15.4247,34.902,91.5498,-7.8876,-200.5144,145.7831,
-10.9459,1.9902,-342.3166,-29.853,17.7648,82.8876,-24.8778,9.951,-1.9902,47.7653,88.5642,-9.951,-203.0015,148.2712,
-7.9613,9.951,-340.3269,-14.853,2.7648,97.8876,-15.9221,12.9365,-1.9902,32.7653,73.5642,-13.9314,-212.953,160.2115,
3.9809,0.99534,-339.3315,-14.9263,-0.99534,92.5446,-19.902,27.9365,-12.9365,47.7653,88.5642,-2.9851,-197.953,157.2269,
-8.9561,-6.9655,-346.297,-21.8922,9.951,91.5498,-5.9706,16.917,-0.99534,54.7313,85.5796,0.99534,-187.0799,163.198,
-6.4683,-9.4538,-343.8096,-36.8922,12.4384,81.1011,-15.4244,25.3754,-1.493,66.1743,100.5796,1.493,-172.0799,148.198,
-2.4881,-7.4634,-345.8,-42.2921,23.385,93.0425,-6.4685,17.4139,0.49743,51.1743,101.0033,-0.49743,-172.6511,149.763,
-11.4443,-8.4587,-360.8,-37.3164,14.4288,99.0131,-9.4536,8.4578,-5.4732,52.2432,86.0033,5.4732,-183.5974,164.763,
-15.9221,-19.9025,-374.1603,-51.7457,4.9753,84.0131,-24.4536,20.8969,-4.9753,67.2432,96.5255,4.9753,-177.1294,156.2315,
-18.4092,-18.4092,-373.6624,-50.2525,19.9753,93.043,-9.4536,6.468,10.0247,52.2432,81.5255,-6.468,-185.5871,151.7542,
-3.4092,-8.4578,-366.6964,-43.287,21.3948,84.0864,-12.4382,16.4195,-2.4876,49.2576,80.106,2.4876,-171.6557,157.7243,
0.49743,-5.4736,-367.6923,-42.2921,28.3603,95.0323,-6.4685,12.4386,-6.4685,59.2086,70.155,-0.49743,-170.6609,161.7042,
-10.448,-0.49743,-380.6283,-39.3066,31.3458,109.9599,-0.49743,14.4293,0.49743,46.2725,55.155,-8.4582,-179.6165,171.6557,
-7.961,2.9853,-386.1017,-40.7996,16.3458,94.9599,-15.4974,29.4293,-2.9853,61.2725,70.155,-5.9708,-164.6165,162.2019,
-22.3901,-2.4881,-396.5504,-44.2823,2.4881,94.0374,-17.4149,20.3994,12.0147,47.2674,59.2086,-10.4489,-170.6609,162.7001,
-25.3757,-15.4247,-408.4916,-53.2385,-1.4928,79.0374,-31.3463,18.4092,14.4288,62.2674,60.204,1.4928,-172.6511,163.6944,
-27.3654,-18.4097,-416.4524,-50.2529,-4.4778,73.1405,-38.3117,16.419,12.4386,77.2674,65.1797,4.4778,-177.6263,161.7052,
-33.833,-14.9258,-413.9643,-48.7597,-3.9804,73.6379,-24.8773,3.9804,17.9123,64.6823,50.7504,5.9711,-184.0944,166.183,
-23.8827,-24.8775,-411.9744,-63.7597,-6.9657,58.6379,-37.8141,16.9172,23.8822,79.6823,65.7504,6.9657,-169.0944,151.183,
-21.8927,-23.8824,-422.9205,-55.7261,0,59.7061,-23.8824,1.9172,38.8822,72.6431,65.6771,2.9855,-167.1784,146.2801,
-28.3607,-22.3897,-432.374,-55.2287,-6.468,58.2133,-32.3411,6.468,28.3607,79.1111,65.1792,17.9855,-165.6856,161.2801,
-37.3164,-28.3607,-433.3689,-61.1993,-8.4582,51.2478,-29.3556,8.4582,23.385,72.1456,68.1652,22.3901,-158.7197,159.7145,
-32.8386,-20.8974,-429.8864,-46.1993,6.5418,66.2478,-14.3556,-0.99534,26.8675,57.1456,53.1652,7.3901,-158.2222,165.1877,
-23.385,-19.4046,-436.3545,-53.238,0.49743,55.2282,-27.3654,14.0047,11.8675,72.1456,68.1652,-0.49743,-147.7733,154.7392,
-35.3262,-17.4139,-446.3055,-54.2334,2.4881,59.2086,-25.3747,4.4778,23.385,57.1456,53.1652,-2.4881,-161.7047,155.7341,
-27.8633,-12.9365,-443.8178,-39.8045,4.9757,70.6529,-22.8871,9.951,12.9365,48.7602,44.7798,-4.9757,-154.2413,155.2372,
-12.8633,-4.9757,-432.8715,-31.8432,14.9263,79.6085,-19.9015,19.9025,1.9902,58.7117,59.7798,-1.9902,-139.2413,149.2661,
-22.8876,-0.99486,-445.808,-28.8577,7.9608,85.5791,-16.9165,5.9711,0,43.7117,44.7798,0,-132.3491,158.2222,
-24.8778,0.99486,-451.7786,-24.8778,-6.9659,70.5791,-31.9165,20.9711,-0.99486,58.7117,39.804,12.9361,-117.3491,158.2222,
-31.3453,-7.4629,-456.2565,-28.3607,-1.4928,75.1307,-32.3411,9.4536,1.4928,45.2772,28.3607,1.4928,-107.9688,150.7593,
-26.868,-3.9804,-451.7791,-26.868,3.9804,75.6277,-25.8731,8.9557,-7.9618,48.7597,28.8577,4.9753,-97.5208,153.246,
-18.4097,-0.49743,-449.291,-27.3654,0.49743,72.1456,-34.3313,22.3901,-4.4778,63.7597,38.3117,5.4727,-82.5208,145.7836,
-25.8731,5.9701,-454.7642,-16.9174,11.9412,87.1456,-19.3313,7.3901,10.5222,48.7597,23.3117,-0.99486,-83.5894,160.7836,
-24.3799,0.49743,-461.2322,-19.4046,9.4531,79.1106,-24.3799,10.4489,-4.4778,54.2334,18.4097,-0.49743,-68.5894,156.729,
-21.8932,-1.9902,-460.7348,-14.9272,11.9407,89.5591,-22.888,9.951,-14.9272,42.7891,14.9263,1.9902,-53.5894,149.2661,
-24.3803,-6.468,-466.2075,-22.3897,2.4876,80.106,-32.3411,6.468,-2.4876,37.3164,4.4783,5.4732,-42.2917,152.749,
-17.4139,-4.4778,-466.2075,-24.3799,2.4881,65.106,-29.3556,17.4149,-0.49743,52.3164,19.4783,0.49743,-27.2917,147.7733,
-18.4097,4.4778,-461.2322,-12.4386,17.4881,80.106,-14.3556,2.4149,0.49743,37.3164,4.4783,-9.4541,-16.419,152.7486,
-14.4288,-8.4578,-461.2317,-27.4386,12.4391,65.106,-27.3654,6.468,-6.468,52.2432,19.4051,-2.4876,-1.419,139.813,
-24.8773,-14.9268,-464.7147,-28.8577,1.9907,57.7163,-30.8484,0.99487,0,54.7308,7.9608,-5.9711,0,137.3244,
-28.3607,-1.4928,-465.2126,-13.8577,2.4876,72.7163,-15.8484,5.4732,-2.4876,49.2576,1.4928,-1.4928,1.4928,148.7686,
-19.4046,-4.4774,-468.1977,-28.8577,-1.4928,57.7163,-30.8484,13.434,-8.4578,57.2184,16.4928,1.4928,16.4928,133.7686,
-16.419,1.4923,-457.2513,-16.419,13.5072,71.1498,-15.8484,-1.566,6.5422,42.2184,1.4928,-1.4923,19.4046,134.8372,
-13.9314,-0.99534,-459.7394,-17.9118,8.9561,72.6426,-23.8829,4.9757,-8.4578,54.7303,0.99534,-9.951,20.8974,128.3682,
-7.9608,-3.9804,-464.7147,-26.868,10.9463,75.6286,-28.8577,6.9659,-7.9608,45.7751,3.9804,-6.965,29.8535,127.3739,
-15.4237,0.49791,-463.2219,-21.3948,12.4391,77.1204,-22.3897,1.4928,-1.4928,30.7751,-11.0196,-0.49791,34.3309,132.847,
-21.3953,0.49743,-473.1734,-34.3313,-0.49743,68.1643,-37.3897,7.4634,-16.4928,41.2963,3.9804,-15.4979,49.2581,117.847,
-6.468,15.4974,-471.1832,-22.3897,14.5026,83.1643,-22.3897,6.468,-6.468,33.336,-6.468,-12.4391,53.238,132.847,
-5.4727,12.4386,-476.1585,-34.3313,5.4727,68.1652,-37.3897,1.4923,-21.468,38.3117,-3.483,-1.4923,49.2581,127.8713,
-4.4778,12.4386,-467.2023,-30.3509,9.4541,63.189,-40.3015,-3.483,-14.4293,40.3024,3.483,-10.448,64.2581,117.9208,
-7.9603,17.9118,-476.6559,-18.9067,17.9118,78.189,-25.3015,-4.9757,0.57068,27.8633,-11.517,-20.8974,70.6529,132.9208,
-3.4825,7.4638,-483.1244,-32.3411,2.9118,79.1111,-40.3015,8.4587,-14.4293,40.3019,0.49791,-21.3948,74.1358,126.876,
7.9608,19.902,-468.1244,-18.9072,17.9118,94.1111,-25.3015,-6.5413,-13.9319,25.3019,-14.5021,-9.9515,70.6524,128.3687,
5.4732,19.4051,-459.2415,-17.4144,10.4494,87.0719,-37.3164,-6.468,-15.4237,39.3071,-15.4237,-5.4732,61.1998,130.8573,
-5.4727,14.4293,-471.1832,-19.4046,9.4531,91.0518,-46.2725,5.4727,-27.3654,42.2921,-11.4438,-16.419,58.2138,130.8568,
-1.9902,21.8922,-469.6904,-14.9263,24.4531,106.0518,-31.2725,1.9902,-19.9025,27.2921,-26.4438,-14.9263,67.6673,145.8568,
-2.9855,6.8922,-484.6172,-29.9263,18.9072,91.0518,-46.2725,6.9659,-34.9025,30.8484,-12.9361,-21.8927,72.6431,130.8568,
0.99486,9.9515,-477.6513,-34.8288,19.902,104.4863,-31.8432,-0.99486,-27.8628,17.9123,-27.9361,-27.8628,67.6669,132.3491,
8.4582,15.4242,-475.1636,-35.3262,34.902,110.9548,-29.3551,-8.4582,-42.8628,15.4242,-36.3211,-34.3313,64.1848,128.8662,
6.9659,11.9412,-482.627,-50.3262,44.7793,98.5152,-43.7844,-6.9659,-53.7359,14.9267,-36.8194,-43.7844,57.7163,113.8662,
8.9557,22.8876,-474.6657,-35.3262,59.7793,113.442,-28.7844,-6.9659,-38.7359,6.9659,-49.7555,-34.8288,58.7112,120.4079,
10.9463,7.8876,-482.627,-50.3262,59.7061,98.442,-24.8782,-4.9753,-53.7359,21.9659,-34.7555,-37.8143,73.6379,111.4522,
11.9417,8.9561,-477.6513,-54.7303,66.6725,107.4714,-9.8782,-16.917,-49.755,6.9659,-43.7849,-43.7849,74.6333,117.4228,
11.9412,14.9268,-469.6904,-44.7802,63.6865,101.5008,-4.9753,-11.9412,-41.7947,4.9753,-36.8194,-41.7947,79.6081,126.378,
8.4587,0.49791,-476.1585,-59.2086,64.1844,86.5008,-19.9753,-4.4783,-28.3607,19.9753,-21.8194,-37.3164,94.6081,116.9254,
2.9851,9.951,-478.6466,-44.7798,71.6477,101.5008,-4.9753,-13.9314,-24.8778,5.9706,-30.8479,-33.8334,94.5353,131.9254,
3.483,14.4284,-473.1734,-46.2725,56.6477,97.0229,-19.9753,-3.483,-39.8778,20.9706,-36.322,-36.322,87.0714,131.8517,
4.9757,16.917,-459.7394,-43.7849,63.6869,90.5549,-6.9664,-4.9757,-40.7994,25.8726,-29.853,-29.853,97.5199,130.3589,
0.99534,5.9706,-464.7152,-42.79,53.7354,77.6179,-6.9655,-0.99534,-25.7994,31.8437,-15.9221,-15.9221,108.4662,142.3001,
-3.4825,-4.4783,-471.1832,-50.2529,39.3071,67.1699,-21.9655,10.4484,-10.7994,46.8437,-0.92209,-8.4587,116.9254,143.7934,
-12.4391,6.468,-466.2079,-44.2823,54.3071,82.1699,-6.9655,-2.4876,2.4876,31.8437,-15.9221,-10.4484,112.9441,149.7635,
-0.99486,0.99486,-463.7198,-56.721,50.7504,67.1699,-11.9412,5.9711,-12.5124,39.804,-0.99486,-21.8917,124.3883,134.7635,
9.4531,-6.4685,-456.2565,-61.1993,56.2231,71.1498,3.0588,-6.4685,-22.3901,24.804,-15.4242,-33.3365,122.896,119.7635,
-1.4928,1.4928,-456.2565,-56.2236,55.2287,82.0966,12.4391,-15.4247,-14.4288,16.4195,-30.4242,-19.4051,111.9492,134.7635,
-2.4876,8.4587,-455.2616,-49.2576,40.3019,67.1699,-2.5609,-0.42466,-12.4391,31.4195,-15.4242,-4.4783,126.876,146.778,
-1.4932,13.4335,-450.2863,-34.2576,43.287,82.1699,-0.49743,-11.4438,0.49743,34.3313,-21.3953,-5.4736,125.8806,160.7094,
-9.4541,0.49743,-456.2569,-49.2576,29.3551,67.1699,-15.4974,-11.4438,5.4727,48.2623,-8.4582,-0.49743,116.9249,152.7486,
-9.951,-2.9851,-456.7544,-54.7313,33.8334,57.7159,-15.9221,-17.9118,19.9015,42.7891,-6.9655,2.9851,114.4373,146.2805,
-8.4587,0.49791,-449.2905,-49.2576,38.3113,66.175,-1.4928,-32.9118,4.9015,31.3463,-21.9655,-0.49791,115.9296,152.749,
-4.4783,6.468,-435.3591,-52.2432,29.3556,51.175,-16.4928,-22.3897,-10.0985,46.3463,-6.9655,-5.4732,125.8811,141.8027,
-12.4391,15.4237,-438.3447,-43.2875,29.3556,52.2432,-1.4928,-37.3897,1.4928,36.3215,-21.9655,-15.4247,110.9543,141.8027,
1.4928,11.4443,-441.3297,-42.2917,27.3659,42.2926,-11.4433,-35.3257,-10.4484,51.2483,-19.4041,-1.4928,125.9543,143.7934,
-2.9851,7.9613,-434.8617,-40.7994,30.8479,44.7798,-23.8829,-23.8829,0.99534,47.7653,-6.9655,-0.99534,136.33,141.3053,
-17.9851,13.9314,-433.8668,-40.7994,28.8582,53.7354,-17.9118,-38.8829,10.9459,32.7653,-21.9655,-10.9459,121.33,143.295,
-2.9851,9.454,-427.3983,-53.238,23.385,38.7354,-22.3901,-34.3313,-0.49743,47.7653,-6.9655,-6.4685,122.896,135.8321,
-0.99534,0.99534,-420.9303,-45.7746,27.8633,45.7746,-7.3901,-42.7891,10.9468,32.8386,-18.9067,-9.951,118.4177,142.3001,
-2.4881,2.4881,-409.4865,-37.3169,24.3799,38.3117,-12.4386,-27.7891,7.4634,47.8386,-10.4489,-3.483,123.8909,140.8074,
0,0,-405.0087,-46.7705,22.8876,27.8628,-18.9072,-24.8782,3.9804,55.7256,-10.9463,-5.9711,131.3543,125.8074,
-7.9613,-1.9902,-407.9937,-46.7705,29.853,42.8628,-3.9072,-39.8782,14.9263,40.7256,-25.9463,-2.9851,122.3981,136.33,
-5.4732,-6.468,-409.4865,-55.2282,28.3607,38.3113,-10.4484,-26.3705,0.49791,55.7256,-10.9463,6.468,134.8368,138.8172,
-4.9757,-0.99534,-400.0329,-49.755,41.7942,52.7406,-1.9902,-41.3705,0.99534,41.7942,-24.8778,1.9902,137.3249,147.2763,
-2.9855,0,-393.067,-45.7751,39.804,53.7359,-6.9659,-36.8185,0,41.7947,-15.9216,0.99487,139.3151,151.2563,
-8.9561,-12.9365,-400.0329,-59.7065,26.8675,38.7359,-15.9221,-23.8829,2.9851,51.7457,-0.92161,-2.9851,136.33,136.2563,
-22.8871,-13.9314,-406.9984,-56.721,26.8684,30.8488,-4.9757,-38.8829,9.951,36.7457,-15.9216,4.9757,125.3837,130.3589,
-12.4391,-1.4928,-398.5406,-48.2627,24.3803,19.4041,-19.4051,-29.3561,1.4928,51.7457,-13.434,19.4041,140.3837,137.8223,
-17.4139,0.49743,-394.5597,-44.2823,28.3603,34.4041,-4.4051,-43.287,-0.49743,38.3117,-24.3799,4.4778,135.8321,140.8074,
-15.4237,-1.4928,-387.5938,-44.2819,32.3411,49.2586,1.4928,-28.3598,-1.4928,47.2679,-9.4536,16.4195,146.7789,150.7593,
-18.9072,-16.4928,-392.0721,-59.2819,20.8974,34.2586,-13.5072,-18.9072,-1.9902,62.2679,1.9902,16.917,156.232,136.3291,
-17.9118,-12.9365,-391.0772,-50.7509,30.8479,47.7653,-4.9757,-33.9072,4.9757,47.2679,-13.0098,9.951,144.2908,141.3053,
-2.9118,-0.49743,-376.0772,-44.2819,37.3169,62.7653,-16.419,-28.3603,-8.4582,55.2292,0.49743,24.951,159.2908,149.764,
-13.434,-1.4928,-365.7021,-46.273,28.3607,47.7653,-10.4484,-41.2968,1.4928,40.2292,-14.5026,20.399,155.7336,140.8078,
-23.8829,-8.9561,-369.1846,-49.755,22.8871,32.7653,-4.9757,-47.7653,16.4928,40.7994,-27.8633,8.9561,144.2908,130.3589,
-22.8871,-20.8974,-384.1113,-61.6963,20.8974,29.853,-19.9757,-37.8138,11.9417,52.7406,-12.8633,8.9561,141.3053,130.3589,
-26.8675,-6.9655,-373.165,-47.7653,29.853,44.853,-6.9655,-44.7798,6.9655,37.7406,-27.8633,11.9417,131.3538,145.3589,
-14.9263,1.9902,-358.165,-44.7798,17.9118,57.7158,-6.9655,-29.7798,-1.9902,39.8045,-27.8633,9.951,146.3538,153.2465,
-10.9468,1.9902,-348.2877,-41.7952,20.8964,42.7158,-2.986,-36.819,-1.9902,46.7695,-38.8096,5.9706,148.2703,140.3095,
-12.9365,4.9757,-354.2583,-35.8241,28.8582,57.7158,-4.9757,-38.8096,-5.9706,31.8428,-51.7457,17.9118,139.3146,155.3095,
-7.4634,4.4778,-342.814,-42.2917,23.385,51.2488,-19.9757,-23.8096,-4.4778,42.2921,-36.7457,27.3654,154.3146,142.798,
-20.8969,6.9659,-342.3166,-37.8143,19.902,55.7256,-7.9608,-38.8096,-6.9659,27.2921,-51.7457,12.3654,139.3146,138.3202,
-5.8969,13.9319,-332.3656,-36.8185,31.8442,52.7411,-3.9804,-32.8381,-21.9659,30.8484,-59.7061,3.9804,130.3594,149.2666,
1.9902,1.9902,-332.3656,-51.7457,46.8442,46.7695,-1.9902,-33.8334,-26.8684,24.8778,-62.6921,-9.951,131.3538,143.295,
-1.4928,7.4629,-331.8682,-43.2875,44.2823,61.7695,-6.468,-38.3113,-17.4144,9.8778,-68.1648,1.4928,138.8172,150.7584,
-6.468,6.468,-326.8924,-48.2627,29.2823,48.2627,-21.468,-32.3411,-32.4144,24.8778,-53.1648,8.4587,146.778,140.8078,
-8.4587,5.4732,-311.9661,-43.2875,39.3061,63.2627,-6.468,-41.2968,-17.4144,26.3701,-55.2287,13.434,148.7686,155.8078,
-3.483,-0.49743,-308.9806,-45.2777,43.287,57.2189,0.49743,-26.2968,-2.4144,41.3701,-40.2287,28.434,163.7686,169.666,
-4.4778,2.4881,-310.9708,-45.2777,36.3211,54.2334,-9.4541,-29.3561,-2.4881,49.2581,-45.2777,20.3994,162.7001,154.666,
-2.4881,7.4634,-305.0002,-40.3015,44.2819,57.2189,-1.4923,-44.3561,-8.4582,34.2581,-60.2777,5.3994,152.7486,156.729,
9.9515,-0.99486,-300.5224,-55.3015,36.8185,42.2189,-12.9361,-32.8386,-16.9165,49.2581,-54.7308,0.99486,167.7486,149.2656,
-2.4876,2.4876,-305.9951,-49.2576,41.2968,57.2189,2.0639,-46.2721,-2.4876,34.2581,-69.7308,-2.4876,158.7201,150.7593,
-10.9459,8.9561,-304.5028,-43.7849,34.8283,58.7107,-10.9459,-32.8386,-4.9757,28.8582,-58.7117,4.9757,156.232,160.2124,
-7.9608,5.9711,-297.5368,-48.7602,19.8283,50.7504,-21.8927,-23.8824,-5.9711,39.804,-47.7653,6.9659,157.2264,154.2418,
-11.4438,3.483,-301.0203,-48.2632,15.4242,57.2179,-6.8927,-38.8824,-5.4736,24.804,-62.7653,3.483,145.7826,150.7588,
-1.9902,1.9902,-298.5322,-51.7457,25.8726,42.2179,-11.9417,-23.8829,-1.9902,39.804,-47.7653,16.917,160.7826,153.2465,
-16.9902,0,-302.5121,-46.77,25.8731,49.7555,-18.9072,-23.8824,0,43.7854,-62.7653,6.9659,167.1779,165.1882,
-15.4247,15,-290.0739,-36.3215,19.4041,64.7555,-30.3505,-20.3999,-14.4288,40.3019,-65.1797,14.4288,162.6996,175.6366,
-8.4582,10.4489,-284.1033,-47.2679,14.4293,56.2231,-34.3313,-25.3757,-16.419,39.3066,-50.1797,8.4582,162.7001,160.6366,
-14.9268,1.9907,-284.6007,-45.7751,18.9072,46.77,-19.3313,-39.804,-1.419,24.3066,-65.1797,0.99486,154.2418,156.2315,
-7.4634,3.483,-283.108,-46.2725,18.4088,32.3407,-21.3953,-24.804,-3.483,39.3066,-50.1797,12.4386,169.2418,156.729,
-19.4046,-3.483,-293.0595,-53.2385,21.3943,47.3407,-21.3953,-32.3416,3.483,30.3509,-45.2777,9.4531,178.6217,162.7001,
-17.4144,-1.4928,-290.0734,-51.2473,17.4144,52.2432,-21.3948,-33.336,1.4928,37.3164,-51.2473,19.4051,168.6707,177.7001,
-5.9706,5.9706,-284.6007,-47.7653,5.9706,41.7942,-32.8386,-21.8922,-9.951,50.7509,-45.7751,13.9314,171.1588,176.134,
-9.951,10.9459,-283.6054,-33.8334,9.951,56.7942,-18.9067,-34.8283,-1.9902,35.7509,-60.7751,1.9902,157.2269,185.0897,
-3.9804,3.9804,-281.6152,-42.7896,4.9753,48.7597,-30.8484,-22.8876,-14.9267,23.8824,-48.7607,4.9753,154.2418,179.1191,
0.99534,12.9365,-270.6693,-41.7942,19.9753,63.6869,-15.8484,-36.819,-17.9118,20.8974,-63.7607,-0.99534,149.2661,174.1434,
4.4778,24.3799,-260.2204,-31.3458,27.3654,78.6869,-4.4778,-37.3159,-26.3705,22.3901,-78.7607,-6.4676,150.7588,183.5979,
14.4288,9.3799,-261.2153,-42.2921,12.4391,63.6869,-19.4778,-22.3159,-30.3505,34.3309,-63.7607,-8.4587,161.7047,180.6119,
11.9417,5.9706,-264.6982,-41.7942,20.8974,63.6869,-6.9655,-36.819,-15.3505,19.3309,-66.6725,-5.9706,160.2124,191.0608,
2.4881,4.4778,-274.1518,-49.2581,7.4634,48.6869,-21.9655,-33.3365,-22.3901,31.3458,-56.2236,-2.4881,157.7248,180.6114,
0.99534,6.9664,-269.674,-39.8045,8.9561,55.7261,-18.9067,-30.8479,-18.9067,24.8778,-69.6571,-0.99534,152.2516,185.0897,
7.4629,-1.4928,-270.1719,-45.2772,15.4237,56.2236,-11.4443,-41.2968,-26.371,9.8778,-81.1018,1.4928,152.749,193.5479,
14.4288,-6.468,-268.1817,-60.2772,20.3999,47.2679,-25.3752,-26.3701,-38.3117,24.8778,-66.1018,6.468,167.749,188.5727,
-0.57116,1.4928,-268.1812,-50.2534,19.4041,62.2679,-13.434,-33.336,-23.3117,22.3897,-61.1988,4.4783,158.7192,203.4994,
2.9855,-2.9855,-264.6987,-47.7648,5.9701,47.2679,-23.8824,-30.8484,-19.902,34.8288,-50.7504,5.9701,162.2026,199.0211,
13.9314,1.9902,-249.772,-47.7653,19.9015,33.8334,-8.8824,-38.8096,-17.9118,25.8726,-49.755,-1.9902,168.1732,194.0454,
0.99486,0.99486,-256.7379,-57.7163,18.9072,38.8092,-0.99486,-47.7648,-21.8927,10.8726,-64.755,-16.9174,156.2315,195.0407,
15.9949,-0.49791,-250.2694,-55.2282,20.3999,32.3411,-15.4237,-32.7648,-13.434,25.8726,-49.755,-1.9174,171.2315,195.5386,
6.9659,-0.99486,-252.757,-44.7793,23.8824,43.7844,-3.9804,-46.77,-18.9072,10.8726,-64.755,0.99486,165.1882,201.0118,
3.483,3.483,-254.2498,-47.2674,8.8824,33.3355,-18.9804,-40.3024,-33.9072,10.4489,-71.1498,-3.483,153.7434,200.5144,
5.9711,5.9711,-250.7668,-46.77,3.9804,29.8535,-23.8824,-25.8731,-43.7844,18.9072,-56.1498,-3.9804,163.1975,199.0211,
-4.4778,5.4736,-257.2349,-43.287,4.4778,39.3066,-16.419,-30.3509,-28.7844,9.454,-68.1643,11.0196,163.6949,214.0211,
2.4876,2.4876,-252.2596,-50.2529,-2.4876,26.3701,-31.419,-15.3509,-22.3897,24.454,-53.1643,26.0196,178.6949,216.4355,
-1.9902,-1.9902,-246.786,-50.7499,2.986,30.8488,-17.9118,-30.3509,-7.3897,30.8488,-42.7891,11.0196,174.1443,216.9339,
-0.49743,0.49743,-241.3137,-53.2385,0.49743,23.385,-21.3953,-23.385,-7.4634,35.3262,-35.3262,9.4531,178.6217,215.4402,
0.49743,6.4685,-235.3427,-52.2432,-0.49743,29.3561,-27.3654,-8.385,-22.3901,34.3313,-26.3705,14.4293,192.5536,212.4556,
-11.9412,9.9515,-237.8303,-39.804,13.9319,44.3561,-12.9361,-21.8927,-9.9515,19.3313,-41.3705,16.9165,189.0706,227.4556,
-9.4531,8.4582,-238.3277,-44.2819,12.4396,29.3561,-22.3892,-10.448,-8.4582,34.3313,-26.3705,31.9165,197.5288,242.3091,
-9.951,9.951,-235.8401,-44.7798,10.9468,35.8241,-9.951,-25.448,-13.9314,25.8736,-41.3705,25.8736,185.0907,227.8802,
-8.9561,10.9459,-230.8648,-44.7798,12.9365,35.8241,-13.9314,-31.8437,-27.8633,10.8736,-42.7891,10.8736,189.0701,231.8597,
-6.4685,6.4685,-233.3529,-54.2334,25.3747,29.3551,-14.4293,-18.4097,-23.385,24.3799,-27.7891,10.4489,204.0701,235.3422,
-17.9123,-3.9804,-244.7967,-60.7019,28.8577,40.7989,0.57068,-32.839,-20.8978,9.3799,-42.7891,12.9361,190.0654,234.8448,
-4.9757,1.9902,-229.7967,-53.7359,24.8778,43.784,-6.9664,-17.839,-24.8782,24.3799,-27.7891,27.9361,205.0654,238.8256,
-14.9268,7.9608,-214.9432,-44.7793,23.8824,53.7359,-7.9608,-10.9463,-20.8969,26.868,-36.8185,26.868,206.9819,244.7962,
-16.9165,3.9804,-221.9087,-46.77,25.8731,41.7947,-3.9804,-14.9258,-7.9608,20.8978,-34.8288,35.8246,201.0118,246.7869,
-16.4195,-10.4484,-231.3623,-61.77,24.3803,26.7947,-16.4195,-9.4536,3.4825,35.8978,-19.8288,29.3556,213.4509,233.3529,
-20.3999,-6.469,-227.3823,-62.1946,36.3215,41.7947,-1.4928,-24.4536,1.4928,20.8978,-34.8288,14.3556,199.519,234.3478,
-5.3999,-0.99534,-212.3823,-64.6818,37.8138,44.7798,-1.9902,-20.8974,-13.5072,28.8582,-19.9025,0.99534,208.9721,219.3478,
1.9902,-8.9561,-213.9483,-62.6921,44.7798,50.7499,2.9851,-31.8437,-21.8922,13.8582,-30.8488,-1.9902,207.9773,214.9432,
-0.49791,-2.4876,-217.4308,-51.2483,59.7798,64.1844,0.49791,-29.3556,-36.8922,7.4629,-45.8488,2.4876,204.4943,229.9432,
10.9463,0,-212.9525,-58.7112,66.6729,61.6967,0,-18.9072,-51.8922,17.9123,-43.7844,-5.9701,203.9973,222.9045,
25.3747,7.4634,-203.4994,-59.2086,81.6729,76.6967,15,-33.9072,-36.8922,2.9123,-57.2189,-14.4293,199.5186,216.436,
34.3313,0.49743,-206.4845,-74.2086,82.0962,69.1601,7.4634,-33.3365,-47.2674,-0.49743,-46.2725,-21.3943,205.4896,201.5092,
41.2973,12.4386,-192.5531,-63.189,97.0962,79.1106,22.4634,-30.3509,-49.2581,-12.4386,-61.2725,-24.3799,207.4794,207.4794,
42.2921,19.4046,-187.5773,-56.2231,112.0962,86.0775,37.4634,-39.3066,-50.2529,-19.4046,-76.2725,-22.3892,209.47,216.436,
43.2875,7.4629,-201.5092,-71.2231,105.9791,71.0775,22.4634,-39.3071,-65.2529,-7.4629,-61.2725,-30.3505,217.4313,201.436,
39.804,22.4629,-190.0654,-56.2231,120.4079,86.0775,30.8484,-34.8288,-50.2529,-22.4629,-75.6277,-22.8876,211.9581,212.953,
24.804,10.9463,-191.0603,-62.6916,105.4079,75.6286,15.8484,-20.8969,-64.6823,-10.9463,-69.6575,-22.8876,205.9871,214.9427,
17.9123,4.9753,-188.0752,-63.6865,97.5204,62.6916,13.9319,-18.9072,-49.6823,-4.9753,-54.6575,-22.8876,220.9871,219.9189,
26.3705,14.4293,-189.5675,-49.2581,102.994,77.6916,28.9319,-27.3654,-34.6823,-14.4293,-53.2385,-16.419,231.3627,233.3525,
11.3705,0.99534,-203.9969,-64.2581,87.994,62.6916,13.9319,-26.8684,-49.6823,-0.99534,-50.7509,-21.8922,224.8937,218.3525,
6.9655,8.9561,-188.9969,-53.7354,78.6137,76.623,27.8633,-24.8778,-34.6823,-6.9655,-55.7261,-9.951,232.8545,233.3525,
12.9361,-2.9855,-173.9969,-56.7205,67.6678,61.623,18.9072,-18.9072,-26.868,2.9855,-40.7261,-7.9608,242.8065,236.8354,
17.9118,-0.99534,-167.1784,-47.7653,62.6911,46.623,19.9015,-18.9076,-30.8488,0.99534,-25.8726,-5.9706,243.8009,235.8401,
3.483,9.454,-169.6655,-34.3313,54.2334,57.2189,24.3808,-30.3509,-29.3551,-14.0047,-40.8726,-3.483,232.3576,250.8401,
0.49743,8.4582,-172.6515,-44.2828,41.2963,42.2189,9.3808,-15.3509,-38.3117,0.99534,-25.8726,-0.49743,247.3576,247.2834,
2.4876,14.4288,-169.666,-29.3556,54.2329,48.2627,19.4041,-14.4298,-32.3411,-13.434,-35.3267,-2.4876,242.3086,257.2344,
3.483,5.4736,-167.6753,-32.3407,45.2777,35.3262,11.4438,-20.3994,-47.3411,-17.4139,-39.3066,-3.483,236.338,254.2503,
6.4685,0.49743,-156.7295,-40.3015,46.2725,37.3169,-3.483,-9.4531,-41.2973,-2.4139,-24.3066,-0.49743,251.338,249.2741,
-2.9851,2.9851,-160.2124,-36.819,46.7705,48.7602,7.9613,-15.9221,-29.853,-9.951,-18.9067,2.9851,251.7617,259.7225,
-1.9897,0.99486,-162.2022,-42.7896,31.8432,33.7602,-0.99486,-10.9463,-43.7844,5.049,-3.9067,7.9608,247.7818,252.757,
-4.9753,7.9608,-156.2315,-34.8288,46.77,38.8092,14.0051,-23.8824,-29.8526,-3.9804,-15.9216,3.9804,246.7869,262.7085,
-10.448,3.483,-157.7243,-40.3015,45.2777,24.3808,-0.99486,-18.4088,-34.3313,0.49743,-0.92161,1.4932,244.2988,258.2307,
-0.49743,-4.4778,-151.7537,-47.2674,43.287,10.4489,-6.4676,-14.4284,-34.3309,13.4345,14.0784,0.49743,245.2946,244.2988,
0.99486,-0.99486,-148.2707,-39.804,49.7555,25.4489,8.5324,-29.4284,-22.8876,-1.5655,-0.92161,0.99486,237.8303,259.2988,
-2.4876,-8.4587,-155.7341,-54.2334,34.7555,17.4144,1.4928,-20.3999,-37.3164,8.4587,-1.4928,2.4876,239.3231,262.2106,
-10.9459,-6.9655,-151.2563,-48.7602,30.8479,27.8633,4.9757,-21.8922,-28.8582,0.99534,1.9902,-0.99534,226.8844,259.7225,
-13.9319,-5.9711,-155.2367,-35.8236,24.8773,26.868,-2.9855,-18.9072,-24.8773,4.9753,2.9855,5.9711,220.9138,272.6591,
-14.9263,-14.9263,-165.1877,-41.7942,9.8773,11.9417,-17.9855,-8.9561,-20.8974,19.9025,17.9855,13.9314,227.8793,268.6791,
-21.3943,-8.4582,-154.7388,-34.3313,24.8773,26.9417,-2.9855,-19.4046,-11.4438,4.9025,10.4489,21.3953,221.4112,283.6791,
-20.8969,-19.902,-158.2217,-45.7746,28.8586,11.9417,-17.9855,-10.9463,-26.4438,19.902,23.8824,17.9123,225.8891,283.6054,
-18.4097,-17.4149,-164.6903,-38.3117,27.3654,24.3799,-12.4386,-14.4293,-26.3705,16.419,26.3705,12.4386,233.3525,280.1224,
-16.917,-7.9613,-156.232,-32.8386,14.9263,34.8283,-0.99534,-17.9118,-16.917,1.419,28.8582,12.9365,224.8937,277.6348,
-8.9561,-12.9365,-141.232,-40.7994,12.9365,19.8283,-13.9314,-6.9655,-31.917,11.9417,38.8096,6.9655,220.9143,269.674,
-20.3994,-13.4335,-141.8027,-30.3509,27.9365,25.3757,1.0686,-21.9655,-33.3355,-2.4881,23.8096,7.4634,210.4649,284.674,
-25.8721,-15.9216,-151.2558,-35.8236,12.937,11.9412,-13.9314,-11.9412,-32.8381,12.5119,28.8586,22.4634,221.9087,291.5662,
-19.902,-10.9463,-142.3001,-26.868,10.9463,13.9319,-17.9123,-11.9412,-17.8381,12.9361,30.8484,24.8773,216.9334,293.5569,
-15.9221,-5.9706,-141.3053,-18.9076,24.8778,19.9015,-2.9123,-24.8778,-17.9118,1.9902,15.8484,16.917,201.9334,296.5419,
-10.4489,-8.4582,-140.8078,-33.9076,28.3603,9.4531,-8.4582,-17.4149,-32.9118,16.9902,25.3747,8.4582,204.4948,281.5419,
-10.9463,-3.9804,-125.8078,-24.8773,39.804,24.4531,6.5418,-17.9123,-17.9118,1.9902,16.9165,3.9804,203.0015,284.6003,
-15.4247,-18.9804,-131.8517,-30.3514,24.804,9.4531,-2.4876,-11.4443,-25.3752,5.4732,24.3803,3.4825,199.519,281.1178,
-16.419,-16.419,-131.8517,-19.4046,19.4046,7.4634,-7.4634,-10.4489,-29.3561,17.4139,24.3799,15.4242,196.533,289.0781,
-18.9072,-3.9804,-126.378,-9.9505,25.8731,22.4634,-7.9608,-14.9268,-31.8432,3.9804,9.3799,11.9412,181.533,296.5424,
-3.9072,-10.448,-118.9151,-24.3799,28.3612,13.4345,-15.4242,-5.4727,-35.3262,11.4438,24.3799,3.483,188.5732,285.0986,
-8.9561,-8.9561,-119.4126,-14.9263,38.8096,28.4345,-0.42418,-20.4727,-22.8871,-3.5562,10.9468,8.9561,188.0752,300.0986,
-20.3994,-7.4634,-122.8955,-8.4582,23.8096,23.385,-3.483,-12.4386,-33.3365,3.483,22.3901,15.4242,178.6217,302.0151,
-9.9515,-6.9659,-115.4326,-9.9515,15.9216,17.9113,-13.9319,-2.9855,-22.8876,11.9412,25.8721,2.9855,174.1438,287.0151,
-2.986,1.9902,-116.428,-1.9902,30.9216,31.8428,1.0681,-17.9855,-15.9221,-3.0588,10.8721,11.9407,173.1485,296.541,
-13.9319,-7.9608,-127.3739,-16.9165,15.9216,16.8428,-13.9319,-12.9361,-30.9221,11.9412,19.902,25.8731,174.1438,292.5611,
-14.4288,-11.4433,-112.3739,-18.4092,21.3948,23.3855,-2.4876,-20.3999,-23.3845,2.4876,8.4587,18.4092,159.1438,296.0445,
-0.99534,-15.9211,-98.5152,-27.8624,27.8633,23.8829,-0.99534,-16.917,-26.8675,0.99534,5.9706,13.9314,150.2609,299.5275,
-3.9804,-18.9072,-106.477,-39.805,28.8577,12.9361,-8.9566,-20.8978,-35.8246,4.9753,3.9804,9.9505,150.2605,287.5858,
-6.468,-3.9072,-101.0033,-27.3659,29.3556,25.3752,4.4783,-26.3701,-20.8246,3.4825,-5.4732,19.4041,149.7635,297.0394,
-5.4732,-11.4443,-101.0033,-38.3117,14.3556,10.3752,-10.5217,-11.3701,-27.3659,18.4825,9.5268,22.3897,145.7831,286.093,
-9.4531,-9.4531,-103.9889,-32.3407,22.3901,25.3752,-0.49743,-10.4489,-22.3901,13.4335,0.49743,22.3901,131.8517,297.0399,
-6.9659,-3.9804,-105.4812,-32.8381,36.8194,31.8432,2.9855,-6.9659,-21.8917,13.9319,-2.9855,28.8586,137.3253,304.5032,
-5.4727,-7.4634,-105.9786,-42.2921,27.3654,16.8432,-11.4438,-4.4778,-12.4386,24.3799,4.4778,24.3799,132.8466,294.0543,
-8.9561,-1.9902,-95.5302,-28.8582,29.853,19.9025,3.5562,-19.4778,-12.9365,9.3799,-10.5222,11.9407,117.8466,302.5121,
1.4928,-9.4536,-86.0771,-39.3071,26.3701,7.4629,-1.4928,-9.4536,-27.9365,15.4237,-2.4876,1.4928,109.9595,287.5121,
-1.4928,-6.468,-86.0771,-39.3071,31.3453,22.4629,4.4774,-12.4391,-21.3948,1.4928,-12.4391,9.4536,117.9203,295.0487,
-6.9655,-1.9902,-89.5591,-34.8283,24.8778,23.8829,1.9902,-9.951,-7.9603,10.9468,-10.9459,24.4536,114.4373,310.0487,
-4.9753,-7.9608,-83.5889,-42.7896,19.902,8.8829,-12.9361,-3.9804,-6.9659,25.9468,4.0541,34.8288,120.4079,301.5177,
-11.4443,-9.4536,-80.1064,-35.3267,20.3999,23.3845,-4.4783,-17.4144,5.4732,10.9468,-10.9459,26.3701,105.4079,310.9703,
-6.468,-8.4587,-83.0915,-36.3215,13.434,25.3752,-18.4092,-2.4144,-9.5268,18.4092,-11.4433,25.3752,102.9935,305.9951,
-7.4629,-1.4928,-79.1106,-34.3309,22.3906,40.3752,-6.468,1.4928,-12.4382,10.4484,-19.4041,16.4195,96.0285,293.059,
-8.4587,9.4536,-74.1358,-27.3659,13.434,53.238,-10.4484,-8.4587,-6.468,6.468,-33.336,16.4195,81.0285,288.0837,
-0.49743,10.4489,-74.1354,-31.3458,14.4293,42.2921,-25.4484,-2.4872,-21.468,9.4541,-40.3015,1.4195,73.1405,273.0837,
8.9561,19.9025,-59.7065,-18.9067,29.4293,57.2921,-10.4484,-12.9365,-36.468,-5.5459,-55.3015,-8.9561,68.6622,281.6152,
10.4494,4.9025,-62.1937,-33.9067,44.4293,48.2627,-2.4876,-12.4382,-37.3164,6.468,-48.2627,-6.468,69.1606,266.6152,
24.8778,10.9459,-47.7653,-40.7994,59.4293,57.7159,0.99534,-7.9613,-22.3164,-3.9809,-44.7798,-0.99534,70.6529,261.7132,
23.8829,16.917,-45.7746,-44.7798,74.4293,72.7159,15.9953,-20.8974,-37.3164,-18.9809,-59.7798,-15.9953,55.6529,266.6885,
37.3164,13.434,-39.3061,-56.2236,89.4293,67.1699,18.4102,-13.434,-52.3164,-13.434,-66.1746,-23.3845,62.1946,251.6885,
45.2767,20.3994,-25.3757,-41.2973,104.4293,74.1354,31.3458,-22.3901,-48.2632,-23.385,-81.1746,-20.3994,59.2086,244.2988,
41.2963,15.4242,-25.3757,-46.2725,108.9641,59.1354,16.3458,-7.4634,-50.2529,-13.4345,-69.1601,-10.4489,64.1839,247.2843,
26.868,12.937,-30.8484,-48.7597,104.4863,64.6823,7.9608,-7.9608,-52.7401,-15.9216,-77.6183,-9.9505,51.7462,245.792,
19.9025,13.9314,-34.8283,-46.7695,101.5012,77.6188,13.9314,-22.9608,-55.7261,-30.9216,-92.6183,-13.9314,36.7462,251.7617,
33.8339,10.9463,-23.8824,-47.7648,92.5451,62.6188,-0.99486,-7.9608,-46.77,-15.9216,-77.6183,-3.9804,51.7462,256.7374,
18.8339,8.4582,-28.3603,-45.2777,85.0817,57.2189,9.4531,-14.4293,-34.3313,-30.9216,-86.0766,-8.4582,40.3015,256.24,
7.4634,7.4634,-29.3561,-56.224,70.0817,42.2189,3.483,-15.4242,-49.3313,-24.3799,-92.0477,-3.483,29.3551,241.24,
20.8978,0.99486,-14.3561,-59.7061,64.6823,37.8143,7.9608,-12.9361,-44.7793,-9.3799,-89.5596,-0.99486,41.7947,228.8746,
14.9268,0.99486,-4.9753,-47.7648,58.7112,52.7401,16.9165,-12.9361,-38.8092,-24.3799,-100.5059,-0.99486,40.7989,243.8746,
6.9659,-0.99486,-8.9557,-51.7457,43.7112,37.7401,1.9165,2.0639,-53.8092,-11.9412,-85.5059,0.99486,42.7896,238.8261,
0,0,-11.9412,-46.77,47.7648,36.8185,0.99486,-12.9361,-38.8092,-26.9412,-100.5059,0,35.8236,237.8303,
5.4736,-0.49743,-7.4634,-53.2375,41.2973,38.3117,0.49743,-5.4727,-41.2963,-11.9412,-96.0276,9.4541,42.2921,243.3039,
5.4732,-5.4732,-8.4587,-66.1746,27.3659,27.3659,-10.4484,3.4825,-47.2679,-2.4876,-91.0523,2.4876,37.3164,231.3623,
5.9711,-0.99486,-2.9855,-51.1746,30.8484,35.8236,0.99486,-10.9463,-33.8339,-17.4876,-106.0523,6.9659,24.8782,234.8457,
0,-14.9268,0,-55.7261,15.8484,20.8236,-14.0051,0,-48.7602,-2.4876,-91.5498,10.9463,24.8773,219.8457,
-4.9757,-0.99534,11.9417,-50.7509,18.9067,21.8922,-11.9417,0.99534,-33.7602,-7.9613,-97.5204,12.9365,25.8726,226.8844,
-9.9505,-2.9855,1.9907,-55.7256,11.9412,14.9267,-9.9505,-0.99486,-19.902,0.99486,-100.5054,16.9174,18.9072,236.8354,
-11.9412,-13.9309,-3.9804,-61.6963,5.9711,3.9804,-22.8866,5.9711,-29.8526,13.9319,-89.5591,20.8978,16.9174,221.8354,
-9.4531,1.0691,9.4531,-47.2674,19.4046,18.9804,-8.4582,-1.4923,-34.3313,-1.0681,-104.5591,17.4139,7.4634,224.3968,
-3.483,1.4923,8.4582,-60.2044,4.4778,15.4242,-23.4582,0.49743,-49.3313,-16.0681,-117.9203,2.4139,0.49743,209.47,
-4.9757,-1.9902,10.9459,-58.7117,2.9851,11.9407,-26.8684,1.9902,-42.79,-4.9757,-108.4672,10.9459,1.9902,206.9815,
-9.4531,-6.4685,11.4438,-60.204,-0.49743,5.4727,-28.3603,2.4881,-29.3561,6.4685,-101.9987,19.4046,0.49743,201.5092,
-10.9468,-9.951,13.9314,-58.7117,-1.9902,1.9902,-28.8582,4.9757,-14.3561,20.8974,-92.5451,29.853,1.9902,198.0258,
-13.434,-12.4391,16.4195,-58.2138,-3.4825,-2.4876,-28.3607,7.4638,0.64393,35.3267,-84.0864,40.3019,3.4834,194.5438,
-14.9268,-15.9216,18.9072,-56.721,-4.9753,-5.9711,-28.8577,8.9557,15.6439,49.7555,-74.6333,51.7452,4.9753,192.0552,
-16.419,-17.4139,21.3953,-55.2282,-6.4685,-10.4489,-28.3607,12.4386,30.6439,64.7555,-64.1844,63.189,6.4685,188.5732,
-15.4242,-15.4242,25.3757,-44.2819,1.4923,-1.4923,-18.4097,7.4634,20.3995,49.7555,-79.1844,59.2086,-3.483,199.5186,
-11.4433,-18.4097,17.4144,-49.2576,-2.4876,-3.4825,-30.3509,16.4195,5.3995,34.7555,-64.1844,44.2086,7.4629,184.5923,
-17.4149,-14.4293,19.4046,-46.2725,3.483,11.5175,-15.3509,1.4195,11.4438,19.7555,-79.1844,31.3458,-0.49743,185.5876,
-14.9263,-21.8922,28.8582,-59.7065,1.9902,-3.4825,-21.8922,9.951,0.99534,34.7555,-78.6137,46.3458,-0.99534,174.1434,
-16.9165,-24.8773,31.8432,-56.7205,6.9659,0,-18.9072,0,0.99486,19.7555,-91.5498,31.3458,-9.9505,161.2078,
-12.4386,-9.8773,39.3066,-41.7205,11.4438,15,-3.9072,0.49743,9.454,4.7555,-101.9982,25.3757,-14.4293,169.666,
-9.4541,-14.4293,34.3313,-48.2627,-0.49743,0.49743,-18.9072,11.4438,1.4923,19.7555,-86.9982,40.3757,-10.4489,154.666,
-13.9309,-19.902,33.8339,-45.7751,7.9608,8.9566,-7.9608,-3.5562,16.4923,6.9659,-91.5498,43.7854,-21.8917,157.2274,
-9.951,-21.8922,44.7798,-38.8092,0.99534,-0.99534,-19.9025,10.9459,25.8726,21.9659,-76.5498,47.7653,-12.9365,160.2124,
-10.9459,-20.8974,51.7457,-40.7994,-0.99534,0.99534,-15.9221,16.917,29.853,36.9659,-61.5498,52.7406,-8.9561,146.2805,
-18.9072,-23.8824,39.804,-48.7607,0.99486,5.9701,-11.9412,1.917,31.8432,24.8773,-70.6529,51.7452,-20.8978,147.2759,
-3.9072,-21.8922,46.7705,-51.7457,1.9902,-8.9561,-24.8778,16.917,44.7798,39.8773,-55.6529,57.7158,-5.8978,150.2609,
-8.4578,-18.4092,50.2534,-46.2721,5.4732,-2.4876,-11.4433,2.4876,48.2627,29.3556,-70.155,51.2483,-17.4144,141.8027,
-3.9809,-15.9221,52.7406,-43.7849,2.9851,-2.9851,-19.9025,5.9706,33.2627,30.8479,-76.6235,53.7354,-31.8437,126.8027,
-2.9855,-18.9072,52.7411,-38.8092,7.9608,2.9855,-18.9072,4.9753,18.2627,22.8876,-81.5987,40.7998,-40.7994,112.4471,
-7.4634,-9.4531,54.2334,-28.3603,16.419,15.4242,-3.9072,-1.4923,8.4582,7.8876,-90.057,37.3169,-40.3015,124.8857,
-2.9855,-16.917,48.7597,-43.3603,2.9855,0.42418,-18.9072,13.5077,7.9608,22.8876,-75.057,48.7597,-29.8535,111.4522,
-12.4391,-23.3845,40.3019,-46.2721,5.4732,2.4876,-24.3803,-1.4923,6.468,12.4391,-89.0621,45.2772,-44.8535,102.9935,
-1.9902,-10.9459,50.7509,-35.8241,5.9706,-0.99534,-24.8778,4.9757,0.99534,8.9561,-75.6281,42.79,-45.7746,98.5157,
0.99534,-6.9655,57.7168,-40.7994,-0.99534,-11.9407,-26.868,12.9365,11.9417,16.917,-60.6281,34.8292,-31.8432,83.5157,
-11.9407,-8.9552,52.7415,-39.8036,-1.9902,3.0593,-17.9118,1.9902,24.8778,11.9417,-67.6664,44.7798,-46.8432,85.5796,
2.9855,-11.9417,66.672,-42.7896,-9.9515,-2.9855,-32.9118,16.9902,15.9216,26.9417,-52.6664,59.7061,-45.7751,75.6277,
-0.99486,-10.9463,76.6235,-39.804,-3.9804,0.99486,-21.8927,10.9463,14.9267,11.9417,-66.6725,44.7061,-59.7065,64.6813,
-5.4732,-7.4638,72.1452,-35.3267,2.4876,-2.4876,-12.4391,8.4578,13.434,8.4578,-68.1652,29.7061,-65.1797,67.1699,
1.4928,-16.4195,67.1699,-34.3313,-1.4928,-6.468,-27.4391,16.4195,27.3659,23.4578,-53.1652,44.7061,-57.2184,59.2091,
-3.9799,-19.9015,70.6529,-29.853,-1.9902,8.532,-42.4391,1.9902,33.8344,28.8582,-59.7056,53.7364,-71.6473,61.6972,
-1.9902,-22.8876,71.6477,-44.853,-6.9655,1.9902,-57.4391,16.917,18.8344,33.8334,-45.7746,48.7602,-69.6575,57.7158,
-1.9902,-25.8726,65.6776,-58.7112,-1.9902,10.9459,-68.6622,1.9902,11.9417,19.9025,-60.7746,39.8045,-80.6034,57.7158,
0.99486,-23.8824,66.672,-44.7802,-0.99486,8.9557,-65.6771,-1.9907,13.9319,23.8824,-64.6823,54.7308,-90.5549,53.7359,
0.99534,-24.8778,65.6776,-46.7695,-0.99534,5.9706,-64.6818,-3.9799,12.9365,17.9118,-66.6715,48.7602,-93.54,46.7704,
0.49743,-25.3747,65.1797,-47.2674,-0.49743,3.483,-63.189,-6.4676,11.4438,12.4396,-68.1643,44.2828,-97.0225,41.2973,
0,-26.868,63.6874,-49.7555,0,0,-61.6967,-8.9557,8.9566,5.9711,-69.6575,37.8143,-100.5054,34.8288,
1.4928,-26.3701,64.1844,-49.2576,1.4928,-1.4928,-59.2091,-9.4536,8.4587,1.4928,-70.1545,34.3309,-102.9935,30.3505,
5.9711,-22.8876,67.6678,-46.77,5.9711,0,-53.7359,-6.9659,11.9412,0,-67.6669,32.839,-101.5008,27.8628,
9.4536,-19.4041,71.1503,-43.2865,10.4494,1.4928,-48.2627,-5.4732,14.4298,-1.4928,-65.1792,32.3411,-101.0029,26.371,
13.4335,-17.4149,73.1405,-41.2973,15.4242,3.483,-42.2921,-3.483,16.419,-5.4736,-63.189,28.3603,-101.9987,22.3901,
12.937,-23.8824,68.6627,-44.7798,0.42418,-11.517,-57.2921,11.517,2.9855,9.5264,-48.189,38.8092,-101.5008,8.9566,
17.4144,-14.4288,75.1307,-40.3019,1.4928,-1.4928,-65.1797,12.4391,17.9855,24.5264,-40.3019,44.2823,-99.0131,-3.4834,
16.9174,-9.9505,76.6235,-38.8092,13.9319,13.5072,-50.1797,-2.5609,4.9753,9.5264,-55.3019,34.8288,-110.4569,-2.9855,
31.9174,-5.9706,79.6085,-39.8045,20.8974,1.9902,-52.7411,12.4391,-8.9561,24.5264,-40.3019,41.7942,-95.5306,-1.9902,
16.9174,-9.4541,64.6085,-40.3024,14.4293,10.4489,-37.7411,-2.5609,3.483,9.5264,-55.3019,33.3355,-110.5306,-10.4489,
23.3845,-9.4536,72.1452,-43.2875,7.4629,12.4382,-35.3267,1.4928,-1.4928,14.4288,-54.2338,37.3164,-114.9352,-17.4144,
37.3164,-10.4484,83.0915,-39.3071,19.4041,11.4433,-29.3556,11.4433,-5.4732,5.4732,-42.2926,34.3309,-108.9646,-11.4443,
34.8292,-1.9902,74.6333,-24.3071,21.8922,16.917,-14.3556,7.9613,-5.9706,-9.5268,-57.2926,42.79,-119.4126,1.9902,
29.3551,-0.49743,73.1405,-32.3407,6.8922,6.4685,-29.3556,16.419,-18.4097,5.4732,-48.2627,49.2581,-127.8713,-13.0098,
29.3556,6.468,88.1405,-25.3752,7.4638,21.4685,-14.3556,2.4876,-3.4097,-5.4732,-63.2627,37.3164,-133.8419,-28.0098,
31.8437,-4.9757,84.5838,-39.8045,7.9603,6.4685,-18.9067,9.951,-15.9221,9.5268,-51.7457,28.8582,-123.3935,-39.8045,
36.322,-10.448,84.0869,-47.2674,18.4097,4.4778,-11.4438,19.4046,-4.4778,24.5268,-36.7457,43.8582,-108.9641,-47.2674,
28.8577,-18.9072,77.6183,-49.7555,13.9319,6.9659,-3.9804,4.4046,0,9.5268,-42.7896,44.7793,-123.9641,-52.7411,
41.7942,-14.9267,82.5941,-48.7602,12.9365,-4.9757,-8.9561,19.4046,1.9902,23.8829,-27.7896,45.7746,-108.9641,-62.6916,
26.7942,-25.8726,67.5941,-56.721,11.9417,6.9655,-6.9655,11.9417,10.9459,8.8829,-25.8726,30.7746,-123.9641,-69.6575,
11.7942,-29.8535,55.7256,-55.7266,10.9454,5.9701,-20.8978,14.9258,3.9804,-3.9804,-23.8834,45.7746,-121.4033,-56.7215,
26.7942,-16.419,63.189,-41.2973,16.419,4.4778,-16.419,27.3654,-4.4778,11.0196,-11.4438,57.2189,-109.9595,-54.2334,
15.9211,-2.9851,61.6963,-26.2973,17.9118,19.4778,-1.419,12.3654,-9.951,-3.9804,-26.4438,42.2189,-124.9595,-59.7065,
28.3607,10.4484,76.1256,-17.4144,19.4041,27.3649,-11.4443,27.3654,-13.434,-10.4484,-27.3659,27.2189,-128.8666,-71.1503,
29.3556,5.4732,73.14,-16.4195,21.3948,38.3113,-5.4732,12.3654,-25.3752,-25.4484,-42.3659,24.3803,-142.7976,-75.1307,
30.3509,3.483,75.1302,-19.4046,22.3901,32.3407,-3.483,14.4293,-15.4242,-23.385,-55.2282,26.3705,-135.8321,-77.1209,
29.853,0.99534,76.623,-23.8829,22.8871,25.8726,-0.99534,16.917,-4.9757,-16.917,-41.7942,27.8633,-129.3641,-80.6039,
27.3659,-5.4732,75.1307,-30.3505,20.3999,16.4195,-1.4928,16.4195,1.4928,-14.4288,-31.3453,27.3659,-125.8806,-87.0714,
20.8969,-13.9319,69.6575,-40.7998,14.9268,4.9753,-4.9753,12.9361,5.9701,-13.9319,-23.8824,22.8876,-126.3785,-96.5255,
23.8824,-13.9319,73.6379,-41.7947,17.9113,0.99486,-0.99486,17.9113,17.9113,-5.9711,-8.8824,26.868,-117.4228,-96.5255,
19.4041,-21.3948,70.1545,-50.2529,13.434,-10.4484,-2.4876,15.4237,24.3803,-4.4783,2.4876,24.3803,-115.9301,-104.9837,
14.9268,-26.868,60.7009,-60.7019,0.99486,-23.8829,-15.9221,22.8876,9.3803,3.9804,3.9804,17.9113,-120.4079,-115.4326,
17.4149,-25.3752,63.19,-57.2184,5.4736,-20.3994,-12.4386,22.3901,-3.483,4.4778,3.483,22.3901,-119.91,-112.9445,
22.3901,-21.3943,67.1704,-53.238,12.4386,-14.4284,-8.4582,23.385,-4.4778,6.4685,4.4778,27.3654,-117.9198,-107.9688,
25.8726,-17.9118,69.6571,-48.7602,18.9067,-9.951,-4.9757,23.8829,-4.9757,7.9603,4.9757,32.8386,-117.4228,-103.491,
27.3654,-16.419,71.1498,-46.2725,23.385,-6.4685,-3.483,21.3953,-8.4582,6.4685,3.483,35.3262,-117.9203,-101.0033,
29.3551,-16.419,72.1447,-44.2823,26.3705,-4.4778,-1.4923,19.4046,-12.4386,5.4727,1.4923,38.3117,-118.9151,-100.0085,
31.8432,-14.9268,73.6379,-42.7896,30.8484,-0.99581,0,17.9113,-15.9226,4.9753,0,40.7989,-119.4131,-97.5208,
32.8381,-15.9216,72.6431,-41.7947,32.8381,0,0,13.9309,-20.8978,2.9855,-1.9907,41.7947,-122.3981,-96.5255,
25.8726,-17.9118,69.6571,-39.8045,18.9067,15,-6.9655,16.917,-10.9459,0.99534,-0.99534,39.8045,-127.3739,-102.4961,
25.8731,-9.9505,76.6235,-29.8535,21.8927,30,2.9855,20.8978,-4.9753,-14.0047,-2.9855,27.8628,-126.3785,-95.5302,
26.3705,-20.3999,69.1601,-44.8535,19.4046,15,-12.0145,27.3654,-8.4582,0.99534,12.0145,21.3943,-117.9203,-110.5302,
11.3705,-30.35,54.1601,-56.2231,16.42,0.49743,-20.3994,12.3654,6.4685,-14.0047,2.4881,21.3953,-132.9203,-111.9492,
2.9851,-27.8633,39.1601,-55.7261,1.9902,9.951,-34.8292,10.9459,-1.9902,-11.9417,5.9706,34.8283,-145.2857,-97.5204,
17.9851,-12.8633,37.3164,-42.2917,6.468,24.951,-35.3267,16.4195,1.4928,-3.4825,-1.4928,38.3113,-142.7976,-96.0276,
19.9025,-4.9757,42.7891,-27.2917,7.9603,37.8138,-26.8684,10.9459,4.9757,-12.9365,-12.9365,35.8241,-151.2563,-90.5549,
15.4242,-19.9757,43.287,-42.2917,2.4881,22.8138,-35.3262,20.3994,-10.0243,-2.4881,2.0635,34.3313,-144.7882,-103.9889,
20.3999,-15.4237,51.2483,-49.2576,17.4881,27.3659,-20.3262,5.3994,1.4928,-17.4881,-12.9365,30.3505,-144.7882,-100.008,
22.3892,-30.4237,48.2623,-64.2576,32.4881,12.3659,-5.3262,-3.483,1.4923,-25.3757,-0.49743,17.4139,-132.847,-115.008,
26.3705,-45.4237,59.2086,-79.1111,33.3355,-2.6341,-4.4778,4.4778,10.448,-17.4149,14.5026,9.4531,-117.847,-127.8713,
22.8876,-49.7555,62.6916,-74.6328,29.8535,-4.9753,4.9753,-10.5222,5.9701,-32.4149,7.9608,5.9701,-131.3543,-122.3981,
37.8876,-34.7555,77.6916,-59.6328,41.7942,-1.9902,1.9902,4.4778,-1.9902,-17.4149,22.9608,20.8974,-120.4079,-120.4079,
40.7994,-19.7555,72.6426,-44.6328,48.7602,13.0098,16.9902,1.9902,-6.9664,-32.4149,7.9608,13.9314,-135.4079,-118.4182,
31.3453,-4.7555,64.1844,-36.3215,33.7602,28.0098,1.9902,5.4732,-21.9664,-35.3267,-1.4928,21.3948,-145.7836,-114.9352,
27.8638,-3.9804,56.7215,-30.8484,19.903,13.0098,-13.0098,13.9319,-19.902,-20.3267,4.9762,20.8978,-145.2852,-121.4028,
17.9123,0,51.7462,-15.9216,28.8586,20.8978,0,3.9804,-4.902,-34.8288,-10.0238,23.8824,-154.2413,-106.4028,
22.3906,-10.4484,49.2586,-30.9216,15.4247,17.4144,-15,11.4443,-9.4536,-19.8288,4.9762,30.3514,-150.7584,-104.9833,
19.4046,-13.4345,52.2427,-41.2973,17.4139,23.385,-10.4489,0.49743,-0.49743,-32.3407,2.4872,24.3799,-155.7346,-106.9744,
24.8782,-3.9804,59.707,-29.8526,27.8638,18.9072,-10.9454,8.9566,-7.9608,-23.8824,3.9804,33.8339,-150.2609,-102.4956,
32.3411,-9.4536,69.1596,-35.3267,29.3556,14.4288,-15.4247,9.4536,-16.4195,-9.4536,13.434,23.3845,-146.7784,-117.4956,
37.3169,-10.4489,84.1596,-41.2973,43.287,29.4288,-0.42465,-5.5464,-1.4195,-24.4536,0.49743,11.4438,-147.7733,-122.8955,
47.7653,-25.4489,85.5796,-56.2973,33.8334,14.4288,5.9706,6.9655,-5.9706,-39.4536,15.4974,14.9263,-132.7733,-133.3445,
33.8344,-39.8036,73.6384,-71.2973,34.8292,-0.57116,5.9706,-5.9706,5.9706,-54.4536,30.4974,9.951,-125.3832,-138.3197,
20.3999,-36.3215,69.1606,-71.1498,33.336,-1.4928,1.4928,-8.4578,6.468,-69.4536,41.2968,7.4638,-124.8858,-137.8218,
32.3411,-23.3845,74.1358,-57.2184,25.3752,-1.4928,-13.5072,6.5422,1.4928,-84.0864,56.2968,7.4629,-119.9105,-149.7635,
24.8773,-17.9123,64.6813,-42.2184,16.9165,12.9361,-10.9463,0.99486,0.99486,-99.0864,41.2968,-0.99486,-134.9105,-147.2759,
25.3752,-9.4536,59.2091,-27.2184,9.4536,7.4629,-25.3752,15.9949,-7.4629,-90.0575,49.2576,14.0051,-146.7784,-132.2759,
14.9263,-7.9613,44.7798,-20.8974,7.9613,19.9025,-29.853,19.9025,-8.9561,-90.5549,39.8045,26.8675,-153.2465,-117.2759,
12.4386,-8.4582,38.3117,-15.4242,8.4582,22.3901,-33.3365,14.4284,-9.454,-100.0085,27.3654,34.3313,-162.7001,-109.9595,
23.8829,-8.9552,49.756,-21.8922,11.9417,7.3901,-34.8283,21.8922,-5.9706,-85.0085,42.3654,32.8386,-148.2707,-124.3878,
25.8721,-1.9907,64.756,-13.9319,26.9417,22.3901,-19.8283,6.8922,0,-100.0085,27.3654,17.8386,-159.2176,-119.4131,
32.8386,-6.9655,75.6281,-24.8778,20.8974,23.8829,-6.9655,6.9655,-15,-91.5498,34.8292,18.9067,-160.2119,-129.3641,
33.3365,-8.4582,81.1013,-32.3407,19.4046,8.8829,-4.4778,12.4386,-8.4582,-78.1158,49.8292,25.3757,-145.2119,-136.8274,
29.8535,-10.9463,78.6132,-38.8092,13.9319,-4.9753,-4.9753,5.9701,4.9753,-65.6771,59.7061,24.8773,-135.3347,-140.3099,
39.3071,-17.4144,85.0822,-43.287,15.4247,-10.4484,-14.4288,18.4092,10.4484,-50.6771,74.7061,25.3752,-120.3347,-150.7584,
26.8684,-23.8819,77.6188,-41.7942,23.8829,0.99534,-0.99534,3.4092,23.8829,-65.6771,78.6137,17.9118,-129.3636,-138.3197,
33.3365,-23.385,73.1405,-51.2478,20.3994,-10.4489,-15.9953,10.4489,18.4097,-60.204,93.6137,32.9118,-114.3636,-131.8517,
37.3164,-30.3514,67.169,-58.2142,23.3845,-5.4732,-20.3999,5.4732,19.4041,-54.2338,101.0029,34.3309,-115.9301,-145.7836,
30.3509,-30.3509,60.2044,-48.2623,28.3603,9.5268,-13.4335,-9.5268,24.3799,-69.2338,86.0029,44.2828,-130.9301,-130.7836,
27.8633,-27.8624,50.7509,-44.7798,13.3603,-2.9851,-28.4335,5.4732,31.8437,-54.2338,101.0029,58.7117,-137.3244,-117.4224,
13.434,-18.4102,40.3019,-29.7798,-1.6397,12.0149,-43.4335,5.4732,42.2917,-53.239,89.0616,53.238,-152.3244,-114.9352,
12.9365,-18.9067,39.8045,-33.8334,-4.9757,9.951,-55.7261,6.9655,27.2917,-52.7406,92.5446,51.7457,-150.2614,-125.3837,
22.8876,-25.8731,54.8045,-48.8334,6.9659,-0.99486,-40.7998,10.9463,12.2917,-39.804,107.5446,48.7597,-135.2614,-138.3202,
20.3994,-27.3654,57.2189,-49.2581,13.4345,0.49743,-25.7998,-0.49743,26.3705,-54.804,110.9548,38.3117,-133.8419,-138.8172,
32.8386,-19.9025,64.6818,-36.8194,14.9263,-9.951,-25.8731,14.5026,11.3705,-41.7947,125.9548,37.8138,-120.4084,-147.2763,
22.3901,-15.4242,70.155,-29.3551,16.419,1.4923,-14.4293,3.483,-1.4923,-56.7947,110.9548,23.385,-135.4084,-152.749,
16.9165,-13.9309,65.6771,-31.8432,10.9463,-7.9608,-25.8731,7.9608,13.5077,-47.7648,121.4028,26.868,-137.3249,-152.2511,
22.3906,-13.434,60.204,-33.336,13.434,-15.4237,-38.3113,21.3948,28.3607,-33.336,136.4028,35.3267,-125.8806,-151.7537,
22.3901,-10.4489,57.2189,-28.3603,20.3994,-6.4685,-24.3799,6.4685,15.4242,-48.336,121.4028,36.3211,-140.8806,-136.827,
37.3901,-6.9659,64.6823,-28.8582,29.8535,-6.9659,-28.8582,21.4685,6.9659,-33.336,136.4028,47.7648,-125.8806,-125.3832,
22.3901,-17.9123,49.6823,-38.8092,22.8876,3.9804,-33.8339,6.4685,7.9608,-48.336,122.3986,32.7648,-140.8806,-128.3687,
12.4391,-10.4484,42.2917,-34.3309,20.3999,8.4587,-29.3556,-1.4928,1.4928,-63.336,122.8955,38.3113,-152.749,-119.9105,
27.4391,-14.4288,56.2236,-38.3113,30.3505,-1.4928,-26.3701,10.4484,1.4928,-48.336,137.8955,49.2576,-141.8027,-133.8419,
25.3757,-21.3953,53.2385,-38.3117,39.3066,5.4727,-14.4293,-4.5516,16.4928,-55.2282,122.8955,41.2973,-152.749,-133.8419,
22.3897,-20.3999,52.2432,-46.273,24.3066,-9.4536,-29.4293,9.4536,13.434,-40.2282,137.8955,40.3019,-137.8228,-140.8078,
17.4144,-17.4144,55.2287,-43.2875,16.4195,1.4928,-28.3607,-1.4928,12.4391,-39.3071,145.7831,39.3071,-137.8223,-135.8321,
16.4195,-22.3897,56.2236,-43.2875,17.4144,1.4928,-17.4144,-1.4928,3.4825,-34.3309,138.8172,49.2576,-146.7784,-130.8568,
30.3505,-17.4144,66.175,-45.2772,23.3855,-5.4732,-12.4386,13.5072,5.4732,-19.3309,153.8172,54.2338,-131.7784,-138.8172,
15.3505,-25.3747,51.175,-48.2623,15.4242,-4.4778,-11.4438,4.4778,5.4727,-34.3309,146.7784,39.2338,-134.8368,-140.8074,
6.468,-20.3999,46.2721,-38.3117,10.4484,-6.468,-26.4438,19.4778,11.4433,-19.3309,161.7784,54.2338,-129.8615,-127.8713,
-2.4876,-30.3514,40.3019,-44.2823,8.4578,2.4876,-37.3164,8.4578,14.4288,-28.3607,159.714,55.2277,-136.8274,-139.813,
2.4881,-27.3654,35.3262,-50.2529,23.385,4.4778,-22.3164,-2.4881,16.419,-43.3607,148.7682,43.287,-136.8274,-133.8419,
15.4237,-24.3803,33.336,-64.1848,29.3556,-9.4536,-17.4144,9.4536,17.4144,-28.3607,163.7682,47.2669,-128.8666,-126.8764,
6.9655,-22.888,26.8675,-62.6921,27.8633,5.5464,-15.9221,-5.5464,14.9263,-43.3607,148.7682,42.7891,-143.8666,-118.4177,
13.4345,-12.4386,32.3416,-48.2623,19.4046,8.4582,-30.9221,8.4582,-0.073724,-34.3313,163.6949,42.2921,-144.7878,-128.8662,
16.9174,-2.9855,39.804,-33.2623,20.8978,7.9608,-22.8876,2.9855,-12.9361,-41.7947,149.2666,28.8586,-159.7878,-141.3048,
19.9025,-1.9902,47.7653,-18.2623,28.8582,13.9314,-7.8876,-3.9809,-13.9314,-55.7261,136.33,23.8829,-165.1877,-135.3347,
31.8437,-1.9902,53.7364,-19.9015,32.8386,0.99534,-0.99534,11.0191,-1.9902,-40.7261,151.33,38.8829,-150.1877,-134.3393,
16.8437,-10.9459,38.7364,-29.853,17.9118,1.9902,-7.9603,-1.9902,4.9757,-48.7602,155.2372,38.8096,-155.2367,-136.3295,
13.9319,-4.9753,47.7648,-30.8484,19.902,4.9753,-10.9463,12.9361,-4.9753,-33.7602,170.2372,43.7844,-140.2367,-135.3347,
11.4443,-19.9753,45.2772,-44.2823,28.3607,-5.4732,-0.49791,11.4443,0.49791,-32.3411,185.2372,28.7844,-125.2367,-150.3347,
-0.99486,-23.8824,34.8288,-44.7793,28.8586,0.99486,9.9515,-2.9855,10.9463,-45.7751,170.2372,29.8535,-139.3146,-144.2903,
14.0051,-8.8824,47.7653,-38.8087,31.8437,5.9706,-5.0485,12.0145,-4.0537,-30.7751,181.1103,44.8535,-131.3538,-142.2997,
7.9608,-7.9608,45.7751,-37.8134,44.7803,13.9319,9.9515,-2.9855,-17.9113,-45.7751,166.1103,29.8535,-146.3538,-148.2707,
9.9515,-13.9319,37.8143,-50.7504,50.7504,-0.99486,15.9216,0.99486,-6.9659,-53.7359,156.2315,29.8535,-145.2857,-142.3001,
10.4484,-25.3752,22.8143,-65.7504,46.273,-6.468,1.4928,-1.4928,4.4783,-44.2823,171.2315,35.3267,-135.8316,-141.8022,
-0.99534,-18.9067,13.9314,-69.6571,40.7994,8.532,0.99534,-16.4928,1.9902,-57.7159,156.2315,34.8283,-146.2805,-126.8022,
6.468,-6.468,19.4041,-54.6571,32.3411,11.4433,-12.4391,-1.4928,-7.4638,-42.7159,167.6748,42.2917,-144.7882,-126.8764,
-1.9902,-5.9706,12.9365,-39.6571,34.8292,26.4433,-1.9902,5.9706,1.9902,-57.7158,152.6748,34.8292,-159.7882,-129.3636,
0,-2.9855,16.9165,-24.8782,32.8381,24.8773,-4.9762,18.9062,0,-42.7158,159.2171,45.7742,-153.247,-116.428,
-0.49743,-10.4489,21.3943,-32.3416,29.3551,11.4438,0.49743,28.3603,-4.4778,-27.7158,171.6557,45.2767,-141.8032,-124.8862,
-8.9557,-18.9072,15.9216,-27.8628,35.8236,14.9268,15.4974,13.3603,-3.9804,-42.7158,156.6557,34.8288,-150.2609,-134.3393,
3.9799,-16.917,17.9118,-29.853,31.8428,-0.07325,1.9902,27.8624,-4.9757,-27.7158,171.6557,39.8045,-135.2609,-139.3151,
-8.9557,-15.9216,9.9515,-40.7998,29.8535,1.9897,0.99486,17.9123,-0.99486,-36.8194,156.6557,24.8045,-142.3001,-138.3197,
-3.483,-13.4345,11.4438,-46.2725,41.2963,3.483,6.4676,10.448,-8.4592,-33.3365,151.7537,22.3892,-136.8274,-136.8274,
11.517,-8.4587,25.3752,-41.2973,51.2483,-5.4732,5.4732,22.3897,-5.4732,-18.3365,166.7537,34.3309,-121.8274,-142.798,
0.99534,-12.9365,15.9211,-42.79,43.7849,-2.9851,11.9407,7.3897,-0.99534,-31.8437,151.7537,29.853,-133.3445,-139.3151,
0.99486,-14.9268,11.9412,-52.7406,36.8194,-0.99486,-3.0593,22.3897,-2.9855,-16.8437,166.7537,42.7896,-123.393,-131.3538,
-4.4778,-10.448,4.4778,-49.2571,33.3365,14.0051,-11.4438,13.4345,-4.4778,-1.8437,151.7537,37.3169,-133.8414,-123.8904,
1.9902,-10.9459,2.986,-48.7602,26.8684,4.9757,-13.9314,-1.5655,-19.4778,8.9561,136.7537,22.3169,-148.8414,-133.344,
16.9902,-14.9268,17.986,-49.7555,37.8143,-10.0243,-6.9659,6.9659,-12.9361,23.9561,147.2759,23.8824,-148.2712,-148.344,
1.9902,-19.9025,20.8974,-37.8138,29.853,0.99534,-0.99534,-5.9706,2.0639,21.8922,134.3393,30.8479,-154.2418,-139.3151,
-9.9515,-8.9566,18.9072,-25.8731,14.853,-3.9804,-15.9953,9.0294,6.965,36.8922,149.3393,45.7742,-139.3151,-132.3496,
-7.4634,-6.4685,16.419,-21.3953,10.4489,2.4881,-5.4727,14.4293,-2.4881,21.8922,138.8176,30.7742,-143.7929,-141.8027,
-12.9365,-13.9314,15.9221,-25.8726,15.9221,0.99534,7.9613,-0.57068,-13.9314,6.9655,123.8176,15.7742,-149.2661,-145.2857,
-0.99534,-7.9613,27.8624,-29.853,23.8819,-1.9902,0.99534,14.4293,-8.9561,21.9655,138.8176,30.7742,-134.2661,-138.3202,
-15.9953,-17.9118,12.8624,-40.7994,29.853,0.99534,1.9902,3.9799,-13.9314,6.9655,130.3589,21.8922,-140.3099,-134.3393,
-4.9762,-8.9566,0,-30.8484,43.7844,0,0.99486,18.9799,-19.902,21.9655,145.3589,19.902,-125.3099,-127.3739,
-11.4438,-18.4088,0.49743,-39.3066,42.2921,1.4932,-0.49743,23.385,-14.4284,16.42,142.798,12.4386,-112.9445,-136.827,
-22.8876,-23.8824,-10.9463,-41.7947,43.7844,15.9216,4.9753,15.9216,-4.9753,8.9557,139.3151,27.4386,-111.4522,-121.827,
-8.4582,-8.8824,-16.419,-32.3407,52.2436,28.3603,-5.4727,30.9216,4.4778,23.9557,154.3151,42.4386,-96.4522,-106.827,
-16.917,-2.9851,-24.8778,-32.8386,47.7653,42.7891,-5.9706,15.9216,2.9851,14.9263,142.3001,27.4386,-111.4522,-111.4522,
-4.9753,0.99486,-9.8778,-30.8484,47.7648,27.7891,-11.9412,18.9072,-0.99486,28.8577,157.3001,24.8773,-116.4275,-121.4033,
-15.4237,-6.468,-5.4732,-38.3113,45.2772,12.7891,-8.4578,15.4247,6.468,20.3999,159.715,23.3855,-112.9445,-130.8564,
-29.8535,-15.9216,0,-34.8288,42.7896,-0.99487,6.5422,0.42465,2.9855,5.3999,144.715,19.902,-115.4326,-118.4177,
-17.4144,-25.3752,13.434,-37.3164,38.3113,-15.9949,10.4484,15.4247,-10.4484,20.3999,159.715,31.3453,-100.4326,-122.896,
-31.3458,-28.3603,-1.566,-43.287,36.3211,-14.4293,8.4582,7.4634,4.4778,16.419,154.7392,22.3901,-101.9982,-128.8662,
-18.9076,-13.9314,-0.99534,-32.8386,39.8045,-8.9561,0.99534,22.4634,15.9211,31.419,169.7392,37.3901,-87.5698,-113.8662,
-13.9314,-20.8974,5.9706,-31.8437,33.8334,-11.9417,-2.9851,23.8829,2.9851,44.7798,176.134,39.8045,-84.5843,-106.4765,
-28.3603,-25.3757,0.49743,-35.3262,23.385,3.0583,-0.49743,8.8829,-5.4736,29.7798,161.134,24.8045,-99.5843,-107.9693,
-21.8917,-21.8917,-0.99486,-46.77,14.9267,2.9855,-15.4974,17.9123,0.99486,18.9072,154.2418,25.8731,-101.5008,-107.4714,
-25.8731,-15.9216,-3.9804,-40.7998,24.8773,9.9505,-14.9267,5.9701,12.9361,3.9804,145.2852,31.8432,-104.4863,-96.5255,
-24.8773,-3.9804,-8.9557,-32.8381,21.8927,15.9216,-27.8628,16.9165,3.9804,16.9165,154.2418,43.7844,-98.5157,-87.5689,
-27.3649,-4.4783,-19.4041,-27.3649,12.4391,16.4195,-42.8628,20.3999,4.4783,23.3855,152.749,33.336,-102.9935,-94.0374,
-24.8778,-1.9902,-11.9417,-12.3649,26.8675,21.8922,-28.8582,6.9655,12.9356,8.3855,137.749,26.8675,-117.4228,-84.5848,
-9.8778,-2.4876,3.0583,-13.434,35.3267,6.8922,-19.4041,21.9655,1.4928,23.3855,152.749,37.3164,-102.4228,-90.057,
-18.4088,-17.4139,12.4386,-28.434,28.3612,0.49743,-7.4634,6.9655,-0.49743,8.3855,137.8228,22.3164,-99.0131,-97.0229,
-27.8633,-13.9314,13.9314,-30.8488,18.9067,2.9851,-6.9655,8.9561,-2.9851,6.9655,133.3445,21.8922,-98.5157,-95.5302,
-13.4345,-11.4438,28.9314,-34.3313,26.3705,-9.4541,-0.49743,23.9561,0.49743,21.9655,148.3445,34.3313,-83.5157,-104.9837,
-23.3855,-24.3803,26.3701,-45.2772,27.3649,-9.4536,13.434,8.9561,1.4928,6.9655,133.3445,26.3701,-91.0523,-99.0131,
-13.9319,-17.9123,23.8824,-36.8185,22.8876,-3.9804,-1.566,22.8876,3.9804,21.9655,148.3445,39.804,-81.5987,-88.5647,
-28.9319,-27.3654,8.8824,-40.3015,9.4531,-2.4881,-16.566,7.8876,8.4582,16.419,137.8218,24.804,-96.5987,-103.5647,
-23.3855,-24.3803,17.4144,-38.3122,21.3948,-2.4876,-9.4536,2.4876,23.4582,16.4186,141.8027,39.804,-97.0234,-88.5647,
-8.3855,-29.3556,27.3649,-51.2483,28.3607,-17.4876,-21.3948,6.468,17.4144,31.4186,156.8027,50.2525,-82.0234,-89.0621,
-20.8969,-23.8824,12.3649,-42.7896,28.8586,-2.4876,-20.8969,-2.9855,11.9412,21.8927,141.8027,37.8143,-92.5451,-95.5302,
-16.419,-13.4345,-2.4881,-33.3365,13.8586,2.4881,-35.8969,12.0145,8.4582,36.8927,156.8027,46.2725,-85.0817,-93.0425,
-24.8778,-11.9417,-1.9902,-30.8488,1.9902,11.9407,-41.7952,14.9263,7.9603,21.8927,141.8027,33.8334,-100.0817,-88.5647,
-28.3603,-4.4778,1.4923,-19.4046,16.9902,19.4046,-29.3551,8.4582,0.49743,6.8927,126.8027,32.3407,-112.9445,-79.1106,
-23.385,-4.4778,4.4778,-13.4345,21.3943,4.4046,-39.3066,23.4582,-3.483,21.8927,141.8027,47.2674,-97.9445,-75.1307,
-38.385,-16.917,-6.9655,-15.9221,16.917,9.951,-27.8633,10.9459,6.9655,17.9118,126.8027,44.7798,-92.5451,-66.6725,
-35.8236,-25.8731,0,-30.9221,31.8432,0,-24.8782,21.8917,18.9072,32.9118,141.8027,48.7597,-77.5451,-65.6771,
-29.3556,-39.3066,6.468,-45.9221,46.8432,-6.468,-16.4195,13.434,28.3607,43.2875,153.7439,43.2875,-62.5451,-71.1498,
-44.3556,-39.3066,6.4685,-60.9221,31.8432,-3.483,-19.4046,3.483,13.4345,38.3117,139.8125,48.2632,-75.1302,-74.1354,
-43.2872,-32.3409,13.4337,-61.1991,16.8432,-7.4636,-34.4046,18.483,7.4636,52.2429,153.7437,49.2574,-67.1697,-89.1354,
-55.7256,-41.7947,8.9557,-63.6865,21.8927,0.99486,-20.8969,3.483,20.8969,37.2429,138.7437,34.2574,-82.1697,-78.6137,
-40.7256,-49.2576,14.4293,-67.1694,30.3509,-11.4438,-18.4088,11.4438,18.4097,52.2429,138.8176,49.2574,-68.1643,-63.6137,
-30.3505,-51.2478,16.419,-65.1792,25.3757,-11.4438,-29.3556,11.4438,21.3953,60.2044,146.7784,61.1993,-60.204,-69.1596,
-40.3015,-36.2478,19.4046,-50.1792,22.3901,3.5562,-30.35,-3.5562,22.3901,45.2044,131.7784,46.2725,-75.204,-68.1643,
-30.3505,-21.2478,23.3855,-39.3066,14.4298,-2.4876,-44.2819,11.4438,7.3901,38.3122,134.8377,43.2875,-82.0962,-73.14,
-41.2973,-25.3757,10.4489,-40.3015,15.4242,12.4386,-33.3365,2.4881,-2.4881,23.3122,119.8377,40.3015,-97.0229,-75.1302,
-55.2287,-39.3071,6.468,-47.2679,7.4629,2.4876,-46.273,12.4382,-2.4876,27.3649,104.8377,55.3015,-93.0425,-63.1895,
-62.1942,-37.3164,12.4391,-44.2823,5.4732,-3.4825,-44.2823,13.434,3.4825,39.3071,106.9739,54.2329,-87.0719,-59.2091,
-60.2044,-23.385,10.4489,-33.3365,17.4139,10.4489,-29.2823,-1.4923,1.4923,24.3071,91.9739,39.2329,-91.0523,-59.2086,
-47.2674,-23.385,14.4293,-38.3113,20.4004,-3.483,-29.3556,13.5077,3.483,27.3654,106.9739,42.2921,-76.0523,-70.155,
-62.2674,-38.385,5.9716,-49.755,18.9076,1.9902,-28.8572,-1.4923,12.9365,12.3654,91.9739,27.8633,-82.5936,-77.6179,
-54.2334,-37.3169,15.4242,-57.2189,26.3705,10.4489,-24.3799,-2.4881,2.4881,15.4242,88.0673,35.3262,-81.1013,-68.1648,
-48.2627,-35.3262,27.3654,-69.1596,28.3603,6.4685,-28.3603,8.4582,-6.4685,17.4149,101.0033,32.3407,-73.14,-77.1204,
-47.7653,-29.853,38.8096,-54.1596,37.8138,21.4685,-13.3603,-0.99534,8.5315,2.4149,86.0033,33.8334,-76.623,-62.1204,
-42.79,-44.853,40.7994,-64.6823,28.8582,6.4685,-22.888,1.9902,7.9603,17.4149,79.6085,34.8283,-76.6235,-67.6673,
-38.8087,-41.7942,55.7994,-56.721,38.8096,1.9902,-7.888,-2.9851,4.9757,14.9272,65.6776,30.8488,-83.5889,-66.672,
-28.3607,-26.7942,70.7994,-43.2875,41.2968,11.4433,-1.4928,5.4732,-5.4732,1.4928,69.1596,29.3556,-72.1456,-62.1946,
-21.3948,-13.434,85.7994,-40.3019,48.2627,11.4443,-16.4928,8.4587,-8.4587,12.4391,79.1111,23.3855,-58.2138,-68.1648,
-31.8437,-2.986,70.7994,-25.3019,57.7159,26.4443,-1.4928,-0.99534,6.5413,1.9902,64.1111,30.8479,-73.2138,-53.1648,
-46.7705,-15.9221,85.7994,-28.8582,42.7159,12.9365,-16.4928,13.9314,-8.4587,13.9314,70.6519,25.8726,-82.5941,-66.6725,
-48.2627,-10.4484,100.7994,-27.3659,27.7159,27.9365,-23.3855,13.434,-6.468,6.468,55.6519,24.3803,-77.1209,-57.2184,
-42.2926,2.4876,85.7994,-14.4298,42.7159,42.9365,-18.4102,16.4186,-2.4876,12.4382,40.6519,39.3061,-63.1895,-42.2184,
-28.3607,-0.49791,70.7994,-23.385,56.2236,39.3071,-33.4102,31.4186,0.49791,27.4382,55.6519,41.2968,-48.1895,-29.3556,
-39.3061,-6.468,55.7994,-31.3453,60.204,42.2926,-36.3215,25.3752,14.4288,12.4382,57.2184,34.3318,-41.2968,-30.3505,
-39.8045,-1.9902,40.7994,-28.8586,52.7406,31.8428,-48.7607,40.3752,1.9902,27.4382,72.2184,49.3318,-34.8292,-32.839,
-44.2823,-4.4778,25.7994,-26.3705,50.2529,46.8428,-41.2973,34.3313,4.4778,30.3509,60.2035,57.2189,-41.2973,-32.3411,
-41.2963,-7.4634,10.7994,-24.3799,64.1848,57.2189,-36.3211,31.3458,7.4634,26.3705,50.2529,53.2385,-37.3159,-23.385,
-29.8533,3.9806,-4.2006,-14.927,69.6568,42.2189,-49.7558,46.3458,-3.9806,41.3705,65.2529,49.7548,-23.8827,-33.8337,
-39.804,13.9319,-19.2006,0,64.6823,53.7359,-39.804,31.3458,-4.9753,26.3705,50.2529,36.8194,-38.8827,-30.8484,
-39.3066,7.4634,-34.2006,-7.4634,62.1942,48.2632,-54.804,18.4097,-19.9753,13.4345,35.2529,41.2973,-45.2772,-23.385,
-36.3215,6.468,-49.2006,-6.468,71.1503,55.2287,-51.2478,29.3556,-34.9753,12.4391,22.3897,35.3267,-37.3164,-19.4041,
-30.8479,11.9417,-64.2006,-0.99534,70.6529,61.6963,-36.819,27.8633,-34.8283,0.99534,7.3897,35.8241,-44.7798,-12.9365,
-15.8479,9.9512,-79.2006,-9.9512,72.6428,46.6963,-35.8239,42.8633,-29.8533,15.9953,22.3897,50.8241,-29.7798,-16.9172,
-25.3757,15.4242,-94.2006,-3.483,87.6428,61.6963,-20.8239,34.3313,-27.3654,12.4386,7.3897,60.2035,-30.3509,-7.4634,
-36.819,2.9851,-79.2006,-18.483,72.6428,53.7364,-5.8239,34.8292,-42.3654,14.9272,-7.6103,47.7653,-31.8428,-14.9263,
-35.8236,4.9757,-64.2006,-16.917,65.6776,52.7406,-4.9757,33.8334,-48.7602,13.9314,-14.9263,45.7756,-32.8386,-15.9211,
-33.8339,6.9655,-49.2006,-11.9417,65.6767,51.7457,-6.9655,33.8334,-50.7504,12.9365,-19.9025,44.7798,-32.8386,-14.9263,
-32.3411,8.4587,-34.2006,-8.4587,65.1792,51.2483,-9.4536,33.336,-53.2385,12.4391,-25.3752,43.2865,-33.3365,-15.4247,
-34.8288,6.9659,-19.2006,-6.9659,61.6967,47.7648,-14.9267,30.8484,-58.7112,8.9557,-34.8288,39.804,-36.819,-17.9123,
-35.8241,6.9655,-4.2006,-5.9706,58.7117,44.7798,-18.9067,27.8633,-64.6818,5.9706,-42.7896,35.8241,-39.8045,-20.8974,
-35.8236,7.9608,10.7994,-2.9855,55.7256,40.7989,-23.8824,24.8773,-69.6575,2.9855,-50.7509,32.8381,-42.79,-22.8876,
-46.2725,8.4582,25.7994,2.4881,58.2138,43.287,-8.8824,9.8773,-63.189,-12.0145,-65.7509,18.4097,-47.2674,-9.4541,
-33.8339,3.9804,40.7994,-3.9804,43.7844,28.287,-4.9753,24.8773,-74.6333,2.9855,-53.7359,18.9072,-39.8045,-24.4541,
-36.819,2.9851,55.7994,-2.9851,51.7457,29.853,5.9706,10.9468,-59.6333,-12.0145,-68.7359,15.9221,-52.7406,-31.8437,
-31.8437,14.9263,70.7994,1.9902,49.755,41.7942,-1.9902,17.9118,-70.6529,-19.9025,-83.7359,21.8922,-57.7159,-16.917,
-22.3897,17.4144,85.7994,-2.4876,45.2772,53.238,2.4876,32.9118,-85.6529,-8.4587,-86.0771,23.3845,-50.2529,-16.4195,
-35.8232,9.951,100.7994,-9.951,45.7756,57.7168,17.4876,17.9118,-90.5544,-23.4587,-101.0771,16.917,-57.7159,-12.9365,
-28.8582,9.951,115.7994,-10.9459,39.8045,42.7168,2.4876,20.8974,-87.5694,-8.4587,-87.5694,25.8726,-45.7746,-13.9314,
-43.8582,4.4783,130.7994,4.0541,33.336,34.3309,-4.4783,6.468,-100.0085,-23.4587,-102.5694,10.8726,-60.7746,-24.3803,
-44.7793,6.9659,145.7994,15.9216,30.8484,26.868,-2.9855,6.9659,-115.0085,-38.4587,-117.5694,2.9855,-75.7746,-26.868,
-29.7793,12.9365,160.7994,10.9459,40.7994,17.9118,0.99534,15.9221,-124.3883,-27.8633,-123.393,-0.99534,-73.6379,-30.8479,
-25.3747,27.9365,175.7994,25.9459,48.2632,32.9118,15.4242,7.4634,-119.9105,-42.8633,-138.393,-7.4634,-86.0766,-15.8479,
-26.3705,42.9365,190.7994,39.3066,34.3313,47.9118,0.42418,22.4634,-124.8858,-27.8633,-138.8176,7.5366,-83.0915,-15.4242,
-39.3066,36.3211,205.7994,36.3211,33.3365,50.2529,3.483,19.4046,-118.9151,-42.8633,-153.8176,-3.483,-98.0915,-20.3995,
-36.3211,27.3654,220.7994,26.3705,36.3211,50.2529,18.483,8.4582,-121.9007,-57.2189,-161.7047,-8.4582,-99.0127,-10.4489,
-34.3318,16.4186,235.7994,11.3705,23.3845,35.2529,3.483,13.434,-134.8372,-42.2189,-146.7047,1.4928,-84.0127,-25.4489,
-37.8138,24.8778,250.7994,13.9314,35.8241,34.8292,18.483,-1.566,-122.3981,-54.7303,-161.7047,2.9851,-77.6179,-24.8778,
-30.8484,16.9165,265.7994,0.99486,32.8381,19.8292,32.8381,10.9463,-133.3445,-39.7303,-150.2614,-0.99486,-70.6529,-30.8484,
-35.8236,6.9659,280.7994,0,29.8535,15.9226,40.7998,7.9608,-139.3146,-36.8185,-164.1924,0,-74.6328,-21.8917,
-35.3262,4.4778,295.7994,8.4582,28.3612,11.4438,52.2436,-4.4778,-154.3146,-51.8185,-179.1924,5.4736,-89.6328,-14.4284,
-20.3262,13.434,310.7994,18.4092,28.3607,-3.5562,44.2823,6.468,-163.6949,-44.2823,-176.6315,6.468,-104.6328,-29.4284,
-33.336,28.3607,325.7994,33.4092,22.3906,4.4783,39.3071,-1.4928,-155.7341,-58.2133,-191.6315,1.4928,-119.6328,-21.3948,
-41.2973,24.3799,340.7994,24.3799,7.3906,-4.4778,24.3071,8.4582,-166.6805,-43.2133,-203.4994,4.4778,-116.9249,-18.4097,
-34.8288,20.8969,355.7994,16.9165,22.3906,0,35.8236,0,-160.2124,-53.7359,-199.0216,0.99487,-108.4667,-29.8535,
-37.8138,28.8582,370.7994,31.9165,36.819,5.9706,50.8236,-5.9706,-159.2171,-65.6767,-214.0216,5.9706,-111.4522,-23.8829,
-31.3463,32.3411,385.7994,33.336,21.819,-7.4629,35.8236,9.0294,-165.6856,-50.6767,-199.0216,7.4629,-101.9987,-26.3701,
-38.3122,31.3453,400.7994,30.3505,14.4288,5.4732,50.2525,6.468,-154.7392,-60.204,-214.0216,-5.4732,-112.945,-15.4247,
-37.8143,25.8731,415.7994,25.8731,17.9123,-0.99486,38.8092,12.937,-167.1779,-55.7256,-205.9871,0.99486,-110.4564,-10.9463,
-42.7896,18.9072,430.7994,14.9268,11.9412,2.9855,26.868,10.9463,-172.1532,-49.7555,-210.9623,-2.9855,-109.4616,-15.9216,
-55.2282,19.4046,445.7994,6.4685,4.4778,11.4438,41.868,-0.49743,-161.7047,-57.2189,-219.421,0.49743,-111.9492,-10.448,
-44.2823,24.3799,460.7994,6.4676,3.483,-3.483,39.3066,6.4676,-148.7686,-42.2189,-204.421,15.4974,-96.9492,-11.4443,
-49.7555,19.902,475.7994,11.9412,3.9804,5.9701,53.735,-8.5324,-141.3057,-29.8535,-190.0659,16.9165,-96.5255,-3.9804,
-38.3117,24.3799,490.7994,19.4046,2.4881,-2.4881,59.2086,-23.5324,-151.7537,-14.8535,-191.5582,31.9165,-93.0425,11.0196,
-24.3799,32.3416,505.7994,31.3458,12.4386,-11.4438,73.1405,-38.5324,-149.7635,-8.4582,-185.5871,35.3262,-86.0766,8.4582,
-30.8484,32.8381,520.7994,39.804,21.8917,0,88.1405,-53.5324,-161.2078,-23.4582,-200.5871,20.3262,-101.0766,0,
-20.3994,39.3066,535.7994,45.2777,23.385,-4.4778,76.126,-55.2282,-176.2078,-15.4242,-199.5186,19.4046,-86.0766,4.4778,
-35.3994,36.3215,550.7994,45.2772,17.4144,-0.49791,75.1307,-70.2282,-191.2078,-30.4242,-214.5186,16.4195,-101.0766,0.49791,
-44.2823,40.3019,565.7994,42.2917,20.3999,1.4928,76.1256,-59.2091,-205.4896,-45.4242,-229.5186,9.4536,-108.9641,-1.4928,
-42.2921,34.3313,580.7994,30.3509,17.4139,2.4881,70.155,-52.2432,-204.4948,-37.3169,-228.3772,0.49743,-100.0085,-0.49743,
-57.2921,26.8684,595.7994,27.8633,2.4139,10.9459,71.6477,-67.2432,-197.0309,-52.3169,-243.3772,1.9902,-115.0085,11.9417,
-45.7746,37.8143,610.7994,34.8288,0,0,70.6524,-54.7308,-185.0897,-37.3169,-228.3772,16.9902,-102.4961,13.9319,
-55.2277,26.371,625.7994,28.3607,7.4638,-5.4732,77.1214,-69.7308,-191.5577,-42.2917,-243.3772,9.4536,-116.9249,5.4732,
-55.2287,26.3701,640.7994,28.3607,6.468,-5.4732,78.1153,-84.0864,-206.5577,-52.2432,-258.3772,5.4732,-131.9249,11.4433,
-40.2287,34.3313,655.7994,26.3705,4.4778,-4.4778,83.092,-69.0864,-206.4845,-37.2432,-243.3772,8.4582,-122.8955,4.4778,
-40.7994,36.819,670.7994,31.8437,1.9902,10.5222,93.5404,-83.5889,-201.0113,-52.2432,-258.3772,-1.9902,-136.3295,11.9417,
-38.8092,35.8236,685.7994,19.902,0,0,78.5404,-72.6431,-216.0113,-37.2432,-264.6987,3.9804,-133.3445,12.9361,
-51.2483,30.3505,700.7994,11.4433,13.434,1.4928,93.5404,-83.0915,-223.4014,-45.2772,-273.157,-1.4928,-133.8419,11.4433,
-63.6869,27.8633,715.7994,17.9118,7.9613,-5.9706,103.491,-79.6085,-213.9479,-51.7457,-274.6493,5.9706,-130.3589,20.8974,
-48.6869,37.3169,730.7994,24.3799,8.4582,-8.4582,97.0229,-64.6085,-221.4112,-36.7457,-259.6493,20.3994,-115.3589,26.3705,
-62.6921,23.8829,745.7994,16.917,15.9221,4.9757,112.0229,-79.6085,-236.4112,-51.7457,-274.6493,5.3994,-130.3589,18.9067,
-56.2236,24.3803,760.7994,20.3999,13.434,2.4876,109.9595,-64.6085,-243.3035,-41.2968,-270.1714,-2.4876,-121.9002,15.4247,
-58.7107,31.8437,775.7994,26.8684,5.9706,12.9365,116.428,-58.7107,-230.8643,-56.2968,-285.1714,-5.9706,-131.3538,13.9314,
-62.6916,34.8288,783.1494,29.8535,3.9804,15.9216,125.3841,-73.7107,-243.8009,-71.2968,-300.1714,-3.9804,-146.2805,21.8927,
-57.2189,32.3407,774.6911,32.3407,-2.4881,5.4727,110.9548,-58.7107,-258.8009,-56.2968,-287.0884,2.4881,-132.8466,23.385,
-72.2189,32.3407,760.7592,37.3159,7.4634,20.4727,125.9548,-60.2044,-247.2843,-71.2968,-302.0884,-7.4634,-136.8274,29.3551,
-71.6473,27.8628,745.7592,22.3159,8.9557,11.9412,123.3935,-53.7359,-250.7668,-59.7061,-287.0884,-8.9557,-121.8274,17.9123,
-67.1699,31.3453,732.8959,14.4288,9.4536,12.4391,127.8708,-53.238,-249.2745,-49.2576,-285.0982,-9.4536,-114.9352,22.3897,
-75.1307,42.2917,721.9496,21.3948,9.4536,23.3845,135.8316,-60.204,-253.2549,-64.2576,-300.0982,-9.4536,-129.862,33.336,
-71.6482,44.7798,709.5109,11.9407,16.916,9.951,130.3589,-45.204,-255.7431,-50.7509,-285.0982,-9.951,-117.4228,18.336,
-79.1111,42.2917,694.5109,19.4041,23.3845,22.3897,145.3589,-57.2184,-243.3039,-65.7509,-300.0982,-16.4195,-130.8568,16.4195,
-74.6333,33.8334,690.6038,23.8819,8.3845,9.951,133.3435,-50.7509,-252.7575,-54.7313,-305.4981,-5.9706,-129.3645,28.8582,
-68.1643,38.3117,693.0924,27.3654,7.4634,0.49743,133.8424,-48.2623,-248.2787,-46.2725,-303.0095,-0.49743,-119.91,34.3313,
-80.106,48.2627,678.1651,35.3267,6.468,12.4391,142.7976,-55.2287,-254.2498,-61.2725,-318.0095,-6.468,-134.91,41.2968,
-65.106,50.7504,675.6775,33.8339,2.9855,12.9361,132.3491,-40.2287,-264.6987,-46.2725,-310.4734,-2.9855,-129.3641,30.8484,
-60.7009,46.77,670.7022,35.8236,11.9412,20.8978,147.3491,-50.7504,-249.6987,-61.2725,-325.4734,-11.9412,-135.3342,26.868,
-58.7107,48.7602,666.7223,38.8096,5.9706,8.9561,151.2568,-45.7746,-249.7715,-53.7354,-327.3898,-5.9706,-133.344,29.854,
-60.204,46.273,659.258,31.3463,2.4876,7.4638,147.7738,-34.3309,-259.2251,-46.2721,-319.9269,-2.4876,-128.8662,19.4051,
-72.6431,39.804,644.258,25.8721,7.9608,8.9557,162.7738,-49.3309,-255.7431,-61.2721,-334.9269,-7.9608,-140.3104,24.8773,
-57.6431,48.7597,640.8487,29.8526,16.9165,0,159.2171,-34.3309,-248.7771,-49.7555,-319.9269,0,-125.3104,36.8185,
-57.2189,47.2674,626.4204,25.3757,14.4293,12.4386,166.6805,-46.2725,-255.2447,-61.1993,-332.863,-12.4386,-120.9053,32.3416,
-53.7359,49.7555,619.9519,20.8969,4.9753,11.9412,162.2026,-36.8185,-270.2447,-63.6865,-333.3609,-4.9753,-121.4028,19.902,
-49.2576,54.2338,622.4395,27.3659,8.4587,13.434,161.7047,-27.3649,-277.1374,-64.1844,-329.8779,-7.4629,-124.8858,7.4629,
-54.7308,53.7359,609.0055,38.8092,13.9319,28.434,176.7047,-42.3649,-262.708,-79.1844,-344.8779,-13.9319,-139.8858,22.4629,
-57.2184,43.2875,594.0055,23.8092,-1.0681,13.434,161.7047,-27.3649,-272.1616,-64.1844,-329.8779,1.0681,-124.8858,33.336,
-72.2184,39.8036,579.0055,16.916,-1.9902,10.9459,158.2217,-26.8684,-263.7039,-72.6435,-341.3222,1.9902,-132.3496,27.8624,
-70.6533,47.7648,566.215,27.8628,3.9804,25.9459,173.148,-17.9123,-257.7333,-70.6533,-337.3418,-3.9804,-129.3641,39.804,
-64.1848,43.287,560.7423,17.4139,0.49743,21.3943,165.6846,-7.4634,-249.2745,-55.6533,-322.3418,-0.49743,-114.3641,41.2963,
-79.1848,37.3164,545.7423,11.4433,1.4928,29.3556,176.6315,-22.4634,-242.3086,-69.1606,-329.8779,-1.4928,-109.9595,43.2865,
-76.623,38.8092,530.7423,3.9804,-2.9855,19.902,166.183,-8.9557,-257.3086,-54.1606,-315.4486,2.9855,-99.5106,33.8339,
-76.6235,40.7994,525.4166,4.9757,1.9902,26.8675,170.163,-12.9365,-256.7374,-64.6818,-319.4295,-1.9902,-110.4569,34.8283,
-86.5745,35.8241,511.4847,9.951,-1.9902,21.8922,166.1826,-22.888,-254.7477,-65.6776,-327.3903,1.9902,-123.3935,41.7942,
-75.6281,28.8577,511.4852,12.9361,-6.9659,6.9659,156.2315,-9.9515,-254.7472,-50.6776,-312.3903,12.9361,-108.3935,39.804,
-75.6281,35.8241,509.495,18.9076,-2.9851,21.9659,168.1732,-24.8778,-256.7374,-65.6767,-327.3903,2.9851,-121.4028,40.7994,
-63.6869,48.7602,503.5239,16.917,2.9851,21.8922,162.2022,-9.8778,-269.674,-50.7499,-324.4048,-2.9851,-120.4079,28.8582,
-64.1839,48.2632,497.0558,27.3654,11.4438,19.4046,172.6515,-11.4438,-257.2349,-59.2086,-327.8877,-17.4139,-119.9105,22.3901,
-66.672,53.7359,493.5729,38.8092,15.9216,29.8535,178.1242,-15.9216,-260.7183,-67.6678,-342.8877,-22.8876,-125.3837,27.8628,
-51.672,59.2091,491.0852,23.8092,27.3659,37.3164,171.6562,-5.4732,-275.1472,-59.2091,-327.8877,-27.3659,-128.8662,12.8628,
-36.672,72.1452,494.0698,33.336,42.3659,52.3164,186.6562,-13.434,-260.1472,-74.2091,-342.8877,-21.3948,-139.813,13.434,
-31.3458,64.1848,479.0698,29.3561,51.2478,50.2529,175.6361,-7.4634,-275.1472,-76.1251,-355.7506,-23.385,-137.8223,7.4634,
-24.8773,79.1848,479.6419,37.8143,60.7019,65.2529,181.1098,-7.9608,-286.5905,-79.6081,-350.2774,-34.8288,-131.3538,7.9608,
-18.9067,94.1848,485.6125,47.7653,75.7019,80.2529,196.1098,-10.9459,-277.6348,-91.5498,-351.2727,-37.8138,-140.3099,10.9459,
-11.4433,86.0771,478.1492,34.3309,69.1596,65.2529,189.5675,4.0541,-285.0982,-76.5498,-336.2727,-39.3071,-129.8615,-4.0541,
-15.4237,91.0523,471.1832,46.273,81.1018,80.2529,204.5675,-6.468,-270.0982,-85.0812,-347.7898,-40.3019,-127.8708,6.468,
-25.8731,81.5987,456.1832,38.8092,70.6524,71.6473,189.5675,-4.9753,-276.6399,-76.6235,-340.3269,-35.8236,-133.3445,4.9753,
-39.804,72.6431,441.1832,25.8731,55.6524,56.6473,174.5675,0,-282.6105,-80.6039,-336.346,-38.8092,-138.3197,0,
-53.7359,69.6575,426.1832,21.8927,40.6524,58.7112,172.1532,-13.9319,-273.6544,-94.5348,-349.2825,-39.804,-143.2955,13.9319,
-46.7695,55.7261,414.9601,12.9365,33.8344,43.7112,157.1532,-1.9902,-260.7178,-79.5348,-334.2825,-28.8582,-128.2955,1.9902,
-44.7793,55.7256,415.9545,21.8927,48.8344,41.7947,172.1532,-3.9804,-245.7178,-70.6524,-322.4146,-26.868,-113.2955,3.9804,
-49.2581,52.2427,400.9545,11.4438,47.2674,28.3603,184.5918,-0.49743,-254.2503,-72.1456,-325.898,-31.3458,-120.9058,0.49743,
-55.2277,49.2586,392.57,5.4732,37.3164,31.3463,169.5918,-2.4876,-247.2839,-60.204,-312.961,-30.3505,-121.9002,2.4876,
-58.2133,48.2627,388.5896,13.434,44.2823,46.3463,171.6562,-13.434,-243.3035,-75.204,-327.8877,-23.3845,-120.9053,17.4876,
-47.7658,36.8185,377.1454,-1.566,41.7938,31.3463,157.2264,1.566,-252.7575,-60.204,-312.8877,-17.9123,-105.9053,9.9505,
-54.2334,44.2819,366.6964,-3.483,56.7938,46.2725,169.666,3.483,-237.7575,-70.155,-300.0249,-22.3901,-107.9693,20.3994,
-69.2334,44.7793,351.6964,0,42.7896,54.7308,154.666,0,-252.7575,-85.155,-315.0249,-30.8484,-122.9693,15.9216,
-58.7112,45.7751,345.3021,0,40.7998,50.7504,143.2955,7.9608,-257.7328,-78.6137,-303.5074,-28.8577,-131.3543,0.92161,
-56.224,58.2138,343.8098,8.4582,55.7998,61.1993,158.2955,-7.0392,-242.7328,-93.6137,-318.5074,-31.3458,-126.8764,9.4531,
-49.2576,61.1988,344.8042,1.4928,56.2236,55.2287,143.7924,4.4783,-253.2549,-78.6137,-304.0053,-41.2968,-124.8862,-1.4928,
-36.3215,68.1648,357.7412,10.4484,69.1596,70.2287,158.7924,1.4928,-259.2251,-93.042,-317.9367,-44.2823,-138.8172,-1.4928,
-30.3509,68.1652,363.7119,11.4438,82.0962,69.1601,173.7924,0.49743,-259.2251,-93.0425,-314.9512,-39.3066,-134.8368,-0.49743,
-15.3509,77.1209,367.6923,7.4634,94.0383,67.1704,182.6021,15.4974,-251.2643,-78.0425,-299.9512,-36.3211,-119.8368,-7.4634,
-16.9174,81.5987,352.6923,6.965,88.5637,82.1704,182.1037,3.9804,-252.7575,-93.0425,-314.9512,-48.7607,-128.3692,-3.9804,
-17.9118,79.6085,342.3171,5.9706,73.5637,72.6426,167.1037,18.9804,-267.7575,-83.5889,-301.5172,-41.7942,-131.3543,-5.9706,
-24.3799,78.1158,336.8439,11.4438,83.091,67.1694,154.7392,10.4489,-266.191,-98.5889,-316.5172,-46.2725,-139.8125,-10.4489,
-19.4046,77.1209,323.9069,9.4531,88.0673,74.1354,163.6949,0.49743,-253.2549,-89.0621,-321.9171,-41.2973,-134.8372,-0.49743,
-8.4587,69.1596,313.9559,-1.4928,77.1204,59.1354,148.6949,15.4974,-242.3086,-74.0621,-306.9171,-26.2973,-119.8372,1.4928,
-23.4587,58.7117,298.9559,-1.9902,72.6426,64.6818,147.2754,12.9365,-234.8452,-71.6477,-306.493,-30.8488,-130.3589,1.9902,
-12.9361,68.6627,291.5662,0.99486,75.6277,69.6575,142.3006,27.9365,-232.855,-56.6477,-291.493,-21.8927,-115.3589,-0.99486,
-13.9314,73.6375,296.542,6.9655,73.6375,65.6767,150.2609,28.8582,-217.9287,-50.7509,-276.493,-21.8922,-103.4914,-6.9655,
-28.9314,61.6967,291.5662,7.9608,58.6375,50.6767,139.3151,16.9165,-229.87,-65.7509,-290.5718,-36.8922,-118.4914,-7.9608,
-15.4242,64.1839,298.0338,8.4582,43.6375,35.6767,126.8755,31.9165,-239.3235,-50.7509,-275.5718,-38.3117,-112.945,-8.4582,
-30.4242,68.1652,285.0986,8.4582,36.3211,50.6767,136.827,16.9165,-239.3231,-65.7509,-290.5718,-49.2581,-127.945,-8.4582,
-30.3505,68.1648,279.128,2.4876,30.3514,35.6767,123.8914,28.3607,-238.3277,-64.1844,-286.093,-36.3215,-112.945,-2.4876,
-26.3701,58.2142,270.1714,-9.4536,40.3019,20.6767,138.8181,28.3607,-223.3277,-50.2525,-271.093,-21.3215,-97.945,12.5124,
-32.8386,45.7746,255.7421,-24.4536,43.7849,25.8726,153.8181,14.9263,-208.3277,-59.7065,-264.6987,-14.9263,-103.4914,23.8829,
-17.8386,43.7849,260.7183,-36.819,40.7994,18.9076,138.8181,29.9263,-216.9334,-44.7065,-249.6987,-14.9263,-88.4914,13.9314,
-11.9417,55.7261,255.7421,-21.819,44.7798,8.9561,144.2908,41.7942,-201.9334,-29.7065,-234.6987,-9.951,-73.4914,28.9314,
-26.3705,48.2627,240.7421,-6.819,29.7798,-6.0439,129.2908,54.2329,-186.9334,-14.7065,-219.6987,3.4825,-65.1797,42.2917,
-41.3705,33.8334,225.7421,-15.9211,15.9221,4.9757,114.2908,39.2329,-177.1289,-19.9015,-214.9427,-4.9757,-80.1797,31.8437,
-49.2576,41.2968,211.4602,-4.4783,4.4783,16.4195,102.9935,24.2329,-174.6413,-34.9015,-229.9427,-7.4629,-95.1797,43.2875,
-34.2576,52.7411,218.9241,4.9753,-4.9753,1.4195,90.5544,39.2329,-164.1924,-19.9015,-214.9427,7.5371,-84.5838,47.7648,
-43.287,39.3066,208.4752,4.4778,-3.483,0.49743,93.0425,37.3169,-154.7392,-28.3603,-227.3818,-0.49743,-99.0131,47.2674,
-49.2576,30.3509,212.4556,-0.49743,0.49743,-8.4582,83.092,47.2674,-153.7439,-15.4242,-213.4504,14.4293,-84.0131,53.2385,
-49.2581,24.3803,216.4355,-15.4242,1.4928,-23.4582,85.0812,53.238,-143.7929,-1.4928,-198.4504,20.3999,-69.0131,41.2968,
-41.7947,26.8675,215.9381,-14.9263,9.951,-21.8922,100.0812,41.7942,-128.7929,-9.951,-187.0799,15.9221,-54.0131,46.7705,
-41.7945,11.8675,202.0064,-29.9263,-4.9755,-36.8922,85.0812,47.7646,-140.3102,5.049,-172.0799,10.9461,-48.7604,31.7705,
-47.2674,-3.1325,199.5186,-38.3117,10.0245,-51.8922,87.0714,32.7646,-125.3102,3.483,-183.5974,8.4582,-58.2138,31.3458,
-32.3407,-4.4778,201.5092,-48.2627,23.385,-55.2282,96.0281,31.3458,-115.9296,4.4778,-168.5974,11.4438,-51.2478,40.3024,
-29.8533,-12.9363,194.0461,-59.7063,13.9312,-70.2282,81.0281,34.829,-117.4226,14.9265,-161.2075,12.9363,-45.7749,26.8682,
-34.8288,-5.9706,193.0505,-44.7063,16.917,-55.2282,87.5694,35.8241,-106.476,5.9706,-176.2075,27.8633,-52.7406,41.8682,
-38.3115,-6.4683,182.6018,-29.7063,6.4683,-67.1697,72.5694,50.8241,-110.9546,20.9706,-161.2075,26.3703,-44.2821,40.3022,
-53.3115,-0.49743,167.6753,-20.3999,8.4582,-52.1697,59.2086,46.2725,-101.0038,5.9706,-173.6464,11.3703,-54.2338,41.2963,
-49.755,3.9804,161.2078,-11.9412,6.9659,-37.1697,61.6967,46.77,-114.4373,-3.9804,-183.0995,16.9174,-58.7112,56.2963,
-39.3066,-2.4876,160.7099,-14.4288,2.4876,-28.3603,46.6967,58.2142,-124.8857,7.4638,-171.6557,14.4288,-54.2334,56.2236,
-52.7411,6.9659,166.183,-2.9855,13.9319,-13.3603,53.7359,44.7793,-109.8857,-7.5362,-186.6557,2.9855,-69.2334,64.6823,
-56.2236,-2.4876,166.6809,-17.9855,2.4876,-28.3603,46.273,58.2142,-110.9543,4.4783,-177.6263,11.4443,-63.189,50.2534,
-41.7945,-8.9559,177.1287,-23.8827,12.9363,-28.8579,61.273,62.6918,-95.9543,8.9559,-164.1926,24.8775,-48.189,59.7063,
-45.7746,-6.9659,178.1242,-21.8922,6.9659,-31.8432,71.6482,63.6865,-88.5642,11.9412,-168.1732,22.8876,-47.7648,64.6823,
-36.819,-5.9706,182.1042,-30.8484,5.9706,-42.7896,66.6725,78.6865,-95.5302,26.9412,-153.1732,25.8726,-32.8386,55.7261,
-35.8239,-13.9316,180.1147,-27.8631,20.9706,-27.7896,81.6725,68.6624,-80.5302,13.9316,-147.2756,27.8626,-26.8677,65.6769,
-36.3211,-25.3752,168.6707,-40.3015,23.385,-42.7896,66.6725,65.1792,-87.0719,28.3607,-134.8368,28.3607,-23.385,50.6769,
-37.3164,-21.3948,157.7243,-40.3019,22.3897,-40.3019,64.1844,56.2236,-76.1256,21.3948,-132.8466,23.3855,-32.3411,36.3215,
-43.7847,-12.9363,148.271,-25.3019,18.9074,-32.8383,64.6825,62.6918,-74.6326,12.9363,-137.3246,28.8579,-43.7847,46.7702,
-48.2625,-6.4683,147.7731,-14.4291,6.4683,-43.2872,49.6825,77.6918,-80.1062,27.9363,-122.3246,37.3166,-37.3166,44.2821,
-63.1895,-2.4876,136.8274,-4.4783,2.4876,-28.2872,38.3113,72.1452,-65.1062,23.3845,-137.3246,29.3556,-52.2432,52.2432,
-48.1895,-3.9806,132.3494,-2.9853,2.9853,-13.9317,36.8187,87.1452,-50.1062,38.3845,-122.3246,43.7847,-40.7996,67.2432,
-45.2774,-16.4193,129.8617,-17.4146,16.4193,-28.9317,47.2672,81.1011,-58.214,42.2919,-123.8906,38.3115,-43.2872,52.2432,
-47.7651,-20.8971,137.3246,-28.8579,31.4193,-31.843,62.2672,66.1011,-58.7109,27.2919,-138.8906,32.8393,-36.8187,37.2432,
-45.2774,-35.8971,133.8417,-43.8579,23.3848,-46.843,50.2532,71.1501,-58.214,31.3456,-123.8906,18.4095,-21.8187,22.2432,
-43.2872,-20.8971,137.8225,-31.3456,21.395,-31.843,65.1795,68.165,-43.214,19.4043,-115.9298,26.3703,-19.4043,37.2432,
-46.77,-13.9314,129.3641,-34.8288,13.9314,-31.8432,50.1795,78.6137,-44.7798,34.4043,-108.4667,41.3703,-27.8628,49.755,
-48.7602,-25.8726,128.3692,-45.7751,22.8876,-43.7849,43.7849,88.5642,-35.8236,49.4043,-98.5157,44.7798,-22.8876,41.7942,
-63.6865,-33.8334,123.3935,-46.7695,25.8731,-35.8236,48.7607,83.5894,-23.8824,34.4043,-113.5157,31.8442,-27.8628,42.7896,
-59.7065,-35.8241,119.4131,-56.721,17.9118,-50.8236,33.7607,98.5894,-28.8582,47.7648,-99.5106,37.8138,-17.9118,29.853,
-61.1988,-36.3211,110.9548,-53.238,24.3799,-65.8236,48.7607,101.0033,-23.385,32.7648,-114.5106,32.3407,-32.3407,30.3509,
-56.2238,-40.3017,110.9541,-48.2625,24.3801,-80.8236,45.277,116.0033,-30.3507,35.3264,-116.9252,31.346,-24.3801,24.3801,
-53.7359,-42.7896,116.4275,-47.7653,25.8726,-65.8236,37.8138,123.3935,-21.8922,48.7607,-101.9252,30.8484,-11.9412,11.9412,
-65.1797,-37.3169,112.9441,-33.3365,21.3948,-50.8236,44.2823,108.3935,-17.4144,33.7607,-116.9252,28.3607,-26.9412,23.3845,
-50.1797,-22.3169,123.3937,-18.9069,18.9069,-35.8236,37.8145,123.3935,-32.4144,41.7949,-112.4469,36.8187,-32.8383,32.8383,
-59.2091,-19.4046,119.9095,-23.3855,19.4046,-29.3561,44.2819,118.9147,-28.3612,26.7949,-127.4469,23.385,-46.273,29.3551,
-54.2334,-24.3799,116.9254,-31.3458,17.4144,-34.3313,40.3019,121.9007,-17.4144,36.3215,-129.8615,27.3659,-33.336,18.4092,
-39.2334,-27.3656,115.9303,-42.2919,28.3605,-46.2723,47.2676,136.9007,-12.4389,48.2625,-114.8615,23.3852,-18.336,5.4729,
-46.2723,-28.3605,105.9788,-51.2481,38.312,-31.2723,62.1944,121.9007,-11.444,33.2625,-128.8664,11.444,-17.4146,16.4193,
-49.7553,-28.8579,108.4669,-54.731,28.8579,-40.7996,47.1944,135.3349,-12.9363,48.2625,-113.8664,18.9069,-6.9657,6.9657,
-54.731,-28.8579,107.4711,-46.7702,40.7991,-37.8141,48.7599,120.3349,0.9951,36.8187,-113.4422,12.9363,-5.9708,-0.9951,
-58.2135,-41.297,92.4711,-61.7702,33.3362,-52.8141,33.7599,105.3349,-7.4631,24.3806,-128.4422,15.4239,-10.4487,7.4631,
-55.7261,-45.7751,84.5843,-70.6524,18.3362,-67.8141,18.7599,120.3349,-3.9804,39.3806,-113.4422,25.8726,-3.9804,3.9804,
-70.7261,-49.7555,72.6426,-63.6869,16.917,-59.7065,27.8633,106.4765,-0.99534,24.3806,-128.4422,10.9459,-18.9804,0.99534,
-64.1844,-47.2674,75.1307,-65.1797,26.3701,-52.2432,26.3701,121.4765,-7.4634,24.3803,-113.9399,14.4288,-8.4582,7.4634,
-60.7016,-40.7996,87.5691,-53.7357,26.8682,-37.2432,39.8043,123.3937,-4.9755,14.927,-128.9399,13.9312,-17.9121,4.9755,
-49.7555,-25.7996,102.5691,-38.7357,30.8484,-22.2432,51.7452,130.3585,-8.9557,16.9165,-142.3006,26.868,-19.9025,8.9557,
-49.2581,-22.3901,96.0276,-32.3411,22.3897,-36.3215,36.7452,145.3585,-11.4438,31.9165,-127.3006,19.4046,-5.4732,5.4732,
-64.2581,-35.8236,81.0276,-34.8288,8.9557,-36.819,21.7452,130.3585,-6.9659,16.9165,-142.3006,6.9659,-20.4732,13.9319,
-49.2581,-33.336,93.042,-32.3411,9.4536,-49.2576,17.4144,134.8368,-9.4536,31.9165,-135.8321,21.9659,-18.4097,9.4536,
-40.3017,-35.3264,87.0717,-36.3213,19.4043,-52.2429,16.4193,130.8561,5.5464,34.3316,-139.8127,14.4291,-7.4631,-5.5464,
-54.731,-30.8481,72.6428,-32.8383,18.9069,-44.78,8.9564,131.354,14.9265,22.8873,-153.2462,2.9853,-15.9219,-2.9853,
-43.7844,-24.8778,75.6286,-33.8334,16.917,-43.7844,-1.9902,146.354,8.9561,37.8873,-138.2462,17.9853,-16.9165,1.9902,
-58.7844,-39.8778,60.6286,-45.7746,6.9659,-36.819,0.99486,131.354,10.9463,22.8873,-153.2462,6.9659,-31.9165,-0.99486,
-51.7455,-37.8141,58.7119,-38.8089,6.9657,-49.7553,-2.9853,132.3489,17.9121,37.8873,-141.305,7.961,-27.8631,2.9853,
-40.7991,-35.8239,73.6382,-31.8435,20.8971,-55.7259,2.9853,134.3391,23.8827,42.7898,-129.3638,5.9708,-18.9069,-2.9853,
-42.2919,-34.3311,78.1165,-37.3162,25.3754,-48.2625,10.4487,119.9102,22.3899,27.7898,-144.3638,6.4683,-27.3652,-6.4683,
-27.2919,-24.3803,93.1165,-37.3164,22.3901,-48.2627,8.4582,134.9102,23.385,42.7898,-129.3638,14.4288,-12.3652,-14.4288,
-29.3556,-22.3897,90.057,-26.3701,24.3799,-33.2627,23.4582,136.827,38.385,38.3117,-130.8564,3.483,-23.385,-3.483,
-28.8584,-23.8827,78.613,-32.8388,11.941,-44.78,8.4582,142.3004,34.8285,53.3117,-125.3839,11.941,-25.8729,0.9951,
-13.8584,-8.8827,93.613,-23.385,22.3901,-33.336,0.49743,150.7588,42.2921,68.1652,-120.9053,26.941,-14.4288,-0.49743,
-23.8824,-20.8974,92.5451,-31.8432,19.902,-39.804,8.9557,135.7588,32.839,53.1652,-135.9053,11.941,-29.4288,-6.9659,
-8.8824,-22.8876,90.5549,-38.8092,20.8969,-54.804,-1.9902,140.3104,43.7844,65.6767,-120.9053,16.9165,-15.9216,1.9902,
-9.4536,-21.3948,78.1158,-37.3164,19.4046,-40.3019,-5.4732,125.3104,54.2334,50.6767,-128.8662,10.4484,-26.3705,5.4732,
-7.4634,-10.4484,68.1648,-35.3262,21.3948,-31.3458,-19.4046,125.8811,45.2772,50.2525,-131.8517,16.419,-33.336,7.4634,
-4.9755,-2.9853,59.7063,-34.829,21.892,-20.8976,-23.8827,134.3391,47.7651,54.731,-120.4082,13.9312,-35.8239,2.9853,
-12.9365,-4.9757,54.7313,-27.8628,12.9365,-7.9603,-14.9263,119.3391,51.7457,39.731,-135.4082,5.9706,-50.8239,4.9757,
-3.9804,-11.9412,66.6725,-31.8432,10.9463,-22.9603,-27.8628,134.3391,55.7261,54.731,-120.4082,20.9706,-35.8239,3.9804,
-18.9804,-22.8878,65.6764,-35.8243,21.892,-27.8631,-12.8628,126.3783,70.7261,57.7156,-123.3937,33.8332,-26.8682,11.9414,
-28.3607,-31.3458,63.1895,-43.2875,19.4041,-29.3556,-9.4536,120.9049,67.1699,52.2432,-116.9254,31.3453,-31.3458,9.4536,
-13.3607,-32.8386,71.6473,-49.7555,24.8778,-35.8241,-4.9757,126.379,78.6132,66.672,-101.9254,30.8484,-17.9118,4.9757,
-28.3607,-46.2725,56.6473,-57.2189,12.4391,-41.2968,-3.4825,111.379,78.1162,51.672,-116.9254,17.4144,-32.9118,3.4825,
-13.3607,-36.3213,71.6473,-46.2723,12.4389,-36.3213,-9.4533,126.379,85.082,66.672,-101.9254,32.4144,-17.9118,9.4533,
-12.9365,-36.819,68.6617,-52.7411,21.8922,-23.8829,-5.9706,119.4131,97.5204,59.7061,-96.5255,24.8773,-13.9319,5.9706,
-14.4291,-32.3409,62.1939,-58.214,19.4043,-25.3754,-16.4193,109.9597,94.0372,57.2187,-108.9644,27.3652,-24.3801,14.4291,
-7.4631,-31.346,59.2093,-56.2233,9.4533,-30.3507,-31.4193,124.9597,85.0815,72.2187,-93.9644,30.3507,-27.3656,7.4631,
-13.9316,-27.8631,44.78,-41.7945,13.9316,-15.3507,-22.8878,115.4324,92.5449,57.2187,-108.9644,19.9018,-42.3656,13.9316,
-8.9559,-22.8878,33.8337,-40.7996,8.9559,-29.8533,-37.8878,127.3736,81.5985,63.6862,-105.4814,24.8775,-41.7945,10.9461,
-8.9561,-17.9118,37.8138,-36.819,14.9263,-14.8533,-36.819,118.4177,82.5941,48.6862,-114.4373,23.8829,-40.7994,8.9561,
-9.9505,-22.8876,42.7896,-37.8138,11.9412,-7.9608,-35.8236,108.4667,73.6379,33.6862,-122.3981,20.8978,-41.7942,7.9608,
0.9951,-24.878,50.7506,-35.8239,14.9265,-22.9608,-39.8043,123.4667,76.6228,48.6862,-107.3981,29.8528,-27.8631,-0.9951,
-5.4732,-26.3705,49.2576,-34.3313,27.3649,-18.4097,-24.8043,117.9203,91.6228,50.2525,-104.9837,29.3556,-35.3262,5.4732,
-2.9853,-37.8141,50.7506,-49.3313,12.3649,-33.4097,-34.8285,128.3685,106.6228,65.2525,-89.9837,36.8192,-20.3262,2.9853,
-4.9753,-42.7896,56.7215,-55.7256,13.9314,-36.819,-25.8726,123.3935,118.4182,72.6431,-74.9837,37.8143,-5.3262,1.9902,
-8.4582,-46.2725,55.2287,-55.2282,22.3897,-29.3556,-10.8726,114.9347,117.9203,57.6431,-73.1405,36.3215,-8.4582,8.4582,
-3.9804,-53.7359,57.7163,-67.6673,7.3897,-44.3556,-25.8726,122.3981,118.4177,71.6477,-58.1405,37.8143,-2.9855,2.9855,
-9.4536,-40.3015,66.175,-52.6673,9.4536,-29.3556,-14.4288,115.9306,133.4177,68.1648,-70.155,42.2926,-9.4536,14.4293,
-11.4438,-38.3117,63.189,-41.2968,5.4732,-37.3164,-29.4288,129.861,127.8713,83.1648,-64.1844,45.2772,-5.4732,8.4582,
-9.951,-42.7896,56.721,-41.7947,9.951,-42.7896,-29.8535,121.4033,128.3692,79.6085,-61.6967,40.7994,-9.951,12.9365,
-15.4239,-39.3068,44.2826,-36.3213,15.4239,-27.7896,-15.4239,106.9742,130.8566,64.6085,-76.6967,40.3022,-21.3945,21.395,
-12.4389,-42.2919,39.3068,-47.2676,10.4487,-33.3362,-30.4239,121.9742,128.8664,79.6085,-61.6967,47.2676,-6.3945,6.395,
-9.951,-37.8143,45.7746,-45.7751,9.951,-23.8829,-35.8241,122.3981,137.3249,65.6767,-68.6627,44.7798,-16.917,18.9067,
-1.4925,-31.346,52.2429,-40.3017,1.4925,-26.3703,-42.2919,131.8515,122.3249,80.6767,-57.2187,47.2676,-25.3754,16.4193,
3.4827,-30.3507,58.2135,-36.3213,11.4435,-22.3899,-34.3311,131.8515,132.8463,91.0526,-44.2821,47.2676,-20.3997,1.4193,
-3.483,-31.3458,61.1993,-35.3262,14.4288,-27.3654,-26.3705,116.8515,143.7929,76.0526,-59.2821,43.287,-19.4046,3.483,
3.4827,-35.3264,59.2089,-50.2527,0.49767,-42.3654,-41.3705,127.8715,128.7929,83.0913,-44.2821,39.3068,-4.4046,-6.4683,
3.483,-34.3313,60.204,-50.2529,14.4293,-27.3654,-35.3262,115.9296,142.7976,72.1452,-47.2674,41.2968,-5.4732,-3.483,
3.483,-40.3019,60.204,-58.2138,7.4634,-30.3509,-34.3313,110.9543,138.8172,69.1596,-44.2823,47.2674,-13.434,-3.483,
6.9657,-33.8337,59.7063,-47.7651,8.9559,-36.8187,-34.8285,119.4133,143.2957,72.6433,-29.2823,38.8094,-6.9657,-8.9559,
-0.9951,-26.8682,54.7305,-32.7651,6.9657,-21.8187,-34.829,111.452,151.256,60.7016,-43.7847,37.8141,-18.9074,0.9951,
14.0049,-21.3948,67.1699,-21.3948,-3.483,-17.4144,-49.829,126.452,143.7929,75.7016,-28.7847,52.8141,-7.4634,3.483,
2.4879,-22.3899,52.1699,-30.3507,2.4879,-20.3997,-49.2578,118.9154,146.7782,75.1309,-39.3068,46.2723,-16.4193,-2.4879,
-2.4879,-25.375,37.1699,-31.346,7.4631,-25.375,-57.2187,121.9004,149.7633,77.1211,-30.3507,44.2821,-5.4729,2.4879,
5.4732,-38.3117,36.3215,-41.2968,0.49743,-29.3556,-64.1844,121.9002,141.8022,81.1013,-19.4046,44.2823,-0.49743,-6.4685,
6.9657,-27.8631,49.7548,-40.7996,11.941,-14.3556,-49.1844,106.9002,136.3298,66.1013,-34.4046,29.8528,-15.4974,-6.9657,
6.4683,-22.3899,45.2774,-48.2625,17.4146,-24.3801,-42.2919,111.9494,123.8906,75.1309,-19.4046,21.395,-6.4683,-21.9657,
4.4781,-25.3754,48.263,-42.2924,20.3997,-15.4244,-36.3213,97.0227,138.8906,60.1309,-28.3605,24.3801,-4.4781,-22.3899,
4.4781,-37.3166,51.248,-52.2434,11.4435,-23.3852,-40.3017,92.0469,143.7931,56.2233,-37.3166,34.3316,-4.4781,-12.4389,
-0.9951,-51.7455,38.8094,-67.2434,8.9559,-38.3852,-51.7455,100.5061,137.3246,71.2233,-22.3166,26.8677,0.9951,-24.8775,
3.9804,-38.8092,48.7597,-58.7117,20.8969,-23.3852,-36.7455,95.5297,152.3246,56.2233,-30.8484,26.868,-3.9804,-13.9314,
16.419,-44.2823,56.2236,-58.2138,5.8969,-38.3852,-48.2627,102.9935,149.7635,71.2233,-15.8484,37.3164,-0.49743,-24.3803,
7.4634,-49.2581,51.2478,-46.2725,10.4484,-41.2973,-49.2581,90.057,152.7486,65.1797,-29.3556,34.3309,-7.4634,-23.385,
6.4683,-34.2581,53.2383,-31.2725,25.4484,-26.2973,-34.2581,98.0176,147.7731,63.1888,-34.3311,42.2919,-8.4585,-8.385,
3.9804,-26.868,48.7602,-35.8236,10.4484,-26.868,-49.2581,109.462,146.2805,78.1888,-19.3311,40.7994,-1.9902,-21.8922,
1.9902,-14.9267,56.721,-20.8236,3.9804,-11.868,-44.7798,98.5157,161.2805,63.1888,-23.8829,40.7994,-6.9659,-6.8922,
11.4438,-26.3705,52.2432,-17.4144,7.4634,-16.419,-59.2086,106.9739,155.7346,70.1554,-19.4046,37.3164,-12.4386,-7.4634,
8.9561,-33.8334,47.7653,-32.4144,14.9267,-8.9561,-53.7359,103.491,144.2908,64.6818,-22.8876,34.8288,-14.9267,-14.9267,
2.9853,-27.8631,51.7455,-30.8486,6.9657,-2.9853,-45.7749,97.5206,151.2565,62.6918,-31.8435,38.8094,-17.9121,-5.9708,
15.9216,-23.8824,57.7163,-34.8288,5.9706,-17.9853,-54.7308,103.491,145.2857,72.6426,-16.8435,27.8628,-5.9706,-20.9708,
11.9412,-30.8484,44.7793,-39.8045,20.9706,-7.9608,-42.7896,88.491,147.2759,57.6426,-28.8582,12.8628,-11.9412,-27.8633,
5.9706,-45.8484,30.8484,-54.8045,14.9267,-22.9608,-57.7896,85.5787,144.2908,52.7406,-13.9314,12.9365,-5.9706,-34.8288,
1.4925,-43.2872,36.3213,-54.2331,10.4487,-32.3409,-51.248,86.0768,157.7241,61.1995,-13.4337,22.3899,-1.4925,-33.3362,
0,-34.8288,33.8339,-51.7457,25.4487,-17.3409,-37.8143,74.6328,159.2171,46.1995,-20.8974,36.8185,0,-18.3362,
-0.9951,-49.8288,19.9023,-66.7457,13.9316,-32.3409,-52.8143,70.6531,144.2171,61.1995,-5.8974,28.8584,0.9951,-33.3362,
5.9706,-42.7896,34.9023,-51.7457,22.888,-38.8092,-37.8143,59.7065,159.2171,55.7261,-20.8969,25.8726,-5.9706,-36.819,
9.951,-32.8386,43.7849,-40.7994,18.9072,-35.8236,-42.7896,74.7065,148.2712,60.7014,-12.9365,27.8628,-9.951,-32.8386,
8.9561,-41.7947,33.8334,-42.7896,10.9463,-37.8138,-57.7896,75.6281,140.3104,55.7261,-15.9216,21.8922,-8.9561,-30.8484,
8.9561,-38.8092,34.8283,-27.7896,11.9407,-26.868,-42.7896,60.6281,155.3104,44.7798,-30.9216,25.8726,-8.9561,-17.9123,
4.9755,-43.7847,30.8481,-27.8631,-1.9904,-41.868,-57.7896,75.6281,169.1679,59.7798,-15.9216,27.8631,0.9951,-28.8584,
2.4876,-31.3458,29.3561,-18.4092,8.4582,-26.868,-50.2529,83.091,184.1679,60.2044,-12.4386,35.3262,-2.4876,-13.8584,
11.941,-27.8631,31.843,-26.8682,0.9951,-33.8337,-48.7604,81.5985,169.1679,63.6862,-3.9806,42.7893,-0.9951,-15.9218,
4.4778,-42.8631,28.3607,-41.8682,-8.4582,-48.8337,-63.189,66.5985,154.1679,50.2529,3.483,27.7893,-3.483,-30.9218,
3.4827,-35.3264,35.326,-26.8682,6.5418,-33.8337,-50.2527,68.165,169.1679,46.2723,-3.4827,25.3754,-5.4729,-18.4095,
3.9804,-39.804,20.326,-41.7942,-3.9804,-47.7648,-65.2527,83.165,154.2413,61.2723,11.5173,28.8582,-7.9608,-31.8432,
8.9559,-34.829,21.8925,-34.829,6.9657,-32.7648,-50.2527,68.165,163.1973,47.7646,-3.4827,25.8729,-6.9657,-31.8435,
6.468,-34.3313,19.4046,-34.3313,4.4778,-26.3701,-60.204,57.2189,166.6805,41.2973,-9.4536,23.385,-4.4778,-25.3752,
3.483,-42.2921,9.4536,-46.2725,-3.483,-34.3309,-75.204,59.2086,169.666,56.2973,5.5464,19.4046,-5.4732,-36.3211,
5.9706,-27.2921,18.9067,-31.2725,7.9613,-19.3309,-60.204,56.721,184.666,41.7942,-5.9706,21.8922,-14.9268,-23.8824,
7.9608,-30.8484,20.8974,-31.8432,-7.0387,-32.8386,-75.204,67.6669,169.666,51.7452,9.0294,12.9365,-14.9267,-38.8824,
11.4438,-33.336,29.3556,-39.3066,-5.4732,-32.3411,-71.1503,55.2287,160.7099,43.2875,5.4732,8.4582,-17.4144,-44.2823,
14.9263,-35.8241,34.8288,-37.8143,-9.951,-37.8143,-67.6673,57.7163,175.1387,58.2875,9.951,23.4582,-15.9221,-29.2823,
15.4239,-45.2774,23.3852,-45.2774,-23.3852,-52.2429,-82.6673,65.1799,169.6653,73.2875,17.4146,26.3703,-15.4239,-30.3507,
30.3509,-30.2774,34.3313,-30.2774,-8.3852,-37.2429,-67.6673,60.2044,177.6268,58.2875,2.4146,31.3458,-12.4386,-15.3507,
23.385,-34.3309,24.3803,-45.2772,-23.3852,-33.336,-82.6673,62.1946,162.6268,59.2091,17.4144,26.3705,-19.4046,-17.4144,
26.3701,-30.3509,19.4046,-40.3019,-21.3948,-35.3262,-79.1111,58.2133,166.68,66.1741,23.385,32.3411,-19.4046,-20.3999,
29.8537,-27.8631,10.9461,-36.8187,-14.9265,-29.8533,-77.6181,53.7362,176.1338,62.6918,18.9069,25.8733,-10.9461,-23.8827,
19.4043,-35.3264,0.49767,-50.2527,-29.9265,-38.3115,-92.6181,62.1944,163.6952,72.1449,33.9069,16.4193,-0.49767,-38.8827,
13.9319,-20.8969,5.9706,-35.2527,-18.9067,-23.3115,-79.6085,57.7163,178.6952,58.7112,22.8876,31.4193,-5.9706,-23.8827,
21.3946,-35.3264,0.49767,-42.2924,-21.395,-29.3558,-94.6085,60.2042,183.5967,73.7112,37.3162,37.3162,-0.49767,-8.8827,
17.9116,-47.7656,-0.9951,-50.7506,-22.8878,-36.8192,-89.5598,45.7749,177.1291,63.6862,34.8285,22.3162,0.9951,-9.9512,
10.4487,-43.2872,3.4827,-50.2527,-16.4193,-24.3801,-74.5598,35.326,166.6802,48.6862,20.4002,7.4631,-3.4827,-12.4389,
14.9268,-55.7261,0,-64.6818,-22.8876,-39.3801,-89.5598,36.819,151.6802,48.7602,28.8582,0.99487,0,-27.4389,
16.4195,-46.2725,6.468,-49.6818,-14.4293,-24.3803,-74.5598,28.3607,166.6802,35.3267,13.8582,8.4587,-6.468,-13.434,
11.9414,-39.8043,4.9755,-42.7893,-29.4293,-39.3803,-74.633,43.3607,159.2168,50.3267,28.8582,20.8971,-4.9755,-7.9606,
7.4631,-44.2821,4.4781,-45.2774,-32.3409,-45.2774,-87.0717,45.277,167.6756,53.2378,34.3316,17.4141,-4.4781,-14.4291,
2.4876,-47.2679,-2.4876,-37.3169,-24.3803,-30.2774,-83.0915,37.3164,176.6315,41.2968,19.3316,18.4092,-12.4391,0.57092,
7.961,-52.7408,-13.9317,-49.7553,-31.8435,-38.8094,-98.0915,44.7795,170.1637,56.2968,31.8435,21.8925,-2.9853,2.9853,
5.4727,-47.2679,-17.4144,-48.2627,-21.3948,-23.8094,-83.0915,29.7795,185.1637,52.2427,18.4097,19.4046,-5.4727,17.4139,
3.4827,-55.2285,-31.346,-61.1991,-28.3605,-30.3507,-98.0915,33.3358,187.5776,52.2429,26.3708,22.3904,-3.4827,11.4435,
8.9559,-53.7357,-30.8481,-59.7063,-14.9265,-25.8729,-99.5103,34.8285,172.5776,53.7357,19.9027,14.9265,-2.9853,2.9853,
18.9072,-38.7357,-15.8481,-44.7063,0,-10.8729,-84.5103,28.8586,175.1387,38.7357,4.9027,14.9268,-11.9412,17.9853,
18.4092,-42.2921,-7.4634,-34.3313,-15,-25.8729,-99.5103,36.3211,168.6702,37.3169,19.9027,6.468,-6.468,12.4386,
8.4587,-50.2529,-3.4825,-43.287,-22.3897,-32.3407,-84.5103,25.3752,181.6067,29.3556,19.4051,-1.4928,1.4928,11.4443,
0,-56.721,-13.9314,-58.287,-19.902,-44.7798,-69.5103,30.8484,171.1583,44.3556,15.9216,0,3.9804,9.9515,
0.49767,-59.2089,-19.4048,-65.1795,-24.3801,-51.248,-84.5103,36.3213,169.6653,48.2625,20.3997,3.4827,4.4781,-0.49767,
0.99486,-53.7359,-9.9515,-52.7411,-17.9123,-36.248,-79.609,21.3213,176.1336,33.2625,5.3997,2.9846,0,13.9309,
4.9755,-59.7063,-13.9312,-64.682,-32.8383,-42.7893,-94.609,30.8486,162.2029,43.7847,19.9023,-4.9755,7.961,11.9414,
2.4876,-50.2529,-19.4046,-52.2432,-27.3654,-27.7893,-79.609,27.3659,177.2029,35.3267,6.468,-2.4876,7.4638,25.3752,
-1.4928,-56.2236,-22.3901,-52.2432,-36.3215,-40.3019,-87.0719,27.3649,172.6511,33.336,7.4629,4.4783,1.4928,32.3411,
0.9951,-67.6671,-27.8631,-61.6965,-43.7847,-55.3019,-102.0719,30.8481,159.2168,43.7851,19.9023,3.9806,-0.9951,25.8729,
11.4433,-52.6671,-21.3953,-46.6965,-28.7847,-40.3019,-87.0719,22.3897,174.2168,40.3019,4.9023,18.9806,-2.4876,40.8729,
6.9657,-50.7506,-31.8435,-55.7259,-28.8584,-31.8435,-102.0719,18.9069,164.1921,46.7697,13.9316,7.9606,-6.9657,25.8729,
11.4438,-39.3066,-22.3901,-40.7259,-20.3999,-17.4144,-91.0523,23.385,177.6268,31.7697,7.4634,2.4881,-2.4881,36.3211,
10.4484,-26.3705,-19.4046,-25.7259,-27.3654,-14.4293,-96.0281,33.336,165.6851,29.3556,5.4732,12.4391,-5.4732,49.2576,
5.9706,-38.8092,-16.917,-31.8437,-40.7994,-29.4293,-109.462,29.853,152.2516,44.3556,20.4732,7.9608,-5.9706,34.2576,
14.4293,-38.3113,-1.917,-26.3701,-25.7994,-14.4293,-94.462,20.4004,167.2516,39.3066,5.4732,9.454,-3.483,39.3066,
8.9557,-53.3113,-8.9561,-41.3701,-38.8092,-29.4293,-109.462,25.8726,159.2166,33.8334,3.9804,0,0,25.8726,
7.4638,-52.2432,-6.468,-49.2576,-23.8092,-37.3164,-94.462,17.4144,154.7397,18.8334,5.4732,-5.4732,5.4732,28.3607,
9.4536,-47.2674,-1.4928,-42.2921,-11.4433,-31.3458,-79.462,12.4391,153.7439,21.3948,1.4928,-2.4876,6.468,36.3215,
12.9363,-56.7212,-6.9657,-57.2921,-26.4433,-46.3458,-94.462,19.9018,142.3004,33.8337,9.9508,-7.961,6.9657,21.3215,
21.8927,-41.7212,2.9855,-42.2921,-11.4433,-31.3458,-79.462,15.9216,157.3004,18.8337,-2.9855,-2.9855,4.9753,29.8535,
10.4484,-49.2576,-10.4484,-45.2772,-26.4433,-35.3262,-86.0766,21.3948,157.7243,33.8337,12.0145,-2.4876,2.4876,38.3113,
2.9855,-49.7555,-14.9268,-45.7751,-31.8432,-25.8726,-98.5157,20.8969,167.1779,34.8288,7.9608,-2.9855,4.9753,37.8143,
13.434,-36.3215,-4.4783,-32.3411,-19.4041,-10.8726,-83.5157,12.4391,170.6613,19.8288,-2.4876,2.4876,2.4876,42.2917,
19.9018,-35.8239,-7.961,-31.8435,-27.8631,-21.8925,-92.5453,13.9317,156.2313,34.8285,12.5124,1.9904,-1.9904,37.8141,
16.917,-20.8239,-6.9655,-16.8435,-12.8631,-6.8925,-85.5791,11.9407,171.2313,19.8285,-2.4876,5.9706,-13.9314,52.8141,
19.4041,-19.4051,-5.4732,-14.4288,-8.4587,8.1075,-96.0281,25.3752,161.7047,23.3845,-7.4638,5.4732,-16.4195,58.2133,
29.853,-17.9123,4.9748,-15.9221,-8.9561,1.9902,-81.0281,23.8819,156.2311,24.8778,-1.9902,-1.9902,-11.9417,43.784,
26.3705,-18.4097,4.4778,-15.4242,-4.4778,0.49743,-66.0281,16.419,161.7052,10.4489,-1.4932,-0.49743,-4.4778,51.2478,
11.3705,-33.4097,-10.5222,-30.4242,-19.4778,-14.5026,-81.0281,17.9121,146.7052,25.4489,13.5068,-0.9951,0.9951,36.2478,
0.49743,-48.4097,-25.5222,-45.4242,-23.385,-22.3897,-79.1106,7.4634,153.7444,19.4046,3.483,6.4685,-0.49743,35.3262,
8.4585,-51.248,-22.3899,-57.2187,-17.4141,-28.3605,-73.1403,11.444,150.7591,29.3554,17.4141,-4.4781,4.4781,26.3708,
11.4438,-59.2091,-19.4046,-70.155,-2.4141,-37.3164,-66.1746,0.49743,136.827,14.3554,15.4242,-19.4781,7.4634,11.4438,
24.8778,-44.2091,-4.4046,-55.155,12.5859,-22.3164,-51.1746,1.9902,145.2857,3.9809,0.42418,-15.9211,12.9365,26.4438,
15.9221,-38.8092,-17.9118,-57.7158,-2.4141,-36.819,-66.1746,9.951,130.2857,16.917,3.9804,-24.8773,8.9561,23.8829,
25.8731,-25.8731,-8.9557,-42.7158,12.5859,-21.819,-51.1746,8.9557,141.3048,2.9855,-2.9855,-14.9267,7.9608,34.8288,
22.8871,-33.8339,-15.9221,-35.8241,4.9757,-6.819,-51.7457,6.9655,139.3146,6.9655,1.9902,-7.9613,-1.9902,31.8437,
21.892,-39.8043,-18.9069,-44.78,-4.9755,-13.9316,-66.7457,13.9312,153.2462,20.8971,16.9902,-9.9512,4.9755,23.8827,
20.3994,-28.3603,-18.4097,-30.3509,1.4923,0.49743,-63.1895,4.4778,154.7392,6.4685,1.9902,-10.4489,-0.49743,38.3117,
28.3605,-24.3801,-8.4585,-25.375,-7.4631,-6.4683,-74.1356,16.4193,139.7392,21.4685,16.4193,-7.4631,6.4683,31.346,
23.8824,-23.8824,-3.9804,-24.8773,0.99486,8.5317,-59.1356,8.9566,142.3006,6.4685,1.4193,-4.9753,2.9855,34.8288,
12.9361,-35.8241,-17.9123,-39.8773,-5.9711,0,-63.6869,8.9557,146.281,1.9897,-8.9557,1.9897,0,38.8092,
8.4582,-46.2725,-12.4391,-50.2529,-13.434,-15,-69.1601,7.4634,137.8218,16.9897,6.0443,-3.483,3.483,31.3458,
10.4489,-33.3365,2.5609,-35.2529,1.566,-0.49743,-54.1601,-4.4778,152.8218,1.9897,0.49743,-4.4778,4.4778,46.3458,
10.4489,-45.2772,-6.4685,-47.2679,-10.4489,-15.4974,-68.1648,2.4881,148.7682,12.4386,15.4242,-2.4881,3.483,32.3407,
15.9216,-42.7896,-3.9804,-40.7994,-0.99486,-2.9855,-53.1648,-3.9804,163.7682,11.9412,7.9608,4.9753,0.99486,32.8381,
12.9361,-37.8143,0,-31.8432,-6.9659,-7.9608,-45.7751,-3.9804,151.2563,5.9701,6.9659,0.99487,0,32.8381,
10.4484,-35.3262,-4.4783,-35.3262,-17.4144,-22.9608,-60.7751,10.4484,136.2563,14.4288,21.9659,-4.4783,4.4783,19.4041,
14.9268,-24.8782,-4.9762,-20.3262,-2.4144,-7.9608,-58.7117,1.9897,151.2563,3.9804,6.9659,0,-0.99581,34.4041,
15.4239,-39.8782,-19.4048,-34.3311,-14.4291,-20.3997,-73.7117,6.4683,149.7637,18.9804,12.4384,5.4734,-5.4734,36.3208,
7.9613,-32.8386,-23.8819,-33.8334,-12.9365,-5.3997,-85.5791,4.9757,145.2857,11.9417,2.9851,11.9417,-16.917,39.8045,
14.9263,-17.8386,-8.8819,-23.8829,-1.9902,9.6003,-70.5791,7.9613,136.33,-1.9902,1.9902,9.951,-12.9365,46.7705,
19.4051,-32.8386,-1.4928,-38.8829,-14.4288,-3.483,-67.1694,12.4391,123.8914,2.4876,16.9902,-5.049,1.4928,31.7705,
7.9608,-27.8628,3.9804,-27.8628,-3.9804,10.9463,-52.1694,5.9711,138.8914,-5.9711,2.9855,-9.9515,-2.9855,43.7844,
-1.4925,-35.3264,-5.4729,-37.3166,-18.9804,-4.0537,-63.1893,14.4291,148.7689,9.0289,17.9855,5.0485,1.4925,38.3115,
1.9902,-44.7798,-4.9753,-38.8092,-18.9067,-19.0537,-59.7061,5.9706,151.2568,23.8829,28.8582,-1.9902,5.9706,28.8582,
7.9603,-38.8092,4.9757,-26.8675,-9.951,-17.9118,-52.7406,6.9655,145.2857,8.8829,13.8582,-13.9314,-1.9902,38.8087,
10.4492,-41.297,2.4879,-36.3213,-23.3848,-32.9118,-67.7406,16.4193,130.2857,5.4729,11.444,-14.4291,-2.4879,23.8087,
24.3803,-26.297,13.434,-21.3213,-8.3848,-17.9118,-52.7406,6.469,145.2857,-6.468,2.4876,-2.4876,2.4876,38.8087,
24.8773,-31.8437,6.9659,-17.9123,-23.3848,-25.8731,-66.6725,4.9753,131.3543,8.532,17.4876,-4.9753,-4.9753,23.8824,
24.3803,-25.3752,2.4876,-18.4097,-25.3752,-10.8731,-76.1256,13.434,130.8564,19.4041,17.4144,-3.4825,-2.4876,18.4092,
12.9365,-10.3752,-12.5124,-7.9613,-13.9314,4.1269,-80.6034,13.9314,145.8564,4.4041,2.4144,1.9902,-3.9799,33.4092,
6.9657,-20.8971,-27.5124,-22.9613,-28.9314,-7.9606,-95.6034,15.9223,140.3106,19.4041,17.4144,2.9853,-2.9853,35.8243,
21.3943,-19.4046,-12.5124,-15.4242,-15.4242,6.4685,-80.6034,0.92232,149.764,4.4041,6.4685,6.4685,-7.4634,42.2921,
35.8232,-22.888,2.4876,-22.888,-15.9221,-3.9809,-65.6034,1.9902,138.3197,7.9603,18.9067,-7.9613,-1.9902,31.8428,
22.8871,-35.8241,1.9902,-37.888,-20.8978,-14.9272,-61.6972,-1.9902,137.3239,4.9748,30.8479,-18.9076,7.9603,16.8428,
7.8871,-37.3169,6.4676,-38.3117,-10.4489,-7.4634,-46.6972,-9.454,152.3239,-3.483,19.4046,-3.9076,12.4386,29.3551,
6.9657,-51.7455,-1.9904,-52.7408,-23.8827,-22.4634,-61.6972,-0.9951,141.3055,11.517,34.4046,0.9951,4.976,17.9121,
21.9657,-37.3164,11.4443,-37.7408,-10.4484,-7.4634,-46.6972,-6.468,156.3055,6.468,27.3659,-6.468,5.4732,32.3411,
20.3994,-42.2921,-0.49743,-39.3071,-18.4097,-9.4541,-51.2483,-10.4489,141.3055,12.4386,27.3654,0.49743,12.4386,29.3551,
18.4097,-42.2921,-9.4536,-43.287,-15.4242,-19.4046,-63.189,-1.4928,129.862,17.4149,33.3365,1.4928,18.4097,19.4046,
29.3551,-27.2921,4.4778,-28.287,-3.483,-4.4046,-48.189,-6.4685,140.8074,2.4149,18.3365,-13.5072,3.483,28.3603,
39.3066,-18.4092,9.454,-26.3701,-15.4242,-10.4484,-60.204,-4.4778,125.8074,7.4634,25.3757,-28.3603,4.4778,13.4345,
