"AF3","AF4","F3","F4","F7","F8","FC5","FC6","O1","O2","P7","P8","T7","T8",
105.6319,-67.8373,183.1607,-38.7644,-116.2927,96.9103,3.8769,-22.289,85.2811,-3.8769,149.242,-12.5985,44.5785,-9.691,
104.663,-62.9916,176.3768,-28.1041,-131.2927,81.9103,5.8146,-22.289,70.2811,-12.5985,140.5204,-18.4126,29.5785,-5.8146,
98.8494,-57.1766,180.2536,-13.5669,-125.9832,68.8071,0,-21.3202,78.4976,0,143.4274,-25.1965,15.5056,-11.6292,
104.6635,-54.27,190.9139,-4.8453,-110.9832,83.8071,3.8764,-21.3206,93.4976,-3.8764,140.5199,-32.9498,28.1036,-10.6603,
116.2927,-61.0539,191.8828,-15.506,-100.7871,74.6212,-3.8764,-14.5367,81.4042,3.8764,153.118,-24.2277,21.3197,-8.7217,
109.5083,-62.9921,187.0371,-18.4126,-98.8489,67.8369,11.1236,-29.5367,84.3122,-11.1236,138.118,-34.888,12.5985,-12.5985,
105.1475,-68.3218,195.2743,-21.8046,-88.673,57.6619,20.8357,-29.5574,85.7655,-20.8357,140.0359,-34.4026,23.7432,-20.8357,
98.8485,-68.8067,195.7592,-27.1352,-75.5901,56.2081,5.8357,-15.506,83.3429,-5.8357,151.1802,-28.1041,28.1036,-20.3513,
100.3018,-56.693,187.521,-18.8975,-60.5901,67.3529,7.2684,-27.6201,87.7037,-14.0523,136.1802,-32.4654,21.8041,-7.2684,
108.5399,-67.8373,186.0677,-28.1041,-60.0845,52.3529,0.96887,-27.1352,72.7037,-0.96887,151.1802,-38.7644,14.5367,-22.2684,
109.9932,-59.5996,195.2748,-13.1041,-48.9398,42.1559,9.2061,-21.8051,81.8896,-15.9689,145.8505,-40.2177,22.7739,-19.8664,
110.4781,-53.3006,196.7285,-2.9071,-37.7951,50.3936,2.9071,-17.4438,78.4972,-17.4438,137.6128,-32.9493,18.4136,-13.5674,
119.1998,-60.0845,195.7587,-17.9071,-22.7951,48.4549,5.8146,-17.4442,68.8067,-5.8146,146.3345,-30.0423,18.4126,-26.1659,
114.8389,-53.7855,194.3054,-14.0518,-14.0518,57.6619,20.8146,-25.681,83.8067,-20.8146,131.3345,-38.2799,14.0518,-18.8971,
115.3234,-51.3629,197.6974,-9.691,-28.1041,45.5474,5.8146,-10.681,68.8067,-5.8146,140.5204,-31.9805,7.7523,-12.5985,
119.1998,-50.3931,198.6663,-8.7221,-19.3815,60.085,8.7221,-14.5362,63.9614,-13.5674,127.9223,-28.1041,12.5985,-9.691,
124.5299,-47.9705,203.9964,-8.2372,-17.9277,54.7548,3.392,-8.2372,57.6624,-7.2684,134.2213,-19.8664,15.9909,-3.392,
124.5297,-56.6924,201.0886,-15.9902,-23.743,39.7548,-9.2063,-3.3917,69.2913,3.3917,149.2213,-26.6505,15.0209,-10.1756,
116.7776,-61.5378,190.429,-15.0207,-15.0207,41.1875,5.3302,-18.3917,84.2913,-11.6083,134.2213,-30.5262,16.9593,-5.3302,
126.4686,-57.6614,202.0587,-17.9282,-21.8046,28.589,2.4226,-8.2372,69.2913,-7.2684,149.2213,-15.5262,17.9287,-7.2684,
123.0759,-59.1154,209.3263,-19.3822,-18.4129,17.4435,15.5058,-15.5058,70.7451,-22.2684,155.0568,-21.3204,16.4747,-22.2684,
111.4465,-66.8685,202.5422,-30.0423,-12.598,12.598,18.4131,-22.2895,77.5278,-32.9498,141.4888,-34.888,15.5056,-28.1041,
108.0552,-72.1984,199.1509,-40.2179,-24.7123,19.8666,6.2993,-7.2895,64.4451,-17.9498,149.7267,-19.888,13.0827,-26.6505,
104.6635,-62.0223,200.6044,-28.1041,-20.3508,34.8666,18.4131,-11.6292,79.4451,-32.9498,134.7267,-13.5669,11.6292,-11.6505,
107.0861,-72.1981,203.0271,-30.5267,-16.9593,19.8666,4.3608,-9.2065,69.2911,-17.9498,149.7267,-4.3608,23.7432,-10.1754,
105.6324,-78.4972,195.7592,-26.1659,-19.382,4.8666,2.9075,-19.382,84.2911,-2.9498,156.9953,-5.8146,31.98,-8.7221,
104.1791,-73.1675,191.3984,-21.8051,-34.382,17.9287,0.48443,-15.9905,99.2911,-9.2061,148.7571,-2.4231,17.9287,-0.48443,
91.5799,-80.92,188.4906,-36.8051,-49.382,12.1138,-14.5156,-7.2681,84.2911,1.4535,158.4483,-0.48466,2.9287,-9.2063,
93.5188,-65.92,196.2436,-21.8051,-50.878,27.1138,-17.9287,-6.2995,82.8585,-10.1759,143.4483,4.3608,-4.3608,5.7937,
90.6117,-72.1981,189.4602,-27.6192,-60.569,12.1138,-27.6192,-6.299,75.1052,4.8241,149.7265,6.299,-19.3608,-4.3608,
92.5499,-71.2293,194.305,-26.6503,-45.569,6.299,-12.6192,-12.1136,88.6735,19.8241,150.6958,2.4226,-4.3608,-8.2372,
89.6424,-66.3836,191.3984,-14.0523,-35.3724,0.48443,-1.4533,-15.9905,82.8585,23.7428,135.6958,-0.48443,3.392,-3.392,
95.4565,-75.1057,184.6144,-29.0523,-37.3106,-14.5156,-13.0829,-2.4226,80.9198,38.7428,150.6958,2.4226,3.392,-16.9593,
80.4565,-89.6424,169.6144,-44.0523,-22.3106,0.48443,1.9171,-17.4226,81.8896,23.7428,135.6958,-12.5774,-2.4231,-30.5267,
84.3118,-88.1882,166.6858,-55.2388,-7.3106,0.96887,3.8764,-31.9805,66.8896,8.7428,127.9219,-27.5774,-0.96887,-24.2277,
99.3118,-81.8896,181.6858,-40.2388,-11.1447,-1.4538,4.3613,-18.8975,55.7233,10.1754,141.9737,-19.8669,1.4538,-19.8669,
104.663,-75.5901,185.0984,-33.9187,-26.1447,9.691,1.9382,-24.2277,70.7233,5.8146,126.9737,-27.1352,-1.9382,-11.6296,
100.7867,-71.7137,189.9446,-27.1347,-26.1659,5.8146,-6.7835,-9.2277,79.467,20.8146,141.9737,-12.1352,1.9382,-2.9071,
90.6117,-73.167,186.5526,-21.8046,-28.5885,9.2065,2.4226,-15.9895,94.467,5.8146,143.9123,-4.3604,1.4538,-1.4538,
96.9098,-74.6212,192.8517,-28.1041,-39.7333,-3.8764,-4.8453,-9.6914,104.6626,18.4131,145.3652,-0.96887,4.8453,0.96887,
106.117,-66.3838,206.9042,-25.6812,-29.5576,0.48466,-2.4229,-4.3611,97.3954,33.4131,145.8498,-0.48466,13.0827,-1.4535,
93.0339,-75.5901,191.9042,-31.9805,-19.3824,2.9071,-0.96933,-19.3611,92.065,18.4131,130.8498,-15.4847,0.96933,-13.5674,
103.694,-79.4663,190.9132,-43.6094,-18.4129,-12.0929,-2.9073,-31.9802,86.2506,33.4131,145.8498,-0.48466,2.9073,-23.2586,
97.8791,-78.4972,191.8823,-42.6403,-17.4438,-16.4749,6.7835,-46.5167,94.9725,18.4131,133.7365,-4.8457,4.8457,-29.0729,
100.3022,-73.1675,201.0893,-31.4956,-17.9282,-6.299,0.48443,-38.2795,91.5806,27.6196,143.9123,-0.48443,14.0518,-15.0211,
100.7862,-80.4358,200.6044,-32.9498,-23.2588,-19.3824,-11.6296,-39.7332,93.0334,40.7026,156.0255,9.691,14.5362,-9.691,
91.0961,-83.3429,188.0059,-32.9493,-14.5362,-13.5674,-0.96933,-54.7332,108.0334,25.7026,141.0255,4.8457,0.96933,-8.7221,
102.7249,-80.4354,190.9139,-40.7021,-7.7528,-7.7528,-15.9693,-40.7021,109.5088,39.7337,153.1189,13.5674,7.7528,-13.5674,
103.2093,-77.0439,185.5833,-43.1252,-12.1141,3.392,-29.5578,-50.8785,106.1168,24.7337,139.0657,-1.4326,8.2372,-17.9287,
105.6324,-73.6519,190.9139,-33.9187,-21.3202,0,-20.3513,-52.3318,100.7871,13.5678,132.7671,0,0.96887,-11.6292,
109.5083,-80.4358,203.5115,-33.9187,-22.2895,-1.9382,-11.6292,-44.579,106.6017,28.5678,147.7671,1.9382,6.7835,-14.5367,
103.2102,-76.0745,199.1511,-33.4338,-17.9277,7.2684,-3.392,-56.6921,109.0243,13.5678,132.7671,-13.0618,12.1145,-8.2372,
115.3231,-73.6517,200.6047,-41.6712,-22.2893,-7.7316,-18.392,-43.6094,94.0243,27.135,146.3352,1.9382,16.4747,-8.7219,
106.6017,-86.2504,194.7899,-48.4554,-24.2277,-8.7221,-21.3202,-58.6094,102.7253,12.135,138.5817,11.6296,12.5985,-15.5056,
94.0027,-96.9103,192.8512,-41.6714,-32.9498,2.9071,-6.3202,-73.6094,102.7253,-0.96933,123.5817,6.7835,0.96933,-6.7835,
101.2713,-99.3331,196.2434,-40.2179,-35.3722,-4.3611,-4.3611,-58.6094,87.7253,10.1756,136.1589,5.3299,4.3611,-13.0827,
103.6942,-90.1268,194.7899,-31.9805,-20.3722,7.7532,-7.7532,-65.8991,102.7253,-4.8244,121.1589,6.7835,13.5674,-6.7835,
94.4881,-96.4258,198.1818,-34.4031,-25.681,-6.299,-22.7532,-53.7851,93.5183,10.1756,127.437,21.7835,4.3608,-4.3608,
85.2811,-97.8796,193.821,-31.0116,-35.8569,5.8146,-19.3824,-57.1775,91.0952,25.1756,115.3234,17.4438,-5.8146,-8.7221,
96.9103,-87.2197,186.0682,-28.1041,-28.1041,19.3815,-7.7532,-63.9609,93.0339,10.1756,102.7244,2.9071,-7.7532,-2.9071,
109.0241,-92.5492,189.4595,-40.2179,-13.1041,4.3815,-15.9902,-54.7542,78.0339,25.1756,117.7244,17.9071,0.48466,-10.1756,
97.8796,-99.8178,190.913,-41.6719,-3.8764,3.8764,-6.7839,-69.7542,81.4042,10.1756,108.539,6.7839,6.7839,-17.4442,
102.7255,-96.91,197.6976,-43.6094,-15.5053,-2.9073,-11.6289,-65.8989,75.5899,2.9073,121.1386,6.7837,15.5063,-16.4747,
97.3952,-90.6112,195.2748,-39.2488,-16.9593,-0.48443,-0.48443,-69.2906,90.5899,0.48443,127.4374,6.2995,17.9287,-14.0518,
83.8278,-95.4565,191.3979,-34.4031,-23.7432,-0.4849,-0.4849,-77.0439,94.4881,0.4849,112.9003,9.2065,13.0829,-8.2377,
87.7042,-107.0857,189.4602,-47.9705,-33.4338,-15.4849,-15.4849,-68.3218,79.4881,15.4849,127.9003,16.9593,15.0211,-15.0211,
87.2193,-96.9103,185.0989,-37.7951,-18.4338,-0.4849,-0.96887,-83.3218,94.4881,0.96887,112.9003,1.9593,8.7217,-8.7217,
81.8896,-98.364,186.5522,-42.1559,-15.99,-7.2684,8.2372,-75.1057,79.4881,15.9689,113.8696,1.4533,-5.3297,-1.4533,
85.2806,-104.6635,188.9753,-55.2393,-20.3513,-10.6603,-6.7628,-73.6519,66.8675,30.9689,118.2304,10.6603,4.8453,-4.8453,
90.6112,-95.4565,184.6144,-46.0323,-10.175,3.392,-16.9589,-82.858,68.3218,15.9689,103.2304,-3.392,7.2684,-14.0523,
105.6112,-86.25,199.6144,-34.8875,-3.8764,-3.8764,-7.7528,-67.858,59.1157,15.5056,118.2304,3.8764,3.8764,-17.4438,
107.5701,-85.2811,209.3261,-28.1036,-3.8764,-1.9387,7.2472,-78.4976,74.1157,0.50557,104.6635,1.9387,4.8453,-10.6603,
108.0555,-81.8891,208.8417,-34.4031,-17.9287,-11.1447,-7.7528,-68.3218,70.2604,9.2061,116.7771,11.1447,18.8975,-9.2061,
116.7767,-75.1057,209.811,-33.4342,-13.0829,-9.2065,-6.299,-58.6308,79.9514,24.2061,131.7771,6.299,31.496,-8.2372,
107.0857,-79.9509,195.2748,-35.372,-14.0523,-17.9287,8.701,-73.6308,94.4876,9.2061,116.7771,-8.2372,16.496,-12.1136,
106.6012,-91.0961,195.7592,-45.5483,-27.1352,-32.9287,-4.8453,-88.6308,79.4876,24.2061,122.1068,5.8141,4.8453,-27.1136,
104.1786,-82.8585,197.2129,-39.2488,-13.0829,-17.9287,1.4538,-88.673,75.1052,9.2061,110.9625,-1.4538,13.0829,-23.7432,
97.8796,-79.4665,189.9441,-38.7644,-21.3206,-15.5056,-12.598,-74.6208,61.0534,16.4744,114.354,6.7839,1.9387,-8.7432,
104.6635,-75.5901,201.5733,-30.0423,-27.1347,-17.4438,-11.6292,-62.9916,76.0534,31.4744,125.9832,21.7839,0,0,
93.5188,-78.9821,192.3672,-26.6503,-21.8051,-11.1447,-5.3297,-77.9916,91.0534,16.4744,110.9832,10.1759,5.3297,-8.2372,
85.2815,-92.065,181.2225,-41.6503,-28.1041,-26.1447,-20.3297,-70.7444,76.0534,31.4744,95.9832,7.7528,19.382,-7.7528,
75.1052,-103.2097,175.8923,-54.7544,-28.5885,-30.5267,-17.9282,-78.0127,91.0534,21.8046,80.9832,7.2679,20.8357,-7.2679,
72.6826,-113.3852,172.5008,-69.7544,-27.1347,-40.7021,-11.6292,-90.1263,96.9107,22.2895,65.9832,14.5367,11.6292,-15.5056,
78.4969,-112.4165,174.4388,-81.4049,-15.5058,-41.6717,-17.444,-85.2813,81.9107,35.8566,50.9832,15.5058,20.3511,-23.2586,
79.9505,-100.3027,178.7989,-66.4049,-2.4226,-26.6717,-4.3613,-88.6735,74.1363,20.8566,35.9832,4.3604,30.5262,-11.1452,
80.92,-112.9005,178.7996,-79.9512,-15.9902,-41.6717,-19.3613,-80.92,87.7039,15.9902,27.6194,19.3604,28.5883,-17.9284,
82.3736,-106.6012,180.2532,-79.4665,-5.8146,-39.7333,-20.3513,-90.1263,102.7039,5.8146,12.6194,28.1041,32.9493,-9.691,
85.2811,-96.9103,181.2229,-64.9298,-5.8146,-24.7333,-9.691,-84.3118,87.7039,10.6608,-2.3806,23.2588,29.0729,5.309,
85.7655,-105.1479,178.7999,-68.3218,-17.9287,-30.5267,-15.9905,-73.1675,72.7039,25.6608,2.4226,25.681,22.7735,-2.4226,
84.3127,-90.1479,181.2225,-58.1459,-2.9287,-15.5267,-0.99046,-87.2188,87.7039,10.6608,-12.5774,24.2281,29.0734,3.8764,
98.3636,-78.0127,196.2225,-52.8162,-3.3915,-24.7121,-5.3302,-72.2188,102.7039,25.6608,-3.3915,36.3413,39.2488,3.3915,
101.2716,-72.1981,211.2225,-40.2177,-16.9589,-15.0211,-3.392,-68.3218,99.3329,40.6608,-5.3297,38.2795,44.0945,3.392,
86.2716,-78.9816,196.2225,-46.0318,-24.7121,-10.1754,-14.0518,-81.8891,101.272,25.6608,-20.3297,36.3413,29.0945,10.1754,
79.9514,-93.9816,181.2225,-61.0318,-10.1754,-25.1754,-25.681,-78.0127,104.1786,40.6608,-28.5885,37.3111,15.0216,10.1754,
65.8991,-108.9816,166.2225,-76.0318,-8.7221,-31.9805,-19.3824,-93.0127,103.6942,25.6608,-43.5885,22.3111,28.1041,8.7221,
75.1057,-104.1786,173.9541,-78.0127,-15.9905,-38.2795,-15.9905,-78.9821,90.6112,40.6608,-28.5885,37.3111,43.1041,15.0211,
87.7033,-89.1786,188.4904,-77.0439,-5.3302,-27.6196,-6.299,-81.8896,105.6112,45.0629,-19.8669,36.3413,58.1041,5.3302,
86.2504,-87.2193,183.1611,-76.559,0,-28.1036,-2.9075,-96.8896,105.6324,30.0629,-34.8669,21.3413,53.3006,0,
90.1263,-85.2815,188.9748,-68.8067,-0.96933,-38.7644,0.96933,-81.8896,90.6324,35.8569,-36.8262,27.1343,47.486,-2.9071,
87.7037,-70.2815,186.5522,-60.569,4.3608,-23.7644,15.9693,-93.5183,103.2093,20.8569,-51.8262,13.0834,36.3418,-7.2684,
101.756,-57.177,189.9441,-57.177,-4.8453,-11.6292,0.96933,-81.4047,118.2093,29.0734,-45.5478,28.0834,47.4865,4.8453,
99.8178,-62.9921,188.9748,-49.4242,-10.6598,-17.4438,-14.0307,-70.7448,126.9525,44.0734,-38.7644,41.671,55.2388,10.6598,
89.6424,-56.6926,192.3672,-43.1247,-11.1447,-11.1447,-6.2995,-78.9821,125.4988,29.0734,-53.7644,26.671,40.2388,6.2995,
104.6424,-41.6926,207.3672,-42.1559,-14.0518,-5.3302,-8.2368,-63.9821,118.7153,44.0734,-38.7644,41.671,39.2488,5.3302,
96.9112,-54.269,193.821,-49.4238,-25.1965,-1.9382,-23.2368,-78.9821,126.9535,29.0734,-53.7644,31.9805,25.1975,1.9382,
97.3942,-59.6001,187.521,-47.0021,-23.7437,-11.1447,-21.8051,-78.9821,111.9535,16.9589,-65.4147,36.3408,30.5267,11.1447,
109.5092,-47.486,199.6351,-41.6714,-16.4749,-13.5674,-8.7221,-69.7755,109.5092,31.9589,-50.4147,34.888,45.5267,8.7221,
98.8485,-44.579,199.6356,-44.579,-21.3206,-3.8764,-8.7217,-84.7755,124.5092,17.4442,-65.4147,20.3508,36.8262,3.8764,
106.1168,-48.9393,204.9653,-58.6308,-15.99,-8.2372,-21.8046,-75.1052,132.2827,32.4442,-50.4147,35.3508,42.1559,8.2372,
95.9409,-56.2081,189.9653,-67.8373,-7.7528,-10.6603,-14.5367,-90.1052,128.8907,21.3206,-65.4147,26.1659,44.579,7.7528,
97.3947,-48.9393,189.4602,-57.6619,-10.1754,-19.8669,-10.1754,-81.8891,113.8907,36.3206,-78.0127,26.6508,46.0327,10.1754,
112.3947,-37.3106,204.4602,-44.0945,-5.3302,-7.2688,-8.2377,-66.8891,123.5606,51.3206,-63.0127,41.6508,61.0327,5.3302,
98.8485,-45.5478,201.5733,-51.3629,-19.382,-0.96887,-12.599,-81.8891,133.736,36.3206,-78.0127,26.6508,57.177,0.96887,
112.4161,-34.8878,216.5733,-43.6094,-21.3204,-13.5676,-13.5676,-69.7753,118.736,51.3206,-63.0127,41.6508,62.9918,13.5676,
107.5701,-34.888,211.2648,-45.5483,-15.5056,-11.6292,-15.5056,-76.5594,118.2304,54.2695,-69.7755,45.5478,61.0534,11.6292,
94.9716,-41.6719,196.2648,-56.2081,-27.1352,-10.6598,-30.5056,-83.3429,109.5083,39.2695,-84.7755,31.9805,46.0534,10.6598,
94.9721,-36.8262,194.7894,-57.177,-34.888,-6.7839,-36.8262,-71.7137,110.4776,34.8875,-76.5594,29.0734,44.579,6.7839,
83.3434,-33.9182,188.9757,-57.1766,-26.1654,5.8146,-24.2277,-86.7137,120.1695,19.8875,-91.5594,14.0734,43.6096,6.7844,
86.2504,-36.8262,192.8517,-60.0845,-30.0423,-8.7217,-35.8573,-82.374,105.1695,29.0734,-79.4665,29.0734,40.7026,8.7217,
81.8891,-32.4649,187.5215,-53.7855,-35.3724,-4.3613,-36.3413,-86.7349,113.8701,32.4649,-94.4665,33.4338,30.5272,4.3613,
81.8896,-31.4956,176.8617,-55.7237,-35.372,-8.2372,-37.3106,-92.5494,128.8701,24.7117,-107.0861,28.588,27.6192,8.2372,
92.549,-34.4031,186.5522,-64.4458,-28.589,-15.0211,-38.2795,-77.5494,113.8701,39.7117,-92.0861,36.3408,42.6192,15.0211,
80.9203,-39.2488,180.7385,-65.4138,-35.3724,-2.4226,-38.279,-92.5494,98.8701,24.7117,-107.0857,21.3408,40.2177,13.0829,
86.25,-37.7955,186.0682,-63.9609,-45.5483,-12.5985,-53.279,-83.3429,94.0027,31.0116,-92.0857,26.1654,43.6096,12.5985,
87.2188,-31.0116,190.9135,-61.0539,-35.8569,-9.691,-38.7644,-85.2815,109.0027,16.0116,-94.0032,29.0729,49.4238,9.691,
91.0952,-16.0116,196.7276,-46.5172,-24.2277,0.96933,-23.7644,-87.2197,104.663,1.0116,-100.7871,21.3202,54.27,7.7523,
103.6937,-8.7217,205.4497,-40.7026,-20.3508,-3.8764,-35.8564,-72.2197,89.663,16.0116,-85.7871,29.0734,58.1459,3.8764,
88.6937,-22.289,190.4497,-49.4247,-28.1041,1.9382,-40.7021,-87.2197,99.8178,8.7221,-100.7871,14.0734,43.1459,-1.9382,
88.673,-20.8357,194.3054,-58.6308,-27.6196,0.4849,-39.2488,-90.6112,93.5183,23.7221,-110.9621,20.8357,34.4036,-0.4849,
102.7249,-22.2895,197.6969,-65.8987,-12.6196,8.7217,-31.98,-91.0957,98.8485,27.1347,-108.5394,17.4442,43.6101,-8.7217,
103.6942,-14.5362,204.4813,-53.3011,-5.8146,23.7217,-23.2588,-102.7253,105.6319,12.1347,-123.5394,6.7835,39.7333,-9.691,
109.5088,-2.9075,219.4813,-54.27,-6.7839,24.2272,-32.9498,-87.7253,90.6319,26.1659,-113.3852,2.9075,37.7951,-23.2584,
100.7871,3.8764,206.4195,-56.2081,8.2161,39.2272,-23.2584,-95.9409,84.3118,11.1659,-128.3852,-5.8141,37.7951,-23.2584,
89.1575,-6.7835,191.4195,-70.7444,-2.9071,31.9805,-38.2584,-90.1268,69.3118,2.9071,-132.7671,7.7532,22.7951,-22.289,
94.9716,-1.9382,188.9748,-64.9303,-5.8155,40.7021,-48.4558,-84.3127,84.3118,1.9382,-125.9841,9.691,20.3504,-19.3824,
91.0957,3.8764,187.0366,-53.3006,-3.8764,53.3006,-42.6412,-92.0655,99.3118,-13.0618,-136.644,4.8453,23.2584,-7.7528,
83.3429,-11.1236,176.3772,-68.3006,-18.8764,38.3006,-57.6412,-93.0339,87.2193,1.9382,-121.644,11.6292,22.2895,-22.2895,
89.1575,-0.96933,188.0059,-63.9605,-3.8764,38.7644,-42.6412,-97.8791,89.1575,0.96933,-130.8289,6.7844,37.2895,-15.5051,
80.4354,-8.7217,184.13,-65.8996,-15.5056,23.7644,-54.2695,-89.1579,74.1575,10.6603,-127.9219,8.7217,42.6403,-13.5678,
83.3424,-5.8146,186.0682,-64.9303,-19.3824,8.7644,-47.486,-75.5901,83.3424,25.6603,-112.9219,23.7217,48.4549,-4.8457,
68.3424,-15.9895,171.0682,-79.9303,-16.9593,9.2065,-45.0629,-90.5901,98.3424,10.6603,-127.9219,8.7217,46.0327,-6.299,
67.3529,-19.8664,170.0777,-86.7349,-18.8975,-5.7935,-60.0629,-77.0439,113.3424,25.6603,-112.9219,23.7217,61.0327,7.2684,
60.5694,-26.6498,166.2018,-73.1675,-33.8975,-6.299,-62.5072,-85.7655,127.437,34.4036,-116.7767,38.2799,46.0327,6.299,
63.9614,-22.289,163.7787,-70.7444,-48.8975,-1.9382,-67.8369,-94.9721,112.437,27.1352,-123.0761,31.0116,35.8569,1.9382,
73.1675,-7.289,178.7787,-73.1675,-38.2799,0.48489,-65.4147,-84.7967,115.8078,42.1352,-108.0761,32.4649,50.8569,-0.48489,
64.4458,-1.4538,182.6762,-67.3524,-44.0941,1.4538,-54.7544,-92.5494,130.8078,27.1352,-123.0761,17.9291,36.3413,-4.3604,
79.4458,-5.8146,192.8512,-56.2081,-48.4549,-5.8146,-53.3011,-77.5494,115.8078,30.0418,-108.0761,32.9291,39.7333,5.8146,
72.683,-9.691,177.8512,-57.1775,-44.5785,-4.8457,-49.4238,-89.1575,100.8078,15.0418,-123.0761,25.1965,34.888,6.7835,
66.384,-4.3608,173.9541,-53.7851,-46.0323,-11.1447,-47.0011,-95.4565,100.3027,4.3608,-138.0761,30.5267,26.6503,9.2061,
76.559,-11.6292,187.0375,-62.9916,-36.8262,-23.2584,-51.362,-80.4565,115.3027,19.3608,-123.0761,45.5267,41.6503,11.6292,
61.559,-19.382,172.0375,-76.5599,-37.7951,-23.2584,-54.2704,-95.4565,125.9832,27.1347,-124.0455,31.0111,56.6503,19.382,
58.1468,-14.5367,164.748,-82.3736,-52.7951,-27.1347,-65.8991,-87.2193,110.9832,42.1347,-111.447,33.9187,41.6714,14.5367,
60.569,-11.1447,165.2325,-82.8585,-58.6312,-12.1347,-58.6312,-88.673,114.8385,32.4654,-120.6535,39.2484,38.2795,6.2995,
60.5685,-10.1763,163.2934,-80.9203,-51.8478,-9.2065,-61.5383,-92.5494,99.8385,23.7423,-133.252,45.0629,38.279,9.2065,
68.3218,-4.3608,170.0777,-75.1057,-56.693,-24.2065,-70.2604,-78.9821,92.549,38.7423,-118.252,49.9087,36.3408,4.3608,
61.0534,-2.9075,161.8405,-68.8062,-53.3006,-13.5678,-59.1157,-93.9821,107.549,23.7423,-133.252,34.9087,29.0725,2.9075,
64.4454,-2.4231,165.2325,-78.9821,-51.8473,-26.6503,-63.4765,-89.6419,101.2716,31.4956,-118.252,39.2484,30.5267,2.4231,
62.9916,4.8457,163.7787,-83.3434,-54.27,-34.888,-63.9614,-95.9414,89.1575,20.3513,-117.262,45.5474,32.9493,-4.8457,
53.7855,10.1754,157.4792,-79.9514,-65.4147,-34.4036,-71.2288,-98.3636,104.1575,5.3513,-132.262,45.0639,24.7121,-3.3915,
54.27,6.7835,161.8401,-83.3429,-73.6519,-38.7644,-86.2288,-84.3122,107.5706,20.3513,-117.262,48.4549,14.5362,-6.7835,
53.3006,10.6603,164.748,-70.7439,-61.0534,-23.7644,-71.2288,-97.8796,121.1379,5.3513,-132.262,33.4549,8.7226,-2.9075,
57.6619,1.4538,161.3556,-78.9816,-71.2288,-38.2799,-81.8891,-88.673,106.1379,20.3513,-133.252,40.2177,8.2377,-1.4538,
61.0539,-1.9382,159.9023,-87.2188,-66.868,-32.9493,-76.5594,-95.9414,97.8801,33.9191,-135.6746,38.7644,9.691,1.9382,
53.7851,2.4231,156.5099,-89.6424,-54.7539,-23.7428,-68.3218,-110.9414,98.364,18.9191,-150.6746,23.7644,3.392,-2.4231,
64.9307,11.6292,165.7169,-92.0645,-43.6092,-36.8253,-79.466,-95.9414,89.1579,33.9191,-135.6746,33.9187,18.392,-11.6292,
61.0539,12.5985,162.8089,-87.2197,-41.6719,-26.1663,-72.683,-93.0339,97.8791,25.1965,-125.0143,26.1654,28.1041,-12.5985,
66.868,8.7221,168.624,-84.3122,-54.27,-35.8569,-74.6208,-94.0032,100.7867,40.1965,-119.2002,36.8257,14.5362,-8.7221,
68.3218,8.2372,167.1702,-85.7655,-51.8473,-42.1559,-70.26,-94.4876,113.8696,49.9087,-116.7771,49.9087,14.0523,-8.2372,
55.2388,7.7532,155.0571,-89.1575,-47.486,-39.7332,-68.8067,-109.4876,98.8696,34.9087,-131.7771,39.7332,6.7835,-6.7835,
70.2388,6.299,170.0571,-93.5183,-44.0941,-47.0016,-83.8067,-96.4258,83.8696,45.0629,-116.7771,54.7332,7.2679,-6.299,
67.3529,12.1136,166.2014,-89.6424,-38.2795,-32.0016,-79.9509,-109.9932,98.8696,30.0629,-131.3134,43.1257,3.392,-3.392,
68.3222,26.6508,168.1395,-81.8891,-34.4036,-23.7432,-67.3524,-94.9932,83.8696,21.8046,-136.1591,33.4338,-2.4226,2.4226,
83.3222,32.9493,183.1395,-75.5901,-20.3513,-13.5674,-52.3524,-80.4358,68.8696,9.691,-121.1591,27.1352,-1.9382,1.9382,
94.0037,38.7644,191.8833,-63.9605,-13.5674,-1.9382,-39.7332,-91.0952,83.8696,-5.309,-122.1068,42.1352,1.9382,16.9382,
79.0037,23.7644,176.8833,-78.9605,-28.5674,-16.9382,-54.7332,-84.7967,85.7655,9.691,-112.9007,57.1352,-13.0618,13.0829,
76.0741,28.5885,169.1084,-74.1363,-25.6819,-16.9593,-51.8469,-84.7967,87.7033,10.1754,-116.7771,44.0941,-10.1754,23.7432,
75.1057,32.4654,170.0777,-70.2604,-31.4956,-11.1447,-49.9087,-87.7037,95.4565,11.1447,-117.746,41.187,-19.8664,30.5267,
70.26,29.5574,167.1707,-76.075,-44.0941,-23.7432,-56.693,-83.8278,97.3947,26.1447,-109.0243,56.187,-20.8357,20.8357,
68.8062,27.1347,161.8405,-77.5278,-37.7951,-21.3206,-50.3931,-91.0957,102.7249,18.4131,-124.0243,49.4242,-18.4131,21.3206,
80.9203,24.7121,168.1395,-80.9198,-41.1866,-30.5262,-65.3931,-76.0957,87.7249,33.4131,-109.0243,63.477,-24.7121,24.7121,
65.9203,30.5276,155.542,-77.0434,-45.0625,-18.8975,-77.0434,-85.7651,91.581,38.2804,-117.7455,59.6001,-39.7121,18.8975,
57.1775,31.0116,146.3345,-82.3736,-44.5785,-23.2588,-66.868,-89.1575,91.0961,26.1654,-123.0761,62.9916,-49.4247,23.2588,
72.1775,27.6196,159.417,-80.9203,-31.496,-27.6196,-60.5694,-74.1575,104.1786,41.1654,-108.0761,77.9916,-34.4247,36.3413,
59.6006,26.6508,144.417,-78.0127,-35.3715,-20.8357,-67.3524,-83.8269,116.7776,26.1654,-123.0761,65.4147,-49.4247,32.4649,
62.0223,33.9187,150.2113,-84.3122,-39.7337,-27.1347,-75.5901,-76.5594,106.6012,41.1654,-108.0761,75.5901,-54.2695,27.1347,
57.6624,23.7437,144.8817,-96.4254,-42.1559,-18.8975,-67.352,-91.5594,97.3952,26.1654,-109.9927,60.5901,-48.9389,18.8975,
56.2077,19.3824,133.7365,-94.0027,-47.486,-5.8146,-67.8369,-98.8489,82.3952,11.1654,-124.9927,45.5901,-60.0841,22.289,
61.0539,16.4749,137.6128,-102.7249,-45.5474,-16.4749,-75.5896,-92.065,67.3952,26.1654,-128.8907,40.7021,-74.6208,19.3824,
52.3313,24.2277,140.5204,-92.065,-40.7021,-4.8457,-60.5896,-102.7253,82.3952,11.1654,-143.8907,33.9182,-86.25,26.1654,
52.8162,26.6503,141.0043,-85.766,-55.7021,-17.9287,-75.5896,-87.7253,67.3952,17.9287,-131.3134,38.2795,-92.549,20.8362,
67.3524,37.3102,144.8812,-78.0127,-54.7544,-10.1754,-89.6419,-92.5494,52.3952,10.1754,-132.2827,35.3724,-84.7967,14.0518,
75.1057,45.0634,149.7269,-75.1057,-39.7544,0.48443,-74.6419,-105.1479,54.7548,-0.48443,-144.8812,26.6503,-87.7037,15.0211,
78.9821,38.2795,155.541,-87.7037,-24.7544,-9.2061,-59.6419,-100.3022,63.4765,14.5156,-129.8812,17.9287,-94.4876,0.021135,
90.1273,50.3936,164.7476,-79.466,-9.7544,4.8457,-44.6419,-106.6008,78.4765,-0.48443,-144.8812,5.8146,-94.9716,-4.8457,
96.4258,47.9705,167.1707,-81.8891,5.2456,-10.1543,-31.496,-96.4258,63.4765,0.4849,-147.7883,13.0829,-102.2409,-0.4849,
87.7046,46.0332,171.0475,-76.0745,20.2456,-21.8041,-16.9589,-99.3329,48.4765,3.392,-138.0968,7.2684,-94.4876,-3.392,
90.6108,55.7233,176.8612,-67.3524,35.2456,-9.2065,-3.3915,-103.2097,63.4765,-10.1754,-136.1591,15.9905,-80.9203,3.3915,
79.467,40.7233,161.8612,-82.3524,28.1041,-24.2065,-18.3915,-105.6319,64.9303,4.8246,-121.1591,30.9905,-84.3113,-9.691,
68.8067,41.671,162.8089,-81.4047,38.7644,-39.2065,-19.3824,-110.4781,68.8067,-8.7221,-130.8294,24.2277,-69.3113,5.309,
53.8067,34.888,152.1495,-81.4047,23.7644,-52.3313,-34.3824,-104.663,53.8067,-5.8146,-127.9214,20.3513,-84.3113,6.7844,
58.6308,38.279,153.6028,-84.7967,8.7644,-54.7544,-49.3824,-92.5499,65.4147,9.1854,-112.9214,35.3513,-89.6419,9.2065,
49.4242,33.9187,145.3661,-91.0957,-6.2356,-48.4554,-56.2081,-107.5499,79.4665,10.6603,-127.9214,44.579,-94.9721,16.4744,
43.6092,28.1036,152.1491,-89.1579,-15.5056,-58.1468,-69.776,-94.0032,69.7751,25.6603,-112.9214,29.579,-93.0343,15.5056,
41.1866,37.3102,157.4792,-74.1579,-20.8357,-43.1468,-61.5383,-89.6419,82.858,20.8357,-113.8701,30.5262,-80.9203,22.7735,
47.0021,33.4342,156.5108,-75.1057,-33.4342,-38.2795,-69.2906,-78.9821,85.766,35.8357,-98.8701,45.5262,-67.3529,35.3729,
44.0945,25.6814,155.541,-82.8585,-25.6814,-40.2181,-71.2293,-82.8585,100.766,41.187,-83.8701,59.6001,-66.384,46.0323,
39.7328,40.6814,161.8405,-67.8585,-12.598,-25.2181,-56.2293,-88.1882,92.0645,26.187,-98.8701,45.5478,-81.384,55.2384,
47.9709,42.1559,170.0777,-53.7851,-27.598,-35.372,-69.2906,-73.1882,77.0645,35.372,-100.3022,54.7539,-91.5806,40.2384,
56.693,45.0629,174.9235,-47.9705,-23.7432,-20.8357,-60.5694,-65.4147,92.0645,20.8357,-93.5183,65.4147,-76.5806,43.1252,
44.0941,43.1252,162.3245,-50.878,-26.6508,-31.496,-67.3524,-70.26,107.0645,26.6508,-85.7655,76.075,-71.2288,58.1252,
33.9182,32.9493,152.1495,-65.878,-32.9493,-46.496,-73.6519,-77.5283,92.0645,37.7946,-73.6519,62.9916,-73.6519,43.1252,
31.496,30.5262,149.7265,-64.4458,-23.7432,-44.0941,-58.6519,-90.6117,107.0645,23.7432,-88.6519,51.8469,-75.1061,43.1252,
39.7328,30.0423,156.0255,-67.8373,-30.0423,-43.6101,-58.1468,-75.6117,105.6324,38.7432,-74.6212,66.8469,-80.4354,50.3931,
36.8257,36.8257,152.1495,-70.7444,-23.2588,-28.6101,-56.2077,-89.1575,90.6324,23.7432,-89.6212,51.8469,-76.5594,36.8257,
36.3413,43.1252,149.7265,-68.3213,-17.9282,-27.6196,-58.6308,-82.858,75.6324,17.9282,-91.5806,45.0639,-73.1675,38.2799,
37.3106,35.372,149.726,-72.1982,-32.9282,-41.187,-73.1679,-76.0745,60.6324,32.9282,-80.9207,58.6303,-88.1675,33.4342,
42.1563,44.0941,151.6651,-62.5072,-35.3724,-26.187,-64.4449,-86.7344,75.6324,20.8357,-95.9207,53.7855,-98.3636,37.3111,
44.579,42.6403,156.9943,-71.7137,-46.5167,-38.7639,-77.5283,-71.7344,90.6324,35.8357,-80.9207,68.7855,-83.3636,42.6403,
31.4956,31.4956,149.7269,-71.2293,-41.187,-31.4956,-68.3218,-66.3831,105.6324,35.372,-65.9207,83.7855,-68.3636,52.8162,
21.8051,28.589,137.1279,-68.3218,-43.1247,-21.8051,-68.3218,-76.0745,120.6324,47.0011,-61.5378,78.0132,-74.1368,54.7539,
30.5267,39.2493,140.0355,-74.1363,-52.8162,-30.5267,-83.3218,-68.3218,105.6324,62.0011,-55.7228,71.2293,-82.858,40.2181,
32.4649,53.7855,141.9737,-66.3836,-42.1563,-17.9282,-78.0127,-80.9203,90.6324,47.0011,-70.7228,61.5383,-90.6117,44.0941,
45.5483,50.3936,149.242,-62.9916,-29.0729,-28.1041,-72.683,-65.9203,82.3736,32.0011,-65.8991,71.7133,-89.1575,51.3624,
45.0639,47.0016,153.6028,-56.6921,-24.7121,-27.6196,-62.5072,-62.5072,97.3736,24.7121,-56.6921,72.1986,-83.8273,53.7855,
33.4342,49.9087,157.4797,-53.7851,-31.4956,-30.5267,-67.3529,-65.4142,105.1479,30.5267,-71.2293,78.9821,-88.6726,50.8785,
30.5267,35.3729,151.6646,-68.7851,-30.5267,-45.5267,-79.9509,-64.4454,90.1479,45.5267,-56.2293,74.1368,-88.6726,35.8785,
32.9498,38.7639,141.4888,-75.5901,-24.2272,-30.5267,-65.8996,-75.5901,105.1479,30.5267,-57.177,59.1368,-82.374,32.9498,
38.279,45.0629,150.6953,-68.3222,-39.2272,-29.5574,-80.8996,-62.5072,90.1479,45.5267,-49.9091,65.4147,-88.673,29.5574,
29.0734,48.4554,154.0877,-64.9298,-53.3006,-21.3206,-87.2193,-72.6826,87.2193,60.0845,-64.9091,63.9609,-101.756,21.3206,
17.4438,50.3936,139.0877,-66.868,-52.3313,-17.4438,-81.4047,-87.2188,79.467,45.0845,-79.9091,48.9609,-116.756,23.2588,
27.1347,58.1468,145.3661,-65.8987,-56.2081,-27.1347,-82.3736,-72.2188,64.467,55.2393,-66.8675,49.4242,-112.4158,31.0111,
19.8664,62.5076,146.8194,-50.8987,-55.7237,-19.8664,-75.1057,-80.9198,78.9821,40.2393,-81.8675,56.6926,-112.9007,38.2795,
29.5574,61.5383,154.5717,-49.9091,-52.8157,-29.5574,-74.1363,-74.1363,65.4147,46.0327,-75.1052,65.4147,-121.6224,37.3102,
41.1865,62.5072,158.4481,-57.6619,-42.1563,-23.7432,-59.1363,-77.0439,76.075,31.0327,-72.1986,50.4147,-110.9625,29.5574,
43.6096,67.8378,153.1184,-45.5474,-33.9182,-9.691,-44.1363,-70.7444,91.075,16.0327,-78.4972,44.5794,-96.9103,43.6096,
30.5267,57.6614,147.7883,-49.9087,-48.9182,-24.691,-59.1363,-55.7444,76.075,31.0327,-63.4972,59.5794,-104.1786,34.4031,
22.2895,57.177,152.1491,-53.3006,-47.4865,-22.2895,-64.9298,-70.7444,72.6826,30.0423,-78.4972,59.1157,-110.4776,28.1036,
32.9493,48.4549,153.1184,-66.868,-52.3322,-32.9493,-59.1152,-69.7755,74.6208,45.0423,-70.7444,62.9916,-105.6324,37.7946,
27.6192,43.1257,142.943,-67.3529,-48.9398,-27.6192,-60.569,-70.2595,89.6208,54.7548,-62.5067,56.6926,-93.5183,42.1559,
16.4744,58.1257,139.551,-55.2393,-42.6403,-16.4744,-59.1157,-81.4042,86.2504,39.7548,-77.5067,41.6926,-99.8173,38.7639,
31.4744,62.9925,154.0882,-60.0841,-48.4549,-28.1041,-70.7444,-66.4042,71.2504,52.3322,-62.5067,50.3936,-104.663,28.1041,
35.3724,65.4147,151.6651,-49.9091,-41.1866,-13.1041,-55.7444,-71.2288,73.1675,37.3322,-77.5067,39.2488,-101.2711,33.4338,
24.7121,69.2911,148.7576,-42.1554,-47.0016,-13.0829,-56.6921,-67.3524,70.26,22.3322,-85.7655,46.0327,-102.24,40.2177,
25.6814,60.569,150.6958,-52.8162,-50.8785,-25.6814,-65.4142,-63.4765,63.4765,34.4031,-71.2293,49.9087,-111.9314,36.3418,
34.4031,65.4142,148.7571,-52.8162,-38.2795,-10.6814,-50.4142,-75.1057,76.0745,19.4031,-86.2293,42.1559,-116.7771,44.0936,
35.3724,59.5996,145.8501,-65.4147,-42.1563,-25.6814,-65.4142,-60.1057,61.5383,34.4031,-71.2293,55.7233,-107.0857,35.3724,
21.8046,44.5996,137.1284,-71.2288,-27.1563,-29.5574,-60.5685,-69.2911,76.5383,49.4031,-56.2293,51.8469,-92.0857,36.3413,
19.382,29.5996,127.9219,-80.4354,-19.382,-23.2584,-45.5685,-82.374,75.5901,35.8564,-70.7448,42.6403,-100.7871,38.7639,
34.382,33.9182,137.6128,-77.5283,-34.382,-31.9805,-58.1463,-67.374,62.9916,50.8564,-55.7448,52.3313,-109.5088,31.9805,
21.3202,43.6096,129.8601,-72.683,-47.486,-21.3202,-73.1463,-66.868,70.7444,48.4549,-61.0539,45.5483,-113.3852,35.8569,
18.4131,50.394,121.1379,-78.4972,-32.486,-18.4131,-73.6514,-53.3006,55.7444,63.4549,-49.4242,56.2081,-103.6937,42.6412,
29.0734,55.2393,118.2313,-73.6515,-17.486,-32.9493,-63.9605,-44.5785,40.7444,73.6524,-34.4242,64.9307,-95.9409,43.6101,
26.1659,40.2393,105.6319,-88.6515,-32.486,-47.9493,-78.9605,-36.8262,25.7444,88.6524,-19.4242,67.8369,-109.5088,28.6101,
37.3104,25.6812,120.6319,-103.6515,-47.486,-62.9493,-93.9605,-21.8262,10.7444,103.6524,-4.4242,75.1054,-97.3949,13.6101,
31.0116,31.0116,125.9837,-97.8796,-32.486,-47.9493,-78.9605,-36.8262,25.7444,88.6524,-19.4242,60.1054,-90.1268,16.4749,
16.0116,27.6196,113.8701,-82.8796,-17.486,-34.4036,-63.9605,-51.8262,40.7444,73.6524,-34.4242,45.1054,-92.5494,31.4749,
7.2684,41.187,114.8385,-67.8796,-7.2684,-25.6814,-48.9605,-66.8262,55.7444,58.6524,-49.4242,46.0323,-83.8282,44.0936,
1.4538,40.2177,114.8389,-65.4147,-1.4538,-18.8971,-33.9605,-81.8262,70.7444,43.6524,-64.4242,41.1865,-91.5806,45.0639,
3.8764,25.2177,109.5088,-74.6212,-3.8764,-33.8971,-47.4865,-90.1268,66.8675,42.6403,-65.8996,52.3318,-93.0343,47.4856,
3.8769,31.9805,108.5394,-59.6212,8.7221,-27.1352,-32.9493,-97.8791,81.8675,27.6403,-80.4358,45.5483,-88.1886,53.3011,
9.2061,38.2795,119.6846,-58.6303,12.1136,-28.589,-21.8051,-88.6726,67.3529,12.6403,-75.1057,43.1247,-87.7037,50.8775,
13.5669,30.0423,115.3229,-73.6303,11.6292,-42.6412,-29.0734,-93.0343,52.3529,-2.3597,-73.6524,28.1247,-90.1268,35.8775,
20.8353,43.1247,116.7771,-62.5076,18.8975,-28.589,-20.8362,-94.4876,60.569,-17.3597,-77.0443,18.8975,-78.9821,32.4644,
8.2372,36.3418,111.9319,-62.5067,3.8975,-43.1247,-35.8362,-79.4876,75.569,-2.3597,-62.0443,33.8975,-89.6415,42.1559,
3.3915,45.0629,109.0239,-57.6619,-3.3915,-28.1247,-47.9705,-69.2911,84.7967,12.6403,-59.5996,48.8975,-91.5806,57.1559,
0.48489,36.3413,94.0239,-72.6619,-0.48489,-17.9282,-56.6921,-84.2911,69.7967,14.0518,-74.1363,39.2488,-98.3636,44.0941,
0.4849,24.7121,92.5494,-84.7967,-0.4849,-32.9282,-53.7855,-97.3947,64.4449,23.7432,-66.3836,38.2799,-90.6117,35.3724,
0.96933,30.0418,94.0027,-79.467,-0.96933,-32.9493,-53.3011,-94.9725,63.9605,19.3815,-69.7755,36.8257,-93.0339,38.7644,
2.4226,35.3724,94.4872,-74.1363,-2.4226,-27.6196,-52.8166,-91.5806,63.476,15.0207,-74.1363,35.3724,-95.457,41.1866,
3.392,40.2181,95.4574,-69.2906,-3.392,-21.8041,-52.8162,-89.6415,62.5076,10.1759,-78.9821,33.4342,-98.364,44.0945,
4.8457,46.5172,95.9414,-64.9303,-4.8457,-16.4749,-52.3322,-86.2509,62.0227,6.7835,-83.3434,31.9805,-99.8178,46.5172,
6.7839,53.3006,98.8485,-58.1468,-3.8764,-8.7226,-50.394,-82.374,62.9911,3.8764,-85.2815,31.98,-100.7871,51.362,
9.2065,60.5685,101.2711,-50.878,-4.3613,-1.4538,-47.9705,-78.0127,64.4449,1.4538,-88.673,31.496,-101.2711,55.7233,
6.299,47.9705,105.1475,-63.476,-6.299,-16.4538,-61.5383,-77.0439,51.8469,16.4538,-73.673,46.496,-99.3334,49.9091,
5.8146,41.671,100.7867,-66.8689,-5.8146,-31.4538,-51.3624,-92.0439,36.8469,6.7835,-79.467,39.7333,-101.7564,34.9091,
20.8146,53.7846,109.0239,-54.7544,-6.299,-25.6819,-44.0941,-82.8589,31.496,6.299,-75.1061,50.878,-93.5183,38.279,
17.9282,46.0327,111.9314,-65.4147,-16.9593,-40.6819,-47.9705,-74.1363,16.9593,16.9593,-60.1061,47.0016,-98.364,29.5583,
12.598,49.4242,112.4163,-56.2081,-1.9593,-25.6819,-32.9705,-81.4052,29.0734,1.9593,-63.9609,32.0016,-94.9721,31.0111,
10.6603,43.6092,109.5088,-62.9921,-10.6603,-32.9498,-44.579,-73.6524,30.0423,16.9593,-48.9609,24.2272,-87.2197,30.0423,
17.4442,58.6092,124.0455,-47.9921,-17.4442,-19.382,-45.5478,-64.9298,45.0423,31.9593,-35.8564,39.2272,-72.2197,45.0423,
9.691,58.1463,117.262,-43.6096,-9.691,-16.4749,-32.9493,-67.8369,38.7644,29.0729,-50.8564,54.2272,-68.8067,60.0423,
3.3915,43.1463,102.262,-58.6096,-1.4538,-31.4749,-47.9493,-67.3534,23.7644,24.7121,-56.693,39.2272,-83.8067,45.0423,
5.3302,38.2799,102.2409,-66.3836,13.5462,-16.4749,-39.2479,-82.3534,28.5885,9.7121,-71.693,24.2272,-90.6108,30.0423,
2.9075,32.9498,99.8173,-73.6524,4.8453,-31.4749,-47.4865,-94.0032,13.5885,-2.9075,-85.2815,9.2272,-105.6108,15.0423,
9.207,29.5578,103.2102,-73.167,19.8453,-46.4749,-32.4865,-79.9509,7.2683,0.48443,-79.9509,5.3306,-106.1168,0.042269,
5.3302,31.4951,102.24,-70.26,17.9282,-37.3111,-35.3724,-77.0439,16.9593,-5.3302,-94.9509,6.299,-110.9625,8.2368,
18.8975,36.3408,116.7771,-68.3218,2.9282,-51.8473,-49.9087,-65.4152,3.392,9.6698,-79.9509,21.299,-100.3027,15.0211,
14.0523,39.2484,114.8385,-57.6614,3.392,-47.9709,-37.3106,-78.0132,18.392,-3.392,-77.0434,20.8362,-91.5801,29.5578,
3.8769,29.0729,105.6319,-63.9605,-3.8769,-60.0841,-51.3624,-65.8991,14.5362,11.608,-62.0434,22.289,-99.8178,29.0729,
8.7221,29.0729,104.663,-68.8067,-1.9382,-53.3011,-49.4247,-58.1463,1.9382,15.506,-57.1775,24.2277,-97.8791,14.0729,
18.8975,44.0729,116.7771,-53.8067,13.0618,-38.3011,-34.4247,-56.6926,0.48443,0.50603,-71.2293,22.7739,-84.7962,20.8362,
33.8975,59.0729,131.7771,-38.8067,11.6292,-23.3011,-49.4242,-41.6926,-11.6292,15.506,-56.2293,31.9809,-80.4354,25.197,
18.8975,57.6619,116.7771,-47.9705,2.4226,-16.9593,-54.7544,-48.9393,3.3708,0.50603,-71.2293,16.9809,-95.4354,10.197,
14.0518,51.8469,115.8078,-44.0941,3.3924,-31.9593,-46.0318,-54.7544,-1.4538,1.4538,-77.0439,21.8055,-93.5183,14.0518,
29.0518,58.6303,130.8078,-32.4654,15.0211,-35.3729,-42.1559,-39.7544,-15.0211,16.4538,-62.0439,36.8055,-78.5183,29.0518,
14.0518,43.6303,115.8078,-47.4654,6.7839,-20.3729,-43.6101,-54.7544,-0.021135,1.4538,-75.5901,21.8055,-81.4052,32.9489,
17.9287,45.0634,118.7158,-59.5992,-3.392,-31.4956,-56.6926,-39.7544,3.392,16.4538,-60.5901,36.8055,-85.7655,25.6814,
12.599,40.7026,121.1379,-53.3006,0,-31.98,-41.6926,-47.4856,15.5056,1.4538,-56.2081,32.9498,-91.0957,13.5678,
19.8664,43.1257,134.2213,-38.3006,11.1447,-27.6192,-26.6926,-53.7851,24.7126,-11.1447,-62.5067,27.6201,-80.9198,28.5678,
28.1041,47.486,141.4892,-41.6714,-3.8553,-42.6192,-41.6926,-38.7851,9.7126,3.8553,-47.5067,41.671,-78.4976,21.3202,
13.1041,57.1775,127.9214,-28.1041,10.6598,-27.6192,-47.486,-40.7021,24.7126,-6.7835,-62.0227,26.671,-77.5283,16.4749,
6.299,42.1775,112.9214,-43.1041,2.4226,-42.6192,-62.486,-37.3102,9.7126,8.2165,-47.0227,27.6196,-84.7967,3.3915,
17.9282,28.5885,111.9314,-58.1041,2.4226,-57.6192,-67.3524,-29.5574,6.299,21.8046,-32.0227,29.5583,-79.9509,-2.4226,
8.2377,43.5885,119.6842,-53.7855,15.0207,-42.6192,-52.3524,-44.5574,21.299,6.8046,-47.0227,16.9593,-77.0439,12.5774,
21.8046,43.1252,130.3445,-64.4454,3.3915,-37.3106,-47.0016,-29.5574,6.299,21.8046,-32.0227,31.9593,-71.2293,27.5774,
6.8046,33.9191,115.3445,-60.0841,8.7221,-32.9493,-40.7021,-44.5574,15.506,6.8046,-47.0227,16.9593,-74.6208,20.3513,
-0.48443,44.0945,118.7158,-51.8473,0.48443,-28.588,-37.3106,-29.5574,12.1136,21.8046,-32.4644,31.9593,-79.9509,34.4031,
8.7221,37.7946,121.1384,-59.1152,-8.7221,-21.3202,-31.9805,-14.5574,22.289,36.8046,-17.4644,46.9593,-72.683,32.9493,
-6.2779,40.2181,115.8083,-44.1152,1.4533,-6.3202,-16.9805,-29.5574,37.289,21.8046,-32.4644,32.4654,-64.4454,47.9493,
0.96887,36.8262,117.2616,-59.1152,-13.5467,-21.3202,-31.9805,-14.5574,22.289,36.8046,-17.4644,47.4654,-75.5901,32.9493,
15.9689,51.8262,128.8907,-53.3006,1.4533,-36.3202,-46.9805,-14.5367,7.289,34.8875,-18.4131,43.6101,-60.5901,33.9187,
13.0829,66.8262,140.0359,-38.3006,15.9905,-25.681,-36.3413,-13.0829,-7.711,29.5583,-31.496,54.7544,-55.7233,48.9187,
-1.9171,51.8262,125.0359,-46.5172,0.99046,-10.681,-21.3413,-28.0829,7.289,17.4438,-46.496,39.7544,-70.7233,33.9187,
-16.9171,36.8262,110.0359,-31.5172,15.5056,4.319,-6.3413,-43.0829,22.289,2.4438,-61.496,24.7544,-85.7233,28.1045,
-21.3202,21.8262,97.8791,-46.5172,0.50557,5.8146,-21.3413,-30.0418,37.289,17.4438,-46.496,28.1041,-100.7233,31.9805,
-6.3202,36.8262,112.8791,-54.27,-1.9382,-9.1854,-36.3413,-15.0418,22.289,32.4438,-31.496,43.1041,-85.7233,46.9805,
8.6798,51.8262,127.8791,-47.486,-1.9382,-24.1854,-51.3413,-0.041809,7.289,43.6096,-16.496,51.3624,-70.7233,54.27,
-6.3202,36.8262,112.8791,-32.486,13.0618,-9.1854,-36.3413,-15.0418,22.289,28.6096,-31.496,36.3624,-85.7233,39.27,
-21.3202,21.8262,97.8791,-17.486,28.0618,5.8146,-21.3413,-30.0418,37.289,13.6096,-46.496,21.3624,-100.7233,24.27,
-34.8871,23.2588,95.9414,-32.486,13.0618,20.8146,-6.3413,-45.0418,52.289,8.7221,-57.1766,6.3624,-115.7233,17.4438,
-19.8871,38.2588,110.9414,-47.486,-1.9382,5.8146,-21.3413,-30.0418,37.289,23.7221,-42.1766,21.3624,-100.7233,11.1447,
-4.8871,52.3308,125.9414,-62.486,-16.9382,-9.1854,-36.3413,-15.0418,22.289,38.7221,-27.1766,36.3624,-85.7233,0,
-19.8871,49.9087,125.4988,-47.486,-1.9382,-15.99,-21.3413,-30.0418,33.4342,23.7221,-30.5267,21.3624,-70.7233,15,
-34.8871,34.9087,110.4988,-32.486,13.0618,-0.99,-6.3413,-45.0418,48.4342,8.7221,-45.5267,6.3624,-85.7233,30,
-49.8871,19.9087,95.4988,-17.486,11.6296,14.01,8.6587,-60.0418,43.6096,-6.2779,-60.5267,-8.6376,-100.7233,45,
-34.8871,15.0207,110.4988,-32.486,-3.3704,-0.99,-6.3413,-45.0418,28.6096,8.7221,-45.5267,6.3624,-85.7233,30,
-19.8871,23.7428,125.4988,-47.486,-18.3704,-15.99,-21.3413,-30.0418,13.6096,23.7221,-30.5267,21.3624,-75.1057,15,
-4.8871,38.7428,131.3134,-32.486,-3.3704,-30.99,-36.3413,-17.9287,-1.3904,38.7221,-19.8669,35.3724,-60.1057,30,
-19.8871,53.7428,124.5299,-17.486,11.6296,-15.99,-21.3413,-32.9287,13.6096,23.7221,-34.8669,20.3724,-45.1057,45,
-4.8871,68.7428,139.5299,-2.486,26.6296,-5.8146,-25.1975,-47.9287,-1.3904,8.7221,-49.8669,5.3724,-30.1057,60,
5.8146,53.7428,124.5299,-17.486,11.6296,-20.8146,-40.1975,-32.9287,-16.3904,23.7221,-34.8669,15.506,-45.1057,45,
20.8146,38.7428,123.5606,-32.486,-3.3704,-35.8146,-55.1975,-17.9287,-31.3904,38.7221,-19.8669,30.506,-53.7855,30,
35.8146,53.7428,138.5606,-17.486,-18.3704,-50.8146,-70.1975,-2.9287,-46.3904,53.7221,-6.7839,45.506,-38.7855,15,
50.8146,68.7428,153.5606,-2.486,-3.3704,-35.8146,-55.1975,-7.2684,-31.3904,38.7221,-15.0211,60.506,-23.7855,30,
65.8146,58.1459,161.8396,-17.486,0,-50.8146,-51.3629,7.7316,-29.0734,23.7221,-30.0211,75.506,-30.0423,24.2272,
52.3313,58.1463,146.8396,-2.486,15,-46.5172,-36.3629,-5.8146,-14.0734,8.7221,-45.0211,73.6519,-15.0423,39.2272,
37.3313,43.1463,131.8396,-17.486,0,-61.5172,-51.3629,9.1854,-29.0734,23.7221,-30.0211,58.6519,-30.0423,24.2272,
52.3313,28.1463,116.8396,-32.486,-15,-76.5172,-66.3629,24.1854,-44.0734,38.7221,-15.0211,73.6519,-45.0423,9.2272,
47.4863,31.0109,101.8396,-47.486,-21.3204,-91.5172,-81.3629,36.826,-59.0734,23.7221,-0.021136,58.6519,-53.3009,-5.7728,
60.0848,16.0109,88.1884,-62.486,-36.3204,-106.5172,-96.3629,51.826,-74.0734,38.7221,14.9789,67.8376,-48.4551,-13.5676,
45.0848,20.8357,75.1052,-58.6308,-47.0016,-121.5172,-109.0243,66.3836,-78.0127,23.7221,29.9789,52.8376,-62.5072,-15.9905,
51.8473,35.8357,90.1052,-43.6308,-32.0016,-106.5172,-94.0243,51.3836,-63.0127,8.7221,14.9789,67.8376,-47.97,-0.99046,
42.6408,37.7951,96.9107,-58.6308,-47.0016,-121.5172,-99.8173,66.3836,-78.0127,23.7221,29.9789,82.8376,-55.2388,-15.9905,
48.4549,22.7951,90.1263,-73.6308,-38.7644,-136.5172,-114.8173,81.3836,-93.0127,38.7221,44.9789,97.8376,-40.2388,-18.4131,
33.4549,35.8569,79.4665,-62.0227,-53.7644,-124.0455,-129.8173,96.3836,-108.0127,53.7221,59.9789,112.8376,-55.2388,-24.2277,
42.1554,50.8569,94.4665,-47.0227,-55.7242,-109.0455,-114.8173,81.3836,-93.0127,38.7221,44.9789,97.8376,-70.2388,-32.4649,
57.1554,65.8569,109.4665,-32.0227,-40.7242,-94.0455,-99.8173,66.3836,-78.0127,23.7221,29.9789,82.8376,-55.2388,-17.4649,
55.2388,50.8569,111.447,-34.8875,-42.6403,-79.0455,-114.8173,81.3836,-78.4972,35.8569,14.9789,67.8376,-54.2695,-4.8457,
40.2388,35.8569,96.447,-49.8875,-57.6403,-94.0455,-129.8173,96.3836,-93.4972,50.8569,29.9789,82.8376,-69.2695,-16.9593,
42.6405,46.5169,97.8794,-43.6099,-72.6403,-109.0455,-144.8173,111.3836,-108.4972,65.8569,44.9789,97.8376,-84.2695,-31.9593,
57.6405,47.9705,112.8794,-39.2488,-57.6403,-94.0455,-129.8173,96.3836,-93.4972,50.8569,59.9789,82.8376,-69.2695,-46.9593,
72.6405,56.6926,118.7149,-24.2488,-42.6403,-79.0455,-114.8173,81.3836,-78.4972,35.8569,44.9789,67.8376,-54.2695,-31.9593,
57.6405,42.6403,103.7149,-22.2895,-57.6403,-94.0032,-127.9214,80.4354,-93.4972,20.8569,29.9789,52.8376,-69.2695,-16.9593,
42.6405,45.5478,88.7149,-37.2895,-72.6403,-109.0032,-142.9214,95.4354,-108.4972,35.8569,44.9789,60.085,-84.2695,-31.9593,
57.6405,39.2488,98.364,-52.2895,-75.1057,-124.0032,-157.9214,110.4354,-123.4972,50.8569,59.9789,75.085,-69.2695,-41.187,
45.5476,24.2488,88.1888,-64.93,-60.1057,-109.0032,-142.9214,125.4354,-110.4779,65.8569,74.9789,82.3738,-54.2695,-27.135,
31.0116,39.2488,103.1888,-49.93,-45.1057,-94.0032,-127.9214,110.4354,-95.4779,50.8569,59.9789,72.683,-50.3936,-12.135,
44.0941,54.2488,115.8078,-34.93,-44.0941,-79.0032,-112.9214,95.4354,-110.4779,35.8569,44.9789,80.9203,-65.3936,2.865,
59.0941,39.2488,100.8078,-49.93,-47.4865,-94.0032,-118.2309,110.4354,-125.4779,50.8569,59.9789,86.2504,-50.3936,-12.135,
57.177,24.2488,85.8078,-64.93,-62.4865,-109.0032,-133.2309,125.4354,-140.4779,65.8569,74.9789,101.2504,-35.3936,-7.7528,
42.177,10.6601,70.8078,-72.6828,-77.4865,-124.0032,-148.2309,110.4354,-136.6437,76.5597,89.9789,86.2504,-50.3936,-10.6601,
57.177,25.6601,85.8078,-57.6828,-62.4865,-109.0032,-133.2309,95.4354,-121.6437,61.5597,74.9789,71.2504,-36.8257,4.3399,
71.2293,40.6601,100.8078,-42.6828,-47.4865,-94.0032,-118.2309,97.3952,-106.6437,46.5597,59.9789,80.9198,-28.589,-10.6601,
56.2293,25.6601,85.8078,-57.6828,-52.8162,-109.0032,-131.3134,90.6117,-121.6437,61.5597,73.1675,95.457,-43.589,0.48489,
41.2293,11.6289,70.8078,-44.5787,-67.8162,-124.0032,-144.3965,105.6117,-136.6437,76.5597,88.1675,94.9718,-58.589,-6.7837,
32.4651,26.6289,76.0748,-32.4651,-82.8162,-109.0032,-134.2211,95.4567,-128.4065,91.5597,103.1675,79.9718,-73.589,-21.7837,
47.4651,41.6289,91.0748,-19.382,-67.8162,-94.0032,-119.2211,91.0957,-113.4065,76.5597,88.1675,64.9718,-58.589,-22.2895,
37.3109,26.6289,76.0748,-34.382,-56.6928,-106.117,-131.3136,105.1482,-128.4065,61.5597,73.1675,63.4758,-51.8471,-15.0214,
35.3724,31.496,77.0439,-31.496,-71.6928,-120.6535,-138.0973,90.1482,-135.1902,46.5597,64.4458,48.4758,-66.8471,-30.0214,
27.6196,46.496,85.7655,-27.6196,-86.6928,-113.8701,-123.0973,75.1482,-150.1902,31.5597,49.4458,33.4758,-81.8471,-45.0214,
42.1563,54.7544,95.457,-42.1563,-71.6928,-98.8701,-108.0973,90.1482,-135.1902,46.5597,64.4458,48.4758,-66.8471,-47.9709,
28.1041,39.7544,80.457,-55.2393,-62.9921,-101.756,-123.0973,104.663,-120.1902,61.5597,79.4458,63.4758,-51.8471,-32.9709,
26.1656,35.8566,68.8064,-43.6099,-77.9921,-116.756,-138.0973,111.4472,-135.1902,76.5597,94.4458,78.4758,-66.8471,-26.1656,
41.1656,50.8566,83.8064,-28.6099,-62.9921,-101.756,-123.0973,96.4472,-120.1902,61.5597,79.4458,63.4758,-51.8471,-14.5367,
56.1656,65.8566,98.8064,-13.6099,-47.9921,-86.756,-108.0973,81.4472,-105.1902,46.5597,64.4458,48.4758,-36.8471,-4.8457,
62.9918,50.8566,113.8064,-25.1968,-32.9921,-82.3738,-93.0973,96.4472,-90.1902,31.5597,79.4458,63.4758,-24.2279,-14.5365,
47.9918,35.8566,98.8064,-40.1968,-47.9921,-97.3738,-108.0973,111.4472,-105.1902,46.5597,94.4458,78.4758,-39.2279,-29.5365,
35.8566,45.5481,91.0959,-35.8566,-62.9921,-112.3738,-123.0973,126.4472,-120.1902,61.5597,109.4458,93.4758,-54.2279,-44.5365,
50.8566,60.5481,106.0959,-20.8566,-47.9921,-97.3738,-108.0973,111.4472,-105.1902,46.5597,94.4458,78.4758,-39.2279,-29.5578,
65.4142,54.7539,111.9319,-5.8566,-32.9921,-82.3738,-93.0973,96.4472,-90.1902,31.5597,79.4458,63.4758,-24.2279,-14.5578,
73.6519,49.4247,122.1073,-5.8146,-45.5474,-82.3736,-105.6319,81.4472,-88.1882,16.5597,64.4458,70.7453,-24.2272,0.44216,
63.4763,34.4247,116.7769,-20.8146,-60.5474,-97.3736,-120.6319,96.4472,-103.1882,31.5597,79.4458,85.7453,-39.2272,-14.5578,
78.4763,33.9187,123.0761,-35.8146,-47.486,-90.1268,-105.6324,111.4472,-118.1882,46.5597,94.4458,100.7453,-33.9187,-29.5578,
63.4763,31.0116,108.0761,-31.9805,-32.486,-75.1268,-90.6324,96.4472,-103.1882,31.5597,79.4458,85.7453,-18.9187,-15.5051,
61.0534,46.0116,123.0761,-16.9805,-17.486,-60.1268,-75.6324,81.4472,-88.1882,16.5597,64.4458,70.7453,-8.7217,-0.50511,
74.6208,57.1775,131.7978,-1.9805,-4.8457,-45.1268,-60.6324,66.4472,-96.9103,1.5597,49.4458,68.8067,-23.7217,14.4949,
64.4451,42.1775,116.7978,-16.9805,-12.1138,-60.1268,-75.6324,81.4472,-111.9103,16.5597,64.4458,83.8067,-19.8666,-0.50511,
60.0843,27.1775,101.7978,-31.9805,-27.1138,-75.1268,-90.6324,96.4472,-126.9103,31.5597,79.4458,98.8067,-26.1656,-14.5365,
60.5694,42.1563,116.7978,-29.5574,-42.1138,-90.1268,-105.6324,111.4472,-111.9103,16.5597,64.4458,83.8067,-39.2484,-14.0518,
51.8478,57.1563,131.7978,-14.5574,-27.1138,-75.1268,-90.6324,96.4472,-96.9103,1.5597,49.4458,68.8067,-39.2488,0.94819,
40.2181,72.1563,116.7978,0.44263,-12.1138,-60.1268,-75.6324,81.4472,-81.9103,-13.4403,34.4458,56.6926,-37.3106,13.0825,
25.2181,57.1563,101.7978,-14.5574,-27.1138,-75.1268,-90.6324,66.4472,-96.9103,1.5597,49.4458,62.0223,-52.3106,-1.9175,
40.2181,42.1563,86.7978,-29.5574,-42.1138,-90.1268,-105.6324,81.4472,-111.9103,16.5597,64.4458,75.5901,-52.3313,-15.5056,
55.2181,43.6092,101.7978,-18.4131,-43.6096,-75.1268,-102.7253,91.0957,-126.9103,18.4131,74.6212,60.5901,-37.3313,-30.5056,
70.2181,58.6092,116.7978,-3.4131,-28.6096,-60.1268,-87.7253,76.0957,-111.9103,3.4131,59.6212,59.5996,-22.3313,-15.5056,
62.5072,60.5694,131.7978,7.2688,-13.6096,-45.1268,-72.7253,61.0957,-96.9103,-11.5869,44.6212,72.1986,-20.8357,-0.50557,
47.5072,50.878,116.7978,3.3915,-28.6096,-60.1268,-87.7253,70.26,-96.4258,-7.2679,38.2799,72.1986,-35.8357,-3.3915,
32.5072,35.878,101.7978,-11.6085,-43.6096,-75.1268,-102.7253,70.2604,-111.4258,7.7321,51.8473,57.1986,-50.8357,-18.3915,
40.2179,21.8048,86.7978,-26.6085,-42.1561,-72.1979,-96.4256,59.5999,-99.3331,22.7321,66.8473,69.2913,-39.2486,-21.8048,
55.2179,32.4654,101.7978,-26.6503,-27.1561,-57.1979,-81.4256,44.5999,-84.3331,7.7321,51.8473,84.2913,-24.2486,-6.8048,
66.384,32.4654,110.9621,-11.6503,-27.6192,-68.3218,-85.7655,31.4956,-99.3331,-7.2679,36.8473,91.5801,-14.0523,8.1952,
70.2604,47.4654,118.7158,3.3497,-12.6192,-53.3218,-70.7655,38.2795,-91.5801,-22.2679,21.8473,76.5801,0.48443,-6.8048,
55.2604,51.3629,103.7158,3.8764,2.3808,-38.3218,-55.7655,25.197,-82.374,-36.8262,6.8473,62.9921,-7.7528,-4.8453,
40.2604,36.3629,88.7158,-11.1236,-12.6192,-53.3218,-70.7655,39.733,-85.2813,-21.8262,21.8473,65.8989,-22.7528,-15.5058,
33.4342,21.3629,75.1057,-26.1236,-27.6192,-68.3218,-85.7655,54.733,-100.2813,-6.8262,36.8473,75.1057,-37.7528,-15.99,
31.9805,24.2277,83.3424,-24.2277,-42.6192,-71.7137,-100.7655,69.733,-115.2813,8.1738,51.8473,80.4358,-52.7528,-30.99,
39.7337,35.8573,87.2193,-9.2277,-27.6192,-56.7137,-85.7655,54.733,-100.2813,-6.8262,36.8473,65.4358,-37.7528,-15.99,
41.187,44.0945,86.7348,0.48443,-12.6192,-41.7137,-70.7655,39.733,-85.2813,-21.8262,21.8473,50.4358,-22.7528,-0.99,
56.187,51.8469,101.7348,-5.3302,-27.6192,-56.7137,-85.7655,45.0629,-100.2813,-6.8262,14.0518,48.9393,-37.7528,-12.1141,
41.187,36.8469,86.7348,-20.3302,-42.6192,-71.7137,-100.7655,60.0629,-115.2813,8.1738,29.0518,63.9393,-52.7528,-27.1141,
56.187,40.2179,89.6421,-35.3302,-53.7853,-86.7137,-115.7655,75.0629,-130.2813,23.1738,44.0518,78.9393,-57.6617,-42.1141,
71.187,55.2179,104.6421,-20.3302,-38.7853,-71.7137,-100.7655,87.2193,-115.2813,8.1738,29.0518,63.9393,-42.6617,-27.1141,
73.6524,70.2179,119.6421,-5.3302,-23.7853,-56.7137,-85.7655,72.2193,-100.2813,-6.8262,14.0518,48.9393,-30.0423,-12.1141,
88.6524,85.2179,134.6421,9.6698,-8.7853,-41.7137,-70.7655,57.2193,-85.2813,-21.8262,-0.94819,52.8162,-17.9277,2.8859,
86.7346,70.2179,119.6421,-5.3302,-23.7853,-56.7137,-85.7655,72.2193,-100.2813,-6.8262,14.0518,67.8162,-32.9277,-12.1141,
101.7346,55.2179,104.6421,-20.3302,-38.7853,-71.7137,-100.7655,87.2193,-115.2813,8.1738,29.0518,82.8162,-47.9277,-27.1141,
97.8791,61.0539,97.8791,-5.3302,-23.7853,-56.7137,-85.7655,72.2193,-130.2813,-6.8262,14.0518,89.1575,-32.9277,-39.7332,
102.7249,76.0539,112.8791,9.6698,-8.7853,-41.7137,-70.7655,57.2193,-115.2813,-21.8262,-0.94819,74.1575,-17.9277,-24.7332,
111.9319,91.0539,127.8791,24.6698,6.2147,-26.7137,-55.7655,42.2193,-104.1782,-36.8262,-15.9482,59.1575,-26.6503,-9.7332,
96.9319,76.0539,112.8791,9.6698,-8.7853,-41.7137,-70.7655,57.2193,-119.1782,-21.8262,-0.94819,48.9403,-41.6503,-24.7332,
81.9319,61.0539,97.8791,-5.3302,-23.7853,-56.7137,-85.7655,72.2193,-134.1782,-6.8262,14.0518,63.9403,-56.6503,-39.7332,
67.3534,46.0539,82.8791,-20.3302,-20.8357,-71.7137,-89.6419,87.2193,-149.1782,8.1738,20.8357,78.9403,-43.1247,-54.7332,
77.0443,61.0539,97.8791,-5.3302,-5.8357,-56.7137,-74.6419,72.2193,-134.1782,-6.8262,5.8357,63.9403,-28.588,-39.7332,
92.0443,76.0539,112.8791,9.6698,0.4849,-41.7137,-59.6419,57.2193,-119.1782,-0.4849,-9.1643,78.9403,-13.588,-24.7332,
77.0443,61.0539,97.8791,-5.3302,-14.5151,-56.7137,-74.6419,72.2193,-134.1782,14.5151,5.8357,89.1575,-25.1965,-29.0729,
65.8991,46.0539,82.8791,-20.3302,-29.5151,-71.7137,-89.6419,87.2193,-149.1782,29.5151,20.8357,104.1575,-33.9187,-44.0729,
80.4363,37.7951,93.0343,-35.3302,-44.5151,-86.7137,-104.6419,102.2193,-140.5199,44.5151,35.8357,89.1575,-48.9187,-54.2695,
95.4363,52.7951,106.1173,-20.3302,-29.5151,-71.7137,-89.6419,87.2193,-125.5199,29.5151,20.8357,101.2711,-33.9187,-39.2695,
80.4363,67.7951,91.1173,-5.3302,-14.5151,-56.7137,-74.6419,72.2193,-110.5199,14.5151,5.8357,116.2711,-18.9187,-24.2695,
65.4363,79.4665,76.1173,9.6698,0.4849,-41.7137,-59.6419,57.2193,-122.1068,-0.4849,-9.1643,101.2711,-21.3197,-19.382,
50.4363,64.4665,61.1173,-5.3302,-14.5151,-56.7137,-74.6419,72.2193,-137.1068,14.5151,5.8357,86.2711,-36.3197,-34.382,
39.249,49.4665,46.1173,-20.3302,-29.5151,-71.7137,-82.8582,87.2193,-122.1068,29.5151,20.8357,85.7658,-21.3197,-19.382,
31.9809,34.4665,36.8262,-5.3302,-15.5056,-56.7137,-67.8582,72.2193,-107.1068,14.5151,5.8357,86.2504,-23.2584,-4.382,
26.1659,19.4665,31.98,-15.5056,-30.5056,-71.7137,-82.8582,86.2504,-122.1068,29.5151,20.8357,71.2504,-38.2584,-19.382,
41.1659,13.5678,43.6092,-28.1045,-15.5056,-77.5283,-67.8582,71.2504,-107.1068,38.7639,5.8357,56.2504,-23.2584,-34.382,
56.1659,28.5678,50.8785,-13.1045,-0.50557,-62.5283,-52.8582,56.2504,-92.1068,23.7639,-9.1643,53.7851,-8.2584,-19.382,
71.1659,17.9284,60.5692,-28.1045,-15.5056,-77.5283,-67.8582,61.5381,-107.1068,38.7639,5.8357,68.7851,-23.2584,-17.9284,
78.4972,28.1041,75.5692,-38.7644,-30.5056,-92.5283,-82.8582,76.5381,-122.1068,53.7639,20.8357,83.7851,-28.1041,-32.9284,
84.3118,24.2277,62.9921,-39.7332,-33.9187,-107.5283,-97.8582,91.5381,-137.1068,68.7639,35.8357,98.7851,-25.1965,-24.2277,
99.3118,39.2277,77.9921,-24.7332,-18.9187,-92.5283,-82.8582,76.5381,-122.1068,53.7639,20.8357,83.7851,-10.1965,-9.2277,
84.3118,54.2277,72.6826,-9.7332,-10.6603,-79.4665,-70.7448,61.5381,-107.1068,38.7639,5.8357,68.7851,-20.3518,5.7723,
69.3118,39.2277,57.6826,-24.7332,-15.5056,-74.6208,-73.6515,55.2393,-122.1068,35.8573,15.5056,61.0543,-27.1347,-9.2277,
81.8894,24.2277,45.0632,-39.7332,-18.8978,-83.8276,-87.7039,70.2393,-137.1068,50.8573,30.5056,76.0543,-13.0832,-24.2277,
94.4876,20.8357,46.0327,-47.0016,-33.8978,-98.8276,-102.7039,85.2393,-152.1068,65.8573,45.5056,91.0543,-20.8357,-39.2277,
88.1882,35.8357,61.0327,-32.0016,-18.8978,-83.8276,-87.7039,70.2393,-137.1068,50.8573,30.5056,76.0543,-30.0423,-38.7639,
88.6735,50.8357,76.0327,-17.0016,-3.8978,-68.8276,-72.7039,55.2393,-122.1068,35.8573,15.5056,61.0543,-45.0423,-23.7639,
95.9409,65.8357,67.8373,-2.0016,11.1022,-53.8276,-57.7039,40.2393,-134.7053,20.8573,0.50557,46.0543,-53.3006,-34.8875,
87.7035,50.8357,52.8373,-17.0016,-3.8978,-68.8276,-72.7039,55.2393,-149.7053,35.8573,15.5056,61.0543,-64.4456,-49.8875,
101.756,38.7644,37.8373,-30.0423,-18.8978,-83.8276,-87.7039,70.2393,-164.7053,50.8573,30.5056,76.0543,-68.8062,-39.7333,
95.4574,53.7644,52.8373,-15.0423,-3.8978,-68.8276,-81.8891,78.0132,-154.5717,35.8573,15.5056,61.0543,-53.8062,-54.7333,
104.1786,68.7644,67.8373,-0.04227,11.1022,-53.8276,-66.8891,63.0132,-139.5717,20.8573,0.50557,46.0543,-38.8062,-39.7333,
92.065,63.9605,79.466,11.6287,26.1022,-50.3936,-51.8891,48.0132,-124.5717,5.8573,-14.4944,48.4549,-23.8062,-24.7333,
77.065,48.9605,64.466,-3.3713,11.1022,-65.3936,-66.8891,63.0132,-139.5717,20.8573,0.50557,53.7857,-38.8062,-39.7333,
62.065,37.7951,49.466,-18.3713,-3.8978,-80.3936,-81.8891,78.0132,-154.5717,35.8573,15.5056,68.7857,-53.8062,-43.6096,
63.4765,22.7951,34.466,-25.681,-18.8978,-69.2906,-71.2288,93.0132,-139.5717,50.8573,30.5056,83.7857,-38.8062,-39.2484,
71.7142,35.8569,49.466,-10.681,-3.8978,-54.2906,-56.2288,78.0132,-124.5717,35.8573,15.5056,68.7857,-23.8062,-24.2484,
73.6519,49.4247,59.1152,4.319,-18.8978,-39.2906,-70.7444,63.0132,-109.5717,20.8573,0.50557,74.6208,-22.289,-9.2484,
58.6519,34.4247,44.1152,-10.681,-33.8978,-54.2906,-85.7444,71.7137,-124.5717,35.8573,15.5056,66.8685,-37.289,-24.2484,
60.0843,23.2586,37.7953,-25.681,-23.2586,-69.2906,-94.003,86.7137,-139.5717,50.8573,30.5056,81.8685,-34.8878,-39.2484,
48.9403,16.9593,33.4342,-34.4031,-24.7121,-84.2906,-94.4876,100.3022,-124.5717,65.8573,45.5056,78.0127,-19.8878,-24.2484,
42.1559,31.9593,40.2172,-19.4031,-33.4342,-69.2906,-79.4876,85.3022,-109.5717,50.8573,30.5056,80.9198,-22.7739,-9.2484,
27.1559,36.3408,25.2172,-4.4031,-48.4342,-83.8278,-83.8278,70.3022,-124.5717,35.8573,15.5056,65.9198,-37.7739,-24.2484,
22.7739,21.3408,11.1447,-19.4031,-33.4342,-92.549,-72.1981,55.3022,-129.3752,20.8573,30.5056,50.9198,-22.7739,-29.5578,
33.9187,6.3408,13.5678,-34.4031,-21.3206,-107.549,-87.1981,67.8373,-117.2616,35.8573,45.5056,61.0534,-7.7739,-14.5578,
48.9187,12.1138,27.6194,-39.2486,-36.3206,-122.549,-102.1981,78.9818,-113.8698,50.8573,60.5056,65.4149,-22.7739,-12.1138,
43.1247,22.7739,38.2795,-29.5578,-51.3206,-116.7771,-117.1981,67.3529,-128.8698,46.0323,60.569,70.2595,-37.7739,-22.7739,
49.9089,18.8978,53.2795,-29.5581,-36.3206,-105.1482,-102.1981,82.3529,-118.7155,61.0323,75.569,85.2595,-32.4651,-18.8978,
34.9089,3.8978,38.2795,-21.8041,-21.3206,-90.1482,-87.1981,67.3529,-103.7155,46.0323,60.569,70.2595,-17.4651,-3.8978,
22.7739,6.2986,23.2795,-6.8041,-36.3206,-79.9509,-73.1679,52.3529,-90.6112,31.0323,45.569,55.2595,-26.6503,11.1022,
37.7739,5.3302,29.5578,-21.8041,-51.3206,-94.9509,-88.1679,67.3529,-105.6112,46.0323,60.569,70.2595,-19.8664,-3.8978,
52.7739,2.4226,42.1563,-36.8041,-47.9705,-109.9509,-103.1679,82.3529,-120.6112,61.0323,75.569,85.2595,-4.8664,-18.8978,
47.9705,-1.4538,28.5885,-51.8041,-55.7237,-124.9509,-118.1679,97.3529,-135.6112,76.0323,90.569,100.2595,-1.4538,-3.8978,
32.9705,10.1754,31.496,-36.8041,-47.9705,-109.9509,-103.1679,82.3529,-120.6112,61.0323,75.569,85.2595,-16.4538,11.1022,
47.9705,25.1754,46.496,-21.8041,-32.9705,-94.9509,-88.1679,67.3529,-105.6112,46.0323,60.569,70.2595,-16.9598,16.9589,
32.9705,16.4749,31.496,-28.1041,-35.8569,-80.4354,-73.1679,62.0227,-94.9721,59.1152,75.569,85.2595,-23.2584,1.9589,
25.6814,1.4749,16.496,-43.1041,-39.2488,-95.4354,-88.1679,77.0227,-109.9721,74.1152,90.569,100.2595,-8.2584,5.3302,
37.3106,4.3608,12.1136,-28.1041,-54.2488,-110.4354,-103.1679,92.0227,-122.5917,89.1152,105.569,115.2595,-21.8051,-4.3608,
37.3106,7.2684,25.6814,-13.1041,-53.7851,-100.3018,-88.1679,77.0227,-107.5917,74.1152,90.569,100.2595,-32.4644,-19.3608,
52.3106,22.2684,40.6814,1.8959,-38.7851,-85.3018,-73.1679,62.0227,-92.5917,59.1152,75.569,85.2595,-17.4644,-9.691,
45.5483,7.7532,49.4247,-13.1041,-23.7851,-100.3018,-86.25,47.0227,-77.5917,44.1152,60.569,70.2595,-2.4644,-11.6287,
30.5483,5.3302,34.4247,-27.6196,-38.7851,-115.3018,-101.25,62.0227,-92.5917,59.1152,75.569,85.2595,-17.4644,-5.3302,
44.579,20.3302,19.4247,-25.1965,-53.7851,-130.3018,-111.447,77.0227,-107.5917,74.1152,90.569,100.2595,-32.4644,-19.382,
41.6719,5.8146,25.1965,-40.1965,-38.7851,-115.3018,-96.447,82.3745,-122.5917,61.0539,105.569,86.2509,-17.4644,-34.382,
39.7328,20.8146,40.1965,-25.1965,-23.7851,-100.3018,-81.447,67.3745,-107.5917,46.0539,90.569,71.2509,-2.4644,-19.382,
40.7026,19.382,30.0423,-10.1965,-31.98,-85.3018,-78.4976,52.3745,-94.0032,31.0539,75.569,56.2509,-17.4644,-4.382,
55.7026,14.0518,15.99,-25.1965,-16.98,-98.364,-80.9203,67.3745,-109.0032,46.0539,90.569,61.5378,-14.0518,-19.382,
57.1775,7.7528,24.2277,-40.1965,-15.5056,-113.364,-95.9203,82.3745,-124.0032,61.0539,105.569,76.5378,-7.7528,-34.382,
42.1775,2.9073,25.1968,-42.6405,-16.4747,-123.0764,-94.003,97.3745,-109.0032,76.0539,120.569,91.5378,-2.9073,-19.382,
27.1775,17.9073,19.382,-27.6405,-13.5678,-108.0764,-79.003,82.3745,-94.0032,61.0539,105.569,76.5378,-11.6292,-4.382,
25.1961,32.9073,19.382,-12.6405,-28.5678,-93.0764,-64.003,67.3745,-101.756,46.0539,90.569,64.9298,-20.3518,-10.6603,
20.8357,17.9073,10.1754,-27.6405,-17.9287,-108.0764,-74.1363,72.1986,-109.9932,61.0539,105.569,72.1986,-5.3518,-8.2377,
32.9498,2.9073,-4.8246,-42.6405,-28.1041,-123.0764,-89.1363,87.1986,-107.5706,76.0539,120.569,87.1986,9.6482,6.7623,
47.9498,4.8455,10.1754,-36.826,-43.1041,-136.6437,-104.1363,100.7869,-115.3236,91.0539,135.569,83.3427,-5.3518,-4.8455,
57.1775,19.8455,25.1754,-21.826,-28.1041,-121.6437,-89.1363,85.7869,-100.3236,76.0539,120.569,70.7444,-20.3518,2.9071,
42.1775,6.299,40.1754,-36.826,-13.1041,-106.6437,-74.1363,80.9203,-85.3236,61.0539,105.569,73.1675,-16.9593,-12.0929,
27.1775,-8.2381,25.1754,-30.5267,-20.8362,-121.6437,-85.766,65.9203,-78.0132,46.0539,120.569,61.5378,-7.2684,2.9071,
22.7744,1.4538,10.1754,-15.5267,-35.8362,-119.6842,-92.5494,54.7544,-93.0132,46.0327,135.569,58.6308,-22.2684,17.9071,
37.7744,11.1447,22.7739,-17.9287,-29.5578,-104.6842,-78.9821,69.7544,-81.8891,61.0327,150.569,73.6308,-11.1447,2.9071,
48.4554,0.96887,24.2281,-32.9287,-27.1347,-113.3852,-78.4972,84.3118,-80.4354,76.0327,165.569,88.6308,-0.96887,-12.0929,
47.0018,-12.1138,12.1138,-39.2486,-42.1347,-128.3852,-91.5803,99.3118,-95.4354,91.0327,180.569,87.7035,-12.1138,2.9071,
37.7955,2.8862,15.506,-24.2486,-28.1041,-113.3852,-76.5803,84.3118,-80.4354,76.0327,165.569,72.7035,-26.1654,4.8457,
38.7639,17.8862,30.506,-9.2486,-13.1041,-98.3852,-61.5803,69.3118,-65.4354,61.0327,150.569,57.7035,-35.8573,-10.1543,
40.7019,23.2586,16.4747,-24.2486,-20.3515,-83.3852,-46.5803,78.4969,-80.4354,64.93,165.569,72.7035,-20.8573,-16.4747,
36.8257,8.2586,1.4747,-39.2486,-26.1659,-98.3852,-61.5803,93.4969,-94.9725,79.93,180.569,87.7035,-5.8573,-1.4747,
32.4649,5.3302,-5.3302,-24.2486,-41.1659,-113.3852,-76.5803,108.4969,-102.2404,94.93,195.569,102.7035,-16.9593,11.1447,
42.6403,20.3302,9.6698,-9.2486,-26.1659,-98.3852,-61.5803,93.4969,-87.2404,79.93,180.569,87.7035,-10.6603,-3.8553,
47.0016,29.5574,24.6698,-1.4538,-11.1659,-83.3852,-46.5803,78.4969,-72.2404,64.93,165.569,72.7035,4.3397,-15.9905,
32.0016,14.5574,12.5985,-16.4538,-22.289,-98.3852,-61.5803,63.4969,-59.1152,49.93,150.569,58.1463,-10.6603,-5.8146,
40.7023,11.6294,-0.9691,-31.4538,-37.289,-113.3852,-76.5803,78.4969,-74.1152,64.93,165.569,73.1463,-25.6603,0.9691,
55.7023,26.6294,14.0309,-35.8569,-29.0734,-118.2309,-91.0957,93.4969,-89.1152,79.93,180.569,88.1463,-33.9187,-14.0309,
40.7023,11.6294,11.1447,-42.1559,-14.0734,-103.2309,-76.0957,78.4969,-90.6112,64.93,165.569,73.1463,-18.9187,-29.0309,
46.5176,12.599,14.5367,-27.1559,0.9266,-88.2309,-61.0957,63.4969,-75.6112,49.93,150.569,58.1463,-3.9187,-14.0309,
61.0534,11.6292,12.598,-12.1559,-14.0734,-94.0032,-57.177,48.4969,-90.6112,34.93,135.569,53.3006,-5.815,0.9691,
56.6926,13.0829,15.0211,-27.1559,-21.8046,-92.5494,-66.3836,63.4969,-105.6112,49.93,150.569,68.3006,-13.0829,-14.0309,
59.5999,5.3299,15.0209,-42.1559,-8.2374,-107.5494,-80.92,78.4969,-120.6112,64.93,165.569,83.3006,-5.3299,-27.6194,
44.5999,-6.2986,0.020904,-47.9705,-0.48443,-120.6531,-78.9816,93.4969,-105.6112,79.93,180.569,94.4876,0.48443,-12.6194,
38.7648,8.7014,15.0209,-32.9705,6.7839,-105.6531,-63.9816,78.4969,-90.6112,64.93,165.569,79.4876,-6.7839,2.3806,
34.888,23.7014,13.5674,-17.9705,-8.2161,-90.6531,-48.9816,63.4969,-90.1263,49.93,150.569,64.4876,-21.7839,-0.96933,
36.8266,8.7014,-1.4326,-32.9705,6.7839,-101.7555,-63.9816,78.4969,-105.1263,64.93,165.569,74.6217,-6.7839,-1.9382,
51.8266,-6.2986,-16.4326,-47.9705,-8.2161,-116.7555,-78.9816,93.4969,-120.1263,79.93,180.569,89.6217,8.2161,13.0618,
66.8266,8.7014,-1.4326,-32.9705,-19.8664,-114.8389,-76.0745,108.4969,-105.1263,89.6424,195.569,74.6217,-6.7839,-1.9382,
58.1463,23.7014,13.5674,-17.9705,-4.8664,-99.8389,-61.0745,93.4969,-90.1263,74.6424,180.569,59.6217,-21.7839,-16.4749,
46.0318,16.9593,21.8046,-27.6196,9.2065,-84.8389,-48.9403,78.4969,-86.7353,59.6424,165.569,58.6308,-18.898,-9.2065,
38.7644,4.8457,6.8046,-20.3513,-5.7935,-99.8389,-63.9403,86.25,-96.9103,66.868,180.569,73.6308,-4.8457,5.7935,
33.9184,10.6601,-8.1954,-10.6601,-20.7935,-114.8389,-78.9403,101.25,-111.9103,81.868,195.569,86.2502,-19.8457,20.7935,
48.9184,25.6601,5.3299,-5.3299,-22.7737,-99.8389,-69.2909,105.1482,-96.9103,96.868,210.569,84.7964,-10.1756,5.7935,
62.9916,23.2588,2.9071,-17.4438,-14.5362,-84.8389,-60.0841,90.1482,-81.9103,81.868,195.569,81.4047,4.8244,-2.9071,
47.9916,8.2588,-12.0929,-32.4438,-29.5362,-99.8389,-75.0841,95.457,-96.9103,66.868,180.569,77.0439,-1.4538,12.0929,
55.7237,23.2588,-12.1136,-17.4438,-15.0211,-95.4565,-65.4142,80.457,-102.2404,51.868,165.569,62.0439,-5.3297,4.3608,
57.1775,38.2588,-2.9071,-2.4438,-10.6598,-85.2811,-50.4142,65.457,-93.0339,36.868,164.7476,48.4549,-14.5362,-10.6392,
48.4551,23.2588,-17.9071,-17.4438,-13.5676,-92.0648,-49.4245,80.457,-94.9723,51.868,179.7476,63.4549,0.46376,-19.3822,
33.4551,8.2588,-32.9071,-32.4438,-12.1136,-102.2404,-64.4245,95.457,-80.9198,66.868,194.7476,78.4549,15.4638,-4.3822,
28.5883,-0.48466,-47.9071,-17.4438,-27.1136,-90.611,-79.4245,101.2718,-93.5185,81.868,209.7476,82.8587,0.48466,0.48466,
39.2488,14.5153,-32.9071,-2.4438,-12.1136,-75.611,-64.4245,86.2718,-78.5185,66.868,194.7476,67.8587,6.299,-14.5153,
48.4549,23.2588,-17.9071,-9.691,2.8864,-60.611,-49.4245,71.2718,-63.5185,51.868,179.7476,52.8587,21.299,-16.4749,
40.7023,8.2588,-32.9071,-24.691,-9.6907,-75.611,-64.4245,77.5285,-78.5185,66.868,194.7476,66.8682,6.7837,-2.9073,
55.7023,23.2588,-29.5576,-17.9284,-24.6907,-90.611,-79.4245,92.5285,-93.5185,81.868,209.7476,81.8682,-8.2163,12.0927,
70.7023,37.7951,-23.2584,-22.2895,-9.691,-105.611,-79.4665,107.5285,-108.5185,96.868,224.7476,96.8682,6.7837,-2.9073,
55.7023,22.7951,-38.2584,-32.4654,5.309,-90.611,-64.4665,92.5285,-93.5185,81.868,209.7476,81.8682,21.7837,-17.9073,
45.0629,13.0829,-43.1252,-17.4654,20.309,-75.611,-49.4665,77.5285,-78.5185,66.868,194.7476,66.8682,36.7837,-2.9073,
55.7237,-1.9171,-55.7228,-20.8353,5.309,-90.611,-64.4665,62.5285,-78.9816,51.868,179.7476,56.6926,21.7837,10.1759,
70.7237,13.0829,-40.7228,-29.5574,-9.691,-93.5183,-75.1052,77.5285,-93.9816,66.868,194.7476,71.6926,36.7837,-4.8241,
85.7237,12.1138,-29.5576,-39.2486,-21.8048,-108.5183,-78.013,92.5285,-108.9816,81.868,209.7476,86.6926,49.9089,-12.1138,
70.7237,1.4533,-44.5576,-31.4956,-19.8664,-111.9314,-75.1057,90.6112,-93.9816,66.868,194.7476,71.6926,34.9089,-1.4533,
59.1157,16.4533,-29.5576,-16.4956,-4.8664,-96.9314,-60.1057,75.6112,-78.9816,51.868,179.7476,56.6926,28.1045,13.5467,
46.5167,31.4533,-40.7026,-1.4956,-19.382,-81.9314,-45.1057,60.6112,-93.9816,36.868,164.7476,41.6926,13.1045,0,
45.0634,16.4533,-55.7026,-16.4956,-15.0211,-96.9314,-60.1057,75.6112,-108.9816,51.868,179.7476,56.6926,28.1045,5.3302,
37.7953,1.4533,-70.7026,-31.4956,-30.0211,-111.9314,-75.1057,90.6112,-123.9816,66.868,194.7476,71.6926,17.444,20.3302,
48.9398,-0.48443,-59.5996,-20.8357,-45.0211,-104.1786,-90.1057,99.3329,-123.5606,51.868,209.7476,56.6926,2.444,15.0211,
58.1463,14.5156,-44.5996,-5.8357,-30.0211,-89.1786,-75.1057,84.3329,-108.5606,36.868,194.7476,41.6926,17.444,4.8457,
43.1463,-0.48443,-56.2077,-17.4438,-15.0211,-89.1575,-65.8991,69.3329,-93.5606,21.868,179.7476,56.6926,32.444,4.8457,
28.1463,-15.4844,-71.2077,-32.4438,-30.0211,-104.1575,-80.8991,84.3329,-78.9818,36.868,194.7476,71.6926,21.8053,19.8457,
40.7023,-2.9073,-86.2077,-19.3822,-45.0211,-119.1575,-95.8991,99.3329,-93.9818,51.868,209.7476,86.6926,6.8053,17.4435,
49.9087,11.1447,-71.2077,-11.1447,-45.0634,-104.1575,-80.8991,111.9314,-108.9818,66.868,224.7476,78.0127,21.8053,2.4435,
38.2795,7.2683,-57.6614,-3.392,-30.0634,-89.1575,-65.8991,96.9314,-93.9818,51.868,209.7476,63.0127,36.8053,3.392,
37.7951,-6.7839,-72.6614,-17.4433,-37.7951,-91.0957,-80.8991,81.9314,-101.756,36.868,194.7476,48.4554,31.0111,18.392,
47.9705,8.2161,-65.4147,-5.3302,-52.7951,-99.3334,-95.8991,89.6419,-113.8696,51.868,179.7687,40.2177,16.0111,3.392,
58.631,23.2161,-55.7235,-8.2374,-38.2797,-97.3949,-80.8991,103.21,-107.0859,66.868,194.7687,53.7857,8.2374,-11.608,
45.5478,11.6292,-70.7235,-23.2374,-23.2797,-100.7871,-65.8991,105.6319,-98.8489,81.868,209.7687,68.7857,23.2374,-26.608,
30.5478,-3.3708,-85.7235,-17.9287,-36.3418,-104.1791,-80.8991,90.6319,-94.4876,66.868,194.7687,76.0745,21.8051,-11.608,
15.5478,11.6292,-100.7235,-2.9287,-51.3418,-97.8796,-95.8991,80.4358,-109.4876,51.868,179.7687,61.0745,6.8051,-13.5678,
30.5478,25.197,-85.7235,-7.7528,-36.3418,-82.8796,-80.8991,65.4358,-106.6012,36.868,164.7687,46.0745,21.8051,-28.5678,
45.5478,10.6598,-70.7235,-22.7528,-21.3418,-88.1886,-65.8991,66.868,-91.6012,21.868,149.7687,47.486,36.8051,-13.5678,
51.3624,-4.3402,-64.9298,-37.7528,-10.6598,-103.1886,-80.8991,81.868,-76.6012,36.868,164.7687,62.486,46.5172,1.4322,
37.7955,-1.9382,-79.9298,-45.5478,-25.6598,-113.3852,-95.8991,96.868,-91.6012,51.868,179.7687,77.486,31.5172,1.9382,
47.0016,13.0618,-78.0127,-44.0941,-13.0829,-105.1475,-89.6419,111.868,-106.6012,66.868,194.7687,92.486,22.7739,-13.0618,
40.703,5.8146,-63.0127,-31.0107,1.9171,-90.1475,-74.6419,96.868,-91.6012,51.868,179.7687,77.486,37.7739,-5.8146,
34.8875,-2.9075,-78.0127,-16.0107,15.5056,-75.1475,-59.6419,81.868,-76.6012,36.868,164.7687,62.486,48.4554,9.1854,
48.4554,-10.6603,-93.0127,-29.0729,0.50557,-90.1475,-74.6419,66.868,-91.6012,39.7337,151.1802,62.0223,33.4554,10.6603,
63.4554,4.3397,-78.0127,-31.0114,-14.4944,-93.0341,-81.4049,81.868,-106.6012,54.7337,166.1802,77.0223,42.6405,-4.3397,
78.4554,3.3917,-68.322,-44.0943,-19.8666,-102.2406,-80.92,96.868,-121.6012,69.7337,181.1802,92.0223,51.8471,-3.3917,
63.4554,-4.3608,-83.322,-29.0943,-4.8666,-87.2406,-65.92,81.868,-106.6012,54.7337,166.1802,77.0223,48.9398,11.6083,
48.4554,10.6392,-74.1363,-14.0943,10.1334,-72.2406,-50.92,66.868,-91.6012,39.7337,151.1802,62.0223,37.3111,26.6083,
39.7328,12.598,-83.3429,-17.4442,-4.8666,-57.2406,-42.6403,51.868,-94.9725,24.7337,136.1802,68.8062,31.98,11.6083,
36.826,-2.402,-98.3429,-32.4442,-16.4751,-72.2406,-57.6403,66.868,-99.818,39.7337,151.1802,83.8062,46.98,4.8455,
30.0425,-8.7219,-113.3429,-47.4442,-31.4751,-87.2406,-72.6403,81.868,-114.818,54.7337,166.1802,98.8062,31.98,8.7219,
39.7333,2.9071,-98.3429,-32.4442,-46.4751,-92.065,-81.4047,70.7444,-107.5706,39.7337,151.1802,83.8062,16.98,-2.9071,
54.7333,17.9071,-83.3429,-17.4442,-31.4751,-77.065,-66.4047,55.7444,-92.5706,24.7337,136.1802,68.8062,31.98,12.0929,
39.7333,2.9071,-95.457,-30.5272,-16.4751,-92.065,-70.26,40.7444,-77.5706,9.7337,121.1802,55.7233,33.4338,-0.4849,
24.7333,-5.3302,-110.457,-38.2795,-31.4751,-107.065,-85.26,55.7444,-92.5706,24.7337,136.1802,70.7233,18.4338,9.2065,
23.2584,9.6698,-115.3234,-23.2795,-46.4751,-122.065,-100.26,70.7444,-107.5706,39.7337,151.1802,85.7233,3.4338,9.691,
38.2584,15.0211,-100.3234,-15.0211,-31.4751,-107.065,-85.26,85.7444,-92.5706,54.7337,166.1802,76.075,18.4338,-5.309,
53.2584,8.7217,-85.3234,-8.7217,-16.4751,-92.065,-70.26,70.7444,-77.5706,39.7337,151.1802,61.075,33.4338,9.691,
45.0634,4.3608,-85.766,-4.3608,-15.0211,-77.065,-68.3218,62.5067,-64.4454,24.7337,136.1802,69.2906,30.5267,24.691,
46.5167,19.3608,-78.4972,-0.96887,-30.0211,-92.065,-83.3218,77.5067,-79.4454,39.7337,151.1802,83.3429,15.5267,9.691,
57.6619,34.3608,-74.1363,-15.9689,-19.8664,-107.065,-92.5494,92.5067,-94.4454,54.7337,166.1802,98.3429,8.2372,-5.309,
42.6619,19.3608,-89.1363,-30.9689,-4.8664,-104.1788,-80.9205,107.5067,-109.4454,69.7337,178.7992,95.4563,23.2372,-15.9902,
27.6619,4.3613,-104.1363,-18.8971,-4.3613,-89.1788,-65.9205,92.5067,-94.4454,54.7337,163.7992,80.9203,28.5885,-0.99023,
16.4749,17.4438,-114.354,-10.6598,-19.3613,-75.5901,-71.7137,99.8178,-81.4047,39.7337,148.7992,71.7142,13.5885,1.9382,
31.4749,3.392,-99.354,-25.6598,-4.3613,-90.5901,-72.1981,89.6424,-83.8273,54.7337,152.6335,59.6001,28.5885,-13.0618,
46.4749,-11.608,-84.354,-40.6598,-2.4226,-105.5901,-87.1981,100.3022,-94.4872,69.7337,167.6335,74.6001,43.5885,1.9382,
35.3722,-13.0827,-99.354,-41.1868,-17.4226,-120.5901,-102.1981,113.8694,-88.6728,84.7337,161.3559,89.6001,39.2486,13.0827,
20.3722,-2.9071,-108.5399,-26.1868,-32.4226,-105.5901,-87.1981,113.3847,-91.0961,73.6519,146.3559,89.1575,24.2486,2.9071,
35.3722,4.8455,-93.5399,-37.7953,-17.4226,-92.0648,-76.5592,125.9839,-86.2502,88.6519,161.3559,94.003,39.2486,-4.8455,
47.0016,-10.1545,-87.7037,-47.0016,-5.3302,-83.8273,-61.5592,110.9839,-71.2502,73.6519,146.3559,79.003,53.7855,5.3302,
32.0016,-1.9382,-102.7037,-32.0016,-20.3302,-68.8273,-56.2086,95.9839,-70.7453,58.6519,131.3559,64.003,38.7855,20.3302,
35.3727,5.3299,-115.808,-17.0016,-35.3302,-83.8273,-71.2086,98.3638,-85.7453,72.1979,124.5297,52.816,23.7855,5.3302,
50.3727,18.4129,-100.808,-30.042,-31.9802,-98.8273,-86.2086,113.3638,-100.7453,87.1979,139.5297,64.93,12.5983,-9.6698,
65.3727,3.4129,-94.003,-41.6717,-18.4129,-113.8273,-82.3738,128.3638,-98.8487,102.1979,154.5297,79.93,27.5983,-2.9073,
50.3727,0,-98.8485,-26.6717,-3.4129,-98.8273,-67.3738,113.3638,-83.8487,87.1979,139.5297,64.93,42.5983,-2.9075,
35.3727,15,-103.2097,-11.6717,-7.2679,-83.8273,-52.3738,98.3638,-76.075,72.1979,124.5297,49.93,27.5983,-0.4849,
50.3727,23.7428,-88.673,-26.6717,-22.2679,-90.6112,-57.6614,96.4263,-91.075,57.6614,135.1902,64.93,36.3418,-15.4849,
65.3727,8.7428,-80.9203,-41.6717,-24.7121,-105.6112,-72.6614,111.4263,-99.3334,72.6614,150.1902,79.93,51.3418,-4.3608,
50.3727,1.9384,-95.9203,-45.5481,-39.7121,-120.6112,-87.6614,126.4263,-114.3334,87.6614,165.1902,94.93,49.4245,-1.9384,
41.187,16.9384,-85.7655,-30.5481,-24.7121,-105.6112,-72.6614,111.4263,-99.3334,72.6614,150.1902,79.93,34.4245,-16.9384,
56.187,31.9384,-70.7655,-15.5481,-9.7121,-90.6112,-57.6614,96.4263,-84.3334,57.6614,135.1902,64.93,49.4245,-13.0829,
71.187,16.9384,-68.3222,-30.5481,-4.3608,-102.2404,-69.2911,92.549,-69.3334,42.6614,120.1902,59.6001,64.4245,-5.3306,
56.187,2.9073,-83.3222,-39.733,-19.3608,-117.2404,-84.2911,107.549,-84.3334,57.6614,135.1902,74.6001,49.4245,-2.9073,
41.6714,17.9073,-98.3222,-41.6714,-34.3608,-132.2404,-99.2911,122.549,-99.3334,72.6614,150.1902,89.6001,34.4245,-17.9073,
56.6714,12.5983,-83.3222,-50.3933,-19.3608,-118.2307,-93.0341,107.549,-84.3334,72.6828,165.1902,74.6001,49.4245,-32.9073,
59.1152,10.6598,-77.5283,-35.3933,-4.3608,-103.2307,-78.0341,92.549,-69.3334,57.6828,150.1902,59.6001,64.4245,-17.9073,
44.1152,-1.9382,-92.5283,-20.3933,-19.3608,-114.3545,-76.5594,77.549,-84.3334,42.6828,135.1902,44.6001,49.4245,-2.9073,
50.3929,13.0618,-80.4356,-30.0425,-34.3608,-129.3545,-91.5594,92.549,-99.3334,57.6828,145.3659,58.1466,34.4245,-16.4747,
65.3929,16.9593,-65.4356,-45.0425,-32.4654,-144.3545,-106.5594,107.549,-114.3334,72.6828,160.3659,73.1466,49.4245,-16.9593,
80.3929,1.9593,-62.5072,-30.0425,-17.4654,-129.3545,-91.5594,122.549,-99.3334,87.6828,175.3659,88.1466,64.4245,-4.3608,
65.3929,-0.48443,-77.5072,-15.0425,-4.3608,-114.3545,-76.5594,107.549,-84.3334,72.6828,160.3659,73.1466,79.4245,4.3608,
50.3929,14.5156,-72.683,-5.8146,-9.691,-99.3545,-61.5594,92.549,-96.9103,57.6828,145.3659,68.8067,67.8369,-10.6392,
65.3929,21.3204,-63.9612,-20.8146,-24.691,-114.3545,-76.5594,104.6633,-111.9103,72.6828,148.2725,69.7757,82.8369,-23.2586,
78.9818,6.3204,-78.9612,-30.5269,-39.691,-129.3545,-91.5594,119.6633,-126.9103,87.6828,163.2725,76.0748,97.8369,-8.2586,
63.9818,-0.9691,-92.0648,-31.9802,-24.691,-114.3545,-76.5594,134.6633,-111.9103,102.6828,162.8096,75.5903,85.2813,0.9691,
48.9818,14.0309,-86.7349,-20.8353,-9.691,-99.3545,-61.5594,119.6633,-96.9103,87.6828,147.8096,60.5903,70.2813,-14.0309,
60.0843,9.6912,-72.6828,-32.9496,-24.691,-114.3545,-76.5594,106.601,-111.9103,72.6828,132.8096,55.239,85.2813,-9.6912,
66.868,-1.9382,-76.5594,-38.7644,-9.691,-126.9525,-76.5594,102.7253,-109.5088,87.6828,125.0148,70.239,100.2813,1.9382,
51.868,12.1136,-91.5594,-23.7644,-19.8664,-121.6228,-65.4147,96.4254,-118.7153,102.6828,113.8696,85.239,85.2813,-12.1136,
39.2484,16.9593,-87.7042,-16.9593,-34.8664,-123.561,-80.4147,98.364,-105.1479,117.6828,128.8696,77.0434,70.2813,-27.1136,
54.2484,15.5056,-72.7042,-26.1659,-19.8664,-121.1379,-87.2193,97.8796,-90.1479,118.2304,136.6435,62.0434,85.2813,-15.5056,
54.7546,2.4229,-83.8276,-26.6501,-22.7737,-136.1379,-94.4874,112.8796,-105.1477,133.2304,151.6435,77.0434,99.3331,-2.4229,
40.7021,1.9382,-86.25,-15.5051,-7.7737,-121.1379,-79.4874,97.8796,-90.1477,118.2304,136.6435,80.4358,109.5092,-6.7835,
31.0111,11.6292,-72.6826,-27.1347,7.2263,-106.1379,-64.4874,82.8796,-75.1477,103.2304,121.6435,65.4358,94.5092,-11.6292,
46.0111,2.9073,-60.0848,-42.1347,-2.9073,-94.9723,-65.8994,97.8796,-70.7446,111.4472,124.0452,76.5587,79.5092,-14.5369,
61.0111,-10.1756,-75.0848,-44.0943,-17.9073,-109.9723,-80.8994,112.8796,-85.7446,126.4472,139.0452,91.5587,94.5092,0.46307,
61.0536,-2.9073,-83.3427,-41.6712,-19.3817,-124.9723,-95.8994,127.8796,-100.7446,141.4472,154.0452,106.5587,98.8487,2.9073,
46.0536,6.299,-69.2911,-44.0941,-6.299,-111.9319,-80.8994,112.8796,-85.7446,126.4472,139.0452,91.5587,83.8487,-12.0927,
61.0536,7.2684,-58.6312,-36.3418,-7.2684,-106.1168,-65.8994,97.8796,-70.7446,111.4472,124.0452,76.5587,82.8585,2.9073,
62.5074,-7.7316,-73.6312,-51.3418,-16.9596,-121.1168,-80.8994,110.9618,-56.6928,110.9618,109.0452,63.4763,95.4563,16.9596,
47.5074,-0.48443,-88.6312,-42.1559,-18.8975,-136.1168,-95.8994,125.9618,-71.6928,125.9618,124.0452,78.4763,80.4563,1.9596,
62.5074,14.5156,-73.6312,-53.3009,-33.8975,-151.1168,-110.8994,140.9618,-86.6928,140.9618,139.0452,93.4763,72.6828,-13.0404,
77.5074,0.9691,-58.6312,-60.0843,-47.4863,-166.1168,-125.8994,155.9618,-101.6928,155.9618,154.0452,108.4763,87.6828,-28.0404,
88.673,-0.48489,-43.6312,-45.0843,-32.4863,-151.1168,-110.8994,140.9618,-86.6928,140.9618,139.0452,93.4763,102.6828,-13.0404,
73.673,-2.9071,-58.6312,-30.0843,-23.2588,-136.1168,-95.8994,125.9618,-71.6928,125.9618,124.0452,78.4763,87.6828,1.9596,
69.7755,12.0929,-49.4242,-35.8569,-38.2588,-151.1168,-110.8994,139.551,-86.6928,140.9618,139.0452,83.3429,72.6828,-13.0404,
84.7755,9.2065,-51.8473,-50.8569,-43.1252,-166.1168,-125.4992,154.551,-101.6928,155.9618,154.0452,98.3429,87.6828,-9.2065,
69.7755,-3.392,-66.8473,-35.8569,-28.1252,-151.1168,-110.4992,139.551,-86.6928,140.9618,139.0452,83.3429,102.2409,3.392,
54.7755,0.96887,-81.4052,-20.8569,-13.1252,-136.1168,-95.4992,124.551,-71.6928,125.9618,124.0452,68.3429,87.2409,-0.96887,
41.6714,14.5367,-66.4052,-6.7839,-11.6292,-121.1168,-80.4992,109.551,-86.6928,110.9618,109.0452,75.5901,82.374,-6.7839,
56.6714,7.2681,-58.6305,-21.7839,-26.6292,-136.1168,-95.4992,113.8694,-101.6928,125.9618,124.0452,79.9512,86.7346,-7.2681,
68.3218,-3.392,-73.6305,-36.7839,-41.6292,-151.1168,-110.4992,128.8694,-116.6928,140.9618,139.0452,94.9512,71.7346,3.392,
53.3218,6.2993,-85.7658,-21.7839,-26.6292,-136.1168,-95.4992,126.4683,-101.6928,155.9618,145.8503,106.117,77.0436,-6.2993,
38.3218,21.2993,-70.7658,-13.0834,-11.6292,-121.1168,-80.4992,111.4683,-86.6928,140.9618,130.8503,91.117,75.1057,-3.392,
53.3218,6.2993,-64.4454,-28.0834,-26.6292,-112.9003,-79.9509,96.4683,-101.6928,125.9618,115.8503,76.117,69.2911,2.4226,
52.3315,-7.753,-76.5592,-33.9184,-27.135,-127.9003,-94.9509,111.4683,-116.6928,140.9618,109.5085,91.117,84.2911,7.753,
37.3315,7.247,-81.8894,-25.6812,-23.743,-141.9739,-79.9509,119.6844,-114.8387,155.9618,124.5085,106.117,69.2911,-7.247,
52.3315,17.4438,-67.8373,-40.6812,-17.4438,-126.9739,-64.9509,104.6844,-99.8387,152.1495,109.5085,91.117,54.2911,-22.247,
55.2388,2.4438,-70.7444,-37.7955,-6.7835,-111.9739,-53.3011,89.6844,-84.8387,137.1495,94.5085,76.117,69.2911,-7.247,
43.1252,-5.3302,-81.8891,-25.6814,-21.7835,-126.9739,-68.3011,98.3645,-99.8387,122.1495,109.5085,84.7967,76.075,5.3302,
50.878,6.299,-69.2911,-31.496,-11.1452,-137.1284,-58.6308,91.5806,-114.8387,107.1495,94.5085,69.7967,63.476,-6.299,
46.5172,-2.9071,-67.8373,-46.496,2.9071,-123.0761,-59.1152,76.5806,-99.8387,92.1495,79.5085,54.7967,52.3322,-17.4438,
44.5785,-7.7528,-65.8991,-50.3936,7.7528,-108.0761,-66.8685,88.1886,-84.8387,107.1495,87.2188,64.9298,67.3322,-20.3513,
32.4649,-6.299,-80.8991,-41.187,-7.2472,-105.1479,-81.8685,95.457,-87.7037,114.8389,95.457,79.9298,78.0127,-5.3513,
27.6194,-6.2993,-87.7039,-43.1254,-22.2472,-120.1479,-96.8685,105.1477,-102.7037,110.9618,80.9205,87.7035,63.0127,6.2993,
42.6194,8.7007,-72.7039,-29.5578,-22.7739,-107.0857,-81.8685,90.1477,-87.7037,95.9618,65.9205,72.7035,51.8473,-8.7007,
57.6194,23.7007,-57.7039,-18.8975,-7.7739,-107.0857,-66.8685,75.1477,-72.7037,80.9618,50.9205,57.7035,66.8473,6.2993,
48.4554,8.7007,-71.7137,-33.8975,-14.5367,-122.0857,-80.4358,90.1477,-75.5901,67.8373,35.9205,62.0223,74.6212,9.691,
33.4554,-6.2993,-86.7137,-27.1347,-29.5367,-121.1379,-84.3118,105.1477,-90.5901,82.8373,50.9205,77.0223,60.0841,11.6292,
44.0943,8.2374,-71.7137,-19.8666,-21.8048,-125.499,-79.9507,120.1477,-105.5901,97.8373,65.9205,92.0223,65.4145,-3.3708,
59.0943,-5.3302,-56.7137,-33.4338,-6.8048,-110.499,-64.9507,105.1477,-90.5901,82.8373,50.9205,77.0223,80.4145,-18.3708,
61.0539,-0.96933,-49.4238,-18.4338,8.1952,-95.499,-49.9507,90.1477,-75.5901,67.8373,35.9205,62.0223,95.4145,-3.3708,
52.8157,3.3915,-64.4238,-3.4338,-6.8048,-95.457,-61.5383,81.8891,-85.766,52.8373,20.9205,49.9091,80.4145,11.6292,
67.8157,18.3915,-59.1154,-18.4338,-21.8048,-110.457,-76.5383,96.8891,-100.766,67.8373,35.9205,64.9091,65.4145,-3.3708,
78.4974,3.3915,-67.8376,-33.4338,-6.8048,-125.457,-77.5285,111.8891,-112.4161,82.8373,50.9205,78.4974,80.4145,-18.3708,
63.4974,-11.6085,-80.9198,-48.4338,8.1952,-110.457,-62.5285,96.8891,-97.4161,67.8373,35.9205,63.4974,95.4145,-3.3708,
48.4974,3.3915,-72.683,-33.4338,10.6598,-95.457,-47.5285,81.8891,-82.4161,52.8373,20.9205,48.4974,80.4145,11.6292,
33.4974,18.3915,-67.3529,-18.4338,-0.48443,-80.457,-32.5285,66.8891,-75.1057,37.8373,5.9205,34.4031,65.4145,0.48443,
48.4974,3.3915,-75.1052,-33.4338,4.3608,-95.457,-47.5285,81.8891,-90.1057,52.8373,20.9205,49.4031,74.1368,-5.3297,
49.4242,-11.6085,-90.1052,-48.4338,-10.6392,-110.457,-62.5285,96.8891,-105.1057,67.8373,35.9205,64.4031,61.0534,9.6703,
47.9709,-3.392,-75.1052,-33.4338,-23.7428,-100.3022,-56.6926,99.3329,-93.5183,82.8373,20.9205,59.6001,48.9398,24.6703,
32.9709,11.608,-60.1052,-18.4338,-8.7428,-85.3022,-41.6926,84.3329,-78.5183,67.8373,5.9205,44.6001,61.0534,11.6292,
39.7328,6.7839,-48.4554,-6.7839,6.2572,-70.3022,-26.6926,69.3329,-63.5183,52.8373,-9.0795,51.3629,76.0534,11.6292,
33.4342,-8.2161,-63.4554,-21.7839,-7.2684,-85.3022,-41.6926,84.3329,-78.5183,67.8373,5.9205,66.3629,71.2293,26.6292,
25.1968,-14.5365,-78.4554,-34.8878,-22.2684,-100.3022,-56.6926,99.3329,-93.5183,82.8373,20.9205,62.9923,56.2293,14.5365,
40.1968,0.46353,-63.4554,-19.8878,-17.444,-85.3022,-46.5174,84.3329,-78.5183,97.8373,15.5058,47.9923,71.2293,-0.46353,
45.5478,1.9387,-56.2081,-12.598,-2.444,-70.3022,-31.5174,69.3329,-63.5183,82.8373,0.5058,32.9923,85.2815,0.96887,
52.8162,7.2684,-55.7237,0.48443,-0.48443,-65.4142,-21.8051,59.6001,-48.5183,67.8373,-14.4942,28.589,73.167,15.9689,
43.6101,22.2684,-61.0534,3.8764,-15.4844,-80.4142,-36.8051,71.7137,-63.5183,52.8373,-29.4942,17.4442,58.167,0.96887,
46.0327,37.2684,-54.7544,5.3302,-15.0216,-95.4142,-46.0327,83.8278,-78.5183,67.8373,-14.4942,32.4442,46.0327,-14.0311,
41.6714,22.2684,-64.9298,-9.6698,-0.021596,-81.4047,-31.0327,84.3118,-63.5183,69.776,-21.3202,47.4442,61.0327,-14.5367,
37.7951,7.2684,-79.9298,-4.8453,11.6292,-70.7448,-24.2272,80.4354,-55.2393,54.776,-36.3202,56.2081,76.0327,0.4633,
36.3408,16.9589,-83.8278,10.1547,-3.3708,-85.7448,-39.2272,78.9821,-70.2393,39.776,-51.3202,41.2081,61.0327,-6.2995,
51.3408,31.496,-68.8278,16.9593,8.2377,-70.7448,-24.2272,63.9821,-57.6619,24.776,-66.3202,26.2081,76.0327,-17.9282,
61.0534,20.3508,-53.8278,1.9593,23.2377,-72.6826,-9.2272,58.1459,-42.6619,9.776,-81.3202,41.2081,91.0327,-2.9282,
46.0534,5.3508,-62.9916,-13.0407,19.382,-87.6826,-24.2272,73.1459,-40.7021,24.776,-66.3202,56.2081,100.7871,10.6603,
49.4242,11.6292,-72.6826,-22.2895,4.382,-90.1268,-39.2272,88.1459,-55.7021,39.776,-51.3202,71.2081,85.7871,24.2272,
53.7853,21.8053,-57.6826,-20.8355,4.3611,-86.7346,-54.2272,103.1459,-70.7021,54.776,-36.3202,84.7964,75.1059,9.2272,
52.3318,11.6292,-42.6826,-14.5367,19.3611,-71.7346,-39.2272,88.1459,-55.7021,39.776,-51.3202,69.7964,90.1059,4.8453,
49.4242,0,-56.2081,0,34.3611,-56.7346,-24.2272,73.1459,-40.7021,24.776,-66.3202,54.7964,105.1059,19.8453,
64.4242,5.3297,-51.8473,-9.2061,19.3611,-71.7346,-39.2272,58.1459,-55.7021,14.0523,-74.1363,39.7964,90.1059,26.6503,
79.4242,18.8975,-36.8473,-19.8669,4.3611,-86.7346,-54.2272,73.1459,-70.7021,29.0523,-59.1363,54.7964,84.7962,11.6503,
80.9203,3.8975,-38.2795,-32.4649,-2.4226,-98.364,-42.1559,88.1459,-85.7021,44.0523,-44.1363,69.7964,99.7962,-1.4538,
65.9203,-4.8457,-53.2795,-17.4649,12.5774,-83.364,-27.1559,73.1459,-70.7021,29.0523,-59.1363,54.7964,99.8178,13.5462,
50.9203,10.1543,-47.486,-2.4649,13.5674,-68.364,-13.5674,58.1459,-55.7021,14.0523,-74.1363,39.7964,85.2811,20.3513,
35.9203,16.4749,-50.3936,11.6296,21.3202,-53.364,1.4326,43.1459,-40.7021,-0.94773,-89.1363,48.4549,100.2811,5.3513,
20.9203,2.4226,-65.3936,-3.3704,6.3202,-68.364,-13.5674,58.1459,-25.7021,14.0523,-74.1363,51.8469,85.2811,20.3513,
23.7432,-12.5774,-80.3936,-18.3704,-8.6798,-83.364,-28.5674,73.1459,-10.7021,29.0523,-59.1363,36.8469,70.2811,12.1136,
36.8262,2.4226,-95.3936,-3.3704,6.3202,-68.364,-13.5674,58.1459,4.2979,14.0523,-74.1363,21.8469,85.2811,0.96887,
21.8262,17.4226,-110.3936,11.6296,-3.8769,-53.364,1.4326,43.1459,-10.7021,-0.94773,-89.1363,33.9182,100.2811,15.9689,
26.1661,2.4226,-124.0452,-3.3704,-15.5058,-67.8371,-13.5674,58.1459,-25.7021,14.0523,-74.1363,48.9182,110.4779,13.5676,
30.0418,-1.9382,-109.0452,1.9382,-0.5058,-52.8371,-2.908,43.1459,-40.7021,-0.94773,-89.1363,33.9182,125.4779,28.5676,
22.2893,-0.9691,-110.4779,0.9691,-1.9384,-37.8371,-17.908,29.0732,-55.7021,14.0523,-85.2813,47.4858,128.8905,40.7023,
7.2893,-15.9691,-112.4158,-14.0309,0.96887,-23.2584,-32.908,14.0732,-40.7021,29.0523,-75.5901,32.4858,130.8294,25.7023,
5.3302,-10.1754,-112.9012,-1.4538,1.4538,-20.8357,-17.9291,2.4226,-26.6508,25.681,-90.5901,36.3413,116.7767,35.3724,
20.3302,-20.3511,-99.8176,-16.4538,-4.8455,-32.9496,-32.9291,17.4226,-41.6508,40.681,-75.5901,51.3413,103.694,20.3724,
5.3302,-16.4749,-100.7867,-2.9071,10.1545,-17.9496,-17.9291,2.4226,-26.6508,25.681,-90.5901,36.3413,118.694,10.6598,
-0.4849,-1.4749,-111.9314,12.0929,0.4849,-2.9496,-5.3302,-10.1754,-21.8046,10.681,-105.5901,46.0327,106.1163,25.6598,
14.5151,-6.7837,-96.9314,-2.9071,-14.5151,-17.9496,-20.3302,4.8246,-36.8046,25.681,-90.5901,61.0327,91.1163,10.6598,
27.6196,-21.7837,-81.9314,-17.9071,0.4849,-15.0211,-35.3302,19.8246,-21.8046,40.681,-75.5901,50.878,100.3022,-4.3402,
12.6196,-6.7837,-93.5183,-2.9071,15.4849,-12.1141,-20.3302,4.8246,-6.8046,25.681,-90.5901,35.878,85.3022,10.6598,
27.6196,2.9073,-78.5183,-17.9071,0.4849,-27.1141,-35.3302,19.8246,-21.8046,40.681,-75.5901,50.878,70.3022,21.3204,
42.6196,-12.0927,-63.5183,-32.9071,15.4849,-42.1141,-50.3302,34.8246,-36.8046,55.681,-60.5901,65.878,85.3022,6.3204,
27.6196,1.9382,-69.7755,-17.9071,30.4849,-53.3011,-35.3302,19.8246,-21.8046,40.681,-75.5901,52.3313,70.3022,21.3204,
38.2795,0.48443,-75.1057,-30.5267,15.4849,-68.3011,-50.3302,34.8246,-36.8046,55.681,-60.5901,67.3313,55.3022,30.5267,
53.2795,-4.3608,-60.1057,-45.5267,0.4849,-83.3011,-65.3302,49.8246,-51.8046,70.681,-45.5901,82.3313,70.3022,15.5267,
38.2795,9.691,-62.9916,-30.5267,15.4849,-68.3011,-50.3302,34.8246,-36.8046,55.681,-60.5901,89.1575,85.3022,30.5267,
23.2795,-5.309,-77.9916,-15.5267,14.5362,-53.3011,-35.3302,19.8246,-21.8046,70.681,-75.5901,74.1575,85.2811,45.5267,
8.2795,-20.309,-92.9916,-30.5267,11.6289,-38.3011,-28.1043,34.8246,-8.7219,85.681,-60.5901,59.1575,100.2811,30.5267,
-3.8764,-24.2272,-99.8173,-15.5267,26.6289,-23.3011,-13.1043,19.8246,3.8764,70.681,-75.5901,44.1575,112.4163,43.6101,
0,-30.0423,-114.8173,-15.5056,24.2277,-8.3011,-11.6292,9.691,-11.1236,69.7755,-68.8062,29.1575,98.8485,37.7951,
15,-15.0423,-99.8173,-7.2683,39.2277,6.6989,-4.3608,-3.392,-26.1236,54.7755,-83.8062,14.1575,104.1791,22.7951,
22.2895,-0.04227,-95.9409,-0.96887,38.7648,21.6989,-19.3608,0,-41.1236,39.7755,-98.8062,12.599,89.1791,13.5678,
33.4338,-6.299,-90.6112,-11.1443,53.7648,32.4649,-15.0207,9.2065,-52.8162,24.7755,-93.5188,8.2377,78.9816,1.4538,
33.4342,7.2683,-82.8585,-3.392,68.7648,47.4649,-0.020674,-5.7935,-49.9087,9.7755,-108.5188,-6.7623,87.7037,3.392,
37.3106,6.2995,-82.8585,-12.1136,57.6614,37.3106,4.3608,4.3608,-64.9087,-5.2245,-111.9314,-4.3608,72.7037,-11.608,
38.2795,0.48443,-88.673,-13.0825,64.4454,37.3106,1.4533,4.3608,-63.4765,-20.2245,-114.8389,-0.48443,61.5378,-11.1447,
23.2795,-11.6292,-103.673,-8.7217,79.4454,52.3106,16.4533,-10.6392,-48.4765,-35.2245,-129.8389,-15.4844,76.5378,3.8553,
30.5272,-8.2368,-99.3329,-14.0518,64.4454,37.3106,1.4533,1.4538,-53.7846,-20.2245,-114.8389,-0.48443,83.8278,7.2688,
35.8569,-3.8764,-87.2193,-14.5362,49.4454,22.3106,-13.5467,16.4538,-65.8987,-5.2245,-99.8389,14.5156,82.3745,-7.7312,
20.8569,-12.1136,-94.4876,-3.392,64.4454,37.3106,1.4533,1.4538,-50.8987,-20.2245,-114.8389,-0.48443,90.6112,7.2688,
9.691,-9.691,-99.8178,-11.6296,54.27,22.3106,14.5362,-11.6296,-52.3313,-24.2277,-129.8389,9.691,91.0952,22.2688,
24.691,-12.1138,-102.2406,-26.6296,39.27,7.3106,-0.46376,3.3704,-67.3313,-9.2277,-114.8389,24.691,94.4879,7.2688,
9.691,-23.7428,-107.0857,-33.4333,38.2795,22.3106,0.48443,-0.48443,-52.3313,-24.2277,-99.8389,14.0523,109.4879,17.9287,
-5.309,-8.7428,-94.9716,-18.4333,53.2795,37.3106,15.4844,-15.4844,-37.3313,-39.2277,-114.8389,-0.94773,123.0761,32.9287,
8.7219,-20.3511,-87.2195,-24.2275,38.2795,22.3106,0.48443,-0.48443,-52.3313,-24.2277,-99.8389,14.0523,108.0761,47.9287,
-2.9075,-35.3511,-93.0343,-29.0734,40.7026,9.6905,2.9075,-15.4844,-37.3313,-39.2277,-110.4776,10.6603,114.354,32.9287,
-17.9075,-20.3511,-108.0343,-14.0734,55.7026,24.6905,17.9075,-30.4844,-22.3313,-54.2277,-125.4776,-4.3397,120.1691,47.9287,
-2.9075,-32.4654,-93.0343,-29.0734,40.7026,9.6905,2.9075,-15.4844,-37.3313,-39.2277,-110.4776,10.6603,105.1691,32.9287,
12.0925,-17.4654,-78.0343,-14.0734,55.7026,24.6905,17.9075,-30.4844,-22.3313,-54.2277,-123.5606,3.3915,120.1691,17.9287,
-2.9075,-32.4654,-93.0343,0.9266,70.7026,39.6905,32.9075,-45.4844,-7.3313,-69.2277,-138.5606,-11.6085,105.1691,32.9287,
-17.9075,-17.4654,-108.0343,15.9266,55.7026,24.6905,47.9075,-60.4844,0.9691,-84.2277,-153.5606,-26.6085,90.1691,47.9287,
-2.9075,-2.4654,-93.0343,0.9266,40.7026,9.6905,32.9075,-45.4844,-14.0309,-69.2277,-138.5606,-11.6085,75.1691,32.9287,
12.0925,11.6292,-78.0343,-14.0734,25.7026,-5.3095,17.9075,-30.4844,-29.0309,-84.2277,-153.5606,3.3915,60.1691,17.9287,
17.4435,7.7526,-63.0343,-1.9384,23.2581,-20.3095,2.9075,-27.135,-14.0309,-69.2277,-144.3965,18.3915,58.1461,32.9287,
32.4435,-7.2474,-48.0343,-16.9384,8.2581,-35.3095,-12.0925,-12.135,-29.0309,-54.2277,-129.3965,33.3915,54.7542,32.4651,
47.4435,6.7835,-33.0343,-12.5985,-6.7419,-50.3095,-27.0925,2.865,-44.0309,-39.2277,-114.3965,48.3915,39.7542,32.9493,
55.7237,19.8664,-18.0343,-1.4538,-21.7419,-65.3095,-42.0925,17.865,-59.0309,-24.2277,-99.3965,57.6614,35.372,17.9493,
70.7237,4.8664,-19.8666,-16.4538,-9.2063,-80.3095,-53.7853,32.865,-74.0309,-9.2277,-84.3965,72.6614,50.372,22.7741,
58.6308,9.2065,-24.7121,-9.2065,5.7937,-80.9203,-38.7853,23.7432,-59.0309,-15.0207,-75.1052,74.1363,61.5383,37.7741,
43.6308,24.2065,-32.9493,5.7935,5.8146,-65.9203,-23.7853,8.7432,-44.0309,-30.0207,-90.1052,59.1363,46.5383,27.1352,
46.0323,30.5267,-29.5578,5.3302,-5.3302,-70.26,-37.3106,23.7432,-59.0309,-15.0207,-75.1052,73.167,33.4342,12.1352,
61.0323,15.5267,-35.8566,-9.6698,0.9691,-85.26,-52.3106,38.7432,-74.0309,-0.020675,-60.1052,88.167,48.4342,-2.8648,
46.0323,0.5267,-50.8566,-24.6698,-14.0309,-100.26,-67.3106,53.7432,-89.0309,14.9793,-45.1052,103.167,33.4342,8.2372,
42.1559,15.5267,-35.8566,-9.6698,-11.1447,-85.26,-52.3106,38.7432,-74.0309,-0.020675,-60.1052,88.167,18.4342,15.0211,
43.6092,28.1036,-20.8566,5.3302,3.8553,-70.7448,-37.3106,23.7432,-59.0309,-15.0207,-75.1052,73.167,20.3508,0.021136,
53.7851,13.1036,-15.9905,-9.6698,18.8553,-85.7448,-52.3106,38.7432,-47.9709,-0.020675,-60.1052,83.8273,35.3508,1.4538,
38.7851,-1.8964,-30.9905,-24.6698,3.8553,-100.7448,-67.3106,53.7432,-62.9709,14.9793,-45.1052,98.8273,42.1561,16.4538,
25.197,-5.8146,-45.9905,-35.8569,-11.1447,-115.7448,-82.3106,68.7432,-77.9709,29.9793,-30.1052,113.8273,27.1561,5.8146,
40.197,9.1854,-30.9905,-22.7739,3.8553,-105.1475,-67.3106,53.7432,-62.9709,14.9793,-15.1052,98.8273,39.2484,-9.1854,
55.197,17.4442,-15.9905,-7.7739,18.8553,-90.1475,-52.3106,38.7432,-47.9709,-0.020675,-30.1052,83.8273,54.2484,5.8146,
70.197,17.4442,-16.4744,0.96887,3.8553,-81.4047,-47.486,53.3006,-42.6403,-1.9377,-45.1052,84.3118,49.4242,20.8146,
55.197,8.7221,-31.4744,-14.0311,-11.1447,-96.4047,-62.486,68.3006,-57.6403,13.0623,-30.1052,85.2811,34.4242,17.4438,
59.1154,4.8455,-25.1968,-29.0311,-12.5983,-111.4047,-77.486,83.3006,-72.6403,28.0623,-15.1052,100.2811,33.9189,2.4438,
44.1154,-10.1545,-40.1968,-44.0311,2.4017,-115.8078,-77.0439,68.3006,-65.4142,43.0623,-0.10521,85.2811,48.9189,-12.1136,
29.1154,4.8455,-27.1352,-29.0311,17.4017,-100.8078,-62.0439,53.3006,-50.4142,28.0623,-15.1052,73.6519,38.7644,2.8864,
25.6814,19.8455,-24.7117,-14.0311,2.4017,-85.8078,-47.0439,38.3006,-50.8775,13.0623,-30.1052,84.7971,23.7644,17.8864,
40.6814,4.8455,-15.5053,-26.1656,-2.9073,-100.8078,-62.0439,53.3006,-65.8775,28.0623,-15.1052,95.9412,38.7644,2.8864,
55.6814,-10.1545,-25.1968,-41.1656,-8.7219,-115.8078,-77.0439,68.3006,-80.8775,43.0623,-0.10521,105.6326,53.7644,8.7219,
40.6814,-25.1545,-40.1968,-40.2177,-16.9593,-111.9314,-64.4454,78.0132,-65.8775,58.0623,14.8948,90.6326,38.7644,16.9593,
25.6814,-10.1545,-43.6101,-25.2177,-1.9593,-96.9314,-49.4454,63.0132,-50.8775,43.0623,-0.10521,75.6326,25.1961,31.0111,
40.6814,4.8455,-28.6101,-13.0825,13.0407,-81.9314,-37.3106,48.0132,-52.8162,28.0623,-15.1052,88.6726,40.1961,24.7126,
31.4956,-10.1545,-43.6101,-28.0825,-1.4533,-96.9314,-52.3106,37.3106,-67.8162,43.0623,-0.10521,74.1368,35.372,9.7126,
31.0111,-25.1545,-58.6101,-42.6408,-16.4533,-111.9314,-67.3106,52.3106,-82.8162,58.0623,14.8948,89.1368,26.1659,24.7126,
46.0111,-10.1545,-48.4554,-27.6408,-20.3513,-96.9314,-78.4976,62.0227,-89.1575,73.0623,29.8948,78.4972,11.1659,19.382,
59.1157,4.8455,-33.4554,-18.4131,-5.3513,-81.9314,-63.4976,47.0227,-74.1575,58.0623,14.8948,63.4972,2.9075,21.3206,
52.816,-10.1545,-33.434,-33.4131,-0.48466,-96.9314,-73.1672,62.0227,-59.1575,44.0943,0.48466,73.1677,17.9075,31.4963,
41.6714,0,-24.2281,-18.4131,-3.8764,-103.6946,-78.4976,57.177,-44.1575,29.0943,0,77.5278,23.2584,32.9489,
40.2181,15,-25.6814,-3.4131,-2.4231,-88.6946,-63.4976,44.0945,-59.1575,34.4031,-5.3297,85.766,8.2584,17.9489,
55.2181,28.1041,-23.2584,-14.5367,1.9382,-86.25,-50.3931,59.0945,-74.1575,49.4031,9.6703,81.4047,-1.9382,2.9489,
40.2181,13.1041,-38.2584,-29.5367,-4.8457,-101.25,-65.3931,49.4247,-78.4972,56.2086,24.6703,66.868,13.0618,4.8457,
26.1656,-1.8959,-45.5481,-41.6717,-16.4747,-116.25,-80.3931,58.1461,-93.4972,71.2086,39.6703,81.868,11.6294,17.444,
41.1656,13.1041,-30.5481,-26.6717,-1.4747,-101.25,-65.3931,43.1461,-78.4972,56.2086,24.6703,66.868,4.3613,13.0829,
51.8473,27.6192,-15.5481,-22.7739,7.2684,-110.9621,-63.4765,28.1461,-63.4972,41.2086,9.6703,51.868,13.0834,9.2061,
36.8473,12.6192,-30.5481,-37.7739,1.4538,-125.9621,-78.4765,43.1461,-48.4972,56.2086,8.2377,66.868,28.0834,-1.4538,
32.9496,-2.3808,-45.5481,-52.7739,-13.5462,-126.9528,-84.312,58.1461,-63.4972,71.2086,23.2377,81.868,38.7642,13.5462,
47.9496,1.9382,-30.5481,-37.7739,-25.1965,-131.7978,-95.9409,73.1461,-78.4972,86.2086,38.2377,96.868,23.7642,-1.4538,
62.9496,15.9895,-15.5481,-22.7739,-10.1965,-116.7978,-80.9409,58.1461,-63.4972,71.2086,23.2377,81.868,38.7642,-12.1141,
61.0534,0.98954,-14.5367,-7.7739,4.8035,-101.7978,-65.9409,43.1461,-48.4972,56.2086,8.2377,66.868,53.7642,2.8859,
53.7855,-14.0105,-26.6503,-22.7739,-7.2684,-116.7978,-77.0439,57.6619,-41.187,41.2086,7.2684,79.9514,42.1563,17.8859,
47.4858,-0.9691,-26.1661,-37.7739,-17.444,-131.7978,-89.1577,72.6619,-56.187,56.2086,22.2684,90.127,27.1563,2.8859,
62.4858,5.3302,-15.0211,-48.9398,-9.2065,-146.7978,-91.5806,87.6619,-71.187,71.2086,37.2684,102.2404,42.1563,-5.3302,
49.9091,-9.6698,-29.5578,-50.878,3.3915,-131.7978,-76.5806,72.6619,-67.3529,56.2086,52.2684,87.2404,57.1563,-3.3915,
44.0945,-7.2684,-31.4956,-35.878,18.3915,-116.7978,-61.5806,57.6619,-52.3529,41.2086,37.2684,77.0434,52.8162,11.6085,
46.5172,7.7316,-21.3202,-20.878,3.3915,-101.7978,-46.5806,42.6619,-67.3529,26.2086,22.2684,62.0434,37.8162,-0.96933,
61.5172,4.3608,-6.3202,-28.5885,-5.3302,-116.7771,-61.5806,57.6619,-82.3529,41.2086,37.2684,74.1363,48.9398,-8.2372,
64.4456,-10.6392,-21.3202,-43.5885,-14.052,-131.7771,-76.5806,72.6619,-97.3529,56.2086,52.2684,89.1363,43.1254,6.7628,
49.4456,-25.6392,-36.3202,-49.9089,0.94796,-116.7771,-77.0436,87.6619,-82.3529,71.2086,67.2684,74.1363,28.1254,-1.4535,
34.4456,-10.6392,-30.0418,-34.9089,15.948,-101.7771,-62.0436,72.6619,-67.3529,56.2086,52.2684,59.1363,13.1254,1.9382,
49.4456,4.3608,-15.0418,-21.8051,20.8362,-86.7771,-49.9087,57.6619,-82.3529,41.2086,37.2684,44.1363,18.8975,-4.3608,
49.9087,-10.6392,-30.0418,-36.8051,10.1754,-83.8273,-64.9087,72.6619,-97.3529,56.2086,51.8473,59.1363,28.589,-10.1754,
46.0327,0.48443,-45.0418,-23.7428,-4.8246,-84.7967,-79.9087,87.6619,-112.3529,71.2086,66.8473,74.1363,13.589,-0.48443,
49.4245,15.4844,-31.0114,-8.7428,-11.6294,-69.7967,-75.5899,72.6619,-97.3529,81.4049,62.0225,59.1363,8.7219,-15.4844,
58.1468,26.1659,-16.0114,0,3.3706,-54.7967,-60.5899,57.6619,-82.3529,66.4049,47.0225,44.1363,23.7219,-8.7217,
50.8775,11.1659,-22.7739,-15,3.392,-69.7967,-57.6619,70.2595,-75.1057,51.4049,32.0225,40.2172,37.3106,6.2783,
35.8775,-3.8341,-37.7739,-30,-11.608,-84.7967,-72.6619,70.2604,-88.673,42.1559,32.4654,55.2172,22.3106,10.1759,
40.7021,11.1659,-22.7739,-26.1659,-10.6603,-99.7967,-72.6826,85.2604,-94.9721,57.1559,47.4654,70.2172,7.3106,-1.9382,
52.8164,6.2993,-7.7739,-35.3722,-6.2993,-102.2402,-57.6826,72.1984,-79.9721,72.1559,62.4654,57.6617,15.0214,-16.9382,
53.7855,-4.3604,-15.9895,-27.6196,-1.4538,-87.2402,-45.0629,57.1984,-64.9721,57.1559,47.4654,57.6619,30.0214,-1.9382,
38.7855,-1.9384,-30.9895,-31.9802,-16.4538,-102.2402,-60.0629,50.3938,-79.9721,42.1559,57.1768,64.9296,15.0214,1.9384,
47.0011,12.1136,-15.9895,-17.9287,-31.4538,-117.2402,-75.0629,40.2172,-82.8585,27.1559,42.1768,49.9296,4.3608,-9.207,
56.2086,-2.8864,-1.9382,-32.9287,-41.671,-132.2402,-90.0629,25.2172,-68.8067,37.7955,27.1768,34.9296,19.3608,5.793,
61.0534,-17.8864,-11.6292,-41.6714,-26.671,-136.6435,-75.0629,40.2172,-53.8067,52.7955,42.1768,49.9296,34.3608,11.6292,
46.0534,-2.8864,-26.6292,-26.6714,-36.826,-121.6435,-63.9607,55.2172,-62.9914,67.7955,57.1768,64.9296,25.1968,-2.9073,
31.0534,0.48466,-11.6292,-27.6194,-51.826,-136.6435,-78.9607,70.2172,-77.9914,82.7955,72.1768,79.9296,11.1445,-0.48466,
45.5483,-12.5985,-1.9382,-17.4438,-36.826,-150.2109,-79.4665,55.2172,-64.9293,67.7955,57.1768,64.9296,26.1445,1.9382,
60.5483,2.4015,-5.8146,-2.4438,-21.826,-135.2109,-64.4665,40.2172,-49.9293,52.7955,42.1768,49.9296,41.1445,16.9382,
45.5483,-7.7528,-20.8146,-9.691,-36.826,-127.9219,-71.7137,55.2172,-49.4242,67.7955,57.1768,64.9296,26.1445,13.5674,
30.5483,0,-18.4131,-24.691,-38.7644,-142.9219,-83.3434,70.2172,-64.4242,82.7955,72.1768,79.9296,20.3508,0,
35.3724,-7.2684,-22.7739,-37.3106,-46.0323,-157.9219,-98.3434,85.2172,-79.4242,97.7955,87.1768,94.9296,35.3508,7.2684,
48.4554,-9.6914,-23.2588,-22.3106,-31.0323,-142.9219,-83.3434,70.2172,-64.4242,82.7955,72.1768,79.9296,50.3508,7.7528,
33.4554,3.8759,-37.7955,-7.3106,-16.0323,-127.9219,-68.3434,55.2172,-49.4242,67.7955,57.1768,64.9296,35.3508,1.9382,
18.4554,8.7221,-29.0729,-20.3513,-31.0323,-132.7671,-58.1463,49.4242,-64.4242,54.2695,71.7137,79.9296,20.3508,-5.8146,
33.4554,-6.2779,-23.2586,-35.3513,-46.0323,-147.7671,-73.1463,64.4242,-79.4242,69.2695,86.7137,92.0648,25.1968,8.7219,
48.4554,-18.8975,-34.4036,-41.187,-31.0323,-162.7671,-86.7349,79.4242,-94.4242,84.2695,101.7137,107.0648,40.1968,18.8975,
33.4554,-11.1447,-30.5267,-29.5578,-16.0323,-147.7671,-71.7349,84.7962,-79.4242,99.2695,116.7137,92.0648,37.3106,3.8975,
27.6196,3.8553,-15.5267,-15.9905,-1.0323,-132.7671,-56.7349,69.7962,-64.4242,84.2695,101.7137,77.0648,22.3106,-11.1025,
42.6196,-7.2684,-0.5267,-30.9905,-1.4533,-120.6535,-54.7544,54.7962,-79.4242,69.2695,86.7137,68.3218,27.6192,-6.2995,
29.5574,-3.392,-15.5267,-40.2181,-16.4533,-135.6535,-69.7544,69.7962,-94.4242,84.2695,101.7137,83.3218,25.681,3.392,
14.5574,-3.8764,-30.5267,-49.4242,-31.4533,-150.6535,-84.7544,84.7962,-109.4242,99.2695,116.7137,98.3218,10.681,4.8457,
25.6812,-18.8764,-24.7119,-60.5687,-16.4533,-135.6535,-69.7544,78.013,-94.4242,114.2695,131.7137,86.7351,25.681,-4.3611,
26.6503,-33.4342,-20.8353,-49.9087,-1.4533,-120.6535,-54.7544,63.013,-79.4242,99.2695,116.7137,71.7351,30.5267,9.2061,
24.2277,-18.4342,-33.9182,-34.9087,-5.8146,-109.5088,-43.6096,55.2388,-68.8062,84.2695,101.7137,62.9916,25.1965,24.2061,
11.6294,-18.4129,-38.7642,-47.4863,-11.6294,-124.5088,-58.6096,70.2388,-83.8062,99.2695,116.7137,77.9916,29.0732,31.9807,
26.6294,-27.1347,-23.7642,-62.4863,-5.8146,-139.5088,-73.6096,85.2388,-98.8062,114.2695,131.7137,92.9916,22.2895,16.9807,
41.6294,-12.1347,-13.0832,-55.7235,6.2993,-124.5088,-58.6096,70.2388,-83.8062,129.2695,121.6221,77.9916,29.5576,1.9807,
26.6294,-13.0834,-28.0832,-40.7235,4.3608,-109.5088,-43.6096,55.2388,-68.8062,114.2695,106.6221,62.9916,29.5578,16.9807,
11.6294,-19.8669,-43.0832,-33.4342,-7.2679,-124.5088,-58.6096,46.0327,-77.0439,99.2695,91.6221,77.9916,14.5578,26.6508,
26.6294,-4.8669,-28.0832,-40.2181,-18.898,-139.5088,-64.4458,61.0327,-81.8896,111.9314,96.4258,88.673,2.4226,20.8357,
41.6294,-15.99,-25.681,-55.2181,-33.898,-150.6958,-67.3524,76.0327,-95.4565,126.9314,92.5499,73.673,15.99,34.4031,
37.3104,-19.8666,-34.4029,-51.8471,-18.898,-135.6958,-52.3524,85.7662,-80.4565,111.9314,93.519,58.673,20.836,19.4031,
22.3104,-4.8666,-30.5267,-36.8471,-7.2683,-120.6958,-37.3524,90.6112,-65.4565,96.9314,82.8585,73.673,5.836,19.8664,
37.3104,-2.9075,-18.4131,-29.0729,-22.2683,-131.7983,-52.3524,102.7249,-80.4565,111.9314,97.8585,83.3429,2.9075,16.4749,
52.3104,-1.9387,-3.4131,-35.8564,-26.1659,-146.7983,-67.3524,87.7249,-65.4565,96.9314,93.0343,68.3429,17.9075,1.9387,
37.3104,3.3915,-18.4131,-20.8564,-11.1659,-135.1898,-52.3524,72.7249,-50.4565,81.9314,78.0343,53.3429,2.9075,14.0518,
22.3104,0.48443,-33.4131,-5.8564,-10.1754,-120.1898,-41.187,87.7249,-39.2488,96.9314,93.0343,68.3429,-0.48443,11.1447,
30.0423,3.8764,-20.3513,-20.8564,-19.382,-124.045,-56.187,102.7249,-54.2488,111.9314,108.0343,83.3429,14.5156,-3.8553,
45.0423,5.8146,-8.7221,-33.9187,-26.1659,-139.045,-71.187,116.2922,-69.2488,126.9314,123.0343,84.3118,11.6292,-5.8146,
46.5172,-2.9071,-10.6598,-18.9187,-11.1659,-124.045,-56.187,101.2922,-55.2388,111.9314,108.0343,69.3118,23.2588,-9.691,
31.5172,3.8764,-23.2584,-3.9187,3.8341,-109.045,-41.187,86.2922,-40.2388,96.9314,93.0343,64.9298,8.2588,-7.7528,
41.187,18.8764,-8.2584,-13.0829,-0.48443,-109.9932,-30.5267,71.2922,-47.9705,82.858,108.0343,79.9298,-6.299,0.48443,
56.187,3.8764,-23.2584,-28.0829,-15.4844,-124.9932,-45.5267,86.2922,-62.9705,97.858,123.0343,81.4045,0.9691,10.6601,
41.187,-8.7221,-38.2584,-39.7332,-30.4844,-139.9932,-60.5267,101.2922,-77.9705,112.858,138.0343,96.4045,8.7221,13.5674,
26.187,-6.299,-32.4649,-36.3413,-15.4844,-124.9932,-46.0318,86.2922,-62.9705,97.858,123.0343,81.4045,11.1452,-1.4326,
37.3106,0.48443,-17.4649,-30.5267,-0.48443,-109.9932,-31.0318,71.2922,-47.9705,82.858,108.0343,66.4045,16.9598,-5.3297,
52.3106,1.9382,-8.7212,-24.2268,-3.8759,-110.4776,-31.98,71.7142,-56.2077,67.858,93.0343,51.4045,25.1975,-1.9382,
37.3106,2.4229,-23.7212,-29.5576,-18.8759,-125.4776,-46.98,86.7142,-71.2077,82.858,108.0343,66.4045,10.1975,-2.4229,
22.3106,8.2374,-33.434,-40.2179,-17.9284,-140.4776,-61.98,101.7142,-85.7658,97.858,123.0343,81.4045,-3.3917,3.3917,
32.95,-6.7626,-22.2893,-40.7023,-2.9284,-125.4776,-46.98,86.7142,-70.7658,112.858,134.7051,66.4045,9.6912,-4.8455,
44.579,-21.7626,-31.0111,-25.7023,-3.8764,-110.4776,-31.98,71.7142,-55.7658,97.858,119.7051,51.4045,3.8764,10.1545,
40.7028,-12.5983,-30.042,-18.4129,-17.4435,-118.2307,-39.733,76.5592,-40.7658,82.858,104.7051,66.4045,12.5983,25.1545,
26.6501,-15.9902,-34.4033,-33.4129,-26.6505,-133.2307,-54.733,91.5592,-55.7658,97.858,119.7051,81.4045,15.9902,33.434,
41.6501,-12.1136,-19.4033,-48.4129,-28.5885,-148.2307,-69.733,106.5592,-70.7658,112.858,134.7051,96.4045,12.1136,27.6196,
56.6501,-10.6603,-18.4131,-38.7639,-13.5885,-133.2307,-54.733,91.5592,-55.7658,127.858,149.2425,81.4045,13.5674,12.6196,
41.6501,0,-33.4131,-23.7639,-5.8151,-118.2307,-39.733,76.5592,-40.7658,112.858,134.2425,66.4045,0,27.6196,
26.6501,9.2063,-28.5887,-15.9902,-20.8151,-131.3136,-54.733,91.5592,-55.7658,97.858,125.499,81.4045,-9.2063,17.9284,
41.6501,2.9073,-15.5053,-30.9902,-35.8151,-146.3136,-69.733,106.5592,-70.7658,112.858,140.499,96.4045,-2.9073,3.8766,
56.6501,-6.7837,-26.1656,-45.9902,-33.9184,-154.0875,-84.733,121.5592,-85.7658,127.858,155.499,81.4045,6.7837,18.8766,
59.1152,-1.9382,-22.2895,-44.579,-18.9184,-139.0875,-69.733,125.0143,-70.7658,142.858,152.1491,71.7133,1.9382,33.8766,
44.1152,9.2065,-30.5272,-29.579,-9.2065,-124.0875,-54.733,110.0143,-59.6006,127.858,137.1491,63.476,-13.0618,18.8766,
42.6408,7.7528,-17.4438,-22.2895,-20.3513,-109.0875,-64.9298,103.6937,-74.6006,112.858,138.5822,75.5901,-7.7528,25.1965,
51.8471,-3.3917,-19.8666,-37.2895,-29.5576,-124.0875,-79.9298,88.6937,-89.6006,116.7769,123.5822,60.5901,3.3917,10.1965,
36.8471,11.6083,-33.9189,-22.2895,-27.135,-139.0875,-80.4356,85.2813,-74.6006,131.7769,125.0141,64.9296,-11.6083,17.444,
23.7432,9.2065,-38.2795,-15.0211,-16.9593,-124.0875,-65.4356,100.2813,-59.6006,146.7769,140.0141,79.9296,-9.2065,15.9905,
21.8051,2.4226,-26.6503,-30.0211,-14.0518,-109.0875,-56.6926,113.8696,-44.6006,131.7769,140.0355,81.8896,-2.4226,28.589,
36.8051,3.8764,-19.382,-40.7026,-29.0518,-124.0875,-71.6926,110.4776,-59.6006,146.7769,146.3345,70.7444,-3.8764,21.3202,
51.8051,3.392,-15.99,-25.7026,-14.0518,-131.3134,-67.3524,95.4776,-67.3524,131.7769,131.3345,68.3218,11.1236,6.3202,
36.8051,2.9075,-28.1045,-29.0734,0.94819,-135.6746,-63.9609,80.4776,-55.2393,116.7769,116.3345,69.7751,-2.9075,-6.7839,
37.3106,4.3608,-26.6503,-26.6503,-2.4226,-120.6746,-52.8162,93.5188,-54.7544,124.5299,131.3345,67.3529,-17.9075,2.4226,
52.3106,-7.2684,-32.4649,-22.7739,-17.4226,-105.6746,-52.8162,108.5188,-62.5072,139.5299,146.3345,81.8896,-2.9075,15.9905,
46.0325,-10.1756,-32.4651,-36.3415,-30.5269,-120.6746,-67.8162,120.6533,-77.5072,154.5299,161.3345,96.8896,12.0925,10.1756,
34.4031,-8.2372,-21.8051,-37.3106,-15.5269,-127.437,-69.2911,105.6533,-64.4454,139.5299,146.3345,81.8896,6.2995,-4.8244,
49.4031,-7.7528,-11.6292,-31.9809,-0.52693,-112.437,-54.2911,90.6533,-72.6826,124.5299,131.3345,66.8896,14.5367,7.7528,
64.4031,-9.2063,-5.3299,-43.125,-1.4535,-121.6226,-42.1561,94.4874,-78.013,121.6221,146.3345,51.8896,29.5367,1.4535,
49.424,-2.9073,-20.3299,-40.7023,-16.4535,-136.6226,-57.1561,109.4874,-83.3431,136.6221,161.3345,66.8896,14.5367,2.9073,
44.5785,1.9382,-23.2588,-32.9498,-16.4749,-151.6226,-72.1561,124.4874,-96.9103,151.6221,176.3345,81.8896,-0.4633,1.9382,
59.1154,-11.6294,-10.6601,-33.9189,-1.4749,-136.6226,-57.1561,109.4874,-81.9103,136.6221,161.3345,66.8896,14.5367,-7.753,
53.7846,-17.9291,-25.6601,-25.6819,3.3915,-121.6226,-42.1561,94.4874,-66.9103,121.6221,146.3345,51.8896,10.1754,7.247,
53.7851,-9.2065,-27.6196,-21.8051,-4.3608,-115.8078,-57.1561,97.3947,-51.9103,106.6221,133.252,52.8162,4.3608,22.247,
47.9707,-7.2681,-28.5887,-36.8051,-19.3608,-130.8078,-72.1561,112.3947,-66.9103,121.6221,148.252,67.8162,7.2681,15.9902,
62.9707,-9.2065,-24.7121,-51.8051,-34.3608,-145.8078,-87.1561,127.3947,-81.9103,136.6221,163.252,82.8162,9.2065,13.0829,
76.5594,-8.7221,-21.3202,-36.8051,-19.3608,-130.8078,-72.1561,112.3947,-66.9103,151.6221,166.6858,67.8162,8.7221,8.7221,
61.5594,6.2779,-36.3202,-21.8051,-9.2065,-115.8078,-57.1561,97.3947,-51.9103,136.6221,151.6858,52.8162,-6.2779,18.8971,
46.5594,14.5358,-34.888,-6.8051,-24.2065,-130.8078,-72.1561,82.3947,-66.8685,121.6221,136.6858,54.2695,-21.2779,3.8971,
56.2081,13.5674,-19.888,-21.8051,-28.1041,-145.8078,-87.1561,97.3947,-81.8685,136.6221,151.6858,69.2695,-13.5674,16.4749,
71.2081,0,-29.0734,-36.8051,-33.9187,-157.9641,-97.8796,112.3947,-96.8685,151.6221,166.6858,84.2695,0,31.4749,
56.6924,2.4229,-21.8048,-36.3415,-18.9187,-142.9641,-82.8796,107.0859,-81.8685,166.6221,158.4488,69.2695,-6.2993,17.9284,
41.6924,3.8764,-27.1347,-21.3415,-3.9187,-127.9641,-67.8796,92.0859,-66.8685,151.6221,143.4488,54.2695,-21.2993,3.8764,
45.0636,2.4229,-12.1347,-14.052,-13.0827,-112.9641,-58.6305,86.7351,-81.8685,136.6221,128.4488,62.5069,-6.2993,18.8764,
60.0636,0.48443,-8.2372,-29.052,-28.0827,-127.9641,-73.6305,89.6419,-96.8685,121.6221,143.4488,57.6619,-0.48443,11.1447,
45.0636,11.6292,-23.2372,-14.052,-27.1347,-142.9641,-88.1886,104.6419,-81.8685,136.6221,158.4488,72.6619,-15.4844,13.5674,
30.0636,5.3302,-31.496,-6.299,-15.9905,-127.9641,-73.1886,114.8389,-66.8685,151.6221,166.2009,87.6619,-10.1754,12.1136,
20.8362,10.1759,-16.496,-10.1759,-13.0825,-112.9641,-58.1886,99.8389,-51.8685,136.6221,151.2009,72.6619,-12.1136,20.8362,
35.8362,4.8455,-4.8455,-18.4129,-24.2274,-116.2925,-70.7446,114.8389,-66.8685,121.6221,149.2418,71.7135,-5.8148,17.444,
50.8362,-8.2374,-19.8455,-32.4651,-16.9591,-131.2925,-85.7446,99.8389,-78.9818,112.901,151.6649,82.8587,9.1852,8.2374,
35.8362,6.7626,-34.8455,-32.4651,-18.8973,-146.2925,-85.7658,84.8389,-63.9818,119.684,136.6649,97.8587,-5.8148,17.9289,
32.4651,8.2374,-24.7119,-25.6812,-20.8355,-131.2925,-70.7658,99.8389,-48.9818,134.684,151.6649,90.6115,-8.2374,8.2374,
43.125,-0.48466,-27.6194,-20.8355,-20.8355,-116.2925,-55.7658,102.2407,-42.1561,119.684,166.2016,75.6115,0.48466,12.1138,
47.0016,1.4538,-29.5578,-29.5578,-19.8669,-129.3752,-70.7658,114.8389,-57.1561,134.684,172.0155,82.8585,-1.4538,19.8664,
32.0016,-13.5462,-34.8875,-38.7639,-4.8669,-118.2304,-62.0223,99.8389,-72.1561,119.684,157.0155,70.7448,0.96887,18.4131,
44.5785,-14.5362,-19.8875,-24.2277,10.1331,-103.2304,-47.0223,84.8389,-67.8369,104.684,142.0155,55.7448,4.8457,30.0427,
59.5785,0.46376,-4.8875,-24.2277,-4.8669,-88.2304,-52.3318,94.0032,-55.2388,95.9414,144.3963,44.579,-10.1543,15.0427,
62.9918,15.4638,-17.444,-23.2586,-19.8669,-100.7869,-62.9918,109.0032,-52.3315,110.9414,159.3963,59.579,-25.1543,17.444,
47.9918,6.2993,-15.0214,-24.7123,-15.0214,-115.7869,-77.9918,124.0032,-67.3315,125.9414,174.3963,74.579,-10.1543,32.444,
40.2181,-8.7007,-15.99,-38.2795,-4.3608,-120.6535,-76.0745,109.0032,-52.3315,110.9414,159.3963,59.579,4.8457,17.444,
55.2181,0.48443,-15.0211,-23.2795,6.2986,-105.6535,-61.0745,94.0032,-37.3315,95.9414,144.3963,44.579,4.3608,32.444,
53.7853,4.3611,-24.7119,-15.0209,-8.7014,-92.5492,-57.6617,109.0032,-48.9396,97.3949,148.7578,59.579,-4.3611,47.444,
38.7853,2.9073,-33.9184,-30.0209,-23.7014,-107.5492,-72.6617,124.0032,-63.9396,112.3949,163.7578,74.579,-2.9073,32.444,
51.8473,-6.299,-21.8046,-45.0209,-36.3413,-122.5492,-87.6617,139.0032,-78.9396,127.3949,178.7578,89.579,6.299,30.5267,
66.8473,-11.6292,-13.5674,-30.0209,-21.3413,-107.5492,-72.6617,124.0032,-63.9396,112.3949,163.7578,74.579,7.7528,16.4749,
51.8473,3.3708,-28.5674,-15.0209,-6.3413,-92.5492,-57.6617,109.0032,-48.9396,97.3949,148.7578,59.579,-7.2472,23.7423,
36.8473,6.299,-43.5674,-0.020903,-21.3413,-107.5492,-66.3836,94.0032,-53.7851,82.3949,133.7578,50.8785,-22.2472,20.8362,
39.7332,11.6292,-28.5674,-15.0209,-33.9187,-122.5492,-81.3836,109.0032,-68.7851,97.3949,148.7578,65.8785,-11.6292,35.8362,
54.7332,5.3302,-21.8046,-30.0209,-37.3106,-137.5492,-94.4876,124.0032,-83.7851,112.3949,163.7578,80.8785,-5.3302,39.2488,
50.8778,3.3917,-18.8978,-27.6194,-22.3106,-122.5492,-79.4876,109.0032,-68.7851,127.3949,152.6337,65.8785,-10.1756,24.2488,
35.8778,5.8146,-23.2579,-12.6194,-7.3106,-107.5492,-64.4876,94.0032,-53.7851,112.3949,137.6337,50.8785,-25.1756,9.2488,
34.8878,4.8455,-8.2579,-11.6294,-22.3106,-113.3854,-79.4876,79.0032,-68.7851,97.3949,122.6337,58.1461,-10.1756,24.2488,
49.8878,6.2993,-9.2063,-26.6294,-37.3104,-128.3854,-94.4876,94.0032,-83.7851,112.3949,137.6337,65.4145,-6.2993,17.9284,
49.9087,11.1447,-24.2063,-20.8357,-22.3104,-143.3854,-79.4876,109.0032,-78.9821,127.3949,152.6337,80.4145,-11.1447,15.99,
34.9087,-3.8553,-32.9496,-29.0732,-7.3104,-128.3854,-64.4876,94.0032,-63.9821,138.5824,138.5824,65.4145,2.9073,11.6294,
32.4649,-2.4226,-18.898,-18.898,2.4226,-113.3854,-49.4876,79.0032,-48.9821,123.5824,123.5824,50.4145,-10.1754,26.6294,
44.5792,7.753,-17.444,-7.753,-12.5774,-98.3854,-49.4245,79.4667,-59.1154,108.5824,108.5824,35.4145,-19.3822,34.8878,
47.4858,-7.247,-23.2586,-20.3511,-18.4129,-113.3854,-64.4245,92.0652,-74.1154,118.2302,123.5824,50.4145,-4.3822,19.8878,
47.486,-6.7839,-22.2895,-31.9805,-3.4129,-128.3854,-79.4245,104.663,-89.1154,133.2302,138.5824,65.4145,1.9382,25.1965,
40.7023,0.9691,-25.1963,-18.4129,-0.9691,-113.3854,-64.4245,94.0034,-74.1154,124.0457,153.5824,62.9918,-13.0618,15.5058,
35.8569,2.9071,-34.888,-3.4129,-15.9691,-98.3854,-49.4245,79.0034,-59.1154,109.0457,138.5824,47.9918,-13.5674,8.7221,
49.424,10.6601,-27.135,-14.5369,-15.5058,-113.3854,-64.4245,94.0034,-67.8376,124.0457,145.3654,62.9918,-10.6601,15.5053,
37.7948,-4.3399,-35.8566,-29.5369,-0.5058,-124.0452,-64.9296,105.6321,-80.4356,120.1688,134.7055,77.5285,-8.7219,17.444,
52.7948,-7.2679,-23.7428,-34.4031,-2.4226,-109.0452,-49.9296,98.3645,-91.5801,105.1688,119.7055,62.5285,2.4226,32.444,
66.3836,4.3608,-19.8669,-31.496,-17.4226,-94.0452,-36.3413,87.7037,-76.5801,120.1688,134.7055,47.5285,-4.3608,17.444,
51.3836,14.052,-34.8669,-16.496,-14.052,-96.4261,-51.3413,79.9512,-61.5801,133.2518,138.097,48.94,-19.3608,22.7737,
41.187,12.1136,-23.7432,-12.1136,-15.0211,-111.4261,-66.3413,94.9512,-76.5801,148.2518,153.097,63.94,-28.5885,34.4031,
56.187,9.6912,-9.6912,-27.1136,-12.5987,-116.2929,-60.0848,87.2191,-91.5801,133.2518,138.097,48.94,-13.5885,20.3506,
62.5067,24.6912,-24.6912,-12.1136,2.4013,-101.2929,-45.0848,72.2191,-76.5801,118.2518,123.097,33.94,-2.4231,35.3506,
47.5067,9.6912,-39.6912,-18.4129,-10.6601,-86.2929,-34.8878,87.2191,-61.5801,132.7674,138.097,42.6405,-2.9073,34.8878,
44.5787,9.6912,-24.6912,-31.0114,-25.6601,-101.2929,-49.8878,102.2191,-62.9918,147.7674,153.097,57.6405,-9.6912,31.0114,
59.5787,17.444,-17.444,-36.826,-40.6601,-116.2929,-64.8878,117.2191,-77.9918,162.7674,168.097,72.6405,-18.4129,42.6405,
66.868,15.5051,-10.6603,-21.826,-25.6601,-101.2929,-49.8878,102.2191,-66.8685,147.7674,153.097,57.6405,-4.8457,27.6405,
51.868,16.4749,-25.6603,-6.826,-10.6601,-86.2929,-34.8878,87.2191,-51.8685,132.7674,138.097,42.6405,-19.8457,12.6405,
36.868,16.9593,-40.2181,-11.1447,-25.6601,-101.2929,-49.8878,78.9821,-36.8685,117.7674,133.2516,57.6405,-31.496,13.0829,
21.868,8.2374,-52.816,-26.1447,-40.6601,-116.2929,-64.8878,93.9821,-51.8685,132.7674,148.2516,72.6405,-16.496,19.8666,
36.868,6.299,-41.187,-24.7121,-27.6192,-131.2929,-63.476,108.9821,-66.8685,147.7674,163.2516,82.8585,-6.299,15.9905,
51.868,6.2993,-26.187,-15.0209,-12.6192,-116.2929,-48.476,93.9821,-51.8685,132.7674,148.2516,67.8585,-0.48466,0.99046,
36.868,11.6292,-22.2895,-10.6603,2.3808,-101.2929,-33.476,78.9821,-36.8685,117.7674,133.2516,52.8585,-11.6292,0,
38.7639,15.5056,-14.5367,-11.6292,-12.6192,-116.2929,-48.476,68.8062,-51.8685,102.7674,126.9521,62.0223,-26.6292,11.6292,
53.7639,20.3511,-19.3822,-16.4747,-27.6192,-131.2929,-63.476,83.8062,-66.8685,117.7674,141.9521,72.6828,-40.7023,16.4747,
39.733,22.2893,-34.3822,-20.3511,-40.7023,-146.2929,-78.476,98.8062,-81.8685,132.7674,156.9521,87.6828,-27.135,20.3511,
29.5574,7.2893,-38.2795,-27.6196,-25.7023,-131.2929,-63.476,88.673,-66.8685,147.7674,148.7571,72.6828,-12.135,5.3511,
38.7639,0.96887,-23.2795,-25.197,-10.7023,-116.2929,-48.476,73.673,-51.8685,132.7674,133.7571,57.6828,-20.3518,20.3508,
53.7639,13.0829,-13.0829,-18.898,-14.0518,-101.2929,-36.3418,88.673,-66.8685,117.7674,118.7571,42.6828,-18.898,27.6196,
48.4554,3.8764,-28.0829,-29.0729,-26.1659,-116.2929,-51.3418,103.673,-81.8685,132.7674,133.7571,57.6828,-3.898,12.6196,
45.5481,6.7837,-38.7642,-40.7023,-15.5053,-131.2929,-66.3418,118.673,-70.7446,147.7674,148.7571,72.6828,-6.7837,23.2586,
31.0116,3.8764,-33.9187,-29.0729,-3.8764,-116.2929,-51.3418,117.2616,-55.7446,162.7674,163.7571,76.5594,-4.8453,23.2584,
18.8975,7.2683,-38.2795,-14.0729,-10.175,-101.2929,-36.3418,102.2616,-40.7446,147.7674,148.7571,61.5594,-15.99,23.7437,
33.4338,11.1447,-41.187,-11.1447,-25.175,-116.2929,-49.9087,87.2616,-55.7446,132.7674,133.7571,46.5594,-30.99,14.0518,
41.187,11.1447,-35.372,-25.681,-21.8046,-124.5299,-56.6926,102.2616,-70.7446,141.0043,136.1591,61.5594,-15.99,21.8051,
41.6714,3.8764,-31.9805,-21.3202,-21.3202,-109.5299,-48.4554,117.2616,-85.7446,148.2727,137.6124,66.8685,-3.8764,32.9493,
53.7851,4.3608,-34.4031,-15.0211,-6.3202,-94.5299,-33.4554,102.2616,-70.7446,133.2727,127.437,51.8685,-11.1447,17.9493,
38.7851,2.4226,-49.4031,-16.9593,-2.4226,-101.2711,-32.4649,87.2616,-55.7446,118.2727,112.437,36.8685,-26.1447,15.0216,
37.3106,10.1754,-34.4031,-16.9593,-10.1754,-116.2711,-47.4649,102.2404,-70.7446,108.0555,127.437,51.8685,-15.0211,20.8357,
46.0323,19.8664,-19.4031,-19.8664,-10.1759,-131.2711,-51.8469,100.3027,-85.7446,93.0555,112.437,36.8685,-20.8353,10.1759,
61.0323,20.3508,-34.4031,-19.382,-8.7217,-116.2711,-36.8469,101.756,-70.7446,78.0555,97.437,21.8685,-35.8353,25.1759,
59.1154,5.3508,-37.7948,-34.382,-0.9691,-101.7558,-21.8469,116.756,-55.7446,93.0555,112.437,36.8685,-25.1963,23.2586,
44.1154,6.7837,-36.826,-37.7948,-6.7837,-106.6015,-33.9184,122.107,-61.0536,108.0555,127.437,51.8685,-25.1968,11.6294,
59.1154,18.8975,-24.7121,-22.7948,-21.7837,-121.6015,-48.9184,137.107,-76.0536,123.0555,142.437,66.8685,-23.7432,26.6294,
65.8989,15.5058,-19.3822,-15.5058,-19.3822,-127.9216,-53.3009,122.107,-61.0536,108.0555,127.437,51.8685,-24.2275,31.9802,
50.8989,21.8046,-34.3822,-12.1141,-15.0216,-115.8078,-38.3009,107.107,-46.0536,93.0555,112.437,36.8685,-39.2275,20.8357,
35.8989,13.0829,-47.0016,-22.7739,-14.0523,-100.8078,-25.6814,110.9621,-31.0536,108.0555,127.437,51.8685,-24.2275,19.8664,
40.7023,4.8455,-39.7335,-30.0425,-29.0523,-107.5708,-40.6814,125.9621,-46.0536,123.0555,142.437,66.8685,-9.2275,21.3199,
55.7023,18.4129,-28.1038,-25.1968,-44.0523,-122.5708,-55.6814,140.9621,-61.0536,138.0555,157.437,79.4667,-17.444,17.444,
49.9087,15.99,-26.6503,-15.99,-29.0523,-107.5708,-40.6814,125.9621,-46.0536,123.0555,142.437,64.4667,-8.2372,2.444,
34.9087,5.3302,-38.2799,-10.1754,-14.0523,-95.457,-25.6814,110.9621,-31.0536,108.0555,127.437,49.4667,-23.2372,4.3613,
33.434,15.9902,-23.2799,-14.052,-8.2374,-110.457,-40.6814,99.3336,-46.0536,93.0555,138.0975,61.5381,-36.3411,8.2374,
48.434,28.1043,-27.135,-22.2893,-22.2893,-125.457,-55.6814,114.3336,-61.0536,108.0555,153.0975,76.5381,-22.2893,22.2893,
49.4242,28.1041,-42.135,-29.0729,-19.382,-140.457,-57.177,129.3336,-76.0536,123.0555,168.0975,91.5381,-17.4438,17.4438,
39.7335,13.1041,-36.826,-35.8566,-4.382,-125.457,-42.177,114.3336,-61.0536,126.9523,153.0975,76.5381,-5.8148,2.4438,
47.0016,-1.8959,-23.7432,-32.4649,10.618,-110.457,-27.177,99.3336,-46.0536,111.9523,138.0975,61.5381,-6.299,17.4438,
62.0016,0.48443,-11.1447,-30.5267,-4.382,-107.0861,-27.6196,91.5806,-61.0536,96.9523,123.0975,46.5381,-0.48443,23.7432,
64.93,8.7219,-20.3515,-40.7023,-19.382,-122.0861,-42.6196,106.5806,-76.0536,111.9523,138.0975,61.5381,-6.7837,8.7432,
49.93,16.4749,-27.1347,-41.6714,-11.6292,-137.0861,-57.6196,121.5806,-91.0536,126.9523,153.0975,76.5381,-21.7837,11.6292,
34.93,1.4749,-27.1347,-26.6714,0,-122.0861,-42.6196,125.0143,-76.0536,141.9523,168.0975,91.0961,-16.4744,3.8764,
40.7026,9.6914,-25.197,-11.6714,2.9075,-107.0861,-27.6196,110.0143,-61.0536,126.9523,153.0975,76.0961,-17.4442,18.8764,
54.7544,12.1136,-37.3106,-26.6714,-9.2065,-114.8389,-38.2795,95.0143,-76.0536,111.9523,138.0975,61.0961,-32.4442,9.2065,
65.8991,15.5056,-30.0423,-31.0111,1.9382,-125.9837,-53.2795,110.0143,-91.0536,126.9523,153.0975,76.0961,-17.4442,-1.9382,
67.8373,11.6292,-22.2895,-34.8875,-6.7839,-122.1073,-61.0534,125.0143,-106.0536,141.9523,168.0975,85.2811,-12.5985,6.7839,
69.7753,8.7219,-28.1043,-32.9496,6.7837,-107.1073,-46.0534,110.0143,-91.0536,126.9523,153.0975,70.2811,-25.1968,-0.9691,
54.7753,11.1443,-43.1043,-17.9496,21.7837,-92.1073,-31.0534,95.0143,-76.0536,111.9523,138.0975,55.2811,-30.5272,2.4226,
54.2702,16.4747,-30.042,-13.5676,13.5676,-107.1073,-46.0534,91.0954,-91.0536,96.9523,123.0975,54.2702,-31.0114,-12.5774,
67.3529,31.4747,-17.9282,-28.5676,11.1447,-122.1073,-57.6614,106.0954,-106.0536,83.8273,118.7149,39.2702,-35.3724,-11.1447,
65.8989,16.4747,-32.9282,-43.5676,0.9691,-130.8292,-46.5169,121.0954,-121.0536,98.8273,119.1995,24.2702,-40.7023,3.8553,
65.8987,1.4747,-47.4865,-44.579,15.9691,-115.8292,-31.5169,118.2304,-106.0536,113.8273,134.1995,30.0418,-25.7023,1.9382,
50.8987,5.8146,-33.9187,-29.579,30.9691,-100.8292,-16.5169,103.2304,-91.0536,98.8273,120.1686,36.8257,-12.5985,-5.8146,
65.8987,14.5367,-22.289,-29.0729,15.9691,-115.8292,-31.5169,118.2304,-106.0536,113.8273,135.1686,39.7333,-21.3202,0,
80.8987,23.2584,-7.289,-31.0116,3.8764,-130.8292,-46.5169,103.2304,-91.0536,98.8273,138.5822,24.7333,-6.3202,-3.8764,
65.8987,15.9905,-22.289,-17.9282,-4.3613,-136.1591,-41.1866,88.2304,-76.0536,83.8273,123.5822,9.7333,-21.3202,4.3613,
