"AF3","AF4","F3","F4","F7","F8","FC5","FC6","O1","O2","P7","P8","T7","T8",
23.1981,-43.4963,-23.1981,22.2318,40.5972,-50.2626,-2.9,17.3991,0.96636,-15.4654,4.8327,-0.96636,35.7645,-0.96636,
30.5062,-36.0538,-12.1399,34.9979,31.395,-56.9132,1.1404,14.4215,0.90838,-9.7048,-3.19,-0.90838,31.685,-3.8084,
27.2254,-25.6747,-12.862,28.9466,22.2618,-51.0816,-0.3776,10.173,-6.3957,-11.5393,-14.1145,1.562,35.0998,0.76966,
16.8924,-21.2347,-22.7225,20.4439,18.9929,-34.4845,2.5446,8.5967,-9.8778,-11.8129,-23.8998,-2.3976,36.8606,5.5567,
24.0947,-10.7783,-18.9433,16.8005,29.9356,-33.8659,10.6078,22.0959,-10.7356,-8.6882,-15.2163,-1.7706,32.2322,1.8401,
28.9322,-1.9148,-14.4235,13.3765,22.8235,-35.2171,-2.1109,23.187,-16.3737,-13.4828,-7.0538,1.7189,24.0151,1.2465,
23.3299,4.9664,-12.5908,19.3403,18.5541,-19.5714,-7.7833,20.8294,-8.6249,-7.8411,-6.6306,3.5484,26.4414,9.8708,
13.231,0.80117,-7.9699,17.2126,29.04,-18.3971,5.2491,22.4787,-6.1747,-9.3034,-10.0991,-5.3635,28.7204,8.3122,
20.6535,0.27038,-1.2081,20.5308,28.7476,-21.6423,3.4842,26.4473,-9.187,-15.0279,-4.1768,-3.5917,29.4144,10.2298,
20.8639,-3.129,-3.5524,19.7812,12.9227,-15.0279,-8.8071,17.61,-7.1862,-12.6767,-6.343,8.706,25.2327,8.1656,
12.8461,-8.7408,-11.0715,14.7284,-1.9527,-15.093,0.42082,10.7538,-17.3873,-12.8829,-14.662,11.0841,15.0193,-2.9566,
16.9081,-11.1164,-6.5409,21.5774,12.2645,-22.8865,3.2946,18.8086,-14.4113,-13.0763,-7.9822,-2.1473,20.8845,-0.84559,
22.6595,-12.3826,6.4166,22.216,25.6286,-15.7138,-0.76893,24.446,0.55335,-5.5258,6.5967,-3.9516,33.7314,6.9374,
18.4004,-13.5728,0.23202,20.8825,19.7409,-10.9051,9.9095,19.1124,-1.0144,-15.8265,-0.1664,-1.7813,27.2729,-1.2111,
19.7127,-12.2748,-6.0646,20.1132,21.9401,-13.6335,5.9322,15.5493,-10.1353,-16.3269,-9.3391,-1.1908,11.5366,-1.6221,
22.3963,-12.5047,-0.8671,15.0401,11.9246,-19.5818,-8.5238,10.75,-2.7609,-1.8146,-5.8788,7.5797,1.2635,10.0743,
6.9525,-21.4207,-5.6487,6.405,-2.8909,-32.5069,-3.5787,-1.4941,-7.4289,-15.8057,-9.3924,3.2586,5.054,9.4699,
7.5863,-13.8528,-7.7261,2.6379,-13.2655,-28.5383,10.736,1.9792,-10.3658,-26.3728,-8.3461,3.5467,10.0672,-5.1983,
21.2311,1.0784,-1.463,16.5797,1.6304,-12.726,6.1414,10.5591,-1.0453,-10.6904,0.85416,14.9325,15.2627,-13.5014,
23.7391,8.6618,5.8743,19.3658,0.48071,-9.1479,-6.3102,4.6096,2.4006,4.051,0.31973,11.6197,17.7292,1.3246,
10.2329,3.7931,9.8718,4.1038,-10.6636,-17.7809,-1.5816,0.95032,-8.8589,-10.2921,-8.8822,-3.1775,4.5836,1.7287,
23.6339,14.6814,7.829,9.259,-3.7406,-6.5654,11.5628,9.1092,-5.9105,-23.7745,5.7508,-7.2518,-1.0073,-12.475,
18.8332,9.4505,0.11023,14.0198,-5.9325,-0.85511,1.6863,9.0463,5.5596,-21.3812,19.337,-7.2994,13.1531,-13.0924,
9.4873,5.5003,1.5532,17.5281,-2.1943,-0.32062,-7.598,8.9858,8.6092,-17.6815,7.0609,-3.4792,26.464,1.7932,
9.8844,6.1375,1.46,9.7101,-0.12899,-8.0341,3.4906,0.71483,-6.0074,-24.3534,-7.4627,-6.1695,16.0084,10.3005,
11.2245,2.8688,1.3728,3.3279,2.7783,-10.4516,11.9807,-0.29488,-2.1792,-22.8926,6.1182,0.00021031,5.3811,-4.4175,
-0.081668,-5.036,-9.3423,5.0619,-6.0875,-8.8581,-2.8382,-2.2108,1.8179,-24.4181,8.6511,6.7666,6.0255,-3.5847,
4.7569,-7.6329,-9.7481,7.6582,-10.555,-4.4603,-11.766,-1.1109,1.7088,-27.7867,4.2657,6.3606,16.2967,0.49675,
9.7869,-6.6922,-1.9141,3.8151,-3.6389,-5.6427,-5.7437,-0.56152,6.9227,-16.9368,13.1925,-0.30471,19.6679,-4.8494,
4.8501,-1.9412,1.5839,-0.76338,8.6616,3.8791,-11.6823,-2.9437,5.0568,-1.8206,15.7841,-0.76961,8.3383,-2.1416,
0.69232,-2.7915,-5.2779,-3.618,4.2751,5.5795,-3.2491,-3.7348,-9.3466,4.9704,2.2712,2.1761,-2.7942,0.88641,
-1.2819,-4.5567,-12.6931,-2.4337,-7.5804,-5.388,2.7459,-7.3762,-16.9171,5.6386,-11.9651,7.8455,8.9725,-3.9995,
1.6954,4.4162,-8.0656,-0.35447,-8.0915,3.6348,-11.5189,-7.9004,-1.8021,19.4003,-7.7795,20.9071,22.5341,2.04,
-0.34039,5.1171,-5.6485,-1.3,-15.3392,8.249,-20.8923,-5.4932,7.4042,16.7017,-5.3804,23.5185,13.8485,5.7835,
4.9968,6.2606,-4.8264,6.0275,-8.1357,12.1045,-5.5387,6.9186,-6.0887,10.3837,-3.6071,18.7252,6.7344,2.0533,
7.597,10.7176,-1.6368,7.5995,0.085179,13.311,2.4422,9.4035,8.3767,10.7279,-0.49072,12.7689,16.963,-4.8353,
-2.042,0.89233,-3.9554,4.7267,-11.0358,-1.5877,-11.8043,-5.2607,14.5554,0.90109,-7.7108,4.7533,3.863,-5.9957,
5.8137,-6.8944,6.9151,8.3099,-14.2405,-10.1069,-3.2788,-7.7605,6.9162,-3.0189,-1.4486,10.2676,3.6307,8.4641,
6.9149,-4.0644,6.9829,11.1941,-13.8688,-2.2514,6.0997,-0.045798,-3.6479,-12.0205,3.9546,-4.4485,16.462,-1.7942,
10.3664,10.2795,3.6648,21.1551,-2.4049,11.9836,-0.065324,3.8233,6.2364,-1.6338,7.5837,-8.9306,20.3079,-2.6529,
2.4949,10.545,-4.7719,5.7858,-7.5765,7.3142,-14.0773,-4.622,-1.3873,-1.0526,-3.9872,-5.978,4.9894,2.8221,
0.41152,8.9459,-1.5855,3.5891,-10.0219,6.8753,-7.4336,2.4217,-8.0704,-3.8894,-6.648,-4.6529,3.8069,5.5528,
-0.57907,10.3423,2.3764,8.207,-12.3201,-0.30311,3.6456,3.2432,4.0133,-3.6556,-1.4159,-9.2069,10.3453,0.38739,
2.8389,2.4723,5.617,15.9314,-13.9968,-1.7354,2.9437,1.5982,12.9557,1.8805,4.9522,-5.2713,18.9068,1.8137,
5.084,0.87393,4.7963,19.3246,-8.8079,12.3842,1.3171,4.8859,3.962,2.2504,2.2378,-0.60505,24.0551,6.0539,
0.42985,6.1379,-3.7069,4.0651,-0.06308,11.1584,-3.111,-6.5236,-2.5584,1.6327,-2.2455,-2.0187,14.3964,2.308,
3.7872,11.0864,-2.0349,10.1889,-6.3425,-3.6111,-5.3412,-14.3481,0.010986,-1.8484,3.2051,-5.2808,5.3167,-2.18,
7.4264,3.6549,2.9199,16.343,-9.8283,-11.043,9.0793,-2.8545,0.010329,-14.3039,5.9128,-12.6967,19.0977,-0.11559,
-1.2351,-2.8476,-5.4712,1.2624,4.8614,-3.1309,18.1158,-5.1,6.2929,-18.7616,-1.6915,-17.2508,32.0518,-1.5591,
-11.7933,-2.6763,1.623,5.1376,-4.2139,-4.8762,3.4966,-4.7936,20.0153,-8.9363,3.2432,-8.4835,26.5769,-3.3987,
-14.9529,-16.6157,9.2583,15.4621,-18.0611,-18.6837,-2.5131,-2.5732,15.3466,-3.5674,13.6804,-6.0417,15.3159,-0.29482,
-9.2221,-19.8842,-2.8963,5.8353,-7.7101,-21.8281,7.304,-10.1516,0.32585,-6.2534,4.1605,-8.5783,6.6642,-1.2435,
4.8634,-4.5911,0.17705,5.4847,6.8525,-10.8525,20.9658,-9.542,3.774,-4.9114,2.9449,-1.2977,13.9976,-5.0357,
9.4044,3.8156,9.8328,6.1229,20.5413,-24.3014,32.6728,-14.7695,3.5476,-5.583,7.601,-9.9189,13.1577,-3.7663,
11.7396,-6.0792,11.176,11.5541,33.4088,-36.9433,34.5783,-20.6492,-4.3984,-2.3485,8.1117,-18.0233,12.3678,-2.5744,
20.7016,-1.8481,11.4718,11.8282,45.5043,-48.8267,34.4372,-22.3103,1.6655,1.6587,9.5577,-8.2429,25.1584,-6.2863,
22.359,4.0623,7.8839,8.218,56.8741,-56.7602,30.4369,-20.9721,4.4651,-10.0403,7.0511,-12.5815,26.5485,-5.9096,
20.5343,12.0345,4.0277,7.2418,67.5616,-63.5032,26.1948,-17.297,2.7476,-12.8201,6.1448,-14.2425,21.5724,-5.0709,
15.4364,17.1129,2.8202,1.975,77.6079,-49.0603,26.5563,-17.225,1.616,-4.3187,3.843,-11.4547,21.2449,-6.6998,
12.0934,15.602,2.1669,8.1388,87.0514,-34.0344,25.4461,-19.5747,4.9022,1.2573,0.22922,-14.1506,17.5533,-4.8483,
14.2673,17.5654,5.9037,9.5836,95.9284,-31.026,19.0861,-16.467,4.6076,3.1141,-1.7177,-9.4357,2.4001,-1.6579,
18.2444,21.3447,7.4826,7.0754,101.4952,-34.964,12.1414,-6.7804,-2.4348,2.9277,-3.5478,-2.1027,-2.0093,-3.4916,
16.6657,21.5135,5.5832,9.0677,97.8223,-35.2829,20.5961,-4.9231,2.0609,9.0343,1.0146,-6.3261,12.2113,-4.7316,
7.4503,14.9073,-0.068142,3.2073,88.5702,-29.7823,27.5758,-10.9105,2.4208,10.9095,2.4037,-16.0965,25.4099,-5.8977,
12.3196,20.2956,2.3532,9.2976,75.0396,-20.7459,21.5722,-5.9068,-4.0071,5.9049,2.7431,-9.8144,17.6026,-1.1939,
13.5136,18.111,6.0779,7.7729,62.8041,-27.2343,9.6447,-4.5855,1.0656,-0.24889,0.64535,-7.2924,21.3796,-2.089,
6.4201,13.6416,1.3633,1.0238,60.4858,-24.1502,13.416,-7.6931,6.318,2.1824,-2.777,-3.4712,21.5468,-6.3137,
5.0681,18.6227,-0.65172,-0.9708,65.5562,-8.6012,21.3106,-4.332,-0.82699,14.6173,2.2228,3.503,6.154,0.83194,
-4.4187,3.4899,-2.0617,-12.9943,51.4738,-15.902,5.9319,-12.2884,1.639,15.1903,2.5731,-1.0563,-1.8638,-1.6343,
0.19594,-5.9027,1.4452,1.8003,38.2358,-26.0637,1.311,-18.7997,15.6407,21.5284,3.8682,4.323,12.348,-2.9867,
8.8837,-4.5817,2.3244,7.4918,31.1085,-20.6336,11.8646,-14.7722,8.8186,19.2699,3.6366,4.0632,19.2553,0.092006,
3.5171,-4.3068,6.0513,-1.6568,24.4093,-17.4628,8.2528,-2.2877,-1.3769,17.1473,4.3847,1.8867,17.1336,2.0201,
-2.9762,-10.3316,2.305,0.85945,12.7952,-26.5641,0.50806,-0.7,1.1225,16.6017,4.6048,1.2903,16.5888,0.44938,
-2.7976,-13.578,-3.6324,5.6406,8.1611,-24.9703,3.3776,-2.5916,2.0215,8.8392,3.3622,-5.5535,15.5934,1.3888,
-2.1466,-4.5475,4.8015,7.7181,4.2883,-10.423,6.5581,7.7134,-1.4829,6.8593,-0.22271,-8.6035,12.241,2.755,
-8.7842,-3.3073,2.5797,-5.3105,-10.069,-9.7976,-2.5345,2.4179,-7.193,0.64778,-8.9084,-8.0873,2.8075,4.5233,
-2.9403,3.1734,1.9418,-1.6087,4.1519,-1.9602,2.9335,-2.0767,-3.3783,-7.607,-3.058,1.5812,8.9222,17.3005,
-3.7312,1.0502,-3.0074,-2.4785,5.8365,0.090574,1.7911,-0.019417,-8.9756,-14.8833,-6.7409,-1.4137,4.5205,14.3289,
-9.7895,-2.3959,-5.2429,-12.4793,-7.5623,-0.39804,-0.73315,3.3649,-11.8193,-6.7407,-9.7196,-8.5784,-2.0339,5.2542,
-8.7195,3.0642,-3.4792,-5.4478,-1.7932,11.7081,-4.0719,-0.21969,-13.5274,-13.5863,-8.6528,-12.4137,4.3709,-1.3447,
-3.3627,5.7803,2.5295,1.6454,7.9808,21.6388,0.038787,0.75985,-12.7148,-23.4029,-2.3336,-4.9025,12.8086,-2.2304,
-3.6445,1.0835,2.8605,-5.7024,2.1856,10.1905,8.2519,-0.73574,-7.6029,-21.516,-1.7109,-6.0584,10.5901,2.2534,
-9.709,-3.331,4.1393,4.7883,2.5376,-0.57004,6.3072,-1.1748,3.9692,-22.641,2.7413,-16.8108,10.4379,5.5005,
-18.3087,-17.2312,6.3068,4.9842,-6.7969,-14.6358,-1.3207,-11.2538,3.2479,-26.5993,14.6591,-26.918,13.1948,-6.9118,
-12.3775,-24.8123,7.8621,4.6852,-17.9881,-16.5731,3.5912,-11.5449,1.1193,-10.9034,19.5795,-18.5366,7.5694,-9.3962,
-9.2185,-9.2235,4.974,1.0213,-7.7271,-1.5633,7.7258,-4.5695,3.4685,3.8508,7.2884,-3.3244,-0.1338,-1.5833,
-11.0817,4.2944,6.1255,-0.48994,1.9193,2.8805,5.8122,1.021,0.84407,2.4843,-1.3643,-1.7595,4.2242,-1.0047,
-5.5837,6.9362,0.92483,4.3726,5.6709,0.77449,-1.3024,5.7929,-8.8725,-9.2634,-8.0493,-15.1862,4.9367,-3.8449,
-8.1482,6.5205,-10.7302,-9.9897,5.3311,9.4276,-9.9238,-2.2878,-14.1397,-3.8744,-17.2322,-12.3418,-7.9245,5.0854,
-9.5925,3.2288,-6.2196,-9.7894,-2.7219,22.9619,-8.3616,0.74989,-4.5917,10.4581,-8.4651,2.4987,-6.4831,18.8802,
-13.3669,-5.1803,-4.3964,-3.8857,-16.6586,22.4664,-14.1426,3.1213,-2.8662,16.5119,-4.5745,11.9301,-1.7441,23.4633,
-9.6644,-1.97,-3.1658,-6.5521,-13.6413,23.0516,-5.5609,5.8335,-0.76109,8.7553,-6.2323,8.3147,-5.5054,15.2896,
-11.5019,-1.3681,-4.4258,-5.6762,-20.0728,13.4522,1.0546,4.9999,-5.0654,3.88,-5.3756,4.4331,-12.4251,16.7877,
-11.2945,-2.736,-5.6103,-9.6847,-29.0175,3.4623,-6.2578,6.1499,-10.0778,-6.5019,-3.6031,0.78352,2.3359,8.5313,
-7.2336,10.4767,-4.7905,-8.6205,-13.1765,17.2705,-9.2655,-0.50138,-8.0227,-12.3949,-1.9374,2.187,9.4453,-5.0301,
2.3822,23.9481,-1.1203,4.9449,1.7141,30.3343,4.3395,-0.95493,-0.29228,-4.4022,2.5279,7.3712,6.4622,-4.2446,
-5.493,25.3271,-2.9863,-1.1504,-4.357,17.7974,1.1796,3.9355,-3.1743,-8.9703,-1.4896,2.0967,-1.6578,-12.6895,
-10.963,19.9407,-5.7067,-5.9146,-17.6278,4.1636,-12.4234,7.5653,-7.817,-7.4653,-9.1325,-3.8287,-15.6583,-11.9277,
-13.6884,11.4956,-9.7138,-11.8419,-26.7187,8.2634,-10.2285,-4.9709,-11.6975,-5.5678,-15.8341,-8.9149,-28.8188,0.87026,
-10.4507,4.5223,-7.6819,-9.6823,-30.4329,13.0839,-12.032,-7.089,-2.7802,-9.5837,-12.4677,-1.1318,-20.1551,4.2008,
-12.7227,-0.5818,2.4454,3.4649,-31.506,2.633,-25.4101,3.0027,5.1202,-4.1751,-6.8869,12.4688,-9.2795,-0.884,
-17.7594,-2.4805,6.165,4.2234,-30.5829,2.4745,-17.5173,0.88892,0.94572,6.7072,-5.5073,11.7207,-22.2554,2.069,
-10.8938,-2.3317,1.9288,1.07,-36.4807,6.1934,-2.3663,-0.13078,-4.9101,-4.327,-5.176,-2.5144,-26.7201,-1.9215,
-7.8238,-2.6745,8.0957,0.52217,-38.6409,-1.4282,0.59114,5.1934,0.70087,-17.1165,1.4173,-2.8471,-14.9678,-10.9889,
-17.0207,-0.58132,9.5436,3.3908,-33.4224,-5.2089,-13.5443,0.049105,1.6252,-8.3568,2.2986,6.0237,-13.1025,-11.2959,
-15.0331,-1.5128,3.171,10.9201,-27.5517,-1.0305,-14.098,-0.92112,3.4604,2.7764,5.0598,5.6613,-19.0827,3.4818,
-5.4321,-6.2548,2.9808,2.5322,-33.6313,-2.9014,-14.2185,7.8332,6.1528,-3.1892,4.7571,-7.2438,-27.6041,11.4038,
-3.1721,1.8528,16.9019,-3.4193,-45.7134,4.0386,-23.0313,15.0964,-0.9823,-3.9647,-4.2278,-4.876,-24.0146,-3.3804,
-1.5327,11.8907,27.4028,0.16858,-52.5519,17.8963,-17.2994,15.6406,2.4594,8.3559,0.3749,9.5166,-8.5583,-2.1262,
-9.1725,-1.3882,11.6586,-4.6733,-47.4652,16.7384,-21.0942,6.9695,3.2791,1.0891,2.286,1.1292,-18.6766,4.7677,
-7.6567,-12.904,0.89458,3.3389,-30.5173,5.1014,-5.7285,7.5177,3.0823,-3.8099,5.0489,-4.7394,-24.3224,-1.3184,
-10.5796,-22.2793,14.9409,-2.1774,-31.6703,-9.3047,8.7152,-0.18294,0.48057,-4.0645,1.3628,1.829,-15.6135,-15.3392,
-7.0452,-6.8425,21.6926,5.6855,-31.7042,-5.7623,-5.9077,0.79486,0.4522,-5.7538,0.31419,8.4852,-5.0108,-7.568,
0.62747,0.25029,17.0083,14.5271,-31.251,-6.8661,-19.6532,-1.6692,6.7078,-4.9249,4.6453,3.6261,-4.2265,0.13518,
-5.2102,-13.8647,8.2542,5.9228,-41.9423,-20.5541,-7.8423,-8.3354,7.2717,6.0024,7.2657,-0.45785,-5.9066,-0.83929,
-13.1135,-11.0151,7.2758,2.1842,-43.7753,-5.2209,-5.9213,-0.58574,0.5522,10.9591,1.5139,5.8528,-4.1026,5.4942,
-15.2271,3.7458,8.7724,-3.7464,-55.2488,9.1924,-19.666,12.9817,1.4859,-3.7985,-5.3429,3.5675,-17.9565,16.7632,
-22.5294,1.5029,-1.9026,0.82888,-66.0339,22.7408,-27.1015,24.285,2.8472,-0.58693,6.0936,-1.9624,-30.9791,20.1079,
-35.2776,-3.9037,-3.2384,4.1619,-76.1718,35.4764,-15.3254,30.0779,0.25908,13.5483,19.828,11.2044,-15.4185,13.5841,
-47.261,-14.7853,-3.5273,-10.1878,-85.7015,47.4478,-28.5059,21.9901,-1.206,13.1349,7.4378,11.0153,-20.7766,1.6541,
-36.5239,-11.9646,-4.2829,-13.3588,-94.6594,58.7009,-40.8955,21.637,12.9664,12.3468,2.1588,10.3544,-33.63,5.4212,
-40.6152,-12.6967,-18.0414,-18.84,-103.0799,69.2789,-52.5418,12.1224,3.4047,25.706,5.412,10.2168,-45.7122,3.6459,
-43.9778,-16.7681,-24.6912,-21.5764,-110.9951,79.2221,-41.8874,8.4956,-10.8996,27.945,1.2214,15.4033,-35.5517,2.4604,
-30.2233,-10.4452,-18.8601,-12.065,-118.4354,80.1604,-37.9237,17.169,-5.3283,25.7851,1.6313,26.5614,-28.1018,9.5623,
-32.7599,-9.3357,-19.1785,-18.5911,-123.2204,62.3018,-34.1992,5.0225,0.30684,21.8216,3.9498,17.7177,-39.4647,4.6385,
-25.9606,-7.8083,-10.2951,-6.8429,-101.7272,58.5646,-18.0472,8.5875,0.28935,18.5796,5.6455,18.5883,-32.2641,4.3602,
-11.8376,-11.2071,-0.97833,6.1331,-89.425,55.0498,-12.699,22.1723,4.1383,15.5312,4.3404,25.2057,-16.2283,13.764,
-18.3768,-19.7169,-1.4028,3.3492,-98.1595,37.6468,-26.037,13.9915,5.3396,11.2162,2.6305,13.5438,-16.305,11.4887,
-25.9733,-23.3666,-2.285,5.081,-93.1517,29.673,-10.3748,-0.94803,3.0865,7.6432,6.339,8.8648,-23.0604,8.8666,
-25.8644,-25.3478,0.26892,5.2602,-73.4626,35.1422,4.3477,3.0602,3.3845,6.7023,3.5418,11.717,-14.4263,13.6505,
-27.6967,-26.2438,-2.164,5.4268,-59.9571,29.6505,-10.0132,-0.50747,7.5309,16.4488,-4.8866,9.5635,-6.3121,11.382,
-24.1012,-23.7019,-11.6996,-2.6306,-70.4597,23.0387,-23.5124,-13.0425,3.2127,19.3282,-10.3924,4.157,-13.6652,0.066328,
-8.5552,-8.1797,1.0841,10.5754,-52.1321,35.7564,-8.0017,1.8401,2.5363,18.6522,-0.58711,15.023,-7.5298,14.1623,
-10.5428,6.411,2.4691,11.3909,-47.071,47.711,-14.7711,15.8297,-3.8986,4.4831,-4.9019,10.738,-14.328,16.6108,
-15.2261,11.1731,-1.0622,0.55883,-58.3468,34.5306,-16.3007,0.7799,9.3849,5.6645,-4.1237,13.4778,-20.717,10.2982,
-13.8289,11.9527,-4.3812,-2.8583,-40.746,38.7415,-10.0063,7.899,7.3718,5.8083,-3.3926,16.0519,-20.9239,4.3649,
-7.1996,17.0351,1.6812,2.1463,-24.2012,50.517,-16.1718,21.5251,-1.7701,5.4593,-1.2559,15.0892,-7.1026,11.8352,
-9.1849,15.5303,-5.6697,1.5339,-26.6991,51.2682,-6.9861,10.4831,1.7189,3.6818,-1.6642,16.6002,-16.8255,7.7424,
-17.3329,12.6648,-8.2295,-4.3572,-39.1972,34.0921,1.1658,-1.7459,2.5821,0.56088,2.302,8.8379,-28.3824,-3.3548,
-21.1261,13.8381,0.96381,-9.8953,-26.6117,30.6807,-12.4364,10.9248,-7.2378,-0.43867,0.23075,2.5081,-12.5794,-0.25402,
-19.3749,13.4915,2.356,-6.8852,-22.5987,38.0226,-22.8057,9.7866,-20.9035,-5.7287,-13.8831,1.8748,-5.1424,-2.6551,
-16.2792,10.7488,4.1478,-5.5053,-35.3427,28.009,-20.4705,-0.46654,-16.6652,-2.4854,-21.6651,4.6619,-18.9339,-4.429,
-11.9198,9.6202,4.3826,2.0741,-32.1712,16.1784,-17.7932,2.9442,-1.5653,10.7128,-6.2652,9.6985,-9.0137,6.9522,
-7.3382,8.0767,0.25326,9.6824,-16.141,18.1077,-10.9256,1.8012,1.344,11.0363,5.6252,10.083,5.6271,9.435,
-7.8638,2.7589,9.904,1.3692,-8.0071,14.1217,-9.3032,-10.8728,-6.4698,3.6083,-3.4109,8.5112,-6.8773,2.103,
-9.8093,-7.5557,18.4924,12.4025,-21.6267,-0.82558,-10.1951,-9.7377,1.1675,12.5745,0.17648,15.2496,-10.8147,10.1923,
-17.9203,-21.2024,5.7834,12.6251,-34.4291,-14.876,-8.6175,-10.1193,5.9306,12.7868,1.1318,2.736,-5.3336,8.6149,
-2.745,-5.8302,16.5522,13.3172,-18.2633,0.11652,5.9996,4.5028,6.058,11.5364,3.4807,-10.4777,6.1033,9.5475,
10.8678,8.6196,7.8269,-0.04776,-3.0675,14.2095,7.4887,1.3331,-8.4055,-3.2557,-10.8281,-20.4813,-8.3629,-5.1253,
16.0157,22.2024,1.5573,-8.744,11.2165,27.457,5.1066,2.2204,-17.9652,-15.059,-19.2761,-12.486,-21.7925,-9.0828,
19.888,34.9703,0.497,-14.0189,22.5412,39.9095,-0.99929,1.1203,-23.6541,-16.0886,-23.92,-25.8369,-22.4181,-13.371,
22.0774,46.972,5.7835,-11.7277,10.0733,51.615,-4.323,8.3022,-24.6512,-10.7733,-22.0012,-24.2026,-21.5567,-14.0187,
27.0359,58.2537,1.087,-3.7745,6.0853,62.6181,-2.6131,21.9041,-11.0899,-0.94467,-7.6325,-8.6504,-20.7464,-3.0281,
34.1129,68.8585,-2.8446,4.1847,12.4865,72.961,5.2764,29.2048,-0.75817,7.812,-2.3409,-0.48278,-26.268,7.7863,
17.9661,62.7705,0.22562,-10.1664,-2.3627,62.845,3.0266,13.3525,-11.3449,13.1428,-12.8327,-9.1533,-34.3578,1.5196,
2.7881,54.6552,6.4957,-11.4051,-16.3209,52.7916,-3.4377,-1.5487,-12.1142,17.6706,-8.68,-9.0878,-26.0136,-1.9552,
12.4559,47.0259,2.7223,3.3793,-13.2398,43.3414,3.0513,6.4457,-3.1719,6.4604,1.9898,-5.1589,-17.2028,-2.3215,
15.5744,43.2375,-8.0733,-4.6412,-8.5791,34.9414,1.9014,7.0257,-4.9148,-8.0272,-2.9627,4.8165,-16.1711,-9.9145,
1.1077,40.6437,-6.622,-1.4623,4.5016,40.5772,-2.0786,4.671,-1.7195,-2.1447,-0.85178,8.3944,-6.5013,3.2463,
1.0412,25.6397,-2.3584,10.2245,8.0978,45.8752,-0.021164,11.1571,9.9828,9.5831,12.732,-6.2093,1.6215,13.6842,
15.0788,19.2681,-0.28368,9.6106,-3.0207,43.1232,-4.8531,11.4545,10.3497,8.0413,9.0686,-13.969,-10.0753,7.0627,
11.6736,26.8111,-5.1003,10.0003,-2.8395,54.0676,1.2381,12.6999,6.8297,8.5261,-1.1419,-0.56541,-17.2035,20.7389,
-3.1268,22.7856,-14.9438,0.21802,11.3463,54.2067,13.2461,13.3875,3.0358,5.5977,0.37616,1.8853,-4.0891,33.5946,
-4.3051,23.8348,-10.6635,1.6549,24.6814,42.738,7.135,14.0342,4.3045,1.8791,6.6372,1.2886,9.2063,45.6789,
-3.5636,24.8216,-11.4733,1.0725,11.1183,34.8578,-7.3931,11.7426,6.4622,2.2495,3.8222,2.6617,6.2371,57.0382,
-5.2825,20.4323,-11.7522,1.9745,-3.0815,37.599,-3.9654,16.8372,8.9744,5.9809,7.4592,-0.39798,2.9628,39.5159,
-4.4819,10.9909,-13.4625,0.40601,4.3534,31.9604,10.3725,9.5451,2.1533,-0.66064,9.428,-2.7905,12.9351,23.0449,
-8.0803,2.5987,-10.722,-5.4174,7.9581,15.9427,2.8992,-5.1276,2.0241,-4.4874,5.9623,0.27696,6.359,7.5622,
-3.7287,10.1751,-1.3791,4.5735,2.6479,10.7212,-6.9406,9.2796,10.6022,8.3468,7.5378,9.9262,-8.1226,1.708,
-6.8881,3.2814,-4.6796,-1.0177,0.072167,21.1929,7.5758,13.0724,5.6156,5.4301,-2.0967,4.9802,-8.5179,-9.5103,
-17.1076,-7.5473,-4.3988,-2.8894,5.8678,26.6877,21.2213,-1.812,0.44592,-8.4284,-4.8709,-2.084,5.5259,-15.7052,
-1.9811,7.0055,6.0142,11.384,19.6158,30.4028,14.9466,6.114,0.9028,1.26,8.4704,0.45736,-8.9057,-0.66284,
12.2378,20.6852,4.6865,9.6496,32.5388,42.1118,7.2839,17.3467,-4.9509,-0.74874,4.0963,-1.5033,-22.4713,-1.6745,
20.5175,33.5441,-2.361,7.1379,28.9678,53.6851,20.9469,9.5396,-0.78749,-12.3029,-0.01587,-11.0794,-35.2231,-5.4404,
15.9033,37.5614,-13.3343,-3.4399,41.3297,36.364,33.79,-5.1328,-3.1571,-25.6647,1.4346,-24.5147,-38.1732,-19.2139,
29.0491,49.4077,-12.0515,-17.3335,52.95,22.5826,43.193,-10.0571,-17.0676,-38.2248,-12.7515,-37.1438,-49.9829,-32.1611,
41.4062,60.5432,-1.1789,-18.6258,63.873,35.3277,26.5015,-3.1705,-30.1436,-36.2458,-26.0864,-49.0151,-61.0839,-44.3314,
53.0218,71.0106,-8.3577,-20.8914,74.1406,47.308,39.0114,-4.4298,-41.2149,-35.5206,-38.6212,-43.4037,-71.2651,-39.0019,
63.9405,80.85,-11.7231,-21.5711,83.7921,58.5695,50.7707,0.66825,-52.842,-47.4894,-50.4039,-53.3654,-52.8892,-31.8286,
74.2041,90.099,0.096662,-25.5932,92.8646,69.1553,33.6244,3.0445,-57.3201,-58.74,-58.6409,-64.2635,-63.8159,-42.0016,
83.8518,98.7931,2.5072,-26.474,101.3927,79.106,44.1729,3.3455,-50.4982,-56.0142,-55.6061,-65.6404,-74.0869,-38.9979,
92.9207,106.9655,-9.7255,-17.636,109.4092,88.4597,55.6225,-4.1048,-46.9851,-42.5038,-46.9539,-48.6524,-55.5417,-24.5758,
80.4721,114.6475,-5.276,-15.611,116.9446,69.0521,66.3851,-6.758,-37.3992,-40.9195,-30.0366,-48.6328,-38.1092,-27.9344,
67.9102,93.6687,-2.0595,-17.5743,124.0279,50.809,76.502,-8.2862,-36.1225,-42.3316,-17.2031,-53.4485,-47.5068,-40.3583,
49.7356,73.9486,-5.3191,-13.1367,120.5756,33.6604,86.0119,-11.1722,-38.3038,-34.4749,-21.4868,-37.192,-44.1723,-35.9191,
32.6514,55.4117,-0.16723,-7.5158,99.241,17.5408,94.9512,-20.1673,-21.9055,-25.6401,-13.4312,-26.2614,-32.8228,-19.6639,
16.5923,37.987,2.7428,-6.0976,79.1866,2.3883,103.3541,-14.1245,-6.4912,-12.5026,-4.8927,-10.5857,-28.9208,-19.0514,
1.8355,21.6077,11.761,-3.3153,60.3354,-11.855,111.2529,0.82293,7.9983,2.3476,0.71726,4.1494,-15.1028,-3.8083,
-5.5246,6.2113,5.7389,-6.5001,42.6153,-25.2437,118.6777,10.8381,0.98194,16.3067,-4.6421,8.5649,-28.2966,2.6183,
-19.2931,-8.2614,6.8446,1.1399,25.9583,-37.829,125.657,-3.9122,1.4067,10.8101,5.7855,-5.9644,-40.6988,1.0112,
-32.2355,-21.8657,16.5825,7.3538,10.3008,-41.1906,132.2176,-4.0761,12.4372,15.4774,9.7879,-2.2243,-49.2041,1.4337,
-34.9654,-34.6538,9.7885,4.9798,-4.4172,-30.9865,138.3846,-4.7979,12.6583,16.4815,15.0006,-2.0908,-32.1519,2.3141,
-34.8007,-46.6745,-4.8988,-0.15212,-18.2522,-23.3277,144.1815,-6.4432,3.1993,11.6267,28.2006,7.7014,-16.1228,3.142,
-40.4449,-57.9741,-9.8367,4.6902,-31.257,-7.8281,149.6306,4.5756,-1.8259,13.8286,37.5403,21.3394,-9.5241,3.9203,
-39.4682,-62.4587,4.769,8.7588,-43.4816,6.7416,154.7528,14.4511,11.3327,27.0989,29.0052,19.9749,5.1474,1.2688,
-26.9515,-62.0944,8.8333,0.016428,-54.9727,8.1016,159.5676,26.6326,15.0023,31.6716,22.9144,4.6764,18.9385,-8.9569,
-22.4344,-50.6369,7.336,-1.9182,-37.5744,21.7155,164.0935,39.1347,0.56947,21.0713,16.7059,9.3126,3.7022,-10.3531,
-35.1883,-47.1146,4.479,-5.1854,-21.2199,34.5126,168.3479,50.8866,14.6353,21.2575,20.054,22.8539,-10.6199,-2.4824,
-47.177,-58.3877,-9.8897,-9.2242,-16.7715,46.5418,172.3471,61.9334,27.8572,22.3984,20.3008,29.614,4.1173,-13.4489,
-44.1777,-63.4999,-23.3963,0.028292,-1.6652,49.7797,176.1062,72.3174,15.3853,23.9545,24.8818,22.0381,14.9011,-19.4083,
-48.2934,-60.6563,-11.6743,-11.5725,12.5347,60.8929,179.6399,82.0784,4.7958,22.5172,32.0889,13.9494,7.2407,-16.3102,
-56.0285,-71.1169,-4.2075,-11.8445,5.8144,71.3393,182.9615,91.2537,18.6081,24.0662,44.2635,22.7788,15.5062,-18.2316,
-66.7668,-80.9499,-18.0551,-14.0334,19.5655,79.4557,186.0838,99.8784,23.6902,19.7217,39.1063,23.3453,16.509,-31.2377,
-75.7253,-85.5901,-19.3036,-13.1918,32.4916,65.0225,189.0188,107.9857,8.1688,23.3716,26.1277,17.1114,26.1507,-40.3952,
-73.5977,-66.3547,-10.8958,-9.9835,44.6421,70.3034,191.7776,115.6066,0.99686,24.3861,14.4105,11.7351,29.8985,-33.621,
-59.0328,-48.2734,-9.7593,-14.7008,27.8636,51.9852,194.371,122.7702,5.287,15.673,11.1295,11.5138,17.9546,-37.8874,
-47.2749,-37.3298,-3.857,-16.2347,12.0918,41.7011,196.8087,129.504,5.453,22.9494,11.9122,16.1397,11.5614,-39.9637,
-58.5384,-49.105,5.5567,-13.8111,-2.7337,53.2991,199.1002,135.8337,12.3754,35.6724,17.4797,29.2714,19.0837,-32.249,
-69.1261,-60.2587,-8.8767,-21.6815,11.5303,64.2011,201.2542,141.7837,2.9338,19.4321,14.4982,19.6973,27.605,-34.1805,
-79.0785,-56.0759,-11.6432,-11.6815,22.8371,74.449,203.2789,147.3767,4.6905,4.1662,16.5274,5.9501,40.0487,-31.1633,
-60.2338,-55.6113,3.1554,-7.1143,7.3668,84.0821,205.1822,152.6341,16.0081,18.0162,18.4358,9.4594,32.2448,-22.5271,
-51.1348,-62.9073,5.2988,-9.5874,-7.1752,93.1372,206.9713,157.576,7.3149,31.0352,16.3633,22.4236,16.2101,-17.3101,
-55.7994,-45.0329,-2.7518,-8.0458,-20.8447,101.6489,208.653,162.2215,2.0433,21.3554,9.5815,17.2128,19.6712,-22.0705,
-45.6855,-28.2309,8.0455,-6.5962,-33.694,109.0589,210.2338,166.5882,9.6529,19.1072,5.1407,3.6141,32.5909,-34.8463,
-55.0271,-40.6371,0.31373,-9.5832,-20.2191,105.899,211.7198,170.6929,3.7574,24.2435,3.3823,5.8136,39.2504,-40.4041,
-58.4914,-37.3166,-5.5051,-14.8082,-24.8059,104.3778,213.1166,174.5513,1.5992,16.9898,12.8447,18.0303,22.7954,-26.3808,
-44.3492,-37.9767,8.9252,-7.1533,-37.4176,92.3161,214.4296,178.1782,4.4033,1.8704,20.7741,11.1494,16.1959,-27.697,
-29.6055,-49.7981,22.4897,6.3254,-49.2725,92.093,215.6638,181.5876,6.555,3.776,21.9444,-0.63549,18.6073,-34.2511,
-31.2119,-44.3097,35.2403,2.5622,-60.4162,99.6165,216.824,184.7923,10.5117,12.7321,14.3451,-2.0474,8.3082,-26.8797,
-35.6228,-27.5511,19.0259,-1.941,-42.6912,85.4236,217.9146,187.8048,13.2642,5.685,2.3675,-4.3413,-6.2062,-23.8174,
-29.1355,-21.6326,13.8493,-8.1068,-26.0297,84.6477,218.9397,190.6365,13.9179,7.7607,10.4423,-3.5968,-1.4834,-21.9051,
-32.221,-34.4347,9.152,-12.4541,-10.3679,93.6689,219.9033,193.2983,9.2164,8.2614,19.4812,-13.0473,4.4047,-24.4572,
-16.1877,-18.2686,6.6697,-1.0746,-23.2786,73.9487,220.8091,195.8004,17.363,8.7317,16.3791,-11.2986,8.9727,-20.0902,
-5.1515,-3.0725,6.2695,-13.5755,-35.9819,55.4118,221.6606,198.1524,7.6221,8.2087,2.831,-4.8207,-3.1638,-18.8848,
-2.9092,-16.9881,19.9933,-10.8278,-20.6889,66.1871,222.4609,200.3632,5.2307,21.2484,16.7611,8.0345,7.6582,-3.6517,
-8.5342,-29.5011,19.1928,-7.2786,-5.3475,76.3159,223.2133,202.4414,2.9846,19.0067,16.1545,4.6529,9.1319,7.5992,
-14.7876,-29.6642,11.2753,-5.8751,8.9051,69.2369,223.4226,204.3949,-0.094017,14.9667,12.2857,-0.45948,9.5508,3.2773,
-21.633,-32.7175,2.8657,-5.5221,19.9694,58.3159,206.1504,206.2312,-3.9552,9.2365,5.749,-6.2314,8.9782,-2.7189,
-28.0682,-33.654,-5.0385,-5.1912,31.3371,49.0174,190.8819,207.9574,-7.5838,4.8155,1.5373,-10.6907,8.4391,-7.3889,
-33.6332,-35.018,-11.0194,-3.4293,42.5064,40.7605,177.0121,209.5799,-10.5119,2.1097,-1.9382,-14.3988,8.4159,-11.2951,
-37.4157,-32.9173,-17.1251,-1.2913,54.0561,33.4807,166.3909,211.1051,-10.849,0.049968,-3.755,-17.4017,9.8441,-13.5179,
-21.0707,-16.8423,-1.9976,5.0694,36.7127,45.5719,170.5075,212.5388,3.902,1.4965,4.6862,-2.2576,7.804,1.3932,
-5.7065,-1.7318,12.2223,11.0484,20.4099,56.9376,157.7761,213.8865,13.7333,-0.042821,7.7882,4.0769,0.086181,15.4096,
-19.4641,-15.7279,6.0044,-3.7145,31.8349,46.104,134.2095,215.1533,-1.1907,-5.3566,1.0382,-9.2168,7.3301,3.2005,
-4.1963,-14.8678,19.7441,9.1583,15.8248,35.6051,116.5761,216.3441,2.8317,-8.9016,2.9095,-9.6301,17.523,14.6075,
10.1555,-7.6931,32.6595,20.6916,0.7753,47.5688,123.6815,217.4635,16.6772,-4.0175,7.084,-3.736,10.1889,27.8311,
-4.5538,-9.6487,22.7981,5.3501,-13.3712,58.8146,130.3607,218.5157,6.4938,6.3726,-2.5237,-8.8291,-1.5388,12.0612,
-18.3806,5.0302,19.4974,10.9127,-12.7989,41.1858,133.9689,219.5047,5.1379,4.0566,-0.4396,-12.1657,3.3872,0.70482,
-19.2955,-4.5389,25.093,10.257,-26.1309,24.6146,111.8308,220.4344,12.5623,-10.2868,9.2531,-4.6694,11.883,6.4616,
-27.32,-18.3666,19.2384,3.3589,-38.6631,37.2377,91.021,221.3084,13.2586,-1.8523,8.2143,9.7108,7.7864,18.1566,
-21.814,-23.9455,9.385,-4.5744,-50.4433,32.9853,75.5798,222.1299,2.7967,12.3589,-1.944,4.2108,-6.7808,14.1681,
-29.2047,-24.4419,5.9214,-3.3341,-33.3167,16.9061,85.145,222.9021,1.663,3.3169,4.9385,-9.5741,2.8938,-0.2142,
-39.5347,-18.6254,2.1834,2.1832,-17.2177,1.7918,65.9363,223.6279,-2.7868,-10.9821,2.2259,-16.2487,16.8202,-10.3504,
-23.0626,-20.8915,2.5361,-4.2314,-19.0005,13.4529,47.8801,224.3103,5.5968,-5.8886,-7.0904,-6.0911,11.3764,2.3524,
-9.6807,-33.738,-8.7324,-11.2266,-20.2769,12.1621,59.1073,224.9517,19.2764,3.6474,-7.1477,1.5235,-3.4062,3.6613,
-13.9335,-38.396,-10.1417,-7.6534,-9.3943,4.6656,54.1109,225.5546,19.0857,2.4617,-3.8193,-5.3338,-7.9504,-2.358,
-11.647,-21.9922,-0.35,-6.7111,-22.9307,1.0034,36.7642,226.1213,3.8406,-6.8691,-7.9397,-15.1633,6.6266,2.1331,
0.65088,-7.2241,4.5037,2.3916,-35.6548,7.7095,21.1107,226.654,-1.1375,-7.4234,-1.6642,-2.6545,12.9113,6.8387,
13.6609,-8.2406,1.8171,0.7981,-19.4156,20.296,20.3268,227.1548,10.0461,-1.6616,1.8193,9.5875,-1.9634,6.9111,
16.7071,-0.013949,2.6749,3.6498,-22.5161,4.9783,5.0072,227.6255,1.7102,7.1376,-2.1567,6.1127,-7.5606,14.2296,
4.1052,-3.879,-4.2524,-1.4024,-18.2655,-9.4204,-9.3933,228.068,-12.4924,-1.0238,-11.6932,-7.7872,6.9931,3.709,
17.9589,10.4537,1.3196,-1.8014,-3.0696,-1.4374,-22.9297,228.4839,-2.9583,6.2872,-3.7421,5.7296,0.6889,3.0042,
23.564,18.4419,-0.69278,2.1735,-16.9854,-4.2507,-35.6539,228.8748,5.9178,6.8767,-5.4507,2.4862,-13.4524,6.6899,
24.0834,16.3686,1.282,-0.8574,-24.1822,-18.0957,-47.6147,229.2424,0.73048,-0.30175,-6.0905,-4.4288,1.4547,8.2217,
36.7384,29.4865,-3.1449,-9.9887,-8.6313,-18.8595,-58.8578,229.5878,-4.6297,-3.6673,-15.8741,9.9369,8.6174,-0.488,
48.4649,39.7154,-5.3726,-11.8057,3.8847,-10.4779,-69.4263,229.9125,6.7635,3.8027,-13.4717,23.4407,-4.9487,2.9249,
34.4411,23.2325,-0.70071,-11.5805,-10.4483,-23.9492,-79.3607,230.2178,9.7409,2.125,-1.5475,7.9343,-6.1013,10.9653,
23.6751,12.2568,0.30815,-3.1525,-23.9214,-36.6123,-88.6991,230.5047,5.2896,1.0307,-2.4215,-4.2254,1.997,8.3742,
29.5042,20.7036,-3.0935,-5.3802,-18.4511,-48.5155,-97.4771,230.7744,6.4227,4.3511,-10.4921,10.1281,8.1604,2.555,
37.3998,20.4282,-0.97473,-3.1242,-27.0099,-59.7046,-105.7285,231.028,4.1032,3.1232,-18.5621,21.0349,3.8039,7.2348,
24.0404,16.7862,5.3665,9.1459,-39.4893,-70.2223,-113.4848,231.2663,-3.3911,2.4531,-24.6974,18.3228,1.1593,13.0844,
11.9657,6.1131,2.1449,6.664,-51.22,-80.109,-120.7757,231.4903,-9.9545,0.37277,-24.1824,12.3903,5.923,14.2325,
25.3478,4.2963,7.3326,16.4132,-62.2468,-89.4025,-127.6292,231.7009,-4.0408,2.7668,-14.5151,4.3978,16.683,20.6276,
22.2923,-6.1105,10.2754,15.9112,-72.612,-98.1383,-134.0714,231.8988,2.4843,-2.7156,-3.4951,-9.9661,13.2657,15.04,
6.8548,-19.8439,4.3429,15.4406,-82.3553,-106.35,-140.1271,232.0849,16.4353,-6.9022,10.8146,-20.3995,8.1202,18.4871,
0.72808,-32.7533,3.1151,14.5142,-91.5139,-114.069,-145.8195,232.2598,15.365,-18.0871,14.9143,-23.0418,9.5657,22.2115,
9.3839,-33.0357,9.695,4.9438,-100.1231,-121.3249,-151.1703,232.4242,13.4763,-10.2351,3.3872,-12.9598,23.0918,18.9456,
3.9886,-16.9536,-1.5194,2.7144,-108.2157,-128.1454,-156.2001,232.5788,11.7014,3.9108,-9.3824,1.9178,18.2394,13.9425,
-6.8834,-1.8364,-13.0273,3.5179,-115.5462,-134.5567,-160.9281,232.724,5.1993,6.5761,-15.5858,15.9027,3.0451,24.7051,
-5.9872,8.2537,-12.7289,4.7564,-100.3975,-140.5833,-165.3724,232.8606,0.5378,11.4975,-14.1675,21.0617,5.8465,37.2377,
8.3875,8.2421,-3.7497,13.6537,-80.2737,-146.2483,-169.5501,204.789,2.9219,22.8903,-10.9001,10.6162,17.5775,36.4535,
16.5837,5.8144,10.5753,11.8677,-61.3573,-151.5734,-173.4771,178.4016,7.5798,17.6501,-3.4802,9.0124,22.3224,41.9994,
6.8892,-6.134,3.5735,11.1552,-65.0945,-156.579,-177.1685,153.5975,2.2918,4.0252,-1.3382,11.3712,8.4171,42.379,
10.3422,-0.93228,-10.7409,13.3868,-63.1216,-161.2842,-180.6383,130.2817,5.0543,14.4164,-1.2579,24.2216,3.0803,39.8363,
18.9044,9.2727,-11.9446,9.1999,-45.2343,-165.7072,-183.9,108.3648,10.0674,23.7014,-6.4988,24.2183,14.0109,37.9297,
14.8701,-1.9164,2.8721,9.6143,-34.8721,-169.8647,-186.966,87.7629,6.5633,8.7466,-8.0425,8.6652,22.8357,36.6203,
12.0447,-8.5673,16.7997,10.0042,-35.6793,-173.7729,-189.8481,68.3971,2.3036,-3.3777,1.1395,0.98035,29.1987,40.2226,
17.1211,6.0468,7.8894,9.404,-32.5726,-177.4465,-192.5572,50.1933,3.1318,-4.1414,-3.7615,6.7206,19.7141,31.0429,
18.9943,8.9826,1.6175,3.0402,-23.8514,-180.8997,-195.1038,33.0817,7.7771,1.9066,-16.1017,1.4842,4.999,20.4817,
20.2705,2.1604,11.669,10.1073,-16.1376,-184.1457,-197.4975,16.9968,7.7936,10.9745,-4.0197,0.91196,15.8149,29.4014,
16.6384,-4.2514,-1.1134,21.5831,-28.2185,-183.1546,-199.7477,1.877,2.9765,9.8328,0.57098,5.2068,13.4165,24.2542,
16.606,-1.0968,-14.5788,6.1882,-23.6254,-180.8648,-201.8628,-12.3356,9.5638,23.3429,-8.1628,18.9944,1.9783,11.2003,
7.3942,4.2853,-15.1541,-8.2831,-17.8583,-181.1289,-203.8511,-25.6955,11.4063,33.4572,-16.8558,19.7033,4.276,6.1783,
10.3333,4.5109,-6.0285,3.0153,-25.9695,-163.9779,-205.72,-38.2538,15.0719,20.3344,-1.7444,4.5057,18.1194,18.8567,
14.5469,-5.4251,-10.4995,15.4007,-35.0436,-158.972,-207.4768,-50.0585,3.5349,7.5152,7.943,-0.59737,13.0823,20.6253,
14.6405,6.4994,-4.0705,15.443,-22.3087,-151.3673,-209.1282,-61.155,-0.54356,15.7634,1.6664,13.5385,4.5637,15.5214,
-0.33796,-7.9905,-9.1426,0.41643,-31.1197,-156.3853,-210.6805,-71.5857,4.8054,7.5676,-12.5336,12.6416,-4.8928,1.541,
0.25006,-21.6111,-11.9772,-10.6408,-31.6689,-161.1021,-212.1397,-81.3906,10.8003,2.764,-7.3475,13.3336,-3.1488,5.7981,
-2.1813,-21.5957,-3.0422,0.14764,-31.2183,-156.5837,-213.5113,-90.6071,-0.96411,2.1154,-5.4566,13.9835,-9.2426,2.0666,
-2.5336,-19.8168,1.4899,-2.278,-38.5279,-151.5382,-214.8006,-99.2707,4.4106,5.3717,-10.446,9.7614,-14.9712,-2.4069,
5.3502,-15.7278,-2.4659,1.725,-37.1831,-134.7132,-216.0126,-107.4145,12.845,7.9485,-5.9529,8.2084,-10.2066,8.3702,
0.68058,-19.1337,-0.86748,-0.7944,-32.5353,-127.1136,-217.1518,-115.0696,-1.9416,6.022,0.68742,1.4336,-10.0774,6.4184,
-3.7107,-26.202,1.6005,2.6355,-29.1332,-133.5868,-218.2227,-122.2654,-1.3419,4.2112,3.063,-0.10284,-5.1232,-8.0667,
3.7619,-19.3131,-4.7783,2.961,-20.1356,-132.7365,-219.2293,-129.0295,1.1559,-3.2906,16.9792,8.1197,-6.2658,-9.9149,
8.8521,-4.0543,-4.0084,-6.3998,-7.8121,-110.6723,-220.1756,-135.3877,-0.36394,-2.6109,30.0605,13.9148,-19.9057,4.78,
11.7042,10.289,0.58164,-0.699,-2.9938,-89.932,-221.065,-141.3645,-3.7253,-1.0038,42.3568,-0.9351,-13.3946,5.8586,
22.601,2.7361,8.2795,6.1093,-3.7805,-98.6361,-221.9011,-146.9826,-1.5681,-0.94355,46.3281,-6.679,1.5091,4.5407,
8.679,-9.9939,0.050432,-1.0241,-16.1196,-104.8847,-222.6871,-152.2636,-0.50814,1.0462,29.4484,-3.3778,11.4835,5.2342,
-0.057146,-2.1443,-5.2689,-0.47899,-14.6688,-84.4917,-223.4259,-157.2278,3.8723,10.1662,13.5815,1.174,0.64543,4.4374,
11.5449,3.7839,2.7794,-9.1498,-4.1232,-72.7404,-224.1203,-161.8942,-3.1259,4.723,4.7194,-0.82966,1.5726,4.1707,
24.9522,9.3564,12.2786,5.4992,10.2242,-81.9082,-224.7731,-166.2805,-4.8715,4.4392,16.0348,1.1533,3.4114,10.6873,
10.8051,7.3455,-1.5068,10.8847,9.5266,-88.1096,-225.3867,-170.4037,-0.22969,7.5569,17.4896,-3.2654,-2.1092,4.7292,
5.8072,5.4543,-1.8995,7.8148,-1.1941,-72.6739,-225.9635,-174.2795,2.2009,9.5194,2.3402,-2.5863,-0.53307,10.7287,
15.1247,5.1266,1.114,16.0454,7.5767,-61.5476,-226.5057,-177.9227,4.9684,3.1487,-9.3147,-0.49798,-1.4679,24.1849,
10.8336,12.069,-4.2692,12.6663,11.4716,-60.2711,-227.0153,-181.3473,7.0867,-7.1902,-4.4068,0.015544,2.0038,14.9161,
8.2508,18.1112,1.7869,17.7054,-3.3167,-52.7885,-227.4944,-184.5665,4.7278,-9.6579,-6.0751,-2.8854,5.7499,2.4221,
12.589,9.2923,9.4129,30.1763,-5.449,-37.0548,-227.9448,-187.5925,13.1446,5.0216,-10.5438,2.1209,8.3054,16.3767,
8.4504,5.3515,0.6313,20.1498,8.9779,-45.9474,-228.3681,-190.4369,5.1064,4.6357,-10.3943,2.4768,-1.3761,9.5105,
22.0434,19.1305,0.59297,9.274,18.0201,-51.8906,-228.766,-193.1107,-4.8668,0.49078,-4.9375,2.3278,-5.1604,-3.626,
24.9853,12.5808,-3.3085,2.918,11.1389,-42.9776,-229.14,-195.6241,0.25838,2.3945,-5.608,4.1213,0.94881,4.3238,
16.2371,16.1759,-4.56,12.892,21.5869,-30.2499,-229.4916,-197.9866,9.4256,1.7681,-3.8216,8.224,14.9073,18.1644,
11.3965,23.9054,-4.2864,9.2194,21.2585,-31.3344,-229.8221,-200.2074,2.0937,-6.0707,-3.5923,-0.96851,19.8129,15.0581,
15.5459,22.4706,-0.1624,2.8667,8.3839,-32.3539,-230.1328,-202.295,-3.8315,1.0595,-3.3772,-2.8436,19.5909,0.054634,
17.0295,16.7724,3.2301,10.9102,9.3304,-37.6622,-230.4248,-204.2573,-3.1179,6.3122,-5.5909,0.70975,14.0655,-14.0486,
14.0746,11.9001,6.9031,5.4233,8.7711,-39.2684,-230.6993,-206.1019,-2.9304,1.1013,-4.2886,-2.2324,7.422,0.89427,
6.4633,6.3529,6.4884,6.0638,-5.8552,-38.8464,-230.9574,-207.8357,-5.655,3.9338,0.80093,-0.16525,-2.6892,7.6902,
13.8087,8.8713,6.0996,12.4668,-8.8029,-41.3478,-227.3957,-209.4656,-0.48255,11.4309,-5.0457,6.6106,-11.2274,-6.3026,
26.9965,9.789,4.2836,5.4351,5.8252,-47.0833,-199.6519,-210.9977,1.9628,4.4624,-18.843,2.8312,-12.0038,-14.1408,
27.3094,-0.46376,0.16024,10.909,19.5757,-58.3583,-173.5728,-212.4378,-2.9877,-9.9054,-26.3278,-3.1387,-2.5835,-12.326,
24.7045,-12.035,6.917,14.1208,32.5012,-68.9568,-151.2444,-213.7915,1.0579,-12.6092,-17.0145,-3.9167,6.2706,-5.7864,
24.6722,-12.7634,15.6838,16.6563,44.6511,-78.9194,-133.9543,-215.064,11.1435,0.22915,-2.9455,-7.0644,5.4107,2.7762,
14.9755,-17.3139,5.56,15.1742,56.072,-81.1805,-127.3671,-216.2602,6.1249,-1.2346,5.4476,-16.7905,-4.0967,-5.6058,
15.527,-17.7246,2.811,11.8474,66.8077,-80.6592,-132.7736,-217.3846,4.3083,-6.476,5.6044,-13.3658,1.4664,-9.6195,
21.3622,-12.7943,13.2746,16.9361,76.8993,-77.7529,-118.0409,-218.4415,-2.717,-6.0879,-2.4651,-9.6643,4.278,0.62453,
19.5968,-14.4435,20.6945,18.3363,80.3942,-66.805,-96.8584,-219.435,-4.004,0.56012,-0.86718,-12.4672,-10.0787,6.8698,
20.3542,-11.6437,20.4187,23.0356,79.4369,-48.6967,-79.5324,-220.3689,10.3363,13.0924,1.118,-4.9533,-12.2899,7.4235,
14.7829,-12.3951,5.0936,13.4371,72.2543,-45.859,-88.8605,-221.2468,2.8656,5.0578,-12.9645,1.6266,-4.3025,-2.2046,
15.8292,-8.7514,-0.92702,4.8987,67.9196,-42.1411,-90.2106,-222.072,-6.9722,-2.0125,-10.2534,4.4295,1.7552,0.8281,
25.0285,-2.9104,13.144,14.7538,66.2603,-33.3299,-70.7826,-222.8477,2.6288,0.52461,-3.3555,-6.9526,-5.6001,5.1275,
21.1109,-8.0517,14.7722,18.2181,62.7678,-33.7465,-60.2524,-223.5768,11.6543,7.7427,0.229,-7.985,-8.6473,6.2703,
10.661,-9.9854,-0.21412,21.4746,49.8191,-36.0717,-65.8205,-224.2622,8.5382,5.8286,0.69844,-3.1573,0.087443,6.3763,
15.8209,2.2128,-10.7494,24.0529,36.1977,-30.0406,-67.6703,-224.9065,11.8918,1.612,0.65607,-2.9674,7.8154,4.0615,
11.9721,-0.8195,-4.3058,8.5097,32.0922,-31.1386,-65.5437,-225.5121,8.2788,-3.3179,-4.2165,-0.85617,1.5469,-5.849,
5.937,-4.1535,-8.3961,7.1164,39.3493,-28.7866,-58.2279,-226.0814,2.4661,-3.602,-7.3457,12.2447,-1.9291,-3.0812,
8.4812,-7.7711,-10.7928,5.7226,33.122,-37.6921,-57.6342,-226.6165,3.2841,-7.2517,-9.8055,11.5096,0.11985,-2.8968,
11.8387,-9.2376,1.4538,0.54657,17.0347,-38.3302,-57.0757,-227.1195,3.087,-12.6166,-11.1498,-3.281,-2.7873,-7.5557,
10.6447,5.3321,12.483,13.5628,14.164,-21.9303,-46.4017,-227.5923,7.2518,-3.6433,-3.2318,-2.9996,4.6299,4.014,
12.4233,2.5968,2.5513,6.4664,12.8315,-13.4491,-38.3007,-228.0368,-0.43238,-12.6074,-6.4206,-4.2696,7.7357,3.2904,
25.7779,5.34,4.3318,7.0447,24.627,-14.5753,-30.2032,-228.4546,-6.2064,-14.751,-7.9681,-0.14705,7.2707,3.0921,
24.6294,15.6523,9.871,11.4557,37.2494,0.39919,-29.3578,-228.8473,-2.934,0.2341,-6.5236,-3.0382,5.8681,4.8402,
20.7357,21.9627,2.9956,9.3179,41.6957,14.4752,-19.3804,-229.2165,-1.3085,-3.7304,-1.7827,-7.2055,8.8992,5.9993,
29.1575,22.5781,-0.083706,10.692,36.2945,22.6208,-4.1176,-229.5635,-7.0295,-13.1725,4.1238,-0.0063258,13.1984,19.7393,
20.158,9.1407,-3.4623,-1.0659,25.9004,12.0803,-8.7883,-229.8897,-5.1577,-12.8658,2.4264,-3.3896,9.0228,30.0699,
11.6995,3.2759,-2.7709,4.3153,26.7632,9.906,-9.7105,-230.1963,3.3681,-11.6102,0.83081,-7.5362,7.0315,22.9494,
18.7298,5.0126,0.29485,15.655,18.3911,12.2112,-10.0947,-230.4845,2.1992,-12.8468,2.7141,0.64914,14.3428,16.7393,
16.6396,6.645,-4.5556,13.7494,3.1876,9.5453,-19.1549,-230.7554,-6.6318,-14.0096,16.6513,0.61019,19.2813,13.8022,
5.4922,2.8631,-7.6649,15.3408,5.9805,0.75624,-7.8561,-231.0101,-9.6176,-6.8863,29.7522,-1.8428,14.7417,15.3904,
-0.63689,-6.0073,-6.2382,0.32033,9.4885,-7.0214,-6.4179,-231.2495,-8.0737,-10.339,13.8671,-6.5654,-0.24282,13.5002,
13.5013,8.4532,8.2361,1.352,22.9346,7.4999,-10.3828,-231.4745,6.5107,-11.1682,-1.0649,3.0108,4.689,25.7397,
20.3394,22.046,11.5237,11.9032,22.5249,21.1499,-7.8267,-231.6861,7.0019,-13.3986,0.93213,2.8306,16.0063,24.1948,
5.019,6.6232,-3.1832,-1.8592,7.0734,11.0131,-4.9403,-231.8849,-7.5182,-8.2447,4.2598,-3.6219,5.8641,9.6941,
-6.3139,-6.4251,-12.1749,-3.1976,-7.451,-3.6635,-13.8266,-232.0718,2.2001,-7.2663,11.2533,-8.721,0.19593,6.6961,
8.1649,-1.2064,-11.4444,8.5933,-9.7348,-2.4774,-8.1643,-232.2475,16.1681,-7.7976,24.6781,-1.4314,14.2842,16.927,
9.5241,-6.4504,-14.1414,2.7614,-6.7344,0.087641,-4.2912,-232.4126,14.1471,-3.9461,26.9792,-1.8291,27.5271,8.6614,
-4.5796,1.6693,-12.3261,-11.5043,-6.3303,7.8151,-12.7333,-232.5679,-0.80171,1.1238,11.2605,-9.4526,11.7755,-1.5242,
-0.92163,15.6692,-11.1033,-11.6968,3.2322,19.4284,-11.4861,-232.7138,-6.469,-5.2268,0.036702,-6.4686,7.6008,2.9168,
13.1491,28.829,-4.1544,3.105,10.2878,22.6127,2.2526,-232.851,-12.3636,-11.1959,0.51814,2.1359,21.2447,13.8582,
12.8433,22.5811,2.378,11.0501,6.2874,17.8728,12.266,-232.9799,-13.0713,-9.0746,-0.96341,1.5236,25.2023,18.3426,
9.1732,22.193,-1.6315,-0.2452,-8.1899,27.4331,5.731,-233.1011,-12.2875,-3.697,-6.7051,-0.50005,9.5901,8.5425,
13.456,29.561,-7.3331,6.5363,-5.1975,39.8871,-3.3124,-233.2151,-14.4498,-6.3747,-11.1351,9.1958,-5.0853,1.264,
11.6818,32.6205,-5.9263,3.2446,9.2143,45.6257,3.6527,-233.3222,-9.716,-6.959,-3.7011,17.3436,9.3198,7.955,
-0.13454,23.4133,-9.9207,-5.1664,10.5101,33.7054,3.9167,-233.4228,-11.5503,-8.9578,-0.096303,8.0867,22.8607,4.0941,
5.1899,18.6248,-11.7418,-1.4737,3.5967,25.4004,-0.66781,-233.5175,-8.44,-6.004,5.2258,3.2515,30.1885,-3.4006,
12.128,29.5905,-7.6542,7.7979,17.4809,29.1927,-6.9105,-233.6064,-5.5177,-6.127,3.4627,3.5396,23.0613,-1.7471,
8.0172,33.131,-1.8781,7.8132,19.7307,37.5902,-6.0127,-233.69,-9.5362,-9.1425,-5.9282,4.7776,18.2945,0.77457,
2.703,17.0431,-1.7659,-6.7556,4.4468,25.6689,-1.7855,-233.7686,-10.8972,-15.3599,-0.73933,-0.34219,15.2636,0.72764,
0.60715,8.8556,-5.5263,-6.7498,-4.9181,22.1956,-0.71204,-233.8425,-9.277,-14.4383,10.9041,6.4447,11.4478,10.3503,
-2.3293,17.9897,-8.0947,-7.3112,9.477,30.5293,-1.6361,-233.912,-8.7204,-3.9065,-2.3156,15.7234,9.7937,9.7284,
0.71047,7.2449,-4.709,-10.7389,19.9397,20.9653,2.3288,-233.9772,-7.2299,4.0606,-9.9094,11.881,10.1733,4.312,
10.8178,-5.2725,-3.9428,1.9882,13.4274,14.391,9.4386,-234.0386,0.45298,-2.4658,4.7852,14.5508,14.8793,12.2696,
6.3024,2.7765,-7.5726,3.8016,11.6549,23.1935,5.9723,-234.0963,3.3258,-8.1169,18.5981,13.6778,16.8865,9.6007,
10.2738,16.7099,-4.7024,6.9567,15.3052,34.8509,6.0972,-234.1505,-6.0569,-2.314,3.3822,3.6739,12.4902,4.6742,
22.706,27.7055,-2.9698,-1.6766,26.4696,32.2767,2.3486,-234.2015,-9.0758,-7.4911,-3.6716,2.9712,-2.3593,-2.8549,
7.2436,11.9431,-15.8411,-15.676,10.7814,16.2401,-9.8755,-234.2494,4.5174,-18.1584,3.7982,-5.4239,-16.3177,-16.7836,
-4.2223,9.8616,-6.6743,-6.435,-3.9655,8.1007,-0.099763,-234.2944,6.6627,-9.8189,2.1212,-9.4475,-19.5195,-16.1761,
5.2137,16.519,0.0088879,-0.73253,-7.9084,21.7147,9.0889,-234.3368,-7.8371,-12.6125,4.4103,-1.6316,-13.032,-6.0228,
8.7673,5.8615,-4.8244,-0.68858,6.6661,17.4272,9.51,-234.3766,-21.4668,-17.6557,5.112,3.299,-10.3173,-1.7951,
6.7908,-0.77247,6.581,2.7359,20.3661,2.2816,23.0394,-234.414,-6.0788,-2.4964,4.3212,-1.2484,-0.51604,6.5285,
-2.3153,-8.4593,10.052,2.5713,20.425,-11.9553,32.2056,-234.4491,-0.31316,5.3015,5.996,-10.8394,-0.48461,-0.62908,
7.4895,-2.1522,5.583,12.0829,30.7986,-7.6861,16.1733,-234.4822,0.67152,2.0839,17.2349,-0.52317,7.2767,-6.3909,
2.6897,-13.139,-5.8679,-2.7421,22.6675,-14.4745,1.1029,-234.5132,4.9817,-0.45794,4.1185,4.8241,3.4579,-5.5242,
-8.1039,-20.0829,-3.5826,-16.6775,7.2074,-27.1383,6.5213,-234.5425,1.7823,4.4027,-6.7608,0.66877,-9.3155,-1.326,
-8.5841,-13.0788,-3.3677,-3.425,7.3437,-15.8441,11.93,-234.5699,-4.1237,8.0049,-1.5225,1.595,-2.9575,-2.2137,
-8.069,-16.1605,-9.932,-9.0195,7.8694,-7.1607,-1.3517,-234.5957,-8.709,10.4246,6.3016,11.1657,3.0199,1.7855,
-11.9344,-19.5404,-4.9865,-6.0615,-5.6518,-13.0138,-14.3197,-234.62,-7.7033,14.1487,3.5076,15.8116,-5.3771,2.1625,
-11.7015,-10.152,-0.33777,-3.2819,-11.5959,-8.8503,0.63952,-234.6428,2.9075,10.8829,-6.8524,11.4797,-7.4713,1.5486,
-1.8172,-0.36067,-0.80068,-8.4009,-0.75106,0.86348,14.7011,-234.6642,5.1499,0.081341,-10.7917,-0.32494,-3.6399,0.97251,
-0.25769,2.0778,-1.2358,-4.5137,-4.0887,-0.63787,7.3677,-234.6844,-5.3086,2.4933,0.0053459,-1.755,1.8944,-0.53538,
-8.9418,3.8863,-1.1612,-7.1433,-9.6434,1.3336,-0.80756,-234.7033,-13.6896,5.2432,-3.8609,-1.6501,-8.8515,-0.50371,
-1.6394,11.3863,3.7407,-5.7479,-5.1984,10.919,8.9068,-225.041,-7.0687,1.0618,-9.4297,-5.417,-17.0199,-1.4403,
6.6749,13.1199,-4.6996,-8.7862,-10.2024,9.7811,8.856,-217.8212,5.4386,-0.45144,-6.4471,-6.5415,-7.7829,-5.7034,
-2.4247,12.3318,-18.5176,-9.2254,-21.1898,2.4279,1.5583,-218.852,7.045,3.442,-7.993,-10.0163,-6.3495,-6.3276,
-2.2797,9.6597,-7.1725,4.8604,-22.818,2.2822,5.3312,-214.819,-2.0773,6.135,2.1525,-11.3485,-5.0017,2.7516,
-2.6256,1.8301,4.3733,-1.714,-22.8984,-1.2374,10.3277,-200.4798,-11.1344,-0.51579,5.4061,-5.3513,-3.2516,6.9365,
-9.7171,3.1703,-6.0382,-4.9938,-16.2082,8.0195,5.3585,-190.8674,3.6337,3.8651,-9.0183,9.0698,-0.63926,6.0367,
-15.4177,4.4301,-15.8259,-10.9778,-8.9534,13.8206,-8.0126,-189.5654,14.4465,7.9823,-22.409,7.9583,-2.0518,9.0572,
-8.21,11.4133,-9.559,-5.9692,0.76651,14.4414,-4.1482,-187.3737,-0.52029,5.087,-16.7144,6.0308,-4.3451,22.6138,
-6.2669,14.1117,-11.4023,3.5721,5.0705,13.0917,9.1498,-182.414,-12.4868,4.2986,-8.462,13.8849,-8.4339,35.3569,
-8.3077,1.1828,-16.0341,-3.8917,-1.5164,3.124,7.1508,-181.6182,-2.5553,4.5239,-1.6711,4.8359,-2.6111,19.1355,
-4.9092,2.0781,-8.3066,-6.5582,-9.1586,3.9029,0.9222,-184.8211,3.398,-0.58027,0.36276,-4.1533,6.2447,3.8874,
-7.5147,3.8871,-7.8082,-13.8974,-8.6091,10.4346,-0.099947,-185.73,6.0941,-2.4791,-3.5254,-3.9041,-0.89635,-8.4276,
-3.1975,-4.0788,-1.5397,-4.3645,-1.3262,14.6417,12.4719,-166.8535,12.4948,-0.39671,6.3516,-5.6035,8.8238,2.7107,
1.8271,-8.6678,0.48539,9.9974,2.6193,19.5623,23.3222,-157.8091,3.0452,-3.2729,13.7032,-2.3673,19.8934,8.3472,
-7.9484,-1.3809,-6.3096,0.13069,8.2621,27.0881,19.9902,-162.4405,-1.0044,-0.17699,8.0478,7.4406,11.9339,4.9468,
-10.8542,6.9174,-0.6147,1.5728,15.9823,32.7123,14.4408,-156.4764,3.4059,2.25,-6.535,4.5778,3.0015,0.29999,
0.91246,5.0533,5.7049,0.99484,16.4733,29.3001,18.8907,-152.4037,1.7515,-2.2341,-13.3074,0.92043,-1.5286,0.76563,
-2.5245,2.3333,-3.8196,-5.3471,15.9681,24.1589,29.84,-155.3417,1.1633,-5.4832,1.591,5.2147,4.8463,5.0692,
-10.5894,10.4096,-15.6732,2.2228,17.4273,17.393,26.5996,-146.5044,3.5098,-7.5706,10.5942,-2.3481,15.6719,2.3487,
2.1282,11.2346,-1.6833,12.239,17.8307,26.4985,21.6204,-129.4982,4.7497,-3.7332,-2.1247,-3.6568,23.9138,9.4573,
3.9332,1.8605,8.0832,13.4373,10.9614,35.5413,24.1895,-125.5952,-1.3353,-2.5428,-5.8635,-0.5383,19.579,14.689,
-3.0691,5.6152,2.7655,11.6647,17.0696,38.2415,32.4041,-119.9926,1.6448,-7.2239,8.5883,-2.4387,26.137,15.7413,
-7.2341,4.7956,0.18318,5.6485,9.7627,41.2634,26.1103,-107.4767,12.6616,-11.1395,13.7884,-4.7088,19.2524,11.4131,
-0.033658,-0.32484,3.0722,10.1423,4.3442,41.6876,21.6441,-104.894,15.7682,-4.6712,-1.1389,3.3065,3.9973,13.6284,
0.93472,-0.30535,-4.8449,-4.5662,7.9499,25.0863,22.2787,-112.7004,1.2904,-15.0236,0.464,-3.6583,-6.3071,2.1789,
7.6445,13.813,-1.6556,-2.7582,21.5729,21.2489,34.4737,-113.1042,4.1125,-20.889,14.5362,-6.3383,7.6036,-11.485,
3.8036,7.1005,-5.9048,0.79052,10.5281,31.0899,26.123,-105.8343,4.3489,-27.8516,0.046711,-6.4412,9.5642,-9.3455,
5.0254,0.3918,-5.0669,-0.70599,-2.1854,27.7749,20.2061,-97.0675,8.438,-23.7636,-2.3725,-3.6384,6.574,5.3153,
-2.0434,3.2674,-4.7638,1.2691,-2.0552,12.0084,21.8928,-96.077,7.9317,-17.5056,6.469,-7.2864,-0.58772,1.0454,
-16.0208,3.5545,4.7052,3.6098,12.1681,18.1384,34.6793,-84.9956,2.139,-7.2721,18.164,7.2508,10.5644,1.4659,
-29.1596,11.0744,6.3561,1.46,21.9871,31.1501,31.548,-71.1968,0.077452,3.7965,19.0073,20.9157,15.73,11.0438,
-41.51,7.5095,-2.7258,-12.1608,7.1347,25.8129,15.5552,-81.025,1.0396,4.5355,3.7669,14.1757,0.68623,-3.7188,
-53.1194,8.0257,5.171,-6.598,20.8066,23.2982,19.056,-71.7294,5.8104,6.1966,-7.4909,11.392,-5.554,-2.9275,
-64.0322,7.0615,5.3443,7.8979,33.6582,36.0003,26.1285,-53.3256,-7.5873,-1.4243,-1.7251,14.0912,8.8792,6.43,
-74.2903,7.6037,0.19051,2.5063,30.9869,47.9403,22.6271,-36.0261,-0.36614,5.4271,-6.4548,13.2462,8.2624,4.111,
-83.9329,5.6984,-0.30364,-3.9259,24.7786,36.1961,23.6868,-37.8991,11.7385,7.5178,-8.4838,4.236,1.4839,1.448,
-92.9969,1.9728,3.0973,5.4924,29.5746,36.4402,31.4478,-31.2756,8.6179,-1.1487,6.1252,-5.2018,0.91124,6.6774,
-101.5171,-3.4619,-2.4049,-5.9535,25.3837,34.7375,25.2114,-36.6486,-0.11556,6.1693,2.2904,-7.306,-13.2434,0.96044,
-109.5261,1.579,-2.2601,-5.5958,19.9939,22.9873,28.5315,-36.3829,6.6582,19.8991,-11.947,7.2323,-20.0974,-1.0304,
-117.0545,1.9679,-1.6418,-1.8774,17.3443,16.2913,40.9196,-20.0999,13.5078,16.6874,-13.0797,15.4133,-7.7752,1.4478,
-124.1312,11.5157,-1.5428,0.16846,21.1368,29.4138,35.4803,-4.7939,-0.83494,1.5862,-0.69541,6.7563,2.3572,0.39413,
-130.7834,24.9248,-1.4507,5.9579,16.0027,41.749,19.2515,9.5937,-7.5507,13.6583,-2.5869,10.2168,8.0153,2.3046,
-137.0364,37.5293,-12.9628,-8.4996,0.94252,53.344,6.0982,23.1181,-9.0313,7.0388,-16.5317,4.7711,-6.5656,-5.5664,
-142.9142,49.3775,-3.9686,-5.9723,-13.214,64.2434,15.8814,35.831,-6.0731,4.2001,-11.5888,14.6339,-14.7871,2.0166,
-148.4393,50.9948,-7.5964,-5.6135,-26.5212,74.4888,3.3299,47.7812,-15.3746,5.8813,-7.994,10.8563,-18.7322,-1.0039,
-153.633,33.8351,-21.2406,-10.1099,-39.0299,84.1195,-10.9699,48.2746,-9.619,-4.1375,2.1516,-2.361,-12.776,-9.6432,
-158.515,17.705,-33.898,-8.5365,-50.7881,80.9831,-24.4117,32.8118,-1.3096,-17.4215,2.9893,-8.9852,-16.8426,-18.7305,
-163.1041,2.5427,-24.6141,-13.3406,-61.8408,81.4404,-24.2283,42.9262,-0.74735,-6.2271,-2.5064,-6.0297,-24.0475,-16.1567,
-167.4178,6.0261,-16.855,-8.1907,-72.2304,84.7699,-16.4919,54.4507,-4.0857,1.396,-1.8729,-6.1511,-15.3551,-9.8714,
-171.4728,10.0141,-17.2942,-5.2833,-81.9966,85.966,-15.9855,59.3145,-0.45736,0.8291,-2.2437,8.2329,-11.0515,-5.8959,
-175.2844,5.5469,-14.3229,-11.7318,-77.3689,82.7416,-13.0932,64.4552,-1.3963,2.7121,-16.209,20.3053,-24.4884,-5.5422,
-178.8673,11.98,-1.864,-1.362,-66.9272,81.643,1.7924,74.6878,-4.213,5.4498,-22.4015,11.3538,-18.5841,-1.3428,
-182.2353,6.4285,-2.7185,-0.31297,-50.3452,69.979,5.9507,72.5393,1.8398,-0.67717,-10.4247,-2.8592,-3.3691,-0.29588,
-185.4012,-8.0573,-6.9054,-1.7451,-51.6745,51.6803,-1.6563,69.6365,7.0458,-5.9529,-6.4165,-2.2049,-7.1178,1.1719,
-188.3771,-8.4561,3.1748,0.29278,-60.1736,46.7299,4.2426,77.0573,0.8235,0.20381,-10.8647,0.82689,-20.223,9.8002,
-179.713,-10.3646,-3.2988,-4.0743,-54.1463,44.4102,4.4717,70.0175,-6.4754,7.4411,-12.6287,-3.5713,-15.6265,11.629,
-172.3134,-16.9932,-16.15,1.4869,-50.4144,31.5961,-4.013,66.2997,-1.7374,4.5778,-4.6214,-4.8075,-7.4393,10.4481,
-159.5577,-8.7236,-4.0642,2.8477,-55.6054,35.0167,-6.1886,76.4217,-0.18314,0.92044,0.97222,0.79729,-4.5766,9.3385,
-135.8843,5.8998,10.2797,8.4759,-38.7373,47.0157,-0.018177,82.3845,-9.8385,8.5979,-10.6861,9.4485,-7.202,2.0109,
-116.7004,13.6772,1.3615,9.9006,-22.313,36.8606,5.7824,73.5746,-5.3814,6.1489,-19.7108,6.9484,-10.6367,-2.943,
-116.9479,3.6743,-1.1361,0.12428,-25.8911,29.3331,6.886,72.5438,9.0415,-8.2359,-7.4123,0.24928,-5.6481,1.5841,
-108.9646,6.3534,1.8316,2.0491,-35.9372,36.2717,2.606,72.0571,9.3808,-7.7413,-1.168,-4.5989,-8.2096,-0.44414,
-93.7268,12.738,-6.0114,-2.9061,-27.0146,34.0959,-0.44991,66.7677,2.0521,-1.4773,-12.6965,-4.3234,-8.683,-4.2834,
-88.1032,20.6738,-10.4835,-4.6654,-14.761,36.8829,-5.2556,66.628,4.8289,-4.2887,-14.8348,-2.1303,5.3698,-1.1273,
-95.866,15.0833,-7.4381,-5.8355,-9.5258,40.9526,-5.4239,66.0131,5.9892,-10.3141,0.15533,-5.3862,11.3303,-7.3424,
-88.6645,1.1288,-9.4086,-14.6676,0.22847,31.2459,-0.74896,59.6359,-2.586,-13.0784,9.2446,-8.4462,-0.46537,-16.085,
-69.2447,-1.3548,-7.3937,0.22743,10.3638,27.9216,3.6455,65.24,-0.014989,-3.1114,5.3068,0.2765,2.9457,-9.8031,
-64.6909,-5.6235,-7.4337,0.69742,1.5261,27.6963,3.9104,65.6756,4.3359,-11.1402,0.63836,-3.1228,7.119,-7.7649,
-63.7095,3.4134,-7.9545,-8.044,-2.4318,26.0341,6.5753,60.7683,-0.75742,-22.0713,6.3996,-9.7013,-0.074972,-12.1322,
-45.7869,11.9081,-7.4767,-5.6272,10.28,23.5061,5.2145,64.8553,-3.6115,-12.0475,7.9488,1.513,-2.0027,-15.2702,
-28.9397,10.2264,-6.0618,-6.2569,19.3286,21.1285,3.9348,69.6631,0.47153,2.7754,2.6392,13.0213,-1.8835,-14.3549,
-35.5883,11.0628,-4.2481,-2.4987,15.7525,23.2444,9.015,69.8329,2.8596,0.59154,1.0308,4.9909,0.64588,-10.1099,
-33.9362,2.1836,-5.4432,-10.5642,14.3238,14.5998,7.9905,62.2597,0.27166,-8.6276,3.3853,-5.4585,0.12441,-11.9206,
-25.1337,-10.5138,-7.0493,-12.8304,16.3643,-0.37623,4.6115,63.3573,0.25536,-8.109,4.1486,-3.1974,-8.5821,-14.1045,
-17.8261,-6.9825,-1.7941,-6.261,10.5497,3.1141,6.268,73.6559,0.23958,-12.4556,2.9337,-0.10599,-8.0677,-5.525,
-15.3066,-7.0467,0.73036,-7.3349,-0.23231,16.9431,-2.324,77.8515,-0.25797,-14.1251,3.2409,-2.5155,4.4986,-11.4767,
-17.7713,-9.0412,0.2029,-0.6121,2.1975,12.5429,-7.5009,79.4631,0.24115,-14.7276,2.5628,1.9845,5.6787,-21.9044,
-10.4224,-4.1487,-0.29199,-2.0254,13.1816,-1.2587,7.0492,81.9448,-2.1897,-16.2603,4.8254,8.1481,1.9553,-9.4738,
4.303,3.3497,-4.624,-7.2197,22.5402,6.0663,19.5912,81.3782,-2.5415,-7.0688,5.019,1.377,4.2548,-8.4222,
13.1434,4.5987,2.9025,3.3625,25.5373,9.086,9.233,79.8786,-1.9063,-7.1274,4.2352,-6.922,4.4822,-20.966,
4.6216,-3.4104,12.3942,8.9603,12.406,3.7076,1.9127,78.9518,-0.82508,-17.3329,8.8133,-9.4062,5.1801,-10.0421,
3.378,-2.2394,4.8842,6.489,1.0289,7.3515,-1.1021,74.2147,-1.7419,-7.593,3.4518,-4.0091,4.8693,-1.7069,
6.0748,8.5282,-6.0411,-3.5662,11.5995,16.5763,-1.036,69.7618,1.2621,6.9626,-5.4548,-2.8017,-0.25603,-10.304,
7.6435,10.916,-10.5118,-4.319,18.6362,20.4149,-0.007451,79.1084,-0.74678,11.7767,-6.0944,-7.4668,-2.1739,-5.8199,
21.2008,15.5774,1.2353,7.0565,17.0353,21.6064,-3.3897,88.4619,-1.1856,11.5537,0.55494,5.0639,1.3393,3.713,
25.2456,12.2264,5.5112,-5.4487,23.2627,18.8609,-5.6022,87.42,-0.63084,10.3768,2.938,10.0764,0.77622,0.10748,
23.2472,9.076,-4.0027,-2.7059,27.1829,16.2788,-0.91703,78.7917,-2.0425,5.4047,4.2113,7.055,1.2128,2.5169,
31.5178,16.2642,1.0702,3.2555,15.8865,18.2012,4.9375,88.1642,0.012742,8.9468,0.092228,8.5644,2.1064,3.3323,
39.2926,26.8878,13.5719,-2.7393,12.0328,20.0096,9.474,96.9743,0.9788,7.4431,-3.7792,4.1847,1.0132,-0.73356,
42.2519,26.7246,14.2076,4.675,24.3608,18.3253,11.3224,105.2559,0.43643,-2.1862,1.7639,-1.3828,1.4361,6.5595,
40.1999,13.0388,9.9719,1.0113,20.4824,12.8763,6.2935,113.0405,0.89342,2.2945,1.1749,5.9497,2.7994,7.6164,
39.7211,16.1219,20.0063,0.95066,5.1534,10.1701,0.11589,120.3581,-0.12654,6.9896,-2.7629,4.6264,9.3978,1.3594,
33.4715,23.8542,20.7391,9.5931,-4.2544,19.2267,-6.657,127.2366,-2.0521,-0.19569,0.30335,-6.2834,2.0681,4.1774,
31.4632,18.557,11.7616,6.1171,1.8004,21.939,-8.1907,133.7024,3.8705,3.6829,-6.4817,2.7922,-9.6556,12.6263,
34.8918,11.1609,12.5059,9.1337,-1.6903,9.5072,-3.3493,139.7802,2.1883,4.9119,-8.5091,1.1756,-0.85987,7.5196,
37.1483,7.1081,14.1724,9.0689,-1.1057,7.4863,-6.5315,145.4934,-6.1589,-9.3987,6.0173,-5.1781,13.2917,2.718,
42.6521,5.7152,13.322,2.7257,13.0606,21.1371,-8.0728,150.8638,-3.8557,-12.7011,5.6563,5.7653,9.5101,9.3213,
46.3752,2.955,11.0727,-0.82151,16.0588,25.5843,4.4938,155.912,3.6247,2.1609,-7.7322,2.0357,-0.24321,0.54565,
41.6595,-1.0886,8.4747,-2.7059,3.4962,9.9493,6.1574,160.1279,3.4072,4.8467,-3.4019,-4.8528,6.5377,-13.5871,
41.5768,-5.3729,3.6167,1.8069,15.3686,-2.1626,-3.3948,155.8366,-0.18039,-6.56,3.0854,-0.21117,6.6287,-25.2532,
48.7481,-3.1173,9.1992,-2.1683,28.5465,6.6666,4.5416,160.0186,3.6973,-12.9323,-5.7993,0.7674,9.1305,-15.0385,
44.8564,-3.8962,11.5477,-3.005,12.7337,-4.3656,6.2023,164.5175,0.57496,-15.0568,-15.1172,-6.0445,2.7831,-18.9693,
35.3986,-13.3288,4.0876,5.8744,-2.1303,-16.67,-5.7689,168.7465,3.4405,-2.5543,-0.11016,1.0845,-10.9166,-20.7312,
32.3083,-21.2286,-6.7899,-1.244,-7.2343,-24.3684,-12.1887,172.7217,2.2672,2.4321,10.9278,-2.8474,-7.3611,-21.4196,
44.4698,-5.8548,2.317,10.4302,7.2998,-8.8063,2.6427,176.4584,-0.76836,10.0194,3.5062,6.023,7.1805,-14.3348,
46.0671,1.6614,7.978,4.0044,-7.2382,5.8221,-1.95,179.9709,-5.555,14.2509,-5.4042,19.7616,-0.5844,-5.742,
30.254,-12.5383,7.9829,-9.284,-20.9039,-3.8787,-11.0157,183.2726,-2.8053,4.2131,6.0364,17.525,-14.6493,-6.8475,
42.4546,-17.0173,9.9199,1.4216,-5.5497,-17.7459,3.7452,186.3763,0.74618,-3.2892,10.0238,4.3912,-3.5363,-20.4526,
46.1905,-17.4463,4.0083,1.82,8.8833,-30.7812,17.6205,189.2937,1.185,-5.5082,3.1397,8.4778,9.725,-21.6418,
31.8191,-30.4995,1.8346,1.7103,22.4503,-43.0343,27.0268,192.0361,4.0135,-11.9436,10.6835,0.23591,11.0747,-11.6437,
31.8436,-42.7695,7.5241,4.5081,35.2033,-54.5523,28.3052,194.6139,10.5386,-16.0602,13.9093,-10.4105,18.1433,-15.7783,
42.9821,-54.3033,14.3226,11.4867,47.1911,-65.3791,35.7896,197.0371,13.2899,-5.9138,5.8257,4.3141,22.3702,-23.0479,
44.7527,-50.3087,12.9801,19.9807,58.4596,-75.5564,35.0923,199.3149,9.1093,-7.0085,2.093,18.1553,19.5784,-18.2819,
34.3343,-51.157,6.4013,11.0482,69.0521,-85.123,29.1199,201.456,-1.1036,-9.488,2.9338,2.966,16.4701,-20.085,
32.2747,-55.8198,5.0509,10.3862,79.0089,-94.1156,25.44,203.4686,-0.071017,2.6803,4.6914,-9.3788,15.4828,-22.7453,
37.1041,-52.4711,-1.0522,10.7294,83.3437,-81.0281,25.8463,205.3605,5.7332,8.3186,3.4426,4.7157,12.6202,-16.5479,
33.9111,-49.3228,-2.9227,7.1857,78.3431,-62.0664,24.2955,207.1389,2.4892,3.9531,10.0024,4.4328,12.8293,-18.455,
25.1105,-56.9962,5.9527,4.8209,59.5425,-68.576,18.0046,208.8105,-1.5265,-2.0832,9.4023,-7.4323,9.1596,-26.0477,
34.7202,-47.2932,6.0787,-2.717,56.055,-77.5101,15.4748,210.3819,7.7483,2.3914,0.62223,-6.5022,8.1268,-23.0344,
41.8197,-30.3556,-2.5015,-4.004,66.7071,-63.6768,14.0636,211.859,9.6998,14.3306,-3.7651,2.1033,1.3565,-24.0687,
25.2106,-35.3852,-6.2187,-12.4637,50.1383,-45.7562,7.4198,213.2474,-3.4486,14.4371,-1.6056,6.8098,-7.424,-28.4245,
17.9825,-47.3621,-4.3955,-16.065,36.9809,-28.9108,8.4246,214.5526,-1.7917,7.2882,5.7399,9.7849,-1.6622,-23.3354,
21.2531,-46.8522,-12.3472,-5.9184,26.5467,-24.4453,4.5359,215.7794,3.6322,5.4009,2.9791,-0.95127,0.85392,-18.5526,
22.8779,-29.941,-10.6405,-3.6301,22.0534,-8.8786,8.1301,216.9327,4.3811,6.0437,1.8335,-3.7947,1.7695,-14.5399,
34.5538,-14.0446,2.0802,-0.030015,34.7461,5.7541,21.7423,218.0167,0.73504,10.0306,-2.626,10.4489,3.1129,-7.3843,
36.347,-24.486,-0.94417,-2.9278,39.4272,19.5089,23.2532,219.0357,-4.1422,9.4283,-1.5016,14.6552,0.99292,-5.9744,
27.8834,-33.1664,-8.1366,-8.0684,41.4116,7.9356,18.4749,219.9936,2.389,0.64715,7.7712,9.4259,1.417,-10.9323,
30.0768,-17.0764,-6.682,1.1157,47.626,21.5594,19.2995,220.894,-3.5534,-3.258,6.3386,9.8267,-2.5353,-16.0764,
42.2881,-1.9518,-0.9643,0.56554,44.2852,34.3659,24.4247,221.7403,-17.4402,3.2197,2.5751,6.8212,0.99999,-7.8623,
49.4167,-11.1857,0.059913,-3.3348,43.5617,46.4039,20.0593,222.5359,-15.3433,-0.83984,3.3869,0.6119,9.64,-4.4905,
40.1685,-15.8318,-14.0437,-6.5183,36.598,29.5197,8.7062,223.2837,-3.3064,-14.8894,0.76734,-10.5402,3.7452,-18.3211,
35.342,-13.4314,-9.7342,-7.5767,20.3022,18.3976,16.4002,223.9867,10.992,-9.562,10.8699,-8.4583,4.9701,-14.7214,
30.322,-26.7255,2.4494,-1.3226,4.984,15.3605,16.383,224.6475,12.1816,4.544,17.9509,-6.984,6.605,-8.0376,
27.0522,-36.637,-5.9135,-6.5601,0.98731,22.6548,9.1168,225.2687,-1.5989,-7.8109,11.557,-8.9818,-0.074448,-16.7385,
35.5791,-20.3387,-11.8414,-1.8165,12.0444,35.3955,10.9866,225.8525,-9.7193,-11.6913,1.6818,-0.2265,0.41366,-12.3506,
43.1102,-5.0184,2.9691,12.3925,6.4886,47.3718,19.9933,226.4014,-5.2693,0.60877,-2.2859,5.5866,-1.5443,-1.9437,
31.3409,-11.6519,10.4386,10.5976,-5.0171,30.4295,13.4774,226.9173,-9.3031,-10.5432,-2.6315,-7.7976,-15.5517,-13.9098,
35.7431,-3.7037,0.62959,9.479,9.3839,33.3523,14.1183,226.6969,-4.395,-18.1269,-1.9909,-6.8461,-9.2177,-6.7925,
29.2486,-4.9315,-13.4236,-4.1397,22.7518,26.0348,10.8543,223.2441,2.1514,-14.623,-15.9714,-8.8527,-4.3155,2.7978,
21.2109,-9.9515,-6.335,-2.4409,17.0371,21.0896,10.6867,223.8654,1.5392,-1.6633,-6.7127,-2.0383,-6.4734,1.1795,
26.2214,-7.9049,-3.5381,8.8215,7.799,33.9242,7.6292,208.0176,-11.6027,-5.9131,6.7396,-1.4328,-1.7345,-4.2072,
37.6968,-5.0142,-7.6758,-0.89054,13.6138,40.0201,15.3873,181.4365,-12.3565,-9.9083,-0.91475,-3.7632,-3.0805,4.2616,
41.235,0.12028,3.4174,2.0629,26.3297,24.0871,27.9968,166.7685,-5.8151,0.35256,-0.85987,-0.63743,-5.7947,4.0059,
25.2281,-8.5869,9.0115,4.8391,17.9835,19.7418,18.5838,166.4279,-11.2662,-0.63496,1.1254,-2.5328,-0.61524,-10.3345,
23.7149,-13.8708,7.5044,5.5151,4.3391,32.6573,15.5361,170.5422,-2.8566,-4.4632,0.090563,-2.3799,1.3553,-1.4144,
30.9911,-7.239,7.0546,3.251,1.1792,35.9301,13.6371,166.5083,2.147,-5.1622,-8.6135,-3.204,-12.826,5.4373,
29.6148,7.2112,11.9472,-1.2936,8.358,19.6743,6.5361,154.1009,0.56867,-2.4357,-17.2798,-3.4949,-15.8382,-7.9385,
31.7047,12.5776,10.264,6.5168,11.7229,5.0462,10.9771,144.8549,1.5009,-4.2232,-7.5431,-5.2188,-0.78794,-1.6622,
32.2188,10.3734,-3.4013,0.80987,2.8036,14.892,15.6344,127.9477,-11.6378,-13.152,6.9245,-10.2216,-4.6911,4.7198,
38.9852,19.4165,-5.13,-2.1387,16.1672,28.0985,14.6963,119.3045,-11.9059,-10.4302,8.4427,-5.742,-18.5097,-2.3288,
35.1961,6.1697,1.4605,1.3723,22.4471,39.8607,8.4982,117.4626,2.9085,-7.388,-4.1466,-7.8138,-29.8809,-7.5054,
23.4184,-6.7659,-0.55981,-7.4091,7.0003,23.3691,6.0556,109.4485,9.4158,-8.8775,-3.8978,-7.345,-28.088,1.644,
19.1133,0.40592,-10.193,-8.8977,-4.452,7.8669,8.5918,98.0484,1.1177,-19.9444,-1.7308,-1.1047,-27.3695,1.5458,
26.1824,1.8306,-7.1651,-3.0475,8.8642,20.6127,18.2254,97.4809,1.5342,-23.0968,-2.1106,-2.4885,-26.2101,-3.8642,
27.9947,0.2708,-1.4188,-7.2147,18.4815,18.8923,22.4482,105.732,0.95854,-15.4282,-1.5003,-7.6555,-25.1211,-7.0151,
25.3486,14.3546,-6.1664,-0.98178,3.2726,19.6924,14.3354,109.9372,1.8674,-3.8698,1.4897,-3.3298,-24.5802,-3.6942,
23.3436,15.3423,-5.3137,-2.3738,-11.0238,9.3281,7.1916,101.89,11.9044,0.71143,6.7158,0.25269,-20.689,5.7092,
23.3935,4.2727,-0.64489,-7.5468,-11.1596,-5.3316,7.2438,87.5612,7.8074,-3.6803,0.9974,-2.1788,-23.7977,-1.8824,
29.2394,5.4664,-3.9889,1.1214,3.61,-3.4771,20.9092,68.2075,5.889,-2.0104,-2.4461,-4.4645,-18.9862,-9.9849,
22.6523,-8.9616,-6.6487,-0.87856,17.4934,0.59788,25.3705,55.5006,7.4693,-5.7552,4.468,-14.8293,-13.0143,-5.5194,
13.0768,-22.5239,-5.7666,-0.34267,15.3088,14.5779,9.7483,59.4201,4.6043,-11.6931,7.5821,-14.4227,-8.8503,-4.7051,
9.8754,-22.937,-9.7706,-2.7385,11.0066,27.8032,0.064309,55.3712,3.8444,-8.5752,-3.0219,-7.2746,-12.6693,-6.8391,
17.9824,-14.7944,-0.48525,3.2258,4.5471,40.235,11.66,59.7817,13.2801,5.4721,-2.8406,-3.9382,-15.7755,-1.5961,
16.9039,-16.8063,-2.3889,2.0659,-9.2584,51.9209,17.7267,48.4621,12.4833,5.1437,6.0299,-6.6019,-15.7953,-7.2994,
7.6733,-17.2479,-16.2619,-8.208,3.3798,48.0692,11.3468,31.4543,-1.3148,-5.3149,2.2844,-7.6558,-13.3976,-13.1451,
15.4293,-7.0303,-10.9362,-0.46555,17.277,57.2669,7.2828,28.2016,-3.6522,2.254,-2.2026,1.0199,-9.211,1.66,
14.0194,-13.8589,-8.8305,-8.6544,4.0726,61.0804,10.2285,40.6095,-1.9836,3.5683,-2.5536,-1.4581,-13.0079,0.10994,
11.7292,-3.8438,-9.7497,-9.5842,4.3119,44.3665,23.7148,24.073,-0.41456,0.93785,-0.95042,-3.7869,-13.6774,-12.9457,
20.2077,6.5355,-4.8152,2.1058,18.1532,27.6886,26.5574,8.5286,-0.87286,4.2648,-4.2766,5.6234,-7.5399,-7.8194,
22.8616,-7.9567,-4.5272,-8.6533,31.164,40.1273,16.2644,16.8005,0.14587,6.9079,-4.9863,-3.414,-5.1548,-2.5176,
30.1894,-0.1447,-2.3219,-1.3677,36.3755,51.8197,23.9881,29.3243,13.6698,11.3271,7.8783,-17.3091,-0.012825,-0.43287,
33.6944,6.1467,3.1337,4.998,34.6757,62.8105,29.7983,13.5494,12.366,2.4311,10.7892,-21.0187,0.47159,1.0431,
25.39,-8.238,-3.3365,-2.5514,19.5465,44.9419,18.8282,4.5205,-1.4246,0.83572,-1.9404,-5.6576,-10.6726,-2.4027,
21.9334,-6.7764,-5.07,0.50165,9.6747,41.1103,14.7985,2.3166,0.59454,14.8856,-3.7576,-3.4695,-9.065,-9.9912,
19.167,-3.954,-4.2826,-5.8116,2.811,39.1269,13.4269,0.72713,5.8748,15.841,0.81739,-7.6109,-4.1725,-14.7076,
17.5338,-5.1672,-8.3752,-7.8797,-2.6745,24.697,7.305,9.8658,-0.7609,0.8747,0.28516,-1.8383,-10.2044,-12.3756,
22.2813,9.2429,-1.1068,-5.4738,10.0519,28.0484,17.4994,2.5079,-3.6148,14.3545,0.26759,3.1051,-9.5926,-5.8336,
24.8112,16.821,3.7928,-9.9776,20.082,40.4655,22.2494,-11.7426,-1.4647,20.26,-6.5144,-2.8807,-8.0502,-14.1822,
26.2216,1.7117,-2.2348,-1.6472,12.1107,40.3689,14.1476,0.16246,3.4559,5.5117,-1.2908,-3.6742,1.1319,-12.3658,
18.3661,-10.8728,-10.3161,-3.9647,-2.716,23.8467,7.0165,4.5027,-2.0678,-5.9344,6.0367,-4.9038,9.2803,1.4261,
24.9964,3.8796,-4.8644,-0.82681,4.297,21.5341,17.2273,-9.8675,-6.7765,6.0198,0.84083,0.22317,13.5562,11.9724,
37.5966,17.7468,-5.5394,1.156,18.1392,25.0753,24.8937,-16.4404,-0.57035,12.4254,-8.8746,4.0766,4.0442,-0.34459,
38.6394,16.5129,-9.0738,1.0862,18.4163,16.8039,21.4664,-5.789,6.2298,0.080356,-4.4762,-0.034819,2.8339,-8.0571,
33.4215,13.5889,0.17013,8.7542,3.2113,7.0971,24.0448,-14.1403,4.8892,-10.5567,4.4919,-8.7323,16.7638,6.5263,
33.3498,12.7745,0.16084,0.4962,14.22,-2.0278,25.5026,-27.3918,3.6304,0.7094,5.1887,-9.1747,20.0239,8.467,
26.5157,6.2076,-6.6156,-4.3668,15.299,-1.9066,9.8724,-29.0469,-0.45427,13.2327,-2.8558,-0.89103,4.7224,-6.141,
21.5411,6.3179,7.8813,-2.6547,0.28111,10.2896,0.66417,-25.855,-2.8443,14.8551,-5.1008,-1.3212,12.2559,-2.7884,
18.3159,-1.7935,11.1907,-4.4286,-9.3171,0.97359,10.2907,-37.836,0.22683,12.997,-0.92792,-5.1078,12.4874,1.2457,
15.767,-12.8018,-3.5808,-0.77974,-1.5085,-13.1848,10.1564,-34.1154,-2.2036,10.7676,-1.3554,9.2986,-2.3619,-8.0122,
18.6873,-12.9995,3.4841,-9.4325,0.51517,1.7063,8.5807,-21.4362,-2.0709,12.0548,-3.2073,22.8407,-12.7683,0.20167,
14.6665,-10.2869,11.975,-12.7329,-5.3157,12.7193,9.0322,-34.25,-2.9139,10.3651,-3.9821,7.3703,2.0978,8.8886,
18.6193,2.8958,9.3229,0.5965,-7.8959,-2.1438,10.4234,-26.7941,-0.80547,8.7759,1.0904,-5.7229,-7.2953,4.489,
25.2348,3.6889,6.8303,1.5275,-9.3553,-16.1152,12.698,-11.0865,-0.75761,11.1498,2.9582,-3.4463,-17.4899,0.35281,
21.7875,-8.1311,14.1537,0.46906,-4.9281,-1.4474,20.6357,-24.5213,-5.5444,11.4467,-0.11975,-6.1391,-9.6746,-0.63425,
19.5139,-3.7773,13.3049,-2.4586,4.0671,12.7395,25.1971,-37.15,-5.2122,10.7604,1.8215,-6.7366,-2.3273,-0.59666,
27.5258,6.5993,6.2239,-3.7602,7.2067,8.0256,24.1689,-24.2042,-6.3485,11.5648,-1.6714,-1.9834,-8.4704,0.88914,
29.7406,3.3029,10.6827,5.164,6.7739,-6.556,21.7519,-15.986,-0.16902,7.0041,-0.60429,2.0025,-10.8626,1.8026,
18.2903,1.172,8.1081,4.8542,1.5347,-20.2626,7.8809,-29.1269,4.6748,-7.5162,1.3647,1.8823,-12.1436,-3.1383,
16.2261,8.8335,0.8553,4.5629,1.4417,-11.1464,12.2408,-41.4792,-2.3721,-20.0297,1.2828,1.7685,-9.4822,-3.9172,
16.2193,-5.7965,1.7708,-6.3431,-4.4434,-6.6108,24.0722,-38.8218,-6.0966,-4.7279,2.1727,2.6292,-5.0465,-0.78175,
16.6957,-19.5487,10.8477,-8.3793,-14.3263,-20.3141,22.1447,-39.8757,-4.2803,8.0375,2.5255,-0.91176,-6.1942,2.6474,
29.7939,-4.2758,11.6473,6.2234,0.63326,-28.1934,25.166,-27.3336,-3.5403,9.0048,2.858,7.3598,-7.272,7.8054,
42.1063,10.0807,6.1148,-0.034068,14.6953,-12.4018,28.4883,-13.1282,-5.2615,8.4645,-2.1471,10.7836,-8.7694,8.3034,
50.5276,23.5759,7.6811,-3.8979,-0.28645,2.4423,18.0804,-16.2064,-0.11267,6.0235,-3.9514,6.2707,-11.1418,6.8393,
60.545,36.2613,6.7366,3.585,-14.3693,16.3957,12.6456,-22.484,0.37773,4.2121,-4.198,11.2108,-11.9242,4.979,
68.9946,48.1857,6.8156,10.6195,-22.6903,29.512,20.1028,-10.9854,-7.8617,8.3089,-6.362,23.5868,-13.6247,11.9288,
61.4713,59.3945,-1.8088,-4.1177,-32.4443,41.8413,8.7475,-6.9426,-17.5391,11.194,-16.1294,15.8889,-23.9235,2.0313,
57.783,69.9308,0.23248,-14.4188,-31.464,53.4308,4.3563,-11.3597,-10.6868,12.4551,-13.2289,10.1028,-19.5881,-3.8906,
59.1496,79.835,9.8849,0.54634,-28.6098,64.325,12.794,-4.8781,-3.2792,4.9414,-6.6351,12.3966,-7.7801,4.0756,
53.667,89.1449,10.2582,9.6117,-40.4259,74.5655,17.8259,7.98,1.7503,14.3113,-2.3716,12.6192,-6.347,7.6974,
45.1311,97.8962,2.3931,-5.065,-50.0826,84.1915,13.3736,-2.6474,3.0948,18.7685,-3.6788,11.3789,-11.282,9.6524,
45.3228,90.3809,7.0827,9.3389,-40.3118,89.4962,14.5039,-11.189,0.0095549,12.8092,1.3751,15.5293,-4.8056,11.9728,
35.3543,75.7762,5.2078,3.9459,-37.4094,89.4428,12.1842,-5.2013,3.3917,12.5243,-2.0902,12.1812,-5.0009,4.0053,
30.3326,82.8283,-3.8042,-6.9241,-29.3653,98.1762,4.6867,-12.6215,7.055,23.3724,-11.6316,19.1826,-16.3004,2.7982,
41.0781,89.4577,6.0904,-2.6423,-19.8707,103.3169,1.5055,-21.5306,-1.101,24.8691,-15.7664,24.798,-20.1551,7.463,
41.5139,76.3579,8.6245,-5.3833,-25.4443,84.552,-0.51751,-19.2719,-10.7008,16.6111,-18.6863,12.6778,-17.9789,-3.617,
38.5399,75.1596,2.7911,-1.6771,-25.3681,83.8285,6.7626,-13.7661,-0.87653,23.8303,-10.3156,11.4331,-7.7179,-2.9168,
26.0779,58.5669,-0.75953,-4.9596,-25.2956,64.6987,9.74,-27.0401,2.5592,19.0182,-2.4471,1.5648,1.9283,6.4404,
25.9628,40.9529,7.5019,0.65474,-32.961,54.6187,7.7056,-29.6831,-2.9102,14.493,2.0492,-8.6786,6.1621,6.5372,
21.0228,24.3957,1.7359,-0.835,-45.0834,45.0584,0.96058,-22.5853,1.6139,12.1739,3.3758,-0.90833,-1.4571,-4.0036,
5.6614,8.832,-12.4682,-14.8849,-56.4784,28.2549,-7.3129,-35.3302,7.7998,4.1944,-3.1094,-5.2029,-10.5524,-13.9125,
-4.7432,-5.798,-14.0524,-10.5241,-50.5042,16.4955,1.3417,-47.3104,10.715,5.3923,-1.4733,-8.2739,-1.7034,-3.8955,
9.6413,8.6499,0.89076,2.6733,-33.3739,29.6058,9.9603,-35.6045,1.3726,10.8683,0.54825,0.92113,2.2656,5.0378,
23.1629,22.2309,5.5855,8.7961,-17.2715,30.6449,9.8463,-22.3514,-9.8257,13.5994,-1.9005,0.38269,-2.2198,0.38597,
31.2703,33.6321,3.8013,7.7847,-20.2698,22.5235,14.5719,-19.5603,-15.5188,1.668,3.5298,-13.7403,5.1624,0.84645,
23.1109,19.531,8.8891,4.9008,-30.1695,34.2207,18.0471,-12.1044,-14.1045,-7.6153,0.90124,-16.2145,12.1022,11.9106,
21.7243,8.6937,7.3884,14.2721,-37.0593,18.0674,12.1311,-12.3455,-2.6256,-0.39202,-13.2528,-5.5762,3.6434,10.2296,
23.804,1.8898,6.4629,13.8999,-33.3853,2.8834,11.8869,-25.7047,1.8815,6.881,-14.3063,-1.8575,2.9416,6.2327,
20.9253,8.0587,7.5246,5.8164,-24.1326,-0.021386,10.69,-21.6606,-8.3809,-5.6141,-0.39929,-9.9629,4.2146,5.3755,
28.3698,19.1742,9.0059,3.5347,-8.5847,8.6799,10.0491,-12.6282,-1.1117,-12.0436,5.4247,-13.2305,9.7618,6.0194,
36.8162,20.4406,5.0824,-3.9269,-5.2546,7.6759,9.9293,-8.4874,4.2718,-12.7705,-6.9831,-13.8872,8.6929,4.2087,
27.3586,10.9983,4.2942,2.5909,-10.2552,-4.8669,8.8504,-17.1613,-4.2004,-11.5211,-14.7809,-15.4698,4.7881,17.972,
13.6344,5.022,8.3866,5.8191,-3.3572,-6.0249,7.8357,-30.2316,-3.4656,-7.4471,-3.7441,-10.1926,8.8499,28.9755,
13.7827,16.3198,3.0507,-4.1964,-2.1885,-1.797,5.4329,-26.3995,-5.1904,-10.8666,-4.4858,-6.681,2.5198,18.5379,
20.6884,14.3742,4.8003,-2.011,-16.1572,-2.6565,9.9396,-10.7155,-3.9126,-10.2146,-12.9166,-6.2801,-0.53135,23.2247,
14.6144,-0.58822,5.4787,-0.92394,-24.2868,-15.0625,11.2764,-24.1726,-0.77788,-3.8018,-17.9416,-12.6697,0.46689,21.8312,
21.4703,11.6134,4.1836,3.9642,-8.7296,-3.5261,12.5325,-36.8223,0.23515,-2.6073,-11.0651,-10.9432,-2.4611,7.9559,
32.2647,25.0166,6.3489,-0.62364,5.8942,10.7855,19.0301,-21.9629,-3.1626,-7.7672,-3.1521,-6.9029,-6.6625,10.8613,
35.6443,37.6156,6.4516,-1.0689,-8.5595,24.2384,21.272,-6.5451,-4.4228,-8.7512,2.3533,-6.9724,-2.8801,20.3596,
35.4397,49.4587,-5.535,0.92838,-22.1459,36.8841,7.4297,-9.1365,-8.9897,-2.4266,-4.5538,-5.5872,-9.4732,8.5048,
27.5134,50.5879,-17.7683,-13.2273,-34.9172,48.771,-7.116,-22.6884,-17.1494,-3.2473,-18.3805,-1.3856,-23.0048,-0.70452,
20.5462,43.2026,-10.4195,-12.3491,-46.9221,59.9448,-10.4713,-17.3761,-11.7714,-8.3689,-15.2604,1.1139,-22.5063,9.4868,
27.5293,41.0937,4.2216,1.4404,-30.0068,68.0089,4.257,-12.9513,-0.91556,-8.3499,-0.24478,-2.3361,-7.0559,20.0335,
33.6112,36.6953,3.9683,1.354,-23.7718,59.0956,6.8174,-26.2742,2.0394,-0.1162,11.2849,-12.8278,-2.8503,17.8651,
19.9945,23.8609,-4.9689,-0.65995,-36.4455,41.4499,-2.2912,-38.7978,-5.8157,9.5562,3.8414,-12.059,-10.4129,4.2278,
4.6949,13.2465,-17.7198,-14.7203,-48.3588,24.8629,-1.67,-38.7171,-13.6831,3.6674,-7.5045,-6.0191,-16.0708,-1.3422,
7.3982,17.2849,-13.7571,-13.753,-43.839,15.3234,-0.60302,-29.6282,-10.929,3.4469,-5.121,-8.5575,-15.1061,3.5715,
9.8534,13.3478,1.1683,-10.9942,-45.0751,24.0704,-1.5341,-29.7832,-12.2059,2.2737,-4.8138,-21.5759,-13.2334,2.3908,
8.2954,12.5465,12.1295,-13.235,-45.2705,11.0266,12.6579,-28.963,-4.7086,-6.5622,-0.65906,-21.249,-5.6735,8.046,
20.8467,21.9437,9.9518,-6.1582,-28.4543,3.115,22.4471,-36.408,1.8576,-4.7185,3.7305,-12.7241,2.8833,2.2469,
27.3286,24.4934,9.3547,-3.8551,-16.1989,-9.6373,14.3339,-45.8226,-2.1203,8.13,3.5067,-1.3279,2.7103,-11.9879,
13.6071,20.6075,-3.2893,-1.2074,-29.327,-19.2081,9.1238,-46.4569,-9.243,8.1259,-5.8865,10.8344,-10.5014,-25.3687,
11.8234,17.4374,-12.7574,4.6641,-23.6164,-7.4239,8.5764,-40.7694,-5.7885,7.6383,-4.5669,16.9498,-10.8386,-13.5283,
11.5976,2.2911,-10.542,-5.7648,-16.8831,-4.5611,1.7791,-38.806,-1.0912,12.4964,3.9235,3.851,-4.871,-6.4339,
10.4181,-9.8445,1.206,-1.0689,-17.3201,-16.3702,6.9887,-38.8949,3.3234,18.0293,7.0708,2.17,-1.196,-4.5979,
-0.35602,-19.4029,-4.1818,-1.4875,-16.7636,-28.4361,13.8194,-50.6612,-3.1578,9.6985,-2.5353,9.2888,-9.3397,-11.5711,
-0.33419,-17.2719,-0.065001,3.434,-13.8246,-40.83,15.8898,-61.7215,-2.9688,2.3498,-1.4163,11.632,-5.8798,-11.8436,
4.0354,-13.8197,10.0875,-0.15521,-18.312,-40.2301,11.5532,-43.9183,0.59251,-6.0071,-2.7818,-3.1659,-5.0438,-0.017119,
3.7933,-12.0232,10.4495,-6.9113,-9.4805,-25.25,10.86,-42.6477,1.5233,-2.7467,-5.5149,-17.076,-9.5739,-2.9161,
16.6147,-2.1191,8.3726,6.5524,2.2047,-26.1513,19.3911,-54.1888,0.9492,11.5181,3.0323,-5.25,-0.78405,-1.2911,
18.5179,-16.092,-6.2298,-4.4734,-12.0276,-38.6823,8.5613,-65.0375,-4.9078,3.9761,-3.916,1.8304,-8.4697,-2.18,
21.7559,-14.0755,-11.5714,-5.655,-2.5223,-30.4777,4.6649,-56.1343,5.5358,-2.5452,-3.1974,8.9706,-13.2779,-4.4656,
15.1342,-1.1492,-9.4271,-2.8994,10.6781,-27.199,2.935,-51.3162,2.7873,8.7239,-2.5228,5.0487,-13.9312,-11.4476,
13.2593,-8.8125,-17.561,-13.3586,10.0369,-25.5675,8.5585,-48.2377,-3.1795,15.9327,-9.1373,1.8462,-9.2285,-2.0612,
7.6315,-13.1169,-24.2396,-11.5902,4.6015,-13.4003,5.1445,-59.4435,-2.9892,1.4445,-19.2213,0.76865,-16.408,-0.97075,
9.1063,-5.5636,-13.1198,-7.9948,1.4255,-23.229,-0.96326,-67.8745,4.9229,-3.4749,-10.3353,4.5889,-13.4899,-8.6452,
18.7095,-8.6129,-7.9831,-14.7647,13.4231,-32.9512,6.3441,-50.7525,-1.6547,-2.7832,-2.4657,9.6304,-5.4309,-2.8106,
17.5869,-13.8961,-9.4368,-12.9124,14.5504,-28.075,19.4952,-50.6074,-11.2218,-4.5499,-6.185,10.9853,-8.0051,-0.70833,
5.899,-17.8951,-2.1043,-9.2377,-0.42259,-40.4905,17.3591,-61.6709,1.0506,-0.41052,-2.9139,6.4598,-2.6921,-4.5322,
6.9955,-20.2046,-5.3612,-12.0666,-3.2122,-52.1611,2.2176,-59.8193,-2.3956,-1.8354,-5.155,7.5227,-3.0137,-2.8107,
11.4076,-5.4605,-18.5722,-12.309,6.646,-34.9314,-10.3968,-42.1301,-15.7846,-5.5917,-5.813,12.8704,-8.6329,1.2243,
-3.2919,8.9671,-17.9411,-4.3209,-7.8528,-18.7355,-4.4562,-40.6537,-12.4207,-3.8066,0.81899,9.6813,-10.5308,-0.29872,
-16.6266,6.4118,-5.266,-3.0957,-21.4816,-3.5114,-2.2565,-31.4486,2.4245,3.1877,-0.19697,13.9336,-9.8994,-1.2476,
-17.5622,-7.5051,-6.8823,-16.4413,-34.2927,10.7993,-3.087,-36.3276,9.4445,13.6296,-5.0174,15.0308,-8.3386,-2.1396,
-16.5085,-7.0548,-1.6366,-14.4885,-46.3352,24.2513,-0.9691,-48.2479,0.17873,22.4772,-1.8173,6.3962,-1.072,0.8888,
-18.4175,-16.2974,-0.57254,-21.3524,-37.9013,32.693,-0.91049,-48.6517,-6.5988,12.4291,-2.6751,6.012,-1.0081,3.735,
-17.7961,-13.8696,-10.6873,-17.6549,-48.6763,38.9468,-0.37314,-40.4162,0.079838,4.4343,5.7018,17.734,-2.3976,3.9945,
-15.2783,-3.8547,-7.6287,-2.4956,-56.8712,39.9937,0.13289,-45.2412,10.225,18.2682,14.5424,24.8863,-0.80377,2.3049,
-14.8448,-17.7234,0.078511,0.9537,-48.1421,23.5791,0.60901,-46.8754,5.262,19.5044,3.5212,20.0099,-3.1714,2.6498,
-12.5041,-23.825,-9.1089,-12.1526,-44.7708,8.0643,-0.87845,-43.5801,-3.2701,4.2341,-3.94,11.5603,-5.3975,1.0408,
-9.3375,-10.3128,-13.8787,-5.1407,-44.501,-6.5195,-2.2757,-55.0653,3.2088,-4.1517,10.3964,2.6503,-2.6573,-2.4044,
-10.2273,-19.8431,-2.8969,-4.3486,-38.4477,-2.5765,-2.6219,-59.8932,5.4327,5.2801,13.0717,-8.6241,-1.0479,0.15624,
-12.5136,-32.7525,-2.7231,-4.0877,-38.074,-8.2219,0.4354,-50.4996,5.1067,3.0306,-0.27807,-10.0403,-0.98499,3.0469,
-11.2792,-27.8037,-8.8425,-11.0925,-36.2728,-12.0777,1.8593,-48.9196,8.1839,6.2314,6.9877,-0.2552,4.3905,2.3804,
-6.7361,-13.57,-4.4465,-5.5942,-35.0637,-4.5876,-5.0196,-59.5171,5.7593,16.4893,6.5675,-2.1735,16.6915,-2.5961,
-7.7819,-24.8385,-5.6288,1.0242,-29.5767,-12.5287,-7.1347,-69.9615,6.8637,14.0509,-4.942,-8.3258,18.1073,-2.923,
-7.7982,-17.0651,-10.6078,-6.2868,-13.7867,-19.0265,2.4765,-63.348,4.0351,6.9247,-9.9614,0.38961,2.9209,0.63555,
-7.3303,-8.3075,-11.9041,-3.976,-5.2263,-8.2185,4.2616,-51.8134,1.8603,9.4092,-9.3637,-2.5328,-5.8693,0.59742,
-6.4073,-21.9091,-6.8403,-1.3206,-5.3959,-10.1422,-1.3109,-60.7878,8.9982,14.1605,2.314,-12.5304,8.5828,1.0448,
-4.5728,-34.6945,-5.9463,-0.75863,-2.6558,-23.6337,-1.715,-71.2405,8.9419,1.2291,10.3915,-9.3622,13.3001,-1.4343,
-5.2657,-29.5451,-7.5231,-0.71311,-9.2628,-32.7638,7.086,-74.6143,1.6381,-11.411,14.6008,-3.9678,4.7685,-1.3482,
-8.3325,-25.356,-4.6554,-4.053,-14.0234,-19.6826,8.1109,-68.6874,3.9562,-2.51,11.3074,-5.1797,15.5987,3.0827,
-1.0667,-16.1015,0.45713,2.956,0.91803,-29.1339,5.691,-77.132,7.5856,11.1729,11.5958,-5.8348,15.6296,-0.0027612,
8.18,-3.0536,0.91242,1.3287,13.3443,-29.8022,17.4323,-65.255,4.7141,4.2198,18.1501,-6.9347,5.5082,-2.419,
-1.493,-10.119,-4.4582,-9.8669,-1.5564,-21.7309,8.1705,-47.2397,2.9818,-5.2166,4.9779,-7.0018,4.6945,1.1094,
-7.6861,-23.6119,1.1256,-14.5904,-8.6275,-18.977,-6.4198,-54.6385,2.3192,0.4137,-9.4208,0.66736,1.9974,2.4928,
0.024096,-24.5279,10.2408,-4.5331,5.9901,-10.5893,8.0654,-65.3757,2.6637,6.6707,-1.521,14.7273,12.0266,4.7596,
0.98993,-14.3562,-1.9727,5.4052,15.2121,-2.2213,19.1806,-58.5531,-4.2625,3.3714,10.1694,17.6255,5.5051,3.5077,
2.3801,-10.1126,-10.0702,-3.135,8.0162,-10.3039,15.6138,-56.4904,0.34281,-1.1805,8.1097,17.0511,-8.9253,4.7467,
-2.5964,-23.6058,-4.6333,-7.7805,10.4352,-22.252,15.6434,-67.201,4.1886,-5.9433,8.5894,11.1953,-4.4393,2.5292,
-1.4738,-29.3544,-1.4558,1.3858,12.7086,-24.7828,12.7716,-68.4002,1.0377,-10.4189,12.9072,-0.10864,9.9271,-1.4894,
7.7974,-16.4768,-1.8512,-1.1137,20.1624,-30.5449,12.4889,-71.5462,2.4255,-9.3111,7.7828,-2.5185,13.1137,1.9836,
3.9464,-20.805,-8.0233,-0.56368,18.4695,-31.129,7.3891,-77.403,2.7631,-5.3692,5.8654,-1.8842,8.9437,3.3142,
-8.8559,-33.6567,-9.4746,-1.4962,5.7623,-27.3276,-2.7196,-65.9915,6.4637,4.6193,14.2135,-4.6702,8.408,3.1162,
-6.3913,-41.7023,-3.1066,-2.3733,5.4161,-39.2211,-1.5906,-60.0998,5.1091,14.9744,7.5611,2.375,-6.1965,5.8279,
8.0922,-25.1001,-2.4375,5.0191,19.1911,-45.0833,6.7212,-70.5938,-1.4802,16.4923,-6.9926,15.2815,-19.9247,5.9618,
13.3216,-10.1455,-4.2244,6.6502,27.621,-29.8124,11.1511,-74.9731,0.54179,10.6696,-12.2889,9.5315,-9.3783,3.671,
11.5559,-8.5704,7.6281,6.2512,15.3319,-29.9573,10.4821,-66.6084,4.3756,-3.5024,-10.5843,-4.5722,-3.9829,-0.41566,
16.1789,-5.6399,18.2868,-1.3729,13.9284,-42.1753,13.2359,-70.8273,4.5967,-11.5086,-15.2656,-6.7142,-10.0266,-0.87436,
18.5909,-5.7842,7.0405,-2.7406,17.4427,-39.1611,9.059,-68.0277,-0.02906,-12.2681,-14.8333,-4.8614,-7.975,3.5281,
16.9927,1.8119,5.1681,9.5066,25.5788,-27.6297,7.0654,-49.846,-12.11,-8.1484,-8.6269,-3.1197,6.6035,10.5655,
7.7564,-2.6472,8.2403,-4.1133,23.56,-39.0205,5.1911,-60.9552,-25.4834,-9.1099,-18.2588,-6.3166,13.3722,0.7493,
21.3073,3.7952,5.3304,0.48346,31.33,-44.8947,12.1296,-71.3979,-12.754,3.5194,-9.9133,-0.62034,14.9863,-1.712,
22.4452,-6.5825,-9.0894,1.9045,25.1002,-48.4847,8.9855,-77.1795,2.1113,-0.075427,4.6969,-3.0004,11.6707,0.80707,
6.9985,-20.2875,-7.9768,-5.4598,10.5451,-48.9583,-1.7037,-77.8651,4.3164,-13.12,18.4305,-11.0358,13.3869,2.2086,
-3.4863,-33.1703,-2.1823,-0.78176,18.1283,-45.5376,-6.9173,-78.5091,7.4406,-7.9823,22.6415,-10.8568,13.0668,-3.2407,
1.5556,-23.2777,-12.684,-9.4349,28.6397,-40.8727,-3.6023,-81.5317,6.0278,6.5966,12.583,-0.53999,4.5501,-4.0126,
6.2954,-16.0815,-14.8225,-9.8347,26.9218,-37.4535,-0.48662,-80.5057,-3.9998,12.3994,4.0958,11.0919,1.3776,4.9277,
2.535,-18.4994,-7.6505,2.8372,25.7892,-43.4217,-1.9065,-83.8917,-2.3098,5.3718,7.2328,18.6419,6.6113,11.8811,
-0.033499,-14.0067,-5.7414,-4.5821,36.3245,-46.1328,-0.34212,-90.9404,-0.7212,3.6004,3.4161,8.3415,3.7982,12.6182,
3.8344,-3.5004,-7.3301,-0.44127,20.0451,-29.2648,-0.32205,-80.6513,-5.5111,8.2167,-1.6221,-3.7585,2.6035,17.6607,
1.6712,-11.9899,-8.8235,0.55202,4.7424,-23.2444,-11.9023,-83.5449,-0.34726,-0.97586,-0.55792,1.3002,3.4141,12.7351,
15.6709,-2.0878,0.88863,-1.8975,18.5578,-25.2324,-2.0054,-92.6322,2.0899,-12.0327,4.7919,10.404,4.6584,12.4537,
28.8306,12.1375,3.2521,-9.9995,31.5444,-37.7344,12.2149,-100.0388,-12.1355,-24.3594,3.0549,-4.3203,6.7957,16.057,
31.7653,5.5256,4.9902,-1.6664,43.7517,-49.5703,25.582,-93.0697,-20.0218,-15.1656,-1.9616,-17.5083,11.2211,19.9267,
28.893,-8.906,4.6908,7.1327,55.2266,-60.6961,33.0616,-101.5855,-14.9551,-10.3893,-15.9439,-5.825,5.7151,19.6975,
39.7253,-22.4716,14.0752,-1.0275,66.013,-71.1543,40.7438,-109.5904,-11.1573,-15.5655,-7.6532,-2.576,19.4722,22.3815,
46.0413,-20.9542,22.8966,9.6664,76.1522,-80.9851,49.8987,-117.1149,-3.722,-17.5311,6.906,-13.0537,32.4039,20.0727,
37.962,-23.0801,22.006,23.1023,85.6831,-90.226,55.1207,-102.1021,-6.8819,-21.7951,11.2398,-16.62,37.54,15.4852,
29.4016,-28.9453,6.6702,8.6671,94.6421,-98.9124,50.3634,-110.0759,-8.8853,-24.8374,9.1154,-8.3737,21.2722,9.2397,
21.8371,-38.8081,-2.4296,3.313,103.0636,-107.0777,33.2416,-117.5714,-11.2526,-22.3812,6.6353,-5.9381,22.8954,-5.4146,
23.4273,-36.4791,6.4158,5.0483,110.9798,-114.753,34.7144,-119.5311,-10.577,-7.5052,4.304,-6.5487,9.9231,-6.4552,
17.6717,-27.0404,3.6144,-0.57097,118.421,-121.9678,37.9479,-107.0429,-8.4924,-1.7385,6.4621,-5.6721,-4.6887,-3.6515,
7.4296,-32.668,0.98122,-1.0204,125.4157,-128.7498,29.3883,-107.8699,-11.3656,-6.9506,7.5244,-6.7818,9.6927,-6.8152,
18.0988,-36.0238,10.1046,-0.47595,131.9908,-128.3968,24.2418,-94.1481,-6.3341,-8.9504,6.5898,-5.8917,23.2111,-4.9567,
27.6451,-27.0965,9.4979,-0.44693,138.1713,-126.4925,18.9205,-81.7334,2.7446,-15.1792,4.2612,-3.605,7.7184,-4.6598,
22.1205,-31.2702,9.8948,-3.3206,132.2517,-121.803,24.5512,-81.6621,13.2131,-8.4689,6.9051,1.4445,-3.9442,1.4194,
6.6933,-43.494,2.5348,-11.8204,110.2166,-123.1939,19.2117,-88.3619,6.6203,-4.0945,4.558,-5.4086,1.1252,-6.3985,
3.4758,-43.7003,-5.8332,-1.9289,99.8213,-116.2859,12.7431,-87.4102,5.7399,0.50075,5.7341,5.0646,-3.2928,-9.3978,
10.034,-33.3451,-5.4828,3.9873,92.8662,-108.3419,12.9454,-92.7973,11.195,4.3375,4.4232,13.4611,-5.9948,1.7993,
-2.6503,-35.6939,-5.637,2.2976,80.0447,-105.2246,13.6182,-85.78,2.3074,-2.2059,-2.1244,-1.4465,-3.2183,-1.6919,
-4.4244,-31.6191,-11.0983,-4.6062,62.6761,-96.0111,15.7006,-66.5332,8.9349,-2.074,6.7017,-8.0415,-0.12564,-13.1899,
4.5401,-33.5883,-8.4997,-7.2298,60.8482,-96.05,11.8595,-48.4412,13.2324,-4.8486,6.2996,-2.7263,-3.0172,-10.4649,
12.4841,-32.0557,3.1267,7.304,71.2973,-99.4692,19.3643,-58.752,5.1894,-16.6404,6.4052,-7.8791,0.54657,4.1785,
6.4187,-32.5497,6.3218,14.0312,52.9195,-98.8179,19.6515,-67.3096,8.2608,-20.9584,20.1209,-14.6554,6.7965,-7.1886,
6.5167,-28.1799,7.392,12.7061,35.6443,-78.7888,14.1229,-52.1551,12.1146,-14.385,15.4459,-7.4938,7.8382,-17.8732,
19.658,-13.9232,10.8153,12.9106,47.6057,-59.9615,27.3755,-36.4599,2.6882,-12.5541,0.41916,1.6553,7.3684,-2.7008,
23.3117,-9.2219,10.1659,5.3691,58.8493,-67.6484,39.833,-35.2392,-11.5731,-16.635,-5.8041,4.4555,4.9931,0.76033,
26.2625,-10.1181,12.9391,10.3638,69.4184,-77.6895,49.357,-34.5748,-4.0277,-7.4201,8.56,11.4377,12.9094,-13.3012,
25.6531,-20.1437,11.1964,3.942,79.3533,-87.1281,46.3956,-46.6003,8.7793,-6.0085,2.2464,-1.8139,16.9685,-18.3022,
33.2971,-25.2183,9.0751,12.8886,88.6921,-96.0004,45.0614,-54.3524,8.7358,-9.0312,5.4948,-10.8874,16.4336,-5.1218,
33.2325,-30.4711,12.3965,19.8476,97.4705,-101.103,41.3909,-45.2918,2.4121,-5.5898,19.2651,-5.4019,19.3135,-3.8477,
20.1226,-32.9928,14.0695,7.5408,105.7223,-89.7205,39.3906,-48.857,10.4833,-2.8376,21.891,-7.4937,21.5378,-12.8,
5.8657,-29.5632,5.9758,5.6388,113.479,-86.7536,28.8113,-56.0746,13.2374,-8.9505,7.5289,-9.4609,11.0633,-12.5152,
13.7301,-22.4731,0.30092,5.7832,114.2964,-82.032,24.6663,-50.2938,-1.6568,-8.8962,7.5599,-2.6105,6.0495,-3.5479,
27.0063,-17.742,6.5656,11.7189,106.955,-75.6606,36.2354,-43.8934,-5.8228,-8.846,15.3227,-4.8702,15.8356,-0.91867,
19.0182,-26.8261,1.8221,9.5663,86.4377,-76.4368,28.7444,-43.6762,8.6265,-12.6648,11.9865,-7.9612,11.5023,-10.0467,
5.3117,-30.0492,-2.1536,-1.6404,67.1515,-69.9175,19.288,-44.922,8.0248,-7.0722,3.5346,-3.6171,0.18036,-11.3766,
19.093,-20.0309,12.0756,12.558,60.3915,-56.5397,30.2129,-45.6098,-6.5567,5.4344,6.7057,-2.9169,11.2845,-0.54451,
16.8965,-18.829,5.4675,12.6872,42.668,-57.0137,23.567,-46.7396,-5.1123,5.1088,1.4702,-10.4742,5.7752,-0.5123,
1.7827,-14.7993,-8.9606,-2.174,30.043,-50.6928,8.053,-42.9684,8.7271,5.7686,-5.3835,-9.8457,-8.6713,-1.4479,
-5.9733,-14.3949,-2.5393,-3.8926,42.3404,-43.3022,9.5871,-45.7071,-0.013776,7.8388,-2.6441,-16.505,-6.1338,-2.811,
3.0851,-17.3976,7.2794,5.04,37.7827,-45.5368,21.5782,-45.8638,-8.7111,7.3685,8.1472,-14.5474,8.3343,-3.6087,
2.9004,-12.4869,4.9095,8.6044,25.8498,-48.6041,16.4167,-35.3792,-2.3889,5.9596,14.4243,-7.875,13.0665,-2.4254,
0.31003,-6.4214,-0.70147,-3.0273,14.1498,-36.5047,3.3499,-29.8733,0.17079,9.952,4.3771,-9.8189,2.1334,-6.6299,
11.4064,2.1798,5.6229,0.53661,0.25125,-20.2144,15.2312,-25.6645,-2.2563,18.5381,-5.0687,-2.9475,4.4213,-0.91618,
9.7561,0.11585,11.085,1.4712,-0.73064,-17.1529,10.4505,-32.8242,-8.8868,4.8599,-11.5314,-8.5702,-1.6435,3.972,
10.1371,3.0089,15.2536,3.3166,13.4132,-25.7901,-3.7083,-27.9548,1.3118,-4.1317,-6.9732,-8.056,2.3214,8.5664,
23.6289,13.4606,14.3379,16.6499,11.0743,-16.51,9.0791,-15.6452,5.1,-0.98334,-8.488,0.16057,7.9817,8.0528,
21.6434,10.7193,15.4113,7.9181,-3.6902,-14.5526,22.0671,-19.5392,-1.006,-1.8916,-7.9787,-2.7491,1.7028,3.7033,
6.2448,-0.55608,9.6534,-6.6569,-7.7337,-20.4453,6.6431,-25.1332,-5.7779,-7.5777,6.6,-10.3173,-0.33163,-1.3521,
3.5383,0.44411,5.2083,5.9088,5.2962,-7.6195,8.7454,-24.5916,3.2683,1.5765,17.2358,-0.031445,12.2542,-0.30412,
3.3256,-13.6825,1.9954,5.5548,4.978,-11.0287,22.3207,-37.2161,10.8044,-2.384,2.1017,-2.93,8.6185,-5.119,
-2.1903,-22.4434,6.2256,5.7042,-4.5034,-24.3829,8.331,-34.899,9.6725,-3.6909,0.12695,-12.9033,-2.0477,-10.1283,
-3.0253,-14.3299,10.6848,3.4292,-3.2669,-24.8531,-5.7007,-21.2055,0.3931,1.3633,12.6848,-4.3964,-2.8912,-2.7542,
-11.5428,-24.1029,-4.0563,-10.8765,-0.17085,-11.7624,0.44045,-27.6659,-7.3632,-11.284,3.2246,6.5001,-13.3505,-1.6226,
-8.9175,-21.6903,-8.0783,-6.7566,5.6394,3.0434,7.1804,-22.1396,-0.15505,-10.6069,0.13113,4.1765,-11.5831,0.4084,
-4.5157,-6.2889,4.9723,3.3146,11.1006,8.0926,2.8837,-15.0117,-4.0126,-3.2046,11.7228,-4.7727,3.2119,3.2834,
-9.5606,8.1884,-0.64197,-3.1665,11.8841,7.1238,-3.5725,-22.3269,-16.8204,-7.3619,6.6699,4.6959,1.0019,-0.29675,
-9.4711,4.6284,-14.7035,-12.1597,5.8551,12.9791,0.024992,-24.3709,-14.3617,-7.4033,-0.97984,7.7973,-8.2414,-3.6621,
4.6294,5.3176,-6.0049,-1.7642,7.4361,19.9326,8.7221,-13.2428,0.60004,4.6395,13.179,-0.4037,5.7854,0.42442,
8.7021,9.348,8.3713,5.5912,4.574,19.2203,0.95016,-11.9646,4.3467,-0.9548,17.1364,5.9037,6.8887,-2.0179,
-0.036362,9.2708,-1.3137,-8.8443,-9.8004,8.8844,-7.3232,-25.2621,-6.0641,-12.9802,2.0082,15.6985,-5.6073,-8.1795,
6.7322,17.4136,-4.1339,-5.3291,-23.3124,10.2849,-0.11745,-23.7464,-8.5993,-5.4351,-4.7941,9.9239,-0.43727,-3.8224,
9.711,11.0524,7.2295,3.2061,-36.0137,21.7496,-10.2604,-10.2398,-3.7343,-4.6262,1.7763,4.9785,3.938,-8.9094,
-4.9717,-2.1766,8.7289,-11.0862,-31.1832,15.6124,-23.1761,-16.3909,-10.2761,-13.0473,-3.1626,4.6802,-10.3982,-21.9071,
-8.4556,8.1031,10.6216,-2.6033,-20.1295,6.4593,-7.6855,-21.6906,-12.0759,1.8356,-5.3901,8.7494,-14.5229,-8.5099,
-0.21559,13.4169,5.1506,0.45195,-22.789,12.8376,6.8756,-9.7569,-8.4523,4.5399,-6.033,8.2235,-2.0525,0.69973,
6.0801,15.9946,4.3589,-5.8579,-18.038,18.3501,1.4603,-3.8556,-11.3278,-2.0152,-4.2211,5.3138,-0.47935,-5.6259,
5.2321,18.4181,7.4805,-3.0905,-7.7735,11.9327,2.8231,-17.7243,-11.1313,7.2889,-10.251,9.3445,-3.8338,-15.437,
7.8182,16.3466,6.0653,3.8622,-6.3398,18.9499,15.2192,-20.4421,3.6365,3.9516,-5.7696,9.7511,8.9626,-9.6771,
1.0663,9.0831,4.2514,8.9459,-20.0594,23.1293,12.856,-5.1156,6.2338,-10.3855,4.7257,-4.934,13.7403,5.0035,
-5.7635,1.7713,3.9959,1.6433,-32.9559,14.0088,4.3524,-11.6591,-5.7398,-23.8624,-4.2565,-13.2529,-0.61638,8.4846,
8.6823,15.7651,6.6566,7.3442,-16.8785,27.2683,11.8235,-9.0264,-1.5286,-8.3306,-18.1011,0.10724,-1.5462,6.0424,
20.1595,28.9191,6.2567,7.8704,-1.7658,39.5635,12.0809,-2.6853,2.4299,0.9533,-19.3468,0.10127,6.2797,6.6467,
4.8499,29.9158,7.8149,-4.2009,-11.8094,32.3565,3.6234,-6.3905,-2.5495,-9.7366,-14.3196,1.0615,-0.86249,2.3815,
7.5426,34.4035,3.9624,5.2338,-11.5845,35.731,4.8559,8.0083,-1.9129,-1.9033,-12.0114,15.0979,-7.0944,0.78862,
13.3732,32.8225,-8.3576,3.4703,-0.73894,36.9708,7.9478,8.0115,-3.2476,-11.9378,-13.7066,6.8588,0.58082,1.2245,
14.0203,28.4363,3.2598,8.5779,-3.1114,35.2357,17.6204,2.2144,9.9958,-10.7383,-0.80195,-3.7023,14.646,8.4005,
3.9964,21.4138,5.4805,9.5123,-9.2084,24.9052,16.0796,-1.3021,10.8452,-1.8786,-2.2038,-2.031,13.1995,8.3792,
6.6562,21.0958,3.2185,1.2094,-3.8227,18.5778,11.248,-0.25713,2.4622,-3.699,-4.0048,0.99127,1.7743,10.7769,
13.5068,23.2137,4.4754,6.4531,-8.9097,20.8467,10.0904,-5.5576,-2.0346,-14.5925,-11.9808,-0.5182,3.1188,2.8812,
17.5291,19.8872,4.2069,10.8987,-17.0742,18.6291,16.2504,-5.2246,11.6193,-4.0515,-1.5956,9.1783,12.5971,-4.058,
2.3773,4.594,-10.1455,-3.8552,-30.0652,3.4114,1.1754,-11.1938,4.6394,-7.1912,6.7155,5.2449,1.6922,-7.1981,
-11.8653,-7.6793,-8.969,-1.1225,-28.7444,-1.0583,-7.0265,-10.0386,-7.7212,-7.2429,1.9631,17.0134,-8.558,-1.4494,
-0.35152,6.8814,1.235,4.7443,-21.2202,13.1052,1.1283,2.1628,-9.1911,7.2917,-12.2547,30.0926,-10.9449,5.4034,
-0.81361,20.5685,-8.0214,0.11015,-25.2629,26.4189,-3.2889,3.483,-12.9892,2.9042,-25.6194,14.6697,-13.6714,8.4624,
-5.5984,16.7489,-18.1728,-5.6965,-18.9144,30.9478,-4.0589,-5.4255,-8.3435,-8.8701,-11.8304,8.9568,-8.9848,5.0547,
-0.42935,17.6772,-15.1492,-9.2215,-5.2146,33.9236,1.0178,-7.0336,-6.877,-4.471,-4.3547,22.5194,-5.5461,2.8182,
2.496,18.5497,-13.2735,-5.7677,-10.7003,37.6882,-0.97643,-1.7779,-13.2303,-6.136,-18.1934,16.7346,-10.0456,0.71592,
1.3798,18.4031,-5.7116,-3.489,-16.8256,43.1592,0.048518,3.161,-5.6701,-18.3341,-9.7686,1.6305,-2.6775,-0.29339,
3.7129,15.8494,4.7806,6.8699,-24.0319,29.4537,6.3288,7.3213,8.7701,-20.6173,4.9175,-10.9495,9.5664,1.1738,
3.0074,0.79841,3.0438,9.8404,-36.69,13.5865,6.4327,-0.36747,15.4089,-10.1975,18.7224,-17.5416,10.4424,-1.313,
0.89428,5.6678,1.8948,3.4509,-33.4368,10.9227,7.0131,-7.1113,11.5843,4.5143,21.2977,-4.8901,9.8158,-1.2342,
-8.343,15.4768,-6.4353,-6.9052,-42.5469,24.3674,-7.5077,-5.2351,-3.2107,4.1598,5.9198,1.6861,-4.8731,-11.3093,
-10.2592,7.2987,-8.466,-9.875,-54.0941,24.2703,-12.2895,7.1613,-14.0494,-6.2393,7.0978,-2.7646,-9.813,-2.4148,
-17.3764,-3.772,-19.5571,-12.1816,-64.9485,27.6472,-12.5185,5.7648,-16.1064,-13.5977,0.87288,-5.4988,-12.1242,0.63007,
-10.0502,10.5543,-6.3009,-6.1343,-46.9515,40.0884,-8.3846,19.5189,-13.69,-7.4654,-11.2622,5.9466,-8.9804,0.10863,
2.1514,22.4024,6.643,-4.7994,-44.5335,51.7831,-7.8811,25.03,-12.8682,-4.118,-16.386,2.6903,-10.3747,0.10257,
1.0555,11.3924,3.344,-1.6119,-55.3938,58.6565,-7.4087,9.4282,-13.0629,-5.8041,-11.536,8.3284,-9.7518,3.9623,
-6.7401,4.9093,1.2102,-7.3147,-59.8033,41.0371,-1.1646,2.6639,-7.4469,-3.5227,-12.777,19.4282,-3.3672,7.5914,
-3.9193,-4.568,1.6212,-5.4259,-70.3151,28.9936,-10.2766,2.0209,-0.71643,-1.8613,-15.3931,10.0462,-1.7151,12.4523,
0.18222,-12.993,4.4239,-2.2012,-69.878,20.4876,-18.36,-6.7999,-2.6071,-3.6833,-1.9041,1.7107,-4.5122,9.7715,
-7.0778,-9.797,-1.1579,-11.251,-54.569,8.1429,-11.942,-8.8083,-9.6997,-6.845,3.5265,-7.5747,-6.6578,3.8688,
3.496,4.8908,7.1279,3.4395,-37.1948,21.7543,-2.0428,5.8202,1.9977,4.6821,3.7976,-12.4366,5.8243,11.8531,
5.2198,8.3791,11.533,1.2995,-36.0141,34.5491,-8.6866,19.571,6.7115,2.4675,1.637,-20.3894,8.374,14.0419,
-6.2097,-6.2236,5.5247,-5.0612,-47.9532,18.3761,-4.7817,11.4617,0.99241,-6.8633,6.8552,-21.5824,1.5888,5.9494,
-8.2535,-8.182,-8.9068,-4.2739,-59.176,3.1736,5.6542,3.5249,-4.3835,3.6985,14.6602,-6.272,1.9771,-1.6567,
-8.2419,6.4089,-15.5378,-8.3674,-69.7255,17.0831,-3.8677,14.4289,-5.5705,17.5766,2.6643,2.3206,2.3412,-1.0745,
-13.5465,9.8062,-4.9392,-1.099,-79.6419,30.1582,-17.7357,27.0958,-4.2699,21.2702,-6.1947,-0.71861,-4.5647,3.8236,
-9.8337,15.0178,-5.6092,-3.9331,-88.9634,42.4487,-26.736,21.6037,-4.0137,17.094,0.94244,8.9909,-10.0908,-1.2386,
-8.2778,28.2167,-10.1058,-4.6639,-97.7256,54.0018,-28.0323,25.1402,-8.6061,17.0351,0.88635,19.0837,-6.5858,-4.0647,
-13.5797,33.6892,-4.6663,9.7159,-105.9621,64.8616,-35.049,34.2645,-6.1556,18.9126,-3.0327,15.0391,-12.9566,7.7787,
-11.3159,34.0832,-8.7363,4.2161,-113.7044,75.0699,-35.3633,34.625,8.3137,16.3278,0.53195,22.3522,-26.2792,9.7283,
-1.9378,45.571,-8.2122,-4.7368,-117.8064,84.6658,-26.4752,35.4471,12.5631,14.3818,-1.4336,28.7438,-33.3178,5.2783,
-9.0706,32.6876,-3.3694,-4.9353,-96.6381,92.0438,-24.403,34.7707,-2.2061,13.0352,-6.663,13.9701,-24.0688,8.3443,
-21.0923,16.6264,-11.8668,-3.6733,-104.9398,92.3207,-25.8393,39.4499,6.6248,13.2199,1.469,10.2323,-8.5247,4.9441,
-21.2767,26.3456,-20.3375,-2.9693,-112.1761,90.1651,-26.7053,39.4997,13.4773,18.7095,-0.069126,13.9684,-8.0973,-1.6353,
-19.0338,35.3976,-5.0173,-10.5238,-91.3455,73.1552,-27.0357,23.0297,3.9687,22.4196,-10.6977,0.56394,-17.2778,3.2956,
-12.0913,21.6742,9.2151,-8.9256,-82.5657,68.7664,-19.614,18.3498,2.7647,13.3422,-4.2554,-10.1021,-13.3416,0.1983,
-9.9158,6.2737,-5.4378,-8.8737,-91.7118,61.2577,-13.1208,23.5315,16.6142,8.1917,4.2154,-14.8124,-5.2911,-7.0627,
-16.5704,2.5987,-14.2101,-5.9244,-88.5413,43.4822,-13.784,11.9701,16.1006,11.0833,3.4793,-12.4732,-13.1905,-7.123,
-10.2603,11.625,0.74247,4.5806,-75.9798,45.3069,-14.4065,16.5683,4.985,9.9352,-0.11265,2.2902,-25.4476,-4.2788,
-8.1947,0.77847,0.13017,-6.8106,-77.7037,54.6712,-14.9921,29.5896,5.1695,13.689,-0.58953,-0.26358,-30.2035,-2.5721,
-15.4362,-1.2014,-5.6772,-9.3015,-76.9078,41.725,-14.0922,21.0483,8.7262,26.9677,0.41266,-6.0473,-17.759,-2.4182,
-11.1264,3.2207,3.8462,-2.4607,-64.0775,35.8379,-10.8303,15.4354,-4.8474,31.0646,0.87154,8.4155,-4.6108,-4.6895,
-3.6929,-6.6385,7.4822,-3.2799,-53.4665,39.4872,-11.1473,22.242,-15.1888,21.4676,0.81879,16.5256,-9.1673,-0.54129,
-2.9881,-11.557,0.75011,7.0664,-50.7417,29.8693,-9.9953,18.4911,-7.9943,11.9636,3.1865,1.434,-12.9668,2.8744,
-3.292,-7.4804,11.821,10.0256,-43.3476,21.794,-2.146,13.0321,-2.1987,3.0299,10.2448,-11.6165,-4.9393,3.1851,
-8.8936,-8.9643,11.1117,5.5577,-38.8136,20.4863,-5.8836,9.3502,-13.6659,-1.0183,5.7638,-5.1195,-13.342,-2.806,
-8.8431,-9.876,3.1955,7.6411,-38.9011,32.3067,-8.9138,16.0387,-5.5964,8.226,2.0348,5.3363,-12.0583,8.4782,
-5.8967,-6.8675,2.5206,5.7322,-38.0166,37.6178,-7.8958,20.3932,-2.8438,1.4493,1.4295,0.66655,2.7652,14.2527,
-3.127,3.6941,2.8525,7.805,-26.5534,30.0439,-9.8388,21.5855,-16.7732,-2.0209,-0.10672,-10.4893,9.7638,3.248,
-6.3216,2.9893,-10.3672,-2.8128,-14.8106,28.7245,-12.6308,18.8408,-11.3331,7.2826,-4.4499,-4.5432,-4.922,-0.33004,
-6.9091,-1.0569,-13.612,-2.6436,-9.0888,40.5333,-9.9397,23.5099,3.4469,9.7461,-0.31605,9.8294,-18.7267,4.5229,
-7.9446,-0.50986,-7.4789,-1.0359,-11.9271,28.9186,-12.727,15.8162,-0.71042,5.7777,-0.78073,13.9873,-19.3676,-1.0648,
-10.8506,11.6025,-8.4802,-10.1564,-14.5942,21.8671,-16.3124,7.6177,-14.7678,6.8811,-7.0166,6.8654,-24.4883,13.0145,
-8.2673,17.6723,-8.9382,-8.5802,-14.6854,34.0873,-16.3005,13.9265,-4.1322,8.4014,-10.4624,9.353,-27.8521,26.3337,
-5.8376,6.9465,-4.5356,-8.0654,-15.7379,22.3757,-11.4561,15.0241,2.8821,4.0309,-6.9347,11.6918,-14.5819,38.8536,
-0.65467,4.597,3.4693,-0.81513,-8.9936,6.9332,-3.036,18.9558,3.6765,0.88909,0.24776,7.124,-2.1079,35.3874,
-2.0649,8.6707,2.7789,5.5169,0.72917,2.7359,-3.3371,11.5362,-0.89367,1.3198,-0.25029,2.347,-15.0301,19.1641,
-9.6733,4.2846,-4.1547,-6.4136,3.585,7.4049,-7.97,-3.256,-11.4723,15.3407,-5.0684,7.0393,-22.8269,3.9143,
-4.7438,3.5439,-4.3881,-3.6124,-2.9129,4.5442,-5.0755,-1.0433,-11.2676,25.9343,-5.248,15.7997,-8.4091,-7.7505,
-6.8755,-3.9188,-6.5421,4.8207,-9.9881,0.88794,-1.3873,11.1015,-6.2425,10.2782,3.2833,5.669,4.1781,-7.7691,
-12.2621,-14.3154,-4.2159,6.4651,-5.5224,1.8019,-1.3041,14.3023,-4.9006,-4.4385,14.6853,-6.2702,0.061086,-10.203,
-6.6941,-20.2233,1.8366,2.2104,2.5412,0.72701,-1.2263,5.711,-0.74071,0.3465,8.971,-2.0281,-1.8758,-4.7576,
1.4412,-12.2436,1.7264,-6.6213,16.4887,14.7834,2.7137,7.3019,-4.5626,12.8911,-3.1663,12.1936,12.3368,5.1942,
-2.5121,-2.8094,-3.2104,-2.3582,25.5653,27.9964,-3.2487,15.5629,-15.8875,15.0172,-5.8759,14.7615,4.2625,1.9821,
-12.5105,-0.2245,2.2986,2.1333,12.9159,12.2166,-6.4365,5.4469,-2.8515,12.6671,3.6594,7.5931,-10.0933,-12.1523,
-8.8608,2.688,11.8261,-1.862,12.14,-2.6164,-1.2176,-2.6136,11.4196,16.7389,3.4398,9.0693,-10.3704,-7.5568,
-3.0127,1.0777,-2.9835,-9.9657,10.9289,11.6406,-6.4609,10.5928,10.6498,8.4855,-10.8665,8.0424,4.3518,3.0457,
-2.3479,0.52984,-16.9045,-15.65,-3.8268,25.0422,-5.5901,18.1731,11.4604,6.5268,-4.8141,7.0767,5.4566,9.1461,
-11.3897,0.98077,-19.1042,-6.4956,-17.6972,32.0705,-12.5037,2.9827,7.3891,5.6515,-1.1416,-4.4633,-8.9708,4.2474,
-15.0563,5.2719,-9.7416,-2.7222,-30.7354,42.228,-16.1035,11.1042,6.4631,4.8297,-5.4231,-1.7792,-20.4298,4.4762,
-12.703,5.4392,-7.7071,-5.9425,-42.9913,49.8434,-10.7873,17.6875,9.458,5.9899,-6.5477,8.4766,-11.9549,5.6576,
-12.4244,4.6293,-11.5947,4.5631,-45.3912,32.7528,-8.691,9.3767,9.3741,11.9133,-4.7049,10.3844,-15.5876,4.8345,
-12.6462,0.48514,-14.7654,-1.5107,-41.7014,23.1395,-8.1695,9.7805,9.7781,1.5321,-0.55621,5.895,-14.6523,4.5444,
-1.2543,3.3556,-6.1463,-3.3523,-44.0316,30.4507,-4.7789,15.96,14.0245,-12.6598,5.2767,4.5745,-4.1073,3.3049,
1.2378,10.4038,-1.428,3.1311,-40.907,23.3068,-12.709,14.5187,10.7663,-7.9493,0.61056,1.8832,-4.344,-0.27653,
-5.6028,-1.8195,-7.1423,1.9769,-40.3853,13.2093,-18.7119,13.6481,9.1539,-2.6396,0.57393,-4.9952,-4.0834,-2.1927,
-6.233,-12.3431,3.919,8.6246,-36.9953,21.1168,-4.0564,15.7292,15.371,-11.1803,11.1722,-5.6619,1.9616,1.8053,
-5.3759,-2.4193,12.8661,4.724,-24.627,28.0657,0.53648,18.1682,8.1656,-10.9927,4.2187,0.96008,2.3271,5.0801,
-14.236,7.8749,-2.0059,-2.8085,-26.5326,27.8308,-13.5957,22.3944,-5.3734,3.6823,-9.0835,9.1188,-6.9953,1.3917,
-10.4823,2.5692,-6.6332,-3.6068,-24.9401,24.2287,-11.7295,16.218,-1.1842,10.2273,-3.7053,6.6385,-8.5087,-0.625,
2.2293,-0.0012645,2.9466,-11.6068,-9.3437,25.1904,-4.743,10.8945,3.2359,7.1973,-1.0666,-1.9761,2.1509,2.7952,
-7.5703,10.632,-5.9288,-13.8099,-9.834,25.6131,-8.3243,17.0081,-5.6568,7.7332,-6.8022,0.076521,7.8223,-0.27111,
-21.2161,2.2609,-14.2726,-8.1481,-23.344,11.5104,-6.858,10.1876,-4.3515,3.4024,-3.4945,-1.8622,5.4188,-4.1217,
-8.7431,-7.5407,-8.5831,4.9066,-22.3424,3.0866,-12.2461,4.7432,9.4418,-3.5686,6.3811,-14.3154,13.7932,9.6579,
-4.8354,-6.605,-12.4186,4.1281,-6.9864,2.4182,-15.8618,14.6077,13.2249,-11.5704,12.2814,-19.7397,22.1479,16.3279,
-7.9284,-5.7256,-9.2566,-3.3682,-10.9168,8.5563,-0.81008,26.7807,13.8818,-13.292,12.994,-11.3057,10.6704,13.8987,
-0.68683,-6.3488,4.831,9.3989,-5.4291,9.0098,5.9203,21.3071,12.0821,-8.6286,4.4821,-5.7951,3.2634,14.0307,
-0.16198,-12.2506,1.1584,9.3186,-4.6192,7.9855,-8.5349,6.0137,11.8408,-5.6936,3.7296,-4.9629,10.3176,17.5389,
-10.785,-18.2819,-5.6774,-3.8059,-12.0753,10.4064,-7.9382,11.4519,7.264,-5.3529,7.3721,2.1003,0.99852,10.6865,
-10.6211,-18.6346,3.8464,-1.1617,-5.068,9.2988,6.638,14.148,-1.3877,-8.4149,6.4466,1.4911,0.45543,5.6958,
-4.667,-16.066,15.6979,5.1912,-1.3803,3.425,3.7398,-0.80088,7.8778,-12.2596,12.343,-9.7142,14.5281,14.5372,
-2.9374,-8.8198,6.5401,12.1292,-4.6811,-0.16459,-4.7014,2.7145,17.5547,-16.8399,15.952,-13.4809,14.0555,17.0482,
10.2874,-2.9747,6.6309,13.8183,7.6825,8.0621,2.8302,16.6516,12.1518,-11.48,14.5117,-4.4562,3.0635,18.4412,
16.4375,-4.729,13.9657,9.1229,12.0547,2.7457,-1.206,6.8693,0.79001,-9.8248,6.8746,-4.1888,16.9797,19.2683,
5.3012,-9.7616,8.7787,8.0918,11.8146,-3.7018,-4.5163,-0.79238,-5.5401,-7.7853,1.1458,-5.3865,27.4754,13.7632,
-3.7159,-13.0422,0.51835,6.64,10.1394,-0.58061,0.58735,11.8206,-5.2077,-3.4518,3.0107,-4.0979,11.7269,9.0701,
4.2397,0.30572,-2.4127,16.8743,0.831,-7.3121,-5.2479,3.3786,-7.7952,-3.2447,1.8628,-13.5175,-3.0767,4.6595,
10.2685,14.3874,-2.7512,8.6123,5.1316,-2.5239,-6.3826,-0.20725,-13.6107,0.33313,-6.4649,-4.4905,-4.1734,5.8304,
-1.9471,8.6068,-9.352,-6.0044,5.7896,7.2935,4.6327,13.9052,-19.5599,1.28,-10.9102,9.3112,2.8429,2.5801,
-0.86438,-6.0096,-2.9913,-1.2105,3.509,9.7563,6.2879,26.0354,-7.7541,0.23634,3.8444,7.7857,2.6728,6.2922,
6.9211,-7.014,5.8872,7.5612,17.3985,5.3046,-2.7885,10.3733,6.2439,1.1885,10.7796,-0.41419,1.5461,9.781,
-0.26004,-0.79358,0.70173,0.34161,30.4546,3.0531,-1.6543,4.5195,1.036,-3.715,-0.50031,-3.2889,12.0855,4.3609,
-7.0117,-4.6132,-5.1404,-4.5125,14.9259,-5.8301,9.0767,11.0138,-9.6588,-4.4594,-1.4366,-2.1252,21.0258,3.132,
3.559,-1.9192,0.48441,4.9419,15.4804,-7.8966,13.8494,4.0703,-11.4957,-6.6082,1.0659,-3.4477,5.7489,5.3614,
13.0109,3.9951,5.2881,17.2108,28.6515,4.1763,14.9511,5.7592,-7.9059,-18.7772,-3.8308,-5.1735,-0.39515,6.006,
-1.8698,-10.3447,-0.82784,2.6459,19.5993,0.05978,13.0882,6.3809,-4.5311,-27.3164,-0.70138,-3.8963,10.2608,6.6125,
-15.2053,-23.824,-4.1618,-0.89558,4.3233,-14.0438,9.8856,-8.1019,-6.6765,-19.3947,9.4907,-3.1789,7.2288,6.6994,
-0.27752,-19.3259,3.337,10.2736,-5.0351,-27.3012,14.6088,-15.748,2.9068,-4.2156,16.1694,-4.4391,-5.2876,6.7801,
3.1228,-8.9836,-0.24596,2.4081,9.2833,-25.9776,7.4496,-0.70316,5.1487,-1.5463,11.8165,-6.5891,-4.4867,2.0243,
-3.8305,-2.645,-1.198,-0.63593,3.8931,-18.6194,0.23671,1.1881,-2.8924,3.3796,3.3753,-2.3269,6.4147,-0.99673,
1.2316,4.2796,1.7734,0.36813,17.7595,-4.9364,6.022,-0.81637,-5.6194,-1.6563,-1.6604,-3.1541,6.0303,2.929,
3.5745,8.3732,-1.7162,2.7629,30.794,6.4748,7.1103,13.3326,-8.6654,-15.6569,-4.944,-5.3817,2.2853,7.1028,
0.94368,10.2872,2.7368,2.1134,41.3435,5.6036,4.2673,10.9981,-10.5618,-17.0498,-2.231,-5.5415,1.6645,6.193,
4.753,14.5022,6.4385,-4.7793,24.7629,-1.4994,5.9444,5.5055,-12.8276,-11.1936,-4.0303,-9.0758,2.5315,0.021848,
3.9846,16.0489,-1.1964,4.6898,14.6617,-3.8254,5.1046,13.3911,-11.5748,-19.7042,-3.3053,-9.0145,7.6955,-2.3954,
-4.4708,11.7033,-4.5083,6.8247,21.9984,0.75322,1.4147,4.3712,-9.4303,-22.872,0.27666,-4.1236,5.7838,1.1311,
1.5974,12.9338,3.4949,4.4825,34.7785,9.408,6.1634,-0.72376,-4.9981,-7.967,-4.5736,-3.8762,4.4704,7.8296,
10.6838,9.7419,2.802,2.7631,34.5404,10.2931,8.2095,13.4197,-0.34871,-6.0394,-13.4814,-7.0268,4.6853,8.8093,
1.8274,4.8074,-4.6152,-0.78539,20.3862,3.3928,1.4342,10.114,-1.7769,-14.8597,-19.9216,-8.0552,9.7215,1.9981,
2.6836,18.6189,9.7618,9.894,25.9289,3.1888,3.2814,-0.15917,-6.5043,-8.1686,-16.794,-0.80598,6.2377,-0.055004,
6.8731,17.4172,17.7905,0.11809,20.0236,1.5479,5.5013,10.9667,-11.43,-11.0617,-5.6369,-3.1735,-7.1851,0.43148,
6.4607,9.6058,6.0904,2.0437,25.5876,8.2214,8.0712,23.8405,-5.9115,-16.1971,8.8013,-15.5495,0.97777,5.2383,
9.4562,18.2126,6.2091,11.1043,35.1692,13.0449,5.1701,16.1278,-7.0063,-9.9093,-2.4436,-20.8987,10.1023,0.57539,
10.8216,17.1199,16.4683,-0.19469,18.959,-1.8378,4.8599,7.427,-8.5187,-0.61571,-16.3969,-16.7457,8.5298,-3.3264,
6.3064,11.2595,12.5807,3.6838,16.4556,-4.0598,14.2342,13.7477,2.6247,-0.5783,-6.1454,-10.9078,10.9175,10.9732,
-8.172,1.8844,-2.2742,-3.304,19.3342,10.2838,2.7479,5.1897,-1.3996,-14.0759,0.021951,-16.0529,9.2957,10.7139,
-10.4976,-0.64501,-0.11995,-2.6222,4.0741,18.2818,-0.80061,13.0947,0.13439,-6.9486,-6.2621,-3.007,8.2552,2.8219,
-2.6182,-6.8895,11.9695,6.7174,-10.2703,9.9353,12.297,20.5249,7.3759,4.5842,-6.3695,11.2734,4.3767,16.7526,
-0.52792,-9.3757,9.3181,4.3812,-0.78589,13.2051,11.5587,12.527,6.9328,5.2751,6.5785,15.3452,-0.71906,29.8475,
-4.3626,-5.9131,8.7591,9.9183,-9.4378,7.5801,-0.73391,13.7086,-0.24856,1.0922,12.9492,9.5917,-9.3759,17.7384,
-6.034,-11.3579,8.234,12.2237,-22.9715,-5.4406,5.1097,10.9533,-0.23319,-0.90559,8.3064,2.2503,-12.6793,2.5741,
3.5098,-8.26,4.3563,6.173,-25.376,4.0685,7.2194,5.9457,1.2299,-1.3349,6.358,-2.2347,-12.4021,3.4701,
7.6501,2.3846,3.6122,8.2199,-9.7534,16.8735,-7.3137,19.6889,2.6061,-4.6375,8.3938,3.2158,-0.54166,3.7456,
-1.992,-5.008,7.745,4.3435,-16.5009,3.7788,-15.9726,32.6076,4.8665,-7.7424,12.2397,-5.1931,7.7067,-1.7951,
2.9602,5.9252,12.113,13.7483,-27.1109,0.6521,-2.4488,31.4493,12.3063,4.3203,16.3371,-12.6151,7.2443,10.8781,
9.5489,19.1024,-0.21283,10.0234,-17.7515,3.513,-11.0009,20.8633,8.6689,5.9947,10.5242,-6.0582,5.8433,6.359,
-1.1735,7.8067,-10.3496,-4.678,-6.5369,2.8181,-24.3568,25.8937,-2.0008,-8.3809,-0.25587,-2.3116,3.0759,-7.072,
-10.7686,-3.2944,-4.895,-0.4459,-16.7774,8.449,-13.229,31.1069,1.0193,-1.1117,5.5595,-2.1729,1.925,1.0859,
-7.2229,-5.9963,-4.6017,2.4804,-29.8707,-3.6566,-5.6694,17.6414,2.8913,13.055,11.9918,-3.9757,-3.9901,1.9876,
-1.9559,-5.6365,-9.1584,-5.4011,-23.6439,-16.9699,-14.0283,8.8502,-5.9813,12.6712,-1.2931,-3.7371,-12.4497,-6.8317,
6.3764,-0.94876,4.4398,0.23882,-8.1253,-1.8517,-9.8043,22.4192,7.4262,21.0932,-6.5324,9.5357,-8.3205,3.7268,
-2.2216,-2.3418,5.6234,-2.1919,3.394,4.458,1.9003,20.5063,7.4643,19.3449,-10.4895,9.4481,-10.2367,3.0205,
-2.5715,-2.6845,0.93643,9.0555,-10.9096,-9.9095,13.8685,5.2605,0.73326,5.1347,-6.4779,10.3308,-6.2402,2.3561,
-0.0012812,-14.6057,7.1634,10.929,-17.4209,-17.4467,9.6532,5.4281,6.9724,-0.48929,4.0603,7.2941,1.3837,5.5979,
1.9329,-17.5962,13.4995,12.2065,-2.843,-11.5667,2.3081,19.2024,11.3873,6.306,1.8835,-0.87579,7.1002,5.2625,
9.0655,-5.4245,12.2064,15.8236,7.4762,-6.5232,12.3183,32.1502,10.2199,5.4444,-0.6463,11.2581,3.291,16.0617,
9.9711,-3.6495,10.9899,14.3901,-4.0882,-7.5822,16.896,25.2189,14.9236,5.6009,-1.0907,24.6826,3.5768,15.5812,
8.407,-8.2628,7.4319,17.3935,-10.6084,-21.2273,2.35,9.6058,10.1622,4.2981,1.8752,9.1016,2.3963,0.54632,
13.218,-1.4843,11.335,11.0335,4.1281,-16.0032,6.558,13.9467,9.0679,2.5902,15.8627,-5.5445,4.6679,-7.1351,
2.2763,-4.7784,10.1718,6.9883,12.9786,-0.943,6.6477,27.2099,9.008,4.8516,16.2759,-8.0268,1.9719,7.393,
-2.2094,-3.0417,9.0778,16.719,4.9503,7.2458,-1.9666,36.6091,8.9511,9.8768,1.1993,2.6039,-0.56274,16.0481,
7.5891,8.7403,8.5336,9.9164,11.4197,0.045184,-2.8154,23.7803,5.5136,5.4174,-6.5212,4.3809,-1.4958,4.4529,
-1.0831,0.96545,6.5711,6.9046,6.384,-5.2743,-0.22964,8.2535,4.6996,2.6756,-2.7468,-4.0979,-2.8556,7.5689,
-15.1181,-13.1925,10.0441,10.3566,-8.099,-3.9906,0.7505,9.776,8.284,3.4823,-1.6147,-9.6511,1.1821,11.9475,
-8.3269,-16.1823,10.891,7.3184,-16.2276,-5.2016,-0.74407,16.4385,7.3038,3.7565,-2.9683,-4.7225,3.5271,-2.8693,
-4.9277,-11.3454,6.3707,1.0798,-8.488,-11.6554,-4.5662,14.4854,6.8651,5.4643,-1.8233,7.1595,-3.4504,-7.4453,
-18.7321,-20.8138,6.4721,-0.435,-19.0946,-22.0725,-1.8759,16.0326,8.8695,3.6865,2.6351,5.2799,-11.4598,1.2168,
-16.5572,-15.6986,6.0838,6.3575,-22.7817,-24.6145,-0.797,14.1043,2.5383,3.4653,-0.42298,2.0631,-24.8722,-1.7562,
-1.4638,-0.74078,6.202,7.4255,-7.3148,-9.0376,0.70128,15.6744,3.8355,15.3396,-2.8135,12.0889,-27.1612,-1.1667,
0.47357,-6.4963,1.9635,3.1137,7.2241,-8.5794,0.65921,11.8344,6.5054,9.5865,-2.6447,9.4308,-24.5651,-3.9967,
-1.0053,-9.4897,5.2289,7.2764,4.6883,-13.3806,4.9692,16.4402,4.6655,-2.1046,-2.0028,11.2809,-16.809,-0.37372,
3.4046,-5.5372,6.3647,2.4903,-0.90885,-5.3282,5.1542,19.8038,1.9688,0.43853,-3.3322,18.8208,-16.2836,6.8982,
-0.66608,-5.2049,5.9828,2.3408,5.9116,-12.7412,-1.9214,11.8492,0.8843,4.2786,-3.1323,5.1252,-25.9384,-1.2484,
-3.0425,2.3574,10.9402,6.5504,6.0405,-26.0768,1.5775,0.022853,4.214,-0.32813,0.43839,-8.2314,-32.5984,-13.2562,
-2.3763,3.6659,7.8674,3.741,6.1613,-24.9112,0.99924,-4.3285,4.4448,-2.7248,-1.0379,6.3625,-40.7921,-7.1445,
0.66583,-7.1872,1.5958,2.5497,13.5243,-10.8507,0.93975,-6.002,3.2113,0.33822,-0.97518,6.863,-44.1441,-4.7826,
3.5254,-5.7892,1.4996,-0.5028,23.3451,-10.2001,10.5493,-4.675,6.8854,5.1511,-0.91713,-7.6488,-40.5286,-13.1952,
3.798,5.6741,0.92646,2.9105,21.4612,-12.004,4.5995,9.7055,4.0555,1.4589,-2.3116,-12.9043,-41.4801,-9.9867,
1.6369,2.4341,-0.095029,1.7691,18.2404,-9.3506,6.2567,20.6376,0.91259,-5.3946,6.5266,-8.2642,-35.1249,-3.5879,
3.9546,0.83851,-2.5061,-2.6866,21.4964,5.2254,18.9308,16.0167,3.2747,-1.6877,7.5845,-7.2852,-28.6674,-4.8222,
2.2678,6.1041,-8.639,-3.0086,19.7225,11.1951,3.7791,19.4052,1.6277,-2.0706,-3.9864,4.2678,-31.2974,-1.1506,
4.5486,5.2547,-0.87108,0.55512,17.0896,8.1075,-4.6636,15.8245,3.9469,0.4705,6.4023,18.1118,-27.0027,9.068,
-3.4575,-2.7938,-11.4511,-2.3777,2.532,-6.479,-1.4842,0.77505,-8.8558,0.44273,1.185,12.1078,-39.4826,-5.5761,
-8.0833,0.27338,-17.5308,-12.8682,8.1796,-16.1556,4.4044,-11.27,-9.2913,6.2157,-4.6857,0.74907,-42.3458,-19.1733,
2.0676,-1.6762,-12.6122,-24.662,21.7888,-11.3204,1.2406,3.5062,-4.8679,-2.8568,4.295,0.70366,-30.1387,-4.4907,
11.6099,1.3244,-0.25635,-9.0823,22.8138,-0.0084682,4.0661,11.428,-4.5749,-6.5517,0.17096,8.3942,-24.4645,6.4115,
0.28108,1.2454,7.4922,-4.2715,7.3449,-0.0075002,2.8554,0.10963,-7.2,0.60727,-13.9393,-4.6745,-29.7625,-3.6382,
2.6806,8.4197,10.4254,0.3348,3.122,-0.49069,8.9667,2.5194,-1.4525,-2.8119,-11.0852,-18.494,-23.6273,-4.8699,
3.0029,8.3977,0.61761,-1.1357,17.0347,2.9219,6.9792,1.8851,-1.8486,-11.8254,3.6799,-15.8502,-13.0264,-1.1945,
-8.7763,1.1275,-9.0858,-15.1676,16.8948,-6.9188,-1.1723,-11.7603,3.0951,-1.4505,0.47502,-4.2665,-11.2785,-10.7892,
-10.1834,2.0271,-12.407,-5.9566,1.7811,-20.6037,-4.0019,-23.6201,11.6094,9.2693,-1.4871,-6.9105,-22.2009,-21.7409,
-4.256,-4.3772,-11.1789,-2.2165,1.7588,-16.3838,-8.1118,-10.1206,12.3628,8.2295,3.9185,-7.9459,-18.4525,-14.1537,
-6.9007,-14.7473,-3.7419,-8.8499,6.486,-1.3008,-11.4915,4.5866,8.721,7.7357,-3.083,-1.6701,-3.2453,0.22819,
-2.6193,-14.8288,2.2817,-0.58616,13.8296,5.9427,-0.16925,18.4114,5.2978,2.4389,-8.6971,-2.5362,10.8812,-2.6855,
4.3028,-11.0405,3.1116,5.2485,19.7657,6.552,6.6068,7.4717,6.9131,-6.407,-0.44302,-9.1499,11.1942,-8.3239,
-7.0713,-12.7939,7.2745,8.3168,4.4798,-1.0906,-4.9055,3.6402,13.7478,0.25966,13.5985,-8.1178,9.0721,3.2905,
-1.8134,-3.3263,5.8717,6.8514,2.3624,-1.9916,-1.7112,4.3886,8.0902,-2.655,7.9508,-8.5971,7.5623,2.1276,
4.5786,7.0219,6.0025,5.9572,16.3206,-0.42161,3.7083,7.5085,4.2217,-3.9452,3.1242,-8.5644,7.5918,2.4832,
9.6203,14.8169,5.1587,5.1161,29.4414,0.08641,6.8685,9.4743,-0.38165,-6.1249,-1.4132,-8.5342,6.6526,1.8505,
14.8421,23.5943,3.8829,3.8428,41.7749,1.0485,11.2901,11.8059,-4.2242,-7.691,-5.1948,-8.9885,7.2208,1.7395,
12.9848,25.0781,-3.116,-3.1546,47.2311,-5.7812,7.7122,6.2643,-14.6039,-15.9291,-15.5163,-15.216,0.020697,-5.1308,
18.0052,32.2721,-3.8959,-3.9312,57.9304,-4.4675,12.0826,7.8217,-18.5608,-18.8392,-20.3848,-15.2689,-0.94737,-4.8234,
3.8758,18.254,-15.7448,-17.7954,42.3718,-9.5158,0.24133,-6.7476,-25.6635,-22.0589,-30.2772,-8.0701,-12.9732,-18.5494,
1.2269,23.4414,-8.5174,-9.394,41.2795,-0.72853,3.6105,0.024497,-11.0747,-11.5526,-14.3605,-11.9359,-5.9112,-20.8192,
-7.5453,7.9349,-3.1732,-7.8635,36.8696,-13.2507,2.427,-7.7097,-7.5097,-19.559,0.6011,-24.752,-1.6906,-14.7368,
5.4728,8.993,5.7172,6.7083,39.491,-12.4557,10.015,-9.1798,-4.1591,-8.7191,0.87999,-9.1669,5.1772,-5.1536,
3.2108,8.4534,-1.3922,1.8721,34.2216,-7.842,7.4805,-10.5627,-10.676,-7.2296,-9.8055,-4.3514,-0.93255,-18.3771,
-3.2645,8.4298,-9.525,-4.5238,29.751,-4.9551,3.648,-1.713,-7.619,-15.0122,-2.9345,-18.1903,-0.39387,-18.7244,
9.9809,14.2072,-3.6367,2.9971,29.4164,0.65903,1.9796,10.4725,-6.6787,-4.9283,-5.1752,-15.5648,6.8793,-9.3841,
11.3152,12.388,4.3138,-8.7813,24.7519,-7.1137,-2.0051,-4.2559,-13.0439,5.0333,-16.4633,-10.7641,7.4334,-13.6543,
4.8363,14.5438,7.9213,-3.4226,25.1995,-14.4196,4.8807,-16.9655,1.8387,9.564,-4.8437,-7.2192,11.8201,-10.9023,
-6.0861,-0.42887,-6.654,-7.0832,9.5875,-27.6544,5.5547,-14.9807,15.8284,10.9234,3.1801,-14.5183,5.3113,-15.0804,
-4.2714,-10.9513,-12.9365,-15.8404,-5.0877,-36.5433,1.8382,-6.8324,23.8923,22.3502,9.2724,-19.9304,7.4095,-17.5588,
-0.63197,-6.911,0.88827,-4.7414,-4.6138,-25.1684,-5.5216,-9.8056,10.3765,21.4924,13.0656,-4.7186,20.9799,-12.1557,
-4.9436,-6.0132,-1.5809,-5.9064,3.8789,-20.2751,0.12557,-11.6336,-0.39562,6.1879,4.0658,9.6645,24.0715,-10.9432,
-0.78107,4.9808,2.3798,5.0802,13.3121,-5.5264,12.6839,3.1644,8.3276,2.9161,-0.044969,17.6991,18.7604,3.8134,
-11.3665,0.81511,0.30386,2.8422,9.6138,4.4711,-1.6094,15.939,2.9948,-1.1247,-1.9754,6.0049,10.8689,13.6491,
-20.8331,-4.5497,-3.0966,-2.6442,10.4865,4.6869,-5.8623,0.8827,-4.4344,1.3596,-0.40646,18.6941,11.6663,7.5143,
-26.3499,-5.2435,-3.8786,4.2803,15.6569,-3.3275,1.2553,-10.6852,-9.9679,5.1439,-13.9152,21.4384,2.2668,-1.6361,
-34.9185,-5.4121,-0.26268,-7.0924,15.2006,-2.6446,-3.1696,4.0559,-12.753,3.3848,-22.2626,6.0521,-6.0851,-1.0548,
-28.9565,-5.0878,-1.2128,-7.6327,10.4227,-0.55278,-6.8453,17.9125,-11.9873,2.2158,-10.2946,1.9072,-0.88682,-4.8574,
-16.5864,-7.6816,-5.9728,2.4907,11.7301,-7.286,-3.5355,2.7378,-7.4017,7.8819,-4.8433,11.4591,6.8991,-1.6669,
-18.4912,-8.188,-7.548,-7.3242,12.9599,-0.082458,-3.3224,-9.1097,-12.7576,1.6099,-18.0854,9.8043,6.4852,3.2668,
-25.5977,-5.2799,-10.4783,-9.3016,11.6991,7.172,-0.70719,3.5196,-18.2744,-12.5866,-21.3498,1.0001,6.5792,-3.2124,
-19.2291,-1.0968,-11.7824,-1.9771,17.7635,1.909,2.2352,2.3416,-10.4116,-14.6464,-10.4025,-2.9262,12.9508,-3.986,
-15.6581,1.3863,-12.5254,-6.2085,22.0141,0.34445,-6.1152,-2.1484,-11.2369,0.2478,-13.1619,-1.3007,9.7574,-5.1969,
-16.6522,-3.5305,-18.5402,-12.6023,12.9605,2.2574,-6.7147,-7.8195,-12.4963,6.032,-18.1713,-0.25627,3.372,-13.5841,
-6.9545,-4.2855,-11.6283,-2.1803,9.2824,2.1215,7.7882,4.2487,-3.047,-2.0631,-2.981,0.72593,16.7019,-7.9368,
-9.919,-2.5784,-6.5806,8.1005,2.4428,0.54422,2.4041,7.3775,-5.2806,-6.2884,2.9128,1.166,16.1834,-9.876,
-11.258,-3.3905,-7.1526,-2.0514,7.1294,-7.2207,3.2257,-7.1652,-0.13055,6.6548,-0.1615,12.6947,6.5129,-7.3512,
-14.4484,-13.8193,-5.7566,-7.7279,2.8348,-20.8874,1.099,-14.8671,2.7768,4.3223,13.9482,6.1334,13.8553,3.723,
-10.1988,-6.7074,8.6888,6.8358,-11.4353,-8.9174,-4.2833,0.12496,12.7593,11.3121,27.2113,6.2491,27.124,8.8151,
-12.4864,-10.1709,7.1161,8.2743,-24.8492,-11.2828,-6.9258,12.5983,14.8933,17.3992,21.0595,9.74,11.3965,-4.2797,
2.3628,-11.0111,3.3059,-5.2717,-9.2582,-23.6544,7.5897,-2.2576,10.6165,6.2067,5.6959,1.9061,2.0128,2.2602,
16.321,-1.6513,17.2076,3.7436,5.3973,-33.8342,21.2343,5.6952,9.9795,-3.8321,7.3719,-3.041,15.992,10.8237,
18.0722,-12.6677,18.0242,10.769,19.1734,-45.9042,34.0603,-8.7465,7.9307,1.7142,8.3796,-4.3085,17.8479,-3.9257,
11.672,-26.0076,7.7605,10.6061,32.123,-57.2499,46.1167,-22.3218,9.8717,5.9618,3.5273,-0.66684,17.2611,-5.0551,
16.7712,-38.5472,11.1608,-2.5953,44.2956,-67.9149,47.3618,-20.8133,9.2799,-8.4959,7.1825,-13.1918,27.8241,0.081338,
19.1476,-38.9652,11.9411,2.8759,55.7379,-77.94,46.9365,-13.2823,9.2058,-22.0861,13.0333,-26.5003,23.7383,-14.0235,
21.3824,-36.1437,10.741,8.986,66.4936,-87.3636,55.2367,-21.6676,13.0034,-25.4259,18.5349,-29.1766,22.7976,-21.3139,
16.2331,-37.8423,9.1302,-0.25219,76.604,-96.2218,49.0225,-26.1675,6.4232,-22.934,10.6565,-25.4924,23.3625,-16.1687,
17.6755,-37.9881,10.0324,8.9457,86.1078,-104.5485,41.7311,-23.1475,3.6215,-20.108,5.6671,-23.4801,20.5107,-14.7159,
12.7486,-49.8088,8.4641,10.3416,95.0413,-112.3756,35.3609,-35.2909,7.2706,-16.0015,10.1598,-24.004,20.2464,-16.732,
8.601,-54.4685,7.4726,9.2384,103.4388,-119.7331,31.7892,-47.2734,9.2507,-6.8251,11.9675,-19.1811,18.5489,-16.2117,
15.334,-37.1003,9.4406,8.2005,111.3325,-126.6491,34.2319,-58.537,6.2793,-5.9328,7.8658,-12.7139,17.9187,-14.7554,
17.3135,-20.7743,8.8746,5.7753,118.7525,-123.5231,33.1448,-54.8561,1.0693,-16.2091,-0.3384,-16.7842,18.7768,-11.9369,
12.8924,-33.6279,7.859,11.7119,125.7274,-127.2271,30.6729,-49.1479,4.3893,-23.4525,2.0987,-23.9921,16.2006,-13.6375,
9.702,-44.2602,7.8706,8.5924,127.3203,-109.4444,29.3148,-44.7495,8.4745,-22.5285,10.1878,-19.1703,13.7791,-14.2688,
6.7026,-27.5046,7.8811,7.5932,122.0983,-99.4951,23.2068,-39.6482,5.5497,-9.095,4.2601,-11.7374,11.5023,-10.9963,
5.8173,-15.7898,5.9587,6.6544,127.8211,-95.9417,20.364,-44.5184,7.6335,5.5507,-1.3114,-15.3827,12.2617,-9.8533,
11.7519,-28.9424,3.1848,-0.027548,117.7354,-81.9688,20.5921,-46.1968,9.5919,10.4499,2.151,-10.1097,12.0096,-9.7458,
17.329,-33.4045,2.5096,0.45728,103.4218,-65.9353,18.8734,-32.3096,5.6332,13.2061,5.4042,4.5969,9.8386,-8.6778,
6.1398,-25.117,1.8759,-1.986,96.7333,-71.1619,17.2578,-26.0214,3.8457,13.8633,3.6304,5.6865,10.6988,-5.7404,
7.2218,-24.0932,6.1138,2.4826,90.4461,-72.2081,18.6392,-33.6424,5.0645,1.9165,10.6621,-8.7547,10.54,-9.7455,
18.8712,-11.5312,12.0297,2.8173,96.1348,-53.8597,17.0372,-29.2075,2.3442,-1.5821,23.0714,3.9374,12.324,-13.5107,
9.0394,-14.7062,1.642,-11.4517,91.3335,-46.7622,7.3154,-24.5555,-1.6632,1.4123,16.854,-1.132,16.4177,-6.9006,
-2.6188,-23.0065,-6.6724,-5.8473,71.7535,-55.0719,4.4606,-30.3313,-3.013,-0.12194,3.7605,-15.1641,28.4822,7.6135,
1.4047,-19.693,-1.4394,-4.5301,53.3483,-52.7344,12.892,-34.3109,-3.7986,-7.8473,0.63485,-10.3038,27.7396,11.9053,
7.1199,-13.6787,1.5465,-4.2588,54.6656,-35.4704,15.0181,-22.5868,-0.6711,-16.076,0.5963,-1.9524,11.9752,9.2578,
4.2759,-11.4084,-2.8958,4.2126,44.1361,-19.2421,9.7674,-22.6816,2.7523,-21.3946,2.011,-15.9353,6.5076,14.9855,
-5.1629,-10.2403,-5.1389,-2.3224,27.388,-30.8222,4.8319,-33.403,-1.7623,-21.5605,2.3735,-20.2109,20.2172,5.8695,
-2.4368,0.52414,3.3858,3.1333,26.3134,-27.5224,4.0592,-27.0483,-5.0393,-14.9505,-4.0516,-7.8819,29.0691,0.20193,
4.4758,-3.3746,8.0154,1.9781,38.8346,-24.9051,1.882,-23.4927,-1.8379,-7.2881,-8.6412,-7.4099,16.6923,4.0562,
7.5904,-13.3212,3.1849,-2.4902,29.6531,-23.894,1.2859,-23.5332,1.6556,-11.2003,-3.7732,-11.3149,9.4075,-3.4367,
9.5509,-6.2392,3.477,5.8751,30.2907,-8.3604,8.4574,-13.9053,2.0394,-10.0451,3.7027,-4.3528,8.3599,-11.4464,
4.1451,-1.9985,2.302,0.68991,34.2724,0.75621,7.9499,-14.0373,-0.015666,2.1567,-1.3531,2.6738,4.9583,-9.7933,
8.246,2.4719,0.71437,1.1317,28.8328,-4.6055,4.0907,-13.6783,1.4348,3.4777,-1.7551,2.0302,11.9104,-6.7889,
10.168,4.7395,2.121,1.5479,21.787,-3.8455,7.2284,-9.4744,4.7319,-5.9132,9.4661,-0.50751,25.2116,-8.7983,
-1.0752,-3.2781,3.927,-0.47908,11.7802,-17.7148,7.7606,-17.6059,2.5148,-7.4925,8.8977,-4.3439,20.7985,-10.2036,
1.4056,-8.3973,1.275,4.866,3.8243,-23.3342,5.845,-14.1327,4.7803,-0.76023,11.7475,-7.466,15.2015,-10.075,
8.0881,1.7729,-0.73469,-4.1255,9.3944,-7.8341,1.6284,0.81522,6.4266,-4.5805,14.9085,-8.9512,16.2226,-12.3701,
2.2869,7.9497,3.6589,-3.3938,6.4139,2.2177,0.081146,2.6154,1.6915,-5.7552,-0.086006,-2.1309,9.9333,-14.0438,
7.4656,2.1559,9.7216,10.9098,-0.25408,-3.2317,8.2913,-9.6243,2.0732,2.806,-8.2117,12.0969,4.0205,-4.0189,
10.884,-5.7062,2.3729,7.2711,3.6284,-3.0373,5.8611,-14.8459,-2.8839,-1.2287,-0.95265,9.3534,1.8466,-6.6778,
3.4646,-1.4974,3.1969,5.8675,12.1098,9.7103,8.4094,0.14488,-0.77816,-7.9214,0.070867,-5.3078,11.4012,-7.2435,
0.35768,3.426,5.9051,-1.2499,3.6505,15.8941,7.9048,5.368,1.2022,-14.2115,-2.8334,-11.1875,13.6171,-6.8088,
12.9012,9.0191,2.6512,4.6246,4.3983,20.74,4.531,-2.6873,1.1296,-13.3593,11.4366,-5.684,15.7006,-8.3335,
11.6439,7.0284,1.0417,6.763,18.2344,24.8119,11.5087,1.8239,2.5123,-3.3755,20.3322,-5.8262,16.2081,-6.3839,
1.2789,1.774,0.012843,-6.2082,22.8553,25.2559,12.7509,5.5804,1.3942,9.3934,5.0123,4.1888,3.6365,-3.1009,
3.1358,2.6339,0.97843,-4.8693,7.384,24.7074,-2.1142,-0.55349,-3.5221,15.5952,-8.253,14.5702,-7.2144,0.9515,
-0.91912,6.3418,0.92019,-0.71037,-6.9904,26.1245,-6.2523,-2.4539,-1.3776,7.8936,-7.7582,1.131,1.918,6.6939,
-12.463,12.7276,-3.9687,4.165,-11.4046,25.5238,0.88828,7.3592,2.5714,-4.1791,-5.3591,-7.6368,15.3347,-0.47405,
-9.7816,10.0312,-5.6633,-0.91765,-24.2521,11.427,-3.9977,7.8849,5.3171,-0.061961,6.5615,6.3541,10.5483,-5.2783,
-9.1947,-4.6706,-14.0225,-14.9626,-36.897,-1.8245,-17.8579,-6.6882,0.16537,-1.991,4.2342,6.9392,-4.1846,-0.1289,
-10.0926,-2.3726,-13.6644,-13.9807,-32.6654,12.3849,-16.7014,-4.2691,-2.2614,-3.321,0.59787,6.0397,-6.7485,12.9284,
-5.1375,9.852,-7.5286,-10.7251,-29.2559,22.6732,-5.5507,10.087,-5.5089,-0.70588,0.077896,11.9605,-1.0277,4.9031,
9.2708,18.4431,3.0726,0.067057,-24.1174,19.8628,2.0319,19.5463,-2.7615,11.4187,-4.2763,17.5251,7.2498,-5.5406,
8.1468,13.9538,2.4046,-1.386,-27.0194,7.5556,-5.3391,9.1908,-1.1458,9.2836,-4.5025,8.2582,6.3321,-3.7582,
7.6584,9.2507,-1.6055,-7.1024,-21.5324,7.1022,-5.0183,11.5394,1.8225,0.02797,9.8677,9.6959,10.7854,-1.5995,
