"AF3","AF4","F3","F4","F7","F8","FC5","FC6","O1","O2","P7","P8","T7","T8",
-3.4301,-16.1726,8.3315,61.2585,680.7098,181.8167,-20.0932,-8.3315,-1.4703,-24.9936,1.4703,4.411,-6.3708,12.2521,
-0.7741,-13.732,6.3613,66.8954,653.9672,185.0077,-20.3575,-4.4006,-15.4821,-18.1032,0.89169,10.5171,-15.3,25.617,
2.2125,-3.1066,6.96,61.9013,628.8292,188.0073,-26.9771,-10.0174,-22.5062,-5.2548,-2.102,3.0253,-28.482,22.2316,
3.5506,11.1797,9.973,53.7767,605.1994,190.8268,-18.0073,-0.10536,-17.7252,-8.3701,1.4547,-9.4078,-18.0639,6.7977,
-4.504,11.6017,-2.3875,47.6099,582.9875,193.4772,-14.9666,-3.0392,-21.5626,-17.6698,0.38707,0.95806,-6.1979,14.119,
-9.1352,6.9841,-6.1648,47.693,562.1082,195.9686,-12.1088,-16.9569,-17.3287,-14.6493,4.2844,11.6814,-9.7475,27.3719,
-1.7254,12.4468,1.0658,54.6329,542.4817,198.3105,-2.5608,-6.7404,-19.2291,-13.7699,4.0278,-3.1195,-17.0037,14.5697,
-0.15156,14.1502,-0.46846,41.0635,524.0328,200.5119,-0.93683,6.896,-24.4466,-25.1963,-3.5655,-17.0323,-17.4534,-0.40444,
1.3274,19.6725,6.9108,38.1098,506.6909,202.5811,2.55,1.0919,-8.8798,-20.2534,-0.90086,-10.3529,-11.9957,13.7198,
3.698,23.8821,9.9263,37.2935,490.3894,204.5263,2.8865,-6.3253,5.7529,-15.6081,-5.2578,-14.1427,-20.5874,19.2679,
9.3574,24.4099,11.2915,28.1947,475.066,206.3547,-0.22644,5.8159,-8.0899,-13.6912,-2.9816,-26.0361,-11.511,4.0118,
0.46443,8.8453,-0.65727,26.9934,460.6621,208.0734,-14.3128,3.9976,-4.1735,-15.32,-0.35245,-22.0237,3.2796,-10.3289,
-9.8552,-0.1293,-3.0685,24.8829,447.1224,209.689,-27.5541,-8.4948,9.3085,-9.0104,4.0792,-6.6023,5.6455,4.3908,
-0.9324,13.9785,-1.4141,18,434.395,211.2077,-18.7744,-0.63353,3.3591,-1.1186,1.3842,-2.6632,-8.7933,18.2274,
13.2235,27.2397,-8.1905,16.92,422.4313,212.6352,-10.7867,12.146,-7.6233,-9.8725,-10.4605,-7.4039,-13.278,3.0337,
12.0521,16.5191,-5.7387,17.8651,411.1854,213.9771,-12.0998,7.4972,-11.0869,-22.0222,-9.8324,-5.9802,-3.6599,-7.062,
0.54765,7.6864,0.48641,20.7133,400.6143,204.29,-18.2345,3.1263,-17.2829,-20.7008,-5.3224,-2.6803,-17.1627,-11.5392,
-2.9158,21.3252,-0.032729,18.0006,390.6775,199.3837,-16.6505,5.3895,-7.9144,-8.1866,-4.5131,-3.0104,-17.6032,-5.4555,
5.1002,19.1781,-0.030765,13.9799,381.3368,173.3207,-9.7702,-0.81521,-0.57833,-7.6954,-7.182,-2.8288,-7.7251,4.6737,
14.5966,8.2261,1.9314,18.0421,372.5566,151.5379,-5.2639,-2.7266,-13.2857,-18.0154,-10.6721,-1.6796,-1.3808,1.4521,
5.8787,2.8321,-2.1051,17.9394,364.3032,145.3862,-8.8686,1.3576,-20.3296,-19.8752,-8.071,-2.5588,4.5824,3.3257,
-4.2754,8.542,-0.018496,24.7037,356.545,131.7621,-20.0986,4.2163,-20.0907,-19.663,-4.6475,-9.2669,2.3472,-0.79483,
-1.0787,12.9304,7.8233,26.1626,349.2523,127.7765,-13.9918,6.9035,-20.8455,-23.3842,-1.4276,-15.5716,-5.6352,-10.5485,
2.4171,-1.0774,-0.97673,11.3609,342.3972,118.6405,0.94772,-0.86139,-19.1044,-14.63,-7.7127,-14.1469,-6.7674,2.3365,
9.6232,6.3384,-10.2291,17.0505,335.9533,118.8732,10.3146,3.6008,-3.8581,0.34783,0.10123,-2.0264,7.7386,16.2963,
2.6751,-0.41267,-13.0464,10.6366,329.8961,102.4294,4.3049,-0.045382,6.7775,8.7708,4.5052,-6.3158,8.857,1.2185,
1.0438,-6.7592,-0.99192,12.4481,324.2024,86.9718,6.4964,0.44729,12.7412,6.7738,1.7842,2.3942,5.8749,-6.2062,
-1.9595,-3.413,-5.8329,5.8209,318.8502,75.8731,0.22622,3.3611,0.21507,16.1692,-11.0644,12.0524,-8.5776,-10.7343,
4.5293,-1.7383,-1.0724,4.9807,313.8192,67.8892,-1.2581,3.6494,-6.1691,19.6096,-8.9307,8.8786,-6.2146,-19.4022,
10.6283,-1.1436,1.4422,16.934,309.0901,58.4259,-0.69224,-2.9404,-0.40807,12.0622,-3.9839,5.8956,8.2583,-4.138,
4.1103,4.8054,-7.4654,11.0175,304.6447,49.039,3.2698,-2.7639,4.5169,12.3184,-2.765,10.4424,1.0135,10.2103,
-0.057366,2.5568,-5.0572,5.4555,300.466,44.1364,6.9947,3.2827,-7.5153,11.5788,-2.5986,3.935,-5.908,8.3516,
1.4159,-11.6966,3.5773,12.4793,296.538,36.0978,6.0841,-0.34483,-19.3165,3.5329,2.9477,-4.6322,7.678,-1.4605,
-0.6293,-16.9871,-0.55833,13.6908,292.8457,29.031,6.6994,-2.2844,-9.336,-6.4795,8.6517,-6.3145,13.099,10.3893,
0.38883,-4.2067,-8.3655,17.7703,289.375,30.2293,11.1984,0.79283,-6.8156,-10.9921,4.2125,-5.9352,1.5309,-4.3341,
5.266,-8.8547,-0.022437,18.6639,286.1125,27.4357,14.447,-3.1753,-10.3277,-0.5312,1.0191,-1.6594,0.45912,-4.6768,
6.9107,-12.244,6.8392,14.6034,283.0457,25.7895,9.6597,-2.0049,-4.8071,3.4212,4.8785,5.3013,10.2325,9.7038,
6.4961,-5.629,0.54846,11.7674,276.9593,24.2422,8.1002,-1.8846,-0.59764,-1.6845,3.6059,5.9631,10.5994,15.6042,
7.0867,-8.2314,-1.4447,10.081,246.2418,22.7881,12.5151,-3.7318,-2.5225,0.37684,3.3891,1.6853,5.0625,0.56798,
3.7213,-6.7572,-5.2781,10.4565,217.3672,17.4998,-2.3358,2.3739,-7.2716,4.2753,-1.7143,7.465,2.7985,-10.8492,
-6.7942,-2.9216,-16.2336,-4.2709,190.2252,10.079,-16.2957,1.741,-2.4244,-0.39224,-9.9429,15.3486,0.18033,3.9017,
-3.4459,2.1541,-4.4778,-4.1265,164.7117,12.414,-9.1714,-1.3041,3.6015,-5.2701,-7.3865,15.4076,-2.7711,13.5804,
-3.7296,3.4962,2.1616,6.4124,140.729,6.2792,-1.2704,0.24449,-3.9653,-1.5228,-6.4529,13.0128,-5.0551,-1.3344,
-6.446,-1.6155,3.0123,0.14683,118.1853,-1.9391,-11.9755,6.1107,-1.7671,10.3297,-8.026,21.0535,2.1089,-14.1083,
-5.5688,-9.8491,3.321,-5.2529,96.9941,-7.2137,-8.8067,0.35314,-11.9524,4.32,-19.7965,12.4396,-8.3089,0.83824,
-3.7644,-6.808,0.67155,0.4532,77.0745,-8.2502,-6.808,-3.0982,-19.5668,-4.2707,-12.237,5.3225,-7.32,14.8879,
-3.539,-4.4392,-11.1299,7.2867,58.35,-11.6762,-18.1612,-1.9329,-14.4722,5.7869,-2.6823,7.9433,7.2192,9.3185,
1.0839,-9.5633,-17.8133,6.3596,40.749,-8.5259,-6.7802,1.6137,-11.1537,10.8301,-6.9318,6.9758,2.9774,0.42829,
4.4494,-9.4794,-8.4134,-1.3731,24.2041,-8.5043,7.7266,2.0068,-11.9548,0.86934,-5.0451,3.1276,-1.6117,3.8332,
3.2026,-7.9308,0.91238,3.6106,8.6518,-22.094,-2.4264,-6.9346,-11.237,-3.1034,-5.7233,2.9399,11.2265,4.5831,
6.9314,-10.3951,2.8179,2.4136,-5.9673,-34.8684,-2.2804,1.3231,-3.7021,3.9436,-5.3794,7.6645,7.6128,2.3478,
5.5352,-8.7919,0.68856,-9.4933,-19.7092,-39.8613,5.6971,8.1044,0.44107,3.7074,-0.15571,9.1649,0.29525,-9.5542,
-0.18781,-4.8334,-2.7829,-17.2543,-32.6267,-40.8997,-1.0155,-2.6732,-3.0165,-1.9059,-3.5774,3.2241,8.6081,-1.6303,
2.2737,-11.895,2.775,-29.452,-44.7691,-44.8175,0.51572,-12.8051,-8.2264,-2.282,-8.7537,1.5594,9.562,12.5675,
-2.2732,-21.4731,2.1185,-32.0954,-56.1829,-49.4796,3.9154,-17.4272,-20.9648,-5.5757,-9.6983,5.8773,9.4782,7.5149,
-2.1368,-13.3235,-0.94925,-16.0696,-66.912,-42.5902,17.7805,-7.5605,-16.7667,-8.1818,-1.2753,6.5046,19.6913,-7.036,
5.8325,-2.7222,3.0283,-8.6219,-76.9972,-32.1937,21.2365,-1.2256,-3.999,-6.71,0.76103,3.1736,4.4098,-13.0975,
1.0711,-3.0489,3.3365,-16.4365,-86.4774,-41.5338,5.8623,-6.5434,-9.1495,-2.8778,-8.5956,8.3736,-4.7882,-4.9605,
-4.3831,-16.0979,5.5875,-13.9791,-95.3888,-51.2929,-4.8931,-3.6996,-11.0508,-1.2338,-1.7091,0.52145,9.5991,-12.0135,
2.2511,-21.5024,13.5833,0.95966,-103.7654,-40.8642,9.5005,4.8534,-5.9767,-10.4712,8.6853,-6.861,23.1232,-13.7425,
-4.7456,-31.9743,2.966,-9.7678,-111.6395,-46.2539,2.1811,-9.5378,-15.42,-22.5855,-2.6181,-2.5292,16.0792,-6.0572,
-3.9709,-34.4669,0.33826,-16.5329,-119.0411,-54.7504,-0.39951,-20.8391,-17.9254,-14.8591,-5.8907,3.9938,7.7633,3.6172,
7.539,-18.2988,11.5897,-1.4409,-125.9987,-37.3654,9.9163,-5.4887,-9.4982,-3.6757,0.83403,-1.6372,-2.9934,-6.8907,
10.5168,-18.5593,15.3043,-0.75261,-132.5388,-21.7791,12.7514,8.9406,-1.5777,-7.8662,6.1739,-3.9892,2.5762,-9.9083,
10.3767,-23.8161,1.1546,-8.0586,-138.6864,-34.5724,1.6945,-2.6442,-6.8739,-19.6463,-4.4883,-3.2599,16.5216,4.7862,
6.323,-8.2871,-6.2663,-9.0445,-144.4652,-34.0798,-4.7779,0.94548,-16.7528,-9.1556,-15.4902,2.3266,14.1723,12.9429,
-7.7778,-7.678,-0.0090611,-15.363,-149.8973,-18.3135,-1.5506,6.7691,-20.6485,-0.76515,-13.5809,8.0683,1.5603,-1.9337,
1.9998,-14.5685,0.48144,-4.1504,-155.0035,-20.6453,5.8927,3.9132,-6.1776,1.7305,1.3339,9.054,-6.8643,10.8115,
4.3305,-7.3231,-1.9972,3.4498,-159.8033,-32.6381,7.9898,4.1684,8.293,11.9185,11.6581,-1.781,1.8786,3.7925,
-10.0293,-11.2947,6.4537,5.6935,-164.3151,-43.9123,8.9812,2.4484,9.3777,20.5153,13.4083,-1.1842,15.8659,-10.535,
-15.9102,-19.928,5.5765,8.7825,-168.5562,-54.5091,5.0117,-3.0889,3.4246,11.9332,11.134,11.1394,29.0139,-9.5253,
-4.6647,-9.4209,-1.1293,0.90441,-172.5428,-46.828,0.30052,-1.4337,1.7488,12.6871,8.0162,14.8815,20.1466,5.1462,
-4.3849,-1.9954,-5.963,-0.12976,-176.2902,-30.2969,8.1227,3.5528,-9.1379,11.9259,-5.2073,1.2462,8.1561,14.7507,
-5.1017,-1.8747,-2.6636,-0.12198,-179.8128,-22.5968,13.5175,3.3396,-13.4901,-1.5313,-3.914,-3.7291,17.4686,0.14419,
0.10489,7.0588,6.3172,-0.11466,-183.1241,-18.3013,3.8845,4.1191,-7.7802,4.441,2.2012,-4.4852,10.5392,-13.9645,
2.5488,13.006,6.4277,2.3424,-186.2366,-16.7128,1.2012,5.3423,-3.8828,16.4266,-0.38112,-5.6864,-4.1932,-12.2586,
-1.0347,10.7549,-2.289,-3.1894,-189.1624,-20.1215,3.5789,-2.3294,-6.1001,7.1099,-2.8089,-2.8946,0.35701,2.5769,
-7.3429,15.5009,-11.4636,-9.3684,-191.9127,-30.1859,-8.8874,-7.581,-18.9665,-4.5884,-9.0117,-0.27113,-1.1352,16.5223,
-1.512,22.9019,-4.4045,-9.2962,-194.4979,-25.924,-2.9628,1.2059,-9.497,3.0381,-4.0595,0.23602,1.3836,1.431,
6.4203,11.7264,-0.21924,-7.759,-196.928,-19.4677,5.0556,4.0737,-0.10617,5.796,-1.8566,-9.5805,5.2207,-12.7549,
3.5854,1.7119,-3.6367,6.8065,-199.2124,-19.7695,0.34173,7.2599,-6.4701,3.9784,-2.2342,-8.5147,6.3782,-4.148,
-2.022,1.1183,-0.96873,12.8817,-201.3596,-24.9545,4.7317,3.3937,-8.5326,5.2095,1.3295,6.0961,7.4654,-9.2905,
-4.8409,7.9129,-6.7905,5.2481,-203.378,-25.4176,-3.3928,-8.5711,-10.9608,-3.9245,-6.5909,13.6834,3.0974,-3.8321,
-3.5701,6.4577,-5.4036,-4.8691,-205.2754,-18.0117,-10.0509,-3.1569,-9.3237,4.1516,-14.037,5.0208,-1.9894,10.4978,
-4.8257,-8.0297,2.2717,-8.0076,-207.0588,-27.2228,3.7846,3.4038,-9.2543,16.155,-10.7441,7.1702,-6.2805,9.9798,
-8.9472,-15.9918,-0.31479,-3.1161,-208.7353,-38.8214,12.869,1.7292,-11.1492,9.7949,-10.5899,10.1702,-3.4535,-1.8911,
-6.4501,-8.1707,0.68447,-0.9689,-210.3112,-35.5117,15.037,-3.2754,3.6197,4.3062,-0.15311,9.5604,3.6145,-8.6384,
-2.6324,-9.1512,1.1334,0.5591,-211.7925,-25.05,9.7233,-2.589,16.2565,-3.3033,13.0876,4.5754,5.8474,-15.4713,
-4.4352,-11.5428,-7.7557,-6.3347,-213.185,-12.7652,5.2203,-1.4528,11.3605,-2.1252,14.2631,-0.59962,-4.3044,-0.44298,
-6.1285,-3.0086,-6.31,-7.9149,-214.4939,-17.8801,10.7879,-0.38524,11.6593,12.1023,11.447,4.3373,-7.9662,13.6836,
-10.1717,9.424,-10.3423,-4.0099,-215.7242,-30.9073,5.7297,-0.85255,11.4501,15.41,5.3703,-3.2736,-7.9787,6.716,
2.2002,17.6795,-3.8414,-10.6305,-216.8808,-26.2251,1.4653,8.0196,11.743,10.5639,11.9083,-6.9978,-4.5593,-7.7869,
6.4787,10.2475,-2.1401,-11.4625,-217.9679,-17.3004,-1.0733,4.1078,12.5083,12.3808,7.7632,-7.0688,-11.6369,-8.412,
-3.2214,10.1231,-6.4227,-5.3839,-218.9899,-25.5738,2.4222,-6.43,18.1286,13.1083,1.9065,4.6275,-12.409,-4.4771,
-4.0085,12.4559,-0.15652,-12.9024,-219.9505,-30.9001,6.1969,-8.9844,21.9418,8.4008,10.6136,8.2699,-5.7836,-8.1286,
3.0932,5.8282,5.7342,-9.1876,-220.8534,-29.0461,4.8452,-4.5247,12.7842,4.957,9.9768,-5.9477,-11.317,-10.5815,
-1.5029,5.9684,3.9193,-5.2058,-221.7022,-26.8134,7.0052,0.15725,14.4678,3.1888,6.9284,-4.121,-3.2868,-24.0466,
-8.7634,5.1199,-4.6464,-9.3044,-222.5001,-31.5754,4.1347,-3.2823,23.8911,1.5271,10.9228,1.5171,10.1415,-9.4842,
-7.2577,-8.9088,-10.2489,-7.7653,-223.2501,-42.4224,-1.9947,-10.9265,23.4385,3.3963,13.2081,1.4261,7.5732,5.1849,
-15.6442,-19.156,-8.6541,-7.3003,-223.9551,-53.5995,-8.7362,-13.2125,25.9518,8.0929,21.2366,-2.58,-0.72234,15.277,
-23.5266,-24.8678,-7.1549,-0.981,-224.6178,-53.3242,-18.013,-11.4389,27.3353,14.4686,28.7834,2.4752,-0.679,0.26038,
-18.1939,-31.2164,-8.6859,-5.8231,-225.2407,-52.085,-24.7738,-14.6736,16.8737,11.6402,13.3345,9.1884,-5.5392,5.5242,
-4.8507,-15.2434,5.0677,-1.0622,-225.8263,-46.5092,-12.0156,-5.4612,18.312,7.5112,4.2033,15.9883,-6.6767,9.6033,
-18.6596,-6.8658,-1.6072,-15.0985,-226.3767,-47.1488,-19.6253,-6.6038,18.6836,12.4514,5.4215,12.5787,-3.8259,-1.2643,
-31.6401,-20.5538,-15.6107,-28.2926,-226.8941,-51.671,-32.5478,-15.5186,9.2315,11.2143,7.5469,0.55229,-3.1064,-4.619,
-15.6417,-5.2206,-14.2965,-12.495,-227.3804,-40.2397,-25.3169,-0.48745,12.1082,13.9721,17.3849,13.7507,1.4905,-8.7524,
-0.60317,9.1926,-5.1072,-8.4271,-227.8376,-41.2554,-20.3668,-4.7568,13.832,19.5045,5.0706,21.2572,-9.8701,-11.6574,
0.90335,12.1831,-5.2912,-9.3918,-228.2674,-34.3701,-20.6151,-7.9025,16.4322,26.6658,1.3362,15.5708,-13.6889,3.1421,
10.6505,25.5521,-15.755,-10.7886,-222.4178,-20.5457,-14.4782,0.41232,1.3463,10.9658,-2.665,7.7758,-23.6489,-9.6766,
24.1115,38.119,-8.9284,-13.0819,-195.3503,-5.213,-5.7675,13.1301,-7.1775,-3.7921,-9.3663,15.1503,-25.1706,-8.1161,
27.1877,49.9319,-6.4329,-17.1974,-197.7293,-10.1792,-19.5214,1.5605,-19.4884,-17.5112,-22.9043,0.14132,-27.5809,5.1134,
39.6564,61.0359,5.2248,-3.914,-171.7655,-7.1178,-5.7209,9.7979,-15.8693,-16.9505,-12.8205,-12.7211,-12.6936,0.39513,
51.377,71.4738,4.9113,-8.5796,-147.3596,-7.6706,7.3648,17.0521,-13.9373,-20.8339,-14.011,-7.0574,-18.7932,-9.4295,
62.3944,81.2854,-9.4834,-22.1648,-144.2865,-21.3104,-7.1771,14.0678,-17.0211,-12.7232,-27.2704,-8.5942,-31.3885,-5.9235,
68.7883,90.5082,-0.69519,-22.4176,-149.7293,-34.1317,-20.8464,25.9653,-11.0994,2.1402,-22.3164,-13.9598,-19.7033,-0.66767,
70.5418,99.1777,5.2274,-6.9726,-154.8455,-46.031,-10.0185,27.3485,-18.275,-12.0882,-17.0564,-21.9428,-28.3225,0.35276,
60.918,107.3271,-3.4173,-6.4423,-159.6548,-56.5006,-17.7494,18.3564,-21.589,-25.4629,-30.133,-23.0769,-40.7231,8.6627,
54.3236,97.4863,2.6685,-10.9558,-164.1755,-67.2106,-21.5844,22.156,-13.432,-15.2255,-27.457,-14.8306,-24.1797,2.2621,
49.5934,89.1864,5.939,-0.98746,-168.425,-77.2779,-15.8789,28.1777,-9.1955,-5.9809,-15.5178,-3.6499,-8.629,-6.2047,
32.5178,69.7352,-2.7484,1.5225,-172.4195,-86.7413,-7.575,25.0163,-12.0743,-9.0527,-14.0968,-2.941,-6.0386,-6.3224,
23.1032,51.4511,6.7275,5.8416,-176.1743,-95.6368,6.9795,30.8665,-10.8599,-8.0196,-3.94,-3.2545,0.69497,-14.2741,
14.8558,34.2641,7.3037,-3.3308,-179.7039,-103.9986,10.5927,20.1935,-9.2284,-13.4197,-7.6241,-4.0391,-1.3075,-14.3985,
12.4951,18.1082,3.4354,-4.6003,-183.0216,-111.8587,3.5873,4.8819,-9.1642,-10.1634,-14.5174,-0.36663,-15.329,0.56541,
9.7851,2.9217,4.2096,2.5364,-186.1403,-119.2471,5.3314,11.3378,-13.5153,-12.4947,-11.6861,-1.325,-24.3226,14.6315,
5.277,-0.75462,16.6991,5.3244,-189.0719,-126.1923,19.1115,24.7575,-5.8436,-13.7053,0.7763,-5.1656,-8.7632,-0.3464,
9.3709,-8.0605,20.1067,12.3561,-191.8276,-132.7208,19.0576,20.4433,-2.0624,-1.6112,-1.721,-4.3657,5.8626,-14.4256,
4.8885,-21.6769,6.1592,3.7741,-194.4179,-138.8575,14.9739,7.4555,-10.7601,0.44571,-8.4785,-5.0841,3.2849,0.53992,
0.18425,-25.3891,7.26,-6.7446,-196.8529,-131.6469,27.3075,8.4785,-9.6241,-8.8925,-3.5588,-6.2494,6.5179,-4.281,
2.6239,-18.4744,11.2349,0.031303,-196.4124,-118.3576,29.0996,12.3803,-11.4974,-15.7091,-9.7165,-16.1653,7.5967,-18.1242,
-0.47419,-22.2673,10.5608,-0.95048,-197.3701,-111.2562,24.413,5.7562,-13.7482,-13.7867,-4.233,-23.0365,-1.6801,-5.3865,
-6.817,-24.3609,7.4765,1.5563,-199.6279,-105.0708,25.398,3.941,0.30917,-5.6083,7.2926,-7.5543,4.7919,9.0367,
-13.2687,-25.8404,1.147,-1.4772,-201.7502,-106.6072,18.9732,6.6447,10.092,0.609,-1.9655,0.85194,12.3451,13.5068,
-11.0023,-24.7795,12.3504,-9.7192,-203.7452,-104.6217,16.3654,13.5976,11.9367,1.0619,3.5433,0.31041,16.0153,-1.4036,
-14.7531,-29.6635,5.2386,-13.547,-205.6205,-102.7554,10.9725,2.4904,3.8698,-5.3726,6.7609,0.7822,9.6635,-2.9016,
-10.4373,-16.6129,-4.3886,-12.2452,-197.6528,-92.1795,10.8041,0.87022,7.0673,9.0498,10.7648,9.0663,13.4942,3.6428,
-6.8709,-3.854,-1.1841,-8.5694,-189.7137,-87.6282,12.1161,14.5399,3.7031,15.4799,8.1596,9.5027,14.6448,-1.4757,
-8.4189,-12.4442,-3.0734,-3.1543,-189.1122,-94.1326,14.3294,16.6077,-1.42,0.45111,1.7892,1.091,15.7264,-3.3475,
-6.9334,-22.4789,-7.7899,0.95507,-187.5673,-96.3263,17.3906,10.7103,10.4273,-8.9993,1.6813,-1.9147,12.8226,10.9534,
2.3041,-9.368,4.4396,11.68,-181.2133,-76.4467,18.3075,21.8308,9.8021,5.2626,6.4823,-3.7601,7.1532,24.3962,
-9.5958,-17.6279,5.1532,-1.7633,-184.4405,-76.1585,6.4273,12.6789,-4.886,1.0263,-4.6893,-16.277,9.6637,8.8324,
-6.0794,-16.5702,8.7645,-3.6173,-159.274,-78.4493,10.9421,6.0378,-9.1166,-0.99602,-4.4079,-7.4583,19.8657,-5.7975,
8.0068,-1.476,10.1994,5.4207,-135.6176,-69.8218,19.1075,15.4764,5.5304,2.9852,1.7378,-6.0309,7.892,-1.5291,
6.547,6.0756,7.6272,-1.7652,-141.5805,-63.6722,13.0601,23.3693,5.8013,-3.0747,1.634,-19.769,2.5175,4.4435,
-1.197,8.1618,2.759,-6.0698,-147.1857,-63.2824,1.0048,11.6763,-0.91708,-2.4003,-4.8353,-7.913,16.4665,-3.1743,
-3.5759,5.2214,-6.7184,-16.9774,-132.0961,-63.896,-1.5062,-0.29691,1.5877,8.0346,-8.9566,6.6618,11.1803,11.1162,
0.55922,-2.933,-5.3354,-16.9386,-127.1106,-59.0823,8.386,7.562,3.4523,8.5324,1.3827,7.3543,1.6876,24.5492,
-8.7858,-14.0283,-7.4655,-13.4721,-133.5839,-58.9675,1.5121,1.7174,-0.18501,-3.2507,3.7499,3.482,9.9178,8.9762,
-3.8481,-18.577,5.235,-5.3126,-139.6689,-52.9797,3.8721,-2.7952,4.2366,3.3155,-0.88558,-1.1374,8.8328,-5.6623,
3.2435,-19.4236,15.7022,9.1062,-121.7116,-51.7612,14.421,9.1337,3.002,5.0769,-4.7525,-9.8907,-3.4593,6.929,
-5.7716,-19.2376,3.9787,9.1621,-128.5089,-49.635,12.5754,16.4273,5.763,-6.9899,-0.54729,-2.4356,9.4903,-7.5867,
-6.8957,-18.5738,-4.5915,3.2206,-134.8984,-32.5569,3.4894,12.9905,11.788,-7.0609,3.8965,5.0613,23.0209,-9.2037,
-10.8929,-19.9096,-2.8457,6.4584,-114.2867,-16.5035,1.8097,9.7608,-3.0193,-6.1468,-4.6688,-4.5539,17.3415,5.4485,
-16.6096,-21.1657,-2.185,7.5417,-98.1181,-6.9584,9.0532,7.7053,-11.2811,-4.3072,-2.9179,-1.8299,6.0092,9.6449,
-11.203,-22.346,-3.5242,6.5988,-106.331,-8.9911,0.17752,3.8119,2.6269,2.322,9.5083,1.71,12.0194,4.6553,
-4.6505,-26.8865,5.5082,9.1426,-114.0511,-12.3722,-7.6742,3.5832,16.5692,9.043,23.0378,-4.2739,23.0599,17.1175,
-18.4715,-39.3733,-0.70262,6.6342,-121.3081,-25.7299,-11.1343,-10.7318,29.6751,3.5999,35.7556,-5.9773,20.6964,13.1498,
-17.9645,-37.6123,-2.6203,13.0973,-128.1296,-30.6688,-0.66443,-6.7687,27.1394,8.2853,26.9738,5.1631,20.4355,-1.7392,
-5.1255,-21.2556,2.4369,8.3905,-134.5418,-16.0875,10.1567,7.7374,20.6101,9.7485,13.5932,-2.0074,16.2682,-15.7348,
-5.7983,-14.4775,1.3103,9.8473,-131.9306,-6.3008,12.4875,3.954,17.4132,6.2225,14.7379,-1.8874,11.3711,-13.0547,
-12.8011,-21.9403,-11.0194,-0.054944,-124.5047,-8.373,1.4479,-10.3833,2.2684,2.419,7.4828,12.3258,-1.5623,1.8286,
-10.5627,-7.3919,0.91299,-13.2836,-112.6239,-7.3802,-2.0701,-8.4018,-10.2316,5.704,-3.2575,16.1091,-10.78,13.1029,
-5.028,7.1516,6.739,-9.5455,-102.9258,-7.9178,0.9943,-2.0169,-7.6575,9.2827,-8.9429,6.3211,-12.0935,-1.7832,
-8.6474,-7.3775,-6.4073,-11.9139,-101.6512,-11.3637,-5.9261,-7.7767,-0.33729,12.6459,-1.5456,6.9222,-2.5464,3.6027,
-12.5386,-13.3056,-7.4932,-8.7479,-95.0617,0.59029,-9.9815,-1.9192,0.17337,15.3182,1.9782,6.9973,1.0365,8.7775,
-9.8264,-3.6863,-9.9833,-4.3034,-89.3585,9.3759,-6.442,1.1366,-4.7384,7.5379,-2.061,1.6761,-8.8266,2.3695,
1.5449,-9.3455,-7.4245,-11.8863,-94.7787,5.8727,-8.0162,-4.8129,6.3276,9.0454,4.9229,13.3372,2.4838,16.3273,
0.96179,-14.1756,-10.4092,-14.6033,-103.192,-1.8304,-21.6352,-10.8949,9.379,11.9338,6.0979,14.0073,12.6271,15.4596,
-2.5265,-14.7959,-6.355,-6.3759,-111.1005,-2.2105,-13.0978,-3.87,2.4451,9.747,8.1827,-0.93317,5.4982,1.3005,
11.7251,-11.4574,8.1263,-6.4833,-95.3468,1.3527,1.788,4.6933,3.7691,9.653,3.2812,-2.4594,-7.0833,-10.0492,
13.5851,-3.4184,4.321,-19.3263,-75.526,4.7017,-8.4982,-8.8203,6.9731,11.5241,-8.1869,8.9603,-3.2282,-13.8563,
3.9476,6.5872,-10.0383,-30.9087,-76.7634,2.4593,-19.7505,-17.1126,-0.30693,11.8121,-11.6167,0.58115,7.7468,-1.2638,
5.1815,20.292,-5.6273,-24.6437,-80.4886,8.683,-12.1942,-7.7547,-4.699,13.554,-8.469,-8.7647,9.7327,11.0637,
-1.5002,15.7567,0.10025,-25.6153,-84.9712,7.6716,-14.8936,-9.7397,-1.9668,14.2111,-11.3919,-4.8087,0.81721,-3.7001,
-5.8211,6.4797,-6.2756,-18.6875,-93.973,-0.13937,-14.4895,-11.6055,5.5028,6.0078,-3.3568,-2.0699,2.2385,-4.0804,
-4.492,10.0115,-3.9393,-9.7252,-87.4661,3.7895,-4.7991,-2.0882,11.053,3.6866,4.6848,-1.9457,15.8266,10.2644,
-4.2224,14.3122,2.1784,-17.9627,-78.2976,10.4234,-4.5111,7.8389,13.3305,4.4453,1.464,-0.84908,3.1153,-4.4515,
8.7734,22.2745,6.9481,-5.1232,-78.5006,16.6582,-0.31992,11.2892,17.432,0.258,4.3168,2.1425,-11.1716,-18.2844,
5.7968,12.6065,5.0609,-3.3455,-84.0819,11.2487,-1.7711,-3.4882,8.0546,-3.1876,2.5875,-3.3769,-5.7127,-3.0873,
-8.651,4.9894,-4.0642,-14.9069,-78.0567,2.7322,-4.605,-17.3789,2.6704,9.7457,2.4318,-2.1939,8.352,11.1979,
-17.5558,12.5311,-17.9204,-17.9331,-84.1555,1.5884,-16.0903,-18.0307,15.2517,17.9819,16.0073,-0.10248,4.9102,-3.574,
-20.423,0.017582,-19.4073,-21.7575,-93.2062,-3.4074,-29.2249,-16.9489,28.059,12.0026,22.8889,-2.0561,-0.28485,-7.77,
-31.9396,-12.7255,-17.2624,-15.5512,-101.7138,-10.0637,-41.5714,-17.8922,22.4554,10.302,13.674,9.8294,2.6724,6.7962,
-30.0228,-0.19985,-24.0683,-12.6578,-109.711,-6.5197,-39.3009,-10.9379,17.187,18.5054,9.9134,21.0008,-3.3688,-6.7317,
-20.8707,10.1035,-14.2926,-17.2892,-94.643,2.2021,-34.4926,-6.8515,29.3878,28.6663,16.6693,21.2111,-2.6762,-8.778,
-27.9495,-3.7352,-20.7862,-21.6432,-103.0644,-11.1615,-43.6948,-5.9495,24.1939,22.5358,8.318,12.5872,-6.9261,-1.8801,
-31.173,-2.5302,-23.4596,-18.3839,-110.9805,-12.4517,-41.0731,3.2285,20.7825,24.1243,10.7595,13.7928,-5.5307,-4.7079,
-26.3625,1.5417,-7.952,-13.3608,-118.4217,-5.8247,-39.5891,-3.826,16.5944,31.4974,9.1336,11.9848,-3.2386,-6.3857,
-16.4492,-3.9417,3.4183,-9.128,-115.0831,-14.7857,-35.7434,-15.8485,17.0691,31.0788,7.1162,17.6365,-0.59401,8.0974,
-13.0125,-8.1157,-5.1179,-12.011,-122.2781,-27.131,-36.0486,-14.4076,16.5349,24.8036,7.1792,20.0089,-1.0483,21.7116,
-3.9007,3.6429,-5.3008,-12.7611,-104.762,-11.4031,-36.3364,-3.2514,11.1323,23.8044,3.3178,11.4572,-7.3567,6.3089,
9.0759,15.186,2.8584,-13.9552,-84.3763,-2.7655,-22.3945,-0.11562,13.405,20.4163,3.1187,4.8885,-5.9354,-8.1697,
1.6701,2.5132,-8.0949,-6.2567,-72.8306,-16.6996,-20.0709,-12.8512,8.6802,5.0913,2.9316,-2.2651,-6.5592,6.4205,
-11.6621,-6.949,-14.9599,-2.4512,-82.5607,-29.7976,-23.2767,-14.5303,10.6096,8.5945,10.1064,2.2818,-1.7546,20.1353,
-5.5719,-13.8832,-5.7312,-14.5557,-89.9711,-21.3737,-20.4103,-10.2279,10.4629,17.3898,9.0101,8.5152,0.80041,20.6217,
6.0346,-10.6,1.9633,-10.2523,-82.1226,-23.5214,-17.7153,-9.1238,5.4242,9.9756,0.13794,11.4344,1.2428,5.2844,
-8.4275,-8.0037,-3.0545,-9.6366,-86.9966,-27.991,-18.6127,-11.5175,8.0399,8.3967,13.8525,10.7488,5.0893,-7.8865,
-22.0219,-9.9737,-4.3415,-7.5881,-84.227,-22.8804,-10.1452,-10.336,19.8096,21.9929,27.1214,24.2039,7.2341,6.6866,
-6.6006,-14.2762,-3.1016,-0.2721,-87.015,-13.667,-3.6557,-7.7556,21.5602,31.5665,24.6256,30.7042,8.7594,20.3854,
1.5242,-16.3599,-3.8949,-3.196,-92.5754,-10.8867,-9.3172,-9.2505,16.3465,20.852,20.2079,23.962,11.175,12.0354,
-12.6672,-10.9678,-2.1914,-4.4741,-99.2725,-16.6038,-16.1093,-5.2649,14.8758,15.1904,21.4461,23.9941,10.0145,24.5457,
-13.9798,-12.27,1.8602,-10.0874,-83.5152,-21.4893,-16.1231,-2.9887,10.0622,10.3579,7.4164,23.5348,1.5721,30.9136,
0.95896,-9.5735,7.6294,-6.542,-64.4043,-11.3785,-11.2347,-3.7898,1.6178,4.8355,1.0906,17.2218,-9.3035,14.9588,
1.0138,3.2521,5.7013,-3.6992,-48.6665,-5.3049,-11.051,-6.0126,2.0103,2.0952,3.4754,2.0885,-13.1563,-0.03871,
-4.9279,3.0574,4.3798,-6.4174,-45.746,-4.0062,-10.3875,-6.6322,10.7111,9.811,4.2472,0.87092,-1.5847,10.0312,
-6.1025,-9.3772,1.6668,4.2599,-33.6898,-3.2754,-14.1752,-15.5457,4.6776,10.6927,-5.319,9.1502,-0.019288,6.9791,
-6.2263,-7.3447,1.0768,6.4541,-30.1981,-1.6091,-14.7946,-10.2025,2.9271,10.5411,-1.5693,9.0911,-2.4688,0.18907,
-11.2441,-6.4141,3.462,-8.0332,-37.6977,-6.9039,-15.3777,-2.2392,6.182,8.4378,2.9354,4.1352,-2.8107,11.4494,
-9.0982,-7.4995,1.7849,-13.0535,-38.8659,-5.9992,-14.9445,-1.6144,5.3216,7.4421,4.2305,4.3775,-1.1717,19.094,
-0.71166,-4.1094,-2.2432,-3.4497,-44.3756,5.142,-9.1479,0.44273,-0.87943,9.9357,0.055649,5.0943,-3.0617,4.2255,
6.6827,10.2372,2.3023,-0.7916,-48.0838,9.2445,-1.2474,6.7879,-4.2568,10.8099,-5.3386,11.1603,-3.3684,-5.3385,
2.3602,-0.066079,3.1441,-11.5259,-49.1193,-5.4102,-1.1725,2.4591,-1.0607,8.2015,-4.0383,13.4304,-2.1864,-1.0977,
-0.72158,-13.7841,6.8765,-0.053019,-46.1722,-2.7468,2.8189,-0.62861,13.1029,21.4314,7.9661,20.4662,3.8266,13.0682,
-4.1084,-10.5068,2.0529,10.2415,-49.7731,8.6893,-1.7613,-1.0813,15.3688,24.5555,9.9383,31.4893,-4.7345,26.3841,
1.529,-8.4061,7.3206,4.2361,-54.1374,0.8163,-1.1661,-0.52601,15.917,19.652,7.8717,36.9516,-6.9007,10.701,
-0.033097,-11.3318,6.391,10.3537,-51.3791,-3.6427,-10.4076,-0.98487,14.4716,20.9232,9.8496,25.4231,-7.957,-4.041,
-14.1311,-22.904,-8.0925,14.1425,-62.3964,3.9265,-23.8831,-0.43536,9.1932,19.1773,13.6696,16.5461,-4.0494,10.3014,
-27.1175,-29.3709,-3.7983,6.4337,-72.4869,-4.1502,-19.6214,-4.3298,15.5028,7.2459,5.9883,11.6337,0.11409,19.1062,
-11.3905,-13.5086,6.231,5.0673,-54.0377,-6.8413,-4.3441,-6.0303,18.4928,18.5733,-0.25187,5.0548,2.0675,3.8598,
-3.734,-11.6063,10.2676,1.3326,-36.9616,4.8409,-8.872,-4.1986,15.9133,31.5589,12.0149,8.1812,14.1951,-2.3649,
-17.6099,-25.0099,2.7904,3.2125,-48.8439,-0.35099,-22.4397,-5.9065,21.8188,22.9156,16.1944,12.5908,12.3635,11.877,
-11.7652,-31.4628,5.0737,5.4704,-54.8466,-6.7002,-14.3445,-8.0028,34.6097,13.2096,16.6936,14.286,3.2906,0.49494,
-4.1986,-22.7134,14.5706,-3.6793,-37.4558,-6.2987,0.61621,-11.4437,39.5062,16.3371,19.612,2.6476,4.0726,-12.2768,
-6.8868,-17.4305,6.8356,1.4424,-32.6459,-1.0199,0.20071,-2.9155,23.0358,8.4961,13.5353,-4.372,17.5511,2.5598,
-8.4339,-16.3842,-7.6745,-0.6044,-44.7871,-3.8988,0.18913,-0.78026,7.5537,-5.7356,-1.3768,-6.0709,6.6957,1.0487,
4.3242,-3.15,3.4544,9.7232,-34.3712,-3.1754,7.5285,0.73688,2.4657,-0.00057999,0.55325,-4.2363,-5.9572,-0.48452,
0.63461,-0.50981,10.5988,8.6503,-36.7189,-6.415,5.6074,-1.7576,-0.13248,-11.2718,1.9904,-2.5109,-13.9303,0.034973,
-1.8542,0.01073,4.5725,3.7199,-39.9067,0.34112,12.6221,3.7383,1.3463,-15.9868,7.2623,3.0302,-13.5854,-12.2197,
-1.7424,-3.91,-2.5626,12.3182,-31.6314,0.32018,12.8442,-2.3668,3.2258,-11.1066,3.8855,-3.0325,-1.0081,-14.4267,
-7.0292,-5.1462,2.9815,8.1485,-26.3034,-1.1689,8.6429,-8.5961,3.5212,-9.9502,-4.6787,-2.3606,4.4428,0.53893,
-11.5079,5.9443,7.7031,7.6596,-18.8444,10.6629,15.9655,0.74164,7.2305,-8.3733,1.4824,10.5226,-3.6649,10.4199,
-18.1691,-3.7247,-1.0906,12.5909,-21.1443,6.5921,11.5774,-4.6937,8.267,-13.2618,13.6455,-4.2087,1.9459,-4.3053,
-13.1579,-17.2222,-1.0247,8.8952,-23.7957,-0.66326,7.9426,-11.2728,4.8317,-10.5058,15.7679,-13.8695,12.6113,-13.9603,
-8.4484,-17.1693,4.9176,11.3017,-13.547,6.2363,9.4263,-2.7558,4.5414,-3.0147,6.9802,1.0627,0.092527,0.97734,
-21.6629,-30.2391,-6.1592,11.6035,-21.5556,-0.018206,-2.9019,-6.511,8.1894,-5.7745,7.5413,6.5012,4.0075,15.0187,
-21.833,-35.3983,-17.0614,5.5169,-32.5139,-8.3482,-15.9593,-10.5309,7.2081,-9.8385,11.4993,0.72076,17.8671,1.1094,
-6.423,-22.9817,-12.6071,-1.1845,-16.4631,-0.49613,-8.6305,-2.5479,-2.5353,-5.8167,1.4984,1.1684,2.6951,-11.2079,
-3.9655,-30.4247,-0.088989,6.7268,-10.4625,1.4934,3.649,1.5256,1.5364,-2.528,2.3884,1.0974,-4.3279,1.2253,
-16.9595,-37.9107,-3.5138,18.5753,-23.9347,-11.8281,-0.98089,-7.8774,6.8351,-1.8859,12.5374,2.5018,5.2433,10.4632,
-10.0611,-25.8346,-0.36278,25.3023,-36.5987,-11.118,11.82,-8.3851,20.525,10.9693,25.8851,14.1139,5.909,-0.94584,
-7.9871,-26.7348,8.9704,22.3139,-35.6069,-15.8418,13.561,-10.3323,18.4259,-3.7888,27.3841,1.0149,3.1033,-14.9891,
-17.7993,-28.5608,6.9619,11.6636,-38.8614,-18.3214,-1.3526,-11.1826,3.2204,-17.6615,11.6411,-7.3775,-1.4929,-8.8108,
-9.8701,-19.0061,6.5442,8.0231,-36.5297,-7.4212,-7.2637,-8.5509,-11.0728,-24.6676,-3.1574,-3.9942,-1.4033,5.8179,
-5.3578,-20.8068,7.1319,12.4427,-22.5762,-2.075,-0.94801,-14.8996,-17.9843,-29.0684,-17.068,-17.8545,-0.33877,-8.6312,
-6.0167,-18.5781,9.6442,15.6162,-7.4993,5.8911,5.9705,-6.164,-20.8254,-29.2846,-12.459,-17.3856,-3.2596,-11.054,
-4.6758,-6.6816,12.0062,19.5797,-14.8909,14.3586,9.5329,4.9876,-18.5959,-17.7266,-8.7717,-2.2424,-17.164,3.7093,
0.50661,4.5015,10.3054,24.2867,-17.9175,9.577,7.9805,2.7281,-8.6587,-2.563,-11.1856,2.4154,-20.6565,16.8311,
5.3762,7.1716,8.7067,18.9084,-3.121,3.1206,9.462,3.5447,1.6622,11.6908,-3.6537,2.2701,-7.655,1.7212,
1.1331,-4.0405,4.2638,11.8936,-0.97345,2.9334,4.9737,7.2526,-2.3581,5.3337,-1.4738,7.0343,-11.1163,-3.8853,
-2.365,-8.209,4.4984,3.8283,-7.2858,3.2478,3.2049,6.327,-2.707,3.5433,-1.8758,5.1419,-6.0393,10.4478,
2.6778,1.105,2.2682,0.65845,-16.6496,2.0735,2.0332,-5.8138,-7.4446,17.0527,-5.6833,3.854,3.1446,21.695,
11.8281,15.1387,-4.2392,14.7189,-12.2205,14.1998,6.3217,3.846,-0.62759,22.3998,0.048098,17.7227,-0.4747,9.1216,
6.7074,9.9318,-0.55375,22.2788,2.6127,16.7788,10.3525,10.9659,6.7617,18.6056,9.3566,18.2411,-7.7969,21.8062,
2.8748,-1.9363,5.8503,14.5713,11.8793,2.5401,9.2418,3.9372,1.945,15.039,6.345,3.0467,-4.8789,11.1864,
11.0334,6.5119,4.0294,14.1869,12.6369,-2.0228,9.1773,2.2311,1.3384,0.036703,1.5538,2.262,0.80428,-3.5847,
10.3714,15.9221,6.7273,23.1376,22.66,1.0383,12.5472,-2.8041,9.0992,-10.8596,9.3017,13.888,-1.2038,10.7303,
8.2783,8.5955,5.8337,31.0603,35.4004,-4.4144,14.2441,-9.0062,11.9838,3.0244,11.1933,3.7428,-0.64161,8.1258,
11.7027,-2.7015,3.5234,17.4355,47.3763,-9.0505,14.3698,-3.5649,7.3438,7.7439,3.661,-4.3224,1.3572,-6.4618,
9.0407,2.361,1.3522,15.4085,32.5064,-8.5074,14.4876,-0.41131,10.8237,0.41804,5.4021,6.7187,3.2355,8.0259,
3.1069,0.74951,3.7209,22.8151,16.456,-12.4075,17.0489,-14.4866,16.5455,5.7834,16.3487,6.8055,0.59165,21.6444,
4.3903,-5.6667,4.9684,12.1352,18.7869,-10.1932,12.5954,-9.3184,11.1423,5.9273,10.9573,-5.8544,-0.91464,6.2457,
9.5183,8.7733,-2.6809,2.0961,31.7597,4.5184,1.5488,5.3407,0.18194,-8.5284,-2.9316,-7.9539,-1.3497,-7.3601,
1.596,14.7305,-3.01,4.421,15.7541,18.3473,4.8865,2.682,12.4236,-10.5797,7.5361,-3.0652,1.182,7.1815,
-12.5997,-0.25333,-1.8495,8.0754,0.70885,25.3123,7.533,-3.3602,21.4791,-1.123,16.8848,-5.8219,-1.8296,-7.3494,
-9.0155,-4.271,-2.2284,8.0818,-13.4337,25.2634,5.6111,2.2327,13.8191,-0.56567,7.5407,3.8383,-6.1303,-16.7103,
-2.1038,4.3167,0.35549,4.1658,-15.7921,25.2179,8.7046,-2.3122,6.6192,-5.9226,4.638,11.9396,-8.2127,-1.6076,
2.433,12.3888,-0.15579,10.2871,-3.5729,24.1948,4.7517,-1.6835,3.7713,-5.0773,5.8296,4.8519,-10.1707,12.5888,
4.7377,19.9765,-5.5378,1.3388,-8.7494,15.392,-6.8041,7.7294,-0.86548,-2.322,-2.8513,1.1302,-12.991,-2.2665,
3.4731,19.7583,-1.2845,0.2781,-10.1847,10.5484,-0.51507,7.2651,2.1276,-2.1831,3.2006,6.9432,-7.3106,-9.8593,
-2.1257,13.1815,2.2232,9.5724,-5.1631,17.2666,4.9062,3.3986,3.4698,-14.3037,12.3196,-7.5733,-5.4021,4.8323,
-5.4288,9.9408,-0.36092,6.5483,-1.4227,15.7407,-0.77854,3.6847,-0.16902,-21.7766,3.2493,-21.2189,-6.5479,-9.5577,
1.7581,17.1855,5.542,13.0156,-2.3177,13.8154,7.1093,3.4636,5.7224,-6.37,1.0946,-8.4079,0.7062,-7.0244,
6.0627,12.7233,8.6397,10.7644,-14.4303,8.5764,13.0535,-0.17436,10.769,3.925,11.3202,3.3678,-3.7471,7.4971,
6.6798,5.0996,9.1012,2.2783,-20.4252,-2.7199,2.4684,-1.1438,12.0836,-5.1315,4.7607,7.0863,-17.6223,16.961,
-1.0726,2.3434,4.1451,1.6512,-15.7695,-5.9869,-0.12989,3.3349,19.6901,3.5079,-9.625,18.9132,-10.7956,1.8433,
-11.7891,-2.6986,-3.9447,-2.3684,-14.8229,-0.72719,0.85874,1.175,22.4293,17.3975,3.5822,11.898,3.9522,11.4218,
-5.2014,3.3446,2.1723,-0.26555,-8.0527,4.2169,-6.054,5.025,14.2223,25.7769,12.1883,7.2636,-1.564,21.5182,
-3.419,5.5942,3.5123,-5.6414,-2.1791,-5.3475,-0.3008,3.2532,11.8987,11.9782,-2.643,4.3766,-14.7021,6.1271,
1.6866,5.2585,7.2221,2.5382,10.6937,-5.0267,13.8172,-0.86255,16.0852,8.3189,-7.4977,-7.6476,-1.0784,-8.3405,
-2.3347,2.0028,5.8084,10.2274,6.1315,0.17583,9.6704,-0.81033,1.0201,-5.9013,-1.1661,-19.9308,2.9073,6.1476,
-13.4668,-1.5484,-0.91088,-0.67754,-4.5282,-4.2457,-5.0098,6.589,-6.0137,-17.8002,-8.4478,-14.324,-10.4991,15.0901,
-2.8569,11.287,-0.85623,1.3229,9.8435,-3.0101,5.9597,6.1936,6.1087,-9.87,-16.7619,-5.6235,-14.7696,10.2642,
2.215,15.5102,3.1157,4.1842,23.3529,2.071,16.3848,-8.278,-2.0989,-7.318,-7.9151,-14.1071,-4.0825,-4.4517,
-5.759,3.7979,6.8493,2.9532,17.2755,0.96679,1.3017,-13.2841,-7.8543,-15.7,-0.57898,-19.1419,3.0236,-18.2846,
-1.003,10.9212,1.0479,7.1866,29.4709,8.2599,-6.7298,1.613,-0.031847,-4.4662,-2.9949,-3.8934,4.3121,-3.0875,
-4.373,11.7362,-5.3867,-6.4766,36.0338,16.0949,-4.8566,1.1381,7.3208,5.1123,-3.3057,7.7238,-2.3174,11.1978,
-1.1709,11.032,-1.1429,-1.1876,28.9708,15.1292,3.2759,-0.8909,13.7427,0.88502,-0.16667,-6.4611,-4.1391,16.4067,
5.7611,15.271,-1.0739,5.7454,36.054,0.12149,4.0597,1.1228,5.0775,0.83238,-3.0968,-3.1333,0.030231,1.3223,
4.435,10.4338,3.8915,1.4796,35.8511,-5.3886,3.8166,0.076024,-0.12807,11.5637,2.9698,11.1547,5.9092,-2.299,
5.1488,11.7685,1.6973,7.2721,30.7594,9.0347,6.5273,2.0313,10.6614,11.8498,7.6921,8.1476,3.5949,-3.1419,
4.8404,14.0025,-4.2845,-0.024931,33.8152,4.194,7.116,-0.05088,5.1208,-0.62237,1.3497,-6.4413,-0.54183,-0.012311,
-2.8017,6.7916,5.2831,1.446,23.4547,-10.1576,0.31828,-1.5182,-9.2865,-7.9367,-1.1815,1.6739,1.9409,14.0884,
-8.024,-2.9278,9.3766,11.651,14.6963,-19.9518,-3.1314,-3.8768,-10.311,-11.871,-0.62066,-4.7977,-1.6061,22.666,
3.2392,4.1091,4.8935,11.9318,27.9145,-4.6547,8.8181,-2.6643,-0.87137,-11.1587,4.317,-9.4103,3.3916,7.206,
-10.6771,6.8037,1.6597,2.3954,35.6634,-0.83202,6.3288,0.43573,-9.6406,-15.3892,-0.84198,-4.9247,6.1283,-7.3263,
-24.1365,-2.9169,3.0304,-6.0799,19.4236,-14.8821,-6.303,1.8799,-14.453,-16.917,-3.2426,-10.0201,-3.5508,-2.7,
-12.5098,-2.2515,8.2395,4.5763,27.4568,-17.5331,-4.4545,-3.6238,-10.1557,-11.491,0.38301,-8.9294,-7.7488,11.562,
0.0029568,0.82378,8.7255,9.2026,39.9094,-7.6596,6.595,-15.1685,-7.5851,-7.8614,-1.6003,-4.4726,-1.403,16.861,
-2.9369,6.6556,2.3207,-5.4495,51.6149,-14.0603,20.2993,-14.2574,-13.9912,-19.1513,-15.2266,-14.0052,-9.159,1.7493,
1.1594,20.3563,-2.7195,-10.6258,62.4646,-11.2564,18.7032,-4.5814,-19.0326,-21.9223,-18.2331,-17.0859,-13.5104,-12.4556,
-4.791,12.876,-5.4965,-13.9083,44.6167,-9.6016,3.4811,-7.2467,-13.9705,-13.7463,-5.3779,-14.1005,1.4002,-17.8134,
-3.5237,1.3217,2.6744,-2.293,30.5557,-20.7871,-8.1114,-5.832,-11.1716,-12.9215,-2.1146,-16.1951,5.8386,-13.8039,
2.5695,9.084,0.55364,2.7455,34.6036,-22.4801,6.4753,3.3394,-15.4022,-21.9476,-12.769,-19.1435,-8.6117,-19.8364,
-0.52576,10.4992,-8.3011,-10.1613,23.7059,-13.2897,15.5101,5.0993,-13.4977,-18.6705,-9.0627,-14.0748,-12.6179,-25.5079,
4.4067,10.8487,-5.8427,-6.6105,25.2238,-8.5722,9.6785,0.87325,-10.7276,-3.8283,-4.5979,-5.3887,-6.9599,-9.8774,
3.1619,5.2978,0.38867,-4.2536,33.5122,-18.8392,22.8198,-4.0801,-12.0442,-10.4593,-10.2038,-3.1051,-6.5427,4.8152,
-6.8296,3.9991,12.127,-2.0386,26.6005,-21.6294,22.4305,-0.89462,-5.4412,-21.5934,-2.7304,-10.7608,7.9498,18.4725,
-13.771,6.2098,2.0884,-9.2674,18.6332,-19.8417,6.9847,-2.3117,-19.2147,-30.5896,-11.8775,-19.4262,7.5852,3.2641,
1.1552,11.2281,6.3741,-3.3205,26.8267,-4.5512,5.9637,11.059,-26.5048,-22.3835,-15.5758,-12.8697,-4.1412,-11.0317,
1.6887,3.2033,5.5017,10.9788,21.7869,-3.6753,19.7059,5.9849,-26.3843,-24.4701,-17.0911,-20.4286,-15.1644,-6.1826,
4.0381,11.3422,9.5821,14.8429,34.5797,-12.7667,20.1058,2.1952,-15.4903,-19.5722,-7.7345,-8.9111,-0.15453,1.5395,
-0.12522,8.7013,5.0862,1.2103,38.4977,-21.8021,4.7994,-1.8566,-17.5011,-13.497,-8.2508,-7.397,9.7676,-2.4739,
1.8426,5.2391,-2.0798,4.0779,40.1084,-17.5538,4.8891,6.0955,-21.3519,-8.7671,-13.6366,-8.9134,7.2212,-6.2456,
6.6325,5.9046,3.9254,5.7939,40.6425,-13.5599,15.3775,0.82927,-16.1503,-9.221,-10.8586,-0.53751,-1.0532,4.91,
-0.62621,2.6102,4.6702,10.3463,31.3423,-18.6276,7.5941,-5.1023,-10.2813,-10.628,-4.3263,6.3555,-3.9302,11.4761,
0.39174,1.4732,1.4498,14.6264,30.4426,-19.4702,13.0193,3.0455,-9.6639,-9.0099,-4.0662,3.034,-9.5752,-1.9535,
8.6993,0.89485,2.8336,9.3393,38.9078,-12.9102,24.4907,-0.56694,-17.4151,-6.0186,-15.094,-2.5385,-21.2523,-15.9363,
14.5481,6.232,5.1139,15.1497,50.6734,-1.8443,22.5308,2.8972,-20.7803,-5.168,-17.6185,5.9454,-8.7059,-0.88014,
4.3633,6.3481,0.39559,6.8886,39.4129,-2.2245,11.8671,9.0937,-21.0043,-14.1699,-11.1709,4.1178,5.9165,13.2727,
-3.2492,18.2193,-2.0784,3.0452,27.7376,1.34,13.6062,14.9198,-14.3531,-9.8886,-5.1098,7.3018,11.0647,2.2969,
-13.3451,17.6161,-2.4436,3.3524,40.1733,-9.0322,9.3592,7.6534,-10.0613,-5.8647,-8.2338,4.413,8.931,-11.9409,
-20.3855,2.4591,-1.3171,4.1321,23.6629,-22.5902,-5.3023,-6.9058,-1.6165,-6.4927,3.042,-5.6536,16.2362,2.8755,
-16.7131,-8.5821,-3.6883,11.2349,8.1432,-25.2677,-19.0842,-3.6637,7.791,-2.673,14.1307,-3.8441,10.8511,11.5235,
-5.4175,6.0328,-7.8775,-3.5392,4.602,-16.4,-17.1835,6.8489,-6.7765,-6.9231,-0.81714,-8.0239,-3.9,-3.2679,
9.0075,19.7709,-1.0341,-4.9095,18.4259,-2.1841,-2.0525,14.7685,-20.4699,-5.0374,-14.8681,-7.0521,1.6125,-4.6536,
22.5671,32.5303,-1.9519,-6.5748,31.4204,-10.875,12.1707,-0.21757,-33.1874,-3.7553,-15.1802,-11.5303,4.4564,9.7256,
26.3373,17.3465,-2.3252,-12.5511,43.6351,-24.3225,17.5455,-12.0781,-32.6665,-5.0003,-12.799,-13.2887,9.5799,17.0951,
24.7575,20.2268,-1.2054,-5.9172,55.117,-36.9631,20.4138,-7.4324,-32.6659,-10.5802,-16.9311,-18.3713,8.0247,1.9694,
28.662,17.5428,5.2377,2.7684,65.91,-39.87,26.5397,-7.4778,-27.2758,-7.4961,-7.5846,-13.8389,-6.5567,-12.2488,
20.0816,2.3903,4.924,4.5626,76.0554,-51.5778,20.0464,-21.1291,-31.5201,-18.8075,-6.1492,-13.009,-20.2633,-25.6138,
16.4264,-10.6071,6.0979,8.6998,85.5921,-54.4764,23.2536,-18.013,-26.1987,-21.1101,-2.3501,-11.7381,-4.9475,-21.9624,
7.1098,-0.65969,6.2229,1.8066,94.5566,-47.7772,20.3885,-3.6997,-19.2364,-11.5124,-1.7191,-10.5438,5.0383,-25.0552,
10.1133,-5.0302,11.2404,15.7982,102.9832,-44.4201,21.6155,-7.8887,-11.7105,-3.4701,-0.14567,-6.4811,-3.5945,-9.4519,
11.4668,-18.8283,1.7445,13.0028,100.2633,-51.5563,22.2797,-21.5154,-13.948,-7.182,-3.0771,-6.0917,10.3431,5.2152,
11.2688,-12.9101,1.1499,5.8514,99.6384,-43.072,22.4128,-15.4359,-17.5226,-10.1816,-7.303,-7.1961,14.133,-1.7351,
14.5136,-3.314,15.1809,19.2223,100.5208,-26.3877,26.9489,-0.40976,-11.5703,-3.6899,-9.8059,-11.6653,-0.81499,-14.3721,
10.2122,-4.5859,22.223,13.6584,89.0987,-23.7127,24.842,3.6473,-0.5843,-0.038844,-6.7669,-11.4562,5.0024,-3.2189,
6.6593,2.5509,7.1677,-1.2611,78.8523,-36.3899,9.2515,-8.3328,-11.3315,-4.9365,-12.2417,-9.7885,18.4242,-11.8473,
20.3598,13.1787,5.7578,-5.7078,80.9819,-34.8084,15.9347,-2.9323,-11.6315,-1.6997,-10.5273,-9.2012,11.4384,-25.2364,
13.3697,-0.84312,2.9621,-3.895,72.6929,-27.329,15.4691,-2.266,-2.6021,1.8324,-9.4052,-15.0199,6.3411,-22.8533,
-1.5325,-6.1839,-2.607,-11.0125,60.9801,-28.1395,5.2299,-7.5204,6.866,6.133,-6.3902,-0.018694,5.4707,-7.3821,
-5.9639,2.5187,-3.9209,-17.7033,51.9304,-31.8424,15.2075,-8.5405,6.9435,3.3148,-5.5173,11.366,-8.9576,7.1608,
7.1355,5.3073,-4.6656,-5.8594,47.8342,-25.031,26.0567,-2.1467,1.6264,2.136,-5.1863,-3.4159,-14.4133,-7.3688,
1.8065,0.087916,-8.3067,0.37301,34.1824,-22.5492,13.7111,-2.0184,-2.3922,2.0074,1.0057,-0.87311,0.55149,-10.2459,
-8.5933,-4.3274,-9.2786,-0.13979,32.6214,-24.6269,12.3989,-2.3868,-1.7592,-0.56329,1.4358,10.4515,10.4317,-6.201,
-4.6471,2.3026,-6.2712,5.259,44.7641,-17.7584,25.755,5.1076,7.6583,2.9011,-0.12114,1.4933,2.4546,-13.1801,
-5.3477,-5.6762,-5.8944,2.9841,55.9131,-14.7321,25.3024,-0.099799,11.1198,3.7074,7.7277,-12.3182,6.2284,-21.2098,
-4.0469,-4.3558,-9.4613,4.7649,38.4583,-11.8884,14.9623,2.8468,6.5321,4.4649,12.1645,-5.6988,8.7953,-22.8779,
-3.3141,0.31703,-15.2649,-4.832,36.0384,-13.6253,14.5545,8.0664,7.61,0.76638,6.0442,-2.9061,0.91644,-7.4052,
-6.0559,-8.5239,-9.4485,-8.4626,46.6182,-21.6288,10.7406,-1.2386,12.0539,0.72039,7.6414,-10.5729,5.7619,7.1391,
-1.2821,-5.5618,-5.451,0.37621,46.2713,-18.8608,3.7259,-6.5547,2.0197,3.1279,10.6135,-9.4486,8.8468,7.9154,
4.1857,1.1427,-4.6335,-4.0573,31.2429,-6.4579,7.9124,1.1893,3.3688,6.3703,7.5265,-2.5109,1.9452,-6.6595,
0.013561,-3.8268,-4.356,-0.87371,17.6067,-8.0307,9.3979,9.9394,5.127,1.0872,1.194,-3.3406,-12.2715,-3.4317,
-1.9471,-4.5771,-10.9558,1.1395,29.2923,-15.3899,4.9135,10.323,-2.0419,2.0028,3.0831,-4.1201,-16.0576,9.5158,
6.0113,-1.3623,-9.3181,-3.8298,32.4352,-13.4866,4.6191,4.8027,1.0208,4.8228,1.9178,-3.8724,-19.0152,-5.1552,
7.121,1.1706,-1.4074,5.7114,16.3891,-10.2267,11.6927,1.0844,5.3705,2.0832,-6.5288,-7.0702,-17.3838,-16.7189,
2.7727,6.0004,-3.2832,8.3089,23.135,-5.6926,16.8719,0.038937,-0.83252,3.9185,1.7045,-4.6866,-2.2408,-1.6158,
-0.82426,10.0509,-13.3781,1.44,26.1579,-4.8611,1.7596,-2.4141,-4.2132,1.2327,5.0328,0.98592,5.8466,12.5811,
-0.77481,-1.333,-8.6548,6.2541,10.4884,-4.5694,-12.446,8.5125,4.8606,2.1386,0.8103,2.8866,-8.2266,0.77789,
-0.23837,-10.5649,5.9645,9.3094,-3.9752,-10.666,-0.16133,10.4525,4.079,0.54045,0.27173,-11.3866,-11.1626,5.1427,
10.0677,4.169,16.0108,14.1422,10.3633,-7.5754,12.1009,3.455,-0.5762,-5.8623,9.5664,-9.345,3.6071,14.1451,
4.0723,-6.2606,2.7976,6.9224,23.8415,-21.2208,2.0629,-7.045,-2.9923,-19.6106,3.6011,-5.3537,13.7939,-0.80364,
4.3189,-5.395,1.1599,5.0372,36.511,-24.4705,-0.51152,-5.1516,6.4991,-16.0965,0.93523,-11.4037,12.4763,-11.1587,
5.5296,9.0287,4.5209,-1.6362,48.4204,-11.7305,2.9498,-0.43196,6.5991,-8.7595,5.2896,-9.2487,-1.5047,-14.9006,
-3.1337,2.2285,2.7793,-3.0084,51.3541,-11.5171,6.2029,5.9647,-0.16761,-8.7243,10.3631,5.4062,-7.7852,0.093459,
-4.9055,-10.6477,2.6125,11.2721,34.1728,-17.6873,10.7321,1.6863,4.7429,-0.35976,12.682,10.0942,6.7819,14.1879,
0.2893,-15.8892,-0.48486,9.2373,30.5407,-18.5859,5.1877,-12.5149,14.2602,2.6025,10.9412,-0.31237,5.9974,25.8134,
3.2126,-13.9559,3.4648,7.7032,25.7676,-11.5899,1.9358,1.3561,21.2457,-1.4742,11.2646,11.468,-6.1241,10.1646,
-7.2715,-12.6282,0.80667,6.7506,11.9695,-13.3452,-0.63148,6.6656,10.6595,1.0645,7.1577,19.1105,1.594,6.5012,
-7.3256,-18.2422,-4.6326,-1.986,8.8006,-25.7765,-2.0639,-7.8343,1.6884,2.4709,5.2579,3.8639,8.8491,15.4226,
-0.025359,-18.1271,2.5061,7.9355,22.3726,-25.2098,1.001,-9.4364,3.5474,-0.61752,6.9027,-0.40084,4.398,0.39723,
-12.7654,-22.9208,1.3758,5.4986,20.6526,-20.757,-0.038932,-6.9104,2.3546,-14.3029,3.5488,3.5447,5.1141,-11.0102,
-2.1981,-21.5451,-0.66702,4.1883,13.5326,-22.4518,2.9036,-16.2972,6.1334,-17.3648,0.39476,-0.589,5.7876,3.7504,
6.2653,-14.8615,-0.13658,7.3681,14.191,-27.4754,2.239,-14.8289,11.1563,-10.932,-1.0983,-7.9044,4.9499,14.4195,
-8.2106,-14.9502,13.9716,5.9456,15.2998,-28.7676,3.085,-9.0383,13.4281,-18.1177,2.8877,-10.3712,18.3758,-0.54567,
0.50074,-6.2116,19.616,7.5492,23.2033,-22.1406,4.8602,-12.417,10.6621,-27.8124,1.734,-12.6891,9.4317,-5.0358,
14.5707,0.53144,8.1482,1.7058,29.1623,-18.3619,1.138,-13.1418,3.6511,-19.7719,1.14,-19.2789,-1.426,8.4988,
11.8485,-1.4607,11.5794,8.4642,27.4121,-14.32,4.0099,1.7467,-5.3894,-14.6655,4.9927,-17.1418,12.7595,-6.1111,
8.197,3.5274,15.7851,16.7774,22.8272,-2.6791,8.6707,12.0446,-5.0661,-18.6865,6.6529,-2.0133,21.4177,-19.8445,
14.0764,0.86597,5.527,1.6707,13.1265,-2.0279,-1.1605,-1.9096,-7.2119,-18.0548,1.8432,0.17966,6.0327,-9.5671,
6.8606,0.32406,6.6652,-7.8528,13.8087,-0.43637,-1.5818,-1.305,-8.2499,-9.6213,1.2427,-5.2215,15.8502,5.107,
-3.8424,0.7941,7.7356,6.7183,16.4108,4.9807,9.7853,8.0847,1.5565,-12.4741,8.5188,-5.3987,25.1905,13.2435,
1.779,0.25697,-1.06,3.9769,12.9759,7.1321,6.747,3.1886,3.9133,-22.0175,9.478,-7.525,9.5791,-1.6511,
2.1627,4.6516,-5.4065,-1.6526,14.6476,-0.64654,-2.9683,2.5078,-9.5535,-22.1663,-5.1907,-1.6826,5.4623,6.6676,
-12.0671,-1.0179,-4.5921,5.7977,11.3185,-4.0383,3.5801,11.6683,-9.4702,-21.3263,-13.3222,-1.0917,12.4857,12.6388,
-13.9056,-3.4071,-1.8664,11.8206,8.1887,8.4556,9.7361,16.3591,-2.5312,-25.4381,1.5771,-7.397,11.2462,-2.2196,
-3.7603,-4.6725,-1.2644,7.6817,17.9892,6.4784,4.7414,7.0465,-8.7497,-28.3218,0.12455,3.3387,2.2403,-13.4709,
7.2471,-3.4122,7.6324,9.1806,30.6318,1.1887,10.3382,8.5845,1.5762,-13.8809,-4.7843,17.2383,-10.6366,1.4373,
-2.4987,-5.6582,-1.1566,9.1197,18.5025,0.627,1.3869,4.6388,6.8721,-6.6768,-9.8877,2.104,-6.5678,-2.4571,
-3.8196,0.072629,-9.4182,8.0826,10.0412,12.8415,-1.147,6.8102,6.9506,3.0347,-6.8437,-0.96286,7.9263,11.7903,
1.8005,-1.403,-6.4029,8.0871,7.9684,10.6007,2.3519,7.8719,2.1226,7.2636,-0.063239,13.1949,15.8936,24.4263,
-4.1879,-6.2183,-6.9986,1.7215,21.2127,-1.797,0.25099,0.53935,2.9752,2.9073,1.9022,18.3964,0.84003,8.8607,
-11.2878,-10.2567,-8.0495,-8.6735,26.3108,-12.9609,-6.1353,-9.7848,8.188,-2.6585,-6.5439,3.1926,1.6581,-5.7709,
2.1305,-8.6609,-2.6656,-3.2522,10.6321,-13.1637,-6.7476,-10.1781,-0.14484,-11.3196,-5.1709,-2.9921,-4.3222,-11.0393,
11.3146,-6.6705,0.92493,-4.5269,8.9019,-5.0222,-1.9313,-9.0775,-3.5668,-21.9121,4.4513,-1.3427,-18.1629,-11.8468,
1.8143,-3.33,1.8498,-0.33523,22.4678,-6.6816,3.0846,-9.5132,5.4687,-16.6773,4.1837,2.6588,-16.2051,-12.1164,
-1.2343,0.79031,-2.1817,6.5461,21.722,-11.1812,-4.9407,-7.9616,-1.7206,-1.9542,1.9729,11.3203,-1.1328,-3.5473,
6.6804,-3.1781,3.83,6.1538,6.6963,-6.5898,-18.3671,-8.4642,-2.5977,4.0439,-1.0866,10.6416,12.2795,1.5655,
7.7499,-9.3582,5.0705,12.1553,11.6854,-14.5259,-18.7354,-17.2683,5.8897,-2.5696,-10.3328,-4.0969,-2.5572,-11.7604,
4.3438,-0.95609,2.806,5.5452,21.766,-14.6342,-5.8491,-17.2121,1.6162,-7.3163,-5.7918,-3.9635,-16.5038,-18.8954,
7.0243,13.2013,-5.2039,-8.8875,25.3605,0.34381,-11.379,-9.3186,-12.5808,-8.8376,-9.3654,-4.706,-22.1091,-10.901,
20.7028,26.5092,-1.4606,-1.6054,34.1302,14.4232,-4.3255,5.3405,-16.8397,-1.9366,-10.2738,-15.6958,-10.4912,3.8531,
31.3347,39.0186,-1.3734,0.45118,17.9824,27.6578,-9.9468,15.9142,-11.9083,-12.6017,-11.6176,-28.8541,-15.7426,-2.147,
33.8651,50.7775,-1.781,-0.065845,2.8035,40.0983,-21.6016,22.3105,0.077925,-9.3949,-6.5091,-16.453,-7.4469,-0.54743,
43.5944,61.8309,-7.555,-12.8039,-11.4647,51.7924,-27.1672,31.7531,5.9541,-7.8517,-15.9209,-20.3667,-6.0197,-14.2375,
55.0787,72.221,1.7198,-3.2151,-21.8947,62.7849,-12.7951,43.948,2.6567,-3.4605,-15.946,-14.2438,-9.5795,-22.2047,
65.6083,81.9878,-4.7546,-6.4519,-21.0705,73.1178,-16.4379,52.2047,-11.6027,-1.7821,-18.4189,0.71083,-23.1047,-6.7724,
68.0426,91.1685,-7.8995,-15.3762,-7.5547,82.8307,-14.9612,63.1724,-15.4299,-1.1857,-24.6654,4.2107,-26.2409,7.7339,
78.06,99.7984,-1.5447,-1.7116,-13.9626,91.9609,-10.1435,73.4821,-22.3448,-13.8557,-37.2855,-1.9228,-21.7262,21.3699,
81.8198,107.9105,0.50827,3.2911,-27.2249,100.5432,-12.475,77.6285,-26.8849,-20.8659,-40.5511,-3.7677,-31.2039,16.9937,
74.9504,115.5359,0.47731,2.1142,-27.1736,108.6106,-10.7462,77.8717,-26.2522,-15.6929,-33.2171,-8.4416,-32.2719,7.1535,
70.4529,122.7037,-2.4915,2.9668,-18.6824,116.194,-7.1612,75.1597,-30.5579,-21.613,-38.0858,-11.8562,-24.4557,12.6042,
63.776,129.4415,2.0685,2.2988,-31.6615,123.3224,-11.142,63.2989,-22.3532,-26.687,-29.4294,-13.5955,-15.6362,10.3781,
53.0887,135.775,9.786,6.0819,-43.8618,130.023,-18.3151,59.5015,-15.1311,-20.1849,-21.7828,-17.6798,-19.599,3.8746,
44.5125,141.7285,4.7878,-2.6145,-51.2553,136.3216,-12.8052,64.262,-21.5749,-8.682,-23.9059,-6.3276,-30.6751,12.9536,
36.4504,147.3248,0.090047,-3.9285,-50.6306,142.2423,-7.6264,57.9556,-14.89,-3.7506,-21.0017,-4.4781,-40.1063,9.7256,
40.6351,152.5853,3.5148,10.4072,-58.8645,147.8078,-12.5597,50.0682,0.10341,3.8252,-15.3307,-3.719,-28.3885,-2.1291,
29.8654,138.4753,-5.0267,-3.3364,-42.1007,153.0393,-20.1376,37.7527,-2.2402,3.1062,-17.8419,4.8347,-17.3738,11.2306,
17.7822,120.8554,-8.1562,-11.4677,-31.2436,157.957,-14.5184,41.8583,-3.5761,17.0198,-7.4599,7.9757,-9.9606,24.6568,
6.423,99.5041,-7.1764,-0.4883,-43.4689,156.4901,-19.0382,40.8171,1.0485,29.3425,-9.4626,7.0068,-10.8333,9.0774,
-8.0624,79.4338,-13.1166,-8.7896,-54.9608,133.0007,-31.9959,24.2681,-13.1144,13.4819,-19.1862,12.9571,-16.554,-5.5673,
-17.0015,60.5678,-10.8597,-7.7723,-65.7632,110.9206,-24.7976,19.2695,-4.1084,-1.427,-10.6838,10.7098,-12.1302,8.8663,
-15.9814,42.8337,-2.367,1.5151,-73.9152,90.1654,-15.4686,14.1928,10.2381,2.3549,-6.1222,-4.0327,-9.4416,-1.4666,
-16.9833,26.1637,5.6161,15.1466,-83.5803,70.6555,-15.5204,4.5202,16.1074,14.9552,-4.775,-3.4123,-15.7364,-15.4786,
-28.7059,10.4939,-0.60124,14.2378,-92.6654,52.3161,-18.5098,0.32844,7.2999,1.3163,-6.4483,0.7121,-24.594,-12.2116,
-36.7854,-4.2358,-2.5259,4.5616,-101.2055,35.0772,-20.3398,1.2886,14.703,-1.7033,-2.1409,-4.2311,-9.396,2.6211,
-35.5581,-18.0816,-2.3744,5.2687,-89.0981,26.4194,-23.0391,1.2113,13.8208,11.1414,9.7493,-9.8576,5.2678,-11.6361,
-34.405,-31.0967,-1.2515,-3.8689,-84.7326,16.9927,-23.6179,-3.7623,6.1308,7.5318,16.025,-12.2072,-7.188,-16.8188,
-32.8307,-39.5508,-0.68647,-17.7368,-84.0591,1.8731,-23.6707,-13.8274,11.1534,-3.211,3.7918,-2.1629,-20.8567,-6.4987,
-31.8407,-39.1385,-5.5457,-15.8041,-76.0754,1.6493,-26.171,-13.9786,22.2459,-1.0585,1.6045,-1.0532,-8.9359,-7.0887,
-29.4403,-45.1212,-4.723,-12.4061,-72.0008,4.0001,-23.13,-4.8079,26.3025,13.105,9.8393,-10.301,-4.9692,-10.094,
-28.1639,-47.8053,-3.9497,-15.0923,-73.0716,-10.3399,-22.2331,-7.951,18.3531,20.7621,0.91787,-6.2533,-16.9226,-15.8596,
-30.8846,-43.4662,0.69778,-19.5772,-69.1773,-14.2424,-18.4484,-13.8442,21.6624,19.0264,1.3528,-0.48673,-5.6164,-12.4573,
-28.0516,-46.7395,-0.324,-11.5423,-60.1262,-9.4673,-11.4611,-14.9743,24.2832,19.8447,10.0926,-3.3982,7.4621,-3.8688,
-22.4479,-56.6767,-9.1256,-6.9282,-46.7172,-19.681,-7.8328,-21.917,19.8855,19.6348,8.5071,-5.1541,-2.7865,-13.4385,
-23.0613,-66.0181,-1.7173,-9.4537,-41.9539,-29.2814,-1.482,-23.5421,24.5732,17.4764,7.0163,-2.8846,-1.6389,-10.6719,
-31.479,-72.8383,2.3058,-0.06497,-45.3175,-31.4446,-5.3132,-22.1301,27.0199,17.4082,13.4561,-1.7321,11.2014,4.0684,
-33.0204,-72.879,-11.0645,1.4093,-38.188,-27.1077,-8.4254,-20.3118,27.8489,20.7737,19.0195,0.82209,11.0188,12.7577,
-31.0392,-73.4067,-14.3203,-1.615,-31.9757,-28.4219,-8.8998,-14.1917,24.2182,22.4679,12.9788,0.7737,2.5175,-2.1078,
-30.1572,-70.9626,0.63896,-1.5186,-20.2562,-35.5381,-9.3462,-4.5197,24.7244,31.9011,7.2982,4.6474,16.0875,6.2379,
-27.3674,-63.7647,3.1627,-9.269,-9.239,-28.5049,-6.8252,-6.2088,20.3008,36.8487,7.8407,-1.5123,23.9437,18.6056,
-22.7852,-45.8388,-11.127,-13.6138,-13.5856,-12.6946,-17.1969,-11.7171,4.9827,23.8556,-5.3718,-9.2631,8.4071,9.6486,
-19.4583,-28.9885,-24.5594,-22.5979,-26.8704,2.1671,-30.2651,-4.1529,-3.7592,24.385,-18.7709,2.0744,-6.1973,1.2277,
-18.2898,-13.1492,-27.2306,-30.0631,-39.3582,16.1371,-42.5492,8.8379,-3.5336,29.7831,-18.6246,1.9499,-19.9255,-5.7063,
-8.3714,1.7398,-28.5375,-22.3789,-51.0967,29.2689,-41.2009,22.4076,-13.1235,27.0153,-16.5272,1.8329,-32.83,-1.4433,
-12.7701,15.7354,-36.6266,-34.7581,-62.1309,41.6127,-44.6097,26.5664,-22.1374,18.5336,-28.2776,6.6239,-44.9602,-1.3563,
-21.3153,28.8913,-20.329,-27.2817,-72.5031,53.216,-43.4034,31.3432,-7.5772,23.7924,-22.1709,7.6968,-34.9818,1.1744,
-18.0761,41.2578,-9.196,-11.5448,-82.2529,64.123,-33.9385,43.1845,-2.2217,16.484,-6.7407,2.334,-18.7829,15.204,
-9.1504,42.5076,-14.5255,-7.3097,-91.4177,74.3756,-26.0209,41.5734,-8.9496,6.674,-10.6348,8.0744,-27.8359,25.6753,
-7.1311,47.3079,-9.243,-8.3414,-82.3068,84.0131,-22.0094,32.7082,-7.9222,4.8032,-20.2881,9.0602,-31.5557,16.7841,
-8.1735,43.9799,-3.2976,-5.3907,-83.7392,93.0723,-19.2185,36.1366,-3.0368,5.0054,-6.8187,3.1267,-15.5623,25.0885,
-6.2128,30.0689,-6.5298,-0.65627,-83.1258,101.588,-17.575,48.0684,-3.345,4.2147,-4.9393,4.4085,-0.52858,37.6832,
-10.2505,17.973,-4.6682,-5.0274,-88.4296,109.4679,-17.9913,46.767,-2.6534,4.4518,-13.9539,2.6741,-11.5448,29.1638,
-13.0661,22.286,-3.8981,-9.1372,-92.4352,109.2701,-20.3424,38.5696,-2.9842,9.5751,-10.6669,3.0036,-23.1037,20.0628,
-9.8314,35.0488,-17.7643,-9.078,-79.5375,114.9664,-21.5716,36.7463,-6.2357,8.5115,-12.4766,6.254,-18.2869,32.959,
-9.7324,19.8258,-17.3007,-14.9046,-63.494,102.6771,-12.9261,33.0707,-4.3917,6.5301,-9.2783,4.4089,-14.7399,35.5034,
-15.0284,4.5362,-4.5005,-11.0701,-73.7844,82.7946,-15.0908,23.2458,-0.2072,5.1588,-4.8006,0.22334,-9.9345,19.2732,
-14.1272,-9.8359,-10.1113,-12.3662,-76.8203,64.1049,-24.9675,18.91,-2.155,2.8881,-10.3934,6.0908,-14.2394,4.0168,
-11.3202,-23.1924,-9.5051,-24.3662,-58.4897,46.1586,-20.5293,16.795,-6.9267,7.6157,-13.6908,15.5267,-17.306,-9.19,
-17.5012,-35.9009,-6.9741,-14.0823,-60.8606,29.2891,-10.4756,11.8677,-6.5111,7.1588,-8.9488,9.6946,-11.3663,5.0838,
-20.8612,-45.6195,-4.1045,0.86262,-59.6588,27.7979,-5.4361,18.5063,4.1709,-3.5621,1.8804,3.7221,-5.2934,0.36873,
-19.61,-34.0617,-6.7993,-1.0375,-41.9792,24.1698,-8.051,19.3562,6.8609,-6.2885,1.7671,7.4198,-3.9954,8.1872,
-28.2348,-30.0578,-14.2329,-12.7374,-25.3605,8.6196,-10.5082,6.4327,-5.312,5.85,-4.2197,9.9148,-5.716,21.796,
-29.9718,-21.8835,-5.0474,-4.6225,-29.0064,-5.9976,-10.3681,-1.3039,-6.4636,6.9693,-1.5163,3.929,-6.8434,26.481,
-14.4511,-6.4705,6.0372,9.7549,-15.5039,-0.47109,-5.8255,-0.2458,0.78543,-0.31007,6.4158,2.7134,-2.5122,10.7921,
-13.584,-2.5393,4.695,7.8121,-7.7125,-4.3634,-4.4951,-1.211,-1.2224,1.6693,1.1304,5.4903,5.4796,20.324,
-15.2192,-14.639,5.8827,3.9123,-9.7004,-15.3738,-7.6564,-4.5694,-0.65867,1.0787,-2.3685,-0.23001,4.6604,5.8726,
-4.9951,-15.2306,9.9412,9.0689,4.9816,-19.8417,-0.82581,-7.7249,11.6325,0.52403,8.0654,-2.666,6.8315,-8.5798,
-12.536,-27.0578,-4.3772,-5.1972,18.7827,-32.7512,-4.6963,-12.1623,9.9551,2.4529,4.6413,-4.4663,4.4613,-12.0974,
-8.8437,-32.296,-4.115,-8.8064,3.5558,-38.2497,-13.236,-1.6312,-1.4245,6.2267,-6.4185,-2.238,-3.6479,-1.5702,
0.99886,-36.7295,9.3643,-6.8072,-1.9361,-37.4246,-4.1108,-10.8443,3.0715,-2.4789,-3.5836,0.34694,-11.7601,5.8752,
-6.9026,-46.2879,8.802,5.3624,12.2801,-34.1996,2.0167,-24.2936,12.6886,-8.211,4.473,6.207,-4.1938,11.4035,
-11.389,-53.3115,-0.54714,2.101,19.9867,-32.1467,-12.2043,-21.478,3.1063,-4.7777,-5.5972,9.7551,-2.9613,2.8782,
3.0163,-52.0731,4.3857,-9.7872,4.6875,-27.2777,-20.8959,-9.4081,-1.981,0.40991,-12.1221,12.11,-12.585,-11.3945,
-1.0857,-45.0286,14.9048,-1.3593,10.6651,-16.8205,-5.5421,-1.9828,-0.88179,-0.59506,-8.4546,8.4432,-13.7902,-17.1944,
-9.8415,-44.2867,7.1493,-2.2567,24.1252,-6.0094,0.29364,-1.8629,1.1319,-0.55935,-4.0259,-2.8452,-6.1016,-15.1819,
-10.231,-46.53,-7.3797,-7.0227,36.7777,-13.49,-4.6244,-12.5329,1.064,3.3948,-3.7853,-6.595,-5.7355,-1.5295,
-21.8687,-48.1487,-13.9095,-4.1507,35.2852,-26.7806,-7.7776,-22.0727,-4.3912,2.7011,-7.9686,0.17194,-1.9617,10.8139,
-16.6365,-56.042,1.025,0.99836,41.9891,-23.3258,-6.3315,-8.0063,6.6535,9.3998,6.6095,3.1018,12.256,-3.9349,
-1.5383,-57.09,10.8773,13.191,46.8214,-14.5742,2.3799,3.7457,20.3543,17.1678,20.0472,0.46501,24.3751,-17.7988,
5.0371,-60.0354,4.8338,8.9685,45.482,-25.9518,0.76682,-7.7512,6.0134,13.6866,4.7444,9.7485,10.6605,-2.6309,
-3.5962,-66.725,10.9141,-1.8614,40.3024,-33.7066,3.171,-13.6574,1.2421,5.5142,-2.0234,13.5741,9.5309,11.627,
10.7196,-58.3106,6.8291,6.5818,42.2952,-35.1144,15.2329,-3.5265,7.5384,-2.1673,5.4487,-1.3403,10.4294,22.6915,
14.5993,-40.7119,-0.93229,9.6179,50.0493,-31.5372,14.8093,6.9774,-5.166,1.3929,2.6715,1.0784,13.2337,7.23,
8.3325,-24.9253,8.4351,16.3916,61.1463,-19.3536,23.2312,9.009,-8.2862,15.4093,4.9615,15.1137,26.5397,12.0742,
4.4019,-37.5298,2.5386,3.1564,66.9009,-32.2924,27.2287,-5.6316,4.4626,16.0674,3.1939,19.7101,22.6095,10.8608,
-1.2526,-49.378,-1.0443,-7.3247,60.4366,-44.4548,22.1644,-19.3937,16.4474,8.733,10.3534,4.4275,15.8625,1.8771,
-11.9592,-60.5153,-1.9616,3.8965,51.9095,-55.8876,11.0336,-22.3753,11.5391,5.2684,17.5733,-2.8117,12.95,-7.0565,
-9.2814,-70.9844,4.0369,8.5636,46.8346,-62.1819,15.2716,-10.2506,21.6289,19.0523,23.3797,0.29814,22.9543,-18.3952,
-0.8834,-52.6254,11.6358,7.0699,46.9652,-54.5304,17.2959,-8.6556,26.2116,20.4708,18.0563,0.28025,34.3195,-17.2915,
-2.3012,-46.8638,7.5071,7.1347,58.2473,-39.9878,6.9463,-8.6272,10.5389,5.1426,9.6218,-1.2074,32.7503,-2.154,
3.7177,-38.1711,9.0169,11.6076,68.8525,-26.8063,15.351,-0.26799,-4.1935,10.6034,11.9856,12.9651,25.8844,12.0752,
7.9052,-26.5699,9.9458,10.4212,77.6871,-25.6879,20.8012,1.2179,-6.1259,24.0672,0.97466,21.1201,16.0002,25.4507,
0.57058,-39.0757,3.4687,5.8753,58.9259,-37.869,10.7321,-5.7154,1.1028,21.7547,-10.8455,8.0922,5.2384,9.8236,
1.0258,-46.644,9.6313,14.8343,57.2383,-41.9677,9.5977,-4.883,11.3271,18.9791,-1.8642,19.8578,5.4145,-4.8658,
-1.9759,-36.0038,11.0137,1.2031,53.8044,-41.4099,5.1018,-8.5101,4.7676,26.6618,1.1888,29.4485,7.0499,3.3801,
7.944,-32.8636,12.3132,5.051,41.7551,-40.8856,9.6961,2.7827,10.3623,31.9238,10.9189,22.7807,20.7269,17.2773,
6.4875,-33.8325,13.5342,18.8479,37.2891,-52.5324,4.2135,5.5555,11.7004,18.2458,13.2044,16.5134,26.9463,16.8425,
-4.6835,-29.8422,15.6628,20.2792,28.191,-63.4805,3.9606,-8.5003,8.0587,9.3099,9.4715,19.4431,11.2296,1.732,
6.8692,-26.5814,14.2331,12.6921,24.0493,-73.7717,14.0148,-6.5194,5.1245,6.3016,5.4726,15.8259,10.4444,5.4372,
11.358,-24.987,8.4782,13.8909,36.7064,-65.7609,22.9753,3.6731,0.89597,2.9824,3.1839,13.8959,13.7378,11.9717,
3.3253,-18.0969,13.3608,24.3291,48.604,-54.4641,32.8685,8.8431,7.2135,12.1153,8.3833,20.4133,17.324,10.7634,
3.1254,-19.9517,14.5194,23.8488,57.1832,-52.1767,19.1343,4.3925,-0.080086,13.3487,1.0196,12.3278,17.265,11.0971,
10.289,-28.0656,11.1976,8.3179,62.0833,-60.3178,14.5556,-3.2222,-11.347,7.1564,-2.4722,7.1776,12.7985,11.902,
4.7712,-30.3022,12.4865,7.7074,59.3387,-64.5398,16.6229,-4.9897,-5.7657,3.7873,4.5373,2.8264,10.0698,6.2865,
-5.3165,-19.663,11.7368,17.0463,48.9172,-56.7469,12.6854,-3.7099,8.3022,4.5395,6.2254,-3.224,14.3665,-3.8921,
-5.9778,-22.4038,12.013,5.2413,34.2205,-57.2626,4.0827,-9.3681,7.8045,-1.6137,4.8715,-6.9516,4.6831,-5.6188,
0.75207,-32.3313,11.7822,-0.46357,36.5777,-67.9269,-4.4934,-15.1773,-3.9355,-14.7484,8.0098,-2.124,3.9121,-3.8109,
-2.7241,-39.7029,1.7638,-1.9061,48.4831,-77.9512,5.0877,-12.7963,-5.1697,-14.3539,10.9593,0.45369,17.7774,-8.9731,
-13.8314,-37.8102,-3.7324,-8.163,49.1171,-79.8692,17.034,-6.6372,3.4716,-2.221,11.7726,-0.063489,23.1939,-7.9448,
-8.5915,-36.032,2.8623,-7.1828,43.7193,-71.6469,10.6211,-8.6901,7.6733,-7.4786,10.5758,-2.5099,7.7023,-1.0973,
0.74452,-42.6915,3.67,-4.7915,43.056,-62.4472,12.924,-16.0094,-0.62773,-17.8112,10.9216,-5.3004,-4.6339,-15.1315,
1.6802,-35.2291,0.5096,1.3768,47.3343,-63.6008,26.2486,-13.0885,-7.4508,-7.921,5.3654,-4.9819,-12.1965,-28.3236,
-5.7713,-28.7049,-0.9913,-0.17613,44.9837,-67.1364,30.6673,-5.9324,-2.5937,-5.9764,10.4344,-6.1533,2.6353,-12.5242,
-19.525,-41.0826,-7.7926,-7.0263,30.5235,-68.9886,14.7273,-19.6765,-6.3582,-19.7178,15.6891,-9.7042,16.5772,2.3273,
-7.6836,-48.5314,-4.8752,-0.2344,42.7921,-57.4986,2.95,-28.4097,-4.5068,-13.7452,13.2779,-11.5727,19.7269,-11.9124,
4.539,-31.5195,0.31867,-2.1802,54.3246,-56.0089,16.873,-21.8046,4.5846,0.80097,14.4411,-15.7788,5.8017,-15.7205,
-7.0055,-31.4762,-4.1114,-1.5599,56.1898,-61.9598,15.9725,-21.9667,3.82,-8.5585,12.1043,-13.3617,15.7449,-0.67725,
-6.5852,-40.3694,-8.7652,-2.4462,44.9773,-57.2619,3.2525,-21.6286,-0.32972,-7.0651,6.4776,-13.5409,17.7409,-0.52473,
7.91,-27.1655,0.58219,-2.2989,56.3787,-39.7261,11.8788,-15.4299,13.7901,7.4588,10.9898,-12.7279,10.7956,-14.5932,
13.919,-11.4356,3.4874,-2.1605,67.0959,-31.8393,22.9282,-15.4836,19.4463,15.4556,1.509,2.1357,1.3264,0.38235,
11.6135,1.1246,1.8079,-0.56057,52.0232,-35.3199,24.9827,-9.1637,7.0073,15.9986,-7.893,16.1076,10.5582,14.4594,
6.5053,-13.0429,-2.7111,-4.9384,39.5899,-41.5322,23.9737,-8.1248,-7.5131,11.6072,-4.9697,1.0411,14.3353,-0.50769,
5.6259,-22.664,-6.9589,-4.1521,35.7447,-41.4905,22.0453,-11.067,-6.6847,5.5203,4.6404,-7.73,9.0646,-12.7288,
9.2089,-7.5822,-2.6209,8.8395,25.7589,-29.1997,16.802,-2.5619,5.478,9.1097,8.2825,6.8338,8.5208,2.1349,
9.6358,-8.1077,-6.3846,9.2886,37.9348,-23.5271,18.7341,-0.44883,0.2484,12.4832,4.8454,7.0256,1.1478,3.5885,
8.0778,-10.5614,-9.9221,-5.3687,49.7587,-25.0557,27.411,-7.2822,-12.5081,3.8931,4.5547,-7.4959,-13.021,-8.3884,
12.984,-5.5167,-9.8163,-11.0389,60.8732,-25.0222,21.3563,-5.3749,-5.3859,-4.6711,1.8312,-19.8996,-24.1124,-14.2559,
11.225,-5.1857,-5.3067,-4.4962,55.9752,-17.64,10.274,-4.0725,8.6588,2.4704,2.7012,-4.6056,-8.5656,-4.5786,
-0.23069,-11.7363,5.793,-5.2068,57.5171,-18.5424,11.6169,-8.7291,7.1589,6.2422,3.5195,3.1328,6.0483,7.4573,
1.7439,-5.1508,2.5047,-3.9135,68.1661,-17.4298,12.8806,-2.324,7.7092,8.8083,4.2882,-1.9556,14.7307,7.0099,
4.09,-9.2527,-11.7455,-10.05,65.1684,-15.8941,12.5977,-6.5951,9.6974,7.7899,3.541,-9.1894,2.5751,13.9404,
9.7254,-19.4788,-5.2714,-14.3479,47.1583,-20.8213,12.8222,-16.0017,5.1945,2.4216,-2.5523,-14.5189,-11.6794,15.0643,
12.5725,-14.8795,7.2965,-8.0957,44.2169,-21.0423,8.6223,-1.8092,10.2742,5.7069,2.0113,-16.0975,-9.1307,0.060426,
3.4871,-13.4963,-3.4331,-5.1602,55.6639,-25.1702,7.615,2.7108,15.0491,10.7558,11.2026,-9.7413,5.5171,-11.3273,
-0.1537,-21.9984,-12.539,-9.2611,41.1643,-37.76,3.7275,-11.5518,0.046133,7.6588,1.2185,-0.82572,17.5501,-3.2965,
4.7569,-30.4804,-5.9054,-17.5274,24.9725,-47.3684,12.3249,-18.8131,-0.069926,6.2194,-6.6957,0.20372,2.3971,-0.15804,
1.5309,-27.6707,-2.6104,-12.5542,37.5741,-42.566,14.526,-3.9619,10.717,2.9065,-3.3533,-3.7291,-11.8468,6.7126,
1.929,-11.9105,-0.0030871,2.299,49.4197,-27.76,9.244,8.5274,8.6032,7.1426,2.2383,5.8066,2.964,18.5615,
-7.0083,-18.9255,-5.8847,3.2529,39.3276,-29.035,3.7884,-4.7263,-5.635,3.773,7.0049,1.5372,4.6341,3.3478,
-7.5672,-24.6507,-12.3923,0.11753,47.7497,-35.134,10.4218,-7.3829,-12.1576,-7.2347,-0.27611,-5.4158,1.4159,-10.9531,
-9.5639,-35.4233,-7.2373,-5.2799,43.4148,-37.4365,14.208,-4.4892,-7.0177,-20.0321,-14.3595,-7.5406,13.5826,-10.0297,
-5.5599,-40.6491,7.2969,-4.4737,33.4583,-32.7401,15.8057,-11.5715,-0.22581,-19.3206,-7.2395,-11.4991,21.0991,-10.8982,
5.0655,-24.1101,0.59973,4.1258,45.5508,-25.3848,15.3473,-6.4667,-4.6228,-4.0614,2.5067,-17.1804,14.4418,-7.7946,
6.2314,-8.5635,-13.5363,-4.4528,56.1617,-20.4316,10.9949,-1.6682,-9.7367,10.2823,-5.9757,-8.7985,12.1055,6.7731,
0.46713,-22.1497,-6.4652,-5.6555,38.692,-17.7354,10.8261,-5.9786,-6.7018,3.5188,-7.087,3.0012,3.0481,17.7508,
1.9094,-34.9207,1.2734,-0.90611,44.5901,-19.1215,14.5875,-5.1295,-6.7892,-10.7923,-5.1914,2.3307,-11.2348,3.4537,
4.2451,-46.9255,-5.1738,-14.0837,51.2256,-32.0742,9.3013,-9.2327,-10.7928,-13.6877,-7.3302,-2.2192,-5.2827,-10.8535,
2.5205,-52.5529,-17.115,-16.6684,34.0521,-38.5927,5.3126,-15.049,-7.6946,-7.4751,-9.3411,-1.5961,8.2668,-9.8242,
-9.8828,-63.4997,-24.4196,-9.2975,17.909,-38.7278,-0.39701,-10.7159,-8.7032,-11.4376,-12.2107,-6.8912,13.1616,-13.6457,
-0.46834,-59.8021,-8.8544,4.0024,2.7344,-31.5032,2.567,-2.2314,-2.3002,-4.8705,0.2831,-9.4179,15.3121,-6.9462,
-2.8909,-58.6642,-3.3099,1.3116,-7.5672,-30.1034,1.923,-4.5482,-5.5928,-7.028,-4.1444,-8.3629,10.9628,-7.0193,
-3.6979,-55.1444,-4.0917,1.2324,-3.1926,-27.3169,1.8081,-5.2557,-7.2175,-8.5666,-7.8158,-5.9009,8.3447,-4.6379,
-3.4755,-50.8558,-2.8658,2.1388,2.8798,-23.718,3.6599,-4.9399,-7.7648,-8.0531,-9.3081,-2.6066,5.8838,-1.4194,
-3.7569,-46.3341,-2.2039,3.4813,9.0778,-19.8443,4.9102,-3.1736,-7.7889,-7.08,-10.2195,0.00047468,5.0408,2.0963,
-2.5516,-42.5742,-0.11184,4.2523,15.3943,-15.7134,7.5562,-2.0033,-7.3216,-5.6753,-10.5862,3.921,4.7383,4.9112,
1.0316,-36.5891,4.3058,8.4082,22.8017,-9.3797,11.5138,1.5479,-6.3918,-2.8836,-10.4414,10.0565,3.9636,10.9873,
4.4003,-32.9234,9.4388,10.3534,26.8245,-4.406,14.2536,-0.99562,-6.4992,-7.1211,2.4376,5.0426,1.276,23.5605,
6.0966,-21.1466,11.8127,9.7327,39.315,4.6799,18.2984,7.8856,-6.1088,-3.7536,0.33106,-7.0221,-3.7014,8.0469,
6.2212,-24.2884,9.6336,-0.16271,35.1082,-2.9521,4.9493,11.8234,0.62852,-9.8992,-7.0404,-5.1304,2.8914,-6.5359,
7.8082,-18.9105,10.036,1.8073,18.9017,-0.81516,-3.1892,9.1537,2.5511,-23.4052,7.1039,4.9788,16.8179,7.9562,
4.889,-16.306,2.0826,0.2281,16.6749,1.6844,1.4126,0.27253,-8.8737,-24.0736,9.1284,3.2102,13.9609,11.7775,
9.4971,-24.1487,8.8189,-7.6267,2.9328,-12.5166,12.1096,-8.5648,-8.3413,-10.8675,-2.2011,-4.8235,-0.97671,-3.0292,
5.9866,-13.8783,13.1902,-1.2878,-9.9847,-25.8656,1.5821,-10.0108,-7.8408,-14.136,-6.9695,0.36636,-15.0181,-4.4296,
-1.2338,-6.1848,8.4783,3.6899,4.3359,-16.6968,-7.3347,1.3707,-0.50914,-8.3874,5.2104,14.4444,-0.01702,9.9361,
-8.5109,-19.9137,-0.3615,-5.8424,11.4273,-14.2247,-3.4641,1.7794,-1.9485,-8.3741,-0.49266,-0.52228,12.6141,-4.2701,
5.2312,-24.2222,7.9912,8.6081,24.8417,-2.1,10.8438,11.9635,0.61822,-4.441,1.9867,-9.3129,6.4659,-9.4052,
-0.96299,-9.0464,8.4917,13.1044,9.2512,-6.8744,2.4644,2.4246,-4.3193,-8.0951,2.8474,-7.7733,6.078,5.2591,
-6.2961,-2.1329,8.4726,10.8479,-5.4039,-10.8729,-11.7835,-2.1318,0.34987,-8.0998,7.0875,-2.8968,16.9846,15.8372,
-6.8987,-3.9652,0.12267,5.2961,9.0203,-8.2603,-6.2883,-5.924,2.2892,-7.6134,14.5029,-5.6632,17.9258,0.78696,
-10.8948,-12.0583,-6.2555,4.4879,19.7504,-20.0163,-3.4608,-14.88,12.4441,-5.6863,15.103,-14.6349,10.4794,-13.3603,
-6.3206,-7.4143,0.98105,6.1793,6.8041,-27.6363,-5.213,-12.0264,23.4591,2.496,9.2964,-16.6965,5.931,-15.2331,
-8.392,7.1306,5.3327,-3.5033,20.4959,-11.8781,-0.48969,2.7951,7.9515,5.7759,-0.57328,-1.5947,-1.7769,-19.7105,
1.4234,20.8028,5.5027,7.9786,11.0465,2.9345,5.9109,15.9713,-6.6255,6.9002,-4.9494,12.601,-1.1794,-7.2552,
15.438,25.6597,4.1922,10.441,-3.7163,-6.8191,-5.2259,3.2509,-6.4523,-4.2951,1.2293,5.208,-0.1292,0.040842,
4.8217,13.8283,4.4306,-0.47727,-17.5933,-13.7611,-2.4617,-2.3346,-6.5551,-18.1374,8.5058,-5.3963,3.3091,-9.2726,
-9.5676,6.1374,6.1255,3.4719,-2.4377,1.1645,-2.314,8.5863,-4.202,-24.0227,3.095,3.7485,11.9316,-8.7172,
-23.0935,1.8491,6.7379,8.165,-16.3914,8.5582,-16.2751,10.0319,5.852,-8.4814,-4.9318,12.3455,12.1966,5.9059,
-7.7198,10.0696,13.6852,10.1253,-29.508,-6.0553,-15.4105,1.0985,0.11,-4.92,-4.1455,0.33262,2.1533,10.5648,
6.8434,19.7563,18.2545,9.0269,-13.6375,-10.2149,-0.3859,-0.4373,-12.1482,-18.7248,-4.3876,-13.7873,8.3944,-4.1691,
15.3662,32.671,20.0999,11.426,1.2808,2.1602,13.7373,5.4702,-14.36,-23.594,-7.0641,-21.8935,17.6926,-18.0189,
18.3648,44.8107,27.7149,19.5623,15.3039,1.0502,27.013,3.1813,-15.4582,-8.0784,-5.6604,-18.6191,5.8493,-2.8378,
19.2231,56.2221,24.0917,4.6657,28.4857,-13.1128,27.6887,-11.1096,-28.6307,-21.6937,-19.0427,-31.602,-8.6016,-6.7,
32.1698,66.9487,31.4682,5.3666,40.8765,1.7739,37.789,-6.1444,-32.4161,-34.492,-23.7805,-38.1497,4.0542,-20.398,
44.3396,77.0318,15.4801,-9.0554,52.524,15.7675,37.9724,-12.147,-44.5711,-46.5225,-36.4536,-47.1325,-8.4407,-33.2741,
55.7792,86.5099,1.6969,-15.4861,63.4725,11.0128,47.4552,-20.2397,-37.1083,-53.2673,-32.4185,-55.0863,-7.9347,-38.8531,
66.5324,95.4193,9.4362,-0.45691,73.7642,-0.42927,45.5878,-23.9257,-29.9813,-52.0311,-19.6916,-47.8601,-2.5572,-40.4424,
76.6405,103.7941,16.2212,-1.297,83.4383,1.0663,56.9525,-18.0797,-27.6925,-49.3996,-13.1197,-30.8885,-6.8143,-36.546,
86.1421,111.6665,21.6187,-12.4905,92.532,-5.3684,67.6354,-23.3657,-38.2821,-59.6672,-24.5846,-39.2141,-19.6374,-27.0016,
95.0735,119.0665,22.7723,-4.3908,101.0801,-16.318,74.0933,-23.4336,-28.6349,-58.5378,-14.7785,-45.1933,-4.3592,-27.8322,
103.4691,126.0225,7.3059,-11.4776,109.1153,-29.4389,64.2573,-33.2993,-21.5255,-56.4954,-7.5205,-46.8917,10.0024,-40.2623,
110.9,112.3432,19.9872,3.3111,116.6684,-41.7726,70.6932,-28.8511,-14.8431,-48.6952,-3.6382,-32.807,11.0963,-51.9466,
104.736,95.3117,29.0798,17.2124,123.7683,-53.3662,75.7626,-27.61,-5.6214,-44.3032,2.9504,-31.3285,10.9205,-34.8417,
84.3518,75.493,13.235,10.0322,130.4422,-64.2643,60.9255,-40.0534,-7.7344,-48.9966,4.2437,-43.5488,14.6762,-44.0233,
74.2779,56.8634,15.2692,9.4307,136.7156,-74.5084,66.0914,-44.6238,-0.40959,-33.3143,6.9292,-41.0478,19.6765,-36.481,
64.9203,39.3516,22.1937,5.9247,142.6127,-84.1379,70.9474,-40.966,13.3369,-17.2154,17.2957,-24.4849,19.4763,-20.5693,
46.9251,22.8905,6.762,-1.7824,148.1559,-93.1896,52.5906,-52.608,13.0271,-10.1898,15.7676,-34.6656,27.6182,-33.4351,
30.0096,7.4171,-7.7437,-1.675,153.3666,-101.6983,36.5812,-63.5515,13.2259,-3.6976,13.8411,-39.4468,40.0611,-45.529,
14.109,-7.1279,4.2588,1.8561,158.2646,-109.6964,33.8964,-67.8038,5.0812,-12.7867,20.3618,-32.6691,36.7904,-40.0813,
-0.83755,-20.8003,2.533,5.1749,162.8687,-117.2146,28.4315,-68.1461,-0.61459,-21.3309,24.531,-16.6089,39.9738,-25.4244,
-14.8873,-33.6522,-9.8711,1.4343,167.1966,-124.2817,23.2955,-73.3687,4.8132,-12.6999,20.6089,-3.2484,41.9854,-13.6076,
-28.0941,-45.7331,-9.2788,7.2286,171.2648,-130.9248,21.8978,-75.8273,6.4842,-6.0571,21.3331,-6.9741,25.3663,-11.8112,
-40.5084,-57.0891,-0.3901,15.1268,175.0889,-137.1693,23.0346,-69.8074,13.4463,2.6374,34.1531,-6.0657,26.6726,-22.3743,
-52.1779,-67.7638,-3.7978,18.6293,178.6836,-143.0392,14.3009,-66.1089,26.7395,9.8303,38.5871,4.5901,39.1723,-25.4423,
-61.7059,-77.798,-6.5101,30.2526,174.8394,-148.5568,14.4232,-54.3022,33.0886,21.9821,43.1317,11.1749,50.9219,-9.8158,
-72.1035,-87.2301,-3.1793,26.4781,150.249,-153.7434,12.5775,-53.0039,24.2426,14.7823,36.6237,-3.5956,41.7196,-5.6843,
-66.4191,-96.0963,8.7734,25.8696,127.1341,-158.6188,6.9226,-47.8631,32.5892,6.0545,30.5059,-17.4798,37.2569,-17.1052,
-62.4338,-104.4305,3.3463,14.5162,110.4607,-154.4377,-3.2948,-45.9715,32.5943,3.7307,27.6954,-30.531,31.1007,-11.1782,
-67.9992,-112.2647,-10.0865,11.195,89.7331,-141.7408,-6.5273,-44.6835,21.3272,1.0566,17.7031,-42.7992,15.1346,2.7245,
-64.4092,-119.6288,-13.8923,17.874,70.2491,-125.8852,-4.6653,-44.4527,21.5179,-0.47708,13.2099,-54.3312,0.12654,6.972,
-53.6839,-126.5511,-8.1578,7.9801,66.7898,-106.5705,1.4954,-37.865,34.3268,13.6515,26.5173,-61.9231,8.7157,1.6528,
-47.0322,-113.1347,-7.1784,2.1109,64.2532,-96.7456,-1.045,-23.3415,38.2604,26.9325,27.9788,-54.7771,22.2928,1.0636,
-36.3687,-92.6247,-11.6486,1.0039,74.498,-77.2189,-3.9225,-19.0008,29.1031,30.9312,20.4192,-49.5302,29.889,5.9008,
-26.3455,-78.2462,-5.0684,-4.9377,83.3716,-58.4858,3.1741,-18.8407,31.2775,26.1356,27.0352,-46.5584,16.334,-0.33459,
-23.7849,-76.4916,-3.7844,8.1011,64.2693,-56.3346,1.0229,-14.7696,31.3616,22.6067,31.2944,-57.8649,22.2152,-10.1154,
-26.2783,-74.8427,-11.3984,20.3566,46.3131,-66.677,-4.9189,-16.8241,20.6579,21.2503,21.5747,-48.1341,27.7426,4.5915,
-38.8016,-82.1134,-18.5556,5.0352,29.4343,-70.517,-16.3854,-29.9146,5.3185,12.1342,6.1802,-33.4839,11.978,14.7192,
-41.9768,-79.1473,-11.5615,-4.6907,13.5683,-57.465,-13.442,-33.6225,0.47696,6.5052,1.287,-35.3959,2.8164,7.9552,
-26.2266,-60.2985,-7.4372,8.8223,-1.3458,-42.7458,-3.3245,-23.2746,14.5483,15.4259,11.5006,-33.7626,9.9976,4.0473,
-22.2023,-46.2769,-10.4216,20.5455,-6.236,-35.7701,-7.5355,-15.5068,9.3764,22.8323,6.4001,-27.3258,1.0667,7.2351,
-33.1218,-56.7327,-6.3657,10.9807,-19.9618,-35.0942,-13.4547,-18.007,5.3832,14.1112,6.506,-32.0575,3.4534,3.3704,
-33.5852,-49.8981,-1.5732,1.9908,-32.8641,-30.5383,-18.0387,-22.3175,15.352,20.6157,8.5664,-26.7035,6.6768,-5.1629,
-34.0199,-47.3942,-15.5788,-1.5592,-44.9923,-35.0768,-31.0564,-25.3889,25.7026,33.4787,-3.2193,-19.7104,-7.8238,-12.2043,
-35.8992,-57.2926,-22.5976,-2.4456,-56.3927,-36.8928,-43.0268,-20.9254,22.2006,32.5623,-4.0061,-20.4881,-21.4544,-6.5716,
-45.0174,-49.4441,-22.712,-16.3988,-50.5175,-32.229,-35.0544,-28.9813,7.6357,21.2971,-5.236,-27.5903,-22.3521,3.1342,
-39.3757,-32.755,-21.3484,-29.5149,-33.3864,-24.4139,-25.1091,-25.2812,8.1584,23.9398,-9.8223,-27.8947,-29.8311,-0.97444,
-22.9132,-22.9491,-15.167,-13.644,-17.2832,-14.1281,-11.8418,-9.6644,19.4305,30.3446,-1.3919,-12.4991,-13.9412,-8.7571,
-23.8763,-26.4726,-19.1579,1.2746,-19.9426,-12.3005,-5.2504,-11.4233,16.3044,25.5837,0.6519,-4.8884,0.99526,-5.2915,
-27.3442,-31.745,-20.9491,-9.0927,-23.6465,-10.5821,-10.8158,-24.8379,8.4649,20.1281,-1.347,-10.4754,4.0995,-1.0534,
-13.9428,-15.7403,-13.8118,-4.6275,-8.1277,0.83413,-16.0481,-13.1682,2.0757,16.9597,0.69361,1.9143,5.8134,0.97052,
-19.9665,-18.1146,-12.9821,0.55151,-13.8989,-0.19582,-15.0852,-9.4375,-4.9091,12.0216,-3.2686,-4.0814,2.5248,4.8328,
-21.7091,-31.1277,-8.2827,-5.3629,-27.165,-2.1444,-9.2787,-18.6731,1.2658,11.3003,-6.993,-17.9365,-3.508,4.5429,
-6.6847,-16.1399,-3.8656,-0.14018,-11.4351,11.7067,-1.8613,-8.7312,6.0908,18.4638,0.28732,-20.4024,5.524,-3.5713,
-15.595,-7.8208,-3.1433,7.2199,-24.849,11.4943,-3.2199,-3.7968,-3.5861,16.8656,8.6016,-5.0782,7.6428,-3.8465,
-23.9707,-11.7621,-10.3063,4.3355,-37.458,0.51281,-7.4377,-17.669,-14.6421,2.6217,-3.1867,-10.0525,-6.9158,10.4843,
-8.4325,3.0436,-20.9596,-10.0246,-21.1105,8.8131,1.3396,-19.1715,-13.2737,2.9543,-9.3658,-9.9398,-6.1228,22.2188,
-1.4439,16.961,-28.0331,-23.5232,-5.7439,1.9135,8.6104,-22.4317,-15.9078,6.2077,-7.334,-14.7338,-4.2846,6.7856,
12.7428,30.0433,-12.2511,-8.0118,8.7007,-3.5917,22.1938,-12.7542,-5.6419,11.2261,7.2061,-11.3991,7.2437,-7.7215,
23.3627,35.928,-2.0923,-2.2516,22.2787,1.0343,10.6832,-8.5584,-2.8527,0.2607,0.51527,-12.1855,12.2004,-21.3582,
23.9212,39.6532,-4.9069,-0.15623,35.042,3.9129,2.2015,-4.1243,-0.72129,-1.7152,-5.3965,-13.4146,4.6067,-13.5517,
14.1544,33.8434,-2.1623,13.9531,20.534,-5.6338,12.3608,-4.3673,2.7521,-1.1219,6.1986,-8.1992,-3.0204,1.3614,
5.4641,31.8128,-0.072712,14.2078,6.5595,-8.2364,2.7972,-9.0062,-6.234,-8.8957,0.92618,-3.7872,-0.87932,13.1533,
10.5271,42.1561,-4.4784,9.9252,4.6965,6.3578,-11.4706,-2.0946,-11.2509,-8.8524,-11.3815,-7.9705,10.4456,13.8344,
8.9151,38.6464,-1.2695,14.2296,-7.3474,7.0691,0.86783,8.8129,-6.6557,-14.202,3.4014,-4.5516,10.7983,7.1235,
6.4199,35.3477,11.5487,26.1179,-10.8267,6.6449,7.6765,18.0855,-7.2358,-21.191,17.2973,9.8215,-3.9496,1.7952,
4.074,33.2264,3.0147,21.6102,-17.0392,13.107,-6.8841,15.0396,-12.683,-19.9196,2.1595,19.6354,-14.1163,9.5286,
4.3204,18.0013,-4.5174,14.9231,-22.3872,7.91,-14.4245,2.866,-11.432,-22.1545,-5.6988,12.087,-0.036875,15.3281,
3.5712,14.471,0.16418,21.3789,-15.6535,-1.876,-9.1485,12.0055,-10.2562,-29.1568,8.7431,8.9111,7.3165,9.0171,
0.41632,15.563,-4.7461,19.1163,-15.6942,-1.763,-14.48,21.087,-3.7595,-22.5065,9.3108,6.4166,-2.9234,11.4167,
-5.9797,12.1792,-4.9515,15.5188,-28.8526,-2.1474,-15.0808,5.7218,10.5661,-7.0561,8.2624,8.4821,-3.2387,15.1425,
-7.5814,11.4477,9.4455,23.409,-30.1739,-16.1185,-0.45426,3.3058,24.0321,7.4673,21.8667,14.8337,11.0557,0.13391,
4.1452,17.1321,15.8517,25.435,-25.9128,-28.0056,5.9433,17.2075,23.7943,9.2038,27.5275,16.3939,20.3058,-13.9741,
6.8371,30.2042,8.0398,14.1071,-38.0804,-12.2253,-5.195,11.386,8.2667,-5.4484,11.7759,19.3308,4.9875,0.85219,
2.9958,42.4919,7.067,2.9693,-36.2851,-4.5186,-13.2139,-3.3972,-6.3293,-19.2215,-3.0307,6.8992,-9.4118,2.2714,
16.9161,54.0424,15.465,16.5136,-20.008,6.5342,-5.5599,10.9067,-19.4053,-32.1682,-16.9488,7.4657,-22.3028,-4.7261,
21.4048,64.8999,8.6558,17.4825,-24.0865,17.9038,-6.2071,17.6039,-23.1415,-28.614,-19.2092,17.7995,-26.846,1.4388,
6.8881,55.5731,7.6465,11.0432,-36.7413,20.2597,-10.2452,5.2755,-19.3032,-23.467,-10.7055,15.2612,-31.6065,8.7036,
7.9451,60.5702,5.7173,15.7715,-20.4368,22.4748,-11.1008,10.3498,-17.6546,-27.4494,-14.4732,7.9747,-20.3986,5.7311,
15.3091,70.658,1.4533,7.9635,-5.1106,27.0071,2.3073,14.6298,-13.6551,-21.8824,-16.5459,12.3967,-9.3733,0.48635,
12.4307,54.6568,3.3268,3.5661,-12.0428,21.4666,8.0501,1.0099,-12.8358,-8.8073,-12.6125,16.5538,-5.8703,-9.3447,
6.7839,42.5559,4.1076,17.4521,-20.1417,27.0393,-6.5329,2.9096,-8.1456,3.4823,-10.8754,13.5998,-1.597,-3.8831,
-6.8551,46.3734,-1.5297,5.7347,-26.2848,36.6882,-20.2409,13.0264,-1.2861,5.7236,-6.7927,10.3336,-5.9122,10.4499,
-9.8735,44.0814,-4.8686,-6.861,-36.9584,29.0965,-20.2311,9.795,6.1432,8.8117,-2.9545,9.2237,-8.9881,13.3654,
0.51941,37.5155,1.3044,7.6506,-44.5432,30.2909,-4.9172,3.326,19.8746,13.183,0.16291,10.6305,-12.3698,2.7621,
0.97913,38.6956,8.5773,17.1053,-50.2017,39.7456,-9.4108,7.5374,24.6753,8.9619,6.5244,21.2644,-20.9386,5.0471,
-1.0404,49.115,9.0425,10.1977,-48.1695,42.2609,-9.8269,17.8665,24.1738,17.2447,16.9147,34.0885,-6.9407,11.6045,
-1.4674,42.7384,3.1091,5.1758,-53.6109,33.3549,-10.7067,10.4237,25.1745,22.5818,7.5683,30.1953,1.8073,-0.363,
7.9316,44.5846,8.3139,18.9653,-40.1024,42.6253,-4.6739,14.2088,36.8955,18.7762,8.585,23.9726,3.1696,-7.6924,
5.4954,44.8502,5.8548,14.9986,-34.7561,45.9486,-6.3537,17.2773,40.5636,7.8482,22.1699,27.4352,11.8009,-4.2897,
-0.71561,39.2185,9.4241,12.1389,-43.4525,36.3305,-12.8337,6.4388,34.2083,12.2778,18.5009,22.8484,12.0728,10.0677,
-8.0229,39.3156,9.3486,-0.84108,-37.4147,22.8794,-21.3747,-4.2389,18.0558,7.1306,3.2908,8.246,-2.7516,21.3367,
-8.0324,37.4462,2.4164,-14.0231,-28.7986,18.0756,-21.563,3.3662,3.6285,-3.589,-10.2505,6.2804,-11.0308,5.9565,
6.5495,46.4716,8.6427,0.91831,-29.5214,26.303,-12.9171,17.2642,15.6625,4.9583,1.6362,10.3146,-1.0571,-8.5009,
12.1502,57.4057,4.2036,-0.98517,-27.7501,23.7444,-13.1229,7.5197,6.8816,4.6608,-6.3031,-4.4043,-15.0937,-13.1151,
13.871,68.0614,-0.45916,-14.1576,-11.9851,23.7901,0.8969,1.6776,-7.6313,-7.8705,-16.2167,-16.994,-20.1808,-3.0172,
21.8602,72.9106,-3.3727,-10.3679,2.834,19.4216,2.8024,10.3975,-21.2734,-21.4982,-18.1839,-17.9351,-16.0297,-6.7572,
22.5084,70.4958,-4.1503,-19.5477,8.2786,10.4152,-6.1867,12.7148,-23.6519,-31.5929,-16.1129,-29.601,-23.889,-19.0933,
29.4894,80.366,1.4896,-12.984,21.8819,21.0624,8.2845,21.2633,-20.7624,-27.2461,-13.6758,-27.3345,-24.9059,-28.2391,
41.8201,89.6441,1.8902,-0.93323,34.669,27.1494,21.8874,27.3387,-24.9071,-30.0228,-21.1863,-17.3634,-19.001,-29.9753,
53.4108,89.8815,5.2079,-13.1284,46.6889,23.0702,34.6742,24.228,-26.8437,-29.6913,-21.3855,-19.7517,-13.45,-32.5878,
51.9003,97.7201,6.3652,-0.089066,57.9875,35.786,32.4399,33.0652,-26.703,-19.5788,-19.6124,-21.0173,-11.1731,-35.043,
43.8858,105.9569,5.0034,14.0163,68.6083,47.7388,31.4734,45.1813,-31.962,-14.4835,-23.3361,-10.9348,-6.5822,-18.8404,
37.823,96.7712,-1.668,5.4466,78.5918,53.9202,31.0558,29.8412,-41.3151,-23.9058,-30.267,-9.7883,-7.6571,-3.61,
40.944,83.6138,-2.0579,-3.2113,65.7285,49.2147,39.4843,19.7197,-41.2868,-25.9021,-32.8615,-23.301,-6.7077,10.5528,
40.4477,92.6969,11.7875,4.822,75.8848,60.3618,48.8764,32.6365,-35.8695,-16.5068,-21.0884,-16.1345,-0.42443,-4.1804,
36.0605,101.2351,9.12,5.5131,85.4317,70.8401,38.1032,36.1811,-36.6575,-16.4968,-17.8638,-2.4244,-12.1611,-3.552,
46.6385,109.261,5.6321,2.2416,82.4894,80.6897,37.7768,34.0102,-28.5777,-21.3878,-18.7518,-6.1999,-9.4707,-0.39821,
48.7416,108.4328,5.2942,-0.83351,84.4022,73.7342,38.4508,31.9696,-28.8228,-25.9849,-25.4678,-12.6887,5.1976,-5.2748,
34.0545,110.7479,1.056,-5.6849,82.2777,68.3298,33.2031,25.15,-30.0341,-22.466,-22.9598,-10.9474,14.309,5.8235,
27.6002,98.7121,-1.4576,-6.8132,63.2411,70.6012,30.7205,26.0922,-28.7225,-25.5286,-19.132,-12.7408,-0.64951,7.9243,
36.7269,91.8095,-2.35,-4.4437,53.4534,71.2661,25.9376,34.3276,-33.8594,-23.9968,-23.8644,-10.0156,-14.4448,-6.6512,
35.5027,93.1617,-0.24876,-15.9392,55.1471,60.1289,19.4804,30.3077,-33.7881,-8.457,-25.3727,-3.5339,-1.816,-8.8147,
30.9228,90.0227,12.0178,-18.4134,37.7383,49.17,14.881,25.0586,-36.1723,-4.8966,-30.2216,-8.7127,-12.9788,0.045257,
36.9085,98.3428,14.2374,-3.5862,27.5206,58.9619,13.9881,33.3569,-34.0019,-13.4247,-27.4284,-3.2895,-22.0019,1.0234,
36.6538,102.2441,-0.33928,-5.3318,36.6511,61.3045,6.2876,31.3555,-36.8623,-15.5599,-29.7033,-3.0921,-17.7411,-12.7604,
32.4943,106.8907,-2.2792,-11.8726,48.552,53.7057,4.93,23.5934,-42.4921,-17.5665,-41.643,-15.6486,-8.836,-23.7569,
24.1734,106.8485,0.30824,-17.5315,33.0092,50.9738,6.105,19.7271,-31.6106,-19.9431,-40.6143,-16.1796,-3.8944,-24.7813,
17.3326,96.0271,-5.1016,-13.049,16.9287,53.3062,-1.6125,23.9348,-17.4623,-8.4547,-24.0774,-7.8576,-4.1507,-10.0629,
15.8027,85.855,-9.206,-5.8948,17.2714,57.459,-2.9856,26.9092,-25.7256,-1.5762,-16.1501,-4.9359,-6.3524,-2.108,
13.3842,73.352,0.65779,-13.8727,30.3351,59.4023,8.4648,15.9832,-29.5729,-10.793,-15.6706,-13.9508,-7.4415,-16.0815,
10.1314,69.4409,4.0489,-8.6298,14.415,52.4076,9.4277,12.5735,-13.6985,-7.6948,-13.2605,-12.6238,-7.485,-14.7385,
6.5824,72.1352,-8.936,-2.2312,-0.54991,49.2631,-2.9001,21.6205,-5.9035,6.8669,-13.4452,2.2337,-7.0364,0.24578,
5.2075,69.7678,-12.3204,-8.9576,-10.9201,60.4074,-2.7261,21.3041,-11.4306,5.096,-15.5782,1.7216,-8.574,11.6146,
6.365,75.8735,-5.21,-12.8316,3.8351,70.8829,11.5375,20.5158,-16.1352,-9.3098,-15.1344,-5.7329,-6.5897,-0.35395,
6.9634,73.2805,-1.9572,-20.8831,1.7561,64.4035,18.7982,20.2643,-20.068,-13.7645,-14.2268,2.4518,-9.1345,-8.1743,
8.9963,59.5727,-6.2503,-17.1795,-12.4493,65.9302,9.3393,17.5786,-14.4534,-2.6468,-11.9024,4.7553,-1.2353,-8.1728,
9.9269,45.707,-7.3456,-12.7176,2.3977,76.0744,11.2292,17.9942,-3.2949,7.8043,-1.8769,3.9801,12.9388,6.4175,
5.9002,32.6732,-4.4546,-21.266,7.6442,72.1122,15.9463,14.4643,-1.6269,7.8255,1.6659,13.0527,21.5858,9.5745,
1.6256,21.8918,-5.1672,-18.0302,-6.9144,71.706,14.0096,14.5764,-2.5091,0.49479,-5.2943,8.349,9.5089,-5.1,
-5.8231,14.2071,-4.3672,-14.4977,-7.5909,79.6557,14.6389,13.2118,0.092098,-2.9646,-4.4867,1.4768,12.369,-11.7666,
-4.0034,21.6852,-6.5554,-12.1585,3.155,86.1476,15.2309,11.9287,0.57606,9.4645,0.19253,15.4882,25.7269,3.0394,
-6.7033,18.4238,-16.9443,-18.2897,3.9461,91.7601,5.4955,7.2929,4.4616,13.7975,-6.6798,12.7105,16.4545,13.7502,
-9.7317,8.9873,-12.4971,-19.6421,-4.6218,92.6257,-1.2045,7.3453,17.4263,2.6779,-9.7096,7.5374,4.1955,12.4352,
-13.5583,7.9581,-12.2372,-16.9937,-18.4445,82.6577,-15.2322,8.3744,2.2808,-11.5828,-12.5576,6.5952,1.4931,10.2193,
-3.4343,12.8715,-7.092,-20.385,-11.0794,82.1083,-17.8617,13.2628,-11.9561,-5.6093,-10.3338,2.7684,2.8738,4.2152,
4.6128,18.9604,-2.7459,-20.1418,-5.5132,81.1023,-15.8101,11.4871,-8.5223,4.5291,-15.5951,7.5037,-6.1206,-7.8003,
6.2973,27.6242,-5.5214,-10.1119,-19.2824,76.2366,-15.841,13.7381,6.089,15.0386,-4.8571,21.1535,1.1084,1.4892,
1.0185,11.8668,-2.2499,-6.565,-32.2255,67.7414,-17.8316,9.9736,4.3652,5.3148,8.1755,16.5651,12.803,4.3401,
-7.3741,-2.9453,-0.64457,-6.6615,-20.2253,66.1272,-12.3507,7.9049,-9.9967,-6.2753,-2.6064,5.2798,3.7043,-10.0203,
-11.8321,-16.8685,-4.5265,-1.3604,-4.9118,64.1203,-1.8078,11.3512,-3.6275,8.2012,5.3911,19.063,7.4026,-0.70907,
-25.2222,-29.9564,-14.0567,-2.2587,-18.7171,46.1731,-10.5204,-3.4299,-0.4701,6.3516,7.0284,19.5024,8.9182,13.4335,
-27.7418,-42.259,-4.8823,0.3266,-22.9845,29.3027,-7.4394,-9.2168,8.87,6.4596,11.0172,30.5839,19.6548,22.5407,
-26.0768,-53.8235,-2.6281,-4.593,-10.8232,41.6445,-4.0519,1.1375,21.0798,20.172,19.1776,36.5895,21.4167,11.3869,
-37.2538,-59.1079,-16.1928,0.58305,-18.9957,41.9746,-17.9088,-3.8312,15.8945,33.0617,13.1265,23.6133,8.37,10.7037,
-42.8601,-65.3629,-11.3012,6.4289,-25.6966,39.4557,-26.2581,-1.6419,22.7815,31.3027,16.259,31.997,14.7285,21.8236,
-52.0497,-66.3411,-17.4829,-8.0568,-38.2548,41.9892,-28.6027,2.3776,22.395,19.6231,14.304,24.1972,17.7658,7.7722,
-35.6952,-54.0296,-17.9047,-4.7456,-41.9527,53.5699,-26.3966,8.6062,18.6006,31.6782,14.9156,15.3942,17.1898,5.836,
-29.6329,-60.5896,-8.0094,-1.5202,-35.515,42.6269,-22.853,-1.712,13.564,29.7766,7.1595,21.3309,7.3365,17.2475,
-33.7358,-56.9538,0.31272,0.53127,-47.4841,33.2086,-19.5215,3.2916,13.7305,27.9905,8.6902,34.151,12.7772,28.9547,
-34.6518,-49.6165,-3.6271,-2.4408,-58.7351,33.1764,-25.2109,7.995,14.8669,32.1919,16.9903,29.7645,26.1105,13.1174,
-30.6129,-58.4011,-2.4295,5.5468,-69.311,17.4634,-25.659,-0.32577,28.0749,31.2403,25.7718,20.1376,27.1065,-0.034106,
-31.2264,-64.2085,2.1272,13.5446,-79.2523,3.1836,-24.609,-0.79664,32.3836,22.9951,24.7159,25.3001,11.3801,5.3588,
-34.7437,-52.0245,10.3311,10.2817,-88.5972,17.0926,-22.643,7.5827,18.1885,26.0263,18.822,37.8821,3.2347,0.62632,
-33.6394,-46.9437,4.8103,9.6652,-97.3813,27.9406,-28.1451,-0.71385,5.3351,29.3647,17.6931,38.6612,7.9406,8.4303,
-30.1503,-54.4179,-2.8295,6.6346,-77.4385,23.8139,-34.7875,-6.0614,10.4063,22.2124,20.0621,28.9904,14.8153,22.0245,
-31.2819,-57.0341,-1.6798,5.2566,-71.3927,25.3253,-36.6208,-2.7571,23.8819,14.0185,17.8776,22.3505,25.6881,34.5369,
-25.9744,-44.3002,4.7922,13.2723,-72.4996,33.1172,-28.0532,1.8188,24.5212,14.6482,12.3944,31.3004,19.7363,20.213,
-24.4159,-44.5828,8.4253,7.5755,-63.2492,27.2096,-18.5289,2.6896,11.2883,15.7291,3.8096,33.3429,4.4521,20.9601,
-30.7925,-45.8289,9.88,7.1205,-58.4738,23.6167,-22.3181,3.5077,3.7493,19.6863,3.5806,27.4222,-9.915,23.6235,
-30.9048,-37.1978,6.3466,7.6741,-53.0047,29.0609,-35.079,-7.4836,11.3664,21.4457,7.2872,29.6975,-0.72242,28.0874,
-22.6807,-33.4957,5.4754,7.7031,-45.4143,35.6479,-33.0862,-4.5844,21.9556,19.6686,9.3002,29.3859,1.7702,25.9117,
-27.6897,-31.9763,-5.1436,3.8108,-50.0402,34.9803,-26.69,2.0615,18.1881,15.0583,1.3915,13.5228,-12.436,10.257,
-28.479,-23.6865,-3.3651,-3.769,-53.409,39.2518,-31.4599,-1.4928,15.6269,20.5251,-2.1226,17.9899,-24.0533,-4.4584,
-12.6702,-14.9146,7.1282,2.8279,-48.7341,44.2483,-37.9029,3.0077,12.2382,25.6644,0.45502,31.0105,-16.2394,9.9091,
-19.6392,-23.8207,-5.0612,-0.28238,-59.9101,35.7121,-37.5894,5.7679,15.4244,22.1647,5.3282,23.3814,-1.5426,18.0232,
-31.2025,-36.1138,-15.5393,-10.0664,-70.4155,26.7082,-28.4729,-3.4001,19.4003,21.8148,8.929,19.0379,-6.3505,2.8418,
-22.9591,-29.5365,-9.2156,1.8093,-63.9646,26.5765,-16.4727,-6.6258,11.8651,17.0753,-3.8583,29.1673,-19.2019,1.58,
-19.1308,-20.4122,-4.2521,3.1716,-49.8349,18.6106,-9.1131,-4.7584,11.6441,14.5809,-6.0766,28.8881,-9.7178,8.8363,
-29.7456,-28.0094,1.8843,-5.8407,-60.9448,14.5543,-18.3682,-8.3934,13.8861,16.6467,5.0688,20.2936,-12.0754,-3.4555,
-27.9613,-33.1896,14.5123,0.39059,-71.3881,27.781,-25.1076,-6.9094,18.9328,22.5086,8.6848,22.0162,-20.1723,0.6719,
-23.3425,-29.2379,8.7407,3.3073,-63.4085,33.5767,-28.5021,-13.3565,18.7772,13.3165,14.0445,28.5358,-5.2401,14.7316,
-23.4123,-24.0535,-5.8838,-0.32123,-52.2529,29.1119,-27.2815,-16.9652,20.1008,13.008,19.5736,26.3342,1.4451,12.9792,
-19.0674,-29.4711,0.23819,-3.2421,-51.078,26.3848,-18.7838,-8.1057,20.855,15.1686,20.3594,18.8733,-7.4621,8.2804,
-12.0425,-23.7827,7.0846,2.8323,-48.9937,19.9008,-20.597,-8.6007,19.6033,3.4763,20.1173,18.7204,-7.0158,6.8032,
-12.7903,-8.2557,-4.6117,1.192,-44.5837,18.2163,-17.8908,-18.376,25.7787,1.7974,13.5194,12.2072,-3.1638,0.024201,
-15.4525,-8.1375,-0.90438,-7.2096,-45.3388,16.6343,-11.427,-23.6437,29.6233,4.1402,3.3973,-1.7577,-16.2055,-10.2691,
-10.1149,-4.2187,8.4608,-6.2871,-36.2477,12.2057,-10.2514,-24.6758,25.3952,3.4019,7.6039,10.6003,-24.5451,-7.2022,
-21.2696,-7.887,-6.1468,-20.0099,-31.1322,7.5528,-15.5167,-29.0765,16.0304,1.237,12.0491,12.904,-18.171,-5.7902,
-34.0935,-21.5138,-19.878,-25.7824,-32.6953,15.4302,-14.0953,-20.9602,13.5982,6.5537,6.9152,-1.9702,-6.7894,-10.8336,
-25.2999,-19.3545,-15.4794,-14.435,-32.6939,14.5039,-12.2701,-8.9213,14.7417,5.1801,6.4998,7.8375,0.47874,-12.1439,
-14.47,-8.8823,-13.0799,-13.078,-29.2615,9.2241,-9.0832,-0.054992,20.2284,0.45876,12.4811,20.5987,0.93997,-8.9646,
-22.9133,-8.8388,-21.6065,-8.8632,-34.8574,13.0807,-13.9291,-7.4024,13.6239,5.8221,2.4208,5.2628,-13.2164,-6.9564,
-31.3394,-0.46738,-22.2699,-4.4099,-41.587,19.1571,-16.034,-17.74,12.8074,19.5728,5.2162,10.7165,-15.4751,-4.5782,
-27.4988,5.4415,-19.9534,-4.1458,-39.0918,14.0876,-14.0916,-7.8541,23.801,24.8816,10.784,20.8548,-8.6657,-7.2447,
-20.4584,6.5849,-15.3265,-3.4071,-25.475,16.672,-22.558,-1.0125,23.8428,11.1371,9.647,12.2523,-8.6367,7.29,
-17.2711,10.1103,-0.6845,-6.1433,-19.046,25.4735,-22.1844,-10.7527,27.3127,10.4688,13.9687,9.5564,-8.1185,20.9526,
-11.3339,17.3453,-5.5444,-6.7551,-23.7832,23.9446,-18.8931,-8.1473,39.3959,23.5626,11.1703,13.884,-11.5514,11.5886,
-11.6333,9.4429,-18.9336,-17.1311,-31.1781,17.608,-22.6604,-2.7575,37.0317,28.0297,1.6786,16.972,-14.7794,-1.8487,
-18.2869,-2.3949,-8.4862,-28.3553,-36.6586,9.1999,-26.6917,-16.6921,20.7098,19.9762,3.0482,13.5034,-11.4424,11.4933,
-13.2687,11.8488,2.8043,-12.554,-23.6769,15.5095,-24.1098,-7.9618,17.395,21.7188,9.727,11.7128,-9.7755,8.8443,
-5.1214,22.0315,-0.79458,2.2993,-12.9453,25.8497,-21.1924,6.6159,30.4513,32.6672,8.6525,19.3411,-10.6588,-5.7863,
-8.2447,9.4379,-2.2168,-6.4354,-20.4996,18.9083,-23.3515,0.93998,25.306,28.2574,-3.1384,15.7309,-8.5494,-6.0415,
-3.3395,12.3022,8.208,-1.6388,-10.9386,15.3231,-16.56,-6.4676,9.6876,23.1314,1.4613,10.3756,-2.646,8.421,
-3.6291,6.1737,6.2448,-1.0505,-24.3823,9.0133,-18.997,-0.68818,-4.2375,9.4919,3.8234,7.3033,-6.8978,8.5181,
-10.2721,-3.9981,0.97009,2.9335,-37.0193,10.4328,-24.7179,4.254,1.8976,3.0416,0.65384,9.8053,-9.4241,-2.7743,
-4.2654,2.6121,2.3817,9.1278,-30.1215,20.0987,-16.8636,3.5079,8.154,11.1901,6.005,7.7471,-7.3888,11.4922,
-1.5597,2.9453,10.5699,11.0309,-24.8841,7.621,-17.3226,-6.9934,5.215,11.0087,7.1155,3.8517,-4.4948,24.9026,
-13.7177,-9.483,10.4257,4.9777,-37.491,-6.9362,-23.6344,-10.9853,6.372,10.8381,3.258,2.1498,-0.79448,9.3085,
-7.0138,5.186,1.9595,-0.22099,-44.1745,7.5799,-23.1957,-0.52383,5.9901,13.128,-5.759,-1.8993,-9.5683,5.9212,
7.507,18.9748,-5.0198,7.6329,-27.424,21.2251,-17.8839,8.3281,2.6906,16.2613,-4.4331,1.1549,-9.9746,19.6659,
21.1566,31.9363,-9.1291,0.80462,-11.6786,34.0516,-21.2214,2.438,-5.8029,4.9939,-3.6771,-5.2848,-9.866,10.7568,
29.9133,44.1201,-2.2101,4.1869,-3.8924,46.1085,-17.4974,16.3918,-6.9246,-2.6569,-5.9072,-6.4385,-10.7439,-3.9886,
32.5285,55.5729,-15.3095,-10.1643,-11.9904,57.442,-27.7197,14.0503,-20.6091,-15.7295,-19.6528,-11.443,-24.1993,5.4497,
42.3389,66.3385,-8.5101,-5.7462,-7.3499,65.2258,-29.9766,7.3264,-15.5643,-8.9049,-13.6846,-1.935,-17.9583,18.8456,
46.6598,76.4582,-4.0789,2.4397,7.1911,63.272,-21.3168,7.8668,-20.5108,-9.3505,-14.8233,6.0222,-22.7621,3.6149,
52.1913,85.9707,-5.304,-7.9976,20.8596,63.8871,-5.9378,10.8254,-23.6907,-12.2201,-20.3052,8.1116,-29.7274,1.3258,
34.9598,67.9876,-10.8676,-10.4589,5.508,55.1521,-9.3911,4.295,-20.3099,-5.606,-23.0079,-2.1765,-29.905,4.1855,
18.7622,52.1462,-6.2945,4.2687,-8.9225,50.8635,-22.9277,11.8789,-9.289,8.8303,-9.8653,11.676,-14.0107,5.8947,
16.9223,45.5873,-3.4666,4.1249,-17.2086,37.5194,-24.6041,12.6355,-13.1426,-5.3096,-10.7437,10.4851,-12.0769,-8.559,
30.0069,56.0836,8.0131,9.2678,-2.0761,49.3682,-9.0278,17.2687,-4.023,-4.501,-6.6685,-0.43584,-4.9819,-22.1455,
18.0271,38.6185,0.18118,-5.3882,-7.2305,45.0477,-14.7451,2.1326,-7.2122,-8.6415,-10.6798,-12.6613,-5.173,-6.7167,
9.5943,22.2014,2.621,1.1939,-15.1282,28.2449,-18.2709,-12.0953,-3.3489,-12.5335,-2.6878,2.1984,4.4484,7.7863,
13.9191,17.7049,7.3642,10.9232,-6.3799,28.3986,-13.2541,0.16733,-4.1288,-15.702,-4.4873,2.1779,2.2217,21.4191,
13.5744,17.133,11.3333,-3.8322,0.37464,40.7946,-10.9885,-1.313,-5.3505,-3.4887,-5.6875,-8.2432,-3.3025,6.0339,
17.1704,17.5749,9.1835,-8.1246,-3.0784,39.9296,-10.8191,-14.4658,-7.4801,7.0125,-4.8563,4.503,-9.4747,-8.0496,
20.5507,10.1492,6.1818,0.69391,-9.265,34.1033,-9.68,-9.1873,-8.5012,7.0817,-8.9754,8.6433,-10.377,-14.9177,
10.0067,1.2092,1.4004,-6.6979,-19.9803,41.369,-16.4504,-0.30409,-14.3624,2.2463,-11.8675,3.7142,-1.4233,-10.5921,
-4.6937,-6.2146,-6.0358,-6.787,-26.1331,52.9868,-22.8145,-4.6973,-13.9906,-1.3191,-8.7047,14.7631,-1.8279,4.1434,
-9.9153,-10.2527,1.678,3.9116,-27.0154,58.2506,-13.1141,-10.7862,-2.8598,-2.7103,-1.8117,20.2481,-8.089,5.4766,
2.9317,4.4625,10.8888,16.9089,-28.8246,66.0268,-4.9766,0.15228,1.7228,-5.9778,3.6879,10.7017,0.72788,-8.952,
4.2256,13.6185,6.8048,22.2656,-31.5056,67.4565,-9.0885,9.455,0.14953,-12.9703,7.8771,4.6692,13.9157,-9.9966,
-2.3992,-1.2986,6.8865,24.3603,-24.2249,58.9986,-7.0733,-0.42416,-1.3302,-13.6619,7.8945,7.8196,3.7698,4.7032,
1.1754,12.8793,13.8245,26.3293,-8.6714,62.8089,2.663,2.052,-8.6016,-2.5514,0.069647,10.781,-3.8085,18.521,
-2.3257,26.2066,11.5251,13.4778,-10.4894,58.5504,1.0324,6.3394,-20.3371,-1.9083,-5.3249,-1.1375,10.5201,3.3097,
2.2248,12.4945,10.3432,18.06,-21.1313,60.4292,-0.49894,6.4494,-18.6264,-4.2441,2.3452,-2.5396,20.2935,0.77233,
5.5219,9.295,-3.5089,6.6846,-6.6314,54.3528,-5.8603,-3.2494,-20.9395,-7.4191,-11.8955,-3.8571,4.9759,10.0379,
10.5815,22.8373,2.0916,-4.9887,7.8664,48.6404,2.8219,0.37567,-5.5831,3.3165,-7.864,-0.19646,-4.7465,5.0246,
7.9863,22.5584,8.8278,1.1924,4.5657,48.6631,1.6731,9.1746,1.7245,4.0979,-1.5104,1.7765,0.43924,-9.3768,
-0.33492,9.4433,3.3967,2.1008,-9.8082,46.7233,-8.2291,5.6835,-12.479,-6.9298,-12.2015,5.5905,1.3928,-12.3567,
1.6459,5.9369,6.1335,6.8752,-23.3197,38.0395,5.987,-0.53789,-19.1928,-3.5733,-6.569,6.235,8.1704,2.4847,
-8.7437,-8.5193,2.3359,3.033,-26.5549,21.6571,1.2173,-14.6056,-9.7102,-4.8288,4.117,-8.2391,6.2103,16.4356,
-15.5707,-22.1081,7.5857,7.2611,-39.0616,6.2577,-12.9557,-27.8293,-4.7175,-13.8505,13.1814,-21.8448,5.3473,1.3495,
-4.8351,-24.9269,13.9922,20.9254,-50.8179,10.558,-15.2314,-12.0595,-3.4541,-13.9998,7.4896,-6.4341,15.8078,-12.8315,
-2.5842,-16.5701,4.3316,15.3713,-33.6688,13.846,-0.21751,-2.1364,-6.1866,-6.2986,-5.7014,7.0721,10.9387,0.68089,
-0.95932,-1.4759,-1.3196,8.0777,-17.5487,27.1152,3.8285,0.44154,-12.1866,2.4103,-4.8693,3.2171,3.9112,11.9108,
3.5092,7.0566,-0.75001,7.1036,-5.224,26.0902,2.1294,-1.0543,-12.9257,-3.1242,-1.1461,-5.3065,12.9889,5.8062,
1.8283,-5.6189,4.6849,6.187,-5.401,13.2526,16.1016,-1.4815,-7.7392,-6.3678,7.2533,0.40184,22.4999,-2.8737,
-12.3814,-10.1822,-6.377,2.876,-8.0171,11.4775,1.0355,-7.273,-11.1954,-2.0652,1.9176,4.2983,7.0499,-1.7214,
-25.7385,-2.7115,-12.856,-3.1783,-21.6361,11.7692,-13.1266,-2.9165,-10.5242,5.8993,-8.9797,11.882,-7.4731,4.2628,
-18.5371,4.3133,-12.0837,-17.0876,-33.6823,0.28132,-21.2733,-7.642,-17.7338,0.64491,-22.1624,11.169,7.0753,-4.814,
-3.3249,10.9148,-0.57789,-16.6647,-17.5613,5.1649,-5.8969,-16.0054,-12.7492,0.60622,-7.1111,6.5783,20.7508,8.2164,
4.3372,-3.4616,-0.54322,-14.6839,-2.4077,-2.9861,8.5569,-16.025,-6.103,-1.39,-5.7036,0.30235,12.645,7.7234,
-4.2541,-9.6251,-14.6106,-10.3723,11.8368,-16.0385,-3.9844,-5.7525,-16.0286,-0.81662,-19.4614,10.576,-2.2137,-6.84,
0.90206,-11.9878,-14.8258,-13.671,25.2266,-13.1159,10.3547,-9.3275,-20.9477,6.0931,-12.5253,18.7629,1.7278,-7.5214,
-1.6023,-25.3685,0.16376,-6.4799,37.813,-17.7198,20.6275,-13.1788,-13.3201,-1.6241,-6.3829,8.3257,0.15381,7.0299,
-4.4468,-19.0578,11.0476,8.0089,21.4442,-19.5963,18.41,-6.5068,-8.6003,-8.3869,-5.0191,7.8262,-0.83533,2.7994,
6.6018,-13.9938,10.3847,1.2704,28.4472,-16.4607,25.1465,-7.0963,-8.0843,-7.8837,0.18255,7.3566,13.3148,-11.4685,
10.6162,-21.4853,9.2717,-1.2566,31.1508,-19.8836,18.2473,-5.2006,-2.2079,-6.9207,-4.2389,3.4846,13.6082,0.86888,
-4.1208,-23.1373,3.8145,-2.1615,15.1818,-22.6116,3.0524,-0.96757,-0.11515,-8.4658,-8.8855,5.2358,-1.3083,5.7177,
-16.728,-26.1595,-1.8057,-3.5017,6.3174,-17.8243,2.7565,-5.321,0.38171,1.3532,-3.9419,0.51116,-7.223,-7.8578,
-9.843,-25.5699,1.2432,3.5687,20.0384,-26.5567,10.4322,-8.9223,0.35881,8.1332,-2.7254,-5.4008,0.071573,-0.52517,
-14.1529,-27.9562,2.1495,-3.5057,24.3393,-33.7843,1.9652,-14.2673,2.2971,3.7246,-2.5619,-3.116,-2.8734,3.4269,
-16.7348,-31.6697,4.4708,-8.6863,11.6072,-23.4257,0.37692,-12.9218,16.2593,4.9715,8.863,0.50108,-6.1311,-8.05,
-19.1608,-43.8695,-2.1683,-17.4765,10.4209,-33.2924,3.7854,-20.477,16.8659,-3.6574,11.7623,-1.9792,-6.2537,-14.9177,
-9.1897,-44.2894,4.8226,-15.4485,17.6362,-45.3948,5.5185,-27.09,12.9138,-3.4384,11.0561,-7.7413,-3.9182,-15.003,
-0.30724,-27.5321,8.9437,-0.42157,19.0288,-42.783,6.6573,-15.1728,20.47,5.0989,16.764,-11.6873,-3.1922,-21.4539,
-14.3888,-27.7285,-5.6929,-9.1049,9.066,-44.1366,9.1985,-17.2031,18.2619,-6.9687,11.8376,-10.9861,-7.902,-12.3256,
-20.0091,-18.2237,-0.073285,-9.5385,7.5412,-45.4089,22.7466,-23.0321,15.2055,-6.5505,11.1273,3.3946,0.41319,2.5139,
-14.3971,-14.6796,0.422,-7.4964,1.6983,-44.1543,22.474,-18.2196,3.0224,-5.6676,7.0291,-4.1593,-3.0422,-6.3465,
-5.2022,-7.4285,4.8072,-2.6351,12.8681,-28.2735,25.5361,-3.0264,5.2908,-9.738,15.9193,-4.3997,2.5317,-19.1972,
0.010382,-3.0622,4.5188,0.46268,7.1951,-26.5771,24.9838,-5.6731,-3.8477,-22.8761,9.0828,-9.0371,0.41903,-13.1449,
7.3609,-3.3685,8.6581,-0.055036,0.39264,-24.4925,23.9748,-10.7231,-6.0675,-12.1917,4.1273,-15.8461,-4.0166,-0.10461,
3.9786,-8.0668,-0.6833,1.9081,14.0906,-13.222,16.6559,-4.1994,4.0974,2.6398,3.8788,-11.9547,-6.7163,-1.0782,
5.2107,-13.9541,-4.072,4.2443,24.5178,-6.0565,20.0671,-2.4766,8.263,4.5536,4.1369,-14.668,-0.92195,-15.1135,
6.8579,-23.8986,-0.88794,-3.8515,8.9467,-19.7931,24.7434,-6.2495,2.8659,-0.62007,4.8686,-26.5295,2.0731,-22.1602,
-2.865,-26.8756,-14.9347,-10.972,-5.6901,-30.48,11.0077,-11.2654,-1.7161,-1.0733,3.1062,-14.6464,-3.4422,-6.7306,
-7.1032,-23.7918,-19.5404,-11.7831,2.2677,-18.3599,8.8769,-11.079,1.817,0.46144,3.4102,-6.4169,-1.7653,7.7732,
-0.30668,-15.994,-4.268,-3.7249,7.523,-15.7875,17.6552,-2.0832,-0.7418,-6.9174,-0.225,-12.4022,-3.1293,3.1201,
8.0432,-0.93436,6.3909,-1.0512,16.383,-12.39,20.027,12.1418,7.6333,6.7296,6.1593,2.4419,-5.3917,-11.1671,
1.6798,-2.7267,-0.85334,-6.869,9.5183,-10.6672,11.9637,15.4462,16.9767,15.1473,6.7701,6.3274,-6.0486,-13.5491,
3.5388,-2.5622,-1.782,4.3249,-3.7944,-7.0865,25.3459,15.4993,2.2366,5.4175,-0.49731,0.067392,-9.6062,-4.8951,
8.7179,10.8231,3.7153,4.5554,-2.0964,-8.1312,37.9251,14.0794,-11.9976,1.6618,1.0024,3.4939,-8.5399,9.4986,
4.7642,12.6235,2.0225,-4.0499,1.4595,-17.9351,38.815,6.8634,-7.9595,-0.88858,1.4331,4.7542,-8.5175,17.3721,
-0.42306,1.0852,-3.9801,-0.86629,-10.3897,-17.8389,29.6249,0.57125,0.35919,-7.6965,-0.6136,6.4297,-1.1452,15.349,
-6.278,-13.0799,-6.682,-1.7942,-23.8663,-21.67,22.946,-13.1854,-7.5035,-21.3347,-1.5567,-3.758,3.8239,9.5276,
8.1986,-5.0563,6.4614,11.055,-8.3343,-13.5076,24.5099,-6.513,-9.0131,-22.6167,0.49652,-8.4329,7.5151,5.0354,
12.2296,3.0882,9.0144,11.3725,6.2657,0.044391,34.801,7.9778,-3.5718,-19.2999,5.3681,-7.927,7.0642,-9.3668,
-2.6042,-10.3291,-0.83789,-0.58199,-7.7198,-8.2898,29.2828,0.74979,-4.8278,-21.572,7.4963,-18.7235,2.2293,-12.8372,
1.8507,-14.1198,6.5635,1.9036,-9.7068,-17.1034,13.4258,-4.6856,1.8331,-13.9065,-0.30467,-28.8709,0.62572,-4.7158,
13.0109,-8.8626,20.2697,1.299,4.9756,-6.7657,13.9782,8.8275,12.9943,1.0279,-8.6179,-25.6692,-5.7826,-14.7242,
7.3298,-3.4295,14.265,-3.6794,-5.9928,3.4411,20.0007,7.318,6.3334,6.9585,-5.1602,-22.1684,-8.3763,-11.8809,
3.9493,-2.2438,4.5871,-6.3993,-19.7333,-8.527,14.8801,-7.2211,-5.8083,0.66062,-1.9109,-22.799,-3.9532,2.9319,
13.5142,3.7712,11.1731,-2.0948,-4.4493,-4.0948,19.8677,-3.4696,-11.3402,-3.3005,-2.7761,-7.7086,-9.5973,6.299,
11.233,4.0354,6.0917,7.3423,9.9177,10.2509,20.1459,10.8386,-6.2497,-1.6321,3.7612,0.10456,3.2306,-7.311,
-3.5409,-8.9483,-1.134,5.9219,-4.7774,19.5495,6.1956,18.1413,-1.9532,-0.55338,5.4963,-10.6825,17.1368,-7.8522,
-7.8513,-7.4315,3.8345,4.5857,-10.862,4.2766,13.665,7.2509,-5.7575,3.4004,-1.6947,-8.0818,21.6114,-10.3217,
-8.3606,-7.966,5.5647,-5.4908,3.8897,4.398,23.6264,-1.0248,-11.2929,1.2361,0.36728,-4.6567,6.2147,-7.7421,
-4.4284,-17.7789,9.6413,-11.5317,9.6505,6.5849,16.8184,-1.4532,-9.1445,0.67196,5.7366,-3.8864,-7.0117,6.8224,
-10.5335,-23.0839,5.6327,-5.4489,-5.0286,-7.9102,10.4184,-2.8364,-10.0662,3.0819,-0.97839,-3.1637,-8.0613,13.8761,
-19.7029,-23.6591,2.3536,-1.2019,-6.7999,-16.3699,11.7536,-6.5872,-8.4818,-4.9446,3.0004,-12.7753,0.26304,4.222,
-9.6997,-19.2989,5.153,5.7315,-5.4116,-9.5064,11.0484,5.5706,-7.9729,-10.5283,8.7017,-21.8106,2.208,-10.1313,
4.9823,-13.2401,4.8434,5.3871,-2.1467,1.8452,20.1868,19.3364,-3.5745,-3.0359,3.2786,-8.7399,-3.8053,-6.2047,
4.3058,-16.3658,7.4939,-1.7969,-5.9385,-1.2057,17.0154,11.9173,-0.41889,-5.7939,-1.819,-6.2552,-3.5775,-7.7927,
-5.264,-23.7153,8.5146,4.6827,-11.9525,-13.3845,4.7232,-0.068971,-0.88418,-8.8764,3.681,-14.2105,3.0089,-19.5763,
-11.8084,-36.0139,0.16262,0.48115,-16.1362,-20.4225,11.301,-3.0055,-2.7909,-3.4434,11.3013,-5.5167,6.7489,-4.3017,
-13.0611,-42.6745,-4.7481,-1.508,-16.1484,-18.2177,17.4837,-3.8055,-5.5646,0.68333,6.7031,0.6951,7.3244,10.0564,
-8.8464,-30.8026,1.9076,8.8738,-4.8877,-8.7931,13.9844,1.8137,1.141,6.0332,0.91004,3.1036,7.3744,6.2462,
-3.9051,-23.5641,4.2438,6.8706,-2.1442,-4.8349,13.6353,1.2149,4.5022,12.0425,6.2458,9.2877,4.4822,-8.2286,
0.74017,-19.7,4.4796,6.9488,-3.4859,-1.1147,16.2473,1.6315,-4.0985,7.8898,3.4209,13.1414,0.78216,-8.3367,
1.1857,-19.9879,6.6606,4.0812,-2.7868,-9.3789,15.7624,5.9441,-8.2641,2.0251,-10.0159,0.10133,-1.7145,-6.3666,
-0.8457,-17.8091,6.2614,9.7171,-0.65931,-15.6769,13.8373,10.4884,-6.7878,7.7844,-7.4547,-3.8258,1.3285,-11.8655,
-1.7753,-12.8196,-5.8764,10.1145,7.2214,-10.8162,4.1855,4.9582,-11.2815,3.3972,-4.0672,8.1659,-3.6521,2.9465,
0.29146,-0.28921,-4.5434,-0.29378,12.6694,-0.36583,2.954,5.6411,-8.6443,4.1728,-2.8437,21.3979,-6.3732,16.8697,
1.2534,7.5697,1.61,-8.1177,3.0873,3.5771,3.7572,5.3021,-10.0859,6.8636,-4.6334,6.3921,-4.0305,8.2406,
3.6294,8.5859,3.9636,-8.1202,11.2336,4.8328,10.8824,6.4543,-5.0698,8.902,2.9962,-8.0914,5.5228,-6.3538,
4.8819,8.5611,-0.68421,-7.1425,21.8313,1.1127,15.6204,7.5383,2.586,10.8181,5.2667,5.5141,-7.0607,-10.4954,
9.489,0.20589,-2.6044,-9.6551,9.7396,0.064663,15.6635,3.165,8.3107,9.1886,6.911,11.0632,-15.4585,-7.9054,
7.9398,-13.9065,3.4332,-10.0557,-4.9448,-3.8588,13.7438,-5.8459,5.8523,0.79622,8.4571,-3.7006,-0.43101,-10.3718,
4.5232,-21.516,6.1674,0.34904,1.6108,-13.4296,14.8794,-6.4755,-0.37969,-2.1917,4.0286,-6.0402,11.9584,-18.5709,
-0.15917,-8.9528,-1.5534,-11.924,-4.8566,-23.8951,4.6752,-1.676,-3.787,0.39,5.2572,5.5934,2.9103,-22.8466,
-6.0309,-15.2769,-4.4008,-14.1492,-17.3073,-17.5609,-3.4473,0.38435,-6.5005,-0.61331,4.9418,6.2377,-1.1849,-7.3758,
-10.5691,-20.2411,-2.1765,0.79976,-11.3684,-7.6858,2.6404,0.36082,-4.1502,3.3436,-0.25565,3.9032,0.84646,7.1667,
-15.3253,-26.3768,3.3455,4.7851,-19.0169,-17.5155,1.013,0.83005,8.3505,5.5937,2.2104,0.23933,-1.655,-1.371,
-9.5058,-30.676,10.0055,5.4775,-23.7571,-22.3463,-8.8501,11.5615,12.7504,4.2777,15.7997,3.1652,8.2457,-15.3888,
-8.445,-25.4044,4.9942,2.6986,-8.2317,-16.5946,-8.8086,13.3181,5.6146,4.5114,18.2819,9.346,8.2413,-21.4381,
-9.8982,-16.039,3.7146,-8.2441,-0.76424,-12.6583,4.4615,3.698,2.337,0.32019,3.0849,11.7259,-6.3531,-6.0518,
-3.4239,-2.3351,9.3721,-4.8098,4.1821,-6.9983,13.0148,11.3172,-8.5849,-2.6397,-11.2002,3.1813,-20.072,8.4113,
1.1925,2.216,11.26,-0.11022,-2.4396,-2.1674,5.8632,19.9496,-22.1698,-1.011,-7.3218,-2.4005,-4.7676,-1.181,
3.0812,-0.85808,8.6241,5.7772,-16.3933,-4.9785,-6.2498,17.7723,-19.9712,-0.95078,-0.020816,5.5842,9.6184,-7.9709,
-0.044286,-8.6468,9.0875,5.4306,-29.5097,-6.6396,-8.8155,14.7461,-5.0514,-2.8535,-0.99947,14.0711,10.5112,6.6074,
7.799,-14.0097,14.4231,4.1244,-41.8391,-2.3211,2.4947,14.8408,-7.6885,-1.702,0.039935,18.1268,2.0399,20.3109,
10.2722,-14.1486,4.7362,4.8573,-35.2548,-12.9632,-3.5358,13.9508,-18.0085,-0.6204,-1.9227,17.0397,-5.9241,7.5544,
6.2243,-7.9093,5.9219,8.9764,-31.6692,-15.616,-11.6547,22.4247,-3.6965,0.88762,3.583,16.5072,-6.0586,-6.9989,
1.4408,-10.8658,6.057,11.8679,-40.0604,-2.4269,-17.3262,19.6089,-4.945,-2.5967,2.8786,6.2054,-5.2047,-16.9826,
2.8247,-17.5645,0.30272,13.607,-34.2262,2.1296,-15.7962,14.0223,-18.7483,-1.9505,2.2164,11.2239,-2.4422,-1.8637,
0.69447,-23.3718,2.2444,12.7897,-23.3521,-11.7205,-9.9489,6.3189,-23.6166,-1.8335,6.003,12.5103,2.6048,12.3481,
2.1231,-20.4992,9.4613,19.3739,-22.4404,-16.4082,-7.8816,8.3909,-8.0996,-2.2139,5.1533,1.4683,4.8988,15.7525,
4.446,-13.8784,8.4032,14.7813,-26.4849,-5.1324,-14.7594,11.3176,6.4864,-0.61071,-0.54674,3.8305,5.0953,0.70738,
-1.7012,-12.0658,0.057927,10.9538,-20.9752,-0.90386,-21.715,10.6385,-3.4799,-2.5339,1.4459,11.4427,5.7694,4.4736,
-0.61918,-20.1628,5.9357,15.197,-14.8158,-8.6907,-15.5107,8.0404,-1.3104,-5.3225,12.1409,9.7753,7.384,17.9267,
8.239,-15.0325,18.3212,17.2259,-6.0857,-8.1693,-8.6997,8.5379,12.4897,-5.9831,13.3732,4.2883,5.9601,2.7511,
13.6255,-0.030565,7.4205,15.2119,6.0411,6.4209,-12.0987,9.9859,5.8595,-11.5058,0.80865,-3.8106,-8.4975,-11.514,
16.239,5.964,1.5844,0.19922,6.1686,4.1872,-7.9417,7.9164,-1.8428,-16.2054,3.2104,-10.9326,-18.8808,-1.736,
8.403,-8.1158,5.4104,-4.8256,-7.9235,-10.164,-6.4858,0.58069,4.1486,-13.2728,10.8593,-5.3757,-3.6479,12.0901,
5.4491,1.6831,5.5757,3.796,-6.9577,-9.6661,-8.5464,4.9564,11.2509,1.6235,12.6585,9.0468,10.6709,-2.7353,
9.5326,-6.7499,10.6316,-2.804,-1.1498,-5.6555,-8.5245,3.1882,6.1644,3.1083,9.4473,9.1054,-4.0693,-16.6712,
19.2529,-13.6947,20.2859,8.6374,9.2115,-7.7664,-4.581,7.4088,5.306,-6.3896,9.3718,11.0102,-5.6736,-7.5632,
11.7256,-11.4041,8.777,15.4694,11.1085,-9.7511,-8.7176,9.414,-0.40469,-12.3775,7.3387,11.8195,8.7669,-13.4806,
6.612,-12.1892,5.8001,14.0508,11.9124,-4.7551,-9.6649,7.3789,-0.86989,-10.1645,11.3094,3.7596,10.8034,-26.7718,
10.6258,-8.0282,14.7631,14.6776,23.4488,1.9006,-9.5749,5.4653,-1.3076,-5.1441,10.1399,-5.7779,4.7639,-11.0655,
6.5576,-3.1351,9.4668,5.4668,19.5921,-3.603,-7.5297,10.5288,-4.6598,-6.3053,4.1411,-6.9011,2.0283,-0.11021,
6.6546,0.48317,0.56726,9.5488,10.085,-0.93748,-4.6286,23.129,-2.9099,4.3643,2.4223,5.7642,-11.3254,1.3667,
2.3352,-6.4066,6.415,7.9965,8.5005,8.9211,-18.4509,14.8805,-9.596,9.0034,-4.5837,3.459,-18.4865,10.1062,
11.5056,-1.6121,20.1301,11.9267,20.2416,12.7959,-16.4753,5.6562,-11.4714,1.1116,3.042,-7.0408,-9.0467,8.0295,
16.2066,8.7764,7.7625,10.7212,27.3586,-2.0719,-2.2544,4.8269,-6.3717,-5.3254,1.3896,-4.1677,-6.0532,-6.5523,
8.373,8.2498,-3.485,2.2368,12.9755,-4.9997,-9.9602,8.4578,-8.93,5.7758,-12.4153,6.8641,-11.5713,-3.3308,
9.8309,5.7946,4.5647,7.0035,-1.5254,6.0816,-21.1247,14.8111,-21.1363,12.29,-15.5914,3.5112,-20.6784,3.7297,
16.1023,1.5263,5.2717,9.5239,-1.4334,5.7167,-14.9568,11.9626,-13.9868,3.7115,-0.55588,5.2612,-9.6359,-3.3543,
8.2745,-7.3867,1.0343,1.1109,-3.3081,-1.487,-13.079,3.4033,-3.3462,0.54865,11.841,7.8857,5.0423,-4.1334,
-6.322,-13.3143,6.3632,2.5146,-2.6197,-1.8882,-14.7445,6.6301,-3.6359,0.025308,3.7798,0.061905,13.6731,3.4653,
-3.1139,-14.4757,11.8627,10.2048,-4.4228,-5.6955,-6.9986,11.1328,-0.47706,-7.8173,2.5731,0.058192,-0.86968,-0.6632,
4.9145,-11.6469,8.2098,15.4734,-11.9985,-6.3341,-9.5198,11.4452,-1.4288,-6.3679,0.45847,8.8762,-0.81704,-9.4449,
3.1488,-10.4577,-1.5938,6.2139,-6.8681,3.3578,-10.4185,14.1882,-5.7536,-3.5361,-4.9604,1.9724,0.70185,2.3935,
1.4891,-7.3804,0.95163,2.4105,6.776,6.586,-5.3829,9.9063,-4.9184,-0.87321,2.6884,1.3641,-8.6522,16.3499,
-3.9902,-7.4271,3.3448,9.6165,3.9192,0.79998,-15.3512,2.9411,-3.153,0.64951,3.9974,11.5736,-8.6225,14.0109,
-1.3005,-10.4121,3.6345,10.5099,-1.7069,1.2424,-11,15.0167,2.4271,4.0407,5.2279,6.4691,3.1661,-0.92971,
5.6382,-8.8075,-1.4845,9.8797,-4.5451,-6.6728,-3.4793,10.1947,0.32117,-4.0424,0.9932,-3.7214,2.9766,-9.8073,
0.88942,-4.8484,-7.7657,8.797,-1.8217,-4.8026,-7.681,-1.6878,-1.1689,-6.2506,3.3843,2.8732,0.34728,4.8811,
-5.5352,-7.0082,-3.8701,-5.8308,1.7177,4.7966,-7.7101,7.7245,-0.60881,-7.3454,-3.19,2.2108,-1.1434,14.9915,
6.559,-7.5676,5.1836,-4.613,-3.2858,0.58868,1.574,9.2213,-7.433,-9.8458,-7.8995,-1.8428,-2.0552,3.3107,
10.0856,-16.9149,1.9324,8.4049,-16.8106,-13.5466,1.4791,-5.432,-9.9277,1.5272,5.3165,7.0892,-0.9515,4.0924,
-4.6195,-29.622,2.7968,11.8217,-24.6234,-14.3161,-5.4704,-3.7476,-1.4909,1.4351,5.9779,15.4853,4.0056,12.6674,
-6.4136,-20.4935,8.0199,7.6822,-9.9136,-8.0662,-1.7111,8.7293,2.0296,-8.9423,-3.6922,10.1462,9.1571,-2.1926,
7.2023,-8.9726,17.83,5.751,4.7813,-6.1119,9.6628,4.7745,-1.5232,-3.0154,0.94027,4.1456,11.0569,-14.4245,
0.88883,-22.5342,12.8387,8.3456,-0.29512,-5.7461,3.2017,-1.3933,-12.2136,-4.7947,-5.9774,5.8576,3.5323,0.54092,
-5.5348,-33.0562,7.6584,6.3755,-14.3774,-6.8708,-1.4004,-1.7992,-14.9109,-12.8381,-7.089,9.9171,8.7122,14.6085,
3.1279,-19.8011,8.6687,16.2838,-1.375,-5.9686,5.0539,-1.2013,-9.6058,-6.6774,2.6473,2.9508,9.6593,6.1146,
3.921,-7.8308,11.0902,27.0694,8.5098,-1.6899,3.7717,2.7913,-3.1481,1.5653,4.4492,2.7738,-5.0202,15.5496,
-8.5663,-15.6925,7.9741,15.1534,-6.1008,-5.0191,-0.86603,-3.7474,0.47091,-8.8205,-0.22828,7.0179,-3.8505,8.2454,
-3.6416,-13.2808,7.0054,15.7138,-14.1784,-2.2675,2.6163,3.8288,5.8338,-6.8211,8.1162,2.1861,10.4805,-6.3493,
1.4778,-18.3648,9.5253,13.7916,0.77229,-6.052,-0.48086,8.5005,9.4043,2.4096,16.4507,-2.8456,19.7652,-6.08,
-1.5513,-30.0047,12.8741,15.9045,-0.63225,-8.6293,-2.4125,-5.7322,7.8599,2.2648,19.384,2.2259,14.6585,3.106,
-9.7895,-32.6152,7.6914,13.4797,-14.6943,-8.6017,-3.7379,-8.8186,1.9977,0.65882,11.8509,7.483,22.1103,5.3706,
-15.0827,-27.7179,3.3096,-1.0513,-13.9245,-18.8671,-8.4143,-1.4285,-1.0626,-2.3211,0.35832,8.0141,6.6836,6.0285,
-0.077741,-11.9548,7.522,11.2639,1.0109,-10.384,6.1906,9.9289,7.3322,0.26884,5.7277,13.905,-7.8174,-5.6054,
-1.9217,-5.2445,1.1887,14.5079,-1.8783,-7.8009,13.7719,2.4722,-0.94907,-11.5097,3.4226,8.1695,1.7388,-19.3691,
-15.9064,-19.0299,-1.3324,10.2078,-13.0373,-11.7433,-1.1544,-1.1067,-8.2428,-21.1099,-2.1732,8.1693,15.7345,-4.5971,
-10.1632,-16.0399,-3.2125,11.5549,-4.4142,-8.0983,-12.9585,2.88,-5.7882,-13.9628,-4.0028,10.6196,16.8624,5.4799,
-7.5931,-13.1173,2.8606,5.9611,-6.1091,0.22869,-5.3198,6.6278,-5.4409,-7.2442,-1.8024,6.0618,6.0497,-8.9489,
-6.6474,-19.6811,7.0997,10.995,4.549,0.70516,-2.5501,7.7011,-12.4654,-14.1604,-6.105,1.2874,-0.68428,-5.583,
-7.7186,-18.9905,-4.5973,10.825,18.3761,-2.7675,-3.8677,6.7489,-18.0885,-18.7014,-11.1293,8.5615,-1.1334,8.852,
-20.4875,-25.2017,-7.7521,5.765,9.0546,-7.9923,-8.0461,0.95258,-11.6123,-9.2483,-6.0511,7.5579,-0.57545,15.7837,
-10.437,-14.8688,2.5142,14.2404,10.4713,1.3084,-4.6229,7.7569,-2.0943,5.0283,5.094,8.0846,4.3598,0.73665,
-0.98929,-8.0954,-7.4376,-0.71404,21.6047,3.1902,-6.3058,4.3508,-6.8691,-8.9949,-3.0532,5.6387,1.1585,-13.4075,
-7.3009,-21.7097,-7.4815,-1.7637,10.0169,-4.3521,-6.4177,-2.2813,-10.8677,-15.8066,-6.3004,1.87,3.5385,1.4969,
-8.333,-24.93,-0.66158,7.6538,2.0649,-10.462,-5.5424,-4.5949,-13.646,-10.4474,-1.5116,-0.69262,5.7766,10.6064,
4.9088,-9.3342,5.2582,2.2939,13.7029,-1.013,1.6511,4.5021,-10.8672,-4.9199,-3.3814,3.2697,2.4901,-4.13,
-1.2666,0.64944,1.0227,0.19596,-0.84166,4.9286,-0.40824,16.9745,-7.2745,-6.585,-9.0594,9.9347,-9.4214,-12.3254,
-12.9527,-13.4895,-2.9597,8.0248,-14.5131,-3.2083,-4.3043,13.0149,-4.8778,-10.1104,-0.67471,15.2195,-10.8164,2.5141,
-13.6454,-18.6733,-9.1529,7.0539,0.45769,-7.4263,3.3051,-1.866,-17.8176,-13.9148,-5.0447,5.9748,-9.6775,9.3369,
1.2733,-3.4529,2.1775,6.6302,14.5302,3.8006,17.2068,-4.8066,-17.7284,1.0201,-6.7023,6.5967,-3.216,-5.3234,
5.2294,1.767,10.3784,2.8022,24.664,-3.7786,6.4854,3.8129,-13.2341,4.9918,-7.7705,10.6109,-7.4336,-0.21585,
-0.96498,-12.0607,8.7756,8.5152,9.0841,-7.4722,-8.0038,5.5446,-2.6384,-2.1687,2.4973,6.0539,-1.1065,2.7375,
-1.3977,-21.6291,12.6598,17.3145,-5.5609,-4.5734,-0.77515,1.7816,11.6199,-0.56845,16.4475,-2.6406,12.1917,-5.758,
2.6067,-22.2916,15.8203,26.077,-9.862,-5.2794,7.1125,1.6747,11.0343,4.3661,19.4929,-1.5018,16.3606,-14.234,
14.2122,-8.2123,13.8909,28.4337,-0.44906,1.8984,3.7453,3.5342,7.4319,6.0647,15.3829,-4.3521,20.2797,-22.2012,
13.3594,-11.6401,14.0378,14.9655,8.3994,3.7447,0.5804,0.38199,3.0654,-3.1207,7.5992,-4.091,12.2022,-19.8888,
0.79645,-16.8223,13.1953,8.187,6.9153,-0.40027,-1.4149,-0.62107,-4.9599,-6.8538,-0.69813,10.2545,0.6885,-13.7948,
-3.1721,-13.8529,8.4838,6.7156,5.5202,-3.3167,4.551,-0.58404,-1.7219,-1.5419,5.2248,8.2808,7.5082,-11.9869,
9.76,-5.1804,6.0138,16.1143,15.9705,-3.1179,11.1389,4.3517,3.2826,1.4911,7.8517,-2.0172,12.9383,-5.3867,
9.1746,-10.7507,-0.22719,8.2865,9.1317,-4.8909,0.66898,5.0707,-7.6963,-6.4397,-6.3415,-1.8964,3.3407,-19.1635,
3.2335,-19.4168,5.1771,-2.5023,2.2128,-1.167,1.119,6.237,-8.7047,-14.3842,-1.5503,0.66784,17.2403,-32.1137,
5.4897,-11.881,3.3961,4.0186,16.18,0.3733,-2.3787,-1.4883,-12.5929,-17.9321,3.9336,6.0186,27.5902,-16.0868,
-5.6212,-2.3465,-5.6293,-4.0634,25.1227,0.35067,-7.1367,-8.26,-17.7184,-11.955,-8.0643,19.7575,11.8348,-1.0216,
-14.5953,-13.4774,-6.761,-6.2698,11.3637,1.8,-5.2382,-6.2941,-16.1649,-5.8468,-10.0307,16.7239,-1.7295,13.1397,
-6.8591,-15.6096,-0.47519,8.2064,14.6022,6.5926,-7.8643,3.8847,-10.2947,-4.5164,-0.60759,6.8988,12.4743,-1.7487,
-1.0565,-15.1628,3.9641,15.6666,14.2163,5.7069,-6.9022,3.1615,-12.127,-12.5767,1.8793,5.0148,18.6985,-7.5248,
0.47725,-17.6836,8.1367,14.2366,1.1112,0.95398,-2.0776,1.5019,-15.8099,-24.0737,1.2766,1.2837,3.4765,-9.5236,
0.44815,-9.7618,10.5887,17.3034,-0.91572,4.8173,-5.8735,9.2524,-5.0604,-18.7087,7.0804,2.1866,5.1163,-3.0718,
3.3619,-4.2752,14.8543,14.3049,0.11959,8.4488,-9.4416,7.7174,7.0053,-7.7848,8.6163,1.0755,14.6107,-12.6884,
2.6702,-7.4493,14.453,15.8964,1.5823,5.4917,-6.4249,0.88356,10.9955,-7.8077,6.629,-4.3799,1.4825,-22.2189,
0.059803,-5.532,15.0561,13.4723,4.9179,5.6521,-6.5294,6.2214,14.7463,0.011949,11.6221,7.1546,4.8241,-6.7858,
4.9567,5.5812,9.2523,7.7635,6.5831,5.313,-8.0979,12.7089,9.941,7.8519,9.9444,17.5066,13.3557,7.4557,
12.5006,7.2073,-2.0839,3.3778,4.2281,2.0538,-5.6515,4.1055,0.52373,-1.44,4.4471,5.6747,6.6738,-7.0917,
9.7903,4.8141,4.9014,10.0354,7.895,3.8908,-10.2133,-0.061417,8.3334,-3.3139,11.0415,3.3739,6.2733,-20.7662,
7.2426,5.5052,11.4685,17.2744,20.1628,1.6971,-3.7197,6.803,14.6941,0.80503,15.2794,17.2715,7.8567,-5.4202,
6.3181,-3.1562,5.3896,10.8471,22.3837,-9.6764,2.8743,4.9245,5.4814,1.2471,13.8727,16.3471,2.9753,4.5943,
5.939,2.914,4.0863,12.157,19.0804,0.70554,-0.23838,6.5893,5.1525,7.0531,16.9609,3.6046,9.658,-4.5029,
-2.7484,-1.6713,-3.5101,8.9769,9.6045,2.1335,-1.6944,-2.1371,6.3137,-7.47,13.4935,-10.7117,14.4689,-10.6035,
3.2969,-8.4323,3.5613,11.3785,16.8693,-8.7762,10.1689,-8.8701,14.7559,-20.8561,15.6241,-12.1411,13.6003,-14.8682,
-0.82126,-4.0055,-0.57318,2.8553,24.6784,-13.1504,0.73754,-7.3577,18.7713,-5.5048,11.7457,-14.3531,-1.3157,-14.9562,
-6.6528,3.096,-3.479,-9.0781,18.2973,-6.48,0.69329,-1.035,23.5258,6.2098,17.9027,-13.4919,1.1018,-6.2173,
-4.7833,2.4203,-9.6406,-5.1028,16.709,-12.4625,4.0823,-8.324,13.7832,-6.4149,13.3979,-12.1924,2.5065,-19.0762,
3.8347,12.5664,-13.4731,1.5741,29.8065,-6.3239,-0.57361,-11.2552,11.4859,8.07,9.163,2.6391,6.7661,-7.6403,
4.5848,9.8519,-6.7841,-6.3612,19.3087,-0.063825,-0.53897,-11.56,18.6376,21.6858,14.4938,12.3943,11.2609,6.9181,
2.8396,2.8898,1.9542,-8.43,4.0502,-7.4109,4.884,-12.3365,12.1287,13.7477,15.0952,6.26,5.195,-5.1468,
5.1195,3.2068,4.2877,-6.4543,8.106,-13.337,8.0216,-10.126,6.9905,24.1946,15.6593,8.3346,9.2938,-18.938,
5.3025,6.4448,-4.3013,0.30442,21.7197,-10.0864,3.1295,-7.0684,2.1603,21.2728,3.4483,3.4238,5.3058,-7.622,
5.9642,17.8197,-5.0232,0.28615,18.5683,-2.6204,2.9418,-3.7037,-4.83,5.8964,-7.5404,7.1394,-5.7943,6.9353,
6.0966,18.2211,4.5894,-11.0025,11.0832,-2.9529,3.2555,-3.9717,-6.0103,-8.2914,1.2433,14.0624,-7.8971,13.4925,
5.7308,9.2867,5.2949,3.3791,9.4383,0.16442,2.0802,-3.7334,-3.6894,-1.9131,8.0299,10.278,6.2992,-1.417,
-1.964,8.2394,1.5459,15.4282,10.3421,0.64474,8.326,-0.078983,0.9422,4.5722,6.0776,2.3099,15.2324,-11.246,
-13.6083,9.7053,-6.388,1.761,16.5823,-10.1757,6.8465,-3.0144,4.8062,-2.5628,6.6928,-2.7296,6.4774,1.1909,
-9.8509,9.1227,-7.9643,-10.1071,20.4885,-8.585,-2.3855,-5.774,7.4583,-10.2504,4.3317,-7.4665,6.088,4.0599,
1.0317,12.0062,6.6136,-6.0693,11.9078,1.2417,2.1683,-5.9177,8.4813,-3.2644,-1.3189,-12.4091,0.33209,-9.4159,
5.8703,22.0671,10.249,8.0168,22.955,4.1074,10.8592,-5.5627,7.972,2.8123,-5.1612,-11.6646,-9.4892,-1.0099,
-0.85295,15.3524,-4.466,-0.79553,35.6777,-1.5297,2.8568,-9.6396,7.9838,-3.7274,-1.4207,-12.4348,-9.4101,13.1507,
-0.31136,7.0801,-7.7407,-10.0592,19.4373,-0.94793,-2.7055,-5.6307,7.0149,-0.072708,5.0353,-7.2782,-15.2162,12.9642,
5.5879,7.6355,-5.3158,-3.5746,4.1711,4.0096,1.3776,-0.39213,1.6933,14.0317,4.7339,7.2585,-15.2834,-1.9136,
0.84214,-0.17382,-13.3283,-5.8108,-0.11188,-2.6017,0.80452,-0.85855,-4.7791,17.222,-1.9214,11.836,-6.0353,-5.832,
1.7718,4.7373,-4.6873,-6.4423,0.87497,-0.48558,1.7364,1.153,-0.57204,14.2286,-6.7073,9.1653,-4.6931,8.2401,
7.0561,6.9035,-1.9556,-10.4665,-0.64762,-0.94616,3.1028,-2.3465,3.873,15.8254,-8.7548,14.0061,-13.7227,1.3752,
6.6327,2.5688,-6.7392,-8.8582,11.1529,-4.8104,-0.024049,-2.2058,-7.1411,8.9945,-4.309,14.1461,-8.9788,-12.8073,
3.2946,16.1366,-3.3937,5.7733,24.5837,4.2997,-1.9829,12.0266,-10.6327,2.5745,4.771,8.3964,1.3613,-9.701,
-1.3138,22.5198,-8.5812,-4.2628,20.2802,7.4721,-5.2943,10.4368,-9.505,-3.951,-0.90633,-5.3391,-4.1105,-4.7082,
4.1554,26.559,-13.4577,-8.4175,12.6926,6.5338,-3.5068,-4.2895,-7.4644,0.69658,-3.3026,-4.5284,2.5064,-3.9358,
3.4161,26.4358,-7.2593,-2.5216,24.1826,1.7313,0.13424,-0.71338,-1.6257,1.1447,5.227,-5.7275,12.6474,-13.991,
6.6418,18.4789,-5.3535,-4.8205,22.2417,2.1173,0.61661,2.76,-0.057814,-6.2751,4.4239,-11.7546,11.3991,-14.6218,
20.3433,23.2507,-9.9325,-11.3923,20.907,1.9901,-5.3015,-5.2469,-10.8363,-4.9185,-4.6632,-12.0295,0.91349,0.35547,
26.096,30.1872,1.9347,-12.1791,27.9841,-3.5197,-2.5331,-7.3823,-4.7953,4.6881,1.0075,-8.8575,-1.5916,8.2874,
14.2391,20.0447,3.2892,-8.9979,17.9738,-9.6796,-1.891,-1.5487,5.784,5.8774,-1.503,-14.6966,-5.9068,-6.3099,
13.3838,16.8817,-6.71,-11.3986,10.0341,-5.1783,-1.7775,7.3657,4.4566,3.564,-7.2941,-12.8349,-7.5131,8.1687,
12.0909,13.4186,-6.7969,-17.0855,7.9622,-8.2982,-5.1015,-3.3681,-8.0624,-10.7499,-9.3067,-9.6145,2.2491,19.4405,
8.9152,17.024,0.96207,-6.7494,14.8357,-12.2108,-0.38439,-7.5765,-9.0485,-6.7862,-5.3177,-5.6071,3.5849,4.1741,
4.9499,12.5722,5.3142,-11.7346,17.3759,-23.73,4.0489,-7.6121,-9.9762,-1.9683,-8.429,-0.85991,-10.7302,-10.1764,
2.2024,10.3477,-1.3748,-7.5997,6.0418,-17.8954,-5.5052,-1.7638,-15.7482,-13.1216,-13.3144,-5.2186,-21.47,-23.6658,
2.0703,19.5283,-10.1142,4.6179,-1.1815,-2.7217,-12.0356,9.1229,-16.7635,-10.3741,-9.5749,-8.8265,-6.4603,-27.4829,
-0.99434,20.3166,-8.5272,-8.4014,-6.9917,11.5416,-12.2936,1.7145,-19.6785,-0.93037,-12.9207,-5.3565,-13.9135,-11.7339,
-2.405,16.6469,-2.6252,-6.4275,-7.0626,16.464,-9.1062,-5.7395,-18.9882,-7.2458,-13.6162,-5.5251,-12.5888,3.0701,
0.67995,20.549,2.4332,6.7002,-0.75753,29.5762,-1.6987,8.3268,-10.0078,-14.6522,-2.018,-9.1141,-3.012,15.362,
0.14897,25.6871,-4.0833,-7.8018,4.6786,34.7744,-1.1066,10.2777,-15.7779,-15.2431,-7.2875,-12.978,-16.9313,0.34027,
2.5905,25.616,-7.2691,-14.7967,5.8679,24.3567,0.42993,0.34979,-23.1625,-7.9575,-20.082,-11.7091,-15.5373,4.6185,
0.47479,23.0986,-5.8526,-11.9487,-2.3257,18.9743,1.3845,-1.6315,-18.8326,-4.5404,-15.9369,-13.9477,-0.50508,-5.4605,
-5.925,31.0246,-14.8134,-18.5829,-11.4971,15.386,-3.1091,-3.9843,-17.2127,-6.7182,-11.5501,-13.6008,-12.1245,-13.4639,
0.8018,37.4942,-16.3743,-23.8392,-10.3173,12.0122,2.4679,-4.2352,-18.6301,-4.8447,-11.3471,-5.4336,-20.709,1.4439,
2.2235,25.9327,-10.9814,-13.0969,-4.3074,10.8015,0.84995,4.35,-18.9827,-5.044,-15.0767,-7.5573,-20.9363,15.4573,
4.5408,27.8073,-3.9512,-3.0001,8.2026,15.5448,-10.4732,11.4402,-15.393,-6.2117,-7.8018,-5.634,-19.1902,0.42984,
2.7981,27.6092,-3.2247,-14.0914,0.35978,7.2604,-10.3348,-2.4782,-14.9594,-11.2294,-8.8031,-4.8056,-16.5684,-8.795,
-2.7607,18.6019,-6.4613,-4.9153,-4.0728,3.3947,2.5374,-2.819,-21.413,-14.9666,-15.6265,-4.0278,-10.1834,5.8327,
-8.9654,9.1548,-17.3454,-9.03,-4.3179,2.7011,-1.0455,-2.1599,-24.5387,-14.5581,-11.2583,0.62535,-9.0825,2.1645,
-3.527,13.5059,-13.364,-20.2498,-3.0789,3.5189,-3.9224,-4.971,-9.3444,0.41538,-7.6422,2.5476,-9.5174,-10.7074,
-1.3546,16.6161,-11.5822,-11.1937,5.9273,4.2886,-0.74738,-3.6919,-1.9226,9.8138,-7.1837,-3.4856,-11.887,-7.1243,
-2.2547,8.758,-4.0266,-0.72164,6.5511,2.0701,-1.6829,-0.53113,4.0731,11.1848,7.3474,-0.33627,0.58738,7.4031,
7.1925,8.7229,9.447,5.6934,0.76762,-5.4048,-5.9924,-1.9691,14.1206,19.8251,15.8399,2.1341,14.6521,15.8918,
2.8399,15.0603,-5.2198,-3.4702,1.7015,-7.0413,-10.5338,-1.8505,6.4121,22.5566,5.0876,-2.8944,7.0246,5.1369,
-4.6816,21.5078,-19.0066,-7.6725,6.9903,7.4812,-13.3324,5.6107,-4.2644,14.8315,1.3518,3.6496,-0.748,8.2589,
-4.4002,28.058,-19.5603,-12.1131,5.5905,18.9059,-20.3736,4.2937,-10.8697,1.1996,-5.5901,5.3909,-3.6442,-6.3367,
-1.686,30.7855,-19.857,-20.6977,13.5866,22.1825,-16.7009,6.4873,-9.7271,7.4989,-7.7049,6.5378,-4.895,-7.0487,
-3.5451,15.2164,-20.6259,-14.5549,9.8312,9.0904,-17.6587,3.1578,-9.1435,11.9499,-8.223,9.0857,-14.4027,7.4742,
-2.352,5.4819,-10.5669,-2.9003,1.3997,-4.1971,-14.6389,1.988,4.1471,15.1539,-2.8287,18.3419,-10.5983,21.1257,
-3.1908,3.1932,-9.9328,-5.666,0.33586,1.9351,-9.84,5.7893,7.8189,16.2045,0.2817,19.2022,-2.1213,19.1025,
-3.9797,-3.86,-14.2378,-7.2873,1.2956,13.5811,-11.2103,4.4616,-2.4521,17.1925,-4.6361,20.0103,-7.8749,18.9368,
-3.2515,-16.86,-4.0721,-6.3596,0.72792,3.4548,-8.087,-9.9061,4.0663,13.7107,-2.8876,24.2006,-0.051686,31.9006,
1.3546,-6.5369,6.4636,5.2941,12.9363,-3.1233,1.7096,-6.9734,16.0744,8.4775,11.3856,21.2782,14.0514,28.6281,
-0.68696,-1.2438,-4.7055,4.976,14.1204,-0.97558,-2.3135,3.2464,5.3085,-3.7928,2.9737,5.9015,-0.89167,12.8104,
5.7253,2.2612,0.9679,9.0887,8.8625,4.4741,1.2561,8.4427,5.4802,-4.0554,-4.5561,-0.44506,-14.9382,1.1484,
-5.8897,2.6162,-4.4813,4.1321,0.97979,-2.1654,-10.0912,-6.1639,-6.1206,-9.2027,-9.6738,3.0115,-6.3122,15.1795,
-10.9272,7.8496,-9.6028,-7.3875,4.3516,-2.5254,-13.8962,-5.4162,-16.0447,-13.0615,-9.5833,-5.5002,2.3976,23.6918,
-6.351,10.3193,-6.086,-0.083044,2.1302,0.56675,-5.2213,5.6905,-10.1811,-5.4166,-9.0083,-13.9912,-9.5079,13.4493,
-11.3608,2.3485,-2.2912,8.253,-4.3688,2.9825,0.48284,4.8591,4.5298,5.1997,4.7646,-3.8408,-7.4671,5.2912,
-12.1491,-4.1632,3.2376,1.3875,-6.5569,-0.62705,4.8644,3.0977,12.701,8.3183,14.7696,-1.1596,5.233,-8.2578,
