"AF3","AF4","F3","F4","F7","F8","FC5","FC6","O1","O2","P7","P8","T7","T8",
-32.2176,-2.4047,63.9553,12.0215,-128.3914,33.18,273.6136,195.7129,-8.1746,-14.9069,10.0985,2.4047,-19.7153,-19.7153,
-32.6896,-0.81768,68.293,4.0876,-106.5879,17.0892,251.9072,198.0701,-12.9737,-12.5698,0.35605,2.7407,-16.1282,-31.5159,
-16.6283,-7.5005,76.6982,11.5366,-91.6919,17.1808,250.8928,200.2859,-8.3479,-5.0837,7.0666,6.4236,-19.007,-23.8545,
-20.1124,-12.8204,57.9963,2.1882,-94.8457,30.25,249.9392,185.5549,-7.8471,-1.8933,16.2603,4.1152,-17.8666,-18.5764,
-25.1577,-6.7624,49.8622,-0.34732,-87.7127,29.2415,220.8428,185.4812,-8.8189,1.586,14.8035,-0.45984,-6.6965,-26.5983,
-19.3201,-3.9516,42.5433,-1.7692,-68.35,25.0828,221.6923,188.4523,-10.694,1.9721,0.93182,1.972,-1.0051,-24.5212,
-19.6036,3.4981,30.8541,-3.1057,-50.149,34.6373,222.4907,191.2452,-9.5721,4.2579,-9.2221,8.1048,-3.349,-18.7227,
-13.1377,3.7695,36.2155,-2.4382,-33.04,36.8872,223.2413,184.7509,-9.478,2.5598,-11.073,5.2143,-8.4377,-22.889,
-5.1364,-0.78529,45.1026,-8.5435,-36.8115,38.0402,223.9468,187.7658,-4.5817,3.8493,0.65137,10.1906,-10.3361,-19.111,
-18.9282,1.1853,28.2964,-20.5336,-48.7028,47.298,224.61,190.5999,-18.4068,4.5794,-1.3112,13.4265,-18.3717,-26.6201,
-23.4083,9.2897,12.4986,-22.6668,-31.6806,57.4441,225.2334,193.2639,-26.7651,2.8624,-3.6372,5.4078,-9.0948,-27.4267,
-7.9038,15.4637,25.8487,-13.6139,-15.6798,57.8443,225.8194,195.7681,-11.0592,-2.1178,8.1218,-0.68746,-4.7022,-19.0496,
6.6704,22.2302,33.1086,-13.7581,-27.3967,48.6033,226.3702,198.122,-20.6483,-12.5695,-1.0213,-3.5312,-18.5201,-32.0067,
17.5013,31.4747,35.9296,-15.818,-12.2892,50.4955,226.888,191.7115,-18.4488,-9.8923,-5.7684,10.7807,-4.2708,-34.2589,
13.5663,21.8928,28.0044,-25.4477,2.5482,33.3658,227.3747,183.0938,-12.533,-13.1461,-2.5374,19.1158,-0.16722,-25.4715,
5.058,14.8089,12.2241,-33.5391,-11.7047,17.2638,227.8323,175.9555,-15.6275,-13.3184,5.3092,7.3892,-14.2572,-33.5605,
7.6395,21.6147,-2.6093,-26.7179,-8.1166,15.5761,228.2623,166.3592,-10.8434,0.94489,9.7986,-2.6715,-4.1102,-34.4318,
7.1816,26.0881,-6.9525,-28.9612,6.4704,28.7416,228.6666,142.2777,-19.81,-3.9207,-4.8893,-2.5107,10.2364,-38.1363,
2.9038,18.752,-10.3822,-41.3236,20.1822,21.5729,229.0466,119.641,-28.2383,-13.3032,-5.8832,0.52533,6.101,-44.5034,
10.4234,10.8946,-1.104,-37.2473,33.0713,6.1785,229.4038,124.3129,-21.7356,-7.6966,0.23973,-5.277,-0.035852,-38.9487,
21.3392,24.3409,13.0623,-27.3182,16.987,7.4051,229.7396,130.9541,-10.8141,0.45951,1.1873,-8.8069,6.6991,-29.879,
8.0369,28.4958,-1.8215,-33.8541,12.292,-1.2143,230.0552,108.9969,-14.4934,-6.7807,-1.2881,-14.5305,9.6629,-34.3383,
12.8438,17.6499,-12.2905,-25.5713,24.5384,8.9571,230.3519,88.3571,-14.1046,-5.8931,-0.73011,-4.5217,6.6793,-30.8348,
26.1732,9.8591,1.9111,-32.6928,8.9661,21.8839,230.6308,89.4623,-17.1057,-3.6161,-10.3036,5.3669,-7.8214,-31.8706,
31.6613,16.9609,-3.9739,-36.5016,4.255,11.915,230.8929,93.7118,-24.7342,-4.361,-9.6849,1.1975,3.8624,-39.5757,
18.7012,8.7306,-17.8355,-40.5627,7.3654,2.0636,231.1393,74.1442,-31.4252,-12.2744,-19.2028,-9.9339,14.6902,-37.6814,
31.6791,8.6875,-2.6654,-34.7627,-7.1765,9.1529,231.371,66.3294,-17.5182,-3.3625,-16.6074,-0.20174,4.6727,-21.3205,
43.8783,22.2663,11.5946,-22.0977,-20.8459,-5.4963,231.5887,71.0049,-20.314,-5.0846,-2.1473,0.77278,-9.7076,-15.3875,
27.1456,25.1034,-3.2011,-27.5042,-5.4951,-19.2665,231.7934,72.5155,-23.9036,-4.7796,10.4847,-4.0829,-0.796,-28.5642,
11.4169,9.4972,-17.109,-39.9539,8.9346,-5.7789,231.9858,54.0645,-19.1032,2.7203,-2.1668,-1.4333,6.4648,-40.1605,
24.8319,8.6021,-21.2166,-40.7674,-5.7015,-12.6453,232.1666,36.7207,-27.0931,2.0763,-16.1367,2.9804,0.78778,-31.4983,
37.442,22.186,-13.693,-40.7269,-19.4594,-14.2912,232.3367,32.4228,-33.643,-10.0697,-14.5323,1.3593,3.1443,-29.1286,
21.0955,6.7548,-26.9714,-48.8621,-4.1919,0.66623,232.4965,44.5775,-29.701,-13.3129,-18.4692,-0.64571,6.803,-31.2273,
5.7297,-7.7505,-39.4531,-44.9679,10.1597,14.7263,232.6467,56.0028,-24.0711,1.5858,-13.5142,9.0099,20.4948,-17.813,
19.4859,6.8146,-22.9859,-31.6911,23.6501,27.9427,232.7879,60.0273,-25.5118,-1.0681,-14.6258,-4.9949,7.0886,-18.6676,
32.4168,20.5057,-7.5068,-15.6896,8.1311,40.3661,232.9206,70.5257,-9.8811,5.7279,-3.1704,0.11364,-7.4367,-6.9688,
40.7414,5.1753,7.0436,-28.8482,-6.4568,52.0442,233.0454,58.926,-13.7718,3.4612,-4.9032,2.0298,-6.3547,-16.1675,
24.1969,-9.2352,-6.9982,-41.2173,-20.1694,63.0215,233.1626,56.8332,-27.0455,0.84839,-17.5925,-2.4192,5.0861,-29.2974,
21.9382,-3.2378,-16.1956,-36.6663,-33.0592,73.3402,233.2729,67.5232,-13.7274,8.4918,-18.4604,-3.236,4.7814,-29.3089,
18.6989,-4.9665,-8.4915,-26.7715,-16.9757,83.0398,233.3765,77.5718,1.1962,4.1354,-3.2528,0.80509,-1.2754,-21.7796,
31.677,-0.34039,4.0399,-16.0296,-1.8571,92.1574,233.4739,87.0175,3.8557,-10.2128,7.3666,-1.6474,-1.6801,-22.877,
43.8763,9.2973,3.797,-22.7612,-15.8457,100.728,233.5655,80.3698,-3.1084,-12.3299,-1.7312,-4.4335,7.0756,-18.6194,
29.8737,-0.87826,-5.0861,-28.1279,-28.995,108.7843,233.6516,85.1644,-11.5772,-1.9733,-15.091,0.64089,1.8426,-19.4262,
13.9813,5.9068,-1.8964,-21.6318,-16.6925,116.3572,233.7325,94.1546,-13.768,-2.8164,-11.3011,3.4879,-1.1533,-21.1451,
21.9537,12.7659,-15.8827,-34.4339,-1.591,123.4758,233.8085,102.6053,-27.0419,-16.7474,-20.7201,-10.8214,-4.4499,-29.9744,
29.7725,14.4037,-28.7192,-37.5029,12.6045,130.1673,233.88,110.549,-24.7836,-20.8776,-20.9201,-8.5748,8.8001,-21.9253,
17.8877,-0.56053,-26.5153,-38.618,25.9482,136.4572,233.9472,118.016,-18.9689,-10.4879,-21.1071,0.11424,2.983,-26.8604,
30.9144,13.5731,-10.8243,-22.2009,29.697,142.3698,234.0104,125.0351,-9.1746,-3.1273,-7.3385,-4.701,7.6124,-13.7081,
28.905,22.3765,-6.4825,-20.0619,42.0152,147.9276,234.0697,131.633,-22.7241,-17.0396,-20.9982,-18.519,-1.9804,-22.9841,
21.4003,6.9339,-8.9795,-25.591,42.2246,153.1519,234.1256,137.835,-14.4742,-7.2069,-11.8894,-5.713,7.7557,-9.1023,
19.1543,-7.5822,-15.1726,-25.0175,25.5912,158.0628,234.178,143.6649,-13.6053,-7.7355,-13.0995,1.3626,2.4815,-11.4421,
15.6004,-4.4143,-6.0876,-21.1118,24.2107,162.6791,234.2273,149.145,-10.3852,-15.4469,-8.9483,-9.7791,13.3926,-12.1978,
11.2982,-14.247,-6.2031,-19.3643,27.0858,167.0183,234.2737,154.2963,-5.4344,-11.1539,-7.9297,-17.367,26.689,-20.602,
24.7203,0.70779,-14.4867,-5.6998,28.3456,168.6528,234.3173,159.1385,-1.261,3.6153,-3.6075,-2.8608,39.1877,-25.1363,
30.2956,14.7653,0.48247,-11.1281,35.3006,144.4336,234.3582,163.6902,-11.7641,3.7255,-13.9698,-6.5356,22.7364,-28.437,
28.9591,19.8204,14.5535,-13.8271,35.5868,121.6676,223.4596,167.9688,-10.578,4.9438,-12.6513,0.10678,7.2722,-12.7858,
13.1215,4.5312,18.1791,-23.0955,19.3516,123.3325,224.152,171.9907,-10.4236,8.0138,-11.411,7.3139,19.8189,-8.6529,
-0.4951,-9.8407,6.9903,-21.2286,4.0905,118.3368,224.8029,175.7712,-18.9347,8.9747,-16.9775,2.547,13.3411,-22.2338,
9.6331,4.0438,9.9371,-20.4356,17.9451,97.1366,216.2947,179.325,-26.9356,1.2241,-24.1334,-7.7034,-1.5594,-34.9997,
1.8425,-10.2988,4.0512,-30.2699,16.5427,77.2084,217.4171,182.6655,-20.0299,-7.0244,-23.1666,-7.7225,4.9399,-22.4912,
5.0977,-23.7809,-10.2919,-26.0486,29.6501,82.022,218.472,185.8055,-25.0792,-14.778,-23.2193,-8.7018,-1.6076,-13.9291,
18.8918,-8.2541,-1.3447,-21.1204,41.9711,89.1222,199.7645,188.7572,-37.6745,-23.9898,-35.7716,-18.2782,-15.6112,-26.0772,
16.6422,-6.6427,12.836,-19.8523,33.3724,69.6749,185.8556,191.5318,-42.9532,-24.4734,-45.1651,-21.9899,-12.596,-20.6648,
20.4521,-20.3442,22.9712,-8.0828,32.3315,51.3944,188.8043,194.1399,-32.6822,-18.1966,-35.7238,-19.709,-4.1464,-5.3249,
20.6677,-6.4662,30.7295,-2.3082,28.9498,35.6374,181.1679,196.5915,-16.6213,-10.8537,-23.4823,-18.0453,-11.1112,0.60948,
11.7333,8.0218,42.9857,10.333,13.1128,47.5991,184.3978,198.896,-1.524,3.8976,-14.3791,-2.8626,3.6555,2.4964,
-3.0707,11.714,36.8854,3.9431,-1.4643,53.7251,187.4339,201.0622,0.66294,3.9903,-13.5164,-7.1735,12.4181,4.2705,
-16.9864,-3.0889,20.5722,-8.3159,12.7236,36.4016,162.0879,203.0985,-13.4768,-10.3491,-26.8054,-20.8431,-2.427,-10.0857,
-21.9092,0.13602,33.4379,6.283,14.6905,20.1175,138.2626,205.0126,-11.5526,-20.1524,-19.2721,-5.4925,-0.20331,-8.364,
-30.6927,-13.9721,17.3316,-8.1939,12.3664,15.3727,139.5832,206.8118,-24.9594,-4.8432,-27.2523,8.937,11.8308,-6.4195,
-14.7511,-22.1153,2.1917,-11.5497,25.7244,0.35036,123.9956,208.5031,-22.8256,-11.9212,-30.9068,-4.2565,-2.979,-8.4394,
0.23393,-6.6884,16.1602,3.2433,10.0809,-13.7707,102.4559,210.0929,-7.3561,-1.1074,-14.9524,8.9819,-3.126,6.1669,
14.3199,-16.5402,29.2906,-2.3951,-4.6239,-27.0444,101.7532,211.5874,-1.7801,0.40126,-6.0353,7.9622,-2.4577,6.1231,
9.15,-29.6478,13.4332,-6.0978,9.7535,-11.3218,109.748,212.9921,-15.7733,-1.5454,-19.7731,-0.20887,5.3832,5.7561,
22.701,-31.5603,11.34,6.29,23.2683,-9.3704,89.0631,214.3126,-6.9776,-2.8953,-16.5073,-0.67755,5.5414,5.892,
35.439,-15.5667,24.7596,9.2783,7.7722,-22.9082,69.6193,215.5538,7.5411,4.491,-2.5344,7.5381,-2.9661,12.7511,
47.4126,-26.3289,37.374,-5.3784,21.4059,-32.9199,79.5422,213.8607,0.20076,-3.4718,-6.2287,-7.0141,5.8676,6.2157,
36.4094,-33.8857,49.2316,-5.8626,34.2215,-44.8896,88.8696,210.1656,-0.29158,-15.2855,-1.5269,-20.6933,14.6521,-3.2929,
48.3248,-17.7526,60.3777,8.5892,18.0682,-47.9671,69.4375,211.6556,13.8259,-0.26835,12.6647,-5.3517,7.0406,11.0047,
59.5253,-2.5874,70.855,22.1738,2.8841,-47.4928,51.1712,186.2985,25.344,13.8478,15.5962,5.2225,-0.59487,24.4444,
56.1249,-3.2226,80.7037,6.7434,16.8111,-41.7583,34.0009,161.0206,9.7234,-1.0831,0.56047,-9.1909,-14.0234,8.8777,
62.8555,11.0708,89.9615,-7.7612,29.9024,-25.1528,17.8609,137.2594,-4.96,-15.1181,-13.5732,-22.7394,-27.282,-5.7549,
73.1841,24.5065,98.6638,6.8045,14.0083,-9.5436,2.6892,143.1238,4.7833,-11.3261,1.3412,-7.275,-11.5451,8.6904,
64.3104,15.5139,106.844,1.9135,-0.93222,-23.071,-11.5721,124.1131,-9.6037,-24.7465,-12.8392,-15.3388,3.0931,5.6092,
51.3152,0.48305,114.5333,-12.3013,13.2237,-31.9403,-18.2781,102.5663,-23.1275,-37.3617,-26.1689,-28.5185,-11.1925,-8.8273,
62.3363,14.5541,121.7613,-24.3921,26.5303,-41.0839,-31.2814,82.3123,-35.8398,-32.8865,-38.6988,-24.2486,-24.621,-22.3977,
60.8457,17.0461,128.5557,-8.8286,15.4918,-52.7188,-38.3865,63.2736,-19.5894,-24.6622,-22.2768,-16.5426,-14.659,-6.9538,
45.1735,1.9233,134.9423,1.6446,28.6623,-46.996,-30.7932,59.4602,-4.6402,-28.4716,-9.8968,-16.0308,0.32049,1.7926,
56.5631,-12.2921,135.892,3.4694,41.0426,-30.0762,-14.8456,51.0837,-0.51445,-12.6633,-16.9972,-0.96891,14.4013,13.2253,
58.7842,2.2197,130.1432,-3.9519,52.68,-42.3717,-28.0549,33.9187,-10.5821,-25.5232,-30.0774,-15.0108,-0.56281,0.41029,
69.3571,16.1865,136.4346,10.3852,35.4192,-53.9294,-40.4716,45.9836,2.0748,-18.7022,-17.0577,-28.2101,-14.629,-4.903,
53.5004,1.1154,121.3616,-4.3379,47.3941,-60.6371,-52.1433,29.1246,-8.6285,-20.465,-25.6515,-22.9972,-17.1179,-10.3792,
64.3903,-13.0516,118.4071,1.6928,58.6504,-42.8988,-63.1147,13.2771,5.9892,-5.1371,-10.0125,-7.5174,-1.9908,4.3435,
74.6269,1.8315,125.4027,15.6912,41.0314,-52.0202,-73.4278,-1.6195,18.939,4.6334,-1.8725,-4.3355,-15.9714,18.1829,
84.2493,15.8216,121.0901,21.8082,24.4695,-62.999,-83.1221,2.7897,5.3,3.3934,-10.4159,-7.9228,-22.2257,3.7984,
93.2944,0.77234,99.7247,6.3997,37.1014,-73.3191,-79.2849,-9.8809,0.17357,-10.274,-17.4848,-6.485,-6.7922,5.4944,
101.7967,-13.374,89.0874,12.9017,31.5252,-54.8199,-88.6278,-23.388,5.4523,-16.8715,-8.2611,-2.7306,7.7153,19.2647,
109.7889,1.5284,97.8421,18.8604,15.5337,-47.5292,-97.4101,-32.4089,2.2402,-15.8588,-2.9566,-11.2226,-6.8476,17.9538,
117.3016,6.7264,104.8,3.6288,28.7017,-48.5249,-105.6655,-44.5644,-11.9942,-22.6006,-16.8792,-19.2041,-19.0945,2.7766,
96.1635,-1.8523,93.2224,6.4511,41.0796,-59.7134,-113.4256,-55.9905,-3.4261,-14.9935,-12.8264,-3.9519,-9.7738,-2.0438,
85.1371,10.7616,89.5525,9.9114,24.5148,-70.2306,-92.52,-66.266,-5.144,-17.9412,-18.7887,-17.8147,-21.69,3.8492,
77.1435,-0.46337,84.1794,4.5074,11.9848,-80.1167,-101.0688,-76.39,-4.8354,-9.1709,-12.853,-23.9589,-9.8094,6.5036,
72.9961,-14.5356,81.5337,12.412,25.3657,-61.2097,-109.1047,-79.3454,9.5548,5.4793,2.0182,-8.4214,4.8792,20.2134,
82.7163,-24.0876,89.144,24.1704,36.1919,-71.6371,-116.6584,-60.4847,18.4442,12.6903,15.9971,6.1839,15.0106,15.9601,
91.8533,-8.5424,97.8953,15.9874,19.9204,-81.4389,-123.7589,-59.4162,3.8724,10.966,0.93728,-8.2872,0.0099834,3.4613,
99.0159,6.0702,94.7515,16.4709,4.6252,-62.4526,-130.4334,-69.9513,17.7401,24.408,10.8245,2.1535,-14.0906,15.2756,
85.8619,-8.0679,78.0073,28.4665,-9.7523,-69.3003,-111.2699,-79.8542,29.5054,33.8494,17.3881,4.429,-14.859,19.6492,
68.2075,6.5162,59.2269,12.6585,4.9328,-79.2423,-101.7088,-63.2121,13.6351,17.7185,2.2448,-2.5695,-20.7003,11.7374,
68.4422,18.4729,47.1716,-2.201,17.929,-60.3877,-109.7062,-73.5194,-1.283,2.5553,-11.199,-4.8196,-33.5582,6.705,
78.4357,20.7302,58.4413,12.0311,2.7533,-42.6645,-117.2239,-80.9751,12.894,16.502,3.5729,9.5696,-17.4447,20.4027,
65.8816,5.3864,41.3161,22.5233,-11.5119,-54.2046,-124.2904,-75.1542,26.2203,29.6119,10.8973,23.0954,-7.7418,18.063,
47.8287,-9.0368,24.7371,7.0719,3.2788,-48.0678,-102.733,-72.5684,13.1055,19.1799,5.4346,23.8043,-17.8561,2.8792,
32.6113,1.914,11.8667,1.9938,-11.0179,-59.2838,-110.669,-82.3143,17.6088,14.6624,15.2066,8.276,-13.419,7.6694,
44.7546,15.8992,25.2547,15.9742,-24.4569,-69.8267,-118.1289,-91.4754,30.6522,27.8827,28.3942,21.8795,1.4861,21.3093,
38.067,0.84522,22.6224,16.7841,-17.7159,-51.5371,-125.1411,-77.9835,29.62,27.0166,21.7275,26.3371,12.7831,13.1438,
23.7614,-13.3055,26.5552,14.3348,-2.553,-34.3449,-131.7327,-59.2044,33.1329,30.6857,30.5215,21.3907,13.4584,22.4537,
30.5108,-18.123,25.4431,11.0705,11.7002,-34.2072,-131.5552,-69.7522,25.8553,28.3634,21.4776,17.703,4.4768,14.8553,
42.7801,-16.0736,9.8165,-3.6937,2.9943,-46.2548,-125.5853,-79.667,15.6482,16.0828,6.0889,19.5258,1.3223,-0.136,
54.3133,-15.1097,7.9398,0.048679,-11.2854,-29.3795,-132.1502,-88.987,12.7858,14.1559,8.2828,18.3547,2.2049,0.50749,
63.7274,-13.7223,21.5634,12.0673,-24.7082,-41.7167,-138.3212,-97.7478,26.1187,27.4065,21.8858,15.8103,12.1711,14.577,
64.7127,-26.999,22.9991,3.6489,-37.3258,-53.3137,-144.1219,-93.3422,33.0519,30.4155,23.3031,14.8621,14.3258,20.2797,
74.9299,-13.6833,17.2915,5.8347,-49.1862,-64.2149,-149.5746,-97.8401,17.1242,22.3399,12.7679,18.298,5.2917,13.7728,
56.3341,-1.8023,11.9263,-1.7285,-41.2872,-74.3239,-154.7001,-106.0697,7.9222,24.3657,6.7126,9.9871,-3.2004,0.92498,
44.7799,-15.6391,21.3097,11.3596,-52.91,-76.1156,-159.5181,-104.8397,21.5469,29.1549,20.4099,13.716,11.0916,14.8153,
54.1142,-9.4111,20.5114,17.8906,-63.8354,-61.4507,-164.047,-112.6493,7.1156,15.3836,11.8176,16.2587,7.8669,13.4452,
37.8843,5.099,13.0291,3.8342,-74.1052,-61.1289,-168.0272,-119.9903,-7.4114,13.9798,-2.8368,13.841,-6.7052,-1.4615,
21.6663,-8.1913,19.4609,1.199,-83.7589,-71.5611,-172.0456,-126.8909,7.1329,15.5453,5.5084,10.6063,-17.2087,3.1089,
34.4663,-16.8355,32.3933,13.149,-92.8334,-55.0914,-175.8228,-127.9493,20.8049,19.9022,19.2779,24.0699,-2.0762,17.0224,
29.3584,-29.2905,16.3497,7.5512,-73.1634,-51.7854,-179.3735,-134.3724,5.4566,10.0522,7.3874,11.8919,12.1484,14.884,
13.4969,-38.5921,1.2687,16.2351,-54.6736,-51.083,-182.7111,-140.41,-2.5646,23.3945,1.655,-2.767,23.6126,13.5102,
7.0717,-34.3536,15.2926,24.8779,-55.2566,-56.6733,-185.8484,-146.0854,11.6892,21.9909,15.0194,-2.601,23.1582,25.2028,
20.7474,-18.1924,28.475,33.964,-49.0563,-67.3729,-188.7975,-151.4203,25.0879,11.0541,12.1948,7.1723,26.5767,25.6132,
27.0418,-9.5616,12.6665,23.752,-32.0129,-55.4821,-184.2346,-156.4351,17.9843,11.8336,4.2505,5.2993,25.4633,22.6346,
26.3803,-23.0879,17.1962,24.2504,-26.3998,-38.0532,-183.7593,-161.149,16.9048,18.8169,16.4973,-2.712,18.1651,33.7792,
22.3933,-28.2804,18.5686,28.085,-38.9158,-36.8861,-186.8337,-165.58,20.2186,9.5138,15.9886,5.6248,6.9772,35.1182,
22.0117,-28.507,24.1863,28.3233,-50.6809,-48.7729,-189.7237,-169.7452,31.5073,11.8279,24.6466,14.9046,14.2519,42.6284,
34.1543,-29.6815,35.2379,40.7239,-61.74,-55.7905,-192.4403,-173.6605,31.5403,23.621,33.7466,11.1254,20.1287,41.0326,
20.0844,-13.8007,19.0236,32.3555,-43.9356,-49.0769,-194.9939,-177.3409,15.5479,12.1052,17.6218,7.0917,4.821,24.4707,
4.7794,-14.0896,3.7822,19.834,-39.0668,-37.4769,-197.3942,-166.1138,8.0382,-0.16186,6.1407,11.4746,4.6872,24.1185,
2.2421,-27.3442,1.4602,22.4914,-50.8228,-38.1133,-199.6506,-170.247,13.3263,-2.0756,17.3126,13.6711,14.0233,31.3272,
16.2075,-11.6036,13.3946,26.4315,-54.3503,-49.9265,-201.7716,-174.1322,15.8924,12.1489,15.7935,21.9883,11.7392,25.1204,
26.6222,-0.80842,17.3998,27.7306,-65.1893,-48.6993,-203.7653,-177.7842,14.9393,19.9207,11.961,15.8601,10.0728,27.4596,
10.9248,-14.8599,2.2558,27.0287,-75.3779,-31.6774,-205.6393,-179.1557,19.8124,4.6255,18.9367,2.4058,13.3149,34.4669,
-1.598,-12.371,-1.0907,39.507,-59.0044,-43.8767,-207.401,-182.5063,30.1653,4.9838,26.4567,8.9938,8.67,34.3237,
12.5979,0.39274,11.9587,45.6373,-69.4096,-40.7629,-209.0569,-181.0173,25.9517,18.7847,13.8093,16.6287,-5.9502,31.7835,
12.6489,-13.7308,8.3557,28.7991,-79.345,-24.2171,-210.6135,-161.5009,22.4706,17.5031,-1.1192,7.9372,-14.0939,32.761,
0.83043,1.193,0.64084,34.92,-88.6843,-20.0337,-212.0767,-153.2536,23.5266,11.1633,0.064469,2.1713,-15.6525,30.3151,
-7.3944,11.7007,-3.7257,38.1144,-78.2452,-32.9317,-213.4521,-157.0418,15.8639,12.8977,14.0056,-2.2871,-18.08,36.6703,
-4.547,-3.1014,-4.9444,35.3468,-76.9166,-26.474,-214.745,-146.177,15.3928,17.413,14.6075,-4.5536,-11.7051,45.5301,
9.8258,10.2228,6.4127,47.326,-86.4016,-38.9856,-215.9603,-151.5064,23.6058,22.6202,5.5569,-14.3784,-10.5225,32.7002,
-4.8638,23.7094,6.9894,40.4845,-95.3175,-50.7464,-217.1027,-156.516,11.6102,9.7223,0.41416,-27.6157,-23.3549,16.6382,
-18.6719,13.4765,7.0513,33.7282,-75.4985,-40.6592,-218.1765,-158.3557,18.1271,14.4286,14.4893,-11.8588,-7.8536,24.4503,
-16.9149,-1.4321,-0.1046,45.8045,-85.0686,-52.3197,-218.1672,-134.7544,15.116,7.7925,5.7715,1.8357,-7.537,28.7537,
-3.8785,-15.4462,14.0017,53.4795,-94.0645,-41.3325,-202.6734,-140.7691,16.6128,3.9588,1.0976,-9.3344,-21.1847,30.3946,
-2.2035,-15.1713,3.87,44.0192,-102.5206,-30.678,-177.5291,-146.423,16.0968,0.35415,14.9762,-0.59976,-17.3553,28.0902,
-6.399,-0.16102,-10.4622,31.2804,-82.2694,-42.9373,-168.3205,-150.9481,14.6502,-8.8032,12.6354,-1.0445,-2.214,14.3823,
-20.1151,-14.2514,-19.2963,26.5187,-71.0977,-54.4611,-172.3213,-127.7913,18.5801,-6.3515,1.2985,-15.0819,12.0188,17.3668,
-33.0082,-27.4963,-4.0385,28.774,-52.7318,-40.7848,-176.082,-116.9122,16.5033,-5.0085,0.25861,-16.4261,-2.8023,29.789,
-31.1992,-39.9465,-6.8366,29.4522,-54.5318,-52.2832,-151.4171,-113.2636,13.1085,-4.2272,5.5323,-1.3405,-16.7342,24.6355,
-15.2273,-23.4497,-14.1207,34.417,-65.3599,-63.2462,-135.4456,-120.5678,14.2454,4.6813,7.1238,6.2787,-1.6301,16.4255,
-20.2391,-28.6205,-17.6016,27.0623,-47.8195,-70.8376,-114.3345,-120.873,11.948,-4.7352,7.1776,-8.0439,12.5677,13.9972,
-22.8712,-12.8032,-12.6981,26.4005,-30.8504,-80.6873,-93.3744,-99.5206,17.9639,-15.9923,20.2111,-3.7139,19.6786,10.2724,
-9.9582,2.0649,-7.1278,26.7395,-14.8993,-78.0952,-75.9055,-79.4494,30.9861,-0.93277,18.037,2.2798,4.3979,5.8092,
-1.1856,-10.3896,-5.2575,23.6933,0.094613,-60.4261,-85.4512,-69.7015,25.1249,3.7775,2.8547,-2.1851,-9.966,4.0179,
12.9855,4.3338,9.158,36.3717,14.1889,-42.7005,-94.4241,-51.4194,9.5174,-10.5492,10.5319,7.5633,-3.7679,17.8768,
12.0509,15.459,8.4539,29.2255,-0.7624,-26.0385,-74.6587,-34.2342,5.2541,-23.2263,11.3427,7.5907,4.6323,24.3426,
-0.21247,1.0672,-6.1533,23.6255,13.3833,-38.5762,-56.0791,-46.2802,19.0388,-7.7327,4.8917,4.2503,-0.45448,12.3032,
6.0514,1.4844,-9.4764,34.229,26.6803,-50.3616,-38.7685,-57.6034,17.7419,-3.5764,7.0024,2.5525,3.9009,11.0847,
-5.3717,-7.7417,5.1921,30.733,39.1795,-33.3949,-31.1532,-40.0472,2.5774,-17.4618,10.91,-4.8137,13.7654,24.5197,
-18.0328,-13.5283,-0.56359,33.2172,37.3426,-33.7954,-15.184,-23.5443,-7.5207,-23.4722,-2.7281,-5.9676,16.3051,31.068,
-15.0274,-4.0608,-8.2232,36.9936,49.202,-37.5381,-28.373,-36.2317,-2.2606,-15.332,-8.3348,-14.2653,17.2503,15.7397,
-15.568,-17.9171,1.4063,34.2942,32.1499,-24.2258,-40.7706,-48.1578,6.0496,-10.0835,3.2253,-27.5094,4.1938,12.3916,
-27.6169,-30.9421,-9.7371,29.8318,16.1209,-36.8723,-42.0158,-36.613,9.0528,-9.9592,4.4749,-30.993,0.57598,9.2434,
-22.5942,-43.1856,-3.8642,24.6753,1.0536,-48.7599,-53.5949,-48.3612,19.5692,-2.149,4.6867,-15.0334,4.8695,1.4753,
-13.5456,-54.6945,5.9845,22.2333,-9.7599,-55.1425,-64.4792,-59.5595,29.9358,6.6352,10.1764,-7.5545,-4.0789,-0.53623,
-19.9451,-44.0612,-8.4746,13.6862,4.9257,-53.2762,-67.034,-61.6022,23.812,0.94797,10.0465,-1.8121,3.3789,-7.7171,
-30.7699,-33.2429,-22.0661,5.652,18.7301,-64.1796,-48.912,-51.6545,12.2857,-12.0928,7.0391,0.70129,17.2762,-9.6588,
-39.5029,-45.3484,-10.8143,8.1983,31.7063,-74.4288,-60.0773,-52.4021,18.2799,-14.2527,9.5021,-2.2262,8.3912,-5.2323,
-36.1712,-53.5329,-12.0894,8.6679,25.0116,-55.8631,-70.5726,-63.358,23.9155,-5.7037,15.6644,9.4481,-6.2123,5.6609,
-25.8264,-36.2209,-14.7293,11.514,37.6109,-38.4113,-56.0843,-73.6565,8.3806,-16.4205,9.4353,16.0943,-7.6079,18.3051,
-21.3918,-19.9476,-8.076,16.5935,49.4542,-35.1451,-66.8192,-58.829,-6.2223,-18.3212,11.7542,4.5499,4.3888,31.3068,
-22.5121,-4.6508,-4.2253,17.0401,52.9092,-36.4026,-76.9101,-54.8185,0.23152,-6.1619,12.4912,0.9107,-7.896,17.7317,
-15.3914,2.3776,-4.9333,20.8271,47.8117,-45.7587,-86.3955,-65.6294,-2.6678,-1.9453,1.1624,14.3207,-21.5222,2.5678,
-11.1018,-11.8651,-5.118,15.2498,59.043,-28.9132,-95.3117,-71.1539,-3.95,0.5761,8.3058,12.0183,-18.1524,16.5137,
-21.4957,-25.2532,-12.024,5.1978,58.712,-13.0784,-103.693,-72.1747,-1.3092,-7.633,13.0975,-2.8028,-9.8502,18.4083,
-15.3966,-15.735,-10.3411,7.7713,54.2268,-26.3937,-111.5715,-81.9442,0.69325,-3.3281,10.3877,-14.9823,-15.9915,13.4569,
-13.5113,-9.9825,-14.5291,0.57272,65.0732,-38.9101,-118.9772,-88.8945,4.4986,-3.1285,5.9176,-1.5811,-24.6498,13.611,
-22.7987,-23.4835,-24.7169,-4.7504,47.55,-50.6755,-125.9385,-89.812,6.6329,-9.1919,3.1583,-15.5862,-32.3064,6.5441,
-17.1026,-13.7444,-13.1358,-0.13812,30.597,-53.7315,-132.4822,-98.5232,6.7161,-12.0061,4.4115,-27.4786,-27.0023,2.7848,
-16.5577,-3.7832,-17.6373,3.2368,14.6612,-57.7207,-138.6333,-87.1672,4.8704,-15.6138,9.4365,-17.6557,-15.2841,4.0605,
-14.1215,-11.7308,-26.6771,1.5999,-0.31845,-40.1574,-144.4153,-76.6475,9.8678,-5.5405,22.9703,-2.4964,-10.039,14.8773,
-9.9085,-14.3931,-20.7483,-9.5557,-14.3993,-23.648,-149.8504,-86.1487,5.91,-5.6892,19.9943,5.6734,-23.5366,2.9242,
-9.7947,0.57047,-17.0997,2.0768,-27.6354,-31.6753,-154.9594,-95.0797,2.1884,-4.8671,8.6961,11.5846,-24.374,1.3065,
-17.8629,0.3812,-23.768,5.7995,-40.0773,-15.6748,-159.7618,-75.275,-1.7894,-0.72774,9.1363,10.8891,-12.3328,14.6923,
-11.5015,-1.0844,-17.0523,4.0089,-36.7433,-0.63427,-164.2761,-60.0251,-6.9717,4.6056,15.8017,15.5253,-6.3032,21.9858,
-7.4452,10.0407,-15.5484,8.096,-37.9053,-14.6962,-168.5195,-70.5236,-6.0726,-6.7317,10.525,14.1131,-8.3297,12.4912,
-3.152,13.2856,-16.539,17.2275,-34.669,-27.9144,-172.5083,-79.6018,4.8705,-13.0597,8.9325,5.572,-2.0595,19.436,
-6.3291,16.8161,-16.0274,16.6746,-18.4889,-12.1396,-176.2578,-85.8848,2.1746,-6.986,11.7627,4.7569,-2.4167,29.3298,
-10.7578,11.9603,-18.9126,5.0949,-3.2796,2.6888,-179.7824,-94.8317,3.0056,-6.5678,12.0184,3.51,4.4606,21.7992,
-10.1127,-2.8574,-30.2806,5.7512,-2.9117,6.5455,-183.0954,-88.5069,1.8633,-16.7525,17.0677,-10.8006,11.8873,12.797,
-9.9867,11.4141,-25.0976,12.6192,11.363,20.2528,-186.2097,-77.9064,1.2707,-1.8019,30.1436,-4.2276,11.6548,14.4338,
-9.3871,24.8292,-13.9744,6.0916,24.7813,33.1376,-189.1371,-87.332,2.1565,6.962,30.103,4.6818,8.0696,15.4912,
-4.015,34.7252,-22.7533,10.535,37.3944,26.5121,-191.8889,-96.1921,-2.7818,-7.5557,14.1968,-9.0633,14.3182,18.4091,
-10.9867,32.1614,-35.4881,3.6518,49.2507,20.5937,-194.4756,-76.3206,-8.866,-21.2024,4.8452,-4.1914,19.7103,14.9004,
-13.2138,34.0777,-21.663,-4.2621,60.3957,33.458,-196.907,-83.128,-5.4496,-14.3319,15.1328,10.1601,10.8338,14.9679,
1.679,42.6127,-7.8605,6.5734,48.7846,45.5506,-199.1926,-85.8337,-5.1221,-9.6246,10.3784,2.1824,-3.9162,11.1848,
8.6372,52.5582,-17.9681,5.2166,31.7575,28.7175,-201.3411,-94.7836,-8.6617,-16.741,2.0618,-10.4517,-8.8163,3.7814,
-1.98,44.1151,-30.99,5.3848,40.5863,12.8945,-203.3606,-103.1966,-7.6608,-14.2938,0.4954,4.1213,5.8127,6.9202,
-9.0738,30.4087,-33.3037,10.3513,52.2511,26.2208,-205.259,-82.9048,-8.6439,-17.7643,-3.8624,12.0481,8.6755,5.0623,
-5.1632,40.6056,-18.3216,10.211,42.7094,36.0333,-207.0434,-63.8305,-4.7591,-14.2938,-3.15,7.96,1.9034,7.1632,
-10.6242,42.9777,-28.7639,6.7129,26.6831,19.7713,-208.7208,-74.1007,-4.4735,-5.7423,-0.075539,2.673,6.5976,10.5804,
-12.8717,29.8203,-30.8846,-7.7899,39.1821,22.1057,-210.2976,-72.385,-5.1671,-3.4743,7.6224,0.5892,4.2783,7.0606,
-7.2906,24.1837,-17.4903,-6.6862,50.9312,34.8794,-211.7797,-57.4631,-3.8951,1.543,11.0124,7.2866,5.946,6.6365,
-16.9512,13.5961,-30.5409,0.92757,33.7753,20.1293,-213.1729,-68.1154,-7.028,-3.8392,0.25362,6.3682,12.8018,7.681,
-14.9731,23.3601,-34.3247,5.6808,17.6488,4.8216,-186.2826,-72.5292,-1.7975,-7.4562,0.23794,1.1773,7.2249,7.2197,
-0.61001,36.0585,-18.1652,9.1869,2.4899,3.2446,-183.9415,-62.4066,-2.6511,-4.1234,-1.6993,-9.4726,-7.3086,-0.90732,
-9.71,46.2422,-14.3449,5.2699,3.9378,17.1499,-186.8499,-44.5622,0.87367,2.3751,-4.9631,-2.6531,-5.7536,2.5137,
-17.3019,36.2545,-27.5842,1.5876,17.8015,3.9444,-161.5389,-42.5243,-1.5825,-6.9035,-7.07,10.49,-1.0807,4.7676,
-2.1638,26.3854,-11.8292,2.4538,2.6334,-10.3923,-137.7466,-54.0728,-5.3345,-4.5663,-9.5312,12.746,-15.1158,-0.32781,
-3.6313,10.7023,2.9806,1.3446,3.9177,3.3693,-143.5818,-55.9635,1.7175,9.8077,-4.1504,19.6746,-11.6492,2.5777,
-17.5134,2.0402,-11.2982,-4.5064,17.7826,-10.9328,-120.8669,-38.5057,-3.1944,15.3162,-6.7864,8.8768,3.1498,-3.3482,
-27.3676,11.5355,-23.6033,-2.3121,30.8157,-10.6026,-99.5149,-22.0953,-3.9643,0.29726,-5.4177,-2.2341,1.3635,0.70051,
-11.781,10.3626,-14.0126,5.0388,43.0667,2.0551,-79.444,-33.1007,0.60124,-7.2598,-6.5358,3.1891,-6.8938,-1.7462,
-21.1717,7.3362,-27.2718,-3.4372,54.5827,-12.1682,-88.7773,-38.3278,-8.5709,0.38885,-13.3558,6.3639,-8.8839,-15.7414,
-17.4977,5.4538,-14.4209,-10.445,50.2077,2.6619,-91.1285,-21.9281,-9.4998,1.8078,-4.3799,8.3858,2.7091,-12.2377,
-19.814,1.7604,-7.3041,-4.5282,56.3314,16.6022,-71.5607,-6.5124,-7.4867,-7.4368,-0.75092,3.555,7.8357,2.442,
-25.8378,7.9059,-20.9658,3.9185,57.2796,1.506,-53.1671,7.9783,-0.78635,-5.5479,-2.1486,-1.947,11.6937,-0.10874,
-11.7853,13.2024,-21.4768,7.5303,39.7428,-12.6843,-35.8771,-6.6004,3.1078,4.4018,1.8273,-1.8311,10.0306,-14.2022,
-14.9251,10.4863,-18.2642,-4.4631,51.4583,2.1767,-19.6245,7.8956,-5.735,7.0231,-5.0147,7.8965,2.6964,-23.294,
-28.1296,8.4144,-31.2684,-18.2954,62.4708,-7.0904,-4.347,21.5219,-16.4504,-4.4578,-18.8138,2.1331,-3.7174,-16.6067,
-36.3848,9.3523,-36.4508,-14.6384,51.3549,-5.2223,-0.5328,24.901,-4.4038,3.0223,-7.4319,-0.39908,6.6046,-13.2061,
-20.1017,8.3104,-20.1637,-10.393,44.9074,9.1911,-14.6008,9.3069,0.18897,7.1696,4.074,0.10561,-3.8902,-22.5113,
-17.6075,21.9118,-33.0539,-23.7153,53.2734,-3.537,-16.9354,22.8485,-4.1505,1.4498,-5.307,9.2358,-11.8309,-21.6419,
-24.7256,16.1143,-45.1707,-30.467,50.5578,10.7753,-1.8193,35.5776,-9.1906,-5.8503,-1.6224,15.8948,2.9789,-16.9772,
-23.7233,1.0475,-56.5604,-14.694,33.4243,24.2287,12.3898,19.3429,-0.46506,-7.9044,6.65,6.766,7.9343,-19.3252,
-26.1477,12.6804,-46.1253,0.28765,17.3188,30.1588,10.3744,15.2969,6.2952,-0.69782,-0.48134,4.4361,-6.0064,-17.2042,
-38.6788,26.0196,-53.937,-1.3274,30.3797,14.2492,-4.3481,28.4791,-8.1825,2.2295,-7.1848,5.1324,7.8187,-15.2104,
-34.7599,10.3584,-54.5464,-13.7495,42.6569,27.4943,10.0128,40.8704,-16.6726,-0.78926,-0.98333,2.901,20.8147,-12.3734,
-34.1175,-4.3631,-56.5637,-4.75,54.1975,39.9446,23.5121,24.3181,-13.2685,-4.1081,-2.3666,-0.63923,11.3903,-14.0357,
-27.2611,9.9987,-47.3999,-1.5805,65.0457,49.8961,20.0233,36.9591,-7.664,9.6022,-2.2255,-4.4478,10.7069,-10.3081,
-11.68,23.4988,-35.4189,-0.042463,75.2429,32.8023,32.9219,48.8415,-14.4163,12.3931,-1.6103,-17.1639,4.7753,-5.362,
-19.1543,13.2789,-38.5834,-4.3671,70.7449,35.3169,29.3493,48.3318,-3.4533,7.3214,5.6989,-22.3861,2.0846,-12.2529,
-32.105,-1.6178,-50.3684,-18.2051,52.4002,35.6021,13.4883,31.3319,10.8539,5.4394,7.7621,-24.4087,3.4013,-25.6177,
-31.948,-10.0224,-52.9616,-12.1498,35.1562,19.366,-1.421,15.352,11.0096,7.998,8.2574,-19.0977,5.1207,-23.9261,
-29.5499,-0.28451,-44.4943,-8.0551,47.1468,27.0148,12.7643,22.4343,-3.751,1.267,0.54937,-6.8914,6.2561,-8.3905,
-27.7765,13.8326,-45.672,-6.6098,58.418,29.2404,26.0984,35.1882,-17.6259,-6.5033,-10.0633,-0.70752,9.7281,-6.1186,
-21.7818,23.4273,-47.2589,-7.6559,69.0129,28.9287,10.4325,28.1139,-8.5649,-10.4403,-7.0544,-11.7246,10.5872,-7.1942,
-34.4207,7.9216,-39.1338,-13.4477,50.7721,41.293,5.6339,13.4436,-12.3791,-18.9504,-0.37999,-21.1192,7.5477,-9.1668,
-36.6832,-4.421,-34.382,-0.61935,61.8258,37.2181,19.3959,23.697,-6.3463,-12.5242,-0.83794,-5.752,11.4225,-11.0205,
-34.4826,9.3084,-46.4191,-7.3141,72.2163,20.885,32.3322,8.8101,8.1345,-7.9254,-9.4435,4.0549,4.9668,-19.9775,
-33.8555,-5.3501,-43.4793,-9.2794,66.6117,5.5319,16.2922,-5.8185,14.2232,-0.23727,0.25969,-6.2864,5.1491,-19.2591,
-36.6335,-19.1291,-32.2152,5.3773,74.1548,19.3,20.4488,-5.3144,-0.73017,7.4708,9.8609,-3.0248,11.5725,-6.5629,
-40.2058,-14.3051,-36.0527,0.57199,59.1267,18.297,5.1219,0.77487,-4.859,-2.5947,3.4989,3.8895,7.0307,-1.3602,
-23.8481,0.65323,-26.6755,2.9423,41.4791,11.9091,-9.2854,-2.6369,2.6456,-16.5391,-3.9241,0.28998,7.0906,-3.6833,
-20.0125,1.9017,-22.6713,4.208,24.8904,9.7523,-22.8283,-16.4241,-4.7262,-28.3751,-8.9778,-8.8635,7.1459,-2.9815,
-28.9098,2.2688,-35.411,-4.2195,9.297,7.7245,-7.3586,-29.5386,-7.8092,-26.1914,-5.0734,-9.7744,-7.3829,8.2578,
-28.1367,12.7119,-47.3863,-11.6592,3.4344,9.1849,-16.705,-41.8663,-3.4928,-15.9646,-1.8836,-1.4941,-16.4026,4.8769,
-24.0452,-2.1508,-42.3101,-11.4418,17.3283,21.6164,-29.8027,-40.9682,-8.5738,-2.0233,-3.2133,6.7697,-1.3184,0.25621,
-11.0613,-4.7526,-25.6715,3.3447,2.1886,33.7845,-40.3627,-24.4101,-5.1735,7.7154,1.7884,10.2109,2.453,11.782,
-14.7248,6.593,-26.2088,-2.7805,-12.0427,17.6574,-52.0409,-37.0455,-1.4974,-3.807,-0.72315,-0.49983,-11.7942,2.9001,
-23.9408,0.90738,-37.6201,-12.7121,-9.243,2.498,-63.0185,-48.9227,1.9586,-5.0218,3.6479,6.7423,-25.1865,-1.6016,
-27.3132,-3.9559,-49.4629,-6.179,-7.7265,13.2365,-45.1374,-60.0874,0.87914,-0.87402,1.5056,13.0706,-26.2516,-1.506,
-20.8651,1.0907,-43.9354,-6.7698,-21.3629,26.5423,-56.5291,-70.5821,6.5972,1.1023,1.4152,10.3633,-38.7765,-0.45318,
-21.5362,1.9868,-29.7595,-5.4021,-11.751,12.7737,-67.2374,-80.4472,10.0483,-0.8868,7.1012,3.9707,-50.5499,1.497,
-19.2829,7.638,-27.9735,3.5778,3.054,-2.0927,-77.3031,-89.7204,9.445,-7.5664,1.8662,-9.7317,-45.2834,4.2921,
-13.3171,10.0647,-33.9893,15.8658,-11.2292,-12.8726,-80.7015,-70.2372,12.7256,-8.0744,-2.0931,-7.2244,-38.719,15.5758,
-26.6181,-4.6392,-46.05,9.144,-24.6555,-1.521,-89.9594,-80.1229,11.9621,-7.589,0.91787,7.3091,-50.4959,7.9099,
-34.4832,-5.1678,-51.7877,-1.5032,-37.2761,-15.5297,-85.3683,-89.4155,14.6105,0.079439,8.0759,7.6775,-47.3115,-1.7017,
-32.4142,-0.049307,-40.0251,-1.4139,-37.1341,-28.6979,-94.3462,-98.1506,7.0016,1.9977,0.85899,-6.8832,-37.7405,-0.63813,
-21.3324,2.3583,-23.5236,2.038,-49.0061,-12.876,-102.7854,-96.4673,14.7561,15.9778,8.0205,0.41672,-35.9568,13.3456,
-28.2275,-4.0343,-35.2503,-12.0301,-42.5454,-14.8339,-87.6533,-104.7792,5.6957,15.3449,5.1351,8.5668,-42.9359,2.4468,
-31.3432,2.9401,-47.2352,-4.576,-25.8927,-19.7147,-68.2941,-112.5925,2.4694,15.3857,1.9416,6.1288,-34.5899,-0.58542,
-33.7898,-0.60203,-44.2461,-3.8202,-35.0725,-11.3182,-61.4657,-102.6419,8.5724,12.0592,0.38237,-3.3754,-44.536,7.6247,
-19.2601,13.5341,-27.4913,6.9882,-47.0682,-10.6391,-71.8777,-87.828,12.8664,13.2587,7.0918,-0.2875,-45.7107,11.0142,
-20.5097,13.5276,-14.4561,6.0868,-30.6253,-24.1008,-78.9517,-96.6584,6.8048,12.9434,1.3766,-1.713,-31.9081,-1.6686,
-29.3767,-1.3841,-25.6103,-3.4145,-26.3831,-31.6372,-81.4272,-104.9589,5.9158,14.5715,-0.14822,-7.8618,-26.6274,-3.9732,
-22.324,-2.5878,-33.2097,-6.5749,-18.5485,-25.4108,-81.8312,-95.947,2.1947,18.9873,1.3029,-12.6792,-27.4345,-1.3301,
-17.1381,0.45245,-30.2561,-7.1423,-16.4746,-22.9242,-69.2275,-77.688,3.025,13.0392,1.2252,-16.7273,-22.9034,-2.2123,
-10.8202,4.7534,-17.3803,7.3862,-29.5861,-22.0295,-62.6692,-87.1267,12.9415,7.9287,10.2882,-12.3571,-13.3542,8.9809,
-14.0183,8.3147,-17.2994,21.043,-24.7709,-17.8228,-55.0626,-95.9991,5.4331,2.6441,17.3643,-18.3484,-8.7056,14.2115,
-16.5425,4.4496,-18.6652,5.6805,-9.1847,-9.5399,-45.5072,-96.6614,-8.9929,4.8901,9.1094,-22.5367,-12.5109,8.0697,
-9.78,14.7619,-14.6608,17.2056,5.4664,0.64936,-48.5476,-94.7091,-5.4133,15.176,0.86898,-9.6438,-10.7987,11.4324,
-13.0401,13.8762,-23.398,17.1357,-1.4223,-12.8538,-59.7348,-103.1265,-0.28007,5.6101,-0.14466,-9.0651,-15.9212,10.7465,
-13.7004,2.9456,-29.2067,2.1626,-14.3205,-22.1806,-70.2507,-111.0389,-1.706,2.8693,1.3067,-2.2701,-13.5237,5.7745,
-12.3967,-2.5203,-26.9736,1.5521,0.48419,-10.7517,-80.1356,-103.1046,-3.0459,12.7947,-2.1378,11.9661,-3.5753,9.7557,
-8.2872,5.805,-16.2195,13.48,3.8208,-12.5113,-89.4275,-108.9407,0.5026,13.4697,-0.56686,8.6894,-3.8424,19.2684,
-7.79,11.2266,-17.1694,22.289,-7.9492,-25.8606,-98.1619,-116.5043,0.47244,8.8146,-0.53285,-2.4113,-10.3437,18.1123,
-11.6507,-0.5065,-26.2372,13.7381,-2.1826,-38.409,-106.3721,-118.9762,1.8868,11.6515,-1.9436,2.0615,0.37493,16.5443,
-8.0663,-0.47611,-21.7785,10.0293,-0.12863,-45.8929,-110.6012,-124.3399,-1.1118,13.8378,-2.7885,12.5162,9.0087,17.4756,
-3.2542,13.6525,-9.4113,14.7172,-14.2209,-36.8877,-118.0651,-123.1311,-4.4108,12.5272,-2.1409,19.9403,1.2546,14.9843,
-8.8297,19.4106,-5.9612,15.7571,-18.021,-48.7744,-125.0812,-129.8432,-1.2608,9.8517,-2.9739,22.5908,-3.6291,14.0853,
-12.6276,4.146,-19.549,18.1779,-2.8398,-59.948,-131.6764,-136.1526,-1.6659,2.0475,-4.2377,11.1368,-4.854,14.6824,
-11.3897,-7.0078,-25.5896,12.7591,7.2741,-70.4511,-109.6758,-142.0835,2.7613,6.2528,-1.5793,3.256,4.5733,21.015,
-16.9574,-3.2207,-21.6491,10.5517,10.2033,-80.324,-117.1952,-147.5195,4.0383,11.1672,-2.9272,7.3887,17.2833,17.3499,
-14.0165,-6.8748,-25.159,11.8412,22.0938,-89.6046,-121.7208,-152.7683,1.8726,7.6113,-4.675,9.8304,13.3604,11.5,
-11.2516,-7.4238,-30.3818,7.2847,12.1129,-98.3283,-114.4171,-157.7022,1.7602,3.3086,-0.54762,0.58522,-0.90543,17.5424,
-4.3254,7.1216,-21.3454,17.9072,-2.7139,-106.5286,-121.6521,-162.3401,4.0588,3.5904,-2.919,-3.778,-5.1788,21.7794,
-0.70016,11.8289,-6.1197,17.313,7.702,-114.2369,-128.4529,-166.6997,5.258,8.6646,-4.1865,-2.1086,8.1154,18.0675,
-4.9854,5.8295,-12.966,7.1386,18.2994,-121.4827,-106.6458,-170.7977,2.5383,9.5874,-1.5311,-3.4248,15.8035,15.5417,
-4.6872,15.0966,-26.2881,12.4802,18.163,-128.2937,-86.147,-174.2022,2.386,8.0498,-1.4393,-0.33483,6.1991,15.5707,
-9.2143,3.6116,-36.5777,7.8845,2.9732,-134.6961,-92.0387,-165.674,2.2428,9.4907,-2.3153,-2.2377,-7.6375,9.8271,
-21.1637,-10.7051,-33.4206,2.603,-11.3052,-140.7143,-100.6163,-162.4649,2.1083,8.9213,2.6329,-0.17956,-2.37,8.2769,
-19.8939,-16.1589,-32.3769,10.1407,-21.8575,-146.3715,-89.1347,-163.2958,8.7141,8.386,13.0542,8.4865,11.8722,20.2825,
-22.5472,-12.304,-41.9759,8.5698,-19.5846,-151.6892,-82.8256,-167.5981,1.4589,-1.7349,1.6917,-6.1226,4.7533,10.4093,
-21.1944,-6.7573,-39.4574,11.9025,-4.3095,-139.4589,-91.956,-156.9073,-4.3994,7.9869,-2.2567,-10.8908,-2.2642,4.014,
-23.7701,-12.1222,-38.0519,5.418,7.8164,-128.206,-99.2666,-152.3013,-0.2881,10.3927,-1.1594,-1.5806,-1.166,8.582,
-24.2669,-13.3179,-31.921,14.7107,2.5381,-111.8578,-79.2106,-147.9716,7.423,2.0753,0.8332,-15.5858,9.4832,17.6848,
-21.8494,-4.825,-26.1588,23.4458,12.0036,-100.3375,-60.358,-144.8637,-0.71619,-4.7816,-0.17829,-26.518,17.5696,17.5852,
-8.0357,7.9663,-16.8959,22.0386,9.3599,-83.7384,-43.5824,-133.2869,1.2502,-0.6473,-2.0911,-10.8269,14.5915,22.3005,
-4.6681,6.5277,-21.652,15.9078,17.4536,-72.9433,-34.2347,-123.3658,7.9076,0.35303,-9.6594,-11.7742,12.7549,23.8479,
-8.7162,-1.0775,-20.8341,13.5107,30.5064,-65.201,-18.2356,-120.292,4.0665,3.6985,-5.7141,-15.3958,17.2788,23.8597,
-14.9251,-3.8978,-10.9283,16.5474,19.8661,-64.1739,-31.2415,-121.7298,-5.7939,11.1699,-5.3708,-6.7778,3.7398,14.7348,
-21.7239,-9.4343,-17.9669,4.9748,4.5741,-58.4,-43.467,-113.4645,0.32321,20.117,-14.6659,1.3223,3.515,3.271,
-21.3815,-15.601,-30.9889,-1.094,2.0496,-49.1256,-31.8936,-107.6181,10.8835,11.2166,-15.7094,0.28096,10.0369,3.0752,
-19.6178,-8.4134,-35.7059,11.9555,-0.47711,-47.6203,-35.2691,-105.4887,3.9798,4.2921,-11.4007,-3.1011,1.2601,4.3329,
-21.3262,-6.9471,-19.4636,9.3143,-13.9131,-35.1458,-45.6557,-86.6571,-1.0683,11.7284,-4.9467,1.8933,2.146,9.8438,
-14.2758,-12.3002,-15.0851,10.6794,1.0216,-21.4963,-28.8163,-67.9935,-0.042683,11.0247,2.0824,12.359,16.1172,20.7939,
-10.054,-7.2345,-25.24,24.1386,15.0603,-23.5727,-15.7016,-72.0885,-1.4824,5.074,2.4382,12.0982,18.8425,20.9885,
-17.1441,-7.7624,-21.8021,18.6883,11.4424,-26.9672,-28.8595,-75.457,1.4915,7.6545,-4.4399,-2.0919,21.5584,13.9588,
-20.4431,-21.3966,-21.9362,12.2769,0.6583,-25.8299,-41.228,-73.3342,6.6912,0.94368,3.0395,-9.1795,28.4395,5.9082,
-25.4681,-31.0183,-20.1393,7.2127,11.6779,-38.2256,-49.9854,-83.0342,13.5028,-13.0584,16.9572,-13.9188,21.444,0.26363,
-34.5197,-26.2722,-16.046,4.8564,10.9777,-45.5498,-46.9867,-92.1521,13.6546,-14.1983,19.6316,-19.816,19.1954,-0.71414,
-33.4096,-17.0016,-21.8151,6.4885,0.70172,-28.7168,-31.6644,-72.523,4.1795,-2.7667,13.6448,-9.9708,25.7379,3.1761,
-24.1919,-14.5383,-25.7963,1.7715,11.7196,-12.8938,-32.1692,-54.0716,0.5626,0.76546,9.46,1.6875,23.712,6.3517,
-13.6043,0.43398,-13.1885,7.9168,25.1164,1.9798,-35.5287,-44.5762,-0.91341,0.23787,-3.1291,10.7223,20.847,8.3752,
-11.3454,14.5079,-13.839,4.0761,18.1652,15.9611,-42.533,-46.2288,-3.2628,4.5517,-15.9248,13.4456,17.192,9.3154,
-21.2434,12.3659,-27.1087,0.94566,2.9753,22.5592,-36.1341,-43.4556,2.7033,7.1645,-13.0459,3.0206,18.0839,2.9861,
-19.9684,15.4713,-35.426,8.5832,16.8968,26.015,-28.1952,-31.2305,16.6411,6.7342,-3.6073,2.8399,19.8848,11.4628,
-21.6557,12.6191,-38.1089,-4.4349,29.3467,25.4151,-40.6035,-26.4717,10.1985,6.3301,-9.1617,10.3633,7.15,9.8126,
-21.3188,11.861,-42.5556,-4.1688,13.4859,28.6986,-52.2673,-23.9224,-3.8781,9.7972,-5.7266,13.5884,8.644,0.56849,
-9.9416,12.593,-30.8648,2.3324,21.4872,27.4579,-35.0313,-27.7762,-1.2412,0.07285,2.792,3.6366,19.1858,7.747,
-3.0935,17.1266,-17.9529,8.444,22.6026,30.1381,-18.8294,-16.9731,8.9317,-6.1831,0.21985,6.7845,17.5539,15.4577,
-8.6783,16.0995,-23.6085,15.6317,12.5907,34.1002,-31.7996,-1.8547,8.3954,0.92067,-5.5637,13.1093,16.5002,10.6828,
-12.966,4.5542,-22.1911,15.6553,20.4915,27.2458,-37.9121,-1.4172,6.9302,1.8269,-1.383,7.5144,21.2811,13.8888,
-18.4396,-4.856,-17.4944,18.0821,17.8188,22.2448,-27.4628,-15.4322,1.2243,-9.3427,1.1047,2.7358,20.4849,16.4216,
-19.2562,-5.5262,-22.2147,16.0357,29.2528,35.0102,-25.8146,-16.2747,-5.5806,-9.7436,2.9623,8.3425,28.8736,11.5894,
-4.0009,5.3847,-18.9588,6.4173,38.076,41.8915,-20.4188,-6.6429,-6.2073,-4.3506,-1.0633,11.688,22.3318,3.2002,
10.3392,19.1616,-5.7993,7.4759,21.6914,36.0123,-33.2937,6.7396,-2.4691,0.23857,-2.4413,7.621,7.0479,8.2978,
-0.68976,19.7803,-5.4518,8.9499,14.7746,45.3919,-35.9503,13.0671,-4.2444,-7.47,1.5517,2.3549,12.3945,14.5318,
-12.1891,4.4935,-16.6654,14.1828,27.9881,56.7683,-19.6933,11.3211,-3.9898,-14.7157,1.4586,6.0605,17.4207,11.736,
-12.8996,-0.4295,-19.9927,8.0431,28.0777,45.5138,-10.0105,9.1996,4.4247,-0.84927,-1.0332,10.9865,9.1638,9.5901,
-16.9349,-10.0215,-10.1378,2.7521,12.2931,28.683,-19.9891,-0.96966,4.1592,5.934,4.7997,3.5959,7.6515,13.8231,
-24.0939,-23.5202,-9.0483,13.6465,-2.5445,12.862,-31.7732,-11.01,-2.3424,-8.522,9.8004,-7.6808,13.4436,13.4749,
-23.129,-24.3586,-11.8716,16.1939,-16.4918,-2.0097,-35.1565,-8.9067,11.8981,-16.9927,13.54,-3.8538,16.0031,7.3763,
-18.3751,-8.7971,-11.6401,11.8561,-23.6935,8.1924,-37.3747,-0.19769,15.3582,-1.8731,12.2469,4.5525,7.8299,1.6446,
-26.4087,-4.0962,-18.1547,3.9317,-17.9442,-5.2826,-40.4219,2.2188,2.4143,-8.1669,12.9552,7.6455,-0.81452,-1.8203,
-30.5945,-17.3146,-19.9513,-0.1516,-3.4033,-19.0657,-27.4178,-2.7236,6.1168,-9.6003,21.7952,10.0717,7.8901,1.1739,
-28.2785,-19.6414,-25.0054,-0.6228,6.8989,-32.0217,-26.2535,-16.6602,3.3456,-3.7347,20.0063,8.0247,8.8594,-7.0707,
-28.9856,-22.7906,-23.0234,-4.9131,3.1197,-44.2004,-37.6613,-22.7182,9.3956,-2.0674,18.3252,8.024,7.8471,-8.0896,
-28.6896,-20.9429,-14.4298,9.4817,-3.319,-36.2753,-38.7682,-8.3721,17.9688,6.2312,9.0511,5.1388,9.78,4.4173,
-28.41,-7.6639,-20.7767,9.2385,-12.2564,-19.9988,-34.0374,-6.4266,2.7907,4.4146,-3.5139,-3.3446,12.5599,4.6335,
-19.0121,5.2977,-27.2234,-5.4158,1.9432,-4.6989,-38.7275,-8.9264,-11.4767,-8.353,3.4297,-8.9143,15.6527,-0.45342,
-14.9859,2.0944,-37.1317,-15.9958,15.9266,9.6831,-50.5039,-9.3528,-9.0358,-12.6602,-4.4708,-9.3409,8.9437,-7.1585,
-18.4149,-2.3584,-32.4991,-14.5549,29.071,23.2021,-55.0124,-4.4635,-0.31862,-0.84105,-3.7214,5.1645,10.8112,0.48451,
-22.5992,-4.6216,-26.2215,-12.2393,13.2267,7.71,-56.0398,-4.6769,-5.5896,-3.1953,1.7911,5.3354,7.7579,0.93619,
-14.0306,0.94533,-27.0524,-9.1008,14.2015,2.4555,-57.9666,5.7022,-8.6199,4.21,-5.529,7.4195,4.8882,0.39972,
-7.8991,3.2928,-26.872,-7.112,21.5245,7.5973,-61.7021,6.8023,-8.5839,11.17,-14.3338,10.34,-0.6947,-0.10547,
-4.059,17.1952,-22.855,7.2601,6.133,-1.0331,-61.3657,1.105,-3.7412,5.2107,-7.2222,13.0867,-0.17227,2.3055,
-5.2577,19.3751,-30.6202,3.4584,-1.2935,1.4331,-56.2411,8.2518,-5.9214,-2.3151,-6.3081,7.0114,5.1282,8.4179,
-8.3084,7.1526,-29.2642,-0.11531,12.8841,15.4471,-53.3478,15.9313,-7.9699,0.22851,-5.4489,6.11,11.0711,14.1644,
-18.3896,2.8761,-23.6615,5.662,26.2111,9.5568,-64.2469,8.2431,-7.4922,-2.6711,-4.16,8.6283,4.6365,5.6202,
-17.7665,4.1462,-23.6845,6.765,10.5384,-0.15313,-74.4921,5.3443,-2.7145,-2.0296,-4.3916,6.6679,1.9541,3.8403,
-11.8926,2.9355,-28.9953,12.1294,6.3849,10.4349,-67.3088,17.5259,-4.4751,5.7855,-2.2047,1.459,8.5687,9.3803,
-16.4682,-0.60589,-31.5832,4.1886,15.1388,15.0988,-74.3298,10.2237,-8.5342,7.8431,-3.5146,-1.9938,6.6123,5.4522,
-10.6712,13.5305,-24.8798,1.0523,16.1539,22.8482,-75.6404,-0.96947,-4.1757,8.3345,-7.1511,-1.8746,3.3306,5.1246,
4.069,26.8186,-16.6547,15.0892,22.8785,35.5773,-65.3316,13.1887,-4.8867,7.8344,-3.8366,-0.80067,9.8622,13.4725,
17.9249,22.4952,-5.5569,22.6846,27.7574,40.02,-65.7393,26.4974,-1.2273,1.1132,-5.0491,1.652,23.3705,20.8387,
9.8072,14.8942,-4.743,15.0722,31.3814,36.1763,-75.895,21.7127,-0.6727,-9.0519,-14.8445,1.0719,23.2562,19.1078,
2.9679,22.1749,-18.5584,5.0306,34.7874,32.5628,-85.4413,12.2351,-3.9987,-4.1809,-12.5113,4.374,7.9161,11.7096,
-0.095603,18.9214,-20.175,-3.9257,19.2364,27.7245,-94.4148,20.1573,-10.4902,4.7253,-6.9513,6.0355,-0.25274,-1.4943,
-7.7837,14.9007,-16.0796,-0.80562,10.3884,31.831,-102.8499,22.7943,-10.8232,2.5188,-3.6497,5.6724,2.6478,-1.4056,
-21.4167,23.6244,-21.8467,-0.75728,23.8651,40.5004,-101.83,9.8859,-4.403,-1.4792,-4.3922,8.2175,1.5266,3.4881,
-32.4793,28.4576,-22.9406,2.6543,36.5332,44.3215,-109.8202,3.0416,-8.4674,3.8987,-6.5334,11.0906,-0.0072873,1.8356,
-28.6076,13.2855,-17.7172,-0.39035,29.7035,45.5091,-117.331,9.591,-14.6917,7.5117,-4.2175,-1.1156,6.7246,-2.1214,
-13.9072,16.8169,-8.4791,2.9992,39.9427,49.0301,-124.3912,14.3052,-0.82628,2.7333,3.2487,-4.4148,9.6882,6.1804,
-25.5755,19.6544,-14.7027,10.5136,44.279,31.9883,-128.485,4.7915,4.9937,-8.9719,-2.7166,-10.8818,11.0303,4.8486,
-38.141,4.3751,-18.6294,10.8443,33.9284,20.1256,-115.967,5.4655,5.6556,-13.242,0.33179,-22.7316,23.8323,5.5192,
-28.0036,-9.9874,-24.7243,8.7509,41.9907,28.0546,-107.5663,11.3892,1.9505,-14.8517,4.6391,-19.925,19.0366,4.7068,
-23.9192,-13.8874,-35.2628,1.0123,45.7224,12.2713,-115.2123,6.3777,-0.57073,-8.671,1.9565,-10.5549,10.6809,1.0587,
-27.2925,-14.9772,-33.147,2.8755,29.5144,-2.565,-108.1454,4.0716,-0.53648,-5.2662,1.8391,-10.8836,15.8109,3.8797,
-17.9615,-9.2697,-24.4259,13.2817,24.8586,-16.5111,-93.9624,11.5211,0.45766,-3.0259,0.76684,-5.4212,11.0148,4.6088,
-11.1126,1.8653,-19.1134,-0.016954,36.8313,-26.5969,-98.9035,8.9064,1.3912,4.8491,-0.24022,-4.1349,-3.746,-2.3996,
-9.966,8.005,-19.4093,-3.3821,48.7214,-27.4053,-90.5655,11.7382,-1.096,7.9243,1.2164,-1.4821,2.4046,3.0336,
-19.9463,-3.0546,-32.3447,-2.2177,31.6981,-20.9521,-85.1311,12.9573,-6.8011,4.5634,-7.5119,9.186,14.7626,5.737,
-28.8481,-11.0459,-31.211,-7.3747,15.6962,-16.3293,-94.1232,2.0814,-3.9883,6.6943,-10.4273,20.6564,8.5876,0.10359,
-22.7895,-4.1325,-22.1252,-4.5276,18.756,-17.7538,-101.3047,-2.3711,-10.9621,1.0025,-2.5886,12.2039,-0.10312,-6.1542,
-7.3221,7.1759,-9.7377,9.6891,31.7306,-8.5139,-81.1264,11.7165,-13.6705,-3.3848,0.93242,5.2206,14.0031,8.16,
-8.9613,6.7449,-10.1154,18.725,43.9268,-10.8885,-62.9497,19.6689,-9.9654,-2.2207,-1.047,6.8308,27.2629,14.4023,
-22.5236,-3.7574,-15.7596,10.3884,46.7519,-17.4478,-73.2727,10.3142,-14.6571,-12.1855,1.4205,4.9778,18.5856,4.4021,
-14.2844,-7.3788,-0.71404,14.5744,53.5645,-6.7832,-81.2231,10.6573,-1.2745,-11.4539,6.1437,-1.0908,19.3944,10.8703,
-12.9466,-14.1492,-5.6347,24.76,50.8314,-9.7424,-67.2136,7.6132,11.785,-3.5536,2.4089,-15.1254,13.9031,12.6227,
-20.3448,-14.7429,-14.4327,20.8702,49.2242,-11.5625,-69.4319,9.561,17.3299,6.7577,13.3248,-3.9648,19.32,15.2311,
-22.4898,-18.1865,-14.0479,5.518,36.1727,-1.7322,-79.366,3.6978,10.0381,0.10063,3.3888,5.4092,11.9088,7.1046,
-8.6387,-12.2864,-13.205,4.38,35.9258,12.4717,-77.3349,4.4374,4.6269,-4.7138,-10.9145,5.0851,6.3863,3.7924,
-5.7161,-10.1065,-18.6643,8.4444,47.8703,21.1852,-58.5948,12.3457,0.98362,-3.9507,1.4357,11.0311,20.1031,8.8545,
-11.6238,-13.8278,-20.9102,11.3039,58.7884,12.7019,-54.7529,21.7035,-4.365,1.5764,5.6772,19.5063,24.032,14.5748,
-9.4839,-12.5176,-23.0219,5.3358,41.1611,4.7265,-65.413,17.9968,-4.5841,12.5421,-3.8002,18.8159,8.49,13.2189,
-16.6085,-22.3456,-35.7406,-1.7165,24.5915,-6.1361,-75.5882,2.817,-7.1942,6.9804,4.1219,10.9549,3.3263,0.88524,
-29.712,-35.1048,-42.5779,6.0808,9.016,-14.4237,-85.1529,-11.1426,5.7401,3.6767,17.9746,8.3741,14.6671,-2.0528,
-42.0293,-47.0986,-41.466,-6.3055,1.7257,-27.6583,-91.7558,-5.1844,9.7234,7.7837,8.0857,-1.2644,2.727,-9.1427,
-45.4495,-55.9845,-29.3607,-9.7741,4.5076,-27.7672,-72.1505,-7.7583,1.4461,6.3552,0.86823,1.696,-8.9773,-12.4411,
-37.9136,-38.5254,-23.7517,-0.53233,10.0079,-12.0012,-65.5718,-11.1397,4.2448,3.0885,4.6631,12.1735,-3.6294,-9.7716,
-23.6173,-22.1139,-11.2666,9.5976,16.6201,2.8189,-64.0417,-2.2968,9.2797,4.3459,1.0176,6.1534,2.8395,-1.0103,
-8.1003,-6.6871,-0.011344,13.8307,29.088,16.7497,-48.658,11.941,0.067152,8.894,-0.0045309,-6.7176,-0.21581,6.7446,
-2.96,7.8141,-4.3388,7.7117,41.4427,29.8448,-39.4879,25.3246,-4.265,3.0703,1.438,-3.9108,-7.4159,8.7437,
-2.7828,12.496,-18.1785,-0.44533,33.0303,38.9756,-39.042,11.474,-8.8175,-1.9219,-3.4572,4.0182,-8.8944,-0.43581,
2.193,4.0528,-25.1073,-11.9589,22.3936,27.0197,-30.9287,-1.7167,-9.2495,5.8868,-3.2493,0.89212,0.29501,-1.3716,
-2.2667,-0.51847,-20.2351,-12.685,28.2626,27.8028,-34.363,9.4458,-4.3678,11.7847,-3.5355,3.2428,4.6045,5.9233,
-6.9391,6.245,-21.906,2.1761,30.4138,36.7138,-34.2243,13.688,-0.25835,11.0785,-5.2464,14.589,0.48133,5.5688,
-7.4847,2.0238,-26.362,1.4107,14.4889,28.7406,-22.5535,6.1344,2.6421,6.5664,-1.0852,8.9048,-5.3179,-0.5366,
-14.2478,-3.3877,-29.108,-7.8101,0.30998,23.65,-22.643,12.0179,-1.8441,8.5771,3.3076,1.1574,-7.4026,-4.8321,
-16.2783,-0.29902,-25.438,-7.3415,3.1768,31.8483,-24.1694,14.1818,-5.5804,11.9094,4.0707,5.8973,2.6584,-3.5797,
-8.0886,4.0466,-14.7757,1.2736,8.2754,30.4182,-12.6212,16.697,1.9676,2.0579,8.1541,8.9087,13.5589,2.8857,
-7.123,5.2465,-11.4844,10.3337,17.8778,25.2274,-11.3832,18.0994,0.40679,-5.2787,8.1461,5.0085,11.3026,3.1938,
-11.5044,3.9702,-9.8339,1.0575,18.7281,34.2925,-13.5856,8.3577,-1.5406,1.7699,7.6573,5.6695,6.7776,3.9637,
-13.2179,4.2123,-17.4189,-2.3717,5.5825,37.5246,-13.2512,0.64311,-1.9294,1.1834,4.7936,2.9251,8.7751,1.3216,
-12.9056,6.3642,-26.4718,5.9452,12.4606,32.8689,-13.8984,10.703,-1.3329,-8.9861,4.0253,4.1918,7.7679,-4.0477,
-13.0937,5.9824,-26.8069,-2.1053,21.3307,38.5902,-18.8353,15.8312,-1.2529,-5.5615,8.5922,1.0549,4.4164,-7.6518,
-9.9034,14.7595,-31.4497,-4.3837,14.7608,50.3747,-22.0329,13.4386,1.2269,-1.8617,6.6344,-4.2976,8.48,-5.7495,
-11.7139,19.164,-29.0819,-5.5629,11.4714,51.5253,-13.4978,13.1131,4.5195,-8.0015,0.94625,-7.4059,4.605,-3.9623,
-16.3007,9.8391,-16.277,-11.4803,22.8042,34.4889,-12.2072,10.8836,0.88169,-5.1172,-2.4762,-2.6334,-2.8848,-9.0142,
-15.8029,2.0362,-16.7426,-14.1572,26.7264,44.4415,-25.5748,5.9034,-3.4984,4.3263,-3.7704,5.6997,-1.269,-7.9921,
-2.3525,14.4162,-11.8916,-6.5763,14.5436,55.875,-38.1403,12.281,0.55841,4.0668,-3.5441,10.1661,-5.0398,-2.7042,
4.521,27.6513,-15.9865,-4.2578,21.3648,54.7717,-21.7519,24.0469,-1.399,3.8228,-6.2169,13.403,-12.4312,-5.4274,
-9.8503,11.8922,-29.1274,-18.1024,30.6613,41.8681,-6.3467,18.7571,-6.1235,5.5173,-4.8824,14.5228,-8.8,-3.1778,
-17.76,-1.8048,-28.1866,-9.1673,16.8006,39.8372,-9.8129,13.304,0.49504,-0.10336,9.3564,10.2848,3.75,8.0724,
-12.847,2.1504,-15.9162,-3.8089,1.6925,39.3704,-19.8029,7.6969,-3.3816,-14.1972,4.9481,0.050865,-6.0928,-4.9142,
-4.3824,1.0599,-11.1143,-11.2742,4.1502,51.1082,-6.112,15.8909,-2.2172,-14.633,2.7273,9.6646,-3.8033,-7.5047,
-1.2345,-0.92717,-12.3714,1.9041,18.0012,59.9082,-2.8603,13.9755,-0.16069,0.34498,5.4486,11.0082,6.0413,1.6013,
-7.412,-0.39079,-20.7652,2.2715,10.0338,42.2137,-11.8252,-0.96304,-0.6318,-7.5246,3.6795,-0.71227,4.2366,1.0245,
-3.1208,-0.3678,-21.4432,-6.5206,7.5083,39.8354,-9.1927,7.9051,0.36807,-10.9205,-1.3502,-1.6315,1.0974,-6.7313,
2.357,3.0209,-16.7899,0.12176,21.1578,51.5453,1.4578,21.5308,1.7887,-2.0902,-2.7119,-0.090892,3.4358,1.8477,
-3.5548,1.8777,-17.706,-4.6944,33.9883,40.6042,5.2172,29.7017,4.5663,-1.0028,-5.4341,-6.8173,4.1916,9.4311,
-4.7842,9.9401,-17.1249,-2.0085,38.3717,44.419,1.538,18.783,2.8496,4.3469,-3.6654,0.80435,4.4204,5.4986,
-4.0164,18.4797,-21.387,-3.3303,25.9709,55.8539,-7.6908,24.8687,-3.5729,4.5669,-2.0032,6.0462,-2.0955,-2.0444,
-5.6989,20.2568,-18.1799,-7.9393,20.5662,52.3481,-4.3439,25.3005,1.4503,2.3694,-1.8825,1.8369,0.91519,-0.95978,
-12.0898,15.194,-16.1276,-7.4625,10.6764,38.628,0.72513,15.1266,2.3253,3.1883,-2.7315,-4.0446,0.85982,-1.8642,
-16.1728,8.5116,-17.0834,-8.9387,-4.0641,31.5014,0.68163,9.4102,1.2242,3.9594,-1.6062,-0.91647,-3.0387,-4.6377,
-6.5462,8.0018,-14.1344,-2.6315,-2.2225,28.6503,-4.1677,11.7314,2.1123,1.7988,-2.4713,9.7178,-0.93245,-2.4355,
-2.3074,3.6739,-5.5935,-0.55064,12.0108,34.6246,-3.9181,14.8736,1.9856,-2.1569,-2.323,11.0577,2.9704,1.5575,
-13.228,2.0112,-0.92973,-5.8068,15.9431,36.8753,-6.0872,7.7305,0.42417,-2.5083,-0.74138,1.2582,0.38752,-7.672,
-14.3578,13.4317,-6.6439,-2.5734,14.9869,39.4716,-9.5684,12.0755,-0.56323,0.52811,0.26506,-0.74079,1.3262,-2.4028,
-5.8025,18.3957,-10.0926,-5.3044,27.5515,41.9118,-0.339,25.451,-2.4534,6.2663,-3.5978,7.959,7.979,11.8413,
1.2775,16.33,-6.6016,-4.0242,36.4781,41.3205,11.2221,30.982,-5.1911,6.8523,-4.3439,10.3673,4.6153,10.4942,
-3.6076,10.5418,-2.3586,-0.89732,41.9832,41.7262,11.5103,17.5818,-1.0327,-1.2527,1.6876,-0.83397,4.3384,6.0176,
-12.5281,3.6577,-6.5452,-3.2482,36.0981,35.8565,4.5685,15.0842,-1.4515,-2.6207,5.914,-7.0355,6.4818,10.9466,
-10.3337,2.958,-18.1736,-2.5721,23.8342,34.1863,-9.8056,28.125,-6.654,2.8262,-0.69194,3.4856,-1.1197,3.0772,
-6.3475,0.37581,-17.5648,-0.97548,20.9609,38.3858,-15.3142,24.9944,4.8052,2.1759,-4.979,6.6417,-0.57178,-2.3975,
-10.2948,-3.9749,-13.1443,1.4873,27.8783,27.9085,-12.9522,9.3947,7.8826,-12.0547,-2.2751,-7.8568,-1.0187,0.15054,
-12.0813,5.4006,-9.9514,0.91727,34.3802,33.4471,-7.8474,5.6199,-0.76495,-3.9633,5.0744,-7.7111,1.4471,-7.0716,
-21.4545,-6.9444,-21.3758,-12.1203,18.2174,37.6914,-17.4746,5.7639,-2.1608,6.3726,-3.4051,-1.9588,-10.6608,-19.6298,
-21.6099,-13.7413,-25.3829,-6.1044,3.0244,31.1022,-21.7158,16.4781,11.9138,5.509,-5.605,-2.3225,-18.1962,-10.2779,
-12.1387,-13.398,-13.7624,-5.2569,-2.1366,20.0991,-6.4679,15.0077,9.7553,2.7743,1.944,-8.4343,-14.7011,-2.4486,
-12.8527,-22.6922,0.0473,-2.5373,1.3573,11.6805,-1.7517,0.16277,7.7282,0.2036,2.3085,-4.5625,-14.2993,-2.782,
-22.6608,-29.025,-7.6494,-3.347,-12.1884,2.3239,-15.7466,-6.5793,17.8433,1.1533,1.2081,2.444,-17.2887,-7.4239,
-23.2246,-16.7042,-21.2904,-12.763,-13.3801,5.0699,-27.6306,-4.2611,12.9258,0.12172,4.9825,-2.5119,-16.2505,-17.5578,
-17.5034,-6.5654,-30.4372,-9.593,1.5227,18.8657,-11.8728,-4.4867,-1.7947,1.5571,3.2408,-7.6508,-12.8713,-18.9085,
-19.3386,-11.9423,-26.688,-11.9029,15.5314,20.4637,-2.6597,-5.1794,6.0068,0.5022,4.0079,-5.2679,-9.2145,-12.9656,
-13.3694,-10.2634,-13.5455,-7.3418,4.1914,22.1213,-6.347,2.8256,16.2256,-7.2218,9.5382,-3.9903,-3.8523,-9.3022,
-17.3757,-4.8392,-13.6942,-3.0544,4.9023,29.4498,-5.0038,4.58,6.5968,-5.826,5.1199,-8.5593,-5.5441,-4.8972,
-23.5462,-10.7999,-19.1242,-13.9306,17.5907,35.8578,-0.37635,5.7475,-1.0126,2.6976,4.3315,-0.83312,-7.6166,-1.2376,
-12.5162,-4.3816,-25.6701,-13.0953,19.4211,43.3237,1.5701,11.1735,-2.8753,-4.1961,-0.73722,1.1412,-8.1207,-5.0098,
-5.9944,7.4221,-24.1299,-12.3095,13.4465,46.4942,3.3994,9.5411,2.1066,-2.9828,-7.4253,-3.7366,-12.4428,-3.7477,
-19.7347,-3.1213,-23.1633,-25.5159,-1.4603,33.6065,-2.0947,0.79358,-1.3865,11.1411,-5.5371,-3.0312,-16.9858,-3.0417,
-17.435,-8.7044,-24.6589,-27.8323,-14.6827,18.1259,1.8779,1.7075,-2.2652,9.5107,-2.3199,-1.8883,-15.0047,0.025789,
-8.6941,1.4352,-16.4471,-18.4681,-10.9159,17.0379,11.3826,6.4139,2.6796,3.1697,-2.1803,3.0339,-16.0279,-2.8607,
-20.1949,2.7918,-15.9414,-6.3005,-20.359,20.3437,10.2189,13.2421,0.11458,10.193,-5.4161,7.18,-26.1267,-8.9411,
-24.2724,-0.7419,-25.083,-7.3647,-24.4266,22.4893,13.9338,20.6227,5.3969,12.9476,-5.5719,6.2685,-16.3836,0.73235,
-19.4503,-3.1016,-27.9061,-13.1739,-18.6338,15.8503,16.4635,14.0952,1.7074,1.1103,-3.7948,0.60272,-5.3025,-2.6782,
-19.2448,-2.916,-20.4614,0.11828,-6.937,17.7842,20.2841,16.1349,-7.0509,1.0441,6.0501,6.3369,-1.1379,-3.4786,
-29.6309,-16.841,-22.1187,-1.8114,-20.6208,16.7176,17.1441,19.0137,-1.819,0.98103,1.8407,3.0718,-3.9546,-0.38489,
-23.5254,-21.4459,-19.3488,3.586,-33.4835,15.2334,17.5577,20.2771,3.5798,-0.52054,0.28753,-2.4022,-1.3131,-5.6514,
-15.3815,-6.0591,-16.2645,6.2563,-25.8743,22.9756,26.122,23.8694,-8.1757,2.3961,6.0402,-4.182,1.6511,-6.2738,
-17.8248,4.7282,-16.7313,-6.1406,-17.1097,33.6186,30.8058,26.7649,-10.0898,1.7716,-2.4968,-2.4888,-1.8141,2.2772,
-10.5042,3.0018,-9.4763,-0.48253,-13.6789,34.0057,40.9789,31.4101,-0.34792,0.22259,-10.522,1.0272,-2.1865,-3.1491,
-4.5838,-2.4675,3.1142,7.721,-4.6827,26.6762,52.4656,31.9302,5.9245,2.6139,-5.5621,-5.286,9.9671,-7.2878,
-8.1557,-3.2809,10.6217,3.4108,-5.3632,19.3048,46.4327,21.359,8.4536,8.227,0.54152,-17.4711,15.139,1.8057,
-14.3987,-11.7399,-4.1156,-9.2956,-19.1414,4.0465,36.9144,5.9775,10.8322,7.7338,12.0502,-13.5379,14.2311,-10.8053,
-21.2286,-25.1355,-17.9687,-17.3941,-28.8988,-10.2963,39.5084,-3.3631,6.3354,3.4229,16.1356,-8.8787,8.5679,-24.257,
-24.7638,-30.6854,-27.1606,-16.3509,-18.5091,-11.2924,41.9463,1.6471,-2.7005,3.217,5.5502,-6.4225,-3.4864,-22.1667,
-19.9118,-14.8989,-15.4325,-17.7736,-15.9563,3.4852,47.6041,11.6468,-3.9817,1.5818,-2.9574,1.1759,-6.6434,-13.6236,
-5.7336,0.095072,-1.5231,-2.6072,-2.015,17.3761,58.6933,25.0479,-2.2996,10.6229,-4.2231,15.2053,7.8552,0.1777,
-3.9469,-4.3933,1.9345,10.3781,-3.3368,29.0069,59.4994,25.7947,-1.6813,17.1991,-4.45,23.275,8.672,5.4567,
-12.8466,-18.2297,-1.5478,-2.2665,-17.2366,23.9007,50.6398,10.147,-2.0607,2.0672,-3.7027,7.9335,-1.9473,-8.9707,
-12.0758,-10.249,-5.3018,7.4867,-10.277,28.2371,51.4483,23.6382,-2.8991,-10.4045,2.2898,2.6486,6.8253,-3.4695,
-20.0071,-9.6341,-16.5249,-1.6187,-10.6228,30.3898,50.2849,26.5476,-12.3429,-4.9718,1.1909,0.5658,3.5304,6.3564,
-22.6536,-11.9419,-22.2653,-4.4066,-24.0854,22.796,48.2293,11.49,-10.6403,3.0198,-0.80399,-0.4301,-4.3748,-6.5277,
-14.0813,-4.0114,-16.6013,3.0709,-10.9436,18.0621,45.8167,12.2438,2.982,0.4349,-4.1219,-5.6935,-1.7076,-10.4637,
-9.8707,-4.2519,-7.4311,-3.3645,3.813,29.9618,44.51,25.4541,4.2449,-1.0339,-7.2403,-7.7561,-1.1249,-0.69931,
-13.1249,-3.0353,-14.6786,-7.971,-0.41772,41.6288,46.6487,22.0039,-1.7797,-0.97186,-3.9205,-0.55837,-3.9419,-0.65735,
-16.1843,2.9176,-20.5302,-6.5312,-11.9334,26.6279,56.352,9.1425,-0.71145,-3.799,-2.7237,-3.4103,-3.7063,-2.5418,
-12.8095,10.9172,-9.2003,-0.8502,-8.8136,13.0087,64.9924,21.5769,-4.0349,-0.20486,-2.0796,-4.6488,-3.9647,0.015349,
-12.5212,1.1256,-16.8224,-8.0118,-2.9952,21.3647,56.7657,33.2662,-7.1585,1.2501,-3.3975,3.8061,-6.131,-3.3513,
-13.6934,-13.0419,-16.7751,-15.2245,-7.6235,26.8156,56.2447,26.4618,-0.95866,-1.7098,-1.2702,2.6157,-5.7627,-4.1122,
-13.8338,-10.6621,-6.1517,-4.6942,-8.1285,15.5889,66.97,19.1033,-1.8626,-6.4166,1.6914,-5.236,-10.2263,-4.8278,
-12.523,1.0376,-8.1868,-3.9318,1.4953,12.2489,77.0518,28.0551,-5.117,-0.7415,3.9937,9.1782,4.4873,-1.172,
-18.0232,-7.1997,-13.9472,-7.0625,-4.8455,12.9567,75.0036,28.776,-2.4058,-3.1021,5.1968,18.571,18.3181,0.34102,
-26.5591,-19.2704,-13.1099,-3.7529,-18.6548,12.1789,61.848,23.2025,-0.33801,-13.4948,-1.8469,3.3567,3.119,-11.2197,
-28.3313,-24.3649,-16.651,-4.97,-28.9212,12.8913,56.6949,24.2151,-0.79848,-10.2804,-1.2553,-7.2689,-5.8781,-17.7596,
-19.899,-16.1711,-22.3843,-4.6722,-13.0859,12.1174,65.7954,20.8387,-4.5979,-1.0078,0.74344,-1.0624,-2.6404,-10.9237,
-5.7216,-1.1008,-10.9427,-1.9877,1.7992,18.6039,74.8316,21.0311,-0.95544,0.49536,-0.74387,2.368,-7.7716,-7.8641,
1.3535,13.0652,-1.6308,-1.8684,7.6328,30.9514,70.3413,29.3865,0.063384,-0.49678,-1.6607,-1.621,-14.9992,-10.2776,
-7.8642,12.9336,-13.5545,-9.9304,2.8467,30.537,66.602,30.0275,-6.1915,0.014231,-3.0038,-1.0435,-8.8096,-7.2568,
-7.8731,13.5999,-17.0693,-21.357,3.1566,15.7218,67.8951,21.9747,-7.2632,-6.2382,-4.2658,-5.3085,-5.8773,-5.3782,
6.6993,22.8819,-4.0232,-7.0921,12.1047,18.1442,62.3791,24.0224,1.3476,-5.3827,-3.5296,-8.3557,-7.9288,-13.2305,
9.0272,17.6625,1.0266,-4.7432,12.3394,18.979,55.7509,22.5806,-1.6182,0.71063,-2.3559,-1.1225,-7.4526,-26.5367,
-4.0167,5.062,-1.9199,-16.9608,3.9052,7.261,62.0232,23.1497,-9.2149,3.5534,-2.2145,-0.093654,-6.044,-25.2702,
0.071715,6.6818,-8.5366,-9.2104,-4.0224,12.5966,56.3788,35.2249,-6.7386,0.45525,-0.15817,-3.9345,-3.7579,-11.2513,
-9.0696,3.8762,-12.3525,-5.2925,-17.8811,18.0915,38.8961,26.8599,-3.9305,-8.7091,2.256,-3.2177,-4.0132,-11.0579,
-17.662,4.1248,-11.1306,-4.4937,-17.1349,12.6779,22.4623,17.0737,-8.9843,-9.6292,6.4478,-4.4673,2.4788,-14.7216,
-10.8319,6.7623,-14.3097,-8.0715,-2.0068,18.65,31.041,23.7431,-10.3687,-8.0895,2.2145,-7.0842,10.0243,-12.8773,
1.84,12.6077,-14.8938,-6.1445,4.6914,31.631,35.4301,29.5316,-5.4185,-6.1614,-8.0164,1.5149,7.9802,-12.5849,
2.6911,21.4685,-8.2298,0.95605,6.3334,33.4246,27.534,22.9508,-9.9022,-2.9068,-9.4589,0.463,3.654,-11.8303,
2.5301,16.3335,-0.041762,0.8996,18.4556,22.7637,39.9819,24.4592,0.30965,3.0384,0.72549,-7.2586,14.014,-0.54123,
3.821,9.1028,-6.2904,1.3264,16.8675,25.7265,48.0072,26.3578,4.6187,0.45147,-3.6457,-6.3423,8.8455,0.93441,
1.6678,9.5181,-9.7603,-1.6386,6.2377,33.7997,40.3179,19.006,-9.7584,0.42438,-16.8916,-2.1149,-2.2645,-4.8925,
-4.2026,4.1382,4.9253,-2.5023,2.9785,23.116,51.9988,21.7125,-11.4225,2.3224,-19.7246,-3.9115,0.75632,0.20994,
-8.7589,3.8904,5.9174,6.3037,-2.9706,15.9586,59.7839,30.9886,-4.0053,1.2211,-12.7707,-0.79181,-2.174,0.19689,
-11.6,3.1757,-8.383,2.5588,-1.3496,24.1377,52.8307,30.5715,-4.2453,1.629,0.97896,4.5453,-1.5633,-7.0276,
-18.1171,-0.38099,-7.3988,-3.8454,9.7913,16.4378,58.7974,21.5246,-3.5098,2.012,4.2864,14.3702,12.6305,-8.0491,
-24.2422,-5.6473,-13.206,-10.8277,-4.7416,1.3516,64.4065,10.1351,-6.6654,10.0659,-7.9923,16.8751,8.3528,-6.123,
-20.3835,-14.4455,-24.4352,-17.3912,-18.5571,-1.9402,60.0609,8.0843,-8.6692,14.752,-6.0705,12.4964,-2.2468,-3.3509,
-17.7182,-18.8684,-22.4883,-9.1351,-25.4632,10.1972,55.0146,16.7357,-6.7073,2.8064,2.4688,5.4955,4.1391,-7.478,
-9.9228,-4.272,-7.039,1.9927,-14.3181,11.5089,63.2544,22.4635,-0.53444,0.7146,4.2441,10.9352,12.5466,-3.1828,
-10.7701,1.2744,3.8075,-2.4545,-7.2074,4.5677,64.7492,11.0176,-2.9061,4.0379,-2.2621,11.7223,4.5807,-2.5102,
-15.4131,-12.7471,2.1368,-4.7114,-16.873,14.3917,70.9623,8.9143,-6.0975,8.1237,-3.5691,9.5762,2.8631,-7.6492,
-11.6038,-18.7155,3.9312,-2.5057,-29.9606,20.2596,78.2449,17.9963,-4.771,4.7509,-0.46955,6.1162,6.5383,-10.0757,
-0.32786,-4.1274,1.7723,2.4535,-14.063,16.16,72.5891,23.6493,-0.6374,2.5424,1.4821,6.7112,6.1464,-2.7393,
-2.7129,-4.3605,-9.394,-9.7161,0.88078,7.9764,67.7526,12.1314,-3.9653,5.756,-1.973,2.9424,1.4491,-2.0942,
-9.7632,-13.2359,-12.1966,-13.4608,-13.2721,7.9794,67.0536,8.0378,-12.8635,5.8914,-2.3354,-1.5618,3.7668,-8.2192,
-0.52204,-0.90054,-3.7709,1.4468,-13.4382,15.194,70.7238,21.6555,-5.3598,-0.23246,3.5751,8.1492,12.1966,-2.9181,
0.95245,8.29,-1.14,6.0138,1.4681,21.4959,78.5027,34.4562,1.2129,-5.5081,1.9179,6.2175,9.0606,-5.1472,
-5.8366,6.8307,-12.6124,-7.8103,-3.583,22.1296,76.678,29.675,-9.4387,-0.36877,-8.776,-1.8489,-2.0619,-15.4172,
-10.7765,-0.79179,-18.1072,-17.4406,-17.468,12.6268,68.7107,23.5664,-9.3535,6.866,-10.6536,2.5892,-4.3433,-17.8578,
-6.2825,-1.7062,-4.5176,-8.6999,-25.8822,2.2519,67.4739,26.9617,-1.098,7.416,-4.244,9.1667,-0.2353,-11.9775,
-5.906,1.2811,-0.40009,-1.446,-25.2912,3.0788,66.31,29.1905,-10.6494,4.0861,-11.6837,13.4246,-6.954,-2.604,
-4.1089,-1.1995,-1.8188,-2.8015,-25.2169,11.0686,76.4314,36.5756,-3.7589,6.2446,-5.6926,21.7561,-2.2082,10.5362,
-5.3047,-15.2276,-12.7692,-1.1912,-29.9545,5.1153,80.8275,23.321,3.6797,1.5423,2.8236,8.4293,1.2905,-0.19448,
-10.276,-20.4109,-12.4843,4.1695,-27.6765,3.3653,79.3435,15.6707,4.9012,0.007514,4.0964,1.6719,5.5407,-8.3574,
-3.8891,-5.0862,0.7675,5.8432,-14.4752,13.7426,87.0856,28.8304,4.6071,0.96856,2.8891,5.4185,9.0552,4.6463,
7.4043,-3.9737,-7.4531,6.9353,-2.5462,20.1316,93.8824,35.6013,2.888,2.3532,1.2731,2.6892,5.1462,8.6956,
-5.5427,-17.8353,-20.4706,-6.9455,-2.3943,11.2289,90.1725,19.3653,-0.17072,2.212,1.1967,-7.0899,0.028082,-1.4438,
-10.9805,-15.1683,-15.3955,-10.3756,-0.32677,10.5552,85.7241,17.8772,-1.122,-0.80617,4.0103,-10.5114,-0.9351,-4.2426,
3.7783,-4.1597,-10.1436,-2.54,1.1351,19.0589,88.7557,30.9046,1.35,-2.2,5.2119,-1.7052,9.2195,1.302,
3.397,-12.5659,-13.3819,-3.3487,-9.5118,16.9534,82.4684,36.5895,0.30705,0.81691,2.0143,6.0905,6.7429,3.1473,
-8.8287,-16.1396,-20.754,-0.744,-16.1542,10.6461,79.9245,20.2942,-5.0015,4.1341,-1.4728,1.3974,-7.6071,0.55384,
-1.5671,-12.2863,-16.6234,-3.5843,-12.3,2.314,79.9379,8.6518,-8.5478,5.8095,-2.3464,-3.4953,-9.0741,-7.1728,
0.93156,-14.9144,-18.0302,-12.5063,-13.9657,-9.8464,61.0416,17.2697,-11.4011,7.8656,-1.7248,0.080539,-9.0104,-16.8409,
-9.7036,-16.9054,-23.6807,-18.4878,-21.7836,-10.2175,55.6103,21.042,-11.679,3.5463,3.1875,6.8076,-13.2787,-18.7154,
-3.8317,-11.5629,-13.1233,-12.0889,-19.0338,-0.46795,66.3736,18.3372,-4.7262,-1.9561,3.4775,14.5742,-8.1538,-8.4559,
2.6493,-5.5795,-6.0848,2.7365,-13.5646,5.8112,76.4912,25.4111,0.84605,1.5279,-0.097781,17.0654,-0.45199,-0.73595,
-11.4551,-11.4968,-10.0478,1.936,-21.8873,-0.78855,73.0344,22.4437,2.238,4.8019,0.38929,13.6373,-9.5614,-2.1345,
-10.7678,-15.6159,-2.7126,-1.0651,-29.2298,1.1822,73.4612,20.1351,1.1418,-1.2566,2.2894,15.704,-8.9882,-1.0445,
1.419,-11.7935,2.2585,4.7687,-16.8968,9.7666,75.7854,29.5063,3.9587,-1.1812,2.152,9.9534,5.6511,6.712,
-1.5506,-13.0089,0.20049,0.63661,-10.1122,8.2191,64.5068,23.8899,1.7981,2.7366,-1.824,-1.2222,-0.13171,2.4624,
3.3508,-4.5345,8.8438,4.4453,-11.4293,10.6114,66.4068,19.5711,0.72876,2.5724,-1.7146,8.468,-4.9322,2.3146,
10.3629,-1.8578,12.6408,-0.14906,-9.3004,16.2254,67.7116,32.4968,3.0888,-1.9096,2.716,2.6707,4.4998,12.2743,
3.0088,-6.5552,1.3031,-7.8344,-7.7813,13.3284,60.7639,41.9327,3.8654,1.0899,-0.33194,-11.5895,10.0002,10.5759,
-11.2718,-20.1068,-10.7966,-10.7301,-21.4145,-1.5713,50.867,25.3168,2.1908,-4.2651,4.9776,-18.4334,3.149,-4.1587,
-16.2108,-31.4031,-3.4164,-6.2393,-34.2296,-15.577,54.5468,9.6977,10.7147,-9.7791,18.7789,-17.3274,4.8831,-9.525,
-8.0251,-30.9612,-6.5776,1.3477,-46.2758,-28.7424,49.8313,2.6932,6.7061,-6.7882,15.5732,-10.9981,-0.69951,-5.5868,
-5.6201,-15.0035,-3.298,0.30484,-37.745,-12.9179,46.8414,16.6316,4.3803,1.3125,0.53885,3.7618,0.30442,-1.4052,
-4.3214,-0.31386,6.5172,4.1335,-34.5188,1.9572,54.6102,29.7337,4.1174,-0.68924,0.18081,17.3255,6.0561,3.4875,
-3.1006,0.66693,3.2412,11.5797,-18.9825,12.0929,65.4336,26.6785,5.7939,-4.4953,4.0173,3.7842,9.5401,7.1257,
-3.3958,-3.7008,-2.2434,6.5564,-12.5544,9.925,72.8933,21.7112,9.7739,-1.8209,0.40922,11.7317,11.3714,5.255,
3.06,-0.11208,5.1048,8.5681,-19.0138,10.7722,64.1925,21.8517,3.8978,-0.26892,-0.095629,14.3945,9.2473,7.3448,
12.9745,3.2603,15.8585,8.5352,-12.5833,13.4916,62.7451,24.8683,0.29825,-1.6955,1.3528,3.4318,9.1737,7.3844,
17.0049,6.9121,18.7539,8.0227,-1.2495,26.7821,66.6742,31.0705,7.0122,-6.4017,3.1951,-0.62054,16.3176,6.9418,
13.0992,10.3438,13.7813,7.5408,-2.1365,32.2337,58.8264,33.0527,7.5535,-14.6743,2.0414,-1.5453,15.3381,6.5248,
10.8705,2.5097,13.4356,2.7612,-13.0679,16.1997,52.8926,29.6268,7.5805,-9.4657,1.4387,-7.7037,11.0512,5.653,
11.1802,4.283,11.6675,12.2124,-21.9015,1.1277,53.566,23.0408,7.1257,-1.204,1.3523,-5.3185,9.4266,2.4284,
10.5094,18.126,7.121,6.6712,-18.6635,15.16,61.8932,28.3907,4.7752,-1.1317,2.2327,7.5038,10.7849,5.1682,
7.4742,23.6157,2.3652,-6.7125,-15.1404,11.0388,65.3923,28.129,3.0459,-11.1619,0.65603,1.763,8.6942,3.4144,
9.9116,17.3908,-2.5847,5.2314,-19.04,-0.20228,62.4311,21.6333,4.7866,-5.6833,2.5401,-5.0737,6.25,-2.5599,
6.9122,6.2484,-0.98691,-0.37209,-31.9976,-1.6328,60.1275,17.9311,3.0567,-5.8235,3.8304,1.4819,4.4323,-2.8875,
-7.4475,-5.186,5.3234,-4.677,-44.1777,-15.6349,57.9626,20.2214,4.316,-16.5336,2.1579,-1.0113,0.80064,4.4993,
-9.4057,-12.0884,8.3697,9.7036,-47.469,-23.6783,56.8886,15.6415,5.4998,-11.2144,0.58571,-2.3942,7.0028,6.6326,
-4.0325,-12.325,8.8295,13.7743,-47.5058,-9.7549,57.3226,9.8946,5.1693,-2.8472,0.55103,8.3291,5.6216,7.1966,
-11.4839,-12.5466,5.4148,8.1399,-44.655,-6.2846,56.7687,16.9948,-0.91119,-5.5614,6.2883,9.7529,-6.2569,8.6892,
-20.4126,-21.4115,6.0514,8.6126,-36.2063,-10.7164,55.2856,15.9751,-2.78,-10.0366,7.8345,8.2057,-2.9965,7.2059,
-10.0513,-16.7607,6.1691,15.3089,-29.7053,2.9105,49.5642,11.6504,3.6384,-2.2213,1.1128,13.965,1.5118,8.2158,
-5.1206,-12.3893,-7.1845,5.2534,-28.4046,6.1011,42.2623,15.279,6.7863,0.31575,-2.3201,2.0662,-1.9459,2.4328,
-11.0645,-10.2033,-10.1196,-6.1214,-22.3722,-2.4391,45.9781,16.7665,3.9749,2.701,0.22332,-12.1578,-2.3095,-3.0019,
-10.4002,-2.8587,-7.5885,-1.9063,-22.9529,4.4396,48.9902,1.6605,-1.072,4.4629,-0.75158,-8.387,-6.0178,-6.6687,
-5.4489,-0.283,-4.729,-2.2731,-33.5977,8.5004,39.7992,-12.5391,3.3195,0.82939,0.73623,-7.4035,-7.0995,-4.8259,
-6.5647,0.21519,-8.7734,-8.3887,-43.6038,-4.0306,30.1982,-12.4386,3.6015,2.2214,0.21084,-15.1343,-2.3454,-5.979,
3.4469,3.0872,-4.3996,-4.9995,-32.3318,-6.6738,40.889,-9.7684,2.4235,3.0501,0.19865,-4.6089,2.6042,-5.6208,
15.7423,11.5573,9.9644,-1.8151,-25.5834,1.4196,52.5357,-11.1062,2.2781,-0.018333,1.1482,3.3614,-2.3614,-3.3596,
11.4321,20.9628,15.9433,-1.225,-35.108,2.7771,52.1139,-9.9586,-1.2243,3.3494,-0.36337,-3.0914,-0.77697,-6.5246,
3.0523,9.1254,5.3699,-3.0749,-41.6573,-6.0444,50.9105,-15.1315,0.7726,5.0719,-2.265,-14.4462,-2.6538,-4.2097,
2.8692,-2.0005,7.9327,9.6127,-32.4255,-6.6441,53.6263,-17.109,2.6492,-2.9263,0.75629,-11.6564,-0.57067,0.85221,
-2.1123,8.6974,7.4562,12.8824,-24.7096,3.3718,55.2171,-11.2741,0.56684,-7.5596,2.6344,-2.3012,8.1184,-1.1233,
-8.7174,5.2911,0.27699,1.5302,-32.8448,5.0934,60.5599,-10.5976,3.4182,-7.106,-0.40911,-3.1247,5.7083,-6.8258,
0.94262,0.6464,-0.21992,9.6135,-28.469,5.269,65.1013,-10.4421,1.7704,-2.3515,1.0581,-8.2268,2.0001,-4.0121,
6.6564,11.1859,1.7167,9.0367,-17.144,17.4551,65.0422,-7.8921,-5.0681,-1.2489,5.804,-10.6186,7.65,2.961,
5.2951,22.056,5.4602,11.3794,-9.3835,27.9481,64.9861,1.2368,2.9303,-5.9829,-0.31554,-5.1726,17.7707,8.5537,
3.0539,21.6941,1.2857,13.5821,-10.7435,26.2712,57.24,5.0095,3.7159,-9.4708,-13.7604,-11.5946,10.9337,6.1175,
7.6791,21.354,-0.71494,2.1879,-11.0613,29.5043,54.7671,0.86201,-1.3154,4.5621,-8.1263,-11.8604,4.5068,-0.98281,
8.6615,19.592,-5.9612,-4.194,-6.069,17.6355,48.1158,-11.2112,-6.5257,4.7691,-8.1195,-8.7441,-3.9382,-11.9829,
10.546,19.8592,0.64759,-7.309,3.4317,4.5554,44.7477,-6.2109,2.04,-0.80663,-6.1896,-11.5861,-0.33526,-7.8982,
16.6447,18.6672,9.2636,-11.6794,-1.5831,11.9755,53.6031,6.664,3.8411,2.1267,-1.9718,-12.8144,5.4543,-4.5394,
15.6465,16.5857,3.8994,-10.0171,-6.2965,14.1433,60.9662,-0.46768,-7.9302,3.923,-7.6234,-0.50479,-4.4898,-13.8839,
14.7077,16.5525,7.5128,-1.7218,2.737,4.6389,64.0405,-2.3631,-0.72247,2.7257,-4.281,11.0667,-2.2969,-4.395,
10.9398,13.6359,0.32969,4.1519,-9.9308,5.3216,55.3892,6.434,4.1297,-7.0551,-2.1007,-0.17701,0.72584,3.562,
4.9943,10.413,-9.7881,3.422,-23.435,12.2154,56.394,13.2611,5.3242,-3.2657,0.43,-6.4171,2.1255,-1.9408,
0.36648,5.4606,-2.9497,2.736,-28.1249,1.3849,54.4526,3.3289,4.524,-3.5505,1.8465,-12.2836,4.4017,-3.2676,
7.5576,11.3845,6.3638,14.5933,-12.3374,11.3994,52.6282,11.3042,2.8103,-9.589,4.1403,-11.0658,7.5037,2.2186,
10.4703,13.1061,-0.26915,5.5431,1.2321,23.6993,61.4924,14.9536,0.23703,-9.4944,0.52575,-9.9211,6.5728,-1.2807,
14.6509,16.1667,4.5559,-1.5218,1.1582,20.3544,71.9029,-0.043621,3.1082,1.6545,1.4557,-10.2874,9.0638,-2.1654,
17.6183,11.3493,12.9374,-1.4309,1.0873,14.3233,66.9525,-14.141,0.03586,4.4402,4.2533,-13.5175,7.558,4.6964,
17.5232,9.7069,14.0846,5.3872,-9.5562,5.7701,61.0123,-27.3925,-1.8893,3.2113,2.0751,-9.821,5.1806,4.4146,
9.2587,6.7202,6.0269,7.4682,-23.0829,-8.6761,55.9089,-39.7105,4.4752,2.5384,-9.1098,-5.8652,4.3895,-5.9483,
4.8563,-3.3007,4.7033,-1.6352,-26.3513,-16.6558,48.7074,-37.3279,8.0536,0.46307,-10.4863,1.2182,5.0876,-0.78296,
8.4118,-6.9496,3.4592,4.2328,-19.9618,-6.0397,50.5934,-35.0886,2.762,4.2813,1.6837,11.7243,6.7063,3.1109,
7.4264,-11.8218,-7.8079,1.5751,-31.748,-1.3487,50.9244,-32.5021,0.1925,4.5061,3.0249,7.6547,1.9762,-4.2888,
2.6531,-15.4406,-9.7436,-9.5789,-38.9796,-8.4813,46.4262,-25.2624,1.6227,-4.9008,2.3631,3.8297,-2.4705,-1.6273,
2.4939,-10.6677,-10.121,-0.34934,-25.0997,-5.0866,44.6022,-21.8232,-3.2826,-5.5687,7.0293,10.3318,-0.39877,2.3177,
2.825,-9.546,-9.0325,1.1148,-17.3421,-3.3391,47.2157,-24.8414,-0.68188,-1.8684,4.2038,6.3457,3.9528,-2.149,
2.1748,-5.6071,-5.1244,-3.2798,-24.4762,-7.4664,44.8639,-12.291,2.7252,-8.9694,0.58538,-3.1711,0.34949,-0.5778,
3.9678,3.3847,-5.7789,3.6484,-26.8554,-4.133,42.1716,-1.9362,-0.32373,-19.0105,3.4357,-2.9808,0.32852,9.0746,
-2.5219,3.6624,-3.9899,4.8727,-22.8394,4.2895,42.0455,-9.0331,1.1389,-11.6183,2.7479,-9.0536,6.5604,4.2016,
-2.8509,2.9619,3.463,13.7164,-19.0644,14.1307,43.8509,-1.278,8.2836,2.0618,4.0262,-12.838,13.3799,-0.3782,
-2.1995,-3.4674,2.774,7.6043,-31.8659,7.0312,36.8918,2.1643,5.3819,-6.2365,3.3038,-11.587,4.4016,-0.83626,
-0.14409,-0.37442,4.5311,0.41522,-29.9544,2.762,32.7548,-1.8124,6.021,-11.6327,2.1437,-9.9298,0.29101,6.9082,
-4.4636,4.9372,12.4338,2.795,-20.9441,4.0385,41.8495,-5.0699,14.7958,-3.7216,1.5343,-8.8533,10.372,9.859,
-7.0803,-4.9749,14.5736,5.5127,-33.7875,0.9117,51.8417,-4.7647,13.909,-1.5744,-2.4047,-4.4752,15.5206,10.2298,
1.5191,-6.1201,0.71529,11.4331,-37.3751,2.2997,54.0204,-2.0751,7.7839,-2.9227,-2.7416,-2.7639,9.2988,12.9818,
-0.97622,-12.965,-5.5783,3.5349,-30.8049,-4.0889,56.0692,-5.3163,8.76,-2.2666,-3.0579,-3.0789,6.3371,8.8376,
2.4481,-9.7829,8.7009,3.8031,-30.3993,-8.1717,57.9942,0.29183,13.524,-0.68785,-5.2786,9.1278,15.0934,9.7491,
9.0335,4.2678,5.2939,2.6134,-22.8045,0.97391,48.7442,9.8916,4.0564,-2.5705,-5.9234,15.3116,11.3024,5.3173,
4.1638,-4.1633,-0.31337,-9.5653,-16.1475,2.3582,44.3768,4.0085,0.44726,-2.8975,-2.2023,10.0657,-0.43529,-0.29139,
-0.41412,-17.8585,1.1477,-1.7788,-22.3913,-11.8833,47.0034,1.3633,-1.0223,-11.8602,-0.62743,6.0951,0.071124,0.20639,
4.9008,-10.5349,-2.2864,3.6185,-24.4135,-10.5341,45.6264,7.5336,-6.2506,-14.5133,4.6998,-0.5208,7.2804,3.5615,
7.9725,4.1972,4.1014,3.8812,-14.7742,4.198,49.1394,7.5618,-3.4709,-5.4689,2.0132,-0.97122,6.3619,3.8277,
6.0519,12.9264,17.9553,10.8619,-10.522,18.0461,52.4427,17.2066,-0.85841,-3.698,-2.4348,4.3767,4.5384,5.0416,
4.2461,3.9758,20.0891,6.8435,-14.2179,23.8663,52.6623,27.2342,-4.1735,-6.8419,3.0009,2.6714,6.6703,7.1434,
5.9147,1.8138,12.1519,4.5095,-9.5184,10.8931,50.464,21.7533,-8.7311,-5.4694,7.6288,-2.2978,3.3851,2.8674,
3.1557,3.1476,9.9801,-0.088319,-3.6576,5.9114,48.8789,14.1969,-4.8415,-7.5454,7.6523,-5.5256,0.77781,1.2526,
-3.766,-1.8496,11.3047,-4.8924,-14.9789,-5.0225,44.0227,17.192,-2.6271,-15.749,2.3847,-7.118,0.73023,-3.6309,
3.673,7.3979,13.9926,5.5001,-14.5614,-0.39302,46.671,30.2605,3.7817,-3.7436,-4.9719,7.4091,5.0145,3.7995,
5.8569,14.1671,0.16961,-3.9669,-19.9384,4.9197,42.428,20.1153,-2.6968,-7.8475,-18.619,11.1381,-2.4994,0.2054,
7.9097,17.6443,-4.1687,-1.3246,-23.0702,-0.66508,40.3631,13.6187,-1.0923,-16.5132,-11.2507,4.2177,-1.8692,-8.9435,
2.6267,8.8922,5.6992,2.6022,-26.4949,-14.7252,45.6356,18.5724,13.0732,-4.9427,3.5243,8.7745,10.7466,-9.3679,
-5.706,-5.7413,9.6849,3.8883,-39.0052,-22.342,46.2632,22.7472,21.7515,0.64301,17.4129,6.8048,12.5056,-9.2875,
-1.5167,-8.1272,11.9892,17.755,-45.1656,-21.0014,45.4108,30.9997,28.1403,-0.35708,30.4681,6.3965,8.8698,3.7729,
-6.2346,-11.4869,9.346,16.0544,-38.6088,-33.8414,38.8393,32.0247,25.4894,3.5113,15.6735,10.8212,6.4146,11.2404,
-2.0136,-14.6446,9.7472,12.2057,-26.6745,-25.4047,44.2027,37.797,17.2287,13.8798,0.63312,14.0188,7.9528,5.7566,
12.0526,0.33405,14.4519,25.5734,-14.014,-9.7804,55.6506,41.7808,12.8288,6.7955,0.74972,16.5439,13.7272,12.6243,
12.2914,7.8533,17.4317,24.8459,-17.9816,4.9064,62.7362,43.1209,16.8675,-6.1145,2.6287,9.7813,11.942,18.5992,
13.9582,0.16943,14.9436,27.6833,-17.3839,18.712,52.7209,50.6321,19.222,0.50348,5.8366,5.8278,10.7443,16.0414,
13.1207,-6.5731,9.2381,23.1373,-10.5705,16.6439,49.5576,43.7473,3.9687,-3.3736,-0.28393,0.67018,2.4063,4.4992,
19.0653,4.4006,20.2241,13.0924,-1.2814,12.7603,56.201,48.8158,-7.1748,-3.1717,-6.0373,0.62951,-3.5094,-2.5026,
18.8833,7.9835,18.0492,-1.1569,2.6433,11.0332,51.8675,59.9869,2.8734,1.8275,-16.2543,-9.9875,-2.3364,-7.1608,
15.8269,10.3894,2.8662,-10.7048,1.5228,19.9885,45.8705,70.4876,4.6245,-1.1671,-22.9724,-12.2732,-5.0812,-9.6171,
11.9919,21.3068,-10.1342,-13.9094,-9.1478,13.9798,39.2709,80.3584,-9.753,-15.1971,-30.2503,-5.7669,-18.8763,-23.14,
16.562,31.0884,4.5739,-8.7472,-5.2328,6.8895,41.2423,89.6369,-23.2678,-26.6334,-23.1452,-10.7101,-28.1684,-35.0608,
17.4917,34.0315,18.3994,-1.49,1.8135,18.9793,46.462,98.3587,-17.2349,-22.15,-12.1397,-23.5321,-14.9375,-18.8572,
15.9615,33.4323,8.3301,-11.4987,-3.5849,28.9,38.3847,106.5571,-10.9112,-21.3017,-14.777,-21.639,-20.2924,-14.9954,
17.8896,27.5799,5.9073,-17.5406,1.439,27.1665,32.2347,114.2637,-21.7968,-22.9086,-25.4307,-10.7234,-28.6922,-27.5598,
12.0074,22.0777,6.5143,-3.9864,5.1991,28.4215,30.3006,121.5079,-33.9541,-28.2664,-31.5991,-5.2711,-27.9326,-30.7151,
11.2865,21.7155,-1.5704,-5.6702,-6.6536,34.41,25.5976,128.3174,-27.1075,-26.5704,-23.9323,-8.8017,-24.3327,-23.1014,
24.7093,34.5126,4.775,0.92158,-0.96426,39.5585,31.2748,134.7184,-16.345,-16.8011,-17.2072,-10.6783,-16.6212,-21.2345,
37.3267,46.5418,14.5865,7.1165,13.1936,48.2454,42.3813,140.7353,-20.6539,-19.1597,-14.7321,-6.671,-15.1436,-23.3271,
28.5268,37.1886,16.116,-3.4076,26.502,46.7934,48.0135,146.3912,-20.8565,-25.2227,-13.367,-6.7519,-18.5622,-21.4463,
40.2794,48.4214,18.034,10.261,39.0119,48.7938,53.788,151.7077,-9.9878,-10.2452,-11.6039,-11.1557,-8.7936,-15.3506,
47.9607,58.4987,11.6623,7.2403,42.9388,59.9661,52.0034,156.7052,-11.7937,-2.4169,-11.3879,-10.9666,-9.7087,-17.7962,
47.0065,68.453,15.7715,-7.2942,47.0944,70.4682,47.9213,161.4029,-16.8564,-10.9277,-6.8582,-5.5007,-19.705,-21.5364,
54.7649,78.4458,21.557,-9.1057,56.7705,71.2196,46.9695,165.8187,-20.6539,-10.2725,-12.2171,-5.1702,-23.3315,-23.1301,
62.0578,87.5299,20.2636,-9.5213,61.0585,54.4447,57.6155,169.9696,-13.6443,-3.8858,-16.2929,-8.7073,-18.0843,-26.5511,
65.5479,87.5677,23.3759,2.1104,71.495,53.5822,68.104,173.8714,-3.6891,-1.2484,-5.2173,-9.6276,-15.5565,-23.5154,
63.0577,92.4117,24.3776,0.54111,79.0722,61.4277,64.4985,177.5392,-8.7565,-6.4622,-8.27,-7.6072,-16.0658,-20.6617,
65.5254,100.967,27.2431,2.9128,73.8476,59.1848,63.9948,180.9868,-11.5977,-9.4411,-17.8718,-5.7081,-16.5446,-18.9408,
70.7304,109.009,37.63,16.8381,83.5168,63.8078,66.4067,184.2276,-5.6122,-11.2788,-14.3953,-3.9229,-16.9946,-11.5533,
66.4861,116.5684,39.2191,9.9024,82.1972,70.5581,61.4603,187.2739,-7.1989,-12.5256,-14.4936,0.15984,-24.6307,-11.822,
76.597,123.6743,34.4613,9.789,78.7085,73.5377,64.0238,190.1375,-10.1332,-7.4464,-21.7985,0.631,-25.5576,-11.5934,
86.1011,126.6942,35.279,23.3016,88.086,75.8578,70.7616,192.8293,-3.7543,-6.9996,-14.7202,-8.0622,-11.5209,-10.8978,
72.9316,110.9184,34.605,16.9401,81.6843,77.5574,64.1113,195.3595,-2.0864,-6.0989,-1.8155,-13.8305,-8.4255,-12.6482,
64.228,104.744,26.2776,6.7876,62.6832,75.3087,54.9754,197.7379,-2.4419,-2.3668,-6.0343,-12.519,-12.2476,-7.5616,
57.4889,94.6125,17.0066,2.5334,54.2675,56.6901,49.753,199.9737,1.5506,-0.3013,-17.213,-16.5772,-11.5128,-7.1079,
41.0566,74.9903,9.7351,4.7852,58.2245,45.7495,46.287,202.0752,-5.7555,6.9299,-12.8145,-9.331,-5.5328,-11.9706,
24.4932,56.3909,3.8614,-5.5995,40.6311,37.7153,41.1061,186.0962,-17.4317,9.8802,-4.8321,-0.59654,-9.5285,-13.657,
24.6205,38.9074,11.8043,-9.5921,24.0932,21.3524,38.158,186.9519,-2.2858,6.8828,-1.1769,2.8054,-12.323,-5.6245,
10.641,22.473,-2.3682,-7.0927,8.5476,5.9713,24.3278,161.6348,9.2375,0.69895,-5.9147,2.6371,-17.3544,-14.9048,
-4.0975,7.0246,-8.958,-8.5906,-6.0653,-8.487,28.639,146.8026,2.9129,12.1982,5.9814,6.3262,-11.5043,-12.0862,
-17.1608,-7.4969,-1.2074,-2.7855,-19.8013,-22.0778,32.2103,152.0945,10.9131,10.986,12.8361,-0.30537,-3.6005,-7.0338,
-22.3823,-21.1471,4.1546,2.6712,-32.7133,-34.8531,25.9495,157.0688,11.7011,0.22883,6.7763,-1.7298,-0.98025,-9.9775,
-24.406,-33.9782,14.9649,3.9537,-44.8505,-46.8619,33.5291,133.5447,3.7855,4.5423,6.85,2.7022,8.2151,-3.1277,
-28.712,-46.0395,10.2206,1.793,-53.5773,-58.1502,32.4798,116.7211,7.4057,8.1171,7.4009,0.61656,6.7602,-1.0166,
-35.645,-57.3772,-4.4927,-7.9319,-64.4627,-68.7612,29.569,123.8179,19.4641,10.5151,5.0334,4.4269,-6.1481,-6.7259,
-37.834,-62.639,-5.03,-6.9752,-70.0576,-58.1078,35.9695,123.9276,14.9301,17.0973,5.2122,6.5651,-1.4506,-8.7271,
-37.4874,-53.1103,0.080188,-3.6718,-60.0838,-52.6979,32.8493,115.5309,14.0338,15.1095,4.8999,0.4008,8.2537,-0.50914,
-40.0466,-64.0237,-5.695,-10.1838,-63.2111,-63.636,16.7784,106.6751,16.0772,7.4706,3.6435,2.3007,5.8346,-2.4025,
-42.9334,-74.2823,-4.8725,2.4492,-69.5165,-73.9179,14.0028,101.7173,16.5553,18.0828,9.676,16.2626,8.8502,2.0698,
-54.4574,-83.9253,-7.9464,4.706,-79.4455,-76.867,19.4138,98.9805,23.7365,25.1724,12.4616,13.6887,14.5708,2.4263,
-57.287,-92.9898,-14.6827,-3.7509,-88.7787,-71.7742,18.7297,104.1007,27.6015,24.1428,16.0416,7.5782,18.9857,1.8,
-54.8113,-91.1193,-20.534,-10.2582,-91.7982,-78.047,13.759,89.1993,18.2516,15.0004,17.003,5.1996,12.0766,1.692,
-50.5606,-99.7521,-13.5312,-3.8714,-87.2518,-59.2642,12.9339,74.2301,15.233,11.2154,17.9063,3.9266,6.5432,-0.33298,
-41.2754,-90.7265,-3.5828,10.4609,-80.574,-41.6084,11.6771,77.9513,15.7618,16.7936,13.4662,12.8275,7.5933,3.0527,
-44.0885,-83.8407,-5.7725,4.3885,-77.1822,-25.0119,10.4953,66.0616,11.4503,19.1517,10.2531,13.5006,8.5804,2.3893,
-46.2521,-92.2745,-6.3876,-3.5691,-79.2836,-33.1119,11.789,57.289,13.6483,15.1177,17.3322,9.8046,9.989,-2.563,
-42.515,-84.8141,-7.9273,6.2633,-84.1435,-24.3924,6.2737,65.3929,12.8298,19.0195,14.3688,10.1792,3.6193,-0.48574,
-48.1391,-76.3595,-10.8183,-1.3256,-91.1168,-23.4096,-0.35428,66.7585,4.847,21.2445,3.4082,4.2784,-4.7724,-2.8613,
-50.0597,-82.3572,-10.1692,-3.17,-87.5737,-32.5843,4.4754,51.2122,8.4031,18.0459,2.2422,6.9062,0.32234,-0.76567,
-46.0937,-91.5158,-12.444,-0.093904,-83.2803,-40.2465,8.0542,35.6368,10.7838,11.1928,7.878,10.3392,7.9973,5.0506,
-43.8092,-87.7932,-16.987,-0.56994,-82.6116,-41.1979,5.1663,42.6347,6.7706,7.155,6.9246,-0.37965,5.1128,5.2284,
-44.5469,-68.4256,-14.5251,-2.9395,-75.2507,-31.5129,3.4136,52.099,8.7691,17.7857,3.143,0.1248,1.4398,-3.2599,
-44.759,-66.3982,0.44642,-13.3424,-70.7357,-23.8522,9.9411,34.8731,14.0128,25.3748,4.8783,0.11639,2.315,-7.8727,
-40.15,-70.1081,12.2865,-5.81,-69.3765,-16.6507,19.9239,19.9518,8.3641,17.1195,4.5851,-4.6985,2.1765,-2.5924,
-28.1242,-51.8016,15.3958,7.0409,-56.5586,-3.1494,31.2307,32.8547,9.7853,11.284,4.31,1.3533,5.8928,0.44854,
-17.7809,-34.5935,21.2044,7.5799,-42.5863,-4.8835,39.9361,44.9834,14.9681,10.6069,8.8599,4.1575,11.3092,0.42162,
-23.4459,-46.6179,13.2003,5.2026,-42.9161,-18.6905,35.6165,28.1844,6.3766,3.2386,9.2902,-1.8623,3.8988,1.3583,
-29.7335,-57.9208,2.7905,-4.7273,-52.8438,-31.669,27.7087,19.1252,5.0325,0.1589,7.7713,3.0578,-3.0675,2.2383,
-25.5448,-44.3475,-0.74265,-3.001,-50.1535,-15.6689,25.5659,32.0777,7.1348,2.5536,8.7477,12.0109,2.4062,0.66128,
-19.2037,-38.8017,0.26296,2.9495,-37.5274,-0.62876,33.6483,37.6923,4.7832,3.3614,11.1078,13.2137,10.9176,-2.2634,
-15.1665,-50.5736,3.1326,2.772,-42.0081,-14.691,34.5153,21.3308,7.3812,0.27476,8.5179,7.612,10.2621,-0.20409,
-18.5837,-55.078,1.5024,5.9719,-46.7002,-27.9096,26.1928,9.6267,8.3815,-5.0309,8.4876,4.7515,8.2041,-0.6726,
-29.9714,-49.8499,-0.51121,2.7286,-41.0128,-40.335,24.6217,4.2402,4.0312,-4.7286,13.7487,-1.3039,7.7123,-6.4026,
-24.3262,-38.2031,4.3283,1.6034,-32.7817,-32.1606,24.1059,-3.708,3.7893,6.1335,9.0769,-4.1111,6.2872,-2.1715,
-11.3254,-33.9874,9.839,-2.3393,-22.159,-16.131,25.5454,8.0557,5.4854,8.6513,6.6088,-9.6348,7.8343,1.8061,
-11.1271,-45.8936,9.7294,-0.75665,-22.2726,-21.089,26.4164,15.7469,7.561,-2.9277,9.5784,-13.3844,7.8441,0.25459,
-8.536,-32.5612,12.0306,13.3887,-21.8978,-33.9236,25.7934,11.9162,5.183,-4.6755,8.0418,-8.7349,5.45,-0.72264,
-7.0619,-17.1429,13.2327,8.1023,-21.5454,-30.2905,26.1692,-2.8987,-1.8599,3.2984,3.7128,-6.2873,6.0849,-2.6027,
-14.8128,-27.1738,1.3787,0.40395,-32.2742,-26.0684,27.9653,-5.4543,-5.1136,5.5051,3.9708,-6.3908,6.2015,-3.8888,
-12.001,-35.1611,-8.3217,6.1496,-43.8024,-30.2751,20.5165,8.973,0.0016744,3.2509,3.7325,3.6104,3.9055,-5.5794,
-4.5486,-33.0515,-2.0521,-0.95168,-35.4039,-34.2285,21.2094,17.4161,1.9246,2.0944,1.5847,13.973,2.7097,-5.2446,
-6.6804,-24.8173,2.3992,-5.2227,-26.0665,-33.6175,29.0734,13.9669,-7.3274,2.4499,-4.7615,15.5388,-3.7049,-6.3727,
-9.6457,-19.9621,0.81253,-8.275,-38.6026,-25.3493,27.8093,10.7238,-3.5212,-3.9491,-9.7655,15.0868,-5.8869,-8.3945,
-6.6623,-13.4747,7.0149,-7.2973,-35.6506,-13.7303,26.6219,-0.97919,-0.90569,-11.8863,-10.6222,8.892,-5.0524,-10.2951,
-7.2245,-0.16398,9.4794,-1.0896,-19.4116,-13.868,29.833,1.965,-10.4691,-10.2116,-6.138,1.627,-5.7108,-0.059611,
-10.6375,-4.0006,4.1022,-4.8711,-4.1469,-27.1359,27.0816,15.9471,-13.6879,-10.5604,-2.8843,-6.1644,-2.4827,3.7909,
-7.5951,-17.8606,5.2988,1.6727,3.9669,-37.8554,28.8228,12.9118,1.2334,-14.2545,8.3488,-11.0847,9.6877,-5.5727,
-11.9482,-30.8889,3.057,4.4578,-9.7353,-38.4695,25.1696,-1.9629,12.5456,-12.4377,21.9478,-7.5342,9.1065,-8.1237,
-17.4825,-27.7645,4.3163,4.6706,-18.2878,-40.4886,10.6759,-13.2309,12.274,2.4086,26.2467,0.13052,6.1559,-1.3852,
-18.8377,-22.7324,5.5,-2.8218,-20.5562,-31.8086,4.7462,1.663,8.1714,10.2845,10.5719,0.60435,5.3058,2.0641,
-19.1502,-34.3519,-3.005,-16.7525,-20.766,-23.649,10.7126,3.8119,-2.4169,-4.4326,-4.1624,-4.7215,-5.1115,-0.46486,
-6.4604,-18.1908,-2.8247,-6.9379,-14.7112,-27.0384,15.8406,-2.1867,1.575,-9.7824,-5.5269,0.37018,-5.7663,1.4869,
-6.554,-11.484,4.5578,-5.0789,-18.1566,-36.4766,19.2174,3.2341,7.7317,-1.0213,5.8652,0.82826,0.83077,-0.044976,
-6.641,-24.895,18.2298,-3.331,-23.3179,-32.8448,25.2784,-8.0199,5.8255,1.4446,2.1471,7.0301,6.071,3.3239,
-3.3572,-26.1312,16.1745,1.6773,-22.8808,-28.9502,22.7992,-21.6387,0.66756,-3.4505,-1.8287,13.3407,0.89832,6.9714,
-5.5604,-13.5038,12.7993,-5.636,-18.1418,-30.5798,19.0271,-9.6061,5.9162,-5.6477,0.68527,1.4807,-3.4837,4.1489,
-7.631,-12.2124,20.206,4.8002,-9.8402,-25.3784,16.4427,5.0702,3.157,-4.8285,3.0484,0.91064,0.091031,1.4957,
-13.4247,-21.5781,25.2447,10.7633,-15.5013,-28.1838,14.0135,-3.5641,-6.1689,-1.1722,3.3467,9.9925,2.4898,0.92479,
-13.1,-18.8407,23.2493,1.9429,-20.8228,-34.6674,16.5388,-17.4502,-0.50963,0.34041,2.6651,6.9883,2.8211,1.3501,
-13.2759,-10.0169,9.3516,-1.0595,-12.8411,-18.4873,14.5845,-19.1336,-1.441,-1.6035,-3.2661,3.6841,-1.1955,6.0779,
-22.5774,-23.5159,-5.3095,-4.3616,-21.2068,-14.6482,7.4583,-19.4283,-13.3756,-8.7199,-9.3203,-2.7881,-6.4125,4.2705,
-18.3374,-29.6433,0.93498,4.5563,-18.0109,-14.7308,15.6671,-23.071,-3.9177,-2.4268,-0.10577,-4.5447,1.6661,4.0143,
-15.3141,-13.7647,1.8399,-3.4123,-11.1603,-15.7704,16.6496,-28.4195,1.1262,0.60378,-2.0229,-6.1955,1.5657,5.6969,
-9.5864,-5.8808,4.6149,-8.0155,-13.3757,-16.7476,12.7657,-27.6754,-2.7878,0.56801,-7.6719,-1.9764,-1.4132,7.2785,
3.0103,-7.9326,15.3976,6.4099,-8.2455,-7.5682,16.3274,-23.6111,0.7447,1.0147,-4.8078,-1.3771,-0.84768,-1.3327,
9.0813,-2.167,25.5342,5.545,0.42432,-1.8245,20.6374,-28.4456,11.7605,6.2434,2.6942,-9.4695,2.5698,-3.657,
2.766,6.6188,18.2318,0.40392,-0.5631,-10.3703,27.093,-38.2796,10.0933,9.7157,3.494,-9.8628,1.4532,1.3708,
0.67659,10.0686,3.0379,-5.3907,4.2796,-9.7486,33.1617,-37.9063,2.755,6.2478,3.2849,2.2702,-5.3659,0.32664,
0.63553,5.6176,-1.3175,-16.6085,2.0989,-7.2402,28.2861,-31.7845,-1.2568,-6.6297,2.1258,-0.75192,-12.7382,0.3075,
-6.6152,4.7998,2.1277,-11.2843,-12.1271,-20.9058,19.3759,-43.9775,-5.5091,-11.522,6.3259,-12.7283,-14.3777,4.6167,
-18.2403,-0.77785,-3.2896,-11.0875,-18.4575,-29.5949,18.6945,-55.4388,-9.5066,-7.4641,2.5807,-7.6365,-13.9962,0.011586,
-8.0093,-2.1739,3.1589,-0.32468,-4.3666,-16.7592,23.8244,-64.7868,-4.6086,-3.6501,-4.7873,3.8817,-8.8288,7.224,
-0.79642,-10.6992,12.5867,13.7948,-3.1426,-20.5625,17.5861,-59.9376,7.2091,-2.47,-0.65357,-5.007,0.35675,17.3702,
-13.2509,-23.521,-1.6323,-1.1329,-16.4183,-33.4288,10.761,-70.4413,4.8527,-11.9387,9.9649,-12.4004,-1.5877,3.8249,
-10.5328,-12.4929,-9.2286,-10.6822,-10.6248,-23.093,18.7707,-80.3149,1.6761,-19.8781,17.0608,-6.848,-5.3393,-1.213,
-4.1305,-8.8584,-0.019568,-8.1178,1.5535,-24.5933,22.4524,-89.596,4.4605,-15.8005,14.1137,-15.0929,-1.1725,7.5155,
0.44547,-3.0368,8.1566,2.4678,7.7118,-30.3303,23.5099,-94.3343,6.5975,-0.75246,6.0538,-11.7826,4.1879,15.2392,
-0.062011,8.2054,3.3396,-1.046,5.8064,-22.2589,20.6575,-102.7743,0.91297,-1.3426,-3.446,-1.9391,-1.353,6.1507,
-2.9437,-2.8662,4.1007,-15.0833,0.64917,-13.2295,14.6087,-110.7078,-5.8741,-11.8413,0.60772,-4.7082,-8.9656,-2.8746,
-7.576,-10.388,2.8932,-15.4659,3.4956,-19.1681,5.0769,-118.1653,-14.1779,-8.2454,2.4952,-2.5018,-16.1215,-3.6636,
-6.6407,4.3352,-0.64659,-13.0957,14.3459,-24.2696,8.1384,-125.1754,-9.9611,-5.347,-1.0207,3.899,-9.8651,-2.0015,
-1.9145,12.0947,-6.8594,-14.7142,12.0424,-25.2176,11.0158,-131.7649,-6.9592,-8.3919,0.48325,-5.4715,-4.9459,1.4843,
1.5665,-0.65252,-9.8135,-5.6568,-1.6636,-23.2238,9.8741,-137.959,-7.9839,-1.6368,5.7434,-9.4709,-8.0144,4.7614,
-8.6255,-8.7879,-13.5524,-11.5685,-4.9299,-21.3492,6.8775,-143.6595,-11.833,-7.7897,-0.85231,-1.6891,-13.7847,-2.7369,
-10.5127,5.8393,-15.1439,-10.3936,9.4659,-11.8936,10.7925,-138.4061,-11.6038,-13.5739,-1.2819,6.5859,-10.5539,-0.16897,
-7.4772,0.044759,-17.601,-12.1747,6.3391,-15.5077,5.8173,-133.4679,-11.3883,-12.2787,-0.72426,-2.9453,-8.4775,3.2082,
-5.1052,-12.4606,-10.7745,-13.3672,4.0353,-18.4241,0.65983,-137.0006,-8.7811,-6.7336,-0.6808,-2.7686,-7.9688,-2.7551,
1.4523,2.387,-1.9539,-8.2375,16.7762,-6.2587,9.7563,-128.2998,-9.6974,-4.8873,-1.1207,2.6867,-10.8578,-1.1475,
7.6172,16.3438,3.4538,-9.1855,22.9832,0.36841,21.1924,-125.891,-7.6724,-5.0739,-0.57271,-3.7252,-4.9162,9.0198,
7.6409,14.5732,1.8039,-6.2306,27.8553,-2.0584,20.4016,-132.4375,-4.8083,-5.2502,-0.057598,-3.9824,2.5918,7.0364,
0.93087,7.4468,-5.5179,-12.1079,22.8174,-2.4161,18.6963,-130.5878,-6.924,-6.3788,-2.4584,1.5462,-3.8148,1.3246,
5.6839,7.962,0.58357,-10.4195,7.9846,-4.1946,27.1928,-116.0207,-1.6997,-2.1487,3.4595,-7.2024,-8.3948,2.2071,
16.8836,16.1396,8.2424,3.6699,13.2759,0.86598,28.4462,-110.9829,0.32576,-1.0578,4.2139,-7.7322,-4.0437,4.9596,
13.9471,18.0566,4.8629,-7.1291,18.2497,4.6614,21.9305,-112.9797,-7.3881,-1.9563,-1.8093,6.1959,-4.7631,2.7386,
14.0718,20.8201,4.5711,-11.5107,11.3839,0.53388,20.6147,-102.354,-7.9063,1.0465,-0.73924,5.8242,-7.3627,6.4212,
14.6702,22.9366,-0.031281,-1.6835,11.1821,-0.93994,21.782,-95.7315,-4.0662,-4.3059,2.6708,-6.5463,-0.66981,10.3631,
9.9426,19.637,0.93255,-1.5829,9.5492,4.8868,20.4755,-97.6819,-7.6687,-12.7034,-0.37439,-2.3071,1.2938,9.7418,
12.7122,28.5573,3.2808,5.7251,8.4955,0.26504,19.7278,-88.4549,-7.6893,-0.88117,0.12883,6.9674,-2.15,13.4849,
9.5453,29.248,1.6417,0.09291,3.6581,-13.8509,18.0629,-78.8194,-6.7477,5.4228,-0.35919,-1.6248,-6.3482,13.157,
13.7814,27.4931,10.1985,0.087336,5.3621,-27.1198,29.4823,-75.0518,-7.3043,-1.6349,0.62386,1.3582,-4.0443,21.9845,
24.4948,28.7285,18.242,4.8901,19.1403,-32.3956,39.2536,-82.0899,-5.9041,-2.4987,2.5099,8.97,-2.8397,26.4358,
27.8345,29.8907,31.2474,7.4825,26.9734,-34.2983,42.6688,-79.0879,5.9914,5.3455,9.0912,-2.147,5.025,18.1177,
20.3936,33.8672,32.5842,13.765,19.5846,-32.2409,42.0326,-66.6488,5.631,5.0247,5.6603,-9.712,8.5695,14.1453,
17.7277,34.2398,19.5691,3.803,17.9288,-16.2064,36.1445,-64.0922,0.0039364,6.1664,0.031497,-4.8016,2.7662,13.7773,
30.1283,38.9173,18.395,8.3837,23.5849,-4.8094,30.1284,-65.0555,7.698,12.5283,8.6854,-2.59,5.4852,11.0272,
31.6867,42.8334,18.734,17.9787,23.6126,-14.6193,29.7634,-61.6334,13.4872,19.9517,14.4154,-1.9534,10.4457,16.6176,
19.687,33.0507,6.55,2.955,12.0978,-26.7256,32.3057,-63.225,5.4645,16.3494,5.3754,3.4534,1.6448,16.1008,
17.0636,30.5865,4.7147,-1.5504,4.1588,-19.8325,36.6185,-61.8357,1.7709,15.8497,1.6872,12.3827,-0.85809,9.8452,
11.7116,24.4232,10.6825,-8.67,-1.3803,-21.0472,32.0172,-61.4913,0.22193,16.3414,0.14326,9.2347,-1.2878,8.7733,
12.4512,16.7071,11.4842,-4.7845,2.0682,-20.2651,23.8446,-60.2065,-3.1576,15.8417,-0.34609,2.429,-2.6537,7.7661,
19.8796,19.0709,12.2384,9.4489,9.1576,-15.6826,24.8186,-65.7302,-3.4489,14.4104,8.8117,3.7264,-0.089821,4.8964,
19.6479,22.7346,17.274,12.7284,9.5697,-21.4744,28.1374,-60.8253,2.5285,7.7754,15.0139,6.3878,8.5714,10.373,
7.8902,15.6006,10.4672,10.0408,3.2251,-32.6882,19.7178,-43.0758,-0.50867,-1.3464,5.4578,2.1576,9.9801,13.5975,
8.3783,7.9322,13.686,7.5153,7.84,-20.1481,23.3431,-38.2412,5.2927,11.2366,8.9772,1.0667,14.1897,13.7432,
4.0291,0.7244,9.9799,4.1794,1.5997,-13.1684,24.8275,-50.0467,4.9747,15.3713,10.362,-3.8062,1.798,5.2252,
2.8254,9.3363,2.6488,12.584,11.1206,-9.4933,21.4148,-45.4466,4.6762,11.5636,9.7403,-0.69243,4.5756,10.6816,
6.984,13.1047,2.9711,0.76897,23.4372,-8.4425,14.8408,-39.3536,3.9149,8.4651,3.8667,1.7538,8.6287,8.5985,
5.603,3.6626,5.6778,-13.3772,21.0695,-8.8975,10.103,-51.0924,-5.9373,13.7276,-4.0596,-4.1218,-5.989,-6.0174,
-2.9077,-5.6942,0.047481,-15.3049,11.6303,-13.6537,9.9775,-61.3365,-9.9087,17.2325,-2.3728,-2.4323,-10.2831,-16.0806,
-4.176,-1.0248,-5.245,-11.9819,4.6809,-21.0091,4.0897,-54.2901,-1.1396,8.023,-2.7112,1.0798,-7.2623,-4.0558,
10.1746,13.1367,-1.5646,-9.8212,11.6131,-6.7651,1.4392,-44.7816,1.3329,11.8698,-6.8767,4.3808,-13.0777,0.51478,
18.5456,11.7127,1.8955,-17.4065,13.321,-2.0315,7.6044,-47.3839,-5.9601,22.2176,-5.9833,-0.20975,-12.7738,-11.5376,
8.7775,2.355,3.7056,-10.5909,6.7514,-13.4504,6.1871,-54.1581,-8.4875,17.9996,-4.6623,0.76479,-8.16,-10.8449,
6.8082,11.3503,4.926,-3.7043,2.0182,-10.2391,6.2962,-47.5429,-3.6501,7.7831,-1.0169,6.0085,-10.0755,3.7508,
5.9185,11.1495,4.1492,-3.9632,-5.316,-10.1055,14.0935,-46.1331,-4.8738,10.6818,0.48682,4.2053,-11.8752,3.0445,
-1.6497,0.38207,5.343,-3.2447,-10.2867,-20.5592,13.7286,-51.5397,-6.986,15.3301,-1.9471,0.58682,-8.758,-3.3897,
-5.8784,-3.0061,9.3501,-3.5308,-10.1502,-16.9214,4.7303,-49.89,-5.1237,6.2357,-3.2725,-4.7376,-7.7518,2.1037,
5.0536,11.2743,13.598,5.3369,4.5588,-1.8061,4.446,-43.0492,-4.8167,5.862,-3.0757,-2.5298,-2.4778,12.5572,
10.5207,24.6978,8.9352,-1.7161,17.1137,12.4022,18.2793,-47.1986,-8.3742,8.3952,-4.8146,3.3923,-4.2526,1.2241,
13.7364,22.9059,12.246,-6.4216,25.7046,25.7581,31.2825,-51.0986,-2.1018,10.7769,-3.5642,8.9587,-9.7683,0.18912,
17.2394,33.5525,10.068,0.21484,31.375,24.7094,19.9594,-45.6289,-4.3799,4.8407,-7.6785,2.1701,-6.778,9.3134,
15.244,29.6168,11.3879,-1.7215,16.0283,9.1269,4.6618,-45.7761,-1.2322,1.6653,6.8822,-9.5014,7.7287,3.9466,
10.9632,13.7398,12.1473,2.7095,4.0066,-5.5207,13.1925,-48.3192,12.9418,5.893,20.5693,-6.5266,15.7662,-6.3887,
-3.7946,-1.1846,-2.6815,-11.5531,-10.3338,-19.2895,3.7456,-59.52,17.7806,0.73104,26.2386,-1.3266,0.72022,-16.5846,
-5.8165,4.4853,4.847,-16.9556,-14.8484,-10.9351,-8.0203,-69.7392,7.0965,1.6482,10.5643,4.5234,-6.381,-2.1253,
8.6325,16.2382,16.5782,-1.8382,0.14252,3.821,6.4058,-51.4548,-2.4659,2.992,-4.1696,7.6186,-4.5564,5.2158,
9.8829,17.1873,9.8126,-2.8449,11.5197,12.0925,20.1215,-39.8668,-6.1644,-2.9579,-7.9374,8.1225,-5.245,-2.7915,
6.8857,14.7134,6.8197,-3.1554,-3.2715,7.0397,20.6835,-50.4583,-4.3518,-7.1076,-1.2101,3.308,-6.3721,6.5125,
15.1284,0.36636,12.1809,11.1339,-4.8436,4.6939,19.4421,-50.3157,-2.1672,1.0122,0.78598,5.9944,4.5891,16.7015,
14.7019,-3.0213,16.7396,3.5789,8.4304,7.7779,22.6037,-40.0837,-2.5184,1.4327,-2.6269,12.8483,12.4888,7.5244,
8.5306,11.26,16.2165,3.8459,15.1377,14.5244,22.6906,-37.1975,-7.6565,-6.8278,-2.95,5.8258,5.4879,0.82132,
4.6517,12.8335,12.8384,6.0189,8.9394,5.4774,17.0006,-45.0646,0.015082,-1.129,-4.2162,-5.5837,-3.9784,4.1382,
1.9688,-2.0365,13.5117,-3.4788,-5.697,-3.0254,1.8806,-51.4968,4.3432,4.2284,-5.405,-4.7675,-8.0669,5.3326,
7.6206,-7.5305,17.5089,-0.38512,-10.0086,9.6589,1.9223,-49.3689,2.1582,2.0512,1.6503,-4.4819,6.5171,7.8976,
14.8577,3.5014,18.3823,12.1411,4.692,10.0408,15.907,-46.4063,15.4934,1.9281,8.2845,-4.213,20.2261,14.1561,
8.6766,0.88624,11.9898,9.0085,5.2174,-0.65967,7.1046,-50.835,18.8919,0.36973,1.5354,-2.5175,8.6048,11.864,
10.5607,5.1612,11.7516,-3.554,-6.1552,12.3634,1.3887,-52.1126,3.8135,1.7903,0.0014626,-3.8092,-4.8949,5.8635,
17.6204,13.5073,19.7014,-1.4173,-4.8249,21.2389,15.4054,-45.1394,-5.072,0.72088,2.8854,-5.5041,-0.75476,1.6634,
17.0439,7.4068,20.9239,8.7653,-0.20726,11.7899,19.1344,-28.331,7.2547,1.1584,5.117,-2.7691,2.6567,14.5475,
10.7321,0.71171,15.3408,6.7972,-2.599,5.7934,6.9264,-20.5346,12.1086,3.4935,4.3292,-5.0077,-0.86796,14.1554,
9.6079,14.614,15.8631,10.7175,-2.9238,9.773,11.8013,-33.4025,0.32252,-6.8141,3.5891,-7.1114,-1.2971,-0.79393,
3.2597,14.6986,17.7958,2.3797,-10.4427,5.3397,17.8247,-36.0527,-2.5822,-20.5053,8.1813,-6.6847,-7.9516,-9.2475,
5.95,8.0463,20.5754,0.31433,-2.1223,5.0189,17.7171,-21.3868,6.2285,-5.1749,18.2701,3.3336,-6.5125,5.4073,
5.1118,-2.5345,9.2429,1.7382,7.1416,-0.57099,13.2875,-33.0866,-3.2818,9.08,15.7312,-3.1175,-10.4499,2.0438,
18.9051,3.388,22.7883,12.2127,18.2538,6.1951,26.5902,-24.3695,5.57,4.6888,26.3285,-3.8924,2.6798,3.8437,
23.3865,7.5123,27.0363,14.8461,10.9075,13.0365,28.6876,-13.7708,8.6029,0.079794,23.3057,-1.2542,8.7706,6.9802,
14.2895,1.2908,11.9499,6.2615,7.3676,14.1773,16.3871,-24.4853,10.0097,4.8834,14.2135,-4.0644,0.5496,3.676,
11.5082,-1.6712,9.3095,-3.7319,10.7729,17.1736,12.5185,-34.557,19.0269,1.705,13.3607,-0.93508,-6.2148,0.56999,
20.9162,5.6422,16.926,-2.0649,18.3011,17.5864,17.0574,-25.2705,17.4045,1.122,18.8106,10.181,-5.3612,1.979,
16.7763,-0.46672,8.2166,-6.7498,10.4712,2.4312,11.2251,-22.7923,4.819,2.9781,12.874,0.91437,-6.9629,-10.6425,
9.0374,-4.2856,-0.93221,0.38748,-3.6213,-3.8112,8.6277,-18.5398,9.3383,6.6463,9.2162,-6.8343,-4.6213,-10.9654,
-2.5648,-9.3186,-6.1664,-9.7343,-11.5791,-3.1018,7.6293,-16.9466,3.4888,1.9199,7.22,6.5587,-5.7871,-4.0568,
-0.96779,-4.4318,1.4172,-19.2487,-3.6712,1.412,13.4231,-15.4491,-1.0481,4.2094,6.3061,13.3783,-7.8446,-3.3327,
-0.91018,6.4138,5.179,-4.6287,-0.56554,6.1361,12.6173,-14.5217,4.7851,6.8417,-1.7657,2.9583,-10.2589,-7.9407,
-0.85511,9.8754,7.7533,0.45701,-4.379,6.7299,8.9753,-14.6123,12.1914,3.5463,1.2252,3.7428,-7.7199,-1.6948,
5.9281,13.1303,4.4031,-5.3408,3.5776,8.2496,13.2456,-9.8887,0.88111,-0.51387,4.0367,7.3647,-10.1416,1.2928,
3.6489,19.0743,-2.5934,-12.7146,4.3249,11.6011,15.3358,-8.3339,-8.789,-2.4065,-4.8613,4.9993,-15.3035,-6.4791,
-1.8592,14.5637,5.7372,-9.5471,-5.0711,12.3482,6.2411,-11.1995,0.87438,-2.7429,-5.0504,-0.58981,-13.9046,-5.6087,
-1.2673,11.2857,9.7207,4.0092,3.4086,11.1261,-5.1929,-13.8937,-1.5823,-0.17407,-0.41923,-2.9586,-11.6276,-0.94494,
-5.5194,9.1658,3.8478,-10.3314,11.3782,7.0928,-4.401,-23.1586,-11.5854,1.2791,-2.7983,3.47,-13.3341,-8.1009,
1.545,7.6544,5.5408,-12.4409,11.658,16.285,9.963,-18.8832,-5.1194,1.2023,-3.5919,11.9181,-10.6102,-8.5763,
4.8175,2.8675,1.8418,-4.4823,11.4383,24.443,9.2097,-8.6146,-9.1409,5.4579,-3.858,10.7213,-10.4552,-4.6965,
0.20129,5.0996,2.2125,-13.3499,5.4633,19.6108,-1.44,-4.7311,-11.9581,16.1908,-3.1453,7.6738,-10.3082,-0.086572,
2.593,9.1213,-8.9803,-21.685,-0.15457,6.4126,-7.6051,-12.6223,-14.6068,5.1209,-10.1697,-1.9227,-17.8652,-14.0268,
15.9016,18.1913,-9.403,-6.2839,12.3574,16.6076,6.3154,-3.2091,-7.96,-0.95673,-5.7122,1.0776,-8.1375,-10.2993,
8.2152,5.5591,-1.1454,3.0742,1.9982,16.5726,4.9749,7.5622,-10.3678,1.0237,-2.4849,1.013,1.9685,2.8209,
5.7993,5.2255,-2.0382,-4.8041,-12.2217,1.4782,-4.9413,1.3381,4.3542,-2.8847,-5.2212,-2.8947,-1.035,0.72773,
17.954,19.012,3.8545,-7.4008,2.6116,5.8723,2.0871,-10.2829,18.193,-5.5965,-1.0606,-1.7591,-4.8203,-2.2009,
8.221,22.0444,2.6613,-3.1094,5.3403,19.6199,1.9623,-15.4363,3.0014,-7.1842,-0.035004,-6.4624,-7.416,-4.9538,
1.4761,12.5471,-1.8261,-4.366,-9.0801,13.4793,3.2868,-10.182,-11.2787,-2.4255,5.2563,4.0238,6.9743,0.63259,
-1.4974,0.2531,-11.3338,-9.8744,-22.6353,0.16781,-2.6808,-22.0738,-0.503,-6.1264,-1.791,3.7819,0.7855,-5.1757,
0.51636,0.23791,-7.7684,-2.5496,-7.1772,14.2577,1.327,-16.9025,3.3741,-7.6827,-2.645,-5.1003,0.73837,-4.8652,
3.3703,0.22409,1.3531,1.4498,7.3535,17.5749,11.8262,-6.271,-10.9283,-5.2983,1.3601,-1.9093,11.2729,0.23559,
5.0911,5.9806,10.8892,8.0952,6.4315,2.4204,9.1936,-11.6652,-16.3692,-4.9804,2.24,3.9752,11.558,3.1069,
4.3044,2.256,16.4869,7.1282,4.6025,4.3532,8.1608,-7.5995,-5.289,-3.2389,6.4337,-10.3634,10.3833,8.2092,
5.4898,-3.169,14.0555,5.2588,4.808,18.192,13.9232,6.9564,9.1283,2.2451,15.1843,-10.0668,11.2039,13.0072,
-8.785,-6.345,-0.88785,-6.1168,-9.5805,3.0005,-0.85765,-7.5605,-1.6729,2.5911,4.1747,4.6372,0.43319,-1.8733,
-16.9137,-7.8878,2.205,-10.5586,-23.1057,-8.7203,-5.6151,-21.2069,-9.2659,4.3591,-3.7691,1.3185,-0.55476,-6.4152,
-8.6862,-2.1249,4.4773,-0.78858,-17.5632,-3.8689,-4.797,-10.1626,-0.53582,-1.1921,-4.9857,-5.0117,1.8827,-2.6645,
-0.95153,-0.55466,1.8045,-9.8778,-9.2964,-5.0795,-10.7603,-3.3012,-0.022462,-0.63934,-4.2054,2.5016,-0.63444,-6.8319,
5.8374,-4.3688,13.237,-8.3232,-8.7386,-2.8513,-7.2297,-4.0651,-10.5999,9.9778,0.85492,-4.3804,9.0209,-3.537,
5.9684,-0.74001,17.7324,6.2762,-7.7331,7.4188,6.1876,-5.2635,-7.5597,8.8989,2.2463,-6.5218,22.5797,8.6972,
-6.892,-7.4279,12.8215,5.7446,-17.8483,2.1643,3.8924,-8.7946,-2.2977,-2.2143,0.18856,0.60188,16.2614,8.1753,
-8.8831,-14.1953,7.7246,4.9192,-21.1051,-7.1016,-2.5918,-2.0158,-7.449,3.2077,4.5049,4.8934,1.1857,5.2802,
-8.8309,-12.8629,1.971,4.1433,-7.8173,-7.1572,1.8914,-3.3375,-7.4828,7.3429,0.86845,0.27217,-3.0585,-0.32582,
-7.3395,-10.1672,1.8527,-10.2053,3.231,-9.6123,7.5478,-13.7165,-2.2254,3.0554,-10.7244,-7.438,4.8189,-13.7709,
-12.6695,-21.0984,-3.0668,-16.651,-3.6947,-11.9214,3.2485,-17.702,-4.0154,6.7195,-11.0429,-7.9537,1.6448,-13.9066,
-9.9863,-27.5263,-3.8448,-3.1497,-15.0143,-3.5123,-0.79336,-7.0225,2.9579,13.0477,3.0843,0.21738,-9.9947,1.0278,
4.7128,-11.7747,1.6755,3.2904,-4.0154,10.7984,0.69603,5.4203,8.0691,14.6691,2.4181,-1.2384,-7.9523,3.6965,
0.90931,-4.9712,1.0942,-5.0812,2.4771,13.3621,-1.749,-3.0795,7.1047,11.3856,0.83028,-12.2236,2.6229,-6.6234,
-13.2452,-18.773,-11.9549,-14.8748,-11.7715,-1.5396,-12.7041,-11.0693,0.42774,5.4124,0.29971,-6.201,-1.8621,-14.4005,
-8.9293,-14.1263,-14.6037,-8.6927,-22.9321,-3.6969,-13.3845,-1.2691,-1.0406,3.645,-5.0079,6.193,-8.0015,-11.1323,
1.2233,-2.6995,-12.7656,-15.865,-7.4562,10.625,-12.5815,-9.8483,-5.7875,0.54175,-16.2482,-3.7963,-7.5214,-12.3874,
-5.5825,-5.4229,-8.1532,-14.914,-3.7977,3.5813,-12.789,-13.1047,-6.4018,3.3937,-10.4649,-4.5301,0.62276,-12.6065,
-5.2475,-7.0215,-5.7405,-14.9806,-8.3782,-10.7336,-15.8686,1.1462,-6.9792,0.30471,-6.9516,5.3586,-1.3376,-10.8886,
-1.566,-5.1565,-0.10601,-15.5236,-3.5474,4.0104,-8.6644,3.4821,-4.1562,0.76855,-9.9002,14.1745,-3.6616,-5.9063,
-1.4721,-6.7711,-2.0231,-4.9753,-0.45008,17.7148,4.3577,-0.57419,-7.7538,8.4154,-9.3062,16.2085,-1.5179,-6.5143,
2.9439,-12.6164,-6.2298,-8.043,-1.8653,2.5519,4.577,4.7499,-9.6932,6.4682,-7.3055,3.2145,2.9008,-6.6042,
8.5381,-5.1271,6.6467,-1.7896,6.9019,-0.33115,-0.50605,6.3883,4.3531,-1.6137,0.82662,-7.5576,15.229,3.4089,
7.0639,5.7593,13.9412,9.8581,14.1812,13.7887,0.48535,2.1577,5.0529,-2.4789,10.3943,-6.1422,20.0856,5.1278,
11.9297,-0.83642,7.816,4.9394,14.7739,9.9214,6.7083,4.4333,-0.53897,-0.88744,5.4434,-7.2163,13.5909,1.4544,
16.5035,-3.1914,8.7893,11.8557,18.2147,5.9604,5.8246,14.2654,1.8976,0.60852,0.78872,-8.2261,13.2566,10.5037,
3.973,-0.11401,14.9943,10.1833,5.5815,17.1431,3.5516,15.3329,1.7842,-7.1214,4.5888,-6.7706,15.3462,12.7593,
0.368,-2.5114,9.767,1.3972,-5.8134,24.2895,-0.027172,9.1233,-1.6895,-14.8691,5.7562,-7.807,8.1743,0.93333,
5.6351,-3.8039,-2.8414,-0.12976,1.7481,19.4651,-6.2771,4.2478,-4.9543,-2.9179,-0.84171,-3.9724,-0.49167,-5.3743,
7.2204,-0.69067,2.1384,-3.0069,0.68214,13.4892,-6.8625,5.9168,-8.5035,1.1046,-3.6762,-5.6576,3.3852,-4.0898,
11.1149,9.4493,14.0316,0.53965,5.9304,19.8929,-4.046,18.5448,-2.7041,-2.3279,-4.8979,-6.7613,7.5098,-4.3252,
3.2358,-3.1392,5.9766,-6.7058,4.1323,11.4863,-11.0164,14.0664,5.6327,-2.669,-8.9316,-10.6823,0.80851,-6.4704,
4.4839,-13.0493,12.8306,4.7565,-4.2911,6.4694,1.6661,15.6262,16.3548,1.8188,5.7043,-5.7146,11.8191,0.16853,
0.84872,-13.7086,18.3128,18.5711,-10.2843,0.7921,15.6662,17.0937,23.5481,4.1144,19.462,-6.814,22.1709,3.5255,
-5.4538,-15.2908,13.8474,12.9737,-14.9573,-13.3554,11.2054,9.8165,26.4628,8.1952,19.4274,-10.7328,16.512,5.7177,
-0.79889,-14.8541,9.6509,0.17378,-24.1579,-21.5365,-3.5669,2.9764,10.7751,3.3758,4.1617,-5.7612,2.5383,-3.7614,
4.0584,-4.346,16.7657,-2.7221,-10.2062,-6.1443,-3.1983,2.7978,-3.9714,0.28784,-10.188,2.2783,-3.3839,-9.3066,
0.4487,3.1278,21.0489,3.6928,4.5061,8.3243,11.0936,0.2253,-4.3846,-5.0186,-23.6767,2.6224,-7.5095,-6.3435,
9.0776,10.6345,22.6718,11.1656,1.1958,21.9249,5.4645,14.3118,-4.122,-9.5264,-26.1196,4.3885,-5.1354,3.6544,
12.3794,9.9959,28.0434,3.7628,-11.3782,28.801,-6.4036,21.4731,-3.8742,-4.1459,-14.9351,1.2402,-5.7884,5.3586,
8.2704,12.7623,29.727,8.8272,-4.4444,16.0129,0.23125,17.7805,1.6474,4.2774,-14.5197,-0.27646,-10.7311,6.4802,
12.1019,10.5544,20.7303,9.7398,0.14993,19.3798,2.622,22.9648,2.0293,-0.30688,-16.0532,-0.74062,-9.6065,8.4952,
17.6278,6.5554,18.0437,3.8658,-2.2633,21.5827,1.9835,20.1446,0.46487,-4.6166,-8.8389,-2.1389,-4.702,4.6198,
10.3181,8.5663,18.4038,2.1911,-7.4171,11.1512,11.9625,7.876,-6.7756,-1.9354,-9.7513,2.3166,-7.7856,-4.794,
6.3329,5.6476,13.9334,-1.3065,-11.2997,12.8868,17.4964,11.7311,-12.6207,5.3938,-7.723,10.3522,-8.7616,-2.1026,
11.2425,0.019149,4.9224,0.21458,-8.2175,13.5563,3.4631,18.2398,-7.5353,10.3598,-7.7409,7.3269,-13.5255,1.3902,
11.5304,1.941,4.627,-4.6067,-1.9541,2.1637,1.3314,12.337,6.3805,9.7382,-8.2379,4.0019,-11.7525,-2.5401,
8.4348,2.3062,9.6395,-9.6195,2.4913,1.5531,10.3895,10.1546,4.5564,2.9033,-7.2629,4.2434,-9.6042,-5.7539,
-1.689,1.2063,1.3673,-4.2339,4.2657,6.2693,3.9953,6.6603,-4.3733,-2.0803,-6.8271,1.1034,-9.9894,-7.3317,
-4.9543,-5.1181,-3.0429,-5.4226,-6.0892,5.4119,2.3128,1.9326,1.1788,3.3342,-5.9363,-3.2909,-6.9859,-6.4115,
2.556,-5.2918,3.3913,-2.6925,-11.013,8.4533,7.4632,11.9147,6.3972,9.3857,-9.9078,-3.5742,-3.2006,2.1478,
-6.2531,-6.8977,1.2639,4.2009,3.7478,8.9072,1.2451,15.0467,7.9368,8.8221,-6.4283,-1.4363,-9.7404,6.8278,
-12.6098,-10.3303,-0.7354,2.9869,12.5044,1.6409,-0.7531,6.4501,9.3841,9.2547,6.4601,-4.2351,-13.9648,2.5717,
-3.6786,-3.4598,0.75143,-2.4815,-2.3459,2.9847,-5.9971,4.6204,1.608,8.2187,7.5147,-5.4232,-14.5701,-2.8727,
6.1603,-5.1748,3.5922,-10.026,-10.7059,-1.0409,-10.4461,3.3816,0.55044,6.7636,1.2935,-1.2514,-17.5424,-1.7384,
15.8878,2.3483,9.6269,0.67269,4.0365,-3.3826,4.2806,9.4299,8.6915,20.4578,8.4285,1.2279,-8.3157,4.617,
10.127,8.9398,4.2418,-2.2522,17.8943,1.6288,7.7166,8.8645,0.47712,14.2669,5.0383,-3.6542,-12.6243,-5.2768,
5.672,9.3644,9.7567,-8.8489,8.3364,0.56907,5.3292,7.3707,0.44804,4.7551,4.7355,-2.473,-18.5996,-7.8461,
12.0631,6.8796,13.0182,5.1458,7.8358,-9.0819,14.6272,12.6984,10.9995,14.0875,12.1452,3.4453,-7.8668,-2.5669,
11.3398,5.5048,10.3137,1.9521,16.0219,-13.3459,11.8261,11.9369,10.34,18.0511,11.417,4.2006,-4.5089,-2.4124,
4.4083,11.4257,14.9845,-9.2255,4.9616,-12.0648,-2.8293,6.8926,-1.3409,6.8691,5.4423,-2.3026,-15.2988,-5.6343,
8.9527,20.3583,16.0089,-2.9007,3.7029,-4.6081,4.0732,17.0583,-4.1454,4.5344,4.1538,-8.8963,-15.3419,-6.2573,
6.4916,7.5952,11.2014,-2.7276,6.3652,3.3622,9.5988,22.7667,0.91176,3.2999,2.9422,-16.0573,-9.613,-6.8443,
2.7359,1.8503,11.0101,2.7262,2.6171,8.4496,1.8097,18.0345,2.3002,-3.1496,4.2088,-17.4976,-10.4794,-2.1059,
4.0145,10.8758,5.0599,2.0814,1.0183,0.73001,1.2209,11.6633,-6.9743,-9.2118,-2.2948,-16.929,-16.1018,-5.3453,
6.6595,14.0706,6.6806,-2.8515,10.5745,2.6097,4.0326,16.7343,-8.4793,-1.9263,-10.8129,-11.1043,-17.0582,-11.7564,
5.7787,12.7452,12.53,-5.0855,10.4203,11.5896,-10.3094,13.3251,-8.4518,4.4404,-9.683,-11.8808,-17.4783,-4.7999,
7.3554,11.98,11.7787,-5.7423,8.8331,7.0469,-19.1531,7.7172,-9.8681,2.2505,-7.1785,-21.7467,-12.5823,-5.4739,
12.684,16.0696,6.2635,2.2961,19.8439,6.6241,-3.9039,21.3542,-4.4676,2.1146,-4.8248,-13.7096,-2.2105,-14.7623,
5.1907,14.144,0.11689,-7.4585,9.0364,11.9975,8.1973,22.3225,-5.1611,9.6825,-2.6114,-5.1932,-6.8863,-13.8766,
0.070798,7.5254,-3.737,-15.6664,-1.1235,12.2391,-1.9123,6.8832,-11.5837,12.9484,-3.4162,-5.844,-17.0523,-5.3501,
6.3177,10.4396,-9.7639,-4.6293,13.0439,9.1006,1.5681,6.6243,-14.2544,1.1111,-2.731,2.6817,-10.7396,-6.4718,
7.3809,7.4085,-9.6589,-7.7168,22.2047,5.1884,5.8017,12.4784,-15.8038,-10.0156,-4.0094,5.8869,-4.806,-9.4497,
0.6878,5.5213,-2.8282,-3.888,8.8514,7.2813,1.1264,13.1724,-8.6036,-1.2396,2.4823,-1.6789,-4.998,-3.5931,
-9.9327,1.3431,-10.3523,-4.6163,-0.33593,2.9975,-8.5589,10.4591,-4.2404,-4.0507,0.40948,-7.349,-6.622,-6.2629,
-5.4903,5.1099,-11.6547,-10.1097,-7.0476,0.89416,-7.0834,11.755,-3.9865,-9.578,-4.423,3.6716,-3.3388,-8.7721,
-0.83275,12.9784,-4.7043,-2.2895,0.58875,5.1686,0.55511,8.6455,-5.19,-0.82827,-5.6004,-1.8383,-6.5042,-6.8031,
-4.6297,2.5819,3.2718,-1.1907,12.0933,-5.7207,6.2917,3.3174,1.8538,-0.77858,1.468,-15.828,-9.9618,-4.4719,
-4.3519,2.427,9.8079,0.80378,6.5592,-4.416,3.0297,5.0423,2.7049,-8.4257,3.3029,-28.9783,-4.5547,-3.2412,
-4.0913,9.9748,11.1428,-3.0918,2.3183,4.5048,-0.037944,7.6247,-4.1901,-8.8821,-2.6656,-34.6247,-5.2434,-4.9711,
0.4828,12.7433,19.6113,-2.4246,14.2016,-1.0547,6.2159,9.5719,-6.3434,0.78782,-1.0625,-35.9125,-8.295,-4.1911,
4.3007,10.0548,22.2815,-0.35525,8.5411,-3.8768,1.996,6.1122,-3.0774,1.702,0.92421,-34.7192,-5.8734,-3.9397,
-5.0938,-2.5704,7.9602,-14.4339,-6.0713,-1.24,-9.1842,-3.3911,-1.45,-7.5366,-4.4209,-32.1558,-10.8106,-5.146,
-5.7502,-1.4542,0.75076,-9.5664,-5.5525,1.7194,-5.7473,2.5827,-2.325,-5.161,-6.0791,-26.38,-11.1239,0.93315,
-0.59628,6.3273,2.6292,-6.1075,8.8807,-4.1542,5.1764,12.0451,-1.2235,-0.04243,-4.7524,-20.9498,-5.6476,-0.084801,
-0.079757,-0.30391,8.723,-16.801,12.0397,-3.4242,5.3465,9.8801,0.29213,-7.253,-3.9865,-24.9829,-6.7519,-5.3689,
-0.55618,2.1185,16.3747,-4.7334,2.1808,6.8802,-0.26388,2.0738,-0.20569,-8.2605,0.58084,-26.8496,-9.7125,-4.5665,
-2.4458,5.8383,11.5453,-6.3724,-1.797,6.4674,-1.2095,-0.93516,-5.0027,-1.995,-0.41643,-21.3917,-7.2067,-3.3301,
5.3948,6.4495,7.0047,-7.914,8.8901,4.1555,2.7099,11.6232,-4.7025,-2.8368,-0.39144,-21.0697,-3.8889,-3.1302,
11.803,5.1006,0.81406,0.25515,13.1646,2.9442,0.62389,11.8869,-1.5345,-5.5515,1.5555,-23.6529,-6.5405,-5.8283,
7.7286,12.9692,4.1314,-2.1648,9.971,8.0567,1.0672,7.8075,-0.96167,4.8792,1.9429,-11.1738,-2.7829,-5.9594,
11.593,24.2139,13.9825,-1.5537,20.4332,12.8638,8.2167,21.439,-5.2321,11.8,1.3461,3.4425,8.4446,-1.2737,
10.4158,11.7001,14.5858,-5.7891,20.6495,1.9935,5.3181,26.2492,-5.3989,6.7634,-1.1394,-10.7094,13.2271,-0.7165,
4.5017,3.785,6.4975,-10.7309,16.0443,-3.4162,-4.137,12.6528,-0.74732,0.10691,-2.5133,-24.1669,3.2974,-5.0012,
10.9634,14.1376,2.2603,-9.1251,29.1817,7.3685,9.5754,15.741,-2.6259,10.6793,-3.3244,-12.945,0.21455,-2.7777,
16.5577,18.579,8.3767,-7.1349,34.97,14.139,23.1009,17.2007,-4.8726,19.1751,-1.6823,1.9317,3.5674,-0.20678,
17.4872,20.3488,15.568,-1.8984,20.3687,7.5207,10.9814,9.4364,-4.5802,9.3692,-1.5813,-0.26222,3.3533,-0.19438,
15.9572,18.6471,17.9991,-3.2267,16.7428,1.7794,2.1471,15.1218,-4.7862,7.3639,-1.0057,-6.4981,3.6329,5.1065,
5.382,6.9499,10.1878,-3.9946,5.159,-3.1358,7.7891,18.0614,-4.499,13.6544,0.97857,5.4326,1.4919,2.8771,
2.1742,1.7241,1.8822,-1.8324,-9.2506,-1.0242,0.58985,11.2073,-2.3056,8.9887,-2.9275,10.877,-5.3304,4.6279,
5.8902,14.1224,10.4251,-3.6459,-11.9071,6.7307,-7.1398,14.3813,-0.24381,-1.1688,-4.6753,8.3009,-7.8955,13.0051,
5.5377,27.3751,11.7235,7.153,2.9073,9.2132,-0.94061,23.1362,-4.0761,6.596,-0.54789,14.5352,-2.6125,7.4173,
0.87729,14.9992,5.7304,6.2426,-7.039,2.4083,-1.3654,21.2677,-4.3127,13.4129,1.8892,11.2589,-6.7838,-1.2028,
-7.3499,-0.0007632,10.6758,-4.2304,-20.7167,-3.0253,-9.458,17.587,-0.68781,3.472,-2.5518,-3.5167,-11.6669,-4.4968,
-12.1986,6.405,9.554,2.2745,-6.3356,-3.325,-4.5624,17.0121,-2.0892,-5.8728,-1.9175,-9.4022,-0.86792,4.9096,
-10.0239,1.6935,3.6912,3.5808,-4.5128,-4.5682,1.0009,16.4726,-2.4442,-7.9247,4.4487,0.29847,11.2052,15.6745,
-9.9032,-9.4681,2.9889,-0.96176,-15.302,0.99594,-11.0815,19.8119,-4.7022,-1.1985,0.81558,3.6467,5.2437,10.4064,
-9.7907,3.1215,-0.55656,-2.3472,-4.2863,12.9568,-10.8974,20.0654,-1.0539,-0.64585,-2.5995,1.9848,4.4474,2.5689,
-4.3939,8.705,-3.4077,-2.2055,1.7417,10.2564,-2.5497,11.1677,-0.029166,-9.2624,-3.4051,0.90417,7.0669,-0.47062,
2.6011,1.4504,5.4521,0.81136,-3.1712,9.641,-3.3582,18.1914,-0.027417,3.7956,-3.2007,5.6583,-2.9748,0.51911,
-1.8822,-4.8887,9.4522,-11.2593,-12.1175,11.4667,-8.4464,16.6196,0.45544,6.9345,-3.4899,1.9531,-4.2391,-4.8017,
-0.80728,2.1374,13.694,-11.5448,-12.3524,10.7792,-10.8245,6.0052,-1.4953,1.7095,-1.3571,-0.087519,10.1153,-3.5516,
4.0496,6.8176,15.7577,-5.0812,-4.8789,-2.3698,-11.1366,6.6064,-0.44413,9.3008,-2.2371,9.5355,14.6434,0.50933,
2.3639,9.7752,16.255,-3.3346,-2.182,-16.3276,-5.1788,8.6142,7.7576,14.9938,-0.6602,9.4436,13.2836,-0.0024401,
-3.0671,6.784,11.9135,-0.72984,-5.4163,-20.483,-5.3488,3.7697,5.8499,7.8436,-0.13984,8.3963,12.0058,1.44,
0.0018776,-1.3173,13.1222,-7.4179,-8.9387,-5.7898,-9.8367,7.3909,-1.2339,4.4871,-2.0549,14.6244,-2.1787,4.2385,
3.3675,-1.7186,18.586,-1.6841,-9.8451,1.7702,-5.8808,14.16,0.28282,-0.10937,-3.3743,12.3042,-16.148,4.4654,
-10.7791,-4.0201,13.1431,-1.1014,-5.8882,-4.5867,-5.0472,8.0213,-0.2149,-13.0867,-2.6911,11.0852,-16.4672,0.83132,
-7.7286,-9.0681,8.9884,-1.5161,-2.1688,0.016182,-5.2251,11.8677,-0.68276,-12.7823,-1.0865,15.7102,-17.883,7.033,
-0.051782,-4.1964,1.236,6.7495,1.3275,5.3044,-3.4694,12.5979,-2.085,-7.6877,-0.54054,9.4775,-26.9085,5.1679,
-11.1087,-5.3877,0.68108,-0.86859,-5.0037,-2.227,-2.7805,0.78198,-0.51669,-0.97482,-0.027355,6.5051,-23.8517,-7.1637,
-9.4807,-7.949,2.5641,0.14502,-9.5119,-1.1309,-8.3835,6.5059,1.4373,6.7775,-3.8726,6.1148,-20.4967,-6.7339,
2.6299,2.1448,2.4103,9.7541,5.1588,4.7068,-9.8045,18.6178,3.275,-0.36148,-5.5642,3.824,-20.2284,-1.5205,
2.4721,3.94,7.075,1.475,10.9463,-8.0778,-8.2538,10.7693,3.0785,-8.0327,-2.3449,6.4809,-13.2439,1.4561,
-4.4091,-4.9522,3.7646,-2.4609,-3.8105,-8.5551,-14.4913,5.3134,0.97032,-3.7043,2.6046,11.8615,-14.3736,1.3683,
2.1071,-18.755,8.8279,6.8238,-12.0831,-1.7902,-8.3318,10.2846,15.0121,6.6165,15.4314,9.7075,-9.1835,2.7285,
16.0806,-13.6278,22.3982,20.5143,2.7419,-8.4147,6.2681,18.3234,28.2114,18.7213,28.6055,5.2777,5.4675,16.6648,
8.7096,-0.3074,10.8013,16.7242,8.6735,-18.4895,-5.3225,12.4151,21.8809,3.498,20.483,-2.7323,12.1979,12.1441,
-5.7584,-0.77062,-3.9468,1.6208,-0.98392,-3.2801,-6.4464,13.1124,6.4681,-10.8119,5.154,5.6062,-2.6339,-2.6845,
-1.0847,-2.1662,10.39,-3.6115,9.1741,11.0167,7.8854,17.6153,-5.7865,-7.9301,-5.0987,14.4064,-7.6109,-0.92616,
-1.0196,-7.807,15.537,-2.4333,10.5466,-3.7443,-5.09,5.9791,-3.5163,-11.3012,-6.7158,-0.55802,-0.42196,5.8617,
3.3692,-6.8579,16.0479,5.8882,5.5862,-2.7123,-12.9592,8.9875,2.9463,-12.0654,-5.8321,-11.9107,-12.4181,0.22087,
7.0144,0.28639,18.9315,17.0752,5.2514,11.5504,-10.2582,18.0655,-2.0394,-7.4941,-7.4056,-5.4257,-11.6726,5.0165,
-1.1007,5.0781,14.9107,6.4334,11.6682,15.0305,-14.4515,11.2112,-4.802,-2.2356,-4.0763,-2.2143,0.56805,17.2173,
-9.69,-7.7298,-0.083989,-4.5319,10.0066,0.028666,-26.0867,2.8447,-3.5523,-3.0638,-0.94631,-0.15841,-8.1214,2.7205,
1.9514,-18.326,1.0371,9.6855,7.0016,7.8754,-14.4239,13.7331,3.8739,7.2185,6.3235,9.9487,-1.3834,1.1141,
4.2385,-11.9368,14.9199,14.393,1.2919,15.577,-7.3074,8.581,-1.6482,7.2657,-2.2309,5.0245,3.9892,10.1838,
2.541,-0.16059,12.5824,3.4319,0.7336,5.5063,-16.005,2.777,-1.0685,0.57906,-7.3862,8.0892,-6.3486,7.1681,
-10.1132,-13.6152,0.28719,-10.874,-13.4104,-3.4799,-29.1447,-3.16,-0.042466,-7.15,-1.1727,14.3358,-20.0677,-7.362,
-19.6049,-26.8982,-3.0962,-0.44881,-23.03,-9.5218,-33.0109,-2.4897,-2.4446,-2.3924,5.1493,18.7657,-16.7847,-6.7643,
-8.3306,-24.6486,-0.50623,8.7137,-8.6647,-13.2786,-25.7415,8.7202,2.0302,6.8868,4.3591,24.8524,-6.6411,7.7416,
-7.8312,-24.1316,-3.3617,-5.9091,-8.1453,-3.8261,-26.1205,0.50266,-2.9005,-6.9906,-4.5582,13.7439,-14.8984,7.1216,
-2.0713,-10.6622,7.9009,1.3328,-5.2519,10.5035,-11.5693,1.9157,-6.0926,-4.1665,3.8908,16.2855,-12.5613,0.4436,
-1.4658,-14.3506,7.9071,7.504,-6.3795,-2.3033,-12.3179,0.35711,-8.1313,-0.55083,4.1376,20.5971,-12.2889,-2.9496,
-2.8205,-13.0084,10.7993,7.535,1.2168,-3.6078,-13.983,5.6262,-1.3923,-6.7689,0.52364,10.2256,-9.1473,4.4409,
-0.72739,-5.4955,18.8067,7.0829,15.2438,10.0733,-5.4502,12.021,12.1559,-10.2097,5.3006,-3.8517,-8.5985,3.2129,
0.75804,-6.6085,8.5418,3.2913,9.3648,1.2939,-16.1837,9.8561,9.9839,-4.3075,3.5399,-4.1027,-17.2191,-4.1934,
5.5214,-0.44162,-6.0708,2.1318,-2.7374,-8.401,-28.6768,4.4568,-1.1939,-4.0495,-5.3283,0.95233,-20.0333,-6.8277,
8.5554,1.9886,-4.59,-10.9791,-2.0924,-6.4547,-23.5901,-0.13922,-2.5655,-9.0957,-5.4893,-6.3179,-21.236,-9.7842,
11.4087,-6.3048,0.01356,-13.686,11.0166,0.1837,-24.5789,6.1212,4.802,-1.3373,3.9766,-1.6107,-17.5567,-5.8305,
7.8388,-13.6204,-2.8727,-5.172,14.2025,-0.78882,-20.2196,5.753,5.4754,5.4752,4.6995,6.1798,-15.5418,-5.4807,
13.1393,-1.2624,3.0705,5.7185,12.3889,-5.5499,-4.9065,3.4857,8.0323,1.3007,9.2268,1.9621,-9.8,-3.2279,
8.0232,6.0264,-5.2883,4.8947,-0.37597,-8.5831,-0.91883,2.7949,6.1081,-6.9528,3.3831,-11.1386,-12.5781,-2.5535,
1.2907,-4.4332,-6.4137,2.1968,-11.4129,0.10695,-13.8472,11.7638,10.0688,-4.1314,3.6614,-10.9515,-11.3422,0.0039354,
7.4644,-0.80149,5.0307,16.165,-5.4395,-1.3422,0.92863,17.3091,13.7919,-7.2493,14.5012,2.689,-1.5261,0.48399,
7.0165,10.7874,2.8058,13.1161,-1.2662,-7.0325,9.5282,9.5391,8.156,-6.8143,14.5936,5.4131,2.4124,-1.468,
-4.4644,1.004,2.1558,-1.7709,-10.3263,-7.0913,-4.0264,1.7528,5.2628,-3.0402,2.657,-4.0487,-3.9839,-4.7461,
-3.2346,-3.8651,9.7207,9.0697,-6.8218,-1.8569,-8.5937,4.5335,3.0236,0.9896,4.422,1.9655,-7.5914,-4.4609,
-0.15559,-5.5566,1.4432,8.525,-5.4505,1.1394,-7.1171,5.2225,-1.9667,2.8537,1.2708,4.7316,-7.1363,-1.3092,
6.5861,-2.3378,1.3575,9.9375,-5.1235,6.8419,-3.8037,13.5654,8.7306,5.5679,-6.4993,-3.2452,-2.8603,8.3871,
-1.9841,2.1297,-2.0905,10.783,6.2435,2.1033,-5.0191,12.2703,4.8401,-7.7497,-8.5135,-16.9963,-8.9407,-0.29117,
-2.8261,7.7732,-3.8886,1.4812,18.3716,5.8244,2.0148,5.7637,-3.1437,-10.1696,-2.2324,-13.0907,-7.4423,-7.0056,
5.9988,10.1922,2.1156,1.3923,17.2702,10.2834,-6.7614,13.1126,-3.9165,-0.90321,-9.7922,-10.3813,-10.8418,-7.5467,
-1.093,2.8479,7.759,-5.4231,14.3096,-0.9124,-17.8969,18.0953,-1.7581,0.11203,-8.2428,-12.6443,-14.0387,-8.0559,
1.8571,-2.1314,17.8718,-0.28932,8.6426,-8.5524,-5.2824,10.2773,7.9642,10.6846,6.3518,-2.2688,-0.6941,3.0067,
10.8822,-6.3317,15.3568,6.9407,0.91053,-5.6341,-3.5227,-3.3228,10.853,14.3707,13.5095,6.0423,4.6372,8.1159,
7.825,-6.433,10.1082,-0.6884,5.184,-0.96888,-7.6395,-0.71926,8.7591,6.2958,6.4478,9.0455,1.9547,-1.5076,
3.5086,-6.047,4.6924,5.1228,1.0261,-5.7192,-3.3342,7.0177,8.2326,-2.7382,12.7923,14.2736,3.7605,-5.264,
11.9539,-1.8368,9.2197,15.3952,-4.8059,-16.9163,2.6362,9.4825,16.3954,-6.4203,17.7961,23.996,11.2291,7.5545,
13.6404,4.5241,12.0327,10.1429,6.5425,-18.306,-2.8111,13.2413,12.0446,-9.4013,8.5528,13.4201,6.2268,13.3519,
12.3422,1.8489,-1.6723,4.2451,16.2484,-3.1076,-7.9316,18.6984,1.2243,-9.318,-2.0579,8.2873,-1.359,1.4917,
4.8688,-8.8408,-14.0747,-4.6645,9.5031,10.3884,-8.4177,4.1123,-5.581,-6.8354,-4.8194,21.89,1.6075,-10.139,
-1.6749,-5.9066,-17.5578,-8.7132,16.1451,5.4366,-2.6234,-8.1569,-11.4977,-4.0206,-7.8964,10.8038,4.8772,-9.0499,
4.6763,3.5838,-15.0621,-9.6335,22.3895,2.7057,3.7846,-3.3398,-10.3271,-6.1841,-9.8273,-3.9444,5.0653,-8.9877,
4.3966,1.4458,-8.3876,-10.9785,17.1992,11.1996,1.6346,4.5553,-5.8606,-5.813,-4.4292,-6.4376,2.8375,-8.4484,
-3.5606,-1.5259,-8.8463,-5.511,18.0916,20.1449,-1.3485,8.1285,-4.547,-3.5408,-2.2391,3.5659,1.7062,-3.1326,
-3.8286,3.8548,-15.5286,-6.6235,24.2183,19.417,-1.7483,8.1215,-9.5642,-1.8861,-8.3563,-3.8611,4.97,0.4215,
6.4996,17.7235,-10.2692,-8.6298,36.8652,27.389,-1.1627,9.0765,-11.3941,12.1725,-11.2211,8.392,6.1141,-5.8554,
7.5524,26.6036,-8.2103,-20.134,36.9029,22.379,0.3498,6.1277,-11.1917,12.8849,-8.1437,10.2927,-8.1977,-17.526,
3.7335,10.9074,1.4188,-8.827,20.5887,6.9363,4.6569,9.1266,2.4633,1.0522,-12.9447,-4.4248,-11.0716,-2.3744,
3.0278,-0.65203,15.4337,5.8026,5.2534,-7.2703,1.0114,8.0983,9.5285,1.4698,-13.6102,-2.5611,3.5372,11.868,
9.0977,-0.13216,13.8714,5.7797,-9.1618,-16.9317,-6.2624,-6.333,6.5522,9.5562,-2.696,5.7671,1.8827,4.5947,
10.9561,5.1663,1.9796,1.1057,-5.7427,-19.2815,-5.4055,-6.4333,0.87033,7.5402,-2.0531,1.093,-6.4053,-1.9312,
-0.76128,1.4892,-3.4283,4.4056,-14.5352,-8.027,-5.5628,2.1272,0.33644,8.5309,-6.2575,8.2405,-2.6548,7.3208,
-12.2563,-12.7001,-4.1851,0.2934,-27.7631,-8.5069,-10.9989,4.8841,2.2402,9.9421,-3.9591,11.5929,-1.534,7.843,
-4.7886,-9.3779,-3.933,10.856,-11.9973,-10.8819,1.2017,8.4389,6.9151,11.2694,6.8577,10.8974,2.4059,7.3734,
2.231,-4.9693,2.0729,10.2037,2.8226,-13.1144,15.2296,8.8941,6.4993,10.5924,8.3702,9.282,4.1845,3.0831,
11.2332,-6.1134,16.0485,10.0722,5.384,-6.0759,13.1989,12.6881,5.6286,11.4,7.3872,6.3204,5.3757,2.4174,
5.2705,-3.3423,14.4498,7.0646,0.73286,-3.3072,-1.6931,1.8288,-2.8833,4.4649,1.6543,-4.1568,1.6874,5.639,
0.62526,-0.73759,8.2932,5.1971,7.9015,3.1424,-4.8031,0.27632,2.5784,2.7533,-6.62,3.3052,4.9519,8.6664,
7.3205,-3.5783,0.10129,6.8087,9.3509,8.7242,-2.5914,11.8,-1.4236,3.5501,-15.8401,7.9158,1.7698,5.2605,
13.6132,-6.2486,2.0196,3.5152,8.7903,5.3158,-0.51157,14.9394,-10.9546,1.4136,-4.3109,-6.6592,3.5871,7.8307,
11.8349,-0.10373,-0.987,1.3804,11.1474,6.9199,6.2505,1.5399,-12.2212,-4.4411,1.7177,-8.5092,3.3719,6.3985,
10.644,14.0025,-7.1794,3.7023,24.5785,20.6047,15.0125,7.6991,-7.1603,2.077,-8.4829,4.9852,3.6503,3.6108,
0.86886,5.7942,-5.3059,-0.84709,9.0038,15.8481,12.669,13.4882,-7.211,-7.1842,-15.1866,-8.2973,1.0271,-2.857,
7.5486,-0.32381,3.6682,10.744,-1.1532,1.433,14.7939,13.6409,-6.7788,-19.2559,-3.6966,-14.5323,3.8504,0.19942,
15.751,-1.2659,6.3336,11.0609,12.3806,3.27,21.6001,11.861,-5.4105,-12.3306,-3.4748,-2.1187,10.3517,6.9198,
9.998,-2.1519,6.9146,6.5508,15.4842,6.9212,20.3045,10.1873,-5.0855,-5.8204,-8.0752,6.6633,10.6926,13.2365,
