"AF3","AF4","F3","F4","F7","F8","FC5","FC6","O1","O2","P7","P8","T7","T8",
-23.0447,-15.3631,25.9255,-15.3631,151.7121,18.2439,75.8556,-0.95997,-2.8808,-10.5624,0.95997,-20.1639,17.284,10.5624,
-25.0232,-13.0018,25.8094,-12.041,151.7304,23.3904,70.8238,-1.3828,-2.2275,-11.369,1.3828,-19.4345,15.7665,7.5273,
-29.2825,-12.2208,25.2218,-9.3976,150.309,27.7486,62.7345,-2.2598,-1.1339,-14.5277,1.2998,-22.1092,10.9797,0.35502,
-14.5633,-5.2469,25.1484,-3.5531,155.3905,40.1837,59.4504,2.1965,-4.4267,-14.136,-2.1389,-16.4619,6.9601,3.6945,
-4.5676,-1.5708,23.16,-0.93951,160.1671,51.8727,53.4821,3.5052,-11.3622,-15.6882,-9.2126,-14.0337,1.2613,3.9524,
6.2689,2.3642,21.7704,1.9977,164.657,62.8603,48.3533,6.1757,-16.4421,-17.6277,-14.4206,-11.2709,-4.575,4.6761,
11.1739,0.78196,15.183,-0.52256,168.8776,70.0796,38.2509,2.4439,-26.4974,-23.7712,-25.5572,-13.9559,-15.3433,0.074325,
18.6646,2.1755,10.9107,-0.011679,172.845,77.8767,31.6347,1.8168,-33.0696,-27.6261,-32.1867,-13.599,-22.5847,-1.3705,
24.7467,3.4853,7.8557,0.46946,176.5743,84.2469,25.4154,1.2283,-40.2074,-30.2897,-39.3765,-13.2625,-28.4308,-2.7287,
30.9435,4.2362,4.5045,0.44129,180.0798,90.7144,19.0897,1.1546,-46.4364,-34.2331,-45.6555,-13.4268,-35.3664,-4.4849,
37.2484,5.422,1.8334,0.8948,183.375,97.2739,13.6236,0.60531,-51.8118,-36.4998,-52.0385,-13.1011,-41.406,-5.6567,
43.1759,6.5375,-1.6374,1.3211,186.4725,103.4397,8.4854,0.089007,-56.8655,-39.5915,-57.0778,-12.796,-47.0841,-6.7572,
47.786,7.5852,-3.94,1.7218,189.3842,108.2757,3.6546,-0.39632,-62.5751,-41.5368,-62.7755,-12.5082,-51.4606,-7.7927,
52.6004,8.0901,-6.5835,1.6185,192.1211,113.3015,-1.3654,-0.37254,-67.4621,-44.8062,-67.6505,-12.7177,-57.0145,-9.245,
58.0868,10.4855,-9.0693,1.5214,194.6938,119.9466,-5.1243,-0.35018,-73.0168,-44.9977,-75.1138,-12.9146,-62.2351,-9.6503,
55.0812,17.0574,-0.36406,1.9105,197.1122,114.1902,-3.3764,-0.80961,-54.5358,-30.296,-62.4459,-8.7794,-46.4992,-9.5517,
51.7763,21.7956,7.3393,1.7959,184.9033,107.3388,-2.2139,-0.76104,-37.1636,-16.9559,-51.0176,-5.3718,-31.226,-8.9786,
45.3094,19.0475,5.4595,0.24775,160.8464,86.9757,5.121,0.72503,-20.8338,-4.8957,-33.8565,-19.1495,-15.2525,-20.4418,
37.3096,16.4642,11.3731,-10.809,141.1136,73.5952,15.8556,11.7234,-5.4838,-9.8832,-17.7251,-32.1005,-3.4727,-27.3772,
27.8695,22.6779,10.2107,-19.2829,118.5468,58.1371,19.2251,12.4609,8.9452,-0.16868,-2.5616,-17.8176,10.6588,-11.6346,
12.0973,19.8773,1.4365,-32.2259,97.334,40.5489,13.7517,5.4716,16.1654,0.32234,11.6921,-8.587,15.3009,-1.9919,
-0.93353,4.5847,-9.2125,-42.5973,77.394,24.016,6.2046,-5.4186,1.0955,10.8649,14.1235,6.0282,0.94014,12.2276,
-6.1592,-1.2747,-9.1397,-38.6016,58.6503,8.475,3.4315,-4.6135,-5.5146,7.8122,12.7961,6.4492,1.3637,12.2766,
-10.5904,-4.0791,-8.5913,-34.3655,41.0313,-3.5048,2.2656,-4.3367,-3.2638,6.3835,12.0283,4.1414,3.2018,10.5801,
-13.7962,-6.7147,-7.1154,-29.4223,24.4694,-9.0557,1.1692,-2.1561,-1.1475,5.0401,12.2661,2.9334,4.9301,9.9448,
-16.3283,-7.7517,-5.2486,-24.2962,8.9013,-13.7931,1.58,-0.58677,1.3221,5.2176,12.971,2.2774,7.0351,8.8691,
-19.1898,-9.207,-3.9732,-19.9581,-5.7328,-18.7267,0.52476,1.3688,3.1632,3.9451,13.1532,1.1804,8.5334,8.3365,
-20.4388,-9.135,-1.3345,-14.4403,-19.4888,-22.8851,1.9328,3.6871,7.2937,5.1479,14.7644,1.5891,12.3417,9.2767,
-19.6924,-8.107,3.0673,-7.3313,-32.4195,-23.912,4.2176,8.7475,12.1377,7.2398,18.1993,3.8955,16.8828,12.0809,
-20.9117,-8.1005,5.2832,-2.5707,-44.5743,-26.798,5.4054,10.6235,14.7703,8.2463,19.5081,4.1417,19.2307,11.836,
-23.0174,-9.0549,5.4466,2.8647,-55.9999,-32.3912,3.6407,11.4265,18.2053,6.3111,17.8572,3.4128,21.4372,9.6854,
-21.1563,-8.9916,5.5998,3.1728,-66.7399,-30.9277,3.9022,10.2609,17.5929,7.3724,16.3058,5.6088,19.671,10.5452,
-18.9265,-8.4516,6.2242,2.982,-76.8355,-30.0325,3.6677,8.6848,15.5769,7.8905,13.4071,8.1527,17.5303,10.872,
-16.351,-8.4245,7.2907,3.2831,-86.3254,-29.6705,3.9285,7.6837,15.1223,9.8179,12.1227,10.0643,15.0385,11.6605,
-14.89,-7.4391,8.2941,4.5269,-88.0911,-28.3703,3.2128,7.7027,13.735,10.6687,9.9554,12.8213,13.6562,11.4409,
-13.5161,-8.4331,7.3161,3.7749,-84.246,-28.1084,2.5396,5.8001,12.4304,10.5091,7.9176,13.4915,11.3964,11.2349,
-14.1456,-9.3675,6.3966,2.108,-81.5916,-28.8223,0.94681,3.0517,9.2842,9.3981,4.0822,14.1224,8.3123,10.0803,
-13.7768,-11.2063,5.5329,0.54155,-80.0578,-30.4547,-0.55086,0.46782,7.2872,9.3142,1.4365,13.755,4.4527,8.9955,
-14.3906,-12.9343,4.7205,0.028618,-77.6547,-31.0278,-2.9182,-1.0007,4.4496,8.2749,-2.011,14.3701,1.7852,7.0154,
-14.0076,-13.5987,2.9977,-1.4135,-75.3958,-31.5665,-4.1826,-3.341,2.7422,7.2989,-4.2907,13.9884,-0.72227,6.114,
-12.6867,-12.3023,4.2574,-0.84825,-72.3125,-30.1529,-3.4521,-3.621,2.0973,8.3004,-5.4737,16.5094,-1.1594,7.1876,
-10.9655,-12.5241,4.9628,-0.79736,-68.9337,-30.2637,-3.245,-4.3637,1.9714,9.7232,-6.1052,17.4397,-3.0097,7.7163,
-10.3072,-11.7731,5.6245,-0.74998,-65.7581,-29.4083,-4.0107,-4.1023,0.89273,10.1003,-7.6593,19.2737,-3.7896,7.2538,
-8.7288,-12.0267,5.2871,0.2559,-62.7726,-28.6038,-3.7701,-4.8161,0.83916,10.4542,-8.1597,20.0381,-4.5222,7.7785,
-7.725,-10.8251,6.4107,0.72053,-59.4862,-27.3675,-3.063,-5.0072,0.30883,11.2678,-9.11,22.1966,-4.7308,8.7527,
-6.3011,-11.136,6.9856,0.67684,-57.8374,-27.6458,-2.8796,-5.6671,0.29076,12.5121,-9.5239,22.7843,-6.3683,9.187,
-5.9235,-10.4683,7.5269,1.5967,-55.3276,-26.9475,-3.6673,-5.3267,-0.68711,12.7209,-10.8737,24.2976,-6.9466,8.6353,
-4.6077,-10.8007,7.0748,1.5004,-52.9684,-26.2911,-3.4477,-5.9675,-0.64634,12.9181,-11.1817,24.7601,-7.4902,9.0776,
-4.8112,-10.6317,7.1312,0.93039,-51.2302,-26.1536,-3.7199,-7.0494,-2.0475,12.623,-12.9107,25.6753,-9.4407,9.013,
-5.003,-12.3942,6.2229,-0.56584,-51.5167,-27.9447,-4.9371,-9.0268,-3.3651,12.3461,-14.5365,24.6152,-11.2747,7.9927,
-6.1427,-14.0513,3.4496,-1.9718,-56.5873,-34.4305,-6.0808,-11.846,-4.6031,13.0452,-21.8258,22.6584,-14.9189,6.0732,
-11.0554,-11.7679,-2.9994,-7.1347,-67.292,-35.725,-7.1573,-7.7749,8.6349,17.5437,-6.4163,14.0968,-5.8627,15.7898,
-19.034,-12.0222,-12.4214,-14.3877,-77.3545,-39.3426,-10.5682,-6.348,18.6796,19.3714,8.0687,4.6099,1.2111,21.5644,
-15.9716,-10.3404,-14.5565,-23.1264,-86.8132,-34.1017,-4.1729,-3.0867,18.5193,13.4089,13.472,-3.3487,5.9396,12.5895,
-10.6925,-6.3592,-14.1631,-27.9804,-95.7044,-26.774,6.1598,2.3792,21.7289,11.1635,21.7852,-6.5085,13.7448,6.5525,
-9.0901,-7.8976,-16.1941,-27.2616,-97.8959,-24.2076,2.9094,1.2765,16.5844,9.5337,17.5973,-3.2372,9.0793,7.1202,
-6.6248,-6.4638,-16.1824,-24.6659,-90.1022,-19.8743,1.7749,1.1999,13.6685,9.9216,15.5815,1.7578,6.6137,9.5729,
-3.3465,-6.0769,-15.2115,-22.226,-83.7361,-15.802,0.70752,1.1279,11.8884,10.2863,13.6857,6.453,4.297,11.8793,
-2.1857,-5.7123,-16.2196,-20.8924,-77.751,-13.8939,-1.2549,0.10025,8.2943,9.6691,9.9847,9.9066,2.1183,14.0465,
-1.0941,-7.2899,-18.1268,-20.5993,-73.0864,-12.0998,-4.0608,-0.86618,3.9554,8.1286,6.5043,12.1926,-1.85,14.1641,
-0.06853,-6.8525,-18.96,-19.3633,-67.7413,-9.4539,-5.7371,-1.7742,0.83816,7.6408,4.1941,15.3018,-4.6189,15.2351,
1.376,-7.8809,-19.2619,-18.6811,-64.1563,-7.4453,-7.7933,-3.1081,-1.6125,6.7029,1.5421,17.745,-7.7021,15.7614,
2.7343,-6.928,-19.5462,-17.0802,-58.867,-5.5587,-8.7656,-3.4016,-3.9166,6.7807,-0.95123,21.0019,-8.6809,18.1765,
4.4902,-7.4723,-20.2942,-16.0554,-54.3741,-3.3043,-10.1605,-3.1975,-6.5615,6.3738,-2.8141,23.5826,-11.0399,19.0058,
6.1407,-6.064,-20.0366,-14.1321,-49.1917,-0.22615,-10.5109,-3.0057,-8.0886,5.9914,-3.6061,26.9684,-12.2984,20.7463,
7.6931,-6.6601,-19.7952,-13.2842,-46.2402,1.7083,-11.8011,-3.7853,-9.5242,6.5919,-5.3097,29.1911,-14.4413,21.4215,
8.1919,-7.2209,-19.5679,-13.4476,-41.5454,1.6053,-13.0134,-4.5186,-11.8331,7.1568,-5.9515,32.2399,-14.5352,23.0174,
11.0612,2.3347,-9.2715,-4.4783,-53.1527,11.5914,-7.9109,7.7548,-2.0007,20.8274,-1.2728,44.4055,-9.3414,35.7364,
5.5963,2.1942,-9.6756,-6.1309,-64.0635,10.8954,-12.2384,11.1299,-2.8411,31.8837,-5.0376,55.8412,-13.5821,47.6922,
0.45935,5.9029,-4.2939,0.95812,-74.3197,20.8036,-13.4245,13.3424,1.1697,22.2886,0.064913,40.1338,-1.2453,44.9561,
-4.3694,10.3499,0.76498,7.6227,-83.9605,30.1182,-13.5785,15.4231,3.9808,13.2702,4.8631,24.2839,11.3121,28.1587,
1.1744,3.4873,-4.5626,-0.036256,-93.0229,21.1096,-19.0054,15.9377,1.3411,20.6355,-0.7103,36.9269,-0.40895,40.5692,
10.7059,0.3977,-5.2483,-2.9144,-101.5415,16.9626,-18.8255,21.7035,3.1811,32.8401,-1.6281,48.8113,-7.1055,52.235,
2.862,-1.067,-6.3743,-0.33965,-109.549,9.7033,-14.3352,13.1997,8.2709,33.2696,2.7903,54.17,-0.43852,44.6033,
-0.19012,0.9183,-3.1115,6.4028,-117.0761,8.1616,-5.793,8.5665,17.3766,37.9955,12.2249,55.721,10.1506,34.2451,
-4.0199,-5.8588,0.91645,1.2174,-124.1515,5.7506,-8.3267,6.1321,11.5328,31.8745,6.6902,38.9341,3.7795,35.0708,
-7.1395,-12.7089,4.2223,-4.1373,-129.9917,3.9656,-12.1479,4.3242,4.6002,26.6013,1.968,22.6749,-3.6479,36.3273,
-5.2708,-4.7443,2.5285,2.353,-108.0922,8.0489,-8.0578,4.5452,10.5653,16.8441,10.0119,19.8749,5.6929,29.8274,
-3.5146,1.7819,0.93686,8.4534,-87.5067,9.9668,-4.2135,3.7925,15.213,6.7111,16.6128,15.3216,12.5529,23.717,
-7.1445,0.71414,4.7214,8.9062,-74.9289,11.2887,-7.8015,1.6441,12.3794,20.4084,11.7752,28.5023,6.999,33.8163,
-9.1157,0.19131,8.7589,10.7717,-72.8335,13.0122,-10.6942,-0.85535,9.2358,33.2839,7.7079,40.8922,1.2974,42.8297,
-22.6688,-11.8229,3.9121,-0.91645,-82.5635,-1.8685,-7.6522,-5.1243,13.9628,17.1869,10.6058,24.3387,5.5408,26.1599,
-35.4086,-4.392,-0.16336,-0.86146,-82.2336,-5.4208,-9.1139,3.8246,11.2051,2.0556,10.9303,8.7783,16.7307,10.4903,
-36.7708,1.1532,-3.5144,-0.32979,-73.9388,-5.5756,-9.047,5.996,4.2912,1.4528,5.9537,-5.8484,19.0876,8.2942,
-29.7633,-1.7964,5.3385,12.1727,-65.6617,-0.43982,-12.3445,2.7559,2.1134,4.246,8.4769,-4.3597,10.2604,2.9962,
-13.8775,6.9525,17.5009,25.5424,-47.622,13.6866,-12.5643,10.2716,3.9069,10.7123,12.7695,10.0018,10.6052,16.9164,
-7.9414,4.6154,10.6893,11.8302,-30.6647,13.1681,-8.9296,-2.827,4.6325,7.1888,4.3217,23.5017,8.048,30.0015,
-13.2261,11.0596,5.2467,5.3592,-14.7248,13.3384,-9.3542,1.183,3.3941,20.8575,4.062,36.1916,-2.0368,26.8859,
-24.9153,2.7149,1.0916,-1.6834,-24.4546,17.3393,-13.5942,5.9132,12.7933,24.7108,11.5003,31.0883,3.8475,11.1727,
-37.5204,-11.548,-7.1359,-15.6824,-37.0874,13.8986,-18.0597,-3.5636,22.1077,9.1282,17.0514,15.123,15.6185,-3.5976,
-37.9718,-2.0363,-9.5877,-18.405,-20.7621,19.7862,-14.0953,1.451,13.0996,4.917,20.8291,3.8306,9.8806,10.7182,
-21.5935,4.807,-0.37133,-4.8188,-9.434,15.7178,-6.5276,-0.55645,2.7117,5.5815,15.739,1.6804,-2.235,3.5318,
-6.1979,12.6802,10.6933,6.5127,0.25352,17.1756,-7.5768,1.8778,0.14819,-5.7958,9.513,-12.5205,-0.66095,-10.7801,
-0.41941,10.4794,8.6117,0.84117,-4.0824,18.5459,-10.483,4.1659,10.2217,-11.6887,8.4623,-25.5156,6.5812,-14.2773,
-14.3174,-4.2494,-6.005,-13.3093,-17.9375,10.2315,-7.4532,1.5151,21.6107,3.1126,12.2753,-9.8846,6.6663,0.67938,
-20.6595,0.50365,-19.7447,-19.535,-11.4032,13.9379,-10.3672,6.7054,17.9137,17.0259,14.9,4.8085,7.7067,14.7386,
-21.8207,-0.96743,-18.6858,-16.923,-2.5575,9.7409,-11.1851,-0.89848,12.5172,10.3685,11.6052,9.4465,12.525,-0.2457,
-8.9892,-5.7101,-8.9232,-16.8676,11.696,10.1173,-6.6732,2.0362,9.8462,3.9848,10.9089,-5.2203,7.9328,-14.331,
2.593,2.7945,-0.22577,-14.4151,25.0942,17.6713,2.8491,8.1552,6.8551,11.9077,8.8139,0.07191,4.0965,0.6289,
2.9169,5.0272,-0.69267,-7.309,37.6885,28.6138,2.1986,2.3847,3.0834,7.8329,8.7655,-9.0544,10.0918,11.9362,
3.2219,10.0063,-10.7326,5.1318,38.7366,40.997,-9.9365,9.4432,6.2592,14.5645,10.6395,5.5889,12.8471,4.9784,
0.62776,4.1243,-0.96712,3.383,31.1317,43.6411,-11.7411,5.5158,14.0443,15.1306,4.7204,19.3536,9.6755,4.1997,
1.071,-2.3639,9.1733,4.6209,36.4653,30.9411,-10.5558,-0.095855,6.9609,8.942,-2.7644,4.0924,4.7742,11.1493,
5.8079,-4.1424,0.94088,12.0257,48.3774,27.1643,-7.0421,-1.0505,-4.0186,5.5242,-2.5981,-10.2532,-0.31348,-3.6196,
8.3394,-1.9731,1.8444,11.3041,59.2206,25.5344,-7.5795,-0.98749,-3.7775,2.3129,-2.4422,-14.9192,-1.2546,-10.4267,
9.7594,-1.8551,2.6942,9.6655,63.3485,23.0419,-8.0852,-1.8887,-5.4712,-0.70716,-4.2169,-18.8252,-2.1398,-12.6815,
12.0551,0.17657,3.4929,9.086,68.1895,21.6599,-8.5605,-1.7749,-6.1034,-3.5451,-3.9635,-20.5761,-2.0109,-13.841,
12.7717,1.6068,3.7633,8.0609,71.3007,19.8803,-8.5268,-2.1484,-7.1771,-6.6923,-4.2056,-23.6623,-2.3703,-15.4104,
12.9654,1.5095,2.5776,5.6564,73.7433,16.7666,-10.896,-3.9403,-8.6674,-11.0924,-5.8742,-28.0042,-5.1089,-19.2875,
12.6679,-0.020548,1.9425,2.9166,75.5598,13.3603,-12.6427,-6.1043,-11.5076,-14.7481,-8.882,-32.5651,-7.2027,-22.4514,
12.8678,-0.02023,0.86596,-1.1001,77.7469,12.5577,-15.7249,-8.6188,-13.698,-19.6248,-11.2299,-36.3728,-9.6523,-24.9451,
14.4966,-2.4189,-1.5868,4.2476,59.1599,-2.2957,-17.1813,-4.7409,-5.6745,-6.4441,-6.2345,-20.0904,-5.7114,-21.0476,
13.1463,-12.3557,-1.0112,0.63237,69.7103,-13.0221,-4.1486,-8.7777,-7.7344,-1.7362,-6.3408,-4.785,-3.9283,-13.5436,
10.9171,2.3083,-1.4309,1.074,79.6277,-2.1598,10.0231,-7.7706,-1.0292,4.6091,1.2407,-0.53081,6.3893,-2.649,
-1.7397,1.6903,-9.5062,-12.9132,88.95,-16.1302,15.6637,-18.3462,8.1545,-9.5901,9.3283,-14.599,9.3663,-16.5901,
7.4866,1.1084,-6.5354,-9.738,97.713,-29.2624,21.925,-13.8851,7.1848,-14.2959,14.0498,-20.7477,6.4039,-23.5794,
17.1189,-7.1196,2.0182,-6.7529,105.9502,-41.6066,23.0104,-18.3327,2.4329,-21.5997,5.0452,-33.6029,6.4997,-36.2646,
16.5717,-10.0532,3.3371,-8.7486,113.6932,-53.2102,23.0697,-22.5144,3.7278,-24.6254,6.1825,-45.6867,8.5105,-43.0334,
9.8163,-4.6497,-3.5843,-12.064,120.9716,-40.6665,23.6059,-20.2031,4.4637,-22.1874,14.4535,-37.7897,7.0395,-26.3514,
0.10532,-15.4126,-3.8497,-19.5026,127.8133,-39.6678,19.7892,-20.4323,9.477,-26.1374,16.9466,-36.0028,13.8182,-31.6688,
-7.5826,-13.5279,-4.5786,-13.5317,134.2445,-36.3268,7.0786,-16.3255,8.9084,-21.6883,16.8898,-41.5242,19.7107,-43.2118,
-2.8068,-3.5947,-3.8239,-12.2393,140.2898,-24.0658,13.8554,-17.7459,18.4563,-19.907,28.8396,-53.1327,29.5704,-42.059,
3.1232,-11.0597,-0.71369,-16.3057,145.9725,-30.3034,19.7457,-12.8404,22.1496,-25.4342,24.2284,-64.0447,25.8763,-39.5355,
-2.3454,-12.7974,-3.0712,-7.1654,151.3141,-31.8455,9.439,-2.948,6.7207,-15.7462,8.6747,-46.1021,10.2237,-31.8822,
-3.6451,-8.6683,-3.3674,-10.0967,130.508,-18.892,3.5924,-13.813,-1.6673,-3.7595,4.0103,-29.2359,1.6256,-20.8473,
-3.4259,-9.1086,-12.7673,-15.2521,115.9564,-10.0774,-3.3452,-20.6662,0.35315,5.108,3.7702,-13.3818,1.5276,-7.1137,
-11.3823,-22.4848,-24.004,-22.4985,96.9963,-23.5727,-10.3456,-16.0659,1.7724,-1.4396,0.18269,-2.6742,1.9164,-20.7869,
-4.9387,-20.1758,-17.7631,-27.8702,90.2165,-34.4643,-0.12339,-14.142,10.3075,-4.234,6.8933,-16.6138,12.3628,-33.6397,
1.5997,-4.8652,-10.4552,-20.9168,98.9035,-21.3536,6.1252,-14.7339,5.3688,-1.5796,9.8401,-29.717,17.8631,-35.1084,
0.06376,-1.3898,1.2145,-13.4202,96.1528,-20.5524,11.9993,-14.3289,10.3274,-6.7656,7.8097,-42.0339,21.1121,-43.0834,
0.059021,-7.0671,-1.7392,-22.2174,90.3836,-18.3593,12.2393,-4.8277,12.5886,-1.5589,5.4212,-25.4119,16.9646,-29.9369,
-3.3049,-8.0835,-15.7349,-34.9843,73.9178,-22.5389,1.423,-17.5007,1.7513,-0.98491,1.7347,-9.7872,5.8648,-29.5811,
-1.1862,-10.4788,-10.7722,-46.9853,69.4832,-25.9868,-1.5427,-25.0927,0.68582,-9.5678,5.4718,-9.0227,6.4733,-25.8849,
-2.5559,-7.4502,-8.686,-55.3343,77.3165,-17.227,-6.7318,-9.4871,-3.6761,-9.4737,2.7427,-8.9613,1.7632,-10.2318,
-5.2829,-8.9236,-12.966,-55.855,65.9564,-22.9145,-3.4466,-7.1743,1.3457,-9.8657,1.6177,-14.1848,2.6179,-20.3576,
9.1341,2.1742,1.2551,-38.4037,70.6405,-10.9773,7.3225,-4.8239,15.3649,-10.2337,15.6206,-19.0953,14.944,-33.2361,
14.6504,4.9241,4.0602,-22.3537,68.3225,-3.5975,4.9628,-4.534,9.945,-20.1825,16.9069,-32.0496,13.0869,-22.9031,
10.4105,1.2679,5.2565,-24.3732,53.1808,-11.5432,7.0649,-0.90213,5.9875,-10.8091,9.6509,-29.9493,16.6225,-21.049,
2.1044,-3.609,-0.81958,-20.03,45.1892,-5.0899,-2.0005,9.7144,-2.0533,3.2817,0.43034,-14.0524,11.7843,-33.886,
13.0204,-3.8724,-1.2504,-18.3478,41.9979,7.2187,-1.4005,-0.94996,-5.2909,-4.1159,-4.8762,0.89078,0.03494,-26.8744,
13.1996,-1.7197,-2.1358,-13.4066,38.5176,8.706,-2.2769,-1.8534,-5.9339,-2.9094,-5.5441,14.9373,-0.92758,-24.3024,
12.4077,-0.65652,-2.9676,-9.7214,35.2466,10.1036,-3.1002,-2.7022,-5.5778,-2.7348,-6.1714,14.4701,-2.7919,-21.8834,
13.584,2.2637,-2.7896,-4.3369,33.1318,13.3391,-2.9142,-2.54,-5.2432,-0.64991,-5.8011,14.5628,-2.6243,-18.6504,
13.7285,5.0082,-2.6226,0.72359,32.1034,15.4182,-3.6998,-2.3881,-3.9682,0.34859,-5.4535,13.6885,-3.4273,-14.6511,
14.8247,7.5885,-2.4653,5.4814,30.1772,17.3739,-3.4778,-2.2448,-3.7301,2.2485,-5.1263,13.8272,-3.2217,-11.8511,
14.4161,8.5732,-2.7973,8.5133,27.8866,18.7323,-3.7491,-2.5901,-3.0263,2.5936,-5.2987,13.4775,-4.4683,-9.7001,
15.9511,11.4196,-3.1095,14.2441,25.7334,21.9291,-4.9641,-3.8746,-2.3647,4.8388,-5.4607,13.1489,-6.601,-6.7173,
27.9572,11.2144,4.2787,12.9095,15.0679,34.7133,-7.0671,-1.2422,-5.5836,-9.5515,-3.6932,0.35762,0.99659,4.7281,
26.7598,4.3008,-5.1005,5.8933,0.063799,46.7305,-13.8446,12.9323,-9.5694,-11.2024,-1.0707,3.697,0.45681,3.9644,
14.1123,-2.1984,-15.8363,6.0201,-14.04,58.0267,-27.114,14.3799,-11.3956,3.5697,-0.52605,17.5751,-12.5333,6.1269,
21.4271,5.1342,-1.9239,15.7404,-27.2976,68.6451,-33.4714,13.0371,-5.4311,17.1014,-0.97539,30.6206,-8.4205,19.8593,
13.4203,4.8266,-3.7288,9.9957,-39.7598,78.6264,-33.3835,14.1753,-15.6672,1.9753,-15.0169,22.6681,-9.8357,21.3713,
-1.3085,-4.585,-5.9055,6.0347,-23.2742,60.5409,-23.2185,10.9244,-7.526,-8.5278,-17.7789,7.208,-5.8852,5.989,
-0.75001,-0.94907,-3.1503,19.5958,-14.6252,70.8317,-31.9077,11.7089,-9.4744,0.1454,-14.3113,18.9551,-7.932,18.7692,
8.4179,5.349,0.39903,25.6211,-10.3864,80.6818,-35.2745,14.3676,-12.2663,10.2186,-15.853,31.9178,-10.8173,31.7431,
8.3923,-0.2531,2.7755,18.8027,4.3368,73.2623,-25.9569,12.0651,-0.4893,16.8066,-10.5815,44.1028,-8.7279,15.7385,
7.4093,0.24253,-0.7514,20.0758,18.1766,67.427,-26.7989,13.7416,-1.8994,13.3987,-7.5463,31.0201,-10.6046,5.6722,
17.5262,3.1079,6.9752,24.632,16.7314,64.3414,-21.3511,9.0763,-4.6663,-1.5052,-11.8942,15.0589,-10.9292,9.1727,
20.3154,3.8823,10.3975,22.1941,29.1707,56.6401,-17.1892,10.4526,-11.107,-11.3204,-12.1405,0.055336,-8.3526,-4.82,
10.9349,0.28855,0.65123,18.4616,30.7803,42.1994,-22.3995,8.3846,-11.8814,-2.4797,-10.9321,-14.048,-5.4506,-5.9716,
22.2816,7.4733,7.8142,31.4539,33.2547,46.8694,-19.6142,5.4811,-2.0466,11.7691,-9.7958,0.89489,-8.4839,8.4867,
19.9843,11.8252,5.4249,33.2306,41.8213,55.5791,-20.3587,7.0726,-6.725,20.4876,-8.2485,14.9412,-13.737,0.11908,
6.302,11.1156,2.2186,17.1368,48.9145,42.642,-12.4155,2.8075,-2.4807,19.2584,1.8479,8.9408,0.53043,-10.4504,
9.7651,15.2499,4.0059,16.7659,60.0796,44.8847,-9.7502,4.5594,-1.3714,25.7849,0.77751,22.5044,-1.4218,4.2766,
6.7788,6.1729,5.206,29.6826,70.5748,45.5528,-12.5256,5.7263,-1.7696,35.2806,-8.3911,35.2541,-14.2992,18.12,
-4.6702,-2.359,4.4136,21.66,68.8665,28.7197,-12.2549,5.8627,2.6573,25.9613,-1.6469,42.3867,-6.2397,2.9328,
-13.032,7.3845,-9.9512,6.2604,78.8346,22.3721,-17.2808,7.4313,-1.3424,10.3036,8.0547,25.7435,2.7767,-5.582,
-18.4912,1.6602,-14.938,-8.2152,88.2045,35.1298,-13.8427,1.7043,2.0985,-4.4146,11.8917,10.0989,4.0505,4.8348,
-19.7826,-3.7201,-5.8802,-12.1684,97.0122,44.8479,-14.453,3.0419,0.53261,-7.6359,10.6983,5.0459,0.44665,2.1448,
-17.6348,8.9863,1.1942,2.6617,105.2915,40.2362,-7.8242,9.5819,1.4615,4.3455,9.0964,16.2664,1.3798,-4.7054,
-20.8979,7.9667,5.4429,7.1254,113.074,36.3816,-0.15359,7.5657,8.575,3.6043,5.1903,8.0884,0.81659,5.6588,
-27.806,9.8891,-1.1248,-7.2248,120.3895,42.3607,-8.3055,16.2337,6.6201,13.47,9.1992,21.7031,-1.6328,19.4193,
-36.2196,-3.667,-14.0201,-20.714,127.2662,29.7372,-10.2075,6.1386,1.9016,7.3806,12.0085,34.1463,-2.9752,13.7565,
-26.3644,-5.3674,-8.3777,-5.3712,133.7302,26.9925,-0.95399,1.9291,8.5087,2.1366,5.5268,17.9975,0.084564,-1.1689,
-15.6615,5.9965,1.2469,9.0511,136.7717,28.7333,-3.2971,9.0145,8.4786,4.4087,-3.9277,5.5722,-0.40095,0.038073,
-12.8009,3.7168,11.7345,10.5543,114.4654,23.1685,-4.0593,5.5937,0.28832,2.2243,-5.612,3.3179,0.58307,-2.845,
-12.5129,-0.82694,11.5104,11.361,93.4975,28.02,-7.1765,9.5788,-7.8905,-2.2299,-5.7552,4.5597,0.068106,-6.9951,
-10.3217,-7.0194,4.5777,-3.4207,101.9876,23.9375,-3.3856,10.4436,2.6648,-9.2982,0.83124,2.8448,5.3452,-1.2942,
-9.2224,-10.9181,-0.97676,-15.0405,108.5289,16.2606,-3.6615,-0.26449,2.025,-8.2594,4.1422,6.9958,4.5445,12.8835,
-7.7086,3.1788,0.04135,-0.038046,87.9171,29.385,-3.4423,6.4725,-2.8977,-2.0036,1.0133,-0.14601,7.1522,24.4154,
-7.7266,6.3493,5.3201,10.3488,68.5421,32.2458,-0.83536,4.6438,3.5173,-15.9834,-4.3287,-14.2373,12.0042,8.8505,
-4.3822,5.0075,12.6824,14.5287,69.104,27.4302,1.1347,4.3651,0.42543,-12.9271,-3.109,-27.483,9.3631,-5.7805,
-13.7207,-6.8144,9.0406,4.0555,77.441,20.0237,-2.7733,-2.6174,-6.3208,-5.429,-9.6432,-26.9198,4.9615,-19.5337,
-17.6987,-5.446,-2.0637,-2.909,86.8945,31.305,-0.68738,1.3799,0.77961,1.6179,-8.1051,-11.2047,7.5442,-4.2617,
-3.1936,5.4431,-1.9399,5.9071,95.7809,43.5267,4.1555,11.8595,0.73283,15.6208,2.9436,3.5676,4.2107,10.094,
5.1591,0.79624,8.2584,5.0731,104.134,51.3002,4.3866,-1.8148,-7.4722,7.7847,-4.4341,17.4536,-9.0047,23.5884,
5.3296,4.1083,7.283,9.0886,111.986,62.3222,2.6826,-2.1859,-16.1463,0.11602,-15.2113,20.1957,-15.666,19.7727,
7.4102,9.143,4.4456,11.9045,119.3668,67.527,12.6035,5.1464,-5.0956,9.231,-3.2558,32.9076,-5.6041,4.4864,
15.1271,9.0744,4.6588,4.9486,126.3048,60.1146,14.2472,-3.324,2.4117,8.1972,6.061,16.8331,-3.8279,4.8745,
16.1398,11.4103,2.4589,13.2937,132.8265,70.6077,-0.7076,-1.2041,-6.375,3.8641,-0.063819,1.7231,-6.4785,18.682,
2.6892,-3.3743,5.1922,11.5361,138.9569,64.755,-7.6885,3.6698,-5.9925,2.6723,-7.7406,1.4939,0.63175,14.9839,
1.5678,-5.3949,0.079015,3.1624,144.7195,46.7697,2.3743,5.3695,-5.6329,5.3928,-12.0778,7.165,1.5538,2.5625,
14.4361,5.9711,-1.3657,1.5327,150.1363,29.8635,16.155,-9.0527,1.9066,-0.21152,-7.9924,-2.3864,0.9806,3.8496,
20.7715,2.2521,3.037,-8.6417,155.2282,16.903,19.5065,-22.6095,3.2322,-14.2988,-6.0729,-16.3433,7.1634,-10.4814,
27.2063,7.8781,2.8553,-11.0044,160.0145,25.4908,31.7788,-12.2573,10.7203,-19.0252,8.3915,-29.4627,20.8336,-23.9525,
25.0948,2.1247,-4.5176,-19.4657,164.5136,26.3622,42.8353,-22.5642,15.3587,-25.0853,17.3131,-41.7949,21.3271,-36.6153,
25.989,3.4372,1.995,-11.0961,168.7428,38.8804,34.9835,-18.8095,5.3147,-15.4186,15.7943,-44.5169,9.9651,-48.5184,
20.5894,2.2705,6.6756,0.13153,172.7182,50.6476,26.1634,-8.079,-2.6862,-7.7724,8.1255,-32.2449,10.3267,-33.8576,
17.9132,-7.9472,5.7951,-3.2372,176.4551,61.7087,26.0335,-21.5174,-2.045,-16.4275,-6.462,-29.8302,5.3863,-17.7261,
22.12,5.4919,8.8082,-0.6421,151.7678,68.9967,22.0716,-23.5872,-3.3623,-18.8027,-15.0199,-32.3612,1.7024,-2.5626,
33.2751,16.6847,20.762,11.8787,128.5617,73.4984,28.4288,-8.0719,6.4419,-16.7146,-0.018663,-34.2603,15.7002,-16.5088,
30.7991,4.6418,7.5144,6.8457,106.748,58.0466,23.3628,-17.3664,5.5749,-20.9919,11.3284,-35.565,10.741,-29.6183,
17.9083,4.8437,-7.0364,-6.5278,86.2432,48.3226,23.4014,-28.3263,10.5216,-15.4121,14.01,-34.8706,-0.94531,-21.1187,
4.8311,-0.72902,-16.5198,-20.2361,66.9686,43.9829,14.7953,-23.2673,7.4899,-12.087,16.5288,-25.5781,-0.40906,-22.2529,
9.8224,-12.6871,-13.1273,-11.6435,48.8505,47.5851,2.8648,-15.6292,-7.0594,-2.2399,7.376,-16.8414,-2.7849,-35.0177,
11.6343,-14.3263,-8.0194,-7.5837,31.8194,33.6881,15.6565,-24.7733,7.4641,-1.625,5.493,-29.9309,7.4641,-21.6965,
-3.1637,-18.2674,-21.6382,-21.2287,15.8103,17.5668,1.274,-35.7692,4.1355,-3.4474,-8.2788,-14.0351,-1.6252,-34.4947,
9.2052,-3.0714,-6.2399,-5.8549,0.76165,30.6128,1.1975,-19.5231,1.0065,10.8594,-4.9022,0.90702,0.39221,-46.525,
21.6152,-16.5071,8.2345,3.6179,-13.3841,31.1768,-2.2351,-17.5686,-2.4137,14.8308,-14.6895,14.9526,-6.8329,-36.1783,
17.4379,-6.8756,6.6031,-2.3604,-26.681,27.3849,-3.0614,-23.2365,-2.2694,5.299,-13.8086,-0.04456,-4.5025,-19.9076,
17.3521,1.2189,4.2866,3.5424,-39.1801,31.5039,1.9235,-9.3596,1.708,19.0811,-10.0988,-2.6191,-3.272,-20.3308,
16.7905,-5.0954,-2.2118,0.9295,-50.9293,26.2524,3.2485,-14.0792,4.0059,5.2771,-3.2518,5.6991,-3.5561,-20.5514,
13.8636,-0.94934,-3.0395,2.7941,-61.9736,15.0753,1.1332,-18.0356,3.7651,-9.1396,11.0433,-8.7428,10.7573,-5.2183,
18.312,-2.3319,10.1056,1.1861,-72.3552,0.070811,8.2663,-26.0754,1.1388,-22.6912,19.8054,-22.3183,10.8959,-14.6835,
24.8949,7.4095,12.3801,3.0348,-82.1139,4.0846,17.3727,-17.7893,-1.8103,-24.3359,15.7363,-35.0792,5.4405,-15.7234,
25.8015,4.5646,9.2369,5.2531,-91.287,3.3591,14.8899,-7.6,0.69867,-24.3162,11.4317,-47.0744,7.5144,-6.618,
28.5747,-7.7121,10.1231,8.2992,-99.9098,-8.8452,0.07384,-11.4652,-7.5043,-11.8153,-3.3542,-30.1499,-3.0184,-6.7013,
31.6609,1.3922,9.5148,7.8012,-108.0152,-6.3936,-1.8514,-22.2996,-13.7757,-6.3056,-17.2529,-14.2409,-7.638,-8.2201,
41.2845,12.8319,23.0439,21.4332,-115.6343,3.5924,12.3596,-12.3192,1.1509,-7.8472,-9.622,-27.4865,6.9203,-1.0053,
25.8447,-2.038,15.7233,24.7706,-122.7962,-10.5468,-2.4819,-13.0205,-9.6578,-4.0161,-23.1447,-11.7373,-7.5949,8.177,
23.8131,-9.9009,4.6975,9.1844,-129.5285,-13.2748,-8.0942,-20.4017,-6.6785,10.3249,-14.378,3.0669,-11.9414,11.0471,
22.8648,-1.1448,1.0553,-5.4667,-135.8568,-19.6794,6.4915,-20.6171,6.6859,6.1682,0.58464,-11.2171,2.8751,-3.7157,
16.2117,-7.3173,-5.2492,-4.3041,-141.8054,-18.9791,11.2059,-6.4173,-0.91636,-8.1255,11.4151,-24.6441,4.9266,10.6073,
12.8386,-17.9211,-2.5338,-1.6455,-147.397,-16.3999,6.2123,-12.2744,-3.2627,-1.3968,1.6082,-9.0654,-2.5701,24.0708,
8.228,-4.363,-1.4214,-0.58634,-152.6532,-15.4155,1.0393,-18.259,-5.9473,-0.35166,-4.2495,-11.0472,-3.3763,27.2505,
7.7339,-1.22,0.58428,5.21,-157.594,-19.2917,1.9373,-15.2431,2.0916,-6.0926,4.6475,-24.4844,-0.29248,14.0936,
5.3494,-15.2468,-0.4112,-3.7446,-162.2384,-28.6961,-5.8609,-18.1688,12.528,-15.329,-2.3534,-31.9609,2.6054,21.889,
4.0676,-4.0741,-1.3465,-4.4799,-166.6041,-16.4129,-4.5493,-7.4772,10.8154,-11.5285,-9.8938,-26.2025,11.0906,19.6157,
13.4264,10.2703,12.8343,5.3909,-170.7078,-7.7461,9.8237,-3.1873,10.167,-10.8372,3.1826,-22.71,11.3856,4.3388,
26.7208,3.2361,22.9293,19.1674,-174.5654,-11.1221,11.4578,-1.0762,-1.9654,-8.2661,4.9125,-7.2474,-3.3975,9.5365,
32.6218,-8,7.4535,12.0785,-178.1914,-22.4576,-3.3297,-6.2928,-15.7702,-5.3698,-4.5051,7.2875,-17.2937,23.0643,
25.3829,-8.0009,-2.8988,-2.5694,-181.6,-23.511,5.2089,-11.1969,-6.6624,-1.6868,2.9668,20.9502,-9.1812,27.7447,
21.46,-2.2392,-0.32401,0.94646,-184.804,-18.7386,3.4564,-7.1633,-4.8218,-3.9864,9.0304,15.3215,-11.0303,13.1178,
26.414,0.29602,4.9762,9.0512,-187.8157,-20.9751,7.5698,-9.1344,2.6682,-8.068,8.9685,1.4399,-4.1269,14.7306,
23.3887,-1.1622,7.078,3.227,-190.6468,-20.197,8.556,-13.8675,-0.85227,-6.1435,0.26934,-12.7465,-0.51891,13.3673,
16.2243,0.82797,7.6137,1.1129,-193.308,-13.224,5.1623,-4.3935,4.0001,-4.8145,-6.468,-18.5265,-1.4482,8.724,
9.0092,-8.3432,0.91619,-5.1954,-195.8095,-23.4729,-1.389,-14.2122,8.0808,-16.5279,-13.2814,-16.9349,-5.6821,8.6805,
22.5686,5.6001,2.7807,5.6791,-191.2073,-7.9646,4.4555,-11.4391,2.7948,-2.0935,1.6154,-1.8188,-2.4608,22.2597,
33.04,5.2636,7.4151,10.1396,-168.2121,-9.1044,6.1085,-3.0708,-7.9348,-1.9684,10.4632,7.235,-6.1535,6.8241,
31.538,1.5875,15.1321,21.533,-172.2193,-17.6801,1.4208,7.1954,-6.9792,-4.2507,-0.24746,11.1221,-7.2247,-1.7464,
22.9242,1.4922,8.4626,23.1219,-153.0674,-14.6984,5.1763,0.042102,-5.5996,-5.9165,-14.3326,7.574,-3.9104,12.4584,
17.7079,1.4027,7.9548,7.6346,-129.7833,-13.8165,18.9658,-13.4027,-0.46285,-11.3222,-7.0542,-6.9805,4.9658,18.7347,
17.6054,6.1193,11.3183,-6.9235,-107.8963,-23.5499,26.7725,-13.5594,6.2865,-15.4445,7.469,-20.6616,13.3093,3.5106,
4.5463,0.47094,11.1197,-11.4347,-87.3225,-36.2369,25.6466,-18.0266,13.1104,-19.7981,3.9637,-32.0301,13.9512,-10.8,
-1.9676,8.6047,13.8128,-4.5075,-67.9832,-48.1627,31.3089,-13.5842,9.9234,-16.2098,6.1263,-41.1502,18.3953,-17.479,
1.5113,11.4483,1.9417,-11.439,-49.8042,-57.8815,30.8712,-14.2095,-0.75436,-23.3988,11.0394,-50.6844,16.8116,-9.2287,
-1.4598,-3.3386,-12.2748,-24.8527,-32.7159,-68.5086,27.0986,-25.8393,10.8137,-29.6769,24.477,-44.7625,17.7233,-22.775,
-15.4722,-2.961,-23.8433,-32.7862,-16.653,-65.1808,12.5094,-20.9286,22.1672,-13.7963,37.1084,-27.9768,22.9006,-29.8736,
-28.6439,-1.8229,-21.4523,-33.6994,-1.5538,-74.7127,6.9586,-16.792,18.9168,-7.3842,45.5706,-32.2362,25.3678,-25.1999,
-28.4915,-11.7955,-10.0832,-31.1974,12.6394,-84.3299,9.9014,-17.2249,8.6598,-21.0411,28.7363,-44.402,18.5654,-20.3276,
-35.9044,-8.6878,-8.9982,-23.0844,4.0456,-81.4936,4.9857,-11.8707,7.6602,-33.8786,24.7886,-55.8379,15.0498,-27.2704,
-47.8501,-6.7262,-3.1772,-22.1798,-10.2971,-72.2837,3.2461,-16.4396,11.5209,-39.6538,31.4624,-65.0967,24.2296,-39.7342,
-45.2823,-10.6438,-0.58617,-15.5678,-22.4648,-82.0467,0.65097,-18.814,-1.1722,-42.5557,16.6119,-75.114,23.2554,-51.4501,
-35.3633,-8.5639,-3.9113,-11.273,-22.5573,-87.0285,3.9732,-18.1652,2.2585,-52.0047,11.2949,-83.5694,17.5398,-54.2496,
-39.9631,-6.1301,-6.5575,-23.0789,-35.3038,-70.2845,-2.9868,-21.876,5.0038,-39.2825,10.6172,-69.9133,6.885,-59.6366,
-25.5621,-0.48065,-1.8433,-9.6914,-32.0479,-51.9674,-14.8099,-9.5211,0.38279,-22.8255,14.3009,-51.6185,5.9919,-41.9584,
-10.1057,-2.8531,-1.2522,4.8128,-16.025,-54.3074,-19.2025,-12.3106,-0.12062,-13.4708,11.0425,-34.4214,4.192,-25.3409,
-3.2586,11.4181,-2.618,11.7256,-0.96351,-42.8874,-13.7296,-1.4901,1.3275,-15.0634,8.9391,-18.2561,3.4605,-10.2519,
-10.2647,18.7177,-2.9409,6.7004,-11.3422,-33.1126,-12.4258,10.6017,1.7278,-4.0782,13.6844,-3.0607,13.3343,-19.7192,
-13.97,3.4946,-0.36404,-2.8231,-24.7617,-39.2878,-19.8414,1.804,2.1037,-3.353,12.3829,8.4165,12.0547,-4.6124,
-11.691,3.9422,8.7793,4.5474,-37.376,-31.6498,-21.0517,8.8969,3.4183,4.0497,10.2,17.9939,14.6922,9.7643,
-25.0895,7.0665,13.5342,1.8746,-49.2334,-43.8508,-20.2686,5.0032,7.534,-10.116,8.148,2.8142,21.0123,-4.9215,
-33.4892,10.9637,20.8841,15.8621,-60.3794,-54.0048,-17.6121,10.9437,15.2439,3.4533,21.7591,2.3422,27.9126,-7.0271,
-28.599,0.70396,11.9495,14.7336,-70.8567,-53.6444,-24.2369,13.1683,15.2893,17.3461,34.5536,16.3017,25.2788,0.11614,
-27.8435,-4.1399,4.5105,-0.25044,-80.7053,-60.9885,-17.0215,13.3378,28.4719,11.8073,46.5804,13.7064,37.8621,-2.7716,
-29.5335,10.2085,1.8397,-3.8991,-89.9629,-55.8891,-12.6397,26.4609,40.8636,6.7788,57.8855,-1.216,49.6904,11.4947,
-24.8807,14.2201,7.4905,10.4348,-98.6652,-65.978,-20.5233,23.9128,39.4978,11.1728,57.5442,-6.7272,42.0333,14.4687,
-16.6665,1.8443,8.0008,11.0716,-104.2914,-76.1193,-33.3919,8.378,23.0279,12.4226,39.9916,7.7765,25.4113,-0.49943,
-7.9854,-1.1467,10.402,11.3673,-109.5567,-85.6521,-45.4884,5.652,13.6618,15.5184,23.846,21.4099,13.0214,7.8696,
-5.5854,-0.11701,22.2611,17.4073,-117.0833,-89.7606,-45.285,3.393,10.9222,19.3881,22.4161,34.2253,11.2801,18.9198,
-18.6935,-4.9116,14.203,19.2427,-124.1583,-89.1766,-56.6679,-5.453,-3.8332,21.1056,11.4688,43.6429,-3.4967,6.2622,
-20.4527,0.1838,22.9532,18.0882,-130.8088,-87.6668,-48.7703,3.5161,10.4968,30.4016,24.8807,40.0643,10.8131,2.0457,
-22.1054,4.974,25.4168,10.2818,-137.0603,-83.3667,-50.6452,15.7875,23.967,35.2982,37.4878,38.6204,24.2643,12.4853,
-24.1399,0.35477,9.7918,5.3441,-122.8463,-76.9248,-61.7065,7.6391,19.4713,27.8996,41.1256,46.3856,12.0693,8.3754,
-14.5299,-4.9477,-1.6612,-0.25773,-101.3755,-81.4308,-46.7845,0.93915,25.5037,20.944,32.4164,29.5025,20.4666,-6.2271,
-1.6551,9.2721,0.83903,-5.5232,-81.193,-81.8264,-29.8774,14.9828,33.0957,22.0884,31.9121,13.6323,33.3386,-3.276,
8.5259,14.9571,9.9113,-6.632,-62.2214,-77.3965,-32.5824,14.3874,35.4309,14.5217,41.9999,-1.2856,38.363,-2.5993,
20.0166,16.4601,23.2389,7.6886,-44.3881,-65.5516,-37.829,11.1234,40.5066,11.25,53.5799,4.6041,40.382,-6.7641,
5.8531,14.0323,7.9221,-0.93447,-49.6354,-75.7185,-49.6593,11.8961,30.8744,12.0152,57.3896,-2.8739,40.3597,-20.2816,
9.3425,16.0709,18.0089,2.0022,-60.0997,-72.9185,-49.3832,17.9037,43.122,25.3943,68.0462,11.3985,48.5002,-4.9647,
-5.3181,1.0067,2.8284,-11.0807,-70.5938,-68.0634,-60.5202,5.7872,26.4347,26.5739,51.3032,24.8146,31.4902,9.4332,
-8.1827,-0.31705,1.3953,-4.1745,-80.4581,-51.0171,-60.0727,19.5399,35.4105,37.9425,60.228,28.7328,36.979,17.155,
3.3506,13.802,10.4331,1.3572,-75.7567,-52.2768,-46.3865,17.7105,46.2491,39.9867,68.6166,20.7676,48.6834,13.7253,
-5.012,5.5954,3.566,-0.16465,-70.7313,-57.3018,-57.7033,2.5479,29.5514,33.2663,50.3996,33.6216,31.6624,0.89906,
-4.711,-3.3825,4.3122,-3.9958,-80.5875,-63.4663,-55.0244,5.4524,29.6985,29.3497,43.7115,41.9891,28.0194,-2.0355,
-6.8292,-2.6991,-3.1481,-17.6787,-80.3759,-71.6602,-53.1629,5.6057,20.715,18.4672,50.2112,27.4675,22.0174,9.129,
-13.1408,-5.4177,0.8818,-16.6182,-88.9963,-62.5596,-49.9734,4.3092,31.9551,26.9613,61.2985,22.9388,32.2185,11.4618,
-10.4317,0.66873,14.9289,-1.5211,-97.7565,-46.3235,-34.492,18.1506,44.1378,39.4436,71.7206,35.6625,44.3854,4.0528,
-13.1666,6.8697,11.9357,7.995,-95.5548,-52.666,-46.5225,12.0833,27.3895,44.5815,53.3174,47.6228,27.6223,7.1704,
-17.1778,-1.224,11.2196,4.6349,-90.7815,-61.0284,-55.0766,-2.7417,11.6461,27.8066,36.0183,41.0502,11.8649,11.5414,
-16.6269,2.21,18.7081,9.6378,-89.6556,-51.1253,-37.8491,11.5228,21.2066,32.0769,47.9572,44.8291,14.6907,11.3287,
-18.9901,7.3586,17.1052,16.2611,-98.3763,-54.2994,-30.2969,23.314,34.0342,39.2743,59.1798,47.4205,27.9092,14.0097,
-19.7711,2.1159,9.3573,17.2058,-106.5737,-43.3599,-41.9223,15.194,18.3717,22.8178,46.1531,30.4753,17.4159,15.0895,
-18.5846,4.87,-0.80538,17.1341,-114.2793,-26.6583,-53.507,22.9241,3.1694,7.3487,29.284,14.5467,2.2709,17.0647,
-16.51,-6.945,-0.75751,7.4636,-121.5225,-10.9588,-64.0422,9.0659,-11.1208,-7.1922,13.4269,1.5451,-11.9654,11.2397,
-15.9989,-20.451,-7.9132,1.7356,-128.3312,3.7987,-74.2997,-3.4799,-24.5535,-18.7122,-1.4787,11.5343,-25.3474,13.9265,
-12.1586,-5.124,-3.5981,15.7314,-134.7313,17.6708,-83.9417,10.8289,-37.1803,-15.6691,-15.49,24.9423,-37.9266,27.1909,
-25.5291,-11.235,-10.1033,12.2099,-140.7474,30.7106,-93.0052,4.7207,-41.4426,-20.4901,-28.6606,24.7097,-49.751,36.425,
-36.3033,-12.9617,-20.5395,1.394,-146.4026,30.3829,-101.5249,4.9165,-43.2768,-5.1607,-27.4965,37.3272,-47.3205,35.6785,
-37.485,-9.7832,-22.6679,-2.0495,-151.7184,23.2792,-90.4039,5.1024,-37.3194,9.2489,-14.8034,49.1875,-41.1205,22.4964,
-39.5566,-13.5169,-21.7878,4.315,-156.7153,20.4425,-89.3004,-0.48446,-34.6002,12.6611,-4.7937,60.3363,-46.8148,34.1098,
-37.1832,-16.5467,-15.6798,10.7768,-161.4124,19.216,-82.022,-3.3362,-37.325,16.7022,-6.426,70.8161,-53.6083,46.1632,
-49.0522,-19.8747,-19.0598,-3.9698,-165.8276,3.963,-67.9792,-5.5369,-30.7647,1.6,-11.3221,52.4671,-43.1903,33.6133,
-55.5342,-4.5822,-24.6378,-13.1563,-169.978,3.9021,-63.9,8.8954,-17.3965,-6.9606,3.4572,35.2191,-26.4988,21.035,
-50.2822,-3.0446,-15.4775,-1.805,-173.8793,-7.8548,-64.8672,5.7844,-18.2731,0.17812,6.4333,26.9902,-28.447,12.0909,
-34.3026,-11.9839,-8.3077,7.4253,-177.5465,-13.6247,-55.6944,-1.7647,-25.3387,6.4086,-4.9955,39.4708,-36.8221,25.4654,
-28.4032,-0.70202,-16.4512,10.821,-175.7591,-4.1652,-46.5911,8.904,-15.1764,17.5469,8.7479,36.9257,-20.5128,38.0375,
-29.5802,4.1404,-9.703,10.1713,-173.856,-9.6765,-47.6369,8.3693,-10.4255,12.6528,10.1434,27.0281,-15.1381,41.6418,
-27.3245,2.452,-1.9192,12.9218,-149.3247,-6.696,-57.741,11.228,-23.9,-1.0686,-4.5652,26.8464,-28.3298,25.0433,
-23.2856,-2.9763,-8.0452,5.9053,-126.2652,-1.013,-51.8766,11.0338,-27.5694,3.3158,-5.5549,22.8353,-39.4159,15.5565,
-9.8852,-1.3569,-11.8833,5.071,-104.5893,2.4085,-39.6411,6.0519,-21.5945,17.2168,3.9008,35.5651,-34.6501,17.9839,
0.30982,9.2865,-2.5283,10.5279,-84.2139,7.0652,-32.4619,12.41,-26.06,14.0866,-6.896,47.5312,-35.4515,20.7461,
3.6516,2.4881,2.9046,-3.0665,-65.0611,-1.5207,-25.2335,7.3441,-22.096,-0.8586,-12.7234,30.5794,-30.924,17.1,
15.9157,3.2988,-3.9913,-4.8024,-47.0574,1.4514,-20.8386,7.8644,-21.7302,-14.9071,0.52319,14.6446,-29.0686,9.3534,
28.4035,8.862,-9.513,1.2469,-30.134,2.3247,-13.8272,4.5112,-22.3468,-12.2181,1.4522,4.164,-32.1257,-5.3078,
40.7993,20.3331,4.9805,8.3732,-14.2259,5.5456,-4.836,2.8002,-23.4063,-19.647,-5.8369,-10.1859,-31.6385,-9.6133,
52.4513,33.2131,17.6444,15.0719,0.72763,17.2156,-2.1455,9.8342,-27.2831,-28.5501,-11.7279,-23.6747,-28.2998,-11.4378,
63.4042,39.6845,30.028,22.81,14.784,18.1026,12.0833,16.9257,-11.5462,-25.8772,-4.3035,-36.3542,-12.5018,-23.2338,
58.1077,30.1019,16.224,15.1998,27.9969,4.0542,15.9822,12.5493,-17.7518,-25.7645,-8.3661,-28.8408,-20.571,-27.1205,
43.0989,21.5742,4.6882,1.8055,40.4171,-7.7114,8.3021,-0.68683,-28.209,-29.0193,-17.4656,-19.4288,-28.9382,-13.9709,
36.1931,23.6415,10.6485,-0.70361,52.0921,-17.3311,6.364,-5.9263,-21.2358,-21.9975,-16.8976,-14.9023,-17.1195,0.96732,
19.9215,16.4609,-1.5132,3.1789,61.5476,-26.8532,-8.1178,-4.6103,-19.0012,-16.8364,-13.9634,-15.9285,-13.212,4.5728,
4.6262,11.6329,-1.4219,9.7102,43.7547,-26.2024,-0.25233,4.3083,-11.14,-14.8658,-5.4445,-11.1316,-8.5781,6.2188,
4.7028,12.8553,4.4246,12.008,27.0294,-32.3113,-5.0384,5.0102,-20.0735,-13.0143,-15.6797,-8.5433,-13.8245,10.6469,
-3.7414,14.4844,10.4002,11.7679,11.3077,-40.4555,-9.0568,3.2692,-11.6671,-6.9523,-10.4177,-7.5512,-5.794,8.5676,
-17.6169,0.65258,6.4159,4.8198,-3.4708,-48.1101,-8.9939,-5.0899,0.074816,2.5868,2.2092,1.0639,-10.7275,7.5731,
-30.6599,-0.82698,0.74975,5.011,-17.3626,-44.743,-8.9342,-4.3041,1.5107,16.5316,13.1194,15.1001,-12.4842,21.2188,
-38.0686,-3.6577,-4.0964,-3.9316,-30.4208,-56.1585,-7.4382,-5.9662,12.942,29.6397,19.0534,28.2941,2.3648,34.0456,
-46.8263,1.8425,-9.1314,-8.016,-42.6956,-48.7709,0.21012,7.355,22.2478,36.1492,24.1518,40.6964,13.568,46.0523,
-48.818,-0.18846,-8.584,-6.5751,-54.2338,-31.7446,6.9186,15.5556,13.2319,29.179,20.7823,48.766,8.9136,54.8111,
-48.7692,-14.2772,-0.3869,-6.1801,-65.0798,-43.94,6.504,6.9403,9.5576,18.7872,15.6941,32.3973,10.2992,37.4224,
-59.9431,-5.5612,-4.6849,-7.2502,-75.275,-55.4036,4.6733,10.8451,10.4236,3.56,9.4713,16.3535,14.9624,21.0771,
-54.2488,7.2548,4.2386,-0.09357,-84.8585,-54.7829,18.4929,14.9951,23.8982,-10.7536,15.6246,1.2723,25.587,6.2439,
-36.8939,-3.2629,12.1458,5.1932,-76.3786,-51.0159,24.8876,5.9339,17.4867,-3.9936,17.088,-12.9041,22.6109,13.0708,
-36.7779,-8.8278,3.7355,-1.84,-57.6959,-56.5969,9.2944,2.697,2.3375,10.3461,11.261,1.9702,7.1542,8.4458,
-46.0936,-9.2586,-2.2498,-14.2123,-58.7322,-58.9623,4.5928,5.4156,11.4961,23.8253,5.7851,15.952,-1.2593,10.8194,
-40.4476,-1.9824,-4.9956,-9.5188,-69.3083,-50.6238,5.2772,7.9715,10.8063,36.4958,3.5171,29.0948,1.6962,24.2702,
-40.9011,-2.8234,-1.815,-8.9477,-79.2498,-61.6864,4.0006,-4.0292,5.3572,27.5334,0.4253,34.0698,6.3961,30.7987,
-46.1286,-5.5344,1.1742,-11.2912,-86.6229,-67.8898,-2.9606,0.053817,7.9161,15.3195,-3.4405,28.1853,2.172,14.8508,
-42.4014,-4.2419,-3.6974,-8.6938,-67.9833,-57.0953,-2.7834,6.7717,11.2815,13.439,-7.0753,30.3345,-3.7204,9.8158,
-29.7745,0.33338,-3.9556,-9.6116,-62.4634,-61.8307,8.4264,-2.7561,8.2047,6.392,-5.21,14.4145,2.7444,0.10538,
-28.9484,3.1937,-6.5986,-4.2342,-58.7156,-63.8824,-0.72116,1.2496,0.030376,8.8888,-9.6986,6.0453,1.6193,1.0595,
-28.6519,-0.35823,-2.8423,8.0222,-51.8324,-62.4503,-3.0783,1.6551,8.1905,12.6767,-13.4379,11.9238,-2.7981,15.0959,
-31.7335,-0.33674,-2.6718,3.7001,-60.2447,-63.504,-2.8936,-9.9666,0.97753,2.3137,-18.3923,8.3275,-12.2326,16.8937,
-34.1507,0.16345,-2.9915,-4.6835,-70.7301,-50.5723,-6.0812,-3.1279,-6.2827,3.6148,-16.8088,8.3079,-8.1379,5.7977,
-26.8205,-6.0875,-0.41161,-10.6441,-70.6302,-52.8187,-3.3155,5.2218,5.1362,10.6,-9.5591,6.369,-5.2492,8.8101,
-16.5698,2.9193,-5.1877,-0.40348,-52.2924,-58.2915,-5.037,5.8684,0.027244,18.6055,-15.7071,14.6293,-10.6959,22.3815,
-20.3763,3.7045,-5.8368,-2.2997,-42.1301,-57.6744,1.9868,-3.1256,2.9069,13.6488,-15.7242,9.9103,0.50867,17.5015,
-25.3953,-1.7989,-0.20543,-15.1244,-47.7643,-51.8136,15.9676,-2.4577,14.7343,3.708,-2.7789,-4.7843,5.7593,2.5278,
-24.3516,0.70938,-4.5143,-11.8161,-42.4981,-47.2643,20.1135,9.6926,11.4499,2.0451,3.629,-18.5973,3.0134,11.4981,
-21.4501,4.0281,-5.6839,-11.5871,-52.9104,-50.6696,19.3866,7.6706,17.004,6.2436,3.8917,-19.5272,11.9546,15.1294,
-14.4019,5.7063,-7.2628,-15.6931,-43.0147,-42.8287,9.5815,1.4487,11.1831,10.6697,-3.0634,-6.8333,2.5948,23.8231,
-3.4554,1.0427,-2.5058,-13.3111,-26.3338,-42.6594,7.5666,2.8022,4.2709,0.90757,-4.32,-4.0229,-4.762,17.1135,
-3.2486,-2.8602,1.4849,-17.3137,-10.6538,-53.543,11.9134,-5.0479,4.0142,-9.7088,-5.9812,-12.4235,2.2449,1.9866,
-10.7352,5.953,-7.2457,-18.1952,-22.3715,-49.37,8.3178,-2.8242,-1.9873,-0.48474,-14.2639,-6.8773,-6.5313,4.4447,
-5.2899,-0.16492,-1.0503,-7.5011,-12.3867,-35.8454,8.7796,4.0668,-4.7489,9.1467,-22.0495,7.6353,-11.9011,8.9787,
9.1275,-1.1154,10.5355,5.4317,2.4565,-19.5947,9.2128,8.624,-13.106,8.5975,-22.647,21.2772,-6.3858,16.122,
19.4449,5.6731,7.9825,2.225,16.4091,-20.0363,16.3415,3.3058,-16.1604,-6.0184,-26.0898,5.9006,-9.8434,8.4331,
22.119,10.1334,6.5436,7.8522,29.5245,-22.6749,20.1623,-2.6541,-11.35,-19.7573,-33.1659,-8.5535,-23.3528,-6.1729,
29.4338,20.0873,4.2306,21.4811,41.8531,-7.2144,12.2309,9.9879,-14.5093,-9.5753,-28.2956,6.0597,-24.1752,8.2975,
20.9462,7.3598,-6.5856,8.0126,53.0363,-5.5189,4.7755,2.667,-17.4795,0.60074,-30.4387,19.7961,-16.9631,18.3615,
22.0903,10.279,-6.6704,1.2902,61.8564,-2.7873,6.8893,1.0661,-19.7915,-7.5968,-38.6947,4.5084,-14.5053,4.2976,
33.728,23.7622,-1.9494,6.4945,72.245,4.5819,13.678,11.0845,-19.084,-14.3426,-39.7329,-8.9012,-15.0749,-10.0603,
36.5046,17.3585,2.0088,10.906,82.0103,7.1874,19.5785,14.2607,-16.0186,-12.5216,-35.4286,-1.646,-18.0117,2.243,
32.8744,11.9962,-5.3133,13.6124,85.3771,15.8781,13.1226,17.7258,-18.4183,-16.092,-28.9821,-2.9881,-21.2517,16.2084,
40.0239,18.4775,-3.5541,8.4745,83.6153,10.6046,23.3776,15.2219,-12.032,-26.1684,-21.962,-8.0891,-13.7355,5.9371,
38.1025,15.9289,-5.7417,3.6452,83.8795,4.6872,27.2561,16.7085,-19.4725,-21.2375,-34.5674,4.3985,-18.1921,-1.6207,
30.5351,10.6529,-3.9568,10.6286,87.9692,13.5284,24.1808,19.0681,-20.7036,-5.8632,-40.6545,18.2346,-18.541,12.5765,
30.1434,7.6124,6.3625,11.4303,87.0113,14.1561,28.0107,12.6419,-13.2212,1.5133,-25.2534,17.4437,-15.9881,19.8057,
28.3348,10.9965,2.14,2.103,76.9899,11.3864,21.5288,11.8834,-21.0694,-12.6775,-22.7782,2.2971,-27.512,12.8567,
37.6766,14.6579,15.9343,8.218,77.6517,7.3429,33.1998,11.6509,-10.6833,-26.0168,-26.6918,-11.9408,-17.6993,2.9633,
38.2968,8.9777,22.6607,15.4064,78.7538,3.0615,36.9695,8.071,-7.1615,-20.7409,-28.931,-15.1909,-12.7966,-3.9352,
21.899,3.6383,7.8579,6.8005,59.9285,4.7982,27.0697,10.4676,-16.3333,-6.0533,-30.076,-0.8363,-19.7103,5.9024,
20.7619,10.6206,12.6671,7.8324,42.2328,8.8311,27.8455,9.3595,-13.9133,8.4099,-23.9507,13.3139,-13.247,19.4705,
23.3574,19.5863,16.7083,20.8061,42.4538,10.2221,23.2948,4.9567,-17.8797,18.2904,-27.3139,26.615,-14.3716,14.462,
23.3964,9.2891,15.2263,17.1574,41.3465,1.4467,28.1383,3.2189,-7.685,7.1101,-23.2747,24.6635,-10.149,-0.50574,
20.0718,-3.7514,9.5111,2.0279,24.7657,-12.7401,17.808,4.9466,-3.3831,-7.4165,-21.8782,9.0837,-15.3008,-14.5754,
15.0271,10.5736,7.98,1.6027,9.1798,-16.1196,8.0976,8.4901,-4.1406,-14.9557,-16.7252,-5.5613,-12.4633,-27.8009,
8.3639,12.1628,10.382,-0.41435,-5.42,-21.874,17.2137,0.29917,-0.051349,-17.8992,-13.8018,-19.3276,2.3845,-40.2328,
14.1032,-0.56978,7.3587,-5.6698,-10.3755,-24.8823,18.5817,2.6816,-8.2093,-11.544,-21.1347,-26.279,-1.7757,-32.3094,
22.8594,-1.4956,12.6788,4.2719,1.7693,-28.1906,12.6656,-2.28,-17.3192,1.6309,-33.3098,-10.6022,-15.7692,-18.8485,
35.4106,12.6942,26.0181,18.1156,15.5863,-12.5755,20.0676,-8.3844,-23.4811,4.8943,-37.5524,4.1339,-26.168,-3.6176,
35.6863,19.9172,18.0385,29.8141,20.8919,2.279,19.3431,-6.4409,-32.1551,-7.4021,-38.6596,6.4121,-26.9992,-1.1774,
25.8636,6.239,12.1546,13.9253,9.0764,-3.7966,20.1033,1.6271,-16.1258,-12.7196,-25.7786,-8.0726,-17.6977,-15.2068,
10.2117,2.5043,9.9849,1.7447,-5.5682,-17.6688,21.2975,3.9298,-1.0583,-13.3968,-17.0298,-18.9333,-3.6731,-16.037,
-4.501,1.8736,5.0655,-0.76035,-19.3341,-18.8322,26.2608,-6.3879,3.4523,-11.1526,-9.7669,-19.2377,4.7093,-8.8337,
9.5664,-0.1592,7.6419,6.0064,-4.3772,-10.9807,28.5264,-5.0451,5.1655,1.0393,-2.4597,-3.9834,-4.2153,-13.1048,
10.9124,-1.1096,-0.49815,0.84528,-6.9953,-12.2423,12.7148,2.9401,-5.7068,2.8969,-13.8345,10.3556,-17.4055,-18.0802,
0.65613,-5.8438,2.4125,-4.0062,-13.2968,-16.3085,17.41,6.6044,2.3172,1.7631,-11.0836,9.3801,-2.918,-11.2337,
-6.1048,-5.4932,-8.2946,-7.6066,-8.6577,-19.1707,26.9282,3.3274,5.059,5.4981,-8.4977,-5.2827,-4.6629,-18.2413,
4.3438,6.8387,-11.1577,-6.6702,-8.6187,-19.4609,32.5131,-3.1139,9.0762,9.489,-4.628,-4.7889,-1.9832,-25.3083,
7.4436,3.0681,-10.9678,-15.392,-13.3823,-20.6936,24.3212,-12.0481,5.1713,3.6394,-7.7106,-8.8219,2.457,-18.5086,
7.4774,-0.47633,-8.8693,-9.1873,1.3433,-6.4893,23.3424,2.7748,-4.2609,7.7413,-11.5692,1.7894,-5.8524,-3.2981,
13.2694,-7.6502,-4.9772,-6.2361,4.6231,-8.5007,27.2226,2.911,-13.1277,5.836,-24.7982,15.782,-19.6013,-8.5583,
26.5733,6.9088,9.4214,8.0608,18.4457,2.0912,27.0296,1.2959,-15.7004,18.4485,-25.7107,28.9351,-25.4495,6.0552,
38.7252,11.5981,15.8808,14.7791,31.439,1.4858,25.8874,-3.103,-20.9995,6.2997,-19.8468,21.5636,-24.4029,8.875,
34.9617,16.1839,17.3288,9.5716,34.4797,-0.043323,37.2973,1.4039,-7.7372,-8.1782,-9.5345,6.1698,-10.9355,-5.7575,
21.8212,8.9717,2.1891,-5.1027,18.3109,-2.4416,20.9595,-0.12074,-6.7925,-11.831,-17.1235,-8.3004,-12.6807,-9.5555,
6.4119,5.0726,-9.7682,-12.7817,3.1122,-9.4966,18.4383,-5.3942,1.7765,1.8411,-12.7353,-15.6097,-2.7974,-15.2238,
4.7641,10.0499,-15.4228,-10.5739,16.2428,-10.3668,23.5736,-6.5105,2.1499,1.2507,-5.7296,-13.2323,1.6912,-24.3919,
18.5783,5.1261,-19.7791,-15.2202,29.3683,4.1784,26.4809,2.0416,5.3817,0.69566,-2.025,-4.2768,5.9114,-9.0052,
31.2094,-6.2242,-12.3512,-26.3097,22.1477,-2.3139,23.4507,-6.2428,0.73761,-5.5872,-6.2247,-5.4606,-0.68536,-7.9853,
15.2369,6.1515,-13.05,-17.5296,28.0204,-4.5755,15.803,-1.5475,-4.5874,-6.6919,-1.5305,-4.653,-6.8849,-14.7078,
8.7383,4.822,-17.0682,-18.3982,35.9411,0.50027,20.616,0.46573,9.1306,-16.8533,6.2424,-18.4738,-2.6315,-26.3081,
22.314,3.5727,-8.3626,-13.4544,47.8846,13.9125,28.0205,0.43778,11.4636,-20.6437,4.9079,-31.4654,-0.55369,-24.7296,
35.0752,17.4584,4.6224,1.4528,59.1116,27.1778,32.1009,8.0931,-0.74658,-15.5634,-6.9089,-34.0241,1.4004,-19.405,
47.0707,30.5109,18.445,15.4656,69.6649,39.6471,42.6567,7.6079,-0.70224,-14.6301,-13.2155,-17.8826,5.1567,-13.4395,
58.3464,32.6468,21.0018,28.6377,79.585,51.3683,40.5782,4.7506,-11.7025,-22.8738,-25.3858,-15.067,-9.075,-6.3916,
68.9457,43.1708,20.7012,39.8312,88.9099,62.3862,42.9438,2.5452,-19.6423,-35.6013,-32.5046,-28.263,-20.0533,-17.5309,
78.9089,54.6805,33.5591,48.4837,97.6753,72.743,54.4672,16.3157,-15.103,-28.4872,-24.3127,-40.6672,-12.6085,-28.4813,
88.2744,58.4235,27.048,36.4531,105.9148,82.4784,48.6215,19.6575,-23.3183,-21.4973,-30.0555,-32.1114,-20.0144,-38.7757,
97.0779,47.7165,19.1835,31.8651,113.6599,72.6265,48.105,8.3956,-22.3992,-26.4481,-35.4538,-29.7048,-25.0542,-33.0883,
101.839,39.5728,16.5925,37.1548,120.9403,65.8681,34.1764,2.6112,-34.9784,-35.9036,-47.4265,-31.2833,-32.6725,-24.8614,
101.9698,38.6389,21.8381,39.2467,127.7839,66.2372,38.3669,6.7757,-28.5585,-30.389,-45.8436,-32.7666,-22.551,-20.9694,
94.4112,32.9602,15.2467,24.8891,134.2168,58.9027,40.3861,5.8887,-22.5246,-26.1653,-36.8518,-29.3602,-21.6775,-21.1516,
74.6465,29.5413,2.3291,17.1546,140.2638,51.0473,23.863,5.055,-33.1759,-30.8365,-41.8427,-27.1191,-27.5789,-19.4021,
64.1034,25.3689,9.3909,21.4061,145.948,43.6628,24.0484,9.0724,-22.063,-26.5864,-35.9714,-30.7727,-11.8242,-13.9172,
61.6976,26.2471,5.4671,15.8014,151.2911,44.4043,27.8867,6.1277,-20.2587,-22.59,-32.3727,-25.566,-12.732,-8.7609,
49.8338,28.0326,2.7387,10.5321,145.9754,47.9812,20.9323,2.3997,-22.4045,-25.5558,-29.9508,-19.7108,-17.2492,-2.955,
48.2846,28.7515,10.7359,14.221,123.2937,37.9007,15.3556,8.4973,-14.8186,-18.7408,-25.7529,-22.8489,-5.1719,-0.37689,
53.0691,28.9472,9.1318,19.1293,114.9361,26.0252,17.3142,6.0667,-10.0887,-8.9748,-18.4461,-27.2396,-1.9808,-9.9558,
47.9646,27.21,15.305,19.902,104.1996,21.5833,30.3753,-0.058507,2.9994,-11.3167,-3.8966,-24.6448,1.0184,-15.1196,
33.0844,22.2166,7.1852,14.3871,86.9044,22.6882,30.2964,-0.53498,-1.5014,-6.3169,2.5788,-18.8453,0.47732,-0.11241,
27.2585,10.3212,-5.7282,3.9214,67.5901,14.6054,15.9963,2.3779,-6.2129,7.5044,0.50319,-7.1523,2.3686,-2.2034,
28.5034,5.8616,4.2174,2.7257,49.4347,17.5703,23.6785,12.7972,8.2598,14.7361,2.3934,7.3769,13.7493,-3.9915,
25.8337,17.0327,6.8447,5.4435,42.9824,29.9588,23.2182,17.7905,11.9091,9.0507,7.051,6.2774,13.8848,10.348,
38.3836,23.6918,6.4345,3.1965,49.0455,26.2409,21.8246,10.9619,14.0749,-3.9741,13.35,-8.1992,14.9721,5.2295,
50.1806,27.5511,7.4884,11.1662,60.2027,32.8279,18.1143,15.5849,6.0279,-5.1766,1.5057,-20.974,8.7921,-7.0875,
61.2698,29.2592,5.5987,10.9758,70.6906,44.9583,20.3887,15.1303,-8.4338,-15.9088,-12.6846,-25.9558,-5.8354,-2.3411,
71.6936,32.7844,6.7027,1.1957,80.5491,48.3251,28.2869,0.12244,-21.6736,-29.0542,-26.0236,-38.3216,-19.5853,-16.3006,
81.492,44.2605,2.4597,4.9648,89.8162,55.9879,25.6297,5.0927,-19.4123,-32.8949,-21.2272,-30.2616,-16.1352,-27.628,
84.8379,31.5225,-2.9686,5.1469,98.5272,41.5863,24.5719,1.4272,-26.4091,-39.0827,-34.0536,-42.5459,-15.6471,-31.252,
90.3105,27.7108,1.0499,6.7584,106.7156,37.1707,32.6996,-4.4205,-31.5466,-50.8377,-42.3954,-54.0932,-17.5895,-35.138,
88.2527,34.2106,1.4678,2.0322,114.4127,41.1821,30.2576,-2.7144,-27.253,-61.8875,-38.4108,-64.9476,-16.0533,-47.1297,
79.1158,35.0378,14.822,5.751,121.6479,32.9496,36.1237,-2.5515,-16.0154,-47.7377,-28.4255,-71.5612,-10.2893,-47.005,
72.9289,40.1371,20.1743,12.6075,128.449,23.771,44.0387,3.8432,-14.5745,-30.7734,-20.4784,-53.1675,-6.3112,-30.0847,
77.1951,44.451,21.8442,8.9707,134.8421,25.2251,55.4963,12.2546,0.39998,-14.827,-5.1497,-35.8775,8.1675,-23.6553,
78.3241,43.7038,18.6136,9.3924,140.8516,22.7516,56.31,14.3992,14.476,0.16258,8.9051,-19.6248,15.6617,-21.276,
64.9836,35.3204,16.5363,11.7092,146.5005,7.2865,46.2103,7.7741,3.6513,-3.2594,9.3313,-18.9788,9.9217,-17.1191,
53.4026,25.5192,16.5046,4.2856,151.8104,-7.2507,49.1988,0.58649,12.0742,-4.9842,12.6117,-28.4019,23.4264,-18.9723,
40.5965,18.2269,1.4143,-5.5735,156.8018,-16.063,47.2073,7.2724,13.2702,-10.4464,14.7363,-36.2998,26.1638,-24.556,
24.0607,6.0909,-8.0957,-16.2815,135.7928,-29.1992,43.8949,4.4362,11.0331,-17.9811,15.292,-45.1646,23.154,-29.3233,
9.8316,11.0071,1.5116,-12.9037,113.5452,-30.6312,36.9395,0.80921,11.812,-2.8022,11.9737,-28.3547,24.1656,-13.4639,
3.481,12.2666,-10.1014,-18.8511,92.6325,-23.9926,20.6232,-5.9609,-2.3399,1.0298,-2.8447,-12.5534,8.6157,1.4439,
2.7917,7.2103,-7.095,-31.82,72.9745,-27.8342,17.6431,-3.2029,4.0416,-1.4323,-0.5759,2.2998,10.196,4.8439,
-11.4758,4.3764,-4.2689,-44.0108,54.4961,-34.3257,10.3425,4.1904,13.8811,4.8938,8.5797,10.2723,18.7062,7.9136,
-24.8872,-9.9862,-14.5742,-51.5789,37.1263,-44.7489,0.12046,-8.5433,20.7297,-3.0813,11.9057,-2.8263,17.5838,12.2395,
-19.1991,-14.97,-6.4982,-51.844,20.7987,-29.1008,3.474,-8.5107,23.8076,-1.4556,16.473,8.3856,17.0088,14.8669,
-18.5271,-2.0695,2.0532,-37.691,5.4508,-13.2547,5.6664,6.0999,14.2176,0.072599,12.1238,2.6018,15.5083,15.4148,
-29.8982,-2.9057,3.8504,-22.9468,-8.9762,-22.2387,13.0075,9.3983,16.2449,-4.733,8.516,-11.6544,19.379,6.8079,
-33.866,-4.6522,-0.22138,-13.8894,-22.5377,-17.0636,1.6647,8.8335,15.2702,4.1925,8.965,3.1449,15.3354,14.081,
-41.436,-3.4127,-3.0885,-9.2148,-35.2854,-8.3582,-10.9179,8.304,10.5128,2.9806,8.4276,11.5977,14.4148,27.3361,
-43.2701,-3.6883,-4.3436,-3.3807,-47.2683,-16.0183,-6.9016,7.3253,12.2824,-6.3202,4.5607,-3.1981,17.8712,35.1215,
-46.4355,-8.2678,-7.9237,-6.0587,-58.5322,-19.8584,-8.4084,6.8858,13.4663,0.78057,6.2079,0.050953,17.7589,33.0133,
-49.8905,-12.092,-11.7695,-10.0155,-69.1203,-23.9476,-10.3042,5.0322,15.0587,6.9749,8.2358,7.2499,16.2138,30.553,
-51.6978,-16.1681,-14.9041,-13.2562,-79.073,-27.3119,-11.6059,3.7703,16.0751,13.278,9.6616,14.4965,16.2009,28.7198,
-57.7179,-22.3992,-21.211,-19.662,-88.4287,-34.7952,-16.1907,-0.77712,13.6711,14.8817,8.6024,17.947,12.8285,24.5963,
-64.3372,-30.1776,-28.1008,-25.6838,-97.2229,-41.8294,-21.4609,-5.0513,10.45,16.3896,5.6854,20.231,8.698,18.7997,
-67.6786,-33.6477,-32.6554,-29.4235,-105.4896,-46.5212,-24.494,-7.1481,11.263,20.687,7.7451,26.2187,5.7753,16.2309,
-54.0159,-29.7085,-23.015,-25.7377,-113.2602,-45.6503,-9.5816,-10.5604,13.4684,23.287,10.1607,27.5268,6.3892,4.6951,
-37.3318,-24.0852,-11.0717,-18.4327,-120.5646,-38.1101,-4.206,-5.1261,13.6203,10.3674,2.8295,22.9935,0.24423,15.9357,
-34.1324,-19.7597,-9.447,-5.804,-127.4307,-31.9827,-6.834,-4.8181,14.7235,13.5857,4.5801,19.6935,3.1108,29.0796,
-46.1844,-26.7357,-16.0818,-12.6573,-133.8849,-43.0265,-13.6255,-11.7305,10.4793,26.8706,7.6661,31.4751,1.4833,34.8391,
-53.3175,-31.3727,-28.0796,-20.059,-139.9518,-40.9249,-16.1683,-8.6263,10.331,39.3583,10.5674,43.6866,-6.7668,23.6277,
-56.3601,-37.6518,-39.3571,-32.9554,-145.6547,-42.7906,-10.8775,-22.2088,23.6333,51.0968,12.3333,54.8112,-4.9208,14.0476,
-58.2597,-35.8732,-44.1977,-36.0829,-151.0154,-38.7828,-16.466,-17.3381,16.9342,54.7011,11.1128,47.2014,-0.30433,19.4459,
-48.5225,-33.2408,-39.145,-20.9552,-156.0545,-34.0554,-25.5604,-2.1979,2.9558,47.0983,9.0061,53.4917,-1.7269,25.4807,
-31.6884,-36.5275,-22.6963,-11.5368,-160.7912,-40.1737,-12.9849,-6.564,2.298,30.1724,6.0654,44.0401,-7.8645,17.7107,
-24.9864,-25.6944,-10.9495,-7.0038,-165.2437,-32.0021,-5.4842,-9.051,0.23931,30.4593,5.7015,50.0402,-10.2734,20.4888,
-33.0891,-22.2323,-17.9745,-10.4239,-169.4291,-33.9227,-8.0355,-13.3091,9.8278,24.7914,11.1205,37.4358,-0.055064,14.4583,
-33.5037,-28.099,-22.1768,-15.0792,-173.3634,-41.9693,-6.1125,-20.6721,14.5189,9.3808,17.6549,21.0896,5.2299,14.0717,
-31.9744,-33.6147,-24.2069,-28.2744,-177.0616,-45.6927,-5.2667,-17.031,12.2078,18.9003,21.8763,17.6003,2.5153,12.7465,
-35.8171,-42.1606,-22.755,-40.678,-180.5379,-47.7519,-11.6718,-20.8103,13.3957,23.5275,11.9227,9.8231,0.44395,-2.1183,
-30.7872,-30.0286,-17.548,-46.0447,-183.8056,-30.7868,-14.8123,-10.9202,13.5519,17.3151,2.5649,9.2337,2.3382,1.5469,
-22.6984,-28.7068,-12.1744,-35.1205,-183.9141,-25.2761,-4.8011,-6.9042,11.2989,11.9545,-0.94982,17.8021,2.6779,15.5541,
-17.4957,-32.7461,-6.6432,-41.6552,-169.0385,-32.4015,-3.5531,-14.1715,3.8993,11.2372,-1.8528,23.4547,-3.2444,10.6023,
-15.966,-25.4996,-2.8838,-30.034,-145.9334,-22.2954,-4.7808,-11.8812,-0.65537,8.1631,2.5791,10.0451,-1.6089,12.367,
-15.9685,-23.0092,2.0905,-14.7892,-142.9386,-21.9177,3.1881,-4.4463,3.2243,1.9121,6.2656,-4.6576,5.2088,12.5854,
-9.7296,-12.5072,2.445,-12.4619,-135.8027,-20.1231,-2.2848,0.14122,-0.32998,3.2373,6.3697,8.2814,-0.38541,12.3103,
-0.023435,-8.396,8.5399,-16.9949,-113.5545,-7.8729,-0.70689,-0.34724,1.1307,3.5231,14.149,14.0262,2.0385,15.8924,
-5.3028,-17.9746,1.7859,-14.5348,-92.6412,-6.9205,1.7364,-4.6472,1.5428,2.8317,11.8601,11.7446,-2.4045,20.2205,
-12.6666,-14.0158,-8.8841,0.43728,-86.4765,4.0571,3.5526,0.43195,1.4498,13.2237,5.3874,21.6019,-2.2598,21.8876,
-15.2665,-13.6539,-5.9502,-3.6066,-91.3698,-4.3479,0.93858,-3.9138,-1.0371,5.2296,-1.1775,6.3835,-0.68426,6.4744,
-10.5106,-9.9548,0.16753,5.2513,-77.2466,-6.9683,-4.8794,-4.6399,-4.8166,6.8358,2.7339,8.8804,-3.524,8.1827,
-15.1607,-12.7183,-2.2424,12.1378,-77.8925,-0.3086,-4.1057,-3.8815,-3.0867,6.9056,5.9307,7.8676,-3.7926,5.2918,
-9.4499,-10.0348,-1.1475,4.6884,-78.9801,4.5111,-6.7406,-1.7282,2.8597,-0.22984,8.4552,-5.0872,2.1962,3.0539,
1.6786,-0.79117,-2.0395,8.2479,-60.1413,6.1608,-14.0177,-2.5845,-1.1527,2.6648,6.028,0.97964,3.0244,13.433,
-3.7024,-4.104,-1.4358,19.7558,-55.7492,6.2716,-12.6962,-5.7898,0.35687,2.0244,4.2259,15.0209,-0.51744,10.2267,
-17.5803,-7.219,-7.5917,19.05,-62.4871,19.9953,-16.2557,2.7187,-0.14499,1.4225,1.572,20.1835,-3.8476,5.2919,
-19.7094,-7.2654,-8.5766,6.8642,-59.2179,27.7398,-12.88,9.7567,4.1849,-2.0232,0.037232,6.9697,-3.1364,13.1363,
-16.6065,-14.5106,-4.2208,5.4928,-46.0624,18.3943,-11.1458,-0.42972,5.8542,-3.8222,2.9163,10.3927,-1.9877,21.9501,
-15.6105,-8.8397,-6.8488,19.2632,-38.4979,19.2106,-13.3584,2.4764,2.6226,9.8499,12.3423,23.8692,5.8135,25.4343,
-18.5142,-14.0705,-11.2391,8.8082,-50.2881,7.4956,-13.5173,-4.3942,5.3456,14.0601,7.7605,15.0577,5.4643,9.8082,
-12.6026,-10.3454,-5.7631,1.5581,-57.1759,7.0459,-16.547,2.591,-1.6967,21.858,-5.1874,22.7967,-7.3459,-1.6462,
-15.2073,-8.2848,-7.8181,7.7062,-39.6453,6.1431,-15.0742,8.6772,-3.0349,19.1066,-6.3161,29.5904,-10.2659,6.615,
-17.6561,-19.7904,-9.7494,5.8035,-40.8047,0.49336,-6.9686,-5.7671,8.1891,10.7582,-3.5368,20.6129,2.3519,1.8969,
-12.275,-8.5206,-9.6444,0.17361,-35.9556,8.6253,-8.9504,-5.901,11.0586,19.2351,-3.8045,18.8962,4.6116,6.1038,
-8.1782,-10.4098,-10.5061,-5.1171,-33.3183,-4.8545,-12.7346,-5.0665,12.7954,21.4413,-1.1759,14.4021,-3.8271,1.4164,
-1.4459,-19.8666,-11.3157,1.4306,-32.7591,-16.566,-15.3304,-1.4017,6.747,19.6749,2.2555,11.138,-5.0374,-4.9093,
3.9216,-11.474,-6.316,12.3871,-27.4332,-1.472,-10.0908,1.0832,3.9413,18.9744,0.67927,2.3073,4.3863,3.5468,
5.1267,-3.5835,1.2641,15.0052,-27.2272,12.3621,-3.2433,-4.263,-0.61545,3.7359,-5.6026,-6.9531,2.6837,6.6943,
9.1403,6.7134,1.6686,20.346,-29.9148,6.3392,-8.3298,6.0747,-4.8997,-5.4329,-8.6268,4.5069,-0.83861,16.3755,
2.8303,-2.3309,-1.3123,12.4037,-34.8415,-8.1411,-10.7109,1.8695,5.9566,-7.9878,-10.0301,-5.3659,5.9333,1.293,
-1.1794,-7.9527,-1.2335,8.7786,-18.651,-13.7165,-9.1082,-7.8442,8.48,-6.5476,-7.5074,-19.144,3.6574,-12.8846,
5.6125,-1.7143,-3.0799,9.2123,-10.5072,-5.212,-10.4821,-2.5733,0.28921,-5.1953,-2.2558,-19.258,-2.3232,-15.5982,
6.7157,0.78934,-1.4552,2.418,-23.9768,-9.2205,-7.4524,3.8227,-1.169,-6.3235,-4.5212,-14.7426,4.0568,-0.56227,
4.3919,2.6619,-3.2878,10.9144,-10.839,-0.98568,-7.9661,12.2349,-3.9788,-2.1033,-4.25,-5.2156,1.8926,6.9753,
7.9701,-2.2985,-3.0905,16.9821,3.255,-6.6872,-5.5664,3.8192,-5.66,-6.7778,-3.0341,-4.9027,-5.9016,-5.9255,
20.9341,10.3226,11.1949,18.844,9.7808,-6.286,-0.43166,2.6301,0.44034,0.35042,-3.8129,-2.6877,2.134,0.19161,
11.9965,12.5831,4.1048,15.7925,17.8355,-6.8693,-5.2074,3.4323,-7.2676,-0.63149,-11.2657,-5.4072,6.8067,1.1401,
2.1552,-0.17418,-3.3431,13.4041,25.8873,-11.7383,4.2274,-6.8551,0.36999,-8.7551,-3.3882,-11.3244,11.6791,-9.0107,
-4.2152,-2.5641,-4.5829,7.3195,16.1725,-10.5536,2.5334,-3.0835,-3.9734,-6.7894,-1.7445,-11.1254,7.618,-12.7904,
-7.8031,-2.4103,-1.4271,3.0387,1.1022,-13.7616,-2.4203,0.94231,-3.735,-4.4621,-3.5607,-12.3778,6.2009,-20.6654,
-6.8554,-7.5468,-2.7819,0.45599,3.1328,-21.0979,-2.7546,-11.117,3.6902,-2.754,-2.8666,-12.1156,5.3484,-15.1042,
-3.0833,-1.8133,-6.9358,10.511,17.0449,-12.6304,-1.1494,-6.1292,1.0689,4.6128,-2.2146,-6.1079,5.5075,-0.097985,
-2.8978,3.0967,0.20152,10.8408,17.7662,-10.9117,0.84091,0.96058,-1.8756,-6.2259,-0.16134,-16.3033,3.2567,3.5714,
-4.1653,2.4305,5.4706,3.9483,21.9809,-9.7775,-3.5317,4.2633,-9.9251,-7.2927,-0.6321,-11.0039,-7.9815,-3.8449,
-7.2757,-2.9956,1.782,5.1527,21.1425,-7.75,-2.8393,4.4879,-6.9292,6.1076,-2.9945,3.7563,-7.0222,8.3894,
-7.7991,-5.6967,0.71424,10.6042,8.3516,-5.3651,1.1718,-0.58301,1.1681,9.5819,-0.89403,17.6309,-0.83924,16.5276,
-7.3307,-6.3153,-0.28812,4.2068,7.8505,-2.1623,-1.7789,1.3724,-5.6231,3.2458,1.08,10.9378,-4.6301,5.934,
-8.3313,-9.2967,6.9312,-1.3268,7.8599,-1.5522,-1.1917,1.7705,-6.7261,3.5315,-0.42521,7.8811,-2.911,2.2176,
-3.9906,-0.097419,8.4353,12.8528,18.9102,4.3021,-12.6425,9.3458,-8.2425,9.0803,-8.0812,21.5083,-6.578,16.1846,
8.2516,7.1105,11.2895,26.1817,31.8756,4.524,-11.4035,10.2254,-9.1883,8.056,-14.7975,34.3178,-9.5437,29.3135,
15.918,5.243,23.5753,24.2566,34.107,8.5733,3.3807,9.1319,-2.3964,14.7742,-13.4297,44.3869,-4.6503,29.1205,
0.86295,3.0075,10.6375,27.602,21.4982,16.7004,-7.5623,8.584,-12.8149,24.4492,-17.4255,55.8236,-16.8545,34.0939,
-1.4124,9.5491,11.9197,24.9854,26.9299,19.5392,-8.069,8.0685,-1.4832,30.6643,-5.8172,64.2992,-10.0811,46.1483,
-2.2885,1.2937,6.4037,9.3863,31.0748,6.8445,-7.5848,6.6244,-2.3551,14.7244,-4.5082,46.3413,-8.5163,39.8422,
-7.9114,-3.5842,-3.5824,9.4813,15.7681,9.3151,-9.0492,7.1874,-2.2133,2.0159,-2.3173,29.4608,-7.0449,28.8097,
-9.3576,-3.3691,-2.4066,10.8324,0.72198,14.5174,-7.5463,3.8753,0.80027,4.7758,-2.1783,13.5932,0.099375,18.4396,
-8.3157,5.955,2.0581,6.8221,2.7759,19.887,-5.654,10.8449,-8.3697,14.5702,-7.3288,20.0306,-0.38703,24.5343,
-7.8172,-0.16349,7.6958,12.1739,4.5297,10.0523,-0.51358,5.393,-6.9071,8.8957,-4.0087,14.9884,-6.125,28.8234,
-1.587,-0.15414,12.9952,22.0054,6.1783,7.5283,-4.3231,5.0689,-5.5332,6.4407,-3.7677,17.9295,-9.5987,35.736,
0.90858,10.8979,10.7751,14.4439,2.4473,15.2386,-5.5041,10.046,-4.7207,11.3364,-15.5444,30.9537,-6.6215,32.1514,
7.5761,10.2436,11.089,13.5768,-4.4211,13.3643,2.5081,7.5228,-2.5171,14.4965,-13.6513,32.7604,-4.3038,25.4221,
0.87994,6.2682,-0.61869,16.123,3.0453,11.1216,-8.6856,6.5915,-16.4661,11.2259,-7.5515,19.7524,-9.3272,29.1775,
0.34716,3.4922,3.7392,10.8349,14.8658,10.9347,-1.9229,5.716,-6.1789,7.1924,-3.7376,9.4458,-3.486,21.1852,
11.8487,1.3618,11.1964,10.1848,27.4165,10.2786,6.8349,1.5323,3.7934,8.6808,-10.234,11.7589,-9.0384,12.2326,
17.3789,9.4421,10.0451,16.7748,32.9727,13.0227,5.9444,2.8807,-4.5953,8.6404,-11.0604,18.2554,-12.8173,16.7798,
9.1346,9.3555,16.644,15.2883,26.6735,10.8009,9.9085,3.1879,-0.95881,1.8804,-6.076,8.9986,-1.9659,18.1738,
-0.53545,5.4339,9.4042,11.9707,28.4339,10.6333,0.19203,5.397,-5.2225,6.0888,-12.9126,11.819,-8.0891,20.4437,
-2.4242,-4.4946,2.1174,15.0932,25.767,8.074,-0.78037,1.2324,-7.79,13.4041,-15.9795,24.5521,-16.2462,18.2562,
-1.7983,-4.7053,5.3507,15.628,23.741,6.1492,12.2292,-0.28197,-8.763,8.2795,-15.5012,20.6786,-9.9902,8.0389,
-1.2104,8.5402,8.3914,10.3696,33.3593,11.0619,14.8571,4.0557,-7.7572,3.462,-15.0502,5.3379,-1.2284,0.3559,
5.1038,13.3085,15.0895,10.2274,36.6385,10.8781,15.4057,3.3324,-0.090203,3.7343,-5.0257,-3.927,3.1661,2.7345,
-0.0040584,3.8685,3.6217,5.773,20.3402,6.3847,6.7998,6.9732,-6.8064,2.5493,-4.7241,-3.6914,-1.8255,5.4512,
-2.4037,-0.68531,0.043632,-8.6734,7.7743,5.5212,10.7125,6.0748,-3.0372,3.8372,-0.11992,2.7708,3.5647,4.6442,
0.14132,5.5983,5.3227,-22.253,21.2315,7.5912,13.4306,1.3896,4.3466,10.8086,4.208,9.807,0.95093,3.8855,
-9.4696,0.46077,-2.6792,-30.1656,20.9175,3.2945,6.8631,5.147,0.24503,6.3193,-3.726,-4.8814,-1.9869,-4.9891,
-17.5429,-10.1292,-3.4784,-38.9181,11.9809,-2.6644,4.5314,1.9574,1.1903,-7.503,-8.3032,-18.6885,7.7347,-13.3322,
-5.4475,0.56135,2.9724,-26.5001,18.4636,8.5383,-0.060775,4.2403,-1.2806,1.1091,-8.2845,-15.7731,4.8702,1.5677,
5.4412,6.2888,10.4751,-10.8101,19.2762,5.1452,7.624,4.9463,-0.24424,2.963,-1.0663,-13.8663,3.6176,5.1376,
4.1543,-0.81054,9.8462,-14.66,21.96,-9.2635,13.8877,-1.1116,-5.0308,-11.3148,-3.8836,-27.1343,1.4801,-9.2707,
3.9051,9.8005,7.3355,-14.7413,34.7424,-8.0509,9.2136,2.7958,-9.5297,-13.8194,-10.3722,-19.0883,-1.4895,-1.3356,
8.4715,5.3717,10.7361,-15.7768,32.961,-0.84624,13.4615,-2.1727,-0.31638,-4.3487,-5.9091,-14.1022,-0.44014,-0.29546,
12.284,-1.1923,17.2935,-11.4694,38.1849,5.4457,13.1338,-2.5223,-8.4589,3.1138,-3.1537,0.84391,-5.6945,-3.6385,
5.7862,5.6009,22.9775,-5.9805,36.8542,7.0393,8.505,1.4698,-12.7521,-0.91384,-11.606,7.338,-9.1936,-2.4602,
7.839,7.6656,21.1179,-2.2608,24.5606,-0.5846,5.5948,3.7816,2.113,-1.339,-9.4697,-7.2023,-0.48042,-2.7926,
16.0102,10.0856,13.1293,4.5964,34.6093,13.5505,2.3783,5.4755,0.84849,11.2236,-4.1008,-4.6724,-1.4116,11.4749,
14.09,6.601,18.1036,9.1218,30.6128,26.8374,7.9968,0.34577,-4.0027,15.3523,-2.8934,9.7079,-2.2864,20.6924,
7.9635,7.6445,21.3377,19.6164,14.676,23.4327,2.2358,1.7654,2.4786,13.9498,0.64056,19.51,1.2111,10.328,
0.76452,6.2263,5.9574,19.3998,3.4104,7.9267,-4.6195,0.69909,5.2102,6.3917,1.5625,4.2394,4.9788,-4.3917,
-3.6026,0.57152,2.8969,7.194,17.3058,-2.9335,2.8597,-1.7432,1.5373,-8.0918,0.98836,-10.1149,9.9613,-7.7912,
-11.0675,0.53677,3.6835,2.9211,30.3674,3.0037,-0.19314,-1.6391,2.4046,-11.2693,9.571,-23.608,2.6424,-11.1649,
-21.9263,-11.9782,-2.2996,-0.13453,42.6454,-11.2766,-3.0619,-9.2218,9.9423,-9.6336,16.6779,-36.0633,-0.39737,-24.595,
-20.6107,-11.2595,-2.1607,1.7935,47.2368,-9.9427,3.8434,-5.7877,6.465,-11.9364,12.7964,-35.8194,5.3881,-27.2628,
-23.2148,-10.5839,1.8097,7.4475,49.2033,-0.70461,4.5728,-1.5997,4.1571,-8.3394,8.1878,-25.9887,5.0648,-16.0256,
-31.4239,-18.59,6.5014,10.841,42.4103,-12.1847,-0.50281,-6.3049,11.5888,-3.0379,7.697,-21.549,2.8405,-22.7451,
-23.2977,-7.3931,5.6314,17.3921,48.9872,-5.2124,0.96731,-1.6058,6.5727,-6.2164,5.7943,-21.6969,6.9909,-16.0997,
-22.8594,-5.0291,4.334,7.7075,31.948,0.86194,11.4721,-3.4299,7.1388,-18.3262,5.4471,-26.1554,11.3726,-13.2133,
-35.5878,-10.9685,-1.2072,0.043005,15.9311,-7.3513,7.4234,-8.5053,12.9516,-16.7461,4.6408,-25.0665,5.4091,-14.8209,
-37.1169,-8.3905,-3.0556,9.6419,29.0752,-9.7915,4.0963,-8.9549,13.1345,-13.8214,5.3214,-23.5625,4.1246,-12.0117,
-22.8867,-9.327,11.2277,11.4642,41.4307,-8.7236,13.9329,-9.8585,7.0657,-15.3921,6.443,-23.5887,6.277,-24.2533,
-24.3948,-3.0062,14.2175,6.9361,40.8657,0.44136,10.2166,-1.585,-0.080321,-1.9867,2.2151,-9.6915,4.9409,-24.7185,
-34.4534,-3.7858,-0.73554,-0.2017,29.7723,-5.3458,3.8429,-4.3707,8.5669,-2.8275,4.963,-19.6715,7.5252,-14.5938,
-34.3057,-13.1606,-10.5956,-4.9908,23.1852,-13.6671,-3.1088,-13.7095,10.9333,-12.2589,5.6257,-32.5912,5.1533,-13.7178,
-24.0863,-4.209,-0.83788,4.4306,27.0748,-3.7251,-1.4828,-4.7258,8.8369,-0.48143,5.7686,-17.0157,4.3637,-12.4143,
-21.2011,-10.198,4.4931,-0.15599,23.0495,-3.0216,3.8869,-3.0023,6.8667,-8.615,2.0617,-14.5548,-0.21889,-15.0311,
-20.4086,-8.1457,-2.0176,0.33381,28.8685,7.2421,1.2542,2.459,1.1735,-5.6968,4.3383,-8.4003,1.2346,-3.0864,
-27.8265,-7.657,-7.6582,0.31378,15.6136,4.8867,-4.5827,-0.56935,3.9839,6.1673,4.078,-9.8172,4.0405,-13.4636,
-35.2784,-12.4783,-6.7187,-5.9467,0.57682,-3.568,-10.5493,-2.9351,6.1448,2.4365,1.4325,-13.5489,-1.4827,-16.0166,
-35.5621,-5.4885,-12.5567,-5.1094,-4.5612,0.0068547,-9.4359,6.363,1.4558,-8.7516,6.6278,-11.2956,-1.8733,-4.0128,
-21.9065,-3.2397,-11.8038,-3.8433,-1.4076,-2.8744,-0.22869,-1.7008,4.2488,-12.0677,6.2296,-24.7178,6.8802,-17.2157,
-11.4701,-2.5649,-2.9336,0.70848,4.9184,4.4997,-5.4962,-0.15837,2.5535,0.6582,2.4955,-18.2572,6.9478,-11.8615,
-21.8238,-2.8914,-0.35718,-4.6152,0.3021,0.86889,-6.6068,1.2915,0.95987,-4.6625,-1.9754,-8.0398,6.0505,-7.7895,
-23.8752,-7.0387,-2.7357,-7.6991,-4.9968,-10.2256,-1.8887,-6.9475,5.223,-11.5834,-11.9384,-11.8782,8.0883,-18.3635,
-20.0419,-16.6978,-9.7731,-5.7963,-1.3362,-3.3704,-9.9369,-2.2099,4.4297,-1.7669,-8.8212,-8.7646,7.123,-18.7017,
-26.0414,-22.898,-9.6672,-15.5313,-9.418,-4.6091,-9.8211,-2.5577,5.6043,-5.0212,-0.13088,-9.6792,9.096,-22.8617,
-17.2773,-7.4241,-3.8064,-3.5571,5.0703,1.9091,-4.9111,-2.8843,-0.97357,-4.2399,-6.3637,0.98397,9.0302,-15.2484,
-2.1407,2.4464,5.064,10.7563,18.866,13.3169,-5.576,0.16916,-7.6363,1.7756,-9.8231,15.0249,5.6081,-0.89074,
0.21175,-7.3023,9.5613,12.3349,28.5991,11.5579,-3.321,5.9202,-3.3369,1.6695,-8.2733,17.3065,-2.4104,-0.83684,
-11.3237,-1.103,-4.4551,0.072035,25.9228,7.9836,-4.0822,9.4062,-4.0971,-5.1527,-13.539,2.1681,-5.1461,-4.6279,
-11.6047,2.8044,-4.1873,1.9881,11.8851,2.7038,1.9239,-4.6009,7.6706,-12.5246,-3.1238,-12.062,6.6845,1.411,
-13.7888,-9.8475,-6.8173,-5.8132,3.49,-4.18,-4.9136,-17.7676,9.1308,-7.9328,6.6656,-8.1033,0.52226,-8.2756,
-18.2427,-15.4969,-10.7286,-17.4663,0.88067,3.2724,-9.899,-5.6596,6.1825,6.6431,7.706,-5.2158,0.011401,-21.8791,
-20.9889,-12.6471,-7.2041,-13.5375,-3.0129,2.1161,-10.266,3.3224,1.0109,2.2274,-2.3587,-11.6245,1.9306,-21.349,
-13.4879,-4.6867,-2.4511,1.3748,8.2097,4.3895,-14.9307,8.4038,-7.2113,-1.268,-8.4579,3.173,-1.546,-5.9681,
-6.4375,-12.5675,0.096363,6.3957,7.2372,5.5661,-10.6745,3.5783,-1.4975,1.2094,-4.5901,11.9268,-1.9328,1.4143,
-6.0517,-5.0924,-6.6315,0.25081,5.8425,14.834,-7.1537,1.4432,-0.44811,1.1364,1.4465,-2.8888,3.9444,-3.4718,
-15.7705,5.296,-16.3155,-4.0855,10.7731,12.504,-7.204,0.87712,-4.7415,-9.9737,3.7601,-16.8155,4.1872,2.9777,
-5.7024,-3.1837,-3.3338,-0.47908,24.2267,3.5923,-0.53063,-2.5368,5.6249,-10.8157,4.0149,-14.4915,-1.3443,1.3586,
7.603,-0.59187,8.8685,13.4728,36.8731,12.4982,-1.9387,0.97625,0.96663,-2.9652,-3.4276,-0.65975,-9.4261,-4.0036,
6.1864,-1.5168,13.1376,23.2264,37.1874,11.7488,2.9788,-1.0027,-1.9717,-9.5084,-4.1823,-5.4205,-3.0984,-6.6438,
4.3748,-6.707,9.949,25.1931,29.675,4.8023,1.3597,-3.3429,-0.41301,-8.4584,-0.57014,-5.5757,-1.473,-4.8047,
3.1528,-2.4633,3.5909,20.8012,27.895,8.3554,-0.64232,-4.1019,3.4521,-6.9904,-2.4563,-10.0423,-6.1849,2.2047,
5.3631,2.0048,8.6566,9.4712,30.5416,11.2144,11.3981,-4.3362,17.1677,-9.9323,8.733,-23.3625,8.2862,0.632,
-3.1207,-2.4367,0.9352,-4.0598,15.7463,4.2999,-3.3858,-4.5565,6.0557,-9.8158,11.5693,-22.4412,7.1313,-10.4487,
-11.095,-11.412,-2.4817,-6.2171,0.87885,-2.1992,-12.1269,-4.7631,4.2524,-4.9061,7.5144,-6.9947,-5.2989,-14.1426,
-13.7892,-5.4457,-2.8119,-3.4432,11.8689,4.1743,-8.9984,-0.15651,1.5964,-3.1709,-1.0971,6.2113,-9.3017,-0.33082,
-5.7607,4.003,-3.1236,3.9654,25.2568,14.9662,-8.939,9.9348,-4.7405,-1.5412,-3.4326,-5.2042,-5.3833,10.7309,
1.3061,-5.84,5.7049,4.687,31.2452,11.187,-2.6415,6.4584,-1.5757,-4.329,-2.2662,-7.7732,-6.0207,1.4451,
-5.9739,-3.0888,3.9226,6.8066,29.8505,9.0758,-2.9629,6.5508,-2.9211,-2.6294,1.2306,5.6564,-7.0994,6.64,
-4.175,0.4569,-1.5939,2.077,31.4202,12.852,-0.3848,0.87661,-0.34549,-1.9912,2.5962,2.9167,3.4085,8.642,
10.1755,-1.49,7.1437,4.8336,36.257,26.1809,0.59871,-1.0964,1.5956,1.9696,2.4409,11.3836,4.1644,4.2832,
3.6269,0.99932,6.2351,11.7443,23.0388,24.4327,-10.4805,10.0118,-6.6616,-0.54945,-3.9472,23.6629,-10.0086,4.5061,
-6.1922,4.7801,8.7418,12.9605,9.1742,9.5245,-0.24925,10.3719,-1.4612,-3.3973,-10.431,8.1431,-2.6865,0.395,
1.3809,1.1335,7.7373,13.6228,22.7237,18.0755,5.0473,6.3888,-9.5351,-3.6734,-18.9276,-6.4455,0.83544,1.8113,
13.2999,-1.3358,15.4342,14.2458,35.4603,28.0328,6.1849,9.3658,-13.2842,-4.8934,-9.6299,-12.4253,-0.65509,4.1029,
17.7827,4.9859,21.7097,13.8711,47.4327,21.0692,7.2538,9.2839,-4.3256,-5.0798,2.9502,-2.5583,3.705,-5.2656,
2.7935,9.0075,6.4839,9.678,46.4561,15.4843,2.4978,3.4461,-0.70527,-3.3351,-4.4284,-4.8056,5.8835,-13.1103,
-10.3369,0.30599,4.6554,-3.8645,44.1483,7.3541,4.7483,-3.9627,5.5791,-8.4152,-4.6422,-14.5992,7.9309,-10.8833,
-0.59517,0.7667,11.5767,-1.2327,41.9794,11.2336,7.8242,3.4766,-0.99724,-0.70967,3.7979,0.37677,0.25344,3.6919,
8.563,-0.71925,6.5614,9.8836,34.1799,15.8404,2.0731,-0.09275,-7.179,12.2961,-2.6716,14.4542,-11.7641,3.9504,
2.7675,-0.19611,10.4885,13.6113,26.8475,12.4891,-0.45212,-7.2888,4.2941,19.7199,-2.9913,27.6869,-9.6183,2.2734,
-11.4985,-0.66387,5.5388,1.7528,11.1366,2.6187,-3.7853,3.2305,-1.2448,8.4548,-1.3714,19.2531,-5.6799,4.5374,
-19.7533,-5.9052,4.7261,-4.5935,-3.6316,-4.74,3.6438,14.0795,4.1111,-5.0153,4.952,5.1352,4.7428,2.8248,
-18.0881,-3.151,-0.83822,-6.7188,-17.5137,-2.0552,0.064393,3.1523,7.2252,-8.0751,4.1749,-9.2729,5.8982,-5.5063,
-8.8413,5.1996,-4.1487,-3.9157,-2.3629,0.46847,3.4213,-6.1583,11.1125,-6.1507,5.3644,-22.8165,9.865,-19.2759,
1.2916,0.086883,5.7017,3.0408,11.8789,-0.52006,7.0568,-0.028114,11.4057,-6.7416,-0.7182,-34.5361,8.3132,-30.4248,
1.6941,2.4825,4.8796,16.7815,21.9054,10.5535,-1.529,8.1351,-1.2809,0.86446,-9.7975,-25.2624,-1.308,-14.4993,
2.5529,8.0947,-1.1743,11.9334,12.91,7.9999,11.0455,-5.7957,2.6371,6.5738,0.39227,-24.7071,11.2532,-9.9659,
-4.8019,1.3674,-10.2254,-2.7049,7.8141,-4.4824,14.7035,-16.4903,0.078085,4.7385,3.7295,-9.3015,9.1381,-23.4679,
-9.3154,-7.3561,-8.6519,1.2982,14.0669,-2.2931,13.8213,-4.9385,2.9542,4.4542,10.2273,5.3566,4.749,-12.2806,
-3.4753,-8.3552,-4.7724,-4.0618,6.0213,1.2048,13.4724,-8.0026,8.0572,-9.9131,14.8949,-9.0648,13.586,-13.9451,
3.4548,6.2461,-2.5652,-5.738,3.7396,7.8541,8.8233,-2.7217,1.8131,-19.7034,10.1604,-22.6209,14.6908,-18.8691,
5.1679,9.0549,8.1506,1.3283,16.958,5.4625,15.0151,-2.5579,2.6647,-15.6399,0.90881,-35.3637,10.929,-11.9758,
17.8206,0.34958,15.8226,11.3296,30.0405,7.5356,20.3553,-9.6065,2.0244,-6.5404,-9.2276,-19.1418,4.0321,-8.8568,
19.6321,1.2895,15.8341,15.4515,40.5435,17.6458,13.3733,-5.1893,-0.97696,0.57359,-12.5148,-12.5353,-3.8914,-16.0061,
4.3542,6.0129,12.9642,14.5244,24.0109,9.8655,11.6109,-1.0372,5.8023,-5.2215,0.71842,-20.4247,-2.6979,-20.8073,
-10.007,7.5729,-1.2569,14.6129,8.4703,1.592,3.2327,-0.97493,6.4151,-13.5498,10.2777,-18.2393,2.2656,-13.7982,
-11.4533,-0.083473,2.1789,10.3758,-5.6065,5.8172,3.5183,-7.1576,10.3505,-13.2172,9.1806,-21.4661,6.45,-15.3707,
-8.3653,-4.3992,12.1305,11.1932,-19.3701,13.6302,-0.052712,-6.2481,4.4487,-1.3818,5.269,-9.1358,-2.0986,-0.34842,
-11.2246,-3.6557,-2.6973,11.962,-6.0283,11.372,-10.1324,-5.3928,-9.7418,3.0214,-2.2483,5.5123,-11.0946,13.7725,
-1.9087,-3.4355,-4.279,4.5227,8.4334,12.6096,4.5756,-6.9901,2.3659,-0.039805,-4.0342,14.6067,1.0934,5.8704,
-1.7942,-1.3094,3.6593,-5.3501,22.0274,11.853,11.3258,-13.2923,-4.4976,-1.9583,-17.2353,3.1679,1.0278,-8.5818,
-3.1265,1.17,1.9998,2.1724,34.8057,-2.7809,17.8478,-12.9738,-0.86696,-1.3608,-15.7203,-11.1221,7.2077,-22.1669,
-10.6209,-4.6623,-4.8422,-0.83917,46.8174,-16.714,20.6172,-7.3951,13.2851,-14.7219,-4.2152,-24.5548,10.6156,-33.445,
-23.4268,-3.4217,-5.5117,-8.4704,58.1083,-12.1735,14.5795,0.73016,15.6714,-25.3609,8.52,-37.1815,11.8995,-24.7167,
-22.5007,-4.6568,-5.6605,-11.3225,68.7218,-3.2811,7.4635,-5.5548,16.1716,-25.2796,21.9324,-49.0506,22.2274,-23.7142,
-20.1903,-7.2577,-16.8437,-8.7227,63.5366,1.7169,-2.5862,-4.2611,8.4801,-10.3201,16.7752,-33.8765,12.2527,-15.5693,
-27.1409,-9.2236,-9.5919,-10.5998,45.6244,7.8546,3.8101,3.1957,11.3317,2.3018,9.5276,-17.7439,2.3947,-0.53512,
-29.3532,-7.7093,1.546,-14.7645,45.9441,1.6226,9.3431,-1.7968,15.4525,2.1637,7.996,-2.5793,4.1718,12.7619,
-29.0328,-7.7267,-9.5891,-12.4387,47.5082,-11.4375,-3.2207,-10.8105,0.42536,5.3947,1.2746,3.9429,-2.3201,1.9148,
-25.37,-12.0648,-3.2522,-0.17004,36.9762,-10.7512,5.615,-7.282,3.4575,11.7926,9.8396,-6.856,3.5807,-12.3001,
-31.0494,-8.94,-6.4178,-1.6007,42.9191,-6.7458,9.5988,-6.3651,4.69,-3.0149,18.3717,-20.5447,6.7267,-24.8285,
-27.266,0.23834,-10.8339,-10.1457,41.3044,-3.4603,16.704,-8.8635,9.2098,-15.14,25.9104,-33.412,13.0442,-26.2191,
-11.7069,7.4256,2.7793,-4.2563,27.7838,10.8474,29.8018,1.7507,22.5804,-0.13156,34.4382,-28.1728,26.3616,-26.0859,
-23.4873,-5.5027,-9.8702,-6.8812,21.3156,11.9396,13.9137,1.6452,7.1255,5.4607,18.2719,-12.3824,10.6799,-23.5612,
-21.1181,-6.1334,-5.4382,-4.5484,34.1366,5.4621,-0.84386,-2.2943,8.3153,-2.5485,9.1914,2.4605,3.7979,-12.5452,
-14.5703,-7.2053,-1.7502,-5.7155,31.9116,0.81359,0.64672,-6.4774,3.4956,0.96517,-4.3233,16.4129,-2.6715,-3.6309,
-14.6551,-7.733,-8.3667,-6.3325,18.4746,4.606,2.5288,-7.0487,-1.5149,12.4296,-5.9839,28.3399,-3.4712,10.6869,
-22.8982,-10.6298,-15.0663,-13.1541,23.6068,-3.8328,1.8971,-14.7883,2.8968,6.4022,-3.2249,17.5171,-1.823,8.908,
-30.1658,-8.0712,-18.0031,-15.2457,26.0321,-0.72157,-0.1367,-10.0593,3.6829,0.25734,2.7302,3.0238,5.008,-5.7265,
-21.1539,-0.38487,-3.9602,-12.8896,12.4674,3.6429,13.9715,-1.2937,17.3856,6.483,16.6664,-6.2796,18.8075,-19.4829,
-17.9647,-1.3227,-5.6425,-14.0371,4.0378,-1.3768,6.2343,-4.0969,10.5808,2.2533,24.1315,-12.6235,16.5427,-16.5189,
-12.0856,0.67709,-5.3044,0.90513,15.3183,9.2681,1.0591,6.7108,11.8663,-0.76227,18.8433,-6.1049,17.4705,-4.005,
-14.7213,-6.5651,-0.66538,-1.2473,0.29921,-5.3879,6.2762,0.066565,22.1967,-2.1574,18.1918,-13.9011,21.703,-10.9663,
-24.8803,-7.6116,-4.9458,-7.4127,-13.8187,-19.1647,-1.3014,-4.2577,10.783,9.9757,14.7008,-4.905,6.4781,-8.8679,
-17.1464,-7.6349,-5.1299,-1.6872,-24.6378,-3.9148,-10.3449,-2.5623,-3.964,4.0956,1.8156,9.4893,-8.0106,-5.9359,
-2.0176,6.9232,6.7007,12.514,-9.0595,10.4201,-7.8047,6.2334,-10.2714,0.0085835,-6.9353,23.0199,-13.1152,8.5203,
-8.315,11.6117,0.53746,15.9062,-22.616,23.8949,-9.2559,6.8198,-9.6546,2.8884,-9.3996,35.7387,-14.2477,22.109,
-16.938,-3.185,-0.93519,2.9499,-35.359,36.5612,-7.2601,4.9702,-0.91335,-1.6052,-0.67361,31.6226,-5.2318,34.8825,
-6.8003,-10.0182,-5.1998,6.1337,-47.3375,48.4675,-18.8277,6.112,-10.9409,-4.8697,0.80675,23.4845,-2.517,22.1762,
-8.7926,-7.9767,-5.3683,8.1661,-58.5972,49.3483,-21.0584,11.0264,-8.8441,-5.0579,-3.5629,9.1118,-0.92562,9.8037,
-9.225,-3.6573,0.71543,10.5569,-69.1814,46.3874,-14.9942,21.8872,-1.5918,-2.8336,-7.1899,0.88353,1.0498,16.8971,
-6.7511,-1.5175,-7.0095,16.6446,-63.8427,43.6047,-18.8957,14.8128,-11.0983,1.1767,-17.3204,8.5125,-8.6151,24.5252,
-5.3861,-7.1881,-0.82731,15.646,-49.4498,40.9884,-10.0795,-0.176,-3.7108,1.1061,-5.7188,22.1018,-6.1773,29.7744,
-8.9033,-8.6772,-0.77813,1.2645,-42.642,38.5286,-11.396,4.3326,-5.4085,-4.7214,5.1862,25.88,-3.8863,23.1876,
-11.2508,-9.1165,-10.3338,-10.3346,-50.6463,28.5353,-12.6331,7.9134,-7.0049,-8.2789,1.9942,11.844,-1.7332,9.3132,
-14.4156,-8.5695,-8.7529,-2.0321,-56.249,30.664,-8.0334,3.5979,0.13702,-1.0606,0.91463,19.7749,-0.66924,22.8544,
-17.8723,-2.7746,-10.6286,1.4497,-50.4737,34.1049,-15.7139,5.7819,-4.1929,-3.3978,0.37977,18.1084,-5.9098,25.147,
-4.3168,-0.68729,-7.1101,-8.2387,-40.7233,22.4571,-18.6109,8.3158,-3.9404,-5.1138,1.3169,2.9219,-6.5152,9.5382,
0.74342,0.31346,-2.8431,-5.824,-29.6383,24.95,-18.4547,7.8173,-2.7445,4.7949,-1.6424,-8.1185,-10.9255,-1.8991,
-9.3836,-4.9861,-2.1917,-3.0738,-32.1808,27.7747,-12.0667,4.9474,2.7018,4.9872,3.7368,-9.0713,-4.9883,3.4955,
-13.6217,-6.6073,-3.0206,-3.8498,-36.0116,15.5454,-11.3422,0.81027,-1.3015,1.8076,5.433,-14.2882,2.9921,-10.1569,
-7.0424,-5.2504,-6.6797,-1.6984,-27.1288,12.6932,-13.542,3.642,-7.9445,5.5404,-2.5741,-0.94815,-2.9486,0.055366,
-0.37959,-6.3758,-0.99861,-4.9568,-25.9815,16.2519,-1.6876,2.9431,1.6541,4.7275,-0.019239,13.2087,-5.1721,14.152,
-5.158,1.6878,-5.7399,-11.3815,-22.5023,19.1171,-7.3475,8.5276,-7.0871,2.5226,-1.9385,20.88,-12.5437,18.8859,
6.6738,14.0698,3.246,-1.0971,-7.0521,24.6917,-0.18601,19.5383,-10.5027,11.0137,-0.8622,28.2696,-2.1887,19.6736,
18.7566,7.4649,9.7738,1.8505,7.471,17.4494,12.3084,10.6854,-6.9917,2.6713,-5.6112,19.8519,-1.0974,17.5332,
18.5916,15.658,7.2669,5.5798,11.4693,25.0445,7.7295,20.6062,-1.771,-6.131,-2.3942,9.0588,-1.992,27.0431,
6.9137,16.6385,3.9492,-0.51665,-3.3188,24.5018,2.4641,23.2106,3.136,-16.3255,-2.2505,-5.5847,5.8091,20.6189,
5.539,6.9987,2.7523,0.47523,-13.9847,23.9916,0.39633,15.0963,-2.8138,-14.386,-3.0755,-19.3496,3.5406,5.2817,
2.3258,-2.0628,0.66722,6.2074,-0.6629,20.6322,-2.5083,1.7083,-1.6841,-15.4427,3.8306,-29.3573,-2.4335,-9.1352,
-7.4161,-6.7397,0.62718,6.7959,-14.7231,17.4734,-0.43783,-5.1158,6.0985,-15.4761,4.5608,-26.635,7.3149,-8.2325,
-7.4507,1.8266,-2.7708,2.0669,-10.7821,23.627,2.9497,6.2339,-2.4294,-3.5057,-4.8348,-22.6365,13.1172,-2.4573,
4.5182,4.5974,3.1557,-2.8583,3.9648,15.4874,12.3746,2.9786,3.4775,1.5059,0.25646,-19.3579,10.4098,-12.8718,
11.4492,-1.9196,-2.3139,-4.1272,11.2317,9.2779,8.2718,-8.242,4.7093,3.8159,2.6414,-5.2337,2.5841,-7.7783,
8.3618,-9.9664,-16.2751,-7.2399,-2.405,17.8431,4.4152,-1.5063,-4.6952,1.1866,-5.6781,-1.5585,-1.8922,6.7884,
1.6185,-4.0877,-11.7614,-8.2464,-13.303,18.2125,7.5102,11.5463,-2.0127,-8.967,-5.8183,-7.7066,-0.33871,20.4811,
2.4814,9.6007,-8.1749,-0.07006,-14.4252,19.9997,-6.3836,20.456,-7.6535,-6.5082,-0.66849,6.8558,-3.1983,23.6988,
9.5341,1.8231,-12.9651,-2.4658,-19.8009,25.0413,-3.5998,12.987,-6.7143,2.0439,-1.1084,20.5445,-2.5264,16.9953,
6.5621,-5.4878,-13.6281,-13.3602,-21.9736,18.2581,5.7386,5.9671,-8.7114,6.242,-8.2434,21.838,-5.7356,15.4956,
8.0883,2.523,-0.32718,-7.7578,-6.5552,11.401,10.195,11.3698,-9.1487,15.4699,-1.9872,19.5678,-5.3915,12.6459,
16.245,-2.4296,4.4927,-4.412,7.9381,0.155,8.6229,4.9264,-6.6803,12.6204,1.0124,18.3933,-3.1476,-2.2128,
19.591,2.0369,-3.9384,1.1344,7.5872,3.5056,0.90397,4.1499,-13.481,8.5024,-10.0907,12.008,-6.3195,-16.1801,
13.1344,6.2369,-4.1816,-0.3741,0.89129,9.5373,3.251,2.4615,-13.1517,4.6328,-21.4871,5.0473,-9.3007,-12.9347,
12.3463,-6.6206,-3.9307,-8.0332,2.7577,8.9651,-6.5464,-1.527,-12.3626,3.394,-19.2379,7.6244,-18.3451,-2.5572,
17.8467,-7.6637,2.5463,2.5307,-3.6489,6.9868,-9.5149,2.8858,-1.5389,15.1931,-3.9837,20.1296,-9.0824,11.6963,
2.6759,-17.7663,4.3135,-4.3427,-17.5299,-7.5324,-0.30158,-6.8897,1.4342,14.2815,4.7196,16.0411,-0.85587,5.0565,
5.0939,-6.1379,5.9755,-0.24047,-2.3781,5.0996,9.3189,3.1261,-1.5326,25.9078,0.59655,27.5618,0.15545,12.4346,
11.989,-2.4089,1.2962,-0.70694,0.16492,5.2736,5.3981,-4.2631,-1.9207,15.2309,-1.8401,11.8081,-3.2147,-0.31375,
15.1104,-6.1051,3.1384,-11.2269,-8.4869,0.15551,6.995,-13.6097,-0.84546,0.21708,-2.6905,-3.0004,3.6998,-11.8173,
9.403,0.98278,-4.7315,-16.314,6.1223,9.7486,10.4161,-3.1907,-0.79473,-6.8207,-3.4891,-16.3889,13.0802,-4.3866,
5.9585,-5.7982,-7.328,-19.1764,11.8192,6.2833,15.5523,-2.9997,2.1333,-11.2126,0.5615,-29.5056,12.2949,-7.9647,
8.0014,-4.0099,-4.4879,-17.5454,9.6701,9.2666,10.298,-6.1801,-7.1157,-5.2587,1.0073,-18.9169,4.3561,4.516,
5.6004,-4.7293,-0.37786,-27.055,9.0899,4.8699,7.7601,-3.8893,-9.5696,7.54,-0.01307,-3.6819,5.0547,11.9266,
6.2248,-10.2067,6.3669,-33.1133,20.0673,-5.0243,11.1349,2.1052,-3.2343,13.8088,2.8681,10.639,-1.0097,-2.889,
7.2913,-3.3527,4.544,-32.5669,26.0639,0.55792,8.0669,2.4589,-7.361,13.4602,-1.6248,18.769,-11.0315,-10.2199,
2.5335,-1.7111,4.7518,-40.6948,10.4001,2.9257,9.0232,-8.7306,-1.6381,1.6107,-3.9277,4.6801,-1.2477,-5.2864,
3.3415,2.2323,4.4667,-38.2531,-4.3239,2.7502,7.521,-10.1267,4.2209,-5.2075,2.0696,-7.123,6.5087,0.79238,
7.9417,1.1375,1.3179,-29.2363,10.0355,5.4651,4.1898,-5.6783,-1.7931,-9.6958,2.9054,-19.1789,0.35751,-8.8576,
10.346,-0.85069,12.7611,-19.8006,20.1731,19.2372,2.0176,5.2239,-2.6464,-12.9557,-0.14973,-18.9881,2.256,-8.3261,
3.9641,0.16078,13.9158,-11.891,10.3212,32.1829,-3.8646,18.3541,-1.5272,-6.4163,0.81968,-8.2469,5.0019,6.2735,
-8.7556,-3.6901,4.4398,-18.8591,-4.3981,21.2568,-10.3539,3.1528,-5.2759,-2.191,-0.18992,-2.9509,-0.099413,19.997,
-3.43,8.0532,8.9737,-12.9272,-0.59705,22.8617,-9.7331,-7.9019,-3.0398,12.0404,1.7419,11.3262,-2.9747,17.4831,
-8.5058,1.3293,6.0345,-13.5915,4.72,25.8108,-10.59,-1.1871,-5.2574,7.2999,-1.7234,23.9116,-9.0378,14.9933,
-15.677,-6.432,6.6333,-11.8161,-3.2448,18.5005,-2.2721,3.6858,-3.022,-2.7395,5.1015,8.3769,-1.774,16.0145,
-28.1787,-7.0061,-0.4863,-2.4647,-5.9305,13.5497,-7.8974,-5.1778,-9.5613,-0.65524,5.7554,-6.2257,-3.5875,0.95365,
-22.6467,-3.7053,5.304,5.3643,1.147,14.6571,0.25844,-15.429,2.5342,1.3045,9.2513,-19.9522,1.429,-13.2036,
-7.1879,-1.0827,10.267,9.3637,13.0805,18.0989,6.4841,-12.1029,3.8226,-10.7757,5.335,-32.8551,0.8628,-16.3784,
-1.1732,6.6639,7.7301,22.2441,19.0168,19.8938,7.055,2.7233,-1.2075,-15.8907,5.0149,-33.5354,-0.14894,-5.7933,
-7.344,9.6244,7.7468,24.2707,5.8734,21.1005,4.2313,7.1842,0.30532,-6.7753,2.3136,-17.4232,-1.5804,0.79542,
-12.1841,9.5278,2.0012,19.4537,12.7226,33.9345,-10.1226,12.9948,-10.7553,7.7312,-10.7875,-2.2778,-11.568,14.8477,
-11.9339,3.6745,5.241,14.9257,21.0807,35.0815,-7.8975,9.8143,-8.6701,21.0127,-10.6211,11.9588,-8.4731,28.0568,
-16.0186,1.5341,0.12582,11.1493,5.7159,18.8766,-5.5037,-1.3369,-7.1899,27.4335,-7.103,25.3413,-6.0447,26.9797,
-20.3382,5.7628,-3.2425,15.762,-6.9321,7.3594,-8.5343,-5.5775,-3.3977,27.2284,0.52472,37.9208,-4.2412,11.2609,
-23.4387,-5.6253,7.9944,9.5346,-8.9165,8.3577,-2.7406,-14.3643,6.8885,11.4947,0.97413,21.5456,3.2148,-3.5147,
-24.4337,0.95336,3.1935,2.7214,-7.902,0.65517,-0.17578,-0.54066,4.0748,-3.295,-2.4456,6.1528,11.183,-17.4038,
-25.3676,8.0977,-9.9604,-2.7226,-14.629,2.0558,1.2747,6.6934,7.1911,-12.8255,-0.85888,-8.3163,20.5944,-26.871,
-28.6467,-6.4881,-15.1235,-1.5993,-11.8308,10.5749,-3.6025,-2.3498,11.5604,-4.3745,-0.80644,-21.9174,8.7964,-11.1587,
-34.1295,-14.564,-13.7365,-1.0238,-14.4818,6.5791,-11.5484,-1.7293,1.7448,1.1692,-3.1593,-9.7373,-0.85334,-1.0641,
-26.3205,-6.0081,-4.2704,-2.8819,-16.4937,-3.4175,0.66733,2.2157,7.4013,-9.4638,0.87146,-7.2326,13.2979,-0.9998,
-17.0597,-3.7273,-5.9345,-4.6302,-1.4041,-0.33214,-6.0947,-4.6383,1.1961,-10.8163,-3.0221,-3.9183,12.8031,4.8204,
-15.5553,-6.864,-3.1781,1.8896,5.2249,-2.7126,-9.0894,-8.6813,3.5247,0.87544,0.52051,-7.0436,4.8338,-1.709,
-20.864,-3.0918,-3.4678,9.9373,-9.1886,-16.4725,-4.2228,-5.76,12.4352,1.3034,3.8496,-14.7829,6.9442,-10.7294,
-22.4925,0.9345,-11.9013,12.2219,-14.2211,-10.6825,-12.611,-6.3744,4.0075,-4.5365,-6.9437,-14.8559,0.76681,-7.2039,
-7.043,5.6792,2.9128,16.2893,0.73214,4.0584,-1.2929,5.5304,-0.073734,-4.2643,-2.6863,-8.2039,-1.2,-3.8917,
7.4796,19.4384,16.0034,26.3543,14.7882,17.9149,8.8671,17.2009,-5.3509,-3.5284,-2.0452,-6.2708,-3.5289,-2.2183,
21.0798,13.7745,3.0409,26.2139,28.0009,14.5646,12.6558,2.0689,-6.4698,-15.319,-16.0225,-19.9945,-1.8763,-8.3259,
18.3742,-0.97511,12.9408,23.2002,37.3113,11.2908,9.4966,-4.1191,2.0799,-12.96,-16.3242,-19.098,3.517,-3.5056,
6.7103,-4.7574,13.1244,17.9684,34.1127,20.2148,-3.5564,4.7695,-1.8848,-1.62,-7.6632,-3.8521,3.306,1.5055,
-4.7356,0.80878,6.0953,13.5285,31.5859,7.9596,1.9386,-7.5189,1.5882,-2.0028,-0.0018429,-9.5595,5.5076,-8.6672,
-0.12979,7.0019,0.44885,20.8793,27.2899,5.0821,-3.4594,0.13376,-3.7878,-0.44266,2.3991,3.0164,-7.7852,-1.9056,
8.0395,-4.4606,-5.8188,20.1065,23.2526,16.7795,-9.4925,14.2257,-8.8413,5.8255,0.8152,16.9354,-14.5196,11.172,
11.3984,-9.9541,-0.66936,10.2581,28.5786,25.3747,-1.2419,11.275,-0.6297,19.576,4.6066,30.0193,-1.1657,14.342,
-0.80875,-2.6353,-11.1916,1.0011,18.2224,15.2107,-5.0081,5.7968,-11.1543,15.8242,-5.2713,34.1056,-4.9365,19.2431,
-3.1611,-1.9972,-11.96,5.2618,7.0466,2.2948,-3.2677,9.7698,-5.2043,11.513,-3.515,33.4992,-5.1203,18.5685,
-2.491,-4.2777,-10.762,8.3065,20.5465,7.4383,-2.5912,8.704,2.31,23.7859,2.937,21.4074,-4.3327,3.3544,
-11.943,-5.941,-18.7578,-2.7534,12.5931,-0.68956,-0.51487,-5.9182,5.0522,16.5971,4.6816,6.0229,-2.1528,-10.9469,
-6.9056,-4.1446,-11.3916,1.7326,-2.2625,-12.6505,11.5183,-12.1069,15.7914,4.559,6.8006,-8.4385,9.9787,-24.3901,
-6.0113,-1.496,-11.189,8.8293,4.2903,-19.093,-0.21602,-8.9806,0.92077,0.92463,-6.5706,-22.0322,0.25757,-21.4357,
-4.2107,-4.7661,-3.3152,6.8596,18.1329,-12.6667,-0.68213,-6.0409,2.3055,-2.4916,-0.89471,-25.9404,-0.23696,-19.6696,
-5.8775,-10.2413,-8.8774,0.68683,25.5105,2.1933,1.2792,-1.8382,5.0484,-9.0633,9.7218,-10.284,-1.1832,-4.3894,
-9.3666,-4.8261,-16.9872,-5.116,9.8799,7.166,-1.6784,0.19297,4.7455,-6.5986,11.0584,-3.6026,-3.033,9.9739,
-9.2841,-8.8577,-12.6068,-12.9701,-4.8129,-4.3067,-2.0581,-7.0206,-0.82041,-3.8023,4.1538,-0.98611,-1.4106,2.7802,
-7.2876,-4.9659,-7.53,-4.0308,3.5111,2.1928,-3.375,-6.119,-9.8931,3.6269,3.4241,13.1731,-0.84555,-5.5486,
-7.8098,-2.7467,-3.237,2.9331,9.0625,-2.739,6.4303,-8.6322,0.30239,6.2906,5.139,5.4852,2.0855,-9.056,
-8.3012,-3.5428,-9.7644,-6.8453,-5.5812,-16.6747,3.1637,-6.1943,2.2042,3.0323,-4.7708,-8.2871,0.04047,-15.2342,
-9.244,0.030594,-18.3,-12.6762,-11.7916,-13.5765,-7.1085,-1.5019,-0.32799,1.4095,-5.9254,-0.58833,1.478,-12.8802,
-9.1689,-3.3316,-12.8817,-15.276,0.91915,0.20079,-0.44085,-8.6129,5.9328,1.8054,5.4729,-3.9143,5.7105,-4.9054,
-8.6192,-3.1312,-12.1084,-14.359,14.3067,9.7907,1.5069,-5.2158,0.77567,3.6174,7.0649,-9.4397,1.5267,-4.6106,
-4.7408,-3.4238,-11.8623,-9.1771,9.1271,8.7228,3.8169,4.2191,6.0103,-4.7616,5.2006,-11.2746,6.7162,-4.8144,
-5.8977,-4.6588,-9.7101,-5.2662,8.099,6.759,1.1866,8.2863,7.0901,-7.8362,-1.3535,-5.3169,6.7928,9.5745,
-3.623,-3.4193,-1.446,0.81144,21.7131,7.3135,-1.7654,18.3515,-7.4353,2.2354,-6.073,9.1021,-0.33545,23.1,
10.6944,3.9874,8.7232,5.0844,34.5103,4.4747,6.5029,14.8505,-11.6131,14.1045,-4.2678,22.656,-7.5169,18.479,
12.2763,-0.57301,-5.9002,-2.4227,44.5688,6.6066,-6.85,-0.14055,-19.0783,16.6186,-15.0545,35.3966,-21.1659,3.4476,
14.4205,-10.1401,1.3518,-1.3173,46.6954,10.051,2.2025,5.8059,-3.8336,18.5023,-0.051226,40.9034,-7.2363,14.7631,
13.0753,-9.0517,7.5123,-10.3598,34.7722,-4.6521,9.272,3.0576,0.060351,3.2922,7.4566,24.3492,5.2002,-0.22271,
19.0119,5.5914,-1.5805,-9.7387,46.7858,1.566,9.6761,6.7145,-2.8236,-11.0054,-0.67193,8.7882,-0.87301,-14.3094,
28.4336,17.0809,-2.4456,-8.1944,58.0787,14.9143,11.0154,4.3917,1.1866,-15.2726,-0.63253,-5.8391,-5.6214,-17.4174,
29.1279,1.9561,-8.54,-11.0631,68.694,22.1814,-3.7455,-9.9718,-12.9846,-3.3134,-9.7156,8.6113,-19.3841,-2.2724,
34.5818,-3.2647,-6.5877,-7.9984,78.6723,26.1313,-6.7043,-11.597,-26.3055,-3.5946,-23.2327,22.1946,-30.047,11.964,
43.0688,-1.1485,-4.272,-8.479,88.052,16.8814,-7.2624,-7.0609,-36.8558,-16.8216,-35.9387,6.7629,-42.3442,7.0508,
53.4479,10.9228,-5.4556,-5.5694,96.8689,27.8717,-8.2666,-10.958,-44.7269,-19.1731,-39.1899,-0.010306,-46.3469,-2.4938,
56.9621,14.1077,-1.288,-4.2757,105.1567,40.2994,3.7522,-17.9816,-29.5605,-18.9832,-37.7989,-5.7709,-30.1234,-16.4442,
56.4248,19.0224,-0.25028,-1.1379,112.9473,46.8261,6.4074,-7.3008,-22.9857,-19.7646,-38.4113,-14.0666,-20.6349,-25.363,
58.8004,19.8015,-3.1156,-6.8308,120.2705,39.2153,7.9433,-3.0224,-30.2485,-31.0614,-32.2654,-27.3226,-27.0779,-19.0401,
59.1137,8.0515,-8.6898,-11.2222,127.1543,31.1013,12.267,-4.7615,-37.0756,-43.2977,-38.0115,-39.7832,-33.1352,-27.4996,
46.4444,6.1275,-11.5292,-3.3482,133.625,21.0737,12.9719,1.7649,-39.1718,-48.2041,-41.0125,-47.124,-25.8664,-18.6481,
37.4166,9.1211,-1.7155,0.21397,139.7075,6.8465,16.5148,-10.3428,-26.7386,-38.1099,-28.4689,-40.9353,-19.9932,-15.1288,
35.1721,11.4551,4.1486,7.8831,137.3613,14.1177,14.5635,-11.6426,-22.254,-21.7233,-21.9595,-25.0365,-21.6739,-14.2206,
18.9617,-1.7149,-1.8615,2.609,115.0196,6.5486,7.9285,-5.1829,-20.9192,-10.5152,-20.6424,-13.9324,-16.5323,-11.447,
6.9585,-5.4533,4.0113,-6.1896,94.0184,-7.9443,10.3331,-3.9115,-5.564,-3.1632,-5.3039,-3.4945,-1.4403,-12.6806,
-5.9417,1.595,-5.8313,-11.5793,74.2773,-21.5677,2.992,0.16349,-0.12631,5.6686,9.1144,0.55551,6.6299,-12.8801,
-7.5052,5.341,-4.5214,-5.123,55.7207,-23.7598,11.454,5.9153,6.6029,3.4085,10.1337,-5.2385,11.9937,-1.545,
-8.0157,1.1798,1.5115,-7.6964,38.2775,-25.215,9.8068,-1.1612,3.3259,-1.5976,-4.5743,-4.9242,6.4733,-1.4523,
-8.0139,-4.1726,0.9408,-10.5954,21.8808,-19.3804,2.0168,-1.5715,-1.1935,1.859,-0.28129,2.5728,1.7642,-5.6859,
-8.9739,-7.2831,-4.3973,-14.2804,6.468,-22.5393,5.2566,1.8836,1.278,-5.4541,12.6979,8.66,8.8599,-1.984,
-5.5551,1.7959,-7.9738,-3.8217,-8.0201,-20.2265,4.9408,3.6909,-1.679,-3.2065,4.254,12.9407,13.1286,6.7761,
-4.7414,-7.4338,-4.135,1.6888,-21.6389,-17.5725,12.8063,-1.8117,7.5437,4.1879,2.5593,5.9231,11.8614,-1.7915,
-11.178,-18.5097,-1.0066,-4.1737,-34.4406,-20.3594,15.8792,4.0582,21.191,3.9362,16.5057,-3.0742,11.1492,-3.6044,
-22.9905,-15.4792,-5.7469,-8.7249,-46.4741,-28.7402,4.3631,2.8538,21.1822,1.7792,29.6154,-16.9898,14.321,0.45173,
-21.6106,-8.7892,-0.60089,-6.2801,-57.7857,-29.8962,6.0226,-3.0777,26.6324,5.5137,33.2445,-25.8755,26.9045,1.385,
-24.1557,-4.4211,-7.2864,-3.9834,-68.4186,-14.6601,4.7004,4.7876,20.2337,5.1829,25.4883,-10.2229,20.4886,1.3019,
-27.9871,-10.3974,-5.4093,-8.0651,-76.8944,-8.4989,4.8993,-3.6603,15.6589,9.1926,18.6782,4.4904,12.0586,3.6247,
-27.2678,-13.6144,-2.2039,-10.462,-63.6392,-7.9889,-2.1163,-12.0831,12.7985,20.1634,23.3192,18.321,13.255,14.9295,
-33.7937,-8.4763,-14.0745,-4.5531,-61.2613,-7.9901,-10.1513,-0.31529,12.5111,16.5532,28.1612,24.8523,14.8601,6.8326,
-38.4877,-10.8485,-8.4283,-6.2008,-71.6856,-9.4306,0.060191,-5.098,15.6012,10.7593,20.7099,19.5204,14.9294,-7.6773,
-30.8968,-2.0361,4.0797,-0.54711,-59.5261,5.0584,1.4965,-4.3122,10.3444,22.1161,13.2266,32.4492,17.3935,6.8833,
-35.2846,-1.4335,-4.3271,-2.9147,-66.0355,0.43369,-0.033669,1.2287,12.1241,17.4288,13.8734,29.8449,16.8303,20.5703,
-40.3691,-6.6287,-9.3487,-5.1401,-76.1734,-4.8735,-0.51117,2.5944,10.9171,10.141,13.5205,21.8131,8.6194,14.3576,
-30.2654,-0.46977,4.655,5.7302,-63.7446,9.5189,-1.4409,8.1999,8.3417,17.2145,9.8289,26.2655,6.1818,7.735,
-25.0882,-4.7623,6.7765,1.0656,-59.4399,3.9697,-1.8345,0.50728,10.2411,2.0817,7.7992,10.5895,12.0525,1.0302,
-20.2226,-3.9971,-2.752,-2.3596,-62.1152,0.37029,-1.2449,4.7971,10.1071,-8.9092,12.6116,-4.1458,13.7288,7.2086,
-23.3305,-4.2372,-3.0669,-3.658,-58.8687,4.6688,-0.69019,4.0293,9.9806,-1.1731,16.1756,-5.9438,13.3851,9.1769,
-19.5293,-10.2237,2.3978,-4.8784,-46.2141,6.7904,0.79209,-5.3339,6.981,3.219,8.9644,-1.2655,9.2221,2.3856,
-24.1197,-18.2522,-0.62638,-2.6663,-57.5413,-0.33903,-3.0967,0.74636,4.6417,9.747,5.5462,11.2923,8.6683,5.1228,
-36.7725,-24.3587,-0.10881,-9.7069,-68.1888,-14.4187,-4.3508,-5.5391,9.6449,4.8414,6.6534,0.53329,10.549,-0.46527,
-29.1077,-8.7972,7.0997,-7.6841,-49.9975,-10.0155,2.1514,-7.6071,5.7049,2.1505,6.7346,-2.86,8.4757,1.963,
-17.2788,-6.0463,2.3525,-11.5443,-32.8976,-17.5765,15.945,-0.90956,5.8431,-4.2196,3.9301,-14.6902,8.4476,-8.2376,
-17.6825,-17.6858,-1.1494,-21.894,-16.8238,-30.6219,27.9515,-1.335,15.5749,-9.2481,5.1343,-27.9088,17.0622,-21.6656,
-18.0619,-7.5027,-3.4808,-19.1399,-1.7144,-39.6497,23.874,-10.3768,14.1599,-0.53123,14.9082,-34.2194,24.2005,-17.9653,
-19.3786,-9.4529,-2.7915,-21.3523,12.4885,-36.7903,21.0012,-15.0354,16.6716,-0.9798,25.0565,-18.0663,20.3481,-21.2086,
-32.3159,-22.9857,-12.2264,-30.6336,25.8392,-47.0661,8.2179,-11.2525,6.0689,-1.881,10.1099,-2.8823,5.0272,-17.0553,
-30.1996,-18.5485,-11.0124,-23.5144,38.3888,-41.8408,3.4045,-10.0969,1.3835,10.2347,6.143,4.6185,2.982,-2.1092,
-23.5869,-17.436,-2.6706,-22.1035,46.7223,-42.2116,4.1606,-15.2531,0.34101,3.8594,9.6147,-5.2605,10.4851,-16.0827,
-18.3305,-10.6282,-4.4303,-18.8564,33.3575,-32.9573,4.871,-3.7747,2.2405,0.74704,11.9186,-1.1041,11.7759,-19.2612,
-17.2306,-12.8709,-8.0048,-21.5658,29.4356,-30.9794,9.3799,-10.2702,7.8672,-1.2182,6.4032,-5.8391,11.0698,-14.2643,
-12.8365,-9.6987,-1.2838,-18.8319,32.9502,-25.7608,9.2971,-5.3333,4.0344,1.2557,5.5381,-5.9687,5.124,-8.1277,
-13.0262,-11.9976,-4.0876,-17.702,32.8941,-27.095,4.8985,2.6683,-2.9283,-1.7004,1.3651,-2.7298,-5.7449,-17.2424,
-14.1655,-15.1185,-0.0015419,-9.9188,25.1588,-30.271,9.4053,-4.2134,4.928,3.2024,0.32321,-1.606,-0.59944,-21.9686,
-14.2755,-9.4102,-0.96187,2.1987,24.6097,-22.6936,4.0398,-0.11937,3.6728,14.533,-0.6566,-4.39,-4.4047,-12.0094,
-8.6183,-15.5672,-1.8641,1.1073,22.1722,-25.1727,6.6782,3.7286,3.4524,7.8994,2.2636,-12.7691,-7.0212,-15.1296,
-7.1408,-15.5927,0.16811,-2.8004,8.3601,-27.5027,8.1979,-8.017,4.2057,0.7043,7.889,-4.3209,-3.7187,-23.8229,
-20.8123,-8.4169,-4.1632,-8.874,-6.2415,-23.4522,-2.3759,-18.5797,4.4329,5.9423,3.0944,4.0994,-3.016,-18.0732,
-29.4682,-15.1125,-7.2733,-17.4631,-13.8522,-27.3258,-6.5541,-16.984,10.4085,14.7082,2.4288,3.3744,2.4466,-7.8664,
-24.3398,-13.7262,-11.1581,-17.8557,-8.6999,-30.9674,-10.4821,-11.6447,5.4628,19.1069,5.6434,11.333,4.7001,-6.9149,
-21.919,0.5405,-0.88713,-12.9436,-13.9395,-21.4278,1.6692,-11.906,13.7766,15.0797,12.0264,6.8123,14.0196,-12.2607,
-17.2435,7.7096,5.4077,-9.7666,-10.7023,-6.0421,13.5714,-4.95,27.05,7.9342,18.5063,-6.5597,17.4992,-12.9659,
-17.1693,6.2862,1.2425,-9.1806,-6.2194,-7.7773,17.5587,5.9094,30.0509,-0.22433,24.1175,-14.8076,21.2509,-16.0287,
-15.1787,7.8294,13.6507,-10.5501,-7.7666,-20.7538,27.0671,4.5944,28.2483,-5.0112,29.3916,-11.9988,31.4977,-13.1466,
-21.4691,-2.7214,1.7897,-19.999,-0.098577,-25.7493,11.3431,-8.644,12.4534,-6.1509,13.5281,-8.8776,15.5079,-10.9174,
-10.0995,-7.8402,1.2019,-12.558,-2.4939,-17.9636,11.3193,-2.8442,21.0045,8.3182,19.1349,-4.0246,15.2351,-15.5436,
-8.0527,-6.8893,6.4105,-8.4437,-16.4443,-19.2857,18.8026,3.5681,33.8442,20.605,32.0868,0.53764,28.421,-18.9317,
-18.6118,-3.1152,-4.056,-11.2974,-29.5577,-6.1263,3.5745,1.9136,22.5157,18.8882,25.6644,14.6054,18.3769,-4.8331,
-9.8136,-3.8882,-4.7726,-10.62,-41.8842,8.3413,-10.74,-1.0821,7.0648,3.6549,10.0246,27.8291,3.1743,2.1785,
0.85716,-6.0558,-3.0463,1.0595,-53.4711,21.9408,-13.5822,10.0252,-4.7046,-7.9099,-4.6769,25.8052,-11.1162,7.3285,
-9.7566,-9.5337,-8.6247,2.9164,-64.3629,34.7244,-26.2109,14.2249,-8.2636,-7.4348,-12.2046,22.3365,-8.6551,8.8092,
-12.5316,-2.7196,-5.7069,5.1422,-74.6011,37.3911,-31.8394,14.8118,-9.2082,0.2124,-10.9919,35.0963,-12.4561,10.681,
-1.2178,8.9659,0.39717,17.316,-84.225,42.8292,-25.1283,23.5246,-8.6557,14.2997,-5.5316,47.0905,-15.5495,17.7217,
-4.5055,-3.5748,-2.9879,11.9558,-93.2715,32.0975,-25.0601,16.8319,-5.736,17.1052,-8.5601,40.0697,-14.137,7.5364,
-6.1551,-3.3599,-2.8082,14.1197,-101.7752,33.052,-32.1985,20.6232,-6.3513,26.6417,-9.0069,51.1092,-12.3284,11.8855,
-1.945,-2.1983,-2.6397,13.2725,-97.9152,30.1089,-28.3466,19.3858,-5.0103,22.1624,-5.5857,52.8434,-14.4695,14.0531,
10.6544,-1.1064,1.3595,10.5553,-83.3988,27.3424,-17.0434,7.6603,-7.5905,7.3904,-4.2906,38.1504,-12.6404,12.25,
13.8559,13.06,5.1187,16.6436,-64.2948,33.3834,-16.0208,15.8422,-14.8166,7.9069,-4.9931,43.5429,-12.8429,18.2357,
1.5023,8.7387,0.97078,6.0435,-74.5371,22.7389,-20.8203,15.8526,-6.246,4.5517,-5.6535,32.2889,-13.9922,8.5,
-4.3495,-2.348,-2.9282,2.8001,-84.1649,19.4537,-26.2926,7.2198,-4.9113,3.3186,-2.4344,20.7491,-9.3119,8.9509,
-4.0885,-3.1675,-0.83216,13.194,-81.3386,16.3661,-22.7947,-1.8553,-7.497,9.8406,-1.3279,23.3454,-3.952,6.4934,
-5.2836,-3.457,4.499,15.7627,-75.0178,8.1821,-16.1467,-3.1844,0.15395,22.2129,-7.4894,31.0657,-11.8769,-2.0582,
-3.5262,-5.6509,4.7085,10.4966,-62.3552,17.774,-15.6575,9.9694,-3.2156,29.0412,-8.4804,34.483,-17.4054,12.1653,
1.0061,-12.5125,8.7477,-3.0964,-49.492,17.1875,-7.5165,6.9704,-3.5027,15.2964,-7.4916,20.4117,-9.1595,12.6981,
5.267,-1.6802,12.5436,-12.0321,-41.2413,13.7555,-8.5054,3.1923,-1.8526,17.7394,-8.482,25.4286,-9.0899,-0.066136,
0.14976,3.2218,11.7905,-18.0318,-52.2095,12.9306,-11.8363,6.8411,-3.6618,30.7751,-6.0527,37.3456,-11.4258,14.0378,
-8.5012,-5.6135,4.362,-30.3926,-57.7189,2.5528,-6.3249,-1.2514,-6.3224,25.3909,-2.8092,35.1044,-13.6206,19.2594,
-7.5111,7.6865,-4.0613,-27.1291,-40.1558,13.4411,-0.66472,4.1053,-1.6223,24.3475,1.6801,39.2397,-5.6018,9.9423,
-7.06,-1.4171,-5.7385,-29.3416,-31.2021,11.6746,-5.4256,1.9382,1.3558,11.3643,-4.1814,22.7853,-3.3458,-4.0965,
6.8063,-5.1729,8.049,-22.7804,-22.6084,6.1734,-4.1401,1.8219,-3.5263,7.8016,-4.8914,7.3182,-9.8657,3.8309,
3.0376,7.1403,7.0856,-12.2916,-13.0899,5.3235,2.3495,5.0738,-2.8352,10.6948,-5.0775,14.4348,-6.8734,1.2006,
-11.2447,-0.96971,-1.021,-22.116,-26.4045,2.1233,-1.6323,0.92861,-0.74422,-3.3901,-10.5344,3.9673,-2.6202,-9.4338,
-2.7116,-1.3915,-2.3997,-21.2691,-24.6434,13.0382,-2.0143,9.0344,0.74038,-1.7458,-2.7008,-2.5124,-3.9029,5.0554,
-2.5489,-8.0291,-3.2162,-19.9934,-30.8464,0.73314,0.9869,-4.9504,3.5763,-3.5615,2.2625,-1.4012,-2.7093,-4.8508,
-5.2768,-3.7071,-1.1028,-17.8338,-31.8764,5.4904,-0.99271,-1.773,-0.47859,-3.3482,-5.5553,0.60234,-1.5863,2.1623,
9.1398,10.6153,2.3246,-4.761,-15.8638,19.2609,-2.3726,12.4334,-2.8502,5.0147,-4.7415,2.9675,-1.9715,16.1326,
12.2558,6.9212,4.1051,-7.3557,-29.012,32.2053,-3.1912,12.471,-2.6792,-2.0078,-3.4971,5.6702,-11.4547,25.5497,
9.5992,5.5455,11.5399,5.5679,-41.3713,44.373,2.7615,14.6031,-3.4789,11.5554,-2.3268,19.43,-8.8471,27.857,
14.3049,12.4144,13.2483,11.4755,-49.754,55.8106,5.9566,18.0476,-0.86933,24.9621,-4.5881,32.3642,-5.9163,32.4272,
12.0062,3.5075,8.1331,10.3065,-32.6688,44.5516,0.318,7.8428,-1.2976,19.9272,-3.8323,27.187,-9.8816,25.2004,
1.2034,10.4991,5.2438,16.8901,-36.1671,40.4381,-2.1014,14.5743,-4.5801,6.7288,-0.24206,18.3546,-3.0476,17.4472,
-0.78917,9.8687,2.0488,13.9563,-48.0971,24.5691,0.90499,12.7394,-4.3057,-1.357,-5.0278,3.1534,2.8964,3.9176,
11.7409,9.2766,-0.9549,22.7204,-32.0713,21.1751,3.7315,11.0151,-1.1666,10.2468,-5.687,2.6606,-0.15817,12.3241,
12.9573,4.8792,-1.8576,24.238,-22.465,34.0045,6.3884,10.3542,2.7442,7.712,-3.425,16.6009,-3.9895,24.0679,
9.2986,2.6661,4.975,20.8634,-26.8787,42.8293,1.2039,9.7325,-1.2617,0.52726,-6.0998,19.7492,0.091142,24.5442,
19.3031,13.0685,16.1988,33.0538,-11.166,46.0203,-2.7091,18.7509,-5.0268,8.1772,-2.8539,6.082,3.9264,24.9915,
9.5034,1.722,7.5463,16.9706,1.3295,29.1591,-3.5065,6.1035,-0.88439,-5.7557,-1.7218,-8.3829,-8.7923,9.392,
1.732,4.9799,-6.8301,5.5682,-12.8503,33.3484,-0.89575,3.3369,5.4107,-2.05,0.78186,-9.6235,-5.8635,5.165,
-4.6139,0.35991,-11.7015,14.3552,-23.9048,32.787,-6.1232,5.5362,1.7248,11.0357,3.1353,3.9166,-1.1914,9.1754,
-12.4982,-7.8237,-3.7974,18.775,-10.4682,19.7779,-13.9178,5.6845,-3.6598,8.9332,2.4668,16.6444,-13.1227,20.6276,
-13.1892,4.6481,5.552,29.6518,4.2599,32.6912,-8.761,15.4258,-3.9202,13.6788,0.87881,29.7457,-8.0137,33.49,
-14.7986,5.8096,5.6984,26.4313,1.4267,34.8732,0.88566,6.3382,-2.2446,5.6561,-4.4551,19.6212,3.5091,21.2218,
-16.7911,0.6598,4.397,20.0452,1.3411,33.7413,-2.0478,9.7992,-0.18954,-2.3644,-2.2674,11.7228,0.41815,7.4657,
-26.8255,-8.5013,-3.0684,14.5217,-4.0201,29.3169,-8.1657,10.6512,1.2627,-6.5433,-2.6113,4.7788,-2.9677,7.4978,
-27.6168,-9.4321,-6.2451,17.0103,-11.9409,23.2362,0.48582,-1.9902,1.666,-13.3523,0.90613,-9.608,1.5311,1.7672,
-23.0794,-1.1846,-2.9896,20.7904,2.8755,25.6828,1.4166,1.0091,-4.1947,-16.3928,7.5724,-9.8155,-4.3224,8.3818,
-27.4558,-3.9934,1.0306,5.443,12.6076,17.4202,1.3316,1.9094,-0.10221,-19.25,-2.4834,-17.8681,-4.0631,0.19737,
-22.4472,2.4873,-3.3525,-1.427,12.3316,19.7363,9.4137,2.2753,-3.4564,-18.5746,-16.4344,-30.896,5.3027,-13.9145,
-14.3788,7.1393,-3.1509,11.1414,23.1145,19.5125,13.6501,6.94,-9.9702,-24.1812,-17.1914,-33.6653,2.1042,-22.5042,
-7.7554,2.8697,10.4809,14.3132,35.8276,14.5005,13.7906,3.6423,-1.6909,-26.5716,-7.5189,-18.2035,-3.7832,-15.3928,
0.87194,6.0583,7.4512,22.5769,47.778,27.7305,8.6424,2.9438,-1.1094,-10.8773,-2.7461,-3.1882,-5.9562,-0.36926,
11.8615,2.334,4.6042,26.503,59.0113,40.1667,13.4046,4.2071,-6.3236,-6.0807,-5.9421,-11.1584,-7.0397,3.7968,
17.8714,7.9556,12.0095,22.032,69.5706,48.9253,15.4811,6.8355,-11.7058,-11.4775,-16.1479,-13.3697,-8.5381,2.609,
14.3983,21.4014,4.0874,14.4694,79.4964,54.1513,3.5099,2.1046,-14.3642,-20.8703,-27.1814,-22.649,-13.3066,-5.709,
23.6163,14.8362,1.4418,16.9615,88.8266,59.0642,5.6997,2.4579,-8.2212,-25.8602,-25.071,-35.3901,-12.0277,-19.4665,
36.2993,13.4655,0.87482,19.3042,97.597,69.6204,5.8382,15.2731,-21.6515,-30.5497,-34.6095,-43.1722,-23.3088,-17.6417,
48.2214,20.3396,0.82278,9.5049,105.8412,79.5432,10.2891,0.25674,-34.4525,-42.8167,-46.6329,-54.6819,-28.6314,-24.2643,
59.4281,31.6015,9.4149,12.7754,113.5907,79.6976,20.2341,-11.5837,-32.6871,-54.3477,-41.2559,-65.501,-23.0728,-36.9084,
69.2546,35.9466,11.2504,19.21,120.8753,65.7938,22.3804,3.2113,-29.2854,-48.3314,-34.4603,-69.3778,-21.208,-48.7939,
68.9401,29.949,13.4553,14.2166,127.7228,47.7462,29.6791,6.6821,-27.5292,-59.5315,-32.3926,-79.3152,-15.1357,-57.5154,
64.8042,31.0324,12.6484,15.284,134.1594,30.7814,26.9388,-4.2807,-31.6386,-56.2633,-28.5287,-88.3021,-12.3062,-53.104,
55.1543,33.9712,19.5711,18.2077,140.2098,14.8345,26.2825,-6.9047,-21.0979,-38.7875,-22.0162,-68.904,-6.7671,-37.4355,
42.2431,18.4912,15.5165,14.2349,145.8972,-0.15555,22.7851,-5.53,-21.7524,-22.3602,-24.5356,-50.6698,-8.2815,-23.6666,
39.2285,12.1,8.3448,16.7416,151.2434,-6.6395,25.7388,-0.87741,-17.0865,-18.9719,-8.9634,-33.5296,-2.5029,-21.7666,
34.9544,17.1352,12.6444,17.6575,156.2688,-12.9623,31.8765,0.13566,-1.9613,-9.1916,5.6744,-34.93,11.7472,-28.1417,
18.7571,19.9483,6.1245,11.7968,150.3003,-26.2845,23.2427,3.9688,9.9819,-6.7197,16.9825,-39.5554,18.0662,-19.7321,
3.5317,4.6514,2.3963,1.0066,127.1822,-37.9743,19.4464,-2.5119,9.862,-16.3989,9.722,-41.5037,17.4622,-19.0281,
-8.3288,-5.0528,7.0537,-0.97414,105.4513,-37.6153,14.4393,-7.1615,16.9523,-13.4946,18.7406,-28.4507,20.2557,-21.7268,
-16.951,0.53159,-7.2922,-6.1969,85.0242,-35.8388,-0.34974,-3.3714,10.654,-5.4838,14.2549,-12.6436,17.6,-17.0628,
-19.7748,-6.2219,-11.6554,-19.2673,65.8228,-43.29,9.2727,-4.1291,11.9356,-6.1148,3.7981,-4.3808,16.544,-12.1983,
-23.8695,-9.2089,-6.6358,-18.5917,47.7734,-45.0138,7.276,-6.2817,3.0575,-5.2674,2.1298,-2.6775,6.4294,2.6336,
-25.7981,-3.3761,-0.95647,-4.5135,30.807,-47.5941,4.439,-10.2261,4.3144,-2.551,13.0439,-4.9172,8.444,8.5395,
-28.571,-7.4943,-4.2599,-6.6435,14.8586,-53.86,5.6136,-15.8532,15.0979,1.9228,15.6221,-8.943,16.0989,-6.0729,
-38.3786,-19.5269,-18.1043,-16.8063,-0.13293,-45.8276,-7.2056,-12.0212,11.3112,15.2506,6.0433,4.0759,10.3322,-11.2924,
-37.9963,-28.9177,-11.5595,-16.7579,-14.225,-47.8787,-3.8933,-16.1016,13.5134,16.2555,7.6015,12.4738,8.7523,-11.5748,
-24.6741,-17.0998,1.1368,-5.6705,-27.4715,-51.2472,3.5423,-21.3766,7.4214,5.1983,10.5057,1.6434,8.7076,-7.52,
-20.3133,-9.3527,3.9489,0.43087,-32.6935,-41.4512,6.2101,-10.4921,-3.5858,2.966,5.0742,-5.1772,9.1447,4.454,
-32.0573,-22.8915,-10.2107,-7.757,-23.5308,-45.2053,-5.2044,-11.303,-11.5327,2.3076,-9.3302,3.2954,-5.504,2.7463,
-24.8531,-18.9404,-12.9593,3.7503,-12.037,-34.3319,-9.2133,-7.2644,-3.6396,16.0927,-9.0736,17.1977,-7.3968,13.6235,
-15.1999,-10.6024,-4.0202,-0.79545,-25.4148,-37.5527,-4.3398,-14.0292,8.582,10.8055,5.5708,9.7469,6.9692,6.5644,
-6.1259,-12.3675,-0.41775,-9.8697,-37.9899,-40.5807,-8.4006,-9.8271,7.5867,6.7968,10.3409,1.961,-0.65005,2.8102,
0.96276,-13.5449,-9.0347,-2.5555,-28.6343,-31.4247,-10.7769,-2.5164,12.8926,13.1102,13.5617,2.8038,0.34937,10.3236,
-2.9358,-17.5339,-9.4525,-2.4021,-32.6779,-25.6985,-2.4488,-12.9269,22.6814,0.80121,24.2703,-11.4645,14.4284,-3.739,
-8.5213,-10.7207,-6.005,-5.1393,-27.8369,-15.5146,2.4985,-2.5502,18.4393,-5.008,24.7336,-21.6426,20.5861,-13.1166,
-16.1711,-20.1594,-8.0451,-12.032,-34.3278,-26.5856,-6.7725,-3.8367,9.1718,-0.38633,12.2077,-6.244,6.3891,-4.1676,
-16.1612,-24.7114,-3.7216,-9.3902,-32.269,-29.7921,-14.0477,-9.3681,4.7808,11.1592,11.4752,5.4766,0.24411,7.6048,
-14.2316,-17.4671,-0.61843,-3.0651,-16.8897,-22.2439,-9.3641,-7.8461,5.4539,8.5688,9.8267,-1.5736,0.22946,-6.9515,
-9.0565,-14.0183,-2.9812,-7.202,-24.9978,-24.2691,-0.64068,-8.8152,16.169,2.7739,9.7171,-0.038324,2.6165,-10.1983,
-8.5131,-14.1376,-10.4835,-6.7703,-37.5979,-23.7734,-13.085,-6.3659,11.3585,7.4087,12.0144,14.064,0.53914,4.5136,
-8.9632,-11.3694,-7.9345,-6.3641,-41.4073,-24.2678,-15.1807,-2.1432,4.9154,7.9241,11.2936,14.4828,0.50679,17.9886,
1.6575,-2.5253,-1.2173,-1.661,-30.7608,-19.4505,-6.1079,-0.57421,2.2201,11.769,4.3748,12.1734,0.95591,2.9857,
9.2396,-5.2545,-2.1042,2.2794,-14.8152,-16.3626,-6.7014,-0.53976,-1.7539,13.9446,3.1524,16.2447,2.8194,7.6082,
3.404,-19.0393,-2.4584,-7.9402,-7.382,-29.3045,-2.9389,-5.7886,-0.20916,-0.99209,5.3636,1.17,0.24987,6.6713,
13.7621,-6.1973,6.3306,3.0986,-0.21749,-19.8647,4.9189,1.2803,-0.19569,-2.6761,8.8826,-13.0002,0.23488,6.271,
23.9783,1.3757,8.3521,16.8363,-9.3264,-12.4316,6.0642,0.72308,0.29557,-3.956,6.9092,-18.5881,4.542,-8.2053,
27.3403,5.1348,7.8509,14.8652,-9.7268,-13.6057,2.8196,7.4013,5.0795,-8.5193,6.4946,-8.8313,6.1894,-12.3364,
23.2995,15.8686,4.0186,6.7722,-0.98118,-15.1906,1.21,15.1183,1.4135,-6.5687,4.6646,-2.0603,2.4577,2.5038,
16.1409,7.2349,3.7775,6.3659,-8.6039,-20.9999,3.0582,6.5296,3.2495,-3.2938,3.4247,-11.5381,2.3102,6.017,
13.732,-1.3611,-0.77036,15.1059,-10.4889,-13.4987,-6.2472,3.7375,1.6141,7.9458,0.81887,3.2541,-0.22965,11.8972,
13.3881,-0.79949,-4.084,6.038,-9.3787,-10.288,-5.3924,-0.80752,1.0373,6.0291,-0.67113,17.1589,-0.69586,8.7834,
16.9055,0.68934,-2.399,-3.4467,-1.6144,-17.8331,5.9735,-5.0798,0.49508,-2.4942,3.6908,2.0294,1.7467,-5.8436,
13.9713,0.64798,-6.0959,4.4416,0.4024,-11.0015,0.81433,0.025703,-3.3754,3.4171,10.19,-4.9913,0.68195,-14.9185,
4.4906,-8.9933,-6.6901,-1.5856,-13.7217,-10.3414,-6.9161,-8.6174,-0.29298,-1.5896,5.7379,-0.85103,2.561,-2.5011,
7.1019,1.1487,-6.2887,-3.4104,-26.9984,-9.7209,-3.6203,-1.3787,-2.1953,-2.4542,1.5537,4.0017,3.3682,11.749,
17.7182,3.4806,-1.5906,6.8757,-11.2785,-11.5385,0.91767,3.9847,-6.3844,-2.7869,-0.94033,-4.3999,0.76527,7.9864,
30.7551,6.6321,12.6048,16.5451,3.4982,-2.6842,7.1038,7.1069,-0.72013,-2.1393,-0.40438,-6.5372,8.8813,-3.5347,
24.4117,12.4758,8.3105,5.4709,16.251,0.83763,1.3968,7.1605,-11.7193,-16.1109,-7.5808,-8.5449,3.0668,-1.8827,
19.1062,5.9656,-1.7897,-0.61895,18.1568,-1.1335,14.7553,-1.9116,-1.4146,-23.6099,-0.40526,-13.7938,6.7236,2.0711,
17.4799,-2.5539,-6.003,-2.9826,2.9674,-3.4654,9.5492,-8.0376,3.9519,-14.9917,3.9398,-20.1678,10.6409,-3.3339,
18.3515,1.4397,0.11832,-3.7632,-9.5166,-11.8994,3.2151,-0.83421,2.7544,-16.0126,10.4255,-27.5997,14.8037,-11.7759,
23.492,1.8342,6.3528,-5.9382,5.1544,-16.4662,7.3429,-5.1049,3.0691,-23.2125,3.5583,-30.2636,11.5155,-17.31,
28.8032,10.3657,3.0899,4.9804,11.3899,-1.3782,-0.77921,-4.7986,-0.95584,-7.7197,-7.2175,-14.3477,2.1822,-2.1714,
17.4735,7.8229,0.024634,4.6816,-2.7367,-0.032417,-9.374,0.29004,-1.8585,6.8435,-1.9837,0.61312,0.13132,11.7043,
6.3427,-1.768,-5.2585,-6.6416,1.7483,-6.2721,-10.2524,2.6735,-7.0286,7.5182,3.4169,9.3432,-2.2774,15.3228,
4.0422,-4.5427,-18.3852,-19.6863,5.4842,1.7858,-0.99482,2.5131,-4.686,2.2664,-1.5888,4.9419,-2.1407,6.7219,
11.0012,-1.8693,-11.0405,-19.9451,12.3567,-3.6021,5.3056,2.8423,3.7567,-2.1904,-1.0135,0.3246,1.3485,2.9578,
13.701,6.4044,1.6233,-4.6484,25.7153,-3.8668,-7.9751,10.8333,-4.6303,-4.4598,-7.1943,13.2674,-2.0932,10.9418,
11.919,-3.5823,1.5268,-2.6264,37.4387,-0.75402,-8.4565,3.4626,-12.034,-13.7937,-14.4442,4.7898,-1.0077,4.5246,
21.7662,-1.4465,8.1559,2.3319,49.2924,6.0128,6.1509,6.1347,-6.5112,-10.0861,-3.9761,-4.1391,0.97365,5.2131,
11.3378,4.881,4.3057,-0.20789,60.4348,4.2121,4.6441,7.2066,-0.83982,-7.0802,5.3849,-12.0523,-2.4456,6.3403,
-3.4424,-1.1726,-6.5141,-14.2954,70.9087,-0.84138,0.52468,-2.8273,5.9322,-13.3769,4.1019,-25.4292,5.3827,4.0399,
-1.1373,2.2586,-4.6833,-16.1412,80.7542,10.2515,-2.8676,7.4247,-1.6244,-6.3327,4.3357,-10.2834,10.3414,13.8799,
-4.4303,-7.9598,0.87892,-15.6527,90.009,2.4343,-0.29517,-1.1827,-8.729,-16.0356,-1.2056,-13.0276,3.4789,4.8851,
-7.0453,-5.5614,5.6269,-11.8332,98.7084,3.2482,11.2449,-5.9125,-1.4837,-25.6349,-0.1733,-26.346,13.8325,-5.9703,
-10.9433,2.9339,-4.7922,-11.6032,106.8859,15.0566,10.0902,3.5637,0.045303,-19.776,4.1579,-34.1899,19.2441,-4.1713,
-18.9287,-1.083,-6.4255,-18.589,114.5728,10.3115,7.5649,-3.3717,3.8834,-9.948,5.8292,-18.0385,8.4871,-5.8418,
-27.8749,5.2232,-4.5995,-14.1129,121.7984,12.0941,7.5905,-1.729,3.1699,-1.1891,4.0391,-2.8562,5.5775,-3.091,
-31.9636,2.9899,-7.2044,-12.3057,128.5905,21.9299,12.8967,0.29561,3.9406,-5.9185,4.7567,-6.3997,13.8844,1.8952,
-32.9266,-10.6327,-10.6129,-6.7666,134.9751,26.3757,10.202,-6.4437,0.82336,-7.4842,10.2329,-5.0558,7.2906,12.3439,
-29.0301,-7.1135,-13.8164,-2.5194,140.9766,24.7936,8.6304,-7.0166,-4.9872,-6.0748,5.7786,6.7704,-5.6296,15.4445,
-20.5672,-0.92551,-4.3455,-2.3687,146.618,21.3847,15.7937,-9.4769,2.0332,-6.6707,2.5506,9.2445,4.3101,7.7967,
-19.8136,-1.3504,-3.6052,-1.7461,151.9209,26.3428,11.4848,-2.6671,-0.48921,-0.98926,3.838,2.4487,8.3718,5.8876,
-21.9851,-2.7098,-4.8293,-3.0817,156.9056,27.1635,20.8786,4.6949,0.98055,-2.3703,5.0481,-11.7983,10.2708,-4.5476,
-20.6656,-0.62682,0.26164,-4.8172,161.5913,21.6925,23.4671,2.4929,-0.99867,-8.9492,-0.055958,-10.9126,5.8142,-7.1551,
-11.7445,4.212,-1.6744,3.1529,165.9958,28.072,9.5754,2.3428,-2.8591,-1.6911,-1.973,3.8422,-2.2166,6.7169,
-7.6795,-3.2423,-9.7364,-3.2774,170.1361,16.3062,14.2825,-1.1585,5.4739,-1.1097,1.5062,2.4734,3.1971,-7.6093,
-5.2979,-0.16696,-16.8329,-5.9611,174.0279,12.447,23.028,4.6726,1.3047,-5.8439,5.2566,-6.3165,14.5276,-8.1127,
-3.5396,10.885,-9.5818,1.5981,177.6862,19.8622,21.1658,3.9118,-0.21396,-5.0128,6.3816,-7.3779,17.9772,6.2968,
3.8739,10.7123,2.035,1.9822,181.1251,18.19,14.6147,3.1967,-1.6415,-9.0332,-0.24244,-14.1363,5.8557,-4.1629,
5.5623,15.8303,-0.96696,1.8633,184.3576,19.0195,7.9762,16.448,-12.1054,-16.1728,-5.9895,-13.2882,-2.1772,-7.7539,
-0.052182,13.4405,0.531,1.2715,187.3961,12.5967,10.8593,5.3788,-3.2166,-13.7625,-6.1101,-10.091,0.35428,-8.7286,
4.2717,6.3925,3.8599,2.6352,190.2523,7.5201,10.6878,-5.9863,2.2571,1.1633,-4.3036,2.5168,3.6938,-7.7249,
4.0154,0.24821,-5.0141,-2.3237,192.9372,-0.61265,4.2849,-0.82547,-1.7191,10.5181,-0.20458,13.8891,6.353,-1.5007,
-2.4671,-5.0483,-18.8132,-16.2843,195.461,-11.6182,-3.1738,-6.0576,-3.0568,4.6063,2.2085,10.6549,-1.2307,-5.7315,
2.4816,1.9762,-23.2683,-19.9311,197.8333,-4.1996,-5.8642,-4.7342,1.9282,-0.47081,6.8768,1.3732,-1.1559,-10.1883,
12.8951,0.89763,-8.429,-19.6952,200.0633,-2.9867,3.1301,-0.60842,13.3349,-14.5426,10.3058,-12.8092,13.0134,-21.0993,
17.883,0.84377,2.6391,-10.832,202.1595,0.072392,1.9814,5.1888,5.8132,-16.854,5.8458,-25.7861,18.2965,-15.9926,
16.8096,3.6735,1.5203,3.2602,204.1299,5.8292,-2.9387,3.917,-6.0584,-3.36,2.6147,-10.1389,7.5968,-0.93305,
22.5221,5.3735,4.3094,4.9855,205.9821,7.3999,1.0789,-7.8399,-6.6544,6.4436,-3.3034,4.5694,-2.461,13.2229,
29.3333,13.2126,-3.1507,0.36557,207.7232,10.3167,-0.42579,-8.8103,-13.4567,7.4978,-16.0683,11.1431,-5.6741,-0.88732,
35.2548,10.4999,3.7599,6.1053,209.3598,12.5785,13.0429,-1.5601,-2.0869,5.1271,-2.621,4.7129,7.1495,-11.3964,
20.6563,-3.5733,4.4943,2.8572,210.8982,1.2614,5.5379,-10.108,-2.9226,4.8195,2.337,7.311,-3.8427,3.3873,
17.9765,7.6839,-1.0565,9.8878,212.3443,-6.9763,1.8452,-6.1412,1.574,9.8115,-5.0044,15.0334,-4.0917,17.2841,
19.7783,10.1033,2.8481,10.2541,213.7037,-16.1597,14.2173,-0.97154,5.3199,-1.34,-6.6254,5.4894,3.8349,2.1471,
6.1102,-0.10442,2.6772,7.7198,214.9815,-12.3093,8.5635,0.047634,-6.5207,0.66123,1.4546,10.9226,-2.1559,-12.0818,
-7.6996,-14.1982,-8.0458,0.5341,216.1826,-4.8491,-1.5527,-3.7969,-9.0103,-0.33841,2.3273,9.3063,-2.9865,-7.0361,
6.8624,0.75374,-1.8023,13.9452,217.3116,9.5418,7.182,10.5309,4.9726,3.5218,2.1876,8.748,6.7942,7.4861,
2.9126,7.4296,0.2271,13.109,202.1664,23.0693,-7.3489,16.9242,-9.4258,3.3118,-12.0436,11.1034,-7.7135,21.1369,
-11.3622,-5.9789,0.693,8.0012,175.9364,21.8105,-20.1734,1.8088,-16.364,2.6327,-12.1041,20.5201,-10.9137,6.5518,
-12.4235,1.101,-4.1489,15.2022,151.2802,29.1439,-15.1218,9.5586,-7.7011,3.4351,-8.4975,29.8508,-5.4586,11.9199,
-9.7577,0.075424,-0.059613,14.2906,128.1034,34.1173,-5.5725,10.9055,-3.3978,8.0302,-6.0664,32.8609,-8.9714,25.3047,
-19.7351,-9.532,-4.8572,2.8703,106.3172,19.5866,-16.7609,-2.2316,-8.9551,16.1895,-9.5436,44.3311,-14.1943,33.6919,
-23.8313,1.1219,-12.7269,8.9402,85.8382,24.6535,-23.9173,7.9843,-12.739,20.4993,-11.3714,53.674,-8.0614,37.9116,
-20.4815,2.0155,-5.2426,5.5229,66.5879,25.0942,-11.9199,11.346,-7.1739,5.1693,-8.7692,36.3535,-1.817,25.0745,
-18.7721,-3.3867,-1.5668,-3.9304,48.4926,16.3874,-4.9635,8.2648,-5.3022,-5.5259,0.87895,20.0723,-5.0684,10.6073,
-27.7282,-5.5838,-7.7139,-7.0554,31.483,7.2422,-3.2253,5.3686,4.137,1.0468,9.9482,4.768,3.3977,4.6897,
-39.9872,-14.3708,-17.333,-12.8727,15.4941,-7.2923,-9.2729,-2.1546,-1.3915,6.2652,-1.6906,-1.7078,-1.1273,-0.87197,
-39.0284,-14.9489,-18.6934,-11.6209,22.3999,-6.1971,-16.8786,-0.58496,-9.47,16.9321,-10.7111,12.4947,-11.1416,1.5807,
-29.9655,-15.012,-17.5727,-13.8044,12.4144,-2.9453,-15.8659,-4.3916,-3.1411,15.9152,-3.3478,25.845,-10.4731,-0.43497,
-17.1253,-5.9497,-13.1576,-0.97292,14.0694,3.473,-15.3939,-0.76727,-8.2333,13.5204,0.21387,18.1785,-9.3648,4.8719,
-16.0977,3.0488,-0.84578,8.6869,24.7485,4.2246,-3.9079,3.1195,-7.7393,5.9876,-3.6397,7.4863,-5.9221,1.6996,
-23.2934,-1.4549,4.4866,-3.8366,17.022,-3.2296,1.6082,1.4924,4.7273,2.2684,-2.9405,-5.926,-1.246,-4.6439,
-28.137,-11.45,-8.7449,-7.9272,12.6399,-6.3966,-12.5883,-0.99795,0.12293,14.1346,-3.244,3.552,-7.4128,-1.0045,
-17.8068,-19.404,-5.3398,6.6485,25.3242,-8.8931,-11.6566,-7.6592,-2.7648,21.9285,-1.129,17.4388,-9.8484,10.5786,
-11.9376,-11.5187,-0.21915,14.2343,27.6451,-9.3209,-6.156,-4.3193,-10.2809,17.7316,-6.8233,30.4925,-14.0587,22.4257,
-16.0221,-2.1856,-4.0463,3.7783,15.4254,-4.9204,-10.5878,-2.1388,-11.5845,14.7482,-11.2142,25.428,-8.414,14.359,
-12.6604,-10.216,-4.2835,-0.76919,24.5813,-4.1443,-14.2733,-10.173,-8.4886,9.5425,-8.1405,20.5415,-2.6275,-0.60253,
0.10154,-0.48151,-0.66572,7.4385,37.2064,0.42422,-11.977,-1.401,-5.5793,12.3299,4.3493,25.5506,-4.8707,2.0113,
-6.1462,-6.6942,-3.0266,-2.1302,20.874,-13.7012,-8.8575,-7.5577,-5.7246,7.2693,6.4892,9.9176,-11.78,-0.51022,
-9.6177,-7.2521,-1.8846,5.6796,13.8604,-9.8211,-2.5649,-5.1838,-5.3806,0.11202,7.0602,-4.7775,-3.3921,12.9631,
-17.2026,-3.4571,-8.0131,1.0171,21.1903,-5.871,-0.97107,-0.55204,-6.4986,-11.8979,4.2358,-14.699,-0.78776,0.18301,
-18.5709,-3.7292,-4.172,-12.0057,5.9962,-14.6407,-1.3923,-3.8802,3.0132,-3.0221,5.4221,-8.5359,-2.1809,-13.928,
-20.8174,-0.14554,-7.2825,-4.0847,0.35481,-9.4415,-8.5104,-1.2465,0.43161,11.2593,1.7359,6.0762,-5.4108,-2.8335,
-22.9287,-7.3375,-14.0462,-8.1595,0.81442,-14.1557,-7.5198,-5.4925,-1.0333,13.7677,-3.6489,1.2141,-5.5662,8.3798,
-12.4315,-5.4577,-7.9231,-11.9911,7.9667,-16.6676,-8.509,-4.6834,0.46817,2.8588,-5.8313,-11.8224,-3.7918,-6.223,
1.2772,7.8334,4.555,2.8283,21.5887,-1.5676,-0.79641,4.7195,6.6812,-1.6331,0.76065,-3.911,-0.20395,-9.9936,
6.0022,7.3629,9.0829,13.0433,22.0364,2.1904,8.8533,6.3577,13.0024,-5.3763,6.4762,-13.2783,-2.1121,-7.4736,
1.8004,5.0003,-1.0645,0.73833,6.6143,-12.041,0.63965,1.1746,4.5398,1.6679,7.0476,-13.4425,-4.8662,-8.946,
-6.4692,-6.3411,-11.0821,-2.6668,-5.1281,-25.4186,-0.83868,-7.0575,-0.05336,-1.793,-1.5368,-1.5927,1.6674,-19.4516,
3.5209,0.76045,-2.736,5.1753,9.2796,-9.7934,3.0529,7.466,-4.8504,2.1558,-12.9674,12.6029,-3.2339,-4.1845,
15.7924,11.2767,6.0701,9.665,22.8228,4.8942,-1.9315,21.118,-15.1222,16.1265,-14.1097,25.9467,-13.6017,10.1666,
5.7229,-3.4999,-0.53525,-1.9568,33.1016,15.1624,-7.0968,5.751,-9.8937,15.9411,-7.982,38.4899,-3.6637,11.6033,
-5.1824,-6.9529,-11.065,-0.87894,17.6737,6.5716,-12.4321,-6.2933,-6.4188,13.0651,-5.5818,22.0805,2.3173,10.9075,
-6.3118,0.66539,-9.9216,-0.34576,13.252,8.5777,-7.365,-0.6345,-5.5541,0.27846,-2.8474,6.6557,-2.1429,7.8518,
-2.5719,4.9467,-2.1243,-1.7654,14.8573,12.3842,2.1989,1.8039,-1.8606,-8.8602,-0.27526,-3.5229,6.1476,-3.6612,
5.2635,7.5302,-0.076444,1.2209,25.4886,8.7599,-0.81434,6.496,-0.7885,-7.3682,-3.14,-5.2319,9.62,1.3597,
14.5501,0.35683,7.6097,3.0685,21.0785,-2.3271,3.0762,0.34553,5.0204,-6.9261,-3.9116,-2.0372,4.2412,12.8004,
10.3159,-1.105,-0.048913,5.2847,7.811,9.8143,-1.4296,-1.1156,3.2788,-0.26937,-4.1573,12.185,-2.2545,16.3527,
5.8566,-1.9991,-12.5278,0.16643,1.5812,15.9466,-6.145,-3.929,1.1617,4.548,-7.7482,16.0769,-4.0396,5.7696,
17.507,3.402,1.1866,5.4376,8.6884,5.8688,3.3457,1.5879,7.3331,3.7947,-4.8829,1.1896,-6.1976,13.5854,
10.2155,7.5191,2.5558,7.5117,0.96595,1.1954,5.5453,10.6146,6.4127,-1.7142,-1.2287,-6.0829,-0.54455,13.2507,
8.1617,5.6271,0.96159,3.7002,-6.2945,-1.2771,2.8117,7.5769,4.5871,-2.0913,-1.6359,-6.1988,-0.03189,9.094,
6.712,3.3695,-0.056073,0.59742,-12.6384,-3.1213,0.72311,5.2014,4.3128,-1.9658,-1.5377,-6.7868,-0.029976,5.6684,
4.8693,1.7274,-1.4927,-2.7983,-19.0808,-5.334,-2.6811,2.4894,2.6141,-2.3279,-2.8854,-6.8587,0.45181,1.9675,
4.0967,0.18338,-1.8835,-5.0317,-24.178,-6.4543,-3.9606,0.89965,2.9367,-2.6686,-2.2328,-5.9677,0.90514,-0.55089,
3.371,-0.30761,-2.2505,-7.1297,-28.968,-7.507,-5.1629,-0.59428,2.2805,-2.0285,-1.6179,-5.1296,2.2908,-2.9187,
3.1687,-1.25,-2.1155,-8.6228,-32.9915,-8.0175,-5.814,-1.5195,3.1037,-0.94595,-0.56087,-4.8218,3.1133,-4.6635,
2.9786,-0.21506,-1.9895,-10.0262,-36.7728,-8.4964,-7.3851,-1.4283,5.7983,1.0307,1.3927,-1.6517,6.7673,-6.3045,
-2.0009,-3.0821,-2.8301,-0.78224,-40.328,3.5357,-10.7828,7.2998,12.172,1.9289,7.0708,3.2481,13.0828,6.5561,
-9.5624,-12.4995,-0.73941,-2.6562,-50.3906,-8.1988,-6.295,-5.6214,10.4808,0.85316,4.7257,-2.7075,-0.18444,-7.9373,
-9.4691,-0.70767,-5.0163,-9.6979,-37.2853,-9.1472,-3.517,-4.8046,0.72996,5.1223,4.9226,-3.0255,-5.4546,-20.7269,
-13.2217,0.77611,-9.9965,-8.6356,-38.4085,5.5016,-5.7063,-0.19509,5.0074,0.49464,7.0276,-5.2443,7.8355,-10.3605,
-22.5103,-3.5921,-6.9959,5.9826,-48.1072,16.0365,-9.6847,-0.66337,-0.57379,4.7857,-1.5556,2.2719,4.0045,-1.5773,
-28.8408,-4.3361,-2.7349,9.2871,-59.3208,2.5925,-6.2233,-4.4639,-7.2605,2.5791,-6.2625,-4.5855,-1.9969,-7.2438,
-20.3892,-1.1956,-0.65039,-0.87209,-69.5069,-6.205,3.7521,-2.2757,7.2751,-7.1785,8.2132,-17.754,12.2229,-10.6504,
-23.4871,1.2765,-11.6542,-6.1009,-78.2993,5.2092,-5.595,6.022,9.5417,-5.3074,11.3834,-6.6069,14.1926,-3.7703,
-27.8386,-7.4416,-9.0341,-7.6548,-79.362,9.6983,-2.3785,-3.9408,1.2876,-2.1081,7.8196,-0.44882,3.7396,-6.4239,
-17.0467,-6.5156,-1.2909,0.96555,-60.5003,13.4367,7.8461,-8.9856,-2.1509,-3.422,2.0693,-2.8223,-1.766,-9.3997,
-16.9844,1.5574,-12.7362,1.868,-42.7703,20.3125,5.455,-3.6452,-0.10144,-2.2563,-3.8161,-2.6534,-2.6205,-11.7161,
-29.888,-3.8177,-13.412,-12.1672,-54.3041,13.8121,-2.0739,-4.8674,-2.4953,-1.6409,0.73366,-0.093354,-0.062411,-2.8516,
-23.774,0.73257,-10.2069,-5.196,-36.9458,16.3446,-5.3098,-2.1741,-13.3884,1.8179,0.21012,9.9942,-2.459,11.4195,
-8.2475,0.68861,-12.4753,2.7973,-20.6291,12.4831,4.6112,-3.9645,-3.9426,-3.092,-5.5641,-0.20696,-1.3515,0.95553,
