"AF3","AF4","F3","F4","F7","F8","FC5","FC6","O1","O2","P7","P8","T7","T8",
24.0847,-5.1943,8.0279,-7.0837,31.6404,-9.9173,-19.3616,-7.0837,5.1943,34.4732,-37.3068,27.8626,-7.0837,46.752,
16.5002,-4.4105,-3.3153,-12.7972,16.0468,-5.0714,-12.0605,-6.1865,9.1335,28.1548,-27.0405,21.9408,3.2587,52.9191,
18.815,1.0484,-2.6443,-14.3918,0.984,0.4272,-2.3647,-4.399,16.6125,25.9934,-18.3344,22.985,12.0353,47.3824,
7.2976,-0.90299,-8.152,-11.6389,-2.4482,0.40156,-6.9459,-3.1899,13.7273,25.378,-24.7901,26.328,4.7017,30.4395,
-0.2244,-7.9329,-1.5239,-16.1352,-0.88444,-3.873,-1.3344,-8.1932,16.209,17.7164,-19.0532,11.0536,9.6143,17.6846,
-2.0994,-11.2349,-0.48824,-16.1114,-1.7756,-2.6955,-4.0871,-7.7016,7.6815,15.7091,-13.1869,-3.7097,9.0374,27.013,
3.2213,-6.3103,1.9021,-9.95,-1.1974,-4.8957,1.3529,0.78886,12.4145,14.294,-8.1461,-12.527,13.6899,28.6976,
11.0559,-8.2932,3.2053,-17.3809,3.1245,-10.7414,-0.14557,-0.67575,9.309,6.3527,-19.4632,-11.3033,8.6185,17.0593,
19.3652,-7.323,2.5404,-13.0327,16.6318,-3.957,-8.1652,-4.8857,-1.1673,10.222,-30.1017,3.4749,-5.5934,24.0632,
20.0917,-7.8288,12.7774,-2.8056,15.6347,-6.5533,-2.9522,-9.3147,0.79211,13.3866,-30.1841,6.64,-11.8693,23.5636,
17.9424,-0.74707,11.0661,0.19597,17.5299,-4.2711,-1.8313,2.5783,-4.9223,18.2502,-31.2062,20.3416,-10.2125,25.9282,
16.8654,1.1867,0.95735,-2.649,14.5891,-4.9596,-0.77674,-1.3547,-2.738,19.9884,-25.5564,30.5221,-5.8223,22.4835,
13.0199,-6.4403,-0.04434,-4.3794,7.1022,-8.4399,2.1035,-15.3734,2.1485,16.9006,-17.4115,15.4677,-10.1951,17.3566,
9.8776,-5.5822,2.3194,-6.4778,10.9266,-4.6273,4.3384,-9.3236,-6.0079,9.7476,-13.0615,3.6785,-11.9445,28.1215,
13.0637,-9.0243,4.0696,-9.867,10.271,-5.2939,5.9675,-8.7633,-7.5368,-4.9372,-17.9442,-5.0431,-8.3941,21.7121,
14.6405,-4.2337,1.4639,-4.0807,16.7384,7.7738,-5.2521,-5.8769,-7.5568,0.48592,-23.0069,8.9547,-8.3635,14.2699,
3.8457,0.27125,0.90397,-9.9744,11.4841,9.6689,-6.3534,-2.2185,-6.6312,8.4856,-18.3207,5.1116,-5.5002,14.8301,
6.9198,-1.1623,3.2104,-8.9038,5.5998,2.9494,3.9442,-5.3912,-1.0382,-0.99662,-9.1936,-9.2951,0.96925,16.3018,
11.6998,5.0469,-7.8438,1.5478,10.459,16.8724,-2.4318,0.12657,-3.3374,-5.1868,-10.0583,-3.1374,-0.50618,18.6295,
4.8584,4.2719,-1.2338,-0.90663,4.6363,24.4274,-5.5908,-1.2974,-5.4987,-8.1814,-15.5943,4.1345,-2.8364,11.3723,
-0.62782,-1.1791,4.035,-3.2133,8.6086,16.8228,-8.5616,-1.6921,-9.4183,-1.5516,-15.1303,8.136,-11.6389,14.9404,
-0.59015,-1.1084,-0.92928,-1.1311,8.0921,18.6471,-2.3806,-1.5897,-3.1869,9.8752,-0.12246,12.3709,-9.0511,15.9325,
-4.8043,-7.1808,-6.0682,-10.0359,-6.4934,10.4451,4.8455,-6.689,-2.5231,-2.5226,0.4248,-2.4714,-8.9806,3.1712,
-2.6276,-0.13934,-1.9263,-3.7673,6.5793,16.429,4.5547,4.1008,-8.039,1.4057,-7.1574,8.4707,-8.4418,16.2031,
-13.804,-8.6306,1.0225,-12.0418,-5.1487,9.7764,4.2819,-6.5342,-6.6119,1.3218,-14.2833,17.4072,-4.1578,2.0083,
-12.5032,-5.7517,1.4337,-23.1255,-11.9239,9.6624,7.3303,-5.6696,-3.8542,1.7151,-12.9546,20.6132,1.2863,-2.3627,
-4.6694,1.6771,-9.5138,-23.1544,2.8916,11.4433,7.3626,-2.0236,-5.9835,2.0843,-10.7601,19.8486,-3.9851,11.8791,
-5.3339,-10.7019,-7.9992,-17.9877,16.8181,11.7014,7.8656,-8.5142,-5.625,-1.8191,-9.1707,19.6014,-13.1916,12.6505,
-10.6803,-7.2261,-0.90772,-4.6296,3.1932,22.333,2.6715,2.3861,-7.176,8.6795,-6.731,29.76,-14.2886,1.502,
-16.6514,-1.1257,2.9251,-6.2407,-5.4989,9.6589,6.2886,4.1319,-4.8574,10.0477,-7.2719,19.4739,-5.8751,-5.1992,
-13.7634,-2.9471,2.7491,-12.4774,8.931,8.1355,11.5782,3.8844,-10.2319,9.4453,-4.0024,12.6386,-6.4673,3.6132,
-14.3535,-7.0208,-1.6654,-11.2562,21.2126,21.7474,5.6888,7.9009,-11.0348,9.3502,-1.4002,17.075,-8.4403,11.4248,
-20.1039,-7.5438,0.32304,-14.3587,5.8398,18.1488,3.4589,-1.0732,0.961,2.1786,-8.872,18.8841,-4.156,6.0172,
-23.6202,-2.3686,-2.5295,-9.7197,-6.8554,18.0037,4.1961,0.88016,3.7365,8.6589,-11.1738,24.3622,-1.0734,9.4336,
-22.6756,-8.3654,-5.6831,-12.4428,6.3064,12.6739,11.0275,0.35478,6.8177,5.7783,3.5966,8.8005,1.352,5.5614,
-12.8141,-0.3077,-4.3979,-8.8626,12.5387,7.1904,11.3101,-2.4993,5.4644,6.3759,12.4208,0.17762,3.1603,3.3392,
-9.2121,7.2661,-3.1893,2.0582,15.5647,18.0931,9.6868,2.3724,1.3591,16.3823,2.2308,14.267,6.7481,10.6942,
-16.6877,-4.9752,-1.5811,-10.8149,4.714,7.0907,10.5233,-2.0195,1.7492,10.2047,1.6244,17.7283,5.8716,2.9693,
-14.2692,0.51756,-7.6257,-19.1391,3.0138,4.3037,9.4189,8.0181,-0.71639,11.9539,9.5548,16.1916,3.1578,12.7085,
-10.5798,-3.2918,-15.6686,-25.5461,0.94407,5.9344,12.6321,4.7038,2.1598,8.4035,8.0377,7.6647,2.9687,10.057,
-6.1671,-11.5944,-8.117,-27.7921,11.2769,1.8005,9.0406,-9.6784,6.7524,0.34257,4.7218,-0.35093,-2.8767,-4.6464,
-1.075,-5.2314,0.87011,-17.6236,23.8233,6.4146,1.8866,-2.5535,1.6251,1.2672,-3.1173,6.2817,-7.4262,-0.65707,
-0.53789,-7.2795,3.179,-18.9273,8.2939,-1.0535,6.9681,-7.595,-1.7787,-6.8372,-12.8471,-6.8457,-2.7311,4.5771,
1.3829,1.6582,-3.6233,-17.7917,5.3679,2.7876,8.4385,-6.1951,-0.72679,-0.75971,-3.5762,-15.8802,4.0443,-6.087,
0.82778,2.0308,-10.4896,-20.0299,19.1458,1.2031,7.4601,-1.5734,-0.21106,-0.242,1.8326,-17.2889,3.3296,-19.8218,
1.7228,-9.4242,-5.1367,-18.8277,20.4255,-7.3687,9.8466,-9.0343,-1.1431,-14.3275,-9.6106,-16.2511,-6.315,-15.3936,
7.7589,-5.5539,-8.1343,-6.8374,19.6721,-1.7323,3.1164,-11.798,-5.3245,-14.952,-10.4503,-10.0809,-8.2967,-0.36997,
10.1261,-1.4428,-5.7577,-2.6492,13.7687,-8.2399,-0.84852,-12.0344,-5.0051,-7.4433,-6.0463,-9.4769,-4.9661,-14.4478,
8.5743,-1.3562,-0.69011,6.9549,27.0426,1.6997,-1.7419,0.96562,-13.2048,4.337,-15.1278,5.1917,-14.1125,-1.7751,
9.0045,-3.1638,-3.4819,13.1487,35.8773,15.6977,0.25161,2.7966,-13.3572,3.132,-15.1648,18.9802,-17.0441,12.4314,
7.9926,-1.5571,-4.6898,3.3881,19.6246,14.351,-1.1803,-11.0659,-2.6389,-7.917,-4.3372,8.0596,-12.7152,5.6135,
0.42844,7.5085,-8.6584,0.82237,9.8793,17.74,-1.5816,-11.8183,-0.11906,-6.0256,0.17216,0.49148,-9.5917,-6.5292,
-1.0141,3.7526,-5.7779,3.135,7.8697,14.3145,12.6133,-4.9703,1.3049,-4.2472,-2.1992,5.6567,-4.7657,0.00155,
-0.95279,-1.1951,-10.1538,2.9465,5.5086,14.3995,5.7844,9.4279,-7.2739,2.6187,-9.6226,19.4173,-12.9802,14.1015,
-2.3124,9.7386,-10.0162,1.3528,14.1507,21.5639,6.8542,10.346,1.1909,16.5616,3.7052,32.3523,-5.1173,27.3554,
-9.2574,2.0706,-9.8883,-11.4784,13.7738,10.3527,14.4708,-2.0806,10.0916,9.9684,8.6772,16.3111,5.1061,12.6256,
-0.20144,1.9468,-11.183,-4.1786,27.0474,15.3993,14.5473,8.4332,0.98565,8.4265,3.4349,7.8445,3.856,9.0349,
5.0054,1.3565,-8.1519,-3.4553,32.5755,14.0019,14.1461,2.7325,-7.1019,-0.10839,-3.8553,5.0118,-2.5153,19.3539,
4.2325,3.6371,-3.4123,0.057336,33.9263,10.8016,10.9363,1.1517,-7.1474,0.37069,-6.9293,13.6846,-1.8918,23.3874,
-2.1604,3.8915,-3.6792,4.3044,40.8643,12.5146,12.6421,9.111,-7.1903,-2.0117,-9.8189,13.3361,-5.0836,14.9009,
1.7471,-1.0651,-5.3479,4.9904,42.1894,10.8185,16.6048,4.7864,-7.704,-13.2256,-7.3422,-1.564,-2.8901,2.6723,
4.0033,-1.4728,-17.7775,4.2193,27.8527,11.5862,4.7474,2.1382,-14.325,-11.0153,-3.5954,-0.12161,-2.2441,-7.4049,
4.2357,0.9766,-9.6268,1.605,20.9868,6.6415,10.6024,-2.2406,-1.6601,-4.2154,-1.9629,6.9698,-1.6378,-10.2659,
3.9816,1.8623,4.173,6.2309,33.8276,7.1873,15.6327,-0.21674,-1.5605,-5.8509,-2.7893,4.6622,-8.151,4.45,
1.8537,-1.0827,2.0337,8.6902,33.7542,7.7007,9.0279,3.5737,-9.9674,-10.2225,2.1006,-0.34011,-7.6615,8.0278,
0.7978,-3.8518,6.6343,-0.33169,17.629,-1.2618,6.5972,-7.0297,-6.5352,-12.4423,-6.5259,-3.1529,-8.1465,-6.5539,
0.74993,5.8245,4.3468,-1.2569,30.6708,5.4245,3.3678,-2.8309,-11.8104,-6.0294,-18.4132,0.81417,-12.3808,-17.5621,
-0.23932,4.5308,0.30902,3.5415,24.1084,8.8779,7.8887,8.6735,-7.3239,-17.0013,-5.0296,-13.3347,0.64089,-8.9517,
-2.5865,2.8417,5.4848,10.4127,12.7446,11.651,8.8318,13.3474,6.8108,-20.2313,5.1886,-26.6346,14.2977,-0.38667,
-6.2092,0.78265,2.322,9.7879,23.3136,10.951,0.74609,10.658,-1.1537,-5.7952,-2.6785,-12.4202,7.7725,-4.1414,
3.1364,-7.2922,3.5991,5.8949,29.9427,-0.56672,7.785,-0.84301,-11.0018,-8.7524,-2.9899,-1.7586,-4.4997,-13.8102,
3.8925,-4.021,7.1619,9.32,33.8134,3.2452,8.2621,6.7634,-14.1187,-13.8945,-7.5327,5.9036,-8.0067,-2.5912,
-9.0916,-6.1418,9.0933,7.3431,22.812,3.5221,4.4611,10.608,-10.9114,-13.5334,-16.0533,-6.2569,-0.44306,-1.0198,
-4.7682,-8.6069,10.4362,3.1246,23.3318,-0.46708,5.1368,2.4149,-10.2567,-7.0541,-14.1459,-8.7151,-3.251,-6.626,
-2.5931,-1.4785,4.1432,2.9376,36.0319,4.2835,11.4406,6.0483,-11.5302,1.8696,-8.5745,5.9078,-8.7219,-2.4501,
-5.7442,1.9151,7.2003,-1.4896,37.2426,5.4429,24.8541,5.2133,3.2616,7.896,4.69,19.3154,3.6063,-0.88667,
-2.0929,6.9954,3.4626,-1.8715,33.5926,9.3672,20.5975,5.3726,4.0784,10.7289,3.9374,17.6844,3.863,11.9175,
-3.8563,5.6309,0.4216,-2.7039,28.7429,5.0269,14.6381,6.9392,-2.7783,-2.1932,-3.8551,2.5233,0.79799,1.7577,
-9.2922,3.4046,7.9521,-4.431,22.2962,1.8916,20.3714,5.5786,-3.5559,-14.3405,0.15411,-11.7281,5.4723,-12.4478,
-8.2621,2.7277,1.336,1.0295,19.5416,8.8622,13.9544,8.5492,-6.6478,-5.4517,0.61743,-2.186,1.8386,2.3991,
-2.0995,-0.26913,0.31115,-2.8106,4.2691,4.5521,13.1176,5.2031,-1.5273,8.9754,-0.36521,12.0452,-2.0501,16.3552,
-4.3346,4.9417,1.7093,-5.9473,4.4178,4.7516,9.0243,7.252,-0.018818,16.5321,0.12928,11.8619,-0.51024,1.2743,
-12.5746,-1.0221,-0.28265,-8.4241,6.0421,5.4107,7.5386,6.8168,2.816,7.0402,4.8446,-2.0729,9.9098,-4.4695,
-3.7926,-8.044,3.0405,-8.3903,8.9849,7.4472,16.0589,4.991,4.0638,3.3115,4.0813,-16.0485,6.9542,0.049182,
-0.73188,-4.7281,-6.5866,-8.8316,14.1126,7.0008,14.1507,3.7477,-9.4026,1.2239,-6.5526,-22.2366,-7.5631,5.7131,
-0.2154,2.6388,2.7803,-6.8849,16.5712,12.7197,19.4406,3.0503,-1.7553,-1.2106,1.8681,-13.8192,-7.6497,14.342,
-8.2304,-3.6581,4.975,-10.7218,19.8269,17.1508,8.3577,2.3952,-9.6779,1.2226,-2.494,-10.6285,-7.6628,8.2872,
-0.6529,-4.855,1.3707,-9.6064,27.6104,11.8717,11.162,3.6678,-5.7914,-2.1556,-4.705,-19.9072,-6.73,-5.9052,
7.4146,0.63107,4.5947,-14.2247,26.4263,1.2426,22.2986,1.0867,8.6561,-12.8883,9.6773,-32.8128,7.3685,-8.8562,
-0.58603,10.0375,-2.2925,-19.0376,20.1186,9.669,16.2376,2.9109,11.5094,-0.78038,23.1966,-24.7724,14.4822,-6.4355,
-3.8571,4.2405,1.1512,-17.4237,22.2168,12.3941,25.1811,-4.3479,13.1799,-4.0398,20.9944,-25.6471,15.9744,-18.7999,
2.9854,-0.7365,2.9702,-5.9893,34.9838,7.8721,27.4477,0.63558,10.5001,-12.2979,8.4006,-25.053,8.4048,-7.2829,
-1.9158,-3.526,-11.308,-11.2963,38.619,1.7325,11.7008,5.3196,-0.51932,-3.06,3.1744,-16.9383,-6.1995,1.6541,
1.5049,0.93652,-8.3353,-12.0349,30.1624,-2.6206,12.3487,0.75039,-3.793,2.3188,1.5676,-15.4499,-5.4227,-7.4173,
4.2482,4.6582,-9.7237,-2.8128,26.4642,4.1482,7.8299,3.539,-13.9549,-11.9203,-10.8044,-18.3008,-0.37432,-6.028,
18.0933,12.8788,1.2491,3.9675,33.3764,11.4551,16.8044,7.1046,-2.7282,-17.884,-2.6004,-27.5922,9.0924,-2.8327,
26.0472,12.5782,6.3685,2.3122,40.3459,10.2948,13.4346,0.53888,-9.649,-16.3388,-6.6953,-28.2981,-4.2041,-6.9136,
22.1233,0.017216,-0.15261,-0.18759,33.6756,17.7055,2.7117,-0.91028,-21.8197,-8.2744,-17.1547,-12.5003,-9.1457,-9.8041,
24.1013,-1.4006,2.2176,2.1847,30.2383,16.1706,14.3552,-0.38309,-12.4831,-8.2505,-14.7086,-2.2377,0.37481,-23.3159,
21.7105,10.9618,1.1399,3.9426,40.7015,11.4229,12.5492,-0.36055,-16.4567,-15.3117,-16.6602,-12.4924,-8.1473,-34.7343,
18.5198,6.5266,6.7383,4.6507,29.7598,17.3486,10.8516,2.4952,-8.8573,-9.6695,-11.8822,-21.1876,-2.9358,-23.2055,
9.8528,-5.1987,0.66762,0.5938,13.8742,17.2528,8.312,4.234,2.0636,-2.4787,-0.77983,-21.8058,9.5182,-25.5911,
7.8444,8.8085,-1.734,4.8082,9.6686,11.0225,11.119,15.7866,2.4119,-6.58,13.367,-20.0244,13.1972,-33.0278,
3.5954,8.2795,10.6476,2.6308,11.9217,2.8049,15.1736,7.2832,-2.4554,-19.4078,8.3818,-32.9229,3.9049,-31.0466,
7.1575,1.1712,14.7318,5.3066,15.9286,16.7366,12.3747,3.0683,-5.1417,-13.5212,-6.2211,-43.2942,-2.941,-15.0838,
16.1737,6.7678,17.6262,13.4887,16.8627,13.9108,13.5211,3.828,-0.11062,-11.7652,-5.9147,-35.0297,6.6802,-27.3341,
15.2029,12.0286,19.4018,15.5125,6.4053,-1.0238,6.0988,3.5988,-3.8823,-12.9483,-0.83814,-33.8717,6.2799,-39.794,
25.1518,8.0015,13.9872,16.9429,-0.11801,4.1654,2.4266,9.5218,-4.1211,-6.0324,-5.0374,-25.7004,6.3747,-27.5573,
37.7427,3.7435,19.7596,17.8157,-7.6667,-1.7518,10.782,8.9505,6.5156,-7.559,-0.95728,-22.269,11.6595,-24.9587,
49.5781,9.1858,18.5744,14.8578,5.0717,-10.1472,0.69032,2.7466,-7.9753,-7.1059,-6.5667,-22.8218,-1.3184,-28.1838,
60.7034,12.8846,27.3764,14.4385,18.8674,0.37896,3.9538,-2.6124,-11.8146,-2.4295,-3.8121,-13.4246,-3.5999,-18.4648,
71.1612,3.1389,26.2064,8.3774,31.8353,-0.11545,-0.53303,-1.9831,-10.6331,-6.5333,-0.27712,-1.758,-13.3008,-16.8844,
80.9916,-5.5494,10.534,1.2632,18.7257,-1.0537,-14.601,0.96862,-20.3846,-5.1971,-10.6499,1.1811,-26.6028,-4.5376,
90.2321,-6.1612,15.5015,5.91,8.1575,3.7321,-8.1255,-6.6448,-5.9389,2.6701,-10.9556,2.055,-10.9066,8.013,
98.9181,-9.0968,11.2661,2.2492,7.1963,2.0914,-11.8884,-10.4966,-8.8879,-3.6291,-9.8257,8.0706,-9.7801,-6.5678,
105.7324,1.3654,7.2843,3.5315,19.5146,13.7717,-5.9799,4.2332,-1.2718,-0.10555,4.8638,4.2806,-3.999,-18.5194,
103.1663,0.33923,14.4031,3.3196,11.7322,13.8906,-0.899,5.4629,9.1939,-2.9329,12.6672,-10.0762,5.6861,-11.741,
92.2542,-1.5696,14.4831,7.8426,3.4734,17.7793,-10.2894,1.3572,1.0874,-4.6454,1.5178,-1.9832,0.62282,0.29719,
80.1065,-3.3648,9.8362,-3.9616,-0.51383,16.7116,-5.895,4.1094,1.0213,-14.7561,6.1489,-7.5315,-2.2491,-5.3879,
76.2453,-3.163,6.4124,-4.6682,1.4064,13.8204,-10.2634,13.3081,0.015726,-14.815,7.6693,-8.9681,-2.1132,-6.0089,
65.0594,-6.7506,5.0839,8.8345,-3.4006,5.4359,-21.926,5.8976,-3.7627,-12.9814,-2.2356,-3.7074,-3.8754,0.018473,
59.2665,-1.6234,18.001,9.2487,3.415,9.8319,-6.5105,1.7658,7.7968,-13.1477,9.2322,-7.2629,4.8572,3.7953,
42.96,-2.9429,4.1704,-5.4062,4.6269,13.4924,-1.802,4.021,0.24486,-16.6084,15.7615,-20.9271,3.1489,-5.4051,
44.1607,2.9006,7.6977,-16.955,0.57096,12.6824,-1.6944,6.6129,7.7855,-6.168,18.5942,-14.5445,9.5711,-10.7476,
41.9832,4.1429,13.3752,-4.1319,-1.8248,15.2272,-7.7321,0.077606,3.0684,-1.547,4.7276,0.42813,-4.6984,-11.5191,
35.2137,-6.0225,7.378,-4.3565,-6.91,16.6747,-7.7399,-2.289,-4.199,-5.7047,-1.6951,8.9703,-16.2228,-11.3006,
37.3518,1.4225,15.9084,-7.4,-9.8003,12.3693,2.6418,3.0444,8.8039,-7.723,2.6576,0.40414,-1.1494,-7.3168,
21.0107,4.6429,0.85388,-16.8733,-8.7402,1.709,-11.6167,-4.2228,-5.8243,-15.2885,-11.6019,-4.8153,-9.5131,-10.1835,
17.7934,4.8365,4.5132,-6.8888,-5.8551,5.8564,-2.487,-1.6079,-5.5431,-8.2317,-0.58457,-0.27634,-9.4145,-10.0446,
19.0868,2.1852,11.3265,1.5529,-17.3092,12.5892,0.96848,2.739,6.5967,-6.321,13.1462,-7.343,3.9009,-7.0809,
13.6916,-1.2517,0.72962,-2.7903,-15.7985,14.1953,-10.8963,3.991,6.673,-6.4139,9.9959,-1.7072,10.7505,-3.3503,
15.7042,-3.0655,4.4633,-1.6782,-9.1838,2.9546,-2.6863,3.752,5.3279,-9.8074,7.5072,5.0063,4.4386,-4.0939,
8.1504,-0.047956,-0.52665,1.2562,-6.7433,1.8322,-8.1915,7.3048,-7.2697,-12.9968,4.2231,0.92802,-9.0499,-3.8483,
5.7724,-0.045529,4.2275,2.1246,-10.1171,9.2785,-4.8668,4.9776,0.72183,-11.2723,14.3596,-1.9609,-0.0072787,-3.617,
4.0088,-2.4034,5.3903,0.58076,-12.8158,5.416,-2.2142,3.2616,0.20639,-15.7903,16.8029,-6.0941,3.2989,-1.0393,
-8.5092,1.5182,-8.1558,-7.0103,-9.2137,3.2021,-5.8588,8.7328,-13.0286,-20.5097,12.0173,-12.3396,3.1014,-4.7544,
-10.3606,3.7882,-4.3602,-11.7844,-16.6883,4.4268,0.63169,3.9592,-4.2185,-16.918,13.6573,-17.7382,15.6659,-16.2754,
-9.2664,4.0335,-4.5712,-3.9932,-20.8818,10.3002,-4.6009,7.9713,4.062,-5.9861,18.0326,-13.3686,14.2533,-11.9927,
-19.0994,1.9025,-4.2974,-2.8089,-16.7957,7.7932,-4.3244,12.2156,7.5967,-5.6265,28.2848,-14.4554,15.2871,-20.7178,
-12.7592,4.1499,5.8778,-1.224,-1.6879,9.6872,0.18506,11.0105,5.7236,-4.8168,28.9483,-2.7265,12.0083,-18.0584,
-13.883,3.9009,2.6915,-2.0948,0.84132,6.2723,0.17396,9.4056,5.3802,-4.5277,27.2114,-3.5072,11.2878,-16.0306,
-14.9386,3.6669,0.64149,-3.8586,-2.0419,4.0065,-0.78163,7.8962,5.0574,-4.2561,25.5787,-4.241,10.6106,-14.1246,
-16.4033,2.9743,-0.81382,-4.0987,-4.2805,1.406,-0.26215,6.9507,5.2265,-3.5281,24.5166,-4.4582,10.4465,-10.9151,
-16.3634,2.7958,-2.6535,-4.797,-6.8573,-1.512,-1.1907,6.5337,4.9129,-3.3165,23.0456,-5.1359,9.8197,-9.316,
-17.7431,3.1002,-4.8558,-5.9265,-8.8074,-4.7271,-1.5914,4.7253,6.0354,-1.7011,22.135,-5.2998,8.7584,-6.3955,
-28.4843,2.4421,-13.5375,-7.9324,-12.5289,0.75081,-13.3017,6.8024,-2.3555,-3.0163,12.779,2.1018,5.8714,0.12678,
-31.4979,-8.0935,-8.0027,-15.9561,-20.2777,-1.1832,-12.504,0.72739,-0.32526,-8.5022,9.179,-1.8026,2.6859,6.7303,
-29.1354,-1.4689,-8.9393,-12.6376,-20.4779,5.971,-11.2812,4.9342,-4.5553,-0.90792,10.0442,9.1675,2.0522,18.1327,
-33.0546,3.3414,-15.0136,-9.9909,-25.8598,11.2801,-14.3822,6.5267,-10.8935,1.9802,8.4973,7.6732,7.5963,9.489,
-30.5992,-1.1091,-4.1964,-16.4751,-21.0034,12.0196,-8.325,2.8293,0.62164,-2.3895,9.4047,-4.5939,11.3906,-5.1804,
-25.4579,1.3185,1.2501,-10.2919,-12.6591,11.771,-5.4645,13.5215,5.7791,2.0043,13.09,-0.067761,8.3461,-10.6037,
-31.4858,-1.5938,0.23041,-5.896,-25.9995,2.5643,-9.8592,7.9877,5.4319,-7.5607,14.1936,-9.5084,7.8449,-2.4113,
-40.9308,-5.2765,-6.3945,-17.8206,-38.5395,-2.3122,-23.3676,-5.7142,-4.3388,-8.0517,3.8972,-16.4942,1.7073,10.956,
-44.1418,-4.0152,-10.7334,-27.1413,-50.3272,-5.0066,-28.6445,-2.5382,-3.1338,4.7097,0.83019,-3.2261,5.3832,3.6867,
-41.4933,-3.7743,-6.3115,-22.6792,-43.7321,-4.7062,-15.5912,3.2805,3.6649,11.0378,9.2804,8.3011,10.7266,-5.9788,
-39.9479,-2.6036,-9.7107,-12.8184,-39.2188,5.0204,-23.1567,2.1394,-3.1656,13.2092,6.8342,14.4146,0.63874,8.4799,
-44.1626,-5.2801,-4.4059,-13.9378,-50.9657,-9.3808,-22.7115,-3.6553,1.7465,2.0281,9.2578,-0.55028,0.60042,12.7606,
-50.0133,-8.7417,-7.919,-22.5462,-62.0077,-22.918,-19.4599,1.2866,6.3643,-2.8162,13.4249,-13.8072,3.3976,2.5502,
-54.0957,-14.3561,-20.1944,-24.4992,-66.4498,-16.4824,-19.7091,-4.9305,1.7319,8.2139,1.7583,1.1212,0.83266,3.814,
-46.5995,-13.9674,-9.0659,-17.8341,-55.3787,-14.0766,-16.1646,-11.7179,-1.6773,12.9158,-4.4862,15.1539,3.1438,5.9463,
-46.6368,-10.2952,-7.5772,-18.6535,-47.3334,-16.0652,-21.8067,-0.62491,-9.132,3.6412,0.50561,16.2683,2.0113,9.3678,
-52.8116,-19.5948,-10.4284,-21.7843,-58.5934,-13.6849,-20.9704,-2.0047,3.2217,4.8391,14.1696,19.5422,6.1407,14.9443,
-46.8097,-19.3638,-7.9137,-6.3772,-67.8957,-8.1412,-23.4897,-0.93971,7.7501,18.6488,16.1526,28.7587,4.8275,27.2703,
-43.5286,-8.2851,-11.6885,-0.73253,-50.1272,-10.9581,-20.6635,4.3114,6.8134,19.9578,18.4897,12.9332,4.0653,27.996,
-49.4169,-9.6765,-7.2102,-9.1895,-48.0638,-24.4006,-7.1457,-0.67034,11.1268,4.6604,20.213,-1.9428,10.4329,12.2163,
-54.0081,-7.2079,-2.055,2.6955,-48.9583,-16.3928,-7.6617,9.7589,11.403,8.0917,26.5565,2.2891,15.4738,-2.6167,
-57.3796,-5.8307,-4.7649,1.5891,-60.1208,-17.2982,-15.7025,4.4507,16.3856,16.1058,30.63,6.8743,21.1565,-10.1511,
-53.4643,-9.7304,-5.8958,-7.4784,-67.4425,-22.3993,-18.0656,-1.0101,14.9308,9.9457,18.8753,7.8787,18.4703,-6.2358,
-45.5338,-11.0356,2.0142,-4.1961,-49.2959,-13.4991,-15.0927,7.551,10.2575,8.4042,20.576,8.3507,11.6952,5.4725,
-41.8575,-16.0407,5.6703,-6.7779,-45.3261,-23.0786,-12.2987,4.2643,10.5863,3.1778,25.953,-6.2504,2.4935,14.5884,
-36.0399,-1.3826,-2.6973,-1.1761,-42.134,-21.2213,-15.8103,1.6473,6.6458,17.0872,15.4232,8.2247,-2.8509,24.5751,
-39.5443,-4.1338,-7.2581,-3.9396,-46.2179,-19.0042,-17.6958,-10.7299,4.3572,26.9899,9.7752,21.8312,2.0428,9.0006,
-34.338,-4.83,6.4005,-4.6475,-41.5555,-15.9746,-11.911,-3.4745,10.7073,14.0377,17.6896,6.4213,16.0202,-5.6394,
-21.4171,1.5983,10.2656,3.6588,-31.0342,-13.5997,-9.78,10.4282,5.8149,1.3888,5.7658,-8.064,12.7648,1.6475,
-13.9926,-2.7467,13.9006,3.9119,-30.5885,-17.0337,-8.7211,-3.8918,3.1045,-2.0003,-0.7187,-6.2302,4.9153,11.466,
-23.0699,-5.8881,0.31601,0.37183,-23.5585,-15.5391,-22.2978,-9.7972,-8.8872,2.3702,8.297,3.1162,-1.5186,7.4727,
-28.2973,-8.3676,-11.0366,-0.59473,-23.0901,-22.1626,-22.4432,3.0685,-14.0212,5.0616,8.7435,9.5399,-4.2612,-4.3094,
-20.9322,-5.0328,-3.7629,1.3295,-22.649,-11.3885,-13.5417,1.9402,-1.8463,18.8579,-2.1706,23.0675,-8.7276,9.1714,
-29.1214,-0.9529,-8.2593,3.1391,-16.5679,3.3948,-20.2841,-1.9541,-0.79035,31.016,-2.9846,34.0296,-0.64819,20.8999,
-31.152,-2.7851,-2.0973,0.11709,-12.7402,-7.131,-13.4007,3.8295,0.20132,15.055,4.7503,17.8879,11.6686,5.546,
-20.7829,6.8272,3.6949,2.9428,-2.5315,-9.5368,-8.8187,-0.17815,-0.7559,0.051697,5.4095,2.7146,2.4685,0.42281,
-27.5643,4.0565,-3.61,7.0167,-5.6849,-0.93623,-13.4843,-13.8622,-2.1274,6.998,2.7239,3.833,-8.5416,8.4258,
-34.8826,-10.2869,-10.4771,16.513,-12.4275,-2.2973,-14.0925,-8.7805,-3.4161,18.384,3.9768,17.703,-6.6119,4.6145,
-35.1507,-12.5702,-16.9317,15.0497,-8.3765,-7.3542,-18.4408,-4.9483,-14.0732,7.3641,-0.51138,10.0971,-3.8541,7.6429,
-20.2907,-0.010208,-4.1099,2.3409,2.0443,-10.2178,-3.2344,-8.9014,0.87123,-1.1057,7.5472,-4.6088,10.4772,10.491,
-24.7401,-4.7322,-10.4744,-11.0222,3.8106,-6.7716,-4.3898,-5.5333,3.2483,2.7381,11.817,-5.8155,3.7769,2.3053,
-30.3398,-13.4209,-20.708,-10.8335,0.27573,0.71795,-14.9884,-7.5632,-2.1413,10.6022,11.5796,2.5609,-5.4223,-0.19406,
-14.4194,0.13489,-6.715,-4.0436,6.3982,-2.6304,0.010898,-10.4148,6.0146,7.605,16.0796,-4.676,8.5978,13.9176,
-12.0701,2.9604,-9.1457,1.8654,13.5701,-12.8621,1.4944,-6.012,4.7095,-3.2408,7.559,-13.8406,5.2483,16.4552,
-25.4459,-7.134,-7.1802,8.8376,1.8947,-11.6178,-3.79,-1.4008,15.2889,-2.5737,10.4117,-12.5376,4.4617,1.3679,
-27.7648,-5.2896,-3.4436,9.7237,-12.3189,-11.3928,-11.5905,1.0439,9.1764,10.3307,13.0919,0.96472,5.6104,-12.8142,
-20.9038,-0.72223,-12.2091,4.8903,-25.6798,-14.015,-11.3672,-2.3245,-5.0694,19.6282,0.50054,15.0068,1.0237,2.0547,
-13.511,-2.0953,-11.0045,-2.4868,-20.9679,-14.5914,-1.713,-5.4908,-1.4594,18.9226,-4.7238,20.7853,1.4344,16.0314,
-25.4504,-9.0532,-18.3721,-11.3098,-12.6262,-17.0208,-12.4718,-4.6884,-9.3998,8.8151,-7.7461,9.6209,-2.9017,6.0969,
-14.4786,-1.8989,-3.1698,3.4688,2.2314,-9.3884,0.55492,1.2589,1.5532,-3.0479,2.1634,-5.0564,3.8835,5.7306,
-1.332,4.8265,4.6431,17.3607,12.5538,-6.9366,3.3553,1.1834,-3.2622,-16.9651,-3.6337,-18.853,-1.0716,2.554,
0.16566,12.5653,2.0034,20.7038,23.6069,-4.1585,5.515,8.1965,-0.70445,-10.8198,3.6684,-27.7729,9.8547,12.3177,
-11.1789,-1.4117,-3.7841,5.3615,11.801,-14.2984,4.2399,-6.3953,-0.66308,-1.6705,5.3368,-20.4401,3.5961,-0.69934,
-3.424,0.090735,-8.7509,13.9451,25.193,0.25427,3.5129,-7.4949,-4.8729,12.1254,2.6565,-5.1137,-10.3144,-1.13,
-3.2181,1.0291,-8.2263,13.108,23.2766,-3.5384,5.1911,0.51018,-2.6915,2.8973,1.5524,-5.2117,-6.8624,6.4941,
-10.1092,2.3842,5.0178,7.1268,10.0737,-12.2996,2.5185,-1.8815,0.77526,-11.3765,0.98665,-18.999,5.3547,1.854,
-2.4189,3.6575,3.3004,17.5607,9.9414,2.1335,3.7838,1.5372,2.1451,-9.8165,7.0669,-31.9591,8.3392,-1.563,
2.4483,-3.1735,-5.3986,16.5071,5.5671,-5.5503,9.2241,-11.7782,2.9616,-0.72751,10.4199,-29.2315,0.28309,-3.3587,
-9.5048,7.8789,-2.7127,7.4883,19.333,-9.4677,3.4759,-9.6546,-0.52145,8.2888,0.82294,-13.3776,0.73868,7.7049,
-22.6297,0.32252,-4.9115,-7.061,20.1293,-11.2612,2.7952,-8.6032,1.8705,4.4857,-0.64371,-18.1745,4.9444,6.7705,
-11.8263,-11.9752,-10.2836,-12.8437,6.6432,-8.6957,4.5165,-14.6981,7.4251,8.9391,8.8406,-21.8066,-1.0191,0.69739,
-7.8114,-3.2283,-7.3055,-5.9341,-2.728,-7.7022,-3.7829,-6.733,11.23,3.208,10.6703,-26.6372,1.4031,-12.095,
-21.4427,-1.6178,-0.72822,-19.2723,-13.4255,-21.3401,2.5839,-5.8565,12.9173,-11.0844,11.4478,-39.1389,13.1252,-19.3976,
-15.9735,-6.2433,-4.462,-10.5607,1.4801,-13.9876,6.2064,-3.6161,-1.9577,-6.2367,5.0932,-27.8849,0.059268,-4.1338,
-0.91508,-7.2851,2.8894,4.173,15.4913,0.95164,6.3061,-3.8713,0.45347,8.2375,-0.40667,-12.1118,-8.9165,10.2142,
-14.9602,-9.2095,3.1882,2.101,0.46179,-7.5382,-4.9338,-13.5563,12.2321,15.3664,2.9235,2.7149,-0.35355,-4.4317,
-28.1626,-5.3516,-11.1031,-8.8866,-13.6659,-9.447,-10.7768,-6.604,12.915,11.1391,10.7765,-4.3974,5.8066,4.8068,
-28.9008,-5.9743,-11.9215,-9.2977,1.254,-5.1027,-1.6297,-6.2073,10.2511,9.526,7.2958,-16.4119,4.5135,0.74094,
-18.1941,-2.3106,-4.1221,-4.4898,9.7462,2.2876,-3.893,0.30411,3.4971,0.92611,1.6642,-13.0662,1.8817,-4.4982,
-20.8804,3.4954,-8.5969,3.3354,2.5499,4.9831,-1.7709,8.7859,7.0652,-7.6295,10.0644,-12.2822,5.5466,9.8717,
-22.9338,1.8684,-8.5542,13.0521,2.869,1.3783,1.6411,-3.5471,6.1691,-10.4775,6.1548,-17.6847,3.7975,15.4852,
-20.1409,3.1731,-9.4577,17.4637,6.0031,7.4355,1.0701,-2.8617,2.4937,2.9017,0.59076,-2.5236,3.0971,12.195,
-28.3772,-3.6284,-9.8341,2.3159,-8.4571,-3.4005,0.062091,-6.4683,7.0657,2.7271,2.4443,11.7278,1.9665,2.0186,
-37.5361,1.7831,-12.5502,-6.863,-21.7122,-1.7797,0.53004,-4.6634,6.1701,8.7025,8.4366,3.6026,1.3769,6.1479,
-49.384,-3.5181,-22.6588,-6.9234,-27.4932,2.5771,2.8598,-5.8009,6.272,7.7082,11.2361,-6.53,8.377,3.4175,
-51.6825,-15.585,-14.6877,-15.008,-26.7878,-3.2439,3.6324,-10.175,10.6179,1.5793,6.7841,-5.1939,10.708,-0.5654,
-37.72,-5.6777,-7.667,-7.9685,-11.0806,-2.5771,1.9981,-3.425,2.8971,5.7346,4.0155,-4.4102,-0.7951,12.2195,
-32.6236,4.1077,-10.0411,-1.8236,-17.4325,-7.1451,14.1557,-8.8864,0.83434,-3.11,1.8856,-18.2456,-5.47,-2.6137,
-35.8605,4.3338,-11.7997,-1.2416,-21.5813,-3.4102,14.7232,-7.8806,5.0348,-4.3402,-2.4771,-7.3009,-3.725,-16.5569,
-46.9319,-5.3714,-12.036,-5.8901,-29.7307,-9.818,1.5619,-1.7414,4.7327,3.476,-2.3293,-3.0849,1.2207,-13.3375,
-49.7829,-7.8819,-4.7023,-5.5363,-42.0469,-17.729,0.5239,-1.6369,14.8381,4.2126,9.145,-1.9556,8.7032,1.5627,
-45.3786,-0.32574,-9.6149,7.5469,-40.0631,-2.9696,-5.6465,-3.8998,9.6974,11.043,3.4016,12.2618,-4.5695,12.3983,
-34.1559,3.4717,1.3515,18.4277,-25.3813,6.6529,3.1923,0.11212,1.5598,24.4805,-5.3026,25.6261,-10.9069,-2.4456,
-39.1906,3.7355,11.1868,16.849,-33.7758,2.0037,8.1951,9.0776,-7.5069,15.051,-10.1796,17.6121,-3.1688,11.329,
-47.2277,11.0672,7.6828,14.8938,-42.1387,-2.8387,10.537,10.4223,-2.3334,0.047984,-3.9015,2.4554,9.3002,24.7493,
-33.0608,14.1811,14.7777,16.8339,-29.2209,-3.6135,16.5163,-0.59248,11.0288,-14.0549,2.9432,-11.792,9.6855,9.1643,
-33.9104,6.7191,12.9463,11.1012,-18.0229,1.3259,5.1364,3.2214,-0.96621,-3.9015,-0.066561,-4.608,-1.2846,-5.4855,
-45.0984,-3.1292,8.3916,4.7688,-27.331,-5.3652,2.9388,1.1387,-0.90824,0.11045,-1.0068,9.7685,1.6261,-6.1684,
-39.0867,1.3094,11.1939,18.1779,-25.2181,-4.5703,4.1797,-5.0681,3.3963,-7.9241,-8.0301,3.1112,0.11219,5.0641,
-37.6862,12.5641,12.4112,22.7531,-12.3718,4.2036,5.817,5.625,-1.5301,-9.3376,-7.5487,-7.4654,0.10501,17.982,
-46.2866,9.4496,11.1944,12.4158,-19.6574,-3.1314,12.5525,5.7596,1.8675,-10.1937,-0.011229,-7.4896,5.2939,15.4867,
-46.3431,6.0486,-0.81138,15.4483,-22.2563,-3.8882,3.2989,3.5251,2.7001,-9.5825,1.8775,0.51602,-3.5242,0.45754,
-38.3682,3.3241,-5.0127,14.9935,-19.5045,0.59418,7.3501,2.8405,13.3988,-9.4797,10.737,-6.5995,4.7151,-13.6699,
-40.7883,-3.4864,-4.7124,-0.0061064,-21.1675,-4.1632,6.9095,1.7263,7.8732,-10.7999,4.4268,-18.481,11.0433,1.2503,
-47.3131,-6.5821,-14.3461,-7.1558,-16.5916,-1.5519,-2.4772,5.8728,-0.62714,-5.9019,-2.9224,-17.8443,8.0201,15.2753,
-46.3633,-6.1876,-16.3185,-14.2823,-26.9294,-9.015,-0.43963,-2.9801,13.5105,-5.5473,5.7534,-19.6073,13.2057,0.25875,
-42.1647,-0.6221,-21.4788,-16.7311,-29.5636,-15.5578,-6.5527,-1.384,10.4061,3.7577,4.9361,-4.3308,9.1076,-13.8568,
-35.8573,-3.4184,-19.2458,-5.3387,-19.2907,-12.7358,-7.1038,3.4212,0.33656,9.1986,-3.861,4.9681,3.8381,1.0746,
-29.4559,-10.2965,-11.9521,-5.4901,-15.7713,-11.4991,-5.2607,-1.9788,-1.1005,-2.2144,-6.9347,-9.43,-2.5311,15.1102,
-15.4101,-2.1234,-14.0682,-5.1611,-9.1581,-6.0865,-6.834,1.9174,0.85452,0.75166,0.092485,-5.6249,-4.2682,0.10354,
-13.0687,-1.523,-15.5856,-2.4899,-10.0259,-9.0271,-1.2297,0.38593,2.2196,-2.5992,3.3927,-7.6489,4.0158,-14.0027,
-20.7851,-2.3767,-18.4284,-1.3963,-7.535,-2.8182,-2.1002,1.307,-0.7463,-7.1654,-1.533,-14.7458,5.6642,-3.3803,
-20.0101,-5.5395,-14.0165,-8.3962,-14.167,-6.8996,-4.3352,-1.1325,1.6595,-5.3187,-0.96935,-10.5557,3.9076,10.9225,
-8.4196,-2.373,-3.7307,-11.6698,-17.0944,-11.2073,-1.2419,-4.842,4.3932,6.3346,5.7008,0.46753,0.83991,16.4739,
-6.9702,2.4915,-12.0069,-2.4692,-2.8457,2.6873,-5.8896,0.1707,2.2411,13.5103,0.63661,13.6626,-8.6548,3.2075,
-2.7745,1.3969,-1.8422,-1.3768,-10.2316,4.4146,-1.7583,-3.6174,14.3846,8.9209,0.59752,11.8977,-1.5248,-6.4301,
-1.6633,5.0914,4.8794,-4.1278,-16.2288,0.37227,-2.5975,-2.4557,6.9104,10.2755,1.5064,5.517,5.1777,0.56679,
-9.5915,3.3691,-3.4408,-9.0749,-12.894,2.711,-5.747,0.99697,2.2453,8.2421,1.8886,1.8806,1.5618,13.2833,
-6.6549,0.80544,4.7935,-7.1135,-16.3704,2.0762,-3.0415,-1.4235,11.0827,7.2755,6.0253,6.0178,-1.8377,14.8478,
-6.7282,0.28499,4.9781,2.2854,-26.2497,5.2565,-4.2754,0.07831,3.3341,17.6996,3.3022,16.5183,-0.31109,4.0396,
-8.213,-7.2879,-2.8764,4.0377,-37.8974,0.21898,0.70327,-4.6485,-0.64383,10.027,1.2156,5.1378,-2.1809,-10.3027,
6.3798,-2.1285,-1.7596,9.4627,-21.5235,0.20584,2.5505,-0.59173,-0.6052,5.6475,-3.5804,5.7737,-12.4395,4.4154,
7.4807,8.8612,5.4301,11.256,-6.4696,2.5555,4.7585,-3.8624,-1.9848,19.0034,-6.6709,19.123,-7.4427,18.2505,
0.42033,3.6074,9.8264,9.6355,-13.6372,-3.2652,8.2509,-4.5749,-0.92148,19.7517,-10.0485,19.8641,-1.3297,3.0555,
4.173,1.5016,-0.20833,13.7805,-8.0968,4.4865,2.0886,9.7996,-3.6998,7.2329,-14.1678,15.8386,-7.8615,-9.8784,
7.701,-0.47701,0.74931,12.9536,-13.2774,0.43946,1.019,4.5568,0.30005,-5.479,-12.3734,3.5546,-10.2225,4.8143,
10.5447,9.4685,6.8433,17.3711,-7.2869,-1.0037,-0.45897,0.032893,-3.0233,0.9887,-7.3806,9.4803,-10.0818,16.3991,
9.4394,14.0946,4.0712,13.9673,6.8455,8.0296,-2.7921,4.2809,-4.2591,2.3467,-4.5771,11.273,-4.2817,4.5536,
5.5673,8.0547,4.2991,1.3235,0.29534,3.2978,7.2919,-4.0038,5.9137,-11.4894,-2.8852,-3.5034,4.9474,-9.8197,
0.51111,7.5714,-2.5695,5.022,-0.66663,2.1547,2.1322,-6.5973,0.83675,-4.1885,-4.6015,-10.4442,-1.0158,2.508,
-2.3532,0.50513,-4.3052,6.6096,-8.1829,-0.80773,1.0596,-0.53457,-3.9361,-3.9376,-6.2144,-10.7622,-8.5111,9.9129,
-0.79519,-5.6637,-6.4075,-4.6485,-20.442,-2.1765,-1.3655,2.8033,-3.2278,-7.9514,-11.0358,-7.755,-5.6398,-4.7819,
2.5578,-0.13006,-11.2178,-6.7307,-6.4649,1.2603,-1.7553,0.274,-0.67303,2.4426,-11.7904,-3.0401,6.5048,0.16027,
13.739,7.4349,-0.15573,0.28423,8.023,2.1294,12.4501,-2.5756,-4.4101,-8.093,-8.2498,-11.3573,6.115,14.2507,
20.9425,14.072,4.1041,5.4619,21.6416,11.9185,19.7983,11.6789,-14.0624,-21.7074,-5.3938,-12.0927,-6.0582,24.3245,
18.2692,8.033,4.3295,-1.0048,34.4431,9.7865,17.1936,11.0446,-3.3017,-22.3608,-7.4312,-25.4671,-0.49998,8.765,
24.2562,8.9678,9.2645,1.4166,33.9949,12.5047,16.6346,3.2987,3.0353,-14.8802,-13.1243,-38.0391,2.8353,-5.8609,
34.135,17.8749,15.321,15.4316,46.0552,25.8544,20.3586,17.2008,-6.5911,-9.2652,-10.4474,-36.8352,-6.7791,2.8571,
39.6422,19.6352,20.0682,26.851,57.3919,22.482,27.6371,15.2918,-11.8629,-8.7093,-12.6542,-20.5251,-12.0396,16.7856,
41.0421,23.1797,13.1972,22.4067,68.0484,22.0777,16.5342,7.7623,-15.8737,-2.5199,-24.1734,-7.8935,-17.9283,5.4559,
44.2468,26.511,16.1833,32.396,78.0655,30.1983,23.0988,10.1302,-0.82131,-11.813,-14.222,-21.5199,-8.3517,-8.9714,
33.0911,12.6424,15.2123,19.1185,82.1505,16.1075,24.5456,1.9666,-3.5383,-25.2042,-11.4802,-34.3287,-5.0178,-15.1111,
34.8835,13.7724,12.4102,5.6935,77.2215,17.9747,24.9623,10.3487,-15.604,-22.815,-9.8472,-46.369,-2.8274,-4.7593,
46.8905,17.6686,15.4439,9.1293,69.755,21.6179,29.1305,5.0052,-11.8345,-12.0014,-6.4231,-35.2879,-6.4361,-12.0299,
49.3391,27.4701,14.9894,18.4989,77.3755,23.6266,22.1884,5.177,-4.0408,-8.9207,-9.3435,-24.198,-6.522,-4.2245,
36.934,24.8781,12.2011,8.8885,69.8998,13.7094,14.246,6.7562,-4.7431,-15.9408,-15.394,-36.8461,-4.2418,-13.4157,
35.1901,20.0796,15.719,5.9945,60.5115,20.9148,21.4192,4.9345,-8.7085,-17.345,-16.831,-30.4522,-8.2373,-14.0272,
37.8013,25.4859,13.8312,15.0796,68.2141,33.7599,25.8009,15.9716,-11.9634,-9.6932,-14.8773,-14.5251,-6.7984,0.91445,
28.9212,13.5669,9.2239,0.074825,50.0212,28.968,20.4745,4.6243,-9.3576,-23.2116,-18.7073,-27.7536,-2.613,13.204,
29.5475,16.0587,10.0868,-9.9148,37.98,20.1463,17.8296,2.9296,-8.3231,-22.3588,-19.9455,-36.0052,-3.8726,1.5511,
29.191,21.2346,8.0652,4.7801,39.007,22.2432,21.9541,10.7817,-6.4073,-15.823,-15.4439,-21.0949,-2.2239,1.9301,
19.8842,14.2936,9.4703,-0.63407,29.1112,8.6303,22.5267,5.4131,-4.1339,-24.3175,-13.5716,-33.9292,-3.9794,-12.2857,
21.0522,16.7413,11.2631,-0.12345,31.6141,8.5841,19.7583,4.6158,-10.0249,-18.6088,-16.0636,-35.2661,-6.1017,-12.088,
16.4838,6.7651,10.1148,0.35653,19.8004,2.8753,19.9896,-7.4674,-15.5624,-15.1303,-16.5166,-21.3438,-5.263,-13.7238,
9.3562,6.8314,8.0915,1.7524,8.6959,4.1191,16.4287,-5.6021,-11.3228,-4.3052,-5.6083,-5.9632,-3.5309,-2.9831,
2.655,14.4489,4.3007,-3.5484,-5.9258,12.8446,13.0819,4.6509,3.0513,3.0363,-0.077039,8.4946,-0.013688,11.2959,
-0.81009,8.3873,2.6258,-4.7523,-19.6703,7.8234,9.9359,7.6781,6.1735,2.3816,-5.2671,10.4802,4.2376,19.1856,
-6.4283,4.1066,-1.3101,2.1449,-32.59,4.5208,4.6172,5.3275,0.13628,16.3387,-4.0064,16.4634,4.928,10.4782,
-14.0705,-3.2239,-3.5925,-6.0122,-44.7346,-3.7788,6.7012,-9.0921,6.2671,21.5642,1.4287,19.7252,2.2713,-2.901,
-16.5316,-4.4464,-1.9602,-4.2346,-56.1506,-2.1343,0.16018,-5.7794,6.3636,15.0765,-1.9624,18.07,-2.1155,-4.1429,
-13.1791,-3.7079,-2.3151,-1.6195,-61.1461,2.2433,-1.2663,1.6497,3.6207,13.6994,1.4598,17.4574,1.3168,9.7995,
-10.9715,-6.7908,-2.6479,-8.6064,-53.2269,-11.9913,4.9487,-7.421,6.7088,10.5163,3.7342,17.8268,1.7104,13.462,
-10.3133,-4.4944,-9.101,-5.256,-49.0895,-18.4228,-4.793,-3.1983,6.3067,16.4965,-3.1018,21.4798,-3.1149,8.876,
-15.3613,-8.9473,-9.4997,-18.1632,-60.2441,-14.4843,-5.4501,-5.8396,11.5952,13.6177,-1.0268,6.091,3.6831,-5.7566,
-13.4949,-5.5773,-7.0398,-26.5186,-70.7295,-13.6148,2.4332,-8.3224,10.899,13.7454,1.8689,-0.95332,11.0184,-12.0892,
-9.3799,-3.8258,-14.6458,-13.1217,-64.2584,-15.1589,-1.0182,-1.6841,3.1619,8.6702,-1.5494,-2.3129,9.8847,2.7362,
3.4613,1.1259,-0.54397,-0.055567,-46.3029,-7.6379,2.8208,-1.5831,8.6385,-5.95,3.2666,-11.6189,14.9589,-0.66688,
11.2815,12.865,8.4608,7.9757,-29.4247,6.9204,4.068,12.6119,2.926,-6.1325,4.4869,3.1782,10.7556,0.79041,
12.9657,7.8422,8.4253,12.6914,-13.5592,20.6052,8.0739,22.312,-1.4996,0.37486,-2.8659,17.0875,6.8045,14.843,
18.3276,5.0115,11.226,17.1256,-1.6826,21.8646,3.3399,7.2785,-4.715,-9.5645,-9.7772,10.0584,-3.5206,28.0524,
19.1165,13.2109,8.6631,20.8202,12.5184,34.6527,1.2501,11.5639,-11.9879,-8.0464,-5.4127,13.2328,-7.0873,18.9477,
5.6911,11.4735,5.3101,10.1253,12.7784,26.0289,6.8419,14.6475,-9.3805,-8.5083,-6.9769,-1.6611,-3.8289,3.7108,
0.62703,14.5621,2.1578,1.962,19.5675,10.3672,5.4863,9.9908,-1.2619,-13.6651,-1.8361,-15.6615,-0.76548,-8.8575,
3.4235,7.0782,-0.80484,-4.7668,25.9506,9.6783,7.9912,-4.7086,-1.1858,-26.9452,0.16301,-28.8218,2.1145,-7.3814,
3.6898,2.403,-1.2291,-12.5092,11.6422,12.4029,14.5949,-5.9098,-4.4199,-32.4786,-8.8194,-41.1925,10.9594,-0.79954,
-10.6316,6.5093,-6.3501,-18.8418,3.8604,1.7419,8.5254,-2.2499,-3.6831,-24.3909,-8.7628,-24.8229,6.9965,-6.8905,
-15.7275,1.8683,-1.7186,-11.5724,17.7288,-1.6689,15.0971,-11.0875,5.5105,-18.677,5.4586,-18.1393,-6.1738,-20.5771,
-4.3944,0.81148,-0.67081,3.222,30.7651,12.5313,23.636,1.8561,1.4025,-3.4564,11.7422,-2.9509,-6.7481,-5.2425,
-18.2307,-5.3762,-11.4926,-4.9319,15.8312,16.0976,17.0232,4.1058,-5.7658,1.0684,6.7872,11.3261,-2.0927,9.1721,
-25.7047,-1.7483,-6.5525,-6.0528,0.78132,11.8256,19.308,1.4984,4.497,-1.3568,9.6862,21.1707,5.1161,22.7217,
-16.6066,2.1345,-8.0488,8.4103,-6.417,25.216,17.2044,8.9643,-0.49496,7.2247,6.2714,32.1784,0.086959,21.9652,
-13.7213,4.8401,4.713,2.3058,-18.3099,20.9368,17.1163,1.8149,6.1463,6.7912,6.8393,16.1477,10.4712,30.0916,
-26.998,4.0776,-1.7092,-11.9326,-31.3113,6.9305,2.395,-11.0441,10.0275,-1.6442,5.9569,1.0788,14.0929,14.1861,
-34.8897,-7.0287,-15.3019,-8.4503,-31.3885,-1.5133,-4.8323,-5.1863,10.8432,0.81507,5.1273,-13.0859,1.4415,-0.76504,
-18.6964,-7.5512,-0.28377,6.1567,-15.4052,3.2997,1.124,3.6249,9.2474,-1.1223,7.6533,-2.1133,-7.1459,-14.8191,
-5.7014,0.93024,8.7732,7.2715,-0.38088,17.2017,-2.2487,4.8243,-5.0022,-2.4718,6.7216,12.1135,-9.0773,0.17001,
-13.3877,-8.0982,3.9963,0.6962,-14.458,8.6811,-0.697,-1.6051,-0.45159,9.4828,11.513,24.6771,-6.1725,14.2598,
-21.0845,-8.557,-1.9094,0.65398,-27.6905,-5.9397,-8.2105,2.2696,3.353,23.0138,15.5448,37.2965,-8.6353,9.5594,
-30.2089,-9.933,-11.24,-13.4853,-40.1291,-4.7069,-18.1073,-6.3666,-3.4598,20.7556,12.7227,42.6813,-2.4499,23.0859,
-28.3963,-10.2808,-5.8439,-25.0214,-51.8214,0.29813,-13.2434,-10.7072,1.4704,15.7319,14.7925,30.6757,10.9197,17.9897,
-32.3594,-10.6091,-14.9376,-17.8533,-56.403,-8.2198,-25.6719,-3.4532,-0.50631,21.3995,9.1828,27.8909,-2.0143,2.8103,
-27.1125,-9.5004,-14.5134,-12.5321,-48.7683,-14.8103,-25.548,-5.6076,5.6626,9.254,10.0483,21.0223,-8.032,-11.4583,
-14.1516,-5.1521,-4.1979,-2.3345,-31.7422,-5.4212,-23.0704,-2.437,2.4896,12.4771,13.2237,32.0403,-10.3833,3.3292,
-14.2472,-2.954,-3.9465,0.63786,-23.1597,0.57094,-28.2982,0.5415,-2.3823,22.1175,18.0971,34.8395,-7.8722,14.8688,
-20.0039,-5.6099,-4.6535,-9.7894,-35.8701,-13.5633,-27.5441,-11.7685,3.4274,6.6904,24.5675,18.6492,0.15636,-0.1233,
-9.3585,-5.2738,-11.9305,-8.2573,-29.0622,-12.8169,-30.614,-6.3398,-1.4999,9.0553,20.2603,5.1849,-2.6862,-12.4612,
2.0641,-3.5405,-6.9642,2.155,-16.4574,-4.0204,-24.5276,2.0681,1.8954,22.2068,15.7385,18.9738,-5.8313,1.0361,
-10.3372,-0.49401,-3.7132,2.0261,-15.4695,-14.1672,-26.8334,-4.6671,-0.10726,16.1527,11.9609,29.7086,-15.8704,-8.4699,
-22.4679,0.95155,-7.7408,-6.1238,-21.6245,-21.3456,-27.5845,-4.8596,0.37175,9.0436,14.5486,20.8428,-2.1676,-11.2679,
-20.1752,-7.6056,-9.1649,-19.8564,-34.4271,-26.6764,-25.9294,-9.2902,10.7389,4.7231,17.4536,5.4923,12.0624,-7.7582,
-13.2983,-4.3156,-16.1708,-14.9544,-23.9292,-23.1873,-29.0958,-7.7886,11.0379,10.1061,12.6285,3.206,5.7387,-10.1264,
-18.1668,-2.1677,-16.1452,-7.4452,-25.3262,-30.2957,-23.5726,-12.9881,4.7097,9.5002,9.0376,17.1136,-0.27246,-23.6188,
-17.5493,0.32342,-1.0765,-1.8046,-29.0018,-20.4505,-23.5751,-7.0141,0.17663,15.0692,14.6343,16.6263,4.9386,-13.2959,
-18.3853,-2.5292,4.2497,-7.3632,-27.2617,-19.223,-28.7717,7.5068,0.16559,13.2203,9.0336,1.5287,4.6427,-25.7217,
-8.3096,-3.7947,13.912,-10.2272,-21.376,-27.9869,-12.9454,0.039578,14.2557,7.2328,-5.6084,-7.603,10.5027,-38.2784,
5.4116,3.9892,14.9662,-3.9467,-5.9934,-12.2077,1.9314,-7.5181,19.6066,13.4099,-19.3719,6.9532,10.8172,-40.2986,
-0.57946,-4.7506,9.3457,-15.9874,1.9902,-5.7406,-4.1893,-1.4002,15.597,-1.4946,-32.3096,-7.564,8.2793,-23.7807,
1.8164,-1.1598,12.0907,-16.445,0.45355,-14.3692,-0.63214,10.4896,17.967,-15.505,-43.7952,-21.2102,21.8825,-20.8697,
3.1242,5.993,2.3926,-1.3583,-0.045786,-19.6461,-0.12163,7.4992,11.6942,-1.4863,-47.3065,-5.8375,21.5816,-32.368,
0.57479,1.3834,5.5549,3.5127,-14.143,-21.7731,2.2463,-0.034447,7.6868,12.7029,-42.1074,8.6127,6.1867,-29.9538,
-0.40349,2.2451,8.9999,-3.3092,-11.0003,-11.9662,-3.5553,11.3018,-2.2191,25.7037,-40.5248,22.1959,-8.2845,-31.934,
-4.6298,-8.7516,-4.2906,-17.2106,-7.0349,-15.4987,-14.2031,-3.4763,-5.3913,17.0774,-45.1774,34.9642,-6.9779,-15.918,
9.748,-1.1424,10.0668,-2.078,7.4872,-2.7625,0.34382,-9.9466,9.0322,8.0244,-28.3668,18.7663,7.5408,-0.86291,
4.98,0.81508,1.5013,-3.8427,10.411,0.23645,-11.9552,-1.7936,-1.3597,-6.5571,-31.7917,3.5404,-5.5944,13.2889,
-4.291,6.9051,-2.8383,-11.64,-4.3136,-7.8052,-10.7653,9.1751,11.4724,-10.481,-35.0789,-10.7721,8.4361,-1.6085,
-3.0888,-3.8986,-3.6123,-12.8306,-18.1548,-11.1148,-13.8973,7.6804,14.5619,-0.40696,-34.8631,3.9743,17.3751,-6.5725,
0.4014,-16.4152,-1.0353,-4.9775,-8.7001,-12.8099,-14.4803,-1.7531,2.8262,-0.85512,-24.7434,17.8358,2.6369,-0.04004,
9.8225,-7.874,6.583,7.5991,5.9219,-12.986,-3.2225,-3.5368,7.3792,2.0294,-11.9256,2.6657,1.534,-10.4266,
16.7894,-1.7348,4.2991,8.0883,17.9127,1.8932,-12.4739,3.2874,7.8812,8.5196,-14.0423,-11.5943,5.2203,-1.2996,
25.6989,-4.9369,10.1801,3.3525,11.6432,7.0421,-11.2529,0.72816,13.5473,12.258,-8.006,1.3802,10.1018,-7.3615,
24.157,2.9156,2.9582,6.9292,18.5,2.8412,-15.3003,-1.2045,5.1791,13.4115,-12.2473,9.797,5.7174,-3.1415,
20.346,8.8796,3.2524,12.6525,20.6953,6.9212,-16.7433,5.0068,-2.2158,4.5793,-15.763,-4.8908,7.7354,11.147,
14.4031,-2.9864,14.3914,8.1159,11.8983,-1.0503,-19.5171,-1.9047,-3.9718,-9.7954,-14.8176,-15.5254,-5.9514,-3.6218,
12.1226,0.49809,11.1668,15.6573,12.6012,1.3747,-22.5956,3.4043,1.4612,4.8923,-7.7887,-0.49386,-6.066,-17.5045,
9.0337,-1.8929,4.3579,4.801,0.038846,-3.9025,-23.601,0.83893,4.6798,17.8214,-6.8497,13.6358,7.0485,-9.4379,
1.8801,-5.5572,3.1512,-9.5871,-1.8529,-10.2799,-35.408,-2.9902,-4.1019,9.1963,-10.2166,26.9176,-2.8196,5.2284,
2.2399,-1.918,6.2688,-3.8849,5.3429,-3.5237,-30.922,-2.3378,-2.4386,8.1724,-3.4642,22.1979,-7.8447,7.3426,
11.0777,-5.1087,10.1427,6.2655,1.7165,-6.618,-16.3166,-3.6148,0.068381,7.209,-6.5621,18.5054,-5.9576,-7.1979,
9.4683,1.8089,5.7558,7.7776,4.4467,-8.1108,-24.7824,4.1584,-6.5468,10.5548,-9.9467,27.7841,-11.267,-14.8618,
4.1781,5.4787,7.2994,2.5893,-1.4869,-8.568,-23.2959,-0.81374,0.45709,3.3105,1.04,14.7829,-6.8127,-18.6918,
9.1221,1.8442,3.5557,0.072374,1.9081,-1.9154,-18.5923,-0.29279,-0.042461,-5.8612,-2.3282,4.9238,-1.2096,-14.2645,
13.2969,1.7336,-0.43556,5.7353,15.8936,5.7554,-15.5874,5.3921,-4.7621,1.102,-10.6895,13.1284,1.6966,0.69139,
16.277,-1.2041,6.2021,12.0019,21.6179,-4.0343,-8.9858,-4.3766,2.1343,5.758,0.34134,13.2849,-4.0725,2.6057,
18.6066,5.9523,4.4132,14.588,18.9049,2.3468,-10.8077,3.9143,4.3682,5.8851,7.405,18.6277,-7.1335,-11.6506,
8.5171,5.1221,-1.991,3.7954,17.2976,0.78869,-11.5765,5.0958,-0.14479,-3.4411,-2.9566,7.5927,-0.56694,-10.0742,
10.8393,1.9812,1.9063,6.4013,21.9271,-6.8144,-8.0483,-1.8215,-5.8025,-6.0682,-11.2802,8.0814,-6.1993,4.6302,
18.2178,4.2243,-4.3461,14.9898,25.8062,-6.8772,-11.8149,-3.1281,-10.6491,-1.4528,-11.075,21.6965,-16.6885,13.3924,
9.0963,-0.27967,-11.1695,-0.0095562,10.1578,-10.7142,-9.6892,-4.3572,-0.093259,-4.6718,-4.2716,11.962,-7.6597,-1.5112,
1.4669,-3.5687,-19.4724,-14.109,-1.8532,-6.7665,-10.5251,-2.6794,-1.504,5.5258,-5.4316,12.6607,-4.8386,10.7906,
10.3515,-2.8824,-11.2204,-10.0909,5.3426,-5.8874,-6.587,-6.7687,-3.7753,11.3337,-7.4673,21.8183,-5.0204,13.4489,
22.4809,2.4852,0.31487,-0.51283,19.122,-6.951,-3.8307,-8.7236,-6.8541,-2.0978,-13.1582,8.703,-2.3581,3.6694,
26.7989,7.0587,-0.64872,0.46174,30.7921,0.077138,0.17662,2.1888,-11.1655,-5.7494,-12.3683,2.514,-0.32767,8.1718,
28.4972,-0.44801,2.6964,-3.8155,17.1383,-7.955,3.4722,-5.0258,-5.3008,-8.7097,-5.4872,-6.6086,-5.5027,2.4868,
24.8975,3.3563,5.3669,-0.7534,18.9432,-3.7011,-2.4038,-5.6689,-0.26108,-7.2433,-1.3805,-6.2134,-7.0615,4.2256,
11.1257,1.2655,-1.5657,-6.3755,17.8066,-4.4233,-2.2596,-2.4951,-1.1897,-12.4751,-6.0198,-10.5628,-5.6936,-0.75008,
18.0144,-1.6436,9.8624,-2.2146,21.4608,-9.8238,8.2659,-0.45648,-9.6179,-6.0598,-8.4918,2.3494,-10.0737,6.8512,
16.9336,-3.4335,8.3255,3.5847,28.6732,-7.3459,4.9363,4.2931,-23.1408,6.5818,-14.5939,16.3084,-20.8038,20.5401,
10.2502,-2.2832,5.9374,-4.1853,12.8528,-7.8494,8.418,4.0355,-14.2639,2.4089,-11.8288,15.3973,-7.2768,23.1529,
5.8573,1.6317,2.7475,-9.6015,-1.2079,-2.6563,0.35711,-1.874,-7.7417,0.37501,-8.2864,17.3071,3.5484,29.3195,
6.4501,2.4776,2.5822,-6.1922,-3.0243,-4.3859,-0.60901,-5.539,-3.4988,-0.59219,-2.1223,18.1567,-0.44196,19.0599,
7.4809,3.7462,7.6225,-3.4592,-5.2035,-13.0949,5.5669,-4.7345,-2.8168,-11.4173,-2.4671,9.0403,-14.5154,3.8163,
10.3364,6.8267,5.7483,8.5538,0.30253,-2.3932,7.594,7.3549,-6.8982,-7.427,-1.8474,14.6359,-13.7123,17.6873,
2.6335,-2.555,6.8198,2.8463,-13.8156,-11.2218,7.6105,-7.1864,-7.9007,-9.3429,-10.7087,17.0644,-7.6944,30.7261,
1.0586,2.7934,17.2731,8.8149,-23.4426,-10.0755,1.9596,-2.0995,-7.8988,1.1359,-13.3711,24.0685,-8.6491,22.3387,
0.52255,1.2086,13.8743,16.3139,-28.1754,-4.2767,2.3141,9.8323,-4.1191,6.262,1.1255,9.8734,-6.7138,9.1917,
-2.8141,-9.7255,8.7927,6.3629,-27.9013,-11.1037,8.3147,-4.8576,1.3223,-4.9752,10.031,-4.819,0.77271,17.6133,
5.8548,-0.64149,3.5425,5.0365,-12.1272,-4.7707,4.9817,-3.2167,-2.5345,-5.6214,4.7066,8.1533,-3.052,27.8897,
17.7814,-0.60301,3.33,6.6228,2.7004,-4.4844,4.6828,8.3109,-4.2718,-10.0063,-2.1874,15.2208,-8.5353,28.1057,
10.576,0.84955,2.658,7.6427,5.0333,-0.90959,4.874,9.2286,-4.4876,-3.2674,-1.584,13.8355,-5.6616,30.6694,
-4.1585,5.9942,-0.80676,3.8788,7.0932,-0.38244,5.0541,3.4802,0.97637,5.9022,3.7058,8.7549,1.7613,17.0239,
-5.3932,-3.8106,1.1301,0.81152,-7.4324,-9.8047,7.5845,-0.50652,11.3072,-3.8972,5.3719,-5.8704,2.5999,1.9024,
-0.34701,-1.6931,1.0619,10.2085,-9.8879,0.22834,7.129,2.3571,8.7398,2.0035,6.9394,-9.363,0.55491,14.9436,
-5.9935,-0.64768,1.9429,6.7619,-3.6277,-0.73006,8.5902,-9.1176,-0.28504,-0.95079,9.3563,-8.8017,2.4106,20.6581,
0.97767,6.9474,3.7152,13.9124,10.6899,-1.631,8.0752,-3.8488,-3.1011,-14.9937,10.6838,-8.274,-0.56726,5.3186,
8.0027,14.5585,5.8539,19.2171,24.1485,-1.0601,10.8965,-1.2564,-4.3323,-24.0774,5.7928,-21.8776,-4.7832,-9.1005,
11.3004,13.6859,16.8363,14.2861,27.0848,-3.8301,24.3427,-9.6811,1.5949,-14.1327,8.2789,-21.1035,0.22589,-18.606,
-0.23918,3.8912,1.7261,3.5112,11.3597,-5.9623,17.7539,-2.017,-3.6955,-2.4237,3.5317,-5.7373,2.5734,-3.3897,
-14.3248,-6.2587,-12.4774,-10.7995,-3.4219,-17.4104,14.328,-1.4238,1.7205,-3.6946,7.5698,-19.493,15.17,-17.2863,
-11.6433,1.2005,-2.8908,-10.2184,-16.1018,-14.0042,24.3299,-10.3106,7.7567,5.5001,17.9772,-8.4066,19.454,-30.3491,
3.1553,0.18334,-2.7174,0.78371,-1.0357,-2.7745,14.3701,-11.5804,-6.8087,8.9471,7.4533,6.1978,4.1868,-14.4282,
12.9502,2.5339,0.75142,2.154,13.1265,7.3093,9.2578,-4.7471,-8.8282,-3.3955,0.86763,-1.1904,-8.8818,-1.2841,
17.84,15.6045,4.4838,4.8579,9.1673,20.9707,8.7019,4.0382,-6.4095,-1.3028,5.5373,-15.219,-3.6263,2.5704,
11.1028,4.2792,0.43731,5.5111,-5.4827,16.001,8.1793,-1.8709,-0.35811,-2.1694,5.2055,-16.2626,0.36872,-11.6838,
2.8804,-0.70014,0.41062,6.1243,-17.499,1.8183,2.0217,-6.4812,4.3851,-5.8167,2.06,-24.7316,0.34705,-14.828,
-3.9035,9.7309,-3.3915,5.7573,-27.7823,13.9876,-6.5992,2.4081,2.233,3.9771,9.4917,-9.1477,4.1037,0.16166,
1.9971,1.5912,-6.0216,-0.25546,-40.2154,5.5926,-4.3147,-3.4037,0.21054,1.8491,8.9222,3.7469,2.9132,-8.2812,
13.684,2.9121,1.4233,5.8993,-27.0082,0.062727,-4.5279,-0.83792,-4.0521,6.9333,0.35895,14.3837,-6.2347,-21.8843,
5.7793,5.0989,3.6995,11.6847,-19.2483,-0.41316,-6.6169,-5.0377,1.3853,14.5452,-0.13471,23.438,-6.3318,-6.4713,
2.1263,-1.3464,-2.6619,16.1779,-27.0665,-1.8056,-3.8593,-9.9306,10.2743,13.2004,7.9013,16.8365,0.18662,8.017,
4.3602,-4.571,-10.5306,16.6241,-28.7478,-1.2247,-9.7667,-4.14,0.68616,10.0473,9.7883,15.3538,0.648,-3.7299,
6.9327,-2.4078,1.4354,6.1819,-32.6902,-4.9296,-2.5696,-10.5027,5.3676,10.3891,10.1457,20.1003,3.4423,-17.6061,
4.1543,2.9314,-1.9569,-2.2174,-30.2572,-9.8285,-0.99858,-9.4009,12.1278,22.5154,10.9529,15.588,4.6517,-30.6498,
-0.81708,-1.9675,-15.9395,-8.6959,-35.0528,-17.7389,-12.2724,-4.1138,4.7895,27.776,8.4072,8.0412,3.4284,-14.7108,
10.094,0.51206,-4.1889,1.7432,-33.4218,-17.1467,-17.6754,-3.3948,8.7522,27.5258,8.3749,21.6587,6.5284,0.27188,
11.3768,5.2039,-8.6593,7.3054,-21.9717,-11.3953,-24.1703,-5.0801,12.9496,23.9862,6.9286,31.2886,2.3593,-0.68913,
13.0557,7.2528,-1.0565,1.6724,-12.6251,-14.0178,-8.62,-4.3027,18.3116,20.186,18.3191,22.3271,10.2461,-7.731,
11.3277,4.9291,4.6742,-8.8174,-20.368,-16.9546,-7.5638,-3.1003,3.1129,4.8748,9.6633,13.4317,11.5198,-4.4344,
17.2596,6.5223,-1.2731,-7.3437,-15.3681,-9.3253,-4.2768,3.6968,1.915,-9.5177,9.084,-1.4742,17.4397,-6.0573,
23.3077,6.6031,-2.614,-7.3752,-0.34598,-7.3494,1.175,-0.77501,12.6608,-22.7769,21.289,-15.4857,16.8655,-10.8881,
13.4092,6.2069,-10.9572,-12.599,6.8258,-10.6864,-12.9955,-4.5064,-1.321,-7.3103,14.3452,-0.45659,1.7535,-16.8464,
13.5489,5.8345,-5.5776,-9.0104,-3.9732,-13.8231,-15.1168,-0.45813,4.4246,7.2283,12.5394,13.6708,4.4146,-17.725,
17.4585,2.6512,-5.2425,0.97591,6.6551,-7.3269,-20.8209,-3.2638,-0.56256,0.31818,7.0653,6.712,-2.4613,-2.5615,
23.9664,6.2696,-0.20538,6.5842,20.3558,6.3354,-19.5712,-1.1791,-3.362,-3.4784,6.6419,1.5867,-4.2026,11.6922,
22.5284,-1.6624,2.6397,-2.3118,20.1456,-8.1447,-13.6747,-5.8305,2.5061,-8.9369,3.4097,-2.2864,-1.1168,-3.1093,
24.482,5.5206,3.8981,5.8553,21.2979,-11.0287,-19.9384,0.65834,-0.95048,-2.2618,3.6768,1.1561,2.2555,-17.0228,
12.6245,8.9682,5.5536,-2.9961,5.92,-10.367,-22.52,-1.2706,1.9402,-12.5155,11.012,-13.0132,12.5096,-1.9014,
10.4498,8.9022,3.8032,-9.9004,-3.4747,-5.4949,-17.863,1.1672,9.8517,-16.9588,15.5464,-20.3277,15.0648,12.3127,
22.5742,5.0627,4.0475,4.7936,10.8338,-6.5821,-18.2071,-0.31966,4.0668,-6.9687,6.5853,-5.4124,1.4104,-0.097221,
33.0256,8.0647,17.9047,18.606,24.2838,-13.2708,-11.9204,-5.4948,-2.3166,-9.8563,2.8844,-6.5049,0.85368,-2.452,
23.4874,12.3021,12.6468,11.957,30.5168,-4.9188,-13.0946,-0.44292,-5.0113,-18.7102,5.545,-20.2146,7.4131,11.7951,
15.9396,9.2038,0.082648,2.2674,14.5858,2.4605,-4.2806,1.9447,9.3894,-15.2256,19.3123,-23.3187,21.0683,-3.0126,
8.3712,5.817,-9.3675,-9.2028,-0.38938,-5.2438,-8.7468,-1.9499,17.866,-3.9235,25.3041,-7.8195,15.622,-16.9318,
5.9809,1.6906,-16.3608,-14.3166,13.734,-8.7067,-22.322,0.056087,2.694,-1.7982,9.6858,5.9396,0.58466,-1.8159,
19.722,6.3113,-1.2791,-0.23537,27.0099,-7.24,-10.6601,-0.89153,-2.2576,-2.6355,6.2042,-3.862,-4.2404,12.393,
21.9109,13.0163,5.0035,7.8067,26.3336,-9.1662,-15.2148,-0.36591,-5.4279,-1.061,-3.1412,-1.2696,-8.236,7.938,
17.7635,11.291,2.8148,5.4498,22.8651,-6.7278,-13.3576,3.4339,-2.2686,0.89207,-1.0633,-0.24828,-2.0745,-6.6383,
20.4752,4.0025,-2.0767,-2.4335,20.5485,-4.4352,-11.6115,-1.4947,2.5902,-0.10616,6.5568,2.5998,2.7717,-1.5847,
11.6904,-0.016013,-16.0521,-9.8437,7.0372,-6.058,-22.2489,-1.4055,-4.1772,-5.7666,8.9965,6.2213,-3.0615,12.6103,
11.9332,-0.015052,-9.4895,-6.4194,20.7149,-8.5282,-13.3582,-1.3211,0.79643,-7.31,9.401,0.1816,0.90011,4.3648,
12.1624,-1.9026,-7.0307,-4.1449,33.572,-5.1828,-17.2789,-3.1304,-6.8071,0.68527,-1.5516,13.3938,-2.9309,-0.61832,
6.7101,-8.4005,-12.2757,-11.4524,23.1919,-13.3723,-23.7984,-1.9978,-3.5655,4.4216,6.0968,20.1455,-4.6449,-5.3047,
10.0853,-7.8956,-10.5949,-13.598,7.7004,-15.4028,-16.7032,1.8999,7.0378,-2.4543,18.9541,4.8368,1.3011,-9.7086,
13.2586,0.13352,-14.6818,-12.7826,21.3384,-4.0896,-11.9226,0.84123,-3.7734,-11.7518,7.427,-9.5534,-2.5544,-1.5698,
26.5631,11.9313,0.29908,-2.0992,34.1581,0.4058,2.8927,0.31863,-4.02,-15.2976,5.5641,-7.6981,1.848,1.8292,
39.0693,11.6885,6.96,3.2219,46.2086,-2.9243,-0.047147,4.5495,-14.6395,-13.9068,-0.90828,-6.7632,-4.4014,1.2483,
30.2482,7.2084,-1.9576,-2.6387,57.5361,-3.6931,-7.601,3.3323,-16.5948,-6.4617,1.9799,-18.6362,-1.3037,1.1725,
26.0718,9.1374,7.132,-2.0074,49.0912,-5.833,-3.8392,-2.0619,-3.7933,-5.6019,8.0005,-23.6575,3.0246,-9.7585,
24.5075,8.5882,8.5926,5.668,37.6448,-5.4831,-8.331,1.8388,-3.5657,-3.3773,2.7974,-8.138,-1.88,-23.273,
27.7597,5.2398,2.4102,1.5505,31.6087,-7.9873,-6.8864,-2.049,-0.51854,-4.1184,9.2407,-2.8598,1.0669,-30.4445,
29.8715,14.371,0.37662,5.2349,43.8121,-3.7306,-9.3073,-0.98132,-5.21,-4.816,11.5203,-4.5772,-5.6091,-14.5178,
25.7182,12.0919,9.3266,16.727,45.5008,-6.8121,-8.2763,-0.45077,-5.3691,-4.9987,-0.97716,-0.99721,-6.6885,0.45326,
26.537,3.338,14.9069,14.3075,28.6707,-13.4866,-4.4735,-1.8396,2.0372,-5.1714,-5.1681,3.3131,6.4634,-13.6739,
28.7223,12.5825,3.6226,11.5592,26.411,-7.0105,-10.8171,6.7703,-7.5307,-6.7501,1.7531,4.059,3.2415,-10.8977,
32.1932,20.7997,7.6553,17.0051,38.9263,-3.285,-2.1402,10.6141,-11.3289,-5.8729,3.0643,-1.3797,-5.9252,3.8562,
21.289,5.8579,1.057,10.79,39.4913,-0.72596,-8.1507,3.8383,-11.1208,1.5636,-3.2586,3.8978,-8.875,10.3042,
5.9117,-7.7171,-13.1064,-2.1357,23.0218,-6.3492,-18.9954,-2.0588,2.7691,0.52506,3.5481,3.6644,0.15709,-4.4141,
-5.3719,-2.0594,-10.0259,-2.4802,7.5405,-17.7746,-11.7162,-0.51848,13.464,-4.7012,8.5299,-4.5838,8.176,-15.0791,
-6.4656,-3.3527,-5.1738,7.5864,6.0096,-4.9018,-14.3186,0.92945,-1.4438,4.5535,-0.95452,9.7912,4.3801,-3.3123,
5.7277,-11.179,4.1092,6.6586,11.788,2.4755,-8.2656,-1.4874,-4.2582,3.8077,-3.2583,23.3037,4.589,-0.75248,
16.7182,-0.11923,4.8065,0.59228,14.8582,-7.1178,-8.7135,6.1572,-5.8916,-10.5207,-6.8403,7.8055,-7.0196,6.8489,
22.3262,13.9879,6.407,9.0572,28.0667,0.86555,1.2541,19.8878,-3.6492,-12.7896,2.0697,-6.7628,-2.8209,14.9385,
12.4866,6.604,-0.58895,-5.5862,35.8948,-3.9094,3.0673,4.5945,1.2919,-10.1337,8.5571,-15.8023,2.0705,-0.057842,
11.2648,4.7918,-1.9695,-8.6237,34.2136,-5.0908,1.4664,-4.6533,0.74273,-11.8867,7.572,-16.2701,1.4746,-12.8722,
11.0611,4.9764,-1.3792,-8.5793,32.633,-6.2026,1.8506,-4.8463,1.1703,-12.5908,8.5341,-15.7669,0.91306,-5.9614,
11.8142,4.2053,-1.7691,-7.592,32.0918,-6.303,2.2121,-5.0281,1.5726,-13.2513,9.4388,-16.2377,1.3308,-0.40897,
11.5779,4.4255,-1.1903,-7.6081,30.6389,-7.3408,2.552,-5.1981,1.95,-14.8173,10.2893,-15.7351,0.77932,5.7554,
11.3558,3.6874,-1.5915,-6.68,30.2174,-7.3729,1.9263,-5.3587,2.3055,-15.3451,10.1436,-15.2636,0.25999,10.6048,
11.6183,3.4666,-1.4956,-6.2787,28.4039,-8.8195,2.7554,-5.9819,3.1119,-15.3691,10.4797,-15.2916,0.24484,16.5796,
11.8663,7.0365,-6.128,-6.8462,12.5996,-9.2346,-0.24357,-1.8451,-0.8527,-3.1132,9.8509,-7.7625,-4.4929,7.0848,
14.9318,3.7811,-0.093448,-9.2696,14.6095,-13.4031,-0.2285,-9.2897,0.14316,3.6847,-1.1291,6.8032,-4.2229,-7.4403,
15.9253,3.5543,12.1901,2.6212,27.8329,-11.6537,-0.21479,-8.7324,-1.7548,10.0751,-4.8393,20.495,-8.6916,-18.3953,
17.8034,8.0632,22.7924,11.9082,21.5082,-4.3439,0.74234,-5.3748,-5.4274,2.8591,-0.77101,9.0101,-18.5596,-3.1916,
20.9852,18.4409,14.3412,18.2774,12.1898,10.0168,-8.2753,6.7535,-13.1297,-4.3961,-6.8642,-5.6305,-22.6412,11.0999,
17.8372,12.6119,6.8696,15.2918,-2.6416,23.5158,-8.7225,17.6816,-5.7308,-6.0213,-7.397,-8.6653,-8.0601,3.4844,
5.4328,-1.3675,5.5127,2.0959,-16.5831,36.2048,-11.9775,13.7875,0.27986,-3.7711,-1.2863,-5.3122,-3.7981,-10.8246,
-3.3936,4.3814,-7.0964,2.9149,-29.6881,48.1325,-25.3589,14.8492,-3.5144,10.5552,2.5692,9.1065,-7.3477,3.9249,
2.4768,3.1738,-15.1711,1.7953,-42.0069,32.763,-22.0153,2.625,-4.2482,17.545,-3.2518,22.6601,-7.8515,17.7894,
9.4119,0.62279,-11.8993,0.27117,-53.5864,35.0472,-10.7771,3.8839,-6.3548,9.4095,-9.1961,35.4005,-9.742,23.8735,
-0.125,2.946,-3.1575,6.3934,-64.4713,44.7502,-5.8804,16.4018,1.1101,-1.0724,1.273,24.0333,-8.6853,23.8574,
-5.3127,-0.53649,-0.60649,14.9829,-74.703,34.0373,-6.9449,11.1668,3.405,-4.3138,8.2802,17.3962,-9.5806,21.0087,
-4.0492,3.274,-2.459,16.9171,-69.2744,27.2724,-9.3614,10.4972,-3.4113,10.045,3.0608,20.1307,-6.1725,28.2487,
-7.112,2.6055,2.8828,6.9299,-64.6459,25.164,-8.3276,5.6173,-2.7336,15.6486,2.4051,8.0613,-6.2743,17.5816,
-7.6296,0.55975,0.8213,6.5141,-56.9892,28.3763,-8.7722,0.55726,-7.2926,13.7655,4.1493,17.0228,-11.5651,4.2488,
-11.8944,1.4709,-1.1169,3.2892,-55.4588,17.2289,-4.4684,-7.9767,0.7012,14.8276,3.9008,22.6126,1.4072,-1.673,
-25.2807,-10.4232,-12.8557,-11.0082,-66.2313,2.0952,-16.9503,-14.5808,8.687,7.7994,0.36093,7.1558,0.8506,-11.49,
-37.8639,-11.6868,-26.1844,-19.3876,-76.3574,16.0695,-29.1564,-3.317,-0.33466,15.8319,2.2282,17.5202,-13.3004,-3.2452,
-31.9484,-5.7913,-15.708,-5.4734,-85.876,22.6616,-13.307,-6.4237,2.9912,19.132,6.3446,30.569,-7.375,5.9226,
-21.531,1.1682,-0.66556,8.955,-70.5355,22.2466,1.5914,-6.0379,5.6458,14.2067,0.29704,42.8349,1.568,19.6672,
-20.2391,4.876,0.38551,13.2076,-58.7476,23.7454,7.77,-3.7871,0.58402,4.8533,3.1129,32.372,-3.2483,14.7762,
-21.8584,8.3613,3.196,5.8036,-46.7227,12.8755,15.8038,-8.282,3.3826,3.6179,15.2049,16.3297,-1.1649,-0.2104,
-21.0186,8.3313,5.3653,0.26068,-29.8193,9.7419,16.2724,-8.2577,1.7628,10.484,10.9864,14.81,-0.6224,-10.182,
-22.119,1.6929,5.5155,-4.005,-33.6292,14.3517,13.8797,-7.2901,1.1849,0.88282,0.40991,-0.17862,-1.0572,4.5289,
-23.6255,10.0914,4.2404,-3.7647,-34.4451,24.8243,14.9354,0.70311,-1.7198,1.7741,-4.3368,7.7927,3.7284,18.0198,
-26.4584,7.1239,-4.0424,-2.1229,-27.1846,20.9737,12.6225,-2.6444,-4.9219,14.4182,-0.7713,21.4251,4.9215,7.0208,
-17.3147,-2.7482,-0.96668,-1.9951,-21.7752,15.937,19.4214,-4.3747,2.9287,12.6084,7.7755,34.2396,-2.93,7.5443,
-19.5816,0.72243,-3.2693,-6.1254,-16.2186,21.1202,19.6725,9.5821,-2.4413,-2.2481,4.9474,18.0852,-9.8379,11.3416,
-29.2683,2.0959,-0.71207,-12.8411,-22.3292,7.1024,28.409,12.3134,2.8999,-16.2132,11.7347,2.9001,4.8524,-0.19999,
-22.3174,-1.3347,2.6364,-5.9321,-23.3505,-2.2959,26.2323,5.4352,4.1423,-24.3468,12.447,-11.3739,12.1848,-10.1053,
-6.8784,8.1897,6.2561,8.5238,-7.8495,11.9419,20.8805,12.6649,0.11587,-10.6081,6.0329,-3.2025,0.11915,-12.3326,
-8.7594,5.3372,5.4082,-2.7814,-1.1722,15.5423,17.2666,5.766,0.5815,-11.3884,-1.4123,-0.64932,-0.35968,-13.0086,
-22.3339,-3.4831,-9.0163,-14.8933,-15.2019,0.50973,4.8969,0.6979,-3.2313,-4.0936,1.5061,5.0569,0.60615,1.8719,
-35.0938,-16.0255,-22.5753,-24.8608,-28.3898,-13.283,2.242,-4.5387,0.26791,-4.3205,6.6104,1.4473,-0.84704,6.0765,
-33.1233,-13.6467,-11.9107,-25.7307,-28.71,1.614,7.3018,-1.9058,-0.22029,-8.3113,4.7965,-4.779,1.5653,-8.3881,
-26.8855,-7.6332,-9.7793,-17.1028,-25.5706,4.4177,4.5026,2.4591,-11.0682,-4.5073,-4.463,-4.9639,1.944,-2.2853,
-33.7728,-7.1752,-6.3589,-17.0217,-37.259,-9.9473,6.1209,-3.3549,-10.4041,-4.2369,-2.3067,-5.6103,3.7158,-4.9809,
-32.6907,-1.0778,-7.8663,-11.2778,-20.9234,-0.91735,1.9762,2.5133,-14.5024,3.5736,-2.1679,8.8263,-1.2297,4.7627,
-16.6293,0.87534,-5.5049,-0.21172,-5.568,9.5271,3.7462,8.0289,-5.1323,17.4592,-3.9272,22.3967,0.73346,18.5769,
-15.5646,-3.8989,-0.45202,-3.0322,-8.8776,-5.1445,4.4661,-0.95336,-0.10173,18.3679,-1.8026,35.1529,-4.0331,25.085,
-28.7307,-4.6096,-3.259,-6.6286,-8.3445,-11.5147,-2.413,4.7707,-5.7625,8.7653,3.9724,33.2453,-11.3474,13.19,
-27.0738,-9.9999,1.6591,-2.4526,-20.1222,-7.9897,2.4544,8.2628,0.25012,-4.039,7.5124,17.1506,-1.2209,16.1769,
-13.6431,-6.0941,1.0875,5.7225,-18.4428,-6.094,0.88986,2.5719,-0.23701,-4.2688,-1.9114,2.0216,0.26872,15.6784,
-4.3249,1.8268,1.0218,8.2124,-3.2362,-9.5058,3.6706,-1.3599,-1.1675,0.70996,1.9816,13.5714,-6.3585,0.63774,
0.65763,1.7172,6.6278,14.3312,4.5815,-9.8797,0.61668,-1.2783,-2.0417,12.001,5.6406,24.0917,-14.477,-6.079,
-7.4097,1.1421,2.9243,15.8328,1.0009,0.62952,-9.3376,3.0484,-1.4471,25.381,-0.83724,36.7462,-12.192,8.3858,
-21.0652,-7.8986,-3.3897,0.78284,-7.0871,-9.3247,-5.4716,-6.1067,3.834,15.4254,1.5745,25.1636,-2.4883,21.9826,
-22.2301,-5.5362,-10.7421,-10.193,-3.8291,-10.6546,-3.2539,-3.8518,1.7155,4.1105,9.0358,11.3749,-3.2833,6.5637,
-19.4795,-2.8421,-13.4038,-6.2761,-8.7932,-1.9869,-1.6419,-5.9817,3.9736,10.0028,12.7442,1.7207,-3.558,-7.9301,
-20.2001,-7.3946,-9.7659,-11.5669,-10.155,-5.6465,0.34516,-13.1786,7.5131,5.6247,5.3671,-12.4825,-0.51175,-5.0933,
-17.0987,-1.2841,-12.9583,-8.983,4.5543,-3.4179,-1.5645,1.7121,-1.4382,-2.269,-3.4545,-8.9677,-3.3142,9.3123,
-8.9896,-2.6243,-11.7087,-8.917,9.5422,-9.3522,0.89,0.25988,-1.824,-4.4944,-0.88665,4.3204,-8.3106,-4.8738,
-3.7271,-2.4659,-9.1167,-1.7705,10.8591,-9.7353,-0.10766,-6.3673,4.897,9.8753,7.6675,18.1612,-9.7004,-9.3035,
-10.5876,-2.7905,-14.7087,-0.24742,12.5686,-5.8459,2.2599,-4.5684,3.1863,8.8784,9.5685,8.1662,-1.09,0.22728,
-6.6462,-1.2063,-3.9093,-4.483,-0.93603,-6.912,12.0421,-1.9332,0.63409,-5.7543,7.5776,-6.4237,4.1692,-2.1483,
5.5584,7.8383,4.3532,2.8696,13.2201,-3.1915,0.45706,7.1549,-5.5434,0.19049,-0.90499,4.2833,-5.9974,12.0806,
4.2807,6.4237,10.7035,12.1426,26.5269,-6.7779,-2.4031,2.9486,-1.4329,10.5685,-4.6286,12.5273,-6.5818,5.2846,
-2.1156,5.5662,7.6998,5.2746,14.6805,-3.0654,2.9362,-4.3119,2.9031,6.6286,1.7885,3.7477,-0.048354,-9.1325,
-10.017,4.7596,-6.8622,-9.1418,2.9377,0.4238,2.2866,-5.47,4.1458,5.7583,7.8193,9.6618,-0.51803,-2.9851,
-17.4439,-2.6092,-13.1285,-21.8829,6.0677,-10.4627,0.73348,-6.5587,5.3138,3.0518,4.0457,5.7768,-0.95862,2.3888,
-18.2862,0.38102,-11.3965,-13.0141,6.6478,-7.9465,-3.0884,0.4464,-1.6165,-1.8535,-0.92007,-2.1265,0.9874,-11.8546,
-10.5775,6.0246,-1.2684,-10.3447,-1.3068,-2.7475,3.7075,1.3639,-2.4638,-6.4653,1.9679,-4.8326,0.92815,-8.3779,
-2.3875,10.3857,7.3082,-1.2236,11.9942,0.25141,11.9856,0.33733,-1.3713,-2.2991,-0.98339,-5.4864,-1.0165,6.2248,
-16.3443,6.9289,-0.68611,2.6277,19.7755,-12.9868,5.6,0.31709,-1.289,-4.9948,-4.7023,-19.2572,3.7675,0.2518,
-27.2363,1.3189,-5.8392,-11.6299,10.5602,-17.4018,3.8468,-12.452,8.7048,-12.723,-0.16922,-28.0864,10.6252,-13.8633,
-21.3521,2.6561,-6.9061,-16.6659,24.0266,-2.2577,-2.5226,-10.2885,2.9882,-4.876,-5.3542,-12.3013,3.8482,-18.7652,
-24.321,-3.6418,-6.9639,-18.0274,23.5975,-16.2223,-0.95484,-4.476,1.3925,-6.9449,-4.5609,-2.0507,5.0337,-9.6114,
-23.806,4.1321,-4.6571,-16.0011,9.9032,-17.1379,6.6587,-3.2628,11.698,-9.3614,9.8128,-7.5945,15.1216,5.0653,
-25.2117,10.4953,-5.3224,-11.2631,10.2528,-2.0096,1.5366,-4.0117,1.5514,-10.6887,11.1808,-13.7508,10.4359,1.0508,
-19.4481,9.3939,9.097,3.5127,23.7377,8.0956,5.6949,-0.46567,-5.6249,-0.1296,3.4267,-8.6744,3.6708,-13.1122,
-15.9201,8.3581,12.3968,17.4019,36.4134,-6.4901,-3.619,0.034393,-15.2048,12.6282,-9.5299,5.9461,-10.6494,-8.6145,
-10.2428,5.0225,6.9304,25.9372,36.2527,-5.6964,-0.56867,-4.6903,-4.8477,1.4816,-4.2355,1.4053,-9.6052,6.0024,
-8.684,4.7216,11.2372,19.6584,19.9775,8.7454,7.965,-0.6305,9.5431,-11.8309,10.1186,-8.1238,5.0711,-4.6799,
-22.2629,-0.75639,-3.537,10.4514,4.6789,-5.4063,-5.2625,1.7684,6.6764,-6.8705,9.1067,-7.1638,2.4726,-18.4991,
-26.1888,-5.4332,-2.9205,12.6571,-0.93173,-12.6386,-1.1697,-4.9492,9.1094,0.15323,11.3931,-20.8339,9.8801,-31.1512,
-16.1174,-3.2187,3.8663,13.7861,13.2242,1.3428,-1.0995,-3.708,-0.88233,-5.5233,5.9874,-31.9292,4.5651,-15.1822,
-3.8162,3.5864,4.5799,12.9594,25.7216,1.2627,4.6342,0.29278,0.1153,-12.7472,5.6286,-30.9581,5.2359,-3.8149,
6.3296,10.4545,12.3326,23.0439,20.8721,-1.175,13.3287,-1.1416,11.9147,-8.6771,9.5404,-20.128,12.005,-8.7807,
-8.1502,3.2157,1.2032,22.6055,19.6198,-1.1045,-1.571,-3.9068,-1.0791,-2.4891,1.4122,-4.8203,2.7846,-17.6991,
-20.0069,-11.0773,-4.5358,8.0256,4.3426,-6.7051,-10.0455,-14.0613,-1.0139,3.3262,4.1607,4.981,2.6171,-5.303,
-4.7065,-6.7021,-2.3747,2.8224,3.0704,-6.3024,-7.5529,-14.1624,-0.95349,4.0713,5.8,2.7932,2.4605,9.1152,
9.6759,7.8,10.5183,15.4027,16.9862,-7.3419,5.6499,-3.3958,2.409,-7.9793,12.5352,-11.4744,1.8403,-5.5317,
15.369,12.5945,23.9872,26.7578,30.067,-10.6789,18.5345,-7.9137,8.8765,-15.0558,15.5614,-24.886,5.5082,-19.2998,
10.6694,5.2273,13.1705,24.2072,42.363,-3.4266,8.9214,-14.0504,-5.7561,-2.8188,0.52774,-19.2775,-2.3789,-18.6817,
10.9731,3.0238,7.6577,10.4764,40.4949,-8.8878,3.6636,-16.0415,-7.367,3.9614,-7.1266,-4.0208,-6.9588,-3.4608,
10.7868,6.1482,11.4483,6.5429,23.9652,-17.3276,5.8053,-10.8281,-0.78558,10.8074,3.2174,10.3204,-0.40185,2.0089,
2.1121,7.1966,6.5113,6.6225,8.4273,-11.0928,7.8185,-10.6505,3.5116,11.5762,9.1638,0.39114,9.5396,-12.2117,
-0.37612,1.5701,0.92594,3.864,8.2596,-9.0104,3.0989,-15.2062,4.7177,-0.92461,5.3086,-11.4386,3.7725,-25.579,
4.3695,0.5316,-0.073866,12.1322,21.864,2.8639,-11.187,-8.6274,-5.9548,-1.8134,-2.5657,3.3477,-8.7318,-9.9442,
6.4684,-6.5835,8.9032,9.9875,27.7036,-0.61326,-11.9991,-12.3594,-14.5701,-5.955,-11.3844,13.1311,-14.3469,4.7524,
6.5524,4.6722,11.6748,7.9719,30.2905,-9.5495,1.4709,-9.2572,-17.0017,-2.292,-14.0071,17.5384,-16.7918,7.3009,
-2.3412,13.8375,5.3074,14.1046,28.4735,1.4133,2.3274,-3.0349,-8.4253,9.1797,-9.3892,24.0414,-12.0069,-7.2371,
-7.3955,-0.68799,6.4054,6.1747,18.7372,-0.088742,2.6599,-7.1028,-1.7804,-5.0663,-4.5749,8.9046,-6.0913,-3.564,
1.5483,3.1307,6.9657,-4.5848,28.9462,-3.8618,11.945,-1.0098,3.0481,-14.2071,9.7996,-5.7297,-1.0041,2.3158,
5.2333,9.554,6.5473,-7.1438,30.0435,-7.4075,23.5067,-6.6161,8.5321,-19.9657,19.6675,-19.4859,7.5566,-11.9232,
13.8924,9.4533,14.1829,7.3848,37.2135,-0.82408,17.8458,-8.5802,1.8812,-13.5731,7.6263,-30.2577,6.6316,-18.3579,
7.8646,-5.2139,3.4146,1.3431,27.8971,-4.0804,2.6751,-9.4817,-12.3317,-0.95288,-6.5265,-14.3422,-7.8663,-3.1564,
3.6139,-4.4963,3.2097,-4.4047,18.6674,-5.7241,1.0309,-1.3571,-4.5755,13.2043,3.3103,0.61832,-4.1559,11.133,
-6.0472,-0.44768,-11.0829,-6.029,23.2138,-0.6585,-1.8646,3.4465,-11.8567,11.5351,-5.3884,14.6812,-8.6287,12.016,
-3.3233,0.050852,-10.9569,-0.4734,23.2378,8.3536,6.2756,0.87866,-5.9506,-0.96325,1.0739,27.9003,0.86072,20.2677,
-10.2076,-1.369,1.5059,0.97183,7.7435,2.6577,10.1486,-4.3688,2.4348,-6.1002,5.2591,12.1263,6.0038,12.9127,
-17.1509,1.5468,2.3607,9.4136,7.6841,-6.947,9.5397,9.9933,-1.4892,-8.5678,0.22136,-2.7013,5.6436,2.6927,
-6.6767,0.51016,11.6638,16.405,5.3342,-15.974,16.5236,7.5721,5.2113,-10.8869,3.9864,-16.6392,11.917,-4.0799,
-6.7491,-1.8824,18.0472,17.7818,-9.0859,-11.7102,8.448,-3.7442,3.4818,-5.0399,5.1632,-17.4629,9.7842,2.3038,
-20.4442,-4.6027,14.1311,16.7144,-20.4139,-13.8417,6.0522,0.25879,1.3839,1.8745,2.9644,-2.3151,4.4755,-2.557,
-31.0902,-2.9097,4.3106,6.7398,-10.2164,-17.2608,11.829,0.71584,3.6628,9.7904,7.037,7.8084,2.7901,-8.5426,
-35.8364,-8.4029,-8.2264,-7.7646,-7.7145,-9.614,3.563,-13.4271,3.4426,6.3689,10.3923,13.951,1.678,-2.3632,
-28.9636,-13.5646,0.76769,-17.7555,-18.5858,-11.8704,3.3496,-21.1898,13.6251,-0.62436,10.7134,0.83558,9.1336,0.61183,
-22.5036,-8.0286,4.4995,-11.968,-8.9706,-7.3803,-5.3523,-5.8184,1.4739,8.8574,-1.2631,9.2864,1.974,14.6751,
-28.7087,-2.8243,-0.49304,-6.5273,1.0133,1.563,-5.9749,-1.6236,-7.1151,6.4379,-6.8541,16.2846,-4.7555,22.3624,
-33.1256,-3.1274,2.8428,-8.4968,-8.0201,1.9409,2.411,-3.8873,4.1739,-4.8104,3.474,1.2075,1.6688,6.9207,
-43.4165,-8.6071,-2.9951,-16.487,-21.6389,-1.9534,-6.2337,-6.4877,3.9234,1.1455,7.9886,-12.965,0.6244,-7.5945,
-54.5067,-11.3964,-6.1212,-29.1934,-34.4406,-7.0305,-2.5539,-14.1272,8.8823,-0.34048,13.6478,-4.7655,5.7812,-17.6625,
-56.4306,-10.2396,-14.7261,-27.914,-27.7867,-1.4144,-0.040029,-7.1402,11.6551,-6.4586,12.3568,6.382,5.9065,-2.5028,
-47.85,-17.6531,-12.4261,-20.0992,-30.3695,-1.8007,0.4354,-10.0166,8.5952,-4.6547,1.699,-1.0846,1.3021,1.4926,
-30.879,-10.4554,2.4194,-7.0875,-20.5194,-4.9994,9.3814,-15.5551,0.99492,-2.959,-6.4318,-4.3253,-0.19245,-10.4028,
-22.82,3.395,14.1474,4.6715,-5.1882,1.9121,16.3743,-2.3438,-7.5648,-4.67,-6.9901,-5.01,-0.1809,-5.0564,
-22.3955,-5.3092,6.6875,-5.0545,-18.0323,-3.8694,22.9472,-4.0921,3.2781,-15.7239,5.7077,-18.8094,4.5517,-15.1429,
-18.2181,-0.26851,3.4526,-7.5839,-31.0503,0.14062,17.7934,-6.6803,10.6372,-12.8911,8.198,-31.7809,6.1679,-17.0671,
-18.5418,6.8317,3.718,-1.9342,-29.7272,0.60476,13.4196,-2.9741,10.4715,-12.5902,4.4008,-20.0914,8.1589,-1.9431,
-12.7067,2.6435,5.3839,-1.8186,-13.8436,-8.8763,23.0043,-0.90582,6.0658,-15.6122,7.9151,-16.0527,8.6141,12.2735,
-10.5275,2.9574,-2.9675,1.5967,-18.1399,-2.2047,11.7072,0.56535,-4.215,-0.5755,6.0233,-0.98952,1.014,-2.5629,
-16.98,-0.52623,3.3495,2.9169,-31.1515,-4.4335,6.7543,-7.4969,5.0096,13.559,3.3009,13.1698,0.48063,-15.0928,
-15.9612,-2.3832,5.0379,2.7419,-15.1824,-8.8905,8.2375,-10.825,-0.013138,16.6572,-2.5645,26.4797,-1.4376,-0.087201,
-7.4473,-1.2955,-7.5427,-1.2001,-0.17147,-10.2452,16.2437,-3.5644,-5.6792,1.5577,-1.4659,10.7909,2.427,14.018,
0.082795,-3.5793,1.882,-11.0454,13.9388,-23.7305,29.3691,-10.4342,8.3568,-12.6357,5.7057,-3.9566,12.1978,-0.92305,
-8.4222,-7.1424,0.82483,-16.0491,27.2025,-36.4066,27.2022,-19.2525,0.29957,-2.0945,0.64032,-13.5687,-0.81202,-14.9677,
-10.7505,-8.6028,-5.8358,-10.3635,39.6703,-43.3295,19.9032,-13.3756,0.28115,7.4759,4.3802,-7.0877,-3.5965,-25.8754,
-18.6055,-18.4756,-19.5856,-16.3528,51.3901,-43.5629,10.2085,-18.239,3.0984,-6.1953,5.0621,-2.8841,-7.1582,-11.1003,
-25.9897,-17.3675,-22.2557,-24.8173,62.4067,-44.7275,9.5956,-24.7009,1.9678,-5.824,4.758,-2.7115,-4.8406,-1.9338,
-17.3466,-12.0755,-9.1146,-25.6893,72.7623,-47.2386,19.8814,-23.691,6.0997,0.66485,4.9455,-16.6488,4.4229,-15.9177,
-6.8611,-4.7394,-9.5119,-17.5369,82.4966,-43.46,12.077,-19.4368,0.06645,2.5135,-0.074277,-7.6893,-3.3983,-29.0627,
-3.6158,-3.5103,-7.9965,-14.5948,63.4468,-43.6852,11.3528,-23.9365,3.8408,2.3631,5.5979,4.1062,-4.1391,-21.3137,
-10.0104,-11.8007,-6.5725,-19.3869,45.54,-46.7314,11.6159,-24.3897,7.3883,-1.5566,5.2611,-10.2402,-2.9465,-10.5906,
-10.3545,-7.3147,-4.2896,-7.8338,36.127,-35.4274,9.0304,-9.7042,5.9998,4.2032,0.22333,-13.471,0.063952,-13.7331,
-7.3721,-6.4033,0.21822,-2.1699,24.0425,-39.4408,5.1824,-17.1494,3.2788,-0.29856,-6.8742,-2.7459,-1.3567,-26.6038,
-8.3462,-13.1027,-6.8785,-9.1225,23.0721,-43.2133,-4.1007,-17.5368,-2.1122,4.9136,-8.8224,3.5583,-9.3032,-10.9076,
-12.0954,-19.3998,-5.9933,-16.6035,26.8825,-39.2037,-1.4936,-11.2899,4.1535,18.7188,2.569,11.3731,-5.4388,3.8469,
-11.8423,-16.819,0.50531,-12.302,12.519,-30.7125,-2.8208,-18.6408,5.3211,22.3852,8.5529,9.2739,0.08134,3.2777,
-13.0207,-15.8103,-8.0255,-11.5634,2.3232,-23.2029,-2.6511,-18.4671,5.9465,10.6531,12.7624,-5.3825,10.4663,-11.019,
-13.6563,-17.2227,-7.0714,-14.1754,6.4333,-29.8386,11.2027,-9.3311,19.2845,8.5971,20.9692,-12.2106,22.588,-8.0636,
-26.0595,-16.1889,-14.2034,-14.2696,2.2699,-34.6598,-3.5695,-10.6598,4.0274,1.4701,5.6111,-11.4784,7.1327,-2.8572,
-23.0791,-8.1344,-9.1007,-7.274,-4.9495,-21.7187,-4.839,-7.6591,-1.4758,-6.6464,3.7907,-10.3171,-0.44536,-5.0469,
-13.1943,-5.7574,1.8343,-5.8933,-0.8751,-14.7487,3.0067,-1.5327,12.7127,-5.303,15.8416,-11.587,10.9146,-6.633,
-15.2359,-5.4119,-5.8315,-7.4286,3.8996,-18.5864,-6.618,1.392,6.3495,-4.9848,9.2239,-10.8918,10.2597,1.3208,
-6.2934,-3.6704,3.491,-1.7882,-10.4344,-17.9429,0.86229,5.5589,11.1642,-7.0468,11.0324,-12.5994,13.8946,5.492,
-2.1379,-3.4497,8.9484,-1.6809,-15.07,-14.9774,-2.9669,5.2259,1.9938,-3.7908,5.6479,-9.9545,3.6162,-0.50437,
3.1847,-0.8821,10.773,-1.1075,-0.065767,-14.5513,-5.1504,-3.1165,-6.1546,-1.2018,-5.5535,-7.9408,-2.7402,-11.3366,
11.4945,1.0602,16.7382,0.84838,14.0382,-18.4004,6.4923,-8.5959,-0.11803,-7.7412,-3.33,-15.0193,0.25786,-11.5997,
3.2482,2.8847,8.1776,0.79613,10.9686,-12.5746,0.43593,-4.3027,-0.1114,-8.2215,1.5906,-18.8416,-1.6466,-1.4599,
-0.72416,7.4342,14.2981,-1.1401,8.4224,-6.1529,5.1324,-7.822,9.3409,-7.7277,5.2735,-25.2664,6.0085,-8.9277,
7.8198,6.0443,15.3291,-0.12658,22.0171,-5.7837,5.7691,-9.2416,2.1685,-9.153,-2.5982,-15.25,3.759,-10.2809,
13.4891,0.48604,7.3262,8.8527,25.9577,-6.8535,-0.71689,0.28548,-2.2121,-8.1321,-4.8043,-5.3632,1.1715,-2.5809,
9.8466,1.4016,10.664,8.322,14.9555,-13.0534,1.2151,-0.67634,3.5884,-10.4774,1.1517,-6.9295,4.8796,-6.2035,
-0.18897,1.3179,-1.309,-1.622,0.8355,-9.437,-5.4689,-6.3026,-4.1832,-12.682,-8.363,0.097361,-1.0801,8.2687,
-1.5945,0.76628,-4.5367,0.83635,-13.3146,-8.3986,2.8876,-6.397,8.8183,-6.7263,3.945,4.3411,7.9574,21.8726,
-3.8594,-0.69607,-2.8472,3.1477,-26.6158,-14.9779,0.3528,-5.5406,5.9286,-1.1285,8.9035,-2.0579,2.2857,6.4603,
0.1496,1.2346,0.15679,5.792,-39.1188,-7.4682,-0.61307,3.2919,0.85029,0.82818,1.7573,-0.045472,1.2038,-5.1942,
5.8075,1.1606,3.9253,6.3888,-38.8622,0.53571,10.7574,3.0943,9.2993,-0.16576,-3.0703,6.5688,9.6316,-3.9383,
-1.1521,-3.6317,-7.6444,0.33858,-46.9204,-2.3296,-3.1107,-2.7582,-5.3586,0.78888,-12.3308,3.3406,-5.0463,5.7428,
2.2224,-2.9412,-1.991,-1.0986,-54.022,-11.1625,-5.2851,-3.0644,-4.6323,3.1026,-6.3963,-1.1094,-1.5051,16.2593,
9.6448,1.957,1.9068,6.5236,-45.1138,-4.8259,-4.0233,-1.9367,2.2567,1.9718,-2.235,-1.0433,6.1406,9.6169,
11.8993,4.6732,-0.096993,16.5207,-28.307,9.5637,-3.7819,5.7353,-0.71235,3.742,-3.9894,-1.925,-0.83939,-0.40438,
16.8527,0.61537,10.2987,16.4742,-15.2071,15.6683,4.0013,5.3916,6.8866,-1.2043,0.97252,-6.5321,1.1008,-5.1027,
6.8689,3.8838,5.4303,14.0689,-27.9903,8.5888,-3.3229,5.5398,6.0009,1.2291,0.4416,-0.94542,8.118,1.3424,
1.262,6.0118,5.5771,17.4752,-36.2278,1.9345,-0.76249,5.68,7.0576,10.1279,6.5541,-4.194,11.8814,15.3619,
9.2147,-7.0985,10.4372,15.9551,-27.9143,-9.987,-3.0778,-2.6883,-2.3375,1.4919,-0.92239,-11.0256,-2.9315,19.2305,
13.8561,-3.3682,5.5605,14.5243,-12.1394,-5.1382,-1.4763,6.4447,-0.78137,-2.8481,-6.0618,-2.3366,-5.6566,3.9767,
10.1915,8.1685,9.949,13.6537,-11.8163,2.7264,9.0017,13.6148,11.5444,-4.5657,1.8577,-6.9185,8.7828,-4.3576,
3.9132,5.7894,3.6852,16.6119,-23.3857,-0.27087,1.8505,8.0753,-0.48245,0.43084,-0.14268,-10.2818,6.4342,6.2929,
-1.0442,-6.8363,-7.87,15.6148,-22.9272,-13.4777,1.739,-4.6876,-5.1761,7.0161,-2.9682,-4.9423,-2.4523,-3.5295,
-0.50898,-5.0098,-0.31328,14.2067,-32.4132,-23.5302,-3.5596,-6.7679,1.2739,5.1787,-5.1507,0.54853,-1.8331,2.8217,
7.0773,3.7918,8.2056,16.1879,-27.6347,-10.7842,-9.9576,3.0834,-1.6353,-4.5772,-7.6745,3.3493,-1.7222,16.7524,
12.7921,2.1474,6.2964,7.1883,-11.8767,3.9628,2.4462,1.4815,-2.0097,-16.1079,-11.4645,-10.9517,1.6865,1.6473,
12.9684,4.8513,1.1965,5.8118,2.9359,12.7641,4.1879,4.2263,-6.6122,-10.4202,-10.7766,-18.3903,3.4738,-6.4799,
17.8576,-1.1061,3.0132,10.1862,16.8598,3.4982,-0.78553,-2.6388,-7.1597,-13.572,-4.4636,-28.6197,0.43261,-1.3681,
30.8861,6.0435,16.5272,13.8246,1.7482,9.4273,11.067,-2.9531,-6.2576,-17.9524,-8.4454,-34.9309,-3.8438,-5.5365,
43.133,19.7808,22.1471,19.6066,15.7433,22.9617,20.7924,10.4472,-11.5494,-6.4867,-14.5502,-28.1129,2.0532,-6.1485,
54.645,32.694,20.8187,14.6528,28.8987,35.684,17.6559,6.042,-6.1338,-14.5971,-7.0661,-38.7045,14.2084,-10.5022,
65.4663,34.6449,12.9576,19.4405,41.2648,36.5113,17.5412,18.9021,-10.4884,-25.9996,-12.309,-41.1044,8.6333,-5.1495,
75.6383,44.8446,17.8479,27.7188,52.8889,44.7096,24.045,30.9916,-23.9591,-26.3286,-25.6704,-30.1371,-3.2179,-2.9516,
85.2,39.3203,23.3876,18.4999,63.8156,56.127,8.5023,15.0321,-30.1442,-29.4719,-38.2302,-17.9404,-13.4143,-1.8302,
94.188,42.1558,24.3455,23.5288,74.0866,66.8594,-6.1078,16.4239,-14.6408,-17.7859,-23.3201,-2.764,-7.4147,12.3796,
92.7846,38.6822,20.9962,21.1729,83.7414,57.7878,-6.3486,3.1596,-13.7624,-23.3303,-17.1987,-16.6981,-7.9141,9.3431,
89.5791,34.9449,13.597,19.4304,92.817,49.1262,-5.4956,2.4979,-23.7982,-18.6247,-14.7495,-23.2516,-11.6893,-3.9685,
79.0096,20.0977,0.97585,9.2919,101.3479,60.2787,-19.2658,16.0437,-19.0641,-10.4231,-9.615,-7.7565,-8.6268,6.1874,
60.169,8.5019,6.5841,7.7897,109.3671,51.5341,-29.983,14.1364,-3.8202,-13.576,-5.2598,-2.9737,-1.4981,14.3158,
42.4589,-0.50867,11.8559,21.4223,116.905,34.3421,-42.2841,3.8434,-8.2467,1.3385,-9.6668,11.3047,-7.0751,27.5568,
25.8114,-14.5782,13.0326,17.3707,108.4028,18.1815,-53.847,-7.7213,-4.9187,13.6035,-10.0315,24.7264,-5.7068,40.0034,
10.1627,-10.465,7.0569,9.2443,115.9986,2.9906,-53.1119,-6.7855,-3.2068,11.3705,-3.2906,27.6271,-3.0024,23.5032,
-4.5471,-2.753,0.49358,16.718,123.1387,8.2765,-64.0252,7.3164,0.29185,2.6599,10.6016,11.8694,4.261,7.993,
-18.3742,-16.6878,-1.4245,7.2149,125.3294,-6.3201,-74.2837,-0.67834,8.7744,-11.5997,6.1876,-2.9427,6.8389,10.3471,
-31.3718,-14.3375,4.7995,3.4762,111.6711,-10.2583,-83.9267,-3.9434,11.5537,-15.2211,6.2885,-16.8662,9.7344,21.5321,
-36.571,-11.1153,4.0398,2.7951,119.0708,-8.2259,-92.9911,-7.0126,8.4994,-0.20783,12.051,-6.1389,16.2335,19.7676,
-32.9604,-22.2551,-0.4526,4.0447,126.0266,-21.8324,-101.5116,-9.8971,1.85,11.2061,-1.423,8.3294,11.9538,15.2766,
-36.1771,-17.6136,9.4914,10.8852,132.565,-15.8672,-109.5209,-15.4427,-1.5663,12.8948,-12.1987,21.9297,8.8755,27.1106,
-30.7007,-20.8068,10.3392,-0.62948,138.7111,-12.5545,-107.1302,-28.6162,-12.3339,9.7596,-9.1053,21.2203,-2.5186,28.7897,
-27.9144,-21.4478,-4.3811,-10.9812,144.4884,-14.6349,-113.9255,-15.1603,-13.4833,14.8413,2.7738,11.447,-8.0339,31.7845,
-40.3395,-22.9941,-11.7419,-20.7113,149.9191,-25.09,-103.3116,-8.5838,1.4257,16.784,15.8309,7.927,6.5481,33.6548,
-52.0191,-26.8087,-11.5095,-23.7186,131.4102,-28.7789,-97.5851,-21.7636,15.4402,20.0279,21.9647,11.7014,14.2509,34.9413,
-46.6711,-16.7006,-14.5972,-14.7393,137.6256,-12.9522,-88.8968,-12.9019,19.8427,22.6037,28.2022,4.3882,17.1733,19.6222,
-43.3987,-17.1149,-11.3599,-11.4943,121.407,-14.4692,-70.8124,-6.9331,20.0694,14.1638,24.1495,-8.6261,19.4487,4.3449,
-51.1838,-21.7549,-15.4,-15.5263,100.0226,-23.9905,-80.6637,-14.0729,4.7653,15.2029,8.6005,5.9915,4.1818,14.8789,
-55.669,-19.5054,-15.4211,-19.3178,79.9213,-28.2179,-87.2249,-23.618,-1.2548,17.1244,8.0167,19.732,-5.5812,19.6525,
-56.5789,-19.7519,-19.6906,-18.6313,61.2961,-26.9974,-75.8524,-27.3956,8.7373,7.1243,10.8419,19.1549,-5.7189,4.3734,
-50.8231,-18.0946,-28.4265,-15.1519,43.5183,-17.3492,-64.2176,-17.724,9.6295,10.0026,5.9405,9.0334,-0.1806,8.7662,
-36.9117,-13.7027,-12.6209,-16.6039,26.8072,-16.7804,-46.2646,-10.5211,21.8031,14.5972,15.5018,5.1852,13.9302,13.435,
-35.1691,-11.4642,-7.0737,-18.9129,11.0988,-16.2457,-42.4767,-5.6394,15.2997,6.6377,15.9881,3.4577,13.1613,-0.12119,
-34.4767,-13.1374,-7.1219,-10.6954,-3.6671,-13.855,-34.7342,-4.8298,5.4091,1.989,4.1668,5.6113,8.1212,-2.4759,
-39.0192,-18.9603,-0.082545,-8.1647,-17.5471,-15.8565,-37.3723,-12.0949,-5.3044,0.92492,-10.1832,11.8857,-6.4661,9.0068,
-39.5108,-8.3774,-7.6334,-8.6182,-30.5943,-0.80508,-43.6296,-6.6471,-7.8198,7.481,-10.5834,25.2726,-9.9229,15.0779,
-33.8353,-9.2921,-17.0927,-18.0193,-42.8586,-6.8289,-31.0954,-13.3323,-1.2121,-0.051556,-1.9205,15.7957,-4.1333,0.07326,
-32.2773,-15.8182,-8.9835,-15.5209,-54.3871,-18.2254,-22.146,-7.3377,5.0001,7.0352,5.2784,12.4864,-2.468,-12.2773,
-42.6186,-19.5917,-8.4449,-12.7007,-65.2239,-16.1872,-19.8725,1.6031,12.2563,16.0578,13.4622,10.7934,5.2354,0.73861,
-29.1999,-9.4436,-10.2993,-18.0781,-75.4104,-5.2991,-7.8191,-0.85419,16.7157,8.0111,13.1262,2.1174,14.8382,1.166,
-13.3479,-7.9323,-13.4588,-19.8266,-84.9858,-3.0917,-3.5716,-7.414,1.6127,-0.025766,-0.88315,11.4351,0.72612,-10.2372,
-6.3407,-19.2622,-1.7897,-14.3865,-93.9867,-7.1563,3.7264,-10.275,-2.8019,5.171,-2.2474,24.849,-2.6232,-6.3172,
-13.0444,-15.7458,-1.2102,-11.1627,-102.4475,-4.3663,-1.6924,-3.5199,1.6163,18.555,-0.69621,36.6476,4.6169,5.8667,
-14.1498,-11.9674,-11.527,-21.8262,-108.9791,-4.1038,-6.3125,-1.4189,-0.3692,17.4426,5.0129,23.116,14.7303,9.2935,
-7.6344,-10.3047,-7.0579,-25.2392,-92.9965,-10.4691,3.5105,-6.0568,9.0977,3.1725,14.1568,7.629,19.5124,7.7912,
-4.3427,-9.6864,-9.4672,-14.2801,-101.5167,-7.0073,2.3556,-1.9151,1.9403,2.9822,3.8631,11.8256,8.8974,6.3795,
9.1405,-11.9389,-0.39914,-5.8675,-109.5257,-5.6427,5.0475,1.9773,-1.0098,10.359,-1.0917,25.2161,6.4741,1.2737,
19.4536,-8.8605,4.8195,0.62441,-90.3375,-4.8315,0.49508,4.2206,-8.0324,6.4322,-2.4421,31.7988,2.7804,-1.1629,
22.0639,-1.7183,-2.0812,11.9197,-83.0287,0.18007,1.4092,4.9116,-7.5505,3.2126,1.4814,24.2236,0.72413,0.79535,
24.0458,-7.7541,-0.53949,6.0098,-90.7975,-4.0808,15.4246,-0.57823,3.7637,0.65876,3.7536,11.9091,4.9312,5.9424,
23.0752,-9.6504,-5.7023,-3.3234,-86.766,-3.3638,10.7886,4.6512,4.9551,6.7578,2.112,14.4994,6.0517,5.1128,
25.469,-5.2935,-5.3593,0.65438,-85.338,0.61638,12.0302,5.3168,13.1579,6.3532,9.5411,9.8524,11.3559,-9.294,
30.0799,-5.448,-1.7328,2.0315,-75.0234,-2.7264,21.2253,-1.1416,8.1184,-0.16743,0.94069,5.9555,3.5908,-22.8363,
30.6361,-2.7596,0.73267,0.49322,-56.422,-5.8686,22.3128,-0.60099,-2.286,-2.5189,-7.1437,16.4589,-1.8198,-7.3662,
32.1042,-4.9551,4.9392,-0.0080436,-57.6919,-10.7107,20.5024,-3.8703,4.9352,-4.7288,-1.5203,12.1669,3.485,7.1758,
31.5943,-4.1861,-4.3298,2.3535,-66.0358,0.79304,22.5776,0.61198,6.0559,-0.19464,2.8205,2.4634,0.91395,-1.7548,
31.5876,-4.8792,-3.1258,-3.4554,-63.0188,1.6897,35.3229,8.1311,16.0811,0.76129,10.207,-8.0739,8.4149,-4.4831,
37.7203,-8.8365,1.3118,-9.3871,-45.5425,-4.5506,34.6877,11.8932,8.9777,-0.70076,5.3446,2.3279,6.4936,3.8147,
43.0133,-4.5284,-3.489,1.5656,-30.532,9.8224,24.1064,11.1805,-4.784,5.0077,2.1912,16.2882,0.43762,13.0301,
49.4051,-0.95136,1.915,9.5,-32.0054,23.3331,36.76,4.3703,2.5871,-2.376,11.0323,13.9614,10.3282,5.1651,
55.413,1.4672,-1.5057,4.68,-22.0571,23.9562,43.1213,9.3028,-2.7632,-4.595,0.45305,10.7622,1.6797,5.3273,
53.505,-3.8155,-6.6091,-6.4619,-22.1496,11.6578,35.3398,8.272,-1.1806,0.87545,-12.3246,14.3679,-12.1149,2.6466,
47.9332,-3.1145,-6.6856,-7.4915,-34.9207,9.541,28.0242,1.6363,5.0287,0.3508,-14.8909,7.3655,-12.8053,-11.6122,
48.363,-2.4555,-5.8123,-2.792,-28.1715,17.9416,23.9817,5.7881,-1.4115,-0.14237,-11.6369,-3.938,-3.0648,-4.3722,
53.0174,-2.3077,3.0369,-8.2913,-15.1471,18.7541,36.6428,3.5528,2.4515,-1.0785,1.3397,-5.5898,7.509,9.9901,
47.947,1.6087,-1.8675,-12.5164,-12.3488,13.8509,35.4558,4.2839,-3.3629,-3.8475,6.9267,4.1899,-6.1647,4.7364,
51.6817,3.4006,3.911,-4.2092,-7.83,13.9641,31.44,15.3605,-5.9947,-5.5051,2.7332,2.9942,-15.2391,2.5628,
56.6092,3.6692,9.8162,-1.5956,-14.4434,23.9883,32.8598,8.2999,-8.9404,-5.6474,-5.4592,-11.2854,-17.631,4.771,
48.4896,2.5048,-4.8728,-9.9999,-23.9663,26.3269,28.9988,4.9683,-9.3482,-3.4191,-6.0759,-8.3146,-15.6288,-6.8499,
52.1922,-1.4238,-8.4261,-16.9566,-22.5287,10.6473,36.7036,6.5591,1.6017,-0.3808,-1.9339,6.2843,-5.2464,-11.1615,
63.1607,0.55053,4.3578,-9.3276,-13.6208,15.6075,26.9452,7.1103,-10.7728,9.0868,-12.2069,11.6419,-12.4869,3.6082,
64.161,6.1848,5.0406,1.6215,-19.4151,26.9499,18.7178,7.6279,-15.7928,2.8752,-19.9745,5.2761,-18.3493,13.849,
60.7834,7.2301,-2.3455,3.8857,-19.6665,11.2329,20.9005,2.9202,-6.8174,-11.3973,-16.4145,2.5989,-12.9983,-1.082,
63.2754,8.2131,-5.5101,1.2915,-4.3866,-2.7311,18.2297,8.884,-10.6588,-22.115,-9.2907,-7.4748,-7.9679,-13.3628,
68.451,7.2482,5.6821,-3.9812,-4.0565,2.6271,23.2744,5.9894,-5.7692,-23.1496,-3.5389,-21.1263,0.53808,-7.3667,
58.2046,3.5075,-1.7425,-9.8813,-17.9131,5.7752,15.739,4.2137,-1.1731,-15.6212,-8.5209,-20.8703,-2.8,3.9368,
40.6123,-9.926,-15.7379,-15.8999,-30.9383,-8.6713,5.3499,2.0715,-2.9912,-0.58392,-10.8433,-15.8402,-9.2435,-10.3994,
45.1919,-6.9689,-8.7225,-8.807,-32.0503,-13.4126,19.1289,5.2529,2.3826,4.7127,-1.2205,-20.0841,-2.5495,-21.6486,
54.7588,4.7824,2.1908,-2.6117,-16.0273,0.61478,22.2981,8.7161,-7.2051,-2.1811,-6.8141,-4.779,-9.0076,-11.8492,
57.6131,1.1902,3.4761,-2.9267,-0.96567,0.10622,18.6,3.9427,-6.3002,-7.245,-4.9885,8.3251,-7.0503,-8.7762,
61.7112,-2.6591,-2.3997,-2.7511,13.1923,-0.84531,17.4831,1.8167,-2.1443,-3.9766,4.7551,-0.67533,-0.016675,-5.4169,
49.9806,-3.916,-13.1173,-11.5591,-1.6993,-0.32246,13.1284,1.2356,0.34495,-4.2102,7.7756,-9.607,-2.3763,-13.1198,
50.7606,-5.5704,1.7697,-8.0319,-15.6973,-6.9138,26.4407,1.1624,7.8809,0.76459,12.0321,-1.4748,-0.34522,-26.4326,
61.8149,1.8475,7.8703,5.201,-0.65547,-6.0268,34.8389,3.4532,-6.6919,6.8581,-0.49562,6.6416,-2.6851,-31.9977,
72.206,9.765,10.7034,6.3057,13.4839,-1.4156,39.8318,2.7744,-8.2467,-3.4702,-3.7721,-7.8569,3.6149,-28.661,
73.2026,9.6508,12.4223,6.3991,23.7384,-1.8024,34.1365,4.969,4.0535,-9.4019,0.70469,-18.7856,5.7591,-31.1918,
68.3374,4.8217,2.7048,12.1546,15.2304,-6.8894,30.6711,5.143,-0.43975,-5.532,-6.4213,-9.6305,2.1078,-26.0145,
69.4324,5.9497,5.8483,10.9532,11.9551,-11.6703,34.9711,6.2508,-4.6634,-8.5049,-10.286,-14.247,0.56496,-20.2027,
70.9328,11.2591,0.77521,14.0739,18.7936,-4.3585,23.4277,12.4873,-8.1615,-1.384,-6.8352,0.70786,-6.0805,-6.7126,
67.622,1.1393,-3.9943,14.1737,3.566,-5.0422,19.1883,3.238,-6.7275,7.1991,-6.4251,14.7654,-13.2714,-7.2541,
70.6479,-0.34592,5.2179,16.6286,-10.748,1.3993,28.8982,9.1827,-7.7407,14.7955,-5.5679,26.7638,-15.7814,-7.2915,
64.9927,0.14696,3.4885,13.2702,-24.2031,5.5663,27.6373,11.9375,-12.4705,5.8799,-8.5396,11.0579,-8.6951,6.8412,
60.6205,-1.2787,1.8624,9.1678,-33.8136,-3.7403,26.4507,1.3044,-2.7497,-2.5013,-4.721,5.6054,2.6886,-1.5976,
56.9828,2.5755,-9.5835,5.7845,-28.0073,-5.4048,21.0862,6.8921,-5.4179,3.3156,-6.3267,10.935,-3.1404,-15.6017,
52.1475,1.0046,-10.4249,-1.6462,-21.1326,-7.4421,31.6269,4.1179,-3.6765,1.7003,-4.5307,-3.8211,-1.5347,-28.7656,
55.1581,0.47219,4.3006,1.7583,-23.1696,-10.3004,40.5908,-4.1571,4.5729,-2.6517,1.8805,-17.6918,3.7525,-21.5066,
58.9318,-0.97297,3.1652,6.8476,-12.8077,-8.2669,32.9607,6.0092,6.6587,-0.13155,8.8509,-12.5145,3.0539,-16.9118,
51.1459,-10.8319,-3.1641,-3.4806,-15.3441,-21.8709,31.4552,-0.49077,5.7871,0.34846,9.7371,-12.2358,0.51005,-26.7578,
42.4107,-5.4589,-7.6964,-9.8824,-26.7014,-28.6535,23.9014,-9.9056,-2.1159,5.9948,-0.29227,-1.1122,-0.4648,-13.8186,
47.4214,0.53544,-5.3457,-4.5678,-31.7113,-20.3232,17.7448,-10.256,-1.0443,5.6347,-6.8858,9.3436,3.3405,-16.7678,
57.7988,-4.2193,6.3092,9.8063,-15.7086,-7.7696,19.5133,-3.0295,-1.9263,5.2971,-10.251,10.6728,-6.3046,-18.595,
59.9981,-0.18823,6.8749,23.3179,-0.66609,6.7966,20.2319,10.3753,-9.3665,6.8678,-12.4687,8.143,-13.4822,-3.3793,
51.6761,-0.17694,-0.14915,10.7194,-5.214,0.7888,24.6844,4.0855,-4.0815,-7.6443,-6.0542,-6.4456,-1.3395,-1.2207,
46.2145,1.2505,-2.5013,2.0487,-7.2623,1.214,24.6201,2.4245,3.2466,-5.8362,1.3932,-18.8767,5.825,-11.0643,
33.996,-1.6586,-0.46225,12.3148,-5.8827,6.808,22.1982,-1.4993,3.9956,-0.7634,-0.58026,-19.633,-0.19229,3.6996,
30.5398,-2.9755,3.8155,8.2702,-8.8346,1.2044,25.1163,-5.6594,0.45101,-5.9128,-5.7397,-17.0387,-3.4856,-3.5392,
42.8074,0.50882,3.1145,10.1355,-1.2209,3.4937,22.193,8.7802,-2.8818,8.1372,-2.0896,-1.9163,-6.5823,-15.1327,
45.0285,-6.6054,2.4555,13.7774,-10.1198,6.5898,16.6114,18.7101,-1.2925,13.7884,-2.4363,12.2986,-11.3816,-0.1247,
39.021,0.87461,5.6139,9.6449,-17.5414,16.1108,13.2532,5.7808,-2.6314,3.988,-3.7074,5.556,-9.2823,13.9828,
35.7355,7.4337,6.2213,3.399,-26.8784,12.3114,18.1244,-0.23334,0.35927,-4.7513,2.1823,-8.8774,-0.22534,-0.95619,
34.5361,0.37657,4.9033,5.084,-29.9874,-1.6499,24.5932,5.4484,5.0603,0.25637,1.1067,-11.2453,3.5665,-14.9988,
23.9638,-4.3682,-6.7237,3.8347,-25.3545,4.1164,14.6175,8.8994,-3.7434,10.6304,-7.4598,3.5294,-1.3696,-0.87535,
14.9698,-9.7738,-10.0986,-5.8401,-37.9332,0.091073,13.74,-1.0793,1.2038,6.2143,-3.2347,11.8855,1.5458,-9.3233,
19.738,-7.298,-10.4378,2.0661,-38.5587,-0.85954,11.0271,1.8182,7.7423,6.7857,5.4594,14.006,1.4521,-6.8754,
17.6095,-4.0265,-13.5885,10.443,-33.4115,4.8593,6.5876,5.4879,6.3344,15.8237,12.6885,21.6657,-0.52351,7.6371,
15.1361,-5.2017,-6.6343,1.7881,-35.6573,3.1509,7.6092,-2.8697,6.426,20.069,15.2325,23.6711,-1.9089,11.4967,
17.062,1.7215,-7.1809,2.6255,-22.1837,11.4624,5.2637,0.13564,1.3187,23.5875,6.7632,32.6407,-4.6276,17.418,
16.5104,-7.354,-3.4443,-4.6157,-34.9527,4.6361,5.42,1.5448,0.76658,8.0722,-1.6705,16.5823,-0.099908,19.6787,
20.2419,-11.6358,4.3182,-8.1167,-46.6181,-2.2536,6.9833,0.50694,-0.22366,-4.2853,-1.5711,1.4873,-1.9824,4.398,
28.4726,3.1624,7.837,2.7598,-29.721,11.9816,9.3979,8.0323,-4.9324,1.6382,0.41253,5.5134,0.025032,-9.9659,
19.208,3.9847,9.2557,-4.962,-13.8377,8.496,6.9451,5.6614,-7.4705,-9.7942,-6.2242,-4.2621,0.96823,-0.057903,
11.4435,2.8009,8.6999,-4.6648,-27.1075,1.3751,1.8058,9.0992,1.4782,-7.3176,-5.8503,-18.1064,1.8539,14.0456,
17.3685,2.6328,9.1222,0.33726,-32.9695,6.959,7.3648,1.9426,14.6117,-5.9334,4.8901,-27.4763,3.6321,12.3255,
24.3547,3.8917,9.0474,0.7896,-16.8913,20.2371,6.4503,0.40922,2.8739,-9.8279,5.0693,-24.4109,-2.7248,-2.5141,
12.9766,6.0193,0.4771,-1.6188,-1.7778,24.2176,-0.075697,8.413,-11.3986,4.4566,-3.2632,-8.8463,-8.7003,-1.4854,
9.3643,2.8254,1.3927,-4.3545,-4.3701,17.0973,7.4846,0.35246,-5.5864,15.5238,-1.178,5.7845,-4.4004,12.7037,
16.3578,7.3775,4.1424,0.6285,-5.9969,22.6825,5.1466,-3.447,-5.2516,7.9804,-1.1078,19.5374,-2.2474,24.2863,
10.1816,4.5738,5.3106,1.0625,-10.8318,16.1269,6.2546,1.0094,-5.4091,-6.5985,-6.236,16.6774,0.24852,15.7459,
0.59856,0.049355,4.5199,-4.1956,-24.2819,7.1313,7.2957,-1.4118,-1.7788,-8.1588,-9.1677,6.7045,-3.0722,4.8839,
-2.2706,-1.8426,-1.4182,-6.777,-16.7524,20.8034,8.7478,1.507,-0.72737,4.6091,-2.9508,11.0249,-4.7768,6.4807,
-10.6339,-14.9546,-5.1105,-16.7594,-20.4699,11.1225,17.6677,-7.0839,-1.6284,0.55508,0.060392,-0.96987,-3.5455,-4.2981,
-9.9968,-9.3352,-8.5818,-16.6981,-29.6311,8.5667,15.6625,-2.881,-1.5307,0.52178,1.9453,2.8662,-3.3327,1.6271,
-3.7297,-3.1078,-10.9005,-15.6962,-25.0196,15.6076,10.0006,2.014,-2.3831,-5.1768,4.6622,-4.8624,-2.1885,7.1959,
-0.19967,0.38398,-2.2181,-3.8933,-14.5458,19.8667,15.5395,11.8109,0.12093,-7.2273,6.7435,-6.9318,3.1375,6.2925,
-6.7997,2.2499,-3.9749,5.785,-20.2851,16.7849,9.8846,19.6019,-1.7753,-2.0711,-1.2173,6.7068,-2.7176,15.3588,
0.21984,1.1707,-0.90274,1.66,-28.5123,11.9999,10.2357,11.8142,2.1091,-8.5583,-2.0885,-7.7956,-1.6103,14.4372,
10.5961,6.7668,0.09567,6.2826,-16.4121,20.7251,15.2889,11.1054,-0.85105,-6.1554,0.87043,-21.4279,6.0421,-0.529,
1.9315,2.1108,-3.2158,7.322,-25.3447,12.397,22.3995,9.0218,-1.2721,-4.3697,6.9567,-34.2422,11.819,-11.4262,
4.1771,1.512,5.0059,4.5221,-34.6856,8.3483,30.0286,5.1756,12.9042,-3.6354,18.346,-39.9446,13.4714,-3.656,
4.8708,-4.246,-3.7954,0.47284,-18.5044,11.6253,15.0038,9.5872,7.9473,2.25,8.7443,-23.4479,2.2737,0.34123,
12.1339,-0.2129,2.0992,5.1662,-7.883,10.9274,17.881,13.7337,7.47,-1.6634,7.275,-12.5299,7.8032,1.2646,
16.1289,2.6335,7.6405,3.9119,-16.8543,10.2717,13.0302,7.2432,-4.3119,-15.6636,-1.6616,-25.8781,-3.0535,8.7445,
24.6059,9.0866,13.7932,10.2892,-4.5089,17.2117,10.3595,16.2534,-5.9421,-7.2348,-2.5066,-17.7807,-4.7593,22.3198,
13.6848,1.9303,10.1324,5.8935,-8.961,4.8448,2.1826,10.5565,-8.4188,-3.0233,-5.1894,-8.2134,-3.529,31.4374,
2.0026,2.2862,-0.3924,4.1231,-22.5233,5.0267,0.63479,13.2284,-6.4969,-1.4251,4.0946,-5.3595,-0.011954,24.3564,
-1.4233,-0.21163,-0.84098,-2.2628,-35.2719,-0.46917,8.6246,8.1847,7.993,-0.86745,12.822,-13.0659,2.3503,8.795,
-1.8105,-1.6158,-3.1525,-10.1554,-19.0556,-5.6357,1.9682,1.5546,9.4697,1.5457,2.1349,-23.1439,-2.0412,-5.8327,
3.0207,-0.57411,-4.8523,-9.5456,-7.1176,-0.5759,3.739,9.961,4.1789,-0.43602,3.8958,-28.3664,4.6924,-0.89433,
9.4506,-2.4286,2.9951,1.4161,-19.9136,2.2927,14.8488,11.2532,7.7056,0.53484,8.3846,-20.0533,9.1334,13.2593,
3.2171,-1.3386,-1.9068,2.2754,-19.6635,10.6552,-0.1421,8.6886,-3.1453,13.7258,-6.2185,-4.7501,-5.5146,26.5638,
0.66303,-3.6194,-9.8207,-11.9612,-18.0111,10.4885,-9.1735,2.9725,-3.4291,13.3749,-8.2738,9.6349,-4.7785,25.5767,
10.0675,-10.958,-14.8979,-13.6719,-17.8747,4.1919,-8.6231,2.7942,-3.2234,5.9608,-1.1658,9.6641,-3.5475,9.9421,
12.2971,-2.7448,-5.504,1.2484,-4.5243,10.5519,-7.1615,11.1275,4.5258,15.9917,2.682,15.6949,-5.2232,4.5561,
6.3646,-1.1632,-2.8127,2.6577,-0.94659,10.3914,-6.2592,1.4872,12.2826,20.2278,2.0494,22.7815,-5.3823,0.032292,
8.3438,-4.3997,-16.7439,-3.6408,2.4155,14.0175,-12.0226,2.8139,-2.5543,23.2637,-6.1019,21.8872,-4.5868,10.8915,
2.648,-6.4972,-23.3628,-8.6175,-11.8294,4.2042,-9.8849,6.8951,-0.57946,24.2285,-3.3751,14.4346,-0.061604,24.338,
-1.7605,-2.8012,-7.8611,-5.7385,-25.2196,-5.9649,-7.875,6.0097,13.5553,22.3032,8.6345,20.6526,-1.4747,25.7791,
2.5947,-6.8836,-7.3221,-0.20033,-21.4801,2.4205,-8.8193,-3.3235,-1.358,6.865,4.8093,5.3134,0.030576,10.1324,
13.3006,-0.33113,2.0903,5.9511,-6.0913,15.9705,5.8098,-0.76346,-0.8044,-7.6469,5.938,-9.1054,13.7231,-4.5756,
6.8362,7.2445,1.9649,10.3162,-16.52,7.4564,1.2786,5.8939,3.966,-15.8224,1.8039,-18.1385,6.289,-6.3246,
8.315,4.9209,6.5687,17.2535,-21.1957,-7.0909,8.7572,2.7071,12.2285,-11.0956,8.3067,-7.6054,6.8555,4.4438,
4.0386,-9.4743,10.8972,4.8841,-26.535,-15.2329,9.1765,-9.7338,-2.6052,-9.4852,-4.4692,-15.6496,1.7225,-9.0454,
5.6848,-10.8622,7.4106,8.369,-32.4987,-0.21889,1.0701,4.9503,-5.3494,5.1839,-8.9241,-0.6106,-4.9924,-11.3364,
8.1769,-11.1542,4.1319,7.8673,-28.6598,0.80628,-4.661,5.6653,3.4721,3.9955,-6.4997,13.526,-6.5818,-3.0999,
2.9641,-2.9301,7.6619,7.3952,-23.1628,0.757,-8.1592,3.436,-2.4036,3.7558,0.50186,-0.37439,-3.3533,11.1861,
-7.6036,-5.5875,8.1468,5.0617,-35.873,8.2678,-5.7807,7.9524,4.3517,1.6406,8.0271,-12.6303,1.5696,8.6924,
-9.508,-12.3359,2.4638,-2.3248,-46.538,-0.25616,-4.9617,3.2252,5.5079,-5.5406,0.46269,-3.8437,-3.7188,-5.9292,
-5.1596,-4.04,-0.51771,5.3705,-29.6458,2.5929,-4.664,6.8096,-0.48985,8.8918,4.2128,10.4869,-4.44,8.5266,
-7.2111,-7.1029,1.8744,0.79869,-27.3271,-0.86804,0.81053,4.04,0.012113,11.7319,11.0442,23.9577,-9.3683,22.115,
-3.9448,-1.0103,-2.9602,-3.9723,-26.6326,5.7947,-0.18235,3.7976,0.95563,6.3049,6.6027,10.8487,-7.8619,6.6881,
-12.2086,-1.8935,-9.3946,-14.1229,-25.0347,2.6138,-3.9498,-4.9308,7.5094,7.8156,6.2061,-3.9022,6.7098,-7.8132,
-16.6713,-10.7529,1.0864,-14.6928,-25.8937,-0.84879,0.53725,-5.107,16.9761,15.3746,13.8626,-10.8187,20.4072,1.5613,
-12.8373,-9.1635,-6.5346,-10.9781,-17.7289,7.7022,-11.7729,-1.0227,4.6239,16.3406,11.1414,-1.6695,5.0828,-6.0881,
-3.5662,-3.8907,-7.0867,-10.3189,-15.7205,7.24,-12.955,-4.7393,3.4022,7.8044,14.2508,8.8201,-1.2938,-1.0007,
-4.769,-5.0741,-4.3005,-8.283,-8.6383,3.5003,-8.8724,-7.7611,1.7812,2.1414,5.3683,11.5962,1.1449,13.1593,
-5.9001,-4.2975,-3.5703,-12.036,-2.9253,6.5961,-5.0343,-3.0445,-4.465,-2.2371,-5.8154,-2.7948,-2.2296,16.2155,
5.788,0.68296,2.3108,-16.0369,-9.3613,12.8114,-2.8433,5.6377,-4.1967,-12.4919,1.1447,-14.9055,-1.1511,1.1425,
3.0801,-3.608,-6.8001,-14.6017,-4.5487,12.5148,-13.5343,5.7725,-7.2507,-12.2145,6.2712,-4.0929,4.1131,-4.1881,
-4.1893,-4.8088,0.69072,-14.1981,-0.026225,2.7918,-5.6385,-6.3806,3.1017,-2.5095,7.3113,-0.54248,14.727,1.2575,
-4.41,-0.27028,6.7887,-10.9847,-4.2747,-0.68149,-11.4396,-9.3035,-2.2796,1.8911,-0.21109,-1.9263,-0.25662,2.5993,
7.1892,6.3584,8.2708,3.7744,4.4823,7.8594,-10.7524,5.3547,-2.1419,9.3344,-0.19842,12.2893,-5.5028,16.5433,
8.6459,-1.5803,6.8298,-1.1083,3.2682,0.77588,-3.497,5.1012,1.7632,6.8844,-2.0755,22.9525,-3.2837,24.1177,
4.8213,-0.068174,5.9479,-4.3466,13.9346,1.2024,-10.37,-2.2885,-4.4812,6.9444,-2.4231,22.9926,-2.6146,19.3648,
-3.4954,-4.3137,7.0079,-4.5584,11.6817,-2.1751,-13.054,-9.2344,-5.6291,-1.5006,-3.6945,7.5131,0.84853,4.1029,
-4.2308,-7.8336,4.698,-9.0071,3.4245,1.7324,-9.4371,-3.014,-3.402,-0.46634,-5.3622,0.85507,0.79672,-8.0159,
-9.1713,-5.9472,-6.4455,-14.6061,-4.8093,6.8236,-10.2882,1.4169,-1.7815,1.9232,-2.679,4.1095,-4.4454,-13.6744,
-10.0374,-1.3395,-6.5309,-12.3129,-1.2145,2.1642,-1.6421,-4.8067,9.187,-1.498,1.7318,-1.3313,0.071387,-7.6588,
-6.6019,1.5741,-8.0279,-9.6851,4.5247,0.14538,-4.3776,-5.463,0.13527,1.4251,-6.8726,9.1376,1.9561,6.9008,
-6.2058,-3.2425,-9.4357,-13.8266,-9.8467,1.0809,-6.0035,-3.2467,-0.81709,3.229,-4.5709,4.8114,3.7281,12.22,
-12.445,-6.8268,-10.758,-15.8307,-13.1012,4.794,-16.0327,-4.9413,1.1204,3.9795,3.2592,-7.7552,2.5593,-2.6132,
-16.8935,-3.1114,-15.3077,-13.464,-4.2867,1.2005,-18.3765,-5.1169,-0.36317,4.2128,2.5906,-2.0956,0.045075,-10.5517,
-11.6289,-2.4517,-5.4162,-11.2389,-17.7238,-9.7331,-3.5787,-4.3369,10.5202,-0.28995,3.8524,0.39164,9.9597,2.8324,
-11.4033,-2.7767,-6.5076,0.297,-25.6335,-3.0097,-7.614,1.1176,11.3062,5.8669,-0.62872,0.84026,7.0006,2.1903,
-17.8033,-7.8048,-10.3676,4.5292,-22.6791,-1.4123,-9.5191,-5.0884,8.2659,16.376,-2.0078,9.7625,2.3301,-5.0252,
-13.9014,-6.3923,1.5881,3.3132,-12.8179,-1.3275,-2.3364,-3.8389,7.7699,21.0607,4.7242,23.2767,2.1903,6.61,
-10.2337,-6.0087,3.3823,5.9481,-13.9373,3.4743,-6.9184,4.8924,0.69311,8.4634,0.66285,18.1696,-2.6633,11.8807,
-10.5639,-7.5367,4.1236,12.2018,-27.201,-5.2342,-5.5582,-6.7348,4.4294,-0.54537,-1.2663,2.9794,1.2744,-0.16584,
-8.9858,0.47038,1.0425,19.9697,-34.1368,-9.6432,-4.2813,-8.2201,6.9964,8.9325,7.3097,-0.10037,4.0316,0.78836,
-7.9741,-3.8074,-0.43687,13.5777,-17.9886,-12.3699,3.0597,-1.588,9.8828,3.2019,9.2331,-7.1776,9.9287,-4.4537,
-6.5514,-7.3569,8.0903,10.8737,-7.8693,-16.3499,2.8761,-6.2148,11.1784,-1.7124,1.1233,-8.6363,10.2772,-7.9643,
-16.5478,-5.9712,-1.8403,13.0549,-15.8977,-15.3689,-9.5744,-7.7313,4.8413,11.6125,5.7781,5.9819,4.9384,5.7366,
-24.528,-16.4745,-5.9799,5.1879,-29.0438,-22.4756,-7.5836,-9.6281,5.9672,7.61,16.2929,16.5519,7.9479,-2.6355,
-20.2222,-13.5971,-1.8437,5.8214,-25.9517,-21.1266,-6.1839,-3.3836,1.8317,0.54232,11.5379,24.0592,4.6378,-9.0885,
-18.5367,-6.6418,-3.1494,6.8885,-11.6441,-18.4417,-0.61855,-1.7642,1.2497,1.9271,9.4284,13.6435,1.0538,1.3733,
-28.2856,-16.1602,-8.1552,-2.4966,-25.0454,-30.0862,0.83539,-12.5194,0.70211,-5.2727,8.391,-1.2751,-0.42628,-2.0145,
-26.1164,-13.7733,-10.0265,-0.9304,-35.888,-25.9195,-3.4648,-5.6288,1.1321,2.1273,14.9712,6.2903,9.5166,0.46793,
-23.6051,-15.7815,-14.148,-8.4308,-38.4573,-32.8653,-4.2011,-11.9027,4.8421,-3.6676,13.1278,-1.6438,6.112,1.3841,
-21.245,-4.4447,-7.6322,-2.2581,-33.3167,-24.2818,-0.17161,-7.4111,6.4405,-4.3913,7.6175,-4.3784,0.078405,2.2449,
-21.3867,-0.87222,-1.0349,-0.70581,-39.3451,-18.5744,-1.5777,-0.82697,3.6934,-6.4894,2.9104,-2.6984,6.2131,-11.9898,
-8.2972,-3.181,3.2777,-3.9692,-30.8455,-14.1546,1.8223,-0.30478,8.6657,-5.6274,6.042,-6.787,16.7015,-19.8374,
-10.1605,-5.3521,-8.7252,-3.259,-26.6337,-2.4438,-4.426,3.0188,5.7846,7.4607,0.4848,-0.24077,5.7825,-4.5471,
-14.2734,-6.9199,-4.4243,-4.9524,-39.1356,-3.2419,-4.16,1.893,12.9938,17.4021,-1.4332,13.8737,2.6014,8.5431,
-11.5281,-3.6715,-3.2141,-15.0447,-39.6885,-3.9921,-7.6887,-0.10952,12.2137,20.1354,-1.3477,27.1413,6.2237,0.47427,
-24.9364,-9.1176,-17.1213,-23.5867,-42.0293,1.9148,-13.839,-0.10295,8.6473,15.1494,5.3447,13.3686,9.6282,-10.8879,
-25.397,-9.5153,-8.6055,-12.7268,-44.2302,8.4114,-3.5634,0.84747,18.5179,15.1847,15.4126,1.2328,16.6063,-18.7346,
-17.7337,-10.3612,-4.7834,-6.7685,-27.4763,5.5452,-8.5448,-0.61975,3.7116,11.913,0.38781,12.9647,3.8041,-5.8048,
-10.5303,-11.1559,-8.7465,-9.6677,-14.4267,9.4625,-2.8369,1.779,-3.5939,4.1145,-8.2019,25.882,3.1037,8.6435,
-15.5658,-13.3202,-15.7775,-13.8102,-23.9506,14.5621,-6.4446,3.5607,-9.0455,-3.6882,-7.7107,16.7733,-4.6392,1.1086,
-20.7708,-11.1041,-18.1361,-10.6205,-23.9299,16.9937,-13.1421,4.7639,-7.086,-1.1058,-8.664,10.5722,-9.5547,-8.8748,
-21.8856,-13.7432,-3.3532,-10.4554,-22.9667,7.9466,1.7465,-5.4388,2.3118,-6.2342,-4.8388,8.521,-1.8982,2.5188,
-30.9619,-13.8638,-7.8751,-16.4396,-23.4776,7.4689,5.9595,-7.0019,-4.4385,-10.5823,-7.3822,8.954,-5.5622,15.5908,
-40.4374,-17.7536,-17.7906,-29.5533,-36.169,-0.53459,3.713,-15.0814,3.3841,-9.0026,-5.9945,0.86141,-3.3395,0.55532,
-32.3443,-19.5221,-12.0015,-31.6248,-48.0988,-10.8915,6.3234,-16.0654,7.9027,-8.4629,-1.8565,6.4766,0.63922,-13.578,
-29.4594,-18.3512,-20.7266,-30.6721,-31.1129,-7.4053,9.7219,-9.4351,-6.6714,-17.3994,-10.2461,2.3101,-8.8443,-11.0086,
-27.2193,-12.9996,-17.121,-33.0813,-15.1461,-9.3211,21.8891,-10.2858,-8.6986,-20.6059,-14.8251,-10.579,-10.6747,-8.9313,
-26.0592,-13.6369,-20.3447,-30.6247,-0.13737,-13.957,12.5478,-7.308,-5.8161,-10.3974,-18.1865,-1.9164,-13.34,-14.5348,
-19.3004,-20.8457,-21.4846,-21.7031,-2.4224,-13.5917,11.3228,-6.3965,-7.8278,-6.4669,-13.7896,2.4495,-12.0675,-14.1348,
-20.0314,-17.7061,-11.6951,-20.4014,0.55613,-7.1094,18.1988,-13.569,-11.1364,-12.6909,-16.7396,-1.4758,-13.2324,-15.1757,
-27.3295,-10.033,-10.9934,-22.0105,3.356,-2.9049,13.329,-6.1433,-14.2462,-15.7073,-17.6247,-1.3872,-8.6606,-0.16515,
-25.6898,-15.0975,-5.6116,-18.8009,-10.9454,-16.8306,11.585,-4.8305,-6.7798,-19.487,-6.1777,-12.6377,0.35912,-1.9773,
-19.8988,-14.6642,-3.8581,-4.9228,-15.5507,-12.5828,3.8067,-4.0681,-5.9014,-5.5673,-4.3903,2.2206,-5.8014,-15.9587,
-21.5385,-16.618,0.15128,-3.6828,-15.5619,-6.1605,8.3004,-8.5461,-0.82515,1.3774,-10.7384,16.1873,-10.1755,-25.9296,
-21.663,-22.7041,-2.2198,-7.7123,-20.7676,-18.5414,10.1635,-13.2281,-0.30306,-7.6779,-15.2888,21.0172,-11.926,-10.2738,
-6.2632,-8.1192,-3.9746,6.8505,-5.4216,-7.9842,6.7205,-0.156,1.6041,6.8828,-3.9816,33.8561,-8.3772,4.4426,
5.0419,-9.0485,5.236,6.0347,9.0037,-9.8658,9.623,-1.5639,2.9251,16.4549,-1.3821,45.9248,-11.1804,18.2761,
-9.3606,-14.645,-1.2167,-3.2996,18.0434,-9.7459,13.2956,0.89145,-1.5004,3.6618,-3.6598,31.9698,-14.7596,3.0795,
-21.6173,-13.7667,-12.4783,-9.7136,2.8608,-8.2178,13.4422,4.6159,3.3108,-1.2809,4.1147,15.9516,-3.4846,-11.2053,
-16.5419,-12.9398,-8.8955,-22.353,-0.21142,-17.1686,3.1909,-1.3279,-2.5538,-5.9258,-1.7981,0.89453,-5.1644,-24.633,
-10.3542,-3.1913,-3.1675,-14.8728,13.9013,-4.3327,2.5273,12.4469,-4.7621,3.4019,-1.2181,13.4567,-4.3824,-10.8766,
-10.6777,-9.6109,-13.3664,-11.1468,0.38356,-8.7953,5.2089,-1.5225,0.24627,-6.2469,-3.9791,-1.4507,-2.2306,-24.324,
4.063,-2.8948,-9.2586,-5.2833,10.2779,-4.0176,4.4242,-5.6812,-1.1849,-0.67783,-3.2673,2.8195,1.2091,-25.293,
0.58079,-7.4442,-0.20309,-10.6336,18.1612,-5.665,1.3251,-4.3961,-10.559,-9.1372,-2.1271,1.7061,-3.5856,-19.9975,
-2.7603,-1.8028,12.5596,-3.8561,17.5437,-2.964,9.274,2.0067,-3.7865,-16.6173,4.1395,-8.3132,-1.0094,-13.6029,
-1.6504,7.7497,6.1387,2.9863,20.269,10.436,2.106,9.4421,-4.5035,-5.2309,-2.7204,6.2856,-4.7268,-1.4531,
-6.274,-4.0486,1.9921,-5.6934,5.8297,2.2536,2.9243,3.2078,-5.178,-5.8617,-7.2797,16.3639,-5.3879,4.301,
-11.5639,-10.4172,2.8177,-11.9628,4.5357,-5.4365,7.471,-1.7068,-6.7567,-9.2879,-8.7315,7.8272,-6.0088,-3.5129,
-11.8144,-2.2355,3.5938,-12.1893,18.3636,-1.3324,8.9122,-1.6035,-8.2398,-4.0076,-10.0961,1.6911,-0.92615,-17.4021,
-10.6329,-5.4076,5.7383,-9.0969,28.1906,1.1086,5.0712,-1.0356,-3.495,-10.8512,-9.9629,-11.1617,-3.2317,-16.8979,
-5.7445,-5.5548,3.0339,5.5489,38.3055,10.9589,1.4616,9.8885,-2.8127,-5.0054,-5.1146,-10.9637,-4.4546,-1.784,
-5.8728,-8.5282,7.1009,5.2829,33.6456,-0.56017,10.3461,2.2116,-3.117,-4.233,-5.2808,-11.7232,-1.8258,-15.777,
-5.5205,-6.1275,14.2307,7.7995,31.6269,-3.3602,10.6705,4.9116,-2.9299,-5.8675,-0.24179,0.31393,-1.7162,-16.7193,
-14.634,-5.7594,2.0436,9.2205,19.3403,2.5092,-2.2482,7.451,-7.4758,-5.5159,2.6068,2.1849,-1.6137,-1.6162,
-13.2838,-5.8864,2.3931,-2.1947,4.0799,-1.8923,4.0253,3.6973,-3.7224,-13.2129,3.8668,-12.0462,5.5668,-11.3687,
1.2084,3.4389,9.3332,-1.5905,13.212,6.2491,9.9232,17.5754,-0.1933,-19.5038,6.9405,-24.6138,7.5934,1.1192,
8.2196,8.4278,17.7463,7.478,24.226,11.0694,16.4114,17.5334,6.902,-18.8057,11.7193,-22.6649,8.5551,9.0809,
16.6986,8.3942,21.8758,15.0568,24.1888,17.4889,24.3989,14.1199,6.0157,-8.7052,6.7652,-11.3877,10.4033,-5.564,
14.2798,0.80734,6.4632,7.0702,34.5438,15.967,11.1296,16.5789,1.4043,-7.7103,-7.7407,-4.5654,2.695,-12.8537,
-0.67694,-6.7973,-5.7977,-6.5767,18.3711,0.90894,3.8507,1.4842,6.0426,-10.0809,-11.5936,-12.792,3.478,2.0175,
-14.7363,-4.9722,-9.6999,-9.4878,3.1689,-11.9625,-5.3534,-5.7554,-8.0142,2.3298,-11.3701,-8.7187,-4.7586,10.9364,
0.24785,4.2978,2.6875,-2.7796,17.0787,2.8552,2.0511,8.6899,-7.0617,-1.1162,-8.3269,-6.7788,-5.8899,3.1961,
14.333,18.14,15.7493,8.7213,30.154,16.7839,5.7059,18.1518,-6.638,-15.1492,-6.883,-8.2614,-5.5365,1.1158,
27.573,31.1516,16.2216,22.298,42.4448,29.8769,7.7251,19.4242,-9.5455,-9.1124,-5.997,-0.68207,-1.8986,15.1489,
40.0186,29.8902,14.3032,12.9996,53.9981,42.1843,12.9288,22.0367,-5.1949,-15.1763,-19.7372,-11.9748,-5.5626,12.8909,
51.7175,30.4569,12.0282,17.4134,64.8582,53.7532,6.9584,28.7428,-11.0221,-22.2941,-27.5929,-15.5068,-14.2014,4.0891,
62.7145,30.5189,15.0844,30.4686,75.0667,64.628,1.8178,23.2404,-13.1945,-14.3458,-17.4373,-11.7428,-11.4608,-5.6014,
57.8041,24.4378,9.9293,25.4021,63.7479,53.5968,0.2924,15.7065,-6.2634,0.21012,-15.9189,3.0618,-13.1338,2.7626,
43.4743,18.7206,1.3056,18.6828,56.6173,50.8531,-0.19726,18.0699,-9.1933,6.336,-16.3802,16.9781,-17.5409,16.6968,
45.5875,21.3757,15.3273,24.1738,54.1641,49.6908,13.0372,15.0968,-8.6422,2.1784,-10.6756,14.2051,-7.0438,23.7898,
53.2422,27.6494,19.1971,28.3902,44.3031,46.7098,7.5333,12.302,-10.9569,7.7146,-15.7011,9.5754,-6.6207,9.1407,
41.075,21.7399,9.0727,28.1036,27.5449,37.7683,6.6087,12.9807,-5.1047,12.4464,-9.5643,8.5283,-2.9181,4.3418,
26.3321,11.9351,7.5836,21.6948,21.5749,29.8353,11.879,11.2572,-3.8537,1.3106,-6.1572,-6.0834,-1.7983,-3.475,
35.1421,22.5531,14.6848,21.3378,34.3804,32.7678,6.4437,17.1937,-6.4557,0.2873,-14.2883,-7.6742,-1.69,-0.43238,
41.061,20.7273,23.7206,17.6965,25.3012,18.0512,4.6402,9.078,-2.7631,-3.0353,-19.57,-3.9085,-3.0054,-3.7118,
34.8199,14.762,10.9641,16.6342,16.2278,20.7456,4.3623,10.4223,-4.4862,5.6473,-16.5068,8.6044,-7.5477,5.0105,
21.8687,12.4595,-3.3894,3.8308,10.0594,20.9177,0.79433,8.3801,-2.8002,7.6696,-15.0438,5.7271,-7.5674,2.3488,
27.1686,11.7114,10.914,1.712,8.5112,16.8294,1.6914,2.2104,2.0904,-1.2911,-13.1974,-6.8949,-4.2792,-11.8921,
33.0943,11.9539,12.2154,12.943,15.5563,18.6533,-1.2429,8.6894,-6.5351,5.3979,-13.3498,3.9082,-6.8561,-10.3012,
28.275,2.7357,5.8161,14.0549,12.7344,10.9226,6.3866,9.1123,-4.2545,11.6856,-8.7709,6.5065,-4.5563,4.4169,
24.6895,-0.26162,11.134,13.2121,21.4151,13.1004,1.2817,7.6208,-8.7218,7.2061,-6.3557,3.2829,-10.894,18.2519,
27.9303,-0.24592,11.4102,10.5299,34.2302,16.0923,-5.4067,9.9972,-11.9764,-3.6157,-1.2522,3.0859,-14.9625,3.0567,
31.4496,4.9631,11.1977,6.5924,36.4937,12.7652,5.7792,8.9253,-3.2299,-5.7603,10.6296,-4.1829,-7.9262,-11.2267,
17.2834,5.61,2.0254,5.2521,32.4143,10.1104,-3.0689,7.445,-5.8693,-5.4142,2.4356,-12.4324,-11.2281,3.5469,
17.192,3.3845,8.5158,3.9932,28.5814,9.5042,-0.99493,4.1651,2.9834,-11.7005,0.40052,-14.5188,-3.9424,17.4341,
18.5211,5.5429,8.477,1.3921,27.3386,7.5176,-0.46311,5.3316,-1.4457,-8.6378,2.738,-7.5091,2.4326,12.7444,
16.4656,7.0988,0.4126,5.0865,25.6983,7.0665,-3.269,16.3463,-8.9147,1.3257,-3.0936,-3.2807,-2.4355,-2.1203,
23.5051,-0.4112,6.5268,11.8645,19.9059,0.50265,-1.656,5.4478,-4.1303,3.6072,-12.8248,1.1657,-14.0956,-15.7551,
28.2347,6.6976,6.6069,21.0704,29.5727,14.1673,-3.9177,4.6492,-10.0214,17.4908,-13.4722,15.1958,-17.5003,-0.70984,
14.2617,11.0179,4.322,16.9725,18.354,22.7624,-3.6827,6.2588,-13.198,16.9803,-10.7753,23.324,-10.783,13.4328,
13.406,10.3568,4.0626,14.0648,17.2528,18.563,-4.4059,5.8832,-12.4061,12.1836,-9.1837,18.1466,-10.136,17.011,
11.6574,10.6796,3.8189,11.3324,16.2176,15.5607,-6.031,5.5302,-11.6618,8.6198,-8.6326,13.28,-9.5279,14.1019,
11.4301,10.511,4.0619,9.2352,15.7167,13.2098,-6.1413,5.6706,-9.5457,4.7969,-6.6983,9.1774,-8.4841,12.7827,
10.7448,10.825,3.8177,8.6815,15.7184,11.4734,-5.7723,6.275,-8.0283,1.6759,-5.3517,5.7935,-7.0303,11.072,
10.5726,10.6481,4.0612,6.7447,15.2478,8.424,-5.8986,6.3711,-7.074,-1.73,-3.6138,2.1406,-6.1359,8.9908,
9.9374,11.8986,4.7618,5.3949,15.2772,6.9734,-6.4889,6.9331,-5.7053,-3.5156,-2.4527,-0.82147,-4.8235,7.5071,
11.2305,14.0183,6.3655,5.0712,17.1942,6.5559,-5.1553,10.295,-2.5293,-5.1941,1.4724,-2.6607,-1.7005,8.001,
8.1961,5.1493,6.4557,4.2948,10.0232,-0.92115,5.0713,4.483,1.8724,-12.9103,4.6898,-15.252,0.76218,10.8267,
14.3154,13.34,7.9573,15.3712,16.978,8.5789,10.4339,8.9366,-0.12885,-10.2468,-1.2584,-12.4479,1.6611,13.0103,
11.0945,16.79,2.2851,8.3091,12.6531,9.48,9.3353,11.7058,1.2957,-7.2709,2.1224,-15.0064,8.6447,4.2022,
12.3182,8.2268,3.0923,6.8663,10.9497,7.967,7.8309,8.1698,2.1622,-5.8904,6.7181,-21.6627,7.1818,-0.773,
17.7177,11.0381,5.2683,20.5543,24.3927,16.4611,6.888,11.9296,1.5604,-4.1206,0.17558,-13.2793,-0.33281,11.0792,
15.2387,9.9041,6.369,17.4994,21.1066,1.3735,11.6695,2.2412,3.8278,-12.8451,-3.1412,-19.5657,2.0482,2.387,
15.2686,11.1984,4.0975,13.6158,7.5623,-0.19219,8.1366,7.774,-1.124,-1.6849,-4.8412,-14.6139,0.03684,3.188,
8.6856,4.8596,0.07416,20.3551,0.49746,9.2641,-1.7964,6.3629,-3.8898,2.1936,-9.2733,-5.2366,-6.5774,-1.7259,
5.3309,-0.15408,3.8476,23.8551,0.46761,6.8188,-2.6337,0.31382,0.12062,-1.7159,-4.939,-5.8675,-5.2385,-0.67806,
3.1216,1.7437,0.7831,21.4795,7.9953,6.4097,-4.3642,5.9623,-2.7194,1.2207,1.0246,-7.404,-3.979,6.9184,
-0.84313,-5.9163,5.4587,17.3575,6.5709,-0.58597,-0.32402,2.7713,4.0549,-7.353,0.96268,-19.2381,-4.685,-2.9405,
-0.32042,-4.145,8.437,23.3998,6.6488,1.8107,-3.6104,4.0214,-0.43842,-8.3282,-2.4009,-13.8338,-6.7654,5.2638,
-1.7176,5.0768,3.6807,25.3015,1.9998,9.73,-8.5889,7.0859,-5.6064,-1.69,-3.6732,-9.698,-3.998,6.3644,
-6.3371,5.716,11.9595,15.283,-1.8976,4.4236,-6.1846,0.99393,2.2853,-5.3661,-1.5638,-15.7272,-1.8691,-8.1175,
-6.9011,2.5403,15.965,12.4775,5.7721,6.9918,-6.7578,0.93429,2.1482,-4.0998,-0.52576,-0.68359,-1.757,-12.4204,
-10.7375,-2.8068,10.7566,13.1448,-8.6743,4.2103,-3.047,-1.4828,-3.1754,-5.2707,-3.7995,-6.7151,-0.23474,-15.9247,
-15.288,7.2784,10.5838,15.6623,-12.9433,9.1533,1.3863,2.8557,2.2098,0.24028,2.5674,-18.1176,6.8626,-15.4418,
-28.4707,6.8422,7.1155,0.62256,-13.1114,-0.8406,0.35841,-4.871,10.5778,-7.3295,4.3023,-28.3637,9.2849,-7.9033,
-26.3568,2.1812,9.9939,-2.7879,-26.4247,-8.8185,5.5316,-5.0513,13.2484,-12.0844,-2.0948,-26.1902,11.0889,-4.1238,
-16.2758,7.7172,-1.9398,11.4794,-23.4902,5.8106,3.3108,7.5302,-0.76913,1.8633,-2.9138,-10.5188,8.5346,1.7905,
-19.0767,6.3094,-2.7673,16.5252,-12.6351,19.5619,9.7241,0.46727,3.9996,-0.13747,7.6509,-13.5983,10.8557,-9.6502,
-28.3215,2.153,-0.71272,1.4337,-7.1558,14.7441,11.0292,-2.3944,4.7039,-14.2292,5.3025,-24.117,6.4265,-22.2952,
-24.7328,6.7468,0.27429,-4.3869,1.7745,14.8046,19.8126,6.2493,2.5331,-14.3871,5.9286,-21.7248,7.9303,-16.2344,
-24.194,0.67473,0.25783,-4.1237,-4.9435,7.3048,25.2345,-1.6815,2.3812,-12.5796,10.295,-22.3107,6.5093,-8.6488,
-32.6588,-0.78213,-7.7856,5.0968,-7.9518,4.5059,9.6204,-2.9969,-0.12323,-0.018993,7.3167,-6.8721,-2.8534,5.9701,
-33.0608,2.5706,-4.9569,4.3188,-12.6698,-4.7375,3.3095,-6.1229,3.1899,-5.2121,3.5719,-1.6694,2.513,-8.4881,
-16.9771,9.027,9.4405,7.8376,-3.4096,6.8804,13.5004,1.8003,2.9985,-13.4003,0.52394,-11.9586,8.9728,-22.0788,
-10.2248,6.5969,12.7184,19.6453,8.1287,19.6898,10.8009,12.0817,-3.7929,-10.7069,-1.396,-8.4084,8.4345,-6.6541,
-12.4445,-0.41005,12.9,13.744,-3.6923,6.2309,10.1533,0.9678,-1.6764,-11.0092,-1.3127,-13.5698,12.651,4.1342,
-15.4757,3.3916,3.626,1.5857,-0.63801,3.9676,-0.84531,1.854,-3.4643,-2.7929,-6.9003,-4.2556,6.2246,-10.2139,
-20.6861,-0.11726,2.9367,1.0188,-4.8493,7.9801,-0.32202,5.9932,0.048872,-3.097,-6.0137,-4.4728,6.3237,-10.1401,
-18.0291,-4.3607,7.9544,10.8737,-18.6583,4.195,0.16897,0.438,-3.2603,-9.9953,-6.1264,-6.5655,8.3054,4.5683,
-22.1416,-4.5712,4.1722,16.3607,-31.6388,-0.3067,-13.9412,0.88474,-17.1647,-11.7562,-18.5089,4.69,-6.2929,12.8612,
-17.5069,3.7315,11.9494,12.0737,-15.6405,-3.5936,-12.2273,-1.5294,-15.2565,-19.0792,-22.5922,0.159,-17.3159,-2.0105,
-14.0954,12.4802,10.7607,8.9882,-0.60208,-4.7948,-1.5759,-4.7439,-14.8137,-20.2955,-18.8755,-13.9505,-6.3601,-15.9899,
-11.8333,11.2593,9.6421,8.921,13.534,-12.5351,12.6186,-5.8756,-2.1191,-5.3825,-3.643,-26.4044,6.7716,-20.3594,
-10.6503,7.2779,11.4251,6.0252,26.822,-25.4782,14.7616,-7.8846,1.3138,4.8568,0.4208,-10.7201,-4.4954,-11.109,
-23.7065,-4.9646,-3.3605,-5.1988,39.3127,-27.2552,-0.2241,-6.9394,-12.865,-6.2962,-13.7044,2.2693,-18.3257,-9.9704,
-24.646,-6.0844,1.4964,-6.3037,51.0539,-25.1474,-0.27844,-5.1062,-15.9388,-16.7804,-12.95,-2.1174,-6.9054,-12.6784,
-22.6947,2.3099,0.93497,-4.5078,61.9548,-22.2217,-4.5113,-6.2167,-10.7311,-19.078,-6.034,-0.57349,-7.907,-10.5008,
-21.333,-1.6075,-6.6778,-8.0161,52.5702,-16.1662,-6.13,-3.9543,-2.5323,-7.5448,-9.4499,3.2388,-4.5989,-10.815,
-26.1925,-8.5947,-3.9156,-9.8967,43.2766,-19.4463,-7.1786,-6.0785,-9.464,7.0079,-19.7444,4.4609,-5.7403,-12.5277,
-25.093,4.672,-3.2086,-5.0519,50.5973,-14.9737,-11.9431,-7.1311,-20.702,10.4327,-15.254,7.499,-12.4795,-1.8587,
-12.725,7.6974,2.1791,-7.1094,47.0893,-14.5474,-0.364,-9.0639,-5.3599,1.7788,-0.23875,0.91052,-4.6462,-15.4424,
-14.3235,1.0966,0.63155,-5.2669,55.1251,-5.6462,4.8526,2.342,7.3074,6.8668,2.6761,1.3276,3.6601,-25.377,
-24.3252,0.55822,0.12108,-4.4784,57.0123,-2.0021,5.0331,-0.1596,9.2301,5.038,9.5997,-6.7796,12.4131,-15.826,
-27.5883,-5.1421,-5.553,-18.3097,39.4916,-15.1055,-2.8251,-14.25,10.5652,-7.5427,14.6896,-19.5963,11.6678,-17.7105,
-23.5723,-2.4721,-17.0257,-15.8616,29.0273,-9.004,-7.8499,-6.3791,8.5149,7.0098,15.2255,-4.3205,1.9956,-8.62,
-22.6297,-7.5185,-12.6988,-10.6603,38.1468,-8.9355,-3.1284,-4.5796,2.8093,13.2677,7.2288,10.0387,-1.4295,-3.8523,
-17.0214,-6.5948,-6.7422,-7.6587,34.4411,-5.094,-6.2461,-1.9437,-2.554,10.1106,-1.2333,17.599,0.073139,10.0736,
-11.7506,3.7178,-5.865,-2.9496,32.8472,1.3506,-1.6217,1.4782,-2.8733,4.3092,3.0911,10.4041,1.4847,9.9418,
-5.8508,4.9106,3.4586,-2.3001,40.7933,7.4085,8.3924,2.8064,5.3275,-10.0494,9.9889,-4.3202,6.5903,-4.7547,
-1.7214,3.6722,0.41786,-5.9404,52.4457,18.2982,3.1672,8.3048,5.0083,-16.5974,10.3343,-18.161,8.0838,-18.232,
-6.3407,4.3957,-3.3847,-14.0845,47.4769,4.9219,8.6431,0.25119,7.541,-9.9347,12.5474,-20.5113,9.4878,-21.8607,
-20.0603,-2.007,-11.2099,-19.3784,30.5283,-9.0691,7.6529,-4.0144,1.8938,4.3561,11.322,-5.1806,5.6132,-6.449,
-32.9567,-15.9866,-22.3432,-27.1879,14.5966,-14.6635,-6.9063,0.47743,-8.1363,13.0678,5.4484,9.2302,1.0264,7.2288,
-29.6971,-12.2611,-8.2525,-23.1951,8.3923,-7.6442,-2.7814,-3.8021,0.37893,8.0337,10.3167,19.6722,-4.2304,-5.9559,
-13.8153,-1.6081,-1.6179,-16.6091,21.9887,6.9144,6.3577,-0.26824,-6.7275,3.3017,2.6131,18.964,-16.7266,-2.2928,
-15.2801,-7.1785,-2.4656,-22.2236,34.7694,6.0943,4.0873,0.69255,-8.2128,-3.5084,-4.1548,6.4929,-11.0004,0.67798,
-15.7797,-6.2757,0.043893,-20.4181,24.3174,4.3123,-1.3522,-1.7105,-5.3585,-9.4364,2.2339,2.7975,-4.2019,-0.77907,
-11.5271,1.1845,-3.2645,-15.8872,32.7757,2.6372,4.8683,7.3652,-1.7312,-7.453,2.572,1.2133,-3.4768,-3.0939,
-8.9474,0.16878,2.5982,-16.8238,23.2529,-5.0782,12.1316,3.1449,7.8174,-0.39558,-0.41641,-1.6936,-3.2686,-17.0082,
-14.0765,0.1591,0.55336,-6.3688,11.4687,-3.8279,-2.6963,-1.7655,-2.0964,10.9623,-1.3352,12.508,-9.6836,-18.8878,
-17.955,-1.7398,-0.42409,0.62489,7.0018,-4.5434,-5.4351,-2.6047,-1.9706,10.3046,2.5228,25.8576,-8.1583,-3.6545,
-11.683,-2.108,-1.8164,2.9476,7.0543,-0.96546,-1.8037,-1.0316,4.2866,8.2695,-0.9348,31.5235,-5.3077,10.6647,
-20.4272,-6.7037,-15.8074,0.88222,-1.869,0.037613,-12.084,-1.9139,-7.3043,8.7175,-8.4336,24.91,-10.6557,10.6312,
-18.729,-0.1616,-3.1191,-2.476,1.5485,-0.43722,0.44732,-2.2717,-1.6713,10.5565,3.8778,22.9437,0.84478,-4.1067,
-11.9388,6.4587,-4.8214,-3.2726,15.5555,3.3669,-3.3583,-2.1354,-3.4604,8.0337,3.6451,14.9555,-1.0953,-1.5665,
-14.0557,5.1274,-7.3653,-2.1316,9.967,2.2211,0.62153,-1.0626,9.0256,3.7742,8.149,-0.041784,-0.084882,-11.8615,
-27.3124,-1.7922,-10.7017,-11.4484,-4.7311,-12.0122,6.2511,-0.99925,16.9846,0.71366,6.7154,-12.3846,2.7534,-25.2498,
-38.0185,-7.3511,-24.1596,-15.4837,-1.6804,-13.2477,-8.224,-2.8278,2.7433,8.2266,-5.0213,2.4585,-2.1339,-9.6349,
-30.5426,-9.2711,-15.6933,-10.3042,2.67,-11.036,-6.3811,-7.8529,2.1061,11.9835,0.47474,16.411,-3.4227,5.0432,
-29.1826,-1.6316,-10.5012,-9.2142,0.14869,-6.1243,-1.7477,-5.9649,-1.3265,7.014,4.6967,19.338,-8.4121,12.3633,
-18.9316,8.8557,-4.2047,-7.7171,12.4177,-0.089552,6.8572,0.059433,4.4204,-0.018362,3.4698,13.4556,2.4821,-0.65642,
-8.8236,5.9629,2.187,-5.8368,15.9236,2.2764,5.0285,2.4174,4.6273,-0.48938,-2.8769,3.6761,6.5832,9.2994,
-20.0995,-0.53388,-12.0442,-14.4592,5.9955,6.3903,-8.968,-0.088727,-9.3451,4.7347,-16.3991,2.0387,-7.9118,15.8255,
-10.3931,5.165,-0.52735,-11.7027,9.4133,6.0065,5.6701,-3.8617,-0.28389,16.729,-8.804,11.3611,-1.365,0.77601,
0.14694,2.4936,2.8101,-8.64,22.9485,1.3961,3.9804,-4.1022,-5.462,20.9195,-6.8594,15.8737,-4.5889,-1.699,
-7.4177,-7.1003,-3.9701,-12.8437,35.6715,1.3123,-8.5364,-6.6897,-14.5786,9.2758,-8.3364,7.3655,-17.5357,12.503,
-4.6111,3.243,6.1854,-6.8779,32.7217,11.1509,-0.94052,-3.9268,-5.676,3.5241,-1.6977,13.063,-10.3451,22.6817,
-10.9455,7.7701,-6.4641,-9.2993,22.2579,4.815,-2.773,1.0314,-11.0023,-3.2984,-8.2069,15.1124,-5.946,7.2208,
-1.3171,7.7765,0.062734,-7.3245,27.0614,-2.558,11.4933,1.4412,2.4084,-0.73946,3.1466,9.9552,7.1612,-6.975,
9.1518,4.4767,2.8922,-5.9404,39.5377,3.2632,9.4538,-1.4785,1.3192,4.0275,0.12464,14.0805,-7.3684,7.5435,
1.5191,0.90143,-6.2535,-7.9455,41.4823,4.4838,3.6923,2.8603,-7.733,-0.46417,-2.2444,9.9299,-17.8557,17.0751,
-6.1283,3.6814,-3.0451,-8.4134,24.8934,-7.1194,11.0261,-1.0888,2.1757,-7.9926,9.2244,-4.7659,-3.5617,1.9506,
-6.7049,3.4606,-4.7509,-7.9077,9.2998,-1.0249,4.6982,0.86503,3.9346,6.587,6.7825,-6.4353,-0.51435,-12.2664,
-7.7194,-10.8471,-6.8278,-16.4068,-5.3582,-2.3803,-2.6679,-5.3258,-0.55199,15.2317,-7.3201,8.0508,-3.7888,-2.6921,
-9.1452,-11.68,-9.2514,-13.5325,-12.321,-3.1822,-11.0074,-5.951,-6.1857,8.651,-10.6584,11.8851,-10.1726,11.5695,
-11.4301,0.35362,-7.752,-6.1099,-10.6384,6.4531,-13.1806,0.073366,-4.8703,1.5204,-5.2967,3.6153,-8.618,12.8307,
-0.82745,6.4723,6.8131,5.1187,-2.916,9.3721,1.7103,-4.1815,1.5609,4.7345,-3.5621,4.8152,3.7045,-2.0392,
-0.30478,2.7782,-2.9731,9.0616,10.9542,-0.16329,-2.1034,-7.2364,-11.2829,5.8677,-11.3763,11.61,-8.3236,-1.9837,
0.18563,1.1951,2.4005,12.7679,15.4912,4.0974,2.2729,0.28146,-1.6328,1.2656,2.0564,13.2749,-4.5184,9.942,
-4.076,-2.1828,10.2839,11.5302,12.2007,3.379,-2.1131,-0.2071,-6.7296,-9.6724,-0.4281,-1.6216,-4.719,-4.3502,
2.3084,5.9765,12.9731,15.0888,24.2191,-4.8512,1.319,3.1106,-8.6869,-8.6194,-8.4299,-15.6243,-3.019,-18.1891,
8.3085,12.7016,13.6111,16.5441,11.9044,-6.9216,13.9908,2.4519,3.6402,-11.408,-7.452,-22.8495,4.2458,-26.609,
-3.9963,5.8005,-1.3056,11.301,-0.61521,-2.2559,0.40088,1.8322,-10.6782,-11.1961,-15.0332,-14.3944,-4.0373,-10.9124,
-6.1176,7.8136,-3.1831,6.3734,-0.10663,-8.2604,5.5706,4.0833,-8.2155,-6.2739,-10.8259,-14.0033,4.2324,-7.3576,
3.6942,14.901,6.4526,7.8799,-4.8219,-5.8749,9.0148,2.8945,2.6664,-7.7864,-5.4538,-17.8857,7.7568,-21.0161,
3.9447,13.5339,1.8155,9.7677,-8.7835,8.1719,1.3902,5.0815,-4.5772,-5.9029,-4.6544,-10.6731,1.152,-22.1836,
5.5974,12.7228,5.4844,3.5153,-0.69982,6.7373,15.4068,4.7775,-1.4689,-4.6035,1.2922,-15.7,7.6944,-13.2968,
6.6784,17.1532,7.5164,2.8318,13.4422,14.3615,18.8002,11.5741,2.8697,-3.8556,1.6872,-17.1191,11.4832,-9.1928,
2.0272,4.3178,5.6486,6.9123,5.1463,15.8608,5.8659,6.6292,2.2249,-10.7075,-1.7203,-14.6751,4.6552,-1.558,
-1.8723,-7.275,5.3097,8.3861,-7.4404,2.6303,-0.15334,-1.3244,0.20202,-10.0651,-2.5613,-3.4052,-6.0135,-0.52024,
-3.6489,-3.0601,3.1022,8.8276,7.106,4.3615,0.80056,0.64402,-2.6433,-0.96158,2.3141,10.8991,-6.5974,2.3442,
-4.3747,-1.9318,9.5271,5.4648,15.247,4.1002,2.6415,-2.2278,-4.3737,-1.8477,2.1757,12.201,-2.4241,-0.62968,
-9.7786,3.8505,1.3997,-0.5304,0.23219,-3.7016,-4.1286,-2.0941,-10.7228,-2.6811,-2.677,13.3584,-3.2229,-0.5919,
-12.9698,5.5088,1.3157,-4.2765,-13.8817,-9.1459,-1.9914,-10.4685,1.2552,-1.576,5.9837,0.27892,1.6935,2.2773,
-15.97,-0.48853,6.9036,-8.7425,-13.1831,-3.8754,-7.5388,-10.7851,7.791,-5.2597,4.6799,-7.2941,2.5357,6.8632,
-18.3175,3.7908,0.35,-6.8007,-5.3084,5.3293,-10.3922,-1.1659,-5.4275,-6.3605,-5.5173,-8.2737,7.5787,-0.63224,
-10.6069,16.7864,14.429,0.21893,-19.0899,4.0653,4.3313,-6.7623,8.1213,-4.0895,8.036,-21.8773,21.224,-14.6943,
-9.0254,18.6129,24.0209,4.9279,-18.9561,16.1002,10.7503,-8.246,10.4676,4.6559,13.2211,-14.9647,12.4621,-6.3242,
-14.6228,3.3961,8.4797,-3.3961,-3.7187,20.3289,-3.9947,-20.5017,-4.2604,-2.7067,-1.6722,-4.149,2.7418,-1.6943,
-7.6074,4.0693,7.9027,-5.5534,10.6044,12.025,-0.98963,-29.1885,-0.29423,-11.5178,-4.4728,-6.2621,2.1047,-4.8988,
-21.2509,9.492,3.6511,-8.0534,6.3245,10.3588,-0.9298,-30.2704,-6.8886,-12.7157,-9.8713,-9.6638,-8.4106,-0.82656,
-26.1813,14.1167,8.6263,-3.3202,-5.8608,18.7104,13.226,-19.482,7.22,-6.7576,4.821,-10.5012,6.194,7.251,
-18.4719,15.6312,8.5808,-1.7046,-8.8158,17.1147,13.444,-19.7303,2.5367,-10.6021,9.3212,-10.3433,14.3898,-7.2841,
-13.5852,23.1939,17.5116,12.4977,-0.73065,17.9777,14.5263,-21.3797,4.2735,-0.52125,2.1508,0.66631,5.9701,-12.1091,
-26.8701,17.0796,20.2384,15.5931,-14.7868,2.799,24.0437,-21.9859,13.4618,-4.2683,-2.7008,-8.8184,12.223,2.7174,
-33.3532,20.3053,10.0514,15.13,-27.9996,-5.4642,11.74,-12.6384,8.4045,-1.6503,8.3233,-6.8725,16.6853,16.6544,
-28.0467,21.4481,5.1979,5.2496,-12.2196,8.9637,0.17448,-17.0748,7.4277,5.532,14.9071,2.5125,7.6558,1.5551,
-30.1418,6.0612,-1.7246,-4.5096,2.6135,22.5259,-9.2812,-19.8273,1.3156,9.9222,-0.087347,7.0848,-6.9036,-1.304,
-42.4332,-0.98181,-2.5659,-5.1847,-11.6433,19.8917,5.3757,-11.0823,-6.3195,12.1601,-3.9269,3.8256,-6.5571,10.1074,
-47.0378,2.3838,11.6881,6.9331,-25.0447,4.5982,19.1531,-21.2789,-4.524,9.0698,9.0588,5.9576,3.7536,3.3625,
-37.604,2.2398,12.4705,19.7393,-37.642,-3.7729,3.904,-34.1022,-2.3632,18.9151,7.571,19.7001,-4.0274,17.2607,
-32.5146,0.2174,3.2227,4.455,-21.2835,-1.6576,-10.4303,-46.1561,-3.1661,10.2239,-6.1059,15.7523,-16.0632,9.6813,
-21.1189,14.3044,6.8068,-2.4903,-5.9065,12.5418,4.2955,-29.2867,-2.0314,7.7216,-7.6285,0.70712,-8.4884,-4.9996,
-15.1292,23.902,14.8989,11.7591,8.5479,25.8893,7.4109,-13.4295,-4.7436,1.5914,-10.9491,-8.8478,1.4657,1.8437,
-0.12146,20.1063,28.1049,25.1536,22.1351,28.7207,-7.1337,-26.7237,-4.9311,-12.1993,-11.7085,-16.3449,-4.7617,1.261,
13.9858,33,21.2908,25.1949,34.9069,41.0974,5.977,-39.2203,-18.7353,-20.9116,-25.106,-19.1421,-18.576,3.0747,
27.2467,45.12,30.8745,32.6559,46.9125,52.7316,-3.3542,-22.7671,-26.6511,-23.9074,-29.806,-24.1325,-18.0013,-6.0824,
39.7119,56.5128,43.122,44.7965,58.1978,63.6677,-17.253,-7.3011,-10.952,-8.3729,-13.9176,-10.4066,-2.8212,-3.8289,
51.4292,55.6851,42.4914,44.0655,68.8059,73.9476,-30.3178,-13.4745,-14.9497,-17.2475,-20.571,-17.338,-6.3616,5.846,
62.4434,39.5939,33.8025,38.1158,78.7776,64.1124,-30.0498,-26.7661,-17.3585,-30.3127,-24.5319,-30.3978,-19.6751,5.0231,
51.0711,51.3183,45.8744,48.1063,88.1509,74.3656,-42.3468,-11.0601,-2.217,-14.3939,-8.96,-20.6129,-4.3946,4.7213,
33.9069,44.056,32.3281,31.5256,96.9619,84.0037,-53.906,3.7035,4.1223,-10.6971,-3.1604,-28.3483,9.969,1.1322,
17.7724,29.1338,29.4433,29.6341,105.2441,64.8635,-64.7716,7.3261,-0.84716,-10.0562,-2.0265,-20.981,3.3657,15.1643,
2.6061,17.4694,30.9825,35.884,113.0295,64.8165,-74.9853,-7.2135,0.62005,-2.3691,-5.2107,-5.6221,6.4695,28.3544,
-11.6503,2.3212,22.0398,19.6309,120.3477,52.8995,-84.5862,-20.8807,9.5559,1.0788,-0.64711,3.2826,13.165,12.5532,
