"AF3","AF4","F3","F4","F7","F8","FC5","FC6","O1","O2","P7","P8","T7","T8",
-1.0749,-61.2581,981.1979,1.0749,84.9013,-150.4577,8.597,-52.6606,-173.0265,12.8958,-19.3444,7.5226,-26.8675,17.1945,
6.4476,-64.4819,976.8996,0,76.3033,-153.682,0,-55.8844,-174.1014,19.3439,-21.4938,17.195,-18.2705,21.4938,
6.9854,-61.7953,981.7351,-2.6866,91.3033,-153.1448,2.6866,-53.1978,-162.8168,34.3439,-11.2841,23.106,-26.3303,34.9278,
3.7615,-63.9442,989.2587,-5.9104,94.0356,-159.5924,12.3591,-51.0479,-152.0699,31.704,-3.7615,8.106,-30.6291,19.9278,
10.7469,-56.9589,991.9453,-5.3737,92.4234,-159.0552,19.3444,-46.2119,-137.0699,27.942,1.0749,2.1494,-15.6291,4.9278,
5.9109,-49.9735,983.885,2.6866,91.8862,-150.9949,20.9571,-43.5254,-122.0699,28.4792,-0.53773,0.53773,-0.62907,-4.8365,
-5.3737,-58.0333,976.9001,2.1494,94.5733,-147.2334,17.1956,-50.5107,-107.0699,19.3444,6.4481,-2.1494,-15.0457,6.4481,
-4.8365,-60.7204,983.885,-4.8365,87.5874,-146.6962,4.8365,-57.4961,-92.0699,18.8072,19.8816,11.2841,-22.0315,14.5085,
-4.2988,-53.7345,989.7959,-9.672,72.5874,-151.5321,4.2988,-55.8839,-77.0699,25.7926,18.2705,24.7181,-12.8963,5.3732,
-2.6866,-46.7492,990.3336,-2.6866,67.168,-158.518,19.2988,-48.8985,-62.0699,39.2266,15.5829,25.2548,0.53773,-0.53773,
-1.0749,-52.6601,975.3336,-4.2993,82.168,-165.5034,18.27,-53.735,-47.0699,46.2114,7.5226,10.2548,-1.0749,-4.2993,
-2.1499,-59.1082,973.6753,-17.195,83.8264,-163.354,5.3732,-58.0338,-32.0699,37.6144,0,2.1489,-6.4487,0,
-13.9717,-67.7063,977.974,-21.4938,68.8264,-166.5783,8.5975,-55.8844,-17.0699,23.6427,0,1.0744,-3.2243,0,
-23.106,-73.6167,969.9137,-11.2846,63.9442,-174.6381,13.4335,-55.3467,-2.0699,30.6286,9.1347,2.6871,-2.6871,-14.5079,
-11.8219,-62.3326,972.6008,-5.3732,73.079,-176.2503,17.195,-58.0338,12.9301,39.7633,8.5975,5.3732,-17.6871,-21.4943,
-5.3737,-47.3326,984.4222,-2.1494,84.9003,-168.7277,23.6432,-50.5112,27.9301,37.6139,-2.1494,9.6714,-22.5693,-6.4943,
-20.3737,-51.5851,974.7502,-6.4481,76.3038,-165.5029,17.1956,-44.0621,42.9301,35.465,-13.9707,6.4481,-13.9707,8.5057,
-17.195,-51.5851,975.8252,-5.3732,61.3038,-154.7565,12.8963,-47.2864,56.9594,42.9876,-7.5231,5.3732,-11.8219,5.3732,
-16.6573,-54.2723,970.9887,-5.9109,54.2717,-155.2937,6.9854,-57.4961,42.4509,42.4509,-13.434,5.9109,-26.8219,8.0598,
-31.6573,-52.6601,961.8539,-7.5226,69.2717,-162.279,12.8968,-55.8844,44.0626,45.137,-20.4194,6.4481,-11.8219,6.4481,
-22.5682,-45.137,966.1532,-2.1494,84.2717,-159.0547,21.4938,-46.2119,58.0338,55.8849,-7.5226,2.1494,3.1781,-8.5519,
-17.7325,-48.8988,961.3165,-2.6869,86.5127,-155.2934,27.4045,-45.6745,55.3469,53.1981,2.6869,-6.9856,13.4338,-12.3588,
-32.7325,-48.3613,946.8083,0,72.0045,-153.6815,33.3157,-47.2864,58.0338,47.2864,0,-7.5226,13.9717,-3.2238,
-34.9273,-48.8985,937.6735,-3.7615,63.9442,-156.3681,23.1065,-55.3467,52.1234,44.6003,-12.3591,3.7615,23.1065,-11.2841,
-28.4797,-58.571,928.0011,-13.434,77.9154,-161.7418,16.6573,-60.7204,37.1234,46.7497,-14.5085,13.434,19.8816,-17.7328,
-23.1057,-52.1226,934.4489,-1.6119,92.9154,-149.9202,31.6573,-53.1976,45.6745,51.0487,-2.6869,1.6119,25.2551,-9.135,
-14.5085,-41.376,945.1961,4.836,89.7373,-139.1731,36.0023,-55.3467,48.8985,41.3755,-5.9109,-4.836,27.4047,-9.1347,
-11.2844,-44.5995,939.8226,-10.164,80.0651,-148.8453,21.0023,-65.0189,33.8985,32.7787,-20.9109,10.164,17.7325,-18.807,
-12.3591,-38.1516,924.8226,-6.9859,68.243,-152.0699,16.6578,-67.1685,22.031,33.8529,-30.6291,6.9859,12.3591,-23.106,
-7.5231,-25.7931,923.1646,7.5231,72.0045,-137.0699,19.3439,-62.3326,37.031,42.9876,-17.1956,-7.5231,21.4938,-17.1956,
-13.434,-27.4047,926.9266,9.1353,78.9899,-125.2023,17.7328,-61.7953,49.973,46.7497,-14.5085,-9.1353,22.0315,-19.8822,
-23.1057,-28.4794,923.702,4.8362,70.3931,-134.8746,24.1812,-62.8695,47.8239,48.8993,-24.1807,-4.8362,27.4045,-19.8819,
-8.1057,-23.6432,913.4931,0,62.3331,-140.7852,32.2407,-56.9589,38.6894,55.8844,-25.7926,0,38.6894,-15.0457,
0.53747,-34.9276,904.3581,-4.8362,67.1688,-150.9947,30.6288,-57.4963,23.6894,49.9738,-25.2551,-0.53747,41.3762,-28.4794,
-5.3737,-35.465,912.4182,4.2988,74.1544,-156.9058,36.54,-56.9589,26.867,48.3608,-22.5688,-4.2988,55.8839,-40.8388,
-4.2988,-32.2407,908.1189,4.2988,62.3331,-163.354,41.9137,-66.6308,29.0174,48.3613,-18.2695,-10.7469,62.3331,-48.3613,
-0.53722,-30.6286,894.6854,-4.836,68.2435,-158.5175,43.5254,-70.3924,22.0315,48.8985,-3.2695,-3.7615,60.7204,-36.0023,
-11.2846,-23.106,881.7891,-4.8365,82.2142,-144.5468,36.0023,-69.3179,23.106,46.7497,4.8365,-6.9859,60.7204,-23.106,
-16.6576,-14.5082,869.9675,3.7613,73.6169,-138.0984,27.405,-61.7951,26.3306,48.8988,-3.7613,-10.2094,65.0194,-22.0313,
-12.8965,-21.4941,856.533,-2.1496,58.6169,-139.7111,21.4936,-63.4073,25.7923,51.5849,-2.1496,2.1496,70.9298,-18.2702,
-17.7328,-27.4047,841.533,-9.1353,44.5998,-138.0986,17.7328,-78.4073,22.0315,41.3755,-13.434,9.1353,65.0192,-10.2097,
-18.27,-23.6432,826.533,-8.5975,46.212,-138.6358,15.0462,-84.9008,20.4194,39.7643,-18.27,8.5975,65.5569,-9.672,
-24.7186,-33.3162,811.533,-19.3449,51.5851,-148.3088,17.195,-72.005,25.7926,44.0621,-3.27,-4.2988,77.3777,-21.4943,
-31.7035,-40.301,796.533,-23.106,52.1229,-153.1443,32.195,-72.5423,36.0023,44.5998,11.73,-18.8072,86.513,-24.1809,
-30.6291,-36.0023,781.533,-17.7328,38.1522,-155.2937,38.1522,-86.513,39.2266,33.8534,10.2097,-10.2097,83.2886,-17.7328,
-26.3303,-31.7035,766.533,-18.8072,37.0767,-163.8912,24.1804,-90.8117,30.6291,18.8534,5.9109,-5.9109,80.0653,-19.8816,
-17.7328,-16.7035,751.533,-14.5085,52.0767,-157.4431,34.9278,-75.8117,37.0767,27.4047,10.2097,-15.5834,85.4385,-28.4797,
-13.4338,-1.7035,736.533,-10.2094,67.0767,-142.4431,49.9278,-67.1683,43.5251,37.0775,-4.7903,-23.1057,86.5137,-33.8526,
-14.5085,13.2965,721.533,-20.9571,59.646,-128.4267,34.9278,-82.1683,28.5251,22.0775,-19.7903,-19.8816,71.5137,-25.2559,
-5.3737,28.2965,706.533,-20.4189,50.5112,-126.814,19.9278,-97.1683,32.2407,7.0775,-23.6432,-15.0457,58.0343,-13.9712,
-6.9859,40.3005,693.7165,-9.1347,56.4211,-141.814,17.7323,-97.2604,46.7492,6.9859,-25.2554,-30.0457,53.1978,-28.9712,
-6.4487,25.3005,678.7165,-11.8219,47.2864,-147.2334,20.4194,-105.3202,39.7633,6.4487,-34.3901,-44.0626,65.5569,-43.9712,
-6.4481,10.3005,663.7165,-26.8219,46.2125,-136.4865,10.7469,-111.7683,24.7633,6.4481,-23.6432,-29.0626,78.4527,-28.9712,
-13.9707,17.195,653.416,-29.0169,47.2874,-140.7852,8.5975,-101.0214,33.3157,8.5975,-8.6432,-19.3439,88.1251,-15.0452,
-14.5085,2.6866,638.9075,-22.0315,42.4499,-144.5468,23.5975,-94.0361,48.3157,23.5975,-2.6866,-16.6583,99.4093,-25.2559,
-12.8963,-8.5975,631.9221,-24.7181,48.3618,-148.3083,38.5975,-95.6477,56.9594,37.6144,-1.0744,-1.6583,102.0959,-31.1663,
-21.4938,0,623.3246,-23.6432,63.3618,-154.7565,40.8388,-89.1996,41.9594,22.6144,-3.2243,0,112.8433,-27.942,
-30.0918,5.3732,608.3246,-19.3449,64.4814,-148.3083,27.9425,-85.9758,41.9132,7.6144,-5.3732,-15,126.814,-25.7931,
-28.4797,12.3591,593.3246,-22.0321,49.4814,-138.0991,28.4787,-100.9758,52.1224,12.3591,-12.3591,-25.2554,111.814,-29.5541,
-23.6432,19.3444,581.4109,-32.2407,40.8393,-126.814,31.1663,-112.8428,44.0626,13.9712,-19.3444,-13.9712,96.814,-23.6432,
-16.1206,20.4194,579.2615,-27.9425,55.8393,-122.5152,32.2412,-103.1708,51.5851,11.8219,-16.1206,-13.9707,106.3946,-11.8219,
-14.5085,32.7779,564.2615,-14.5085,53.1973,-123.053,29.5536,-98.3348,60.7204,11.2841,-19.8816,-22.0315,109.0812,-11.2841,
-19.8822,45.6747,550.7829,-16.6578,41.376,-119.8286,33.8529,-104.783,52.1234,12.3591,-26.3298,-20.9566,108.0073,-12.3591,
-34.3901,39.7633,542.7215,-26.867,41.9132,-124.6646,44.0631,-108.5445,40.8388,20.4194,-22.5682,-20.4194,120.3664,-25.7926,
-49.3901,24.7633,527.7215,-32.2407,41.9127,-139.6646,32.2407,-111.7688,48.3613,15.0457,-15.0457,-34.3906,127.8889,-40.7926,
-38.1516,23.106,530.363,-25.2548,41.3755,-152.0694,37.0767,-104.783,62.8703,2.6866,-2.6866,-37.0772,132.7249,-44.5998,
-26.8675,27.9425,534.125,-21.4938,34.3901,-150.4577,52.0767,-101.0214,60.1827,-1.0744,1.0744,-33.3157,132.1882,-49.4358,
-37.0772,16.6578,519.125,-24.1809,30.6286,-153.1448,53.1968,-102.6336,60.7199,3.7615,-3.7615,-36.0028,130.5755,-64.4358,
-39.2266,9.1353,504.125,-25.2548,31.7035,-154.2192,38.1968,-102.6336,62.8703,9.1353,-9.1353,-42.4504,137.0237,-76.841,
-34.3906,3.2238,489.125,-32.2407,17.1956,-159.0552,38.6894,-106.3951,50.5112,10.7469,-3.2238,-45.1375,140.7852,-61.841,
-44.0626,12.8958,474.125,-32.2407,16.1201,-150.4577,44.0626,-109.6195,39.7638,-3.2238,3.2238,-38.6894,144.0096,-46.841,
-30.6291,27.8958,459.125,-17.2407,31.1201,-135.4577,44.5998,-96.1854,52.1229,-5.9109,5.9109,-23.6894,158.5175,-31.841,
-18.2695,42.8958,452.4475,-2.2407,45.1375,-120.4577,50.5107,-87.0502,58.0338,0,-9.0891,-21.4938,150.4577,-16.841,
-31.7035,51.0484,454.0597,-2.6866,30.6291,-115.5299,52.1229,-88.6629,68.2435,2.6866,-17.7328,-31.7035,135.4577,-3.7621,
-31.1663,52.6601,442.7751,-10.7469,38.6894,-122.5157,50.5112,-93.4988,78.4527,-1.0749,-2.7328,-29.0164,144.0096,-18.7621,
-18.27,49.4358,428.8043,-16.1201,35.465,-128.9639,51.5857,-98.872,75.2283,-10.7469,10.7469,-32.2412,155.8314,-33.7621,
-25.2554,38.1516,417.5202,-8.0603,30.6296,-129.5006,51.049,-104.7825,74.6916,-17.7323,8.0603,-45.6742,145.6217,-48.7621,
-33.3157,46.2119,405.1612,-5.3732,40.8388,-130.0383,49.4363,-106.3951,89.6916,-11.8219,5.3732,-54.8095,144.009,-42.9881,
-18.3157,61.2119,403.5495,-3.7615,44.6003,-132.7249,58.571,-98.3343,96.1854,-0.53722,0.53722,-49.973,156.3691,-40.301,
-3.3157,72.005,397.6376,2.1494,51.5857,-127.8889,66.6308,-92.4239,85.9758,-5.3737,-9.6725,-39.7638,159.0547,-27.9425,
-9.1347,81.1393,382.6376,3.7615,66.5857,-112.8889,67.1685,-80.0653,88.6624,-10.2102,-3.7615,-36.0028,163.8912,-12.9425,
-19.8816,86.514,367.6376,-2.6866,55.3472,-97.8889,61.7959,-81.1393,81.1398,-6.9854,-1.6122,-48.8985,153.1443,1.6122,
-27.4047,92.9616,358.4115,-4.8365,40.3472,-101.5592,49.973,-96.1393,66.1398,-1.6122,-11.2841,-48.8985,138.1443,1.6122,
-29.0169,99.947,348.2018,-4.2988,31.1668,-98.872,34.973,-111.1393,60.1827,-10.7464,-9.672,-38.6889,146.1589,4.2988,
-31.1663,89.1991,337.4549,-12.8968,35.465,-89.2001,35.465,-107.4701,75.1827,-25.7464,-6.4481,-42.9881,160.1291,6.4481,
-44.5998,74.6916,324.0209,-25.2554,37.0772,-92.9611,48.8991,-105.8574,80.0648,-20.9566,-1.6117,-48.8985,149.9205,1.6117,
-54.8095,77.3782,315.9611,-25.7931,30.0918,-107.9611,46.2125,-117.142,81.677,-12.8968,7.5226,-44.0626,139.7108,-7.5226,
-40.8382,79.5271,323.4831,-24.7186,20.4189,-107.4701,46.2114,-116.0676,96.677,-15.0457,15.0457,-40.8382,152.6071,-17.1956,
-25.8382,75.2283,326.7075,-22.5688,30.0918,-96.7227,56.9589,-103.1708,96.7232,-15.0457,12.8968,-41.9132,157.9803,-12.8968,
-30.0913,78.4532,311.7075,-21.4938,35.4656,-107.4696,41.9589,-103.1708,81.7232,-22.5682,8.5975,-38.6889,150.4577,-8.5975,
-45.0913,76.841,296.7075,-25.2559,20.4656,-111.2316,29.5536,-117.6798,89.7373,-37.0777,15.5829,-39.2266,154.2187,-15.5829,
-31.7035,87.5884,311.7075,-15.5829,15.5829,-96.2316,44.5536,-108.0068,104.7373,-22.0777,30.5829,-40.301,169.2187,-15.5829,
-36.0023,89.7373,304.6764,-22.0315,14.5085,-104.783,54.2728,-105.8574,119.7373,-14.5085,19.8816,-52.1229,176.788,-23.106,
-38.6889,95.6482,309.5129,-12.8963,21.4938,-109.6189,52.6606,-102.0959,134.7373,-26.867,12.8963,-45.137,161.788,-19.3439,
-32.7779,98.3348,320.7971,-4.8365,20.9571,-105.8574,55.3472,-97.2599,149.7373,-28.4792,4.8365,-41.376,154.2187,-26.3303,
-36.0023,92.9611,308.9757,-13.4335,25.2554,-106.9324,61.7953,-94.0361,164.7373,-13.4792,6.9859,-42.4504,159.5924,-33.8529,
-51.0023,77.9611,293.9757,-28.4335,15.5829,-121.9324,54.2728,-104.783,179.7373,-10.2097,10.2097,-45.6747,170.3393,-41.376,
-41.3755,80.0653,303.602,-16.6573,11.2841,-121.978,60.7204,-95.1105,194.7373,-11.2841,25.2097,-32.7779,185.3393,-31.7035,
-34.3906,90.2745,306.2881,-7.5226,6.4481,-113.9182,62.3321,-90.2745,209.7373,-6.4481,39.7638,-29.0169,176.2498,-29.0169,
-29.5541,86.513,303.602,-10.2097,2.6866,-106.9323,58.5715,-96.1854,224.7373,-2.6866,38.1522,-34.9278,161.2498,-27.4047,
-22.031,84.3636,303.6015,-11.2846,4.836,-108.0073,54.2723,-97.2604,239.7373,-4.836,24.1809,-40.3015,158.518,-23.1065,
-32.7779,99.3636,292.8556,-10.2097,10.2097,-104.7825,51.0484,-100.4837,254.7373,-14.5085,10.2097,-48.8985,154.2198,-19.8816,
-45.137,110.6944,280.496,-17.1951,21.4938,-95.6477,52.6606,-106.3946,269.7373,-19.3439,8.5975,-47.2864,152.6076,-8.5975,
-51.0484,95.6944,282.1077,-31.704,15.5834,-110.6477,48.8991,-111.2311,284.7373,-18.8077,15.5834,-41.376,153.1438,-15.5834,
-51.5857,90.2745,285.8687,-26.8675,15.0457,-122.5157,50.5102,-108.5445,299.7373,-15.0457,30.5834,-31.1663,155.8304,-30.5834,
-58.0338,103.1708,270.8687,-33.3162,15.0457,-107.5157,48.3613,-116.0676,310.5869,-15.0457,22.5688,-26.8675,163.3535,-45.1375,
-54.2723,88.6624,272.4357,-38.1516,0.045668,-108.0068,45.6747,-118.7537,303.6025,-0.045668,10.2102,-18.8067,167.1155,-30.6286,
-46.2119,90.2745,287.4357,-25.7931,-11.8213,-111.7683,45.137,-108.5445,305.2137,10.7469,16.1201,-10.7469,152.1155,-19.3444,
-46.7497,105.2745,286.407,-26.3303,3.1787,-103.7085,45.6742,-106.9323,305.7509,-4.2531,14.5085,-23.106,146.6956,-25.2559,
-41.376,101.5592,283.1826,-29.5536,18.1787,-111.2311,60.6742,-101.5586,311.1251,-19.2531,14.5085,-33.8524,161.6956,-14.5085,
-51.5851,86.5592,274.0479,-41.9132,33.1787,-126.2311,67.7063,-102.0959,300.9159,-15.0457,15.0457,-30.0908,176.6956,-18.27,
-61.7953,71.5592,264.9131,-53.1978,48.1787,-141.2311,56.4216,-113.3805,296.0789,-16.6583,14.5085,-15.0908,175.7125,-33.27,
-76.7953,56.5592,256.8528,-67.7058,61.2576,-156.2311,61.2576,-128.3805,301.9903,-20.4189,13.9712,-13.9712,183.7739,-46.2119,
-80.0648,41.5592,261.6888,-69.3179,74.6911,-171.2311,76.2576,-121.978,316.9903,-5.4189,28.9712,-1.6122,198.7739,-39.2266,
-95.0648,26.5592,248.2553,-84.3179,72.005,-186.2311,72.005,-128.9634,323.4842,1.0749,38.6894,-1.0749,203.1178,-54.2266,
-97.2599,11.5592,256.3151,-81.1398,71.4673,-201.2311,69.3184,-132.7249,314.3489,0.53722,29.5541,-0.53722,204.73,-69.2266,
-82.2599,-3.4408,271.3151,-66.1398,77.9154,-216.2311,84.3184,-117.7249,329.3489,0.53773,41.3755,-0.53773,219.73,-54.2266,
-67.2599,-11.8219,286.3151,-51.1398,92.9154,-201.2311,99.3184,-102.7249,344.3489,-2.1494,56.3755,2.1494,234.73,-39.2266,
-52.2599,0.53722,293.93,-36.1398,106.9324,-186.2311,114.3184,-87.7249,343.3653,-8.0603,71.3755,-0.53722,249.73,-24.2266,
-48.8985,-8.0603,297.1539,-25.2554,99.4098,-198.2813,116.6048,-87.5879,333.6938,0.53722,58.571,-0.53722,249.8675,-9.2266,
-63.8985,-23.0603,282.1539,-40.2554,84.4098,-212.253,101.6048,-99.4098,321.872,3.7615,60.7199,-3.7615,235.8957,-18.8077,
-78.8985,-38.0603,267.1539,-55.2554,69.4098,-221.3873,87.0507,-114.4098,306.872,-5.3732,48.3618,5.3732,220.8957,-21.4938,
-91.349,-44.0626,252.1539,-70.2554,61.2581,-220.3128,75.2289,-129.4098,291.872,-12.8963,34.3901,12.8963,218.1635,-12.8963,
-82.2147,-33.8534,241.2694,-63.9447,66.0936,-205.8049,76.841,-125.2023,288.5558,-14.5084,49.3901,9.1353,229.4476,-9.1353,
-67.2147,-18.8534,256.2694,-50.5107,68.7802,-191.2959,90.274,-111.7683,303.0643,-7.5231,64.3901,7.5231,229.9853,-9.672,
-62.3326,-8.5975,255.7779,-45.1375,70.9301,-178.4002,96.7227,-106.3951,309.5119,-4.2988,60.1827,4.2988,226.761,-23.6437,
-67.1691,-0.53722,242.3444,-41.376,69.3174,-170.3399,96.1854,-105.8579,319.7221,-6.9859,58.571,0.53722,230.5225,-32.7784,
-71.4673,0.53722,244.4943,-41.3755,66.0941,-180.0113,94.0366,-105.8574,324.0219,-9.1347,71.4673,-0.53722,236.9712,-17.7784,
-81.1398,-10.2097,241.2694,-56.3755,63.9447,-189.6838,91.8862,-108.0068,324.0214,-8.0598,63.9447,8.0598,230.523,-12.3586,
-89.7378,-25.2097,226.2694,-65.0197,57.4961,-193.9831,84.3631,-114.4554,324.0204,-14.5085,56.4216,14.5085,215.523,-27.3586,
-82.2147,-25.2559,213.327,-59.646,52.1229,-195.0575,87.5874,-116.6048,326.1702,-22.0315,66.0936,22.0315,204.7294,-42.3586,
-83.2892,-17.7323,209.0287,-62.8698,55.3467,-195.0575,88.6624,-119.8291,324.0209,-17.7323,62.8698,17.7323,215.4764,-43.5254,
-89.2001,-20.4199,203.1178,-65.5569,55.8834,-194.5208,88.1246,-120.3664,339.0209,-2.7323,58.0333,2.7323,219.2374,-31.1668,
-81.1398,-35.4199,199.3568,-61.7948,40.8834,-198.2818,90.8122,-120.9036,354.0209,-0.53722,59.6455,0.53722,205.8044,-36.0023,
-74.1539,-33.3157,196.6697,-56.9589,29.0169,-199.8935,90.275,-120.3659,362.1735,-8.5975,60.1837,8.5975,204.1927,-51.0023,
-82.2147,-18.3157,183.2361,-57.4966,41.376,-190.7587,83.2892,-120.9036,347.1735,-13.4335,54.2723,13.4335,213.3275,-61.7953,
-87.5879,-9.1353,170.3393,-60.7204,51.0484,-183.2356,78.9899,-129.5011,332.1735,-27.4047,43.5254,9.1353,198.3275,-48.8985,
-85.9758,-10.7474,169.8026,-61.2576,38.6889,-186.9972,78.4532,-134.3371,332.0812,-35.4645,38.6889,10.7474,183.3275,-49.4363,
-88.1256,-17.195,168.7272,-59.1087,32.2402,-189.1471,79.5276,-133.2627,347.0812,-22.5693,47.2864,17.195,192.3709,-53.735,
-80.0648,-12.3591,158.518,-55.3467,47.2402,-183.2356,94.0366,-130.5755,336.9182,-16.6578,47.8246,12.3591,207.3709,-55.3467,
-73.6167,-4.836,143.518,-67.1685,62.2402,-186.46,97.2599,-138.0986,321.9182,-31.6578,32.8246,4.836,192.3709,-60.7204,
-76.3033,-6.4481,133.2621,-76.3033,68.7807,-189.1466,83.8269,-136.4865,306.9182,-30.0918,22.5688,6.4481,177.3709,-55.8844,
-73.6167,-10.2097,134.8748,-67.1685,63.9447,-185.3855,85.4385,-137.0242,321.9182,-24.1804,37.5688,10.2097,172.4892,-55.3472,
-76.3038,-13.9707,119.8748,-70.9301,64.4814,-184.8483,94.5728,-152.0242,314.8861,-34.3901,39.7633,13.9707,175.1758,-65.5569,
-85.4385,-17.7323,104.8748,-84.3641,67.1685,-180.0118,100.4842,-155.2942,299.8861,-36.0028,34.9273,17.7323,180.0118,-65.0197,
-85.9758,-21.4938,97.7971,-76.3033,63.407,-174.1009,97.7971,-140.2942,308.4385,-21.0028,35.4645,19.3449,186.9977,-59.1082,
-87.0507,-30.0913,82.7971,-75.2289,50.5107,-184.8478,88.1251,-142.9346,320.2593,-19.3449,34.3901,19.3449,176.2503,-68.7807,
-82.7514,-25.7931,67.7971,-76.3033,46.2125,-182.6984,81.677,-157.9346,305.2593,-32.2407,35.465,25.7931,161.2503,-76.3033,
-74.6916,-23.106,52.7971,-72.5423,56.4216,-170.3393,87.5874,-164.9662,290.2593,-44.5998,29.5546,23.106,157.4431,-73.6167,
-73.0795,-24.7181,40.8388,-69.8557,67.7058,-164.4289,98.8715,-151.5326,290.168,-41.9132,27.9425,24.7181,164.4284,-65.5569,
-81.1398,-27.4047,27.4047,-73.6172,58.5705,-170.3399,95.1105,-154.2192,291.7801,-28.4802,30.6291,31.7035,159.5919,-62.8703,
-70.9301,-23.6432,20.4189,-67.7063,55.8844,-169.8021,93.4988,-162.2796,283.7198,-20.4189,33.3152,35.465,157.9803,-58.0333,
-61.2576,-17.1956,17.1956,-54.8095,68.7807,-154.8021,99.9465,-155.8309,294.4673,-23.6432,48.3152,35.465,156.9058,-51.5857,
-68.7802,-18.2695,11.8219,-58.0333,72.0045,-142.9346,114.9465,-141.8597,309.4673,-11.8219,63.3152,50.465,160.1297,-47.2864,
-72.005,-30.0918,1.0744,-61.2576,60.1827,-153.6815,124.6651,-141.8602,301.9898,-1.0744,59.1082,65.465,170.8771,-44.0626,
-57.005,-16.6578,-0.53722,-46.2576,75.1827,-138.6815,116.6048,-126.8602,286.9898,0.53722,59.6455,80.465,177.8629,-29.0626,
-42.005,-11.8219,0,-40.8382,90.1827,-127.8889,120.3664,-120.3659,292.3179,0,74.6455,87.0507,166.5783,-21.4938,
-49.4363,-26.8219,-10.7469,-48.3613,75.2283,-142.8889,127.8889,-135.3659,307.3179,10.7469,89.6455,92.4234,164.4289,-36.4938,
-40.8382,-15.0457,-20.4189,-33.3613,61.2576,-155.8309,123.5902,-131.1128,313.8122,15.0457,87.0502,102.0964,162.279,-32.2407,
-46.212,-0.045668,-35.4189,-37.6144,53.735,-140.8309,108.5902,-142.9346,298.8122,0.045668,72.0502,87.0964,147.279,-36.54,
-41.376,14.9543,-50.4189,-37.0772,38.735,-125.8309,93.5902,-157.9346,283.8122,-14.9543,57.0502,72.0964,132.279,-51.54,
-26.376,29.9543,-65.4189,-23.6432,23.735,-110.8309,78.5902,-159.0552,268.8122,-29.9543,42.0502,57.0964,117.279,-61.2576,
-11.376,44.9543,-72.5423,-22.0315,9.1353,-95.8309,63.5902,-154.2187,253.8122,-44.9543,27.0502,42.0964,102.279,-62.8693,
0.53773,59.9543,-80.0653,-23.106,-0.53773,-80.8309,52.1229,-152.0699,238.8122,-59.9543,12.0502,29.5546,87.279,-75.7666,
1.0749,74.9543,-90.2745,-11.8213,-15.5377,-65.8309,47.2869,-154.7565,223.8122,-72.005,-1.0749,41.9137,72.279,-60.7666,
-2.1494,89.9543,-97.7976,-1.0749,-27.942,-50.8309,39.7638,-157.9803,208.8122,-63.4075,1.0749,34.3906,57.279,-45.7666,
-2.6871,104.9543,-102.6341,0.53722,-31.704,-35.8309,29.5541,-149.9205,205.8044,-58.571,-0.53722,37.0772,42.279,-41.376,
-4.8365,119.9543,-104.7825,-4.8365,-42.4509,-20.8309,30.6291,-147.7706,190.8044,-55.3472,4.8365,48.8985,27.279,-31.7035,
-8.0603,134.9543,-101.5586,-0.53722,-47.8236,-5.8309,33.8529,-152.0694,175.8044,-59.6455,3.7615,52.1234,12.279,-23.1055,
-12.3591,149.9543,-108.0073,9.1347,-42.4504,9.1691,25.2554,-149.9205,180.0118,-74.6455,-9.1347,48.898,12.3591,-38.1055,
-6.4481,153.6815,-116.0676,6.4481,-47.2869,24.1691,21.4933,-139.7108,178.3997,-72.005,-19.3444,47.2869,7.5226,-52.6601,
8.5519,145.6212,-114.4554,3.761,-45.6742,39.1691,36.4933,-129.5011,181.0868,-57.005,-4.3444,52.1229,-6.9854,-37.6601,
16.1206,130.6212,-121.4408,1.0744,-44.0621,54.1691,32.2412,-137.5609,175.1758,-53.735,-1.0744,51.5851,-19.3449,-34.3901,
12.8963,118.2165,-123.5902,3.2243,-49.4363,69.1691,20.4194,-139.7103,168.7272,-62.3326,-3.2243,59.1082,-11.8219,-46.2119,
14.5079,103.2165,-135.9493,-4.836,-64.4363,74.6916,15.5834,-145.6212,169.2644,-73.6172,4.836,54.2723,-18.8067,-45.6747,
12.3591,88.2165,-150.9493,-9.1347,-66.0941,75.7661,9.1347,-148.8455,184.2644,-83.2892,17.7323,45.6747,-27.4052,-43.5259,
6.4481,91.35,-155.8309,-6.4481,-53.7345,78.4537,17.1956,-135.4115,199.2644,-72.004,21.4943,53.7356,-17.1945,-41.9127,
6.4481,90.2745,-151.5326,-6.4481,-66.6318,65.5564,30.0908,-127.8895,214.2644,-57.004,19.3444,61.2576,-24.7187,-45.138,
4.2988,75.2745,-164.4284,-4.2988,-81.6318,64.4825,16.1206,-137.5609,229.2644,-47.2864,19.3449,64.4825,-39.7187,-48.3608,
-1.0749,77.3782,-171.9515,1.0749,-79.5271,79.4825,9.6725,-135.4115,244.2644,-41.9127,23.6432,79.4825,-39.7638,-49.4358,
-5.9109,92.3782,-162.8168,5.9109,-70.3924,89.7373,20.9561,-120.4115,259.2644,-38.1522,26.3303,87.5874,-36.0023,-37.0767,
-6.4487,93.4983,-159.0552,6.4487,-76.3033,97.7971,22.5682,-105.4115,274.2644,-35.4645,20.4194,88.1251,-37.6144,-22.0767,
-4.8355,87.5884,-174.0552,4.8365,-86.513,95.1105,7.5682,-115.5299,289.2644,-40.301,8.0608,82.2142,-37.0767,-7.0767,
1.6122,88.6618,-186.4605,14.5085,-87.5884,88.6618,-3.7621,-118.7542,304.2644,-44.5998,17.7318,84.3631,-48.8985,-1.6122,
-0.53773,78.9899,-185.385,13.434,-83.2886,89.7373,0.53773,-115.5299,319.2644,-42.4509,27.4047,84.3641,-63.8985,-8.0598,
-5.9109,70.3924,-187.5349,6.9854,-82.2142,90.8117,5.9109,-115.5299,312.1995,-45.6742,16.6573,80.0653,-78.8985,-18.8072,
-4.2988,66.6313,-193.4453,4.2988,-80.602,87.0507,12.8963,-113.9177,321.3348,-45.1365,4.2988,89.2006,-90.274,-12.8963,
0.53722,60.7209,-199.3562,5.9114,-80.0648,85.439,6.9859,-108.0068,315.4233,-37.0772,-0.53722,90.8122,-97.2599,-2.6861,
0.53773,58.5705,-202.5806,12.3586,-84.3641,94.0361,-0.53773,-101.5592,300.4233,-30.6291,9.1353,76.841,-89.7373,-13.434,
-1.0749,62.3321,-208.4915,12.8958,-90.275,92.4234,1.0749,-103.1713,293.3918,-36.5395,11.8213,73.0795,-84.9013,-20.4199,
1.6122,69.3179,-206.8793,20.9561,-80.0653,96.1849,1.6122,-102.6336,288.5558,-37.0767,-3.1787,87.5874,-98.3348,-5.4199,
0.53722,69.3174,-213.3275,26.3298,-74.6916,111.1849,-0.53722,-92.9616,273.5558,-33.8529,-8.0603,94.0356,-113.3348,6.9848,
-4.2988,64.4814,-219.2384,22.5682,-87.0507,112.8433,4.2988,-96.7232,272.9729,-30.0913,4.2988,89.1996,-119.2914,-4.2988,
-9.6725,58.0333,-231.0603,11.8213,-90.2745,97.8433,2.1494,-109.6195,281.5699,-19.3455,4.2983,87.0502,-123.5907,-2.1494,
-11.8219,62.3326,-240.7322,11.8219,-75.2745,97.7971,1.0744,-103.1713,272.9729,-11.8219,3.2243,94.5728,-128.9639,-1.0744,
-10.2092,65.0197,-234.8213,26.3298,-72.5417,109.0817,3.7615,-89.7373,268.137,-3.7615,8.0603,104.783,-131.6505,-16.0744,
-12.3591,50.0197,-245.5682,20.9566,-83.2892,95.111,0.53722,-96.1854,267.0625,-0.53722,8.0603,102.6341,-128.4262,-25.2554,
-17.7323,35.0197,-260.5682,10.2092,-86.5135,91.8867,1.6117,-100.4842,252.0625,-2.6871,6.9859,91.8867,-128.4262,-10.2554,
-15.5834,37.0772,-263.8382,20.9566,-101.5135,106.8867,-6.9859,-95.1105,237.0625,-3.7615,9.1347,99.4098,-143.4262,3.7615,
-1.6117,36.0028,-250.9419,31.704,-104.783,97.2599,-11.2846,-92.9611,244.4933,1.6117,17.7323,102.6341,-158.4262,-1.6117,
0.53722,28.4797,-262.7632,25.2554,-89.783,82.2599,-2.6861,-94.0356,238.0456,-3.7615,12.3591,87.6341,-143.4262,-0.53722,
-11.8224,25.7921,-277.7632,12.8958,-74.783,76.3028,2.1494,-98.8726,223.0456,-18.7615,-2.1494,80.6026,-133.2627,3.2238,
-9.1347,10.7921,-291.7801,4.836,-59.783,61.3028,-0.53722,-110.1567,208.0456,-27.4052,0.53722,86.5135,-148.2627,3.7615,
5.8653,-4.2079,-276.7801,10.7474,-44.783,46.3028,1.0744,-107.4696,195.5952,-12.4052,15.0462,76.3033,-163.2627,-1.0744,
1.6122,-14.5085,-274.5846,16.6583,-29.783,31.3028,12.3596,-96.1849,189.6843,-3.761,12.3596,71.4678,-162.8163,-1.6122,
-5.9109,-15.5829,-282.1077,5.9109,-18.8072,20.9571,14.5085,-102.6331,174.6843,-18.761,12.3596,74.6921,-159.5924,10.2097,
2.1499,-30.5829,-284.7948,-2.1499,-30.0913,6.4487,4.2988,-113.9177,162.2796,-21.4938,27.3596,77.3777,-152.6071,13.9707,
2.6871,-45.5829,-278.8839,8.0603,-31.704,3.7615,2.6871,-102.6336,177.2796,-6.4938,42.3596,84.3636,-148.8455,-1.0293,
1.6122,-42.4509,-274.5856,19.8816,-25.2559,11.2841,16.6573,-87.6336,192.2796,-1.6122,57.3596,83.2886,-153.1448,-8.0608,
4.8365,-51.0479,-279.9583,14.5085,-25.2548,2.6866,11.2841,-83.2886,180.0123,-10.2097,44.5998,68.2886,-159.5924,-2.6866,
9.672,-61.2581,-278.3466,20.4194,-32.2412,3.2243,4.2988,-92.4239,165.0123,-10.7474,29.5998,70.9301,-163.354,-3.2243,
-4.836,-60.7199,-282.1077,24.1809,-40.3005,13.4335,8.0603,-91.8862,180.0123,-10.2092,19.8822,85.439,-178.354,4.836,
-12.8968,-46.2125,-285.8697,31.1663,-25.7931,27.942,6.4481,-79.5276,195.0123,-6.4481,31.1663,89.2001,-184.8478,19.836,
-1.0749,-32.2407,-280.496,44.0626,-11.8213,40.8382,1.0749,-72.0045,190.2215,-9.6725,32.2407,88.1256,-181.6235,34.836,
2.6871,-33.8529,-279.9583,36.0028,-22.031,51.0479,-2.6871,-77.9154,175.2215,-16.6578,17.2407,85.438,-180.0118,49.836,
-3.7615,-48.8529,-288.5558,21.0028,-33.8529,44.6003,3.7615,-83.2892,174.6386,-20.9566,14.509,77.916,-189.6838,47.8246,
-6.4481,-56.9589,-285.8692,27.942,-27.942,36.5395,6.4481,-75.2288,189.6386,-10.7469,29.509,81.677,-196.6697,44.0626,
-3.2238,-59.1082,-281.5705,35.465,-29.0164,47.2869,2.1494,-74.1539,204.6386,-2.1494,44.509,88.1256,-193.4453,45.137,
0.53722,-57.4966,-296.0789,24.1809,-40.3015,51.0479,-0.53722,-81.1398,189.6386,-6.9859,30.6286,75.7661,-203.655,54.2723,
0.53722,-42.4966,-300.3777,24.1809,-40.3005,48.8991,-5.9104,-75.7661,174.6386,-0.53722,16.6578,81.1393,-214.4019,69.2723,
-12.8958,-27.942,-294.4667,38.6894,-33.3152,63.8991,-10.7469,-74.1539,174.1009,10.7469,31.1663,96.1393,-222.4622,84.2723,
-14.5079,-28.4787,-302.5271,43.5259,-27.4042,78.8991,-8.0603,-75.7661,170.3399,8.0603,44.6003,111.1393,-230.522,86.5135,
-1.0744,-27.9425,-303.0648,40.8388,-26.867,75.2289,-2.1499,-65.5569,167.6528,1.0744,51.5851,114.9921,-226.761,92.4239,
2.1494,-26.8675,-292.3179,39.7638,-34.3906,64.4819,-13.9712,-64.4819,168.7267,-2.1494,36.5851,119.2914,-229.9853,92.4234,
-2.6866,-41.3755,-298.2283,32.779,-38.1511,61.7959,-23.106,-74.6911,153.7267,2.6866,21.5851,113.381,-241.2689,92.9616,
-7.5231,-53.735,-306.2886,30.0913,-38.6889,66.6313,-24.7181,-74.1544,138.7267,7.5231,16.1206,98.381,-237.5079,103.1713,
-1.6122,-49.973,-298.2283,39.2266,-40.301,68.2435,-22.0305,-59.1544,145.6222,1.6122,20.9571,86.513,-234.8208,96.186,
4.8365,-48.8985,-293.9295,41.3755,-42.4509,57.4961,-12.3586,-51.0484,158.5175,-4.8365,18.8072,88.6629,-248.7925,81.186,
-2.6871,-44.6003,-291.7802,43.5248,-39.2261,60.7199,-16.6578,-52.1224,159.5924,2.6871,27.4052,90.8122,-254.1657,96.186,
-11.2841,-37.0767,-285.332,54.2728,-29.5536,75.7199,-24.1804,-58.5705,146.6967,11.2841,37.0777,87.5884,-245.5682,111.186,
-5.9109,-41.3755,-296.0789,43.5254,-24.1804,77.9154,-26.3293,-67.168,133.8004,5.9109,29.5546,85.4385,-249.8664,126.186,
2.1494,-46.2114,-299.8405,28.5254,-34.3906,65.5564,-32.2407,-70.9296,130.0388,-2.1494,26.8675,93.4988,-253.6285,141.186,
-5.3732,-42.9876,-292.3174,32.2412,-35.4645,80.5564,-35.4645,-64.4814,124.6651,5.3732,37.6144,102.0959,-252.5541,156.186,
-8.5975,-36.539,-289.093,47.2412,-30.0913,95.5564,-32.2402,-56.9583,119.2919,8.5975,39.7643,102.0969,-260.0766,171.186,
-1.6122,-41.3765,-295.005,47.8241,-30.6291,80.5564,-30.6291,-62.8703,119.8286,1.6122,36.0023,102.6336,-270.2868,186.186,
0,-56.3765,-304.1397,32.8241,-37.6144,65.5564,-34.3901,-65.5569,117.142,0,34.3901,93.4983,-278.3466,201.186,
0.53722,-66.0941,-305.7514,19.8822,-41.376,54.2723,-39.2261,-68.243,102.6341,-0.53722,19.8822,78.4983,-282.1077,216.186,
-0.53773,-63.9447,-296.0794,20.9561,-30.6291,47.8241,-32.7779,-68.2435,87.6341,1.6122,4.8822,86.513,-274.5851,231.186,
-3.2243,-74.1534,-286.9437,26.868,-23.6427,32.8241,-30.0913,-63.407,89.2006,3.2243,3.2243,101.513,-280.4955,216.186,
10.2097,-72.5423,-275.66,41.868,-15.5829,47.8241,-17.7328,-48.407,104.2006,14.5085,18.2243,105.8579,-275.66,201.186,
13.9712,-60.1832,-283.7198,39.7638,-11.8213,62.8241,-16.1201,-50.5102,102.0964,11.8213,19.3444,90.8579,-276.1968,186.186,
11.2836,-45.1832,-292.8556,31.703,-3.7615,73.6162,-27.4052,-52.1234,87.0964,3.7615,5.9104,102.6331,-291.1968,171.186,
18.2705,-30.1832,-291.2429,41.9132,0,88.6162,-27.9414,-44.0621,72.0964,0,6.4487,105.3202,-303.0643,156.186,
27.942,-15.1832,-282.6454,56.9132,-9.6725,99.9465,-21.4943,-48.3613,79.5271,1.0749,11.8213,90.3202,-297.6911,141.186,
19.3449,-8.5975,-288.0186,61.2581,-17.195,87.0507,-24.7171,-46.212,77.3787,8.5975,16.1206,88.1251,-292.3174,126.186,
6.4481,-6.4481,-291.2424,52.6601,-7.5226,93.4988,-34.3896,-42.9871,85.9758,15.0467,11.8224,103.1251,-292.3174,111.186,
15.0457,-6.4481,-294.4673,45.137,-7.5236,102.0964,-46.2125,-53.7356,81.677,6.4481,11.8213,104.2452,-303.0648,96.186,
29.5541,-6.9848,-291.7801,47.8246,-4.836,99.4098,-41.376,-51.0479,70.3929,4.836,26.8213,101.5586,-298.2283,81.186,
14.5541,-5.3732,-288.0186,42.9876,-1.0744,92.4239,-38.6889,-48.3608,55.3929,1.0744,11.8213,116.5586,-296.6161,66.186,
2.6866,6.9854,-284.2571,42.4509,1.6122,102.6336,-37.0767,-47.8241,44.5998,-1.6122,-3.1787,131.5586,-303.602,51.186,
17.6866,-3.2233,-281.5705,46.212,0,103.1713,-37.6144,-45.1365,59.5998,0,11.8213,116.5586,-303.0643,36.186,
20.9566,-16.6578,-281.0332,48.8991,0.53722,101.5586,-41.376,-43.5248,69.3184,-0.53722,25.2554,101.5586,-292.8546,21.186,
8.0608,-12.3586,-284.2571,48.8985,-1.6122,97.2604,-41.3755,-38.1511,56.4216,1.6122,10.2554,104.7835,-289.6308,6.186,
10.7469,-12.8968,-281.5705,51.5857,-10.7469,88.1246,-34.3906,-32.2407,60.1832,10.7469,13.9712,112.8428,-301.9898,-8.814,
15.5834,-24.1809,-272.4357,49.9735,-15.5834,77.916,-30.6286,-28.4797,75.1832,20.9566,23.1065,108.0073,-308.9752,-23.814,
16.1201,-22.5688,-270.8236,52.6601,-16.1201,77.3782,-31.1663,-25.7931,82.7514,19.3444,20.4199,110.6939,-306.2886,-38.814,
16.6573,-23.106,-270.2863,53.1973,-16.6573,75.7666,-33.8534,-25.2559,77.9154,16.6573,16.6573,112.3055,-304.6764,-53.814,
19.3444,-19.3444,-266.5248,56.9589,-15.0457,77.3782,-32.2407,-21.4943,75.2294,17.1956,15.0457,117.1425,-299.8405,-68.814,
20.9566,-17.7323,-263.8382,59.6455,-13.4335,76.8405,-32.7784,-18.8077,72.5417,17.7323,13.4335,120.9036,-296.0789,-83.814,
23.1065,-14.5079,-260.6139,63.9442,-12.3591,77.916,-31.703,-14.5079,69.3184,17.7323,12.3591,125.2023,-291.7801,-98.814,
24.1804,-13.434,-258.4645,68.2435,-10.2097,77.9154,-32.7779,-11.2841,67.168,17.7328,10.2097,130.5761,-286.407,-104.783,
28.4787,-16.6578,-258.465,66.0931,-18.8077,69.3174,-29.5541,-19.8822,82.168,16.6578,25.2097,134.8743,-274.5856,-119.783,
28.4797,-26.3298,-257.3901,63.9442,-28.4797,54.3174,-25.2554,-17.7323,97.168,29.5541,17.7323,138.0986,-284.2571,-131.6505,
36.5395,-23.6432,-260.0772,66.6308,-21.4943,44.0626,-20.4199,-15.0457,112.168,34.3896,15.0457,144.0096,-281.571,-130.0388,
37.0772,-20.9566,-268.1375,72.5417,-27.4052,39.2261,-33.8529,-16.6578,127.168,23.1055,16.6578,140.2475,-278.8844,-134.8748,
34.3906,-24.7176,-265.4504,74.1539,-36.5395,39.7638,-32.2407,-7.5226,142.168,22.5688,7.5226,136.4865,-291.2429,-138.6359,
27.9425,-22.5682,-265.4504,75.2289,-34.3901,38.6889,-21.4938,0,152.6066,35.4656,0,137.5614,-286.9442,-123.6359,
19.8822,-26.3298,-280.4504,71.4673,-39.2261,40.3015,-32.7784,-5.9104,164.9656,27.4042,5.9104,140.2475,-276.7345,-108.6359,
20.4194,-31.1658,-295.4504,62.3326,-41.9132,44.0631,-42.9876,-3.2243,174.1014,12.4042,12.8963,135.4115,-291.7345,-111.7683,
10.7474,-31.1658,-307.363,56.9594,-47.2864,39.7643,-39.7633,-1.0744,164.4284,1.0744,5.3732,128.9639,-306.7345,-126.7683,
5.3732,-26.867,-309.5129,58.0338,-51.5857,40.8388,-33.3157,1.0744,178.4002,16.0744,-1.0744,136.487,-291.7345,-123.5902,
9.6725,-27.942,-310.5879,61.2576,-53.735,45.137,-34.3906,6.4481,190.2215,24.7176,-6.4481,139.7108,-276.7345,-119.2914,
8.0603,-28.4797,-311.1246,63.9442,-55.3467,49.9735,-43.5254,8.0603,175.2215,17.7323,-8.0603,138.0986,-291.7345,-121.978,
9.1347,-29.5541,-312.2,66.0931,-49.974,44.5993,-48.8991,3.7615,175.7131,32.7323,-3.7615,146.6962,-292.8556,-112.3061,
24.1347,-34.3901,-314.8861,75.2294,-41.9132,33.3162,-40.8382,5.3737,186.9972,47.7323,-5.3737,147.2339,-277.8556,-114.9927,
22.5688,-32.2407,-309.5124,74.1549,-38.6889,40.8393,-26.867,15.0457,173.0265,47.2869,-15.0457,138.6364,-262.8556,-112.8428,
12.8963,-24.7176,-304.1387,68.7812,-40.8382,55.8393,-20.4184,21.4948,158.0265,39.7643,-12.8963,146.1589,-262.2255,-97.8428,
16.1206,-22.5682,-319.1387,66.6313,-53.7345,59.1082,-32.2407,17.195,143.0265,24.7643,-16.1206,146.1589,-275.1223,-101.0214,
15.0457,-15.0457,-329.9323,69.8551,-60.1832,50.5102,-44.0626,18.27,130.0378,18.27,-25.7931,139.7108,-266.5248,-113.9177,
10.2097,-10.2097,-314.9323,71.4668,-69.3179,65.5102,-34.9278,22.0315,144.5468,33.27,-16.6583,148.8455,-258.465,-110.1567,
10.7469,-17.1945,-319.1849,60.1832,-80.602,78.4527,-32.2407,10.7469,146.1594,39.7638,-10.7469,152.6071,-265.4498,-108.544,
21.4943,-8.598,-324.5586,62.3321,-65.602,72.005,-32.2407,8.598,131.1594,29.0164,-15.0457,146.1584,-264.3754,-106.3951,
14.5085,-2.6866,-326.1708,58.5705,-57.4966,63.9437,-42.4509,2.6866,116.1594,15.5829,-30.0457,132.7249,-273.5107,-105.8579,
15.5834,-2.6871,-324.0214,58.571,-61.7953,72.5417,-42.4504,2.6871,106.9318,22.031,-42.4504,135.9487,-275.66,-106.9324,
23.6432,-2.1494,-315.9606,66.6318,-61.2576,75.2294,-37.6139,2.1494,112.8438,37.031,-38.6883,145.084,-269.7486,-109.6189,
23.1065,0.53722,-313.274,66.0941,-56.4216,69.3184,-40.3005,-0.53722,102.6341,36.0028,-31.703,145.6217,-256.3151,-97.2599,
15.5829,-5.9109,-319.7226,57.4961,-67.1691,60.7204,-51.0484,5.9109,104.7825,29.5536,-43.5254,134.8738,-246.6431,-91.8867,
11.2841,-11.2841,-310.0501,60.7204,-69.3179,54.2717,-49.9735,13.434,109.0812,43.5254,-37.0767,149.8738,-243.4188,-96.1854,
13.9712,-17.1945,-305.2137,62.3331,-63.407,50.5112,-37.6144,13.9712,94.0812,48.3613,-22.0767,164.8738,-238.5823,-93.4983,
13.4335,-18.8077,-314.3494,57.4956,-68.2435,55.3467,-43.5259,12.3591,79.0812,33.3613,-12.3591,159.5924,-232.6724,-95.111,
16.1206,-13.9707,-311.6623,63.407,-59.1082,70.3467,-49.4363,18.2695,64.0812,18.3613,-8.5975,151.5321,-217.6724,-85.9758,
16.1206,-16.1206,-305.2142,62.3326,-51.5857,85.3467,-48.3613,13.9707,49.0812,11.8219,-11.8219,166.5321,-202.6724,-70.9758,
9.6725,-9.6725,-313.8117,58.0333,-61.2581,79.5271,-48.3613,9.6725,34.0812,18.27,-19.3444,171.951,-208.4915,-55.9758,
8.0603,-8.0603,-310.0501,59.6455,-76.2581,76.8405,-52.1229,12.3591,44.6003,25.2554,-14.509,163.8912,-214.4024,-54.2723,
13.434,-9.1353,-297.1539,65.0192,-78.9899,82.2142,-55.3467,9.1353,48.8985,25.2559,-15.5829,174.6381,-203.655,-51.0479,
12.3591,-4.836,-300.3782,60.7199,-75.7666,75.7661,-52.1234,4.836,40.3005,30.6286,-13.4345,173.5632,-201.5061,-49.9735,
2.6866,-8.0608,-296.0794,54.2717,-75.7661,60.7661,-44.6003,13.434,55.3005,34.9278,-2.6866,171.4138,-203.655,-57.4966,
4.2988,-23.0608,-289.0935,56.9594,-79.5276,58.0338,-47.2864,25.7926,63.407,31.1668,-4.2988,179.4746,-188.655,-60.1827,
2.6871,-25.2554,-295.0045,58.571,-84.3636,73.0338,-49.9735,24.1809,48.407,38.1516,-2.6871,176.7875,-173.655,-56.4216,
-11.2841,-15.5829,-295.0045,45.6742,-77.9154,82.2142,-48.8991,14.5085,47.8241,36.0023,11.2841,175.7125,-170.3393,-48.8991,
-11.2841,-30.5829,-297.1539,30.6742,-73.6167,67.2142,-56.4216,11.2841,62.8241,21.0023,12.3586,166.0406,-177.8624,-63.8991,
1.0744,-39.7643,-300.9154,31.1658,-77.3782,62.3326,-51.5857,8.5975,70.9301,10.7464,-1.0744,151.5321,-166.5783,-78.8991,
13.9712,-24.7643,-285.9154,46.1658,-66.6308,77.3326,-36.5857,9.6725,55.9301,20.4199,-9.6725,162.2801,-151.5783,-75.2283,
3.7615,-9.7643,-282.1082,51.0479,-58.571,73.6162,-33.8529,5.9104,40.9301,10.2092,-15.5834,167.1155,-150.9949,-60.2283,
5.3737,-5.3737,-278.3461,52.6601,-58.0333,64.4819,-35.465,20.9104,55.9301,25.2092,-5.3737,163.3545,-141.8597,-50.5107,
5.3737,-8.597,-276.1968,59.1087,-73.0333,69.8551,-39.7638,25.7931,56.9589,32.2407,-5.3737,155.8314,-139.7103,-61.2576,
-1.6122,-4.8365,-273.5107,53.1973,-80.0653,81.1398,-46.7497,10.7931,43.5254,17.2407,1.6122,166.0406,-142.3979,-51.0484,
-6.9854,-4.8365,-278.8839,40.301,-80.0648,84.3641,-52.1229,6.9854,41.3755,5.9109,4.8365,164.9662,-142.3974,-45.6742,
-3.2238,2.1494,-269.7491,42.9881,-78.4532,85.9758,-46.212,21.9854,51.5857,20.9109,-2.1494,161.2046,-138.6359,-44.0626,
-3.2243,2.1499,-263.301,50.5107,-84.9013,79.5276,-50.5107,16.1206,62.3326,35.9109,-2.1499,155.8309,-147.2334,-54.8095,
1.0744,-5.3732,-270.8236,50.5107,-92.4239,79.5276,-52.6596,8.5975,60.1827,20.9109,-1.0744,148.3078,-147.2334,-62.3326,
12.3586,-4.8365,-278.8839,47.8241,-86.513,85.4385,-44.5998,19.8816,45.1827,5.9109,-9.1353,141.3224,-132.2334,-47.8241,
4.2988,-4.2988,-284.7948,32.8241,-88.1251,70.4385,-56.9594,4.8816,30.1827,12.8963,-15.0462,126.3224,-133.2627,-49.4363,
0.53773,1.6122,-270.2863,22.0315,-78.9904,55.4385,-56.4216,-4.8365,23.106,20.9571,-0.53773,129.5006,-127.3517,-56.4216,
-4.8365,-9.1353,-264.9131,25.2548,-78.9904,46.7497,-43.5254,4.8365,24.1804,9.1353,8.0598,137.0237,-112.3517,-70.3929,
-8.598,-21.4943,-269.7491,33.3152,-81.677,46.2125,-40.8388,9.6725,25.7931,17.1956,8.598,140.7852,-97.7976,-78.4527,
-1.6122,-17.7328,-270.2863,36.0023,-72.5417,58.5715,-48.8985,1.6122,38.1522,26.3303,4.8365,137.0237,-94.0361,-63.4527,
0.53722,-2.7328,-263.8382,34.9273,-67.1685,68.243,-51.0479,-0.53722,32.7784,12.3591,6.9859,128.4267,-97.2599,-48.4527,
-4.836,4.836,-258.465,26.3298,-76.841,54.2723,-56.4221,-10.2102,17.7784,6.9848,6.9848,121.978,-111.2316,-48.8991,
3.7615,-3.7615,-257.3895,17.7333,-78.9899,47.8246,-62.8698,-17.7323,15.5834,16.6578,11.2846,117.6793,-106.9318,-55.3467,
6.9854,-14.5085,-262.7632,14.5085,-73.6167,53.1973,-59.6449,-6.9854,20.9571,12.3596,10.2097,118.7542,-91.9318,-43.5254,
-2.6866,-6.9854,-257.3895,19.8816,-68.243,60.7204,-46.7487,6.9854,28.4802,17.7328,2.6866,124.1274,-77.9154,-41.3755,
1.6122,-1.6122,-250.9419,30.6291,-73.6167,54.2717,-54.2717,-3.761,23.106,27.4047,2.6866,116.6043,-86.513,-56.3755,
15.0462,-8.5975,-253.6285,36.54,-74.1539,47.2864,-52.6596,-10.7464,13.9707,12.4047,13.9707,102.0969,-77.3782,-69.8551,
17.7328,-10.2097,-250.9414,36.0023,-71.4673,51.0484,-37.6596,-1.6122,19.8816,1.6122,10.2097,95.1105,-68.243,-67.1685,
10.2097,-6.9854,-256.3151,33.8534,-74.6911,46.7497,-42.4499,2.6866,19.8827,12.3596,-2.6866,98.3348,-78.9899,-52.1685,
-1.0749,-6.4481,-270.8236,26.8675,-67.7053,46.2125,-57.4499,1.0749,9.6725,12.8968,9.6725,113.3348,-75.2283,-37.1685,
-11.8219,2.1489,-279.4216,17.195,-61.2581,61.2125,-62.3326,1.0744,-4.2988,-1.0744,8.5975,128.3348,-64.4825,-22.1685,
-9.6725,12.8968,-277.2717,20.4189,-67.7063,76.2125,-68.7807,1.0749,-1.0749,-1.0749,3.2238,114.9927,-66.6308,-7.1685,
-5.3732,9.672,-275.1223,18.2695,-74.1544,67.7058,-74.1544,-8.5975,6.4487,5.3732,10.7474,99.9927,-67.7058,-11.8219,
-2.1494,22.5688,-269.7491,23.6432,-61.2576,53.7345,-59.1544,-4.2993,2.1494,2.1494,20.4189,112.8428,-52.7058,-22.5688,
5.9109,36.0023,-269.2114,32.7779,-47.8241,60.7204,-46.7497,1.6122,-12.8506,-1.6122,18.8072,112.3055,-37.7058,-24.1804,
20.9109,30.6291,-261.6888,45.6742,-41.3755,52.1229,-40.301,-3.761,-4.8365,10.2097,3.8072,106.9323,-30.6291,-37.0767,
17.1956,17.1956,-261.1511,44.0626,-44.0626,37.1229,-30.0918,-12.8958,6.4481,15.0457,-6.4481,112.8438,-37.6139,-41.9127,
2.1956,8.598,-276.1511,29.0626,-50.5102,25.7931,-42.9881,-12.8958,1.0749,6.4481,5.3737,102.0964,-26.8675,-34.3896,
-8.597,3.2238,-281.5705,29.0174,-50.5102,27.942,-51.5857,-1.0749,1.0749,4.2993,17.1956,94.5733,-18.27,-30.0908,
-15.5834,-4.836,-277.8094,29.5541,-52.1234,33.8529,-36.5857,9.1347,5.9104,4.836,12.3591,109.5733,-24.1809,-16.6578,
-22.0315,-1.6122,-290.7057,19.8816,-47.8241,39.2256,-37.0777,3.761,1.6122,-10.164,5.9109,100.4837,-36.0023,-1.6578,
-7.0315,13.3878,-291.7801,19.8816,-39.2266,47.8241,-45.6752,1.6122,-1.6122,-24.1804,9.1353,91.8862,-25.2559,3.761,
1.6122,17.7328,-282.1077,24.1804,-47.8241,40.301,-31.7035,-0.53773,0.53773,-18.8072,5.9109,96.186,-11.2841,-10.2097,
-1.6122,3.7621,-279.9583,29.5546,-43.5254,30.6291,-25.2548,1.6122,9.1353,-11.2841,11.2851,86.513,-9.1342,-11.2841,
0,3.2243,-289.0936,27.9425,-28.5254,15.6291,-26.867,0,6.4476,-11.8219,19.3449,73.079,-2.1499,-26.2841,
6.9854,11.2841,-282.1077,30.6291,-13.5254,0.62906,-11.867,1.6122,-2.6866,-3.761,22.0315,87.5884,12.8501,-34.9278,
12.3586,12.3586,-275.66,30.6291,-1.6122,-0.53773,-1.6122,-1.6122,-10.2097,0.53773,22.0315,97.2604,27.4047,-19.9278,
10.2102,14.509,-288.5558,15.6291,-3.7615,3.7615,-16.6122,-16.6122,-15.5824,-14.4623,12.3591,82.2604,12.4047,-28.4787,
23.6437,26.868,-286.9442,15.0462,-4.2988,-11.2385,-8.5975,-17.195,-0.58237,-18.2695,17.195,75.2289,17.195,-43.4787,
8.6437,11.868,-299.8405,24.7181,-15.0452,-26.2385,-7.5231,-10.7464,14.4176,-16.1206,23.6437,77.3787,24.7181,-58.4787,
-2.1494,16.1201,-314.8405,26.8675,-21.4943,-33.3152,-21.4943,2.1494,21.4943,-21.4943,17.1956,72.005,20.4189,-43.4787,
-3.7621,31.1201,-328.3201,14.5085,-36.4943,-18.3152,-33.8534,2.6866,36.4943,-31.7035,2.1956,70.3924,9.1342,-28.4787,
-11.8219,44.0621,-326.7085,10.7464,-51.4943,-3.3152,-23.6437,4.2988,51.4943,-18.2705,-4.2988,78.4522,10.7464,-16.1206,
-11.2841,29.0621,-329.3946,15.5829,-66.4943,11.6848,-16.6573,10.2097,66.4943,-10.2097,-10.2097,78.9909,14.5085,-29.5536,
-1.6122,44.0621,-339.067,9.1353,-70.3924,26.6848,-28.4792,1.6122,81.4943,-23.106,-22.0315,69.3179,6.9854,-44.5536,
0,59.0621,-343.9035,17.195,-62.3326,41.6848,-29.0169,0,96.4943,-24.7181,-7.0315,77.3777,13.9707,-29.5536,
-15,44.0621,-358.9035,10.2097,-77.3326,26.6848,-29.5536,-5.9109,111.4943,-29.5536,7.9685,65.0192,15.5829,-19.8816,
-22.031,29.0621,-367.009,9.1347,-81.1398,11.6848,-14.5536,5.9104,126.4943,-14.5536,10.2092,65.0197,29.5541,-34.8816,
-16.1201,26.8675,-360.0236,12.8968,-77.3782,-3.3152,-10.7469,3.2238,141.4943,-3.2238,4.2993,69.8551,32.2407,-49.8816,
-22.031,30.6286,-359.4864,16.6578,-72.5423,-18.3152,-8.0603,-0.53722,156.4943,0.53722,6.9859,74.6916,39.2261,-55.3472,
-31.1663,23.6432,-373.9949,6.4481,-81.677,-33.3152,-8.598,-1.0749,159.0547,1.0749,1.0749,61.2576,34.3906,-54.81,
-22.5682,27.9425,-383.6663,9.673,-92.4234,-48.3152,-5.3732,3.2243,174.0547,0,0,56.9594,32.2412,-68.7802,
-10.2102,33.8529,-379.9053,17.7323,-81.1398,-62.8698,-0.53722,-0.53722,181.0863,0.53722,1.6117,66.0941,38.1516,-71.4673,
-12.8963,46.212,-376.1443,21.4938,-68.7807,-47.8698,-2.1499,0,166.0863,0,1.0744,65.5559,31.1658,-56.4673,
-16.1196,59.1082,-391.1443,16.1206,-70.9296,-32.8698,-11.8208,11.8219,151.0863,-5.3732,0,59.1082,26.868,-41.4673,
-1.1196,55.8844,-404.0862,8.597,-68.7807,-17.8698,-6.4481,12.8958,146.1584,-2.1494,-7.5226,65.5564,41.868,-26.4673,
3.7615,40.8844,-411.0716,2.6871,-67.1685,-28.4797,-0.53722,0.53722,161.1584,-0.53722,-11.2846,65.0187,56.868,-41.4673,
-8.598,29.0164,-422.3562,1.0749,-63.4075,-22.5688,-1.0749,2.1494,170.8766,-7.5226,3.7154,56.9589,51.5857,-32.2407,
-2.1499,44.0164,-434.1775,-1.0744,-63.4075,-26.868,1.0744,10.7464,164.4284,-6.4487,18.7154,47.2864,51.5851,-39.7643,
0,32.2412,-447.0743,-12.8963,-66.6313,-41.868,1.0744,0,161.2041,-2.1499,4.2988,32.2864,61.2571,-54.7643,
-0.53722,28.4797,-442.2378,-3.7615,-58.571,-53.1978,6.9859,-1.6117,167.1155,0.53722,3.7615,31.703,68.243,-69.7643,
-9.672,35.4656,-449.2232,0,-68.7802,-51.5851,0,2.1499,154.7565,-7.5221,6.4487,30.0924,56.9594,-76.3033,
-13.4335,50.4656,-460.5073,3.7615,-74.6911,-46.7492,-3.7615,8.0603,153.1448,-4.836,3.7615,34.9283,59.6455,-81.1393,
-19.8822,56.4211,-471.2548,5.9104,-75.7666,-43.5259,-3.7615,3.7615,153.1438,-9.1347,8.0603,40.3005,72.5417,-69.3184,
-15.0457,50.5112,-468.5676,1.0749,-72.0045,-40.8382,4.2993,-1.0749,151.5326,-3.2238,22.5688,55.3005,87.5417,-54.3184,
-18.2695,52.6606,-473.9413,-8.5975,-70.9301,-39.7633,1.0744,-1.0744,141.8602,3.2243,7.5688,66.6313,95.6482,-39.3184,
-22.5693,67.6606,-479.3151,0,-62.3326,-30.0913,0,13.9256,134.3371,-1.0744,5.3732,59.1082,99.947,-29.0169,
-25.7921,63.4075,-491.1364,2.1494,-72.0045,-29.0164,-2.1494,18.27,128.9644,-16.0744,20.3732,49.4368,97.7976,-27.942,
-20.4194,59.1082,-486.8376,0,-74.1539,-31.1658,1.0755,3.27,128.9639,-8.5975,23.6437,53.735,102.0969,-36.539,
-12.8963,74.1082,-481.4644,-3.2243,-59.1539,-37.6144,1.0744,1.0744,122.5152,4.2988,8.6437,47.2864,114.9921,-39.7643,
-4.836,86.5135,-494.8979,-10.2092,-44.1539,-33.8529,5.9104,14.5079,111.2316,-10.7012,4.836,32.2864,121.978,-44.6003,
-2.1494,90.2745,-499.7339,-8.597,-42.9881,-31.1663,15.0457,2.1494,114.9927,-25.7012,19.836,20.4199,118.217,-59.6003,
-1.0744,92.4239,-491.1369,1.0744,-46.2119,-46.1663,16.1206,-10.7474,129.9927,-10.7474,15.0452,32.2412,127.8884,-74.6003,
2.6866,83.2886,-499.1972,-1.6122,-54.2728,-61.1663,12.3586,-4.8365,126.2763,1.6122,0.045156,28.4792,130.575,-75.7666,
2.1489,79.5276,-504.0332,0,-49.4363,-54.8095,19.3449,0,111.7688,-12.8963,-9.672,26.867,123.5897,-60.7666,
-6.4476,78.4532,-506.1821,5.3732,-40.8388,-64.4819,25.7926,-5.3732,126.7688,-9.672,5.328,31.1668,123.5907,-61.2571,
-3.7615,82.2147,-502.421,3.7615,-41.376,-79.4819,22.031,-3.7615,141.7688,-4.836,6.9859,30.6286,138.5907,-74.6916,
3.7615,95.11,-494.8985,-1.6127,-40.3015,-69.3184,24.1799,0.53722,133.7999,-8.0603,-0.53722,37.0772,153.5907,-59.6916,
0.53773,99.4093,-494.8979,-6.9854,-39.2266,-63.9447,27.4047,-0.53773,126.2773,-13.434,12.3586,41.3755,158.5175,-44.6916,
-1.0749,92.4234,-501.8838,-5.3737,-48.3613,-76.3038,19.3444,1.0749,134.3366,-28.434,25.7931,26.3755,148.3083,-59.6916,
-2.6866,97.2604,-508.8692,-8.0608,-55.3472,-62.8703,13.434,2.6866,134.8748,-43.434,16.6573,24.1804,150.9944,-73.6167,
-8.0608,112.2604,-507.7947,-6.9854,-51.0484,-47.8703,14.5085,6.9854,134.8748,-29.5546,13.434,39.1804,146.6956,-58.6167,
-12.3591,109.0817,-508.8687,-8.0603,-47.8236,-47.8236,15.5834,8.0603,149.8748,-18.8067,20.9566,30.6296,142.3974,-45.6747,
-4.2988,94.0817,-499.7339,-3.2243,-42.9876,-52.6596,26.868,3.2243,164.4284,-16.1206,19.3449,21.4938,157.3974,-52.6596,
1.0749,93.4988,-501.8833,-1.0749,-49.4358,-49.4358,22.5688,-7.5226,150.4582,-22.5688,11.8224,27.942,172.3974,-53.7345,
-0.53773,108.4988,-503.4955,0.53773,-48.8985,-34.9278,20.9571,-0.53773,158.5175,-18.8072,26.8224,42.942,163.8917,-40.301,
-15.5377,98.3353,-505.6448,-3.7615,-52.1224,-49.9278,24.1809,3.7615,171.4143,-6.9848,29.5541,54.2723,154.2192,-42.4504,
-20.9566,83.3353,-507.7942,-1.6117,-55.3467,-64.9278,28.4797,1.6117,161.7423,-2.6871,18.8067,54.2723,160.6669,-43.5248,
-8.598,83.8259,-502.9582,-1.0749,-54.81,-65.5569,27.942,1.0749,159.0547,-7.5226,26.8675,54.809,175.6669,-36.5395,
-7.5226,83.8259,-502.9583,-13.9712,-65.5569,-66.6313,23.6432,7.5226,160.1302,-10.7469,30.0918,56.9589,175.1753,-50.5112,
-22.5226,76.3038,-512.6307,-23.6432,-77.3782,-75.2289,21.4943,15.0457,153.6815,-15.0457,18.27,49.4358,160.1753,-65.5112,
-24.7176,75.2294,-508.3314,-10.7469,-65.5564,-74.1539,29.0174,10.7469,168.6815,-16.1201,25.7931,35.465,170.8766,-65.5564,
-11.8213,80.6026,-498.6595,-5.3737,-56.9589,-67.7058,26.8675,5.3737,183.6815,-10.7469,37.6149,41.9137,185.8766,-53.7345,
-16.1206,76.3033,-501.8838,-19.3449,-63.407,-60.1837,15.0452,12.8963,168.6815,-12.8963,22.6149,54.8095,186.9967,-52.6606,
-21.4943,80.6026,-500.8089,-18.27,-54.81,-45.1837,26.8675,20.4189,155.8314,-16.1201,16.1201,55.8844,181.624,-37.6606,
-25.7926,74.1534,-507.2575,-17.195,-47.2874,-42.9886,29.0169,8.5975,170.8314,-21.4938,20.4194,45.1365,196.624,-22.6606,
-24.1809,66.0931,-508.8697,-16.6578,-54.2723,-43.5259,17.7323,8.0603,178.9364,-22.0321,12.3591,45.6737,206.8788,-8.0603,
-18.2695,73.079,-504.0332,-15.0462,-59.1082,-41.9132,25.7926,12.8963,169.8016,-22.5682,9.672,49.4363,195.5952,-9.672,
-17.7323,88.079,-492.7486,-15.5834,-46.7492,-42.4504,40.3015,15.5834,184.8016,-19.8822,24.672,53.1978,204.73,-23.1065,
-29.5541,89.7368,-490.5992,-14.5079,-41.376,-37.0772,31.704,14.5079,199.8016,-18.8067,39.672,52.1224,219.73,-33.8529,
-39.2261,75.7661,-505.5992,-11.2846,-43.5248,-30.6286,20.9566,11.2846,214.8016,-17.7323,29.5541,52.1224,224.0739,-18.8529,
-40.3015,74.6916,-517.4667,-11.2846,-45.6747,-40.3015,23.1065,10.2092,219.7751,-16.6578,32.7784,49.9735,217.6262,-10.2092,
-32.7779,73.6167,-507.7942,-16.6573,-42.4509,-49.973,23.106,13.434,234.7751,-13.434,47.7784,53.1973,225.1488,-15.5829,
-31.1658,58.6167,-505.1076,-30.0913,-41.9132,-49.4363,25.7926,13.9707,249.7751,-13.9707,51.5851,52.6606,223.5367,-15.0452,
-32.779,60.7204,-515.3173,-22.0315,-39.2266,-46.7497,37.0767,11.2841,255.2402,-15.5829,54.2717,41.3755,219.7756,-11.2841,
-26.868,75.7204,-515.8545,-9.672,-40.8388,-49.4363,39.7633,9.672,253.628,-21.4938,53.735,35.4645,231.0597,-16.1206,
-19.3439,82.7519,-513.7052,-11.8219,-45.1375,-45.1375,32.2412,11.8219,239.6573,-25.7926,38.735,37.6144,239.6573,-22.5682,
-26.3303,90.8117,-526.0642,-10.2097,-45.6752,-30.1375,34.9278,9.1353,238.0451,-29.5546,41.3755,42.4499,241.2694,-9.1353,
-36.0017,90.8122,-535.7362,-15.5834,-53.1978,-24.1809,39.2261,0.53722,249.8675,-34.9273,42.4504,38.1516,230.5225,-0.53722,
-21.0017,91.349,-531.9752,-15.0457,-40.8382,-22.5688,39.7638,7.5226,264.3759,-24.7176,32.2407,32.2407,231.0603,-7.5226,
-32.2407,91.349,-531.9752,-11.8213,-25.8382,-22.5688,37.6139,11.8213,264.3759,-25.7931,31.1663,21.4943,242.8811,-12.8968,
-47.2407,87.5879,-534.6617,-12.3591,-31.703,-20.9566,37.0772,4.836,260.6139,-40.3015,36.0028,9.1347,243.4188,-4.836,
-33.8534,88.6618,-535.7367,-8.0608,-43.5254,-25.2559,38.1511,6.9854,263.8377,-30.6291,32.7779,9.1353,240.195,-6.9854,
-23.6432,91.349,-531.9746,-9.6725,-44.0626,-40.2559,40.8382,9.6725,277.2722,-18.27,29.0174,10.7469,250.4042,-21.9854,
-35.4645,98.8726,-529.8253,-7.5231,-29.0626,-54.8095,41.9132,7.5231,292.2722,-22.5682,44.0174,10.7474,264.3754,-25.7926,
-32.2407,99.9465,-533.0496,-6.4481,-20.4189,-39.8095,37.6139,6.4481,293.3918,-32.2407,56.9589,7.5226,256.8528,-16.1201,
-25.7926,99.947,-528.7503,-8.5975,-26.867,-24.8095,40.8388,8.5975,298.7665,-33.3157,41.9589,12.8973,249.3303,-17.195,
-37.0772,104.783,-521.765,-8.0603,-26.3298,-39.8095,47.8246,8.0603,313.7665,-23.1055,26.9589,13.4335,249.8675,-31.703,
-24.7187,116.0671,-523.3776,-6.4481,-11.3298,-51.5857,49.4358,13.9712,328.7665,-8.598,41.9589,6.4481,255.7774,-42.9881,
-9.7187,118.7542,-522.8399,-11.2841,-6.9854,-40.301,45.6742,16.6583,343.7665,-16.6573,56.9589,4.8365,268.1375,-31.7035,
-10.2097,113.381,-518.5411,-16.6573,-8.0598,-25.301,53.1973,18.8072,346.5896,-22.0315,59.646,6.9854,274.5851,-16.7035,
-24.7181,113.9177,-524.4521,-17.195,-1.0744,-10.301,62.3326,25.7926,361.5896,-7.0315,58.0338,0,265.4498,-1.7035,
-20.4199,113.9182,-527.6764,-10.7469,-3.2238,-15.0457,55.8844,25.7931,371.845,-6.4481,60.1832,2.1494,266.5248,-2.1494,
-19.3444,116.0681,-524.4516,-3.2238,-3.2238,-17.1945,48.3613,17.1956,358.9497,-21.4481,56.9599,2.1494,281.5248,-2.1494,
-25.7931,123.5902,-516.9295,2.1494,-2.1494,-7.5226,50.5102,17.1956,343.9497,-19.3444,52.6601,-10.7469,281.571,-6.4481,
-22.031,120.9036,-505.6448,2.6871,-6.9859,-2.6871,55.3467,20.9566,349.8134,-4.3444,56.4211,-5.9104,278.8844,-3.7615,
-16.1201,123.5902,-504.0327,2.1494,-2.1494,-12.8958,58.0333,22.5688,364.8134,-9.6725,71.4211,-4.2982,291.2429,-4.2982,
-18.2705,125.7396,-513.7057,4.2988,-4.2988,-27.8958,51.5851,22.5682,379.8134,-24.6725,72.0045,-19.2982,293.3923,-19.2982,
-22.0315,123.053,-517.4667,10.2097,-10.2097,-42.8958,52.1229,27.4047,394.8134,-32.7779,60.7204,-34.2982,289.6313,-34.2982,
-26.3303,124.1274,-508.8687,6.9854,-6.9854,-36.0023,57.4961,26.3303,409.8134,-28.4792,60.7204,-30.6291,288.5568,-26.3303,
-23.6432,123.5902,-507.257,2.1494,-2.1494,-35.465,58.0333,24.7176,424.8134,-24.7187,61.2576,-42.9881,290.1685,-29.0174,
-13.9702,123.5902,-511.5553,10.7469,-10.7469,-37.6139,52.6601,24.7186,439.8134,-37.6139,63.4075,-44.0626,291.2429,-44.0174,
-12.3591,138.5902,-508.8692,12.3591,-19.8822,-40.3015,48.8991,17.7323,454.8134,-41.376,58.571,-36.0028,281.0332,-45.6747,
-7.5226,153.5902,-499.7339,6.4481,-6.4481,-26.8675,61.2576,23.6432,469.8134,-26.376,58.0333,-39.7638,283.7198,-30.6747,
-10.7474,138.5902,-508.332,5.3732,-5.3732,-15.0462,65.5569,26.867,484.8134,-27.9425,53.735,-52.6606,288.0191,-33.3157,
-19.8822,130.5755,-519.6161,11.2846,-12.3591,-11.2846,58.571,28.4797,499.8134,-41.376,53.1978,-49.9735,289.6308,-34.9273,
-21.4938,145.5755,-521.2282,1.0744,-15.0462,-13.9707,50.5107,24.7181,514.8134,-26.376,63.407,-50.5107,278.3461,-19.9273,
-15.0462,150.4577,-511.5558,-7.5231,-16.1206,-18.2695,54.8095,13.9707,528.7508,-15.0462,74.1544,-61.2581,274.0474,-4.9273,
-11.2841,141.3224,-496.5558,2.6866,-2.6866,-24.1804,69.8095,24.1814,543.7508,-15.5829,80.0653,-56.4216,289.0474,-16.6573,
-26.2841,132.7254,-503.4955,2.6871,-2.6871,-39.1804,66.0941,29.5541,543.2598,-19.8822,65.0653,-63.9447,292.8551,-26.3298,
-39.7633,137.5614,-504.0327,0,-2.1489,-31.1658,63.407,31.1668,535.1995,-17.195,66.6313,-66.6313,289.0935,-11.3298,
-37.0767,129.5006,-501.3461,-8.0598,0.53773,-26.3303,65.0192,26.3303,541.1104,-5.9109,81.6313,-60.7204,295.0045,-0.53773,
-31.7035,130.5761,-498.1223,-0.53773,-0.53773,-32.7779,73.6167,26.3303,541.1104,0.53773,70.3924,-55.3472,296.0789,-9.1353,
-37.6144,140.7847,-499.7344,1.0744,-11.8219,-34.3901,74.1544,22.5682,533.0496,-12.8963,55.3924,-70.3472,285.8692,-1.0744,
-30.0913,146.1589,-486.8381,0,0,-26.868,76.3033,32.2412,545.9459,-2.1499,69.8546,-77.3782,295.5412,-4.2988,
-36.0023,139.1736,-490.5992,0.53773,-4.8365,-31.7035,61.3033,28.4792,541.1104,-0.53773,69.3179,-77.9154,295.0045,-15.5829,
-48.3608,135.4115,-504.0327,-3.2243,-19.8365,-33.3157,49.4363,19.3449,526.1104,-15.5377,55.8839,-87.0502,282.6459,-0.58289,
-39.7638,137.5609,-498.66,-10.7469,-23.6442,-25.7931,64.4363,23.6432,526.6014,-11.8224,63.4065,-93.4988,281.57,10.7469,
-38.6894,125.7401,-499.7339,-19.3444,-8.6442,-35.465,79.4363,18.27,523.3771,-15.0457,70.9306,-97.7971,286.9442,-4.2531,
-36.0028,119.8281,-490.5997,-12.3591,6.3558,-50.465,86.5125,12.3591,511.0175,-30.0457,74.6906,-98.3353,301.9442,-19.2531,
-21.0028,122.5157,-475.5997,-13.9712,21.3558,-65.465,96.7232,13.9712,508.332,-29.0164,84.9013,-104.2458,305.2137,-29.0164,
-6.0028,114.9927,-476.0907,-28.9712,36.3558,-80.465,98.872,5.3737,510.4808,-18.27,87.0502,-108.5445,290.2137,-44.0164,
-1.0749,109.6195,-472.8664,-27.942,51.3558,-95.465,107.4696,1.0749,512.6307,-13.9712,81.677,-103.1708,305.2137,-42.9881,
-2.1494,94.6195,-466.4183,-20.4189,66.3558,-110.465,117.1425,2.1494,501.8843,-22.5688,66.677,-118.1708,320.2137,-38.6883,
-0.53773,85.4385,-457.2835,-24.1804,69.3179,-125.465,112.3055,0.53773,498.1218,-28.4792,65.0192,-129.5011,325.0958,-42.4509,
-6.9859,100.4385,-462.6572,-27.4052,70.3929,-140.465,102.6331,6.9859,492.7491,-25.2554,63.9442,-119.8286,310.0958,-40.3015,
-8.5975,113.9177,-456.7463,-26.867,85.3929,-130.0383,117.142,8.5975,477.7491,-11.8219,61.2581,-104.8286,317.036,-25.3015,
-9.1353,102.6336,-446.5366,-32.7779,89.7373,-115.0383,121.9785,2.6866,472.3292,-11.2841,76.2581,-101.5586,327.2457,-10.3015,
-17.1945,92.4244,-461.0451,-39.7638,75.2294,-111.7683,110.6939,10.7469,476.0907,-16.1201,91.2581,-110.6939,315.9611,-10.7469,
-16.6578,104.783,-466.9565,-33.8539,75.7661,-116.6053,112.305,12.3591,464.8056,-16.6578,81.1393,-120.9041,318.6477,-12.3591,
-1.6578,119.783,-451.9565,-20.4189,90.7661,-110.6939,124.6646,1.0749,461.0456,-25.7931,77.3782,-126.814,333.6477,-25.7931,
0,111.7688,-436.9565,-23.6427,82.7519,-123.5897,125.7396,0,467.4937,-40.7931,68.7812,-133.2621,337.4554,-40.7931,
-6.9854,99.4093,-430.4165,-27.4047,68.2435,-135.9493,132.7249,6.9854,466.956,-36.0023,53.7812,-138.0986,322.4554,-55.7931,
2.6866,114.4093,-416.4448,-18.8072,83.2435,-128.4262,146.6967,-2.6866,474.4791,-21.0023,68.7812,-134.8743,332.6189,-40.7931,
2.6871,129.4093,-403.549,-15.5834,98.2435,-119.8286,147.7706,-4.836,487.3749,-6.0023,83.7812,-123.053,347.6189,-28.4797,
-8.5975,122.5152,-416.9825,-23.6437,89.1996,-112.8433,136.487,8.5975,480.39,-13.9707,93.4983,-113.9177,332.6189,-24.7181,
-16.1201,107.5152,-426.655,-32.2407,79.5271,-107.4696,124.6646,11.8213,475.0163,-18.27,80.6026,-112.8433,317.6189,-11.8213,
-15.0457,114.9927,-418.0574,-31.1663,81.677,-108.5445,131.1122,10.7469,479.3151,-10.7469,80.6015,-108.5445,306.2881,-15.0457,
-8.0603,108.0063,-413.2215,-32.7784,70.3918,-106.9329,130.5755,8.0603,471.2542,-14.509,88.6624,-108.0073,304.6759,-29.5541,
-3.2238,93.0063,-410.5344,-33.3152,70.9296,-99.947,124.6646,3.2238,471.792,-26.8675,103.6624,-112.8433,313.8112,-34.3906,
-1.6122,97.2594,-398.1758,-25.2559,75.7656,-108.0073,138.0981,1.6122,477.7024,-30.6291,103.708,-118.7542,327.2447,-30.6291,
-3.2243,112.2594,-389.0405,-20.4194,67.7058,-123.0073,153.0981,3.2243,475.0158,-27.9425,88.708,-120.3664,328.8568,-45.6291,
-4.2988,116.0666,-380.443,-18.2705,80.602,-132.1882,163.354,4.2988,470.717,-21.4948,73.708,-120.3664,334.23,-59.1087,
-8.0603,101.5586,-380.9797,-26.3298,87.5879,-125.2018,152.0704,8.0603,455.717,-27.4042,62.8698,-128.4262,335.8427,-44.1087,
-12.3591,92.9611,-390.6527,-34.9283,74.6916,-120.9036,160.6669,12.3591,446.5361,-38.1516,63.9442,-129.5011,325.0953,-44.6003,
-10.2097,107.9611,-385.2785,-24.1804,81.1398,-111.2311,158.5185,10.2097,460.5084,-27.4047,70.3934,-121.978,318.6482,-59.6003,
-3.2243,122.9611,-371.8455,-13.9707,95.6482,-102.0964,153.682,3.2243,475.5084,-12.4047,85.3934,-120.3664,319.1849,-56.9594,
-1.0744,128.9639,-367.5467,-17.195,80.6482,-101.0219,161.2041,1.0744,477.1657,-10.7474,95.6482,-120.3664,318.1105,-41.9594,
-10.2097,113.9639,-375.6065,-22.0315,65.6482,-89.7368,156.3686,10.2097,462.1657,-22.0315,89.7373,-110.1562,313.274,-26.9594,
-23.6427,120.3664,-382.5919,-24.7181,67.7068,-74.7368,148.3088,17.195,447.1657,-17.195,92.4239,-97.7971,314.8871,-20.4184,
-22.5682,132.1882,-377.2182,-21.4938,62.3326,-69.8551,148.3088,12.8963,455.6719,-12.8963,96.7227,-110.6934,319.1859,-22.5682,
-12.8963,124.6651,-368.6212,-19.3449,56.9583,-74.1544,156.9053,12.8963,461.0451,-27.8963,95.6482,-123.5902,321.3348,-36.54,
-21.4943,119.2914,-373.9949,-23.6432,61.2576,-70.9301,149.3828,21.4943,446.0451,-41.9137,81.677,-126.8145,314.8866,-31.1663,
-30.0913,134.2914,-379.3681,-21.4938,58.0338,-70.9301,139.7103,21.4938,431.0451,-36.54,66.677,-130.0383,309.5129,-27.9425,
-15.0913,149.2914,-364.3681,-17.195,59.1082,-74.1539,154.7103,12.8963,416.0451,-34.3901,51.677,-126.814,319.1849,-24.7181,
-9.1353,142.3969,-353.0378,-24.1804,67.1691,-67.1685,162.8163,9.1353,430.416,-36.0023,59.646,-116.6048,318.6482,-16.6573,
-24.1353,129.5006,-362.7102,-32.779,70.3924,-52.1685,147.8163,11.2841,419.6686,-36.0023,70.3924,-110.1567,311.1251,-11.2841,
-25.7921,128.9634,-360.0231,-32.2407,62.3331,-67.1685,144.0096,9.6725,408.385,-37.6139,60.1832,-117.142,312.7367,-9.6725,
-10.7921,123.0525,-349.814,-20.9566,60.7199,-82.1685,159.0096,4.836,423.385,-27.4052,74.6916,-124.1279,319.7221,-9.1347,
-9.1347,129.5011,-360.5609,-25.2554,58.571,-67.1685,155.2937,9.1347,425.0433,-28.4797,89.6916,-128.4262,308.9757,-10.2092,
-24.1347,139.7103,-369.6956,-37.6144,43.571,-52.1685,140.2937,10.7474,410.0433,-43.4797,74.6916,-135.412,295.5422,-10.7474,
-26.3298,138.0986,-365.9341,-37.0772,28.571,-37.1685,128.4267,-0.53722,412.146,-47.8236,66.0941,-132.7249,298.2283,0.53722,
-16.1201,133.2621,-364.3224,-32.2407,30.0918,-30.0918,134.3376,-3.2238,404.0862,-37.6139,81.0941,-125.7396,295.5417,3.2238,
-18.8067,137.0242,-355.1871,-27.4042,33.8529,-27.4042,132.7254,0.53722,389.0862,-40.3005,69.3184,-127.3512,303.6025,-0.53722,
-33.8067,131.6505,-359.4864,-36.0023,28.4792,-30.6291,124.1274,-3.761,374.5321,-44.5998,65.0192,-127.3517,312.1995,3.761,
-48.8067,124.1274,-371.3078,-41.3755,27.4047,-18.8072,120.9031,-2.6866,389.5321,-36.0023,80.0192,-115.5299,297.1995,2.6866,
-36.0017,128.4267,-361.6353,-40.3005,33.8529,-10.2092,124.1279,0.53722,385.279,-36.0017,91.8867,-111.2311,288.5563,-0.53722,
-44.0621,128.9639,-349.2767,-40.8388,31.1658,-20.4194,121.4408,-3.2243,370.279,-48.3608,76.8867,-125.7396,293.3923,3.2243,
-59.0621,123.0525,-349.814,-41.376,23.1055,-24.1809,124.1279,-0.53722,382.0547,-53.1978,61.8867,-135.9493,286.4064,0.53722,
-48.8991,126.2768,-348.7395,-33.8529,29.5541,-12.3591,139.1279,9.1347,390.6522,-46.7492,76.8867,-129.5011,289.6308,-9.1347,
-33.8991,130.0388,-338.5298,-25.7931,33.3152,-2.1494,136.4865,2.1494,375.6522,-53.7345,66.6308,-130.0383,297.6916,-11.8213,
-27.4052,133.7999,-324.0214,-22.031,32.7784,0.53722,129.5011,-0.53722,363.7852,-55.3467,62.8698,-132.7254,298.2283,-2.6871,
-31.704,127.3512,-324.0214,-32.7784,34.9273,-14.4628,137.0232,8.0603,378.7852,-46.7502,68.243,-144.5473,295.004,-8.0603,
-32.2402,125.7396,-328.8574,-39.7633,38.6889,-21.4938,139.7113,11.8219,370.7711,-42.9876,53.243,-152.6066,298.7655,-11.8219,
-32.2407,128.9644,-319.1849,-35.465,38.6894,-6.4938,130.0388,2.1494,355.7711,-51.5857,38.243,-139.7103,294.4673,-2.1494,
-33.8534,123.053,-315.4239,-36.0023,36.0023,-1.6122,123.053,-8.0608,355.1871,-55.3472,53.243,-132.7254,284.2571,1.6122,
-27.4047,129.5016,-312.1995,-32.7779,40.301,-5.9109,133.8004,-1.6122,368.0834,-43.5254,68.243,-133.7999,295.0045,1.6122,
-25.2554,130.5755,-299.3037,-31.704,45.6737,-12.3591,141.3219,8.0603,367.0085,-43.5259,83.243,-141.323,298.2283,-8.0603,
-19.8816,125.2029,-284.3037,-27.4047,46.7497,-18.8072,143.4723,11.2841,355.1882,-47.8241,68.243,-150.9944,296.0789,-11.2841,
-29.5541,111.2306,-287.4819,-33.8529,37.0762,-29.5541,134.8743,3.7615,340.1882,-48.8991,53.243,-156.3686,288.5553,-3.7615,
-44.5541,104.2458,-291.2429,-37.6144,34.3901,-40.8388,132.1882,0,325.6335,-49.4363,64.4814,-146.1589,280.496,0,
-47.8241,104.7825,-276.2429,-38.1522,38.1511,-39.2266,130.5761,0.53773,337.9921,-62.8703,71.4668,-140.248,276.734,-0.53773,
-45.6747,105.8574,-267.0625,-45.6747,30.6286,-30.6286,125.2023,-1.6117,333.6938,-68.243,63.9442,-141.323,274.5846,1.6117,
-41.9127,109.6195,-260.0766,-36.5395,34.3906,-45.6286,137.5609,2.1494,332.0817,-53.7345,62.3321,-128.9639,279.4211,-2.1494,
-36.54,105.3202,-249.3303,-21.5395,41.9132,-60.6286,142.9346,8.5975,328.8568,-58.0338,64.4814,-121.4413,289.0936,-8.5975,
-38.1516,113.3805,-243.4188,-23.1055,26.9132,-45.6286,127.9346,4.836,313.8568,-73.0338,56.4221,-136.4413,284.2576,-4.836,
-53.1516,128.3805,-249.867,-38.1055,11.9132,-30.6286,112.9346,-0.53722,317.5732,-88.0338,41.4221,-151.4413,269.2576,-13.4335,
-67.168,130.5761,-240.1945,-42.4499,2.6866,-15.6286,112.3066,-2.6866,332.5732,-95.1105,42.4509,-158.5175,255.2412,-20.9561,
-52.168,125.2018,-225.1945,-33.8534,10.2097,-0.62855,115.5299,-6.9854,347.5732,-80.1105,44.5998,-148.8455,270.2412,-23.106,
-47.8241,133.7994,-224.0744,-32.7779,1.6122,4.8355,103.708,-1.6122,356.2616,-75.7666,33.8524,-154.2192,265.9876,-22.0315,
-56.9589,131.1133,-211.7153,-38.6894,-2.1494,8.597,111.7683,2.1494,371.2616,-80.6026,38.6894,-155.8314,264.3749,-21.4943,
-63.4075,116.1133,-196.7153,-44.0626,5.3737,12.8958,116.0671,-5.3737,386.2616,-81.677,48.3613,-152.6071,260.0761,-17.1956,
-59.6449,103.709,-197.2064,-45.6742,1.6122,11.2851,109.0822,-10.2097,390.6527,-74.6911,45.6752,-154.2187,249.867,-2.1956,
-51.0479,111.2316,-187.5344,-45.6747,-13.3878,10.2102,104.783,0.53722,405.6527,-66.0931,46.7492,-158.5175,253.0918,-0.53722,
-47.8241,116.6043,-172.5344,-41.3765,-11.2841,16.6573,116.6043,11.2841,420.6527,-60.7204,54.2717,-146.6967,267.062,-11.2841,
-56.4216,105.8579,-157.5344,-42.4509,0.53773,6.9854,123.053,-0.53773,423.9684,-68.2435,52.1229,-140.248,261.6888,-16.6583,
-46.212,107.4701,-142.5344,-31.1658,0,0,126.814,4.2988,423.4306,-66.6313,53.735,-139.7108,255.7779,-7.5231,
-38.1511,122.4701,-127.5344,-17.7328,-2.6866,2.6866,129.5016,17.7328,427.1927,-51.6313,49.974,-142.3974,258.4645,-14.5085,
-53.1511,133.2621,-120.3664,-17.1956,1.0749,-1.0749,124.6646,17.1945,420.2068,-36.6313,35.465,-151.5326,259.0017,-25.7931,
-54.8095,118.2621,-109.6195,-20.4194,1.0744,-1.0744,122.5152,20.4194,415.9075,-39.7643,39.7633,-147.2339,256.8523,-19.3449,
-40.301,103.2621,-94.6195,-19.8816,-0.53773,0.53773,124.1274,24.1804,419.6696,-36.0023,54.7633,-132.2339,249.867,-6.9854,
-42.9881,104.2452,-84.9013,-25.7931,-2.1494,-2.1494,123.5902,9.1804,404.6696,-34.3906,53.7345,-137.5614,239.6568,2.1494,
-56.9589,111.7683,-83.8259,-40.7931,2.1494,-3.2238,111.7683,3.2238,389.6696,-46.2114,38.7345,-148.3083,247.1809,-2.1494,
-56.4216,106.9324,-78.9899,-41.3755,6.9854,-6.9854,104.7835,14.5085,379.9053,-46.7487,44.5998,-143.4718,252.0169,-17.1494,
-50.5107,99.947,-74.1544,-31.1668,4.2988,-4.2988,107.4691,6.4476,394.9053,-35.4656,59.5998,-134.3376,239.6573,-25.7926,
-56.9589,98.872,-83.8269,-39.7638,1.0749,5.3737,105.3197,-1.0749,390.1145,-35.465,69.8551,-133.2627,238.5823,-10.7926,
-61.2581,97.7971,-98.8269,-44.0631,-1.0744,-2.1499,107.4691,8.5975,375.1145,-44.0631,54.8551,-139.7108,239.6573,1.0744,
-55.3477,94.0356,-109.0822,-38.1516,0.53722,-0.53722,112.305,16.6578,360.1145,-47.8246,48.898,-145.6217,227.2982,-5.9114,
-65.5564,85.9758,-118.2165,-46.2114,-14.4628,9.6725,97.305,12.8968,347.1268,-59.1077,46.2125,-152.6071,212.2982,-9.6725,
-77.3782,85.9758,-123.5902,-45.137,-26.8675,5.3737,82.305,13.9712,332.1268,-47.2869,31.2125,-138.6358,214.9396,-5.3737,
-67.168,91.8872,-120.9031,-42.4509,-11.8675,-9.6263,97.305,16.6583,329.3946,-36.0023,30.6291,-132.7249,229.9396,-14.5085,
-52.168,106.8872,-116.0676,-37.6144,3.1325,-17.195,112.305,17.195,344.3946,-39.7643,45.6291,-142.9346,244.9396,-23.6437,
-37.168,121.8872,-118.2165,-29.0164,18.1325,-32.195,127.305,15.0457,331.0072,-34.3906,50.5112,-144.009,256.8528,-18.27,
-22.168,107.4691,-127.8895,-26.868,33.1325,-47.195,142.305,12.8963,316.0072,-25.7926,41.9132,-140.7857,241.8528,-25.7926,
-7.168,92.4691,-142.8895,-38.1522,48.1325,-62.195,135.9493,6.9854,313.274,-33.8534,40.301,-147.7706,232.6719,-40.7926,
-9.1353,87.5874,-152.0694,-44.5998,63.1325,-77.195,123.053,9.1353,322.9469,-34.9278,46.7497,-155.2937,241.2694,-47.8241,
-11.2841,88.6618,-154.2192,-37.0777,78.1325,-92.195,127.3517,11.2841,317.5727,-25.2559,47.8241,-157.4431,243.4183,-32.8241,
-2.6866,78.9899,-162.8163,-32.7779,82.2142,-96.1854,131.6505,2.6866,302.5727,-40.2559,43.5254,-153.1443,233.7463,-25.2548,
-2.1494,77.3782,-171.9515,-34.3906,81.677,-92.4239,134.3376,2.1494,287.5727,-55.2559,48.3613,-146.1589,235.359,-30.0918,
-12.8963,87.0507,-179.4741,-36.54,88.1251,-92.4239,138.6358,12.8963,295.5422,-51.5851,56.9594,-148.3078,240.7327,-26.867,
-6.9859,90.8122,-192.9081,-37.0772,94.0356,-83.2892,134.8743,6.9859,305.7514,-36.5851,47.8236,-154.2192,233.7469,-22.031,
1.6122,98.3348,-197.2074,-31.7035,97.2594,-70.3934,126.2763,-1.6122,291.7801,-44.5998,39.2266,-149.9205,230.522,-31.7035,
-5.9109,102.6336,-196.1319,-29.5536,94.0361,-62.8693,129.5016,5.9109,288.5558,-59.5998,46.7497,-147.7706,239.1206,-32.7779,
-4.8365,100.4847,-204.73,-31.7035,83.2886,-65.0192,140.248,4.8365,297.1533,-58.5705,47.8241,-159.5924,234.8218,-36.0023,
-5.9109,87.5874,-216.5513,-30.6291,73.6167,-74.6911,129.5006,5.9109,289.6313,-70.3924,34.9278,-171.4143,219.8218,-51.0023,
-15.0462,91.3495,-218.1635,-25.7926,74.1544,-59.6911,114.5006,15.0462,285.8692,-75.2289,35.4656,-163.354,222.4622,-41.9132,
-18.27,106.3495,-223.5372,-16.1201,74.1539,-44.6911,112.8428,16.1201,294.4673,-60.2289,50.4656,-153.6815,233.2091,-26.9132,
-25.2559,103.708,-236.9707,-15.5829,65.0192,-32.7779,121.9775,15.5829,298.2288,-45.2289,63.9447,-150.9949,220.8501,-26.3303,
-27.4042,98.3353,-234.8213,-15.5834,68.243,-39.2261,117.6793,15.5834,306.8258,-59.6455,65.0197,-143.4718,225.1493,-25.2554,
-33.8534,108.0068,-244.4938,-18.8072,62.8693,-34.9278,102.6793,10.2097,296.0789,-56.4216,57.4961,-148.8455,220.8501,-10.2554,
-48.8534,101.5586,-259.4938,-33.8072,47.8693,-39.2261,87.6793,6.9859,281.0789,-54.2723,43.5248,-162.8168,205.8501,-6.9859,
-55.3472,87.5874,-270.2863,-43.5254,45.6742,-40.301,94.0361,12.3586,278.8839,-69.2723,31.7035,-158.518,197.2074,-12.3586,
-40.3472,90.8122,-258.465,-28.5254,60.6742,-25.301,102.6331,17.7323,293.8839,-63.9442,41.376,-145.6217,212.2074,-26.3298,
-39.2266,95.1105,-272.4357,-25.2548,47.8241,-13.434,97.2604,13.434,296.0789,-48.9442,56.376,-145.6212,212.2525,-28.4792,
-54.2266,84.3631,-283.1831,-40.2548,32.8241,-28.434,82.2604,10.2097,283.1826,-51.0484,52.1229,-157.4436,197.2525,-13.4792,
-40.8382,87.0502,-280.496,-39.7638,39.7638,-27.942,80.6026,6.4481,274.0479,-62.3321,37.1229,-162.279,184.8483,-6.4481,
-25.8382,102.0502,-265.496,-24.7638,54.7638,-14.509,95.6026,4.836,261.6883,-49.9735,28.4787,-147.279,199.8483,-13.4345,
-10.8382,104.783,-262.7638,-17.7323,69.7638,-29.509,110.6026,3.7615,249.8675,-46.7492,36.0028,-143.4723,209.0287,-13.4335,
-16.6583,89.783,-277.7638,-30.6291,73.6167,-44.509,95.6026,8.0598,250.9414,-47.8241,22.0315,-152.0699,194.0287,-8.0598,
-11.2841,86.513,-283.1826,-30.6291,75.7666,-44.5998,84.3641,9.1353,247.7181,-57.4961,27.4047,-147.7706,199.3562,-9.1353,
-12.8963,95.6482,-269.7486,-20.4194,81.6775,-44.0621,99.3641,8.5975,257.9278,-69.8546,42.4047,-140.7852,214.3562,-8.5975,
-27.8963,88.6629,-272.4357,-19.8816,75.7656,-59.0621,97.2604,10.2097,265.9876,-71.4678,57.4047,-155.7852,203.655,-10.2097,
-30.0913,89.1996,-287.4357,-24.7181,72.0045,-51.5851,82.2604,7.5231,250.9876,-70.9301,42.4047,-163.354,188.655,-7.5231,
-15.0913,101.0219,-280.496,-20.4189,74.1539,-36.5851,90.2745,6.4481,242.8821,-55.9301,32.2407,-148.354,203.655,-6.4481,
-8.0598,92.9616,-274.5851,-20.9571,61.7948,-40.301,86.513,8.0598,255.2402,-40.9301,47.2407,-135.9493,201.5061,-10.2097,
-22.5682,82.7519,-289.5851,-29.0169,50.5107,-47.2864,71.513,3.2243,240.2402,-48.3608,39.7643,-148.3083,186.5061,-3.2243,
-26.3308,91.8867,-292.8551,-19.8822,65.0187,-36.0028,65.0187,8.0603,225.2402,-63.3608,37.0772,-140.2485,192.9081,-8.0603,
-18.27,91.35,-282.6449,-13.9712,67.7063,-49.4358,73.0795,13.9712,240.2402,-55.8844,52.0772,-132.1877,200.9689,-23.0603,
-13.9707,78.4532,-279.4211,-23.6437,62.3326,-63.407,73.079,13.9707,253.629,-45.1375,67.0772,-135.412,193.4453,-13.9707,
-19.3439,77.3787,-281.5705,-25.7926,63.407,-48.407,67.7058,4.2988,238.629,-60.1375,58.0338,-142.9346,185.9233,-4.2988,
-11.8213,88.1256,-275.1223,-13.9712,68.7807,-33.407,68.7807,6.4481,240.7322,-46.2125,62.3321,-135.412,195.5947,-6.4481,
-9.672,80.602,-280.496,-23.6437,60.1827,-48.407,64.4814,1.0744,225.7322,-41.9132,61.2581,-133.2621,189.1466,-1.0744,
-18.269,78.4537,-294.4667,-34.3896,56.9599,-59.1077,60.1832,-10.7469,210.7322,-56.9132,46.2581,-127.8884,174.1466,10.7469,
-30.6291,72.5423,-296.0789,-37.0767,53.1973,-46.7497,55.3472,-9.1353,196.1319,-61.7948,44.5998,-119.8286,166.0406,9.1353,
-44.0626,57.5423,-290.168,-35.465,42.9881,-61.7497,50.5112,-7.5226,211.1319,-51.5857,59.5998,-132.1877,164.4289,7.5226,
-43.5254,70.3924,-290.7057,-30.6291,52.1229,-53.1973,51.0484,-6.9854,199.3562,-66.5857,68.2435,-147.1877,155.2942,6.9854,
-34.9278,85.3924,-295.0045,-39.2266,49.973,-38.1973,40.301,-1.6122,185.3855,-78.9899,53.2435,-153.1443,140.2942,1.6122,
-22.031,100.3924,-285.332,-42.4504,34.973,-23.1973,31.704,-4.836,196.1324,-69.3174,38.2435,-146.6962,133.7999,3.7615,
-11.2836,115.3924,-273.5102,-27.4504,43.5259,-10.2092,40.3015,-9.1347,204.73,-68.243,44.6003,-143.4718,138.0986,9.1347,
-10.2097,129.5006,-271.3608,-17.7328,58.5259,-12.3586,42.4509,4.8365,189.73,-70.3924,37.0767,-153.1443,137.0237,-4.8365,
-10.2097,124.1274,-263.8377,-24.1804,57.4961,-12.3586,47.8241,10.2097,176.788,-56.4216,22.0767,-148.8455,145.6212,-15.5829,
-5.3732,114.9921,-254.7035,-25.7926,55.8839,-22.5693,58.0338,5.3732,191.788,-44.0631,37.0767,-134.3371,152.6066,-8.5975,
-10.2097,106.9323,-253.0913,-25.2559,52.1229,-31.7035,47.8241,9.1353,206.788,-51.0484,52.0767,-135.9493,145.6212,-9.1353,
-17.195,108.5445,-241.8067,-27.9425,52.6606,-29.0169,47.2864,17.195,209.5659,-50.5107,42.9876,-140.7852,140.7857,-17.195,
-15.5834,112.3061,-234.8213,-23.1065,51.0479,-20.9566,48.8991,9.1347,201.5056,-49.9735,46.7492,-143.4718,125.7857,-9.1347,
-10.2097,110.1567,-238.0456,-15.5829,44.5998,-23.106,39.2266,-1.6122,188.6088,-57.4961,40.301,-149.9205,110.7857,1.6122,
-6.9854,104.7835,-229.4476,-17.7328,46.7497,-30.6291,40.301,6.9854,195.0575,-58.5705,30.6291,-143.4718,113.381,-12.3586,
-11.2841,105.8579,-220.8506,-16.6583,47.8241,-31.7035,47.8241,11.2841,210.0575,-59.646,42.4499,-134.8748,121.9775,-23.106,
-14.5085,105.8579,-221.9245,-12.3586,51.0484,-32.7779,48.8985,10.2097,195.0575,-71.4668,55.3472,-142.3969,123.053,-10.2097,
-14.5079,96.1854,-227.2982,-13.4335,53.1978,-44.6003,48.8991,13.4335,180.0575,-81.1393,43.5248,-153.1443,121.978,-16.6578,
-10.2097,92.9606,-229.4481,-17.7328,47.8241,-59.6003,41.3755,10.2097,169.2649,-77.9154,28.5248,-153.1448,116.6043,-25.2559,
-9.1347,102.6331,-226.2238,-22.031,46.7492,-54.2723,28.4797,9.1347,169.2644,-70.3929,13.5248,-148.8455,114.4549,-13.4335,
-20.4189,91.349,-219.2384,-27.942,51.5857,-47.2869,36.5395,11.8213,171.951,-59.1087,23.6432,-139.7108,114.9927,-11.8213,
-30.0908,76.349,-225.686,-38.6883,44.0626,-59.1077,37.6149,6.4481,173.0265,-62.3321,20.4199,-131.1128,111.7694,-6.4481,
-26.3303,61.7948,-234.8213,-36.0023,30.6291,-63.9447,22.6149,2.6866,164.9662,-77.3321,17.7328,-129.5011,109.0822,-2.6866,
-12.8963,76.7948,-224.6111,-21.0023,44.0631,-48.9447,32.2412,12.8963,179.9662,-72.0045,32.7328,-118.2165,116.0676,-12.8963,
-15.5829,85.4385,-222.9994,-20.9561,54.2728,-42.4499,44.5998,15.5829,194.9662,-70.3924,47.7328,-116.6043,114.4554,-18.8072,
-19.3444,79.5271,-222.4622,-29.0174,48.3613,-47.2869,33.3152,16.1201,209.9662,-76.3038,51.5857,-123.5902,118.217,-16.1201,
-17.7328,76.841,-217.6262,-28.4792,43.5254,-49.973,26.3303,17.7328,224.9662,-62.8703,46.7497,-124.1274,124.1274,-25.2559,
-15.0457,80.6015,-220.3134,-22.5688,46.2114,-46.2125,39.7638,15.0457,239.9662,-47.8703,31.7497,-127.8895,120.3659,-20.4199,
-18.8072,74.6911,-235.3134,-27.4047,32.7779,-47.8241,24.7638,14.5085,240.195,-62.8703,16.7497,-134.8748,105.3659,-9.1353,
-24.1809,82.2147,-246.6431,-30.6286,24.1809,-36.0028,9.7638,16.6578,242.3444,-77.8703,28.4797,-119.8748,90.3659,0.53722,
-22.5693,96.7227,-231.6431,-29.0169,26.867,-36.54,4.2988,12.8963,255.7779,-76.3033,20.4194,-113.9177,81.6765,-4.2988,
-7.5693,104.7835,-216.6431,-14.0169,41.867,-38.1511,19.2988,27.4047,254.1657,-62.8693,5.4194,-119.8286,96.6765,-15.5829,
-4.2988,89.7835,-223.5372,-13.9717,52.6596,-39.7643,27.9414,24.7181,247.1804,-60.1837,4.2988,-124.6651,109.6189,-23.6437,
-10.7469,87.0502,-233.2096,-17.1956,45.137,-29.0174,13.9712,17.1945,257.9273,-63.4075,6.4481,-125.7401,97.7976,-8.6437,
-6.4476,101.0214,-233.2091,-11.8219,48.3618,-21.4938,18.2705,23.6437,263.301,-59.1082,4.2988,-122.5152,98.8726,-4.2988,
-10.7469,90.2745,-239.6578,-15.0457,55.8834,-26.8675,17.1945,23.6432,248.301,-51.5857,10.7469,-117.1425,111.7683,-19.2988,
-17.1945,75.2745,-242.8816,-15.0457,58.0333,-24.7176,15.0457,20.4189,243.9565,-51.5857,25.7469,-111.7683,109.6195,-19.3444,
-20.4194,76.3033,-247.1804,-18.2695,63.407,-29.0169,18.2695,19.3449,243.956,-56.9594,23.6437,-123.5902,96.7227,-23.6437,
-11.8219,81.6765,-245.031,-23.6437,77.3777,-37.6144,11.8219,15.0452,231.0597,-54.8095,13.9707,-133.2627,105.3202,-24.7181,
-8.5975,68.7812,-243.956,-27.9425,66.6313,-47.2864,12.8963,8.5975,223.5367,-58.0338,12.8963,-139.7103,99.947,-30.0913,
-10.7469,58.0343,-249.3292,-24.7176,51.6313,-58.0333,12.8968,10.7469,219.2384,-62.3321,10.7469,-145.0835,84.947,-45.0913,
-2.6866,63.9447,-258.465,-14.5085,63.9447,-47.8241,2.6866,10.2097,204.2384,-60.7204,4.8355,-139.1736,73.6167,-45.6752,
-0.53722,73.6172,-258.4645,-13.4335,68.243,-36.0028,2.6871,8.0603,190.7592,-62.8698,0.53722,-130.5755,83.2892,-30.6752,
-8.0603,81.1393,-256.3151,-16.6578,55.3467,-42.4504,12.3591,15.5834,196.1324,-57.4966,8.0603,-134.8743,82.2147,-27.4052,
-8.0603,70.3929,-271.3151,-20.9566,48.8991,-53.1978,8.0603,24.1809,192.9081,-45.6747,16.6578,-140.248,90.8122,-42.4052,
-2.1494,55.8844,-279.4211,-17.1956,55.8844,-47.2869,2.1494,24.7176,179.4741,-47.2869,20.4189,-137.5609,98.872,-31.1663,
-2.1494,65.5564,-275.1228,-12.8968,70.8844,-47.2869,2.1494,19.3444,178.3997,-55.8844,23.6432,-135.412,88.1246,-17.1956,
-3.2238,77.3782,-277.2717,-11.8213,83.8269,-47.2869,3.2238,27.942,192.3704,-48.3613,34.3906,-127.8889,94.5733,-9.6725,
-9.1347,71.4673,-286.407,-5.9104,84.3636,-32.2869,5.9104,27.4042,184.3106,-41.376,32.7784,-115.5299,99.4098,-10.2092,
-7.5231,67.7058,-284.7948,-7.5231,82.7519,-22.5682,7.5231,20.4194,169.3106,-47.2864,20.4194,-113.9177,89.1996,-9.672,
3.2243,67.7058,-279.4216,-13.9707,73.079,-32.2412,-3.2243,24.7181,154.7565,-51.5851,22.5682,-113.9182,76.3033,-3.2243,
2.6866,68.2435,-284.2571,-9.1353,68.2435,-32.7779,-2.6866,37.0767,168.1905,-36.5851,25.2559,-99.4093,75.7666,-6.9854,
-4.2988,63.407,-296.6166,-12.8963,74.1544,-27.9425,7.5231,39.7633,171.9515,-24.7181,10.2559,-99.947,83.8264,-19.3449,
1.6122,58.5705,-303.6025,-12.3596,71.4668,-32.779,-1.6122,33.8524,157.4431,-39.7181,1.6122,-106.9329,91.8862,-12.3596,
-2.1494,55.8844,-312.7367,-7.5226,62.3331,-36.5395,-10.7469,27.942,146.1595,-51.5846,16.6122,-106.3946,92.4244,2.1494,
-11.2846,57.4966,-314.3489,-0.53722,67.1685,-29.5541,0.53722,32.7784,161.1595,-36.5846,31.6122,-105.8574,98.3353,-3.7615,
-11.8219,53.735,-314.8861,0,65.5569,-32.2412,0,35.4645,168.7272,-30.0913,27.9425,-110.6939,92.4239,-8.5975,
0.53773,49.973,-318.6477,-2.6866,63.9447,-30.6291,-3.761,32.7779,153.7272,-45.0913,22.0315,-106.9323,78.9899,-0.53773,
1.6122,46.7497,-321.8715,-1.6122,63.9447,-25.2548,-6.9854,27.4047,138.7272,-56.4216,18.8072,-109.0817,77.9155,-12.3586,
-3.2238,53.7345,-320.2598,1.0749,64.4819,-10.2548,-6.4481,34.3906,127.8889,-44.0626,27.942,-111.7688,92.9155,-1.0749,
-12.3591,47.8236,-334.7683,-13.9251,56.4211,-14.5079,-14.5079,29.5541,134.8743,-53.1978,23.1055,-114.4554,84.3636,12.3591,
-2.6866,46.7497,-346.5901,-9.1353,63.9447,-27.4047,-10.2097,32.7779,149.8743,-51.0484,12.3586,-104.783,75.7666,2.6866,
-3.7615,55.3467,-344.4408,3.7615,62.8698,-24.1809,-10.2102,38.1516,164.8743,-41.376,20.9566,-109.0817,73.6162,-12.3134,
-12.3596,61.7948,-337.9921,6.9854,52.1229,-9.1809,-11.2841,38.1522,167.115,-43.5254,23.106,-121.978,68.2435,-6.9854,
-10.7469,59.1087,-350.3512,1.0749,54.81,-2.1494,-13.9712,37.6149,152.115,-49.4358,8.106,-112.8433,69.8551,-1.0749,
-8.5975,62.3326,-351.4261,0,61.2581,-7.5231,-21.4938,38.6889,137.115,-37.6144,15.0462,-97.8433,76.3033,0,
-6.4487,53.735,-340.6792,-3.2243,49.4363,-20.4194,-23.6437,39.7633,148.3078,-32.2412,20.4194,-97.7976,70.9301,3.2243,
-3.7615,38.735,-344.4402,-5.9104,42.4504,-24.1809,-11.2846,44.6003,163.3078,-32.7784,17.7323,-103.708,76.8405,3.7615,
-10.2097,43.5254,-353.0383,1.6122,57.4504,-14.5085,-1.6122,52.1229,163.8907,-42.4509,28.4792,-100.4842,83.2886,-1.6122,
-13.434,51.0474,-360.5614,1.6122,59.6449,-2.6876,-15.5839,46.7487,148.8907,-54.2728,36.0023,-100.4847,73.6167,-1.6122,
-11.8213,41.9137,-370.7705,-5.3737,44.6449,-1.0749,-22.5688,33.3152,135.412,-42.9881,24.7176,-98.872,79.5281,1.0749,
-10.7474,45.1365,-364.3229,0,42.9876,0,-9.673,46.212,148.3078,-32.2412,31.1658,-95.6487,93.4983,0,
-8.5975,51.5851,-355.7249,1.0744,57.9876,-2.1499,-5.3742,60.1827,141.8602,-41.9132,38.6889,-93.4988,81.6765,-1.0744,
-2.6866,40.301,-370.7249,-3.761,62.8693,-3.761,-18.8072,45.1827,126.8602,-49.973,23.6889,-91.8862,67.168,2.6866,
-12.3586,30.6291,-385.7249,-11.2841,56.4216,-8.0598,-22.0315,31.7035,111.8602,-45.6742,16.6573,-91.8862,74.6911,8.0598,
-20.9566,33.8529,-384.2046,-11.2846,55.3467,-15.5834,-15.5834,46.7035,126.8602,-38.1516,31.6573,-89.7373,83.2892,11.2846,
-17.195,36.54,-382.5919,-8.5975,55.8849,-16.1196,-23.6427,50.5107,141.8602,-35.4645,38.6899,-89.1996,79.5276,8.5975,
-8.0608,34.9268,-388.5033,-6.9864,66.0936,-5.9109,-23.106,42.4499,137.0237,-36.0023,31.7035,-86.5135,80.0643,5.9109,
-9.1347,30.6286,-394.9515,-11.2846,61.7953,0.53722,-31.704,32.7784,122.0237,-51.0023,24.1809,-94.0356,65.0643,-0.53722,
-21.4938,30.0913,-408.3845,-18.2695,46.7953,0,-46.704,17.7784,107.0237,-66.0023,9.672,-106.3946,50.0643,0,
-24.1804,28.4792,-423.3845,-27.4047,34.9278,1.6122,-59.646,2.7784,92.0237,-66.0936,-1.6122,-109.0812,39.2266,1.6122,
-20.4199,25.7921,-424.5056,-22.5688,40.8382,3.2238,-55.8844,13.9712,77.0237,-58.0343,2.1494,-107.4696,46.2114,-2.1494,
-28.4792,28.4802,-421.8185,-16.6573,36.0023,2.6866,-61.7948,28.9712,68.2435,-65.0192,4.8365,-112.3055,43.5254,-2.6866,
-30.0913,33.3157,-428.8043,-22.5682,36.54,0,-62.3326,26.867,63.407,-72.0045,2.1489,-111.7688,38.6889,0,
-19.8822,24.1809,-439.0135,-24.1809,31.704,-2.6871,-56.4211,16.6578,74.6916,-57.4966,9.1347,-102.6331,44.6003,2.6871,
-24.1809,13.4335,-434.7148,-16.6578,20.9566,-8.0603,-60.7199,14.509,81.1403,-54.2723,15.5834,-106.9323,40.3015,8.0603,
-24.7176,13.9712,-435.2525,-17.1956,21.4943,-6.4481,-64.4819,16.1201,73.0795,-58.0333,6.4481,-107.4696,36.5395,6.4481,
-21.4933,17.1956,-433.1026,-13.9712,26.8675,-2.1494,-63.4065,20.4199,67.7063,-59.1077,2.1494,-104.2452,37.6149,9.6725,
-17.195,21.4938,-430.9537,-10.7474,32.2412,3.2243,-63.407,25.7926,62.3326,-60.1827,-3.2243,-99.947,37.6144,11.8219,
-14.5079,24.1809,-429.3411,-8.0603,37.0772,8.0603,-63.9442,29.5541,56.4221,-61.7943,-9.1347,-97.2599,38.1516,13.4345,
-15.0457,24.7176,-429.8788,-9.6725,37.6139,9.6725,-67.7063,31.1663,48.3613,-65.5564,-18.27,-97.7976,34.3906,11.8213,
-15.0457,23.6432,-432.0282,-9.6725,38.6894,9.6725,-70.9296,32.2407,37.6149,-69.8551,-27.942,-97.7976,31.1663,10.7469,
-0.045668,38.6432,-418.5947,-2.6866,53.6894,-2.6866,-61.7948,30.6291,38.1522,-68.2435,-12.942,-82.7976,31.7035,16.6583,
-2.6866,29.5546,-411.0716,2.6866,68.2435,-17.6866,-56.4216,31.7035,53.1522,-53.2435,-4.8355,-73.6167,45.6752,23.106,
-6.9859,17.7323,-405.6984,4.836,53.2435,-32.6866,-54.2723,28.4787,59.6455,-39.2271,-4.836,-88.6167,40.3005,17.7323,
0,16.1206,-403.0113,0,60.1837,-47.6866,-61.2571,25.7926,63.407,-54.2271,10.164,-103.6167,25.3005,2.7323,
3.761,1.6122,-404.6239,-1.6122,61.7948,-62.6866,-71.4678,31.7035,72.5412,-63.9447,19.8816,-101.5592,31.7035,-12.2677,
2.6866,-2.6866,-401.3991,3.7621,60.7204,-60.7204,-62.8693,33.8534,66.0936,-48.9447,16.6583,-97.2599,46.7035,-22.0315,
-1.6122,2.6866,-402.474,1.6122,56.4216,-45.7204,-55.3472,34.9278,60.7204,-33.9447,28.4792,-91.8867,58.5705,-7.0315,
0,11.8219,-399.7874,0,61.2581,-30.7204,-56.9594,47.2864,75.7204,-33.3157,43.4792,-76.8867,43.5705,0,
-6.9854,13.434,-412.146,-11.2841,62.8703,-41.3755,-71.9594,33.8534,66.0936,-44.5998,29.5546,-70.3924,28.5705,6.9854,
-12.3591,16.6578,-417.5197,-11.2846,53.1978,-40.3015,-75.7661,20.9566,51.0936,-48.8991,14.5546,-85.3924,36.0028,11.2846,
-10.7464,18.2695,-412.6837,-3.2243,50.5107,-36.54,-64.4814,33.3157,40.8388,-51.5851,21.4938,-82.7519,46.2119,3.2243,
-1.6122,16.6573,-404.6234,-2.6866,65.5107,-33.8534,-59.646,42.4509,55.8388,-49.974,31.7035,-74.6911,54.2717,1.6122,
1.0749,11.8224,-406.2351,-1.0749,74.1539,-32.2407,-58.0333,38.6894,66.6318,-36.5395,31.1663,-84.9008,48.3613,-3.2238,
-1.0744,5.3732,-409.4599,1.0744,69.8546,-30.0913,-50.5107,35.4645,61.2571,-36.54,26.867,-95.6482,33.3613,-4.2988,
3.2243,-1.0744,-405.1606,-3.2243,65.5569,-32.2412,-52.6606,34.3901,53.735,-51.54,27.9425,-92.4239,37.6144,1.0744,
4.2988,3.2243,-405.1606,-6.4476,60.1827,-38.6889,-65.5569,39.7643,53.735,-66.54,32.2412,-85.9752,52.6144,-3.2243,
-1.6122,16.6573,-404.6239,1.6122,62.8693,-26.3303,-65.0192,43.5254,56.4216,-52.1229,17.2412,-76.841,57.4961,-3.7621,
-2.6866,20.9561,-409.9971,2.6866,63.9437,-11.3303,-65.0192,42.4499,44.5998,-52.1229,2.2412,-73.6167,42.4961,2.6866,
4.836,13.4335,-416.4448,-4.836,48.9437,-16.6578,-69.3174,44.6003,59.5998,-59.6455,12.3591,-74.6916,27.4961,-12.3134,
5.3732,3.2243,-407.3105,-3.2243,33.9437,-31.6578,-69.8557,39.7633,74.5998,-54.8095,22.5682,-74.1544,25.7926,-27.3134,
-1.0749,3.2238,-400.8624,1.0749,41.9127,-35.465,-68.7807,31.1663,89.5998,-55.8844,7.5682,-69.8551,37.6139,-36.5395,
1.0749,10.7469,-401.9368,-1.0749,40.8382,-26.8675,-63.4075,41.9127,104.5998,-59.1087,15.0457,-65.5564,48.3613,-25.7931,
7.5231,4.2988,-398.7125,-4.2988,25.8382,-41.8675,-68.7802,41.9132,119.5998,-54.8095,22.5682,-72.0045,40.8388,-32.2412,
15.0457,1.0749,-391.1899,-1.0749,36.5395,-44.0626,-65.5564,31.1663,132.1877,-39.8095,7.5682,-67.7063,37.6139,-30.0918,
19.8822,-3.7615,-388.5028,3.7615,51.5395,-48.898,-52.1224,33.8529,141.323,-30.6286,12.3591,-65.0186,38.1516,-26.3298,
34.8822,-9.1347,-377.7564,9.1347,66.5395,-63.898,-42.4504,46.7492,156.323,-30.6286,27.3591,-69.3184,45.6747,-19.8822,
46.7497,-6.9854,-368.0839,6.9854,81.5395,-71.4673,-38.1522,55.3472,171.323,-18.8072,42.3591,-63.9447,56.4216,-13.434,
31.7497,-3.761,-369.1584,3.761,78.9899,-70.3929,-42.4509,54.2717,184.3101,-5.9109,27.3591,-60.7204,47.8241,-14.5085,
19.3449,-13.9707,-371.8455,7.5231,64.4814,-73.0795,-41.9132,54.8095,169.3101,-7.5231,13.9707,-60.1827,34.3901,-13.9707,
30.0913,-21.4938,-363.2475,11.8219,70.9301,-78.4527,-26.9132,67.7058,171.9515,-11.8219,28.9707,-53.7345,45.1375,-21.4938,
31.1658,-20.4194,-357.8743,12.8963,76.3033,-88.1251,-26.867,70.9301,175.1758,-12.8963,27.9425,-54.8095,55.8839,-26.867,
27.4052,-5.4194,-353.0378,18.8077,72.5417,-73.1251,-30.6286,68.243,160.1758,-2.6861,12.9425,-52.1229,59.6455,-11.867,
13.4335,-12.3591,-368.0378,3.8077,57.5417,-58.1251,-45.6286,53.243,145.1758,-17.6861,6.9859,-65.0186,48.8991,-3.7615,
7.5236,-19.3444,-383.0378,6.4481,54.81,-50.5102,-49.4358,51.5857,130.1758,-24.7176,21.9859,-60.1822,44.0626,-6.4481,
2.6866,-13.433,-388.5028,11.2851,46.7497,-53.1973,-60.7204,45.6752,115.1758,-28.4792,6.9859,-57.4961,29.0626,1.6122,
2.1499,1.0744,-397.6381,4.2988,31.7497,-44.0621,-75.7204,32.2412,100.1758,-43.4792,-8.0141,-69.8557,14.0626,-1.0744,
4.2988,8.5975,-394.4137,3.2243,25.7926,-31.1658,-78.4532,37.6144,85.1758,-47.2864,-5.3732,-80.602,8.5975,-3.2243,
6.9859,6.9859,-379.4137,10.2102,40.7926,-32.7784,-63.4532,46.7492,78.9904,-32.2864,-6.9859,-82.2137,16.6578,-12.3591,
8.0598,8.0598,-364.4137,16.6573,55.7926,-34.9278,-48.4532,58.5705,93.9904,-17.2864,-8.0598,-72.5423,23.106,-24.1804,
4.2988,3.2243,-349.4137,16.1206,58.0338,-40.8388,-41.9132,65.5559,92.4239,-3.2243,-6.4487,-75.2288,33.3157,-20.4194,
11.8219,4.2988,-353.575,13.9707,61.2581,-35.4645,-45.1375,62.3326,77.4239,-11.8219,-7.5231,-73.0795,40.8388,-5.4194,
9.1342,2.6866,-367.009,5.9109,55.3472,-40.301,-52.1229,49.973,67.168,-18.8072,-2.6866,-70.3924,30.6291,-11.2841,
1.0749,-1.0749,-352.5005,13.9712,53.7345,-41.9127,-50.5102,56.9589,82.168,-11.8213,12.3134,-56.9589,21.4943,-15.0457,
1.0744,-11.8219,-342.8286,19.3439,56.9583,-29.0169,-46.2119,64.4814,91.3495,-7.5231,27.3134,-47.2864,21.4938,-1.0744,
0.53722,-20.9566,-357.8286,4.3439,41.9583,-24.1799,-61.2119,49.4814,76.3495,-22.5231,12.3134,-57.4956,13.4345,-0.53722,
1.6122,-5.9566,-360.5609,4.8365,29.5536,-19.8816,-72.5423,39.2266,61.3495,-37.5231,-2.6866,-63.9447,2.6866,6.9854,
1.6122,9.0434,-345.5609,16.6583,34.9278,-4.8816,-70.3924,53.1973,46.3495,-44.5998,-1.6122,-63.9447,-2.6866,15.5829,
4.2988,7.5231,-342.8281,16.1206,39.7643,-4.2988,-70.9301,41.9132,31.3495,-42.9876,-5.3732,-65.5559,-7.5221,6.4487,
16.1201,5.3737,-336.3804,16.1201,41.9127,-12.8968,-65.5564,44.0626,20.4189,-33.3162,-19.3444,-64.4819,-2.1494,2.1494,
19.3444,4.2983,-340.6792,17.1945,33.3152,-22.5688,-63.4075,56.9589,26.8675,-35.465,-24.7187,-72.005,2.1494,-2.1494,
13.434,1.6122,-340.1415,13.434,31.7035,-27.4047,-66.0936,43.5254,27.4047,-42.4509,-17.7328,-73.6167,-0.53773,0.53773,
13.9717,-3.2243,-325.1415,5.3742,39.7643,-22.5682,-63.407,35.4656,27.9425,-32.2402,-2.7328,-58.6167,-1.0744,7.5231,
26.3303,-1.6122,-310.1415,8.0598,45.6742,-12.3596,-54.2728,50.4656,42.9425,-17.2402,12.2672,-51.0484,1.6122,-1.6122,
25.7931,-2.1494,-311.6623,16.1201,41.9127,-17.1956,-52.6601,62.3321,57.9425,-4.2993,26.8675,-63.4075,2.1494,-16.1201,
20.4194,-3.2243,-319.1854,11.8219,46.2119,-19.3449,-51.5851,54.8095,66.6313,-17.195,11.8675,-60.1827,10.7464,-9.672,
20.4194,-3.2243,-313.8117,8.5975,51.5851,-11.8219,-50.5107,54.8095,51.6313,-24.7181,3.2243,-48.3618,19.3449,-6.4487,
13.4335,-4.836,-311.1246,4.836,46.7492,-12.3591,-58.571,51.0479,58.571,-20.9566,16.6578,-47.8236,14.509,-10.2092,
10.2097,-4.8355,-314.3484,-1.6122,43.5254,-18.8072,-68.2425,44.5998,57.4971,-22.0305,12.3596,-52.1229,12.3596,1.6122,
2.6871,-2.6871,-322.9464,0.53722,41.376,-14.509,-69.3184,38.1516,42.4971,-37.0305,-0.53722,-63.9442,9.1347,2.6871,
-1.0744,4.2988,-318.1099,12.8963,38.6899,-5.3732,-65.5559,37.6144,30.0913,-35.4645,1.0755,-54.8095,0,0,
8.0603,4.836,-311.1251,17.7323,27.4042,-9.1347,-70.3929,39.2261,30.6286,-30.6296,0.53722,-39.8095,-15,-0.53722,
16.1206,5.3732,-308.438,9.672,30.0913,-7.5231,-65.5569,47.2864,36.54,-40.8388,-5.3732,-45.1375,-8.5975,7.5231,
7.5236,3.2248,-306.2886,-3.2238,41.9137,-1.0749,-59.1077,47.2869,38.6894,-53.7345,-2.1494,-60.1375,1.0749,9.6725,
12.8968,7.5236,-292.3174,-4.2983,41.9137,-2.1494,-61.2576,42.9881,32.2407,-42.9871,2.1494,-61.2576,-6.4481,6.4481,
24.7187,11.8224,-277.3174,3.2238,36.5395,-11.8213,-53.7345,49.4358,46.2125,-27.9871,9.6725,-55.8844,-6.4481,-3.2238,
13.433,5.9109,-271.3613,9.1342,41.3755,-16.6583,-47.8241,57.4961,59.6449,-26.3303,15.5829,-66.0941,-5.9109,-17.7328,
2.1494,5.3737,-276.1973,10.7469,40.8382,-5.3737,-54.81,53.7345,49.4358,-24.7176,13.9712,-61.2576,-2.1494,-5.3737,
-1.0749,1.0749,-282.6454,6.4481,25.8382,-3.2238,-69.81,38.7345,34.4358,-29.0174,18.27,-50.5112,-5.3737,4.2983,
-0.53722,1.6117,-285.3325,8.0603,12.3591,-11.2846,-72.5428,36.0018,19.4358,-44.0174,20.9566,-48.8991,-12.3591,0.53722,
-0.53773,10.2097,-284.2576,2.6866,27.3591,-5.9109,-66.0936,41.3755,10.2097,-51.0484,8.0598,-51.0484,-9.1353,0.53773,
1.0744,11.8219,-272.9734,-3.2243,42.3591,-8.5975,-51.5851,39.7633,13.9707,-40.8388,-1.0744,-45.1375,5.3732,3.2243,
1.0744,-3.1781,-262.226,-1.0744,57.3591,-23.5975,-41.9132,38.6889,6.4487,-33.3157,5.3732,-37.6144,9.672,12.8963,
-3.2243,-16.1206,-260.0766,3.2243,68.7802,-23.6437,-42.9876,49.4363,12.8963,-25.7926,11.8219,-29.0169,6.4487,27.8963,
-5.9104,-9.1347,-258.4645,5.9104,60.7209,-8.6437,-46.7492,55.3467,27.8963,-17.7323,15.5834,-20.9566,13.4335,33.8529,
-3.2238,-16.1201,-253.6285,3.2238,50.5102,-17.1956,-42.9881,51.5857,42.8963,-18.27,21.4943,-27.942,17.1956,18.8529,
-2.6871,-31.1201,-247.7176,2.6871,53.1978,-32.1956,-44.6003,47.8236,27.8963,-18.8067,31.704,-42.942,15.5834,13.4335,
-3.7615,-32.7784,-241.2694,3.7615,52.1234,-27.4042,-47.8236,48.8991,26.3308,-17.7323,46.704,-36.0018,17.7333,28.4335,
-0.53773,-17.7784,-241.2694,0.53773,51.0484,-16.6573,-46.7497,53.1973,26.3303,-32.7323,31.704,-21.0018,17.7328,25.2559,
4.8355,-16.6583,-245.5687,2.6866,48.8985,-25.2559,-45.6752,43.5254,11.3303,-45.6752,16.704,-25.2559,6.9854,19.8816,
2.1489,-21.4938,-248.2553,1.0744,47.2864,-30.0913,-41.9132,32.2402,0,-39.7643,16.1206,-38.6889,0,32.2402,
0,-17.195,-233.2553,0,49.4363,-24.7181,-33.3157,42.9876,15,-29.0169,31.1206,-40.8388,9.673,35.4656,
0,-9.672,-219.2384,0,49.4363,-25.7926,-33.3157,49.4363,8.5975,-29.0169,18.2695,-38.6889,13.9707,20.4656,
7.5226,-3.2238,-216.0141,6.4481,48.3613,-27.942,-30.0918,39.7638,-6.4025,-41.9137,3.2695,-34.3906,10.7469,8.598,
11.8213,-13.9712,-218.1635,10.7469,45.137,-25.7931,-26.8675,36.5395,-6.4481,-48.3613,18.2695,-34.3906,6.4481,18.27,
-1.0749,-26.8675,-218.1635,1.0749,47.2869,-21.4943,-36.5395,47.2869,8.5519,-33.3613,33.2695,-24.7176,8.598,20.4189,
-1.6117,-24.1809,-207.9538,1.6117,53.1978,-15.5834,-43.5248,57.4966,23.5519,-18.3613,34.9273,-12.3591,18.8077,30.6286,
-3.2243,-27.9425,-211.7153,3.2243,44.0621,-26.867,-47.2864,47.2864,8.5975,-24.7181,19.9273,-26.867,13.9707,23.6437,
-2.6866,-22.0315,-212.2525,8.0598,48.8985,-19.8816,-32.2864,46.7497,2.6866,-24.1804,13.434,-24.1804,15.5829,22.0315,
-3.2238,-22.5688,-208.4915,3.2238,50.5102,-12.8968,-25.7931,46.2114,4.2983,-18.27,25.7931,-17.1956,13.9712,23.6432,
-1.0749,-27.942,-202.0428,1.0749,45.137,-22.5688,-40.7931,42.9881,13.9712,-25.7921,23.6432,-24.7176,8.598,15.0457,
-3.2238,-23.6432,-197.7441,8.598,45.137,-20.4189,-42.9881,40.8382,10.7469,-31.1663,8.6432,-32.2407,3.2238,22.5688,
-0.53773,-17.7328,-201.5056,9.1353,45.6752,-5.4189,-36.0023,40.301,-4.2531,-28.4792,10.2097,-19.8816,5.9109,37.5688,
0.53773,-27.4047,-203.655,3.7621,37.0767,-4.8365,-40.301,41.3755,-0.53773,-25.2548,25.2097,-11.2841,10.2097,42.4509,
-6.9854,-39.2266,-199.3562,6.9854,31.7035,-19.8365,-42.4509,41.3755,9.1353,-24.1804,38.1511,-18.8072,9.1353,28.4792,
-0.53722,-24.2266,-186.46,16.6578,46.7035,-4.8365,-27.4509,52.1224,-0.53722,-12.3591,25.2554,-11.2846,20.9566,40.3015,
-13.433,-22.0305,-195.057,5.9109,31.7035,8.0608,-41.3755,44.5998,-15.5372,-22.0305,26.3303,-5.9109,8.0608,33.8534,
-17.1956,-27.942,-196.6697,18.27,16.7035,-6.9392,-55.8844,47.2859,-0.53722,-20.4199,41.3303,4.2983,2.1494,30.0908,
-2.1956,-24.1809,-200.4307,20.9566,23.1065,-3.7615,-40.8844,51.0479,-3.7615,-18.8067,40.3015,-3.7615,8.0603,37.0772,
12.8044,-10.7469,-195.5947,10.7469,38.1065,-6.4481,-25.8844,46.2114,-18.7615,-23.6432,25.3015,-18.7615,6.4481,31.1663,
26.3303,-11.2841,-180.5947,14.5084,53.1065,-21.4481,-10.8844,53.1973,-6.9854,-17.7328,16.6573,-24.1814,6.9854,18.8072,
19.3455,-26.2841,-178.3991,6.4481,68.1065,-36.4481,-16.1201,45.138,-2.1494,-22.5677,20.4199,-32.2407,3.2248,3.8072,
34.3455,-25.2548,-174.6381,20.9571,83.1065,-51.4481,-13.433,52.1229,-11.2841,-13.433,23.106,-24.1804,11.2841,18.8072,
44.5998,-13.433,-167.115,27.4047,97.2604,-51.0474,-5.9109,55.3472,-2.6866,-15.5829,28.4802,-24.1804,2.6866,30.6291,
29.5998,-28.433,-170.8766,12.8968,82.2604,-64.4819,-17.1945,48.3613,2.1494,-27.942,23.6432,-39.1804,-2.1494,17.1956,
14.5998,-37.6144,-182.6984,7.5231,74.1544,-69.8546,-29.0169,44.0631,-7.5231,-37.6144,11.8219,-37.6144,12.8506,20.4194,
7.5231,-27.9414,-196.6691,4.2988,72.0055,-64.4814,-32.2402,38.6899,-4.2988,-41.9132,16.1206,-27.9414,10.7474,7.5231,
8.5975,-21.4938,-197.7441,6.4487,63.407,-50.5107,-31.1658,37.6144,4.2988,-27.9425,31.1206,-29.0169,-4.2526,7.5231,
14.5079,-11.2846,-188.6099,14.5079,63.9442,-36.0028,-29.5541,37.0762,-0.53722,-28.4797,37.0762,-16.6578,0.53722,22.5231,
8.0603,-18.8077,-192.9081,3.7615,61.7953,-38.1516,-33.8529,26.3298,2.6871,-43.4797,22.0762,-18.8077,-2.6871,19.8822,
2.6866,-32.7779,-192.9081,-0.53773,66.0936,-34.9278,-22.0315,32.7779,17.6871,-57.4961,16.6573,-28.4792,0.53773,13.434,
-0.53722,-31.704,-195.0575,0.53722,62.8698,-34.9273,-26.3298,34.9273,32.6871,-42.4961,11.2846,-33.8529,3.7615,22.031,
2.1494,-16.704,-197.7446,-2.1494,54.809,-40.8382,-34.3906,32.2407,33.3152,-39.7638,7.5226,-26.8675,2.1494,16.1201,
2.1494,-2.1494,-194.5203,-2.1494,51.5857,-46.2125,-22.5688,47.2407,48.3152,-32.2407,17.1956,-20.4189,2.1494,10.7469,
2.1494,-2.1494,-180.5485,9.6725,55.8844,-44.0626,-10.7469,56.9589,63.3152,-17.2407,23.6442,-15.0457,-3.2238,19.3455,
8.5975,-8.5975,-171.9515,11.8219,60.1837,-47.2864,-17.195,51.5851,78.3152,-13.9707,19.3449,-10.7464,-12.8963,20.4194,
18.2705,-8.5975,-166.5778,8.5975,55.8849,-53.734,-18.2695,50.5107,69.8557,-13.9707,15.0462,-8.5975,-12.8963,22.5693,
11.8213,-5.3737,-167.6533,13.9712,40.8849,-50.5112,-23.6432,45.137,66.6308,-23.6432,5.3737,-17.1956,-26.8675,21.4933,
3.2238,-1.0749,-167.6528,18.27,38.6894,-35.5112,-32.2407,38.6894,61.2576,-30.0918,1.0749,-17.1956,-37.6139,13.9712,
1.6122,0.53773,-169.2649,15.5829,34.9278,-36.0023,-40.301,37.0767,49.973,-23.106,-0.53773,-15.5829,-37.0767,3.761,
1.0749,2.1494,-175.1758,9.6725,25.7931,-51.0023,-39.7638,35.465,34.973,-22.5688,-1.0749,-26.8675,-40.8382,6.4481,
-1.0749,1.0749,-164.4284,5.3737,33.3162,-60.1832,-31.1663,36.5395,33.3162,-25.7921,4.2993,-27.942,-41.9127,8.598,
6.4481,-2.1494,-149.4284,11.8213,48.3162,-45.1832,-20.4199,50.5102,41.9127,-16.1211,19.2993,-12.942,-37.6149,2.1494,
9.1353,-9.1353,-152.0694,9.1353,43.5254,-30.1832,-24.1804,47.8241,30.6291,-15.5829,12.3586,-11.2841,-49.973,9.1353,
9.6725,1.0749,-152.6071,8.598,34.3906,-27.942,-31.1663,37.6139,15.6291,-24.7176,-1.0749,-26.2841,-52.6601,24.1353,
5.9104,4.836,-150.9949,15.5834,34.9273,-22.031,-30.6286,40.3015,0.62906,-23.1065,4.836,-16.6578,-39.2261,20.9566,
-3.2238,-10.164,-159.0552,12.8968,30.0918,-15.0457,-30.0908,44.0626,10.7469,-8.1065,4.2993,-1.6578,-39.7638,12.8968,
-3.2238,-20.4199,-145.0845,12.8958,25.7921,-19.3444,-20.4199,45.137,25.7469,6.4481,-8.598,3.2238,-39.7638,27.8968,
3.2238,-5.4199,-130.0845,13.9712,29.0164,-21.4943,-11.8213,48.3613,20.4189,-1.0749,1.0749,-9.6725,-32.2407,34.3906,
18.2238,-1.0749,-119.2914,26.8675,42.9881,-6.4943,-7.5226,55.8844,5.4189,-6.4481,16.0749,-8.597,-29.0164,25.7931,
22.5693,-16.0749,-124.6646,29.0169,34.3901,-5.3732,-19.3439,50.5107,5.3732,-13.9707,31.0749,-9.672,-42.9876,22.5693,
12.3591,-14.509,-114.4554,23.1055,19.3901,-12.3591,-30.6296,48.898,16.6578,-12.3591,24.1809,-12.3591,-45.6747,16.6578,
6.4476,-1.0744,-114.9927,27.9425,20.4194,1.0744,-31.1668,52.6596,1.6578,-8.5975,13.9707,-13.9707,-42.9876,16.1206,
1.6122,-1.6122,-116.6048,41.3755,31.7035,16.0744,-16.1668,61.7948,-13.3422,-10.2097,8.0598,-5.9109,-37.0767,31.1206,
-1.0744,-1.0744,-108.5445,38.6889,19.3449,22.5693,-9.672,64.4825,-16.1206,2.1499,1.0744,-2.1489,-46.212,46.1206,
4.836,-6.9859,-110.1567,24.1809,15.5834,14.5079,-23.1065,54.2723,-11.2846,11.2836,-4.836,-12.3591,-61.212,48.898,
19.836,-12.8968,-106.3951,25.7931,30.5834,3.2238,-12.8968,53.7345,-24.7187,2.1494,-2.1494,-11.8213,-50.5112,33.898,
33.8529,-4.836,-91.3951,33.8529,45.5834,-0.53722,2.1032,62.8698,-28.4797,-1.6117,1.6117,0.53722,-35.5112,18.898,
28.4792,10.164,-94.0361,31.7035,60.5834,1.6122,-5.9109,61.7948,-17.7328,-1.6122,4.8355,-4.8365,-36.0023,3.898,
24.7176,8.597,-108.5445,24.7176,45.5834,-2.1494,-16.1201,56.9589,-19.3444,-10.7469,2.1494,-19.3444,-48.3613,9.6725,
28.4797,-1.6117,-97.2599,32.7784,41.376,-10.2092,-8.0603,61.7953,-17.7323,4.2531,1.6117,-6.9859,-39.2261,13.4335,
25.2559,-10.2097,-82.2599,40.301,29.5546,-2.6866,-5.9109,59.646,-9.1353,19.2531,2.6866,0.53773,-42.4509,-0.53773,
25.2559,-5.9109,-72.5423,41.3755,28.4792,12.3134,-16.6573,53.1973,-15.5829,4.2531,0.53773,-9.1353,-51.0484,8.0598,
19.8822,-6.9859,-82.2137,26.3755,34.9273,6.9859,-31.6573,39.2261,-26.3298,-10.7469,8.0603,-13.4335,-62.8698,17.7323,
17.195,-20.4194,-85.9763,15.0452,35.4645,4.2988,-25.7926,40.8377,-23.6437,-13.9717,20.4194,-4.2988,-66.6313,17.195,
20.4194,-24.7181,-70.9763,30.0452,27.9425,13.9707,-13.9707,54.8095,-30.0913,-6.4476,5.4194,-3.2243,-61.2571,11.8219,
31.704,-14.5079,-55.9763,45.0452,31.704,13.4335,-3.7615,63.9442,-17.7323,-0.53722,-1.6117,0.53722,-56.4216,8.0603,
32.2412,-21.4938,-42.9876,47.2864,35.4656,-1.5665,-1.0744,64.4814,-2.7323,0,2.1499,0,-64.4819,-3.2243,
27.9414,-36.4938,-40.8388,44.0621,29.0169,6.4476,-4.2988,69.8546,0,0,0,-5.3732,-70.9301,-3.2243,
25.2554,-36.0028,-38.1516,48.8991,29.5541,21.4476,-5.9104,71.4673,-1.6117,11.2846,-1.6117,-3.7615,-75.7661,1.6117,
30.6286,-29.5541,-37.0772,51.0479,31.704,30.6286,-4.836,61.7953,1.6117,10.2092,-3.7615,-1.6117,-88.6624,-2.6871,
41.376,-25.2554,-27.4052,48.898,33.8529,32.7784,-4.836,59.6455,-5.9114,-0.53722,-2.6871,0.53722,-83.2892,5.9104,
36.54,-30.0913,-27.9425,44.0631,26.868,26.868,-12.8963,56.9594,-20.9114,5.3732,-3.2243,-1.0744,-77.3782,1.0744,
34.3906,-27.942,-34.3906,51.5857,27.942,30.0918,-5.3737,63.4065,-35.465,20.3732,-5.3737,3.2238,-81.677,-3.2238,
33.8524,-41.3765,-34.9278,51.0474,26.3293,27.4047,-6.9854,63.9437,-31.7035,12.3586,-14.5085,1.6122,-92.9616,-1.6122,
38.1516,-52.1229,-19.9278,53.1978,30.6286,22.031,-4.836,67.1685,-16.7035,3.7615,-2.6871,2.6871,-94.0361,-3.7615,
26.3303,-59.646,-26.3303,47.8241,26.3303,14.5085,-9.1353,58.5705,-15.5829,14.5085,-0.53773,0.53773,-102.6336,-17.7328,
17.7328,-57.4961,-36.0023,49.973,15.5829,22.0315,-19.8816,48.8985,-26.3303,22.0315,-12.3586,6.9854,-115.5299,-6.9854,
19.3439,-66.6313,-35.4656,53.734,0.58289,32.2402,-34.3911,53.734,-38.6899,7.0315,-18.2705,6.4476,-126.8145,7.5221,
28.4797,-66.0941,-27.4042,59.6455,6.9859,47.2402,-26.3298,67.1685,-51.0479,-7.9685,-6.9859,12.3591,-126.2768,20.9566,
19.3449,-51.0941,-31.1658,61.2581,17.195,62.2402,-18.2695,67.7058,-65.5569,-18.2695,-12.8963,12.8963,-120.3664,35.9566,
13.9712,-48.3613,-33.3152,61.2576,22.5688,77.2402,-16.1201,68.7807,-73.0795,-13.9712,-20.4189,13.9712,-112.8433,50.9566,
19.8822,-63.3613,-32.7784,54.2723,19.8822,66.0941,-13.4335,62.8698,-74.6916,-11.2846,-19.8822,11.2846,-127.3517,35.9566,
16.1206,-78.3613,-34.3901,46.2119,9.673,51.0941,-24.7181,47.8698,-72.0045,-5.3732,-24.7181,8.5975,-142.3517,20.9566,
1.1206,-93.3613,-37.6144,46.212,9.673,50.5107,-37.6144,44.0631,-60.1827,3.2243,-25.7926,4.2988,-148.3078,12.8963,
-1.6122,-108.3613,-29.5546,58.5705,23.106,54.2717,-22.6144,59.0631,-54.2717,1.6122,-14.5085,5.9109,-138.0986,22.0315,
7.5231,-123.3613,-29.0169,59.1082,17.195,51.5851,-8.5975,59.1082,-61.2576,-7.5231,-22.5682,8.5975,-144.0096,16.1206,
0,-138.3613,-34.3901,52.6606,2.195,52.6606,-23.5975,49.4363,-66.6313,7.4769,-37.5682,2.1499,-159.0096,10.7474,
-1.0749,-135.4115,-42.9881,54.81,4.2993,60.1832,-25.7921,54.81,-70.9301,18.27,-29.0164,1.0749,-174.0096,13.9712,
9.6725,-130.0383,-48.3613,58.0333,7.5226,68.7807,-25.7931,54.81,-77.3782,3.27,-14.0164,7.5226,-182.6984,21.4943,
18.27,-132.1877,-38.6894,73.0333,2.1494,83.7807,-36.5395,61.2576,-75.2289,-2.1494,-4.2993,17.1956,-173.0265,35.465,
10.7469,-147.1877,-48.3613,68.7807,-9.6725,82.7514,-47.2869,61.2576,-78.4532,9.6725,-19.2993,17.1945,-183.7734,32.2407,
9.6714,-162.1877,-51.5857,56.9589,-2.1494,81.677,-34.3906,65.5564,-65.5569,2.1494,-26.8675,19.3444,-198.7734,29.0164,
12.8963,-162.2796,-48.3618,61.2571,8.5975,87.0497,-33.3157,62.3326,-59.1082,-8.5975,-17.195,11.8208,-211.7158,27.9414,
12.3591,-162.8168,-54.2723,71.4673,8.0603,91.8867,-39.2261,59.6455,-67.1685,-2.6871,-13.4335,2.6871,-210.1032,29.5541,
10.7469,-167.6528,-52.6601,74.1539,3.2238,95.6477,-33.3152,65.5564,-72.0045,-3.2238,-25.7931,7.5226,-209.5659,32.2407,
9.672,-181.624,-47.2864,67.7058,0,96.7227,-31.1668,70.9301,-66.6313,0,-29.0169,18.2695,-209.5659,35.4645,
6.9854,-196.624,-60.7204,61.7948,-6.9854,90.8117,-41.3755,63.9447,-73.6167,15,-20.9561,24.1804,-224.5659,31.7035,
10.7469,-209.5659,-68.7807,70.9296,-10.7469,91.349,-47.2869,54.809,-79.5276,26.8675,-15.0457,21.4943,-239.5659,26.8675,
9.1347,-213.3275,-59.6455,74.6916,-9.1347,90.8122,-45.6747,53.1978,-71.4673,12.3591,-15.5834,15.5834,-254.5659,27.4052,
11.2846,-219.7756,-56.4211,73.6172,-3.7615,92.9611,-36.0028,59.6455,-76.841,3.7615,-22.031,24.1809,-250.9419,31.704,
16.6573,-230.5225,-71.4211,70.3924,-9.1353,96.1849,-37.0767,55.3472,-91.841,9.1353,-25.2559,24.1804,-254.1657,26.3303,
16.1206,-245.5225,-80.6026,72.0045,-16.1206,96.7227,-50.5107,46.2119,-83.8264,17.195,-15.0462,15.0462,-269.1657,20.4194,
12.3591,-260.5225,-75.7661,76.8405,-19.8822,88.6624,-59.6455,46.7492,-74.6916,17.7323,-12.3591,16.6578,-284.1657,20.9566,
17.7328,-265.9876,-73.6172,71.4668,-10.2097,87.5874,-49.974,51.0474,-89.6916,10.2097,-16.6583,23.106,-287.4819,23.106,
17.7323,-280.9876,-77.916,62.8698,-13.4335,90.8112,-39.2271,52.1224,-98.3348,8.0603,-8.0603,22.031,-289.6313,25.2554,
4.2988,-295.9876,-83.8264,68.7812,-28.4335,83.8264,-53.735,53.735,-88.1251,22.5693,-4.2988,22.5693,-304.6313,24.7181,
17.7323,-291.7801,-73.6167,83.7812,-17.7323,94.0356,-57.4966,63.9442,-94.0361,25.2554,-17.7323,33.8529,-314.3489,30.6286,
21.4943,-284.7948,-73.0795,76.3038,-2.7323,92.4234,-55.8844,48.9442,-109.0361,10.2554,-32.7323,20.4189,-321.3348,20.4189,
22.5682,-297.6911,-75.2288,69.8557,6.4487,82.7519,-67.7058,38.6889,-124.0361,-4.7446,-47.2864,13.9707,-336.3348,15.0462,
34.3906,-306.2886,-79.5276,79.5281,-8.5513,79.5281,-79.5276,39.7638,-117.1415,10.2554,-47.2869,16.1211,-351.3348,12.8968,
38.6894,-295.5417,-77.3782,93.4988,-6.4481,94.5281,-64.5276,41.9137,-109.6189,20.4199,-40.8382,24.7187,-356.7993,6.4481,
29.0164,-294.4673,-72.005,91.349,6.4481,98.872,-53.735,42.9881,-94.6189,27.942,-25.8382,39.7187,-350.3517,-6.4481,
26.867,-309.4673,-67.7063,92.4239,7.5231,83.872,-64.4819,54.8095,-79.6189,30.0913,-22.5693,45.1365,-363.248,-7.5231,
32.2407,-324.4673,-75.2289,97.7976,-3.2238,79.5271,-62.3326,58.0333,-76.3033,31.1663,-36.5395,40.8382,-366.4718,3.2238,
34.9273,-339.4673,-83.2892,88.6624,-5.9104,94.5271,-68.2435,43.0333,-78.9904,34.9273,-38.1516,46.7492,-367.009,5.9104,
41.9132,-354.4673,-77.3782,87.0507,0,104.2458,-77.3782,49.4363,-63.9904,38.6889,-24.7181,58.0338,-370.7705,0,
49.9735,-355.1871,-62.3782,102.0507,-1.6117,116.6048,-62.3782,64.4363,-48.9904,49.9735,-9.7181,66.0941,-375.6065,1.6117,
64.9735,-358.9487,-47.3782,117.0507,-2.1494,131.6048,-47.3782,79.4363,-33.9904,62.3331,1.0749,67.7063,-382.5919,-1.0749,
70.3924,-373.9487,-49.9735,111.2311,1.6122,124.1274,-56.4216,74.6911,-18.9904,53.1973,-11.2841,61.7948,-382.0552,-1.6122,
56.9594,-388.9487,-56.9589,101.0214,-8.5975,109.1274,-71.4216,64.4825,-23.6427,42.9876,-26.2841,60.1837,-391.1894,8.5975,
56.4216,-403.9487,-56.4216,109.0822,-14.5085,116.6043,-76.8405,66.0936,-38.6427,52.1229,-41.2841,75.1837,-406.1894,14.5085,
64.4814,-418.9487,-55.8844,118.2165,-1.0744,131.1128,-66.6313,78.4532,-39.7638,67.1229,-29.0169,90.1837,-420.2068,1.0744,
65.5564,-420.2063,-55.8839,118.217,-2.1494,122.5157,-70.9301,70.9306,-33.3157,62.3331,-25.7921,82.7514,-416.9825,2.1494,
59.1082,-435.2063,-64.4819,105.3202,-17.1494,114.9921,-85.9301,55.9306,-48.3157,47.3331,-40.7921,74.1534,-431.9825,17.1494,
59.646,-450.2063,-68.2435,101.5592,-15.5829,124.1274,-94.0361,57.4961,-63.3157,56.4216,-36.0028,89.1534,-446.9825,15.5829,
74.646,-465.2063,-65.5564,114.9932,-4.2988,130.0383,-88.1251,72.4961,-59.1082,71.4216,-21.0028,101.0214,-450.2982,4.2988,
84.9013,-480.2063,-67.7058,109.6195,-17.1956,124.6646,-99.947,69.8551,-74.1082,72.005,-30.0918,88.1246,-464.2694,17.1956,
70.9296,-495.2063,-68.7807,99.9465,-23.6432,126.8145,-110.6939,66.6308,-89.1082,61.2576,-44.0626,80.6026,-479.2694,23.6432,
55.9296,-510.2063,-73.08,105.3197,-15.0457,128.9634,-117.1425,63.4065,-97.7976,76.2576,-45.1375,85.9758,-491.1369,15.0457,
46.7492,-525.2063,-78.9904,105.8574,-15.5834,124.1279,-126.2768,53.1978,-112.7976,61.7953,-60.1375,81.1393,-497.0473,15.5834,
49.974,-540.2063,-74.6911,100.4847,-17.7328,124.1274,-132.7249,41.3755,-127.7976,49.974,-75.1375,76.841,-512.0473,17.7328,
46.2125,-555.2063,-72.0045,98.872,-19.3444,118.217,-147.7249,38.6894,-142.7976,64.4819,-72.0045,80.6026,-527.0473,19.3444,
45.1375,-570.2063,-78.4532,101.0214,-29.0169,113.9177,-161.2046,45.1375,-139.7108,66.6313,-63.4075,78.4522,-536.2739,29.0169,
43.5248,-585.2063,-84.3636,97.2599,-36.0028,126.2768,-158.518,41.376,-154.7108,55.3467,-78.4075,73.6162,-542.1848,36.0028,
33.3152,-600.2063,-85.9763,91.349,-31.1663,134.3366,-166.5783,31.1663,-169.7108,59.1077,-93.4075,70.9296,-557.1848,38.6883,
37.6144,-607.204,-81.677,101.0214,-33.3157,125.7396,-180.549,33.3157,-184.7108,60.1827,-83.8264,74.1544,-572.1848,41.9132,
52.6144,-622.204,-75.2286,110.6942,-45.1373,118.2172,-175.1756,47.2872,-198.8188,68.781,-70.9298,85.976,-570.6638,45.1373,
67.6144,-637.204,-78.9904,103.708,-48.8985,117.6798,-181.0863,52.1229,-205.8044,82.2142,-74.6911,87.5874,-579.7988,48.8985,
52.6144,-652.204,-83.2892,97.2599,-45.6747,116.6048,-196.0863,45.6747,-213.3275,75.7661,-78.9899,81.1393,-594.7988,52.1234,
52.1226,-667.204,-75.7658,112.2599,-52.1226,116.6051,-201.5054,53.1981,-215.4766,80.0651,-77.9152,90.8125,-609.7988,56.4224,
67.1226,-682.204,-67.7063,125.7396,-62.3326,121.4408,-196.6697,62.3326,-230.4766,95.0651,-85.9758,97.7971,-622.2497,63.407,
70.3934,-692.642,-65.0192,125.2029,-72.5417,136.4408,-198.2813,65.0192,-232.6719,101.5592,-81.1393,94.0361,-632.4588,75.7666,
63.9445,-707.642,-63.9445,124.1282,-87.5417,131.6502,-212.2523,63.9445,-243.4186,86.5592,-84.3633,89.737,-630.3097,71.4676,
76.3035,-722.642,-64.4817,126.8143,-102.5417,121.4411,-219.2382,64.4817,-258.4186,81.6767,-97.7974,98.8718,-645.3097,73.0792,
89.2001,-712.5242,-64.4819,127.8889,-117.5417,136.4411,-207.4166,64.4819,-273.4186,96.6767,-95.6482,111.7683,-660.3097,88.0792,
87.051,-723.2708,-64.4817,137.5617,-132.5417,151.4411,-222.4166,64.4817,-274.0476,97.7974,-92.4236,108.5448,-671.6857,103.0792,
91.8867,-735.6302,-67.1685,149.9205,-147.5417,155.2937,-237.4166,67.1685,-264.9126,92.9611,-83.2892,100.4842,-678.6713,99.4098,
102.6336,-731.3314,-65.0192,147.7711,-162.5417,160.6674,-240.195,65.0192,-269.2114,100.4837,-68.2892,102.6336,-693.6713,114.4098,
97.7971,-728.6448,-70.9301,148.3078,-177.5417,169.8016,-243.9565,62.3326,-283.7204,95.6482,-62.3326,110.6934,-701.7773,129.4098,
98.8726,-728.6443,-73.0795,152.6076,-162.5417,170.8771,-258.9565,60.1827,-281.5705,95.6482,-60.1827,120.3664,-700.7023,142.9346,
110.1564,-730.2572,-63.945,142.3966,-153.1446,173.5634,-272.436,51.0482,-266.5705,106.9321,-51.0482,112.3053,-715.7023,140.2478,
116.0671,-744.7649,-52.6601,145.084,-152.6066,175.1764,-261.1511,52.6601,-260.0767,112.8438,-54.8095,99.9475,-725.4205,135.412,
117.6795,-759.7649,-54.2725,159.5927,-148.8458,168.1902,-276.1511,54.2725,-275.0767,110.1564,-69.8095,104.7832,-717.3604,131.6502,
118.7539,-761.4225,-59.6457,161.7426,-152.0696,174.6389,-291.1511,59.6457,-290.0767,101.5589,-84.3633,112.3063,-722.7336,143.4721,
122.5155,-754.4371,-64.4817,150.458,-149.383,186.9969,-306.1511,64.4817,-305.0767,106.3949,-87.0504,101.0217,-737.7336,158.4721,
129.5009,-753.8999,-67.1683,158.5178,-135.949,189.6845,-291.1511,67.1683,-320.0767,121.3949,-76.8408,92.9619,-749.6011,168.1897,
125.2021,-756.0493,-73.6169,164.9664,-129.5009,192.9078,-288.5561,66.0939,-335.0767,125.2021,-66.0939,94.0363,-743.153,170.3396,
126.2773,-745.3021,-74.6911,167.115,-118.7537,207.9078,-299.3032,69.3179,-350.0767,116.6043,-69.3179,97.2604,-747.4515,185.3396,
133.7991,-736.7049,-68.2432,172.489,-118.7545,216.551,-304.6767,68.2432,-365.0767,125.2016,-81.14,97.2601,-762.4515,195.0572,
132.1882,-751.7049,-63.407,162.2796,-133.7545,201.551,-310.5868,63.407,-380.0767,138.6358,-82.7514,106.3956,-759.8106,181.6245,
132.7249,-766.7049,-65.0192,155.2932,-135.9493,186.551,-319.7226,65.0192,-395.0767,131.6505,-77.916,104.7825,-751.7508,189.6843,
141.3227,-767.8711,-67.1683,164.9664,-120.9493,181.087,-312.1993,67.1683,-410.0767,128.4264,-76.8408,92.9609,-766.7508,188.6091,
139.1733,-756.0493,-60.7201,164.9659,-105.9493,166.087,-298.2285,60.7201,-425.0767,139.1733,-85.4383,94.0358,-781.7508,173.6091,
150.9949,-762.4977,-55.3467,163.8912,-90.9493,151.087,-303.602,55.3467,-440.0767,144.5463,-89.7373,106.9329,-781.8421,173.5632,
162.2793,-753.3627,-58.0335,176.25,-75.9493,138.6356,-308.4382,58.0335,-455.0767,144.0098,-91.3492,112.843,-783.454,188.5632,
152.6073,-738.3627,-54.8092,183.7731,-74.1542,152.6073,-303.0645,54.8092,-470.0767,144.0098,-106.3492,111.7686,-797.4253,198.8193,
156.9058,-740.4661,-48.3613,175.1753,-72.0045,148.3083,-296.6161,48.3613,-485.0767,146.1584,-108.5445,110.6939,-795.2756,186.9972,
161.2051,-755.4661,-51.5851,165.5039,-70.9301,146.1589,-296.6161,51.5851,-500.0767,138.6358,-93.5445,103.1713,-788.8275,185.9222,
156.9056,-751.2133,-54.8097,167.653,-81.6773,150.4569,-295.5419,54.8097,-515.0767,123.6358,-91.3492,91.3487,-796.3508,190.2213,
159.5924,-736.2133,-54.2723,169.2654,-66.6773,153.1448,-284.2571,54.2723,-530.0767,113.3805,-106.3492,80.0648,-799.0372,187.5349,
166.5786,-726.4952,-61.2579,161.2044,-51.6773,155.8312,-275.1226,48.3611,-545.0767,117.1423,-109.6192,79.5279,-808.1722,183.7736,
181.5786,-713.5989,-59.108,166.5786,-47.2866,170.8312,-260.1226,47.2866,-560.0767,132.1423,-94.6192,94.5279,-802.7985,198.7736,
185.3853,-706.613,-58.5708,167.1158,-39.2263,181.0865,-245.1226,39.2263,-575.0767,143.4721,-95.1102,109.5279,-790.4394,213.7736,
185.386,-702.3145,-56.4211,169.2654,-33.8529,182.1617,-232.6714,33.8529,-590.0767,130.5755,-110.1102,108.0073,-795.8128,212.253,
194.5208,-687.3145,-44.0626,184.2654,-42.9876,197.1617,-224.6116,42.9876,-605.0767,145.5755,-95.1102,123.0073,-810.3213,227.253,
184.3106,-674.3725,-41.376,184.3106,-57.9876,202.5801,-230.5225,41.376,-620.0767,160.5755,-80.1102,138.0073,-825.3213,242.253,
170.3393,-681.8951,-40.301,184.3111,-72.9876,198.2818,-245.5225,40.301,-635.0767,170.3393,-65.1102,139.1736,-831.2779,255.2412,
167.6522,-696.8951,-44.0626,188.0716,-87.0507,188.0716,-248.2553,44.0626,-650.0767,155.3393,-55.8844,144.0096,-839.3387,247.1799,
167.1158,-709.8373,-47.8239,184.3108,-95.1102,173.0716,-238.0454,47.8239,-665.0767,152.0696,-63.9445,143.4721,-846.3238,243.4191,
169.2647,-694.8373,-46.7494,189.684,-89.737,180.0121,-232.6722,46.7494,-680.0767,167.0696,-71.4676,142.3976,-833.4275,243.4191,
184.2647,-679.8373,-40.3013,204.684,-74.737,195.0121,-233.7471,40.3013,-695.0767,175.7128,-72.5425,157.3976,-818.4275,257.3893,
193.4458,-671.6859,-38.6894,208.491,-67.7058,204.1922,-235.3585,38.6894,-710.0767,160.7128,-81.677,164.4289,-817.8444,266.5248,
189.6843,-656.6859,-39.2266,193.9831,-65.0192,219.1922,-233.7463,39.2266,-725.0767,145.7128,-77.9154,149.92,-822.6804,261.6888,
202.5808,-641.6859,-32.7782,193.9833,-50.0192,204.1922,-229.4478,32.7782,-740.0767,160.7128,-62.9154,152.0701,-813.0081,265.9878,
205.8044,-648.58,-27.4047,195.057,-48.8985,189.1922,-227.2987,27.4047,-755.0767,175.7128,-57.4966,167.0701,-804.4109,277.8089,
205.8049,-638.9075,-31.7035,196.1319,-63.8985,177.8624,-232.6719,31.7035,-770.0767,160.7128,-71.4673,167.115,-801.1865,286.407,
220.8049,-623.9075,-38.6889,211.1319,-78.8985,192.8624,-242.8816,38.6889,-785.0767,149.3833,-58.0333,160.1297,-798.4999,301.407,
235.8049,-608.9075,-34.3904,222.4625,-93.8985,207.8624,-245.0312,34.3904,-800.0767,164.3833,-59.1085,165.5031,-800.6496,307.3633,
234.8215,-593.9075,-25.2556,221.9253,-108.8985,222.8624,-247.7178,25.2556,-815.0767,157.4428,-74.1085,157.4428,-802.2617,292.3633,
248.2543,-578.9075,-26.8675,225.686,-123.8985,237.8624,-255.7784,26.8675,-830.0767,153.6815,-85.9763,151.5316,-807.098,301.9893,
256.3154,-563.9075,-30.6288,221.9253,-138.8985,252.8624,-258.4642,30.6288,-845.0767,168.6815,-70.9763,166.5316,-819.4563,316.9893,
245.5677,-548.9075,-25.2554,217.6262,-153.8985,267.8624,-260.6144,25.2554,-860.0767,160.6669,-67.1685,181.5316,-823.7553,314.3489,
242.3439,-533.9075,-18.8072,216.5513,-159.5924,282.8624,-249.867,18.8072,-875.0767,157.4431,-69.3179,186.46,-808.7553,313.274,
241.8067,-527.6764,-19.3444,222.4617,-145.084,297.8624,-241.8072,19.3444,-890.0767,172.4431,-60.1832,190.2215,-793.7553,328.274,
239.1203,-521.7657,-22.0313,227.2985,-153.1446,312.8624,-255.2409,22.0313,-905.0767,170.3391,-63.9445,200.4304,-791.5148,327.2454,
248.7923,-506.7657,-17.7325,229.4484,-157.4428,327.8624,-255.2404,17.7325,-920.0767,157.4428,-67.1683,197.2071,-799.0374,332.6186,
242.8813,-491.7657,-15.0459,239.657,-146.1587,342.8624,-251.4794,15.0459,-935.0767,157.9805,-55.8842,192.3706,-793.1265,347.6186,
227.8813,-476.7657,-17.7328,244.4938,-135.9493,357.8624,-266.4794,17.7328,-950.0767,168.1895,-46.7497,207.3706,-778.1265,362.6186,
232.1344,-464.2691,-13.971,231.06,-142.9344,372.8624,-266.5245,13.971,-965.0767,170.8773,-49.436,211.7151,-763.1265,353.5752,
242.8811,-451.3731,-6.4481,225.686,-145.084,387.8624,-251.5245,6.4481,-980.0767,162.279,-58.0338,200.9679,-748.1265,338.5752,
239.658,-436.3731,-3.2241,233.2094,-131.113,395.4889,-236.5245,3.2241,-995.0767,155.8317,-52.6598,198.8193,-733.1265,339.604,
240.1945,-425.0428,-3.7615,239.1201,-124.1274,391.7266,-235.8962,3.7615,-1010.0767,168.19,-51.0479,204.73,-719.5095,336.9172,
244.4933,-415.3703,-2.6866,239.1201,-123.053,386.3534,-225.1493,2.6866,-1025.0767,183.19,-57.4966,216.5518,-705.5388,325.0953,
229.9853,-400.3703,0,237.5074,-126.8145,382.5919,-226.7615,0,-1040.0767,188.0721,-68.7807,219.2379,-697.4785,322.4092,
216.0146,-385.3703,-6.4481,240.7327,-128.9634,397.5919,-234.2841,6.4481,-1055.0767,178.4002,-76.3033,220.3134,-684.5817,337.4092,
217.089,-370.3703,-12.8963,241.8072,-124.6646,407.31,-226.761,12.8963,-1070.0767,190.221,-72.0045,229.9853,-669.5817,351.4261,
208.4915,-378.2936,-7.5231,231.0597,-132.1877,392.31,-233.2091,7.5231,-1085.0767,200.9684,-64.4819,234.2841,-663.0879,339.6043,
198.8193,-393.2936,1.0747,219.2387,-142.9349,377.31,-247.1806,-1.0747,-1100.0767,196.6694,-58.0335,229.9851,-648.0879,325.6333,
200.9682,-385.8165,1.0747,227.8362,-138.6361,362.31,-243.9563,-1.0747,-1085.0767,210.6401,-60.1829,231.0595,-641.5944,324.5589,
209.5662,-370.8165,3.2241,240.732,-127.8887,356.7996,-238.5826,-3.2241,-1070.0767,221.388,-73.0792,232.1344,-650.1919,339.5589,
218.1632,-355.8165,11.8216,240.7325,-120.3661,356.7991,-237.5081,-11.8216,-1055.0767,206.388,-88.0792,229.9851,-642.6688,354.5589,
222.4622,-340.8165,18.27,239.6573,-112.8433,353.575,-234.2841,-18.27,-1057.5022,191.388,-103.0792,233.2096,-627.6688,339.5589,
207.4622,-332.0814,17.1953,239.6575,-114.9924,338.575,-235.3588,-17.1953,-1044.6056,192.3711,-118.0792,223.5369,-624.3988,324.5589,
192.4622,-317.0814,15.5831,245.5685,-123.0532,325.0961,-234.8216,-15.5831,-1044.0684,199.3565,-133.0792,208.5369,-624.9365,309.5589,
177.4622,-302.0814,19.3447,246.1052,-113.918,326.7082,-237.5081,-19.3447,-1037.0825,194.52,-139.7105,202.0431,-611.5025,304.139,
176.25,-287.0814,23.6434,231.1052,-105.3204,326.7077,-251.4794,-23.6434,-1022.0825,202.0426,-124.7105,210.6401,-598.6062,303.064,
174.1006,-283.7201,20.4191,231.06,-103.1705,313.8119,-257.927,-20.4191,-1007.0825,217.0426,-109.7105,213.865,-583.6062,307.3633,
185.923,-268.7201,13.971,246.06,-96.7224,315.9613,-256.8526,-13.971,-992.0825,225.6863,-97.7974,220.3131,-568.6062,315.9613,
191.2959,-253.7201,16.1206,251.4786,-92.4239,328.8574,-265.4504,-16.1206,-983.3477,213.8642,-112.7974,231.0603,-558.8427,314.8866,
185.385,-238.7201,20.9566,250.9419,-105.8574,320.7976,-280.4504,-20.9566,-978.5118,206.8788,-118.7542,226.2238,-566.9025,308.9757,
185.385,-223.7201,18.8072,256.3151,-119.8286,311.1246,-287.4814,-18.8072,-963.5118,219.7751,-120.9036,214.4019,-551.9025,318.6477,
184.8475,-211.7156,18.2697,255.7776,-116.0673,325.6333,-296.6164,-18.2697,-976.8999,217.0888,-135.9036,216.0143,-536.9025,332.0809,
178.9366,-213.3272,19.8819,248.7923,-117.6795,314.3492,-298.2285,-19.8819,-980.6609,213.3277,-129.5009,229.4484,-523.9146,325.0956,
185.385,-218.7007,20.9566,245.5687,-117.6793,299.3492,-285.332,-20.9566,-965.6609,220.8506,-114.5009,228.3737,-508.9146,315.4233,
190.2213,-203.7007,22.5685,245.0307,-103.1711,310.5876,-286.9439,-22.5685,-953.2562,220.3126,-120.3661,220.3126,-493.9146,315.9608,
180.0113,-188.7007,23.106,244.4938,-88.1711,325.5876,-290.7057,-23.106,-944.1212,216.5513,-117.6793,233.7463,-478.9146,318.6482,
185.9222,-173.7007,26.8675,252.5536,-90.2745,320.2603,-290.168,-26.8675,-929.6127,218.1635,-102.6793,247.1804,-463.9146,322.4092,
199.3568,-159.5924,34.9278,258.465,-103.708,305.2603,-295.0045,-34.9278,-941.9718,214.4019,-100.4842,247.7176,-448.9146,336.9172,
185.923,-150.4574,36.5397,243.465,-102.0961,320.2603,-301.9901,-36.5397,-946.808,208.4912,-105.3204,245.0312,-433.9146,344.9772,
170.923,-157.9803,31.1663,233.2091,-104.2452,323.4842,-298.7655,-31.1663,-931.808,211.7153,-90.3204,245.031,-418.9146,338.5293,
167.1155,-168.19,28.4797,234.8213,-118.7542,315.4233,-289.6308,-28.4797,-916.808,217.6262,-75.3204,250.9419,-403.9146,343.3658,
162.8168,-153.19,36.0023,236.9712,-126.2768,315.4233,-291.7801,-36.0023,-901.808,218.7007,-66.0941,259.5394,-388.9146,337.9926,
164.4289,-138.19,44.0626,237.5079,-123.5902,305.2137,-288.0191,-44.0626,-886.808,221.3873,-79.5276,251.4786,-387.9656,322.9926,
177.8627,-125.2021,46.7494,235.8965,-117.6795,310.0499,-273.0191,-46.7494,-871.808,214.4017,-89.737,243.4186,-376.6812,316.4985,
192.8627,-110.2021,51.5854,236.4332,-111.7681,323.4839,-264.3752,-51.5854,-886.6248,199.4017,-95.648,253.6283,-361.6812,331.4985,
207.4168,-95.2021,61.2579,245.0312,-97.7974,328.8576,-256.8526,-61.2579,-871.6248,184.4017,-80.648,261.1519,-346.6812,346.4985,
207.9538,-80.2021,61.7948,247.7181,-96.1854,322.9469,-246.6426,-74.6911,-856.6248,189.6843,-65.648,253.0913,-331.6812,336.9177,
