"AF3","AF4","F3","F4","F7","F8","FC5","FC6","O1","O2","P7","P8","T7","T8",
1.0062,77.4624,-89.5345,-29.1743,-75.4504,60.3606,-25.1503,14.084,-1.0062,6.036,21.1263,-19.1138,-2.012,63.3789,
14.5864,81.9898,-87.02,-24.6479,-77.9663,57.8448,-36.7199,13.5807,-16.0062,-8.964,14.5864,-22.6354,11.5691,73.9408,
23.6412,66.9898,-82.996,-24.6469,-73.9418,53.8217,-39.7377,17.6047,-12.5749,-14.5874,11.5691,-7.6354,7.5451,67.9053,
8.6412,51.9898,-91.5465,-38.2281,-80.4807,50.3011,-41.2463,16.0965,-6.036,-2.012,2.012,7.3646,-7.4549,74.4451,
-1.5091,36.9898,-103.1161,-32.6954,-70.924,57.8453,-26.2463,17.6052,-7.5456,1.5091,12.5754,12.5754,-4.5274,86.0133,
-1.0062,46.2771,-118.1161,-28.1676,-72.4322,45.2703,-14.084,11.0667,-18.108,-10.06,15.0908,1.0062,10.4726,77.4624,
-3.0182,56.3371,-132.7928,-35.2103,-78.4682,39.2343,-19.1143,11.0663,-17.1018,-12.072,9.0547,7.0423,3.0182,64.3851,
-1.0058,41.3371,-129.775,-37.2223,-63.4682,50.3006,-17.1018,19.1143,-11.0663,1.0058,24.0547,-7.0423,4.024,49.3851,
-2.5149,26.3371,-137.3202,-36.719,-50.803,41.7492,-19.6172,7.5456,-25.6532,2.5149,23.6417,-22.0423,5.5331,34.3851,
0.50336,30.683,-149.3922,-34.7074,-59.8577,32.6954,-19.6172,3.5206,-21.6292,-0.50336,11.5687,-20.6234,6.5389,25.6532,
-9.5571,27.6657,-164.3922,-39.7372,-60.8635,35.7137,-18.6114,10.5629,-6.6292,0.50336,23.6417,-14.5869,10.5629,18.6109,
-14.084,12.6657,-168.0036,-42.2521,-47.2824,42.2521,-12.072,17.1023,5.0303,15.5034,38.6417,-15.0903,21.1263,33.6109,
-10.5629,-2.3343,-181.5848,-56.8395,-62.2824,34.707,-25.6532,12.5754,-9.9697,16.5994,34.707,-0.090276,10.5629,48.6109,
-12.5749,-17.3343,-196.5848,-58.852,-77.2824,33.7007,-30.6834,11.5691,-7.5451,14.5864,27.6652,14.9097,7.5451,63.6109,
-25.1503,-15.0898,-209.2499,-51.3064,-67.4029,29.1743,-17.1023,7.0418,-2.012,9.0543,32.1926,2.012,22.5451,48.6109,
-16.096,-5.0298,-205.2259,-37.2223,-52.4029,35.2103,-4.024,12.072,4.024,14.0845,45.2708,-12.988,37.5451,41.2468,
-2.5149,-9.5576,-204.723,-29.6777,-39.7377,41.7492,-6.5394,24.6465,2.5149,26.6589,48.7915,-2.5149,35.7127,28.6705,
2.5149,-9.5571,-212.7706,-25.6532,-47.7852,40.7435,-11.5691,30.683,-2.5149,32.6954,39.7377,-4.5264,29.6772,13.6705,
1.5086,-1.5086,-227.7706,-27.6652,-50.8035,25.7435,-16.5994,17.6047,-10.5634,18.6114,25.6527,-11.5691,38.7315,22.6354,
-9.5571,1.5091,-242.7706,-38.7315,-57.8453,10.7435,-20.6234,2.6047,-25.5634,3.6114,10.6527,0.50336,30.683,26.6589,
-19.1138,3.0178,-257.7706,-38.2286,-58.3486,5.0303,-21.1263,1.0062,-40.5634,3.0178,-1.0062,15.5034,15.683,23.1378,
-5.0298,3.0182,-272.7706,-28.1681,-47.2824,20.0303,-24.1441,14.0845,-36.2166,18.0178,13.9938,30.5034,0.68295,38.1378,
0,-11.9818,-287.7181,-37.2218,-53.3179,14.0845,-37.2218,0,-38.2281,3.0182,19.1143,15.5034,2.0125,43.2583,
15,-3.0178,-276.6523,-23.1383,-38.3179,21.1263,-22.2218,9.0543,-23.2281,3.0178,28.1685,0.50336,17.0125,28.2583,
12.072,11.9822,-287.7181,-22.1316,-31.1863,13.0787,-7.2218,11.0663,-25.1498,-3.0182,23.1383,-14.4966,28.1681,13.2583,
-2.928,16.096,-302.7181,-29.1738,-46.1863,1.0058,-22.2218,13.0778,-34.2046,-1.0058,12.072,0.50336,13.1681,28.2583,
-7.0423,1.096,-317.7181,-24.1445,-59.3544,11.0663,-28.1685,21.1258,-27.1623,7.0423,18.1085,15.5034,25.1498,43.2583,
1.0058,-13.904,-323.9347,-33.1983,-50.3006,13.0778,-13.1685,15.0903,-29.1743,-1.0058,20.12,20.12,22.1325,39.2343,
5.5327,-0.50288,-334.4981,-36.7194,-35.3006,5.5327,-0.50288,12.5749,-28.6714,3.5211,25.6527,5.12,9.5567,24.2343,
1.5091,7.5447,-345.5643,-30.6834,-22.6354,-1.5091,-5.5331,10.5629,-29.6777,4.5264,26.6589,-5.5331,4.5264,9.2343,
-0.50336,-5.5331,-355.6239,-31.6892,-16.5994,7.5447,-4.5274,13.5812,-28.6714,0.50336,21.6292,7.5447,11.5687,24.2343,
-2.5149,3.5206,-369.7079,-41.7492,-17.6052,5.5331,-8.5514,4.5274,-38.7315,-9.5571,15.5927,2.5149,10.5629,9.2343,
12.4851,9.0538,-363.169,-27.1623,-17.1023,2.0115,-5.0298,10.0595,-30.1806,0,25.1498,-8.048,25.5629,0,
15.0903,-1.0058,-366.1873,-22.1325,-13.0778,5.0298,-6.0365,18.1085,-32.1926,-2.0125,10.1498,1.0058,31.1863,15,
19.6176,8.5514,-371.7199,-20.6234,-8.5514,13.5812,-14.5869,16.5994,-47.1926,-9.5571,-4.8502,13.5812,16.1863,20.6234,
22.1325,21.1258,-373.229,-18.1085,-13.0778,4.024,-21.1258,6.0365,-57.3424,-1.0058,1.0058,-1.4188,9.0538,11.0663,
9.5567,22.6354,-368.7022,-16.5989,-11.5691,-3.5211,-10.5634,7.5451,-42.3424,13.9942,16.0058,-12.5749,24.0538,3.5211,
0.50336,7.6354,-373.7324,-23.6412,-20.6234,-0.50336,-9.5571,9.5571,-27.3424,12.5754,31.0058,2.4251,26.6589,-7.5447,
3.0182,-7.3646,-382.2833,-25.1503,-21.1263,0,-14.084,14.0845,-18.108,18.1085,45.2708,17.4251,14.0845,0,
-0.50312,-22.3646,-375.7442,-22.6352,-6.1263,0.50312,-12.5752,21.6294,-3.108,20.6236,47.786,19.6169,29.0845,15,
-3.0182,-7.3646,-376.2473,-30.1806,-6.0365,0,-11.0663,11.0663,3.0182,5.6236,42.2526,34.6169,41.2459,30,
11.9818,-2.5154,-384.7982,-26.6594,-12.5749,-5.5327,-5.5327,3.5211,2.5154,-9.3764,27.2526,49.6169,26.2459,45,
26.9818,-6.036,-376.2468,-11.6594,-2.012,-1.0062,-1.0062,17.1023,17.5154,-11.0658,12.2526,34.6169,17.1023,51.3068,
15.5932,0.50288,-370.7142,-15.5932,-4.5269,-0.50288,-11.5691,20.6229,26.6594,-12.5749,11.5691,19.6169,27.6652,53.8217,
0.59316,12.5749,-378.7622,-29.6772,-19.5269,-13.5807,-15.5932,5.6229,38.7315,-11.5691,26.5691,24.6469,28.6709,58.8515,
-3.0178,3.0178,-377.2535,-26.1565,-25.1503,-17.1023,-4.0245,-4.0245,53.7315,3.4309,41.5691,15.0898,28.1676,48.2886,
3.5209,-11.9822,-371.7202,-20.6232,-13.5809,-16.5992,-6.5391,4.5276,68.7315,18.4309,48.7917,0.089795,43.1676,45.7735,
-7.5451,-26.9822,-386.7202,-28.6709,-28.5809,-27.6652,-21.5391,7.5451,62.8755,7.5451,41.7497,15.0898,34.7074,60.7735,
-7.0418,-11.9822,-396.3673,-20.1196,-34.2041,-18.108,-12.0716,16.0965,60.3606,-2.012,41.2463,30.0898,19.7074,75.7735,
-5.0303,2.012,-409.4451,-19.1138,-19.2041,-19.1138,-2.012,8.0485,45.3606,-11.0658,26.2463,15.0898,11.0658,82.4932,
0.50336,-0.50336,-410.9543,-15.5927,-4.2041,-19.6167,-10.5629,8.5514,30.3606,-9.5571,11.2463,15.5936,23.6417,91.0441,
5.5331,14.4966,-412.9663,-14.5869,-7.5447,-5.5331,-12.5754,19.6176,15.3606,-9.5571,-3.7537,18.6109,21.6292,89.0316,
3.5211,29.4966,-419.0028,-24.6479,-7.5451,-3.5211,-5.5336,18.6104,9.5567,-15.5932,-18.6114,3.6109,10.5624,74.0316,
1.5091,14.4966,-413.9725,-33.7012,-6.5389,-16.5994,-7.5447,11.5687,16.5994,-1.5091,-8.5514,18.6109,23.6417,63.8818,
-1.5091,-0.50336,-414.9783,-40.743,-21.5389,-21.6292,-20.6225,1.5091,25.6532,3.5216,5.5331,6.5389,27.6657,48.8818,
-0.50288,14.4966,-420.0085,-28.6709,-26.6589,-6.6292,-11.5691,16.5091,33.7017,-1.5086,20.5331,-8.4611,31.6892,33.8818,
-15.5029,10.5634,-435.0085,-42.7555,-36.7194,-4.5269,-18.6114,4.5269,18.7017,-13.5816,25.6527,6.5389,16.6892,44.767,
-3.0173,0,-432.5834,-43.2579,-21.7194,-1.0058,-10.0595,0,33.1988,1.4184,36.217,21.5389,25.1508,59.767,
4.5269,-0.50288,-435.0988,-48.7915,-11.5691,-6.5394,-11.5691,1.5086,30.6834,0.50288,43.7612,6.5389,27.6652,44.767,
-10.4731,12.5754,-448.1771,-46.7795,-16.5994,-6.5389,-17.6052,14.5869,15.6834,-14.4971,28.7612,8.5514,19.6167,48.7915,
-16.0956,13.0783,-449.6857,-43.2583,-1.5994,-2.012,-12.0716,15.0908,0.68343,-16.0956,13.7612,23.5514,23.1388,63.7915,
-19.6172,-1.9217,-454.2126,-53.8212,13.4006,-6.5394,-15.5932,4.5269,4.5269,-4.5269,23.6412,36.719,29.6777,69.9178,
-34.6172,-16.9217,-456.2251,-59.8577,3.5211,-17.6056,-17.6056,3.5211,5.5327,-3.5211,27.6652,51.719,38.7315,82.9956,
-47.2824,-31.9217,-449.6862,-55.3309,-1.0058,-24.1445,-5.0298,7.0423,7.0423,1.0058,32.1921,55.3304,53.7315,73.4389,
-39.2343,-46.9217,-445.6617,-58.3486,13.9942,-38.2286,-4.024,4.024,7.0423,7.0423,35.2103,40.3304,68.7315,58.4389,
-30.683,-61.9217,-445.1583,-67.9053,10.5629,-53.2286,-9.5571,-1.5091,1.5091,4.5274,20.2103,25.3304,59.8577,43.4389,
-31.6897,-76.9217,-445.1588,-66.9,2.5144,-62.876,-0.50288,0.50288,-0.50288,3.5211,14.5864,40.3304,60.863,58.4389,
-41.2468,-91.9217,-447.6742,-67.4029,3.0178,-60.3611,-5.0303,-2.012,2.012,7.0418,29.5864,35.2098,69.4144,48.2876,
-56.2468,-106.9217,-454.2131,-76.9595,3.5206,-69.9178,-20.0303,-2.5149,3.5206,2.5149,44.5864,20.2098,68.9115,33.2876,
-62.8755,-121.9217,-456.2251,-78.9715,1.5086,-76.9595,-17.6052,7.5451,7.5451,-1.5086,59.5864,35.2098,68.912,44.767,
-49.7972,-135.3082,-445.1588,-63.9715,-8.5509,-69.9173,-12.5749,11.5691,12.5749,8.5509,59.8573,50.2098,70.9235,48.792,
-37.7254,-143.3559,-436.1048,-50.8032,-9.5569,-61.8695,-8.5511,8.5511,18.6116,23.5509,68.9113,40.7432,70.9238,33.792,
-46.2764,-149.8953,-448.6797,-61.3666,-1.006,-75.4507,2.0118,1.006,14.0843,32.1918,55.3301,25.7432,59.3541,18.792,
-54.8275,-135.3082,-463.6797,-67.9058,1.5091,-90.4507,1.5091,-8.5514,-0.91573,29.6772,40.3301,18.6109,44.3541,3.792,
-39.8275,-120.3082,-448.6797,-52.9058,7.5451,-81.9893,6.5394,-0.50288,0.50288,27.6652,25.3301,33.6109,47.7852,13.5816,
-27.6657,-126.2544,-437.1108,-37.9058,6.5389,-74.948,7.5447,4.5264,-1.5091,12.6652,10.3301,18.6109,55.8328,-1.4184,
-23.1378,-120.7208,-444.6555,-34.2041,7.0427,-68.4082,-2.012,7.0427,-7.0418,2.012,19.1148,4.0245,68.4086,13.5816,
-22.1321,-125.751,-441.6377,-40.2401,3.0182,-65.3904,-6.036,6.0365,-3.0182,17.012,24.1441,19.0245,83.4086,28.5816,
-35.2103,-140.751,-448.6799,-50.3006,0,-75.4504,-5.0303,0,5.0298,18.1085,28.1681,22.1325,77.4629,13.5816,
-31.1861,-151.9068,-460.7517,-41.2461,15,-81.4867,-5.03,1.006,19.1145,21.126,43.1681,14.0848,62.4629,-1.006,
-29.1743,-136.9068,-473.8302,-50.3006,8.048,-95.5709,-14.0845,-8.048,9.0538,13.0778,55.3304,25.1498,57.3419,10.0595,
-37.7254,-146.3742,-472.3209,-65.3006,-6.952,-92.0501,0.91549,-3.5214,13.5809,20.6232,62.8757,19.6174,70.9238,3.5214,
-41.2461,-161.3742,-468.7998,-56.3364,3.018,-85.5107,14.0843,8.0483,28.5809,35.2101,73.4387,4.6174,85.9238,-11.4786,
-30.6832,-146.3742,-475.3391,-41.3364,5.5329,-93.0558,-0.91573,7.5449,33.7014,31.689,75.954,5.5329,89.0318,-20.6232,
-25.6529,-139.3319,-482.3809,-35.7134,-2.5151,-82.9958,2.5151,10.5636,26.6597,26.6597,63.8815,20.5329,74.0318,-5.6232,
-36.2161,-150.9013,-497.3809,-47.2824,-5.0298,-67.9958,11.0663,3.0182,11.6597,12.072,48.8815,18.1085,59.0318,-3.0182,
-29.6772,-144.3619,-512.3809,-50.803,0.50288,-68.9115,-0.50288,-3.5211,0.50288,0.50288,33.8815,24.6479,44.0318,2.5154,
-22.1321,-151.9071,-524.1304,-56.3366,3.0178,-83.9115,-3.0178,-3.0178,6.036,6.036,48.8815,39.6479,49.2944,17.5154,
-24.6472,-166.9071,-519.6032,-54.8273,-7.5449,-95.0678,-3.5209,3.5209,21.036,21.036,63.8815,24.6479,64.2944,9.5569,
-14.084,-174.0396,-509.0401,-39.8273,-6.036,-80.0678,2.012,18.5209,36.036,36.036,78.8815,25.1503,79.2944,-2.012,
-16.0963,-163.9794,-524.0401,-34.2043,-8.0483,-66.3969,-1.006,16.0958,50.3004,51.036,93.8815,39.2341,85.5107,1.006,
-26.6589,-160.4585,-539.0401,-49.2043,-7.5451,-79.9778,-4.5269,4.5269,35.3004,36.036,87.02,40.7435,70.5107,4.5269,
-21.1268,-165.9921,-546.2629,-43.2588,2.012,-76.4571,-4.0245,13.0773,20.3004,21.036,82.4922,38.2281,72.4317,-2.012,
-16.096,-156.9373,-554.3104,-36.2161,6.036,-76.4567,-2.012,8.0485,5.3004,7.0418,74.4451,23.2281,66.3971,-17.012,
-3.5211,-141.9373,-567.8916,-30.683,18.6114,-62.8755,11.5691,3.5211,-0.50288,4.5269,72.936,8.2281,62.8755,-6.5384,
-10.0605,-126.9373,-570.407,-26.1565,12.072,-59.3549,0,0,-8.048,8.048,57.936,23.2281,58.3486,8.4616,
-25.0605,-123.739,-559.3407,-25.1503,3.0178,-67.4024,-3.0178,4.0245,-3.0178,22.1321,42.936,38.2281,49.2944,23.4616,
-38.7315,-128.2659,-561.8556,-31.6892,-2.5154,-74.9475,-1.5086,1.5086,11.5691,28.671,39.7372,23.2281,38.7315,8.5509,
-33.1988,-126.7577,-573.4252,-31.1868,-2.012,-72.4331,-8.0485,2.012,20.1196,37.2223,46.2761,22.1321,43.2579,16.0956,
-32.1921,-141.7577,-579.4607,-41.2463,-7.0423,-69.4144,-10.06,7.0423,19.1143,52.2223,56.3361,37.1321,58.2579,31.0956,
-27.1621,-153.9193,-567.3885,-44.2643,-14.0838,-66.3964,-5.03,12.0723,25.1501,64.3844,71.3361,44.2643,72.4324,16.0956,
-24.1443,-163.9794,-573.425,-44.2643,0.91621,-77.4627,4.0238,12.0718,30.1803,55.3301,86.3361,29.2643,77.4627,1.0956,
-20.6234,-174.5425,-580.9699,-47.7857,15.9162,-85.0076,19.0238,17.6052,32.695,55.8333,101.3361,14.2643,85.008,-13.9044,
-20.6232,-180.5787,-577.9519,-54.8277,12.5752,-86.0136,25.6529,8.5511,20.6232,44.7677,102.1096,-0.73566,75.954,-28.9044,
-13.078,-165.5787,-583.485,-46.2763,2.0122,-79.4747,15.09,1.006,9.054,29.7677,90.5414,-1.006,65.3906,-43.9044,
-19.6172,-150.5787,-598.485,-33.7012,8.5509,-79.9778,3.5211,2.5154,-2.5154,23.6412,75.5414,13.5807,50.3906,-28.9044,
-32.6954,-135.5787,-613.485,-28.6714,2.5154,-75.9538,-2.5154,3.5211,-10.5634,29.6777,60.5414,28.5807,36.719,-13.9044,
-24.1445,-124.7457,-607.6298,-20.1205,-4.0245,-62.3731,2.012,16.0956,-2.012,44.6777,49.2944,43.5807,49.2944,1.0956,
-19.114,-139.7457,-604.6108,-24.1438,-7.042,-64.3844,-1.006,23.1385,1.006,46.2768,34.2944,35.2106,45.2711,16.0956,
-12.072,-139.8351,-601.5928,-24.1441,1.0062,-62.3721,0,20.12,0,39.2343,32.1921,20.2106,30.2711,1.0956,
1.5089,-134.3022,-599.0781,-24.6472,-1.5089,-71.9295,-2.5151,5.12,-3.5209,28.6712,32.6952,25.6529,30.6837,3.5209,
4.5269,-137.3202,-603.1019,-26.6589,-2.5149,-79.9778,0.50288,0.50288,-0.50288,32.695,41.7497,10.6529,45.6837,-11.4791,
-7.042,-133.7993,-607.629,-25.1501,11.066,-76.4564,15.5029,11.066,7.042,45.2706,56.7497,-4.3471,60.6837,-26.4791,
-20.6234,-142.3504,-619.1984,-35.7132,17.6052,-78.9715,14.5869,2.5149,3.5211,39.7377,66.9,-2.5149,53.8212,-41.4791,
-31.1861,-149.8953,-634.1984,-41.2461,15.0905,-77.4627,4.0242,-1.006,1.006,29.1741,67.4026,12.4851,62.3729,-41.2461,
-24.1441,-147.8831,-637.8094,-30.1801,7.0418,-77.4629,0,4.024,0,33.1978,72.4322,27.4851,59.3544,-33.1983,
-9.1441,-141.3442,-624.2282,-20.6229,-1.5091,-75.9538,1.5091,8.5509,10.5629,48.1978,78.9715,42.4851,44.3544,-18.1983,
-24.1441,-143.3562,-625.2344,-31.6892,-1.5091,-73.9418,-3.5211,4.5269,5.5331,52.816,63.9715,38.7315,34.7074,-3.1983,
-38.2281,-137.823,-630.7671,-30.1801,13.4909,-71.4264,2.012,6.036,-2.012,37.816,69.4144,23.7315,49.7074,-15.0898,
-32.695,-142.3499,-641.3305,-25.6532,24.6474,-81.9898,6.5389,-1.5091,1.5091,36.7194,84.4144,8.7315,56.8395,-30.0898,
-23.1381,-143.8593,-642.8394,-23.1381,9.6474,-75.4507,7.042,1.006,13.078,50.3004,90.5405,18.1083,62.3724,-26.1563,
-20.1203,-139.8353,-647.8696,-27.1621,-1.006,-67.4026,-4.0242,7.042,6.0358,50.3004,87.5232,33.1083,59.3541,-11.1563,
-12.0718,-132.793,-649.8811,-26.1558,13.994,-63.3782,-5.03,8.0483,-1.006,47.2826,92.5534,48.1083,61.3671,1.006,
-18.108,-123.739,-650.8872,-24.1441,28.994,-68.4082,4.024,4.024,-4.024,39.2343,81.4869,33.1083,56.3371,-8.048,
-21.6294,-117.1999,-650.3845,-20.6232,17.6054,-70.9238,5.5334,5.5334,-8.5511,35.713,74.9473,40.7437,42.7552,-5.5334,
-6.6294,-107.6427,-640.8274,-11.066,17.1025,-66.3964,-1.006,5.0305,-4.0242,39.2341,89.5347,49.2946,44.2648,1.006,
-3.018,-95.5707,-636.8034,-5.03,5.03,-65.3902,-5.03,-1.006,8.0487,28.1688,85.5107,34.2946,49.2946,1.006,
-16.096,-102.6127,-641.8334,-13.0778,-2.012,-67.4024,2.012,6.036,23.0487,23.1388,70.5107,25.1503,40.2406,-8.048,
-23.6412,-117.6127,-656.4203,-23.6412,-0.50288,-81.9898,0.50288,2.5149,28.6714,22.6349,55.8337,17.6052,25.2406,-23.048,
-26.6589,-132.6127,-659.4385,-12.5749,2.5149,-82.9956,1.5091,-1.5091,43.6714,18.6114,64.888,14.5874,29.6777,-15.5932,
-31.1863,-129.775,-653.9054,-11.0658,-4.024,-82.4927,0,0,58.6714,11.0663,72.4331,29.5874,35.2103,-0.59316,
-18.1083,-114.775,-653.9056,-17.102,1.006,-81.4867,-5.03,-1.006,69.4142,11.0665,62.3729,30.1798,34.2038,14.4068,
-16.096,-129.775,-663.9659,-24.1441,2.012,-87.5229,-4.024,-2.012,77.4629,20.12,56.3361,15.1798,36.2161,24.1441,
-31.096,-144.775,-670.0017,-31.1866,-10.0603,-102.5229,1.006,-1.006,88.5285,25.1501,61.3661,17.102,34.2038,34.2038,
-46.096,-148.8896,-666.9839,-27.1621,-16.0963,-110.661,-1.006,1.006,89.5352,25.1501,62.3729,32.102,29.1741,49.2038,
-31.096,-133.8896,-663.4623,-12.1621,-11.5689,-95.661,-14.5872,7.5449,91.0443,32.6957,61.8695,47.102,26.6592,64.2038,
-16.096,-118.8896,-678.4623,-15.0898,-25.1503,-80.661,-27.1623,-7.0418,76.0443,17.6957,46.8695,32.102,11.6592,57.3424,
-1.096,-103.8896,-668.4928,-2.5154,-10.1503,-76.9595,-12.1623,0.50288,66.8995,4.5269,41.7497,17.102,14.5874,42.3424,
13.904,-88.8896,-677.5466,-8.5509,3.5211,-81.9893,-20.6229,-11.5691,51.8995,-3.5211,26.7497,2.102,7.5451,27.3424,
28.904,-73.8896,-674.5283,-8.5504,5.5331,-71.9293,-35.6229,-16.5984,38.7319,-5.5331,24.6474,-12.898,9.5571,25.6532,
43.904,-58.8896,-668.9952,2.012,12.0725,-77.4624,-20.6229,-22.1321,27.1628,-19.1138,17.1023,-27.1618,-2.012,35.2108,
58.904,-43.8896,-662.9592,10.06,27.0725,-79.4744,-5.6229,-18.108,15.0908,-22.1321,5.0303,-18.108,-17.012,33.1983,
73.904,-28.8896,-661.4505,8.5509,39.7372,-65.8933,-20.6229,-11.5691,17.6056,-7.1321,6.5394,-11.5691,-15.5932,27.6652,
88.904,-13.8896,-662.9597,10.0605,43.2583,-63.3784,-21.1258,-26.1565,13.0778,-10.0605,10.0605,-26.5691,-14.0845,12.6652,
103.904,1.1104,-654.4088,12.5749,58.2583,-76.9595,-6.1258,-32.695,6.5394,-15.5932,6.5394,-41.5691,-24.6469,-2.3348,
109.6545,16.1104,-645.8574,12.0725,73.2583,-70.4206,8.8742,-17.695,17.1023,-1.0062,1.0062,-31.1863,-27.1618,-9.0543,
104.6247,31.1104,-644.8516,19.1138,88.2583,-55.4206,3.0178,-3.0178,23.1378,-4.0245,3.0178,-39.2343,-22.1321,-13.0783,
116.1944,46.1104,-636.3002,34.1138,86.0138,-44.7675,0.50288,-6.5394,14.5874,-7.5451,17.6056,-41.7492,-7.1321,-0.50288,
124.2419,61.1104,-637.3065,26.6589,73.9413,-58.8515,1.5091,-5.5331,-0.41261,-10.5629,7.5447,-26.7492,-6.5389,14.4971,
115.1886,76.1104,-636.3002,17.6056,66.8995,-57.8453,0.50288,-4.5269,-0.50288,-7.5451,2.5154,-11.7492,-11.5691,20.6239,
104.1223,91.1104,-628.2522,25.6537,70.9235,-53.8212,-0.50288,-6.5394,8.5509,-0.50288,17.5154,-26.7492,0.50288,5.6239,
102.6127,90.5407,-622.7196,28.1681,63.3784,-66.3971,-2.0125,-9.0547,5.0298,0,27.1623,-41.7492,0,-9.0547,
87.6127,77.4629,-624.7311,14.0845,56.3371,-74.4447,-5.0298,-10.0595,1.0058,-1.0058,12.1623,-26.7492,-11.0663,5.9453,
76.9595,92.4629,-617.1864,1.5091,50.803,-75.9538,-8.5514,-7.5456,11.5687,6.5389,-1.5091,-11.7492,-2.5149,2.5149,
79.9778,107.4629,-617.186,-2.5149,40.7435,-89.0316,-11.5687,-11.5687,6.5389,4.5274,6.5389,-26.7492,2.5149,-12.4851,
77.4629,103.6194,-616.6831,11.0663,55.3304,-84.5047,-1.0058,-11.0663,-1.0058,1.0058,15.0903,-41.7492,4.024,-27.4851,
79.4744,98.5887,-607.6293,23.1383,63.3784,-73.4389,0,-9.0547,0,-3.0182,22.1316,-26.7492,12.072,-13.0787,
89.5345,110.6612,-601.5933,25.1503,51.3068,-67.4024,-7.0418,-5.0303,-3.0178,-3.0178,26.1561,-11.7492,16.0965,1.9213,
93.0561,124.2424,-593.0419,33.7017,56.84,-58.8515,-0.50288,-1.5086,-16.5989,-0.50288,12.5749,-16.5989,5.5327,0.50288,
91.0436,130.2779,-580.9699,34.7074,62.8755,-51.8092,2.5154,-0.50288,-14.5864,1.5096,0.50288,-31.5989,-1.5086,-14.4971,
80.984,121.2241,-579.9641,26.6594,53.8217,-57.8453,-4.5269,-0.50288,-3.5211,0.50288,2.5154,-28.6714,5.5327,-29.4971,
76.9591,108.1454,-577.9521,34.7074,57.8457,-67.9058,5.5327,0.50288,-1.5096,-2.5154,-0.50288,-13.6714,11.5691,-22.6354,
91.9591,115.1876,-564.8738,42.7555,68.912,-59.8577,12.5749,0.50288,-3.5211,-0.50288,-3.5211,-28.6714,4.5269,-22.6354,
105.1276,130.1876,-552.8018,35.7137,65.8933,-52.8155,-2.4251,-2.5149,-9.5571,2.5149,8.5514,-43.6714,10.5629,-37.6354,
92.5532,127.7635,-556.3224,25.1508,61.3669,-67.8155,1.0058,-5.0298,-20.12,-1.0058,20.12,-32.1921,25.5629,-37.2223,
78.4682,112.7635,-560.3469,17.1023,56.3366,-75.4509,10.06,-10.06,-20.1205,-15.0898,13.0783,-28.1685,16.0965,-49.2944,
88.5282,97.7635,-545.3469,30.1806,56.3361,-60.4509,2.0115,-1.0058,-5.1205,-10.0605,18.1085,-43.1685,1.0965,-61.3664,
86.0133,112.7635,-530.3469,37.7252,54.828,-45.4509,-8.5514,0.50336,-1.5091,-0.50336,23.6417,-45.7732,6.5389,-46.3664,
87.0196,127.7635,-530.6693,30.6834,58.8515,-38.7315,-0.50288,-3.5211,-4.5269,0.50288,18.6114,-30.7732,19.6172,-31.3664,
95.0681,133.2966,-522.6212,33.7012,56.8395,-39.7372,-3.5206,1.5091,-2.5149,-1.5091,13.5812,-15.7732,25.6532,-32.6954,
84.5047,118.2966,-524.1304,35.2108,43.2588,-31.1863,-12.0716,1.0062,-3.0178,-1.0062,18.108,-27.1618,20.1205,-36.2161,
72.9355,103.2966,-528.6577,25.6532,32.6954,-37.7257,-9.5571,-9.5571,-1.5091,1.5091,21.6292,-20.6234,5.1205,-45.7737,
79.4749,88.2966,-520.1064,34.2041,39.2348,-44.2641,-11.0658,-9.0543,-3.0178,2.012,19.1148,-5.6234,-2.012,-30.7737,
64.4749,100.6002,-535.1064,28.1681,34.2046,-57.3429,-26.0658,-18.1085,-18.0178,-12.988,4.1148,9.3766,1.0058,-15.7737,
49.4749,92.5527,-530.1664,20.1205,46.2771,-42.3429,-11.0658,-11.0658,-20.1196,-17.1023,11.0667,9.0543,16.0058,-10.06,
62.3721,77.5527,-515.1664,16.0956,48.2886,-34.2046,3.0178,-4.0245,-5.1196,-5.0303,26.0667,-5.9457,13.0783,-25.06,
77.3721,82.4932,-500.1664,29.1743,39.2348,-48.2881,-1.0062,-3.0178,1.0062,-3.0178,28.1685,-20.9457,6.036,-40.06,
92.3721,79.4744,-493.9503,37.2228,39.2343,-46.2761,-2.0115,0,0,-2.0115,22.1325,-34.2041,9.0538,-55.06,
85.008,64.4744,-496.4652,24.6479,40.7439,-44.767,-3.5211,0.50288,-3.5211,-0.50288,20.6229,-37.7252,10.5634,-57.8453,
89.0316,55.8328,-501.4954,18.6109,35.7127,-46.7795,-5.5331,-1.5091,6.5389,-1.5091,25.6532,-50.8035,1.5091,-68.912,
92.0498,52.8155,-506.5257,26.6589,36.7194,-38.7315,-2.5149,-1.5091,21.5389,1.5091,40.6532,-36.7194,-4.5274,-78.972,
77.9658,51.8092,-508.5372,29.6777,29.6777,-43.7612,-8.5509,-9.5567,9.5567,-3.5211,45.7737,-28.6714,3.5211,-78.9715,
90.0378,65.8938,-497.4714,42.7555,27.6652,-36.7194,-0.50288,0.50288,-1.5086,-1.5086,39.7372,-13.6714,18.5211,-63.9715,
75.0378,50.8938,-511.0526,33.1978,21.1258,-41.2468,-8.048,0,-6.0365,-6.0365,24.7372,0,3.5211,-58.3486,
60.0378,35.8938,-510.0463,34.2046,29.1738,-44.2646,-10.0605,-1.0058,1.0058,4.024,25.1498,-14.0845,-11.4789,-73.3486,
65.8942,50.8938,-504.5132,40.7435,25.6532,-41.7492,-11.5687,-1.5091,-13.9942,3.5216,16.5994,0.91549,-4.5264,-58.3486,
79.4744,65.8938,-503.0041,40.2401,14.0845,-30.1801,-8.048,1.0058,-28.1681,-1.0058,11.0663,15.9155,-3.0182,-43.3486,
67.4024,50.8938,-500.9921,34.2046,22.1325,-31.1863,-1.0058,1.0058,-13.1681,7.0423,26.0663,0.91549,-14.0836,-58.3486,
52.4024,35.8938,-503.5074,21.6292,35.7137,-45.7732,-10.5629,-0.50336,0.50336,7.5447,37.7252,-14.0845,-7.5447,-73.3486,
45.7728,20.8938,-497.4714,22.6354,23.6412,-46.7795,-24.6474,1.5086,-14.4966,-0.50288,27.6652,-29.0845,0.50288,-88.3486,
53.3188,19.1143,-484.896,32.1921,8.6412,-37.2223,-23.1383,5.0298,-11.0663,3.0182,35.2103,-38.2281,-3.0182,-86.5167,
50.3006,4.1143,-486.908,23.1383,4.024,-49.2944,-28.1681,0,1.0058,9.0538,35.2103,-38.2281,-11.0663,-93.5585,
55.3299,7.0418,-476.848,34.2041,19.024,-46.2766,-20.1205,2.012,-8.0485,9.0543,29.1743,-23.2281,-2.012,-81.4869,
53.3188,16.096,-467.7938,43.2583,21.1268,-38.2281,-12.072,-3.0182,-23.0485,5.0298,24.1441,-27.1623,3.0182,-70.4206,
50.804,20.6234,-456.2246,43.7617,6.1268,-30.683,-11.5687,7.5456,-8.0485,20.0298,38.7319,-13.5812,-2.5149,-59.8573,
35.804,5.6234,-470.812,28.7617,-2.012,-38.2281,-24.1441,4.0245,6.9515,23.1378,26.1561,-4.0235,-17.5149,-74.4447,
32.1921,1.0058,-469.8062,27.1623,12.988,-29.1743,-9.1441,8.048,-8.0485,23.1383,13.0778,-19.0235,-15.0903,-89.4447,
41.7492,16.0058,-457.2308,26.6599,27.988,-25.6532,1.5091,13.5812,-23.0485,20.6234,-1.5091,-13.5812,-15.5932,-79.9773,
39.2348,27.1628,-456.728,22.1321,24.1445,-29.1743,-13.4909,8.0485,-38.0485,6.036,-6.036,1.4188,-18.108,-64.9773,
47.7857,12.1628,-451.1948,30.6839,31.6897,-19.6172,-26.6589,5.5331,-23.0485,2.5149,8.964,6.5389,-5.5331,-67.9053,
43.7617,-2.8372,-451.1948,27.6647,40.7435,-22.6354,-16.5994,5.5331,-8.0485,12.5754,23.964,-8.4611,-9.5571,-82.9053,
41.7492,1.5091,-448.1771,19.6167,26.6589,-26.6594,-15.5936,11.5687,-1.5091,15.5927,38.731,-23.4611,-8.5514,-97.9053,
36.719,-13.4909,-451.1948,9.5567,11.6589,-29.6772,-22.6354,3.5211,-0.50288,2.5154,41.7497,-35.7132,1.5086,-106.1339,
28.1685,-20.1205,-449.6862,22.1321,7.0418,-21.1263,-28.1685,1.0062,-1.0062,17.5154,41.2463,-31.1863,6.036,-117.703,
36.2166,-5.1205,-445.6617,35.2098,19.1138,-7.0418,-27.1623,12.0716,-16.0062,31.1858,26.2463,-16.1863,2.012,-102.703,
43.7607,-5.5331,-454.2131,20.2098,14.5869,-13.5812,-20.6234,7.5447,-31.0062,16.1858,11.2463,-1.1863,-1.5091,-87.703,
37.7252,6.5389,-450.1886,17.6052,16.5994,-14.5869,-21.6292,-2.5149,-19.6167,12.5754,26.2463,-13.5812,2.5149,-85.0076,
30.1806,8.048,-435.1886,29.1738,12.072,-10.0605,-35.2103,-7.0423,-4.6167,27.5754,41.2463,-25.1503,-1.0058,-99.595,
34.7074,-2.5154,-423.0268,29.6777,6.5394,-8.5509,-27.6652,5.5327,2.5154,32.695,51.8092,-14.5874,-6.5394,-91.0436,
31.1868,-5.0303,-419.5056,29.1743,5.0303,-14.084,-24.1441,7.0418,-12.4846,22.1321,41.2463,0.41261,-10.06,-81.4864,
26.6589,-16.5994,-416.9908,36.7194,9.5571,-11.5687,-29.6772,3.5206,-27.4846,24.6474,40.7435,0.50336,-0.50336,-92.0498,
25.1498,-31.5994,-415.4816,34.2046,16.096,-8.048,-22.1321,8.048,-21.1263,38.2286,46.2766,-14.4966,9.0538,-107.0498,
22.1321,-24.1441,-414.4754,27.1628,11.0658,-7.0418,-20.12,8.0485,-18.108,37.2223,37.2223,-1.0062,1.0062,-95.5709,
20.6229,-9.1441,-413.9725,26.6594,0.50288,-8.5509,-24.6469,4.5269,-7.5451,27.6652,34.7074,13.9938,-0.50288,-87.0196,
11.0663,-22.1321,-410.4509,24.145,0,-14.0836,-24.1441,0,5.0307,26.1565,37.2228,-1.0062,4.024,-102.0196,
12.072,-37.1321,-404.4154,27.1623,10.0605,-3.0182,-23.1383,3.0182,-9.9693,22.1325,34.2046,-16.0062,12.072,-117.0196,
15.5927,-22.1321,-409.9485,24.6474,1.5091,3.5206,-33.7012,0.50336,-24.9693,7.1325,24.6474,-31.0062,6.5389,-121.2241,
15.0903,-7.1321,-407.4331,29.1748,-9.0538,1.0058,-33.1983,3.0182,-9.9693,-6.0355,32.1921,-38.2281,0,-116.6968,
16.0956,-6.036,-396.3673,40.2406,-1.0062,1.0062,-26.1565,13.0783,5.0307,-1.0062,37.2223,-41.2463,4.0235,-118.7092,
28.1681,-2.0115,-391.3371,38.2286,3.0182,-1.0058,-30.1801,15.0903,20.0307,-5.0298,24.1441,-26.2463,1.0058,-103.7092,
36.7194,1.5091,-393.8525,37.7252,-2.5149,-2.5149,-30.6834,18.6109,35.0307,1.5091,33.7012,-22.6349,-1.5091,-88.7092,
21.7194,-8.5504,-390.8342,40.7435,-3.5206,2.5149,-24.6469,25.6532,50.0307,16.5091,48.7012,-17.6052,-2.5149,-73.7092,
8.048,0,-382.2828,33.1988,-1.0058,0,-30.1801,26.1565,61.3669,24.145,44.2651,-2.6052,-6.0355,-65.3904,
10.5634,-10.5624,-390.8342,23.6412,-5.5327,-4.5269,-34.707,22.6354,68.912,15.5932,34.7074,4.5269,-5.5327,-50.803,
16.5994,-25.5624,-403.912,27.6657,-6.5389,5.5331,-24.6469,23.6417,73.9423,1.5091,36.7194,-10.4731,-1.5091,-50.803,
8.048,-12.072,-400.3914,28.1681,0,8.048,-23.1383,22.1325,63.3784,-9.0538,34.2046,-25.4731,0,-65.803,
0.50336,-4.5274,-399.8885,21.6292,-0.50336,6.5389,-29.6772,25.6532,65.8933,-7.5447,44.7675,-40.4731,4.5274,-80.803,
-2.5149,-19.5274,-407.9365,13.5812,-15.5034,17.6052,-40.7435,25.6532,62.875,2.5149,49.7972,-35.7137,8.5504,-73.9418,
-7.5451,-24.6469,-410.9547,16.5989,-24.6469,19.6172,-38.7315,22.6354,53.8217,7.5451,34.7972,-40.7435,23.5504,-63.8818,
-0.50336,-12.5754,-414.9783,23.6417,-12.5754,4.6172,-25.6532,24.6474,65.8933,9.5571,33.7012,-42.7555,37.7252,-78.8818,
-1.0058,-19.1143,-425.5417,20.12,-27.5754,1.0058,-40.6532,25.1498,80.8933,13.0778,38.2286,-44.2646,22.7252,-93.8818,
2.012,-4.1143,-422.5239,31.1858,-42.5754,16.0058,-55.6532,38.2281,79.4749,28.0778,33.1983,-29.2646,7.7252,-78.8818,
-2.5149,2.5149,-437.5239,19.6167,-27.5754,21.6292,-46.7795,23.2281,64.4749,31.6887,18.1983,-14.5869,-7.2748,-63.8818,
10.0605,12.072,-452.5239,10.0605,-12.5754,6.6292,-31.7795,11.0663,49.4749,16.6887,3.1983,-27.1623,-12.072,-78.8818,
11.0663,21.1258,-453.7097,15.0903,2.4246,17.1018,-24.1441,10.0605,34.4749,1.6887,4.024,-12.1623,-23.1383,-63.8818,
-1.5091,6.1258,-459.2429,7.5456,-4.5264,4.5274,-39.1441,1.5091,19.4749,-5.5331,6.5389,2.8377,-33.7012,-52.8155,
3.0173,0,-451.6982,4.024,7.0413,-10.4726,-48.2891,2.0115,14.0836,0,21.5389,-12.1623,-23.1383,-67.8155,
11.0658,11.0658,-440.6319,10.06,22.0413,-7.0427,-36.2166,5.0303,14.084,-9.0543,25.1503,-27.1623,-8.1383,-82.8155,
21.6292,12.5744,-444.1531,10.5629,19.6167,-9.5571,-51.2166,-1.5091,1.5091,-15.5936,10.1503,-42.1623,6.8617,-97.8155,
34.2041,12.0725,-434.5954,6.036,4.6167,-23.1378,-58.3486,-12.0725,13.0783,-1.0062,11.0658,-48.2886,1.0062,-112.8155,
25.6537,9.5576,-428.0565,8.5509,19.6167,-38.1378,-43.3486,-18.6114,28.0783,9.5576,26.0658,-63.2886,-8.5509,-127.8155,
15.0898,2.012,-443.0565,8.0475,34.6167,-53.1378,-28.3486,-14.084,13.0783,5.0303,25.1503,-68.4086,-2.012,-131.7875,
30.0898,4.5274,-438.1166,11.5687,49.6167,-52.8155,-22.6349,-4.5274,-1.9217,5.5331,13.5812,-53.4086,8.5514,-116.7875,
45.0898,7.5451,-423.1166,21.6287,64.6167,-52.8155,-7.6349,-7.5451,-10.5634,7.5451,18.6114,-38.4086,13.5807,-101.7875,
34.2041,-7.0427,-424.5359,22.1321,79.6167,-57.3429,2.012,-9.0543,-2.012,4.0235,33.6114,-53.4086,28.1676,-116.7875,
42.7559,-22.0427,-428.0565,18.6119,94.6167,-67.9053,5.5331,-1.5091,1.5091,-1.5091,36.7194,-68.4086,35.7137,-131.7875,
57.7559,-34.2046,-430.5719,18.108,109.6167,-77.4629,12.0716,2.012,-2.012,-4.0245,30.1801,-68.4086,33.1983,-146.7875,
43.7617,-43.7612,-435.0988,14.5869,112.1699,-81.9898,11.5687,-4.5274,-6.5389,4.5274,22.6349,-53.4086,32.6954,-145.3682,
28.7617,-58.7612,-440.6319,6.036,97.1699,-96.9898,-3.4313,-19.5274,8.0475,19.1138,12.0715,-68.4086,24.1445,-160.3682,
25.1498,-73.7612,-439.6262,8.048,85.51,-110.6612,-8.048,-20.12,23.0475,23.1383,27.0715,-71.4269,37.2218,-175.3682,
33.7017,-88.7612,-445.1588,8.5509,98.0858,-112.1699,-0.50288,-7.5451,8.0475,8.1383,28.6709,-56.4269,46.7795,-160.3682,
27.1623,-89.5349,-450.692,9.0538,110.6607,-97.583,11.0663,-5.0298,-6.9525,5.0298,21.1258,-41.4269,42.2526,-145.3682,
22.6349,-91.0441,-451.1953,15.5927,105.1276,-85.008,9.5571,-9.5571,-9.5571,13.5812,36.1258,-35.7137,42.755,-130.3682,
36.7194,-78.9715,-442.1406,20.6234,90.1276,-74.9475,4.5274,-3.5206,3.5206,-1.4188,47.7857,-20.7137,51.8097,-115.3682,
41.7492,-74.948,-435.0988,8.5504,78.9711,-69.9178,6.5389,2.5149,-2.5149,-16.4188,47.7848,-35.7137,63.8818,-130.3682,
31.6897,-89.948,-434.0926,3.5206,78.972,-73.9418,-3.5206,3.5206,12.4851,-8.5514,62.7848,-50.7137,78.8818,-145.3682,
27.6652,-82.9956,-437.1103,11.5691,63.972,-70.9235,-17.6052,3.5211,27.4851,-3.5211,59.8573,-65.7137,92.0503,-160.3682,
31.1863,-67.9956,-432.5839,15.0893,53.3179,-55.9235,-8.048,5.0298,12.4851,0,44.8573,-61.3669,107.0503,-145.3682,
25.1503,-58.3486,-432.5839,5.0303,68.3179,-40.9235,3.0178,1.0062,-2.012,-1.0062,39.2339,-52.3126,116.6968,-130.3682,
17.1018,-72.4327,-439.6257,-1.0058,78.4687,-30.1801,-4.024,2.0125,12.988,1.0058,54.2339,-55.3304,110.6607,-122.7328,
16.5989,-77.9658,-440.1286,-2.5154,63.4687,-32.6954,-19.024,2.5154,27.988,13.5807,65.8938,-52.8155,104.1223,-128.2659,
9.5567,-79.9778,-442.1411,-0.50288,48.4687,-23.6412,-18.6114,0.50288,14.5874,26.6594,50.8938,-54.8275,91.0436,-128.2664,
-3.5211,-75.9538,-442.1411,7.5451,52.815,-13.5816,-3.6114,3.5211,26.6594,30.6834,48.791,-47.7857,81.9898,-122.2304,
-6.5389,-73.9418,-437.1108,14.5869,41.7492,-10.5629,-16.5994,6.5389,34.707,15.6834,55.8328,-53.8217,91.0431,-134.3024,
-0.50336,-76.9595,-441.1348,6.5389,26.7492,-14.5869,-27.6652,0.50336,19.707,7.5447,51.8097,-60.8635,94.0623,-147.3802,
6.036,-61.9595,-434.5959,8.0475,40.2406,-3.0178,-12.6652,3.0178,4.707,22.1321,63.3789,-45.8635,80.4807,-132.3802,
-8.964,-66.3966,-438.6199,7.0418,40.2406,-5.0303,-15.0898,5.0303,11.0658,12.0725,66.3962,-30.8635,65.4807,-128.7693,
-3.5211,-76.9595,-439.1228,7.5451,25.2406,-20.0303,-30.0898,4.5269,24.6469,3.5211,57.8457,-45.8635,63.8813,-143.7693,
7.0423,-65.3909,-439.6262,8.048,10.2406,-18.1085,-30.1806,1.0058,9.6469,12.072,45.2699,-48.2886,77.4629,-158.7693,
0,-56.3366,-433.5897,11.0663,25.2406,-3.1085,-21.1258,5.0298,-5.3531,21.1258,51.3064,-33.2886,78.4687,-143.7693,
-0.50288,-62.8755,-418.5897,19.6172,34.7074,-8.5509,-17.6047,7.5451,0.50288,21.6296,63.8822,-25.6532,67.9062,-140.3379,
1.5091,-64.887,-428.0561,6.5399,19.7074,-19.6167,-31.6887,-1.5091,4.5274,7.5456,48.8822,-40.6532,60.8635,-155.3379,
3.5211,-51.8097,-431.0748,1.5086,4.7074,-4.6167,-39.7372,8.5509,-1.5086,4.5269,33.8822,-55.6532,75.8635,-144.3624,
1.0058,-47.2824,-420.5114,16.5086,-1.0058,10.3833,-38.2281,23.1383,-8.048,16.096,46.2766,-67.4024,90.5407,-136.8168,
-10.5634,-57.8453,-422.0205,15.5932,3.5211,4.5269,-33.7012,16.5989,-3.5211,23.6412,61.2766,-52.4024,81.9898,-151.4042,
-7.5451,-62.8755,-422.0205,3.5211,-3.5211,3.5211,-29.6777,14.5874,3.5211,22.6354,55.8333,-40.7435,79.9773,-152.4104,
7.4549,-49.7972,-413.9725,6.5389,-14.5869,9.5571,-29.6772,17.6052,-6.5389,18.6109,51.8097,-54.8275,72.9355,-140.3379,
7.0423,-46.2761,-408.4394,11.0663,-8.048,4.024,-22.1316,14.0845,-4.024,8.048,62.3726,-51.3064,67.4024,-150.9013,
-7.9577,-61.2761,-417.996,2.5149,6.952,1.5091,-28.6705,4.5274,9.5571,-1.5091,69.9182,-56.839,66.9,-165.9013,
-22.9577,-76.2761,-416.4874,-1.0058,1.0058,3.0182,-43.6705,4.024,3.0182,7.0423,68.4082,-57.3424,53.3188,-153.9191,
-7.9577,-61.2761,-401.4874,13.9942,2.012,18.0182,-28.6705,19.024,-2.012,22.0423,80.4807,-42.3424,54.3251,-138.9191,
-11.5691,-46.2761,-389.8284,28.9942,7.5451,30.6834,-14.5874,22.6354,-7.5451,18.6114,80.9831,-38.7315,58.8515,-142.3504,
-24.6474,-54.8275,-397.8765,22.6349,8.5514,17.6052,-22.6349,14.5869,-8.5514,10.5629,74.9471,-44.7675,53.8212,-134.3024,
-16.0965,-51.3068,-385.3016,29.1743,2.012,20.1196,-27.1628,15.0898,-11.0667,15.0898,72.4327,-29.7675,52.3126,-119.3024,
-1.0965,-36.3068,-371.7199,44.1743,-0.50288,35.1196,-14.5864,18.6114,-4.5269,16.5999,82.9956,-14.7675,67.3126,-107.1396,
6.036,-42.2526,-374.2353,45.2703,-10.06,37.2223,-25.1503,10.06,-6.036,7.0418,79.4749,-29.7675,64.3846,-122.1396,
11.5687,-32.6954,-368.7022,51.8097,-14.5869,36.7194,-30.683,22.6349,-9.5571,9.5571,69.9173,-44.7675,49.3846,-113.1761,
2.012,-23.1378,-364.1753,58.3481,-2.012,39.2339,-15.683,31.1858,-14.084,15.0898,65.3904,-32.1926,46.2761,-105.631,
-4.5269,-26.6594,-371.7199,48.792,4.5269,29.6777,-24.6469,16.5989,-16.5989,15.5932,67.9053,-42.7555,61.2761,-114.1819,
7.5456,-22.6349,-372.7257,43.7617,-5.5331,17.6052,-39.6469,5.5331,-12.5744,6.5389,75.9538,-44.7675,56.8395,-99.1819,
20.6234,-8.5514,-357.7257,58.7617,-3.5206,23.6417,-32.6954,13.5812,-12.5754,3.5206,78.972,-29.7675,48.7915,-84.1819,
21.1263,-1.0062,-346.0667,69.4144,-1.0062,33.1983,-25.1503,22.1321,-27.5754,1.0062,82.4932,-19.1138,52.3126,-69.1819,
26.6589,-1.5091,-351.5999,58.852,1.5091,40.7435,-21.6292,26.6589,-27.6647,-5.5331,89.0316,-20.6234,52.8155,-54.8275,
32.695,3.5211,-346.5701,60.863,-3.5211,37.7247,-17.6056,21.6287,-12.6647,-3.5211,89.0321,-20.6229,49.7977,-48.7915,
21.6297,-4.5269,-355.6239,64.888,-18.5211,22.7247,-21.6287,10.5634,-10.5624,4.5269,84.0023,-35.6229,51.8102,-57.8453,
8.5509,-14.5874,-370.6239,56.84,-7.5451,7.7247,-20.6229,10.5634,-21.6287,9.5576,96.0743,-50.6229,48.792,-70.9235,
-6.4491,-15.0903,-385.6239,51.3064,7.4549,15.0893,-23.1383,10.0595,-22.1325,8.048,101.606,-36.217,33.792,-71.4269,
-7.0423,-14.0845,-392.3433,54.3246,9.0538,19.1143,-22.1325,7.0423,-21.1258,10.0605,90.5407,-29.1738,41.2468,-56.4269,
7.9577,-24.1441,-407.3433,45.2708,11.0663,4.1143,-22.1325,0,-26.1565,4.024,78.4687,-44.1738,31.1863,-56.3366,
19.6172,-16.5999,-400.8947,53.8208,26.0663,-3.5211,-12.5759,3.5211,-13.5816,10.5624,90.0378,-51.8097,16.1863,-59.8577,
12.5749,-2.5144,-388.8222,67.9053,20.6229,-0.50288,-17.6047,10.5634,-6.5394,18.6114,105.0378,-36.8097,1.1863,-44.8577,
20.6225,-9.5571,-401.901,66.899,9.5571,-9.5571,-25.6532,11.5687,-19.6176,9.5571,99.0911,-35.7137,12.5744,-35.7137,
28.6709,-21.6287,-408.9423,57.8457,11.5691,-12.5749,-18.6114,14.5874,-10.5634,10.5634,91.0436,-20.7137,21.6296,-27.6652,
33.1983,-18.108,-400.3914,59.3549,-3.4309,-15.0898,-20.1205,11.0658,4.4366,8.0485,99.595,-10.06,15.0898,-20.1205,
40.743,-3.108,-408.9427,69.9178,-11.5691,-11.5691,-26.6594,6.5394,3.5211,-3.5211,104.1214,-25.06,9.5567,-27.6652,
26.6589,11.892,-423.9427,68.9115,3.4309,-2.5149,-25.6532,5.5331,-4.5274,-3.5206,89.1214,-40.06,2.5149,-12.6652,
11.6589,4.024,-438.9427,56.3361,18.4309,-14.0836,-24.1441,-4.024,7.0423,-10.0595,81.4869,-37.2218,-12.4851,2.3348,
16.5989,-6.5394,-439.1228,64.888,13.5816,-13.5807,-14.5874,-3.5211,22.0423,-14.5874,96.4869,-23.6412,2.5149,17.3348,
18.108,-9.0543,-439.6257,71.4269,1.0062,-10.06,-12.0716,-1.0062,37.0423,-11.0658,92.5527,-38.6412,17.5149,28.1685,
3.108,-16.5994,-450.1886,56.8395,2.5149,-24.6474,-23.6407,1.5091,52.0423,-20.6234,77.5527,-53.6412,4.5274,31.6897,
10.06,-5.0303,-450.692,52.3126,13.0783,-24.1445,-19.1138,5.0303,67.0423,-13.0783,92.5527,-38.6412,-10.4726,46.6897,
17.1023,-1.0062,-451.6982,55.3299,-1.9217,-23.1388,-21.1263,-9.9697,79.4749,1.0062,107.5527,-29.1743,1.0062,49.2944,
19.6172,2.5144,-439.1228,60.863,-13.5816,-17.6056,-29.6777,-13.5816,75.9533,0.50288,97.0801,-38.7315,-0.50288,48.791,
28.6714,13.5812,-424.1228,67.9058,1.4184,-2.6056,-27.6657,-1.5091,90.9533,-8.5514,112.0801,-29.6772,-3.5216,59.8568,
18.6114,4.5269,-433.0868,58.8515,-6.5394,-12.5749,-35.7132,-4.5269,105.9533,-13.5816,117.2001,-33.7017,11.4784,52.815,
25.6537,1.5086,-431.0748,59.8573,-14.5874,-24.6469,-26.6594,-1.5086,98.0858,-3.5211,102.2001,-42.7555,19.6172,46.7795,
29.6772,6.5389,-416.0748,67.9058,-5.5331,-20.6234,-13.5812,5.5331,83.0858,-11.5696,89.0316,-35.7137,4.6172,57.8453,
16.5994,-4.5274,-404.9187,64.8875,8.5504,-15.5936,-11.5696,-1.5091,76.9595,-25.6532,86.0133,-50.7137,1.5091,53.8212,
11.0663,-18.1076,-403.4091,51.3064,17.1028,-22.1316,-11.0663,-12.072,79.4744,-28.1681,76.4571,-65.7137,16.5091,38.8212,
26.0663,-6.036,-392.3433,52.3126,6.036,-23.1378,-19.1138,-14.084,67.4029,-21.1263,86.5172,-80.7137,31.1868,23.8212,
37.2218,8.048,-377.3433,60.3601,-8.048,-16.096,-25.1508,-10.0605,76.4562,-8.048,101.5172,-65.7137,40.2401,35.2103,
27.6657,-2.5149,-362.3433,53.8212,2.5149,-13.5812,-16.5994,-10.5629,72.9355,-10.5629,101.1036,-50.7137,25.2401,33.7012,
20.12,-17.5149,-367.193,43.2583,17.1018,-13.0778,-7.0423,-15.0903,57.9355,-21.1258,86.1036,-57.3429,10.2401,18.7012,
24.145,-22.1316,-362.1628,46.2766,15.0903,-18.1076,-11.0653,-8.048,51.3064,-11.0653,84.5052,-63.3784,25.2401,8.048,
26.1565,-16.096,-348.0787,53.3188,0.090276,-21.1258,-26.0653,1.0058,65.3909,1.0058,69.5052,-69.4144,40.2401,-2.0115,
22.6354,-7.5451,-339.5278,61.8697,-4.5269,-6.5394,-22.6354,0.50288,67.9053,-0.50288,73.9418,-54.4144,25.2401,12.9885,
20.1205,-1.0062,-340.0307,62.3722,1.0062,-6.036,-17.1023,-8.0485,67.4029,-15.0898,88.9418,-39.4144,37.2223,24.1445,
21.1263,-3.0178,-343.0485,54.3251,6.036,-21.036,-24.1436,-4.0235,67.4029,-18.108,103.9418,-54.3241,49.2944,9.1445,
34.2046,-9.0538,-337.013,57.3429,5.0298,-23.1383,-27.1623,0,52.4029,-7.0423,101.607,-68.4082,34.2944,0,
48.2886,-1.0062,-322.013,65.3904,1.0062,-19.1138,-24.1436,-8.0475,37.4029,-4.0235,91.5469,-65.3904,23.1388,15,
33.2886,9.5571,-307.013,57.8453,15.5927,-19.6176,-19.6176,-9.5571,22.4029,-10.5639,79.9768,-53.8222,38.1388,14.5869,
23.6412,4.5269,-292.013,57.8457,17.6056,-19.6172,-13.5807,-6.5384,7.4029,-11.5691,72.936,-41.7487,36.7199,6.5394,
38.6412,-1.5091,-277.013,72.8457,3.5216,-14.5869,-12.5744,1.5091,17.6052,-2.5149,87.936,-39.7367,25.6532,-5.5331,
53.6412,-5.0303,-262.013,65.3904,-1.0062,-19.1148,-19.1148,4.0235,5.0303,1.0062,87.5229,-54.7367,38.2281,-20.5331,
41.2463,-8.0475,-247.013,57.3424,8.0485,-20.1205,-10.06,3.0178,-3.0178,11.0658,72.5229,-69.7367,37.2223,-35.5331,
26.2463,-13.5812,-237.9209,61.8693,3.5206,-18.6109,-9.5571,-3.5206,3.5206,10.5629,69.9173,-66.8995,30.683,-30.683,
29.6772,1.4188,-229.8729,74.948,4.5274,-6.5389,-15.5927,3.5206,-3.5206,-1.5091,74.948,-51.8995,45.683,-15.683,
40.743,2.5154,-214.8729,69.9178,0.50288,-4.5269,-19.6172,5.5327,-0.50288,-6.5394,61.8697,-62.8755,39.7372,-1.5086,
52.3126,-8.0475,-199.8729,62.3731,-6.036,-15.0898,-21.1263,6.036,14.4971,8.4606,76.8697,-73.4384,35.2108,-16.5086,
40.2401,-13.0778,-184.8729,55.3304,-9.0538,-23.1383,-24.1441,9.0538,29.4971,14.0845,91.8697,-68.4086,40.2401,-17.1018,
34.7074,-5.5327,-183.5963,57.8457,3.5211,-10.5624,-10.5624,13.5816,14.4971,-0.91549,86.0138,-58.8515,36.7199,-2.1018,
41.2459,-7.0423,-168.5963,64.3842,5.0298,-5.0298,-9.0538,9.0538,-0.50288,-7.0423,85.5109,-70.4206,34.2046,5.0298,
35.7132,-14.5874,-158.4465,60.863,-1.5086,-10.5634,-23.6412,1.5086,4.5269,-3.5211,91.0436,-73.9418,49.2046,6.5394,
31.1868,-20.1205,-158.9493,47.2828,1.0062,-16.0965,-21.1263,1.0062,-7.0418,-1.0062,92.5527,-58.9418,61.3664,21.5394,
39.7377,-28.6714,-146.3739,45.7732,2.5149,-22.6349,-22.6349,-2.5149,3.5216,-7.5447,95.0681,-56.8395,46.3664,20.6234,
48.2886,-25.1503,-131.3739,60.7732,-1.0062,-21.1263,-27.1628,1.0062,18.5216,-3.0178,103.619,-44.2646,33.1983,29.1743,
33.2886,-25.1508,-119.715,61.3659,-16.0062,-25.1508,-28.1681,0,25.1498,0,92.5522,-58.3486,29.1738,17.1018,
24.1436,-22.133,-104.715,57.3424,-7.0427,-23.1388,-18.109,2.012,20.1196,3.0178,87.522,-73.3486,41.2463,2.1018,
32.1921,-37.133,-89.715,54.3246,6.0365,-32.1921,-24.1441,1.0058,14.0845,-4.024,78.4687,-88.3486,39.2343,-1.0058,
30.1801,-46.2761,-74.715,56.3366,2.012,-42.2521,-16.0965,6.036,6.036,-11.0667,66.3962,-88.5292,37.2223,-2.012,
25.6532,-38.7319,-59.715,52.8155,1.5091,-42.7559,-1.5091,5.5331,7.5447,-13.5812,57.8453,-103.5292,40.7435,-17.012,
36.2161,-27.1623,-44.715,49.2939,16.5091,-31.1863,-1.0058,1.0058,5.0298,-5.0298,72.8453,-98.5892,37.2218,-2.012,
38.2281,-28.1685,-29.715,50.3001,18.108,-30.1801,-7.0418,-1.0062,-3.0178,1.0062,87.8453,-83.5892,41.2463,12.988,
28.6709,-33.7017,-20.6239,45.7727,3.108,-34.7074,-13.5816,0.50288,4.5269,-0.50288,95.0676,-68.5892,39.7372,27.988,
17.1018,-44.2641,-13.0778,33.1988,-11.892,-42.2526,-28.5816,0,18.1085,0,88.5292,-82.4927,24.7372,12.988,
3.0178,-55.3309,-2.012,28.1676,-14.084,-45.2708,-33.1983,2.012,26.1561,10.06,91.5469,-97.4927,9.7372,-2.012,
-5.0303,-56.3366,12.988,30.1801,-11.0667,-38.2286,-18.1983,5.0303,17.1023,11.0658,88.5287,-82.4927,23.1378,-13.0783,
9.9697,-56.3366,26.1561,32.1916,-18.108,-36.2166,-17.1023,-1.0062,2.1023,1.0062,93.5585,-74.4447,27.1618,1.9217,
24.9697,-47.7848,34.7079,38.7319,-8.5504,-35.7127,-25.6532,-2.5149,6.5389,2.5149,103.1161,-89.4447,29.6772,-5.5331,
22.1325,-35.2103,47.2824,50.3006,-1.0058,-33.1978,-10.6532,1.0058,5.0298,-1.0058,88.1161,-104.4447,25.1498,-20.5331,
21.6296,-27.6652,45.7737,49.7977,3.5211,-30.6834,-5.5327,-3.5211,-9.9702,-10.5624,73.1161,-93.0556,10.1498,-5.5331,
36.6296,-15.5927,52.8155,55.8337,18.5211,-15.6834,-14.5869,-6.5389,-23.6407,-7.5447,79.9778,-78.0556,6.5389,9.4669,
30.6834,-15.5932,57.8457,62.8755,3.5211,-12.5749,-29.5869,-2.5154,-8.6407,-4.5269,72.936,-63.0556,3.5211,24.4669,
15.6834,-30.5932,62.3721,51.3068,-11.4789,-27.5749,-30.1801,2.012,3.0178,-2.012,57.936,-78.0556,-4.0235,9.4669,
14.5874,-43.7612,72.936,36.3068,-26.4789,-34.7074,-23.6412,-0.50288,4.5269,0.50288,70.9235,-93.0556,5.5336,-1.5086,
21.6296,-34.7074,76.96,36.7199,-12.5749,-28.6709,-22.6354,0.50288,1.5096,2.5154,65.8938,-100.0978,-0.50288,-6.5394,
18.6109,-29.6772,78.972,47.7857,-7.5447,-26.6589,-15.5927,13.5812,7.5447,7.5447,62.876,-99.0916,-15.5029,-8.5514,
15.0903,-28.1681,79.4754,48.2891,-3.0182,-20.12,-17.1018,13.0788,8.048,3.0182,77.876,-114.0916,-13.0778,-11.0663,
13.0778,-29.1738,80.4812,42.2526,1.0058,-12.072,-29.1738,-1.9212,-5.0298,-1.0058,92.876,-122.7328,1.9222,3.9337,
26.6594,-22.6354,91.0436,46.7795,-2.5144,-15.5932,-23.6412,-8.5509,-0.50288,0.50288,77.876,-107.7328,4.5269,18.9337,
41.6594,-7.6354,99.595,44.2646,-3.0178,-22.1321,-12.0716,2.012,-2.012,2.012,70.4211,-92.7328,-9.0533,33.9337,
36.719,-1.5086,84.595,36.719,1.5086,-25.6527,-22.6354,-4.5269,-17.012,1.5086,55.4211,-77.7328,-24.0533,26.6594,
43.7617,-4.5274,78.972,51.719,5.5331,-18.6109,-28.6714,-14.5869,-32.012,4.5274,40.4211,-62.7328,-22.6349,41.6594,
53.3184,-10.06,93.972,58.3481,-3.0178,-7.0418,-16.0965,0.41308,-17.012,3.0178,55.4211,-47.7328,-7.6349,56.6594,
38.3184,-25.06,107.6425,43.3481,-18.0178,-17.1018,-19.1143,7.0423,-7.0423,-7.0423,70.4211,-60.3606,7.3651,66.3966,
23.3184,-37.2223,95.5709,29.1743,-9.0543,-27.1618,-13.0783,1.0062,-18.108,-1.0062,64.3846,-75.3606,10.06,51.3966,
24.1441,-52.2223,86.5167,16.096,5.9457,-39.2343,-9.0538,-13.9938,-21.1258,-4.024,52.3131,-90.3606,4.024,36.3966,
31.6897,-52.8155,101.5167,12.5754,3.5206,-34.707,-12.5754,-8.5514,-10.5629,-3.5206,54.827,-105.3606,7.5447,28.6714,
38.2281,-37.8155,116.5167,27.5754,-1.0062,-26.1561,-17.1023,1.0062,-1.0062,-2.012,64.3846,-120.3606,11.0658,25.1503,
39.2348,-27.1618,111.667,38.229,3.0187,-29.1743,-13.0783,2.012,-10.06,-5.0293,49.3846,-105.3606,-2.012,40.1503,
31.1863,-30.1805,108.6492,38.2286,8.048,-23.1383,0,0,-25.06,-1.0058,34.3846,-90.5407,-13.0778,55.1503,
25.6527,-26.6594,112.1694,39.7372,0.50288,-12.5749,-6.5394,-2.5154,-23.6412,1.5086,46.7795,-92.0498,-0.50288,61.8697,
21.1258,-36.2161,108.6492,40.2401,-7.0423,-25.1508,-21.1268,-1.0058,-14.0845,1.0058,31.7795,-77.0498,14.4971,63.3784,
15.5932,-46.7795,105.1281,37.7257,-8.5509,-39.7372,-16.5989,0.50288,-14.5874,-0.50288,36.7199,-62.0498,26.6594,76.96,
27.6657,-31.7795,106.1343,41.7492,-1.5091,-27.6647,-6.5389,1.5091,-18.6109,-2.5149,51.7199,-52.8155,23.6417,78.972,
33.1978,-27.1623,108.6492,42.2526,0,-24.1441,-8.048,-4.024,-27.1623,0,66.7199,-67.8155,38.6417,64.3842,
29.1743,-41.2463,109.6555,33.1983,-6.036,-39.1441,-12.0716,-7.0418,-16.0956,6.036,51.7199,-82.8155,53.6417,50.3011,
44.1743,-34.2041,114.6852,39.2348,-1.0062,-37.2223,-14.084,-3.0178,-6.036,1.0062,61.3664,-93.5589,65.3904,48.2886,
45.7732,-21.6292,112.1699,38.731,9.5571,-23.6417,-16.5994,-9.5571,-21.036,-13.9938,54.827,-98.0858,60.8635,34.707,
31.6892,-12.5749,113.1761,41.7497,15.5932,-21.6287,-16.5989,-16.5989,-36.036,-20.6229,39.827,-83.0858,51.8092,42.7555,
32.695,-1.5086,116.1944,49.7977,10.5634,-17.6047,-17.6047,-11.5691,-27.6652,-17.6047,24.827,-68.0858,51.8092,57.7555,
32.193,-8.048,107.6435,43.2583,4.024,-12.072,-16.096,-4.024,-12.6652,-25.1498,15.0903,-62.3717,66.8092,65.3909,
17.193,-23.048,112.1699,28.6714,-10.976,-27.072,-21.6292,-11.5687,2.3348,-23.6407,30.0903,-77.3717,81.8092,50.3909,
7.0418,-37.2223,127.1699,35.2098,-25.976,-37.2223,-30.1801,-7.0418,17.3348,-8.6407,45.0903,-82.4927,83.4989,65.3909,
8.5509,-27.6652,142.1699,33.7017,-24.6469,-27.6652,-38.7315,-8.5509,32.3348,-20.6229,60.0903,-68.911,98.4989,80.3909,
14.084,-34.205,157.1699,29.1743,-18.108,-40.2406,-26.1561,-14.084,31.1858,-25.1503,45.0903,-83.911,113.4989,65.3909,
15.5932,-45.7737,172.1699,30.6834,-17.6047,-55.2406,-16.5989,-17.6047,46.1858,-15.5932,45.7737,-76.9595,123.2357,50.3909,
17.6052,-33.7012,187.1699,39.7367,-21.6292,-51.8097,-23.6417,-17.6052,58.851,-24.6474,50.803,-61.9595,121.2237,65.3909,
14.5874,-25.6537,202.1699,36.719,-17.6056,-44.7679,-24.6469,-14.5874,68.911,-24.6469,35.803,-74.948,124.2424,80.3909,
10.06,-38.229,217.1699,23.1378,-11.0667,-50.3011,-19.1148,-14.084,72.4327,-10.06,46.2761,-80.4811,139.2424,79.474,
17.6052,-35.7137,232.1699,23.6417,-19.6167,-53.8212,-23.6407,-17.6052,57.4327,-20.6234,61.2761,-65.4811,154.2424,94.474,
20.12,-33.1978,247.1699,20.12,-20.12,-53.3188,-30.1806,-24.1441,50.3006,-28.1681,74.4447,-68.4082,169.2424,109.474,
5.12,-48.1978,262.1699,5.12,-5.12,-50.804,-24.6474,-24.6474,45.7732,-16.5994,68.9115,-83.4082,180.578,94.474,
2.5149,-50.804,277.1699,10.5629,-2.5149,-46.78,-19.6176,-19.6176,38.731,-16.5994,70.9231,-88.0258,195.578,79.474,
12.072,-36.2161,292.1699,24.1441,-12.072,-51.3064,-24.1441,-22.1316,40.2401,-24.1441,69.4149,-73.0258,204.2197,70.4206,
6.036,-34.2041,307.1699,22.1321,-6.036,-58.3481,-29.1743,-29.1743,42.2521,-9.1441,69.4144,-72.4327,195.1654,65.3904,
4.024,-49.2041,322.1699,7.1321,-4.024,-65.3909,-32.193,-33.1988,29.1738,-6.0365,70.4197,-87.4327,210.1654,53.3179,
12.5754,-53.8212,337.1699,2.5149,-2.5149,-58.851,-26.6589,-29.6772,14.1738,-17.6052,56.8395,-88.0258,225.1654,56.8395,
5.0298,-46.2766,352.1032,1.0058,2.0125,-54.3246,-27.1623,-31.1863,-0.82617,-14.0845,41.8395,-73.0258,240.1654,58.3486,
1.0058,-32.1921,359.1455,-1.0058,7.0423,-48.2881,-23.1383,-25.1498,12.072,-4.024,42.2526,-58.0258,255.1654,64.3851,
2.5154,-30.6834,359.6484,2.5154,-2.5154,-41.7497,-27.6652,-26.6594,15.5932,-9.5576,45.7737,-73.0258,270.1654,60.863,
5.0303,-28.1685,362.1633,17.5154,-6.036,-31.1858,-27.1618,-28.1685,11.0658,-5.0303,39.2348,-67.4029,285.1654,75.4509,
-3.5211,-26.6594,377.1633,25.6537,-13.5807,-31.6892,-24.6469,-20.6229,20.6229,3.5211,34.7074,-52.4029,300.1654,82.9956,
-1.5086,-26.6594,392.1633,31.6892,-19.6172,-30.6834,-26.6594,-12.5749,32.695,1.5086,49.7074,-67.4029,315.1654,67.9956,
4.5269,-24.6469,407.1633,23.6412,-17.6056,-39.7372,-34.7074,-22.6354,17.695,-4.5269,64.7074,-82.4029,312.3651,52.9956,
8.5509,-21.6297,422.1633,17.6047,-2.6056,-39.7372,-26.6594,-27.6652,2.695,1.5086,66.8995,-67.4029,327.3651,37.9956,
4.0245,-30.1801,437.1633,15.0898,8.0485,-37.2223,-23.1378,-27.1618,-4.0245,-12.0725,53.3184,-63.3789,342.3651,41.2463,
5.5331,-27.6647,452.1633,15.5936,5.5331,-46.779,-28.6714,-28.6714,-5.5331,-27.0725,47.7857,-78.3789,357.3651,26.2463,
19.1138,-16.0965,467.1633,22.1321,7.0418,-46.2761,-18.108,-25.1503,-7.0418,-17.1023,32.7857,-72.4327,372.3651,11.2463,
17.6047,-18.6114,482.1633,7.5451,15.5932,-43.7612,-11.5691,-32.695,-11.5691,-7.5451,23.6412,-67.9053,386.8107,25.6527,
18.6109,-6.5389,497.1633,6.5389,17.6052,-44.7675,-11.5696,-41.7492,-16.5994,-22.5451,38.6412,-68.9115,393.8525,33.7012,
21.6292,-3.5206,512.1633,18.6109,3.5206,-38.731,-17.6052,-36.7194,-11.5696,-23.6417,53.6412,-63.8818,408.8525,27.6647,
16.5989,-18.5206,527.1633,17.6056,1.5086,-33.7007,-22.6354,-25.6527,-2.5154,-8.6417,44.7679,-58.8515,423.8525,30.6834,
1.5989,-33.5206,542.1633,10.5629,6.5389,-48.7007,-23.6407,-24.6474,-17.5154,0.50336,36.7194,-63.8818,411.961,34.707,
-3.5211,-29.6767,557.1633,12.5759,6.5394,-58.8515,-21.6287,-26.6585,-26.6585,3.5211,39.7372,-66.8995,423.0268,32.6959,
1.5086,-26.6594,572.1633,17.6047,-1.5086,-52.816,-30.6834,-27.6652,-21.6297,5.5327,37.7257,-65.8938,438.0268,29.6767,
15.5932,-12.5749,587.1633,27.6652,8.5509,-42.7555,-19.6172,-17.6056,-13.5816,-8.5509,51.8092,-54.8275,446.1651,32.695,
17.6052,-23.6407,602.1633,14.5879,9.5571,-54.827,-9.5571,-30.683,-17.6052,-23.5509,39.7377,-61.8693,442.1415,35.7137,
21.6292,-25.6532,617.1633,6.5389,24.5571,-56.8395,-6.5389,-34.707,-17.6052,-23.6417,24.7377,-69.9173,433.0868,41.7492,
19.6172,-11.5691,632.1633,10.5634,29.6777,-52.815,-10.5634,-21.6296,-17.6056,-16.5989,18.6114,-84.9173,421.0143,29.6777,
17.6052,-5.5331,647.1633,14.5879,14.6777,-49.7972,-21.6292,-21.6292,-9.5571,-24.6465,30.6839,-99.9173,424.033,36.7194,
14.0845,-3.0182,662.1633,16.096,3.0182,-37.2218,-31.1863,-30.1806,-7.0423,-17.1018,34.2046,-84.9173,438.6199,51.7194,
0.50336,-0.50336,677.1633,18.6109,14.5869,-29.6772,-26.6589,-19.6176,-8.5514,-3.5216,40.7435,-69.9173,437.1108,65.8933,
-3.0178,-9.0543,692.1633,16.0965,10.06,-41.2463,-15.0898,-8.0475,3.0178,-7.0418,49.2944,-80.4807,422.1108,50.8933,
0,-22.1325,707.1633,1.0965,0,-45.2708,-18.1085,-20.12,5.0298,-22.0418,43.2583,-89.5349,413.4691,37.2218,
7.5447,-15.5936,722.1633,5.5331,7.5447,-33.7012,-20.6234,-24.6474,-5.5331,-34.707,54.827,-74.5349,428.0561,52.2218,
3.5211,-3.5211,737.1633,16.5989,9.5567,-36.719,-16.5989,-20.6229,-4.5269,-21.6296,62.8755,-67.9053,413.0561,37.2218,
1.5091,-6.5389,752.1633,18.6109,-3.5206,-48.7915,-14.5869,-20.6234,4.5274,-6.6296,47.8755,-59.8577,398.0561,44.7675,
16.5091,-16.0965,767.1633,19.1138,1.0062,-45.2703,-7.0427,-25.1503,-1.0062,-1.0062,35.2098,-44.8577,392.3429,59.7675,
17.6047,-26.6594,782.1633,8.5509,16.0062,-48.792,-9.5576,-40.1503,-8.5509,-16.0062,50.2098,-59.8577,407.3429,44.7675,
5.5331,-20.6234,797.1633,6.5389,28.6714,-40.7435,-5.5331,-27.6657,6.4491,-13.5812,65.2098,-74.8577,405.9245,29.7675,
4.024,-22.1316,812.1633,0,13.6714,-30.1805,-8.048,-14.0836,0,-2.0115,52.3121,-59.8577,398.3798,18.1085,
13.5816,-19.6172,825.4306,7.5451,11.5691,-26.6594,-11.5691,-18.6104,-12.5749,-7.5451,65.8938,-44.8577,400.8942,33.1085,
9.0543,-9.0543,815.8725,22.1321,13.0783,-35.2108,-15.0898,-21.1263,-24.1445,-21.1263,63.3789,-59.8577,388.3188,42.2521,
14.5864,-3.5211,814.3634,24.6469,3.5211,-33.7017,-19.6172,-8.5519,-32.6959,-25.6537,48.3789,-70.9235,375.7435,35.7132,
25.6532,-2.5149,819.3936,15.5927,2.5149,-26.6599,-23.6417,-15.5936,-35.7137,-22.6359,34.707,-55.9235,360.7435,34.707,
18.6114,-8.5509,817.3826,8.5509,9.5576,-37.7247,-24.6469,-30.5936,-40.743,-34.7074,19.707,-70.9235,345.7435,25.6537,
20.12,-9.0538,825.9325,9.0538,15.0903,-40.2401,-10.0605,-31.1863,-30.1806,-33.1988,17.1018,-70.4206,330.7435,24.1441,
21.1268,-22.1316,827.945,8.048,10.0605,-38.2276,-8.048,-35.2103,-33.1978,-23.1383,23.1383,-75.4504,315.7435,17.1028,
11.5696,-27.6647,827.4426,10.5629,10.5629,-44.7675,-9.5571,-38.731,-48.1978,-14.5869,9.5571,-77.9653,300.7435,16.5994,
5.5336,-22.6345,840.5209,15.5932,13.5816,-43.7612,-4.5269,-23.731,-49.7968,-8.5509,4.5269,-62.9653,285.7435,21.6297,
8.048,-34.2036,841.0238,20.12,9.0547,-39.2343,-9.0538,-8.731,-34.7968,-9.0538,19.5269,-48.2881,296.7729,12.072,
13.5812,-46.779,827.4417,17.6052,8.5514,-35.7137,-15.5927,-16.5994,-19.7968,-7.5447,34.5269,-63.2881,309.3473,7.5447,
19.1138,-32.1926,830.9628,15.0898,12.0725,-31.1858,-12.0725,-14.084,-26.1561,-18.108,45.2703,-52.3126,296.7724,22.5447,
10.0605,-23.1383,832.9748,14.0845,11.0663,-28.1681,-10.0605,-17.1018,-22.1325,-33.108,43.2583,-56.3361,282.6884,17.1018,
11.5696,-14.5869,831.4657,22.6349,13.5812,-20.6234,-8.5514,-12.5754,-16.5994,-23.6407,47.7857,-71.3361,288.2215,8.5514,
23.1378,-6.036,835.9935,32.1926,5.0303,-25.1503,-14.084,-5.0303,-31.5994,-23.1378,32.7857,-74.4442,273.2215,23.5514,
28.6714,3.5206,849.5742,41.7492,17.6052,-26.6589,-4.5274,-3.5206,-46.5994,-28.6714,17.7857,-59.4442,258.2215,38.5514,
27.6652,0.50288,853.5977,38.7315,27.6652,-29.6777,-0.50288,-18.5206,-58.8515,-33.7017,2.7857,-67.9062,243.2215,23.5514,
33.7012,-10.5639,862.652,31.6887,18.6109,-31.6897,-1.5091,-22.6359,-50.804,-25.6532,1.5091,-67.9058,228.2215,8.5514,
18.7012,-25.5639,861.1429,16.6887,4.024,-46.6897,-4.024,-20.12,-46.2766,-13.0778,16.5091,-64.3846,213.2215,6.0355,
3.7012,-40.5639,857.1193,8.0485,13.0783,-53.3184,5.0303,-10.06,-31.2766,1.9222,31.5091,-73.4384,198.2215,-8.9645,
-1.5091,-55.5639,845.5502,14.5879,9.5571,-42.755,5.5331,-1.5091,-16.2766,1.5091,39.7377,-66.899,183.2215,-23.9645,
6.5389,-61.8697,844.5444,20.6234,-5.4429,-36.7194,-0.50336,0.50336,-25.6532,-13.4909,27.6647,-51.899,168.2215,-8.9645,
10.5634,-46.8697,859.5444,13.5807,5.5327,-29.6777,-0.50288,0.50288,-28.6709,-13.5816,34.7074,-58.8515,153.2215,-2.5154,
25.5634,-31.8697,867.6822,18.6104,20.5327,-14.6777,4.5269,-4.5269,-29.6777,-18.6114,39.7372,-73.8515,138.2215,-17.5154,
30.6834,-16.8697,858.6284,33.6104,27.6652,-10.5634,5.5327,-5.5327,-35.7132,-33.6114,24.7372,-88.8515,123.2215,-32.5154,
15.6834,-20.6225,847.5627,32.6954,12.6652,-21.6292,-2.5149,2.5149,-46.779,-28.6705,15.5936,-73.8515,108.2215,-17.5154,
6.0355,-20.12,832.9748,19.1143,13.0778,-22.1325,-16.096,-3.0182,-61.779,-25.1508,6.0355,-58.8515,93.2215,-2.5154,
20.6224,-14.5869,842.5319,33.7012,24.6474,-7.1325,-2.5149,2.5149,-46.779,-10.1508,9.5571,-59.8577,78.2215,12.4846,
5.6224,-29.5869,841.0233,27.1618,9.6474,-19.1138,1.0062,-3.0178,-31.779,2.012,-1.0062,-74.4447,63.2215,1.0062,
2.012,-44.5869,844.0415,24.1445,13.0783,-26.1561,9.0543,-2.012,-18.108,3.0178,2.012,-61.3664,48.2215,-13.9938,
17.012,-42.7555,848.5684,35.7137,21.6292,-13.5812,14.5869,6.5389,-13.5812,-6.5389,17.012,-51.8092,33.2215,-12.5754,
24.1441,-43.2588,841.0228,38.2276,6.6292,-14.0845,4.024,8.048,-23.1383,-17.1028,21.1258,-66.8092,18.2215,-3.0182,
9.1441,-52.3126,831.9695,32.1926,-3.0178,-24.1445,3.0178,6.036,-18.108,-16.0965,9.0543,-78.4687,3.2215,6.036,
-3.0182,-61.3669,826.9392,23.1383,10.0595,-31.1863,13.0778,6.0355,-3.108,-7.0423,-1.0058,-63.4687,-11.7785,9.0538,
-1.0062,-56.3366,823.9205,16.0956,17.1023,-25.1503,7.0418,-3.0178,1.0062,-12.0725,10.06,-65.3909,-26.7785,4.0235,
2.5154,-41.3366,825.4296,22.6354,21.6297,-10.1503,-2.5154,-6.5394,7.5451,-18.6114,25.06,-68.9115,-41.7785,19.0235,
-2.012,-40.2396,822.9157,24.1445,8.0485,-22.1321,-4.0235,2.012,22.5451,-21.1263,34.205,-59.3544,-56.7785,34.0235,
5.5331,-45.7732,824.4244,17.6052,-6.9515,-30.683,-0.50336,0.50336,37.5451,-26.6589,23.6407,-64.8875,-71.7785,30.683,
8.0485,-38.2281,825.933,16.0965,2.012,-19.1138,-2.012,-10.06,38.2281,-20.1196,26.1561,-59.3539,-86.7785,45.683,
-6.9515,-40.2406,822.9148,25.1503,17.012,-25.1503,3.0178,-7.0418,35.2098,-5.1196,30.1801,-44.3539,-101.7785,60.683,
-20.12,-52.3121,820.9028,24.1441,19.1143,-40.1503,9.0538,-9.0538,34.2046,-18.1085,26.1565,-59.3539,-113.679,45.683,
-5.12,-39.7377,835.9028,17.6052,4.5274,-31.6897,5.5331,-8.5514,29.6772,-28.6714,32.6954,-63.8818,-98.679,51.8097,
0.50288,-34.7074,841.5266,13.5816,10.5634,-25.6527,-0.50288,-8.5509,19.6172,-16.5989,31.6892,-48.8818,-101.1036,48.792,
-14.4971,-46.2761,827.9455,6.036,21.1263,-35.2098,12.0725,-7.0418,24.1445,-6.036,24.1445,-33.8818,-102.6127,33.792,
-26.1565,-49.2948,827.945,3.0182,10.0595,-32.1921,9.0538,-3.0182,29.1738,-12.072,21.1258,-48.8818,-91.5469,26.1565,
-21.1263,-51.3059,830.9628,6.036,14.084,-28.1685,-2.012,2.012,24.1445,-15.0898,19.1138,-63.8818,-86.5167,28.1685,
-13.5807,-52.815,827.4421,3.5211,27.6652,-26.6594,7.5451,-3.5211,16.5989,-12.5749,4.5269,-78.8818,-89.0316,13.1685,
-3.0182,-37.815,831.969,11.0653,27.1623,-11.6594,22.5451,0,6.0355,-10.0605,0,-70.4211,-88.5292,21.1258,
-2.012,-22.815,830.9628,19.1138,19.1138,-4.0245,16.0956,5.0293,-7.0427,-20.1205,2.012,-55.4211,-95.5709,36.1258,
2.012,-28.1676,834.9877,26.157,21.1263,-13.0773,16.0965,4.0245,-4.0235,-17.1013,-2.012,-49.2944,-98.5887,30.181,
-0.50288,-31.6892,840.5199,22.6345,26.6594,-12.5749,20.6229,-3.5211,0.50288,-9.5576,5.5327,-64.2944,-90.0378,21.6287,
-5.5327,-29.6777,837.5017,12.5749,30.6834,-6.5394,29.6777,3.5211,-3.5211,-14.5874,13.5807,-49.2944,-78.9715,33.7017,
-15.0898,-37.2223,825.933,11.0658,19.1138,-13.0783,26.1561,3.0178,-9.0543,-28.1685,-1.4193,-34.2944,-73.4384,43.2588,
-18.1085,-38.2286,821.9085,17.1018,17.1018,-11.0663,17.1018,1.0058,-1.0058,-13.1685,10.0595,-49.2944,-58.4384,28.2588,
-22.6349,-44.7675,815.3696,12.5754,16.5994,-11.5696,5.5331,2.5149,-2.5149,1.8315,25.0595,-64.2944,-43.4384,13.2588,
-31.6892,-50.8035,808.3278,4.5269,14.5874,-9.5567,0.50288,5.5336,2.5154,-0.50288,16.5989,-60.8635,-28.4384,-1.7412,
-29.1738,-35.8035,808.8307,7.0423,22.1325,-2.0115,12.072,-2.0115,0,0,1.5989,-45.8635,-31.1863,12.072,
-18.108,-25.1503,806.8187,11.0658,28.1685,-3.0178,24.1445,3.0178,-15,-6.036,4.0245,-41.2463,-16.1863,26.1561,
-18.6114,-35.7132,801.2856,12.5749,26.6594,-3.5211,20.6229,18.0178,-30,-10.5634,3.5211,-38.7315,-18.6114,18.6114,
-20.6229,-34.7074,793.2376,20.6229,22.6354,0.50288,5.6229,12.5749,-34.7074,-7.5451,0.50288,-42.7555,-33.6114,22.6354,
-11.5687,-19.7074,795.2496,28.6714,24.6474,-2.5149,2.5149,9.5571,-39.7367,-9.5571,6.5389,-53.8212,-37.7252,32.6954,
-8.0475,-4.7074,804.8072,25.1503,31.1868,-6.036,17.5149,18.108,-38.2281,-17.1023,3.0178,-59.3544,-28.1685,21.1263,
-1.5091,-19.7074,808.3283,31.6897,28.6714,5.5331,31.6897,17.6052,-25.6532,-7.5447,1.5091,-59.8573,-23.6407,6.1263,
-2.5149,-34.7074,793.3283,32.6954,13.6714,5.5331,16.6897,10.5629,-16.5994,-2.5149,2.5149,-46.7795,-16.5994,-8.8737,
-15.0898,-35.2098,790.7227,30.181,8.0485,2.012,16.0965,19.1148,-6.036,-2.012,8.0485,-34.2041,-4.0235,-16.0956,
-27.6652,-30.6834,793.2376,28.6709,20.6229,0.50288,23.6412,26.6594,-14.5874,-0.50288,8.5509,-34.7074,-17.6047,-1.5086,
-28.6719,-35.7132,789.2136,21.6287,16.5989,-3.5211,9.5567,14.5864,-29.5874,-3.5211,6.5384,-38.7315,-32.6047,3.5211,
-25.1503,-32.1926,788.7102,25.1503,7.0418,-3.0178,2.012,10.06,-31.1868,1.0062,-1.0062,-23.7315,-45.2703,6.036,
-31.1868,-30.1801,784.6862,21.1263,1.0062,-1.0062,6.036,16.0956,-27.1628,-1.0062,-3.0178,-8.7315,-30.2703,21.036,
-28.1681,-27.1623,785.6924,13.0778,1.0058,-1.0058,9.0538,12.072,-24.1441,-16.0062,11.9822,-11.0663,-41.2459,36.036,
-26.6594,-28.6719,784.1838,14.5864,-0.50288,0.50288,9.5567,13.5807,-17.6056,-14.5874,24.6469,-7.5451,-49.7977,37.7247,
-26.6589,-31.6897,781.166,15.5927,-1.5091,1.5091,9.5571,15.5927,-12.5754,-8.5514,28.6714,-3.5206,-57.8457,39.7377,
-26.6589,-34.707,778.1478,15.5927,-3.5206,1.5091,8.5514,16.5994,-8.5514,-4.5274,30.683,-1.5091,-67.9058,39.7377,
-28.1681,-40.2401,772.6146,14.0836,-7.0423,0,6.0355,16.096,-6.0365,-1.0058,32.1921,0,-78.4687,38.2286,
-30.683,-45.7732,767.0815,11.5687,-12.5754,-2.5149,2.5149,13.5812,-3.5206,0.50336,31.6897,-0.50336,-91.0436,35.7137,
-34.2046,-53.3179,760.5426,8.048,-18.1085,-6.0355,-1.0058,13.0778,-1.0058,3.0182,32.1921,1.0058,-103.619,35.2103,
-26.6594,-39.7372,770.0993,10.5634,-19.6172,-3.5211,5.5327,21.6287,-14.5874,-4.5269,35.7132,3.5211,-93.0561,34.7074,
-31.1858,-48.2886,770.6026,6.036,-18.108,-18.5211,9.0543,18.108,-29.5874,-2.012,20.7132,2.012,-106.6367,38.2281,
-35.2103,-61.3664,770.6026,9.0543,-16.0956,-17.1023,15.0908,22.1321,-18.108,6.036,5.7132,-3.0178,-116.6968,43.2588,
-24.1441,-46.3664,765.5724,13.0778,-20.12,-2.1023,6.0365,30.1806,-10.0605,-8.964,19.1143,-6.0365,-129.775,33.1978,
-17.6052,-31.3664,762.0508,16.5984,-20.6234,10.5629,-2.5149,26.6589,-22.6359,-23.964,34.1143,2.5149,-143.3567,39.7367,
-27.6657,-28.6714,755.0095,12.5754,-21.6292,-0.50336,1.5091,22.6349,-23.6417,-17.6052,45.7732,0.50336,-141.3442,46.779,
-31.1858,-43.6714,751.4884,10.06,-20.1205,8.0485,3.0178,35.2098,-17.1023,-4.0245,32.1926,-3.0178,-126.3442,44.2646,
-27.6652,-35.7132,749.9792,15.5932,-17.6056,15.5932,0.50288,36.719,-23.6412,-2.5154,37.7257,-0.50288,-119.2121,58.8515,
-28.6714,-31.6897,746.9615,13.5812,-19.6176,4.5274,6.5389,26.6589,-21.6292,-5.5331,46.779,-4.5274,-134.2121,66.899,
-20.12,-42.2526,747.4639,13.0778,-15.0903,0,13.0778,28.1681,-7.0423,0,44.2641,-13.0778,-149.2121,51.899,
-12.5749,-38.7315,739.9187,16.5989,-4.5269,4.5269,6.5394,28.6709,-21.6296,-8.5509,40.743,-23.6412,-149.3922,36.899,
-8.5514,-23.7315,735.8952,20.6234,-4.5274,9.5571,4.5274,34.707,-29.6772,-12.5754,29.6772,-24.6474,-142.3504,23.6407,
-10.5629,-26.6589,728.8529,22.6349,-19.5274,2.5149,1.5091,34.707,-14.6772,2.4246,24.6474,-20.6234,-146.3744,8.6407,
-5.0303,-32.1926,725.3318,29.1743,-31.1868,-2.012,6.036,31.1858,-5.0303,2.012,39.6474,-9.0543,-137.8235,8.0475,
0.50336,-17.1926,718.7934,25.6532,-16.1868,-0.50336,18.6109,25.6532,-20.0303,-12.988,33.7012,-7.5447,-134.3019,23.0475,
-1.0058,-5.0298,710.242,19.1143,-1.1868,0,21.1258,26.1565,-35.0303,-18.1085,18.7012,-7.0423,-149.3019,33.1988,
-11.0663,-20.0298,698.17,20.12,-16.1868,-8.048,6.1258,25.1498,-34.2046,-3.1085,3.7012,4.024,-164.3019,31.1863,
-6.036,-23.1378,693.1397,27.1628,-31.1868,3.0178,-4.0235,30.1801,-27.1618,-3.0178,15.0898,16.0965,-166.9974,39.2348,
-11.5696,-26.6599,688.6128,19.6167,-21.6292,-2.5149,5.5331,22.6349,-16.5994,2.5149,22.6349,1.0965,-154.4224,24.2348,
-0.50288,-20.6229,703.6128,34.6167,-6.6292,0.50288,20.5331,33.7017,-3.5211,17.5149,35.7132,-13.9035,-139.4224,9.2348,
-10.0605,-28.1681,688.6128,24.1441,-20.12,0,8.048,31.1863,-18.5211,2.5149,34.2036,-6.0365,-127.7635,8.048,
-25.0605,-30.1801,673.6128,12.0725,-24.1436,-2.012,2.012,16.1863,-33.5211,-9.0533,36.2166,5.0303,-140.8408,11.0667,
-10.0605,-22.6354,685.5951,27.0725,-9.1436,-0.50288,17.012,24.6469,-18.5211,5.9467,31.6892,-9.9697,-137.3202,0.50288,
4.9395,-26.6594,682.5768,34.7065,-14.5874,-7.5451,17.6047,28.6709,-19.6172,7.5451,16.6892,-19.6172,-137.3206,-14.4971,
10.5634,-23.6412,667.5768,26.6594,-9.5567,-5.5327,21.6297,22.6354,-28.6709,0.50288,29.6777,-4.6172,-145.3682,-9.5567,
-4.4366,-32.1921,652.5768,18.1076,-6.0365,-9.0538,17.1018,13.0778,-33.1988,-3.0182,40.2401,3.0182,-151.9076,5.0298,
-8.5509,-32.695,645.355,23.6412,-19.6172,-8.5509,8.5509,25.6537,-30.6834,-3.5211,25.2401,8.5509,-142.3499,3.5211,
-4.024,-26.1565,647.8694,29.1738,-26.1565,-9.0547,11.0663,36.2161,-26.1565,4.024,19.1143,9.0538,-132.7933,-11.4789,
2.012,-24.1445,646.8631,32.1916,-18.109,-12.0725,15.0898,34.2041,-24.1445,6.036,34.1143,-2.012,-122.7337,-15.0908,
1.5086,-23.6412,636.3002,32.695,-16.5989,-3.5211,14.5874,27.6652,-32.695,-5.5327,28.6709,-1.5086,-125.2481,-0.090755,
3.5211,-13.5816,646.3607,31.6892,-1.5989,0.50288,28.6709,24.6469,-29.6777,-1.5086,13.6709,-1.5086,-132.2904,-15.0908,
-0.50288,-20.6229,648.3723,22.6354,4.5269,-14.4971,18.6114,22.6354,-28.6709,0.50288,3.5211,-16.5086,-145.3682,-30.0908,
5.5331,-14.5869,640.3247,26.6589,-0.50336,-12.5754,9.5571,28.6714,-30.683,0.50336,18.5211,-31.5086,-138.3264,-36.7194,
7.5451,-6.5394,640.3242,24.6469,-5.5327,2.4246,21.6287,23.6412,-32.695,-11.5691,33.5211,-16.5086,-137.3202,-21.7194,
4.5269,-9.5576,652.3963,20.6229,-4.5269,7.5451,21.6287,25.6527,-17.695,-17.6056,48.5211,-19.6172,-134.3024,-36.7194,
1.5091,-13.5812,655.415,27.6657,-8.5514,3.5216,12.5754,36.7194,-2.695,-8.5514,59.8577,-7.5447,-119.3024,-28.6714,
-1.5086,-24.6469,650.3847,28.6719,-13.5807,0.50288,18.6114,28.6719,-0.50288,-6.5384,44.8577,7.4553,-108.1459,-32.695,
5.0298,-35.2103,646.8636,21.1258,-21.1258,-14.4971,16.096,20.12,11.0663,-14.0845,29.8577,-5.0298,-123.1459,-47.695,
6.5394,-31.6892,648.3723,28.671,-14.5874,-15.5932,15.5932,32.695,26.0663,-6.5394,44.8577,-13.5807,-138.1459,-32.695,
-8.4606,-46.6892,649.379,32.695,-19.6172,-17.6047,11.5691,22.6354,26.6594,-8.5509,29.8577,-11.5691,-124.2419,-17.695,
-18.6109,-61.6892,649.3785,26.6589,-31.6887,-28.6714,4.5274,14.5869,34.707,-12.5754,14.8577,-4.5274,-133.2962,-2.695,
-6.5389,-46.6892,651.39,21.6292,-31.6897,-31.6897,1.5091,23.6407,49.707,-2.5149,29.8577,-1.5091,-148.2962,12.305,
-12.0716,-31.6892,651.8939,26.157,-40.2396,-34.2041,-2.012,20.1205,64.3846,2.012,44.8577,-5.0293,-153.9191,25.1503,
-18.6119,-33.7012,645.3545,31.6887,-47.7857,-28.6714,-1.5091,18.6109,56.8395,-12.5754,38.731,1.5091,-149.3927,32.6954,
-14.5869,-32.6954,638.3122,31.6897,-41.7492,-26.6589,0.50336,28.6714,42.755,-21.6292,23.731,-0.50336,-158.4465,24.6474,
-4.5269,-17.6954,631.2705,35.7132,-30.6834,-20.6229,6.5394,32.6959,34.7074,-7.5451,8.731,-15.5034,-153.4162,9.6474,
0.50288,-5.5336,621.21,33.7007,-42.7555,-5.6229,8.5509,31.6892,36.719,-4.5269,-0.50288,-30.5034,-139.3327,8.5509,
-1.5086,-17.6056,609.1379,36.719,-57.7555,1.5086,1.5086,31.6892,37.7257,-16.5989,-4.5269,-19.6172,-154.3327,23.5509,
-3.0178,-13.0783,596.5635,43.2588,-44.2646,-5.0303,2.012,33.1983,33.1983,-10.06,9.0543,-4.6172,-164.9854,38.5509,
-18.0178,-23.1378,581.5635,28.2588,-41.2463,-20.0303,1.0062,19.1148,18.1983,-11.0658,15.0908,-1.0062,-149.9854,23.5509,
-17.1023,-24.1445,566.5635,13.2588,-42.2531,-8.0485,14.084,17.1023,3.1983,-15.0908,22.1321,2.012,-134.9854,27.1618,
-14.5874,-20.6229,551.5635,13.5807,-37.7257,-8.5509,13.5807,25.6537,7.5451,-16.5989,26.6594,-7.5451,-141.3442,36.719,
-5.0298,-22.1325,543.2442,18.1085,-22.7257,-18.1085,10.0605,38.2286,17.1018,-13.0778,22.1325,-5.0298,-143.8591,21.719,
6.0355,-29.1748,529.1606,21.1258,-16.096,-7.0423,23.1383,42.2516,12.072,-6.0365,7.1325,-4.024,-128.8591,6.719,
6.0365,-20.12,514.1606,28.1681,-18.1085,1.0058,31.1863,32.1921,-2.0115,-1.0058,-3.0182,-16.096,-125.751,4.024,
1.5091,-5.12,504.5132,34.7079,-9.5571,-4.5264,23.6417,25.6532,-12.5744,-8.5504,11.9818,-11.5687,-134.3019,13.5812,
-0.50336,0.50336,503.5074,37.7252,-3.5206,-4.5274,26.6589,30.683,-4.5274,-6.5389,26.9818,-3.5206,-130.2779,10.5629,
-7.0423,-12.072,488.5074,34.2046,-14.0845,0,30.1805,30.1805,0,-1.0058,17.1018,-14.0845,-142.8533,1.0058,
-6.5389,-12.5754,476.3451,37.7252,-22.6349,1.5091,24.6474,38.7319,-1.5091,-1.5091,7.5456,-2.5149,-141.3442,9.5571,
-9.5571,-12.5754,479.3634,38.731,-27.6657,-6.5389,15.5927,39.7377,-10.5629,-6.5389,6.5389,12.4851,-130.2784,17.6052,
-24.1445,-24.1445,471.8182,29.1743,-30.1801,-12.0725,12.0725,33.1983,-19.1138,-5.0303,5.0303,12.0725,-135.811,17.1023,
-25.6532,-32.6954,461.2549,17.6052,-26.6589,-14.5869,16.5994,28.6714,-13.5812,-2.5149,11.5696,4.5274,-150.398,2.5149,
-10.6532,-20.6229,471.3149,28.6719,-11.6589,-4.5269,31.5994,38.7315,-0.50288,6.5394,26.5696,-10.4726,-137.3197,-5.5327,
1.0062,-15.0898,464.776,26.1561,-1.0062,-2.012,32.1926,48.2886,-13.0783,17.1023,28.1685,-7.0418,-122.3197,-10.06,
-13.0783,-19.1138,449.776,15.0908,-5.0303,-6.036,22.1321,49.2944,-24.1436,24.1445,13.1685,7.9582,-116.6968,-8.0475,
-15.5932,-21.6287,434.776,24.6469,-10.5634,-4.5269,22.6354,41.7497,-24.6469,9.1445,6.5394,4.5269,-131.6968,-6.5394,
-12.5749,-13.5816,433.0863,34.7074,-9.5576,2.5144,29.6767,42.7555,-22.6354,0.50288,21.5394,-10.4731,-139.3322,-0.50288,
-20.12,-18.1085,418.0863,19.7074,-20.12,-10.0605,14.6767,35.2103,-33.1978,3.0182,6.5394,0,-140.8413,0,
-20.12,-16.096,403.0863,15.0903,-26.1565,0,7.0423,39.2343,-19.1143,0,-8.4606,13.0778,-139.8351,4.024,
-27.6652,-19.6172,388.0863,21.6296,-28.6709,13.5816,12.5749,43.7612,-11.5691,-7.5451,-8.5509,11.5691,-154.4224,7.5451,
-31.1858,-27.1618,373.0863,16.0965,-29.1743,-1.4184,7.0418,38.2281,-25.1503,-1.0062,1.0062,22.1321,-160.9613,10.06,
-16.1858,-18.6114,367.6964,21.6297,-14.5874,-7.5451,21.6297,53.2281,-10.1503,13.9938,6.5394,14.5874,-145.9613,-4.94,
-29.1743,-23.1383,361.157,26.1565,-23.1383,5.0298,19.1143,53.3188,0,3.0182,0,-0.41261,-130.9613,-19.94,
-25.6532,-11.5687,355.6239,41.1565,-20.6234,13.5812,14.5869,48.7915,-3.5206,3.5206,15,-15.4126,-133.2962,-8.5514,
-26.1565,-25.1498,346.0667,26.1565,-31.1863,-1.4188,0,33.7915,-18.5206,4.024,17.1018,-0.41261,-141.8471,3.0182,
-25.6532,-29.6772,352.6066,23.6417,-24.6474,1.5091,9.5571,35.7137,-5.5331,5.5331,7.5456,-1.5091,-129.2721,-2.5149,
-36.7199,-21.6297,337.6066,24.6469,-24.6479,1.5086,7.5451,29.6767,-1.5096,0.50288,2.5144,-9.5576,-143.3567,-0.50288,
-31.1868,-6.6297,336.0067,29.1743,-29.1743,-3.0178,1.0062,24.1445,-16.5096,-1.0062,4.0235,5.4424,-146.8773,8.0475,
-24.6474,-0.50336,345.5643,29.6772,-25.6532,2.5149,4.5274,33.7012,-31.5096,-3.5206,-1.5091,17.6052,-134.3024,0.50336,
-31.1868,-14.084,330.5643,26.1561,-23.1388,4.0235,6.036,33.1983,-27.1628,-5.0303,-2.012,2.6052,-137.8235,6.036,
-23.1378,-18.108,315.5643,28.1685,-31.1858,-1.0062,5.0303,25.1503,-19.1138,-8.0475,1.0062,1.0062,-141.8471,19.1138,
-11.0658,-13.0783,315.8867,26.1561,-26.1561,1.0062,6.036,29.1743,-25.1503,-9.0543,-1.0062,12.0725,-132.7933,13.0783,
-12.0725,-8.0485,308.8444,23.1378,-19.1148,6.036,8.0475,36.2166,-22.1321,-4.0245,-1.0062,9.0543,-134.8053,1.0062,
-16.5994,-3.5216,293.8444,34.707,-29.6772,1.5091,13.5812,30.683,-16.5994,-3.5216,13.9938,3.5206,-146.3744,-1.5091,
-19.1138,-7.0418,285.7061,39.2348,-31.1858,-2.012,8.0485,28.1685,-25.1503,-6.036,15.0898,8.0485,-143.8591,2.012,
-20.6229,-2.5154,289.2277,38.7315,-20.6229,4.5269,3.5211,42.7555,-26.6594,2.5154,0.089797,5.5327,-128.8591,-4.5269,
-21.6292,1.5091,282.185,46.779,-26.6589,7.5447,18.5211,47.7857,-16.5994,7.5447,-14.5869,-1.5091,-129.2721,-13.5812,
-30.6834,-9.5567,267.185,43.7612,-30.6834,2.5154,32.6959,35.7132,-22.6354,3.5211,-0.50288,0.50288,-136.3139,-7.5451,
-36.719,-24.5567,252.185,28.7612,-16.5989,0.50288,17.6959,34.7074,-34.7074,-0.50288,-14.5874,8.5509,-135.3082,7.4549,
-29.6772,-24.6474,237.185,20.6225,-7.5456,5.5331,12.5744,39.7367,-25.6532,-7.5456,-5.5331,17.6052,-139.3327,12.5744,
-20.1205,-23.1388,222.185,22.1321,-18.108,6.036,19.1138,36.2166,-18.108,-5.0303,9.4669,5.0303,-146.8773,-2.4256,
-9.5576,-20.6239,207.185,28.6709,-30.6834,3.5211,23.6412,35.7132,-30.6834,3.5211,24.4669,-9.9697,-133.2966,-3.5211,
-2.012,-5.6239,192.185,36.2166,-15.6834,12.0725,38.2281,43.2588,-39.2339,-11.0658,9.4669,-2.012,-118.2966,11.4789,
-11.5696,2.5149,177.185,27.6647,-0.68343,14.5869,34.707,40.7435,-38.731,-22.6349,-5.5331,-12.5754,-115.1881,-2.5149,
-13.0783,-4.0245,162.185,26.1561,-1.0062,13.0783,19.707,43.2588,-23.731,-7.6349,2.012,-24.1445,-111.667,-5.0303,
-14.0845,-11.0663,147.185,31.1863,-16.0062,4.024,9.0538,39.2343,-30.1806,-4.024,8.048,-10.0595,-116.6968,7.0423,
-9.5571,-9.5571,134.3024,34.707,-14.5869,8.5514,20.6234,35.7137,-33.7012,-12.5754,14.5869,4.9405,-128.2664,-6.5389,
-14.5869,-24.5571,131.2842,28.6714,-20.6225,1.5091,13.5812,38.7319,-18.7012,2.4246,8.5514,-1.5091,-132.2899,-21.5389,
-20.6234,-33.7012,117.1996,33.7012,-24.6474,-7.5447,8.5514,47.7857,-21.6292,5.5331,9.5571,8.5514,-132.2904,-6.5389,
-25.1498,-19.1143,102.1996,26.1565,-16.096,-1.0058,13.0778,38.2286,-36.6292,-9.4669,4.024,22.1325,-142.8533,1.0058,
-10.1498,-4.1143,89.0316,34.7079,-1.096,13.9942,28.0778,37.7252,-51.6292,-24.4669,-10.976,7.1325,-127.8533,-1.5091,
0.50336,-13.5812,74.0316,42.755,2.5149,5.5331,34.707,39.7377,-51.8097,-33.7012,-25.976,-7.8675,-112.8533,-0.50336,
-2.5154,-11.5691,59.0316,33.7017,-0.50288,0.50288,31.6892,35.7132,-60.8635,-18.7012,-10.976,-21.6297,-97.8533,0.50288,
-0.50288,-12.5749,44.0316,19.6172,-0.50288,0.50288,24.6469,24.6469,-64.8875,-3.7012,4.024,-6.6297,-112.1699,-6.5394,
-10.5629,-27.5749,29.0316,18.6109,1.5091,-1.5091,23.6417,26.6599,-56.8395,-4.5264,6.5389,2.5149,-119.2116,-6.5389,
-13.0783,-23.1378,17.1023,31.1858,-1.0062,11.0658,21.1263,41.6599,-41.8395,-1.0062,1.0062,-3.0178,-112.6727,8.4611,
-13.0783,-25.1503,5.0303,21.1263,-16.0062,7.0418,6.1263,44.2646,-41.2463,-1.0062,7.0418,-16.0965,-110.6612,1.0062,
-2.012,-26.157,-9.9697,23.1378,-16.0965,2.012,19.1138,53.3184,-32.1926,-3.0187,19.1138,-1.0965,-103.6194,5.0293,
-6.0365,-21.1268,-24.9697,38.1378,-14.0845,5.0298,34.1138,51.3064,-31.1863,-5.0298,17.1018,13.9035,-118.6194,20.0293,
-6.0365,-23.1383,-35.2103,43.2583,-15.0903,6.0365,30.1806,42.2526,-41.2459,-7.0423,7.0423,18.1085,-132.7933,20.12,
8.9635,-15.5927,-33.7012,50.804,-2.5149,10.5629,24.6474,48.7915,-32.6954,1.5091,14.5869,3.1085,-117.7933,5.12,
0.50288,-19.6172,-48.7012,35.804,-16.5999,1.5086,21.6287,38.7315,-34.7074,0.50288,11.5691,-0.50288,-117.2001,-9.88,
-7.5451,-26.6594,-63.7012,26.6594,-21.6287,3.5211,36.6287,38.7315,-38.7315,5.5336,8.5509,6.5394,-132.2001,-3.5211,
5.0307,-24.1441,-78.7012,39.2343,-7.0423,5.0307,39.2343,43.2583,-42.2521,4.024,8.048,-4.024,-117.2001,-18.5211,
18.6114,-9.1441,-87.02,52.815,7.9577,0.50288,30.6834,40.743,-31.6892,-5.5327,23.048,-0.50288,-102.2001,-23.6412,
3.6114,-2.0115,-102.02,48.2881,0,-2.0115,23.1383,36.2161,-31.1863,-20.5327,15.0903,0,-115.691,-8.6412,
-1.0062,1.0062,-87.5229,58.3481,-9.0543,12.9885,29.1743,51.2161,-16.1863,-12.0725,0.090276,13.0783,-128.7693,6.3588,
-4.024,3.0182,-72.5229,54.3246,-18.1076,14.0845,15.0903,55.3304,-3.0182,-17.1018,-14.9097,28.0783,-130.7808,14.0845,
-2.012,1.0062,-57.5229,49.2944,-8.0485,-0.91549,11.0658,40.3304,-1.0062,-32.1018,0.090276,30.1801,-129.775,29.0845,
-2.012,-9.0543,-42.5229,42.2521,-11.0658,-1.0062,16.0965,30.1801,13.9938,-45.2703,13.0783,15.1801,-124.7448,39.2348,
-16.097,-21.1268,-27.5229,33.1978,-26.0658,4.024,7.0413,32.1921,28.9938,-38.2286,6.0355,0.18007,-122.7333,36.2161,
-31.097,-36.1268,-12.5229,18.1978,-33.1983,-4.0245,2.012,30.1801,25.1503,-47.2828,-2.012,10.06,-125.751,51.2161,
-27.6652,-43.7612,2.4771,9.5576,-18.6104,-10.5624,16.5989,26.6594,24.6479,-47.7852,0.50288,-0.50288,-112.1699,55.8333,
-15.5927,-28.7612,17.4771,23.6417,-22.6349,-10.5629,13.5812,30.683,29.6772,-35.7137,10.5629,-15.5029,-105.1276,47.7857,
-12.5754,-13.7612,32.4771,31.6887,-27.6657,-1.5091,-1.4188,32.6954,18.6109,-41.7492,3.5206,-24.6474,-120.1276,62.7857,
-5.5327,-11.5691,47.4771,26.6594,-16.5989,5.5327,13.5812,30.6834,26.6594,-36.719,-11.4794,-9.6474,-115.1881,69.9178,
-0.50336,-17.6052,62.4771,27.6657,-15.5936,0.50336,28.5812,39.7377,41.6594,-21.719,-9.5571,-3.5206,-100.1881,72.9355,
-15.5034,-23.6412,77.4771,23.6412,-30.5936,-7.5451,13.5812,38.7315,28.6709,-13.5807,-8.5509,7.5451,-110.1579,81.9898,
-23.1383,-37.2228,92.4771,17.1018,-45.5936,-13.0778,-1.4188,27.1623,24.1441,-28.5807,3.0182,16.096,-118.7092,66.9898,
-19.6176,-34.7079,107.4771,16.5994,-40.7435,-9.5571,1.5091,26.6589,33.7012,-26.6589,18.0182,1.096,-109.1521,51.9898,
-29.1738,-23.1373,122.4771,21.1268,-28.1681,0,0,36.217,22.1325,-19.1133,33.0182,-8.048,-113.6785,47.2833,
-34.7074,-20.6229,137.4771,16.5989,-29.6767,0.50288,-4.5269,31.6892,7.1325,-29.6767,18.0182,5.5336,-128.6785,43.7612,
-19.7074,-8.048,152.4771,20.121,-29.1738,0,1.0067,23.1383,5.0307,-29.1738,3.0182,-1.0058,-121.7265,32.193,
-4.7074,-1.0062,167.4771,26.1561,-19.1138,-1.0062,6.036,26.1561,3.0178,-24.1445,-2.012,-16.0058,-111.667,36.2166,
-2.5149,-0.50336,182.4771,32.6954,-4.1138,11.5687,21.036,41.1561,0.50336,-9.1445,-11.5687,-4.5274,-96.667,51.2166,
-17.5149,-12.0725,197.4771,19.1138,-19.1138,5.0303,17.1023,47.2819,-5.0303,-8.0485,-15.0898,7.0418,-105.631,36.2166,
-5.5327,-5.5327,198.687,21.6297,-34.1138,0.50288,14.5874,34.7074,-0.50288,-7.5451,-0.50288,3.5211,-113.1756,25.6537,
-1.0058,-17.1028,200.1957,22.1316,-29.1748,1.0058,20.12,36.2161,7.0423,-1.0058,-4.024,-4.024,-100.6012,28.1681,
-16.0058,-32.1028,190.1357,9.0543,-33.1983,-2.012,6.036,34.2041,2.012,-4.0235,5.0303,-4.0235,-96.5767,26.1561,
-31.0058,-22.6349,178.5665,12.5754,-38.731,-0.50336,-5.5331,33.7012,0.50336,-5.5331,20.0303,5.5331,-96.0738,31.6897,
-32.6954,-9.5571,165.4887,22.6349,-36.7194,-1.5091,0.50336,37.7252,0.50336,-0.50336,23.6407,-0.50336,-109.1521,29.6772,
-31.6892,-18.6114,150.4887,27.6652,-28.6709,1.5086,5.5327,37.7257,-11.5691,-13.5807,8.6407,-1.5086,-124.1521,23.6412,
-40.7435,-12.5754,135.4887,16.5994,-26.6589,3.5206,-2.5149,28.6714,-25.6532,-28.5807,2.5149,4.5274,-127.2601,28.6714,
-25.7435,2.4246,120.4887,10.0595,-22.1325,6.0355,-1.0058,28.1681,-32.1921,-35.2103,-3.0182,1.0058,-122.7333,39.2343,
-10.7435,5.0303,105.4887,15.0898,-21.1263,3.0178,2.012,26.1561,-44.2646,-28.1685,-18.0182,-9.0543,-137.7333,44.2646,
-4.024,0,90.4887,17.1018,-21.1268,0,4.024,23.1373,-54.3246,-33.1988,-24.145,1.0058,-147.8836,45.2699,
-0.50288,10.5634,75.4887,18.6114,-21.6296,-0.50288,1.5086,25.6527,-54.8275,-39.7372,-18.6114,0.50288,-132.8836,30.2699,
4.5269,2.5154,60.4887,18.6114,-27.6652,3.5211,-0.50288,27.6652,-51.8092,-36.719,-26.6594,-14.4971,-117.8836,15.2699,
-5.5331,5.5331,45.4887,23.6417,-18.6109,16.5994,6.5389,38.7319,-37.7252,-23.6407,-17.6052,-22.6349,-113.1756,10.5639,
-20.5331,2.5149,30.4887,15.5927,-19.6176,1.5994,0.50336,28.6714,-44.7675,-36.7194,-20.6234,-7.6349,-123.2361,9.5571,
-5.5331,1.5091,15.4887,24.6474,-9.5571,-1.5091,11.5696,27.6657,-35.7137,-21.7194,-14.5869,6.5389,-114.1819,6.5389,
-1.5091,-11.5696,3.5206,29.6772,-15.5936,4.5264,11.5687,34.707,-20.7137,-6.7194,-13.5812,-5.5331,-123.2361,5.5331,
-0.50288,-18.6114,-11.4794,28.6709,-21.6297,11.5691,10.5634,45.7737,-16.5989,0.50288,-7.5451,5.5327,-131.2842,9.5567,
1.5091,-17.6052,-26.4794,27.6657,-21.6292,10.5629,10.5629,44.7675,-18.6109,-7.5447,-1.5091,12.5754,-116.2842,7.5456,
-5.5331,-13.5812,-41.4794,35.7137,-24.6474,14.5869,1.5091,43.7617,-21.6292,-1.5091,1.5091,3.5206,-101.2842,9.5571,
-3.5211,-9.5567,-56.4794,38.7315,-19.6172,25.6537,6.5394,44.7679,-20.6229,-9.5567,16.5091,3.5211,-91.0436,10.5634,
9.5571,3.5206,-71.4794,36.7194,-5.5331,28.6714,21.5394,41.7492,-15.5927,-21.6292,31.5091,-3.5206,-96.0738,-4.4366,
4.5269,8.5509,-86.4794,31.6892,-4.5269,15.5932,20.6239,37.7257,-16.5989,-16.5989,16.5989,-8.5509,-107.1396,-15.5932,
2.5149,-6.4491,-101.4794,32.6954,-5.5331,6.5389,10.5629,41.7492,-24.6474,-21.6292,1.5989,6.4491,-108.1459,-0.59316,
5.0303,-19.1138,-116.4794,26.1561,-12.0716,-2.012,19.1148,34.205,-22.1321,-34.2041,2.012,8.0485,-93.1459,4.0245,
4.5269,-10.5634,-131.4794,15.5932,-25.6527,6.5394,13.5816,33.7017,-7.1321,-19.2041,7.5451,0.50288,-80.9836,-7.5451,
-5.0298,-9.0538,-146.4794,13.0778,-29.1738,21.1268,3.0182,40.2401,-6.0355,-4.2041,7.0423,13.0778,-95.9836,3.0182,
-6.036,-18.108,-161.4794,10.06,-17.1023,15.0898,8.0485,40.2406,-21.0355,-19.2041,6.036,8.0485,-110.6607,16.0965,
8.964,-3.5216,-176.4794,16.5984,-2.1023,8.5504,14.5869,47.7848,-14.5879,-14.5879,4.5264,-1.5091,-95.6607,1.5091,
7.5451,-3.5211,-191.4794,20.6229,-11.5691,4.5269,6.5394,40.7439,0.41213,-0.50288,3.5211,-4.5269,-90.0378,-13.4909,
5.5331,-5.5331,-206.4794,26.6589,-9.5571,15.5927,18.6109,42.755,-13.5812,-7.5456,18.5211,6.5389,-104.1223,-9.5571,
3.0178,-7.0418,-221.4794,24.1445,-7.0418,11.0658,16.0965,49.2944,-28.5812,-22.5456,3.5211,-1.0062,-98.5887,1.0062,
12.5749,0.50288,-236.4794,36.7199,-3.5211,16.5989,13.5816,64.2944,-13.5812,-11.5691,-2.5144,-0.50288,-83.5887,0.50288,
0,-9.0538,-251.4794,35.2103,-12.072,14.0845,11.0663,52.3121,-8.048,3.4309,1.0058,-6.0355,-98.5887,0,
-1.0058,-4.024,-266.4794,37.2218,-5.0298,11.0663,18.1085,43.2583,-23.048,-3.0182,3.0182,2.0115,-99.595,1.0058,
2.5149,-5.5331,-277.1552,33.7012,-2.5149,7.5447,20.6234,48.7915,-26.6589,-10.5629,6.5389,7.5447,-84.595,-8.5514,
-5.0298,-20.5331,-283.6946,32.1921,-12.072,2.0115,14.0836,56.3361,-12.072,4.4371,10.0595,-1.0058,-75.4509,1.0058,
-14.084,-27.1628,-293.7546,37.2223,-20.1205,1.0062,4.0235,56.3366,-26.1561,10.06,-1.0062,4.0235,-79.4749,8.0475,
-8.0475,-12.1628,-295.7666,40.2406,-19.1138,16.0062,4.0245,59.3549,-34.2041,1.0062,-5.0303,19.0235,-85.5104,15.0898,
-3.5211,2.8372,-296.2695,41.7497,-18.6114,31.0062,3.5211,58.8515,-35.7132,-7.5451,-3.5211,34.0235,-100.5104,30.0898,
-3.5211,17.8372,-295.2633,42.7555,-19.6172,46.0062,3.5211,56.84,-32.695,-8.5509,-9.5567,19.0235,-94.0613,41.7497,
6.036,32.8372,-289.7306,45.2703,-26.1561,61.0062,7.0418,67.4019,-25.1503,-3.0178,-7.0418,4.0235,-79.0613,26.7497,
10.5629,37.7252,-297.2757,40.7435,-32.6954,68.9115,4.5274,67.9058,-32.6954,-7.5447,5.5331,-8.5514,-90.0378,11.7497,
-4.4371,22.7252,-307.8387,32.1926,-35.2098,67.4029,1.0062,65.3904,-29.1743,-7.0418,-1.0062,5.0303,-87.5224,19.1138,
-19.4371,12.5754,-302.3055,39.7377,-35.7132,70.924,5.5331,76.9595,-14.5869,7.9582,-13.5812,-5.5331,-72.5224,14.5869,
-12.5754,14.5869,-305.3238,45.7732,-43.7617,67.9058,2.5149,72.9355,-24.6474,5.5331,-4.5274,-0.50336,-68.9115,0.50336,
-12.5749,7.5451,-320.3238,40.7439,-53.8208,57.8457,-7.5451,57.9355,-39.6474,-9.4669,7.5451,14.4966,-83.9115,15.5034,
-27.5749,2.012,-313.8747,40.2406,-47.2828,57.3424,-7.0418,55.3299,-32.1926,-2.012,6.036,29.4966,-89.5349,30.5034,
-33.7017,-3.5211,-304.318,39.7372,-35.7132,50.8035,4.5269,63.8813,-22.6354,3.5211,-5.5336,14.4966,-82.996,15.5034,
-18.7017,5.0303,-289.318,51.3059,-29.1743,58.3481,19.5269,78.4682,-15.0898,13.0783,-3.0178,-0.50336,-67.996,0.50336,
-3.7017,1.5091,-296.2695,41.7492,-44.1743,62.876,8.5514,72.9355,-29.6772,12.5754,-5.5331,-2.5149,-64.8875,-1.5091,
-18.7017,0,-311.2695,30.1806,-38.2276,60.3611,-6.4486,57.9355,-42.2516,0,9.4669,12.4851,-79.8875,13.4909,
-33.7017,4.5269,-326.2695,25.6537,-26.6594,57.8457,-4.5269,54.8275,-42.7555,-14.5874,24.4669,10.5634,-85.0076,26.6594,
-48.7017,-1.0062,-340.0307,24.1445,-37.2223,57.3424,-5.0303,66.3962,-35.2098,0.41261,20.1205,7.0418,-70.4206,11.6594,
-52.3121,-16.0062,-336.0067,27.1628,-42.2521,52.3126,-10.06,68.4086,-30.1801,15.4126,10.06,13.0783,-74.4447,15.0908,
-37.3121,-17.1028,-322.9294,30.1796,-27.2521,46.2756,0,65.3899,-38.2286,14.0836,0,13.0778,-89.4447,11.0653,
-22.3121,-2.1028,-311.8627,29.1748,-17.1018,38.2286,5.0298,61.3669,-53.2286,0,-15,0,-96.5767,9.0538,
-7.3121,4.0235,-300.7969,26.1561,-32.1018,33.1983,-1.0062,58.3481,-48.2886,15,-29.1743,-8.0485,-90.5407,23.1378,
-2.5154,-10.9765,-290.2335,18.6114,-46.7795,34.7074,-2.5154,59.8573,-33.2886,30,-14.1743,6.9515,-81.9898,17.6047,
-17.5154,-25.9765,-283.6946,22.1321,-46.2766,40.2406,-7.0418,66.3962,-22.1321,20.1205,0.82569,21.9515,-71.4264,7.0418,
-30.6834,-11.5691,-272.1254,34.7074,-49.7977,43.7612,-16.5989,69.9178,-21.6297,11.5691,15.8257,22.6354,-70.9235,13.5807,
-29.1738,3.0182,-263.5741,35.2103,-51.3064,39.2343,-21.1258,63.3784,-24.1441,4.024,24.1441,7.6354,-81.4864,4.024,
-14.1738,18.0182,-248.5741,42.755,-36.3064,49.7972,-6.5389,65.8933,-34.7079,1.5091,14.5869,4.5264,-66.4864,-1.5091,
0.82617,27.1623,-233.5741,44.2651,-26.1556,52.3131,-1.0058,58.3486,-43.2583,-13.4909,10.0605,0,-58.3481,0,
15.8262,32.1926,-218.5741,47.2819,-18.108,62.3721,5.0303,60.3606,-28.2583,-24.1445,13.0783,-9.0543,-73.3481,-5.0303,
0.82617,27.6652,-203.5741,47.7852,-28.6709,62.8755,4.5269,62.8755,-13.2583,-25.6537,-1.9217,-7.5451,-86.0138,0.50288,
-10.06,19.1138,-195.1654,50.3001,-41.2463,50.3001,1.0062,59.3549,1.0062,-12.0716,-16.9217,-1.0062,-72.4327,15.5029,
1.0062,9.0543,-180.1654,47.2828,-26.2463,36.2166,-2.012,60.3606,16.0062,-3.0178,-1.9217,-1.0062,-76.4567,30.5029,
-6.036,-3.0178,-169.0098,32.2828,-11.2463,24.1436,1.0062,57.3424,31.0062,-2.012,13.0783,-1.0062,-76.4567,39.2339,
-21.036,-18.0178,-183.0934,17.2828,-10.0595,9.1436,-1.0058,42.3424,43.2583,-1.0058,15.0903,9.0538,-62.3726,24.2339,
-18.6109,-28.6714,-171.5247,14.5869,-10.5629,-5.8564,2.5149,45.7732,58.2583,-2.5149,13.5812,24.0538,-60.8635,39.2339,
-6.5394,-31.6892,-156.5247,15.5932,-16.5989,-19.6172,6.5394,56.84,73.2583,-15.5932,28.5812,23.6412,-68.9115,51.8092,
-5.0303,-23.1378,-144.8648,21.1263,-14.084,-11.0658,11.0667,64.3846,74.4451,-15.0898,43.5812,8.6412,-53.9115,51.3068,
-14.5874,-27.6652,-157.4402,6.5394,-4.5269,-8.5509,4.5269,51.8092,59.4451,-17.6056,28.5812,6.5394,-54.8275,51.8092,
-17.6052,-35.7137,-153.4167,1.5091,-1.5091,-9.5571,8.5504,44.7675,44.4451,-4.5274,13.5812,9.5571,-69.8275,48.7915,
-32.1916,-46.2761,-155.9311,4.0245,-16.5091,-18.108,6.036,48.2886,55.3309,-2.012,2.012,4.0245,-73.4384,33.7915,
-34.707,-38.731,-160.4585,10.5629,-10.5629,-3.5206,1.5091,55.8337,64.8875,-1.5091,7.5447,19.0245,-58.4384,42.755,
-49.707,-32.695,-162.4705,10.5634,-25.5629,-3.5211,-13.4909,40.8337,49.8875,3.5211,6.5394,28.6709,-66.8995,52.815,
-52.8155,-20.6234,-148.3864,20.6234,-37.7252,-8.5514,-27.6657,44.7675,36.7194,18.5211,8.5514,42.755,-81.8995,67.815,
-40.743,-20.6229,-141.3442,13.5807,-34.7074,-4.5269,-26.6594,55.8333,25.6537,4.5269,4.5269,57.755,-68.9115,79.9773,
-25.743,-21.6292,-126.3442,15.5927,-23.6417,-0.50336,-11.6594,50.803,25.6532,-7.5447,7.5447,42.755,-53.9115,65.8933,
-18.6114,-35.7132,-111.3442,19.6172,-20.6229,-15.5034,3.3406,40.743,35.7132,7.4553,9.5567,27.755,-58.8515,50.8933,
-5.5331,-44.7675,-96.3442,17.6052,-11.5687,-30.5034,8.5514,47.7857,41.7492,17.6052,11.5696,12.755,-64.8875,35.8933,
-14.5869,-59.7675,-109.1516,2.6052,-18.6109,-27.6647,4.5274,40.7435,30.683,4.5274,6.5389,13.5812,-69.9173,20.8933,
-29.5869,-56.8395,-112.1699,1.5091,-25.6532,-16.5994,-1.5091,46.779,40.7435,10.5629,12.5754,17.6052,-61.8697,15.5927,
-34.7074,-54.8275,-114.1819,16.5091,-31.6892,-18.6114,-14.5874,56.84,49.7977,14.5874,16.5989,15.5932,-57.8453,15.5932,
-39.2343,-54.3246,-124.7453,22.1316,-27.1623,-23.1383,-11.0663,48.2881,39.2343,15.0903,11.0663,11.0663,-58.3486,19.1143,
-45.2699,-44.2641,-119.715,19.1143,-25.1498,-26.1565,-3.0182,38.2286,24.2343,10.0605,3.0182,7.0423,-66.3966,9.0538,
-34.7074,-34.7074,-113.1761,23.6412,-25.6537,-28.6719,-0.50288,45.7728,9.2343,2.5144,5.5327,10.5624,-68.912,2.5144,
-19.7074,-24.1441,-113.679,33.1988,-16.096,-21.1258,9.0538,54.3246,-3.0182,8.048,3.0182,15.0903,-57.3424,13.0778,
-17.1023,-22.1321,-114.6848,33.1983,-10.06,-16.0965,6.036,53.3184,11.0658,17.1023,-6.036,15.0898,-55.3304,7.0418,
-18.108,-13.0783,-101.6065,41.2463,-5.0303,-1.0965,1.0062,63.3789,26.0658,23.1388,8.964,13.0783,-56.3361,-2.012,
-18.6109,-3.5206,-94.0618,52.8155,-20.0303,3.5206,-9.5571,65.8933,41.0658,24.6474,23.964,7.5447,-65.8933,-8.5514,
-14.5869,-4.5274,-88.0258,54.828,-34.7074,0.50336,-0.50336,66.9,41.7492,33.7012,18.6109,22.5447,-68.9115,-22.6349,
-6.036,-19.5274,-90.5407,39.828,-19.7074,-14.4966,9.0543,51.9,26.7492,19.1138,6.036,16.0965,-75.4504,-37.6349,
5.0298,-34.5274,-93.5589,24.828,-4.7074,-29.4966,7.0423,36.9,11.7492,5.0298,-3.0182,1.0965,-63.3784,-52.6349,
1.0058,-40.2401,-97.583,13.0778,10.2926,-43.2583,8.048,34.2046,-1.0058,7.0423,-18.0182,16.0965,-48.3784,-63.3789,
4.024,-39.2348,-82.583,27.1623,25.2926,-42.2526,23.048,49.2046,-6.0365,22.0423,-4.024,31.0965,-42.2526,-48.3789,
-10.976,-44.2646,-85.5109,15.0898,26.1561,-54.3246,13.0783,44.2646,-21.0365,15.0898,10.976,17.1023,-57.2526,-42.2521,
-4.5269,-29.2646,-74.9475,30.0898,26.6594,-40.7435,18.6114,54.8275,-6.0365,13.5816,17.6056,2.1023,-62.8755,-52.8155,
5.0303,-22.1321,-59.9475,45.0898,34.2041,-40.2401,33.1983,63.3789,3.0178,10.06,2.6056,-3.0178,-58.3486,-67.8155,
9.5571,-27.6652,-44.9475,43.7617,35.7137,-36.7194,34.707,63.8818,-4.5274,20.6234,4.5274,-12.5754,-58.8515,-82.8155,
-3.0182,-29.1743,-29.9475,30.1806,21.1268,-37.2223,19.707,56.3371,3.0182,22.1325,16.096,-6.0355,-55.3304,-80.4807,
-18.0182,-39.7372,-19.6172,15.1806,6.1268,-52.2223,4.707,41.3371,0.50288,7.1325,2.5154,2.5154,-56.8395,-89.0316,
-33.0182,-45.7732,-4.6172,1.5091,6.5389,-53.8212,4.5274,39.7377,-1.5091,6.5389,1.5091,4.5274,-52.8155,-80.9836,
-26.1561,-44.2646,10.3828,7.0418,16.0956,-45.2708,12.0716,43.2579,-6.036,14.084,-5.0303,5.0303,-54.3246,-74.4447,
-11.1561,-34.2036,25.3828,14.0845,14.0845,-52.3121,13.0788,38.2286,-10.0595,7.0423,-9.0538,12.072,-52.3121,-71.4264,
2.5154,-34.7074,40.3828,4.5269,7.5451,-57.8453,4.5269,31.6892,-19.6172,-0.50288,-3.5211,0.50288,-58.8515,-64.8875,
7.0418,-35.2108,55.3828,5.0303,22.5451,-42.8453,7.0418,34.2041,-16.0965,-5.0303,8.0475,-6.036,-61.3669,-57.3429,
-2.5149,-29.6772,70.3828,7.5447,26.6589,-32.6954,8.5504,32.6954,-3.5216,-8.5514,3.5206,2.5149,-54.828,-57.8457,
-10.5629,-22.6349,78.972,7.5447,11.6589,-41.7492,1.5091,34.707,0.50336,-0.50336,-1.5091,9.5571,-45.7732,-51.8097,
-5.0298,-30.1796,87.5234,9.0547,0,-41.2459,-1.0058,43.2583,0,6.0365,10.0605,6.0365,-38.2276,-43.2583,
-10.5634,-45.1796,102.5234,2.5154,7.5451,-41.7497,1.5086,36.719,-1.5086,-0.50288,10.5634,0.50288,-42.7555,-46.7795,
-17.1028,-47.2828,117.5234,-3.0182,8.048,-40.2401,9.0538,37.2218,3.0182,5.0298,-1.0058,1.0058,-49.2948,-42.2526,
-16.096,-37.2223,132.5234,5.0298,12.072,-37.2223,19.1143,51.3064,5.0298,19.1143,-7.0423,-5.0298,-53.3184,-41.2463,
-6.5394,-28.6714,147.5234,20.0298,22.6354,-27.6657,20.6229,54.8275,0.50288,21.6287,-11.5691,-0.50288,-41.7497,-48.7915,
-3.5211,-17.6047,162.5234,30.6834,11.5691,-21.6287,7.5451,48.792,-14.4971,6.6287,-8.5509,8.5519,-42.755,-46.779,
-1.5091,-2.6047,177.5234,30.683,2.5149,-20.6234,6.5389,51.8088,-25.6532,-3.5216,1.5091,13.5812,-54.828,-31.779,
-1.0058,-5.0298,192.5234,27.1623,7.0423,-26.1565,10.0595,47.2824,-25.1508,1.0058,-13.4909,13.0778,-55.3309,-21.1268,
-4.024,-16.096,207.5234,21.1268,12.072,-26.1556,7.0423,42.2526,-10.1508,4.024,-16.096,14.0845,-47.2824,-28.1681,
-9.0547,-22.1325,222.5234,16.096,-2.928,-29.1748,4.024,42.2526,-6.0365,6.0355,-1.096,6.0355,-56.3366,-43.1681,
-4.5274,-26.6589,237.5234,9.5571,-1.5091,-25.6532,12.5754,46.779,-17.6052,11.5687,13.904,1.5091,-52.8155,-48.7915,
-1.5091,-39.7372,252.5234,-1.5091,13.4909,-20.6234,15.5936,51.8097,-10.5629,16.5994,1.5091,4.5274,-37.8155,-40.7435,
-10.0595,-50.3001,267.5234,-3.0182,28.4909,-34.2041,13.0787,49.2948,0,15.0903,0,6.0365,-38.2281,-41.2463,
-25.0595,-56.3361,282.5234,2.012,15.0908,-49.2041,13.0783,42.2521,-10.06,11.0667,-2.012,2.012,-49.2944,-50.3001,
-15.5932,-41.3361,297.5234,17.012,23.6412,-42.7555,18.6114,53.8217,-7.5451,23.6412,-7.5451,7.5451,-34.7074,-41.7497,
-0.59316,-28.1681,312.5234,23.1383,22.1325,-44.2641,9.0547,48.2891,-17.1018,10.0605,-10.0595,0,-43.2583,-40.2401,
14.4068,-15.5932,327.5234,28.6709,24.6469,-39.7372,24.0547,50.8035,-14.5874,-4.9395,0.50288,-0.50288,-43.7612,-41.7492,
22.1321,-10.06,342.5234,40.2406,34.2041,-32.1926,39.0547,60.3606,-6.036,-3.0178,3.0178,-4.0245,-37.2223,-45.2703,
7.1321,-21.1263,357.5234,34.2041,19.2041,-29.1743,24.0547,51.3059,-21.036,6.036,-9.0543,-6.036,-45.2708,-50.3006,
-7.8679,-16.096,372.5234,32.1921,13.0778,-21.1258,11.0663,50.3006,-35.2103,7.0423,-7.0423,8.964,-41.2463,-46.2766,
-19.1133,-17.1018,387.5234,31.1863,16.097,-29.1738,14.0845,53.3188,-20.2103,4.024,-4.024,16.097,-31.1854,-45.2699,
-7.5451,-22.6354,402.5234,27.6652,12.5749,-33.7007,7.5451,48.792,-16.5989,3.5211,-3.5211,9.5576,-28.6709,-35.7132,
-1.0062,-22.1321,417.5234,19.1138,13.0783,-21.1263,11.0658,45.2703,-31.5989,1.0062,-2.012,14.084,-28.1685,-33.1983,
-15.0898,-35.2103,432.5234,9.0543,28.0783,-21.1263,26.0658,49.2944,-37.2223,9.0543,-6.036,6.036,-27.1623,-42.2526,
-9.5567,-42.7555,447.5234,24.0543,32.695,-27.6652,34.7074,59.8573,-22.2223,21.6287,0.50288,-0.50288,-36.7194,-37.7252,
-10.06,-51.3064,462.5234,23.1388,17.695,-41.2463,19.7074,53.3184,-14.084,6.6287,-2.012,3.0178,-51.7194,-48.2881,
-15.0898,-51.3064,477.5234,9.0543,2.695,-44.2646,9.0543,44.2646,-29.084,2.012,1.0062,13.0783,-40.2406,-59.3544,
-17.1028,-43.2583,492.5234,15.0903,12.072,-39.2343,8.048,45.2699,-36.2161,12.072,-1.0058,1.0058,-45.2708,-51.3068,
-9.5567,-28.2583,507.5234,30.0903,23.6412,-24.2343,18.6114,60.2699,-21.6287,18.6114,-1.5086,1.5086,-44.7675,-36.3068,
-3.0178,-13.2583,522.5234,36.2166,18.108,-9.2343,21.1263,67.4029,-29.1743,16.0965,-10.06,3.0178,-29.7675,-39.2343,
3.5211,-10.5634,537.5234,28.6709,13.5807,-20.6239,14.5864,52.4029,-44.1743,11.5691,-13.5816,-3.5211,-28.6719,-46.78,
4.5269,-10.5634,552.5234,35.7132,17.6056,-18.6114,19.6172,50.8035,-40.7435,9.5576,-5.5327,-4.5269,-43.6719,-35.7132,
-1.5086,-9.5567,567.5234,42.7555,22.6354,-4.5269,34.6172,65.8035,-25.7435,16.5989,1.5086,-2.5154,-37.7252,-35.7132,
-10.5634,-19.6172,582.5234,42.7555,27.6652,0.50288,39.7372,68.912,-10.7435,23.6412,-1.5086,-0.50288,-22.7252,-35.7132,
-11.5691,-24.6474,597.5234,35.7132,22.6354,-4.5269,32.695,67.9053,-23.6412,14.5874,-0.50288,0.50288,-26.6594,-30.6834,
-11.0658,-22.1321,612.5234,29.1743,13.0783,-1.0062,32.1926,69.4144,-34.2041,10.06,1.0062,-2.012,-27.1623,-32.1921,
-19.1143,-29.1743,627.5234,22.1321,3.0178,1.0062,31.1858,67.4029,-19.2041,16.0956,-7.0418,-1.0062,-24.1445,-30.1806,
-27.1623,-38.2286,642.5234,20.1196,3.0178,-7.0418,25.1503,66.3962,-4.2041,10.06,-8.0485,4.0235,-26.1565,-28.1685,
-23.6412,-30.683,657.5234,24.6474,9.5571,-5.5331,29.6772,68.9115,-1.5091,1.5091,2.5149,-5.5331,-22.6349,-32.695,
-19.6172,-27.6652,672.5234,23.6417,7.5456,-4.5264,35.7137,65.8942,11.5696,-2.5149,2.5149,-4.5264,-23.6412,-17.695,
-32.695,-36.719,687.5234,11.5691,-7.4544,-12.5749,20.7137,55.8342,22.6354,-17.5149,-3.5211,3.5211,-38.6412,-2.695,
-25.1498,-21.719,702.5234,18.1085,-4.024,-1.0058,5.7137,59.3544,35.2103,-21.1258,4.024,-6.0365,-39.2343,12.305,
-14.5874,-9.5576,717.5234,16.5989,3.5211,-3.5211,8.5509,49.7977,39.7372,-18.6114,-10.976,-21.0365,-33.7017,12.5749,
-13.0783,-11.0658,732.5234,11.0658,18.5211,-15.0898,23.5509,48.2886,54.3241,-14.084,-24.1445,-20.1205,-22.1321,26.1561,
-17.1023,-25.1503,747.5234,9.0543,12.0725,-20.1205,38.5509,47.2828,54.3241,-18.108,-20.1205,-9.0543,-17.1023,23.1378,
-2.1023,-20.1196,762.5234,22.1321,-2.9275,-6.036,33.1983,62.2828,66.3971,-8.0475,-9.0543,-12.0715,-7.0418,24.1445,
-4.0235,-13.0773,777.5234,19.1148,-9.0533,-2.012,26.157,73.4394,81.3971,2.012,-2.012,-7.0418,-17.1013,39.1445,
-19.0235,-19.1138,792.5234,16.0956,-4.0245,-4.0245,28.1685,68.4086,69.4144,-1.0062,1.0062,-2.012,-28.1685,52.3126,
-34.0235,-31.6897,807.5234,8.5514,-16.5994,-1.5091,13.1685,55.8337,54.4144,-10.5629,1.5091,-2.5149,-25.6532,50.803,
-31.6892,-22.6354,822.5234,-5.5327,-20.6229,1.5086,1.5086,52.815,39.4144,-4.5269,0.50288,-0.50288,-26.6594,57.8457,
-32.6954,-19.6176,837.5234,-8.5514,-14.5869,-13.4914,9.5571,40.7435,40.7435,3.5206,-0.50336,0.50336,-31.6897,65.8933,
-38.2281,-34.6176,852.5234,-4.0235,-21.1263,-28.4914,15.0898,27.1618,32.1926,-2.012,2.012,4.0245,-25.1503,66.3962,
-24.6474,-27.6657,867.5234,10.5629,-21.6292,-13.4914,12.5744,42.1618,31.6887,-2.5149,2.5149,-5.5331,-19.6176,60.8635,
-30.1801,-12.6657,882.5234,16.0965,-22.1321,1.5086,-2.012,57.1618,28.1685,-8.0475,-12.0715,-20.5331,-31.1858,50.3001,
-44.7675,2.3343,897.5234,11.5696,-34.707,16.5086,-9.5571,53.8212,19.6176,-10.5629,-25.6532,-17.6052,-29.6772,61.8702,
-49.2948,6.0355,912.5234,4.024,-49.707,24.1441,-16.096,44.2641,4.6176,-17.1018,-39.2343,-4.024,-44.6772,65.3909,
-44.2641,14.0836,927.5234,9.0538,-64.707,37.2219,-16.096,56.3361,17.1018,-14.0845,-36.2161,-9.0538,-59.6772,52.3121,
-49.7977,9.5567,942.5234,10.5634,-67.9058,31.6892,-17.6047,57.8457,16.5989,-9.5567,-26.6594,-11.5691,-57.8457,37.3121,
-36.2161,7.0423,957.5234,13.0778,-57.3429,35.2103,-7.0423,58.3486,1.5989,0,-13.0778,-2.0125,-42.8457,40.2401,
-27.1618,1.0062,972.5234,7.0418,-57.3424,44.2646,-1.0062,70.4202,7.0418,-2.012,-3.0178,-10.06,-36.2166,31.1858,
-42.1618,-13.9938,987.5234,0,-66.3966,31.1863,0,72.4322,20.12,-13.0778,7.0423,-19.1143,-46.2766,16.1858,
-57.1618,-21.1263,1002.5234,-1.0062,-71.4264,27.1628,7.0427,65.3904,14.084,-14.084,6.036,-20.1196,-42.2521,1.1858,
-42.1618,-11.0663,1017.5234,1.0058,-61.3664,38.2286,12.072,69.4149,10.0605,-1.0058,-8.048,-19.1143,-42.2521,15.0903,
-39.2339,-19.1138,1032.5234,6.036,-54.3246,33.1983,1.0062,68.4086,1.0062,-1.0062,-23.048,-14.084,-54.3246,16.0965,
-36.7194,-18.6109,1047.5234,20.6234,-49.7977,19.6167,2.5149,60.8635,-1.5091,-0.50336,-27.6657,0.50336,-55.8337,11.5687,
-21.7194,-20.6234,1062.5234,14.5869,-58.852,7.5447,7.5447,52.8155,3.5206,-2.5149,-32.6954,-12.5754,-65.8938,2.5149,
-21.6292,-26.6599,1077.5234,1.5091,-61.8697,12.5744,11.5687,58.851,6.5389,-1.5091,-23.6417,-19.6176,-61.8697,11.5687,
-36.6292,-36.2161,1092.5234,1.0058,-55.3309,17.1018,7.0423,55.3304,-2.0125,1.0058,-8.6417,-5.0298,-48.2881,11.0663,
-42.2516,-42.2516,1107.5234,0,-59.3544,4.024,0,43.2583,1.0067,7.0423,6.3583,-8.048,-50.3001,-3.9337,
-34.707,-40.7435,1122.5234,-0.50336,-70.9235,0.50336,3.5216,40.7435,9.5571,16.5994,4.5274,-13.5812,-51.8092,-18.9337,
-39.2343,-36.2161,1137.5234,8.048,-74.4447,9.0538,0,47.2824,0,10.0605,-10.4726,1.4188,-51.3064,-24.1441,
-27.1618,-21.2161,1152.5234,23.048,-59.4447,16.0965,8.0485,62.2824,-7.0418,7.0418,-18.108,7.0418,-49.2944,-19.1138,
-14.084,-6.2161,1167.5234,22.1321,-46.2766,15.0898,18.108,64.3846,-12.0725,9.0543,-5.0303,-7.9582,-53.3184,-21.1263,
-15.5932,4.5269,1182.5234,27.6652,-44.7675,17.6047,20.6229,59.8573,-12.5749,16.5989,-4.5269,-22.9582,-39.7377,-10.5634,
-16.0956,2.012,1197.5234,30.181,-37.2218,20.1205,24.1445,70.4211,-9.0533,19.1148,-8.0475,-7.9582,-29.1734,-8.0475,
-7.0423,3.0182,1212.5234,24.1441,-37.2223,26.1565,25.1498,80.4802,-10.0605,7.0423,-13.0778,-3.0182,-34.2046,-16.096,
-2.012,2.012,1227.5234,23.1378,-35.2108,29.1743,25.1503,77.4624,-12.0725,3.0178,-22.1321,-15.0908,-26.1561,-8.0485,
-11.5687,-7.5447,1242.5234,19.6176,-29.6772,27.6657,25.6532,66.9,-3.5206,6.5389,-15.5927,-0.090755,-21.6292,-2.5149,
-22.6349,-15.5927,1257.5234,13.5812,-44.6772,23.6417,19.6176,54.828,-1.5091,1.5091,-7.5447,14.9092,-36.6292,-17.5149,
-21.1263,-12.0725,1272.5234,17.1023,-46.2766,30.1801,29.1743,60.3606,1.0062,5.0303,-4.0245,-0.090755,-37.2223,-31.1863,
-24.1441,-22.1321,1287.5234,15.0898,-35.2103,19.1138,36.2166,62.3731,7.0418,5.0303,-5.0303,-15.0908,-22.2223,-36.2161,
-25.6532,-23.6407,1302.5234,12.5754,-29.6772,14.5879,29.6772,58.852,11.5696,-2.5149,2.5149,-14.5869,-34.707,-36.719,
-27.6657,-12.5749,1317.5234,11.5691,-34.7074,24.6469,21.6287,58.8515,4.5269,-3.5211,3.5211,-18.6114,-49.707,-36.7194,
-27.1623,0,1332.5234,17.1018,-34.2046,28.1681,34.2046,65.3909,0,2.0115,-8.048,-33.6114,-39.2343,-32.1926,
-27.6652,1.5096,1347.5234,22.6354,-29.6767,24.6479,39.7372,71.9302,-0.50288,0.50288,-16.5989,-19.6172,-24.2343,-17.1926,
-32.1926,-2.012,1362.5234,23.1378,-43.2588,23.1378,24.7372,72.4327,-5.0303,2.012,-14.084,-4.6172,-24.1445,-6.036,
-23.6412,-0.50288,1377.5234,12.5749,-42.7555,30.6834,22.6354,70.9235,-6.5394,1.5086,0.50288,-17.6047,-31.6892,-14.5874,
-15.5932,6.5394,1392.5234,10.5634,-27.7555,39.7372,37.6354,74.9475,-8.5509,-8.5509,-3.5211,-29.6772,-16.6892,-14.5864,
-21.1258,8.048,1387.2852,22.1325,-12.7555,40.2401,45.2699,78.4687,-17.1018,-2.0125,-18.5211,-14.6772,-1.6892,-1.0058,
-34.2046,-6.952,1372.2852,18.1085,-27.7555,25.2401,30.2699,67.4024,-16.096,6.0355,-33.5211,0.32281,-16.6892,-5.0298,
-29.6767,-18.6104,1368.6748,14.5874,-42.7555,11.5691,24.6479,55.8342,-1.096,11.5691,-18.5211,-0.50288,-28.6709,-15.5932,
-30.683,-10.5629,1355.5965,9.5571,-40.7435,14.5869,22.6349,47.7857,-16.096,1.5091,-3.5211,-1.5091,-40.7435,-24.6474,
-39.7372,4.4371,1340.5965,7.5451,-39.7372,29.5869,8.5509,53.8217,-31.096,-7.5451,-8.5509,8.5509,-55.7435,-14.5874,
-32.1921,19.4371,1344.0278,14.0845,-43.2579,44.5869,14.0845,65.3909,-16.096,-4.024,-10.0595,4.024,-58.3481,-9.0538,
-18.6114,19.6172,1345.5365,14.5864,-41.7497,45.7727,25.6527,60.863,-6.5394,0.50288,-0.50288,-10.976,-43.3481,-24.0538,
-13.5807,30.6834,1338.4942,20.6229,-33.7012,51.8092,33.7017,59.8573,-14.5874,0.50288,-0.50288,-9.5567,-46.7795,-39.0538,
-21.1258,34.2046,1342.0154,21.1258,-38.2286,56.3361,27.1623,72.4322,-18.1085,5.0298,-10.0605,-5.0298,-52.3126,-33.1983,
-24.6465,19.6176,1332.4582,9.5571,-46.779,41.3361,16.5994,71.9298,-22.6349,10.5639,-18.6109,-9.5571,-37.3126,-21.6292,
-9.6465,22.1325,1331.9549,18.1085,-31.779,40.2401,31.1863,63.3784,-26.1565,5.0298,-7.0423,-5.0298,-22.3126,-14.0845,
-2.5154,37.1325,1338.4942,33.1085,-16.779,55.2401,42.7555,68.912,-25.6532,2.5154,-2.5154,-2.5154,-34.7074,-23.6412,
-4.024,50.3006,1336.9856,48.1085,-24.1441,62.3726,30.1806,83.912,-21.1263,4.024,-17.5154,-12.072,-31.1863,-26.1561,
3.5211,45.7727,1331.452,44.767,-35.7137,53.8217,25.6527,81.9898,-15.5932,-3.5211,-22.6354,-21.6296,-27.6652,-15.5932,
10.06,41.2463,1324.9131,38.2281,-31.1858,45.2703,40.6527,68.4086,-13.0783,-15.0898,-10.06,-15.0898,-36.2161,-12.0715,
2.012,47.2828,1316.8651,37.2223,-29.1743,43.2588,48.2886,74.4451,-28.0783,-14.084,-5.0303,-2.012,-44.2641,-5.0303,
-12.988,32.2828,1301.8651,28.1685,-41.2463,38.2281,33.2886,61.3664,-43.0783,-12.0725,2.012,-10.06,-54.3246,-2.012,
-24.6474,17.2828,1286.8651,14.5869,-38.7315,35.7137,18.6109,46.78,-28.0783,-1.5091,17.012,-6.5389,-53.8212,-17.012,
-32.695,2.2828,1271.8651,0.50288,-40.7435,22.6354,17.6056,40.7439,-17.6047,2.5154,14.5874,-0.50288,-57.8453,-32.012,
-26.1561,-3.0187,1256.8651,3.0178,-42.2526,27.1618,16.0956,52.3126,-16.0965,15.0898,-0.41261,2.012,-53.3188,-31.1868,
-11.1561,6.036,1256.5049,14.084,-38.2281,38.2281,30.1801,57.3424,-22.1321,28.1685,-15.4126,-6.036,-53.3184,-32.1921,
-7.5451,21.036,1242.9238,25.6527,-30.6834,41.7487,39.7372,54.8275,-37.1321,13.1685,-30.4126,-19.6172,-65.8938,-38.7315,
-2.012,36.036,1251.4742,40.6527,-16.0965,56.7487,42.2521,69.8275,-36.2166,2.012,-32.1926,-18.108,-50.8938,-23.7315,
-12.072,21.036,1236.4742,38.2276,-24.1445,50.2996,27.2521,61.3659,-38.2286,12.072,-17.1926,-22.1325,-38.2286,-14.0845,
-13.5812,6.5389,1221.7975,33.7012,-22.6349,46.779,28.6714,55.8337,-34.7074,18.6109,-6.5389,-9.5571,-29.6777,-11.5696,
-20.1196,12.0725,1209.2226,23.1388,-37.6349,38.229,19.1148,56.3366,-49.7074,3.6109,-21.5389,-11.0658,-44.6777,3.4304,
-20.1205,17.1023,1198.1563,21.1263,-52.6349,24.1445,14.084,56.3366,-61.3664,-11.3891,-23.1378,-5.0303,-59.6777,5.0303,
-5.1205,29.1743,1183.1563,34.2041,-37.6349,25.1503,27.1628,54.3241,-58.3486,-2.012,-8.1378,-1.0062,-56.3366,1.0062,
-5.5331,37.7252,1168.1563,28.6714,-34.7079,27.6647,12.5754,44.7675,-68.9115,-17.012,-17.6052,-16.0062,-62.876,5.5331,
-11.0663,38.2286,1154.8975,23.1383,-44.2641,33.1988,14.0845,52.3121,-59.3544,-19.1143,-17.1018,-9.0538,-67.4024,9.0538,
-25.1498,24.1441,1143.8322,16.096,-36.2161,27.1623,25.1508,39.2343,-55.3304,-5.0298,-2.1018,-1.0058,-70.4206,-5.9462,
-32.6954,12.5754,1137.2933,8.5514,-22.6349,22.6349,33.7012,31.6897,-53.8212,-2.5149,2.5149,-11.5687,-55.8333,-19.6167,
-20.6229,0.50288,1143.3293,1.5096,-21.6287,24.6479,39.7372,46.6897,-40.743,7.5451,-4.5269,-0.50288,-40.8333,-18.6104,
-6.036,-10.06,1138.8019,6.036,-24.1441,28.1685,44.2646,58.3481,-34.2041,21.1263,-6.036,14.4971,-27.1623,-6.036,
-11.0663,-14.0845,1123.8019,0,-25.1498,25.1498,45.2699,52.3121,-40.2406,15.0903,0,10.0595,-35.2103,-4.024,
-6.036,-6.036,1115.6636,6.036,-13.0783,26.1561,52.3126,56.3366,-25.2406,14.084,15,-4.9405,-48.2886,-16.0965,
-3.5211,-6.5394,1101.0757,21.036,-21.6296,12.5749,40.743,47.7852,-24.6469,3.5211,10.5634,-19.9405,-63.2886,-20.6229,
1.0058,-1.0058,1094.5373,31.1863,-25.1498,13.0778,43.2583,42.2526,-26.1565,-2.0125,7.0423,-15.0903,-55.3304,-11.0663,
-3.0178,3.0178,1090.5138,27.1628,-10.1498,24.1445,53.3184,52.3126,-14.084,-11.0658,12.0725,-14.084,-40.3304,-8.0475,
-13.0783,-1.0062,1075.5138,18.108,-13.0783,34.2041,46.2771,62.3731,-3.0178,-23.1378,1.0062,-24.1436,-25.3304,6.9525,
-23.1388,-3.0178,1060.5138,9.0543,-28.0783,32.1926,31.2771,47.3731,3.0178,-32.1926,-13.9938,-25.1503,-38.2281,21.9525,
-38.1388,-14.5874,1045.5138,1.5086,-43.0783,25.6537,20.6229,32.3731,10.5634,-41.7497,-1.5086,-16.5989,-46.7795,36.9525,
-53.1388,-29.5874,1030.5138,-13.4914,-49.2944,19.1148,5.6229,38.2281,23.1388,-52.3126,13.4914,-1.5989,-42.2521,51.9525,
-68.1388,-41.7497,1015.5138,-23.6412,-49.7977,14.5874,-7.5451,35.7132,35.7132,-47.7852,13.5807,7.5451,-40.7439,66.9525,
-79.9773,-53.8212,1000.5138,-25.6532,-61.8693,13.5812,7.4549,20.7132,36.7194,-32.7852,-1.4193,2.5149,-38.731,81.9525,
-64.9773,-55.3304,988.9064,-20.12,-57.3424,13.0787,22.4549,32.1921,48.2891,-18.1076,4.024,-4.024,-25.1498,68.4091,
-49.9773,-46.779,991.4217,-6.5384,-45.7732,9.5576,24.6479,47.1921,63.2891,-11.5691,-0.50288,0.50288,-39.7372,70.9235,
-60.3606,-51.3068,977.8401,-1.0058,-60.3606,2.0115,15.0903,37.2218,48.2891,-8.048,-15.5029,1.0058,-54.7372,70.4206,
-68.912,-48.792,975.3247,4.5269,-75.3606,6.5384,5.5327,34.7074,33.2891,-10.5634,-10.5634,-4.5269,-39.7372,66.8995,
-58.852,-46.78,971.3007,-0.50288,-79.9778,9.5567,0.50288,38.7315,32.695,-19.6172,-3.5211,0.50288,-24.7372,65.8928,
-56.3366,-52.3126,956.7138,-15.5029,-70.4206,5.0303,15.0898,34.2041,40.2406,-15.0908,-5.0303,8.0475,-39.7372,66.3962,
-56.84,-56.84,955.2052,-23.6417,-57.8457,2.5149,30.0898,32.6954,30.683,-2.5149,-3.5216,5.5331,-34.7079,59.8568,
-47.7852,-56.8395,956.2109,-18.6109,-42.8457,2.5149,30.683,28.6714,35.7137,-2.5149,-5.5331,2.5149,-23.6407,44.8568,
-42.7555,-58.8515,954.1989,-21.6297,-34.7074,3.5211,32.695,28.671,43.7612,-1.5086,-6.5394,1.5086,-38.6407,34.7074,
-46.2761,-57.3429,939.1989,-28.1685,-45.2703,-1.0062,32.1926,30.1801,29.1743,2.012,1.0062,-13.0783,-53.6407,32.1926,
-47.7852,-48.792,924.1989,-22.6354,-52.816,0.50288,22.6345,31.6892,14.1743,5.5327,-0.50288,-18.6114,-38.6407,33.7007,
-49.7977,-52.8155,915.9708,-13.5812,-49.7977,12.5754,18.6109,41.7492,17.6052,9.5571,-13.5812,-9.5571,-35.7137,32.6954,
-59.8577,-67.8155,905.9108,-22.6354,-51.8097,12.5749,23.6412,51.8092,26.6594,8.5509,-15.5932,-8.5509,-45.7737,25.6527,
-67.9058,-70.9235,890.9108,-21.6287,-56.8395,-2.4251,25.6537,49.7977,26.6594,13.5807,-0.59316,-0.50288,-31.6892,18.6114,
-82.9058,-76.9595,875.9108,-23.6412,-71.8395,-16.5989,10.6537,34.7977,11.6594,1.5096,-0.50288,0.50288,-46.6892,3.6114,
-90.5412,-70.4206,874.2216,-17.1028,-80.4807,-1.5989,4.024,39.2343,17.1018,-4.024,-8.048,12.072,-51.3068,18.6114,
-75.5412,-67.4029,867.1793,-19.1143,-71.4269,9.0538,16.096,40.2401,8.048,-8.048,-23.048,8.048,-58.3486,33.6114,
-60.5412,-54.3241,870.1976,-20.12,-56.4269,0,31.096,32.1921,0,2.0125,-27.1623,9.0547,-48.2881,33.1988,
-45.5412,-40.2406,884.2816,-15.0898,-41.4269,5.0303,43.2588,31.1858,9.0543,-5.0303,-18.108,15.0898,-33.2881,18.1988,
-30.5412,-35.2103,880.2576,-12.0725,-26.4269,2.012,52.3126,42.2521,19.1138,-9.0543,-12.0725,20.1205,-18.2881,21.1263,
-15.5412,-50.2103,865.2576,-22.6349,-11.4269,-12.988,54.828,30.6839,13.5812,5.5331,-5.5331,12.5754,-16.5984,17.6052,
-30.5412,-65.2103,850.2576,-37.6349,-25.6527,-27.988,39.828,15.6839,-0.50288,7.5451,0.50288,5.5336,-30.6834,4.5269,
-45.5412,-75.9538,844.5439,-39.7372,-40.6527,-26.6594,24.828,25.6527,-0.50288,2.5154,0.50288,9.5567,-15.6834,11.5691,
-38.7315,-66.8995,844.5444,-24.7372,-43.7612,-16.5994,37.7252,35.7137,3.5206,9.5571,-5.5331,7.5456,-3.5206,8.5514,
-26.1565,-58.3486,836.9988,-9.7372,-28.7612,-5.0298,52.7252,40.2401,4.024,24.1441,-4.024,10.0595,-15.0903,-6.4486,
-23.1378,-46.2761,839.0118,5.2628,-32.1921,-5.0293,37.7252,50.3011,2.012,24.1445,-2.012,15.0908,-23.1378,-8.0475,
-17.1028,-36.2161,840.017,11.0663,-47.1921,-18.1085,22.7252,49.2939,-4.024,14.0836,-14.0845,13.0778,-20.12,4.024,
-14.5874,-28.671,825.017,15.5932,-32.1921,-12.5749,37.7252,41.7497,-11.5691,11.5691,-19.6172,15.5932,-28.671,14.5874,
-25.1503,-33.1983,810.017,8.0475,-17.1921,-9.0543,48.2886,33.1983,-26.1561,1.0062,-30.1801,7.0418,-43.671,4.0235,
-10.1503,-18.1983,811.3456,23.0475,-9.5571,1.5091,37.7252,45.7732,-13.5812,8.5514,-16.5994,3.5216,-28.671,-1.5091,
4.8497,-3.1983,807.8245,26.1561,-22.1321,2.012,45.2703,41.2463,-13.0783,5.0303,-11.0667,-9.0543,-20.1205,-14.084,
4.5274,3.5216,792.8245,21.6292,-7.1321,1.5091,43.7617,31.6897,-16.5994,-1.5091,-19.6167,-6.5389,-29.6772,-12.5754,
-8.0475,1.0062,777.8245,19.1138,-4.0235,-1.0062,31.1868,28.1685,-19.1138,-7.0418,-23.1378,6.036,-26.1561,2.4246,
-13.5816,-2.5154,769.0935,16.5989,-16.5989,10.5634,36.719,35.7132,-16.5989,-0.50288,-22.6354,0.50288,-32.695,16.5989,
-17.1018,-10.0595,768.5906,11.0663,-17.1018,17.1028,37.2228,37.2228,-4.024,8.049,-30.1796,-9.0538,-42.2521,4.024,
-24.1441,-25.0595,754.5061,9.0538,-21.1268,2.1028,31.1863,34.2036,0,-6.951,-45.1796,2.0115,-33.1988,0,
-22.1321,-32.1921,746.4586,18.108,-34.2041,7.0418,40.2406,49.2036,-7.0418,-21.951,-48.2881,13.0783,-18.1988,15,
-14.0845,-21.1258,748.4706,18.1085,-24.1445,20.12,47.2824,60.3601,-1.0058,-15.0903,-33.2881,1.0058,-12.072,30,
-16.096,-23.1383,736.3986,7.0423,-9.1445,5.12,48.2881,45.3601,5.0298,-6.0365,-18.2881,-13.9942,-26.1565,15,
-12.0725,-21.1263,727.3443,22.0423,-4.0245,-5.0303,56.3366,46.2761,13.0783,2.012,-3.2881,-2.012,-13.0783,0,
-14.084,-23.1383,715.2723,31.1858,-19.0245,3.0178,47.2819,50.3001,19.1138,-3.0178,-8.0485,5.0303,-5.0303,-13.0783,
-1.5091,-8.1383,704.7089,35.7137,-10.5629,8.5514,48.7915,48.7915,28.6714,-3.5206,-2.5149,-6.5389,-10.5629,-10.5629,
7.0418,6.8617,689.7089,27.1618,4.4371,-6.4486,35.2098,33.7915,13.6714,-13.0783,-17.5149,-21.5389,-25.5629,-24.1445,
22.0418,21.8617,682.0735,30.1801,2.012,-5.0303,32.1926,28.1685,-1.3286,-2.012,-32.5149,-7.0418,-32.1926,-25.1503,
36.2166,36.8617,679.0552,32.1926,-2.012,-8.0485,40.2406,30.1801,-16.3286,-5.0303,-44.2646,2.012,-36.2166,-26.1561,
21.2166,43.7612,664.0552,21.6287,12.988,-16.5989,41.7487,16.5989,-26.6594,-20.0303,-39.7372,-10.5634,-47.7852,-20.6229,
12.072,30.1806,649.0552,20.12,25.1508,-16.096,50.3006,16.096,-30.1806,-14.0836,-41.2459,-15.0903,-43.2583,-12.072,
16.096,15.1806,645.8569,16.096,10.1508,-26.1565,51.3064,22.1316,-33.1988,-4.024,-46.2766,-29.1748,-35.2103,-27.072,
22.1321,10.06,645.8574,16.0965,7.0418,-19.1138,51.3068,30.1801,-18.1988,-7.0418,-35.2098,-23.1378,-20.2103,-28.1685,
16.5989,10.5634,630.8574,6.5394,13.5816,-17.6047,43.7612,32.695,-18.6114,-6.5394,-26.6594,-13.5807,-19.6172,-32.695,
1.5989,7.5456,615.8574,-0.50336,16.5994,-17.6052,50.804,34.707,-16.5994,3.5206,-11.6594,-9.5571,-15.5927,-43.7612,
-3.5211,13.5816,600.8574,6.5394,19.6172,-10.5624,61.8697,37.7257,-1.5994,-1.5086,-2.5144,-0.50288,-2.5144,-31.6892,
6.5394,10.5634,585.8574,2.5154,19.6172,-12.5749,50.8035,36.719,-12.5749,-11.5691,-17.5144,-2.5154,-14.5874,-16.6892,
3.5211,-0.50288,570.8574,0.50288,5.5327,-24.6479,44.767,30.6825,-26.6594,1.5086,-32.5144,-9.5576,-27.6652,-6.5394,
-2.5149,-2.5149,556.8253,15.5029,-9.4673,-21.6292,40.7435,27.6647,-18.6109,10.5629,-21.6292,5.4424,-21.6292,2.5149,
0.50288,0.50288,549.7836,13.5816,-18.6114,-12.5749,28.6719,22.6354,-23.6412,-4.4371,-29.6767,20.4424,-27.6652,-0.50288,
2.5149,5.5331,534.7836,0.50336,-13.5812,-13.5812,20.6234,20.6234,-38.6412,-10.5629,-44.6767,11.5696,-41.7492,-0.50336,
3.0173,4.024,519.7836,0,-23.1383,-13.0787,24.1441,32.1921,-33.1988,-1.0067,-38.2286,0,-36.217,11.0653,
1.0058,-9.0538,507.0281,-1.0058,-25.1498,-10.0605,35.2103,44.2641,-18.1988,6.0355,-24.1441,13.0778,-23.1383,6.0355,
-2.012,-14.084,503.0036,3.0178,-10.1498,-11.0667,50.2103,46.2761,-6.036,15.0898,-9.1441,28.0778,-8.1383,-8.9645,
-7.5447,-17.6052,488.0036,5.5331,-3.5206,-15.5927,48.7915,35.7137,-14.5869,6.5399,-1.5091,18.6119,1.5091,-17.6052,
0.50288,-2.6052,473.0036,12.5759,-11.5691,-8.5509,34.7074,42.7555,-9.5567,-0.50288,-3.5211,4.5269,-13.4909,-8.5509,
7.0418,12.3948,458.0036,22.1321,-11.0658,-12.0716,32.1926,44.2646,-12.0716,6.036,-18.108,-6.036,-28.4909,-14.084,
-2.012,11.0658,443.0036,20.1196,-17.1023,-18.109,34.2041,33.1974,-27.0716,6.036,-32.1926,2.012,-42.2531,-15.0908,
-17.012,9.5576,428.0036,9.5576,-28.6709,-3.109,27.6652,30.6834,-38.7315,-8.964,-40.743,9.5576,-50.8035,-0.090755,
-18.1085,11.0663,413.0036,8.048,-17.1028,10.0595,31.1863,35.2103,-44.2641,-23.964,-47.2828,-5.4424,-39.2343,10.0595,
-3.1085,-1.0062,398.0036,6.036,-2.1028,-4.9405,34.2041,28.1685,-51.3064,-29.1743,-51.3064,-20.4424,-26.1561,1.0062,
10.5629,-3.5206,383.0036,6.5389,6.5389,-14.5869,31.6897,26.6589,-42.755,-14.1743,-37.7252,-5.4424,-30.683,2.5149,
-4.4371,-12.5749,368.0036,3.5211,-3.5211,-7.5451,30.6834,26.6594,-27.755,0.82569,-22.7252,9.5576,-22.6354,8.5509,
-13.0778,-22.1316,353.0036,9.0547,-9.0538,-8.048,45.2708,38.2286,-28.1681,4.024,-12.072,19.1143,-7.6354,20.12,
-1.0062,-15.0898,338.0036,16.0965,-2.012,-7.0418,58.3491,49.2944,-31.1863,1.0062,-20.1196,32.1926,-2.012,24.1445,
-6.5384,-12.5749,323.0036,9.5576,-0.50288,-8.5509,51.8092,34.2944,-28.6709,0.50288,-30.683,21.6297,-6.5384,9.1445,
-3.5211,-11.5691,311.3593,23.6412,8.5509,-2.5154,58.8515,35.7132,-26.6594,4.5269,-15.683,6.6297,0.50288,-3.5211,
-1.5086,-8.5509,296.3593,34.7074,3.5211,-5.5327,58.8515,45.7737,-36.719,0.50288,-0.68295,-5.5327,-2.5144,-0.50288,
-3.5211,-0.50288,281.3593,34.7074,0.50288,-8.5509,43.8515,36.719,-28.6714,0.50288,-1.5086,9.4673,-4.5269,-4.5269,
-7.0418,-2.012,266.3593,30.1801,-1.0062,-5.0303,33.1983,28.1685,-19.1138,1.0062,1.0062,13.0783,-7.0418,-9.0543,
-1.5091,0.50336,251.3593,31.6897,-0.50336,0.50336,48.1983,33.7012,-30.6834,-5.5331,6.5389,-1.9217,-6.5389,-11.5687,
4.024,12.072,236.3593,35.2103,9.0538,-7.0423,57.3419,33.1978,-45.6834,-8.048,-8.4611,-4.024,-4.024,-16.096,
-2.012,8.0475,221.3593,23.1378,2.012,-22.0423,42.3419,25.1503,-51.3068,-6.036,-23.4611,3.0178,-13.0783,-3.0178,
3.5211,-3.5211,206.3593,18.6114,-12.988,-23.6412,34.7074,24.6469,-39.7372,-5.5327,-24.6469,4.5269,-21.6297,6.5394,
18.5211,1.0062,206.2317,33.6114,-3.0178,-8.6412,49.7074,36.2166,-24.7372,-1.0062,-9.6469,19.5269,-7.0418,-1.0062,
32.695,-3.5211,191.2317,38.7315,2.5154,-7.5451,34.7074,34.7074,-9.7372,-15.5932,-4.5269,29.6777,-6.5394,-2.5154,
17.695,-17.1023,176.2317,29.1743,-12.4846,-22.1321,19.7074,30.1801,1.0062,-30.5932,-17.1023,14.6777,-20.1205,11.0658,
2.695,-10.0605,161.2317,37.2218,-20.12,-7.1321,34.7074,38.2286,16.0062,-24.1441,-9.0538,5.0298,-10.0605,26.0658,
-12.305,-15.5932,146.2317,30.6834,-11.5691,-7.5451,44.7679,26.6594,23.6412,-27.6652,-11.5691,7.5451,-12.5749,35.7132,
1.0058,-25.1498,131.2317,20.12,-7.0423,-22.5451,29.7679,14.0845,28.1681,-36.2161,-5.0298,-1.0058,-23.1383,32.1921,
0,-11.0653,116.2317,22.1325,0,-30.1796,29.1748,19.1143,40.2411,-28.1681,-6.0355,-16.0058,-8.1383,47.1921,
-9.0538,1.0058,101.2317,19.1143,-1.0058,-15.1796,31.1863,15.0903,30.1806,-31.1863,-21.0355,-16.096,-5.0298,61.3669,
-1.5091,-2.5149,86.2317,14.5869,-16.0058,-0.17959,26.6589,12.5754,40.7435,-41.7492,-36.0355,-7.5447,-20.0298,52.8155,
0,0,71.2317,17.1018,-28.1681,-5.0298,25.1508,19.1143,55.3304,-43.2583,-33.1978,-22.5447,-35.0298,37.8155,
-6.036,6.036,56.2317,24.1436,-24.1445,-13.0783,20.1196,23.1378,40.3304,-33.1983,-31.1868,-29.1743,-23.1388,47.2819,
0,-3.0173,41.2317,27.1623,-25.1498,-21.1258,9.0547,24.1441,29.1748,-21.1258,-32.1921,-14.1743,-22.1316,62.2819,
3.0182,-1.0058,26.2317,25.1508,-40.1498,-12.072,-3.0182,20.12,25.1508,-32.1921,-34.2046,0.82569,-36.2161,77.2819,
2.012,13.9942,11.2317,31.1858,-45.2703,2.928,-2.012,26.1561,26.1561,-35.2108,-28.1685,-4.0245,-43.2588,92.2819,
-12.0725,28.9942,-3.7683,38.2281,-52.3126,17.928,-3.0178,36.2166,31.1858,-23.1388,-33.1983,3.0178,-50.3006,92.5527,
-18.1085,18.1085,-18.7683,36.2161,-65.3904,23.1383,3.0182,29.1748,28.1681,-23.1383,-48.1983,-3.0182,-41.2459,77.5527,
-12.072,18.1085,-33.7683,23.1383,-56.3361,16.097,8.048,15.0903,16.097,-36.2161,-63.1983,-8.048,-33.1978,62.5527,
-8.5514,24.6474,-48.7683,19.6176,-41.3361,19.6176,12.5754,19.6176,8.5514,-35.7137,-58.851,-8.5514,-36.7194,48.7915,
-6.036,27.1618,-63.7683,27.1618,-30.1801,28.1676,14.084,30.1801,6.036,-28.1685,-54.3246,-12.0725,-34.2041,59.3539,
-2.5154,33.7017,-78.7683,32.695,-30.6834,29.6767,9.5567,30.6834,2.5154,-20.6229,-56.8395,-10.5634,-30.6834,44.3539,
0.50288,37.7257,-93.7683,37.7257,-24.6469,26.6594,13.5816,28.6719,-0.50288,-9.5567,-53.8212,-2.5144,-27.6652,32.6959,
-7.5451,32.695,-108.7683,28.671,-19.6172,29.6777,21.6287,29.6777,-1.5086,-13.5816,-39.7372,1.5086,-25.6537,47.6959,
-9.0543,30.1801,-123.7683,21.1263,-26.1561,33.1983,13.0783,29.1743,-3.0178,-28.5816,-31.1868,3.0178,-35.2108,62.6959,
5.9457,39.7367,-138.7683,30.683,-33.7012,40.7435,-1.9217,33.7012,-7.5456,-36.7194,-32.6954,13.5812,-37.7252,63.8808,
9.5571,42.755,-153.7683,29.6772,-43.7617,46.779,-9.5571,29.6772,-17.6052,-27.6657,-42.7559,19.6167,-35.7137,62.875,
1.5091,34.7079,-168.7683,22.6359,-45.7732,40.7435,-1.5091,14.6772,-26.6589,-12.6657,-56.8395,18.6119,-50.7137,57.8462,
-2.5154,19.7079,-183.7683,18.6114,-33.7017,27.6652,3.5211,2.5154,-24.6469,-3.5211,-64.888,8.5509,-60.864,42.8462,
0.50288,8.5509,-198.7683,18.6114,-29.6777,23.6412,14.5874,14.5874,-9.6469,-0.50288,-49.888,-2.5154,-45.864,27.8462,
3.0178,16.0965,-213.7683,21.1263,-27.1618,31.1868,27.1618,29.5874,-3.0178,-4.0235,-34.888,-5.0303,-30.864,19.1138,
4.024,18.1076,-228.7683,24.1441,-12.1618,33.1978,26.1556,41.2459,-4.024,-5.0307,-33.1988,-8.048,-20.12,12.072,
1.5091,16.5994,-243.7683,28.6714,-17.6052,24.6474,13.5812,28.6714,0.50336,-0.50336,-33.7012,-11.5687,-23.6407,-2.928,
7.0423,30.1806,-258.7683,34.2046,-32.6052,24.1441,17.1018,20.12,-13.0778,-7.0423,-32.1921,-12.072,-17.1018,11.0663,
14.0845,27.1623,-273.7683,29.1748,-39.2343,15.0903,13.0787,12.072,-28.0778,-22.0423,-47.1921,-12.072,-32.1018,21.1268,
17.6056,19.6172,-288.7683,27.6652,-35.7132,10.5634,2.5154,10.5634,-43.0778,-27.6652,-62.1921,2.928,-29.6767,6.1268,
17.6052,25.6532,-303.7683,32.6954,-37.7252,25.5634,-1.5091,25.5634,-31.6887,-13.5812,-75.9533,17.928,-14.6767,1.5091,
11.5691,23.6412,-318.7683,26.6594,-22.7252,30.6834,3.5211,30.6834,-27.6652,-27.6652,-60.9533,2.928,-15.5932,8.5509,
13.0778,15.0903,-333.7683,22.1325,-7.7252,19.1143,18.5211,20.12,-17.1018,-23.1383,-45.9533,-12.072,-0.59316,-6.4491,
1.5091,1.5091,-348.7683,18.6109,-22.7252,8.5504,6.5389,16.5984,-16.5994,-8.1383,-30.9533,-5.5331,14.4068,-11.5696,
-10.06,-1.0062,-363.7683,23.1378,-37.7252,17.1023,-8.4611,31.5984,-27.1618,1.0062,-31.1858,5.0303,29.4068,3.4304,
4.94,6.0355,-360.1513,29.1738,-22.7252,26.1565,-12.072,40.2401,-14.0845,-6.0365,-21.1258,-1.0058,44.4068,1.0058,
19.94,3.0182,-345.1513,25.1508,-10.0595,11.1565,2.928,25.2401,-3.0182,-10.0595,-36.1258,-16.0058,59.4068,-13.9942,
20.1196,2.012,-360.1513,18.108,4.9405,-2.012,17.1013,16.0956,-17.1023,-3.0187,-41.2463,-19.1148,74.4068,-28.1685,
5.1196,0,-375.1513,16.096,19.9405,-3.0182,23.1383,23.1383,-26.1565,-1.0058,-34.2046,-4.1148,89.4068,-13.1685,
1.5091,-3.5206,-390.1513,21.6292,34.9405,-1.5091,34.707,12.5754,-11.1565,-8.5514,-47.7857,2.5149,104.4068,-12.5754,
8.048,-4.024,-405.1513,19.1143,28.1681,-3.0182,42.2526,15.0903,3.0182,-14.0836,-47.2824,-11.0663,119.4068,-20.12,
20.12,-4.024,-420.1513,19.1143,31.1863,-7.0423,27.2526,29.1748,4.024,-7.0423,-32.2824,-8.048,134.4068,-6.0355,
35.12,-11.0663,-435.1513,17.1028,16.1863,-7.0423,12.2526,20.12,0,3.0182,-27.1623,-7.0423,149.4068,-11.0663,
23.1378,-10.06,-450.1513,8.0475,8.0475,-6.036,27.2526,11.0658,-11.0667,-1.0062,-38.2281,1.0062,164.4068,-14.084,
8.1378,-10.5629,-465.1513,11.5687,23.0475,-2.5149,42.2526,22.6349,-16.5994,-14.5869,-43.7617,16.0062,179.4068,-1.5091,
5.0298,-22.1316,-480.1513,20.12,38.0475,-5.0298,27.2526,21.1268,-10.0595,-17.1018,-45.2703,11.0663,194.4068,-13.0778,
20.0298,-7.1316,-495.1513,32.1921,29.1738,5.0298,12.2526,17.1018,-2.0125,-2.1018,-30.2703,-3.9337,209.4068,-11.0663,
27.6652,0.50288,-510.1513,23.6412,34.7074,-0.50288,27.2526,14.5874,-12.5749,-5.5336,-24.6469,-7.5451,224.4068,-8.5509,
18.1076,-3.0182,-525.1513,24.1441,29.1738,-4.024,19.1143,28.1681,-5.0298,-6.0365,-39.2343,3.0182,239.4068,-11.0663,
8.048,-4.024,-540.1513,26.1565,24.1441,1.0058,4.1143,25.1498,-6.0365,2.0115,-40.2406,-1.0058,254.4068,-9.0538,
11.5687,-2.5149,-555.1513,20.6234,36.7194,1.5091,-10.8857,18.6109,-14.5869,6.5389,-34.707,-1.5091,269.4068,-4.5274,
9.0547,-13.0778,-570.1513,11.0663,21.7194,-13.4909,4.1143,17.1028,-22.1316,0,-43.2583,0,284.4068,-19.5274,
5.5331,-5.5331,-585.1513,13.5812,17.6052,-10.5629,-7.5456,23.6407,-15.5936,5.5331,-28.6714,11.5687,299.4068,-17.6052,
-5.0298,-3.0182,-600.1513,10.0595,32.6052,3.0182,-14.0845,11.0663,-24.1441,4.024,-22.1325,16.096,314.4068,-9.0547,
-2.5149,-10.5629,-615.1513,8.5514,39.7377,3.5206,-19.6176,8.5514,-33.7012,2.5149,-18.6109,10.5629,329.4068,-23.6417,
1.0062,-8.0475,-630.1513,6.036,27.1618,-1.0062,-20.1205,20.1205,-30.1801,-3.0178,-3.6109,11.0658,344.4068,-28.1685,
-3.0173,0,-645.1513,2.0125,31.1863,5.0307,-6.0355,14.0845,-31.1863,-15.0903,0,14.0845,359.4068,-28.1681,
2.5149,-2.5149,-660.1513,4.5274,25.6532,2.5149,-9.5571,3.5206,-33.7012,-11.5696,-15,2.5149,374.4068,-26.6589,
