"AF3","AF4","F3","F4","F7","F8","FC5","FC6","O1","O2","P7","P8","T7","T8",
4.7003,-6.5809,43.2449,20.6826,-45.1246,32.9036,-22.5623,2.8205,5.641,-63.9266,-2.8205,-46.0654,-18.8019,39.4845,
-0.47038,-5.1706,47.4757,21.1521,-41.8346,33.374,-20.2122,4.2308,7.0513,-50.2953,0.47038,-31.0654,-20.2122,31.4933,
-4.2303,-12.6919,48.4151,19.2719,-37.1339,23.0323,-11.7511,4.2303,22.0513,-38.0747,15.4704,-16.0654,-18.332,22.0924,
-2.3497,-25.8528,45.5955,11.7511,-50.2953,14.5716,-7.0508,0.46994,37.0513,-23.0747,23.0323,-1.0654,-27.7325,33.3735,
-10.3408,-22.5628,40.4248,10.3408,-62.0468,15.9819,-11.2807,2.8201,49.8253,-15.0411,17.8616,-2.8201,-33.8439,47.9456,
-19.7422,-15.042,34.7838,15.9819,-61.1065,17.8616,-20.6821,7.5212,34.8253,-30.0411,20.6821,-7.5212,-22.5628,40.4239,
-9.4014,-16.9222,34.7833,22.5623,-46.1065,32.8616,-20.6826,10.3413,19.8253,-45.0411,34.7833,-7.5208,-11.2812,50.7657,
-5.6406,-14.1012,41.3647,21.6229,-42.3046,47.8616,-18.8015,5.6406,15.9819,-47.0048,30.0835,-9.401,-16.9217,65.7657,
-8.931,-7.0504,45.595,25.8532,-57.3046,42.7745,-19.2723,7.0504,15.5119,-40.8948,15.5119,-15.5119,-28.6728,53.1158,
-5.1706,-20.2122,36.1936,15.5119,-72.3046,27.7745,-23.0327,5.1706,10.8108,-47.4757,9.8709,-30.5119,-34.3139,38.1158,
6.5813,-25.3824,37.6043,8.4611,-57.3046,15.042,-11.2807,-4.7007,7.5212,-50.7652,10.3417,-45.5119,-24.4425,23.1158,
9.4014,-16.9213,46.0654,17.8621,-42.3046,2.8205,-3.7604,-15.9814,-2.8205,-48.885,8.4615,-55.4659,-19.7418,8.1158,
22.0928,-22.0919,56.8762,26.7931,-27.3046,-12.1795,0.47038,-11.7515,7.9912,-33.885,5.1706,-40.4659,-21.1521,8.931,
37.0928,-37.0919,62.0464,22.5619,-12.3046,-27.1795,7.5203,-0.94032,22.9912,-18.885,-1.8802,-27.263,-20.6821,10.3408,
22.0928,-52.0919,48.885,9.4005,0,-42.1795,0,-11.2812,24.443,-29.1432,0.93987,-30.0831,-30.0831,11.2812,
7.0928,-55.9363,54.0557,17.3917,-6.1105,-52.1759,6.1105,-8.931,35.2537,-24.9124,15.9399,-19.2723,-26.7931,26.2812,
16.9213,-56.4062,57.3457,16.9213,-6.5809,-55.4664,6.5809,-10.3413,46.0645,-22.5623,30.9399,-21.6224,-17.8621,23.5022,
21.6224,-46.0645,55.4659,14.1017,-2.8205,-43.2449,2.8205,-13.1609,61.0645,-24.443,34.7842,-16.9222,-11.2812,17.8621,
17.3921,-31.0645,54.0561,26.7926,-5.1702,-28.2449,2.3506,-9.8713,76.0645,-19.2719,43.7148,-2.3506,-13.6317,32.8621,
21.1521,-16.0645,54.9955,33.3731,-1.4103,-24.9133,1.4103,-3.2909,90.7196,-15.5119,39.954,-6.1105,-7.0513,47.8621,
16.4514,-20.2126,52.1755,30.553,-4.2303,-32.4337,1.4098,-4.2303,86.9597,-16.4514,24.954,-21.1105,-1.4098,58.7564,
8.4611,-25.3824,47.0048,29.1437,-8.4611,-35.7237,8.4611,-8.4611,81.7891,-13.1614,16.9217,-21.622,-9.401,73.3284,
4.7003,-24.443,42.3041,16.9222,-3.7604,-36.664,3.7604,-8.4606,90.2502,-7.5208,17.8621,-12.221,-12.221,80.8487,
4.7003,-30.0831,43.2449,5.641,-4.7003,-34.7833,-11.2396,-8.4606,105.2502,7.4792,15.9823,-20.6817,-4.7003,85.549,
4.7007,-40.4239,46.065,5.6406,-9.401,-36.6635,-6.5805,-10.3408,97.7705,20.6821,14.1012,-28.2029,-4.7007,86.4893,
0,-41.3642,41.3642,4.7003,-7.5208,-39.4845,0,-13.1609,88.3695,9.4014,17.8621,-28.2033,-9.4005,71.4893,
3.2904,-30.553,43.7148,12.691,-3.2904,-33.3735,-3.2904,-10.8112,102.0013,14.5716,26.7926,-27.7334,-3.2904,56.4893,
1.4098,-29.6132,46.5353,13.6317,-7.0508,-42.7749,-1.4098,-12.691,100.1206,12.691,23.973,-33.3735,-2.3506,71.4893,
2.3506,-30.553,43.7148,13.6317,-10.8112,-50.2948,-0.46994,-12.691,86.9597,0.46994,17.3921,-35.2533,-2.3497,76.6184,
5.1702,-27.7334,39.9544,15.5115,-9.8713,-41.8342,-7.9907,-12.691,81.3187,3.2904,15.5115,-32.4337,-3.2904,61.6184,
5.641,-15.0415,42.305,15.9823,-5.6401,-35.7241,-3.7604,-10.3413,72.3881,3.7604,17.8621,-31.9637,-7.5208,64.8673,
10.3413,-6.5809,46.0654,24.443,-4.7003,-28.2033,2.8205,-7.5208,67.6878,-2.8205,19.7427,-29.1432,-11.2812,79.8673,
7.0504,-11.7515,38.0742,26.7931,-12.6914,-30.5535,-6.1105,-12.6914,71.9177,6.1105,18.3324,-38.0742,-15.5119,67.2175,
4.2303,-4.2303,48.4151,30.553,-6.111,-30.553,-7.0508,-8.9306,70.9774,20.2126,18.332,-36.194,-7.9907,54.996,
4.2303,-3.2904,45.5946,24.9129,-7.0508,-25.8528,-6.111,-5.1711,55.9774,11.7511,3.332,-23.0331,-8.9315,69.996,
15.0415,-12.2219,31.9628,23.5022,-6.5809,-18.8028,-3.7604,-3.7604,48.885,22.5623,3.7604,-8.0331,-9.4014,84.996,
5.1706,-18.3315,32.4341,17.3917,-6.1105,-32.4332,-5.1706,-9.8709,54.9964,27.733,18.3324,-5.1706,-7.0504,72.8585,
-7.0504,-21.1521,45.595,10.8117,-1.4103,-33.3731,1.4103,-7.0504,59.6967,12.733,24.9124,-6.1105,-2.3501,68.1573,
0.46994,-28.6733,41.8351,10.8112,-4.2303,-32.4337,-0.46994,-6.1101,54.996,0.46994,16.4522,-4.2303,-9.8705,80.3788,
8.9306,-25.8528,34.3134,10.8112,-8.9306,-41.8342,-7.9907,-10.8112,44.6547,7.9907,13.6317,-8.9306,-24.8705,80.3788,
6.111,-10.8528,43.7148,13.6317,-7.0508,-34.3134,-6.111,-11.7511,49.355,18.332,20.2126,-10.8112,-31.4938,86.9597,
0.46994,-0.46994,47.4752,25.8528,-6.1101,-28.6733,-5.1702,-9.8705,64.355,18.332,25.8528,-9.8705,-16.4938,91.66,
1.8802,-1.8802,41.3638,31.9633,-1.8802,-31.0234,-3.7608,-7.5212,61.1065,15.981,31.9633,-6.5813,-6.5813,78.0278,
3.2904,-12.691,38.0738,29.6132,-7.0508,-34.3134,-3.2904,-11.7511,46.1065,6.111,24.9129,-5.1702,-21.5813,70.0375,
-0.47038,-11.7515,45.595,30.5535,-8.931,-30.5535,-2.3501,-8.931,43.7144,5.1706,20.2122,0.47038,-20.2122,85.0375,
-2.8201,-1.8802,48.8855,28.2038,-1.8802,-21.622,-4.6998,-6.5805,57.3461,8.4611,22.5628,1.8802,-7.5203,100.0375,
0,0,43.2449,31.0239,-5.6401,-19.7418,-6.5809,-5.6401,42.3461,0.93987,19.7418,0,-12.221,106.2316,
0,-6.58,47.0053,34.7842,-11.2812,-20.6817,-5.6401,0,27.3461,0,10.3413,2.8205,-7.5208,103.412,
1.8802,-5.6406,50.7652,25.3824,3.7188,-27.263,-1.8802,-6.5813,17.8616,-1.8802,1.8802,-11.2816,-3.7608,91.1896,
5.641,-13.1609,39.4845,10.3824,18.7188,-42.263,0,-21.5813,2.8616,-16.8802,0,-26.2816,-18.7608,76.1896,
13.1618,-11.2812,39.4845,4.7003,20.6826,-47.0053,-4.7003,-18.8019,12.2219,-22.5623,12.2219,-26.3227,-19.7418,61.1896,
5.6406,-2.8201,33.8439,3.7608,5.6826,-50.7652,-19.7003,-25.3824,7.5212,-30.0835,2.8201,-26.3231,-24.4425,46.1896,
0.46994,-0.46994,25.8528,9.8705,6.1101,-40.8952,-19.2728,-25.8528,0.46994,-33.3735,0.46994,-30.5539,-35.2542,61.1896,
0.47038,-15.4699,29.6136,13.6313,21.1101,-40.8948,-4.2728,-15.5119,15.4699,-18.3735,15.4699,-16.4518,-29.6136,72.8576,
0,-30.4699,44.1848,9.4014,27.2635,-55.4659,-0.93987,-12.221,30.4699,-3.7604,25.3828,-1.4518,-14.6136,75.2086,
-3.2904,-25.8528,49.3558,13.6317,16.4522,-58.7564,-1.4098,-13.6317,37.1339,-8.9306,17.3921,-0.46994,0.3864,70.0375,
-5.1706,-22.0928,41.8346,24.9124,4.2308,-51.2356,7.0504,-7.9912,36.1936,-4.2308,7.9912,-13.6313,-5.1706,55.0375,
-6.5805,-15.9819,42.3046,19.7422,6.5805,-49.8258,2.8201,-7.5212,36.6635,-2.8201,2.8201,-23.5026,-20.1706,58.286,
1.8802,-3.7608,57.3046,24.4425,21.5805,-37.6043,-1.8802,-6.5805,27.263,-6.5805,8.4611,-8.5026,-31.9633,73.286,
-0.93987,-9.4014,55.4659,30.0831,19.7418,-29.1432,-2.8205,-7.5208,20.6826,-10.3413,8.4606,0.93987,-31.9637,88.286,
-5.1706,-7.9903,50.2953,29.6136,11.7515,-36.1936,2.3501,-6.1105,35.6826,-2.3501,9.8709,-4.2299,-26.7931,86.0194,
0.93987,-0.93987,56.4058,28.2033,12.221,-31.023,-2.8205,-7.5208,50.6826,-5.6401,14.1017,-0.93987,-23.5022,93.0698,
1.4103,-7.9912,46.5349,20.2122,9.8709,-23.0327,-17.8205,-22.0919,35.6826,-20.6401,10.8117,-1.4103,-29.6127,97.3005,
1.4103,-8.931,49.3554,21.1521,23.0327,-22.0928,-8.931,-18.3324,25.8523,-10.8117,20.2122,-1.4103,-14.6127,100.1211,
-5.6406,-15.0411,49.8253,15.042,13.1614,-37.0928,-0.94032,-15.9819,35.7237,0.94032,24.4425,-5.6406,-14.1012,88.37,
-1.4098,-13.6317,54.0561,15.5115,0.46994,-35.2533,-0.46994,-15.5115,50.2957,3.2904,36.1941,-1.4098,-22.0924,83.1993,
2.3506,-9.8713,54.0561,19.2719,8.9306,-33.3735,-2.3506,-19.2719,40.8943,-3.2905,38.0738,-3.2905,-29.6132,74.7378,
3.2904,-13.6317,47.4752,23.0323,21.1525,-37.1339,-4.2303,-16.4522,32.4337,-5.1711,25.8528,-3.2904,-30.5539,70.0375,
2.8205,-13.1609,47.0053,23.5031,6.1525,-37.6039,-6.5809,-10.3413,26.3227,-8.4606,15.9823,-2.8205,-32.9036,73.328,
7.0508,-1.4107,55.9359,35.2533,-0.46994,-29.6132,0.46994,-1.4107,18.332,-7.0508,19.2719,-2.3506,-35.2542,70.9774,
2.3501,-9.8709,47.4748,24.9124,6.1105,-30.5535,-2.3501,-8.931,11.7506,-13.6313,13.6313,-12.6914,-40.8948,55.9774,
6.111,-10.8112,50.2957,22.0924,5.1702,-26.7926,-5.1702,-13.6317,16.4522,-17.3921,15.5115,-11.7511,-43.7148,50.2957,
10.3408,-0.94032,63.927,37.0924,-2.8201,-30.0835,-1.8802,-5.6406,15.042,-4.7007,20.6821,0.94032,-44.1843,65.2957,
-0.46994,-7.0508,55.9359,32.4337,0.46994,-39.0146,-1.4098,-9.8713,14.5716,0.46994,15.5115,-0.46994,-52.1759,61.5769,
2.8201,-5.6406,48.8855,17.4337,15.042,-33.8439,-2.8201,-18.8015,15.9819,-14.1012,16.9217,-13.1614,-54.5256,46.5769,
7.9907,-0.46994,52.1755,10.8112,21.1525,-30.5539,-6.111,-21.1525,0.98186,-23.0331,12.691,-24.9129,-55.9363,37.1339,
4.7012,0,52.6463,23.5031,18.8019,-31.023,3.7604,-19.7418,-0.93987,-11.2812,0,-16.9213,-59.2263,47.9451,
-0.94032,0.94032,43.2444,18.8024,14.1021,-34.7838,2.8201,-24.4425,2.8201,-14.1012,-5.6406,-11.2807,-68.6273,51.706,
2.8205,8.4606,49.8258,11.2812,19.7418,-28.2033,-7.5208,-21.6224,-0.93987,-21.6224,0.93987,-12.221,-72.3881,47.9451,
10.3413,13.1609,58.2864,26.2812,24.443,-13.2033,0.93987,-10.3413,-0.93987,-7.5208,-3.7604,-8.4606,-66.7475,51.7055,
7.0504,5.1706,43.2864,28.6728,18.3324,-11.7515,9.8709,-12.6914,-7.0504,-5.1706,-5.1706,-6.1105,-63.4571,43.7144,
1.8802,-0.94032,37.6043,13.6728,18.8024,-26.7515,0.94032,-26.3223,-4.7007,-20.1706,9.8294,-14.1012,-65.8072,28.7144,
0.46994,-0.46994,47.4752,10.8112,24.912,-35.2542,-1.4107,-21.1525,10.2993,-26.7935,17.3912,-22.0924,-58.7568,25.8528,
-3.7604,-5.6401,34.7842,16.9222,11.2812,-27.2626,3.7604,-12.221,20.6826,-19.7418,10.3413,-21.6224,-54.526,32.9036,
0.47038,-0.47038,28.6728,17.3917,4.2308,-24.9124,2.3501,-8.931,5.6826,-7.9912,23.0327,-11.7515,-55.9363,39.954,
5.1706,-0.47038,34.3139,20.2122,6.1105,-24.9124,0.47038,-9.8709,-5.1706,-9.8709,28.6728,-6.1105,-58.7564,49.3554,
0.93987,-9.4014,27.2626,21.6224,4.7003,-30.0831,-0.93987,-8.4606,7.5208,-16.9222,13.6728,-6.5809,-60.1666,46.0645,
-4.7003,-6.5809,24.443,16.9213,11.2812,-28.2033,0.93987,-3.7604,1.8797,-9.4014,8.4606,-0.93987,-62.0468,47.9451,
-0.46994,-5.1702,23.973,14.5716,13.6317,-23.9721,6.111,-12.691,-3.2904,-7.9907,7.9907,0.46994,-69.0972,59.6962,
7.9907,-9.8713,19.2719,23.0323,14.5716,-27.7325,5.1711,-17.3921,-0.46994,-8.9306,0.46994,-1.4098,-63.4566,50.2957,
1.8802,-13.1622,14.1012,21.622,21.622,-29.1437,-1.8802,-13.1622,2.8201,-6.5813,5.6406,-1.8802,-51.706,35.2957,
-3.7608,-9.401,12.2206,16.9217,18.8015,-25.3833,6.5805,-14.1021,1.8802,-1.8802,15.0411,-5.6406,-53.5862,43.2444,
5.1706,-7.0504,17.3917,23.9726,3.8015,-31.4933,11.7515,-19.2723,-3.29,-5.1706,8.931,-6.1105,-65.3373,48.4155,
8.931,-7.9912,16.4518,29.6136,1.4103,-30.5535,4.2308,-10.8108,-1.4103,-7.9912,10.8108,-5.1706,-66.2771,35.2537,
4.7007,-4.7007,5.6406,32.9032,2.8201,-19.7422,0.94032,-0.94032,-3.7608,-7.5212,22.5628,-9.401,-61.1069,48.8855,
3.7608,-0.94032,2.8201,34.7838,2.8201,-11.2807,0.94032,-8.4611,-4.7007,-4.7007,25.3833,-5.6406,-59.2263,61.1065,
-0.94032,0.94032,5.6406,27.263,10.3408,-9.401,1.8802,-12.2215,-5.6406,-6.5805,17.8616,-2.8201,-62.0468,47.0048,
-1.8802,8.4611,1.8802,20.683,15.042,-6.5805,7.5212,-10.3408,-19.7414,-15.0411,14.1021,-5.6406,-62.9867,46.065,
1.4098,16.4522,-5.1702,21.1525,13.6317,-3.2904,12.6919,-15.5115,-28.6733,-16.4514,16.4522,-1.4098,-62.5168,54.996,
-1.8802,14.1012,-4.7007,23.5026,7.5203,-8.4611,7.5203,-20.6821,-20.6821,-15.042,14.1012,1.8802,-65.8076,41.3638,
-0.46994,6.111,-6.111,18.332,7.9907,-7.9907,1.4098,-22.0924,-23.0323,-17.3921,11.7511,0.46994,-63.4566,35.2533,
-1.4103,7.9912,-12.6914,11.7515,13.6313,-1.4103,1.4103,-19.2723,-34.3139,-18.3315,11.7515,5.1706,-62.5163,46.5349,
-1.4107,22.9912,-10.8112,23.0323,17.3921,0.46994,-0.46994,-12.6919,-22.0924,-8.9315,16.4514,7.0508,-65.3373,53.1153,
5.1702,20.2117,0.46994,30.553,10.8112,-1.4098,-0.46994,-9.8713,-7.0924,-5.1702,23.0323,-0.46994,-63.4571,49.355,
5.1702,5.2117,2.3506,30.553,-1.4098,-12.691,1.4098,-9.8713,-8.9306,-7.9907,28.6733,-5.1702,-66.2771,46.5353,
1.8797,9.4005,-2.8205,33.8435,0,-17.8621,5.6401,-3.7604,-2.8205,-6.5809,39.4845,0,-63.927,43.2449,
3.29,20.2122,-2.3501,33.3731,3.29,-12.6914,2.3501,-3.2909,-3.2909,-11.7515,30.5535,-4.2308,-50.2957,28.2449,
12.221,15.9814,-0.93987,38.5437,-0.93987,0.93987,8.4606,-8.4606,-4.7003,-13.1618,20.6826,-3.7604,-44.1848,27.2626,
1.4103,10.8108,-10.8108,35.2537,-9.8709,-4.2308,14.5712,-11.7515,9.8709,-11.7515,24.9124,-1.4103,-59.1848,42.2626,
1.4098,20.2126,-9.8713,29.6132,-6.111,-8.9306,7.0508,-14.5716,24.8709,-19.2719,20.2126,-1.4098,-68.1573,49.355,
12.6914,27.733,-7.9912,21.1521,0.47038,4.2308,-4.2308,-20.2122,23.0327,-26.7931,5.2126,-0.47038,-70.0371,41.8346,
7.0504,28.6728,-11.7515,17.3917,-1.4103,11.7515,-2.3501,-21.1521,21.1521,-15.5119,-7.0504,1.4103,-68.1573,56.8346,
3.7608,29.1437,-12.2215,20.6821,-5.6406,6.5813,-1.8802,-23.5026,25.3833,-3.7599,1.8802,-2.8201,-53.1573,65.8076,
10.8117,33.374,-13.6313,23.0327,1.4103,-1.4103,-3.29,-24.9124,28.6728,-3.29,2.3501,-7.9912,-38.1573,53.1158,
12.6919,35.2542,-17.3921,20.2126,15.5115,-0.46994,0.46994,-25.8528,33.3735,-2.3497,-12.6499,-17.3921,-23.1573,57.8165,
7.5203,25.3824,-29.1437,12.2215,10.3408,0.94032,-0.94032,-31.0234,25.3824,-4.7007,-22.5628,-32.3921,-28.2029,59.2259,
9.8709,16.4518,-36.1936,10.8108,1.4103,-14.0597,-1.4103,-35.2537,23.0327,-9.8709,-8.931,-35.2537,-13.2029,44.2259,
16.9217,25.3824,-36.6644,11.2807,6.5805,-29.0597,-4.7007,-40.4248,27.263,-14.1021,-10.3417,-36.6644,1.7971,29.2259,
14.5716,40.3824,-46.5344,7.0508,14.5716,-14.0597,-11.7511,-38.0738,12.263,-25.8528,-25.3417,-51.6644,8.9315,14.2259,
29.5716,55.3824,-39.9544,22.0508,22.0924,0.94032,-6.111,-23.0738,-2.737,-26.7935,-40.3417,-55.9367,4.2303,17.3912,
44.5716,70.3824,-35.7241,27.2635,7.0924,15.9403,-21.111,-19.7418,-4.7003,-35.7241,-48.885,-56.4058,19.2303,19.7427,
59.5716,85.3824,-33.3735,23.973,1.4098,30.9403,-26.7926,-23.0323,-1.4098,-26.7926,-63.885,-47.4752,20.2126,34.7427,
74.5716,100.3824,-28.2033,38.973,3.7604,45.9403,-17.8621,-8.0323,-10.3413,-11.7926,-71.4482,-32.4752,24.4421,48.885,
89.5716,115.3824,-30.553,53.973,-7.9907,60.9403,-22.0924,6.9677,-18.332,-17.3912,-56.4482,-19.2719,39.4421,41.8351,
104.5716,130.3824,-29.1432,57.3466,-18.8019,75.9403,-19.7418,11.2812,-11.2812,-18.8019,-46.0645,-24.443,54.4421,47.9451,
119.5716,145.3824,-23.5022,57.3466,-30.0831,90.9403,-8.4606,8.4606,-10.3413,-8.4606,-58.2864,-17.8621,69.4421,48.885,
134.5716,160.3824,-20.6817,48.8859,-38.5437,105.9403,-7.5208,0,-5.6401,0,-52.6454,-18.8019,84.4421,33.885,
133.9645,145.3824,-25.8532,42.7745,-34.3139,120.9403,-8.931,-2.3501,1.4103,-1.4103,-37.6454,-32.4341,99.4421,18.885,
125.9734,130.3824,-25.3828,47.9451,-31.0239,135.9403,-1.8806,0,0,-4.7012,-23.5031,-25.3828,114.4421,12.221,
125.5034,115.3824,-22.0924,46.5353,-40.8943,142.4256,-0.46994,0.46994,-0.46994,-0.46994,-34.3134,-10.8112,129.4421,27.221,
117.0423,100.3824,-27.733,43.7144,-41.8346,127.4256,-6.1105,-1.4103,-6.1105,1.4103,-37.1344,-9.8709,135.8443,28.6728,
110.9323,94.95,-36.6635,46.065,-27.263,136.3151,-6.5805,1.8802,-21.1105,-10.3408,-23.5026,-1.8802,148.5361,27.263,
97.3005,100.1202,-44.6551,32.4332,-37.1344,143.3651,-7.9912,1.4103,-32.4341,-22.0928,-23.9726,-1.4103,150.8858,35.2537,
87.4301,86.4893,-43.2444,25.3833,-52.1344,128.3651,-1.8802,1.8802,-18.8015,-7.0928,-24.4425,-1.8802,146.6564,37.6043,
86.0189,71.4893,-45.5955,28.6733,-58.7564,114.2223,-5.1711,-3.2904,-23.973,-7.9907,-21.1525,3.2904,143.3655,26.7926,
77.5583,69.0977,-52.1764,26.7926,-50.2957,114.2223,-20.1711,-3.2904,-38.973,-22.9907,-27.7334,3.2904,134.904,21.1516,
63.9266,62.9867,-46.0654,23.5022,-57.3466,109.0521,-24.443,6.5809,-23.973,-28.2033,-23.5022,-6.5809,129.7338,14.1017,
68.6277,47.9867,-38.5437,36.664,-71.4478,100.5914,-9.443,6.5809,-8.973,-20.6817,-11.2812,-16.9213,140.075,10.3413,
79.9093,42.3046,-44.1843,42.3046,-63.927,98.7112,1.8802,-1.8802,-22.5619,-24.4425,-15.0411,-16.9217,148.5361,7.5212,
82.7289,47.0057,-43.2444,31.9633,-48.927,100.591,2.8201,5.6406,-22.5619,-20.6821,-22.5619,-14.1012,136.3151,-2.8201,
85.0791,57.8165,-30.5539,38.0738,-41.8351,102.0013,0.46994,11.7511,-8.9315,-15.5115,-18.332,-2.3506,121.7431,-0.46994,
75.2086,56.4058,-44.1848,41.3642,-56.8351,102.4712,-10.3413,-0.93987,-23.5022,-27.2626,-23.5022,0.93987,115.633,0.93987,
78.4982,68.1569,-46.5353,41.8342,-44.6556,117.4712,-3.2904,4.2303,-30.5539,-27.7334,-24.9129,-7.9916,117.9827,3.2904,
73.7979,70.9774,-35.2533,37.1339,-32.4337,114.2223,-0.46994,7.0508,-24.9129,-33.3735,-23.9721,-22.9916,102.9827,0.46994,
65.3364,72.8571,-30.5539,43.7148,-41.8351,113.2824,4.2303,3.2904,-19.2728,-31.4938,-22.0924,-28.6733,91.66,-3.2904,
73.7975,81.3182,-26.7931,56.8762,-41.8346,128.2824,11.7515,13.6313,-13.6313,-16.4938,-24.9124,-15.5119,102.0008,-11.7515,
75.2082,66.3182,-21.622,47.9456,-45.1251,113.2824,13.1614,14.1012,-13.1614,-13.1614,-23.5026,-14.1012,87.0008,-26.3231,
73.7975,51.3182,-12.6914,46.5349,-49.3554,98.2824,18.3315,6.1105,-7.0513,-12.6914,-8.5026,-6.1105,72.8576,-19.2723,
59.6962,56.8757,-27.6914,48.4151,-51.2356,111.4018,3.3315,-0.46994,-6.111,-22.0924,-13.6317,2.3497,78.4982,-4.2723,
44.6962,67.6869,-42.6914,34.7842,-59.2263,126.4018,-11.6685,0,0.93987,-30.0831,-22.5623,0,63.4982,-2.8205,
31.9628,60.1662,-53.5862,24.4421,-74.2263,141.4018,-24.443,3.7604,8.4606,-26.3227,-14.1017,-3.7604,48.4982,-17.8205,
28.2033,60.1671,-47.9451,25.3828,-78.9686,142.8956,-20.6817,6.5809,-2.8205,-22.5623,-12.221,2.8205,57.3466,-13.1609,
25.3828,62.9867,-48.8859,29.1432,-70.5079,154.1767,-20.6826,7.5208,-16.9222,-19.7427,-22.5623,0,52.6454,0,
21.6224,65.8072,-39.4845,44.1432,-67.6874,155.1166,-10.3413,22.5208,-15.0415,-7.5208,-15.9814,-9.4014,41.3642,7.5208,
6.6224,80.8072,-24.4845,59.1432,-63.4571,165.9278,-1.4107,37.5208,-10.8112,-11.7511,-8.9315,0.46994,50.2948,22.5208,
-8.3776,87.4292,-20.6821,62.9862,-68.6277,163.5777,-9.401,34.7838,-17.8625,-26.7511,-15.9819,9.401,35.2948,37.5208,
-14.1017,76.1485,-28.2033,59.2263,-71.4478,157.9371,-13.1618,27.2626,-15.0415,-31.0239,-15.9814,13.1618,20.2948,22.5208,
-7.5208,65.8072,-27.2635,53.5862,-75.2082,146.6559,-15.0415,17.8621,-7.5208,-17.8621,-14.1017,7.5208,13.1618,8.4606,
-8.4606,78.0282,-19.7418,53.5862,-78.9686,134.4349,-14.1017,15.9814,-7.5208,-17.8621,-4.7003,4.7003,11.2812,13.1618,
-11.7511,73.7979,-30.553,43.7148,-83.1993,124.5636,-19.2719,9.8713,-17.3921,-23.0323,0.46994,-0.46994,2.3506,7.9907,
-16.9222,58.7979,-38.5446,33.8435,-82.7294,122.213,-21.6224,4.7003,-25.3828,-15.0415,0.93987,1.8797,4.7003,-0.93987,
-27.2635,61.106,-47.0053,29.1432,-80.8492,127.854,-26.3227,7.5208,-23.5031,-10.3413,4.7003,13.1609,-0.93987,0.93987,
-31.4938,76.106,-58.7564,32.4337,-78.4991,136.7846,-29.6132,14.5716,-8.5031,-7.9907,7.0508,14.5716,-11.752,15.9399,
-17.8625,83.6688,-49.8253,38.5442,-66.7475,147.5963,-25.3833,15.9819,-4.7007,-7.5212,4.7007,11.2807,-8.4611,16.9217,
-6.5805,85.5495,-35.7237,39.4841,-57.3461,156.9968,-21.6229,16.9217,-19.7007,-11.2816,-1.8802,12.2215,1.8802,1.9217,
-8.4606,82.7294,-33.8435,45.1246,-58.2864,153.2368,-16.9222,19.7418,-34.7007,-15.9814,-3.7604,18.8019,3.7604,16.9217,
-10.8117,67.7294,-28.6737,54.9955,-60.637,138.6648,-6.1105,22.0919,-19.7007,-9.8718,1.4103,24.9124,-1.4103,31.9217,
-17.8616,52.7294,-29.1428,47.0048,-66.7471,130.6741,-10.3408,21.622,-24.4425,-8.4611,2.8201,26.3231,-2.8201,16.9217,
-32.8616,47.0053,-43.2449,39.4845,-68.6277,125.0335,-15.9814,16.9222,-39.4425,-18.8019,-2.8205,15.9814,2.8205,12.221,
-35.2537,46.5349,-39.0141,45.595,-65.3373,116.1025,-2.3501,23.9726,-24.4425,-9.8709,-5.1706,7.0504,2.3501,27.221,
-26.7926,31.5349,-34.3134,48.4151,-74.7378,110.4619,-0.46994,27.7334,-11.7511,0.46994,-11.7511,9.8713,-3.2904,16.4522,
-25.3828,35.7241,-39.4845,44.1848,-66.7471,116.5729,-6.5809,24.443,-26.7511,-2.8205,-9.4005,24.8713,2.8205,9.4014,
-25.8532,47.4748,-30.5535,46.5349,-60.6366,122.6834,-4.2308,27.733,-17.3917,-5.1706,4.2308,36.1936,-5.1706,24.4014,
-32.9036,37.6039,-30.0831,46.0654,-75.6366,116.5729,-16.9213,21.6224,-6.5809,-4.7003,4.7003,22.5623,-20.1706,27.2635,
-27.7334,43.7148,-35.2542,44.6547,-88.8399,117.0428,-27.7334,7.9907,-21.5809,-3.2904,3.2904,15.5115,-33.3735,12.2635,
-14.5712,58.7148,-27.733,48.4155,-73.8399,108.5817,-23.9726,2.3501,-31.4933,-2.3501,9.8709,23.0327,-25.8523,8.931,
-17.3921,43.7148,-26.7935,40.8943,-58.8399,93.5817,-21.1525,0.46994,-19.2728,0.46994,7.0508,26.7926,-33.3735,-0.46994,
-15.511,28.7148,-23.0318,33.374,-43.8399,78.5817,-6.1525,1.4103,-13.6313,1.4103,5.1706,28.6737,-22.0919,-13.6313,
-0.51103,32.9036,-10.3404,41.3651,-28.8399,63.5817,8.8475,-2.8196,-15.9814,0,9.4014,26.3236,-13.1609,-12.221,
-6.1105,19.2723,-17.3917,34.3139,-13.8399,48.5817,1.4103,-8.931,-11.7515,5.1706,16.4518,23.9726,-11.7515,-1.4103,
-21.1105,4.2723,-32.3917,19.3139,-20.2117,33.5817,0.46994,-9.8705,-7.0508,20.1706,20.2126,25.8528,3.2485,-0.46994,
-31.9637,-3.7604,-40.4244,21.6224,-18.8019,18.5817,7.5208,-11.2812,-14.1017,8.4606,13.1618,23.5031,3.7604,-14.1017,
-16.9637,11.2396,-26.7931,36.6224,-3.8019,33.5817,14.5712,-1.4103,-1.4103,1.4103,23.0327,29.6136,-3.29,-4.2308,
-7.9907,23.973,-29.6132,39.0146,-7.9907,46.5353,6.111,-5.1702,-4.2303,4.2303,17.3921,20.2126,-11.7511,-5.1702,
-7.0504,29.6136,-30.5535,38.0742,-8.931,44.6551,10.8117,-9.8709,-16.4518,7.0504,8.931,16.4518,-10.8108,-13.6313,
7.9496,35.7237,-22.5628,47.9447,-5.6406,44.1843,14.1012,-10.3417,-20.6821,-6.5813,5.6406,14.1012,-20.6821,-13.1614,
14.1017,31.023,-21.6224,37.6039,-12.2219,37.6039,0.93987,-9.4014,-32.9036,-21.5813,0,1.8797,-35.6821,0,
-0.89833,23.0327,-23.0327,23.0327,-20.2122,36.1936,5.1706,-6.1105,-42.7745,-21.1521,1.4103,1.4103,-26.7931,8.931,
0.46994,28.6733,-19.2719,38.0327,-5.2122,42.7741,20.1706,-1.4107,-38.0747,-6.1521,7.0508,10.8112,-11.7931,-0.46994,
-10.3413,16.9213,-25.3828,44.1848,-2.8205,33.8435,15.9814,2.8205,-36.664,-0.93987,0.93987,1.8797,-10.3413,-15.4699,
-23.5022,1.9213,-26.3227,32.9036,-17.8205,25.3828,7.5208,5.641,-21.664,10.3413,10.3413,2.8205,-25.3413,-6.5809,
-15.5119,-9.8709,-32.4332,25.8532,-24.9124,24.9124,2.3501,-2.3501,-7.0504,16.4518,23.9726,17.8205,-13.6313,5.1706,
-8.4615,-2.8205,-31.9637,31.9628,-9.9124,28.2024,0,-1.8806,-22.0504,15.9814,27.2626,29.1432,0,2.8196,
-23.4615,-0.46994,-33.3735,28.6733,-5.1702,27.7334,3.2905,4.2303,-35.2542,0.98142,19.2719,14.1432,-15,-6.111,
-30.0835,3.7599,-39.4841,24.4425,-11.2816,30.0835,0.94032,-0.94032,-20.2542,-8.4611,26.3232,3.7599,-27.263,0.94032,
-15.0835,13.6313,-32.4341,37.1335,-7.9912,39.0141,-1.4103,-4.2308,-5.2542,1.4103,32.4332,18.7599,-12.263,15.9403,
-9.401,10.3408,-31.0234,37.6043,-6.5805,42.3046,1.8802,-1.8802,-20.2542,-8.4611,18.8024,27.263,-4.7007,25.3824,
-24.401,4.7003,-40.4244,26.3227,-17.8621,42.3041,-0.93987,0.93987,-15.9814,-23.4611,22.5623,15.0415,-17.8621,15.9814,
-31.4929,4.2303,-41.8342,27.7334,-31.4929,36.1941,-9.8705,-4.2303,-0.98142,-23.0323,34.3143,17.3921,-10.8112,14.5716,
-21.622,0.94032,-38.5442,30.0835,-17.8616,27.263,-0.94032,-13.1614,14.0186,-10.3408,19.7423,20.6821,-1.8802,15.042,
-27.7325,-6.111,-52.1755,15.0835,-2.8616,12.6919,8.9315,-21.1525,0.46994,-1.4098,4.7423,5.6821,-16.8802,16.4522,
-36.1936,-14.5712,-59.6967,0.083535,12.1384,-2.3081,2.3501,-23.0327,15.4699,7.0513,6.1105,4.2308,-23.9726,9.8709,
-22.0924,-23.0323,-46.5344,4.2303,9.8713,-17.3081,12.6919,-16.4514,30.4699,22.0513,12.6919,19.2308,-8.9726,-4.2303,
-7.5212,-15.042,-38.5442,17.8616,13.1614,-32.3081,22.5619,-9.401,45.4699,29.1428,-1.8802,20.6821,-13.1614,1.8802,
-22.0924,-5.1702,-49.355,12.6919,5.1702,-26.7926,7.9907,-20.2117,35.2542,14.1428,-13.6317,8.9315,-28.1614,16.4522,
-29.6127,-7.0504,-51.2351,1.4103,2.3501,-34.3139,5.1706,-25.8523,50.2542,9.8718,-1.4103,6.1114,-22.0919,16.4518,
-29.6132,-20.2126,-52.1755,0.46994,1.4098,-46.5353,4.2303,-28.6733,45.5946,8.9306,-0.46994,4.2303,-26.7926,6.111,
-26.7935,-16.4522,-52.1764,7.0508,3.2904,-31.5353,4.2303,-26.7935,30.5946,3.2904,-3.2904,4.2303,-33.3735,14.5716,
-16.4514,-2.3506,-47.4752,15.5115,11.7511,-16.5353,7.9907,-22.0924,20.2126,2.3506,5.1711,-4.2303,-22.0924,15.5115,
-10.3413,-7.5208,-39.4845,23.5022,9.4005,-23.5022,10.3413,-16.9222,35.2126,15.9814,7.5208,-10.3413,-21.6224,15.0415,
-7.5212,-7.5212,-31.0234,27.263,5.6406,-30.0835,12.2215,-12.2215,35.7237,29.1428,-0.94032,0.94032,-26.3231,24.4425,
-13.1622,-5.6406,-29.1437,25.3824,5.6406,-34.7838,11.2807,-10.3417,21.622,31.9633,-12.2215,5.6406,-24.4434,9.4425,
-22.5623,-15.9814,-36.664,26.3227,10.3413,-33.8435,12.221,0,36.622,44.1848,-5.641,1.8806,-22.5623,0,
-25.8528,-21.1525,-50.2957,23.9721,0.46994,-25.8528,12.691,-0.46994,51.622,41.8342,-10.8112,5.1702,-33.3735,13.6317,
-10.8528,-6.5809,-43.2449,20.6817,2.8205,-21.6224,15.0415,-2.8205,36.622,27.2626,-17.8621,14.1017,-34.7842,28.6317,
-4.7007,-0.94032,-32.904,18.8015,11.2807,-25.3833,8.4611,-6.5805,21.622,19.7422,-12.2215,0.94032,-28.2029,24.4425,
-0.46994,0.46994,-31.4929,28.6733,7.0508,-23.0323,10.8112,-5.1702,9.8713,26.7935,-9.8705,-2.3497,-29.6132,10.8112,
8.4602,7.5203,-30.0835,33.843,1.8802,-22.5628,20.6821,-3.7608,-1.8802,31.9633,-24.4434,9.401,-36.6644,-1.8802,
1.8806,0.93987,-25.3828,25.3828,5.641,-37.5628,15.0415,-7.5208,8.4606,31.0239,-31.023,-0.93987,-42.3041,-16.8802,
7.5208,-2.8205,-14.1017,36.664,20.641,-42.3046,20.6826,2.8205,23.4606,37.6039,-16.023,-15.9399,-30.0831,-21.6224,
13.1618,-7.5208,-15.9814,33.8435,19.7427,-31.0234,33.8435,2.8205,30.0831,22.6039,-2.8205,-14.1017,-26.3227,-7.5208,
6.1101,-11.752,-24.9129,19.2719,4.7427,-21.1525,33.3735,-4.2303,15.0831,13.6308,-17.8205,0.89833,-23.973,7.4792,
0.93987,-14.1017,-24.443,23.5022,6.5809,-20.6826,20.6826,-0.93987,0.083087,28.6308,-23.5022,15.8983,-19.7418,22.4792,
2.8205,-16.9213,-25.3828,24.443,7.5208,-26.3227,16.9222,-0.93987,15.0831,34.7842,-8.5022,0.89833,-33.8435,7.4792,
8.9315,-1.9213,-22.0924,28.6733,9.8713,-11.3227,28.6733,0.46994,0.083087,19.7842,-0.46994,-1.4098,-36.1941,20.2126,
0.93987,-0.93987,-24.443,21.6224,2.8205,-8.4606,16.9213,-3.7604,-14.9169,4.7842,-15.4699,13.5902,-31.0239,32.9036,
2.3506,-7.0508,-21.1525,25.8528,3.2904,-23.4606,11.7511,1.4098,-2.3506,17.3921,-22.0924,17.3921,-27.7334,17.9036,
1.8802,-5.6406,-29.1428,25.3833,5.6406,-26.3223,15.9819,-1.8802,8.4611,16.9217,-7.0924,2.3921,-31.9633,2.9036,
-3.7608,-9.401,-32.904,22.5628,4.7007,-35.7237,15.9819,-13.1614,4.7007,3.7599,1.8802,3.7599,-35.7237,-1.8802,
-1.4103,-23.0327,-19.2723,31.4933,1.4103,-50.7237,20.2122,-12.6914,7.9912,6.1105,-4.2308,18.7599,-36.1941,13.1198,
-2.8205,-22.5623,-23.5031,25.3828,-4.7012,-51.706,13.1609,-3.7604,12.221,6.5809,2.8205,31.023,-47.0053,5.6401,
0,-7.5623,-32.9036,20.6817,2.8196,-36.706,3.7604,0,11.2812,-4.7012,4.7003,16.023,-49.8258,-4.7012,
15,7.4377,-20.2122,35.6817,17.8196,-21.706,18.7604,0.47038,-3.7188,-7.0504,-0.47038,1.023,-34.8258,-3.29,
30,22.4377,-14.1017,47.9451,30.0831,-6.706,33.7604,0,-18.7188,0,0,-7.5208,-31.023,-14.1017,
30.5535,37.4377,-21.153,36.1936,21.1521,8.294,19.2723,-4.2308,-4.2308,2.3501,-2.3501,-10.8117,-46.023,-13.6313,
17.8625,44.1852,-25.3824,21.6229,6.1521,2.8201,4.2723,-11.2807,10.7692,-2.8201,-17.3501,-7.5203,-61.023,-16.9217,
21.1521,31.4933,-17.3917,31.4933,1.4103,-12.1799,14.5712,-9.8709,25.7692,12.1799,-18.3324,-1.4103,-67.2175,-24.9124,
21.622,18.8015,-25.3833,28.2029,4.7007,-25.3833,13.1614,-9.401,34.7838,18.8015,-5.6406,-4.7007,-74.2683,-28.2029,
19.2719,20.2126,-37.1339,18.332,4.2303,-11.7511,0.46994,-9.8713,19.7838,3.8015,-3.2905,4.2303,-79.4385,-26.7926,
27.263,35.2126,-22.1339,33.332,14.1021,1.8802,12.2215,-1.8802,4.7838,-3.7599,-2.8201,16.9217,-66.7471,-22.5619,
29.6136,32.4332,-7.9912,38.0742,24.9124,0.47038,23.0327,-2.3501,-6.1105,-0.47038,-3.29,6.1105,-55.9363,-16.4518,
33.3735,26.7926,-19.2728,32.4337,27.7325,1.4098,12.691,-0.46994,-3.2904,-4.2303,-1.4107,0.46994,-51.236,-14.5716,
25.8532,34.3139,-22.0928,35.2537,22.0928,-2.3501,7.0504,-2.3501,2.3501,-10.8108,-2.3501,12.6914,-54.996,-22.0928,
18.332,40.8943,-10.8112,38.0738,15.5115,-4.2303,20.2126,-8.9306,2.3506,-5.1702,-2.3506,21.1525,-54.996,-10.8112,
16.9222,26.3227,-22.5623,31.9637,2.8205,-2.8205,14.1017,-5.6401,-5.6401,5.641,-5.6401,21.6224,-55.4659,-10.3413,
15.0415,11.3227,-34.7833,27.2635,0,-9.4005,0,-0.93987,0.93987,20.641,-0.93987,24.443,-54.526,-19.7418,
5.1706,-1.4103,-35.2537,19.2723,2.3501,-24.4005,-0.47038,-15.9399,15.9399,23.9726,0.47038,9.443,-58.7564,-30.5535,
10.3408,-2.8201,-34.7838,15.9819,2.8201,-31.9633,7.5203,-16.9217,14.1012,8.9726,-0.94032,0.94032,-55.4664,-41.3647,
22.0924,-1.4098,-34.3134,19.2719,4.2303,-23.973,13.6317,-3.2904,2.3506,1.4098,-8.9315,4.2303,-49.3554,-47.4752,
25.8523,2.3501,-23.0327,29.6127,5.1706,-29.6136,13.6313,-2.3501,17.3506,10.8108,-10.8117,-7.0513,-49.3554,-62.4752,
30.5535,13.6313,-19.2723,34.3139,2.3501,-30.5535,11.7515,-2.3501,24.9124,3.29,-8.931,-11.7515,-50.2957,-77.4752,
33.8439,25.3824,-21.6229,31.9633,7.5203,-19.7422,17.8616,1.8802,9.9124,-1.8802,-20.6821,3.2485,-49.8258,-62.4752,
44.6547,34.3134,-13.6317,35.2533,21.1516,-4.7422,22.0924,0.46994,-5.0876,-0.46994,-16.4522,18.2485,-38.0747,-47.4752,
47.9447,25.3824,-12.2215,31.9633,15.981,-1.8802,24.4425,-6.5813,-2.821,-15.4699,-1.4522,31.9633,-28.2038,-32.4752,
48.416,23.973,-10.8112,34.3143,22.0924,-9.8705,39.0146,3.2904,-3.2904,-12.691,7.9916,16.9633,-15.5115,-37.1339,
37.6043,24.4425,-22.5619,32.904,29.1437,-21.622,29.1437,2.821,-6.5805,1.8802,-1.8802,1.9633,-13.1614,-52.1339,
23.0323,9.4425,-32.4337,23.0323,14.1437,-23.973,14.1437,-4.2303,0.46994,0.46994,-3.2904,-0.46994,-26.7935,-54.0561,
24.4421,3.7604,-18.8019,22.5623,-0.85634,-20.6826,11.2812,-0.93987,0.93987,3.7604,-3.7604,14.5301,-37.6039,-39.0561,
28.2029,8.4611,-15.042,24.4425,2.8201,-18.8024,15.9819,-3.7608,-2.8201,7.5203,-11.2816,7.5203,-37.6043,-24.0561,
40.8943,19.2719,-18.332,30.5539,7.9907,-5.1702,18.332,-2.3497,-2.3497,-0.46994,0.46994,22.0924,-23.9721,-30.553,
46.5353,25.8528,-13.6308,23.0331,0.46994,2.3506,19.2719,-2.3497,-7.0508,-9.8705,-0.46994,22.0924,-26.7926,-27.7325,
44.6547,24.9129,-0.46994,28.6733,2.3506,-3.2904,23.973,1.4107,-3.2904,0.46994,-15.4699,7.0924,-34.3134,-40.8943,
46.5349,25.8523,-1.4103,43.6733,11.7506,-2.3501,28.6728,4.2299,-2.3501,1.4103,-9.8718,-1.4103,-25.8532,-51.236,
43.7144,21.1521,-7.0504,42.7745,5.1706,-1.4103,22.0919,-1.4103,-12.6914,-6.1105,1.4103,7.0504,-22.0928,-39.0141,
40.8943,17.3921,1.4107,36.194,-7.0508,-4.2303,17.3921,-2.3497,-17.3921,0.46994,-0.46994,8.9315,-30.553,-32.4337,
33.3731,19.2714,-5.1706,40.8939,6.1105,-1.4103,13.6313,1.4103,-20.2122,-1.4103,-4.2308,13.6313,-28.6737,-36.1945,
24.9124,16.4518,-11.7515,31.4933,21.1105,-6.1105,4.2308,2.3501,-27.733,-7.9912,-2.3501,23.0327,-21.1521,-30.5535,
26.7926,7.0508,-3.2904,29.6132,15.5115,-21.1105,-2.3506,3.2904,-31.4938,-0.46994,0.46994,36.194,-31.4938,-24.9129,
35.2533,0.46994,4.2303,32.4337,0.51148,-30.5539,6.1101,2.3497,-19.2728,-1.4107,-0.46994,35.2533,-39.9544,-20.2126,
36.6635,1.8802,5.6406,27.2621,7.5203,-29.1437,11.2807,-1.8802,-12.2215,-10.3417,-8.4611,20.2533,-25.3833,-23.5026,
34.3139,-2.3501,7.9912,30.5535,13.6313,-35.2542,7.9912,1.4103,-10.8117,-1.4103,-10.8117,5.2533,-13.6313,-38.5026,
34.3134,-0.46994,5.1702,34.3134,5.1702,-36.1941,13.6317,-3.2904,-14.5716,0.46994,-7.9907,1.4098,-23.0323,-43.7148,
29.1432,9.4005,7.5208,25.3828,15.9814,-30.084,18.8019,-11.2812,-16.9222,-10.3413,-7.5208,7.5208,-29.1432,-32.9036,
18.332,-5.5995,11.7511,11.7511,16.4514,-32.4337,8.9306,-16.4514,-14.5716,-9.8713,7.4792,10.8112,-33.3735,-42.775,
17.8616,-20.5995,8.4611,16.9217,5.6406,-31.9633,6.5805,-20.6821,-26.3231,-5.6406,22.4792,11.2807,-31.0234,-47.0048,
20.2122,-13.6313,10.8108,21.1521,14.5712,-33.374,13.6313,-20.2122,-39.0141,-7.0504,18.3324,7.0504,-16.0234,-32.4332,
27.2635,-8.4606,25.8108,14.1017,21.6224,-39.4845,18.8019,-18.8019,-27.2626,-15.0415,6.5809,2.8205,-2.8205,-23.5022,
42.2635,-4.7007,40.8108,27.263,14.1012,-34.7838,21.622,-13.1614,-12.2626,-10.3408,4.7007,17.8205,-7.5212,-20.6821,
43.2449,-5.641,37.6039,31.9637,7.5208,-42.3046,16.9222,-18.8019,-11.2812,4.6592,-10.2993,21.6224,-17.8621,-28.2033,
41.3642,-2.8205,44.1848,30.0831,18.8019,-40.4248,19.7418,-17.8621,-8.4615,13.1609,-2.8205,6.6224,-6.5809,-34.7842,
38.0738,-7.9916,54.996,26.7926,11.7511,-28.6733,25.8528,-19.2728,-10.8112,2.3497,0.46994,-0.46994,-9.8713,-43.7153,
33.3731,-2.3501,62.5163,28.6728,2.3501,-22.0928,29.6127,-13.6322,-17.3926,3.29,-11.7515,14.5301,-24.8713,-39.9549,
42.7745,11.7515,74.7382,31.4933,10.8117,-17.3917,20.2122,-3.29,-14.5712,-1.4103,-7.0504,1.4103,-18.3315,-24.9549,
54.0557,16.4518,86.9593,35.2537,23.0327,-3.29,15.5119,-4.2308,-25.8532,-15.5119,1.4103,-5.1706,-3.3315,-9.9549,
44.6547,11.7511,80.3788,28.6733,16.4514,-7.9907,7.9907,-19.2308,-40.8532,-23.0323,-13.5897,9.8294,-18.3315,-13.6317,
48.4151,21.1525,77.5583,35.2533,11.7511,-7.9907,7.9907,-14.5716,-40.8943,-24.9129,-19.2719,18.332,-33.3315,-28.6317,
49.8249,22.5623,85.549,39.4836,8.4606,0,9.4005,-5.641,-25.8943,-31.9637,-4.2719,3.332,-19.7427,-33.8444,
37.6043,14.1021,95.8907,39.4849,8.4611,-9.401,15.042,-13.1614,-10.8943,-21.622,-11.2807,-5.6406,-13.1614,-25.3824,
26.3227,-0.89788,88.3695,29.1432,4.7003,-24.401,17.8621,-19.7418,4.1057,-20.6826,-17.8621,2.8205,-16.9222,-28.2033,
22.0919,-7.9912,82.259,22.0919,3.29,-20.2122,20.2122,-9.8709,19.1057,-25.8532,-3.29,8.931,-7.9912,-26.7931,
19.7423,-6.5805,84.6096,20.6821,6.5805,-14.1012,8.4611,-15.0411,34.1057,-23.5026,-5.6406,5.6406,-8.4611,-11.7931,
26.3227,0.93987,90.2502,17.8621,-0.93987,-15.0415,-4.7003,-22.5623,31.0239,-18.8019,-5.6401,11.2812,-19.7418,3.2069,
26.7926,-0.46994,91.66,13.6317,-15.9399,-21.1525,-14.5716,-30.553,34.3134,-20.2126,0.46994,14.5716,-29.6132,8.9306,
25.8528,0.46994,94.4805,13.6317,-20.2126,-18.332,-6.111,-28.6733,49.3134,-5.2126,-0.46994,10.8112,-19.2719,2.3506,
24.4425,-1.8802,92.1295,9.401,-5.2126,-21.6229,1.8802,-26.3231,60.1666,7.5203,-15.4699,-4.1888,-18.8024,7.5203,
27.2635,9.4014,102.4712,17.8621,-4.7003,-11.2812,-4.7003,-21.6224,55.4659,3.7604,-15.0415,-3.7604,-31.9628,22.5203,
25.8532,22.0919,113.282,22.0919,-7.9912,-2.3501,-12.6914,-32.4332,46.5349,-5.1706,-6.1105,2.3501,-40.8948,28.6728,
24.9124,22.0919,114.2227,20.2122,-5.1706,-9.8709,-7.0504,-38.0742,47.4748,-3.29,-16.4518,3.29,-25.8948,15.5119,
29.1432,9.4014,115.633,16.9222,-12.221,-22.5623,-3.7604,-27.2626,47.0053,0,-28.2024,0,-13.1609,7.5208,
40.4239,14.1012,129.7342,19.7423,-7.5212,-16.9217,0.94032,-12.2626,48.8855,-0.94032,-16.9217,-3.7608,-11.2816,15.042,
33.374,13.6313,129.2643,19.2723,-5.1706,-12.6914,5.1706,-17.3917,36.1936,-5.1706,-15.5119,-18.3315,-22.0919,9.8709,
19.7418,4.7003,117.5127,18.8019,-15.0415,-26.3227,-0.93987,-27.2626,31.023,0.93987,-25.3828,-20.6826,-23.5022,8.4606,
20.2126,9.8713,109.522,23.973,-17.3921,-19.2719,-13.6317,-19.2719,41.8342,6.111,-18.332,-6.111,-13.6317,20.2126,
10.8117,7.9912,94.522,17.3917,-23.0327,-4.2719,-24.9124,-19.2723,40.8948,-2.3501,-9.8709,-5.1706,-25.8523,17.3917,
4.2308,1.4103,79.522,16.4518,-29.6136,9.8709,-21.1521,-24.9124,39.0141,-1.4103,-4.2308,-9.8709,-32.4332,8.931,
9.8709,6.1105,76.618,22.0919,-25.8532,-4.2308,-23.0327,-28.6737,28.6728,2.3501,-5.1706,-2.3501,-26.7931,6.1105,
11.2816,12.2215,70.5079,9.401,-21.622,-9.401,-36.6635,-36.6635,13.6728,-10.3408,-11.2807,10.3408,-27.263,14.1012,
20.6821,16.9217,60.1666,2.8201,-23.5026,-2.8201,-30.0835,-38.5442,13.1614,-15.9819,-17.8625,5.6406,-36.6644,24.4425,
35.6821,27.263,59.2259,15.9819,-21.6229,4.7007,-15.0835,-28.2029,15.9819,-4.7007,-24.4425,-6.5813,-37.6043,20.6821,
47.0053,28.2024,51.7055,21.6224,-19.7427,5.6401,-12.2219,-27.2635,3.7604,-4.7012,-29.1432,-3.7604,-26.3227,6.5809,
42.305,15.0415,49.8258,16.9222,-19.7418,-1.8806,-13.1618,-29.1432,3.7604,-19.7012,-22.5623,1.8806,-21.6224,4.7003,
39.4841,8.4611,57.3461,16.9217,-13.1614,2.8201,-5.6406,-18.8015,15.042,-21.622,-18.8015,-2.8201,-32.9032,15.042,
27.2626,4.7003,56.4058,20.6826,-13.1618,4.7003,-4.7003,-13.1618,15.9814,-6.622,-31.0239,-14.1017,-41.3642,9.4005,
27.733,2.3501,47.4757,22.0928,-15.5119,-9.8709,-2.3501,-19.2723,27.733,6.1105,-27.733,-8.931,-26.3642,8.931,
26.3236,-3.7604,45.1255,16.9222,-15.0415,-23.5022,-3.7604,-23.5022,33.8444,13.1618,-15.0415,3.7604,-20.6817,11.2821,
15.5124,-3.2904,40.8943,23.0331,-18.332,-18.332,-14.5716,-22.0924,18.8444,12.6919,-14.5716,13.6317,-35.6817,3.2904,
12.221,2.8205,26.3227,24.443,-28.2033,-15.0415,-18.8019,-25.3828,3.8444,3.7604,-20.6826,16.9222,-47.9451,5.641,
19.7422,5.6406,21.6229,17.8625,-23.5026,-22.5619,-19.7422,-27.263,-4.7007,4.7007,-15.0411,9.401,-42.3046,10.3417,
32.9036,14.1017,35.7241,28.2033,-8.5026,-7.5619,-6.5809,-12.263,10.2993,11.2812,-0.041096,-0.93987,-32.9036,-0.93987,
39.9544,18.332,35.2542,34.3143,-3.2904,5.1711,3.2904,-9.8705,11.7511,-3.7188,-8.9306,-14.5716,-24.9129,-13.6308,
45.5946,24.9129,31.4938,36.1941,0.46994,3.2904,-0.46994,-10.8112,-1.4098,-1.4098,-18.332,-7.0508,-25.8528,1.3692,
30.5946,19.2728,25.8528,23.973,-0.46994,-9.8705,-13.6308,-14.5716,0.46994,4.2303,-19.2719,-6.1101,-40.8528,14.5716,
27.263,15.9819,31.0234,24.4425,1.8802,-2.8201,-1.8802,-15.0411,2.8201,-5.6406,-14.1012,-7.5203,-29.1428,3.7608,
33.3735,13.6308,28.6733,36.194,7.9907,-7.9907,5.1702,-15.5124,0.46994,-8.9315,-23.973,-4.2303,-22.0924,-0.46994,
31.0239,5.641,17.8621,36.664,2.8205,-22.9907,-2.8205,-18.8019,15.4699,6.0685,-34.7833,-2.8205,-37.0924,-12.221,
39.0146,7.0508,22.0924,32.4337,-2.3506,-33.3735,-3.2904,-18.332,30.4699,19.2719,-22.0924,2.3506,-37.1339,-22.0924,
34.3134,2.3497,18.332,27.7325,-4.2303,-27.7334,0.46994,-23.973,23.9721,4.2719,-7.0924,0.46994,-29.6132,-27.7334,
26.7931,-4.2308,6.1105,26.7931,1.4103,-35.2537,4.2299,-26.7931,19.2714,-5.1706,3.29,-1.4103,-34.3139,-32.4341,
29.1428,8.4611,1.8802,25.3824,-0.94032,-24.4425,-4.7007,-21.622,14.1012,-8.4611,0.94032,3.7599,-35.7237,-30.0835,
38.5446,20.6826,14.1017,20.6826,3.7604,-9.4425,-3.7604,-16.9213,15.9823,-6.58,-4.7003,5.641,-24.4421,-19.7418,
31.023,5.6826,11.2812,15.9814,0,-20.6826,0,-26.3236,21.6215,0,-19.7003,-7.5208,-39.4421,-27.2635,
26.3227,2.8205,-3.7188,28.2033,0,-23.5031,0,-18.8019,23.5022,7.5208,-22.5623,7.4792,-51.706,-12.2635,
24.443,17.8205,-7.5208,26.3227,1.8797,-8.5031,-6.5809,-14.1017,20.6826,-2.8205,-7.5623,22.4792,-37.6039,0,
22.5628,12.2215,1.8802,15.9819,0.94032,-0.94032,-8.4611,-25.3824,23.5026,-3.7599,-4.7007,7.5212,-27.263,-15,
32.4332,0.47038,8.931,18.3315,4.2308,-15.9403,-0.47038,-32.4332,30.5535,2.3501,-13.6313,-7.4788,-32.4332,-30,
35.2537,1.4103,4.2308,27.733,2.3501,-25.8523,4.2308,-26.7931,24.9133,-4.2299,-1.4103,-1.4103,-36.1936,-30.5535,
25.3833,7.5212,-0.94032,30.0835,-3.7599,-10.8523,-1.8802,-29.1428,16.9217,8.4611,0.94032,13.5897,-29.1428,-25.3824,
24.9129,22.0924,1.4098,36.1941,-1.4098,-2.3506,-1.4098,-22.0924,25.8528,23.4611,-7.9907,28.5897,-24.9129,-10.3824,
27.733,20.2122,-1.4103,36.1936,2.3501,-15.5119,2.3501,-14.5712,23.9726,8.4611,-12.6914,13.5897,-39.9129,-3.29,
31.4938,17.3921,2.3506,30.553,16.4522,-4.2303,5.1702,-14.5716,19.2719,-6.5389,-2.3506,-1.4103,-42.7749,-18.29,
33.8435,15.9814,2.8205,26.3227,16.9222,-16.9222,-6.5809,-25.3828,13.1609,-0.93987,-5.641,0.93987,-37.6039,-33.29,
38.5437,5.6401,-3.7604,24.4421,8.4606,-31.9222,-11.2812,-31.0239,10.3413,3.7604,-13.1618,11.2812,-40.4244,-33.8444,
39.4841,15.042,0.94032,29.1428,11.2807,-19.7422,0.94032,-16.0239,17.8616,-1.8802,-0.94032,-2.8201,-35.7237,-18.8444,
31.4938,30.042,-3.2904,29.6132,3.2904,-4.7422,-4.2303,-7.0508,20.2126,-7.0508,4.2303,-15.5115,-35.2542,-12.691,
40.4244,36.664,-3.7604,35.7232,-0.94077,10.2578,0,0,28.2024,-2.8205,10.3404,-10.3413,-29.1432,-9.4014,
36.664,31.023,-2.8205,37.6039,-4.7003,25.2578,0.93987,-0.93987,25.3828,-5.641,13.1609,-16.9222,-29.1432,-24.4014,
31.4929,30.553,0.46994,41.8342,-3.2904,35.2533,-0.46994,-3.2904,21.1516,-4.2303,9.8705,-9.8713,-26.7935,-28.6733,
30.0835,20.6821,-6.5805,34.7838,-5.6406,30.0835,-1.8802,-9.401,12.2215,-4.7007,-3.7599,5.1287,-35.7237,-13.6733,
23.0323,9.8713,-21.5805,23.9721,-15.5115,15.5115,-15.5115,-18.332,5.1702,-4.2303,-5.1711,20.1287,-46.5353,1.3267,
16.9217,12.2215,-26.3223,21.6229,-19.7423,15.042,-22.5619,-20.6821,-1.8802,1.8802,9.8289,15.9819,-41.3647,-13.6733,
23.973,10.8112,-16.4514,22.0924,-10.8112,23.973,-11.7511,-19.2719,-10.8112,15.5124,11.752,12.6919,-34.3134,-16.4514,
32.4337,16.4522,-7.0508,32.4337,0.46994,31.4938,-0.46994,-12.691,-6.1101,25.8528,-3.248,20.2126,-34.3134,-7.9907,
25.8532,19.2723,-7.9903,34.3139,-1.4103,22.0928,-3.29,-7.9903,1.4103,12.6914,-2.3501,29.6136,-42.7745,-16.4518,
27.7325,15.5115,-11.7511,26.7926,-5.1711,21.1525,0.46994,-7.9907,-0.46994,-2.3086,12.6499,17.3912,-43.7148,-18.332,
36.1936,21.1521,-5.1706,23.9726,0.47038,31.4933,7.0504,-7.0504,-0.47038,-7.0504,14.5712,2.3912,-28.7148,-13.6313,
29.6136,23.0327,-2.3501,28.6728,-0.47038,25.8532,0.47038,-7.9912,0.47038,-3.29,0.47038,-8.931,-29.6136,-20.2122,
34.3134,29.6132,-6.111,39.9544,-3.2905,27.7334,4.2303,-7.0508,-2.3506,-13.6317,2.3506,6.069,-39.0146,-7.9907,
36.664,24.443,-17.8621,29.1432,-13.1609,33.8435,2.8205,-16.9213,-15.9814,-28.6317,-2.8205,16.9222,-47.0053,7.0093,
43.244,30.0831,-2.8621,40.4244,-2.8205,48.8435,15.9814,-2.8205,-6.5809,-15.0415,0,1.9222,-32.0053,21.6224,
28.6733,23.973,7.0508,39.9544,-4.2303,38.0747,10.8112,0.46994,-2.3497,-7.9907,-0.46994,-8.9306,-33.3735,6.6224,
19.7418,14.1017,-7.9492,24.9544,-9.4014,23.0747,-0.93987,-4.7003,0.93987,-11.2812,1.8797,1.8797,-45.1246,-8.3776,
26.7931,10.8108,-20.2122,25.8532,-6.1105,19.2723,-3.29,-0.47038,-0.47038,-2.3501,1.4103,9.8709,-52.1759,0.47038,
21.1521,4.2308,-26.7931,26.7931,-14.5712,14.5721,-9.8709,-10.8108,-12.6914,7.0504,-4.2308,11.7515,-54.9955,7.0504,
17.3917,7.9912,-25.8532,25.8523,-22.0928,16.4518,-15.5119,-25.8108,-22.0928,6.1105,-5.1706,11.7515,-53.1158,5.1706,
31.9633,17.8616,-17.8616,35.7237,-12.2215,31.0234,-6.5805,-15.9819,-17.8616,1.8802,-1.8802,15.042,-49.8253,12.2215,
34.7838,15.042,-16.9217,44.1852,-3.7599,34.7838,6.5805,-3.7599,-8.4611,-0.94032,-6.5805,23.5026,-54.526,0.94032,
27.2626,15.9814,-13.1618,47.0044,-3.7604,33.8435,8.4606,0,0,-3.7604,-3.7604,26.3227,-51.706,0,
23.5026,16.9226,-22.5619,37.6043,-9.401,33.8439,-1.8802,-5.6406,-6.5805,1.8802,-6.5805,14.1021,-53.5857,12.2215,
22.5628,15.9819,-31.0234,32.904,-14.1012,29.1437,-11.2807,-7.5203,-15.981,5.6406,-5.6406,14.1021,-64.8669,12.2215,
17.8621,12.2219,-28.2033,34.7842,-17.8621,23.5031,-15.0415,-4.7003,-13.1609,-9.3594,4.7003,10.3413,-70.5075,6.5809,
19.7422,14.1012,-23.5026,35.7237,-11.2816,24.4425,-6.5805,-0.94032,-8.4611,-8.4611,0.94032,3.7599,-57.3466,21.5809,
25.8532,11.7515,-27.733,31.4933,-9.8709,24.9124,1.4103,-1.4103,-21.1521,-2.3501,-5.1706,4.2308,-46.5349,15.5119,
29.6132,6.111,-27.7325,26.7926,-14.5716,25.8528,-2.3506,-6.111,-28.6733,-15.5115,9.8294,8.9315,-47.4752,2.3506,
26.7931,13.6313,-23.0327,29.6127,-13.6313,22.0919,-11.7515,-11.7515,-21.1521,-23.9726,24.8294,11.7515,-44.6551,15.5119,
16.9222,12.221,-34.7842,31.023,-11.2812,14.1017,-11.2812,-12.221,-13.1618,-14.1017,20.6826,13.1609,-38.5446,11.2812,
15.5119,-1.4103,-39.0141,30.5535,-7.9903,16.4518,-5.1706,-7.9903,1.8382,-6.1105,16.4518,19.2723,-32.4332,1.4103,
17.8616,-12.2215,-35.7237,28.2029,-13.1614,12.2215,-8.4611,-15.9819,8.4611,-19.7423,8.4611,8.4611,-38.5442,9.401,
24.9129,-0.46994,-21.1525,33.3735,-11.7511,15.5115,0.46994,-7.0508,16.4522,-18.332,-2.3506,8.9306,-45.5946,21.1525,
17.3921,3.2904,-27.7325,20.2126,-14.5716,20.2126,-3.2904,-4.2303,21.1525,-16.4514,-8.9306,6.111,-56.8757,6.1525,
13.1609,6.5809,-41.3642,13.1609,-8.4606,28.2033,-15.9814,-8.4606,25.3828,-11.2812,3.7604,-3.7604,-44.1848,9.4005,
13.1614,2.8201,-45.1251,10.3408,-8.4611,23.5026,-19.7422,-15.9819,26.3231,-4.7007,4.7007,-2.8201,-33.8439,23.5026,
10.3413,-3.7604,-45.1255,8.4606,-16.9222,11.2812,-15.9823,-20.6826,31.023,0,0,11.2812,-47.0053,17.8621,
7.0513,-2.3501,-47.4748,9.8709,-19.2723,8.931,-17.3917,-13.6313,43.7153,2.3501,7.0513,-2.3501,-47.4748,9.8709,
7.5208,-2.8205,-50.7657,6.5809,-22.5623,2.8205,-19.7418,-4.7003,58.2864,3.7604,6.5809,-17.3501,-32.9036,7.5208,
11.2812,1.8806,-56.4058,0.93987,-16.9213,6.5809,-8.4606,-4.7003,49.8258,3.7604,-0.93987,-11.2812,-32.9036,19.7427,
13.1614,10.3408,-58.286,-3.7608,-1.9213,18.8024,-0.94032,-12.2215,34.8258,0.94032,-0.94032,3.7188,-32.9032,27.263,
16.4518,1.4103,-45.595,3.29,-2.3501,3.8024,-8.931,-18.3315,49.8258,15.5119,8.931,-11.2812,-25.8523,14.5721,
19.7427,0,-35.7232,15.0415,0,0,-9.4005,-7.5208,64.8258,30.5119,16.9222,-10.3404,-20.6817,23.5031,
4.7427,-1.4103,-50.7232,5.1706,-5.1706,15,-16.4518,-4.2308,49.8258,39.954,1.9222,4.6596,-29.6136,27.733,
-2.8201,2.8201,-60.1666,5.6406,-18.8024,30,-29.1428,-6.5805,34.8258,24.954,-13.0778,12.2215,-34.7838,24.4425,
-2.8201,2.8201,-56.4062,4.7007,-33.8024,45,-44.1428,-16.9217,24.4425,9.954,-24.4425,3.7608,-49.7838,22.5628,
4.2303,14.5716,-52.1755,15.5115,-32.4337,60,-32.4337,-2.3506,27.7325,0.46994,-30.553,-0.46994,-58.7564,29.6132,
0.94032,12.2215,-55.4664,20.6821,-29.1428,59.2268,-23.5026,4.7007,31.0234,-0.94032,-40.4248,-5.6406,-48.8855,16.9217,
-0.93987,0.93987,-52.6463,15.0415,-33.8435,47.9451,-30.0831,-4.7003,30.0831,1.8797,-25.4248,9.3594,-46.0654,17.8621,
2.3506,6.111,-53.1162,11.7511,-36.1941,57.8165,-38.0738,-11.7511,15.5115,-2.3506,-10.4248,23.0323,-58.7564,26.7926,
1.8802,11.2807,-58.2869,10.3408,-31.0234,56.4053,-32.904,-7.5212,10.3408,-1.8802,-9.4019,8.0323,-57.347,26.3223,
-0.93987,7.5208,-54.526,11.2812,-28.2024,41.4053,-25.3828,0.93987,24.443,6.5809,-3.7604,-0.93987,-42.347,30.0831,
-7.0508,4.2303,-57.8165,9.8713,-40.8943,32.4337,-36.1941,-4.2303,33.3735,2.3506,-2.3506,4.2303,-50.2957,18.332,
0,16.9213,-54.526,19.7418,-34.7842,47.4337,-31.9637,-3.7604,29.1423,0,-9.4014,7.5208,-60.1671,8.4606,
3.2904,14.5716,-54.996,20.2126,-28.6733,54.996,-26.7926,0.46994,16.4522,-3.2904,-24.4014,-0.46994,-54.0561,6.111,
-0.93987,0,-51.7055,13.1618,-43.6733,39.996,-25.3828,2.8205,23.5031,0,-29.1432,2.8205,-39.0561,0,
-5.6406,5.6406,-49.8253,15.042,-43.2444,32.9032,-22.5628,2.8201,25.3824,4.7007,-14.1432,3.7608,-36.6644,-2.8201,
-0.47038,7.9912,-54.9964,22.0919,-29.6136,34.3139,-25.8532,7.0504,15.5119,4.2308,-7.0513,-4.2308,-51.6644,0.47038,
3.2904,-7.0088,-51.2356,23.973,-36.194,21.1525,-22.0924,7.0508,18.332,10.8112,-15.5115,6.111,-51.2356,-3.2904,
0.93987,-0.93987,-36.2356,32.9036,-38.5446,25.3828,-9.4014,3.7604,23.5022,20.6826,-4.7003,16.9213,-36.2356,-2.8205,
-8.931,6.1105,-42.7745,29.6136,-29.6127,34.3139,-16.4518,3.2909,17.3917,12.6914,-11.7506,2.3501,-49.3554,-2.3501,
-6.1105,6.1105,-47.4752,31.4933,-25.8523,34.3139,-20.2122,10.8117,24.9124,18.3324,-20.2122,11.7515,-52.1755,-7.0504,
-0.46994,0.46994,-41.8342,30.553,-36.1941,26.7926,-14.5716,4.2303,25.8528,21.1525,-5.2122,20.2117,-41.8342,-12.691,
0,0,-37.6039,26.3227,-35.7241,34.7842,-13.1609,-3.7604,18.8019,6.1525,6.5809,5.2117,-40.4244,-5.6401,
9.401,7.5212,-41.3638,28.2038,-31.0234,43.2453,-15.0411,1.8802,17.8625,-1.8802,-8.4191,5.6406,-48.8846,-2.8201,
3.7604,3.7604,-48.885,19.7427,-36.664,32.9036,-17.8621,-3.7604,15.0415,7.5208,-18.8019,18.8019,-62.9867,-7.5208,
-4.2303,6.111,-41.8342,22.0924,-21.664,27.7334,-14.5716,-10.8112,12.6919,14.5716,-8.9306,13.6317,-62.5168,4.2303,
-5.6401,4.7003,-45.1246,27.2635,-16.9213,31.0239,-22.5623,-4.7003,8.4615,11.2812,-20.6817,13.1618,-67.6874,12.2219,
0.46994,-3.2905,-54.996,23.973,-31.9213,32.4337,-23.9721,-0.46994,14.5716,5.1711,-25.8528,23.973,-75.6781,3.2904,
13.1609,1.8797,-40.4244,30.0831,-30.0831,28.2033,-13.1618,0.93987,22.5623,3.7604,-10.8528,8.973,-60.6781,-9.4014,
15.9819,11.2816,-27.263,32.904,-15.0831,31.0234,-13.1614,2.8201,11.2816,5.6406,-2.8201,-6.027,-45.6781,-22.5619,
17.8621,18.8019,-31.0239,30.0831,-19.7418,38.5437,-15.9814,3.7604,11.2812,15.0415,-8.4606,-3.7604,-42.305,-7.5619,
2.8621,3.8019,-45.1251,19.7423,-34.7418,23.5437,-30.9814,-11.2396,15.9819,6.5805,-21.622,6.5805,-57.305,7.4381,
5.1706,-2.3501,-31.4933,29.6136,-49.7418,18.3324,-20.2122,-11.7515,22.0928,2.3501,-6.622,7.9912,-45.595,7.0504,
20.1706,-1.4098,-30.553,32.4337,-34.7418,29.6132,-7.0508,-0.46994,16.4522,0.46994,6.111,7.0508,-37.1339,-7.9496,
24.9129,-7.0508,-37.1339,24.9129,-19.7418,14.6132,-5.1711,-8.9315,19.2719,7.9907,-4.2303,4.2303,-33.3735,-20.2126,
33.374,-2.3501,-22.1339,28.6737,-4.7418,-0.38685,6.1105,-7.0504,33.374,14.5721,-3.29,2.3501,-20.2122,-23.9726,
33.8435,-5.6401,-21.6224,30.0831,10.2582,-15.3868,11.2812,-6.5809,31.9637,10.3413,0,0,-19.7418,-31.9637,
26.7931,-17.3917,-31.4933,26.7931,25.2582,-30.3868,3.29,-11.7515,23.9726,16.4518,-1.4103,1.4103,-25.8532,-32.4332,
32.4337,-12.6919,-25.8528,33.3735,40.2582,-45.3868,7.0508,-7.9907,17.3921,14.5716,-5.1702,5.1702,-25.8528,-22.0924,
33.8435,0,-24.443,31.023,53.5853,-31.9637,14.1008,-9.4014,15.9814,-0.42839,0,0.93987,-27.2635,-19.7427,
29.1428,-3.7608,-26.3231,24.4425,56.4062,-30.0835,9.401,-6.5805,27.263,0.94032,15,-0.94032,-27.263,-14.1012,
24.443,-18.7608,-30.0831,19.7418,41.4062,-38.5446,2.8205,-5.641,12.263,-0.93987,7.5208,0.93987,-32.9036,-27.2635,
31.4929,-11.752,-27.7334,21.1516,38.0738,-30.5539,17.3912,-5.1711,3.2904,0.46994,-0.46994,5.1702,-18.332,-32.4337,
31.023,-2.8205,-25.3828,23.5022,50.7657,-32.9036,22.5623,-9.4014,18.2904,2.8205,14.5301,-7.5208,-4.7003,-19.7427,
32.9032,-1.8802,-19.7423,28.2029,39.4841,-31.0234,17.8616,-4.7007,28.2029,1.8802,29.5301,-1.8802,-3.7608,-6.5805,
27.733,-6.1105,-23.9726,19.2714,24.4841,-32.4341,14.5712,-7.0513,13.2029,-6.1105,14.5301,6.1105,-7.9912,-21.5805,
36.664,-4.7003,-17.8621,28.2033,34.7833,-31.9637,20.6817,-12.221,13.1609,-5.641,2.8205,0.93987,-0.93987,-36.5805,
51.2356,-4.2303,-9.8705,37.1339,49.7833,-26.7926,19.2719,-8.9306,28.1609,4.2303,8.9315,-5.1702,-7.9907,-21.5805,
36.2356,-5.6401,-20.6817,22.5632,34.7833,-31.9628,8.4615,-9.4005,29.1432,11.2812,3.7604,-3.7604,-22.9907,-6.5805,
21.2356,-14.1012,-27.263,7.5632,19.7833,-43.2444,-0.94032,-20.6821,14.1432,7.5203,2.8201,0.94032,-26.3231,-20.6821,
8.4611,-22.5628,-26.3231,11.2816,24.4425,-36.6644,5.6406,-20.6821,-0.85678,6.5805,11.2816,2.8201,-12.2215,-14.1012,
21.153,-21.1521,-30.5535,16.4518,23.0327,-28.6728,5.1706,-11.7506,8.931,10.8117,17.3926,-5.1706,-15.511,-11.7506,
22.5619,-14.1021,-22.5628,17.8616,26.3231,-27.263,12.2215,-5.6406,22.5619,5.6406,26.3231,-7.5212,-11.2816,-15.9819,
29.6136,-7.9903,-7.5628,22.0928,41.3231,-16.4518,20.2122,-8.931,7.5619,-7.0504,23.0327,5.1706,-2.3501,-9.8709,
44.1852,2.8201,-4.7007,26.3231,51.706,-2.8201,15.9819,-12.2215,-7.4381,-17.8616,9.401,12.2215,-10.3408,-4.7007,
47.9451,5.641,-12.221,31.0239,50.7657,-10.3413,20.6826,-6.5809,-8.4606,-15.0415,11.2812,3.7604,-13.1609,-3.7604,
43.2444,2.8201,-10.3408,36.6644,50.7652,-25.3413,21.6229,-6.5805,2.8201,-2.8201,21.6229,-3.7599,-5.6406,-6.5805,
45.1246,9.4005,-8.4606,35.7241,50.7657,-14.1017,19.7418,-5.641,0.93987,-0.93987,18.8019,-4.7003,-1.8806,-9.4014,
45.1246,5.6401,-13.1618,25.3828,49.8249,-2.8205,16.9222,-7.5208,-10.3413,-8.4606,3.8019,0,-10.3413,0,
49.8258,-3.7604,-18.8019,20.6826,45.1246,-12.221,11.2812,-11.2812,-14.1017,3.7604,-3.7604,10.3413,-13.1609,15,
50.7657,-13.1618,-30.0831,15.0415,35.7241,-26.3227,0,-17.8621,-13.1618,6.5809,0,11.2812,-8.4606,4.7003,
53.5862,-2.8205,-24.443,25.3828,45.1246,-13.1618,9.4005,-11.2812,-14.1017,-5.641,11.2812,7.5208,2.8205,-10.2997,
43.244,3.7604,-16.9222,27.2626,46.0645,-4.7012,15.0415,-3.7604,-23.5031,-15.9823,15.9814,9.4005,-7.5208,-4.7012,
28.244,0.93987,-20.6826,12.2626,31.0645,-17.8621,0.041543,-14.1017,-29.1432,-22.5623,17.8621,13.1618,-14.1017,9.4014,
35.2537,8.931,-19.2723,18.3315,31.4933,-25.8532,0.47038,-21.1521,-21.1521,-27.733,22.0919,-0.47038,0.89833,-3.29,
40.4239,5.6406,-15.042,30.0835,42.3046,-18.8024,14.1012,-14.1012,-6.1521,-15.042,23.5026,-15.4704,10.3408,-18.29,
31.0234,-9.3594,-16.9217,27.263,28.2029,-16.9217,12.2215,-5.6406,1.8802,-0.041991,25.3833,-1.8802,-1.8802,-10.3408,
28.6733,-17.3921,-20.2117,30.5539,17.3921,-29.6132,0.46994,-7.0508,-3.2904,-0.46994,23.973,13.1198,-0.46994,4.2303,
32.9032,-10.3408,-12.2215,35.7237,24.4425,-32.904,6.5805,-8.4611,-2.8201,-1.8802,13.1614,5.6406,1.8802,-5.6406,
39.0141,-6.1105,-1.4103,35.2537,35.2537,-20.2122,21.5805,1.4103,-4.2308,13.1198,-1.4103,3.29,-3.29,-13.6313,
39.0146,-9.8705,-9.8705,33.3735,32.4337,-29.6132,18.332,-0.46994,-16.4514,7.9907,0.46994,18.29,-0.46994,-2.3497,
38.5442,-1.8802,-17.8616,35.7237,26.3232,-38.5442,9.401,-6.5805,-15.0411,-7.0093,15.4699,10.3408,1.8802,-2.8201,
42.7745,9.8709,-6.1105,32.4332,30.5535,-23.5442,17.3917,-2.3501,-9.8709,-7.9912,23.9726,-4.6592,2.3501,-14.5712,
35.7241,0,-9.4005,17.4332,32.9036,-8.5442,13.1618,-8.4606,-24.8709,-17.8621,15.9814,-18.8019,0,-29.1432,
33.8439,-2.8201,-12.2215,21.622,34.7838,-21.6229,9.401,-4.7007,-13.1614,-18.8024,26.3223,-3.8019,2.8201,-19.7422,
31.4938,-5.1702,-18.332,27.7334,25.8528,-23.0323,1.4098,-7.0508,-1.4098,-10.8112,29.6132,11.1981,0.46994,-4.7422,
31.4938,-3.2904,-22.0924,28.6733,23.0331,-8.9306,0.46994,-10.8112,-15.5115,-9.8705,23.0331,14.5716,-0.46994,10.2578,
16.4938,-0.47038,-25.8523,21.1521,19.2723,-15.5119,0.47038,-6.1105,-8.931,-20.2122,16.4518,7.9912,-5.1706,17.3917,
6.111,-5.1702,-30.553,7.9907,16.4522,-12.691,0.46994,-3.2904,6.069,-16.4514,7.0508,7.0508,-6.111,2.3917,
11.2812,-20.1702,-35.7241,3.7604,16.9222,-11.2812,0,-15.9814,6.5809,-14.1017,0,2.8205,4.7003,-12.6083,
0,-35.1702,-36.664,0.94077,11.2821,-26.2812,0,-27.2626,15.9823,-25.3819,3.7613,0.94077,12.2219,-24.4421,
-0.47038,-30.5535,-23.9726,7.0504,17.3917,-26.7931,-1.4103,-12.6914,30.9823,-10.3819,18.7613,15.5119,17.3917,-9.4421,
-1.8806,-38.5446,-36.664,0,8.4606,-27.2626,-16.4103,-19.7418,45.9823,2.8205,3.7613,0.51193,2.3917,2.8205,
9.8709,-23.5446,-35.2537,5.1706,4.2308,-24.9124,-19.2723,-25.8532,52.1759,5.1706,-0.47038,-7.0513,0.47038,2.3501,
8.9306,-8.5446,-25.8528,10.8112,0.46994,-14.5716,-23.0323,-19.2719,58.7564,4.2303,-4.2303,-0.46994,-7.9907,15.5115,
1.4103,0.47038,-36.1936,7.9912,3.2909,-10.8108,-28.6728,-12.6914,55.9363,5.1706,-14.5712,-0.47038,-17.3917,20.2122,
5.6406,-14.5296,-46.065,13.1614,10.3408,-15.042,-13.6728,-14.1012,62.9871,20.1706,-2.8201,2.8201,-6.5805,19.7422,
1.4103,-23.9726,-46.5349,6.1105,2.3501,-29.6127,-11.7515,-24.9124,51.236,25.8532,-1.4103,3.2909,-7.9912,23.0327,
8.4602,-15.042,-31.5349,9.401,5.6406,-33.8439,-11.2816,-15.042,40.4239,20.6821,-5.6406,16.9217,-6.5813,29.1428,
9.401,-18.8015,-25.3824,14.1021,2.8201,-31.9633,-14.1012,-14.1012,41.3647,16.9217,-5.6406,1.9217,-1.8802,14.1428,
13.1614,-18.8015,-30.0826,15.042,-0.94032,-23.5026,-12.2215,-15.0411,46.065,31.9217,9.3594,-13.0783,0.94032,9.401,
16.9217,-9.401,-20.6821,25.3824,-0.94032,-24.4425,-1.8802,-0.94032,48.8855,40.4239,17.8616,-1.8802,0.94032,14.1012,
9.8705,-12.6919,-23.973,30.553,-0.46994,-29.6132,-4.2303,0.46994,42.7741,25.4239,2.8616,-2.3506,-5.1711,9.8705,
16.4514,-9.8713,-18.332,23.0323,10.8112,-14.6132,-11.7511,-9.8713,41.8342,15.5115,7.0508,-10.8112,-7.0508,19.2719,
16.4518,-6.1105,-18.3324,17.3917,10.8108,-19.2723,-13.6313,-24.8713,36.1936,10.8108,5.1706,-5.1706,-15.5119,7.0504,
11.2816,-8.4611,-26.3231,18.8024,3.7608,-33.8439,-7.5212,-15.9819,32.9032,3.7608,-3.7608,5.6406,-15.9819,6.5805,
7.9916,-13.6308,-26.7926,13.6317,-0.46994,-18.8439,-16.4514,-0.98186,18.332,4.2312,-0.46994,7.9916,-21.1516,21.5805,
-0.93987,-12.2219,-31.0239,9.4005,-7.5208,-3.8439,-30.0831,-9.4014,5.6401,8.4606,0.93987,5.6401,-31.0239,35.7241,
0.94077,-4.7003,-31.9628,15.9823,1.8806,0,-18.8019,-17.8612,20.6401,17.8621,0,-2.8196,-16.9213,20.7241,
15.5115,3.2904,-16.9628,26.7926,13.6317,-7.9907,-5.1702,-7.0508,35.6401,27.7334,-3.2904,-6.111,-8.9306,5.7241,
17.8621,3.7604,-15.9823,28.2024,-1.3683,-13.1618,-16.9222,-10.3413,20.6401,15.0415,-13.1618,8.889,-23.9306,8.4606,
17.8616,12.2215,-30.9823,28.2029,-16.3683,0.94032,-19.7423,-15.042,10.3408,0.041544,-11.2816,15.9819,-38.9306,23.4606,
12.6914,21.1521,-40.8948,21.1521,-19.2723,7.0504,-26.7931,-16.4518,9.8709,-1.4103,-23.9726,1.4103,-50.2953,26.7931,
4.7003,21.6224,-33.8435,13.1618,-23.5022,5.6401,-38.5446,-20.6826,0,4.7003,-38.9726,0,-56.4058,11.7931,
17.8625,28.2029,-19.7422,25.3833,-12.2215,10.3408,-27.263,-11.2807,1.8802,-1.8802,-36.6635,3.7608,-50.7652,14.1012,
32.8625,25.8528,-8.9315,34.3134,2.7785,11.7511,-12.263,3.7193,-3.2904,-8.9315,-21.6635,-11.2392,-35.7652,22.0924,
27.7325,10.8528,-9.8713,26.7926,3.2904,4.2303,-4.2303,0.46994,-16.4522,-0.46994,-25.8528,-26.2392,-27.7334,7.0924,
28.2038,18.8024,-4.6998,38.5442,15.9819,3.7608,-9.401,-1.8802,-1.4522,14.5301,-15.0411,-12.2206,-12.7334,-7.9076,
19.7422,10.3417,-15.9819,33.8439,21.6229,-8.4602,-8.4602,-5.6406,13.5478,19.7422,-3.7599,1.8802,-1.8802,-9.401,
8.4611,-4.6583,-23.5026,22.5628,17.8616,-16.9217,1.8802,-4.7007,28.2029,22.5628,-1.8802,12.2215,-3.7608,-4.7007,
8.931,-6.1105,-21.1521,25.8523,11.7506,-9.8709,-1.4103,1.4103,13.2029,23.9726,-9.8709,16.4518,-12.6914,-10.8117,
19.7422,2.8201,-6.1521,40.4239,15.9819,-2.8201,-5.6406,14.1012,-1.7971,26.3231,-10.3408,17.8616,-16.9217,-10.3408,
22.5623,-4.7003,-8.4606,32.9036,12.221,-12.221,-4.7003,8.4606,9.4014,15.0415,-4.7003,4.7003,-23.5022,-5.6401,
17.8616,-4.7007,-23.4606,18.8024,5.6406,-10.3408,-10.3408,-3.7608,0.94032,2.8201,-0.94032,8.4611,-21.622,5.6406,
8.9306,7.9907,-25.8528,26.7926,2.3506,1.4098,-14.5716,-1.4098,-14.0597,-5.1702,-13.6317,23.4611,-25.8528,7.0508,
0.46994,6.111,-31.4938,33.3735,-0.46994,5.1702,-15.5115,0.46994,-13.6317,-15.5115,-23.0323,13.6317,-36.1941,1.4098,
1.8802,4.7007,-37.6034,25.3833,14.1021,1.8802,-13.1614,-6.5805,1.3683,-15.0411,-10.3408,-1.3683,-21.1941,9.4019,
8.4611,0.94032,-27.263,19.7422,24.4425,-4.7007,-0.94032,-5.6406,-9.401,-0.041096,-6.5805,12.2215,-6.1941,5.6406,
19.2719,-6.111,-19.2719,23.973,21.1525,-7.0508,12.691,4.2303,-13.6317,10.8112,-16.4514,24.9129,-4.2303,-7.9907,
22.0928,-5.1706,-22.0928,27.733,16.4518,-7.0504,10.8108,4.2308,-0.47038,0.47038,-18.3324,18.3315,-7.9912,-1.4103,
7.9912,-5.1706,-24.9124,17.3917,20.2122,-8.931,-4.1892,-4.2308,1.4103,6.1105,-3.3324,20.2122,-7.9912,2.3501,
-7.0088,-12.221,-32.9036,9.4005,19.7418,-10.3413,-3.7604,2.8205,13.1609,21.1105,11.6676,30.0831,-2.8205,-6.5809,
-14.1017,-27.221,-47.0053,13.1609,7.5208,-16.9222,-3.7604,0,28.1609,13.1609,17.8612,15.0831,0,-9.4014,
-6.1101,-24.9129,-43.7148,17.3921,8.9315,-12.691,-2.3497,-1.4098,22.0924,7.0508,2.8612,7.0508,0.46994,1.4107,
-2.3501,-9.9129,-34.3139,8.931,17.3917,-3.29,-2.3501,11.7515,7.0924,18.3324,8.931,22.0508,-6.1105,-4.2308,
0.93987,-9.4014,-27.2635,12.221,12.221,-8.4606,-10.3413,15.0415,-0.93987,16.9222,11.2812,37.0508,-15.9814,-12.221,
3.2904,-15.5115,-26.7935,18.332,0.46994,-15.5115,-12.6919,0.041544,13.6317,9.8705,-3.7188,27.7325,-18.332,2.779,
8.4602,-8.4611,-25.3833,15.9819,5.6406,-10.3417,-5.6406,-10.3417,15.9819,15.0411,-15.9819,31.0234,-11.2816,15.0411,
7.5208,-2.8205,-24.443,9.4014,17.8621,-17.8621,-2.8205,-10.3413,2.8205,18.8019,-9.4005,46.0234,-10.3413,2.8205,
3.7604,-6.5809,-25.3828,6.58,19.7418,-23.5031,0,-3.7604,0,20.6817,-3.7604,41.3642,0.93987,-5.641,
5.1706,-11.7515,-24.9124,8.931,18.3315,-9.8709,2.3501,-2.3501,-3.29,19.2723,-5.1706,26.3642,15.9399,-4.2308,
7.9912,-9.8709,-19.2723,11.7515,24.9133,-2.3501,2.3501,-9.8709,-6.1105,13.6313,-3.29,23.9726,13.6313,-7.0504,
7.9907,0.46994,-19.2719,17.3921,25.8528,-7.0508,-0.46994,-2.3506,6.111,7.9907,-2.3506,27.7334,-1.3687,-7.0508,
4.2303,4.2303,-28.6733,15.5115,12.691,-4.2303,-8.9306,5.1702,5.1702,-7.0093,-12.691,28.6733,-16.3687,-8.9306,
14.5712,9.8709,-22.0928,21.1521,15.5119,10.7697,-8.931,-1.4103,1.4103,-20.2122,-11.7515,31.4933,-15.5119,-14.5721,
15.5119,20.2122,-17.3917,21.1521,16.4518,7.0513,-16.4518,-9.8709,-0.47038,-22.0919,0.47038,28.6728,-9.8709,-20.2122,
15.0415,23.5031,-12.221,16.9222,8.4615,3.7604,-20.6817,-3.7604,-3.7604,-26.3227,5.641,34.7842,-18.8019,-5.2122,
21.6224,15.9823,-4.7003,25.3828,7.5208,4.7003,-14.1017,-4.7003,-11.2812,-21.6224,-6.5809,33.8435,-18.8019,4.7003,
29.1432,16.9213,0,40.3828,21.6224,11.2812,-2.8205,0,-1.8806,-6.6224,-7.5208,24.4421,-15.9823,-7.5208,
17.8616,13.1614,-11.2816,33.8439,14.1012,9.401,-5.6406,5.6406,-11.2816,-9.401,-16.9217,23.5026,-28.2029,-17.8616,
9.4014,17.8621,-15.0415,27.2626,6.5809,8.4606,-7.5208,2.8205,-26.2816,-24.401,-27.2626,31.0239,-25.3828,-2.8616,
14.1021,23.5026,-3.7599,31.0234,17.8625,9.401,1.8802,-1.8802,-21.622,-20.6821,-15.9819,18.8024,-10.3828,-9.401,
15.5124,17.3921,-9.8705,24.9129,17.3921,3.2904,4.2303,0.46994,-13.6308,-23.9721,-16.4514,3.8024,-10.8112,-24.401,
19.7422,18.8024,-21.622,23.5026,14.1021,10.3417,-1.8802,1.8802,-23.5026,-35.7237,-31.4514,7.5212,-6.5805,-25.3824,
16.4514,24.9129,-22.0924,23.973,8.9306,19.2719,-10.8112,-9.8713,-38.5026,-50.7237,-29.6132,14.5716,-8.9306,-10.3824,
11.7511,34.3134,-15.5115,31.4938,5.1702,30.553,-11.7511,-7.9907,-41.8342,-35.7237,-14.6132,21.1525,-19.2719,4.6176,
9.8713,28.6733,-23.0323,34.3143,0.46994,31.4938,-22.0924,-0.46994,-27.7325,-20.7237,-8.9306,36.1525,-17.3912,-7.0508,
8.4606,20.6826,-26.3227,31.023,-3.7604,28.2033,-24.443,2.8205,-20.6826,-5.7237,-23.9306,49.8258,-7.5208,7.9492,
4.2308,24.9124,-21.1521,26.7931,-4.2308,33.374,-9.443,7.0513,-23.9726,-20.7237,-18.3315,47.4757,-9.8709,22.9492,
0.94032,22.5619,-21.6229,22.5619,-0.94032,31.0234,-5.6406,1.8802,-31.9633,-31.0234,-11.2816,37.6043,-19.7422,22.5619,
11.2816,12.2215,-17.8616,26.3231,1.8802,16.9226,-7.5203,-1.8802,-28.2029,-16.9217,-22.5619,38.5442,-15.981,15.042,
8.4611,2.8201,-19.7422,17.8616,-1.8802,1.9226,1.8802,2.8201,-31.9642,-31.9217,-37.5619,45.1251,-11.2816,20.6821,
-0.93987,0.93987,-19.7418,13.1618,9.4014,-5.6401,6.5809,2.8205,-39.4845,-37.6039,-28.2033,47.0053,-3.7604,17.8621,
8.4611,-5.6406,-13.1614,21.6229,23.5026,-1.8802,1.8802,-1.8802,-39.4841,-22.6039,-13.2033,39.4849,11.2396,9.401,
14.1017,-9.4005,-13.1609,24.443,23.5031,-2.8205,6.5809,0,-31.9637,-7.6039,0,36.664,7.5208,-0.93987,
6.1105,0.47038,-9.8709,31.4933,22.0919,-5.1706,7.9912,3.29,-16.9637,-0.47038,-5.1706,51.664,-6.1105,-2.3501,
4.7003,4.7003,-9.4005,34.7842,19.7427,0,-7.0088,0,-16.9213,-1.8797,-5.6401,61.1069,-6.5809,3.7604,
6.5813,2.821,-19.7423,23.5026,4.7427,4.7007,-19.7423,-1.8802,-31.9213,-16.8797,-20.6401,46.1069,-19.7423,1.8802,
5.641,17.821,-16.9213,31.9637,-3.7604,14.1017,-7.5208,3.7604,-46.9213,-28.2024,-33.8435,31.1069,-31.9628,7.5208,
-2.8205,16.9222,-8.4606,40.4244,2.8205,17.8621,-5.6401,5.641,-31.9213,-19.7418,-25.3828,45.1255,-20.6817,15.9823,
4.7003,1.9222,-6.5809,28.2033,12.221,8.4606,-11.2812,8.4606,-21.6224,-12.221,-23.5022,51.7055,-5.6817,20.6826,
15.5115,1.4098,-7.0508,23.973,7.9907,-1.4098,-1.4098,9.8713,-36.6224,-12.691,-26.7926,43.7148,-3.2904,23.0323,
10.8117,16.4098,-5.1706,38.973,-1.4103,-4.2299,7.0513,1.4103,-29.6127,-7.9903,-14.5712,42.7745,-4.2299,8.0323,
7.5203,13.1614,-8.4611,43.2444,-5.6406,5.6406,0.94032,5.6406,-14.6127,-6.5805,-0.94032,52.6459,-6.5805,-2.8201,
13.1614,4.7007,-14.1012,31.9633,-9.401,12.2215,-4.7007,9.401,-16.9217,-15.042,-8.4611,52.6458,-9.401,12.1799,
11.7506,7.0504,-9.8709,37.1335,-5.1706,3.29,-2.3501,2.3501,-9.8709,-9.8709,-8.931,46.5349,-5.1706,20.2122,
0.94032,-3.7599,-5.6406,40.4248,-2.8201,-7.5203,-0.94032,-1.8802,5.1291,1.8802,6.069,58.286,-4.7007,5.2122,
-1.8806,-7.5208,-7.5208,29.1432,-3.7604,-8.4615,-0.94077,0,20.1291,0,8.4606,73.286,0,15.0415,
-3.7599,0.94032,-15.9819,26.3231,-8.4611,-5.6406,-7.5203,5.6406,35.1291,-3.7599,-0.94032,67.6874,4.7007,30.0415,
1.4098,0.46994,-13.6317,32.4337,-6.111,-0.46994,-6.111,13.6308,42.7741,-0.46994,-6.111,54.996,-1.4107,31.4929,
15.0411,-1.8802,-4.7007,33.8439,1.8802,-4.7007,-3.7608,11.2807,29.1428,-14.1012,-4.7007,51.7051,-1.8802,45.1251,
10.8112,0.46994,-10.8112,24.9129,-0.46994,-13.6317,-15.5115,-0.46994,29.6132,-29.1012,-0.46994,38.0738,9.8713,42.7741,
-4.1888,1.8802,-22.5628,19.7422,-15.4699,1.3683,-22.5628,-1.8802,40.4239,-27.263,-3.7608,29.1428,12.2215,32.9032,
-1.4103,9.8709,-17.3917,33.374,-19.2723,16.3683,-12.6914,1.4103,36.1936,-12.263,-13.6313,39.954,-1.4103,45.595,
6.111,3.2904,-14.5716,27.7334,-9.8713,1.3683,-7.9907,-7.0508,23.973,2.737,-26.7926,43.7148,-10.8112,46.5353,
8.931,-5.1706,-7.9912,24.9124,-0.47038,-13.6317,0.47038,-4.2308,38.973,17.737,-25.8532,40.8948,-1.4103,32.4332,
9.4014,-6.58,-5.6401,30.084,-4.7003,-11.2812,0,-3.7604,50.7657,26.3236,-30.0831,31.0239,0,19.7427,
10.3408,0.94032,-7.5212,26.3232,-2.8201,-6.5805,-1.8802,-4.7007,35.7657,11.3236,-31.9633,23.5026,-0.94032,21.622,
8.931,1.4103,-8.931,16.4518,0.47038,-5.1706,-0.47038,-6.1105,21.1521,-3.6764,-38.0742,19.2723,-9.8709,22.0928,
6.111,-3.2904,-11.7511,17.3921,1.4098,7.9907,-1.4098,-8.9306,21.1525,-12.691,-39.9544,18.332,-7.0508,17.3921,
-2.8205,-6.5809,-23.5022,19.7418,-5.641,11.2812,-14.1017,-11.2812,28.2033,2.309,-26.3227,24.443,2.8205,11.2812,
-7.0508,-3.2904,-19.2719,16.4522,-6.1101,3.2904,-11.7511,-7.0508,39.0146,17.309,-11.3227,39.443,6.111,20.2126,
-12.6919,-9.8713,-16.4522,13.6317,-1.4098,-4.2303,1.4098,-3.2904,37.1339,24.9129,2.3506,54.443,-3.2904,25.8528,
-14.1017,-16.9222,-25.3828,15.9814,0,-0.94077,0,1.8797,22.1339,15.9814,-0.94077,47.0044,-1.8806,26.3227,
-18.8019,-21.6224,-35.7241,12.221,-9.4014,0,-8.4615,5.6401,12.221,14.1008,-9.4014,46.0645,0,31.9628,
-16.9222,-15.9814,-25.3828,24.443,-7.5208,2.8205,-2.8205,11.2812,18.8019,19.7418,-8.4606,55.4659,-4.7003,43.2449,
-9.401,-7.5212,-16.9217,34.7838,-1.8802,-0.94032,-7.5212,8.4611,15.9819,16.9217,-9.401,51.7051,0.94032,33.8439,
-3.29,-7.9912,-19.2723,26.7931,-5.1706,-5.1706,-14.5712,8.931,16.4518,3.29,-23.0327,39.0141,8.931,18.8439,
-0.46994,-5.1702,-10.8112,24.9129,-3.2904,7.9907,-1.4098,13.6317,9.8713,-10.8112,-34.3134,33.3735,0.46994,19.2728,
-0.93987,-4.7003,-9.4014,23.5022,3.7604,13.1618,-3.7604,6.5809,0.93987,-8.4606,-41.3642,33.8435,-14.5301,28.2033,
0,0.93987,-20.6826,17.8612,1.8797,2.8196,-14.1017,0,-1.8806,-14.1017,-51.7064,26.3227,-25.3828,13.2033,
3.2904,15.9399,-13.6317,23.0323,7.0508,8.9306,-3.2904,10.8112,-9.8713,-26.7926,-55.9359,23.0323,-17.3921,-1.7967,
1.4103,24.9133,-7.9903,19.2723,8.931,12.6914,-7.9903,7.0513,-24.8713,-23.0318,-60.6366,25.8532,-20.2122,-1.4103,
4.2303,9.9133,-17.3921,13.6317,-0.46994,7.0508,-22.9903,0.46994,-29.6132,-8.0318,-63.4566,26.7926,-28.6733,12.691,
4.2303,5.1702,-17.3921,22.0924,-4.2303,5.1702,-20.2126,10.8112,-23.973,-7.9907,-54.0561,38.0738,-26.7926,19.2719,
0.46994,10.8112,-13.6317,20.2126,-0.46994,7.0508,-18.332,11.7511,-26.7926,-22.9907,-40.8943,53.0738,-19.2719,14.5716,
4.7007,-4.1888,-20.6821,19.7422,5.6406,11.2807,-25.3833,6.5805,-24.4425,-17.8625,-34.7838,61.1065,-16.9217,7.5203,
6.1105,-15.5119,-16.4518,24.9124,1.4103,8.931,-10.3833,16.4518,-10.8108,-2.8625,-25.8532,48.4155,-7.9912,8.931,
-3.7608,-9.401,-4.7007,19.7422,-9.401,2.8201,-0.94032,18.8024,-3.7608,0.94032,-22.5628,36.6635,6.5805,7.5203,
-7.5212,-5.6406,-13.1614,12.2215,-9.401,0.94032,-15.9403,5.6406,-0.94032,0.94032,-21.622,40.4248,5.6406,2.8201,
-0.94077,-7.5208,-21.6224,15.0415,0,0,-14.1017,11.2812,13.1609,10.3413,-9.4014,52.6454,-5.641,3.7604,
-3.7604,-7.5208,-15.0415,20.6826,6.5809,0,0,25.3828,24.443,6.5809,-0.93987,55.4659,-10.3404,-0.93987,
-8.9315,-11.7511,-12.6919,13.6308,10.8112,0.46994,-4.2303,21.1516,24.9129,-3.2904,-0.46994,45.5946,4.6596,-3.2904,
-7.5212,-26.3231,-18.8024,6.5805,8.4602,-3.7608,-7.5212,11.2807,12.2206,1.8802,-1.8802,40.4239,19.6596,-9.401,
1.8802,-34.7838,-17.8625,10.3408,-2.821,-10.3417,-3.7608,16.9217,13.1614,1.8802,-1.8802,46.065,15.0411,-9.401,
16.8802,-19.7838,-4.2308,20.2122,-3.29,-2.3501,0.47038,27.733,28.1614,-0.47038,-0.47038,54.0557,0.041096,2.3501,
15.9814,-4.7838,-9.4014,15.9814,0,0,-1.8806,17.8621,13.1614,-1.8806,-15.4704,41.3642,-14.9589,2.8196,
3.2905,-2.3506,-18.332,9.8714,2.3506,7.0508,-6.111,15.5115,-1.8386,-3.2904,-25.8528,37.1339,-9.8713,7.9907,
1.4098,-1.4098,-9.8713,23.973,10.8112,18.332,-7.0508,25.8528,-4.2303,-9.8713,-23.9721,41.8342,-1.4098,16.4522,
6.5805,-1.8802,-10.3408,28.2029,2.8201,3.7599,-10.3408,17.8616,-0.94032,-19.7422,-29.1437,26.8342,-10.3408,1.4522,
18.3315,8.931,-1.4103,28.6728,2.3501,-0.47038,0.47038,22.0928,-6.1105,-5.1706,-27.733,21.1521,-7.9912,-13.5478,
7.0508,4.2303,2.3497,33.3735,-0.46994,-3.2904,-0.46994,25.8528,-4.2303,0.46994,-33.3735,23.9721,-5.1711,-28.5478,
3.2904,-3.2904,0.46994,36.1941,5.1711,-0.46994,-0.46994,25.8528,-0.46994,-5.1702,-18.3735,24.9129,2.3506,-25.8528,
6.5813,-10.3408,-1.8802,21.6229,9.401,-1.8802,2.821,21.6229,-3.7599,-5.6406,-3.3735,21.6229,1.8802,-13.1614,
-3.7599,-17.8616,-1.8802,10.3408,3.7608,-8.4611,1.8802,24.4425,6.5805,9.3594,-11.2807,31.9633,-2.8201,-18.8024,
-8.931,-16.4518,-9.8709,19.2714,4.2299,-4.2308,-2.3501,28.6728,8.931,23.0318,-16.4518,46.9633,1.4103,-3.8024,
-1.8797,-8.4606,-19.7418,27.2635,0.93987,-0.93987,-6.5809,27.2635,-5.6401,13.1618,-5.6401,61.9633,0.93987,11.1976,
-5.1702,-8.9306,-15.5115,23.0331,1.4107,0.46994,-1.4098,31.4938,-2.3497,4.2303,-7.9907,52.1755,-0.46994,21.1525,
-9.8718,-14.5721,-7.9912,20.2122,4.2299,4.2299,1.4103,35.2537,5.1706,-2.3501,-18.3324,37.1755,-1.4103,6.1525,
0,-6.58,-6.58,31.9637,0.94077,7.5208,0,35.7241,0.94077,-7.5208,-11.2812,23.5031,0,-4.7003,
-2.3497,0.46994,-7.9907,36.194,0.46994,4.2303,-0.46994,29.6132,-7.9907,-7.9907,-5.1702,19.2719,-1.4098,2.3506,
-1.8806,-3.7604,0.93987,31.023,5.6401,5.6401,-0.93987,29.1432,0,-2.8205,-0.93987,27.2626,0,-7.5208,
2.8205,-16.9222,0,20.6817,3.7604,0,-2.8205,29.1432,-4.7003,-10.3413,-7.5208,25.3828,0,-21.6224,
2.3501,-15.5119,-2.3501,23.0327,5.1706,-13.6313,7.0504,35.2537,-19.7003,-4.2308,-22.5208,20.2122,4.2308,-25.8532,
-3.7608,-15.042,-1.8802,27.263,5.6406,-24.4425,7.5203,32.9032,-20.6821,2.8201,-29.1437,21.622,1.8802,-38.5446,
-4.7003,-24.443,-5.6401,15.0415,0.93987,-14.1017,0.93987,30.0831,-5.6821,5.641,-14.1437,33.8435,-0.93987,-39.4845,
-10.3413,-27.2626,-7.5208,9.4014,0.93987,-4.7003,-0.93987,31.9637,2.8205,9.4014,0.85634,37.6039,-1.8797,-24.4845,
-17.8621,-21.6224,-7.5208,13.1618,0,0,0,34.7842,-4.7003,6.5809,2.8205,32.9036,0,-9.4845,
-29.1432,-32.9036,-18.8028,8.4606,-13.1618,-7.5208,-0.94077,29.1432,3.7604,0,3.7604,34.7833,0,4.7003,
-29.6132,-39.9544,-18.332,11.7511,-13.6317,-15.5115,-0.46994,35.2542,0.46994,4.2303,10.8112,42.7749,3.2904,-0.46994,
-16.4518,-26.7931,-3.332,23.0327,-3.29,-11.7515,1.4103,47.4757,-6.1105,17.3917,13.6313,49.3554,-1.4103,14.5301,
-7.9912,-18.3315,1.4103,31.4933,-10.8108,-8.931,2.3501,41.8346,-1.4103,14.5721,-1.3687,43.7153,-16.4103,15.5119,
-5.6401,-10.3413,0,41.3651,-8.4606,0,7.5208,43.2449,-11.2812,5.641,-16.3687,37.6048,-15.0415,7.5208,
-2.3501,-6.1105,7.0513,39.0141,6.5394,-1.4103,3.2909,49.3554,-26.2812,-3.29,-26.7931,30.5535,-3.29,1.4103,
1.4103,-15.5119,2.3501,24.0141,3.29,-16.4103,-1.4103,37.1344,-23.9726,3.29,-27.733,24.9124,-4.2308,-11.7515,
-0.46994,-17.3921,0.46994,22.0924,3.2904,-24.9129,-1.4098,37.1339,-23.973,4.2303,-23.973,27.7334,-3.2905,0.46994,
-1.4098,-18.332,-0.46994,22.0924,3.2904,-33.3735,0.46994,39.0146,-22.0924,5.1711,-18.332,32.4337,-0.46994,13.6317,
-4.2303,-21.1525,-3.2904,21.1525,2.3506,-42.7749,0.46994,38.0738,-23.0323,5.1702,-15.5115,34.3134,-0.46994,24.9129,
-7.0508,-23.0331,-7.0508,20.2117,0.46994,-53.1162,0.46994,38.0738,-23.0331,5.1702,-12.6919,36.1941,-0.46994,36.1941,
-9.4005,-25.3828,-9.4005,19.7427,0,-62.0464,0,37.6048,-23.5022,5.641,-9.4005,38.5446,0,47.9451,
-11.2812,-27.2635,-11.2812,18.8019,-0.93987,-71.4478,0.93987,38.5437,-22.5623,5.6401,-4.7012,42.3041,1.8797,60.1662,
-13.6313,-29.6136,-14.5721,17.3917,-3.2909,-81.3191,0.47038,38.0742,-23.0327,5.1706,-0.47038,45.595,1.4103,72.8576,
-18.3324,-39.0141,-9.8718,15.511,-1.4103,-96.3191,2.3501,35.2537,-20.2122,-4.2308,1.4103,30.595,1.4103,57.8576,
-14.5716,-31.4938,-7.0508,18.332,-0.46994,-104.8213,0.46994,32.4337,-26.7926,-7.0508,13.6317,15.595,7.0508,70.0375,
-14.5716,-24.9129,-8.9306,25.8528,-2.3497,-103.881,0.46994,31.4938,-27.7325,-0.46994,18.332,5.1711,8.9315,85.0375,
-15.0415,-35.7232,-12.221,15.9823,0,-114.6922,0,27.2635,-24.4421,-5.6401,3.7604,5.641,0.94077,100.0375,
-4.7003,-26.3227,-2.8205,12.221,10.3413,-106.2316,4.7003,31.023,-27.2635,-0.93987,-5.641,1.8797,0.93987,115.0375,
-7.9907,-15.5124,-0.46994,24.912,9.8705,-100.1211,0.46994,28.6733,-29.6132,5.1702,-3.2904,7.9907,-2.3506,130.0375,
-15.9819,-28.2029,-9.401,30.0835,5.6406,-110.9323,-0.94032,22.5619,-30.0835,-9.8298,1.8802,17.8616,0.94032,145.0375,
-14.5716,-39.9544,-7.0508,19.2719,2.3497,-109.522,0.46994,22.0924,-30.5539,-19.2728,-0.46994,10.8112,2.3497,160.0375,
-12.2215,-31.9633,-1.8802,14.1012,1.8802,-99.6507,2.8201,29.1428,-15.9819,-4.2728,5.6406,11.2816,-3.7608,175.0375,
-18.8024,-32.9032,-13.1614,13.1614,-1.8802,-114.6507,-2.8201,27.263,-0.98186,8.4611,7.5212,26.2816,-13.1614,190.0375,
-29.6136,-44.6551,-25.8532,10.8108,-7.9912,-127.3836,-7.9912,22.0928,10.8108,13.6313,7.0504,37.1344,-7.0504,205.0375,
-39.0146,-41.8342,-28.6733,1.4098,-11.7511,-117.9827,-9.8713,19.2719,11.7511,8.9306,6.111,31.4938,-1.4098,220.0375,
-24.0146,-27.7334,-18.332,7.0508,-2.3506,-115.1626,-4.2303,24.9129,23.0323,2.3506,10.8112,28.6733,-5.1702,235.0375,
-13.1614,-32.904,-21.6229,7.5203,-0.94032,-123.1533,-3.7608,23.5026,31.9633,0.94032,18.8015,27.263,-2.8201,250.0375,
-22.0924,-30.5539,-29.6132,3.2904,-7.9907,-121.7435,-8.9315,17.3921,30.553,-3.2904,23.9721,31.4929,5.1702,265.0375,
-18.3324,-15.5539,-20.2122,11.7515,-3.29,-114.2223,-3.29,22.0919,34.3139,-4.2308,27.733,39.954,3.29,280.0375,
-17.8616,-9.401,-21.622,7.5212,-8.4611,-119.3929,-10.3408,14.1012,24.4425,0.94032,13.1614,24.954,-0.94032,295.0375,
-22.5628,-16.9217,-31.9633,0.94032,-19.7423,-116.5729,-21.622,3.7608,13.1614,-0.94032,0.94032,9.954,4.7007,310.0375,
-22.5628,-2.8201,-28.2029,7.5212,-15.042,-104.3514,-15.042,12.2215,19.7422,-15.9403,12.2215,15.9819,2.8201,325.0375,
-15.5119,5.1706,-14.5712,12.6914,-7.9912,-101.0609,-5.1706,22.0928,23.0327,-16.4518,13.6313,21.1521,-7.9912,340.0375,
-8.931,5.1706,-12.6914,17.3926,-9.8709,-97.3001,-9.8709,19.2723,8.931,-1.4518,-1.3687,16.4518,-5.1706,355.0375,
-19.2719,0.46994,-22.0924,14.5716,-10.8112,-102.0008,-15.5115,14.5716,7.9907,12.6919,-16.3687,17.3921,-0.46994,370.0375,
-26.3232,-13.1614,-16.9217,11.2807,-4.7007,-113.7523,-2.8201,25.3824,22.9907,17.8616,-1.8802,28.2029,1.8802,385.0375,
-25.3833,-28.1614,-17.8625,6.5805,-14.1021,-126.9141,-2.8201,26.3223,29.1428,16.9217,1.8802,19.7422,-1.8802,400.0375,
-10.3833,-15.9819,-4.7007,20.6821,-8.4611,-111.9141,-1.8802,28.2029,23.5026,16.9217,-5.6406,16.9217,1.8802,415.0375,
-9.8709,-0.98186,-5.1706,22.0928,-6.1105,-98.2409,-6.1105,25.8532,22.0928,19.2723,-9.8709,17.3917,-6.1105,430.0375,
-14.1017,7.5208,-13.1618,16.9213,-12.2219,-99.6511,-10.3413,24.4421,22.5623,17.8621,-7.5208,18.8019,-13.1618,445.0375,
-2.8205,2.8205,-9.4005,24.443,-13.1609,-100.591,-6.5809,26.3227,21.6224,7.5208,-3.7604,20.6826,-10.3413,460.0375,
-0.93987,-1.8797,-5.6401,24.443,-5.6401,-97.7705,-2.8205,26.3227,21.6224,6.5809,0.93987,13.1618,-0.93987,445.0375,
-3.7604,0.93987,-3.7604,12.221,-6.5809,-95.8907,-2.8205,20.6826,15.0415,10.3413,2.8205,-1.8382,-0.93987,440.9077,
0.46994,3.2904,-0.46994,17.3921,-7.0508,-92.6003,-4.2303,30.553,9.8713,11.7511,-0.46994,-0.46994,-7.9907,432.917,
-7.9912,-10.8108,-1.4103,22.0919,-3.29,-96.3607,-3.29,41.8346,15.5119,17.3917,1.4103,14.5301,-2.3501,417.917,
-22.9912,-25.8108,-14.1017,12.221,-10.3413,-111.3607,-5.641,29.1432,7.5208,4.7003,0,16.9213,0,402.917,
-7.9912,-14.1017,-4.7003,16.9222,-0.93987,-96.3607,5.641,42.305,1.8806,-1.8797,-1.8797,15.9814,0.93987,392.0227,
-0.93987,-3.7604,-2.8205,19.7418,0.93987,-81.3607,1.8806,57.305,-3.7604,0.93987,-14.1017,14.1017,-8.4606,402.364,
-2.3506,7.9907,3.2905,34.3134,0.46994,-75.6781,-0.46994,70.0375,-2.3506,1.4098,-9.8713,-0.89833,-1.4098,392.4926,
-1.4103,14.5721,7.0513,39.0141,-4.2299,-69.0972,2.3501,77.5587,-14.5712,-13.5902,-12.6914,-8.931,1.4103,377.4926,
1.4103,7.9903,2.3501,31.4933,-7.0513,-60.637,-1.4103,86.9593,-25.8532,-3.2909,-25.8532,6.069,-8.931,366.1695,
2.8205,-0.93987,0.93987,31.023,-7.5208,-69.5676,-5.641,81.7886,-17.8621,11.7091,-16.9222,21.069,-7.5208,369.4604,
-7.0508,-4.2303,0.46994,30.5539,-12.691,-84.5676,-2.3497,66.7886,-2.8621,14.5716,-1.9222,21.1525,-9.8705,354.4604,
-13.6313,-3.29,2.3501,27.733,-14.5712,-89.7793,-1.4103,53.1158,7.0513,1.4103,-9.8709,6.1525,-24.8705,339.8468,
-1.4103,1.4103,10.8117,30.5535,-8.931,-87.8996,-4.2299,61.5773,2.3501,2.3501,-20.2122,-3.29,-21.1521,327.6258,
-0.93987,-2.8205,10.3413,26.3227,-18.8019,-88.37,-5.641,65.8072,-2.8205,3.7604,-15.9823,3.7604,-6.1521,312.6258,
-9.8713,-2.3506,7.0508,23.9721,-23.0323,-82.259,-0.46994,61.5769,-2.3506,0.46994,-0.98231,13.6317,-1.4098,323.8649,
-17.8621,-8.4615,0,16.9213,-20.6826,-91.1905,-2.8205,59.2263,2.8196,0,8.4606,6.58,-16.4098,336.5559,
-15.042,-23.4615,-3.7608,15.9819,-20.6821,-106.1905,-0.94032,63.927,11.2816,12.2215,0.94032,13.1614,-14.1012,321.5559,
-11.752,-33.3735,-7.9916,15.5115,-20.2126,-108.5822,0.46994,66.2771,2.3497,13.6308,-14.0597,27.7325,-0.46994,306.5559,
-2.3501,-18.3735,3.29,25.8532,-5.2126,-93.5822,2.3501,79.4385,-7.9912,4.2308,-24.9124,32.4332,-15.4699,302.2429,
-3.2905,-7.9907,7.0508,28.6733,0.46994,-78.5822,-0.46994,88.8395,-3.2905,2.3506,-9.9124,27.7334,-30.4699,287.2429,
-18.2905,-22.9907,-0.47038,17.3917,-14.5301,-87.8996,0.47038,79.4385,11.7095,7.0504,-3.29,28.6728,-18.3324,272.2429,
-30.5539,-27.7334,-0.46994,19.2719,-16.4522,-82.2594,4.2303,71.9173,9.8705,0.46994,-6.111,28.6724,-6.111,259.9384,
-27.263,-15.042,-0.94032,24.4425,-1.4522,-67.2594,3.7608,78.0287,-5.1295,-10.3408,-7.5212,13.6724,0.94032,244.9384,
-19.2723,-3.29,4.2308,23.0327,6.1105,-66.2771,4.2308,90.7196,-13.6313,-5.1706,-18.3324,-1.3276,3.29,229.9384,
-24.9124,-8.931,6.1105,19.2723,-1.4103,-70.0375,3.29,89.7798,1.3687,1.4103,-22.0928,-3.29,-11.71,233.6152,
-31.9637,-18.8019,2.8205,15.0415,-1.8797,-64.8669,0.93987,82.7294,-0.93987,0.93987,-8.4606,11.71,-10.3413,231.2651,
-25.3828,-18.8028,0.93987,14.1008,-8.4615,-73.3284,-0.94077,85.549,-13.1618,1.8797,0,26.3227,0,220.9238,
-23.9726,-21.153,4.2299,22.0919,-22.0928,-85.0795,1.4103,88.839,-1.4103,5.1706,-4.2308,25.8523,-10.8117,217.6338,
-38.9726,-28.2033,0,21.6224,-28.2033,-86.4898,0,73.839,9.4005,13.1609,-11.2812,23.5022,-25.8117,209.6426,
-42.7745,-16.4514,-2.3506,26.7926,-20.2117,-71.4898,2.3506,74.7387,7.9907,23.973,-7.9907,23.973,-16.4514,223.2744,
-33.8435,-9.4014,-0.93987,31.0239,-19.7418,-62.0468,0,78.969,0.93987,9.4014,0,24.443,-2.8205,224.6842,
-33.8439,-11.2816,5.6406,31.9633,-22.5628,-59.2268,-2.8201,70.5079,1.8802,8.4611,-1.8802,27.263,-10.3408,209.6842,
-38.5446,-22.5632,6.58,26.3227,-28.2033,-66.7475,-3.7604,57.3457,3.7604,17.8612,-16.8802,16.9213,-22.5632,194.6842,
-32.4337,-23.973,4.2303,21.1525,-23.973,-67.2175,-0.46994,59.6962,0.46994,12.691,-23.0323,12.691,-19.2719,197.8915,
-24.4434,-17.8625,5.6406,24.4425,-15.9819,-61.1069,1.8802,63.9261,-7.5212,8.4602,-8.0323,18.8015,-20.683,182.8915,
-30.0826,-27.263,6.5813,18.8024,-21.622,-73.3275,-1.8802,49.8253,-4.6998,4.7007,1.8802,8.4611,-25.3824,167.8915,
-29.1437,-33.8439,8.4611,14.1012,-22.5628,-80.8487,0.94032,45.1251,4.7007,-6.5805,4.7007,-0.94032,-17.8625,152.8915,
-20.2122,-19.2723,10.8108,26.7931,-9.8709,-65.8487,10.8108,60.1251,-2.3501,-1.4103,1.4103,14.0597,-10.8117,167.8915,
-19.7418,-14.1017,7.5208,31.023,-10.3413,-55.4659,9.4014,72.3881,-7.5208,13.5897,-11.2812,26.3227,-12.221,182.8915,
-25.3824,-17.8616,6.5805,25.3824,-18.8024,-67.6874,1.8802,59.2268,-1.8802,9.401,-11.2816,13.1614,-20.6821,167.8915,
-20.2122,-8.931,10.8117,30.5535,-5.1706,-60.6366,8.931,59.6967,-7.9912,5.1706,-5.1706,6.1105,-19.2723,152.8915,
-22.5623,-6.5809,1.8806,26.3227,2.8205,-48.8855,0,62.0468,-22.9912,0,-20.1706,1.8806,-24.443,143.8354,
-21.1525,0.46994,3.2904,26.7926,-2.3497,-44.6547,-0.46994,65.3373,-24.9129,0.46994,-22.0924,4.2303,-19.2719,145.2461,
-23.5026,-6.5805,7.5212,28.2029,-10.3408,-50.7657,13.1614,62.9871,-9.9129,6.5805,-7.5212,14.1012,-9.401,143.8359,
-31.4929,-21.5805,4.2303,24.9129,-11.7511,-65.7657,12.6919,47.9871,-4.2303,4.2303,-8.9306,21.1525,-14.5716,129.2638,
-31.023,-32.9036,4.7003,21.6224,-8.4606,-76.148,3.7604,40.4244,-3.7604,5.641,-11.2812,22.5623,-17.8621,114.6922,
-27.7325,-17.9036,7.9907,25.8528,-16.4514,-68.1573,3.2904,44.6547,-3.2904,16.4522,-13.6317,15.5115,-24.9129,102.0013,
-23.5022,-14.1017,19.7418,32.9036,-21.6224,-60.1666,5.641,51.7055,-5.641,16.9222,-11.2812,10.3413,-39.9129,97.7709,
-19.7422,-20.6821,24.4425,28.2029,-14.1021,-50.7657,5.6406,53.5857,-12.2215,11.2807,-5.6406,17.8616,-43.2449,100.591,
-17.8621,-13.1618,21.6224,33.8435,-9.4014,-42.3046,5.641,59.2263,-15.0415,22.5623,-5.641,26.3227,-28.2449,110.9318,
-16.9213,-5.6401,17.8621,36.664,-5.6401,-35.7237,3.7604,59.2272,-8.4606,24.443,-3.7604,16.9222,-13.2449,114.6931,
-23.9721,-17.3921,12.6919,24.9129,-5.1702,-44.6547,9.8713,50.2957,-3.2904,9.443,-3.2904,3.2904,-13.6317,99.6931,
-31.9637,-25.3833,5.6406,23.5026,-5.6406,-52.6459,15.9819,56.4062,-11.2816,6.5805,-8.4611,16.9217,-20.6821,84.6931,
-31.4933,-17.3917,7.0513,29.6136,-6.1105,-43.7144,6.1105,65.3377,-12.6914,17.3926,-7.0504,30.5535,-22.0919,89.7798,
-23.973,-7.0508,14.5716,34.3134,-7.9907,-35.2542,-0.46994,60.6361,-5.1711,6.1101,0.46994,23.0323,-19.2719,104.7798,
-18.3315,-0.47038,14.5721,42.7745,-0.47038,-30.5535,11.7515,62.5172,-18.3315,0.47038,-0.47038,14.5721,-7.9912,104.8213,
-28.2029,-7.5212,4.7007,34.7838,-1.8802,-29.1437,8.4611,58.286,-33.3315,1.8802,-14.1021,11.2807,-16.9217,94.0101,
-30.5535,-7.9912,7.0504,27.733,-5.1706,-24.9133,5.1706,51.2351,-29.6136,7.0504,-11.7515,26.2807,-25.8532,94.48,
-25.3828,-15.0415,7.5208,26.3227,-6.5809,-39.9133,6.5809,43.2449,-23.5022,7.5208,-10.3413,32.9036,-19.7418,81.7895,
-15.5119,-16.4518,10.8108,32.4332,-5.1706,-52.1759,6.1105,44.6542,-31.4933,5.1706,-16.4518,17.9036,-21.153,66.7895,
-19.2719,-7.0508,17.3921,38.0747,-2.3506,-37.1759,7.9907,54.996,-24.9129,3.2905,-7.0508,2.9036,-36.153,61.5769,
-27.2635,-0.94077,10.3404,32.9036,0,-24.443,7.5208,59.2263,-25.3828,0,-1.8806,17.8612,-35.7241,76.5769,
-21.1525,4.2303,4.2303,28.6733,-4.2303,-26.7926,5.1702,48.4151,-32.4337,-5.1702,-7.9907,22.0924,-23.0323,86.9597,
-24.9129,-3.2904,8.9306,27.7325,-14.5716,-38.0747,7.0508,40.8943,-17.4337,5.1702,-6.111,7.0924,-28.6733,73.7979,
-30.553,-18.2904,17.3921,35.2542,-7.9907,-44.6547,12.6919,51.2356,-2.4337,20.1702,-4.2303,-0.46994,-28.6728,67.2179,
-32.4332,-33.2904,7.0504,26.7931,-12.6914,-47.4752,5.1706,39.0141,-5.1706,7.9912,-12.6914,8.931,-24.9124,66.2767,
-28.2033,-26.3227,0.93987,24.4421,-21.6224,-32.4752,0.93987,31.023,0.93987,-4.7003,-0.93987,12.221,-24.443,65.8072,
-25.8528,-13.6317,2.3497,37.1339,-15.5124,-20.2126,-0.46994,40.8943,15.5115,-0.46994,3.2904,0.46994,-27.7334,58.7564,
-25.8528,-13.6317,0.46994,35.2542,-12.691,-24.9129,0.46994,43.7148,28.6733,3.2904,-5.1702,-0.46994,-22.0924,72.858,
-29.1428,-16.9217,-1.8802,23.5026,-18.8015,-26.3223,3.7608,36.6644,35.7246,1.8802,-1.8802,8.4611,-20.6821,87.858,
-39.0146,-25.8528,-2.3506,17.3921,-20.2126,-37.1339,-3.2905,24.9129,33.3735,3.2904,2.3506,5.1702,-29.6132,95.4204,
-35.7237,-29.1428,2.8201,17.8616,-18.8024,-44.1843,-2.8201,22.5628,34.7838,6.5805,-7.5203,5.6406,-28.2029,88.37,
-32.4341,-31.4933,1.4103,15.511,-23.9726,-42.7745,-1.4103,23.9726,27.733,8.931,-22.5203,1.4103,-27.733,86.9593,
-30.0835,-18.8024,0.94032,16.9217,-10.3408,-31.9633,0.94032,32.9032,29.1428,19.7422,-26.3232,-0.94032,-27.263,85.5495,
-29.1432,-6.5809,1.8806,13.1618,0,-27.2626,0,28.2033,24.443,6.5809,-24.443,-3.7604,-30.0831,88.3695,
-15.5115,0.46994,9.8713,22.0924,-0.46994,-12.2626,5.1702,33.3735,11.7511,-2.3506,-19.2719,-5.1702,-15.0831,103.3695,
-12.2206,1.8802,7.5212,27.263,-1.8802,-6.5805,4.7007,42.3046,2.821,-2.8201,-21.622,-11.2807,-5.6406,96.8306,
-21.1525,0.46994,-1.4098,26.7926,1.4107,-21.5805,-0.46994,37.1339,11.7511,6.111,-23.0323,-5.1702,-20.6406,84.1392,
-28.2029,-7.5212,-1.8802,26.3231,1.8802,-15.9819,-3.7608,27.263,22.5619,14.1012,-19.7423,9.8298,-32.904,89.3098,
-32.4332,-11.7515,1.4103,23.0327,-1.4103,-13.6313,-6.1105,21.1521,19.2723,4.2308,-24.9124,4.2308,-31.4933,82.259,
-20.6826,-4.7003,0,14.1017,0,-15.9814,0.93987,28.2033,7.5208,4.7003,-30.0831,-5.6401,-23.5022,67.259,
-15.0415,-11.2812,-0.93987,5.641,0.93987,-15.9814,1.8806,26.3227,-0.93987,19.7003,-30.0831,3.7604,-23.5022,63.9275,
-19.2719,-16.4522,7.9907,16.4514,-2.3506,-19.2719,-7.0508,19.2719,14.0601,34.7003,-23.973,2.3506,-24.9129,54.996,
-16.9217,-1.4522,13.1614,23.5026,0.94032,-23.5026,-0.94032,26.3232,29.0601,36.6644,-8.973,-8.4611,-18.8015,39.996,
-18.332,0.46994,-1.4098,8.5026,-1.4098,-32.4337,0.46994,22.0924,14.0601,21.6644,-0.46994,-15.5115,-26.7926,29.6132,
-9.8713,5.1702,-0.46994,7.9907,5.1702,-17.4337,2.3497,23.9721,-0.93987,6.6644,-10.8112,-0.51148,-22.0924,44.6132,
-12.2215,5.6406,-1.8802,14.1021,3.7608,-2.4337,-1.8802,25.3833,-14.1012,-5.6406,-20.6821,7.5212,-14.1012,59.6132,
-23.5031,2.8205,-9.4014,8.4606,-2.8205,2.8205,-3.7604,25.3828,-23.5031,2.8205,-12.221,10.3413,-21.6224,58.2864,
-33.3735,0.46994,-9.8713,8.9306,0.46994,-0.46994,-7.0508,23.973,-8.5031,6.111,-3.2904,23.973,-32.4337,63.4566,
-35.2542,-3.2904,-13.6317,13.6308,-0.46994,0.46994,-9.8713,26.7926,6.4969,4.2303,-7.9907,26.7926,-29.6132,63.4566,
-26.7926,-7.0508,-9.8713,26.7926,-7.0508,-0.46994,-2.3506,37.1339,7.9907,11.7511,0.46994,23.0323,-19.2719,55.9359,
-32.9036,-17.8621,-1.8806,22.5623,-10.3413,-15.0415,-3.7604,30.0831,3.7604,16.9222,1.8806,9.4014,-20.6826,41.3642,
-34.3134,-23.9721,7.0508,12.6919,2.3506,-22.0924,-2.3506,27.7334,-4.2303,14.5716,-3.2904,4.2303,-17.3921,31.4938,
-22.0924,-22.0924,9.8713,11.7511,0.46994,-21.1525,-0.46994,37.1339,-13.6317,10.8112,-7.0508,7.0508,-19.2719,36.1941,
-15.9814,-13.1609,15.9823,23.5031,-12.221,-14.1017,-0.93987,35.7241,0.93987,14.1017,-3.7604,2.8205,-22.5623,38.5446,
-26.3227,-9.4014,15.9814,31.9637,-9.4014,-13.1618,-2.8205,20.7241,4.7003,5.6401,2.8205,-6.5809,-15.9814,23.5446,
-24.9124,-4.2308,6.1105,28.6728,5.5986,-11.7515,4.2308,11.7515,-5.1706,-0.47038,0.47038,-11.7515,-12.6914,8.5446,
-15.0415,0,0,17.8621,8.4615,-1.8797,5.641,13.1618,-9.4005,5.641,-13.1609,-9.4005,-22.5623,11.2812,
-14.1017,-2.8205,0,15.0415,0,13.1203,-2.8205,17.8621,-15.0415,2.8205,-6.5809,5.5995,-27.2626,24.443,
-11.7511,-7.9907,-4.2303,13.6317,4.2303,28.1203,-9.8705,20.2126,-23.9721,-7.9907,8.4191,20.5995,-32.4337,27.7334,
-7.5208,-4.7003,-5.641,4.7003,12.221,13.1203,-11.2812,14.1017,-23.5022,-6.5809,18.8019,19.7418,-47.4337,15.0415,
-20.6821,-7.5203,2.8201,0.94032,5.6406,-1.8797,-14.1012,8.4611,-8.5022,-0.94032,16.9217,12.2215,-42.3046,5.6406,
-35.6821,-22.5203,0.94032,10.3408,-9.3594,-15.9819,-19.7423,3.7599,-0.94032,3.7599,5.6406,12.2215,-31.9633,1.8802,
-23.973,-14.5716,9.8713,25.3408,-19.2719,-14.5716,-6.111,13.6317,-0.46994,18.7599,0.46994,27.2215,-30.553,16.8802,
-30.5535,-25.8523,7.9912,13.6313,-21.1521,-29.5716,-5.1706,14.5721,5.1706,15.5119,-14.5301,16.4518,-44.6547,14.5721,
-19.7422,-30.0835,15.0415,16.9213,-12.221,-31.9637,7.5208,29.5721,20.1706,0.93987,-7.5208,1.4518,-29.6547,15.0415,
-9.8709,-27.7334,14.5712,22.0919,-8.931,-18.3324,9.8709,24.9124,5.1706,-7.0513,-2.3501,2.3501,-16.4518,21.1521,
-13.1609,-13.1609,13.1618,17.8621,-4.7003,-3.3324,0,15.9823,-9.8294,0,-11.2812,15.0424,-31.4518,33.8444,
-18.3315,1.8391,-1.4103,7.9912,1.4103,11.6676,-9.8709,18.3324,-23.0327,-5.1706,-7.9903,7.0513,-39.954,27.733,
-19.7418,13.1618,-16.4103,-3.7604,4.7003,26.6676,-14.1017,12.2219,-38.0327,-16.9213,6.5809,3.7604,-31.9637,13.1618,
-31.4938,12.691,-15.5115,-3.2904,7.9907,41.6676,-16.4522,3.2904,-50.2957,-19.2719,5.1702,13.6317,-40.8943,4.2303,
-31.9633,11.2816,-5.6406,9.401,8.4611,38.5442,-14.1012,7.5212,-35.2957,-15.0411,5.6406,14.1021,-52.6459,-6.5805,
-17.3917,7.0504,9.3594,16.4518,-4.2308,23.5442,-13.6313,5.1706,-20.2957,-13.6313,7.0504,4.2308,-50.2953,-16.4518,
-2.3917,14.1012,24.3594,30.0826,-7.5212,15.9819,-7.5212,12.2206,-6.5813,-6.5813,1.8802,14.1012,-37.6043,-10.3417,
-5.1706,11.7506,39.3594,33.3731,-7.0513,12.6914,-1.4103,17.3917,-2.3501,1.4103,-10.8117,25.8523,-41.8346,-6.1105,
-18.3315,2.3501,54.3594,28.6737,-5.1706,-1.4103,-2.3501,7.9912,-13.6313,2.3501,-16.4518,16.4518,-41.8346,1.4103,
-21.6224,0,55.4659,20.6826,0,-2.8205,1.8806,7.5208,-25.3828,0,-13.1618,1.8806,-26.8346,1.8806,
-23.5026,-9.401,63.927,15.042,0.94032,4.7007,7.5212,9.401,-20.6821,-0.94032,-13.1614,1.8802,-25.3824,-13.1194,
-19.2728,-11.752,78.4982,19.2719,0.46994,10.8112,6.1101,14.5716,-12.6919,-0.46994,-7.9916,8.9306,-40.3824,-11.752,
-13.1618,0.93987,81.7886,19.7418,-0.93987,18.8019,-0.93987,18.8019,-27.6919,-7.5208,-6.5809,1.8797,-43.2449,3.248,
-1.8802,14.1021,96.7886,31.0234,2.821,28.2038,1.8802,15.9819,-40.4239,-4.6998,-7.5203,-1.8802,-36.6635,-11.2807,
-0.93987,14.1017,111.7886,39.4845,-1.8797,20.6826,0.93987,9.4014,-25.4239,0,-5.6401,0,-47.9451,-26.2807,
-4.2303,23.9721,126.7886,38.0738,-8.9315,21.1525,-8.9315,8.9306,-16.4522,-12.6919,7.0508,4.2303,-48.4151,-11.2807,
-5.6406,21.622,128.7943,35.7237,-9.401,20.6821,-15.042,8.4611,-28.2029,-20.6821,7.5212,5.6406,-42.3046,-26.2807,
-15.5115,6.622,135.8447,35.2542,-9.8713,15.5115,-3.2904,10.8112,-22.0924,-5.6821,3.2905,9.8713,-30.553,-41.2807,
-25.8528,-8.378,133.965,28.6733,-23.0323,18.332,-3.2904,7.0508,-20.2117,9.3179,3.2904,8.9315,-25.8528,-26.2807,
-10.8528,3.2904,139.6051,38.0738,-29.6132,30.553,-5.1711,13.6308,-24.9129,3.2904,-4.2303,7.0508,-37.1339,-11.2807,
-3.7608,6.5805,147.5963,47.0048,-22.5628,30.0835,-1.8802,19.7422,-25.3833,1.8802,-19.2303,2.8201,-52.1339,-22.5628,
-10.8112,1.4098,154.6467,47.4752,-9.8713,23.9721,0.46994,9.8705,-19.2728,1.4098,-23.0331,-0.46994,-52.1759,-34.3143,
-8.9315,3.2904,158.407,39.9544,2.3497,24.912,6.1101,0.46994,-16.4522,-0.46994,-8.0331,-2.3506,-39.0146,-30.5539,
-13.6308,3.2904,149.9464,24.9544,-1.4098,21.1525,0.46994,0.46994,-27.7325,-2.3497,-0.46994,2.3506,-36.194,-17.3921,
-19.2719,2.3506,143.3655,11.7511,-6.111,19.2719,-6.111,1.4098,-29.6132,-1.4098,1.4098,17.3506,-31.4938,-2.3921,
-18.8019,-6.5809,150.4163,12.221,0.93987,18.8019,-0.93987,1.8806,-15.0415,-0.93987,6.5809,23.5022,-35.7241,-17.3921,
-22.0924,-15.5124,158.407,7.9907,-1.4107,7.9907,1.4098,0.46994,-17.3921,2.3497,-0.46994,14.5716,-41.8351,-32.3921,
-21.1525,-0.51238,164.9879,11.7511,-7.0508,16.4522,-2.3497,0.46994,-32.3921,5.1711,8.9315,24.9129,-27.7325,-17.3921,
-19.7418,3.7604,172.0388,26.3236,-12.221,29.1432,-7.5208,0,-37.6039,-7.5208,13.1618,22.5632,-26.3227,-2.3921,
-15.5119,2.3501,187.0388,41.3236,-5.1706,35.2537,-2.3501,13.6313,-22.6039,-3.2909,3.29,18.3315,-37.1344,-17.3921,
-16.4518,5.1706,196.9512,41.8346,-4.2308,31.4933,-1.4103,24.9124,-27.733,1.4103,-5.1706,23.0318,-39.9549,-28.6737,
-18.8028,10.3404,194.6011,35.7232,-6.5809,31.023,0,22.5623,-40.4244,-4.7012,0,14.1008,-32.9036,-27.2635,
-24.9124,-1.4103,193.1908,22.0919,-4.2308,35.2537,3.29,7.5623,-33.374,1.4103,-1.4103,2.3501,-35.2537,-20.2122,
-20.2122,-16.4103,203.5321,16.4518,-6.1105,30.5535,6.1105,6.1105,-26.7931,7.9912,-9.8709,15.5119,-30.5535,-21.1521,
-11.7511,-7.0508,215.7536,29.6132,-4.2303,21.1525,11.7511,21.1105,-29.6132,4.2303,-4.2303,24.9129,-16.4522,-30.553,
-22.5628,-4.7007,220.9242,25.3824,-7.5212,12.2215,7.5203,11.2807,-36.6644,-2.8201,2.8201,9.9129,-27.263,-39.4841,
-22.5628,-12.2215,230.3248,23.5017,-3.7608,8.4602,3.7599,-1.8802,-26.3231,1.8802,9.401,2.8201,-36.6644,-31.0234,
-15.042,-14.1021,231.2646,23.5026,-3.7608,0.94032,4.7007,-0.94032,-23.5026,2.8201,5.6406,12.2215,-30.0835,-22.5628,
-9.8713,-0.46994,235.4954,25.8528,-9.8713,11.7511,7.9907,2.3506,-36.1941,-1.4098,0.46994,19.2719,-25.8528,-25.8528,
-15.5115,7.0508,235.4954,24.9129,-8.9306,26.7511,3.2904,1.4098,-49.355,-4.2303,-1.4098,18.332,-32.4337,-31.4938,
-27.7334,-5.1702,235.4954,19.2719,-2.3506,16.4514,2.3506,4.2303,-38.0738,-5.1702,6.111,8.9306,-28.6733,-37.1339,
-25.8523,-20.1702,240.1961,23.0327,-10.8108,4.2308,11.7515,7.9912,-23.0738,-4.2308,10.8117,4.2308,-17.3917,-44.6547,
-10.8523,-21.622,239.7262,31.9633,-15.9819,8.4611,16.9217,3.7608,-23.5026,0.94032,-0.94032,19.2308,-15.9819,-37.6039,
-7.9912,-9.8718,233.6152,25.8523,-1.4103,2.3501,9.8709,1.4103,-32.4341,1.4103,-15.9403,29.6127,-30.9819,-33.374,
-9.4005,-3.7604,233.1457,26.3227,8.4606,3.7604,6.5809,4.7003,-25.3828,-3.7604,-9.4005,27.2635,-29.1432,-23.5022,
-11.7511,-4.2303,232.6749,31.4929,-0.46994,18.7604,5.1702,0.46994,-10.3828,-3.2904,5.1702,40.8943,-14.1432,-8.5022,
-18.8019,0,228.4446,33.8435,-9.4014,31.9637,0,-4.7003,4.6172,2.8205,-3.7604,36.664,-21.6224,-5.641,
-20.2122,7.9903,224.2138,28.6728,-11.7515,20.2122,-3.2909,-1.4103,11.7506,-4.2308,-12.6914,31.4933,-36.6224,1.4103,
-26.7926,7.0508,209.2138,13.6728,-21.1525,17.3921,-8.9306,-14.5716,8.9315,-19.2308,-7.0508,33.3735,-26.7926,13.6317,
-31.4938,8.9306,200.7121,11.7511,-24.9129,25.8528,-12.6919,-25.8528,-0.46994,-33.3735,0.46994,21.1525,-23.973,6.111,
-29.6136,14.5712,205.4119,23.0327,-23.0327,31.4933,-18.3324,-11.7515,-2.3501,-28.6728,2.3501,18.3315,-35.2537,14.5712,
-31.9628,16.9222,190.4119,23.5031,-28.2024,32.9036,-24.4421,-6.5809,0,-16.9213,0,33.3315,-31.023,29.5712,
-46.9628,1.9222,175.4119,8.5031,-28.6728,33.374,-22.0928,-13.6313,7.0504,-1.9213,-9.8709,48.3315,-28.6728,44.5712,
-50.2948,-11.7511,183.7899,-0.46994,-13.6728,40.8943,-7.0928,0.46994,21.1525,13.0787,-12.691,63.3315,-13.6728,59.5712,
-43.7144,-25.8523,186.6108,-4.2308,-1.4103,31.4933,-1.4103,-3.29,6.1525,4.2308,-23.0327,59.6967,1.3272,70.038,
-31.023,-15.0415,201.182,0,0,28.2033,2.8205,-13.1618,-0.93987,7.5208,-19.7418,66.7471,-13.1618,72.3881,
-17.3917,-5.1706,209.1723,3.29,-0.47038,13.2033,2.3501,-24.9124,0.47038,-4.2308,-26.7931,51.7471,-28.1618,57.3881,
-2.3917,4.2303,207.2921,13.6317,1.4098,4.2303,1.4098,-22.0924,-3.2904,-9.8713,-21.1525,36.7471,-43.1618,42.3881,
-7.9907,-2.3506,204.4724,16.4514,2.3497,-0.46994,0.46994,-21.1525,11.7096,5.1287,-6.1525,30.553,-32.4337,27.3881,
-19.2723,-17.3506,211.0529,21.1521,-5.1706,-15.4699,5.1706,-14.5712,26.7096,20.1287,5.1706,39.9549,-23.0327,12.3881,
-25.3828,-28.2033,197.4207,18.8019,-20.1706,-28.2033,3.7604,-9.4014,24.4421,31.9628,4.7003,51.7055,-8.0327,-2.6119,
-28.6733,-13.2033,182.4207,20.2117,-27.7334,-13.2033,0.46994,-2.3506,9.4421,23.973,-0.46994,66.7055,-7.9907,12.3881,
-32.4341,-1.4103,167.4207,22.0919,-22.0928,1.7967,-14.5301,-10.8117,1.4103,17.3917,-15.4699,70.0371,-22.9907,27.3881,
-25.3824,9.401,165.4583,25.3833,-12.2215,16.7967,-11.2807,-13.1614,-8.4611,8.4611,-15.9819,68.6273,-26.3223,42.3881,
-33.8435,14.1017,154.1767,11.2812,-16.9222,31.7967,-3.7604,-15.0415,-17.8621,3.7604,-21.6224,64.8673,-17.8621,57.3881,
-38.5446,6.5809,141.9548,3.7604,-21.6224,33.8435,-9.4014,-15.9823,-3.7604,18.7604,-18.8019,75.2077,-31.0239,72.3881,
-35.7232,-8.4191,143.8354,5.641,-17.8621,18.8435,-11.2812,-21.6224,0,30.0831,-3.8019,82.7294,-29.1432,73.328,
-37.6043,-11.2807,143.8359,5.6406,-15.0411,3.8435,-1.8802,-28.2029,-9.401,16.9217,6.5813,67.7294,-20.6821,58.328,
-22.6043,-10.3408,148.5361,14.1012,-7.5212,-11.1565,10.3408,-21.622,5.599,22.5628,7.5212,58.286,-19.7423,43.328,
-13.6313,-16.4518,149.0061,27.733,-4.2308,-26.1565,19.2723,-15.5119,20.599,27.733,4.2308,58.7559,-20.2122,28.328,
-18.8024,-3.7599,139.1356,32.904,-1.8802,-31.0234,19.7423,-15.9819,8.4611,21.622,1.8802,55.4664,-9.401,13.328,
-16.4514,11.2401,124.1356,31.4938,-9.8713,-16.0234,4.7423,-9.8713,-6.5389,16.4522,-10.8112,70.4664,-15.5115,28.328,
-22.0928,12.6914,109.1356,22.0919,-24.8713,-1.0234,-10.2577,-1.4103,-21.5389,1.4522,-25.8112,85.4664,-30.5115,43.328,
-33.3735,12.6919,95.4204,18.332,-20.2117,13.9766,2.3506,-2.3506,-33.3735,-3.2904,-39.0146,91.66,-45.5115,58.328,
-30.0831,27.6919,100.5905,23.5022,-10.3413,28.9766,0,-8.4606,-18.3735,0,-24.0146,96.8302,-30.5115,73.328,
-32.904,29.1428,88.3691,18.8015,-11.2816,43.9766,-15,-5.6406,-19.7422,-15,-9.0146,85.5495,-41.3647,88.328,
-34.3134,23.9721,73.7979,14.5716,-6.111,36.194,-6.111,-0.46994,-24.9129,-30,0.46994,70.5495,-51.2356,79.4389,
-22.0924,32.4337,70.9774,22.0924,-3.2904,32.4337,-4.2303,-9.8713,-30.5539,-36.194,3.2904,59.6962,-38.0747,64.4389,
-9.4005,47.4337,75.2086,31.0239,7.5208,47.0053,-12.221,-15.0415,-41.3642,-28.2033,-7.5208,74.6962,-34.7833,54.526,
-10.3413,55.4659,75.2077,23.5022,10.3413,45.1246,-13.1618,-23.5022,-52.6454,-22.5623,-22.5208,63.9266,-49.7833,39.526,
-0.46994,53.1153,81.3187,24.9129,0.46994,30.1246,-4.2303,-25.8528,-44.6547,-7.5623,-37.5208,55.9359,-56.8766,24.526,
2.8205,44.1848,86.4898,33.8435,-10.3413,15.1246,-2.8205,-26.3227,-29.6547,7.4377,-38.5437,64.8673,-50.7657,9.526,
-1.8802,45.1251,82.7289,37.6043,-2.8201,2.8201,1.8802,-28.2029,-14.6547,19.7422,-25.3824,66.7475,-35.7657,-5.474,
-13.6317,43.7148,67.7289,22.6043,-0.46994,7.9907,0.46994,-33.3735,-23.0323,4.7422,-24.9129,54.0561,-32.4337,3.2904,
-14.1017,47.0053,54.526,12.2219,0.93987,22.9907,-0.93987,-20.6817,-31.023,-10.2578,-27.2626,62.9867,-36.664,18.2904,
-11.2816,47.0048,53.5857,11.2816,2.8201,37.9907,-2.8201,-10.3408,-41.3647,-20.6821,-29.1428,66.7475,-37.6043,33.2904,
-10.8117,52.1759,44.6551,16.4518,5.1706,52.9907,-5.1706,-7.9912,-54.9964,-35.6821,-19.2723,69.0972,-30.5535,48.2904,
-9.8709,61.5764,33.3731,23.9726,9.8709,66.2767,-13.6313,-10.8117,-63.4571,-41.8346,-17.3917,84.0972,-31.4933,63.2904,
-14.1012,54.5256,21.622,14.1012,14.1012,60.1666,-20.6821,-25.8117,-64.8669,-30.0835,-32.3917,91.1896,-46.4933,78.2904,
-15.042,51.706,23.5026,14.1012,14.1012,49.8253,-14.1012,-40.8117,-64.8669,-34.7838,-47.3917,79.9084,-61.4933,93.2904,
-10.3417,54.5256,38.5026,29.1012,8.4611,43.2444,-8.4611,-32.904,-49.8669,-32.904,-39.4841,86.4893,-60.1666,78.2904,
-11.7511,39.5256,53.5026,26.7926,1.4098,28.2444,-3.2904,-17.904,-34.8669,-17.904,-25.8528,90.7201,-49.3558,63.2904,
-21.622,24.5256,55.4664,21.6229,-7.5203,13.2444,1.8802,-15.9819,-19.8669,-2.904,-39.4841,75.7201,-43.2444,48.2904,
-24.9124,9.5256,54.0557,35.2537,-13.6313,-1.7556,7.9912,-7.0513,-4.8669,12.096,-28.6728,60.7201,-28.2444,33.2904,
-31.0234,-5.4744,40.4248,35.7237,-28.2029,-16.7556,11.2816,-7.5203,10.1331,24.4425,-13.6728,75.2082,-16.9217,18.2904,
-45.1246,-20.4744,25.4248,20.7237,-34.7838,-31.7556,8.4606,-16.9213,21.6224,15.9823,-8.4606,73.328,-31.9217,11.2812,
-30.1246,-11.7511,31.4938,29.6132,-19.7838,-16.7556,11.752,-1.9213,6.6224,14.5716,-10.8112,81.3196,-26.7926,26.2812,
-15.5119,3.2489,32.4332,33.374,-4.7838,-1.7556,2.3501,-2.3501,-8.3776,-0.42839,-15.5119,77.5587,-30.5535,41.2812,
-14.5712,18.2489,29.6136,32.4332,-4.2308,13.2444,4.2308,-8.931,-23.3776,-15.4284,-10.8108,83.1989,-39.0141,56.2812,
-10.3413,32.9027,29.1423,35.7232,0,28.2444,0,-7.5217,-38.3776,-21.6224,-6.5809,98.1989,-50.7657,71.2812,
-0.46994,39.9544,27.7334,39.9544,0.46994,41.8342,-6.111,-7.0508,-34.3134,-9.8713,-9.8713,113.1989,-65.7657,86.2812,
-9.401,31.9633,26.3231,31.0234,-3.7608,26.8342,-2.8201,-15.9819,-22.5628,2.8201,-17.8616,123.1533,-72.3877,101.2812,
-24.401,16.9633,28.2029,31.9633,-2.8201,11.8342,5.6406,-17.8616,-19.7422,8.4611,-23.5026,115.6325,-57.3877,86.2812,
-22.5623,1.9633,36.664,46.0654,3.7604,-3.1658,20.6406,-3.7604,-13.1609,23.4611,-11.2812,108.1122,-42.3877,71.2812,
-29.6132,-13.0367,29.6132,34.3143,-10.8112,-18.1658,22.0924,0.46994,-8.9306,23.973,-0.46994,93.1122,-28.6728,56.2812,
-38.5442,-23.5026,19.7422,32.9032,-16.9217,-33.1658,14.1012,-2.8201,-9.401,16.9217,2.8201,78.1122,-15.042,41.2812,
-30.5535,-12.691,24.9129,45.5946,-3.2904,-18.1658,22.0924,-0.46994,-24.401,17.3921,0.46994,87.8996,-7.9907,56.2812,
-45.1246,-15.9814,12.2219,30.5946,-14.1017,-3.1658,9.4014,-7.5208,-39.401,8.4615,-13.1609,102.8996,-22.9907,71.2812,
-48.4155,-4.2303,1.4098,26.7926,-12.6919,11.8342,-0.46994,-2.3506,-34.3134,8.9306,0.46994,117.8996,-37.9907,86.2812,
-35.2537,10.7697,-4.2299,31.4933,1.4103,23.9726,4.2308,-4.2299,-36.1936,-6.0694,-1.4103,102.8996,-34.3139,101.2812,
-29.1428,19.7422,-3.7608,24.4425,6.5805,32.9032,3.7608,-16.9217,-51.1936,-20.6821,-7.5212,94.0101,-48.8855,116.2812,
-30.0831,23.5022,-2.8205,15.0415,0.93987,41.3642,-0.93987,-28.2033,-36.1936,-12.221,2.8205,109.0101,-63.8855,131.2812,
-30.0831,30.0831,-1.8797,15.0415,0.93987,40.4244,-0.93987,-27.2626,-23.5022,2.779,-3.7604,122.213,-78.8855,146.2812,
-37.6039,20.6826,-7.5208,16.9222,1.8806,25.4244,-1.8806,-17.8621,-38.5022,1.8806,-18.7604,109.0521,-80.8487,131.2812,
-42.7745,5.6826,-11.7515,19.2714,7.0504,10.4244,7.0504,-12.6914,-41.8346,3.29,-3.7604,103.8814,-65.8487,146.2812,
-43.7153,-9.3174,-17.3926,10.8108,2.3501,-2.3501,9.8709,-23.0327,-36.1945,4.2299,2.3501,94.48,-50.8487,150.8858,
-33.8439,0.94032,-7.5212,13.1614,14.1012,-0.94032,18.8024,-16.9217,-38.5442,16.9217,-5.6406,100.591,-35.8487,135.8858,
-48.8439,0,-14.1017,4.7003,10.3404,0,9.4005,-15.9823,-48.8859,3.7604,-16.9222,95.8903,-21.6224,150.8858,
-42.7745,0.46994,-14.5716,7.9907,8.9315,15,11.7511,-0.98231,-45.595,-6.111,-1.9222,108.5822,-25.8528,165.8858,
-48.4151,-0.46994,-29.5716,9.8713,0.46994,16.4514,2.3506,-3.2904,-55.9363,-7.9907,3.2905,106.7015,-28.6733,180.8858,
-56.8766,3.2904,-31.4938,19.2719,0.46994,1.4514,-0.46994,-7.9907,-53.1162,0.46994,3.2904,93.5397,-39.9544,195.8858,
-49.8258,-1.8806,-16.9222,15.0415,1.8797,-0.93987,0.93987,-8.4606,-49.8258,1.8797,1.8797,93.0698,-51.706,210.8858,
-34.8258,-2.3501,-11.7515,13.6313,-1.4103,-3.29,1.4103,1.4103,-54.996,1.4103,2.3501,108.0698,-38.0742,225.8858,
-38.5442,-9.4019,-16.9226,15.0411,1.8802,-18.29,6.5805,-1.8802,-50.7661,5.6406,6.5805,123.0698,-27.263,221.8641,
-40.8948,-18.3324,-8.931,8.931,14.5712,-33.29,21.5805,-13.6322,-35.7661,17.3917,14.5712,109.5216,-32.4341,210.1121,
-34.3139,-22.0924,-9.8713,9.8713,18.332,-43.7148,24.9129,-17.3921,-41.8346,13.6317,12.6919,97.301,-40.8943,212.9331,
-31.9637,-15.042,-14.1012,24.8713,25.3824,-37.6043,25.3824,-13.1614,-41.3647,13.1614,21.622,101.5309,-27.263,211.5228,
-43.7144,-14.5716,-16.4514,28.6733,19.2728,-29.6132,24.9129,-24.912,-45.5946,14.5716,15.5124,98.2409,-23.0323,213.8739,
-33.8439,-4.7007,-15.9819,32.9032,14.1012,-14.6132,32.9032,-24.4425,-51.7055,14.1012,4.7007,110.9323,-20.6821,228.8739,
-30.0835,-0.94032,-25.3833,34.7838,6.5805,-11.2816,17.9032,-22.5628,-47.0053,2.8201,0.94032,118.4531,-25.3833,221.8641,
-35.2537,-1.4103,-15.5119,37.1335,1.4103,-16.4518,7.0504,-21.153,-44.6551,7.9903,7.9903,109.5216,-29.6136,206.8641,
-35.2533,0.46994,-8.9306,39.0146,-0.46994,-1.4518,12.6919,-12.691,-59.6551,13.6317,12.6919,106.7015,-27.7325,221.8641,
-29.1437,-4.7007,-15.9819,38.5442,1.8802,-1.8802,14.1012,-9.4019,-51.706,7.5203,15.0411,121.7015,-34.7838,228.4441,
-25.3824,-5.6406,-5.6406,42.3046,5.6406,-16.8802,12.2215,-16.9217,-36.706,13.1622,24.4434,129.7342,-37.6039,216.224,
-31.9628,-8.4606,-2.8205,34.7842,2.8205,-31.8802,14.1017,-25.3828,-21.706,15.0415,25.3828,114.7342,-28.2024,205.8822,
-27.2626,-9.4014,-13.1618,32.9036,9.4014,-16.8802,29.1017,-20.6826,-10.3413,10.3413,37.6039,119.3934,-16.9222,197.4216,
-31.9628,-16.9213,-20.6817,29.1432,6.5809,-16.9213,25.3828,-23.5022,-6.5809,10.3413,33.8435,125.9743,-20.6817,184.2607,
-35.2542,-14.5721,-12.6914,33.3731,8.931,-27.733,29.6127,-16.4518,-8.931,25.3413,18.8435,128.3235,-11.7515,196.0113,
-44.1848,-15.0411,-22.5619,31.0234,5.6406,-14.1012,26.3231,-22.5619,-4.7007,40.3413,4.7007,115.6325,-15.0411,196.4813,
-40.8943,-9.8705,-30.553,25.8528,-0.46994,-7.9907,15.5115,-37.5619,1.4107,25.3413,0.46994,112.3425,-28.6733,188.491,
-25.8943,-1.4103,-21.1521,34.3139,1.4103,-21.1521,14.5712,-37.1344,1.4103,23.9726,-1.4103,116.1025,-32.4332,185.6701,
-26.7926,-7.0508,-23.9721,34.3143,3.2904,-23.9721,13.6317,-33.3735,5.1711,35.2542,-3.2904,101.1025,-36.194,170.6701,
-32.4332,-5.1706,-28.6728,29.6136,2.3501,-10.8108,7.9912,-33.374,7.0504,35.2537,-2.3501,86.1025,-31.4933,155.6701,
-25.8532,7.0504,-25.8532,38.0742,-0.47038,-11.7515,0.47038,-30.5535,1.4103,26.7931,-0.47038,81.3191,-25.8532,152.7665,
-24.9124,-3.29,-25.8532,39.954,0.47038,-24.9124,6.1105,-33.374,7.0504,32.4332,-0.47038,86.0194,-38.0742,156.5268,
-29.6132,-12.6919,-25.8528,35.2533,7.0508,-24.9129,21.1105,-47.4757,15.5115,44.6547,-7.0508,87.8996,-39.9549,149.0056,
-34.3143,-7.0508,-23.973,31.4929,7.0508,-18.332,26.7926,-45.5955,10.8112,44.6547,-14.5716,93.5397,-26.7935,147.1259,
-39.0141,-16.4518,-25.8523,23.9726,9.8709,-16.4518,20.2122,-33.3731,7.9912,41.8346,-7.9912,84.1396,-30.5535,150.8867,
-45.595,-31.4518,-37.1344,20.2117,9.8713,-25.8528,9.8713,-41.8346,7.0508,35.2533,-7.0508,77.5583,-43.7148,136.7846,
-48.4151,-33.3735,-43.7144,22.0924,3.2904,-35.2537,19.2728,-48.4151,9.8713,39.9544,-3.2904,92.5583,-33.3735,126.4442,
-45.595,-30.5535,-39.0141,28.6733,4.2303,-25.8528,27.7334,-33.4151,9.8713,54.9544,-4.2303,99.1807,-28.6733,132.0843,
-30.595,-15.5535,-24.0141,43.6733,19.2303,-10.8528,33.8439,-18.4151,-1.8802,60.1666,-3.7599,100.591,-22.5623,147.0843,
-34.3143,-0.55347,-39.0141,29.6132,6.1101,-0.46994,19.2719,-33.4151,-16.8802,45.1666,-8.9315,86.9588,-31.4938,133.9641,
-39.0141,5.1706,-38.0742,26.7931,0.47038,-0.47038,17.3917,-45.595,-7.9912,30.1666,-7.0504,76.618,-38.0742,118.9641,
-41.8346,-8.931,-41.8346,27.733,2.3501,-2.3501,10.8117,-34.3139,5.1706,30.5535,-17.3917,68.1573,-51.2356,104.8213,
-37.6039,0,-44.1848,32.9036,0,0.93987,8.4606,-35.7241,-9.8294,25.3828,-15.0415,78.9681,-52.6459,111.8717,
-33.8435,7.5208,-35.7232,35.7241,-3.7604,3.7604,12.2219,-44.1848,-24.8294,10.3828,-17.8621,68.6277,-55.4659,98.7108,
-40.4244,-0.93987,-31.0239,36.664,2.8205,0.93987,9.4005,-42.305,-26.3227,4.7003,-32.8621,53.6277,-56.4062,83.7108,
-46.065,0.94032,-35.7237,39.4841,1.8802,-0.94032,10.3408,-35.7237,-23.5026,17.8616,-30.0835,62.0464,-51.706,98.7104,
-45.595,2.3501,-40.8948,30.5535,-2.3501,6.1105,16.4518,-39.0141,-33.374,30.5535,-20.2122,77.0464,-60.6366,113.7104,
-44.6547,-6.111,-31.4929,24.9129,7.9907,6.111,17.3921,-43.7148,-23.0323,37.1339,-20.2117,92.0464,-57.816,98.7104,
-43.7148,-6.111,-31.4929,27.7334,7.9907,6.111,17.3921,-42.7745,-26.7926,38.0747,-21.1525,95.4204,-61.5764,83.7104,
-43.2444,-6.5809,-31.9628,29.1432,7.5208,6.5809,15.9823,-41.3642,-31.023,38.5446,-23.5022,94.9504,-64.8669,78.0291,
-43.2444,-6.5809,-32.9036,31.9637,7.5208,6.5809,15.0415,-39.4836,-34.7833,39.4845,-25.3828,94.9504,-68.6273,72.3881,
-42.7745,-7.0508,-33.3735,34.3143,7.0508,7.0508,13.6317,-38.0738,-39.0137,39.9544,-27.7325,94.4805,-71.9173,66.2771,
-41.8342,-7.0508,-33.3735,37.1348,7.0508,7.0508,13.6317,-37.1339,-42.7745,40.8952,-28.6724,94.4805,-75.6777,60.637,
-40.8943,-7.0508,-33.3735,39.0146,7.0508,7.9916,12.6919,-35.2533,-46.5349,41.8351,-30.553,94.4805,-78.4982,55.9367,
-39.954,-6.1105,-35.2537,42.7745,6.1105,8.931,10.8108,-32.4332,-51.2356,42.7745,-33.374,94.48,-83.1993,48.4155,
-41.8346,-5.1706,-40.8948,42.7745,5.1706,21.1521,10.8108,-23.9726,-44.6551,35.2537,-35.2537,88.839,-72.858,35.2537,
-39.0146,-3.2904,-42.775,37.1339,3.2904,23.9721,17.3912,-32.4337,-39.0146,29.6132,-27.7334,84.1392,-68.1578,20.2537,
-38.5446,-3.7604,-47.0053,33.8435,3.7604,8.9721,14.1017,-38.5446,-54.0146,30.0831,-30.0831,93.0698,-76.1485,28.2033,
-38.0738,-4.2303,-44.6551,33.3735,7.9907,7.9907,4.2303,-31.4938,-61.5769,17.3921,-23.0323,95.4204,-66.2771,39.0146,
-38.0747,-7.0508,-36.1941,20.2117,11.7511,20.2117,7.9907,-32.4337,-50.2957,7.0508,-18.332,80.4204,-55.9363,24.0146,
-33.3735,-2.3501,-30.5526,29.6136,16.4518,17.3926,22.9907,-29.6127,-39.954,14.5721,-26.7922,65.4204,-59.6962,9.0146,
-39.4841,-5.6406,-45.1251,32.904,5.6406,10.3408,14.1012,-32.9032,-48.8855,5.6406,-33.8439,72.3877,-63.927,12.2215,
-36.1936,1.4103,-37.1335,31.4933,5.1706,25.3408,10.8117,-28.6728,-47.4748,-1.4103,-23.9726,82.259,-54.996,27.2215,
-42.305,6.5809,-37.6039,30.0831,2.8205,26.3227,12.221,-36.664,-57.3466,-2.8205,-38.5446,70.5075,-69.996,12.2215,
-36.1941,8.9306,-39.0146,37.1339,7.0508,23.0323,18.332,-37.1339,-55.9363,7.0508,-31.4938,68.1569,-82.259,-2.7785,
-25.8532,5.1706,-38.0742,39.954,11.7515,30.5535,14.5712,-28.6728,-46.5353,9.8709,-16.4938,67.2175,-67.259,-5.1706,
-28.6733,5.1702,-37.1339,43.7148,17.3921,29.6132,17.3921,-23.9721,-35.2537,19.2719,-6.111,78.4982,-54.0557,-5.1702,
-32.4332,7.0508,-36.1936,47.4752,15.5115,15.5115,24.9129,-29.6132,-20.2537,31.4938,-8.9306,83.1993,-57.816,-7.0508,
-27.263,3.7604,-31.0234,47.0053,14.1017,13.1609,25.3828,-24.443,-14.1017,41.3642,-3.7604,85.549,-62.0468,-3.7604,
-24.9129,1.4103,-25.8528,47.4748,22.0928,21.1521,30.5535,-12.6914,-28.6733,51.236,-1.4103,100.1211,-57.816,-5.1706,
-26.3227,0.93987,-22.5623,54.526,25.3828,24.443,28.2033,-13.1609,-26.3227,47.0053,-0.93987,101.5313,-48.885,-6.5809,
-28.6733,-1.4098,-22.0924,54.0561,16.4522,25.8528,20.2126,-22.0924,-22.0924,32.0053,1.4098,86.5313,-52.1755,-8.9306,
-26.7926,1.4098,-29.6132,47.4752,7.0508,19.2719,26.7926,-25.8528,-32.4337,22.0924,-1.4098,71.5313,-67.1755,-23.0323,
-24.9133,9.8709,-32.4341,47.4748,1.4103,9.8709,27.733,-30.5535,-32.4341,29.6127,-1.4103,59.6967,-82.1755,-29.6136,
-26.7935,14.5716,-27.7334,45.5946,-0.46994,19.2719,13.6308,-32.4337,-27.7334,23.0323,0.46994,61.5769,-67.1755,-36.1941,
-21.1525,18.332,-23.0323,43.7148,7.0508,34.2719,17.3921,-25.8528,-42.7334,11.7511,-7.0508,69.0977,-52.1759,-39.9544,
-21.1525,9.8713,-25.8528,48.4151,12.6919,30.553,32.3921,-23.9721,-57.7334,9.8713,-9.8713,66.2771,-56.8762,-32.4337,
-23.5022,7.5208,-27.2626,48.885,13.1618,28.2033,29.1432,-27.2626,-43.2449,12.221,-7.5208,62.0468,-58.2864,-30.0831,
-15.0415,18.8019,-21.6224,46.0654,13.1618,33.8435,16.9222,-27.2626,-48.8855,16.9222,-13.1618,71.4473,-65.8072,-45.0831,
-14.5716,15.5124,-23.9721,45.5955,15.5124,28.6733,19.2728,-25.8528,-61.5764,14.5716,-17.3912,79.4389,-75.6781,-40.8943,
-27.733,4.2303,-30.5535,51.2356,18.332,21.1525,27.7334,-22.0924,-46.5764,18.332,-4.2303,78.4982,-60.6781,-25.8943,
-42.733,0.47038,-37.1344,44.6551,5.1706,9.8709,13.6313,-35.2537,-42.775,24.9124,-0.47038,76.618,-53.1158,-30.5535,
-42.3041,-0.93987,-32.9036,34.7842,0.93987,12.221,7.5208,-45.1251,-52.6459,23.5022,0.93987,87.4296,-63.927,-44.1848,
-39.0141,-7.9907,-34.3134,39.0146,7.9907,17.3921,12.6919,-39.0141,-49.3554,23.973,8.9315,86.0198,-68.1573,-44.6547,
-39.0141,-8.931,-43.7144,42.7754,8.931,20.2122,13.6322,-28.6728,-39.954,24.9133,9.8718,73.7984,-68.1569,-48.4151,
-28.2024,3.7604,-36.664,43.2449,11.2812,31.0239,16.9222,-23.5022,-47.9451,15.9823,-3.7604,77.0884,-68.6273,-36.664,
-13.2024,18.7604,-25.8528,51.2356,26.2812,46.0239,28.6733,-20.2126,-62.5168,4.2303,-13.6317,91.66,-57.8165,-21.664,
-1.4098,24.9129,-26.7926,47.4752,39.9544,52.1755,34.3134,-23.973,-77.5168,1.4098,-15.5115,92.5998,-54.996,-33.3735,
-7.5208,23.5031,-24.4421,49.8258,31.0239,50.7657,34.7842,-22.5623,-73.328,6.5809,-6.5809,82.7294,-54.5256,-48.3735,
-20.2117,8.5031,-39.0141,43.7148,16.0239,35.7657,19.7842,-26.7926,-58.328,-2.3506,2.3506,67.7294,-58.7564,-59.6962,
-28.6724,-6.4969,-48.4151,35.2542,10.8112,20.7657,11.752,-35.2533,-44.6547,12.6494,11.752,66.2771,-68.1569,-74.6962,
-27.733,-6.1105,-36.1941,42.7745,17.3917,10.8117,20.2122,-38.0742,-54.0557,27.6494,6.1105,71.9177,-71.9177,-76.6184,
-16.4522,7.0508,-23.973,53.1153,14.5716,17.3912,22.0924,-26.7935,-56.8766,34.3134,-7.0508,73.7979,-56.9177,-61.6184,
-12.6914,9.8709,-30.5535,46.5349,9.8709,32.3912,20.2122,-21.1521,-55.9359,19.3134,-9.8709,88.7979,-62.5168,-52.1755,
-21.1525,3.2904,-37.1339,33.3735,21.1525,41.8342,21.1525,-25.8528,-57.8165,7.0508,-3.2904,101.0614,-74.7382,-44.6547,
-28.2033,-0.93987,-30.0831,32.9036,29.1432,33.8435,15.9814,-27.2626,-64.8669,4.7003,0.93987,86.0614,-62.0468,-47.0053,
-25.3828,1.8797,-28.2033,43.244,23.5022,31.9628,16.9213,-27.2635,-71.4482,0,0,71.0614,-58.2869,-59.2267,
-18.8019,14.1017,-36.664,41.3642,25.3828,37.6039,15.0415,-36.664,-76.148,0.93987,-0.93987,72.3881,-66.7471,-63.927,
-10.3413,26.3227,-37.6048,37.6039,26.3227,32.9036,7.5208,-36.664,-79.9089,0,0,87.3881,-69.568,-63.9275,
-1.8797,37.6039,-23.5022,49.8258,27.2626,38.5446,21.6224,-23.5022,-80.8487,0.93987,-0.93987,82.7294,-66.7471,-63.927,
4.7007,48.8855,-18.8024,47.9447,35.7237,50.7652,33.8439,-31.0234,-91.19,-4.7007,-15.9399,67.7294,-71.4478,-62.9871,
13.6317,63.8855,-16.4514,47.4752,48.4151,65.7652,18.8439,-42.7749,-98.2409,-13.6317,-30.9399,52.7294,-65.3373,-62.5168,
19.2719,78.8855,-19.2719,50.2957,39.9544,70.9774,10.8112,-35.2542,-95.4204,-10.8112,-39.0146,43.7148,-64.3974,-77.5168,
17.3917,75.6781,-27.733,50.2953,27.733,62.5163,16.4518,-34.3139,-95.4204,-16.4518,-45.595,39.954,-79.3974,-92.5168,
22.0924,86.9597,-20.2117,54.996,39.0146,60.637,12.691,-37.1339,-90.7196,-12.691,-39.9544,44.6547,-92.5998,-80.3788,
7.0924,79.9089,-28.2024,41.3651,28.2033,49.8258,-2.309,-45.1246,-86.4889,2.309,-25.3819,47.946,-94.0096,-65.3788,
-6.1105,64.9089,-39.954,33.374,15.5119,40.8948,6.1105,-44.6551,-77.5583,11.7515,-13.6313,49.3554,-86.9593,-73.7979,
-3.29,51.2351,-37.1344,36.1936,27.733,33.374,21.1105,-39.0141,-70.0375,3.29,-7.9912,60.6366,-73.7979,-88.7979,
-1.8802,45.1251,-32.9032,36.6644,31.0234,24.4434,21.6229,-37.6034,-62.9867,-1.8802,1.8802,75.6366,-65.8068,-85.549,
-3.2904,40.8943,-43.7148,30.553,16.4522,28.6733,7.9907,-41.8342,-72.858,-4.2303,3.2904,71.9182,-66.2771,-78.4986,
1.8802,38.5442,-46.065,34.7838,20.6821,41.3647,7.5203,-37.6043,-87.4296,-5.6406,-1.8802,59.2268,-66.7475,-86.4893,
2.8205,31.9637,-36.664,45.1246,27.2635,30.0831,15.0415,-32.9036,-83.6688,-5.6401,-2.8205,55.4659,-63.927,-101.4893,
0.94032,17.8616,-43.2444,31.0234,17.8616,15.0831,13.1614,-41.3647,-78.0287,-2.8201,-0.94032,55.4664,-60.1666,-108.1118,
-4.7007,14.1012,-47.9456,25.3824,16.9217,23.5026,10.3408,-43.2444,-87.4296,-0.94032,0.94032,60.1666,-59.2268,-102.4712,
-7.5203,22.5628,-35.7237,40.3824,29.1437,38.5026,20.6821,-28.2444,-94.9504,-4.7007,4.7007,64.8669,-59.2263,-87.4712,
-5.6406,22.5619,-28.2029,45.1251,31.0234,34.7838,27.263,-28.2029,-83.6693,-1.8802,1.8802,52.6458,-58.2864,-79.9089,
-10.8112,7.5619,-32.4337,30.553,16.0234,20.2126,18.332,-38.0738,-68.6693,3.2904,-3.2904,43.7148,-52.1755,-94.9089,
-17.8621,-2.8205,-33.8435,32.9036,8.4615,26.3227,12.2219,-31.023,-53.6693,2.8205,10.3413,58.7148,-46.065,-98.7104,
-27.263,-4.7007,-46.0654,39.4841,5.6406,24.4425,4.7007,-35.7237,-38.6693,8.4611,9.401,72.3877,-53.5862,-83.7104,
-18.8019,0,-47.0053,45.1246,2.8205,18.8019,1.8806,-39.4845,-29.1432,23.4611,0,63.9266,-46.065,-78.9686,
-9.8713,-3.2904,-38.0738,35.2542,3.2904,18.332,8.9306,-36.194,-14.1432,38.0738,15,78.9266,-34.3134,-63.9686,
-22.5623,-15.0415,-48.8855,20.6826,-2.8205,3.7604,4.7003,-45.1246,0.85679,26.3227,29.1432,87.4296,-49.3134,-48.9686,
-25.8528,-9.8713,-59.6967,27.7325,0.46994,5.1702,-0.46994,-41.8351,5.1702,33.3735,22.0924,72.4296,-62.5172,-42.7749,
-17.3921,-6.111,-58.7568,30.553,2.3497,19.2719,-0.46994,-39.9544,0.46994,25.8528,10.8112,57.4296,-49.3558,-39.0146,
-10.3404,-3.7604,-44.1848,30.084,0,15.9823,14.5301,-41.3642,0,11.2812,12.2219,50.7657,-53.5857,-31.023,
-14.5716,-6.111,-39.0146,30.553,-0.46994,1.4098,20.2117,-40.8943,0.46994,18.332,7.9907,55.9359,-58.7564,-26.7926,
-6.111,-2.3506,-34.3143,39.9544,10.8112,16.4098,15.5115,-31.4938,-0.46994,33.332,0.46994,64.3965,-43.7564,-16.4522,
0.46994,-1.4107,-27.7334,49.355,25.8112,31.4098,24.9129,-21.1525,-0.46994,37.1339,-7.0508,76.6184,-28.7564,-18.332,
0.46994,-0.46994,-25.8528,46.5353,27.7334,24.9129,34.3134,-18.332,-5.1702,32.4337,-11.7511,80.3788,-30.5535,-19.2723,
-0.94032,-5.6406,-27.263,43.2444,18.8024,18.8024,21.6229,-29.1432,0.94032,44.1852,-14.1012,76.148,-33.8435,-16.9217,
-9.4014,-15.0415,-29.1432,46.0654,14.1017,16.9222,17.8621,-37.6043,9.4014,47.9451,-15.9814,61.148,-39.4845,-31.9217,
-2.8205,-2.8205,-24.4425,49.8258,25.3828,26.3227,32.8621,-29.1432,2.8205,40.4244,-9.4005,62.0468,-34.7838,-30.0831,
-0.94032,0.94032,-31.0234,36.6635,22.5628,30.0835,21.622,-33.8439,-12.1795,39.4841,-0.94032,76.148,-35.7241,-25.3824,
-7.9907,-7.0508,-32.4337,37.1339,8.9306,26.7926,19.2719,-31.4933,-2.3506,54.4841,2.3506,73.7979,-44.6547,-40.3824,
-10.3413,-5.641,-33.8439,46.0645,3.7604,26.3227,28.2033,-26.3231,2.8205,60.1662,-2.8205,60.1662,-43.2449,-42.3046,
-4.7003,4.7003,-36.664,45.1246,15.0415,29.1432,29.1432,-30.0831,-5.6401,51.7055,-8.4606,70.5075,-35.7237,-31.0234,
-0.46994,0.46994,-33.3735,39.9544,21.1525,23.0331,20.2126,-33.3735,-4.2303,44.6556,-11.7511,77.5583,-37.1339,-46.0234,
2.3501,-8.931,-24.9124,37.1344,13.6322,22.0928,16.4518,-33.3735,-2.3501,40.8948,-2.3501,69.0981,-36.1936,-45.5946,
-2.3497,-16.4514,-29.6132,37.1339,0.46994,26.7935,20.2126,-34.3134,0.46994,47.4752,-0.46994,64.3974,-45.5946,-41.8342,
-3.7604,-15.9819,-29.1432,52.1339,0,26.3227,29.1432,-25.3828,10.3413,60.1671,0,63.9275,-59.2263,-56.8342,
0.46994,-11.7511,-22.0924,53.1153,-0.46994,23.973,30.553,-22.0924,-0.46994,52.1755,4.2303,66.2771,-48.4151,-52.1759,
4.7003,-0.93987,-17.8621,49.8258,0.93987,32.9036,24.443,-22.5623,-14.1017,42.305,-0.93987,78.0282,-36.664,-37.1759,
-1.4103,3.29,-16.4518,58.7568,1.4103,34.3139,21.1521,-16.4518,-4.2308,51.236,-7.9912,86.9593,-51.664,-22.1759,
-5.1711,-4.2303,-18.332,60.6361,0.46994,33.3735,23.0323,-19.2719,6.1101,58.7564,-0.46994,87.8996,-50.2957,-8.9315,
0,-7.5208,-26.3227,56.4067,5.641,39.4845,21.6224,-34.2719,-8.4606,45.1255,0,72.8996,-35.2957,-16.9213,
2.8201,-2.8201,-31.9637,54.5256,9.401,37.6043,19.7422,-38.5442,-15.042,41.3647,-14.1012,57.8996,-37.6043,-31.9213,
-2.8205,2.8205,-25.3828,52.6454,8.4606,35.7241,21.6224,-27.263,-5.641,56.3647,-21.6224,62.9867,-52.6043,-43.2449,
-1.8802,1.8802,-23.5026,51.7051,8.4602,44.1843,16.9217,-31.0239,-13.1614,54.5256,-23.5026,64.8669,-61.1069,-35.7241,
5.6406,-5.6406,-23.5026,49.8253,12.2215,45.1251,15.042,-42.3046,-28.1614,39.5256,-31.0234,49.8669,-57.3461,-43.2444,
5.6406,-5.6406,-19.7422,48.8855,13.1614,37.6034,19.7422,-39.4845,-43.1614,24.5256,-39.4845,41.3647,-47.0053,-58.2444,
0,0,-22.5623,43.2449,12.2219,41.3651,16.9222,-29.1423,-40.4239,11.2821,-42.3041,36.664,-43.2444,-73.2444,
1.8802,-1.8802,-19.7423,41.3638,11.2807,44.1843,11.2807,-29.1437,-47.0057,5.6406,-44.1852,40.4239,-50.7661,-64.8673,
5.1706,-5.1706,-18.3324,50.2953,6.1105,41.8346,10.8108,-29.6136,-54.996,19.2723,-46.5349,55.4239,-61.5769,-51.2356,
0.46994,-0.46994,-17.3921,57.8165,14.5716,51.2356,17.3921,-23.0323,-39.996,34.2723,-39.0141,69.0977,-65.3368,-40.8943,
-5.1706,5.1706,-12.6914,57.816,21.1521,58.7568,18.3324,-24.9129,-35.2537,48.4155,-37.1339,67.2175,-61.5769,-39.0141,
-0.94032,0.94032,-13.1614,51.706,15.042,57.3461,15.042,-33.843,-47.9451,45.1251,-43.2444,68.6273,-57.3461,-43.2444,
3.2904,-3.2904,-7.9907,50.2957,18.332,58.7564,21.1525,-34.3139,-37.1344,39.9544,-45.595,65.3373,-60.6366,-36.1941,
-2.8205,0.93987,-0.93987,55.4659,23.5022,71.4473,30.0831,-22.5628,-24.443,32.9036,-48.8855,59.2263,-57.3466,-30.0835,
-3.7604,3.7604,-4.7003,55.4668,22.5632,77.0884,26.3236,-15.9814,-39.443,33.8444,-58.286,58.2864,-53.5853,-31.023,
1.4103,-1.4103,-11.7515,45.595,7.9912,63.4571,11.3236,-30.9814,-54.443,33.374,-73.286,43.2864,-68.5853,-46.023,
3.2904,-7.9907,-3.2904,40.8943,3.2904,56.8757,7.0508,-45.9814,-56.8762,24.9129,-88.286,28.2864,-83.5853,-61.023,
-0.46994,-8.9315,0.46994,46.5353,8.9306,66.2771,16.4514,-39.0146,-53.1158,10.8112,-86.9597,36.194,-70.0375,-70.0375,
0.47038,-2.3501,-0.47038,54.0557,12.6914,81.2771,15.5119,-24.0146,-68.1158,12.6914,-71.9597,48.4155,-55.9363,-55.0375,
-0.94032,-1.8802,0.94032,47.0048,14.1012,87.4292,12.2215,-31.0234,-71.4478,27.6914,-56.9597,56.4062,-61.1065,-48.8855,
-5.6406,-7.5212,5.6406,47.9456,22.5628,84.6096,25.3824,-39.4845,-56.4478,42.6914,-44.1848,71.4062,-56.4062,-41.3647,
-8.931,-12.6914,8.931,52.1759,21.1521,79.4385,30.5535,-24.4845,-45.595,52.1759,-54.996,86.4062,-50.2953,-26.3647,
-7.0508,-16.4514,7.0508,42.7749,7.9907,81.3187,22.0924,-18.332,-60.595,37.1759,-64.3969,76.6184,-61.5764,-38.0742,
-6.5809,-20.6826,6.5809,40.4244,7.5208,82.7294,28.2033,-31.023,-72.3877,31.023,-75.2082,72.3881,-70.5075,-44.1848,
-12.6914,-22.0928,16.4518,49.3554,12.6914,75.6781,32.4332,-41.8346,-70.0375,37.1335,-90.2082,68.1573,-71.9182,-37.1344,
-9.8709,-13.6313,29.6127,55.9363,9.8709,73.7975,29.6127,-39.9544,-72.858,37.1335,-98.2409,53.1573,-78.4986,-52.1344,
-2.3501,-15.5119,24.9124,45.595,2.3501,78.4986,22.0919,-45.595,-80.3788,24.9124,-92.6003,38.1573,-85.0791,-67.1344,
-4.2303,-23.9721,22.0924,41.8351,4.2303,84.1392,15.5115,-52.1755,-85.0791,17.3921,-97.3005,23.1573,-90.7196,-76.618,
-8.4611,-22.5619,32.904,54.5265,8.4611,87.4301,23.5026,-45.1246,-72.3877,12.2215,-104.3509,28.2029,-92.1299,-77.0884,
-3.2904,-21.1525,28.6733,53.1153,3.2904,88.8395,28.6733,-48.4155,-61.5769,13.6317,-99.1807,32.4337,-90.7201,-85.0795,
0,-21.6224,23.5022,49.8249,0,85.549,18.8019,-56.4067,-76.5769,25.3828,-99.6511,27.2626,-98.7113,-87.4301,
-3.7604,-14.1017,31.023,57.3457,3.7604,88.3695,17.8621,-53.5862,-91.19,27.2626,-105.2917,19.7418,-111.8722,-78.9686,
-4.2303,-7.0508,33.3735,58.7564,4.2303,103.3695,27.7325,-49.3558,-76.19,24.9129,-95.4208,33.3735,-107.6418,-65.3373,
-5.1706,-11.7515,21.1521,57.816,5.1706,110.4623,19.2723,-49.3554,-72.858,23.9726,-84.1392,48.3735,-92.6418,-60.6366,
