"AF3","AF4","F3","F4","F7","F8","FC5","FC6","O1","O2","P7","P8","T7","T8",
7.6453,-51.4785,-346.0752,-6.6262,18.8576,-45.3624,9.6836,8.6644,0.50956,-0.50956,43.3232,-10.7036,19.8776,-79.001,
22.6453,-63.7104,-334.8615,-1.5287,31.0908,-45.3619,24.6836,15.8002,-4.587,1.5287,46.3815,-8.6644,31.0908,-74.9231,
32.6195,-61.1621,-326.1976,-3.0583,33.6386,-51.9881,33.6386,7.1358,-19.587,6.1157,31.3815,-14.2715,16.0908,-77.4718,
23.4455,-49.9489,-324.1584,3.0583,35.6778,-49.9489,22.4264,11.2132,-19.3681,14.2715,16.3815,-9.174,1.0908,-76.4522,
25.4842,-64.9489,-335.3716,-1.0196,20.6778,-61.1621,7.4264,7.1353,-14.271,8.1554,10.1936,-1.0196,1.0196,-68.2974,
32.62,-66.2591,-325.178,7.1353,5.6778,-61.1621,6.1162,1.0196,-17.3294,6.1162,-1.0196,6.1162,-5.097,-59.1234,
22.9355,-51.2591,-310.3969,22.1353,19.8772,-51.478,21.1162,4.5875,-25.9938,4.5875,-1.5292,1.5292,-8.6649,-56.5751,
20.3877,-36.2591,-325.1775,21.4068,34.8772,-53.0072,30.5808,9.1745,-30.5808,2.0387,13.4708,-9.1745,-2.0387,-57.0846,
25.4838,-33.6396,-340.1775,6.4068,31.6004,-54.0268,22.4254,0,-30.5813,0,28.4708,-19.3681,12.9613,-63.2008,
17.3294,-18.6396,-334.352,2.0387,28.5426,-39.0268,24.4651,1.0196,-23.445,-1.0196,43.4708,-21.4068,27.9613,-64.2199,
2.3294,-17.3294,-332.3133,6.1162,43.5426,-24.0268,33.6391,13.2519,-20.3867,2.0387,53.0072,-17.3294,38.7357,-49.2199,
-6.1162,-22.4259,-339.449,6.1162,50.968,-20.3877,20.3877,12.2328,-20.3877,13.2519,48.9298,-7.1353,23.7357,-34.2199,
-9.174,-28.5421,-341.4878,-3.0583,37.717,-20.3872,5.3877,10.1941,-24.4646,11.2132,50.9685,7.8647,8.7357,-19.2199,
-14.2715,-40.7749,-329.2554,4.0774,32.6195,-22.4264,20.3877,25.1941,-15.2906,12.2323,62.1807,22.8647,-5.0975,-4.2199,
-22.4264,-53.0072,-328.2358,13.2519,22.4259,-34.6587,19.3676,28.5426,-15.2902,5.097,47.1807,37.8647,-20.0975,-5.097,
-7.4264,-38.0072,-315.4935,21.9168,37.4259,-19.6587,24.9752,32.11,-13.761,-2.5478,48.4197,40.2648,-5.6061,0.50956,
1.5292,-23.0072,-314.4748,12.7414,37.207,-19.8781,36.1869,37.207,-22.936,-12.7424,48.4192,25.2648,1.5292,-14.4904,
-1.5289,-38.0072,-299.4748,25.994,35.168,-34.8781,51.1869,52.207,-7.936,2.2576,55.5552,10.2648,-0.5098,-29.4904,
-1.5292,-45.3619,-293.0675,25.9938,31.0904,-49.8781,42.3036,53.5168,1.5292,15.8007,40.5552,-4.7352,-15.5098,-44.4904,
13.4708,-30.3619,-307.8481,23.446,39.7558,-34.8781,27.3036,38.5168,-13.4708,0.80068,25.5552,-18.3485,-30.5098,-47.9097,
11.7223,-15.3619,-322.8481,8.446,24.7558,-19.8781,12.3036,23.5168,-28.4708,-14.1993,10.5552,-33.3485,-45.5098,-62.9097,
26.7223,-0.36188,-323.6488,13.7615,28.033,-4.8781,4.5875,13.7615,-43.4708,-29.1993,-0.51004,-31.0904,-60.5098,-58.6138,
39.7558,14.6381,-312.9452,17.3294,25.4842,5.097,1.0196,10.1936,-58.4708,-38.7357,-1.0196,-23.445,-75.5098,-69.317,
24.7558,29.6381,-317.5327,9.6836,10.4842,-1.5287,5.6061,3.5679,-53.5168,-50.4589,1.5287,-32.11,-90.5098,-84.317,
33.6386,44.6381,-302.5327,20.3872,8.1549,-8.1549,18.348,16.3098,-38.5168,-35.4589,8.1549,-37.717,-105.5098,-93.7821,
48.6386,48.9293,-293.5771,30.5813,15.2906,-6.1157,21.4073,24.4646,-27.523,-20.4589,1.0191,-37.7166,-90.5098,-92.762,
33.6386,38.7357,-302.7521,28.5426,14.271,-14.271,22.4259,24.4651,-30.5813,-5.4589,-1.0196,-22.7166,-91.7429,-100.9174,
18.6386,23.7357,-311.416,15.8002,3.5679,-29.0516,14.7811,17.8394,-39.2452,-3.5679,10.7036,-11.7228,-100.4073,-99.3877,
11.7232,16.8198,-302.2415,12.7424,-2.5483,-27.0129,4.5875,17.8389,-33.1291,2.5483,25.7036,-5.6066,-99.3877,-84.3877,
7.6453,11.7228,-301.2224,10.7036,-5.6061,-27.0134,0.50956,17.8394,-29.0521,-0.50956,22.936,9.3934,-101.4269,-69.3877,
2.5483,5.6066,-302.2415,3.5684,-6.6257,-18.858,7.6458,16.8198,-34.1487,-2.5483,18.859,24.3934,-105.5039,-54.3877,
17.5483,13.2514,-295.6163,4.0774,-4.0774,-13.2524,11.2132,17.3289,-37.717,-4.0774,33.859,13.2514,-110.0918,-51.9881,
23.9546,17.8389,-288.9906,14.7806,5.6066,-23.9556,19.8772,18.858,-27.0129,-5.6066,45.3619,-1.7486,-104.4852,-66.9881,
12.2323,2.8389,-276.2482,20.3872,12.2323,-32.62,26.5038,14.2706,-16.3098,3.0583,33.6386,-10.1941,-100.9174,-78.4914,
19.3676,-12.1611,-261.2482,24.4642,3.0578,-33.6391,18.3485,9.1745,-15.2906,11.2127,27.5225,-3.0578,-115.9174,-87.6654,
21.9164,2.8389,-260.448,30.0712,-1.5292,-37.2065,11.7232,16.8198,-21.9164,1.5292,33.1296,-13.7615,-128.9494,-99.3882,
19.3681,17.8389,-265.035,38.7362,3.0583,-34.6582,19.3681,27.523,-27.523,-3.0583,33.6396,-9.174,-113.9494,-106.0139,
15.8002,7.6453,-260.448,28.0325,-11.9417,-40.2648,4.3681,12.523,-42.523,-1.5287,18.8585,2.5488,-105.5044,-104.4848,
23.9556,8.6649,-247.1961,15.8007,-8.664,-37.2065,1.5292,13.7615,-49.4388,-1.5292,20.8972,13.7615,-103.4656,-89.4848,
10.1941,0,-262.1961,0.80069,1.0191,-44.8518,9.175,13.2524,-58.1038,-16.5292,11.2132,0,-118.4656,-80.5297,
3.5679,0.50956,-277.1961,-0.50956,6.6252,-37.2075,7.6453,6.6252,-67.7883,-31.5292,7.6453,2.5478,-125.892,-77.9819,
18.5679,7.1353,-262.1961,5.097,5.097,-22.2075,-1.0196,1.0196,-70.3366,-28.5426,12.2318,8.1544,-118.2467,-62.9819,
33.5679,3.5679,-247.1961,13.761,0.50956,-8.6644,-0.50956,5.6061,-70.8461,-30.0717,10.7036,4.587,-122.8337,-47.9819,
33.1291,1.5287,-253.3128,17.8384,0.50956,-0.50956,5.6061,7.6453,-73.904,-45.0717,-1.5287,1.5287,-137.8337,-62.9819,
18.1291,16.5287,-256.8802,20.3872,3.0583,-3.0583,5.0966,6.1166,-72.3748,-46.891,-3.0583,7.1358,-147.8079,-77.9819,
11.7228,24.9742,-249.2348,17.8384,0.50956,-18.0583,-0.50956,0.50956,-64.73,-43.3232,4.587,2.5488,-138.1244,-62.9819,
23.9551,11.7228,-241.08,19.8776,8.6644,-25.9933,9.6845,9.6845,-50.4584,-29.0516,13.762,-8.6644,-128.9499,-57.5942,
24.9742,13.761,-241.0804,18.8585,10.7036,-10.9933,15.8002,20.8968,-45.3619,-16.8193,19.8776,-10.7036,-129.9695,-72.5942,
11.2137,16.3102,-242.6091,7.1353,-1.0196,-15.2902,5.097,15.2911,-35.6778,-24.4642,13.2519,1.0196,-133.5369,-79.5106,
5.6061,1.5287,-238.0221,10.7027,-0.50956,-30.2902,0.50956,10.7027,-20.6778,-39.4642,0.50956,1.5287,-140.1631,-71.8657,
13.7615,-6.6257,-231.9055,18.859,14.4904,-28.0325,15.5096,22.9364,-5.6778,-32.11,6.6257,-7.6448,-154.4336,-71.8652,
7.1362,-2.0387,-241.5895,4.0779,2.0387,-25.4842,4.0779,9.1745,7.1362,-25.4842,4.0779,-19.3676,-164.1177,-66.2586,
17.3289,12.9613,-229.3572,16.3098,0,-10.4842,0,6.1166,22.1362,-11.2132,7.1358,-6.1157,-149.1177,-51.2586,
11.2137,16.3102,-232.415,21.4068,-13.2519,-9.1745,-1.0196,11.2137,37.1362,1.0196,8.1554,-12.2318,-134.1177,-36.2586,
-1.0196,8.1554,-241.59,14.271,-23.445,-18.3485,1.0196,12.2328,52.1362,14.271,7.1353,-20.3877,-147.8079,-21.2586,
1.5292,18.858,-239.0412,13.7615,-8.445,-24.9747,-1.5292,2.5483,67.1362,12.7424,2.5483,-5.3877,-156.4728,-6.2586,
2.0387,22.4259,-238.5317,18.3485,-6.1162,-19.3686,-16.5292,-2.0387,65.2395,3.0578,-2.0387,9.6123,-148.8275,8.7414,
-3.0583,9.174,-241.59,19.3681,-16.3098,-25.4847,-21.4073,4.0774,64.2199,1.0191,-1.0191,3.0583,-152.905,8.1549,
6.1166,-2.0392,-232.4155,20.3872,-3.0583,-40.4847,-6.4073,7.1358,70.3366,5.0966,13.9809,-11.9417,-154.9437,-6.8451,
5.6066,-1.5292,-230.8868,15.7997,1.5292,-53.5168,2.5483,-3.5684,61.6716,7.6448,17.8389,-26.9417,-150.3567,-21.8451,
5.0966,13.4708,-229.3577,17.3289,-8.1549,-38.5168,-4.0774,4.0774,60.1425,19.3671,10.1931,-29.5622,-150.8667,-19.3681,
3.5684,22.9355,-231.9055,12.7424,-23.1549,-23.5168,-8.664,1.5292,51.4785,9.684,1.5292,-31.0904,-165.8667,-16.8198,
3.0583,28.5421,-228.3381,15.2906,-29.5612,-8.5168,-14.2706,4.0774,36.4785,-2.0382,-1.0191,-19.3681,-180.8667,-1.8198,
-3.5679,43.5421,-222.7315,17.8394,-28.0325,6.4832,-8.6644,18.8585,29.0526,-0.50956,-0.50956,-4.3681,-166.666,13.1802,
-15.2906,38.7362,-222.2219,8.1549,-34.6587,21.4832,-7.1358,16.3098,27.523,3.0583,-3.0583,-5.0966,-179.4088,5.0966,
-10.7041,30.0712,-210.4996,13.7615,-34.1487,36.4832,-1.5292,16.8188,31.0904,18.0583,1.5292,-15.8007,-182.9767,-7.6458,
-4.0774,31.6004,-200.8151,18.348,-31.6004,38.7362,-5.0966,11.2132,31.6004,31.6004,-4.0774,-16.3098,-181.4475,4.0774,
-7.1353,30.5808,-208.97,12.2318,-34.6582,39.7548,-14.271,1.0196,28.5426,16.6004,1.0196,-9.1745,-196.4475,-1.0196,
-12.7419,25.9943,-217.6344,6.6262,-41.284,47.4006,-24.9742,5.6061,20.8968,6.6262,16.0196,-5.6061,-211.4475,-16.0196,
-7.6453,30.0717,-209.4796,9.6845,-38.2256,51.478,-23.9551,7.6453,20.8977,20.8977,20.8977,-7.6453,-197.2472,-19.8776,
-2.5483,34.1487,-207.4413,11.7223,-32.1104,50.4584,-19.8781,2.5483,11.7223,23.9546,18.858,-11.7232,-194.1894,-12.7424,
0.51004,27.0129,-204.383,13.7615,-25.9938,55.555,-15.8007,9.684,-0.51004,23.9546,27.0129,-9.684,-201.3247,-7.6448,
-5.6066,12.0129,-199.2864,6.6257,-40.2653,47.4001,-21.9164,7.6448,-1.5292,10.7032,16.8198,1.5292,-214.5766,-13.7615,
-15.2906,4.0774,-200.8151,-1.0191,-50.9685,36.697,-31.6004,1.0191,12.2323,8.1549,11.2132,14.2715,-217.1249,-11.2132,
-15.8002,19.0774,-193.1698,4.587,-39.2457,40.2648,-28.0325,6.6262,21.9168,23.1549,25.9943,-0.72848,-207.4408,-8.6644,
-12.7419,24.9742,-178.8992,12.7419,-31.0908,48.4197,-15.8002,12.7419,18.8576,28.0325,22.936,-15.7285,-202.3443,-12.7419,
-12.2318,14.271,-170.2338,11.2137,-35.6774,47.9106,-18.3485,8.1554,10.1936,23.446,7.936,-2.0387,-205.9117,-8.1544,
-10.7032,6.6257,-164.6277,10.7032,-42.3036,45.3619,-33.1296,8.664,1.5292,27.0129,-1.5292,5.6066,-213.5575,-8.6649,
-7.1353,5.097,-151.8858,15.2902,-43.8332,48.9298,-29.5617,13.2519,-5.097,24.4651,13.4708,10.1936,-215.0862,-10.1936,
-8.1544,13.2519,-136.8858,16.3102,-37.7166,49.9489,-15.2902,7.1353,-15.2902,18.3485,14.271,13.2519,-213.0474,-7.1353,
-4.0774,28.2519,-121.8858,22.4254,-25.4847,56.065,-7.1358,13.2514,-9.175,28.5421,4.0774,5.0966,-203.8734,-14.2715,
0.50956,30.0708,-106.8858,20.8968,-19.8776,59.6329,-0.50956,20.8968,-7.6453,15.8002,1.5287,-6.6262,-203.3639,-21.9168,
1.5292,15.0708,-91.8858,17.8389,-13.7615,54.5359,-1.5292,19.8781,-22.6453,1.5292,12.7424,-12.7414,-199.286,-6.9168,
-0.50956,7.6453,-76.8858,14.7811,-16.8193,55.5555,-16.5292,8.6644,-24.9742,10.7036,23.9551,-7.6453,-189.0924,0.50956,
-6.1166,16.3098,-61.8858,17.3289,-27.523,61.1616,-14.2715,6.1157,-9.9742,12.2323,24.4646,1.0191,-188.5828,-14.4904,
-13.7615,13.7615,-46.8858,14.7806,-20.8972,51.4776,-4.5875,6.6257,2.5483,2.5483,17.8389,-2.5483,-197.2472,-29.0521,
-10.7027,4.587,-31.8858,11.7228,-5.8972,46.3815,-6.6252,5.6071,-6.6252,17.5483,20.8968,11.7228,-191.1311,-14.0521,
-5.0966,3.0583,-16.8858,20.3872,-18.348,57.0851,-17.3289,5.0966,-12.2323,25.4847,22.4264,17.3298,-191.6406,-5.0966,
-3.0578,-4.077,-1.8858,24.4651,-32.62,48.9298,-17.3294,7.1353,-5.097,11.2127,24.4651,3.0578,-199.7955,-14.271,
-9.684,-19.077,13.1142,13.7615,-25.9938,33.9298,-8.6649,3.5674,2.5483,6.6257,16.8188,-2.5483,-201.3252,-27.0139,
-10.7036,-22.936,28.1142,18.8576,-23.9551,19.8776,-3.5679,8.6644,0.50956,3.5679,10.7027,-0.50956,-192.1507,-20.8977,
-16.3098,-7.936,43.1142,29.5612,-34.6587,34.8776,-11.2132,21.4063,-4.0774,3.0583,20.3872,-3.0583,-185.525,-5.8977,
-31.3098,-1.0196,58.1142,14.5612,-49.6587,49.8776,-26.2132,13.2519,-18.3485,5.097,14.271,1.0196,-200.525,-9.1745,
-22.9355,-14.7806,73.1142,14.7806,-41.2844,49.4393,-18.858,10.7032,-10.7032,20.097,12.7424,16.0196,-205.4021,-16.8198,
-7.9355,-11.2132,88.1142,15.2906,-33.6396,34.4393,-16.3098,5.0966,-5.0966,22.4254,11.2132,10.1931,-190.6215,-23.4455,
-3.5674,-14.7806,103.1142,15.7997,-34.1487,49.4393,-11.7223,8.6649,-6.6257,18.858,3.5674,7.6448,-197.2472,-11.7223,
-7.6453,-19.8776,118.1142,18.8585,-31.0908,64.4393,-6.6262,18.8585,-4.587,25.9943,-2.5488,22.6448,-212.2472,2.5488,
-13.761,-14.7811,133.1142,10.7036,-37.2065,55.5555,-17.8384,11.7228,-7.6453,20.8968,1.5287,37.6448,-206.4217,-1.5287,
-12.2318,-14.271,148.1142,5.097,-42.8131,47.9106,-21.4068,10.1936,-11.2127,5.8968,9.1745,41.794,-191.4217,-3.0578,
-9.1735,-17.3284,163.1142,5.097,-39.7548,54.0263,-25.4842,15.2911,-11.2127,-2.0387,8.1554,39.7558,-196.7372,2.0387,
-4.5865,-3.5674,178.1142,11.7232,-38.2261,51.4785,-27.0129,7.6458,-9.684,12.9613,-1.5292,48.4202,-197.2472,1.5292,
-4.5875,1.5292,193.1142,16.8198,-25.9938,42.3036,-12.0129,5.6066,-3.5674,24.9747,-1.5292,46.381,-182.2472,-7.6448,
-19.5875,-13.4708,203.8734,5.097,-25.4842,29.5617,-2.0387,2.0387,-4.077,9.9747,8.1554,31.381,-184.5049,-22.6448,
-17.3294,-22.4259,218.8734,12.2328,-22.4259,37.7166,-9.1745,5.097,6.1162,20.3877,23.1554,16.381,-177.3696,-33.6391,
-24.9742,-19.8776,229.8672,12.7419,-29.0516,30.0708,-22.936,-2.5488,2.5488,35.3877,24.9742,7.6453,-192.3696,-27.0134,
-27.5234,-26.5034,242.6086,13.2519,-28.5426,28.5416,-23.446,2.0387,-2.0387,26.5034,9.9742,7.1353,-205.9122,-26.5034,
-18.858,-17.8389,257.3897,10.7032,-29.0521,43.5416,-16.8198,11.7223,-17.0387,14.7806,9.684,14.7806,-190.9122,-11.5034,
-22.936,-11.7228,266.5642,1.5287,-36.1874,48.4197,-16.8193,11.7228,-32.0387,12.7419,-1.5287,20.8968,-191.1311,1.5287,
-7.936,-3.5674,281.5642,16.5287,-21.1874,52.4976,-15.7997,17.8389,-39.2452,23.9556,-8.6649,23.9556,-203.3634,3.5674,
-7.1358,-4.0774,296.5642,14.2706,-19.3681,53.0067,-15.2906,17.3289,-42.8136,15.2906,-8.1549,23.4455,-198.7764,4.0774,
-8.6644,-4.587,311.5642,12.7419,-18.8576,53.5172,-14.7801,15.8002,-46.3805,7.6453,-7.6453,21.9168,-194.1889,4.587,
-7.1353,-2.0387,325.1785,13.2519,-14.271,57.0846,-11.2127,18.3485,-46.8906,2.0387,-3.0578,24.4651,-187.5632,8.1554,
-5.6066,-0.51004,336.9003,14.7806,-10.7032,61.6716,-7.6448,20.8972,-47.4001,-2.5483,0.51004,25.9938,-179.9184,11.7223,
-8.1549,-1.0191,345.5652,12.2323,-9.174,62.1817,-7.1358,20.3872,-50.9685,-11.2132,1.0191,25.4838,-175.3309,12.2323,
-11.2127,-2.0387,352.7005,10.1936,-8.1554,63.2003,-6.1162,19.3676,-56.0655,-20.3877,2.0387,24.4651,-171.2534,13.2519,
-19.8776,-12.7419,366.4619,15.8002,-4.587,49.4398,-11.7228,7.6453,-41.0655,-5.3877,0.50956,32.11,-186.034,6.6262,
-14.271,-5.097,381.4619,20.3877,-2.0387,59.1238,-6.1162,22.6453,-32.619,-9.1745,2.0387,47.11,-183.4858,21.6262,
-3.5674,3.5674,396.0236,11.7223,-7.6448,71.8657,-6.6257,17.8389,-47.619,-24.1745,-12.9613,48.4202,-179.9184,22.9355,
4.587,15.8002,411.0236,25.9933,0.50956,71.8652,-0.50956,15.8002,-52.4976,-24.9742,-14.7811,33.4202,-164.9184,7.9355,
0,6.1166,411.8243,25.4847,0,60.1425,3.0583,15.2906,-58.1038,-24.4646,-3.0574,18.4202,-164.1177,-7.0645,
-1.0191,-8.8834,419.9782,16.3098,-3.0583,54.0258,1.0191,8.1549,-51.9876,-26.5038,3.0583,15.2906,-167.176,-5.0966,
-5.6066,-15.8007,434.9782,16.8198,6.6257,44.3428,5.6066,8.6649,-36.9876,-19.8781,18.0583,0.29064,-152.176,-20.0966,
-18.3485,-30.5808,439.3468,10.1936,9.1745,29.3428,12.2328,11.2137,-21.9876,-9.1745,28.5426,-14.7094,-137.176,-35.0966,
-20.3872,-41.7945,441.3855,4.0774,-4.0774,28.5421,5.0966,9.174,-31.6004,5.0966,13.5426,-6.1166,-152.176,-25.4847,
-22.936,-34.1482,449.0308,4.587,-19.0774,43.5421,-9.9034,11.7228,-16.6004,9.6845,17.8394,8.8834,-167.176,-10.4847,
-15.2906,-19.1482,459.7345,16.3098,-14.2715,58.5421,-8.1549,19.3681,-20.3872,-5.0966,32.8394,23.8834,-152.905,4.5153,
-17.3289,-21.4063,457.6953,11.2132,-8.1549,57.0842,-4.0774,9.174,-35.3872,-18.349,25.4847,33.6396,-145.7692,4.0774,
-24.4646,-31.6004,468.9085,3.0583,-11.2132,42.0842,-1.0191,4.0774,-49.9484,-3.349,10.4847,18.6396,-160.7692,-10.9226,
-15.2906,-27.523,483.9085,8.1549,-12.2323,43.8327,-1.0191,8.1549,-46.891,1.0191,3.0583,5.0966,-171.2539,-19.3681,
-0.29064,-14.2706,489.2957,16.3098,-1.0191,56.065,-1.0191,9.174,-59.1234,-13.9809,8.1549,20.0966,-156.2539,-9.174,
-7.6448,-13.7615,490.8248,16.8198,3.5674,42.3036,-3.5674,7.6448,-47.4001,-9.684,9.684,5.0966,-141.2539,-24.174,
-9.684,-16.8198,505.8248,25.9938,0.51004,41.2844,5.6066,18.858,-34.1487,-0.51004,14.7806,-9.9034,-136.0856,-36.1879,
-1.5287,-23.9551,519.3674,22.936,-2.5488,46.3815,14.7811,20.8968,-41.2844,1.5287,12.7419,-6.6262,-143.2209,-21.1879,
-6.1162,-28.5426,507.6441,14.271,-5.097,32.619,5.097,7.1353,-47.9106,5.097,13.2519,-9.1745,-142.7114,-36.1879,
-4.0774,-21.4063,504.5863,22.4264,0,32.6205,0,10.1941,-54.0263,-1.0191,17.3298,5.8255,-132.5173,-25.4838,
3.0583,-22.4264,507.6446,17.3289,-10.1941,33.6386,-5.0966,11.2132,-68.2978,-16.0191,5.0966,20.8255,-135.5761,-10.4838,
4.5875,-19.8772,508.1547,9.684,-8.664,28.033,-2.5483,5.6066,-60.652,-13.7615,2.5483,5.8255,-134.0464,-21.9164,
-1.0191,-18.349,500.5089,12.2323,4.0774,31.6004,1.0191,2.0392,-57.0846,0,0,-9.1745,-131.4982,-36.9164,
5.0975,-18.348,503.5672,22.4264,0,35.6778,-3.0574,14.2715,-60.1425,6.1166,0,-3.0574,-134.556,-22.4254,
8.1549,-17.3298,506.6245,20.3872,-5.0975,28.5421,-8.1549,16.3098,-63.2013,0,8.1549,0,-138.6344,-8.1549,
5.6066,-11.7223,509.1738,20.8972,-2.5483,34.1487,2.5483,9.684,-59.6329,-4.5865,8.6649,-3.5674,-148.3175,-7.6448,
0.50956,-19.8776,510.1924,30.0708,-10.7036,37.2065,0.50956,11.7228,-50.4589,-0.50956,-1.5287,9.6836,-158.5116,-19.8776,
2.5483,-15.8007,518.3478,40.2644,-11.7232,31.0904,-7.6458,21.9164,-52.4976,-2.5483,13.4713,24.6836,-143.5116,-17.8389,
1.0196,-7.1353,518.8573,44.8523,-1.0196,31.5999,-6.1162,19.3676,-65.2395,-13.2519,28.4713,27.5225,-128.5116,-2.8389,
1.5292,-10.7032,509.1738,38.2261,-1.5292,40.2653,-5.6066,5.6066,-55.555,-21.9164,23.9556,14.7806,-117.7367,-5.6066,
6.1171,-2.0387,509.6833,31.6009,-13.251,34.6592,-11.2127,2.0387,-40.555,-36.9164,18.3494,5.097,-125.3815,-19.3676,
-2.0387,8.1554,517.8382,33.6391,-15.2902,20.3877,-11.2127,2.0387,-29.5617,-51.9164,17.3294,9.1745,-125.382,-17.3294,
-13.761,-1.5287,515.2899,27.0134,-11.7228,16.8193,-10.7036,1.5287,-14.5617,-36.9164,11.7228,8.6644,-117.7367,-2.3294,
-16.8193,-16.5287,507.1351,12.0134,-14.7811,12.7419,-17.8384,0.50956,0.43832,-21.9164,11.7228,-6.3356,-123.8528,12.6706,
-10.1931,-19.3681,505.6054,11.2132,-14.2706,21.4073,-14.2706,1.0191,15.4383,-6.9164,12.2323,-21.3356,-124.3624,10.1941,
-3.0588,-6.1162,506.625,20.3867,-15.2911,31.5999,-11.2137,-1.0196,30.4383,1.0196,4.077,-21.4068,-127.4212,8.1544,
-7.1358,0,502.5471,17.3289,-29.5622,21.4063,-24.4656,-7.1358,45.4383,2.0382,-6.1166,-6.4068,-142.4212,23.1544,
-16.8198,-1.5292,496.9415,11.7232,-20.8972,14.7806,-19.8772,-4.5875,60.4383,1.5292,-1.5292,8.5932,-127.4212,38.1544,
-27.5234,-10.1936,491.3344,6.1162,-11.2137,6.1162,-7.1362,-6.1162,57.0837,-10.1936,6.1162,14.271,-112.4212,38.7357,
-13.762,-8.6644,506.3344,15.8002,-14.7811,8.6644,-6.6262,0.50956,60.652,-0.50956,21.1162,-0.72896,-117.7367,23.7357,
-12.2318,-16.3093,514.7799,11.2137,-22.4259,6.1162,-19.3676,-6.1162,49.9489,12.2328,16.3102,-7.1353,-130.4786,14.272,
-21.4063,-17.3289,499.7799,0,-12.2323,2.0392,-13.2514,-17.3289,39.7553,0,7.1358,7.8647,-115.4786,9.175,
-15.2906,-7.1358,492.354,-1.0191,-5.0966,8.1549,-4.0774,-13.2514,54.7553,1.0191,22.1358,1.0191,-102.9561,13.2514,
-13.7615,-20.8963,493.8831,-1.5292,-19.8772,1.5292,-14.7806,-14.7806,53.5168,10.7041,18.859,2.5483,-117.9561,3.5684,
-22.935,-29.0516,495.9219,7.6453,-17.8384,-0.50956,-11.7228,-3.5679,38.5168,10.7036,3.859,17.5483,-121.8141,1.5296,
-27.5225,-27.5225,490.3153,7.1362,-21.4068,4.0779,-15.2902,-6.1162,34.6582,1.0196,18.859,9.1745,-111.1105,-1.0196,
-13.7615,-20.8972,495.9214,6.6257,-27.0129,6.6257,-28.032,-18.858,34.1487,1.5292,33.859,2.5483,-106.5235,-1.5292,
-11.2132,-21.4063,504.5863,3.0583,-13.2514,0,-17.3289,-11.2132,19.1487,0,18.859,17.5483,-110.0914,1.0191,
-21.4063,-24.4646,505.6054,1.0201,1.7486,0,-2.3289,-4.0774,4.1487,0,3.859,5.0975,-122.3237,-13.2514,
-20.8968,-12.7419,508.1542,9.6845,0.50956,11.7228,-0.50956,-9.6836,19.1487,15,18.859,-9.9025,-117.7367,-21.9159,
-12.7414,-1.5292,509.1738,13.7615,-11.7223,11.7232,-14.7806,-5.6066,34.1487,13.7615,15.8007,1.5292,-102.7367,-7.6448,
-10.1936,5.097,500.5084,9.1745,-20.3877,11.2127,-21.4068,-3.0578,19.1487,-1.2385,12.2328,13.2519,-100.9174,3.0578,
-3.0578,11.2127,506.625,8.1544,-12.2328,19.3676,-11.2127,-18.0578,4.1487,3.0578,27.2328,4.077,-108.0531,-7.1353,
-2.5483,3.5674,517.3277,9.684,-12.7424,4.3676,-9.684,-31.0913,3.5674,12.7414,12.7414,-2.5483,-115.6984,-16.8198,
2.5488,5.6061,529.5605,23.9551,-19.8776,-2.5488,-8.6644,-16.0913,-3.5679,9.6836,-2.2586,7.6453,-106.524,-1.8198,
4.5865,9.684,528.5409,24.9737,-30.0712,5.6066,-4.5875,-1.5292,-14.7816,4.5865,1.5292,-7.3547,-96.3304,-7.6458,
4.0774,4.0774,530.0701,19.3681,-19.3681,5.0966,-4.0774,-16.5292,-5.0966,6.1157,11.2132,-22.3547,-91.7434,-22.6458,
3.5684,-1.5292,533.6384,16.8198,-6.6257,1.5292,-4.5865,-11.7223,6.6267,13.7615,10.7041,-8.664,-89.1941,-15.7997,
-2.0387,2.0387,529.0514,12.2328,-9.1745,8.1554,-3.0578,3.2777,-2.0387,13.2519,4.077,-9.1745,-85.6267,-14.271,
-4.588,10.7027,527.5213,12.7419,-15.8002,11.7228,-3.5679,3.5679,-17.0387,3.5679,11.7228,-24.1745,-86.1368,-24.9752,
-0.51004,24.9747,533.6384,24.9747,-15.8007,8.6649,0.51004,-3.5684,-15.8007,12.7424,26.7228,-21.9164,-87.1559,-9.9752,
-15.51,16.8193,518.6384,12.7419,-30.8007,3.5679,-14.49,-15.8002,-30.8007,5.6061,11.7228,-6.9164,-102.1559,5.0248,
-19.3681,18.349,509.6829,10.1941,-38.7362,18.5679,-19.3681,-14.2715,-38.7362,-3.0583,3.0583,8.0836,-98.8786,20.0248,
-4.3681,17.8384,524.6829,12.7419,-29.0526,13.761,-9.6845,-12.7428,-40.2648,-11.7228,18.0583,3.5679,-83.8786,17.8384,
6.1162,9.1745,539.6829,19.3686,-22.4259,2.0387,-2.0387,-9.1745,-30.5808,-4.077,16.3102,-11.4321,-73.3944,8.1554,
0.50956,-3.5679,541.7928,11.7228,-14.7811,-0.50956,6.6252,-9.6845,-16.8193,10.923,2.5478,-26.4321,-77.9819,4.587,
-0.50956,-0.50956,539.7546,11.7228,-14.7811,0.50956,5.6061,-10.7036,-18.8585,9.6836,3.5679,-32.11,-79.001,6.6252,
-3.5679,-0.50956,536.6963,9.6845,-17.8384,0.50956,3.5679,-12.7419,-21.9159,3.5679,1.5296,-33.1291,-81.0392,6.6262,
-5.6066,0.51004,533.6384,7.6458,-18.858,0.51004,1.5292,-14.7806,-23.9546,-0.51004,0.51004,-33.1296,-83.0784,7.6458,
-4.587,4.587,534.658,9.6845,-17.8384,4.587,2.5488,-12.7419,-22.936,-2.5488,2.5488,-30.0708,-81.0397,10.7036,
-3.5674,9.684,534.6575,11.7232,-15.7997,7.6448,3.5674,-11.7223,-22.9355,-4.5875,5.6066,-27.0129,-80.0201,14.7806,
-4.587,13.762,533.6389,11.7228,-15.8002,10.7036,4.587,-10.7027,-22.935,-7.6453,7.6453,-23.9551,-79.0005,17.8394,
-4.587,2.5488,524.4639,5.6061,-23.9551,0.50956,1.5287,-12.7419,-22.936,-0.50956,16.8193,-23.9551,-76.9618,13.761,
-6.1166,10.1931,527.0117,-1.0191,-25.4847,2.0382,-1.0191,-11.2132,-18.349,5.0966,31.8193,-8.9551,-74.414,28.761,
-13.2514,12.2323,525.9926,2.0392,-27.523,1.0191,-3.0583,-21.4063,-20.3872,-1.0191,18.349,6.0449,-82.5689,37.717,
-5.6071,20.8968,527.5223,15.8002,-25.9943,7.6453,-0.50956,-12.7419,-21.9168,0.50956,3.349,-8.9551,-79.001,33.1291,
1.0196,28.5426,531.0897,17.3294,-33.6391,21.4068,-8.1544,-1.0196,-29.5617,-8.1544,11.2127,-23.9551,-81.5493,18.1291,
1.0191,32.6195,536.1867,23.4455,-33.6396,26.5029,-6.1166,-1.0191,-24.4646,-3.0583,13.2514,-18.349,-87.6659,29.5612,
-9.174,24.4646,533.1284,21.4063,-32.6195,11.5029,0,-11.2132,-24.4646,3.0583,-1.7486,-3.349,-85.6267,44.5612,
-12.7419,18.8585,542.8129,22.936,-23.9551,5.6071,3.5679,-3.5679,-21.9159,4.587,-8.6644,-17.8384,-79.001,52.4972,
-9.684,4.5875,545.8707,22.9355,-22.9355,9.684,0.51004,1.5292,-21.9164,-0.51004,-5.6066,-27.0129,-79.001,67.4972,
0,3.0583,542.3033,22.4264,-29.5612,-1.0191,1.0201,0,-27.523,1.0201,0,-15.2906,-66.2582,82.4972,
-1.0196,17.3294,541.2837,21.4068,-27.5225,-4.077,1.0196,-3.0578,-32.62,1.0196,10.1936,-27.5225,-73.3944,97.4972,
-2.0392,18.349,544.3416,21.4063,-17.3289,4.0774,2.0392,-4.0774,-34.6587,-11.2132,16.3098,-42.5225,-88.3944,112.4972,
1.0196,9.1745,540.2637,17.3294,-21.4068,-1.0196,1.0196,-9.1745,-40.7749,-17.3294,8.1554,-34.6582,-88.685,127.4972,
-1.5292,23.9546,536.6958,22.9355,-25.9938,5.6066,1.5292,-8.6649,-37.207,-6.6257,10.7032,-19.6582,-76.9623,142.4972,
-6.1162,38.9546,544.3411,35.6783,-28.5426,20.6066,-3.0578,-2.0387,-33.6391,-5.097,20.3877,-4.6582,-91.9623,157.4972,
3.5679,46.3815,550.9678,37.2075,-38.2256,24.9742,-8.6644,-6.6252,-42.3031,-3.5679,17.8394,-12.7419,-106.9623,172.4972,
0.50956,31.3815,545.8712,23.9551,-50.458,9.9742,-15.8002,-21.6252,-55.5555,0.50956,2.8394,-27.7419,-112.6396,187.4972,
1.5292,35.1688,553.0065,30.0712,-42.3036,10.7032,-7.6448,-14.7806,-45.3619,3.5684,-1.5292,-28.032,-103.4656,202.4972,
7.1358,42.8136,552.4965,34.6587,-30.5813,10.1941,-3.0583,-4.0774,-33.6386,1.0191,-1.0191,-13.032,-91.7429,217.4972,
5.6071,35.1683,546.8903,30.0717,-27.0134,-4.587,0.50956,-2.5488,-41.284,4.587,-0.50956,-3.5679,-87.1559,202.4972,
12.2323,34.6578,557.593,35.6778,-25.4847,4.0774,15.2906,-4.0774,-47.9102,-9.175,14.4904,-18.5679,-90.7238,187.4972,
17.3298,42.8136,555.5548,33.6396,-25.4838,16.3098,13.2524,-12.2323,-48.9293,-24.175,12.2323,-33.5679,-98.8782,172.4972,
32.3298,57.8136,564.2192,45.3614,-10.4838,28.0325,17.8384,-4.587,-39.2457,-39.175,4.587,-18.5679,-92.2529,157.4972,
47.3298,72.8136,559.1227,47.4006,0.50956,40.2648,19.8776,-4.587,-48.4197,-36.1874,-0.50956,-9.6836,-100.4073,142.4972,
35.1678,77.9814,544.8507,43.3227,-13.7615,49.4393,10.7032,-10.7032,-61.6716,-27.0139,11.7223,-12.7424,-106.524,127.4972,
20.8968,63.7104,538.7355,41.284,-28.7615,37.2065,-1.5287,-17.8384,-63.7104,-33.1291,19.8776,1.5287,-102.4465,112.4972,
22.9355,48.7104,540.7742,34.1487,-20.8972,22.9355,7.6448,-12.7424,-58.6133,-48.1291,27.0129,-7.6448,-95.3103,97.4972,
17.3294,33.7104,535.1671,30.5818,-10.1936,10.1936,17.3294,-11.2127,-66.2586,-62.1812,19.3686,-22.6448,-100.9169,82.4972,
5.0966,28.5421,536.1867,38.7362,-7.1358,2.0392,23.4455,-2.0392,-56.065,-47.1812,5.0966,-35.6778,-95.8203,67.4972,
4.587,33.1291,532.6188,34.1482,-14.7811,-0.50956,22.935,0.50956,-42.304,-32.1812,8.6644,-25.9943,-96.3304,52.4972,
19.587,37.2065,530.5796,41.284,-8.6644,0.50956,25.9933,-0.50956,-50.4589,-38.2266,23.6644,-31.0908,-97.3495,37.4972,
25.9938,31.0904,533.6375,47.4001,-1.5292,-7.6458,30.0712,1.5292,-61.6716,-30.0712,31.0904,-17.8389,-92.2529,22.4972,
19.8772,32.1095,524.4635,35.1678,-6.6257,0.51004,30.0712,-0.51004,-55.556,-25.9938,16.0904,-5.6066,-91.2333,7.4972,
10.7032,40.2653,509.4635,22.9355,-18.858,15.51,15.0712,-10.7032,-53.5168,-35.1678,18.858,-15.7997,-95.3103,-7.5028,
12.7424,45.3619,501.0179,32.1104,-15.8007,30.51,3.5674,-3.5674,-57.5942,-30.0712,33.858,-5.6066,-90.2142,-22.5028,
1.0191,33.6386,502.5471,36.697,-20.3872,15.51,5.0966,-1.0191,-72.5942,-34.6587,28.5421,-5.0966,-87.6654,-37.5028,
5.0966,31.6004,492.354,38.7362,-25.4838,1.0191,15.2906,-1.0191,-65.239,-32.6195,36.697,-3.0583,-72.6654,-52.5028,
4.0774,18.348,477.354,29.5612,-40.4838,0,9.174,-10.1941,-66.2591,-34.6587,33.6386,0,-59.1234,-67.5028,
-0.50956,9.6836,487.766,35.1673,-34.1492,5.6061,24.174,0.50956,-63.7104,-29.0526,18.8576,-6.6262,-64.7304,-82.5028,
-1.0191,4.0774,485.2182,41.7945,-19.1492,6.1166,34.6587,6.1166,-57.0842,-24.4646,3.8576,-21.6262,-79.7304,-97.5028,
5.6066,16.8188,470.2182,36.1869,-8.6649,8.664,19.6587,-2.5483,-62.6917,-31.0913,2.5483,-8.6649,-94.7304,-112.5028,
1.5292,31.8188,455.2182,21.1869,-23.6649,10.7041,4.6587,-17.5483,-77.6917,-46.0913,13.7615,6.3351,-90.2137,-127.5028,
6.1162,46.8188,464.8315,36.1869,-17.3294,21.4068,19.6587,-11.2127,-77.4718,-46.8906,28.7615,-6.1162,-75.2137,-131.4982,
-1.0196,45.8714,456.6766,46.8915,-3.0578,16.3102,26.5034,1.0196,-62.4718,-31.8906,32.62,-7.1353,-69.317,-125.382,
-5.097,33.6391,453.6173,31.8915,1.0196,3.0578,11.5034,-2.0387,-62.1812,-30.5808,32.619,-1.0196,-60.143,-132.5178,
6.1162,36.6965,459.734,29.5607,-2.0387,2.0387,19.3676,-7.1362,-62.1822,-39.7558,35.6774,-16.0196,-45.143,-147.5178,
11.2127,32.619,451.5791,30.5808,-3.0588,2.0387,34.3676,-2.0387,-58.1038,-31.6009,34.6582,-31.0196,-33.6391,-162.5178,
8.1549,30.5813,446.4821,37.7161,-3.0583,-1.0191,22.4264,1.0191,-65.239,-22.4264,28.5421,-24.4646,-48.6391,-172.273,
2.0387,34.6582,441.385,46.8906,-6.1162,1.0196,7.4264,-4.0779,-74.4135,-26.5034,13.5421,-9.4646,-37.7166,-157.273,
3.0578,35.6783,438.3277,43.8332,-4.077,2.0387,8.1554,-4.077,-63.2003,-24.4651,8.1554,-2.0387,-30.5808,-142.273,
5.6066,37.207,434.7598,41.2844,-2.5483,2.5483,10.7032,-4.5865,-51.4776,-21.9164,5.6066,-2.5483,-22.9355,-127.273,
5.097,36.6974,430.1728,36.6974,-2.0387,2.0387,11.2127,-6.1162,-41.794,-21.4068,2.0387,-5.097,-17.3294,-112.273,
6.6257,38.2261,426.6049,34.1487,0.51004,3.5674,13.7615,-5.6066,-30.0712,-18.858,-0.51004,-5.6066,-9.684,-97.273,
7.6458,39.2462,423.5466,31.0913,2.5483,4.5875,15.8007,-5.6066,-18.858,-16.8198,-2.5483,-6.6257,-2.5483,-82.273,
5.6061,37.2065,415.3912,22.936,-0.50956,0.50956,14.7811,-10.7036,-11.7228,-17.8384,-9.6836,-11.7228,0.50956,-72.8844,
-9.3939,24.9752,400.3912,9.6845,-13.761,-7.6453,7.6453,-25.7036,3.2772,-15.8002,5.3164,-26.7228,15.5096,-86.1358,
-15.2902,12.2328,401.6307,6.1162,-6.1162,-17.3294,16.3102,-27.5225,18.2772,-24.4651,14.271,-41.7228,30.5096,-101.1358,
-13.2519,18.3485,410.8037,12.2318,-6.1162,-19.3686,15.2902,-23.446,33.2772,-31.6009,6.1162,-56.7228,45.5096,-116.1358,
-7.6453,33.3485,410.2947,27.2318,-12.7419,-12.7419,15.8002,-18.8576,33.13,-20.8968,7.6453,-48.4197,60.5096,-101.1358,
-22.6453,36.1874,399.0824,33.13,-23.9551,-19.8776,0.8002,-19.8776,38.2266,-19.8776,-0.50956,-33.4197,68.8079,-86.1358,
-37.6453,29.0521,410.2952,38.2261,-12.7414,-7.6448,-5.6066,-7.6448,53.2266,-9.684,5.6066,-18.4197,83.8079,-71.1358,
-38.2261,14.0521,411.3143,30.0712,-18.858,-0.51004,-5.6066,-16.8198,40.2653,0.51004,-9.3934,-3.4197,98.8079,-56.1358,
-38.2256,6.6262,407.2373,15.0712,-28.0325,-0.50956,0.50956,-31.0899,25.2653,0.50956,-24.3934,-0.50956,113.8079,-46.3805,
-30.0712,13.7615,415.3917,3.5674,-13.0325,-6.6257,9.684,-16.8198,29.0521,-10.7032,-9.3934,14.4904,128.8079,-52.4976,
-31.5999,2.0387,423.037,-2.0387,1.9675,-18.3485,9.1745,-16.3093,22.4269,-25.4842,5.6066,-0.50956,143.8079,-67.4976,
-23.446,11.2127,438.037,6.1162,8.1544,-8.1554,15.2902,-21.4068,18.3485,-14.271,-6.1162,-15.5096,158.8079,-82.4976,
-23.446,10.1936,448.5208,5.097,6.1162,-23.1554,16.3093,-34.6582,16.3093,-17.3294,-5.097,-30.5096,173.8079,-97.4976,
-20.3877,-2.0387,456.6757,2.0387,7.1353,-35.6774,31.3093,-34.6582,26.5034,-14.271,9.903,-45.5096,188.8079,-112.4976,
-16.8198,2.5483,456.1661,8.664,-2.5483,-20.6774,19.8772,-28.033,14.7806,-4.5875,24.903,-41.2844,203.8079,-127.4976,
-16.3093,17.5483,445.4634,23.664,-6.1162,-5.6774,4.8772,-18.3485,-0.2194,-2.0387,28.5426,-26.2844,218.8079,-112.4976,
-22.9355,32.5483,453.1088,38.664,-11.7223,5.6066,-7.6448,-14.7806,-10.7032,-5.6066,16.8198,-11.2844,233.8079,-97.4976,
-22.935,37.2075,468.1088,51.478,-14.7801,9.6845,0.50956,-6.6252,-1.5287,-5.6061,1.8198,1.5296,248.8079,-82.4976,
-10.7027,35.1683,467.3798,40.2648,-8.6644,14.7811,-0.50956,-9.6836,-7.6453,-14.7801,0.50956,12.7428,263.8079,-67.4976,
-9.1745,26.5034,457.6957,26.5034,-12.2328,3.0578,4.077,-20.3877,-16.3102,-22.4259,7.1353,-2.2572,278.8079,-64.2204,
-9.6836,24.9742,468.3989,30.0717,-6.6262,4.587,19.077,-5.6061,-4.587,-14.7811,6.6262,-17.2572,293.8079,-79.001,
-7.1358,30.5803,457.6953,33.6386,8.3738,1.0191,27.523,-1.0191,-6.1166,-18.349,-3.0583,-32.2572,308.8079,-91.7434,
4.587,36.1874,442.6953,29.0516,14.7801,-9.6845,20.8968,-15.8002,-21.1166,-33.349,-4.587,-47.2572,323.8079,-106.7434,
6.1162,31.5999,440.3659,27.5225,10.1936,-15.2911,28.5416,-22.4269,-28.5426,-31.6009,-6.1162,-62.2572,338.8079,-121.7434,
3.0578,34.6582,441.385,41.794,20.3867,-10.1936,34.6582,-15.2911,-13.5426,-16.6009,-3.0578,-72.3753,353.8079,-136.7434,
3.5679,39.2457,428.6427,40.2648,17.8384,-11.7228,23.9551,-13.762,-9.6845,-4.587,-3.5679,-57.5947,368.8079,-151.3763,
7.6448,51.4776,422.5275,42.3036,2.8384,-11.7223,16.8198,-12.7424,-24.6845,-7.6448,-1.5292,-42.5947,383.8079,-136.3763,
1.5292,62.6908,412.3334,52.4976,-3.5674,-0.51004,9.684,-17.8389,-39.2452,-8.6649,0.51004,-27.5947,383.7913,-121.3763,
-10.7032,64.73,397.3334,40.2644,-9.684,2.5483,4.5865,-21.9164,-29.0521,-19.8781,6.6257,-12.5947,396.0236,-106.3763,
-5.097,79.5101,390.4175,33.6391,-18.3485,17.5483,5.097,-8.1554,-29.5617,-24.4651,18.3485,-21.4068,411.0236,-91.3763,
-7.1358,81.5498,385.3205,28.5421,-20.3872,32.5483,7.1358,-3.0583,-39.7553,-21.4063,3.3485,-19.3681,413.8625,-76.3763,
1.0196,70.3361,392.4557,22.4259,-5.3872,22.4259,22.1358,-4.077,-28.5426,-14.271,-11.6515,-30.5808,416.9204,-62.1812,
13.7615,61.6716,390.9271,10.7032,1.5292,7.4259,25.9938,-19.077,-42.3036,-27.0129,-26.6515,-45.5808,431.9204,-77.1812,
16.8193,76.6716,384.8109,13.762,0.50956,-0.50956,10.9938,-34.077,-57.3036,-39.2457,-29.0516,-60.5808,446.9204,-92.1812,
14.271,91.6716,395.5141,25.4842,1.0196,5.097,-1.0196,-35.6783,-53.0072,-42.8131,-21.4068,-75.5808,431.9204,-107.1812,
18.858,106.6716,409.276,37.207,1.5292,-1.5292,2.5483,-28.032,-44.3428,-35.1678,-20.8972,-60.5808,416.9204,-122.1812,
32.1104,120.795,420.4883,47.4011,0.51004,-0.51004,0.51004,-32.1095,-43.3227,-28.032,-22.9355,-66.7682,411.3143,-137.1812,
37.2065,116.7171,433.7402,53.5172,2.5488,-2.5488,10.7036,-31.0908,-39.2457,-28.0325,-21.9159,-72.8844,403.1589,-138.1239,
34.1487,101.7171,442.9147,53.5168,9.684,-9.684,24.9747,-16.0908,-34.1487,-19.8781,-18.858,-57.8844,389.908,-143.2209,
43.3232,102.4465,457.9147,52.4972,6.6262,-7.6453,34.1492,-6.6262,-31.0908,-7.6453,-11.7228,-42.8844,404.908,-134.0469,
39.7548,92.7625,472.9147,49.9489,-1.0196,-6.1162,29.5617,-2.0387,-19.3676,1.0196,-1.0196,-47.9106,419.908,-122.3242,
24.7548,77.7625,481.6503,36.1874,-0.50956,-18.8585,14.5617,-3.5679,-19.8776,-2.5488,0.50956,-62.9106,419.4687,-122.8342,
9.7548,62.7625,474.5151,32.1104,12.7424,-9.684,15.7997,-6.6257,-22.9355,-16.8198,2.5483,-47.9106,413.3525,-107.8342,
-4.0774,59.1234,474.005,23.4455,8.1549,4.0774,10.1931,-19.3681,-35.6778,-31.8198,-7.1358,-32.9106,425.0757,-92.8342,
-4.587,54.5364,489.005,32.11,4.587,15.8002,15.8002,-16.8193,-41.284,-24.9742,-7.6453,-23.9551,410.0757,-77.8342,
-3.5679,64.7295,497.9601,37.2065,3.5679,29.0516,25.9943,-6.6262,-38.2266,-17.8384,-5.6061,-31.0908,395.0757,-62.8342,
-4.0779,67.2778,503.5667,36.6965,1.0196,32.619,10.9943,-1.0196,-42.8141,-27.5234,-20.6061,-16.3102,380.0757,-47.8342,
-0.51004,52.4976,506.1155,47.4001,0.51004,17.619,3.5674,-5.6066,-55.555,-31.0904,-35.6061,-18.858,368.5007,-32.8342,
5.0975,39.7553,506.6255,47.9102,0,2.619,18.5674,-3.0574,-40.555,-16.0904,-20.6061,-33.858,375.1274,-47.8342,
-9.9025,24.7553,499.9988,32.9102,-12.7424,-12.381,21.9164,-5.6066,-25.555,-1.0904,-5.6061,-48.858,367.4815,-62.8342,
-16.8198,9.7553,497.9606,18.858,-5.6066,-27.381,14.7806,-1.5292,-23.9556,10.7032,1.5292,-63.858,378.6948,-77.8342,
-1.8198,2.5483,496.9415,32.1104,6.6257,-25.9938,29.7806,-1.5292,-15.7997,-4.2968,-2.5483,-50.4584,383.7913,-81.0397,
9.684,15.8007,504.0772,45.3619,-1.5292,-21.9164,37.207,1.5292,-7.6448,-4.5865,-3.5674,-57.5942,368.7913,-96.0397,
1.0201,21.4073,505.6064,42.8136,-12.2323,-17.3289,22.207,0,-22.6448,0,0,-53.0067,353.7913,-97.8586,
-1.5287,22.936,490.6064,35.1683,-2.5488,-2.3289,23.9551,-6.6262,-37.6448,-15,8.6644,-38.0067,338.7913,-82.8586,
-14.2706,27.523,475.6064,28.543,0,8.1559,17.3298,-19.3671,-52.6448,-30,-1.0191,-23.0067,348.6235,-67.8586,
-14.7806,34.1487,461.2627,30.0712,-8.6649,6.6257,5.6066,-27.0139,-67.6448,-45,-16.0191,-8.0067,333.6235,-52.8586,
0.2194,35.1688,471.4567,35.1688,-8.664,15.8007,13.7615,-16.8188,-76.9623,-51.4776,-31.0191,-4.5865,318.6235,-37.8586,
-1.5287,28.0325,477.5729,35.1683,1.5287,13.762,25.9943,-7.6453,-61.9623,-60.652,-30.0708,-19.5865,315.4935,-22.8586,
-5.0966,23.4455,484.1991,44.8518,16.5287,0,39.7553,-3.0583,-46.9623,-45.652,-15.0708,-34.5865,330.4935,-37.8586,
-11.2132,8.4455,476.0442,44.8518,6.1166,-15,31.6004,0,-48.9293,-30.652,-0.070754,-19.5865,334.352,-52.8586,
-14.2706,-5.0966,464.831,43.8327,-4.0774,-7.1358,32.6195,15,-34.6587,-31.6004,14.9292,-4.5865,349.352,-39.7553,
-17.8384,0.50956,449.831,39.2457,-6.6252,-3.5679,34.1492,15.8002,-30.0708,-28.0325,29.9292,-0.50956,351.1723,-34.1482,
-13.2514,0,435.2698,42.8136,0,-3.0574,30.5813,10.1941,-33.6386,-13.0325,40.7754,-6.1157,336.1723,-28.5421,
-17.3289,-2.0392,420.9983,46.891,-1.0191,-9.174,26.5038,6.1157,-30.5813,-8.1549,25.7754,1.0191,321.1723,-22.4264,
-28.5421,0,407.7469,36.697,-15.2906,-9.174,25.4847,0,-38.7362,-21.4063,14.2715,16.0191,306.1723,-17.3289,
-23.9551,0.50956,392.7469,23.9551,-13.761,-0.50956,27.0134,-1.5287,-51.478,-24.9742,11.7228,4.588,298.1646,-18.8576,
-8.9551,-0.50956,379.7144,35.1683,-1.5287,0.50956,34.1492,5.6061,-36.478,-15.8002,18.8585,-3.5679,293.068,-19.8776,
-14.2706,-4.0774,367.9916,41.7945,-11.2122,-13.2514,40.7754,4.0774,-21.478,-12.2323,19.3681,11.4321,278.068,-14.2706,
-18.8576,0.50956,361.3654,34.1492,-18.8576,-14.7801,38.2266,3.5679,-30.0708,-23.9551,7.6453,-0.50956,265.5451,-17.8384,
-4.587,6.6252,346.3654,34.1482,-3.8576,-0.50956,31.0899,0.50956,-45.0708,-38.9551,3.5679,-15.5096,280.5451,-22.936,
-3.0578,4.077,331.3654,32.619,8.1544,2.0387,25.4842,-10.1936,-57.0846,-35.6783,-2.0387,-18.3485,279.3066,-7.936,
-5.0966,5.0966,316.3654,33.6386,0,-4.0774,31.6004,0,-42.0846,-24.4646,-11.2132,-3.3485,264.3066,-7.1358,
-3.0583,3.0583,301.3654,37.717,3.0583,-11.2132,46.6004,15,-43.8327,-28.5421,-15.2906,-10.1931,264.0164,-22.1358,
-1.0196,1.0196,286.3654,45.8714,18.0583,-10.1936,60.142,20.3867,-43.8332,-23.446,-15.2902,-17.3294,279.0164,-22.4259,
-2.0387,2.0387,271.3654,40.7739,20.3867,-10.1936,45.8714,5.3867,-41.794,-17.3294,-6.1162,-12.2328,272.1708,-7.4259,
2.5483,-5.6066,256.3654,25.7739,7.6448,-11.7232,34.1487,-2.5483,-50.4584,-25.9938,8.6649,-12.7424,257.3897,-18.858,
0,-13.2514,241.3654,23.4455,10.1941,-14.2706,42.8136,6.1166,-63.1998,-25.4838,0,-17.3289,259.939,-26.5029,
0.50956,-0.50956,226.3654,38.4455,16.8193,-11.7228,38.2256,12.7419,-51.478,-18.8585,-7.6453,-19.8776,249.2343,-11.5029,
-0.50956,-3.5679,211.3654,31.0908,1.8193,-7.6453,23.2256,0.50956,-53.5163,-33.8585,4.588,-17.8384,234.2343,2.5488,
2.5483,-18.5679,196.3654,20.8972,-2.5483,-3.5674,22.9355,-1.5292,-64.73,-44.3428,7.6448,-10.7032,239.0417,1.5292,
3.5679,-29.0516,181.3654,17.8394,12.4517,-14.7811,37.9355,-3.5679,-60.652,-29.3428,-7.3552,-18.8585,234.9638,8.6644,
9.1745,-14.0516,166.3654,22.4259,19.3686,-15.2902,41.794,-3.0578,-49.9489,-22.4259,-2.0387,-19.3676,240.5704,2.0387,
4.0774,-4.0774,151.3654,29.5622,9.175,-7.1358,33.6396,5.0966,-60.1425,-24.4646,-14.2706,-12.2323,244.6483,-12.9613,
-4.587,-9.6836,136.3654,36.1874,7.6453,-8.6644,45.3624,6.6262,-75.1425,-15.8002,-29.2706,2.7677,229.6483,-8.6644,
-1.5292,-5.6066,121.3654,38.2261,6.6257,-13.7615,43.3227,-5.6066,-84.098,-21.9164,-28.033,1.5292,214.6483,6.3356,
0.50956,-0.50956,106.3654,37.2065,3.5679,-8.6644,28.3227,-4.587,-73.9044,-29.0516,-19.8776,-13.4708,199.6483,6.6262,
-4.5875,-2.5483,91.3654,35.1678,4.5865,-9.684,25.9938,10.413,-58.9044,-37.207,-25.9938,-17.8389,186.034,2.5483,
0.50956,-13.761,79.001,27.0134,-2.5488,-14.7811,40.2648,10.7036,-43.9044,-47.4006,-10.9938,-2.8389,201.034,-3.5679,
13.2519,-20.3877,73.3944,28.5426,-7.1353,-11.2127,37.7166,5.097,-28.9044,-46.8906,4.0062,-6.1162,216.034,-8.1554,
3.0583,-21.4063,67.2782,31.6004,-4.0774,-16.3098,25.4847,-3.0583,-13.9044,-33.6386,9.174,-21.1162,202.8538,-12.2323,
-7.6453,-21.9168,55.5555,22.935,5.6061,-27.0134,36.1874,-0.50956,1.0956,-18.6386,0.50956,-33.13,200.3051,-2.5488,
-6.1166,-36.9168,42.8136,13.2514,6.1157,-32.6195,44.8518,-1.0191,16.0956,-3.6386,0,-18.13,211.0087,0,
-9.1735,-51.9168,34.6592,18.3494,4.0779,-28.5416,35.6783,-6.1162,31.0956,-15.2902,-2.0387,-23.445,199.796,2.0387,
-22.936,-54.5364,19.6592,15.8002,-3.5679,-29.0516,22.936,-9.6836,46.0956,-8.6644,3.5679,-37.2065,196.2286,17.0387,
-22.4264,-45.8719,4.6592,18.349,-17.3289,-29.5612,16.3098,-6.1166,61.0956,6.3356,-3.0583,-29.5612,194.699,32.0387,
-13.2519,-47.9106,5.097,25.4842,-28.5426,-29.5617,10.1936,-2.0387,58.1038,2.0387,-15.2911,-21.4068,179.699,36.6965,
-16.8193,-46.3815,5.6071,22.936,-27.0134,-24.9742,6.6262,-3.5679,52.4972,2.5488,-2.5488,-21.9159,164.699,32.11,
-31.8193,-37.7166,-5.097,17.3294,-28.5426,-20.3877,5.097,-9.1745,60.142,9.1745,7.1353,-24.4651,158.0015,32.619,
-22.936,-22.7166,-5.6061,31.0908,-19.8776,-8.6644,20.097,0.50956,59.6329,-0.50956,11.7228,-17.8384,173.0015,37.2065,
-7.936,-16.8193,-0.50956,32.11,-13.761,-8.6644,30.0717,0.50956,44.6329,-9.6836,8.6644,-25.9933,187.0536,34.1492,
-9.684,-14.7806,-3.5674,28.033,-11.7223,-0.51004,31.0904,-2.5483,38.2261,0.51004,6.6257,-31.0904,202.0536,37.207,
-24.684,-11.7228,-18.5674,27.0134,-23.9551,1.5287,25.9933,-4.587,30.0708,-1.5287,1.5287,-19.8776,189.0919,37.2065,
-29.0516,-8.6644,-19.8776,31.0908,-33.1291,-2.5478,17.8394,-1.5287,22.936,-0.50956,8.6644,-4.8776,174.0919,49.4398,
-18.349,-11.2132,-14.2715,25.4838,-22.4264,0,10.1931,0,37.7161,-1.0201,23.6644,-8.1549,159.0919,56.065,
-14.2715,-26.2132,-26.5038,22.4264,-9.174,-3.0583,15.2906,3.0583,36.697,-4.0774,27.523,-22.4264,174.0919,41.065,
-14.7806,-39.2452,-29.0521,28.033,-12.7414,-17.8389,25.9938,-5.6066,21.697,5.6066,12.523,-13.7615,189.0919,26.065,
-7.1353,-25.4842,-14.0521,36.6974,-11.2127,-22.4259,37.7166,-9.1745,26.5034,20.6066,7.1353,-11.2127,174.0919,11.2127,
-3.5684,-10.4842,-13.7615,38.2261,-1.5292,-15.8007,33.1296,-8.6649,20.8972,24.9747,1.5292,-19.8781,159.0919,10.7032,
2.5483,4.5158,-28.7615,39.2462,-11.7223,-2.5483,18.1296,-12.7414,5.8972,9.9747,-13.4708,-4.8781,144.0919,15.8007,
15.8007,19.5158,-43.3227,40.2653,-26.7223,0.51004,3.1296,-15.7997,-9.1028,-5.0253,-28.4708,1.5292,129.0919,24.9747,
29.0521,28.033,-34.1487,46.381,-23.9546,5.6066,13.7615,-5.6066,-12.7424,-12.7424,-34.1487,-13.4708,114.0919,20.8972,
14.2715,16.3098,-36.697,42.8136,-8.9546,0,28.7615,-9.174,-15.2906,-5.0966,-19.1487,-28.4708,128.4408,5.8972,
8.6644,12.7419,-41.2849,42.304,6.0454,-11.7228,35.1683,-9.6845,-19.8776,-7.6453,-4.1487,-43.4708,143.4408,-4.587,
18.3485,4.0779,-34.6582,39.7558,-2.0387,-17.3294,30.5808,-3.0578,-4.8776,-6.1162,8.1554,-35.6774,143.731,-2.0387,
3.3485,-10.9221,-38.7362,24.7558,-11.2132,-23.4455,19.3681,-5.0975,10.1224,0,0,-20.6774,129.459,1.0191,
-11.6515,-25.9221,-50.968,14.271,-8.1544,-26.5034,22.4259,-1.0196,13.2519,12.2328,1.0196,-10.1936,135.5761,9.1745,
-6.1166,-32.6195,-51.9876,20.3872,-17.3289,-23.4455,32.6195,9.174,10.1941,27.2328,-2.0392,-8.1549,137.6148,2.0392,
6.6262,-28.0325,-49.4393,35.3872,-27.0134,-15.8002,37.2065,12.7419,-2.5488,42.2328,-14.7811,2.5488,122.6148,-5.6061,
1.5292,-15.7997,-64.4393,42.3036,-14.7806,-10.7032,23.9556,-1.5292,-17.5488,30.0712,-21.9164,16.8198,111.621,9.3939,
-3.0583,-0.79972,-71.3557,45.8719,-3.0583,-6.1157,8.9556,-10.1931,-32.5488,15.0712,-26.5038,10.1941,101.937,24.3939,
0.51004,13.7615,-62.6908,45.3619,-0.51004,3.5674,15.7997,-8.6649,-42.3036,0.071239,-32.1104,-4.8059,99.3877,14.7806,
2.0382,0,-69.3174,30.3619,4.0774,2.0382,30.7997,-10.1941,-27.3036,0,-25.4847,-19.8059,107.0335,-0.2194,
10.1941,-9.174,-66.2586,29.5622,7.1358,0,38.7362,0,-12.3036,2.0392,-12.2323,-34.8059,122.0335,-8.1549,
7.1358,-7.1358,-59.1234,40.7744,1.0191,-1.0191,24.4646,7.1358,-6.1166,-4.0774,-12.2323,-20.3872,128.4398,3.0583,
-4.5875,-4.5875,-63.7104,40.2653,0.51004,-10.7032,25.9938,5.6066,-0.51004,4.5875,2.7677,-23.9556,113.4398,-11.9417,
-7.1358,-16.3098,-67.2782,38.7362,0,-16.3098,32.6195,0,4.0774,19.3681,17.7677,-38.9556,99.8978,-26.9417,
1.0191,-28.5421,-67.2782,38.7362,-1.0191,-10.1941,36.697,-1.0191,1.0191,22.4254,14.2706,-26.5038,111.111,-28.5421,
5.0966,-25.4847,-67.2782,32.6195,-1.0191,-16.3098,32.6195,-5.0966,-6.1166,13.2514,-0.72945,-11.5038,103.9752,-13.5421,
2.0382,-28.5421,-70.3366,20.3872,-1.0191,-30.5813,28.5421,1.0191,5.0966,4.0774,-7.1358,-9.174,88.9752,-6.1166,
-5.0966,-37.7166,-79.5106,21.4063,1.0191,-26.5038,39.7553,13.2514,17.3289,16.3098,-1.0191,-24.174,99.8978,-21.1166,
-3.0578,-30.5808,-84.6076,34.6582,2.0387,-11.5038,40.7749,11.2127,8.1544,31.3098,-2.0387,-25.4842,112.1296,-6.1166,
-1.0196,-16.3102,-83.588,43.8322,5.097,-4.0779,25.7749,1.0196,-6.8456,16.3102,-11.2127,-10.4842,97.1296,8.8834,
2.5488,-1.3102,-83.0784,52.4972,8.6644,-15.8002,17.8394,0.50956,-21.8456,1.3102,-25.9933,-23.9551,83.0784,4.587,
17.5488,13.6898,-86.1363,52.4972,8.6644,-3.5679,32.8394,3.5679,-28.0325,-13.6898,-21.9159,-38.9551,98.0784,-9.6836,
31.0908,25.9943,-86.1363,37.4972,7.6453,7.6453,46.3815,-9.6836,-25.9933,-22.935,-9.6836,-25.9933,105.5048,-7.6453,
16.0908,18.8585,-85.1172,34.1492,20.8968,1.5287,45.3614,-7.6453,-10.9933,-7.935,-3.5679,-22.936,99.3882,-1.5287,
1.0908,3.8585,-100.1172,34.6582,24.4642,-10.1936,35.6774,2.0387,4.0067,7.065,-2.0387,-37.7166,90.7233,-9.1745,
-1.0196,-4.0779,-108.0531,36.6974,17.3294,-4.0779,26.5034,5.097,-3.0578,22.065,1.0196,-33.6391,89.7042,-9.1745,
8.1544,-2.0387,-108.0531,31.5999,2.3294,-5.097,21.4068,1.0196,-8.1554,13.2519,3.0578,-34.6582,86.6458,-4.0779,
-5.0966,-1.0191,-114.1688,30.5813,-3.0583,-2.0382,26.5038,7.1358,1.0191,11.2132,4.0774,-29.5612,94.8012,-3.0583,
-16.3107,-2.0392,-129.1688,26.5029,11.2122,0,30.5803,6.1157,-2.0392,8.1549,0,-14.5612,97.8586,-1.0201,
-17.8394,-10.7036,-144.1688,11.7228,24.9742,-0.50956,35.1683,-0.50956,-13.762,0.50956,8.6644,-14.7811,98.3681,4.587,
-27.0134,-25.7036,-158.5116,5.6061,19.8776,0.50956,31.0908,-0.50956,-20.8968,-8.6644,12.7419,-29.7811,97.349,0.50956,
-28.0325,-13.762,-163.6086,20.6061,6.6252,4.587,27.0134,3.5679,-25.9943,-18.8585,-2.2581,-32.11,82.349,5.6061,
-13.0325,1.238,-162.589,35.6061,0.51004,8.6649,16.8198,-11.4321,-40.9943,-33.8585,-17.2581,-30.0712,67.349,19.8772,
1.9675,16.238,-154.4341,50.6061,-2.5483,14.7806,2.5483,-26.4321,-55.9943,-48.8585,-31.0904,-37.207,52.349,32.1095,
16.9675,31.238,-139.4341,65.6061,-5.0966,29.7806,5.0966,-11.4321,-60.1425,-49.9494,-23.4455,-22.207,37.349,40.7744,
9.174,46.238,-138.6339,55.0459,-20.0966,30.5803,4.0774,-4.0774,-45.1425,-34.9494,-37.717,-10.1941,22.349,25.7744,
8.6649,56.5751,-149.3371,40.0459,-5.0966,20.8972,19.0774,1.5292,-30.1425,-19.9494,-29.0521,-21.9164,34.1487,10.7744,
10.7036,41.5751,-159.5312,25.0459,8.6644,5.8972,34.0774,8.6644,-16.8193,-23.9551,-30.0717,-36.9164,45.3614,-4.2256,
12.7419,32.11,-156.4724,17.8394,16.8193,-9.1028,41.2849,10.7036,-20.8968,-30.0708,-31.0908,-51.9164,37.2065,-19.2256,
12.7419,47.11,-159.5307,30.0708,29.0516,2.5488,36.1874,-2.5488,-31.0908,-36.1874,-24.9742,-38.2266,23.9551,-34.2256,
21.9164,62.11,-162.589,45.0708,24.9747,-1.5292,29.0521,1.5292,-37.207,-35.1678,-36.1879,-37.207,17.8389,-45.3619,
30.0708,74.9236,-172.7826,48.4197,10.7036,2.5488,14.0521,-2.5488,-52.207,-48.4197,-51.1879,-52.207,3.5679,-32.11,
35.6778,89.9236,-180.4279,35.6778,18.349,17.5488,10.1931,-16.3098,-67.207,-63.4197,-36.697,-54.0268,-9.174,-17.11,
27.0134,104.4848,-186.0345,39.2457,15.8002,32.5488,9.6836,-9.6836,-82.207,-76.9618,-22.936,-39.0268,-24.174,-2.11,
15.2906,102.9561,-185.525,47.9102,0.8002,45.871,-4.0774,0,-87.6654,-61.9618,-37.717,-24.0268,-26.5038,12.89,
21.9164,98.3696,-176.8595,57.5942,-1.5292,45.3619,10.7032,-7.6448,-72.6654,-46.9618,-44.3418,-9.0268,-22.9355,27.89,
29.5617,83.3696,-165.1373,59.1229,-1.0196,40.7749,22.4259,-5.097,-57.6654,-42.8131,-29.5617,1.0196,-26.5034,36.6974,
22.9355,68.3696,-150.1373,45.3619,-2.5483,25.7749,16.8198,2.5483,-42.6654,-36.1879,-14.5617,-13.9804,-15.7997,21.6974,
25.4842,53.3696,-135.5756,48.9298,11.2127,10.7749,31.8198,7.1353,-27.6654,-21.1879,-1.0196,-19.3676,-0.79971,6.6974,
23.9556,38.3696,-135.066,46.381,19.8772,-4.2251,46.8198,18.858,-14.7806,-6.1879,-1.5292,-4.3676,-0.51004,-0.51004,
10.7036,23.3696,-139.1435,31.381,16.8193,-2.5488,46.3815,30.0717,-28.0325,1.5287,-6.6262,-1.5287,-2.5488,14.49,
10.1936,8.3696,-134.5565,27.5225,19.3676,1.0196,46.8906,29.5617,-24.4651,-7.1353,-3.0578,-1.0196,-1.0196,29.49,
1.0191,-6.6304,-147.8084,29.5612,19.3681,-13.9804,42.8136,16.3098,-27.523,-16.3098,1.0191,-1.0191,-16.0196,14.49,
9.6836,3.5679,-143.2209,40.2648,29.0516,-5.6061,43.3232,27.0134,-21.9159,-3.5679,16.0191,-10.7036,-13.761,-0.51004,
17.3294,6.1162,-147.8079,36.6974,14.0516,8.1554,36.6974,16.3102,-33.6391,-18.5679,1.0191,-25.7036,-23.445,-8.1554,
32.3294,7.6448,-138.1244,47.4001,6.6257,12.7424,40.2653,8.6649,-38.2261,-20.8972,-10.7032,-24.9747,-38.445,-6.6257,
36.1879,17.8389,-127.9303,47.4001,8.6649,-2.2576,31.0904,3.5674,-40.2653,-9.684,4.2968,-10.7032,-53.445,-21.6257,
30.5813,31.6004,-119.2658,46.891,13.2514,-3.0583,32.6195,7.1358,-50.9685,0,-4.0774,0,-53.0072,-14.2715,
15.5813,16.6004,-127.4207,39.7548,-1.0196,-2.0387,24.4651,1.0196,-65.9685,-11.2127,-19.0774,5.097,-67.2782,0.72848,
10.1941,1.6004,-124.3624,34.6587,3.0583,-4.0774,29.5612,1.0191,-50.9685,-2.0382,-17.3289,11.2132,-59.1234,15.7285,
7.6453,-13.3996,-122.8337,19.6587,12.7419,-16.8193,31.0908,0.50956,-35.9685,-0.50956,-4.587,7.6453,-45.3619,30.7285,
9.1745,-28.3996,-117.2271,14.271,10.1936,-18.3485,16.0908,8.1554,-47.9102,-8.1554,-13.2519,8.1554,-49.9489,45.7285,
9.684,-28.033,-111.6205,27.0129,5.6066,-13.7615,10.7032,10.7032,-35.1678,-13.7615,-5.6066,18.858,-60.6525,60.7285,
2.0387,-13.033,-109.0718,33.6391,15.2911,-9.1745,22.4259,11.2137,-20.1678,-10.1936,-2.0387,33.858,-75.6525,75.7285,
0.50956,-10.7027,-110.6009,32.11,20.8977,-11.7228,21.9168,18.8585,-5.1678,-15.8002,-6.6252,45.3624,-90.6525,90.7285,
-0.50956,-22.936,-103.4661,32.11,5.8977,-23.9551,8.6644,3.8585,9.8322,-21.9168,6.6252,30.3624,-99.3887,105.7285,
6.1162,-7.936,-88.4661,47.11,-6.1162,-20.3867,12.2328,-11.1415,24.8322,-6.9168,21.6252,15.3624,-94.8007,120.7285,
-8.8838,-1.5292,-88.1755,45.3619,-21.1162,-23.9556,2.5483,-12.7424,39.8322,8.0832,6.6252,15.7997,-109.8007,135.7285,
-22.4259,1.0196,-87.6654,30.3619,-30.5808,-23.446,1.0196,2.2576,54.8322,6.1162,-1.0196,0.79971,-124.8007,150.7285,
-9.174,0,-72.6654,27.523,-15.5808,-27.523,12.2323,0,69.8322,20.3872,13.9804,-14.2003,-116.2075,165.7285,
-1.5287,-3.5679,-63.7104,28.0325,-0.5808,-42.3031,14.7811,-8.6644,84.8322,35.3872,28.9804,0.50956,-131.2075,180.7285,
2.0392,-1.0191,-66.2586,27.523,-15.5808,-57.3031,6.1166,-13.2514,85.6272,20.3872,13.9804,-2.0382,-146.2075,195.7285,
-0.50956,1.5287,-71.8652,29.0516,-21.9159,-72.3031,8.6644,-22.936,82.0593,6.6262,-1.0196,0.50956,-161.2075,210.7285,
-6.1166,1.0191,-70.3366,24.4646,-16.3098,-87.3031,19.3681,-8.1549,87.6654,21.6262,-1.0191,15.5096,-155.9633,225.7285,
-8.1549,-4.0774,-66.2591,15.2906,-22.4264,-102.3031,11.2132,6.8451,74.414,29.5612,-6.1166,4.0774,-166.1569,240.7285,
-5.6066,5.6066,-69.8265,27.0129,-14.7806,-117.3031,8.6649,19.8772,69.8265,14.7806,-6.6257,-10.9226,-157.492,255.7285,
-9.175,14.2706,-77.4718,40.7744,-15.2906,-132.3031,23.6649,4.8772,68.2974,14.2706,-5.0975,4.0774,-155.9633,270.7285,
-9.684,11.7232,-72.8844,40.2653,-21.9164,-147.3031,33.1296,-1.5292,64.73,29.2706,-3.5674,1.5292,-169.7243,285.7285,
-5.6066,5.6066,-70.8461,39.2452,-19.8781,-158.5116,18.1296,-5.6066,68.8064,42.3036,7.6448,-13.4708,-177.8796,300.7285,
-8.1554,15.2902,-73.3944,47.9097,-21.4068,-166.1569,14.271,-20.3877,63.2003,32.62,1.0196,-1.0196,-190.6215,315.7285,
-2.0387,21.4068,-76.4522,40.7749,-28.5416,-171.2534,23.446,-15.2902,48.2003,27.5234,-13.9804,2.0387,-205.6215,330.7285,
12.9613,7.1358,-71.3557,30.5813,-27.523,-178.3892,20.3872,-7.1358,38.7362,26.5038,-18.349,-12.9613,-205.9117,345.7285,
3.0583,-3.0583,-78.491,34.6587,-21.4063,-172.273,20.3872,-9.174,49.9494,17.3289,-3.349,-19.3681,-192.6602,360.7285,
-11.9417,3.0578,-93.491,32.62,-15.2902,-168.1956,20.3877,-8.1554,34.9494,9.1745,-3.0578,-4.3681,-201.8342,375.7285,
-18.3485,11.2127,-103.9752,23.445,-9.1745,-156.9824,20.3877,-3.0578,19.9494,18.3485,-3.0578,3.0578,-189.6019,390.7285,
-4.587,3.5679,-110.6014,21.9159,-12.7428,-143.2214,24.9742,-4.587,15.8002,22.935,7.6453,-3.5679,-181.9571,405.7285,
-19.587,-4.0774,-120.2854,30.5803,-9.175,-143.731,26.5029,-5.0975,23.4455,13.2514,4.0774,8.1549,-196.7377,420.7285,
-32.6195,-4.0774,-121.3046,24.4646,0,-151.8858,22.4254,-5.0966,27.523,0,3.0583,8.1549,-202.8538,435.7285,
-17.6195,3.5674,-116.7176,25.9938,-3.5684,-139.144,33.1296,-1.5292,12.7414,1.5292,5.6066,-2.5483,-195.209,450.7285,
-2.6195,9.6836,-123.8528,40.9938,-16.8193,-126.9112,27.0134,-6.6262,-1.5287,16.5292,-9.3934,1.5287,-206.4217,465.7285,
-11.2127,20.3877,-127.4207,43.8332,-16.3093,-132.5173,12.0134,-11.2127,13.4713,28.5426,-21.4068,16.5287,-218.144,480.7285,
-13.2524,17.3289,-127.4212,32.6195,-15.2906,-142.7114,11.2132,-14.2715,17.3289,18.348,-11.2132,29.5612,-216.1058,495.7285,
-4.0774,4.0774,-135.5761,32.6195,-23.4455,-141.6922,20.3872,-12.2323,5.0966,20.3872,-6.1166,24.4646,-216.1058,510.7285,
0.51004,-0.51004,-136.0856,38.2261,-27.0129,-142.2018,17.8389,-5.6066,2.5483,35.3872,-5.6066,27.0129,-212.5379,525.7285,
0.50956,4.587,-138.1239,39.2457,-17.8384,-143.2209,9.6845,-8.6644,-0.50956,21.9168,-8.6644,18.8585,-207.4408,540.7285,
-0.50956,12.7419,-149.3376,38.2256,-5.6071,-135.0665,18.8576,-7.6453,0.50956,6.9168,6.3356,3.8585,-201.3252,555.7285,
-12.7419,7.6453,-162.5885,31.0908,-14.7811,-140.1626,20.8968,-5.6061,3.5679,8.6644,21.3356,-3.5679,-208.4604,570.7285,
-14.7801,-4.587,-170.7434,32.11,-16.8193,-141.1822,9.6845,-4.587,4.587,23.6644,33.13,11.4321,-205.4021,585.7285,
-11.7228,-19.587,-176.86,38.2266,-9.6836,-126.1822,5.6061,-5.6061,6.6262,22.936,18.13,26.4321,-199.286,600.7285,
-2.5488,-4.587,-169.7248,50.4589,0.50956,-111.1822,20.6061,-0.50956,10.7036,7.936,3.13,24.9742,-195.209,612.1294,
-1.0191,10.413,-180.4279,47.9102,1.0191,-113.1497,34.6587,-9.175,-1.0191,10.1931,-11.87,20.3872,-188.5828,597.1294,
0,9.174,-191.6411,49.9484,-5.0975,-110.0918,21.4063,-13.2524,0,25.1931,-11.2132,25.4838,-197.7573,582.1294,
6.6257,4.5875,-200.3056,48.4202,-14.7806,-104.4852,14.7806,-8.6649,-5.6066,25.9938,-4.5875,24.9747,-212.7573,578.4903,
6.6257,6.6257,-210.4992,38.2261,-15.8007,-112.6401,10.7032,-13.7615,-14.7806,10.9938,-5.6066,30.0712,-217.6349,575.4319,
2.5483,3.5674,-218.654,39.2452,-15.8007,-119.7759,2.5483,-19.8781,-2.5483,10.7032,-11.7232,34.1487,-215.5962,560.4319,
4.0774,-3.0583,-226.2994,37.717,-14.2706,-114.1688,7.1358,-18.348,3.0583,11.2132,-20.3872,19.1487,-220.1827,545.4319,
13.7615,5.6066,-225.7898,35.1678,-4.5875,-106.524,22.1358,-11.7223,4.5875,-3.7868,-15.7997,13.7615,-207.4408,530.4319,
13.7615,4.5875,-222.7315,35.1688,-2.5483,-114.6784,22.9364,-11.7223,2.5483,-15.7997,-4.5865,23.9556,-201.3247,515.4319,
9.174,-1.0191,-225.2798,37.717,1.0191,-123.3433,22.4264,-14.2706,3.0583,-2.0382,-2.0382,8.9556,-199.7955,514.7804,
7.1353,-2.0387,-232.4155,36.6974,-1.0196,-121.3046,21.4068,-13.2519,1.0196,1.0196,-4.077,13.2519,-199.7955,511.7216,
7.6453,-1.5296,-238.0221,38.2256,-0.50956,-117.7372,21.9159,-10.7036,0.50956,5.6061,-4.587,20.8968,-197.2477,511.2115,
7.1358,-1.0191,-243.6287,38.7362,0,-113.1497,22.4264,-8.1549,0,10.1931,-6.1166,28.5421,-195.7186,510.702,
6.6262,-0.50956,-249.2348,40.2648,0.50956,-109.5818,21.9168,-6.6262,-0.50956,15.8002,-6.6262,36.1874,-193.1698,510.1924,
6.1166,0,-254.8414,40.7744,0,-106.0139,22.4264,-4.0774,-1.0191,20.3872,-7.1358,42.8136,-191.6406,508.6637,
5.6066,-0.51004,-261.4676,41.2844,0.51004,-102.4465,22.9355,-2.5483,-3.5674,24.9747,-9.684,50.4584,-190.112,506.1155,
3.5679,6.6262,-267.5838,26.2844,-3.5679,-115.6984,12.7419,-17.5483,-18.5674,9.9747,-19.8776,49.4388,-183.9958,491.1155,
-2.0387,9.1745,-267.0737,25.4842,2.0387,-107.0335,18.3485,-13.2519,-9.1745,15.2902,-17.3294,34.4388,-188.5828,476.1155,
-1.5292,1.5292,-268.6034,33.1296,12.7414,-99.3882,19.8772,-7.6458,-6.6257,18.858,-16.8198,20.8972,-191.1316,469.4175,
-2.5483,2.5483,-282.874,27.0129,14.7806,-105.5044,13.7615,-14.7806,-13.7615,8.6649,-6.6257,35.8972,-187.0536,454.4175,
-10.1941,3.0583,-292.558,21.4063,14.2715,-110.0918,13.2514,-14.2715,-16.3098,13.2514,-3.0583,50.8972,-183.4858,439.4175,
-2.0387,-2.0387,-281.3448,30.5808,21.4068,-107.0335,26.5034,0.72848,-2.0387,22.4259,-2.0387,35.8972,-176.3505,424.4175,
8.6644,-12.7419,-282.8739,29.0526,14.7811,-107.5431,22.936,-7.6453,-4.587,7.4259,4.587,20.8972,-182.9762,409.4175,
6.1162,-3.0578,-297.655,24.4651,3.0578,-97.859,7.936,-21.4068,-19.587,-7.5741,15.2902,11.2127,-183.4858,394.4175,
-1.5292,10.7032,-310.3974,24.9737,1.5292,-90.2142,2.5483,-13.7615,-31.0913,-22.5741,9.684,26.2127,-186.0345,379.4175,
8.6649,14.7806,-310.3969,37.207,2.5483,-86.1363,9.684,-2.5483,-27.0129,-21.9164,-2.5483,41.2127,-199.286,364.4175,
12.7424,16.8198,-307.3391,35.1678,4.5875,-79.0005,7.6448,-4.5875,-31.0904,-36.9164,-11.7232,34.1487,-202.3443,349.4175,
16.3102,31.6009,-300.7129,44.8523,6.1162,-68.2969,10.1936,-6.1162,-18.3485,-34.6582,-14.271,37.7166,-189.6019,334.4175,
24.4651,33.6391,-300.7124,59.8523,-2.0387,-64.2199,19.3686,2.0387,-13.251,-19.6582,-8.1544,51.9881,-188.5823,319.4175,
19.8781,18.6391,-315.7124,44.8523,2.5483,-74.9231,15.8007,-2.5483,-28.251,-34.1487,-11.7223,38.2261,-191.1306,304.4175,
23.9556,7.6448,-318.5518,29.8523,17.5483,-87.1559,17.8389,-7.6448,-42.3036,-31.0904,-9.684,33.1296,-176.1306,289.4175,
24.9742,-0.50956,-321.6101,29.0516,32.5483,-102.1559,24.9742,-12.7428,-27.3036,-16.0904,0.50956,43.3232,-177.8796,274.4175,
18.3485,-10.1936,-326.1971,24.4651,43.8332,-117.1559,34.6582,-6.1162,-23.445,-27.5225,6.1162,48.9298,-186.5441,259.4175,
25.9938,-5.6066,-327.7263,18.858,58.6133,-132.1559,36.1869,-2.5483,-38.445,-42.5225,2.5483,33.9298,-180.938,244.4175,
40.9938,-2.0387,-332.3138,33.858,60.142,-121.305,33.6391,-4.0779,-31.6009,-27.5225,2.0387,18.9298,-165.938,229.4175,
38.2266,-0.50956,-334.862,46.3815,55.5555,-106.305,33.1291,0.50956,-25.9943,-23.9551,-4.587,14.7811,-156.4728,214.4175,
29.0521,5.6066,-348.1135,33.1296,48.4202,-97.349,23.9556,-11.7223,-40.9943,-38.9551,-5.6066,19.8781,-169.7243,200.3056,
24.9747,-0.51004,-361.3654,19.8772,40.2653,-100.4078,14.7806,-26.7223,-55.9943,-34.1487,0.51004,22.9355,-177.8796,187.0531,
28.0325,-1.5287,-350.1522,31.0908,44.3423,-93.272,15.8002,-13.761,-40.9943,-19.1487,1.5287,37.9355,-164.6277,190.112,
27.523,7.1358,-358.8171,35.6778,40.7744,-88.685,5.0966,-5.0966,-45.8719,-24.4646,-7.1358,46.891,-179.4083,192.6597,
23.4455,13.2514,-373.8171,28.5421,31.6004,-89.7042,8.1549,-20.0966,-60.8719,-39.4646,-8.1549,31.891,-194.4083,177.6597,
30.0712,2.5483,-366.4619,28.033,43.3236,-92.2524,23.1549,-28.032,-58.6133,-38.2261,-2.5483,16.891,-197.2472,162.6597,
41.7935,-11.2132,-351.4619,35.6778,58.3236,-96.8399,38.1549,-13.032,-43.6133,-23.2261,1.0191,31.6004,-182.2472,147.6597,
40.2653,-7.6448,-341.9973,42.3036,62.6908,-92.2529,31.0904,1.968,-28.6133,-9.684,-3.5674,37.207,-167.6856,132.6597,
36.697,4.0774,-349.6426,41.7935,47.6908,-79.5106,19.3681,-13.032,-40.7744,-16.3098,-4.0774,23.4455,-164.1182,129.4589,
40.2644,1.5292,-351.1718,36.1869,42.3036,-88.1755,18.858,-16.8198,-48.4202,-20.8972,-1.5292,15.7997,-157.4924,121.8141,
33.6391,-5.097,-339.449,40.7749,57.0846,-87.6654,29.5617,-3.0578,-33.4202,-5.8972,3.0578,25.4842,-170.2343,119.2654,
25.4838,-11.2132,-336.3907,41.7945,51.9876,-72.6654,32.6195,-1.0191,-30.5813,1.0191,-4.0774,34.6587,-173.2922,121.305,
40.4838,-4.5865,-344.036,43.3236,38.2261,-57.6654,30.0712,2.5483,-45.5813,-2.5483,-10.7032,45.3619,-158.2922,129.969,
46.381,-2.5483,-350.1522,37.207,44.3428,-63.7104,32.1104,2.5483,-45.3619,-9.684,-8.6649,39.2452,-163.6081,129.969,
32.62,-14.271,-349.6421,34.6592,55.0464,-66.2586,30.5818,-2.0387,-35.6774,-15.2902,2.0387,26.5043,-171.2529,122.3246,
27.5225,-14.271,-357.7975,40.7749,50.968,-58.1042,24.4651,-3.0578,-36.6974,-21.4068,3.0578,37.7166,-156.9824,132.5178,
20.8972,-3.5674,-359.3267,38.2261,56.5751,-54.5364,29.0521,0.51004,-22.9355,-32.1104,-0.51004,52.7166,-147.2984,147.5178,
9.684,-13.7615,-355.2487,27.0139,54.5359,-59.6329,30.0712,-1.5292,-7.9355,-40.2644,1.5292,61.6716,-153.4145,132.5178,
6.6257,-28.7615,-365.4428,12.0139,39.5359,-74.6329,19.8781,-9.684,4.5875,-33.1296,-4.5875,46.6716,-166.6664,117.5178,
21.6257,-29.0521,-356.2683,21.9164,24.9747,-76.9623,20.8972,-9.684,19.5875,-18.1296,-7.6448,31.6716,-159.5307,102.5178,
20.8968,-22.936,-347.0944,34.1482,39.9747,-80.0206,16.8193,-16.8193,34.5875,-12.7419,-22.6448,16.6716,-155.4537,100.4073,
8.1549,-27.523,-349.6426,37.7161,30.5813,-80.5302,21.4063,-12.2323,49.5875,-8.1549,-37.6448,19.3681,-165.1373,108.0526,
1.5292,-33.1296,-354.2296,30.0712,15.5813,-76.9618,16.8198,-7.6448,64.5875,-1.5292,-33.1296,8.6649,-175.8404,108.5627,
15.2906,-23.4455,-345.5652,23.4455,21.4063,-65.24,4.0774,-9.175,67.2782,-4.0774,-29.5622,14.2706,-169.2152,123.5627,
30.2906,-8.4455,-346.5843,31.5999,29.5617,-57.0846,2.0387,-21.4068,55.0454,-2.0387,-40.7749,29.2706,-174.3118,138.5627,
17.3289,0,-356.7784,38.7362,17.3289,-63.2008,0,-22.4264,50.9685,-4.0774,-40.7744,18.348,-184.5054,130.479,
9.175,0,-341.7784,41.7945,24.4656,-57.0842,8.1558,-7.4264,56.066,-3.0574,-25.7744,3.348,-169.5054,115.479,
19.3686,-15,-326.7784,31.6009,25.4842,-60.142,16.3102,-4.077,50.968,2.0387,-14.271,-2.0387,-160.0402,102.9566,
5.6066,-30,-341.7784,16.6009,10.4842,-75.142,6.6267,-19.077,39.2462,-1.5292,-29.271,7.6458,-175.0402,87.9566,
-5.097,-45,-352.7005,5.097,15.2902,-89.7042,10.1936,-29.5617,50.968,11.2127,-26.5034,7.1353,-160.0402,72.9566,
2.0387,-33.6391,-337.7005,20.097,20.3877,-74.7042,16.3102,-14.5617,47.9106,10.1936,-11.5034,-5.097,-145.0402,87.9566,
7.1348,-27.523,-334.3525,28.5421,12.2323,-59.7042,11.2132,-4.0774,38.7352,4.0774,-14.2715,-10.1941,-152.9054,100.9169,
3.5679,-23.9551,-346.0752,18.8576,12.7419,-59.6329,-0.50956,-19.0774,38.2256,5.6061,-29.2715,0.50956,-167.9054,91.2333,
8.1549,-8.9551,-334.352,30.5813,22.4264,-44.8518,1.0191,-16.3098,34.6587,-1.0191,-44.2715,15.5096,-173.2922,96.8394,
6.6262,-19.8776,-319.352,37.2075,17.8394,-59.8518,4.587,-8.6644,25.9943,-4.587,-50.458,12.7419,-173.8017,81.8394,
2.0387,-34.8776,-316.0035,26.5034,6.1162,-74.8518,3.0578,-19.3676,18.3485,1.0196,-35.458,-1.0196,-171.2534,66.8394,
0.50956,-47.4006,-327.7263,18.8585,11.7228,-89.1946,1.5287,-27.0134,12.7419,-0.50956,-20.458,2.5488,-162.589,51.8394,
-2.5483,-32.4006,-320.591,23.9546,18.858,-74.1946,6.6257,-14.7806,3.5674,2.5483,-23.9556,16.8198,-156.4728,66.8394,
-2.5488,-17.8384,-305.591,34.1492,3.858,-59.1946,4.587,-3.5679,7.6453,14.7811,-19.8776,21.9168,-149.3371,80.0201,
7.1353,-23.446,-290.591,33.6391,-6.1162,-44.1946,-2.0387,2.0387,22.6453,24.4651,-4.8776,28.5426,-135.5756,81.5493,
11.2132,-18.349,-275.591,26.5038,-3.0583,-29.1946,-2.0392,0,25.4838,20.3872,-5.0966,25.4838,-134.5565,83.588,
5.097,-16.3093,-260.591,28.5426,-4.077,-14.1946,3.0578,-4.077,18.3485,24.4651,-14.271,10.4838,-135.5756,72.3753,
0,-15.2906,-253.8218,35.6778,-3.0583,-7.1358,9.174,0,30.5813,26.5038,-9.174,8.1549,-129.4594,64.2199,
-7.1353,-21.4068,-261.9772,28.5426,-6.1162,-3.0578,7.1353,3.0578,26.5034,11.5038,-5.097,13.2519,-137.6143,50.968,
-7.1353,-16.3102,-267.0738,25.4842,-12.2328,2.0387,-1.0196,1.0196,11.5034,2.0387,-10.1936,10.1936,-141.6918,43.8322,
5.6061,-1.5287,-252.2932,37.2065,-9.6836,-0.50956,-6.6262,0.50956,4.587,4.587,-11.7228,9.6836,-137.1048,48.4197,
12.7424,-15.8007,-242.0996,37.207,-6.6257,-5.6066,-1.5292,1.5292,16.8198,14.7806,-8.6649,11.7223,-143.2209,36.1879,
0.50956,-30.8007,-251.2736,28.0325,-12.7419,-5.6061,4.587,-0.50956,3.5679,20.8968,-10.7036,10.7036,-157.492,21.1879,
-1.5292,-18.859,-249.2353,39.2452,-6.6257,1.5292,11.7223,1.5292,-10.7032,24.9747,-4.5875,24.9747,-148.318,33.1296,
2.0392,-5.0966,-244.6473,41.7945,0,0,10.1941,0,-4.0774,21.4073,0,30.5813,-133.318,41.7945,
2.5483,-14.7806,-243.1192,39.2452,-7.6458,-7.6458,9.684,-2.5483,10.9226,18.858,-4.5875,15.5813,-135.066,26.7945,
7.6453,-17.8384,-241.08,43.3232,-10.7027,-9.6836,4.587,-4.587,14.7811,23.9551,-10.7027,20.8977,-150.066,16.8203,
15.2897,-8.1549,-232.416,41.7935,-5.0975,0,3.0574,-1.0201,0,34.6578,-15.2906,35.8977,-147.8084,31.8203,
11.7223,-13.7615,-226.8089,31.0904,-5.6066,-0.51004,11.7223,0.51004,-5.6066,30.0712,-19.8781,50.8977,-132.8084,45.3619,
5.6061,-23.9551,-224.7707,27.0134,0.50956,-4.587,20.8968,-0.50956,3.5679,19.8776,-4.8781,35.8977,-134.0469,30.3619,
-6.6257,-24.9747,-226.8089,33.1296,0.51004,2.5483,14.7806,2.5483,-0.51004,20.8972,-1.5292,20.8977,-140.1626,15.3619,
-6.6257,-11.7223,-229.8672,41.2844,-8.6649,14.7806,6.6257,12.7424,-11.7223,10.7032,-16.5292,30.0712,-129.969,30.3619,
8.1554,-6.1162,-226.2989,42.8141,-7.1353,26.5043,6.1162,13.2519,-13.251,-4.2968,-26.5034,27.5234,-126.4011,45.3619,
1.0191,-18.348,-224.2606,37.717,-2.0382,23.4455,1.0191,9.174,-4.0774,-1.0191,-13.2514,17.3289,-137.6143,30.3619,
-13.9809,-32.1104,-225.7898,28.033,-7.6448,8.4455,-5.6066,8.6649,10.7032,12.7424,-10.7032,31.0904,-135.066,23.9556,
-6.1162,-25.4842,-221.2023,33.6391,-6.1162,-2.0387,2.0387,7.1362,8.1554,3.0588,-17.3284,18.3485,-127.4202,23.446,
-4.0774,-18.349,-216.1062,37.7161,3.0574,0,4.0774,0,-4.0774,10.1931,-29.5622,3.3485,-133.5374,8.446,
-19.0774,-27.523,-208.97,31.6004,1.0201,-4.0774,0,0,6.1166,25.1931,-29.5612,18.3485,-141.6918,4.0774,
-18.3485,-32.62,-209.9896,26.5034,-2.0387,-7.1362,2.0387,3.0578,5.0961,18.3485,-18.3485,33.3485,-135.5761,19.0774,
-12.7419,-31.0908,-222.7315,12.7419,-0.50956,2.5478,5.6061,1.5287,-9.9039,3.3485,-15.8002,18.8585,-120.5761,11.7228,
-25.4842,-32.62,-219.1636,9.1745,1.0196,17.5478,2.0387,9.1745,-16.3102,-1.0196,-15.2902,16.3102,-109.0722,26.7228,
-31.6004,-40.7744,-205.9122,18.348,-4.0774,26.5029,-6.1166,14.2706,-1.3102,8.1549,-7.1358,31.3102,-114.1693,41.7228,
-26.5034,-53.0072,-201.8342,13.2519,-5.097,20.3877,-2.0387,2.0387,5.097,22.4259,-3.0578,42.8131,-127.4207,30.5808,
-16.3098,-45.871,-203.8729,14.2715,1.0191,16.3098,6.1166,-1.0191,-5.0966,27.523,-1.0191,44.8518,-125.382,19.3681,
-24.4651,-39.7548,-203.8729,28.5426,-11.2127,25.4842,1.0196,8.1554,-8.1544,20.3877,-1.0196,46.8906,-123.3433,33.6391,
-27.5234,-34.6592,-194.6994,35.6774,-22.4269,30.5808,-3.0588,9.1735,2.0387,29.5617,-2.0387,43.8322,-130.479,25.4833,
-12.5234,-19.6592,-188.0732,36.1874,-11.7228,24.9742,-2.5488,3.5679,-0.50956,37.2065,0.50956,48.4197,-122.8337,31.0908,
-6.6257,-4.6592,-192.1502,40.2653,-8.664,19.8781,-1.5292,5.6066,-15.5096,22.2065,-14.4904,48.4202,-122.8332,44.3428,
-15.8007,-9.684,-179.9184,47.4001,-6.6257,34.8781,6.6257,17.8389,-10.7032,22.9355,-29.0521,36.1879,-117.7367,34.1487,
-20.3872,-24.684,-179.4083,32.4001,-10.1941,33.6386,1.0191,10.1941,-1.0191,25.4838,-21.4063,21.1879,-113.1497,19.1487,
-11.2132,-21.4073,-181.4475,25.4838,-18.349,18.6386,0,6.1157,5.0966,10.4838,-6.4063,13.2514,-113.1497,4.1487,
-14.7811,-23.9551,-175.8404,33.1291,-27.0134,17.8394,0.50956,11.7228,6.6262,-4.5162,4.587,28.2514,-119.7754,-0.50956,
-8.6654,-23.9551,-169.7248,31.0899,-12.7428,32.8394,3.5679,20.8968,-0.50956,-2.5488,0.50956,43.2514,-113.6597,14.4904,
3.5674,-8.9551,-171.7635,32.1095,-4.5875,47.8394,1.5292,23.9546,-15.5096,-1.5292,-6.6257,58.2514,-112.6401,29.4904,
0.50956,-0.50956,-160.5503,41.284,-3.5679,61.6712,1.5287,21.9159,-30.5096,-14.7811,-10.7036,62.6912,-113.6597,44.4904,
0,-2.0382,-146.7888,42.8136,0,51.9876,4.0774,18.349,-28.5421,-18.349,-17.3289,47.6912,-104.9948,59.4904,
13.7615,2.5483,-149.3376,42.3036,-2.5483,36.9876,6.6257,15.7997,-33.1296,-29.0521,-31.0913,32.6912,-112.6401,74.4904,
8.6644,-3.5679,-156.4728,36.1874,-7.6453,22.936,3.5679,5.6061,-43.3232,-42.304,-38.2266,17.6912,-119.7759,89.4904,
-1.5292,-9.684,-145.2596,36.1879,1.5292,37.936,4.5875,7.6448,-38.2261,-29.0521,-25.9938,31.0904,-105.5044,104.4904,
-5.0966,-16.3098,-141.6918,34.6587,5.0966,39.7553,8.1549,11.2132,-30.5813,-16.3098,-28.5421,28.5421,-104.9948,119.4904,
-2.0387,-21.4068,-140.6726,32.62,2.0387,33.6391,10.1936,11.2127,-24.4651,-12.2328,-22.4259,26.5034,-103.9752,134.4904,
-1.5292,-23.9556,-136.0856,28.032,1.5292,35.1678,2.5483,4.5865,-29.0521,-11.7232,-7.4259,34.1487,-99.3887,149.4904,
-1.0191,-23.4455,-134.5565,29.5612,1.0191,36.697,2.0382,6.1157,-28.5421,-13.2524,-3.0583,29.5612,-99.8982,164.4904,
0,-21.4063,-131.4982,32.6205,0,37.717,3.0583,7.1358,-27.523,-14.2706,-2.0382,25.4847,-98.8782,149.4904,
0.50956,-20.8968,-129.9695,34.1492,-0.50956,39.2457,2.5488,7.6453,-27.0134,-15.8002,-0.50956,20.8968,-99.3882,134.4904,
2.0387,-18.3485,-127.4212,37.7166,-1.0196,40.7749,4.077,9.1745,-26.5034,-16.3102,1.0196,17.3294,-97.8595,119.4904,
2.5488,-17.8394,-125.892,39.2457,-1.5287,42.304,3.5679,10.7036,-25.9943,-18.8585,1.5287,12.7419,-98.3691,104.4904,
3.5674,-16.8198,-122.8337,42.3036,-2.5483,43.3227,4.5875,11.7223,-24.9747,-18.858,2.5483,8.6649,-97.3495,89.4904,
3.5679,-14.7811,-119.7759,44.3423,-3.5679,44.3423,4.587,12.7419,-25.9943,-21.9168,3.5679,4.587,-98.3691,74.4904,
-0.50956,-29.7811,-121.8146,41.284,-5.6071,36.1874,9.6836,15.8002,-13.762,-6.9168,8.6644,19.587,-83.3691,59.4904,
-10.1936,-36.6974,-118.2467,42.8131,-1.0196,24.4651,21.4068,19.3676,-9.1745,8.0832,1.0196,34.587,-68.3691,44.4904,
-9.684,-37.207,-119.7754,32.1104,1.5292,16.8198,10.7032,10.7032,-20.8972,14.7806,-1.5292,34.1487,-83.3691,29.4904,
1.0196,-35.6774,-118.2462,28.5426,-4.077,24.4651,4.0779,8.1554,-34.6582,-0.2194,6.1162,19.1487,-83.588,14.4904,
5.097,-33.6391,-111.111,36.6974,-1.0196,36.6974,12.2328,19.3686,-33.6391,-2.0387,1.0196,34.1487,-68.588,-0.50956,
2.0387,-34.6582,-103.9752,32.62,13.9804,39.7558,23.446,24.4651,-22.4259,-2.0387,-4.077,34.6582,-66.2586,-15.5096,
8.1554,-29.5617,-98.8786,22.4259,28.9804,37.7166,32.62,26.5034,-23.4455,-7.1353,3.0578,19.6582,-61.1621,-30.5096,
4.587,-27.0129,-105.5044,30.0717,14.7811,36.1874,27.0134,29.0526,-36.1874,-16.8193,-4.587,17.8394,-63.7104,-45.5096,
0.50956,-12.0129,-104.4852,45.0717,23.9551,51.1874,30.0717,38.2266,-21.1874,-12.7419,-0.50956,32.8394,-60.6525,-60.5096,
-5.0966,-2.0392,-99.8978,48.9293,32.6195,66.1874,28.5421,31.6004,-6.1874,-6.1166,0,37.7161,-65.2395,-75.5096,
-2.5483,1.5292,-92.2529,42.3036,20.8972,56.5751,20.8972,30.0712,-1.5292,-11.7232,-8.6649,22.7161,-72.8848,-90.5096,
-8.1549,0,-98.8786,32.6195,6.1166,49.9494,7.1358,23.4455,0,-26.7232,-17.3289,37.7161,-87.6654,-105.5096,
-17.3289,-5.0966,-101.9365,31.6004,6.1166,48.9293,5.0966,13.2514,15,-11.7232,-21.4063,50.9685,-87.6654,-120.5096,
-31.0908,-20.0966,-108.5627,20.8968,5.6061,35.1673,0.50956,6.6252,30,-0.50956,-34.1492,35.9685,-88.1755,-135.5096,
-16.0908,-18.349,-93.5627,24.4646,15.2906,46.891,6.1157,20.3872,45,-4.0774,-19.3681,20.9685,-77.4723,-150.5096,
-14.2715,-6.1166,-89.7042,26.5038,3.0583,40.7744,4.0774,13.2514,60,-3.0583,-24.4646,11.2132,-72.3748,-165.5096,
-23.9556,-12.7424,-92.2529,24.9737,-1.5292,31.0904,3.5674,2.5483,65.7491,4.5865,-39.4646,1.5292,-68.8074,-180.5096,
-17.3289,-17.3289,-82.5684,20.3872,-1.0191,43.8327,1.0191,3.0583,79.5106,2.0392,-40.7744,1.0191,-77.4718,-195.5096,
-6.6262,-2.5488,-69.827,29.0516,0.50956,58.8327,-0.50956,12.7419,88.175,14.7801,-25.7744,16.0191,-81.0397,-210.5096,
-16.8193,-9.6836,-68.8069,34.1492,0.50956,59.6329,-0.50956,2.5488,76.9628,17.8394,-23.9551,31.0191,-73.904,-225.5096,
-10.7032,-15.8007,-68.8074,33.1296,3.5674,54.5359,1.5292,5.6066,64.73,2.8394,-25.9938,16.0191,-76.9623,-240.5096,
0,-4.0774,-68.2978,28.5421,0,59.1234,-2.0392,15.2906,62.1807,2.0382,-28.5421,19.3681,-91.9623,-255.5096,
-7.1358,0,-68.2978,30.5813,-3.0583,50.9685,0,12.2323,61.1616,17.0382,-33.6396,14.2706,-78.4914,-270.5096,
-5.097,-9.1745,-68.2974,31.6009,5.097,48.9298,10.1936,12.2328,59.1229,20.3877,-25.4842,-0.72945,-63.4914,-285.5096,
-5.0966,-10.1941,-65.2395,27.523,5.0966,53.0067,9.174,14.2715,62.1817,30.5813,-16.3098,-13.2514,-73.3944,-299.6938,
-20.0966,-17.3294,-63.2008,25.4842,-1.0196,42.8131,1.0196,12.2318,56.0646,34.6582,-17.3294,1.7486,-86.6463,-287.4614,
-35.0966,-32.3294,-74.414,16.3098,0,32.6195,0,6.1157,41.0646,19.6582,-26.5038,11.2122,-79.511,-289.5006,
-30.0717,-30.0717,-76.9623,17.8384,1.5287,36.1874,3.5679,10.7036,32.11,4.6582,-24.9742,-1.5287,-69.8265,-296.1259,
-18.858,-15.0717,-70.8461,24.9747,-0.51004,41.2844,0.51004,13.7615,30.0712,19.6582,-17.8389,3.5674,-67.7878,-290.0097,
-10.1936,-2.0387,-71.3557,21.4068,2.0387,43.8322,-5.097,4.077,15.0712,28.5426,-32.62,18.5674,-72.3753,-275.0097,
-1.0191,0,-70.3366,21.4063,7.1358,54.0258,-1.0191,6.1157,0.071239,17.3289,-44.8518,27.523,-69.317,-260.9576,
-8.6649,-8.6649,-64.73,23.9546,3.5674,50.4584,9.684,16.8188,7.6448,2.5483,-34.1487,12.523,-64.73,-275.9576,
-10.1941,-2.0392,-55.0459,36.697,11.2132,49.9494,22.4264,25.4838,22.6448,2.0392,-24.4646,-2.477,-64.2199,-288.4806,
-1.5292,1.5292,-63.7104,33.1296,14.7806,46.381,13.7615,15.7997,31.0904,-2.5483,-20.8972,-17.477,-71.8652,-290.0097,
-0.50956,-12.7419,-74.9236,21.9159,10.7036,39.2457,3.5679,10.7036,34.1492,0.50956,-5.8972,-2.5488,-58.6138,-297.1455,
-15.5096,-25.4842,-82.5684,27.5234,2.0387,29.5617,-2.0387,13.2519,24.4651,13.2519,-11.2127,12.2328,-63.2008,-290.5193,
-17.3294,-19.3686,-86.6463,40.7749,1.0196,31.5999,-1.0196,12.2318,13.2519,28.2519,-26.2127,27.2328,-78.2008,-275.5193,
-5.0966,-22.4254,-84.6071,29.5622,0,30.5813,0,1.0201,13.2524,30.5813,-26.5029,31.6004,-80.5297,-271.1512,
-0.50956,-21.9168,-83.0784,23.9551,-1.5287,28.0325,0.50956,0.50956,12.7419,17.8384,-25.9943,16.6004,-69.8265,-286.1512,
-0.50956,-6.9168,-91.2333,38.9551,9.6836,39.2457,0.50956,15.5096,1.5287,18.8576,-40.9943,1.6004,-65.7496,-294.0872,
1.5292,-5.6066,-99.3882,47.4011,15.8007,41.2844,-1.5292,15.8007,-6.6257,22.9364,-40.2644,3.5684,-69.8265,-279.8156,
-1.5292,-11.7232,-104.4852,32.4011,13.7615,35.1678,7.6448,3.5674,1.5292,22.9355,-25.2644,-2.5483,-64.73,-285.9323,
-15.8002,-15.8002,-117.7367,28.0325,3.5679,31.0908,6.6262,4.587,1.5287,10.7036,-10.2644,-17.5483,-63.7104,-300.9323,
-6.1162,-13.2519,-121.3041,37.7166,10.1936,40.7749,6.1162,14.271,7.1362,13.2519,-14.271,-24.4642,-56.065,-315.9323,
-7.6448,-28.2519,-136.3041,22.7166,3.5684,27.0129,-1.5292,1.5292,2.5483,7.6458,-10.7032,-9.4642,-59.6329,-304.2808,
-19.8776,-43.2519,-150.3562,22.936,0.50956,17.8394,-0.50956,6.6262,-0.50956,19.8776,1.5296,5.5358,-59.6329,-289.2808,
-34.8776,-45.3619,-159.5307,18.858,0.51004,23.9546,-0.51004,12.7424,2.5483,34.8776,-11.7232,18.858,-68.8074,-291.0293,
-28.543,-36.6979,-174.3122,14.2706,0,38.7352,0,12.2323,13.2514,34.6578,-9.175,31.5994,-77.4723,-283.384,
-19.3686,-34.6582,-186.5441,21.4068,3.0578,37.7166,-3.0578,6.1162,10.1936,19.6578,-3.0578,24.4642,-69.317,-268.384,
-29.5622,-33.6396,-184.5058,20.3872,3.0574,31.6004,0,1.0191,5.0966,4.6578,-18.0578,9.4642,-57.0851,-267.0742,
-30.5813,-21.4073,-183.4862,19.3681,4.0774,36.697,7.1358,5.0966,8.1549,15.2906,-29.5622,-4.0774,-57.0846,-268.0934,
-15.5813,-32.11,-195.2085,20.8968,13.762,35.1683,-0.50956,12.7419,0.50956,3.5679,-30.0708,1.5296,-65.7491,-265.5446,
-1.5287,-33.1291,-190.112,28.0325,28.762,39.2457,0.50956,20.8968,11.7228,-0.50956,-15.0708,16.5296,-57.5942,-258.4093,
-16.5287,-25.4838,-203.8729,14.2715,13.762,34.6587,-4.0774,7.1358,18.349,4.0774,-4.0774,7.1358,-63.2003,-272.1703,
-31.5287,-20.8972,-210.4992,14.7806,-1.238,35.1678,-2.5483,4.5865,29.0521,19.0774,3.5674,2.5483,-60.6525,-266.5647,
-22.9355,-21.9164,-204.3825,27.0139,1.5292,34.1487,-1.5292,7.6458,35.1688,25.9938,-1.5292,7.6458,-60.652,-251.5647,
-23.9551,-17.8384,-204.3825,25.9943,0.50956,29.0526,-0.50956,6.6262,28.0325,20.8968,-4.587,2.5488,-65.7491,-260.448,
-23.4455,-15.2906,-202.8543,20.3872,5.0966,32.6195,7.1348,4.0774,22.4254,16.3098,-4.0774,-6.1166,-58.1042,-275.448,
-12.2323,-20.3872,-201.8342,20.3872,10.1941,31.6004,3.0583,9.174,25.4838,10.1941,-3.0583,-8.1549,-59.1234,-269.1125,
-6.6257,-7.6458,-203.3639,29.0521,2.5483,31.0904,-9.684,10.7032,16.8188,13.7615,-2.5483,6.8451,-64.73,-254.1125,
0.50956,7.3542,-202.3443,41.284,-0.50956,39.2457,-7.6453,7.6453,1.8188,27.0134,-13.761,21.8451,-63.7104,-239.1125,
-4.0779,12.2318,-204.893,37.7166,2.0387,36.6965,-2.0387,6.1162,-2.0387,23.445,-28.761,6.8451,-63.2013,-236.4934,
-19.0779,-2.7682,-203.8734,33.6386,8.1549,36.697,3.0583,15.2906,12.2323,20.3872,-23.4455,-8.1549,-55.0459,-249.7449,
-27.0129,-10.7032,-216.6153,27.0129,1.5292,35.1688,-1.5292,9.684,1.5292,10.7032,-15.7997,6.8451,-54.5359,-253.3123,
-12.7428,-5.6071,-224.7707,23.9551,11.7228,34.1482,0.50956,-0.50956,0.50956,4.587,-19.8776,5.6061,-53.5172,-256.3711,
-4.0779,9.3929,-227.319,28.5426,25.4842,41.794,2.0387,-1.0196,1.0196,3.0578,-34.6582,-9.3939,-64.2204,-256.8806,
-1.5292,24.3929,-231.906,39.2452,24.9747,55.555,1.5292,7.6448,-13.9804,9.684,-39.2462,-16.8198,-70.8461,-241.8806,
-3.5674,39.3929,-237.0025,38.2261,20.8972,55.556,-2.5483,12.7424,-28.9804,21.9164,-41.2844,-1.8198,-71.8652,-226.8806,
-1.5287,54.3929,-231.906,35.1683,22.936,70.556,1.5287,11.7228,-29.0516,17.8394,-34.1492,-3.5679,-71.8652,-221.7119,
13.4713,69.3929,-221.7119,39.2457,21.9168,85.556,5.6061,9.6836,-17.8384,2.8394,-21.9159,-12.7419,-64.7295,-218.654,
28.4713,84.3929,-206.7119,54.2457,30.5803,100.556,8.1549,21.4063,-16.3098,-8.1549,-21.4073,-10.1941,-51.9876,-223.2415,
29.0516,99.3929,-199.286,51.478,28.0325,85.556,2.5488,16.8193,-19.8776,-2.5488,-36.4073,-11.7228,-65.7491,-238.2415,
14.0516,89.1946,-214.286,36.478,14.7816,70.556,-5.6066,7.6458,-22.9355,5.6066,-51.4073,-13.7615,-80.7491,-253.2415,
17.8389,104.1946,-229.286,33.1296,15.8007,79.0005,-12.7424,12.7424,-28.032,14.7806,-42.3036,-12.7424,-72.8848,-240.0608,
32.8389,119.1946,-214.286,48.1296,28.033,94.0005,-10.7032,23.9556,-34.1487,4.5875,-27.3036,-4.5875,-66.7687,-225.0608,
37.7166,134.1946,-199.286,59.1229,28.5426,97.859,4.2968,21.4068,-39.7558,-10.4125,-34.6582,-5.097,-78.4914,-221.2028,
36.6974,125.382,-205.9117,51.9881,28.5426,89.7042,14.271,17.3294,-43.8322,-25.4125,-41.794,-14.271,-63.4914,-217.1249,
33.6396,117.2276,-216.1053,43.8327,32.6195,86.6463,7.1358,21.4073,-45.871,-30.5813,-32.6195,-7.1358,-48.4914,-208.97,
18.6396,102.2276,-226.2989,30.5818,28.5426,71.6463,-6.1162,12.2328,-50.968,-33.6391,-28.5416,6.1162,-56.065,-223.241,
3.6396,87.2276,-235.4738,26.5029,27.523,57.0842,1.0191,5.0966,-36.697,-30.5813,-17.3298,-1.0191,-70.3366,-236.493,
1.0196,72.2276,-236.493,30.5808,28.5416,48.9298,16.0191,8.1544,-21.697,-15.5813,-6.1162,-9.1745,-55.3366,-235.4738,
-6.6262,57.2276,-247.1961,17.8384,13.761,33.9298,1.0191,4.587,-36.697,-0.58128,-21.1162,2.5488,-45.3614,-227.8285,
4.0774,42.2276,-252.8022,20.3882,11.2132,42.8136,-4.0774,9.175,-42.8126,-13.2514,-29.5612,17.5488,-51.9876,-212.8285,
6.6257,34.1487,-260.448,25.9938,9.684,40.2653,2.5483,2.5483,-37.207,-28.2514,-17.8389,2.5488,-66.9876,-221.7119,
12.7419,27.0134,-251.274,40.2648,19.8776,44.3423,8.6644,17.5483,-32.11,-25.9943,-11.7228,-8.6644,-56.5751,-223.7511,
7.6448,25.9938,-257.3902,35.1678,12.7424,48.4202,-5.6066,27.0129,-47.11,-31.0904,-26.7228,5.6066,-46.381,-208.7511,
1.5292,29.0521,-265.5451,30.0712,9.684,42.3036,-1.5292,18.858,-58.6133,-28.033,-25.9938,20.6066,-61.381,-193.7511,
-4.0774,21.4073,-272.1703,27.523,20.3872,34.6587,4.0774,15.2906,-43.6133,-22.4254,-24.4646,14.2715,-73.3939,-208.7511,
2.5483,31.0913,-271.6607,37.207,25.9938,46.381,4.5875,24.9747,-36.1869,-29.0521,-25.9938,-0.72848,-58.3939,-208.4599,
5.6066,34.1487,-277.7774,37.207,15.7997,39.2452,10.7032,11.7223,-50.4584,-39.2452,-24.9747,-5.6066,-43.3939,-204.383,
-3.0583,19.1487,-275.2286,25.4838,15.2906,24.4646,16.3098,3.0583,-55.0459,-24.2452,-21.4063,6.1166,-40.7744,-197.7568,
2.5483,4.1487,-267.5838,29.0521,22.9355,31.0904,15.7997,18.0583,-40.0459,-9.2452,-14.7806,1.5292,-34.1492,-188.0732,
11.2137,2.0387,-275.2286,33.6391,29.5617,34.6592,19.3686,29.5617,-25.0459,-5.0961,-2.0387,-9.1735,-25.4838,-197.7568,
0.50956,-0.50956,-290.2286,27.0134,24.9742,29.0516,18.8585,28.0325,-17.8394,-9.6845,5.6061,-7.6453,-36.1879,-208.4604,
-3.0583,-9.174,-303.7712,28.5421,19.3681,30.5813,16.3098,32.6195,-32.8394,-1.0191,1.0191,7.3547,-35.6778,-202.8538,
6.1162,-16.3102,-309.8873,28.5426,13.2519,20.3877,11.2127,19.3676,-47.8394,-6.1162,-13.9809,14.271,-32.62,-194.699,
13.2514,-6.1166,-313.9648,31.6004,6.1166,16.3098,6.1166,15.2906,-48.9298,-21.1162,-19.3681,14.2715,-47.62,-179.699,
9.1745,4.0779,-316.0035,28.5426,1.0196,22.4259,-1.0196,21.4068,-38.7357,-31.5999,-28.5426,6.1162,-62.62,-171.2534,
12.2318,12.2318,-314.9844,36.6974,1.0196,32.62,3.0578,19.3676,-31.6009,-34.6582,-43.5426,-1.0196,-55.0459,-167.176,
8.6644,8.6644,-327.7263,42.304,-0.50956,33.1291,0.50956,16.8193,-25.9943,-32.11,-42.304,1.5287,-53.5163,-157.492,
-1.0196,4.0779,-338.4294,32.62,2.0387,28.5426,1.0196,23.445,-10.9943,-17.11,-32.62,5.097,-61.1621,-150.8662,
-10.7032,-3.5674,-339.9586,25.9938,-2.5483,13.5426,3.5684,16.8198,4.0057,-2.11,-45.3619,2.5483,-61.6716,-153.4145,
-5.097,-8.1544,-328.2358,39.7558,-2.0387,2.0387,18.3485,23.446,19.0057,12.89,-30.3619,17.5483,-46.6716,-138.4145,
-1.5292,-16.8198,-329.765,43.3227,-2.5483,1.5292,15.7997,29.0521,34.0057,27.0129,-15.3619,32.5483,-40.2653,-123.4145,
-2.5483,-14.7806,-334.862,41.2844,-1.5292,1.5292,9.684,29.0521,49.0057,21.9164,-10.7032,35.1678,-39.2457,-108.4145,
-11.7228,-12.7419,-337.9199,39.2457,-6.6262,6.6262,13.762,24.9742,64.0057,18.8585,-19.8776,21.9168,-35.1683,-107.5431,
-7.1358,-8.1549,-343.5265,30.5803,-9.175,19.3681,9.174,25.4838,79.0057,17.3289,-16.3098,7.1358,-48.9298,-109.0722,
-2.5483,2.5483,-351.1718,24.9737,-3.5684,22.9355,-3.5684,25.9938,66.7682,10.7032,-21.9164,6.6257,-58.6138,-103.4661,
-10.7041,-3.5684,-347.0944,37.206,1.5292,15.7997,-1.5292,20.8963,71.8648,16.8188,-33.1296,13.7615,-51.4785,-115.6984,
-8.664,-8.664,-344.0355,35.1688,-1.5292,7.6458,1.5292,15.8007,74.924,27.0139,-28.032,4.5875,-51.4776,-127.9303,
1.5287,1.5287,-348.1135,20.1688,-3.5679,6.6262,-1.5287,15.8002,59.924,20.8968,-28.0325,-1.5287,-56.5751,-116.7176,
-1.0201,-7.1358,-346.5848,24.4646,0,9.174,0,14.2706,45.871,17.3289,-40.7754,10.1931,-54.0268,-119.2663,
-10.7027,-22.1358,-348.113,28.0325,0.50956,7.6453,7.6453,8.6654,45.3624,15.8002,-35.1673,-0.50956,-49.4388,-134.2663,
-2.5483,-20.8972,-351.1718,19.8772,2.5483,10.7032,8.6649,14.7806,47.4001,14.7806,-20.1673,-10.7032,-47.4006,-149.2663,
-1.0196,-14.271,-350.6617,17.3294,1.0196,5.097,-2.0387,9.1745,44.8523,18.3485,-17.3294,3.0578,-60.1425,-147.8079,
-2.0387,-24.4651,-350.6617,22.4259,2.0387,3.0578,-1.0196,1.0196,39.7558,27.5225,-31.5999,10.1936,-60.1425,-139.653,
6.1157,-22.4264,-350.6622,20.3872,-1.0191,18.0578,1.0191,2.0382,24.7558,20.3872,-31.6004,-4.8064,-45.1425,-144.7501,
2.5478,-18.8585,-355.2492,13.761,-0.50956,24.9742,0.50956,3.5679,9.7558,7.6453,-37.2075,-0.50956,-38.2266,-159.7501,
-12.4522,-33.8585,-366.4624,2.5478,0.50956,9.9742,0.50956,-0.50956,4.587,4.587,-45.3624,1.5287,-53.2266,-174.7501,
-7.1358,-29.5612,-352.7005,14.2715,12.2323,7.1358,9.174,11.2132,17.3289,11.2132,-30.3624,-13.4713,-54.0263,-172.273,
-1.5292,-20.8972,-351.1713,24.9747,12.7424,20.8972,1.5292,19.8781,23.9556,14.7806,-15.3624,-18.858,-42.3036,-157.273,
-13.761,-28.0325,-366.1713,22.936,4.587,18.8585,-4.587,12.7419,15.8002,19.8776,-21.9159,-3.858,-57.3036,-157.492,
-10.1936,-28.5416,-362.8941,20.3877,2.0387,14.271,-2.0387,6.1162,4.0779,34.8776,-24.4642,6.1162,-61.1616,-167.176,
-5.0966,-22.4264,-347.8941,24.4646,-1.0191,21.4063,1.0191,17.3289,18.349,44.8518,-11.2132,6.1166,-46.1616,-159.0211,
-19.3681,-28.5421,-348.623,30.5813,-3.0583,27.523,3.0583,26.5038,29.5622,32.6195,-3.0583,20.3872,-45.8714,-159.0211,
-16.3098,-24.4651,-353.7201,35.6778,-3.0583,28.5421,3.0583,27.523,20.3872,28.5421,-9.174,25.4838,-46.891,-169.2147,
-1.3098,-11.7228,-345.0551,37.2075,0.50956,24.9752,-3.5679,24.9752,13.762,30.0717,-17.8384,18.8585,-45.3614,-166.666,
-5.6066,-11.7232,-346.0752,32.1095,5.6066,22.9355,-10.7041,16.8188,12.7414,22.9355,-12.7424,10.7032,-54.5364,-165.6473,
-15.8002,-21.9159,-347.0939,28.0325,4.587,29.0526,-4.587,16.8203,16.8203,25.9943,-6.6252,17.8394,-65.7486,-169.7243,
-18.858,-25.9938,-349.1326,31.0913,-1.5292,25.9938,1.5292,25.9938,19.8781,36.1879,-12.7414,19.8781,-61.6712,-175.8404,
-10.1931,-18.348,-348.623,31.6004,2.0392,23.4455,0,27.523,10.1941,29.5622,-5.0966,4.8781,-46.6712,-179.4083,
0.51004,-8.6649,-340.9777,36.1879,-0.51004,28.033,-9.684,20.8972,0.51004,22.9355,-5.6066,7.6458,-34.1487,-165.6468,
0.50956,-0.50956,-325.9777,48.4197,-0.50956,36.1874,-3.5679,33.1291,15.51,37.9355,-12.7419,22.6458,-39.2457,-150.6468,
-12.2323,-13.2524,-328.2363,38.7352,0,23.4455,0,30.5803,23.4455,33.6386,-17.3298,26.5029,-54.2457,-165.6468,
0,-17.3298,-326.1976,39.7553,11.2122,22.4254,0,25.4838,20.3872,33.6386,-7.1358,11.5029,-56.0655,-180.6468,
0,-16.3098,-322.1192,37.717,0,27.523,-10.1931,24.4656,15.2906,40.7754,-16.3098,24.4656,-64.2194,-170.2338,
-4.077,-2.0387,-307.1192,34.6582,2.0387,33.6391,-8.1544,32.62,23.446,35.6783,-10.1936,39.4656,-61.1616,-155.2338,
-4.5875,-12.7424,-295.1068,21.9164,4.5875,18.6391,-13.7615,17.8389,13.7615,20.6783,-4.5875,24.4656,-48.4202,-170.2338,
-3.0578,-21.4068,-291.5389,24.4651,4.0779,14.271,-7.1353,7.1353,6.1162,35.6774,-13.2519,9.4656,-46.891,-176.3505,
-3.0583,-14.2715,-276.5389,32.6195,3.0583,14.2706,-3.0583,10.1931,5.0966,50.6774,-21.4073,20.3872,-61.891,-161.3505,
-1.0196,-14.271,-261.9772,28.5426,1.0196,16.3102,-15.2902,17.3294,14.271,35.6774,-12.2328,17.3294,-65.2395,-161.0598,
0.50956,-18.8585,-255.3515,27.0134,-0.50956,25.9933,-20.8968,27.0134,27.0134,34.1482,-10.7036,12.7419,-55.5555,-164.6277,
1.0196,-17.3294,-248.7253,30.5808,-1.0196,26.5034,-17.3294,21.4068,17.3294,43.8322,-16.3102,17.3294,-55.0459,-151.8854,
1.0191,-18.348,-248.7253,31.6004,-1.0191,24.4646,-16.3098,21.4073,18.349,41.7945,-15.2906,18.349,-54.0263,-152.905,
0.50956,-19.8776,-249.2348,33.1291,-0.50956,20.8968,-15.8002,21.9168,18.8585,40.2648,-14.7811,18.8585,-54.5359,-154.4341,
0.50956,-20.8968,-250.2544,34.1482,-0.50956,18.8585,-14.7811,21.9159,19.8776,38.2256,-13.762,18.8585,-53.5168,-155.4537,
0.51004,-21.9164,-250.2544,35.1678,-0.51004,15.8007,-14.7806,22.9355,20.8972,37.207,-12.7424,19.8781,-53.5168,-156.4728,
0.50956,-22.935,-250.2539,37.2075,-0.50956,13.762,-13.761,22.936,21.9168,35.1683,-11.7228,20.8977,-52.4972,-157.492,
0,-24.4646,-250.764,37.717,0,10.1941,-13.2514,23.4455,22.4264,33.6396,-11.2132,21.4073,-53.0067,-159.0211,
-0.50956,-24.9742,-251.274,40.2648,0.50956,7.6453,-11.7228,23.9551,22.936,32.11,-8.6644,21.9159,-52.4976,-159.5312,
5.6066,-33.1296,-247.1966,25.2648,-5.6066,9.684,-13.7615,18.858,7.936,28.032,-7.6458,28.032,-49.4393,-161.5699,
3.0578,-41.794,-236.493,16.3102,1.0196,21.4068,-5.097,23.446,-1.0196,35.6783,-6.1162,21.4068,-37.7166,-156.9824,
-5.0966,-36.697,-233.4346,29.5622,8.1549,16.3098,-2.0382,27.523,9.174,33.6396,-1.0191,6.4068,-38.7357,-169.2147,
-8.6644,-25.9933,-241.08,32.11,3.5679,9.6836,-9.6836,20.8968,7.6453,21.9168,-3.5679,4.587,-53.7357,-173.8017,
5.6066,-10.9933,-227.8285,42.3036,11.7223,24.6836,-6.6257,28.032,-5.6066,24.9747,-6.6257,19.587,-51.478,-158.8017,
7.6453,-10.7036,-220.6928,47.4006,16.8193,16.8193,-7.6453,32.11,-13.762,22.936,-11.7228,17.8384,-48.4202,-144.2405,
13.2519,-13.2519,-220.1832,54.0263,20.3877,9.1745,-3.0578,34.6582,-1.0196,25.4842,1.0196,2.8384,-49.9489,-158.002,
7.1353,-15.2902,-220.1827,46.8906,10.1936,21.4068,-5.097,30.5808,-2.0387,26.5034,2.0387,-3.0578,-50.968,-155.9628,
-7.8647,-20.3872,-216.1053,37.717,4.0774,29.5622,-5.0966,30.5813,1.0191,30.5813,-1.0191,11.9422,-35.968,-140.9628,
-13.2514,-24.4651,-209.9896,35.6778,1.0191,22.4264,-9.174,38.7362,3.0583,37.7161,-1.0191,25.4838,-29.5617,-131.4982,
1.7486,-26.5034,-200.8151,35.6783,6.1162,20.3877,-13.2519,45.8714,-11.2127,44.8523,-6.1162,16.3102,-44.5617,-129.4594,
14.271,-17.3294,-198.7764,38.7357,13.2519,21.4068,-13.2519,35.6774,-15.2911,33.6391,-16.3102,27.5225,-59.5617,-127.4212,
-0.50956,-2.5478,-200.3051,53.7357,14.7811,24.9752,-16.8193,32.11,-0.29113,18.6391,-13.761,20.8977,-64.7295,-135.0656,
0.51004,-0.51004,-197.2472,63.7108,17.8389,32.1104,-14.7806,44.3428,-0.51004,15.8007,1.239,5.8977,-49.7295,-140.1626,
-1.5292,-11.7223,-196.2276,48.7108,15.8007,25.9938,-10.7032,33.1296,-15.51,14.7816,1.5292,5.6066,-42.3036,-135.0656,
-2.5483,-8.6649,-181.9571,35.1678,25.9938,36.1869,-2.5483,34.1487,-15.8007,29.7816,2.5483,20.6066,-47.4006,-120.0656,
-1.0196,-15.2902,-177.3696,36.6974,21.4068,47.9097,-6.1162,38.7357,-12.2328,44.7816,1.0196,35.6066,-45.8714,-106.0144,
-1.0191,-23.4455,-182.4661,34.6587,10.1941,35.6778,-11.2132,30.5813,-16.3098,59.7816,1.0191,31.6004,-44.8518,-121.0144,
-4.0774,-19.3681,-181.447,38.7362,1.0191,24.4646,-16.3098,24.4646,-1.3098,44.8518,12.2323,46.6004,-51.9876,-136.0144,
-7.1353,-27.523,-175.3309,39.7548,-5.097,22.4259,-19.3676,28.5426,5.097,29.8518,8.1544,42.8131,-60.1425,-131.4982,
-2.0387,-19.3686,-166.1569,45.8714,9.903,33.6391,-13.2519,43.5426,-9.903,14.8518,2.0387,27.8131,-49.9494,-118.2467,
-3.0578,-4.3686,-164.1182,46.8906,21.4068,40.7749,-18.349,51.9871,-22.4264,7.1353,1.0196,28.5426,-54.0263,-109.0722,
0,0,-164.1182,48.9293,9.174,32.6195,-24.4651,43.8327,-16.3102,0,6.1157,31.6004,-48.9298,-109.0727,
1.0191,-8.1549,-176.35,38.7362,9.175,17.6195,-23.4455,36.697,-20.3872,-1.0191,9.175,28.5421,-34.6582,-115.1884,
-7.6453,0.50956,-180.9375,29.0516,20.8968,16.8193,-27.0134,31.0908,-30.0717,-0.50956,6.6262,41.284,-38.2266,-106.524,
-1.0196,15.2911,-173.2922,37.7166,23.446,31.8193,-30.5808,33.6391,-29.5617,-7.1353,1.0196,37.7166,-46.8906,-96.8394,
6.1162,18.3485,-170.2338,40.7749,21.4068,38.7357,-32.6195,36.6974,-27.523,-9.1745,-6.1162,22.7166,-49.9489,-111.8394,
5.6066,33.1296,-168.7047,32.1104,19.8781,36.1879,-24.9737,39.2462,-34.1487,-5.6066,-10.7032,29.0521,-52.4972,-116.7171,
13.2519,46.8906,-180.4279,17.1104,15.2902,40.7749,-26.5034,27.5225,-48.9298,-13.2519,-21.4068,19.3676,-61.1621,-123.3433,
28.2519,61.8906,-173.8022,28.0325,30.2902,55.7749,-30.0717,30.0708,-41.284,0.50956,-11.7228,4.3676,-56.5751,-130.9886,
39.2457,76.8906,-172.7826,40.2648,27.0134,58.6138,-45.0717,23.9551,-46.3815,1.5287,-17.8394,-1.5287,-71.5751,-143.2209,
26.5038,91.8906,-174.3118,43.8327,13.2514,58.1033,-41.7945,20.3872,-43.8327,-13.2514,-28.5421,13.4713,-67.2782,-128.2209,
41.2844,103.4652,-166.6664,41.2844,19.8772,62.6908,-35.1678,27.0129,-38.2266,-16.8198,-29.0521,16.8198,-52.2782,-126.9112,
49.9484,95.8203,-151.6664,40.7744,33.6386,51.9876,-33.6391,32.6195,-29.5617,-1.8198,-19.3681,1.8198,-55.0459,-141.9112,
36.1879,93.272,-151.3758,39.2462,33.1296,36.9876,-30.0712,35.1688,-20.8968,6.6257,-8.664,-6.6257,-65.7491,-156.9112,
38.2261,103.4661,-162.589,50.4584,29.0521,48.4202,-18.858,42.3036,-21.9164,-2.5483,2.5483,-4.5875,-55.5555,-142.2013,
46.3815,97.35,-164.6277,57.5947,25.9943,57.5947,-20.8968,37.2065,-24.9742,-6.6262,1.5287,-1.5287,-42.3036,-127.2013,
34.1487,82.35,-175.8404,50.4584,17.8389,44.3428,-35.8968,31.0904,-28.032,-18.858,-9.684,9.684,-52.4972,-116.7171,
19.1487,74.9231,-185.0149,45.3619,6.6257,43.3236,-41.2844,34.1487,-21.9164,-22.9355,-6.6257,18.858,-61.6716,-103.4656,
11.2132,62.1807,-182.4666,48.9293,0,37.7161,-33.6396,24.4646,-6.9164,-7.9355,-8.1549,7.1358,-59.1234,-97.8595,
5.6061,47.1807,-193.1698,41.284,-5.6061,22.7161,-44.3423,9.4646,8.0836,5.6061,-23.1549,-7.8642,-66.7687,-107.5431,
10.7032,45.3619,-197.2472,30.0712,-0.51004,7.7161,-51.478,15.7997,23.0836,0.51004,-29.0521,-3.5674,-66.7687,-100.4078,
17.8384,32.11,-192.1507,28.0325,-4.587,9.6836,-52.4976,19.8776,35.1683,3.5679,-25.9943,-3.5679,-60.6525,-85.4078,
22.4259,17.11,-193.6798,40.7749,-1.0196,12.2318,-42.8131,12.2318,45.8714,1.0196,-22.4259,-18.5679,-51.9881,-70.4078,
10.1936,12.2328,-200.8151,47.9106,6.1162,13.2519,-29.5617,21.4068,60.8714,-6.1162,-13.2519,-16.3093,-40.7744,-55.4078,
-0.51004,27.2328,-194.1894,45.3619,0.51004,10.7032,-35.1683,33.1296,75.8714,8.8838,-0.51004,-6.6257,-34.1487,-54.5359,
-1.5292,21.9164,-198.2668,35.1678,-12.7424,9.684,-38.2266,28.032,85.1172,23.8838,1.5292,-11.7232,-44.3428,-65.7491,
0,13.2514,-206.9313,34.6587,-7.1358,6.1166,-23.2266,19.3681,75.4331,32.6195,-2.0392,0,-48.9298,-50.7491,
-5.097,11.2127,-214.067,28.5426,5.097,-8.8834,-27.5225,7.1353,63.2003,20.3877,-12.2328,15,-33.9298,-38.7357,
-0.50956,0.50956,-209.4796,13.5426,11.7228,-22.936,-34.1487,15.8002,53.5172,30.0717,-14.7811,4.587,-22.936,-48.4197,
10.1936,-6.1162,-195.7181,20.3877,14.271,-22.4259,-25.4842,30.8002,64.2204,38.7357,-1.0196,1.0196,-28.5421,-51.9876,
-4.8064,-0.50956,-199.286,32.11,8.6644,-22.9355,-29.0516,27.0134,62.6912,37.2075,0.50956,12.7419,-23.9551,-45.3614,
-13.7615,12.7424,-209.4796,29.0521,9.684,-14.7806,-39.2457,16.8198,47.6912,24.9747,-8.6649,4.5875,-8.9551,-35.1678,
1.2385,13.2514,-209.9896,27.523,18.348,-7.1358,-40.7749,29.5612,42.8136,12.2323,-10.1941,-10.4125,-15.2906,-20.1678,
1.5292,3.5674,-209.48,31.0904,10.7032,-8.6649,-40.2653,33.1296,39.2452,27.2323,-10.7032,-1.5292,-30.2906,-10.7032,
-11.7228,12.7419,-206.4217,33.1291,0.50956,-0.50956,-41.2844,32.11,38.2256,42.2323,-8.6644,13.4708,-37.207,-9.6845,
-10.7032,10.7032,-216.6153,22.9355,-5.6066,5.6066,-51.478,29.0521,27.0129,33.1296,-11.7232,20.8972,-22.207,-19.8781,
-3.5679,6.6262,-213.5575,32.11,-4.587,3.5679,-55.5555,27.0134,15.8002,23.9551,-18.8585,7.6453,-20.8968,-23.9551,
-0.50956,8.6644,-198.5575,47.11,0.50956,-3.5679,-45.3619,33.1291,30.8002,38.9551,-15.8002,22.6453,-29.0521,-24.9747,
3.0578,-3.0578,-183.5575,34.6582,6.1162,-18.5679,-32.6195,37.7166,45.8002,43.8332,-3.0578,37.6453,-22.4259,-26.5034,
-3.5679,-17.8384,-188.0728,20.8977,6.6262,-33.5679,-36.1874,24.9752,38.2266,33.13,3.5679,25.9943,-11.7228,-30.0712,
-10.7036,-16.8193,-188.0728,28.0325,8.6644,-38.2261,-42.3036,18.8585,27.0134,42.304,4.587,21.9168,-4.587,-25.9933,
-5.097,-7.1353,-181.4475,34.6582,16.3093,-23.4455,-37.7166,32.62,36.6974,41.794,5.097,30.5808,-9.1745,-23.4455,
-4.0774,-4.0774,-177.3701,33.6386,4.0774,-18.349,-38.7362,39.7553,41.7935,49.9484,8.1549,25.4838,-20.3877,-25.4842,
-1.0196,-1.0196,-166.1569,36.6974,-8.1549,-11.2132,-34.6582,44.8523,47.9106,64.9484,23.1549,34.6582,-5.3877,-10.4842,
-6.6262,-16.0196,-169.7243,21.9159,0.50956,-15.8002,-38.2261,34.1492,33.1291,49.9484,8.1549,34.1492,-0.50956,-25.4842,
8.3738,-17.8389,-159.5307,28.032,15.5096,-20.8972,-30.0712,39.2452,35.1678,45.3619,-6.8451,31.0904,-8.6649,-40.4842,
14.2713,-15.2909,-154.9439,37.7168,30.5096,-35.8972,-32.6198,38.7359,32.6193,60.3619,-17.3296,34.6585,-14.2713,-54.0266,
12.2323,-16.3098,-153.9241,40.7744,38.7362,-50.8972,-28.5421,32.6195,17.6193,58.1042,-12.2323,38.7362,-16.3098,-55.0459,
22.4264,-26.5034,-146.7888,30.5813,49.9494,-65.8972,-13.5421,23.4455,8.1549,43.1042,-16.3098,23.7362,-8.1549,-70.0459,
31.5999,-41.5034,-135.5761,25.4842,64.9494,-80.8972,-9.1745,12.2318,20.3867,42.8131,-11.2132,8.7362,6.8451,-85.0459,
21.407,-50.9682,-137.6146,22.4262,61.1623,-95.8972,-24.1745,10.1938,24.4644,57.8131,-10.1938,-6.2638,18.3487,-92.7622,
6.407,-54.5364,-146.2792,8.6649,46.1623,-105.5044,-39.1745,7.6448,9.684,50.4584,-25.1938,-3.5674,3.5674,-86.1363,
7.6448,-51.478,-143.2209,8.6649,35.1678,-90.5044,-37.207,14.7806,0.51004,36.1879,-18.8585,0.51004,-0.51004,-89.1946,
8.6644,-45.3614,-141.1822,16.8193,43.3232,-90.2137,-29.0516,22.936,3.5679,28.0325,-3.8585,-0.50956,-6.6252,-84.0976,
14.2706,-32.62,-131.4982,28.5421,47.9102,-92.7625,-28.5426,20.3872,9.174,40.7744,3.0583,-3.0583,-17.3289,-81.5493,
29.2706,-20.3872,-119.2654,38.7366,45.8714,-82.5684,-29.5612,26.5043,7.1362,54.0263,-5.0961,-2.0387,-2.3289,-72.3748,
16.8193,-33.1296,-123.8533,27.0134,40.2648,-91.2333,-36.1879,21.9159,3.5679,44.3423,-20.0961,-3.5679,8.6644,-77.9819,
5.6071,-48.1296,-121.8141,20.8968,39.2457,-104.4848,-35.1678,15.8002,16.8193,36.1874,-24.9742,3.5679,-3.5679,-92.9819,
-0.50956,-54.5364,-119.7759,17.8384,34.1482,-100.4078,-42.304,14.7801,12.7419,25.9933,-24.9747,6.6252,0.50956,-77.9819,
-7.6453,-58.6138,-109.5818,17.8384,36.1874,-94.2912,-45.3619,20.8968,15.8002,40.9933,-24.9747,10.7036,7.6453,-62.9819,
-0.50956,-55.5555,-94.5818,29.0521,50.4584,-87.1559,-30.3619,34.1487,30.8002,55.9933,-14.7806,21.9164,0.50956,-61.6716,
1.5292,-50.4584,-101.4269,19.8772,37.207,-96.3299,-31.0908,23.9556,37.207,51.4776,-13.7615,8.6649,-1.5292,-66.7687,
13.2514,-35.4584,-94.8012,22.4254,28.5421,-96.8399,-41.7945,15.2906,22.207,36.4776,-14.2715,-6.3351,13.4708,-51.7687,
21.4068,-26.5034,-79.8012,37.4254,42.8131,-86.6458,-34.6582,20.3877,10.1936,36.6974,-17.3294,-10.1936,17.3294,-47.9102,
16.8193,-24.9742,-74.9231,38.2266,41.2849,-81.0392,-35.1678,30.0717,12.7419,43.3232,-14.7806,-4.587,4.587,-57.5942,
13.2519,-14.271,-71.3557,30.5808,33.6391,-79.5106,-40.7749,31.5999,2.0387,32.62,-2.0387,-8.1554,12.2318,-54.0263,
4.587,-29.271,-66.7687,22.935,37.2065,-85.1172,-44.3428,19.8776,8.6644,28.0325,-4.587,-18.8585,8.6644,-69.0263,
1.5287,-44.271,-65.7491,17.8384,43.3232,-85.1172,-47.4006,22.936,14.7811,20.8968,-1.5287,-8.6649,18.8585,-79.001,
1.5292,-47.4006,-65.7491,7.6448,37.207,-95.3108,-51.478,19.8772,-0.21892,10.7032,3.5674,-16.8198,33.8585,-64.001,
7.1353,-39.7553,-50.9685,19.3676,43.8322,-86.6463,-37.7166,18.3485,5.097,24.4642,-5.097,-19.3681,31.5999,-64.2204,
-2.5485,-43.3229,-54.5361,25.994,44.343,-89.1944,-48.42,16.82,9.6843,27.0132,-20.097,-4.3681,16.5999,-70.8459,
-2.0387,-50.9685,-54.0268,17.3294,37.7166,-104.1944,-54.0268,23.445,2.0387,24.4642,-16.3102,10.6319,4.077,-55.8459,
6.6257,-35.9685,-47.4001,22.9364,32.1104,-89.1944,-43.3227,23.9556,-3.5674,27.0139,-1.5292,1.5292,7.6458,-40.8459,
0.51004,-20.9685,-41.2844,33.1296,27.0129,-74.1944,-48.4197,21.9164,-12.7424,24.9747,-12.7424,14.7806,9.684,-33.1296,
-0.50956,-5.9685,-28.0325,32.11,22.936,-59.1944,-58.6133,34.1492,-24.9742,23.9551,-21.9164,29.7806,13.762,-18.1296,
11.213,-18.3487,-17.3291,32.6202,25.4845,-50.9682,-48.9295,36.6977,-12.2326,29.5619,-11.213,25.4845,28.762,-12.2326,
-2.5478,-29.0516,-17.8389,22.936,21.9168,-60.652,-47.4006,24.9742,0.50956,38.2266,-0.50956,10.4845,43.762,-27.2326,
-10.1936,-37.7166,-10.1936,12.2328,13.2519,-71.3557,-53.0067,30.5808,9.1745,51.9881,0,0,35.6783,-42.2326,
-2.5483,-52.7166,-2.5483,2.5483,7.6453,-80.0201,-54.5359,22.936,6.6262,46.3815,-10.7032,4.587,27.0134,-57.2326,
-6.1162,-56.065,10.1936,7.1362,14.271,-73.3939,-54.0263,7.936,-6.1162,35.6783,-18.3485,8.1554,30.5818,-51.9876,
-7.1353,-48.9293,25.1936,20.3877,14.271,-72.3748,-57.0846,21.4068,-6.1162,39.7558,-18.3485,6.1162,15.5818,-50.9685,
1.5287,-57.5942,27.0134,16.8193,3.5679,-80.0201,-67.7878,29.0516,-1.5287,43.3232,-15.8002,7.6453,0.58177,-45.3619,
0.51004,-45.3619,36.1879,15.8007,-0.51004,-71.8652,-72.8848,14.0516,-15.7997,34.1487,-20.8972,10.7032,5.6066,-31.0908,
-8.6644,-30.3619,51.1879,25.9943,8.6644,-56.8652,-63.7104,23.9551,-17.8389,35.1683,-20.8968,16.8193,13.762,-25.9938,
-9.1742,-39.755,66.1879,24.4654,17.3296,-67.278,-62.181,33.6394,-7.1355,50.1683,-18.3482,14.2713,7.1355,-40.9938,
-10.1936,-53.0067,67.2787,17.3294,15.2911,-82.278,-64.2199,21.4068,-10.1936,56.0655,-11.2127,10.1936,19.3686,-55.9938,
-17.8389,-57.5942,72.8848,3.5674,8.6649,-80.0201,-65.7491,27.0129,-15.8002,41.2844,-3.5674,6.6257,34.1487,-50.4589,
-24.4646,-63.2008,87.8848,0,7.1353,-71.3557,-67.2782,41.794,-8.1549,42.8131,0,21.6257,29.5617,-35.4589,
-31.6002,-60.1422,102.8848,11.213,-5.0968,-76.4525,-70.3363,30.581,-5.0968,57.8131,5.0968,36.6257,26.5036,-25.484,
-26.5031,-56.0648,116.2082,12.233,-1.0194,-73.3942,-62.181,21.407,-7.1355,62.1814,1.0194,22.4262,18.3487,-34.658,
-11.5031,-45.8714,131.2082,21.4068,13.9806,-59.1229,-47.181,36.407,-7.1353,50.968,-9.174,13.2519,4.0774,-29.5617,
-3.5679,-40.2648,146.2082,19.8776,28.9806,-74.1229,-58.6138,32.11,-22.1353,35.968,-17.8389,3.5679,5.6061,-33.1296,
5.0966,-26.5029,161.2082,19.3681,38.7362,-89.1229,-63.2003,17.11,-37.1353,20.968,-5.0966,7.1358,20.6061,-20.3872,
5.097,-33.6391,176.2082,16.3093,39.7548,-81.5493,-59.1234,23.445,-41.794,5.968,-9.1745,22.1358,12.2318,-5.3872,
2.5483,-28.0325,191.2082,21.9164,41.2844,-68.8069,-63.7104,27.0129,-41.284,-9.032,-7.6448,37.1358,9.684,-2.5483,
1.5287,-23.9556,206.2082,18.8585,35.1683,-83.0784,-75.9432,14.7801,-43.3232,-21.9168,-0.50956,22.1358,24.684,-17.5483,
7.6453,-38.9556,221.2082,16.8193,47.4006,-93.272,-60.9432,25.9943,-30.0712,-6.9168,-4.587,7.1358,33.1291,-32.5483,
5.6064,-53.9556,236.2082,10.7034,36.1872,-101.4267,-55.5552,28.0323,-32.1102,8.0832,-19.587,-5.6064,18.1291,-47.5483,
4.587,-55.555,251.2082,7.6453,21.1872,-101.4269,-70.5552,15.8002,-47.1102,-4.587,-22.9355,9.3936,4.587,-43.3227,
6.6257,-40.555,266.2082,15.8007,36.1872,-86.4269,-77.9814,22.9364,-48.4197,-10.7032,-7.9355,14.7806,19.587,-30.0712,
2.5483,-39.2457,281.2082,20.8968,51.1872,-83.0784,-62.9814,35.1683,-33.4197,-2.5483,-6.6257,17.8394,31.0908,-36.1874,
-12.4517,-53.5168,294.0876,5.8968,38.2261,-98.0784,-70.8456,20.8972,-24.9742,5.6066,-4.587,9.684,21.9164,-51.1874,
-15.8007,-51.478,300.2033,1.5292,24.9747,-102.4465,-85.8456,7.6448,-37.207,9.684,7.6448,-1.5292,7.6448,-58.6138,
-4.0774,-44.8518,311.9266,8.1549,31.6004,-87.4465,-81.5493,8.1549,-44.8518,3.0583,-3.0583,6.1166,7.1358,-43.6138,
-2.5483,-48.4197,320.5905,2.5483,23.9556,-87.1559,-73.904,14.7806,-33.1291,7.6458,-7.6453,18.858,12.7424,-39.2452,
-17.3298,-56.0655,335.3711,-4.0774,20.3872,-91.7434,-76.4527,10.1931,-38.7362,12.2323,4.0774,6.1157,18.348,-54.2452,
-18.3485,-56.065,347.6044,-1.0191,30.5813,-88.6846,-82.5684,8.1549,-50.968,4.0774,1.0191,5.0966,28.5421,-58.1038,
-12.7424,-57.5942,349.1326,5.6066,30.0712,-88.1755,-86.1368,19.8772,-35.968,4.5875,-4.5875,18.858,24.9747,-43.1038,
-18.3485,-60.1425,353.7201,4.0774,22.4264,-91.7429,-82.5689,23.4455,-20.968,12.2323,-4.0774,18.349,14.2715,-35.6778,
-13.7615,-52.4976,368.7201,4.5875,31.0904,-83.0784,-73.904,18.858,-7.6453,23.9546,-4.5875,10.7032,27.0129,-28.0325,
-9.1745,-46.8906,377.1651,2.0387,16.3102,-85.6267,-83.588,11.2127,-2.0387,22.4259,-4.077,9.1745,25.4842,-13.0325,
-19.3676,-56.065,372.0685,-4.0779,1.3102,-94.8012,-89.7042,8.1544,12.9613,7.4259,-7.1353,14.271,10.4842,1.9675,
-22.936,-62.6912,384.8104,-2.5483,10.7032,-92.2524,-81.0397,12.7424,27.9613,-7.5741,-17.8389,2.5483,6.6257,9.684,
-7.936,-54.5364,399.8104,3.5679,13.761,-88.175,-84.0976,10.7036,42.9613,-2.5488,-18.8585,-12.4517,9.6836,2.5488,
-4.0774,-42.8131,414.8104,1.0191,6.1166,-88.6846,-93.7816,1.0191,57.9613,-1.0191,-21.4068,-14.2706,8.1549,4.0774,
-17.3294,-42.8131,418.9596,-1.0196,5.097,-99.8978,-90.7233,1.0196,70.3361,4.0779,-30.5808,-13.2519,17.3294,18.3485,
-24.9742,-46.381,421.5084,-1.5292,1.5292,-105.5044,-95.3103,2.5483,62.6917,9.684,-20.8968,-23.9551,29.0521,29.0521,
-20.3872,-37.7166,424.0566,-1.0191,12.2323,-90.5044,-97.859,1.0191,57.0851,9.174,-9.174,-17.3289,29.5622,41.7945,
-20.8968,-41.284,432.7211,-1.5287,27.0134,-79.0005,-93.2716,-0.50956,59.6329,12.7419,-24.174,-2.3289,21.9168,42.304,
-27.0129,-56.284,443.9343,-0.50956,28.0325,-94.0005,-94.2912,-2.5478,59.6329,23.9551,-24.9742,0.50956,20.8977,43.3232,
-21.4063,-62.1812,449.5404,5.0966,17.3298,-92.762,-94.8007,-8.1549,54.0268,16.3098,-9.9742,-5.0966,23.4455,56.065,
-15.8002,-47.1812,453.1083,7.6453,20.8968,-77.762,-83.0784,-0.50956,45.3624,1.3098,-5.6061,-12.7419,28.0325,63.7104,
-24.9742,-46.381,460.244,-1.5287,19.8776,-86.1363,-87.1559,5.6061,32.11,1.5287,-17.8384,-10.7036,25.9943,54.5364,
-33.1296,-56.5746,468.3984,-3.5674,4.8776,-101.1363,-98.3686,-7.6448,17.11,11.7232,-20.8972,3.5674,19.8781,47.4011,
-22.4259,-48.9293,483.1795,1.0196,11.2137,-86.1363,-86.6458,-10.1936,19.3686,7.1362,-10.1936,-1.0196,33.6391,56.0655,
-16.8193,-54.5359,496.941,-0.50956,25.9943,-76.9623,-82.0588,0.50956,24.9742,5.6061,-11.7228,-16.0196,43.3232,50.4589,
-16.3098,-69.5359,505.6054,-5.0966,21.4063,-91.9623,-89.7042,5.0966,17.3289,20.6061,-24.4646,-31.0196,37.717,35.6778,
-12.2323,-65.2395,520.6054,-3.0583,9.174,-96.8399,-83.588,3.0583,12.2323,26.5038,-31.6004,-28.5421,39.7553,25.4838,
-20.3872,-60.1425,530.0701,-1.0191,4.0774,-91.7429,-84.6071,1.0191,12.2323,11.5038,-26.5034,-13.5421,39.7553,29.5622,
-23.9546,-57.5937,534.6575,-1.5292,9.684,-84.0976,-94.2912,-2.5483,12.7424,4.5875,-11.5034,1.4579,34.1487,44.5622,
-17.8389,-42.5937,547.909,-1.5292,13.7615,-76.9623,-85.1172,-9.684,12.7424,19.5875,1.5292,-13.5421,32.1104,40.2653,
-20.3867,-35.6778,557.5935,5.097,16.3102,-70.3361,-75.4331,-5.097,10.1936,21.4068,-10.1936,-26.5034,27.5234,29.5617,
-28.5421,-48.9293,559.6322,1.0191,8.1549,-72.3748,-90.4331,-6.1157,0,12.2323,-25.1936,-11.5034,21.4073,44.5617,
-18.858,-33.9293,572.3736,4.5875,5.6066,-70.8461,-103.4656,-4.5875,-8.6649,7.6448,-23.9556,3.4966,36.4073,59.5617,
-18.8585,-22.936,583.5873,5.6061,9.6836,-76.9623,-102.4465,-2.5488,-15.8002,7.6453,-30.0717,2.5488,46.3815,50.4589,
-19.3676,-37.936,598.5873,2.0387,22.4269,-70.3361,-88.6846,3.0588,-9.1735,22.6453,-36.697,-2.0387,37.7166,60.143,
-18.858,-45.3619,607.0323,1.5292,23.9546,-67.7883,-86.1368,4.5865,-6.6257,21.9164,-30.0717,-1.5292,37.207,56.5751,
-17.8389,-46.381,614.1681,0.51004,25.9938,-64.73,-83.0784,6.6257,-3.5674,21.9164,-22.936,-0.51004,37.207,53.5168,
-17.8384,-49.4393,620.2843,-0.50956,27.0134,-62.6912,-81.0397,7.6453,-1.5287,20.8968,-16.8193,0.50956,37.2065,50.4589,
-18.349,-51.9881,626.9095,-2.0392,28.5421,-61.1626,-79.511,7.1348,0,19.3671,-12.2323,0,35.6778,45.871,
-19.3681,-56.065,632.0065,-4.0779,28.5426,-60.143,-78.4914,7.1353,1.0196,16.3093,-7.1353,-1.0196,33.6391,40.7749,
-20.3877,-59.1238,637.1031,-7.1362,28.5416,-59.1238,-77.4723,7.1353,2.0387,14.271,-2.0387,-2.0387,31.5999,35.6774,
-25.4847,-67.2787,641.181,-12.2323,25.4838,-62.1817,-80.5302,2.0382,0,8.1549,0,-5.0975,26.5029,27.523,
-21.9164,-58.6133,656.181,-0.50956,14.7811,-66.7682,-81.0392,6.6262,-1.5287,4.587,0.50956,-2.5478,34.1492,42.304,
-18.3485,-47.9102,671.181,3.0578,16.3102,-70.3361,-83.588,-3.0578,-10.1936,17.3294,5.097,-17.3294,36.6974,29.5617,
-14.7811,-41.2844,681.4459,0.50956,29.0516,-55.3361,-83.0784,2.5478,-0.50956,25.9933,-0.50956,-6.6262,30.0708,31.0908,
-17.8389,-48.4197,694.6978,2.5483,18.858,-57.5942,-86.1363,4.5875,-2.5483,10.9933,-15.5096,-7.6448,15.0708,32.1104,
-5.6066,-43.3232,709.6978,9.684,14.7806,-56.5751,-74.9236,4.5875,0.51004,-0.51004,-18.8585,-18.8585,17.8389,38.2261,
-7.1358,-43.8327,707.4401,2.0382,10.1931,-63.2008,-78.4914,-7.1358,-1.0191,11.2132,-3.8585,-24.4646,26.5038,37.7161,
-14.7806,-38.2266,708.9693,8.664,8.664,-56.5751,-85.1172,-1.5292,1.5292,18.858,-8.6649,-9.4646,25.9938,47.4001,
-20.3872,-35.6783,723.9693,7.1348,2.0382,-41.5751,-89.7046,0,-2.0392,3.858,-17.3298,5.5354,30.5803,59.1234,
-17.3289,-33.6386,737.0023,3.0583,0,-38.7357,-77.4714,-1.0191,0,2.0392,-6.1157,2.0392,44.8528,50.9685,
-16.8188,-38.2261,736.4923,2.5483,7.6458,-53.7357,-65.7491,-2.5483,5.6066,17.0392,-10.7032,-12.9608,39.2462,35.9685,
-5.0966,-33.6391,743.118,15.2906,19.3681,-45.8714,-63.2008,-1.0191,1.0191,23.4455,-9.174,-15.2906,36.697,39.7553,
-11.2127,-30.5808,741.0793,14.271,12.2328,-32.619,-78.2008,1.0196,-13.9809,8.4455,-11.2127,-1.0196,43.8332,50.969,
-17.8389,-21.9164,751.7829,7.6458,18.858,-30.0712,-87.1559,5.6066,-14.7806,13.7615,-13.7615,-5.6066,56.5751,47.4011,
-8.6644,-16.8193,766.7829,7.6453,23.9551,-29.0516,-79.001,0.50956,-6.6262,18.8585,-0.50956,-0.50956,43.3232,47.4006,
-9.6845,-29.0526,778.2853,-4.587,8.9551,-31.0908,-89.1951,-13.762,-21.6262,4.587,7.6453,6.6252,28.3232,42.3031,
-5.6066,-28.032,788.4799,-2.5483,6.6257,-35.1678,-82.0588,-11.7223,-23.9546,8.6649,2.5483,3.5684,28.033,39.2462,
0.51004,-23.9546,803.4799,9.684,21.6257,-38.2261,-67.0588,-8.6649,-8.9546,15.8007,-5.6066,-0.51004,43.033,45.3619,
-5.6071,-29.0521,817.0214,11.7228,33.1291,-37.207,-54.5364,-0.50956,0.50956,24.9742,-0.50956,-5.6071,45.3614,40.2648,
-13.2514,-38.7357,820.5903,0,18.1291,-42.8131,-69.5364,3.0583,-10.1931,25.4847,0,-16.3098,30.3614,27.523,
-10.7032,-39.2452,833.3317,-4.5865,20.8972,-39.2452,-70.8456,1.5292,-21.9164,18.859,-1.5292,-1.3098,45.3614,42.523,
-17.8389,-37.2065,846.5841,-1.5292,33.1296,-33.1291,-58.6133,1.5292,-19.8772,17.8389,-2.5483,13.6902,60.3614,57.523,
-18.858,-39.2452,855.7581,-3.5674,31.0913,-30.0712,-66.7682,1.5292,-9.684,15.8007,5.6066,-1.3098,45.3614,56.5751,
-5.6066,-43.3227,867.9904,-7.6448,32.1104,-22.9355,-63.7104,6.6257,-8.664,5.6066,16.8198,-16.3098,45.3619,41.5751,
-4.0774,-46.8906,875.6353,-9.174,32.6195,-34.6582,-57.0846,4.0774,-18.3485,8.1549,5.0966,-31.3098,60.3619,30.5813,
-8.1554,-37.7166,890.6353,-2.0387,35.6774,-40.7749,-53.0072,5.097,-6.1162,23.1549,2.0387,-16.3098,63.2003,37.7166,
-10.1936,-40.7744,905.6353,-2.0387,29.5617,-34.6582,-60.1425,-1.0196,-13.2519,23.446,1.0196,-1.3098,48.2003,49.9489,
-2.5483,-37.2065,920.6353,6.6257,23.9556,-31.0904,-59.6324,-1.5292,-28.2519,8.446,1.5292,-4.5865,45.3619,51.4785,
-13.2524,-37.717,923.5454,8.1549,12.2323,-39.7558,-64.2204,0,-25.4847,6.1157,0,-19.5865,45.871,36.4785,
-27.523,-47.9102,933.739,1.0196,4.0779,-37.7166,-67.2782,2.0387,-17.3294,19.3676,-1.0196,-30.5808,35.6783,43.8332,
-17.3289,-45.8714,948.739,-4.0774,3.0583,-27.523,-63.2008,1.0191,-30.5808,19.3681,-1.0191,-15.5808,29.5622,58.8332,
-5.6061,-35.1678,963.739,0.50956,12.7419,-36.1874,-59.6324,-0.50956,-31.0904,7.6453,3.5679,-8.6644,40.2648,59.6329,
-15.8007,-50.1678,978.739,5.6061,18.8576,-51.1874,-54.5364,-3.5679,-22.936,8.6644,3.5679,-23.6644,44.3423,44.6329,
-19.3686,-62.1817,993.739,9.1735,6.1162,-66.1874,-61.1626,-6.1162,-37.936,10.1936,11.2127,-14.271,38.7357,44.8514,
-15.8002,-47.1817,1008.739,17.8394,-3.5679,-51.1874,-76.1626,-6.6262,-52.4972,3.5679,14.7811,0.72896,30.0717,59.8514,
-19.8772,-32.1817,1023.739,15.8007,-4.5875,-36.1874,-80.0201,1.5292,-52.4972,-1.5292,3.5674,-10.7032,25.9938,74.8514,
-15.2906,-17.1817,1019.3657,15.2906,-15.2906,-21.1874,-67.2782,16.5292,-45.8714,3.0583,-3.0583,-16.3098,32.6195,89.8514,
-21.9164,-2.1817,1004.3657,7.6448,-30.2906,-6.1874,-81.0397,12.7414,-60.8714,-2.5483,-13.7615,-1.5292,21.9164,104.8514,
-30.5808,7.1353,989.3657,-2.0387,-45.2906,8.8126,-95.8203,5.097,-71.3557,-5.097,-19.3676,2.0387,18.3485,119.8514,
-32.11,-7.8647,974.3657,5.6061,-50.4584,23.8126,-89.1946,13.762,-59.6329,4.587,-15.8002,-4.587,17.8394,134.8514,
-39.2457,-22.8647,959.3657,4.5875,-61.6716,33.1296,-91.2333,8.6649,-52.4976,4.5875,-20.8972,-4.5875,6.6257,149.8514,
-33.6386,-15.2906,944.3657,1.0191,-54.0263,48.1296,-90.7238,1.0191,-59.1234,-1.0191,-26.5038,5.0966,5.0966,164.8514,
-18.6386,-0.29064,929.3657,16.0191,-43.8332,63.1296,-81.5498,12.2323,-71.3557,-4.0774,-21.4073,0,14.2706,179.8514,
-19.3676,2.0387,914.3657,26.5034,-46.891,63.2003,-82.5689,17.3294,-67.2782,-2.0387,-23.445,-4.0779,16.3102,194.8514,
-16.3102,2.0387,899.3657,19.3676,-51.9881,48.2003,-84.6081,5.0961,-65.24,-11.2137,-33.6391,-2.0387,18.3485,209.8514,
-6.6257,6.6257,884.3657,14.7806,-49.4393,55.556,-85.1167,6.6257,-73.904,-26.2137,-23.9546,-13.7615,29.0521,224.8514,
-10.1941,10.1931,869.3657,15.2906,-49.9494,62.1807,-93.7821,7.1358,-71.3557,-11.2137,-10.1941,-24.4646,30.5803,239.8514,
-15.2906,4.0774,854.3657,13.2514,-51.9876,47.1807,-100.9174,-4.0774,-65.2395,3.7863,-15.2906,-19.3681,15.5803,254.8514,
-11.7232,-6.6257,839.3657,15.7997,-43.3232,32.1807,-89.1946,-1.5292,-58.6138,1.5292,-13.7615,-4.3681,6.6257,269.8514,
-18.349,-5.0966,824.3657,17.3289,-36.6974,44.8518,-79.5106,4.0774,-54.0263,-13.4708,-4.0774,10.6319,21.6257,254.8514,
-27.0134,-1.5287,809.3657,12.7419,-39.2457,53.5172,-77.9814,5.6061,-44.3423,-7.6453,1.5287,25.6319,31.0908,239.8514,
-32.6195,-15.2902,794.3657,10.1936,-41.794,39.7558,-72.3748,13.2519,-30.5808,1.0196,1.0196,10.6319,24.4651,224.8514,
-38.2261,-24.9742,779.3657,15.8002,-39.2452,34.1492,-67.7878,16.8193,-32.11,0.50956,-0.50956,1.5296,25.9943,209.8514,
-32.6195,-9.9742,764.3657,15.2902,-38.7357,43.8332,-71.3557,12.2328,-46.8906,1.0196,-1.0196,10.1936,32.62,194.8514,
-23.9551,-0.50956,749.3657,7.6453,-41.2844,36.1874,-73.904,12.7419,-56.5746,-8.6644,0.50956,11.7228,30.0717,179.8514,
-23.9551,-4.587,734.3657,8.6644,-45.3619,35.1683,-74.9236,18.8585,-59.6329,-17.8384,4.587,12.7419,29.0516,164.8514,
-18.8585,-0.50956,719.3657,20.8968,-53.5168,50.1683,-76.9623,18.8585,-62.6908,-7.6453,2.5488,0.50956,23.9551,149.8514,
-3.8585,14.4904,704.3657,35.8968,-48.9298,58.1038,-72.3753,21.4068,-59.1234,-2.0387,2.0387,-2.0387,18.3485,134.8514,
-11.2132,23.4455,689.3657,36.697,-45.8719,46.891,-77.4718,12.2323,-62.1817,-17.0387,-8.1549,8.1549,16.3098,119.8514,
-14.2715,26.5038,678.8981,33.6386,-41.794,53.0067,-77.4718,14.2715,-50.9685,-17.3289,-17.3289,23.1549,22.4264,104.8514,
-14.7811,17.8394,671.2527,35.1683,-52.4972,54.5364,-84.0976,14.7811,-37.207,-12.7419,-21.9159,19.8776,12.7419,89.8514,
-7.6453,16.8193,665.1361,44.3423,-38.2261,52.4972,-69.8265,22.936,-22.207,-2.5488,-6.9159,4.8776,27.0134,74.8514,
-20.8972,9.684,653.9234,29.3423,-40.2648,38.2261,-71.8652,10.7032,-7.207,-9.684,-5.6066,-9.684,28.033,59.8514,
-29.0516,5.6071,648.8263,14.3423,-48.4197,42.304,-79.001,1.5287,7.793,-14.7811,-7.6453,-1.5287,27.0134,44.8514,
-29.0516,0.50956,640.6715,7.6453,-48.4202,44.3423,-74.9236,-0.50956,22.793,-20.8968,4.587,-16.5287,42.0134,29.8514,
-25.4842,-1.0196,629.9683,12.2328,-43.8327,39.7558,-63.2003,3.0578,37.793,-11.2127,1.0196,-21.4068,53.0072,14.8514,
-37.7161,-1.0191,618.7556,2.0392,-50.9685,35.6778,-69.317,1.0191,42.8136,-2.0392,-11.2132,-6.4068,38.0072,-0.14865,
-46.891,7.1358,614.6772,-1.0191,-58.1042,34.6587,-82.5689,-2.0392,44.8518,1.0191,-7.1358,8.5932,25.4838,-15.1486,
-43.8327,3.0583,609.5816,0,-60.1425,36.6979,-90.7233,-4.0774,59.8518,1.0201,-5.0966,0,30.5813,-30.1486,
-35.1683,2.5478,614.1676,0.50956,-56.5751,46.3805,-87.1564,-0.50956,64.7295,-9.6845,-11.7228,5.6061,31.0899,-45.1486,
-36.697,14.2706,624.8713,10.1931,-55.0459,34.6587,-83.588,-3.0583,49.7295,-19.3681,-20.3872,3.0583,27.523,-46.891,
-28.033,29.2706,628.4387,21.9164,-46.381,42.3036,-74.9236,1.5292,35.1678,-4.5875,-17.8389,-1.5292,40.2644,-42.3036,
-28.0325,40.2648,622.3235,7.6453,-51.478,57.3036,-89.9236,0.50956,33.13,-9.6836,-32.8389,-0.50956,31.0908,-37.2065,
-25.9943,55.2648,633.5357,3.5679,-50.4589,72.3036,-102.4465,-3.5679,18.8585,-20.8968,-47.4006,9.6836,16.0908,-33.1291,
-10.9943,70.2648,647.8072,18.5679,-36.1874,87.3036,-88.175,-2.5488,23.9551,-8.6644,-32.4006,2.5488,23.9551,-30.0717,
-8.1549,83.588,652.3942,22.4264,-30.5813,98.8786,-80.5297,-1.0191,18.349,1.0191,-20.3872,-12.4512,37.717,-45.0717,
-6.6257,84.098,656.9817,17.8389,-27.0129,103.4661,-83.078,2.5483,3.5684,-2.5483,-23.9546,-17.8389,35.1688,-56.5746,
4.0774,91.7429,654.4334,13.2514,-31.6004,88.6846,-88.6846,-4.0774,-5.0966,-8.1549,-19.3681,-2.8389,26.5038,-41.7935,
2.5483,94.2912,656.9817,13.7615,-34.1487,92.2529,-82.0588,-6.6257,-2.5483,-5.6066,-20.8972,12.1611,28.033,-41.2844,
-6.1166,99.8978,668.704,20.3872,-28.543,106.0134,-77.4723,0,0,1.0191,-35.8972,-2.8389,20.3872,-56.2844,
0.50956,98.3681,676.3493,20.8968,-36.1874,99.3882,-86.1368,-0.50956,1.5287,-0.50956,-33.13,-17.8389,7.6453,-71.2844,
11.7228,95.3108,683.4851,22.936,-36.1874,95.3108,-83.0784,-0.50956,0.50956,-15.5096,-25.9943,-10.7036,22.6453,-60.6525,
9.6836,97.349,691.6399,31.0908,-25.9943,102.4465,-69.8265,4.587,-4.587,-28.0325,-40.9943,-18.8585,37.6453,-66.7687,
6.1166,82.5689,698.2661,31.6004,-23.4455,99.8978,-66.2586,9.174,-6.1166,-31.6004,-44.8523,-33.8585,23.4455,-74.4135,
6.6262,69.827,707.9497,29.0516,-17.8384,100.4073,-54.5359,15.8002,-6.6262,-19.8776,-29.8523,-20.8968,30.0717,-59.4135,
4.5875,73.904,706.9301,32.1104,-16.8198,101.4269,-46.381,13.7615,-21.6262,-4.8776,-27.0129,-5.8968,45.0717,-48.4197,
-6.1166,64.2199,701.3235,26.5029,-31.8198,90.7238,-61.381,0,-34.6587,0,-36.697,3.0583,35.6778,-42.8136,
-21.1166,49.2199,705.4019,14.2715,-46.8198,78.4914,-76.381,-5.0966,-31.6004,5.0966,-29.5612,15.2906,24.4646,-34.6587,
-36.1166,34.2199,701.8335,9.684,-53.5168,70.8456,-90.2137,-2.5483,-24.9747,2.5483,-29.0521,12.7424,24.9747,-47.4001,
-25.4842,29.5617,709.4789,21.4068,-45.8719,65.2395,-78.4914,-1.0196,-11.2137,1.0196,-24.4651,3.0578,30.5808,-62.4001,
-10.4842,24.4646,724.4789,33.6386,-38.7362,54.0268,-66.2586,0,0,11.2132,-9.4651,-6.1166,27.523,-71.3557,
-7.6448,29.0521,739.4789,36.1879,-42.3036,56.5751,-61.6716,7.6448,-6.6257,4.5875,-4.5875,-16.8198,32.1104,-63.7104,
-2.0387,44.0521,754.4789,49.9489,-27.5234,71.5751,-47.9106,22.4259,-9.1745,-10.4125,2.0387,-18.3485,47.1104,-49.9494,
2.0387,50.969,752.2925,50.969,-12.5234,85.6267,-54.0263,20.3877,-15.2902,-13.2519,-2.0387,-6.1162,62.1104,-42.8131,
-12.9613,35.969,737.2925,35.969,-23.446,70.6267,-69.0263,5.3877,-30.2902,-2.0387,-17.0387,3.0578,47.1104,-55.0464,
-27.9613,22.9355,739.5506,24.9747,-38.446,67.7883,-61.6716,1.5292,-34.1487,-1.5292,-30.0712,1.5292,32.1104,-51.478,
-26.5034,22.4259,742.0984,27.5225,-36.6974,64.2204,-61.1621,1.0196,-28.5426,-1.0196,-28.5426,2.0387,29.5617,-50.9685,
-23.445,20.3877,745.1567,29.5617,-34.6582,60.143,-61.1621,1.0196,-23.445,-1.0196,-27.5225,2.0387,29.5617,-50.9685,
-18.858,19.8772,748.7246,32.1095,-32.1104,56.5751,-60.6525,0.51004,-17.8389,-0.51004,-25.9938,2.5483,31.0904,-50.4589,
-15.8007,18.858,751.7819,33.1296,-31.0904,52.4976,-59.6329,0.51004,-13.7615,-0.51004,-23.9556,2.5483,32.1095,-50.4589,
-11.2132,18.349,754.3312,35.6778,-28.5421,48.9302,-59.1229,0,-8.1549,0,-22.4254,3.0583,33.6396,-49.9489,
-6.6262,16.8193,758.9182,39.2457,-25.9933,44.3423,-57.5942,0.50956,-1.5287,-0.50956,-19.8776,3.5679,34.1492,-51.478,
5.0966,20.3872,753.3111,43.8327,-20.3872,56.065,-53.0072,7.1358,-12.2323,-10.1941,-5.0966,-5.0966,43.8327,-44.8523,
3.0578,19.3676,747.1949,43.8322,-18.3485,57.0846,-40.7749,22.1358,-14.271,-3.0578,-7.1353,-5.097,47.9097,-33.6391,
-11.9422,4.3676,746.1758,39.7558,-25.4842,42.0846,-34.6582,18.3485,0.72896,1.0196,-20.3867,-16.3093,32.9097,-48.6391,
-23.4455,-10.1936,739.0401,40.7749,-29.5617,35.6774,-46.891,6.1162,9.1745,14.271,-6.1162,-8.1554,38.7357,-50.9685,
-24.9737,-2.5483,724.0401,33.1296,-34.1487,50.6774,-57.5937,9.684,-4.5865,18.859,1.5292,-1.5292,53.7357,-39.2452,
-24.4646,1.0191,715.595,28.5421,-39.7553,46.891,-44.8523,8.1549,-8.1549,14.2715,-13.4708,-1.0191,44.8518,-33.6386,
-25.9933,-1.5287,722.2212,36.1874,-43.3232,38.2266,-43.3232,1.5287,-11.7228,8.6644,-22.936,11.7228,29.8518,-35.1683,
-30.0712,-2.5483,708.9693,33.1296,-41.2844,45.3619,-56.5746,2.5483,-12.7424,13.7615,-7.936,13.7615,29.0521,-44.3423,
-28.5421,-8.1549,696.2269,27.523,-45.8719,38.7352,-57.0846,8.1549,-12.2323,17.3289,-4.0774,4.0774,29.5612,-46.891,
-25.9938,-8.6649,702.8527,32.1104,-44.3423,33.1296,-46.381,6.6257,-13.7615,16.8198,-6.6257,19.0774,14.5612,-31.891,
-29.0521,-4.5875,701.8335,29.0521,-35.1678,37.207,-46.381,-4.5875,-11.7223,15.8007,4.5875,22.9355,22.9355,-18.858,
-15.2906,0,695.2078,34.6587,-28.5421,34.6587,-45.8714,0,-8.1549,17.3298,10.1941,7.9355,37.9355,-33.858,
-4.0779,-8.1554,689.0917,46.8906,-26.5038,29.5617,-33.6391,12.2318,-2.0387,27.5225,2.0387,-7.0645,52.9355,-46.891,
-19.0779,-23.1554,674.0917,31.8906,-35.6778,20.3872,-43.8327,1.0191,-14.2706,19.3681,1.0191,-1.0191,37.9355,-32.6195,
-34.0779,-38.1554,659.0917,16.8906,-42.8136,17.3289,-58.8327,-8.1549,-26.5038,10.1941,8.1549,13.9809,24.4646,-20.3872,
-40.2648,-53.1554,644.0917,21.9159,-55.5555,12.7419,-53.5168,-3.5679,-18.8585,15.8002,3.5679,25.9933,36.1874,-20.8968,
-35.6778,-38.7362,629.0917,33.6391,-49.9489,14.271,-41.794,-1.0196,-7.1353,24.4651,1.0196,14.271,21.1874,-22.4259,
-30.5803,-23.7362,614.0917,29.5622,-34.9489,29.271,-42.8131,1.0191,-12.2323,26.5038,-1.0191,16.3098,23.4455,-20.3872,
-15.5803,-8.7362,599.0917,31.0899,-19.9489,41.284,-46.3815,0.50956,-27.2323,11.5038,-16.0191,10.7027,38.4455,-18.8585,
-0.58031,6.2638,588.1743,44.8528,-4.9489,39.7553,-36.697,0,-42.2323,-3.4962,-27.523,-4.2973,36.6979,-21.4063,
14.4197,21.2638,573.1743,42.304,-3.5679,42.304,-28.0325,-2.5488,-49.4393,2.5488,-15.8002,-19.2973,21.9168,-36.4063,
15.2906,36.2638,559.6322,38.7362,-14.2706,42.8136,-31.6004,-8.1549,-45.8714,8.1549,-15.2906,-30.5803,29.5622,-51.4063,
21.9164,45.3619,559.1222,41.2844,-7.6458,39.2452,-23.9556,-2.5483,-43.3232,2.5483,-7.6458,-20.8972,37.207,-46.3815,
9.1745,32.62,544.3411,38.7357,-8.1554,29.5617,-28.5426,-1.0196,-48.9298,1.0196,-4.0779,-5.8972,22.4259,-31.3815,
2.5483,21.9164,529.3411,38.2261,-14.7806,31.0904,-41.2844,-5.6066,-54.5359,-0.51004,-7.6448,0.51004,19.8772,-24.9747,
5.097,15.2902,516.8181,28.5416,-6.1162,33.6391,-30.5808,-7.1353,-55.0459,-2.0387,2.0387,-4.0779,34.8772,-19.3686,
-8.6644,0.50956,512.2316,20.8968,-13.761,18.6391,-22.936,-12.7419,-49.4393,-0.50956,6.6262,10.9221,41.2849,-16.8193,
-10.7036,-5.6071,497.9601,31.0899,-28.0325,7.6453,-31.0908,-13.762,-38.2266,3.5679,5.6061,25.9221,26.2849,-3.5679,
2.0382,-5.0966,482.9601,31.6004,-24.4646,19.3681,-40.7744,-12.2323,-53.0072,-6.1166,1.0191,15.2906,11.2849,-1.0191,
5.0966,6.1166,467.9601,32.6195,-10.1931,34.3681,-34.6587,-9.174,-68.0072,-5.0966,5.0966,0.29064,17.3289,-6.1157,
-4.5875,14.7806,461.2627,44.3428,-2.5483,47.4001,-27.0129,-9.684,-62.6912,-2.5483,6.6257,-1.5292,32.3289,1.5292,
-1.0191,15.2906,454.6369,51.9876,-2.0382,37.717,-25.4838,-7.1358,-50.9685,-17.5483,-1.0191,7.1358,41.7945,1.0191,
3.5679,11.7228,439.6369,46.3805,-6.6262,34.1482,-25.9943,-3.5679,-53.5172,-32.5483,4.587,-7.8642,40.2648,-13.762,
-2.0387,2.0387,424.6369,45.8714,-10.1936,36.6974,-22.4259,-5.097,-43.8332,-20.3877,19.587,5.097,48.9298,-8.1554,
-17.0387,-12.9613,409.6369,30.8714,-25.1936,21.6974,-37.4259,-20.097,-48.4202,-6.6257,34.1487,20.097,33.9298,6.6257,
-29.0521,-27.9613,394.6369,15.8714,-39.2452,7.6448,-46.381,-24.9747,-57.5942,-7.6448,20.8972,35.097,21.9164,21.6257,
-30.0717,-25.9943,379.6369,17.8384,-24.2452,11.7228,-31.381,-12.7419,-54.5364,-11.7228,13.761,49.4388,28.0325,14.7811,
-15.0717,-10.9943,382.2631,32.8384,-9.2452,19.3681,-16.381,0,-39.5364,-4.0774,24.4656,34.4388,43.0325,-0.21892,
-0.071724,-4.5875,375.6364,32.1095,-0.51004,21.9164,-20.8972,0.51004,-54.5364,-19.0774,11.7223,19.4388,43.3227,-9.684,
6.6257,2.5483,360.6364,40.2653,-2.5483,28.033,-23.9546,-3.5674,-69.5364,-34.0774,-2.5483,4.4388,36.1879,5.316,
