"AF3","AF4","F3","F4","F7","F8","FC5","FC6","O1","O2","P7","P8","T7","T8",
-0.72313,-16.1487,-3.6152,-247.0513,17.113,-243.1949,-118.8255,4.5795,-184.3846,0.72313,6.5077,3.6152,7.4716,2.6513,
7.033,-1.0798,2.3858,-246.3282,11.7474,-242.7032,-97.596,-0.9979,-183.4446,-6.0692,-2.5599,2.9163,1.7206,0.56405,
4.6829,-12.7048,-10.2906,-245.6485,4.7761,-242.241,-77.6403,4.3646,-175.8124,1.0439,3.8603,12.3823,-1.2747,3.9042,
2.2325,-0.1322,0.69119,-239.1046,18.5895,-235.4196,-78.2847,-0.47677,-151.1637,-1.1881,9.1725,-0.17097,12.9018,5.3574,
10.5347,-14.2243,-13.4503,-238.8583,4.8202,-235.3944,-87.6876,9.4338,-156.1938,5.3911,1.1503,6.8292,-1.9723,8.1694,
1.9489,-13.7325,-3.364,-211.3909,17.3054,-207.1707,-79.8955,2.3603,-135.976,-3.3685,8.5531,4.7322,10.9203,3.5815,
7.6163,1.1915,10.9379,-184.6074,14.3387,-180.6405,-61.0018,4.1466,-113.7174,-4.1305,-1.1189,-0.37222,-2.2682,-3.864,
6.6776,3.4098,-0.92589,-187.631,9.1403,-183.9021,-43.2417,10.165,-100.7481,9.133,1.8405,8.3274,-7.4345,-1.2218,
0.97406,9.9539,8.7704,-171.0705,22.5709,-168.5294,-37.0318,-1.5323,-108.2008,-1.5381,4.14,-4.7059,7.1115,-1.6307,
15.0156,-4.7433,-5.8558,-174.9063,14.4684,-172.5176,-48.9099,12.6596,-115.8087,7.713,0.035451,9.074,-3.5588,10.5185,
2.9072,-18.5587,-3.4556,-174.8965,19.8666,-168.7945,-60.0753,1.1745,-105.8472,-3.3549,2.4437,1.299,8.2242,1.2105,
8.9993,-3.3452,10.8518,-150.3027,16.7464,-144.5669,-42.3708,-1.7885,-85.3964,-4.1179,-2.5237,-2.1534,2.4281,-4.6467,
9.9054,1.7967,-0.042721,-127.1845,6.5828,-121.7929,-25.7285,7.9595,-66.1726,7.6986,-0.9262,9.0628,-9.7692,-0.99368,
2.3214,6.2684,8.8777,-105.4534,20.2879,-100.3853,-19.6051,-2.3997,-76.3022,-2.6451,3.7093,-5.581,4.917,-2.1391,
16.2821,-8.2077,-5.755,-113.2262,11.2371,-108.4622,-32.5288,11.8442,-85.8241,7.8773,-3.5033,6.9257,-0.31878,4.015,
4.8204,-21.8152,-13.7253,-120.5327,11.5272,-116.0544,-44.677,-0.79748,-94.7747,-0.79006,-1.3649,3.6176,2.1105,-1.5285,
4.2906,-6.4063,1.1982,-99.2007,13.0047,-94.9912,-27.8964,-5.3289,-74.9882,-4.84,-0.077738,-5.999,5.1173,1.6967,
1.6226,4.2215,-5.5014,-79.1487,-1.8756,-75.1917,-12.1226,2.2217,-56.3889,1.235,-0.073074,3.0376,-7.2408,0.14859,
2.0077,13.1272,8.9286,-60.2997,12.337,-56.5802,-4.6466,-6.1064,-49.5106,-5.5876,8.6084,-1.483,7.2936,-3.2348,
10.805,-1.7604,-5.7071,-70.7818,4.6071,-67.2854,-18.4678,4.1417,-60.64,2.7012,-1.3083,1.2573,-0.73672,-2.3176,
-3.9433,-15.7548,-19.1034,-80.6349,-2.4184,-77.3483,-31.4597,1.9653,-71.1016,1.575,3.1087,-0.74654,5.0923,-3.1426,
2.4394,-0.70951,-3.8572,-61.6968,4.2346,-58.6074,-15.4721,-3.2143,-52.7355,-4.0631,1.7169,-3.3528,6.4735,-1.7492,
5.9082,-7.5361,2.0383,-43.895,-6.8655,-40.9909,-4.5414,6.3788,-35.4714,6.0629,-2.0013,8.6587,-8.0149,0.043196,
-3.8461,3.2799,15.1726,-27.1613,6.8026,-32.024,-11.2586,-2.9223,-19.2431,-0.80863,7.0366,-3.1893,6.566,-4.057,
10.4847,-11.0169,0.16227,-39.6316,-4.4516,-44.2025,-24.683,4.2432,-32.1885,6.2295,2.5168,1.0997,-1.2995,-2.1261,
3.2274,-12.4043,-3.3422,-51.3537,-5.1486,-55.6504,-36.8199,1.5782,-44.3572,6.8199,4.7762,1.5159,-0.25747,-2.9626,
-0.58165,2.44,10.9584,-34.1725,-0.74187,-38.2114,-20.5107,-2.1319,-27.5958,-3.9532,1.8385,-6.5288,7.7122,-2.062,
7.8892,-11.8064,-3.7991,-18.0221,-12.0258,-21.8187,-33.3801,12.096,-15.094,10.384,3.8971,7.9629,-5.5252,6.9796,
-6.6842,2.8817,3.6596,-2.8408,-1.663,-6.4096,-23.6645,-2.7297,-11.2958,4.579,8.0023,2.7851,8.3039,-2.598,
1.7911,9.2163,-2.104,-16.7703,-13.8558,-20.125,-32.6089,3.2186,-24.7181,1.6527,-0.43202,-0.033534,-5.9327,-0.27296,
-1.4499,-2.6649,-1.2544,-29.8641,-14.7117,-33.0175,-16.5524,7.6048,-37.335,2.7584,9.4758,7.9222,-0.99744,4.8051,
-6.6653,10.0283,8.9435,-42.1723,-4.1882,-29.7107,-1.4593,-4.4204,-20.9949,-5.6016,7.4613,-4.6044,10.6318,-5.1244,
7.8346,-4.6734,-5.6931,-28.1934,-10.4443,-29.6154,-15.4717,9.9448,-33.8352,8.8345,2.9159,9.7718,-4.1061,5.0651,
-6.7355,9.707,6.5798,-12.4018,-5.479,-13.7384,-28.6432,3.2019,-27.4668,-5.0727,-1.597,-4.9145,0.35832,-3.4336,
2.587,23.2245,10.5236,-25.7577,-6.5967,-27.0141,-12.8246,6.3844,-34.0137,-4.2861,-4.8759,-3.8965,-4.4837,-0.81725,
-0.2198,12.0696,0.49169,-38.3122,-10.7802,-39.4933,2.0449,4.7961,-33.1779,1.0327,0.96026,5.7373,-4.4561,-1.0092,
0.99868,17.371,9.3803,-41.6775,3.9666,-33.1467,0.23497,-4.4098,-17.0873,-7.9473,5,-6.899,9.9113,-2.1539,
10.0973,2.2287,-5.2826,-53.2768,-6.274,-45.2579,-13.8791,9.9548,-30.162,4.0987,-0.12071,2.6735,-4.7834,1.8317,
-3.2827,-6.2202,-1.7116,-35.9802,3.0202,-28.4424,-19.9155,1.7652,-14.2523,-0.24482,9.7692,-0.62015,9.6036,-1.8934,
-0.91638,8.253,5.3807,-19.7214,-6.0788,-12.6359,-4.6206,-3.4021,0.70284,-6.2555,-2.1454,-7.0906,-0.010916,-6.8412,
-2.7898,10.2882,0.71931,-15.7663,-8.6064,-0.91099,9.7566,-1.27,14.7607,-3.9522,-0.57066,-4.2549,-0.49242,-5.4667,
-2.3815,7.9837,-2.4573,-13.1333,-9.7772,3.241,23.2712,1.9392,20.744,-0.099611,3.079,0.097792,0.26002,-2.4876,
-3.4432,3.8895,-6.889,-11.622,-11.8419,5.6981,32.8417,3.5108,18.7766,2.0758,4.5817,2.7437,0.0036828,-1.1333,
-3.478,1.487,-10.091,-9.7196,-13.3006,8.4895,29.184,5.9512,17.4089,5.0842,7.4398,6.194,0.24443,1.1039,
-3.9922,-0.77141,-12.6191,-7.4492,-14.1897,11.5953,25.7455,8.7272,16.6053,7.9127,9.645,9.4378,0.95266,3.2068,
-3.0296,-2.4126,-14.5132,-4.8333,-14.5437,14.9969,23.4776,11.8187,16.3319,11.535,13.1634,12.9687,1.6186,5.6657,
-13.6943,0.3835,-1.3502,-13.4611,0.42897,-0.0028764,7.969,-2.1466,1.252,0.47929,10.2042,-0.10127,13.8138,1.7106,
-3.2312,-13.7395,-15.3691,-26.7535,-8.1532,-14.1027,-6.6092,8.5875,-12.9232,10.0915,4.7717,10.5096,-0.51238,8.8388,
-9.0631,-27.0151,-22.2803,-39.2483,-1.6382,-27.3565,-20.3126,8.3135,-26.2478,12.6193,18.5854,15.4229,13.6184,13.8519,
-8.0374,-11.2942,-6.8434,-22.7934,-6.8425,-11.6151,-4.9939,-3.2726,-10.5729,1.2568,7.4679,0.39753,7.6196,4.3441,
0.63979,-4.4703,-8.9637,-7.3258,-9.8062,3.1818,9.4058,7.5289,4.1615,11.3045,8.4658,11.099,1.8595,6.0114,
-10.4856,3.5109,5.6742,2.0321,4.8822,7.4503,-5.2586,-5.9381,-0.30582,-2.3889,10.3682,-2.0997,15.8479,-3.0261,
2.918,-10.7998,-8.7663,-12.1898,-5.8956,-7.0967,-19.0431,5.264,-14.3875,4.7443,2.2743,3.0875,0.79706,0.28893,
-4.9701,-24.2518,-18.1225,-25.5585,-3.1315,-20.7709,-32.0005,0.1277,-27.6242,3.4951,10.3324,1.4562,4.8466,-0.21057,
-4.1897,-8.6967,-2.9351,-9.9249,-5.354,-5.4246,-15.9805,-5.1824,-11.8668,-5.3915,2.9642,-6.8261,6.0023,-5.0184,
10.041,-2.0291,0.97711,4.7705,-7.9248,9.0009,-28.3985,9.2286,2.9452,9.032,4.7145,7.6834,-2.553,4.9237,
-4.6615,2.4312,11.0414,18.5843,6.6507,18.3425,-21.8739,-5.4252,-2.7753,-4.1634,6.3596,-5.4315,10.1334,-3.0848,
3.6924,-11.8146,-3.7211,3.3693,-4.2331,3.142,-34.6614,-4.377,-16.7088,-0.29867,0.91637,-1.0083,-4.5746,-0.24813,
1.7839,-11.4674,-7.2337,-10.9329,-3.738,-11.1466,-32.9434,-0.016771,-29.8063,8.6375,8.3334,8.9344,2.5693,-0.47444,
-4.5899,3.3206,7.3003,-6.5415,0.34247,-13.6113,-16.8668,-9.657,-13.9179,-5.3783,-2.2897,-5.7017,7.7175,-5.2665,
9.6649,-10.9785,-5.7914,7.951,-8.8368,1.3054,-29.9548,5.0225,1.0172,9.0444,4.5962,8.7404,-1.9044,9.1495,
-5.015,3.1779,8.5355,21.5739,-3.4862,4.4813,-18.5163,-6.004,13.4896,-2.2238,6.7309,-2.3891,9.2974,1.2495,
2.6373,5.8793,-4.5101,6.1795,-5.6876,-9.8876,-27.0468,-0.82349,-1.4197,-1.6084,-1.8681,-1.7638,1.9902,1.6564,
-3.3055,-0.73999,-5.6855,-8.2913,-2.9358,-23.3943,-15.7825,4.5286,-15.4346,4.2726,5.9572,7.0191,7.1739,5.4134,
-9.1332,10.1502,7.9118,-21.8938,5.6761,-24.8834,-0.73559,-8.5176,-0.40849,-8.7582,6.8046,-7.502,15.1791,-1.4193,
2.2613,-4.5588,-6.6629,-31.5467,-7.9207,-37.4904,-14.7915,4.7677,-14.484,4.0596,2.7812,6.084,0.16838,5.1736,
-9.2028,-12.8414,-0.35787,-15.5539,3.883,-21.141,-28.004,-2.0261,0.48506,2.129,8.1577,3.0676,14.2583,2.2123,
-2.1427,2.0291,1.3508,-28.7206,-6.2324,-33.9725,-12.2237,0.26464,2.5046,4.6524,-0.28553,0.71442,6.8953,-0.57201,
2.3244,0.099599,-3.0688,-41.0974,-6.8225,-46.0342,2.489,9.408,-8.2509,14.9783,9.3728,12.7224,1.1787,11.5136,
-4.8049,0.81675,1.2132,-37.3056,0.5767,-41.1025,-11.7604,-3.9309,-7.9966,-0.02039,4.2311,-2.1409,6.6521,4.7973,
8.4987,-13.3323,-12.9596,-49.1672,-9.5809,-52.7364,-25.1547,10.4049,-21.6168,11.4301,1.0846,12.0875,-2.9064,8.8481,
-3.8215,-16.027,-9.8924,-32.1172,-0.088113,-35.4722,-37.7455,1.7064,-18.0302,-0.58403,4.1529,0.27574,10.5244,1.3272,
1.4695,-0.9654,4.8011,-16.0902,-5.6264,-19.2438,-21.3807,-3.4576,-2.8484,-7.5389,-9.8346,-9.6232,-2.8815,-2.3678,
0.89928,6.4435,-0.6692,-19.102,-6.7352,-15.7997,-5.9979,4.9444,5.1557,1.1081,-4.4243,2.5232,-3.6726,2.5948,
-4.9394,16.6618,13.3504,-3.8558,7.7689,-6.1749,5.3285,-7.8854,-9.2537,-12.9378,-1.2665,-11.7282,10.6478,-3.3455,
7.6491,1.5621,-1.5507,-17.7245,-4.6277,-19.9045,-9.0912,5.8441,-22.7984,0.6129,-4.324,0.90626,-4.0911,0.95254,
-6.9099,-9.98,-1.8193,-30.761,4.0856,-32.8102,-22.6457,-2.4603,-9.6203,-0.62917,6.7817,-2.7635,10.2544,-1.2738,
-3.2411,4.7188,12.3899,-14.8154,5.2867,-16.7416,-7.187,-6.651,5.0569,-7.3399,-0.37409,-11.7568,9.5183,-4.5718,
0.086393,8.4127,0.67995,0.17356,-4.9124,-1.6371,7.3442,2.1838,18.8535,2.0186,1.336,0.75924,-3.3449,-2.1283,
-10.0417,13.2106,9.7982,14.2631,9.3616,12.5611,5.2168,-7.5882,3.6223,-6.7796,8.4867,-9.4092,10.9558,-2.9645,
-0.039189,-1.682,-4.8897,-0.69264,-3.0102,-2.2925,-9.1962,4.6776,-10.695,-0.34684,-0.94055,-1.8548,-0.66804,3.2389,
-5.5805,-15.6811,-11.2245,-14.7511,2.714,-16.255,-22.7444,-2.5929,-24.1533,-2.0133,4.6595,-1.9849,10.2183,1.3574,
-2.1124,-0.64024,3.549,0.23398,3.7562,-1.1797,-7.2798,-9.4274,-8.6041,-5.99,1.2462,-11.2661,11.7741,-2.8217,
0.90666,6.5083,-6.6666,14.3199,-3.6997,12.9911,7.257,4.1539,6.0121,4.492,4.0637,2.4255,0.46263,1.6862,
-4.9323,12.3843,4.8206,27.5607,10.6222,26.3116,0.31366,-5.7363,9.3875,-5.9004,7.6767,-5.9147,14.5349,0.13921,
0.4253,-2.4587,-9.5686,11.8071,-0.017742,10.6329,-13.8052,-1.2948,-5.2757,-3.3772,-6.8839,-6.7651,-0.43722,-0.11057,
-7.072,-13.2777,-16.5866,-3.0013,6.4913,-4.105,-27.0768,0.47012,-19.0592,-0.041088,0.88027,0.14874,0.55334,2.0657,
-3.5144,1.6189,-1.4914,11.2788,9.7165,10.2413,-11.3522,-6.0658,-3.8156,-9.4389,-4.2345,-7.3322,6.0635,-1.6739,
2.481,-0.28614,-5.138,24.702,-4.9665,23.7268,-0.66869,2.0109,10.5133,-0.19542,-9.765,0.82049,-8.4003,1.3186,
-6.8267,13.2284,9.2702,37.3199,9.4315,36.4032,7.5664,-7.7509,18.8003,-6.4504,4.9209,-5.0131,6.2037,1.2397,
0.090419,-1.6653,-5.386,20.9807,-1.498,20.119,-6.9876,-0.77793,3.5723,-4.3762,6.6748,-0.61495,-4.0507,-1.4858,
-3.2892,-15.6654,-13.4985,5.6219,3.8943,4.8119,-11.0272,1.1972,-10.742,1.6712,13.5049,1.3504,2.9415,-1.8788,
0.041611,-0.62548,1.4114,14.9256,14.5069,18.6231,3.7345,-8.2751,4.0025,-5.9009,8.5973,-10.5412,7.3443,-1.0432,
4.8594,-14.6879,-10.1222,28.1301,-0.46353,31.6058,-10.5896,3.3086,6.2932,3.1298,3.7431,4.0705,-7.1963,4.804,
-5.7963,-0.30886,4.5852,39.096,5.7103,34.1687,4.1458,-0.98703,19.6539,-1.1551,11.472,-0.75323,7.3354,1.8649,
2.7464,7.9046,-1.836,22.6503,-3.3092,18.0186,-6.8285,0.03629,4.3747,-3.4962,-3.3163,-4.5642,-7.2047,-3.5494,
0.89441,1.8867,0.44334,7.1913,-5.2798,2.8374,7.6812,0.27508,-9.9878,1.2929,1.5829,5.5916,-8.5804,0.27852,
-1.8103,8.281,10.7806,-7.3402,0.58062,-8.1791,21.3203,-5.7674,4.7115,-8.1847,7.0316,-4.1439,6.0345,-1.9074,
10.3496,-6.3159,-3.9662,-14.7331,-9.0954,-16.8471,5.9411,8.6786,-9.6712,4.8401,1.3073,8.1561,-8.4276,2.5456,
-1.8408,4.3067,10.3717,0.25092,5.5503,-1.7363,3.054,-2.0853,5.0091,-5.5734,1.711,-3.9022,0.51419,-3.8738,
3.8133,17.7866,12.8829,-13.8641,0.035127,-15.7321,16.9708,-5.5756,-6.4992,-7.8906,-6.8278,-8.7298,-9.881,-4.8467,
1.4151,3.9452,3.674,-27.1323,-5.5104,-28.8882,30.0525,7.0513,-11.1707,1.5007,2.9816,5.5326,-8.565,-0.45832,
-1.5619,15.2776,13.0946,-19.5993,8.7995,-22.6961,21.7414,-3.0128,3.5995,-7.7479,5.6953,-4.9228,3.0361,-4.2872,
10.101,0.26099,-1.7911,-32.5233,-5.7077,-35.4343,6.337,4.3988,-10.7164,5.7324,-1.8773,5.496,-11.246,0.79074,
-0.38744,-4.6956,0.60624,-16.4719,4.0347,-19.2083,-8.1433,-4.7836,4.0266,-1.6014,5.2252,0.10453,3.5287,-3.8365,
5.4208,9.6861,11.1752,-1.3836,1.3825,-3.9558,6.4453,-3.5323,17.885,-5.3617,-1.8372,-8.0969,-4.6367,-9.3908,
6.3009,15.0102,1.5866,-9.6158,-3.7621,-4.3208,20.1586,6.562,20.4275,6.7701,0.92458,1.7894,-13.2766,-3.7657,
4.4763,23.7508,15.5914,5.0612,10.5636,0.27695,21.3595,-4.9191,5.1019,-4.2412,-0.57693,-8.4411,1.62,-4.9858,
17.4644,8.2258,0.5559,-9.3425,1.8554,-13.8397,5.9779,6.7044,-9.3042,2.521,-10.4245,3.3933,-12.5772,-2.5177,
6.052,3.0318,-2.3697,-22.882,12.5901,-27.1093,-8.4808,0.75833,-22.846,-0.76351,-1.8455,0.056449,-0.25318,-3.0898,
14.3659,16.9499,11.8724,-7.409,15.6915,-11.3827,6.1281,-1.6973,-7.3752,-7.9485,-9.9295,-11.5161,-4.5768,-6.7608,
16.1551,30.0329,11.2803,7.1355,9.2059,3.4002,19.8604,3.4658,7.1673,-3.3743,-13.9135,-2.8714,-12.7378,-9.0062,
11.8115,41.2465,24.7035,20.8074,22.6331,17.2962,32.7688,-3.9728,-7.3628,-5.0998,-2.9555,-6.0733,2.1264,-3.6454,
18.5747,24.6717,9.1213,5.4589,7.1751,2.1584,16.7026,6.6294,-21.021,0.74936,-15.5526,-2.0935,-11.378,-0.77556,
9.0245,9.0914,-3.4768,-8.9686,13.1323,-12.0711,1.6005,5.9912,-33.8597,-2.4286,-11.0036,-1.7269,-5.1517,-0.97,
11.6163,22.646,10.8318,5.6695,10.6569,2.7532,15.6044,3.4623,-17.7281,-7.3448,-13.959,-6.6852,-1.7094,-2.1169,
10.9193,35.3872,7.8918,19.4293,-4.0825,16.688,28.7682,9.0391,-2.5645,1.773,-16.4959,-0.49907,-14.6222,-4.4,
1.8283,36.638,18.7467,32.3636,10.2624,29.7867,13.1828,-3.3136,11.6894,-5.805,-8.0346,-14.2077,0.35511,-8.7155,
14.7342,20.3397,3.5219,16.3218,2.6568,13.8995,-1.7081,10.3828,-3.112,1.292,-11.8906,-1.3039,-9.6688,0.002373,
1.7986,5.0193,-10.7894,1.2425,-3.7691,-1.0344,-15.7057,3.4929,-17.0252,-2.16,-10.2133,0.70253,-7.6425,-1.4445,
4.342,18.8181,3.9579,15.2679,7.3031,13.1276,-0.66332,0.63246,-1.9037,-3.7174,-11.2875,-1.9909,2.6983,-1.1162,
4.3225,4.3124,-2.9077,28.4518,-7.2351,26.44,-8.2158,8.5483,12.3105,3.4951,-18.5642,8.0104,-9.7562,1.6019,
-6.542,13.6949,9.3181,40.8447,4.6477,38.9536,5.7747,-5.4622,3.7384,-6.8373,-10.2195,-4.5215,4.9292,0.54169,
2.0453,-1.2268,-5.341,24.294,-7.2003,22.5164,-8.6718,2.5783,-10.5859,-0.16055,-13.4628,1.0524,-8.5024,4.8475,
-6.0312,-11.3973,-11.4078,8.7364,-10.8657,7.0654,-10.2001,1.2187,-24.0508,-0.39188,-8.0757,2.6765,-3.8949,0.94124,
-0.12593,3.3865,3.3767,17.853,2.5605,19.2952,4.5119,-6.3264,-8.5077,-9.7686,-6.868,-9.2944,10.0773,-1.2842,
7.5944,-10.9166,-10.9259,30.8818,-9.6442,32.2375,-9.8588,8.1532,1.764,4.7968,-6.9379,5.3632,-4.6273,9.8797,
-6.9613,2.2718,3.8296,29.1496,-7.8605,28.0134,-14.57,-0.41024,-0.5108,-9.2291,-7.2447,-3.9971,1.7963,1.8153,
4.1822,15.3919,9.5047,13.3006,-7.1479,12.2326,-3.3317,4.6761,-14.5802,-2.6498,-11.3893,-1.1057,-4.337,5.8037,
-9.3251,0.3684,-3.8396,-1.5974,-9.8525,-2.6014,4.8222,0.78007,-27.8053,1.6065,-7.0906,3.5399,-5.2816,3.2863,
-14.068,7.4567,3.1395,-14.276,-3.4766,-1.7222,9.3531,-2.1595,-12.037,-2.8284,-4.7372,-2.4568,8.5324,3.5713,
0.87604,-7.0907,-11.1489,-25.7116,-8.3295,-13.911,-5.3081,12.0701,-22.5226,11.4413,-3.7297,11.7906,0.066613,14.2032,
-9.1789,-11.606,-4.8159,-10.0689,3.2576,1.0236,-10.4125,-2.7541,-7.0713,-2.622,-5.4342,-1.8118,8.7396,-0.749,
-2.1205,3.1903,4.3909,-23.3237,-2.9637,-13.1378,4.3123,-5.4809,7.453,-0.29533,-9.2053,-1.9443,-1.6665,-1.3066,
-3.4395,2.637,-2.1391,-36.0243,-13.8731,-26.4495,18.1535,3.0426,-7.0942,6.9532,-3.8327,10.7059,-9.7617,2.6282,
-9.9818,1.5147,7.1481,-19.7628,-1.4713,-16.7884,7.4231,-7.2631,5.0212,-2.6232,-3.1206,-2.4698,4.8036,-1.3861,
4.7171,-12.6762,-7.3808,-32.6771,-8.1317,-29.8811,-7.1223,7.2727,-9.38,11.6342,-1.0054,9.7298,-1.7514,8.3382,
-7.9789,-17.3388,-8.0223,-33.7295,-5.4746,-26.7625,-20.7949,-4.1299,5.2828,2.38,9.9012,2.1561,11.6101,5.1869,
-6.7771,-2.1984,-2.4795,-17.6057,-17.4384,-11.0567,-5.4472,-5.5691,19.0658,-2.3424,-1.0565,-0.1422,-2.8246,2.2243,
-8.7808,-6.7665,-10.0437,-22.2134,-19.2847,-19.4319,8.9796,4.4058,23.5859,7.4389,-2.922,8.5427,-8.44,3.0545,
-12.3511,-2.263,4.6589,-12.4447,-4.0276,-15.1325,5.7897,-8.1509,8.0708,-2.4072,3.2791,-6.0698,6.1664,-0.74396,
2.49,-16.2272,-9.7206,-25.7981,-8.4858,-28.3245,-8.6576,6.4382,-6.5135,11.8372,2.1184,8.3944,0.13224,8.4596,
-9.3493,-29.3535,-9.3786,-38.3502,1.1823,-40.7251,-22.2382,0.14659,-20.2227,7.1499,6.8116,10.542,8.3191,7.9521,
-4.45,-13.4923,5.2841,-21.9492,2.5576,-24.1816,-6.8039,-8.5388,-4.9093,-7.3791,-6.6125,-4.1905,-0.37472,-0.7197,
0.15554,1.4172,4.3646,-6.5322,-9.6472,-8.6307,7.7043,0.16797,9.4853,-0.54888,-6.2155,0.51974,-9.9934,0.28712,
-10.6998,0.60927,6.2722,7.9597,3.7059,5.9872,0.25243,-7.3137,3.7342,-5.5774,1.1471,-5.5368,4.7062,-0.45278,
2.2342,-13.5273,-8.2042,-6.6179,-2.542,-8.4721,-13.8627,7.2251,-10.5898,8.4956,-3.0191,7.5699,-5.8196,5.5999,
-6.8177,-26.8156,-15.7866,-20.3208,0.26181,-22.0637,-27.1309,3.7786,-24.0544,3.8882,-2.1148,2.5362,1.0368,0.20249,
-1.8289,-11.1067,-0.73941,-5.0015,0.48707,-6.6399,-11.4031,-3.9194,-8.5112,-3.3345,-5.6034,-6.0521,-0.2302,-0.53256,
2.6193,0.5261,0.38988,9.3986,-8.7011,7.8585,3.3811,5.9563,6.0995,10.845,0.035597,8.411,-14.1958,6.7299,
-11.0355,-0.95162,4.7052,22.9346,4.3546,21.487,3.4192,-8.501,19.8335,-1.8571,-1.8951,-6.1934,-3.2208,-1.8685,
3.7266,-14.9945,-9.6772,7.4586,2.8878,6.0978,-10.886,6.109,4.5435,9.5823,-4.9146,6.9524,-6.6432,10.5354,
-2.1613,-25.7847,-17.4124,-7.089,-2.106,-8.3681,-24.3328,-1.2473,-9.8291,-0.15148,-2.2094,1.7148,-1.9061,-0.21981,
0.3787,-10.1376,-2.2677,7.4364,1.3946,6.234,-8.7728,-5.9929,4.8606,-5.9267,-2.559,-7.065,-2.2739,-5.991,
10.7203,0.2323,5.22,21.0902,-2.7862,19.9599,5.8535,8.4667,18.669,8.5289,-2.1645,7.4589,-14.4297,8.1068,
-4.0229,10.3413,14.0653,33.9248,5.0938,32.8623,3.5739,-6.1413,21.0436,-4.3959,-1.0705,-6.3655,0.53607,-1.0565,
2.3643,-4.3792,-0.87859,17.7893,-3.1658,16.7906,-10.7405,5.3144,5.681,7.1958,1.645,3.4162,-3.7139,4.5503,
-4.767,-17.0109,-9.864,2.6219,-1.2887,1.6832,-17.206,3.7907,-8.7599,6.5236,3.7159,7.3091,-2.7682,3.5548,
-4.481,-1.8903,4.8279,7.6468,12.8887,11.5846,-2.0736,-10.5368,5.8657,-6.4013,-2.292,-5.181,4.6287,-1.4792,
5.4286,-15.8769,-9.5618,21.288,2.8358,20.0486,-16.0492,0.33882,12.8651,6.516,-1.1904,6.2168,-8.1822,0.53755,
-6.4663,-3.8373,5.1119,34.1107,10.8608,28.4868,-0.98627,-6.43,26.1932,-2.0696,7.0762,-4.761,6.4087,-5.2793,
3.0807,7.9621,3.2384,17.9641,0.085835,12.6776,-5.8683,-0.74197,10.5216,-2.9098,-7.4484,-3.9934,-4.7014,-5.4445,
-1.9248,0.25357,0.15162,2.7862,-1.8475,-2.183,7.499,-0.69746,-4.2097,4.0137,-3.5068,5.4052,-2.9735,-1.7438,
-5.4243,5.3,9.5425,-11.1195,6.699,-16.1521,19.3414,-12.4657,10.1429,-2.7351,5.1393,-5.7654,11.3049,-4.2903,
7.4342,-9.118,-5.13,-24.5523,-4.7897,-27.5959,4.0809,2.3822,-4.5657,6.5881,-0.95365,8.0779,-3.2324,0.78787,
-5.0629,-6.522,4.9395,-8.9792,9.5977,-11.8402,-9.0587,-7.5224,9.0853,-3.9301,3.4423,-2.5297,9.0131,-4.5621,
-0.90256,7.9693,3.679,-22.5404,3.1168,-25.2298,5.5848,-4.1788,-4.4752,-5.1408,-3.0309,-8.1627,-0.20457,-1.878,
-5.187,2.0678,-4.7362,-35.288,-5.2652,-37.816,19.3497,2.8211,-9.5093,-2.422,-2.8493,-0.9238,-2.6027,1.6089,
-4.8757,6.2825,9.6479,-19.0707,9.1507,-21.447,15.0555,-6.9896,5.1612,-9.9894,0.6961,-8.5811,11.6535,-0.89773,
1.6833,-8.1944,-5.0309,-32.0265,-3.0882,-34.2602,0.052171,1.6249,-9.2484,2.1791,-3.202,2.5386,-3.1457,0.12,
-8.0586,-15.2953,-10.996,-16.0049,8.1843,-18.1046,-14.051,-0.88314,5.4065,2.0483,8.5592,0.45805,11.0223,0.59473,
-2.2729,-0.27756,3.7637,-0.94461,3.3545,-2.9183,0.8921,-2.7583,19.1821,-5.3054,-3.5235,-8.7285,0.23808,-1.8511,
-0.93104,-4.9607,-8.8749,3.2094,-3.8364,9.9108,14.9386,0.05848,17.5492,2.003,-1.6251,2.1593,-7.2478,1.3932,
-2.8036,4.0138,5.7576,2.5349,10.4938,7.3877,4.1601,-7.6576,2.3963,-3.42,6.6674,-5.2008,7.2871,0.82794,
2.1853,-10.327,-8.6878,-11.7172,-4.2356,-7.1556,-10.1895,2.4428,-11.8475,0.15962,-3.3736,-0.068525,-3.8759,-1.6323,
-6.3817,-23.8074,-11.2998,-25.1141,2.5262,-20.8262,-23.6781,-1.8013,-25.2367,1.3556,5.2647,3.5512,7.2031,-1.2932,
-0.93734,-8.2789,3.4782,-9.5073,4.5436,-5.4767,-8.1575,-6.7547,-9.6225,-1.8595,-7.3435,-5.0982,0.26277,-2.903,
2.0112,-0.43087,-3.359,5.1631,0.89674,8.9519,6.432,1.8455,5.0549,4.5188,-5.4569,3.885,-5.5373,1.1277,
-3.1709,13.3331,10.9426,18.9534,14.9429,22.5148,20.1461,-6.2192,13.308,-7.0803,4.2708,-4.3021,8.8949,1.7832,
8.3473,-1.5669,-3.814,3.7162,-0.053644,7.0639,4.8373,4.5181,-1.5905,1.2981,-5.8676,1.4995,-5.2569,2.3994,
-2.7584,-15.5729,-15.1541,-10.6068,3.324,-7.4599,-9.5529,-2.5019,-15.5951,-1.1899,0.26902,-3.4108,3.7356,-3.5292,
-0.42349,-0.53853,-0.14482,4.1296,4.812,7.0877,5.1202,-5.0027,-0.55937,-5.2157,-2.8804,-6.8213,5.1985,-4.0406,
7.0736,3.2298,-0.25673,17.9818,-5.8411,20.7624,18.913,9.3975,13.5742,9.1973,-2.4665,7.688,-5.9593,5.1198,
-7.4508,6.4104,10.8458,31.0029,3.6683,33.6167,12.3551,-5.2663,26.8597,-1.3574,-1.8364,-5.6682,7.4135,-4.8285,
7.0962,-8.0743,-3.905,15.0427,-0.89038,17.4997,-2.4862,7.3417,11.1482,8.3647,-6.0648,6.2408,-4.6007,4.6201,
-1.2834,-13.977,-13.9143,0.04017,0.36856,2.3497,-16.437,1.3578,-3.6207,4.2477,-4.4959,4.1793,-2.1552,0.72766,
3.8548,0.96158,1.0206,14.1378,6.8539,16.3087,-1.3508,-5.7135,10.6965,-2.5147,-2.0569,-7.8816,4.9635,-4.3777,
8.6852,0.78341,0.83886,27.3895,-3.4392,29.4302,2.9483,8.7293,24.1547,10.4102,-2.6564,6.6913,-7.1444,-0.49959,
-4.6101,14.8364,14.8885,39.8461,10.0233,41.7644,15.0635,-1.5564,14.6308,-2.9886,-1.292,-2.9897,7.3842,-5.0491,
9.405,5.631,0.85932,23.3554,-1.9061,25.1585,0.059673,2.6346,-0.34709,-2.5681,-10.6147,-3.0515,-6.195,-3.0587,
4.02,1.4368,2.254,7.854,-0.82785,9.549,-1.0283,0.54831,-14.4263,1.9243,-3.7108,4.3625,-1.9664,-0.46508,
1.3682,15.4506,16.2188,21.4828,10.791,11.9888,13.1334,-5.7511,0.53931,-3.9758,-3.9706,-3.6121,6.3463,-0.91957,
14.0612,0.42354,1.1456,34.2938,1.708,25.3695,-1.7546,8.694,14.607,9.5193,-2.0448,10.7047,-6.3269,8.5362,
-0.8825,11.0032,15.1769,41.2745,10.0413,37.2244,12.4507,-4.4816,24.5768,-5.1519,-2.1632,-4.0376,6.8268,-1.8583,
8.4499,24.443,15.833,24.698,3.4132,20.891,8.9319,0.84894,9.0022,-5.6863,-10.469,-8.8568,-3.9467,-1.0239,
-2.4217,9.8401,6.4467,9.1162,-6.1918,5.5375,13.4572,-0.40752,-5.6379,-3.6581,-6.2262,-1.3358,-11.1819,-2.1675,
1.8212,20.0961,20.1599,8.5692,5.9901,-4.4359,26.7497,-2.552,8.8003,-7.0542,-3.2008,-7.7633,3.589,3.024,
15.8119,4.7904,4.8503,-6.045,-0.1539,-18.2698,11.0448,11.7011,-5.8277,7.469,-2.0449,6.8025,-4.2182,15.858,
0.76321,5.1058,5.7646,8.4177,2.2657,-3.0736,-3.7179,-3.1009,8.622,-6.1146,0.0062113,-7.7057,4.7118,0.8065,
4.574,18.8995,18.9161,-5.5847,0.20156,-12.5301,10.6051,-0.98647,18.5892,-3.3376,-7.7069,-7.2436,-3.2837,-3.4597,
2.8531,9.4499,8.6223,-19.3496,-5.5953,-25.8783,24.0688,3.4108,3.3739,0.71884,-12.5474,-1.0241,-10.7997,-4.6982,
-0.21015,15.1494,16.2997,-9.8734,7.7558,-11.6719,22.2633,-4.9885,9.5587,-4.1445,-4.5637,-5.7834,3.9483,-0.077964,
11.6129,0.14042,1.2217,-23.381,-3.0735,-25.0716,6.8275,9.4108,-5.1148,10.2041,-0.67435,8.6636,-3.3988,12.7011,
-3.1838,-13.7268,-8.3721,-29.0883,3.1363,-34.5338,-7.6822,5.8331,-3.7234,3.6864,1.5354,9.4696,6.205,6.8772,
-4.3187,1.1968,-1.3621,-13.243,-8.3798,-18.3618,6.8787,-1.0241,10.6,-4.4883,-7.957,-0.01645,-2.1208,4.2956,
3.4122,-3.3338,-4.8958,0.92846,-9.5645,-7.7396,20.566,8.4369,24.064,9.881,3.8486,13.7229,2.5857,11.5097,
-6.9159,-3.6162,6.0033,1.8368,4.9889,-21.3752,6.3166,-6.1693,8.5202,-0.23261,3.1358,-1.2005,15.446,1.1782,
7.5991,-17.4992,-8.4569,-12.3734,-6.6384,-34.1927,-8.1624,8.3008,-6.091,10.6278,2.2245,11.2845,0.41924,12.9178,
-6.4747,-10.0618,-15.5418,-25.731,-8.4093,-36.2385,-21.7726,5.3929,-17.2947,2.5184,5.7065,5.5458,3.4066,8.0449,
-5.3631,4.6419,-0.50929,-10.0871,-8.6278,-19.9642,-6.3663,-0.47455,-2.157,0.19787,-3.0718,-6.1149,-2.3412,3.4651,
1.2258,-1.3008,-8.0709,4.6181,-13.4127,-4.6663,8.1157,10.6413,12.0724,13.2015,3.3796,8.352,-7.5032,11.452,
-8.2481,-0.49952,-0.59713,18.441,-1.2801,9.7137,6.1827,-4.0972,7.7326,-1.6906,4.8637,0.74048,7.047,1.365,
6.3468,-14.5696,-14.6613,3.2346,-3.1312,-4.9692,-8.2882,9.0437,-6.8313,10.8235,0.23331,12.7474,2.406,8.9957,
-6.9287,-26.8315,-19.2047,-11.0595,-0.77398,-18.771,-21.8909,1.9933,-20.5215,7.0409,1.4244,3.0647,3.9491,6.287,
-5.3079,-11.1216,-3.9525,3.7041,-4.3432,-3.5448,-6.4775,-6.0802,-5.1902,-5.6739,-3.7225,-6.5194,1.5427,-1.0799,
1.0358,2.9228,-7.2103,17.5818,-12.5185,10.7679,8.0112,7.5407,9.2212,7.9227,1.5623,7.9717,-3.6113,4.5283,
-13.1263,3.7115,2.3816,30.6269,1.2478,24.2219,6.8074,-6.8912,11.3193,-5.0859,2.9146,-6.6066,10.7054,1.8463,
1.7613,-10.6112,-11.8613,14.6893,-2.6832,8.6685,-7.7011,7.5018,-3.4599,5.8243,0.81172,3.1901,3.1939,10.8943,
-6.7798,-13.9516,-16.0908,-0.29206,-2.7634,-5.9516,-21.339,1.5083,-17.3523,3.7879,5.3425,4.6857,8.5457,2.769,
-6.3733,0.98548,-1.0253,13.8255,-0.6692,8.5055,-5.9587,-5.3309,-2.2111,-5.1163,0.68343,-7.6468,5.1406,-5.1096,
8.1091,-5.9427,-4.9406,27.0959,-6.8957,22.0952,4.8836,9.089,12.0215,9.2907,4.9809,6.912,-3.3626,7.2479,
-6.4774,5.26,9.4559,37.5217,1.9541,34.8695,0.011365,-4.8332,19.0132,-5.3668,1.0667,-4.9514,10.9391,-0.65842,
7.4088,-3.0098,-5.2115,21.1704,-1.2967,18.6773,-14.0893,7.7488,3.7724,6.0423,-0.68453,5.7096,-2.853,8.2987,
-1.9538,-10.3008,-8.5143,5.8002,-5.3162,3.4567,-17.4623,4.6328,-10.5539,9.7771,3.4539,9.4648,-6.7792,5.1497,
-9.5493,4.4173,6.0965,1.3546,0.30541,16.6261,-2.3145,-8.1787,4.1793,-4.9096,-3.9837,-5.0828,0.85841,-1.9082,
5.1236,-9.9478,-8.3693,15.3733,0.045891,29.7286,-16.2756,6.4121,8.6286,5.8698,-1.5758,9.3221,-4.7369,10.981,
-5.4274,4.1467,6.2329,28.5509,10.4072,42.0449,-1.1991,-6.6264,22.2109,-8.5824,1.1701,-5.3372,8.3215,-2.4526,
-1.0044,12.3336,-0.28735,12.7379,-3.4736,25.4222,-0.52452,-0.20328,6.7782,-6.0187,-7.8182,-3.8117,-3.506,-3.5107,
-4.8005,4.8446,-1.234,-2.1264,-10.0141,9.7968,6.2556,5.1116,-7.7285,3.0195,1.328,6.058,-5.7057,1.5206,
-4.7535,11.0619,9.6859,-16.0988,3.3612,-4.2883,15.2803,-9.2951,6.8352,-9.9361,5.3457,-8.4055,1.6265,-5.5605,
4.4496,-3.7018,-4.9953,-29.2329,-1.42,-18.131,0.26348,5.3626,-7.6749,2.4704,0.44544,0.89643,-8.8352,1.7633,
-9.9174,-3.6002,1.9329,-13.3789,9.7525,-2.9432,-13.8523,-3.636,6.8856,-1.5342,3.7932,-1.0855,5.7949,1.657,
-4.3814,10.7158,4.7094,-26.6762,-2.4019,-11.6844,1.0788,-8.7205,13.2211,-3.8523,-6.5573,-7.2874,-7.2065,0.11179,
2.1482,1.7577,-1.358,-39.1756,-4.6681,-25.0833,15.1141,-1.9306,-1.6721,3.6095,2.9949,-0.10147,-8.2206,3.9612,
-3.765,11.293,12.8235,-23.6892,9.712,-9.9605,16.8586,-9.5277,3.3692,-7.6946,5.2256,-11.1824,6.3726,-0.1326,
10.44,-3.4846,-2.0459,-36.3678,6.1165,-23.4629,1.747,5.1439,-10.933,6.8671,-0.87277,3.5886,-7.1454,10.4804,
-4.2864,-12.0727,-5.5386,-27.5573,6.4729,-7.9551,-12.4578,-0.3464,-1.2385,-1.6191,0.86683,1.5655,-0.20876,0.4516,
0.18904,2.7517,8.8937,-11.8039,-1.6285,6.6222,2.3897,-5.6285,12.9359,-10.6813,-1.5955,-10.0978,-3.5709,-5.3603,
-1.2683,1.9839,-2.3654,3.0043,-1.0486,18.8788,16.3463,3.3865,13.0033,-5.2194,1.3925,1.1136,-6.7309,-2.6283,
-3.3614,9.3367,7.1765,11.9829,13.1143,22.3256,7.1708,-8.6272,-1.8769,-14.7882,0.58603,-8.3532,6.9294,-6.0861,
10.9403,-5.3235,-7.3541,-2.8361,10.2785,6.8861,-7.3594,5.9904,-15.8643,0.19908,0.79184,5.4039,-7.5864,3.1972,
-3.3342,-13.0785,-4.382,-16.7659,8.457,-7.6271,-21.0179,-1.7201,-29.0124,-3.308,5.3241,-3.8379,-1.2259,-4.9484,
-3.1344,1.8062,9.9809,-1.66,5.0568,6.9305,-5.6568,-3.0634,-13.1717,-6.0018,-0.78018,-9.3925,-4.0451,-7.0618,
2.3566,4.4696,0.10277,12.5396,-3.4411,20.6147,8.7826,4.3515,1.7186,5.4457,-1.2155,3.2224,-13.4432,-2.2996,
-4.0516,18.3014,14.1966,25.8873,10.8654,33.4778,15.4863,-8.9253,0.048771,-5.4865,2.714,-7.576,1.4634,-3.1257,
10.2915,3.1034,-0.75519,10.234,5.5132,17.3692,0.45709,5.7103,-14.0542,3.7607,-2.0286,2.761,-4.2885,1.6411,
-3.7031,-11.1828,-14.8099,-4.48,7.1106,2.227,-13.6703,-0.29623,-27.3109,-0.80324,2.9139,-3.6717,1.2715,-6.6521,
1.8218,3.5881,0.17871,9.8888,9.0946,16.1934,1.2499,-4.1348,-11.5723,-7.0216,-2.5636,-10.1998,-2.6612,-7.6992,
8.9433,10.8449,2.3369,23.3955,-5.5511,29.3218,15.2749,10.093,3.2221,5.9328,-4.338,4.5122,-13.1068,-0.97027,
-5.6933,13.0862,11.3553,36.0917,3.5789,40.216,1.5839,-4.6126,7.608,-7.4386,1.7069,-9.8586,1.7796,-8.1433,
8.7483,-1.7989,-3.426,19.8262,0.95424,23.703,-12.6111,4.9432,-6.9484,1.6846,-1.7698,0.85562,-0.85779,0.54019,
2.1974,-10.9707,-9.6072,4.5367,2.1016,8.1808,-25.9544,-3.3073,-20.6315,-0.5859,-0.45852,1.5274,-4.422,-3.1074,
2.7889,3.7875,5.0692,16.5567,7.0376,21.79,-10.2972,-11.0626,-5.2936,-8.0221,3.6663,-8.9281,3.3152,-7.0183,
9.3703,-0.65759,-3.3092,29.6633,-6.8822,34.5826,-9.0767,3.7011,9.124,6.5592,2.9642,3.6585,-7.4888,2.5616,
-4.9305,13.4819,10.9894,41.9835,6.3049,46.6076,-4.9167,-4.113,17.0124,-3.837,-4.6852,-9.3353,3.3246,-1.6897,
7.8988,11.8296,-0.63674,25.3645,0.624,29.7112,-18.7217,3.3646,1.8917,0.73157,-8.2605,-1.0624,-5.0696,2.7505,
-4.3857,8.4682,1.0887,9.7427,-6.4033,13.8285,-13.3805,-1.8989,-12.3218,-1.9634,0.6708,-1.2396,0.29582,-0.54805,
-4.3633,22.0602,15.1234,23.2581,1.9349,27.0988,1.5223,-6.3645,2.5175,-7.3895,-0.57451,-12.0113,10.1602,0.20796,
7.7088,6.6365,0.11597,25.5985,-8.5453,29.8114,-12.669,8.1173,11.8869,7.1539,1.6293,2.8094,-2.2597,11.0415,
-6.8537,2.3822,3.4832,10.5652,-1.2835,13.9227,-22.0318,-3.8181,19.8508,-4.2418,5.3882,-2.0592,11.9758,0.73829,
1.8727,16.3393,4.2381,-4.1687,-6.0272,-1.0126,-8.6588,-0.21506,4.5598,-3.5054,-6.9866,-5.792,-2.8427,0.2116,
-1.8551,3.4281,-2.5237,-18.0185,-6.8708,-15.0519,1.7431,4.8595,-9.8138,8.0336,0.90436,5.8837,-7.2512,2.8505,
-8.7334,2.4993,2.6892,-31.0374,-0.43281,-28.2488,-2.459,-7.7243,4.875,-1.3667,0.60891,-4.8334,5.9581,-0.93622,
5.8906,-11.7507,-11.5721,-43.2752,-7.1558,-40.6538,-16.4115,6.8391,-9.5175,12.8153,1.5367,9.5566,-3.0765,12.1354,
-7.5987,-8.5146,1.2942,-26.5787,3.8791,-24.1146,-21.0909,-6.2252,5.1536,0.83865,6.7469,0.18562,6.2674,2.2484,
-1.117,6.0963,7.7243,-30.6483,0.99459,-30.6215,-5.7255,-3.6823,13.8827,-4.2731,-2.5757,-5.3689,-4.9552,-3.9122,
-1.5322,-3.7902,-0.45218,-42.9094,-3.8856,-42.8842,8.7181,2.8049,-1.0503,-0.64251,-5.3135,0.73759,-5.622,-0.78521,
-0.23518,7.2832,12.3492,-26.2348,10.4476,-27.8984,13.2564,-4.353,-13.641,-6.1473,-2.8257,-5.8144,8.8154,2.3952,
13.8789,-7.2538,-2.4918,-38.7607,6.5669,-40.3245,-1.6389,10.0082,-26.9226,7.719,-4.1021,8.6345,-0.75199,11.4106,
4.0079,-2.1185,6.2141,-36.3146,9.3062,-30.7949,-15.6406,-0.11257,-27.838,-6.8442,-3.133,-1.4038,0.01637,-1.0843,
4.7315,12.1086,18.8569,-20.0357,-0.41096,-14.8472,-0.60217,-2.0342,-12.0678,-2.6977,-8.2474,-9.5145,-5.7694,-2.4653,
4.2064,2.8257,3.6255,-4.7336,-8.8222,0.14366,13.534,7.97,2.7563,11.5641,-7.0294,5.1563,-6.6283,2.7441,
-3.0358,0.96891,4.9743,9.6504,2.5529,3.2683,16.8193,-5.2827,-11.5091,-3.2297,-7.331,-2.9863,6.0614,-5.8567,
11.2463,-13.1892,-9.4242,-5.0286,-1.6974,-11.0278,1.7101,9.1343,-24.9185,11.0641,-0.38346,11.2929,-2.2558,6.787,
-3.2873,-20.7131,-14.2814,-18.8269,2.7432,-24.4661,-12.4925,-3.8263,-34.2692,4.254,-0.84238,3.5049,6.5567,1.0776,
5.1051,-5.3703,0.67547,-3.5973,2.5787,-8.8982,2.3571,-6.4893,-18.1131,-5.6422,-11.8791,-3.9362,3.2708,-0.43331,
9.6192,3.5084,-4.7883,10.7186,-9.6277,5.7357,16.3156,8.0001,-2.9263,4.8193,-5.3816,9.3155,-4.1562,2.9668,
-5.058,2.5745,2.9707,24.1755,-2.0601,16.479,14.3726,-6.5799,1.5874,-3.4237,-1.4434,-3.5356,9.8314,-2.7545,
9.3455,-11.68,-11.3076,8.6249,1.6789,1.3903,-0.58975,7.9149,-12.6079,10.8817,-3.526,10.7765,1.2878,11.5108,
-1.8204,-18.3303,-19.4262,-5.9926,3.0242,-12.7931,-14.6544,5.8733,-25.9514,3.6008,-1.8684,5.4297,6.031,6.1199,
-1.7112,-3.1305,-4.1607,8.467,2.8428,2.0745,0.32489,-5.084,-10.2943,-8.1848,-5.1307,-8.9961,8.5616,-3.8882,
5.6221,4.6494,-2.5857,22.059,-7.4509,16.05,14.4054,8.2358,4.4234,4.3576,-9.1614,5.6437,-6.0521,0.68314,
-7.4894,8.468,11.6694,34.8354,3.3602,29.187,21.736,-5.9964,18.258,-4.8217,-4.9961,-3.613,4.3132,-6.347,
7.0599,-6.1401,-3.1307,18.6453,0.5073,13.3358,6.3319,8.1019,3.0625,7.278,-0.59876,5.0397,0.43926,5.8437,
-4.5716,-15.2921,-14.753,3.4266,0.23612,-1.5644,-8.1481,1.59,-11.2213,0.33357,2.0885,4.4966,6.9206,5.7343,
-6.9484,-0.27461,0.23218,16.5979,1.4268,12.6295,6.4408,-4.049,3.552,-5.2301,-1.6527,-3.7274,7.7102,1.2929,
7.5685,-7.3683,-5.4459,29.702,-7.3357,25.9717,-0.81479,10.2939,17.4389,9.1837,5.6775,10.5962,-1.9112,9.8919,
-5.0574,5.6071,8.9809,42.0199,-0.6288,37.0672,10.3211,-4.4237,30.4926,-5.4673,-0.44793,-4.1395,8.8085,-4.6809,
6.3335,-1.478,-5.658,25.3987,-4.9296,20.7431,-4.3982,5.9648,14.563,3.5376,-4.7591,7.6782,-1.8427,4.7592,
-0.3135,-7.1741,-6.2826,9.7748,-5.1158,5.3985,-9.3162,12.8378,-0.41078,16.3408,4.203,18.3047,-0.28629,9.2939,
-7.0434,7.3563,8.1944,-4.9117,-1.4346,-9.0254,5.3428,-2.0325,13.7139,1.2603,-6.6542,3.1065,4.0694,-5.3637,
7.4792,-7.1851,-6.3973,9.483,-7.1331,-1.8554,-9.0778,9.7791,22.1708,12.8744,6.7605,10.2714,0.45128,8.094,
-7.0695,-1.2101,2.9046,22.1704,-5.5001,11.5121,-3.4717,-4.9076,34.9405,3.666,7.5599,-1.6733,6.9314,-1.3095,
-1.5837,12.9625,4.6583,6.7402,-11.4368,-3.2787,10.8366,-6.6616,18.7441,-2.8207,-6.9937,-5.911,-6.9816,-7.4976,
-2.453,4.3515,2.933,-7.7643,-11.2325,-17.1819,24.2864,-7.2262,3.5195,-4.0973,-1.6329,-4.1105,-3.6706,-8.0121,
-5.68,7.9465,12.3982,-16.6982,1.9747,-24.5867,17.768,-12.0951,17.4083,-7.708,9.0702,-12.0584,10.6496,-4.1567,
8.6403,-6.6302,-2.4457,-29.7963,-4.8925,-37.2115,2.6019,2.7306,2.2638,6.8544,5.6337,2.7651,1.2133,10.1927,
-5.9781,-8.5221,6.0158,-13.9085,-0.74254,-20.8788,-11.6542,-6.7127,16.228,-1.3901,-1.4533,0.55008,11.2634,-3.0728,
-1.4014,6.0893,15.5372,-27.174,-2.3848,-33.7261,3.1451,-7.9972,16.7005,-6.8503,-2.089,-8.4005,3.1162,-3.6114,
-4.9332,-6.9298,0.50501,-39.6435,-4.4113,-45.8025,17.0564,-2.4561,1.5985,0.068207,5.5082,2.9493,-2.6148,-0.74358,
-7.0471,-3.1398,1.3186,-23.1649,5.0126,-37.9929,3.0176,-10.0213,-12.5974,-4.7559,6.1418,-2.5301,9.1115,-6.0014,
7.4758,-17.0514,-12.8606,-35.875,-4.2062,-49.8133,-11.2635,4.68,-25.9416,9.6294,4.568,11.7217,-0.83521,6.6508,
-6.5909,-9.6411,-0.88145,-37.3377,1.5898,-34.1706,-20.1082,-3.9163,-10.2851,-2.1563,5.4992,-3.0816,8.6149,-3.6302,
1.9998,5.0373,13.1512,-20.9975,-3.3263,-18.0203,-4.8017,-8.0196,4.432,-4.9189,0.34899,-6.2707,-2.0249,-4.3763,
9.8334,-1.4113,-0.41268,-5.6376,-5.296,-2.8391,9.5864,6.5616,18.2661,9.4762,4.4253,8.2056,-6.4833,9.1426,
-4.8566,4.9403,5.8787,8.8006,7.5551,5.044,13.3496,-6.7271,3.0702,-5.1924,0.30327,-4.2178,6.4396,-0.56512,
9.5348,-9.4562,-8.574,-5.8274,-0.36997,-9.3586,-1.5514,7.7766,-11.2141,6.2057,0.044109,6.881,-3.8292,4.5305,
-4.2936,-22.9888,-6.7338,-19.5778,1.0987,-22.8971,-15.5583,-5.585,-24.6412,1.4953,1.4875,-1.7263,3.6316,-3.4544,
-5.2412,-7.5095,7.7702,-4.3031,2.2376,-7.4233,-0.52483,-9.3472,-9.0627,-3.1737,-4.1454,-8.6126,-1.166,-2.5237,
0.13445,-11.5179,-6.796,10.0551,-3.4402,7.1221,13.6067,5.3136,5.581,10.2726,3.0932,6.0042,-6.1577,4.1352,
-8.5503,-2.6319,6.1453,23.5518,7.3715,20.7948,20.2621,-8.8642,11.392,-1.9129,4.8358,-0.98429,8.3117,-3.8257,
6.0628,-16.574,-8.3235,8.0387,-2.953,5.4471,4.9463,5.7676,-3.3916,9.0484,1.8944,10.8851,-5.0815,5.3217,
-8.401,-16.9051,-13.006,-6.5436,-2.0527,-8.9797,-9.4504,1.4449,-17.2881,3.444,8.2884,5.1706,-5.0178,-0.54103,
-5.9688,-1.7908,1.8744,7.949,0.48061,5.6591,5.2166,-7.3189,-2.1508,-5.9221,1.0422,-6.7093,-3.2709,-6.2936,
5.9586,-2.768,-5.1076,21.572,-5.3329,19.4195,19.0036,5.1715,12.0783,6.9668,3.8723,7.7933,-7.8948,2.7612,
-6.932,11.498,9.2989,34.3777,3.6643,32.3543,12.5607,-7.672,25.4536,-7.5512,5.568,-3.3999,4.1479,-7.5275,
7.5839,-1.8457,-5.3591,18.2151,-2.8223,16.3131,-2.2929,6.8884,9.8264,7.0019,0.8954,9.3378,-8.1523,2.5654,
0.25971,-5.1092,-5.0376,3.0222,-5.0633,1.2343,-16.2553,9.2469,-4.8632,8.5098,3.252,4.921,-7.181,5.3037,
-5.2999,9.2974,9.3646,16.9408,-3.0723,15.2602,-1.18,-5.408,9.5286,-6.1008,0.88775,-9.4743,-1.2065,-0.076156,
8.2746,-5.3605,-5.2973,30.0244,-7.9495,28.4446,-14.004,9.0165,23.0569,8.3653,7.3421,5.1942,-3.7853,7.8823,
-6.3219,1.2279,5.6261,40.1535,0.72225,38.7893,-7.3791,-5.6245,32.6404,-3.7056,2.081,-5.7226,5.1188,-4.1597,
8.1574,4.0463,-2.4247,23.6443,1.1608,22.3619,-20.4342,6.8846,16.582,3.2652,-2.8646,-1.5228,-4.8298,6.2123,
0.19626,0.67002,-0.11005,8.1257,-1.078,6.9202,-5.1081,2.3741,1.4871,-0.54611,-0.52311,3.6302,-4.7809,2.2246,
-1.0206,14.7298,13.9965,-4.6542,8.3869,-1.9311,9.2984,-8.1324,15.4978,-7.9849,1.1953,-6.9517,6.3524,-2.4884,
11.3326,-0.25397,-0.94324,9.7251,-1.5164,5.6564,-5.3595,6.4555,1.9139,6.5942,-0.081625,7.5654,-7.7672,5.1326,
-3.4474,-2.8898,2.2468,9.0209,4.6,9.8967,-7.0864,-3.2113,15.8991,-2.5991,-0.31758,-2.6504,4.0269,-2.1649,
-2.6375,9.5761,-0.057133,-5.6204,-0.7372,-4.7971,7.4388,-0.36753,0.84512,-5.5761,-10.1805,-6.1064,-7.5429,-2.7579,
-0.79204,0.083454,-0.77661,-19.3832,1.4762,-18.6093,21.0925,2.788,-13.3056,-5.483,-2.0978,-1.6426,-3.9568,-1.3876,
-7.0113,10.6835,10.357,-15.5689,10.5464,-20.6262,19.5857,-7.5024,1.5927,-12.8666,3.3305,-11.6672,10.3806,-2.2684,
1.8449,-4.0575,-4.3644,-28.7347,-2.8606,-33.4887,4.3106,7.0477,-12.6028,2.0054,0.47931,3.1328,-4.1017,5.8212,
-10.0757,1.6088,-1.0898,-12.9106,10.0853,-17.3793,-10.0481,1.202,2.2533,-0.64574,3.1019,-1.5142,4.0988,-3.4455,
0.65217,15.6123,11.991,-15.9922,5.6242,-9.5874,4.6548,0.64793,8.144,-7.8378,-4.3151,-8.1718,-6.7524,-3.2387,
-0.83322,15.0373,1.6306,-29.1326,-3.8727,-23.1122,18.4755,0.12666,-6.4446,-4.475,-2.128,-3.3431,-10.6856,-1.5986,
0.6628,21.848,14.066,-13.2847,10.4596,-11.4821,14.9571,-8.5578,-2.5632,-9.9913,2.3382,-7.4811,4.0555,-4.395,
14.723,6.4371,-0.87795,-26.5876,6.5783,-24.8932,-0.040329,6.0557,-16.5094,4.3467,-2.3816,7.0678,-3.7803,1.8945,
-0.26035,0.62779,-0.46382,-39.0923,9.0761,-37.4996,-14.1379,-0.93565,-22.8702,-7.4833,3.064,-3.8411,4.1593,-4.0037,
4.8167,14.6901,13.664,-22.6468,8.0492,-21.1496,0.81037,-4.254,-7.398,-12.8189,-1.9406,-8.9133,-0.4286,-8.1018,
2.1176,12.2417,-0.29197,-7.188,-6.413,-5.7806,14.8617,-0.14234,7.1459,-3.855,-5.6805,1.2625,-12.4544,-8.0981,
-0.17862,23.7998,13.8256,7.3433,7.7105,8.6662,6.257,-5.6774,-7.3828,-8.6849,0.20392,-7.7309,2.3928,-3.0325,
12.3651,8.2718,-1.104,-7.1973,1.9452,-5.9538,-8.2184,8.7632,-21.0399,4.3692,1.6379,3.8202,-6.7891,6.7904,
-2.4768,-6.3245,-11.4014,-20.8655,5.2027,-19.6965,-21.8253,-2.4883,-24.8389,0.25041,9.2522,-2.6758,4.2233,-0.36568,
-2.4487,8.1549,3.3827,-5.5135,2.7214,-4.4147,-6.4158,-8.3646,-9.2486,-7.236,2.1896,-12.3971,1.8008,-4.9235,
2.2778,4.4119,-3.6897,8.9173,-5.3958,9.9501,8.0692,2.9833,5.4063,2.116,-0.5931,2.4467,-11.0815,-2.9406,
-6.7767,13.547,9.7883,22.4822,7.2202,23.4531,3.0055,-7.5598,-3.5949,-6.9288,1.6119,-7.4618,2.3576,-7.8256,
7.7299,-1.3659,-4.899,7.0333,-3.0949,7.9459,-11.2748,6.9938,-17.4792,6.7433,2.2381,5.7604,-7.6658,5.9003,
-6.8339,-15.3839,-18.705,-7.4887,-3.8736,-6.6308,-24.6983,-5.8386,-30.5305,-2.8203,4.9963,0.1121,-0.9393,-1.2026,
-3.5316,-0.36088,-3.4827,7.0606,2.3846,7.867,-9.1164,-8.6215,-14.5987,-8.1949,2.5271,-7.3662,6.5891,-4.2637,
3.1882,-2.8698,-12.0713,20.737,-11.8585,21.495,1.4332,1.2958,0.37727,1.2149,0.68828,2.4753,-6.0988,-1.8387,
-5.4392,9.5944,2.7529,33.5928,2.9531,34.3053,3.0342,-8.182,14.4546,-4.884,10.5289,-4.1807,8.3672,-0.041653,
3.0821,-5.0812,-11.5122,17.4772,-2.527,18.147,-11.2478,1.4677,-0.51265,0.71187,0.25644,-0.55563,-0.2091,1.8893,
-4.0925,-16.9482,-11.7858,2.3286,-2.6161,2.9582,-20.3344,-2.7175,-14.5819,-1.5002,3.8562,-0.76303,7.275,-2.8036,
-3.6057,-1.8313,3.0213,16.2889,1.6384,16.8807,-5.0144,-10.9903,0.39302,-5.0254,2.4198,-6.2606,15.7568,-4.3224,
4.8054,-14.616,-11.26,29.4115,-9.5472,29.9678,-18.8135,3.7691,14.4694,9.3761,2.7567,8.215,4.6882,7.0243,
-8.9806,-2.6519,-0.22003,29.4543,2.1127,38.6541,-9.7309,0.047569,27.7013,-0.46597,8.376,2.7805,18.5069,2.2642,
1.4404,-5.6261,-11.0529,13.5871,-7.8962,22.2349,-23.2471,9.4449,11.9392,5.1054,0.88376,8.1575,10.7682,3.3334,
-2.5024,-6.7348,-6.0514,-1.3282,-9.3506,6.8008,-7.7523,10.8064,-2.8772,10.1017,5.651,11.5244,17.8348,2.1695,
-5.9677,7.7693,7.5681,-15.3485,-1.7997,-7.7073,6.8129,-3.9419,11.3955,-4.6044,2.6608,-3.2671,25.6828,-6.3968,
5.4775,-6.7968,-6.986,-0.32757,-8.9225,0.34781,-7.6959,10.1539,-3.3883,5.1925,2.5011,10.306,10.0418,4.1103,
-8.9511,0.84181,5.364,13.7921,-2.8436,14.4269,-4.5826,-3.712,10.915,-6.4472,0.66389,-2.6048,18.96,-4.5724,
3.5164,14.8913,5.0422,-1.1354,-6.0474,-0.53868,9.7924,-1.0792,-3.8399,-3.6502,-5.1605,-1.0023,12.0374,-1.8879,
-3.6838,-0.10218,-4.6601,-15.1673,-8.8179,-14.6064,13.1817,-3.1834,-17.7095,3.0765,-2.1996,5.5656,10.5925,-4.4255,
-4.9092,8.3401,9.7195,-14.8597,5.2088,-24.2144,18.6575,-9.2591,-2.5469,-3.8568,0.8247,-7.3016,24.0569,-8.4985,
9.4853,-6.2603,-4.9637,-28.0681,-5.2269,-36.8616,3.4381,5.3965,-16.4941,5.5335,0.29305,7.2365,20.0827,2.6165,
-1.5686,-7.9338,-1.5328,-21.684,1.1123,-20.5499,-10.8682,-2.0377,-1.4044,-3.7162,3.409,-1.2724,23.457,-3.0841,
-2.9205,6.6422,6.7541,-18.455,-2.3287,-18.1121,3.8839,-5.2897,12.7798,-3.4934,-5.9548,-5.5346,7.9496,-4.8275,
-4.4323,-2.3127,-4.9791,-25.3015,-4.3583,-31.1253,17.7509,3.4636,11.4104,5.6345,2.3564,8.5365,-6.6274,3.4161,
-6.8179,4.334,1.8271,-9.6834,4.3393,-15.1578,12.5882,-6.1442,1.8077,-2.6578,8.2406,-0.41183,7.8703,-0.88621,
7.6912,-10.0261,-12.3825,-23.2024,-9.1777,-28.3483,-2.2671,8.3245,-12.4008,11.2402,4.131,13.7129,21.498,3.7465,
-5.4238,-23.5245,-9.5909,-35.9102,-2.6015,-40.7474,-16.231,-4.829,-2.3772,-0.28044,6.5342,2.1643,27.4392,-2.9862,
-1.0012,-8.013,5.0845,-19.6556,-1.7222,-24.2026,-1.1572,-6.2262,11.8654,-6.7713,0.11636,-7.3658,28.4437,-4.976,
-1.4231,-0.42212,-8.5976,-4.3763,-9.8136,-8.6504,13.0122,4.2702,25.2535,1.3477,-0.85449,1.7533,32.5217,-2.7497,
-6.8813,5.1468,6.0182,9.9863,4.8752,4.4021,9.3392,-5.386,9.6383,-3.3124,1.8483,-3.4131,40.4528,-2.8252,
7.6315,-9.262,-8.4429,-4.7129,-5.42,-9.962,-5.3211,8.4345,-5.04,10.9863,0.77311,10.8917,23.9256,2.6469,
-3.3109,-22.8063,-17.5773,-18.5301,-3.4075,-23.4643,-19.1019,-2.4354,-18.8376,1.7708,3.8602,7.4664,26.2258,-5.4661,
0.50338,-7.3379,-2.4226,-3.3183,-0.069829,-7.9565,-3.8558,-6.3869,-3.6073,-7.2533,-2.3972,-4.792,23.4471,-6.8251,
4.5704,-0.75147,-5.7719,10.9808,-5.6091,6.6209,10.4756,7.2531,10.7091,6.9201,4.2545,6.3417,10.7125,-4.7285,
-4.3806,3.6321,5.1794,24.422,4.8509,20.3237,8.642,-3.3051,-4.0335,-3.6181,4.9634,-3.6799,20.1925,-10.229,
9.9823,-10.6859,-9.2314,8.8566,-0.74316,5.0042,-5.9765,10.9932,-17.8914,10.6989,-4.0116,10.6409,11.2683,4.4847,
2.5139,-11.8522,-15.7876,-5.7748,3.6399,-9.396,-19.7179,5.8743,-30.918,9.9365,-8.1093,6.0256,16.8588,-2.1718,
5.7373,2.9589,-0.74035,8.6717,14.0265,5.2678,-4.4349,-2.1911,-14.9629,-2.711,-5.6948,-6.3873,19.7035,-13.129,
10.4548,6.2761,-9.7345,22.2514,-0.91506,19.0517,9.9312,9.7509,0.034893,3.9596,-5.5939,6.7704,4.4212,-5.8333,
-1.5007,14.3357,4.9496,35.0163,6.4914,32.0086,0.17656,-4.9341,14.1328,-8.0881,-4.5351,-3.9997,12.9538,-7.1705,
12.6893,-0.62447,-9.4474,18.8154,11.6455,15.9881,-13.934,6.0875,-0.81517,1.7967,-4.504,2.7478,5.6686,-4.0892,
8.9152,-5.2875,-8.6396,3.5864,11.1873,0.92879,-15.3881,5.4808,-14.8663,1.9299,0.8275,2.8239,4.6051,-8.9051,
9.5851,9.1298,5.9788,4.8173,8.3469,10.0319,-0.36481,-0.8736,0.12572,-4.6934,-3.8014,-4.3354,0.71341,-9.5761,
17.4458,-5.518,-8.4799,18.6282,-2.0357,23.53,-14.4429,10.9891,11.9284,9.6882,-3.8144,10.0247,-12.1037,-0.5657,
2.2991,8.9131,3.8395,31.6105,9.8967,36.2182,-5.1402,-3.7703,9.5256,-4.9931,0.029736,-4.1946,2.7225,-8.0035,
12.646,12.3554,-3.622,15.6139,3.0361,19.9451,-18.9318,5.9765,-5.1459,-4.6935,-6.2388,-1.5326,-7.9251,-4.631,
8.9948,0.044681,-2.9227,0.57708,2.854,4.6484,-3.6961,5.6179,-18.9372,-1.0374,-2.49,5.3078,-7.4496,-2.9068,
3.8758,14.142,7.617,-13.5575,11.6008,-9.7305,10.6256,-7.9755,-3.7009,-6.0369,-2.0996,-4.4107,5.7714,-3.4558,
8.4636,-0.80652,-6.9401,-14.7927,-3.1953,-3.9644,-4.1119,6.603,-17.5789,5.4127,-2.9376,9.3514,-8.6749,-0.35581,
-6.1442,5.5086,1.0684,0.1949,6.5167,10.0116,-13.0242,-3.7958,-2.4242,-6.2404,1.818,-3.0199,0.88437,-9.7346,
1.8168,19.1574,-2.8521,-13.9168,0.82351,-4.6891,1.8572,-1.1575,-16.3787,-3.4558,-8.414,-3.8026,-8.3277,-3.8479,
-4.5591,3.9079,-12.3219,-27.1818,-6.4567,-18.5077,15.8458,-1.0885,-29.496,-1.3203,-8.8735,2.2097,-10.2386,0.23941,
-3.3213,10.5431,2.5174,-35.7944,8.0307,-18.6023,10.3158,-5.361,-13.6262,-8.4719,0.33605,-6.1176,4.4757,-1.7032,
10.6166,-4.1895,-11.7337,-47.7467,-2.9355,-31.5862,-4.4032,8.2168,-26.9087,3.3648,-2.3354,5.5779,-9.8929,-0.3959,
-0.62596,-0.20246,0.78049,-30.7819,9.2915,-15.591,-3.7778,-5.2919,-11.1941,-5.9963,0.69698,-1.9878,-5.6839,-3.2644,
2.7865,13.9097,8.9288,-14.835,3.4313,-0.55555,10.5489,-3.0462,3.5775,-9.4929,-7.0576,-4.2787,-9.6812,0.30588,
-0.75536,1.8674,-2.6941,-27.8039,-9.3078,-14.6222,24.016,6.7778,-7.8448,0.23591,-3.2599,6.5831,-12.9564,4.1437,
-4.3252,12.1199,10.242,-12.0357,1.6152,-15.1909,8.475,-7.7289,-14.8457,-6.7679,0.55131,-5.1399,1.9209,-0.20206,
10.0343,-2.7073,-4.4725,-25.4136,-6.4359,-28.3795,-6.1335,6.8349,-28.055,7.7382,1.2411,9.2685,-12.2943,9.6918,
-4.6678,-16.6448,-17.3403,-37.9887,-5.0856,-40.7767,-19.8655,-0.32368,-31.3129,-3.2109,2.6127,-0.80806,-17.3412,0.43362,
5.253,-1.5462,-2.1999,-21.6094,-4.0576,-24.2301,-4.5736,-0.54569,-15.3341,-7.1161,0.28678,-5.8213,-22.3268,0.16618,
1.0819,3.4874,1.9092,-6.2128,-17.7934,-8.6763,9.8009,2.3796,-0.31407,-0.90407,0.26957,4.6514,-20.9867,-1.7715,
-9.5883,7.1345,13.846,8.2599,-2.6258,4.8597,-4.6458,-7.4042,-13.7926,-7.5983,3.6278,-5.7511,-5.6275,-4.5578,
5.087,-7.3936,-1.0848,-6.3357,-3.5529,-9.5319,-18.467,7.1401,-27.065,5.3907,0.035724,6.1632,-17.9441,6.321,
-9.3182,-21.05,-11.5045,-20.0555,-2.3756,-23.06,-31.459,-4.496,-17.6081,-1.6815,10.1567,3.383,-6.2623,0.15694,
-11.4104,-5.687,3.2858,-4.7522,-1.5102,-7.5764,-15.4715,-7.8417,-2.4516,-6.1603,9.3063,-6.2195,2.5495,-3.9498,
-4.9411,-7.3945,-11.0114,9.6329,-9.6144,6.9782,-0.44317,6.7288,11.7955,8.3093,7.3018,5.2405,-8.2086,6.8921,
-12.3575,-0.68424,0.013616,18.9371,1.0855,20.6595,0.30632,0.90218,18.8008,2.8698,10.238,-3.7506,5.2992,6.9609,
2.4839,-14.7432,-14.0872,3.7009,-10.7897,5.32,-13.8121,10.248,3.5727,11.6157,6.0083,8.2845,-9.1188,10.6406,
-6.4627,-24.3432,-16.014,-10.6212,-6.0448,-9.0992,-27.0833,1.1973,-10.7416,8.2674,8.2992,7.5463,-7.4868,3.9763,
-11.3776,-8.7826,-0.95316,4.1161,-5.2002,5.5467,-11.3583,-7.5517,4.0029,-3.7978,-0.39395,-4.9576,-12.3403,-1.5649,
-0.33072,-4.7606,-6.078,17.9691,-13.8061,19.3139,-5.4948,7.0014,17.8627,10.5301,8.0657,9.4398,-18.1074,10.3395,
-10.1927,2.9968,8.3867,30.991,-0.2034,32.2551,-2.0317,-5.5905,30.8909,0.13657,15.0537,-0.88823,-2.921,3.6937,
2.9521,-11.2831,-6.2165,15.0315,-8.3861,16.2198,-16.0098,1.9756,14.9375,5.4308,3.5454,3.5036,-14.6767,3.4718,
-2.2866,-10.7264,-3.4332,0.029641,-6.6778,1.1466,-22.8826,4.9906,-0.058783,7.7566,13.6967,9.801,-11.1449,5.4328,
-8.175,4.0171,10.8728,7.3792,-9.4105,3.7291,-7.4097,-7.601,14.0447,-5.9653,7.8135,-4.8871,-7.8247,-0.43644,
6.4155,-4.2984,-2.6746,21.0364,-12.7025,17.6054,-21.0651,6.9551,27.3021,8.4926,8.7905,9.5062,-15.068,13.6897,
-7.3463,8.7337,11.5859,33.8742,-4.9505,30.649,-5.8218,-7.5622,27.7126,-5.3938,-0.17282,-4.5615,-10.5488,-1.2316,
2.7354,10.1379,3.7803,17.7418,-9.4737,14.7101,-19.5725,-3.9752,11.9499,-4.1063,-5.4646,-4.7697,-19.0749,-3.3271,
-4.9003,2.058,6.6872,2.5773,-10.1103,-0.2725,-4.2981,-1.5673,-2.8671,-1.6905,0.40708,1.0603,-15.7605,-2.8863,
-2.4371,16.0345,20.386,-4.5672,4.5963,-1.4614,10.0598,-10.8733,11.4049,-10.9891,1.1056,-8.8857,-4.451,-3.4365,
10.4831,0.97245,5.0628,-5.0163,-1.5848,-10.2918,-4.6438,3.8791,-3.3794,0.99844,-1.1304,2.4933,-14.0664,4.2415,
-4.2459,0.91388,10.0615,9.3847,7.1872,4.4257,-4.1242,-2.0182,9.8386,-5.8101,3.7579,-7.2971,0.87762,-0.83346,
-5.5576,1.1002,8.7347,17.1368,4.5866,14.8857,2.6309,-1.174,9.0073,-4.7384,2.8093,-6.1361,-0.018649,-1.0247,
-6.1883,1.5164,7.7284,8.396,2.3834,7.726,9.222,-0.62137,7.9849,-3.49,1.1947,-5.2858,-3.3918,-1.4453,
-5.8172,2.3895,7.265,1.1434,1.2763,2.442,15.8993,0.86194,7.9877,-1.8346,1.1228,-4.005,-5.5986,-0.87645,
-6.4318,2.2459,5.865,-6.638,-0.7287,-3.9713,21.6942,1.2924,6.5444,-0.7604,0.091799,-3.2825,-8.6369,-0.82364,
-6.5281,2.5933,5.0309,-12.9884,-2.6129,-9.0354,27.1413,2.1789,6.1517,0.24932,-0.39587,-2.1215,-11.011,-0.77445,
-6.8595,3.1608,4.4879,-19.6809,-4.1436,-14.5191,32.5024,2.7713,5.5416,1.4394,-1.5772,-1.2711,-13.4836,-0.96872,
-6.6889,3.2122,3.4957,-25.9716,-5.5818,-19.6732,37.5422,3.3284,5.4503,2.5584,-1.7235,-0.95338,-15.3257,-0.66963,
-5.0825,6.1531,15.0963,-12.6032,8.8531,-12.9492,21.1896,-7.7178,-4.7586,-4.5848,10.1902,-9.3321,-0.30612,-1.8345,
4.8634,-8.316,0.090517,-25.947,-1.6809,-26.2723,5.8182,1.9043,-18.5731,5.8132,4.7581,0.86881,-12.7008,5.5064,
-7.7207,-21.9171,-11.1226,-38.4902,4.4457,-38.7959,-8.6308,-2.3075,-8.4206,3.295,9.0522,-0.38884,-2.5389,7.8269,
-5.5702,-6.5021,3.6447,-22.0808,3.4561,-22.3682,5.987,-6.2664,6.1846,-5.8203,0.55528,-5.4267,-7.9298,4.2242,
-1.3794,1.7211,0.65447,-6.6559,-3.9819,-6.9261,19.7278,3.2688,19.9135,5.134,2.4499,6.9502,-12.7569,8.3093,
-5.8766,2.8229,9.0506,7.8434,8.0669,7.5895,4.4441,-3.9174,4.6187,-1.6818,0.61594,-7.5668,0.78278,2.2669,
8.2145,-11.4465,-5.5924,-6.7272,2.5214,-6.9659,-9.9225,10.4176,-9.7584,7.8189,-4.4829,4.5766,-13.3642,10.5668,
-6.3783,-14.4954,-9.9568,-20.4236,9.3598,-20.6479,-23.4272,-0.45103,-23.2729,0.84207,4.2219,0.68682,-4.2469,5.8352,
-5.634,0.47436,4.7406,-5.0981,6.3878,-5.3091,-7.9215,-5.7264,-7.7765,-6.9215,-3.7439,-11.4057,-5.4381,-2.2279,
5.5505,7.3149,-0.24376,9.3077,-1.9493,9.1095,6.6537,8.7172,6.7901,4.8226,-5.2064,3.3786,-16.4401,7.3059,
-6.3521,13.6246,12.3042,22.8493,12.2677,22.6629,6.2545,-5.9058,9.3957,-8.4825,-1.5199,-4.4164,-1.3537,2.0474,
1.7416,-1.2929,-2.534,7.3783,2.7339,7.2031,-8.2208,2.8842,-5.2681,1.1852,-6.7311,-0.77717,-11.516,0.47807,
-7.0393,-11.6999,-11.4203,-7.1644,7.3908,-7.3291,-21.8275,2.7114,-19.052,2.5606,1.8677,0.23356,-7.4508,0.44962,
-3.9656,3.1021,3.3649,7.3655,8.1524,7.2107,-6.4179,-6.8515,-3.8089,-8.4391,-0.41377,-8.6983,-3.8705,-1.7468,
8.0824,1.3495,0.15003,21.0236,-3.183,20.878,8.0672,7.6595,10.5197,6.1673,5.1547,5.9236,-8.6995,7.2761,
-6.5025,5.3659,8.5769,33.8621,5.9263,29.2663,4.9319,-5.9355,11.5757,-3.4823,0.74827,-5.6395,-3.598,-4.9708,
5.0954,-7.2482,-6.0377,17.7304,7.7399,13.4104,-9.4641,6.7127,-3.2188,2.2703,1.9082,1.6887,-13.7465,5.2098,
-5.0925,-15.7313,-12.3036,2.5666,2.214,-1.4943,-2.9911,3.1767,-17.1257,1.8929,8.3014,5.2026,-6.8959,3.6917,
-8.4026,-0.68745,2.5346,-2.5286,8.5885,4.8617,11.2883,-4.9679,-1.9982,-3.7641,2.2595,-4.0274,0.98943,-3.0375,
5.1172,-14.7462,-11.7175,11.7231,2.7707,18.67,-3.489,9.4302,7.1603,8.995,0.19596,7.3017,-13.1699,1.9657,
-4.3489,-1.0872,3.0856,25.1197,12.2455,28.5167,-0.14615,-0.41513,12.5152,-2.6319,5.9688,-1.8135,1.7203,-0.080432,
-0.7135,5.7269,-2.2817,9.5125,-2.5893,12.7057,-7.3682,2.5018,-2.3357,-1.5101,-6.4404,-1.2228,-11.8801,-1.5223,
-2.3579,-8.3552,-2.3856,-5.1582,0.33789,-2.1566,2.956,4.5213,-16.2955,9.9091,4.3103,6.8043,-7.0699,1.2206,
-2.4574,-2.7925,6.6754,-18.9487,14.0559,-16.1272,16.8787,-6.1143,-1.2178,-1.0497,8.6305,-5.8964,7.4543,-1.5042,
3.7158,-16.7249,-7.8251,-20.3424,0.43836,-19.8596,1.766,7.0273,-15.2447,2.1465,-1.2871,5.3038,-7.093,3.6479,
-4.7023,-1.6214,6.7444,-5.0219,14.5121,-4.568,11.301,0.33867,-0.23005,-4.2488,7.4672,0.1649,3.9377,3.911,
-2.7329,12.5759,13.0884,-18.8205,5.0849,-18.3939,24.7229,-5.2253,-4.4343,-13.3939,-3.3451,-11.1732,-6.1805,-6.6875,
-8.5947,25.9213,19.7751,-31.7913,7.9131,-31.3903,37.3395,-3.7067,9.9317,-7.5288,3.3633,-5.9233,4.5544,-7.0094,
-5.1868,38.466,32.6886,-15.7838,21.5383,-15.4069,49.1992,-6.8585,23.4358,-2.7385,14.249,-9.9064,18.3811,7.3907,
0.90925,22.0581,16.6273,-28.9368,10.4848,-28.5825,32.1472,6.0863,7.9297,3.6925,-0.70598,-4.0092,3.1783,12.2497,
-0.35037,6.6346,4.3012,-22.983,16.363,-12.7675,16.1184,6.4442,-6.6461,-3.0372,4.5179,-2.5636,8.0486,5.9708,
3.5268,19.6136,13.202,-7.504,4.2942,2.0985,29.2513,-2.1374,7.8527,-11.0494,-9.8532,-8.6765,-6.5344,-6.9207,
-0.05925,4.3368,-1.6901,-21.1535,-5.1225,-12.1274,41.5962,5.2217,14.0095,3.7135,-9.1411,5.3415,-20.0011,1.2073,
-0.2962,3.4739,-2.1909,-27.8381,9.2849,-25.4997,25.0004,2.7392,-0.93109,-2.1736,-0.63887,-3.4147,-4.701,4.7503,
13.8216,-10.8345,-16.1595,-40.2678,7.6434,-38.0697,9.4004,16.6749,-14.9752,3.5007,-2.2875,7.1543,-10.806,10.0091,
-0.62579,-20.669,-16.5154,-51.9517,6.4617,-48.56,-5.2636,3.5026,-28.1767,-2.7352,-0.94522,0.21731,-2.6856,5.311,
5.6785,-5.3289,-1.4245,-34.7346,5.5918,-31.5464,9.1522,3.2927,-12.3861,-3.5351,-5.709,-6.5444,-8.3092,4.5106,
3.8915,3.547,-11.5829,-18.5505,-3.4208,-15.5536,22.7031,8.3973,2.4571,-2.3587,-5.8484,1.0791,-21.308,-1.545,
-2.3675,10.806,1.4041,-3.3375,10.8845,-0.52041,7.2409,0.42165,-11.7904,-7.2789,2.9382,-1.6372,-5.9296,1.1988,
10.0668,-3.9424,-12.7801,-17.2373,-0.49393,-14.5892,-7.2936,14.4963,-25.1829,7.2579,-0.37136,10.2714,-10.9969,13.9015,
-1.3834,-17.8058,-26.1133,-30.303,1.2225,-27.8138,-20.956,7.2396,-37.772,6.7019,3.7483,7.0036,-4.7935,11.8621,
-2.2645,-2.6375,-10.4465,-14.3848,0.66742,-12.045,-5.5986,-0.42541,-21.4056,-1.8951,-3.7072,-0.16488,-8.844,5.848,
0.76386,2.9441,-12.5913,0.57825,-11.9061,2.7777,8.8373,11.6512,-6.0213,6.8957,-3.0029,11.4142,-20.3649,7.4253,
-4.3436,7.3468,-0.50739,14.6436,2.9083,16.711,-5.7929,0.58827,8.44,-2.4361,5.6134,-1.5632,-5.043,4.8106,
10.017,-7.194,-14.5769,-0.33506,6.9518,1.6084,-19.5454,12.3631,-6.1664,9.5202,0.69689,6.9667,-9.1994,12.9577,
1.8234,-17.9701,-14.3052,-14.415,7.0166,-12.5881,-32.4726,5.3543,-19.8964,7.0208,4.5115,3.1743,-5.273,7.3599,
-2.8653,-2.7919,0.65311,0.54994,2.4983,2.2672,-16.4243,-5.8132,-4.6027,-5.2106,1.1073,-11.1162,-0.37736,-2.4821,
10.8041,-3.4679,-2.1578,14.6169,-4.8823,16.2311,-14.3543,8.6356,9.7735,9.202,5.3797,3.6508,-7.5854,11.7668,
-3.9441,3.9712,3.2745,27.8399,2.6413,29.3573,-11.5648,-0.67942,16.7796,-1.1118,0.71853,4.1546,0.58234,5.156,
3.6437,-9.2828,-11.022,12.0695,-1.8557,13.4958,-24.9709,9.4845,1.6728,6.186,-1.253,3.9056,-6.2013,9.6671,
-1.1544,-15.7157,-16.7481,-2.7546,-0.057352,-1.4139,-22.1471,6.2636,-12.5275,6.5375,6.2937,2.4657,-1.7316,4.5076,
-2.5312,-0.67273,-1.6433,-6.8074,7.1772,-6.2701,-6.7183,-5.6811,2.3241,-4.4598,1.0956,-5.3948,2.7108,0.38095,
9.672,-14.7324,-15.6447,7.701,-3.3766,8.2061,-20.4152,8.7597,16.0437,9.9078,1.5121,9.0289,-7.5749,14.4581,
-5.0083,0.25157,-0.60598,21.339,6.2262,21.8138,-11.2363,1.606,15.8042,2.2032,5.5189,-0.069193,6.9795,5.9981,
-3.1413,11.6856,-2.6183,5.9586,-1.6194,6.405,-15.1416,0.78648,0.75596,-2.0266,-3.2481,-4.6446,-7.5392,0.094817,
-1.0246,2.3074,-3.9075,-8.4989,-0.075963,-8.0793,-2.182,7.4877,-13.3894,7.736,5.6234,9.7341,-10.4613,6.8376,
-3.3735,6.5075,4.04,-22.089,6.1953,-21.6946,7.1081,-3.5661,1.514,-2.3689,1.4299,-4.4678,1.2538,2.5712,
5.2648,-7.983,-10.3024,-34.8636,-4.5405,-34.4929,-7.4183,8.4577,-12.6769,7.173,-1.3073,4.2362,-5.8115,4.1039,
-5.174,2.0165,4.4157,-18.6718,9.8319,-18.3233,-2.2732,-3.137,2.1837,-0.0058437,10.3403,-2.7669,8.6372,1.9295,
-0.043282,15.9955,13.0686,-22.0105,5.7469,-28.9138,11.9632,-2.9487,5.5474,-5.3081,-4.3801,-9.8317,-2.1247,-1.5608,
-4.138,6.9613,-0.48994,-34.7899,-4.4799,-41.279,25.3454,4.2181,-8.0418,-1.8566,-5.6838,-2.7339,-8.9866,-1.7081,
-4.1307,14.4974,11.832,-18.6025,9.8889,-24.7022,16.8348,-4.4712,6.5407,-8.7346,0.68278,-9.5597,5.6526,-0.4003,
10.2171,-0.47246,-2.9779,-31.5864,8.9339,-37.3201,1.7247,9.8971,-7.9517,5.8894,-3.2146,5.1139,-4.2073,9.2647,
-3.7728,-8.2774,2.3829,-18.242,19.2444,-21.2216,-12.4788,2.6753,-2.6539,-1.0919,4.4503,-2.7852,5.9273,4.6117,
-0.41292,6.3193,16.3399,-3.0475,6.2796,-5.8483,2.3699,-1.1006,11.6053,-6.5705,-3.2885,-10.5719,-2.3821,0.71956,
-1.3522,19.076,6.8029,-3.2263,-4.7027,-3.9309,16.3277,2.3396,18.2601,0.57245,-7.9121,-3.6708,-8.5059,-0.7701,
-5.8506,15.2801,11.4562,0.10049,9.6794,-8.2746,6.9122,-6.2362,3.0645,-8.3797,-5.7499,-14.779,6.1045,-3.3752,
8.6004,0.26333,-3.3312,-14.0055,7.5319,-21.8781,-7.6026,8.238,-11.2194,6.2231,0.6206,0.20775,-6.4338,10.9273,
-3.8467,-2.2831,-3.2518,-27.2652,11.4186,-34.6654,-21.2464,1.5972,-4.0385,3.56,8.2964,4.6541,3.1115,11.3565,
-1.9284,11.9539,11.0433,-11.5293,9.5284,-18.4855,-5.8716,-5.0063,10.3038,-4.6075,-3.0479,-8.3994,-0.20894,3.203,
-2.777,13.2853,2.7884,3.2625,-5.1433,-3.2764,8.5807,1.0786,23.7856,1.4535,-5.2752,-1.1465,-12.7294,1.0827,
-9.841,6.2215,10.3341,14.6359,3.4805,8.9713,9.5119,-11.0374,11.2712,-4.4181,4.2002,-10.237,2.1343,-1.8746,
4.8494,-8.2518,-4.3859,-0.34228,8.8155,-5.667,-5.1588,3.7248,-3.5051,9.947,3.707,4.4772,-4.14,11.0121,
-0.6237,-15.108,-11.9565,-14.4217,13.5892,-19.427,-18.9493,5.55,-17.3948,1.7574,1.0744,-0.0092351,3.3393,7.9413,
-0.34531,-0.10154,2.8609,0.54357,10.1223,-4.1613,-3.7124,-4.6649,-2.2511,-5.8194,-5.4975,-12.7831,0.48735,3.3674,
-1.2887,11.5942,2.3278,14.611,-4.585,10.1883,10.6104,-1.0108,11.984,0.79609,-8.06,-0.44676,-13.6419,2.6832,
-6.5138,17.1653,15.2038,27.8343,9.7901,23.677,15.2764,-5.7706,13.1931,-7.4462,-0.8277,-4.7585,1.2766,4.4507,
7.977,2.0354,0.19155,12.0642,9.2027,8.1564,0.25982,8.6756,-1.6984,5.0517,-1.7419,4.686,0.23615,10.9321,
-0.33507,-10.4995,-10.3048,-2.7596,9.1329,-6.433,-13.8558,8.0348,-15.6965,7.6411,8.4855,8.2613,1.6682,5.9378,
-1.5198,4.2304,4.4135,11.506,13.1642,8.053,1.0756,-0.40101,-0.65475,-6.5561,1.4684,-5.4908,2.773,1.4842,
-0.70571,2.892,0.17185,24.9156,-1.7256,21.6698,2.5776,7.5763,13.4845,0.82712,-7.0553,-1.5459,-11.4934,2.6,
-9.8224,13.3238,10.2849,37.5207,10.3087,34.4696,0.013006,-3.4831,15.568,-2.597,2.0451,-7.2378,3.2962,0.51624,
3.5414,5.0526,-4.4322,21.1694,2.2184,18.3015,-14.0878,3.7158,0.53391,0.21041,-4.5856,-2.2242,-7.5064,4.1007,
0.67759,4.9902,-4.5282,5.7993,10.5207,3.1034,-6.3736,2.7697,-13.5981,2.3667,2.1973,-1.8496,0.8975,5.0593,
-3.2195,18.7907,9.8435,17.9848,14.7107,11.5945,8.1088,-9.9295,1.3178,-5.4876,-1.3086,-15.2359,5.6644,-1.9923,
7.82,3.5633,-4.8471,31.0057,-0.27197,24.9988,-6.4777,4.7663,6.4206,8.9417,-2.4358,-0.22178,-7.9321,8.0087,
-4.4596,17.4495,8.9413,43.2454,9.5058,37.5989,-7.5351,-2.3891,15.4354,-5.6948,2.7723,-1.7752,6.6438,2.4667,
4.4846,29.7794,9.8511,26.5506,3.6328,21.243,-10.4574,-0.79996,0.40927,-4.8714,-6.5531,-6.0075,-3.2751,1.3544,
-1.3276,13.8926,2.2702,10.8576,-0.20059,5.8684,-0.9119,2.3815,-13.7153,2.4107,-2.0626,1.3428,-2.3557,5.371,
-3.8993,13.662,7.1954,-3.8939,11.1399,-8.5837,11.9173,-5.7149,1.2076,-5.206,1.1949,-6.2093,11.8857,4.8075,
10.4347,-1.2578,-7.3363,-17.7602,2.7584,-22.1687,-2.8978,8.728,-12.9648,9.2064,0.64093,8.2633,-2.9275,12.7143,
-2.3632,-0.57965,5.2757,-2.5946,9.3417,-6.7386,-10.3162,-3.4855,1.9131,-4.9636,1.0843,-4.4043,5.2021,1.3461,
1.635,13.5551,13.6362,-16.5389,2.9966,-10.5526,4.4028,1.0619,12.0417,-5.1482,-5.7292,-5.1044,-2.3408,1.2653,
-2.3195,20.3339,-1.282,-29.6466,-6.3423,-24.0194,18.2386,6.3008,-2.7808,2.3916,-5.3855,2.4327,-8.9488,1.1894,
-2.6625,16.7035,4.7,-18.3475,8.0178,-17.6373,4.3698,-7.5748,-2.0113,-8.8389,-1.6881,-10.2465,5.5672,-1.7743,
11.5973,1.6013,-9.682,-31.3467,3.9213,-30.679,-9.9923,6.9797,-15.9907,5.7914,2.9925,4.4683,-3.2025,12.4322,
-3.1986,-8.2565,-11.15,-28.1403,7.0605,-18.3537,-23.4928,1.8609,-0.93122,5.0822,9.0799,2.8746,4.7024,6.5039,
2.0548,6.3389,3.619,-12.3519,5.6728,-3.1525,-7.9832,5.1235,13.2247,-1.0075,8.5349,1.2561,0.56409,5.15,
-3.3709,6.3203,-7.8058,-0.1619,-8.7676,3.6649,6.5958,3.37,21.2288,-2.3931,3.2023,6.9651,-7.1828,-1.4257,
-5.8198,10.0389,6.7625,-3.2852,5.8584,0.7941,5.2361,-7.678,5.855,-4.4187,7.108,-3.8167,7.3482,-3.0274,
8.6294,-4.6635,-7.7432,-17.1881,4.5426,-13.3535,-9.178,6.8827,-8.5963,9.9465,3.5478,9.6685,-2.8541,9.4465,
-4.0604,-11.0121,-14.7504,-30.2568,6.9212,-26.6523,-22.7273,2.0105,-22.1805,1.516,5.5041,3.0628,2.3783,3.818,
-0.6835,3.7486,0.23459,-14.3414,2.4088,-10.9532,-7.2637,-9.92,-6.7497,-5.0823,-2.7797,-7.967,-0.41523,-5.8108,
-3.7755,17.6237,6.8489,0.61908,-7.1358,3.804,7.2721,-4.7455,7.7553,1.7306,-3.3358,2.393,-11.7185,-5.2212,
-4.7543,12.2277,8.6072,14.32,7.3924,11.5293,19.1279,-4.7018,-0.30229,-6.3274,8.1921,-1.366,3.0846,3.5277,
9.631,-2.6059,-6.0093,-0.63918,3.4541,-3.2625,3.8802,9.6803,-14.3842,5.3804,6.0138,7.634,-0.59564,8.3778,
0.49674,-14.6214,-17.3381,-14.7008,7.1033,-17.1667,-10.4526,0.54312,-27.6211,6.0219,13.3657,3.3196,3.2965,-0.802,
-1.2203,0.35591,-2.1978,0.28122,4.9898,-2.0367,4.2745,-6.9617,-11.8638,-4.7037,3.6457,-7.2439,0.92953,-5.3332,
0.29918,14.4346,-0.98184,14.3643,-9.4095,12.1855,18.1181,1.6511,2.948,-1.529,-4.7682,0.90349,-13.2262,-5.4951,
-1.6472,15.4969,12.0927,27.6025,5.255,21.5775,13.1746,-5.6785,2.2889,-4.3295,7.0873,-5.417,1.6673,-5.1656,
12.1902,0.46709,-2.7328,11.8463,4.2164,6.1828,-1.7159,5.9901,-11.9484,3.4018,4.0107,0.93333,-5.4226,1.652,
1.5764,-1.3686,-4.859,-2.9644,4.2044,-8.2881,-14.99,1.5334,-25.3315,-0.41771,5.9392,0.15443,-1.4818,-3.5088,
1.2411,12.8135,9.5326,11.3134,7.0858,6.3091,0.0093672,-7.4765,-9.7116,-7.3823,-2.3706,-12.1471,-2.1156,-8.8416,
4.0589,-1.3324,-3.4517,24.7346,-7.4393,20.0306,-1.7987,4.5411,4.9711,3.1838,-5.6031,-2.2595,-16.0886,-1.5625,
-2.9333,12.8475,10.8554,37.3505,5.1788,32.9288,9.3965,-3.9259,-1.3527,-3.274,4.3743,-6.9444,-1.0233,-3.8791,
8.5711,5.9304,-3.8959,21.0095,-9.2319,16.853,-5.2673,-0.55708,-15.3716,2.9482,-3.8421,-1.4663,-11.8084,-6.7796,
-3.2716,-8.5254,-17.7622,5.6489,-13.8599,1.7419,-18.8103,-1.7287,-28.5493,4.9407,2.8961,2.7193,-9.8944,-6.6136,
-2.1112,4.8813,-2.5964,-8.79,1.0717,-12.4627,-3.5817,-3.5534,-12.7363,-2.5868,10.9173,-1.3005,4.7993,-1.8786,
10.5491,-9.5116,-16.5407,5.8374,-3.9337,2.3851,-17.4668,9.6753,-2.6925,8.1738,7.8522,12.8775,-8.6247,4.0188,
0.99795,5.1591,-1.4482,19.5872,10.4023,16.342,-2.3188,-1.7516,3.4945,-2.681,10.0321,0.65643,4.6669,-0.31983,
7.4458,18.9495,9.7257,4.3119,2.4267,1.2615,5.4129,1.9692,-10.8152,-3.7252,0.030392,-2.5162,-6.4591,2.8331,
-5.2935,3.7126,-4.9579,-10.0468,-8.0832,-12.9142,7.739,1.1277,-24.2663,0.59562,2.1977,3.1784,-10.1689,2.4217,
-5.4578,2.2848,-4.7806,-23.544,6.5018,-23.9495,19.3262,-4.2422,-8.7103,-1.8502,9.7786,-2.315,4.5412,0.83057,
8.9697,-11.9523,-18.5938,-36.2313,-4.3729,-36.6125,4.0666,10.1123,-22.2877,12.3608,8.4686,11.9239,-3.3238,7.2882,
4.4546,-23.6482,-16.8758,-22.1264,0.46946,-20.3158,-10.2774,3.1182,-20.2271,9.0885,10.6122,9.6417,0.97321,5.1639,
2.7413,-8.1293,-10.0786,-34.8988,-10.6462,-33.1968,4.4392,3.8952,-24.3161,-2.5443,-4.1245,0.38637,-13.1852,-3.8228,
-4.413,-8.9673,-14.5356,-46.9049,-16.0329,-45.305,18.2729,5.3487,-27.4369,-4.5608,0.82274,3.9786,-19.7454,-11.0657,
1.8775,-3.3674,0.075315,-41.4395,-0.97097,-38.9713,3.0765,-3.4081,-17.3545,-2.1177,12.5837,-0.83963,-4.4607,-6.3042,
13.3341,-17.2653,-14.0292,-53.0531,-7.0591,-50.733,-11.2081,10.8963,-30.4132,12.1093,9.4182,13.3108,-4.5546,7.5716,
-1.5659,-22.8576,-14.5132,-38.1801,4.934,-33.589,-24.6356,2.4091,-16.4166,0.65723,15.6019,9.9813,9.8187,5.6714,
0.81757,-7.3861,0.45757,-21.7893,0.058412,-17.4737,-9.0575,1.5414,-1.3316,-5.408,6.2299,1.4284,5.9757,2.6797,
-5.9802,-0.55621,-13.6699,-13.613,-14.0451,-13.8947,5.586,-0.96144,4.1712,-1.2273,-5.2309,-0.10332,-8.4828,-6.6403,
-2.9698,12.2521,1.2503,-5.3242,0.89761,-7.9993,8.2636,-6.4469,-10.1791,-1.8766,9.183,-3.2301,6.1261,0.26606,
11.3084,-2.5831,-12.9247,-19.1047,-1.5666,-21.6193,-6.3322,8.0399,-23.6684,7.636,10.4395,9.7377,0.93808,8.6858,
-3.4701,-13.395,-8.775,-28.9252,4.071,-28.8788,-20.0523,-2.6861,-11.161,-5.1147,10.0541,0.71773,11.7281,-2.1992,
-3.0212,1.5087,5.8515,-13.0897,6.4781,-13.0461,-4.7491,-11.9252,3.6086,-13.7256,1.9793,-12.582,6.9268,-8.575,
-3.563,15.5181,16.9493,1.7957,-6.6853,1.8367,9.6358,-5.6663,17.4921,-3.9843,-0.79083,-6.2837,-7.2274,-8.3017,
-9.1338,27.8434,29.4297,15.788,7.8158,15.8265,23.1577,-14.0029,23.4325,-9.5293,6.0055,-13.137,7.3063,-8.7675,
5.5142,12.0728,13.5639,0.7407,8.1907,0.7769,7.6682,0.93724,7.9265,2.6114,5.163,1.7512,8.1937,4.7738,
-5.7832,-2.7515,-0.86798,-13.4037,6.0118,-13.3697,-6.8919,-3.3371,-6.6491,-1.6429,8.4684,-3.0539,10.8353,0.87216,
-4.2311,11.5136,13.2841,1.5005,5.8923,1.5325,7.6216,-9.1626,7.8499,-4.1957,3.8628,-13.7171,7.5339,-4.724,
-2.5312,21.5483,9.2333,15.5105,-8.5612,15.5405,19.2154,-4.2743,21.4789,2.3228,-0.7071,-2.771,-6.8977,-4.9227,
-9.6104,18.8094,16.3919,28.6798,4.6062,28.7081,8.9035,-13.1767,27.9027,-4.5652,9.9399,-8.8715,7.6162,-0.28882,
5.0662,3.5808,1.3083,12.859,-1.2136,12.8856,-5.7307,1.7139,12.1285,9.8087,10.0667,3.4712,3.4235,10.0926,
-3.0708,-10.734,-12.8702,-2.0125,0.064303,-1.9875,-19.4869,0.044596,-2.6992,7.1717,13.5607,5.9142,6.3514,3.4617,
-5.5376,4.01,2.0021,12.2082,4.1578,12.2317,-4.2177,-13.6969,11.5628,-4.1048,8.1673,-6.2507,12.9602,-4.2178,
-0.86705,-9.3663,-4.5048,25.5757,-10.1917,25.5978,-0.22849,-0.82349,24.969,5.3005,3.339,-0.091113,-1.9174,-4.4466,
-13.8302,5.2957,9.8655,38.1412,3.5557,38.1619,10.3903,-8.0052,33.835,-4.1768,9.4049,-13.1013,12.2976,-9.9647,
1.0996,-0.4454,-4.8265,21.7527,-1.4781,21.7722,-4.3331,3.0802,17.7049,7.6432,3.0563,-1.2278,0.47206,-0.20797,
-2.2204,-11.7469,-7.6704,6.3476,-1.6304,6.3659,-11.4245,0.72625,2.5426,6.4612,3.5958,2.9433,0.20277,2.4556,
-5.7026,3.0579,6.8899,20.0667,7.3855,20.0839,3.361,-7.2711,16.49,-8.0264,-0.71732,-11.3333,12.9651,-2.753,
5.0037,-11.2255,-7.6235,32.9627,-3.9036,32.9789,-10.9407,7.2652,13.9343,2.699,-1.8793,3.4467,0.85919,4.4019,
-7.1067,3.548,6.9339,45.0849,10.4306,45.1002,3.8158,-5.3428,27.1983,-4.9348,2.3308,-3.2678,14.9076,-1.8878,
1.2735,17.4351,9.7718,28.2799,2.9351,28.2942,0.57406,-4.7808,11.4664,-6.8078,-8.6553,-5.7229,4.7334,-1.0516,
-4.1056,14.702,1.9547,12.4831,-1.5793,12.4965,11.1447,-1.1195,-3.3216,-1.5791,-4.2796,3.7795,5.4138,2.3859,
-4.3412,16.712,11.9603,18.9649,12.6155,19.9417,24.576,-8.7651,10.9777,-8.2328,1.2798,-6.5706,19.1889,2.2428,
7.2475,1.6092,-2.8573,3.727,-0.072317,4.6452,9.0014,5.8608,-3.781,5.9995,-3.8582,3.7056,3.9376,6.6875,
-3.3105,-1.4999,4.9069,13.0239,10.5375,17.7435,-5.6386,-1.6012,4.0382,-1.1092,0.22944,-1.3368,17.8013,1.4662,
-3.1119,12.6901,16.1811,-1.8575,0.7458,2.5789,8.7997,-7.2901,2.8316,-13.0942,-13.8843,-7.0416,2.6333,-5.3707,
-4.3712,5.0593,7.9797,-15.8461,-3.6375,-11.6758,22.3717,1.3422,6.0359,-0.73912,-8.1105,4.9503,-1.6221,0.25399,
-7.2424,4.5143,9.1881,-21.6442,5.0169,-11.9396,8.3754,-8.1383,9.7711,-2.8639,-3.0442,-9.0855,12.5752,-3.3767,
7.1714,-9.8565,-5.4632,-34.4456,-7.8176,-25.3232,-6.2271,6.45,-4.9152,8.3951,-6.236,5.5596,-0.59205,7.9132,
-4.828,-19.2673,-1.1583,-18.2788,2.7748,-9.7038,-19.9535,-2.252,-0.16101,0.66058,3.2972,5.1058,12.4589,6.9564,
-3.815,-4.0113,13.0112,-3.0821,-2.9353,4.9784,-4.6563,-4.286,13.9487,-3.9583,-9.6746,-5.0825,1.829,-3.8253,
-0.21184,10.3294,5.1202,5.9004,-2.759,11.0672,9.7231,8.5044,27.2117,5.438,-7.6481,3.8993,-1.655,0.74279,
-3.5736,8.7455,8.6694,3.6182,11.5066,9.4388,19.986,-3.0931,11.479,-4.0473,1.0055,-5.9756,12.5443,0.21629,
0.73841,-5.8792,-5.9508,-10.6989,-3.2838,-5.2275,4.6868,5.046,-3.3097,6.5596,-7.4907,3.7827,-0.13897,0.44405,
-6.0546,-19.6264,-19.6938,-24.157,1.0101,-19.0139,-9.6944,6.1893,-17.2111,12.9147,4.0457,9.8225,13.9694,7.6485,
-5.2091,-4.3489,-4.4121,-8.6076,-2.4247,-3.773,4.9873,-7.6792,-2.0785,-1.9602,-10.297,-4.8669,8.1902,-0.52344,
-2.4867,-0.35225,-3.7862,6.0089,-13.3662,10.5533,18.788,-2.398,12.1462,0.20633,-11.0048,6.1507,-4.3525,-2.9024,
-5.9527,2.8021,9.6976,19.7484,1.5357,9.438,3.5608,-10.69,6.2353,-4.3856,-3.3548,-1.208,10.0087,-2.969,
8.5045,-11.466,-4.9842,4.4635,-2.7742,-5.2283,-10.7529,-0.88957,-8.2388,1.6621,-16.6509,1.757,-0.59474,0.58361,
2.8121,-12.8262,0.015035,-9.9043,3.8999,-19.0146,-24.2077,-3.4875,-21.8445,-5.4272,-10.5899,-0.035874,8.3592,-0.17453,
-1.454,2.0433,14.1141,4.7899,6.317,-3.7737,-8.6553,-7.858,-6.4338,-13.5377,-16.4625,-10.3976,0.86781,-4.7438,
0.079247,14.5742,6.1569,18.6025,-8.0415,10.5527,5.9641,2.7366,8.0522,1.2541,-15.4745,2.2776,-13.2843,-4.459,
-2.8178,11.7718,12.0543,31.5864,6.4205,24.0195,-1.5039,-8.9965,17.2103,-3.6417,-2.9771,-3.1615,1.6128,-3.2273,
7.7156,-3.0345,-2.769,15.5912,-1.4365,8.4784,-15.5137,1.4252,2.0777,2.6028,-7.8597,4.0176,-2.0994,3.4743,
-0.46034,-16.9524,-12.8467,0.55571,3.4701,-6.1303,-28.6829,2.3038,-12.147,1.9645,-4.0139,4.2587,0.43693,0.37306,
2.2186,-1.8353,2.0241,14.6224,2.5388,8.3375,-12.8619,-9.6448,2.6818,-12.2534,-16.0653,-10.0968,3.0616,-8.0852,
13.4137,-2.3278,-2.0742,27.845,-7.0135,21.9372,-22.3338,5.0339,10.113,2.5818,-15.3428,4.609,-4.1115,2.2818,
-1.4911,10.8271,12.0298,40.2743,3.5304,34.721,-11.3528,-6.2349,4.2038,-5.7682,-9.6013,-5.3085,10.2352,-6.532,
5.4675,0.054303,-2.792,23.7579,-7.7684,18.5377,-24.7716,4.2623,-10.1484,4.701,-13.8457,1.7587,-1.5869,-0.83717,
-4.5015,-14.049,-8.7705,8.2324,-13.5693,3.3255,-26.5391,0.15021,-23.6395,7.7934,-12.0511,5.5096,-1.9736,2.1051,
-4.2314,-0.069885,5.8557,3.0382,-1.6679,4.8132,-10.8467,-6.1253,-8.1212,-4.7258,-6.9897,-6.8726,10.1959,-1.3956,
3.9762,-14.1657,-8.5956,16.9559,-11.4498,18.6244,-24.2959,8.3422,0.92249,4.4758,-4.8831,5.8323,-4.5159,-0.10661,
-8.0725,-9.821,6.0201,28.3516,2.0117,28.9558,-8.7382,-6.2583,14.6057,-1.3363,-6.2774,-2.9538,8.4093,-9.0183,
5.9092,4.8682,16.6254,12.5505,-5.8218,13.1185,5.8861,-2.9903,-0.37065,2.1183,-18.9157,-3.2585,-6.1953,-7.9948,
3.6267,2.0455,1.5279,-2.3025,-12.2216,-1.7686,15.8968,1.5272,-14.4484,4.4016,-9.5863,6.0963,-8.1136,-2.2127,
0.27559,3.1281,3.2439,-14.6977,2.6117,-15.7625,20.0047,-7.0001,0.51849,-3.3343,-4.4313,-2.7056,6.4732,-7.6235,
11.1051,-11.1596,-11.0507,-27.9158,0.40676,-28.9168,4.7044,7.5199,-13.6126,10.6043,-7.2987,9.2671,-3.6767,-4.9967,
-1.8533,-3.1392,2.2663,-12.1408,9.3,-13.0818,-4.1342,-5.1033,1.3041,-2.3245,-1.7996,-1.6528,8.8365,-7.8304,
9.1039,11.1492,16.2303,1.3618,2.7162,-8.079,10.2138,1.7106,15.3259,-3.872,-8.6812,-4.6874,-2.0578,-5.1912,
5.4247,24.5802,20.9206,-12.8199,-0.57981,-21.6943,23.701,5.7058,9.3449,0.45764,-8.4013,-0.79024,-7.478,-8.4951,
-1.168,21.4182,21.5933,2.0493,13.434,-6.2926,36.3789,-8.7366,11.6763,-10.6573,-5.005,-12.3127,7.0707,-11.3601,
13.0021,6.0331,6.1977,-12.1736,-1.472,-20.0151,20.0962,5.8876,-3.1243,4.0822,-4.4637,2.5261,-4.8022,3.4215,
-1.878,-8.4289,-1.0433,-17.1073,3.3168,-19.1756,4.7904,-6.276,-10.288,-1.3447,0.14244,-1.3612,5.1269,-2.4477,
3.0554,6.1768,13.1193,-1.9809,5.7689,-3.9251,18.603,-9.0329,4.4293,-5.3614,-6.3736,-9.7156,1.2039,-4.47,
2.1489,15.3272,11.2478,6.6944,-8.3158,2.4565,31.5868,-1.9832,18.2636,2.4323,-8.1606,-2.1426,-7.3043,-2.5148,
-3.2825,8.1408,11.0546,5.3288,3.7525,5.6835,15.5916,-10.0592,6.8037,-5.9085,0.52401,-9.2446,7.234,-2.8456,
11.0145,-6.4476,-3.7087,-9.0909,-4.6676,-8.7575,0.55611,4.6444,-7.7046,8.546,-0.95346,5.41,-7.3001,6.9659,
-0.85408,-20.1608,-17.5861,-22.6454,-4.3875,-22.332,-13.5773,1.3532,-21.3423,4.0564,-4.2707,5.9288,-3.0057,-1.6468,
4.7403,-4.8511,-2.431,-7.1867,-6.2934,-6.8921,1.3374,-0.41572,-5.9618,-1.2487,-11.9687,-0.93484,-3.0663,-3.2357,
5.1793,-5.8858,-6.5029,7.3445,-13.8696,7.6214,15.3571,9.4916,8.4959,8.7081,-11.0091,13.2212,-13.2464,2.9845,
-2.3621,-10.8351,-2.2562,10.7602,1.0626,16.8051,10.5793,-2.1649,-6.1138,-0.97314,-3.5999,1.4617,1.6484,-1.0507,
11.8796,-24.285,-16.2208,-3.9854,-0.80908,1.6968,-4.1554,12.065,-19.847,13.1852,-0.25064,12.702,-4.5966,5.5196,
-1.7283,-36.9279,-23.5632,-17.8463,-4.1348,-12.505,-18.0061,-1.5541,-32.7562,4.8016,0.72849,5.6731,-3.3567,-3.0066,
0.78573,-20.6122,-8.0494,-2.6755,-1.9587,2.3453,-2.8257,-4.8355,-16.6908,-4.6453,-9.4383,-6.7186,0.21895,-7.6466,
8.4515,-5.2755,0.50791,11.585,-13.4102,16.3046,6.8642,9.5546,-1.5893,8.1666,-9.3541,7.7845,-10.8815,-4.2957,
-6.035,-8.0927,4.8159,24.9899,-3.9286,29.4263,-1.2606,-5.1186,0.79543,-2.4464,-5.4187,-3.8905,-1.0695,-9.8226,
8.4271,-21.7071,-9.5731,9.3905,-0.077728,13.5607,-15.2849,9.2885,-13.3523,11.8003,-0.51364,10.4429,-1.7285,4.8667,
4.1856,-26.3095,-19.7242,-5.2729,-3.4471,-1.3529,-25.0932,1.6213,-26.6512,4.4644,-2.8929,5.1166,1.2678,-3.499,
2.0065,-10.631,-4.4408,9.1435,-1.3118,12.8282,-9.4876,-5.2247,-10.9521,-5.4447,-7.5399,-3.3849,0.70955,-9.0739,
15.9861,-6.0162,-3.0898,22.6949,-8.2232,26.1586,3.7354,9.1888,3.805,8.982,-1.5441,10.9182,-10.6612,4.2448,
0.92691,1.0934,9.6291,35.4332,3.8396,38.689,10.7421,-2.811,17.5565,-5.6569,-3.3794,-3.114,2.0295,-7.5789,
14.9713,-5.7209,-5.0486,19.2072,0.71645,22.2677,-4.0024,11.4577,2.4031,8.7825,-1.2487,11.1728,-1.4664,6.373,
3.8289,-17.188,-11.1329,3.9547,-9.2082,6.8316,-8.2213,5.5878,-11.8411,9.0991,0.99564,16.8897,-1.6197,0.92916,
-0.73911,-2.0567,3.635,-0.62132,5.3235,4.4933,6.372,-6.799,2.9694,-5.5468,-1.9566,1.7763,6.6722,-6.8394,
13.4052,-16.0333,-10.6831,13.516,3.7992,16.0342,-8.1103,7.7089,-0.94481,8.886,2.2582,15.7697,-3.1278,6.3453,
-1.4991,-11.9376,4.0579,26.805,0.19712,29.1721,2.2585,-6.8536,13.2119,-2.9751,-1.2516,0.72356,6.2188,-8.1354,
6.7858,2.8787,9.4785,11.0967,-8.2508,13.3218,6.2203,-3.5496,-1.6808,-2.0737,-11.5404,-2.5738,-5.4825,-10.6601,
4.9326,0.41586,2.1611,-3.6691,-3.4172,-1.5775,11.1497,6.3045,-15.68,2.8712,-5.5455,5.2936,-6.5996,-2.7895,
3.1904,5.2116,9.2623,-13.0897,6.9107,-13.6545,14.8191,-6.6072,-0.63918,-10.7984,-2.3207,-5.6293,7.7757,-4.0684,
17.099,-9.2011,-5.3934,-26.4043,-4.1091,-26.9353,-0.17007,7.8892,-14.7008,3.9495,3.6032,8.8085,-3.2958,7.745,
1.973,-12.1439,0.11235,-10.7201,1.6812,-11.2192,-14.2599,-5.961,0.28122,-3.8798,7.0026,-0.7586,7.7481,-4.0478,
1.3727,2.6847,11.4336,-23.0923,-9.7481,-20.1872,0.69572,-4.3983,14.3643,-2.4419,-5.7099,-7.2208,-2.599,-6.9386,
-0.15613,0.23373,-0.33967,-35.8067,-15.43,-33.076,14.754,3.0962,-0.59752,6.8634,-5.3675,6.2281,-3.8891,-1.7018,
-4.0029,3.5939,5.4653,-19.5583,-0.40419,-18.4377,11.9403,-10.1052,2.5715,-4.6354,-3.1175,-3.3048,7.9132,-7.3845,
10.3373,-10.7217,-8.9626,-32.4848,-0.50043,-31.4314,-2.8761,4.6011,-11.6828,9.7427,3.3365,10.9934,-3.1664,6.0744,
-4.383,-21.768,-9.0273,-16.4357,-6.0138,-17.1325,-16.8035,-5.1954,3.1182,-3.2549,-0.47887,0.81335,1.6031,-8.39,
0.94168,-6.362,5.6143,-1.3496,-10.4734,-2.0046,-1.6953,-4.4015,17.0311,-2.5774,-5.7526,-5.5017,-2.8316,-9.9355,
-0.56108,1.612,4.1927,12.8314,-19.486,5.2258,12.5064,-0.28106,22.3964,2.8799,-6.8539,3.505,-14.7131,-9.8213,
-5.8303,3.9257,12.1361,7.2408,-4.2168,-2.3186,-2.344,-7.9767,6.9526,-8.8623,-0.65808,-7.7927,0.26972,-11.1605,
8.6195,-10.4099,-2.6921,-7.2937,-9.3871,-16.2794,-16.3033,6.6019,-7.5645,5.7694,3.7201,6.7748,-1.7953,3.0068,
-5.9976,-23.8853,-11.3279,-20.956,-9.5471,-29.4027,-29.4251,-1.8687,-21.2106,2.1695,0.3635,0.70446,2.8921,-6.5739,
1.1111,-8.3522,3.4517,-5.5987,-5.3584,-13.5385,-13.5596,-5.8539,-5.838,-4.9505,-7.6121,-3.9171,0.5494,-4.0099,
3.696,1.6697,5.0521,8.8372,-14.9193,1.3738,1.3539,4.8612,8.6123,2.3364,-6.9146,5.7179,-10.812,-2.5644,
-4.7207,-1.8052,11.9801,22.407,0.075877,15.3914,15.3727,-5.5536,7.0112,-6.4807,4.5875,-5.2307,3.9367,-5.7848,
9.6626,-15.7969,-2.8387,6.9626,-1.0133,0.36788,0.35034,5.867,-7.5095,4.5132,0.93803,7.6164,1.6519,2.2748,
-1.161,-17.1389,-9.7788,-7.5552,0.97573,-13.7542,-13.7707,-0.27002,-21.1589,2.7962,-0.56451,6.1956,2.999,-2.6819,
4.2113,-2.0106,4.908,6.9981,5.2555,1.1711,1.1556,-0.73575,-5.7894,-5.5663,-4.387,-3.8171,1.3728,-4.9311,
3.7174,9.318,15.8212,20.6783,-9.1598,15.2008,15.1862,3.8879,8.658,-4.5092,-8.7033,-0.45484,-12.8096,-6.8046,
1.3254,20.0869,28.9719,33.5376,5.4898,28.3888,21.9881,-9.6015,17.7792,-6.89,2.183,-6.4533,2.059,-6.6376,
15.3459,4.7817,13.1336,17.4253,9.4992,12.5854,6.5688,5.0746,2.6125,7.6234,2.052,6.9498,1.4535,2.9197,
3.2172,-9.6052,-1.7544,2.2798,2.1803,-2.2697,-7.9254,-1.1352,-11.6443,1.2607,2.4108,2.194,0.88439,-1.5938,
4.7112,5.0711,12.4508,16.243,10.003,11.9665,6.6502,-8.0567,3.1544,-8.2151,0.57917,-6.3736,12.6412,-1.2574,
9.9723,-1.8609,4.2318,29.3684,-4.6972,25.3485,-7.8488,6.1652,17.0651,1.678,-3.5532,5.3373,-2.2173,-0.45837,
-4.726,4.9989,7.3521,41.7063,-0.19729,37.9276,-7.1369,-7.7023,18.4516,-5.6533,0.034247,-8.4805,8.4004,-8.6263,
7.2474,-5.4237,-7.189,25.1039,-0.18522,21.5519,-20.8087,-0.0090667,3.2445,7.2192,0.032422,4.5616,2.112,2.0149,
-7.2874,-19.1982,-10.7343,9.4977,-7.1637,6.1588,-17.7523,-7.4806,-11.0502,1.7246,1.2355,5.9753,0.78021,-2.2036,
-3.1143,-3.9463,4.0097,4.9512,3.8714,19.8893,-2.5871,-8.9599,3.7128,-6.0917,4.5359,-5.9524,13.7488,-4.4815,
6.4724,-17.8096,-10.3309,18.7541,-6.2431,32.7959,-16.5319,5.6777,17.5901,5.6018,2.5767,6.6966,-1.1761,0.36691,
-8.016,-2.641,4.389,31.7289,5.4592,44.9282,-6.3814,-8.763,30.6347,-5.0986,7.9653,-0.21267,12.9945,-3.7529,
-5.0042,11.6175,7.6206,15.7251,-8.9683,28.1325,-11.5419,-8.4784,14.6966,-3.105,-6.6127,-0.92281,-1.8852,-6.6608,
-6.8731,3.3279,4.0299,0.68164,-16.9861,12.3445,-4.3417,-2.908,-0.28522,5.5169,-0.3106,8.0502,-5.508,-2.6457,
-6.2197,5.2974,6.9216,-13.4593,-1.867,-2.4961,1.4624,-9.241,13.8319,-6.6242,4.2878,-6.5328,8.9225,-0.79973,
8.2534,-9.1205,-7.5937,-26.7517,-11.2754,-16.4464,-12.7253,5.4134,-1.098,7.8732,4.9946,7.9591,-5.4721,11.7815,
-6.3418,-12.5499,1.4183,-11.0466,-11.8044,-1.3596,-26.0618,-9.0114,13.0679,-0.19167,2.5255,-2.6413,2.8102,-3.0254,
-0.89958,2.3031,15.4332,-20.3865,-10.6138,-11.0392,-10.3981,-7.7478,22.6481,-2.5903,-2.9286,-2.4828,-0.7329,-4.4106,
-6.3894,5.6594,1.6123,-33.2633,-14.0745,-24.4769,4.3258,-2.7034,7.1892,-3.6399,-1.0659,-1.1288,-5.2684,-3.9052,
-9.6213,8.9355,8.0232,-17.1675,0.026097,-8.9083,7.1995,-9.0489,6.3962,-11.3755,4.5419,-10.9432,8.3043,-6.8042,
5.056,-5.7006,-6.5582,-30.2374,-7.2058,-22.4738,-7.3325,5.594,-8.0876,3.407,4.2694,3.8134,-5.2094,6.6195,
-8.8652,-17.7711,-2.6697,-25.4102,-3.8812,-26.3073,-20.9925,-5.9493,-11.338,0.67198,1.1209,1.0539,4.2624,0.43798,
0.10262,-2.6049,11.5904,-9.7856,-8.7098,-10.6288,-5.633,-4.8692,3.4423,-3.4659,-3.0439,-6.9633,0.87297,1.1348,
-0.14473,11.41,-3.205,4.9016,-12.7667,4.1089,8.805,5.787,17.3357,6.6242,1.7182,7.5545,-6.651,1.7894,
-8.8127,7.3514,3.2538,7.2586,2.0993,9.8879,-5.8233,-8.6602,2.1956,-7.8733,1.6151,-1.4549,7.8481,-5.5483,
5.8161,-7.1897,-11.0414,-7.2769,-5.6192,-4.8054,-19.5739,5.9594,-12.0361,3.0837,0.79533,5.6223,-2.1435,3.7022,
-5.4999,-15.0742,-14.8379,-20.9403,-3.3538,-18.6171,-32.4995,-0.90609,-25.414,-0.47575,7.0141,-3.3922,4.7335,-1.8226,
-3.0007,-0.06973,0.15233,-5.5839,-2.9116,-3.4,-16.4495,-3.9848,-9.7891,-4.0626,-1.3605,-4.8759,-0.12976,-2.4361,
-1.8566,10.6602,7.4945,8.8511,-14.3059,10.904,-1.3625,1.0748,4.8982,1.0016,-7.0636,6.9861,-8.7988,-0.84395,
-2.2269,13.8772,13.794,22.4201,0.65247,24.3497,6.0706,-5.2564,-0.8188,-7.253,1.0732,-5.0025,5.8291,-0.79308,
12.0067,-1.0554,-1.1337,6.9749,-2.3997,8.7888,-8.3937,9.159,-14.8697,3.3051,-2.3657,5.903,1.0205,6.4853,
-2.8137,-15.0921,-15.1656,-7.5436,-9.4865,-5.8386,-21.9901,-1.6342,-28.0775,-2.1958,1.1507,1.6919,2.4051,0.31118,
-9.6347,-0.086552,-0.1557,7.009,-5.7839,8.6117,-6.5707,-4.1872,-12.2928,-5.1976,-0.12361,-6.3633,5.3943,-1.8762,
-0.37977,14.0186,0.69702,20.6884,-14.1137,22.195,7.9236,8.1153,2.5447,8.6119,0.36597,8.1185,-6.0164,0.64674,
-10.2391,6.911,-0.54986,33.5471,-2.4208,34.9633,-0.26461,-6.4716,16.492,-1.787,2.9953,-2.3708,8.4446,-5.9002,
4.4752,-7.6037,-14.6169,17.4343,-4.9269,18.7655,-14.3487,1.2678,1.4025,6.7561,0.16429,5.243,-2.3057,4.8179,
-4.5907,-13.7761,-14.5835,2.2882,-5.8364,3.5396,-17.2237,-0.49573,-12.7816,-0.6389,1.3595,-2.0612,0.96592,-1.4965,
-1.4227,1.1505,0.39154,16.251,-5.4862,17.4272,-2.0903,-3.358,2.0853,-4.4569,-4.0243,-9.1684,5.2467,-7.1913,
12.7627,4.8176,4.1039,29.3759,-9.0134,30.4816,12.1351,10.9434,16.0602,9.9105,1.0374,5.4817,-3.2632,4.3274,
-2.1031,5.2517,7.9551,41.7133,0.44524,42.7527,19.1196,-3.8132,10.3963,-4.7842,0.25207,-4.8501,7.7786,-7.2607,
4.7715,-4.9456,-6.6222,25.1105,-8.4993,26.0875,3.8724,4.6108,-4.3275,1.2875,2.8883,6.2874,1.7685,4.021,
-3.7095,-7.5414,-8.756,9.5039,-11.8457,10.4223,-7.5674,5.7799,-18.1678,10.3693,8.0176,15.0688,2.1443,2.8154,
-8.0666,7.0111,5.8694,4.2334,-0.28919,20.5223,6.9866,-7.8232,-2.9778,-3.5093,0.54669,0.064639,6.113,-7.7174,
6.5174,-7.5096,-8.5828,18.0794,-6.0562,29.4143,-7.5326,5.1799,11.3009,8.2707,2.9242,8.1354,-3.4126,-0.5052,
-7.4915,-2.4795,6.0322,31.0947,0.09176,41.7494,7.0194,-9.2309,24.7229,-3.3128,9.0153,-2.958,10.8922,-7.7062,
0.18858,11.7693,10.6117,15.129,-10.0369,25.1445,12.9854,-3.2544,9.1395,-2.6323,-4.0589,-2.2983,-3.8613,-4.8335,
0.41869,3.9532,7.8058,0.12125,-5.8192,9.5358,24.0167,6.8228,-5.5089,5.4798,0.28201,10.1321,-5.3171,2.4464,
-5.15,4.4389,13.363,-1.814,5.3762,-2.485,27.6373,-6.8425,8.9217,-7.1415,0.98845,-3.2503,3.438,-6.6184,
9.1382,-9.9274,-1.5388,-15.8051,-2.6592,-16.4359,11.8791,7.6681,-5.7136,7.387,7.1957,11.0447,-5.9273,6.7941,
-5.5101,-3.4267,10.2432,-0.75684,-0.5712,-1.3498,-2.9336,-6.4103,8.7292,-1.3714,3.8716,-3.718,1.6594,-4.2186,
4.3413,10.8789,23.7286,-10.5934,-2.7063,-5.8483,11.3424,0.48201,22.3054,1.3622,-5.2785,-4.7002,-6.3941,-6.1344,
0.2244,16.6136,13.2663,-24.0578,-7.3647,-19.5974,24.7618,5.7557,7.1083,5.1368,-4.9618,2.3307,-13.7232,-6.7307,
-3.4045,16.8217,16.0858,-8.5143,7.1772,-4.3216,17.0092,-5.4359,15.5996,-6.5,-0.56673,-9.1373,0.35655,-7.0502,
10.8998,1.7124,1.0206,-22.1034,0.84153,-18.1623,1.8886,8.9903,0.56365,7.99,5.493,5.5109,-7.6188,7.4728,
-3.8542,-12.4904,-2.7763,-14.6312,-2.8242,-19.6034,-12.3247,-5.6491,-4.6521,0.15949,0.58395,-0.72501,-4.5104,-5.1469,
5.7766,2.359,11.4903,0.34667,3.8528,-4.3272,2.5148,-4.1049,9.727,-2.5012,-6.441,-4.2969,-6.4094,-5.0795,
7.3582,10.2919,6.5828,14.4259,-2.163,10.0325,16.4639,-0.0022147,23.2434,0.059021,-8.4651,1.7455,-15.1834,-11.0413,
6.1938,17.6282,18.4799,22.4782,12.0668,12.5638,27.0454,-5.5457,7.7488,-4.0419,6.1428,-4.3848,-0.17237,-8.2096,
19.9222,2.4705,3.2711,7.0295,1.099,-2.2901,11.3227,8.887,-6.8161,10.3006,4.208,9.9783,-5.1032,6.383,
4.6268,-11.7777,-11.0252,-7.4923,-0.89494,-16.2527,-3.4566,1.7256,-20.5072,5.4645,-0.865,5.1615,0.023451,-5.4489,
2.1803,3.0289,3.7364,7.0572,-2.7692,-1.1775,10.8508,-5.1266,-5.1767,1.2805,-1.2953,-3.825,-1.9059,-7.05,
5.4239,-1.6116,-2.8748,20.7338,-8.8698,12.9932,24.2997,9.281,9.2339,13.7367,9.8697,10.5045,-11.9147,4.9422,
-6.2297,0.1723,10.0721,26.2387,5.4009,19.4444,19.9494,-5.3758,0.84658,-1.1875,6.144,-1.5743,1.0925,-3.79,
8.2441,-13.938,-4.6322,10.5644,0.25617,4.1777,4.6525,5.3106,-13.3042,8.8864,4.3291,11.0532,-4.2757,4.6321,
-3.2175,-27.2018,-13.1516,-4.1695,-5.3028,-10.1729,-9.7267,-4.89,-26.606,-1.5287,6.239,2.4363,2.0064,-6.0097,
0.59094,-11.4697,1.7375,10.1807,-2.8155,4.5375,4.9569,-5.3195,-10.9096,-6.0167,2.2492,-6.6279,1.1631,-7.8187,
2.9656,3.3185,-4.513,23.6698,-16.7466,18.3652,18.7595,1.7481,3.845,4.9496,-1.2602,2.4468,-13.0067,-7.8315,
-7.3352,14.2066,9.8577,36.3496,-3.088,31.3633,3.5339,-7.9977,17.7143,-4.9884,9.9027,-3.9665,1.8737,-9.7718,
7.2049,-0.74576,-4.8337,20.0687,-2.6615,15.3815,-10.7781,6.5821,2.5514,9.4109,14.8519,10.3715,1.0382,4.9145,
8.3393,-10.9449,-9.6051,4.7645,-4.43,0.35861,-24.2314,10.1641,-11.7017,12.3412,20.2273,13.7261,2.9041,10.5247,
0.8491,3.8118,5.0712,18.5787,-9.7079,14.4371,-8.6775,-4.1841,3.1004,-2.4993,11.0604,-1.1975,-0.88561,-2.3988,
9.7159,-1.8399,0.78991,31.5639,-18.5255,27.6709,-5.7469,10.167,17.0144,10.3041,15.94,10.5639,-7.8222,7.6267,
-4.9671,5.7427,11.1065,43.7701,-6.5678,40.1106,-0.34026,-4.5431,30.0935,-4.4142,14.7428,-4.1699,4.9397,-5.1228,
7.2619,-1.3508,-3.0572,27.0439,-2.7993,23.604,-14.4198,3.4421,14.1879,3.4433,12.8939,-0.66589,-3.0699,-0.95909,
0.31848,-12.1158,-2.1507,11.3213,-0.46195,8.0877,-1.1419,-2.3078,-0.76334,-2.7891,12.8434,-1.3491,-6.5009,-6.4454,
0.058407,2.7112,12.0784,12.5702,12.3402,17.2437,13.0266,-10.1231,13.3825,-9.1292,11.3499,-5.3655,1.361,-4.8534,
14.1549,-11.5515,-2.7463,25.916,1.2355,30.309,-1.855,4.5843,20.4128,5.5186,17.1766,9.0564,-9.5667,7.2482,
-0.79439,3.2416,11.5184,36.5324,11.284,42.5905,12.3563,-6.6575,21.116,-8.9126,20.4838,-5.5869,4.9866,-5.7202,
6.4841,14.2546,9.5013,20.2404,4.0997,25.9351,5.9506,-5.053,5.749,-5.9677,7.9269,-6.698,-8.0868,-6.582,
-4.0278,-0.70071,-5.048,4.926,-3.859,10.279,2.2196,0.55282,-8.6959,2.1032,12.7539,7.6836,-6.6373,-3.2946,
-11.2584,1.1488,2.7266,-9.4696,4.3263,-4.4378,16.1864,-8.3984,5.9258,-6.4587,17.0503,-5.0699,6.053,-4.7846,
3.5171,-13.0201,-11.537,-23.0014,3.1026,-18.2715,1.1152,6.2055,-8.5297,8.0288,22.2941,9.3343,-2.5051,7.0719,
-7.1781,-17.1794,-0.3597,-7.5213,6.0501,-3.0752,-9.0748,-8.2668,6.0821,-1.9732,17.8232,-4.1205,6.5635,-7.4525,
0.96516,-2.0487,9.7846,-21.17,-2.9902,-16.9907,5.5697,-5.1195,14.7557,-4.7475,9.5227,-4.3554,-4.9178,-4.7154,
-1.5026,-2.0464,-1.4076,-33.9998,-6.185,-30.0713,19.3355,3.3826,-0.22966,5.1785,11.8436,6.9934,-9.9254,-1.0583,
-4.3052,8.1995,9.7639,-17.8598,8.2861,-14.167,15.0419,-8.3897,6.1713,-5.7373,12.579,-7.4057,4.7702,-5.3333,
10.0531,-6.3925,-4.922,-30.8882,-1.0084,-27.417,0.039368,6.2136,-8.2989,8.707,7.9681,7.1386,1.471,6.0741,
-4.6501,-8.5398,-1.3724,-26.9858,-3.1173,-24.6874,-14.063,-4.6438,-2.6188,-3.7463,5.8031,-0.88223,6.4446,-4.6544,
2.1368,6.0726,12.8099,-11.2667,-9.6792,-9.1061,0.88079,-2.4369,11.6383,-6.414,-1.776,-5.1676,-2.6192,-4.3752,
1.5267,3.1774,2.2796,3.5093,-18.7392,2.4068,14.9279,3.0119,14.194,-1.6904,-7.454,3.8195,-8.7285,-1.7025,
-4.5905,8.0484,15.3992,17.3988,-3.5148,5.8778,-0.067738,-8.9789,-0.75767,-6.6507,-4.3557,-3.3995,5.8952,-5.2158,
9.785,-6.5345,0.37528,2.2548,-1.2555,-8.5749,-14.1637,5.6598,-14.8122,7.8484,3.6187,10.9045,3.7338,9.1972,
-3.6973,-16.8684,-9.8908,-11.9804,-5.7597,-22.1604,-27.4139,2.5484,-12.2365,6.0515,-0.21409,6.0321,3.2685,5.3916,
-7.573,-1.7563,4.8026,2.8384,-11.4394,-6.7308,-11.669,-5.0765,2.5977,-4.6752,-14.3012,-4.6939,-4.8815,-2.8859,
2.5223,-5.3866,-1.6316,16.7681,-8.3429,7.7731,3.1311,5.3514,16.5418,9.7053,-8.7429,9.6877,-4.5887,2.108,
-7.0286,-1.4478,4.4919,18.2928,6.2577,20.0811,15.8382,-9.0697,1.4493,-4.9771,-6.5311,-4.9935,9.7867,-5.0084,
4.4801,-15.4609,-9.8777,3.0953,0.70004,4.7763,0.7879,1.9589,-12.7376,-0.098911,-12.8879,1.3319,2.5715,1.5589,
-9.5274,-28.6332,-17.6002,-11.1905,7.6479,-9.6103,-13.3594,-5.1481,-26.0734,-4.1908,-8.4992,-1.3996,8.9247,-3.1144,
-4.1353,-12.8152,-2.4442,3.581,12.0095,5.0663,1.5422,-9.1777,-10.409,-7.3136,-11.364,-6.618,7.4251,-4.3736,
1.8974,-10.2391,-7.2387,17.4661,0.20172,18.8623,15.5497,5.4729,4.3156,6.6226,-7.7901,7.879,-5.0717,3.6016,
-12.3165,-2.6346,1.1493,30.5181,11.9997,31.8306,4.9757,-7.7502,15.5053,-6.0668,-5.1531,-4.0426,9.3326,-4.0863,
2.5225,-16.5765,-13.0196,14.5871,2.1212,15.8208,-9.4228,2.8378,0.475,5.3844,-10.6284,3.9127,-2.1941,-0.94859,
-4.6182,-29.441,-22.2409,-0.38816,1.0296,0.77151,-22.9575,-2.6352,-13.6535,6.5076,-3.7238,3.1965,1.7944,-4.2661,
-4.5823,-13.5745,-6.8064,13.7351,5.5473,14.8252,-7.48,-8.0204,1.2657,-2.8011,-8.5623,-5.4317,7.712,-5.2152,
9.7926,-4.9269,-6.7596,27.011,-1.0521,28.0357,-0.40314,6.5608,15.2898,11.4669,-8.5306,8.9942,0.018587,7.1491,
-4.895,9.4687,7.746,39.4904,3.3492,39.4892,-0.861,-5.041,24.7365,-0.91073,-9.947,-4.1994,8.2123,-6.2954,
8.4139,4.4414,-5.8548,23.0209,-1.672,23.0199,-14.9093,5.8667,9.1523,11.6769,-7.904,5.2116,0.0067826,4.2053,
2.6069,-5.4658,-6.4674,7.5397,-3.4999,7.5387,-19.1967,2.6227,-5.4969,10.4949,-3.0914,8.2734,1.9346,4.4353,
-2.37,8.9622,8.0207,-7.0127,2.4945,-4.7238,-3.9449,-9.586,8.933,-4.2348,-10.6185,-6.323,5.6751,-5.472,
11.8722,-5.6756,-6.5606,7.5081,-1.9934,9.6597,-17.8082,5.0891,22.497,10.1193,-1.3046,8.1563,0.031843,8.9563,
-2.9401,-3.889,7.9331,21.1576,-2.838,23.1801,-6.6168,-5.942,30.7881,-4.5879,-5.0826,0.43612,7.7426,-2.7887,
5.672,5.7446,4.2031,5.7881,-5.3191,7.6893,-7.907,1.8866,14.8408,-2.9873,-10.3215,0.65115,-0.67547,2.922,
-3.104,-4.4823,-3.5209,-8.6592,-4.2766,-6.8721,-1.889,4.4245,-0.14961,3.2175,-4.1586,4.7094,-1.8402,3.47,
-9.9077,5.1864,3.6802,-13.3218,4.4157,-16.3419,11.481,-6.2049,12.3929,-9.2676,-6.0782,-6.4194,7.1882,-0.35361,
4.7868,-9.2248,-10.6406,-26.6225,-2.1159,-25.4844,-3.3079,8.2674,-2.4507,5.3884,0.070936,8.0658,0.0081554,13.1648,
-9.6004,-16.5045,-6.2662,-18.3969,3.5546,-9.8553,-17.2094,-4.1597,11.7963,-0.59898,2.2362,0.95386,10.3716,-1.725,
-4.4446,-1.4143,7.1249,-31.3931,1.8953,-23.364,-2.0769,-4.8742,-0.23965,-0.56327,-10.9136,-5.852,1.0725,-3.1879,
-0.80397,-0.0036237,2.3591,-43.6095,0.81724,-36.0622,12.1477,4.5773,-14.3253,5.2551,-12.187,5.1039,-3.8121,0.37733,
-3.1659,11.0838,13.7867,-26.893,10.4092,-20.5215,6.8391,-4.8564,-7.0788,-4.2192,-8.0813,-5.8072,6.5395,-4.4656,
11.1241,-3.6812,-1.1405,-39.3794,-0.33828,-33.3902,-7.6712,9.535,-20.754,10.1339,-2.776,8.6413,-3.4938,8.3356,
-3.6434,-12.2577,-6.4952,-22.9166,2.3333,-17.2868,-21.3109,-4.8959,-5.4088,0.96973,-4.7786,0.048572,7.5618,-2.5284,
-1.2556,2.5778,7.9945,-7.4416,4.1218,-2.1496,-5.9323,-1.7099,9.0157,-7.2834,-13.1687,-4.7753,1.8057,-5.7514,
-0.69832,0.3742,-0.31839,4.3328,-2.3925,-2.3823,8.5237,7.5513,7.6312,0.86639,-9.0042,7.5628,-2.159,-2.5138,
-6.6817,8.3057,7.1723,5.2784,7.1513,-4.4085,2.7098,-7.0018,-6.9267,-7.6215,-4.3663,-6.991,12.0705,-5.0143,
7.8192,-6.2926,-7.358,-9.1383,0.45522,-18.244,-11.5528,7.5183,-20.6111,6.9358,-4.5867,6.8053,-2.7537,2.9994,
-5.5452,-6.5177,-7.5192,-22.69,5.4896,-31.2493,-24.9596,-0.16338,-30.7026,0.85532,-2.6243,0.37102,5.124,-6.5806,
-4.2481,7.9733,7.0319,-7.2286,0.33996,-15.2744,-9.362,-3.528,-14.7605,-6.9083,-11.6259,-5.9178,-2.4138,-9.5602,
8.2992,3.7589,-6.2846,7.3051,-0.88585,-0.25792,5.2997,10.7837,0.22517,7.6062,-2.0104,8.5373,-8.7768,5.1134,
-6.2988,14.6205,8.1925,20.9668,12.1828,13.8576,12.6945,-3.7219,0.21189,-3.3348,-4.2998,0.43301,5.8498,-3.2679,
8.1792,-0.35673,-6.399,5.6088,5.9079,-1.0739,-2.1672,10.6014,-13.9008,10.6033,-5.2472,13.6631,-1.1293,2.4719,
-1.7119,-14.4353,-11.0769,-8.8277,5.5538,-15.1095,-16.1372,6.7111,-27.1668,3.2185,-1.0759,5.1309,1.3484,-5.8712,
0.3192,0.5308,3.6877,5.8019,5.2203,-0.1029,-1.0689,-0.92218,-11.4368,-9.5078,-8.7243,-8.6746,-0.66045,-11.7857,
9.459,7.6094,3.8282,19.5538,-2.8056,14.0033,13.0952,13.2331,3.3494,5.1626,-4.3443,5.9459,-4.4773,-0.95551,
-5.2086,8.358,7.696,32.4806,2.4243,27.2631,22.9146,-1.6608,17.2485,-1.2934,-4.8067,1.853,8.0835,-11.7441,
9.2039,-6.2434,-6.8657,16.4317,-4.47,11.5273,7.4397,12.5388,2.1136,10.8358,-1.6258,10.9009,0.85004,-1.3985,
-0.98915,-7.9177,-11.8772,1.3458,-2.9965,-3.2643,-7.1067,5.8812,-12.1133,5.1239,4.4973,4.7032,3.9321,-3.0018,
-4.5452,6.6573,2.9355,15.3651,-0.16564,11.0315,7.4197,-7.7281,2.7135,-6.9936,-5.6549,-6.9072,1.045,-8.3653,
8.2605,-0.85225,0.4697,28.5432,-6.4222,24.4696,14.3259,6.8356,16.6507,7.526,-2.4231,7.6072,-2.874,3.2238,
-6.3351,10.2859,14.5415,40.9306,1.1937,37.1014,23.5894,-7.6743,29.7517,-2.6875,0.61457,-1.1644,11.3984,-8.539,
8.145,1.715,-0.43097,24.3748,-3.9391,20.7754,8.0741,6.8862,13.8666,11.5738,-1.1095,7.8235,-1.6985,0.40949,
5.2461,-6.3418,-9.0819,8.8123,-4.908,5.4288,5.2999,9.2449,-1.0654,11.2411,4.0188,12.8979,0.57268,0.62577,
-5.4325,8.1387,3.2735,0.20909,-1.9623,13.9007,19.0819,-5.4098,13.0985,-3.5333,-1.2839,-1.976,5.1182,-9.2938,
8.9935,-6.4496,-11.0229,14.2965,-3.7727,27.1667,3.837,9.0148,26.4126,10.7787,5.0597,12.2426,-3.3841,2.8332,
-5.6461,3.0963,3.7385,27.5387,-1.3772,35.78,9.8734,-5.6261,23.1406,-3.968,-1.7514,-2.592,2.3626,-11.4368,
6.9847,17.0105,9.0573,11.7864,-3.7047,19.5332,4.4605,5.4371,7.6522,-1.199,-3.0926,-0.38792,-3.0818,-8.4609,
2.709,11.0487,4.6573,-3.0208,-2.0364,4.2612,14.3158,8.4847,-6.9069,6.1031,0.94916,9.2761,-4.3429,-6.5073,
-5.1663,13.2783,8.2347,-10.3116,2.9065,-7.8046,27.5568,-6.1244,7.6075,-8.3631,-4.8924,-5.3805,-0.22598,-15.7578,
9.2437,-1.6184,-6.3594,-18.1285,-2.3296,-15.7722,11.8034,8.3431,-6.949,6.2387,3.3551,9.0424,-3.8278,-0.71232,
-5.4109,-12.0059,-1.0369,-2.9408,-0.98449,-0.72586,-3.0048,-6.2575,7.568,-6.1863,-1.9076,-1.1407,1.4635,-11.8771,
3.3496,2.8145,2.6405,-16.8644,-0.68468,-14.7823,11.2755,-3.11,6.0293,-1.718,-2.9982,0.61475,-0.79369,-6.5849,
5.0769,1.8021,-3.3024,-29.9525,-3.5358,-27.9954,24.699,10.574,-6.3837,8.0262,6.3406,10.7009,1.1822,1.5228,
-4.3864,10.3707,7.019,-14.0554,1.9791,-12.2156,22.3736,-3.5574,0.26598,-6.5554,-2.2349,-4.0412,4.0037,-10.6195,
9.9768,-4.3515,-7.5021,-27.312,-1.9962,-25.5827,6.9312,10.756,-13.85,7.9379,2.7197,9.8192,-3.9495,4.1177,
-4.7218,-16.7439,-5.7264,-35.9169,-0.6714,-32.8451,-7.5847,-0.37391,1.081,5.2924,10.0285,5.6147,10.3875,-2.2757,
-4.9204,-1.6393,8.7171,-19.6619,-8.1029,-16.7744,6.9704,1.3353,15.1162,2.3238,0.50876,-0.26582,1.449,-8.1647,
5.7387,-1.1797,2.2888,-4.3822,-7.8577,-1.6679,20.6522,14.0296,17.222,11.1019,6.9859,12.0422,-0.32538,-0.20321,
-5.2107,1.7836,7.4544,4.3166,-0.63757,-11.932,6.1567,-0.91215,2.0886,-3.6642,2.7104,-2.7803,9.8175,-11.7602,
9.2019,-12.4234,-7.0929,-10.0424,0.36478,-25.316,-8.3127,13.2426,-12.1367,10.6557,8.8143,11.4865,1.5154,3.0454,
-4.0042,-11.0756,-2.6905,-23.5398,-3.0316,-37.8971,-21.914,4.7353,-19.8444,6.1599,1.5368,3.5669,-2.4319,-9.3093,
2.2619,3.6889,11.571,-8.0274,-1.1622,-21.5232,-6.4991,-0.12838,-4.5537,-3.1275,-7.9557,-6.0473,-4.4553,-7.0638,
14.9006,12.9881,14.1302,6.5542,2.5227,-6.1319,7.9908,13.9793,9.8195,8.8703,-2.4164,8.4155,-5.3931,1.7962,
-0.093422,13.6548,19.5492,20.261,9.6022,8.3361,21.6114,-0.95944,1.2764,-5.7619,-5.6459,-6.1894,5.5358,-12.4116,
13.7712,-1.2645,4.2762,4.9453,7.3391,-6.2641,6.2147,11.6316,-12.9002,6.0327,1.2006,8.2819,3.5166,2.1921,
-1.1551,-15.2886,-9.8392,-9.4514,4.2472,-19.9883,-8.2582,-2.8051,-26.2262,-3.2473,-0.5587,1.6388,1.136,-6.3755,
-4.099,-0.27128,4.8512,5.2157,1.5822,-4.689,6.3373,-10.3495,-10.5526,-11.2472,-5.8278,-6.1723,-4.7167,-13.2238,
7.4755,5.4092,0.82409,19.0027,-5.9844,9.6924,20.0571,4.3714,4.1805,3.5276,4.4041,8.298,-1.3003,1.6696,
-7.073,3.6387,7.5234,31.9626,0.64151,23.2108,4.7536,-8.3036,6.0991,-9.0968,-4.5371,-6.2999,10.8293,-6.0222,
7.4513,-10.6796,-7.028,15.9448,5.1823,7.7182,-9.6316,6.2946,-8.3669,5.549,-1.6138,6.1297,-0.18474,6.6312,
-0.46789,-16.4263,-9.1371,0.88812,-0.43128,-6.8449,-18.5744,-0.71127,-21.9648,1.9619,2.8214,3.3513,-3.0662,-2.9257,
-7.1883,-1.3407,5.5111,14.9348,2.0047,7.6658,-3.3599,-12.7201,-6.547,-10.2069,-3.6144,-10.9498,4.8306,-8.5347,
3.607,2.2346,10.6034,28.1387,-0.28461,21.3058,10.9417,2.1431,7.9459,4.5055,-4.1206,3.8072,-0.52083,2.8233,
-9.1425,16.2005,23.9469,40.5504,6.9632,34.1275,20.4085,-10.8802,21.5691,-6.7314,-8.6939,-9.1952,5.2953,-8.433,
5.506,4.744,8.4101,24.0174,3.4119,17.9798,5.084,3.8726,6.175,5.9646,-5.0388,1.7204,-2.4942,4.847,
-1.9347,-9.5202,1.518,8.4764,-4.5053,2.801,-4.0186,2.7968,-8.2955,6.5708,0.56592,3.0632,-2.8267,2.6282,
-6.6391,5.1511,15.5269,12.1858,-0.37886,7.8149,10.3225,-9.4223,6.3022,-4.4285,-3.8061,-8.6895,3.1277,-3.7963,
7.8592,-9.258,0.4953,25.5547,-2.5253,21.446,-4.3968,5.243,19.9034,9.9372,-1.8908,5.9318,-1.6397,9.2057,
-6.7123,3.5898,10.3477,38.1214,5.8214,34.2593,-0.035451,-5.5561,31.2426,-4.759,-4.1877,-7.8012,9.5459,-4.3618,
3.0902,17.4744,15.5117,21.7341,-3.2052,18.1037,3.8228,3.9361,15.2681,-4.2323,-11.167,-5.4051,-5.1268,-4.5822,
1.2178,15.1004,17.2323,6.3301,-4.218,2.9175,14.9219,6.8332,0.252,5.4214,-4.9536,1.9093,-3.9756,-0.20995,
-5.1223,19.4965,17.6442,0.64739,6.158,3.7063,21.2572,-7.6768,14.3369,-4.5448,-4.1745,-12.3053,5.9039,-3.5716,
9.2851,4.2267,2.4855,-13.4914,0.24514,-10.6161,5.8818,6.8838,-0.62334,9.8279,1.1377,2.533,-5.7785,7.9709,
-5.372,-10.1269,-2.6043,-3.1612,2.641,4.1209,-8.5712,-7.6293,13.5141,-4.8618,1.0697,-7.9831,2.7631,-5.5225,
-4.3263,4.5807,4.3006,-17.0716,-2.8203,-10.2264,6.0431,-7.7741,7.5211,-3.3648,-3.8155,-5.0942,-5.5976,-3.2632,
0.75395,-0.6346,-3.1883,-30.1473,-2.6511,-23.7128,19.7805,1.8518,-7.0302,6.9604,0.75224,7.263,-3.3336,0.78919,
-3.3891,8.3211,10.7413,-23.036,10.2824,-10.9616,16.6655,-8.1417,7.4916,-5.2678,0.46614,-7.2728,10.9665,-2.8738,
10.9142,-6.2782,-4.0031,-35.7539,-2.6269,-24.4039,1.5656,6.4468,-7.0579,9.1483,4.0535,7.2636,1.0291,7.6628,
-3.8406,-20.0015,-7.7398,-32.2831,-3.4335,-21.6141,-12.6284,-7.7988,3.127,-4.7775,5.7383,-0.40327,1.4491,-6.8969,
-1.1996,-4.7014,6.8246,-16.2461,-1.5401,-6.2173,2.2293,-4.1976,17.0394,-3.7677,-4.4877,-4.9581,-4.1812,-6.6037,
3.9337,0.76296,1.9564,-1.1713,-2.1709,8.2558,16.1956,10.1542,23.6095,10.5584,-0.12116,9.4394,-1.2791,4.6389,
-8.5947,2.8862,6.4184,4.2018,7.3595,2.9402,4.6188,-4.555,8.0929,-4.1751,1.5732,-5.227,11.0898,-3.1112,
6.021,-11.3869,-8.0667,-10.1503,-0.79487,-11.3362,-9.7583,9.6978,-6.4927,8.6086,0.99689,9.0661,-3.6756,8.6444,
-8.4403,-13.4753,-12.2827,-23.6413,-3.1578,-24.7561,-23.2728,-2.4532,-20.2031,-1.5489,0.45515,-0.15494,0.040121,0.41324,
-5.0413,1.4332,2.5543,-8.1228,-5.8604,-9.1707,-7.7765,-6.6448,-4.8909,-7.2405,-0.53649,-7.3765,2.9298,-2.5041,
0.80486,-6.7271,-11.699,6.4646,-9.6062,5.4795,6.7901,7.8539,9.5025,7.2939,8.8958,7.1661,-1.3433,6.5641,
-13.3434,0.18387,-0.87391,20.1767,0.37005,19.2508,2.0442,-6.7174,0.61706,-6.2796,5.7106,-5.9178,8.137,-3.7118,
1.5572,-13.9272,-14.9215,4.8661,0.34796,3.9957,-12.1785,7.1834,-13.52,8.0766,5.3681,7.9347,2.3462,5.6698,
-5.7674,-24.7812,-16.0751,-9.5259,1.5323,-10.344,-25.5478,-5.0579,-26.8088,-3.2544,6.7331,-0.49523,8.7133,-2.142,
-9.0366,-9.1943,-1.0106,5.1457,-0.72906,4.3766,-9.9149,-9.3339,-11.1002,-6.1919,0.78576,-6.0089,5.5396,-3.7005,
-1.5047,-7.7988,-7.8191,18.9369,-7.675,18.214,4.78,5.3261,3.6658,8.2796,4.3538,8.4516,-3.711,3.9931,
-14.4296,0.86406,6.75,31.9007,3.3906,31.2212,3.7703,-8.3705,17.5458,-5.5943,2.1646,-3.9863,9.0449,-5.4053,
0.53613,-13.2878,-7.755,15.8867,-3.3205,15.2479,-10.5559,6.2317,2.3931,7.9975,2.7579,9.9914,-1.8619,9.019,
3.7577,-19.6011,-14.0383,0.83348,-0.46999,0.23303,-24.0226,6.2195,-11.8505,11.1333,13.4384,12.5252,6.6857,6.429,
-8.2781,-4.325,0.90395,14.8835,-0.68299,14.3191,-8.4812,-8.2537,2.9605,-3.6347,-1.4679,-2.3263,1.705,-8.0568,
6.3186,-6.3551,2.8983,28.0905,-3.5342,27.5599,-3.2725,6.3415,16.8829,9.9602,3.802,11.9133,-10.4485,6.5266,
-8.1605,0.29287,10.4375,40.505,0.052206,40.0063,-3.076,-8.139,23.4622,-4.7375,0.19955,-2.9015,-2.5908,-4.7112,
6.4291,-5.2683,-4.2888,23.9747,-1.156,23.5059,-16.9914,6.4494,7.9545,4.5852,-0.053159,1.2499,-4.1224,6.418,
-2.0308,-12.6651,-14.7573,8.4363,-2.5328,7.9956,-30.072,6.5445,-6.6228,8.6488,4.7702,10.3334,-3.3932,8.4429,
-7.4524,2.1948,-1.5792,-6.1699,-1.1756,-3.2099,-14.1676,-7.9482,7.8746,-2.7163,1.351,-4.0249,-1.9842,-1.9455,
7.0947,-12.0369,-15.5845,8.3003,-3.9975,11.0827,-27.4176,6.6287,21.5021,11.5467,10.4287,10.3166,-3.7935,10.7044,
-7.431,0.013635,-0.54942,21.9023,-1.3474,23.3124,-11.6725,-7.5075,24.0681,-3.2461,1.126,-4.4024,4.6287,-4.0379,
2.1737,11.1,-3.4092,6.4881,-1.7485,7.8137,-14.2261,-0.30812,8.524,4.1793,-2.798,-3.1741,-4.3256,1.1455,
0.83787,-0.89427,-7.3019,-8.0012,-2.3668,-6.7552,-5.9009,7.1821,-6.0874,10.9183,5.324,6.8981,-3.3431,4.692,
-11.0222,6.6311,3.5002,-21.6211,-1.9837,-16.7137,7.7097,-6.5054,8.3778,-3.8368,-1.0211,-7.6157,1.4369,-4.5072,
3.7392,-7.8668,-10.8098,-28.3984,-2.8287,-21.4956,-6.8529,7.985,-5.0194,10.4934,6.2706,6.9412,-3.9518,9.8632,
-10.5852,-3.1769,-2.5689,-12.5945,-0.48993,-6.1058,-6.0803,-6.5941,9.3817,-2.1877,-0.13102,-3.1161,3.7572,2.1611,
2.5832,11.1137,4.0931,-25.9387,-3.5936,-19.8394,8.3845,1.5145,14.4831,-0.85111,-3.7386,-0.2776,0.88067,4.6825,
0.25879,-0.27869,-5.0705,-38.4824,-7.9577,-32.749,17.4022,7.9309,-0.48593,7.1535,5.4036,8.6569,-1.8237,2.2324,
-9.157,2.3896,1.2593,-24.9657,2.4017,-16.6841,2.258,-6.645,5.4483,-7.0138,1.9461,-5.9625,4.3112,-9.7117,
5.4925,-11.8538,-12.9163,-37.5678,1.0527,-29.783,-11.9774,7.8537,-8.9786,7.507,1.1063,6.0848,-5.8292,4.971,
-8.9371,-12.4683,-4.7898,-27.9626,2.1944,-27.8758,-25.3588,-6.7175,2.7676,-7.0434,-1.6115,-8.3803,-1.3823,-8.4634,
-3.5804,2.3798,9.5976,-12.1849,0.61674,-12.1033,-9.7373,-8.3629,16.7015,-6.1391,-3.9252,-11.3723,-5.6379,-6.5095,
5.3118,-7.0425,1.1883,-12.0562,-0.86629,2,4.947,4.1902,15.5792,8.3292,4.0233,3.41,-4.8174,4.0044,
-7.5407,1.5749,9.3119,2.7672,9.3088,6.2184,4.5294,-10.1612,0.66469,-6.2705,-0.07467,-10.8946,4.6304,-2.5028,
7.0118,-12.6196,-5.3468,-11.4989,3.2066,-8.2547,-9.8423,4.5485,-13.4752,6.88,1.135,3.8591,-9.3856,9.4578,
-7.5089,-17.2855,-8.039,-24.9089,2.0502,-21.8595,-23.3518,-4.6425,-26.7667,-5.5835,0.5853,-2.0366,-2.0735,-3.1609,
-6.576,-2.1484,6.5434,-9.3144,1.204,-6.4479,-7.8507,-7.4972,-11.0607,-5.4897,-4.5117,-7.9401,0.21988,-3.6944,
3.2187,-1.6579,-1.2005,5.3445,-5.3758,8.039,6.7204,7.0526,3.703,8.9397,1.7846,6.6363,-3.8908,4.4812,
-11.0744,9.2879,8.2717,19.1238,5.311,21.6566,12.1019,-6.5064,4.9273,-5.6967,1.9186,-7.8619,6.7069,-6.6339,
3.69,-5.3693,-6.3246,3.8764,-0.7925,6.2572,-2.7242,7.9839,-9.4684,7.6605,1.8038,5.6252,-3.3367,6.2974,
-0.38788,-12.3987,-11.8502,-10.4562,1.9061,-8.2182,-16.6607,3.2871,-23.0003,2.1392,3.8647,3.1186,9.6379,3.2685,
-4.221,2.4452,2.9608,4.2712,-0.13596,6.3749,-1.5611,-7.5154,-7.5202,-12.0891,-9.3826,-11.1686,3.7575,-8.0148,
4.7088,12.7832,-1.1941,18.1149,-2.5385,20.0924,12.6326,7.0355,7.031,2.7362,-0.1429,3.6016,-4.6633,4.5173,
-9.6737,12.7392,6.3495,31.128,4.1219,32.9869,25.9746,-7.2457,20.7091,-6.828,1.5528,-5.5326,7.4268,-4.6715,
5.0067,-2.1252,-8.1315,15.1603,-0.22315,16.9077,10.3162,7.2891,5.3666,7.6817,2.665,8.8993,2.8839,5.4906,
0.36831,-6.4564,-9.6922,0.1507,2.2005,1.7932,-1.631,5.0445,-9.0554,3.9673,2.0228,11.3784,6.5674,1.7871,
-2.0644,8.0309,4.9893,14.2417,5.4429,15.7856,12.5669,-8.2741,5.5879,-10.3707,-4.365,-3.4043,3.7628,-5.551,
8.4237,-1.0074,-5.3126,27.4872,-1.8734,28.9385,23.9845,6.3224,19.3526,4.3515,-1.9341,10.8999,-6.3451,3.2178,
6.472,0.49906,-4.5119,39.9379,-2.2432,41.3022,20.1353,9.4381,32.2915,3.8489,-1.818,8.0767,-5.4822,1.0966,
5.3608,1.6742,-3.0361,34.4083,-2.8317,28.5805,16.7578,6.7026,19.2666,2.895,-1.468,4.941,-4.4301,-0.1745,
3.8337,3.2608,-2.1307,18.2438,-2.9027,12.7657,13.5831,4.1307,4.372,1.5159,-1.1391,2.4748,-3.9235,-1.8514,
2.881,4.7526,-0.79782,3.0492,-3.4516,-2.1002,10.5989,1.714,-9.6287,0.22038,-0.82952,0.15737,-2.9649,-2.9451,
1.2619,5.9135,-0.26801,-11.2338,-3.7265,-16.0742,7.5529,-0.799,-23.0305,-1.2391,-0.77975,-2.2622,-2.3051,-4.6966,
0.70405,7.005,1.1946,-24.6598,-3.9851,-29.2098,5.1715,-2.679,-35.1458,-1.6469,-0.2508,-4.5368,-1.2022,-5.3789,
-0.30229,8.0307,2.087,-37.2802,-4.2281,-41.5572,3.415,-4.4467,-47.137,-2.5122,0.72834,-6.193,-1.1303,-6.5022,
-0.28393,6.1028,5.8179,-49.1434,-3.0103,-53.1638,17.3101,-1.2876,-42.2603,1.4951,1.6487,1.4096,-2.0266,-2.2559,
-1.2317,13.449,13.6636,-32.0948,8.2575,-35.8739,30.3715,-10.3694,-25.6247,-10.6461,-2.3066,-11.6908,6.2897,-5.9769,
12.9422,-1.458,-1.2563,-16.0691,2.4595,-19.6215,14.4492,4.3528,-9.9872,4.0926,1.6886,3.1106,-2.2825,4.9868,
-1.9343,2.6066,4.2425,-1.0049,1.348,-4.3442,-0.51778,-8.0802,4.712,-10.2529,0.62303,-10.6936,7.4955,-9.292,
1.5562,16.5502,8.3262,-15.0446,-3.5536,-15.7733,13.6133,1.0813,3.5857,-1.443,-2.3069,-3.3036,0.77882,-0.057377,
2.4273,2.9036,-0.84986,-28.242,-3.3403,-28.9269,26.8965,9.2117,-8.6807,8.2846,3.6162,8.9463,-3.6061,5.2486,
-10.4927,12.6114,9.5651,-12.4474,5.7783,-13.0913,18.534,-5.441,4.6145,-6.3124,-0.69798,-5.6905,5.046,-9.1663,
4.2369,-2.2453,-5.1088,-25.8006,3.5032,-26.4058,3.322,8.9854,-9.7624,8.1663,5.1285,8.751,1.8512,4.2785,
-8.9121,-11.872,-4.923,-11.5985,5.9443,-13.1316,-10.9773,-5.6537,4.9234,-4.3747,1.2054,-5.7537,7.2838,-7.7881,
1.9868,2.9403,9.4724,3.1974,5.8284,1.7563,3.7813,-7.8454,18.728,-7.7278,-4.8927,-6.1316,-1.1072,-3.7056,
3.0727,3.1255,0.10682,17.1056,-1.5108,15.7509,17.6544,3.9538,20.135,6.4745,2.3906,8.3363,-6.1024,3.5065,
-8.199,6.7942,3.4743,14.8737,8.2207,15.0466,15.3899,-10.3834,4.8269,-6.9295,4.6572,-6.2639,8.3638,-6.345,
6.393,-7.7134,-10.8342,-0.11869,2.6661,0.043806,0.36647,4.3396,-9.5627,7.2249,1.2446,5.6812,-1.1764,4.3997,
-7.1265,-16.289,-11.0275,-14.2116,3.2294,-14.0588,-13.7555,-4.1158,-23.0889,-1.1624,1.4108,-2.1316,4.9196,-1.4078,
-6.9401,-1.2116,3.7341,0.74112,-3.4721,0.88471,1.1698,-5.5563,-7.6036,-7.1184,-3.2534,-9.4753,-2.3652,-6.8672,
7.5763,7.1763,-6.4923,14.7967,-2.2999,14.9316,15.1996,8.877,6.9526,7.4087,6.583,5.1932,-2.2233,6.5605,
-6.2552,8.9148,1.8512,28.0089,4.3458,28.1357,7.057,-5.7556,4.2457,-7.1359,-4.6582,-9.2184,5.8641,-3.2331,
8.2201,-5.72,-12.3599,12.2283,0.22867,12.3476,-7.4664,8.6898,-10.109,6.067,-1.0043,4.109,-1.7186,6.6018,
-2.5164,-15.3793,-9.0877,-2.6054,1.179,-2.4933,-21.1184,0.57631,-23.6025,-2.4924,3.8764,1.9345,3.6869,-3.4355,
-2.3655,-0.3565,5.5576,11.6509,-0.33796,11.7563,-5.7513,-7.171,-8.0864,-8.6094,-8.4072,-7.8226,-1.3545,-5.6395,
7.1764,4.1238,-7.6707,25.0519,-1.5226,25.1509,8.6938,7.3592,6.4988,6.0072,1.979,6.7468,-4.8888,8.4373,
-7.3542,11.8307,5.5641,37.6488,9.4151,37.7419,21.6697,-7.1823,20.2089,-5.0788,8.8503,-2.9373,9.5045,-3.3968,
7.187,-2.9792,-8.8697,21.2899,-0.30907,21.3774,6.2696,5.7819,4.8964,7.7592,3.4988,11.3389,-1.5504,6.4478,
-4.3315,-15.4546,-22.4375,5.9125,-0.049555,5.9947,-8.2066,2.3015,-9.4974,4.1606,4.9761,5.4764,-0.73405,5.8199,
-7.4459,-0.42732,-6.9913,19.6577,3.3276,19.735,6.3858,-10.3699,5.1724,-10.189,-1.5892,-8.9522,-1.6546,-2.7242,
7.1009,1.8881,-1.39,32.5782,-4.1025,32.6509,4.9177,4.3523,18.9621,4.5223,0.91613,5.685,-7.8217,8.5264,
-7.4252,8.7645,6.647,44.7236,0.24088,44.7919,1.4895,-6.3936,25.4166,-8.0416,-5.1645,-7.913,0.60147,-3.7955,
7.1203,-2.6074,-7.8518,27.9401,3.8418,28.0044,-12.6999,8.09,9.7916,6.5409,2.1352,4.3724,-6.4245,7.2785,
-1.6223,-10.6461,-4.6086,12.1637,1.201,12.2241,-13.9868,4.833,-4.8959,5.3046,8.2739,6.5199,-5.0749,0.092916,
-4.8992,4.0927,9.7679,5.7698,2.093,10.6473,0.95243,-8.9546,9.4979,-9.1136,-4.7558,-7.9712,1.0144,-5.6972,
9.4948,-9.2888,-4.9182,19.5236,-3.335,24.1084,-13.2047,5.6827,23.028,5.5332,-2.0603,6.607,-5.3132,8.7446,
-5.1749,4.284,4.0538,32.4522,-0.72453,36.039,-11.93,-7.312,10.8003,-8.8988,-2.4187,-7.8894,-0.17395,-5.8801,
2.3662,18.0064,5.2566,16.4051,-0.68129,19.7767,-9.2863,-2.0528,-3.9477,-11.6186,-4.6839,-8.7416,-6.4303,-6.9733,
-5.0064,9.6954,2.0489,1.3208,-2.5684,4.4901,5.3709,-0.96552,-17.8108,-5.1367,-3.9207,-4.8424,-5.0803,-3.1807,
-8.8038,18.0313,10.844,-5.2662,3.1293,-9.7591,13.3641,-7.4151,-2.6422,-7.962,-4.4088,-11.0598,3.6602,-1.3026,
5.8244,2.8494,-3.9066,-19.0502,-1.879,-18.8146,-1.5378,7.1298,-9.8351,6.6157,5.4968,3.7038,-5.7181,12.8755,
-8.6251,-4.4316,-3.0696,-3.8072,1.1261,-3.5857,-15.3045,-7.398,4.855,-7.8812,1.3105,-5.3158,1.8554,-0.55073,
0.56977,9.9343,6.2734,-17.6788,-1.3518,-17.4706,-0.28627,-3.0975,4.9255,-5.9618,-5.9988,-7.8891,-2.112,-0.51746,
-4.0442,0.29988,-1.5748,-30.718,-4.4042,-30.5223,13.8309,5.0417,-9.47,3.7954,0.38672,3.9124,-2.7082,2.6466,
-10.309,8.2359,4.5452,-20.4388,9.1165,-16.5191,13.242,-7.071,5.1982,-9.6887,1.5688,-7.6505,8.7825,-1.6095,
4.4095,-6.3583,-9.8275,-33.3125,2.062,-29.6279,-1.6525,7.4533,-9.2137,4.9926,2.1976,6.9085,-3.5548,5.4767,
-3.4475,-17.6667,-9.3581,-45.4137,5.7947,-35.2016,-15.6534,-1.5503,-4.9252,1.9213,8.8146,-0.1342,8.2278,-1.1187,
-2.9995,-2.5067,-2.2889,-28.5889,-4.4352,-18.9895,-0.61415,-2.6623,9.4703,-5.1837,-2.0783,-5.1881,-3.1123,0.15352,
0.55493,-5.61,-8.4183,-12.7736,-3.6869,-3.7501,13.5227,7.6208,10.4688,5.7326,3.8309,9.2232,-1.9613,7.8573,
-6.9504,6.5367,5.3432,-2.125,8.3444,0.090309,2.8294,-6.9365,-4.2593,-7.8679,4.8061,-5.4302,10.4487,-6.7141,
7.5666,-7.9555,-9.0774,-16.0975,-0.10997,-14.0151,-11.4404,7.5797,-18.1038,6.7041,7.1693,7.9113,-4.2782,5.8605,
-3.6129,-12.1782,-9.8583,-29.2317,0.13759,-27.2742,-24.8539,0.61722,-22.3202,-0.56726,4.5696,-1.9634,1.8838,3.3397,
0.46024,2.6525,4.8332,-13.3778,-2.2808,-11.5378,-9.2627,-7.615,-6.881,-5.8359,-3.4174,-8.594,-2.568,-0.71703,
11.0377,5.7471,3.9405,1.5249,-3.5902,3.2545,5.3931,6.9419,7.6319,8.6143,8.357,6.0216,-4.8241,5.5925,
-3.7246,6.6074,7.8012,15.5334,5.543,17.1592,-0.9563,-7.5746,0.42508,-6.0026,0.86574,-8.4397,6.7933,-6.0715,
7.2247,-7.8891,-6.7668,0.50141,-2.743,2.0297,-14.9989,6.8592,-13.7004,2.5523,-4.7296,3.6359,-5.9066,7.0675,
-5.5013,-16.9362,-15.8811,-13.6287,-1.3736,-12.1921,-28.199,1.8683,-26.9784,0.22999,5.4361,5.1045,0.95577,4.4743,
-9.7505,-1.82,-0.82822,1.289,-3.4604,2.6394,-12.4071,-10.0539,-11.2597,-9.1834,-5.2539,-9.3018,-3.1989,-5.1942,
4.9345,8.5328,-3.0682,15.3117,-2.7706,16.5811,2.4374,4.6493,3.5159,5.4676,0.36351,5.3563,-4.9354,8.1327,
-7.5336,12.3594,7.721,28.493,5.1084,29.6862,-1.8062,-9.2475,17.4049,-6.5505,1.7882,-6.293,8.8581,-1.9963,
7.0184,-2.4822,-6.8423,12.6834,-1.2239,13.805,-15.7978,5.4074,2.2606,4.689,1.9216,6.3768,-2.5194,4.1493,
-1.9588,-12.095,-16.1934,-2.1776,3.1879,-1.1233,-28.95,0.86465,-11.975,3.4433,3.7345,2.6198,0.041845,0.043952,
0.32807,2.7307,-1.1218,12.0531,10.9506,13.0441,-13.113,-7.6231,2.8435,-7.1274,-2.9973,-11.6374,4.6189,-5.0201,
12.1182,0.51833,-1.1749,25.4299,3.3038,26.3615,1.7738,6.9343,16.7729,7.4003,-2.0944,3.1607,-5.0582,0.34241,
-2.7089,14.5872,12.9956,38.0041,13.9519,38.8798,12.2727,-7.5818,28.9029,-7.1437,-5.584,-10.7671,2.7172,-6.1855,
11.5536,15.0379,4.3827,21.6238,12.8739,22.447,-2.5637,6.9731,13.0687,1.2389,-7.9001,2.1714,-8.292,7.4416,
8.6914,6.1814,0.50436,6.2264,8.0041,7.0002,-16.5099,2.5778,-1.8154,-1.969,-5.2569,-0.12848,-5.6254,-2.4049,
2.1443,19.9105,14.5741,7.4191,15.9595,4.2903,-1.4193,-10.8332,12.3935,-10.7689,-6.1468,-12.4128,4.5941,-9.2505,
16.1157,4.6159,-0.40035,21.074,8.2534,18.1329,-15.4341,3.9168,10.565,3.8569,-1.4396,2.4319,-5.3224,5.4045,
2.0131,18.4389,13.7237,33.9095,13.5429,31.1449,-0.40808,-6.5618,22.4647,-10.4745,-2.3172,-11.814,4.1559,-1.3065,
11.7742,31.4326,13.2615,17.775,6.7043,15.1762,-2.6735,-0.62451,7.0168,-6.5922,-11.0962,-7.0078,-9.3499,-3.3978,
1.1856,17.4953,10.7788,2.6085,3.1688,0.16564,6.4048,2.5462,-7.5042,-0.65329,-9.2254,-1.5259,-8.5477,-5.363,
-0.33158,19.8203,16.8807,-1.4042,10.6916,1.602,16.1436,-6.2834,1.8639,-8.3266,-6.7434,-10.5931,5.4623,-5.5232,
13.7883,4.5311,1.7679,-9.515,6.6758,-4.2789,1.075,8.1936,-12.348,6.273,-2.0004,4.1425,-5.4704,8.9082,
-1.139,6.3077,8.049,4.0714,10.6135,10.0779,-13.0895,-3.9879,2.4929,-6.2752,-4.7725,-5.8678,-2.25,-4.28,
7.365,20.0292,16.4837,-10.2729,5.8793,-4.6268,1.7959,0.34872,-11.3954,-4.6939,-4.2452,-9.1311,-7.1767,1.5204,
-0.78965,12.1993,1.3947,-23.7565,-6.5245,-18.4492,15.7881,-0.63607,-24.8117,-4.4118,-5.9187,-3.7625,-12.5304,0.46529,
-4.3577,25.5673,13.7238,-8.2311,7.9669,-3.2422,8.0919,-4.6953,-9.223,-8.7268,-3.3944,-11.0091,2.3214,-3.1785,
10.0038,9.9333,-1.1996,-21.8372,1.1017,-17.1477,-6.4936,9.6865,-22.7696,5.8968,0.42467,3.7515,-5.1692,9.3047,
-4.6965,-1.75,0.19834,-10.886,-2.8208,-2.7419,-19.7216,-4.9947,-7.3034,-6.3879,-1.529,-6.9577,-2.4489,-2.8227,
2.575,12.455,12.2378,3.8671,-1.6875,11.5227,-4.4383,-4.4539,7.2348,-4.0762,-7.2221,-4.1304,-3.2661,-0.72539,
8.6876,6.2847,-1.9937,0.62245,-1.5861,5.8904,9.928,8.3465,1.3779,6.7734,-2.4501,8.1691,-5.4801,4.1387,
-1.9572,16.0309,9.6949,7.3337,11.042,3.6085,5.7167,-4.6879,-12.8048,-7.733,-1.3391,-6.421,5.4539,-2.8584,
12.2603,0.96903,-4.9868,-7.2064,4.5952,-10.708,-8.7263,9.6934,-26.1365,6.8309,1.1515,8.0642,-4.5145,10.8106,
-2.5753,-8.6096,-9.8697,-20.874,1.9088,-24.1655,-22.3027,3.2067,-36.8607,5.9388,-0.84568,2.2774,2.0228,4.3775,
2.6406,6.007,4.8225,-5.5215,0.58945,-8.6156,-6.8646,0.36323,-20.5491,-2.8532,-10.1949,-7.7412,-3.1598,3.8739,
2.2417,6.9721,2.0023,8.9098,-5.9534,6.0013,7.6473,6.8494,-5.2161,-1.4767,-8.3782,2.1233,-14.2984,2.4361,
-6.5702,14.7487,12.9696,22.4752,8.5038,19.7412,21.2885,-7.0592,5.9431,-9.1011,1.2835,-9.0911,0.65951,-1.5662,
7.9241,-0.23621,-1.9086,7.0267,0.40106,4.4568,5.9112,7.4644,-8.5135,5.545,0.0014697,4.2286,-1.188,8.8919,
-4.2413,-11.6709,-14.6892,-7.4949,1.1001,-9.9106,-8.5435,0.14736,-22.1027,0.75322,3.1346,-0.60465,7.3192,0.88634,
-2.2991,3.1293,0.29212,7.0548,1.2751,4.784,6.0691,-5.4051,-6.6765,-6.2814,-3.5609,-9.9684,7.1215,-5.6743,
6.7565,4.7495,-1.7739,20.7315,-5.3094,18.597,19.8049,9.0192,7.8241,6.8695,-1.6605,4.7297,-4.1523,0.69145,
-7.7489,6.8747,6.5273,33.5876,4.6506,31.5811,25.2451,-5.6219,21.4546,-7.6427,0.84972,-5.5562,8.6301,-4.1705,
6.816,-7.6378,-7.9644,17.4723,-5.7518,15.5863,9.6304,5.0792,6.0674,4.5058,0.79873,8.2745,-2.975,7.1669,
-5.6443,-18.1463,-21.5865,2.324,-6.3708,0.5511,-5.0475,0.43594,-8.3967,3.2713,5.0889,5.3677,1.0602,1.9164,
-9.403,-2.9575,-6.1913,12.0667,-3.337,14.618,9.3554,-7.544,6.2071,-7.2888,-1.7239,-8.2108,1.7195,-4.706,
4.8996,-6.2749,-9.0737,25.4427,-8.6805,27.841,9.8785,7.0087,19.9347,7.2485,4.4052,6.3819,-4.8913,9.6763,
-9.4943,1.3323,-2.2626,37.0518,-1.8932,40.2705,8.8038,-7.2706,29.7051,-3.1893,3.6586,-2.0757,6.9712,-1.3891,
-1.3323,-7.6654,-16.2269,20.7287,-7.323,23.7543,-5.8245,4.0116,13.8228,5.9204,1.2701,8.4134,-2.8468,5.202,
-10.1702,-14.1954,-15.6147,5.385,-9.053,8.229,-10.175,0.63767,-1.1066,8.6984,2.399,10.0775,-2.4348,4.6487,
-9.8012,0.75633,-0.57783,1.2057,-0.55589,1.1073,4.5355,-8.3184,13.0598,-5.5621,-2.8064,-4.6272,8.0754,-0.69169,
1.1511,-13.3891,-14.6432,15.2334,-9.9224,15.1409,-9.8366,6.2807,25.4123,7.0641,2.9055,5.4123,-1.3273,5.8576,
-13.0179,0.67068,0.33543,21.9117,2.001,26.163,4.8536,-4.3398,31.3592,-1.7958,10.2031,-4.3128,12.8523,0.44461,
-4.1625,6.4152,-2.9387,6.497,-5.8321,10.4932,-1.1017,0.74109,15.3777,2.65,-2.4604,-3.0899,-2.0188,2.8283,
-3.6718,-5.2979,-8.3057,-7.9928,-8.6152,-4.2364,6.4364,7.2041,0.35501,9.4814,0.3383,6.4955,-0.9335,3.3815,
-9.9592,0.081461,-1.2999,-21.6133,-1.1086,-18.0822,20.1502,-6.4843,3.4672,-3.8622,-2.3333,-5.2222,4.184,-5.7392,
4.7383,-14.0234,-15.3219,-34.4165,-7.0676,-31.0972,4.8412,8.0048,-10.8408,10.4695,3.3503,9.1911,-3.5389,8.7051,
-9.646,-13.7844,-7.2922,-18.2515,-1.8231,-15.1314,-3.6442,-4.4061,3.9096,0.80282,5.0777,0.56541,8.7248,3.0007,
-2.0776,1.1426,-2.034,-31.2564,-2.1956,-28.3235,10.6745,-0.76777,-10.0635,-2.6198,-1.4939,-1.8791,-1.4397,-0.55384,
-1.7117,-0.73387,-2.1531,-43.481,-4.7152,-40.7241,24.134,4.3397,-23.5597,2.1169,4.6215,5.7052,-2.0764,1.1668,
-8.8398,10.8796,11.9558,-26.7722,1.8342,-24.1807,14.9732,-10.0206,-8.0461,-10.0612,4.8266,-8.7371,11.5455,-1.7957,
4.9468,-3.8732,-2.8616,-39.2658,-6.7116,-36.8298,-0.025216,4.6806,-21.6634,4.6425,1.8853,4.6822,-3.2472,5.7842,
-8.6063,-3.5201,-4.4978,-41.1277,4.5374,-38.3557,-14.1237,-2.3487,-6.2636,4.7256,7.7979,1.2683,10.5657,-1.0707,
-5.4386,10.7911,2.2798,-24.56,-6.5813,-21.9544,0.82372,-7.7516,8.2123,-4.4762,-3.516,-6.7617,1.0139,-4.6221,
1.3952,-3.9564,-5.811,-10.6739,-8.3556,-14.4911,14.8743,6.8135,14.5887,7.1205,4.1667,5.936,0.7121,4.5733,
-9.0524,0.37813,4.4198,-5.4537,3.4739,-10.9701,7.9563,-6.731,-0.38664,-2.7062,7.5321,-8.5201,13.9258,0.20156,
4.5059,-13.7446,-9.9454,-19.2265,-7.8218,-24.4119,-6.6211,7.1703,-14.4634,11.4355,3.7059,6.0911,-1.0098,10.3125,
-9.8645,-10.3893,-9.7101,-32.1729,-3.9782,-37.0471,-20.3238,-1.4549,-9.7392,1.1081,3.9656,3.5562,2.5453,1.9811,
-9.6337,4.3341,4.9725,-16.1425,-6.6316,-20.7243,-5.0044,-4.7416,4.9451,-3.2967,-4.4675,-6.78,-0.98143,-1.9942,
2.7545,0.82042,-5.3284,-1.074,-7.4388,-5.3809,9.3959,9.6429,18.7484,11.0011,6.165,7.7268,-2.6099,11.8639,
-9.9441,9.4479,0.77558,13.0905,-0.24395,9.042,8.1088,-5.0357,13.7671,-3.759,1.9383,-6.8369,5.2594,-2.3456,
4.7525,-5.2189,-13.371,-1.795,-6.7368,-5.6005,-6.4778,3.9433,-1.1589,6.1078,3.0273,5.1427,-3.0099,3.3387,
-9.3916,-17.0776,-14.1352,-15.7873,-3.9225,-19.3645,-20.1891,-1.5959,-15.1894,1.4025,9.1122,2.906,4.8834,2.1741,
-9.3103,-1.9529,0.8129,-0.74004,-2.2406,-4.1026,-4.8778,-5.8387,-0.17802,-11.2144,-3.4854,-11.3684,-3.6041,-1.8125,
-0.79783,10.8183,-2.0078,13.4044,-4.7579,10.2435,9.5149,8.6116,13.9327,3.5584,-0.62552,3.4137,-10.378,6.732,
-14.2472,15.9539,9.2,26.7001,4.6865,23.7289,8.944,-6.0051,16.4712,-5.6941,2.3046,-8.1193,4.3447,-4.2771,
0.70763,0.89668,-5.452,10.9981,-3.7894,8.2052,-5.6926,1.3448,1.3829,-3.4242,-0.72615,1.5264,-1.8212,0.80025,
-4.5168,-13.2571,-15.8504,-3.7618,-3.321,-6.3871,-19.4511,-4.2795,-12.8001,-4.9056,2.4509,-1.2162,3.3498,0.51127,
-5.9332,1.6383,-0.79939,10.5639,0.011486,8.0961,-4.184,-9.0841,2.0679,-4.8524,-0.82941,-11.9893,9.6565,-0.24253,
3.823,-1.9549,2.0204,24.0301,-10.3531,21.7103,10.167,4.2351,16.0438,6.7671,-0.056516,2.8301,-5.0229,4.8335,
-10.5064,9.2496,15.3963,36.6883,3.2835,34.5077,9.798,-10.119,29.1812,-7.7389,3.3211,-6.8604,9.3785,0.20491,
3.0187,-5.4054,0.3725,20.387,-4.8674,18.3373,-4.8899,4.5882,13.3303,-0.16488,-3.3859,3.9153,-1.7893,8.6285,
-4.3932,-15.8068,-6.0368,5.0638,-4.5754,3.137,-12.9117,3.59,-1.5695,3.7019,1.638,2.7165,-0.23569,4.2544,
-3.8889,-0.75843,8.4254,-8.8584,7.0271,-6.8131,1.963,-7.9539,12.6247,-5.9205,0.81612,-10.2212,7.25,-1.5442,
8.6373,-14.8129,-6.1802,5.7731,-3.2764,7.6957,-12.2548,6.6234,13.3134,8.5347,0.52653,4.4921,-5.4771,8.4307,
-5.981,-2.5962,6.9649,19.5268,3.428,21.3339,-0.67346,-5.4634,23.8429,-5.113,3.1461,-3.6105,6.6617,-0.99355,
2.452,7.2006,4.1369,4.2551,-5.9367,5.9539,-5.9357,0.64895,8.3123,-4.3243,-5.2373,-8.2145,-4.3433,0.03039,
-4.444,0.98394,-0.44967,-10.1002,-8.9549,-8.5033,0.20503,2.5377,-6.2864,-1.6547,-3.4773,-2.901,-2.1545,0.5105,
-5.6234,9.6018,9.7,-19.1351,5.6824,-13.2958,14.2927,-6.2914,8.1907,-8.786,2.9981,-5.1373,11.4724,-0.96616,
5.8011,-5.0743,-4.982,-28.11,-3.938,-22.6208,-0.66484,8.1861,-6.4007,5.8411,4.7467,9.271,-3.316,9.697,
-8.647,-6.8183,-0.94697,-12.3234,-0.56832,-7.1636,-14.7249,-4.2355,8.0833,-1.1375,5.6669,-2.2518,9.7781,3.5717,
-4.1512,3.9549,-0.64895,-25.684,-6.0776,-20.8338,0.25855,-2.7763,-6.5017,-3.7206,-3.591,-3.8037,-1.1726,-0.25828,
-3.902,-10.2618,-7.8407,-38.243,-2.821,-33.6837,14.343,6.0671,-20.2116,3.7336,4.3374,10.4039,-3.9947,5.5419,
-12.1039,4.0921,5.8857,-27.3921,7.7125,-23.5886,-0.61755,-5.625,-9.7196,-7.819,5.2821,-4.3203,6.1266,1.5941,
2.7224,-10.2534,-8.5674,-39.8486,-2.8734,-36.2733,-14.6805,8.8125,-23.2364,6.7502,4.0011,5.4595,-5.8099,10.1753,
-5.2742,-9.0353,-4.076,-23.3577,2.1197,-19.9969,-27.8997,-4.8522,-7.7422,-1.97,-2.0236,-4.0271,4.6616,-0.5581,
-2.0657,5.6068,2.917,-7.8562,0.54627,-4.6971,-12.1257,-6.0073,6.8223,-7.6364,-13.4713,-8.6062,-2.849,-1.9709,
-2.6647,-2.8041,-8.1041,-4.8538,-3.1019,-3.3304,2.7019,2.7893,3.1592,2.7037,1.0753,2.2745,-4.8467,3.2091,
-3.4689,6.523,6.4822,4.5963,11.1842,-0.72026,3.5041,-6.5374,-10.0457,-2.7609,10.1696,-7.5031,9.5441,1.57,
10.7188,-7.9684,-8.0068,-9.7795,-1.6587,-14.777,-10.8062,7.3525,-23.543,6.5635,-4.5406,4.516,-3.6828,5.332,
-4.0244,-20.385,-9.4545,-23.2928,2.7794,-27.9904,-24.2578,-2.2475,-36.2304,0.8673,-1.7373,-0.57501,2.323,0.67397,
-5.5904,-5.0619,5.2127,-7.7952,-0.76159,-12.211,-8.7023,-5.9693,-19.9566,-3.0409,-1.6329,-10.6636,-4.5651,-2.2588,
7.7601,2.8342,-0.52305,6.7725,-3.6085,2.6217,5.9198,8.4889,-4.6592,9.6747,2.3216,4.0762,-5.2554,7.0359,
-4.0336,9.1717,13.6083,20.4662,6.0079,16.5644,-4.3175,-6.1204,-1.2464,-5.0058,-3.3616,-6.6532,9.16,-3.2685,
9.2241,-5.4786,-1.3082,5.1382,-3.5114,1.4705,-18.1585,7.0212,-15.2716,2.887,-3.6416,3.3872,-5.4896,4.6406,
-5.4294,-18.2857,-15.2093,-9.2701,-0.6494,-12.7177,-31.169,-3.2822,-28.4553,-5.7222,-1.2542,-2.8418,-1.7857,-1.6636,
1.0424,-3.0886,-0.19675,5.3861,7.1023,2.1453,-15.1988,-4.0491,-12.648,-11.1639,-8.4098,-8.4559,4.1056,-1.0819,
5.3182,3.7249,-4.1618,19.1629,-4.411,16.1166,-0.18691,10.2938,2.2109,3.606,-2.1202,6.1515,-4.8174,7.6601,
-8.4982,7.84,8.6216,32.1132,5.977,29.2496,-5.2369,-4.4238,16.1782,-2.0333,10.5401,-6.3894,9.5716,2.8622,
6.1117,-6.7304,-5.9957,16.0864,-2.5766,13.3946,-19.0227,3.5542,1.1075,5.3193,1.7127,3.6347,-5.1027,7.0286,
-4.7396,-15.6061,-13.4697,1.0212,-2.1812,-1.509,-31.9813,-2.6844,-13.0589,1.8669,-1.0414,3.1759,-4.5555,1.5454,
-5.1784,-0.56976,1.4385,15.0599,1.0829,12.6815,-15.9625,-11.4416,1.8246,-8.1273,-1.2196,-5.9325,0.29731,-0.7167,
7.4248,-9.3329,-3.1066,28.2563,-4.5255,26.0206,-12.2331,3.3449,15.8151,6.4604,4.8791,8.5234,-4.3,9.2087,
-7.1206,4.7244,11.1798,40.661,9.8461,38.5594,-0.89408,-7.8223,28.9662,0.89081,6.0326,-3.4369,10.058,2.8716,
0.89889,-9.6591,-3.591,24.1213,-3.1575,22.1458,-14.9404,2.0472,13.1283,3.0067,-1.8009,-1.0613,-4.6455,4.3863,
-2.7707,-7.5128,0.48063,8.574,-3.6912,6.7171,-20.6722,5.0577,-1.7594,7.8878,8.1888,8.8846,0.93563,5.3282,
-6.943,7.038,14.5518,5.2878,1.3508,-2.2426,-5.3319,-9.2253,12.4461,-6.0831,-2.9076,-5.7485,5.7,-3.1865,
7.5736,-7.4843,-0.42132,19.0705,-4.7558,11.992,-19.112,5.4282,25.7994,8.3819,1.8462,8.6964,-4.524,11.1047,
-5.2934,7.0648,9.9683,32.0263,1.3144,25.3725,-4.7086,-5.3823,30.0362,-5.0155,7.0383,-5.9254,7.7988,3.3286,
1.5319,16.1611,4.3087,16.0047,-5.7546,9.7501,-16.2365,-1.9261,14.134,-3.5095,-6.1587,-8.8238,-6.7691,-2.8969,
-2.4166,4.1045,-1.2527,0.94441,-2.999,-4.9349,-6.1032,3.9743,-0.814,3.9317,-0.48629,4.7208,-3.5912,2.0974,
-6.8511,12.776,8.7047,-13.2123,7.5451,-14.5207,8.3629,-7.5922,13.3348,-4.2582,2.1942,-4.4803,10.7243,2.2127,
3.9244,-2.0905,-5.9176,-26.5195,-4.7179,-24.4956,-6.2388,6.6018,-1.5653,10.0973,-0.58888,8.0807,-4.0192,8.1056,
-9.8088,2.2532,0.10154,-10.8283,6.1704,-8.9259,-3.4544,-3.4356,12.6287,-0.99287,4.7492,-1.0811,8.2735,0.87049,
-2.4716,11.7587,1.0595,-24.2786,-5.2873,-19.5982,10.8529,-1.7834,5.4837,-5.7542,-4.695,-5.3548,-1.8641,-5.9309,
0.32805,-3.0468,-1.6554,-36.9219,-9.0672,-32.5223,24.3017,4.8313,-8.9453,2.545,2.5763,4.8486,-1.0291,-2.4413,
-4.7533,11.236,11.2184,-20.6066,5.5768,-16.4709,19.7101,-6.3049,5.6914,-7.4896,5.0729,-7.2524,10.3608,0.35626,
8.0651,-3.5381,-3.5547,-33.4702,-3.7963,-29.5827,4.4275,8.1734,-8.7501,7.0597,1.8767,7.2827,-4.3608,10.458,
-5.6752,-0.072102,-2.98,-32.3056,1.4931,-19.7333,-9.9381,2.9833,4.1877,7.2386,8.2715,6.4843,10.0008,0.43054,
-6.2987,14.0322,0.091134,-16.2673,-10.1658,-4.4493,4.7582,-3.9444,18.0364,-0.42636,-2.8298,-5.4741,-4.6992,-6.344,
3.9615,6.562,-3.0477,-1.1912,-3.0483,9.9177,18.5727,10.3922,22.8592,13.6992,5.7755,8.9543,-5.7429,8.1367,
