"AF3","AF4","F3","F4","F7","F8","FC5","FC6","O1","O2","P7","P8","T7","T8",
-240.8887,53.5829,7.9208,-7.9208,-79.6751,86.1984,15.3766,-8.8524,-16.3073,27.4906,-17.239,28.4223,-16.3073,57.3103,
-218.9809,48.5033,4.6501,-4.6501,-73.9634,80.0944,27.4992,-21.3683,-28.3759,16.5216,-29.2517,33.2398,-15.3293,47.348,
-191.8638,46.5261,9.0307,-0.64321,-63.9335,77.1525,22.1222,-6.1075,-16.4222,1.4303,-16.3137,39.6324,-13.4775,56.6216,
-194.452,34.4149,8.4884,-4.3325,-69.4162,58.4233,6.6949,-6.6732,-10.7782,4.2621,-12.5395,26.0716,-19.1926,39.1243,
-196.8849,26.293,1.9221,-4.5388,-79.3512,41.5273,4.085,-15.1256,0.58555,18.1064,-13.1851,29.6327,-14.7789,23.3871,
-196.4764,20.988,-12.2933,-6.1298,-87.0491,43.6948,2.9083,-16.0822,11.7328,31.12,-7.7348,41.9547,-10.1647,36.0839,
-182.3578,22.9908,-18.4225,-0.63664,-67.7262,43.4036,-2.3916,-5.3319,8.6993,32.7367,-3.077,45.3727,-12.816,48.0189,
-169.0864,24.873,-3.8048,-0.13262,-49.5626,43.1293,10.3326,2.9087,4.9157,27.5117,2.2334,28.5503,0.53279,42.0988,
-156.6121,22.9143,-6.8386,-0.59093,-47.2978,38.2111,12.0422,-1.4595,-4.2321,16.0757,-1.1627,12.7373,8.422,32.5833,
-136.4988,21.0737,-2.235,0.84288,-39.335,34.521,7.1255,5.6172,-9.1031,6.2578,-2.4904,3.3638,-0.0049451,35.7532,
-126.9109,14.6839,2.0928,-5.2656,-29.0546,27.3244,2.5051,2.9506,-14.6148,-8.2176,-8.3989,-9.4183,-6.0617,22.891,
-114.6367,19.3945,-1.7602,-2.153,-29.1746,34.0724,3.2865,-7.4763,-14.6687,-8.0682,-4.1666,2.33,8.2802,14.0635,
-106.8269,16.3666,-3.5188,-8.5471,-33.9474,31.0955,1.226,-7.0286,-8.1978,3.5983,1.6742,16.2902,9.6476,21.6063,
-106.4739,12.123,2.7498,-4.7726,-33.308,15.1298,3.4824,2.2464,-4.4443,1.985,4.8354,20.316,-2.5795,34.4099,
-98.2221,6.7361,3.5169,0.17243,-34.1049,4.5593,3.2731,-6.2754,-14.428,0.0021222,2.6815,12.5742,-9.8801,25.2349,
-79.7485,5.8665,5.6355,-2.1675,-28.7974,17.7986,0.74711,-8.2285,-7.5053,14.102,-1.6722,15.0809,-7.8894,9.6208,
-81.4864,3.6508,3.4336,-0.17369,-33.5924,15.7986,-3.0256,-0.27938,1.3321,27.3559,-10.8906,8.5849,-14.8705,11.4953,
-77.5293,-0.29617,1.3639,1.7005,-25.9857,12.9869,7.4071,0.66859,4.9792,28.7322,-5.5785,18.321,-8.3871,14.5326,
-73.8097,1.5858,-3.3771,2.5301,-12.3125,16.8668,12.5534,-4.0306,7.4762,24.2124,2.2112,18.1534,1.4344,9.0007,
-82.893,0.092719,-8.2998,0.048718,-12.0391,7.002,2.9474,-1.4592,9.3572,8.6597,-5.8418,2.9642,4.6095,13.586,
-79.3174,-6.9024,-7.3365,-9.7387,-5.2598,-5.0668,2.3043,2.822,3.6704,11.0577,0.56573,4.7714,9.4583,20.692,
-68.0355,-12.079,-5.9637,-10.086,-2.1483,-3.8312,7.7577,0.78854,-0.27727,18.7808,3.3267,18.5851,10.755,5.4723,
-70.0108,-10.8889,-2.3447,-8.0838,-5.2815,4.3199,7.7576,-5.3158,-2.5911,3.554,-6.6574,3.37,9.6434,-1.8456,
-70.003,-3.2464,5.7167,-3.4046,-4.4988,1.7307,0.30391,-2.6668,-15.0155,-10.7593,-8.587,-10.9322,7.6674,4.3226,
-51.7028,-7.2449,5.8395,0.99294,-3.7631,-12.4731,-5.7718,-1.1094,-13.6487,-13.1314,-8.5385,-17.1432,1.1499,-4.7892,
-40.8017,-15.1968,2.6942,-0.93081,-9.128,-19.5237,-4.4938,-7.5661,1.2702,-14.2068,-15.4811,-7.728,-2.6466,-11.9567,
-52.4536,-13.3529,3.4638,1.9213,-18.8316,-11.8286,-6.0879,-7.1117,0.14011,-8.6948,-15.4835,0.19106,-2.4882,-5.6481,
-63.4064,-18.6092,6.5176,-5.1831,-19.0991,-13.4489,-7.1201,-0.62841,-9.6523,2.5435,-3.8379,9.9645,3.7185,2.6115,
-56.0968,-25.8797,0.53534,-7.6675,-14.2253,-26.6197,-2.9659,-6.1819,5.0268,-11.7092,-0.81224,-4.7333,11.8824,5.2502,
-47.1398,-18.7357,-2.2922,6.8926,-3.1214,-27.8188,11.3121,-3.9473,18.5807,-17.4081,12.2826,-18.5493,19.5556,7.7306,
-52.698,-25.066,-16.1324,-0.16605,-11.3212,-17.7626,2.125,-1.8467,3.3659,-2.2636,15.2727,-12.5333,8.132,-0.18776,
-35.4361,-13.3118,-10.5058,2.6393,-13.4373,-2.5969,-2.6621,6.6511,4.2183,11.9722,4.106,2.3187,8.5761,3.5514,
-29.7047,-13.4452,1.3074,1.5488,-9.8357,0.23298,1.2247,1.5925,2.1014,7.2824,-10.1181,-7.2613,3.402,5.2012,
-28.854,-15.4334,9.6155,5.1834,0.073577,-10.0318,7.6754,7.0886,-0.82048,-7.1328,4.589,-18.008,1.3346,11.4133,
-21.0658,-13.1099,-2.6096,7.2024,-1.3292,-16.419,5.8165,-2.19,-0.30542,7.3952,10.2484,-2.8275,0.7887,10.2618,
-15.6081,-14.6529,-10.3734,1.6449,-0.78317,-16.8317,8.7296,-8.1147,8.5657,14.2851,-2.0143,9.3348,11.4575,6.3849,
-13.7395,-15.6379,-1.3644,6.2053,0.19546,-18.6168,6.3416,-6.6962,3.3927,-0.67203,-0.030112,-2.4077,12.6342,-0.52151,
-10.1198,-10.9717,8.0361,3.9692,-0.74747,-15.636,2.2341,-12.8173,-7.9928,-14.4877,8.3587,-12.5144,-2.2238,-2.354,
-19.2975,-12.6434,8.0198,-2.3264,-7.6926,-22.6195,6.2925,-7.8558,3.2024,-1.9711,11.1188,-4.7744,-11.7531,7.5722,
-32.2397,-19.8055,4.277,5.7348,-19.8109,-31.9789,-2.0058,1.4688,9.9994,5.1363,-1.1965,5.297,-4.9913,5.7195,
-21.3307,-17.6851,6.8157,0.73119,-9.3036,-15.9602,-8.4083,6.0402,-4.7006,-1.6947,-11.3759,2.1838,3.6952,-4.874,
-5.9508,-11.0328,2.6798,3.4827,5.3546,-0.90256,-5.1076,6.6099,-18.5185,-15.5708,-2.3063,-12.0472,4.4055,-9.2402,
-3.386,-15.4962,-0.74311,13.9908,13.764,6.8292,1.2559,10.4062,-3.3074,-16.0345,6.6849,-18.1917,10.1982,-9.152,
-8.7736,-23.8851,3.0294,4.7643,4.552,-2.8992,6.7718,8.8497,-4.3847,-16.9362,-3.0349,-18.964,14.2459,-3.9434,
-9.6455,-18.2592,-1.3461,3.0805,-7.3698,-8.7831,2.1717,3.1933,-12.0428,-8.9313,-7.9782,-15.4966,11.9932,9.8043,
1.6502,-20.4248,-5.4582,5.2252,1.9252,-17.1081,-6.8114,3.468,-0.6032,-3.2692,5.0808,-7.5772,13.6032,11.5465,
15.529,-23.8593,3.2559,8.6392,15.7879,-14.2183,-0.81199,4.1916,-0.567,-17.173,1.9802,-1.5318,10.9228,4.3304,
9.006,-17.7678,3.9922,10.9167,5.5216,-3.1145,10.42,1.1451,2.2628,-14.1576,-3.7294,7.8783,0.94923,8.7297,
-5.6343,-25.5541,-9.7598,2.3409,-8.9097,-15.5075,4.669,-4.0494,8.1836,0.20427,8.1426,-1.4468,-4.2327,8.6726,
8.8037,-31.0104,1.5428,-1.0616,-5.4571,-24.3624,-1.6682,1.3189,2.5673,-3.0701,9.0519,-13.9403,-0.71749,4.8902,
22.3755,-24.024,14.9627,-2.3954,2.7911,-8.8007,0.76192,-0.15765,1.9474,-3.3517,4.3155,-8.9106,-0.20862,4.1309,
35.133,-9.071,5.2116,-1.7859,1.2253,-0.007827,-9.0687,-3.4098,3.2289,10.9494,9.1815,-5.1143,-6.2527,-7.7651,
47.125,-0.13929,6.7631,-4.4745,0.22009,-7.4623,-15.0479,9.8404,3.9668,11.5681,10.4948,-11.3307,-9.605,-7.2992,
58.3975,-0.59764,17.073,-9.331,-0.25894,0.9062,-9.0192,12.5117,5.1263,-3.226,11.2626,-13.9125,-2.9721,7.2387,
68.9937,4.0973,5.7979,-1.3162,-3.0392,7.3751,-7.5464,0.57856,-0.77295,0.35103,18.0418,-10.282,-2.7938,9.0117,
78.954,7.5794,-6.6636,1.5582,1.8027,0.40977,2.2251,5.2034,0.2064,7.7853,18.823,-15.2563,-3.5574,5.6757,
88.3168,8.5225,-3.9342,-0.86489,4.0241,-1.0127,2.5578,13.744,2.5236,-6.7818,10.705,-18.5337,-5.6744,5.8014,
87.2894,7.5449,-0.43697,-2.2109,-1.3427,6.9692,-11.6957,12.4531,-1.8216,-10.9122,3.0731,-5.7739,-9.5276,2.1912,
79.2566,5.2289,7.9767,-5.8057,-0.33053,4.6869,-16.93,19.1609,2.0152,3.8425,2.8887,8.6725,-3.3643,2.9914,
73.5696,4.9152,4.7023,-4.5248,-1.2423,-3.9809,-6.5951,17.0796,-4.629,15.6042,1.7838,9.8946,-9.6849,-4.6421,
83.2554,9.7448,0.22642,-6.5838,-7.2248,0.45081,-10.3932,9.9969,-12.2725,0.56798,0.27881,-4.212,-16.0933,-10.4215,
78.6041,11.0247,9.5315,-2.4609,-12.3825,3.22,-20.9515,13.125,-7.8082,-6.3334,-3.4649,7.2236,-7.6724,-0.47757,
67.3646,8.4991,18.2787,-2.3132,-2.3205,1.1626,-13.1711,13.27,-2.6806,-0.36178,-4.1896,17.0409,-2.5529,7.9386,
72.1756,3.7958,12.9887,-16.2744,11.9188,-1.2362,-2.5968,4.5522,-2.9856,-14.4401,2.1193,1.9185,-3.7981,0.47313,
70.6408,8.2276,6.6182,-8.1875,8.7514,-6.7532,-9.8955,4.2795,6.5122,-27.6737,4.7875,-12.2966,3.8852,-7.9423,
54.2879,5.8707,2.4936,0.69121,-3.8877,-17.5305,-23.4018,-2.5006,8.9173,-18.7801,6.3644,-25.6588,6.4479,-10.2616,
54.7581,-0.073646,7.0027,-4.9423,0.072565,-16.4791,-7.8981,-0.4868,4.6544,-3.5533,9.7096,-10.0193,1.4015,-4.9863,
60.325,-2.3983,-0.40659,-11.6349,-3.1934,-7.5696,1.4291,10.259,3.9093,2.5942,-3.4529,-3.5838,-1.9443,-13.5404,
62.2972,2.4047,-5.973,-13.7318,-5.7968,-2.4554,-12.7567,9.6434,11.1305,7.0986,-1.3824,-12.687,1.8999,-22.9779,
61.8205,6.4537,-1.4213,-4.9871,1.5402,-2.7748,-16.0628,-4.4476,2.5411,9.9343,3.8264,-2.1409,-0.54414,-22.9975,
67.8962,0.0098828,0.99399,-3.2904,7.5043,1.5859,-0.99902,6.5359,0.99113,16.3274,1.2668,12.0876,-0.044779,-16.4919,
73.1407,2.8042,-5.5889,-9.6163,4.2582,9.8773,-1.5276,20.1219,5.5908,12.5519,1.1908,16.3655,0.88955,-16.4349,
66.4231,14.2842,-1.992,-2.0493,9.1286,13.478,-14.0158,9.1297,-1.7338,1.0822,-2.1423,9.3261,-6.1529,-18.7104,
58.7098,10.6318,7.4462,-1.9268,22.6809,15.4647,-7.5836,3.9232,-5.3568,3.8126,-6.6733,16.2219,-7.6475,-16.6557,
60.7789,5.3347,3.272,-1.8112,24.9261,7.0827,-3.4012,12.0744,-4.1037,6.3797,-9.0679,1.2704,-8.1203,-20.3155,
71.2321,7.81,11.4627,6.6845,30.885,1.0657,0.53083,17.8728,1.7337,8.7923,2.6582,-12.9059,-1.1102,-20.9603,
63.5743,-3.3751,14.9682,-2.5698,26.7019,-5.0557,2.8281,3.288,3.0271,4.0715,5.7603,-11.5435,0.35386,-18.3052,
46.2484,-6.4343,-0.02988,-5.6764,10.9998,-5.2173,-1.5349,-0.17,5.1755,-2.2294,2.1531,-4.7934,-1.0648,-8.3536,
46.2693,-0.45658,-8.7587,0.25494,9.0642,-2.1093,3.2172,10.091,7.6608,1.6318,1.0922,-9.1658,-0.069306,4.2616,
49.5502,4.6962,1.5513,4.4334,21.1006,-7.1082,3.4896,9.0192,-0.72005,1.0677,-6.8945,-10.9454,-5.1905,7.268,
46.1109,4.8798,15.5582,2.7695,21.2325,-1.5563,4.6781,6.1485,-2.0748,-11.5767,-7.8787,-7.9591,-6.277,13.8206,
37.753,-0.071654,16.8321,-1.1246,21.8223,-0.53083,9.9886,11.3708,5.5051,-12.7458,0.981,-8.4136,-1.2408,10.196,
30.8283,0.86385,13.9584,5.4666,24.24,-14.599,7.5256,19.0747,0.51525,-5.4582,0.92258,-9.7726,-1.1668,-3.4628,
34.5702,-0.11963,14.9851,4.2061,20.9223,-13.6008,7.074,8.612,-2.3115,-12.5857,1.7989,-2.6629,-1.0959,0.47334,
33.4277,-1.0441,11.2902,5.8179,15.9395,1.3152,9.4445,-0.29219,2.4863,-19.2855,6.35,-6.2306,0.83312,6.9673,
17.322,-0.51563,8.2827,5.9346,15.4489,5.3069,4.6846,5.7828,0.93967,-13.0034,2.7074,-10.9826,1.249,-0.43981,
3.8242,-0.48469,13.3774,1.8511,15.4536,-6.1939,-2.1189,14.7549,-0.98089,0.82337,-0.25086,3.7764,3.9698,0.51911,
10.5838,-0.92187,1.8578,5.9337,5.6736,-11.8793,-5.2539,0.35769,1.4084,-9.0105,2.0946,-0.76485,-1.3937,0.95335,
13.6767,0.065526,-4.7757,3.714,-1.1897,-14.8935,1.5851,-11.7783,9.7109,-17.7886,9.4243,-14.819,2.4178,3.6924,
10.9924,0.061595,-2.6258,-5.828,-7.6407,-13.0674,-8.7608,-6.4116,6.3324,-5.5388,4.1989,-19.3992,0.40856,4.4025,
11.264,-3.6696,-3.4008,-3.615,-2.524,-8.5568,-16.6226,5.1546,0.36085,4.1117,3.9469,-4.1353,-8.9351,1.3425,
22.7027,-4.381,-1.3326,2.1936,7.8782,-8.0434,-1.5252,12.3003,8.7258,-9.1807,13.9609,-14.2597,0.92015,6.8536,
28.3296,-0.85698,-3.5822,1.5957,-6.6945,-8.0261,8.2299,4.5736,4.0094,-16.551,7.9978,-27.5041,3.1945,2.2487,
28.4931,2.9219,-6.1631,-8.7508,-6.6365,-1.0222,-4.3788,5.2308,-4.6186,-2.5114,-1.8011,-11.7539,-4.4521,-5.3412,
24.9203,3.6782,-0.20254,-3.5658,7.8617,-0.96084,-8.7752,19.017,2.1818,-6.0891,2.966,0.60002,0.47413,-1.2932,
14.1068,-6.7919,-0.18906,5.9668,-3.9137,-14.881,-6.385,29.8687,9.5062,-14.1099,5.5843,-13.536,8.8336,3.4439,
16.9874,-11.9765,-2.974,2.8134,-12.9984,-9.3286,-3.2065,14.0979,8.9354,-19.7861,3.3856,-19.1253,6.439,6.0327,
30.0682,0.85662,7.4548,1.7126,1.8815,0.54983,6.3046,3.0017,3.7406,-32.6989,-1.4771,-28.2281,2.3256,-0.85215,
42.3641,4.5327,19.1224,-3.981,15.8686,-13.5832,18.9729,-0.90586,-0.21128,-41.7981,-1.3885,-35.8526,3.1177,-8.256,
35.385,-9.8393,11.9172,-9.8,29.0165,-26.8682,9.9133,-5.0452,1.1984,-25.1902,1.956,-21.1221,3.3969,-3.5677,
27.2044,-15.65,10.7363,1.5046,41.3755,-38.0587,1.3977,-6.14,4.3882,-14.4819,4.1686,-13.7973,6.4538,2.7038,
26.9709,-17.9722,8.6951,-3.7102,46.327,-34.3772,1.7801,-13.6919,1.7953,-27.1249,0.65732,-27.0694,1.8738,-2.5838,
22.0906,-12.701,1.1838,-4.8864,45.8761,-31.8492,4.0029,-9.6092,2.1539,-12.9171,-0.78002,-18.8002,1.2951,-1.9634,
33.8113,-8.211,1.1124,-2.7295,37.5323,-29.0062,11.2172,4.9451,0.1609,-16.8017,-0.73367,-3.6944,4.0136,-1.8452,
45.295,2.0657,15.1456,7.2192,33.8829,-22.14,20.3291,18.1608,-0.31547,-13.4636,0.70871,10.0396,7.9661,-2.2003,
28.4773,1.9417,12.7176,8.6503,27.1908,-16.1525,5.0094,14.2754,-2.1598,1.4443,-4.9255,17.8238,-0.89932,-2.0683,
12.6687,-10.7551,7.7609,3.005,27.888,-7.263,-9.3912,7.3618,5.891,13.8152,1.4271,9.7657,0.55255,2.2487,
21.0045,-15.701,12.8864,12.1433,29.011,-10.5543,-0.66342,1.328,-2.8504,-1.1137,-0.52227,-4.9202,1.4515,-0.68162,
27.6654,-6.8377,9.7837,16.541,29.5999,-18.7738,1.7068,8.2379,-10.5997,0.47329,-4.6838,9.475,-0.96516,7.2805,
23.6759,0.5621,-0.58785,3.8999,31.086,-21.8403,-7.2484,4.4824,-2.9742,13.0252,-1.1415,23.0065,-1.3726,8.2416,
14.8005,0.52749,-14.6526,6.4617,32.9474,-19.5982,-2.1544,-7.9015,-1.8641,-1.8563,-2.9372,9.3899,1.5047,-6.2312,
13.4466,-0.90163,-27.8734,17.7222,34.2331,-17.9565,12.0749,0.49427,1.5094,0.70684,-0.431,1.8374,9.3351,-0.73147,
1.9228,-9.7004,-40.301,15.261,18.0791,-30.9791,6.569,-0.0016512,0.95259,13.2447,0.061125,12.4432,-1.9411,-0.2222,
6.9328,-10.5163,-46.37,12.9474,15.252,-32.726,-2.678,-4.1944,1.3617,18.5071,-0.40881,14.9587,-6.95,-7.1975,
20.6168,-5.6916,-41.2583,11.7052,19.4622,-25.6371,-1.1194,-1.6132,-0.11791,26.2495,-2.7138,8.9358,-1.4076,-7.2319,
18.7922,-0.69139,-37.8507,18.4574,12.7033,-25.031,3.6073,4.0739,1.7529,20.9466,-0.68727,7.4676,-1.3236,0.65646,
5.5498,-13.6956,-39.308,8.9625,3.5536,-25.3933,-0.33745,-2.6938,1.6477,5.5898,0.28561,6.087,-3.1084,2.4812,
9.4109,-12.408,-39.2786,13.5505,8.4662,-26.1988,-1.7147,-0.20217,-1.7128,6.7746,-1.129,9.916,2.2039,-3.7251,
21.892,2.4364,-35.0586,23.9199,17.2765,-23.6952,-0.68014,7.2649,-6.27,7.2997,-5.7213,1.8661,2.0717,3.9533,
28.0338,6.828,-31.0905,14.0977,20.8995,-8.1735,2.1569,13.3527,-2.1659,-0.59362,-1.6501,3.6178,7.5386,17.8161,
20.7606,3.623,-35.7479,10.4564,16.8501,-2.2132,-2.632,10.6878,-5.763,-7.0808,-0.61898,4.3329,4.2909,9.1713,
20.4466,8.0647,-28.9439,20.0798,22.3624,-14.1954,-0.60994,16.5698,-5.4172,-5.7244,2.214,-4.3146,1.2376,-5.4789,
23.8794,1.9896,-22.5486,18.8746,20.0886,-11.4799,1.2904,22.0985,-1.3651,8.7191,-0.71512,-0.32779,1.1638,1.4944,
14.9917,-7.4489,-25.8548,12.1514,9.565,-6.1311,-2.5145,9.5902,-1.2832,11.8021,-3.4671,11.8059,0.16146,3.2681,
8.9668,-5.604,-23.8372,14.6835,7.5932,-16.4803,-1.8983,3.8894,1.1233,-3.006,4.6612,3.1764,2.4813,-2.9851,
12.1567,-2.4724,-18.68,20.3262,9.933,-29.5915,1.0119,7.3831,1.0564,-16.2163,1.5861,-10.992,3.2645,-2.8055,
25.5273,4.6655,-16.1613,12.1171,15.394,-21.6367,7.9399,8.338,3.3225,-1.7314,-0.83858,1.3162,7.2624,1.5557,
38.0957,16.0338,-15.6574,11.8559,11.2088,-6.2385,0.47436,7.3719,-0.13846,-12.3441,-0.32244,-2.957,-0.16246,1.9282,
45.35,29.1718,-4.0014,25.2445,17.5253,1.4689,11.1625,12.0554,-2.4602,-23.2516,-1.7006,-16.8795,-3.4144,-4.2441,
55.6751,29.6292,-3.7618,10.0961,28.5883,-12.7192,20.743,0.14923,-4.1763,-17.197,-9.0539,-23.6653,-6.0049,-18.0895,
66.4346,41.9515,0.65723,9.9562,37.5896,-20.6871,16.2368,-6.8488,2.1318,-15.6993,-0.58992,-18.0521,-10.7704,-30.3943,
76.5485,53.5344,9.9369,11.223,36.2658,-11.0584,11.536,-2.7104,-0.79107,-28.8574,2.2413,-26.2872,-21.3057,-31.3664,
86.0556,64.4223,17.2619,11.015,41.0786,1.2529,18.7642,9.1,-3.0741,-17.2197,-3.0186,-10.61,-24.222,-31.8149,
94.9923,74.657,19.4874,13.6162,51.1942,8.1664,15.3088,6.2253,-9.8783,-18.516,-11.6903,-7.3002,-35.3481,-32.2347,
103.3927,84.2776,22.046,14.6629,62.2225,3.0177,12.5265,3.0555,-10.2177,-31.5051,-10.0568,-20.9622,-40.6826,-34.0285,
111.2892,93.3209,18.3933,18.9081,56.0387,2.3708,15.0366,7.998,-7.2746,-43.7148,-6.1917,-33.8045,-37.7749,-38.0434,
118.7118,101.8217,9.3689,15.4445,45.6873,14.8093,5.282,11.7114,-16.6231,-35.2562,-18.4001,-21.2814,-44.3617,-21.6608,
125.6891,109.8124,-2.8414,4.7329,42.4793,5.9991,0.77087,5.8838,-29.7257,-25.2201,-31.3961,-23.2662,-55.8,-6.2611,
132.2478,117.3236,-1.2735,13.3013,46.9197,1.4459,14.8246,12.519,-23.1612,-32.5593,-23.7998,-35.9702,-45.8069,-7.5274,
138.4129,124.3842,8.5879,5.515,52.9578,15.4591,19.405,10.3704,-18.509,-37.5949,-17.246,-31.826,-35.1377,-16.8607,
144.2081,121.2932,10.868,-3.2038,55.3715,20.4668,6.1262,-0.50215,-31.3772,-38.1354,-28.3257,-38.3035,-47.1295,-20.5086,
149.6556,114.4814,6.9543,3.9775,47.855,5.1388,-0.29882,-0.93784,-23.4371,-32.5857,-22.4329,-50.1053,-54.8961,-14.1522,
154.7763,102.0213,7.4691,-0.92067,30.8837,-5.7647,-7.7363,-4.6095,-15.508,-39.9492,-18.2915,-58.6259,-52.5344,-14.2352,
159.5897,97.7638,13.5438,1.9308,26.3576,1.1049,-10.0675,-5.265,-23.8962,-48.7342,-26.5127,-61.6312,-48.4502,-16.1765,
164.1143,104.9437,11.7995,11.1332,28.5036,1.9702,-6.6676,-1.2216,-19.6675,-47.6743,-23.0586,-55.1375,-46.4758,-18.0017,
158.9627,112.747,19.0127,24.5652,12.6934,12.569,-7.6655,12.9517,-8.7021,-32.2335,-12.8223,-44.8405,-45.0842,-15.5237,
159.6753,108.1913,27.1906,27.1637,1.337,18.3377,-10.0009,16.247,-17.4986,-26.5716,-16.7116,-41.218,-47.0387,-11.7969,
163.6067,89.1186,26.9562,11.4339,5.4496,19.567,-10.7988,2.6909,-20.6424,-34.7627,-18.0394,-36.4154,-47.4785,-19.0103,
167.3027,90.7606,23.0097,18.3241,0.93022,25.3821,-17.1399,11.3828,-6.8231,-37.8019,-2.857,-23.5139,-32.9807,-21.1304,
155.4003,81.5875,9.5151,12.5656,-13.2256,23.8592,-24.4981,19.0864,-5.4821,-27.1463,-1.409,-16.5114,-27.2744,-14.2718,
144.213,66.4424,2.4209,-2.2884,-16.9694,20.5643,-15.5733,7.6913,-17.2672,-11.4175,-15.4245,-8.0658,-39.7379,-9.688,
149.6603,55.4663,3.6736,-9.0188,-5.2351,20.7275,-14.1735,8.6269,-16.6974,-8.5256,-19.5026,6.5181,-45.1531,-10.5047,
154.0699,53.07,0.65734,-12.2052,-17.9676,24.143,-26.3688,22.0875,-1.5956,-6.1499,-6.2184,12.0614,-28.3439,-7.0786,
141.565,53.1474,-3.5754,-11.0062,-14.5595,34.3435,-26.185,23.0922,-4.8833,5.8673,-1.652,7.1453,-22.5717,-2.4606,
129.8094,40.1737,-2.895,-16.4033,0.41406,41.1353,-15.7606,19.3767,-18.6903,-3.3371,-8.542,1.5908,-29.1382,-2.7788,
121.0888,34.0362,-0.85761,-5.1679,4.4612,40.5309,-8.2922,32.3141,-16.9808,-17.2369,-4.3016,-4.0959,-16.207,-4.4758,
99.7235,17.894,-0.34033,7.7221,-5.5923,32.9732,-13.8521,39.1063,-1.862,-21.2063,10.0565,-15.4983,-5.4506,-4.673,
80.8157,2.7204,-1.7178,-4.3899,-6.6538,33.3253,-19.078,26.0429,10.2416,-6.4219,18.65,-12.2389,-6.5215,-2.9948,
77.3651,-11.5428,-4.8764,-9.2515,-9.5162,34.5874,-14.6717,19.3554,9.1613,8.0634,10.5419,2.5955,-3.8002,0.44658,
62.9378,-17.9398,-7.845,-12.8901,-14.0706,23.6593,-4.9385,23.3195,12.8053,21.6796,4.784,16.5397,-0.31096,-4.7056,
45.0616,-21.9888,-5.9764,-13.5146,-17.4201,23.6377,-8.8359,27.0457,19.0257,34.4788,13.3498,29.6473,-1.6902,0.70212,
34.5593,-26.2603,-7.482,-16.4312,-25.6931,26.8785,-22.4058,19.8313,11.3617,18.3101,12.5488,13.9908,-5.3154,13.7057,
39.9407,-32.1396,-4.2373,-16.377,-12.9691,23.4016,-15.348,13.9823,6.9517,20.2296,8.0684,27.2513,0.5943,17.5424,
23.4443,-44.3112,-12.8354,-19.5876,-13.5894,7.8975,-13.0288,0.56261,-3.2495,12.0267,-6.5157,38.0743,-12.9538,2.3899,
11.4433,-41.997,2.0347,-20.2761,-14.6377,14.535,-9.4517,6.1209,1.605,-2.7949,-5.5367,21.6899,-9.3812,-1.8246,
4.6992,-43.6705,13.4386,-23.2528,-6.7695,16.9246,-14.942,8.0828,-3.6171,-16.7272,-2.8754,6.2885,0.035001,-0.31762,
1.1556,-44.311,0.98408,-11.1411,-5.8975,8.92,-20.1021,11.792,-11.3208,-1.6236,-8.7594,5.2235,4.2262,-5.4235,
-0.3112,-36.5274,0.45922,-5.3477,-19.6436,14.4422,-15.6352,20.8685,-7.3799,12.5738,0.61854,15.6267,9.0976,9.0019,
-10.5437,-38.9962,2.2954,-3.1631,-31.8561,16.3711,-11.9017,14.0252,5.1765,4.8294,14.6814,0.58909,12.2796,16.2603,
-24.0111,-50.7564,-11.9423,-8.5641,-23.4214,5.1381,-9.3234,1.0697,18.9659,17.5871,16.4741,4.4034,18.9978,1.1847,
-36.6704,-61.8111,-25.3258,-20.1647,-36.1161,-9.2702,-22.864,-0.85825,22.3666,30.6319,9.8945,18.2392,13.1983,-6.2191,
-48.5702,-72.2024,-21.6989,-13.3641,-48.0492,-11.3876,-25.0974,4.784,17.2962,36.1258,14.8925,31.2449,12.4064,8.2541,
-54.1426,-80.0843,-17.1354,-12.0964,-40.7289,0.01223,-11.9434,9.6228,17.6568,19.8582,15.3964,17.4771,25.7621,21.8588,
-63.0085,-71.5514,-10.516,-9.5069,-33.6256,4.6711,-2.8397,19.2957,15.6653,11.7999,15.4047,19.2238,36.6749,9.5867,
-66.683,-57.9392,4.2149,-10.7998,-38.1305,-2.1325,-10.1243,14.4105,0.62541,11.0927,10.7529,30.1853,25.1561,15.5348,
-58.0224,-60.0549,6.6356,-7.3564,-33.0482,-5.7325,-9.5173,13.5454,-1.1541,-3.6728,-2.0067,25.5788,17.123,18.3297,
-49.882,-55.5191,2.51,5.199,-24.542,4.8622,5.1538,26.7109,13.0152,-3.3311,2.7728,22.1799,28.2106,21.8899,
-53.4123,-63.3703,-6.0272,-9.2129,-24.9328,2.7072,2.8595,11.0083,16.7716,10.9688,10.9939,27.3724,25.5854,16.8491,
-57.6625,-71.683,-13.1205,-22.7601,-25.301,-6.7743,-9.427,-3.7522,9.242,24.4106,10.3343,35.0492,17.5279,2.7916,
-64.4535,-61.7904,-16.0607,-12.7635,-24.7146,-9.1628,-10.7247,2.3081,8.6875,37.046,8.7817,24.5588,22.067,4.4882,
-74.6863,-55.7534,-15.5633,-9.6681,-22.7654,-4.4202,-10.5475,5.4317,2.1092,23.7409,14.3127,19.824,22.1409,13.0718,
-84.3051,-61.7269,-20.2207,-12.8151,-28.8549,-8.8145,-14.5742,-8.9942,-7.336,30.7034,10.6577,19.5667,10.5621,-1.8125,
-93.3468,-54.7621,-12.9505,-8.785,-21.0666,-5.0236,-2.9827,-2.2762,1.0254,33.055,3.9612,17.9264,21.5762,-11.3669,
-85.5161,-42.1581,1.9266,1.0604,-5.8243,8.3235,11.2962,10.907,10.2821,20.8209,6.5193,16.8508,34.3816,3.4151,
-94.4851,-53.7286,-5.2995,-3.1961,-18.9868,2.6987,10.9621,2.3314,19.4505,8.8555,14.0494,10.7144,29.8674,12.8729,
-102.916,-64.6049,-15.6981,-5.3343,-31.36,-3.5198,4.2478,-2.0018,32.3835,17.1766,27.3064,12.4015,31.337,11.6347,
-110.841,-60.0184,-17.0866,-8.2755,-24.353,-7.5023,-8.5883,-10.7346,32.1815,9.1564,32.0682,-2.4426,41.1045,15.1304,
-116.4051,-56.4173,-10.4698,-19.8939,-8.7919,-0.52888,-1.5497,-7.2947,32.1148,14.1987,27.3492,1.087,47.0257,21.6775,
-123.5208,-64.6804,-18.694,-22.8935,-19.1027,-10.2821,-4.7175,0.13213,35.3137,24.0634,17.7875,15.1218,32.5559,18.0468,
-109.9307,-59.8675,-20.3677,-7.4199,-31.9343,-18.9838,-9.094,-6.3986,19.0949,23.5516,10.1974,17.3548,22.2156,10.4412,
-89.2349,-47.8889,-7.0316,2.2221,-16.04,-16.9123,5.5516,-10.6747,3.8492,25.866,11.4488,22.8359,22.7468,1.4281,
-85.8654,-45.0151,-1.9502,3.9534,-19.7372,-8.443,0.43721,-4.4421,-4.5247,28.9736,1.4432,30.7853,13.9266,-4.2488,
-94.8135,-56.4142,-8.8223,-0.47794,-32.653,-5.6065,-13.689,-2.7782,8.3266,23.9735,-0.97337,26.6082,4.2386,7.6544,
-96.4592,-59.4313,-18.0783,0.94865,-32.4357,-9.4638,-23.9287,-1.2144,14.8157,21.1363,13.185,27.3412,18.0843,21.2951,
-90.6712,-54.0008,-17.9248,-1.9036,-20.2393,-6.1006,-12.2418,-7.6644,10.1997,11.482,12.738,20.1096,26.6615,6.3832,
-92.6854,-47.0337,-5.6674,-6.449,-17.1612,8.3654,-12.4394,-7.2041,19.838,13.5885,12.9058,4.803,26.9256,6.0007,
-101.2243,-46.5417,-10.4523,-1.8688,-21.2565,-5.7702,-15.8863,-13.761,20.9778,18.8306,14.4605,-9.5852,25.7758,10.7656,
-81.0508,-35.8276,2.7547,4.3008,-5.8811,-11.4815,-0.83314,-4.0829,20.1849,24.6899,19.6504,-6.9028,31.2184,6.858,
-62.0878,-27.6209,16.6894,-1.0826,1.8045,-6.5988,-3.7003,2.22,12.9168,9.1085,11.4827,-20.0006,22.3566,-4.2696,
-63.1438,-25.4978,23.0217,3.1757,-12.4038,-8.5329,-13.2632,-3.9707,13.5393,0.29676,9.3954,-26.7213,23.3444,0.17985,
-62.1506,-26.7633,11.3901,-2.6061,-14.799,-15.4754,-7.8079,-6.5278,12.7273,14.379,6.9688,-11.018,31.2632,-3.5589,
-63.0811,-21.4305,6.0471,-5.2451,-11.1156,-15.479,-12.9315,-12.6599,-2.015,23.6452,-3.7005,3.7431,16.3404,-15.4598,
-59.2962,-12.6889,8.4801,-0.27128,-12.312,-10.8228,-14.9505,-12.8319,0.90176,10.1124,3.9773,5.1382,15.3609,-5.2131,
-65.5234,-14.2575,4.7097,-8.1758,-13.9033,-19.0258,-15.451,-14.3911,3.1777,12.7673,5.1362,12.7507,17.7,-7.2294,
-75.692,-2.6859,5.825,-6.2873,-5.1479,-13.6914,-15.9218,-6.539,-0.2742,17.1267,-3.0932,18.0435,16.1726,-12.8536,
-76.6194,3.5322,13.3958,-1.7172,-3.4411,-2.1529,-10.7737,-2.8855,6.7309,4.4504,5.9452,2.8609,23.1226,0.49795,
-79.9439,-5.5325,11.1941,6.307,-17.3346,-16.1237,-9.661,-2.2461,15.179,6.5129,14.4414,-7.4397,14.7465,4.6618,
-89.2473,-12.1888,1.6701,-1.0605,-26.4231,-29.2563,-16.0704,-1.6455,9.1433,16.8387,6.5858,6.5191,6.8726,-4.4712,
-78.1786,-10.9925,1.1041,-9.8493,-10.7377,-13.4009,-17.4362,-13.195,1.6056,12.5668,1.0648,17.7762,17.1769,-4.6687,
-78.1479,-16.8554,1.9695,-4.5992,-24.1934,-22.2605,-10.7984,-13.3358,2.4409,17.4035,1.9334,20.437,9.623,1.203,
-87.559,-22.3678,2.7834,-3.3912,-34.3909,-35.0248,-7.3551,-3.217,10.6815,11.6998,5.5445,11.7554,8.1135,2.062,
-68.2054,-8.9117,11.9346,9.858,-18.2275,-18.8234,5.2002,-9.5464,19.3597,0.7479,15.4625,0.79937,21.7267,7.53,
-50.0131,-20.4906,12.1506,-1.9155,-3.0338,-21.4214,4.8887,-23.0736,4.0981,-0.22906,1.4887,-10.4305,9.1185,-7.0218,
-32.9123,-21.5912,21.2065,-11.5855,11.2482,-34.2361,15.3119,-21.1011,-0.21881,-0.68114,-2.7939,-6.5431,3.4464,-8.8083,
-25.1241,-10.9761,12.4787,-2.5033,24.6733,-26.9339,19.0528,-9.5848,-3.0019,-14.7403,2.9649,-11.7417,17.3396,-3.6202,
-24.0825,-14.5117,6.6051,2.7718,37.2929,-22.0562,18.3754,-8.5438,4.1673,-15.132,15.3677,-1.2531,30.3993,3.5861,
-36.7376,-27.741,7.1404,-7.6444,26.9911,-34.8329,9.818,-13.622,3.9172,-0.12407,10.7173,5.3453,18.5473,2.4384,
-48.6333,-26.4206,9.9736,-9.5157,14.655,-44.2702,4.1031,-13.2714,6.0113,5.8182,13.3359,1.763,24.4226,7.4179,
-38.4826,-20.1758,8.4431,-4.2861,8.1845,-36.0228,1.0615,-5.9522,14.9693,0.81042,18.127,6.3167,28.5485,11.6315,
-46.8898,-19.4307,0.016237,-0.76683,0.70478,-21.2802,9.8507,-8.8554,8.015,3.0913,4.4599,12.9273,12.7356,3.0133,
-43.1448,-8.9466,5.606,0.21082,12.7765,-5.9034,22.3053,-12.0524,-0.85336,1.9742,-1.3993,12.1508,-2.1286,7.4916,
-32.6353,-7.944,15.9862,9.9831,16.2032,3.1805,15.8421,-3.4085,0.59531,-12.2442,-1.7821,-2.6783,7.5623,10.3038,
-27.8814,-15.8539,18.7545,15.9074,11.5036,1.1264,11.1641,-0.40821,5.2196,-21.1727,4.849,-16.6176,11.7676,11.5497,
-36.4588,-24.2218,11.106,1.9064,8.9501,-3.6003,11.4259,-9.7019,11.4297,-5.8024,15.7405,-9.3195,5.4708,14.5842,
-44.9879,-23.2343,3.4509,0.39409,17.265,-9.4413,4.6833,-12.3819,18.6642,7.0043,16.1931,-7.3624,7.4721,-0.39087,
-37.1632,-23.2382,3.7097,7.3596,23.2191,-7.4774,3.9365,-4.6499,22.6702,0.52658,13.824,-5.5223,15.8762,-14.4674,
-37.7292,-23.7072,0.6913,2.2589,8.7794,-8.892,-1.8905,-1.5751,9.1959,6.0866,3.6764,6.9231,7.4687,-27.3336,
-42.4546,-16.2277,-1.6797,-3.002,4.0589,-5.0973,-3.175,-6.6059,1.6546,17.3701,-5.397,10.7014,2.8277,-18.7049,
-36.6457,-14.7882,-5.7722,-5.1519,5.2137,-5.2573,8.6638,-16.9262,8.5445,17.7254,-4.6074,8.661,7.783,-15.2526,
-30.7199,-19.4926,-10.0859,-2.047,-7.214,-15.1926,-2.1068,-30.0106,0.57687,6.4111,-9.9226,7.2097,-4.7989,-17.1333,
-20.4897,-16.4593,4.4979,-2.8562,6.2649,-7.7582,0.81497,-32.7477,-8.7764,4.1627,-13.0552,4.9134,0.14858,-17.0374,
-12.2712,-6.6189,6.5576,-8.7419,19.989,-1.2357,14.8661,-29.385,-10.5794,1.5834,-11.8056,-3.3026,14.2397,-23.9363,
-4.0796,6.8248,-2.2224,-9.149,24.7249,-0.22901,22.7052,-14.5753,-16.4679,5.2158,-16.688,8.0779,16.5256,-10.3852,
-3.8352,8.2791,0.70629,-14.1913,23.2419,8.1709,19.4791,-1.5863,-13.6161,8.6299,-14.7555,21.6932,9.0103,4.2157,
-13.8554,5.9181,0.66391,-11.4756,14.3924,11.409,4.2104,-15.5911,-2.5484,11.8405,-11.0744,23.9978,5.6748,-10.1373,
-7.8992,7.8926,2.9536,-6.5942,11.1985,12.1215,-10.1422,-15.9318,3.6615,14.3912,-9.9436,23.0233,13.2546,-7.0777,
0.9618,4.6237,3.7085,-5.2665,14.2545,5.803,4.2222,-3.793,-6.8085,-0.57224,-7.4833,7.6641,10.5956,7.447,
1.3699,11.3354,6.7476,9.1495,10.1375,-4.3293,15.6171,-4.0313,3.3841,-14.6379,7.0657,-6.8957,9.494,14.7996,
-7.5651,19.5081,8.6723,7.5466,3.4723,-1.7399,0.58011,-14.5064,16.6939,-7.9244,18.6345,-11.0198,12.1865,-0.18841,
-12.2366,26.2584,0.23124,-7.0061,3.7298,-1.1697,-13.5547,-17.8293,3.1115,-4.1873,4.9357,0.358,9.1253,-9.374,
2.5976,38.7829,-1.181,-4.5998,3.0401,-4.3612,-12.9632,-13.4979,1.5273,-4.4019,-8.8729,14.4365,6.2478,-1.8224,
12.5712,50.5559,-0.64342,1.7327,-11.2423,-10.1561,-12.6513,-18.7455,6.5606,-10.1953,-10.6696,18.1085,2.6113,5.276,
2.4982,52.8702,-0.60526,7.22,-24.6677,-21.6612,-14.6876,-20.4161,-4.0833,-23.6835,-2.575,2.922,-1.2724,-5.2909,
2.8137,56.6866,2.6923,6.3214,-19.2166,-21.7595,-7.7493,-14.9983,-3.3729,-26.334,7.3649,-11.3533,-6.3215,-13.8262,
10.5656,57.4796,1.1333,4.5438,-28.7793,-12.5331,-11.4776,-13.6317,8.4786,-14.9691,4.593,-24.7721,-12.9313,-10.6676,
12.7275,54.9625,1.0653,6.1353,-36.3721,2.3189,-8.9257,-6.2914,8.9015,-1.0252,2.4533,-14.5338,-12.1554,-10.9591,
8.7022,61.4488,3.3313,-3.0861,-21.6095,16.2797,-5.1285,3.871,-1.4175,3.2296,-0.023045,0.43818,-15.6194,-6.1083,
17.9646,71.8618,3.5968,-0.57048,-6.2129,10.3998,-10.8778,2.2408,0.99707,-9.5436,3.2395,10.5404,-13.2843,8.3582,
30.9867,81.6501,6.6427,-2.8663,-3.1665,1.8551,-6.0318,-11.9936,6.9947,-22.4834,12.8301,-4.192,1.6128,8.667,
34.1311,90.8511,12.767,-7.3538,-2.9761,7.335,6.4446,-11.6176,0.98383,-9.9524,12.9915,-18.0405,11.1787,-5.953,
17.9832,91.558,5.4785,-19.0266,-4.6617,-1.4926,1.3979,-1.6023,-12.1218,-0.96783,2.8938,-3.2017,1.1889,-10.1336,
11.9011,79.0754,5.6156,-17.4192,-5.7795,-1.8689,-1.9467,1.7555,-1.6095,-0.44394,12.5051,-5.3396,10.9025,-1.6048,
8.3916,76.1946,10.8699,-11.7145,-15.6835,12.2219,1.8971,-11.396,12.4648,-1.3494,20.1409,-14.3378,14.9079,-2.4397,
-0.032605,60.9064,3.2286,-25.1116,-19.8669,1.7037,5.9765,-14.9055,4.7287,2.9249,11.0117,-3.6926,-0.0866,-7.4192,
1.8322,55.3882,2.1028,-20.222,-9.3572,-10.513,7.4817,0.088804,-6.7379,3.6815,2.8956,-1.6074,-5.085,-6.9745,
2.6548,59.5199,12.2274,-5.0304,-6.9315,4.2178,6.1011,5.5529,1.1213,-7.7218,-1.0047,-11.7617,3.6067,4.6273,
-4.9603,51.2887,11.4937,-11.2519,-7.4482,18.0647,3.8709,-8.7585,8.509,-12.8502,-2.8086,-12.9201,1.5261,12.7362,
-3.7302,52.8714,8.9408,-0.32602,1.3862,13.9414,3.6395,-7.3013,-1.3198,-3.6917,0.15575,-17.7357,-5.0879,-2.0062,
10.5936,58.5515,22.5044,1.091,7.3605,12.6391,12.2736,4.785,-4.5022,1.6547,-1.2511,-5.955,2.2065,-6.0791,
5.1763,41.526,21.9631,-13.0745,-6.5936,-0.69997,6.4113,-4.3545,-6.5621,-12.5445,-13.7567,1.3914,-7.7108,-2.4527,
3.9345,39.9665,19.7141,-5.1787,-3.4026,1.2058,15.3462,-4.0937,2.2187,-13.068,1.1687,-6.1474,-8.1802,3.2857,
-3.7565,31.0461,15.7354,-8.5954,-3.1984,2.9976,19.0845,-9.4388,-6.301,-5.7606,8.4321,-14.1652,-3.9611,-10.8897,
-6.7932,28.7171,12.4618,-3.8859,-4.4044,0.48818,10.9508,-2.8155,-11.9809,6.2337,-6.1738,0.78476,-0.46221,-13.4975,
-17.568,22.3345,-1.3321,-7.3807,-13.4588,-8.8598,-3.8063,6.6721,-4.7383,2.1317,-15.4665,5.7408,-9.7531,-9.8923,
-6.7295,29.8477,5.737,-4.6079,1.4487,5.7718,1.6684,10.4651,5.33,-4.9853,-0.43853,-7.1835,0.61609,2.3495,
-3.9957,16.4078,1.1986,-8.5256,0.30748,9.9619,0.17082,-4.2628,-9.0898,-9.812,-3.3298,1.1683,0.1133,-3.849,
-14.4725,1.3233,-8.6574,-14.0706,-13.811,-4.7358,-4.9644,-14.1352,-1.8993,4.8767,-14.7782,13.678,-7.8143,-8.743,
-13.1388,6.9573,-5.8088,-4.374,-27.0823,0.33015,4.1859,0.81296,12.3146,18.6841,-2.2433,1.2091,-11.5387,-8.6842,
-8.1567,13.529,-4.9945,-1.7815,-17.2922,14.4103,1.6047,12.7564,-2.5242,3.4631,0.22038,-8.6483,-10.3805,-8.629,
-8.5985,8.0577,-5.626,-3.5384,-24.6412,27.6457,-7.8102,11.9906,-16.4728,-10.8447,-0.72405,3.0534,-6.9623,-4.3842,
-9.4805,8.973,-4.8222,-0.063986,-37.2627,39.7216,4.308,10.8058,-6.5093,-9.2615,-4.8734,4.2681,-10.7374,-7.3824,
-0.99139,10.7633,-3.1358,-3.3222,-22.7907,31.2813,17.5605,17.1461,7.9812,4.8062,-5.0473,0.75082,-8.6953,-9.269,
-15.0319,-2.4619,-12.7322,-7.3166,-23.7528,17.7558,2.4069,14.7194,-6.5977,13.3706,-11.734,3.967,-7.7082,-9.1791,
-28.23,-15.827,-14.2978,-9.2072,-33.9763,19.02,-11.8375,5.9151,-14.123,9.3072,-8.7004,2.331,-6.7794,-4.4346,
-23.9622,-19.0702,-7.3829,-4.461,-29.6077,18.345,1.6975,1.3673,0.82439,1.7601,0.67533,-2.9342,-2.1789,5.6159,
-24.8545,-27.711,-12.9974,-1.8643,-35.7525,3.1443,2.0606,-3.8405,8.1076,8.6427,-7.2868,3.2993,-7.174,2.949,
-32.6819,-33.5037,-13.1488,-11.0711,-35.4711,-3.9121,-12.163,-2.678,-4.4924,17.4428,-5.9175,2.1693,-5.8115,2.7725,
-26.9935,-22.1743,-14.224,-9.4743,-19.2428,10.4226,-19.6976,4.006,1.3679,5.2138,7.4841,-12.0609,5.7196,8.1978,
-28.1697,-26.4351,-21.7576,-13.5654,-3.9882,14.3351,-16.652,0.037686,5.0137,4.9015,-2.2845,-15.875,-1.1464,-0.6811,
-16.6941,-30.9056,-11.5988,-20.6722,10.3511,16.7366,-8.6638,5.1612,-0.41204,18.7074,-10.9998,-0.8225,-8.9984,-6.6977,
-2.181,-22.0626,-8.5734,-21.7614,8.4321,18.9936,-1.1553,16.5002,-14.4873,19.3269,-9.8736,13.3268,-6.1289,-6.7621,
-0.18638,-18.8751,-11.7869,-19.5245,19.109,16.9228,1.7103,12.714,-10.2355,4.0673,-2.7583,2.9655,2.6249,-1.6968,
-9.9592,-18.2084,-3.158,-4.2531,10.0417,17.3049,-5.3814,-2.1489,4.4786,-1.1804,-4.9219,6.9808,-6.385,-5.7883,
-6.5668,-14.321,0.75893,7.5286,-4.6608,12.5391,-5.9911,-3.2956,9.2139,-1.1095,-0.90004,5.6294,-15.321,-4.5094,
-6.6381,-15.7913,-0.68451,3.8156,-0.065602,9.4572,0.42629,5.7549,10.059,4.0824,11.7343,2.0305,-8.3438,3.6824,
-15.5589,-18.5708,1.2203,11.0421,-5.6529,4.2302,-7.0547,0.75009,10.3867,10.3603,11.9623,3.7724,-5.9794,-2.1297,
-12.2959,-21.6507,1.6129,12.7087,-18.8265,2.5781,-8.0297,-4.4207,13.9567,9.2729,7.9829,7.7393,-5.1557,-5.2636,
-13.8877,-24.545,0.11865,6.8212,-8.8441,4.7534,-6.1496,-10.2121,10.7902,2.659,4.2423,-4.3733,-2.5164,2.0413,
-23.771,-26.3335,3.3727,4.0815,4.2669,4.9344,-8.1102,-6.3381,5.9491,-3.5575,0.72657,-18.2109,-1.8991,-3.2065,
-18.151,-25.2197,8.2957,5.2354,7.2729,6.9679,0.29763,8.1421,13.5133,-1.9462,5.8083,-22.5872,7.0676,-5.3437,
-8.2095,-17.6495,-0.1232,18.4332,11.0294,5.1519,3.541,14.0551,16.8954,0.50016,11.5169,-7.132,12.7006,9.0769,
-11.9102,-17.988,-10.8324,21.5205,8.0381,-4.9412,-0.86478,11.8143,7.9609,-3.7231,9.4284,-3.0988,7.7453,17.7292,
-18.1847,-15.5108,-1.3296,24.4221,-3.1608,-6.0435,-5.9383,19.0258,7.9495,-11.421,5.6006,-17.0129,-2.5039,3.1526,
-21.7528,-8.0569,4.3418,33.2076,-10.4261,4.5707,-7.4453,10.4302,9.3367,-13.5306,6.1962,-22.859,-6.0812,-5.4231,
-20.4476,-7.5735,1.2855,30.2835,-6.073,6.1598,1.388,-2.3105,6.9123,-10.8555,12.3477,-11.2376,-7.5805,-2.3019,
-16.4254,-6.1874,8.6633,32.1939,-6.6407,-3.5289,1.3047,5.283,8.3609,-8.3409,16.266,-19.8815,-11.7847,1.5637,
-15.9057,-12.8057,13.2689,26.0686,-9.5035,-12.17,-9.4906,6.364,11.1213,-6.4425,13.8921,-31.269,-9.6797,0.071929,
-14.4851,-21.8219,4.5515,16.5841,-0.080001,-11.9052,-7.5232,-0.074902,1.6012,-3.7255,8.8657,-15.2928,-3.9736,-5.0578,
-8.9568,-22.3759,-3.1765,15.5891,1.7881,-0.0085066,-7.0718,4.5887,-5.0182,10.598,-1.917,-0.27525,-5.5993,-5.6859,
-14.9427,-22.8975,-10.4408,5.3346,-7.6379,6.5153,-20.7475,6.1776,9.3829,19.1586,0.062227,-0.96857,-3.3992,3.0418,
-18.239,-21.0569,-14.9393,8.2762,6.9204,2.8627,-17.0504,7.2044,19.4147,3.9091,14.1585,-15.0105,10.3171,9.8493,
-10.1564,-25.8514,-10.7817,8.2459,20.6052,2.2247,-1.9274,9.1017,4.1499,-10.4255,14.1184,-18.6476,12.9593,5.0637,
-17.4678,-29.4253,-14.3281,-4.8296,19.5911,6.2845,6.453,7.1581,-10.1991,4.3,-0.8287,-4.0163,1.4652,-5.9558,
-26.2042,-18.8069,-19.5255,-0.3461,4.3157,12.897,-3.7186,6.2623,-12.6053,-1.4269,-5.3159,-6.1049,-0.020644,-2.3373,
-17.6429,-18.1443,-15.0923,6.6638,4.1781,2.3382,1.6294,5.4208,1.6635,-11.1263,2.9238,-4.3412,2.3106,4.7921,
-5.4019,-17.9877,-9.5281,15.5826,11.3828,-4.3249,12.7136,13.4826,0.63155,-4.8675,2.748,-5.9444,8.6948,11.0274,
-9.2711,-22.9655,-4.7627,3.9315,2.7786,3.8549,6.8263,14.0715,-8.2592,-14.3599,-1.6098,-11.6448,8.6394,1.5129,
-1.7261,-19.258,4.3759,2.2977,9.6014,5.0215,9.6779,9.9651,6.3364,-8.3729,4.5439,3.1539,7.6548,-0.90741,
-8.1454,-19.0342,-8.0007,4.9548,0.63788,-9.3798,0.71067,1.9123,3.5049,-8.8031,-5.9795,14.4916,-3.0553,-1.7846,
-7.6562,-16.0284,-0.99778,4.6579,-3.1274,2.4876,-1.1957,11.1171,0.49918,-17.5927,-0.029561,-0.47794,8.3109,6.7095,
0.72344,-15.5334,6.0512,-1.679,-2.4739,14.9182,-6.2498,4.3926,-3.7249,-17.9355,-14.1278,-6.3845,-2.9044,-7.2055,
14.78,-0.50139,15.4726,7.2746,11.7745,5.1712,8.2252,16.7094,-4.8985,-2.7594,-17.8179,8.0986,-6.9238,-0.71613,
27.9932,-1.0585,9.8851,5.9065,21.6624,0.20181,10.872,19.4343,-18.5828,3.3414,-12.0888,8.8888,-6.5084,3.9868,
19.5468,-7.052,4.1667,7.8816,13.374,8.11,-3.8803,4.1682,-20.729,11.9938,-16.4889,15.3441,-7.5158,-5.1052,
8.1232,-15.948,-2.6066,3.6813,6.9799,-0.76316,-12.3786,-2.9496,-12.9629,4.7509,-13.6362,16.2868,-5.2007,-3.8673,
5.3067,-17.3207,2.6751,9.5174,-0.42758,-7.7069,0.012814,10.7402,-2.3997,-7.1819,1.2819,1.2096,7.6917,9.8767,
8.2495,-20.4751,6.7084,11.2759,1.9276,-1.1875,7.0007,7.7653,1.0055,-3.4898,-1.7126,2.1913,3.0364,-1.4329,
3.095,-19.2471,-3.0137,5.9398,8.3348,2.6117,7.5119,-4.8151,-1.8511,-2.3492,-6.2694,15.106,1.9222,-5.0739,
-7.8068,-12.9664,1.3613,17.2325,1.7777,0.12497,6.5962,0.59964,5.2499,-14.7881,8.2068,7.2105,15.9068,9.3305,
-5.941,-17.3138,3.6092,7.3457,-4.386,4.3112,4.8025,1.0299,6.332,-18.0937,6.6614,-7.3221,8.3078,0.26186,
4.6662,-4.1605,-2.1986,3.1771,3.3321,18.1525,10.1056,6.5593,-0.5708,-2.9081,-2.1253,-6.2952,-0.57769,-13.8538,
0.65881,5.4078,-8.5895,12.3051,1.2685,19.7374,9.4988,15.4844,-2.4003,-5.6512,0.79758,-8.7129,5.9798,-19.4241,
-12.4268,-9.0167,-14.5974,5.9761,-9.0584,6.4382,0.5423,9.8963,-3.1879,-2.5172,-1.1136,2.0607,4.6894,-8.0079,
-11.6808,-19.5359,-9.062,2.8221,-6.6503,10.7115,-5.0814,-0.016182,-13.247,11.7338,-12.2296,16.037,-8.6381,-14.0503,
3.1201,-11.375,2.1978,5.914,-4.8542,17.99,0.34883,5.1093,-9.1909,9.5106,-8.2346,12.623,-6.7219,-17.401,
17.0328,-7.4304,-0.26359,11.6162,-14.3475,9.9211,2.6575,8.9965,1.145,-5.1601,3.9081,-2.2344,5.3301,-6.5725,
12.039,-12.5763,-7.7027,9.055,-0.44094,13.0533,-0.29781,1.9334,-8.2428,-7.0582,-3.7813,5.0101,3.1461,-0.58647,
16.442,-9.4921,2.5439,-2.2044,13.6855,24.8504,4.8454,6.9428,-15.6685,4.0814,-10.5431,18.8095,0.62776,-4.745,
20.1146,-7.0589,3.3234,3.5191,-1.2356,14.9723,-5.6956,8.3899,-8.2056,-10.2635,-7.1151,3.581,-1.2736,-10.9832,
19.374,-12.6924,2.6577,15.8882,-15.2615,8.9495,-13.2751,6.4886,6.3868,-21.1741,7.4118,-4.0884,8.5873,1.3245,
6.5629,-17.0566,1.1008,17.2649,-23.0764,2.3551,-11.0811,1.906,10.5413,-5.8037,10.5723,3.146,10.402,-5.7441,
-5.4787,-10.9074,5.228,15.7632,-18.4297,-4.7753,-9.9495,-3.3333,9.443,8.6445,3.8814,-2.1677,4.653,-19.4994,
-4.2187,-15.8446,8.6418,2.7025,-23.8477,-8.2163,-17.74,-7.7933,9.8081,18.1331,3.6476,-5.766,3.4413,-14.946,
10.1344,-10.2339,8.1233,3.4729,-15.8931,0.66326,-15.7435,3.8576,5.4921,6.7943,5.2929,-3.5558,6.9623,-5.6627,
20.1216,-5.4266,4.3743,4.662,-18.2011,2.0218,-16.1964,2.2278,1.901,0.33008,7.3054,-17.4425,4.2154,-13.2437,
10.9926,-7.431,11.1009,1.1206,-19.4391,3.298,-20.3504,-6.7592,0.38855,-12.2705,4.5371,-28.3886,-5.8224,-11.9833,
18.7201,-1.394,9.5028,-0.81036,-8.9541,4.0322,-19.1294,3.8976,-10.8167,-6.8747,-7.8497,-18.2979,-11.9959,-0.081417,
31.6969,6.1442,2.4098,-1.6938,-5.6214,-0.8693,-19.8458,8.3224,-15.7589,7.6378,-13.9015,-3.1,-11.2766,4.5821,
32.4695,7.6406,2.2652,2.1362,-14.6024,5.7061,-25.1775,-5.2218,-14.8134,15.4448,-14.9307,11.186,-14.3275,2.4439,
37.5096,8.5787,2.5951,-3.1178,-10.465,18.8753,-23.2014,-8.171,-14.3904,6.5964,-11.7058,20.9874,-13.9337,0.89893,
45.9756,7.5982,2.9052,-4.3291,-0.98429,19.1411,-12.9565,-1.6233,-7.4704,8.5306,-9.606,5.6282,-7.0411,0.37917,
32.9663,3.4157,1.7993,5.2497,-1.8569,11.4694,-9.3828,0.33832,-9.8171,5.223,-12.7562,-8.8095,-4.7544,4.0848,
17.4759,-0.98341,0.29294,1.6731,-5.9392,7.5196,-17.6732,2.6471,-11.5581,-6.7395,-1.2751,5.8191,-4.935,6.1688,
21.0874,1.8714,2.1395,8.096,-5.5828,-3.1824,-24.0677,1.5567,3.1136,-13.7892,12.9014,4.6601,-5.5705,1.1396,
24.0154,4.0891,4.3412,21.7102,-2.9179,-9.048,-18.4299,-12.6367,9.9159,-13.4276,12.4713,-9.7196,-2.9072,0.60536,
21.1766,3.3775,2.6828,13.763,-7.8682,4.0752,-15.9262,-25.9785,-4.779,-19.6115,6.5986,-23.2364,-5.0623,0.10278,
23.1681,12.0277,3.9197,11.5393,-5.0665,17.9307,-17.3006,-24.6421,-0.64305,-16.1053,12.2597,-22.9961,-6.1565,-1.3013,
20.3801,9.9081,0.42246,7.5849,0.36283,19.528,-12.0693,-12.4474,13.4955,-1.039,16.6495,-7.5163,-5.3208,2.0389,
19.6227,-1.4025,-7.5232,-1.7231,-13.7589,13.2318,-22.0613,-25.2125,6.9724,13.1234,2.1377,7.0346,-10.127,-3.2088,
32.5453,6.1362,7.0282,3.9715,-12.3458,15.2333,-15.1468,-29.291,-7.4237,4.637,2.0099,4.5044,-4.8598,-1.1526,
26.2775,4.3701,16.2688,-5.1196,2.495,1.739,-0.13804,-24.2714,-12.1037,-9.1531,8.8779,-9.8659,-3.1703,1.2461,
13.9843,-2.8812,3.6444,-9.0057,16.4453,0.23629,9.0671,-24.2135,-11.8433,2.1126,6.9478,4.8261,-6.2417,1.6372,
12.6794,-4.1058,-0.76753,-1.4763,10.09,12.8029,1.534,-33.4773,1.4472,9.9066,-0.45819,12.4577,-0.74228,7.5964,
8.1907,-6.6549,-1.6536,0.47604,2.0293,5.511,-6.9446,-43.5831,1.3608,-4.7878,-6.0219,-2.3898,8.6209,9.0044,
10.4951,-8.1197,0.30982,-9.8033,14.0216,4.2487,1.8586,-35.3765,-8.04,-14.629,-6.5922,-7.7158,13.6953,3.8041,
21.0474,-6.7005,5.8815,-13.8746,27.2803,16.1082,15.8471,-21.1394,-2.898,-5.3643,-5.2655,2.9975,12.8731,5.4396,
18.3875,-8.628,1.3358,-2.3251,22.26,3.4931,17.1041,-25.929,2.4012,-15.7594,-4.4833,-11.2824,6.0437,8.3753,
23.808,-6.2466,-0.60808,2.4739,15.3337,1.4206,6.7596,-18.7811,11.5767,-17.6088,8.8327,-24.7054,14.0681,19.0556,
21.4465,-6.8039,-8.9586,-6.9932,6.0266,8.7899,-0.16927,-15.7905,1.5626,-3.5066,2.7107,-9.1231,10.4287,13.2527,
10.3757,-6.8615,-15.4102,-6.1078,-1.3241,5.9325,-0.62538,-20.9006,-3.6561,10.8038,-2.5769,5.5243,0.018018,6.4001,
14.8781,-6.9156,-9.3598,-2.4797,4.8124,6.0424,-1.0537,-21.044,7.2798,16.5571,6.4301,5.6591,-0.44889,14.8685,
19.5766,-1.8411,0.52048,2.3287,9.1832,5.6803,-1.9221,-17.9176,8.7068,1.4637,7.908,-8.7805,-4.1499,14.9085,
16.5378,-4.5265,-3.2391,-2.471,5.8364,-3.048,2.8523,-12.1835,5.3885,-9.6852,4.6377,-21.178,-2.0376,7.4907,
12.2848,-8.4482,-5.3739,0.0072205,17.1344,1.329,9.6703,-7.2592,6.4627,4.9959,3.8936,-7.3265,5.0747,9.3712,
1.7628,-0.95217,-0.85815,6.0643,30.2064,11.0342,4.8968,-16.6077,-2.7775,0.84777,-3.3282,-6.4211,-1.2873,4.6157,
0.72492,4.6962,7.5804,-4.5508,42.494,17.8267,8.33,-23.0666,-11.9295,-13.3031,-10.5839,-6.0363,-10.5287,-6.8441,
3.4772,6.2777,10.853,-0.55029,50.4178,24.212,21.9302,-9.5685,-11.2137,-8.6561,-9.0172,-3.81,-6.1695,-8.2967,
-10.7092,-5.2809,4.6106,-2.381,47.3923,12.509,6.5144,-15.5173,-9.6088,-15.5912,-8.4757,-15.6958,-3.004,-7.7994,
-10.0675,-13.3515,0.60652,-5.9656,39.8887,2.4393,-7.9765,-25.7695,-7.169,-11.8608,-7.0364,-10.095,-2.8237,-4.5356,
4.6365,-12.55,-1.2936,-4.6756,34.7009,14.4075,-11.1031,-23.2904,-5.8068,2.9508,-5.6813,4.6107,-1.7222,0.39609,
9.8287,-14.5928,4.3757,-13.7142,40.0738,18.2021,-6.7095,-20.0297,-1.7309,12.9023,-1.6129,15.3951,3.0402,4.0998,
1.784,-13.7173,7.8406,-11.0271,36.7377,3.01,-5.3748,-19.7595,-2.5587,-1.9718,-7.1078,0.37142,-1.8013,-1.737,
15.777,-4.5076,5.506,-0.11475,30.8051,2.0195,9.0477,-7.3916,-6.1335,-7.3225,-8.5455,-13.7509,-4.489,-3.4969,
19.8335,-5.6347,1.914,-8.0286,26.6277,13.5466,6.9847,4.7002,-9.9588,7.2169,-8.4986,-4.7615,-4.6855,-2.8213,
7.9265,-6.6945,5.9929,-4.2857,32.9503,14.1317,-0.42306,4.8844,-9.8266,-7.3162,-10.3182,-0.28207,-4.8707,-2.1866,
10.2467,-7.2245,6.5649,-0.30109,37.4966,18.8745,10.7847,-7.5236,-8.3054,-15.2642,-10.6308,-4.9251,-2.7142,-0.19125,
8.2344,-10.0526,-0.81807,-1.6805,27.3261,16.3446,2.2169,-16.8562,-8.2729,-11.0867,-7.6629,-10.6862,-0.22139,-1.5772,
3.0813,-11.3128,8.5501,3.0794,17.2999,1.2639,-11.8944,-10.2541,3.4059,-4.8299,2.1151,-5.3859,-4.8681,6.904,
5.6918,-8.7703,19.2191,4.7584,15.3298,-11.7354,-0.92994,-1.2518,12.5202,9.5599,7.5794,9.0372,-7.3714,14.8768,
13.7368,-4.5175,8.7477,-0.1862,20.0008,3.0688,0.057503,-5.8358,-2.331,6.0683,-4.9894,7.4411,-6.9291,0.0059289,
27.0126,6.4706,13.3482,-5.3004,32.9008,16.9846,6.1115,-3.1561,-14.6497,-8.3958,-13.5429,-7.1053,3.2711,-7.9156,
39.4919,20.1824,21.8655,-10.574,45.0267,30.0655,15.9956,4.4882,-18.4298,-7.304,-19.2536,5.0914,-1.5843,-4.6449,
42.4695,32.3616,18.2241,-9.4733,28.2251,29.7587,0.93584,12.1392,-13.1312,7.2342,-15.7689,11.7746,-15.5892,-1.105,
47.3767,38.8069,21.7902,5.1951,12.4316,29.8378,-13.2203,13.2755,-5.8196,13.6675,-6.4357,-3.0319,-14.9979,-4.7657,
54.7849,43.9334,27.9377,18.9834,3.2996,24.3192,-4.2628,11.5464,-5.4704,10.9833,-6.0496,-13.9101,-0.11979,-5.4114,
37.3978,27.1974,12.1614,15.2713,-10.9984,8.76,2.9821,7.5929,-5.608,10.791,-8.0157,-11.6772,-6.1701,-2.7576,
21.0539,11.4656,-2.6683,7.3654,-24.4385,-4.6891,-11.2968,-0.7839,0.78549,-3.3693,-3.3419,-19.8294,-17.4485,-7.7175,
14.4426,2.6346,9.8494,6.9231,-19.0012,-8.1356,-19.3501,-5.3964,0.73792,-9.69,-3.141,-9.321,-7.0821,-5.3907,
18.7019,2.9424,20.9076,3.2469,-3.7611,4.9333,-4.0891,-2.7426,-4.4313,3.4722,-8.0774,5.3383,2.1953,4.7176,
7.7953,-0.49537,7.0728,8.1775,1.0023,2.3077,3.4894,-3.0443,-9.2908,17.3638,-14.5823,13.2832,-11.4484,4.9008,
16.6458,-2.3298,11.3076,4.891,3.738,-4.354,0.48513,0.86578,-5.9375,6.4148,-8.1158,2.2355,-5.1699,6.4701,
13.3175,-8.2471,10.1637,-2.392,-2.5442,-9.2182,10.2405,-0.58407,-10.7066,-8.07,-3.436,-11.9986,0.26482,-1.8384,
0.86977,-7.286,-4.5461,11.8515,-14.9718,-1.6764,10.0915,3.6447,-9.5989,-10.2599,4.6914,-25.3787,2.5785,-2.1944,
1.2839,-10.1109,-14.4023,6.3595,-17.3347,1.6854,-4.614,2.9598,-4.8292,4.4557,3.012,-9.756,2.89,1.1985,
5.4001,-7.1742,-11.2082,-0.079503,-15.8288,-3.5407,-18.4372,-3.2744,2.4497,18.2884,-3.2262,4.9294,-5.2041,-3.9984,
-2.8447,-5.3463,-11.934,5.9827,-25.5957,-7.5215,-19.4165,-4.4763,2.7685,31.2911,-3.4984,18.7336,-11.881,-8.8834,
1.0535,-5.9572,-11.218,19.7238,-17.5366,2.2489,-8.9329,5.1114,3.5349,15.3136,0.43893,10.4983,-1.849,1.8995,
0.99028,-9.3272,-10.5449,27.7368,-11.8253,-5.341,-12.1243,4.8047,13.5727,0.29478,6.9359,-4.2316,0.12522,0.85386,
-12.1157,-8.7676,-3.3898,28.8684,-25.2158,-19.1205,-11.3973,1.7206,26.8583,8.0765,20.6197,-11.3109,0.1177,0.80262,
-25.4888,-12.9011,-3.186,33.6591,-37.8029,-29.0344,-14.441,-3.9738,26.0563,19.7055,28.5785,-0.38193,-0.82145,3.5498,
-10.7911,-13.9908,2.5964,37.2308,-25.9725,-19.8378,-2.3921,0.92415,22.63,4.4232,25.9326,-6.8819,1.0916,9.8597,
1.5046,-19.2088,-4.5485,22.4171,-11.8338,-24.7041,-5.5098,0.40288,18.9422,-9.9422,12.7285,-17.1855,-9.6905,3.2115,
2.3469,-11.533,-1.4798,22.0037,0.99116,-9.1219,-7.975,8.7653,11.2824,-0.24838,3.5773,-10.5627,-3.5174,-2.5728,
3.6035,-16.8984,0.939,12.7627,4.1924,2.0202,0.42424,7.7735,-3.4945,-14.3335,-7.3539,-19.7139,6.4777,-8.475,
0.59192,-23.339,-4.7085,9.2016,-10.1591,-12.201,5.0592,3.5801,-7.3559,-21.272,-4.1164,-19.4627,2.362,1.3522,
-4.1036,-20.0745,-10.9493,6.7853,-21.5414,-10.4151,-6.4276,12.6835,7.1854,-5.8957,10.2306,-4.195,-2.4388,15.371,
-9.914,-21.2,-22.8722,1.2533,-23.5101,-4.6652,-20.142,14.2525,1.5076,8.5581,7.1649,10.1567,-0.89505,12.9295,
-6.99,-10.144,-13.58,13.7579,-19.7704,-4.8511,-4.8334,13.8623,-5.5729,13.3918,1.6092,21.4174,3.3519,3.3005,
-12.6276,-15.5915,-14.1622,3.148,-20.9137,-11.5487,9.5566,6.0419,4.5469,18.6453,1.9789,16.8711,-2.9062,5.432,
-10.0058,-14.656,-18.9033,0.16415,-5.5589,-6.1967,5.6002,14.0668,8.0015,7.2758,2.7927,1.8806,7.5189,11.6294,
-8.9392,-14.2429,-8.9171,1.5513,8.8746,0.23213,3.8663,23.0073,-5.0589,-7.2607,-5.296,-11.7442,12.1932,2.0788,
-13.5291,-20.3779,-6.9842,1.9245,8.0982,1.6161,6.8955,12.774,-2.4258,-4.8391,-2.6487,1.5408,6.3362,-2.2397,
-17.8423,-26.1443,-20.6651,-3.3168,-0.30848,-9.1983,-2.3715,3.1543,-3.6786,9.5512,-3.8881,14.0282,-1.0331,1.1563,
-8.3843,-16.1882,-15.1093,-7.7769,11.825,-3.9864,-2.2283,17.0651,-0.66116,3.7305,-0.85815,10.3916,9.2797,3.8828,
4.6986,-3.5687,-0.1027,5.2705,18.1046,10.3528,11.4173,28.5001,6.3676,-0.68658,8.9774,8.3697,15.712,-10.4502,
5.8142,-15.0028,-10.4691,9.1475,9.0967,16.1331,21.4493,15.1419,-1.9361,12.867,1.4496,13.925,6.8485,-23.9232,
-0.12541,-21.5575,-8.9093,0.21122,2.9601,1.0651,11.7749,12.3692,-4.6157,22.3457,-6.0923,22.4077,3.6418,-11.9935,
-6.1754,-15.1392,1.4093,-7.7222,1.3841,-13.0988,-3.0316,17.6845,-4.8046,13.0834,2.194,7.5509,-0.77001,-13.6039,
6.3092,-10.5033,2.2573,-10.0547,15.4011,1.4431,-5.0575,11.9634,-3.5847,2.0485,9.5173,-2.2204,3.0037,-15.5835,
10.1248,-14.9981,-1.1398,-5.2572,22.276,9.2773,0.37133,2.3932,-9.4262,-12.1744,-5.1537,-1.6213,-0.43821,-0.54845,
9.9832,-10.8366,4.0535,-1.681,17.6778,-1.9959,-0.11677,16.3496,-7.4632,-18.7771,-10.3135,-2.9215,0.053907,13.5845,
9.3842,-4.5956,2.8787,-15.6802,13.8222,-0.012011,9.2085,24.0993,-7.947,-7.3997,-8.763,-3.6788,-4.6084,8.7984,
10.2186,5.4651,2.2401,-2.9685,19.9811,14.0887,16.5767,17.5284,-7.0044,4.6925,-9.6347,10.642,-2.0028,-3.3778,
5.4117,-1.8524,-0.22383,6.0625,4.6822,-0.85661,3.9343,8.5555,-3.3229,8.6038,-5.7954,20.1329,-3.2806,2.8819,
12.5424,-6.4008,4.4483,-0.82501,-9.6987,-14.9052,9.2895,13.6334,-6.8506,4.3605,-7.3114,10.537,-17.1837,0.84527,
25.8899,3.7682,12.1021,-2.173,-13.5323,0.089097,14.7887,26.9154,-5.042,-7.5502,-8.2702,-4.1952,-20.2238,-2.4671,
31.6692,-7.174,-2.136,-14.6229,1.3796,8.4699,-0.19865,21.4507,-5.2049,-17.8133,-7.3086,-18.0435,-4.9103,-2.7844,
21.3825,-8.6078,-2.0078,-9.0864,2.573,-6.1383,-8.9173,10.8455,-4.8926,-3.698,-5.9376,-3.6703,-10.7954,-0.75408,
30.8165,3.5574,10.693,0.31161,-11.6814,-1.4545,1.4026,13.456,-3.2011,1.6493,-6.9792,10.6499,-22.7271,-2.1067,
14.8675,1.4802,2.5969,-12.7532,-25.0805,-2.2993,-12.7815,26.7486,-3.9412,-12.5497,-6.5609,3.8316,-12.9773,-0.11661,
22.9492,6.5163,11.2935,-13.3855,-32.6504,-11.0138,-10.4949,39.2437,-6.9663,-16.8003,-2.9056,-10.4983,-3.3454,-0.57544,
35.6723,13.5807,24.7159,-2.3321,-16.5913,3.7471,4.2347,24.9973,-5.6163,-5.542,0.064089,0.038796,5.2423,-1.473,
19.4319,2.9814,16.122,-4.5217,-1.4959,11.3212,18.0807,9.3974,-4.8139,-4.7432,-2.2693,14.1365,2.5982,-1.85,
4.166,1.8708,18.8822,-13.5686,-15.5061,-3.4581,2.8958,22.9336,3.8624,-7.2544,5.3218,9.9044,-10.6042,5.7159,
-1.5529,9.6793,24.7384,-2.0379,-28.6757,-17.3506,-11.3779,35.6576,6.8923,3.8974,7.3325,-1.4064,-16.9571,6.7704,
-7.5168,-3.4826,9.1541,6.0047,-41.0552,-27.2488,-24.7952,25.4747,-2.375,12.5164,-4.7561,2.8708,-16.4059,-3.4203,
6.9116,-1.4095,-5.4952,-4.6064,-24.4919,-19.0906,-18.0608,27.6737,3.3592,-2.3346,-1.675,-0.09638,-5.1708,-3.2151,
20.5969,12.7751,8.9345,7.3182,-8.9224,-32.0452,-31.0772,40.1133,9.2151,-15.5851,7.2779,-14.1906,-12.7813,-10.9429,
33.4611,14.2164,22.4985,20.9791,-22.487,-44.2225,-43.3125,51.8065,20.7767,-0.54999,18.9558,-12.7511,-12.9465,-6.5593,
45.5534,-0.73662,14.6257,17.7353,-7.0378,-55.6691,-38.1398,55.4436,17.6663,4.9529,18.7505,-13.8498,0.87639,0.35798,
56.9202,-3.8314,-0.35184,12.4775,7.4845,-66.429,-21.7514,65.629,2.5063,-9.4443,3.5255,-27.1188,5.0175,-13.7635,
67.605,4.3192,13.7693,24.3087,3.0639,-48.3432,-28.0235,75.7912,16.456,-15.2791,17.4139,-11.3917,11.7056,-2.5656,
49.4487,-10.0399,27.0431,22.8508,-11.2199,-31.3426,-40.4421,85.3438,29.5686,-0.2624,30.4691,1.4061,0.75228,5.9756,
32.3818,-5.1225,25.7641,20.0817,3.5533,-43.5621,-52.1155,92.0936,16.024,-10.1534,17.8022,-12.7783,7.6965,0.49145,
28.2102,-3.8835,10.1183,17.9447,6.6017,-55.0483,-55.7337,100.668,9.4705,-11.4079,16.7345,-12.3558,9.0984,-1.4018,
17.6648,-13.4345,-4.5888,25.7217,-7.8944,-59.1782,-49.128,108.7279,23.0023,3.3766,28.3107,-3.6933,-5.5475,4.7394,
8.6837,-3.776,9.7865,21.848,-21.5207,-69.7275,-35.4638,116.3042,21.5013,17.274,14.9634,-10.4608,-13.4794,-6.2611,
22.2627,10.5505,23.2993,33.5837,-14.3938,-51.4438,-23.0848,114.5518,10.8921,10.4028,7.5432,-0.51404,1.4293,-4.9538,
32.9187,0.47661,25.6288,36.2273,-27.6302,-34.2572,-17.9731,121.7787,24.3385,9.7782,20.1359,3.2434,7.7446,0.9346,
16.8436,-13.652,9.9911,21.474,-40.0724,-46.3018,-25.7469,119.4749,33.4728,14.3171,25.917,-4.8718,-6.82,-2.3829,
22.945,-1.9943,15.5711,27.6405,-28.5719,-57.6237,-30.7254,125.353,25.8728,9.7306,24.362,-4.5794,-5.823,1.4875,
24.8297,7.9101,28.7368,24.5844,-12.7575,-42.3958,-21.893,126.6849,17.332,-1.5696,20.571,-4.7703,8.0385,0.93225,
9.2399,-6.6645,12.9126,16.1202,-20.5007,-30.9992,-19.1815,107.4356,21.417,-0.077514,17.0067,-2.1545,8.9541,-0.5216,
-5.4145,-20.3647,-1.9621,14.6874,-33.3706,-43.2393,-32.1306,102.3871,26.1897,6.916,8.9974,2.1683,-5.6831,3.7032,
-14.1643,-21.6941,-15.9444,13.8059,-45.4684,-52.1713,-31.4784,97.1753,23.6864,7.4329,10.3215,1.1063,-5.6862,2.5491,
-17.0421,-20.3927,-15.21,12.9774,-55.0768,-47.1776,-26.7941,92.2771,21.3334,7.9188,10.6337,-0.82403,-4.4131,1.4643,
-21.1449,-19.635,-15.6953,11.7333,-57.8297,-42.949,-22.8569,87.2059,18.6555,7.9095,11.3935,-2.1725,-2.7504,0.91065,
-25.0016,-19.8548,-15.2194,11.4947,-61.349,-38.9746,-20.088,83.3714,16.1382,8.8329,12.1078,-4.3717,-2.1196,-0.5419,
-28.1609,-18.6637,-15.2381,10.8048,-63.259,-34.7722,-16.0872,79.3006,14.2381,9.2347,13.2453,-5.0413,-0.12889,-1.4413,
-30.1987,-16.6118,-13.3922,10.1565,-65.9868,-29.8904,-12.3261,76.4067,12.4512,9.6123,14.3139,-5.6709,1.7426,-1.3548,
-14.2868,-6.2964,1.3896,20.7295,-49.9131,-34.6199,-25.6865,84.8689,15.4316,2.5127,12.5234,-9.0581,-12.462,4.3177,
0.67045,-4.5207,9.2269,19.952,-38.9975,-22.7582,-29.1489,91.4245,26.1544,-11.1504,14.1016,-22.0266,-7.3988,16.639,
-4.7387,-17.2956,-5.4267,4.7771,-50.7577,-35.4927,-13.3,71.8391,18.0623,-9.5493,10.4601,-26.2962,0.50011,10.0494,
-11.4437,-8.3369,-6.3765,12.411,-33.6122,-41.1619,-2.8391,58.7983,5.3301,5.1236,5.639,-10.6184,3.732,-2.202,
1.823,-2.7115,-7.3921,9.3366,-17.4955,-24.5922,-8.726,69.3704,13.8629,1.8986,4.835,-10.1035,1.1778,3.9874,
2.1797,-7.6745,-4.6188,9.2424,-7.7149,-19.5114,-5.8726,68.8134,24.6796,-8,8.738,-23.5973,-1.2222,17.8481,
-12.0511,-21.314,-11.7966,9.6195,-21.352,-32.4407,-19.6203,50.5846,15.7439,4.5945,7.2816,-28.1165,-1.1488,18.0532,
-20.0587,-25.0383,-18.0779,1.1221,-22.2782,-24.315,-32.5431,35.0919,12.4697,11.3079,2.6514,-19.4404,4.9771,6.2534,
-4.7552,-9.436,-5.8106,-9.1962,-6.8415,-13.5372,-30.8125,37.6453,5.198,-1.4853,-4.0307,-22.9333,4.6787,0.28676,
2.8631,-8.9918,-3.5982,-11.4403,7.6689,-7.1338,-14.8638,39.114,-1.6363,-6.0553,-8.448,-8.5112,4.398,0.26956,
-11.4087,-11.714,-8.5077,3.3461,6.4988,-7.172,-14.56,42.8242,10.1097,-5.2261,-0.95243,-6.603,4.5999,10.0379,
-20.8529,-0.29434,-0.076275,17.002,-6.4717,-20.8417,-20.6753,39.7887,23.6031,-6.3102,13.2047,-20.3068,6.6537,23.5356,
-16.3401,-7.2658,-1.4696,2.4699,1.8378,-29.7195,-26.4239,23.3014,13.6788,-16.6482,9.4951,-32.9442,2.9928,12.6832,
-7.9046,-15.2166,-3.2449,3.2532,11.0464,-13.8364,-33.2252,15.0362,9.1304,-13.7854,0.53855,-16.9896,0.017669,0.73963,
-10.6919,-10.1104,-2.5844,9.1154,5.2583,-16.3898,-22.3789,28.234,22.6825,-5.0375,14.6062,-3.3899,-1.3813,14.7952,
-3.0615,-0.65067,-10.3503,9.0341,14.7275,-21.4637,-16.8426,21.7589,21.1996,-5.2013,21.0628,-14.8349,6.6226,28.0075,
3.1796,-13.1919,-13.9226,-5.6079,27.9438,-6.0759,-28.4124,6.3533,5.8276,-5.355,5.699,-20.9339,10.4185,12.2271,
-11.1111,-21.2533,-1.439,-10.7404,22.4175,4.4177,-32.7647,14.4814,0.94062,-9.227,-8.4989,-5.5779,0.0088911,2.0528,
-11.7206,-5.8781,-1.3527,4.004,30.3911,-2.3707,-16.6988,24.7945,9.2712,-19.8562,6.111,-3.9671,0.0083576,16.0296,
2.9611,7.3987,-13.3858,11.0967,42.6677,10.8179,-1.8406,9.3288,-5.3851,-15.8688,4.6907,-11.1838,10.2584,17.7417,
7.9081,-2.8299,-12.1166,-3.6691,50.7024,20.8852,-15.8302,-5.3309,-8.2023,-2.3366,-9.1033,3.5872,9.1768,4.0966,
9.7634,6.193,-0.67325,1.3319,47.1942,5.5321,-19.4182,-7.6851,-1.6529,-10.1174,-10.8865,9.7726,-2.0901,6.1806,
16.1672,3.4914,8.22,-4.8046,45.7605,3.4584,-4.1531,0.69763,-15.6537,-13.7036,-15.3587,-4.9137,-13.6134,3.4802,
13.3327,-3.2412,-0.66001,-16.6306,40.2192,17.3509,-3.5596,-1.2086,-28.8145,1.2186,-20.9602,8.0834,-14.6601,-6.0475,
6.4755,2.0785,-8.5414,-8.6438,30.8167,2.2099,-17.446,-14.6478,-12.9856,11.7398,-5.6026,9.9282,0.31952,3.168,
-8.013,-7.3649,-8.0289,2.1255,14.8677,-12.0227,-30.4993,-21.2239,1.8935,-3.0646,-1.1952,-4.7675,7.1675,0.18253,
-20.4561,-11.5821,-7.5472,6.6571,-0.12432,2.7986,-30.7555,-11.5639,12.0311,-16.9807,12.9766,-18.5815,6.7374,0.17158,
-10.3757,-1.1025,-9.4241,7.6554,13.9831,16.7307,-16.3297,-11.3357,12.7069,-5.9331,22.793,-8.3699,8.6629,2.4911,
-6.958,-3.8319,-2.3356,10.9233,27.2441,1.6269,-18.1455,-21.8381,-2.1555,-15.8277,7.3254,-19.0504,-4.9032,-5.1136,
2.7788,-8.2614,7.1234,8.4044,29.803,9.9161,-17.057,-21.4597,-11.223,-10.2187,-7.2141,-14.1797,-5.5409,-1.0791,
16.7121,6.3343,11.3553,10.6957,25.2192,18.64,-18.8292,-22.0356,-3.095,1.5766,0.91744,0.77112,3.1784,-9.4011,
16.9848,11.8893,16.7315,11.4523,37.8061,6.805,-20.9606,-22.1119,-5.2384,2.8804,1.3282,4.7966,4.3856,-18.6215,
1.8657,-2.9241,1.6276,-2.2818,44.2688,11.0563,-33.803,-23.5805,-7.7203,3.6392,-9.9334,-6.6741,-4.2641,-9.1177,
-0.92003,11.3514,-6.7351,11.9551,32.2938,24.4929,-29.7895,-19.3697,6.8429,14.603,1.8443,-1.6143,-3.0768,5.4074,
13.2352,22.7848,6.7149,12.9797,44.4561,21.0374,-13.9021,-24.7314,-7.6677,-0.37316,-9.4485,-2.4493,-2.892,-9.017,
3.4662,9.7695,3.0508,-1.899,44.9284,19.3093,-3.4051,-21.8487,-21.3076,-6.2858,-22.9816,8.4147,4.2706,-22.576,
-10.8418,8.2512,-4.5876,4.3941,28.1327,13.4912,-17.3008,-23.3341,-18.5095,8.1914,-19.1509,17.228,-1.5768,-7.1215,
-0.74992,14.2794,8.7342,18.1087,21.9074,11.7501,-19.8684,-27.5248,-9.0114,8.5097,-6.8195,12.4669,-3.3459,-1.4468,
5.8177,11.5587,3.5504,9.5666,34.693,19.4319,-4.5763,-30.5331,-20.5855,-5.9788,-12.0017,7.0595,-3.1454,-15.46,
1.7416,9.9331,4.2695,9.9247,26.8982,23.8571,1.1679,-14.7233,-5.2503,6.4944,-7.5537,12.2272,2.6345,-3.228,
-12.4629,1.4164,12.8662,6.9997,11.1843,8.3257,-13.0022,-17.1011,5.6595,6.5705,-1.9756,-2.6065,2.0106,11.0657,
-20.9124,-0.066534,10.6963,7.9776,19.022,-6.2738,-13.964,-24.9279,-0.73711,3.8467,2.3363,-10.7149,7.0154,2.8246,
-7.0774,-11.7108,-2.5258,-3.2172,30.461,8.2026,-19.1832,-31.3534,-3.0224,-7.1006,4.5256,-4.0145,7.0603,-10.8568,
7.4473,-5.4169,9.7402,1.6354,30.4971,21.8104,-3.9322,-32.2676,-2.8415,-6.6746,4.2545,1.8176,4.7729,-13.0008,
18.5273,9.0081,23.2558,4.798,14.5673,20.5018,10.4037,-27.0699,-3.1369,7.8259,4.4651,13.3567,6.8161,-17.3461,
3.3157,7.8796,12.8854,10.1018,-0.40677,22.9992,4.4101,-27.3099,10.097,21.4563,17.2429,6.032,2.6797,-18.1695,
-7.9439,4.6114,-0.0017698,23.5957,13.7176,23.483,-1.4457,-24.7392,20.6741,6.0689,25.5278,-1.7848,9.0422,-8.6923,
6.6327,-9.7653,-14.1017,8.0799,26.9946,7.974,3.7662,-37.3548,5.3336,-8.3952,9.8962,-9.5987,8.0336,-22.2708,
19.1589,-19.3081,-18.7252,-6.5049,39.4749,-6.6045,17.6403,-42.446,-9.0864,-20.472,-4.7976,-11.3523,10.8132,-35.0346,
14.2821,-20.0131,-14.8056,-20.2146,51.2064,-10.6237,23.4489,-40.8316,-21.3433,-10.8564,-13.5853,-12.5347,6.4367,-32.6885,
14.3566,-20.6763,-13.9175,-18.7579,62.234,-13.714,18.3148,-46.7685,-5.9627,-8.3415,-2.5196,2.1949,6.0508,-18.6129,
6.5068,-22.6971,-21.9351,-18.0985,59.9984,-25.4712,5.5674,-43.4959,-3.3972,-12.9662,-2.8336,4.3934,14.5403,-17.0301,
0.52473,-24.1307,-18.7553,-28.195,54.5343,-27.6704,-1.2895,-42.7503,-8.785,-13.1203,-3.5961,-7.0526,11.8042,-25.3269,
14.0052,-9.1709,-5.9817,-14.8546,57.3193,-22.7486,12.8879,-26.0853,-2.2009,1.7669,1.745,-1.5045,-0.55229,-30.7964,
18.29,-8.155,-7.0205,-3.2474,58.0736,-25.5772,25.0383,-19.0514,1.193,8.9938,-3.4853,-6.5398,0.87853,-20.096,
12.0673,-14.6544,-9.8609,-15.6329,50.3964,-13.326,11.8878,-32.0083,-6.7998,-5.6458,-16.7881,-17.7956,4.0875,-4.7903,
12.7418,-11.4458,-8.8032,-23.5471,33.2726,1.5736,-2.9255,-44.1878,-16.1765,-7.0488,-24.633,-6.9432,-5.0108,7.4896,
22.228,-10.7586,-6.4113,-19.3384,29.0682,13.9375,8.0886,-31.9732,-10.5459,7.4741,-17.5643,7.5734,-5.6418,-2.2784,
18.0981,-11.9768,-9.7541,-9.792,41.4241,-0.99876,10.3991,-25.3953,-8.9811,21.1257,-12.7825,10.7247,-0.64377,-6.8008,
12.8187,-11.7243,-5.9074,-9.6705,43.0104,-15.0388,7.4454,-28.0651,-7.9766,8.8978,-5.0267,14.2747,0.79254,6.1873,
17.1745,-15.2145,-5.0872,-23.1903,29.7123,-6.4378,13.9874,-29.6437,-12.6238,11.6251,-6.1234,20.4069,-9.0399,5.3503,
12.8833,-4.5167,-9.9069,-19.8129,22.8046,0.0059418,7.0915,-23.6709,-15.1271,20.7125,-10.881,19.6487,-17.3499,-7.5511,
-1.4019,3.6752,-9.7785,-4.5241,11.6517,2.3354,-7.434,-13.398,-4.4352,19.9358,-2.3071,21.7317,-9.3201,1.7546,
-10.1711,-1.6706,-9.6576,-4.3743,1.1685,-1.9985,-9.6617,-26.6942,0.9558,9.8868,1.093,16.2341,1.0236,10.5022,
3.4856,4.0206,-4.4188,-10.6353,15.1984,7.4403,5.018,-37.5508,3.6941,9.2938,-3.632,20.8514,5.6215,2.4169,
7.4706,7.041,-7.4153,-9.5314,28.3865,14.9146,17.1752,-21.1978,1.1433,12.9295,-2.0166,23.7936,4.8184,-5.6489,
1.8965,3.3569,-7.4362,-1.0378,27.3712,8.8944,3.5644,-23.7751,-13.0253,16.347,-5.1572,10.7178,-1.5277,-0.18456,
8.7719,-0.10574,5.5898,-15.0756,11.6289,7.8949,-0.84322,-36.4486,-25.1686,6.5138,-18.3593,-1.5739,-15.536,-2.5035,
22.3456,12.0149,11.7779,-17.3116,22.7014,15.808,2.9351,-22.4915,-17.1349,2.3953,-14.4626,3.1798,-10.2886,-4.2168,
9.2339,8.9642,-3.0287,-2.7607,26.464,0.75952,0.42918,-16.9489,-17.5045,11.1042,-16.8567,14.6375,-7.3419,-11.8848,
2.157,0.97142,-4.1234,-8.1863,10.7762,-7.0852,7.8584,-30.032,-21.1138,18.825,-20.504,27.737,-20.8792,-10.24,
9.0172,6.0385,2.1819,-9.0921,21.9005,7.4399,11.5806,-42.3301,-18.4491,3.5955,-15.0809,11.9728,-20.0923,2.9551,
7.0785,10.8014,-5.8704,4.0331,34.6865,21.0935,15.0793,-25.6903,-8.4891,-4.8853,-1.5955,-1.6697,-4.7867,9.7667,
-1.7335,1.7665,-14.8366,-1.7995,18.5053,14.9252,17.9018,-20.2987,-9.8437,9.5078,-6.1587,12.5305,-6.9513,-0.13818,
-1.629,2.5926,-7.4236,-11.0101,15.9971,6.5748,20.5551,-33.1808,-15.7759,17.2024,-13.2445,21.9074,-19.5804,-0.12945,
-7.5888,13.1532,0.010947,-13.6112,29.1372,14.101,24.4472,-38.9894,-17.1594,2.0702,-13.8473,10.8085,-20.7351,5.0033,
-17.3851,12.3635,0.01029,-3.4763,25.8689,22.5732,24.8436,-22.55,-11.4707,4.3969,-7.4257,15.7507,-21.3552,4.7031,
-23.7962,-2.4783,-14.0903,-12.5862,10.2167,7.1188,9.253,-33.433,-11.7143,15.3162,-6.9804,13.8743,-34.0518,-2.1022,
-10.2542,-9.6627,-24.306,-5.3084,18.1121,-6.2327,-0.49904,-30.4961,-6.3521,7.8741,-5.6297,9.3137,-29.2136,4.547,
4.4611,5.017,-8.7476,9.1101,31.1254,8.2413,13.6309,-14.5663,2.4154,-3.7809,3.0953,16.21,-14.414,13.5931,
12.4586,6.4588,0.97457,-3.6719,40.3198,21.8468,26.913,-24.9961,-2.388,5.7648,3.8419,27.3521,-17.2764,2.5274,
6.5853,-7.4411,-12.5963,-8.5774,23.8006,6.436,17.134,-37.5963,-10.1664,8.6806,-7.1061,28.0405,-30.3398,-7.4096,
10.8493,7.1054,-13.7043,-0.60779,8.2726,-6.6523,6.7868,-21.7072,-0.23727,1.6364,-5.7481,18.9027,-27.0002,7.135,
14.8588,5.6252,-6.3587,-6.1625,9.4177,4.9297,20.4796,-25.9951,4.4365,-5.9167,5.7797,3.6686,-11.2801,14.04,
8.3756,-8.8123,-7.8409,0.73052,17.2392,6.4977,33.3508,-38.5354,3.2387,4.6891,7.2971,11.026,-11.6568,4.8106,
-6.2269,-20.7426,-21.4705,-11.8945,2.1048,-7.9922,17.2498,-32.8403,-3.0135,4.8736,-4.7894,24.4645,-25.0574,1.2599,
-19.9533,-7.8489,-27.5149,-19.1007,-12.1214,4.7236,2.1148,-23.8808,-4.2302,1.3195,-3.1037,11.692,-27.1596,7.2422,
-4.6561,6.722,-11.764,-5.8406,2.7058,18.5402,16.0879,-33.6303,-1.1806,0.30868,7.3324,1.6718,-11.43,7.7393,
7.3937,7.5944,3.0418,-2.2285,16.6435,20.5672,29.2226,-33.01,3.0836,1.6876,9.2224,15.6715,-15.0597,3.0817,
-7.1499,1.0815,4.4788,-3.493,1.5449,5.2332,13.3693,-26.8359,3.3646,0.18868,4.476,22.0641,-28.2562,5.2265,
-18.7132,2.4143,-0.91509,-10.2727,-8.2105,4.1093,9.1841,-36.8742,-1.0308,-11.4711,-3.7135,6.6403,-24.5748,10.0381,
-7.8066,14.85,-7.8495,-4.5308,6.3821,5.2604,22.7331,-25.8095,-1.435,-4.7256,-3.9567,-6.6825,-14.2477,11.7656,
-11.0654,8.368,-21.4785,-3.327,8.2065,-0.64616,33.8276,-12.1458,-4.1445,-3.5102,-2.7875,7.8185,-24.575,4.5366,
-10.8673,-0.055287,-18.6695,-7.3207,-1.1383,13.4926,30.4001,-24.9295,4.9575,-3.7654,11.4798,15.1486,-18.9072,8.4577,
-0.89662,5.5392,-3.5715,-5.9494,11.0445,26.7831,31.3714,-32.7524,8.387,2.0517,14.8621,0.13965,-3.6728,4.2228,
8.01,7.5369,-2.8914,-6.9903,21.098,11.0761,28.0917,-16.6872,6.4859,5.1903,8.845,4.4468,-0.31302,0.70774,
4.2678,8.4821,-14.3662,0.4182,9.1155,7.0276,30.5995,-4.6258,9.3584,1.6172,9.7126,12.1007,-10.0787,3.9269,
-10.0883,5.6434,-11.1744,-1.005,-5.5314,20.706,27.3658,-18.4483,4.6038,5.7137,9.5959,9.977,-13.6675,-0.5022,
-23.583,-8.7952,-17.0274,-15.0447,-12.0664,7.6936,11.6239,-31.4414,-9.7724,8.166,-4.0262,5.6507,-14.7114,-3.2672,
-26.1173,-21.1916,-30.1058,-28.242,-5.7517,-3.9504,2.661,-26.9809,-10.9282,-0.71051,-11.2396,-8.6666,-17.5562,5.3154,
-18.493,-5.8201,-22.12,-12.4475,-10.5317,10.3866,16.6013,-26.7606,0.44381,-0.20184,-3.5763,-17.9308,-11.3772,4.5304,
-10.3941,8.6291,-6.6928,-8.7828,3.6128,23.8634,29.4617,-28.4164,1.8149,6.7992,-1.964,-2.755,-1.8415,-2.7303,
-12.5663,1.3445,-3.152,-14.7792,17.496,17.5281,13.594,-25.7789,-9.4764,-7.587,-8.3695,11.5103,-6.3906,1.161,
-0.63013,-1.5318,-6.6901,-11.0968,30.3025,20.2041,26.8783,-19.5732,-7.0439,-18.314,-1.3442,-2.9363,-3.2116,13.206,
13.5077,12.6601,7.8113,3.669,19.1652,19.9239,39.3656,-19.3305,-4.7571,-11.6239,-1.2636,-16.8601,-1.1551,3.0946,
10.7119,18.3014,21.4426,7.0543,4.9694,11.2733,35.9498,-21.8984,-6.336,-5.3355,-11.4379,-13.8632,-7.6093,-7.3421,
-4.0308,3.1033,12.9231,-7.4689,-9.4288,3.6078,29.5995,-28.5057,-6.4213,-8.2766,-14.9453,1.0686,-13.2098,2.8838,
-14.85,-9.0752,0.49953,-6.8986,-13.4008,1.0618,32.9489,-31.9202,-3.7069,-11.9733,-1.4679,0.8827,-2.6323,15.2907,
-13.0269,5.5693,0.46911,0.038185,1.5032,8.453,25.3804,-27.2097,3.9709,-12.187,7.0063,-8.4889,4.0485,11.5778,
-9.4495,9.773,0.44141,0.035893,15.513,14.4691,22.9259,-25.5771,14.9151,0.65874,-0.86896,6.1204,0.07813,5.2915,
-22.9825,-4.9134,-7.9721,-12.0803,0.48226,8.0098,25.2783,-38.1425,9.361,8.0741,-7.3392,14.9501,-5.5173,2.1791,
-24.2774,1.0941,6.6062,1.6904,-3.3961,20.5751,37.8616,-26.4128,7.8671,7.5895,7.2011,18.7124,8.9137,16.1484,
-19.5593,11.7453,6.5539,4.8504,0.069048,21.6704,36.8656,-10.728,-6.705,-6.9659,-1.2744,7.8049,11.5183,7.136,
-6.2717,7.3127,-7.9393,-3.8272,14.1649,23.166,28.1303,-14.4005,-12.2377,-5.0285,-9.5845,6.4046,16.418,-3.5429,
-7.2933,-2.9106,-20.8531,-6.8596,15.5228,16.6506,28.7721,-27.6365,-5.4464,0.39862,-2.9524,10.2136,14.9671,1.7951,
-2.662,-6.9292,-10.7491,-6.9134,4.8069,7.7304,41.1457,-18.4007,-0.92588,-13.1373,0.48596,4.4758,9.8758,9.6086,
6.8164,3.7373,1.0782,-4.6349,-6.6634,10.9945,51.1355,-16.3646,0.061764,-13.2807,-0.4744,-6.9751,6.4878,4.3725,
9.6688,8.6382,1.4791,-0.16374,7.8364,15.4595,46.6693,-29.4827,-0.40887,1.6162,-1.8445,0.43227,4.7004,-1.015,
10.4873,0.19937,0.92479,-2.4828,21.4662,6.6114,42.4719,-21.0687,-2.7132,0.46534,-2.1994,0.87238,8.6124,4.171,
11.7216,9.5054,4.5965,6.0521,6.0782,9.942,32.468,-5.7045,-8.1419,-11.6773,-4.8631,-12.2263,10.8908,5.7843,
5.4268,17.3223,-4.0656,0.098417,-8.3865,23.3243,26.7931,-19.4623,-12.3122,3.1233,-11.0944,-10.5604,-2.8086,-8.6628,
0.44168,5.1001,-8.4817,-7.3629,-8.8158,18.197,24.253,-32.3945,-4.119,9.3372,-3.9059,-0.60858,-3.5722,-8.9531,
8.3364,2.4646,0.88008,2.8634,-3.1615,11.0481,20.4682,-27.0679,-2.474,0.85624,-2.2736,10.1445,4.5629,0.43694,
5.5062,-2.8087,-6.1618,-9.8883,0.28984,7.1236,16.9106,-28.7055,-13.0421,9.6577,-16.2372,20.2524,-3.6316,-4.7142,
-3.2116,-4.5039,-15.1108,-12.0908,3.9999,2.9678,11.2364,-36.3022,-6.6688,5.3508,-9.0837,5.0586,1.2454,0.22776,
-1.6206,4.6192,-0.10414,-2.513,-1.365,5.1198,11.9601,-31.7941,-3.007,-9.0703,2.1779,-9.3449,15.2707,5.3399,
10.1258,8.5358,14.0021,-7.4871,1.9785,9.9384,25.3425,-25.6923,-13.5432,-22.6261,-7.7377,-12.389,13.301,-2.9012,
15.5752,10.3532,3.1339,-5.64,13.5085,11.6716,37.922,-26.4803,-15.0602,-7.1685,-8.6705,2.4543,7.3776,-3.1934,
6.72,1.8112,-4.9753,-8.5632,7.5722,10.5055,35.8693,-29.0857,-9.9633,-9.412,-0.22948,-8.0655,12.9919,2.1231,
5.3847,0.77047,8.3698,-8.049,-5.9283,8.9431,38.3759,-18.9535,-12.1608,-15.3705,-8.6027,-16.9002,10.3487,-4.5271,
13.4482,10.0429,20.9133,-3.8395,-4.641,15.8615,43.5282,-5.7022,-15.1587,-4.198,-18.3373,-6.568,0.40867,-13.5746,
24.2899,16.4299,16.3973,-3.1428,9.7375,29.0098,38.587,-7.6897,-12.8512,8.6342,-11.1801,-5.7076,1.7825,-8.5664,
8.7325,9.3866,1.3135,-0.62382,-4.9468,13.1692,22.1718,-10.4895,-9.7506,16.969,-4.4522,-12.3543,-0.654,-2.927,
-5.8914,-5.2766,-11.2243,-9.9064,-18.75,-1.721,6.7415,-1.4735,-8.2339,12.2234,-8.8442,-6.0223,-7.1385,-2.7514,
8.5621,9.14,-0.30011,1.8708,-25.8902,12.4823,8.9105,0.47861,-4.012,5.8988,-9.2457,4.5898,3.5406,-1.6542,
22.1484,22.6916,-0.28166,13.8731,-15.0181,25.8333,12.1038,-9.8004,-5.635,-0.046353,-10.5546,-1.2768,4.2602,-8.0787,
13.3645,30.0607,-3.526,-1.0593,-28.217,38.3833,14.6388,4.8876,-3.899,-2.3731,-9.4551,6.721,-0.18868,-4.3319,
15.8238,36.1774,10.7856,0.99021,-40.624,50.1803,12.3625,18.6943,-6.9271,-0.83283,-6.5582,14.2381,4.0155,-3.6066,
24.6589,38.2005,14.6758,8.852,-51.4541,57.5203,-0.95952,14.9987,-7.9094,-0.31659,-3.8352,1.736,13.5595,-17.4902,
9.0794,23.7944,-0.30476,-4.7257,-43.7077,48.4775,-9.289,1.9847,-3.7074,-5.8897,-3.6051,1.6314,8.0864,-30.5408,
0.73564,23.7642,-10.8817,-4.908,-40.6194,53.4896,5.3684,13.5139,-4.8824,-4.1384,2.6678,15.6335,2.4758,-14.6084,
14.7915,25.6009,3.8712,-4.1477,-35.8523,47.0194,18.9031,21.5563,-7.8511,10.2099,3.9061,17.37,15.8397,-9.4163,
8.6577,22.2011,10.5062,-0.17091,-41.1565,46.062,12.1778,6.2852,-6.4479,23.6973,-5.6469,10.7366,18.6172,-22.9514,
3.0125,25.0614,4.7509,3.1001,-32.6296,46.5599,20.2995,-8.192,-4.6636,31.3506,-11.3656,5.8982,3.4002,-18.1909,
8.8887,21.2282,6.7954,-4.0746,-31.1381,32.1177,15.8194,-5.7158,-3.9175,30.8675,-16.7407,5.079,-5.0691,-16.6336,
9.7529,14.8296,10.581,-6.1601,-41.8497,37.1797,0.77027,-6.7703,-2.285,26.6854,-14.3379,9.8992,7.8158,-29.1475,
11.9631,8.3486,15.5373,-0.19929,-42.135,37.7443,-5.2112,-20.4641,-0.28417,14.834,-8.8189,11.1689,17.5972,-27.3987,
17.7686,11.5752,9.0135,9.1318,-25.5069,21.3796,9.2015,-7.9325,7.1878,7.4207,-3.6307,16.0896,16.5413,-12.7086,
11.5775,10.4148,-1.3114,-4.9285,-20.8366,11.3663,16.4493,1.3967,10.0182,-7.1246,4.5088,6.2718,14.1514,-5.8882,
4.3596,6.9941,9.9497,-8.3603,-20.5181,24.7843,4.279,-12.7871,13.1446,-20.7971,15.4207,-8.0827,26.348,3.7833,
-8.4823,7.9724,10.7506,5.6533,-19.7532,31.0957,11.0118,-18.8868,6.2989,-17.4415,2.8468,-4.3361,18.7101,2.1584,
-7.0413,9.3578,9.1735,0.65542,-24.1593,15.13,10.3507,-8.4349,-6.1936,-2.2951,-4.7785,10.024,3.4875,-7.2898,
1.3024,8.33,10.021,-13.4839,-24.1076,22.2656,-0.9865,-20.5091,-15.6064,11.9426,-3.0939,7.9029,-5.4524,-13.841,
-4.3674,3.1711,5.6923,-12.0877,-13.342,27.453,12.1193,-12.7553,-5.3509,25.3261,-3.8408,6.4971,8.9748,-10.2148,
-12.0261,5.3109,-5.3658,-0.64587,-19.5306,11.7058,20.2445,2.1101,-4.5641,23.4407,-6.872,14.028,13.4394,-14.7277,
-2.4512,17.5721,9.0561,8.2462,-25.3479,7.3978,5.5183,-11.1849,-9.4151,21.5685,-11.5846,12.7205,-1.4669,-18.969,
-1.8383,2.4177,14.9142,-6.3486,-27.0887,21.0539,1.9256,-24.6138,0.0021633,11.422,-22.5378,-2.1427,-8.7121,-7.1142,
0.60107,4.2586,1.4386,-13.3008,-16.611,11.2814,15.9101,-9.037,8.8544,0.95171,-18.8564,-2.824,1.5956,7.4126,
9.8837,18.1031,-7.0347,-1.3208,-5.3631,12.4683,27.4131,5.6052,-5.7768,-8.4249,-14.9296,-4.5183,5.2269,11.0389,
14.8823,25.2822,4.5698,1.5542,-5.0413,25.8202,16.4501,-6.0357,-8.1038,-14.4418,-8.4422,-13.5654,15.164,6.6491,
7.4656,9.6652,8.0235,7.0522,-18.8388,22.2854,1.3631,-19.7736,3.5652,-12.6432,0.45135,-25.7981,16.1179,9.9781,
1.8928,-5.0147,-6.5579,-5.9508,-18.9846,11.1643,11.1876,-16.1349,1.0213,2.2154,5.5501,-14.4657,10.9575,11.7085,
-0.55081,1.121,-20.2644,-14.447,-3.7456,11.8919,14.7096,-1.0668,-13.1399,10.3472,-7.3637,-1.0179,10.7659,-3.094,
9.2667,15.1537,-9.0205,0.51977,-6.438,21.8945,10.5658,5.3982,-11.2977,23.8264,-6.4565,13.1432,19.9044,-8.3778,
5.9158,2.474,-4.7509,-3.826,-20.1517,6.4808,4.3402,-9.0256,3.3584,35.787,-6.9998,16.4265,9.392,6.1031,
7.8908,-1.8677,-3.0684,-0.33483,-11.8317,-8.008,10.1373,-20.0105,11.0777,23.8548,3.2042,10.316,8.3626,19.8369,
4.1557,-0.35816,-5.2143,4.8102,-5.0652,-21.6275,10.9265,-4.7099,1.5606,9.8437,1.6145,-4.403,6.4625,12.0016,
7.1676,3.8571,-1.6394,7.7828,-18.8613,-34.4299,24.3709,-1.7537,10.3198,19.9692,1.0513,-17.9952,9.3368,6.1562,
6.2713,2.2277,-6.6664,-0.6045,-20.4028,-46.4641,28.3785,-15.7485,12.0302,4.671,-6.0004,-18.3134,-5.3234,9.9805,
7.7592,4.8899,-0.67564,-5.2273,-5.0786,-57.7762,12.5758,-17.0114,5.7167,-9.7092,-3.7771,-17.2146,-11.8713,8.45,
3.1003,7.8581,9.1498,4.8703,-8.1573,-68.4097,5.8856,-12.729,-0.68375,4.9733,2.507,-20.375,0.48965,-0.91024,
-5.0069,3.1929,7.2029,3.1802,-21.7679,-78.4051,19.6324,-16.159,3.551,18.7749,0.95867,-7.5047,5.5848,2.4056,
-15.4226,1.6034,-4.8779,1.5915,-10.0893,-87.8008,26.7193,-6.3366,5.6675,12.0572,1.3674,7.0455,1.0568,8.3191,
-21.0205,-2.2202,-12.9718,-3.1631,-1.0973,-96.6327,13.9337,-9.6839,0.66834,15.0613,-0.57881,20.7228,4.7209,3.16,
-10.9069,-10.0078,-3.3402,-16.4857,-15.1315,-104.9348,17.2919,-16.092,1.0941,25.8067,1.7859,14.5768,6.7676,9.0279,
-8.8546,-14.5327,-5.4702,-15.0303,-17.8289,-106.1502,18.5839,-1.0265,1.4947,12.6096,-1.5833,12.3043,-6.2187,11.7483,
-21.8353,-19.7178,-19.242,-8.0715,-10.7021,-100.2474,3.3689,3.5725,-2.7887,0.20439,-3.8179,13.8956,-2.5844,9.6455,
-23.7872,-12.4777,-23.5565,2.1973,-12.3895,-88.1751,-5.0989,-8.2897,0.63979,6.2491,3.4007,13.5281,11.6707,13.2596,
-8.26,1.3171,-8.0431,11.3841,-9.7824,-73.5659,9.1848,-10.5886,8.0568,8.6696,5.9921,9.9201,10.3819,2.2137,
6.3356,-3.8873,6.5395,2.7808,0.589,-64.0266,20.2824,-2.9637,7.1071,2.0924,4.2346,5.1321,2.7703,-12.0191,
-0.81138,-5.0515,-5.2797,5.8747,0.08784,-52.2643,13.9405,-0.45676,-0.30843,-2.2265,7.2422,4.3583,6.7974,0.93829,
-14.8627,-1.4872,-19.0629,8.7843,-9.7019,-53.3217,9.8429,-1.8264,-7.2786,-0.69495,1.6823,5.4947,1.2651,11.599,
-11.5187,-6.0571,-14.5353,9.1889,-0.73323,-62.2364,21.3663,1.0781,3.4089,5.87,-1.2145,14.4833,1.1892,4.3798,
-8.498,-11.7507,-2.0145,7.2396,3.5045,-56.1727,21.4823,-13.0865,8.3297,-8.5822,2.1205,8.4889,9.0381,4.5824,
-16.3752,-8.2503,-11.2128,-5.3083,1.4305,-38.7023,14.6021,-11.7129,0.37457,-22.1672,2.9245,-2.2707,12.2238,12.6945,
-23.7797,-6.8232,-14.267,-4.0578,1.3442,-41.1615,17.4539,-0.75978,2.2158,-7.0808,-0.97802,3.4567,7.7624,6.3416,
-29.8078,-20.5138,-6.8886,-0.087711,-7.123,-52.7918,16.4058,-14.8142,13.2653,-1.9977,6.5356,10.7042,1.705,-5.2213,
-21.0307,-27.0824,-4.1453,-0.54783,-7.1619,-35.9906,19.6152,-28.0253,21.3222,-8.8665,20.2435,5.8683,11.3881,4.8765,
-10.9151,-11.3574,-11.8173,2.7462,-11.8567,-25.91,17.0404,-13.9853,5.9429,-10.6641,12.3838,-8.5838,8.3753,5.0501,
-5.1353,3.424,-9.7108,1.184,-18.1353,-36.9357,10.893,-3.3622,-3.6106,-11.4217,1.8558,-15.4015,1.8153,-6.9011,
9.2728,17.3186,4.9718,3.4425,-6.3301,-28.6625,12.569,-13.8766,1.7314,-13.9985,5.0066,-3.7604,0.30845,-6.0216,
22.8165,30.3795,17.5983,-0.025678,8.1497,-12.8428,16.9398,-18.1698,-10.9523,0.94141,-9.3938,8.1134,-5.7675,-5.1945,
18.8735,35.0587,2.4424,-2.3541,2.8789,-1.9437,13.5943,-13.818,-12.6252,14.9849,-16.1634,15.5474,-11.478,-5.3487,
3.6411,19.9086,-0.84398,7.1062,-11.3938,-15.927,6.2553,-18.5796,-0.68528,9.1832,-13.3303,8.0913,-10.7894,2.4272,
4.0111,7.0659,13.3067,-4.0367,-3.5993,-0.87142,13.8008,-11.4083,-8.5649,-5.4678,-17.6554,3.4125,-5.0171,-0.048451,
2.8388,12.2335,12.8523,-6.5903,10.7167,13.2809,19.496,0.45949,-20.1651,-13.8704,-8.2086,6.0036,-6.5793,-14.1455,
-11.4315,7.3054,-2.0188,1.7258,-4.0263,26.584,7.6097,-12.1488,-14.7619,-0.45829,-10.0461,6.1092,-3.8555,-14.5716,
-12.4876,-1.0533,-10.1629,-7.2306,-12.1709,39.089,11.3459,-21.2044,-4.0917,-4.6245,-18.2962,12.7313,10.4759,-2.9812,
-0.090574,-0.5247,-6.292,-13.7854,2.6594,50.8436,12.9947,-12.9435,-14.5632,8.2333,-9.2781,2.1829,9.7255,-15.3826,
-7.0738,3.7005,-10.1073,-10.6287,8.9004,61.893,8.0222,-7.0415,-17.8822,17.5246,1.064,-12.0481,-2.5067,-21.4483,
-8.5131,6.2739,-5.773,0.2602,-5.7336,72.2794,15.9279,-12.2102,-7.4906,2.3732,-12.046,-22.8516,-7.9466,-10.8428,
-1.479,5.8974,0.16418,4.9037,8.7104,82.0427,16.8364,-16.1367,-3.3137,-4.1703,-17.8465,-13.093,-0.94738,-12.0564,
-11.6415,8.339,2.9497,2.7449,22.166,91.2201,7.4383,-17.0322,-4.9786,-6.7163,-2.7979,-18.8312,4.7007,-17.8558,
-25.043,21.9386,2.3069,16.0926,6.736,99.8469,10.2536,-9.9537,-1.4183,-17.9616,5.2907,-11.6439,2.0886,-5.1363,
-19.2249,12.5793,-2.4911,10.4675,-1.4675,107.9561,18.0254,-11.2202,-3.1969,-6.6336,3.1095,3.1548,0.099573,2.6264,
-3.9714,-0.7553,3.7159,-3.6721,7.4738,115.5787,6.2273,-18.4678,-11.8575,1.6852,-11.1771,17.0655,3.3561,-1.7236,
4.9979,3.0179,15.6074,3.0711,8.8891,122.744,1.195,-3.2597,-16.7381,-12.5159,-23.8966,5.0814,8.746,1.1752,
-0.89359,6.5634,11.8751,10.3417,3.6958,129.4794,15.2233,11.0359,-15.7339,-16.3027,-8.3628,10.3673,13.812,2.0355,
3.8196,2.4426,4.6398,2.2667,-1.1846,135.8106,16.9835,-3.7263,-21.3127,-4.1417,-0.52745,10.6773,5.5288,-12.1867,
11.9774,3.2281,13.6801,-1.5972,12.9864,141.762,3.85,-14.8073,-10.7152,-3.8928,-7.9512,-1.1461,9.8557,-10.4012,
1.4739,-3.9547,-1.2407,-7.5579,22.8016,138.8827,1.289,-4.1339,-4.9465,-7.8525,-7.9399,-15.1774,12.526,-9.3104,
9.3066,-0.45618,-7.5674,-3.8432,7.3335,126.356,5.4054,-2.488,-6.9802,0.53895,-3.2707,-1.0988,8.5132,-18.5371,
22.8482,7.4924,6.3986,-3.1473,1.4245,118.3092,-1.9085,1.855,-9.8225,-3.6862,3.9151,11.5474,7.5362,-17.8903,
33.9359,12.6336,8.8105,1.7016,8.794,116.8014,-4.5898,15.8437,-13.8932,-15.58,1.816,-3.2454,3.3565,-9.3628,
45.8775,18.3993,10.1456,5.3265,5.471,113.5213,5.9368,24.09,-2.8084,-5.3265,-2.9525,-3.8601,5.0189,0.5185,
37.9999,11.2379,-0.24803,-9.0931,1.8811,96.9251,-2.3401,8.5446,-1.2415,-3.6086,-9.7636,10.4715,3.3203,-7.4334,
26.8666,11.0294,-6.2897,-15.8807,9.6889,89.7121,-3.5981,0.69876,-10.952,-11.3128,-6.8486,5.9939,-0.14058,-19.5681,
35.04,11.7656,2.9405,-4.2108,3.9822,87.5906,-3.8476,11.373,-1.442,-3.6454,0.55183,8.8955,0.33412,-15.1319,
31.5392,3.1389,0.43318,2.0984,-5.11,68.2351,-12.47,-0.95764,-1.8222,3.5625,-6.4713,3.236,2.6432,-17.4866,
27.7832,2.0185,-1.4557,-2.6861,9.1753,50.041,1.3243,-13.0147,-7.3032,-2.2425,-7.0142,-9.0718,7.1441,-15.5053,
29.3778,4.2274,9.3483,-15.1057,14.6813,57.5333,-0.15261,-7.1089,-1.7401,-15.6203,-5.1959,-4.3342,2.5222,-7.5858,
29.0126,-0.22045,9.2532,-14.6652,4.9481,46.1597,-6.2009,-1.5565,-3.9657,-19.8089,-13.7365,1.0508,-5.5508,-15.0515,
38.4547,-1.1384,7.7659,-11.9216,9.3107,38.7314,8.2711,-2.3952,-3.7273,-6.505,-9.1844,2.8524,2.2377,-18.807,
39.8749,6.3848,6.3683,-15.8654,14.3428,47.5899,19.7676,-0.3882,-6.2995,-13.5705,-2.111,0.81704,5.8309,-13.0204,
27.6975,7.3992,4.5879,-14.4476,13.9481,46.132,4.4815,12.2158,-1.7282,-26.8563,3.1406,-11.8127,5.0152,-8.0459,
24.1723,-6.0905,6.1768,-13.5808,10.3163,34.9775,-4.5189,-1.5637,3.0346,-21.8615,10.408,-11.104,5.6459,-9.4264,
30.1769,-2.9301,10.4653,-6.2426,5.9698,34.7422,7.8672,-15.5699,1.9209,-6.4498,9.7835,3.6623,7.1713,-8.8608,
21.3767,-4.1513,7.5078,-14.7209,9.8045,30.3281,5.9972,-16.8426,-0.52393,2.6682,3.1395,16.8327,6.2748,-5.0671,
7.0484,-13.2213,9.8531,-12.906,10.1487,14.4084,6.5691,-1.732,0.43915,0.64485,1.087,13.9595,4.035,2.6919,
-4.091,-9.1664,9.7278,-2.3467,-4.5602,3.8816,11.3007,-2.2166,5.5386,4.7994,8.9425,14.5194,5.1904,2.0645,
7.8026,0.23597,5.8825,-4.5359,0.49433,15.2969,20.4067,-11.8685,6.6038,2.1815,10.7359,8.5233,4.4131,-5.0493,
17.1194,-3.9715,3.2004,-7.5254,14.5647,26.0273,14.989,-10.6897,-7.304,-0.27852,0.30685,7.546,6.4784,-13.5988,
9.5685,-9.3244,3.0079,-13.5967,17.7618,23.5336,9.4301,-7.2529,-13.3895,-10.513,-6.2344,14.5478,14.4758,-15.5782,
11.7902,-0.37746,6.5549,-9.0535,9.2421,22.1225,9.7969,-12.4085,-5.1312,-23.8596,-6.792,4.3567,10.8123,-9.9844,
23.6631,1.9747,9.4228,-2.4532,19.4037,28.7155,11.5386,-14.9261,-4.357,-8.916,-6.8507,-10.0047,1.3107,-6.1233,
20.8459,-5.1329,8.3916,-8.3635,19.6369,13.4801,17.8354,-10.7689,-9.2214,4.1988,-6.9055,-15.8064,3.5612,-7.1542,
13.0718,4.4933,6.0249,3.3216,11.9363,2.4215,11.1736,-12.9186,-4.9398,-2.5755,-9.287,-8.3338,3.3475,-4.8608,
18.345,12.1445,6.1292,8.2472,19.1409,16.3762,10.0374,-15.4051,6.0723,6.4314,-3.6048,6.2662,2.6808,3.3516,
15.8459,9.0867,7.1589,-2.0325,14.7308,25.5217,20.1517,-16.8099,-3.1444,-0.94359,-3.8544,2.9717,1.1225,-2.907,
3.7132,5.7461,15.1164,-1.9101,6.3925,9.8904,9.624,-12.0743,-16.0019,-14.987,-10.146,-11.3066,-10.1277,-12.9828,
-1.1696,-2.9861,19.801,0.067756,12.5313,-1.7632,0.65994,-5.7582,-10.3827,-23.2846,-12.333,-24.7282,-8.5884,-11.2722,
-5.7581,-5.6023,10.226,1.9274,7.1199,1.138,10.8707,-14.7314,-7.896,-7.7876,-15.3201,-22.0684,3.1098,-5.0047,
-15.1979,-5.7324,3.5554,0.41387,-4.9551,-9.6465,2.2972,-27.3603,-11.616,-15.3628,-11.1397,-12.8231,5.2527,0.42096,
-27.798,-7.718,6.6033,4.5828,-9.7832,-3.9432,-11.3526,-15.9342,3.181,-15.839,3.6287,-9.7241,6.3355,5.5211,
-37.7784,-10.5166,4.8096,-0.81713,-18.0495,-2.3082,2.841,-5.1932,14.0512,-5.1046,13.5395,-15.1982,8.2854,4.724,
-23.3972,-6.1577,5.4531,-8.2235,-7.6469,-12.42,11.0575,-13.2678,4.8211,-7.5937,1.5452,-21.7408,7.7878,3.5085,
-7.8933,-2.5266,0.93175,6.3699,6.9119,-9.3457,-3.1183,-16.6659,4.066,-7.6039,3.7816,-13.4481,4.9905,3.7638,
-6.1441,-5.1708,3.6717,13.7867,17.0911,0.53412,-1.0679,-11.9385,7.5495,6.9523,11.0096,1.4588,11.2144,9.1296,
-18.822,-13.2471,5.3147,-1.1405,1.9656,-6.9529,5.5194,-20.5404,-7.0035,5.4818,-3.7509,13.3644,9.6099,3.9227,
-11.1694,-4.0657,3.1325,4.6414,6.6295,-11.1948,16.3716,-8.1256,-6.4615,-3.2337,-6.199,4.176,19.284,2.7548,
-15.6246,-2.4239,-11.1555,5.7608,9.4929,-14.7168,11.1946,-8.1043,-1.88,6.7439,-3.4975,15.5732,13.9333,1.1916,
-28.6645,-9.7334,-16.4214,-8.5631,-5.1767,-13.8338,0.27311,-21.718,-11.0863,17.5226,-7.9468,24.8896,-1.0027,2.9843,
-21.3538,-18.4685,-1.3361,-8.9818,-7.5401,-11.1405,-2.5391,-17.4973,-9.4895,5.2879,-6.5383,13.1454,-0.82078,10.2602,
-15.8784,-9.4387,10.2705,4.1378,6.4256,-12.8012,9.2624,-7.5942,0.86567,-3.8809,0.84306,4.4359,13.3285,13.8387,
-23.779,1.8433,0.80188,1.5605,13.9599,-11.5673,15.6948,-21.2386,-6.1763,-8.7738,-3.4008,-1.8877,11.4753,-1.0916,
-8.2523,-1.0627,10.0724,-9.716,27.2223,-3.4188,20.3443,-16.5813,-6.7369,0.13961,0.53026,-0.84233,4.264,-6.9622,
6.3429,-2.3969,11.7976,-7.7351,25.0014,-9.2707,19.5899,-2.0744,-14.2539,-5.9267,-9.286,-1.2581,1.6777,-7.9424,
11.309,2.8723,2.2369,-3.0782,14.6484,-11.9756,10.4934,-16.05,-27.4986,-19.6711,-22.8289,0.21534,-5.4116,-18.182,
0.8469,0.37044,1.6373,0.36859,15.1674,-7.9959,1.0118,-23.3509,-15.4762,-16.5049,-13.8815,3.4645,-3.689,-12.8973,
-1.0685,2.2119,-1.2572,11.5284,11.462,-14.9706,9.3372,-7.8498,-0.44762,-1.4146,1.0513,3.2562,6.7826,1.9765,
12.0426,0.2155,-4.9088,9.9055,21.0246,-9.4128,22.7557,0.88596,2.2533,3.2076,8.3205,11.4478,12.8994,15.7135,
6.1942,-13.8974,-6.0126,-4.2012,21.1606,-5.5873,7.2903,-13.2672,-11.3943,-6.7697,-6.2787,18.6817,3.2721,3.1224,
-8.2774,-20.8626,-14.0384,-2.085,5.791,-19.3521,-7.2471,-26.5712,-7.9148,7.7364,-5.3135,17.5608,0.27999,6.6626,
-21.8808,-19.1445,-22.9815,-6.1536,-8.6565,-32.2909,-18.6832,-10.8769,-2.3155,20.6624,-2.6651,10.4502,2.5927,11.3882,
-23.1198,-11.9393,-7.5026,-2.5227,-1.3698,-16.2535,-3.4622,-3.1138,-12.8931,11.5019,-12.2901,11.2206,-4.551,-0.94333,
-11.9476,-7.0288,7.0476,8.3452,12.2248,-1.1783,10.8455,-12.7111,-6.0621,2.8911,-8.2911,5.4224,-2.8805,5.1707,
-21.0157,-4.2779,5.9153,13.902,3.5705,0.75704,12.2803,-5.8918,8.4017,-7.0665,6.3064,-9.0029,9.8731,18.372,
-10.9019,3.9,3.2309,18.1923,3.8217,0.24535,-2.5565,5.1778,17.0945,-11.7687,9.5332,-22.3187,16.2694,15.8718,
-6.9862,4.1318,3.5028,8.2484,-4.3284,-13.8694,0.51495,-0.25777,1.9688,-13.3917,-5.1388,-12.1272,3.645,0.81946,
-20.0794,0.62223,0.031015,9.151,-9.1936,-19.4387,7.4732,-2.5714,-5.4825,1.5118,-5.6403,2.7004,2.0288,1.8246,
-32.9746,-13.5151,-14.0708,-5.4981,-7.245,-12.2154,-7.0752,-14.9983,-6.5515,10.618,-5.7681,16.6384,-4.1508,-1.547,
-18.7594,-15.3774,-3.7857,-6.9097,7.2897,-13.812,-2.8015,-7.1089,-9.4196,12.3104,-4.9558,17.7265,-6.2313,-9.3744,
-17.6343,-2.3411,4.8285,1.891,4.4015,-16.7112,-0.76964,-11.3419,-13.5139,10.6397,-10.2496,14.7983,-7.7212,-13.4715,
-30.6763,-15.2463,-6.6436,-4.7449,-9.9626,-15.7076,-12.8384,-17.1847,-6.1798,12.7972,-7.7705,4.5922,-2.5988,-1.4808,
-38.4984,-8.2745,0.74364,9.6398,-11.5726,-21.7547,-4.1469,-2.0536,7.7029,26.1293,6.7957,5.7146,11.0691,12.708,
-37.1201,-9.6422,4.4265,1.9501,-16.4699,-34.5494,-2.9664,-1.5859,-6.8593,10.4616,-7.2466,-3.9474,-1.7091,-1.6891,
-25.5743,2.1191,9.7521,-0.96228,-1.3817,-23.036,-10.2429,-15.5907,-7.258,0.98059,-4.0165,-13.9609,1.1888,-2.519,
-25.4377,4.3215,3.1099,13.1955,2.7727,-7.5539,-10.0937,-16.8626,7.2775,7.9113,10.3245,-24.771,15.2175,11.7322,
-26.241,-10.0377,-0.33874,11.3494,-5.3149,-9.0866,4.6119,-1.7509,16.9698,8.8345,17.0382,-9.1847,25.3651,11.8372,
-17.2121,-4.1888,2.4779,8.8047,3.391,-1.086,18.4352,-5.0301,13.1562,-2.8784,13.2205,5.4664,17.3203,8.3316,
-26.4296,3.5179,-11.7708,7.3443,1.3238,-13.1353,3.2291,-9.3879,20.753,-16.8057,17.0869,-8.9616,6.9624,19.9462,
-32.7646,-10.2055,-25.1646,3.6429,-12.8556,-26.4472,-11.0647,-6.4946,20.9062,-16.1409,20.2549,-22.5239,13.5338,22.0111,
-20.5484,-13.3202,-9.5547,12.743,-21.747,-22.4082,-5.7417,-7.037,14.9922,-1.0725,16.2443,-7.0725,22.0404,13.2359,
-19.3155,-12.521,1.8569,7.3193,-6.3421,-21.0637,8.7028,-8.4781,6.6378,12.8479,10.6096,2.5483,13.2631,5.9185,
-19.5545,-9.4402,-3.3799,8.2772,8.1384,-24.9252,16.9108,-5.6398,8.5691,6.9516,16.9626,-11.7046,13.8652,4.1655,
-22.5745,-13.0671,-3.6429,9.1789,-4.708,-17.3731,1.7962,-2.9715,11.3166,17.2511,15.479,-1.5619,19.0899,5.313,
-24.9471,-17.8742,-0.62893,5.8319,-12.8125,-14.467,-2.3827,-7.4527,5.978,17.1481,0.57161,12.6318,10.49,13.3812,
-9.4725,-7.4831,10.5916,11.0741,-1.7926,-25.7126,11.8603,-18.1884,-2.7668,2.0192,-4.1214,6.1605,-4.2394,9.783,
-7.5062,-0.97712,16.0132,10.875,2.5078,-33.0236,6.8327,-11.0401,-0.27124,-12.2019,3.1146,-8.3091,-4.3291,-1.521,
-16.8403,6.0702,6.1995,18.1437,4.6869,-23.121,-0.56591,3.7223,10.4612,-16.8174,8.0531,-19.8028,9.4426,1.8323,
-2.7838,13.1613,0.23636,20.7821,5.3378,-16.1425,13.568,6.6389,10.7656,-3.6939,3.842,-4.5147,12.604,14.7685,
9.0319,6.3146,1.6201,6.0241,-9.0825,-15.6393,3.7798,-7.8595,8.7217,9.108,7.8052,8.2152,6.7223,14.3487,
-1.7612,2.2078,-3.1367,9.3897,-16.3365,-16.5647,-10.547,-1.2087,9.1305,21.6077,9.2006,-2.5289,5.3869,-0.61224,
-7.7121,-0.25373,-12.7325,1.8372,-15.8221,-11.3775,-15.8494,4.9213,-2.1339,26.3687,-2.9996,11.7228,-1.9254,-10.2382,
-0.26116,4.8864,-8.7078,-3.3988,-25.5894,-5.5699,-6.0461,7.8868,-7.1317,24.3199,-8.8771,25.1194,-9.7306,-1.7032,
-2.5746,3.1958,-6.787,2.8625,-31.0431,-19.3358,-12.6724,6.9487,-0.6463,14.9408,-1.3554,20.1071,-7.7493,3.524,
-3.818,-2.1214,-5.9144,1.2929,-28.7143,-32.2756,-11.4467,8.8604,0.79039,18.2372,1.9871,17.5027,-1.2274,-0.88121,
-3.1227,1.2671,-8.8207,-4.8417,-29.321,-16.5822,-21.476,16.25,-8.1099,29.7233,-6.984,30.5526,-5.3466,-1.2937,
8.7125,3.5207,-7.8252,-11.5399,-17.7772,-1.4873,-26.2445,16.6729,-4.3612,20.9512,-3.3038,30.4609,-7.3553,7.6367,
22.2897,9.8327,5.69,0.33492,-4.5966,-6.6461,-14.4191,3.5585,5.2187,5.5941,8.0768,14.5333,-3.1865,2.5185,
24.0917,9.709,6.7465,11.031,-7.582,-17.896,-14.9518,2.8787,6.3035,1.1865,9.9218,3.0669,3.9933,-3.6896,
10.9976,-4.9735,-7.7583,-3.7309,-15.0482,-11.6969,-23.8401,-7.0794,-8.1747,7.1724,-4.7735,16.9829,-6.0308,-16.0485,
16.3956,-17.5999,-21.3928,-17.6071,-6.2241,-19.847,-8.3097,-13.6433,-14.0857,4.4125,-12.7519,2.7956,-10.7943,-29.1856,
27.9918,-2.4439,-12.8766,-11.1812,-1.6574,-26.5778,-5.1366,1.2753,-1.5924,4.6135,1.5256,-1.5654,0.56994,-35.6988,
16.5278,6.8996,-9.7744,0.20665,-6.6833,-12.4028,-18.9284,12.2598,4.5611,-1.7203,8.4227,12.6285,6.5928,-19.4569,
3.8879,2.2923,-6.8579,2.5234,-5.8165,-6.5329,-4.6248,-1.9881,4.7532,-2.0829,5.5883,22.9318,6.663,-7.2293,
5.5188,-11.8234,0.076823,-11.728,-10.1266,-20.2409,4.9718,-8.3913,-2.0553,12.1421,-3.1336,13.1685,2.5367,-20.8956,
18.6996,-10.6478,-4.1215,-15.0954,-6.2578,-20.3026,-9.4265,-4.6266,-8.9206,12.6897,-8.071,1.6622,-4.6051,-30.2362,
29.6921,1.174,-4.8054,-7.6669,8.2176,-4.9844,-7.3408,-4.3485,-5.59,-2.1717,-2.9272,-3.0971,-2.4651,-19.1033,
17.6598,2.0352,-3.5855,-15.5934,0.1483,-12.2616,-10.6287,-5.0202,-4.3229,-5.6475,-5.5474,-0.11542,-4.1804,-16.093,
18.4635,7.5038,-0.5754,-10.9312,-13.9606,-10.5943,-20.2417,-4.719,-0.3361,8.7913,-6.147,3.619,-3.9305,-14.1957,
30.4023,13.5769,2.2558,-3.7512,-4.6146,-0.63951,-15.2989,-6.2991,1.5482,7.2104,-2.0499,-4.0531,0.96533,-16.1398,
28.1123,9.5006,3.518,0.66717,9.7623,2.6596,-10.1876,8.1788,0.057877,-3.9388,3.1981,-12.6623,6.9649,-11.9098,
22.2319,1.9419,2.8406,-2.6349,1.5994,-2.6253,-17.4976,21.5441,5.1789,6.082,1.6083,-9.5739,5.1482,-4.2065,
29.7512,7.882,0.34017,-9.466,-2.6899,-12.2519,-14.1177,6.1515,4.4023,8.9788,-6.409,-0.14619,-2.1489,-11.8749,
21.9091,8.807,-2.0098,-5.6359,4.4611,-25.6167,-9.0778,-5.2778,-8.4421,-5.0719,-11.1498,-6.1944,-9.0095,-25.2624,
14.0704,5.4827,9.2932,3.0888,-2.3299,-13.2418,-2.9415,7.152,2.3152,9.3324,3.6192,-8.6186,5.5092,-9.6467,
17.8857,8.8817,9.6677,3.8347,-7.7813,1.6527,-4.6296,2.9959,6.8358,17.9684,9.8031,1.2172,11.7015,5.0321,
24.7338,6.9509,13.2805,-2.4524,-1.2574,-10.2165,-9.4764,-3.2409,-6.1546,2.7903,-2.4338,-3.0496,1.215,18.8302,
26.511,5.1359,21.3365,0.95682,0.21597,-13.7972,0.87672,11.0536,3.9991,-11.4771,11.2242,-13.5827,7.1991,20.7185,
14.6704,3.8961,5.9563,0.89941,-2.5928,-0.85446,-1.9708,9.8032,3.7592,-2.1565,6.8242,1.3322,7.6997,25.9987,
-0.30978,-8.4517,-8.5011,-13.2546,2.2219,-4.5315,-13.0359,-4.885,-10.5664,-7.6188,-7.6853,3.9263,-6.8623,10.3387,
10.0809,6.1554,6.109,1.6407,16.1886,-5.1909,1.8463,9.5081,-4.2194,-11.8212,1.2838,-9.3554,-0.7376,14.4998,
4.3511,6.1297,-2.9877,2.0085,9.9701,-4.4136,-0.71582,15.9263,3.0229,-4.1228,4.4684,-12.9873,1.6367,15.9589,
-10.01,-8.3381,-16.9085,-12.212,1.4511,5.6353,-14.7729,0.8707,-5.0793,-2.478,-9.8997,1.8919,-6.3832,5.2164,
-2.2985,-15.6368,-5.9872,-9.0284,6.0232,-2.1578,-14.2305,-8.8447,-10.3662,-11.6475,-13.3773,14.2365,-6.9318,0.24432,
11.9394,-7.2437,0.89528,0.83245,9.3901,-16.0056,0.72329,1.0051,-5.0842,-7.2212,-2.3239,4.9948,0.939,5.8213,
6.4413,-11.4681,-5.6817,1.7141,0.43926,-5.7271,2.4214,15.0448,4.5391,0.66698,8.998,-6.4873,7.406,15.7228,
-1.4001,-16.3717,0.24993,-0.25199,-11.7011,8.7165,-0.51881,15.8836,8.9267,-4.9647,12.1856,3.2211,9.7574,26.8935,
5.2072,-4.207,7.6899,-0.23776,-8.2041,-3.1106,6.9664,14.9306,8.3902,-2.8026,8.6586,17.1278,11.9669,23.4157,
2.0989,6.2962,1.6377,11.8914,-4.9161,-15.0389,0.025977,15.898,3.2277,0.16047,4.4116,2.0001,6.5898,12.6925,
-2.2203,-2.934,0.1411,10.7121,0.50472,-0.036581,1.4219,7.0234,5.3641,6.2083,7.4086,-3.2457,2.9328,13.3284,
-12.3378,-16.858,-12.9131,-4.0306,-3.253,-3.4178,-6.1184,-7.498,-9.0578,-4.4149,-7.136,6.2682,-11.3432,-1.5713,
2.3807,-9.2014,-5.6159,-1.8037,11.0422,-6.9402,-4.8196,-2.2663,-7.4609,-11.605,-8.4493,8.6879,-4.9492,1.4406,
15.2839,1.601,8.8211,8.5557,24.4796,-4.6601,4.7882,11.9696,7.0868,-12.7724,6.1577,-5.9334,9.4478,15.4542,
19.4927,6.6299,9.5679,15.0315,17.641,-2.9821,4.9668,16.2542,6.0735,-5.017,11.7234,-7.7851,8.2928,18.598,
12.7315,-2.1545,-5.1061,0.029602,5.4002,-16.7814,-9.3086,3.1649,-5.4733,-2.8518,-2.0265,2.0002,-3.3871,3.3821,
0.31986,-14.6047,-8.8708,-14.0722,-5.64,-17.1724,0.10278,-7.7411,-7.4736,-3.1469,-7.962,7.9381,-12.0367,-3.6868,
-5.7564,-16.9905,-6.9407,-6.461,-10.427,-3.5618,11.7444,-8.6746,-0.96814,7.7589,-5.1547,14.4505,-12.7124,0.72723,
-7.2747,-30.071,-13.9787,-8.8687,-7.9376,-11.7342,-3.0603,-20.2686,-2.7738,10.0888,-9.5041,6.1289,-13.8134,-1.1801,
-6.8391,-37.4637,-15.0042,-5.5408,-1.8697,-15.6901,-16.9767,-15.325,-9.1306,2.9601,-13.5938,5.7612,-13.9163,-1.1093,
-13.4174,-45.0012,-17.366,-11.2662,-2.2238,-18.9425,-2.2021,-11.1443,-19.2998,-3.2745,-15.1078,14.2675,-13.5476,-3.3732,
-12.6128,-44.164,-14.4603,-14.3173,-2.0908,-15.9422,6.317,-24.4534,-13.4823,0.649,-7.6785,4.0928,-13.6668,1.4887,
0.25887,-27.4142,0.50731,0.64176,7.3537,-1.0074,3.1422,-9.9396,1.4267,4.3375,3.033,-5.471,-9.1193,15.4994,
4.9029,-11.6693,12.4696,6.0727,19.027,-14.9248,7.6132,4.7567,-2.5086,-10.0227,-4.6035,-1.4157,-5.7759,6.9932,
8.3353,-10.2815,4.2665,10.3674,30.9311,-28.1293,21.2564,15.5315,-11.6763,-21.4132,-4.3281,6.1241,1.0931,-2.7455,
12.961,-0.81133,5.4079,23.8454,31.4052,-28.6497,31.5075,9.4747,3.1242,-6.0284,10.0315,-3.0957,8.9491,11.5192,
1.4668,-2.161,-3.7689,12.9738,15.4209,-32.0557,15.517,-5.1938,2.8141,6.3256,3.7171,-11.7632,-1.3728,10.7063,
-6.542,-4.3613,-1.2137,9.8653,0.39564,-44.2323,0.48601,-18.9822,3.112,13.8668,0.23245,3.0425,1.9712,7.7339,
-10.809,-5.9634,8.1778,14.8646,-12.4307,-47.5136,-0.23079,-3.7432,15.9714,9.3069,14.1963,16.96,11.1716,12.8611,
-17.1492,-6.071,5.3585,15.3715,-17.7418,-34.8783,-6.274,5.4555,13.6152,-1.0351,11.9475,10.1081,5.376,15.3515,
-17.0523,-12.2304,-3.3509,0.34924,-11.0861,-42.1043,-2.1705,-6.0546,3.4796,6.4815,-1.8164,8.5695,1.3255,16.2941,
-21.6208,-19.8832,-9.6723,-7.9369,0.76143,-48.8972,11.9379,5.4919,-1.3891,12.6159,-4.5032,11.7828,1.246,4.1341,
-19.391,-16.826,1.1588,4.6533,14.694,-31.9851,14.0175,-1.3609,-3.1691,0.67651,-1.4372,4.5525,1.1721,-3.5689,
-18.6943,-27.4656,8.0775,-9.7259,13.3456,-24.0085,6.1864,-15.3792,-6.2406,-5.4215,-15.451,-0.84643,-0.29659,0.83764,
-13.3784,-27.2151,8.9912,-17.4071,12.0799,-25.8297,10.0094,-28.5565,-2.6045,9.0037,-11.6063,13.3044,5.7787,10.5732,
-14.9062,-21.3885,4.258,-2.2627,3.4339,-33.1327,0.55603,-12.7431,-13.1644,13.0013,-0.19292,17.0439,-7.1484,1.086,
-15.4088,-10.3207,10.9921,0.5471,5.5575,-21.3603,-6.466,-11.8567,-14.7041,-1.8788,-5.3067,1.9212,-9.9807,6.1462,
-22.4055,-7.3719,8.9346,-8.3395,7.5536,-13.0891,-9.3401,-25.2453,-13.3564,-14.6908,-19.0883,-12.294,-6.1206,13.6977,
-25.7203,-19.9752,2.8069,-5.9749,-3.1495,-26.4038,-3.1881,-22.2109,-4.1676,0.29061,-7.1042,1.7337,-4.8217,-1.1015,
-16.7226,-16.9134,10.0939,8.4836,-13.2117,-37.7439,10.981,-14.3554,10.1825,14.3732,7.422,13.7442,8.5137,2.6916,
-24.5716,-17.2957,-3.0916,-1.9317,-13.8165,-36.8767,6.1288,-27.5941,7.1193,1.6186,4.5245,0.33969,8.4696,14.1784,
-31.9506,-18.5879,-12.6911,-15.9158,-1.3393,-34.1983,6.2269,-23.9525,-2.1603,0.12397,-1.8036,7.3084,1.9039,17.5218,
-27.7036,-3.3726,2.1704,-0.86085,-3.5889,-35.4089,15.6374,-8.4153,12.0694,14.2165,12.4047,15.7223,9.7105,8.5489,
-30.2351,2.2982,9.3729,13.2908,-10.3623,-30.9539,7.7104,3.1498,14.9504,19.7646,11.5382,0.67897,11.4574,7.5697,
-24.2277,2.6271,6.4805,8.6437,4.3595,-14.9967,12.3736,5.2908,9.8601,4.4787,9.4475,-13.4618,12.1674,21.2155,
-20.444,-11.6306,8.4217,7.6592,12.3627,-10.4912,18.6194,0.78004,10.666,-6.8506,10.279,-17.5359,9.1083,11.4342,
-14.5583,-20.5959,14.4397,-3.0511,1.3702,-23.9618,5.3882,-13.3668,6.2986,5.6745,4.0706,-14.6195,2.0385,-3.3518,
-8.5594,-7.7115,10.3112,-2.4018,-1.9732,-27.5276,-6.5837,-12.9092,-8.1794,-5.3821,-9.6856,-6.7537,-9.7325,-8.1543,
-12.705,-3.5213,4.1018,2.4015,-2.7865,-17.4894,0.33459,-1.8839,-15.4871,-12.5141,-9.1044,4.8339,-10.0802,6.4349,
-17.068,-5.6405,3.3894,3.6553,2.5052,-13.1788,3.5766,-0.37299,-1.9785,-4.7746,-7.1603,4.0776,-6.2142,6.3933,
-14.1802,-2.5058,3.1865,5.2997,6.0828,-7.7286,0.56663,2.4457,2.7998,-1.6919,-9.526,-2.6899,-9.5683,-7.9689,
-10.0678,-0.95797,1.5969,-0.14321,10.8437,-2.139,7.5217,-0.96273,-3.4248,-2.9887,-2.8979,-1.1301,-2.9368,-1.4333,
-17.8507,1.8958,3.3649,10.1157,-0.058161,-7.6019,7.07,-5.5645,-4.1514,-1.8773,1.9356,9.188,9.353,7.0397,
-29.36,5.9749,12.0158,23.6087,-14.1547,-18.7944,4.3162,8.8694,10.1977,8.9515,12.5364,14.6937,14.8497,8.9469,
-25.2688,2.3552,1.5104,17.4104,-22.5018,-23.7238,6.3868,18.4653,16.919,11.6765,16.9087,-0.2879,8.8325,11.6712,
-9.6527,-1.0478,-2.7735,2.2658,-7.0517,-15.3112,15.7885,3.2574,2.3915,5.8501,1.7942,-13.195,0.3818,16.0968,
-4.0699,-9.3719,6.7115,-11.9701,7.4714,-20.9154,14.8408,-11.0381,-9.8656,-8.4787,-12.4134,-3.0837,-9.8914,1.1532,
2.2317,-5.548,7.7063,2.8481,21.1231,-33.7605,10.6887,-4.5401,1.442,-4.7084,2.4314,-7.0929,-1.3772,-4.9734,
13.2807,-2.4188,3.5169,13.9823,33.9557,-32.0793,14.7069,4.1193,13.47,2.097,14.5222,-13.1902,8.9566,4.6436,
17.1425,1.4533,17.4059,6.6196,46.0184,-16.0546,19.4157,-10.2279,10.798,-12.0066,12.7188,-15.195,10.2821,6.2287,
23.103,15.4661,25.0926,15.0757,42.1812,-21.2701,17.7849,-1.5721,5.9569,-18.2753,18.0131,-13.8166,11.9952,-0.20245,
29.1714,10.2226,11.4726,2.9883,34.0591,-27.4493,7.3992,11.5683,2.8041,-15.3151,11.3411,-1.8056,7.5484,-14.2903,
16.7049,-4.4907,5.6588,-10.7029,17.9156,-14.1537,-6.5576,-3.2258,-8.0812,-8.3391,-3.4393,11.8146,-7.0045,-27.5329,
1.7249,-3.6337,-0.2719,-9.1287,3.4509,-9.5765,-14.5503,-17.1322,-19.7099,-2.2476,-17.333,2.7196,-16.2474,-30.7618,
11.4054,6.3693,1.1419,-3.456,15.8237,-13.1961,0.42273,-2.0043,-4.4273,-2.5786,-10.4587,-3.501,-9.2159,-25.6554,
12.5857,2.2601,13.1887,-2.3166,13.0115,-19.8588,8.1968,-2.6934,9.9383,-7.0825,-2.3749,2.3011,-13.3216,-25.0472,
-2.2694,-8.1267,3.0779,-8.7013,-1.8692,-27.9869,-6.395,-16.6318,3.0401,1.7286,-1.3012,2.1617,-18.1135,-20.749,
-9.9322,-1.5812,-6.8913,0.6745,-10.4886,-27.7047,-20.1113,-8.523,-0.40351,15.7249,2.9706,9.0216,-5.3781,-21.8337,
4.7637,-6.6126,-4.1483,-11.9463,-1.9381,-31.1678,-28.9123,4.5687,-6.4363,13.7279,-7.9247,8.9466,-9.2491,-34.6236,
8.5489,-1.5558,1.6923,-18.6844,-7.4125,-27.4335,-14.131,-1.2962,-7.9134,-1.1957,-6.5166,-4.6368,-8.6942,-22.6391,
17.8205,12.6375,13.2385,-3.4634,3.7483,-11.6875,0.81689,9.4977,4.2092,-1.4685,7.9744,-12.2798,5.9275,-7.1807,
19.0808,25.9793,11.0463,5.9409,12.3754,-2.7215,7.1694,11.2574,0.69541,2.8134,-1.0134,-10.1451,-4.8007,-17.1233,
5.8219,10.3205,0.13365,-8.5156,-0.48116,-16.6582,-7.3608,-0.60046,-4.938,3.5762,-7.4758,4.5636,-13.8318,-12.3684,
-8.6274,9.5791,-2.6706,-7.8833,-14.4301,-10.8782,-17.9802,-14.6644,2.8137,-2.2296,4.1556,14.4183,-10.2056,2.4737,
-8.9196,15.528,2.1492,-2.7499,-4.2456,-4.6335,-15.0368,-7.1395,8.2361,10.0187,8.5658,19.1453,-14.2528,13.3868,
2.798,17.3913,-0.77561,1.1426,0.66825,-17.402,-15.0671,7.3889,4.9461,23.5176,6.1877,21.7241,-10.6018,10.7194,
-7.1544,2.2478,-8.6494,-11.5072,-12.8838,-24.2791,-18.3568,1.6984,-2.3393,8.0065,3.4868,6.9078,-2.0454,8.6783,
-9.0556,2.2347,-1.1418,-9.4188,-12.577,-11.1737,-11.1984,-5.3931,-6.3927,7.5261,1.8797,7.8912,-8.9113,7.6913,
5.001,12.8172,-1.5391,-1.8637,2.2776,-5.3775,-6.3323,4.7154,-1.8159,19.6553,4.0969,20.9301,-12.57,17.9464,
-4.6186,-1.9296,-15.5467,-15.8519,-2.1737,-16.2376,-18.0668,-2.0903,0.15682,4.4973,1.0549,8.4915,-2.4971,18.7334,
-9.0006,4.7095,-3.3093,-12.9161,-16.0215,-13.4001,-14.187,-2.8966,3.8749,0.50002,-0.87173,7.0504,-1.4156,7.3586,
4.1202,11.416,6.6733,-4.2195,-10.8669,-11.1977,-11.9383,-5.0528,5.9724,4.6633,-3.1494,10.8206,-15.4307,-4.7311,
17.3845,12.1285,1.148,-3.5005,3.8851,-7.2642,-19.1428,3.1712,10.739,-0.74142,-2.4946,5.0465,-7.8598,-3.0489,
9.8182,11.4008,-2.6484,-10.7454,2.1319,-5.8967,-19.8584,9.5042,7.2988,-5.3569,-3.2766,6.607,-3.6607,-3.7985,
12.0249,12.5809,10.5562,-10.1007,-12.0961,-10.202,-12.1436,4.2748,4.9976,7.0794,3.4433,19.2571,-9.0318,3.8844,
16.4283,15.0868,13.1845,-0.64226,1.3322,-10.9883,-19.3357,-3.9033,-7.883,-0.33446,-6.5482,4.0017,-13.6157,0.38965,
4.2602,16.0458,5.871,-0.60373,15.3523,3.771,-9.789,8.4458,-13.9324,-9.6335,-12.6786,-10.3384,-2.548,-8.952,
-10.0954,6.6965,3.6546,-10.8183,0.33117,8.0821,4.8983,13.5298,-9.369,-9.0555,-5.3946,-0.62126,-3.3268,-4.6874,
-20.084,9.5559,9.4932,-3.1796,-1.0866,10.8593,16.1313,4.7977,0.97761,-8.0459,2.8502,13.516,-3.5935,9.6939,
-10.492,7.1188,8.9232,-11.3759,13.0786,6.4798,1.1848,-3.8772,-4.6722,-8.4952,-4.7761,18.6398,1.2817,9.4563,
-16.3853,-2.627,-0.93088,-12.557,-1.8061,-8.009,-12.9863,2.8783,-7.1873,-1.4618,-5.4208,6.3395,-3.4548,-5.2111,
-19.5954,-3.8668,-3.205,2.2964,-2.1636,-15.3274,-14.4149,16.8056,7.3439,10.2741,9.0045,13.8799,-4.6449,8.7353,
-21.6814,-1.3057,-1.6153,-1.6906,6.8186,-0.30778,0.54998,5.4247,9.5765,8.2593,10.2057,8.8538,-4.8321,17.0645,
-18.5168,7.1596,9.6645,-4.3855,1.7508,-0.87692,-3.7976,-5.1511,-4.0443,-5.2824,4.0022,-5.7774,0.11652,7.6536,
-10.4171,3.468,10.4825,-5.5203,-0.68465,-1.2906,-7.7635,8.67,10.2984,-11.9541,12.6149,-14.1623,5.2349,5.7965,
-23.304,-10.8401,-4.2464,-8.4502,-4.8364,-1.6785,-4.0365,2.0927,17.0136,-3.3165,10.4601,0.78745,-1.1362,7.7782,
-24.7011,-7.7379,-1.5398,-7.0111,-3.6141,0.28593,2.7294,0.10345,8.5375,7.1337,8.9004,14.8402,8.2506,7.312,
-16.6967,1.1138,1.3475,-1.9314,3.1251,2.1321,3.4973,14.1972,0.57027,-4.4768,7.4347,-0.15021,18.938,0.34997,
-13.3649,2.4445,-8.5174,10.7653,-4.0515,-2.1891,-10.8125,27.4454,4.7302,0.91679,2.7953,-3.9904,7.0851,11.9772,
-7.9039,-2.3622,-3.3473,-1.0639,-6.6042,-7.6494,-24.2638,11.6987,4.4455,13.9075,-1.1007,10.349,-7.44,25.2368,
-1.3722,-2.6863,10.366,-9.8525,5.4411,2.5945,-10.4504,-3.1032,-3.742,-1.027,-3.3638,10.0721,-10.1334,9.6226,
6.6305,2.6003,19.5285,4.8387,13.9666,15.0191,4.2767,-0.58749,4.4038,-14.8214,5.6909,-4.6322,4.5746,3.5758,
8.0968,1.5126,16.4926,10.4836,7.5379,4.7988,9.0237,4.1069,8.7986,-9.2721,11.8727,-18.4543,18.4001,8.0204,
4.3494,0.95602,4.7874,-1.7937,-4.5626,-1.5457,10.8122,-4.9919,-5.8293,-5.4541,1.3754,-15.2397,3.1961,5.21,
2.6909,6.9561,-4.3532,-6.811,4.5644,-0.054573,16.221,-6.0899,-11.8801,-7.4569,-7.5595,-0.22536,-0.37777,0.70414,
6.7232,14.46,-3.6257,7.6977,18.3905,-2.3817,14.7814,8.3755,2.9327,-7.4757,5.4744,7.1218,7.5652,3.9231,
7.2515,2.41,-5.2723,3.852,11.1074,0.55698,6.4396,9.1482,0.30449,-5.163,12.6008,-7.4056,-0.34364,5.551,
18.4646,-4.7237,0.16982,-8.0274,7.1793,4.7169,3.7233,-5.5007,-13.8138,-3.4557,2.0599,-21.0612,-7.3121,10.3438,
27.607,9.5375,14.1374,6.432,20.8486,6.2976,17.4785,-3.6509,-7.7378,-5.1121,-1.7916,-24.6794,3.3769,7.8594,
14.7687,8.0331,17.0171,9.774,12.0209,6.8518,19.2252,10.6681,6.7051,-4.805,5.7712,-14.8116,16.2204,7.3874,
-0.21747,-5.9613,1.896,-4.3248,-2.8003,-1.4809,3.9717,-2.6741,-0.68628,-13.37,2.1633,-28.0229,3.599,14.8649,
-6.1392,-0.94359,-2.2892,-6.8611,-0.18051,5.1321,-4.0656,-11.8318,-7.1684,-9.7719,-4.4889,-12.7073,-0.34442,12.1097,
-7.6355,-1.8191,-1.2207,-12.0407,12.8764,-2.6312,-0.094642,-6.4633,-8.602,-0.7986,-9.8116,2.0329,-3.1191,-1.663,
-6.7111,2.4829,-2.5453,0.33043,8.8418,-11.3262,-12.6693,4.6416,-5.7563,4.3747,-9.6892,-10.6694,-7.1257,4.4938,
-3.5126,2.3348,1.3357,1.2423,15.7671,-0.39586,-0.72583,0.63559,-9.1384,-1.4794,3.0071,-13.7567,-7.6298,7.9516,
-8.8935,-7.1244,4.0505,-7.2197,11.0927,8.0145,13.4177,-13.5025,-12.3176,-12.5731,10.2816,1.0469,-6.2404,2.8145,
-14.4173,-12.7544,-3.1816,-8.184,-3.6729,-2.2513,-1.4873,-12.1048,-8.3169,-13.2161,-3.8477,0.51828,-5.4001,3.1124,
-16.3477,-8.2612,-2.9903,-8.6242,-11.251,-8.6391,-15.4981,2.7215,-5.9541,-1.2412,-11.0713,-5.104,-3.2124,7.5852,
-23.7538,-7.766,-3.7429,-1.5839,-8.7122,-4.3937,-6.5257,-5.0185,-11.1881,7.2203,-11.3391,-0.13822,-4.8834,2.4705,
-12.0774,-15.687,-0.72299,0.37487,-19.3723,1.462,5.0478,-16.8319,-3.994,2.1275,-11.5909,-1.062,-5.5225,-0.47397,
2.7472,-0.64581,13.4204,5.4782,-4.6976,7.4317,12.6666,-1.722,7.8948,-7.7842,-1.1105,-15.0983,4.5938,9.3394,
-5.461,13.4929,16.6867,16.331,9.6843,-2.3333,2.5875,12.4814,2.7611,-14.7721,5.4794,-27.583,8.0456,14.3707,
-6.5308,4.9849,11.4922,21.4086,8.5156,-10.1149,1.0339,7.7606,5.8571,-5.965,6.5481,-18.0073,11.7562,17.7017,
-7.0706,0.026669,11.7343,14.5333,-6.0953,-6.7122,1.9044,-6.8051,5.5056,-3.7438,3.3594,-17.8585,5.4601,11.9805,
-18.2951,3.2863,11.4965,5.7402,-9.8007,0.68008,-4.2669,-2.0804,3.7774,6.2662,7.3516,-19.1165,-2.7887,11.7271,
-20.4585,-2.9679,-3.2933,9.5895,-7.8156,2.9688,-4.4772,12.1444,8.6761,19.9902,6.4442,-7.2525,-2.1551,18.013,
-8.0491,-5.5852,-10.8947,16.4686,-9.2104,3.7228,3.2468,8.964,9.0877,12.6116,2.3305,-2.1587,-1.0946,16.9318,
-6.634,4.0685,1.8735,8.026,-2.1341,7.2264,-3.4708,8.4257,6.6787,-2.2451,8.7136,-7.6195,-0.09687,11.2572,
-16.9526,17.3368,6.886,18.2601,-1.5402,13.782,-8.3884,22.0202,6.7438,-2.4549,10.5207,-8.5607,4.1022,14.7742,
-10.81,12.1029,-7.6271,15.7675,-4.7099,12.4897,6.2149,20.5776,-5.3095,11.7924,-4.2105,-1.0584,-1.2684,13.4223,
-1.7749,2.0585,-13.1047,0.72144,2.096,4.2854,6.1865,5.243,-18.9683,4.906,-18.0579,5.5284,-12.3747,-1.483,
-7.7254,12.6511,1.7815,7.7886,15.4822,6.3578,-8.2847,6.4481,-11.7732,-9.4883,-9.2759,4.7313,-3.7119,-2.6702,
-9.1256,13.7558,8.542,6.3901,15.4854,12.4992,2.1191,18.1757,-4.5439,1.9193,-1.264,-4.8712,8.6253,10.5371,
-7.1806,6.873,1.0403,0.88086,10.363,12.215,16.092,10.096,-14.9879,7.8616,-12.8364,-16.228,-3.5404,1.9832,
-7.2156,11.5864,6.1029,14.928,20.4578,17.5396,14.0721,17.411,-2.4404,0.40083,-0.41796,-12.9244,1.7969,5.1259,
-14.7034,3.9021,11.7942,15.7738,5.1303,10.4298,-0.87219,12.1731,11.806,-9.4081,10.3237,-8.8873,14.269,16.4665,
-24.0715,-0.99156,7.3595,14.8278,-9.2775,0.48531,-12.3459,-2.6573,12.3738,0.47501,2.2489,-8.3536,6.89,11.7515,
-36.6054,-2.7954,-6.1287,11.1424,-14.5343,5.1153,-0.42271,3.2151,8.8356,6.9698,5.8414,-18.1031,4.6133,9.1831,
-38.6024,-4.9576,-13.6817,6.2805,-1.0815,0.61509,0.06848,-1.1711,12.4987,3.29,11.5484,-17.4836,5.734,14.6887,
-22.1863,-3.2627,-4.0084,7.302,-5.2099,-9.2059,-7.8564,-10.8858,4.7606,11.9459,-1.7244,-2.3346,3.9925,8.6825,
-22.3752,0.66052,-3.7679,4.0672,-17.0123,1.5964,-0.8626,1.8814,-6.7084,11.2282,-10.0084,0.013674,2.8204,1.6382,
-28.0218,7.61,-2.1435,8.0174,-17.389,8.4897,2.4508,15.8686,-1.18,2.6338,1.3087,-3.2488,-2.4738,7.5974,
-25.4084,2.4938,3.5755,8.4675,-11.687,-6.1197,-5.1516,13.3967,8.2086,7.1353,6.8214,0.67316,-4.1891,9.936,
-29.9409,0.9463,-4.5594,14.949,-14.247,-10.7557,1.2145,5.6034,7.2507,5.3093,4.0826,-4.4926,10.1623,9.8061,
-36.9978,4.1507,-7.5479,18.2449,-22.245,3.9897,12.7903,-0.78984,11.941,-5.7263,12.6896,-14.0075,21.5448,14.3432,
-41.3007,-4.4845,-3.3671,3.0502,-25.5698,-5.2248,-1.0233,-14.8424,18.679,-9.1098,13.7928,-18.7583,9.0693,9.7547,
-38.3569,-0.95419,-5.4947,6.2506,-18.9103,-17.4916,-6.0872,-12.4318,18.0245,-8.0969,7.8399,-10.6441,6.1956,8.704,
-41.6467,2.8305,-10.7566,8.6714,-15.9115,-6.1913,0.80128,2.4141,10.4198,-2.0203,4.5736,4.0945,18.8704,10.9776,
-34.4883,0.79741,-4.5196,2.5604,-12.161,6.2951,-6.7017,1.2159,-1.3869,12.2009,4.2992,2.7963,11.2158,7.5231,
-18.319,-2.0458,-5.1805,5.2021,0.68229,4.0536,4.8832,8.5983,-1.3041,22.5299,4.9734,-4.8268,-3.4358,5.208,
-8.9551,-0.060218,-16.0525,1.1621,10.8917,3.81,18.568,12.7411,-0.29469,21.1777,0.015404,9.5628,-2.2985,2.1001,
-9.349,7.3997,-11.3614,-3.5663,4.6478,12.9,9.9994,-2.1234,-8.6631,11.5209,-13.0317,20.9813,-1.2276,-10.1404,
2.3935,6.0231,3.2985,0.37515,4.3681,16.7851,11.2628,-4.6696,0.24322,2.4421,-6.659,5.6224,3.5052,-3.0087,
-6.6021,-4.1227,-5.7523,8.2738,-3.8143,1.678,0.8025,-0.19569,11.8773,-7.4889,7.2534,-8.815,9.3519,11.2719,
-20.1846,-3.8758,-17.5216,11.5044,-17.6854,-12.5226,-3.9052,-4.8435,11.1642,-6.1074,9.6136,-21.5549,16.2453,10.9387,
-4.8735,2.4146,-5.7533,3.8255,-6.7176,-5.9356,10.4291,2.4358,8.1648,-7.1389,9.503,-14.2037,14.8052,7.9537,
3.2178,1.3377,0.18308,6.3913,7.7854,2.8075,21.3298,13.4725,5.8112,-7.6427,8.0007,-6.8286,7.394,8.4086,
-9.0893,-1.5384,-4.4879,10.667,9.9919,-4.8168,5.95,5.2092,4.5309,6.9159,6.5891,4.7635,8.8137,8.8357,
-8.5444,1.3493,-3.2865,8.1632,0.073736,-9.1864,12.2376,-6.2862,1.4636,9.1745,5.2616,7.2731,12.9444,5.5093,
4.5486,4.5295,-4.4873,10.003,2.3989,5.4648,19.4246,-1.7153,-0.95462,-0.22878,6.3438,4.5071,7.974,4.7134,
9.8673,-5.0605,-8.8771,2.8804,1.3233,14.7996,4.1591,2.1151,-0.89646,10.0357,3.1674,10.76,-2.7552,6.2939,
10.2069,1.7656,-4.617,9.23,2.1755,-0.067491,-10.1904,0.124,-2.7068,2.9103,-1.6827,10.1144,0.20593,5.9162,
23.6945,15.7596,4.047,17.9948,16.145,14.0366,4.521,11.2994,5.8426,-11.3643,4.942,-0.74279,14.2936,11.1524,
27.7427,16.5573,-0.85537,3.8699,16.9187,25.1875,18.3497,18.0768,2.6967,-8.6965,1.8501,-4.4252,11.4509,3.0288,
11.9782,1.4639,-2.202,-4.2844,1.8036,9.5763,3.1487,10.9343,-4.4547,5.9253,-4.3188,7.488,-3.3362,-5.0741,
-1.6649,-10.6175,-7.1948,-12.8797,-12.4046,-5.0983,-11.1402,-3.8218,-10.2449,2.6526,-9.1846,12.1637,-10.4696,-6.1671,
12.535,2.1344,-12.3547,-6.5153,2.4396,7.5656,-9.2961,8.1784,-11.4935,-4.0299,-13.2926,3.9789,-7.9772,-5.7971,
25.8829,8.9959,-2.7606,-0.06734,4.7442,15.9645,-21.3178,21.1997,-11.2692,-9.8451,-16.6879,-9.7717,-7.9649,-9.643,
31.5409,6.1262,1.5983,-4.2566,-7.1887,4.2901,-12.118,9.2111,-7.3323,-8.7886,-10.5617,-3.128,-5.157,-4.8711,
23.5909,4.3603,-12.0091,-10.0587,-19.3381,-2.0239,-16.5167,2.601,-16.6764,-4.9996,-15.0538,11.1597,-12.7683,-6.908,
32.4258,11.554,-4.7657,-10.3872,-20.9732,12.1975,-29.6257,16.5449,-10.0855,8.3465,-10.4227,24.5901,-15.7301,1.8926,
37.4694,9.4624,-0.28647,-1.8432,-25.7723,17.4,-26.3285,14.9642,3.1003,5.5157,2.7825,13.5516,-14.3205,10.6324,
40.8124,11.6901,-2.133,5.7227,-15.8389,4.2416,-13.5668,13.1351,9.4372,-5.0655,11.0026,3.4198,-9.7342,11.8581,
35.5687,11.9212,2.6541,-3.0072,-12.0928,-10.1129,-26.8528,23.5294,5.1435,-9.4216,2.8875,-3.3086,-11.0135,-0.03574,
41.8207,15.8655,7.1544,3.6961,-16.0268,-13.1114,-25.1194,17.4581,5.7669,1.3949,4.578,-3.1097,-13.148,-5.6257,
53.2897,16.7768,0.20184,-1.1857,-16.9293,1.7753,-9.5122,3.364,4.4884,-3.3488,8.0308,-1.0598,-11.4275,-18.3338,
52.4223,25.5551,2.5197,-2.512,-10.7878,15.7688,1.6533,9.2197,5.6175,-14.7961,7.0831,-2.3937,3.3581,-26.0862,
39.9579,21.226,7.0277,-3.2929,-0.82228,0.72264,-9.6283,6.8023,-0.31124,-9.2492,1.0665,-0.38678,8.1598,-19.8619,
31.9696,10.6342,8.4702,-11.4819,1.0912,-12.0224,-11.8464,7.3267,1.5716,-8.6934,6.5941,3.3648,-6.308,-14.0111,
23.0624,14.1895,2.8361,-5.6681,-11.5541,0.3472,-8.8056,12.9446,8.4664,-18.8883,12.256,-4.7587,-11.0545,-13.6362,
24.4744,12.4056,6.3934,-5.328,-3.4059,3.1213,0.10927,5.6446,5.1626,-11.2326,5.929,-5.4049,-10.3912,-9.0906,
37.106,13.9912,19.5222,-5.4742,10.8984,8.0598,4.2969,2.9759,-0.27207,0.15878,-1.4159,0.045247,-18.6201,-12.7385,
42.6786,18.7434,11.8276,-5.1457,-3.8555,21.6762,-7.1442,11.1848,-2.119,-7.3057,-3.1942,-3.6849,-20.2987,-20.3607,
28.9355,13.8913,0.8672,-12.2919,-17.7241,16.5264,-8.5788,10.5129,-1.9928,-7.7999,-5.7984,10.6362,-15.3533,-11.6842,
25.3352,11.1937,1.7477,-11.5544,-3.9591,1.4348,-6.2008,8.0188,-5.6007,-0.80859,-10.1096,21.0586,-23.7513,-14.7106,
30.3388,16.1133,9.0973,-14.5881,8.393,-2.2565,-3.965,11.2647,-3.4009,-6.3513,2.6106,5.6951,-22.3257,-24.0791,
27.5864,17.0102,16.0069,-19.3049,6.9582,10.925,-4.6583,4.066,-1.3331,-18.0847,9.9093,-8.7466,-12.5992,-17.0432,
33.8519,13.6605,19.2397,-7.4301,8.8698,0.4846,-1.1181,8.0153,1.0769,-7.2147,2.3256,-10.3083,-11.3774,-7.1673,
34.1504,4.9196,15.7558,-13.9729,7.8714,-13.6445,8.7335,8.9323,-5.9773,7.3182,-10.3942,-3.6327,-20.4801,-20.8373,
25.5781,13.9436,20.4012,-17.7937,-3.7824,1.2742,11.0053,-3.7177,-14.9369,13.746,-14.4297,0.31269,-26.7054,-30.1814,
24.5092,21.9585,28.0295,-6.942,-12.4088,15.2977,0.56005,-7.6888,0.059331,12.4545,0.53612,6.3514,-14.3874,-14.2705,
22.107,13.1869,17.9612,-0.93383,-14.4601,2.1436,-5.996,3.0233,8.7864,6.1165,8.3029,0.37867,-8.865,-2.8204,
29.6339,16.589,8.0311,-6.0027,0.50754,6.2083,7.8762,12.6268,-5.2523,-6.8304,-6.2952,-1.9732,-18.1171,-7.7761,
19.4684,16.5253,2.8892,-18.6891,8.2761,17.0182,8.3344,2.5501,-7.7339,-18.5355,-9.0574,5.6002,-21.6901,-5.4462,
4.2003,9.4768,0.38723,-7.7833,-6.3205,5.281,-6.2657,1.0001,4.3797,-16.0245,5.586,18.7761,-11.535,-0.92572,
-7.5782,8.9077,-3.3639,-2.6568,-13.7402,-9.1359,-19.9897,8.3945,2.2523,-2.9495,1.8675,19.5133,-5.2517,-1.8023,
-1.066,6.9758,-5.4912,-10.4181,-0.33508,-11.7272,-14.8184,4.6292,-7.6669,-3.2383,-12.3446,4.2425,-19.0366,-10.5465,
-13.5828,6.0914,5.554,0.92356,-11.0315,3.0765,0.17067,5.7498,2.5772,1.1493,-0.29973,10.633,-21.5001,-7.5846,
-17.4274,0.13473,5.2212,0.8677,-21.5525,6.9629,7.9598,3.5411,7.0821,2.0124,5.3094,17.4495,-10.8914,6.9705,
-2.2818,5.7187,-4.4108,-9.4347,-6.1593,-2.7735,-5.5639,2.3966,-7.4428,-12.2083,-9.1091,2.3025,-13.9649,9.2272,
11.9552,9.5676,0.046726,-13.0623,3.8725,-1.2101,-10.3563,4.5823,-16.6594,-23.0023,-12.6341,-11.9356,-20.1166,-1.1118,
12.3926,7.1302,10.2947,-3.892,-6.6097,3.5225,4.3651,0.57991,-1.5598,-7.5221,2.224,-3.0543,-4.8096,10.1373,
-2.4509,-1.2183,5.4837,-2.2601,-9.4748,-10.7888,-1.1435,-8.3073,5.4011,4.4556,12.6853,-7.996,7.0054,12.7907,
-16.4039,-8.6006,-3.2323,-7.7157,-7.0426,-9.5534,-15.1749,6.1689,-6.1049,-4.1987,15.6512,-13.1074,0.99389,4.5679,
-10.9828,-1.5609,-16.0845,2.0659,-14.0754,5.1198,-1.0961,8.5942,6.3758,-1.1514,9.121,1.779,2.798,2.43,
-10.3238,9.7143,-13.2562,10.3285,-7.6392,15.8728,3.6288,-3.1039,10.6524,11.9642,-2.6087,1.5501,4.4934,3.2159,
-5.0448,7.2686,-3.1412,-4.3912,-5.3171,6.5334,-10.6889,1.7419,-4.0867,7.5185,-13.6341,-5.9983,-6.0265,-0.70408,
8.304,8.6962,0.77425,-11.4609,-8.726,6.1418,-4.3342,10.0244,-17.9415,-4.1146,-10.9524,2.7486,-11.2561,-3.4572,
10.1357,5.8444,-0.66967,-3.7841,-0.28082,9.0349,10.0259,-4.677,-10.564,-1.5386,-1.4428,6.777,-10.1149,-4.6481,
-0.25777,-1.4949,-0.16411,-5.8866,2.9972,-4.0875,-4.6757,-11.73,-11.3281,6.4749,-8.3449,0.31335,-10.9059,-3.903,
-2.1056,2.3223,4.5057,-10.1925,-5.5692,-15.9563,-13.7138,-5.4346,-17.1717,6.0864,-13.4359,4.9545,-14.9107,-7.3963,
9.2036,7.7741,6.0991,-7.7173,-1.508,-0.89888,-3.5723,-3.2448,-2.1627,1.9942,1.349,2.7935,-15.8798,-10.6804,
6.7872,11.0352,2.0057,6.8458,-2.3492,13.2551,-17.458,-2.1184,6.3536,5.602,13.3821,-8.5574,-6.5404,-0.72047,
-7.72,3.3839,-9.7629,4.9149,-16.3082,-1.6403,-24.2095,-4.3204,5.5066,11.3234,6.5217,5.4685,-1.0222,5.3802,
-21.3568,-4.7399,-10.5745,-4.2324,-23.5945,-6.3232,-8.6569,-11.0503,13.0969,4.5865,4.7329,7.4704,-6.0858,-1.0001,
-6.7853,-4.4555,0.30979,2.5448,-8.0789,5.2386,-8.726,-11.3198,15.1069,-9.7887,8.1764,-7.0779,-3.8573,1.8558,
1.5426,2.801,2.6212,9.3813,4.864,9.1176,-4.0082,1.9401,6.2798,-3.0221,-6.4142,-20.7532,1.499,15.8444,
-12.0619,3.0983,-9.1847,5.5563,-9.5279,7.1726,-1.4391,4.1533,-1.0866,8.807,-20.1293,-5.408,-12.6909,10.1115,
-9.9407,7.1057,0.21875,4.7571,-10.6982,13.7314,-13.9326,9.029,11.5594,0.3578,-33.0216,-0.768,-13.6714,9.9716,
-9.8106,5.2814,8.1268,11.4603,0.66075,-1.1925,-22.8811,8.0219,9.4679,2.6659,-45.1403,-10.5073,1.2489,6.1112,
-8.7557,0.7717,1.5822,18.6939,-6.3684,-13.1132,-7.4083,-2.2439,3.7745,16.6059,-56.5319,4.2231,-0.81113,-8.3555,
-13.3557,-5.3316,7.5443,6.8561,-8.3159,1.7736,7.1362,-2.5756,2.1501,14.5562,-67.24,11.3029,-14.8625,-2.1407,
-19.0768,5.239,21.0698,14.8314,3.3655,6.6708,4.6003,-3.3527,8.5444,-0.41722,-71.7926,-3.4753,-12.451,12.0877,
-10.4772,9.5838,17.0098,18.6006,5.9594,-7.8295,6.1885,-14.3339,5.2359,-6.7937,-66.5534,-9.6674,-14.4998,15.8998,
-8.4511,0.15549,6.2043,3.9721,-6.979,-9.5679,9.0788,-13.9406,-8.5907,3.3989,-76.6602,3.4925,-15.0281,0.84578,
-21.9223,-5.4446,5.8329,2.8031,-11.2184,2.1885,-4.5116,-1.9209,3.108,17.2949,-72.4042,17.2612,-7.6023,-2.3439,
-28.5277,-4.6521,5.0163,4.964,-2.6255,-4.0002,-12.1625,-3.204,17.0216,24.0562,-57.3438,5.509,-8.5445,7.5807,
-21.6911,5.412,-0.40965,9.7911,-3.8654,-14.4768,1.1471,-14.6599,13.0818,8.5128,-50.6416,-8.9216,-11.2935,-2.6581,
-8.741,9.2801,7.5352,11.5332,-0.37229,-0.096241,15.1782,0.31965,9.0357,9.9876,-36.8865,-2.6733,3.4841,-6.6924,
-12.8761,-4.3229,13.6069,4.3183,0.58214,1.7742,0.16755,1.5762,12.2214,9.3888,-34.6733,1.215,9.2108,-7.2229,
-16.2963,-3.5972,9.5292,11.0488,-4.5782,-9.0493,-9.1612,-12.6184,5.4303,-1.8916,-42.3778,-6.7791,-5.4419,-1.6642,
-14.8532,0.81146,7.5596,10.8512,0.8219,-7.1084,5.4885,-10.8079,4.6391,6.1431,-36.5735,0.61632,-4.0619,1.6969,
-21.4169,-2.9638,11.7651,8.3369,2.6368,-2.9545,13.8903,3.9406,6.224,6.7062,-26.9237,0.58022,10.2818,-1.1999,
-20.5977,-1.3885,14.3208,8.3025,1.0802,-4.1747,16.3185,9.6398,0.72563,0.24634,-26.7062,1.0112,20.2597,10.5203,
-20.7589,-6.4306,4.6088,4.5431,-2.2458,-6.2537,4.6232,-5.0386,8.6033,-3.0296,-33.0246,6.0759,10.1912,20.6061,
-26.9696,-4.181,5.2634,16.3842,1.616,-1.2199,-9.7542,-6.0119,22.1871,10.1983,-16.9431,1.9835,5.8519,15.6419,
-33.2722,-0.6685,16.5958,15.8669,0.12154,-3.4767,-4.8543,0.40537,24.9269,18.4388,-1.8265,-1.3972,11.5582,2.1226,
-34.5366,-3.89,11.4077,6.995,-8.7382,-8.3921,9.537,-4.7439,9.3313,4.7526,-9.4159,1.9483,6.6714,-5.9246,
-19.885,1.4687,12.1203,8.904,-1.2252,6.2114,15.3658,-2.1297,12.6202,-4.3854,-13.0447,-0.49816,8.6007,7.9419,
-15.4303,-1.881,18.3821,6.9723,2.11,8.5114,7.4548,1.2597,22.5796,-1.7923,-3.4091,-14.5683,12.2779,12.5912,
-20.0952,-2.6998,18.2118,8.4181,1.0517,8.0016,16.3266,7.7074,14.7024,7.6344,2.3871,-2.8558,15.2687,8.1083,
-30.0723,-12.7881,3.019,1.3893,0.056523,4.7253,20.0065,-6.7328,1.7058,14.6308,-11.8562,11.4155,10.6256,1.0989,
-24.0743,-8.7596,-1.2336,4.568,5.1785,-5.3427,11.8175,-9.5909,-3.5219,22.6058,-25.2448,16.6654,9.5218,10.8175,
-10.9811,-1.2454,12.3524,9.4193,2.5382,-2.6926,8.7789,5.0845,-5.6402,11.4649,-18.827,4.0177,9.4167,14.3613,
-11.2539,-3.9656,12.5438,4.1951,-5.069,8.6522,12.9113,9.7831,3.0857,3.3221,-8.3787,0.98081,6.0559,-0.60039,
-19.432,-4.1944,2.9378,11.8632,-13.6181,6.7347,3.2833,1.2753,15.4804,9.1794,-3.6827,6.0469,8.9542,-7.4308,
-27.1193,-10.9318,-1.4326,8.8223,-25.3809,-7.7693,-3.9028,-1.1312,16.8807,-3.0196,-7.6555,1.4908,11.6786,7.115,
-19.4343,-4.218,8.4387,8.7584,-11.2777,-10.9093,7.0484,13.0367,19.13,-13.5546,-8.5936,-1.8599,14.2391,18.68,
-11.2795,-0.70373,6.5345,5.9033,3.4989,1.3939,4.2959,11.2011,16.5842,-3.8885,-10.4075,0.58129,7.3277,3.4592,
-6.8757,-2.5252,1.4829,-1.9063,11.0871,8.7648,2.1735,-3.571,7.2022,8.4585,-4.1923,2.4101,8.7518,-10.8484,
-14.3835,0.88836,-0.003125,5.1977,-0.2934,-5.8611,-1.2181,-6.4966,-5.8103,0.030632,-6.2699,-11.8345,10.5562,-10.8851,
-14.4526,2.6979,6.5199,6.7495,-4.0037,-12.3759,2.5829,7.9932,-6.3937,-2.7675,-2.1667,-22.6508,16.4457,-13.0274,
-12.6533,-4.9185,1.4692,-7.6332,-1.8997,1.4128,2.4275,-1.9273,-1.3506,8.5814,-0.17252,-7.1918,12.6636,-1.9954,
-17.02,-10.6808,-8.4039,-7.6419,1.4759,2.7255,4.6119,-15.3241,12.8305,20.6464,-2.4922,0.10661,10.5063,12.2243,
-14.6004,-11.4383,-3.7064,-3.9218,2.7848,-10.0179,4.801,-0.30461,11.9389,7.7594,-2.8089,-10.6164,10.3417,4.8458,
0.37561,-0.96664,4.4372,9.8255,0.28815,0.36766,7.7741,13.8137,-2.8775,-6.2181,-6.8337,-6.7182,2.7317,-2.4345,
0.69711,1.8867,1.3756,8.3048,4.9304,14.3243,7.3081,-0.3044,-2.1172,3.4736,-13.8781,-4.4505,-3.0225,4.2353,
-13.4447,-6.1477,-5.6965,-0.11472,10.6916,12.9985,1.7442,-7.2757,8.7259,6.5264,-9.7842,-4.6497,1.3517,4.4465,
-24.6298,-7.1754,-10.4797,0.35887,6.7885,8.957,3.0379,2.0141,-3.4449,-7.9652,-7.7988,2.6184,4.5322,-5.6043,
-13.368,4.9025,-1.9301,2.6664,1.2562,14.477,6.1164,-2.3,-12.0915,1.9536,-5.9334,8.5187,1.9303,4.516,
-13.0318,6.9383,6.1073,11.3597,0.71504,18.7333,2.4887,-11.0153,-8.1044,15.9364,-2.3158,1.9502,1.3495,13.0983,
-21.1027,-6.9899,-0.31702,5.5528,14.7721,11.5523,-0.92273,-3.3648,-9.016,4.6081,-6.3706,-0.49641,9.1889,4.3912,
-12.3816,-3.7747,4.3611,1.4922,17.0252,4.3359,3.7917,10.9371,-9.4067,-9.7684,-6.92,0.46502,15.1608,7.8552,
-8.3779,8.0991,9.2244,12.1183,1.9037,0.8141,4.0301,8.7607,-11.1723,-12.3221,-2.3119,-0.028703,8.1937,12.5088,
-13.9318,0.62493,2.6143,9.0621,-4.612,7.7544,3.3224,-5.8649,-3.5129,2.5172,-0.77531,6.0296,2.5763,3.8375,
-17.2892,-5.47,-0.80417,2.4609,8.2455,14.2782,3.5898,-14.7095,-3.7679,12.4952,-2.1263,0.54289,1.0242,-10.4927,
-12.5244,1.3815,2.0399,2.3133,6.8182,13.4215,7.101,-1.7129,-5.406,9.8813,1.7288,1.442,3.7586,-0.88807,
-21.5579,-5.6905,-4.14,-5.7463,-3.3758,0.968,2.4816,3.5148,-2.7517,5.0951,-0.70494,2.7538,10.5222,3.3585,
-32.8447,-4.8833,-0.62991,-1.2082,2.8842,2.3074,-3.7247,-9.2759,-3.984,-7.7914,1.6674,-10.9238,23.9909,-1.0363,
-28.0782,-0.86282,4.9995,4.4559,2.7111,6.8281,3.9546,-14.311,-2.8133,-12.9146,9.9539,-20.5192,26.6229,-5.6332,
-17.5407,-1.2764,-3.2216,6.5181,-6.3044,1.293,5.1143,-2.7353,7.1399,-8.8786,12.6183,-18.8217,10.9255,-5.7615,
-3.4421,-0.2682,-1.1651,9.8545,-2.1986,6.8071,-9.2925,6.747,15.0981,-9.2775,18.3845,-9.3059,7.1306,8.5624,
-3.7014,-3.5138,1.2348,5.0699,-14.6466,7.797,-16.5331,8.6722,9.0673,-9.1867,13.0881,1.9691,16.4868,0.12791,
0.71442,-0.041726,-6.7596,4.2995,-27.8678,-4.3195,-2.0291,6.754,0.60207,4.8765,-1.7972,8.8405,8.5089,-13.9798,
14.7716,1.3587,-10.5477,-1.0839,-12.0957,0.13341,0.42218,0.2917,-3.6269,-0.54147,0.29619,3.1847,-0.85446,-7.4276,
18.4226,1.7434,-10.3811,3.1749,2.73,11.7732,-8.456,4.4679,-11.3305,-14.0209,5.4038,0.66404,4.3222,7.1181,
7.5323,6.7638,-4.6324,0.6544,-11.5338,-3.0332,-8.4145,15.8481,-18.5714,-3.3947,-8.4324,1.09,-7.5854,-6.4778,
18.729,20.4579,9.7455,-1.7144,-8.5118,0.066829,3.7391,22.8184,-8.6043,10.9089,-1.8694,4.2858,-8.5282,-9.3503,
23.6623,18.177,4.379,0.718,6.0989,10.779,-3.4748,7.3493,-7.6218,-3.8456,5.2319,-2.96,6.0835,-11.1189,
31.095,9.1657,-9.9837,-7.2458,10.2699,3.1431,-10.2554,-4.1527,-5.767,-17.7149,2.5879,-3.2482,19.5745,-20.2367,
43.3293,22.7157,3.7836,-1.6853,3.5971,0.62541,-2.6501,5.8814,-1.2277,-9.0753,5.6948,5.7991,4.3,-15.7608,
32.2216,24.0264,5.8862,2.6087,-10.7187,4.7807,-6.6848,7.858,-2.5519,-7.1328,3.0231,4.0532,-10.058,-14.3489,
27.4925,8.4848,-8.567,-5.0028,-24.1756,10.0855,-20.3838,-1.9326,3.1928,-16.9556,3.7733,-2.7133,3.8352,-6.9656,
39.9429,6.6991,-17.7161,-0.5093,-8.625,12.7412,-30.6881,-3.2141,-2.1246,-23.859,4.0128,-16.6505,1.276,-5.1493,
43.4812,20.3972,-7.334,6.9762,5.9925,7.3176,-14.7468,9.0928,-10.3837,-19.6317,0.044965,-19.7229,-12.9006,-16.9544,
36.2127,28.3702,2.4247,10.2855,0.041266,11.5381,0.23803,6.6835,-8.8286,-6.3402,-2.7536,-4.4396,-3.6177,-16.8692,
32.6429,20.6119,7.4046,8.2705,-2.2908,21.5628,-2.3489,-5.3653,-8.7651,-16.6759,-2.1221,-11.2832,6.3838,-14.4591,
34.4114,8.1923,2.3007,-6.2035,4.3695,10.0178,-4.0717,2.4111,-17.5579,-29.7753,-4.7906,-24.7062,0.40959,-21.047,
46.3245,21.8008,4.0264,7.2148,2.2436,2.8939,-2.8962,16.3665,-13.709,-18.5479,-5.4352,-9.1238,-0.54707,-16.9888,
52.3979,33.8825,4.2511,14.7022,-4.8797,11.5731,-11.5753,7.3419,-8.6927,-15.1055,-8.3708,2.1397,-5.6396,-8.9799,
43.1974,21.1338,9.1219,4.9677,7.993,16.9362,-9.4824,-1.951,1.6138,-16.5292,3.7802,-12.0887,-2.9712,-3.3162,
26.5056,10.08,-0.27874,-4.1836,7.0476,1.82,-16.8351,4.2227,3.846,-4.8208,5.8825,-17.7648,-0.46386,-7.3105,
10.8152,7.6123,-6.7849,-8.5913,-7.4753,-12.3892,-11.1654,7.6963,-1.9759,4.7871,-0.061248,-2.599,-5.0947,-9.6672,
24.2663,13.2126,6.2017,3.572,6.6074,2.4542,3.6045,11.4283,-3.2553,1.2386,3.2036,11.657,-2.4595,-3.9627,
24.7958,0.30538,1.1709,-3.1652,10.8705,3.3599,8.3922,-2.3036,-6.787,-12.9357,1.1481,-1.8663,-1.3798,-11.1794,
12.5911,-4.8383,7.1577,-1.5774,-3.8817,-10.9417,-6.2113,-7.2907,7.7202,-7.8445,15.1792,12.3457,10.3508,0.20836,
