"AF3","AF4","F3","F4","F7","F8","FC5","FC6","O1","O2","P7","P8","T7","T8",
193.3353,37.8801,-72.3165,-182.5128,145.1249,-81.1713,-138.2375,169.7219,-256.3053,153.9797,-37.8801,-116.5919,148.0768,152.996,
178.3353,52.8801,-57.3165,-167.5128,130.1249,-96.1713,-123.2375,154.7219,-241.3053,138.9797,-22.8801,-131.5919,133.0768,137.996,
163.3353,67.8801,-42.3165,-152.5128,115.1249,-111.1713,-108.2375,139.7219,-226.3053,123.9797,-7.8801,-116.5919,118.0768,122.996,
148.3353,82.8801,-27.3165,-137.5128,130.1249,-126.1713,-93.2375,124.7219,-211.3053,108.9797,7.1199,-101.5919,103.0768,107.996,
133.3353,67.8801,-12.3165,-150.0441,115.1249,-122.4952,-108.2375,109.7219,-226.3053,93.9797,-7.8801,-116.5919,88.0768,92.996,
122.4952,52.8801,-27.3165,-165.0441,103.801,-124.463,-123.2375,100.8491,-241.3053,89.0425,-22.8801,-131.5919,100.8491,107.996,
107.4952,37.8801,-42.3165,-180.0441,88.801,-139.463,-108.2375,85.8491,-226.3053,74.0425,-7.8801,-124.9548,85.8491,92.996,
92.4952,52.8801,-27.3165,-165.0441,97.8977,-124.463,-93.2375,70.8491,-211.3053,59.0425,7.1199,-109.9548,70.8491,77.996,
77.4952,67.8801,-12.3165,-150.0441,112.8977,-139.463,-78.2375,55.8491,-196.3053,44.0425,22.1199,-122.4947,55.8491,80.1881,
62.4952,65.9214,2.6835,-158.4071,119.0519,-154.463,-93.2375,40.8491,-211.3053,29.0425,7.1199,-137.4947,64.9368,65.1881,
47.4952,50.9214,-12.3165,-173.4071,104.0519,-169.463,-108.2375,28.5331,-196.7795,15.7427,-7.8801,-122.4947,54.1147,60.0176,
50.1787,35.9214,-27.3165,-188.4071,89.0519,-184.463,-111.1808,13.5331,-181.7795,0.74272,7.1199,-121.0197,39.1147,45.0176,
35.1787,50.9214,-12.3165,-173.4071,104.0519,-169.463,-96.1808,-1.4669,-166.7795,-14.2573,22.1199,-106.0197,49.1945,60.0176,
50.1787,56.0829,-5.9033,-158.4071,101.3414,-184.463,-110.1962,8.8552,-181.7795,0.74272,7.1199,-121.0197,50.1791,70.8406,
35.1787,71.0829,9.0967,-143.4071,116.3414,-196.2872,-99.8655,-6.1448,-166.7795,-14.2573,12.2985,-136.0197,65.1791,85.8406,
20.1787,84.1232,-5.9033,-145.1249,131.3414,-181.2872,-84.8655,5.411,-151.7795,-5.411,27.2985,-121.0197,80.1791,100.8406,
35.1787,69.1232,-20.9033,-151.5201,116.3414,-195.7954,-99.8655,10.823,-136.7795,9.589,42.2985,-106.0197,65.1791,85.8406,
20.1787,70.8411,-5.9033,-136.5201,101.3414,-183.9882,-84.8655,3.9356,-121.7795,-3.9356,57.2985,-91.0197,56.0825,72.8084,
35.1787,55.8411,-10.8228,-151.5201,86.3414,-198.9882,-99.8655,18.9356,-136.7795,11.0644,42.2985,-106.0197,63.9534,80.6793,
20.1787,50.1791,4.1772,-136.5201,101.3414,-213.9882,-88.5502,3.9356,-121.7795,-3.9356,57.2985,-121.0197,78.9534,94.4549,
5.1787,65.1791,-10.8228,-121.5201,116.3414,-198.9882,-73.5502,-11.0644,-106.7795,-18.9356,72.2985,-106.0197,93.9534,109.4549,
20.1787,50.1791,-25.8228,-136.5201,101.3414,-183.9882,-73.3002,2.4601,-118.5596,-3.9356,57.2985,-91.9944,78.9534,94.4549,
5.4115,35.1791,-32.9605,-151.5201,86.3414,-168.9882,-88.3002,17.4601,-133.5596,0.4923,42.2985,-76.9944,63.9534,79.4549,
20.4115,20.1791,-17.9605,-157.9155,101.3414,-183.9882,-103.3002,32.4601,-148.5596,15.4923,27.2985,-91.9944,78.9534,94.4549,
5.4115,35.1791,-2.9605,-142.9155,116.3414,-198.9882,-94.454,17.4601,-133.5596,0.4923,38.372,-106.9944,68.8728,79.4549,
-9.5885,50.1791,-4.9192,-127.9155,119.0515,-183.9882,-79.454,2.4601,-118.5596,-14.5077,53.372,-91.9944,53.8728,91.5025,
5.4115,35.1791,-19.9192,-142.9155,104.0515,-168.9882,-64.454,0.98366,-103.5596,-0.98366,68.372,-76.9944,38.8728,86.5833,
20.4115,20.1791,-34.9192,-157.9155,89.0515,-153.9882,-79.454,15.9837,-118.5596,14.0163,53.372,-61.9944,53.8728,101.5833,
35.4115,5.1791,-23.6136,-166.2785,104.0515,-150.5362,-94.454,30.9837,-133.5596,29.0163,38.372,-76.9944,68.8728,116.5833,
20.4115,20.1791,-8.6136,-151.2785,89.0515,-165.5362,-104.7847,15.9837,-123.4789,14.0163,35.9119,-91.9944,53.8728,101.5833,
5.4115,35.1791,6.3864,-136.2785,100.8491,-150.5362,-89.7847,0.98366,-108.4789,-0.98366,50.9119,-76.9944,38.8728,86.5833,
20.4115,43.2917,2.9514,-151.2785,97.4059,-140.6975,-74.7847,-9.8389,-93.4789,-2.9514,65.9119,-83.6314,23.8728,73.7925,
35.4115,28.2917,-12.0486,-166.2785,111.6722,-125.6975,-89.7847,5.1611,-108.4789,12.0486,50.9119,-68.6314,38.8728,88.7925,
50.4115,13.2917,-27.0486,-161.8508,126.6722,-110.6975,-104.7847,20.1611,-123.4789,27.0486,35.9119,-53.6314,53.8728,103.7925,
35.4115,-1.7083,-12.0486,-146.8508,111.6722,-125.6975,-89.7847,7.3788,-108.4789,12.0486,50.9119,-68.6314,68.8728,88.7925,
20.4115,13.2917,2.9514,-131.8508,96.6722,-140.6975,-74.7847,-7.6212,-93.4789,-2.9514,65.9119,-71.3329,53.8728,73.7925,
18.2023,28.2917,17.9514,-116.8508,96.9136,-155.6975,-79.2035,-18.2023,-78.4789,-17.9514,80.9119,-56.3329,38.8728,85.1069,
33.2023,13.2917,2.9514,-131.8508,103.3092,-140.6975,-94.2035,-3.2023,-93.4789,-2.9514,65.9119,-71.3329,53.8728,100.1069,
48.2023,-1.7083,-12.0486,-146.8508,118.3092,-125.6975,-109.2035,11.7977,-108.4789,12.0486,50.9119,-86.3329,68.8728,115.1069,
33.2023,-1.9678,-27.0486,-161.8508,103.3092,-140.6975,-94.2035,26.7977,-101.3414,1.9678,65.9119,-101.3329,53.8728,100.1069,
18.2023,13.0322,-12.0486,-146.8508,88.3092,-146.6004,-79.2035,11.7977,-86.3414,-13.0322,80.9119,-86.3329,38.8728,85.1069,
3.4437,28.0322,-0.49183,-131.8508,91.0107,-161.6004,-94.2035,0.49183,-101.3414,-28.0322,65.9119,-101.3329,43.783,70.1069,
18.4437,16.2341,-0.49183,-146.8508,106.0107,-170.7061,-109.2035,15.4918,-116.3414,-13.0322,50.9119,-116.3329,58.783,82.155,
33.4437,10.3307,-15.4918,-161.8508,91.0107,-155.7061,-124.2035,30.4918,-131.3414,1.9678,35.9119,-119.5433,62.4776,97.155,
37.3885,-4.6693,-30.4918,-176.8508,76.0107,-170.7061,-109.2035,42.3078,-116.3414,8.855,34.4366,-134.5433,47.4776,82.155,
22.3885,10.3307,-15.4918,-161.8508,91.0107,-155.7061,-94.2035,27.3078,-101.3414,-6.145,49.4366,-119.5433,62.4776,97.155,
27.0571,25.0889,-30.4918,-146.8508,82.155,-170.7061,-109.2035,15.2504,-116.3414,-10.3312,34.4366,-134.5433,50.6705,82.155,
12.0571,40.0889,-15.4918,-147.0922,97.155,-185.7061,-113.64,17.2187,-131.3414,-20.1696,19.4366,-149.5433,61.4935,91.0107,
8.3634,55.0889,-30.4918,-162.0922,112.155,-193.3353,-98.64,32.2187,-116.3414,-8.3634,34.4366,-147.0922,75.268,96.914,
23.3634,40.0889,-45.4918,-176.1174,97.155,-178.3353,-97.4056,47.2187,-101.3414,6.6366,49.4366,-132.0922,60.268,81.914,
8.3634,55.0889,-30.4918,-161.1174,112.155,-163.3353,-82.4056,54.1142,-86.3414,6.8875,64.4366,-117.0922,75.268,96.914,
23.3634,40.0889,-26.073,-152.9956,107.7371,-178.3353,-97.4056,69.1142,-101.3414,21.8875,49.4366,-132.0922,90.268,111.914,
8.3634,53.1306,-11.073,-147.5841,111.1803,-193.3353,-106.2607,54.1142,-116.3414,6.8875,34.4366,-147.0922,83.6314,97.4063,
-6.6366,68.1306,-10.823,-132.5841,126.1803,-178.3353,-91.2607,39.1142,-101.3414,-8.1125,49.4366,-132.0922,91.5025,112.4063,
8.3634,53.1306,-25.823,-139.2216,111.1803,-163.3353,-90.0266,30.9927,-97.8977,-3.4437,57.558,-117.0922,76.5025,97.4063,
1.9673,38.1306,-29.5172,-152.5042,96.1803,-148.3353,-99.3737,45.9927,-112.8977,0,42.558,-102.0922,61.5025,82.4063,
16.9673,23.1306,-14.5172,-167.5042,100.8498,-163.3353,-114.3737,60.9927,-127.8977,15,27.558,-117.0922,76.5025,97.4063,
1.9673,38.1306,0.48281,-152.5042,110.1967,-178.3353,-112.164,45.9927,-112.8977,0,42.558,-131.8423,71.8247,94.4544,
-13.0327,53.1306,-14.5172,-137.5042,125.1967,-163.3353,-97.164,30.9927,-97.8977,-15,57.558,-116.8423,56.8247,109.4544,
1.9673,38.1306,-29.5172,-152.5042,110.1967,-148.3353,-88.0588,24.1052,-99.8655,-6.3956,57.558,-101.8423,41.8247,94.4544,
16.9673,23.1306,-44.5172,-167.5042,95.1967,-133.3353,-103.0588,39.1052,-114.8655,8.6044,42.558,-86.8423,56.8247,95.4376,
31.9673,8.1306,-29.5172,-182.5042,110.1967,-148.3353,-118.0588,54.1052,-129.8655,23.6044,27.558,-71.8423,71.8247,110.4376,
16.9673,11.3149,-14.5172,-167.5042,113.6404,-163.3353,-104.7852,39.1052,-114.8655,8.6044,42.558,-86.8423,83.1396,95.4376,
1.9673,26.3149,-8.8548,-152.5042,98.6404,-148.3353,-89.7852,24.1052,-99.8655,-6.3956,57.558,-71.8423,68.1396,80.4376,
10.823,41.3149,-17.7105,-142.6653,96.4217,-133.3353,-74.7852,21.6451,-105.277,-10.823,60.0171,-56.8423,53.1396,92.4862,
25.823,26.3149,-32.7105,-157.6653,111.4217,-118.3353,-89.7852,36.6451,-120.277,4.177,45.0171,-41.8423,68.1396,107.4862,
40.823,11.3149,-47.7105,-172.6653,126.4217,-123.4789,-104.7852,51.6451,-135.277,19.177,30.0171,-56.8423,83.1396,122.4862,
26.5653,2.9519,-32.7105,-157.6653,111.4217,-138.4789,-89.7852,42.3075,-123.9712,4.177,34.4364,-71.8423,75.7603,107.4862,
11.5653,17.9519,-17.7105,-142.6653,115.1164,-123.4789,-74.7852,27.3075,-108.9712,-10.823,49.4364,-56.8423,60.7603,92.4862,
5.9033,32.9519,-5.9033,-152.5037,102.326,-128.8899,-85.5987,12.3075,-123.9712,-25.823,43.2917,-71.8423,45.7603,77.4862,
20.9033,17.9519,-20.9033,-167.5037,117.326,-115.6082,-100.5987,27.3075,-138.9712,-10.823,28.2917,-86.8423,60.7603,92.4862,
35.9033,8.3632,-35.9033,-182.5037,132.326,-107.7368,-115.5987,42.3075,-153.9712,4.177,13.2917,-89.0427,75.7603,107.4862,
35.4201,10.823,-48.2109,-178.0849,117.326,-122.7368,-100.5987,40.3402,-138.9712,-10.823,28.2917,-104.0427,60.7603,92.4862,
20.4201,25.823,-33.2109,-163.0849,104.7856,-107.7368,-85.5987,25.3402,-123.9712,-25.823,43.2917,-89.0427,45.7603,77.4862,
14.2668,40.823,-18.2109,-148.0849,119.7856,-122.7368,-100.5987,10.3402,-131.35,-40.823,28.2917,-104.0427,30.7603,73.3002,
29.2668,25.823,-22.6292,-161.359,134.7856,-124.9548,-115.5987,25.3402,-146.35,-25.823,13.2917,-119.0427,45.7603,88.3002,
44.2668,17.218,-37.6292,-176.359,119.7856,-109.9548,-128.3983,40.3402,-161.35,-10.823,-1.7083,-132.3339,60.7603,103.3002,
43.2912,3.9356,-52.6292,-191.359,104.7856,-124.9548,-113.3983,52.1469,-146.35,-3.9356,13.2917,-139.7134,45.7603,88.3002,
28.2912,18.9356,-37.6292,-176.359,106.2611,-127.9062,-98.3983,37.1469,-131.35,-18.9356,28.2917,-124.7134,43.2912,83.6314,
36.896,17.2182,-26.0735,-163.8186,102.8169,-142.9062,-113.3983,37.8797,-146.35,-3.9356,13.2917,-139.7134,58.2912,78.2199,
21.896,32.2182,-11.0735,-148.8186,117.8169,-157.9062,-128.3983,47.719,-161.35,-4.4279,-1.7083,-154.7134,73.2912,88.0583,
6.896,47.2182,-26.0735,-163.8186,117.5755,-172.9062,-113.3983,54.6065,-172.6739,1.476,13.2917,-139.7134,68.3805,94.9458,
21.896,32.2182,-41.0735,-178.8186,102.5755,-165.7869,-102.8174,50.671,-157.6739,13.2826,28.2917,-129.3827,53.3805,79.9458,
6.896,47.2182,-32.4686,-163.8186,117.5755,-150.7869,-87.8174,49.1945,-142.6739,5.9033,43.2917,-114.3827,68.3805,94.9458,
21.896,32.2182,-25.5812,-148.8186,115.1164,-165.7869,-102.8174,64.1945,-157.6739,20.9033,28.2917,-129.3827,83.3805,109.9458,
6.896,47.2182,-10.5812,-151.5201,112.164,-180.7869,-102.3251,49.1945,-159.3912,5.9033,32.4691,-144.3827,77.7276,96.4217,
-8.104,62.2182,4.4188,-155.9475,127.164,-180.545,-87.3251,34.1945,-144.3912,-9.0967,47.4691,-129.3827,71.3324,111.4217,
6.896,47.2182,-10.5812,-170.9475,112.164,-165.545,-94.946,42.8001,-129.3912,5.9033,61.4933,-114.3827,56.3324,96.4217,
-6.3952,32.2182,-25.5812,-162.8349,97.164,-150.545,-109.946,55.5902,-139.2216,6.3952,46.4933,-99.3827,54.6056,81.4217,
8.6048,17.2182,-19.6778,-154.4715,106.2607,-143.649,-124.946,70.5902,-154.2216,21.3952,31.4933,-114.3827,69.6056,96.4217,
-6.3952,32.2182,-4.6778,-139.4715,112.6568,-158.649,-109.946,55.5902,-139.2216,6.3952,46.4933,-129.3827,78.2204,89.0425,
-21.3952,47.2182,-13.7749,-124.4715,127.6568,-143.649,-94.946,40.5902,-124.2216,-8.6048,61.4933,-114.3827,63.2204,104.0425,
-6.3952,32.2182,-28.7749,-139.4715,112.6568,-128.649,-84.1232,34.9282,-109.2216,4.4274,51.6541,-99.3827,48.7022,89.0425,
8.6048,17.2182,-13.7749,-154.4715,106.2607,-113.649,-99.1232,49.9282,-124.2216,19.4274,36.6541,-84.3827,63.7022,104.0425,
23.6048,2.2182,0.49206,-169.4715,121.2607,-128.649,-114.1232,64.9282,-139.2216,34.4274,21.6541,-99.3827,78.7022,119.0425,
8.6048,17.2182,-1.9678,-154.4715,111.1799,-143.649,-108.2289,49.9282,-124.2216,19.4274,36.6541,-114.3827,71.8242,104.0425,
-6.3952,32.2182,-16.9678,-139.4715,102.326,-158.649,-93.2289,34.9282,-109.2216,4.4274,51.6541,-99.3827,56.8242,103.3097,
8.6048,17.2182,-25.5816,-154.4715,87.326,-162.3431,-79.6958,19.9282,-97.4059,-7.8711,47.2268,-84.3827,45.2594,95.4381,
23.6048,2.2182,-40.5816,-169.4715,91.9939,-147.3431,-94.6958,34.9282,-112.4059,7.1289,32.2268,-69.3827,60.2594,96.9131,
38.6048,-10.3307,-41.8157,-184.4715,106.9939,-132.3431,-109.6958,49.9282,-127.4059,22.1289,17.2268,-73.3002,75.2594,111.9131,
31.4845,-11.8067,-26.8157,-169.4715,107.2448,-147.3431,-94.6958,50.1787,-112.4059,11.8067,32.2268,-88.3002,78.7112,96.9131,
16.4845,3.1933,-11.8157,-154.4715,94.9453,-139.222,-79.6958,35.1787,-97.4059,-3.1933,47.2268,-73.3002,63.7112,81.9131,
8.363,18.1933,-7.3793,-139.4715,84.1232,-124.222,-64.6958,20.1787,-87.0747,-16.2341,60.5099,-88.3002,48.7112,77.2358,
23.363,3.1933,-22.3793,-154.4715,99.1232,-130.8582,-79.6958,35.1787,-102.0747,-1.2341,45.5099,-75.7603,63.7112,92.2358,
38.363,-11.8067,-37.3793,-169.4715,114.1232,-143.649,-94.6958,50.1787,-117.0747,13.7659,30.5099,-60.7603,78.7112,107.2358,
33.9443,-22.1377,-30.9929,-154.4715,99.1232,-158.649,-82.1552,51.6548,-102.0747,22.1377,45.5099,-75.7603,93.7112,92.2358,
18.9443,-7.1377,-15.9929,-139.4715,84.1232,-143.649,-67.1552,36.6548,-87.0747,7.1377,60.5099,-63.4618,78.7112,77.2358,
3.9443,7.8623,-0.99291,-154.4715,80.68,-158.649,-82.1552,21.6548,-102.0747,-7.8623,45.5099,-78.4618,63.7112,82.6473,
18.9443,-7.1377,-15.9929,-169.4715,95.68,-169.7219,-97.1552,36.6548,-117.0747,7.1377,30.5099,-93.4618,78.7112,97.6473,
33.9443,-18.2021,-30.9929,-184.4715,110.68,-154.7219,-112.1552,51.6548,-132.0747,22.1377,18.2021,-78.4618,93.7112,112.6473,
31.485,-12.7908,-45.9929,-183.0051,95.68,-169.7219,-97.1552,43.2917,-117.0747,12.7908,33.2021,-93.4618,78.7112,97.6473,
16.485,2.2092,-30.9929,-168.0051,80.68,-161.3585,-82.1552,28.2917,-102.0747,-2.2092,48.2021,-81.6636,63.7112,82.6473,
16.7259,3.9356,-15.9929,-153.0051,95.68,-176.3585,-97.1552,13.7749,-110.1962,-3.9356,33.2021,-96.6636,48.7112,74.7766,
10.3307,1.476,-10.3307,-147.0922,110.68,-191.3585,-112.1552,28.7749,-125.1962,11.0644,18.2021,-111.6636,63.7112,89.7766,
-2.4601,2.4601,-25.3307,-162.0922,95.68,-176.3585,-102.8174,35.9119,-140.1962,4.4274,23.1215,-126.6636,75.2685,100.8491,
12.5399,-11.8069,-40.3307,-177.0922,80.68,-169.2304,-87.8174,36.404,-125.1962,11.8069,38.1215,-141.6636,60.2685,85.8491,
-2.4601,3.1931,-25.3307,-162.0922,91.0098,-184.2304,-72.8174,21.404,-110.1962,-3.1931,53.1215,-126.6636,75.2685,100.8491,
12.5399,-4.9195,-19.678,-172.1818,106.0098,-199.2304,-87.8174,36.404,-125.1962,11.8069,38.1215,-141.6636,90.2685,113.1479,
-2.4601,10.0805,-4.678,-157.1818,121.0098,-214.2304,-96.914,21.404,-140.1962,-3.1931,24.1052,-156.6636,84.1232,98.1479,
-17.4601,25.0805,3.9356,-142.1818,127.9062,-213.5059,-81.914,14.7586,-125.1962,-16.7268,39.1052,-141.6636,70.8401,113.1479,
-2.4601,10.0805,-11.0644,-157.1818,112.9062,-198.5059,-82.1555,29.7586,-110.1962,-1.7268,54.1052,-126.6636,55.8401,98.1479,
7.3793,-4.9195,-26.0644,-154.9638,97.9062,-183.5059,-70.3488,44.7586,-95.1962,13.2732,67.3973,-111.6636,70.8401,113.1479,
22.3793,1.4757,-11.3146,-139.9638,112.9062,-198.5059,-85.3488,59.7586,-110.1962,28.2732,52.3973,-126.6636,85.8401,128.1479,
7.3793,16.4757,3.6854,-124.9638,114.1318,-213.5059,-85.5992,44.7586,-102.3251,13.2732,49.1945,-141.6636,84.6146,113.1479,
-7.6207,31.4757,1.9678,-139.9638,101.3414,-221.377,-70.5992,29.7586,-87.3251,-1.7268,64.1945,-126.6636,69.6146,98.1479,
7.3793,16.4757,-13.0322,-154.9638,86.3414,-206.377,-82.1555,31.9768,-72.3251,9.3471,69.3651,-111.6636,54.6146,83.1479,
22.3793,1.4757,-28.0322,-169.9638,73.3002,-191.377,-97.1555,46.9768,-87.3251,24.3471,54.3651,-96.6636,69.6146,96.9136,
37.3793,-11.3149,-13.0322,-174.6416,88.3002,-187.4324,-112.1555,61.9768,-102.3251,39.3471,39.3651,-111.6636,84.6146,111.9136,
22.3793,3.6851,1.9678,-159.6416,91.5025,-202.4324,-97.1555,46.9768,-87.3251,24.3471,40.3402,-126.6636,69.8565,96.9136,
7.3793,18.6851,-9.3471,-144.6416,96.9131,-217.4324,-82.1555,31.9768,-72.3251,9.3471,55.3402,-111.6636,54.8565,90.0266,
22.3793,3.6851,-19.6783,-153.4879,91.5021,-202.4324,-79.6958,16.9768,-65.9214,0.98412,52.1464,-96.6636,48.2109,89.5347,
37.3793,-6.8872,-4.6783,-168.4879,106.5021,-187.4324,-94.6958,31.9768,-80.9214,15.9841,37.1464,-81.6636,63.2109,104.5347,
52.3793,-2.4598,2.4598,-183.4879,121.5021,-172.4324,-109.6958,46.9768,-95.9214,30.9841,22.1464,-96.6636,78.2109,119.5347,
37.3793,-17.4598,-12.5402,-168.4879,106.5021,-187.4324,-98.8818,31.9768,-80.9214,15.9841,37.1464,-111.6636,80.1872,104.5347,
22.3793,-2.4598,-22.6292,-153.4879,91.5021,-202.4324,-83.8818,16.9768,-65.9214,0.98412,52.1464,-96.6636,65.1872,89.5347,
7.3793,12.5402,-11.3144,-138.4879,85.1074,-200.2228,-83.1391,5.4115,-80.9214,1.476,38.8643,-111.6636,50.1872,89.0429,
22.3793,-2.4598,3.6856,-153.4879,100.1074,-185.2228,-98.1391,20.4115,-95.9214,16.476,23.8643,-96.6636,65.1872,104.0429,
37.3793,5.4113,-11.3144,-168.4879,115.1074,-170.2228,-113.1391,35.4115,-110.9214,31.476,8.8643,-81.6636,80.1872,119.0429,
39.8482,-9.5887,-26.3144,-159.8828,100.1074,-185.2228,-103.8008,50.4115,-95.9214,26.0732,23.8643,-96.6636,87.0749,104.0429,
24.8482,5.4113,-11.3144,-144.8828,85.1074,-189.4002,-88.8008,35.4115,-80.9214,11.0732,38.8643,-81.6636,72.0749,89.0429,
9.8482,20.4113,3.6856,-129.8828,89.5347,-183.9887,-84.6155,20.4115,-95.9214,-3.9268,23.8643,-96.6636,57.0749,100.3568,
24.8482,5.4113,-11.3144,-144.8828,104.5347,-168.9887,-99.6155,35.4115,-110.9214,11.0732,8.8643,-92.978,72.0749,115.3568,
39.8482,-9.5887,-26.3144,-159.8828,119.5347,-153.9887,-114.6155,50.4115,-125.9214,26.0732,22.6295,-77.978,87.0749,130.3568,
46.2431,-24.5887,-41.3144,-168.2465,104.5347,-168.9887,-107.2448,54.1142,-110.9214,37.3883,37.6295,-92.978,72.0749,115.3568,
31.2431,-9.5887,-26.3144,-153.2465,89.5347,-182.0205,-92.2448,39.1142,-95.9214,22.3883,52.6295,-107.2448,57.0749,100.3568,
16.2431,-9.8389,-11.3144,-168.2465,74.5347,-197.0205,-107.2448,24.1142,-110.9214,7.3883,37.6295,-122.2448,42.0749,85.3568,
18.2019,-14.2663,-9.3471,-176.6094,89.5347,-200.2228,-122.2448,39.1142,-121.5111,22.3883,22.6295,-137.2448,57.0749,100.3568,
14.2663,-14.2663,-24.3471,-191.6094,103.8015,-185.2228,-124.463,54.1142,-136.5111,37.3883,22.1374,-152.2448,72.0749,115.3568,
29.2663,-19.678,-39.3471,-183.0048,88.8015,-184.9726,-109.463,51.1625,-121.5111,22.3883,27.5492,-137.2448,57.0749,100.3568,
14.2663,-4.678,-24.3471,-168.0048,75.2685,-184.4805,-94.463,36.1625,-106.5111,7.3883,42.5492,-122.2448,65.4291,85.3568,
29.2663,-5.4113,-9.3471,-153.0048,90.2685,-199.4805,-109.463,51.1625,-121.5111,22.3883,27.5492,-137.2448,80.4291,85.1067,
14.2663,8.3634,5.6529,-138.0048,105.2685,-214.4805,-124.463,36.1625,-136.5111,7.3883,21.1538,-152.2448,87.0747,86.091,
-0.7337,23.3634,-9.3471,-123.0048,118.0678,-199.4805,-109.463,39.3556,-121.5111,7.8711,36.1538,-137.2448,86.5833,101.091,
14.2663,8.3634,-24.3471,-138.0048,103.0678,-184.4805,-94.463,28.0412,-106.753,20.1701,33.9441,-132.3341,71.5833,86.091,
-0.7337,1.9678,-39.3471,-153.0048,88.0678,-169.4805,-79.463,43.0412,-91.753,21.6456,48.9441,-117.3341,86.5833,101.091,
14.2663,6.8875,-24.3471,-161.359,103.0678,-184.4805,-94.463,58.0412,-106.753,36.6456,33.9441,-132.3341,101.5833,116.091,
-0.7337,21.8875,-9.3471,-146.359,101.8333,-199.4805,-88.0588,43.0412,-121.753,21.6456,18.9441,-147.3341,86.5833,101.091,
-15.7337,36.8875,5.6529,-131.359,116.8333,-184.4805,-73.0588,28.0412,-106.753,6.6456,33.9441,-132.3341,71.5833,107.7371,
-0.7337,21.8875,-9.3471,-146.359,101.8333,-169.4805,-84.1228,21.1542,-100.8491,3.4437,23.1215,-141.1889,56.5833,92.7371,
14.2663,6.8875,-24.3471,-161.359,92.979,-154.4805,-97.8972,36.1542,-101.8328,18.4437,19.186,-126.1889,71.5833,107.7371,
29.2663,8.855,-9.3471,-150.5362,107.979,-169.4805,-112.8972,51.1542,-116.8328,33.4437,4.186,-111.1889,86.5833,122.7371,
14.2663,23.855,5.6529,-135.5362,92.979,-184.4805,-97.8972,36.1542,-109.7044,18.4437,19.186,-126.1889,71.5833,107.7371,
-0.7337,38.855,16.2345,-120.5362,97.8977,-189.4002,-82.8972,21.1542,-94.7044,3.4437,34.186,-127.4149,56.5833,92.7371,
14.2663,23.855,1.2345,-135.5362,85.1064,-174.4002,-97.8972,10.3307,-79.7044,-10.3307,36.896,-112.4149,41.5833,77.7371,
29.2663,8.855,-13.7655,-150.5362,99.8655,-159.4002,-112.8972,25.3307,-94.7044,4.6693,21.896,-97.4149,56.5833,92.7371,
44.2663,13.2826,-21.1538,-165.5362,114.8655,-144.4002,-127.8972,40.3307,-109.7044,19.6693,6.896,-112.4149,71.5833,107.7371,
29.2663,2.9514,-6.1538,-180.0532,99.8655,-159.4002,-112.8972,25.3307,-108.2284,4.6693,18.6946,-127.4149,58.0502,92.7371,
14.2663,17.9514,1.9678,-165.0532,84.8655,-174.4002,-97.8972,10.3307,-93.2284,-10.3307,33.6946,-112.4149,43.0502,77.7371,
10.3312,28.0408,-2.4601,-150.0532,93.9626,-184.4805,-84.1232,2.4601,-90.0266,-25.3307,33.9446,-110.688,45.7513,77.2358,
25.3312,13.0408,-7.3793,-156.9316,108.9626,-169.4805,-99.1232,17.4601,-105.0266,-10.3307,18.9446,-95.688,60.7513,92.2358,
40.3312,23.6136,-22.3793,-171.9316,123.9626,-154.4805,-114.1232,32.4601,-120.0266,4.6693,3.9446,-80.688,75.7513,107.2358,
33.4527,8.6136,-37.3793,-186.9316,108.9626,-169.4805,-105.277,39.3556,-105.0266,14.7586,18.9446,-95.688,68.8728,92.2358,
18.4527,23.6136,-22.3793,-171.9316,93.9626,-183.9887,-90.277,24.3556,-90.0266,-0.24141,33.9446,-80.688,53.8728,77.2358,
3.4527,38.6136,-7.3793,-156.9316,85.5987,-188.9079,-97.4059,9.3556,-105.0266,-15.2414,18.9446,-95.688,38.8728,92.2358,
18.4527,23.6136,-10.823,-171.9316,100.5987,-173.9079,-112.4059,24.3556,-120.0266,-0.24141,3.9446,-110.688,53.8728,107.2358,
33.4527,23.6136,-25.823,-186.9316,115.5987,-158.9079,-127.4059,39.3556,-135.0266,14.7586,-11.0554,-99.3739,68.8728,122.2358,
42.3075,8.6136,-40.823,-181.0368,100.5987,-173.9079,-112.4059,54.3556,-120.0266,18.6942,3.9446,-114.3739,71.8247,107.2358,
27.3075,23.6136,-25.823,-166.0368,85.5987,-158.9079,-97.4059,39.3556,-105.0266,3.6942,18.9446,-99.3739,56.8247,92.2358,
17.2182,38.6136,-10.823,-151.0368,95.9304,-156.9316,-82.4059,24.3556,-120.0266,-9.3471,3.9446,-114.3739,46.7354,100.8496,
17.2187,23.6136,-11.3149,-166.0368,110.9304,-171.9316,-97.4059,39.3556,-135.0266,5.6529,-11.0554,-129.3739,61.7354,115.8496,
32.2187,8.6136,-26.3149,-181.0368,121.0197,-170.2142,-112.4059,54.3556,-150.0266,20.6529,-2.9519,-142.6648,76.7354,126.9226,
47.2187,-6.3864,-41.3149,-166.0368,106.0197,-156.4398,-97.4059,52.146,-135.0266,6.8875,10.823,-133.8101,61.7354,111.9226,
32.2187,8.6136,-26.3149,-151.0368,92.978,-141.4398,-82.4059,37.146,-120.0266,-8.1125,25.823,-118.8101,46.7354,96.9226,
36.8965,23.6136,-11.3149,-166.0368,80.1877,-156.4398,-97.4059,52.146,-135.0266,0.49183,10.823,-133.8101,59.5262,81.9226,
21.8965,38.6136,0,-151.0368,95.1877,-171.4398,-112.4059,41.3239,-149.5518,-14.5082,0,-148.8101,74.5262,96.9226,
6.8965,53.6136,-15,-136.0368,110.1877,-156.4398,-97.4059,49.195,-134.5518,-3.9356,15,-133.8101,83.6314,111.9226,
21.8965,38.6136,-30,-151.0368,95.1877,-141.4398,-95.9299,48.7027,-133.3182,2.4596,0,-141.1894,68.6314,96.9226,
6.8965,53.6136,-15,-136.0368,99.866,-126.4398,-80.9299,56.5748,-118.3182,-5.4115,15,-126.1894,67.3969,93.9621,
21.8965,38.6136,-10.8228,-151.0368,114.866,-141.4398,-95.9299,71.5748,-133.3182,9.5885,0,-141.1894,82.3969,105.2772,
6.8965,48.7032,4.1772,-136.0368,129.866,-156.4398,-108.7203,56.5748,-119.5428,-5.4115,15,-156.1894,67.3969,90.2772,
-8.1035,63.7032,-7.3793,-121.0368,142.173,-141.4398,-93.7203,41.5748,-104.5428,-20.4115,30,-141.1894,60.5099,105.2772,
6.8965,48.7032,-22.3793,-136.0368,127.173,-126.4398,-87.0751,26.5748,-119.5428,-8.363,15,-153.9802,45.5099,90.2772,
19.1865,33.7032,-37.3793,-151.0368,112.173,-111.4398,-102.0751,41.5748,-125.4466,6.637,0,-138.9802,60.5099,96.914,
34.1865,18.7032,-22.3793,-166.0368,127.173,-126.4398,-117.0751,56.5748,-140.4466,21.637,-15,-123.9802,75.5099,111.914,
19.1865,33.7032,-7.3793,-151.0368,112.173,-141.4398,-102.0751,41.5748,-144.1408,6.637,0,-138.9802,60.5099,96.914,
4.1865,48.7032,7.6207,-136.0368,127.173,-126.4398,-87.0751,26.5748,-129.1408,-8.363,15,-123.9802,45.5099,111.914,
19.1865,34.9287,-7.3793,-151.0368,112.173,-111.4398,-80.1872,28.0412,-114.1408,-13.2826,30,-108.9802,30.5099,96.914,
34.1865,19.9287,-22.3793,-166.0368,123.4793,-96.4398,-95.1872,43.0412,-129.1408,1.7174,15,-93.9802,45.5099,111.914,
49.1865,17.7103,-32.4684,-160.3751,138.4793,-111.4398,-110.1872,58.0412,-144.1408,16.7174,0,-102.3253,60.5099,126.914,
34.1865,32.7103,-17.4684,-145.3751,123.4793,-126.4398,-95.1872,43.0412,-131.3504,1.7174,10.3312,-117.3253,58.5416,111.914,
19.1865,47.7103,-2.4684,-130.3751,108.4793,-116.0991,-80.1872,28.0412,-116.3504,-13.2826,25.3312,-132.3253,43.5416,96.914,
6.8875,32.7103,-6.8875,-145.3751,102.3256,-131.0991,-95.1872,13.0412,-101.3504,-28.2826,40.3312,-147.3253,32.4691,81.914,
21.8875,17.7103,-21.8875,-160.3751,117.3256,-116.0991,-110.1872,28.0412,-116.3504,-13.2826,25.3312,-132.3253,47.4691,96.914,
36.8875,7.8711,-36.8875,-175.3751,132.3256,-101.0991,-125.1872,43.0412,-131.3504,1.7174,10.3312,-117.3253,62.4691,111.914,
21.8875,-5.4115,-40.832,-190.3751,117.3256,-116.0991,-110.1872,28.0412,-116.3504,5.4115,25.3312,-132.3253,53.6219,96.914,
6.8875,9.5885,-25.832,-175.3751,102.3256,-131.0991,-95.1872,13.0412,-101.3504,-9.5885,40.3312,-117.3253,38.6219,81.914,
4.4274,24.5885,-10.832,-160.3751,105.7684,-146.0991,-110.1872,-0.49183,-106.753,-24.5885,25.3312,-116.5919,27.0571,89.0425,
19.4274,9.5885,-6.887,-156.4393,120.7684,-131.0991,-125.1872,14.5082,-121.753,-9.5885,10.3312,-131.5919,42.0571,104.0425,
34.4274,15.7425,-21.887,-171.4393,135.7684,-116.0991,-140.1872,29.5082,-136.753,5.4115,-4.6688,-145.6165,57.0571,119.0425,
33.9441,0.74248,-36.887,-186.4393,120.7684,-131.0991,-125.1872,44.5082,-121.753,20.4115,10.3312,-160.6165,69.3651,104.0425,
18.9441,15.7425,-21.887,-171.4393,105.7684,-146.0991,-110.1872,29.5082,-106.753,5.4115,25.3312,-145.6165,54.3651,90.0261,
3.9441,27.0571,-8.363,-156.4393,102.8174,-161.0991,-101.8333,14.5082,-121.753,3.4437,10.3312,-153.9797,52.6387,105.0261,
-0.49183,23.1215,0.49183,-171.4393,117.8174,-176.0991,-116.8333,29.5082,-136.753,18.4437,-4.6688,-165.7864,67.6387,113.6404,
14.5082,8.1215,-14.5082,-186.4393,119.5438,-161.0991,-131.8333,44.5082,-151.753,33.4437,-7.3788,-150.7864,82.6387,127.4149,
29.5082,-6.8785,-29.5082,-197.2711,104.5438,-164.8025,-116.8333,59.5082,-136.753,48.4437,7.6212,-141.1891,67.6387,112.4149,
14.5082,8.1215,-28.5331,-182.2711,114.1327,-149.8025,-101.8333,44.5082,-121.753,33.4437,22.6212,-126.1891,82.6387,125.9394,
29.5082,10.823,-16.7264,-167.2711,108.2284,-164.8025,-98.39,59.5082,-136.753,32.4682,7.6212,-141.1891,97.6387,123.9707,
14.5082,16.2341,-3.4437,-177.5935,121.5106,-179.8025,-112.6563,44.5082,-131.3504,17.4682,14.2668,-156.1891,104.7847,118.5596,
-0.49183,21.6456,-18.4437,-192.5935,133.8096,-164.8025,-97.6563,43.2917,-116.3504,12.7908,29.2668,-152.5042,96.4222,133.5596,
14.5082,6.6456,-33.4437,-177.5935,118.8096,-179.8025,-83.1393,58.2917,-101.3504,27.7908,44.2668,-137.5042,81.4222,118.5596,
-0.49183,21.6456,-18.4437,-162.5935,103.8096,-169.2301,-68.1393,43.2917,-96.4222,12.7908,59.2668,-122.5042,89.5347,112.1645,
14.5082,6.6456,-3.4437,-164.3107,118.8096,-184.2301,-83.1393,58.2917,-111.4222,27.7908,44.2668,-137.5042,104.5347,127.1645,
-0.49183,8.8548,4.9192,-149.3107,128.8908,-199.2301,-98.1393,43.2917,-126.4222,12.7908,29.2668,-152.5042,110.1967,112.1645,
-15.4918,23.8548,-10.0808,-134.3107,143.8908,-214.2301,-83.1393,28.2917,-111.4222,-2.2092,44.2668,-137.5042,111.1803,127.1645,
-0.49183,8.8548,-25.0808,-149.3107,128.8908,-199.2301,-93.9621,43.2917,-96.4222,12.7908,42.7998,-122.5042,96.1803,112.1645,
-7.8711,-6.1452,-34.4364,-164.3107,113.8908,-184.2301,-108.9621,58.2917,-111.4222,27.7908,27.7998,-107.5042,100.3573,97.1645,
7.1289,-3.4435,-19.4364,-165.7866,128.8908,-173.6577,-123.9621,73.2917,-126.4222,42.7908,12.7998,-122.5042,115.3573,112.1645,
-7.8711,11.5565,-4.4364,-150.7866,125.9385,-188.6577,-108.9621,58.2917,-111.4222,27.7908,27.7998,-137.5042,100.3573,119.051,
-22.8711,26.5565,-3.9356,-135.7866,133.8101,-183.0051,-93.9621,43.2917,-96.4222,12.7908,42.7998,-122.5042,85.3573,134.051,
-7.8711,11.5565,-18.9356,-150.7866,118.8101,-168.0051,-78.9621,28.2917,-111.4222,15.7425,54.1145,-108.2287,76.7442,119.051,
7.1289,-3.4435,-33.9356,-165.7866,133.8101,-153.0051,-93.9621,43.2917,-126.4222,30.7425,39.1145,-93.2287,91.7442,134.051,
22.1289,-17.7103,-18.9356,-180.7866,148.8101,-141.6814,-108.9621,58.2917,-139.7136,45.7425,24.1145,-78.2287,106.7442,149.051,
7.1289,-12.7903,-3.9356,-165.7866,153.4879,-156.6814,-93.9621,43.2917,-124.7136,30.7425,37.3883,-93.2287,96.4217,134.051,
-7.8711,2.2097,11.0644,-150.7866,138.4879,-171.6814,-78.9621,28.2917,-109.7136,15.7425,52.3883,-108.2287,81.4217,119.051,
-1.9678,17.2097,-3.9356,-165.7866,123.4879,-156.6814,-76.7444,14.7581,-106.2611,1.9678,48.2109,-94.4544,66.4217,104.051,
13.0322,2.2097,-18.9356,-180.7866,126.9226,-141.6814,-91.7444,29.7581,-121.2611,16.9678,33.2109,-79.4544,81.4217,119.051,
28.0322,-12.7903,-33.9356,-165.7866,141.9226,-126.6814,-106.7444,44.7581,-136.2611,31.9678,21.6458,-64.4544,96.4217,134.051,
15.2504,-15.2504,-18.9356,-150.7866,126.9226,-141.6814,-91.7444,37.8801,-121.2611,25.0898,36.6458,-79.4544,101.8337,119.051,
0.25042,-0.25042,-3.9356,-135.7866,111.9226,-156.6814,-76.7444,22.8801,-106.2611,10.0898,51.6458,-94.4544,86.8337,104.051,
-12.2985,14.7496,10.3312,-147.0927,96.9226,-171.6814,-91.7444,7.8801,-104.7852,-4.4274,36.6458,-109.4544,71.8337,91.9944,
2.7015,3.9356,-4.6688,-134.7937,111.9226,-156.6814,-106.7444,22.8801,-119.7852,10.5726,21.6458,-94.4544,86.8337,106.9944,
17.7015,-0.98389,-19.6688,-149.7937,126.9226,-141.6814,-121.7444,37.8801,-134.7852,25.5726,6.6458,-79.4544,101.8337,121.9944,
18.2019,-15.9839,-34.6688,-164.7937,111.9226,-156.6814,-106.7444,30.9922,-119.7852,30.9922,21.6458,-94.4544,86.8337,106.9944,
3.2019,-0.98389,-19.6688,-149.7937,96.9226,-171.6814,-91.7444,15.9922,-104.7852,15.9922,36.6458,-90.5189,71.8337,91.9944,
-6.3952,14.0161,-4.6688,-134.7937,95.9295,-186.6814,-105.7688,2.4596,-89.7852,1.476,35.9124,-105.5189,66.4132,106.9944,
8.6048,0.49183,-0.49183,-149.7937,107.7366,-171.6814,-120.7688,17.4596,-104.7852,16.476,20.9124,-120.5189,81.4132,121.9944,
23.6048,2.9514,-15.4918,-164.7937,92.7366,-156.6814,-135.7688,32.4596,-119.7852,31.476,5.9124,-135.5189,96.4132,127.9067,
21.1538,-12.0486,-30.4918,-179.7937,77.7366,-171.6814,-120.7688,33.9441,-106.7525,30.0085,20.9124,-150.5189,81.4132,112.9067,
6.1538,2.9514,-18.2019,-164.7937,92.7366,-185.4647,-105.7688,18.9441,-91.7525,15.0085,35.9124,-135.5189,94.9458,127.9067,
21.1538,-4.4279,-32.9605,-149.7937,84.1228,-200.4647,-120.7688,33.9441,-106.7525,30.0085,20.9124,-150.5189,96.914,126.4303,
6.1538,10.5721,-17.9605,-162.3431,99.1228,-215.4647,-135.7688,33.4527,-121.7525,16.7259,5.9124,-165.5189,94.4544,118.0678,
-8.8462,25.5721,-32.9605,-177.3431,107.7361,-230.4647,-120.7688,40.8316,-106.7525,17.2182,20.9124,-150.5189,82.1555,123.4793,
6.1538,10.5721,-47.9605,-192.3431,92.7361,-215.4647,-105.7688,40.3397,-91.7525,32.2182,35.9124,-135.5189,67.8887,108.4793,
-8.8462,11.8067,-48.2113,-177.3431,77.7361,-200.4647,-90.7688,25.5816,-76.7525,17.2182,50.9124,-120.5189,82.8887,116.0996,
6.1538,4.9195,-33.2113,-162.3431,89.5345,-209.5701,-105.7688,40.5816,-91.7525,32.2182,35.9124,-135.5189,97.8887,131.0996,
-8.8462,19.9195,-18.2113,-147.3431,104.5345,-224.5701,-90.7688,25.5816,-76.7525,17.2182,50.9124,-150.5189,112.8887,129.3817,
-23.8462,34.9195,-3.2113,-132.3431,119.5345,-209.5701,-75.7688,10.5816,-61.7525,2.2182,65.9124,-135.5189,101.8328,136.2692,
-8.8462,19.9195,-18.2113,-147.3431,116.0996,-194.5701,-78.7117,25.5816,-76.7525,10.823,50.9124,-138.7293,86.8328,121.2692,
-10.8226,4.9195,-33.2113,-160.3749,101.0996,-179.5701,-93.7117,40.5816,-91.7525,10.8226,35.9124,-123.7293,77.7281,106.2692,
4.1774,2.9517,-18.2113,-165.2943,110.1965,-168.2462,-108.7117,55.5816,-106.7525,25.8226,20.9124,-138.7293,92.7281,121.2692,
-10.8226,17.9517,-3.2113,-150.2943,112.6563,-183.2462,-110.6885,40.5816,-91.7525,10.8226,34.9278,-153.7293,95.9295,106.2692,
-25.8226,32.9517,-17.71,-135.2943,127.6563,-187.9243,-95.6885,25.5816,-76.7525,-4.1774,49.9278,-138.7293,83.6309,121.2692,
-10.8226,17.9517,-32.71,-150.2943,112.6563,-172.9243,-90.5186,18.6944,-74.7759,8.855,53.1308,-123.7293,68.6309,106.2692,
4.1774,2.9517,-17.71,-165.2943,103.3087,-157.9243,-105.5186,33.6944,-89.7759,23.855,38.1308,-108.7293,83.6309,119.051,
19.1774,-7.8711,-2.71,-180.2943,118.3087,-157.4234,-120.5186,48.6944,-104.7759,38.855,23.1308,-123.7293,98.6309,134.051,
4.1774,-3.4437,-9.3466,-165.2943,121.5115,-172.4234,-105.5186,33.6944,-89.7759,23.855,38.1308,-138.7293,111.6722,119.051,
-10.8226,11.5563,-24.3466,-150.2943,110.1962,-187.4234,-90.5186,18.6944,-74.7759,8.855,53.1308,-123.7293,96.6722,104.051,
4.1774,15.2504,-9.3466,-152.0119,105.7693,-172.4234,-75.5186,4.4274,-89.7759,-4.4274,54.606,-108.7293,81.6722,104.7847,
19.1774,0.25042,-24.3466,-167.0119,120.7693,-157.4234,-90.5186,19.4274,-104.7759,10.5726,39.606,-93.7293,96.6722,119.7847,
34.1774,-14.7496,-39.3466,-182.0119,135.7693,-142.4234,-105.5186,34.4274,-119.7759,25.5726,24.606,-78.7293,111.6722,134.7847,
26.0735,-29.7496,-24.3466,-167.0119,120.7693,-157.4234,-90.5186,27.0571,-104.7759,16.2341,39.606,-93.7293,96.6722,119.7847,
11.0735,-14.7496,-9.3466,-152.0119,105.7693,-171.1984,-75.5186,12.0571,-89.7759,1.2341,54.606,-108.7293,81.6722,104.7847,
-1.9682,0.25042,0.98366,-137.0119,113.1477,-156.1984,-62.9695,3.9356,-102.3256,-0.98366,47.2267,-123.7293,66.6722,97.4054,
13.0318,-11.3149,-14.0163,-152.0119,128.1477,-141.1984,-77.9695,18.9356,-117.3256,14.0163,32.2267,-108.7293,81.6722,112.4054,
28.0318,-26.3149,-29.0163,-167.0119,143.1477,-126.1984,-92.9695,33.9356,-132.3256,29.0163,17.2267,-93.7293,96.6722,127.4054,
40.8313,-34.9285,-37.8799,-168.7381,128.1477,-141.1984,-80.1874,48.9356,-117.3256,41.8159,32.2267,-108.7293,111.6722,112.4054,
25.8313,-19.9285,-22.8799,-153.7381,113.1477,-156.1984,-65.1874,33.9356,-102.3256,26.8159,47.2267,-123.7293,96.6722,97.4054,
10.8313,-4.9285,-7.8799,-138.7381,104.7852,-171.1984,-80.1874,18.9356,-117.3256,11.8159,32.2267,-138.7293,81.6722,82.4054,
25.8313,6.3952,-6.3952,-152.0119,119.7852,-156.1984,-95.1874,33.9356,-132.3256,26.8159,17.2267,-153.7293,96.6722,97.4054,
40.8313,-8.6048,-21.3952,-167.0119,134.3014,-141.1984,-110.1874,48.9356,-147.3256,41.8159,12.2985,-138.7293,111.6722,112.4054,
25.8313,-21.1538,-36.3952,-182.0119,119.3014,-154.9634,-95.1874,33.9356,-132.3256,31.9768,27.2985,-123.7293,96.6722,97.4054,
10.8313,-6.1538,-21.3952,-167.0119,104.3014,-148.0768,-80.1874,18.9356,-117.3256,16.9768,42.2985,-108.7293,81.6722,94.9463,
18.6937,-8.8552,-26.5653,-160.3753,99.3732,-163.0768,-95.1874,8.8552,-105.277,17.71,27.2985,-123.7293,80.679,102.3251,
3.6937,1.9678,-11.5653,-145.3753,114.3732,-178.0768,-110.1874,23.8552,-120.277,25.5812,12.2985,-138.7293,95.679,110.1962,
-11.3063,15.7427,-26.5653,-160.3753,99.3732,-163.0768,-97.4059,34.4359,-135.277,33.4523,27.2985,-123.7293,80.679,99.3732,
3.6937,0.74272,-41.5653,-175.3753,84.3732,-178.0768,-91.9941,31.977,-120.277,43.7837,42.2985,-125.4469,65.679,84.3732,
-11.3063,12.7908,-56.5653,-160.3753,81.6636,-193.0768,-76.9941,16.977,-105.277,28.7837,57.2985,-110.4469,80.679,99.3732,
3.6937,-2.2092,-41.5653,-145.3753,96.6636,-208.0768,-91.9941,31.977,-120.277,43.7837,42.2985,-125.4469,95.679,114.3732,
-11.3063,12.7908,-26.5653,-154.9638,111.6636,-223.0768,-95.9299,16.977,-134.3019,28.7837,33.9441,-140.4469,96.914,107.7371,
-26.3063,27.7908,-11.5653,-163.3268,126.6636,-208.0768,-80.9299,1.977,-119.3019,13.7837,48.9441,-125.4469,92.4857,122.7371,
-11.3063,12.7908,-26.5653,-178.3268,111.6636,-193.0768,-86.091,16.977,-104.3019,28.7837,63.9441,-110.4469,77.4857,107.7371,
-2.9519,-2.2092,-41.5653,-163.3268,96.6636,-178.0768,-91.5025,31.977,-89.3019,43.7837,61.0017,-95.4469,90.5189,94.4544,
12.0481,3.9356,-26.5653,-148.3268,111.6636,-166.2782,-106.5025,46.977,-104.3019,58.7837,46.0017,-110.4469,105.5189,109.4544,
-2.9519,18.9356,-11.5653,-133.3268,111.1803,-181.2782,-92.4857,31.977,-89.3019,43.7837,61.0017,-125.4469,90.5189,101.3419,
-17.9519,33.9356,-9.3471,-118.3268,126.1803,-196.2782,-77.4857,16.977,-74.3019,28.7837,76.0017,-110.4469,75.5189,111.6717,
-2.9519,18.9356,-24.3471,-133.3268,111.1803,-181.2782,-83.6314,13.7745,-59.3019,33.4523,83.6309,-95.4469,62.9695,96.6717,
12.0481,3.9356,-39.3471,-148.3268,96.1803,-166.2782,-98.6314,28.7745,-74.3019,48.4523,68.6309,-80.4469,77.9695,93.9621,
27.0481,0,-24.3471,-163.3268,111.1803,-151.2782,-113.6314,43.7745,-89.3019,63.4523,53.6309,-95.4469,92.9695,108.9621,
12.0481,15,-9.3471,-148.3268,109.7044,-166.2782,-98.6314,28.7745,-78.2199,48.4523,38.6309,-110.4469,88.0583,93.9621,
-2.9519,30,-24.3471,-133.3268,102.8179,-181.2782,-83.6314,13.7745,-63.2199,33.4523,53.6309,-95.4469,73.0583,108.7207,
7.8711,20.6624,-39.3471,-148.3268,92.4862,-166.2782,-95.4376,-1.2255,-78.2199,18.4523,66.9055,-80.4469,64.9372,110.1967,
22.8711,5.6624,-41.8157,-163.3268,107.4862,-151.2782,-110.4376,13.7745,-93.2199,33.4523,51.9055,-65.4469,79.9372,123.4789,
37.8711,-9.3376,-40.8318,-178.3268,122.4862,-136.2782,-125.4376,28.7745,-108.2199,48.4523,36.9055,-65.4293,94.9372,138.4789,
22.8711,-20.1696,-49.6868,-163.3268,107.4862,-151.2782,-110.4376,20.1696,-93.2199,33.4523,51.9055,-80.4293,97.8982,123.4789,
7.8711,-5.1696,-34.6868,-148.3268,92.4862,-166.2782,-95.4376,5.1696,-78.2199,18.4523,66.9055,-65.4293,82.8982,108.4789,
4.4274,9.8304,-19.6868,-133.3268,92.979,-151.2782,-84.1228,-4.4274,-80.1872,20.1706,51.9055,-80.4293,67.8982,106.753,
19.4274,0.49183,-34.6868,-148.3268,107.979,-136.2782,-99.1228,10.5726,-95.1872,35.1706,36.9055,-65.4293,82.8982,121.753,
34.4274,-14.5082,-49.6868,-163.3268,122.979,-121.2782,-114.1228,25.5726,-110.1872,50.1706,21.9055,-50.4293,97.8982,136.753,
39.3554,-29.5082,-54.1145,-148.3268,107.979,-136.2782,-99.1228,32.4689,-95.1872,40.34,36.9055,-65.4293,82.8982,121.753,
24.3554,-14.5082,-39.1145,-133.3268,92.979,-151.2782,-84.1228,17.4689,-80.1872,25.34,51.9055,-50.4293,67.8982,106.753,
9.3554,0.49183,-24.1145,-129.874,103.3097,-166.2782,-94.454,2.4689,-95.1872,10.34,52.1464,-65.4293,52.8982,91.753,
24.3554,-12.7908,-39.1145,-144.874,118.3097,-181.2782,-109.454,17.4689,-110.1872,25.34,37.1464,-80.4293,67.8982,106.753,
39.3554,-20.6617,-54.1145,-159.874,130.8579,-166.2782,-124.454,32.4689,-125.1872,40.34,22.1464,-95.4293,82.8982,121.753,
35.4201,-19.6778,-63.9531,-174.874,115.8579,-181.0368,-109.454,19.6778,-110.1872,31.4845,35.4201,-101.3414,67.8982,106.753,
20.4201,-4.6778,-48.9531,-159.874,100.8579,-171.6897,-94.454,4.6778,-95.1872,16.4845,50.4201,-86.3414,52.8982,91.753,
29.5172,10.3222,-33.9531,-144.874,105.2765,-186.6897,-109.454,0,-110.1872,1.9673,35.4201,-101.3414,56.0825,76.753,
14.5172,12.7903,-18.9531,-142.6648,120.2765,-171.6897,-124.454,12.7903,-125.1872,14.7586,20.4201,-116.3414,71.0825,91.753,
-0.48281,10.3307,-33.9531,-157.6648,105.2765,-156.6897,-124.4625,6.3952,-140.1872,21.1538,29.0249,-104.7847,62.4776,95.9304,
14.5172,-4.6693,-48.9531,-172.6648,90.2765,-171.6897,-109.4625,10.823,-128.8904,33.4527,44.0249,-116.0996,49.195,80.9304,
-0.48281,10.3307,-33.9531,-157.6648,102.3246,-186.6897,-94.4625,0.98366,-113.8904,18.4527,59.0249,-101.0996,64.195,95.9304,
14.5172,0.49183,-41.8157,-170.7061,103.801,-201.6897,-109.4625,15.9837,-128.8904,33.4527,44.0249,-116.0996,79.195,109.7049,
-0.48281,15.4918,-26.8157,-155.7061,118.801,-216.6897,-120.527,3.4437,-126.4303,18.4527,36.8965,-131.0996,92.979,94.7049,
-15.4828,30.4918,-11.8157,-140.7061,133.801,-201.6897,-105.527,6.3952,-111.4303,3.4527,51.8965,-116.0996,91.0102,109.7049,
-0.48281,15.4918,-26.8157,-155.7061,118.801,-186.6897,-103.801,7.3793,-96.4303,13.2822,47.7186,-101.0996,76.0102,94.7049,
1.476,0.49183,-41.8157,-161.8508,103.801,-171.6897,-100.8491,22.3793,-81.4303,28.2822,50.671,-86.0996,80.1881,97.8977,
16.476,10.823,-48.2109,-146.8508,118.0678,-177.1012,-115.8491,37.3793,-96.4303,43.2822,35.671,-101.0996,95.1881,112.8977,
1.476,25.823,-33.2109,-131.8508,119.5433,-192.1012,-100.8491,22.3793,-106.753,28.2822,50.671,-116.0996,91.9944,113.6395,
-13.524,40.823,-18.2109,-123.9712,118.0673,-177.1012,-85.8491,7.3793,-91.753,13.2822,65.671,-101.0996,76.9944,98.6395,
1.476,25.823,-33.2109,-138.9712,103.0673,-162.1012,-100.8491,5.9033,-95.4381,10.8226,50.671,-99.3737,61.9944,83.6395,
16.476,10.823,-48.2109,-153.9712,88.0673,-147.1012,-115.8491,20.9033,-110.4381,25.8226,35.671,-84.3737,76.9944,95.9299,
31.476,10.823,-33.2109,-168.9712,103.0673,-132.1012,-130.8491,35.9033,-125.4381,40.8226,20.671,-99.3737,91.9944,110.9299,
16.476,25.823,-18.2109,-153.9712,93.4703,-147.1012,-115.8491,20.9033,-110.4381,25.8226,35.671,-114.3737,86.5828,95.9299,
1.476,40.823,-18.2019,-138.9712,108.4703,-162.1012,-100.8491,5.9033,-95.4381,10.8226,50.671,-99.3737,71.5828,103.8006,
14.7581,33.4523,-33.2019,-147.5845,105.277,-147.1012,-88.5506,-5.9033,-80.4381,5.9033,65.671,-84.3737,56.5828,100.3578,
29.0249,18.4523,-48.2019,-162.5845,90.277,-132.1012,-103.5506,9.0967,-95.4381,20.9033,50.671,-69.3737,71.5828,90.0266,
44.0249,6.8875,-33.2019,-177.5845,105.277,-117.1012,-118.5506,24.0967,-110.4381,35.9033,35.671,-84.3737,86.5828,105.0266,
29.0249,-2.4601,-38.8638,-162.5845,90.277,-132.1012,-110.6885,13.2822,-95.4381,20.9033,50.671,-99.3737,75.2685,90.0266,
14.0249,12.5399,-46.2436,-147.5845,105.277,-147.1012,-95.6885,-1.7178,-80.4381,5.9033,65.671,-84.3737,60.2685,76.7435,
9.3466,27.5399,-31.2436,-132.5845,119.5433,-144.1413,-82.1559,-3.4437,-88.0593,3.4437,51.6541,-73.3007,45.2685,91.7435,
24.3466,12.5399,-27.0576,-147.5845,134.5433,-129.1413,-97.1559,11.5563,-103.0593,18.4437,36.6541,-58.3007,60.2685,106.7435,
39.3466,-0.98389,-42.0576,-162.5845,149.5433,-114.1413,-112.1559,26.5563,-118.0593,33.4437,21.6541,-45.2592,75.2685,121.7435,
40.832,-15.9839,-57.0576,-168.7383,134.5433,-129.1413,-104.7847,38.8638,-103.0593,28.0408,36.6541,-60.2592,79.204,106.7435,
25.832,-0.98389,-42.0576,-153.7383,119.5433,-144.1413,-89.7847,23.8638,-88.0593,13.0408,51.6541,-45.2592,64.204,91.7435,
10.832,14.0161,-27.0576,-138.7383,104.5433,-159.1413,-91.0102,8.8638,-103.0593,10.3312,36.6541,-60.2592,49.204,98.8818,
25.832,0,-42.0576,-153.7383,119.5433,-144.1413,-106.0102,23.8638,-118.0593,25.3312,21.6541,-75.2592,64.204,113.8818,
40.832,-15,-57.0576,-168.7383,122.4952,-129.1413,-121.0102,38.8638,-133.0593,40.3312,8.363,-60.2592,79.204,128.8818,
36.896,-20.1701,-69.3646,-162.8349,107.4952,-144.1413,-111.6722,25.0893,-118.0593,25.3312,23.363,-75.2592,64.204,113.8818,
21.896,-5.1701,-54.3646,-147.8349,92.4952,-152.5037,-96.6722,10.0893,-103.0593,10.3312,38.363,-71.8242,49.204,98.8818,
10.3307,9.8299,-39.3646,-148.0764,80.1881,-167.5037,-111.6722,-4.9107,-118.0593,6.3952,23.363,-86.8242,34.9287,83.8818,
4.4279,-1.476,-52.6383,-163.0764,95.1881,-182.5037,-126.6722,10.0893,-133.0593,9.3471,8.363,-101.8242,49.9287,89.0429,
5.4115,-5.4115,-67.6383,-178.0764,94.9467,-167.5037,-141.6722,25.0893,-148.0593,18.2028,23.363,-116.8242,55.5902,98.8823,
20.4115,-11.8067,-76.7439,-193.0764,79.9467,-166.2787,-126.6722,11.8067,-133.0593,19.6778,30.5008,-111.1803,45.2594,83.8823,
5.4115,3.1933,-61.7439,-178.0764,94.9467,-172.1816,-111.6722,-3.1933,-118.0593,4.6778,45.5008,-96.1803,60.2594,95.4381,
20.4115,-10.823,-50.1787,-182.0209,95.4381,-187.1816,-126.6722,11.8067,-130.8582,19.6778,30.5008,-111.1803,75.2594,83.6314,
5.4115,4.177,-35.1787,-167.0209,110.4381,-202.1816,-139.2211,7.3798,-115.8582,4.6778,42.7998,-126.1803,72.3161,90.0266,
-9.5885,19.177,-20.1787,-152.0209,125.4381,-187.1816,-124.2211,13.2822,-100.8582,12.2985,57.7998,-111.1803,80.1877,105.0266,
5.4115,4.177,-35.1787,-167.0209,110.4381,-172.1816,-109.2211,5.9033,-112.164,16.7264,42.7998,-110.1962,65.1877,90.0266,
-9.5885,2.9514,-50.1787,-182.0209,95.4381,-157.1816,-104.2929,20.9033,-97.164,18.6946,44.2753,-95.1962,65.9214,105.0266,
5.4115,17.9514,-35.1787,-167.0209,110.4381,-172.1816,-119.2929,35.9033,-112.164,33.6946,29.2753,-110.1962,80.9214,120.0266,
-9.5885,32.9514,-20.1787,-152.0209,125.4381,-187.1816,-104.2929,20.9033,-111.6722,18.6946,44.2753,-125.1962,78.2199,105.0266,
-24.5885,47.9514,-5.1787,-137.0209,126.4308,-172.1816,-89.2929,5.9033,-96.6722,3.6946,59.2753,-110.1962,63.2199,90.0266,
-9.5885,32.9514,-20.1787,-152.0209,111.4308,-157.1816,-89.5343,14.7586,-81.6722,0,59.0344,-95.1962,48.2199,75.0266,
5.4115,17.9514,-35.1787,-167.0209,96.4308,-142.1816,-104.5343,29.7586,-96.6722,15,44.0344,-80.1962,63.2199,90.0266,
20.4115,2.9514,-49.195,-167.2623,111.4308,-146.6009,-119.5343,44.7586,-111.6722,30,29.0344,-95.1962,78.2199,105.0266,
5.4115,17.9514,-34.195,-152.2623,104.7852,-161.6009,-104.5343,29.7586,-96.6722,15,44.0344,-110.1962,83.1391,90.0266,
-9.5885,32.9514,-19.195,-137.2623,106.7525,-176.6009,-89.5343,14.7586,-81.6722,0,59.0344,-95.1962,68.1391,75.0266,
5.4115,17.9514,-31.9768,-152.2623,101.8333,-161.6009,-90.0266,-0.24141,-66.6722,1.476,74.0344,-80.1962,53.1391,74.2843,
20.4115,2.9514,-46.9768,-167.2623,86.8333,-146.6009,-105.0266,14.7586,-81.6722,16.476,59.0344,-65.1962,68.1391,87.0747,
35.4115,1.476,-43.7835,-182.2623,101.8333,-131.6009,-120.0266,29.7586,-96.6722,31.476,44.0344,-80.1962,83.1391,102.0747,
20.4115,4.9192,-28.7835,-170.2142,91.5025,-146.6009,-105.0266,14.7586,-81.6722,16.476,59.0344,-95.1962,68.1391,87.0747,
5.4115,19.9192,-21.1538,-155.2142,106.5025,-161.6009,-90.0266,-0.24141,-66.6722,1.476,74.0344,-80.1962,53.1391,86.091,
20.4115,34.9192,-20.6619,-140.2142,118.0673,-146.6009,-75.0266,0.98412,-70.8406,-0.98412,74.7762,-65.1962,64.9368,101.091,
35.4115,19.9192,-30.9927,-155.2142,118.5596,-131.6009,-90.0266,15.9841,-85.8406,14.0159,59.7762,-55.5897,79.9368,110.6885,
50.4115,14.2665,-42.7996,-170.2142,133.5596,-116.6009,-105.0266,30.9841,-100.8406,29.0159,44.7762,-70.5897,94.9368,125.6885,
35.4115,-0.73347,-57.7996,-184.9728,118.5596,-131.6009,-92.4862,16.7264,-85.8406,22.6293,59.7762,-85.5897,79.9368,110.6885,
20.4115,14.2665,-52.146,-169.9728,103.5596,-146.6009,-77.4862,1.7264,-70.8406,7.6293,74.7762,-70.5897,64.9368,95.6885,
9.8389,29.2665,-37.146,-154.9728,92.4867,-132.8259,-85.5992,-2.9514,-80.6795,2.9514,59.7762,-82.6473,49.9368,108.2289,
18.2023,16.2341,-42.7994,-169.9728,102.8174,-117.8259,-100.5992,12.0486,-95.6795,17.9514,44.7762,-89.0425,64.9368,114.6241,
33.2023,1.2341,-57.7994,-184.9728,117.8174,-107.7368,-115.5992,27.0486,-110.6795,32.9514,29.7762,-74.0425,79.9368,128.3988,
34.9289,-13.7659,-72.7994,-176.6092,102.8174,-122.7368,-100.5992,19.1857,-95.6795,20.1703,44.7762,-89.0425,64.9368,113.3988,
19.9289,1.2341,-57.7994,-161.6092,87.8174,-137.7368,-85.5992,4.1857,-80.6795,5.1703,59.7762,-74.0425,49.9368,98.3988,
18.6942,16.2341,-42.7994,-146.6092,87.567,-152.7368,-100.5992,4.9192,-95.6795,-4.9192,44.7762,-89.0425,52.1469,83.3988,
12.299,11.3153,-46.7345,-161.6092,102.567,-167.7368,-115.5992,19.1865,-110.6795,10.0808,29.7762,-104.0425,67.1469,86.091,
13.2826,-3.6847,-61.7345,-176.6092,92.9785,-152.7368,-130.5992,23.122,-125.6795,17.2182,24.1057,-119.0425,64.445,98.8814,
28.2826,-9.8389,-76.7345,-182.0209,77.9785,-159.3912,-115.5992,16.7264,-110.6795,9.8389,39.1057,-104.0425,49.445,83.8814,
13.2826,5.1611,-61.7345,-167.0209,92.9785,-144.3912,-100.5992,1.7264,-95.6795,-5.1611,54.1057,-89.0425,60.5099,93.9626,
19.186,6.3956,-46.7345,-174.6416,77.9785,-159.3912,-115.5992,15.2504,-110.6795,9.8389,39.1057,-104.0425,52.6387,78.9626,
4.186,21.3956,-31.7345,-159.6416,92.9785,-174.3912,-125.9389,19.6773,-104.2933,1.9678,49.1945,-119.0425,67.6387,88.5502,
-9.8389,36.3956,-46.7345,-144.6416,107.9785,-159.3912,-110.9389,16.7254,-89.2933,9.8389,64.1945,-104.0425,80.679,103.5502,
5.1611,21.3956,-61.7345,-159.6416,92.9785,-144.3912,-95.9389,1.7254,-89.5347,3.9356,65.9209,-94.454,65.679,88.5502,
-7.3793,34.9282,-46.7345,-171.6902,77.9785,-129.3912,-80.9389,16.7254,-74.5347,2.4601,76.2521,-79.454,66.4127,87.0751,
7.6207,19.9282,-31.7345,-176.6092,92.9785,-144.3912,-95.9389,31.7254,-89.5347,17.4601,61.2521,-94.454,81.4127,102.0751,
-0.98366,34.9282,-16.7345,-161.6092,107.9785,-159.3912,-80.9389,16.7254,-99.3737,2.4601,46.2521,-109.454,66.4127,100.3573,
-15.9837,49.9282,-1.7345,-146.6092,122.9785,-144.3912,-65.9389,1.7254,-84.3737,-12.5399,61.2521,-94.454,51.6546,115.3573,
-0.98366,34.9282,-16.7345,-161.6092,107.9785,-129.3912,-80.9389,0.98366,-99.3737,-0.98366,54.1142,-79.454,36.6546,100.3573,
6.8875,19.9282,-31.7345,-176.6092,92.9785,-114.3912,-95.9389,15.9837,-114.3737,14.0163,39.1142,-64.454,51.6546,94.4544,
21.8875,13.2824,-40.8318,-161.8511,107.9785,-129.3912,-110.9389,30.9837,-129.3737,29.0163,24.1142,-79.454,66.6546,109.4544,
6.8875,28.2824,-25.8318,-146.8511,122.9785,-144.3912,-95.9389,15.9837,-114.3737,14.0163,39.1142,-94.454,59.0334,94.4544,
-8.1125,43.2824,-10.8318,-131.8511,137.7456,-129.3912,-80.9389,0.98366,-99.3737,-0.98366,54.1142,-100.3573,44.0334,79.4544,
6.8875,38.8638,-25.8318,-146.8511,122.7456,-114.3912,-75.268,4.4274,-91.9944,-4.4274,51.6551,-85.3573,40.832,68.381,
21.8875,23.8638,-40.8318,-161.8511,107.7456,-99.3912,-90.268,19.4274,-106.9944,10.5726,36.6551,-70.3573,55.832,83.381,
36.8875,10.331,-55.8318,-176.8511,122.7456,-114.3912,-105.268,34.4274,-121.9944,25.5726,21.6551,-67.3971,70.832,98.381,
21.8875,25.331,-40.8318,-161.8511,107.7456,-129.3912,-95.4381,19.4274,-106.9944,10.5726,36.6551,-82.3971,75.7598,83.381,
6.8875,40.331,-25.8318,-146.8511,103.801,-144.3912,-80.4381,4.4274,-91.9944,-4.4274,51.6551,-67.3971,60.7598,84.1232,
21.8875,55.331,-10.8318,-131.8511,118.801,-129.3912,-65.4381,-0.49183,-76.9944,0.49183,66.6551,-52.3971,45.7598,99.1232,
36.8875,40.331,-25.8318,-146.8511,111.1803,-114.3912,-80.4381,14.5082,-91.9944,15.4918,51.6551,-42.3075,60.7598,106.2611,
51.8875,25.331,-40.8318,-161.8511,126.1803,-99.3912,-95.4381,29.5082,-106.9944,30.4918,36.6551,-57.3075,75.7598,121.2611,
36.8875,10.331,-55.8318,-176.8511,111.1803,-114.3912,-107.7366,14.5082,-91.9944,15.4918,35.9124,-72.3075,60.7598,106.2611,
21.8875,25.331,-40.8318,-161.8511,96.1803,-129.3912,-92.7366,-0.49183,-76.9944,0.49183,50.9124,-57.3075,45.7598,91.2611,
26.5648,40.331,-25.8318,-146.8511,103.3087,-144.3912,-104.2933,0.98412,-91.9944,-12.7908,35.9124,-72.3075,37.3878,100.3568,
37.3878,25.331,-24.5975,-161.8511,105.277,-129.3912,-119.2933,15.9841,-106.9944,2.2092,20.9124,-87.3075,52.3878,98.3895,
52.3878,20.6622,-39.5975,-176.8511,120.277,-114.3912,-134.2933,30.9841,-121.9944,17.2092,5.9124,-72.8086,67.3878,113.3895,
38.372,5.6622,-54.5975,-191.8511,105.277,-129.3912,-119.2933,16.7259,-106.9944,6.8875,20.9124,-87.8086,52.3878,98.3895,
23.372,20.6622,-39.5975,-176.8511,92.4867,-114.3912,-104.2933,1.7259,-91.9944,-8.1125,35.9124,-72.8086,37.3878,83.3895,
32.9605,35.6622,-24.5975,-161.8511,95.9304,-129.3912,-89.2933,6.3952,-106.9944,-6.3952,23.122,-87.8086,49.6873,96.914,
17.9605,22.6297,-38.372,-176.8511,109.2121,-144.3912,-104.2933,18.6942,-121.9944,2.9519,8.122,-102.8086,64.6873,93.4698,
19.1865,7.6297,-53.372,-191.8511,94.2121,-135.2855,-119.2933,19.1865,-136.9944,12.299,8.3634,-114.6236,62.4776,78.4698,
34.1865,-7.3703,-68.372,-183.0046,79.2121,-150.2855,-104.2933,15.7427,-121.9944,10.8226,23.3634,-99.6236,47.4776,63.4698,
19.1865,7.6297,-53.372,-168.0046,94.2121,-135.2855,-89.2933,0.74272,-106.9944,-4.1774,38.3634,-84.6236,55.0983,71.8252,
28.0412,15.25,-38.372,-183.0046,83.1391,-150.2855,-104.2933,8.3634,-121.9944,2.4596,23.3634,-99.6236,63.4613,56.8252,
13.0412,30.25,-29.5172,-168.0046,98.1391,-164.3109,-108.2289,15.7422,-106.9944,-2.9519,38.3634,-114.6236,78.4613,71.8252,
-1.9588,45.25,-44.5172,-153.0046,113.1391,-149.3109,-93.2289,13.7745,-91.9944,5.9033,53.3634,-99.6236,93.4613,86.8252,
13.0412,30.25,-59.5172,-168.0046,98.1391,-134.3109,-78.2289,-1.2255,-88.0588,1.476,68.3634,-84.6236,78.4613,71.8252,
-1.9588,45.25,-44.5172,-153.0046,103.801,-130.3663,-63.2289,13.7745,-73.0588,11.3149,83.3634,-69.6236,80.1877,86.8252,
13.0412,30.25,-49.1945,-168.0046,103.3097,-145.3663,-78.2289,28.7745,-88.0588,26.3149,68.3634,-84.6236,85.5992,100.3578,
5.4115,45.25,-34.1945,-153.0046,118.3097,-160.3663,-87.0747,13.7745,-90.0266,11.3149,63.4613,-99.6236,76.2526,100.8496,
-9.5885,60.25,-19.1945,-138.0046,133.3097,-145.3663,-72.0747,-1.2255,-75.0266,-3.6851,78.4613,-84.6236,61.2526,115.8496,
5.4115,45.25,-34.1945,-153.0046,118.3097,-130.3663,-57.0747,-0.98412,-90.0266,0.98412,63.4613,-80.6795,46.2526,100.8496,
1.9678,30.25,-49.1945,-168.0046,103.3097,-115.3663,-72.0747,14.0159,-105.0266,-1.9678,48.4613,-65.6795,47.2263,85.8496,
16.9678,15.2504,-35.9124,-178.5772,118.3097,-117.576,-87.0747,29.0159,-120.0266,13.0322,33.4613,-50.6795,62.2263,100.8496,
12.7908,30.2504,-20.9124,-163.5772,124.9548,-132.576,-73.7925,14.0159,-129.8745,-1.9678,21.6456,-65.6795,61.9849,86.5828,
-2.2092,45.2504,-5.9124,-148.5772,129.874,-117.576,-58.7925,-0.98412,-114.8745,-16.9678,36.6456,-70.8406,46.9849,79.6954,
12.7908,30.2504,-20.9124,-163.5772,114.874,-102.576,-73.7925,8.3634,-99.8745,-8.3634,51.6456,-55.8406,32.9605,68.3805,
25.5807,15.2504,-35.9124,-178.5772,99.874,-87.576,-88.7925,23.3634,-114.8745,6.6366,36.6456,-40.8406,47.9605,79.6949,
40.5807,5.9033,-50.9124,-188.9079,114.874,-102.576,-103.7925,38.3634,-129.8745,21.6366,21.6456,-53.1306,62.9605,94.6949,
25.5807,20.9033,-35.9124,-173.9079,99.874,-117.576,-88.7925,23.3634,-114.8745,6.6366,29.5163,-68.1306,47.9605,79.6949,
10.5807,35.9033,-20.9124,-158.9079,106.753,-132.576,-73.7925,8.3634,-99.8745,-8.3634,44.5163,-83.1306,32.9605,64.6949,
25.5807,50.9033,-5.9124,-143.9079,121.753,-117.576,-58.7925,-0.49183,-88.0588,-15.2504,59.5163,-68.1306,32.9609,79.6949,
40.5807,35.9033,-20.9124,-158.9079,106.753,-102.576,-73.7925,14.5082,-103.0588,-0.25042,44.5163,-53.1306,47.9609,81.1718,
55.5807,20.9033,-35.9124,-173.9079,121.0192,-87.576,-88.7925,29.5082,-118.0588,14.7496,29.5163,-38.1306,62.9609,96.1718,
40.5807,5.9033,-50.9124,-188.9079,106.0192,-102.576,-98.8814,14.5082,-103.0588,-0.25042,44.5163,-53.1306,67.3969,81.1718,
25.5807,20.9033,-35.9124,-173.9079,91.0192,-117.576,-83.8814,-0.49183,-88.0588,-15.2504,59.5163,-38.8638,52.3969,69.3646,
21.1538,35.9033,-20.9124,-158.9079,106.0192,-132.576,-68.8814,-2.4596,-73.0588,-0.25042,74.5163,-43.7835,63.4613,84.3646,
34.9287,20.9033,-35.9124,-173.9079,108.7207,-117.576,-83.8814,12.5404,-88.0588,14.7496,59.5163,-58.7835,73.3007,91.9939,
49.9287,5.9033,-50.9124,-188.9079,103.8013,-102.576,-98.8814,27.5404,-103.0588,29.7496,44.5163,-73.7835,84.1235,97.8975,
46.7349,-8.363,-65.9124,-203.9079,88.8013,-117.576,-90.0266,17.2187,-88.0588,14.7496,29.5163,-88.7835,69.1235,82.8975,
31.7349,6.637,-65.4291,-188.9079,76.2521,-132.576,-75.0266,2.2187,-73.0588,-0.25042,44.5163,-73.7835,54.1235,67.8975,
25.5816,21.637,-50.4291,-173.9079,89.5352,-140.6971,-90.0266,-3.9356,-88.0588,3.9356,33.4527,-58.7835,49.195,82.8975,
10.5816,19.6773,-35.4291,-188.9079,102.3251,-153.4879,-105.0266,11.0644,-103.0588,18.6937,18.4527,-73.7835,64.195,97.8975,
20.6619,4.6773,-50.4291,-203.9079,93.4703,-138.4879,-120.0266,26.0644,-118.0588,30.5013,4.9197,-58.7835,69.8569,101.3414,
34.9282,-8.363,-65.4291,-188.9079,78.4703,-123.4879,-105.0266,11.0644,-103.0588,15.5013,19.9197,-59.5257,54.8569,86.3414,
19.9282,6.637,-50.4291,-173.9079,93.4703,-112.6563,-90.0266,-3.9356,-88.0588,0.50131,34.9197,-44.5257,55.5902,85.1074,
23.6134,3.9356,-35.4291,-164.3109,78.4703,-127.6563,-105.0266,4.9192,-103.0588,14.7586,19.9197,-59.5257,43.2912,70.1074,
9.8384,18.9356,-20.4291,-179.3109,93.4703,-142.6563,-98.39,0,-118.0588,0,34.9197,-74.5257,58.2912,85.1074,
1.4755,33.9356,-35.4291,-194.3109,108.4703,-127.6563,-83.39,0.49183,-103.0588,-0.49183,49.9197,-75.2685,73.2912,100.1074,
16.4755,18.9356,-50.4291,-180.0532,93.4703,-142.6563,-88.5506,8.8548,-93.4703,7.8711,41.3239,-60.2685,58.2912,85.1074,
1.4755,33.9356,-36.4042,-165.0532,86.5828,-157.6563,-73.5506,9.8389,-93.4703,-7.1289,56.3239,-45.2685,43.2912,70.1074,
16.4755,18.9356,-32.4684,-175.1337,101.5828,-172.6563,-88.5506,24.8389,-108.4703,7.8711,41.3239,-60.2685,58.2912,85.1074,
5.9033,33.9356,-27.5485,-160.1337,116.5828,-187.6563,-103.5506,9.8389,-120.0351,-5.9033,33.4523,-75.2685,63.9531,100.1074,
-9.0967,48.9356,-42.5485,-145.1337,131.5828,-172.6563,-88.5506,-5.1611,-105.0351,-20.9033,48.4523,-60.2685,61.493,115.1074,
5.9033,33.9356,-57.5485,-160.1337,116.5828,-157.6563,-73.5506,0.98366,-90.0351,-5.9033,63.4523,-45.2685,46.493,100.1074,
-7.8711,18.9356,-72.5485,-175.1337,101.5828,-142.6563,-88.5506,10.823,-105.0351,0,48.4523,-30.2685,54.1142,85.1074,
7.1289,12.2988,-57.5485,-190.1337,116.5828,-134.3017,-103.5506,25.823,-120.0351,15,33.4523,-45.2685,69.1142,100.1074,
5.9033,27.2988,-42.5485,-175.1337,122.0038,-149.3017,-88.5506,10.823,-105.0351,0,48.4523,-60.2685,66.905,96.4222,
-9.0967,42.2988,-27.5485,-160.1337,122.4947,-134.3017,-73.5506,-4.177,-90.0351,-15,63.4523,-52.6392,51.905,89.042,
5.9033,40.8316,-42.5485,-166.7705,107.4947,-119.3017,-58.5506,-0.4923,-75.0351,0,64.445,-37.6392,36.905,74.2843,
13.2826,25.8316,-57.5485,-181.7705,92.4947,-104.3017,-73.5506,14.5077,-90.0351,15,49.445,-22.6392,51.905,80.1881,
28.2826,10.8316,-72.5485,-196.7705,107.4947,-119.3017,-88.5506,29.5077,-105.0351,30,34.445,-9.3471,66.905,95.1881,
20.6619,25.8316,-57.5485,-181.7705,105.277,-134.3017,-73.5506,14.5077,-90.0351,15,49.445,-24.3471,70.8406,80.1881,
5.6619,40.8316,-42.5485,-166.7705,109.7049,-119.3017,-58.5506,-0.4923,-75.0351,0,64.445,-39.3471,55.8406,65.1881,
20.6619,55.8316,-27.5485,-151.7705,106.753,-104.3017,-68.3805,-0.49183,-88.0588,-11.3149,64.4454,-26.0735,40.8406,61.4935,
35.6619,40.8316,-42.5485,-166.7705,91.753,-89.3017,-83.3805,14.5082,-103.0588,3.6851,49.4454,-11.0735,55.8406,76.4935,
50.6619,25.8316,-57.5485,-181.7705,106.753,-74.3017,-98.3805,29.5082,-118.0588,18.6851,34.4454,-26.0735,70.8406,91.4935,
35.9119,40.8316,-42.5485,-175.6258,91.753,-89.3017,-83.3805,14.5082,-103.0588,3.6851,37.8801,-41.0735,55.8406,76.4935,
20.9119,55.8316,-27.5485,-160.6258,91.0107,-104.3017,-68.3805,-0.49183,-88.0588,-11.3149,52.8801,-56.0735,40.8406,61.4935,
35.9119,70.8316,-12.5485,-145.6258,106.0107,-119.3017,-63.9531,-8.8552,-95.4381,-8.8552,42.308,-43.2917,34.4369,76.4935,
38.8643,55.8316,-27.5485,-160.6258,91.9948,-104.3017,-78.9531,6.1448,-110.4381,6.1448,27.308,-45.7508,45.7517,80.1881,
53.8643,40.8316,-42.5485,-175.6258,76.9948,-89.3017,-93.9531,21.1448,-125.4381,21.1448,12.308,-60.7508,47.719,70.3488,
38.8643,25.8316,-57.5485,-190.6258,61.9948,-104.3017,-102.3256,6.8875,-110.4381,6.1448,27.308,-75.7508,32.719,55.3488,
23.8643,40.8316,-60.5099,-175.6258,52.6378,-119.3017,-87.3256,-8.1125,-95.4381,-8.8552,42.308,-60.7508,17.719,67.3964,
38.8643,55.8316,-45.5099,-160.6258,67.6378,-104.3017,-79.6958,0.98412,-80.4381,-0.98412,29.5167,-75.7508,32.719,82.3964,
23.8643,56.5743,-30.5099,-175.6258,82.6378,-119.3017,-94.6958,15.9841,-95.4381,14.0159,14.5167,-87.0751,47.719,91.9944,
32.4686,41.5743,-45.5099,-190.6258,75.7598,-124.9548,-109.6958,30.9841,-110.4381,22.6293,-0.48328,-72.0751,34.4359,76.9944,
47.4686,26.5743,-60.5099,-187.4324,60.7598,-109.9548,-94.6958,15.9841,-95.4381,7.6293,14.5167,-87.0751,19.4359,61.9944,
32.4686,41.5743,-45.5099,-172.4324,75.7598,-94.9548,-79.6958,0.98412,-80.4381,-7.3707,29.5167,-72.0751,34.4359,76.9944,
42.3075,55.0979,-54.1142,-157.4324,84.6151,-109.9548,-94.6958,15.9841,-95.4381,7.6293,14.5167,-87.0751,44.2758,63.9536,
27.3075,70.0979,-39.1142,-162.835,99.6151,-124.9548,-97.8977,9.3471,-110.4381,-7.3707,20.1701,-102.0751,59.2758,78.9536,
13.2822,85.0979,-54.1142,-177.835,114.6151,-109.9548,-82.8977,7.3793,-95.4381,-7.3793,35.1701,-104.7847,66.4127,93.9536,
28.2822,70.0979,-69.1142,-179.069,99.6151,-124.9548,-81.6636,6.887,-97.4059,-6.887,39.3561,-89.7847,51.4127,78.9536,
13.2822,85.0979,-54.1142,-164.069,91.9944,-139.9548,-66.6636,16.2341,-82.4059,-17.2177,54.3561,-74.7847,49.6868,63.9536,
28.2822,70.0979,-39.1142,-172.6741,80.1879,-154.9548,-81.6636,31.2341,-97.4059,-2.2177,39.3561,-89.7847,54.6063,69.3649,
13.2822,68.381,-24.1142,-157.6741,95.1879,-167.7546,-96.6636,16.2341,-105.7688,-4.4274,41.8157,-104.7847,69.6063,84.3649,
-1.7178,83.381,-39.1142,-142.6741,110.1879,-152.7546,-81.6636,1.2341,-90.7688,-19.4274,56.8157,-89.7847,63.9527,99.3649,
13.2822,68.381,-54.1142,-157.6741,95.1879,-137.7546,-66.6636,4.9197,-92.4862,-7.8707,68.8733,-74.7847,48.9527,84.3649,
-1.7178,53.381,-69.1142,-172.6741,80.1879,-122.7546,-81.6636,13.2826,-107.4862,-2.4596,53.8733,-59.7847,33.9527,69.3649,
13.2822,45.7513,-54.1142,-187.6741,95.1879,-107.7546,-96.6636,28.2826,-122.4862,12.5404,38.8733,-62.4772,48.9527,84.3649,
10.3303,60.7513,-39.1142,-172.6741,110.1879,-122.7546,-91.0107,13.2826,-107.4862,-2.4596,37.8801,-77.4772,63.9527,69.3649,
-4.6697,75.7513,-24.1142,-157.6741,125.1879,-107.7546,-76.0107,-1.7174,-92.4862,-17.4596,52.8801,-62.4772,48.9527,84.3649,
10.3303,60.7513,-39.1142,-162.835,110.1879,-92.7546,-61.0107,-5.412,-84.1232,-6.3956,37.8801,-47.4772,33.9527,69.3649,
17.2182,45.7513,-54.1142,-177.835,95.1879,-77.7546,-76.0107,9.588,-99.1232,8.6044,22.8801,-32.4772,48.9527,84.3649,
32.2182,30.7513,-69.1142,-192.835,110.1879,-92.7546,-91.0107,24.588,-114.1232,23.6044,7.8801,-42.7994,63.9527,99.3649,
17.2182,45.7513,-54.1142,-177.835,109.7049,-107.7546,-80.1877,9.588,-99.1232,8.6044,22.8801,-57.7994,71.3329,84.3649,
2.2182,60.7513,-39.1142,-162.835,121.0192,-92.7546,-65.1877,-5.412,-84.1232,-6.3956,37.8801,-72.7994,56.3329,69.3649,
17.2182,75.7513,-24.1142,-147.835,132.3346,-77.7546,-50.1877,7.3793,-75.268,-12.2985,52.8801,-57.7994,61.4935,83.1396,
31.9763,60.7513,-39.1142,-162.835,117.3346,-62.7546,-65.1877,22.3793,-90.268,2.7015,37.8801,-42.7994,76.4935,68.1396,
46.9763,45.7513,-54.1142,-177.835,102.3346,-77.7546,-80.1877,37.3793,-105.268,17.7015,22.8801,-27.7994,91.4935,83.1396,
31.9763,39.3561,-56.0825,-179.0695,87.3346,-92.7546,-82.6473,22.3793,-90.268,2.7015,37.8801,-42.7994,76.4935,68.1396,
16.9763,54.3561,-41.0825,-164.0695,86.5833,-107.7546,-67.6473,7.3793,-75.268,-12.2985,52.8801,-57.7994,61.4935,63.9536,
31.9763,69.3561,-26.0825,-149.0695,101.5833,-120.5279,-82.6473,-2.4596,-84.1237,-1.476,65.4286,-42.7994,46.4935,78.9536,
37.8797,54.3561,-41.0825,-164.0695,86.5833,-105.5279,-97.6473,12.5404,-99.1237,13.524,50.4286,-57.7994,39.8479,82.1555,
52.8797,39.3561,-56.0825,-179.0695,71.5833,-90.5279,-112.6473,27.5404,-114.1237,28.524,35.4286,-72.7994,54.8479,97.1555,
41.3234,24.3561,-71.0825,-189.8921,56.5833,-105.5279,-97.6473,12.5404,-99.1237,13.524,39.3561,-87.7994,39.8479,82.1555,
26.3234,39.3561,-56.0825,-174.8921,49.6864,-120.5279,-82.6473,-2.4596,-84.1237,-1.476,54.3561,-72.7994,29.0249,79.2035,
41.3234,54.3561,-41.0825,-159.8921,64.6864,-135.5279,-97.6473,10.3303,-99.1237,3.4437,39.3561,-87.7994,44.0249,94.2035,
36.8965,39.3561,-35.9119,-174.8921,79.6864,-120.5279,-112.6473,23.1215,-114.1237,3.4437,24.3561,-72.7994,59.0249,84.1232,
51.8965,24.3561,-50.9119,-189.8921,64.6864,-105.5279,-127.6473,38.1215,-129.1237,16.2345,9.3561,-57.7994,44.0249,74.2843,
66.8965,9.3561,-63.4613,-190.3839,70.3483,-120.5279,-123.4789,53.1215,-144.1237,31.2345,3.4437,-72.7994,49.6868,80.1877,
51.8965,24.3561,-48.4613,-175.3839,85.3483,-135.5279,-108.4789,38.1215,-129.1237,16.2345,18.4437,-70.3492,64.6868,95.1877,
66.8965,28.5333,-34.4362,-160.3839,70.8408,-150.5279,-123.4789,23.1215,-144.1237,12.7906,3.4437,-85.3492,59.0341,82.6475,
51.8965,30.009,-19.4362,-175.3839,85.8408,-165.5279,-138.2375,28.0408,-159.1237,-0.49183,-10.3312,-100.3492,74.0341,97.6475,
36.8965,45.009,-34.4362,-188.4166,100.8408,-150.5279,-123.2375,33.9446,-144.1237,-0.49183,4.6688,-85.3492,78.2194,112.6475,
21.8965,38.8643,-49.4362,-173.4166,85.8408,-135.5279,-108.2375,18.9446,-129.1237,-15.4918,19.6688,-70.3492,63.2194,97.6475,
6.8965,53.8643,-34.4362,-158.4166,100.8408,-120.5279,-93.2375,28.0412,-114.1237,-0.49183,34.6688,-55.3492,61.494,82.6475,
21.8965,38.8643,-47.227,-173.4166,101.3407,-135.5279,-108.2375,43.0412,-129.1237,14.5082,19.6688,-70.3492,71.8245,96.4215,
14.7586,53.8643,-32.227,-158.4166,116.3407,-120.5279,-93.2375,28.0412,-114.1322,-0.49183,34.6688,-71.8247,86.8245,111.4215,
-0.24141,68.8643,-47.227,-143.4166,125.9389,-105.5279,-78.2375,13.0412,-99.1322,-15.4918,49.6688,-56.8247,85.5987,118.0678,
14.7586,53.8643,-62.227,-158.4166,110.9389,-90.5279,-63.2375,-1.9588,-84.1322,-6.3952,64.6688,-41.8247,70.5987,103.0678,
-0.24141,38.8643,-77.227,-173.4166,95.9389,-75.5279,-78.2375,6.8875,-99.1322,-4.9192,49.6688,-26.8247,55.5987,88.0678,
14.7586,28.5331,-62.227,-188.4166,110.9389,-90.5279,-93.2375,21.8875,-114.1322,10.0808,34.6688,-41.8247,70.5987,103.0678,
12.7908,43.5331,-47.227,-173.4166,123.9712,-105.5279,-78.2375,8.8552,-99.1322,-4.9192,49.6688,-56.8247,76.7435,99.3732,
-2.2092,58.5331,-47.2277,-158.4166,125.938,-90.5279,-63.2375,-6.1448,-84.1322,-19.9192,64.6688,-41.8247,61.7435,106.2602,
-1.9678,50.1791,-62.2277,-173.4166,110.938,-75.5279,-68.8723,-21.1448,-80.6795,-24.5975,49.6688,-26.8247,46.7435,91.2602,
-3.9356,35.1791,-77.2277,-188.4166,95.938,-60.5279,-83.8723,-6.1448,-90.5189,-9.5975,34.6688,-11.8247,31.7435,76.2602,
11.0644,20.1791,-92.2277,-203.4166,96.4217,-75.5279,-98.8723,8.8552,-105.5189,5.4025,19.6688,3.1753,46.7435,91.2602,
26.0644,35.1791,-77.2277,-188.4166,111.4217,-90.5279,-83.8723,3.4437,-90.5189,-6.3956,34.6688,-11.8247,61.7435,85.1069,
11.0644,50.1791,-62.2277,-173.4166,113.1481,-80.68,-68.8723,-11.5563,-75.5189,-21.3956,49.6688,-26.8247,46.7435,70.1069,
26.0644,65.1791,-47.2277,-158.4166,117.0837,-65.68,-53.8723,3.4437,-60.5189,-8.8552,64.6688,-14.7581,56.082,83.6309,
11.0644,50.1791,-62.2277,-173.4166,102.0837,-50.68,-68.8723,14.7591,-75.5189,0.98412,49.6688,0.24188,41.082,68.6309,
26.0644,35.1791,-77.2277,-188.4166,87.0837,-49.6868,-78.2199,29.7591,-90.5189,15.9841,34.6688,15.2419,56.082,83.6309,
23.6134,50.1791,-62.2277,-173.4166,86.5833,-64.6868,-76.7439,14.7591,-75.5189,3.9356,49.6688,0.24188,62.969,68.6309,
8.6134,65.1791,-47.2277,-158.4166,101.5833,-79.6868,-61.7439,-0.24094,-60.5189,-11.0644,64.6688,-14.7581,47.969,53.6309,
23.6134,78.7117,-32.2277,-143.4166,116.5833,-94.6868,-46.7439,-1.9678,-75.5189,-3.936,52.1464,-29.7581,51.1628,68.6309,
38.6134,63.7117,-47.2277,-158.4166,108.7198,-79.6868,-61.7439,13.0322,-90.5189,11.064,37.1464,-14.7581,66.1628,65.4286,
53.6134,48.7117,-62.2277,-173.4166,93.7198,-64.6868,-76.7439,28.0322,-99.3739,26.064,22.1464,0.24188,81.1628,80.4286,
56.082,33.7117,-77.2277,-180.0532,78.7198,-79.6868,-61.7439,13.0322,-84.3739,11.064,37.1464,-14.7581,66.1628,65.4286,
41.082,48.7117,-62.2277,-165.0532,82.1555,-94.6868,-46.7439,-1.9678,-69.3739,-3.936,52.1464,-29.7581,51.1628,60.5094,
56.082,63.7117,-47.2277,-150.0532,97.1555,-109.6868,-60.5094,-0.49183,-54.3739,0.49183,50.6705,-44.7581,66.1628,75.5094,
41.082,49.195,-44.2758,-165.0532,94.4544,-94.6868,-75.5094,14.5082,-69.3739,-6.8875,35.6705,-59.0334,74.7757,89.5343,
26.082,34.195,-59.2758,-180.0532,79.4544,-79.6868,-90.5094,12.7908,-84.3739,-8.8552,20.6705,-44.0334,59.7757,74.5343,
41.082,36.4042,-74.2758,-165.0532,64.4544,-94.6868,-75.5094,1.9678,-69.3739,-1.9678,35.6705,-29.0334,44.7757,59.5343,
26.082,51.4042,-61.4935,-150.0532,76.2521,-109.6868,-60.5094,-13.0322,-54.3739,-16.9678,50.6705,-27.0571,53.6224,74.5343,
41.082,58.5416,-61.4935,-135.0532,76.2521,-124.6868,-75.5094,1.9678,-69.3739,-5.411,35.6705,-42.0571,59.5253,72.3165,
26.082,73.5416,-46.4935,-150.0532,91.2521,-109.6868,-77.7276,0,-84.3739,-12.7903,24.598,-31.4845,74.5253,79.6958,
11.082,88.5416,-61.4935,-165.0532,103.8015,-94.6868,-62.7276,-2.4596,-79.2035,-15.25,39.598,-16.4845,64.445,91.0102,
26.082,73.5416,-76.4935,-155.4557,88.8015,-79.6868,-47.7276,11.8067,-64.2035,-15.7423,54.598,-31.4845,49.445,76.0102,
11.082,88.5416,-61.4935,-140.4557,95.9295,-64.6868,-32.7276,18.2019,-49.2035,-27.0576,69.598,-46.4845,58.5421,61.0102,
26.082,73.5416,-46.4935,-144.1408,84.1228,-79.6868,-47.7276,33.2019,-64.2035,-12.0576,54.598,-61.4845,55.5902,74.2843,
11.3149,72.3165,-31.4935,-129.1408,99.1228,-94.6868,-61.4935,18.2019,-79.2035,-19.186,42.7994,-76.4845,70.5902,89.2843,
-3.6851,87.3165,-46.4935,-114.1408,110.1967,-79.6868,-46.4935,3.2019,-64.2035,-34.186,57.7994,-61.4845,77.7276,104.2843,
11.3149,72.3165,-61.4935,-129.1408,95.1967,-64.6868,-31.4935,-11.7981,-49.2035,-20.1701,72.7994,-46.4845,62.7276,89.2843,
-3.6851,57.3165,-76.4935,-144.1408,80.1967,-49.6868,-46.4935,-0.98366,-41.3239,-35.1701,57.7994,-31.4845,47.7276,74.2843,
11.3149,42.3165,-61.4935,-159.1408,95.1967,-64.6868,-61.4935,14.0163,-56.3239,-20.1701,42.7994,-46.4845,62.7276,89.2843,
21.1533,57.3165,-46.4935,-144.1408,110.1967,-79.6868,-46.4935,8.363,-70.3488,-19.186,57.7994,-61.4845,77.7276,97.8972,
6.1533,72.3165,-46.7354,-129.1408,121.5111,-94.6868,-31.4935,-6.637,-55.3488,-34.186,72.7994,-46.4845,62.7276,101.8333,
-3.4437,57.3165,-61.7354,-144.1408,106.5111,-79.6868,-46.4935,-21.637,-40.3488,-45.7513,66.4127,-31.4845,47.7276,86.8333,
-4.9197,42.3165,-76.7354,-159.1408,91.5111,-64.6868,-61.4935,-6.637,-33.4523,-30.7513,51.4127,-16.4845,32.7276,71.8333,
10.0803,27.3165,-91.7354,-174.1408,83.1389,-49.6868,-76.4935,8.363,-48.4523,-15.7513,36.4127,-1.4845,47.7276,86.8333,
25.0803,42.3165,-76.7354,-159.1408,98.1389,-64.6868,-61.4935,9.8389,-63.4523,-9.8389,51.4127,-16.4845,62.7276,82.6473,
10.0803,57.3165,-61.7354,-144.1408,113.1389,-49.6868,-46.4935,-5.1611,-48.4523,-24.8389,66.4127,-31.4845,47.7276,83.6309,
9.8389,55.0974,-46.7354,-148.5687,98.1389,-34.6868,-31.4935,-17.71,-57.0666,-39.8389,78.7117,-16.4845,37.3878,79.6954,
-5.1611,40.0974,-61.7354,-163.5687,83.1389,-19.6868,-45.2594,-2.71,-72.0666,-24.8389,63.7117,-1.4845,27.5489,64.6954,
9.8389,25.0974,-76.7354,-178.5687,68.1389,-34.6868,-60.2594,12.29,-87.0666,-9.8389,48.7117,5.9033,42.5489,72.8079,
19.6778,40.0974,-71.8247,-163.5687,83.1389,-49.6868,-54.1147,7.8711,-72.0666,-7.8711,63.7117,-9.0967,57.5489,78.7112,
4.6778,55.0974,-56.8247,-148.5687,98.1389,-58.5416,-39.1147,-7.1289,-57.0666,-22.8711,78.7117,-24.0967,42.7994,66.4127,
19.6778,67.3964,-41.8247,-133.5687,113.1389,-54.6065,-24.1147,-12.2985,-55.5902,-23.1215,90.0261,-26.0735,57.7994,81.4127,
4.6778,52.3964,-56.8247,-148.5687,98.1389,-39.6065,-39.1147,2.7015,-70.5902,-8.1215,75.0261,-11.0735,51.6546,79.2035,
19.6778,37.3964,-71.8247,-163.5687,83.1389,-24.6065,-54.1147,17.7015,-85.5902,6.8785,60.0261,0.49183,36.8955,64.2035,
19.6783,22.3964,-86.8247,-168.2465,68.8723,-30.5004,-39.1147,10.8226,-70.5902,-8.1215,75.0261,-14.5082,45.259,54.1147,
4.6783,37.3964,-71.8247,-153.2465,83.8723,-45.5004,-24.1147,-4.1774,-55.5902,-23.1215,90.0261,-29.5082,39.3556,69.1147,
19.6783,52.3964,-56.8247,-138.2465,98.8723,-60.5004,-39.1147,10.8226,-40.5902,-12.2985,75.0261,-44.5082,54.3556,84.1147,
21.1538,37.3964,-64.4459,-153.2465,106.7525,-45.5004,-54.1147,25.8226,-55.5902,-5.4115,60.0261,-29.5082,69.3556,91.9939,
6.1538,22.3964,-79.4459,-168.2465,91.7525,-30.5004,-69.1147,20.6615,-70.5902,-15.7423,45.0261,-14.5082,54.3556,76.9939,
21.1538,21.1538,-94.4459,-159.8835,76.7525,-45.5004,-54.1147,13.2826,-63.4613,-13.2826,60.0261,-22.1374,39.3556,61.9939,
6.1538,36.1538,-84.6151,-144.8835,75.7603,-60.5004,-39.1147,-1.7174,-48.4613,-28.2826,75.0261,-15.7423,54.3556,76.9939,
21.1538,21.1538,-91.5025,-136.7615,90.5189,-75.5004,-54.1147,2.9519,-63.4613,-13.2826,60.0261,-30.7423,69.3556,91.9939,
6.1538,36.1538,-76.5025,-151.7615,105.5189,-60.5004,-64.9377,11.8062,-78.4613,-23.6138,60.0176,-15.7423,84.3556,106.9939,
-8.8462,51.1538,-91.5025,-166.7615,90.5189,-45.5004,-49.9377,-3.1938,-92.978,-38.6138,75.0176,-0.74225,69.3556,93.9617,
6.1538,36.1538,-106.5025,-175.6253,75.5189,-30.5004,-52.6383,-16.2336,-77.978,-53.6138,90.0176,-1.476,54.3556,78.9617,
-8.8462,51.1538,-117.576,-160.6253,66.4127,-15.5004,-37.6383,-1.2336,-62.978,-42.7994,105.0176,-16.476,62.4772,93.9617,
6.1538,36.1538,-102.576,-146.6002,81.4127,-30.5004,-52.6383,13.7664,-77.978,-27.7994,90.0176,-31.476,71.8245,108.9617,
-0.49183,51.1538,-87.576,-131.6002,96.4127,-45.5004,-62.4772,5.411,-62.978,-19.186,75.0176,-46.476,86.8245,123.9617,
-15.4918,66.1538,-102.576,-146.6002,81.4127,-30.5004,-47.4772,-9.589,-47.978,-34.186,90.0176,-40.832,71.8245,108.9617,
-0.49183,51.1538,-117.576,-161.6002,66.4127,-15.5004,-32.4772,-24.589,-32.978,-49.186,90.027,-25.832,56.8245,93.9617,
-15.4918,36.1538,-132.576,-176.6002,51.4127,-0.50037,-47.4772,-11.3149,-17.978,-44.7676,75.027,-10.832,41.8245,78.9617,
-0.49183,21.1538,-117.576,-187.4324,66.4127,-15.5004,-62.4772,3.6851,-32.978,-29.7676,60.027,-25.832,56.8245,93.9617,
14.5082,36.1538,-102.576,-172.4324,81.4127,-30.5004,-47.4772,6.887,-37.3878,-17.71,75.027,-40.832,71.8245,108.9617,
-0.49183,51.1538,-87.576,-157.4324,96.4127,-45.5004,-32.4772,-8.113,-22.3878,-32.71,90.027,-25.832,56.8245,107.7366,
-14.7586,36.1538,-102.576,-172.4324,81.4127,-30.5004,-46.2431,-23.113,-15.7422,-47.71,75.027,-10.832,41.8245,92.7366,
-23.6134,21.1538,-117.576,-187.4324,66.4127,-15.5004,-31.2431,-8.113,-2.9519,-37.3883,71.8247,4.168,26.8245,77.7366,
-8.6134,6.1538,-132.576,-202.4324,57.0664,-4.9195,-46.2431,6.887,-17.9519,-22.3883,56.8247,-10.832,41.8245,92.7366,
6.3866,21.1538,-117.576,-187.4324,72.0664,-19.9195,-31.2431,12.299,-32.9519,-12.299,71.8247,-25.832,56.8245,107.7366,
-8.6134,36.1538,-102.576,-172.4324,87.0664,-32.96,-16.2431,-2.701,-17.9519,-27.299,86.8247,-40.832,60.5099,92.7366,
-7.8716,51.1538,-87.576,-157.4324,101.3414,-17.96,-4.9197,-17.701,-27.5494,-42.299,91.5021,-25.832,53.1301,77.7366,
-22.8716,36.1538,-102.576,-172.4324,86.3414,-2.96,-19.9197,-2.701,-12.5494,-27.299,76.5021,-10.832,38.1301,63.9531,
-7.8716,21.1538,-117.576,-187.4324,71.3414,-17.96,-34.9197,12.299,-27.5494,-12.299,61.5021,4.168,36.896,52.6383,
7.1284,36.1538,-102.576,-172.4324,86.3414,-32.96,-19.9197,3.4437,-42.5494,-22.1379,76.5021,-10.832,51.896,41.8157,
-7.8716,51.1538,-87.576,-157.4324,101.3414,-47.96,-4.9197,-11.5563,-27.5494,-37.1379,91.5021,-25.832,64.4445,56.8157,
-8.3634,66.1538,-77.2362,-142.4324,105.7688,-32.96,8.3634,-22.1374,-12.5494,-42.7998,106.5021,-32.9605,74.2843,71.8157,
-23.3634,51.1538,-92.2362,-157.4324,90.7688,-17.96,-6.6366,-7.1374,-27.5494,-27.7998,91.5021,-17.9605,59.2843,86.8157,
-8.3634,36.1538,-107.2362,-172.4324,75.7688,-10.3307,-21.6366,7.8626,-42.5494,-12.7998,76.5021,-2.9605,44.2843,71.8157,
-2.9519,33.4527,-121.0192,-158.4071,70.8411,-17.7096,-6.6366,-7.1374,-27.5494,-27.7998,91.5021,-17.9605,45.2594,56.8157,
-17.9519,48.4527,-106.0192,-143.4071,82.6477,-32.7096,8.3634,-22.1374,-12.5494,-42.7998,106.5021,-32.9605,42.3075,59.0344,
-2.9519,63.4527,-94.454,-153.4879,90.5189,-47.7096,12.7903,-22.6297,-27.5494,-42.3075,119.0515,-17.9605,57.3075,74.0344,
-14.7586,48.4527,-109.454,-168.4879,97.4054,-32.7096,-2.2097,-7.6297,-21.6461,-27.3075,104.0515,-2.9605,72.3075,89.0344,
-22.6297,33.4527,-124.454,-183.4879,82.4054,-17.7096,-17.2097,7.3703,-29.5172,-12.3075,89.0515,12.0395,57.3075,74.0344,
-10.823,26.5653,-139.454,-168.4879,67.4054,-15.7422,-2.2097,-7.6297,-14.7586,-27.3075,104.0515,27.0395,42.3075,59.0344,
-25.823,41.5653,-134.7937,-153.4879,52.4054,-30.7422,12.7903,-22.6297,0.24141,-42.3075,119.0515,12.0395,27.3075,74.0344,
-10.823,42.7994,-119.7937,-164.8023,67.4054,-45.7422,-2.2097,-7.6297,-14.7586,-27.3075,104.0515,-2.9605,42.3075,89.0344,
-21.6456,43.2917,-104.7937,-174.1493,82.4054,-30.7422,-17.2097,-12.7908,-29.7586,-30.5004,101.3414,12.0395,57.3075,97.4059,
-36.6456,33.4523,-119.7937,-189.1493,67.4054,-15.7422,-18.6946,-27.7908,-16.7264,-45.5004,86.3414,27.0395,42.3075,82.4059,
-24.5975,40.3397,-134.7937,-195.7954,52.4054,-0.74225,-3.6946,-42.3071,-1.7264,-60.5004,71.3414,42.0395,27.3075,67.4059,
-39.5975,55.3397,-137.2533,-180.7954,60.5094,1.476,11.3054,-27.3071,-16.7264,-45.5004,86.3414,27.0395,42.3075,82.4059,
-24.5975,40.3397,-148.0764,-168.7383,71.3329,-13.524,-3.6946,-12.3071,-31.7264,-30.5004,71.3414,12.0395,57.3075,91.0107,
-39.5975,55.3397,-133.0764,-157.9153,86.3329,1.476,-10.3307,-27.3071,-19.1855,-45.5004,70.3488,27.0395,72.3075,106.0107,
-54.5975,70.3397,-148.0764,-172.9153,71.3329,16.476,-25.3307,-42.3071,-34.1855,-60.5004,85.3488,42.0395,57.3075,91.0107,
-39.5975,55.3397,-163.0764,-187.9153,56.3329,13.774,-25.5816,-57.3071,-19.1855,-75.5004,91.5025,27.5489,42.3075,76.0107,
-54.5975,40.3397,-178.0764,-202.9153,41.3329,28.774,-10.5816,-42.3071,-4.1855,-60.5094,76.5025,33.9441,27.3075,61.0107,
-39.5975,25.3397,-165.2948,-217.9153,56.3329,13.774,-15.7425,-27.3071,-19.1855,-45.5094,61.5025,18.9441,42.3075,76.0107,
-24.5975,40.3397,-150.2948,-202.9153,71.3329,-1.226,-30.7425,-12.3071,-34.1855,-30.5094,76.5025,3.9441,57.3075,91.0107,
-39.5975,55.3397,-135.2948,-187.9153,86.3329,-16.226,-15.7425,-27.3071,-19.1855,-45.5094,91.5025,-11.0559,72.3075,106.0107,
-41.3239,40.3397,-150.2948,-201.6987,71.3329,-1.226,-0.74248,-42.3071,-4.1855,-60.5094,76.5025,-22.6297,57.3075,91.0107,
-48.2113,25.3397,-165.2948,-216.6987,56.3329,13.774,14.2575,-27.3071,10.8145,-47.2277,61.5025,-7.6297,42.3075,76.0107,
-33.2113,10.3397,-180.2948,-231.6987,41.3329,25.5807,-0.74248,-12.3071,-4.1855,-32.2277,46.5025,-22.6297,44.2748,61.0107,
-18.2113,25.3397,-165.2948,-216.6987,56.3329,10.5807,-15.7425,2.6929,-6.887,-21.6456,61.5025,-37.6297,59.2748,76.0107,
-33.2113,40.3397,-150.2948,-201.6987,71.3329,-4.4193,-0.74248,-12.3071,8.113,-36.6456,76.5025,-52.6297,74.2748,91.0107,
-48.2113,28.0417,-152.0119,-186.6987,71.3329,10.5807,-8.363,-27.3071,8.363,-51.6456,61.5025,-37.6297,59.2748,76.0107,
-63.2113,13.0417,-167.0119,-201.6987,56.3329,25.5807,6.637,-42.3071,23.363,-59.5257,76.5025,-22.6297,44.2748,61.0107,
-48.2113,-1.9583,-182.0119,-216.6987,41.3329,28.5331,-8.363,-27.3071,8.363,-44.5257,61.5025,-7.6297,29.2748,46.0107,
-33.2113,13.0417,-167.0119,-201.6987,56.3329,13.5331,-23.363,-12.3071,1.9678,-32.4686,76.5025,-22.6297,44.2748,61.0107,
-48.2113,28.0417,-152.0119,-186.6987,71.3329,-1.4669,-8.363,-27.3071,2.4596,-47.4686,91.5025,-37.6297,59.2748,76.0107,
-33.2113,43.0417,-137.0119,-171.6987,86.3329,-2.9514,6.637,-14.7581,-1.9678,-40.3397,105.277,-47.2263,74.2748,91.0107,
-48.2113,28.0417,-152.0119,-186.6987,71.3329,12.0486,21.637,-29.7581,13.0322,-54.6065,120.277,-32.2263,59.2748,76.0107,
-33.2113,13.0417,-167.0119,-201.6987,56.3329,27.0486,6.637,-14.7581,-1.9678,-39.6065,122.4947,-17.2263,44.2748,61.0107,
-18.2113,28.0417,-155.4557,-186.6987,71.3329,12.0486,7.8716,-4.9197,-16.9678,-41.3234,107.4947,-32.2263,59.2748,46.0107,
-33.2113,43.0417,-140.4557,-171.6987,86.3329,-2.9514,22.8716,-19.9197,-1.9678,-56.3234,122.4947,-47.2263,74.2748,61.0107,
-18.2113,58.0417,-125.4557,-170.2142,86.5828,-17.9514,7.8716,-31.485,-1.9678,-56.082,110.1962,-58.0502,74.7762,76.0107,
-18.2019,43.0417,-140.4557,-185.2142,81.1718,-2.9514,4.4279,-16.485,-4.4279,-41.082,95.1962,-43.0502,75.268,79.2035,
-33.2019,28.0417,-155.4557,-200.2142,66.1718,12.0486,19.4279,-24.5975,-19.4279,-32.4686,99.3732,-28.0502,60.268,64.2035,
-48.2019,13.0417,-170.4557,-185.2142,51.1718,-0.98412,10.8226,-39.5975,-4.4279,-47.4686,114.3732,-13.0502,45.268,49.2035,
-63.2019,28.0417,-155.4557,-170.2142,66.1718,-15.9841,25.8226,-54.5975,10.5721,-62.4686,129.3732,-28.0502,46.7349,64.2035,
-48.2019,43.0417,-140.4557,-157.4234,81.1718,-30.9841,13.7749,-39.5975,-4.4279,-77.4686,114.3732,-43.0502,61.7349,79.2035,
-57.0661,28.0417,-125.4557,-172.4234,96.1718,-15.9841,-1.2251,-37.3883,-8.8548,-92.4686,99.3732,-28.0502,72.8084,64.2035,
-72.0661,41.8152,-140.4557,-187.4234,81.1718,-0.98412,-16.2251,-52.3883,6.1452,-107.4686,84.3732,-13.0502,57.8084,49.2035,
-57.0661,56.8152,-155.4557,-172.4234,66.1718,14.0159,-1.2251,-46.7349,21.1452,-122.4686,69.3732,1.9498,42.8084,34.2035,
-72.0661,71.8152,-162.8349,-157.4234,51.1718,-0.98412,13.7749,-43.7835,6.1452,-130.3659,84.3732,16.9498,31.9768,49.2035,
-57.0661,56.8152,-147.8349,-142.4234,66.1718,-15.9841,-1.2251,-28.7835,-8.8548,-115.3659,69.3732,1.9498,46.9768,64.2035,
-48.7027,44.7671,-132.8349,-157.4234,81.1718,-0.98412,13.7749,-26.0739,-14.2663,-130.3659,84.3732,-13.0502,61.9768,79.2035,
-63.7027,59.7671,-147.8349,-172.4234,66.1718,14.0159,10.823,-41.0739,-29.2663,-145.3659,69.3732,-10.823,46.9768,64.2035,
-48.7027,74.7671,-162.8349,-157.4234,51.1718,-0.98412,-4.177,-28.5331,-14.2663,-130.3659,54.3732,4.177,53.131,77.7281,
-50.671,73.2997,-177.8349,-142.4234,36.1718,-15.9841,-19.177,-25.0893,0.7337,-115.3659,39.3732,19.177,38.131,62.7281,
-35.671,58.2997,-162.8349,-157.4234,51.1718,-30.9841,-4.177,-10.0893,-14.2663,-100.3659,54.3732,4.177,53.131,77.7281,
-24.1057,61.493,-147.8349,-142.4234,66.1718,-15.9841,-3.4433,-20.1701,0.7337,-104.7852,69.3732,-10.823,68.131,92.7281,
-39.1057,76.493,-149.5523,-139.7129,70.8411,-0.98412,-11.8067,-35.1701,15.7337,-119.7852,84.3732,-25.823,53.131,79.6958,
-29.0254,70.3483,-164.5523,-154.7129,55.8411,14.0159,3.1933,-50.1701,30.7337,-134.3019,69.3732,-40.823,38.131,64.6958,
-44.0254,55.3483,-179.5523,-169.7129,40.8411,29.0159,18.1933,-35.1701,45.7337,-119.3019,54.3732,-25.823,25.0898,49.6958,
-29.0254,40.3483,-194.5523,-184.7129,25.8411,20.6615,3.1933,-20.1701,30.7337,-104.3019,39.3732,-39.3556,40.0898,59.0334,
-14.0254,55.3483,-179.5523,-169.7129,40.8411,5.6615,-11.8067,-5.1701,15.7337,-89.3019,54.3732,-54.3556,55.0898,74.0334,
-29.0254,70.3483,-164.5523,-154.7129,55.8411,-9.3385,3.1933,-20.1701,30.7337,-104.3019,69.3732,-69.3556,64.9377,83.6319,
-44.0254,55.3483,-151.0283,-169.7129,42.7998,5.6615,18.1933,-35.1701,45.7337,-119.3019,54.3732,-54.3556,49.9377,68.6319,
-59.0254,40.3483,-166.0283,-184.7129,27.7998,20.6615,33.1933,-48.7027,60.7337,-130.3659,39.3732,-39.3556,34.9377,53.6319,
-44.0254,25.3483,-181.0283,-199.7129,12.7998,35.6615,18.1933,-33.7027,45.7337,-115.3659,42.3075,-24.3556,19.9377,50.1787,
-29.0254,40.3483,-166.0283,-184.7129,27.7998,20.6615,3.1933,-18.7027,48.2104,-100.3659,57.3075,-39.3556,34.9377,65.1787,
-44.0254,55.3483,-151.0283,-169.7129,42.7998,5.6615,18.1933,-33.7027,33.2104,-115.3659,72.3075,-54.3556,49.9377,80.1787,
-29.0254,40.3483,-136.0283,-154.7129,57.7998,-9.3385,6.3954,-18.7027,18.2104,-100.3659,62.4774,-69.3556,64.9377,95.1787,
-26.5657,25.3483,-151.0283,-169.7129,42.7998,5.6615,-5.9033,-18.6946,33.2104,-85.3659,77.4774,-54.3556,49.9377,80.1787,
-11.5657,10.3483,-166.0283,-184.7129,27.7998,20.6615,-20.9033,-10.3312,48.2104,-70.3659,92.4774,-39.3556,34.9377,65.1787,
3.4343,13.774,-151.0283,-169.7129,42.7998,5.6615,-5.9033,-10.823,33.2104,-61.9858,95.4381,-44.2753,49.9377,50.1787,
-11.5657,28.774,-136.0283,-154.7129,57.7998,-9.3385,9.0967,-25.823,18.2104,-76.9858,110.4381,-59.2753,64.9377,65.1787,
3.4343,43.774,-121.0283,-139.7129,72.7998,-24.3385,-5.9033,-22.6293,13.7745,-91.9858,100.3578,-74.2753,79.9377,80.1787,
-9.8389,28.774,-136.0283,-154.7129,57.7998,-9.3385,9.0967,-18.6937,-1.2255,-78.7117,115.3578,-59.2753,77.7281,95.1787,
-15.2509,13.774,-151.0283,-169.7129,42.7998,5.6615,24.0967,-12.299,-16.2255,-73.3007,130.3578,-44.2753,62.7281,80.1787,
-11.8067,13.7749,-156.4393,-163.3268,27.7998,15.7423,9.0967,-27.299,-1.2255,-88.3007,115.3578,-45.2594,47.7281,65.1787,
-26.8067,28.7749,-141.4393,-148.3268,42.7998,0.74225,24.0967,-42.299,13.7745,-103.3007,130.3578,-60.2594,62.7281,80.1787,
-11.8067,13.7749,-126.4393,-163.3268,57.7998,-14.2577,20.1701,-27.299,-1.2255,-88.3007,115.3578,-75.2594,77.7281,95.1787,
-24.1052,-1.2251,-111.4393,-178.3268,72.7998,0.74225,5.1701,-22.1379,13.7745,-85.1069,100.3578,-60.2594,91.0107,80.1787,
-39.1052,-9.3471,-126.4393,-193.3268,57.7998,15.7423,-9.8299,-37.1379,28.7745,-100.1069,85.3578,-45.2594,76.0107,65.1787,
-24.1052,-6.887,-141.4393,-191.8598,42.7998,4.9197,5.1701,-52.1379,17.71,-111.1803,93.4703,-30.2594,61.0107,50.1787,
-39.1052,8.113,-126.4393,-176.8598,49.1945,-10.0803,20.1701,-37.1379,29.5167,-96.1803,108.4703,-45.2594,59.0339,65.1787,
-24.1052,23.113,-111.4393,-161.8598,64.1945,-25.0803,5.1701,-22.1379,14.5167,-81.1803,93.4703,-60.2594,74.0339,80.1787,
-9.1052,38.113,-96.4393,-146.8598,79.1945,-10.0803,-9.8299,-7.1379,10.8226,-76.7444,97.4059,-45.2594,89.0339,95.1787,
-24.1052,39.8475,-111.4393,-161.8598,64.1945,-2.4601,-24.8299,-22.1379,2.4601,-91.7444,82.4059,-30.2594,74.0339,80.1787,
-16.2341,24.8475,-126.4393,-176.8598,49.1945,12.5399,-9.8299,-37.1379,17.4601,-106.7444,67.4059,-15.2594,59.0339,65.1787,
-31.2341,9.8475,-141.4393,-161.8598,34.1945,27.5399,5.1701,-30.009,32.4601,-91.7444,52.4059,-0.25944,44.0339,50.1787,
-16.2341,-5.1525,-156.4393,-176.8598,42.3078,14.7579,7.8714,-15.009,17.4601,-76.7444,37.4059,-15.2594,59.0339,65.1787,
-1.2341,9.8475,-141.4393,-161.8598,57.3078,-0.24211,-7.1286,-0.0090153,2.4601,-61.7444,52.4059,-30.2594,74.0339,80.1787,
-16.2341,24.8475,-126.4393,-146.8598,72.3078,-15.2421,7.8714,-15.009,17.4601,-76.7444,67.4059,-43.7835,89.0339,95.1787,
-31.2341,9.8475,-141.4393,-161.8598,57.3078,-0.24211,22.8714,-30.009,32.4601,-91.7444,52.4059,-28.7835,74.0339,80.1787,
-29.0249,-5.1525,-156.4393,-176.8598,42.3078,14.7579,37.8714,-21.1538,47.4601,-76.7444,67.4059,-13.7835,59.0339,65.1787,
-14.0249,-20.1525,-171.4393,-191.8598,27.3078,26.0735,22.8714,-6.1538,32.4601,-61.7444,70.3483,1.2165,59.5253,50.1787,
0.97511,-5.1525,-156.4393,-176.8598,42.3078,11.0735,7.8714,0.4923,17.4601,-66.4132,85.3483,-13.7835,74.5253,65.1787,
-14.0249,9.8475,-141.4393,-161.8598,57.3078,-3.9265,19.6778,-14.5077,32.4601,-81.4132,100.3483,-28.7835,89.5253,80.1787,
-29.0249,-5.1525,-141.1894,-176.8598,42.3078,2.4596,4.6778,-29.5077,26.073,-96.4132,85.3483,-13.7835,74.5253,65.1787,
-44.0249,-20.1525,-156.1894,-191.8598,27.3078,17.4596,19.6778,-44.5077,41.073,-106.2611,100.3483,1.2165,59.5253,50.1787,
-29.0249,-35.1525,-171.1894,-206.8598,12.3078,21.1538,4.6778,-29.5077,26.073,-91.2611,96.914,16.2165,44.5253,35.1787,
-14.0249,-20.1525,-156.1894,-191.8598,27.3078,6.1538,-10.3222,-14.5077,35.9128,-76.2611,81.914,1.2165,59.5253,50.1787,
-29.0249,-5.1525,-141.1894,-176.8598,42.3078,-8.8462,0.98412,-29.5077,22.6293,-91.2611,96.914,-13.7835,74.5253,65.1787,
-14.0249,9.8475,-126.1894,-161.8598,57.3078,-8.363,15.9841,-30.009,7.6293,-77.2358,102.8174,-28.7835,89.5253,80.1787,
-29.0249,-5.1525,-141.1894,-176.8598,42.3078,6.637,23.6138,-45.009,22.6293,-92.2358,87.8174,-13.7835,74.5253,65.1787,
-14.0249,-20.1525,-156.1894,-191.8598,27.3078,21.637,8.6138,-30.009,37.6293,-77.2358,72.8174,1.2165,59.5253,54.1137,
0.97511,-5.1525,-155.9479,-181.5291,42.3078,6.637,-3.4437,-15.009,22.6293,-63.4613,87.8174,-13.7835,70.3483,46.7349,
-14.0249,9.8475,-140.9479,-166.5291,57.3078,-8.363,11.5563,-30.009,7.6293,-78.4613,102.8174,-28.7835,85.3483,61.7349,
0.97511,9.8389,-125.9479,-155.4557,72.3078,-23.363,-1.9678,-19.6783,1.9678,-63.4613,87.8174,-43.7835,100.3483,76.7349,
-14.0249,-5.1611,-140.9479,-170.4557,57.3078,-8.363,3.4437,-34.6783,16.9678,-78.4613,102.8174,-28.7835,85.3483,88.0588,
-29.0249,-20.1611,-155.9479,-185.4557,42.3078,6.637,18.4437,-26.0735,13.2822,-66.4127,117.8174,-13.7835,70.3483,73.0588,
-14.0249,-5.1611,-161.359,-180.0532,42.3071,-8.363,3.4437,-16.7264,28.2822,-71.8247,106.2607,-28.7835,71.8242,58.0588,
-29.0249,9.8389,-146.359,-165.0532,57.3071,-23.363,18.4437,-31.7264,38.372,-86.8247,121.2607,-43.7835,86.8242,73.0588,
-14.0249,24.8389,-131.359,-177.5933,72.3071,-38.363,3.4437,-16.7264,23.372,-71.8247,106.2607,-58.7835,101.8242,88.0588,
-29.0249,9.8389,-146.359,-192.5933,57.3071,-23.363,-4.4279,-27.0566,8.372,-78.2199,91.2607,-43.7835,86.8242,73.0588,
-44.0249,-5.1611,-161.359,-207.5933,42.3071,-8.363,10.5721,-42.0566,23.372,-93.2199,106.2607,-28.7835,71.8242,58.0588,
-29.0249,-12.7908,-176.359,-192.5933,27.3071,6.637,18.6937,-49.1945,12.7908,-82.6473,121.2607,-33.4523,56.8242,43.0588,
-44.0249,2.2092,-161.359,-177.5933,42.3071,20.6619,3.6937,-34.1945,23.6129,-67.6473,106.2607,-48.4523,71.8242,58.0588,
-29.0249,-12.7908,-146.359,-192.5933,57.3071,5.6619,-11.3063,-19.1945,8.6129,-52.6473,91.2607,-63.4523,86.8242,73.0588,
-18.2023,2.2092,-131.359,-177.5933,72.3071,-9.3381,-12.2985,-4.4274,23.6129,-51.6541,89.0425,-48.4523,101.8242,88.0588,
-33.2023,1.9678,-146.359,-192.5933,57.3071,5.6619,-27.2985,-19.4274,38.6129,-66.6541,74.0425,-33.4523,86.8242,73.0588,
-26.073,-13.0322,-161.359,-207.5933,42.3071,20.6619,-12.2985,-34.4274,23.6129,-81.6541,59.0425,-18.4523,71.8242,58.0588,
-41.073,-28.0322,-176.359,-192.5933,27.3071,35.6619,2.7015,-45.259,9.8389,-87.5674,44.0425,-3.4523,56.8242,73.0588,
-26.073,-43.0322,-161.359,-188.9082,42.3071,20.6619,-2.9517,-30.259,-5.1611,-72.5674,29.0425,-18.4523,71.8242,88.0588,
-11.073,-28.0322,-146.359,-173.9082,57.3071,5.6619,-17.9517,-15.259,-20.1611,-57.5674,44.0425,-33.4523,86.8242,103.0588,
-26.073,-13.0322,-131.359,-158.9082,72.3071,-9.3381,-2.9517,-17.71,-5.1611,-72.5674,59.0425,-48.4523,101.8242,118.0588,
-26.073,-4.4279,-146.359,-173.9082,57.3071,5.6619,12.0483,-32.71,9.8389,-87.5674,44.0425,-33.4523,86.8242,103.0588,
-39.3556,-19.4279,-161.359,-188.9082,42.3071,20.6619,27.0483,-17.71,24.8389,-72.5674,53.1306,-18.4523,71.8242,88.0588,
-24.3556,-34.4279,-176.359,-203.9082,27.3071,5.6619,12.0483,-2.71,9.8389,-57.5674,47.7195,-3.4523,56.8242,73.0588,
-9.3556,-19.4279,-161.359,-188.9082,42.3071,-9.3381,-2.9517,12.29,-5.1611,-42.5674,62.7195,-18.4523,71.8242,88.0588,
-24.3556,-4.4279,-146.359,-173.9082,57.3071,-24.3381,12.0483,-2.71,9.8389,-57.5674,77.7195,-33.4523,86.8242,103.0588,
-39.3556,-8.8548,-161.359,-188.9082,42.3071,-12.7903,12.7903,-17.71,24.8389,-72.5674,91.5025,-18.4523,71.8242,88.0588,
-54.3556,-23.8548,-176.359,-203.9082,27.3071,2.2097,27.7903,-32.71,39.8389,-72.3165,106.5025,-3.4523,56.8242,73.0588,
-39.3556,-38.8548,-191.359,-218.9082,12.3071,17.2097,12.7903,-17.71,24.8389,-57.3165,108.7207,11.5477,41.8242,58.0588,
-24.3556,-23.8548,-176.359,-203.9082,27.3071,2.2097,-2.2097,-9.3471,20.1701,-66.4127,93.7207,-3.4523,56.8242,68.3815,
-39.3556,-8.8548,-161.359,-188.9082,42.3071,-12.7903,2.4601,-24.3471,35.1701,-81.4127,108.7207,-18.4523,71.8242,83.3815,
-24.3556,6.1452,-146.359,-173.9082,57.3071,1.9678,-2.9514,-32.4686,32.4686,-66.4127,117.0837,-33.4523,73.7925,98.3815,
-39.3556,-8.8548,-161.359,-188.9082,42.3071,16.9678,12.0486,-47.4686,47.4686,-81.4127,102.0837,-18.4523,58.7925,83.3815,
-24.3556,-23.8548,-176.359,-203.9082,27.3071,31.9678,9.8389,-32.4686,50.1782,-66.4127,87.0837,-3.4523,43.7925,68.3815,
-9.3556,-8.8548,-178.0854,-188.9082,37.3883,16.9678,-5.1611,-17.4686,37.3883,-71.8242,102.0837,-18.4523,58.7925,53.3815,
-24.3556,6.1452,-163.0854,-173.9082,52.3883,1.9678,9.8389,-32.4686,22.3883,-86.8242,117.0837,-33.4523,73.7925,68.3815,
-9.3556,21.1452,-148.0854,-158.9082,67.3883,-13.0322,21.6456,-19.6783,7.3883,-71.8242,102.0837,-48.4523,77.7281,83.3815,
-24.3556,6.1452,-163.0854,-173.9082,52.3883,1.9678,6.6456,-33.4523,22.3883,-75.7598,109.2126,-33.4523,62.7281,68.3815,
-9.3556,-8.8548,-178.0854,-188.9082,37.3883,16.9678,-5.411,-18.4523,37.3883,-60.7598,124.2126,-18.4523,47.7281,53.3815,
5.6444,6.1452,-163.0854,-180.5445,52.3883,1.9678,9.589,-11.3144,22.3883,-65.4286,123.4793,-12.298,54.6065,38.3815,
-9.3556,21.1452,-148.0854,-165.5445,67.3883,-13.0322,24.589,-17.71,7.3883,-80.4286,138.4793,-27.298,69.6065,53.3815,
5.6444,31.4845,-133.0854,-175.1335,82.3883,-28.0322,9.589,-2.71,-7.6117,-65.4286,123.4793,-42.298,84.6065,68.3815,
-9.3556,16.4845,-148.0854,-190.1335,67.3883,-13.0322,24.589,-17.71,-19.6778,-80.4286,108.4793,-27.298,69.6065,66.9055,
-24.3556,1.4845,-163.0854,-205.1335,52.3883,1.9678,39.589,-32.71,-15.7423,-87.567,123.4793,-12.298,54.6065,51.9055,
-9.3556,-7.3788,-168.7383,-207.1103,67.3883,16.9678,24.589,-47.71,-0.74225,-79.2035,108.4793,-27.298,39.6065,36.9055,
-24.3556,7.6212,-153.7383,-192.1103,82.3883,25.5812,9.589,-32.71,14.2577,-68.8733,93.4793,-42.298,54.6065,51.9055,
-9.3556,11.3149,-138.7383,-207.1103,97.3883,10.5812,-5.411,-17.71,-0.74225,-53.8733,78.4793,-57.298,69.6065,66.9055,
-14.2668,8.363,-123.7383,-192.1103,112.3883,-4.4188,-20.411,-8.363,14.2577,-68.8733,77.2358,-42.298,84.6065,58.5416,
-29.2668,13.2826,-138.7383,-196.2868,97.3883,10.5812,-35.411,-23.363,29.2577,-83.8733,62.2358,-27.298,69.6065,43.5416,
-15.2504,3.4437,-153.7383,-200.2233,82.3883,25.5812,-20.411,-38.363,14.2577,-98.8733,47.2358,-12.298,54.6065,28.5416,
-30.2504,-2.9514,-168.7383,-207.6021,67.3883,10.5812,-5.411,-44.2753,-0.74225,-83.8733,62.2358,2.702,39.6065,43.5416,
-15.2504,-17.9514,-153.7383,-213.0136,82.3883,-4.4188,-15.2504,-29.2753,-15.7423,-68.8733,47.2358,-12.298,54.6065,58.5416,
-0.25042,-2.9514,-138.7383,-198.0136,97.3883,-19.4188,-30.2504,-14.2753,-30.7423,-59.0339,61.0017,-27.298,69.6065,73.5416,
-15.2504,12.0486,-123.7383,-183.0136,112.3883,-30.9931,-15.2504,-29.2753,-15.7423,-74.0339,76.0017,-12.298,84.6065,88.5416,
-30.2504,-1.4755,-138.7383,-198.0136,97.3883,-15.9931,-0.25042,-44.2753,-0.74225,-89.0339,61.0017,2.702,69.6065,73.5416,
-45.2504,-5.4115,-153.7383,-203.1747,82.3883,-0.99314,14.7496,-29.2753,14.2577,-74.0339,46.0017,17.702,54.6065,58.5416,
-30.2504,-20.4115,-168.7383,-218.1747,67.3883,-3.9356,2.9519,-14.2753,-0.74225,-59.0339,31.0017,2.702,48.2113,55.0988,
-22.137,-5.4115,-153.7383,-203.1747,82.3883,-18.9356,11.3149,-11.3149,11.3149,-67.3964,46.0017,-12.298,63.2113,70.0988,
-37.137,9.5885,-138.7383,-188.1747,97.3883,-33.9356,26.3149,-26.3149,26.3149,-82.3964,61.0017,-27.298,78.2113,85.0988,
-22.137,-5.4115,-153.7383,-203.1747,82.3883,-31.485,32.4686,-41.3149,11.3149,-83.6314,46.0017,-24.5975,63.2113,70.0988,
-22.6297,-20.4115,-168.7383,-218.1747,67.3883,-16.485,47.4686,-26.3149,26.3149,-68.6314,61.0017,-9.5975,48.2113,55.0988,
-7.6297,-35.4115,-183.7383,-233.1747,52.3883,-14.7581,32.4686,-11.3149,36.4042,-53.6314,76.0017,5.4025,33.2113,40.0988,
7.3703,-20.4115,-168.7383,-218.1747,67.3883,-29.7581,17.4686,3.6851,21.4042,-38.6314,75.2682,-9.5975,48.2113,55.0988,
-7.6297,-5.4115,-153.7383,-203.1747,82.3883,-44.7581,13.2826,-11.3149,36.4042,-53.6314,90.2682,-24.5975,63.2113,70.0988,
-0.49183,9.5885,-138.7383,-188.1747,97.3883,-43.7835,0.49183,-26.3149,51.4042,-62.4776,105.2682,-21.1542,78.2113,85.0988,
-15.4918,-5.4115,-153.7383,-203.1747,82.3883,-28.7835,15.4918,-41.3149,36.4042,-68.3805,120.2682,-6.1542,63.2113,70.0988,
-0.49183,-20.4115,-168.7383,-218.1747,67.3883,-13.7835,30.4918,-26.3149,21.4042,-53.3805,116.5919,8.8458,48.2113,55.0988,
14.5082,-5.4115,-153.7383,-203.1747,52.3883,-28.7835,15.4918,-11.3149,15.7427,-41.3234,101.5919,-6.1542,63.2113,66.905,
-0.49183,9.5885,-138.7383,-188.1747,67.3883,-43.7835,0.49183,-26.3149,14.7586,-56.3234,116.5919,-21.1542,78.2113,81.905,
14.5082,24.5885,-123.7383,-173.1747,82.3883,-58.7835,13.7745,-13.7745,-0.24141,-41.3234,101.5919,-36.1542,93.2113,96.905,
-0.49183,9.5885,-138.7383,-188.1747,67.3883,-43.7835,-1.2255,-28.7745,14.7586,-56.3234,86.5919,-21.1542,78.2113,81.905,
-11.8072,-5.4115,-153.7383,-203.1747,52.3883,-28.7835,-16.2255,-16.7264,29.7586,-41.3234,94.454,-6.1542,63.2113,66.905,
3.1928,9.5885,-165.7869,-191.368,67.3883,-43.7835,-8.3634,-2.4596,14.7586,-26.3234,109.454,-21.1542,72.3161,51.905,
-11.8072,24.5885,-150.7869,-176.368,82.3883,-58.7835,6.6366,-17.4596,14.7581,-41.3234,124.454,-36.1542,87.3161,66.905,
3.1928,17.2184,-135.7869,-161.368,88.0586,-73.7835,-8.3634,-2.4596,-0.24187,-26.3234,109.454,-51.1542,102.3161,81.905,
-1.4755,2.2184,-130.3663,-176.368,73.0586,-58.7835,-23.3634,1.4755,-15.2419,-21.1542,107.7366,-36.1542,111.6722,96.905,
-16.4755,-12.7816,-145.3663,-191.368,58.0586,-43.7835,-8.3634,-13.5245,-12.2985,-36.1542,122.7366,-21.1542,96.6722,81.905,
-1.4755,-1.476,-137.2538,-197.2714,56.5738,-28.7835,-14.2668,-28.5245,2.7015,-32.9605,123.4793,-6.1542,81.6722,66.905,
-16.4755,13.524,-122.2538,-182.2714,71.5738,-43.7835,0.73323,-13.5245,17.7015,-33.9441,138.4793,-21.1542,96.6722,81.905,
-1.4755,-1.476,-107.2538,-197.2714,86.5738,-58.7835,-14.2668,1.4755,2.7015,-18.9441,123.4793,-36.1542,111.6722,96.905,
7.8711,-7.8711,-92.2538,-183.9892,101.5738,-43.7835,-29.2668,-9.8394,17.7015,-20.6624,108.4793,-21.1542,126.6722,111.905,
-7.1289,-22.8711,-107.2538,-198.9892,86.5738,-28.7835,-44.2668,-24.8394,24.1057,-35.6624,93.4793,-6.1542,111.6722,96.905,
3.9356,-37.8711,-122.2538,-207.6021,71.5738,-13.7835,-29.2668,-28.5331,29.5172,-20.6624,108.4793,8.8458,96.6722,81.905,
-11.0644,-41.3234,-137.2538,-220.3929,56.5738,-28.7835,-14.2668,-43.2917,44.5172,-35.4205,123.4793,23.8458,81.6722,86.5828,
3.9356,-56.3234,-126.4305,-235.3929,71.5738,-43.7835,-29.2668,-28.2917,29.5172,-20.4205,108.4793,8.8458,96.6722,101.5828,
5.9038,-41.3234,-111.4305,-220.3929,86.5738,-58.7835,-44.2668,-13.2917,14.5172,-5.4205,109.2121,-6.1542,111.6722,106.2611,
-9.0962,-26.3234,-96.4305,-205.3929,101.5738,-73.7835,-29.2668,-28.2917,14.2668,-20.4205,124.2121,-21.1542,126.6722,121.2611,
0.98412,-41.3234,-111.4305,-197.7637,86.5738,-58.7835,-14.2668,-41.3239,29.2668,-26.5653,139.2121,-8.8552,111.6722,106.2611,
-14.0159,-56.3234,-126.4305,-212.7637,71.5738,-43.7835,0.73323,-32.4686,44.2668,-24.5975,154.2121,6.1448,96.6722,91.2611,
0.98412,-71.3234,-141.4305,-227.7637,56.5738,-28.7835,-14.2668,-17.4686,29.2668,-9.5975,139.2121,-8.8552,81.6722,76.2611,
7.3793,-56.3234,-126.4305,-212.7637,71.5738,-43.7835,-29.2668,-3.4437,14.2668,5.4025,124.2121,-23.8552,96.6722,91.2611,
-7.6207,-41.3234,-111.4305,-197.7637,86.5738,-58.7835,-14.2668,-18.4437,29.2668,-9.5975,139.2121,-38.8552,111.6722,106.2611,
-6.3956,-27.0571,-115.6077,-210.0622,71.5738,-43.7835,-11.3149,-33.4437,44.2668,-24.5975,154.2121,-23.8552,96.6722,91.2611,
-21.3956,-42.0571,-130.6077,-225.0622,56.5738,-28.7835,3.6851,-18.4437,29.2668,-9.5975,139.2121,-8.8552,81.6722,76.2611,
-6.3956,-57.0571,-145.6077,-240.0622,41.5738,-43.7835,-11.3149,-3.4437,14.2668,5.4025,124.2121,-14.7586,77.7281,69.8569,
8.6044,-42.0571,-130.6077,-225.0622,56.5738,-58.7835,-26.3149,-7.8711,7.8711,20.4025,125.9389,-29.7586,92.7281,84.8569,
-6.3956,-27.0571,-115.6077,-210.0622,71.5738,-73.7835,-11.3149,-22.8711,22.8711,5.4025,140.9389,-44.7586,107.7281,99.8569,
5.9036,-12.0571,-100.6077,-195.0622,86.5738,-58.7835,-12.791,-27.5492,37.8711,-9.5975,155.9389,-29.7586,122.0031,114.8569,
-9.0964,-27.0571,-115.6077,-210.0622,71.5738,-43.7835,-27.791,-12.5492,22.8711,-6.3956,140.9389,-14.7586,107.0031,99.8569,
5.9036,-42.0571,-130.6077,-225.0622,56.5738,-58.7835,-42.791,2.4508,7.8711,8.6044,125.9389,0.24141,92.0031,84.8569,
16.7259,-27.0571,-115.6077,-210.0622,45.2594,-73.7835,-57.791,-4.9192,22.8711,4.9192,140.9389,-14.7586,90.5179,87.567,
1.7259,-12.0571,-100.6077,-195.0622,60.2594,-88.7835,-42.791,-19.9192,37.8711,-10.0808,155.9389,-29.7586,105.5179,102.567,
2.4598,2.9429,-85.6077,-180.0622,75.2594,-103.7835,-41.8155,-30.0088,24.1059,-2.4598,150.0439,-18.2021,120.5179,117.567,
-12.5402,-12.0571,-89.0429,-195.0622,83.1391,-88.7835,-56.8155,-15.0088,9.1059,11.3144,135.0439,-9.3471,105.5179,102.567,
-0.49183,-27.0571,-104.0429,-210.0622,68.1391,-73.7835,-71.8155,-0.0087813,-5.8941,2.4601,120.0439,-24.3471,90.5179,87.567,
14.5082,-15.2502,-98.8816,-195.0622,61.4933,-88.7835,-56.8155,-0.49206,0.49206,15.2502,131.3497,-39.3471,103.8008,72.567,
-0.49183,-0.25019,-83.8816,-180.0622,76.4933,-103.7835,-41.8155,-15.4921,15.4921,0.25019,146.3497,-54.3471,88.8008,87.567,
14.5082,0.49206,-68.8816,-165.0622,91.4933,-118.7835,-56.8155,-0.49206,0.49206,15.2502,131.3497,-69.3471,103.8008,102.567,
4.9197,-14.5079,-53.8816,-180.0622,87.5665,-103.7835,-71.8155,0.98412,-14.5079,26.5657,116.3497,-54.3471,118.8008,117.567,
-8.8552,-29.5079,-68.8816,-195.0622,72.5665,-88.7835,-56.8155,-14.0159,-29.5079,11.5657,101.3497,-39.3471,103.8008,122.9866,
6.1448,-15.742,-83.8816,-201.6985,57.5665,-85.599,-70.8404,-8.855,-14.5079,8.855,116.3497,-24.3471,88.8008,107.9866,
-8.8552,-0.74201,-68.8816,-186.6985,72.5665,-100.599,-55.8404,-1.9678,0.49206,-5.9033,131.3497,-39.3471,103.8008,122.9866,
6.1448,-13.7745,-68.8728,-190.8757,87.5665,-115.599,-70.8404,13.0322,-14.5079,9.0967,116.3497,-54.3471,103.3092,110.1967,
1.4755,-1.4755,-55.5902,-175.8757,102.5665,-100.599,-85.8404,8.363,-27.0571,10.3312,103.801,-39.3471,118.3092,125.1967,
-13.5245,-1.476,-70.5902,-190.8757,87.5665,-85.599,-100.8404,-6.637,-12.0571,-4.6688,118.801,-24.3471,103.3092,110.1967,
1.4755,-7.8711,-85.5902,-205.8757,72.5665,-70.599,-85.8404,-14.7586,2.9429,7.8711,129.874,-21.6461,88.3092,95.1967,
-13.5245,1.476,-75.268,-190.8757,75.268,-85.599,-70.8404,-7.3788,11.3153,-1.476,128.3985,-6.6461,85.1074,101.8333,
1.4755,-13.524,-63.9531,-205.8757,90.268,-100.599,-85.8404,7.6212,-3.6847,13.524,113.3985,-21.6461,100.1074,116.8333,
4.4269,1.476,-48.9531,-190.8757,105.268,-115.599,-70.8404,-7.3788,-13.2826,1.476,98.3985,-36.6461,115.1074,116.5919,
-10.5731,16.476,-33.9531,-175.8757,120.268,-130.599,-55.8404,-22.3788,1.7174,-13.524,113.3985,-51.6461,117.0832,131.5919,
4.4269,1.476,-48.9531,-189.4,105.268,-115.599,-52.6385,-27.0569,7.3791,-7.3791,126.4305,-36.6461,102.0832,116.5919,
-10.5731,-13.524,-63.9531,-204.4,90.268,-100.599,-37.6385,-14.2663,12.299,-8.3634,111.4305,-21.6461,87.0832,101.5919,
4.4269,-28.524,-78.9531,-219.4,77.2358,-85.599,-52.6385,0.7337,-2.701,6.6366,96.4305,-36.6461,102.0832,116.5919,
2.4596,-13.524,-63.9531,-204.4,92.2358,-100.599,-67.6385,-14.2663,-17.701,-2.4596,85.1074,-51.6461,117.0832,101.8333,
-12.5404,1.476,-48.9531,-189.4,107.2358,-115.599,-52.6385,-29.2663,-2.701,-17.4596,100.1074,-66.6461,102.0832,107.2448,
2.4596,-13.524,-63.9531,-189.8921,92.2358,-100.599,-37.6385,-40.3397,6.8875,-7.8711,115.1074,-51.6461,87.0832,92.2448,
-12.5404,-28.524,-78.9531,-204.8921,77.2358,-85.599,-47.7195,-25.3397,-8.1125,7.1289,100.1074,-36.6461,72.0832,77.2448,
2.4596,-43.524,-93.9531,-219.8921,62.2358,-98.3898,-62.7195,-10.3397,-23.1125,22.1289,85.1074,-25.5814,87.0832,92.2448,
10.823,-28.524,-78.9531,-204.8921,77.2358,-113.3898,-76.7435,-24.597,-8.1125,7.1289,100.1074,-40.5814,102.0832,94.4544,
-4.177,-13.524,-63.9531,-189.8921,92.2358,-128.3898,-61.7435,-39.597,6.8875,-7.8711,115.1074,-55.5814,87.0832,93.4698,
10.823,1.476,-48.9531,-174.8921,102.8174,-113.3898,-46.7435,-41.8157,21.8875,-14.2668,112.6558,-40.5814,72.0832,95.9299,
-4.177,-13.524,-63.9531,-189.8921,87.8174,-98.3898,-61.7435,-26.8157,6.8875,0.73324,97.6558,-25.5814,57.0832,80.9299,
10.823,-28.524,-78.9531,-204.8921,72.8174,-88.5509,-76.7435,-11.8157,-8.1125,15.7332,82.6558,-10.5814,53.1303,65.9299,
25.823,-13.524,-63.9531,-189.8921,84.6155,-103.5509,-78.7117,-4.9197,4.9197,27.5494,97.6558,-25.5814,68.1303,80.9299,
10.823,1.476,-48.9531,-174.8921,99.6155,-118.5509,-63.7117,-19.9197,19.9197,12.5494,112.6558,-40.5814,83.1303,95.9299,
20.6615,16.476,-33.9531,-159.8921,114.6155,-133.5509,-58.0502,-32.4691,4.9197,3.9356,103.3083,-27.5494,98.1303,110.9299,
6.3956,1.476,-48.9531,-174.8921,99.6155,-118.5509,-73.0502,-17.4691,-10.0803,18.9356,88.3083,-12.5494,83.1303,95.9299,
21.3956,-13.524,-63.9531,-189.8921,84.6155,-103.5509,-88.0502,-2.4691,-25.0803,33.9356,73.3083,-22.6297,68.1303,80.9299,
36.3956,-14.7586,-78.9531,-174.8921,69.8569,-93.4703,-73.0502,11.8067,-11.8067,43.2917,88.3083,-37.6297,66.905,69.8569,
21.3956,0.24141,-63.9531,-159.8921,78.2194,-108.4703,-58.0502,-3.1933,3.1933,28.2917,103.3083,-44.7676,67.3973,84.8569,
11.3149,-3.4437,-48.9531,-150.0441,75.2685,-123.4703,-73.0502,-18.1933,3.4437,13.2917,88.3083,-59.7676,82.3973,99.8569,
0.49183,-18.4437,-33.9531,-165.0441,90.2685,-108.4703,-88.0502,-3.1933,-11.5563,28.2917,73.3083,-74.7676,97.3973,114.8569,
-6.8875,-26.5653,-48.9531,-180.0441,75.2685,-93.4703,-103.0502,-3.9356,-26.5563,13.2917,66.9046,-59.7676,82.3973,99.8569,
8.1125,-11.5653,-63.9531,-181.5286,60.2685,-87.0747,-88.0502,-7.3793,-11.5563,6.3952,81.9046,-44.7676,67.3973,84.8569,
-6.8875,3.4347,-48.9531,-166.5286,75.2685,-102.0747,-73.0502,-22.3793,3.4437,-8.6048,96.9046,-59.7676,82.3973,89.5347,
8.1125,-10.823,-33.9531,-152.5042,90.2685,-117.0747,-88.0502,-7.3793,-11.5563,6.3952,81.9046,-74.7676,90.5179,104.5347,
-2.9514,4.177,-18.9531,-167.5042,105.2685,-102.0747,-93.4703,2.9514,-26.5563,21.3952,92.4867,-59.7676,105.5179,119.5347,
-17.9514,19.177,-33.9531,-182.5042,94.9458,-87.0747,-78.4703,-12.0486,-11.5563,6.3952,107.4867,-44.7676,91.0102,123.4793,
-2.9514,4.177,-48.9531,-192.3517,79.9458,-72.0747,-63.4703,-18.2019,-2.4596,4.4279,111.6726,-40.8316,76.0102,108.4793,
-17.9514,19.177,-33.9531,-177.3517,90.5179,-65.9209,-48.4703,-3.2019,-4.9192,4.9192,122.987,-35.4201,70.8401,93.4793,
-2.9514,4.177,-46.2433,-189.8923,100.3571,-80.9209,-63.4703,11.7981,-19.9192,19.9192,107.987,-50.4201,85.8401,102.3253,
1.9678,19.177,-31.2433,-174.8923,115.3571,-95.9209,-66.905,-1.9678,-4.9192,28.5331,113.1481,-65.4201,100.8401,117.3253,
-13.0322,34.177,-46.2433,-159.8923,130.3571,-80.9209,-51.905,-16.9678,10.0808,13.5331,128.1481,-74.2839,104.7847,132.3253,
-2.4591,19.177,-61.2433,-174.8923,115.3571,-65.9209,-66.905,-31.9678,-0.49183,0.49183,113.1481,-59.2839,89.7847,117.3253,
-17.4591,4.177,-76.2433,-189.8923,100.3571,-50.9209,-79.2035,-16.9678,-10.3307,10.3307,98.1481,-44.2839,74.7847,102.3253,
-2.4591,-10.823,-67.8889,-204.8923,115.3571,-55.0981,-94.2035,-1.9678,-25.3307,25.3307,83.1481,-38.3722,89.7847,117.3253,
1.9678,4.177,-52.8889,-189.8923,117.0837,-70.0981,-79.2035,-16.9678,-25.5821,10.3307,88.5502,-53.3722,104.7847,110.1962,
-13.0322,19.177,-37.8889,-174.8923,104.7847,-85.0981,-64.2035,-31.9678,-10.5821,-4.6693,103.5502,-68.3722,89.7847,95.1962,
1.9678,4.177,-52.8889,-171.6897,89.7847,-70.0981,-49.6864,-38.8638,4.4179,-4.4274,106.753,-53.3722,74.7847,80.1962,
-13.0322,-10.823,-67.8889,-186.6897,74.7847,-55.0981,-58.5421,-23.8638,-10.5821,10.5726,91.753,-38.3722,59.7847,65.1962,
1.9678,-25.823,-82.8889,-201.6897,85.5992,-40.0981,-73.5421,-8.8638,-25.5821,25.5726,76.753,-23.3722,74.7847,80.1962,
-2.4596,-10.823,-67.8889,-186.6897,93.9621,-55.0981,-80.1877,-23.8638,-10.5821,16.2345,91.753,-38.3722,89.7847,80.1872,
-17.4596,4.177,-52.8889,-171.6897,102.8169,-70.0981,-65.1877,-38.8638,4.4179,1.2345,106.753,-53.3722,74.7847,65.1872,
-2.4596,19.177,-37.8889,-156.6897,116.0996,-55.0981,-50.1877,-23.8638,-1.9678,1.9678,113.1486,-42.3075,83.6314,80.1872,
-17.4596,4.177,-52.8889,-171.6897,101.0996,-40.0981,-65.1877,-8.8638,-16.9678,14.2663,98.1486,-27.3075,68.6314,65.1872,
-2.4596,-10.823,-67.8889,-186.6897,86.0996,-55.0981,-80.1877,6.1362,-31.9678,29.2663,83.1486,-21.1538,80.1872,80.1872,
2.9524,-1.9678,-63.9527,-171.6897,71.0996,-70.0981,-95.1877,-8.8638,-16.9678,14.2663,89.5347,-36.1538,66.905,65.1872,
-12.0476,13.0322,-48.9527,-156.6897,86.0996,-85.0981,-80.1877,-23.8638,-1.9678,-0.7337,104.5347,-51.1538,51.905,80.1872,
2.9524,28.0322,-33.9527,-143.1569,101.0996,-100.0981,-65.1877,-28.041,-4.4276,4.4276,98.8811,-66.1538,66.905,95.1872,
9.8389,13.0322,-48.9527,-158.1569,86.0996,-85.0981,-80.1877,-13.041,-19.4276,19.4276,83.8811,-51.1538,81.905,108.2289,
24.8389,-1.9678,-63.9527,-173.1569,71.0996,-70.0981,-95.1877,1.959,-34.4276,34.4276,68.8811,-36.1538,93.4703,102.3251,
39.8389,0.4923,-67.3969,-178.5772,57.5575,-85.0981,-80.1877,-0.4923,-21.1538,28.0412,83.8811,-51.1538,78.4703,87.3251,
24.8389,15.4923,-52.3969,-163.5772,55.5902,-100.0981,-65.1877,-15.4923,-6.1538,13.0412,98.8811,-66.1538,63.4703,87.0747,
27.5492,27.5492,-37.3969,-155.4554,70.5902,-115.0981,-80.1877,-27.5492,-15.7425,15.7425,83.8811,-81.1538,78.4703,102.0747,
12.5492,12.5492,-30.5013,-170.4554,85.5902,-100.0981,-95.1877,-12.5492,-30.7425,30.7425,68.8811,-86.5828,93.4703,99.3732,
-0.98412,-2.4508,-45.5013,-185.4554,70.5902,-85.0981,-110.1877,0.98412,-45.7425,31.485,53.8811,-71.5828,78.4703,84.3732,
14.0159,-1.476,-60.5013,-170.4554,55.5902,-93.9621,-95.1877,1.476,-30.7425,33.9441,68.8811,-59.5257,69.3651,72.3161,
-0.98412,13.524,-53.6229,-155.4554,70.5902,-108.9621,-80.1877,-13.524,-15.7425,18.9441,83.8811,-74.5257,82.1555,87.3161,
14.0159,6.8872,-38.6229,-140.4554,69.8562,-123.9621,-95.1877,-6.8872,-30.7425,33.9441,68.8811,-89.5257,97.1555,102.3161,
-0.98366,21.8872,-23.6229,-155.4554,84.8562,-108.9621,-95.4381,-7.8711,-45.7425,18.9441,53.8811,-74.5257,112.1555,117.3161,
-5.4115,36.8872,-38.6229,-170.4554,99.8562,-93.9621,-80.4381,-20.1701,-30.7425,5.4115,68.8811,-59.5257,111.6717,120.5274,
9.5885,21.8872,-53.6229,-181.5291,84.8562,-78.9621,-65.4381,-35.1701,-15.7425,7.3793,73.3002,-74.5257,96.6717,105.5274,
-5.4115,36.8872,-38.6229,-166.5291,83.1396,-65.4291,-50.4381,-20.1701,-0.74248,12.2985,88.3002,-89.5257,93.9617,90.5274,
9.5885,21.8872,-23.6229,-152.0119,91.0107,-80.4291,-65.4381,-5.1701,-15.7425,27.2985,73.3002,-104.5257,108.9617,105.5274,
-0.98412,36.8872,-8.6229,-146.6009,104.2933,-95.4291,-80.4381,-20.1701,-30.7425,12.2985,58.3002,-119.5257,119.051,120.5274,
-15.9841,51.8872,-23.6229,-141.1889,106.7534,-80.4291,-65.4381,-35.1701,-15.7425,-2.7015,73.3002,-134.5257,112.6563,135.5274,
-0.98412,36.8872,-38.6229,-156.1889,91.7534,-65.4291,-50.4381,-30.5004,-7.8711,7.8711,82.6477,-119.5257,97.6563,120.5274,
-15.9841,21.8872,-53.6229,-171.1889,76.7534,-50.4291,-65.4381,-15.5004,-22.8711,5.4115,67.6477,-104.5257,82.6563,105.5274,
-0.98412,22.1377,-38.6229,-178.577,91.7534,-65.4291,-80.4381,-0.50038,-37.8711,20.4115,52.6477,-89.5257,97.6563,120.5274,
14.0159,37.1377,-23.6229,-163.577,106.7534,-80.4291,-65.4381,-7.8716,-24.5975,5.9033,66.905,-104.5257,112.6563,120.0356,
-0.98412,52.1377,-28.0412,-148.577,120.5274,-95.4291,-50.4381,-22.8716,-9.5975,-9.0967,81.905,-94.9458,97.6563,129.3822,
14.0159,37.1377,-43.0412,-163.577,105.5274,-80.4291,-55.0983,-37.8716,-12.7903,0,66.905,-79.9458,82.6563,114.3822,
8.363,22.1377,-58.0412,-178.577,90.5274,-65.4291,-59.5262,-22.8716,-3.4437,15,51.905,-64.9458,78.2194,99.3822,
23.363,7.1377,-68.8726,-193.577,105.2768,-50.4291,-74.5262,-7.8716,-18.4437,30,36.905,-79.6956,93.2194,114.3822,
15.2509,22.1377,-53.8726,-178.577,90.2768,-65.4291,-59.5262,-22.8716,-33.4437,15,49.6873,-94.6956,95.9304,99.3822,
0.25089,37.1377,-38.8726,-163.577,75.2768,-80.4291,-44.5262,-37.8716,-18.4437,0,64.6873,-109.6956,80.9304,84.3822,
15.2509,43.2912,-23.8726,-148.577,68.8728,-65.4291,-29.5262,-37.3883,-3.4437,-2.9519,59.0334,-94.6956,71.8247,93.4698,
0.25089,28.2912,-38.8726,-163.577,53.8728,-50.4291,-44.5262,-22.3883,-18.4437,10.823,44.0334,-79.6956,67.8892,78.4698,
15.2509,13.2912,-53.8726,-178.577,68.8728,-46.7352,-59.5262,-7.3883,-33.4437,25.823,46.7352,-64.6956,82.8892,93.4698,
30.2509,5.9033,-38.8726,-163.577,83.8728,-61.7352,-63.9531,-15.7422,-18.4437,20.6615,61.7352,-79.6956,97.8892,78.4698,
15.2509,20.9033,-23.8726,-148.577,80.1877,-76.7352,-48.9531,-30.7422,-3.4437,5.6615,76.7352,-94.6956,82.8892,63.4698,
30.2509,35.9033,-8.8726,-133.577,95.1877,-91.7352,-63.9531,-36.8958,-18.4437,-9.3385,61.7352,-109.6956,67.8892,78.4698,
34.9287,20.9033,-23.8726,-148.577,80.1877,-76.7352,-78.9531,-21.8958,-33.4437,5.6615,46.7352,-94.6956,68.3805,85.1074,
49.9287,5.9033,-38.8726,-163.577,65.1877,-61.7352,-93.9531,-6.8958,-48.4437,20.6615,31.7352,-79.6956,63.4613,70.1074,
53.131,20.9033,-47.2268,-148.577,61.0022,-76.7352,-78.9531,-17.71,-33.4437,17.71,46.7352,-94.6956,74.7762,70.8406,
38.131,35.9033,-32.2268,-133.577,64.9377,-91.7352,-63.9531,-32.71,-18.4437,2.71,61.7352,-109.6956,59.7762,73.7925,
35.9124,50.9033,-17.2268,-136.2697,79.9377,-106.7352,-48.9531,-41.8157,-3.4437,-12.29,60.5094,-124.6956,74.7762,88.7925,
30.0085,35.9033,-12.299,-151.2697,94.9377,-91.7352,-63.9531,-26.8157,-18.4437,2.71,45.5094,-109.6956,89.7762,103.7925,
15.0085,20.9033,-27.299,-166.2697,79.9377,-76.7352,-78.9531,-11.8157,-33.4437,8.8557,30.5094,-94.6956,74.7762,88.7925,
30.0085,8.363,-42.299,-151.2697,64.9377,-91.7352,-63.9531,-8.363,-18.4437,20.1696,45.5094,-109.6956,82.1559,81.1713,
15.0085,23.363,-41.8157,-136.2697,68.38,-106.7352,-48.9531,-23.363,-3.4437,5.1696,60.5094,-124.6956,97.1559,96.1713,
30.0085,23.122,-47.719,-139.2211,70.3488,-121.7352,-63.9531,-21.1538,-18.4437,20.1696,45.5094,-139.6956,112.1559,108.7207,
15.0085,38.122,-32.719,-149.06,85.3488,-106.7352,-78.9531,-23.1211,-33.4437,6.3952,30.5094,-153.9797,127.1559,111.6726,
0.0085472,53.122,-47.719,-164.06,99.3732,-91.7352,-63.9531,-24.5975,-48.4437,8.8552,45.5094,-138.9797,120.0356,122.0029,
15.0085,38.122,-62.719,-157.9153,84.3732,-78.2194,-50.6705,-24.1052,-33.4437,18.2019,60.5094,-123.9797,105.0356,107.0029,
0.0085472,53.122,-57.0666,-142.9153,69.3732,-93.2194,-35.6705,-26.5657,-18.4437,8.8552,75.5094,-115.1164,107.2443,108.228,
15.0085,38.122,-42.0666,-127.9153,80.6793,-108.2194,-50.6705,-11.5657,-33.4437,23.8552,60.5094,-130.1164,122.2443,123.228,
4.4274,44.7676,-27.0666,-126.4308,95.6793,-93.2194,-65.6705,-23.1215,-47.7186,8.8552,45.5094,-145.1164,129.3827,125.4471,
-10.5726,59.7676,-42.0666,-141.4308,98.3891,-82.6477,-50.6705,-38.1215,-32.7186,-6.1448,60.5094,-130.1164,117.0832,132.8255,
4.4274,44.7676,-57.0666,-156.4308,83.3891,-67.6477,-47.2268,-30.5004,-17.7186,0,75.5094,-115.1164,102.0832,117.8255,
-8.3634,29.7676,-59.5257,-141.4308,68.3891,-52.6477,-62.2268,-15.5004,-24.1057,15,60.5094,-100.1164,87.0832,102.8255,
6.6366,16.7264,-44.5257,-139.7134,83.3891,-54.1142,-77.2268,-0.50038,-39.1057,30,45.5094,-115.1164,102.0832,117.8255,
5.411,31.7264,-29.5257,-124.7134,98.3891,-69.1142,-83.1396,-15.5004,-54.1057,15,30.9927,-130.1164,116.5914,115.6077,
-9.589,46.7264,-32.9609,-109.7134,107.7366,-84.1142,-68.1396,-30.5004,-39.1057,0,45.9927,-145.1164,101.5914,130.6077,
0.4923,36.896,-47.9609,-124.7134,92.7366,-69.1142,-60.5099,-45.5004,-24.1057,-15,43.7835,-130.1164,86.5914,115.6077,
-1.9678,21.896,-62.9609,-139.7134,77.7366,-54.1142,-75.5099,-30.5004,-34.4359,0,28.7835,-115.1164,71.5914,100.6077,
13.0322,7.8711,-47.9609,-154.7134,92.7366,-49.195,-90.5099,-15.5004,-49.4359,15,13.7835,-100.1164,86.5914,115.6077,
28.0322,22.8711,-32.9609,-139.7134,107.7366,-64.195,-75.5099,-17.7105,-34.4359,6.8875,28.7835,-115.1164,101.5914,113.1486,
13.0322,37.8711,-41.8152,-124.7134,92.7366,-79.195,-60.5099,-32.7105,-19.4359,-8.1125,43.7835,-130.1164,86.5914,98.1486,
22.1379,52.8711,-26.8152,-139.2211,92.978,-64.195,-47.719,-40.8316,-4.4359,-10.3312,49.6868,-115.1164,86.0905,88.0588,
15.7427,37.8711,-41.8152,-154.2211,77.978,-49.195,-59.0339,-25.8316,-19.4359,4.6688,34.6868,-100.1164,88.5511,73.0588,
30.7427,22.8711,-56.8152,-169.2211,92.978,-34.195,-58.5418,-10.8316,-34.4359,19.6688,19.6868,-85.1164,103.5511,88.0588,
45.7427,37.8711,-41.8152,-154.2211,100.8491,-49.195,-43.5418,-9.3475,-19.4359,4.6688,34.6868,-100.1164,118.5511,102.8174,
30.7427,52.8711,-26.8152,-139.2211,85.8491,-64.195,-28.5418,-24.3475,-12.7908,-10.3312,49.6868,-115.1164,103.5511,87.8174,
45.7427,37.8799,-11.8152,-124.2211,100.8491,-79.195,-43.5418,-29.0251,-27.7908,4.6688,34.6868,-130.1164,89.0422,102.8174,
30.7427,22.8799,-26.8152,-139.2211,85.8491,-64.195,-58.5418,-14.0251,-42.7908,16.7259,19.6868,-115.1164,78.7112,90.5179,
45.7427,7.8799,-41.8152,-154.2211,70.8491,-49.195,-73.5418,0.97488,-57.7908,31.7259,11.3149,-129.3827,82.155,89.0425,
56.5745,16.2343,-38.864,-166.7703,70.3485,-64.195,-80.1874,-12.2988,-72.7908,23.1218,12.2988,-144.3827,94.9465,87.0754,
41.5745,31.2343,-23.864,-151.7703,55.3485,-79.195,-65.1874,-27.2988,-57.7908,8.1218,27.2988,-159.3827,79.9465,72.0754,
26.5745,46.2343,-8.864,-136.7703,70.3485,-94.195,-54.606,-42.2988,-42.7908,-6.8782,42.2988,-174.3827,66.4132,87.0754,
26.5653,31.2343,-23.864,-151.7703,85.3485,-79.195,-69.606,-27.2988,-57.7908,8.1218,27.2988,-159.3827,81.4132,102.0754,
21.6451,16.2343,-38.864,-166.7703,70.3485,-64.195,-84.606,-12.2988,-72.7908,23.1218,12.2988,-144.3827,74.7757,98.3891,
29.5177,1.2343,-53.864,-175.133,55.3485,-75.7598,-69.606,-27.2988,-57.7908,8.1218,27.2988,-159.3827,62.9695,83.3891,
14.5177,16.2343,-38.864,-160.133,53.6224,-90.7598,-54.606,-42.2988,-42.7908,-6.8782,42.2988,-174.3827,77.9695,98.3891,
29.5177,31.2343,-23.864,-145.133,68.6224,-105.7598,-69.606,-27.2988,-29.5165,8.1218,27.2988,-179.0688,92.9695,113.3891,
14.5177,46.2343,-8.864,-130.133,83.6224,-90.7598,-84.606,-16.7259,-44.5165,0.98366,12.2988,-194.0688,107.9695,121.0197,
5.4115,61.2343,-23.864,-145.133,98.6224,-75.7598,-69.606,-5.4115,-57.5584,15.9837,27.2988,-179.0688,98.8814,129.3822,
20.4115,46.2343,-38.864,-146.6004,83.6224,-60.7598,-54.606,0,-42.5584,30.9837,42.2988,-164.0688,88.5506,114.3822,
5.4115,45.7513,-53.864,-131.6004,70.3483,-45.7598,-39.606,-15,-27.5584,15.9837,57.2988,-153.9797,103.5506,129.3822,
20.4115,30.7513,-38.864,-139.2211,85.3483,-60.7598,-54.606,0,-42.5584,30.9837,42.2988,-168.9797,118.5506,144.3822,
5.4115,42.308,-23.864,-130.8582,100.3483,-75.7598,-61.9849,-15,-54.1137,15.9837,27.2988,-183.9797,133.5506,129.3822,
-9.5885,57.308,-19.6778,-115.8582,115.3483,-90.7598,-46.9849,-30,-39.1137,0.98366,42.2988,-168.9797,118.5506,126.9226,
5.4115,42.308,-34.6778,-106.2607,100.3483,-75.7598,-31.9849,-20.6619,-24.1137,0,55.0979,-153.9797,103.5506,111.9226,
-9.5885,27.308,-49.6778,-108.7207,85.3483,-60.7598,-46.9849,-9.3471,-39.1137,9.3471,40.0979,-163.8191,88.5506,96.9226,
5.4115,12.308,-34.6778,-123.7207,97.8972,-75.7598,-61.9849,5.6529,-54.1137,24.3471,25.0979,-178.8191,103.5506,111.9226,
2.4596,27.308,-19.6778,-108.7207,112.8972,-90.7598,-53.6229,-9.3471,-39.1137,9.3471,40.0979,-193.8191,118.5506,126.9226,
-12.5404,42.308,-30.9927,-97.8982,102.8165,-105.7598,-38.6229,-24.3471,-24.1137,-5.6529,55.0979,-208.8191,103.5506,113.6395,
2.4596,27.308,-28.5335,-112.8982,87.8165,-90.7598,-30.5013,-34.4369,-9.1137,-1.9678,60.0176,-193.8191,88.5506,98.6395,
3.9356,12.308,-43.5335,-127.8982,72.8165,-75.7598,-45.5013,-19.4369,-24.1137,13.0322,45.0176,-178.8191,73.5506,83.6395,
18.9356,15.2504,-28.5335,-142.8982,87.8165,-79.2035,-60.5013,-4.4369,-39.1137,28.0322,30.0176,-163.8191,88.5506,98.6395,
26.0735,30.2504,-13.5335,-127.8982,94.9463,-94.2035,-68.381,-19.4369,-30.9927,13.0322,36.8965,-178.8191,103.5506,113.6395,
11.0735,45.2504,-28.5335,-112.8982,79.9463,-109.2035,-53.381,-34.4369,-15.9927,-1.9678,51.8965,-184.9719,88.5506,100.3578,
26.0735,60.2504,-13.5335,-111.1803,88.5506,-94.2035,-38.381,-27.5494,-13.7749,2.9519,66.8965,-169.9719,86.5824,115.3578,
31.9768,45.2504,-28.5335,-126.1803,73.5506,-79.2035,-53.381,-12.5494,-28.7749,17.9519,51.8965,-154.9719,100.8496,125.4466,
46.9768,30.2504,-43.5335,-141.1803,88.5506,-64.2035,-68.381,2.4506,-43.7749,32.9519,36.8965,-139.9719,115.8496,140.4466,
41.3239,42.3075,-28.5335,-126.1803,76.7439,-79.2035,-66.905,-12.5494,-48.2109,17.9519,24.598,-154.9719,117.0842,125.4466,
26.3239,57.3075,-13.5335,-111.1803,61.7439,-94.2035,-51.905,-27.5494,-33.2109,2.9519,39.598,-169.9719,102.0842,110.4466,
23.6138,67.8887,1.4665,-96.1803,75.7598,-79.2035,-63.9531,-42.5494,-42.3075,-8.8552,24.598,-170.2142,87.0842,122.9875,
38.6138,52.8887,-13.5335,-111.1803,78.2199,-64.2035,-78.9531,-27.5494,-57.3075,6.1448,9.598,-155.2142,102.0842,137.9875,
53.6138,37.8887,-28.5335,-126.1803,93.2199,-49.2035,-93.9531,-12.5494,-72.3075,21.1448,-5.402,-140.2142,117.0842,152.9875,
40.34,22.8887,-25.5814,-128.8901,78.2199,-64.2035,-78.9531,-18.6939,-57.3075,18.6939,9.598,-155.2142,102.0842,137.9875,
25.34,37.8887,-10.5814,-113.8901,63.2199,-79.2035,-63.9531,-33.6939,-42.3075,3.6939,24.598,-170.2142,87.0842,122.9875,
31.4845,52.8887,4.4186,-98.8901,78.2199,-94.2035,-74.7762,-45.2594,-57.3075,-3.9356,9.598,-185.2142,77.7276,113.1477,
46.4845,37.8887,-10.5814,-113.8901,93.2199,-79.2035,-89.7762,-30.2594,-72.3075,11.0644,-5.402,-170.2142,92.7276,128.1477,
61.4845,22.8887,-25.5814,-128.8901,99.3734,-64.2035,-104.7762,-15.2594,-87.3075,26.0644,-13.7747,-155.2142,107.7276,143.1477,
59.0332,21.6458,-40.5814,-143.8901,84.3734,-79.2035,-89.7762,-21.6458,-72.3075,24.5968,1.2253,-170.2142,92.7276,128.1477,
44.0332,36.6458,-25.5814,-128.8901,69.3734,-94.2035,-74.7762,-36.6458,-57.3075,9.5968,16.2253,-185.2142,77.7276,113.1477,
59.0332,50.1791,-10.5814,-113.8901,84.3734,-109.2035,-89.7762,-21.6458,-44.2753,24.5968,1.2253,-200.2142,92.7276,128.1477,
44.0332,50.6705,4.4186,-107.7366,99.3734,-94.2035,-104.7762,-14.2668,-59.2753,18.2023,-13.7747,-185.2142,107.7276,143.1477,
29.0332,56.5743,-10.5814,-122.7366,90.027,-79.2035,-89.7762,-29.2668,-74.2753,8.363,0.49183,-170.2142,92.7276,145.1249,
44.0332,41.5743,-25.5814,-137.7366,75.027,-88.5506,-74.7762,-39.3561,-59.2753,19.6778,15.4918,-170.2142,77.7276,130.1249,
29.0332,56.5743,-24.597,-122.7366,63.9536,-103.5506,-59.7762,-54.3561,-44.2753,4.6778,30.4918,-185.2142,92.7276,145.1249,
44.0332,41.5743,-9.597,-126.4308,78.9536,-118.5506,-74.7762,-39.3561,-59.2753,19.6778,15.4918,-200.2142,107.7276,160.1249,
29.0332,56.5743,5.403,-111.4308,93.9536,-130.8577,-84.6146,-43.2912,-74.2753,4.6778,0.49183,-192.8435,122.7276,145.1249,
14.0332,71.5743,20.403,-96.4308,108.9536,-116.5914,-69.6146,-58.2912,-59.2753,-10.3222,15.4918,-177.8435,107.7276,141.1894,
29.0332,56.5743,5.403,-111.4308,93.9536,-101.5914,-68.873,-43.2912,-44.2753,4.6778,30.4918,-162.8435,92.7276,126.1894,
