"AF3","AF4","F3","F4","F7","F8","FC5","FC6","O1","O2","P7","P8","T7","T8",
3.9181,-3.9181,93.0566,-39.1812,209.6209,-492.7064,-173.3776,25.4683,-244.884,39.1821,-107.7488,-298.7584,157.706,146.931,
18.9181,-18.9181,85.7093,-54.1812,194.6209,-478.5035,-188.3776,40.4683,-259.884,54.1821,-122.7488,-313.7584,142.706,131.931,
33.9181,-33.9181,89.138,-69.1812,179.6209,-463.5035,-203.3776,55.4683,-274.884,69.1821,-137.7488,-328.7584,157.706,143.0124,
48.9181,-48.9181,82.281,-84.1812,194.6209,-448.5035,-218.3776,70.4683,-289.884,84.1821,-152.7488,-319.3288,172.706,158.0124,
63.9181,-63.9181,97.281,-99.1812,192.4785,-463.5035,-233.3776,85.4683,-304.884,99.1821,-167.7488,-334.3288,187.706,173.0124,
48.9181,-49.4666,112.281,-84.1812,206.192,-478.5035,-218.3776,81.7914,-319.884,84.1821,-152.7488,-349.3288,192.479,182.6832,
63.9181,-64.4666,97.281,-95.0149,191.192,-475.075,-233.3776,96.7914,-334.884,99.1821,-167.7488,-364.3288,177.479,167.6832,
78.9181,-79.4666,112.281,-110.0149,206.192,-460.075,-248.3776,111.7914,-349.884,114.1821,-182.7488,-379.3288,192.479,182.6832,
93.9181,-94.4666,127.281,-125.0149,221.192,-445.075,-263.3776,126.7914,-364.884,129.1821,-197.7488,-394.3288,207.479,197.6832,
108.9181,-109.4666,142.281,-140.0149,206.192,-460.075,-278.3776,141.7914,-379.884,144.1821,-212.7488,-404.5484,222.479,182.6832,
93.9181,-94.4666,127.281,-125.0149,191.192,-475.075,-263.3776,126.7914,-364.884,129.1821,-197.7488,-392.7943,207.479,179.2552,
108.9181,-109.4666,132.7272,-132.7272,200.3155,-490.075,-278.3776,141.7914,-379.884,144.1821,-212.7488,-407.7943,210.1103,191.4995,
123.9181,-124.4666,147.7272,-147.7272,215.3155,-475.075,-293.3776,156.7914,-394.884,159.1821,-227.7488,-392.7943,225.1103,206.4995,
138.9181,-109.4666,132.7272,-132.7272,230.3155,-460.075,-295.3299,171.7914,-403.0792,174.1821,-239.4965,-377.7943,240.1103,221.4995,
153.9181,-94.4666,117.7272,-117.7272,215.3155,-467.239,-280.3299,186.7914,-388.0792,189.1821,-224.4965,-379.0808,225.1103,206.4995,
155.2566,-109.4666,114.1159,-118.034,200.3155,-482.239,-265.3299,171.9084,-373.0792,174.1821,-209.4965,-394.0808,219.9061,206.1922,
170.2566,-124.4666,129.1159,-133.034,207.1717,-497.239,-280.3299,186.9084,-388.0792,189.1821,-224.4965,-409.0808,234.9061,221.1922,
155.2566,-135.666,114.1159,-118.034,192.1717,-511.808,-295.3299,171.9084,-403.0792,174.1821,-239.4965,-424.0808,219.9061,206.1922,
140.2566,-120.666,99.1159,-103.034,207.1717,-496.808,-280.3299,156.9084,-388.0792,159.1821,-224.4965,-439.0808,204.9061,191.1922,
155.2566,-135.666,103.341,-103.341,205.2127,-481.808,-271.8212,171.9084,-373.0792,174.1821,-212.0696,-424.0808,219.9061,178.7651,
167.9905,-150.666,118.341,-118.341,197.3769,-466.808,-286.8212,186.9084,-380.5498,187.5811,-227.0696,-409.0808,234.9061,186.6018,
182.9905,-165.666,133.341,-133.341,182.3769,-481.808,-301.8212,178.2752,-395.5498,193.9477,-242.0696,-424.0808,230.191,189.0503,
167.9905,-150.666,128.8093,-118.341,169.95,-496.808,-303.1662,163.2752,-410.5498,178.9477,-257.0696,-439.0808,215.191,174.0503,
152.9905,-135.666,113.8093,-103.341,184.95,-486.8296,-288.1662,148.2752,-395.5498,163.9477,-242.0696,-424.0808,202.7644,189.0503,
167.9905,-150.666,98.8093,-98.4434,184.6421,-471.8296,-303.1662,163.2752,-406.9976,168.9696,-252.2308,-409.0808,193.4585,174.0503,
180.7242,-165.666,113.8093,-113.4434,171.9086,-456.8296,-318.1662,178.2752,-421.9976,183.9696,-267.2308,-394.0808,208.4585,179.7449,
195.7242,-180.666,118.5239,-118.5239,186.9086,-471.8296,-333.1662,193.2752,-436.9976,198.9696,-282.2308,-409.0808,223.4585,194.7449,
198.8458,-195.666,133.5239,-133.5239,191.9889,-486.8296,-345.7763,190.0303,-421.9976,183.9696,-282.1066,-424.0808,208.4585,179.7449,
183.8458,-180.666,118.5239,-148.5239,206.9889,-479.9729,-330.7763,201.7844,-406.9976,181.2145,-267.1066,-420.2209,223.4585,194.7449,
198.8458,-165.666,131.258,-143.0124,203.7437,-464.9729,-321.2878,216.7844,-421.2004,196.2145,-252.1066,-405.2209,230.1913,193.9484,
208.6411,-176.3164,128.3192,-128.3192,188.7437,-449.9729,-336.2878,231.1706,-436.2004,211.2145,-267.1066,-390.2209,233.1301,199.8256,
223.6411,-186.1117,125.3808,-125.3808,203.7437,-441.7708,-351.2878,246.1706,-451.2004,226.2145,-282.1066,-390.8347,248.1301,214.8256,
209.6204,-171.1117,119.5036,-119.5036,200.8049,-456.7708,-336.2878,231.1706,-436.2004,211.2145,-267.1066,-405.8347,233.1301,201.7842,
194.6204,-156.1117,134.5036,-126.85,215.8049,-471.7708,-321.2878,216.1706,-421.2004,196.2145,-252.1066,-390.8347,218.1301,186.7842,
196.8868,-141.1117,149.5036,-141.85,203.7437,-486.7708,-336.2878,201.1706,-436.2004,181.2145,-267.1066,-405.8347,203.1301,171.7842,
211.8868,-135.1761,135.1761,-137.1352,218.7437,-471.7708,-326.1857,216.1706,-451.2004,196.2145,-282.1066,-401.6098,218.1301,186.7842,
226.8868,-120.1761,120.1761,-122.1352,233.7437,-456.7708,-314.4314,231.1706,-466.2004,211.2145,-294.8403,-398.6714,233.1301,201.7842,
211.8868,-135.1761,135.1761,-136.6455,218.7437,-471.7708,-325.6961,216.1706,-451.2004,196.2145,-279.8403,-413.6714,218.1301,186.7842,
196.8868,-120.1761,125.8705,-121.6455,212.0691,-482.4219,-310.6961,201.1706,-436.2004,181.2145,-264.8403,-398.6714,203.1301,171.7842,
181.8868,-132.727,110.8705,-106.6455,197.0691,-497.4219,-325.6961,186.1706,-449.1174,166.2145,-279.8403,-413.6714,188.1301,156.7842,
166.8868,-120.4832,95.8705,-91.6455,182.0691,-482.4219,-340.6961,171.1706,-464.1174,151.2145,-294.8403,-428.6714,173.1301,141.7842,
181.8868,-105.4832,80.8705,-101.382,197.0691,-467.4219,-325.6961,186.1706,-467.7287,166.2145,-279.8403,-417.7724,188.1301,156.7842,
196.8868,-120.4832,95.8705,-116.382,212.0691,-482.4219,-310.6961,201.1706,-452.7287,181.2145,-264.8403,-432.7724,203.1301,171.7842,
181.8868,-105.4832,110.8705,-101.382,215.0084,-497.4219,-295.6961,186.1706,-437.7287,166.2145,-249.8403,-447.7724,188.1301,174.847,
166.8868,-120.4832,123.4215,-86.382,201.7849,-512.4219,-306.5949,171.1706,-444.7094,151.2145,-264.8403,-462.7724,173.1301,170.439,
151.8868,-113.1366,108.4215,-101.382,213.0491,-497.4219,-321.5949,156.1706,-429.7094,136.2145,-265.9443,-447.7724,188.1301,185.439,
166.8868,-127.8295,123.4215,-116.382,228.0491,-482.4219,-336.5949,171.1706,-444.7094,151.2145,-280.9443,-432.7724,203.1301,200.439,
181.8868,-142.8295,138.4215,-131.382,213.0491,-497.4219,-340.8784,186.1706,-459.7094,166.2145,-265.9443,-447.7724,218.1301,185.439,
166.8868,-127.8295,123.4215,-116.382,198.0491,-512.4219,-325.8784,171.1706,-444.7094,151.2145,-250.9443,-462.7724,203.1301,173.378,
181.8868,-142.8295,130.2782,-130.2782,184.1527,-527.4219,-340.8784,186.1706,-459.7094,166.2145,-265.9443,-477.7724,199.8251,188.378,
196.8868,-157.8295,145.2782,-145.2782,199.1527,-512.4219,-355.8784,191.9887,-474.7094,181.2145,-280.9443,-462.7724,214.8251,203.378,
211.8868,-142.8295,130.2782,-130.2782,214.1527,-497.4219,-340.8784,206.9887,-459.7094,196.2145,-265.9443,-447.7724,229.8251,218.378,
207.6614,-127.8295,115.2782,-115.2782,199.1527,-486.8296,-325.8784,191.9887,-444.7094,181.2145,-250.9443,-432.7724,214.8251,203.378,
192.6614,-142.8295,100.2782,-100.2782,184.1527,-478.9932,-340.8784,176.9887,-459.7094,166.2145,-265.9443,-437.8529,199.8251,188.378,
207.6614,-157.8295,115.2782,-115.2782,199.1527,-493.9932,-355.8784,191.9887,-474.7094,181.2145,-280.9443,-452.8529,214.8251,203.378,
192.6614,-142.8295,121.9521,-109.2185,184.1527,-508.9932,-340.8784,176.9887,-459.7094,166.2145,-265.9443,-467.8529,199.8251,188.378,
177.6614,-127.8295,106.9521,-94.2185,199.1527,-523.9932,-325.8784,161.9887,-444.7094,151.2145,-250.9443,-452.8529,184.8251,173.378,
162.6614,-112.8295,91.9521,-79.2185,193.9487,-508.9932,-310.8784,146.9887,-429.7094,136.2145,-235.9443,-437.8529,169.8251,178.2762,
177.6614,-127.8295,106.9521,-94.2185,208.9487,-493.9932,-325.8784,161.9887,-426.0981,151.2145,-250.9443,-422.8529,184.8251,193.2762,
192.6614,-142.8295,121.9521,-109.2185,215.008,-485.3602,-340.8784,176.9887,-441.0981,166.2145,-265.9443,-437.8529,199.8251,208.2762,
177.6614,-157.8295,121.9524,-119.0135,200.008,-500.3602,-327.6551,161.9887,-438.3428,151.2145,-280.9443,-452.8529,213.0494,193.2762,
162.6614,-142.8295,106.9524,-104.0135,215.008,-515.3602,-312.6551,146.9887,-423.3428,150.3592,-265.9443,-437.8529,228.0494,208.2762,
177.6614,-157.8295,121.9524,-119.0135,213.5388,-500.3602,-321.2881,161.9887,-408.3428,165.3592,-250.9443,-422.8529,243.0494,204.7233,
192.6614,-172.8295,136.9524,-134.0135,228.5388,-485.3602,-306.2881,176.9887,-393.3428,180.3592,-235.9443,-407.8529,258.0494,219.7233,
207.6614,-187.8295,151.9524,-149.0135,243.5388,-470.3602,-321.2881,191.9887,-408.3428,195.3592,-250.9443,-392.8529,273.0494,234.7233,
222.6614,-195.9072,153.7872,-153.7872,228.5388,-485.3602,-336.2881,206.9887,-423.3428,210.3592,-265.9443,-407.8529,274.2701,219.7233,
207.6614,-180.9072,138.7872,-138.7872,234.1092,-500.3602,-321.2881,191.9887,-408.3428,195.3592,-250.9443,-410.426,259.2701,204.7233,
192.6614,-165.9072,123.7872,-123.7872,219.1092,-485.3602,-306.2881,176.9887,-393.3428,180.3592,-235.9443,-395.426,244.2701,189.7233,
196.3976,-154.2766,108.7872,-108.7872,204.1092,-470.3602,-321.2881,191.9887,-408.3428,195.3592,-250.9443,-380.426,238.5176,201.295,
211.3976,-149.379,119.0138,-119.0138,219.1092,-455.3602,-336.2881,206.9887,-423.3428,210.3592,-265.9443,-365.426,253.5176,216.295,
220.3957,-164.379,113.6262,-113.6262,204.1092,-470.3602,-321.2881,202.7647,-408.3428,225.3592,-250.9443,-380.426,238.5176,201.295,
205.3957,-149.379,128.6262,-117.5443,219.1092,-485.3602,-306.2881,187.7647,-393.3428,210.3592,-235.9443,-385.9371,223.5176,198.8461,
220.3957,-158.6849,143.6262,-132.5443,210.6007,-500.3602,-321.2881,192.9687,-408.3428,207.6618,-250.9443,-400.9371,229.211,183.8461,
235.3957,-148.3997,129.7884,-129.7884,225.6007,-485.3602,-336.2881,207.9687,-423.3428,222.6618,-265.9443,-386.4272,244.211,198.8461,
250.3957,-133.3997,114.7884,-114.7884,240.6007,-470.3602,-321.2881,222.9687,-422.1802,237.6618,-250.9443,-371.4272,259.211,213.8461,
239.0071,-148.3997,122.4422,-122.4422,225.6007,-478.0139,-306.2881,207.9687,-407.1802,222.6618,-235.9443,-386.4272,244.211,198.8461,
224.0071,-133.3997,118.5241,-107.4422,210.6007,-493.0139,-291.2881,192.9687,-392.1802,207.6618,-220.9443,-380.0604,229.211,183.8461,
209.0071,-148.3997,111.1773,-111.1773,195.6007,-508.0139,-306.2881,177.9687,-407.1802,192.6618,-235.9443,-395.0604,214.211,168.8461,
194.0071,-150.8488,96.1773,-96.1773,180.6007,-493.0139,-321.2881,162.9687,-422.1802,177.6618,-250.9443,-410.0604,199.211,153.8461,
209.0071,-135.8488,81.1773,-81.1773,195.6007,-478.0139,-306.2881,177.9687,-411.4053,192.6618,-235.9443,-395.0604,214.211,168.8461,
224.0071,-147.91,96.1773,-96.1773,210.6007,-463.0139,-291.2881,192.9687,-396.4053,207.6618,-220.9443,-380.0604,229.211,183.8461,
209.0071,-162.91,111.1773,-111.1773,217.4567,-478.0139,-280.1476,188.0712,-381.4053,216.4774,-207.6618,-395.0604,244.211,198.8461,
194.0071,-160.154,126.1773,-96.1773,202.4567,-493.0139,-295.1476,173.0712,-396.4053,201.4774,-222.6618,-410.0604,229.211,183.8461,
179.0071,-145.154,111.1773,-86.6888,215.0084,-478.0139,-285.5346,158.0712,-381.4053,186.4774,-207.6618,-395.0604,214.211,176.8065,
194.0071,-130.154,109.2185,-101.6888,230.0084,-463.0139,-300.5346,173.0712,-372.7138,201.4774,-192.6618,-380.0604,229.211,191.8065,
209.0071,-145.154,124.2185,-116.6888,215.0084,-478.0139,-315.5346,188.0712,-387.7138,216.4774,-207.6618,-395.0604,244.211,182.1938,
194.0071,-152.8077,120.4829,-120.4829,200.0084,-467.239,-300.5346,198.8463,-402.7138,222.355,-214.5183,-410.0604,242.9249,197.1938,
209.0071,-167.8077,131.2578,-131.2578,186.1119,-452.239,-315.5346,213.8463,-417.7138,237.355,-229.5183,-425.0604,257.9249,212.1938,
198.8456,-162.6032,144.9712,-144.9712,171.1119,-467.239,-330.5346,198.8463,-402.7138,222.355,-218.4367,-427.0778,242.9249,197.1938,
183.8456,-147.6032,129.9712,-129.9712,186.1119,-482.239,-315.5346,183.8463,-387.7138,207.355,-203.4367,-419.2416,227.9249,182.1938,
198.8456,-132.6032,114.9712,-114.9712,182.6835,-467.239,-304.1462,185.6223,-394.2634,210.1103,-218.4367,-404.2416,212.9249,167.1938,
193.4583,-147.6032,112.157,-112.157,175.8263,-452.239,-319.1462,195.4178,-409.2634,204.2334,-233.4367,-389.2416,215.0084,152.1938,
208.4583,-162.6032,127.157,-127.157,190.8263,-467.239,-334.1462,210.4178,-424.2634,219.2334,-248.4367,-404.2416,230.0084,167.1938,
193.4583,-147.6032,122.4422,-122.4422,175.8263,-482.239,-319.1462,195.4178,-409.2634,204.2334,-233.4367,-419.2416,215.0084,152.1938,
178.4583,-132.6032,107.4422,-107.4422,190.8263,-497.239,-304.1462,180.4178,-394.2634,189.2334,-218.4367,-404.2416,200.0084,163.5827,
163.4583,-117.6032,92.4422,-92.4422,193.4588,-482.239,-289.1462,165.4178,-379.2634,174.2334,-216.9675,-389.2416,185.0084,148.5827,
178.4583,-132.6032,107.4422,-107.4422,208.4588,-467.239,-304.1462,180.4178,-364.2634,189.2334,-201.9675,-374.2416,200.0084,163.5827,
193.4583,-147.6032,122.4422,-122.4422,223.4588,-482.239,-319.1462,195.4178,-379.2634,204.2334,-216.9675,-389.2416,215.0084,178.5827,
208.4583,-146.9305,137.4422,-137.4422,208.4588,-497.239,-334.022,210.4178,-394.2634,219.2334,-231.9675,-404.2416,230.0084,163.5827,
193.4583,-131.9305,122.4422,-122.4422,219.4162,-499.5638,-319.022,195.4178,-379.2634,204.2334,-216.9675,-407.487,215.0084,177.2962,
178.7656,-144.4818,107.4422,-107.4422,204.4162,-484.5638,-304.022,180.4178,-375.6524,189.2334,-225.783,-406.018,200.0084,162.2962,
193.7656,-159.4818,122.4422,-122.4422,200.3155,-469.5638,-319.022,195.4178,-390.6524,204.2334,-240.783,-391.018,215.0084,177.2962,
208.7656,-155.7463,129.2987,-129.2987,215.3155,-454.5638,-334.022,210.4178,-405.6524,219.2334,-255.783,-376.018,230.0084,192.2962,
193.7656,-140.7463,120.9726,-114.2987,200.3155,-469.5638,-319.022,195.4178,-390.6524,204.2334,-240.783,-391.018,215.0084,177.2962,
178.7656,-125.7463,110.1975,-99.2987,188.5609,-484.5638,-304.022,180.4178,-375.6524,189.2334,-225.783,-406.018,200.0084,162.2962,
165.5416,-110.7463,95.1975,-92.0766,173.5609,-469.5638,-289.022,165.4178,-390.6524,174.2334,-220.3957,-404.5484,185.0084,147.2962,
162.6032,-95.7463,85.2196,-91.0968,176.3162,-454.5638,-304.022,151.8281,-405.6524,183.1731,-235.3957,-391.8147,191.0094,162.2962,
177.6032,-80.7463,78.8528,-87.6683,191.3162,-439.5638,-319.022,166.8281,-420.6524,198.1731,-250.3957,-376.8147,206.0094,177.2962,
192.6032,-95.7463,93.8528,-102.6683,195.9072,-439.8115,-304.022,181.8281,-405.6524,213.1731,-235.3957,-361.8147,221.0094,192.2962,
177.6032,-80.7463,108.8528,-117.0549,192.479,-454.8115,-289.022,166.8281,-390.6524,198.1731,-220.3957,-376.8147,206.0094,184.6428,
192.6032,-95.7463,123.8528,-132.0549,207.479,-469.8115,-304.022,181.8281,-405.6524,213.1731,-235.3957,-391.8147,221.0094,171.9086,
207.6032,-110.7463,138.8528,-147.0549,222.479,-454.8115,-319.022,196.8281,-420.6524,228.1731,-250.3957,-376.8147,236.0094,186.9086,
222.6032,-125.7463,123.8528,-132.0549,237.479,-439.8115,-304.022,211.8281,-405.6524,243.1731,-235.3957,-361.8147,251.0094,201.9086,
230.6812,-136.6453,118.034,-118.034,222.479,-454.8115,-289.022,196.8281,-390.6524,228.1731,-220.3957,-376.8147,242.4355,206.1922,
215.6812,-129.2989,129.2989,-133.034,218.4364,-469.8115,-287.9838,184.1526,-375.6524,213.1731,-205.3957,-391.8147,257.4355,192.9682,
230.6812,-144.2989,144.2989,-148.034,215.988,-484.8115,-302.9838,199.1526,-390.6524,228.1731,-220.3957,-406.8147,272.4355,207.9682,
215.6812,-159.2989,132.7272,-133.034,200.988,-469.8115,-317.9838,184.1526,-405.6524,213.1731,-235.3957,-409.9359,257.4355,192.9682,
200.6812,-144.2989,117.7272,-118.034,215.988,-454.8115,-302.9838,176.3166,-390.6524,200.8047,-220.3957,-394.9359,247.8231,207.9682,
215.6812,-129.2989,102.7272,-103.034,201.2945,-439.8115,-287.9838,191.3166,-375.6524,215.8047,-205.3957,-379.9359,244.3939,222.9682,
200.6812,-132.7272,117.7272,-118.034,200.3155,-424.8115,-285.5349,204.2336,-374.6724,230.8047,-215.9875,-394.9359,259.3939,234.5993,
215.6812,-147.7272,132.7272,-133.034,215.3155,-439.8115,-300.5349,190.0298,-389.6724,235.0887,-230.9875,-409.9359,265.4544,220.3955,
200.6812,-162.7272,147.7272,-118.034,215.0082,-454.8115,-315.5349,175.0298,-398.1816,220.0887,-245.9875,-396.2225,250.4544,205.3955,
215.6812,-147.7272,132.7272,-133.034,230.0082,-439.8115,-300.5349,190.0298,-383.1816,235.0887,-230.9875,-381.2225,265.4544,220.3955,
230.6812,-154.2769,147.7272,-148.034,215.0082,-424.8115,-315.5349,205.0298,-376.6319,250.0887,-219.9061,-396.2225,277.6986,205.3955,
215.6812,-141.0535,132.7272,-133.034,200.0082,-412.3851,-300.5349,211.5797,-391.6319,235.0887,-234.9061,-411.2225,262.6986,199.8254,
230.6812,-156.0535,129.7886,-129.7886,209.1308,-427.3851,-315.5349,226.5797,-406.6319,250.0887,-249.9061,-426.2225,277.6986,214.8254,
215.6812,-141.0535,114.7886,-114.7886,194.1308,-442.3851,-300.5349,211.5797,-391.6319,235.0887,-234.9061,-441.2225,262.6986,199.8254,
200.6812,-126.0535,99.7886,-99.7886,179.1308,-457.3851,-285.5349,196.5797,-376.6319,220.0887,-219.9061,-426.2225,247.6986,184.8254,
215.6812,-111.0535,90.1173,-90.1173,188.0708,-442.3851,-270.5349,181.5797,-361.6319,205.0887,-209.6209,-411.2225,232.6986,173.378,
230.6812,-126.0535,105.1173,-105.1173,194.9277,-427.3851,-285.5349,196.5797,-376.6319,220.0887,-224.6209,-396.2225,247.6986,188.378,
245.6812,-141.0535,120.1173,-120.1173,209.9277,-442.3851,-300.5349,211.5797,-391.6319,235.0887,-239.6209,-381.2225,262.6986,203.378,
230.6812,-143.9919,135.1173,-135.1173,194.9277,-457.3851,-314.4311,196.5797,-376.6319,220.0887,-228.232,-396.2225,247.6986,188.378,
215.6812,-128.9919,120.1173,-120.1173,179.9277,-472.3851,-299.4311,181.5797,-361.6319,205.0887,-213.232,-387.4063,232.6986,173.378,
200.6812,-113.9919,105.1173,-105.1173,164.9277,-457.3851,-300.2278,166.5797,-346.6319,190.0887,-228.232,-372.4063,217.6986,158.378,
215.6812,-128.9919,120.1173,-120.1173,179.9277,-442.3851,-315.2278,181.5797,-361.6319,205.0887,-236.5579,-357.4063,232.6986,173.378,
230.6812,-143.9919,135.1173,-135.1173,194.9277,-427.3851,-330.2278,196.5797,-376.6319,220.0887,-251.5579,-346.7559,247.6986,188.378,
245.6812,-157.7056,150.1173,-150.1173,179.9277,-442.3851,-315.2278,211.5797,-391.6319,235.0887,-264.4746,-361.7559,256.6388,179.2552,
230.6812,-142.7056,135.1173,-135.1173,186.6014,-457.3851,-300.2278,196.5797,-376.6319,220.0887,-249.4746,-346.7559,241.6388,166.0315,
215.6812,-132.2373,120.1173,-120.1173,171.6014,-448.6277,-315.2278,181.5797,-386.9171,205.0887,-262.5155,-361.7559,226.6388,151.0315,
230.6812,-117.2373,116.5648,-125.3808,186.6014,-433.6277,-330.2278,196.5797,-401.9171,220.0887,-277.5155,-346.7559,241.6388,166.0315,
245.6812,-102.2373,101.5648,-140.3808,201.6014,-418.6277,-343.8175,211.5797,-416.9171,235.0887,-275.2499,-331.7559,256.6388,181.0315,
230.6812,-117.2373,98.9333,-125.3808,186.6014,-433.6277,-339.8991,196.5797,-401.9171,220.0887,-260.2499,-346.7559,241.6388,166.0315,
215.6812,-102.2373,113.9333,-110.3808,191.4992,-448.6277,-324.8991,181.5797,-386.9171,205.0887,-245.2499,-361.7559,226.6388,151.0315,
220.3955,-117.2373,128.3192,-125.3808,198.8463,-463.6277,-309.8991,169.4599,-401.9171,193.948,-260.2499,-376.7559,213.5386,166.0315,
235.3955,-132.2373,143.3192,-140.3808,213.8463,-448.6277,-324.8991,184.4599,-389.3658,208.948,-253.2104,-361.7559,228.5386,181.0315,
239.9866,-117.2373,128.3192,-125.3808,228.8463,-433.6277,-328.1448,199.4599,-374.3658,223.948,-238.2104,-346.7559,243.5386,196.0315,
224.9866,-102.2373,113.3192,-110.3808,213.8463,-448.6277,-313.1448,184.4599,-359.3658,208.948,-223.2104,-361.7559,228.5386,181.0315,
209.9866,-113.1366,113.1366,-125.3808,198.8463,-463.6277,-298.1448,169.4599,-344.3658,193.948,-208.2104,-376.7559,213.5386,179.7446,
224.9866,-128.1366,128.1366,-140.3808,186.6016,-478.6277,-313.1448,184.4599,-359.3658,208.948,-223.2104,-391.7559,228.5386,193.4585,
209.9866,-113.1366,143.1366,-125.3808,183.1734,-463.6277,-328.1448,169.4599,-374.3658,193.948,-238.2104,-406.7559,213.5386,178.4585,
224.9866,-98.1366,128.1366,-110.3808,198.1734,-448.6277,-313.1448,184.4599,-373.2032,208.948,-223.2104,-404.5486,228.5386,193.4585,
239.9866,-113.1366,113.1366,-107.2592,203.2536,-433.6277,-298.1448,199.4599,-358.2032,223.948,-208.2104,-389.5486,232.64,178.4585,
224.9866,-108.2389,108.2389,-122.2592,188.2536,-442.2609,-299.2485,184.4599,-343.2032,208.948,-219.9059,-374.5486,217.64,163.4585,
239.9866,-123.2389,123.2389,-137.2592,203.2536,-457.2609,-314.2485,199.4599,-358.2032,223.948,-234.9059,-389.5486,232.64,178.4585,
241.9449,-138.2389,138.2389,-147.91,218.2536,-442.2609,-329.2485,204.7233,-373.2032,225.2932,-249.9059,-404.5486,247.64,188.0705,
226.9449,-123.2389,123.2389,-132.91,233.2536,-427.2609,-314.2485,189.7233,-358.2032,210.2932,-234.9059,-389.5486,255.6595,203.0705,
211.9449,-110.6874,108.2389,-117.91,218.2536,-412.2609,-299.2485,174.7233,-343.2032,195.2932,-219.9059,-374.5486,240.6595,188.0705,
196.9449,-125.6874,104.3206,-104.3206,203.2536,-406.9976,-314.2485,189.7233,-358.2032,206.1927,-234.9059,-359.5486,234.5988,197.3762,
211.9449,-140.6874,119.3206,-119.3206,214.5183,-421.9976,-329.2485,204.7233,-373.2032,221.1927,-249.9059,-374.5486,249.5988,212.3762,
196.9449,-125.6874,104.3206,-104.3206,199.5183,-436.9976,-314.2485,189.7233,-358.2032,206.1927,-234.9059,-389.5486,234.5988,197.3762,
181.9449,-110.6874,89.3206,-89.3206,202.2743,-451.9976,-299.2485,174.7233,-343.2032,191.1927,-219.9059,-393.2839,219.5988,182.3762,
196.9449,-103.341,103.341,-104.3206,215.0084,-436.9976,-284.2485,189.7233,-358.0203,206.1927,-216.9675,-378.2839,234.5988,188.5609,
211.9449,-118.341,118.341,-119.3206,211.5804,-421.9976,-299.2485,204.7233,-373.0203,221.1927,-231.9675,-363.2839,249.5988,203.5609,
226.9449,-133.341,133.341,-134.3206,226.5804,-426.5882,-314.2485,219.7233,-388.0203,236.1927,-246.9675,-378.2839,264.5988,218.5609,
211.9449,-148.341,140.5634,-140.5634,234.5993,-441.5882,-299.2485,204.7233,-373.0203,221.1927,-231.9675,-393.2839,249.5988,203.5609,
196.9449,-133.341,125.5634,-125.5634,249.5993,-456.5882,-284.2485,189.7233,-358.0203,206.1927,-216.9675,-378.5907,234.5988,202.2743,
211.9449,-124.8907,110.5634,-110.5634,234.5993,-441.5882,-299.2485,174.8475,-373.0203,208.152,-231.9675,-363.5907,219.5988,187.2743,
226.9449,-139.8907,123.9114,-123.9114,219.5993,-426.5882,-314.2485,189.8475,-358.0203,223.152,-216.9675,-348.5907,234.5988,202.2743,
241.9449,-154.8907,138.9114,-138.9114,234.5993,-411.5882,-329.2485,204.8475,-343.0203,238.152,-201.9675,-333.5907,249.5988,217.2743,
226.9449,-139.8907,126.85,-126.85,219.5993,-426.5882,-314.2485,189.8475,-358.0203,223.152,-216.9675,-348.5907,234.5988,202.2743,
211.9449,-124.8907,111.85,-111.85,204.5993,-441.5882,-299.2485,174.8475,-343.0203,208.152,-209.1313,-361.9389,219.5988,187.2743,
196.9449,-111.1773,96.85,-96.85,189.5993,-426.5882,-314.2485,159.8475,-328.0203,193.152,-224.1313,-346.9389,204.5988,172.2743,
211.9449,-120.9728,111.85,-111.85,204.5993,-411.5882,-329.2485,174.8475,-343.0203,208.152,-239.1313,-338.43,219.5988,187.2743,
226.9449,-135.9728,126.85,-126.85,219.5993,-396.5882,-344.2485,189.8475,-358.0203,223.152,-254.1313,-353.43,234.5988,202.2743,
241.9449,-144.9714,141.85,-141.85,204.5993,-411.5882,-329.2485,204.8475,-373.0203,238.152,-259.5772,-368.43,232.1499,187.2743,
226.9449,-129.9714,126.85,-126.85,218.9261,-426.5882,-314.2485,189.8475,-358.0203,223.152,-244.5772,-383.43,217.1499,172.2743,
211.9449,-114.9714,135.666,-111.85,233.6191,-441.5882,-305.1255,174.8475,-373.0203,208.152,-259.5772,-398.43,202.1499,166.0317,
226.9449,-129.9714,150.666,-126.85,248.6191,-426.5882,-320.1255,189.8475,-376.6317,223.152,-274.5772,-383.43,217.1499,181.0317,
241.9449,-114.9714,135.666,-141.85,263.6191,-411.5882,-305.1255,204.8475,-361.6317,238.152,-259.5772,-368.43,232.1499,196.0317,
226.9449,-99.9714,120.666,-126.85,248.6191,-426.5882,-290.1255,189.8475,-376.6317,223.152,-248.8021,-383.43,217.1499,181.0317,
211.9449,-84.9714,123.9119,-111.85,233.6191,-441.5882,-275.1255,174.8475,-361.6317,208.152,-233.8021,-398.43,202.1499,166.0317,
226.9449,-99.9714,126.85,-126.85,218.6191,-456.5882,-290.1255,167.9907,-376.6317,193.152,-248.8021,-413.43,187.1499,153.2971,
211.9449,-96.4843,111.85,-125.8702,203.6191,-450.0969,-305.1255,154.2773,-391.6317,178.152,-263.8021,-428.43,193.4585,149.379,
212.5595,-81.4843,96.85,-110.8702,210.6,-438.8322,-301.697,169.2773,-404.5484,193.152,-278.8021,-443.43,208.4585,164.379,
227.5595,-78.8525,81.85,-103.341,195.6,-423.8322,-286.697,184.2773,-389.5484,208.152,-263.8021,-428.43,223.4585,179.379,
219.9061,-93.8525,96.4843,-118.341,180.6,-438.8322,-271.697,199.2773,-374.5484,222.844,-248.8021,-413.43,238.4585,178.7653,
234.9061,-108.8525,111.4843,-133.341,183.663,-453.8322,-286.697,214.2773,-389.5484,237.844,-263.8021,-428.43,253.4585,173.8677,
219.9061,-113.6265,120.4825,-124.4011,168.663,-468.8322,-301.697,199.2773,-404.5484,222.844,-278.8021,-443.43,238.4585,158.8677,
204.9061,-98.6265,105.4825,-109.4011,183.663,-453.8322,-286.697,184.2773,-389.5484,207.844,-263.8021,-458.43,223.4585,161.6232,
219.9061,-113.6265,113.6262,-113.6262,191.0098,-438.8322,-300.7177,199.2773,-374.5484,222.844,-248.8021,-443.43,238.4585,176.3166,
234.9061,-128.6265,128.6262,-128.6262,206.0098,-423.8322,-315.7177,214.2773,-366.3467,237.844,-239.9866,-428.43,253.4585,191.3166,
249.9061,-143.6265,136.1554,-136.1554,191.0098,-437.8527,-330.7177,229.2773,-381.3467,252.844,-254.9866,-426.0983,268.4585,206.3166,
234.9061,-128.6265,121.1554,-121.1554,176.0098,-452.8527,-345.7177,214.2773,-396.3467,237.844,-269.9866,-441.0983,253.4585,191.3166,
219.9061,-113.6265,106.1554,-106.1554,161.0098,-467.8527,-330.7177,199.2773,-388.386,222.844,-254.9866,-456.0983,238.4585,176.3166,
234.9061,-103.8307,100.8923,-100.8923,176.0098,-452.8527,-315.7177,214.2773,-373.386,217.4576,-239.9866,-441.0983,223.4585,184.1531,
231.1708,-118.8307,115.8923,-115.8923,161.0098,-437.8527,-330.7177,229.2773,-388.386,232.4576,-254.9866,-426.0983,238.4585,193.9482,
246.1708,-133.8307,110.6876,-110.6876,164.562,-422.8527,-345.7177,244.2773,-403.386,247.4576,-269.9866,-411.0983,253.4585,208.9482,
231.1708,-118.8307,95.6876,-95.6876,149.8693,-437.8527,-330.7177,229.2773,-388.386,232.4576,-254.9866,-426.0983,238.4585,193.9482,
216.1708,-103.8307,88.1587,-110.6876,164.8693,-452.8527,-315.7177,214.2773,-373.386,217.4576,-239.9866,-411.0983,223.4585,193.9489,
201.1708,-118.8307,103.1587,-125.6876,169.4597,-437.8527,-300.7177,199.2773,-388.386,202.4576,-224.9866,-396.0983,238.4585,178.9489,
216.1708,-126.3601,118.1587,-140.6876,184.4597,-422.8527,-315.7177,214.2773,-373.386,217.4576,-239.9861,-381.0983,253.4585,193.9489,
231.1708,-127.3399,114.6058,-125.6876,199.4597,-407.8527,-330.7177,229.2773,-388.386,232.4576,-254.9861,-366.0983,268.4585,208.9489,
216.1708,-142.3399,117.0545,-117.0545,184.4597,-422.8527,-315.7177,214.2773,-373.386,217.4576,-242.4353,-381.0983,253.4585,193.9489,
201.1708,-127.3399,102.0545,-119.9931,169.4597,-437.8527,-300.7177,199.2773,-358.386,202.4576,-227.4353,-369.7749,238.4585,179.7446,
199.3353,-112.3399,87.0545,-104.9931,156.2359,-430.5063,-315.7177,184.2773,-343.386,187.4576,-225.7833,-354.7749,223.4585,164.7446,
184.3353,-127.3399,80.3222,-89.9931,141.2359,-415.5063,-330.7177,169.2773,-358.386,172.4576,-240.7833,-343.8175,208.4585,149.7446,
199.3353,-112.3399,95.3222,-104.9931,156.2359,-400.5063,-339.4093,184.2773,-373.386,187.4576,-255.7833,-328.8175,223.4585,164.7446,
214.3353,-120.9728,110.3222,-119.9931,157.2157,-415.5063,-324.4093,199.2773,-358.386,202.4576,-240.7833,-343.8175,238.4585,179.7446,
199.3353,-105.9728,125.3222,-104.9931,152.318,-430.5063,-309.4093,184.2773,-343.386,187.4576,-225.7833,-358.8175,223.4585,164.7446,
184.3353,-90.9728,135.1759,-89.9931,167.318,-445.5063,-312.4721,169.2773,-358.386,172.4576,-240.7833,-373.8175,208.4585,172.3985,
199.3353,-95.5048,120.1759,-104.9931,182.318,-430.5063,-316.8801,184.2773,-373.386,187.4576,-255.7833,-358.8175,223.4585,187.3985,
214.3353,-110.5048,116.5648,-119.9931,197.318,-415.5063,-330.1034,199.2773,-388.386,202.4576,-267.4134,-343.8175,238.4585,202.3985,
229.3353,-125.5048,131.5648,-134.9931,182.318,-430.5063,-315.1034,214.2773,-403.386,217.4576,-278.1883,-358.8175,253.4585,187.3985,
214.3353,-110.5048,116.5648,-119.9931,167.318,-445.5063,-300.1034,199.2773,-388.386,202.4576,-263.1883,-373.8175,238.4585,172.3985,
229.3353,-125.5048,121.9524,-121.9524,152.318,-460.5063,-315.1034,214.2773,-403.386,217.4576,-278.1883,-388.8175,234.5986,180.7246,
244.3353,-140.5048,136.9524,-136.9524,167.318,-445.5063,-330.1034,229.2773,-409.9359,232.4576,-289.453,-373.8175,249.5986,195.7246,
259.3353,-125.5048,121.9524,-125.8702,182.318,-430.5063,-315.1034,244.2773,-394.9359,247.4576,-274.453,-358.8175,264.5986,210.7246,
274.3353,-110.5048,106.9524,-140.8702,173.378,-415.5063,-300.1034,259.2773,-379.9359,262.4576,-259.453,-373.8175,274.2699,225.7246,
259.3353,-117.5443,117.5443,-155.8702,158.378,-430.5063,-285.1034,244.2773,-383.9785,247.4576,-244.453,-388.8175,267.4137,240.7246,
244.3353,-132.5443,132.5443,-140.8702,162.6027,-445.5063,-300.1034,229.2773,-398.9785,232.4576,-259.453,-403.8175,252.4137,229.2117,
229.3353,-117.5443,117.5443,-125.8702,147.6027,-430.5063,-315.1034,214.2773,-388.3863,217.4576,-274.453,-418.8175,237.4137,214.2117,
214.3353,-102.5443,102.5443,-110.8702,162.6027,-415.5063,-300.1034,214.0289,-373.3863,226.7626,-259.453,-421.6903,248.3127,225.7833,
229.3353,-87.5443,87.5443,-118.5239,166.5211,-400.5063,-285.1034,229.0289,-358.3863,241.7626,-244.453,-406.6903,263.3127,223.3343,
214.3353,-102.5443,102.5443,-117.5443,160.6437,-385.5063,-281.1271,214.0289,-373.3863,226.7626,-236.0682,-391.6903,256.6381,222.3543,
213.0489,-117.5443,117.5443,-129.7886,155.2564,-400.5063,-296.1271,199.0289,-388.3863,211.7626,-251.0682,-406.6903,241.6381,219.9059,
198.0489,-121.4622,110.6876,-114.7886,140.2564,-415.5063,-311.1271,184.0289,-386.9166,196.7626,-266.0682,-421.6903,226.6381,204.9059,
183.0489,-106.4622,95.6876,-99.7886,155.2564,-430.5063,-296.1271,169.0289,-371.9166,181.7626,-251.0682,-436.6903,211.6381,189.9059,
198.0489,-121.4622,82.7709,-84.7886,142.5225,-415.5063,-300.2281,184.0289,-356.9166,196.7626,-245.3739,-421.6903,218.9268,181.7042,
213.0489,-136.4622,97.7709,-99.7886,157.5225,-400.5063,-315.2281,199.0289,-358.5105,211.7626,-233.1296,-406.6903,233.9268,196.7042,
228.0489,-151.4622,112.7709,-114.7886,172.5225,-394.7531,-330.2281,214.0289,-373.5105,226.7626,-248.1296,-391.6903,248.9268,211.7042,
213.0489,-166.4622,97.7709,-99.7886,157.5225,-409.7531,-345.2281,199.0289,-388.386,211.7626,-263.1296,-406.6903,233.9268,196.7042,
198.0489,-151.4622,82.7709,-84.7886,164.0724,-424.7531,-330.2281,184.0289,-373.386,196.7626,-248.1296,-421.6903,218.9268,181.7042,
213.0489,-136.4622,93.5457,-93.5457,179.0724,-409.7531,-315.2281,199.0289,-367.8161,211.7626,-237.5379,-406.6903,229.7012,196.7042,
228.0489,-143.9917,108.5457,-108.5457,189.0505,-394.7531,-330.2281,214.0289,-352.8161,226.7626,-225.2934,-391.6903,244.7012,211.7042,
243.0489,-128.9917,123.4215,-123.5457,204.0505,-379.7531,-345.2281,229.0289,-367.8161,241.7626,-240.2934,-376.6903,259.7012,226.7042,
228.0489,-120.9728,108.4215,-108.5457,189.0505,-394.7531,-330.2281,214.0289,-373.6931,226.7626,-246.3536,-391.6903,244.7012,211.7042,
213.0489,-105.9728,93.4215,-123.5457,174.0505,-409.7531,-315.2281,199.0289,-358.6931,211.7626,-231.3536,-406.6903,229.7012,196.7042,
228.0489,-120.9728,108.4215,-138.5457,159.0505,-394.7531,-322.7572,214.0289,-373.6931,226.7626,-246.3536,-395.243,244.7012,186.6018,
243.0489,-109.7079,107.7488,-123.5457,174.0505,-379.7531,-337.7572,229.0289,-388.6931,241.7626,-261.3536,-380.243,259.7012,201.6018,
258.0489,-112.157,92.7488,-108.5457,189.0505,-364.7531,-352.7572,244.0289,-403.6931,256.7626,-276.3536,-365.243,274.7012,216.6018,
273.0489,-127.157,107.7488,-123.5457,200.3153,-379.7531,-337.7572,259.0289,-388.6931,271.7626,-261.3536,-380.243,289.7012,231.6018,
258.0489,-117.0545,110.198,-138.5457,202.2743,-394.7531,-322.7572,244.0289,-373.6931,256.7626,-246.3536,-366.8364,274.76,216.6018,
243.0489,-129.2989,97.9535,-123.5457,187.2743,-409.7531,-337.7572,229.0289,-388.6931,241.7626,-261.3536,-381.8364,259.76,201.6018,
228.0489,-144.2989,82.9535,-108.5457,172.2743,-394.7531,-352.7572,214.0289,-403.6931,226.7626,-276.3536,-366.8364,244.76,186.6018,
243.0489,-129.2989,75.4243,-93.5457,187.2743,-379.7531,-360.4693,229.0289,-418.6931,241.7626,-261.3536,-351.8364,259.76,201.6018,
258.0489,-114.2989,90.4243,-108.5457,199.8251,-369.2855,-345.4693,244.0289,-403.6931,256.7626,-246.3536,-366.8364,274.76,216.6018,
243.0489,-99.2989,105.4243,-97.954,184.8251,-384.2855,-330.4693,229.0289,-388.6931,241.7626,-231.3536,-381.8364,259.76,201.6018,
228.0489,-97.9537,120.4243,-83.2606,169.8251,-399.2855,-345.4693,214.0289,-403.6931,226.7626,-246.3536,-391.8147,244.76,186.6018,
213.0489,-112.9537,105.4243,-98.2606,184.8251,-384.2855,-330.4693,199.0289,-418.6931,211.7626,-261.3536,-376.8147,257.6179,201.6018,
228.0489,-115.5853,115.5853,-113.2606,199.8251,-369.2855,-315.4693,214.0289,-433.6931,226.7626,-267.4132,-361.8147,272.6179,216.6018,
243.0489,-130.5853,130.5853,-128.2606,184.8251,-372.2239,-312.4723,229.0289,-418.6931,241.7626,-252.4132,-362.4286,277.2087,201.6018,
228.0489,-115.5853,115.5853,-143.2606,169.8251,-387.2239,-297.4723,214.0289,-403.6931,226.7626,-237.4132,-377.4286,262.2087,186.6018,
243.0489,-130.5853,108.7286,-128.2606,181.2143,-402.2239,-312.4723,229.0289,-418.6931,241.7626,-252.4132,-392.4286,264.4746,201.6018,
246.8433,-145.5853,123.7286,-143.2606,196.2143,-387.2239,-327.4723,233.1294,-433.6931,228.232,-267.4132,-377.4286,279.4746,216.6018,
261.8433,-130.5853,108.7286,-152.8074,211.2143,-372.2239,-312.4723,248.1294,-418.6931,243.232,-252.4132,-362.4286,294.4746,231.6018,
276.8433,-115.5853,93.7286,-137.8074,196.2143,-387.2239,-297.4723,248.8021,-403.6931,258.232,-237.4132,-377.4286,279.4746,216.6018,
261.8433,-130.5853,87.6683,-122.8074,181.2143,-402.2239,-312.4723,233.8021,-418.6931,243.232,-252.4132,-392.4286,264.4746,201.6018,
276.8433,-145.5853,102.6683,-137.8074,168.9698,-417.2239,-327.4723,248.8021,-433.6931,258.232,-267.4132,-407.4286,266.9238,216.6018,
261.8433,-130.5853,105.79,-122.8074,159.6649,-432.2239,-312.4723,233.8021,-418.6931,243.232,-252.4132,-413.3644,251.9238,201.6018,
246.8433,-115.5853,90.79,-107.8074,174.6649,-447.2239,-297.4723,218.8021,-403.6931,228.232,-237.4132,-428.3644,236.9238,216.6018,
261.8433,-111.1773,105.79,-109.2182,189.6649,-432.2239,-282.4723,233.8021,-388.6931,243.232,-222.4132,-413.3644,251.9238,231.6018,
260.5567,-126.1773,90.79,-124.2182,174.6649,-417.2239,-297.4723,248.8021,-373.6931,258.232,-227.2527,-398.3644,253.6998,216.6018,
275.5567,-141.1773,105.79,-139.2182,189.6649,-402.2239,-312.4723,263.8021,-388.6931,273.232,-235.0887,-383.3644,268.6998,231.6018,
260.5567,-126.1773,90.79,-154.2182,174.6649,-417.2239,-306.5946,248.8021,-403.6931,258.232,-239.9866,-398.3644,253.6998,216.6018,
245.5567,-111.1773,75.79,-139.2182,185.6216,-432.2239,-291.5946,233.8021,-388.6931,243.232,-224.9866,-383.3644,238.6998,201.6018,
230.5567,-112.157,76.8935,-124.2182,172.8879,-417.2239,-298.2688,218.8021,-373.6931,228.232,-209.9866,-368.3644,223.6998,208.151,
245.5567,-124.4008,91.8935,-139.2182,187.8879,-402.2239,-313.2688,233.8021,-388.6931,243.232,-224.9866,-353.3644,238.6998,223.151,
260.5567,-132.2373,106.8935,-154.2182,202.8879,-387.2239,-328.2688,248.8021,-403.6931,258.232,-239.9866,-361.4488,253.6998,238.151,
245.5567,-147.2373,97.4641,-139.2182,187.8879,-402.2239,-343.2688,233.8021,-418.6931,243.232,-254.9866,-376.4488,238.6998,223.151,
230.5567,-132.2373,82.4641,-124.2182,172.8879,-417.2239,-328.2688,218.8021,-403.6931,228.232,-239.9866,-391.4488,223.6998,208.151,
215.5567,-117.2373,67.4641,-109.2182,175.8268,-402.2239,-313.2688,203.8021,-388.6931,213.232,-224.9866,-376.4488,208.6998,198.3562,
200.5567,-102.2373,63.6699,-98.933,160.8268,-387.2239,-328.2688,188.8021,-395.7328,198.232,-239.9866,-361.4488,221.375,209.6207,
215.5567,-101.382,78.6699,-97.4639,175.8268,-372.2239,-343.2688,203.8021,-410.7328,213.232,-254.9866,-346.4488,236.375,224.6207,
200.5567,-116.382,93.6699,-112.4639,190.8268,-387.2239,-328.2688,188.8021,-395.7328,198.232,-239.9866,-361.4488,229.2113,214.5181,
185.5567,-101.382,78.6699,-127.4639,181.7039,-402.2239,-313.2688,173.8021,-380.7328,183.232,-224.9866,-376.4488,215.0084,202.2738,
200.5567,-116.382,93.6699,-142.4639,166.7039,-402.5896,-328.2688,188.8021,-395.7328,198.232,-229.2115,-391.4488,230.0084,203.7437,
215.5567,-131.382,108.6699,-127.4639,181.7039,-387.5896,-343.2688,203.8021,-380.7328,213.232,-244.2115,-376.4488,245.0084,218.7437,
230.5567,-116.382,93.6699,-119.5036,196.7039,-372.5896,-340.8784,218.8021,-382.9985,228.232,-243.9047,-361.4488,260.0084,233.7437,
245.5567,-110.198,108.6699,-130.7679,211.7039,-387.5896,-325.8784,233.8021,-367.9985,243.232,-228.9047,-346.4488,275.0084,248.7437,
230.5567,-106.2796,93.6699,-145.7679,196.7039,-402.5896,-310.8784,218.8021,-352.9985,228.232,-213.9047,-361.4488,260.0084,233.7437,
231.1708,-121.2796,108.6699,-130.7679,195.9077,-394.7531,-325.2062,208.6414,-367.9985,213.232,-225.2932,-350.674,245.0084,228.232,
216.1708,-136.2796,93.6699,-115.7679,180.9077,-409.7531,-340.2062,193.6414,-382.9985,198.232,-240.2932,-365.674,230.0084,213.232,
208.6409,-121.2796,78.6699,-100.7679,195.9077,-394.7531,-328.1446,208.6414,-397.9985,213.232,-255.2932,-350.674,244.8842,228.232,
223.6409,-106.2796,86.689,-102.3615,210.9077,-379.7531,-313.1446,223.6414,-382.9985,228.232,-240.2932,-335.674,259.8842,243.232,
208.6409,-106.2796,101.689,-117.3615,195.9077,-394.7531,-298.1446,208.6414,-367.9985,213.232,-225.2932,-350.674,257.1287,240.476,
193.6409,-121.2796,116.689,-118.034,180.9077,-409.7531,-313.1446,193.6414,-382.9985,198.232,-240.2932,-365.674,242.1287,225.476,
178.6409,-135.6658,101.689,-103.034,195.9077,-394.7531,-323.7365,178.6414,-397.9985,183.232,-255.2932,-358.0203,227.1287,210.476,
193.6409,-120.6658,91.5864,-118.034,210.9077,-379.7531,-308.7365,193.6414,-390.3453,198.232,-240.2932,-343.0203,242.1287,225.476,
208.6409,-135.6658,106.5864,-133.034,197.8661,-381.0399,-293.7365,208.6414,-375.3453,213.232,-225.2932,-331.0836,257.1287,240.476,
203.7433,-120.6658,99.9126,-136.1554,198.8458,-396.0399,-304.6361,223.6414,-382.999,228.232,-238.0275,-346.0836,250.7616,239.0073,
218.7433,-135.6658,109.2182,-121.1554,208.1515,-411.0399,-319.6361,238.6414,-397.999,243.232,-253.0275,-361.0836,265.7616,254.0073,
203.7433,-149.8693,96.9742,-106.1554,193.1515,-426.0399,-304.6361,223.6414,-382.999,228.232,-238.0275,-376.0836,250.7616,239.0073,
188.7433,-134.8693,81.9742,-103.8309,208.1515,-441.0399,-289.6361,208.6414,-367.999,213.232,-223.0275,-391.0836,265.7616,254.0073,
203.7433,-123.4218,94.0354,-94.0354,223.1515,-426.0399,-274.6361,223.6414,-352.999,228.232,-208.0275,-376.0836,256.6384,257.6181,
188.7433,-138.4218,94.0356,-94.0356,208.1515,-411.0399,-289.6361,208.6414,-367.999,213.232,-223.0275,-361.0836,241.6384,242.6181,
203.7433,-153.4218,109.0356,-109.0356,223.1515,-426.0399,-304.6361,223.6414,-382.999,228.232,-238.0275,-346.0836,256.6384,257.6181,
205.7028,-138.4218,105.7897,-108.7286,220.396,-441.0399,-289.6361,208.6414,-367.999,213.232,-223.0275,-361.0836,271.6384,242.6181,
190.7028,-123.4218,90.7897,-93.7286,232.1499,-436.8729,-274.6361,193.6414,-352.999,198.232,-208.0275,-346.0836,256.6384,257.6181,
205.7028,-117.0547,88.6481,-88.6481,219.9061,-421.8729,-268.8826,208.6414,-337.999,213.232,-193.0275,-331.0836,241.6384,242.6181,
220.7028,-132.0547,103.6481,-103.6481,234.9061,-406.8729,-283.8826,223.6414,-340.3888,228.232,-204.2334,-316.0836,256.6384,257.6181,
235.7028,-147.0547,118.6481,-118.6481,249.9061,-391.8729,-298.8826,238.6414,-355.3888,243.232,-219.2334,-318.3492,271.6384,272.6181,
250.7028,-132.0547,127.3399,-133.6481,234.9061,-406.8729,-283.8826,253.6414,-340.3888,258.232,-204.2334,-333.3492,286.6384,257.6181,
235.7028,-117.0547,112.3399,-118.6481,219.9061,-421.8729,-268.8826,238.6414,-325.3888,243.232,-189.2334,-348.3492,271.6384,242.6181,
250.7028,-132.0547,97.9537,-103.6481,234.9061,-406.8729,-283.8826,223.6414,-310.513,239.0071,-204.2334,-333.3492,256.6384,239.9863,
265.7028,-147.0547,109.2182,-118.6481,249.9061,-391.8729,-268.8826,238.6414,-296.3097,254.0071,-189.2334,-318.3492,271.6384,254.9863,
280.7028,-159.1747,124.2182,-133.6481,264.9061,-376.8729,-253.8826,253.6414,-311.3097,269.0071,-174.2334,-303.3492,286.6384,269.9863,
265.7028,-144.1747,109.2182,-118.6481,249.9061,-391.8729,-268.8826,238.6414,-326.3097,254.0071,-189.2334,-318.3492,271.6384,254.9863,
250.7028,-129.1747,94.2182,-103.6481,234.9061,-406.8729,-259.5767,223.6414,-340.8784,239.0071,-204.2334,-333.3492,256.6384,239.9863,
235.7028,-114.1747,85.2196,-88.6481,219.9061,-391.8729,-274.5767,208.6414,-355.8784,224.0071,-219.2334,-338.9196,241.6384,224.9863,
250.7028,-99.1747,70.5267,-103.6481,234.9061,-376.8729,-289.5767,223.6414,-370.8784,239.0071,-234.2334,-324.2267,256.6384,239.9863,
265.7028,-84.1747,77.873,-88.6481,249.9061,-361.8729,-304.5767,238.6414,-385.8784,254.0071,-249.2334,-315.9005,271.6384,254.9863,
250.7028,-99.1747,92.873,-103.6481,234.9061,-373.2034,-289.5767,223.6414,-370.8784,239.0071,-234.2334,-330.9005,256.6384,239.9863,
235.7028,-84.1747,77.873,-88.6481,219.9061,-388.2034,-274.5767,208.6414,-369.7752,224.0071,-219.2334,-345.9005,241.6384,224.9863,
220.7028,-99.1747,92.873,-103.6481,208.1513,-393.2841,-289.5767,193.6414,-384.7752,209.0071,-234.2334,-360.9005,226.6384,238.5169,
235.7028,-114.1747,107.873,-118.6481,223.1513,-378.2841,-283.5756,208.6414,-369.7752,224.0071,-219.2334,-345.9005,241.6384,253.5169,
250.7028,-99.1747,92.873,-115.5855,238.1513,-363.2841,-268.5756,223.6414,-354.7752,239.0071,-204.2334,-330.9005,256.6384,268.5169,
265.7028,-95.5048,95.5048,-130.5855,223.1513,-352.1436,-283.5756,238.6414,-361.9389,254.0071,-208.1515,-315.9005,269.8621,255.169,
250.7028,-106.2799,106.2799,-145.5855,208.1513,-367.1436,-268.5756,223.6414,-359.9799,239.0071,-193.1515,-330.9005,254.8621,240.169,
265.7028,-121.2799,121.2799,-160.5855,223.1513,-360.4695,-283.5756,238.6414,-374.9799,254.0071,-208.1515,-345.9005,269.8621,255.169,
280.7028,-136.2799,112.6467,-145.5855,233.1292,-345.4695,-298.5756,253.6414,-389.9799,269.0071,-223.1515,-330.9005,284.8621,270.169,
295.7028,-121.2799,97.6467,-130.5855,248.1292,-330.4695,-313.5756,268.6414,-374.9799,284.0071,-208.1515,-315.9005,299.8621,285.169,
299.7384,-106.2799,82.6467,-115.5855,233.1292,-315.4695,-298.5756,278.1883,-359.9799,276.2287,-193.1515,-330.9005,284.8621,270.169,
284.7384,-91.2799,90.6071,-117.0547,218.1292,-330.4695,-283.5756,263.1883,-344.9799,261.2287,-178.1515,-345.9005,269.8621,259.0873,
299.7384,-106.2799,105.6071,-131.2578,217.4569,-345.4695,-298.5756,278.1883,-359.9799,276.2287,-193.1515,-330.9005,284.8621,274.0873,
284.7384,-120.9724,90.6071,-116.2578,202.4569,-360.4695,-313.5756,263.1883,-374.9799,261.2287,-208.1515,-345.9005,269.8621,259.0873,
269.7384,-105.9724,75.6071,-130.2782,187.4569,-345.4695,-298.5756,248.1883,-389.9799,246.2287,-202.764,-360.9005,254.8621,244.0873,
284.7384,-120.9724,90.6071,-145.2782,172.4569,-330.4695,-289.9426,263.1883,-375.1625,261.2287,-187.764,-345.9005,269.8621,258.5977,
288.4735,-117.0545,93.5457,-160.2782,177.7858,-315.4695,-304.9426,278.1883,-378.5907,276.2287,-202.764,-330.9005,272.801,263.9854,
303.4735,-118.5239,108.5457,-145.2782,192.7858,-330.4695,-319.9426,293.1883,-393.5907,291.2287,-217.764,-315.9005,273.2906,278.9854,
288.4735,-117.0547,93.5457,-130.2782,177.7858,-345.4695,-311.0031,278.1883,-378.5907,276.2287,-229.7014,-330.9005,258.2906,263.9854,
273.4735,-102.0547,78.5457,-115.2782,192.7858,-330.4695,-296.0031,263.1883,-363.5907,261.2287,-214.7014,-326.1855,243.2906,248.9854,
267.9035,-93.5457,93.5457,-111.1773,197.3769,-315.4695,-281.0031,252.2311,-348.5907,248.3129,-199.7014,-311.1855,228.2906,251.2508,
252.9035,-108.5457,102.8512,-102.8512,182.3769,-300.4695,-296.0031,249.7821,-363.5907,245.864,-214.7014,-296.1855,229.2113,266.2508,
267.9035,-123.5457,100.8921,-100.8921,175.3369,-315.4695,-311.0031,264.7821,-378.5907,260.864,-229.7014,-311.1855,244.2113,281.2508,
252.9035,-119.9931,96.4843,-96.4843,160.3369,-330.4695,-296.0031,249.7821,-363.5907,245.864,-214.7014,-326.1855,259.2113,266.2508,
237.9035,-104.9931,81.4843,-81.4843,175.3369,-315.4695,-281.0031,234.7821,-348.5907,230.864,-199.7014,-336.4702,244.2113,278.6786,
222.9035,-119.9931,66.4843,-66.4843,160.3369,-300.4695,-296.0031,219.7821,-333.5907,215.864,-214.7014,-321.4702,229.2113,263.6786,
237.9035,-134.9931,81.4843,-81.4843,171.9091,-285.4695,-282.5963,234.7821,-318.5907,230.864,-199.7014,-306.4702,244.2113,278.6786,
252.9035,-149.9931,96.4843,-96.4843,186.9091,-270.4695,-288.9636,249.7821,-333.5907,245.864,-184.7014,-291.4702,259.2113,293.6786,
267.9035,-135.1759,111.4843,-111.4843,176.3166,-285.4695,-280.1473,264.7821,-348.5907,260.864,-199.7014,-306.4702,274.2113,278.6786,
252.9035,-120.1759,96.4843,-96.4843,161.3166,-300.4695,-270.3518,249.7821,-333.5907,245.864,-184.7014,-321.4702,259.2113,263.6786,
267.9035,-135.1759,106.2796,-106.2796,176.3166,-285.4695,-285.3518,254.1899,-318.5907,251.2511,-196.3974,-306.4702,244.2113,267.9028,
282.9035,-150.1759,121.2796,-121.2796,191.3166,-270.4695,-270.3518,269.1899,-303.6563,266.2511,-181.3974,-291.4702,259.2113,275.2497,
297.9035,-156.726,129.2987,-136.2796,206.3166,-255.4695,-255.3518,284.1899,-318.6563,281.2511,-166.3974,-276.4702,274.2113,290.2497,
312.9035,-141.726,115.5853,-151.2796,196.887,-270.4695,-270.3518,299.1899,-333.6563,296.2511,-181.3974,-291.4702,289.2113,296.7996,
297.9035,-126.726,100.5853,-136.2796,181.887,-285.4695,-284.5551,284.1899,-323.7363,281.2511,-196.3974,-306.4702,274.2113,281.7996,
282.9035,-120.4829,115.5853,-121.2796,177.2962,-300.4695,-290.9222,269.1899,-338.7363,266.2511,-211.3974,-306.5946,259.2113,266.7996,
267.9035,-120.9726,100.5853,-106.2796,192.2962,-285.4695,-305.9222,254.1899,-353.7363,251.2511,-226.3974,-291.5946,263.9854,281.7996,
282.9035,-105.9726,85.5853,-91.2796,207.2962,-270.4695,-314.4311,269.1899,-360.4693,266.2511,-211.3974,-276.5946,278.9854,296.7996,
267.9035,-120.9726,86.689,-86.689,192.2962,-285.4695,-299.4311,254.1899,-345.4693,251.2511,-205.2129,-291.5946,263.9854,281.7996,
252.9035,-105.9726,101.689,-71.689,184.6428,-300.4695,-284.4311,239.1899,-360.4693,236.2511,-190.2129,-306.5946,248.9854,266.7996,
237.9035,-120.9726,116.689,-86.689,173.8677,-315.4695,-299.4311,224.1899,-375.4693,221.2511,-205.2129,-321.5946,233.9854,251.7996,
222.9035,-130.278,103.8309,-101.689,188.8677,-300.4695,-314.4311,209.1899,-379.0806,206.2511,-220.2129,-306.5946,248.9854,266.7996,
237.9035,-115.278,88.8309,-106.7695,203.8677,-285.4695,-299.4311,224.1899,-364.0806,221.2511,-205.2129,-291.5946,263.9854,281.7996,
252.9035,-100.278,89.1377,-100.8921,208.6414,-300.4695,-284.4311,239.1899,-349.0806,236.2511,-190.2129,-306.5946,248.9854,272.3111,
237.9035,-100.4024,100.4024,-115.8921,193.6414,-315.4695,-269.4311,224.1899,-356.0615,221.2511,-175.2129,-321.5946,233.9854,257.3111,
252.9035,-115.4024,115.4024,-130.8921,202.2741,-330.4695,-284.4311,239.1899,-371.0615,236.2511,-190.2129,-336.5946,248.9854,272.3111,
237.9035,-116.0747,109.2182,-115.8921,187.2741,-333.5319,-299.4311,224.1899,-356.0615,221.2511,-179.7449,-351.5946,233.9854,257.3111,
222.9035,-101.0747,94.2182,-100.8921,186.1119,-318.5319,-284.4311,209.1899,-341.0615,206.2511,-164.7449,-366.5946,218.9854,251.7407,
237.9035,-92.5664,79.2182,-85.8921,174.847,-303.5319,-269.4311,224.1899,-326.0615,221.2511,-173.8677,-351.5946,215.9877,242.4348,
248.8021,-107.5664,94.2182,-100.8921,184.1527,-288.5319,-284.4311,239.1899,-341.0615,236.2511,-181.2143,-336.5946,230.9877,257.4348,
263.8021,-122.5664,109.2182,-115.8921,199.1527,-303.5319,-299.4311,254.1899,-356.0615,251.2511,-196.2143,-321.5946,245.9877,272.4348,
248.8021,-107.5664,94.2182,-100.8921,184.1527,-318.5319,-314.4311,239.1899,-371.0615,236.2511,-211.2143,-336.5946,230.9877,257.4348,
233.8021,-92.5664,79.2182,-92.0766,169.1527,-333.5319,-308.5539,224.1899,-386.0615,221.2511,-226.2143,-351.5946,215.9877,242.4348,
248.8021,-107.5664,94.2182,-107.0766,154.1527,-318.5319,-323.5539,239.1899,-376.6319,236.2511,-223.8242,-336.5946,230.9877,236.5579,
235.5783,-122.5664,79.2182,-122.0766,139.1527,-303.5319,-338.5539,254.1899,-375.6519,251.2511,-238.8242,-321.5946,221.8654,243.4146,
250.5783,-137.5664,94.2182,-136.6453,154.1527,-288.5319,-353.5539,269.1899,-390.6519,266.2511,-253.8242,-308.0643,236.8654,258.4146,
265.5783,-152.5664,109.2182,-135.6658,167.9905,-303.5319,-338.5539,284.1899,-393.2839,281.2511,-246.3534,-323.0643,251.8654,255.169,
250.5783,-137.5664,94.2182,-120.6658,182.9905,-318.5319,-323.5539,269.1899,-378.2839,266.2511,-231.3534,-338.0643,251.2511,269.8624,
236.5576,-122.5664,93.5457,-105.6658,196.3967,-303.5319,-308.5539,254.1899,-363.2839,251.2511,-216.3534,-323.0643,236.2511,254.8624,
247.8226,-137.5664,107.749,-107.749,181.3967,-288.5319,-323.5539,269.1899,-373.2034,266.2511,-201.3534,-308.0643,232.1501,269.8624,
262.8226,-141.543,107.2592,-107.2592,196.3967,-277.6984,-338.5539,284.1899,-388.2034,281.2511,-216.3534,-293.0643,247.1501,284.8624,
247.8226,-126.543,92.2592,-92.2592,181.3967,-292.6984,-323.5539,269.1899,-373.2034,266.2511,-231.3534,-308.0643,232.1501,269.8624,
232.8226,-111.543,107.2592,-77.2592,196.3967,-307.6984,-308.5539,254.1899,-358.2034,251.2511,-216.3534,-321.778,217.1501,254.8624,
217.8226,-126.543,92.2592,-64.1594,181.3967,-319.8184,-306.105,239.1899,-354.1022,236.2511,-225.783,-333.5319,202.1501,239.8624,
232.8226,-119.9933,99.4229,-79.1594,196.3967,-304.8184,-321.105,254.1899,-339.1022,251.2511,-240.783,-318.5319,217.1501,254.8624,
247.8226,-104.9933,102.3617,-94.1594,211.3967,-290.4325,-336.105,269.1899,-354.1022,266.2511,-255.783,-303.5319,232.1501,269.8624,
257.6184,-119.9933,103.8309,-103.8309,196.3967,-305.4325,-321.105,254.1899,-339.1022,263.4951,-240.783,-318.5319,238.0268,254.8624,
242.6184,-104.9933,88.8309,-118.8309,181.3967,-320.4325,-306.105,239.1899,-324.1022,248.4951,-225.783,-333.5319,223.0268,239.8624,
257.6184,-119.9933,103.8309,-133.8309,195.4176,-335.4325,-321.105,254.1899,-339.1022,263.4951,-214.0289,-326.6751,238.0268,224.8624,
272.6184,-134.9933,118.8309,-148.8309,210.4176,-320.4325,-306.105,269.1899,-324.1022,278.4951,-199.0289,-311.6751,253.0268,239.8624,
287.6184,-144.4818,103.8309,-154.2771,225.4176,-305.4325,-291.105,284.1899,-309.1022,293.4951,-184.0289,-296.6751,268.0268,254.8624,
302.6184,-129.4818,114.6058,-169.2771,210.6007,-320.4325,-306.105,299.1899,-324.1022,308.4951,-199.0289,-311.6751,269.3725,249.7819,
287.6184,-114.4818,99.6058,-184.2771,195.6007,-335.4325,-308.0641,284.1899,-314.921,293.4951,-214.0289,-326.6751,254.3725,234.7819,
272.6184,-129.4818,113.1366,-169.2771,180.6007,-350.4325,-323.0641,269.1899,-329.921,278.4951,-229.0289,-341.6751,239.3725,236.5583,
257.6184,-140.5634,98.1366,-154.2771,177.7861,-335.4325,-338.0641,254.1899,-344.921,263.4951,-244.0289,-356.6751,224.3725,222.8449,
272.6184,-125.5634,83.1366,-139.2771,192.7861,-320.4325,-323.0641,269.1899,-359.921,278.4951,-229.0289,-341.6751,239.3725,237.8449,
287.6184,-110.5634,98.1366,-154.2771,207.7861,-318.8394,-308.0641,284.1899,-344.921,293.4951,-214.0289,-326.6751,254.3725,252.8449,
272.6184,-99.9128,99.9128,-169.2771,192.7861,-333.8394,-293.0641,269.1899,-359.921,278.4951,-208.6414,-341.6751,254.6791,239.9859,
287.6184,-114.9128,114.9128,-184.2771,177.7861,-348.8394,-308.0641,284.1899,-374.921,293.4951,-223.6414,-356.6751,269.6791,234.1092,
272.6184,-99.9128,99.9128,-169.2771,189.0505,-342.8375,-293.0641,269.1899,-376.142,278.4951,-216.4774,-341.6751,254.6791,219.1092,
257.6184,-84.9128,84.9128,-154.2771,204.0505,-327.8375,-278.0641,258.5979,-361.142,266.4341,-201.4774,-326.6751,269.6791,234.1092,
272.6184,-80.8116,80.8116,-139.2771,207.1717,-312.8375,-263.0641,253.2099,-365.8571,252.2306,-186.4774,-323.737,254.6791,219.1092,
257.6184,-77.3834,77.3834,-141.0531,192.1717,-327.8375,-267.4132,238.2099,-380.8571,237.2306,-201.4774,-338.737,239.6791,204.1092,
272.6184,-92.3834,92.3834,-151.3387,191.4992,-342.8375,-282.4132,253.2099,-395.8571,252.2306,-216.4774,-353.737,240.4762,219.1092,
257.6184,-107.3834,107.3834,-136.3387,176.4992,-357.8375,-297.4132,238.2099,-410.8571,237.2306,-231.4774,-368.737,225.4762,204.1092,
242.6184,-92.3834,92.3834,-121.3387,191.4992,-342.8375,-282.4132,223.2099,-395.8571,222.2306,-216.4774,-353.737,226.7626,219.1092,
257.6184,-77.3834,77.3834,-116.0752,195.4174,-327.8375,-267.4132,238.2099,-380.8571,237.2306,-201.4774,-338.737,211.7626,214.0291,
242.6184,-92.3834,92.3834,-131.0752,206.6821,-312.8375,-282.4132,237.0478,-365.8571,231.1701,-216.4774,-323.737,226.7626,229.0291,
257.6184,-107.3834,107.3834,-124.8909,208.1513,-312.9622,-297.4132,247.3325,-380.8571,240.4765,-231.4774,-338.737,241.7626,244.0291,
242.6184,-92.3834,92.3834,-109.8909,193.1513,-327.9622,-294.8405,232.3325,-365.8571,225.4765,-226.2729,-353.737,226.7626,229.0291,
227.6184,-77.3834,77.3834,-124.8909,178.1513,-342.9622,-284.0657,217.3325,-380.8571,210.4765,-219.4162,-368.737,211.7626,214.0291,
229.7014,-92.3834,92.3834,-139.8909,176.8063,-357.0408,-299.0657,202.3325,-395.8571,195.4765,-234.4162,-353.737,215.0082,199.0291,
244.7014,-107.3834,103.8307,-154.8909,191.8063,-342.0408,-284.0657,217.3325,-380.8571,210.4765,-219.4162,-338.737,230.0082,214.0291,
259.7014,-111.6672,111.6672,-169.8909,206.8063,-327.0408,-287.9836,232.3325,-395.8571,225.4765,-207.6616,-323.737,245.0082,229.0291,
274.7014,-124.4011,124.4011,-184.8909,209.6204,-342.0408,-273.2906,246.8426,-410.8571,240.4765,-222.6616,-338.737,230.0082,214.0291,
259.7014,-109.4011,109.4011,-169.8909,224.6204,-357.0408,-258.2906,231.8426,-395.8571,225.4765,-207.6616,-353.737,215.0082,199.0291,
244.7014,-124.4011,101.382,-154.8909,239.6204,-342.0408,-243.2906,216.8426,-380.8571,210.4765,-207.1722,-338.737,204.2334,184.0291,
259.7014,-139.4011,116.382,-146.4408,254.6204,-327.0408,-253.2099,231.8426,-365.8571,225.4765,-192.1722,-323.737,219.2334,199.0291,
274.7014,-124.4011,117.5443,-131.4408,269.6204,-342.0408,-246.8433,246.8426,-350.8571,240.4765,-195.9072,-308.737,234.2334,214.0291,
259.7014,-109.4011,102.5443,-126.3604,254.6204,-357.0408,-249.7817,231.8426,-349.6947,225.4765,-208.6414,-323.737,237.048,199.0291,
244.7014,-94.4011,117.5443,-111.3604,269.6204,-372.0408,-234.7817,216.8426,-334.6947,210.4765,-193.6414,-338.737,222.048,184.0291,
229.7014,-109.4011,108.2392,-96.3604,256.1494,-387.0408,-247.3329,201.8426,-349.6947,195.4765,-208.6414,-353.737,207.048,186.6016,
223.3341,-118.5241,94.0356,-94.0356,269.3723,-372.0408,-262.3329,198.8461,-335.0015,203.7435,-223.6414,-338.737,222.048,201.6016,
238.3341,-110.1978,109.0356,-109.0356,278.6779,-357.0408,-277.3329,213.8461,-350.0015,218.7435,-238.6414,-323.737,237.048,216.6016,
253.3341,-125.1978,124.0356,-124.0356,263.6779,-372.0408,-262.3329,198.8461,-365.0015,211.5802,-223.6414,-338.737,252.048,201.6016,
238.3341,-110.1978,109.0356,-135.6658,248.6779,-387.0408,-247.3329,183.8461,-350.0015,196.5802,-208.6414,-353.737,237.048,204.2334,
250.2718,-125.1978,124.0356,-142.5225,250.2718,-402.0408,-257.1282,198.356,-365.0015,204.2336,-197.3767,-338.737,243.4148,191.499,
235.2718,-114.6058,113.6265,-127.5225,238.0271,-387.0408,-272.1282,183.356,-380.0015,189.2336,-212.3767,-323.737,251.7409,176.499,
250.2718,-99.6058,98.6265,-112.5225,253.0271,-372.0408,-257.1282,198.356,-395.0015,204.2336,-217.4571,-308.737,266.7409,191.499,
265.2718,-114.6058,109.2185,-109.2185,267.9028,-387.0408,-250.2718,213.356,-380.0015,219.2336,-202.4571,-323.737,273.7805,206.499,
250.2718,-114.6055,115.5858,-124.2185,252.9028,-402.0408,-246.8428,198.356,-365.0015,204.2336,-187.4571,-338.737,258.7805,208.6414,
265.2718,-121.9524,121.9524,-131.7477,242.4353,-417.0408,-261.8428,208.1515,-380.0015,219.2336,-202.4571,-353.737,247.3327,218.9266,
250.2718,-128.3194,106.9524,-116.7477,238.0278,-402.0408,-276.8428,193.1515,-395.0015,204.2336,-217.4571,-357.5309,232.3327,203.9266,
235.2718,-113.3194,91.9524,-101.7477,253.0278,-387.0408,-261.8428,208.1515,-380.0015,219.2336,-202.4571,-342.5309,247.3327,218.9266,
250.2718,-98.3194,77.873,-104.3206,257.1282,-373.6931,-246.8428,223.1515,-365.0015,234.2336,-187.4571,-327.5309,262.3327,221.8652,
235.2718,-88.158,88.158,-119.3206,242.1282,-388.6931,-261.8428,208.1515,-380.0015,219.2336,-202.4571,-342.5309,247.3327,206.8652,
227.7426,-103.158,103.158,-134.3206,227.1282,-403.6931,-276.8428,193.1515,-395.0015,207.1717,-217.4571,-357.5309,259.0875,193.4588,
212.7426,-118.158,118.158,-120.9726,242.1282,-418.6931,-261.8428,178.1515,-380.0015,192.1717,-202.4571,-359.0001,247.3327,205.2127,
197.7426,-103.158,103.158,-105.9726,257.1282,-433.6931,-246.8428,178.7651,-365.0015,207.1717,-187.4571,-361.9389,262.3327,220.2127,
212.7426,-110.6874,104.8102,-120.9726,272.1282,-418.6931,-231.8428,193.7651,-350.0015,222.1717,-172.4571,-346.9389,277.3327,235.2127,
227.7426,-125.6874,89.8102,-135.9726,257.1282,-403.6931,-246.8428,208.7651,-335.0015,237.1717,-157.4571,-331.9389,279.168,220.2127,
242.7426,-140.6874,104.8102,-150.9726,272.1282,-388.6931,-261.8428,223.7651,-350.0015,252.1717,-172.4571,-316.9389,294.168,235.2127,
240.4755,-155.6874,119.8102,-135.9726,257.1282,-403.6931,-276.8428,208.7651,-365.0015,237.1717,-187.4571,-331.9389,279.168,220.2127,
225.4755,-140.6874,104.8102,-120.9726,272.1282,-418.6931,-261.8428,193.7651,-350.0015,222.1717,-172.4571,-346.9389,275.2494,235.2127,
240.4755,-125.6874,89.8102,-109.7081,261.536,-403.6931,-246.8428,208.7651,-335.0015,237.1717,-157.4571,-331.9389,286.025,231.1703,
252.2306,-140.6874,104.8102,-124.7081,259.0875,-388.6931,-261.8428,223.7651,-350.0015,252.1717,-172.4571,-316.9389,301.025,246.1703,
267.2306,-155.6874,119.8102,-139.7081,274.0875,-403.6931,-276.8428,238.7651,-365.0015,267.1717,-187.4571,-314.921,316.025,261.1703,
252.2306,-140.6874,119.5034,-124.7081,259.0875,-418.6931,-261.8428,223.7651,-350.0015,252.1717,-172.4571,-329.921,301.025,246.1703,
237.2306,-125.6874,104.5034,-109.7081,244.0875,-433.6931,-246.8428,208.7651,-335.0015,237.1717,-157.4571,-344.921,286.025,231.1703,
245.8633,-110.6874,90.1173,-94.7081,229.0875,-418.6931,-261.8428,194.9277,-320.0015,236.0685,-172.4571,-329.921,271.025,216.1703,
260.8633,-125.6874,96.974,-109.7081,244.0875,-403.6931,-246.8428,209.9277,-305.0015,251.0685,-157.4571,-314.921,286.025,231.1703,
275.8633,-133.2168,111.974,-124.7081,259.0875,-388.6931,-261.8428,224.9277,-320.0015,266.0685,-168.4804,-299.921,301.025,246.1703,
290.8633,-148.2168,126.974,-139.7081,244.0875,-403.6931,-276.8428,239.9277,-335.0015,281.0685,-183.4804,-314.921,293.3713,246.3534,
275.8633,-133.2168,111.974,-143.0126,229.0875,-418.6931,-261.8428,224.9277,-333.0424,266.0685,-168.4804,-329.921,278.3713,231.3534,
260.8633,-118.2168,96.974,-128.0126,214.0875,-412.8747,-257.1282,209.9277,-340.389,251.0685,-183.4804,-314.921,263.3713,216.3534,
275.8633,-119.5036,108.7286,-113.0126,229.0875,-397.8747,-272.1282,224.9277,-325.389,266.0685,-168.4804,-299.921,278.3713,231.3534,
290.8633,-104.5036,94.0356,-128.0126,244.0875,-382.8747,-283.0862,239.9277,-322.2674,281.0685,-153.4804,-284.921,293.3713,246.3534,
277.6984,-117.0545,109.0356,-126.8502,234.599,-397.8747,-268.0862,229.7016,-337.2674,266.0685,-143.502,-299.921,278.3713,231.3534,
262.6984,-102.0545,114.1154,-117.0547,219.599,-412.8747,-253.0862,214.7016,-322.2674,251.0685,-128.502,-314.921,263.3713,216.3534,
247.6984,-117.0545,128.3192,-128.3192,224.3141,-427.8747,-252.7202,199.7016,-337.2674,236.0685,-143.502,-329.921,248.3713,201.3534,
252.2306,-132.0545,118.0342,-118.0342,239.3141,-412.8747,-267.7202,214.7016,-352.2674,251.0685,-158.502,-314.921,263.3713,213.0494,
267.2306,-117.5443,117.5443,-133.0342,254.3141,-397.8747,-282.7202,229.7016,-367.2674,266.0685,-173.502,-299.921,278.3713,228.0494,
282.2306,-132.5443,132.5443,-148.0342,239.3141,-412.8747,-267.7202,244.7016,-382.2674,281.0685,-188.502,-314.921,281.617,213.0494,
267.2306,-117.5443,117.5443,-154.7667,224.3141,-427.8747,-252.7202,229.7016,-367.2674,266.0685,-173.502,-329.921,266.617,216.4774,
252.2306,-132.5443,132.5443,-142.5225,237.5376,-442.8747,-267.7202,214.7016,-382.2674,251.0685,-188.502,-344.921,251.617,201.4774,
237.2306,-133.707,121.9526,-127.5225,222.5376,-457.8747,-282.7202,199.7016,-397.2674,236.0685,-203.502,-359.921,236.617,186.4774,
252.2306,-118.707,106.9526,-112.5225,237.5376,-442.8747,-267.7202,214.7016,-382.2674,251.0685,-211.5797,-353.6128,251.617,201.4774,
267.2306,-133.707,94.5253,-97.5225,238.5169,-427.8747,-271.8214,229.7016,-367.2674,266.0685,-226.5797,-338.6128,248.3122,216.4774,
252.2306,-148.707,109.5253,-112.5225,237.5372,-442.8747,-268.8826,214.7016,-352.2674,251.0685,-211.5797,-323.6128,233.3122,201.4774,
267.2306,-163.5827,124.5253,-127.5225,251.7409,-457.8747,-283.8826,229.7016,-367.2674,266.0685,-226.5797,-338.6128,248.3122,216.4774,
266.924,-178.5827,124.8909,-124.8909,236.7409,-442.8747,-298.8826,236.5583,-382.2674,265.9438,-241.5797,-353.6128,263.3122,226.7626,
251.924,-163.5827,109.8909,-109.8909,251.7409,-427.8747,-283.8826,221.5583,-367.2674,250.9438,-226.5797,-355.5719,260.5567,241.7626,
236.924,-148.5827,94.8909,-94.8909,246.3536,-412.8747,-268.8826,206.5583,-352.2674,235.9438,-211.5797,-340.5719,245.5567,226.7626,
221.924,-133.5827,109.8909,-109.8909,231.3536,-397.8747,-283.8826,221.5583,-340.3888,246.3529,-196.5797,-325.5719,260.5567,241.7626,
236.924,-148.5827,124.8909,-124.8909,216.3536,-412.8747,-298.8826,236.5583,-355.3888,261.3529,-211.5797,-340.5719,275.5567,252.2306,
221.924,-141.0533,138.115,-116.5648,201.7842,-427.8747,-283.8826,221.5583,-340.3888,246.3529,-196.5797,-355.5719,260.5567,237.2306,
206.924,-126.0533,123.115,-101.5648,216.7842,-442.8747,-268.8826,206.5583,-338.43,231.3529,-181.5797,-370.5719,245.5567,222.2306,
221.924,-129.2989,129.2989,-116.5648,231.7842,-427.8747,-253.8826,221.5583,-323.43,246.3529,-166.5797,-355.5719,260.5567,207.2306,
236.924,-144.2989,114.2989,-131.5648,216.7842,-412.8747,-258.5979,236.5583,-308.43,261.3529,-151.5797,-340.5719,275.5567,195.907,
251.924,-159.2989,129.2989,-133.7067,231.7842,-397.8747,-273.5979,251.5583,-323.43,276.3529,-166.5797,-325.5719,290.5567,210.907,
236.924,-152.8079,114.2989,-118.7067,216.7842,-412.8747,-288.5979,236.5583,-338.43,261.3529,-181.5797,-340.5719,275.5567,195.907,
221.924,-137.8079,99.2989,-103.7067,231.7842,-427.8747,-273.5979,221.5583,-323.43,246.3529,-166.5797,-331.573,260.5567,210.907,
216.9673,-122.8079,84.2989,-88.7067,229.7019,-412.8747,-258.5979,206.5583,-308.43,231.3529,-151.5797,-316.573,245.5567,210.1103,
201.9673,-134.6867,76.8937,-76.8937,214.7019,-397.8747,-273.5979,191.5583,-323.43,216.3529,-166.5797,-331.573,230.5567,195.1103,
216.9673,-149.6867,91.8937,-91.8937,229.7019,-408.9564,-288.5979,206.5583,-338.43,231.3529,-181.5797,-346.573,245.5567,210.1103,
201.9673,-162.1131,98.4434,-106.8937,214.7019,-423.9564,-273.5979,191.5583,-323.43,216.3529,-166.5797,-341.3683,238.5169,225.1103,
186.9673,-147.1131,93.5457,-91.8937,229.7019,-438.9564,-258.5979,176.5583,-308.43,201.3529,-151.5797,-356.3683,223.5169,210.1103,
171.9673,-132.1131,100.8926,-76.8937,216.4776,-437.8529,-273.5979,161.5583,-323.43,186.3529,-166.5797,-371.3683,208.5169,195.1103,
186.9673,-147.1131,96.974,-91.8937,231.4776,-422.8529,-288.5979,176.5583,-335.0015,201.3529,-181.5797,-356.3683,223.5169,210.1103,
201.9673,-132.1131,111.974,-106.8937,246.4776,-407.8529,-273.5979,191.5583,-348.7152,216.3529,-166.5797,-341.3683,238.5169,225.1103,
216.9673,-129.2989,126.974,-121.8937,231.4776,-422.8529,-258.5979,206.5583,-363.7152,225.2934,-181.5797,-356.3683,223.5169,210.1103,
201.9673,-114.2989,111.974,-106.8937,218.9266,-437.8529,-243.5979,191.5583,-348.7152,210.2934,-166.5797,-371.3683,208.5169,195.1103,
202.2745,-129.2989,106.2796,-106.2796,222.8444,-452.8529,-258.5979,176.5583,-363.7152,195.2934,-181.5797,-358.9999,193.5169,180.1103,
217.2745,-138.1145,121.2796,-121.2796,237.8444,-437.8529,-273.5979,191.5583,-378.7152,210.2934,-196.5797,-373.2032,208.5169,195.1103,
232.2745,-123.1145,106.2796,-136.2796,252.8444,-422.8529,-258.5979,206.5583,-393.7152,225.2934,-181.5797,-358.2032,223.5169,210.1103,
247.2745,-108.1145,91.2796,-135.1759,257.6184,-437.8529,-243.5979,221.5583,-378.7152,237.0475,-166.5797,-373.2032,232.1501,195.1103,
232.2745,-93.1145,106.2796,-130.2785,242.6184,-452.8529,-228.5979,206.5583,-393.7152,222.0475,-158.6846,-388.2032,217.1501,180.1103,
229.212,-108.1145,121.2796,-131.2575,231.1706,-467.8529,-243.5979,191.5583,-408.7152,207.0475,-173.6846,-403.2032,215.4981,195.1103,
214.212,-99.4229,106.2796,-129.7886,246.1706,-452.8529,-258.5979,184.6428,-393.7152,197.3764,-188.6846,-388.2032,230.4981,190.5195,
229.212,-94.0356,94.0356,-144.7886,261.1706,-437.8529,-273.5979,199.6428,-408.7152,212.3764,-173.6846,-373.2032,245.4981,194.9279,
244.212,-109.0356,109.0356,-159.7886,246.1706,-452.8529,-273.7805,214.6428,-423.7152,227.3764,-168.97,-388.2032,255.1692,179.9279,
229.212,-94.0356,94.0356,-144.7886,243.9047,-467.8529,-258.7805,199.6428,-408.7152,212.3764,-153.97,-403.2032,240.1692,194.9279,
244.212,-109.0356,109.0356,-151.8281,258.9047,-482.8529,-271.3313,214.6428,-423.7152,227.3764,-168.97,-418.2032,255.1692,209.9279,
251.7405,-124.0356,124.0356,-152.8077,273.9047,-467.8529,-286.3313,229.6428,-434.9143,242.3764,-183.97,-403.2032,270.1692,216.4774,
240.9661,-109.0356,109.0356,-137.8077,288.9047,-452.8529,-271.3313,244.6428,-419.9143,250.7619,-168.97,-388.2032,285.1692,231.4774,
255.9661,-106.2794,95.5048,-122.8077,273.9047,-437.8529,-256.3313,252.2306,-404.9143,262.0264,-178.7651,-373.2032,270.1692,216.4774,
240.9661,-121.2794,110.5048,-137.8077,286.0243,-422.8529,-241.3313,247.8224,-389.9143,258.5974,-168.4806,-358.2032,271.3311,214.5179,
255.9661,-136.2794,125.5048,-152.8077,299.7379,-407.8529,-256.3313,262.8224,-404.9143,273.5974,-183.4806,-343.8175,286.3311,229.5179,
240.9661,-121.2794,110.5048,-137.8077,284.7379,-422.8529,-271.3313,247.8224,-412.3849,258.5974,-198.4806,-358.8175,271.3311,214.5179,
225.9661,-106.2794,95.5048,-122.8077,269.7379,-437.8529,-256.3313,232.8224,-397.3849,243.5974,-183.4806,-373.8175,256.3311,199.5179,
210.9661,-91.2794,80.5048,-107.8077,254.7379,-422.8529,-241.3313,217.8224,-382.3849,228.5974,-168.4806,-358.8175,241.3311,191.4995,
211.5802,-106.2794,95.5048,-122.8077,239.7379,-407.8529,-256.3313,232.8224,-397.3849,238.0278,-183.4806,-343.8175,256.3311,206.4995,
226.5802,-121.2794,110.5048,-137.8077,232.6398,-422.6701,-271.3313,247.8224,-412.3849,253.0278,-198.4806,-354.1025,271.3311,221.4995,
211.5802,-136.2794,125.5048,-125.8705,217.6398,-437.6701,-256.3313,232.8224,-397.3849,238.0278,-183.4806,-369.1025,256.3311,206.4995,
196.5802,-121.2794,110.5048,-110.8705,232.6398,-452.6701,-241.3313,217.8224,-382.3849,223.0278,-168.4806,-384.1025,241.3311,191.4995,
211.5802,-136.1557,125.5048,-125.8705,247.6398,-437.6701,-250.7614,232.8224,-367.3849,238.0278,-160.6442,-369.1025,256.3311,206.4995,
226.5802,-151.1557,122.4422,-140.8705,244.8842,-422.6701,-265.7614,247.8224,-352.3849,253.0278,-145.6442,-354.1025,271.3311,221.4995,
241.5802,-149.379,128.8091,-128.8091,259.8842,-407.6701,-255.1692,262.8224,-355.0818,268.0278,-149.379,-339.1025,286.3311,236.4995,
256.5802,-151.3383,143.8091,-143.8091,248.3129,-422.6701,-270.1692,275.7398,-370.0818,283.0278,-164.379,-354.1025,271.3311,221.4995,
241.5802,-136.3383,128.8093,-128.8091,263.3129,-420.7108,-255.1692,260.7398,-355.0818,268.0278,-149.379,-369.1025,256.3311,228.7219,
226.5802,-135.6653,113.8093,-113.8091,248.3129,-405.7108,-240.4758,245.7398,-340.0818,253.0278,-134.686,-354.1025,241.3311,213.7219,
211.5802,-120.6653,98.8093,-98.8091,241.9454,-390.7108,-255.4758,230.7398,-355.0818,238.0278,-149.686,-339.1025,246.8428,228.7219,
226.5802,-111.1775,111.1775,-113.8091,256.9454,-375.7108,-270.4758,245.7398,-370.0818,253.0278,-164.686,-324.1025,261.8428,243.7219,
211.5802,-126.1775,101.382,-128.8091,241.9454,-390.7108,-255.4758,230.7398,-355.0818,238.0278,-149.686,-339.1025,246.8428,228.7219,
196.5802,-111.1775,95.9949,-113.8091,253.7,-405.7108,-240.4758,215.7398,-340.0818,223.0278,-134.686,-347.7354,231.8428,229.212,
181.5802,-126.1775,110.9949,-112.6467,238.7,-420.7108,-255.4758,200.7398,-355.0818,208.0278,-149.686,-362.4286,216.8428,220.3955,
196.5802,-141.1775,113.6262,-127.6467,253.7,-405.7108,-270.4758,215.7398,-340.0818,223.0278,-134.686,-347.4286,231.8428,235.3955,
211.5802,-156.1775,98.6262,-142.6467,268.7,-390.7108,-255.4758,230.7398,-325.0818,238.0278,-119.686,-332.4286,246.8428,250.3955,
226.5802,-141.1775,113.6262,-142.523,269.8619,-405.7108,-269.8624,245.7398,-340.0818,253.0278,-134.686,-347.4286,261.8428,236.5579,
211.5802,-126.1775,98.6262,-144.9714,254.8619,-420.7108,-254.8624,230.7398,-325.0818,238.0278,-149.686,-346.7561,246.8428,221.5579,
226.5802,-141.1775,113.6262,-129.9714,239.8619,-435.7108,-269.8624,229.7012,-334.5116,253.0278,-164.686,-332.5526,231.8428,234.5986,
211.5802,-156.1775,116.0749,-116.0749,228.7216,-420.7108,-284.8624,214.7012,-349.5116,238.0278,-179.686,-347.5526,246.8428,221.8647,
226.5802,-141.1775,101.0749,-131.0749,243.7216,-405.7108,-269.8624,229.7012,-364.5116,253.0278,-165.0517,-332.5526,261.8428,236.8647,
241.5802,-126.1775,90.6071,-128.8091,232.6398,-417.7722,-254.8624,244.7012,-349.5116,268.0278,-150.0517,-317.8596,253.2101,221.8647,
226.5802,-111.1775,105.6071,-113.8091,217.6398,-432.7722,-239.8624,229.7012,-364.5116,253.0278,-164.5623,-332.8596,238.2101,206.8647,
211.5802,-126.1775,112.6467,-112.6467,218.4369,-447.7722,-254.8624,214.7012,-379.5116,238.0278,-179.5623,-347.8596,223.2101,221.8647,
196.5802,-111.1775,97.6467,-97.6467,230.191,-432.7722,-263.4951,199.7012,-393.7733,223.0278,-183.1731,-362.8596,236.0687,231.1713,
190.5197,-96.1775,82.6467,-112.6467,234.5993,-417.7722,-248.4951,201.2948,-391.3246,208.1517,-168.1731,-354.1025,251.0687,246.1713,
205.5197,-111.1775,97.6467,-127.6467,219.5993,-432.7722,-263.4951,216.2948,-406.3246,223.1517,-160.154,-339.1025,266.0687,231.1713,
190.5197,-121.9521,112.6467,-115.0956,234.5993,-417.7722,-248.4951,231.2948,-421.3246,238.1517,-164.0722,-324.1025,281.0687,246.1713,
205.5197,-136.9521,127.6467,-128.8091,245.3739,-402.7722,-263.4951,246.2948,-436.3246,253.1517,-179.0722,-339.1025,294.3509,261.1713,
190.5197,-121.9521,112.6467,-113.8091,230.3739,-417.7722,-278.4951,231.2948,-421.3246,238.1517,-173.3778,-354.1025,279.3509,246.1713,
175.5197,-106.9521,97.6467,-98.8091,226.7626,-432.7722,-263.4951,216.2948,-406.3246,223.1517,-158.3778,-360.9589,264.3509,231.1713,
190.5197,-96.4843,96.4843,-100.4024,241.4553,-417.7722,-248.4951,231.2948,-391.3246,238.1517,-154.2773,-345.9589,262.0257,230.6807,
205.5197,-111.4843,111.4843,-115.4024,230.1913,-402.7722,-263.4951,246.2948,-394.7533,253.1517,-169.2773,-330.9589,277.0257,245.6807,
220.5197,-126.4843,126.4843,-130.4024,245.1913,-387.7722,-278.4951,261.2948,-409.7533,268.1517,-184.2773,-345.9589,292.0257,260.6807,
205.5197,-111.4843,111.4843,-115.4024,230.1913,-402.7722,-293.3709,246.2948,-394.7533,253.1517,-199.2773,-360.9589,277.0257,245.6807,
190.5197,-96.4843,96.4843,-100.4024,241.9452,-417.7722,-278.3709,231.2948,-379.7533,238.1517,-184.2773,-347.7354,262.0257,230.6807,
175.5197,-81.4843,81.4843,-85.4024,226.9452,-402.7722,-263.3709,216.2948,-374.6726,223.1517,-186.6018,-332.7354,247.0257,215.6807,
190.5197,-96.4843,96.4843,-100.4024,241.9452,-387.7722,-278.3709,231.2948,-359.6726,238.1517,-201.6018,-317.7354,262.0257,230.6807,
205.5197,-111.4843,111.4843,-115.4024,251.7407,-372.7722,-293.3709,246.2948,-374.6726,253.1517,-216.6018,-332.7354,277.0257,245.6807,
190.5197,-126.4843,110.6874,-100.4024,236.7407,-387.7722,-278.3709,231.2948,-389.6726,238.1517,-229.2113,-347.7354,262.0257,230.6807,
175.5197,-111.4843,95.6874,-85.4024,228.2318,-402.7722,-263.3709,216.2948,-374.6726,223.1517,-214.2113,-362.7354,247.0257,215.6807,
190.5197,-100.8923,95.9944,-95.9944,213.539,-387.7722,-278.3709,204.7235,-389.6726,208.1517,-199.2113,-356.5514,232.0257,200.6807,
205.5197,-102.8514,102.8514,-110.9944,226.2732,-372.7722,-293.3709,219.7235,-374.6726,223.1517,-214.2113,-341.5514,247.0257,215.6807,
220.5197,-100.4024,100.4024,-125.9944,241.2732,-357.7722,-308.3709,234.7235,-389.6726,238.1517,-229.2113,-326.5514,262.0257,230.6807,
235.5197,-115.4024,115.4024,-129.2987,226.2732,-372.7722,-297.7793,219.7235,-404.6726,223.1517,-240.9661,-341.5514,247.0257,215.6807,
220.5197,-100.4024,118.5239,-114.2987,223.3348,-387.7722,-282.7793,204.7235,-389.6726,208.1517,-225.9661,-356.5514,232.0257,200.6807,
205.5197,-85.4024,103.5239,-99.2987,208.3348,-372.7722,-267.7793,189.7235,-374.6726,193.1517,-210.9661,-356.0615,217.0257,185.6807,
190.5197,-70.4024,88.5239,-84.2987,193.3348,-387.7722,-264.4744,174.7235,-389.6726,178.1517,-195.9661,-341.0615,202.0257,185.1326,
205.5197,-56.3233,73.5239,-91.5864,208.3348,-402.7722,-279.4744,189.7235,-404.6726,193.1517,-210.9661,-332.5523,217.0257,200.1326,
220.5197,-71.3233,88.5239,-106.5864,223.3348,-387.7722,-275.2494,204.7235,-389.6726,208.1517,-195.9661,-317.5523,232.0257,215.1326,
205.5197,-86.3233,73.5239,-121.5864,208.3348,-402.7722,-260.2494,189.7235,-374.6726,193.1517,-180.9661,-332.5523,217.0257,200.1326,
220.5197,-101.3233,88.5239,-136.5864,221.3748,-417.7722,-275.2494,204.7235,-389.6726,208.1517,-165.9661,-347.5523,232.0257,195.907,
205.5197,-116.3233,90.1173,-121.5864,206.3748,-402.7722,-290.2494,189.7235,-404.6726,193.1517,-180.9661,-332.5523,217.0257,180.907,
220.5197,-101.3233,75.1173,-106.5864,221.3748,-387.7722,-294.8405,204.7235,-419.6726,208.1517,-195.9661,-317.5523,232.0257,195.907,
235.5197,-116.3233,90.1173,-121.5864,236.3748,-372.7722,-279.8405,219.7235,-404.6726,223.1517,-180.9661,-302.5523,247.0257,210.907,
220.5197,-131.3233,105.1173,-136.5864,221.3748,-387.7722,-265.9443,208.1517,-389.6726,217.9466,-165.9661,-317.5523,243.4148,215.0077,
235.5197,-146.3233,120.1173,-146.4408,216.9675,-402.7722,-280.9443,223.1517,-404.6726,232.9466,-180.9661,-332.5523,257.1285,230.0077,
220.5197,-161.3233,105.1173,-131.4408,201.9675,-387.7722,-295.9443,208.1517,-419.6726,217.9466,-195.9661,-347.5523,242.1285,215.0077,
235.5197,-146.3233,90.1173,-116.4408,216.9675,-372.7722,-280.9443,223.1517,-404.6726,232.9466,-185.6223,-332.5523,257.1285,230.0077,
250.5197,-131.3233,94.5253,-115.0956,231.9675,-387.7722,-265.9443,238.1517,-389.6726,247.9466,-170.6223,-347.5523,271.8214,228.7216,
235.5197,-116.3233,86.689,-100.0956,216.9675,-402.7722,-279.6577,223.1517,-402.0997,232.9466,-159.1747,-362.5523,256.8214,213.7216,
220.5197,-131.3233,101.689,-115.0956,201.9675,-417.7722,-294.6577,208.1517,-417.0997,217.9466,-174.1747,-377.5523,241.8214,198.7216,
205.5197,-132.2375,116.689,-108.7283,216.9675,-432.7722,-279.6577,193.1517,-402.0997,202.9466,-177.2959,-389.8557,234.1092,184.1529,
190.5197,-117.2375,101.689,-99.9128,231.9675,-447.7722,-264.6577,196.8865,-387.0997,202.7642,-162.2959,-403.5691,249.1092,199.1529,
205.5197,-102.2375,87.1789,-114.9128,222.355,-432.7722,-249.6577,211.8865,-372.0997,217.7642,-147.2959,-388.5691,264.1092,214.1529,
209.6207,-117.2375,92.0766,-129.9128,207.355,-417.7722,-264.6577,220.3957,-380.0604,229.2113,-162.2959,-373.5691,252.72,224.3139,
224.6207,-132.2375,107.0766,-144.9128,222.355,-412.3849,-279.6577,235.3957,-395.0604,244.2113,-177.2959,-358.5691,267.72,239.3139,
219.9061,-147.2375,121.9521,-157.2157,207.355,-427.3849,-283.5758,220.3957,-380.0604,229.2113,-162.2959,-373.5691,252.72,224.3139,
204.9061,-132.2375,106.9521,-142.2157,222.355,-442.3849,-268.5758,205.3957,-365.0604,214.2113,-147.2959,-358.5691,263.0054,229.7009,
219.9061,-117.2375,95.0151,-127.2157,215.4976,-427.3849,-278.1885,217.4571,-350.0604,222.3546,-162.2959,-343.5691,248.0054,229.2115,
219.4167,-132.2375,110.0151,-128.3192,200.4976,-412.3849,-293.1885,232.4571,-364.3876,237.3546,-157.7051,-328.5691,259.5772,214.2115,
234.4167,-147.2375,125.0151,-143.3192,215.4976,-411.895,-308.1885,247.4571,-379.3876,252.3546,-172.7051,-334.5118,274.5772,229.2115,
219.4167,-132.2375,122.9316,-150.359,215.008,-426.895,-293.1885,232.4571,-394.3876,237.3546,-187.7051,-349.5118,259.5772,214.2115,
204.4167,-117.2375,107.9316,-135.359,200.008,-441.895,-278.1885,217.4571,-379.3876,222.3546,-172.7051,-364.5118,244.5772,199.2115,
219.4167,-102.2375,92.9316,-120.359,213.5388,-426.895,-263.4955,202.7637,-364.3876,213.5388,-157.7051,-349.5118,239.0071,209.6207,
234.4167,-117.2375,107.9316,-133.2168,228.5388,-411.895,-254.6795,217.7637,-373.2034,228.5388,-172.7051,-334.5118,254.0071,224.6207,
249.4167,-132.2375,122.9316,-148.2168,243.5388,-396.895,-269.6795,232.7637,-388.2034,243.5388,-187.7051,-349.5118,269.0071,239.6207,
238.0273,-132.2375,132.2375,-163.2168,228.5388,-411.895,-282.1064,218.4367,-403.2034,230.191,-191.0094,-364.5118,254.0071,224.6207,
223.0273,-117.2375,117.2375,-148.2168,213.5388,-426.895,-267.1064,203.4367,-388.2034,215.191,-176.0094,-379.5118,239.0071,209.6207,
208.0273,-123.9114,102.2375,-133.2168,198.5388,-411.895,-282.1064,188.4367,-393.2839,200.191,-191.0094,-364.5118,224.0071,194.6207,
223.0273,-124.4011,114.6058,-118.2168,213.5388,-396.895,-297.1064,203.4367,-378.2839,215.191,-198.8458,-349.5118,239.0071,209.6207,
238.0273,-109.4011,99.6058,-133.2168,228.5388,-381.895,-288.9631,218.4367,-363.2839,230.191,-183.8458,-334.5118,254.0071,224.6207,
253.0273,-124.4011,114.6058,-148.2168,228.7221,-396.895,-273.9631,233.4367,-370.7542,245.191,-168.8458,-349.5118,269.0071,239.6207,
238.0273,-109.4011,99.6058,-163.2168,213.7221,-411.895,-258.9631,218.4367,-355.7542,230.191,-153.8458,-364.5118,254.0071,224.6207,
237.0478,-105.7897,105.7897,-148.2168,198.7221,-419.2413,-267.4134,204.7235,-370.7542,230.1908,-168.4802,-379.5118,239.0071,209.6209,
222.0478,-90.7897,90.7897,-133.2168,183.7221,-404.2413,-282.4134,189.7235,-385.7542,215.1908,-183.4802,-364.5118,229.7014,224.6209,
234.1094,-75.7897,75.7897,-118.2168,198.7221,-389.2413,-295.82,204.7235,-390.8352,230.1908,-195.9075,-349.5118,244.7014,239.6209,
238.5172,-90.7897,90.7897,-124.8912,213.7221,-404.2413,-280.82,199.336,-375.8352,215.1908,-180.9075,-364.5118,235.5783,224.6209,
223.5172,-105.7897,105.7897,-120.4829,228.7221,-419.2413,-265.82,184.336,-360.8352,200.1908,-165.9075,-379.5118,222.355,209.6209,
208.5172,-120.7897,120.7897,-117.5443,213.7221,-434.2413,-280.82,169.336,-375.8352,185.1908,-180.9075,-394.5118,217.4574,194.6209,
193.5172,-135.7897,105.7897,-102.5443,198.7221,-419.2413,-295.82,154.336,-390.8352,170.1908,-195.9075,-379.5118,203.2538,179.6209,
190.0305,-120.7897,90.7897,-105.79,213.7221,-404.2413,-280.82,167.5011,-405.8352,185.1908,-195.9072,-364.5118,218.2538,194.6209,
184.1531,-105.7897,84.2401,-97.954,198.7221,-419.2413,-265.82,152.5011,-390.8352,173.378,-180.9072,-365.3674,203.2538,190.0298,
169.1531,-90.7897,90.6071,-100.4024,187.5809,-434.2413,-258.108,149.379,-375.8352,163.0929,-165.9072,-380.3674,192.4792,205.0298,
184.1531,-105.7897,105.6071,-115.4024,202.5809,-449.2413,-273.108,164.379,-390.8352,178.0929,-180.9072,-395.3674,207.4792,220.0298,
199.1531,-120.7897,120.6071,-130.4024,206.6823,-434.2413,-288.108,179.379,-405.8352,193.0929,-195.9072,-380.3674,222.4792,235.0298,
214.1531,-105.7897,105.6071,-115.4024,221.6823,-419.2413,-273.108,194.379,-390.8352,208.0929,-180.9072,-365.3674,237.4792,250.0298,
229.1531,-90.7897,90.6071,-100.4024,206.6823,-404.2413,-258.108,209.379,-375.8352,223.0929,-165.9072,-350.3674,231.1708,235.0298,
214.1531,-105.7897,105.6071,-115.4024,191.6823,-389.2413,-273.108,218.4367,-371.2444,229.2117,-180.9072,-365.3674,239.0066,220.3953,
229.1531,-120.7897,120.6071,-130.4024,180.7246,-404.2413,-288.108,220.8852,-386.2444,233.6198,-195.9072,-380.3674,249.2922,233.6198,
214.1531,-111.6667,109.7086,-115.4024,166.5218,-419.2413,-273.108,205.8852,-371.2444,218.6198,-210.9072,-395.3674,234.2922,218.6198,
199.1531,-96.6667,94.7086,-130.4024,181.5218,-434.2413,-258.108,190.8852,-386.2444,203.6198,-195.9072,-410.3674,219.2922,209.6207,
213.5393,-111.6667,109.7086,-145.4024,195.9072,-419.2413,-265.4541,190.0305,-371.2444,207.6616,-180.9072,-395.3674,234.2922,211.5797,
203.2534,-126.6667,94.7086,-160.4024,180.9072,-404.2413,-280.4541,205.0305,-356.2444,222.6616,-195.9072,-380.3674,219.2922,196.5797,
218.2534,-141.6667,109.7086,-145.4024,195.9072,-389.2413,-295.4541,220.0305,-367.3262,237.6616,-210.9072,-365.3674,234.2922,211.5797,
216.9675,-146.4408,103.341,-130.4024,180.9072,-404.2413,-282.5963,205.0305,-352.3262,230.6805,-195.9072,-380.3674,235.5779,212.0691,
201.9675,-131.4408,88.341,-115.4024,195.9072,-419.2413,-267.5963,190.0305,-337.3262,215.6805,-180.9072,-394.7533,220.5779,224.3136,
216.9675,-116.4408,101.8719,-106.7693,210.9072,-404.2413,-252.5963,205.0305,-322.3262,230.6805,-165.9072,-379.7533,235.5779,239.3136,
231.9675,-131.4408,102.3617,-121.7693,195.9072,-389.2413,-237.5963,220.0305,-307.3262,245.6805,-150.9072,-364.7533,250.5779,254.3136,
246.9675,-146.4408,117.3617,-136.7693,210.9072,-374.2413,-222.5963,235.0305,-322.3262,260.6805,-142.5225,-349.7533,265.5779,269.3136,
231.9675,-131.4408,103.8309,-121.7693,195.9072,-389.2413,-237.5963,220.0305,-337.3262,245.6805,-157.5225,-364.7533,250.5779,254.3136,
216.9675,-116.4408,88.8309,-106.7693,180.9072,-404.2413,-224.3141,205.0305,-322.3262,230.6805,-142.5225,-379.7533,235.5779,239.3136,
231.9675,-113.6265,94.0354,-94.0354,195.907,-389.2413,-239.3141,208.6411,-307.3262,243.9042,-136.1554,-364.7533,226.2732,224.3136,
246.9675,-128.6265,101.382,-101.382,210.907,-374.2413,-254.3141,223.6411,-322.3262,258.9042,-151.1554,-349.7533,241.2732,239.3136,
261.9675,-137.6248,112.157,-112.157,225.907,-359.2413,-269.3141,238.6411,-337.3262,273.9042,-166.1554,-334.7533,256.2732,254.3136,
246.9675,-152.6248,97.157,-127.157,210.907,-374.2413,-254.3141,223.6411,-322.3262,258.9042,-151.1554,-334.022,242.9254,239.3136,
231.9675,-137.6248,82.157,-112.157,195.907,-389.2413,-269.3141,208.6411,-336.9603,243.9042,-166.1554,-349.022,227.9254,224.3136,
246.9675,-146.9303,97.157,-113.6262,189.0503,-404.2413,-284.3141,223.6411,-351.9603,257.6179,-181.1554,-364.022,224.3139,209.3136,
261.9675,-161.9303,102.8514,-128.6262,204.0503,-389.2413,-269.3141,238.6411,-336.9603,272.6179,-166.1554,-349.022,239.3139,224.3136,
276.9675,-176.9303,87.8514,-143.6262,219.0503,-374.2413,-254.3141,253.6411,-321.9603,287.6179,-151.1554,-334.022,254.3139,239.3136,
291.9675,-161.9303,97.4639,-158.6262,232.64,-385.4472,-267.9031,268.6411,-336.9603,302.6179,-166.1554,-333.5319,269.3139,244.3944,
276.9675,-146.9303,82.7709,-170.9291,217.64,-400.4472,-254.1894,253.6411,-351.9603,287.6179,-171.9084,-348.5319,256.1485,229.3944,
276.2294,-141.0533,97.7709,-155.9291,221.3753,-415.4472,-265.4544,268.6411,-361.4488,290.9226,-173.378,-357.5307,271.1485,244.3944,
261.2294,-133.7065,110.1978,-140.9291,236.3753,-400.4472,-280.4544,253.6411,-376.4488,275.9226,-188.378,-342.5307,256.1485,237.5376,
246.2294,-118.7065,95.1978,-125.9291,251.3753,-385.4472,-295.3306,238.6411,-364.8775,260.9226,-173.378,-327.5307,271.1485,252.5376,
234.1089,-103.7065,95.0151,-110.9291,236.3753,-370.4472,-280.3306,228.2322,-349.8775,245.9226,-158.378,-312.5307,256.1485,237.5376,
219.1089,-95.505,95.505,-119.0138,221.3753,-385.4472,-265.3306,213.2322,-364.8775,230.9226,-159.1747,-327.5307,241.1485,222.5376,
227.2522,-110.505,110.505,-134.0138,214.5186,-400.4472,-280.3306,209.6211,-379.8775,241.9454,-174.1747,-342.5307,256.1485,237.5376,
212.2522,-125.505,122.442,-122.442,218.4364,-385.4472,-295.3306,202.764,-364.8775,226.9454,-189.1747,-327.5307,270.3523,239.9866,
227.2522,-110.505,107.442,-122.4418,233.4364,-370.4472,-280.3306,217.764,-349.8775,241.9454,-174.1747,-312.5307,285.3523,254.9866,
242.2522,-95.505,92.442,-107.4418,218.4364,-371.734,-265.3306,232.764,-334.8775,256.9454,-159.1747,-304.1462,270.3523,239.9866,
227.2522,-110.505,107.442,-122.4418,213.0489,-386.734,-272.801,226.7628,-349.8775,249.2922,-144.1747,-319.1462,263.0052,254.9866,
242.2522,-125.505,122.442,-137.4418,228.0489,-401.734,-287.801,241.7628,-364.8775,264.2922,-159.1747,-332.5526,278.0052,269.9866,
257.2522,-134.6862,132.7272,-132.7272,227.7419,-386.734,-292.3918,256.7628,-363.8978,279.2922,-174.1747,-347.5526,287.4939,254.9866,
242.2522,-119.6862,117.7272,-117.7272,236.0685,-371.734,-277.3918,241.7628,-378.8978,264.2922,-188.0708,-362.5526,272.4939,239.9866,
257.2522,-104.6862,102.7272,-102.7272,225.783,-356.734,-262.3918,256.7628,-363.8978,276.7186,-173.0708,-347.5526,257.4939,239.4965,
261.0468,-119.6862,108.2387,-117.7272,219.9061,-341.734,-250.2718,271.7628,-348.8978,291.4116,-158.0708,-332.5526,270.8417,254.4965,
276.0468,-134.6862,123.2387,-132.7272,234.9061,-326.734,-265.2718,286.7628,-363.8978,306.4116,-173.0708,-347.5526,285.8417,269.4965,
289.9426,-119.6862,117.5443,-129.2987,220.3957,-341.734,-280.2718,271.7628,-378.8978,291.4116,-188.0708,-362.5526,270.8417,254.4965,
274.9426,-104.6862,102.5443,-144.2987,235.3957,-356.734,-265.2718,256.7628,-393.8978,276.4116,-189.5402,-377.5526,255.8417,239.4965,
259.9426,-111.6672,111.6672,-159.2987,228.232,-341.734,-267.4132,241.7628,-387.8961,261.4116,-191.0094,-362.5526,240.8417,224.4965,
274.9426,-103.341,103.341,-153.2973,231.6607,-326.734,-282.4132,256.7628,-372.8961,276.4116,-176.0094,-347.5526,255.8417,223.8244,
289.9426,-104.3206,104.3206,-168.2973,246.6607,-317.8596,-297.4132,271.7628,-387.8961,291.4116,-191.0094,-332.5526,270.8417,238.8244,
274.9426,-108.7286,108.7286,-153.2973,231.6607,-332.8596,-282.4132,256.7628,-372.8961,276.4116,-206.0094,-347.5526,255.8417,223.8244,
259.9426,-93.7286,93.7286,-138.2973,239.4969,-347.8596,-267.4132,241.7628,-357.8961,261.4116,-191.0094,-362.5526,240.8417,208.8244,
267.413,-108.7286,108.7286,-130.2782,253.7,-340.8784,-262.5155,226.7628,-358.5105,246.4116,-178.2755,-347.5526,225.8417,213.539,
278.6779,-123.7286,108.2387,-115.2782,238.7,-325.8784,-277.5155,241.7628,-365.8568,261.4116,-193.2755,-332.5526,240.8417,220.8854,
293.6779,-111.1773,93.2387,-100.2782,253.7,-310.8784,-270.8419,256.7628,-380.8568,276.4116,-208.2755,-317.5526,255.8417,235.8854,
294.3506,-99.4229,99.4229,-115.2782,238.7,-325.8784,-285.8419,254.1901,-365.8568,278.6781,-193.2755,-332.5526,254.1901,220.8854,
279.3506,-84.4229,106.2794,-100.2782,223.7,-340.8784,-270.8419,239.1901,-350.8568,263.6781,-178.2755,-347.5526,239.1901,206.1929,
264.3506,-99.4229,111.6676,-85.2782,232.1501,-355.8784,-280.1473,224.1901,-365.8568,248.6781,-193.2755,-362.5526,224.1901,203.744,
249.3506,-114.4229,112.1568,-100.2782,247.1501,-340.8784,-295.1473,218.9263,-380.8568,233.6781,-208.2755,-347.5526,239.1901,218.744,
264.3506,-129.4229,127.1568,-115.2782,262.1501,-325.8784,-310.1473,233.9263,-391.8147,248.6781,-203.7435,-332.5526,254.1901,233.744,
275.2497,-144.4229,142.1568,-130.2782,258.5979,-340.8784,-295.1473,248.9263,-379.0804,263.6781,-212.5593,-347.5526,269.1901,218.744,
260.2497,-129.4229,127.1568,-145.2782,243.5979,-355.8784,-280.1473,233.9263,-364.0804,248.6781,-201.2948,-362.5526,254.1901,203.744,
275.2497,-124.8907,124.8907,-160.2782,242.4353,-370.8784,-295.1473,248.9263,-379.0804,263.6781,-216.2948,-359.0001,269.1901,218.744,
279.6574,-139.5839,137.6248,-145.2782,257.4353,-355.8784,-290.4325,263.9263,-394.0804,278.6781,-231.2948,-374.0001,284.1901,233.744,
294.6574,-124.5839,122.6248,-130.2782,272.4353,-340.8784,-275.4325,278.9263,-379.0804,293.6781,-216.2948,-359.0001,299.1901,248.744,
309.6574,-109.5839,107.6248,-145.2782,257.4353,-327.6547,-260.4325,293.9263,-364.0804,308.6781,-201.2948,-344.0001,308.0641,260.0668,
294.6574,-94.5839,92.6248,-160.2782,242.4353,-342.6547,-245.4325,278.9263,-349.0804,293.6781,-186.2948,-359.0001,293.0641,245.0668,
279.6574,-109.5839,106.7693,-145.2782,227.4353,-357.6547,-260.4325,263.9263,-364.0804,278.6781,-201.2948,-374.0001,278.0641,240.9661,
264.6574,-124.5839,94.0356,-130.2782,212.4353,-342.6547,-275.4325,248.9263,-379.0804,263.6781,-216.2948,-359.0001,263.0641,225.9661,
249.6574,-109.5839,79.0356,-115.2782,227.4353,-327.6547,-260.4325,233.9263,-364.0804,248.6781,-201.2948,-344.0001,278.0641,240.9661,
234.6574,-119.9933,76.8935,-100.2782,227.7426,-342.6547,-245.4325,218.9263,-349.0804,233.6781,-186.2948,-329.0001,263.0641,225.9661,
219.6574,-126.3601,91.8935,-115.2782,229.2115,-357.6547,-239.9861,203.9263,-356.5509,218.6781,-201.2948,-344.0001,250.7616,227.2529,
234.6574,-141.3601,106.8935,-130.2782,230.1913,-372.6547,-254.9861,218.9263,-371.5509,233.6781,-216.2948,-359.0001,265.7616,242.2529,
219.6574,-151.3383,113.1363,-115.2782,215.1913,-387.6547,-269.9861,203.9263,-356.5509,218.6781,-206.1924,-374.0001,250.7616,227.2529,
204.6574,-136.3383,98.1363,-100.2782,230.1913,-402.6547,-254.9861,188.9263,-341.5509,205.7021,-191.1924,-389.0001,241.9454,235.0885,
219.6574,-121.3383,97.4639,-97.4639,218.9266,-387.6547,-259.0875,203.9263,-326.5509,220.7021,-198.3562,-374.0001,256.9454,233.6193,
211.0903,-136.3383,103.341,-112.4639,203.9266,-372.6547,-274.0875,218.9263,-341.5509,230.6809,-213.3562,-359.0001,261.0466,228.7214,
226.0903,-151.3383,118.341,-127.4639,218.9266,-387.6547,-289.0875,233.9263,-356.5509,245.6809,-228.3562,-344.0001,276.0466,243.7214,
211.0903,-166.3383,124.8909,-124.8909,203.9266,-402.6547,-304.0875,218.9263,-371.5509,230.6809,-243.3562,-359.0001,261.0466,228.7214,
196.0903,-151.3383,109.8909,-109.8909,198.8461,-417.6547,-306.5949,203.9263,-356.5509,215.6809,-228.3562,-374.0001,246.0466,213.7214,
211.0903,-136.3383,94.8909,-94.8909,195.4176,-402.6547,-291.5949,195.4176,-341.5509,219.9056,-216.9673,-359.0001,231.0466,198.7214,
226.0903,-151.3383,109.8909,-109.8909,210.4176,-387.6547,-276.5949,210.4176,-326.5509,234.9056,-201.9673,-344.0001,246.0466,213.7214,
241.0903,-158.6846,124.8909,-124.8909,225.4176,-386.9168,-291.5949,225.4176,-341.5509,249.9056,-186.9673,-329.0001,261.0466,228.7214,
226.0903,-143.6846,128.3194,-129.2987,210.4176,-401.9168,-300.7177,210.4176,-356.5509,234.9056,-192.9689,-344.0001,247.8231,213.7214,
211.0903,-128.6846,117.0552,-114.2987,208.1513,-416.9168,-285.7177,195.4176,-341.5509,219.9056,-177.9689,-359.0001,232.8231,198.7214,
196.0903,-143.6846,132.0552,-129.2987,212.5593,-401.9168,-275.2497,180.4176,-356.5509,204.9056,-192.9689,-344.0001,247.8231,209.6204,
211.0903,-128.6846,117.0552,-144.2987,227.5593,-386.9168,-290.2497,195.4176,-371.5509,219.9056,-177.9689,-329.0001,262.8231,224.6204,
226.0903,-113.6846,110.198,-159.2987,242.5593,-371.9168,-305.2497,210.4176,-386.5509,234.9056,-192.9689,-314.0001,277.8231,239.6204,
241.0903,-128.6846,125.198,-174.2987,227.5593,-386.9168,-290.2497,225.4176,-371.5509,249.9056,-205.2129,-329.0001,292.8231,232.6402,
226.0903,-113.6846,110.198,-159.2987,212.5593,-401.9168,-275.2497,210.4176,-356.5509,234.9056,-190.2129,-344.0001,277.8231,217.6402,
228.2317,-128.6846,116.5648,-144.2987,212.5593,-406.5077,-290.2497,195.4176,-371.5509,219.9056,-205.2129,-356.5514,262.8231,227.2525,
243.2317,-143.6846,106.7695,-129.2987,207.6618,-391.5077,-305.2497,210.4176,-360.4695,234.9056,-220.2129,-341.5514,267.413,242.2525,
258.2317,-128.6846,91.7695,-114.2987,222.6618,-376.5077,-290.2497,225.4176,-345.4695,249.9056,-205.2129,-326.5514,282.413,257.2525,
273.2317,-113.6846,103.341,-122.9321,213.0489,-391.5077,-275.2497,240.4176,-330.4695,264.9056,-190.2129,-338.4302,267.413,242.2525,
258.2317,-98.6846,92.0768,-137.9321,198.0489,-406.5077,-260.2497,225.4176,-315.4695,249.9056,-175.2129,-353.4302,252.413,227.2525,
243.2317,-113.6846,107.0768,-135.1761,196.8872,-421.5077,-275.2497,210.4176,-330.4695,234.9056,-190.2129,-356.5509,247.8228,222.3546,
228.2317,-128.6846,109.2182,-120.1761,202.2738,-406.5077,-290.2497,195.4176,-345.4695,219.9059,-205.2129,-341.5509,244.3948,207.3546,
243.2317,-113.6846,94.2182,-105.1761,217.2738,-391.5077,-304.1459,210.4176,-360.4695,234.9059,-220.2129,-326.5509,259.3948,222.3546,
258.2317,-128.6846,109.2182,-119.0135,202.2738,-381.5295,-289.1459,225.4176,-345.4695,249.9059,-205.2129,-337.4504,263.0057,232.64,
243.2317,-113.6846,94.2182,-134.0135,187.2738,-396.5295,-274.1459,210.4176,-330.4695,234.9059,-190.2129,-352.4504,248.0057,217.64,
258.2317,-128.6846,109.2182,-149.0135,202.2738,-411.5295,-289.1459,225.4176,-345.4695,249.9059,-205.2129,-367.4504,263.0057,220.8856,
273.2317,-143.6846,124.2182,-162.1131,217.2738,-396.5295,-304.1459,240.4176,-360.4695,264.9059,-220.2129,-352.4504,278.0057,235.8856,
288.2317,-128.6846,109.2182,-147.1131,232.2738,-381.5295,-289.1459,255.4176,-345.4695,279.9059,-205.2129,-337.4504,293.0057,250.8856,
303.2317,-113.6846,97.9535,-132.1131,241.9456,-396.5295,-274.1459,270.4176,-330.4695,294.9059,-190.2129,-327.165,278.0057,235.8856,
288.2317,-100.8926,100.8926,-117.1131,226.9456,-411.5295,-285.0452,255.4176,-345.4695,279.9059,-205.2129,-342.165,263.0057,220.8856,
301.2078,-115.8926,115.8926,-127.8293,211.9456,-426.5295,-300.0452,266.924,-360.4695,294.9059,-220.2129,-357.165,248.0057,235.8856,
286.2078,-130.8926,120.4832,-120.4832,210.6,-441.5295,-285.0452,251.924,-345.4695,279.9059,-205.2129,-343.8175,242.9252,220.8856,
271.2078,-115.8926,105.4832,-105.4832,225.6,-456.5295,-270.0452,236.924,-330.4695,264.9059,-190.2129,-358.8175,257.9252,235.8856,
256.2078,-130.8926,90.4832,-90.4832,213.0496,-441.5295,-265.9443,221.924,-315.4695,249.9059,-183.6632,-343.8175,242.9252,220.8856,
241.2078,-145.8926,75.4832,-105.4832,198.0496,-426.5295,-280.9443,206.924,-330.4695,234.9059,-198.6632,-328.8175,227.9252,208.1517,
256.2078,-160.8926,90.4832,-120.4832,213.0496,-411.5295,-295.9443,221.924,-345.4695,249.9059,-213.6632,-313.8175,242.9252,223.1517,
241.2078,-145.8926,105.4832,-113.6262,218.4362,-426.5295,-280.9443,206.924,-330.4695,234.9059,-200.8047,-328.8175,245.864,213.5388,
226.2078,-130.8926,90.4832,-98.6262,233.4362,-441.5295,-265.9443,191.924,-315.4695,219.9059,-185.8047,-327.6549,248.3127,228.5388,
241.2078,-115.8926,105.4832,-109.7081,248.4362,-426.5295,-250.9443,206.924,-302.6768,234.9059,-170.8047,-312.6549,263.3127,243.5388,
256.2078,-130.8926,120.4832,-124.7081,254.1901,-411.5295,-259.0875,221.924,-317.6768,249.9059,-185.8047,-297.6549,278.3127,258.5388,
271.2078,-145.8926,135.4832,-139.7081,269.1901,-414.834,-274.0875,236.924,-332.6768,264.9059,-200.8047,-312.6549,293.3127,273.5388,
269.8621,-160.8926,150.359,-150.359,254.1901,-429.834,-289.0875,234.599,-347.6768,272.801,-215.8047,-327.6549,278.6777,258.5388,
254.8621,-145.8926,135.359,-135.359,239.1901,-444.834,-274.0875,219.599,-332.6768,257.801,-200.8047,-342.6549,263.6777,243.5388,
241.9454,-130.8926,120.359,-120.359,228.2315,-429.834,-259.0875,204.599,-317.6768,249.7817,-215.8047,-327.6549,253.6998,228.5388,
248.8026,-145.8926,126.3601,-126.3601,237.0482,-414.834,-274.0875,219.599,-332.6768,264.7817,-230.1913,-312.6549,268.6998,243.5388,
263.8026,-160.8926,124.8909,-124.8909,252.0482,-399.834,-289.0875,234.599,-347.6768,279.7817,-236.5583,-297.6549,283.6998,258.5388,
248.8026,-165.0522,112.157,-112.157,237.0482,-414.834,-274.76,219.599,-332.6768,264.7817,-221.5583,-312.6549,268.6998,243.5388,
233.8026,-150.0522,124.8909,-104.3206,222.0482,-429.834,-259.76,204.599,-339.4093,249.7817,-206.5583,-327.6549,253.6998,228.5388,
218.8026,-143.9919,139.8909,-119.3206,207.0482,-444.834,-274.76,189.599,-354.4093,234.7817,-221.5583,-342.6549,238.6998,213.5388,
233.8026,-128.9919,124.8909,-123.9114,222.0482,-429.834,-289.76,204.599,-339.4093,249.7817,-206.5583,-327.6549,253.6998,228.5388,
248.8026,-113.9919,109.8909,-137.6248,237.0482,-414.834,-282.5963,219.599,-330.5935,264.7817,-191.5583,-312.6549,268.6998,243.5388,
263.8026,-128.9919,124.8909,-152.6248,242.9252,-429.834,-267.5963,234.599,-345.5935,279.7817,-176.5583,-303.6561,283.6998,258.5388,
248.8026,-113.9919,109.8909,-167.5009,227.9252,-444.834,-252.5963,219.599,-360.5935,264.7817,-168.4806,-318.6561,268.6998,243.5388,
254.68,-128.9919,124.8909,-154.7665,239.0066,-429.834,-267.5963,211.5797,-375.5935,249.7817,-183.4806,-333.6561,253.6998,228.5388,
269.68,-143.9919,133.2168,-139.7665,254.0066,-414.834,-267.4137,226.5797,-360.5935,264.7817,-170.4395,-318.6561,268.6998,243.5388,
284.68,-128.9919,118.2168,-124.7665,269.0066,-399.834,-252.4137,241.5797,-345.5935,279.7817,-155.4395,-303.6561,283.6998,258.5388,
273.7803,-113.9919,103.2168,-109.7665,254.0066,-414.834,-250.2715,226.5797,-359.9794,264.7817,-170.4395,-318.6561,268.6998,243.5388,
258.7803,-98.9919,118.2168,-94.7665,239.0066,-429.834,-235.2715,211.5797,-344.9794,249.7817,-185.4395,-333.6561,253.6998,228.5388,
243.7803,-113.9919,131.7484,-109.7665,234.5988,-431.4856,-250.2715,196.5797,-359.9794,234.7817,-200.4395,-348.6561,238.6998,243.4153,
228.7803,-104.3201,116.7484,-94.7665,219.5988,-416.4856,-265.2715,181.5797,-374.9794,219.7817,-215.4395,-363.6561,223.6998,228.4153,
213.7803,-89.3201,101.7484,-103.3413,234.5988,-401.4856,-268.8831,166.5797,-389.9794,204.7817,-230.4395,-378.6561,208.6998,213.4153,
227.2522,-86.1994,86.7484,-118.3413,249.5988,-386.4856,-253.8831,162.6027,-374.9794,189.7817,-215.4395,-363.6561,202.7642,198.4153,
239.4967,-101.1994,101.7484,-133.3413,264.5988,-371.4856,-238.8831,177.6027,-359.9794,204.7817,-200.4395,-348.6561,217.7642,213.4153,
254.4967,-116.1994,116.7484,-148.3413,279.5988,-382.5093,-253.8831,192.6027,-374.9794,219.7817,-215.4395,-333.6561,232.7642,228.4153,
239.4967,-101.1994,101.7484,-133.3413,264.5988,-397.5093,-268.8831,177.6027,-389.9794,204.7817,-230.4395,-348.6561,217.7642,213.4153,
224.4967,-86.1994,86.7484,-118.3413,266.4334,-412.5093,-253.8831,162.6027,-374.9794,189.7817,-215.4395,-363.6561,202.7642,198.4153,
239.4967,-101.1994,101.7484,-105.79,275.2494,-397.5093,-257.6179,177.6027,-359.9794,204.7817,-228.232,-348.6561,217.7642,191.0098,
234.5993,-116.1994,96.4843,-120.79,260.2494,-382.5093,-272.6179,192.6027,-374.9794,219.7817,-243.232,-333.6561,232.7642,194.4378,
249.5993,-131.1994,96.9742,-105.79,245.2494,-397.5093,-287.6179,207.6027,-389.9794,234.7817,-258.232,-348.6561,235.0887,209.4378,
234.5993,-116.1994,81.9742,-90.79,230.2494,-412.5093,-272.6179,192.6027,-374.9794,219.7817,-243.232,-363.6561,220.0887,194.4378,
219.5993,-101.1994,66.9742,-105.79,245.2494,-407.487,-257.6179,177.6027,-359.9794,204.7817,-228.232,-378.6561,222.355,200.8049,
234.5993,-86.1994,81.9742,-101.3822,249.292,-392.487,-242.6179,192.6027,-353.1227,219.7817,-225.7833,-363.6561,237.355,211.0901,
249.5993,-101.1994,96.9742,-116.3822,234.292,-377.487,-257.6179,207.6027,-368.1227,234.7817,-240.7833,-348.6561,252.355,223.3343,
264.5993,-116.1994,111.9742,-131.3822,233.1294,-392.487,-272.6179,222.6027,-383.1227,249.7817,-255.7833,-363.6561,267.355,238.3343,
249.5993,-124.8907,124.8907,-128.8088,218.1294,-407.487,-261.0466,207.6027,-372.7135,234.7817,-240.7833,-378.6561,260.0668,223.3343,
234.5993,-109.8907,109.8907,-113.8088,227.252,-422.487,-246.0466,192.6027,-357.7135,219.7817,-225.7833,-393.6561,245.0668,234.1089,
249.5993,-124.8907,124.8907,-128.8088,242.252,-407.487,-261.0466,207.6027,-372.7135,234.7817,-233.1296,-378.6561,260.0668,249.1089,
264.5993,-139.8907,139.8907,-143.8088,254.6795,-392.487,-276.0466,222.6027,-387.7135,249.7817,-235.0889,-363.6561,275.0668,264.1089,
279.5993,-154.8907,154.8907,-158.6849,269.6795,-377.487,-290.9222,237.6027,-385.9373,264.7817,-220.0889,-348.6561,290.0668,279.1089,
294.5993,-158.1952,158.1952,-169.9496,254.6795,-392.487,-288.4735,252.6027,-376.6317,279.7817,-235.0889,-363.6561,285.5346,264.1089,
279.5993,-143.1952,143.1952,-154.9496,239.6795,-407.487,-273.4735,237.6027,-361.6317,264.7817,-220.0889,-378.6561,270.5346,249.1089,
264.5993,-128.1952,128.1952,-139.9496,224.6795,-392.487,-288.4732,222.6027,-346.6317,249.7817,-205.0889,-363.6561,255.5346,234.1089,
249.5993,-125.8702,113.1952,-124.9496,224.8035,-377.487,-303.4732,237.6027,-361.6317,259.0873,-220.0889,-348.6561,270.5346,240.476,
264.5993,-117.5443,117.5443,-139.9496,239.8035,-362.487,-300.7177,252.6027,-376.6317,274.0873,-235.0889,-333.6561,285.5346,255.476,
257.1285,-132.5443,129.7886,-129.7886,224.8035,-377.487,-289.4527,237.6027,-361.6317,259.0873,-220.0889,-348.6561,270.5346,240.476,
242.1285,-117.5443,134.6865,-114.7886,209.8035,-392.487,-274.4527,222.6027,-346.6317,244.0873,-205.0889,-363.6561,255.5346,225.476,
227.1285,-102.5443,132.7272,-99.7886,194.8035,-407.487,-289.4527,207.6027,-361.6317,229.0873,-220.0889,-378.6561,240.5346,210.476,
212.1285,-101.3822,117.7272,-114.7886,209.8035,-392.487,-304.4527,198.356,-376.6317,214.0873,-235.0889,-363.6561,241.4553,225.476,
227.1285,-86.3822,102.7272,-129.7886,224.8035,-377.487,-300.7175,213.356,-391.6317,229.0873,-227.2525,-348.6561,256.4553,240.476,
242.1285,-101.3822,117.7272,-138.6044,209.8035,-392.487,-285.7175,228.356,-376.6317,244.0873,-221.8647,-363.6561,253.2101,229.7014,
227.1285,-116.3822,117.0547,-138.6048,194.8035,-407.487,-270.7175,213.356,-361.6317,229.0873,-206.8647,-378.6561,238.2101,214.7014,
242.1285,-131.3822,132.0547,-139.094,188.0715,-422.487,-285.7175,215.4983,-376.6317,239.007,-221.8647,-393.6561,237.0475,229.7014,
234.1094,-146.3822,131.258,-131.258,203.0715,-407.487,-300.7175,230.4983,-391.6317,251.7405,-236.8647,-378.6561,252.0475,244.7014,
249.1094,-131.3822,116.258,-116.258,218.0715,-392.487,-305.1257,245.4983,-376.6317,266.7405,-221.8647,-363.6561,267.0475,259.7014,
243.9042,-116.3822,101.258,-101.258,203.0715,-407.487,-290.1257,230.4983,-361.6317,251.7405,-206.8647,-378.6561,252.0475,244.7014,
228.9042,-101.3822,94.5248,-86.258,188.0715,-422.487,-275.1257,215.4983,-364.8775,236.7405,-191.8647,-393.6561,237.0475,229.7014,
243.9042,-116.3822,109.5248,-101.258,188.5607,-437.487,-290.1257,230.4983,-379.8775,251.7405,-206.8647,-408.6561,223.8242,244.7014,
228.9042,-115.0954,94.5248,-93.5457,173.5607,-452.487,-305.1257,215.4983,-394.8775,236.7405,-221.8647,-423.6561,208.8242,229.7014,
213.9042,-100.0954,79.5248,-78.5457,158.5607,-467.487,-290.1257,200.4983,-379.8775,221.7405,-236.8647,-438.6561,193.8242,214.7014,
198.9042,-111.1775,80.8118,-80.8118,167.9903,-452.487,-275.1257,185.4983,-364.8775,206.7405,-251.8647,-423.6561,178.8242,199.7014,
213.9042,-126.1775,95.8118,-95.8118,182.9903,-437.487,-290.1257,200.4983,-379.0806,221.7405,-243.9045,-408.6561,193.8242,214.7014,
228.9042,-141.1775,110.8118,-110.8118,197.9903,-422.487,-305.1257,215.4983,-394.0806,236.7405,-258.9045,-411.4056,208.8242,229.7014,
213.9042,-136.6453,98.4434,-98.4434,182.9903,-437.487,-320.1257,200.4983,-409.0806,221.7405,-264.9645,-426.4056,193.8242,214.7014,
198.9042,-121.6453,83.4434,-83.4434,171.9091,-439.3221,-305.1257,185.4983,-394.0806,206.7405,-249.9645,-436.3832,178.8242,199.7014,
213.9042,-136.6453,85.2196,-85.2196,156.9091,-424.3221,-320.1257,200.4983,-409.0806,205.7026,-264.9645,-421.3832,172.3985,191.0094,
228.9042,-151.6453,100.2196,-100.2196,152.3183,-409.3221,-335.1257,215.4983,-424.0806,220.7026,-279.9645,-406.3832,187.3985,206.0094,
243.9042,-166.6453,115.2196,-115.2196,167.3183,-424.3221,-350.1257,230.4983,-439.0806,235.7026,-294.9645,-421.3832,202.3985,221.0094,
228.9042,-151.6453,100.2196,-100.2196,152.3183,-439.3221,-335.1257,215.4983,-424.0806,220.7026,-279.9645,-436.3832,187.3985,206.0094,
213.9042,-136.6453,85.2196,-85.2196,167.3183,-424.3221,-320.1257,200.4983,-409.0806,205.7026,-264.9645,-421.3832,172.3985,196.3967,
210.6,-121.6453,70.2196,-70.2196,175.3369,-409.3221,-305.1257,185.4983,-394.7531,190.7026,-249.9645,-406.3832,163.5825,211.3967,
220.8854,-135.6655,85.2196,-85.2196,186.6016,-394.3221,-320.1257,200.4983,-409.7531,205.7026,-264.9645,-391.3832,178.5825,226.3967,
235.8854,-150.6655,100.2196,-100.2196,201.6016,-409.3221,-335.1257,215.4983,-424.7531,220.7026,-279.9645,-376.3832,193.5825,241.3967,
220.8854,-135.6655,115.2196,-115.2196,204.7233,-424.3221,-320.1257,200.4983,-409.7531,205.7026,-264.9645,-391.3832,208.5825,226.3967,
205.8854,-120.6655,100.2196,-100.2196,201.7847,-423.1599,-305.1257,185.4983,-394.7531,190.7026,-249.9645,-376.3832,193.5825,211.3967,
220.8854,-105.6655,97.4639,-104.3203,204.2334,-438.1599,-290.1257,199.336,-409.7531,205.7026,-234.9645,-361.3832,178.5825,217.9473,
208.6416,-120.6655,101.8716,-101.8716,206.6821,-423.1599,-305.1257,214.336,-424.7531,220.7026,-249.9645,-376.3832,193.5825,202.9473,
223.6416,-105.6655,94.0354,-102.8514,221.6821,-408.1599,-297.7791,229.336,-439.7531,235.7026,-264.9645,-361.3832,208.5825,217.9473,
238.6416,-120.6655,109.0354,-117.8514,236.6821,-423.1599,-311.4925,244.336,-424.7531,250.7026,-249.9645,-376.3832,223.5825,232.9473,
223.6416,-105.6655,124.0354,-102.8514,251.6821,-408.1599,-296.4925,229.336,-409.7531,235.7026,-234.9645,-361.3832,220.395,247.9473,
208.6416,-90.6655,109.0354,-87.8514,236.6821,-393.1599,-281.4925,214.336,-394.7531,220.7026,-219.9645,-346.3832,205.395,232.9473,
223.6416,-105.6655,94.0354,-81.3015,221.6821,-378.1599,-296.4925,199.336,-409.7531,205.7026,-234.9645,-352.633,190.395,217.9473,
208.6416,-90.6655,79.0354,-96.3015,206.6821,-363.1599,-281.4925,184.336,-394.7531,190.7026,-219.9645,-337.633,175.395,202.9473,
193.6416,-75.6655,64.0354,-111.3015,191.6821,-348.1599,-266.4925,169.336,-379.7531,175.7026,-204.9645,-322.633,160.395,187.9473,
178.6416,-60.6655,49.0354,-126.3015,176.6821,-333.1599,-251.4925,154.336,-364.7531,160.7026,-189.9645,-307.633,145.395,172.9473,
163.6416,-45.6655,34.0354,-141.3015,161.6821,-318.1599,-236.4925,139.336,-349.7531,145.7026,-174.9645,-292.633,130.395,157.9473,
148.6416,-30.6655,19.0354,-156.3015,146.6821,-303.1599,-221.4925,124.336,-334.7531,130.7026,-159.9645,-277.633,115.395,142.9473,
133.6416,-15.6655,4.0354,-171.3015,131.6821,-288.1599,-206.4925,109.336,-319.7531,115.7026,-144.9645,-262.633,100.395,127.9473,
118.6416,-0.66554,-10.9646,-186.3015,116.6821,-273.1599,-191.4925,94.336,-304.7531,100.7026,-129.9645,-247.633,85.395,112.9473,
103.6416,-1.4694,-25.9646,-201.3015,101.6821,-258.1599,-176.4925,79.336,-289.7531,85.7026,-114.9645,-232.633,70.395,97.9473,
88.6416,5.8772,-40.9646,-216.3015,86.6821,-243.1599,-161.4925,64.336,-274.7531,70.7026,-99.9645,-217.633,85.395,83.2603,
73.6416,20.8772,-55.9646,-201.3015,101.6821,-228.1599,-146.4925,49.336,-259.7531,55.7026,-84.9645,-202.633,100.395,98.2603,
58.6416,35.8772,-70.9646,-216.3015,86.6821,-213.1599,-131.4925,34.336,-244.7531,40.7026,-69.9645,-187.633,85.395,83.2603,
43.6416,46.5283,-85.9646,-231.3015,71.6821,-198.1599,-116.4925,19.336,-229.7531,25.7026,-54.9645,-172.633,70.395,68.2603,
28.6416,31.5283,-100.9646,-246.3015,56.6821,-183.1599,-101.4925,4.336,-214.7531,10.7026,-39.9645,-157.633,55.395,53.2603,
43.6416,16.5283,-115.9646,-261.3015,57.793,-168.1599,-116.4925,19.336,-216.4774,25.7026,-24.9645,-142.633,62.6904,68.2603,
28.6416,31.5283,-100.9646,-246.3015,72.793,-153.1599,-101.4925,4.336,-201.4774,10.7026,-9.9645,-127.633,77.6904,83.2603,
13.6416,46.5283,-115.9646,-231.3015,76.4043,-138.1599,-86.4925,-10.664,-186.4774,-4.2974,5.0355,-112.633,62.6904,68.2603,
-1.3584,34.2833,-118.5239,-246.3015,78.3629,-123.1599,-71.4925,-25.664,-171.4774,-19.2974,20.0355,-97.633,59.7516,83.2603,
-16.3584,19.2833,-133.5239,-261.3015,63.3629,-108.1599,-85.709,-10.664,-186.4774,-4.2974,33.7941,-82.633,44.7516,94.5255,
-1.3584,4.2833,-148.5239,-276.3015,48.3629,-93.1599,-100.709,4.336,-201.4774,10.7026,18.7941,-67.633,48.4873,79.5255,
13.6416,-10.7167,-152.318,-291.3015,52.4055,-102.3617,-85.709,19.336,-216.4774,25.7026,33.7941,-82.633,63.4873,64.5255,
-1.3584,4.2833,-167.318,-276.3015,67.4055,-87.3617,-70.709,4.336,-201.4774,10.7026,48.7941,-67.633,74.4448,79.5255,
0.48965,-0.48965,-162.1133,-291.3015,76.8935,-72.3617,-55.709,-10.664,-186.4774,-4.2974,63.7941,-52.633,59.4448,71.9961,
-4.4078,-15.4896,-177.1133,-306.3015,61.8935,-57.3617,-70.709,4.336,-200.3152,10.7026,78.7941,-37.633,44.4448,56.9961,
10.5922,-30.4896,-192.1133,-321.3015,46.8935,-42.3617,-85.709,19.336,-215.3152,25.7026,70.5269,-23.5085,29.4448,41.9961,
-4.4078,-15.4896,-177.1133,-306.3015,46.0382,-27.3617,-70.709,4.336,-200.3152,10.7026,85.5269,-8.5085,14.4448,29.3864,
-19.4078,-0.48965,-162.1133,-291.3015,61.0382,-18.6113,-55.709,-10.664,-185.3152,-4.2974,100.5269,6.4915,29.4448,44.3864,
-4.4078,-10.7748,-147.1133,-276.3015,76.0382,-33.6113,-70.709,4.336,-200.3152,10.7026,85.5269,-8.5085,44.4448,59.3864,
10.5922,-8.3259,-132.1133,-261.3015,91.0382,-18.6113,-85.709,19.336,-215.3152,25.7026,70.5269,-23.5085,59.4448,74.3864,
25.5922,-23.3259,-122.442,-276.3015,106.0382,-3.6113,-100.709,34.336,-230.3152,40.7026,55.5269,-38.5085,74.4448,89.3864,
40.5922,-38.3259,-107.442,-266.9238,121.0382,-18.6113,-115.709,49.336,-215.3152,55.7026,40.5269,-53.5085,89.4448,104.3864,
25.5922,-23.3259,-92.442,-251.9238,106.0382,-33.6113,-100.709,34.336,-200.3152,40.7026,55.5269,-68.5085,104.4448,110.6876,
40.5922,-25.9577,-77.442,-236.9238,121.0382,-48.6113,-115.709,49.336,-215.3152,55.7026,40.5269,-83.5085,119.4448,125.6876,
55.5922,-40.9577,-62.442,-221.9238,136.0382,-39.6713,-130.709,64.336,-230.3152,70.7026,25.5269,-85.7095,134.4448,140.6876,
70.5922,-25.9577,-47.442,-206.9238,151.0382,-24.6713,-144.4816,79.336,-245.3152,85.7026,10.5269,-70.7095,149.4448,155.6876,
85.5922,-40.9577,-32.442,-210.1108,166.0382,-39.6713,-159.4816,94.336,-260.3152,100.7026,-4.4731,-85.7095,164.4448,140.6876,
70.5922,-25.9577,-17.442,-222.8442,156.2361,-54.6713,-144.4816,81.7918,-245.3152,89.6281,-19.4731,-100.7095,151.3387,125.6876,
85.5922,-40.9577,-2.442,-207.8442,160.154,-69.6713,-159.4816,96.7918,-260.3152,104.6281,-34.4731,-115.7095,147.4204,140.6876,
70.5922,-28.8963,12.558,-192.8442,159.1745,-84.6713,-174.4816,81.7918,-275.3152,89.6281,-49.4731,-130.7095,137.6244,143.502,
85.5922,-13.8963,-2.442,-177.8442,174.1745,-99.6713,-159.4816,96.7918,-290.3152,104.6281,-42.6097,-145.7095,152.6244,158.502,
100.5922,-28.8963,12.558,-175.827,160.154,-114.6713,-160.154,111.7918,-277.6986,119.6281,-57.6097,-160.7095,156.2359,143.502,
85.5922,-13.8963,27.558,-160.827,145.4611,-129.6713,-145.154,96.7918,-286.5144,104.6281,-57.3029,-175.7095,141.2359,150.3585,
100.5922,-28.8963,42.558,-154.2769,160.4611,-144.6713,-160.154,81.7918,-301.5144,90.6067,-72.3029,-190.7095,146.4406,160.1545,
85.5922,-43.8963,57.558,-149.8693,164.562,-159.6713,-175.154,81.3013,-316.5144,86.1996,-87.3029,-205.7095,148.8896,145.1545,
70.5922,-28.8963,42.558,-164.8693,149.562,-174.6713,-160.154,73.4655,-301.5144,76.4034,-72.3029,-220.7095,139.0942,130.1545,
85.5922,-40.6509,40.6509,-179.8693,164.562,-189.6713,-175.154,88.4655,-316.5144,91.4034,-79.8321,-217.947,154.0942,145.1545,
100.5922,-55.6509,55.6509,-194.8693,149.562,-174.6713,-190.154,103.4655,-331.5144,106.4034,-94.8321,-202.947,139.0942,130.1545,
85.5922,-40.6509,40.6509,-209.8693,134.562,-159.6713,-175.154,88.4655,-316.5144,91.4034,-79.8321,-187.947,124.0942,115.1545,
70.5922,-25.6509,25.6509,-202.2743,149.562,-144.6713,-160.154,73.4655,-301.5144,76.4034,-64.8321,-172.947,139.0942,130.1545,
55.5922,-10.6509,10.6509,-187.2743,154.2766,-129.6713,-145.154,58.4655,-286.5144,61.4034,-49.8321,-157.947,143.5016,145.1545,
40.5922,4.3491,-4.3491,-172.2743,139.2766,-114.6713,-130.154,43.4655,-271.5144,46.4034,-34.8321,-142.947,128.5016,130.1545,
25.5922,19.3491,-19.3491,-157.2743,124.2766,-99.6713,-115.154,28.4655,-256.5144,31.4034,-19.8321,-127.947,113.5016,115.1545,
40.5922,4.3491,-34.3491,-172.2743,109.2766,-114.6713,-115.0956,41.6302,-241.5144,46.4034,-4.8321,-121.9521,116.0754,106.2796,
25.5922,19.3491,-49.3491,-187.2743,94.2766,-99.6713,-100.0956,26.6302,-226.5144,31.4034,10.1679,-106.9521,101.0754,91.2796,
10.5922,34.3491,-64.3491,-202.2743,79.2766,-84.6713,-85.0956,11.6302,-211.5144,16.4034,25.1679,-91.9521,86.0754,76.2796,
-4.4078,49.3491,-79.3491,-217.2743,94.2766,-69.6713,-70.0956,-3.3698,-196.5144,1.4034,40.1679,-76.9521,82.2815,66.609,
-19.4078,34.3491,-94.3491,-232.2743,79.2766,-54.6713,-85.0956,-3.4285,-211.5144,16.4034,25.1679,-61.9521,67.2815,62.2012,
-4.4078,19.3491,-109.3491,-247.2743,64.2766,-39.6713,-100.0956,11.5715,-226.5144,31.4034,10.1679,-46.9521,52.2815,73.4657,
-19.4078,17.1419,-124.3491,-256.1487,49.2766,-24.6713,-85.0956,-3.4285,-211.5144,16.4034,25.1679,-31.9521,37.2815,58.4657,
-34.4078,32.1419,-139.3491,-241.1487,56.8137,-9.6713,-70.0956,-18.4285,-196.5144,1.4034,40.1679,-16.9521,22.2815,43.4657,
-19.4078,47.1419,-124.3491,-237.0478,71.8137,5.3287,-55.0956,-33.4285,-181.5144,-13.5966,55.1679,-31.9521,37.2815,58.4657,
-12.7341,32.1419,-139.3491,-252.0478,56.8137,20.3287,-70.0956,-18.4285,-196.5144,1.4034,40.1679,-16.9521,24.4885,43.4657,
2.2659,17.1419,-154.3491,-267.0478,41.8137,35.3287,-85.0956,-3.4285,-211.5144,16.4034,55.1679,-1.9521,13.2238,28.4657,
7.8362,32.1419,-139.3491,-252.0478,56.8137,50.3287,-70.0956,-18.4285,-196.5144,1.4034,70.1679,-11.7544,28.2238,18.6113,
-7.1638,47.1419,-124.3491,-237.0478,68.0775,35.3287,-55.0956,-33.4285,-181.5144,-13.5966,85.1679,-17.1419,38.6911,33.6113,
-14.2035,62.1419,-109.3491,-222.0478,83.0775,45.5485,-40.0956,-48.4285,-166.5144,-28.5966,100.1679,-2.1419,53.6911,48.6113,
-18.1217,56.3236,-121.9524,-207.0478,98.0775,30.5485,-55.0956,-33.4285,-181.5144,-13.5966,85.1679,-17.1419,68.6911,51.4262,
-33.1217,41.3236,-136.9524,-222.0478,83.0775,45.5485,-70.0956,-24.488,-196.5144,-15.6725,70.1679,-2.1419,53.6911,52.8951,
-45.0589,26.4476,-151.9524,-237.0478,70.5271,60.5485,-55.0956,-39.488,-181.5144,-30.6725,85.1679,12.8581,38.6911,53.8744,
-60.0589,41.4476,-166.9524,-252.0478,55.5271,45.5485,-40.0956,-54.488,-166.5144,-45.6725,100.1679,12.7337,23.6911,38.8744,
-45.0589,46.0386,-180.2345,-267.0478,40.5271,30.5485,-55.0956,-39.488,-181.5144,-30.6725,85.1679,-2.2663,8.6911,40.161,
-30.0589,61.0386,-165.2345,-252.0478,55.5271,45.5485,-40.0956,-24.488,-166.5144,-15.6725,100.1679,0.97976,23.6911,55.161,
-45.0589,76.0386,-154.7667,-237.0478,70.5271,60.5485,-25.0956,-39.488,-176.3164,-30.6725,115.1679,-14.0202,38.6911,70.161,
-30.0589,61.0386,-139.7667,-242.4353,85.5271,45.5485,-10.0956,-24.488,-161.3164,-15.6725,101.3824,-29.0202,53.6911,85.161,
-45.0589,46.0386,-154.7667,-257.4353,70.5271,60.5485,-25.0956,-9.488,-151.8284,-16.6527,86.3824,-14.0202,38.6911,79.3417,
-30.0589,34.7734,-167.0112,-253.2104,55.5271,63.1796,-40.0956,-5.3871,-166.8284,-1.6527,71.3824,-29.0202,23.6911,64.3417,
-45.0589,49.7734,-152.0112,-238.2104,70.5271,78.1796,-25.0956,-20.3871,-151.8284,-16.6527,86.3824,-44.0202,38.6911,79.3417,
-30.0589,64.7734,-167.0112,-253.2104,85.5271,93.1796,-10.0956,-19.5911,-154.7672,-31.6527,101.3824,-29.0202,53.6911,94.3417,
-15.0589,49.7734,-182.0112,-268.2104,70.5271,108.1796,-25.0956,-5.388,-169.7672,-16.6527,86.3824,-14.0202,38.6911,79.3417,
-30.0589,64.7734,-167.0112,-253.2104,85.5271,123.1796,-10.0956,4.4078,-154.7672,-6.3664,95.5048,-4.4078,53.6911,94.3417,
-15.0589,49.7734,-152.0112,-238.2104,100.5271,108.1796,-25.0956,19.4078,-169.7672,8.6336,80.5048,-19.4078,68.6911,109.3417,
-0.058865,34.7734,-137.0112,-223.2104,115.5271,93.1796,-40.0956,34.4078,-184.7672,23.6336,65.5048,-34.4078,83.6911,105.2999,
-15.0589,49.7734,-122.0112,-208.2104,130.5271,78.1796,-55.0956,19.4078,-199.7672,8.6336,59.7516,-49.4078,98.6911,120.2999,
-0.058865,34.7734,-107.0112,-193.2104,145.5271,63.1796,-70.0956,34.4078,-214.7672,23.6336,44.7516,-64.4078,113.6911,135.2999,
14.9411,19.7734,-92.0112,-208.2104,130.5271,78.1796,-85.0956,49.4078,-229.7672,38.6336,29.7516,-79.4078,123.4213,120.2999,
29.9411,4.7734,-77.0112,-223.2104,145.5271,63.1796,-100.0956,64.4078,-244.7672,53.6336,14.7516,-94.4078,138.4213,135.2999,
44.9411,-10.2266,-62.0112,-208.2104,160.5271,48.1796,-115.0956,79.4078,-259.7672,68.6336,-0.24841,-109.4078,153.4213,150.2999,
29.9411,4.7734,-47.0112,-193.2104,175.5271,33.1796,-130.0956,94.4078,-244.7672,83.6336,-15.2484,-124.4078,168.4213,165.2999,
44.9411,-10.2266,-62.0112,-208.2104,160.5271,35.7534,-145.0956,79.4078,-259.7672,68.6336,-30.2484,-109.4078,153.4213,150.2999,
59.9411,-25.2266,-47.0112,-223.2104,145.5271,50.7534,-160.0956,94.4078,-274.7672,83.6336,-45.2484,-99.4232,138.4213,135.2999,
44.9411,-40.2266,-62.0112,-238.2104,130.5271,65.7534,-145.0956,79.4078,-259.7672,68.6336,-30.2484,-84.4232,123.4213,120.2999,
29.9411,-25.2266,-77.0112,-232.6405,115.5271,80.7534,-130.0956,64.4078,-244.7672,53.6336,-15.2484,-69.4232,108.4213,105.2999,
14.9411,-10.2266,-92.0112,-217.6405,100.5271,95.7534,-115.0956,49.4078,-229.7672,38.6336,-0.24841,-54.4232,93.4213,90.2999,
-0.058865,4.7734,-77.0112,-213.0489,85.5271,110.7534,-100.0956,34.4078,-214.7672,23.6336,14.7516,-39.4232,78.4213,75.2999,
-4.4082,15.1833,-92.0112,-228.0489,76.894,95.7534,-115.0956,46.5283,-229.7672,8.6336,-0.24841,-54.4232,90.6069,90.2999,
10.5918,0.1833,-107.0112,-243.0489,61.894,80.7534,-130.0956,61.5283,-244.7672,23.6336,-15.2484,-47.5073,84.7295,105.2999,
20.0807,15.1833,-122.0112,-258.0489,46.894,95.7534,-115.0956,46.5283,-229.7672,8.6336,-0.24841,-32.5073,69.7295,90.2999,
5.0807,30.1833,-137.0112,-243.0489,39.6709,110.7534,-100.0956,31.5283,-214.7672,-6.3664,14.7516,-17.5073,54.7295,75.2999,
13.7144,45.1833,-152.0112,-258.0489,54.6709,95.7534,-85.0956,16.5283,-229.7672,1.9591,22.5299,-26.4471,46.0386,90.2999,
3.9177,30.1833,-167.0112,-273.0489,48.9765,80.7534,-70.0956,1.9591,-214.7672,-1.9591,37.5299,-11.4471,61.0386,83.2603,
-11.0823,15.1833,-182.0112,-288.0489,63.6697,95.7534,-55.0956,1.9591,-199.7672,-11.7548,52.5299,3.5529,76.0386,87.1784,
-26.0823,30.1833,-167.0112,-273.0489,78.6697,110.7534,-40.0956,-13.0409,-184.7672,-26.7548,67.5299,18.5529,61.0386,72.1784,
-41.0823,45.1833,-152.0112,-258.0489,73.465,125.7534,-25.0956,-28.0409,-169.7672,-41.7548,82.5299,14.6932,46.0386,64.6495,
-26.0823,60.1833,-137.0112,-243.0489,88.465,140.7534,-40.0956,-40.1605,-154.7672,-56.7548,70.5271,24.488,61.0386,79.6495,
-24.9781,75.1833,-122.0112,-228.0489,103.465,155.7534,-55.0956,-25.1605,-155.2564,-41.7548,61.2205,9.488,76.0386,94.6495,
-39.9781,90.1833,-137.0112,-243.0489,118.465,170.7534,-40.0956,-19.5906,-170.2564,-26.7548,76.2205,19.5906,91.0386,109.6495,
-54.3645,78.8525,-131.7477,-258.0489,103.465,155.7534,-25.0956,-34.5906,-155.2564,-41.7548,91.2205,9.3057,76.0386,94.6495,
-69.3645,93.8525,-146.7477,-273.0489,88.465,161.1345,-19.101,-49.5906,-140.2564,-56.7548,106.2205,24.3057,61.0386,79.6495,
-54.3645,78.8525,-161.7477,-288.0489,73.465,176.1345,-34.101,-34.5906,-155.2564,-41.7548,91.2205,9.3057,46.0386,86.6883,
-39.3645,93.8525,-146.7477,-273.0489,88.465,191.1345,-19.101,-19.5906,-143.0119,-26.7548,76.2205,-3.9181,61.0386,101.6883,
-54.3645,108.8525,-161.7477,-288.0489,100.4022,206.1345,-4.101,-34.5906,-158.0119,-41.7548,91.2205,-11.2647,46.0386,86.6883,
-39.3645,93.8525,-176.7477,-303.0489,85.4022,191.1345,-19.101,-19.5906,-173.0119,-26.7548,76.2205,3.7353,31.0386,71.6883,
-35.7527,78.8525,-191.7477,-318.0489,70.4022,176.1345,-34.101,-4.5906,-188.0119,-11.7548,61.2205,18.7353,22.0398,76.8935,
-20.7527,63.8525,-206.7477,-333.0489,55.4022,184.6423,-49.101,10.2845,-203.0119,3.2452,46.2205,3.7353,7.0398,70.0365,
-35.7527,78.8525,-191.7477,-318.0489,70.4022,199.6423,-34.101,-4.7155,-188.0119,-11.7548,61.2205,-8.816,22.0398,85.0365,
-50.7527,93.8525,-202.2743,-303.0489,84.7297,184.6423,-19.101,-19.7155,-173.0119,-26.7548,76.2205,-10.2854,11.2647,70.0365,
-35.7527,108.8525,-187.2743,-288.0489,96.4841,169.6423,-4.4078,-34.7155,-158.0119,-37.7123,91.2205,4.7146,26.2647,85.0365,
-50.7527,93.8525,-202.2743,-303.0489,81.4841,154.6423,-19.4078,-19.7155,-173.0119,-22.7123,76.2205,19.7146,17.1414,100.0365,
-35.7527,78.8525,-217.2743,-318.0489,66.4841,169.6423,-34.4078,-4.7155,-188.0119,-7.7123,61.2205,4.7146,2.1414,85.0365,
-20.7527,93.8525,-202.2743,-303.0489,81.4841,184.6423,-24.9781,2.4487,-173.0119,-2.4487,59.2619,-10.2854,17.1414,100.0365,
-35.7527,108.8525,-217.2743,-318.0489,66.4841,199.6423,-12.2445,-12.5513,-158.0119,-17.4487,74.2619,4.7146,12.2445,85.0365,
-20.7527,93.8525,-232.2743,-333.0489,51.4841,184.6423,-27.2445,-27.5513,-173.0119,-32.4487,75.9142,19.7146,27.2445,70.0365,
-35.7527,78.8525,-217.2743,-348.0489,36.4841,169.6423,-42.2445,-12.5513,-188.0119,-17.4487,60.9142,34.7146,25.4678,55.0365,
-20.7527,63.8525,-232.2743,-363.0489,21.4841,154.6423,-57.2445,2.4487,-203.0119,-2.4487,45.9142,19.7146,10.4678,40.0365,
-5.7527,48.8525,-217.2743,-378.0489,7.3466,169.6423,-72.2445,2.4492,-194.4381,-2.4492,32.8149,4.7146,17.1424,27.9165,
-20.7527,63.8525,-202.2743,-363.0489,22.3466,184.6423,-57.2445,-12.5508,-179.4381,-17.4492,47.8149,19.7146,32.1424,42.9165,
