"AF3","AF4","F3","F4","F7","F8","FC5","FC6","O1","O2","P7","P8","T7","T8",
33.7303,-47.9827,195.2565,322.5766,152.4993,146.7988,-33.7303,66.0357,-367.2337,-53.6836,-227.5615,-405.24,-164.8514,143.9482,
42.2816,-49.8828,204.7578,331.1279,145.8482,131.7988,-42.2816,69.8365,-372.9343,-46.0822,-223.7607,-420.24,-150.5987,139.1979,
27.2816,-59.8599,189.7578,316.1279,141.5725,116.7988,-27.2816,54.8365,-373.41,-61.0822,-238.7607,-435.24,-165.5987,124.1979,
42.2816,-55.5837,204.7578,323.5267,156.5725,101.7988,-17.5778,57.484,-358.41,-54.6337,-224.7106,-445.1459,-162.9509,138.2471,
31.8298,-47.0326,199.0573,338.5267,159.1507,86.7988,-2.5778,57.484,-343.41,-57.484,-209.7106,-430.1459,-158.2004,134.4465,
46.8298,-32.0326,214.0573,345.8557,174.1507,71.7988,9.5017,72.484,-328.41,-42.484,-194.7106,-415.1459,-143.2004,149.4465,
61.8298,-35.6304,229.0573,354.8818,184.8045,56.7988,6.1761,87.484,-313.41,-27.484,-179.7106,-400.4888,-128.2004,164.4465,
76.8298,-20.6304,241.8139,369.134,181.0037,41.7988,11.8767,102.484,-298.41,-12.484,-164.7106,-385.4888,-123.9949,178.1539,
91.8298,-22.8037,256.8139,364.8587,184.3295,26.7988,-3.1233,117.484,-309.7493,2.516,-179.7106,-400.4888,-108.9949,193.1539,
95.0153,-17.1029,244.1889,373.4097,172.9278,11.7988,-2.8504,105.4671,-294.7493,2.8504,-191.9307,-412.366,-116.8689,190.9808,
104.5168,-8.5513,249.8898,377.2108,171.0275,-3.2012,-2.8504,109.2673,-279.7493,2.8504,-201.4321,-412.366,-123.5197,175.9808,
89.5168,-23.2789,234.8898,365.3334,164.8514,-18.2012,12.1496,94.2673,-264.7493,-12.1496,-186.4321,-397.366,-138.5197,163.9015,
90.7391,-9.9769,241.8135,356.7818,170.5523,-33.2012,-2.8504,109.2673,-249.7493,2.8504,-181.954,-382.366,-123.9949,178.9015,
94.0654,-14.2522,256.8135,371.7818,163.4258,-48.2012,-17.8504,120.6695,-247.9895,14.2522,-196.954,-368.6592,-114.0182,190.0299,
79.0654,-17.1026,241.8135,366.7592,148.4258,-63.2012,-2.8504,105.6695,-233.7373,-0.74781,-184.3293,-353.6592,-129.0182,175.0299,
94.0654,-2.3753,249.4151,354.8816,144.8985,-78.2012,-17.8504,104.042,-248.7373,2.3753,-199.3293,-368.6592,-125.8952,174.3533,
79.0654,2.3755,234.4151,369.8816,130.6464,-93.2012,-2.8504,92.6396,-233.7373,-12.6247,-192.4056,-353.6592,-134.4465,179.104,
94.0654,14.7274,219.4151,371.0343,134.4463,-108.2012,-17.8504,107.6396,-248.4647,-14.7274,-207.4056,-361.5328,-137.2969,185.7546,
109.0654,-0.27262,234.4151,356.0343,122.0946,-123.2012,-32.8504,122.6396,-263.4647,0.27262,-222.4056,-376.5328,-125.8952,173.4029,
94.0654,14.7274,245.6141,371.0343,134.4463,-138.2012,-21.3786,107.6396,-248.4647,-14.7274,-207.4056,-361.5328,-124.9448,170.5523,
79.0654,-0.27262,230.6141,359.1576,119.4463,-125.4198,-6.3786,92.6396,-233.4647,-29.7274,-192.4056,-346.5328,-139.9448,155.5523,
74.1121,6.651,215.6141,354.4064,119.7191,-140.4198,-6.651,81.7133,-218.4647,-22.8037,-201.4321,-331.5328,-142.5226,150.1238,
69.3614,18.053,200.6141,359.1576,127.3201,-155.4198,-18.053,69.3614,-203.4647,-34.2053,-202.3823,-316.5328,-139.6722,144.4231,
84.3614,15.6773,207.6082,352.9813,140.1476,-170.4198,-18.528,84.0887,-188.4647,-19.2053,-187.3823,-309.2745,-124.6722,159.4231,
80.2884,3.3254,195.2568,357.732,125.1476,-185.4198,-3.528,78.3876,-173.4647,-30.8799,-172.3823,-294.2745,-118.2938,162.0014,
80.7631,11.4018,198.5822,351.5564,110.1476,-200.4198,-11.4018,82.663,-158.4647,-31.3551,-187.3823,-289.7962,-125.4202,154.875,
95.0149,16.1525,213.5822,348.7059,120.669,-215.4198,-26.4018,91.2143,-173.4647,-16.3551,-202.3823,-304.7962,-115.9185,169.875,
91.6897,24.2291,210.4586,363.4329,124.945,-230.4198,-24.2291,85.9884,-188.4647,-24.2291,-217.3823,-319.7962,-130.9185,175.3035,
98.8163,19.9531,215.6846,371.5095,125.4204,-245.4198,-19.9531,90.2643,-202.3825,-19.9531,-232.3823,-324.0017,-130.1709,169.1267,
88.3641,16.1525,203.3324,365.8086,110.4204,-237.5382,-16.1525,82.6636,-187.3825,-30.4049,-239.4384,-309.0017,-130.1709,161.526,
103.0912,20.4283,210.4584,358.6821,105.9419,-252.5382,-20.4283,90.7395,-196.2064,-26.1296,-249.4151,-324.0017,-130.6461,164.8514,
111.6428,16.6277,225.4584,369.1344,115.4433,-265.5674,-16.6277,93.5897,-188.6053,-17.578,-247.5148,-339.0017,-122.0946,161.0504,
96.6428,12.3519,210.4584,354.1344,100.4433,-250.5674,-12.3519,78.5897,-177.6783,-32.578,-254.6408,-351.5562,-137.0946,146.0504,
81.6428,14.7274,195.4584,339.1344,85.4433,-257.9662,-14.7274,63.5897,-192.6783,-47.578,-269.6408,-357.7322,-146.7984,131.0504,
72.212,7.6012,190.981,329.7028,83.6138,-272.9662,-7.6012,55.1089,-184.3293,-50.358,-255.5909,-356.3069,-152.0243,136.822,
75.062,13.3023,190.0304,329.703,93.115,-273.6437,-13.3023,58.9097,-169.3293,-40.8563,-240.5909,-341.3069,-137.0243,145.3733,
90.062,15.2026,205.0304,327.8027,106.4171,-270.793,-17.1029,73.9097,-154.3293,-25.8563,-225.5909,-331.6029,-122.0243,155.8247,
85.5141,7.6012,200.4824,318.3015,105.4669,-265.0924,-7.6012,76.0122,-139.3293,-24.7038,-214.734,-327.8025,-110.2174,150.124,
95.4905,2.3753,210.4589,321.6267,118.294,-276.9691,-2.3753,75.5367,-142.9978,-12.8271,-213.3091,-319.7264,-105.9419,159.1505,
80.4905,-8.5513,202.3821,329.703,106.4166,-290.7463,8.5513,62.7103,-134.9214,-27.8271,-206.1831,-328.7526,-113.0683,144.1505,
65.4905,-4.2755,187.3821,327.3275,104.992,-291.2215,4.2755,59.3849,-127.7955,-42.8271,-221.1831,-337.7789,-128.0683,129.1505,
72.2111,5.7009,202.3821,332.5535,119.992,-288.8463,-5.7009,71.2612,-135.8716,-33.2553,-236.1831,-333.5034,-115.9188,141.5725,
57.2111,-3.3254,187.3821,317.5535,104.992,-296.9226,3.3254,56.2612,-149.6488,-48.2553,-244.6639,-339.6794,-130.9188,126.5725,
51.7833,-10.9268,178.1534,302.5535,97.3903,-311.9226,10.9268,41.2612,-164.6488,-56.5338,-250.365,-350.131,-144.8981,111.5725,
44.1824,-15.6775,176.2529,290.2714,104.0418,-316.8755,15.6775,35.6304,-155.3497,-62.2349,-256.0661,-335.131,-139.197,123.0447,
43.2322,-13.7775,172.4521,291.2211,98.3403,-306.4243,13.7775,24.2284,-159.1505,-75.5372,-264.6174,-321.6267,-133.4963,125.8952,
58.2322,-7.126,187.4521,306.2211,104.9917,-309.2748,7.126,39.2284,-174.1505,-60.5372,-276.9693,-330.178,-118.4963,140.8952,
43.2322,-3.8008,173.8781,310.7001,91.2143,-294.2748,3.8008,32.3047,-189.1505,-75.5372,-291.9693,-315.178,-133.4963,127.3203,
48.4581,5.7009,179.5788,304.999,87.4139,-295.4971,-5.7009,33.2549,-200.482,-70.3113,-305.9489,-321.1512,-137.7719,117.8186,
58.4346,8.0761,189.5552,303.5737,87.8893,-309.2745,-8.0761,28.0299,-185.482,-59.3845,-290.9489,-336.1512,-122.7719,116.3933,
47.0328,11.8767,174.5552,288.5737,74.5868,-320.6763,-11.8767,16.6281,-170.482,-68.8859,-275.9489,-336.829,-126.8451,101.3933,
62.0328,21.8534,189.5552,291.6967,86.4642,-324.0017,-21.8534,31.6281,-155.482,-53.8859,-270.7935,-321.829,-111.8451,116.3933,
69.3607,18.0528,204.5552,304.9988,93.115,-309.0017,-18.0528,46.6281,-140.482,-38.8859,-255.7935,-306.829,-96.8451,131.3933,
68.4112,9.5017,206.1831,298.348,95.0153,-317.3509,-9.5017,56.0586,-125.482,-27.5542,-263.1923,-319.2512,-87.4141,140.6223,
65.5601,0.95015,204.2828,287.8957,94.0649,-328.7526,-0.95015,43.7065,-127.3207,-38.0061,-278.1923,-334.2512,-86.4642,131.1209,
50.5601,4.2755,189.2828,282.6704,82.1884,-314.025,-4.2755,28.7065,-129.6958,-53.0061,-287.4209,-319.2512,-101.4642,116.1209,
56.5338,10.9268,196.2064,284.5707,85.9886,-314.9754,-10.9268,40.3816,-144.6958,-49.883,-291.2215,-304.2512,-92.6398,125.8952,
42.7573,3.8006,181.2064,274.5939,77.9124,-320.2013,-3.8006,26.6041,-140.6226,-60.8098,-292.6469,-289.7962,-100.716,113.0685,
48.9329,9.0263,171.5024,276.9698,88.8395,-321.6264,-9.0263,20.428,-132.5462,-59.3843,-277.6469,-304.7962,-87.8891,108.7923,
63.9329,13.7772,186.5024,290.2718,103.8395,-314.0253,-13.7772,32.7802,-121.1444,-44.3843,-262.6469,-306.4241,-72.8891,117.3439,
54.6335,5.2259,178.1539,275.2718,89.7896,-309.2745,-5.2259,24.2288,-114.4934,-59.3843,-272.2186,-319.7259,-79.3378,102.3439,
58.4341,7.1262,181.9545,273.1685,91.6895,-323.527,-7.1262,34.6807,-127.7955,-56.5338,-287.2186,-334.7259,-74.5868,106.8918,
43.4341,12.3519,171.9774,282.1953,82.6632,-308.527,-12.3519,19.6807,-118.7687,-67.4604,-299.2974,-319.7259,-82.6632,99.7663,
38.956,23.7537,168.1768,272.6933,81.7133,-293.527,-19.0032,19.0032,-103.7687,-66.5105,-287.8961,-304.7259,-84.5635,112.1179,
53.956,27.0793,183.1768,275.0686,89.7889,-308.527,-27.0793,34.0032,-112.5934,-51.5105,-293.122,-319.7259,-69.5635,127.1179,
62.7099,37.0557,190.0308,287.8961,79.813,-323.527,-37.0557,39.9064,-127.5934,-47.5075,-292.6466,-333.5031,-57.009,119.7196,
64.1348,39.4314,196.2062,286.4703,83.1377,-330.178,-47.033,51.7831,-122.0948,-39.4314,-284.571,-322.5768,-43.232,123.0443,
57.4842,31.83,183.8543,278.8699,86.9389,-315.178,-32.033,39.4312,-107.0948,-46.0824,-273.1685,-307.5768,-46.0824,123.045,
59.3847,34.6805,178.1537,272.2184,89.7894,-316.8759,-33.7305,33.7305,-92.0948,-47.983,-279.82,-322.5768,-47.983,121.144,
74.1116,28.5046,193.1537,279.345,91.2147,-331.8759,-34.2055,48.7305,-107.0948,-32.983,-285.9958,-337.5768,-38.0061,123.5201,
59.1116,13.5046,187.6547,275.069,76.2147,-346.8759,-19.2055,33.7305,-105.9416,-47.983,-295.0223,-352.5768,-53.0061,108.5201,
59.8592,14.2522,190.0299,278.3942,69.3611,-361.8759,-14.2522,24.704,-90.9416,-60.81,-282.1953,-346.8056,-55.1087,93.5201,
69.8368,24.2288,201.9073,288.3709,82.1884,-371.0343,-29.2522,36.5814,-75.9416,-45.81,-267.1953,-333.9783,-40.1087,101.1914,
67.9358,34.6805,192.4061,280.7695,84.0881,-370.0841,-34.6805,42.2816,-81.2378,-42.2816,-265.5676,-324.4771,-34.6805,103.0919,
70.786,30.8799,200.0068,279.82,95.4903,-384.3365,-30.8799,48.9324,-96.2378,-30.8799,-280.5676,-326.3774,-31.8302,105.9421,
60.8091,27.5547,188.1301,288.846,95.9652,-381.0109,-27.5547,38.0056,-81.2378,-38.0061,-265.5676,-313.5503,-31.3553,108.3169,
71.7359,21.3784,187.6551,284.5705,89.7889,-396.0109,-42.5547,41.3312,-71.7364,-28.9796,-250.5676,-315.9256,-21.3784,117.3439,
73.6364,16.6277,196.206,287.4209,89.7896,-406.1904,-57.5547,51.7829,-56.7364,-22.3286,-243.7142,-301.6734,-16.6277,115.4429,
69.8356,25.179,188.6055,288.3706,85.9888,-415.6916,-44.1824,54.6333,-41.7364,-25.179,-234.2125,-292.1717,-31.6277,105.9416,
78.3879,20.4283,191.4555,282.6704,78.3879,-430.6916,-50.8329,48.9331,-56.7364,-20.4283,-244.6641,-307.1717,-32.7804,100.2414,
75.062,24.704,184.33,284.0951,77.9127,-415.6916,-35.8329,38.956,-71.7364,-32.3052,-234.6875,-314.5002,-24.704,89.3144,
70.3111,21.8534,181.4788,269.0951,72.2118,-416.1666,-37.0557,35.1559,-77.9122,-31.3548,-239.4384,-304.9988,-21.8534,83.6136,
64.6099,29.4548,180.5291,258.4416,72.212,-417.1167,-52.0557,28.5044,-69.3609,-31.3551,-233.7373,-304.0486,-28.5044,84.5637,
71.7366,44.4548,169.6019,254.1656,78.3879,-402.1167,-52.7337,31.83,-60.3349,-45.1321,-218.7373,-308.3242,-31.83,85.989,
71.7371,29.4548,173.4029,241.8135,69.8363,-408.0902,-58.4341,36.581,-71.7362,-41.3315,-221.8602,-323.3242,-24.2288,85.0387,
60.8098,26.6041,170.0769,256.8135,80.7627,-401.9144,-43.4341,32.305,-56.7362,-31.3551,-206.8602,-308.3242,-26.6041,84.5632,
59.8594,38.0059,158.6756,250.8404,76.9625,-416.9144,-58.4341,29.4548,-49.4081,-29.4548,-219.4854,-296.4474,-39.9066,82.663,
67.4606,26.6041,163.4261,235.8404,61.9625,-419.017,-73.4341,35.1561,-51.3084,-26.6041,-228.0365,-306.8993,-40.8565,86.4635,
65.5605,19.9531,149.1743,223.2862,50.3582,-417.1165,-84.5635,30.4054,-36.3084,-32.3052,-213.0365,-291.8993,-40.8563,77.9122,
75.0618,15.2023,159.6255,214.7344,65.3582,-432.1165,-99.5635,36.1056,-29.4548,-17.3052,-202.3823,-301.1984,-25.8563,78.8624,
62.7097,16.1527,154.8745,224.2359,61.7597,-447.1165,-91.2145,32.305,-16.1527,-29.4548,-187.3823,-297.3974,-29.4548,69.3609,
55.1089,9.5015,148.2237,209.2359,50.3584,-462.1165,-76.2145,21.8536,-9.5015,-44.4548,-178.6284,-304.9985,-44.4548,54.3609,
70.1089,10.9268,163.2237,217.1101,65.3584,-477.1165,-61.2145,35.6306,-10.9268,-29.4548,-163.6284,-319.9985,-32.7804,66.9857,
85.1089,22.8037,168.1768,228.9862,62.7103,-492.1165,-62.7099,36.1058,-25.9268,-22.8037,-176.7283,-334.9985,-37.0562,62.7103,
84.5637,23.7539,169.1274,228.036,57.0088,-494.0792,-77.7099,34.2053,-40.9268,-23.7539,-191.7283,-349.9985,-28.5048,64.6099,
74.587,27.0793,170.5525,239.913,66.0351,-479.3521,-62.7099,34.6805,-31.8302,-27.0793,-188.6055,-334.9985,-28.0297,70.7865,
75.5372,29.9297,162.0007,235.1627,58.4341,-494.3521,-52.7332,44.1826,-37.5309,-29.9297,-194.3062,-334.9287,-43.0297,70.7867,
81.2381,22.3286,166.7517,230.4117,57.4837,-499.3051,-66.9857,35.6306,-42.2818,-22.3286,-200.9574,-335.8791,-58.0297,65.0849,
66.2381,22.8033,151.7517,226.1359,53.2089,-484.3051,-66.5109,20.6306,-27.2818,-37.3286,-185.9574,-320.8791,-59.8597,50.0849,
65.086,27.0793,149.6488,221.8609,49.8828,-479.3516,-75.537,27.0793,-27.0793,-30.8799,-185.7544,-308.3239,-52.7335,59.3847,
56.5345,34.6809,143.948,228.5116,40.3813,-464.3516,-71.7364,28.0297,-28.0297,-35.6308,-172.4528,-308.3244,-67.7335,54.6338,
49.4076,37.0559,128.948,220.4348,32.3054,-449.3516,-86.7364,13.0297,-13.0297,-50.6308,-164.3764,-293.3244,-81.7135,42.7564,
57.4844,22.0559,129.6955,205.4348,41.3312,-464.3516,-101.7364,14.7272,-14.7272,-41.3317,-179.3764,-304.5238,-70.7865,49.8832,
44.6576,10.4514,114.6955,190.4348,43.7067,-479.3516,-86.7364,8.5515,-8.5515,-53.2086,-179.5788,-308.7996,-84.5637,35.1556,
53.6838,7.126,117.3439,181.9538,47.0326,-494.3516,-71.7364,9.0267,-7.126,-43.232,-164.5788,-300.7232,-78.3876,45.1327,
54.1583,-2.8504,124.4696,186.2298,38.0061,-509.2818,-86.7364,9.5012,2.8504,-42.757,-149.5788,-295.4973,-65.5605,55.1092,
57.9596,-5.7009,120.6697,171.2298,36.106,-524.2818,-101.7364,19.9537,5.7009,-43.7067,-140.6226,-298.3477,-60.8098,50.3584,
72.9596,5.7009,135.6697,181.4791,47.5073,-523.534,-94.0652,34.9537,-5.7009,-28.7067,-139.6726,-293.5972,-45.8098,65.3584,
64.135,8.0761,120.6697,189.5552,33.7303,-508.534,-94.5401,30.8796,-8.0761,-28.0294,-137.2969,-295.0221,-60.8098,63.1851,
64.1352,2.3755,117.3434,180.0535,38.481,-523.534,-108.7923,27.0793,-2.3755,-36.5807,-137.2972,-310.0221,-66.9859,48.1851,
51.7835,-8.0764,111.643,170.5525,23.481,-538.534,-109.7427,20.428,8.0764,-42.2816,-139.1974,-318.7762,-77.4373,33.1851,
43.2318,-2.3753,97.3908,165.8013,8.481,-540.1612,-115.4433,12.8271,2.3753,-46.0824,-140.1471,-303.7762,-92.4373,21.3782,
58.2318,-8.5513,112.3908,167.2269,21.8534,-544.437,-126.3704,20.9034,8.5513,-31.0824,-131.1209,-297.3976,-79.8125,29.455,
52.2585,-10.4516,105.4667,165.327,12.3519,-539.686,-111.3704,10.4516,23.5513,-45.6072,-129.2206,-290.7463,-94.8125,18.0532,
56.5338,-5.2259,109.7429,150.5994,5.2259,-539.2113,-110.6928,9.0265,15.6773,-40.3816,-144.2206,-305.7463,-109.8125,29.9297,
59.8597,-6.651,120.669,159.6257,6.651,-527.3343,-118.7692,6.651,29.455,-26.6043,-129.221,-297.3976,-98.8159,38.956,
53.6838,-1.4251,107.8419,174.6257,1.4251,-512.3343,-111.643,10.9266,44.455,-28.9796,-114.221,-282.3976,-99.2909,26.1289,
61.7597,0,122.8419,184.3293,0,-508.3312,-121.6196,25.9266,59.455,-15.2023,-105.4669,-267.3976,-103.5666,33.2558,
47.983,12.8269,114.4927,189.5554,-11.8769,-493.3312,-119.2441,11.8769,65.0851,-27.0793,-120.1945,-252.3976,-118.5666,35.6304,
52.2587,27.8269,114.018,193.8312,-13.302,-478.8769,-120.6693,13.302,80.0851,-24.7038,-114.0185,-237.3976,-130.1707,37.0555,
47.9825,12.8269,123.0443,181.0039,-12.8269,-493.8769,-125.8949,15.678,86.9392,-25.179,-115.4436,-243.714,-130.6459,24.2291,
38.481,9.0263,113.5428,171.5024,-8.0764,-505.0058,-110.8949,8.0764,86.9387,-34.6805,-108.7923,-228.714,-135.3964,16.6274,
51.7835,11.8769,122.0948,175.303,-11.8769,-520.0058,-114.4932,13.7772,84.0881,-19.6805,-112.5929,-238.0131,-127.7952,23.2787,
56.0591,16.1525,117.8184,187.1797,-14.2522,-512.132,-109.2677,14.2522,99.0881,-18.0528,-101.6666,-239.4384,-129.2206,21.8538,
65.0856,10.9266,118.2938,176.2534,-10.9266,-510.7067,-118.2938,18.5277,99.2909,-17.5778,-102.1415,-237.0627,-127.7957,29.9295,
70.7865,4.2758,133.2938,176.2529,-13.7772,-522.1089,-122.0948,23.2787,84.2909,-4.2758,-105.9421,-240.8638,-122.0948,34.6805,
58.4348,14.7272,123.9947,183.8541,-12.8269,-514.5073,-107.0948,12.8269,99.2909,-16.6274,-103.0914,-228.5116,-137.0948,19.6805,
59.3849,18.528,123.045,181.0037,-9.0265,-529.5073,-114.4934,12.8271,114.2909,-17.578,-116.3937,-228.5114,-141.0975,9.0265,
58.91,33.528,122.57,196.0037,-15.2023,-523.5335,-102.6162,15.2023,120.6693,-16.1523,-110.2174,-214.7344,-137.7719,21.854,
65.0858,37.5309,125.8952,191.4559,-19.4783,-529.7098,-90.7395,14.7274,105.6693,-14.7274,-120.1943,-227.5615,-146.7984,24.2293,
66.036,22.5309,133.4966,176.4559,-20.4285,-544.7098,-103.0914,9.9766,90.6693,-9.0263,-133.4966,-238.9635,-146.7986,15.6775,
67.936,22.329,126.8455,182.9044,-17.578,-544.9122,-88.0914,11.8767,105.6693,-11.8767,-118.4966,-223.9635,-135.3966,17.5776,
67.4611,18.053,120.6693,173.8774,-22.8035,-559.9122,-97.8657,12.3521,90.6693,-12.3521,-112.1177,-223.2855,-127.3205,18.053,
59.8594,20.9037,117.819,188.1303,-9.5015,-544.9122,-83.6133,9.5015,99.766,-15.2023,-97.1177,-219.4854,-132.0715,14.252,
66.9861,35.9037,111.6432,203.1303,-3.3256,-529.9122,-76.4871,10.9272,84.766,-20.4283,-112.1177,-214.2595,-137.2969,3.3256,
81.9861,41.3319,126.6432,205.7079,-9.0265,-527.8095,-85.9886,24.2288,69.766,-9.0265,-127.1177,-229.2595,-126.8451,9.0265,
76.4876,44.1821,123.0445,210.4589,-13.7775,-524.9589,-73.6369,27.0791,84.766,-12.8271,-122.0946,-221.8606,-135.3966,12.8271,
65.5601,38.956,122.5698,195.4589,-16.1529,-527.3343,-88.6369,20.903,99.766,-12.3519,-133.0216,-219.4851,-143.473,12.3519,
58.9095,38.9567,126.3701,190.0302,-15.2023,-517.8327,-93.1148,13.302,109.268,-13.302,-131.1211,-209.9835,-139.6722,15.2023,
65.5605,43.707,121.6194,190.0308,-12.3519,-502.8327,-78.1148,12.3519,98.8159,-17.1024,-124.4696,-204.2824,-145.3733,16.1525,
67.9356,34.6802,131.5956,184.8047,-14.7274,-508.8066,-66.0357,14.7274,83.8159,-14.7274,-139.4696,-219.2824,-151.5493,15.6773,
59.8597,49.6802,128.2702,199.8047,-15.2026,-493.8066,-51.0357,16.1525,91.2143,-16.1525,-126.3704,-204.2824,-152.0245,15.2026,
62.7097,50.358,124.4698,209.9835,-24.7038,-492.1789,-66.0357,15.2028,76.2143,-12.3521,-140.6226,-189.2824,-153.9246,12.3521,
67.9353,44.1819,132.5462,221.8604,-25.179,-486.9532,-81.0357,12.8273,67.9353,-12.8273,-141.0977,-174.2824,-153.4499,13.7772,
68.4105,52.2583,119.7189,215.6843,-20.9032,-496.9294,-66.0357,19.0029,82.9353,-18.053,-126.0977,-159.2824,-153.9246,18.053,
63.6607,37.2583,116.8689,200.6843,-28.5046,-511.9294,-75.062,14.2522,97.9353,-14.2522,-135.8718,-174.2824,-151.0742,15.203,
65.0856,37.5307,128.7456,215.6843,-18.5277,-496.9294,-60.062,11.8769,110.6926,-11.8769,-123.0447,-168.6518,-140.1474,17.5778,
63.1851,33.7303,123.9953,208.5581,-25.1788,-502.1554,-66.0357,16.6281,95.6926,-14.7274,-135.3966,-170.5523,-151.5493,14.7274,
52.7332,23.2785,118.294,206.6583,-31.83,-514.5075,-77.4375,18.528,96.4404,-10.9268,-143.9482,-179.1038,-163.901,10.9268,
53.2086,38.0063,121.6192,221.3852,-25.6542,-499.5075,-68.411,14.252,101.6663,-12.3521,-132.071,-166.2767,-159.6255,12.3521,
63.1853,30.8799,136.3472,217.1094,-39.4314,-513.5573,-83.411,9.9766,89.7894,-9.9766,-139.1974,-172.4528,-154.3998,20.428,
64.135,22.3286,129.6958,216.1593,-45.1325,-515.4579,-80.2882,13.7775,104.7894,-13.7775,-133.4963,-159.1505,-162.9511,17.578,
67.9358,8.0764,128.7452,202.857,-33.7305,-530.4579,-76.4873,23.2787,103.0919,-8.0764,-137.2972,-172.4528,-159.1503,20.428,
69.8359,2.3753,141.0971,211.4083,-29.9297,-545.4579,-65.0854,23.2785,93.5902,-2.3753,-131.596,-179.1038,-149.6491,34.6807,
55.5837,17.3753,126.8449,226.4083,-39.4314,-530.4579,-62.2349,16.6279,104.0414,-16.6279,-130.6459,-164.1038,-164.6491,27.0788,
51.3081,27.5538,127.3198,240.3884,-45.6077,-515.4579,-77.2349,21.8534,89.0414,-13.3023,-145.6459,-149.1743,-171.0275,13.3023,
57.4844,31.8302,127.7957,254.1658,-41.3317,-505.9562,-64.1357,28.9796,74.0414,-16.6279,-154.3998,-134.1743,-164.8516,16.6279,
65.5603,27.5545,125.4198,242.2889,-37.0559,-515.9328,-50.358,27.5545,59.0414,-20.9032,-161.5258,-141.5729,-170.0773,20.9032,
50.5603,12.5545,126.3704,227.2889,-43.707,-530.9328,-52.2585,12.5545,53.2084,-8.5513,-176.5258,-156.5729,-174.828,13.3018,
40.3813,18.5277,116.3939,231.3623,-36.5812,-515.9328,-37.2585,13.7772,66.0355,-13.7772,-166.7519,-141.5729,-168.6522,15.6771,
55.3813,16.1525,131.3939,236.5882,-21.5812,-505.4808,-28.5046,28.7772,51.0355,-16.1525,-173.8777,-146.3232,-153.6522,29.455,
64.6104,13.302,138.7223,239.4382,-13.302,-503.5807,-19.9533,33.2549,38.0063,-19.0034,-167.2271,-134.9217,-146.3234,25.6537,
52.2578,16.1527,128.2704,237.5375,-18.053,-511.1819,-21.8536,22.8031,38.0054,-16.1527,-177.6785,-119.9217,-161.3234,16.1527,
53.2086,9.5015,134.9217,250.84,-17.1026,-504.5306,-19.9528,28.5044,23.0054,-9.5015,-183.3794,-118.769,-155.8249,23.7539,
46.5581,8.5513,120.6699,250.8406,-19.0027,-490.2784,-8.5513,21.8538,30.4049,-24.5015,-170.0771,-103.769,-159.6253,28.5051,
61.5581,9.0265,134.4463,240.8635,-11.8767,-505.2784,-23.5513,36.8538,39.4316,-9.5015,-185.0771,-106.8922,-144.6253,43.5051,
65.0858,11.8767,138.2468,255.116,-15.6773,-505.9559,-21.3786,41.3315,54.4316,-11.8767,-195.2561,-105.9419,-145.8485,41.3315,
50.0858,9.9764,123.2468,257.9662,-30.6773,-490.9559,-7.1258,26.3315,39.4316,-26.8767,-208.5586,-114.4934,-160.8485,26.3315,
43.7067,9.5015,126.3706,266.0423,-29.4548,-491.2286,-5.7009,19.0034,24.4316,-38.0059,-223.5586,-128.2704,-175.7782,11.3315,
28.7067,11.4018,111.3706,266.9927,-30.4051,-488.3783,-7.6012,12.3517,15.2023,-50.3584,-220.4357,-125.4202,-180.5291,7.6012,
43.7067,14.7274,126.3706,275.0688,-21.3786,-499.3051,-13.7775,27.3517,13.7775,-35.3584,-205.4357,-123.9949,-165.5291,22.6012,
58.7067,7.126,139.1974,290.0688,-17.5778,-500.2548,-7.126,37.5307,18.5277,-20.3584,-190.4357,-119.2441,-150.5291,34.6809,
46.5574,0.95037,124.1974,283.1454,-24.7043,-495.0296,-0.95037,24.7038,23.7539,-33.2553,-183.3794,-126.3706,-165.5291,19.6809,
47.508,-4.7507,124.4705,282.1953,-24.7036,-498.8295,4.7507,26.6043,14.2526,-30.4045,-180.5285,-138.722,-165.3261,19.0032,
34.6802,-8.0761,115.4433,285.5207,-39.4316,-486.0031,19.7507,11.6043,8.0761,-45.4045,-182.9044,-134.4467,-175.3032,10.9268,
49.6802,-2.3753,128.7454,282.6695,-29.9302,-497.4049,22.3281,22.3281,2.3753,-36.581,-182.9044,-136.347,-160.3032,16.6277,
53.6832,-9.9769,133.4963,289.3212,-24.2288,-512.4049,14.7274,28.9798,9.9769,-26.1291,-173.4029,-132.5464,-146.7988,29.9297,
57.484,1.4251,134.4465,304.3212,-15.6775,-497.4049,29.7274,34.6805,-1.4251,-25.179,-183.8545,-118.2938,-150.5992,44.9297,
68.8864,8.0761,149.4465,311.1748,-8.0761,-482.4049,28.0299,44.1821,-16.4251,-20.4283,-198.8545,-123.9949,-145.8485,45.1321,
53.8864,3.8006,134.4465,308.7991,-23.0761,-467.4049,38.9558,29.4548,-3.8006,-35.4283,-197.6318,-112.1182,-160.5759,30.1321,
45.1321,-11.1994,119.4465,296.9224,-29.9297,-471.7507,36.581,27.0791,11.1994,-48.9326,-189.5552,-123.0445,-165.8018,22.3286,
60.1321,-10.9266,134.4465,305.4737,-14.9297,-462.249,32.7806,42.0791,8.0764,-33.9326,-187.6551,-121.1444,-150.8018,37.3286,
58.4343,1.4251,145.8487,320.4737,-8.0764,-454.6478,29.9295,52.7339,-1.4251,-26.1294,-191.4557,-106.892,-138.2471,51.7831,
70.3115,4.7507,160.8487,335.4737,-4.7507,-469.6478,36.1058,67.7339,-5.7011,-11.1294,-189.0805,-113.0683,-123.2471,58.9097,
60.3351,-6.1761,145.8487,337.7787,-12.8269,-470.8005,34.6809,56.5345,6.1761,-26.1294,-188.6051,-114.4932,-132.5462,43.9097,
75.3351,0.95015,147.2736,332.5532,-0.95015,-463.6743,28.5046,62.7099,-3.8008,-21.8538,-198.5819,-109.2677,-129.221,58.9093,
88.8395,-6.1761,162.2736,341.5797,6.1761,-478.6743,42.2816,70.7865,-13.7772,-7.126,-208.5583,-123.0447,-117.3439,66.036,
81.2381,-6.1758,156.2999,349.1807,6.1758,-478.4015,57.2816,63.1851,-8.0761,-20.4283,-196.2064,-116.3937,-116.3937,54.634,
85.989,-9.9764,169.6019,350.131,7.1262,-486.953,60.3349,72.6865,-23.0761,-7.1262,-196.2064,-121.1442,-106.8922,68.8859,
82.188,-12.8271,166.7517,352.9813,5.2259,-485.0527,66.9857,68.8864,-25.1788,-5.2259,-211.2064,-123.9949,-111.6428,68.8864,
83.6131,-12.3519,154.8752,353.4564,8.5513,-486.4778,67.4608,66.5109,-10.1788,-12.3519,-226.2064,-112.1179,-112.1179,61.7595,
79.8127,-20.9032,155.8253,358.2072,1.9003,-481.7271,60.8098,71.2616,-1.9003,-14.2524,-241.2064,-97.1179,-111.1678,68.411,
72.6863,-17.5778,147.749,350.1308,-7.126,-479.3516,65.0851,68.8857,7.126,-23.2787,-236.1128,-85.0384,-120.1941,70.7865,
87.6863,-23.7537,162.749,339.204,4.7507,-494.3516,53.2084,76.0119,-7.6009,-8.2787,-241.3383,-100.0384,-105.1941,78.8626,
75.5372,-28.0294,168.652,347.2804,5.2259,-509.3516,66.9861,61.0119,-5.2259,-17.5776,-246.5644,-115.0384,-107.8422,64.1354,
66.9854,-19.4781,153.652,349.1804,-1.4251,-510.7067,77.4373,56.5345,1.4251,-32.5776,-255.1157,-103.0914,-118.2938,49.8832,
81.9854,-19.0029,167.2271,363.9085,3.8006,-507.3813,75.0622,71.5345,-3.8006,-17.5776,-249.8901,-104.5165,-103.2938,64.6104,
87.4137,-20.9034,159.6257,374.3601,8.5513,-492.3813,90.0622,76.0119,-10.4516,-8.5513,-243.239,-93.115,-100.7162,74.1121,
86.4635,-29.4548,160.5754,366.7587,6.6512,-486.4781,97.8653,67.4606,-12.3521,-6.6512,-257.4912,-105.4669,-98.8157,80.7631,
77.9127,-32.3052,159.6257,372.4594,-5.7011,-479.8266,86.4638,59.8597,2.6479,-15.2026,-252.7405,-111.1676,-96.9156,74.1121,
92.6403,-23.2785,166.7521,378.6359,9.2989,-473.6505,93.5902,74.8597,-12.3521,-10.9268,-253.2157,-116.3937,-95.49,79.3378,
81.2378,-38.2785,164.8516,363.6359,17.5778,-488.6505,79.3371,69.8361,-27.3521,-17.5778,-268.2157,-131.3937,-109.7427,65.0856,
66.5109,-53.2785,149.8516,357.257,22.8037,-498.83,87.4137,54.8361,-22.8037,-30.4049,-267.9428,-124.4701,-114.0182,53.2084,
74.5868,-66.0353,152.4993,363.4331,18.528,-488.8529,74.5868,44.1821,-18.528,-24.2288,-252.9428,-116.3933,-102.1413,57.4846,
80.7633,-58.9093,167.4993,370.5595,22.8037,-480.777,89.5868,57.009,-32.3052,-22.8037,-237.9428,-117.8188,-94.0649,65.5601,
87.4144,-43.9093,165.3268,375.3098,26.6041,-465.777,104.5868,60.8094,-26.6041,-32.305,-229.9368,-102.8188,-101.6663,69.3614,
96.4402,-46.0827,167.7014,379.586,17.5778,-477.4518,100.2408,54.6338,-30.8803,-17.5778,-244.9368,-117.8188,-93.59,77.4373,
93.1152,-44.6571,167.2271,394.586,13.302,-462.4518,104.517,57.9591,-29.4548,-13.302,-244.1892,-115.9187,-78.59,75.0622,
95.9652,-48.4579,175.7784,400.9638,14.2522,-447.4518,97.866,70.3111,-44.4548,-14.2522,-244.1889,-116.8689,-73.1617,75.0616,
91.6901,-54.6337,178.1537,400.4893,23.2787,-432.4518,110.6931,64.1352,-47.0326,-23.2787,-237.0627,-115.4436,-84.0885,73.6371,
78.3876,-63.1853,163.1537,385.4893,23.2787,-421.3925,117.3434,49.1352,-32.0326,-38.2787,-239.9134,-114.4932,-94.5403,62.2354,
93.3876,-71.7364,177.2033,387.1872,28.9796,-436.3925,102.3434,64.1352,-43.232,-28.9796,-244.6639,-121.1444,-79.5403,77.2354,
95.4903,-61.285,178.1532,399.5389,32.7802,-421.3925,117.3434,69.8361,-33.7305,-32.7802,-229.6639,-114.4936,-74.587,84.0885,
96.4404,-50.8334,171.5022,390.9871,36.581,-406.3925,116.3933,66.9857,-36.581,-37.5309,-227.5615,-128.7458,-77.4375,78.3874,
97.866,-47.5075,181.4788,405.9871,37.0557,-391.3925,103.5664,69.3611,-43.707,-37.0557,-234.6875,-121.6194,-67.4608,72.2118,
95.965,-36.1056,182.4294,420.9871,36.1056,-376.3925,118.5664,71.2616,-37.0559,-42.7568,-229.9368,-106.6194,-71.2612,75.0622,
95.9652,-49.4078,181.4788,405.9871,36.1058,-386.7118,128.2707,67.4604,-52.0559,-36.1058,-242.2887,-121.6194,-72.2113,78.863,
91.6892,-52.7339,168.6518,410.9402,37.5311,-396.6887,123.9947,58.4339,-47.983,-37.5311,-236.1133,-136.6194,-69.8365,71.7364,
91.2149,-55.1089,169.1274,408.5652,38.0059,-403.8147,108.9947,55.1089,-62.983,-38.0059,-247.0394,-147.2734,-75.0618,67.4606,
81.7128,-58.9097,170.0771,402.8645,38.9564,-407.6155,93.9947,51.3081,-77.983,-38.9564,-247.0396,-155.8251,-78.8626,67.4604,
88.8395,-43.9097,158.2008,412.8409,42.2816,-392.6155,91.6901,59.3847,-64.1352,-43.2315,-232.0396,-142.9976,-68.8857,68.8866,
100.7162,-58.9097,167.2269,404.7648,36.1058,-404.7648,76.9628,59.8597,-73.1617,-36.1058,-247.0396,-156.775,-58.9093,70.3115,
85.7162,-67.4608,166.2765,413.3163,39.9064,-389.7648,91.9628,44.8597,-58.1617,-39.9064,-249.8903,-141.775,-71.2614,72.2118,
79.8127,-55.1089,159.625,415.216,42.7568,-382.9114,96.9158,46.5574,-73.1617,-42.7568,-249.8901,-126.775,-80.7631,73.1615,
90.7393,-58.4343,170.5525,413.7918,34.6805,-397.9114,86.9387,61.5574,-88.1617,-34.6805,-257.966,-130.6459,-65.7631,79.3376,
92.6396,-52.7335,162.9509,418.5418,39.4314,-382.9114,101.9387,59.3843,-73.1617,-39.4314,-243.714,-115.6459,-57.4844,88.839,
87.8886,-67.7335,157.25,403.5418,41.3317,-397.9114,86.9387,46.0822,-87.8895,-41.3317,-258.714,-130.6459,-71.7368,82.1882,
88.8388,-80.2877,162.0007,388.5418,39.4312,-412.8412,71.9387,50.8329,-96.4404,-39.4312,-264.6174,-145.6459,-65.0854,77.437,
99.2904,-65.2877,167.7018,403.5418,32.7802,-397.8412,61.2845,64.1352,-81.4404,-32.7802,-253.2154,-156.3001,-50.0854,87.8886,
98.3409,-67.9358,173.4027,410.9406,27.0793,-391.9377,48.9333,66.9854,-79.3376,-27.0793,-262.7169,-171.3001,-47.9825,88.839,
90.7398,-66.0355,162.9509,408.0909,39.4314,-376.9377,63.9333,62.2349,-70.786,-39.4314,-254.1654,-166.7515,-47.9825,76.4873,
95.9655,-80.7627,166.2767,393.0909,38.9562,-389.5622,64.6109,59.8594,-85.786,-38.9562,-269.1654,-181.7515,-42.7568,76.0126,
100.2412,-78.3876,179.1036,408.0904,38.481,-385.2865,72.6863,62.2354,-100.786,-38.481,-278.8696,-195.2563,-43.232,86.9387,
98.3407,-65.0854,175.3032,421.3922,43.2318,-370.2865,87.6863,63.1855,-115.786,-45.1321,-271.2682,-181.0037,-43.2318,83.1384,
103.5664,-79.813,176.7283,406.3922,38.0061,-363.9083,86.4642,54.1588,-130.786,-38.0061,-279.3446,-195.7313,-38.9564,76.9623,
109.2677,-71.2614,172.9278,418.0668,42.757,-348.9083,93.1146,51.3081,-133.9715,-42.757,-264.3446,-188.1301,-42.757,83.6135,
105.4669,-76.9625,166.2763,414.266,41.8069,-343.0053,79.8127,53.2086,-141.5729,-49.4081,-267.9431,-203.1301,-41.8069,84.5632,
96.9151,-87.4141,159.6253,403.8144,36.1058,-357.257,69.3611,41.8071,-143.473,-51.3081,-271.7434,-218.1301,-36.1058,72.2118,
93.115,-88.3641,146.3232,392.4131,33.2556,-342.257,68.4108,34.2055,-144.4234,-62.7103,-275.544,-229.937,-33.2556,60.8096,
89.7896,-103.3641,145.8485,380.5357,28.0294,-357.257,53.4108,34.6807,-159.4234,-61.2848,-290.544,-244.937,-28.0294,59.384,
87.4141,-106.4171,147.2736,390.5119,33.2551,-362.008,47.5075,32.3052,-144.4234,-64.6106,-289.7964,-257.4914,-32.3052,57.0086,
93.1146,-102.6165,152.0241,379.1111,40.8563,-373.4097,58.9093,28.5046,-150.1238,-67.4608,-299.2979,-271.7434,-28.5046,50.3582,
87.4144,-114.9684,151.0744,371.5092,38.0059,-387.6619,43.9093,22.8035,-165.1238,-73.1615,-314.2979,-286.7434,-22.8035,36.106,
84.0878,-108.7925,144.8981,386.5092,38.4808,-372.6619,46.082,21.3786,-164.8514,-80.2882,-313.0751,-279.8198,-21.3786,38.4808,
87.8889,-118.2936,146.7984,377.686,30.8801,-365.3334,31.082,20.4283,-162.0007,-76.4871,-319.7259,-285.5207,-20.4283,43.2318,
97.3906,-107.8424,142.9976,379.5856,32.7806,-368.1838,16.082,27.0793,-156.3001,-66.9859,-313.0753,-285.5209,-15.6775,46.0822,
104.517,-108.3176,145.3735,367.7091,43.7067,-353.4567,8.5515,34.2053,-171.3001,-55.1089,-328.0753,-292.6469,-8.5515,51.3079,
99.7656,-122.5695,159.6259,354.4066,48.4581,-338.4567,9.5015,29.4548,-186.3001,-59.8594,-343.0753,-301.1984,-9.5015,50.358,
91.2149,-115.9183,145.3731,369.4066,41.8064,-323.4567,24.5015,20.9032,-171.3001,-72.2116,-328.0753,-286.1984,-20.9032,45.607,
102.6165,-110.2176,148.2235,375.3105,42.757,-316.4005,17.1029,23.7537,-171.9774,-57.2116,-326.8524,-271.1984,-17.1029,53.2089,
93.115,-115.9185,139.6729,369.6096,49.4078,-312.5999,24.704,14.2522,-180.5289,-66.5105,-328.7526,-284.0955,-14.2522,40.8567,
80.2879,-130.9185,124.6729,359.6323,43.232,-322.5768,26.1289,9.9766,-169.6021,-79.3376,-331.1279,-299.0955,-9.9766,30.8803,
85.9884,-134.4465,123.0443,360.5831,30.8803,-333.0282,11.1289,17.5778,-181.9543,-72.6868,-345.3803,-309.2743,-7.126,37.5307,
88.3643,-119.4465,123.5195,364.858,29.4548,-318.0282,16.1523,13.302,-166.9543,-76.0122,-330.3803,-294.2743,-13.302,38.9558,
99.7663,-121.6194,134.9214,355.3572,40.8567,-303.0282,1.1523,21.8534,-159.6257,-61.0122,-318.3008,-279.2743,-0.95015,45.6072,
93.5897,-127.7955,130.6457,361.5333,46.082,-295.0221,3.3256,19.4779,-154.3996,-64.1354,-326.3772,-277.9195,-3.3256,42.2814,
94.0654,-126.3704,128.2707,362.9579,43.707,-280.0221,18.3256,18.0528,-142.5231,-78.8626,-328.7526,-270.7935,-18.0528,44.6569,
109.0654,-126.8455,141.0975,363.4331,35.6306,-271.2687,9.0265,30.8796,-157.5231,-64.1354,-343.7526,-271.2687,-9.0265,51.7833,
99.2913,-120.1941,126.0975,370.0846,28.0292,-256.2687,5.2257,18.5277,-172.5231,-74.587,-342.5297,-264.6172,-5.2257,40.3818,
92.1651,-133.9715,113.0679,355.0846,32.3057,-262.242,-2.8504,11.402,-180.5289,-72.2113,-330.6529,-279.6172,2.8504,39.9068,
104.0418,-141.0977,125.8954,353.9314,40.3818,-265.5676,-6.1761,26.402,-165.5289,-63.1853,-317.8258,-274.1191,6.1761,47.0321,
112.1177,-133.0214,124.4694,368.9314,40.8565,-250.5676,0,39.9066,-158.6756,-68.411,-323.052,-259.1191,0,48.4577,
108.7925,-137.2969,129.6953,369.134,40.3811,-235.5676,4.2755,33.7308,-173.6756,-69.8363,-338.052,-268.418,-4.2755,47.9823,
93.7925,-140.1474,114.6953,370.0841,31.8302,-220.5676,17.5778,18.7308,-162.9509,-84.0885,-345.3803,-261.767,-17.5778,38.4815,
103.5666,-138.7223,111.1678,368.6586,42.7564,-205.5676,2.5778,33.7308,-177.9509,-69.0885,-357.2573,-260.3419,-2.5778,53.4815,
114.9682,-144.4234,123.5192,374.3597,52.258,-205.2332,0.95015,27.5542,-192.9509,-67.4608,-345.8557,-248.9399,-0.95015,52.258,
102.1413,-149.6491,108.5192,379.5858,55.5834,-190.2332,15.9501,12.5542,-177.9509,-82.4608,-330.8557,-233.9399,-9.0265,41.3319,
93.5897,-164.6491,99.2911,364.5858,45.1321,-205.2332,22.3286,7.1262,-169.6019,-87.8889,-345.8557,-248.9399,-7.1262,29.9297,
96.4409,-179.6491,103.0912,349.5858,53.6836,-220.2332,37.3286,13.777,-157.2502,-85.9886,-350.131,-251.3149,-13.777,24.2288,
108.3176,-194.6491,110.2174,353.4567,59.8599,-229.9368,52.3286,16.1527,-158.6756,-75.0622,-335.131,-238.4883,-16.1527,31.3551,
110.6928,-204.7575,104.0416,339.6797,52.7332,-243.7138,43.2322,11.8767,-158.2001,-78.3874,-331.1281,-253.4883,-11.8767,30.8796,
105.9421,-198.107,89.0416,324.6797,64.1348,-230.4119,58.2322,12.8273,-143.2001,-85.9888,-316.1281,-242.7641,-12.8273,28.0297,
115.9185,-201.4321,94.0649,310.6992,75.062,-245.4119,53.2084,19.0032,-158.2001,-77.9127,-308.7993,-257.7641,-19.0032,33.2556,
112.5927,-193.3558,90.74,318.776,76.4876,-240.8635,66.9857,14.7274,-151.5493,-91.6895,-303.5737,-247.5143,-14.7274,32.7804,
100.7155,-193.8316,78.8619,303.776,72.2116,-243.2393,58.9091,1.9003,-143.4732,-90.265,-312.6006,-232.5143,-1.9003,22.8031,
98.3412,-194.3062,81.2381,303.5737,74.5868,-258.2393,51.7833,0.47496,-139.1972,-75.265,-316.8757,-243.7138,-0.47496,22.3285,
91.689,-183.8548,72.6861,312.1247,76.4867,-244.6646,66.7833,4.2755,-124.1972,-83.1384,-301.8757,-239.9136,-4.2755,24.2284,
90.2646,-198.8548,72.2116,297.1247,64.6104,-259.6646,51.7833,4.751,-139.1972,-86.464,-304.999,-254.9136,-4.751,9.5015,
99.2909,-191.4557,77.4373,312.1245,74.5866,-257.9664,52.733,6.1761,-143.948,-78.3876,-300.7232,-246.5647,-6.1761,9.0267,
105.4669,-180.5287,76.9621,313.5501,84.5632,-247.0394,67.733,4.751,-128.948,-72.2116,-285.7232,-231.5647,-4.751,24.0267,
100.7157,-188.1301,80.7629,300.2478,80.7629,-262.0394,56.0586,2.8504,-138.722,-75.062,-282.1953,-246.5647,-2.8504,19.0027,
96.4409,-173.1301,71.7366,314.025,88.8397,-247.0394,71.0586,2.3753,-145.848,-84.0883,-284.5703,-231.5647,-2.3753,13.777,
104.9915,-180.0537,70.7862,302.6237,86.9385,-233.2624,75.5367,2.3757,-160.848,-79.3378,-299.5703,-240.8635,-2.3757,19.4779,
110.2174,-168.177,77.912,317.6237,87.4139,-218.2624,90.5367,4.751,-166.2767,-73.1619,-298.3477,-225.8635,-4.751,31.3551,
106.4171,-164.3762,75.0625,314.5002,87.4141,-203.2624,98.8159,6.651,-151.2767,-64.6102,-283.3477,-210.8635,-6.651,34.2059,
104.5165,-179.3762,74.1119,299.5002,76.9625,-218.2624,83.8159,3.8006,-164.3764,-57.9591,-296.4474,-225.8635,-3.8006,27.554,
99.766,-189.0798,66.5107,299.2981,74.1119,-233.2624,68.8159,0,-149.3764,-70.3108,-281.4474,-210.8635,0,26.6041,
105.4669,-179.5788,76.0122,294.5472,77.9129,-248.2624,69.3609,-1.9003,-134.3764,-66.5107,-282.195,-211.8837,1.9003,26.6045,
108.3174,-171.027,79.8134,297.3976,92.9129,-233.2624,84.3609,-4.7507,-119.3764,-59.8592,-269.8431,-208.0829,4.7507,25.6544,
100.7164,-170.0773,64.8134,286.946,94.0652,-218.2624,99.3609,-4.751,-104.3764,-71.2612,-277.4445,-193.0829,4.751,19.9533,
98.8161,-180.5287,63.66,271.946,79.0652,-233.2624,84.3609,0,-119.3764,-73.1615,-292.4445,-208.0829,0,17.1031,
99.2911,-169.6024,61.2843,286.4706,73.6369,-219.01,82.188,4.2755,-134.3764,-70.7862,-299.7731,-196.2064,-4.2755,20.4278,
103.0917,-178.1534,60.3344,277.9195,66.9857,-224.7108,67.188,1.4249,-149.3764,-68.8859,-313.0751,-210.4589,-1.4249,12.8266,
99.2915,-168.652,63.1855,286.471,70.7867,-209.7108,75.5372,-5.2259,-146.7984,-72.6865,-302.6233,-197.1564,5.2259,6.1758,
104.992,-153.652,56.5343,287.4209,84.0883,-194.7108,90.5372,-5.2259,-131.7984,-67.936,-291.222,-182.1564,5.2259,18.5275,
119.992,-161.051,62.2345,273.1683,75.537,-202.8575,92.6401,-7.1264,-146.7984,-62.2349,-306.222,-197.1564,7.1264,16.6274,
114.493,-149.6491,60.3349,288.1683,79.3378,-187.8575,107.6401,-9.9764,-131.7984,-74.5868,-292.1719,-199.0571,13.777,9.9764,
99.493,-164.6491,53.6838,275.0695,66.9863,-202.8575,92.6401,-9.9766,-128.7456,-74.5866,-293.1216,-214.0571,9.9766,10.9266,
92.1651,-171.0275,56.0591,268.8928,57.009,-217.8575,77.6401,-8.5513,-143.7456,-69.3611,-297.3976,-229.0571,8.5513,11.402,
96.4404,-156.0275,50.8334,275.0688,68.8864,-202.8575,75.5367,-7.1262,-134.4467,-68.8859,-282.3976,-214.0571,7.1262,10.9268,
104.9915,-156.3003,58.4346,268.4176,68.8864,-195.2565,60.5367,-4.2755,-149.4467,-66.0357,-285.5206,-219.01,4.2755,9.0261,
99.766,-141.3003,57.9596,283.4176,70.3113,-180.2565,75.5367,-3.8006,-137.7719,-73.1615,-272.6936,-204.01,3.8006,14.2524,
98.8157,-126.3003,53.2086,287.8959,70.3117,-165.2565,67.4611,-6.6508,-152.7719,-71.2612,-286.946,-205.233,6.6508,14.252,
97.3908,-121.1442,52.7337,285.5211,75.5372,-150.2565,65.0854,-6.1758,-162.9511,-66.9857,-290.2712,-211.4088,6.1758,9.0265,
91.214,-125.4202,40.8565,285.9956,72.2111,-148.2242,79.8123,0,-147.9511,-69.3614,-278.3949,-196.4088,0,10.4509,
94.0647,-140.4202,47.5078,270.9956,58.9095,-163.2242,64.8123,-2.8507,-162.9511,-66.5107,-293.3949,-211.4088,2.8507,16.1523,
93.1148,-125.4202,45.607,280.2943,60.8094,-150.124,49.8123,-11.4018,-147.9511,-76.0122,-288.8463,-196.4088,11.4018,19.9528,
90.7391,-125.8956,41.3315,265.2943,56.5338,-153.4496,39.4307,-8.0761,-132.9511,-72.687,-290.2716,-197.1568,8.0761,16.6272,
89.314,-140.8956,47.5075,256.5415,62.7099,-168.4496,29.4545,-6.651,-137.7721,-59.8597,-285.9958,-212.1568,6.651,19.0027,
91.2145,-132.071,37.0564,269.8438,70.3117,-169.1269,41.8069,-13.302,-124.4694,-63.66,-270.9958,-197.1568,13.302,18.0535,
97.3906,-146.7982,41.3317,254.8438,61.2845,-184.1269,26.8069,-8.0764,-139.4694,-60.3346,-285.9958,-212.1568,21.3789,12.8269,
82.3906,-145.848,32.7808,247.5143,64.1354,-171.5022,13.777,-9.0265,-146.7984,-68.8859,-286.4706,-200.957,17.5776,9.0265,
84.0883,-136.3466,31.83,241.8139,63.1855,-173.4025,28.777,-9.9764,-131.7984,-66.9857,-271.4706,-185.957,16.6277,9.9764,
99.0883,-136.8215,46.83,244.1892,51.3083,-183.3789,43.777,-7.6012,-116.7984,-56.0589,-256.4706,-191.9305,21.8536,7.6012,
96.4404,-129.6962,43.2313,252.2653,53.6831,-168.3789,57.4837,-4.2755,-101.7984,-59.3849,-241.4706,-183.8548,31.8296,4.2755,
89.7894,-143.948,45.1323,238.963,47.983,-183.3789,42.4837,-5.2257,-116.7984,-58.4343,-256.4706,-198.8548,37.5311,5.2257,
85.5132,-133.9718,45.6066,253.963,36.1056,-171.0277,52.2578,-9.5015,-114.0185,-67.4611,-241.4706,-187.1804,32.305,9.5015,
97.8653,-124.4698,39.9066,268.8925,44.6571,-171.9776,67.2578,-7.6012,-105.4669,-57.9596,-226.4706,-172.1804,28.5048,7.6012,
112.5927,-131.596,52.7332,253.8925,58.4346,-186.9776,52.2578,-2.3753,-100.241,-42.9596,-230.4117,-187.1804,34.6802,2.3753,
103.0919,-122.0944,47.983,257.016,51.7835,-171.9776,37.2578,-1.4251,-85.241,-42.2816,-215.4117,-172.1804,36.5812,1.4251,
101.1914,-136.3466,44.1826,242.016,38.4813,-186.9776,39.4312,1.4253,-70.241,-41.3315,-204.7575,-173.4025,37.5313,-1.4253,
100.7162,-124.4701,42.7566,243.2386,53.4813,-201.9776,54.4312,-3.8008,-57.9594,-39.9068,-192.881,-158.4025,43.7065,3.8008,
101.1916,-114.4932,33.731,237.0627,54.6337,-186.9776,42.2821,-10.9266,-65.0851,-43.232,-188.6051,-143.4025,37.5316,10.9266,
107.367,-118.7692,48.731,234.6879,48.4575,-171.9776,27.2821,4.0734,-80.0851,-36.1058,-190.9808,-133.9715,37.0557,14.2522,
92.367,-103.7692,37.0555,247.0394,47.5073,-156.9776,24.7038,1.9003,-65.0851,-51.1058,-175.9808,-124.4703,32.305,-0.74781,
101.1911,-95.4903,33.7305,232.0394,42.2816,-150.5992,9.7038,0.47519,-63.1848,-52.7335,-190.9808,-139.4703,39.4319,-0.47519,
103.0919,-98.3405,38.481,234.2125,34.6805,-160.1007,-4.2758,4.2758,-74.587,-51.7831,-177.2033,-154.4703,39.431,6.1765,
96.4404,-96.4404,30.8796,227.561,35.6311,-169.6024,10.7242,2.3757,-74.5868,-54.634,-183.8543,-145.8485,30.8796,-2.3757,
105.9416,-99.2909,45.1323,224.7106,50.6311,-181.9543,25.7242,2.3755,-75.537,-39.634,-198.8543,-159.1503,38.481,-2.3755,
102.1413,-86.9389,42.2818,239.7106,65.6311,-166.9543,40.7242,-1.4253,-60.537,-34.6802,-183.8543,-144.1503,31.83,1.4253,
105.4667,-95.0149,41.8067,228.0371,60.8096,-166.2765,29.455,0.95015,-75.537,-33.2551,-190.0304,-130.1705,22.8037,-0.95015,
102.6167,-91.2145,36.106,241.3385,56.0589,-151.2765,31.3546,0,-60.537,-36.1056,-175.0304,-130.1707,28.5048,0,
95.0155,-85.5136,21.106,234.6873,41.0589,-137.7719,30.4047,0,-45.537,-43.7067,-160.0304,-115.1707,25.6542,0,
110.0155,-98.3407,36.106,219.6873,26.0589,-152.7719,15.4047,9.0265,-41.3315,-28.9798,-152.4993,-130.1707,33.7308,5.2259,
95.0155,-94.5401,21.106,220.9107,19.4779,-137.7719,1.4249,-4.2755,-26.3315,-43.9798,-137.4993,-120.1943,24.2284,-1.4249,
86.9387,-93.59,16.6274,215.2096,22.3288,-129.6955,-13.5751,7.1264,-11.3315,-41.3317,-131.5958,-105.1943,25.1794,5.2257,
100.716,-92.1649,31.6274,227.0861,25.6542,-141.5729,-14.2524,14.2524,-26.3315,-26.6041,-129.2208,-90.1943,35.1552,17.1031,
88.3643,-90.2646,16.6274,213.7845,11.4018,-126.5729,0.74758,-0.74758,-11.3315,-41.6041,-115.9188,-75.1943,20.1552,12.3517,
100.241,-82.188,21.3786,206.6583,14.7274,-132.546,-14.2524,11.8767,-11.8767,-26.6041,-106.8918,-68.8859,27.0791,14.7274,
87.8886,-76.4873,20.428,209.5083,24.2286,-147.546,-5.2261,3.3259,3.1233,-26.1294,-91.8918,-60.3346,24.2286,-0.27262,
94.0647,-84.5641,15.2023,194.5083,31.3546,-162.546,0,0,17.1022,-30.4051,-81.7135,-75.3346,20.9028,-3.801,
90.2646,-89.3142,14.252,182.4294,21.8531,-168.177,-5.7009,1.9003,16.1527,-36.1056,-75.0618,-82.6634,19.0034,-1.9003,
75.2646,-89.7896,1.4253,191.4555,16.6277,-153.177,-0.47541,0.47541,31.1527,-32.7804,-74.5868,-67.6634,16.6277,-4.276,
79.338,-104.7896,8.0768,176.4555,9.9766,-168.177,-15.4754,1.4251,18.5277,-18.5277,-89.5868,-82.6634,15.678,-1.4251,
82.188,-89.7896,9.027,191.4555,12.8275,-164.8514,-5.2255,0.47496,33.5277,-28.9793,-74.5868,-67.9356,13.7775,-0.47496,
86.4635,-79.8127,3.8006,197.6313,15.2023,-152.0243,9.7745,-3.8006,37.0559,-33.2553,-59.5868,-78.8624,8.5511,-8.5511,
93.1148,-94.8127,16.1523,183.3789,24.7034,-167.0243,-0.94992,0.94992,52.0559,-19.0034,-67.4611,-93.8624,13.3016,-7.6016,
82.1884,-90.7391,1.4253,186.705,21.3791,-152.0243,4.276,-1.4253,67.0559,-28.9793,-52.4611,-78.8624,11.8772,-11.8763,
89.7894,-85.9888,11.8769,185.7548,13.7777,-143.948,-10.724,4.2758,52.0559,-18.5277,-49.8828,-63.8624,14.7276,-4.2758,
82.6634,-72.2116,6.6508,200.7548,25.6537,-128.948,-2.8502,0.95037,66.5102,-20.9037,-34.8828,-48.8624,8.5515,-0.95037,
88.3638,-64.6104,-1.9003,201.4324,38.9562,-143.948,7.6007,1.9003,62.7097,-22.804,-21.8536,-42.7568,13.302,-6.6508,
95.9655,-68.411,13.0997,193.8307,33.2553,-158.948,-3.8006,3.8006,47.7097,-15.2023,-35.1556,-57.7568,19.9528,-14.2524,
82.6634,-58.9095,0.95037,202.3823,27.5545,-143.948,11.1994,-0.95037,62.7097,-24.7043,-20.1556,-42.7568,8.5515,-18.0526,
91.214,-70.3113,0.94992,187.3823,28.5048,-141.5729,-0.94992,2.8507,57.9587,-15.2028,-31.3551,-47.5078,12.3517,-16.1527,
90.7391,-72.6865,0.47496,184.8047,28.9798,-147.7488,5.2255,-0.47496,70.7862,-12.8271,-24.2288,-32.5078,19.4779,-15.6778,
87.4141,-67.4604,-3.8004,172.9278,27.5547,-162.7488,2.8504,5.7011,74.1125,-2.8504,-9.2288,-17.5078,19.9535,-5.7007,
81.2383,-79.3376,0.47519,168.6518,28.0292,-177.7488,-12.1496,0.47519,59.1125,-0.47519,-18.5277,-32.5078,7.1264,-12.8269,
74.1119,-65.5608,-12.3517,183.6518,35.1552,-162.7488,0.94992,-4.7505,74.1125,-13.3025,-3.5277,-17.5078,-0.94992,-15.2023,
79.8132,-70.3113,-14.2524,168.6518,25.6542,-153.9246,-9.501,0,89.1125,-9.501,11.4723,-2.5078,0,-11.4018,
71.7362,-66.0357,-10.9268,163.901,24.2293,-163.901,0.47496,-6.1763,101.1909,-15.6773,26.4723,12.4922,-0.47496,-18.528,
63.6596,-54.159,-14.2529,165.3264,23.7539,-148.901,-1.9003,-5.7009,105.4669,-17.1026,35.1556,27.4922,1.9003,-22.804,
70.3117,-64.6099,-3.8001,154.8754,8.7539,-137.7719,-16.9003,-1.9003,104.517,-7.6007,20.1556,19.9533,1.9003,-22.8035,
68.8859,-49.8826,-10.9263,167.7021,11.8772,-131.5956,-1.9003,-2.3753,119.517,-9.9764,35.1556,34.9533,-3.3252,-24.2288,
74.1114,-53.2086,-12.3521,153.9246,20.9032,-146.5956,-14.252,1.9003,132.071,-1.9003,27.5545,19.9533,-4.751,-27.5545,
69.3614,-56.0593,-12.3517,159.6255,20.9037,-137.7723,-19.9533,0.94992,133.0214,-0.94992,28.5048,34.9533,-4.7505,-24.7043,
59.384,-52.7337,-24.2288,146.7984,26.1287,-122.7723,-4.9533,-5.2259,148.0214,-8.0766,43.5048,49.9533,-9.0265,-27.0795,
74.1114,-64.6109,-9.2288,131.7984,39.9061,-137.7723,-6.6517,-1.9003,133.0214,5.7009,52.2578,34.9533,1.9003,-29.4552,
64.6104,-63.6605,-4.751,146.3234,34.2057,-132.0715,0.95037,-12.3521,132.071,-0.95037,67.2578,19.9533,2.8502,-38.0063,
66.5102,-56.0593,-4.751,146.3234,19.2057,-119.7193,-14.0496,-4.751,130.1703,4.751,59.8599,4.9533,6.6508,-33.2553,
60.3349,-49.883,0.47541,151.5489,17.5776,-123.0445,-29.0496,1.4253,138.2473,-0.47541,55.5834,-10.0467,-1.4253,-33.7303,
60.3344,-34.883,-0.47496,166.5489,32.5776,-108.0445,-14.0496,5.2255,153.2473,-3.3256,70.5834,-25.0467,0.47496,-28.9798,
67.4606,-36.106,2.8507,156.7748,27.554,-106.4173,-11.4018,-3.8006,138.2473,5.7004,60.8094,-40.0467,-2.8507,-30.4051,
63.1855,-41.3315,-9.9764,146.7984,34.6807,-91.4173,3.5982,-5.2259,153.2473,8.0766,75.8094,-55.0467,-4.276,-25.1792,
61.7602,-56.3315,-16.1527,131.7984,48.4577,-106.4173,-11.4018,3.8006,138.7227,10.4518,67.4606,-70.0467,-3.8006,-29.4548,
62.7097,-57.9596,-2.8502,118.7685,41.8069,-120.6697,-26.4018,2.8502,129.2203,11.4013,74.1114,-85.0467,-4.751,-43.7072,
66.9861,-42.9596,-2.3753,133.7685,34.6807,-105.6697,-11.4018,-1.4253,144.2203,9.0265,89.1114,-94.5401,-2.3753,-39.4312,
73.1619,-40.8565,0,130.1707,22.8035,-106.4168,-26.4018,0,149.1736,9.5019,74.1114,-99.766,-4.7505,-40.8565,
67.4611,-42.7568,-1.9003,133.9718,29.4543,-110.2179,-27.5545,1.9003,164.1736,6.6508,89.1114,-92.1649,-4.751,-49.4081,
64.6099,-41.8069,-3.8006,118.9718,36.106,-112.1182,-13.3025,3.8006,179.1736,13.3016,102.6167,-107.1649,-3.8006,-53.2086,
57.0088,-43.7072,-3.8006,103.9718,27.554,-119.7193,-28.3025,3.8006,167.2266,15.2023,87.6167,-122.1649,-9.5019,-61.7602,
53.2086,-28.7072,-9.5015,118.9718,26.6045,-104.7193,-15.2028,9.5015,182.2266,10.4514,74.1114,-114.0185,-11.4022,-57.9596,
59.384,-27.0795,-1.4253,103.9718,14.7269,-118.294,-30.2028,1.4253,167.2266,15.6778,59.1114,-125.8952,-14.7274,-61.2848,
58.9091,-22.8035,0.95037,100.7164,22.804,-107.3672,-20.9032,-0.95037,182.2266,19.9533,73.1615,-110.8952,-7.6007,-62.7101,
55.5839,-25.1788,-7.1262,92.6398,31.8305,-122.3672,-16.6277,3.3256,197.2266,21.3786,88.1615,-96.4404,-3.3256,-62.2347,
58.4341,-40.1788,1.4253,78.387,40.3811,-137.3672,-24.2293,-4.276,188.6048,22.3281,103.1615,-94.5406,-1.4253,-59.3849,
53.6836,-31.83,-12.8271,74.5873,55.3811,-122.3672,-9.2293,-9.9764,203.6048,15.6778,118.1615,-79.5406,-5.2259,-53.6836,
54.6335,-46.83,-13.7775,59.5873,66.9852,-137.3672,-24.2293,4.276,188.6048,23.2789,133.1615,-64.5406,-4.276,-57.4842,
51.7835,-58.4343,-3.3259,47.983,66.0351,-152.3672,-39.2293,-4.2758,200.0073,21.378,148.1615,-51.7835,3.3259,-64.1352,
37.5313,-56.5343,-18.3259,41.3319,51.0351,-137.3672,-24.2293,-19.2758,215.0073,6.378,163.1615,-36.7835,-9.9764,-79.1352,
37.5313,-48.9322,-20.4283,38.4813,41.3319,-124.9448,-9.2293,-34.2758,217.1097,-5.2259,169.6019,-21.7835,-24.2288,-90.7395,
22.5313,-33.9322,-28.029,53.4813,33.7303,-109.9448,5.7707,-49.2758,232.1097,-18.528,184.6019,-6.7835,-39.2288,-104.0411,
32.7804,-18.9322,-20.4278,38.4813,37.5309,-100.241,7.1262,-54.634,232.3125,-7.1262,192.4059,8.0761,-42.2814,-107.8422,
36.5814,-5.2259,-22.3281,23.4813,43.2318,-103.0912,8.0766,-54.6335,244.6646,-9.0265,207.4059,23.0761,-39.4312,-122.8422,
32.3054,-2.8507,-26.6041,8.4813,47.5078,-88.0912,23.0766,-47.5078,259.6646,-9.5019,222.4059,38.0761,-38.9567,-128.2704,
47.3054,-7.6012,-11.6041,-6.5187,51.3084,-103.0912,19.0029,-41.8069,244.6646,2.8507,230.8867,53.0761,-23.9567,-120.6697,
36.5805,7.3988,-21.3782,-21.5187,54.6335,-88.0912,20.4283,-46.0824,259.6646,-9.0265,245.8867,68.0761,-21.3782,-123.0445,
28.9793,13.777,-36.3782,-36.5187,46.0824,-103.0912,9.9764,-44.1826,274.6646,-9.9764,255.1155,83.0761,-36.3782,-136.347,
27.0791,14.7274,-31.8305,-51.5187,36.581,-115.4433,21.3786,-53.6831,259.6646,-14.7274,240.1155,98.0761,-51.3782,-150.599,
23.2785,19.4779,-42.2823,-66.5187,35.6301,-100.4433,17.578,-56.5338,274.1189,-17.578,244.6641,113.0761,-48.9326,-144.8985,
38.2785,26.1296,-27.2823,-81.5187,49.883,-85.4433,2.578,-41.5338,289.1189,-2.578,246.5644,128.0761,-33.9326,-129.8985,
23.2785,26.6041,-37.0559,-74.1119,49.4076,-70.4433,17.578,-52.2583,304.1189,-17.578,261.5644,143.0761,-48.9326,-144.8985,
23.7534,18.053,-39.9066,-87.4144,50.3575,-58.9095,25.6542,-47.5078,289.1189,-18.053,253.6902,158.0761,-45.6079,-157.7256,
27.5545,12.3521,-34.2057,-94.0647,43.7076,-63.6596,10.6542,-46.5574,274.1189,-9.5015,238.6902,173.0761,-42.7568,-158.6751,
15.2023,16.1523,-49.2057,-102.6167,38.9558,-67.4606,25.6542,-61.5574,289.1189,-15.2023,247.0389,188.0761,-57.0097,-162.4761,
22.3285,1.1523,-47.9827,-117.6167,33.7303,-82.4606,14.7274,-57.4837,274.1189,-0.20234,238.0129,203.0761,-53.6832,-158.2001,
15.6773,-3.3256,-56.5338,-104.992,37.5309,-97.4606,3.3256,-45.1321,289.1189,12.8275,253.0129,218.0761,-40.3816,-150.599,
30.6773,3.3252,-41.5338,-103.0917,52.5309,-99.2906,-3.3252,-30.1321,304.1189,27.8275,268.0129,233.0761,-25.3816,-135.599,
45.6773,1.9003,-26.5338,-90.265,58.9091,-111.1682,-1.9003,-15.2028,319.1189,42.8275,283.0129,248.0761,-10.3816,-122.57,
34.2057,-4.751,-38.0054,-77.9124,43.9091,-96.1682,4.751,-25.6537,334.1189,34.2057,298.0129,263.0761,-20.9032,-129.2203,
49.2057,-12.3521,-23.0054,-66.5107,48.4572,-111.1682,-10.249,-10.6537,333.5029,49.2057,312.6002,278.0761,-5.9032,-121.6196,
44.6571,-16.1523,-14.2524,-51.5107,46.5578,-110.2179,4.751,-18.053,348.5029,52.2583,327.6002,293.0761,-11.4018,-136.6196,
29.6571,-23.7539,-29.2524,-66.5107,32.305,-95.2179,19.751,-33.053,363.5029,37.2583,332.553,308.0761,-26.4018,-150.124,
44.6571,-20.9037,-20.9037,-73.1619,44.6571,-84.5637,14.2524,-20.9037,378.5029,52.2583,328.752,323.0761,-14.2524,-135.124,
39.4307,-18.528,-32.7804,-86.939,45.1321,-81.2381,14.7274,-21.3786,393.5029,57.4837,343.752,338.0761,-14.7274,-144.8986,
54.4307,-13.302,-17.7804,-101.939,53.2086,-96.2381,1.9003,-6.3786,378.5029,72.4837,358.752,353.0761,-1.9003,-132.071,
50.358,-18.053,-24.7043,-116.939,42.7568,-111.2381,4.751,-19.0034,365.8083,57.4837,373.752,368.0761,-4.751,-135.872,
47.5073,-10.4514,-30.4047,-127.3205,43.7067,-96.2381,-2.8502,-27.5545,350.8083,54.1586,388.752,383.0761,2.8502,-137.7719,
59.3847,4.5486,-17.5778,-129.6955,49.8828,-86.9387,-14.7272,-14.7272,335.8083,65.0851,375.785,398.0761,-11.8769,-130.6459,
44.3847,5.2259,-32.5778,-144.6955,34.8828,-71.9387,-5.2259,-29.7272,350.8083,50.0851,360.785,413.0761,-26.8769,-145.6459,
33.2553,2.8507,-42.7568,-159.6955,25.6542,-63.66,-2.8507,-33.2553,365.8083,45.607,345.785,428.0761,-41.8769,-146.3234,
20.4283,-2.3753,-55.5839,-170.5523,26.1296,-64.135,2.3753,-46.0824,380.8083,41.3319,352.9817,443.0761,-56.8769,-150.599,
26.6041,6.6512,-67.4606,-185.5523,36.106,-58.9095,-6.6512,-40.8565,395.8083,41.8064,361.0574,458.0761,-71.8769,-144.4231,
41.6041,16.6277,-52.4606,-181.0041,44.1817,-73.9095,-21.6512,-25.8565,391.9375,56.8064,358.6821,473.0761,-86.8769,-129.4231,
45.1321,22.3286,-45.1321,-170.5523,45.1321,-70.7862,-22.3286,-25.1792,406.9375,71.8064,373.6821,488.0761,-101.8769,-119.2439,
57.9594,20.9034,-38.9564,-185.5523,50.3582,-85.7862,-37.3286,-20.9034,406.6651,75.0616,388.6821,503.0761,-116.8769,-104.2439,
42.9594,21.3784,-53.9564,-190.5053,37.5316,-100.7862,-52.3286,-21.3784,391.6651,60.0616,403.6821,518.0761,-131.8769,-116.3935,
33.2553,17.1031,-62.7101,-197.6318,31.3546,-115.7862,-52.2583,-17.1031,376.6651,57.9596,418.6821,533.0761,-146.8769,-122.5695,
48.2553,14.2522,-47.7101,-182.6318,41.8071,-130.1705,-53.2084,-14.2522,381.9617,72.9596,433.6821,518.0761,-161.8769,-107.5695,
33.2553,15.6773,-62.7101,-170.5523,35.6311,-115.1705,-38.2084,-29.2522,396.9617,57.9596,442.2964,503.0761,-176.8769,-115.4433,
34.2057,20.9032,-76.0122,-176.7286,38.9562,-100.1705,-23.2084,-34.2057,385.7612,48.4572,427.2964,488.0761,-191.8769,-105.4669,
26.6045,24.7038,-80.7627,-164.3764,35.1556,-85.1705,-24.7038,-32.305,400.7612,49.4081,442.2964,473.0761,-206.8769,-104.5165,
27.0795,36.5814,-89.7892,-179.3764,37.5313,-86.9389,-27.0795,-40.3811,415.7612,46.0824,457.2964,458.0761,-221.8769,-97.3903,
31.8302,41.3313,-80.2879,-194.3764,32.7802,-101.9389,-42.0795,-31.8302,430.7612,59.3843,472.2964,443.0761,-236.8769,-88.839,
17.5776,56.3313,-94.5401,-179.3764,37.5313,-86.9389,-27.0795,-28.0294,445.7612,47.0324,487.2964,428.0761,-251.8769,-94.5401,
32.305,61.7597,-91.2149,-171.9781,31.3551,-71.9389,-42.0795,-31.3551,430.7612,33.2549,502.2964,413.0761,-266.8769,-105.4674,
30.4047,68.4105,-87.4144,-169.1274,28.5048,-56.9389,-53.2086,-28.5048,415.7612,34.2053,517.2964,398.0761,-281.8769,-98.8161,
24.2293,75.5367,-92.6398,-175.3032,29.9297,-41.9389,-39.4316,-24.2293,400.7612,34.6802,532.2964,383.0761,-296.8769,-89.7896,
39.2293,60.5367,-79.8127,-190.3032,27.554,-56.9389,-54.4316,-27.554,385.7612,48.4577,547.2964,368.0761,-311.8769,-86.464,
28.5048,45.5367,-94.8127,-188.1299,29.4548,-41.9389,-39.4316,-42.554,400.7612,38.0059,562.2964,353.0761,-326.8769,-91.2145,
39.4312,47.0324,-95.4905,-186.705,34.6807,-47.0324,-34.6807,-38.4813,415.7612,43.2318,577.2964,368.0761,-341.8769,-87.8893,
30.8801,44.1817,-96.4404,-178.1534,30.8801,-62.0324,-48.9331,-30.8801,430.7612,58.2318,581.9676,383.0761,-356.8769,-85.989,
25.6537,58.9091,-109.2675,-164.3764,26.6045,-51.3084,-47.5078,-25.6537,445.7612,69.3609,596.9676,398.0761,-371.8769,-70.989,
26.6036,57.9591,-103.5666,-162.4761,16.1527,-66.3084,-62.5078,-16.1527,460.7612,67.4602,611.9676,413.0761,-386.8769,-55.989,
15.2023,72.9591,-114.0185,-147.4761,31.1527,-55.1089,-71.2616,-15.2023,475.7612,52.4602,626.9676,428.0761,-401.8769,-46.5578,
23.2785,87.9591,-119.2439,-159.1505,42.2814,-57.4842,-57.4842,-23.2785,475.5508,49.8826,634.2264,443.0761,-416.8769,-31.5578,
26.6041,99.766,-116.8687,-154.8745,37.0559,-45.607,-57.9591,-26.6041,472.2252,47.5078,638.5019,447.5218,-431.8769,-26.6041,
11.6041,102.6167,-131.8687,-169.8745,22.0559,-30.607,-46.5569,-41.6041,457.2252,32.5078,635.6522,432.5218,-446.8769,-41.6041,
-3.3959,101.1909,-146.8687,-184.8745,9.0261,-15.607,-61.5569,-56.6041,442.2252,17.5078,620.6522,417.5218,-461.8769,-56.6041,
-5.7009,116.1909,-152.9747,-181.4791,22.804,-0.60702,-46.5569,-57.0092,438.9703,5.7009,610.9474,432.5218,-476.8769,-71.6041,
3.801,131.1909,-161.5258,-196.4791,19.0034,14.393,-42.7568,-62.7097,448.4722,-3.801,603.3463,447.5218,-491.8769,-86.6041,
4.2755,121.1447,-165.8018,-211.4791,5.2255,29.393,-57.7568,-66.9857,433.4722,-4.2755,588.3463,446.096,-506.8769,-101.6041,
1.9003,136.1447,-176.7281,-226.4791,17.1026,44.393,-57.9591,-51.9857,423.7679,-1.9003,573.3463,461.096,-521.8769,-100.7164,
1.4253,128.7454,-181.954,-241.4791,9.0265,59.393,-72.9591,-47.0324,415.6918,-1.4253,558.3463,476.096,-536.8769,-97.3908,
-3.8006,133.0214,-170.0769,-235.6376,10.4518,74.393,-57.9591,-45.607,430.6918,3.8006,558.6896,461.096,-551.8769,-101.6659,
-14.2524,148.0214,-166.2767,-220.6376,16.1523,89.393,-42.9591,-32.3054,429.4688,14.2524,552.0384,446.096,-566.8769,-95.9655,
-10.4518,151.0744,-151.2767,-205.6376,10.4518,104.393,-46.5578,-19.9537,414.4688,29.2524,537.0384,431.096,-581.8769,-83.6138,
-9.5015,166.0744,-147.2734,-190.6376,9.5015,119.393,-31.5578,-20.9032,429.4688,38.9562,552.0384,416.096,-596.8769,-68.6138,
-4.276,162.9507,-144.8981,-175.6376,4.276,134.393,-16.6277,-18.5284,444.4688,53.6836,566.7653,401.096,-611.8769,-65.0854,
4.276,147.9507,-129.8981,-160.6376,-4.276,149.393,-31.6277,-17.5776,443.2458,51.7838,561.0649,386.096,-603.8217,-69.8359,
-1.9003,162.4757,-126.3706,-145.6376,1.9003,164.393,-16.6277,-17.1026,456.0725,45.6075,576.0649,386.712,-588.8217,-57.9591,
1.9003,153.9246,-120.6693,-147.2738,-1.9003,179.393,-31.6277,-23.7539,441.0725,52.2587,561.0649,371.712,-573.8217,-53.2086,
0,166.2767,-107.3668,-142.5224,0,194.393,-30.4047,-26.6041,426.0725,49.4085,546.0649,356.712,-558.8217,-60.8094,
0.95037,181.2767,-110.2179,-127.5224,-0.95037,209.393,-31.3551,-11.6041,441.0725,57.9591,531.0649,341.712,-543.8217,-63.6605,
15.9504,180.0537,-104.9915,-142.5224,-15.9504,224.393,-46.3551,-21.3782,426.0725,52.7337,516.0649,326.712,-528.8217,-78.6605,
8.0766,193.3562,-109.7425,-127.7955,-10.9272,239.393,-31.3551,-23.2789,441.0725,54.6335,501.0649,311.712,-513.8217,-74.5873,
14.252,179.5788,-101.6663,-142.7955,-14.252,254.393,-31.3551,-15.2028,426.0725,69.6335,486.0649,296.712,-498.8217,-63.6605,
15.6778,165.8013,-88.8392,-157.7955,-15.6778,269.393,-42.2818,-23.2789,419.4924,72.6865,471.0649,281.712,-483.8217,-72.687,
2.3753,179.1038,-95.49,-147.7488,-9.9764,284.393,-27.2818,-19.4783,434.4924,71.7366,456.0649,266.712,-468.8217,-69.8359,
17.3753,164.1038,-83.6133,-162.7488,-21.8536,299.393,-42.2818,-21.8536,419.4924,66.5107,441.0649,251.712,-453.8217,-75.0618,
16.6277,179.1038,-85.989,-147.7488,-16.6277,314.393,-33.7308,-22.329,404.4924,58.4341,426.0649,236.712,-438.8217,-66.0353,
14.252,176.7281,-94.0652,-154.875,-21.8531,329.393,-48.7308,-14.252,389.4924,66.5102,411.0649,221.712,-423.8217,-57.0092,
19.0034,171.0277,-94.0652,-161.5258,-28.5044,344.393,-63.7308,-19.0034,374.4924,57.9591,396.0649,206.712,-408.8217,-69.3614,
9.0265,186.0277,-98.3407,-146.5258,-13.5044,359.393,-48.7308,-17.5776,389.4924,66.0353,381.0649,191.712,-393.8217,-63.1846,
18.053,192.8808,-83.3407,-161.5258,-18.053,362.9581,-42.7573,-23.7543,374.4924,75.0618,366.0649,176.712,-378.8217,-72.212,
15.2028,207.8808,-84.5637,-146.5258,-15.2028,377.9581,-27.7573,-21.8531,389.4924,60.8098,351.0649,161.712,-363.8217,-71.2616,
19.0029,210.9338,-90.2646,-136.822,-15.2023,392.9581,-15.2023,-12.3517,400.964,69.3614,336.0649,146.712,-348.8217,-67.4611,
34.0029,211.8837,-75.2646,-143.4728,-3.8006,388.6123,-29.4548,2.6483,385.964,84.3614,321.0649,131.712,-333.8217,-55.1085,
32.7804,223.7614,-60.2646,-134.4463,-0.47496,403.6123,-14.4548,-4.2755,400.964,87.8893,306.0649,116.712,-318.8217,-49.883,
47.7804,214.7344,-45.2646,-149.4463,0.94992,388.6123,-22.804,-0.94992,385.964,98.8152,291.0649,101.712,-303.8217,-45.6075,
42.2818,217.1097,-54.634,-164.4463,-5.2259,373.6123,-7.804,-15.9499,381.4857,91.6895,276.0649,86.712,-288.8217,-60.6075,
38.0059,213.7845,-64.6099,-179.4463,-3.8006,358.6123,3.8006,-19.0029,366.4857,87.4144,261.0649,71.712,-273.8217,-63.66,
53.0059,218.06,-49.6099,-190.5056,10.9268,343.6123,-11.1994,-10.9268,362.4832,91.6899,256.0659,56.712,-258.8217,-48.66,
38.0059,206.1824,-64.6099,-205.5056,-4.0732,339.2038,-10.4518,-25.9268,365.8088,76.6899,265.0919,41.712,-243.8217,-62.7101,
53.0059,221.1824,-49.6099,-195.7319,3.8006,331.6026,-6.6517,-10.9268,350.8088,91.6899,280.0919,26.712,-228.8217,-47.7101,
44.1817,223.7609,-58.4346,-191.4559,-2.3753,346.3305,2.3753,-15.6778,365.8088,85.0382,295.0919,11.712,-213.8217,-54.634,
52.2578,230.8871,-43.7072,-202.3827,8.5515,334.4537,-8.5515,-9.5015,350.8088,98.8157,280.0919,-3.288,-198.8217,-51.3084,
42.7573,221.3857,-40.8565,-203.3322,0,319.4537,0,-16.1523,339.2047,97.8662,265.0919,-18.288,-193.8307,-62.7101,
27.7573,213.784,-55.8565,-218.3322,-15,305.9489,15,-26.6045,346.8054,82.8662,271.7436,-33.288,-208.8307,-71.2612,
42.7573,224.7113,-45.1321,-215.2094,-1.4253,290.9489,0,-11.6045,331.8054,97.8662,286.7436,-48.288,-193.8307,-56.2612,
27.7573,210.4584,-60.1321,-212.3592,-9.0265,295.0221,9.0265,-26.1296,346.8054,82.8662,301.7436,-53.6836,-202.8577,-68.8859,
32.3054,201.4319,-60.8098,-227.3592,-6.6512,293.5968,6.6512,-20.9037,354.407,86.4635,305.9494,-62.7101,-206.1829,-61.7597,
32.7799,210.4584,-60.3344,-212.3592,-9.0265,308.5968,9.0265,-20.4283,345.3805,91.6895,320.9494,-47.7101,-204.7575,-48.9326,
17.7799,195.4584,-75.3344,-225.1862,-18.053,321.1517,3.8006,-35.4283,330.3805,76.6895,323.0515,-32.7101,-219.7575,-63.66,
11.4018,188.1303,-83.6129,-227.0861,-3.8006,306.1517,3.8006,-35.1552,315.3805,68.4114,322.1016,-17.7101,-209.9835,-57.0088,
-3.5982,181.4791,-98.6129,-227.0861,-18.8006,297.3983,18.8006,-50.1552,318.301,53.4114,337.1016,-2.7101,-224.9835,-72.0088,
11.4018,180.5291,-83.6129,-242.0861,-10.4518,282.3983,3.8006,-35.1552,303.301,68.4114,322.1016,0,-220.4353,-57.0088,
-3.5982,168.6515,-84.0887,-227.0861,-16.6281,267.3983,8.0761,-47.0328,318.301,72.6861,329.2278,15,-235.4353,-66.9861,
-18.053,163.4261,-99.0887,-240.3881,-23.7534,252.3983,18.053,-56.0589,333.301,57.6861,314.2278,26.6041,-250.4353,-81.9861,
-3.053,170.5523,-84.0887,-233.2624,-8.7534,237.3983,3.053,-41.0589,318.301,72.6861,299.2278,11.6041,-235.4353,-66.9861,
-18.053,161.5258,-92.1649,-218.2624,-12.3521,224.2359,12.3521,-43.7067,333.301,57.6861,294.5472,21.8531,-249.8901,-72.2116,
-3.053,162.4761,-77.9124,-213.7845,-8.5511,215.6843,-2.6479,-28.7067,318.301,72.6861,279.5472,36.8531,-236.588,-57.2116,
9.5015,149.1741,-63.66,-207.1328,-9.5015,200.6843,-17.6479,-30.4042,303.301,75.0622,264.5472,27.5545,-250.84,-47.5073,
-5.4985,134.1741,-78.66,-218.535,-22.8035,215.6843,-2.6479,-45.4042,313.5505,60.0622,255.5909,42.5545,-265.84,-62.5073,
-10.9268,142.9983,-85.9886,-230.4117,-11.8767,200.6843,10.9268,-40.3816,298.5505,57.4846,251.3154,52.7341,-251.3149,-55.5839,
-25.9268,149.6486,-100.9886,-215.4117,-26.8767,215.6843,25.9268,-55.3816,313.5505,42.4846,258.9166,67.7341,-266.3149,-67.9356,
-38.0068,156.7748,-114.0185,-200.4117,-29.4548,230.6843,29.4548,-51.3083,321.1508,38.9558,243.9166,82.7341,-281.3149,-56.0589,
-23.0068,171.7748,-99.0185,-185.4117,-14.4548,245.6843,14.4548,-36.3083,306.1508,53.9558,228.9166,97.7341,-277.4445,-41.0589,
-38.0068,160.5754,-114.0185,-170.4117,-20.9037,257.4917,26.6041,-51.3083,321.1508,38.9558,213.9166,112.7341,-292.4445,-56.0589,
-23.0068,147.7483,-106.8927,-182.9049,-20.4283,242.4917,20.4283,-62.2356,306.1508,40.3811,198.9166,97.7341,-288.3718,-70.7867,
-38.0068,147.2733,-108.3167,-169.1269,-27.5545,228.9873,27.5545,-56.0584,294.5472,32.305,183.9166,112.7341,-303.3718,-74.1114,
-45.1325,145.8485,-107.8426,-176.2531,-25.1788,238.0133,25.1788,-48.9331,292.1714,31.83,168.9166,127.7341,-300.7234,-65.0854,
-33.7303,146.7988,-94.5397,-166.7517,-24.2293,223.0133,24.2293,-46.082,284.5707,39.4316,153.9166,112.7341,-285.7234,-62.2351,
-48.7303,161.7988,-109.5397,-152.0243,-19.9533,238.0133,39.2293,-60.8098,299.5707,24.4316,155.8253,127.7341,-300.7234,-73.1615,
-38.0059,147.2738,-108.3171,-167.0243,-18.053,223.0133,24.2293,-49.4076,284.5707,37.0559,140.8253,142.7341,-298.3477,-71.2612,
-31.3551,148.2233,-95.9659,-160.5759,-17.1026,229.9363,17.1026,-40.857,283.1454,44.6566,153.9246,157.7341,-285.9961,-70.3117,
-46.3551,149.1741,-110.9659,-173.8779,-28.5044,244.9363,32.1026,-55.857,298.1454,29.6566,150.124,172.7341,-300.9961,-82.6634,
-38.4813,151.5489,-96.44,-184.8047,-25.1788,229.9363,25.1788,-46.0824,295.0221,42.2818,135.124,187.7341,-293.1218,-73.6364,
-52.7337,154.3996,-110.6924,-173.4025,-28.0294,244.6646,40.1788,-60.3349,308.3246,28.0294,146.7984,202.7341,-287.4209,-80.2877,
-45.6075,139.3996,-99.7656,-188.4025,-26.6045,229.6646,26.6045,-67.4611,293.3246,34.2057,131.7984,217.7341,-272.6936,-95.2877,
-53.6836,135.3966,-100.2405,-197.1564,-20.4283,214.6646,40.382,-71.7357,278.3246,20.4283,116.7984,219.9603,-275.0688,-106.8918,
-55.1089,150.3966,-115.2405,-186.2296,-19.0029,218.535,51.3084,-65.5599,269.8433,19.0029,101.7984,234.9603,-277.4441,-91.8918,
-40.1089,160.1009,-100.2405,-179.1034,-12.8271,214.2599,36.3084,-50.5599,254.8433,34.0029,86.7984,249.9603,-262.4441,-76.8918,
-55.1089,162.9507,-115.2405,-171.5026,-24.2288,229.2599,32.7799,-65.5599,269.8433,24.2288,71.7984,264.9603,-271.2687,-91.8918,
-47.0324,166.7521,-112.5931,-186.5026,-23.2789,224.7108,23.2789,-50.5599,254.8433,35.6306,56.7984,264.6174,-261.7668,-79.3378,
-36.106,162.4761,-102.6167,-192.8808,-20.9037,209.7108,20.9037,-52.2583,259.3915,35.1552,42.7573,249.6174,-249.8901,-85.5136,
-51.106,177.4761,-117.6167,-181.0041,-15.6773,224.7108,35.9037,-67.2583,264.617,20.1552,45.1321,245.6141,-255.116,-100.5136,
-36.106,192.4761,-102.6167,-167.7021,-0.6773,239.7108,45.1321,-52.2583,249.617,35.1552,30.1321,230.6141,-240.116,-85.5136,
-37.0559,207.4761,-95.9655,-152.7021,14.3227,254.7108,60.1321,-47.5078,234.617,30.4047,15.1321,229.9368,-225.116,-94.0647,
-34.2053,222.4761,-97.8662,-158.6756,0,269.7108,45.607,-41.8073,219.617,44.6571,0.13206,244.9368,-210.116,-93.1148,
-32.305,218.5355,-96.9149,-171.0272,-13.302,254.7108,30.607,-46.5574,209.0335,46.5574,13.302,250.84,-203.3322,-97.8657,
-47.305,209.034,-111.9149,-185.2797,-14.2524,239.7108,39.9066,-61.5574,224.0335,31.5574,14.2524,265.0928,-217.5846,-107.3672,
-32.305,214.734,-96.9149,-175.7782,0.74758,224.7108,24.9066,-46.5574,239.0335,46.5574,-0.74758,250.0928,-202.5846,-92.3672,
-43.2322,208.5581,-99.2911,-169.6019,-13.7775,232.3125,13.7775,-49.8826,254.0335,52.7332,13.7775,256.0659,-189.5552,-85.0387,
-28.5044,223.5581,-94.0652,-163.4261,-5.7009,217.3125,5.7009,-34.8826,269.0335,67.4611,28.7775,245.1395,-174.5552,-77.9129,
-20.4283,213.3091,-79.0652,-156.3003,-1.4253,202.3125,1.4253,-25.1797,254.0335,64.1345,17.5776,230.1395,-159.5552,-85.989,
-35.4283,219.9599,-94.0652,-157.2502,-16.4253,213.3095,16.4253,-40.1797,239.0335,49.1345,18.528,216.1593,-167.7021,-100.989,
-33.7308,225.6608,-92.6403,-172.2502,-12.8271,198.3095,12.8271,-41.3319,224.0335,62.2347,33.528,201.1593,-152.7021,-90.74,
-38.0059,227.087,-93.1148,-177.678,-7.6012,183.3095,7.6012,-46.5569,239.0335,54.159,48.528,186.1593,-137.7021,-98.8157,
-35.1552,242.087,-100.716,-177.678,-7.6012,189.0802,7.6012,-38.0059,240.3886,52.2592,63.528,201.1593,-131.1206,-98.8157,
-20.1552,240.3886,-85.716,-190.0306,1.9007,174.0802,-1.9007,-30.4047,225.3886,67.2592,52.2583,200.482,-116.1206,-87.4139,
-35.1552,239.4382,-100.716,-205.0306,-13.0993,159.0802,13.0993,-45.4047,227.0865,52.2592,67.2583,196.6819,-108.3176,-102.4139,
-20.1552,254.4382,-85.716,-220.0306,1.9007,144.0802,-1.9007,-30.4047,212.3587,67.2592,82.2583,181.6819,-93.3176,-87.4139,
-23.7539,239.4382,-88.3643,-231.837,-2.8502,129.0802,2.8502,-45.4047,197.3587,52.2592,97.2583,166.6819,-91.2149,-95.0155,
-21.854,246.0895,-99.766,-234.6877,-10.4514,114.0802,10.4514,-56.0593,182.3587,49.4081,112.2583,151.6819,-76.2149,-106.4173,
-6.854,261.0895,-84.766,-219.6877,-5.2259,107.8426,-4.5486,-41.0593,169.6019,64.4081,127.2583,136.6819,-61.2149,-91.4173,
-17.5776,276.0895,-92.6398,-204.6877,-8.0766,122.8426,8.0766,-31.83,184.6019,56.5343,142.2583,121.6819,-76.2149,-76.4871,
-2.5776,261.0895,-77.6398,-219.0095,-9.0265,107.8426,-6.9234,-24.2288,188.6057,71.5343,157.2583,106.6819,-61.2149,-69.8359,
12.4224,262.7171,-62.6398,-204.0095,-3.3256,92.8426,-9.027,-9.2288,203.6057,86.5343,172.2583,91.6819,-46.2149,-58.4346,
27.4224,270.7928,-54.159,-189.0095,-11.4022,77.8426,-5.7009,5.7009,218.6057,101.5343,187.2583,76.6819,-31.2149,-43.4346,
42.4224,265.0926,-39.159,-174.0095,-5.7011,62.8426,-20.7009,20.7009,208.0829,116.5343,202.2583,61.6819,-16.2149,-28.4346,
35.1559,250.0926,-31.3548,-159.0095,-20.7011,47.8426,-34.2055,10.4516,221.3854,118.7687,217.2583,46.6819,-9.5017,-29.4545,
50.1559,244.1889,-19.0032,-144.0095,-17.1029,32.8426,-31.3553,25.4516,236.3854,133.7687,232.2583,31.6819,5.4983,-14.4545,
65.1559,241.339,-4.751,-129.0095,-11.4018,17.8426,-21.8536,40.4516,240.3881,148.7687,247.2583,16.6819,4.751,-8.5515,
52.258,241.3392,-19.751,-114.0095,-8.5513,2.8426,-6.8536,26.6048,255.3881,152.9749,262.2583,1.6819,-4.7507,-18.0528,
63.1848,235.1629,-9.9766,-119.2441,-6.1761,-12.1574,-21.8536,31.8302,240.3881,159.1503,277.2583,-13.3181,6.1761,-18.5277,
48.9329,233.2626,-24.9766,-113.5433,-4.2758,-27.1574,-6.8536,23.2787,255.1162,144.1503,292.2583,-28.3181,-3.3254,-33.5277,
45.6072,218.2626,-31.3548,-128.5433,-2.8504,-40.8563,2.8504,16.1525,240.1162,133.9715,307.2583,-43.3181,-18.3254,-46.5572,
60.6072,231.3621,-16.3548,-113.5433,10.9268,-25.8563,-10.9268,31.1525,255.1162,148.9715,322.2583,-58.3181,-20.4283,-31.5572,
47.5075,228.0367,-31.3548,-117.8188,-0.95015,-10.8563,-3.8004,16.1529,270.1162,133.9715,337.2583,-73.3181,-35.4283,-21.8534,
59.3843,229.4616,-24.2291,-115.4436,5.2257,-5.2257,-10.9266,26.1289,276.9693,136.3468,352.2583,-88.3181,-50.4283,-11.8769,
44.3843,225.1853,-39.2291,-106.4173,-4.7514,9.7743,-3.8006,11.1289,282.195,121.3468,367.2583,-73.3181,-65.4283,-23.7543,
32.3054,215.6843,-54.2291,-121.4173,-4.7505,4.7505,-18.8006,5.7013,297.195,122.5695,382.2583,-58.3181,-80.4283,-20.9032,
40.8561,226.1357,-52.2587,-114.9688,-4.751,4.751,-33.8006,20.7013,282.195,129.2203,397.2583,-73.3181,-95.4283,-15.2028,
25.8561,234.6873,-67.2587,-103.5666,-4.7505,19.751,-18.8006,5.7013,284.0958,114.2203,412.2583,-58.3181,-110.4283,-23.7539,
32.7806,219.6873,-60.3346,-118.5666,-8.0764,16.6274,-33.8006,8.0764,269.0958,112.5929,427.2583,-73.3181,-125.4283,-30.8799,
23.7539,224.2359,-64.6104,-109.2675,-10.4514,31.6274,-18.8006,10.4514,284.0958,113.0681,442.2583,-58.3181,-140.4283,-26.6041,
17.5776,209.2359,-79.3378,-119.2444,-19.4783,22.3281,-33.8006,-4.5486,299.0958,98.0681,457.2583,-43.3181,-155.4283,-26.1296,
17.5776,203.8072,-73.6369,-115.4438,-12.8271,7.3281,-48.8006,1.4253,288.3709,103.0912,472.2583,-28.3181,-170.4283,-25.1792,
2.5776,212.8341,-88.6369,-100.716,-13.302,22.3281,-33.8006,0.95037,303.3709,94.0652,487.2583,-13.3181,-185.2797,-23.7539,
0.47496,197.8341,-85.989,-115.716,-28.0299,7.3281,-48.8006,-0.47496,288.3709,92.6398,502.2583,1.6819,-200.2797,-24.2293,
4.751,210.9343,-82.663,-100.716,-13.0299,22.3281,-33.8006,-4.751,303.3709,97.8657,517.2583,16.6819,-215.2797,-15.2019,
9.0265,197.1568,-95.49,-106.8918,-9.0265,28.0294,-18.8006,-18.5275,306.4248,96.4409,532.2583,31.6819,-230.2797,-30.2019,
19.0034,194.7811,-80.49,-96.9154,-8.5506,13.0294,-33.8006,-3.5275,291.4248,105.4669,547.2583,46.6819,-235.6372,-26.6041,
4.0034,196.6819,-95.0151,-81.9154,-1.9003,28.0294,-18.8006,-1.9003,306.4248,90.4669,562.2583,61.6819,-250.6372,-18.0526,
19.0029,187.1795,-88.3643,-96.9154,-4.7505,13.0294,-33.8006,-4.7505,291.4248,102.6167,577.2583,76.6819,-265.6372,-8.5511,
4.751,202.1795,-94.0647,-81.9154,-7.6007,28.0294,-19.9533,-4.751,295.4971,94.0652,592.2583,91.6819,-280.2947,-11.4013,
2.3753,202.8572,-92.6403,-78.3879,-2.3753,43.0294,-11.8772,-7.1267,280.4971,79.0652,599.0707,106.6819,-295.2947,-10.9272,
0,193.8307,-86.464,-74.1119,0,46.5569,-26.6041,-12.3526,265.4971,76.0117,584.0707,121.6819,-304.999,-10.4518,
-15,208.8307,-101.464,-59.1119,-0.95037,61.5569,-11.6041,-26.6045,280.4971,61.0117,596.695,136.6819,-314.5005,-19.9533,
0,215.2098,-93.5897,-50.8329,-1.4253,76.5569,-26.6041,-11.6045,273.1685,76.0117,585.7691,151.6819,-310.2245,-7.1258,
-5.2255,227.561,-83.1384,-35.8329,1.4249,91.5569,-11.8767,-4.2755,288.1685,91.0117,600.7691,166.6819,-313.0751,-1.4249,
-8.0761,224.7113,-91.6895,-25.1792,3.3256,106.5569,-3.3256,-3.3256,303.1685,96.4404,611.4229,181.6819,-314.9754,-8.0761,
-1.4253,215.2098,-78.3874,-26.1296,1.4253,108.7925,-18.3256,-2.3753,315.9258,98.3407,596.4229,196.6819,-306.4239,-6.1758,
-16.4253,216.6347,-93.3874,-19.0034,-7.6016,123.7925,-3.3256,-17.3753,330.9258,83.3407,611.4229,211.6819,-315.4504,-19.0034,
-1.4253,207.1328,-78.8628,-34.0034,-2.8502,108.7925,-18.3256,-15.2028,315.9258,81.7126,596.4229,196.6819,-300.4504,-19.9533,
-16.4253,200.482,-93.8628,-28.5048,-7.6012,100.716,-3.3256,-28.5048,300.9258,66.7126,581.4229,184.3297,-304.0486,-31.3546,
-8.0761,211.4088,-101.1909,-32.7804,-1.4249,115.716,0.47496,-13.5048,297.8732,76.4876,570.5663,199.3297,-289.0486,-16.3546,
-1.9003,196.4088,-86.1909,-38.0054,-10.4514,100.716,-14.525,-9.5015,282.8732,90.2646,555.5663,184.3297,-274.0486,-1.3546,
-16.9003,198.1067,-97.3908,-23.0054,-9.9773,115.716,0.47496,-20.4283,297.8732,75.2646,569.616,199.3297,-281.7205,-9.0265,
-1.9003,183.1067,-82.3908,-34.6802,-21.3786,100.716,-14.525,-5.4283,282.8732,90.2646,554.616,184.3297,-277.9195,-9.9769,
-16.9003,172.4521,-75.5376,-19.6802,-28.0299,97.3903,0.47496,-20.4283,285.5207,76.4867,539.616,177.2026,-284.5707,-24.9769,
-22.3286,179.1034,-90.5376,-8.0761,-24.2293,112.3903,8.0761,-35.4283,291.2211,69.8363,524.616,189.5552,-286.471,-32.7804,
-7.3286,164.1034,-75.5376,-16.1527,-24.7038,97.3903,-6.9239,-20.4283,276.2211,84.8363,509.616,174.5552,-271.471,-37.0555,
-22.3286,160.1,-90.5376,-1.4253,-39.7038,111.6423,1.4253,-35.4283,290.2716,69.8363,494.616,159.5552,-256.471,-52.0555,
-10.4514,175.1,-75.5376,-11.4013,-24.7038,125.4207,5.7009,-20.4283,305.2716,84.8363,485.5281,174.5552,-241.471,-37.0555,
-0.47496,169.6024,-60.5376,0.47496,-21.3786,110.4207,-9.2991,-14.7274,296.9224,99.8363,470.5281,161.0504,-226.471,-22.0555,
-15.475,154.6024,-75.5376,-2.8507,-36.3786,112.1186,2.8507,-29.7274,297.3983,84.8363,455.5281,163.4261,-241.471,-37.0555,
-30.475,162.9507,-76.4871,-9.9764,-41.3319,110.6924,9.9764,-44.7274,282.3983,69.8363,440.5281,148.4261,-226.471,-47.9823,
-45.475,152.4993,-91.4871,-11.8767,-56.3319,125.6924,11.8767,-59.7274,267.3983,54.8363,425.5281,163.4261,-234.2128,-62.9823,
-32.7804,167.4993,-77.4375,-0.47496,-42.2823,124.9443,0.47496,-44.7274,280.7692,69.8363,410.5281,178.4261,-219.2128,-47.9823,
-17.7804,182.4993,-62.4375,3.8006,-31.3555,109.9443,-14.525,-29.7274,283.1449,84.8363,395.5281,166.2767,-204.2128,-32.9823,
-32.7804,182.429,-77.4375,-10.4518,-46.3555,124.9443,0.47496,-44.7274,268.1449,69.8363,380.5281,161.5253,-189.2128,-47.9823,
-22.3281,183.8543,-63.1846,-11.8772,-31.3555,113.543,11.8772,-43.2318,253.1449,64.1354,365.5281,153.4496,-174.2128,-58.4341,
-34.6807,178.153,-76.4871,-16.6277,-43.2318,105.9419,16.6277,-51.7838,238.1449,53.6836,350.5281,168.4496,-159.2128,-65.0854,
-19.6807,193.153,-69.8363,-12.8271,-28.2318,114.493,12.8271,-36.7838,223.1449,68.6836,335.5281,163.9015,-144.2128,-50.0854,
-4.6807,196.6819,-54.8363,-5.7009,-20.9032,108.3176,0.95037,-27.5545,208.1449,71.2616,320.5281,148.9015,-129.2128,-38.0063,
-19.6807,194.7811,-69.8363,-19.9533,-35.9032,114.9679,15.9504,-42.5545,193.1449,56.2616,305.5281,163.9015,-120.6697,-53.0063,
-9.9764,199.0567,-54.8363,-34.9533,-39.4312,99.9679,9.9764,-37.5313,178.1449,71.2616,290.5281,157.2502,-105.6697,-55.5843,
-24.9764,184.0567,-69.8363,-49.9533,-38.4808,84.9679,24.9764,-52.5313,180.0542,56.5338,275.5281,162.9511,-96.4404,-70.5843,
-20.4283,194.3062,-70.7858,-48.9331,-32.7799,69.9679,20.4283,-42.2818,167.7021,66.9861,260.5281,169.6019,-88.8392,-66.0353,
-5.7009,191.9305,-55.7858,-35.1556,-25.6537,54.9679,5.7009,-27.5545,152.7021,81.9861,245.5281,154.6019,-73.8392,-54.1586,
-20.7009,184.8051,-65.0854,-36.5805,-30.8792,39.9679,20.7009,-32.7799,167.7021,66.9861,230.5281,139.6019,-58.8392,-61.2848,
-5.7009,189.0798,-50.0854,-23.7543,-17.1026,24.9679,5.7009,-17.7799,172.9275,81.9861,215.5281,124.6019,-43.8392,-46.2848,
5.7013,179.5783,-38.0059,-8.7543,-17.1031,9.9679,20.7009,-24.7043,161.5262,92.1649,200.5281,109.6019,-28.8392,-48.4577,
3.3252,177.2031,-33.7308,-22.329,-4.276,-5.0321,35.7009,-22.329,146.5262,86.9389,191.4555,100.2405,-13.8392,-46.0824,
0.95037,162.2031,-27.5545,-37.329,-18.0526,-20.0321,20.7009,-20.9032,131.5262,85.5141,183.3794,91.2145,-0.95037,-52.2583,
-3.8006,147.2031,-42.5545,-45.6075,-22.8035,-20.9037,35.7009,-21.8536,146.5262,85.5136,198.3794,106.2145,3.8006,-39.9066,
2.8507,132.2031,-38.9562,-60.6075,-37.8035,-35.9037,20.7009,-20.9037,131.5262,96.9154,183.3794,101.6659,2.8507,-38.9562,
-0.94992,117.819,-25.6542,-45.6075,-36.1056,-50.9037,27.5549,-23.7534,116.5262,93.1148,168.3794,116.6659,0.94992,-41.8064,
0,107.3672,-30.4047,-53.2082,-32.3045,-65.9037,39.9066,-33.2553,131.5262,88.3643,173.8779,131.6659,0,-48.4577,
-4.2755,92.3672,-33.7303,-54.634,-38.4808,-80.9037,24.9066,-38.4808,116.5262,85.0387,158.8779,127.795,8.0761,-54.634,
-12.3526,107.3672,-48.7303,-39.634,-23.7543,-80.7631,39.9066,-35.1561,119.7189,75.0618,143.8779,142.795,11.4018,-47.5078,
-0.94992,115.9183,-38.9558,-34.2053,-37.0559,-95.7631,24.9066,-34.2053,104.7189,82.663,128.8779,131.1206,4.7505,-54.1586,
-15.9499,118.2935,-43.2318,-19.2053,-42.2818,-80.7631,25.1788,-41.3319,119.7189,75.5372,143.8779,146.1206,9.9764,-54.6335,
-13.7775,123.0445,-53.6832,-17.578,-30.8796,-65.7631,36.581,-38.4808,104.7189,73.6369,137.2969,161.1206,13.7775,-50.8334,
1.2225,108.3176,-38.6832,-32.578,-28.5048,-80.7631,21.581,-23.7539,89.7189,88.6369,122.2969,146.1206,19.0034,-45.6075,
-13.7775,119.2444,-53.6832,-17.578,-30.8792,-65.7631,36.581,-38.7539,104.7189,73.6369,137.2969,161.1206,5.2259,-49.883,
-28.7775,125.4198,-68.6832,-12.3521,-15.8792,-50.7631,51.581,-38.0063,119.7189,63.6605,152.2969,176.1206,12.3521,-38.9562,
-32.7799,113.543,-68.8859,-26.1287,-13.777,-55.5834,64.1354,-39.4312,134.7189,66.0353,137.2969,191.1206,13.777,-47.0324,
-34.6802,114.4934,-76.4867,-26.1291,-15.6773,-40.5834,78.3874,-42.2814,149.7189,60.3344,125.8952,206.1206,15.6773,-38.4808,
-19.6802,99.4934,-61.4867,-41.1291,-18.5284,-55.5834,63.3874,-27.2814,134.7189,75.3344,110.8952,209.5085,16.6277,-28.9803,
-13.302,87.4139,-46.4867,-26.1291,-13.302,-70.5834,48.3874,-27.5545,119.7189,73.1624,95.8952,213.784,13.302,-27.5545,
-6.1758,91.6895,-47.9827,-11.1291,-17.5776,-85.5834,33.3874,-29.9302,108.7925,71.7366,80.8952,227.5615,6.1758,-21.3782,
0.94992,96.9154,-41.8069,-6.6512,-16.1523,-100.5834,18.3874,-14.9302,93.7925,83.6138,65.8952,212.5615,2.8507,-17.1031,
-14.0501,102.6167,-51.3083,7.6012,-10.4518,-85.5834,28.5048,-21.8536,98.8161,76.9625,72.212,227.5615,-7.6012,-29.4548,
-3.3256,100.241,-42.2823,3.3256,-5.2264,-78.3879,20.4278,-29.9297,83.8161,85.9886,58.4337,228.511,-10.9268,-25.1792,
-8.5515,100.7164,-52.2587,8.5515,-11.4022,-93.3879,28.5044,-40.857,68.8161,70.9886,43.4337,222.3351,-25.9268,-36.1056,
-12.3521,97.8657,-54.1586,6.6508,-6.6508,-108.3879,33.2558,-37.0555,53.8161,64.6104,28.4337,237.3351,-40.9268,-36.1056,
0,97.8653,-44.6571,19.9528,0,-123.3879,31.3555,-30.4047,68.8161,79.6104,13.4337,222.3351,-38.9558,-31.3546,
-15,84.5632,-59.6571,16.1527,-8.5515,-118.769,46.3555,-45.4047,65.5603,64.6104,8.5515,208.0836,-53.9558,-45.6075,
-12.8266,73.6369,-65.0854,1.1527,3.3256,-130.6457,31.3555,-38.4808,50.5603,62.2351,4.2755,204.7575,-58.4346,-30.6075,
-27.8266,67.4611,-77.912,4.751,-4.751,-115.6457,16.3555,-53.4808,65.5603,47.5073,9.5015,219.7575,-73.4346,-34.2057,
-38.0063,70.3117,-92.1644,4.751,-4.751,-100.6457,31.3555,-62.7097,68.411,32.5073,17.1026,234.7575,-81.7126,-47.5073,
-35.6311,63.1851,-87.8893,3.3256,0.47496,-112.5931,44.1821,-57.4846,53.411,32.7804,2.1026,219.7575,-78.3874,-47.9827,
-50.6311,59.3845,-102.8893,17.578,-0.47496,-100.241,59.1821,-72.4846,38.411,17.7804,0.47496,234.7575,-93.3874,-62.9827,
-50.3584,70.3113,-95.0155,23.7534,14.525,-112.1182,68.4105,-64.6099,23.411,32.7804,-14.525,246.089,-92.1649,-50.3584,
-57.4842,70.7858,-102.1413,30.8801,5.2259,-127.1182,67.936,-66.9861,38.411,27.0795,-5.2259,251.3149,-103.0912,-41.3319,
-71.2612,57.9596,-113.0685,15.8801,-6.6512,-142.1182,57.9596,-81.9861,53.411,13.3016,9.7741,253.6902,-112.1177,-56.0589,
-56.2612,47.0324,-98.0685,0.88009,1.4253,-157.1182,42.9596,-66.9861,53.6836,28.3016,24.2288,238.6902,-97.1177,-52.7337,
-53.2082,47.5078,-95.9655,7.6012,-7.6012,-172.1182,57.9596,-66.5107,68.6836,34.2053,39.2288,250.8404,-95.9655,-45.607,
-38.9567,46.5569,-82.6634,0,0,-187.1182,42.9596,-51.5107,70.3113,49.2053,54.1581,235.8404,-95.0155,-30.607,
-53.9567,34.6802,-97.3908,0.47496,-0.47496,-202.1182,27.9596,-65.0858,79.3373,34.6802,61.2843,233.2624,-104.042,-45.607,
-59.384,44.1826,-107.8422,5.2259,-5.2259,-217.1182,33.7308,-66.0353,66.0353,29.9302,70.7867,248.2624,-99.2906,-39.4312,
-58.9095,47.5078,-93.1148,12.3517,-12.3517,-202.1182,47.5078,-57.0088,51.0353,35.1552,57.9596,263.2624,-102.6167,-29.4548,
-73.9095,54.634,-108.1148,11.8767,-11.8767,-187.1182,62.5078,-71.7362,66.0353,20.1552,72.9596,278.2624,-117.6167,-44.4548,
-58.9095,60.3349,-93.1148,1.4253,-1.4253,-172.1182,47.5078,-56.7362,74.5873,35.1552,79.3378,276.0192,-103.0917,-30.8801,
-60.3344,50.8334,-96.4404,13.7775,-13.7775,-157.1182,60.3344,-61.2852,82.188,31.8296,94.3378,281.7201,-94.5406,-32.7804,
-54.6335,60.3349,-95.49,9.0265,-9.0265,-142.9978,63.1855,-49.883,70.7867,41.3319,109.3378,296.7201,-92.6394,-24.2288,
-39.6335,51.3084,-80.49,13.3025,-11.4018,-157.9978,48.1855,-38.9558,56.0589,56.3319,103.5666,281.7201,-85.5136,-22.8035,
-54.6335,45.1325,-95.49,20.4283,-20.4283,-165.8013,37.5313,-53.9558,71.0589,41.3319,118.5666,296.7201,-91.6895,-30.8801,
-39.6335,33.7299,-80.49,5.4283,-5.4283,-180.8013,22.5313,-38.9558,56.0589,56.3319,103.5666,281.7201,-76.6895,-15.8801,
-45.607,18.7299,-82.663,20.4283,-14.2524,-195.8013,19.0029,-53.9558,55.1089,57.0097,101.6668,266.7201,-91.6895,-20.9028,
-60.607,33.7299,-97.663,35.4283,-25.6542,-180.8013,34.0029,-68.9558,70.1089,42.0097,116.6668,281.7201,-97.8662,-33.2553,
-45.607,41.8064,-82.663,39.9066,-17.1031,-165.8013,19.0029,-53.9558,55.1089,57.0097,101.6668,270.7933,-82.8662,-18.2553,
-59.8594,41.8064,-97.663,54.9066,-29.4548,-150.8013,29.4548,-60.8094,70.1089,42.0097,116.6668,284.0958,-83.6138,-32.3054,
-69.8368,53.6836,-112.663,53.6836,-38.4813,-135.8013,43.2318,-68.8859,85.1089,34.6807,131.6668,299.0958,-82.1884,-34.6807,
-54.8368,43.7067,-100.716,43.7067,-36.1056,-120.8013,28.2318,-53.8859,100.1089,49.6807,146.6668,309.7495,-67.1884,-19.9533,
-59.8599,43.7067,-110.2179,55.1085,-30.4051,-105.8013,20.9032,-44.6576,115.1089,43.7067,161.6668,324.7495,-62.7106,-20.9032,
-44.8599,51.3084,-95.2179,57.9596,-18.053,-101.6659,10.4518,-33.2553,100.1089,58.7067,147.2738,309.7495,-47.7106,-10.4518,
-51.7838,53.6836,-87.8889,66.0353,-33.053,-98.3412,19.4783,-47.9832,104.992,50.8329,157.2502,295.972,-48.9331,-19.4783,
-38.4808,64.135,-84.0887,72.687,-46.0829,-97.3908,4.4783,-32.9832,89.992,65.8329,160.1004,293.1218,-35.6311,-4.4783,
-23.4808,56.0589,-69.0887,73.1619,-31.0829,-112.3908,-10.4518,-17.9832,74.992,80.7631,149.1736,278.1218,-20.6311,10.4518,
-38.4808,49.4076,-84.0887,66.5107,-37.0559,-97.3908,3.8006,-32.9832,89.992,65.7631,164.1736,293.1218,-28.5048,-3.8006,
-35.1556,55.1085,-80.7631,63.6605,-38.0063,-112.3908,-11.1994,-20.9032,77.912,74.1114,172.9275,279.3448,-13.5048,8.5515,
-40.3816,65.0858,-77.4375,75.5376,-38.4808,-125.8952,0.47496,-30.8796,87.8893,63.1851,183.8548,275.0688,-8.0761,-0.47496,
-40.857,78.8628,-84.5637,80.7627,-23.7539,-121.6196,13.302,-35.1556,102.8893,59.8599,180.5287,269.8429,-13.302,-13.302,
-25.857,78.8624,-69.5637,95.7627,-8.7539,-131.1211,-1.698,-20.9037,87.8893,74.8599,183.3789,260.3414,1.698,-8.5511,
-32.305,76.0122,-74.1114,94.0652,-23.7539,-131.1206,5.7009,-31.3551,98.8157,65.5603,198.3789,275.3414,-5.7009,-8.5515,
-28.0294,61.2848,-81.2381,79.0652,-38.7539,-146.1206,-9.2991,-21.3782,83.8157,80.5603,203.8072,260.3414,2.3753,-2.3753,
-38.0063,54.1586,-91.2145,90.2646,-45.6075,-131.1206,-4.751,-32.305,77.9129,65.5603,207.1328,245.3414,4.751,-14.252,
-53.0063,45.6079,-106.2145,75.2646,-40.8565,-116.1206,3.8006,-47.305,62.9129,50.5603,209.034,252.7412,-3.8006,-17.1022,
-38.0063,30.6079,-93.1148,60.8103,-39.9066,-131.1206,-11.1994,-39.9066,47.9129,54.159,201.4328,237.7412,10.4518,-10.4518,
-43.2322,41.3315,-95.4905,75.8103,-43.2322,-116.3937,-7.1262,-45.1321,62.9129,49.8826,216.4328,252.7412,7.1262,-25.1792,
-30.4051,38.9562,-87.4139,74.1114,-31.3551,-127.3205,-22.1262,-32.305,77.9129,64.8826,218.5345,250.84,13.302,-13.302,
-41.8069,23.9562,-91.2145,63.6605,-26.6045,-142.3205,-11.4022,-38.9562,88.3638,61.7597,218.5345,263.1926,11.4022,-12.3521,
-56.8069,11.8767,-106.2145,48.6605,-41.6045,-145.8485,-3.3256,-53.9562,83.1379,46.7597,217.1101,271.2682,3.3256,-27.3521,
-41.8069,12.8271,-91.2145,57.4842,-42.2818,-152.4997,-12.8271,-47.9832,68.1379,61.2848,211.4083,256.2682,18.3256,-12.8271,
-56.8069,-0.47496,-106.2145,51.7833,-55.5839,-137.4997,2.1729,-62.9832,53.1379,46.2848,202.8577,241.2682,3.3256,-27.8271,
-63.1851,-1.4249,-111.6428,36.7833,-51.7833,-152.4997,1.4249,-60.3344,38.1379,35.6311,187.8577,226.2682,12.8266,-42.2814,
-68.4114,7.6012,-104.517,51.7833,-52.2583,-155.8253,-7.6012,-55.1089,49.4076,35.1552,196.6814,216.6343,16.1523,-38.9567,
-78.8633,22.6012,-119.517,66.7833,-61.7602,-140.8253,-10.4518,-59.8594,64.4076,23.7534,211.6814,231.6343,10.4518,-37.0559,
-63.8633,34.6807,-104.517,72.6865,-60.3349,-125.8253,-25.4518,-44.8594,49.4076,38.7534,196.6814,233.2619,25.4518,-22.0559,
-78.387,19.6807,-119.517,57.6865,-75.3349,-119.2439,-12.8271,-59.8594,42.2818,23.7534,200.0075,248.2619,12.8271,-37.0559,
-69.3605,11.4018,-128.27,42.6865,-78.8624,-134.2439,-11.4018,-62.7101,34.2062,33.2553,196.6814,238.4887,19.0038,-40.8565,
-57.9596,10.4518,-113.27,53.2082,-64.6099,-131.1211,-10.4518,-51.3084,33.2553,45.607,195.7315,231.8375,30.4047,-28.5048,
-72.9596,9.9769,-128.27,49.8835,-79.6099,-116.1211,-9.9769,-65.0849,41.3315,30.607,200.007,246.8375,15.4047,-37.5309,
-57.9596,23.7539,-113.27,61.7597,-69.3609,-121.6196,-24.9769,-50.0849,33.2558,45.607,208.0836,261.8375,30.4047,-23.7539,
-72.9596,11.4022,-127.3205,61.7597,-77.9129,-106.6196,-11.4022,-65.0849,48.2558,30.607,223.0836,276.8375,16.1527,-38.7539,
-57.9596,12.8266,-116.3937,50.8334,-68.8864,-91.6196,-12.8266,-50.8334,63.1851,45.1321,221.8606,284.5707,25.1792,-23.7539,
-42.9596,11.4018,-101.3937,56.0589,-65.5608,-106.6196,-27.8266,-41.8064,49.4076,60.1321,214.7344,269.5707,37.0559,-11.4018,
-51.7833,15.6773,-112.5931,66.0357,-69.8363,-114.4934,-15.6773,-56.8064,64.4076,45.1321,229.7344,263.6671,32.7804,-26.4018,
-36.7833,14.2524,-97.5931,62.7101,-62.7101,-129.4934,-14.2524,-44.6571,49.4076,60.1321,217.5842,256.5408,41.8064,-14.2524,
-51.7833,8.5511,-112.5931,60.8094,-77.7101,-114.4934,-7.6012,-59.6571,46.5578,45.1321,210.9338,271.5408,26.8064,-29.2524,
-63.6605,13.302,-111.1678,58.9091,-75.0622,-99.4934,-13.302,-57.0092,61.5578,41.8069,218.5345,286.5408,22.804,-21.854,
-48.6605,-1.698,-96.1678,65.5608,-79.8127,-109.2675,-28.302,-42.0092,59.8594,56.8069,223.2855,283.1449,37.804,-6.854,
-41.3315,-3.3256,-92.6394,70.7862,-85.9886,-94.2675,-15.6773,-43.2313,74.8594,69.8363,238.2855,298.1449,48.9335,3.3256,
-37.0564,-9.5015,-85.5141,55.7862,-70.9886,-104.517,-30.6773,-39.907,66.5102,76.0122,253.2855,293.5963,59.859,9.5015,
-52.0564,-3.3252,-96.4404,70.7862,-67.936,-89.517,-28.9793,-52.7337,81.5102,61.0122,256.0663,308.5963,49.883,3.3252,
-57.4842,0.47541,-104.992,78.3879,-71.7366,-74.517,-13.9793,-48.9331,90.7395,62.2347,246.5644,323.5963,41.3319,-0.47541,
-42.4842,-3.3256,-89.992,87.8893,-61.2848,-79.3378,-22.3286,-38.4808,75.7395,77.2347,233.2624,308.5963,56.3319,3.3256,
-57.4842,-8.5515,-104.992,95.0151,-73.1615,-64.3378,-7.3286,-53.4808,68.411,62.2347,234.6877,323.5963,41.3319,-10.4514,
-52.7337,-15.6778,-91.6899,89.7896,-65.0854,-79.3378,-1.4253,-59.3849,63.1846,55.5834,219.6877,308.5963,48.9331,1.4253,
-49.883,-24.2288,-91.6895,104.7896,-66.0353,-83.1384,9.0265,-58.4341,78.1846,59.3849,222.811,304.524,44.1826,-9.0265,
-56.0589,-27.5549,-106.6895,119.7896,-69.3614,-68.1384,16.1523,-63.66,75.0618,54.159,225.1862,319.524,41.8064,-16.1523,
-41.0589,-15.6773,-91.6895,134.7896,-54.3614,-83.1384,1.1523,-48.66,60.0618,69.159,217.1101,304.524,56.8064,-1.1523,
-48.9331,-2.3753,-97.3908,149.7896,-60.3349,-68.8859,2.3753,-57.4842,75.0618,55.5834,232.1101,317.8256,57.4842,-8.0766,
-35.6306,-6.1758,-88.8388,138.2473,-66.0353,-83.8859,-12.6247,-42.4842,77.4379,70.5834,217.1101,302.8256,62.2356,6.1758,
-40.3816,-13.7775,-85.9886,144.8981,-61.2843,-83.1384,-9.0261,-40.3816,81.2381,68.8864,212.3587,297.8723,60.3344,9.0261,
-55.3816,-16.6272,-100.9886,137.2969,-66.0357,-68.1384,5.9739,-55.3816,96.2381,53.8864,227.3587,312.8723,54.634,-5.9739,
-40.3816,-19.9537,-85.9886,131.1206,-51.0357,-83.1384,0.94992,-41.8064,81.2381,68.8864,221.3857,297.8723,69.634,-0.94992,
-51.3088,-34.9537,-100.9886,121.6192,-62.7106,-98.1384,15.9499,-56.8064,90.2646,54.1586,217.5846,289.7966,69.3609,-15.9499,
-62.7097,-38.0063,-111.1678,108.3176,-69.3609,-102.6162,26.6045,-66.5102,75.2646,48.4581,208.0836,281.2456,62.7106,-26.6045,
-60.3344,-30.8796,-102.1413,122.0946,-69.8363,-87.8893,25.1792,-69.8363,60.2646,41.3315,212.3587,284.5707,60.3344,-25.1792,
-72.2116,-28.5044,-117.1413,127.3205,-71.2616,-72.8893,40.1792,-84.5632,71.2616,27.5545,226.1366,299.5707,52.2587,-27.5545,
-57.2116,-30.4047,-102.1413,117.819,-59.8594,-87.8893,25.1792,-69.5632,56.2616,42.5545,211.1366,298.3482,67.2587,-12.5545,
-48.9331,-18.5284,-109.7425,132.819,-60.3349,-72.8893,10.1792,-54.5632,71.2616,53.6836,209.5085,311.1744,67.936,-9.9764,
-51.3084,-15.2023,-115.9183,136.822,-60.8094,-57.8893,10.4518,-59.8594,65.5608,47.5078,222.3356,315.4504,64.6109,-10.4518,
-36.3084,-15.2023,-100.9183,140.6226,-53.2086,-72.8893,-4.5482,-44.8594,50.5608,62.5078,207.3356,300.4504,79.6109,4.5482,
-38.0068,-17.1031,-99.766,144.4231,-62.7101,-63.66,0,-37.0559,43.7072,60.8094,205.2325,309.749,78.8624,0,
-23.0068,-11.8772,-84.766,143.9477,-47.7101,-78.66,-14.7278,-22.0559,28.7072,75.8094,190.5056,294.749,93.8624,15,
-19.0025,-26.8772,-70.3108,152.9747,-49.4076,-88.3638,-9.5015,-28.5044,19.9533,71.2616,201.4324,279.749,94.0652,9.5015,
-34.0025,-41.8772,-85.3108,137.9747,-64.4076,-95.0151,0.95037,-43.5044,34.9533,56.2616,202.3823,282.1955,79.0652,-0.95037,
-19.0025,-45.6075,-76.9625,122.9747,-49.4076,-110.0151,-14.0496,-28.5044,19.9533,71.2616,187.3823,267.1955,94.0647,6.6513,
-31.83,-39.4312,-89.7892,135.3966,-47.9823,-95.0151,-3.3252,-35.6306,34.9533,68.8859,202.3823,271.2687,88.8388,3.3252,
-16.83,-50.8329,-77.4375,120.3966,-48.9326,-110.0151,-17.578,-23.2785,19.9533,83.8859,187.6554,256.2687,98.3412,18.3252,
-1.9003,-55.1085,-74.1119,116.8687,-50.358,-125.0151,-19.0025,-22.8031,4.9533,87.4139,178.6289,250.84,91.2145,17.1026,
-16.9003,-46.5578,-89.1119,131.8687,-50.3584,-110.0151,-7.6012,-31.3555,19.9533,72.4139,189.0802,265.84,85.5136,7.6012,
-1.9003,-42.7566,-74.1119,130.1709,-42.7566,-125.0151,-22.6012,-16.3555,4.9533,87.4139,174.0802,250.84,97.8664,18.0532,
-5.7009,-34.2057,-78.8624,139.6722,-48.4577,-110.0151,-36.1056,-31.3555,19.9533,75.0622,186.23,262.2417,82.8664,5.7009,
-2.3753,-42.2818,-70.7862,124.6722,-37.5309,-125.0151,-51.1056,-16.3555,4.9533,90.0622,171.23,257.9662,91.6895,18.5284,
9.5015,-53.2086,-58.9095,109.6722,-34.2057,-140.0151,-66.1056,-9.5015,-10.0467,99.7656,156.23,242.9662,95.0151,17.1026,
-5.4985,-47.5073,-73.9095,114.0185,-42.7568,-139.6722,-51.1056,-24.5015,4.9533,84.7656,171.23,257.9662,83.6138,15.2023,
9.5015,-62.5073,-68.8857,99.0185,-51.7831,-154.6722,-66.1056,-11.8769,-10.0467,99.2913,156.23,242.9662,93.59,17.5783,
-1.4249,-49.883,-75.5372,114.0185,-54.6335,-158.2001,-69.8363,-22.3286,1.4249,84.2913,151.5493,227.9662,90.74,2.5783,
3.8006,-40.8565,-81.713,112.1177,-46.5574,-152.9742,-68.411,-15.2023,-3.8006,96.9154,156.7748,240.3886,90.2641,16.1523,
10.9266,-55.8565,-72.6863,104.9922,-47.0326,-167.9742,-83.411,-10.9266,-18.8006,102.1415,141.7748,225.3886,78.3881,17.5778,
4.751,-51.3079,-87.4139,114.018,-37.0559,-152.9742,-68.411,-16.1527,-4.751,87.1415,156.7748,240.3886,82.6634,12.3521,
19.751,-66.3079,-72.4139,99.018,-36.1058,-167.9742,-83.411,-9.5017,-19.751,94.0654,141.7748,225.3886,96.9151,9.5017,
5.2255,-58.4346,-85.0387,114.018,-49.883,-178.1539,-68.411,-24.2293,-4.751,82.188,142.0474,227.561,85.0387,4.2755,
12.8269,-43.4346,-83.1381,129.018,-52.7335,-163.1539,-53.411,-12.8269,-19.751,97.188,138.2471,242.561,96.4406,19.2755,
19.0032,-39.9064,-70.311,117.8193,-50.3582,-175.778,-45.6072,-16.1525,-34.751,96.9156,123.2471,237.5382,97.8655,16.1525,
4.0032,-38.0059,-85.311,110.2179,-43.7067,-160.778,-30.6072,-31.1525,-19.751,81.9156,138.2471,252.5382,86.4644,7.6012,
16.1525,-50.3578,-83.6131,95.2179,-33.2551,-175.778,-44.6569,-16.1525,-32.3047,96.9156,123.5197,237.5382,101.4644,22.6012,
1.1525,-36.581,-98.6131,110.2179,-41.3319,-160.778,-29.6569,-26.1296,-17.3047,81.9156,138.5197,252.2649,97.3908,11.8772,
-2.3753,-21.581,-90.7395,123.0441,-26.3319,-145.778,-14.6569,-11.1296,-2.3047,88.8388,153.5197,255.1155,104.992,13.777,
-14.2524,-29.4548,-104.5165,120.6697,-40.8565,-130.778,-0.94992,-23.7534,1.9007,73.8388,156.7748,242.2884,92.1649,0.94992,
-14.7278,-23.2789,-119.5165,114.493,-49.8835,-115.778,-6.1758,-24.2288,16.9007,70.7858,150.599,257.2884,85.9881,6.1758,
0.27217,-35.1554,-104.5165,99.493,-40.8563,-130.778,-21.1758,-10.4516,1.9007,85.7858,135.599,242.2884,99.7658,12.3524,
-14.7278,-29.9293,-119.5165,114.493,-47.0324,-115.778,-6.1758,-25.4516,16.9007,70.7858,150.599,257.2884,84.7658,-2.6476,
-8.0761,-23.2785,-127.795,99.493,-32.0324,-119.2439,7.1262,-19.4779,1.9007,78.3883,157.2507,272.2884,99.7658,12.3524,
-13.3025,-38.2785,-120.6693,99.766,-34.2053,-122.5695,0.94992,-34.4779,-0.94992,71.2612,144.4231,257.2884,90.2641,10.4518,
-28.3025,-37.0555,-135.6693,101.6663,-49.2053,-107.5695,15.9499,-49.4779,14.0501,56.2612,159.4231,272.2884,75.2641,-4.5482,
-13.3025,-22.0555,-120.6693,110.6924,-34.2053,-122.5695,0.94992,-34.4779,-0.94992,71.2612,144.4231,257.2884,90.2641,10.4518,
-28.3025,-30.4047,-130.1712,113.0676,-49.2053,-107.5695,3.8006,-49.4779,14.0501,56.2612,159.4231,272.2884,82.663,-3.8006,
-35.1561,-37.0559,-129.2208,98.0676,-48.4577,-118.769,-7.6012,-45.607,29.0501,68.4105,174.4231,287.2884,82.663,7.6012,
-20.1561,-43.2322,-114.2208,86.9389,-48.9331,-133.769,-22.6012,-30.607,44.0501,83.4105,159.4231,272.2884,92.6394,16.6277,
-35.1561,-39.9061,-129.2208,88.3647,-62.7097,-118.769,-7.6012,-45.607,59.0501,68.4105,174.4231,287.2884,77.6394,1.6277,
-20.1561,-29.9302,-114.2208,73.3647,-47.7097,-108.7925,-22.329,-30.607,48.9331,83.4105,159.4231,272.2884,92.6394,15.6778,
-35.1561,-33.7299,-108.7921,88.3647,-62.2347,-93.7925,-7.329,-45.607,63.9331,68.4105,174.4231,277.9199,77.6394,0.67775,
-50.1561,-30.8805,-123.7921,78.3874,-72.687,-78.7925,7.671,-60.607,71.7362,53.4105,183.8539,292.9199,62.6394,-14.3222,
-35.1561,-23.2785,-108.7921,85.0387,-57.687,-67.936,-7.1262,-45.607,56.7362,68.4105,168.8539,277.9199,77.6394,0.67775,
-50.1561,-28.0299,-122.0946,91.6899,-59.3845,-52.936,7.8738,-58.4346,71.7362,53.4105,173.4029,276.9696,70.7862,-11.8767,
-51.7833,-23.2785,-107.0946,76.6899,-52.7332,-59.3845,-0.47496,-43.4346,56.7362,57.4837,158.4029,261.9696,85.7862,0.47496,
-63.66,-28.5048,-104.5165,84.5637,-61.7602,-49.4076,11.4018,-46.5578,47.5078,46.5578,159.6255,260.3414,75.0618,-11.4018,
-76.4871,-32.7799,-119.5165,85.0382,-76.4871,-34.4076,17.5776,-61.5578,53.6836,31.5578,164.8514,273.1685,60.0618,-24.2288,
-61.4871,-36.581,-104.5165,79.3373,-61.4871,-49.4076,2.5776,-46.5578,38.6836,46.5578,149.8514,258.1685,75.0618,-9.2288,
-76.4871,-42.7573,-119.5165,78.8624,-70.3113,-35.1561,17.5776,-61.5578,35.1552,31.5578,152.9742,262.2422,60.0618,-22.8035,
-61.4871,-27.7573,-107.8422,77.437,-55.3113,-50.1561,2.5776,-46.5578,24.2288,46.5578,148.6991,250.365,75.0618,-7.8035,
-46.4871,-29.4548,-104.517,76.9625,-54.159,-49.4076,0.94992,-35.1561,39.2288,56.0589,161.5262,236.588,74.1119,-0.94992,
-61.4871,-44.4548,-119.517,61.9625,-69.159,-34.4076,15.9499,-50.1561,52.2583,41.0589,174.8278,251.588,59.1119,-15.9499,
-46.4871,-35.1552,-104.517,62.7101,-54.159,-49.4076,0.94992,-35.1561,37.2583,56.0589,164.376,241.3385,74.1119,-0.94992,
-61.2852,-21.3786,-119.2439,77.7101,-55.5839,-34.4076,5.2255,-50.1561,52.2583,50.8334,179.376,256.3385,74.5868,-5.2255,
-46.2852,-19.0029,-110.2179,73.1619,-49.4076,-49.4076,-9.7745,-35.1561,66.5107,65.8334,187.1795,271.3385,86.4635,9.7745,
-31.2852,-25.6537,-95.2179,71.2616,-53.2086,-62.7101,-24.7745,-20.1561,51.5107,79.8127,173.8774,256.3385,86.464,17.1026,
-46.2852,-33.7312,-110.2179,66.9857,-68.2086,-47.7101,-9.7745,-35.1561,66.5107,64.8127,188.8774,271.2682,71.464,2.1026,
-31.2852,-40.3816,-95.2179,51.9857,-53.2086,-62.7101,-21.3782,-25.1788,52.7337,79.8127,178.1539,256.2682,86.464,13.777,
-40.8561,-45.6066,-104.5165,66.9857,-42.7568,-77.7101,-6.3782,-39.9061,56.0593,64.8127,181.4795,241.2682,73.1624,-1.223,
-42.7568,-43.7067,-114.9684,51.9857,-54.1586,-77.9124,5.7009,-43.7067,45.6075,57.9591,176.7281,226.2682,71.2616,-5.7009,
-27.7568,-32.7804,-99.9684,54.634,-45.1321,-62.9124,-9.2991,-28.7067,52.7332,72.9591,161.7281,211.2682,86.2616,9.2991,
-42.7568,-47.7804,-114.9684,45.607,-60.1321,-47.9124,-6.6512,-43.7067,67.7332,57.9591,146.7281,226.2682,71.2616,-5.7009,
-27.7568,-32.7804,-105.4669,60.607,-57.0092,-32.9124,-8.5511,-28.7067,70.3113,69.3614,161.7281,230.8867,83.6138,8.5511,
-28.5048,-17.7804,-114.0185,75.607,-59.8594,-47.9124,0.94992,-31.3555,55.3113,64.6099,176.7281,237.5379,74.1119,-0.94992,
-26.6041,-12.3517,-124.4698,75.0618,-56.0589,-62.9124,4.7505,-33.2553,40.3113,62.7101,171.0272,223.2855,73.1619,-4.7505,
-11.6041,-25.6537,-109.4698,60.0618,-46.5574,-47.9124,-0.95037,-23.7539,54.1586,72.2116,156.0272,208.2855,86.464,0.95037,
-26.6041,-40.6537,-124.4698,45.0618,-61.5574,-32.9124,4.2755,-38.7539,69.1586,57.2116,141.0272,206.6583,71.464,-14.0496,
-11.6041,-29.4543,-109.4698,55.1094,-46.5574,-47.9124,-5.7009,-27.5545,84.1586,72.2116,156.0272,203.3331,80.7636,0.95037,
-26.6041,-28.5039,-124.4698,70.1094,-47.5078,-62.9124,7.6012,-37.0559,76.9625,63.66,171.0272,218.3331,70.3113,-7.6012,
-22.329,-28.9793,-120.1943,55.1094,-48.9331,-77.9124,-3.3252,-26.1296,61.9625,68.8859,173.4025,225.6608,78.3879,3.3252,
-26.6045,-39.907,-113.0685,40.1094,-46.5574,-85.5141,-5.7009,-31.3551,76.9625,72.2116,184.3293,220.4353,85.5132,5.7009,
-41.6045,-49.4076,-128.0685,26.6041,-61.5574,-70.5141,9.2991,-46.3551,91.9625,57.2116,193.8316,235.4353,70.5132,-9.2991,
-26.6045,-49.4081,-113.0685,16.1527,-47.5078,-85.5141,-5.7009,-31.3551,76.9625,72.2116,178.8316,220.4353,85.5132,1.9003,
-34.2057,-44.6566,-128.0685,31.1527,-53.2086,-70.5141,9.2991,-32.305,91.9625,57.2116,193.8316,205.4353,78.8628,-12.3521,
-19.2057,-29.6566,-137.7719,46.1527,-43.7072,-55.5141,-5.7009,-17.305,106.9625,72.2116,208.8316,220.4353,89.3142,2.6479,
-4.2057,-44.1821,-122.7719,41.3315,-47.0324,-70.5141,-20.7009,-12.8266,91.9625,81.2381,193.8316,205.4353,82.188,0.47496,
-19.2057,-29.1821,-137.7719,56.3315,-49.4081,-55.5141,-5.7009,-27.8266,83.6133,66.2381,178.8316,208.0836,67.188,-14.525,
-9.9764,-30.8801,-125.8952,41.3315,-37.5313,-70.5141,-20.7009,-21.3782,68.6133,63.1846,163.8316,193.0836,63.1846,0.47496,
-16.1527,-27.5545,-124.4698,56.3315,-33.2558,-55.5141,-30.4051,-19.0034,83.6133,66.5102,148.8316,191.9304,63.6605,4.751,
-31.1527,-42.5545,-139.4698,41.3315,-48.2558,-40.5141,-15.4051,-34.0034,98.6133,51.5102,157.2502,206.9304,48.6605,-10.249,
-20.9037,-27.5545,-133.0214,42.7564,-42.7573,-25.5141,-6.6512,-22.8035,83.6133,57.0088,142.2502,221.9304,63.6605,4.751,
-30.8801,-28.9793,-148.0214,47.0324,-52.7337,-40.5141,-5.2259,-27.0795,68.6133,48.9331,140.1471,232.312,67.936,5.2259,
-15.8801,-43.9793,-133.0214,32.0324,-42.7568,-55.5141,-20.2259,-12.0795,53.6133,63.9331,125.1471,217.312,82.936,14.2524,
-15.2023,-43.7063,-134.9212,25.6542,-37.0559,-40.5141,-7.6012,-20.9028,68.6133,66.5107,140.1471,215.6852,86.4644,0,
-30.2023,-58.4341,-149.9212,10.6542,-52.0559,-25.5141,7.3988,-35.9028,83.6133,51.5107,155.1471,230.6852,71.4644,-15,
-45.2023,-43.4341,-164.9212,11.8767,-42.2823,-11.8767,17.5771,-43.2322,98.6133,36.5107,170.1471,224.7104,56.4644,-18.528,
-60.2023,-28.4341,-179.9212,26.8767,-56.5343,3.1233,32.5771,-58.2322,113.6133,21.5107,185.1471,239.7104,41.4644,-33.528,
-75.2023,-13.4341,-194.9212,39.9061,-48.4581,18.1233,47.5771,-73.2322,128.6133,6.5107,200.1471,254.7104,26.4644,-48.528,
-90.2023,-11.4018,-209.9212,24.9061,-37.0559,33.1233,62.5771,-88.2322,143.6133,-8.4893,215.1471,269.7104,11.4644,-49.4076,
-105.2023,1.4249,-197.1568,27.0791,-42.2814,48.1233,77.5771,-87.8893,158.6133,-23.4893,230.1471,284.7104,-1.4249,-46.082,
-92.6403,-13.5751,-182.1568,12.0791,-35.6306,63.1233,70.7858,-72.8893,173.6133,-8.4893,215.1471,299.7104,13.5751,-31.082,
-107.6403,-9.0265,-167.1568,18.5275,-41.3319,48.1233,85.7858,-79.3378,158.6133,-17.5776,230.1471,314.7104,21.3782,-38.4813,
-92.6403,2.3753,-152.1568,3.5275,-32.7799,33.1233,100.7858,-64.3378,143.6133,-2.5776,245.1471,299.7104,35.6306,-30.8801,
-80.7631,-10.4518,-137.1568,-2.8507,-34.2053,48.1233,100.716,-62.7101,158.6133,2.8507,230.1471,284.7104,37.0559,-35.1561,
-95.7631,-9.5015,-152.1568,9.5015,-49.2053,63.1233,115.716,-77.7101,173.6133,-12.1493,245.1471,299.7104,22.0559,-45.6075,
-88.3638,-13.302,-142.5228,-5.4985,-49.4081,78.1233,100.716,-67.4611,188.6133,2.8507,230.1471,314.7104,23.7539,-30.6075,
-89.7892,-2.3757,-141.0975,5.2255,-46.0829,63.1233,85.716,-73.6369,173.6133,2.3757,222.8105,299.7104,11.8767,-34.6802,
-74.7892,-2.3753,-126.0975,-7.1267,-31.0829,48.1233,70.716,-58.6369,158.6133,17.3757,211.4083,284.7104,26.8767,-19.6802,
-59.7892,-17.3753,-111.0975,-22.1267,-46.0829,33.1233,55.716,-44.6571,170.0773,32.3757,196.4083,269.7104,36.106,-14.2524,
-74.7892,-31.8296,-126.0975,-22.3286,-61.0829,48.1233,53.6841,-59.6571,185.0773,24.2293,199.0571,284.7104,22.3286,-22.3286,
-59.7892,-25.6542,-111.0975,-19.0029,-46.0829,33.1233,38.6841,-44.6571,170.0773,39.2293,184.0571,269.7104,37.3286,-7.3286,
-44.7892,-21.854,-96.0975,-4.0029,-40.857,18.1233,23.6841,-29.6571,155.0773,54.2293,184.3293,254.7104,52.3286,5.7009,
-29.7892,-17.578,-81.0975,-17.578,-25.857,3.1233,8.6841,-14.6571,140.0773,69.2293,194.3057,239.7104,67.3286,20.7009,
-14.7892,-32.578,-66.0975,-18.053,-18.053,-11.8767,-6.3159,-7.6012,125.0773,80.7631,179.3057,224.7104,82.3286,22.8035,
-29.7892,-47.578,-81.0975,-13.302,-33.053,3.1233,8.6841,-22.6012,140.0773,65.7631,164.3057,209.9835,67.3286,7.8035,
-14.7892,-41.3319,-66.0975,-28.302,-21.3786,-6.1763,-6.3159,-13.7775,125.0773,72.6861,149.3057,194.9835,66.0357,13.7775,
-26.6045,-39.907,-81.0975,-13.302,-36.3786,8.8237,-11.4022,-28.7775,110.0773,57.6861,146.3234,203.3322,51.0357,-1.2225,
-28.0299,-28.9798,-96.0975,-2.3757,-36.581,19.4779,-1.4249,-29.9297,95.0773,42.6861,134.4463,210.4589,39.4316,1.4249,
-13.0299,-30.4042,-81.0975,1.9003,-21.8531,4.4779,-9.5015,-14.9297,80.0773,57.6861,119.4463,195.4589,54.4316,16.4249,
-28.0299,-45.4042,-96.0975,-9.0265,-36.8531,9.0265,5.4985,-29.9297,65.0773,42.6861,134.4463,210.4589,39.4316,1.4249,
-13.0299,-32.305,-81.713,-24.0265,-29.4543,4.751,-9.5015,-15.2019,73.1624,57.6861,121.6201,198.5817,54.4316,16.4249,
-28.0299,-41.3324,-96.713,-18.528,-44.4543,19.751,5.4985,-30.2019,88.1624,42.6861,126.8451,211.4088,39.4316,1.4249,
-43.0299,-26.3324,-111.713,-7.6012,-45.6079,34.751,20.4985,-45.2019,103.1624,27.6861,133.0205,226.4088,24.4316,-13.5751,
-32.7799,-23.2789,-101.1909,-13.777,-34.6807,19.751,13.777,-31.83,88.1624,26.1296,118.0205,211.4088,39.4316,-15.6778,
-47.7799,-8.2789,-116.1909,1.223,-33.7303,4.751,28.777,-46.83,103.1624,11.1296,133.0205,226.4088,28.0299,-22.3285,
-32.7799,-5.7009,-113.0685,-11.4022,-24.7038,-10.249,36.1056,-31.83,88.1624,26.1296,121.6192,211.4088,43.0299,-7.3285,
-47.7799,-20.7009,-125.8952,-22.329,-39.7038,4.751,51.1056,-46.83,103.1624,20.4283,119.2444,214.259,30.8801,-20.4283,
-59.8599,-10.4514,-140.8952,-31.3551,-39.9061,19.751,66.1056,-57.9591,118.1624,10.4514,134.2444,229.259,34.2057,-18.0526,
-44.8599,-21.3782,-125.8952,-38.4813,-24.9061,4.751,51.1056,-42.9591,114.493,25.4514,119.2444,214.259,49.2057,-4.276,
-39.9061,-6.3782,-124.4698,-23.4813,-24.7038,-10.249,66.1056,-36.1056,99.493,31.3551,134.2444,218.5355,44.6576,-9.5015,
-24.9061,-9.0265,-109.4698,-28.9793,-26.1296,-25.249,54.6335,-21.1056,84.493,46.3551,119.2444,203.5355,59.6576,5.4985,
-39.9061,-24.0265,-120.6693,-29.4548,-41.1296,-10.249,50.3584,-36.1056,99.493,31.3551,104.2444,188.5355,44.6576,-9.5015,
-52.7337,-19.4783,-135.6693,-28.0294,-39.4312,4.751,65.3584,-51.1056,114.493,19.4783,117.3436,203.5355,40.3811,-24.2288,
-37.7337,-23.2789,-122.0946,-40.382,-28.0294,1.4253,50.3584,-36.1056,99.493,34.4783,102.3436,188.5355,55.3811,-9.2288,
-47.5073,-8.2789,-137.0946,-25.382,-25.6537,-13.5747,58.91,-43.7067,96.9158,19.4783,117.3436,186.23,49.4081,-7.6007,
-32.5073,-2.8502,-122.0946,-31.3551,-20.9032,-28.5747,43.91,-28.7067,81.9158,34.4783,104.517,171.23,64.4081,2.8502,
-47.5073,-17.8502,-137.0946,-32.3054,-35.9032,-13.5747,28.91,-43.7067,73.161,19.4783,89.517,171.0272,49.4081,-12.1498,
-62.5073,-2.8502,-152.0946,-29.9293,-50.9032,1.4253,29.9302,-58.7067,88.161,4.4783,92.6403,186.0272,34.4081,-27.1498,
-56.5343,-11.8772,-150.599,-39.4312,-50.8329,15.6778,14.9302,-45.1325,80.2877,16.6277,104.042,171.0272,22.329,-23.2789,
-47.5069,3.1228,-152.9742,-24.4312,-35.8329,0.67775,29.9302,-34.2053,71.2621,28.5048,119.042,186.0272,37.329,-8.2789,
-32.5069,-11.8772,-137.9742,-39.4312,-20.8329,-14.3222,14.9302,-19.2053,56.2621,43.5048,104.042,171.0272,52.329,6.7211,
-17.5069,-26.8772,-122.9742,-54.4312,-6.1761,-29.3222,-0.069828,-4.2053,41.2621,58.5048,89.042,156.0272,67.329,10.9266,
-2.5069,-11.8772,-107.9742,-69.4312,-14.7274,-44.3222,-15.0698,-7.1262,26.2621,72.6861,74.042,141.0272,58.4346,9.976,
12.4931,3.1228,-92.9742,-66.5107,0.27262,-59.3222,-30.0698,7.8738,11.2621,87.6861,59.042,126.0272,73.4346,24.976,
-2.5069,13.3016,-107.9742,-51.5107,-14.7274,-74.3222,-15.0698,-7.1262,26.2621,72.6861,74.042,111.0272,58.4346,9.976,
-13.302,18.0526,-122.9742,-66.5107,-18.0526,-88.3643,-25.6537,-15.2028,35.1556,57.6861,73.1615,114.018,61.7597,13.302,
1.698,5.7009,-107.9742,-72.2116,-23.7539,-103.3643,-40.6537,-5.7009,20.1556,72.6861,58.1615,99.018,75.0622,16.1527,
-13.302,18.5284,-122.9742,-57.2116,-38.7539,-88.3643,-25.6537,-20.7009,18.5284,57.6861,73.1615,114.018,60.0622,1.1527,
1.698,21.8536,-136.822,-72.2116,-29.4548,-103.3643,-31.3551,-5.7009,3.5284,60.8094,65.5608,99.018,70.3113,11.4018,
-13.302,36.8536,-141.5729,-57.2116,-31.3551,-88.3643,-16.3551,-20.7009,18.5284,45.8094,80.5608,114.018,59.8599,4.751,
-4.2755,51.8536,-140.1476,-52.7337,-31.8305,-73.3643,-4.2755,-13.7775,5.2255,52.7332,65.5608,121.1438,60.3344,4.2755,
9.0265,48.9331,-125.1476,-47.9827,-42.2818,-88.3643,-19.2755,-2.3753,-9.7745,62.2347,50.5608,106.1438,66.0353,2.3753,
-5.9735,59.8599,-140.1476,-32.9827,-39.9061,-73.3643,-6.6508,-17.3753,5.2255,47.2347,65.5608,121.1438,56.0593,6.6508,
8.5515,44.8599,-140.6226,-47.9827,-33.2558,-88.3643,-21.6508,-8.5515,-9.7745,58.9091,50.5608,106.1438,58.9091,14.252,
-6.4485,52.2578,-137.7723,-45.6075,-20.9032,-73.3643,-10.4514,-12.3521,5.2255,43.9091,63.6605,121.1438,58.9091,8.5515,
-11.4022,62.7097,-152.7723,-60.6075,-25.6546,-58.3643,-1.9003,-14.252,1.9003,37.0555,48.6605,136.1438,62.7097,9.5015,
3.5978,49.883,-137.7723,-69.8363,-33.7308,-73.3643,-16.9003,-5.2259,-13.0997,52.0555,33.6605,121.1438,59.384,5.2259,
-11.4022,64.883,-152.7723,-54.8363,-40.8565,-58.3643,-1.9003,-20.2259,1.9003,37.0555,48.6605,136.1438,44.384,-9.7741,
3.3256,65.0858,-154.3996,-57.4842,-33.7303,-56.5338,-16.9003,-5.2259,-13.0997,50.8334,33.6605,121.1438,53.6841,5.2259,
4.751,56.0593,-149.1736,-55.1085,-36.1056,-57.9591,-31.9003,-12.3512,1.9003,40.857,40.857,106.1438,60.8098,-1.9003,
-10.249,57.0092,-164.1736,-61.7597,-34.2048,-42.9591,-16.9003,-25.6537,16.9003,25.857,55.857,120.6693,45.8098,-10.4514,
2.8502,42.7568,-153.9251,-76.7597,-25.6546,-57.9591,-31.9003,-10.6537,1.9003,40.857,40.857,105.6693,41.806,1.9003,
-2.3757,57.7568,-157.2502,-61.7597,-16.6272,-43.2322,-16.9003,-9.026,-7.1262,34.6802,50.8334,90.6693,46.082,2.3757,
8.5515,56.0584,-154.875,-76.7597,-21.854,-58.2322,-29.4552,-5.7009,-22.1262,45.6075,35.8334,75.6693,57.0092,5.7009,
12.3517,42.7573,-140.6226,-75.0622,-28.5048,-63.66,-44.4552,-0.94992,-18.053,46.5578,20.8334,60.6693,57.0088,0.94992,
-2.6483,42.7573,-155.6226,-60.8094,-35.1552,-48.66,-29.4552,-15.9499,-3.053,31.5578,35.8334,75.6693,42.0088,-14.0501,
12.3517,45.1325,-151.5489,-74.5868,-20.1552,-63.66,-28.0294,-1.4253,-18.053,46.5578,20.8334,60.6693,57.0088,0.94992,
3.8006,60.1325,-159.6255,-59.5868,-10.4518,-69.3614,-13.0294,-16.1523,-5.7013,32.3054,35.8334,75.6693,49.4076,-3.8006,
-6.6512,72.2111,-170.0773,-65.5608,-19.9538,-54.3614,1.9706,-8.552,9.2987,42.7564,44.6571,90.6693,50.3575,-3.8006,
1.4253,57.2111,-155.0773,-79.3378,-28.0294,-39.3614,-13.0294,-1.4253,14.7269,51.7829,29.6571,75.6693,47.0324,-12.8271,
-13.5747,47.5078,-170.0773,-68.4105,-38.0059,-24.3614,-28.0294,-16.4253,29.7269,36.7829,44.6571,90.6693,32.0324,-19.0029,
-0.94992,35.1561,-176.7281,-83.4105,-32.3054,-39.3614,-43.0294,-6.6512,14.7269,50.3584,29.6571,75.6693,41.8064,-4.0029,
2.3757,50.1561,-164.8514,-68.4105,-20.4287,-54.3614,-28.0294,0.47496,-0.27307,43.2322,44.6571,64.135,56.8064,-0.47496,
-4.751,58.9091,-170.0773,-83.4105,-16.1527,-69.3614,-22.804,-0.95037,9.5015,39.9061,59.6571,63.6605,65.5603,0.95037,
3.3256,43.9091,-161.0508,-90.7395,-24.2293,-54.3614,-37.804,-4.2755,24.5015,36.581,44.6571,48.6605,56.5338,-3.3256,
-11.6744,39.9061,-176.0508,-75.7395,-35.1556,-39.3614,-22.804,-19.2755,39.5015,21.581,41.8069,63.6605,41.5338,-14.252,
3.3256,34.2053,-161.0508,-90.7395,-23.7543,-54.3614,-37.804,-4.2755,24.5015,36.581,26.8069,48.6605,56.0589,0,
10.9263,49.2053,-148.6991,-75.7395,-8.7543,-69.3614,-22.804,2.3753,9.5015,47.9823,41.8069,33.7299,71.0589,-2.3753,
4.276,47.9823,-163.6991,-60.7395,-18.5284,-75.5372,-12.8271,-1.4253,1.4253,36.5805,38.4813,48.7299,62.2347,-3.3252,
19.276,42.2818,-148.6991,-72.687,-18.5284,-81.2381,-27.8271,11.8763,-5.2259,51.5805,23.4813,33.7299,58.4341,5.2259,
4.276,47.0324,-163.6991,-62.2356,-23.2789,-66.2381,-12.8271,-3.1237,9.7741,36.5805,37.5304,48.7299,43.4341,-9.7741,
19.0029,41.8073,-168.1766,-77.2356,-8.2789,-64.6099,-12.3517,2.8507,-5.2259,39.9066,22.5304,33.7299,57.0097,0,
8.552,40.8565,-165.3264,-62.7097,-19.0029,-49.6099,-12.3517,-5.7004,9.7741,34.2062,7.5304,38.0068,50.3584,0,
-1.4249,55.8565,-177.2035,-69.8363,-19.4779,-34.6099,-0.47496,-1.4249,24.7741,40.3816,16.6272,53.0068,47.9827,0.47496,
13.5751,40.8565,-162.2035,-84.5632,-10.4518,-49.6099,-15.475,9.5019,9.7741,55.1089,1.6272,38.0068,58.9095,0,
-1.4249,36.106,-177.2035,-69.5632,-9.501,-62.7101,-0.47496,-5.4981,24.7741,40.1089,16.6272,53.0068,48.4577,0,
12.8271,21.106,-171.5026,-84.5632,-15.6778,-77.7101,-15.475,7.1258,9.7741,51.7829,1.6272,38.0068,56.5343,9.0265,
4.751,15.2019,-179.5788,-99.5632,-15.2028,-62.7101,-30.475,-7.8742,24.7741,36.7829,11.4013,50.358,55.1085,-4.751,
-10.249,22.3286,-194.5788,-100.241,-24.2293,-47.7101,-15.475,-22.8742,39.7741,21.7829,22.3286,65.358,40.1085,-18.528,
4.751,34.2053,-179.5788,-103.5666,-9.2293,-62.7101,-30.475,-7.8742,24.7741,36.7829,7.3286,50.358,55.1085,-3.528,
-9.027,47.0319,-183.8548,-88.5666,0.47496,-77.7101,-15.475,-5.2264,9.7741,25.1792,22.3286,55.5839,51.7833,-2.3757,
5.973,32.0319,-180.0537,-103.5666,-3.3256,-92.7101,-30.475,3.3256,-5.2259,40.1792,7.3286,40.5839,59.3845,4.2755,
8.0766,17.5776,-177.2035,-106.8922,-11.8772,-77.7101,-15.475,-2.3753,9.7741,31.83,-1.4253,41.3319,57.4842,-4.276,
-6.9234,5.2259,-192.2035,-121.8922,-26.8772,-62.7101,-5.2259,-17.3753,24.7741,16.83,13.5747,56.3319,42.4842,-19.276,
8.0766,13.3018,-177.2035,-116.8689,-11.8772,-77.7101,-20.2259,-2.3753,9.7741,31.83,0.95015,41.3319,57.4842,-4.276,
-2.8502,28.3018,-184.3293,-101.8689,-0.95037,-92.7101,-5.2259,0.95037,-5.2259,32.305,15.9501,26.3319,64.6104,-4.751,
6.1763,13.7775,-183.8543,-116.8689,2.3757,-107.7101,-2.3757,7.1262,-20.2259,39.4316,8.0761,11.3319,66.0357,-3.3256,
3.8006,-1.2225,-181.4786,-117.8186,-4.7505,-92.7101,12.6243,-3.8006,-5.2259,35.1561,14.2524,26.3319,56.0589,-16.1523,
-11.1994,-7.1262,-196.4786,-122.0946,-19.7505,-77.7101,15.6773,-18.8006,9.7741,20.1561,20.4287,41.3319,41.0589,-30.8796,
3.8006,7.8738,-181.4786,-123.045,-4.7505,-92.7101,0.6773,-3.8006,-5.2259,35.1561,5.4287,26.3319,56.0589,-15.8796,
-10.9268,22.8738,-190.5056,-108.045,0.47496,-102.1413,-4.2755,-0.47496,-20.2259,24.2293,20.4287,28.9798,56.5338,-0.87964,
-8.5515,21.8531,-202.3823,-123.045,-2.8502,-117.1413,-13.302,3.801,-35.2259,31.3551,23.7539,20.9032,47.5073,2.8502,
6.4485,6.8531,-187.3823,-131.596,-1.4253,-102.1413,-1.4253,5.2259,-20.2259,44.1817,8.7539,35.9032,54.6335,-1.4253,
-8.5515,-0.47496,-202.3823,-130.6457,-16.4253,-87.1413,13.5747,-9.7741,-5.2259,29.1817,0.47496,50.9032,39.6335,-16.4253,
6.4485,13.302,-187.3823,-129.2208,-1.4253,-76.9625,-1.4253,5.2259,-7.6012,44.1817,-14.525,35.9032,54.6335,-1.4253,
7.1262,15.6773,-174.3529,-114.2208,-11.8767,-91.9625,-16.4253,11.8767,-22.6012,38.4817,0.47496,20.9032,62.2351,3.3256,
22.1262,6.6508,-172.928,-129.2208,-10.4523,-106.9625,-31.4253,18.0526,-37.6012,53.4817,-1.9003,5.9032,65.5603,10.4514,
37.1262,-5.7009,-157.928,-144.2208,4.5477,-91.9625,-46.4253,33.0526,-22.6012,68.4817,-16.9003,-8.5515,80.5603,22.8035,
51.7833,-10.9268,-142.928,-143.9482,9.9764,-76.9625,-46.0824,42.2814,-7.6012,83.4817,-25.1792,-9.9764,88.8392,23.2785,
66.7833,4.0732,-127.928,-129.6955,24.9764,-91.9625,-61.0824,57.2814,-22.6012,98.4817,-40.1792,-24.9764,103.8392,38.2785,
81.7833,1.9003,-112.928,-139.6722,39.9764,-106.9625,-76.0824,72.2814,-37.6012,113.4817,-55.1792,-39.9764,118.8392,53.2785,
96.7833,-13.0997,-97.928,-154.6722,43.2318,-121.9625,-91.0824,87.2814,-52.6012,128.4817,-70.1792,-54.9764,133.8392,68.2785,
111.7833,-28.0997,-82.928,-159.1505,57.4842,-136.9625,-106.0824,102.2814,-67.6012,143.4817,-85.1792,-69.9764,148.8392,83.2785,
126.7833,-36.5807,-67.928,-144.1505,42.4842,-151.9625,-121.0824,117.2814,-82.6012,158.4817,-100.1792,-84.9764,139.1974,68.8862,
111.7833,-21.5807,-52.928,-129.1505,42.2816,-136.9625,-106.0824,102.2814,-67.6012,143.4817,-85.1792,-69.9764,124.1974,53.8862,
96.7833,-6.5807,-67.928,-114.1505,27.2816,-121.9625,-91.0824,87.2814,-52.6012,128.4817,-70.1792,-54.9764,109.1974,38.8862,
81.7833,8.4193,-82.928,-109.268,12.2816,-106.9625,-76.0824,72.2814,-37.6012,113.4817,-55.1792,-39.9764,94.1974,23.8862,
66.7833,4.751,-97.928,-124.268,-2.7184,-91.9625,-61.0824,57.2814,-22.6012,98.4817,-40.1792,-24.9764,79.1974,8.8862,
51.7833,10.4518,-112.928,-121.6196,-10.4518,-76.9625,-46.0824,42.2814,-7.6012,83.4817,-25.1792,-9.9764,64.1974,-6.1138,
36.7833,-4.5482,-127.928,-136.6196,-4.7514,-61.9625,-31.0824,27.2814,7.3988,68.4817,-10.1792,5.0236,49.1974,3.8006,
21.7833,-7.6012,-142.928,-128.2709,-19.7514,-46.9625,-16.0824,12.2814,22.3988,53.4817,4.8208,20.0236,34.1974,-11.1994,
6.7833,-1.4253,-157.928,-139.1972,-19.4774,-31.9625,-1.0824,-2.7186,37.3988,38.4817,19.8208,35.0236,22.329,-18.5275,
-8.2167,-6.1763,-172.928,-141.0975,-4.4774,-22.3285,12.8266,3.3256,28.9798,29.9297,34.8208,43.2322,37.329,-3.5275,
-23.2167,4.2755,-187.928,-130.6461,-9.027,-7.3285,27.8266,-9.027,43.9798,14.9297,49.8208,58.2322,38.4808,-9.027,
-8.2167,-1.9003,-180.5287,-145.6461,5.973,-22.3285,12.8266,5.973,28.9798,29.9297,34.8208,43.2322,53.4808,5.973,
6.7833,-13.3025,-171.9776,-131.1211,14.252,-37.3285,-2.1734,20.973,13.9798,44.9297,19.8208,28.2322,68.4808,-0.95037,
21.7833,0.95015,-167.2264,-146.1211,21.8534,-52.3285,-17.1734,35.973,-1.0202,59.9297,4.8208,13.2322,83.4808,13.3023,
36.7833,15.9501,-152.2264,-131.1211,36.8534,-67.3285,-32.1734,50.973,-16.0202,74.9297,-10.1792,-1.7678,98.4808,28.3023,
44.1821,0.95015,-160.1004,-123.9949,21.8534,-82.3285,-47.1734,35.973,-31.0202,63.1851,-0.47496,-16.7678,83.4808,13.3023,
59.1821,13.7772,-145.1004,-124.945,20.4285,-97.3285,-62.1734,50.973,-46.0202,78.1851,-13.7772,-31.7678,88.839,16.6279,
44.1821,10.4518,-160.1004,-109.945,7.6012,-82.3285,-47.1734,35.973,-31.0202,63.1851,1.2228,-46.7678,73.839,1.6279,
29.1821,12.3521,-175.1004,-119.7193,0.95037,-67.3285,-32.1734,20.973,-16.0202,48.1851,16.2228,-32.305,58.839,-13.3721,
23.2789,9.9764,-190.1004,-116.3937,9.0265,-56.5338,-17.1734,20.4283,-19.4783,42.2818,16.6277,-47.305,51.7829,-10.9263,
8.2789,7.1258,-205.1004,-116.3937,-5.9735,-41.5338,-2.1734,5.4283,-4.4783,27.2818,31.6277,-32.305,36.7829,-25.9263,
10.4514,1.9003,-220.1004,-131.3937,9.0265,-56.5338,-12.3521,-1.9003,10.5217,42.2818,19.9533,-36.106,43.7067,-15.2028,
13.302,-1.9003,-205.233,-126.3706,8.5506,-71.5338,-6.6517,1.9003,14.252,39.9061,13.302,-28.5048,51.3079,-10.4523,
5.2264,-0.47496,-220.233,-134.4463,2.3757,-66.0353,0.47496,-3.3256,14.7274,30.8796,27.0791,-13.5048,46.0829,-15.6773,
20.2264,-3.3254,-205.233,-131.5963,17.3757,-81.0353,-14.525,11.6744,-0.27262,45.8796,12.0791,-28.5048,61.0829,-0.6773,
5.2264,-15.6778,-208.5586,-120.1947,3.3252,-66.0353,-18.5284,-1.4253,14.7274,39.4312,27.0791,-13.5048,48.9322,-11.8772,
20.2264,-16.6277,-197.1564,-135.1947,8.0766,-81.0353,-33.5284,12.8271,-0.27262,54.4312,12.0791,-6.1758,56.5343,3.1228,
25.6537,-10.4518,-184.3297,-124.4698,11.4022,-86.464,-48.5284,16.1527,-9.5015,65.5603,12.3521,-13.302,63.6605,9.5015,
19.0025,-5.7009,-195.7315,-128.2709,1.9003,-71.464,-37.0559,6.6508,5.4985,57.0092,24.7038,-9.5015,54.1586,-1.9003,
34.0025,-3.8006,-180.7315,-138.7223,11.4018,-86.464,-50.358,21.6508,-9.5015,72.0092,9.7038,-24.5015,69.1586,13.0997,
19.0025,-11.4013,-190.9805,-133.0214,-3.5982,-88.3638,-35.358,6.6508,5.4985,57.0092,21.854,-9.5015,54.1586,0.95037,
34.0025,0.95015,-175.9805,-136.8222,9.5012,-93.115,-45.6072,21.6508,-9.5015,72.0092,6.854,-13.3023,69.1586,15.9504,
49.0025,-4.2758,-160.9805,-121.8222,10.927,-87.8891,-60.6072,36.6508,-24.5015,87.0092,4.2758,-25.179,72.6872,28.0297,
34.0025,-2.3753,-175.9805,-106.8222,-4.073,-72.8891,-45.6072,21.6508,-9.5015,72.0092,19.2758,-10.179,57.6872,13.0297,
19.0025,-11.8767,-190.9805,-121.8222,-19.073,-57.8891,-30.6072,6.6508,5.4985,57.0092,5.2264,4.821,42.6872,0.47496,
4.0025,3.1233,-203.8076,-107.8422,-17.578,-42.8891,-15.6072,-8.0761,20.4985,42.0092,10.9268,19.821,29.9297,2.3757,
-0.47496,8.0761,-206.6578,-101.1909,-9.9769,-27.8891,-2.3757,-0.47496,35.4985,47.0328,0.47496,34.821,35.6311,7.1262,
-11.8776,-2.3757,-216.1597,-102.1417,-17.578,-12.8891,12.6243,-7.1262,50.4985,38.4808,15.475,49.821,29.9297,-0.47496,
-26.8776,-4.2755,-231.1597,-111.6428,-32.578,2.1109,27.6243,-22.1262,65.4985,23.4808,30.475,64.821,14.9297,-15.475,
-11.8776,-4.7505,-230.8871,-126.6428,-21.8536,-12.8891,12.6243,-7.1262,77.9124,38.4808,15.475,79.821,29.9297,-0.47496,
-22.8035,0,-220.4348,-111.6428,-29.4548,0,18.053,-14.2515,92.9124,38.0068,21.8536,78.8633,28.5048,-1.8998,
-30.4051,-0.95037,-234.6877,-124.4698,-33.2558,0.95037,23.7539,-15.2028,107.9124,38.9562,21.8531,73.1615,27.5545,-2.8502,
-15.4051,-8.0761,-219.6877,-131.5956,-21.3777,-14.0496,8.7539,-0.20279,92.9124,53.9562,6.8531,58.1615,42.2823,4.2755,
-29.9297,-7.1262,-234.6877,-121.1447,-33.7303,0.95037,23.7539,-15.2028,88.8392,38.9562,21.8531,72.6861,27.2823,-10.7245,
-14.9297,-6.6512,-226.1366,-120.6697,-19.0029,-14.0496,38.7539,-10.4518,88.3643,53.9562,6.8531,57.6861,31.3546,4.2755,
-29.9297,-14.2524,-241.1366,-107.3672,-22.8035,0.95037,53.7539,-25.4518,103.3643,38.9562,14.2524,68.4105,17.1031,-10.7245,
-37.0555,-12.3521,-256.1366,-122.3672,-27.5545,15.9504,38.7539,-23.7539,92.1653,23.9562,20.9032,77.9129,12.3521,-14.252,
-22.0555,-7.1258,-241.1366,-121.1442,-21.3782,0.95037,23.7539,-9.0265,77.1653,38.9562,10.9272,62.9129,27.3521,0.74803,
-37.0555,-5.7009,-256.1366,-109.267,-36.3782,15.9504,38.7539,-24.0265,92.1653,23.9562,24.7047,77.9129,12.3521,-14.252,
-22.0555,1.9003,-246.0895,-124.267,-24.7038,9.5015,43.7067,-17.1026,77.1653,30.4051,9.7047,62.9129,20.9032,-2.8502,
-37.0555,-2.3753,-261.0895,-132.546,-33.7299,12.8271,58.7067,-32.1026,82.1884,15.4051,18.5284,59.3849,5.9032,-17.8502,
-36.1065,5.7009,-271.7441,-141.5729,-38.0063,-2.1729,50.358,-43.7076,76.0122,13.302,18.0526,52.2578,8.5506,-21.854,
-21.1065,0.47496,-256.7441,-131.5965,-28.9798,-17.1729,35.358,-28.7076,61.0122,28.302,7.1262,37.2578,23.5506,-6.854,
-36.1065,9.9769,-269.3679,-116.5965,-29.9297,-2.1729,50.358,-42.2814,76.0122,13.302,22.1262,52.2578,15.6773,-16.6272,
-21.1065,6.1758,-254.3679,-131.5965,-15.6778,-17.1729,41.3319,-27.2814,61.0122,27.0795,10.9263,37.2578,29.9302,-8.0766,
