"AF3","AF4","F3","F4","F7","F8","FC5","FC6","O1","O2","P7","P8","T7","T8",
24.6789,-46.2726,-24.6789,23.6508,43.1885,-53.4709,-3.0851,18.5096,1.028,-16.4526,5.1412,-1.028,38.0473,-1.028,
33.9342,-41.1315,-14.3955,38.6508,35.9903,-63.7542,1.028,16.4526,1.028,-11.3114,-3.0851,-1.028,35.9903,-4.1131,
32.3911,-32.3911,-15.9386,34.4472,28.278,-61.1832,-0.51402,12.8535,-6.6842,-13.8825,-14.9105,1.5421,41.6455,0.51402,
23.1363,-29.3065,-27.2495,27.2495,26.2214,-46.7872,2.5706,11.8259,-10.7969,-14.91,-26.2214,-2.5706,45.7591,5.6557,
31.8766,-19.5382,-24.6794,24.6784,39.0749,-48.3302,11.3109,26.7354,-12.3399,-12.3399,-18.5092,-2.0566,43.188,2.0566,
38.5609,-10.7969,-21.0802,22.1083,33.4197,-51.9293,-1.5426,29.3065,-19.0232,-17.9951,-10.7969,1.5426,36.5038,1.5426,
34.4477,-3.5986,-20.0512,29.3065,30.3346,-37.5328,-7.7118,28.2785,-11.8249,-12.8539,-10.7969,3.5986,40.6179,10.7969,
25.1934,-7.7128,-15.9391,28.2775,42.674,-37.5328,5.6557,31.3626,-9.7688,-14.91,-14.91,-5.6557,44.7301,9.7688,
33.9342,-8.2263,-9.2543,32.9061,44.2166,-42.1595,4.1131,37.0193,-13.3675,-21.5938,-9.2543,-4.1131,47.3017,12.3394,
35.4763,-11.8254,-11.8254,33.4192,29.2166,-36.5043,-8.7403,29.306,-11.8254,-20.0517,-11.8254,8.7403,44.7306,10.7964,
28.2785,-17.9951,-20.0512,29.3065,14.2166,-37.5328,0.51451,23.1363,-23.1363,-21.0802,-21.0802,11.8259,35.4758,-0.51451,
33.4197,-21.0802,-15.9381,37.5328,29.2166,-46.7872,3.5986,32.3916,-21.0802,-22.1083,-14.91,-1.5426,42.674,1.5426,
40.6174,-23.1368,-2.5711,39.5894,44.2166,-40.6174,-0.51402,39.5894,-6.0802,-14.9105,0.089969,-3.5991,57.674,9.7684,
37.5328,-25.1934,-8.7408,39.5889,39.5889,-36.5048,10.7969,35.4758,-7.7128,-26.2214,-6.6837,-1.5426,52.9564,1.5426,
40.1034,-24.6789,-15.4245,40.1034,43.1885,-40.1034,7.1983,32.9052,-17.4806,-27.764,-16.4526,-1.028,37.9564,1.028,
44.2166,-25.7069,-10.2824,35.9903,33.9342,-47.3017,-7.8017,28.792,-10.2824,-13.3675,-13.3675,8.2263,27.764,13.3675,
29.2166,-35.9903,-15.4245,27.764,18.9342,-62.3017,-3.0851,16.4526,-15.4245,-28.3675,-17.4806,4.1131,31.8771,13.3675,
30.3346,-29.3065,-17.9951,24.1653,7.7128,-60.1546,11.9149,20.0522,-19.0232,-40.6179,-16.9671,4.6277,37.5328,-1.6325,
45.3346,-14.3065,-11.8254,39.1653,22.7128,-45.1546,7.7123,29.306,-9.7693,-25.6179,-7.7123,16.9666,43.7025,-10.7974,
49.3578,-6.1702,-4.1131,43.1875,21.5938,-42.1605,-5.1422,23.6508,-6.1702,-10.6179,-8.2263,14.3955,47.3007,4.1131,
36.5048,-10.7969,0.51451,28.1875,9.7688,-51.9283,-0.51451,20.0522,-17.9951,-25.6179,-17.9951,-0.60448,34.4477,4.6277,
51.4143,1.0285,-1.0285,33.9337,16.4531,-41.1319,13.368,28.7925,-15.4241,-40.6179,-2.9951,-5.1417,28.7925,-10.3723,
47.8157,-3.5991,-8.7403,39.5894,13.8825,-35.4762,3.5991,29.307,-3.5991,-39.5894,11.8254,-5.6552,43.7925,-11.8254,
39.0754,-7.1983,-7.1983,44.2166,17.4806,-34.9622,-6.1702,29.8201,0,-37.0183,0,-2.0571,58.7925,3.1746,
40.1034,-6.1692,-7.1982,37.0183,19.5377,-43.1885,5.1412,21.5948,-15,-45.2446,-15,-5.1412,49.3587,12.3394,
42.16,-9.2548,-7.1978,30.8486,22.6223,-46.2731,14.396,20.5662,-11.3109,-45.2451,-1.0285,1.0285,39.0749,-2.6606,
30.8486,-17.4811,-18.5092,32.9057,13.368,-45.2451,-0.60399,18.5092,-7.1978,-48.3292,2.0566,8.2268,40.1039,-2.0566,
35.9908,-20.5652,-19.5372,35.9908,8.2268,-41.1319,-10.2829,19.5382,-7.1978,-53.4714,-2.0566,8.2268,51.4153,2.0566,
41.6455,-20.0517,-11.8254,32.3911,14.9105,-42.6745,-4.6272,20.0517,-1.5421,-43.7025,7.7123,1.5421,56.042,-3.5991,
37.0183,-15.4245,-8.2263,27.764,27.764,-32.9052,-11.3114,17.4816,-3.0851,-28.7025,11.3114,1.028,45.2446,-1.028,
32.9047,-16.4531,-15.425,24.6784,23.6503,-30.8486,-3.0856,16.4521,-18.0851,-21.5943,-2.0566,4.1127,33.9337,2.0566,
30.8486,-18.5092,-23.6503,25.7074,11.3109,-42.16,3.0846,12.3399,-26.7354,-20.5662,-17.0566,10.2829,46.2731,-3.0846,
33.9342,-9.2543,-19.5377,27.764,10.2834,-32.9052,-11.9154,11.3114,-11.7354,-5.5662,-13.3675,24.6789,61.2731,3.0851,
31.8766,-8.2268,-17.4811,26.7354,2.0566,-27.7645,-22.6223,13.368,-2.0566,-7.1987,-11.3119,28.7915,53.4714,7.1978,
37.5328,-6.6837,-16.9671,34.4477,8.7408,-23.1363,-7.6223,26.2214,-15.9381,-12.8539,-9.7688,25.1934,46.7872,3.5986,
40.6179,-1.5426,-13.882,36.5048,16.9671,-21.0802,0.51451,29.3065,-0.93807,-11.8249,-6.6837,20.0522,58.0986,-3.5986,
30.8486,-11.3109,-16.4531,33.9337,5.1417,-36.0802,-14.4855,14.3065,6.1697,-21.5943,-14.396,12.3399,45.2451,-5.1417,
39.0754,-19.5377,-5.1412,38.0473,1.028,-45.2446,-6.1692,11.3114,-1.028,-25.7069,-8.2263,18.5096,45.2446,9.8583,
40.6179,-16.9671,-4.6277,41.646,0.51451,-37.5328,3.5986,19.0232,-11.8249,-35.4758,-2.5706,3.5096,59.1266,-0.51451,
44.7311,-1.9671,-7.7118,52.9574,11.8249,-22.5328,-2.5706,23.1363,-1.5426,-25.1934,1.5426,-1.5426,64.2688,-1.5426,
37.0188,-1.0285,-16.4531,37.9574,6.1697,-26.7354,-17.4811,14.396,-9.2548,-24.6794,-10.2829,1.0285,49.2688,4.1127,
34.9617,-2.0566,-13.368,35.9898,3.0846,-26.7354,-11.3119,21.5943,-16.4531,-27.7645,-13.368,2.0566,48.3292,7.1978,
33.9342,0,-9.2543,41.1315,0,-33.9332,0,22.6228,-4.1131,-27.764,-8.2263,-3.0851,55.528,2.0571,
37.5333,-7.7123,-5.6552,49.8728,-2.5701,-35.4762,-0.51402,21.0798,5.6562,-22.1078,-1.5421,0.51402,65.2963,3.5991,
40.1029,-9.2548,-6.1697,54.4994,2.0566,-20.5662,-2.0566,24.6794,-3.0846,-21.5943,-4.1136,5.1417,71.9801,8.2258,
35.4763,-3.5991,-14.9095,39.4994,10.7974,-21.0797,-6.6833,12.8535,-9.7684,-22.1078,-8.7403,3.5991,63.2402,4.6272,
39.0754,2.0571,-13.3675,46.2736,4.1131,-36.0797,-9.2543,4.1131,-7.1983,-25.7069,-3.0851,0,54.4999,0,
43.1885,-5.1412,-8.2263,53.4709,0,-44.2166,5.7457,15.4245,-7.1982,-39.0754,0,-8.2263,69.4999,2.0571,
34.4482,-11.8254,-16.9666,38.4709,15,-36.5043,15.9386,12.8535,-0.51402,-44.7306,-7.7123,-13.8815,84.4999,0.51402,
23.1373,-11.8249,-9.7688,42.674,5.6557,-38.5609,1.5426,12.8539,14.486,-35.4758,-2.5706,-5.6557,80.7213,-1.5426,
19.0232,-26.8249,-1.5426,53.9854,-9.3443,-53.5609,-4.6277,14.91,10.7969,-30.3346,8.7398,-3.5996,70.438,1.5426,
24.1653,-31.3626,-13.882,44.7311,0.51451,-58.0986,5.6557,6.6837,-4.2031,-33.4197,-0.51451,-6.6837,62.2117,0.51451,
38.5614,-16.3626,-10.7974,44.7306,15.5145,-47.8157,20.6557,6.6842,-0.51402,-32.3911,-1.5421,0.51402,70.4385,-3.5991,
43.7025,-7.7123,-0.51402,45.7596,30.5145,-62.8157,34.4482,0.51402,-0.51402,-33.4192,3.5991,-8.7403,70.4385,-2.5701,
46.7872,-17.9951,1.5426,51.9283,45.5145,-77.8157,38.5609,-6.6837,-8.7408,-30.3346,4.6277,-17.9951,70.438,-1.5426,
57.0705,-13.882,2.5706,52.9574,60.5145,-92.8157,40.6179,-9.7688,-2.5706,-26.2214,6.6837,-8.7408,84.8345,-5.6557,
60.1551,-7.7123,-0.51402,49.8718,75.5145,-104.3722,38.5604,-9.7693,0.51402,-38.5614,4.6272,-13.8825,87.9191,-5.6562,
59.6411,1.028,-4.1131,49.3577,90.5145,-115.1686,35.9903,-7.1983,-1.028,-42.1595,4.1131,-16.4526,84.32,-5.1412,
55.5284,7.1987,-5.1407,44.2171,105.5145,-103.8572,38.0468,-8.2258,-2.0566,-33.9337,2.0566,-14.396,85.3485,-7.1978,
52.9574,6.6837,-5.6557,50.9003,120.5145,-91.0037,38.5609,-11.8249,1.5426,-28.2775,-1.5426,-17.9951,82.7774,-5.6557,
56.042,9.7684,-1.5421,52.9569,135.5145,-89.9757,33.4192,-9.7684,1.5421,-26.2219,-3.5991,-13.8825,67.7774,-2.5711,
61.1837,14.91,0.51451,50.9003,147.5597,-96.1454,27.2495,-0.51451,-5.6557,-26.2214,-5.6557,-6.6837,63.2397,-4.6277,
60.6687,16.4521,-1.0285,53.4714,150.1308,-98.7165,37.0188,1.0285,-1.0285,-19.5382,-1.0285,-11.3109,78.2397,-6.1697,
51.9288,10.7974,-6.6842,47.8157,146.5322,-95.1169,45.7586,-5.6552,-0.51402,-16.9666,0.51402,-22.1088,93.0603,-7.7123,
57.5845,17.4811,-4.1127,54.4994,137.7914,-87.4046,41.1319,-1.0285,-7.1978,-21.5943,1.0285,-16.4531,86.3766,-3.0846,
59.6411,16.4526,0,53.4709,129.5646,-95.6314,29.8201,0,-2.0571,-27.764,-1.028,-14.3965,91.5182,-4.1131,
52.9574,12.8539,-4.6277,46.7872,131.1071,-94.0888,34.4477,-3.5986,3.5986,-25.1934,-4.6277,-10.7969,93.0608,-8.7408,
51.9288,19.0237,-6.6842,44.7306,140.362,-79.0888,43.7025,-0.51402,-3.5991,-11.8254,0.51402,-3.5991,78.0608,-1.5421,
42.16,4.1136,-8.2258,31.8776,129.5651,-87.4046,28.7025,-9.2548,-1.0285,-10.2829,1.0285,-8.2258,69.924,-4.1127,
46.7872,-5.6557,-4.6267,46.7872,118.7677,-99.23,24.1653,-16.9661,13.9715,-2.5706,2.5706,-2.5706,84.924,-5.6557,
56.042,-4.6272,-3.5991,52.9569,113.626,-95.1169,35.4763,-13.8815,7.7123,-3.5991,2.5711,-2.5711,93.0603,-2.5711,
50.8998,-4.6272,0.51402,43.7025,108.4848,-93.0608,32.3911,-1.543,-2.5711,-4.6272,3.5991,-4.6272,92.0322,-0.51402,
44.2166,-11.3114,-3.0851,46.2736,97.6875,-103.8577,24.6789,0,0,-4.1131,4.1131,-5.1412,92.5463,-2.0561,
44.2166,-15.4245,-9.2543,51.4148,93.5743,-103.8577,27.764,-2.0571,1.028,-11.3114,3.0851,-12.3394,92.5463,-1.028,
44.7306,-6.6842,-0.51402,53.9849,89.9752,-89.9757,31.3631,8.7403,-2.5711,-12.8535,-0.51402,-15.9386,89.9752,0.51402,
37.5323,-5.6552,-2.5711,40.6174,74.9752,-89.9757,22.1088,3.5991,-8.7403,-19.0237,-9.7684,-15.9386,80.7209,2.5711,
43.1885,1.028,-3.0851,44.2166,89.4612,-82.2634,27.764,-1.028,-5.1412,-27.764,-4.1131,-6.1692,87.4051,16.4526,
42.1595,-1.028,-8.2263,43.1885,91.5182,-80.2068,26.7359,1.028,-11.3114,-35.9903,-8.2263,-9.2543,83.2919,14.3955,
35.4763,-4.6272,-10.7964,32.3911,77.6367,-80.7209,24.1649,4.6272,-14.9095,-28.278,-11.8254,-16.9666,76.6077,5.6562,
35.9898,1.0285,-9.2548,39.0749,83.2914,-67.8674,20.5662,1.0285,-17.4811,-35.9908,-11.3109,-21.5943,83.2914,-1.0285,
41.1319,4.1136,-3.0846,46.2731,93.5748,-56.5555,24.6794,2.0566,-17.4801,-47.3012,-5.1407,-14.396,92.5468,-2.0566,
40.6174,-0.51402,-2.5711,38.5614,87.9191,-67.3534,33.4192,0.51402,-12.8535,-46.7876,-4.6272,-15.9386,91.0042,2.5711,
33.9332,-5.1412,-1.028,49.3577,88.4331,-78.1503,31.8771,0,-1.028,-49.3578,0,-27.764,91.5182,6.1692,
24.1649,-20.1412,1.5421,49.8718,78.6648,-93.1503,24.1649,-10.7974,-1.5421,-55.0139,12.8535,-39.5894,95.1174,-6.6842,
29.306,-29.306,3.5991,49.8718,66.3253,-96.1454,29.306,-11.8254,-3.5991,-40.0139,19.0237,-32.3911,89.9752,-9.7684,
31.8766,-14.306,1.0285,46.2731,76.0932,-81.2354,33.9337,-5.1417,-1.0285,-25.0139,7.1978,-17.3911,82.2634,-2.0566,
29.306,-0.51402,2.5711,44.7306,85.862,-76.6077,32.3911,0.51402,-3.5991,-26.2219,-1.5421,-15.9386,86.8911,-1.5421,
34.4477,2.5706,-2.5706,49.8723,89.9757,-78.6643,25.1934,5.6557,-13.882,-38.5609,-8.7408,-30.3346,87.9186,-4.6277,
31.3631,2.5711,-14.9105,34.8723,89.9762,-69.4095,15.9386,-2.5711,-20.0517,-33.4192,-19.0237,-28.278,74.5516,4.6272,
29.3065,-0.51451,-10.7969,34.4477,81.7494,-54.4095,16.9671,0.51451,-10.7969,-18.4192,-10.7969,-13.278,75.5792,19.6272,
24.6789,-9.2543,-9.2543,40.1034,66.7494,-53.4709,10.2834,3.0851,-9.2543,-11.3114,-7.1982,-3.0851,80.2068,25.7079,
27.7645,-6.1697,-8.2258,37.0188,68.8959,-51.4143,18.5101,6.1697,-7.1978,-18.5092,-9.2538,-6.1697,76.0942,18.5101,
25.1929,-5.6552,-9.7684,37.5323,61.1832,-60.1551,25.1929,5.6552,-11.8254,-23.1368,-8.7403,-9.7684,68.3814,21.0798,
24.6794,-7.1978,-11.3109,32.9057,50.3863,-69.924,17.4811,7.1978,-17.4811,-33.9337,-7.1978,-13.368,83.2914,13.368,
28.2785,6.6837,-10.7969,33.4197,65.3863,-55.0134,13.882,0.51451,-15.9381,-40.6179,-5.6557,-11.8249,91.0037,-0.51451,
38.0464,21.6837,-7.1982,47.3007,80.3863,-40.0134,27.764,0,-8.2263,-32.9061,-1.029,-6.1702,88.4331,0,
29.8206,24.6794,-9.2548,41.1319,74.0371,-51.4143,24.6794,5.1417,-11.3109,-38.0468,-5.1417,-11.3109,80.2073,-9.2548,
23.6508,20.5657,-12.3394,35.9903,59.6411,-64.7823,10.2834,9.2543,-16.4526,-37.0183,-13.3675,-17.4806,65.2073,-9.2543,
20.0517,12.8544,-16.9666,29.307,48.8447,-60.1551,11.8254,-3.5991,-21.0797,-35.4763,-21.0797,-23.1358,50.2073,3.5991,
22.6223,6.1697,-15.425,30.8486,43.188,-54.4994,9.2538,-6.1697,-12.3399,-40.1039,-18.5092,-15.425,57.5845,7.1978,
19.5382,1.0285,-5.1417,44.2171,40.1039,-64.7823,-5.7462,4.1136,-4.1127,-34.9617,-13.368,-1.0285,67.8679,2.0566,
13.368,-1.0285,-1.0285,45.2451,39.0749,-64.7828,1.0285,2.0566,-8.2268,-23.6513,-12.3399,-1.0285,53.4714,5.1417,
19.5382,-1.0285,-5.1417,42.16,30.8486,-60.6687,16.0285,1.0285,-14.396,-34.9617,-12.3389,-15.4241,47.3012,1.0285,
22.1088,-1.5421,1.5421,41.6455,26.2219,-68.3814,19.0237,6.6842,-8.7403,-48.8437,-5.6552,-15.9386,58.0981,-8.7403,
11.8254,0.51402,3.5991,44.7306,29.307,-72.4946,4.0237,1.543,-7.7123,-40.6174,-4.6272,-6.6832,59.1271,-9.7684,
12.8535,-0.51402,-2.5711,52.9569,33.4192,-68.3819,2.5701,0.51402,-5.6562,-29.307,-1.543,-6.6842,51.9288,5.2316,
22.1078,-5.6552,-2.5711,44.7306,25.1929,-70.438,1.5421,9.7684,-2.5711,-35.4763,-1.5421,-20.0517,41.6455,13.8815,
24.1653,2.5706,12.4289,38.5609,10.1929,-63.2402,-8.7408,17.9951,-9.7688,-36.5048,-10.7969,-17.9951,43.7021,-1.1185,
25.7069,13.3675,24.6789,42.1595,0,-48.2402,-4.1131,19.5377,-6.1702,-23.6508,-6.1702,-2.9951,58.6121,0,
17.4816,0,9.6789,37.0193,2.0571,-48.3297,-9.2543,11.3114,-5.1412,-30.8481,-4.1131,-11.3104,47.3017,7.1982,
18.5087,-12.3394,-1.028,45.2446,17.0571,-59.6411,5.7457,12.3394,-5.1412,-35.9903,-1.028,-17.4816,40.1034,1.028,
14.9105,-23.1368,13.972,39.5894,13.8825,-74.6411,20.7457,4.6272,-7.7123,-36.5043,-4.6272,-10.7964,47.8157,-13.972,
17.9951,-8.1368,22.1083,47.8152,11.8249,-71.4665,5.7457,5.6557,-7.7118,-38.5609,-5.6557,-3.5986,58.0986,-6.6837,
25.7079,-1.028,18.5096,57.584,10.2834,-73.0086,-9.2543,3.0851,-1.028,-38.0464,-1.028,-8.2263,58.6131,1.028,
19.5377,-16.028,10.2824,49.3577,-3.0851,-88.0086,2.0561,-4.1131,0,-26.7359,2.0561,-12.3394,56.556,0,
10.7974,-13.8815,9.7684,45.7586,-7.7123,-73.0086,3.5991,3.5991,-6.6842,-21.0797,-3.5991,-5.6552,58.0981,6.6842,
7.7118,1.1185,11.8249,39.5889,-22.7123,-58.0086,-11.4009,17.9951,-5.6557,-36.0797,-10.7969,-7.7128,43.0981,19.0232,
-1.0285,-1.0285,1.0285,44.2171,-37.7123,-43.0086,-20.5662,30.8486,-4.1127,-32.9057,1.0285,-13.368,28.0981,23.6513,
-16.0285,-6.6842,-0.51402,47.8157,-52.7123,-28.0086,-9.7684,38.5614,-6.6842,-17.9057,16.0285,0.51402,42.6745,17.9946,
-31.0285,-18.5096,-1.028,32.8157,-67.7123,-13.0086,-24.7684,31.8771,-8.2263,-17.4806,4.1131,1.028,35.9903,6.1702,
-22.6228,-16.4526,-2.0571,28.792,-82.7123,1.9914,-39.7684,32.9052,6.7737,-17.4806,-1.028,1.028,20.9903,10.2834,
-29.3065,-17.9951,-16.9671,22.1083,-97.7123,16.9914,-54.7684,24.1644,-2.5706,-2.4806,2.5706,1.5426,5.9903,8.7408,
-35.4763,-23.1368,-25.1929,17.9946,-112.7123,31.9914,-46.7876,21.0797,-17.5706,1.5421,-1.5421,7.7123,13.8815,7.7123,
-23.6508,-17.4806,-20.5657,26.7359,-127.7123,38.0464,-45.2446,30.8491,-12.3394,1.028,-1.028,20.5657,19.5377,15.4245,
-28.2785,-16.9671,-22.1083,19.0232,-140.3624,24.1644,-43.703,19.0232,-6.6847,-1.5426,1.5426,12.853,5.6557,10.7969,
-23.1363,-15.9381,-13.882,30.3346,-125.3624,24.1653,-28.703,23.1363,-6.6837,-3.5986,3.5986,14.91,10.7969,10.7969,
-9.7688,-20.0522,-4.6277,43.7021,-118.7682,24.1644,-24.1653,38.1363,-2.5706,-5.6557,2.5706,23.1363,25.7969,21.0793,
-17.4811,-29.8206,-5.1417,41.1319,-133.7682,9.1644,-39.1653,30.8486,-1.0285,-9.2548,1.0285,12.3389,24.6794,19.5372,
-26.7354,-34.9617,-6.1697,43.188,-134.7063,3.0846,-24.1653,15.8486,-3.0846,-12.3399,5.1417,8.2258,16.4521,17.4811,
-28.2775,-38.5609,-3.5986,43.703,-119.7063,10.7969,-9.1653,20.0522,-2.5706,-12.853,2.5706,11.8259,24.1653,23.1363,
-31.8776,-41.1319,-6.1697,44.2161,-110.0279,7.1978,-24.1653,16.4521,2.0566,-2.0566,-6.1697,10.2829,31.8766,21.5943,
-29.8206,-40.1029,-16.4521,35.9908,-125.0279,2.0566,-39.1653,3.0846,-2.0566,2.0566,-12.3389,5.1417,23.6513,10.2829,
-14.8206,-25.1029,-3.5991,49.8718,-110.0279,17.0566,-24.1653,18.0846,-2.5711,2.5711,-2.5711,16.9666,29.306,25.2829,
-17.4811,-10.1029,-2.0566,51.4143,-107.9713,32.0566,-31.8776,33.0846,-9.2548,-11.3119,-7.1987,13.367,21.5933,28.7915,
-23.1363,-4.6277,-5.6557,40.6179,-122.9713,21.0802,-34.4477,18.0846,4.6277,-9.7688,-6.6837,16.9671,13.882,23.1363,
-22.6218,-3.0851,-9.2543,37.0183,-107.9713,27.764,-28.792,25.7079,3.0851,-9.2543,-6.1692,20.5657,12.3394,17.4816,
-16.4521,3.0846,-3.0846,42.16,-92.9713,42.764,-35.9898,40.7079,-6.1697,-9.2548,-4.1127,20.5662,25.7074,25.7074,
-19.0237,2.5711,-10.7974,41.6455,-97.1734,46.7876,-27.25,30.3351,-2.5711,-10.7974,-4.6272,23.1368,14.9105,22.1088,
-28.278,0.51402,-13.8825,35.4763,-112.1734,31.7876,-19.0237,17.9946,-1.543,-13.8825,-0.51402,15.9386,1.5421,10.7974,
-33.4197,2.5706,-4.6277,29.3065,-101.2866,30.3346,-33.4197,31.3626,-11.8249,-14.91,-2.5706,9.7688,16.5421,13.882,
-32.9052,3.0851,-3.0851,31.8771,-98.716,40.1034,-45.2446,30.8491,-26.8249,-20.5657,-17.5706,9.2553,23.6508,11.3114,
-30.8486,1.0285,-1.0285,32.9057,-113.716,31.8776,-44.2161,20.5662,-23.6503,-17.4811,-26.7354,12.3399,8.6508,9.2548,
-27.25,0.51402,-0.51402,40.6174,-112.598,21.0798,-42.6745,24.1649,-8.6503,-3.5991,-11.7354,17.9956,17.9956,21.0798,
-23.1368,-0.51402,-4.6272,48.8437,-97.598,24.1649,-36.5043,23.1368,-5.6552,-2.5711,0.51402,19.0237,32.9956,24.1649,
-24.1644,-5.6557,5.6557,40.6179,-89.9752,21.0802,-35.4758,9.7688,-13.882,-9.7688,-8.7398,17.9951,20.0522,16.9671,
-26.7359,-16.4526,15.4245,52.4429,-104.9752,6.0802,-37.0183,10.2824,-6.1702,0,-5.1412,25.7069,15.4245,25.7069,
-35.9908,-31.4526,3.0846,53.4714,-119.9752,-8.9198,-35.9908,9.2548,-1.0285,1.0285,-4.1136,13.368,20.5652,24.6794,
-20.9908,-16.4526,14.91,55.0134,-104.9752,6.0802,-20.9908,24.1644,-0.51451,0.51451,-1.5426,-0.51451,32.3916,26.2214,
-6.6842,-1.4526,6.6842,41.6455,-89.9752,21.0802,-19.0237,21.0797,-15.5145,-14.4855,-16.5426,-11.8254,17.3916,11.2214,
-0.51402,13.5474,0.51402,32.3911,-74.9752,36.0802,-21.0798,22.1088,-26.2209,-27.25,-26.2209,-4.6272,2.5711,6.6842,
4.6277,28.5474,-0.51451,26.2214,-62.2117,51.0802,-27.2495,21.0802,-33.4197,-29.3065,-32.3916,-19.6272,0.51451,1.5426,
8.2263,43.5474,5.1412,27.764,-74.0366,66.0802,-30.8491,28.792,-35.9903,-24.6789,-31.8771,-19.5377,0,0,
14.9105,58.5474,0.51402,35.4762,-77.6362,81.0802,-29.306,43.792,-23.1368,-14.9105,-17.9956,-4.5377,-0.51402,10.7974,
24.1649,73.5474,-3.5991,43.7025,-70.438,96.0802,-21.0797,52.9569,-12.8535,-5.6552,-12.8535,3.5991,-7.7123,22.1088,
9.1649,71.466,-0.51451,28.7025,-85.438,89.9757,-23.1363,37.9569,-24.1644,0.51451,-24.1644,-5.6557,-17.9951,15.9391,
-5.8351,66.8394,6.1702,26.7359,-100.438,83.2919,-29.8201,22.9569,-25.7069,6.1702,-20.5657,-6.1702,-11.3114,12.3394,
4.6277,62.2117,2.5706,41.7359,-98.202,76.6082,-23.1363,31.3626,-16.9671,-4.6277,-9.7688,-2.5706,-3.5986,11.8249,
8.7403,61.1832,-8.7403,33.4192,-94.0888,70.4385,-24.1649,32.3911,-19.0237,-19.6277,-14.9105,7.7123,-3.5991,3.5991,
-5.6557,61.1837,-7.7118,36.5048,-80.7209,78.6643,-28.2775,30.3346,-15.9381,-13.882,-12.8539,11.8259,5.6557,16.9671,
-5.6557,47.8162,-3.5986,48.8442,-76.6077,86.8906,-26.2214,37.5328,-3.5986,-1.5426,1.5426,-3.1741,13.882,28.2785,
9.3443,42.6745,-1.5421,48.8437,-87.9191,86.8911,-31.3631,38.5614,-2.5711,-2.5711,-1.5421,-11.8254,1.5421,22.1078,
6.6842,51.9288,-6.6842,49.8718,-87.9191,101.2866,-25.1929,40.6174,-5.6552,-1.5421,-11.8254,1.5421,-6.6842,37.1078,
-8.3158,49.3578,-17.4816,40.1034,-73.0091,104.8857,-12.3394,42.1595,-9.2553,-4.1131,-10.2834,4.1131,6.1692,52.1078,
-9.7688,51.9283,-13.882,41.646,-58.0986,96.1449,-17.9951,43.7021,-7.7118,-7.7118,-3.5986,3.5986,20.0522,67.1078,
-9.2548,54.4994,-15.4241,41.1319,-70.952,90.4897,-32.9951,42.16,-5.1417,-7.1978,-6.1697,5.1417,17.4811,82.1078,
-11.3109,51.4143,-16.4531,42.16,-85.3485,95.6309,-29.8206,48.3292,-2.0566,-3.0846,-2.0566,2.0566,14.396,67.1078,
-10.7964,42.6745,-19.0227,40.6174,-77.6357,92.0323,-14.8206,41.6465,-8.7403,-9.7684,0.51402,-0.51402,25.1939,52.1078,
-14.9105,34.4482,-16.9666,34.4482,-73.5231,77.0323,-22.1088,26.6465,-8.7403,-13.8815,-2.5711,2.5711,19.0237,37.1078,
-10.7969,42.674,-7.7118,44.7311,-78.6643,72.4951,-32.3916,41.646,0.51451,-0.51451,-0.51451,12.8539,4.0237,31.3626,
-14.396,35.9898,-11.3109,39.0749,-81.2354,84.3195,-17.3916,46.2731,-4.1136,-3.0846,-10.2829,8.2258,3.0846,19.5372,
-25.7074,24.6794,-11.3109,37.0188,-75.0652,91.5177,-2.3916,31.2731,-9.2548,-17.4811,-13.368,1.0285,17.4811,12.3399,
-10.7074,39.6794,-0.51402,52.0188,-60.0652,97.1734,-7.7123,39.5894,-8.7403,-7.7123,0.51402,3.5991,2.4811,27.3399,
4.2926,54.6794,-1.5426,50.9003,-45.0652,111.5704,-14.91,51.9293,-14.91,-9.7688,-3.5986,1.5426,-12.5189,26.2214,
13.882,69.6794,-8.7408,48.8442,-46.7872,126.5704,0.089969,44.7311,-10.7969,-22.1083,-7.7118,-8.7408,-27.5189,22.1083,
10.2829,76.0942,-20.5652,38.0468,-31.7872,111.5704,15.09,29.7311,-13.368,-37.1083,-6.1697,-23.7408,-32.9057,7.1083,
25.2829,91.0942,-20.0517,23.0468,-16.7872,99.2305,27.25,24.1649,-28.368,-52.1083,-21.1697,-38.7408,-47.9057,-7.8917,
40.2829,106.0942,-9.2543,20.5657,-1.7872,114.2305,12.25,30.8491,-43.368,-52.4429,-36.1697,-53.7408,-62.9057,-22.8917,
55.2829,121.0942,-16.9666,16.9666,13.2128,129.2305,27.25,29.307,-57.07,-53.9849,-51.1697,-50.8998,-77.6358,-20.0517,
70.2829,136.0942,-21.0802,14.91,28.2128,144.2305,42.25,34.4477,-72.07,-68.9849,-66.1697,-64.2678,-62.6358,-14.91,
85.2829,151.0942,-9.2543,9.2543,43.2128,159.2305,27.25,37.0183,-80.2068,-83.9849,-78.1498,-79.2678,-77.6358,-27.764,
100.2829,166.0942,-6.6837,6.6837,58.2128,174.2305,40.6179,37.5328,-76.6082,-84.8345,-78.6643,-84.8345,-92.6358,-27.2495,
115.2829,181.0942,-19.5372,14.396,73.2128,189.2305,55.6179,29.8206,-76.0942,-74.0371,-73.0091,-70.952,-77.6358,-14.396,
107.9708,196.0942,-15.4245,15.4245,88.2128,174.2305,70.6179,26.7359,-68.8954,-75.0647,-58.0091,-74.0366,-62.6358,-19.5377,
99.7435,181.0942,-12.3394,12.3394,103.2128,159.2305,85.6179,24.6789,-69.9245,-79.1788,-46.2736,-82.2639,-75.0656,-34.5377,
84.7435,166.0942,-15.9386,15.9386,107.4568,144.2305,100.6179,21.0797,-74.5506,-73.5226,-51.9288,-68.3814,-74.5506,-32.3911,
69.7435,151.0942,-10.7974,21.0797,92.4568,129.2305,115.6179,10.7974,-59.5506,-66.3244,-44.7306,-59.1271,-65.2963,-17.3911,
54.7435,136.0942,-7.7123,22.1088,77.4568,114.2305,130.6179,15.9386,-44.5506,-53.9849,-36.5043,-44.1271,-63.2402,-17.9946,
40.1039,121.0942,2.0566,24.6794,62.4568,99.2305,145.6179,30.9386,-29.5506,-38.9849,-30.8486,-29.1271,-50.3863,-2.9946,
32.3911,106.0942,-3.5991,21.0798,47.4568,84.2305,160.6179,41.6455,-36.5043,-23.9849,-36.5043,-24.1649,-65.3863,3.5991,
17.3911,91.0942,-2.0566,28.7925,32.4568,69.2305,175.6179,26.6455,-35.9898,-28.7915,-25.7074,-39.0749,-80.3863,2.0566,
2.3911,76.0942,8.7398,35.4758,17.4568,63.2397,190.6179,26.2214,-24.1653,-23.1363,-21.0802,-35.4767,-92.0322,2.5706,
-2.5706,61.0942,2.5706,33.4197,2.4568,71.466,205.6179,25.1934,-23.1363,-21.0802,-14.91,-35.4767,-77.0322,3.5986,
-4.6272,46.0942,-12.4294,28.278,-12.5432,77.6358,220.6179,23.1368,-32.3911,-25.1929,0.089968,-25.1929,-62.0322,4.6272,
-12.853,31.0942,-17.9951,33.4197,-27.5432,92.6358,235.6179,34.4477,-37.5328,-22.1083,11.8259,-10.1929,-56.0415,5.6557,
-14.3955,22.6228,-3.0851,38.0473,-42.5432,107.6358,250.6179,45.2456,-23.6508,-7.1083,5.1422,-10.2824,-41.0415,3.0851,
-3.5991,19.0237,1.543,29.306,-57.5432,109.5129,265.6179,59.1271,-19.0237,-0.51402,0.51402,-25.2824,-26.0415,-7.7123,
-0.51402,27.249,0.51402,27.249,-42.5432,124.5129,280.6179,74.1271,-33.4202,-9.7693,-4.6281,-20.0517,-41.0415,-9.7693,
-15.514,27.764,-2.0571,23.6508,-27.5432,139.5129,295.6179,89.1271,-18.4202,-8.2263,0,-5.0517,-56.0415,-2.0571,
-30.514,12.764,-17.0571,19.0232,-24.1653,154.5129,310.6179,104.1271,-3.4202,-5.6557,1.5426,3.5986,-41.0415,-13.882,
-30.3346,3.5986,-32.0571,28.2775,-9.1653,160.9282,325.6179,119.1271,-14.91,-2.5706,7.7118,-2.5706,-29.3065,-21.0802,
-37.5328,2.5706,-21.0802,15.9381,5.8347,175.9282,340.6179,134.1271,-25.1934,-2.5706,16.9671,-9.7688,-36.5048,-19.0232,
-48.8442,-12.4294,-13.882,14.91,-0.51451,190.9282,355.6179,149.1271,-10.1934,0.51451,31.9671,0.51451,-27.2495,-22.1083,
-63.8442,-27.4294,-28.882,11.8254,14.4855,204.1162,370.6179,164.1271,-3.5991,-2.5711,29.306,2.5711,-25.1929,-37.1083,
-77.6362,-37.5328,-31.3626,11.8249,29.4855,193.8333,385.6179,179.1271,-18.5991,2.5706,17.9951,-2.5706,-13.882,-48.8442,
-80.2063,-22.5328,-23.6503,14.396,44.4855,203.6017,400.6179,194.1271,-25.7074,5.1417,7.1978,-7.1978,-8.2258,-44.2161,
-69.4095,-7.5328,-23.1368,8.7403,29.4855,188.6017,415.6179,209.1271,-21.0798,-2.5711,4.6272,-6.6842,-19.0237,-50.9008,
-60.6691,1.028,-17.4806,6.1702,14.4855,180.9794,430.6179,224.1271,-20.5657,6.1702,6.1702,-1.028,-24.6789,-55.528,
-75.6691,-13.8815,-7.7123,7.7123,-0.51451,195.9794,445.6179,239.1271,-12.8535,21.1702,12.8535,13.972,-15.9386,-49.8718,
-90.6691,-28.8815,-22.7123,-1.5421,14.4855,210.9794,460.6179,254.1271,-22.1078,6.1702,10.7974,5.6552,-5.6552,-53.9849,
-105.6691,-28.278,-26.2219,7.7123,27.25,225.9794,475.6179,269.1271,-20.0517,-8.8298,13.8815,-7.7123,9.3448,-52.9569,
-90.6691,-31.3631,-11.2219,11.8254,12.25,240.9794,490.6179,284.1271,-7.7123,6.1702,16.9666,-3.5991,3.5991,-45.7586,
-84.834,-42.6745,-8.7403,8.7403,-2.75,255.9794,505.6179,299.1271,-15.9386,21.1702,15.9386,10.7964,-11.4009,-41.6465,
-93.0603,-27.6745,-16.9666,9.7684,-17.75,270.9794,520.6179,314.1271,-21.0797,12.8535,9.7684,6.6842,-6.6842,-47.8157,
-85.8625,-12.6745,-5.6557,10.7969,-32.75,285.3506,535.6179,329.1271,-12.8539,11.8249,5.6557,-6.6837,8.3158,-62.8157,
-98.7165,-27.6745,-13.3675,7.1982,-20.5657,288.9502,550.6179,344.1271,-18.5096,18.5087,4.1131,-4.1131,17.4806,-70.9525,
-105.9142,-26.7359,-19.5377,1.028,-26.7359,294.0914,565.6179,359.1271,-20.5657,12.3394,14.3955,9.2543,2.4806,-58.6131,
-94.6028,-29.8201,-4.5377,8.2263,-41.7359,287.9222,580.6179,374.1271,-17.4806,-2.6606,23.6508,3.0851,-3.0851,-61.6972,
-81.7489,-44.8201,10.4623,22.1088,-56.7359,293.5774,595.6179,389.1271,-14.9105,-0.51402,26.2219,-8.7403,0.51402,-70.4375,
-85.3475,-42.16,25.4623,18.5092,-71.7359,307.4594,610.6179,404.1271,-10.2829,9.2548,19.5382,-10.2829,-9.2548,-64.7818,
-92.0323,-27.16,10.4623,13.882,-56.7359,298.7191,625.6179,419.1271,-6.6837,2.5706,7.7118,-12.8539,-24.1653,-63.2397,
-87.4046,-22.6223,6.1697,7.1987,-41.7359,303.3462,640.6179,434.1271,-5.1417,5.1417,16.4531,-12.3389,-19.5372,-62.7257,
-92.5468,-37.6223,2.0566,2.0566,-26.7359,318.3462,655.6179,449.1271,-9.2548,6.1697,26.7354,-22.6223,-13.368,-66.8389,
-77.5468,-22.6223,0,13.3675,-41.1324,303.3462,670.6179,464.1271,0,7.1973,24.6789,-21.5948,-8.2273,-63.7543,
-66.8394,-7.6223,0,0,-56.1324,288.3462,685.6179,479.1271,-9.2543,7.1983,11.3114,-15.4245,-20.5657,-63.7543,
-64.7828,-22.6223,15,2.0566,-42.16,303.3462,700.6179,494.1271,-11.3119,21.5943,26.3114,-2.0566,-9.2548,-48.7543,
-70.9525,-37.0183,15.4245,5.1412,-27.16,318.3462,715.6179,509.1271,-13.3675,20.5657,26.7359,-5.1412,-7.1983,-37.0183,
-78.1498,-39.0749,8.2268,6.1697,-12.3389,315.6866,730.0883,524.1271,-16.4521,17.4811,23.6513,-10.2829,-6.1697,-41.131,
-86.3761,-44.2166,0,6.1702,0,308.4879,725.9746,539.1271,-20.5657,12.3404,17.4816,-16.4526,-6.1692,-47.3007,
-94.6028,-47.3012,-8.2258,6.1697,13.368,302.3182,722.89,554.1271,-24.6784,8.2268,13.368,-21.5943,-6.1697,-52.4424,
-102.3146,-50.9003,-14.91,7.7128,27.2504,296.663,720.319,569.1271,-28.2775,5.6557,9.7688,-26.2214,-5.6557,-57.0695,
-108.4853,-50.9008,-22.1088,9.7684,42.2504,291.5203,720.3185,584.1271,-29.307,3.5991,7.7123,-30.3351,-3.5991,-60.1551,
-93.4853,-35.9008,-7.1088,16.4526,27.2504,306.5203,735.3185,599.1271,-14.307,5.1412,16.4526,-15.3351,-5.1412,-45.1551,
-78.4853,-20.9008,7.8912,23.1368,12.2504,321.5203,732.6579,614.1271,-3.5991,3.5991,20.0517,-8.7403,-12.8535,-30.1551,
-93.4853,-35.9008,2.0566,8.1368,25.7074,313.6296,717.6579,629.1271,-18.5991,-2.0566,13.368,-22.6223,-5.1417,-42.16,
-78.4853,-35.9898,17.0566,21.5943,10.7074,305.4033,707.4655,644.1271,-14.396,-6.1697,15.425,-23.6503,6.1697,-29.8206,
-63.4853,-29.306,32.0566,34.4482,-4.2926,320.4033,722.4655,659.1271,0.51402,-1.5421,20.0517,-17.9946,-0.51402,-14.8206,
-78.4853,-31.8776,23.6503,19.4482,-19.2926,335.4033,737.4655,674.1271,-9.2548,9.2548,10.2829,-23.6513,-12.3399,-29.8206,
-93.4853,-16.8776,21.5943,25.7074,-19.5372,320.4033,749.625,689.1271,-10.2829,7.1978,12.3389,-27.7645,-7.1978,-41.1319,
-95.6319,-26.7364,28.7915,25.7064,-34.5372,305.4033,734.625,704.1271,-2.0566,-7.8022,22.6223,-20.5662,2.0566,-34.9627,
-105.4002,-41.7364,24.1649,19.0227,-49.5372,320.4033,719.625,719.1271,-0.51402,0.51402,22.1078,-5.5662,-1.543,-22.1088,
-101.2866,-48.8437,14.9105,10.7974,-64.5372,318.2563,709.008,734.1271,-10.7974,15.514,11.8254,-10.7974,-16.543,-25.1929,
-110.5414,-50.9003,11.8249,11.8249,-49.5372,303.2563,724.008,749.1271,-11.8249,6.6837,19.0232,-25.1934,-6.6837,-39.5889,
-123.3949,-46.2726,8.2263,17.4816,-34.5372,288.2563,709.008,764.1271,-16.4526,-8.3163,16.4526,-32.9052,8.3163,-50.3858,
-108.3949,-49.8723,8.7408,10.7969,-37.5328,300.7761,694.008,779.1271,-7.7118,-3.5986,6.6837,-23.1363,3.5986,-37.5328,
-95.6309,-64.8723,-3.0851,3.0851,-40.1034,300.2616,709.008,794.1271,7.1983,6.1702,6.1702,-15.4245,-11.4014,-35.9903,
-100.7731,-71.981,-5.1417,6.1697,-29.8206,293.0629,707.4655,809.1271,8.2258,5.1417,9.2548,-22.6223,-16.4531,-42.16,
-99.23,-56.981,4.6277,6.6837,-44.8206,289.4647,692.4655,824.1271,-6.7742,-4.6277,4.6277,-33.4197,-1.4531,-37.5328,
-86.8906,-42.674,9.7688,15.9391,-59.8206,296.663,678.1595,839.1271,-11.8249,-5.6557,10.7969,-21.0802,5.6557,-32.3907,
-73.0086,-44.2166,7.1982,14.3965,-44.8206,310.545,678.673,854.1271,0,0,14.3965,-8.2263,-9.3443,-31.8771,
-68.8959,-35.9908,8.2268,17.4811,-49.3582,295.545,663.673,869.1271,-8.2268,9.2548,10.2829,-11.3109,-15.4241,-23.6503,
-81.2359,-40.1034,1.028,12.3394,-46.2736,280.545,648.673,884.1271,-23.2268,1.028,0,-25.7079,-0.42405,-33.9342,
-66.2359,-25.1034,6.6842,11.8254,-31.2736,288.4362,633.673,899.1271,-13.8815,8.7403,7.7123,-11.8254,-6.6842,-34.4472,
-59.1266,-15.9381,4.6277,15.9391,-46.2736,285.3516,618.673,914.1271,-4.6277,9.7688,5.6557,-14.91,-21.6842,-30.3346,
-57.07,-16.9666,6.6842,12.8535,-55.0139,270.3516,603.673,929.1271,-9.7684,2.5711,4.6272,-22.1078,-6.6842,-28.278,
-42.07,-1.9666,2.0566,3.0846,-40.0139,268.384,588.673,944.1271,-15.4241,-1.0285,-6.1697,-7.1078,1.0285,-37.0188,
-27.25,10.7974,-0.51402,0.51402,-27.25,276.0968,573.673,959.1271,-3.5991,6.6842,-4.6272,7.8922,-12.8535,-33.4192,
-39.0754,-4.2026,4.1131,0,-42.25,261.0968,558.673,974.1271,0,5.1422,7.1983,-7.1078,-14.3955,-24.6789,
-48.3302,-14.396,5.1417,8.2268,-57.25,246.0968,543.673,989.1271,-4.1136,4.1136,6.1697,-19.5372,-6.1697,-26.7354,
-40.6179,-4.6277,1.5426,5.6557,-52.9574,231.0968,528.673,1004.1271,-2.5706,7.7118,-2.5706,-4.5372,0.51451,-32.3916,
-30.3351,-3.5991,3.5991,7.7123,-63.2402,216.0968,513.673,1019.1271,-4.6281,6.6833,-11.8254,7.7123,-3.5991,-27.25,
-42.16,-6.1697,10.2829,20.5662,-78.2402,201.0968,498.673,1034.1271,-12.3389,6.1697,-19.5372,6.1697,-6.1697,-20.5652,
-53.4709,-16.4526,7.1982,18.5096,-93.2402,186.0968,483.673,1049.1271,-19.5377,4.1131,-20.5657,1.028,-1.028,-18.5087,
-38.4709,-17.9951,12.8539,29.3065,-108.2402,171.0968,468.673,1064.1271,-13.882,6.6837,-11.8249,-6.6837,10.7969,-10.7969,
-40.1034,-28.792,16.4526,29.8201,-123.2402,156.0968,453.673,1079.1271,-7.1983,1.028,-1.028,-21.6837,8.2263,-15.4245,
-55.1034,-43.792,10.7974,30.3351,-138.2402,141.0968,438.673,1094.1271,7.8017,-3.5991,13.972,-33.4192,3.5991,-10.7974,
-61.1837,-58.792,9.7684,30.3351,-153.2402,126.0968,423.673,1109.1271,7.7123,-15.9386,19.0237,-37.5323,5.6552,-5.6552,
-51.9288,-61.1832,16.9671,21.0802,-168.2402,111.0968,408.673,1124.1271,6.6837,-8.7398,7.7128,-28.2775,20.6552,-7.7118,
-57.0695,-46.1832,5.6557,19.0242,-183.2402,96.0968,393.673,1139.1271,5.6557,5.6557,-5.6557,-13.2775,16.9671,-11.8249,
-68.3809,-31.1832,-6.6837,20.0522,-197.946,81.0968,378.673,1154.1271,-0.51451,8.7408,-12.8539,1.7225,1.9671,0.51451,
-67.8669,-20.5662,-7.1978,21.5943,-189.2057,66.0968,363.673,1169.1271,-5.1417,14.396,-12.3399,8.2258,5.1417,15.4241,
-52.9569,-20.0517,1.5421,31.3631,-174.2057,51.0968,348.673,1154.1271,-2.5711,27.25,-9.7684,-1.5421,17.9946,16.9666,
-43.7021,-22.1083,16.5421,30.3346,-159.2057,36.0968,333.673,1139.1271,2.5706,23.1363,-2.5706,-2.5706,24.1644,25.1934,
-52.9569,-34.4482,9.7684,30.3341,-167.0979,21.0968,318.673,1124.1271,-2.5711,9.7684,-0.51402,0.51402,10.7964,28.278,
-48.8437,-29.306,-5.2316,33.4202,-169.154,6.0968,303.673,1109.1271,0.51402,21.0797,-0.51402,14.9105,5.6562,28.278,
-39.0749,-18.5092,-7.1978,29.8206,-154.154,-8.9032,288.673,1094.1271,6.1697,31.8776,-6.1697,16.4531,17.4811,28.7925,
-42.16,-29.8206,7.8022,30.8486,-146.0177,-23.9032,273.673,1079.1271,3.0846,17.4811,-8.2268,1.4531,27.7635,29.8206,
-44.2166,-37.0183,22.8022,31.8771,-149.1023,-38.9032,258.673,1064.1271,-1.028,5.1412,1.028,-6.1692,35.9903,35.9903,
-38.0473,-22.0183,14.3955,31.8771,-148.0747,-53.9032,243.673,1049.1271,0,4.1131,-4.1131,0,27.764,28.792,
-34.9617,-18.5092,8.2268,25.7074,-140.876,-68.9032,228.673,1034.1271,5.1417,10.2829,-17.4811,-5.1417,13.368,19.5382,
-32.3916,-25.1934,19.0232,33.4197,-134.1922,-83.9032,213.673,1019.1271,5.6557,20.0512,-5.6557,-5.6557,25.1934,30.3346,
-34.9617,-31.8766,6.1697,46.2731,-148.0742,-94.6028,198.673,1004.1271,1.0285,19.5372,-1.0285,-1.0285,23.6513,26.7354,
-33.9342,-28.792,-8.2263,31.2731,-144.9891,-103.8577,183.673,989.1271,8.2263,34.5372,-10.2834,13.9715,12.3394,14.3965,
-42.674,-23.1363,-9.7688,16.2731,-140.362,-115.6831,168.673,974.1271,10.7969,46.7872,-20.0522,15.9381,14.91,9.7688,
-39.0754,-22.6228,-1.028,27.764,-150.1308,-108.9989,153.673,959.1271,15.4245,34.9622,-5.0522,1.028,29.91,23.6508,
-33.9332,-32.9052,-6.1692,41.1324,-161.4417,-114.14,138.673,944.1271,4.1131,22.6228,5.1422,-4.1131,25.7079,26.7359,
-32.9052,-20.5657,0,42.1605,-150.1308,-116.1971,123.673,929.1271,0,31.8771,-1.028,10.8869,17.4806,22.6228,
-47.9052,-35.5657,-5.6557,27.1605,-160.9282,-131.1971,108.673,914.1271,5.6557,24.1644,-16.028,10.7969,7.7118,8.7408,
-47.3012,-50.5657,-9.2548,15.4241,-163.4988,-146.1971,93.673,899.1271,12.3399,19.5372,-11.3109,12.3399,9.2548,13.368,
-49.8718,-51.9288,-0.51402,26.2219,-165.0408,-151.6734,78.673,884.1271,0.51402,19.0237,-9.7684,13.8825,2.5711,9.7684,
-50.3858,-51.4148,4.1131,23.6508,-174.8097,-156.3005,63.673,869.1271,6.1702,22.6228,-15.4245,10.2834,-4.1131,5.1412,
-42.1605,-48.3297,0,27.764,-175.8382,-148.0742,48.673,854.1271,15.4245,25.7069,-11.3114,9.2543,0,16.4526,
-46.7867,-52.9569,1.543,25.1939,-173.2671,-148.5883,33.673,839.1271,0.51402,24.1649,-4.6272,2.5711,-0.51402,14.9105,
-51.4148,-61.6977,4.1131,28.792,-171.7246,-163.5883,18.673,824.1271,1.028,22.6228,-2.0561,1.028,4.1131,-0.089479,
-43.7021,-56.0415,-2.5706,29.3065,-164.0123,-171.2106,3.673,809.1271,3.5996,14.911,12.9439,9.7688,2.5706,-2.5706,
-38.0468,-41.0415,-2.0566,19.5372,-152.1874,-156.2106,-11.327,794.1271,2.0566,15.4241,27.9439,16.4521,-12.3399,12.4294,
-34.4477,-26.0415,2.5706,25.1934,-147.5602,-141.2106,-26.327,779.1271,-1.5426,16.9671,42.9439,1.5426,-6.6837,13.882,
-22.1083,-33.4197,10.7969,32.3916,-148.5883,-156.2106,-41.327,764.1271,0.51451,16.9671,49.8723,-4.6277,8.3163,12.8539,
-35.4763,-46.7876,2.5711,25.1929,-161.9562,-169.154,-56.327,749.1271,1.5421,19.0237,34.8723,-1.5421,19.0237,13.8815,
-44.2161,-39.0749,-3.0846,25.7074,-161.4417,-154.154,-71.327,734.1271,6.1697,28.7925,19.8723,3.0846,8.2268,13.368,
-31.8771,-32.9052,5.1412,16.4526,-151.1593,-147.0457,-86.327,719.1271,-1.028,23.6508,11.3114,1.028,9.2543,13.3675,
-16.8771,-26.7354,15.4241,31.4526,-136.1593,-161.4417,-101.327,704.1271,-3.0846,23.6503,23.6503,3.0846,11.3109,20.5662,
-30.3346,-28.2775,1.5426,37.5328,-136.2488,-173.2671,-116.327,689.1271,1.5426,27.2504,26.2214,-1.5426,5.6557,14.91,
-34.9617,-29.8206,1.0285,34.9617,-147.0457,-162.4702,-131.327,674.1271,4.1136,29.8206,11.2214,-1.0285,7.1978,21.5943,
-24.6789,-29.821,4.1131,44.2166,-137.7914,-155.2725,-146.327,659.1271,7.1983,23.6508,-1.028,1.028,6.1692,36.5943,
-28.2785,-22.1083,-1.5426,41.646,-133.1642,-157.8431,-161.327,644.1271,9.7688,12.853,3.5986,1.5426,9.7688,28.2775,
-30.3346,-14.91,4.6277,47.8152,-148.1642,-153.7299,-176.327,629.1271,7.7118,9.7688,1.5426,-1.5426,13.882,15.9381,
-25.1929,-23.1358,12.8544,62.2122,-150.6443,-140.3615,-191.327,614.1271,16.9676,24.7688,-3.5991,3.5991,16.9676,30.9381,
-28.792,-26.735,4.1131,53.4719,-135.6443,-152.1869,-206.327,599.1271,9.2553,24.6789,-4.1131,4.1131,7.1982,24.6789,
-13.792,-11.735,4.1127,43.188,-125.4519,-161.4422,-221.327,584.1271,-1.0285,20.5652,1.0285,4.1127,3.0846,11.3109,
-9.2553,-17.4816,0,37.0183,-131.6221,-155.2725,-236.327,569.1271,4.1131,22.6218,0,6.1692,9.2543,19.5367,
-16.9671,-12.8539,-1.5426,47.8152,-119.7962,-144.4756,-251.327,554.1271,13.882,22.1083,1.5426,10.7969,24.1644,34.5367,
-21.0802,-3.5986,-1.5426,44.7311,-118.7677,-147.5602,-266.327,539.1271,6.6837,13.882,1.5426,1.5426,30.3346,32.3916,
-15.9386,-3.5991,2.5711,38.5614,-131.1071,-150.6448,-281.327,524.1271,0.51402,21.0798,1.5421,-0.51402,31.3631,17.3916,
-13.368,-8.2268,6.1697,47.3012,-129.5651,-158.3571,-296.327,509.1271,1.0285,26.7354,-1.0285,3.0846,26.7354,2.3916,
-15.4245,-12.3394,10.2834,42.1605,-129.5646,-162.4697,-311.327,494.1271,1.029,21.5947,0,0,20.5657,17.3916,
-22.6233,-17.4811,10.2829,43.188,-144.5646,-164.5273,-326.327,479.1271,-2.0566,24.6784,5.1407,2.0566,10.2829,24.6784,
-14.3965,-14.3965,10.2834,50.3868,-148.0742,-169.668,-337.2799,464.1271,3.0851,32.9052,-1.028,9.2543,1.028,10.2834,
0.51451,-12.8539,8.7408,43.7021,-133.0742,-178.4088,-322.2799,449.1271,5.6557,26.2214,-16.028,5.6557,-0.51451,1.5426,
2.5706,-23.1363,4.6277,49.8723,-118.0742,-193.4088,-307.2799,434.1271,0.51451,11.2214,-25.1934,-0.51451,8.7408,2.5706,
1.5426,-35.4758,11.8259,53.9854,-103.0742,-208.4088,-294.6054,419.1271,4.6277,7.7128,-16.9661,-1.5426,17.9951,8.7408,
3.0851,-37.0188,21.5938,57.584,-88.0742,-223.4088,-285.8656,404.1271,15.4245,20.5657,-3.0851,-5.1412,17.4806,17.4806,
-5.6557,-42.6745,11.8249,57.0705,-73.0742,-230.8517,-287.4081,389.1271,10.7969,19.0232,5.6557,-15.9391,7.7118,8.7408,
-4.1131,-44.2166,9.2553,54.4999,-58.0742,-235.4788,-301.2896,374.1271,9.2553,13.3685,6.1702,-13.3675,13.3685,4.1131,
3.0856,-40.1029,20.5662,60.6696,-43.0742,-237.5354,-294.0914,359.1271,2.0566,13.368,-2.0566,-10.2829,16.4531,14.397,
2.5711,-42.674,29.307,63.2402,-34.4477,-230.8517,-279.0914,344.1271,0.51402,20.0517,-0.51402,-13.8815,1.4531,21.0807,
4.6277,-40.6174,30.3346,69.4099,-30.3346,-215.8517,-266.8419,329.1271,15.514,33.4197,1.5426,-6.6837,-1.5426,22.1083,
0,-42.16,15.3346,60.6691,-32.9052,-215.9411,-281.8419,314.1271,8.2263,25.7079,-13.3675,0,6.1702,12.3394,
2.0566,-39.0749,9.2548,52.4433,-32.9047,-214.9131,-288.9502,299.1271,-2.0566,18.5092,-11.3109,3.0856,12.3399,15.425,
12.8535,-33.4197,24.1649,63.2402,-30.3346,-208.2294,-274.0402,284.1271,7.7123,21.0798,-4.6272,-8.7403,4.6272,20.0517,
10.2834,-39.0749,26.7359,67.8674,-29.8206,-210.7999,-267.356,269.1271,17.4816,28.792,-1.028,-10.2824,1.028,21.5948,
0.51402,-41.646,11.7359,72.4946,-39.5894,-215.4276,-277.1253,254.1271,14.9105,27.25,-0.51402,-5.6562,9.7684,22.1078,
6.6837,-29.3065,0.51451,76.6082,-50.9003,-211.314,-283.2945,239.1271,19.0232,23.1363,-0.51451,-5.6557,17.9951,20.0522,
3.5991,-32.3911,6.6833,61.6082,-52.9574,-214.3996,-285.3516,224.1271,15.9386,17.9946,-5.6562,-3.5991,11.8254,9.7684,
-2.0571,-35.9903,2.0571,60.6691,-43.1885,-213.8851,-281.7524,209.1271,10.2834,17.4806,-9.2543,10.2834,8.2263,12.3394,
1.0285,-40.1039,-1.0285,59.6406,-47.3017,-225.1964,-284.8376,194.1271,11.3109,13.368,-12.3399,10.2829,10.2829,12.3389,
5.1417,-42.16,11.3109,54.4994,-62.3017,-228.2811,-287.9222,179.1271,11.3109,7.1978,-14.396,-4.7171,7.1978,7.1978,
4.6272,-27.25,23.1368,68.3814,-64.2683,-213.2811,-280.2099,164.1271,15.9386,15.9386,-6.6842,-4.6272,14.9105,19.0237,
7.1987,-29.8196,13.368,61.6977,-64.7818,-205.6583,-274.5537,149.1271,8.2268,6.1697,-10.2829,-6.1697,18.5101,18.5101,
22.1987,-26.7354,15.425,62.7257,-51.4143,-207.7148,-268.384,134.1271,2.0566,3.0846,-12.3389,-2.0566,18.5092,18.5092,
22.6223,-15.4241,21.5943,67.8679,-36.4143,-192.7148,-269.4125,119.1271,5.1417,18.0846,-11.3109,-5.1417,17.4811,20.5662,
20.0522,-7.7118,14.91,66.3248,-29.3065,-177.7148,-260.6722,104.1271,6.6837,13.882,-6.6837,-9.7688,21.0802,22.1083,
30.3351,-5.6552,11.8254,68.3814,-32.3911,-168.1254,-245.6722,89.1271,0.51402,3.5991,-0.51402,-2.5701,26.2219,37.1083,
22.6223,-18.5092,8.2258,56.5555,-41.1319,-177.8948,-250.9039,74.1271,2.0566,3.0846,-2.0566,-6.1697,22.6223,49.3582,
14.9105,-24.1649,8.7403,62.2122,-38.5609,-179.4368,-252.4459,59.1271,10.7974,3.5991,-3.5991,-10.7974,21.0798,43.7025,
23.1363,-22.1083,11.8249,74.5511,-45.7591,-176.3522,-253.4744,44.1271,9.7688,1.5426,-1.5426,-2.5706,29.3065,38.5609,
22.1083,-20.0517,6.6837,73.5231,-60.7591,-178.4088,-263.7573,29.1271,0.51451,-0.51451,13.4574,-2.5706,35.4758,36.5048,
11.3114,-23.6508,3.0851,76.0937,-57.5845,-187.1496,-252.9599,14.1271,-3.0851,6.1692,28.4574,-5.1412,31.8771,39.0754,
5.1417,-32.9047,4.1136,61.0937,-53.4709,-195.3754,-251.9314,-0.87292,-2.0566,2.0566,13.4574,-10.2829,16.8771,38.0468,
20.1417,-17.9047,19.1136,62.2117,-38.5609,-180.3754,-256.5591,-15.8729,12.9434,0.51451,-1.5426,-0.51451,22.1083,51.9293,
28.278,-2.9047,23.1368,73.5226,-37.5328,-165.3754,-254.5025,-30.8729,13.8815,-2.5711,0.51402,-0.51402,34.4472,51.9288,
13.278,-17.9047,8.2268,59.6416,-52.5328,-174.8092,-251.9314,-45.8729,-1.1185,2.0566,4.1136,-7.1978,24.6794,38.0468,
1.5421,-31.3631,-1.5421,58.099,-67.5328,-189.7197,-261.7003,-60.8729,8.7403,2.5711,11.8254,-12.8535,19.0237,35.4763,
16.5421,-26.2214,-1.5421,70.4385,-70.438,-188.6917,-256.5591,-75.8729,23.7403,1.5421,26.8254,-5.6552,34.0237,46.7876,
18.5092,-31.8771,-5.1417,64.7828,-67.8674,-186.1211,-252.9599,-90.8729,22.6223,5.1417,30.8486,-6.1697,49.0237,39.0749,
4.1131,-23.6508,-4.1131,49.7828,-67.8674,-177.8948,-262.2148,-105.8729,7.6223,10.2834,15.8486,-14.3965,34.0237,28.792,
7.7123,-8.6508,-3.5991,48.8437,-58.0986,-165.0413,-261.7007,-120.8729,1.5421,3.5991,4.6272,-11.8254,30.3341,33.4192,
22.6223,6.3492,3.0846,63.8437,-50.3863,-160.4137,-247.8183,-135.8729,-5.1417,-3.0846,5.1417,-3.0846,45.3341,45.2451,
23.1363,1.5426,9.7688,72.4941,-53.9854,-164.0128,-237.0219,-150.8729,-6.6837,-1.5426,3.5986,-3.5996,50.9003,50.9003,
20.0517,2.5711,5.6552,61.1832,-68.9854,-152.7014,-243.1911,-165.8729,-6.6842,3.5991,-2.5711,-5.6552,35.9003,41.6455,
25.1934,11.8259,-0.51451,68.3819,-66.3248,-137.7014,-252.4459,-180.8729,-9.7688,0.51451,-7.7118,4.6277,20.9003,34.4477,
24.1649,16.9676,0.51402,65.2973,-51.3248,-129.0506,-245.2477,-195.8729,-5.6552,-0.51402,-0.51402,13.8825,35.9003,41.6465,
12.3399,9.2548,-4.1136,56.5565,-49.3582,-138.8194,-244.7336,-210.8729,-8.2268,-3.0846,3.0846,5.1417,50.9003,38.0468,
17.9956,5.6552,-6.6842,60.1551,-56.042,-145.5031,-249.3608,-225.8729,-5.6552,-0.51402,8.7403,0.51402,60.1551,30.3351,
25.7079,18.5096,-3.0851,69.9245,-41.042,-139.8474,-256.0446,-240.8729,-3.0851,-1.028,7.1982,1.028,54.4999,31.8771,
22.1088,24.1649,2.5711,70.4385,-37.5328,-129.0506,-255.5305,-255.8729,-7.7123,-4.6272,-2.5711,2.5711,50.9008,34.4482,
16.9671,9.1649,2.5706,55.4385,-52.5328,-139.3334,-251.4174,-270.8729,-9.7688,-11.8249,2.5706,-2.5706,48.8442,34.4477,
14.91,1.5426,-1.5426,55.0134,-62.2117,-141.39,-250.3893,-285.8729,-8.7408,-11.8249,14.91,4.6277,45.7591,44.7311,
11.8249,11.8249,-4.6277,53.9854,-47.2117,-131.1076,-251.4179,-300.8729,-8.7408,-1.5426,1.5426,14.91,44.7301,44.7301,
14.91,1.5426,-1.5426,49.8723,-35.4763,-139.3334,-247.3042,-315.8729,-7.7118,6.6837,-6.6837,11.8259,45.7591,39.5889,
25.7079,-11.3114,-1.028,62.7262,-41.1315,-144.9891,-239.592,-330.8729,0,0,8.3163,15.4245,51.4148,48.3297,
21.5948,-3.0851,-5.1412,64.7823,-42.16,-134.7063,-242.6771,-345.8729,3.0851,-6.1692,23.3163,15.4245,54.4999,46.2736,
26.2219,11.9149,-2.5711,68.3814,-37.5328,-120.8243,-242.1631,-360.8729,-6.6842,-0.51402,8.3163,5.6552,50.9008,41.6455,
40.1034,24.6789,-1.028,59.6411,-24.6789,-121.3383,-245.7617,-375.8729,-10.2824,-6.1692,1.028,5.1422,35.9008,33.9342,
25.1034,9.6789,-14.9105,44.6411,-39.6789,-136.3383,-258.6161,-390.8729,3.5991,-17.9956,8.7403,-3.5991,20.9008,18.9342,
13.368,8.2268,-6.1697,53.4714,-54.6789,-143.9606,-248.8468,-405.8729,6.1697,-10.2829,7.1987,-8.2258,16.4531,18.5092,
23.1368,15.9386,0.51402,59.1271,-59.1266,-128.9606,-239.0779,-420.8729,-8.8303,-13.8815,9.7693,-0.51402,22.1088,28.278,
27.25,5.6552,-4.6272,59.1271,-44.1266,-132.1357,-238.0499,-435.8729,-23.8303,-20.0517,10.7974,4.6272,24.1649,32.3911,
25.7069,-1.028,7.1982,62.7262,-29.1266,-147.1357,-223.0499,-450.8729,-8.8303,-5.0517,10.2824,0,33.9332,41.1315,
16.4531,-9.2548,11.3109,62.7257,-27.764,-162.1357,-211.828,-465.8729,-3.0846,3.0846,12.3399,-10.2829,33.9337,33.9337,
26.7359,-3.0851,7.1982,73.0086,-15.4245,-158.3571,-226.828,-480.8729,-2.0571,0,24.6789,0,42.1595,27.764,
22.1078,-14.9105,-4.6272,58.0086,-22.1088,-166.0694,-241.828,-495.8729,2.5711,-2.5711,11.8254,5.6552,38.5614,28.278,
10.7969,-23.1363,-2.5706,43.0086,-37.1088,-180.4654,-235.9933,-510.8729,-0.51451,2.5706,0.51451,1.5426,25.1934,32.3916,
9.7688,-16.9671,-2.5706,56.0425,-36.5038,-170.1825,-229.8231,-525.8729,-6.6837,6.6837,5.6557,2.5706,31.3626,31.3626,
9.7688,-21.0802,-9.7688,49.8723,-35.4758,-161.9562,-243.1911,-540.8729,-11.8249,9.7688,13.882,12.8539,37.5328,35.4758,
5.1417,-25.7074,-5.1417,52.4433,-49.3578,-168.64,-257.0731,-555.8729,-11.3109,14.396,11.3119,18.5092,28.7925,35.9908,
4.6277,-16.9671,-0.51451,55.0134,-56.042,-165.0413,-242.0731,-570.8729,-0.51451,11.8249,0.51451,14.91,26.2214,35.4758,
14.396,-7.1987,-1.0285,49.3582,-45.2451,-155.2725,-227.0731,-585.8729,2.0566,1.0285,-4.1136,3.0846,29.8206,34.9617,
15.9391,-4.6277,-1.5426,52.9574,-48.8437,-156.8145,-233.9363,-600.8729,-8.7408,3.5996,6.6837,1.5426,35.4758,33.4197,
6.6842,-2.5711,-1.5421,49.8718,-55.0139,-154.758,-242.1631,-615.8729,-17.9956,6.6842,2.5711,1.5421,24.1649,33.4192,
13.882,5.6557,3.5986,50.9003,-50.9008,-144.4756,-231.8802,-620.5749,-11.8259,2.5706,-3.5996,-2.5706,14.91,32.3907,
22.6223,8.2268,-5.1417,47.3012,-56.556,-144.9891,-231.3657,-627.2587,1.0285,1.0285,-1.0285,-4.1127,23.6503,27.7635,
13.368,8.2258,-20.1417,46.2731,-68.8959,-152.1874,-238.5639,-642.2587,3.0846,5.1417,-3.0846,-8.2268,24.6784,26.7354,
13.3675,6.1702,-9.2543,60.6691,-71.9805,-152.1874,-234.4508,-651.9375,-6.1702,8.2263,7.1982,-10.2834,25.7069,35.9903,
12.8539,-1.5426,2.5706,53.9854,-73.5226,-155.786,-228.7951,-650.395,-15.9381,1.5426,10.7969,-4.6277,27.2495,40.6179,
5.1422,0,-8.2263,50.3868,-67.8669,-146.0172,-233.4223,-652.9656,-0.93807,6.1702,-4.2031,10.3723,29.821,40.1034,
-1.5426,1.5426,-19.0242,43.7021,-61.1837,-139.3339,-247.3047,-663.7634,10.7969,10.7969,-19.0242,9.7688,28.2775,43.7021,
5.1412,9.2543,-13.3675,48.3297,-51.4148,-137.7914,-243.7051,-673.5318,-4.2031,8.2263,-14.3965,8.2263,25.7069,58.7021,
6.6842,12.8535,-15.9386,58.099,-46.7872,-138.3054,-229.8231,-680.2155,-16.9666,7.7123,-6.6842,16.9666,21.0797,73.7021,
4.1131,0,-21.5938,50.3868,-53.4709,-148.0737,-231.3657,-691.0124,-7.1983,8.2263,0,8.2263,26.7359,58.7021,
7.1982,1.028,-14.3965,47.3017,-61.6977,-147.0457,-237.5354,-706.0124,-1.028,3.0851,2.0571,-1.028,35.9903,43.7021,
4.1131,3.0851,-14.3965,39.0754,-61.6977,-139.8479,-238.5639,-718.7764,2.0571,1.028,-2.0561,-1.028,28.792,30.8491,
8.2263,-5.1412,-8.2263,48.3297,-54.4994,-134.7063,-225.196,-710.5501,9.2553,3.0851,8.2263,-3.0851,39.0754,42.1605,
13.3675,-10.2834,-6.1702,63.3297,-50.3868,-128.537,-212.857,-711.5786,0,0,16.4526,0,51.4148,48.3297,
3.0846,-3.0846,-13.368,53.4714,-44.2166,-119.2822,-214.9131,-726.5786,-4.1136,3.0846,11.3109,10.2829,44.2171,45.2451,
-0.51402,5.6552,-7.7123,55.0139,-35.4762,-111.5699,-219.5408,-730.6023,0.51402,5.6552,-3.6891,7.7123,35.4762,40.6174,
11.3109,4.1136,-1.0285,54.4994,-33.9337,-113.112,-213.8851,-736.2575,-1.0285,1.0285,-11.3109,4.1136,30.8486,41.1319,
7.7128,1.5426,-10.7969,47.8162,-33.4197,-116.7111,-201.0311,-749.111,-1.5426,-2.5706,3.6891,8.7408,37.5328,45.7591,
-1.028,10.2834,-23.6508,55.528,-30.8481,-122.3668,-202.5737,-749.625,1.028,-5.1412,13.3685,1.028,49.3587,43.1885,
11.8254,11.8254,-9.7684,66.3253,-29.3065,-111.5699,-206.1728,-740.8847,2.5711,-1.5421,0.51402,-0.51402,59.1271,50.9008,
13.8815,2.5701,0.51402,68.3814,-35.4762,-100.2585,-202.0596,-744.9983,-3.5991,-0.51402,-3.5991,2.5701,56.042,57.07,
6.6832,6.6832,-4.6272,67.3534,-28.2785,-95.1174,-191.7768,-747.0549,-0.51402,-5.6562,11.4009,0.51402,64.2683,59.1271,
2.0566,6.1697,-7.1978,61.6977,-34.9622,-89.4617,-196.4039,-741.3992,11.3109,-10.2829,17.4811,-2.0566,58.6126,55.5275,
9.2548,1.0285,-4.1127,66.8389,-40.1034,-86.3766,-199.4886,-745.5118,15.4241,-4.1127,2.4811,6.1697,43.6126,58.6126,
10.2829,1.0285,-12.3389,51.8389,-35.9903,-101.3766,-197.432,-760.5118,1.0285,-15.4241,4.1136,-1.0285,32.9057,47.3022,
17.4806,16.0285,-9.2553,53.4709,-20.9903,-103.8577,-183.0365,-768.1351,4.1131,-22.6228,19.1136,-4.1131,47.3017,32.9052,
13.8825,9.7693,-13.8815,57.07,-31.3631,-92.0323,-189.7197,-767.6206,4.6272,-31.3631,4.6272,-4.6272,49.8727,34.4482,
15.425,3.0856,-13.367,55.5284,-44.2161,-93.5743,-194.3469,-765.0495,9.2548,-28.792,2.0566,-2.0566,47.3022,49.4482,
8.2258,6.1697,-13.368,57.5845,-44.2171,-108.5743,-191.2628,-770.1917,9.2548,-23.6513,11.3109,-6.1697,40.1029,45.2451,
-6.7742,6.6837,-3.5986,60.1556,-29.2171,-101.2866,-176.2628,-764.5355,3.5986,-13.882,24.1653,8.8303,51.9293,45.7591,
-21.7742,14.9105,-1.5421,58.099,-17.9946,-86.2866,-177.3803,-755.2812,1.5421,-2.5711,26.2219,23.8303,58.099,56.042,
-36.7742,11.8249,-10.7979,43.7021,-32.3916,-89.9762,-192.3803,-770.2812,2.5706,-1.5426,11.2219,17.9951,43.099,41.042,
-51.7742,12.8535,-2.5711,48.8437,-17.3916,-91.0037,-187.6631,-765.564,7.7123,0.51402,-0.51402,15.9386,36.5043,41.6465,
-66.7742,12.3399,-2.0566,63.8437,-2.3916,-76.0037,-178.9228,-750.564,-6.1697,-7.1978,5.1417,19.5372,51.5043,51.4143,
-81.7742,13.3675,-7.1983,58.6121,-3.0851,-61.0037,-180.9799,-735.564,1.028,0,0,19.5377,51.4148,49.3577,
-96.7742,11.8259,-7.7118,51.9293,-7.7118,-70.4375,-178.4083,-739.8562,13.882,2.5706,-2.5706,10.7979,44.7311,46.7872,
-111.7742,8.2263,-4.1131,61.6982,-1.028,-67.8674,-168.64,-735.229,11.3114,-6.1692,12.4294,1.028,44.2166,52.4429,
-126.7742,2.5706,-9.7688,49.8723,-3.5986,-67.3529,-173.2671,-742.9413,2.5706,1.5426,8.7408,-1.5426,29.2166,46.7872,
-141.7742,7.7123,-9.7684,49.8727,-7.7123,-77.6358,-168.1259,-744.9978,9.7693,16.5426,-6.2592,13.4574,21.0797,44.7306,
-156.7742,8.2268,-9.2548,53.4714,-9.2548,-83.2919,-153.1259,-729.9978,17.4811,14.396,-8.2268,22.6223,32.9057,47.3012,
-171.7742,18.5096,-9.2543,55.528,-4.1131,-68.2919,-156.3005,-714.9978,3.0851,-0.60399,4.1131,14.3965,43.1885,46.2726,
-186.7742,33.5096,-9.2548,61.6977,-8.2258,-53.2919,-171.3005,-699.9978,-4.1127,12.3399,2.0566,18.5092,49.3582,48.3302,
-201.7742,48.5096,-21.5943,46.6977,-23.2258,-38.2919,-184.0645,-684.9978,-6.1697,6.1697,-12.9434,13.368,34.3582,40.1039,
-216.7742,63.5096,-12.8535,48.8437,-38.2258,-23.2919,-173.2676,-669.9978,-3.5991,3.5991,-8.7403,24.1649,25.1929,47.8157,
-231.7742,68.3819,-16.9661,48.8442,-53.2258,-8.2919,-185.6066,-654.9978,-13.882,5.6557,-5.6557,21.0802,20.0522,44.7311,
-246.7742,53.3819,-31.9661,43.7025,-68.2258,6.7081,-200.6066,-651.423,-8.7403,-4.6272,4.6272,7.7123,25.1929,35.4763,
-261.7742,38.3819,-46.7872,44.7311,-83.2258,8.7408,-215.6066,-664.7915,-0.51451,-19.0232,5.6557,0.51451,20.0512,25.1934,
-276.7742,23.3819,-39.0744,39.0754,-98.2258,14.3965,-216.9697,-651.937,0,-8.2263,0,3.0851,11.3114,26.7359,
-291.7742,27.25,-32.3911,43.7025,-113.2258,23.1368,-210.2859,-636.937,-3.5991,-0.51402,0.51402,2.5711,19.0237,32.3911,
-306.7742,31.8771,-33.9342,46.2726,-128.2258,29.8201,-210.7999,-628.2872,0,-1.028,0,17.4806,22.6218,35.9903,
-321.7742,27.764,-31.8771,39.0754,-128.5365,31.8771,-208.7434,-619.0324,-1.028,1.028,-15,30.8491,7.6218,35.9903,
-336.7742,34.9617,-19.5372,49.3582,-122.3668,35.9898,-193.7434,-604.0324,-4.1136,4.1136,-22.6223,22.6223,12.3399,40.1039,
-351.7742,29.8206,-20.5652,50.3873,-108.9984,28.7925,-189.2052,-601.5508,2.0566,-2.0566,-11.3109,8.2268,27.3399,41.1319,
-366.7742,14.8206,-25.1929,48.8437,-113.626,13.7925,-196.918,-600.0087,7.7123,-7.7123,-7.7123,8.7403,23.1368,42.6745,
-381.7742,13.882,-14.91,50.9003,-125.9659,11.8249,-190.7482,-587.6693,1.5426,-1.5426,-12.8539,11.8249,8.7408,51.9283,
-384.5811,11.3119,-21.5943,46.2731,-123.3949,12.3399,-190.2337,-590.2399,-6.1697,6.1697,-15.4241,7.1987,12.3399,54.4994,
-388.1802,3.5986,-35.4763,51.9293,-122.8808,1.5426,-198.9745,-589.7258,-1.5426,3.5986,-7.7118,5.6557,20.0522,53.9854,
-385.6091,11.3114,-23.6499,53.4719,-131.6212,7.1983,-201.5451,-574.7258,0,0,-2.0561,11.3114,22.6228,53.4719,
-370.6091,26.3114,-8.6499,59.6411,-117.2256,22.1983,-195.3759,-563.5044,-10.2834,8.2263,-14.3965,20.5657,19.5377,46.2726,
-358.8742,34.9617,-17.4811,61.6977,-102.2256,14.396,-189.2062,-567.618,-6.1697,6.1697,-24.6794,18.5092,15.4241,41.131,
-366.5865,25.1934,-20.0512,51.9293,-107.4563,8.7408,-187.6631,-564.0184,8.8303,-8.7408,-12.8539,11.8259,20.0522,45.7591,
-365.5584,28.278,-16.9666,53.9849,-119.7962,17.9946,-191.7768,-559.9058,9.7684,-8.7403,-6.6842,6.6842,16.9666,43.7025,
-356.3031,35.4758,-25.1934,48.8442,-112.598,17.9951,-194.8614,-560.9333,2.5706,-2.5706,-19.0232,6.6837,15.9391,39.5899,
-356.3031,44.7311,-30.3346,46.7872,-101.2866,23.1363,-200.0026,-556.8202,5.6557,-5.6557,-22.1083,8.7408,30.3346,42.674,
-370.1851,40.1034,-27.764,45.2446,-96.6594,29.8201,-200.5171,-553.2215,7.1983,-12.3394,-7.1083,5.1412,37.0183,35.9903,
-368.643,26.2209,-30.3351,35.4763,-86.8906,22.1078,-195.8899,-555.7921,-1.5421,-15.9386,2.5711,1.5421,25.1929,26.2209,
-353.643,23.6508,-28.792,50.3858,-76.0937,20.5657,-191.2628,-546.0238,1.028,-6.1702,-1.028,10.2824,28.792,31.8771,
-353.2185,19.0232,-29.3065,50.9003,-84.834,22.1083,-190.7482,-541.3961,5.6557,-14.91,-5.6557,6.6837,33.4197,33.4197,
-356.3036,28.278,-30.3351,41.6455,-88.9471,22.1078,-187.6636,-542.4247,0.51402,-27.25,0.51402,-0.51402,26.2209,28.278,
-341.3036,37.5328,-30.3346,43.703,-75.5792,21.0802,-188.6917,-534.1979,-2.5706,-17.9951,2.5706,10.7969,24.1653,24.1653,
-326.3036,36.5038,-29.3065,42.674,-65.2968,20.0512,-189.7202,-524.9435,1.5426,-2.9951,-2.5706,23.1363,24.1644,24.1644,
-335.2238,38.0464,-27.764,46.2726,-67.8674,23.6508,-184.0645,-520.3164,4.1131,-5.1412,-4.1131,15.4245,26.735,27.764,
-335.7379,29.3065,-29.3065,37.5328,-68.3819,15.9381,-184.579,-523.9155,1.5426,-14.911,-1.5426,4.6267,26.2214,25.1924,
-328.5396,15.9381,-31.3626,34.4477,-65.2968,0.93807,-187.6636,-518.7738,1.5426,-14.91,-0.51451,6.6837,16.9671,22.1083,
-322.3699,19.0237,-26.2219,40.6174,-70.438,4.6272,-185.6071,-503.7738,1.5421,-20.0517,-1.5421,9.7684,16.9666,30.3351,
-320.8273,18.5096,-23.6508,39.0754,-81.2349,19.5377,-194.3474,-494.609,1.028,-22.6228,-1.028,7.1982,29.8201,23.6508,
-324.4265,15.9381,-24.1653,45.7591,-78.6648,15.9381,-200.0031,-487.9252,1.5426,-24.1653,-1.5426,11.8249,31.3626,11.8249,
-317.7427,20.5657,-24.6789,44.2166,-66.8394,2.0561,-185.0031,-480.213,-1.028,-26.7359,1.028,18.5087,27.764,23.6508,
-302.7427,28.278,-29.306,38.5614,-56.042,9.7684,-171.2106,-475.5853,-1.5421,-17.9956,1.5421,11.8254,30.3351,24.1649,
-293.0634,29.8206,-21.5943,49.3582,-51.4148,13.368,-180.9794,-471.9862,-1.0285,-18.5092,1.0285,3.0846,30.8486,10.2829,
-301.2901,21.5938,-11.3114,55.528,-63.7543,8.2263,-188.1776,-467.8735,0,-29.821,6.1692,0,31.8771,20.5657,
-302.3182,22.6218,-18.5096,53.4709,-75.0656,12.3394,-191.2628,-467.8735,-1.028,-20.5657,1.028,5.1412,31.8771,28.792,
-299.2336,33.9337,-29.8206,43.188,-63.7547,22.6223,-191.2628,-467.8735,2.0566,-5.5657,-8.2268,6.1697,26.7354,19.5372,
-297.177,37.0183,-34.9622,42.1595,-55.5284,27.764,-190.2347,-453.4775,0,0,-9.2553,1.028,24.6789,23.6499,
-282.2665,42.674,-23.1363,53.9854,-56.042,30.3346,-193.8333,-438.4775,-0.51451,0.51451,-2.5706,13.882,28.2775,33.4197,
-276.6103,40.1034,-18.5087,41.1324,-48.3297,28.793,-196.4034,-433.9393,0,0,0,19.5377,27.764,29.821,
-277.1248,37.5323,-28.278,43.7025,-42.6745,27.25,-191.7768,-437.5385,-1.5421,-4.6272,1.5421,16.9666,28.278,32.3911,
-266.8424,45.7586,-23.1368,49.8718,-52.9569,30.3341,-185.6071,-422.5385,0.51402,-0.51402,-2.5711,19.0227,29.306,33.4192,
-256.5596,58.0986,-9.7688,43.7021,-56.0425,33.4197,-180.4659,-407.5385,1.5426,-1.5426,-6.6837,14.91,28.2775,29.3065,
-250.9034,59.6411,-8.2263,51.4148,-42.1595,32.9052,-177.8948,-392.5385,1.028,-11.3114,-1.028,9.2543,28.792,37.0183,
-250.3893,46.7876,-11.8254,47.8157,-44.7306,28.278,-182.5219,-377.5385,1.5421,-6.6842,-1.5421,16.9666,30.3341,38.5614,
-248.3328,50.8998,-0.51402,47.8157,-59.7306,26.2209,-188.6922,-362.5385,0.51402,-1.543,-5.6562,15.9386,37.5323,32.3911,
-252.4459,60.1546,1.5426,57.0705,-69.4099,36.5048,-195.8899,-347.5385,-1.5426,-8.7408,-2.5706,4.6277,30.3346,35.4758,
-252.4459,56.042,-6.6842,53.9849,-63.2402,40.6174,-197.9465,-332.5385,4.6272,-4.6272,-9.7693,13.8815,17.9946,44.7306,
-246.7902,49.3582,-5.1417,57.5845,-66.8389,28.7925,-193.3188,-317.5385,3.0846,-3.0846,-12.3399,12.3399,26.7354,40.1039,
-242.1626,45.7591,-2.5706,58.0986,-66.3248,27.2495,-196.918,-302.5385,-5.6557,-17.9951,2.5706,5.6557,41.7354,35.4758,
-233.9363,44.7311,-2.5706,51.9293,-51.3248,42.2495,-198.9745,-287.5385,-3.5986,-22.1083,2.5706,16.9671,38.5609,42.674,
-227.253,42.1595,-4.1131,48.3297,-47.3017,48.3297,-186.1211,-272.5385,4.1131,-7.1083,-11.3114,13.3675,28.792,33.9332,
-229.3096,38.0464,-6.1702,46.2726,-59.6411,33.3297,-184.0645,-258.1016,4.1131,-4.1131,-7.1983,6.1692,35.9903,18.9332,
-226.7385,33.4192,-10.7974,50.9008,-46.7876,21.0797,-193.8333,-252.4459,0.51402,-15.9386,-0.51402,10.7974,36.5043,5.6552,
-216.4556,35.4758,-4.6277,46.7872,-31.7876,30.3346,-185.6071,-238.0499,4.6277,-23.1363,-9.7688,11.8249,39.5889,14.91,
-217.4842,34.4482,-1.5421,45.7586,-46.7876,19.0237,-183.5505,-223.0499,1.5421,-26.2219,-20.0517,4.6272,33.4192,9.7684,
-224.6824,24.1649,-8.7413,55.013,-61.7876,5.6552,-195.8899,-208.0499,4.6272,-13.8825,-5.0517,11.8254,19.0227,6.6832,
-225.7105,14.91,-20.0522,47.8152,-67.3534,-3.5986,-203.0877,-193.0499,3.5986,-8.7408,6.6837,7.7118,22.1083,4.6277,
-210.7105,29.91,-10.7974,60.1551,-52.3534,11.4014,-188.0877,-178.0499,0.51402,-0.51402,-0.51402,16.9666,37.1083,10.7974,
-206.1728,37.5323,-4.6272,53.9849,-67.3534,26.4014,-192.8048,-163.0499,-4.6272,4.6272,-9.7693,31.9666,29.306,19.0237,
-220.0548,22.5323,-4.1127,40.1039,-82.3534,16.4531,-202.5737,-148.0499,-2.0566,-5.1417,2.0566,30.8486,14.306,17.4811,
-205.1443,16.9671,-1.5426,50.9003,-67.3534,1.4531,-187.5737,-133.0499,1.5426,-12.8539,6.6837,17.9951,25.1934,2.5706,
-198.46,15.4245,-7.1983,51.4148,-52.3534,-13.5469,-172.5737,-118.0499,2.0571,-15.4245,0,22.6228,39.0754,0,
-210.8004,0.42454,-9.2548,51.4143,-37.3534,-28.5469,-161.4422,-103.0499,5.1417,-22.6223,8.2258,14.396,41.1319,9.2548,
-208.7434,-14.5755,-3.0851,54.4999,-22.3534,-43.5469,-158.3571,-88.0499,12.3394,-27.764,12.3394,3.0851,49.3587,4.1131,
-194.8614,-29.5755,4.6277,62.2117,-7.3534,-58.5469,-148.5883,-73.0499,15.9391,-17.9951,4.6277,18.0851,55.0134,-4.6277,
-190.2342,-28.792,4.1136,71.981,7.6466,-73.5469,-147.0457,-58.0499,12.3399,-19.5372,1.0285,33.0851,53.4714,-1.0285,
-198.461,-32.9057,-2.0566,63.7538,22.6466,-88.5469,-151.1593,-43.0499,2.0566,-22.6223,2.0566,18.0851,51.4143,-4.1136,
-198.4605,-41.1315,-3.0846,63.7547,37.6466,-103.5469,-153.2154,-28.0499,3.0846,-10.2829,4.1136,5.1417,51.4153,-8.2258,
-191.2628,-41.1319,-9.2548,64.7828,47.3012,-95.6314,-151.1593,-13.0499,9.2548,-4.1136,3.0846,19.5372,49.3582,-3.0846,
-192.2913,-41.1319,-11.3119,61.6977,47.3012,-80.6314,-151.1593,1.9501,6.1697,-8.2268,10.2829,19.5372,50.3863,-6.1697,
-199.489,-52.4433,-2.0566,59.6406,32.3012,-91.5182,-156.301,16.9501,2.0566,-14.396,10.2829,7.1978,47.3012,-15.425,
-187.6631,-45.7591,-1.5426,51.9293,32.3916,-105.3997,-157.8431,31.9501,11.8259,-9.7688,1.5426,7.7128,46.7872,-13.882,
-177.8943,-30.7591,-10.2824,50.3868,47.3017,-95.6309,-158.3566,46.9501,14.3965,3.0851,-3.0851,16.4526,40.1034,-16.4526,
-192.8943,-38.0473,-14.3965,41.1315,33.9332,-80.6309,-164.5268,61.9501,1.028,4.1131,-1.028,21.5938,30.8491,-22.6228,
-198.9745,-53.0473,-12.8539,36.5048,23.1363,-65.6309,-162.9843,76.9501,2.5706,-2.5706,6.6837,25.1934,36.5048,-19.0232,
-194.3474,-55.528,-21.5938,46.2736,14.3965,-62.7257,-166.5834,91.9501,8.2263,-4.1131,4.1131,14.3965,39.0754,-15.4245,
-191.2623,-40.528,-20.5662,48.3302,11.3109,-47.7257,-162.4702,106.9501,9.2548,-3.0846,3.0846,11.3109,40.1039,-12.3399,
-177.3808,-25.528,-7.7128,51.9283,26.2214,-32.7257,-147.4702,121.9501,5.6557,1.5426,-1.5426,26.2214,41.646,-5.6557,
-173.2676,-37.5323,-10.7974,48.8437,33.4192,-17.7257,-144.4751,136.9501,0.51402,1.5421,-0.51402,31.3631,39.5894,-4.6272,
-179.9514,-48.3297,-18.5092,43.188,38.0468,-28.7925,-148.0742,151.9501,7.1978,-7.1978,9.2548,26.7354,40.1039,-10.2829,
-175.8382,-33.3297,-17.4811,52.4433,47.3012,-13.7925,-146.0177,166.9501,1.0285,-11.3109,8.2268,27.7635,35.9898,-16.4531,
-160.9277,-18.3297,-11.8249,51.9293,46.7872,1.2075,-139.3334,181.9501,-13.9715,-4.6277,4.6277,25.1934,39.5889,-8.7408,
-150.6448,-28.2775,-10.7969,47.8162,48.8442,16.2075,-142.4185,196.9501,-12.8539,-8.7408,5.6557,19.0232,48.8442,-5.6557,
-157.3291,-33.9342,-25.7969,44.2166,44.2166,1.2075,-153.2159,211.9501,-1.028,-23.7408,3.0851,7.1983,43.1885,-20.6557,
-159.8996,-32.3911,-22.1088,42.6745,29.2166,-8.7403,-144.4751,226.9501,13.972,-19.0237,13.8815,8.7403,44.7306,-17.9956,
-162.9843,-47.3911,-9.7688,48.8442,14.2166,-10.7969,-143.4466,241.9501,15.9391,-4.6277,22.1083,9.7688,46.7872,-11.8249,
-164.5273,-59.6411,-18.5092,43.188,10.2829,-2.0566,-150.1308,256.9501,2.0566,-17.4811,16.4521,7.1978,40.1029,-21.5943,
-153.7294,-44.6411,-25.1929,47.8157,22.1088,12.9434,-147.5597,271.9501,-6.6842,-22.1078,6.6842,15.9386,40.6174,-17.9946,
-143.4466,-29.6411,-10.1929,62.8157,16.9671,27.9434,-137.2769,286.9501,-2.5706,-9.7688,2.5706,22.1083,38.5609,-7.7118,
-153.2154,-37.0183,-2.0571,61.6972,5.1412,12.9434,-142.9326,301.9501,-7.1982,-21.5938,2.0571,8.2263,23.5609,-20.5657,
-146.5317,-29.3065,-11.8259,61.1837,20.1412,17.9951,-141.3905,316.1997,-2.5706,-30.3346,2.5706,8.7408,29.3065,-13.882,
-151.1593,-30.8491,-26.7359,47.3007,34.9613,12.3394,-143.9616,326.9966,4.1131,-27.764,-12.4294,6.1692,33.9332,-4.1131,
-157.8431,-36.5043,-20.0517,48.8437,30.3341,8.7403,-143.4471,341.9071,3.5991,-14.9105,-3.5991,12.8535,31.3621,-5.6562,
-151.1588,-34.9622,-17.4806,60.6691,21.5938,23.7403,-146.0177,339.337,-10.2834,-19.5377,10.2834,13.3675,35.9903,-11.3114,
-137.2773,-32.3916,-22.1083,50.9003,28.2775,32.3907,-137.2773,324.337,-11.8259,-24.1653,2.5706,10.7969,34.4477,-2.5706,
-131.1071,-27.2495,-10.7969,53.9854,42.674,17.9951,-122.8808,320.3138,-5.6557,-13.882,2.5706,13.882,31.3636,-2.5706,
-145.5036,-36.5048,-4.6277,57.0705,35.4758,14.91,-131.1076,330.5962,-11.8259,-14.91,4.6277,11.8249,36.5038,-17.5706,
-145.5031,-42.674,-5.6557,58.0986,22.1083,29.91,-133.1637,345.5962,-3.5986,-19.0232,3.5986,11.8259,38.5609,-8.7408,
-136.2488,-36.5043,-5.6552,56.042,19.0237,35.4763,-134.1922,352.1904,1.5421,-20.0517,-5.6552,10.7974,23.5609,-1.5421,
-135.7348,-21.5938,0,51.4148,26.7359,20.4763,-140.876,349.6194,0,-17.4806,-15.4245,10.2834,19.5377,-15.4245,
-131.6212,-15.4245,-1.028,59.6411,30.8491,6.1702,-135.7343,349.6194,1.028,-19.5377,-6.1692,8.2263,34.5377,-9.2543,
-129.0506,-16.9666,-14.9105,53.9859,22.1088,16.9666,-130.0791,340.879,-12.8535,-29.306,8.7403,2.5711,30.3351,-2.5711,
-119.7957,-6.6842,-16.9666,50.9008,36.5043,31.9666,-130.0791,339.851,-13.8815,-27.25,10.7974,6.6842,15.3351,-9.7684,
-121.3383,-19.5372,-10.2829,54.4994,44.2171,46.2731,-135.7348,345.5067,1.1185,-24.6794,-2.0566,4.1136,2.0566,-15.4241,
-131.6212,-32.9047,-12.3389,45.2451,29.2171,31.2731,-137.7909,344.4787,8.2268,-26.7354,-2.0566,4.1136,2.0566,-6.1697,
-134.7063,-25.7069,-22.6228,43.1885,17.4806,16.2731,-134.7063,339.337,0,-39.0754,0,10.2834,1.028,-6.1692,
-125.9659,-24.1653,-20.0522,48.8442,31.3626,30.3346,-123.9094,344.9917,0.51451,-43.7021,-0.51451,8.7408,0.51451,-11.8259,
-122.3668,-25.7079,-14.3965,44.2166,42.1595,29.8201,-118.2537,359.9917,0,-37.0183,0,3.0851,0,-15.4245,
-123.3949,-10.7079,-19.5377,50.3868,27.1595,31.8771,-125.4514,371.2141,1.028,-25.7069,3.0851,7.1982,-1.028,-12.3394,
-123.9099,-8.7408,-19.0242,48.8432,12.1595,22.1083,-132.1362,369.6706,11.8249,-21.0802,8.7398,10.7969,1.5426,-2.5716,
-122.3668,-19.5377,-14.3965,43.1885,11.3114,7.1083,-131.6216,360.9308,8.2263,-25.7069,3.0851,8.2263,-3.0851,-10.2834,
-114.6546,-17.9951,-17.9951,51.9283,26.3114,8.7408,-116.6216,345.9308,6.6837,-24.1653,-0.51451,5.6557,0.51451,-19.0232,
-119.7957,-32.9951,-21.0793,49.8723,41.3114,12.8539,-110.5409,336.7664,8.7408,-28.2775,6.6847,-5.6557,5.6557,-14.91,
-128.5365,-47.9951,-20.5652,50.3863,40.1039,27.7645,-125.5409,344.4787,6.1697,-34.9617,10.2829,-6.1697,9.2548,-14.396,
-131.1076,-49.8723,-25.1929,47.8157,36.5043,42.7645,-135.2208,343.9641,5.6552,-32.3911,-0.51402,0.51402,4.6272,-16.9666,
-121.8528,-42.674,-15.9386,53.9859,30.3351,57.7645,-122.8808,352.1904,15.9386,-17.9946,-0.51402,3.5991,0.51402,-11.8254,
-121.8523,-45.7586,-17.9946,52.9579,15.9386,72.7645,-115.6826,343.9641,15.9386,-17.9946,8.7413,0.51402,-0.51402,-17.9946,
-130.5931,-47.3012,-32.9057,42.16,28.7925,71.981,-121.3383,328.9641,2.0566,-28.7925,5.1417,-1.0285,1.0285,-24.6794,
-121.8523,-37.5323,-28.278,49.8727,43.7925,84.834,-124.9374,327.5116,-0.51402,-21.0797,0.51402,7.7123,4.6272,-9.7684,
-122.3673,-45.2456,-26.7359,41.1315,30.8481,92.5463,-121.3388,342.5116,1.028,-19.5377,0,5.1412,0,-11.3114,
-123.9089,-35.4758,-28.2775,39.5899,31.3626,78.6643,-106.3388,327.5116,2.5706,-22.1083,1.5426,2.5706,-1.5426,-25.1934,
-114.1405,-24.6794,-23.6503,51.4143,46.3626,63.7538,-101.8011,312.5116,2.0566,-18.5092,-2.0566,12.3399,4.1136,-20.5662,
-110.0274,-39.6794,-23.6513,40.1029,61.3626,78.7538,-111.0559,321.8559,3.0846,-15.425,-3.0846,3.0846,6.1697,-15.425,
-100.7726,-31.8766,-21.5943,47.3012,68.8959,93.7538,-101.8011,336.2514,17.4811,-10.2829,10.2829,-11.9154,11.3109,-13.368,
-95.1169,-25.1929,-15.9386,53.9859,69.4095,108.7538,-94.0888,321.3414,16.9666,-19.0237,13.8825,-16.9666,11.8254,-11.8254,
-101.8006,-40.1034,-22.6218,46.2736,55.528,93.7538,-103.8572,312.601,3.0851,-20.5657,1.029,-1.9666,0,-15.4245,
-103.8572,-39.0744,-24.6789,49.3587,46.2736,92.5463,-106.9423,310.545,5.1422,-5.5657,-1.028,0,1.029,-23.6508,
-105.4002,-36.5043,-24.1649,42.6745,39.5894,93.0603,-107.4568,309.0019,10.7974,-3.5991,3.5991,-4.6272,5.6552,-29.306,
-105.9142,-38.0473,-28.792,40.1034,33.9332,80.2068,-113.1125,318.7703,4.1131,-18.5096,3.0851,1.028,-1.028,-27.764,
-99.7445,-23.0473,-21.5943,42.16,47.3012,85.3485,-101.8011,311.5725,1.0285,-4.1136,3.0846,6.1697,-1.0285,-21.5943,
-95.6309,-14.3955,-16.4526,37.0193,58.6131,100.3485,-95.6309,296.5725,3.0851,3.0851,-4.1131,0,0,-30.8481,
-92.5468,-29.3955,-22.6228,45.2446,51.4148,102.8286,-102.8296,308.4879,8.2263,-11.3114,1.028,-1.028,9.2543,-29.821,
-99.23,-42.674,-31.3626,42.674,36.4148,87.8286,-109.5129,313.1156,2.5706,-23.1363,8.7408,-2.5706,17.9951,-15.9381,
-91.0042,-27.674,-26.2214,45.7591,43.7021,86.8906,-98.2025,298.1156,-2.5706,-10.7979,3.5986,2.5706,23.1363,-4.6277,
-76.0042,-12.674,-27.25,47.8157,58.7021,92.0322,-88.9471,290.4933,3.5991,-3.5991,-6.6832,6.6842,13.8825,-16.9666,
-72.4951,-12.8539,-31.3636,47.8152,60.1546,84.8335,-91.0042,300.7751,10.7969,-15.9391,-2.5706,2.5706,12.853,-25.1934,
-75.5797,-14.9105,-22.1088,56.042,45.1546,75.5797,-86.8911,291.5213,9.7684,-27.25,6.6842,-6.6842,27.853,-10.1934,
-73.5226,-14.9095,-22.1078,47.8157,57.071,66.3253,-83.8055,276.5213,8.7413,-15.9386,7.7123,-7.7123,32.3911,-7.7123,
-78.6643,-21.0802,-29.3065,42.674,59.1266,66.3248,-98.8055,273.0121,4.6277,-2.5706,-0.51451,0.51451,17.3911,-22.7123,
-82.2639,-20.5667,-14.3065,44.2166,44.1266,79.1778,-107.9713,274.5537,2.0561,0,-3.0851,0,25.7069,-19.5377,
-84.32,-28.7925,-10.2829,42.16,33.9337,69.924,-97.6879,260.1577,5.1417,-1.0285,1.0285,-4.1127,26.7354,-15.4241,
-85.8625,-40.6179,-25.2829,45.7591,41.646,54.924,-97.1739,261.7007,2.5706,-2.5706,0.51451,10.8873,11.7354,-25.1934,
-81.7494,-41.6455,-17.9956,36.5043,43.7025,69.924,-98.202,273.0116,2.5711,-0.51402,-1.5421,25.8873,0.51402,-16.9666,
-84.834,-39.5894,-8.7403,32.3911,37.5323,81.7489,-97.1739,258.0116,1.5421,-1.5421,-2.5711,10.8873,15.514,-7.7123,
-79.6928,-26.2219,-10.7974,45.7586,34.4482,66.7489,-95.1174,263.7573,3.5991,-2.5711,2.5711,-2.5711,5.6552,-11.8254,
-71.4665,-25.1934,-12.8539,46.7872,32.3916,51.7489,-92.0323,278.7573,3.5986,0.51451,4.6277,-0.51451,-5.6557,-15.9391,
-73.5231,-37.5323,-4.6272,45.7586,36.5043,66.3244,-82.7774,263.7573,-1.5421,1.5421,1.5421,-3.5991,1.5421,-16.9666,
-74.5511,-33.4197,-4.6267,42.674,45.7591,81.3244,-76.6077,248.7573,-1.5426,1.5426,3.5996,-4.6267,8.7408,-16.9671,
-64.7823,-22.6218,-11.3104,41.1324,49.3587,77.1227,-76.0932,260.1582,-3.0841,3.0851,0,0,2.0571,-15.4245,
-60.6691,-25.7074,-6.1697,50.3863,49.3582,62.1227,-77.1217,267.3559,3.0846,-1.0285,1.0285,4.1136,-1.0285,-14.396,
-70.952,-27.7635,-8.2268,50.3863,44.2171,47.1227,-90.4897,252.3559,8.2268,-16.0285,3.0846,4.1136,-3.0846,-19.5372,
-71.9805,-19.5382,-15.425,50.3863,44.2161,55.5275,-85.3485,237.3559,1.0285,-29.8206,3.0846,4.1127,-1.0285,-20.5662,
-70.952,-34.5382,-14.3965,39.0754,38.0473,59.6411,-71.9805,237.5354,-3.0851,-14.8206,4.1131,5.1412,3.0851,-17.4806,
-69.4099,-49.5382,-4.6272,36.5043,27.25,44.6411,-72.4946,233.9363,-1.5421,-1.5421,4.6272,1.5421,1.5421,-13.8825,
-54.4099,-34.5382,-3.0841,51.5043,42.25,34.9622,-67.8669,244.7336,-1.028,0,5.1422,10.2834,0,-8.2263,
-39.4099,-19.5382,-8.2263,45.2446,57.25,49.9622,-62.7262,258.1011,-3.0851,0,0,14.3955,-2.0571,-7.1983,
-27.7635,-4.5382,-6.1697,41.1319,42.25,64.9622,-71.9801,253.9885,2.0566,-2.0566,-2.0566,10.2829,-5.1407,-8.2258,
-13.8815,10.4618,-6.6842,48.8437,27.25,79.9622,-76.6077,246.2757,2.5711,-3.5991,-2.5711,15.9386,-6.6842,-9.7684,
-1.028,25.4618,-6.1702,56.556,17.4806,94.9622,-67.8674,257.0731,-6.1702,1.028,-5.1412,29.8201,-9.2543,-2.0571,
-4.6277,40.4618,-14.91,41.556,5.6557,109.9622,-78.6643,260.6727,-16.9671,4.6277,-15.9381,23.1363,-21.0802,-11.8249,
-4.6277,55.4618,-12.8539,30.3346,4.6277,124.9622,-82.7774,255.5305,-10.7969,6.6837,-13.882,17.9951,-17.9951,-17.9951,
0.51451,70.4618,-2.5706,45.3346,5.6557,139.9622,-73.5231,261.7007,-3.5986,-0.51451,-7.7118,21.0802,-6.6837,-9.7688,
-1.5426,85.4618,-1.5426,55.0134,-8.7408,154.9622,-67.3534,275.0682,1.5426,9.7688,-3.5996,22.1083,-5.6557,-5.6557,
-7.1978,100.4618,-9.2548,40.0134,-21.5943,169.9622,-70.952,264.2718,3.0846,15.4241,-5.1417,21.5943,-11.3109,-3.0846,
-4.1131,98.7155,-4.1131,55.0134,-14.3965,180.9794,-68.8959,255.016,0,10.2824,0,26.7359,-5.1412,0,
-11.8249,88.9476,-5.6557,49.8723,-13.882,186.6351,-70.438,260.6717,3.5986,10.7969,-3.5986,24.1653,-5.6557,-7.7118,
-14.9105,101.2866,-14.9105,38.5604,-7.7123,201.6351,-77.6362,252.4459,7.7123,23.1368,-13.8825,32.3911,-17.9956,-8.7403,
-1.543,113.626,-4.6272,42.6735,0.51402,213.3705,-80.7213,242.1626,-0.51402,26.2209,-19.0237,39.5894,-23.1368,-3.5991,
1.5426,105.4002,-1.5426,39.5889,-6.6837,200.0026,-82.7774,243.1911,-10.7969,19.0232,-23.1363,28.2785,-22.1083,-14.91,
1.0285,108.9993,-7.1978,43.188,-8.2268,204.6297,-75.0656,247.8183,-1.0285,27.7635,-15.4241,27.7635,-12.3399,-14.396,
-9.7688,96.1449,-10.7969,39.5889,-9.7688,189.6297,-71.4665,232.8183,2.5706,24.1653,-7.7118,17.9951,-2.5706,-4.6277,
-8.2268,81.1449,-2.0566,45.2451,-19.5382,183.036,-73.0091,228.2806,-3.0846,20.5652,-3.0846,7.1978,2.0566,-4.1136,
-11.8249,66.1449,-7.7118,43.7021,-34.5382,176.3517,-79.6928,233.9368,1.5426,19.0232,-1.5426,14.91,-5.6557,-14.91,
-26.8249,51.1449,-22.7118,28.7021,-49.5382,161.3517,-88.4331,218.9368,8.2263,11.3114,-8.2263,10.2834,-15.4245,-25.7069,
-37.5323,36.1449,-25.1929,32.3911,-46.7876,150.6453,-79.6928,203.9368,11.8254,12.8535,-6.6842,6.6842,-6.6842,-15.9386,
-22.5323,51.1449,-10.1929,45.7591,-31.7876,165.6453,-70.4385,213.3701,2.5706,19.0232,-4.6277,15.9381,-2.5706,-6.6837,
-7.5323,66.1449,-5.1417,52.4433,-16.7876,168.6404,-69.924,225.1964,-9.2548,22.6223,-7.1978,15.4241,-7.1978,-11.3109,
2.5711,79.6928,-6.6833,51.9288,-21.0797,161.9567,-64.2683,226.739,-15.9386,10.7974,-1.5421,0.42405,0.51402,-10.7964,
-4.1131,66.8384,-1.028,49.3577,-32.9052,175.8382,-59.6411,233.4223,-15.4245,1.028,-4.1131,-3.0851,8.2263,1.028,
-4.1131,56.556,-2.0571,59.6401,-42.1605,160.8382,-64.7828,232.3932,-4.1131,8.2263,-19.1131,7.1973,0,0,
-0.51402,49.8727,-2.5701,60.1551,-40.6174,145.8382,-64.2683,217.3932,0.51402,15.9386,-21.0797,10.7974,-0.51402,-3.5991,
-2.0571,56.556,-1.028,52.4429,-32.9052,142.9321,-64.7828,220.0548,-10.2834,3.0851,-7.1983,2.0561,1.028,-4.1131,
7.1982,68.8954,1.028,50.3868,-17.9052,152.1874,-64.7823,228.2811,-3.0851,-4.1131,-1.028,-2.0561,7.1982,-3.0851,
17.9946,71.4665,-2.5711,42.6745,-14.9105,151.6734,-64.2683,231.8802,2.5711,-5.6552,-13.8815,-3.5991,6.6842,-4.6272,
10.2834,62.7262,-3.0851,49.3578,-20.5657,138.8199,-64.7823,222.1109,-6.1692,-5.1412,-22.6228,-6.1692,3.0851,10.2834,
-2.5706,57.0705,1.5426,52.9574,-13.882,137.2773,-65.2968,207.1109,-5.6557,-1.5426,-11.8249,-1.5426,7.7118,23.1363,
-1.5426,69.4099,-3.5986,42.674,-12.853,141.3905,-67.3529,209.2579,-7.7118,-5.6557,-12.853,1.5426,1.5426,13.882,
6.6837,68.3819,-1.5426,44.7311,-27.853,140.3615,-62.2117,224.2579,-6.6837,-5.6557,-22.1083,1.5426,-1.5426,20.0512,
1.5426,53.3819,-0.51451,45.7591,-37.5328,126.994,-60.1551,209.2579,-3.5986,0.51451,-28.2785,-5.6557,-0.51451,20.0512,
9.7688,66.3248,-1.5426,50.9003,-22.5328,138.3054,-58.099,194.2579,-2.5706,1.5426,-22.1083,-4.6277,-3.5996,6.6837,
22.6228,81.3248,1.028,46.2726,-7.5328,153.3054,-50.3868,207.7153,-6.1702,-4.1131,-14.3965,-1.028,-8.2263,10.2824,
28.2775,96.3248,1.5426,45.7591,-22.5328,168.3054,-46.7872,222.7153,-7.7128,-5.6557,-8.7408,-1.5426,-4.6277,21.0802,
30.3351,111.3248,-10.7974,47.8157,-37.5328,183.3054,-60.1551,219.5408,-12.8535,0.51402,-15.9386,-0.51402,-11.8254,9.7684,
24.1649,115.6831,-24.1649,32.8157,-52.5328,198.3054,-75.1551,204.5408,-22.1078,-0.51402,-30.9386,3.5991,-26.8254,0.51402,
18.5092,111.0554,-17.4811,32.9057,-67.5328,213.3054,-79.1788,208.7439,-17.4811,-6.1697,-28.7925,6.1697,-27.7635,11.3109,
27.2495,111.5694,-2.5706,46.7872,-52.5328,225.7105,-64.1788,212.342,-6.6837,-6.6837,-13.7925,2.5706,-12.7635,23.1363,
35.4767,109.5134,-2.5706,46.7872,-47.8152,220.5693,-61.1832,197.342,-3.5986,1.5426,-1.5426,-8.7398,-8.7398,22.1083,
23.1363,98.202,-11.8249,44.7311,-62.8152,205.5693,-70.438,182.342,-11.8249,11.8249,-8.7408,-8.7408,-16.9671,8.7408,
8.1363,88.4331,-25.7069,29.7311,-77.8152,190.5693,-69.9235,179.9514,-20.5657,6.1702,-20.5657,-3.0851,-23.6508,3.0851,
11.3119,93.5748,-22.6223,29.8206,-76.0937,182.0079,-68.8949,187.1491,-18.5092,6.1697,-18.5092,-6.1697,-23.6503,8.2268,
14.396,90.4897,-7.6223,31.8776,-80.2068,192.2913,-69.924,185.093,-20.5652,5.1417,-18.5092,-20.5652,-22.6223,7.1987,
13.3675,90.4892,4.1131,28.792,-83.2919,179.9514,-54.924,184.0645,-13.3685,-4.1131,-14.3965,-21.5947,-15.4245,13.3675,
27.2495,101.2871,2.5706,35.4758,-68.2919,172.2386,-43.7021,174.2957,-6.6837,-2.5706,-9.7688,-13.882,-6.6837,7.7118,
35.4758,105.4002,2.5706,37.5328,-57.0705,158.8711,-50.9003,161.9562,-10.7969,10.7969,-9.7688,-2.5706,-6.6837,-7.2882,
22.6228,102.8296,-10.2834,40.1034,-72.0705,148.0742,-55.528,158.3566,-18.5096,11.3114,-19.5377,10.2834,-20.5657,-22.2882,
21.5938,100.7726,-20.5657,46.2726,-67.8674,159.3846,-55.528,161.4417,-15.4245,11.3114,-18.5096,17.4806,-21.5948,-11.3114,
22.1083,85.7726,-19.0232,35.4758,-62.2117,161.9562,-62.2117,160.9282,-10.7969,16.9671,-9.7688,4.6277,-15.9381,-4.6277,
21.5938,73.0086,-7.1982,40.1034,-63.7542,149.1023,-56.556,158.3566,-6.1702,23.6508,-6.1702,3.0851,-12.3394,-3.0851,
10.7969,62.2117,-12.853,39.5899,-64.2678,135.2213,-48.8432,143.3566,-12.853,15.9391,-15.9381,10.7969,-21.0793,-10.7969,
10.7974,63.2402,-8.7403,44.7306,-62.2112,120.2213,-45.7586,128.3566,-12.8535,8.7403,-14.9095,13.8825,-17.9946,-11.8254,
15.4245,65.8103,2.0561,41.1315,-67.8674,118.2532,-49.3577,143.3566,-9.2543,0,-16.4526,-1.1175,-17.4806,0,
15.4245,66.8394,3.0851,33.9342,-59.6411,131.6216,-49.3577,141.905,-8.2263,3.0851,-19.5377,-16.1175,-22.6218,-3.0851,
29.3065,76.6082,1.5426,47.8162,-47.8152,129.0511,-39.5889,126.905,-8.7398,18.0851,-10.7969,-4.6267,-13.882,-1.5426,
32.3916,61.6082,-13.4574,36.5048,-62.8152,114.0511,-49.8723,111.905,-14.91,10.7969,-17.9951,2.5706,-22.1083,-2.5706,
37.0183,62.7262,-19.5377,34.9622,-53.4709,120.3102,-53.4709,117.2251,-4.1131,4.1131,-17.4806,10.2834,-27.764,-5.1412,
31.3626,75.5792,-17.9951,37.5328,-39.5889,121.8528,-55.0134,118.7677,-6.6837,15.9391,-16.9671,6.6837,-29.3065,-12.8539,
30.3341,67.3534,-27.25,26.2209,-39.5894,121.8523,-48.8437,118.7672,-12.8535,24.1649,-24.1649,3.5991,-25.1929,-3.5991,
25.1934,62.2117,-35.4758,27.2495,-44.7311,133.1642,-51.9293,103.7672,-12.8539,9.7688,-35.4758,2.5706,-33.4197,-2.5706,
27.2495,69.4099,-25.1934,30.3346,-47.8162,121.8528,-58.0986,91.0037,-4.6277,4.6277,-27.2495,6.6837,-31.3626,-10.7969,
38.0468,65.8108,-20.5662,22.6223,-34.9617,110.0274,-50.3863,104.8862,-11.3109,5.1417,-19.5372,12.3399,-23.6503,-5.1417,
38.0468,59.6406,-22.6223,23.6503,-32.9057,113.1115,-35.9908,101.8011,-21.5943,3.0846,-23.6513,14.396,-26.7354,-3.0846,
26.7354,54.4994,-15.4241,26.7354,-47.9057,98.1115,-37.0188,86.8011,-9.2548,7.1978,-20.5662,10.2829,-21.5943,-7.1978,
28.2785,50.9003,-19.0232,23.1363,-50.9003,83.1115,-52.0188,84.8345,-12.8539,5.6557,-23.1363,11.8259,-22.1083,-5.6557,
33.4187,65.2958,-33.4197,22.1083,-40.6179,98.1115,-65.2968,99.8345,-27.2504,1.5426,-24.1653,17.9951,-28.2785,-1.5426,
18.5092,80.2958,-33.9337,29.8206,-55.6179,113.1115,-59.6406,98.716,-24.6794,3.0846,-17.4811,15.4241,-30.8486,-3.0846,
4.1131,78.1498,-21.5947,30.8481,-70.6179,128.1115,-57.585,105.9138,-9.6794,10.2824,-18.5096,20.5657,-30.8491,-4.1131,
2.0566,63.7538,-23.6503,16.4531,-85.6179,143.1115,-58.6126,98.716,-2.0566,21.5943,-23.6503,22.6223,-29.8206,-5.1417,
2.0566,63.7538,-18.5092,17.4811,-100.6179,158.1115,-56.5565,83.716,-11.3109,31.8766,-20.5662,14.396,-22.6223,-2.0566,
-1.028,53.4709,-17.4816,9.2543,-94.6033,168.64,-56.556,80.2068,-18.5096,22.6218,-21.5947,14.3955,-22.6228,1.028,
-1.5426,55.0134,-28.2785,11.8249,-108.4853,177.3798,-56.0425,85.8625,-11.8259,14.91,-12.8539,27.2495,-24.1653,1.5426,
0,64.7823,-25.7069,26.8249,-120.3103,180.9794,-55.528,78.1498,-1.028,29.91,-3.0851,35.9903,-22.6228,0,
-0.51402,49.7823,-17.9946,30.3351,-114.6541,166.0699,-55.013,73.5236,-5.6552,32.3911,-13.8815,32.3911,-25.1929,0.51402,
1.0285,42.16,-27.7635,16.4531,-114.1405,151.0699,-56.5565,74.0371,-14.396,17.3911,-21.5943,24.6794,-27.7635,-1.0285,
3.5991,55.0139,-33.4192,23.1368,-116.7111,136.0699,-58.099,59.0371,-7.7123,8.7403,-6.5943,15.9386,-25.1929,-4.6272,
2.0566,44.2171,-22.6223,23.6513,-113.112,139.8484,-58.6126,50.3863,-5.1417,18.5092,-3.0846,4.1136,-23.6503,-2.0566,
-1.0285,29.2171,-22.6223,23.6513,-115.1686,133.6782,-55.5275,56.5565,-5.1417,16.4531,-16.4521,2.0566,-23.6503,1.0285,
-0.51402,32.3911,-29.306,15.9386,-115.6826,129.0515,-53.9849,55.0139,-1.5421,20.0517,-8.7403,11.8254,-17.9946,0.51402,
3.5991,45.7586,-25.1939,21.0797,-116.7116,136.2488,-61.1841,40.6174,-3.5991,31.3621,-8.7413,9.7684,-4.6281,-4.6281,
2.0566,32.9047,-26.7354,27.7635,-113.1125,127.508,-63.7547,25.7074,-2.0566,29.8206,-20.5662,3.0846,-2.0566,-5.1417,
1.5426,39.5889,-32.3916,20.0512,-98.2025,119.7957,-53.9854,28.2775,-4.6277,23.1363,-26.2214,11.8249,-17.0566,-1.5426,
1.5426,47.8162,-34.4477,22.1083,-89.9757,130.0791,-51.9283,36.5048,-6.6837,26.2214,-26.2214,8.7408,-26.2214,-1.5426,
2.0566,32.8162,-29.8206,24.6794,-90.4897,127.508,-57.5845,23.6503,1.0285,31.8766,-14.396,-2.0566,-11.2214,-1.0285,
3.5991,17.8162,-29.306,25.1929,-87.9191,112.508,-58.0981,8.6503,1.543,19.0237,-5.6552,0.51402,-5.6552,-3.5991,
2.5701,21.0798,-31.3631,25.1929,-95.1174,101.2866,-48.8447,0.51402,-5.6562,5.6552,-0.51402,5.6552,-13.8825,-3.5991,
-1.0285,23.6503,-28.7925,21.5943,-100.7731,113.1115,-47.3022,2.0566,-3.0856,14.396,-3.0856,4.1127,-2.0566,1.0285,
6.1692,31.8771,-23.6508,28.792,-85.7731,101.8006,-49.3587,-11.3114,1.028,28.792,-2.0571,3.0851,-1.028,-2.0571,
15.9381,44.7301,-23.1373,27.2495,-72.4951,99.23,-36.5048,-3.5996,-1.5426,22.1083,5.6557,1.5426,-10.7979,-4.6277,
6.1697,37.0188,-28.7925,15.4241,-87.4951,105.9142,-45.2451,11.4004,-3.0846,12.3389,-7.1987,1.0285,-11.3119,-1.0285,
-0.51402,22.0188,-23.1368,9.7693,-95.1169,107.4568,-60.2451,0.51402,-3.5991,17.9956,-22.1987,8.7403,-13.8815,0.51402,
7.1978,19.5372,-13.368,19.5372,-80.1169,115.1686,-45.2451,-14.396,-3.0846,24.6784,-14.396,23.7403,-3.0846,3.0846,
8.2268,28.7925,-25.7074,29.8206,-69.924,123.3949,-32.9057,-11.3109,-10.2829,21.5943,-2.0566,27.7635,-9.2548,2.0566,
9.7688,32.3907,-34.4477,21.0802,-76.6082,114.6546,-35.4758,-12.8539,-5.6557,16.9671,-3.5986,28.2775,-24.2548,3.5986,
4.6267,17.3907,-29.3065,15.9381,-73.5231,101.2861,-34.4477,-27.8539,-1.5426,11.8249,-2.5706,23.1363,-20.0522,1.5426,
5.6552,9.7684,-26.2219,25.1929,-70.4385,97.1734,-36.5043,-33.4192,-4.6272,6.6842,2.5711,11.8254,-5.0522,-2.5711,
15.4241,21.5943,-26.7354,22.6223,-61.6977,89.4617,-35.9898,-41.1319,-3.0846,7.1978,-2.0566,9.2548,-1.0285,1.0285,
11.8249,15.9381,-33.4197,23.1363,-62.2117,86.8906,-40.6179,-51.9293,-2.5706,10.7969,-3.5996,9.7688,-4.6277,2.5706,
-1.5426,0.93807,-35.4758,22.1083,-74.5511,88.9476,-50.9003,-44.7301,1.5426,21.0802,5.6557,6.6847,-4.6267,2.5716,
0.51402,-9.7693,-29.306,21.0798,-74.5516,74.5506,-49.8728,-42.6745,0.51402,32.3911,-0.51402,13.8815,-19.6267,5.6552,
15.514,5.2307,-28.7925,28.7925,-59.5516,65.8108,-41.1319,-57.6745,-6.1697,34.9617,-15.514,27.7635,-34.6267,6.1697,
21.5938,19.5377,-30.8491,30.8481,-49.3587,79.1788,-35.9903,-66.8394,-4.1131,29.8201,-21.5947,22.6218,-24.6789,4.1131,
20.5657,20.5657,-18.5096,30.8481,-60.6691,77.1217,-35.9903,-62.7262,0,15.4245,-20.5657,8.2263,-19.5377,0,
26.2214,23.1363,-6.6837,23.1363,-61.1837,62.2117,-32.3916,-71.466,0.51451,6.6837,-26.2214,5.6557,-26.2214,-0.51451,
29.8201,22.6228,-17.4806,21.5938,-56.556,62.7262,-35.9903,-73.0086,-4.1131,5.1412,-26.7359,7.1983,-24.6789,4.1131,
29.3065,30.3346,-19.0232,34.4477,-46.7872,72.4941,-37.5328,-58.0086,-16.9671,8.7408,-21.0802,8.7408,-9.6789,11.8249,
20.5652,25.7064,-15.425,20.5652,-47.3022,58.6126,-39.0759,-73.0086,-31.9671,7.1978,-31.8776,5.1407,-2.0566,2.0566,
35.4762,32.3911,-17.9946,25.1929,-37.5323,49.8728,-31.3631,-88.0086,-20.0517,20.0517,-24.1649,10.7974,0.51402,-0.51402,
38.0468,21.5933,-32.9946,26.7354,-42.16,43.188,-33.9337,-98.7165,-5.0517,16.4521,-9.2548,8.2258,-2.0566,2.0566,
23.0468,6.5933,-32.3911,19.0227,-56.042,39.5894,-44.7316,-104.3722,-2.5711,2.5701,5.6552,-0.51402,0.51402,3.5991,
12.3394,-8.4067,-26.7359,23.6508,-47.3017,40.1034,-50.3868,-110.0274,1.028,7.1982,11.3114,-1.028,1.028,-2.0571,
17.4806,0,-38.0473,14.3955,-34.9622,42.1595,-47.3017,-118.2542,0,22.1982,2.0561,9.2543,-7.1983,-3.0851,
22.6223,6.1697,-41.1319,13.368,-34.9617,43.188,-44.2171,-122.3668,-10.2829,28.7925,-6.1697,21.5943,-10.2829,6.1697,
19.0237,2.5711,-34.4482,26.2209,-34.4482,34.4482,-45.7586,-131.1076,-8.7403,22.1078,-2.5711,30.3341,-4.6272,13.8815,
16.4531,6.1697,-32.9057,18.5092,-21.5943,28.7925,-44.2161,-143.9611,-7.1978,20.5662,-6.1697,20.5662,-7.1978,15.4241,
20.5657,16.4526,-34.9622,22.6218,-36.5943,43.7925,-44.2166,-138.8199,-12.3394,25.7069,-11.3114,8.2263,-8.2263,21.5938,
18.5092,7.1978,-37.0188,23.6503,-51.5943,48.3292,-56.5565,-147.0462,-7.1978,16.4521,-10.2829,13.368,-7.1978,17.4811,
33.5092,16.9666,-27.25,21.0798,-36.5943,44.7306,-46.7876,-162.0462,-4.6272,4.6272,-4.6272,23.1358,-5.6562,17.9946,
48.5092,31.9666,-24.6789,12.3394,-21.5943,29.8201,-31.7876,-175.8382,-19.6272,-9.2543,-6.1692,8.1358,-3.0851,22.6228,
53.4714,25.7074,-22.6223,20.5662,-6.5943,14.8201,-16.7876,-174.8097,-28.7915,-1.0285,-11.3109,-6.1697,2.0566,27.7645,
52.4433,10.7074,-22.6223,29.8206,8.4057,-0.17994,-7.1978,-189.8097,-24.6794,3.0846,-26.3109,5.1417,-3.0846,28.7925,
65.8113,-4.2926,-12.3394,21.5948,23.4057,-15.1799,3.0851,-204.8097,-21.5938,-3.0851,-18.5087,8.2263,11.9154,32.9052,
75.0661,-4.1127,-2.0566,32.9057,38.4057,-30.1799,15.425,-219.8097,-14.396,-6.1697,-3.5087,-3.0846,26.9154,31.8776,
69.4099,-7.7118,-1.5426,47.8162,53.4057,-45.1799,24.1653,-211.314,-17.9951,-11.8249,1.5426,-7.7118,34.4477,28.2785,
62.7262,-15.4245,-16.4526,33.9342,68.4057,-60.1799,22.6228,-226.314,-20.5657,-16.4526,0,0,19.5377,22.6228,
56.5555,-27.7645,-25.7074,28.7915,83.4057,-75.1799,7.6228,-241.314,-23.6513,-15.425,-2.0566,2.0566,22.6223,7.6228,
59.6411,-27.764,-16.4526,30.8491,98.4057,-90.1799,11.3114,-250.9034,-23.6508,-1.028,-4.1131,1.028,10.2834,6.1702,
55.0134,-20.0512,-19.0232,25.1934,113.4057,-105.1799,16.9671,-245.2477,-22.1083,4.6277,-1.5426,1.5426,-4.6277,8.7408,
45.2456,-27.764,-21.5938,24.6789,128.4057,-120.1799,10.2834,-252.9599,-25.7069,-1.028,0,0,10.3723,5.1422,
57.07,-33.4192,-11.8254,25.1929,143.4057,-128.0225,6.6842,-245.2477,-21.0797,-3.5991,-0.51402,0.51402,25.3723,6.6842,
68.3809,-26.2214,-11.8259,25.1934,158.4057,-134.1922,2.5706,-238.0499,-11.8259,-10.7969,-2.5706,2.5706,10.3723,6.6837,
64.2683,-32.3911,-10.7974,22.1078,160.9277,-137.2773,9.7684,-243.1911,-0.51402,-4.6272,0.51402,7.7123,-1.5421,12.8535,
49.2683,-47.3911,-17.9956,12.8535,145.9277,-146.5317,5.6552,-255.531,-6.6842,-0.51402,-1.5421,0.51402,3.5991,4.6272,
46.2726,-50.3868,-26.7359,22.6218,141.904,-147.0462,0,-260.1587,-7.1983,4.1131,0,11.3104,-1.029,1.028,
53.4714,-42.16,-26.7354,28.7925,140.8765,-146.0177,1.0285,-271.4691,-1.0285,8.2268,-1.0285,20.5662,-4.1136,12.3399,
40.6179,-46.7872,-27.2495,27.2495,133.1642,-149.6168,2.5706,-269.927,-9.7688,1.5426,-7.7118,5.5662,-1.5426,8.7408,
38.5614,-44.7306,-33.4192,20.0517,119.7962,-146.5317,5.6552,-254.927,-2.5711,1.5421,1.5421,-1.5421,1.5421,-3.5991,
47.8157,-48.8437,-31.3631,16.9666,121.8523,-152.7014,2.5711,-239.927,2.5711,-1.5421,1.5421,3.5991,-1.5421,-1.5421,
56.5565,-49.3573,-19.5372,31.9666,136.8523,-162.4698,11.3119,-253.988,-5.1407,-14.396,2.0566,-2.0566,2.0566,13.368,
50.9008,-51.9288,-15.9386,39.5894,121.8523,-168.1259,12.8535,-266.8419,-1.5421,-20.0517,17.0566,-9.7684,8.7403,1.5421,
51.4148,-49.3578,-14.3965,39.0754,106.8523,-153.1259,8.2263,-255.0165,3.0851,-14.3965,13.3675,-3.0851,10.2824,-10.2834,
65.8108,-35.9898,-10.2829,40.1039,121.8523,-138.1259,23.2263,-241.6485,-6.1697,-13.367,-1.6325,6.1697,10.2829,4.7166,
70.9525,-31.8771,-10.2834,32.9052,136.8523,-150.1308,38.2263,-242.6771,-21.1697,-18.5096,-8.2263,9.2543,8.2263,8.2263,
75.5797,-33.4192,-6.6842,38.5614,151.8523,-165.1308,50.9008,-244.2196,-13.8815,-9.7684,6.6842,16.9666,16.9666,-6.6842,
76.6077,-44.7306,-7.7123,32.3911,166.8523,-180.1308,50.9008,-259.2196,-0.51402,-8.7403,0.51402,3.5991,22.1088,-12.8535,
86.377,-51.4148,-9.2543,42.1605,181.8523,-195.1308,52.4429,-270.4411,0,-12.3394,4.1131,-6.1692,22.6228,0,
88.4336,-58.6126,-5.1417,50.3863,196.8523,-206.6868,51.4143,-264.2713,-6.1697,-9.2548,19.1131,-1.0285,26.7354,1.0285,
76.6082,-63.2402,-2.5706,38.5609,211.8523,-201.0311,51.9283,-270.9551,2.5706,-6.6837,23.1363,-3.5986,30.3346,-8.7408,
62.7257,-61.6977,-10.2829,37.0188,226.8523,-203.6017,43.188,-281.752,6.1697,-13.368,9.2548,-6.1697,20.5662,-9.2548,
71.4665,-56.042,-15.9386,37.5323,234.9653,-204.1162,40.6174,-279.1814,-8.8303,-13.8815,9.7684,0.51402,15.9386,-0.51402,
86.4665,-52.4433,-9.2548,44.2161,234.4508,-202.5741,54.4994,-275.5827,-13.368,-14.396,18.5092,-2.0566,26.7354,2.0566,
79.6923,-63.2397,-13.882,42.674,219.4508,-208.2294,48.8432,-278.1533,1.632,-19.0232,15.9381,-5.6557,23.1363,-7.7128,
66.3248,-68.3809,-17.9951,31.3626,204.4508,-206.1728,40.6179,-282.2665,1.5426,-13.882,7.7118,-1.5426,11.8259,-9.7688,
81.3248,-59.6411,-2.9951,46.3626,201.5456,-196.4039,53.4714,-285.8656,-13.4574,-1.0285,11.3109,-1.0285,23.6503,1.0285,
80.2068,-59.6411,-9.2543,47.3017,186.5456,-200.5171,48.3297,-289.9787,-12.3394,-1.028,6.1692,-9.2543,18.5096,1.028,
65.2068,-56.556,-24.2543,32.3017,175.8382,-197.432,33.3297,-288.9502,2.0571,0,-1.028,-9.2543,3.5096,0,
57.0695,-57.0705,-17.9951,30.3346,190.8382,-192.8053,35.4758,-294.6064,-6.6847,2.5706,1.5426,-16.9671,5.6557,-1.5426,
66.3248,-61.1837,-7.7118,39.5889,188.6922,-197.9465,48.8442,-297.6905,-15.9381,2.5706,12.8539,-15.9381,20.6557,-2.5706,
66.3253,-57.07,-9.7684,43.7025,178.4093,-204.1162,44.7306,-289.4642,-9.7684,1.5421,20.0517,-9.7684,26.2219,-1.5421,
63.7547,-51.4143,-15.4241,31.8776,167.6124,-194.3469,31.8776,-285.8651,-7.1978,6.1697,10.2838,-12.3389,15.425,-6.1697,
75.5792,-42.674,-8.7408,35.4758,153.7299,-179.3469,44.7311,-283.2945,-9.7688,15.9391,0.51451,-5.6557,17.9951,-0.51451,
74.5516,-44.7306,-2.5711,36.5043,152.7014,-177.3803,40.6174,-292.5493,-16.9666,2.5711,-6.6842,-11.8254,11.8254,4.6272,
75.5797,-41.6455,2.5711,38.5614,167.7014,-187.6636,26.2219,-289.4642,-6.6842,-6.6842,-2.5711,-11.8254,15.9386,9.7684,
90.5797,-30.3346,2.5706,52.9574,166.0694,-179.4373,39.5889,-278.1533,-2.5706,-3.5986,-4.6277,-3.5986,22.1083,9.7688,
89.9757,-32.3916,4.6277,44.7311,151.0694,-178.4088,53.9854,-283.2945,-8.7408,-4.6277,-4.6277,-6.6837,15.9381,5.6557,
74.9757,-43.7025,-0.51402,29.7311,146.5322,-185.6066,38.9854,-290.4928,-13.8815,-10.7974,10.3723,-14.9105,13.8825,0.51402,
72.4951,-42.674,-4.6267,42.674,159.9001,-173.2671,41.646,-291.5208,-4.6267,-1.5426,22.1083,-4.6267,27.2504,1.5426,
72.4946,-57.674,-7.7123,42.6745,159.8996,-177.3803,56.646,-306.5208,3.5991,-5.6552,7.1083,-7.7123,24.1649,-3.5991,
66.8389,-67.8674,-3.0846,43.188,150.1308,-192.2908,43.188,-306.4313,3.0846,-7.1978,5.1417,-18.5092,13.368,-9.2548,
65.8108,-60.6687,2.0566,41.1319,151.1588,-194.3474,28.7925,-294.0914,-6.1697,-2.0566,18.5092,-10.2829,12.3399,-2.0566,
56.5565,-71.9801,-12.9434,26.1319,154.244,-182.0074,34.9617,-302.3177,-14.396,-15.4241,9.2548,1.0285,1.0285,-1.0285,
58.6126,-70.952,-17.4811,29.8206,160.4142,-167.0074,42.16,-298.2045,-7.1978,-15.4241,6.1697,-1.0285,2.0566,1.0285,
62.7262,-55.952,-4.1131,40.1034,166.5839,-161.4417,38.0473,-292.0348,-11.3114,-8.2263,18.5096,-10.2824,17.0566,4.1131,
57.071,-40.952,-9.7684,33.4202,168.1259,-161.9557,31.3631,-300.7751,-25.1929,-12.8535,13.8825,-0.51402,14.9105,0.51402,
56.556,-44.2166,-24.7684,23.6508,162.4707,-155.272,34.9622,-304.3748,-23.6508,-13.3675,6.1702,3.0851,5.1412,-3.0851,
70.952,-43.188,-16.4531,33.9337,164.5263,-147.0462,44.2161,-294.0919,-8.6508,-1.0285,21.1702,-5.1417,19.5372,1.0285,
75.5802,-38.5609,-1.5426,41.646,161.9562,-146.5317,36.5048,-293.5774,-4.6267,-6.6837,26.2214,1.5426,21.0802,-1.5426,
66.8394,-38.0464,-11.3114,26.646,146.9562,-156.3005,27.764,-308.4874,-15.4245,-19.5377,11.2214,12.3394,8.2263,-8.2263,
74.0376,-28.792,-14.3955,29.821,131.9562,-154.2435,34.9622,-308.4874,-18.5087,-12.3394,4.1131,7.1982,13.3685,-4.1131,
77.6362,-34.4477,-2.5706,38.5609,116.9562,-141.3905,24.1644,-295.6344,-13.882,-11.8259,10.7969,2.5706,17.9951,-9.7688,
62.6362,-47.8157,-0.51402,23.5609,119.7962,-146.5312,9.7693,-302.8317,-21.0798,-21.0798,5.6562,2.5711,2.9951,-24.1649,
58.6126,-37.0188,2.0566,31.8776,129.5651,-155.272,24.7693,-309.5159,-23.6503,-6.0798,3.0846,7.1987,-2.0566,-11.3109,
66.8389,-30.8486,-3.0856,34.9617,125.4509,-148.0742,39.7693,-298.205,-20.5662,-3.0856,2.0566,7.1978,10.2829,-2.0566,
73.5226,-27.25,-3.5991,28.278,129.0506,-141.3905,34.4472,-292.5498,-24.1649,-9.7693,3.5991,4.6272,11.8254,-8.7413,
73.0086,-23.6508,0,30.8481,138.8189,-147.0462,35.9903,-307.5498,-24.6789,0,-3.0851,9.2543,8.2263,-19.5377,
76.0937,-24.6789,-1.028,38.0473,139.8479,-138.8194,49.3578,-311.5725,-9.6789,-3.0851,1.028,10.2834,21.5948,-14.3955,
69.4099,-31.3626,-2.5706,43.7021,124.8479,-133.1637,47.8152,-296.5725,-6.6837,-18.0851,11.8249,-4.7166,27.2495,0.60448,
62.2122,-38.5614,-2.5711,36.5043,109.8479,-141.39,39.5894,-303.8602,-19.0237,-33.0851,2.5711,-13.8815,12.8535,4.6272,
77.2122,-23.5614,0.51451,42.674,124.8479,-126.39,47.8152,-301.8037,-14.91,-18.0851,-12.4289,-0.51451,11.8249,2.5706,
89.9762,-8.5614,0.51402,43.7025,139.8479,-111.5694,48.8437,-295.6339,-10.7964,-8.7403,-14.9095,-0.51402,20.0517,3.5991,
74.9762,-5.6552,2.5711,31.3631,129.0506,-116.7111,40.6174,-299.7471,-15.9386,-20.0517,-10.7964,0.51402,12.8544,-0.51402,
78.1503,1.0285,-1.0285,41.1319,128.5361,-111.0559,42.16,-284.8371,-15.4241,-12.3399,-9.2548,15.514,6.1697,-2.0566,
84.8345,1.5426,-13.882,39.5899,139.3344,-107.4563,45.7591,-284.3226,-16.9661,-23.1363,-11.8249,7.7128,13.882,-1.5426,
86.3766,-1.0285,-2.0566,45.2451,136.7633,-106.9423,56.5565,-289.9783,-3.0846,-22.6223,1.0285,-3.0846,28.882,6.1697,
76.6077,-6.6842,0.51402,46.7867,130.0786,-115.6831,56.042,-293.5779,-1.543,-13.8825,-0.51402,-1.543,28.278,6.6832,
79.6923,-5.6557,-1.5426,38.5609,135.2203,-120.8248,51.9283,-292.5493,-9.7688,-15.9391,-2.5706,1.5426,16.9661,9.7688,
87.4051,-2.0561,0,44.2166,129.5646,-117.2251,51.4148,-298.2045,-14.3955,-27.764,-11.3114,0,18.5096,2.0571,
92.5463,-4.1131,0,49.3577,120.3103,-118.2537,58.6121,-298.205,0,-17.4816,-1.028,10.2824,28.792,-5.1412,
77.5463,-19.1131,-15,34.3577,105.4002,-133.2537,43.6121,-304.8888,-6.6837,-21.0802,7.7118,6.6837,17.9951,-8.7408,
62.5463,-31.8766,-14.396,37.0188,104.8862,-137.7909,34.9617,-304.3743,-19.5372,-21.5943,3.0846,19.5382,7.1987,-3.0846,
74.0376,-16.8766,-4.1131,43.1885,111.0559,-122.7909,43.1885,-292.0348,-21.5938,-6.5943,-11.9154,34.5382,4.1131,4.1131,
73.5236,-1.8766,-13.8815,38.5614,105.4007,-107.7909,38.5614,-290.4923,-26.2209,-10.7964,-26.9154,20.0517,0.51402,7.7123,
68.3814,-4.6272,-25.1929,32.3911,110.5419,-101.2866,37.5323,-299.7471,-22.1078,-23.1368,-13.8815,14.9105,4.6272,4.6272,
73.5231,-2.5706,-23.1363,28.2775,123.9089,-96.1454,42.674,-301.8042,-21.0802,-19.0232,-6.6837,29.9105,7.7118,2.5706,
76.6077,-0.51402,-22.1078,31.3631,117.7401,-89.9752,40.6174,-296.662,-28.278,-21.0798,-21.6837,25.1939,2.5711,0.51402,
75.5797,0.51402,-14.9105,33.4192,110.5409,-81.7494,41.6455,-291.5213,-21.0798,-34.4482,-13.8825,10.1939,9.7684,-0.51402,
78.1498,-1.028,-4.1131,44.2166,101.8006,-93.5748,48.3297,-286.8936,-6.0798,-38.0473,1.1175,-3.0851,22.6228,1.028,
77.6362,-16.028,-5.6557,47.8152,86.8006,-108.5748,48.8442,-294.6059,1.5426,-28.2785,16.1175,-10.7969,24.1653,-1.5426,
75.5802,-10.7969,-6.6837,41.646,87.9196,-110.5414,49.8723,-301.8037,-1.5426,-13.2785,20.0522,1.5426,24.1653,-1.5426,
65.8103,0,-15.4245,30.8491,76.0937,-95.5414,34.8723,-300.2616,-16.5426,-13.3675,5.0522,8.2263,9.1653,-12.3394,
63.2393,-7.7123,-17.9956,27.249,61.0937,-94.0893,29.306,-287.4081,-28.278,-24.1649,6.6833,3.5991,3.5991,-3.5991,
55.013,-19.0237,-30.3351,24.1649,46.0937,-88.9476,28.278,-288.4367,-31.3631,-32.3911,0.51402,0.51402,0.51402,-0.51402,
61.6977,-4.0237,-17.4811,29.8206,61.0937,-73.9476,31.8766,-273.4367,-29.8206,-26.7354,-12.3399,12.3389,3.0846,-1.0285,
74.0366,9.2543,-4.1131,30.8491,60.6691,-58.9476,31.8771,-266.3279,-29.8201,-23.6508,-18.5096,9.2543,1.028,-1.028,
73.0081,-1.0285,-7.1987,33.9337,46.2731,-48.3302,31.8766,-281.3279,-30.8486,-25.7074,-14.396,15.4241,1.0285,3.0846,
64.7823,-7.1983,-9.2553,27.764,38.0464,-63.3302,38.0464,-287.9222,-25.7079,-23.6508,-16.4526,27.764,7.1983,7.1983,
67.3529,-16.9671,-8.7408,29.3065,23.0464,-73.5231,28.2785,-288.4362,-19.0232,-22.1083,-20.0512,19.0232,8.7408,12.8539,
71.466,-26.2214,-5.6557,32.3907,19.0232,-80.7213,19.0232,-297.691,-21.0802,-24.1653,-6.6837,10.7969,5.6557,10.7969,
63.7542,-23.6508,-11.3114,22.6228,30.8491,-92.5463,24.6789,-300.2616,-28.792,-27.764,-1.028,1.028,3.0851,5.1412,
74.5511,-8.6508,-2.5706,37.5328,45.8491,-77.5463,34.4477,-285.2616,-16.9671,-15.9381,-0.51451,-4.6277,15.9391,13.882,
76.6082,-4.6277,2.5706,35.4758,44.7311,-62.5463,27.2495,-270.2616,-11.8249,-17.9951,-2.5706,-13.882,19.0232,16.9671,
64.7823,-19.6277,-3.0851,28.792,29.7311,-77.5463,30.8491,-277.6393,-17.4806,-27.764,3.0851,-16.4526,12.3394,9.2543,
62.2117,-22.1083,-18.0851,29.3065,14.7311,-92.5463,41.646,-285.3511,-23.1363,-16.9661,11.8259,-1.5426,12.8539,1.5426,
61.6972,-7.1083,-25.7079,24.6789,-0.26893,-77.5463,31.8771,-273.5262,-24.6789,-1.9661,0,7.1983,13.3675,2.0561,
55.528,-3.0851,-15.4245,31.8771,-15.2689,-62.5463,16.8771,-259.1297,-23.6508,3.0851,-9.2543,4.1131,6.1702,7.1982,
58.6131,3.0851,-16.4526,28.792,-30.2689,-47.5463,6.1702,-263.2428,-23.6508,0,-2.0571,14.3965,0,2.0571,
59.6406,18.0851,-21.5943,27.7635,-45.2689,-32.5463,3.0846,-258.1016,-28.7925,1.0285,-2.0566,25.7074,3.0846,-1.0285,
53.4719,25.7079,-16.4526,42.7635,-60.2689,-17.5463,-6.1692,-246.7902,-26.735,4.1131,-6.1692,22.6228,-4.1131,11.3114,
55.0134,28.2775,-21.0802,37.5328,-75.2689,-2.5463,-8.7408,-244.2196,-11.735,2.5706,-2.5706,31.3626,-19.1131,13.882,
64.2678,42.674,-21.0802,28.2775,-86.8906,12.4537,-1.5426,-241.135,-6.6837,1.5426,-4.6277,39.5889,-28.2785,9.7688,
56.556,31.8771,-16.4526,27.764,-71.8906,25.7069,-1.028,-239.592,-21.5938,1.028,-10.2824,25.7069,-20.5657,13.3675,
43.188,16.8771,-25.7074,28.7915,-86.8906,31.8766,-4.1136,-232.3947,-12.3399,2.0566,-2.0566,22.6223,-5.5657,10.2829,
41.6455,28.278,-35.4763,29.306,-101.2871,35.4762,-6.6842,-229.8236,-4.6272,8.7403,-3.5991,27.25,-5.6552,3.5991,
42.6735,39.5894,-20.4763,21.0798,-86.2871,23.1358,-8.7403,-244.8236,-13.8825,13.8815,-14.9105,13.8815,-15.9386,8.7403,
48.8442,27.2495,-5.6557,22.1083,-82.7774,23.1363,-2.5706,-248.3323,-14.91,5.6557,-8.7398,2.5706,-12.8539,5.6557,
50.3868,12.2495,-20.6557,21.5938,-97.7774,19.5377,3.0851,-241.6485,0,1.028,0,-3.0851,-5.1412,-2.0561,
42.6745,8.7403,-30.3351,24.1649,-100.2585,4.5377,1.5421,-252.4459,0.51402,4.6272,-0.51402,-1.5421,-13.8825,-2.5711,
48.3297,18.5087,-15.3351,34.9622,-92.5468,9.2543,0,-246.7902,-10.2834,4.1131,-4.1131,13.3675,-27.764,0,
49.8723,7.7118,-15.9391,23.1363,-99.2305,22.1083,-1.5426,-231.8802,-9.7688,8.7408,-4.6277,10.7969,-34.4477,1.5426,
41.6455,5.6552,-22.1088,20.0517,-103.3436,11.8254,-1.5421,-239.0779,-5.6552,23.7408,-3.5991,4.6272,-23.1368,1.5421,
45.2451,10.2829,-12.3399,26.7354,-94.6033,8.2258,1.0285,-243.7056,-19.5382,29.8206,-3.0846,19.6272,-10.2829,-1.0285,
52.4429,0,-8.2263,25.7069,-87.4051,14.3955,0,-235.4793,-30.8491,21.5938,-3.0851,28.792,-15.4245,3.0851,
52.9569,-5.6562,-14.9105,36.5043,-87.9191,6.6842,0.51402,-238.0499,-24.1649,12.8535,-0.51402,13.792,-20.0517,6.6842,
52.4429,-2.0571,-3.0851,40.1034,-83.2919,0,8.2263,-242.6771,-18.5096,4.1131,7.1982,0,-12.3394,7.1982,
46.2736,-4.1131,-3.0851,35.9903,-81.2354,0,4.1131,-245.7622,-30.8491,0,3.0851,6.1702,-21.5938,1.028,
45.7596,-5.6552,-10.7974,38.5614,-83.806,13.8825,0.51402,-238.0499,-23.1368,9.7693,-0.51402,16.9666,-21.0798,12.8535,
48.3297,-3.0851,-11.3114,37.0183,-85.348,21.5947,1.028,-232.3937,-20.5657,3.0851,-1.028,12.3394,-6.0798,19.5377,
50.8998,7.7123,-10.7974,39.5894,-75.5797,15.9386,-1.543,-229.8236,-35.5657,-0.51402,-2.5711,0.51402,1.5421,8.7403,
47.3017,7.1983,-24.6789,28.792,-64.7823,16.4526,-5.1412,-231.3657,-30.8491,9.2543,-7.1983,6.1702,-13.4579,5.1412,
46.2731,3.0846,-28.7925,28.7925,-59.6406,30.8486,-3.0846,-225.196,-15.8491,12.3399,-3.0846,21.1702,-28.4579,10.2829,
44.7306,3.5991,-23.1368,30.3341,-63.2402,21.0797,-6.6842,-231.8802,-20.0517,8.7403,-3.5991,26.2209,-30.3351,4.6272,
41.1319,16.4521,-24.6794,20.5652,-66.8389,15.4241,-11.3109,-239.5925,-35.0517,10.2829,-10.2829,19.5372,-37.0188,19.5372,
43.1875,23.6499,-25.7079,21.5938,-67.8674,29.8201,-12.3394,-232.3947,-24.6799,12.3394,-14.3965,22.6218,-42.1605,34.5372,
45.2446,13.3675,-21.5947,21.5938,-69.9245,19.5367,-8.2263,-230.3381,-17.4816,8.2263,-11.3114,25.7069,-29.821,49.5372,
50.3858,11.3114,-13.3685,28.792,-63.7542,4.5367,0,-225.1964,-16.4526,5.1412,-4.1131,21.5938,-17.4816,48.3297,
48.8437,15.9386,-13.8815,35.4762,-53.9849,0.51402,-0.51402,-231.8797,-21.0798,5.6562,-4.6272,16.9666,-31.3631,33.3297,
40.6179,11.8259,-21.0802,23.1363,-50.9003,5.6557,-5.6557,-246.8797,-32.3907,20.6562,-9.7688,22.1083,-40.6169,18.3297,
45.2446,11.3114,-21.5938,25.7069,-57.584,3.0851,-3.0851,-244.7336,-32.9052,32.9052,-10.2834,31.8771,-26.7359,6.1702,
42.674,3.5986,-24.1653,34.4477,-65.2968,-0.51451,0.51451,-231.8802,-28.2785,17.9052,-1.5426,22.1083,-13.882,5.6557,
36.5048,-7.7118,-22.1083,36.5048,-61.1837,0.51451,0.51451,-227.7666,-27.2495,2.9052,10.7969,9.7688,-17.9951,2.5706,
41.6455,-14.9105,-15.9386,32.3911,-52.9579,-0.51402,0.51402,-235.9933,-23.1368,7.7123,5.6552,13.8815,-20.0517,7.7123,
49.8728,-7.7123,-15.9386,23.1368,-37.9579,14.486,4.6272,-233.9363,-27.25,21.0798,-6.6842,28.8815,-5.0517,17.9956,
45.7591,1.5426,-21.0802,27.2495,-27.2495,29.486,-1.5426,-224.6819,-39.5889,24.1644,-9.7688,32.3916,-12.8539,14.91,
34.9622,4.1131,-15.4245,31.8771,-39.0744,14.486,-5.1412,-234.4503,-26.735,22.6228,0,25.7079,-27.8539,0,
38.0464,7.1973,-5.1422,27.763,-39.0754,-0.51402,0,-242.6776,-11.735,27.763,0,27.763,-28.793,4.1131,
43.7021,5.6557,-20.1422,19.0232,-39.5889,14.486,-5.6557,-228.7951,-11.8249,20.0512,-15,27.2495,-13.793,14.91,
44.2171,5.1417,-35.1422,12.3399,-54.5889,29.486,-5.1417,-220.0548,-10.2829,18.5092,-9.2548,26.7354,-12.3399,21.5943,
34.4482,5.6552,-38.5614,21.0798,-69.5889,38.5614,-12.8535,-235.0548,-13.8825,17.9946,-5.6552,14.9105,-27.3399,16.9666,
29.8206,10.2829,-29.8206,24.6794,-84.5889,51.4143,-17.4811,-226.2245,-14.396,17.4811,-10.2829,17.4811,-40.1029,17.4811,
31.3631,10.7974,-28.278,21.0798,-99.5889,62.2112,-12.8535,-218.5122,-10.7974,19.0237,-11.8254,28.278,-32.3911,19.0237,
30.8486,10.2829,-32.9057,31.8766,-104.8862,47.2112,-11.3119,-226.2245,-10.2829,25.7074,-10.2829,30.8486,-37.0188,18.5092,
29.8196,6.1697,-37.0188,25.7064,-103.8582,39.0749,-11.3119,-225.1964,-9.2548,15.4241,-6.1697,26.7354,-37.0188,18.5092,
41.1315,9.2543,-28.792,23.6508,-108.9989,48.3297,-8.2263,-217.9982,-4.1131,0.42405,0,25.7069,-26.7359,17.4806,
43.7025,16.9666,-24.1649,30.3341,-108.4853,42.6735,-16.9676,-218.5127,-6.6842,4.6272,-4.6272,23.1358,-27.25,13.8815,
36.5043,4.6272,-30.3351,29.306,-110.5414,33.4192,-24.1649,-218.5122,-7.7123,9.7684,-4.6272,15.9386,-27.25,11.8254,
35.4763,-6.6842,-19.0237,36.5043,-109.5129,42.6745,-9.7684,-215.4271,-0.51402,0.51402,6.6842,14.9105,-21.0797,15.9386,
35.9903,3.0851,-9.2553,32.9052,-98.7165,51.4148,-5.1412,-211.8285,-7.1983,0,0,21.5938,-20.5657,19.5377,
26.2214,13.882,-24.2553,25.1934,-102.3156,52.9564,-20.1412,-206.1728,-21.0802,14.91,-13.882,30.3346,-30.3346,15.9381,
29.306,8.7403,-29.306,24.1649,-102.3151,50.9008,-19.0237,-211.314,-16.9666,22.1078,-8.7403,28.278,-32.3911,13.8815,
42.16,6.1697,-19.5382,15.4241,-87.3151,53.4704,-12.3399,-215.9421,-12.3399,19.5372,-6.1697,19.5372,-21.5943,17.4801,
31.8771,17.4816,-28.792,12.3394,-88.4331,55.528,-16.4526,-208.7429,-21.5938,20.5667,-12.3394,21.5947,-15.4236,14.3965,
16.8771,9.2548,-38.0468,17.4811,-103.4331,42.16,-15.4241,-214.9131,-20.5662,16.4531,-9.2548,19.5372,-17.4811,10.2829,
28.792,-1.028,-32.9052,30.8491,-103.8577,33.9332,-21.5938,-220.0548,-6.1702,9.2543,1.028,6.1702,-8.2263,24.6789,
32.3911,-0.51402,-37.5333,30.3341,-88.9476,33.4192,-26.2219,-209.2579,-1.543,0.51402,7.7123,-0.51402,1.5421,32.3911,
28.792,0,-34.9622,22.6228,-93.5748,40.1034,-11.2219,-195.3754,0,-2.0561,9.2543,7.1983,-9.2543,30.8491,
35.9898,-1.0285,-20.5662,35.9898,-88.4336,41.1319,-4.1136,-199.489,-1.0285,2.0566,1.0285,12.3389,-16.4531,31.8766,
36.5043,-7.7123,-24.1649,36.5043,-87.9186,40.6174,-19.1136,-214.3986,-0.51402,4.6281,0.51402,12.8544,-8.7403,36.5043,
25.1929,-14.9105,-31.3631,23.1368,-96.1454,43.7025,-19.0237,-208.2294,-4.6272,4.6272,4.6272,20.0517,-17.9956,30.3341,
24.6789,-16.4526,-21.5938,25.7069,-89.4617,43.1885,-4.0237,-204.6302,-13.3675,1.028,4.1131,19.5377,-18.5096,25.7069,
30.3351,-14.9095,-8.7403,32.3911,-85.862,37.5333,-6.6833,-219.6302,-3.5991,-3.5991,10.7974,7.7123,-3.5096,35.4763,
31.8771,-8.2263,-17.4806,40.1034,-89.4617,33.9332,-15.4245,-215.9416,7.1983,-9.2543,15.4245,3.0851,-3.0851,39.0754,
45.7586,-2.5711,-16.9666,42.6745,-76.6077,42.6745,-7.7123,-200.9416,2.5711,-4.6272,14.9105,11.8254,-13.8815,41.6455,
52.9579,-4.6272,-8.7403,38.5614,-71.466,37.5333,-11.8254,-210.2854,-8.7403,-3.5991,7.7123,11.8254,1.1185,43.7025,
42.16,-10.2829,-13.367,38.0468,-70.952,30.8496,-15.4241,-217.9977,-15.4241,-2.0566,2.0566,10.2838,13.368,39.0759,
32.9057,-14.396,-21.5943,37.0188,-71.9801,33.9337,-10.2829,-204.6302,-15.4241,2.0566,4.1136,11.3109,-1.632,34.9617,
41.1319,-1.0285,-24.6794,48.3302,-81.2354,26.7354,-16.4531,-212.8565,-18.5092,2.0566,3.0846,1.0285,-16.632,30.8486,
47.8162,13.9715,-25.1934,40.6179,-76.6072,31.3626,-17.9951,-216.4556,-25.1934,5.6557,-5.6557,9.7688,-17.9951,32.3916,
35.4763,8.7403,-32.3911,25.6179,-75.5797,41.6455,-6.6842,-201.4556,-32.3911,6.6842,-10.7974,24.1649,-10.7974,29.306,
36.5038,-6.2597,-26.2214,30.3346,-77.6362,44.7311,-4.6277,-187.6636,-21.0802,5.6557,4.2026,23.1363,-10.7969,33.4197,
44.7311,-7.7118,-16.9671,39.5889,-62.6362,40.6179,-13.882,-202.6636,-6.6837,6.6837,11.8259,14.91,-11.8249,37.5328,
37.5333,-1.5421,-22.1078,32.3911,-47.6362,38.5614,-12.8535,-208.2289,-11.8254,1.543,0.51402,11.8254,-0.51402,32.3911,
30.3341,-5.6562,-28.278,27.249,-62.2122,29.306,-1.543,-201.0316,-23.1368,0.51402,-0.51402,12.8535,9.7684,31.3621,
41.1319,-3.0846,-22.6223,37.0188,-60.6696,26.7354,4.1136,-207.7153,-25.7074,-2.0566,2.0566,11.3109,-5.1417,33.9337,
51.4143,3.0846,-17.4811,50.3863,-45.6696,39.0749,6.1697,-205.6588,-22.6223,-15.4241,-3.0846,9.2548,-11.3109,34.9617,
36.4143,-11.9154,-23.6499,35.9903,-53.4709,34.9622,5.1422,-204.6297,-19.5367,-25.7069,0,10.2834,0,35.9903,
22.1083,-26.9154,-27.2495,32.3916,-68.4709,19.9622,2.5706,-219.6297,-22.1083,-19.0232,10.7979,10.7979,-2.5706,36.5048,
37.0183,-23.6508,-19.5377,44.2166,-78.1507,4.9622,8.2263,-228.2811,-12.3394,-4.1131,18.5087,9.2543,-15.4245,37.0183,
40.6179,-13.882,-23.1363,36.5048,-63.2397,4.6277,1.5426,-213.2811,-9.7688,-1.5426,14.91,6.6837,-14.91,32.3916,
33.4202,-7.7123,-24.1649,33.4202,-68.3814,10.7974,-5.6552,-211.314,-17.9946,3.5991,6.6842,10.7974,-3.5991,29.307,
38.5609,-0.51451,-21.0802,34.4477,-53.3814,24.1653,0.51451,-213.3705,-21.0802,-1.5426,1.5426,9.7688,-3.5986,33.4197,
41.1319,4.1136,-24.6794,37.0188,-38.3814,35.9898,2.0566,-198.3705,-24.6794,-16.5426,-2.0566,7.1978,-7.1978,38.0468,
38.5614,6.6842,-20.0517,36.5043,-25.1929,35.4763,-0.51402,-200.0031,-27.25,-19.0237,0.51402,6.6842,-7.7123,37.5323,
42.674,11.8249,-15.9391,29.3065,-40.1929,28.2775,1.5426,-205.1443,-30.3346,-13.882,-1.5426,2.5706,-6.6837,31.3626,
42.16,14.396,-23.6503,39.0749,-49.3582,25.7074,1.0285,-196.4039,-29.8206,-23.6503,-1.0285,2.0566,-1.0285,28.7925,
33.4192,10.7974,-27.25,41.6455,-40.6174,30.3341,-2.5711,-205.1447,-28.278,-28.278,2.5711,6.6842,-2.5711,32.3911,
39.5894,12.8535,-19.0237,39.5894,-25.6174,39.5894,2.5711,-210.2859,-24.1649,-13.8815,-2.5711,6.6842,-3.5991,39.5894,
49.3577,10.2834,-19.5377,38.0464,-23.6508,41.1315,5.1412,-195.2859,-19.5377,-12.3394,-12.3394,3.0851,-3.0851,41.1315,
40.6179,5.6557,-27.2495,34.4477,-36.5038,34.4477,-1.5426,-197.946,-21.0793,-22.1083,-20.0512,1.5426,2.5716,34.4477,
41.6455,20.6557,-12.2495,45.7586,-29.306,34.4472,0.51402,-208.2294,-26.2219,-15.9386,-17.9956,8.7403,-0.51402,32.3911,
46.2736,20.5657,-3.0851,35.9903,-33.9332,32.9052,3.0851,-196.4034,-31.8771,-19.5377,-7.1982,6.1702,-14.3955,32.9052,
46.2736,13.3675,-14.3965,38.0464,-26.7359,40.1034,6.1702,-182.0079,-26.7359,-25.7069,7.8018,-7.1982,-6.1702,38.0464,
49.8727,23.1368,-13.8815,47.8157,-14.9095,45.7596,3.5991,-188.6912,-28.278,-20.0517,-3.5991,-13.8815,3.5991,33.4202,
51.9288,23.1368,-2.5711,36.5043,-29.9095,30.7596,3.5991,-196.918,-30.3341,-10.7974,-18.5991,-10.7974,2.5711,29.306,
47.8162,17.9951,-5.6557,40.6179,-31.3626,28.2785,13.882,-189.7197,-19.0232,-10.7969,-8.7398,-5.6557,5.6557,44.306,
32.8162,8.7403,-20.6557,33.4192,-27.25,43.2785,2.5711,-197.9465,-23.1368,-25.1929,-2.5711,-11.8254,4.6272,44.7306,
29.8206,6.1697,-18.5092,33.9337,-42.25,52.4433,-1.0285,-189.2057,-21.5943,-18.5092,-9.2548,1.0285,4.1136,37.0188,
37.5328,-0.51451,-5.6557,43.7021,-57.25,44.7311,12.8539,-180.4654,-13.882,-6.6837,-9.7688,16.0285,0.51451,52.0188,
39.5894,-3.5991,-7.7123,41.6455,-47.8157,48.8437,12.8535,-187.6636,-13.8825,-5.6562,3.5991,21.0798,-4.6272,67.0188,
35.4763,-0.51402,-7.7123,47.8157,-57.07,43.7025,0.51402,-185.6071,-21.0797,-9.7693,10.7964,15.9386,-13.8825,56.042,
33.4197,-6.6837,-7.7118,50.9013,-72.07,30.3346,6.6837,-187.6631,-21.0793,-11.8249,6.6837,8.7408,-17.9951,41.042,
43.1875,-4.1131,-11.3114,45.2446,-76.0942,40.1034,9.2543,-192.2913,-19.5377,-12.3394,5.1412,4.1131,-18.5096,42.1595,
47.8162,6.6837,-11.8249,47.8162,-61.0942,53.9854,-5.7457,-177.2913,-17.9951,-15.9381,7.7128,9.7688,-6.6837,42.674,
38.0468,-1.0285,-7.1978,44.2171,-68.8949,41.1319,-15.4241,-162.2913,-15.4241,-19.5372,12.3399,1.0285,2.0566,37.0188,
43.188,10.2829,-2.0566,54.4994,-81.2354,38.0468,-2.0566,-161.4422,-7.1987,-7.1987,17.4801,-7.1987,2.0566,50.3863,
50.3863,24.6794,-14.396,51.4143,-73.0091,41.1319,-11.3109,-170.6965,-10.2829,-5.1417,12.3389,-1.0285,1.0285,46.2731,
39.5889,13.882,-25.1934,36.4143,-62.2117,40.6169,-26.2214,-164.0133,-21.0802,-20.0522,1.5426,2.5706,-1.5426,32.3907,
29.3065,2.5706,-20.0512,40.6179,-73.5231,46.7872,-15.9381,-156.8145,-17.9951,-12.8539,7.7128,2.5706,-2.5706,40.6179,
32.3911,-0.51402,-20.0517,43.7025,-88.5231,34.4482,-8.7403,-169.154,-15.9386,2.1461,14.9105,0.51402,-8.7403,41.6465,
37.5333,-0.51402,-25.1929,35.4763,-83.8055,20.0517,-17.9946,-177.3803,-25.1929,2.5711,1.543,0.51402,-17.9946,32.3911,
46.2726,4.1131,-11.3114,41.1315,-68.8055,35.0517,-14.3965,-162.3803,-11.3114,12.3394,-4.1131,14.3955,-14.3965,43.1875,
37.5328,2.5706,-9.7688,38.5609,-57.0695,41.646,-2.5706,-162.9843,-10.7969,11.8259,-8.7398,14.911,-16.9661,42.674,
37.0188,2.0566,-14.396,50.3863,-72.0695,26.646,10.2829,-177.8943,-17.4811,-2.0566,-5.1417,16.4531,-13.368,42.16,
39.5889,-10.7969,-7.7118,52.9574,-79.6928,17.9951,6.6837,-177.3803,-10.7969,-7.7118,5.6557,13.882,-5.6557,45.7591,
41.6465,-14.9105,-0.51402,55.0139,-65.2963,23.1368,-0.51402,-162.3803,-5.6552,-0.51402,3.5991,5.6562,0.51402,45.7596,
49.3578,-3.0851,-1.028,59.6411,-54.4999,27.764,10.2824,-147.3803,-6.1702,-1.028,1.028,18.5087,-3.0851,57.584,
50.8998,-1.543,-1.543,59.1261,-66.3253,26.2209,15.9386,-152.7019,-0.51402,-0.51402,0.51402,33.5087,-2.5711,58.0981,
49.8723,-6.6837,-4.6267,63.2397,-73.5226,11.2209,1.5426,-167.7019,-4.6267,-1.5426,3.5996,18.5087,-3.5986,43.0981,
55.527,0,0,57.584,-58.5226,15.4236,6.1692,-162.4707,-5.1422,-3.0851,18.5996,3.5087,-1.029,34.9613,
44.7306,-3.5991,-0.51402,53.9849,-48.8437,30.4236,6.6832,-147.4707,-4.6272,-0.51402,20.0517,0.51402,-3.5991,49.9613,
40.1039,-2.0566,-1.0285,64.7828,-56.556,39.0749,-2.0566,-135.7348,-4.1127,5.1417,5.0517,11.3109,-6.1697,59.6406,
50.3868,10.2834,-1.028,58.6131,-49.3578,31.8771,-3.0851,-147.0457,-7.1982,1.028,-3.0851,13.3675,-7.1982,48.3297,
41.6455,2.5701,-2.5711,56.042,-53.9859,26.2209,-0.51402,-162.0457,-7.7123,-1.543,0.51402,4.6272,-8.7403,51.9288,
26.6455,-12.4299,1.543,60.1551,-68.9859,27.25,0.51402,-159.8992,-3.5991,-0.51402,1.543,-1.5421,-4.6272,57.07,
32.9052,-16.4526,3.0851,57.584,-78.1503,25.7069,-1.028,-152.1874,-4.1131,0,0,3.0851,-2.0571,42.07,
35.9898,-12.3399,-1.0285,51.4143,-70.9525,18.5092,-5.1417,-153.2159,-4.1136,2.0566,1.0285,15.4241,-9.2548,37.0188,
20.9898,-23.1368,-0.51402,49.8718,-82.7779,6.6832,-2.5711,-150.6453,-1.543,0.51402,5.6552,13.8815,-17.9956,45.7586,
22.1078,-19.0237,-0.51402,57.07,-87.9191,2.5701,-1.543,-151.6734,-7.7123,0.51402,2.5701,10.7964,-32.9956,42.6735,
37.1078,-4.1131,0,58.6121,-72.9191,17.5701,0,-149.1028,-6.1702,13.3675,0,21.5938,-37.0183,43.1885,
39.0754,-10.2834,-4.1131,54.4989,-57.9191,17.4806,0,-152.1874,-3.0851,8.2263,0,19.5377,-35.9903,40.1034,
37.5323,-13.8825,-0.51402,59.1261,-60.1556,11.8254,4.6272,-146.5322,-4.6272,-3.5991,0.51402,22.1078,-29.307,43.7025,
42.1595,-10.2834,1.028,54.4989,-65.8108,19.5377,5.1412,-141.9045,-7.1982,-1.028,-1.028,30.8491,-29.821,51.4148,
38.0464,-10.2834,1.028,54.4989,-58.6131,11.3114,-2.0571,-149.1028,-8.2263,3.0851,-1.028,17.4806,-41.1315,43.1885,
35.4758,-2.5706,6.6837,59.1266,-58.0986,-3.6886,1.5426,-160.9277,-4.6277,-1.5426,2.5706,3.5986,-49.8723,30.3346,
35.9903,-1.028,4.1131,56.556,-57.5845,-4.1131,1.028,-165.5553,-4.1131,-4.1131,1.028,18.5986,-60.6696,35.9903,
39.0749,-12.3399,-2.0566,55.5275,-49.3582,9.2548,1.0285,-167.6119,-5.1417,-1.0285,1.0285,19.5372,-66.8394,38.0468,
42.1595,-11.3114,-2.0571,52.4429,-38.0473,9.2543,11.3114,-166.5834,-1.028,4.1131,1.028,4.5372,-65.8108,28.792,
42.6745,0.51402,-2.5711,56.042,-38.5614,6.6842,5.6552,-151.5834,-3.5991,0.51402,-0.51402,-1.5421,-69.4099,31.3631,
40.6179,-2.5706,-3.5986,55.0134,-40.6179,8.7408,7.7118,-139.3339,-6.6837,-6.6837,8.7408,2.5706,-65.2968,37.5328,
43.188,-4.1127,-6.1697,50.3863,-35.9898,23.6503,21.5943,-142.9326,-4.1127,-3.0846,10.2829,3.0846,-60.6691,35.9908,
41.646,1.5426,-12.8539,49.8723,-36.5048,30.3346,6.6837,-138.3054,-5.6557,-3.5996,-1.5426,14.91,-65.2968,39.5889,
44.2171,1.0285,-5.1417,53.4714,-38.0468,27.7645,-2.0566,-140.876,-3.0846,-1.0285,9.2548,29.91,-62.7257,50.3863,
35.9903,-7.1983,-16.4526,50.3868,-52.4429,12.7645,1.028,-155.876,-16.4526,-1.028,4.1131,24.6789,-77.7257,35.3863,
30.8486,-4.1136,-23.6513,39.0749,-46.2731,2.0566,7.1978,-168.6404,-17.4811,5.1417,-2.0566,13.368,-83.2919,20.5652,
41.1315,-6.1702,-19.5377,25.7069,-31.2731,6.1692,4.1131,-153.6404,-13.3685,-4.1131,7.1982,13.3675,-73.0086,34.9612,
51.4148,-3.0851,-7.1982,40.7069,-28.792,17.4806,7.1982,-144.9891,-13.3675,-8.2263,3.0851,21.5938,-68.8959,46.2726,
40.1039,-3.0846,1.0285,45.2451,-43.792,17.4811,6.1697,-156.3005,-16.4521,-1.0285,-11.9149,8.2268,-76.0937,35.9908,
42.6745,4.6272,4.6272,49.8727,-47.8157,16.9666,12.8535,-153.7299,-10.7974,-4.6272,-9.7684,-6.7732,-71.4665,34.4482,
43.1885,5.1412,-5.1412,48.3297,-32.8157,20.5657,11.3114,-154.2439,-11.3114,-14.3955,5.2316,-5.1412,-61.6972,38.0473,
30.8491,-2.0571,-15.4245,33.3297,-31.8771,10.2834,3.0851,-168.64,-6.1702,-4.1131,2.0571,6.1702,-60.6691,27.764,
28.792,-1.028,-19.5377,42.1605,-46.8771,-4.7166,0,-182.0074,3.0851,7.1982,0,3.0851,-73.0086,15.4245,
34.4477,-7.7118,-19.0232,45.7591,-46.7872,-1.5426,-4.6277,-169.154,4.6277,6.6837,5.6557,1.5426,-70.438,22.1083,
31.3626,-19.0232,-11.8249,38.5609,-41.646,13.4574,-8.7408,-154.154,1.5426,6.6837,-1.5426,7.7118,-55.438,36.5048,
35.4767,-20.0512,-5.6557,46.7872,-33.4197,21.0802,2.5706,-139.154,-1.5426,1.5426,-7.7118,6.6837,-40.6169,33.4197,
42.6735,-16.9676,-4.6272,52.9569,-26.2219,22.1078,9.7684,-149.6168,0.51402,-7.7123,0.51402,-0.51402,-39.5894,27.25,
30.8481,-19.5377,0,56.556,-41.2219,14.3955,-2.0571,-153.2159,8.2263,-1.029,15.4236,0,-41.1324,39.0744,
35.9903,-10.2824,-1.028,55.528,-43.1885,13.3675,1.028,-152.1874,3.0851,-4.1131,10.2834,-1.028,-42.1595,38.0473,
42.6745,0.51402,-0.51402,55.0139,-28.1885,14.9105,6.6842,-148.5883,-0.51402,-5.6552,5.6562,-1.5421,-41.6455,38.5614,
48.3302,9.2548,-1.0285,54.4994,-13.1885,15.4241,10.2829,-146.0177,-5.1417,-8.2258,1.0285,-2.0566,-42.16,38.0468,
54.4994,19.5382,-2.0566,53.4714,1.8115,16.4531,15.425,-142.9326,-9.2538,-10.2829,-3.0846,-3.0846,-41.131,38.0468,
53.4709,22.6228,-9.2543,46.2726,10.2824,9.2543,12.3394,-148.0742,-20.5657,-19.5377,-14.3965,-10.2834,-48.3297,30.8491,
59.6406,31.8766,-10.2829,45.2451,24.6794,10.2829,17.4811,-146.0177,-25.7074,-23.6503,-20.5662,-11.3109,-49.3582,30.8486,
45.7586,19.0237,-23.1368,30.2451,11.8254,4.6272,5.6552,-161.0177,-34.4482,-28.278,-32.3911,-4.6272,-62.2122,15.9386,
43.188,25.7074,-16.4531,38.0468,13.368,13.368,9.2548,-154.2439,-20.5662,-18.5092,-17.3911,-9.2548,-55.5275,12.3399,
33.9342,10.7074,-11.3114,39.0754,11.3114,0,8.2263,-162.4702,-17.4806,-27.764,-2.3911,-23.6508,-51.4148,17.4816,
47.3017,12.3394,-2.0561,54.0754,16.4536,0,16.4536,-164.5263,-14.3955,-17.4806,-2.0561,-8.6508,-44.2166,26.7359,
45.2446,12.3394,-9.2543,49.3587,13.3685,4.1131,14.3965,-166.5834,-21.5938,-16.4526,-13.3675,-4.1131,-50.3858,12.3394,
38.5609,12.8539,-17.9951,42.674,10.7969,6.6837,10.7969,-157.8431,-19.0232,-25.1934,-6.6837,-19.1131,-49.8723,10.7969,
52.4433,19.5382,-12.3389,50.3863,12.3399,12.3399,9.2548,-144.9891,-18.5092,-15.4241,-9.2548,-17.4811,-42.16,19.5382,
54.4999,18.5096,-4.1131,38.0473,9.2553,4.1131,5.1422,-159.9891,-25.7069,-5.1412,-21.5938,-13.3675,-41.1315,14.3965,
48.3297,21.5938,0,43.1875,11.3114,-4.1131,12.3394,-173.7816,-10.7069,0,-10.2834,-10.2834,-35.9903,16.4526,
37.0188,6.5938,-15,39.0749,-3.6886,-19.1131,13.368,-172.7531,4.2931,2.0566,-2.0566,-18.5092,-42.16,11.3119,
38.5609,-4.6277,-22.1083,29.3065,-18.6886,-30.3346,9.7688,-165.0408,13.882,14.91,4.6277,-25.1934,-39.5889,7.7128,
42.16,-1.0285,-8.2268,40.1029,-18.5092,-20.5662,2.0566,-168.64,1.0285,15.4241,9.2548,-10.2829,-24.6794,12.3399,
37.5328,-0.51451,-10.7969,38.5609,-9.7688,-16.9671,7.7118,-171.2106,-9.7688,0.51451,0.51451,4.7171,-20.0512,12.8539,
41.6455,10.7974,-6.6842,49.8718,0.51402,-2.5711,21.0798,-156.2106,-0.51402,-2.5711,-3.5991,13.8815,-24.1649,27.8539,
30.3346,6.6837,-8.7408,47.8152,-2.5706,7.7118,6.6837,-142.4185,-5.6557,-6.6837,-5.6557,2.5706,-31.3626,38.5609,
19.5382,1.0285,-12.3389,42.16,-1.0285,8.2268,2.0566,-157.4185,-13.368,-4.1127,-4.1127,16.4531,-29.8206,32.9057,
12.3394,0,-13.3685,49.3577,5.1412,0,9.2543,-169.6685,-19.5377,0,-18.5096,20.5657,-39.0754,23.6508,
1.5421,-0.51402,-9.7693,37.5323,5.6552,0.51402,4.6272,-154.6685,-23.1368,-1.543,-28.278,5.5657,-47.8157,24.1649,
5.6557,-0.51451,-10.7969,36.5048,1.5426,2.5706,0.51451,-139.6685,-23.1363,-2.5706,-16.9671,1.5426,-42.674,20.0522,
16.9671,-3.5986,-15.9381,46.7872,3.5986,-4.6277,3.5986,-154.6685,-19.0232,3.5986,-11.8249,11.8259,-34.4477,23.1363,
13.882,-4.6277,-17.9951,36.5048,5.6557,2.5706,3.5996,-167.0974,-25.1934,-2.5706,-26.2214,10.7969,-34.4477,28.2785,
5.1417,-2.0566,-21.5943,33.9337,5.1417,10.2829,6.1697,-154.2435,-31.8766,-17.5706,-30.8486,2.0566,-33.9337,21.5943,
10.2829,2.0566,-23.6503,41.1319,12.3399,5.1417,9.2548,-155.272,-24.6784,-20.5652,-20.5652,-2.0566,-26.7354,20.5662,
12.8544,4.6281,-25.1929,36.5043,17.9956,3.5991,0.51402,-159.8992,-26.2209,-5.6552,-24.1649,-0.51402,-29.306,19.0237,
10.7974,-0.51402,-32.3911,29.306,9.7693,5.6562,-0.51402,-166.0694,-28.278,0.51402,-30.3341,0.51402,-35.4762,9.7693,
20.0512,-1.5426,-26.2214,39.5889,6.6837,5.6557,14.486,-153.7299,-19.0232,-7.7128,-15.3341,1.5426,-21.0802,14.91,
16.4536,0,-21.5938,50.3868,0,4.1131,9.2553,-150.1303,-21.5938,-12.3394,-9.2543,2.0571,-20.5657,12.3404,
14.396,-1.0285,-22.6223,40.1039,5.1417,-4.1127,10.2829,-165.1303,-16.4521,1.0285,-12.3389,14.396,-29.8206,14.396,
10.2834,-12.3394,-21.5938,33.9342,1.028,-19.1127,8.2263,-173.7811,-13.3675,-1.028,2.6611,8.2263,-21.5938,25.7079,
13.882,-5.6557,-6.5938,48.9342,-13.972,-7.7118,2.5706,-158.7811,-2.5706,6.6837,17.6611,8.7408,-6.5938,31.3626,
10.7974,-9.7684,-7.7123,50.9008,-28.972,-10.7974,-0.51402,-145.5036,0.51402,13.8815,12.8535,12.8535,-21.5938,17.9946,
25.7974,-11.3114,-11.3114,37.0183,-13.972,-24.6789,14.486,-160.5036,-3.0851,3.0851,-2.1465,5.1412,-30.8491,24.6789,
40.7974,-2.0571,3.6886,46.2726,1.028,-37.0183,29.486,-152.1874,-3.0851,-7.1983,0,0,-15.8491,33.9332,
43.7021,-13.882,5.6557,53.9854,16.028,-52.0183,44.486,-167.1874,-4.6277,-1.5426,1.5426,-1.5426,-12.8539,18.9332,
38.0468,-28.882,-4.1127,54.4994,31.028,-67.0183,59.486,-182.1874,-2.0566,3.0856,-3.0846,2.0566,-12.3389,17.4811,
44.2166,-43.882,0,41.1324,46.028,-82.0183,63.7543,-182.0074,-2.0561,-11.9144,1.029,-11.3104,0,22.6228,
47.8152,-46.7872,1.5426,46.7872,61.028,-97.0183,66.3248,-175.3242,-1.5426,-26.9144,7.7118,-26.3104,-2.5706,7.6228,
51.4148,-46.2726,1.028,53.4709,76.028,-112.0183,78.1508,-185.0925,3.0851,-31.8771,14.3965,-30.8491,-2.0561,-1.028,
47.3017,-50.3868,0,44.2166,91.028,-127.0183,75.0656,-191.2628,-3.0851,-30.8491,7.1982,-28.792,0,3.0851,
49.8723,-52.9574,1.5426,53.9854,106.028,-142.0183,70.438,-189.7202,-5.6557,-29.3065,2.5706,-28.2785,-1.5426,3.5986,
45.7591,-67.9574,0.51451,56.0415,121.028,-157.0183,66.3248,-204.1162,-1.5426,-26.2214,7.7118,-30.3346,-0.51451,0.51451,
42.1605,-76.0937,0,55.528,136.028,-172.0183,64.7823,-219.1162,1.028,-17.4806,10.2834,-26.7359,-1.028,0,
49.8723,-61.0937,2.5706,55.0134,151.028,-187.0183,69.4099,-234.1162,-1.5426,-16.9671,6.6837,-21.0802,-0.51451,0.51451,
52.9569,-46.0937,2.5711,52.9569,166.028,-191.7768,70.4385,-233.9368,-6.6842,-28.278,-1.5421,-26.2219,1.5421,2.5711,
49.3587,-61.0937,2.0571,59.6411,181.028,-203.6017,69.9245,-231.3657,-3.0841,-37.0183,1.029,-34.9613,0,0,
46.7876,-74.5511,2.5711,57.07,190.7477,-192.8048,70.4375,-229.8236,1.5421,-37.5323,9.7684,-31.3631,-1.5421,-1.5421,
44.2161,-59.5511,3.0846,56.5555,193.3193,-189.2062,65.8108,-227.253,-1.0285,-24.6794,4.1127,-24.6794,-3.0846,1.0285,
43.7021,-48.8442,1.5426,56.0415,207.2008,-191.7768,64.2678,-234.9648,1.5426,-9.6794,-1.5426,-29.3065,-1.5426,1.5426,
50.3868,-63.8442,-1.028,49.3577,204.6302,-183.036,65.8103,-239.592,4.1131,-4.1131,2.0571,-24.6789,-1.028,1.028,
57.07,-70.4385,-1.543,49.8718,196.918,-171.211,65.2963,-227.767,0.51402,-0.51402,5.6552,-9.6789,-2.5711,1.5421,
46.2726,-63.7543,-2.0571,47.3017,196.4039,-180.9799,64.7823,-223.1399,-1.028,1.028,4.1131,-8.2263,-1.028,4.1131,
47.8157,-64.2683,2.5711,51.9288,195.8899,-186.6351,67.3534,-232.9082,0.51402,-10.7964,11.8254,-23.2263,-0.51402,-0.51402,
