"AF3","AF4","F3","F4","F7","F8","FC5","FC6","O1","O2","P7","P8","T7","T8",
-34.274,-2.5582,68.0376,12.7888,-136.5866,35.2979,291.0783,208.2052,-8.6964,-15.8584,10.7431,2.5582,-20.9738,-20.9738,
-36.8327,-1.0234,76.7344,5.1158,-121.5866,20.2979,285.4511,223.2052,-14.3236,-14.3236,1.0234,3.0691,-18.4161,-34.7859,
-21.8327,-8.1849,90.0352,13.3012,-112.5432,21.4862,300.4511,238.2052,-10.2307,-7.1621,8.1849,7.1621,-22.5081,-28.6472,
-26.6005,-14.3231,75.0352,4.0925,-121.751,36.4862,315.4511,235.3181,-10.2307,-4.0925,18.4166,5.1163,-22.5081,-24.5548,
-33.2516,-8.6969,70.0838,1.5348,-120.2167,37.3441,300.4511,247.0836,-11.7655,-0.51192,17.9047,0.51192,-11.7655,-34.2745,
-28.6472,-6.1382,65.4804,0,-105.2167,34.7864,315.4511,262.0836,-14.3231,0,4.0925,3.0696,-6.1382,-33.7626,
-30.182,1.5348,55.7607,-1.5348,-90.2167,46.5519,330.4511,277.0836,-13.8122,2.5577,-6.6501,9.7197,-8.6959,-29.1592,
-24.5548,2.0467,63.4337,-1.0229,-75.2167,51.1563,345.4511,282.382,-14.3231,1.0229,-9.2078,7.1621,-14.3231,-34.7864,
-16.8813,-2.5582,75.1996,-7.6735,-81.3378,54.7373,360.4511,297.382,-9.7192,2.5582,2.5582,12.7888,-16.8813,-32.2283,
-31.8813,-0.51192,60.1996,-20.9742,-96.3378,67.0142,375.4511,312.382,-24.7192,3.5805,0.51192,16.8818,-26.0896,-41.4366,
-37.8555,8.1854,45.1996,-24.5543,-81.3378,80.8269,390.4511,327.382,-34.7859,2.0462,-2.0462,9.2083,-17.3932,-43.9937,
-22.8555,15.3465,60.1996,-16.3703,-66.3378,84.9194,405.4511,342.382,-19.7859,-3.0691,10.2312,3.0691,-13.3008,-36.8327,
-7.8555,23.5319,69.5729,-17.3927,-79.8035,78.7807,420.4511,357.382,-30.693,-14.3231,1.0229,0,-28.3008,-51.8327,
4.0925,34.7855,74.6872,-20.4623,-65.4804,83.896,435.4511,363.2084,-29.6711,-12.2774,-4.0925,15,-14.3241,-56.2716,
1.0234,26.601,68.5495,-31.7164,-50.4804,68.896,450.4511,366.2775,-24.5553,-16.3703,-1.0234,24.5553,-10.2312,-49.1101,
-7.1621,20.4623,53.5495,-41.9485,-65.4804,53.896,465.4511,370.3704,-28.6472,-17.3927,7.1621,13.3003,-25.2312,-59.3412,
-4.093,28.6477,38.5495,-36.8327,-62.4103,53.2025,480.4511,371.3928,-24.5553,-3.0691,12.2769,3.0691,-15.3465,-62.4103,
-4.0925,34.7864,33.7626,-40.9246,-47.4103,68.2025,495.4511,356.3928,-34.7864,-8.1849,-2.7231,3.0696,-0.3465,-68.549,
-8.1849,28.6472,29.6701,-55.9246,-32.4103,62.4108,510.4511,341.3928,-45.0171,-18.4166,-4.0925,6.1392,-4.0925,-77.7568,
0,21.4852,38.8779,-54.2259,-17.4103,47.4108,525.4511,353.9996,-39.9018,-13.3012,2.0457,0,-10.2316,-74.6882,
12.2779,36.4852,53.8779,-46.0405,-32.4103,49.1101,540.4511,368.9996,-29.6706,-5.1158,3.0691,-4.092,-3.0691,-67.5257,
-0.51144,42.4589,38.8779,-54.7373,-36.3207,40.4132,555.4511,353.9996,-34.275,-12.7888,0.51144,-10.7431,0.51144,-74.1768,
5.1153,32.7397,27.6244,-48.0867,-22.5081,51.1563,570.4511,338.9996,-34.7864,-12.2774,1.0229,-1.0229,-2.0457,-72.6415,
20.1153,25.5781,41.948,-57.295,-37.5081,65.4799,585.4511,345.8152,-38.8794,-10.2312,-9.2083,9.2083,-17.0457,-75.7116,
27.6244,33.7626,35.8093,-63.4337,-41.9475,56.2716,600.4511,356.0463,-48.0867,-11.2545,-9.2078,5.1153,-5.1153,-85.9427,
15.8579,26.0896,20.8093,-70.0838,-38.367,46.5519,615.4511,341.2113,-56.7835,-19.9514,-19.9514,-6.6501,6.6501,-86.4537,
30.8579,26.601,35.8093,-66.5028,-53.367,54.2254,630.4511,337.6302,-43.9947,-11.254,-18.4161,3.0691,-3.0691,-71.4537,
45.8579,41.601,50.8093,-55.2483,-68.367,39.2254,645.4511,346.838,-48.0872,-13.3008,-4.093,4.093,-18.0691,-66.5028,
30.8579,46.0405,35.8093,-62.4103,-53.367,24.2254,660.4511,352.9772,-53.2025,-13.3008,9.2083,-1.0234,-9.2083,-81.5028,
15.8579,31.0405,20.8093,-77.4103,-38.367,37.3441,675.4511,337.9772,-49.6215,-5.6273,-3.5815,1.5348,-1.5348,-95.6624,
30.8579,30.6945,15.3475,-80.8259,-53.367,29.6706,690.4511,322.9772,-59.3407,-6.1387,-18.5815,6.1387,-7.1616,-89.0108,
45.8579,45.6945,21.9971,-83.3851,-68.367,27.1125,705.4511,320.7489,-68.0381,-18.9275,-17.9047,4.6044,-4.6044,-88.5004,
30.8579,30.6945,6.9971,-94.6391,-53.367,42.1125,720.4511,335.7489,-65.9918,-23.0205,-23.0205,2.5582,-0.51144,-92.5924,
15.8579,15.6945,-8.0029,-93.6152,-38.367,57.1125,735.4511,350.7489,-61.8984,-8.0205,-18.928,12.7888,14.4886,-80.315,
30.8579,30.6945,6.9971,-82.3612,-23.367,72.1125,750.4511,358.605,-64.9675,-10.7426,-20.9733,-1.5348,1.5348,-82.3612,
45.8579,45.6945,21.9971,-67.3612,-38.367,87.1125,765.4511,373.605,-49.9675,-3.581,-9.7202,3.581,-13.4652,-71.1072,
56.7831,30.6945,36.9971,-82.3612,-53.367,102.1125,780.4511,365.7665,-54.7373,-5.6268,-11.766,5.6268,-12.7888,-81.3378,
41.7831,15.6945,22.5086,-97.3612,-68.367,117.1125,795.4511,367.3013,-69.7373,-8.1854,-25.5781,1.0234,-1.0234,-96.3378,
40.9246,21.4852,12.2774,-95.1505,-83.367,132.1125,810.4511,382.3013,-57.2955,0,-27.6244,0,-1.0229,-98.2201,
38.8789,19.4394,19.4394,-86.9646,-68.367,147.1125,825.4511,397.3013,-42.2955,-4.0925,-12.6244,4.0925,-7.1611,-92.0809,
53.8789,24.0438,32.2288,-77.2459,-53.367,162.1125,840.4511,412.3013,-39.3898,-19.0925,-1.5348,1.5348,-7.673,-94.6386,
68.8789,34.275,32.2283,-85.4303,-68.367,177.1125,855.4511,410.7836,-46.5524,-21.9966,-10.7431,-1.5343,1.5343,-91.5695,
56.7831,24.0433,23.0205,-92.5924,-83.367,192.1125,870.4511,421.0143,-55.7602,-11.766,-25.0662,3.581,-3.581,-93.6162,
41.7831,31.2054,26.0891,-87.477,-72.13,207.1125,885.4511,436.0143,-58.8298,-12.7888,-21.9976,6.6506,-6.6506,-96.6848,
51.1568,38.8794,11.0891,-102.477,-57.13,222.1125,900.4511,451.0143,-73.8298,-27.7888,-32.7392,-8.3494,-10.2312,-107.4274,
60.876,41.4366,-3.5805,-107.9398,-42.13,237.1125,915.4511,466.0143,-73.1534,-33.2516,-34.2745,-6.6501,3.5805,-100.7778,
50.1329,26.4366,-3.0691,-111.5199,-27.13,252.1125,930.4511,481.0143,-68.5495,-23.5314,-35.8088,2.0462,-2.0462,-107.4274,
65.1329,41.4366,11.9309,-96.5199,-21.4857,267.1125,945.4511,496.0143,-59.3407,-16.3703,-22.5086,-3.0691,3.0691,-95.15,
64.9685,51.6682,15.8589,-95.6615,-6.4857,282.1125,960.4511,511.0143,-74.3407,-31.3703,-37.5086,-18.0691,-6.6501,-105.8931,
58.8298,36.6682,12.7888,-102.824,-3.581,297.1125,975.4511,526.0143,-67.0147,-21.9976,-29.1587,-5.6277,3.581,-92.5924,
57.8064,21.6682,5.6273,-103.8474,-18.581,312.1125,990.4511,541.0143,-67.0142,-23.02,-31.2049,1.5348,-1.5348,-95.6624,
55.2483,24.5543,14.3236,-101.2892,-18.4161,327.1125,1005.4511,556.0143,-64.457,-31.7173,-27.6249,-10.2312,10.2312,-97.1968,
51.6672,13.8122,13.8122,-100.7778,-13.8122,342.1125,1020.4511,571.0143,-59.8531,-28.1363,-27.1125,-18.9275,25.2312,-106.916,
66.6672,28.8122,4.6039,-87.477,-10.7431,354.512,1035.4511,586.0143,-55.7602,-13.1363,-23.0205,-4.6039,40.2312,-113.0547,
74.1763,43.8122,19.6039,-93.6157,-1.5348,339.512,1050.4511,601.0143,-67.0142,-12.7883,-34.2745,-8.6959,25.2312,-118.1705,
74.6882,50.1324,34.6039,-97.1972,1.0229,324.512,1053.8158,616.0143,-66.5033,-11.2545,-33.7636,-2.0467,10.2312,-103.3354,
59.6882,35.1324,39.3898,-107.9398,-13.9771,334.0492,1068.8158,631.0143,-67.0142,-7.673,-33.2516,5.6273,24.0429,-99.7549,
46.04,20.1324,28.6472,-107.4279,-28.9771,336.6069,1083.8158,646.0143,-76.7339,-6.1392,-39.9018,1.0229,18.4166,-114.7549,
56.7831,34.275,32.2283,-107.9393,-13.9771,321.6069,1089.1137,661.0143,-86.4542,-13.8117,-48.5981,-9.7192,3.4166,-129.7549,
49.1101,19.275,26.601,-119.7058,-14.3236,306.6069,1104.1137,676.0143,-80.8269,-22.5086,-49.1101,-10.2312,10.2312,-118.6819,
52.6906,4.275,11.601,-117.1471,0.67638,316.656,1119.1137,691.0143,-87.477,-31.2054,-50.6449,-11.766,3.581,-111.0089,
67.6906,19.275,20.4623,-113.5671,15.6764,329.4448,1113.157,706.0143,-102.477,-41.9485,-65.4804,-22.509,-11.419,-124.8216,
66.5033,20.4623,35.4623,-113.5661,9.2078,314.4448,1111.1113,721.0143,-110.4975,-43.9942,-77.7568,-27.6244,-9.2078,-120.7282,
71.6186,5.4623,47.0638,-102.3126,10.2307,299.4448,1126.1113,736.0143,-102.3126,-38.8789,-70.5957,-26.6015,-1.0229,-105.7282,
73.1534,18.9275,56.7835,-96.6853,8.6969,285.9625,1130.0388,751.0143,-87.3126,-32.2288,-59.8531,-26.0896,-8.6969,-99.7549,
64.968,33.9275,71.7835,-83.3846,-6.3031,300.9625,1145.0388,766.0143,-72.3126,-17.2288,-51.6677,-11.0896,6.3031,-97.7087,
49.968,38.3675,68.0376,-89.5228,-20.9738,310.5178,1160.0388,781.0143,-70.0833,-16.8813,-51.6677,-15.8584,15.8584,-95.662,
34.968,23.3675,53.0376,-102.3126,-5.9738,295.5178,1145.0388,796.0143,-85.0833,-31.8813,-66.6677,-30.8584,0.85842,-110.662,
28.6468,26.601,68.0376,-87.3126,-3.0691,280.5178,1130.0388,811.0143,-83.8965,-42.9709,-60.3646,-15.8584,3.0691,-109.4741,
17.9042,11.601,53.0376,-102.3126,-4.6039,276.7542,1140.269,826.0143,-98.8965,-27.9709,-70.0843,-0.85842,15.8584,-107.9393,
32.9042,2.0462,38.0376,-106.4055,10.3961,261.7542,1132.596,841.0143,-98.2196,-35.8098,-75.7116,-14.3236,0.85842,-110.498,
47.9042,17.0462,53.0376,-91.4055,-4.6039,246.7542,1117.596,856.0143,-83.2196,-25.0667,-60.7116,-0.51192,0.51192,-95.498,
62.9042,6.1387,68.0376,-97.1968,-19.6039,231.7542,1123.3882,871.0143,-77.7573,-23.5324,-52.1796,-1.0234,1.0234,-95.151,
58.3183,-8.8613,53.0376,-101.2887,-4.6039,246.7542,1138.3882,886.0143,-92.7573,-25.5777,-67.1796,-9.2078,9.2078,-95.1505,
73.3183,-12.7883,51.6682,-88.4994,10.3961,248.1075,1123.3882,901.0143,-84.407,-27.1125,-64.9675,-9.7197,9.7197,-94.6386,
88.3183,2.2117,66.6682,-84.9189,-4.6039,233.1075,1108.3882,916.0143,-69.407,-19.4394,-51.1563,-1.0229,1.0229,-86.9656,
103.3183,-10.2312,81.6682,-99.9189,10.3961,220.9945,1123.3882,927.9718,-76.7344,-27.6239,-55.2483,-16.0229,10.2312,-93.1043,
94.6391,-19.9509,96.6682,-100.7773,25.3961,206.1595,1138.3882,937.6915,-77.2454,-40.4132,-50.6439,-31.0229,19.9509,-102.823,
109.6391,-4.9509,111.6682,-85.7773,10.3961,200.0203,1123.3882,952.6915,-62.2454,-25.4132,-35.6439,-16.0229,12.7888,-87.823,
124.6391,10.0491,126.6682,-70.7773,-4.6039,197.4631,1108.3882,939.2259,-49.1096,-10.4132,-31.7168,-5.1153,5.1153,-72.823,
124.8211,9.2083,141.6682,-85.7773,10.3961,200.5322,1093.3882,924.2259,-64.1096,-25.4132,-46.7168,-20.1153,-9.2083,-87.823,
135.5637,24.2083,156.6682,-100.7773,25.3961,215.5322,1078.3882,909.2259,-79.1096,-40.4132,-61.7168,-35.1153,-24.2083,-102.823,
150.5637,39.2083,171.6682,-85.7773,10.3961,230.5322,1063.3882,924.2259,-69.0609,-37.3441,-46.7168,-20.1153,-9.2083,-87.823,
145.7949,31.2059,186.6682,-90.5461,-4.6039,215.5322,1048.3882,913.1373,-84.0609,-52.3441,-61.7168,-29.1582,5.6273,-90.5461,
136.0752,16.2059,201.6682,-105.5461,10.3961,204.6242,1040.5156,898.1373,-99.0609,-67.3441,-76.7168,-44.1582,-9.3727,-105.5461,
151.0752,31.2059,216.6682,-119.1939,25.3961,192.8582,1025.5156,883.1373,-114.0609,-64.968,-91.7168,-41.4361,-24.3727,-120.5461,
153.4684,34.7859,231.6682,-104.1939,15.3465,177.8582,1015.9603,868.1373,-99.0609,-58.3179,-76.7168,-34.7859,-15.3465,-105.5461,
140.6795,19.7859,246.6682,-93.6157,30.3465,180.5813,1021.588,868.1192,-84.4079,-63.9446,-64.9685,-35.2974,-0.3465,-96.6853,
155.6795,4.7859,256.2919,-91.5695,45.3465,195.5813,1036.588,863.0034,-80.315,-48.9446,-73.1539,-20.2974,14.6535,-84.4084,
161.6528,19.4394,258.8501,-99.243,60.3465,180.5813,1021.588,848.0034,-91.0581,-63.4337,-88.1539,-35.2974,-0.3465,-97.1972,
176.6528,34.4394,273.8501,-84.243,45.3465,165.5813,1006.588,863.0034,-78.2687,-57.8064,-76.223,-50.2974,-15.3465,-102.8235,
164.211,19.4394,266.5235,-99.243,60.3465,155.0032,991.588,848.0034,-89.5228,-60.8755,-86.4542,-46.5524,-18.928,-108.9622,
179.211,4.4394,271.127,-93.1043,75.3465,170.0032,976.588,833.0034,-74.5228,-45.8755,-71.4542,-31.5524,-3.928,-93.9622,
194.211,19.4394,286.127,-78.1043,60.3465,157.5613,961.588,818.0034,-60.3641,-35.8093,-63.4337,-28.6472,-18.928,-78.9622,
209.211,34.4394,289.5435,-70.5952,45.3465,142.5613,946.588,822.5906,-73.6648,-36.8327,-72.642,-32.7402,-26.601,-93.1043,
224.211,19.4394,274.5435,-85.5952,60.3465,127.5613,945.3646,809.2894,-78.7802,-51.1558,-80.8269,-31.7164,-11.601,-91.0576,
239.211,4.4394,269.5927,-78.2697,56.7826,142.5613,930.3646,794.2894,-73.1534,-58.8303,-72.1305,-28.1363,3.399,-76.0576,
254.211,19.4394,284.5927,-71.1072,41.7826,146.8182,915.3646,783.1998,-76.2225,-58.8298,-67.0147,-37.3446,-11.601,-76.2225,
269.211,25.0667,298.2399,-86.1072,56.7826,142.7253,900.3646,768.1998,-91.2225,-67.0142,-82.0147,-46.5519,-25.0667,-91.2225,
254.211,16.3699,292.6126,-82.8731,71.7826,127.7253,885.3646,753.1998,-82.8731,-60.3641,-78.7807,-31.5519,-16.3699,-96.1734,
248.6189,29.6706,294.6589,-78.7802,56.7826,112.7253,900.3646,738.6946,-84.9194,-64.457,-85.9422,-46.5519,-29.6706,-90.0347,
245.5493,18.4161,294.6589,-83.8965,45.0176,97.7253,885.3646,723.6946,-84.9194,-56.2721,-80.8269,-54.2254,-18.4161,-86.9651,
246.0612,3.4161,297.2175,-75.1996,60.0176,112.7253,870.3646,715.6746,-69.9194,-41.2721,-65.8269,-39.2254,-3.4161,-71.9651,
261.0612,-7.6735,310.5178,-61.8984,73.1539,97.7253,855.3646,730.6746,-59.8527,-33.2511,-50.8269,-24.2254,7.6735,-75.1996,
276.0612,7.3265,325.5178,-69.0609,58.1539,82.7253,840.3646,727.9506,-74.1773,-34.2755,-65.8269,-39.2254,-7.3265,-87.4775,
289.544,22.3265,328.4219,-67.5261,43.1539,97.7253,825.3646,712.9506,-59.1773,-19.2755,-55.2488,-28.6472,-22.3265,-74.6882,
281.8705,7.6735,316.657,-53.7135,28.1539,86.4542,837.4257,697.9506,-45.5285,-7.6735,-47.5753,-26.0891,-24.0433,-69.0605,
268.5698,22.6735,301.657,-68.7135,43.1539,71.4542,840.4948,710.5578,-60.5285,-22.6735,-62.5753,-33.2516,-31.2059,-76.223,
273.1732,35.8093,292.6126,-83.7135,57.2945,86.4542,825.4948,695.5578,-75.5285,-37.6735,-76.7339,-35.8093,-46.2059,-80.8274,
288.1732,39.3898,307.6126,-68.7135,42.2945,101.4542,810.4948,682.9335,-60.5285,-22.6735,-61.7339,-20.8093,-31.2059,-65.8274,
279.8243,24.3898,293.1246,-56.7835,27.2945,86.4542,795.4948,683.9573,-45.5285,-7.6735,-53.714,-5.8093,-21.9971,-67.0142,
264.8243,9.3898,278.1246,-71.7835,42.2945,89.5228,810.4948,681.9111,-57.8069,-16.8813,-58.8298,-3.581,-33.2511,-82.0142,
251.6885,20.4628,266.0116,-76.7344,27.2945,74.5228,795.4948,666.9111,-52.1796,-20.4628,-48.0872,-18.581,-29.6706,-76.7344,
266.6885,35.4628,281.0116,-61.7344,12.2945,59.5228,780.4948,651.9111,-37.1796,-5.4628,-33.0872,-3.581,-14.6706,-61.7344,
262.4306,20.4628,279.8233,-59.8531,17.9047,74.5228,765.4948,660.4254,-36.3212,-4.6044,-38.367,2.5577,-2.5577,-69.0609,
249.6418,5.4628,285.4511,-61.3874,32.9047,89.5228,750.4948,675.4254,-30.6935,1.0234,-27.6249,-1.0234,-1.0234,-58.3179,
258.3386,-0.51144,285.963,-63.9451,47.9047,87.477,742.2752,660.4254,-36.3207,0.51144,-35.2979,-3.581,-9.7192,-64.968,
273.3386,0.51192,270.963,-78.9451,39.3898,72.477,740.2289,645.4254,-45.529,-10.7426,-50.2979,-0.51192,-12.7893,-79.968,
288.3386,0.51144,269.5931,-75.1996,24.3898,87.477,725.2289,630.4254,-47.5753,-11.766,-47.5753,-0.51144,-11.766,-79.2921,
301.8204,1.0229,284.5931,-62.4108,9.3898,72.477,710.2289,615.4254,-32.5753,3.234,-32.5753,-2.0467,-1.0229,-64.2921,
306.9363,-13.9771,287.4968,-70.5962,-5.6102,57.477,695.2289,613.873,-23.5324,8.1844,-29.6706,-2.0462,2.0462,-57.295,
321.9363,-1.5348,282.8929,-68.0381,-20.6102,42.477,680.2289,603.1299,-38.367,1.5348,-39.3908,2.5577,-6.6501,-62.9227,
306.9363,10.2312,278.289,-75.7116,-15.3465,27.6239,665.2289,588.1299,-47.0633,5.1158,-45.0176,-5.1158,-15.3465,-75.7116,
298.2404,-4.6039,289.0326,-61.8984,-30.3465,20.9738,650.2289,582.6681,-32.0633,11.766,-30.0176,-0.51144,-0.3465,-60.8755,
311.0287,1.0234,289.5435,-54.2254,-45.3465,31.7164,635.2289,567.6681,-46.0405,-1.0234,-37.8555,3.0691,-3.0691,-61.3874,
297.217,15.8589,282.8929,-68.0371,-60.3465,28.1363,620.5236,552.6681,-61.0405,-1.5348,-52.6911,1.5348,-18.0691,-76.3874,
282.382,2.0457,290.5669,-70.5957,-75.3465,13.1363,605.5236,537.6681,-46.041,1.0229,-43.9942,-1.0229,-29.6711,-71.6186,
297.382,-7.673,305.5669,-57.8064,-90.3465,26.0896,590.5236,528.4427,-31.041,6.6501,-28.9942,13.9771,-14.6711,-56.6186,
294.1479,-21.9976,290.5669,-62.9222,-75.3465,26.0901,575.5236,513.4427,-46.041,-2.5582,-40.4132,2.5582,0.3289,-57.8069,
279.1479,-33.7626,275.5669,-53.202,-60.3465,23.5319,560.5236,498.4427,-54.2259,12.2774,-46.04,-12.2774,13.3003,-58.3183,
273.1742,-31.7168,290.5669,-42.9714,-64.4566,14.3241,545.5236,483.4427,-39.2259,12.2774,-31.7168,-12.2774,14.3241,-45.0171,
288.1742,-16.7168,305.5669,-31.7173,-61.3874,-0.67589,530.5236,468.4427,-24.2259,2.0462,-33.7631,-2.0462,19.439,-42.9718,
296.1946,-8.6964,290.5669,-40.4132,-46.3874,7.6735,523.3269,453.4427,-30.1816,3.581,-41.4361,-3.581,19.9509,-44.5057,
297.217,-23.6964,296.1942,-38.367,-42.4594,22.6735,512.0729,438.4427,-30.182,11.7655,-28.1363,-11.7655,13.8122,-31.2049,
294.6594,-30.694,298.7518,-32.7397,-57.4594,21.4862,497.0729,423.4427,-25.5777,3.0696,-27.6244,-3.0696,3.0696,-27.6244,
295.6827,-32.7402,305.9134,-30.6935,-72.4594,6.4862,482.0729,408.4427,-12.2779,6.1387,-17.3932,7.1616,11.254,-17.3932,
310.0054,-35.8093,319.2141,-15.6935,-87.4594,-4.0925,467.0729,393.4427,-10.2316,19.4394,-6.1392,4.0925,18.4156,-16.3699,
297.2175,-20.8093,304.2141,-21.9966,-72.4594,-0.51144,452.0729,378.4427,-25.2316,8.6964,-21.1392,0.51144,3.4156,-31.3699,
282.2175,-21.9976,289.2141,-33.2521,-70.0843,8.6964,437.0729,379.0668,-32.2283,-3.581,-32.2283,5.6268,3.581,-30.1825,
279.8233,-36.9976,286.9854,-29.1592,-85.0843,5.6273,422.0729,364.0668,-26.0896,-5.6273,-19.9514,8.6959,13.8122,-20.9742,
294.8233,-21.9976,299.7747,-23.5319,-92.0809,-9.3727,407.0729,349.0668,-22.509,9.3727,-20.4623,18.4166,12.2774,-25.5777,
306.9372,-11.254,304.8905,-20.4628,-107.0809,-11.254,392.0729,334.0668,-22.5086,18.4161,-23.5314,13.3008,11.254,-21.4857,
291.9372,-26.254,289.8905,-19.4394,-122.0809,3.746,377.0729,321.2599,-16.3708,3.4161,-15.347,0,15.346,-12.2784,
279.3124,-24.5548,286.4744,-4.4394,-109.4737,-11.254,362.0729,306.2599,-4.0925,4.0925,-6.1382,7.1621,11.2545,-10.2307,
294.3124,-11.766,300.2871,4.6039,-124.3092,-10.7421,347.0729,296.1946,-6.6496,19.0925,-17.9042,15.8584,-3.7455,-10.7421,
295.1708,-26.766,297.2175,-10.3961,-139.3092,4.2579,332.0729,305.4024,-8.6964,18.928,-32.9042,7.6735,-12.7888,-7.6735,
283.4053,-11.766,289.5435,-2.0462,-154.3092,7.1625,317.0729,303.8676,-6.1387,13.3008,-31.7164,2.0462,-15.3465,-8.1844,
274.7085,-0.51144,284.9391,3.581,-148.8645,-7.8375,302.0729,290.0555,-12.7888,15.8584,-16.8813,-2.5582,-18.928,0.51144,
277.2657,-15.5114,283.4048,3.0696,-152.4455,-3.0696,287.0729,291.5898,-12.2774,21.4852,-15.347,-5.1153,-13.3003,12.2774,
292.2657,-1.5348,295.1713,18.0696,-167.4455,-18.0696,272.0729,276.5898,-2.5577,28.1363,-24.0429,-15.8579,-12.7893,1.5348,
277.2657,13.4652,296.1942,13.8122,-182.4455,-33.0696,257.0729,261.5898,-13.8122,15.8589,-29.1592,-30.8579,-27.1125,-13.4652,
262.2657,4.0925,296.7061,9.2088,-167.4455,-25.5777,242.0729,249.6423,-6.1382,21.4862,-14.1592,-15.8579,-12.1125,-4.0925,
262.943,-10.9075,289.5435,24.2088,-182.4455,-40.5777,228.1566,264.6423,-8.1844,15.3475,-22.5086,-2.0462,-12.2769,2.0462,
275.7318,-25.9075,304.5435,35.2974,-197.4455,-32.2288,230.7138,249.6423,-5.6273,11.7664,-27.1125,-13.8122,-27.2769,5.6273,
277.2661,-26.601,294.6589,28.6468,-212.4455,-23.5324,244.5264,234.6423,-5.1158,8.1844,-12.2779,-5.1158,-24.5553,5.1158,
272.6622,-11.601,279.6589,17.9047,-197.4455,-38.5324,242.9911,220.4821,-5.6273,-1.5348,-13.8122,-5.6273,-9.5553,-7.674,
257.6622,-26.601,269.5931,14.8355,-190.812,-53.5324,227.9911,235.4821,-0.51144,0.51144,-25.0662,-20.6273,5.4447,-3.581,
242.6622,-41.601,284.5931,18.9275,-175.812,-42.4594,212.9911,238.8987,-1.5348,1.5348,-26.0896,-23.02,-9.5553,10.7426,
242.4797,-56.601,281.3586,21.4857,-181.0928,-57.295,227.9911,235.3177,-4.093,2.0462,-20.4628,-8.02,-24.5553,7.1616,
257.4797,-41.601,273.1732,28.6472,-196.0928,-72.295,235.3172,220.3177,-2.0467,11.2535,-18.4166,0,-9.5553,0,
251.1761,-48.5986,268.5688,23.02,-181.6047,-84.4079,249.1303,212.2972,-3.5815,1.5348,-17.9047,-14.836,5.4447,-1.5348,
247.0841,-33.5986,272.6618,24.0433,-166.6047,-99.4079,264.1303,227.2972,3.581,-10.7431,-3.581,-10.7431,13.8117,-4.6039,
259.3615,-18.5986,277.7771,26.0891,-151.6047,-101.8007,276.7542,242.2972,18.581,4.2569,-4.6039,-4.6039,-1.1883,-8.6964,
268.0583,-31.7164,279.3119,24.5553,-136.6047,-87.9885,261.7542,247.596,14.3236,9.2083,-19.6039,-9.2083,-16.1883,-10.2312,
283.0583,-16.7164,294.3119,39.5553,-121.6047,-72.9885,246.7542,262.596,-0.67638,-5.7917,-11.2545,1.0229,-10.2307,4.7688,
282.8929,-4.6044,294.1474,34.2745,-136.6047,-57.9885,261.7542,277.596,-4.6044,-19.9514,-9.7197,1.5348,-1.5348,12.7883,
270.616,-18.928,279.1474,30.1825,-121.6047,-72.9885,276.7542,262.596,10.3956,-4.9514,-15.8584,-1.5343,-6.6506,1.5343,
277.2661,-18.4161,275.2194,42.9709,-106.6047,-87.9885,291.5903,247.596,10.2312,-1.0234,-13.3008,-3.0691,-2.0462,1.0234,
265.5002,-28.1363,290.2194,41.4366,-91.6047,-73.1534,297.217,262.596,-4.7688,-16.0234,-8.6969,-10.7426,8.6969,16.0234,
251.688,-34.7864,284.4277,46.041,-91.0581,-75.7111,312.217,277.596,-15.347,-23.5319,-22.509,-12.2774,12.2774,24.5548,
253.7342,-25.5781,276.2433,52.1787,-76.0581,-81.8498,297.217,262.596,-10.2312,-16.3703,-28.6477,-21.4857,14.3236,10.2312,
252.1999,-40.5781,285.9625,51.6682,-91.0581,-70.0838,282.217,247.596,-1.5348,-11.7655,-16.8818,-36.4857,1.5348,7.674,
238.3882,-55.5781,274.1975,49.1101,-106.0581,-85.0838,278.29,256.8038,2.0462,-12.2769,-15.3465,-41.9475,-2.0462,5.1158,
241.9688,-70.5781,279.8238,45.5285,-121.0581,-100.0838,263.29,241.9688,13.8117,-4.6039,-14.8355,-26.9475,2.5582,-2.5582,
250.1527,-85.5781,290.0545,44.5057,-132.4946,-109.9861,248.29,226.9688,26.0891,4.6039,-8.6964,-19.9509,-6.6506,-4.6039,
242.4802,-77.7573,275.0545,36.8322,-117.4946,-111.5204,241.4564,220.994,21.4852,-1.0229,-8.1849,-14.3241,1.0229,-12.2774,
229.6914,-69.0609,260.0545,29.1587,-102.4946,-126.5204,256.4564,227.6447,10.7431,-14.8355,-10.7431,-11.766,16.0229,-14.8355,
218.4369,-84.0609,270.616,32.2283,-87.4946,-141.5204,241.4564,223.5522,17.9042,-17.9051,-7.6735,-14.8355,7.6735,-10.7431,
219.4597,-95.6624,268.5693,33.2511,-92.5929,-126.5204,226.4564,208.5522,25.0662,-9.7202,-0.51144,-2.5582,-7.3265,0.51144,
228.1561,-80.6624,264.9892,36.8322,-77.5929,-111.5204,237.3649,193.5522,10.0662,-21.4852,-6.1382,5.1153,-9.2078,14.3241,
231.2252,-65.6624,271.127,42.9709,-62.5929,-110.4975,222.3649,204.6247,-4.9338,-24.5553,-3.0691,-6.1387,3.0691,29.3241,
228.668,-50.6624,274.708,44.5052,-55.7607,-114.0785,207.3649,205.1361,1.5348,-12.7893,-1.5348,-9.7197,-9.7197,16.8808,
234.8062,-43.4823,273.6851,49.6215,-57.8064,-126.3554,192.3649,190.1361,-1.5348,-8.6969,-12.7893,4.6044,-24.7197,1.8808,
238.3872,-58.4823,273.1737,45.0176,-42.8064,-111.3554,177.3649,180.0699,-3.0691,-6.1387,-5.1158,3.0691,-22.5086,16.8808,
226.6213,-73.4823,265.5002,35.2974,-39.3898,-96.3554,162.3649,174.4421,-0.51192,-14.8351,0.51192,-11.9309,-14.8351,19.9504,
231.7376,-64.9685,266.5231,38.367,-40.4137,-111.3554,147.3649,159.4421,1.5348,-10.7426,-1.5348,-25.0667,-21.9971,15.8579,
232.7605,-59.8531,261.4077,31.2049,-25.4137,-126.3554,132.3649,146.8178,5.6273,-10.7426,-5.6273,-11.7664,-32.2288,16.8808,
222.0179,-74.8531,249.6423,25.5786,-39.9018,-141.3554,117.3649,140.1676,8.1849,-17.3927,-8.1849,-26.7664,-41.9475,10.2316,
226.6223,-65.9913,260.3849,30.182,-54.9018,-147.8411,102.3649,125.1676,8.6969,-20.9733,-6.6501,-40.4127,-38.367,6.6501,
226.1103,-56.2716,254.7576,33.7636,-69.9018,-155.5146,87.3649,130.9598,7.1621,-25.5777,-1.0229,-31.7168,-27.6244,8.1849,
227.6451,-64.968,244.015,32.2288,-84.9018,-140.5146,72.3649,136.5871,12.7893,-15.8579,13.9771,-16.7168,-23.02,19.9514,
231.2257,-68.549,248.6194,20.4633,-99.9018,-125.5146,57.3649,121.5871,9.2088,-16.3699,12.2774,-8.1849,-38.02,8.1849,
230.7142,-53.549,251.1766,32.2283,-114.9018,-135.5637,42.3649,106.5871,5.6268,-15.8584,1.5343,-1.5343,-40.4132,6.6506,
221.506,-53.714,242.9911,36.3212,-129.9018,-120.5637,27.3649,121.5871,1.5348,-11.7655,2.5577,-1.5348,-29.1592,20.9742,
227.1332,-55.2488,248.6184,34.7864,-128.9131,-105.5637,12.3649,133.0056,-4.0925,-6.1382,10.2316,4.0925,-23.5319,29.6711,
230.7142,-43.4828,249.1298,39.3903,-132.4946,-120.5637,-2.6351,118.0056,-3.581,-17.9051,5.6268,3.581,-26.0901,20.9738,
234.8062,-39.3898,247.0836,49.6215,-131.4713,-135.5637,-17.6351,103.8464,7.673,-25.0667,4.6044,-4.6044,-19.9514,29.1592,
231.2252,-34.7859,246.5722,50.1329,-116.4713,-120.5637,-32.6351,92.0814,5.1158,-19.439,8.1854,-5.1158,-20.4628,40.9251,
226.1099,-38.8784,242.4797,38.8784,-101.4713,-105.5637,-47.6351,77.0814,6.1387,-19.4399,9.2083,-6.1387,-13.3008,34.7859,
226.1094,-53.8784,229.179,39.9018,-101.2892,-101.2892,-62.6351,77.7568,5.1153,-30.694,15.347,-21.1387,-5.1153,26.6005,
225.5979,-38.8784,232.76,47.5753,-86.2892,-86.2892,-77.6351,83.3846,4.6039,-15.8584,30.347,-14.8355,-4.6039,29.1587,
225.5984,-23.8784,242.9911,41.4366,-71.2892,-71.2892,-92.6351,68.3846,5.6273,-6.6501,32.2278,-5.6273,-7.674,31.2049,
230.7142,-11.766,232.76,46.5524,-56.2892,-76.2225,-107.6351,53.3846,0.51144,-21.6501,17.2278,-19.9509,-0.51144,35.2979,
223.0412,-12.2769,217.76,39.9023,-41.2892,-80.8264,-122.6351,68.3846,-6.1387,-36.6501,8.1854,-15.3465,6.1387,32.7402,
219.9707,-8.1854,230.2023,31.7164,-26.2892,-65.8264,-137.6351,56.2711,-3.0701,-30.6945,19.439,-0.3465,-2.0462,33.7631,
234.9707,3.0696,243.5031,42.9714,-34.7864,-50.8264,-152.6351,48.0867,-3.0696,-26.6015,15.347,-8.1849,-17.0462,30.694,
242.4802,16.3699,232.2486,41.9475,-49.7864,-65.8264,-167.6351,33.0867,-7.1621,-34.7864,7.1621,-21.4862,-22.509,23.5319,
231.7366,10.7426,217.2486,42.4594,-38.367,-80.8264,-182.6351,18.0867,-6.6501,-33.2516,5.6273,-6.6501,-7.509,27.1125,
224.0636,-1.0229,212.8091,48.0867,-23.367,-65.8264,-197.6351,33.0867,-8.1849,-37.856,1.0229,2.0457,-4.0925,25.5777,
227.6447,11.766,226.6218,48.5981,-30.1825,-53.714,-212.6351,48.0867,-4.6039,-35.2979,1.5343,-1.5343,-10.7431,28.1358,
221.5055,16.8813,214.3434,45.5285,-44.5057,-68.714,-227.6351,33.0867,-4.6039,-27.1129,4.6039,-6.6506,-5.6277,32.2283,
218.4364,5.6273,210.2514,30.5285,-29.5057,-64.9685,-242.6351,30.182,-5.6273,-25.0667,12.7883,-8.6969,-7.674,29.1592,
223.5522,1.5343,222.5293,31.2054,-14.5057,-49.9685,-257.6351,41.4361,-4.6039,-19.9509,16.8813,-1.5343,-5.6268,29.1587,
212.8096,-8.1854,207.5293,38.8784,-29.5057,-63.4337,-272.6351,26.4361,-8.1854,-25.5781,6.1387,-2.0462,2.0462,30.6935,
213.832,3.0696,201.5546,43.9942,-44.5057,-78.4337,-257.6351,17.3927,-3.0696,-29.6711,6.1382,-7.1621,-3.0696,30.693,
228.1561,18.0696,216.5546,48.0867,-59.5057,-79.8035,-267.035,23.5319,-4.0925,-26.6015,4.0925,-18.4166,-18.0696,22.5081,
218.4364,31.2049,219.4592,44.5062,-57.8064,-64.8035,-281.87,38.5319,-0.51192,-19.9514,0.51192,-11.7664,-16.8818,26.0896,
209.74,23.5314,204.4592,40.9251,-42.8064,-77.7573,-266.87,37.8555,-3.0691,-29.6706,-2.0462,2.0462,-12.2779,28.6477,
224.74,15.3465,219.4592,41.948,-57.8064,-92.7573,-251.87,22.8555,-7.1616,-27.6249,-5.1158,5.1158,-27.2779,23.5314,
223.0408,0.3465,234.4592,40.9246,-56.2721,-78.7807,-266.87,17.3927,0,-12.6249,0,13.3003,-24.5548,26.6015,
208.0408,-8.1854,219.4592,34.7859,-41.2721,-93.7807,-251.87,32.3927,-5.1158,-6.1387,-3.0691,3.0691,-9.5548,20.4618,
196.4397,2.0462,205.6475,36.8327,-26.2721,-94.1272,-236.87,47.3927,-6.1387,-21.1387,-2.0462,-8.1844,-11.254,24.5553,
211.2743,1.5348,214.3439,44.5052,-11.2721,-81.3383,-221.87,34.2745,-1.5348,-29.1592,-3.5815,-2.5577,-19.9514,21.9971,
200.5322,-1.0234,199.3439,35.8098,3.7279,-96.3383,-236.87,26.601,-11.254,-21.4857,-11.254,1.0234,-22.5086,6.9971,
203.0894,-2.5577,211.2743,28.1353,2.5577,-81.3383,-245.0379,41.601,-12.7893,-19.9514,-2.5577,3.5805,-10.7426,9.7197,
199.5084,-6.1387,217.9249,33.7631,12.2769,-66.3383,-230.0379,56.601,-11.254,-29.6706,1.0234,-1.0234,-5.1158,24.5553,
191.8353,0.51144,202.9249,42.4599,16.8813,-81.3383,-215.0379,71.601,-4.6039,-28.1358,-0.51144,-6.6496,-0.51144,21.9976,
205.1356,6.6506,201.0431,46.5524,1.8813,-96.3383,-200.0379,56.601,-0.51144,-17.9051,3.581,-6.6506,-1.5343,6.9976,
201.0431,4.6039,203.0899,34.274,16.8813,-81.3383,-185.0379,71.601,-9.7202,-14.8355,-3.581,3.581,-8.6964,-3.581,
186.0431,3.0691,188.0899,19.274,31.8813,-91.0581,-170.0379,86.601,-21.4857,-26.601,-18.581,-2.0462,-15.3475,2.0462,
175.4655,4.6039,180.5808,21.9966,24.0433,-89.5233,-166.2577,91.5695,-9.7202,-18.928,-7.6735,-4.6039,-4.6039,4.6039,
190.4655,4.0925,195.5808,25.5786,20.4623,-74.5233,-181.2577,76.5695,-5.1153,-14.3231,4.0925,-4.0925,-15.347,-6.1382,
191.8358,19.0925,180.5808,10.7426,32.2288,-87.477,-184.6733,91.5695,-9.7197,-19.9504,-5.6273,5.6273,-24.0429,-6.6501,
183.1395,14.3236,165.5808,2.0462,32.7402,-72.477,-169.6733,106.5695,-15.3465,-27.6239,-2.0462,13.3008,-9.0429,-3.0691,
182.6275,-0.67638,150.5808,16.8813,17.7402,-57.477,-154.6733,91.5695,-6.6506,-30.1825,6.6506,4.6039,-3.581,-6.6506,
178.5341,11.766,158.0718,31.8813,2.7402,-49.622,-156.0265,88.4999,0.51144,-23.0205,-0.51144,2.5572,-17.9051,-5.6277,
163.5341,26.766,146.8173,30.1816,17.7402,-64.622,-171.0265,103.4999,-14.4886,-19.9509,-7.6735,3.581,-3.581,-4.6049,
165.2343,11.766,142.7263,16.8818,32.7402,-49.622,-156.0265,118.4999,-24.0429,-23.02,-1.5348,1.5348,10.7436,-2.5577,
163.699,-3.234,137.0985,25.5781,47.7402,-34.622,-141.0265,103.4999,-21.4857,-26.601,-3.0691,-2.0462,2.0462,-5.1158,
168.8154,11.766,143.2367,28.6468,62.7402,-21.4857,-143.2372,118.4999,-16.3703,-12.2779,-3.0701,-6.1387,2.0462,-2.0462,
183.6509,26.766,152.9569,30.182,77.7402,-36.4857,-128.2372,133.4999,-24.0429,-8.6959,-2.5577,-19.9504,-3.5805,2.5577,
174.9541,17.3937,147.3297,25.5786,77.7578,-31.7168,-129.9365,136.0752,-13.3003,-13.3003,5.1153,-26.6015,-6.1382,-5.1153,
159.9541,2.3937,132.3297,10.5786,62.7578,-29.1592,-144.9365,121.0752,1.6997,-14.8351,7.674,-30.182,-4.6044,-20.1153,
158.0718,-6.6506,126.3559,15.8584,47.7578,-44.1592,-159.9365,106.0752,2.5582,-11.766,8.6964,-26.0901,-2.5582,-19.9509,
158.5837,3.0691,131.9832,19.439,62.7578,-34.7859,-144.9365,114.5895,-12.4418,-18.4161,1.0234,-14.3236,-1.0234,-4.9509,
158.5842,18.0691,127.8902,20.4623,77.7578,-30.694,-129.9365,129.5895,-27.4418,-26.6015,-10.2316,-8.1849,3.0696,-3.0696,
163.1886,29.1592,123.2868,18.9275,92.7578,-29.1592,-144.9365,124.3097,-18.9275,-31.2049,-7.673,-19.9504,4.6044,-4.6044,
148.3526,14.1592,128.9141,12.2774,77.7578,-14.1592,-149.3754,110.4975,-23.5319,-40.9246,-1.0229,-30.693,2.0467,-7.1621,
143.7487,1.5343,131.4713,25.0662,92.7578,-15.8584,-134.3754,122.2635,-17.9042,-35.2979,-1.5343,-15.693,6.6506,-9.7192,
143.7482,15.8579,116.4713,17.9047,107.7578,-30.8584,-119.3754,107.9389,-2.9042,-31.2049,-10.7426,-5.6273,0.51192,-19.9514,
142.2143,0.85793,116.6357,15.347,106.405,-45.8584,-134.3754,92.9389,4.0925,-23.5319,-1.0229,-16.3699,1.0229,-20.4623,
137.098,-14.1421,125.8435,30.347,118.6815,-30.8584,-128.9136,93.1038,-10.9075,-15.347,9.2078,-13.3012,8.1849,-8.1849,
130.9593,-10.2312,119.7048,25.5781,107.4274,-30.6935,-143.9136,99.2425,-15.3465,-25.5781,3.0691,-6.1387,4.092,-3.0691,
145.7949,4.7688,127.3793,28.1363,92.4274,-36.3212,-158.9136,95.6624,-7.673,-40.5781,-4.6044,-9.7197,4.6044,-5.6273,
148.353,6.1387,129.9365,29.6706,77.4274,-37.8555,-173.9136,80.8269,-15.3465,-54.2254,-10.2312,-19.439,5.1158,-5.1158,
137.6104,6.6506,114.9365,20.9738,62.4274,-39.3903,-158.9136,65.8269,-18.928,-53.7135,-6.6506,-20.9738,-9.8842,6.6506,
136.5876,17.9051,99.9365,12.7898,56.784,-37.3436,-169.3263,50.8269,-14.8346,-44.5057,-3.581,-12.7888,-19.9509,3.581,
139.1443,2.9051,102.3121,12.2769,71.784,-23.5324,-184.3263,49.1101,-20.4628,-30.6935,-5.1158,-4.093,-4.9509,-1.0234,
151.4221,0,117.3121,27.2769,56.784,-9.2078,-197.4626,64.1101,-17.3927,-20.4623,0,0,-1.0229,11.2545,
146.8187,11.7664,115.1019,20.9742,41.784,-24.2078,-212.4626,49.1101,-13.8122,-32.2278,-2.5577,-10.7426,-16.0229,2.5577,
136.0747,6.1387,101.2892,10.2312,43.9937,-39.2078,-227.4626,34.1101,-10.2312,-33.7631,2.0462,-3.0701,-31.0229,-2.0462,
130.9588,1.0229,86.2892,16.3699,45.0171,-27.6244,-212.4626,19.1101,-11.2545,-29.6711,0,4.0925,-33.7636,-2.0467,
136.0752,6.1392,89.0123,15.347,30.0171,-12.6244,-227.4626,4.1101,-5.1153,-27.6244,0,2.0467,-48.7636,-1.0229,
134.0294,7.1621,101.2887,16.3699,38.8789,-25.5777,-242.4626,-10.8899,-1.0229,-29.6701,6.1392,-4.0925,-63.7636,1.0229,
135.0518,13.3008,101.2892,25.5781,53.8789,-40.5777,-257.4626,-25.8899,-1.0234,-36.8327,1.0234,-18.4161,-61.3874,4.092,
140.1676,16.3699,93.1038,38.8789,38.8789,-52.1792,-266.0121,-10.8899,3.0696,-37.856,-3.0696,-16.3699,-57.2945,16.3699,
125.1676,1.3699,78.1038,32.7407,23.8789,-40.9246,-281.0121,-25.8899,3.0696,-37.855,0,-1.3699,-72.2945,9.2088,
115.1014,0.51144,69.0605,21.9976,8.8789,-55.9246,-281.87,-40.8899,6.6506,-30.1816,7.6735,-0.51144,-72.13,-0.51144,
115.1014,5.6268,78.2683,21.9966,6.6506,-70.9246,-296.87,-55.8899,-0.51144,-28.1358,0.51144,-15.5114,-64.968,0.51144,
124.8216,8.1849,93.2683,25.5786,-8.3494,-55.9246,-311.87,-60.3641,8.1849,-13.1358,8.1849,-8.1849,-65.4794,15.347,
116.1248,1.5348,79.2916,10.7426,-4.6044,-58.8293,-302.3329,-75.3641,-0.51192,-12.7893,5.6273,0.51192,-75.1991,4.6044,
111.0085,8.6969,64.2916,17.9047,10.3956,-64.9685,-287.3329,-90.3641,-3.5805,-11.7664,2.5577,-1.5348,-69.0609,1.5348,
106.405,5.1163,64.4566,18.4166,-1.0229,-57.2945,-284.4277,-86.9651,3.0696,-14.3231,1.0229,-11.2545,-81.8498,10.2316,
119.7053,20.1163,79.4566,29.6711,-16.0229,-57.2945,-299.4277,-77.7573,8.1849,-12.2774,8.1849,-8.1849,-85.9422,14.3241,
117.1467,20.9733,91.569,29.1582,-1.5348,-72.2945,-311.5411,-92.7573,2.5577,-11.7664,2.5577,-9.7197,-74.1763,1.5348,
106.4046,5.9733,78.7802,19.439,1.0234,-81.8503,-319.2141,-107.7573,2.0462,-9.2083,1.0234,-16.3703,-70.5952,-1.0234,
112.0323,4.6044,69.0609,15.8589,7.674,-77.2459,-324.8414,-104.8698,-1.5348,-3.5805,2.5577,-21.9971,-73.1534,1.5348,
116.1243,7.6735,70.0833,14.8355,8.6964,-76.2225,-316.6565,-91.5695,-0.51144,-8.6964,2.5582,-27.1129,-70.0843,0.51144,
121.7515,12.2779,81.8498,29.8355,-6.3036,-76.7339,-314.0983,-106.5695,10.2312,-13.3008,12.2779,-23.5314,-61.3874,12.2779,
117.6586,16.3699,80.8264,44.8355,-3.0696,-73.6648,-310.0063,-121.5695,3.0696,-18.4166,20.4623,-30.694,-57.2945,18.4156,
114.0785,12.7888,78.2692,29.8355,11.9304,-65.9909,-303.3557,-128.4017,-11.9304,-15.8584,12.7888,-36.3207,-61.8984,12.7888,
120.2167,24.0433,81.3378,42.4589,26.9304,-55.7602,-309.4949,-132.4946,-8.6964,-4.6039,4.6039,-24.0433,-60.8755,16.8813,
116.1243,24.0433,71.1072,43.4828,19.9509,-70.0838,-324.4949,-147.4946,-3.581,-13.8117,3.581,-24.0433,-67.0142,16.8813,
114.5895,13.3008,63.4342,28.6477,6.1387,-80.8264,-339.4949,-162.4946,-5.1158,-16.3694,5.1158,-17.3932,-65.4799,12.2779,
115.1019,7.674,63.9456,28.1363,20.9742,-70.0838,-354.4949,-161.1414,-6.6501,-5.6273,1.5348,-2.3932,-55.7597,16.8818,
118.6824,16.3699,73.6644,40.9246,24.5548,-72.642,-369.4949,-173.9312,-3.0696,-4.0925,3.0696,-5.1153,-56.2721,27.6244,
118.6824,22.5081,71.6186,51.1563,12.2774,-87.642,-384.4949,-188.9312,-3.0696,-8.1849,3.0696,-16.3699,-63.4337,27.6244,
114.078,10.7426,60.876,43.4823,17.9047,-102.642,-399.4949,-198.9974,-1.5348,-4.6044,1.5348,-11.7655,-52.6911,27.1125,
117.1476,10.7426,63.9446,40.4137,19.9504,-113.0552,-410.7836,-212.2977,-4.6044,-1.5348,0.51192,-0.51192,-43.4823,29.1592,
121.752,25.7426,75.7111,46.041,4.9504,-106.4046,-425.7836,-218.9483,-8.1849,-2.0457,1.0229,8.1849,-51.1563,27.6244,
115.6128,32.7397,78.7807,48.0867,0,-121.4046,-440.7836,-233.9483,-5.1153,-4.0925,0,12.2774,-56.2716,27.6244,
111.0089,17.7397,63.9451,51.6677,15,-136.4046,-455.7836,-248.9483,-5.6268,-11.766,-1.5343,1.5343,-57.8064,29.1587,
111.5199,6.1387,56.2711,47.0633,25.5781,-151.4046,-440.7836,-263.9483,-1.0234,-7.1616,1.0234,-6.1387,-48.0872,36.8327,
104.8698,9.7202,58.8298,45.5295,29.1587,-166.4046,-455.7836,-278.8005,0.51144,-1.5343,-0.51144,-1.5343,-34.274,34.275,
106.916,5.6273,53.714,47.5748,42.4594,-181.4046,-468.0786,-293.8005,-1.5348,-4.6044,-2.5577,1.5348,-37.3441,29.1592,
108.9627,4.6044,46.5519,43.4833,33.2516,-196.4046,-468.0781,-308.8005,-1.5348,-8.6959,1.5348,-7.673,-51.6677,36.3212,
115.6128,19.6044,54.2259,55.2488,18.2516,-211.4046,-483.0781,-323.8005,1.0229,-8.1849,-1.0229,-12.2774,-56.2716,41.9485,
119.1934,25.0667,69.0609,55.7597,29.1592,-226.4046,-498.0781,-338.8005,2.5577,-2.5577,-2.5577,-10.7426,-42.4594,39.3898,
114.59,19.4394,61.387,46.041,40.9246,-241.4046,-483.0781,-353.8005,0,-1.0229,0,-12.2774,-33.7626,37.856,
114.589,29.6701,46.387,52.1792,41.9475,-256.4046,-468.0781,-368.3242,0,-2.0467,0,-9.2088,-42.9714,38.8789,
109.4737,18.4156,33.7626,48.0867,26.9475,-271.4046,-479.8446,-370.3709,0,0,-1.0238,-11.2545,-57.2955,33.7626,
96.1734,3.4156,34.7864,42.9714,11.9475,-286.4046,-494.8446,-377.532,0,0,4.0925,-9.2078,-52.1792,32.7407,
96.1734,-3.0696,33.7636,51.1563,0,-301.4046,-489.0524,-388.786,7.1621,0,15.347,0,-37.1792,46.041,
92.0809,0,21.4852,50.1324,1.0229,-316.4046,-488.03,-403.786,0,-10.2316,4.0925,-15,-43.9947,36.8322,
92.0809,5.1153,21.4852,54.2249,16.0229,-313.0759,-503.03,-403.1106,-6.1392,0,0,-20.4633,-51.1568,30.693,
87.988,-1.0234,20.4618,48.0862,28.6477,-310.0063,-516.6768,-408.226,-2.0462,3.0691,1.0234,-11.254,-50.1329,35.8088,
85.9422,-3.0691,24.5553,58.3179,23.5314,-300.7981,-501.6768,-413.3413,6.1387,-5.1158,3.0691,-26.254,-38.8784,46.0405,
86.9651,5.1158,28.6477,68.5495,33.7631,-295.6822,-486.6768,-419.48,-2.0462,-12.2779,2.0462,-38.8789,-29.6706,47.0633,
100.2659,18.4156,36.8322,68.549,31.7168,-284.4282,-472.683,-416.4109,0,-8.1849,0,-23.8789,-31.7173,53.202,
103.3354,17.3937,30.694,63.4337,40.9246,-278.289,-465.5205,-414.3642,7.1621,-7.1621,-8.1849,-25.5777,-32.7397,56.2716,
98.7311,9.7197,30.182,61.8989,55.9246,-274.7085,-450.6854,-418.9686,3.5805,-3.5805,-4.6044,-30.182,-27.1129,57.8064,
91.5695,6.6506,39.3903,65.9918,46.5524,-277.7776,-465.6854,-428.1764,-6.6496,4.6039,-4.6039,-21.9966,-40.4132,49.622,
83.3841,0.51192,31.2049,54.7368,31.5524,-275.7313,-480.6854,-427.1535,-0.51192,14.8351,-14.8351,-13.8122,-40.4137,38.367,
82.3617,-6.6506,16.2049,48.5981,29.1587,-269.5927,-471.1477,-428.1764,10.7431,6.6506,-16.8813,-14.8355,-33.2511,38.3675,
82.8731,0,9.2088,62.4108,26.6015,-271.127,-476.7745,-432.7803,4.0934,0,-13.3003,-18.4156,-41.9475,39.9018,
79.8035,1.0229,24.2088,60.3641,12.2774,-260.8958,-490.0752,-419.48,-1.0229,8.1849,-7.1621,-13.3003,-40.9246,46.041,
85.9427,-5.1153,27.6244,62.4108,27.2774,-248.6184,-475.0752,-405.1564,0,8.1849,0,-2.0457,-25.9246,58.3183,
89.5228,-0.51144,15.8584,77.4108,42.2774,-252.1994,-462.9628,-413.8527,-1.5343,2.5582,0.51144,-1.5343,-21.9966,59.8527,
81.3383,-1.5348,17.9047,73.1534,39.3898,-257.3153,-477.9628,-422.0377,1.5348,5.6273,-6.6501,-15.8579,-17.9047,53.714,
76.7344,-16.5348,16.3703,67.5257,28.6477,-257.8267,-492.9628,-424.5958,7.1616,-1.0234,1.0234,-23.5314,-9.2083,46.0405,
70.0838,-28.1363,16.8818,62.9218,40.4127,-272.6622,-504.9108,-439.5958,14.8351,-15.8589,16.0234,-29.1592,-14.8351,40.4127,
58.8288,-25.0672,19.9509,60.8755,40.4132,-282.8939,-504.9113,-454.5958,15.8584,-17.9051,19.9509,-36.3212,-15.8584,39.3894,
57.8064,-16.8818,12.7893,62.9218,30.182,-267.8939,-491.61,-439.5958,6.6501,-6.6501,14.8351,-27.1125,-7.673,43.4823,
65.4799,-15.3465,7.1616,58.3179,41.948,-252.8939,-494.1682,-424.5958,3.0691,-3.0691,11.254,-15.3465,-8.1854,47.0633,
75.1991,-0.3465,18.9275,64.9685,56.948,-237.8939,-499.7955,-417.9457,1.5348,-3.5815,-1.5348,-5.6273,-9.7197,49.6215,
76.7339,14.6535,17.3937,61.3879,51.1563,-222.8939,-509.5147,-422.5491,-1.0229,1.0229,-15.347,-2.0457,-12.2774,51.1563,
65.4799,13.3008,2.3937,58.3179,36.1563,-214.8558,-505.4222,-422.5496,5.1158,4.093,-13.3008,-12.2779,-10.2312,45.0176,
65.4804,17.3937,-8.1849,66.5033,51.1563,-209.7395,-499.2831,-412.3179,20.1158,4.0925,-4.0925,-12.2774,-7.1611,54.2259,
62.4108,15.347,-13.3003,53.202,65.4794,-208.7171,-514.2831,-409.2488,14.3241,4.0925,-10.2316,-4.0925,-19.4394,53.202,
61.387,15.346,-20.4633,53.202,50.4794,-203.6018,-529.2831,-408.2265,0,8.1849,-7.1621,0,-17.3937,43.9942,
72.1296,16.8818,-10.7426,59.8522,59.8522,-203.0899,-514.2831,-413.8532,2.5577,-1.5348,1.5348,-9.7197,-5.6273,51.6672,
78.7802,22.5086,1.0234,66.5028,62.4103,-198.486,-499.2831,-404.1335,13.3008,-8.1854,-1.0234,-6.1387,-6.1387,60.3646,
72.6415,22.509,-6.1392,74.6882,53.202,-192.3473,-514.2831,-389.1335,13.3003,-1.0229,-7.1621,1.0229,-6.1392,56.2716,
67.5261,11.2545,-6.1382,75.7111,62.4108,-197.4626,-522.8154,-388.7865,12.2774,0,-3.0696,-4.0925,0,60.3641,
60.8755,1.5343,-2.5582,79.2921,60.8755,-201.0436,-514.1191,-403.7865,6.6496,-11.766,-0.51144,-8.6964,0.51144,63.9451,
58.8298,0.51144,-8.6964,78.2692,74.1768,-186.0436,-514.1186,-405.6678,-0.51144,-12.7888,1.5353,-2.5572,10.7431,59.8527,
73.8298,11.766,-6.6506,69.0605,85.4303,-176.4884,-510.0261,-396.46,-1.5343,-7.6735,-2.5582,1.5343,5.6268,51.6677,
88.8298,26.766,6.1387,70.5962,70.4303,-180.0689,-525.0261,-382.6473,2.0462,-3.0691,-4.092,-2.0462,-9.2073,57.295,
77.7568,28.6472,6.1382,72.6415,64.4566,-167.792,-529.9775,-375.4858,0,-11.2545,0,-7.1621,-3.0696,64.4566,
65.4794,13.6472,-6.1392,78.7797,79.4566,-152.792,-514.9775,-376.5091,0,-19.4394,0,-3.0696,3.0686,62.4098,
63.9456,8.6969,-10.7426,73.1534,81.3383,-161.1414,-505.9337,-378.0434,8.6969,-5.6273,-2.5577,2.5577,-4.6034,60.876,
58.8293,-1.5348,-1.5348,68.0381,66.3383,-176.1414,-517.1882,-388.2746,8.6969,1.5348,3.5815,-4.6034,-5.6273,65.9913,
50.1324,-16.5348,-1.0229,79.8035,51.3383,-191.1414,-531.0004,-399.0177,2.0457,-13.4652,9.2078,-16.3703,1.0229,66.5033,
49.621,-18.928,-4.6039,83.3846,36.3383,-206.1414,-536.6276,-397.4829,17.0457,-23.0205,13.8117,-12.7893,4.6039,60.8755,
53.202,-3.928,-5.1153,79.8035,27.6244,-195.4164,-541.2315,-388.7865,21.4862,-8.0205,13.3003,-4.0925,-3.0696,55.2488,
43.4828,0.51144,-12.7888,72.13,32.2283,-209.2286,-546.8588,-386.2284,8.6964,-14.8355,14.8355,-0.51144,-11.766,51.6677,
37.3441,-13.8122,-15.8589,68.0371,46.5519,-224.2286,-535.6048,-391.3447,12.7893,-16.8818,25.0667,2.5577,-2.5577,54.7368,
37.855,-17.3927,-22.509,67.5261,57.2945,-239.2286,-536.1162,-406.3447,10.2316,-11.2545,24.5548,1.0229,-1.0229,46.041,
35.2979,-21.9966,-21.9966,62.9222,53.7144,-254.2286,-549.9279,-413.8527,16.8813,-9.7192,24.0433,1.5343,-1.5343,44.5057,
33.7626,-21.4857,-14.3241,77.9222,47.0638,-248.6189,-553.5094,-400.041,26.6015,-1.0229,15.347,-1.0229,1.0229,57.2945,
32.2288,-8.6959,-21.9971,78.2687,37.3441,-233.6189,-550.9513,-398.5058,11.6015,-2.5577,2.5577,-9.7197,4.6044,57.8064,
40.4132,4.6039,-30.1816,63.2687,51.6677,-218.6189,-558.1133,-401.5753,-3.3985,-15.8584,9.7202,-15.8584,8.6964,52.6906,
43.4828,1.5343,-42.4599,51.6677,66.6677,-203.6189,-573.1133,-402.5987,-1.5343,-20.9738,1.5343,-16.8813,2.5582,45.5285,
38.8784,-3.0691,-39.9018,52.1796,81.6677,-188.6189,-581.1333,-397.9943,7.1625,-9.2083,2.0462,-2.0462,5.1158,53.2025,
33.2516,-5.6273,-35.2979,53.714,66.6677,-203.6189,-585.7377,-398.5062,1.5348,-11.7664,7.673,-1.5348,2.5577,53.714,
40.9246,0,-37.8555,56.2716,68.549,-208.7166,-591.3645,-387.7632,-2.0457,-4.0925,0,1.0229,0,53.203,
46.5519,2.5577,-39.3903,57.8064,77.2459,-203.0899,-599.0384,-386.2289,-2.5577,3.5805,-9.7197,4.6034,-5.6273,52.6911,
50.1329,17.5577,-36.8322,72.642,62.2459,-211.7862,-602.619,-391.8556,2.0462,-2.0462,-3.0691,8.1854,-5.1158,55.2492,
48.5986,20.9742,-46.5519,69.0609,54.7368,-209.2286,-601.0842,-384.1821,-0.51192,-9.7197,-2.5577,2.5577,0.51192,61.8989,
45.0176,9.2083,-47.0638,65.4799,69.7368,-194.2286,-601.5961,-375.4858,-3.0691,-7.1616,-2.0462,2.0462,7.1616,68.5495,
33.7626,5.1153,-42.9714,71.6186,84.7368,-199.5088,-616.5961,-382.6478,-3.0696,-10.2316,-1.0229,5.1153,1.0229,60.3641,
33.2516,6.6501,-44.5062,73.1534,69.7368,-209.2286,-631.5961,-385.2055,1.5348,-9.7197,-1.5348,3.5805,-1.5348,58.8293,
38.3665,5.6268,-51.6677,79.2921,65.9909,-197.9745,-628.7091,-371.9052,-0.51144,-1.5353,0.51144,-1.5353,5.6268,64.968,
32.7397,2.0467,-56.2716,71.6186,75.7111,-192.3468,-640.4745,-378.5549,-5.1153,1.0229,-1.0229,-5.1153,4.0925,61.3879,
37.8555,17.0467,-51.1563,68.5495,77.7573,-183.139,-646.6132,-389.8099,-1.0234,2.0462,-5.1158,-5.1158,1.0234,61.3874,
52.8555,32.0467,-43.9942,83.5495,85.9422,-168.139,-640.4745,-374.8099,-2.0462,2.0462,-2.0462,-4.093,8.1844,70.5952,
67.8555,29.1592,-33.2511,92.5929,92.5929,-161.1419,-645.0784,-359.8099,1.5348,-4.6039,-3.581,-1.5348,23.1844,79.2916,
60.3638,22.5088,-32.74,85.9425,98.2199,-162.6764,-660.0784,-363.2086,2.0465,-15.3467,-14.3239,-2.0465,24.5545,78.7804,
53.714,31.2049,-47.74,76.222,103.8464,-164.2115,-675.0784,-371.9052,-1.5348,-10.7426,-12.7893,1.5348,9.7197,72.1296,
50.6444,29.1592,-50.6444,67.0152,89.5233,-167.2801,-690.0784,-362.6965,-8.6959,-1.5348,-7.673,3.5815,1.5348,58.8303,
42.4594,26.0896,-47.5753,70.0838,81.3383,-161.1419,-705.0784,-358.6045,-9.7197,-3.5805,-4.6044,3.5805,4.6044,58.8293,
27.4594,36.3212,-54.7368,70.0838,96.3383,-149.8873,-710.5583,-370.8819,-3.5805,-7.673,-5.6273,6.6501,3.5805,63.9456,
14.3236,42.9709,-57.295,73.6648,111.3383,-143.2372,-725.5583,-377.532,-8.1854,-2.0462,-8.1854,10.2312,2.0462,62.4103,
16.3694,28.6468,-53.2025,70.5952,106.4046,-139.1448,-740.5583,-370.3704,-15.3475,2.0462,-6.1387,-2.0462,9.2073,58.3179,
30.182,33.2516,-44.5057,74.1763,119.1934,-132.4941,-755.5583,-364.7432,-1.5348,-2.5577,1.5348,-5.6273,12.7893,67.0142,
16.8813,37.3436,-51.6677,82.3617,126.3559,-147.4941,-767.8533,-373.951,4.6039,-14.8355,-4.6039,-12.7888,14.8355,65.9918,
1.8813,22.3436,-56.7835,83.3846,118.171,-158.0723,-762.7375,-372.9281,5.6268,-19.9509,-1.5343,-26.0896,29.1587,67.0147,
10.2312,7.3436,-64.4566,81.8498,128.9136,-148.3526,-761.2027,-366.2775,2.0462,-22.5086,3.0691,-24.5548,25.5781,66.5028,
12.7888,2.5572,-77.2459,74.1758,135.5637,-163.3526,-776.2027,-370.8819,-0.51144,-16.8813,0.51144,-15.8584,17.9042,62.9222,
7.6735,0.51144,-77.2459,76.2225,121.2396,-178.3526,-776.0387,-372.9281,-0.51144,-13.8127,0.51144,-16.8818,24.0433,65.9909,
15.8579,5.6273,-70.0838,87.4765,118.1705,-193.3526,-767.8533,-364.7432,0.51192,-11.7655,-0.51192,-11.7655,19.9504,67.0142,
21.9976,16.8813,-65.9913,74.1768,132.4941,-205.1361,-779.1073,-366.7894,1.5343,-3.581,-1.5343,-10.7431,4.9504,59.8527,
22.5081,23.5319,-67.5261,70.5957,147.4941,-207.6938,-776.5502,-363.2084,-1.0229,0,0,-8.1849,11.2545,65.4794,
11.2545,12.2774,-82.5261,71.6186,132.4941,-202.5779,-776.5497,-361.1621,-7.1621,-3.0696,-9.2078,3.0696,24.5548,68.549,
0.51144,3.581,-83.3846,65.9909,117.4941,-198.9974,-791.5497,-371.9052,-4.6039,-0.51144,-12.7888,15.8584,18.928,62.9222,
5.1153,10.2307,-75.7111,68.549,121.751,-201.5551,-805.1974,-376.5091,-12.2774,-6.1392,-5.1153,8.1849,10.2307,56.2716,
20.1153,21.9971,-63.9451,83.3841,136.751,-192.8587,-790.1974,-361.6736,-15.8584,-10.7426,-1.5348,1.5348,25.2307,71.1067,
17.9042,21.9966,-64.9685,93.6152,151.751,-195.9283,-776.0387,-352.4658,-12.7893,-9.7202,-3.581,3.581,40.2307,78.2683,
2.9042,11.2545,-71.6186,85.9417,157.5604,-203.6013,-791.0387,-361.1621,-18.4166,-20.4628,-1.0229,2.0457,32.7397,68.549,
10.2316,7.1621,-56.6186,91.0581,167.792,-193.3697,-804.1736,-360.1388,-5.1153,-20.4623,4.0925,-4.0925,34.7864,75.7111,
10.7431,-0.51144,-61.8989,102.824,168.3034,-196.9507,-794.4543,-362.6969,8.6964,-12.7888,0.51144,-19.0925,30.1825,78.2692,
2.0462,-2.0462,-71.6181,100.2663,169.8382,-199.5088,-801.1045,-360.1388,15.3475,-2.0462,12.2779,-8.1849,36.8327,81.8498,
-1.5343,-6.6506,-72.13,85.2663,159.0956,-189.7891,-816.1045,-365.766,8.6964,-8.6969,2.5582,1.5343,30.1816,74.1768,
11.7655,-1.5348,-72.13,84.4079,161.1419,-174.7891,-819.0096,-364.7432,3.5805,-13.8122,-12.4418,1.5348,25.0667,71.1067,
14.3231,0,-78.7807,89.0113,176.1419,-164.7234,-804.0096,-356.0468,0,-13.3012,0,8.1849,40.0667,76.7339,
7.6735,-4.6039,-82.3612,92.5924,190.8125,-172.3959,-803.6626,-345.3037,-5.6273,-7.6735,4.6039,17.9051,45.5295,83.3846,
9.208,-4.0927,-85.9425,86.9649,175.8125,-180.0696,-818.4979,-347.8616,-6.1389,4.0927,-5.1161,18.4158,30.5295,82.8724,
1.0234,-15.347,-100.9425,79.8031,160.8125,-191.3239,-833.4979,-362.8616,-9.2083,-1.0234,3.0691,11.254,25.5781,70.5952,
-13.9766,-30.347,-110.4975,87.9885,145.8125,-200.5322,-848.4979,-377.5325,4.0925,-4.0925,18.0691,9.2078,37.855,67.5261,
-28.9766,-45.347,-112.0323,75.1996,138.6323,-215.5322,-860.9576,-371.9052,8.6964,0.51144,8.6964,-0.51144,26.0891,59.8527,
-35.2979,-57.8064,-101.8011,71.1072,141.7019,-217.4135,-845.9576,-374.9743,0.51144,-0.51144,1.5343,2.5572,13.8117,55.7602,
-30.182,-42.8064,-97.7082,80.315,147.8411,-202.4135,-843.5644,-379.0668,3.581,-3.581,5.6268,13.8117,18.928,57.8059,
-17.3932,-27.8064,-85.9422,91.0576,155.5141,-187.4135,-846.1221,-370.3704,9.2083,-2.0462,2.0462,8.1844,25.5781,66.5028,
-2.3932,-12.8064,-74.6877,96.1734,169.8387,-172.4135,-833.8442,-355.3704,0,3.0696,1.0238,-5.1153,22.509,74.6882,
2.5582,2.1936,-79.2921,90.5466,184.8387,-157.4135,-827.1945,-340.3704,-4.6044,-2.5582,2.5582,-2.5582,14.8355,77.2454,
2.5577,7.673,-94.2921,82.3612,178.5346,-145.7949,-829.2408,-353.4887,-9.7197,-7.673,-2.5577,5.6273,12.7893,68.0381,
7.6735,-0.51144,-102.8235,70.0843,169.3273,-156.026,-823.1016,-366.7889,-10.7421,0.51144,-2.5572,2.5582,21.9976,67.0147,
3.0691,-5.1158,-99.243,68.5485,177.0003,-153.4684,-828.7293,-355.0234,-6.1392,7.1616,-3.0691,5.1158,26.601,74.6877,
-2.0462,2.0462,-102.3121,83.5485,181.0928,-142.2139,-830.7751,-349.9076,-2.0462,7.1625,-5.1149,17.3932,22.5086,74.6887,
-3.0696,-2.0457,-108.4508,82.8731,166.0928,-148.3526,-820.5439,-357.0697,1.0229,3.0696,-1.0229,12.2774,16.3699,68.549,
-10.7421,-7.6735,-113.0547,73.1539,151.9336,-151.9336,-822.0787,-350.4191,-3.581,5.6277,3.581,4.6039,13.8127,63.9451,
-13.8117,-4.6039,-111.0085,73.1539,155.0032,-141.7024,-825.1478,-347.35,-7.6735,9.7202,4.6039,9.7202,24.0433,64.969,
-6.1382,0,-101.2892,81.8503,160.6299,-141.191,-814.4052,-343.7689,0,0,9.2078,13.3003,35.8093,71.6186,
-5.6273,1.5348,-98.7311,91.57,171.3735,-144.7715,-813.8938,-341.2113,-1.5348,-7.6735,9.7197,9.7197,34.2745,72.1305,
-10.7431,0.51192,-97.7082,82.3612,173.4193,-133.5175,-816.9634,-350.4195,-3.5805,-0.51192,9.7197,10.7426,30.182,73.1534,
-13.3003,1.0229,-106.405,78.7807,160.6299,-127.8902,-817.4748,-358.093,-4.0925,-1.0229,7.1621,8.1849,32.7397,70.5957,
-13.8117,3.581,-117.1476,87.477,168.3034,-130.4479,-819.0091,-347.35,-3.581,-11.766,6.6506,9.7192,32.2283,64.968,
-14.8355,3.581,-119.1939,79.2921,178.5351,-122.2635,-825.1483,-341.2113,-3.581,-8.6964,11.766,6.6496,29.1587,60.8755,
-12.2774,13.3003,-125.844,76.7339,172.9073,-107.2635,-829.7522,-342.7461,-1.0229,-5.1153,10.2316,1.0229,33.7636,62.4108,
-14.8355,18.928,-125.3326,75.1996,170.3502,-102.824,-822.0787,-342.2346,2.5582,-11.766,4.6039,-2.5582,30.1825,63.9451,
-20.4628,10.2312,-113.5666,68.5495,183.1385,-117.6591,-821.5673,-343.7694,-1.0234,-9.2083,1.0234,2.0462,22.5086,58.3179,
-20.9738,2.5582,-115.1009,64.969,188.7667,-104.8698,-836.5673,-348.3728,-5.6268,0.51144,-0.51144,10.7431,24.0433,58.8298,
-7.6735,15.8584,-111.0089,72.13,177.5122,-89.8698,-851.5673,-341.2113,-1.5343,0.51144,-0.51144,15.8584,19.9509,63.9451,
-0.51144,30.8584,-116.1243,74.1768,185.6971,-87.477,-836.5673,-327.9105,-3.581,0.51144,-3.581,19.9509,11.766,60.8755,
-15.5114,15.8584,-131.1243,59.1768,196.9507,-97.7082,-821.5673,-332.003,-8.6964,2.5582,-2.5582,21.9976,14.8355,62.9222,
-24.5548,2.0462,-131.9827,67.5266,184.1623,-97.1963,-825.6597,-336.6069,-2.0462,-3.0691,12.2779,18.4161,27.6249,74.6877,
-20.4618,6.1387,-120.7282,72.642,169.1623,-95.15,-836.9138,-341.7227,-6.1387,-18.0691,8.1854,8.1854,17.3932,61.3874,
-12.2769,5.1158,-116.6357,64.457,171.885,-80.15,-823.613,-332.5144,-5.1158,-19.439,6.1387,18.4161,19.4399,58.3179,
-9.2078,3.0696,-118.6824,77.7568,186.885,-67.5261,-820.5439,-333.5378,-3.0696,-4.439,9.2078,20.4623,29.6701,67.5261,
-15.8584,3.581,-128.4017,78.2692,179.558,-82.5261,-830.2636,-348.5378,-3.581,-12.7888,7.6735,8.6964,28.1358,67.0147,
-11.7664,3.5805,-130.4484,69.0609,177.5117,-82.3617,-828.2179,-339.165,-2.5577,-16.8818,2.5577,7.673,25.0667,58.8293,
-6.1382,7.1621,-126.8669,75.7111,192.5117,-67.3617,-817.4743,-324.165,-1.0229,-8.1849,1.0229,9.2078,27.6244,67.5261,
-12.2769,6.1387,-128.9131,70.5952,207.5117,-75.7111,-813.3819,-314.0983,2.0462,-7.1616,-2.0462,2.0462,28.6477,75.7116,
-13.8117,14.8355,-129.425,73.1529,214.3444,-69.0609,-816.9629,-323.818,0.51144,-1.5343,-0.51144,9.7192,29.1587,72.13,
-13.3003,24.5548,-135.0523,71.6186,203.6013,-54.0609,-826.6826,-316.145,-6.1392,-1.0229,1.0229,15.347,22.509,64.4566,
-15.3465,27.6249,-133.0056,66.5028,199.5093,-54.2254,-823.613,-314.0983,-1.0234,-3.0691,1.0234,11.255,25.5781,65.4799,
-22.509,23.5319,-131.9827,66.5033,190.301,-65.4799,-818.4977,-323.3066,0,-2.0467,0,5.1153,25.5777,64.4566,
-27.6244,17.3927,-134.0289,64.4566,175.301,-70.5957,-818.4977,-328.4224,-1.0229,-1.0229,1.0229,8.1849,21.4852,61.387,
-18.4156,17.3937,-131.9822,70.5957,177.0008,-71.6181,-823.613,-325.3524,0,-3.0686,0,19.4394,23.5319,63.4337,
-14.3241,13.3003,-123.7983,72.6415,192.0008,-63.4337,-823.6135,-321.2609,0,-7.1621,0,21.4852,27.6244,67.5261,
-26.0891,11.766,-119.1939,67.0147,196.9507,-58.8293,-826.1712,-327.9105,-1.5343,-7.6735,1.5343,11.766,25.0662,57.8069,
-28.1353,24.0438,-125.3321,70.0838,196.9512,-53.7135,-830.2632,-322.7947,-2.5577,-4.6034,2.5577,9.7197,26.0896,62.9227,
-19.9504,30.182,-129.425,67.0142,211.2743,-48.5981,-821.0554,-307.7947,-4.6044,1.5348,-1.5348,18.9275,33.2516,77.9227,
-12.7888,29.1587,-126.3554,68.0376,222.5293,-46.5519,-808.778,-300.2861,-7.6735,2.5582,-2.5582,21.9976,30.1825,77.2454,
-17.9042,24.0433,-122.263,71.1072,230.7142,-43.4828,-807.7551,-312.564,-3.581,-5.6268,3.581,10.7431,30.1825,73.1529,
-27.6244,17.3927,-126.8674,68.549,227.1332,-47.0638,-814.4052,-314.0988,-4.0925,-7.1621,8.1849,4.0925,32.7397,78.7807,
-26.0896,16.8818,-139.6557,69.0609,216.3906,-46.5519,-829.4052,-299.2628,-9.7197,-1.5348,1.5348,14.836,25.0667,71.1077,
-22.5086,14.3236,-140.1681,70.5952,214.8553,-39.9023,-835.8914,-300.7981,2.0462,-2.0462,-3.0701,18.4161,25.5781,65.4799,
-27.1129,9.7192,-136.5866,73.1529,223.5522,-48.5981,-834.3561,-315.7981,5.6268,-17.0462,-0.51144,3.4161,25.0662,68.0376,
-29.6706,19.4394,-134.0289,72.6415,232.2486,-40.9246,-829.7522,-319.2141,-3.0696,-9.2078,7.1621,3.0696,27.6244,60.3641,
-40.4132,6.6511,-146.8178,58.8303,217.2486,-34.2745,-840.4948,-318.7022,-4.6034,1.5348,-1.5348,8.6969,14.836,46.5529,
-41.948,-1.0229,-152.445,64.4566,202.2486,-38.8784,-846.1221,-306.9363,10.2316,1.0229,-4.0925,8.1849,6.1392,55.2488,
-33.2516,-1.5348,-141.7029,64.9685,196.9512,-48.5986,-831.287,-307.4487,8.6959,-1.5348,3.5805,1.5348,8.6959,62.9218,
-34.7859,-12.2774,-127.8902,67.5261,200.5317,-56.2716,-826.6826,-322.2832,7.1621,-4.0925,4.0925,5.1153,8.1849,62.4108,
-46.0405,-20.4628,-136.0752,66.5028,186.2081,-65.4799,-841.6826,-329.4453,18.4161,-3.0691,3.0691,12.2779,4.092,57.295,
-48.0867,-9.2083,-151.0752,56.2721,184.1623,-62.4103,-855.3303,-327.3991,14.3236,-4.093,7.1616,7.1616,4.093,46.0405,
-43.4828,0.51144,-162.1647,58.8298,199.1623,-47.4103,-840.3303,-327.911,-0.51144,-2.5582,5.6268,1.5343,6.6506,43.4828,
-46.5524,-5.6277,-160.119,55.7602,214.1623,-44.5062,-831.287,-328.9344,7.6735,-3.581,6.6496,3.581,9.7192,48.5981,
-41.4366,-4.6039,-147.8411,59.8527,203.0899,-41.4366,-835.3795,-320.7489,18.928,-11.766,12.7888,4.6039,14.8355,51.6677,
-46.5519,0.51144,-148.864,63.9451,204.1137,-32.2283,-834.3556,-318.7022,9.7202,-10.7421,8.6973,-0.51144,12.7898,55.7602,
-54.2254,-6.1387,-155.5146,52.1796,217.9249,-23.5314,-829.7522,-317.1679,2.0462,-2.0462,8.1854,7.1616,10.2312,59.3407,
-43.9942,0,-163.699,52.1792,220.995,-13.3003,-827.7055,-311.0287,0,-9.2078,3.0696,9.2088,9.2088,55.2488,
-37.855,12.2774,-163.699,52.1792,215.8787,-7.1621,-825.6593,-312.0521,5.1163,-8.1849,-4.0925,4.0925,4.0925,56.2716,
-52.855,1.5348,-164.211,37.3441,200.8787,-17.9047,-831.287,-320.7489,1.5348,6.6501,-2.5577,4.6044,-1.5348,56.7835,
-51.6682,-4.6039,-167.2806,33.2511,186.719,-32.2283,-827.1945,-319.7261,0.51144,5.6268,0.51144,5.6268,-0.51144,59.8527,
-43.4823,5.6273,-160.1185,41.4366,189.7891,-32.2288,-816.9634,-314.6102,5.6273,-0.51192,0.51192,10.7426,-2.5577,56.7835,
-56.2721,7.1621,-160.6304,53.202,179.0465,-27.6244,-817.4748,-306.9368,3.0696,7.1621,-3.0696,15.347,-14.3241,50.1324,
-61.8989,3.581,-171.373,51.6677,173.4197,-24.0433,-812.8704,-298.2399,8.6964,10.7431,-3.581,14.8355,-5.6268,59.8527,
-58.3183,1.0234,-175.9774,45.0176,178.0232,-29.6706,-809.2899,-303.8676,5.1158,-1.0234,-2.0462,9.2083,5.1158,56.2711,
-59.3412,1.0229,-169.8387,58.3174,189.2772,-26.6015,-804.1745,-300.7981,-4.0925,-1.0229,8.1849,15.347,9.2078,55.2488,
-71.6186,-13.9771,-172.9078,56.2721,174.2772,-26.601,-806.2203,-296.7056,1.0234,-1.0234,4.093,12.2779,6.1387,58.3179,
-67.0147,-19.9509,-171.373,61.8984,159.2772,-27.1129,-804.686,-294.1479,6.6506,-2.5582,2.5582,6.6506,8.6964,52.6906,
-59.8527,-4.9509,-169.3268,64.968,165.2348,-17.9042,-794.4543,-289.0321,-5.6268,0.51144,8.6964,4.6039,11.766,51.6677,
-63.4337,6.1382,-170.8616,52.1792,172.9073,-5.1153,-787.8042,-284.4282,-8.1849,0,0,6.1382,8.1849,60.3641,
-56.7835,4.6034,-164.2115,57.8064,175.465,-2.5577,-775.0154,-277.7781,1.5348,-1.5348,-8.6969,9.7197,7.673,54.7368,
-51.1558,-1.0234,-151.4221,66.5028,184.1623,-8.1844,-760.1798,-275.2199,8.1854,1.0234,-4.092,3.0691,20.4628,50.1329,
-55.2483,-2.0462,-143.2367,62.4103,183.1395,-14.3236,-763.2489,-284.4277,11.254,7.1616,2.0462,-10.2312,26.601,59.3417,
-62.4103,-11.2545,-158.2367,49.1105,168.1395,-29.3236,-770.411,-299.4277,14.3241,7.1621,14.3241,-7.1621,26.6015,46.041,
-70.5952,-26.2545,-173.2367,39.9018,156.5375,-44.3236,-765.2952,-308.983,10.2316,3.0696,19.4394,-3.0696,21.4852,31.041,
-75.7111,-33.7631,-184.1623,39.9013,165.7458,-46.0405,-760.1798,-303.8676,1.0234,3.0691,9.2083,-1.0234,9.2083,31.7164,
-72.13,-18.9275,-173.4193,37.3441,167.2801,-31.0405,-751.4835,-293.1246,-0.51192,1.5348,0.51192,6.6501,5.6273,39.3898,
-58.3179,-3.9275,-159.6071,52.3441,181.0928,-16.0405,-736.6479,-278.1246,1.0234,11.254,-1.0234,21.6501,20.6273,53.2025,
-56.7831,-8.6964,-156.026,65.9918,179.558,-2.5582,-732.044,-275.7313,1.5343,18.928,-1.5343,31.2054,21.9976,58.8298,
-66.5028,-23.6964,-159.6071,53.2025,164.558,-6.1387,-737.6713,-290.7313,1.0234,3.928,-1.0234,16.3703,11.254,43.8298,
-66.5028,-16.3699,-163.6995,63.4337,170.8616,0,-733.5788,-275.7313,0,-9.2078,5.1153,11.2545,20.4623,49.1096,
-75.7111,-16.3699,-175.9774,54.2249,169.8377,4.0925,-731.5326,-271.1274,-10.2316,-4.0925,4.0925,9.2078,17.3927,59.3412,
-79.8035,-19.4399,-183.139,51.1558,154.8377,-2.0462,-730.5097,-285.4516,-9.2083,4.092,2.0462,8.1844,9.2083,46.0405,
-72.13,-11.7655,-178.5346,58.8293,167.2811,-5.6273,-729.9978,-283.9163,4.6044,1.5348,-1.5348,2.5577,11.7664,41.4366,
-68.5495,-12.2774,-169.8387,52.1792,182.2811,8.1849,-728.4635,-269.0812,6.1382,0,-5.1153,0,12.2774,51.1563,
-72.6415,-11.2545,-178.0232,47.0638,178.0236,22.509,-723.3472,-271.127,0,0,-2.0457,7.1621,9.2088,51.1563,
-76.7339,-5.1153,-185.1852,48.0867,165.7463,9.2078,-710.0469,-283.4048,1.0229,-3.0696,-1.0229,4.0925,9.2078,49.1096,
-74.1768,3.581,-174.4426,53.7135,168.3034,-3.581,-697.2581,-269.5931,-2.5582,0.51144,-0.51144,2.5572,8.6964,51.6677,
-74.6877,-6.1387,-183.1385,46.0405,173.9307,6.1387,-701.8615,-255.7805,-6.1387,2.0462,-2.0462,11.255,6.1387,48.0872,
-76.7339,-21.1387,-184.1619,37.856,168.8158,13.3012,-698.7924,-260.8958,0,-1.0229,0,10.2316,6.1392,47.0638,
-77.7573,-19.4394,-173.9312,48.0867,167.792,3.0696,-683.7924,-267.035,-1.0229,-6.1392,3.0696,2.0457,1.0229,46.04,
-77.2459,-7.6735,-176.4889,48.5981,177.5112,0.51144,-668.7924,-256.2924,-4.6039,-0.51144,5.6268,17.0457,16.0229,49.621,
-83.8965,-16.3703,-183.1395,45.0166,170.8611,2.0462,-666.0532,-253.7347,-2.0462,-3.0701,7.1616,27.6239,31.0229,51.1558,
-94.1276,-29.6711,-183.139,48.0867,155.8611,2.0457,-675.261,-257.8272,0,-14.3241,0,12.6239,16.0229,38.8789,
-97.7082,-36.3207,-187.7429,46.5524,143.7487,3.581,-676.7953,-255.269,-0.51144,-11.766,0.51144,1.5343,6.6506,31.2054,
-90.5461,-29.1592,-194.9049,46.5519,158.7487,3.5805,-663.495,-257.3153,-4.6044,-2.5577,2.5577,7.673,9.7197,37.3441,
-76.7339,-14.1592,-184.1619,49.1096,173.7487,11.2545,-649.6823,-255.7805,-1.0229,-1.0229,1.0229,11.2545,4.0925,39.9018,
-69.5724,0.84083,-174.9541,49.1096,180.0694,25.5777,-649.6828,-245.5493,0,-2.0467,0,7.1621,-4.0925,36.8322,
-79.2921,1.5348,-187.7429,40.4137,175.465,27.1125,-649.1709,-242.9916,-6.6501,-1.5348,-1.5348,7.673,1.5348,39.3898,
-79.8035,3.0691,-192.3473,27.6239,175.9764,13.3008,-643.5441,-249.6418,-8.1854,-8.1854,-3.0691,3.0691,4.092,40.9251,
-64.8035,13.8117,-179.558,41.4361,185.6971,16.8813,-645.0784,-246.0607,0.51144,-7.6735,-2.5582,-0.51144,1.5343,32.2283,
-61.8994,9.7197,-174.4426,43.4823,186.7195,18.9275,-648.148,-246.0612,-2.5577,-1.5348,-1.5348,6.6501,1.5348,17.2283,
-75.1996,-2.5577,-177.5117,30.182,178.5346,7.673,-637.9169,-244.0145,-10.7426,1.5348,-1.5348,7.673,2.5577,16.8818,
-71.1067,-0.51144,-184.6733,37.3446,170.3502,13.8127,-639.9626,-229.6909,-8.6964,-1.5343,0.51144,3.581,4.6039,30.1825,
-80.8269,-3.0696,-189.2777,40.9246,155.3502,20.4623,-654.9626,-236.3415,-6.1392,-11.2545,3.0696,4.0925,4.0925,29.6701,
-90.5466,-2.5577,-188.7662,41.4366,155.0027,15.8579,-669.9626,-245.0379,-11.7664,-12.7893,7.673,2.5577,10.7426,25.0667,
-84.4079,0.51144,-192.8587,37.3436,170.0027,23.0205,-659.4025,-236.8529,-13.8127,-11.766,3.581,-0.51144,18.928,26.0891,
-71.6186,7.1616,-194.3935,38.8784,177.0003,38.0205,-652.7519,-229.1794,-9.2083,-10.2312,-7.1616,8.1844,17.3932,25.5781,
-70.5957,17.3927,-188.2548,46.04,179.0465,41.9475,-658.8906,-234.2953,-14.3241,-7.1621,-9.2078,7.1621,13.3003,25.5777,
-70.5952,13.3003,-180.0694,46.041,192.3468,32.7397,-643.8906,-231.2257,-4.0925,-1.0229,1.0229,-1.0229,24.5548,36.8322,
-69.0605,6.6506,-186.7195,46.5524,191.8353,37.3446,-632.801,-227.6447,0.51144,-3.581,-3.581,-0.51144,19.9509,38.3675,
-71.1072,7.6735,-190.8125,43.4828,181.6037,47.5753,-637.9169,-233.7833,-14.4886,-3.581,-17.9051,3.581,8.6964,32.2283,
-77.2459,2.5577,-175.8125,42.4594,178.5346,38.367,-622.9169,-229.6909,-16.8818,-1.5348,-21.9971,1.5348,11.7655,37.3441,
-82.3612,2.5582,-174.4426,51.6677,172.3959,32.2283,-611.3158,-218.4369,-9.7202,-2.5582,-15.8584,4.6039,8.6964,37.3436,
-85.9427,2.0462,-189.2782,48.0862,173.9307,41.948,-614.8969,-216.9025,-10.2312,-2.0462,-2.0462,10.2312,9.2073,29.6706,
-93.6162,-1.5348,-188.7662,41.4366,185.6967,35.2974,-605.1771,-224.5755,-9.7197,-1.5348,1.5348,20.9733,24.2073,28.1353,
-101.2887,-7.1616,-195.4164,33.7631,170.8611,20.2974,-595.4569,-235.3181,-13.3008,7.1616,-11.254,24.5553,20.4628,29.6706,
-98.7311,-16.8818,-208.2052,26.0896,155.8611,16.8818,-595.9689,-236.8529,-15.8579,12.7893,-9.7197,20.9742,9.7197,32.2288,
-97.1968,-22.509,-207.6938,33.7626,147.3297,29.6701,-597.5036,-227.1332,-14.3241,1.0229,-1.0229,14.3241,16.3699,27.6244,
-90.0347,-8.1854,-192.6938,45.0176,157.5608,31.7164,-585.2263,-219.9716,-8.1854,-1.0234,1.0234,20.4618,25.5781,31.7164,
-91.5695,-2.5577,-181.6042,40.4137,164.2115,25.0667,-579.5985,-230.7142,-10.7426,2.5577,-5.6273,21.9971,17.9047,32.2288,
-97.1963,-17.3927,-183.1385,37.856,153.4689,35.8093,-568.8559,-232.2486,-14.3231,7.1621,-7.1621,20.4623,16.3699,26.6015,
-94.1276,-24.5558,-181.0932,39.9018,138.4689,42.9704,-556.579,-222.0179,-13.3012,4.0925,-4.0925,17.3927,20.4623,23.5319,
-82.8726,-10.2312,-183.139,45.0176,153.4689,39.9023,-557.6014,-214.8553,-9.2083,2.0462,-2.0462,18.4161,20.4628,30.6935,
-85.4308,-10.7426,-194.9049,32.2278,168.4689,32.2278,-558.1133,-225.5989,-12.7893,5.6273,-5.6273,14.8351,15.8579,31.2049,
-93.1043,-20.4628,-198.486,27.6239,153.4689,32.7402,-554.5323,-229.1794,-22.5086,6.1387,-6.1387,10.2312,18.4161,24.5553,
-83.8965,-8.1849,-190.301,42.6239,152.445,40.9246,-546.3478,-214.1794,-15.347,0,0,20.4623,27.6244,29.6701,
-82.3612,1.5348,-187.7429,47.5748,167.445,48.5986,-533.558,-199.1794,-8.6969,-5.6273,-1.5348,18.9275,25.0667,27.1125,
-89.5228,0.51144,-200.0203,33.2521,162.1652,50.6449,-530.4885,-202.0665,-19.9509,-0.51144,-12.7888,10.7431,13.8127,15.8584,
-95.1505,-7.1616,-206.6709,22.5086,147.1652,41.948,-534.07,-206.6709,-20.4628,7.1616,-15.3465,15.3465,11.254,12.2779,
-91.0576,-8.1849,-193.3697,30.694,137.099,31.7168,-530.9999,-201.5546,-12.2774,8.1849,-9.2078,22.509,15.347,17.3937,
-91.0581,-5.1158,-189.2777,37.8555,136.0756,32.7402,-527.9313,-197.4626,-22.5086,5.1158,-17.3932,27.6239,8.1844,26.601,
-89.5233,-7.673,-190.8125,36.3212,134.5404,41.4366,-512.9313,-187.7429,-15.8579,7.673,-11.7655,37.3441,12.7893,40.4137,
-91.0576,-22.673,-202.5779,37.8555,127.8907,35.8098,-503.376,-199.5088,-8.1844,3.0691,-3.0691,24.5553,16.3703,29.6706,
-96.6848,-29.1592,-203.0899,43.4823,128.4022,34.2745,-499.7955,-206.159,-6.6501,1.5348,-1.5348,17.9047,20.9742,20.9742,
-90.5461,-14.1592,-189.7891,45.529,140.6795,45.529,-486.4947,-191.159,-6.6501,2.5577,-2.5577,21.9971,25.0667,34.2745,
-78.7802,-13.3003,-198.4855,47.0638,152.446,53.203,-473.7054,-182.1156,-8.1849,4.0925,-4.0925,19.4394,21.4862,38.8789,
-92.0809,-28.3003,-212.8096,32.7397,152.445,45.0171,-471.6596,-197.1156,-11.2545,4.0925,-4.0925,9.2078,16.3699,28.6472,
-98.2196,-26.6015,-208.7171,28.6472,154.4917,45.0171,-470.6363,-197.4626,-12.2774,1.0229,-1.0229,5.1153,15.347,25.5777,
-83.2196,-15.8584,-204.1127,36.3207,156.026,54.7373,-461.9394,-182.4626,-9.7192,-0.51144,0.51144,13.8127,26.0901,31.2054,
-83.3841,-25.0667,-208.2052,35.2984,144.772,53.714,-462.9628,-174.4421,-10.7426,2.5577,-2.5577,21.9971,24.0438,33.2516,
-96.1734,-29.6706,-216.9021,37.8555,137.0985,48.0862,-460.4051,-189.4421,-16.3703,6.1387,-6.1387,17.3932,9.2083,30.6935,
-89.0118,-26.6015,-213.8325,34.7864,140.1676,39.9018,-455.2893,-200.5322,-20.4623,8.1849,-7.1621,12.2774,7.1621,22.509,
-86.4537,-30.1816,-216.3901,25.0662,137.6104,27.1129,-470.2893,-190.812,-24.0433,10.7431,-6.6506,15.8584,6.6506,11.766,
-97.7082,-33.2516,-223.5522,17.9047,128.4022,26.0896,-472.1711,-185.6967,-25.0667,6.6501,-1.5348,23.02,1.5348,8.6969,
-92.0809,-28.6472,-213.8325,23.5319,129.937,35.8093,-457.1711,-187.231,-18.4156,1.0229,-1.0229,31.7168,6.1392,18.4166,
-85.4308,-23.02,-207.1823,38.5319,134.5404,42.4594,-442.1711,-178.5351,-12.7893,4.6044,-4.6044,35.2974,13.8122,26.0896,
-100.2663,-29.6711,-211.7867,37.855,124.8206,35.8093,-440.9662,-180.0699,-11.2545,8.1849,-4.0925,32.7397,4.0925,24.5548,
-100.2663,-34.7869,-204.6247,34.7859,115.6124,37.8555,-435.8503,-181.0932,-12.2779,2.0462,-2.0462,35.8088,4.092,25.5781,
-87.989,-31.7173,-199.5093,40.9242,126.8669,47.0633,-428.6888,-169.8387,-9.2083,2.0462,-2.0462,30.6935,19.092,33.7631,
-91.0576,-33.7631,-201.5546,36.8327,133.0061,46.0405,-435.8499,-173.9302,-11.254,6.1387,-6.1387,19.4399,13.3008,29.6706,
-85.9422,-25.5781,-192.3468,40.9251,130.9593,49.1101,-429.7112,-176.9998,-12.2769,6.1387,-6.1387,29.6706,8.1854,29.6706,
-78.2687,-23.02,-187.7429,36.3212,132.4946,55.7597,-424.0844,-161.9998,-9.7197,1.5348,-1.5348,24.0438,17.9047,40.4137,
-85.4308,-28.1358,-198.9974,28.1358,133.517,53.7135,-427.1535,-149.8873,-8.6964,4.6039,-4.6039,9.0438,24.0433,39.3903,
-100.4308,-42.9709,-211.7862,24.5553,118.517,38.7135,-433.8036,-164.8873,-10.2312,-1.0234,1.0234,1.0234,17.3932,24.3903,
-106.4046,-56.2716,-204.6242,28.6477,103.517,23.7135,-426.6421,-179.8873,-1.0234,-7.1616,16.0234,1.0234,19.439,18.4161,
-98.7311,-57.8059,-208.2052,36.3207,88.517,8.7135,-428.1769,-186.72,-4.6039,-4.6039,13.8117,6.6506,13.8117,21.9976,
-96.6848,-42.8059,-205.1361,35.2974,94.6386,23.7135,-428.1769,-171.72,-6.6501,3.5805,-1.1883,21.6506,14.8351,26.0896,
-95.662,-28.1363,-194.9049,39.3898,95.6615,38.7135,-416.9223,-156.72,-6.6501,1.5348,-1.5348,36.3203,20.9733,31.2049,
-94.6391,-27.1129,-197.974,47.5753,109.9861,49.621,-401.9223,-158.0723,-4.6039,-2.5582,2.5582,23.0205,25.0662,35.2979,
-95.151,-31.7168,-203.6018,42.9704,115.6128,48.0867,-389.8099,-161.6538,0,0,-1.0238,31.7168,27.6234,33.7626,
-88.4999,-28.1353,-195.9278,45.529,107.9398,49.6215,-394.4133,-160.1185,-5.6273,1.5348,-1.5348,35.2984,26.0896,36.3212,
-77.7573,-24.5548,-184.1619,46.041,113.5671,53.202,-391.8556,-155.5146,-9.2078,0,0,24.5548,26.6015,36.8322,
-72.6415,-20.4618,-180.0694,46.0405,124.8211,68.202,-383.6707,-147.3292,-2.0462,-5.1148,2.0462,20.4628,34.7869,36.8327,
-75.7111,-16.3699,-184.1623,46.04,123.7978,75.7111,-387.7636,-143.2372,-1.0229,-14.3241,1.0229,19.4394,34.7864,36.8322,
-77.2459,-24.0438,-183.6504,41.4366,112.0323,60.7111,-390.3213,-144.772,-0.51192,-9.7197,0.51192,12.7893,31.2049,36.3212,
-76.2225,-21.9971,-184.6738,51.6672,101.8007,45.7111,-386.2289,-149.8873,-0.51192,-1.5348,0.51192,14.8351,30.182,33.2516,
-76.2225,-6.9971,-188.7658,46.5519,103.8474,60.7111,-373.951,-142.7253,-2.5577,-1.5348,1.5348,28.1363,32.2288,36.3212,
-78.7807,0,-193.3706,32.7397,106.4041,57.2945,-366.278,-141.1915,-4.0925,-12.2774,0,22.5081,30.693,34.7855,
-75.7106,-5.1149,-198.4855,45.0176,101.2892,46.0405,-365.2541,-146.3063,-2.0462,-7.1616,2.0462,15.3475,28.6477,28.6477,
-78.2687,-15.8584,-196.9507,39.3903,86.2892,44.5057,-363.7198,-148.864,-3.581,-7.6735,3.581,21.9976,27.1129,28.1358,
-93.1038,-27.6239,-190.3006,34.7869,71.2892,29.5057,-362.185,-145.283,-2.0462,-19.439,2.0462,19.4399,23.5324,35.8098,
-95.6624,-35.2979,-186.72,49.7869,64.968,19.9509,-359.6278,-148.8645,-0.51144,-14.8355,0.51144,17.9042,30.1816,38.3665,
-90.5466,-36.3212,-185.6967,54.7368,61.8989,33.2516,-355.5349,-153.9798,-0.51192,-6.6501,0.51192,29.1592,29.1592,39.3898,
-98.7311,-37.3436,-188.7658,49.622,61.8994,36.3207,-352.4653,-145.7949,-6.6506,-9.7192,6.6506,31.2054,16.8813,41.4371,
-108.9627,-47.5753,-187.7429,50.6444,68.0371,31.2049,-350.4195,-145.7949,-8.6969,-14.8351,8.6969,30.182,19.9504,40.4137,
-99.243,-43.9942,-187.2314,58.3179,72.642,45.0176,-352.9772,-149.3759,-2.0462,-7.1616,2.0462,36.8327,24.5553,41.948,
-94.6391,-40.4137,-201.0436,48.5976,72.1296,48.5976,-357.5816,-144.772,1.5348,-4.6044,-1.5348,25.0657,20.9733,36.3203,
-101.2892,-38.8789,-204.6247,36.8322,76.7339,39.9018,-350.931,-142.2143,-1.0229,-2.0467,1.0229,10.0657,20.4623,30.694,
-101.2887,-31.7168,-202.5779,40.9256,74.6882,47.0638,-344.7918,-157.2143,-6.1382,0,0,13.3012,16.3699,26.6015,
-96.6853,-29.1592,-200.0203,40.4137,61.8989,51.6672,-351.4424,-172.2143,-1.5348,-3.5805,1.5348,13.8122,14.8351,28.1363,
-98.2201,-28.6472,-204.6247,33.7626,49.1096,38.8789,-359.1159,-172.9078,-1.0229,-2.0467,1.0229,5.1153,19.4394,26.6015,
-87.9885,-25.5781,-200.5317,36.8327,58.3179,35.8098,-345.8152,-170.8611,-2.0462,-1.0234,1.0234,15.3465,24.5553,26.601,
-74.6882,-16.3703,-185.5317,39.9013,63.4332,43.9937,-330.8152,-172.9078,-2.0462,-4.093,2.0462,23.5314,19.439,28.6477,
-78.2687,-5.6268,-178.5351,40.4132,51.6677,45.5285,-327.9105,-172.3959,-5.6268,-0.51144,0.51144,16.8813,20.9738,25.0662,
-86.4537,-16.8818,-188.7658,38.367,42.4594,36.3212,-325.8643,-178.5346,-3.5805,1.5348,-1.5348,4.6044,18.9275,27.1125,
-86.4537,-28.1353,-185.6967,51.6682,49.6215,35.2974,-319.7256,-181.6042,-1.5348,-6.6501,1.5348,6.6501,20.9742,32.2288,
-91.57,-16.8823,-185.6971,55.7602,55.7602,45.5285,-314.6102,-176.4889,-3.581,-11.766,3.581,15.8584,30.1816,30.1816,
-98.7315,-19.9509,-192.8587,44.5057,45.5285,47.5753,-305.402,-176.4889,-0.51144,-11.766,0.51144,14.8355,28.1358,24.0433,
-89.0113,-24.5543,-193.3697,53.2025,48.0872,48.0872,-296.7051,-176.9998,-2.0462,-7.1616,2.0462,9.2083,24.5553,26.601,
-82.8726,-13.3008,-191.3234,53.2025,58.3179,61.3874,-292.6126,-174.9536,-9.2083,-6.1387,7.1625,6.1387,30.6935,33.7631,
-83.896,-1.0229,-187.2314,56.2716,65.4794,73.6644,-288.5207,-165.7458,-1.0229,-11.2545,1.0229,11.2545,41.9485,39.9018,
-85.9422,0,-191.3239,59.3412,63.4337,73.6644,-292.6131,-161.6533,0,-15.347,-13.3003,4.0925,35.8093,37.856,
-80.8269,1.0229,-193.3701,48.0867,62.4098,78.7807,-291.5903,-165.7458,-5.1153,-1.0229,-8.1849,3.0696,29.6701,30.693,
-79.2916,0.51144,-198.9969,41.4371,67.0147,68.0376,-295.1703,-178.5346,-10.7421,-0.51144,-8.6964,5.6277,20.9738,18.928,
-76.7339,2.0462,-192.3468,37.8555,76.7344,55.2483,-295.6822,-173.9307,-2.0462,-6.1387,-7.1616,2.0462,24.5553,22.5086,
-69.5729,2.0457,-183.1395,32.7397,71.6186,63.4327,-283.4053,-160.6304,0,-3.0696,-3.0696,0,30.693,25.5777,
-69.5724,1.0229,-188.2548,33.7626,66.5033,66.5033,-272.1508,-167.792,-12.2774,-1.0229,-9.2078,12.2774,20.4623,15.347,
-69.5724,2.0462,-184.1619,41.948,75.7116,57.295,-264.9888,-169.8382,-5.1158,-2.0462,-6.1387,24.5553,22.5086,24.5553,
-72.642,0,-191.3239,48.0867,62.4098,58.3174,-270.1046,-160.6304,0,-12.2774,-4.0925,13.3003,25.5777,32.7397,
-78.2687,-2.5582,-202.0665,47.5753,47.4098,65.9909,-265.5002,-152.9569,1.5343,-8.6964,-1.5343,6.6506,27.1129,27.1129,
-82.8731,-7.1621,-195.4164,47.0638,40.9246,55.2488,-263.9659,-162.6767,1.0229,-9.2078,0,0,29.6701,25.5777,
-75.1996,-0.51144,-185.6967,59.8527,55.9246,65.9909,-262.4311,-153.9798,-0.51144,-15.8584,2.5582,0.51144,33.2511,31.2054,
-71.6186,2.0467,-192.3468,51.1563,69.5729,79.8035,-249.6418,-149.3759,-3.0696,-16.3699,-1.0229,1.0229,32.7397,27.6244,
-66.5028,6.1392,-187.231,43.9942,69.5729,77.7578,-234.6418,-164.3759,0,-5.1153,0,0,35.8093,26.6015,
-62.4108,2.0462,-178.0236,43.9937,69.5714,72.641,-235.3186,-179.3759,-3.0701,-2.0462,3.0691,-4.093,34.7859,33.7631,
-61.3874,1.0234,-175.9774,51.1558,58.3179,64.4561,-237.3644,-194.3759,-5.1158,-3.0701,1.0234,-1.0234,32.7392,33.7631,
-69.0609,-1.5343,-183.6504,53.7135,43.3179,49.4561,-238.8992,-209.2286,1.5343,-3.581,-10.7431,2.5582,32.2283,23.0205,
-73.1534,-11.766,-184.6738,44.5057,38.3675,40.4132,-242.9916,-209.2286,5.6268,-5.6268,-12.7888,9.7192,33.2511,28.1358,
-69.0609,-15.8584,-185.6971,50.6439,43.4828,50.6439,-237.8763,-209.2291,0.51144,-1.5353,-0.51144,20.9738,35.2979,32.2283,
-69.5724,-21.4852,-197.4626,48.0867,29.6701,55.2488,-234.2948,-208.7171,-2.0457,-1.0229,1.0229,17.3927,30.694,24.5548,
-74.1763,-26.0896,-200.0203,36.3212,19.9504,47.5748,-235.8296,-203.0899,-0.51192,-10.7426,0.51192,13.8122,26.0896,27.1125,
-74.1763,-21.9976,-201.0436,45.5285,32.2283,50.6449,-234.8067,-201.0436,-5.6268,-11.766,5.6268,20.9738,28.1358,31.2054,
-73.6648,-21.4852,-200.5317,47.0638,38.8789,52.1792,-229.1794,-205.6475,-3.0696,-8.1849,3.0696,17.3927,32.7397,26.6015,
-74.1763,-17.9042,-196.9507,42.4599,30.1825,47.5753,-228.6675,-193.8816,0.51144,-15.8584,-0.51144,7.6735,29.1587,28.1358,
-72.13,-8.6964,-197.974,49.621,26.0891,50.6449,-228.668,-183.6504,-2.5582,-27.1129,2.5582,7.6735,29.1587,38.3675,
-78.7807,-8.1849,-196.4397,51.1563,28.6472,59.3412,-226.1103,-191.3239,-1.0229,-20.4623,2.0457,1.0229,35.8093,33.7626,
-79.2916,-8.6964,-188.7658,60.8755,31.2054,70.0843,-221.506,-183.6504,6.6506,-6.6506,3.581,-3.581,43.4828,29.1587,
-78.7807,-15.347,-189.2777,55.2488,16.3699,63.4337,-226.1103,-180.0699,4.0925,-15.347,3.0696,-3.0696,34.7855,28.6472,
-76.7344,-12.2779,-187.2314,48.0862,16.3694,59.3407,-228.1566,-184.1623,5.1158,-21.4857,2.0462,-2.0462,30.6935,36.8327,
-81.3388,-6.6511,-178.5351,50.6444,24.0429,60.875,-216.3906,-187.7434,14.8351,-13.8122,1.5348,-1.5348,41.4366,40.4127,
-84.4074,-16.8808,-175.465,53.714,9.0429,57.8064,-203.0894,-187.7424,14.836,-11.7655,-2.5577,2.5577,47.5757,41.4366,
-75.7111,-18.4166,-189.2777,60.3641,3.0696,59.3412,-197.4626,-185.1852,9.2078,-13.3003,-3.0696,4.0925,41.9475,45.0171,
-78.2687,-26.0891,-195.9273,52.6916,7.6735,52.6916,-191.8349,-188.7658,10.7431,-12.7888,-3.581,3.581,39.3903,41.4371,
-74.6882,-23.5314,-181.0928,53.2025,6.1387,48.0872,-186.2081,-183.139,16.3703,-11.254,-6.1387,16.3703,49.1101,42.9709,
-67.5261,-9.2083,-184.1619,52.1796,12.2779,57.295,-192.3468,-172.9078,7.1616,-13.3008,-7.1616,23.5314,46.0405,38.8784,
-72.13,-17.9051,-189.7891,39.3903,17.9042,58.8298,-193.8816,-178.5351,3.581,-13.8127,-3.581,18.928,34.275,33.2511,
-76.7344,-32.7402,-188.2548,47.0633,10.2312,43.8298,-188.2548,-181.0932,2.0462,-23.5324,-2.0462,15.3465,34.7859,33.7621,
-71.1067,-26.0891,-191.8349,52.6916,6.6506,44.5066,-186.7195,-174.4421,-3.581,-27.112,3.581,8.6973,42.4599,37.3446,
-67.5261,-11.0891,-185.1852,53.202,15.347,59.5066,-180.0699,-173.9312,-1.0229,-18.4166,1.0229,8.1849,41.9475,37.855,
-69.0605,-1.5348,-170.1852,60.876,18.9275,74.5066,-173.4193,-163.1881,1.5348,-16.8818,-3.5805,13.8122,40.4137,39.3908,
-70.5952,-10.2316,-166.7691,57.2945,14.3241,81.8503,-169.8382,-151.4221,-2.0467,-20.4623,2.0467,12.2774,42.9714,41.9485,
-68.549,-12.2779,-173.9307,55.2483,18.4161,69.5724,-168.8154,-155.5146,-7.1616,-19.439,7.1616,7.1616,39.9023,37.8555,
-71.1067,-10.7431,-175.4655,50.6449,24.0433,64.968,-167.2806,-162.1647,-3.581,-21.9966,7.6735,3.581,37.3446,36.3207,
-78.2687,-15.8584,-173.4193,45.5285,11.766,53.7135,-169.3268,-158.0723,-1.5343,-31.2054,2.5582,1.5343,37.3436,31.2054,
-70.5952,-6.1387,-169.8382,56.2721,11.254,58.3179,-163.6995,-143.0723,5.1158,-19.439,-5.1158,16.5343,41.948,38.8784,
-68.0376,1.5348,-183.6504,46.5519,4.6044,63.9446,-165.2343,-151.9336,-1.5348,-24.0438,-19.9514,20.9742,34.2745,35.2974,
-65.4799,6.1382,-188.2548,49.1096,0,58.3174,-164.7229,-157.5608,0,-33.7636,-13.3012,14.3231,34.7855,25.5777,
-70.5952,-2.0462,-178.0232,53.2025,-5.1158,43.3174,-156.5375,-151.4217,15,-22.5086,1.6988,19.4399,48.0872,24.5553,
-79.2921,-17.0462,-173.4193,54.7368,-20.1158,34.2745,-152.9569,-145.7949,25.0667,-16.8818,16.6988,17.9047,50.6444,24.0429,
-75.1996,-19.9509,-170.3497,69.7368,-29.1592,34.2745,-150.9107,-135.5637,33.2516,-17.9047,31.6988,17.9047,47.5748,37.3441,
-80.3155,-24.0438,-172.3964,69.0609,-25.0667,19.2745,-155.0032,-132.4946,32.2278,-13.8122,17.9047,23.02,45.529,45.529,
-76.223,-28.1363,-171.373,65.9913,-14.8351,26.0896,-146.8182,-124.3097,25.0667,-2.5577,2.9047,27.1125,47.5748,40.4127,
-61.3874,-13.1363,-165.7458,80.9913,-3.0691,41.0896,-131.8182,-117.6591,21.4857,-9.2083,3.0691,30.6935,54.2254,48.0862,
-60.3641,-5.1158,-161.6533,81.8498,-8.1844,56.0896,-120.7282,-113.5666,26.601,-22.5086,5.1158,24.5553,53.2025,55.2483,
-57.8064,-12.7888,-163.1876,86.4542,-8.6964,71.0896,-127.3783,-102.8235,30.1825,-15.8584,8.6964,20.9738,52.6906,53.7144,
-57.8064,-19.9509,-168.3034,83.3851,-2.5577,70.0838,-127.3783,-106.916,15.1825,-19.9509,2.5577,15.8589,44.5062,42.4594,
-50.6449,-8.6964,-156.0265,74.1758,6.6496,67.0147,-117.1476,-98.7315,3.581,-19.9514,-3.581,15.8584,38.3665,35.2979,
-49.6215,-4.6039,-157.0494,59.8527,10.7431,65.9918,-118.1705,-83.7315,13.8127,-14.8355,-14.8355,4.6039,39.3903,30.1825,
-51.6677,-1.5348,-172.0494,49.6215,9.7197,76.223,-121.2396,-68.7315,15.8589,-17.9047,-23.02,1.5348,36.3212,27.1125,
-54.7373,10.7426,-185.6967,45.529,-1.5348,71.1067,-125.3326,-53.7315,0.85891,-32.9047,-32.2288,7.673,21.3212,12.1125,
-49.1101,22.5086,-170.6967,50.1329,2.0462,64.4561,-120.7287,-38.7315,-14.1411,-46.041,-26.601,2.0462,10.2312,-2.0462,
-47.0638,27.6239,-155.6967,57.295,9.2083,77.7573,-112.5432,-23.7315,-9.2083,-42.9714,-16.3703,-12.2779,22.5086,12.9538,
-47.5753,29.1587,-165.2343,46.5524,3.581,89.5228,-118.1705,-8.7315,-3.581,-43.4828,-19.9509,-11.766,15.8584,15.8584,
-44.5052,25.0667,-167.2801,39.3908,8.6969,89.5233,-122.263,6.2685,-15.8579,-46.5519,-32.2278,-1.5348,5.6273,1.5348,
-49.621,20.9738,-166.2572,52.6906,12.7888,92.5924,-122.263,21.2685,-30.1825,-53.714,-40.4132,3.581,4.6039,-3.581,
-49.6215,21.9976,-174.4421,50.6449,0.51144,100.7773,-125.3321,36.2685,-25.0662,-53.714,-34.274,-0.51144,6.6506,2.5582,
-34.6215,36.9976,-167.792,57.2955,6.1392,108.4508,-117.6586,51.2685,-15.347,-45.0171,-28.6472,-3.0696,13.3012,3.0696,
-19.6215,51.9976,-157.0494,63.9446,21.1392,120.2172,-103.8469,66.2685,-20.9742,-48.5986,-27.1125,0.51192,13.8122,-0.51192,
-26.6005,45.0181,-154.4912,53.203,36.1392,121.752,-95.15,81.2685,-22.5081,-56.2716,-26.6005,0,9.2088,0,
-12.2769,59.3417,-151.4221,67.5266,51.1392,126.8669,-85.9422,96.2685,-12.2769,-41.948,-25.5781,-5.1158,18.4161,5.1158,
-1.5343,73.1529,-157.0494,64.968,57.8069,141.8669,-84.4074,111.2685,-14.8355,-34.274,-26.0891,-5.6268,16.8813,1.5343,
0.51192,87.4765,-151.9336,49.968,64.9685,156.8669,-85.4308,126.2685,-20.9742,-43.4823,-21.9971,-0.51192,5.6273,-3.5805,
11.766,102.4765,-144.772,47.5753,78.2683,162.1643,-83.3846,141.2685,-26.0901,-43.4828,-28.1358,-0.51144,0.51144,-6.6506,
23.02,117.1476,-144.772,46.5519,86.4537,148.8645,-69.0609,156.2685,-19.9514,-37.3441,-33.2516,-4.6044,4.6044,-11.7664,
30.694,122.7749,-140.1676,58.3183,101.4537,151.4221,-54.2254,171.2685,-10.2316,-34.7864,-22.509,-6.1392,6.1392,-10.2316,
32.2288,133.5175,-137.61,56.7835,114.078,163.1886,-53.714,186.2685,-15.8579,-40.4127,-26.0896,-4.6044,4.6044,-8.6969,
38.8789,148.5175,-133.0056,59.3412,113.5671,164.7234,-50.1329,201.2685,-19.4394,-43.9942,-36.8322,-3.0696,3.0696,-8.1849,
48.5986,163.5175,-120.2167,74.3412,128.5671,173.4193,-43.4823,216.2685,-13.8122,-46.5519,-34.2745,-1.5348,1.5348,-1.5348,
48.5981,178.5175,-116.1243,68.0376,132.4941,184.6733,-44.5057,231.2685,-15.8584,-48.5981,-35.2979,2.5582,-7.6735,-2.5582,
63.5981,193.5175,-118.6824,68.549,134.0294,192.3468,-37.8555,246.2685,-19.4394,-43.9942,-43.9942,3.0696,-10.2316,-3.0696,
78.5981,204.6242,-115.6128,83.549,149.0294,199.5088,-26.601,261.2685,-13.3003,-43.9942,-37.8555,-6.1382,3.0696,-3.0696,
70.0838,195.9283,-114.078,78.2687,147.8416,206.159,-29.1592,276.2685,-11.7655,-43.4828,-25.0667,-12.7893,5.6273,-5.6273,
65.4799,196.4397,-120.7282,68.5495,132.8416,208.7171,-34.7859,291.2685,-12.2769,-39.9018,-29.6706,-12.2769,1.0234,-1.0234,
62.4103,192.3473,-128.9136,64.457,127.8897,193.7171,-36.8327,306.2685,-8.1854,-37.8555,-41.948,-17.3932,1.0234,-1.0234,
48.5986,177.5117,-135.5637,67.0142,135.5632,185.6967,-37.3441,321.2685,-15.8589,-30.182,-38.3675,-10.7426,6.6501,-6.6501,
33.5986,162.5117,-141.191,56.2721,120.5632,180.0699,-39.9013,317.1679,-28.6477,-26.601,-30.6935,-2.0462,2.0462,-9.2083,
35.2974,147.5117,-132.4946,51.6672,105.5632,165.0699,-40.4137,329.9567,-13.6477,-29.1592,-27.1134,1.5348,-1.5348,-1.5348,
21.9971,132.5117,-146.8182,53.714,90.5632,150.0699,-52.6911,314.9567,-1.5348,-35.2984,-32.2288,1.5348,-7.674,-11.7664,
6.9971,117.5117,-153.9798,51.6677,75.5632,135.0699,-46.5519,309.4949,-7.6735,-23.0205,-19.9509,5.6277,-2.5582,-9.7192,
-7.1616,102.5117,-146.3063,57.295,60.5632,120.0699,-40.9246,324.4949,1.0234,-23.5314,-12.2769,-1.0234,5.1158,-5.1158,
-13.8117,87.5117,-140.6791,62.9222,45.5632,105.0699,-45.529,339.4949,2.5582,-34.274,-17.9042,-2.5582,7.6735,-8.6964,
-17.3932,72.5117,-128.9136,64.457,30.5632,90.0699,-35.8093,324.4949,-5.1158,-29.6706,-17.3932,2.0462,17.3932,-2.0462,
-23.5319,57.5117,-133.0056,62.4108,18.4166,75.0699,-34.7855,315.1217,-1.0229,-25.5777,-16.3699,0,16.3699,0,
-32.7402,42.5117,-148.0056,52.1796,3.4166,60.0699,-35.8088,330.1217,12.2779,-22.5086,-18.4161,4.093,3.0691,-6.1387,
-37.3441,33.2516,-148.864,52.6911,-6.6501,67.0142,-27.1125,338.1417,8.6969,-14.8351,-17.9047,6.6501,7.674,-8.6969,
-39.3903,39.3903,-143.7487,55.7602,-0.51144,69.0605,-28.1358,337.1193,8.6964,-15.8584,-17.9042,0.51144,17.9051,-0.51144,
-44.5057,24.3903,-149.8873,48.5981,-7.6735,54.0605,-43.1358,335.0726,11.766,-23.0205,-18.928,2.5582,15.8584,-2.5582,
-50.1329,9.3903,-149.3759,61.3874,-18.4161,39.0605,-45.0176,336.6074,13.3008,-11.254,-12.2779,17.5582,19.439,2.0462,
-65.1329,-5.6097,-152.9569,63.9446,-33.4161,31.2049,-38.3675,340.1884,21.9971,-2.5577,-8.6969,15.8579,26.0896,2.5577,
-71.6191,-20.6097,-160.6304,55.2483,-48.4161,31.7164,-37.856,351.9534,27.6239,-2.0462,-4.093,10.2312,31.7164,2.0462,
-72.642,-24.5553,-167.7925,48.0862,-57.295,20.4618,-41.9485,342.7456,19.439,-10.2312,-2.0462,8.1844,25.5781,2.0462,
-71.6186,-39.5553,-161.6533,54.2259,-58.3179,35.4618,-41.948,332.5144,17.3927,-13.3003,0,7.1621,20.4623,0,
-64.968,-36.3207,-151.9336,69.2259,-56.7831,50.4618,-42.4594,341.2113,18.9275,-6.6501,-3.5805,16.8818,21.9971,3.5805,
-70.5952,-34.7864,-154.4917,63.4337,-58.3179,65.4618,-42.9714,333.5383,15.347,-3.0696,-6.1392,18.4166,23.5319,3.0696,
-75.7111,-49.1101,-155.5146,55.2483,-65.4799,55.2483,-40.9251,328.4224,18.4161,-6.1387,2.0462,15.3465,25.5781,-2.0462,
-74.6877,-47.0633,-157.5604,65.4804,-75.7106,62.4108,-46.04,340.7003,18.4166,-1.0229,0,16.3708,19.4394,0,
-83.3846,-43.4828,-161.1419,57.8069,-88.4999,61.8994,-52.6906,346.3271,10.7431,2.5582,-10.7431,10.7431,10.7431,-2.5582,
-88.5004,-54.7373,-161.1419,55.7602,-90.5466,50.6449,-47.5753,334.0497,14.8355,0.51144,-11.766,13.8117,15.8584,-0.51144,
-87.4765,-69.7373,-164.211,58.8303,-91.569,40.4137,-43.4823,320.7489,17.9047,-5.6273,-5.6273,17.9047,24.0438,5.6273,
-87.9885,-71.6186,-169.8382,58.3179,-96.1734,36.8327,-46.0405,330.4682,14.3236,-9.2083,-6.1387,7.1616,21.4857,6.1387,
-91.5695,-56.6186,-168.3034,55.7607,-93.6157,44.5062,-47.5753,343.258,16.8818,2.5577,-9.7197,7.674,17.9047,-2.5577,
-94.6386,-58.8293,-153.3034,44.5062,-93.6157,50.6444,-40.4132,328.258,23.02,11.7664,-7.673,7.673,18.9275,-7.673,
-92.5924,-67.0142,-140.6791,51.6677,-96.6848,56.7831,-29.1587,314.6102,17.9051,4.6039,-7.6735,2.5582,18.928,-2.5582,
-82.3617,-52.0142,-136.5871,64.968,-87.477,70.0833,-15.8584,329.6102,19.9509,-0.51144,-7.6735,8.6964,23.0205,0.51144,
-73.1534,-37.0142,-129.425,65.9909,-76.223,68.0376,-4.6039,344.6102,26.0891,-0.51144,-2.5582,11.766,29.1587,0.51144,
-80.315,-52.0142,-136.5866,63.9456,-79.2921,53.0376,-6.6501,329.6102,17.9047,-7.673,-1.5348,5.6273,21.9971,1.5348,
-88.5004,-67.0142,-146.8182,53.714,-92.5929,38.0376,-12.7893,321.7718,16.8818,-10.7426,-2.5577,10.7426,14.8351,2.5577,
-85.9422,-56.2716,-150.3988,55.2488,-93.1038,53.0376,-13.3003,336.7718,19.4394,-8.1849,-1.0229,20.4623,20.4623,1.0229,
-80.8269,-53.2025,-149.3764,61.3874,-82.8731,68.0376,-3.0701,344.7923,17.3932,-7.1625,2.0462,22.5086,29.6706,-2.0462,
-77.7578,-68.2025,-146.3068,61.387,-90.0352,53.0376,0,329.7923,20.4623,-10.2316,0,17.3927,29.6701,0,
-82.3612,-76.2225,-147.8411,64.968,-97.7082,38.0376,-6.6506,318.7027,21.9976,-15.8584,0.51144,14.8355,28.1358,-0.51144,
-95.662,-74.1763,-149.8873,61.8989,-94.6386,23.0376,-6.6501,313.5869,17.9047,-15.8579,6.6501,8.6969,28.1363,-6.6501,
-91.5695,-64.968,-144.7715,60.876,-88.4999,29.1592,-5.6273,305.402,17.9047,-4.6044,2.5577,5.6273,27.1125,-2.5577,
-79.2916,-62.9218,-138.6328,56.784,-79.2916,44.1592,-2.5572,317.6798,19.9509,-1.5343,0.51144,-0.51144,29.1597,1.5353,
-79.8035,-77.7573,-138.1214,58.3183,-80.8269,37.855,0,326.3762,22.509,-13.3003,4.0925,-5.1153,29.6701,0,
-77.7573,-66.5033,-135.0523,73.3183,-81.8498,22.855,1.0234,323.3061,20.4618,-15.3465,3.0691,-1.0234,27.6239,-1.0234,
-76.7339,-52.1792,-133.0056,68.549,-82.8726,24.5548,3.0696,308.3061,13.3003,-7.1621,-1.0229,1.0229,28.6472,-3.0696,
-85.4303,-63.9446,-144.7715,60.8765,-95.6615,27.1129,6.6506,305.4024,9.7202,-4.6039,-0.51144,0.51144,29.1597,-4.6039,
-83.3846,-74.1763,-155.0032,67.0147,-109.9856,20.9738,0.51144,320.4024,14.8355,-6.6506,-0.51144,10.7431,27.1129,-6.6506,
-76.2225,-74.1763,-148.8645,59.8527,-103.8469,14.8355,2.5582,329.9572,16.8813,-7.6735,-2.5582,21.9976,26.0901,-6.6506,
-78.7807,-67.5261,-144.2601,55.2483,-96.1734,13.3008,12.2779,327.3996,7.1616,-7.1616,-9.2083,24.5553,19.439,-8.1854,
-82.3617,-63.9451,-145.7949,51.6677,-111.1734,19.9509,12.7888,324.8409,10.7431,-13.8127,-14.8355,25.0662,16.8813,-10.7431,
-79.8035,-58.3179,-139.1448,52.1796,-110.497,30.6935,13.3008,313.0754,13.3008,-22.5086,-16.3703,19.439,17.3932,-13.3008,
-80.8269,-45.0176,-136.0752,58.3179,-95.497,29.6706,18.4161,316.145,3.0691,-21.4857,-12.2779,12.2779,16.3703,-3.0691,
-84.9189,-49.1096,-141.1905,54.2254,-80.497,14.6706,17.3932,331.145,-1.0234,-22.5086,-9.2083,4.093,19.4399,1.0234,
-82.3612,-64.1096,-139.6557,60.876,-72.13,1.5348,20.9742,328.9339,13.9766,-27.1125,2.5577,-1.5348,32.2288,-8.6959,
-87.477,-79.1096,-141.7024,63.9456,-86.4537,-1.5348,18.9275,313.9339,26.0896,-26.0896,17.5577,1.5348,32.2288,-11.7655,
-94.1272,-77.7573,-140.1676,64.4566,-96.1734,-6.1382,5.1153,301.8214,26.6015,-11.0896,23.5319,9.2078,29.6711,-5.1153,
-96.6848,-74.1763,-138.6328,56.784,-99.7539,0.51144,-0.51144,316.8214,23.0205,-2.5572,8.5319,9.7202,29.1597,-1.5343,
-98.2196,-87.9885,-147.3297,41.784,-101.2892,7.1616,6.1387,319.2137,12.2779,-17.5572,-6.4681,4.093,18.4161,-4.093,
-85.9422,-72.9885,-147.3297,51.1558,-96.1734,2.0462,12.2779,313.0754,16.3703,-23.5314,-8.1854,9.2083,17.3932,-2.0462,
-86.4542,-67.0147,-139.6562,52.6906,-100.7778,-9.7202,16.8813,318.7027,23.0205,-14.8355,3.581,9.7192,24.0433,-3.581,
-86.9651,-82.0147,-124.8206,54.2259,-107.4274,-8.1849,24.5558,306.9368,21.4862,-12.2774,0,16.3699,29.6711,0,
-83.8955,-84.9189,-125.8435,59.3412,-108.4508,-6.1382,23.5319,291.9368,16.3708,-17.3927,-4.0925,23.5319,24.5558,4.0925,
-86.4537,-73.1534,-128.4017,51.6682,-104.8698,-9.7197,20.9742,303.3562,21.9971,-19.9504,-1.5348,11.7664,19.9514,1.5348,
-89.0113,-72.6415,-119.7053,62.4108,-97.1963,-6.1382,19.4394,318.3562,19.4394,-19.4394,1.0229,11.2545,23.5319,-1.0229,
-95.662,-83.3846,-113.0552,69.0609,-103.8469,-10.7426,17.9047,309.4944,9.7197,-15.8579,1.5348,20.9742,26.0896,-1.5348,
-96.1734,-81.8498,-113.5666,60.3646,-110.4975,-19.439,21.4857,294.4944,15.3465,-14.3236,1.0234,18.4161,26.601,-1.0234,
-97.1968,-73.6653,-126.8674,57.2945,-103.3354,-4.439,20.4623,291.5898,14.3231,-16.3699,-5.1163,15.347,22.5081,4.0925,
-107.9393,-88.6653,-141.8674,53.714,-113.0547,-1.5348,13.8122,290.055,1.5348,-24.0429,-11.7655,8.6969,16.8818,2.5577,
-104.8698,-96.6848,-135.5632,62.9227,-111.0085,-2.5577,23.021,284.9396,10.7426,-17.9047,-2.5577,6.6501,25.0667,2.5577,
-102.824,-81.6848,-134.5409,54.7363,-104.8702,-4.6039,25.0662,277.7771,15.8584,-14.8355,-4.6039,4.6039,25.0662,4.6039,
-97.7082,-74.1763,-131.4713,49.6215,-107.9393,-6.6501,21.9971,276.7547,11.7664,-14.8351,-10.7426,8.6969,21.9971,6.6501,
-84.9194,-76.7344,-119.7058,64.4561,-103.3354,2.0462,26.601,279.3119,15.3465,-14.3236,-8.1854,9.2083,22.5086,-2.0462,
-78.2687,-71.1072,-107.9393,63.9451,-94.6386,7.6735,32.2283,272.6618,27.1129,-8.6964,-0.51144,0.51144,26.0901,-4.6039,
-84.4074,-61.8989,-114.078,58.8298,-95.662,-1.5343,40.4132,260.3844,26.0901,-4.6039,0.51144,-0.51144,25.0662,0.51144,
-86.4537,-57.8064,-129.078,52.6911,-90.5461,-1.5348,48.5986,258.3381,18.9275,-7.673,0.51192,11.7664,17.9047,-0.51192,
-86.4542,-61.8989,-133.5175,40.4132,-92.5929,0.51144,45.5285,262.4311,14.8355,-20.9738,-0.51144,8.6964,9.7192,-0.51144,
-94.1272,-62.4103,-129.9365,45.0171,-107.5929,-14.4886,37.855,247.4311,10.2316,-26.6015,4.0925,-4.0925,7.1621,4.0925,
-106.9165,-68.0376,-135.5637,44.5062,-115.1014,-25.0667,38.367,232.4311,5.6273,-23.02,0.51192,0.51192,6.6501,-0.51192,
-97.1968,-69.5724,-128.9136,55.2483,-101.2892,-13.3008,45.0176,218.9478,10.2312,-19.439,-7.1616,12.2779,11.254,7.1616,
-90.0347,-78.7807,-118.6824,70.2483,-100.2659,-18.4166,39.9018,219.9712,22.509,-18.4166,-3.0696,3.0696,20.4623,18.4166,
-103.335,-93.1038,-133.0056,55.2483,-114.5895,-33.4166,33.7636,204.9712,20.4623,-28.6472,8.1849,-5.1153,18.4166,5.1153,
-101.2892,-82.8731,-141.191,45.0171,-109.4741,-24.5548,42.9714,189.9712,17.3927,-37.8555,16.3699,0,14.3241,0,
-95.1505,-79.804,-131.9832,47.0633,-97.1968,-27.6249,48.0862,174.9712,20.4618,-34.7864,14.3236,-9.2083,18.4161,9.2083,
-90.5461,-74.1763,-123.2863,57.8064,-90.5461,-35.2979,50.6444,164.2115,23.02,-19.7864,6.6501,-6.6501,24.0438,17.9047,
-91.0576,-62.4103,-127.8902,54.2259,-92.0809,-28.6472,49.1105,149.2115,17.3937,-20.4623,-3.0696,3.0696,18.4166,9.2088,
-94.1272,-73.6648,-126.8674,39.2259,-97.1968,-20.4623,43.9942,134.2115,10.2316,-31.7168,1.0229,0,10.2316,0,
-99.243,-81.8498,-127.8902,37.856,-94.1272,-27.6244,34.7864,119.2115,1.0229,-28.6472,3.0696,2.0467,2.0467,-1.0229,
-98.7315,-66.8498,-131.4713,39.3903,-82.3612,-34.275,38.3675,104.2115,4.6039,-26.0901,-0.51144,8.6964,7.6735,0.51144,
-94.1276,-58.3183,-138.1219,36.8327,-83.896,-36.8327,41.948,89.2115,7.1616,-29.6706,1.0234,-1.0234,12.2769,4.092,
-90.5466,-71.1072,-141.7024,45.529,-97.7082,-36.3212,41.4366,74.2115,5.6273,-23.02,6.6501,-5.6273,8.6969,7.673,
-101.2892,-79.8035,-146.3063,38.8789,-101.2892,-35.8093,38.8789,59.3412,1.0229,-29.6701,0,2.0467,2.0467,0,
-103.8474,-64.8035,-148.8645,39.3903,-86.2892,-27.1129,43.4828,55.7602,0.51144,-36.3207,-0.51144,10.7421,4.6039,2.5572,
-101.2892,-70.5952,-152.445,36.8322,-89.0113,-31.7168,38.8789,52.1792,0,-35.8093,0,1.0229,6.1392,6.1392,
-99.243,-83.896,-146.3063,34.7864,-91.0576,-35.8093,33.7636,39.9018,2.0467,-30.694,0,1.0229,6.1392,0,
-92.5929,-68.896,-137.6104,39.3903,-77.2459,-24.0433,43.4828,40.4132,0.51144,-29.1597,-0.51144,6.6496,2.5572,1.5343,
-85.9417,-53.896,-131.9822,37.856,-69.5719,-17.3927,56.2716,34.7864,2.0467,-29.6701,0,0,8.1849,12.2774,
-85.4303,-54.7363,-133.517,40.4132,-62.9218,-19.9509,56.7831,19.7864,4.6039,-30.1816,0.51144,-0.51144,15.8584,10.7431,
-92.0809,-61.3874,-141.191,33.7631,-66.5033,-20.4628,56.2711,13.3008,2.0462,-31.7173,-2.0462,5.1158,9.2083,5.1158,
-86.9651,-60.3641,-135.0523,34.7864,-80.8264,-22.509,66.5033,20.4623,7.1621,-27.6244,4.0925,-4.0925,4.0925,6.1392,
-74.6877,-51.1563,-126.8674,49.1101,-74.6877,-17.3932,69.5724,18.4161,9.2083,-26.601,5.1158,-5.1158,8.1854,9.2083,
-76.7339,-48.0867,-129.9365,37.856,-68.549,-13.3003,64.4566,9.2078,1.0229,-27.6244,-1.0229,9.2078,7.1621,7.1621,
-75.7111,-43.9942,-129.9365,32.7397,-74.6882,-17.3937,64.4566,13.3003,0,-24.5548,0,9.2078,4.0925,11.2545,
-74.1763,-40.4137,-134.5409,42.4594,-74.1763,-18.9275,67.0142,13.8122,3.5805,-30.182,3.5805,-3.5805,10.7426,15.8579,
-78.2692,-42.4599,-133.5175,42.4589,-75.1996,-12.7888,67.0147,5.6268,-0.51144,-39.3903,0.51144,0.51144,12.7888,15.8584,
-74.6882,-31.7168,-130.9598,50.1324,-75.7111,-17.3937,67.5261,9.2078,-1.0229,-27.6244,1.0229,10.2307,9.2078,20.4623,
-77.2459,-29.1592,-132.4941,44.5062,-80.315,-32.3937,67.0142,13.8122,-0.51192,-20.9742,0.51192,1.5348,4.6044,20.9742,
-72.13,-29.1592,-123.2863,44.5062,-78.2687,-47.3937,80.3155,12.7893,-1.5348,-28.1363,1.5348,4.6044,6.6501,31.2049,
-59.8531,-26.0901,-114.0785,49.621,-63.2687,-54.7373,92.5924,0.51144,-0.51144,-29.1597,3.581,12.7888,7.6735,37.3436,
-54.7368,-23.02,-99.0785,52.6911,-53.714,-58.8293,98.7311,-1.5348,11.7664,-20.9742,10.7426,1.5348,15.8589,30.182,
-60.876,-16.8818,-95.662,59.8522,-59.8527,-58.8298,100.7778,6.6501,11.7655,-20.9742,7.673,-6.6501,19.9504,27.1125,
-62.4103,-14.3236,-107.4279,50.1329,-60.3641,-43.8298,97.1968,5.1158,6.1387,-19.439,2.0462,-2.0462,14.3236,27.6239,
-48.0867,-7.1621,-107.4279,55.2488,-53.2025,-32.7397,93.1038,0,14.3241,-12.2774,11.2545,0,17.3927,25.5777,
-44.5057,-0.51192,-105.8931,65.9913,-51.6677,-43.4828,94.6386,-0.51192,20.9742,-3.5805,17.9047,0.51192,23.02,32.2288,
-55.2488,-8.1849,-117.6591,51.1563,-62.4103,-57.295,99.243,-6.1392,13.3003,-6.1392,9.2078,6.1392,14.3241,32.7397,
-56.7831,-8.6969,-119.1934,46.5519,-70.0838,-51.6677,105.8931,-8.6969,9.7197,-5.6273,5.6273,15.8589,11.7664,27.1125,
-61.3874,-13.3012,-112.5437,38.8789,-75.7111,-54.2259,103.3354,-12.2774,8.1849,-4.0925,4.0925,13.3003,11.2545,26.6005,
-59.8531,-19.9509,-111.0089,42.459,-72.1305,-54.7373,96.6848,-14.8355,4.6039,-3.581,3.581,6.6496,9.7192,26.0891,
-51.1558,-16.3699,-109.4737,57.2955,-64.4566,-51.1558,99.243,-24.5548,4.0925,-4.0925,13.3012,8.1849,12.2774,23.5319,
-50.1334,-11.255,-103.3354,61.3874,-63.4337,-58.3183,104.3578,-23.5324,10.2312,-10.2312,20.4618,11.254,21.4857,29.6706,
-61.3874,-17.3932,-109.4741,59.3407,-69.5724,-71.6186,97.1968,-8.5324,7.1616,-19.439,11.254,7.1616,23.5314,33.7631,
-60.3646,-24.5553,-105.3817,57.295,-64.457,-60.3646,102.3121,-6.1387,13.3008,-6.1387,15.3465,6.1387,28.6468,34.7859,
-64.4566,-31.7168,-108.4508,54.2259,-70.5952,-54.2254,105.3812,-21.1387,13.3003,-1.0229,17.3927,1.0229,16.3699,26.6015,
-65.4799,-22.509,-115.6128,63.4337,-60.3646,-51.1563,103.3354,-19.4394,13.3003,-4.0925,17.3927,4.0925,19.4394,32.7397,
-60.8755,-17.9042,-115.1009,51.6677,-46.5519,-50.6444,97.7087,-15.8584,12.7888,-6.6506,11.766,6.6506,24.0433,31.2054,
-61.8989,-27.1125,-112.0318,36.6677,-47.5748,-51.6672,93.6157,-30.8584,2.5577,-0.51192,3.5805,0.51192,9.0433,16.2054,
-70.5952,-36.8327,-117.6591,33.7631,-56.2716,-57.295,94.1272,-45.0176,-2.0462,4.093,5.1158,2.0462,4.093,5.1158,
-72.13,-32.2288,-123.2863,36.3212,-62.9222,-65.9913,88.5004,-41.4366,6.6501,-4.6044,4.6044,5.6273,6.6501,16.8818,
-57.13,-17.2288,-119.7058,37.855,-55.2488,-52.1792,85.9417,-34.7864,9.2078,0,0,9.2078,0,21.4852,
-47.5753,-17.9051,-116.1248,29.1587,-52.6906,-47.5753,92.5924,-40.4132,1.5343,11.766,0.51144,4.6039,-0.51144,8.6964,
-56.7831,-27.1125,-114.078,35.2984,-58.8293,-59.8527,91.57,-50.6444,-1.5348,8.6969,1.5348,5.6273,3.5815,8.6969,
-58.3179,-17.3927,-112.5432,41.9485,-63.4337,-57.295,92.0809,-47.0638,3.0696,-1.0229,5.1153,11.2545,1.0229,23.5319,
-58.8298,-16.8818,-113.0552,41.4366,-71.1072,-57.8064,100.7778,-48.5986,1.5348,2.5577,6.6501,9.7197,-1.5348,23.02,
-66.5033,-27.6249,-111.5204,41.948,-76.7344,-69.5724,101.2892,-57.295,-1.0234,8.1844,4.092,6.1387,1.0234,16.3694,
-71.1072,-31.2049,-106.9165,41.4366,-77.2459,-67.0147,92.5929,-58.8298,0.51192,-0.51192,2.5577,0.51192,1.5348,21.9971,
-59.8527,-16.2049,-101.8007,50.6449,-62.2459,-52.0147,92.5924,-54.7368,0.51144,-0.51144,2.5582,2.5582,6.6506,33.2521,
-53.714,-1.2049,-105.8931,43.4823,-48.5986,-37.0147,107.5924,-61.8989,-3.5805,2.5577,0.51192,8.6969,4.6044,21.9971,
-49.6215,-1.5348,-101.8007,38.367,-38.367,-22.0147,122.5924,-69.0605,2.5577,5.6273,1.5348,14.8351,-1.5348,20.9742,
-45.0181,11.2535,-103.3359,45.0171,-30.694,-21.4862,112.5433,-66.5033,0,0,-3.0696,8.1849,1.0229,30.693,
-46.0405,9.2083,-101.2892,42.9709,-45.0176,-36.4862,97.5433,-69.5724,3.0691,-3.0691,11.9304,-4.0929,16.0229,25.5781,
-49.6215,-5.7917,-99.7544,47.5748,-56.7835,-51.4862,106.916,-75.1996,18.0691,1.5348,26.9304,-1.5348,25.0667,14.8351,
-64.6215,-20.7917,-114.7544,32.5748,-71.7835,-66.4862,97.7082,-90.1996,24.0429,-3.5805,34.2745,3.5805,10.0667,3.5805,
-67.0147,-14.8355,-106.9165,26.0901,-77.2459,-58.8298,85.4303,-104.8702,13.8117,-2.5582,19.2745,9.7192,2.5582,17.9042,
-52.0147,-2.0462,-94.1272,41.0901,-62.2459,-43.8298,100.2654,-89.8702,4.092,-1.0234,4.2745,13.3008,4.092,25.5781,
-50.1334,0,-100.2663,39.9018,-50.1334,-34.7864,115.2654,-80.8269,0,-7.1621,0,14.3231,3.0686,17.3927,
-52.6911,-1.5348,-102.824,39.3898,-65.1334,-39.3898,117.1476,-94.6391,1.5348,-11.7655,6.6501,9.7197,1.5348,27.1125,
-43.4828,-15.8584,-96.6853,54.3898,-67.0147,-41.4361,117.1471,-97.7082,3.581,-3.581,8.6964,12.7888,12.7888,38.3675,
-42.9709,-19.439,-91.0581,47.0633,-53.2025,-37.8555,121.7515,-90.0347,3.0691,-3.0691,5.1158,20.4628,21.4857,29.6706,
-48.5976,-4.439,-90.5461,47.5757,-45.529,-30.182,123.2868,-89.5228,-2.5577,-11.7655,4.6044,13.8122,14.8351,23.02,
-52.1796,-2.0462,-93.1048,50.1329,-51.1568,-38.8794,118.6819,-100.2663,5.1149,-6.1387,3.0691,2.0462,5.1149,26.601,
-54.7368,-17.0462,-91.569,40.4132,-66.1568,-47.5753,103.6819,-109.9856,9.7202,-0.51144,1.5353,2.5582,0.51144,28.1358,
-48.5986,-23.021,-86.4542,43.4823,-71.1072,-34.2745,103.8464,-111.0089,7.673,-2.5577,8.6959,2.5577,15.5114,31.2049,
-40.4132,-11.7655,-84.4074,56.7835,-56.1072,-33.2516,118.8464,-111.0085,21.9971,-2.5577,15.8589,2.5577,30.5114,38.367,
-46.0405,-14.3241,-90.0347,54.2259,-55.2488,-43.9942,110.4975,-118.6819,26.6015,-4.0925,9.2078,4.0925,19.4394,36.8322,
-43.4823,-9.7197,-89.5228,41.4366,-67.0142,-30.182,104.8702,-123.2858,11.7664,-2.5577,7.674,2.5577,5.6273,31.2059,
-35.2979,-0.51144,-80.3155,43.4828,-65.9918,-19.9509,119.8702,-119.1939,2.5572,-3.581,10.7421,0.51144,9.7192,27.112,
-34.7864,-6.1392,-77.7573,54.2249,-61.3874,-28.6472,124.8206,-104.1939,15.347,-3.0696,13.3003,3.0696,13.3003,40.9246,
-40.4132,-12.7888,-82.3612,52.6906,-63.9451,-34.274,113.0547,-97.7082,20.9738,-0.51144,12.7888,0.51144,9.7202,41.4361,
-40.9242,2.0462,-80.8264,57.295,-64.4566,-29.6706,118.6829,-112.7082,9.2083,-11.254,12.2779,-2.0462,9.2083,26.4361,
-47.0643,3.0691,-77.7578,49.1091,-72.642,-33.7631,125.844,-117.6596,6.1387,-26.254,17.3922,-2.0462,2.0462,17.3922,
-43.9942,-3.0696,-73.6648,47.0638,-64.457,-33.7636,126.8674,-104.3588,15.347,-11.254,28.6472,8.1849,3.0696,32.3922,
-44.5062,-13.8122,-84.4074,48.5986,-54.7373,-39.3898,123.2858,-118.1705,5.6273,3.5805,27.1125,1.5348,-1.5348,29.1592,
-29.5062,-7.6735,-69.4074,59.8527,-42.4599,-32.2283,138.2858,-111.0089,14.8346,-0.51144,39.3903,0.51144,11.766,31.2044,
-23.5319,-3.0696,-63.4337,63.4337,-49.1101,-24.5548,142.2143,-101.2892,18.4166,-5.1153,37.855,3.0696,18.4166,34.7864,
-31.7168,-9.2088,-77.7573,55.2488,-52.1796,-22.509,130.9598,-113.5666,20.4623,0,29.6701,0,10.2307,31.7168,
-33.7636,-12.2774,-79.8035,45.0171,-48.0867,-18.4166,127.8902,-125.844,30.694,-3.0696,29.6701,3.0696,3.0696,28.6472,
-23.0205,-4.6039,-71.1067,46.5524,-39.3903,-16.8813,133.518,-118.1705,30.1825,-3.581,36.3207,14.8355,3.581,30.1825,
-26.0896,-10.7426,-79.2916,41.4366,-46.5519,-31.8813,128.4022,-117.1471,17.9047,-1.5348,31.2059,5.6273,1.5348,16.8818,
-33.2516,-14.8351,-88.4999,48.5986,-60.8755,-38.367,126.3554,-114.078,23.02,2.5577,28.1363,-2.5577,3.5815,15.8589,
-45.0176,-20.4628,-94.1276,37.8555,-69.5724,-37.8555,125.844,-113.5666,17.3932,-2.0462,26.601,11.254,2.0462,22.5086,
-43.4823,-15.8589,-86.4537,27.1125,-61.8989,-33.2516,132.4946,-113.0552,12.7893,0.51192,26.0896,18.9275,-0.51192,23.02,
-43.4828,-4.6039,-82.3612,41.4371,-58.8293,-28.1358,132.4941,-113.0547,18.928,3.581,17.9051,8.6964,-3.581,17.9051,
-43.4823,-0.51192,-79.2921,46.5519,-62.9222,-27.1125,129.425,-114.078,27.1125,0.51192,20.9742,9.7197,-1.5348,24.0429,
-36.3207,3.581,-82.3612,40.4132,-54.7373,-25.0662,134.5409,-109.9856,15.8584,-3.581,24.0433,13.8117,-4.6039,27.1129,
-38.367,10.7426,-89.5233,32.2278,-53.714,-20.9742,137.61,-108.9627,5.6273,-5.6273,14.8351,11.7655,-10.7426,18.9275,
-43.9937,7.1616,-80.8264,34.7859,-63.4337,-19.439,128.9136,-112.5432,15.3465,-6.1387,14.3236,6.1387,-10.2312,19.4399,
-43.4828,4.6039,-76.2225,48.5981,-54.7363,-19.9509,117.1481,-116.1243,12.7888,-3.581,18.928,3.581,-8.6964,24.0433,
-48.0872,3.0691,-81.8498,33.5981,-46.0405,-23.5314,117.6591,-126.8674,2.0462,-2.0462,16.3703,10.2312,-11.254,16.3703,
-40.9242,2.0462,-79.803,30.6945,-45.0166,-13.2998,132.6591,-123.7973,8.1854,-2.0462,15.3475,19.4399,-9.2073,15.3475,
-37.3441,-2.5577,-83.3846,38.367,-44.5062,-3.5815,132.4936,-114.0785,3.5805,2.5577,14.8351,18.9275,-9.7197,18.9275,
-41.9475,0,-82.8726,28.6472,-50.1324,-7.1621,121.752,-110.497,0,14.3241,15.347,16.3699,-10.2307,23.5319,
-39.3903,4.6039,-94.6386,18.928,-55.7602,-19.9509,115.1014,-119.1939,-3.581,3.581,7.6735,6.6506,-18.928,8.6964,
-25.0667,14.8351,-95.6615,33.928,-42.4594,-8.6959,129.425,-109.9856,2.5577,-2.5577,11.7664,9.7197,-9.7197,11.7664,
-32.2288,2.5577,-87.477,43.4823,-52.6911,-7.673,128.4022,-98.7315,-0.51192,-0.51192,14.8351,9.7197,0.51192,25.0667,
-34.2745,2.5577,-88.4999,35.2974,-67.6911,-22.673,118.1705,-104.8702,14.4881,-4.6044,11.7655,5.6273,-2.5577,23.02,
-20.9738,17.5577,-82.3612,32.2283,-52.6911,-17.9042,125.3321,-117.1476,29.4881,-7.6735,15.8584,6.6506,-6.6506,19.9509,
-30.182,21.9971,-83.3846,36.3212,-49.6215,-2.9042,125.3326,-123.2863,14.4881,-9.7197,16.8818,1.5348,-9.7197,16.8818,
-36.8327,13.3008,-87.9885,34.7859,-64.6215,-8.1844,126.8669,-118.6819,-0.51192,-5.1158,22.5086,12.2779,5.1158,22.5086,
-39.9018,1.0229,-98.2196,28.6472,-79.6215,-21.4852,120.7282,-131.9827,10.2316,-9.2078,15.347,12.2774,-1.0229,16.3699,
-37.855,1.0229,-95.15,35.8093,-64.6215,-6.4852,124.8206,-127.8902,14.3241,-11.2545,14.3241,3.0696,-1.0229,16.3699,
-34.7859,1.0234,-85.9422,39.9013,-49.6215,-2.0462,136.0747,-117.6591,-0.67589,-9.2083,18.4161,6.1387,10.2312,21.4857,
-32.7402,7.1616,-75.7111,47.0633,-50.1329,-17.0462,134.0289,-123.7978,-7.1616,-9.2083,19.439,12.2769,11.254,24.5553,
-33.2521,3.581,-69.0609,46.5514,-51.6682,-14.8355,133.517,-120.2172,3.581,-7.6735,24.0433,-2.7231,10.7421,30.1816,
-31.7164,-2.0462,-70.5952,45.0176,-51.1558,0.16445,140.1681,-105.2172,18.581,-2.0462,33.7631,-3.0691,12.2779,35.8098,
-46.5519,-5.6273,-85.5952,33.2516,-66.1558,-14.8355,125.3326,-120.2167,7.673,-1.5348,23.02,11.9309,1.5348,20.8098,
-55.7602,-7.6735,-82.3617,28.1358,-81.1558,-27.1129,120.2167,-135.2167,-0.51144,0.51144,14.8355,8.6964,0.51144,15.8584,
-48.0872,-2.0462,-79.8035,37.8555,-76.7344,-22.5086,120.7287,-124.8211,8.1844,-5.1158,13.3008,2.0462,3.0691,19.439,
-40.4132,-0.51144,-82.3612,28.1358,-69.0609,-24.0433,114.0785,-118.1705,8.6964,-4.6039,13.8127,9.7192,0.51144,14.8355,
-33.2516,-4.6044,-70.0838,29.1592,-69.0609,-21.9971,117.1476,-119.1939,-2.5577,6.6501,18.9275,2.5577,10.7426,17.9047,
-32.7397,-1.0229,-64.4566,44.1592,-68.549,-11.2535,130.9598,-120.7282,0,6.1392,20.4623,0,25.7426,30.694,
-46.04,-8.1849,-68.549,43.9942,-79.8035,-16.3699,128.9131,-124.8206,5.1153,-5.1153,18.4166,7.1621,20.4623,30.694,
-48.5981,-15.8584,-73.1529,43.4828,-84.4074,-26.0891,122.2635,-118.1705,-0.51144,0.51144,23.0205,11.766,5.4623,28.1358,
-49.1096,-15.347,-78.7807,42.9714,-71.6186,-26.6015,126.8674,-119.7053,-1.0229,5.1153,19.4394,7.1621,1.0229,22.509,
-48.0867,-13.3003,-78.7807,27.9714,-60.3641,-29.6701,133.0056,-130.9598,4.0925,1.0229,7.1621,-1.0229,9.2078,8.1849,
-54.2254,-25.5781,-83.896,20.4628,-67.5257,-32.7402,128.9136,-136.0752,2.0462,5.1158,6.1387,-2.0462,6.1387,7.1616,
-52.1796,-33.7631,-84.9194,33.7631,-79.8035,-24.5553,124.8211,-125.844,9.2083,12.2769,20.4628,6.1387,-6.1387,22.1616,
-37.1796,-18.7631,-79.2921,40.4132,-69.0609,-9.5553,126.3549,-113.0552,14.8346,14.8346,19.9509,4.6039,-4.6039,25.0662,
-40.9251,-12.2769,-79.8035,31.7173,-62.4103,-6.1387,123.7983,-121.7515,14.3236,12.2779,18.4161,-7.1616,6.1387,14.3236,
-55.9251,-27.2769,-93.6157,20.9742,-77.4103,-21.1387,112.0323,-130.4479,7.674,6.6501,17.9047,-1.5348,1.5348,5.6273,
-52.1792,-23.5319,-97.1968,26.6015,-90.0347,-23.5319,110.4975,-120.7287,6.1392,5.1153,12.2774,11.2545,-5.1153,8.1849,
-41.9485,-12.2774,-96.1734,18.4166,-75.0347,-8.5319,110.4975,-129.9365,1.0229,2.0467,0,1.0229,-5.1153,6.1392,
-49.1105,-15.347,-92.0814,18.4156,-71.6186,-15.347,109.4737,-134.0294,0,5.1153,5.1153,0,3.0686,5.1153,
-49.1105,-17.3937,-90.0352,17.3927,-76.7339,-30.347,105.3812,-119.7053,-1.0229,2.0457,8.1849,10.2307,1.0229,6.1382,
-45.529,-15.8579,-84.4074,15.8589,-72.1296,-15.347,112.0323,-117.1471,1.5348,2.5586,4.6044,19.9514,-1.5348,10.7436,
-45.529,-17.9047,-86.4537,26.0896,-69.0609,-0.51192,125.3326,-121.2401,-2.5577,10.7426,4.6044,23.02,0.51192,9.7197,
-40.9251,-24.5553,-91.0581,22.5086,-70.5952,-15.5119,125.844,-115.6128,-5.1158,9.2083,6.1387,10.2312,5.1158,9.2083,
-34.7859,-17.3932,-77.7573,28.6477,-61.3874,-18.4161,120.7287,-113.5666,9.2083,1.0234,14.3236,-1.0234,18.4161,19.439,
-35.8093,-6.1392,-69.5729,40.9246,-53.203,-3.4161,121.751,-117.6596,10.2307,0,24.5548,0,24.5548,21.4852,
-30.182,-12.7883,-75.1991,36.3212,-51.6672,-6.6501,128.4022,-115.1009,4.6044,1.5348,19.9514,-1.5348,18.9275,17.9047,
-24.5548,-15.347,-73.6648,43.9942,-47.0638,-10.2307,127.8902,-104.3583,7.1621,3.0696,15.347,-3.0696,19.4394,27.6244,
-36.8317,-12.2769,-66.5028,42.9718,-59.3407,2.0462,125.844,-102.3121,7.1625,-5.1148,19.4399,-2.0462,22.5086,30.6945,
-40.4132,-14.8346,-71.1067,34.275,-71.1067,10.7431,122.2635,-107.9393,3.581,-13.8117,20.9747,-3.581,15.8584,18.928,
-34.7864,-16.3699,-83.8965,32.7397,-63.4337,7.1611,115.6128,-112.5437,0,-2.0467,14.3231,0,7.1611,12.2774,
-32.7402,-13.3008,-78.7802,29.6706,-64.4561,2.0462,114.5895,-110.497,-4.092,2.0462,11.254,-2.0462,11.254,13.3008,
-28.1363,-2.5577,-65.9913,33.2516,-58.8293,9.7197,117.1476,-96.6853,1.5348,-1.5348,9.7197,-3.5815,15.8579,12.7893,
-35.8088,-15.3465,-73.6648,25.5781,-60.3636,2.0462,109.4741,-100.2659,10.2312,-2.0462,5.1158,-8.1844,9.2083,10.2312,
-34.2745,-26.0896,-65.9918,37.3441,-69.0609,-2.5577,122.263,-97.7087,21.9971,2.5577,20.1158,-3.5815,20.9733,16.8808,
-37.8555,-27.6239,-59.3407,52.3441,-75.7106,-8.1844,137.263,-95.15,30.6935,5.1158,35.1158,-5.1158,32.7402,20.4628,
-44.5062,-30.182,-62.9222,47.5748,-81.3383,-23.1844,133.5175,-101.8007,35.2974,9.7197,36.3212,-9.7197,28.1353,23.02,
-39.9023,-30.6935,-66.5028,34.7859,-92.0809,-32.7402,118.5175,-108.4508,20.2974,5.1158,21.3212,-5.1158,14.3236,13.3008,
-34.7859,-20.4628,-58.3179,31.7164,-78.7807,-17.7402,118.6819,-108.4508,5.2974,2.0462,6.3212,3.0691,8.1854,7.1616,
-38.367,-12.7893,-52.6911,38.367,-63.7807,-2.7402,133.6819,-111.0089,4.6044,-3.5805,-8.6788,3.5805,3.5805,9.7197,
-29.1587,-4.6039,-49.621,46.5524,-67.0147,12.2598,128.4017,-96.0089,4.6039,-8.6964,-12.7888,5.6268,5.6268,19.9509,
-25.0667,-4.6044,-42.4594,39.3898,-80.315,20.9742,116.1248,-87.477,4.6044,-3.5805,-2.5577,2.5577,4.6044,21.9971,
-28.6477,-1.0234,-38.8784,45.0176,-73.6648,9.2083,122.7744,-90.0347,10.2312,5.1158,-3.0691,1.0234,-1.0234,23.5324,
-24.0438,-2.5577,-46.5519,46.5519,-69.0609,13.8122,125.3326,-83.3846,10.7426,0.51192,-5.6273,0.51192,-0.51192,26.0896,
-17.3927,-6.1382,-48.0867,40.9246,-71.6186,17.3927,124.8206,-84.9189,9.2078,-4.0925,1.0229,-1.0229,4.0925,22.509,
-24.0438,-3.5805,-46.5519,39.3898,-77.2459,7.673,135.5632,-96.6848,1.5348,-1.5348,-0.51192,3.5805,0.51192,12.7893,
-27.6249,-6.1387,-50.1329,35.8088,-81.8498,10.2312,142.2139,-92.0809,-5.1158,6.1387,1.0234,12.2769,-1.0234,15.3465,
-21.9976,-11.766,-58.8298,37.3436,-79.2921,11.766,128.4017,-84.4079,-0.51144,11.766,0.51144,9.7192,-6.6506,18.928,
-20.9738,-9.7202,-58.8298,32.2283,-73.1534,0.51144,126.3549,-89.5233,13.8117,11.766,-0.51144,6.6496,-5.6277,14.8355,
-23.5309,-9.2078,-53.202,26.6015,-68.549,0,136.0761,-91.0576,12.2784,5.1163,0,7.1621,-4.0925,11.2545,
-33.7626,-10.2307,-61.387,31.7168,-66.5023,5.1163,129.937,-94.1267,3.0696,0,0,4.0925,-5.1153,9.2088,
-37.3441,-16.8818,-65.9913,30.182,-77.2459,4.6044,128.4022,-98.7311,8.6969,5.6273,0.51192,-0.51192,-2.5577,9.7197,
-29.6706,-17.3932,-59.3407,32.7402,-82.8726,8.1854,134.0289,-87.9885,14.3236,12.2779,-4.092,-1.0234,1.0234,18.4161,
-38.8789,-19.4394,-61.3874,39.9018,-67.8726,9.2078,127.8902,-83.896,16.3699,12.2774,-1.0229,1.0229,-6.1382,23.5319,
-46.0405,-23.5314,-63.4337,38.8784,-58.3179,2.0462,125.844,-92.0809,18.4161,13.3008,12.2779,-2.0462,-11.254,19.4399,
-37.3441,-16.8818,-61.8989,33.2516,-73.3179,3.5805,120.2172,-93.6157,10.7426,12.7893,13.8122,-3.5805,-12.7893,13.8122,
-27.112,-18.927,-58.8288,25.0672,-82.3612,-0.51144,115.1014,-94.6386,9.7202,11.766,7.6735,0.51144,-16.8813,14.8355,
-16.3703,-11.254,-52.1796,35.8088,-67.3612,-3.0691,130.1014,-87.9885,18.4161,26.766,15.3465,3.0691,-8.1854,21.4857,
-21.4847,-4.092,-57.294,32.7402,-52.3612,2.0462,134.0299,-87.988,10.2321,21.4857,12.2779,-2.0462,-13.2998,11.255,
-25.5777,-3.0696,-51.1563,25.5786,-61.387,1.0229,131.9827,-89.0113,10.2316,12.2774,12.2774,-1.0229,-20.4623,8.1849,
-18.4166,-5.1153,-47.0638,39.9018,-61.3874,-9.2078,142.2143,-82.8731,21.4852,22.509,20.4623,5.1153,-10.2316,13.3003,
-18.4161,-6.1387,-49.1101,36.8327,-52.1787,-14.3236,140.1681,-82.8726,21.4857,27.6249,20.4628,6.1387,-7.1616,13.3008,
-25.0662,0.51144,-43.4828,25.0662,-62.9222,-13.8127,125.3321,-87.477,9.7192,16.8813,14.8355,-0.51144,-18.928,9.7192,
-19.9504,10.7436,-41.4366,31.2059,-63.9446,-6.6501,132.4946,-76.2225,6.6501,14.836,13.8122,-7.673,-19.9504,8.6969,
-21.9971,-1.5348,-45.529,31.2049,-60.876,1.5348,138.6328,-69.0609,11.7655,13.8122,12.7883,-15.8589,-14.8351,7.673,
-25.5781,-7.1616,-45.0176,36.8327,-64.457,7.1616,130.9593,-72.642,13.3008,7.1616,14.3236,-18.4161,-16.3703,12.2769,
-24.0433,2.5582,-50.6449,36.3207,-65.9909,-0.51144,130.4484,-78.2687,3.581,0.51144,7.6735,-18.928,-23.0205,8.6964,
-20.9733,6.6511,-48.5976,31.2059,-55.7597,1.5348,133.5175,-72.1296,1.5348,7.674,-1.5348,-13.8122,-25.0657,1.5348,
-21.4852,6.1392,-41.9485,28.6472,-55.2488,11.2545,118.5175,-74.6882,1.0229,14.3241,-1.0229,-15.347,-26.6015,8.1849,
-19.439,6.1387,-41.948,27.6239,-56.2721,7.1616,108.4513,-79.8035,-1.0234,12.2779,1.0234,-26.601,-22.5086,7.1616,
-13.3008,11.254,-47.0633,35.8088,-43.9947,7.1616,123.4513,-64.8035,4.092,12.2769,3.0691,-19.439,-12.2779,-3.0691,
-20.4628,10.2312,-53.2025,25.5781,-54.2254,13.3008,136.0756,-62.4103,3.0691,20.4628,5.1158,-11.254,-17.3932,-3.0691,
-25.5781,4.093,-57.295,16.3703,-64.457,14.3236,125.844,-77.4103,-4.093,24.5553,4.093,-12.2779,-28.6477,5.1158,
-18.928,7.6735,-63.9451,27.112,-49.457,11.766,129.4245,-77.2464,-7.6735,12.7888,4.6039,-3.581,-23.0205,3.581,
-17.3937,5.1153,-64.4566,23.5319,-38.8789,8.1849,134.0284,-70.5957,-10.2316,1.0229,3.0696,0,-17.3937,0,
-24.0429,3.5805,-57.8064,27.1125,-51.6672,10.7426,129.425,-69.0609,-3.5805,9.7197,9.7197,-7.673,-17.9047,5.6273,
-35.2974,-0.51192,-65.9913,26.0896,-60.876,6.6501,119.1934,-71.1067,0.51192,6.6501,7.673,-13.8122,-19.9514,2.5577,
-31.2054,3.581,-68.0376,19.9509,-68.0376,4.6039,120.2167,-69.0605,0.51144,0.51144,2.5582,-2.5572,-16.8813,-0.51144,
-26.601,12.2779,-61.3874,27.6249,-60.3636,9.2083,127.8907,-71.6181,-1.0234,9.2083,1.0234,-8.1844,-20.4618,1.0234,
-30.6935,2.0462,-53.2025,28.6477,-48.0872,-2.0462,134.0289,-76.7344,6.1387,9.2083,8.1854,-23.1844,-24.5553,3.0691,
-30.6935,2.0462,-46.0405,30.6935,-53.2025,-1.0234,130.9603,-74.6877,7.1625,1.0234,10.2312,-38.1844,-19.439,4.093,
-30.694,10.2307,-43.9942,26.6005,-57.2955,8.1849,127.8902,-71.6186,0,0,4.0925,-46.041,-20.4623,2.0457,
-26.0891,13.8127,-34.274,27.1129,-44.5057,2.5582,134.5409,-69.0605,-2.5582,9.7202,5.6277,-49.621,-24.0433,2.5582,
-21.9966,11.766,-30.1816,29.1597,-49.621,-0.51144,130.4484,-72.13,0.51144,10.7431,7.6735,-50.6439,-21.9966,2.5582,
-31.7164,-1.0234,-43.9947,14.1597,-64.621,2.0462,118.6819,-81.8498,2.0462,1.0234,2.0462,-50.1329,-27.6239,1.0234,
-32.7397,0,-51.1563,18.4166,-64.4566,5.1153,121.752,-75.7111,1.0229,3.0696,0,-46.041,-28.6472,7.1621,
-27.6239,8.1854,-49.1101,21.4857,-49.4566,-1.0234,133.0061,-65.4799,2.0462,8.1854,1.0234,-41.948,-23.5314,6.1387,
-27.1125,1.5348,-42.4594,9.7197,-45.529,-0.51192,133.5175,-67.0142,3.5805,0.51192,1.5348,-47.5757,-25.0667,0.51192,
-27.6244,4.0925,-33.7626,21.4852,-55.2488,10.2316,127.8902,-74.6882,3.0696,-1.0229,6.1392,-51.1563,-28.6472,1.0229,
-29.6701,8.1849,-37.855,19.4394,-59.3412,10.2316,126.8674,-77.7568,-2.0467,5.1153,5.1153,-47.0638,-26.6015,2.0467,
-21.4852,9.2078,-41.9485,17.3927,-48.0867,8.1849,130.9598,-64.4566,-2.0467,4.0925,5.1153,-48.0867,-23.5319,2.0467,
-14.3236,8.1844,-48.0872,25.5781,-42.9718,7.1616,128.9136,-63.4342,1.0234,1.0234,7.1616,-52.1796,-26.601,-1.0234,
-17.9047,16.8808,-44.5062,23.02,-45.529,12.7883,129.425,-67.0152,1.5348,11.7655,7.673,-40.4137,-23.021,-1.5348,
-13.3003,29.6711,-33.7626,23.5319,-33.7626,18.4166,137.099,-52.0152,-3.0696,19.4394,7.1621,-25.5777,-11.2545,3.0696,
-13.8127,17.9042,-32.2283,18.927,-32.2283,7.6735,134.5399,-45.5295,-3.581,14.8346,4.6039,-40.4132,-5.6277,3.581,
-19.4394,10.2307,-39.9018,13.3003,-35.8093,2.0457,124.8206,-58.3183,1.0229,8.1849,3.0696,-55.4132,-15.347,-1.0229,
-12.2779,21.4857,-43.9947,14.3236,-20.8093,13.3008,139.1443,-54.2254,-1.0234,19.439,2.0462,-45.0176,-18.4161,1.0234,
-5.6268,27.1129,-37.3436,15.8584,-12.7888,20.9738,154.1443,-51.6677,-3.581,29.1587,3.581,-30.0176,-14.8355,3.581,
-3.581,30.1816,-29.1587,20.9738,-26.0901,14.8355,142.7258,-58.8298,-3.581,19.9509,3.581,-32.2283,-14.8355,3.581,
-4.0925,29.6701,-25.5786,19.4394,-28.6472,9.2078,134.0284,-52.1792,-4.0925,18.4156,4.0925,-38.8789,-14.3241,9.2078,
-14.3241,18.4166,-32.7397,18.4166,-39.9018,4.0925,140.1676,-48.0867,-4.0925,25.5777,6.1392,-26.6015,-16.3699,7.1621,
-17.3932,13.3008,-40.9251,20.4618,-54.9018,6.1387,133.0061,-54.2254,-2.0462,21.4857,2.0462,-20.4628,-23.5324,9.2083,
-13.3012,26.6005,-31.7168,18.4156,-58.3183,14.3231,124.8206,-50.1334,0,11.2535,0,-22.509,-26.6015,18.4156,
-13.3003,41.6005,-29.6701,29.6711,-43.3183,17.3937,130.9598,-39.9018,-4.0925,19.4394,4.0925,-15.347,-21.4852,13.3012,
-17.9047,30.182,-35.2974,29.1592,-53.714,10.7426,130.4479,-40.4127,-4.6044,27.1125,6.6501,-17.9047,-26.0896,4.6044,
-26.601,15.182,-29.6706,18.4161,-68.714,5.1158,121.7515,-42.9709,-1.0234,17.3932,2.0462,-32.9047,-31.7173,1.0234,
-32.2283,21.9966,-30.1825,25.0662,-54.7373,4.6039,126.3559,-42.4599,-2.5582,7.6735,2.5582,-39.3903,-20.9738,10.7431,
-30.6935,17.3932,-35.8098,26.601,-53.2025,3.0691,131.9832,-41.948,-3.0691,5.1158,9.2083,-29.6706,-8.1854,22.5086,
-31.2049,5.6273,-36.3212,21.9971,-64.9685,8.6969,119.1934,-37.3441,-5.6273,11.7655,5.6273,-26.0896,-13.8122,17.9047,
-31.7173,18.4161,-39.9023,20.4618,-54.2264,21.4847,118.6819,-35.8098,-2.0462,12.2769,2.0462,-27.6249,-14.3246,10.2312,
-26.601,24.5553,-42.9709,20.4628,-48.0872,19.439,126.8669,-43.9947,-1.0234,3.0691,1.0234,-28.6477,-11.254,7.1616,
-19.4399,17.3932,-33.7631,23.5314,-53.2025,19.439,125.844,-35.8098,-1.0234,16.3694,1.0234,-23.5324,-21.4857,8.1844,
-24.0433,10.7421,-29.1597,10.7421,-62.9222,21.9966,120.2167,-36.3207,-0.51144,19.9509,0.51144,-27.1129,-23.0205,2.5572,
-23.02,17.9047,-24.0438,9.7197,-63.9456,21.9971,117.1476,-46.5519,-2.5577,14.8351,2.5577,-29.1592,-8.0205,3.5805,
-17.9047,23.02,-20.9742,15.8589,-56.7835,8.6969,116.1248,-45.529,-1.5348,23.02,1.5348,-18.9275,-2.5577,7.674,
-19.4394,26.6015,-19.4394,17.3927,-54.2259,-6.3031,121.752,-42.9714,7.1621,29.6701,3.0696,-18.4166,-3.0696,7.1621,
-25.0662,24.0433,-23.0205,19.9509,-57.8059,-11.766,121.2406,-47.5753,5.6277,23.0205,3.581,-18.928,-3.581,8.6964,
-21.9971,15.8579,-20.9742,12.7893,-61.8989,2.5577,116.1248,-43.4823,-1.5348,19.9504,1.5348,-11.7664,-17.9047,11.7655,
-18.4166,15.347,-14.3241,18.4156,-63.4337,10.2307,119.7053,-35.8093,0,15.347,0,-13.3012,-32.9047,12.2774,
-33.2511,12.7888,-18.928,18.928,-59.8527,3.581,120.2167,-41.4361,-0.51144,1.5343,0.51144,-13.8127,-34.275,8.6964,
-30.694,7.1621,-22.509,18.4166,-56.2716,8.1849,119.7053,-36.8322,-1.0229,1.0229,2.0467,-8.1849,-36.8322,15.347,
-23.0205,11.766,-30.1825,27.1129,-52.6906,13.8117,121.2396,-35.2979,-2.5582,5.6268,2.5582,-13.8127,-47.5753,13.8117,
-34.7864,10.2307,-30.694,19.4394,-59.3412,6.1382,121.751,-47.0638,-1.0229,12.2774,3.0696,-16.3699,-46.041,1.0229,
-33.7636,7.1621,-28.6472,20.4623,-64.4566,7.1621,115.6128,-40.9246,1.0229,20.4623,-1.0229,-16.3699,-43.9942,1.0229,
-21.4852,17.3927,-28.6472,30.694,-49.4566,13.3003,113.5661,-27.6244,3.0696,13.3003,-3.0696,-18.4166,-45.0171,6.1392,
-21.4852,19.4394,-23.5309,22.509,-42.9704,0,114.59,-34.7855,3.0696,5.1163,0,-15.346,-38.8779,9.2088,
-28.6477,10.2312,-26.601,18.4161,-57.9704,-1.0234,107.4274,-39.9023,1.0234,9.2083,5.1158,-9.2083,-40.9251,9.2083,
-21.9971,-4.7688,-20.9742,28.1363,-67.0142,5.6273,113.0552,-34.2745,16.0234,19.9514,18.9275,-10.7426,-36.3212,10.7426,
-6.9971,-0.51144,-5.9742,43.1363,-52.0142,-1.5343,128.0552,-25.0662,31.0234,33.2511,33.9275,-14.8355,-21.3212,25.7426,
-13.8122,12.7893,-16.8818,40.4137,-45.529,-12.7893,116.1248,-30.182,26.0896,18.2511,27.1125,-23.02,-13.8122,21.9971,
-28.6477,12.2769,-31.8818,25.4137,-55.2492,2.2107,114.5895,-28.6477,11.0896,3.2511,12.1125,-14.3236,-28.8122,6.9971,
-24.0433,10.7431,-16.8818,19.9509,-44.5057,17.2107,129.4245,-23.0205,-1.5343,5.6268,1.5343,-4.6039,-34.275,8.6964,
-24.0433,4.6039,-10.7431,20.9738,-42.4599,2.2107,116.1243,-34.275,0.51144,1.5343,-0.51144,-19.6039,-27.1129,15.8584,
-19.4394,5.1153,-9.2078,29.6711,-47.0638,3.0696,107.4279,-30.693,7.1621,0,0,-31.7168,-39.9018,10.2316,
-15.3465,12.2779,-5.1158,41.948,-47.0633,18.0696,109.4741,-20.4618,2.0462,4.0929,-2.0462,-25.5781,-39.9013,15.3475,
-23.5319,17.3937,-8.1849,31.7168,-39.9018,22.509,104.3583,-26.6005,-1.0229,9.2088,1.0229,-22.5081,-27.6244,28.6472,
-32.7397,4.0925,-23.1849,20.4623,-40.9246,7.509,91.0581,-34.7855,0,8.1849,4.0925,-20.4623,-36.8322,14.3241,
-20.9738,-7.6735,-21.9976,35.2979,-43.4828,15.8584,101.8002,-23.0205,7.6735,18.928,11.766,-9.7202,-30.1825,12.7888,
-18.4161,-2.0462,-7.1625,40.9242,-49.1101,24.5543,108.4503,-27.6249,2.0462,19.439,3.0691,-14.3236,-24.5553,22.5086,
-19.9514,9.7197,-8.6969,30.182,-49.6215,14.8351,98.7311,-33.2516,2.5577,12.7893,-2.5577,-10.7426,-35.2984,19.9504,
-33.2511,-4.6039,-20.9738,15.182,-64.6215,5.6268,83.7311,-39.3903,3.581,4.6039,3.581,-3.581,-50.2984,4.9504,
-43.9942,-19.6039,-24.5548,25.5786,-75.7111,-1.0229,77.7578,-38.8789,1.0229,9.2088,10.2316,2.0467,-48.0867,5.1163,
-33.2516,-18.9275,-21.9971,35.2974,-61.8989,-5.6273,83.3841,-27.1125,5.6273,18.9275,9.7197,9.7197,-38.367,20.1163,
-33.2521,-19.9509,-25.0672,20.2974,-61.8994,3.581,81.3378,-35.2979,0.51144,4.6039,0.51144,-0.51144,-47.5753,19.9509,
-27.6244,-7.1621,-13.3003,27.6244,-59.3412,18.581,95.1505,-33.7626,-3.0696,7.1621,9.2088,3.0696,-46.04,13.3012,
-27.1125,-11.7664,-12.7893,34.2745,-60.876,5.6273,93.6157,-35.2984,-5.6273,10.7426,9.7197,8.6959,-46.5519,9.7197,
-28.6472,-11.2545,-9.2078,34.7864,-53.202,4.0925,91.0581,-29.6701,1.0229,4.0925,6.1392,-1.0229,-43.9942,17.3937,
-26.6005,-4.0925,0,34.7864,-38.202,18.4166,99.243,-22.5081,15.347,0,11.2545,-15.346,-43.9942,16.3708,
-25.0667,-5.6273,-9.7197,31.2049,-43.4833,9.7197,87.4765,-24.0438,13.8122,5.6273,9.7197,-15.8589,-53.714,8.6969,
-19.9509,0.51144,-24.7197,30.1816,-55.7602,-0.51144,73.1529,-29.1587,2.5582,5.6268,0.51144,-10.7431,-57.8069,5.6268,
-16.3708,3.0686,-23.5319,16.3699,-55.2488,1.0229,76.7339,-33.7636,1.0229,0,0,-18.4166,-60.3651,2.0457,
-12.7893,-5.6273,-18.9275,12.7893,-41.4366,7.673,74.1763,-27.1125,8.6969,7.673,9.7197,-13.8122,-57.8064,5.6273,
-15.8589,-13.8122,-21.9971,20.9733,-37.3441,6.6501,77.2449,-27.1134,9.7197,14.8351,10.7426,-5.6273,-56.7835,5.6273,
-9.7197,-1.5348,-15.8579,32.2288,-38.367,1.5348,92.2449,-29.1582,12.7893,10.7436,15.8589,-9.7197,-51.6672,7.674,
