"AF3","AF4","F3","F4","F7","F8","FC5","FC6","O1","O2","P7","P8","T7","T8",
-3.6491,-17.2049,8.8633,65.1687,724.1594,193.4221,-21.3757,-8.8633,-1.5642,-26.589,1.5642,4.6925,-6.7774,13.0341,
-1.0425,-15.6408,7.2992,75.0754,739.1594,208.4221,-22.9394,-5.2133,-16.5642,-20.854,1.0425,11.47,-16.6832,28.0341,
2.0854,-5.2138,8.3421,74.0325,754.1594,223.4221,-31.281,-11.4695,-25.0248,-8.3411,-2.0854,4.1713,-31.6832,26.0678,
3.6501,9.7862,11.9917,69.3405,769.1594,238.4221,-23.4606,-1.5642,-21.3752,-11.9907,1.5642,-8.8623,-22.4182,11.0678,
-4.692,10.9487,-0.52123,66.2126,784.1594,253.4221,-21.3752,-4.692,-26.589,-22.4182,0.52123,1.5647,-10.9477,19.2903,
-9.9063,6.7769,-4.692,69.34,799.1594,268.4221,-19.2903,-19.692,-23.4611,-20.3328,4.692,13.0336,-15.1195,34.2903,
-2.6066,13.0341,2.6066,79.767,814.1594,283.4221,-9.9058,-9.9058,-26.589,-20.3323,4.6925,-1.9664,-23.4611,22.4182,
-1.0425,15.6408,1.0425,68.8187,829.1594,298.4221,-8.3416,4.1708,-33.3669,-33.3669,-3.1284,-16.9664,-25.0248,7.4182,
0.52123,22.4187,8.8628,68.2975,844.1594,313.4221,-4.692,-1.5637,-18.3669,-29.7168,-0.52123,-10.9477,-20.3328,22.4182,
3.1279,28.1527,12.5119,69.8617,859.1594,328.4221,-4.1713,-9.3846,-3.3669,-26.0678,-5.2138,-15.6403,-30.2386,29.1961,
9.3846,30.2386,14.5978,62.5625,874.1594,343.4221,-7.2987,3.1279,-17.7262,-25.0248,-3.1279,-29.1956,-21.897,14.1961,
0.52123,15.2386,2.6071,63.0843,889.1594,358.4221,-22.2987,1.5647,-14.0761,-27.6314,-0.52123,-26.589,-6.897,-0.80389,
-10.4275,6.2557,0,62.562,904.1594,373.4221,-37.2987,-11.47,0,-21.897,4.1708,-11.589,-4.1708,14.1961,
-1.5642,21.2557,1.5642,56.828,919.1594,388.4221,-29.7173,-3.6491,-5.735,-14.0766,1.5642,-7.8199,-19.1708,29.1961,
13.4358,36.2557,-5.735,56.828,934.1594,403.4221,-22.4182,9.9058,-17.2039,-23.4606,-10.9482,-13.0331,-24.5031,14.1961,
13.0336,26.5895,-3.6496,58.9135,949.1594,418.4221,-24.5036,5.7355,-21.3752,-37.016,-10.9477,-11.9912,-15.1185,3.6496,
1.5642,18.2474,2.6066,63.0838,964.1594,421.7747,-31.8022,1.5642,-28.6744,-37.016,-6.7774,-8.8623,-29.7168,-1.5642,
-2.0854,33.2474,2.0854,61.5201,979.1594,429.5951,-31.281,4.1713,-19.8111,-25.0243,-6.2562,-9.3846,-31.281,4.1713,
6.2562,32.3245,2.0854,58.3917,994.1594,414.5951,-25.0243,-2.0854,-12.5119,-25.0243,-9.3836,-9.3836,-21.896,14.5988,
16.6842,21.8975,4.1708,63.6055,1009.1594,402.4849,-20.854,-4.1708,-26.0673,-36.4943,-13.5549,-8.3416,-15.6398,11.47,
8.3416,16.6842,0,64.6479,1024.1594,405.6132,-25.0248,0,-34.4089,-39.6226,-11.469,-9.3841,-9.3841,13.5559,
-2.0854,22.9394,2.0854,72.989,1039.1594,400.3995,-37.5377,3.1279,-35.4523,-40.6656,-8.3421,-16.6837,-11.4695,9.3846,
1.0425,28.1532,10.4265,76.1179,1054.1594,404.5698,-32.324,6.2557,-37.5377,-45.8793,-5.2133,-23.9824,-19.8116,-1.0425,
4.6925,14.0766,1.5642,62.0413,1069.1594,403.0066,-17.324,-1.5642,-37.016,-38.0589,-11.9907,-23.4606,-21.3757,11.9917,
12.5129,21.897,-8.3411,68.8192,1084.1594,410.827,-7.2987,3.1279,-22.016,-23.0589,-4.1703,-11.4695,-6.3757,26.9917,
5.7355,15.1195,-11.9912,63.0843,1099.1594,400.9212,-13.0336,-0.52123,-10.9477,-14.0761,0.52123,-16.162,-4.692,11.9917,
4.1708,8.3416,0,65.6904,1114.1594,391.0149,-10.4275,0,-4.1708,-15.6408,-2.0859,-7.2992,-7.2992,4.1708,
1.0425,11.47,-5.2133,59.4347,1129.1594,384.7592,-16.6832,3.1283,-16.6832,-5.2133,-15.6408,3.1283,-22.2992,-1.0425,
7.8204,13.0336,-0.52123,58.9125,1144.1594,381.1087,-18.2479,3.6496,-23.4611,-0.52123,-14.0771,0.52123,-20.3328,-10.9487,
14.5978,13.5554,2.0854,71.9466,1159.1594,375.3747,-17.7262,-3.1279,-17.7262,-7.2987,-9.3846,-2.0854,-5.3328,4.0513,
8.3421,19.8111,-7.2987,66.7333,1174.1594,369.118,-13.5554,-3.1279,-12.5129,-6.2562,-8.3421,3.1279,-12.5129,19.0513,
4.1708,17.7257,-5.2133,61.5196,1189.1594,367.0326,-9.3841,3.1283,-25.0248,-6.2567,-8.3416,-3.1283,-19.8116,17.7257,
5.7345,2.7257,3.6496,69.34,1204.1594,361.2981,-9.9063,-0.52123,-38.0589,-14.0771,-2.6071,-11.9912,-5.7355,7.8204,
3.6491,-3.6491,-0.52172,71.4254,1219.1594,356.0843,-8.8633,-2.6066,-28.6744,-24.5031,3.6491,-14.0766,0.52172,20.3333,
4.692,8.8628,-8.8628,76.6391,1234.1594,359.2122,-3.6496,0.52123,-26.589,-29.7173,-0.52123,-14.0761,-10.9487,5.3333,
9.9053,3.6496,-0.52123,78.724,1249.1594,358.1698,0.52123,-3.6496,-30.7603,-19.2903,-3.6496,-9.9063,-11.9912,4.692,
11.9912,-0.52123,6.7769,75.5957,1264.1594,358.1698,-3.6496,-2.6071,-25.5465,-15.1195,0.52123,-2.6071,-1.5647,19.692,
11.9912,5.7345,0.52123,73.5108,1275.7512,358.1698,-4.692,-2.6071,-21.3752,-20.3328,-0.52123,-1.5647,-0.52123,26.5885,
13.0341,2.6066,-1.5642,72.4678,1260.7512,358.1702,0.52172,-4.6925,-23.4611,-18.2474,-0.52172,-5.735,-5.735,11.5885,
9.9063,3.6496,-5.7345,73.5108,1245.7512,353.9989,-14.4783,1.5647,-28.6744,-14.0761,-5.7345,0.52123,-7.8204,-0.52123,
-1.0429,7.2987,-17.7262,58.5108,1230.7512,347.2215,-29.4783,1.0429,-23.9819,-18.7686,-14.5978,9.3846,-10.427,14.4788,
2.0854,12.5119,-6.2562,58.3917,1215.7512,350.3489,-22.9394,-2.0854,-17.7262,-23.9829,-12.5129,10.427,-13.5554,25.0243,
1.5637,14.0771,0.52123,69.34,1200.7512,344.6149,-15.1195,-0.52123,-25.546,-20.3328,-11.9912,8.8628,-16.162,10.0243,
-1.5642,8.8623,1.5642,63.0838,1185.7512,336.2728,-26.589,5.735,-23.4606,-7.8209,-14.0766,18.2474,-8.8633,-3.6501,
-1.0425,0,2.0849,57.3488,1170.7512,330.5378,-23.9824,0,-34.4089,-13.5549,-27.1107,10.4275,-19.8116,11.3499,
0.52172,2.6066,-0.52172,63.0838,1155.7512,328.9746,-22.4182,-3.6491,-43.2722,-22.4182,-20.3323,3.6501,-19.2898,26.3499,
0.52123,4.692,-13.0336,70.3824,1140.7512,324.8033,-34.9306,-2.6071,-39.1014,-11.9912,-10.9487,6.7779,-4.2898,21.3752,
5.2133,-1.0425,-20.854,69.8612,1125.7512,327.4095,-23.9824,1.0425,-36.4948,-6.2567,-15.6408,6.2557,-8.3416,12.5124,
8.8628,-1.5637,-11.9912,62.0408,1110.7512,326.8882,-8.9824,1.5637,-38.0589,-16.162,-14.0761,2.6071,-13.0336,16.162,
7.8204,-0.52123,-2.6071,67.2551,1095.7512,311.8882,-19.2903,-7.8204,-38.0584,-20.3328,-15.1195,2.6071,0.52123,17.2044,
11.9917,-3.6491,-0.52172,66.2121,1080.7512,296.8882,-19.2898,0.52172,-30.7598,-13.0341,-15.119,7.8209,-2.6066,15.119,
10.9487,-2.6071,-2.6071,53.6992,1065.7512,289.351,-10.9487,7.8204,-26.5885,-13.0336,-9.9053,9.9063,-9.9053,2.6071,
5.2138,1.0429,-6.2562,44.8369,1050.7512,285.7019,-17.7262,-3.1279,-30.2386,-18.7686,-13.5554,4.1713,-1.0429,10.427,
7.8204,-6.7779,-0.52123,30.7593,1035.7512,278.9235,-16.162,-14.0771,-35.9735,-19.2903,-19.2903,2.6061,0.52123,25.427,
3.1283,-17.7267,-1.0425,26.0673,1020.7512,271.1031,-12.5124,-19.8116,-50.0501,-22.9399,-20.854,7.2992,1.0425,20.854,
3.1283,-10.4275,-4.1708,41.0673,1005.7512,275.2739,2.4876,-10.4275,-46.9223,-26.0683,-12.5124,8.3416,12.5124,5.854,
11.47,0,0,47.9647,990.7512,283.6155,7.2992,-4.1708,-34.4099,-25.0248,-10.4275,5.2133,-2.4876,-1.0434,
6.7769,-0.52123,0.52123,39.1009,975.7512,271.6244,-7.7008,-9.9063,-40.1443,-21.3762,-20.3328,10.9477,-11.9912,6.7769,
1.0429,-14.5978,3.1288,40.6661,960.7512,258.5912,-18.7686,-7.2987,-42.751,-19.8111,-13.5554,3.1288,3.0088,-1.0429,
7.8209,-21.3747,11.9917,55.6661,945.7512,266.4116,-3.7686,1.5642,-38.0584,-29.7168,-2.6066,-4.6915,18.0088,-3.6491,
0.52123,-33.8876,1.5637,44.3151,930.7512,258.0695,-10.9487,-13.4358,-48.4859,-43.2727,-14.0771,-0.52123,11.9912,3.6496,
1.0425,-38.5802,-1.0425,36.4948,915.7512,246.0783,-13.5549,-26.0673,-52.1355,-36.4948,-17.7257,6.2567,4.1708,13.5549,
13.0336,-23.5802,10.9487,51.4948,900.7512,261.0783,-2.6061,-11.0673,-44.3147,-25.546,-10.9477,0.52123,-6.7769,2.6071,
16.6827,-25.0253,15.6403,52.135,885.7512,275.2744,1.0429,3.9327,-36.4948,-30.2386,-5.2138,-2.0854,-1.0429,-1.0429,
17.2049,-31.8022,1.5642,44.3147,870.7512,260.2744,-9.9058,-7.8209,-42.2297,-43.2727,-16.1625,-1.5642,13.9571,13.9571,
13.5549,-16.8022,-6.2567,42.7515,855.7512,258.5917,-16.6832,-4.1708,-53.178,-33.3664,-28.1532,4.1708,12.5124,22.9399,
-1.0425,-16.6832,0,35.4523,840.7512,273.189,-13.5549,2.0849,-58.3917,-25.0248,-27.1107,10.4275,0,7.9399,
8.8628,-24.5036,0.52123,46.4001,825.7512,269.5395,-5.7355,-0.52123,-44.3151,-22.4187,-12.1107,11.9912,-8.8628,21.3752,
11.47,-17.7257,-2.0849,54.2204,810.7512,255.4634,-3.1283,0,-29.3151,-11.47,-1.0425,1.0425,0,14.5983,
-3.53,-22.4182,6.7779,56.8276,795.7512,241.3863,-1.5637,-1.5637,-27.6319,-1.5637,1.5637,1.5637,15,-0.4017,
-10.4265,-32.3235,6.2567,60.4771,780.7512,227.3102,-5.2133,-7.2982,-33.3664,-9.3841,0,14.5983,30,0,
0.52123,-22.4177,-0.52123,52.6568,765.7512,232.0022,-9.9053,-5.7345,-34.9306,-7.8204,-2.6061,19.2903,22.4187,15,
0.52123,-15.1195,-5.7355,51.6143,750.7512,246.5995,-1.5647,-0.52123,-46.4005,-7.8204,-16.162,5.7345,10.9487,25.546,
-0.52123,-15.1185,-2.6061,51.6143,735.7512,252.8572,4.693,-0.52123,-51.6138,-21.3752,-15.1185,0.52123,21.3762,10.9487,
4.692,-5.7345,6.7779,51.6143,720.7512,255.9846,-4.692,0.52123,-46.4005,-15.1195,-8.8628,-0.52123,15.1195,-4.0513,
7.2987,1.0429,7.2987,54.2209,705.7512,256.5063,-7.2987,2.0854,-42.751,-2.0854,-11.4695,-2.0854,0.11953,-3.1279,
3.6491,-0.52172,-1.5642,48.4855,690.7512,251.8133,-4.6925,-5.735,-45.3576,-10.9482,-14.0766,0.52172,4.6925,11.8721,
-3.1279,5.2138,-11.4704,41.7085,675.7512,239.8221,-17.7262,-11.4704,-59.4347,-22.9394,-20.8545,3.1279,3.1279,26.8721,
2.6066,14.0766,-4.6925,41.1873,660.7512,242.4292,-11.9907,-2.6066,-50.5714,-15.119,-16.1615,3.6501,5.735,11.8721,
10.9487,3.6496,-0.52123,42.2292,645.7512,247.643,-3.6496,0.52123,-41.1873,-11.9912,-14.0771,-6.7779,9.9053,-3.1279,
8.3426,-6.2557,-4.1708,57.2292,630.7512,246.0793,-8.3416,4.1708,-47.9642,-13.5549,-14.5973,-6.2557,11.47,5.2142,
2.6061,-6.7779,-1.5647,64.1267,615.7512,239.3014,-3.6496,0.52123,-50.5714,-11.9912,-10.9487,8.7443,13.0336,-0.52123,
-0.52172,0.52172,-7.8199,56.828,600.7512,237.216,-11.9907,-11.9907,-53.6992,-21.3757,-19.2898,17.2049,8.8633,4.6925,
0.52123,-0.52123,-6.7779,46.4001,585.7512,243.4722,-19.2903,-6.7779,-52.6572,-13.0346,-27.6319,8.8628,3.6496,19.6925,
-1.0425,-15.5212,1.0425,42.7505,570.7512,232.5235,-5.2133,0,-53.1785,0,-25.0248,11.47,-1.0425,19.8116,
-5.735,-24.5041,-1.5642,47.443,555.7512,218.4469,4.6925,-1.5642,-55.7851,-5.735,-25.5465,15.119,1.5642,7.8199,
-3.6496,-17.2044,-0.52123,49.5284,540.7512,219.4898,7.8204,-6.7779,-40.7851,-10.9487,-15.1195,15.1195,8.8628,0.52123,
0,-18.7691,0,51.0921,525.7512,228.3527,3.1274,-6.2567,-27.1107,-18.7691,-1.0434,10.4265,11.469,-7.2992,
-2.0859,-21.8975,-9.3841,43.7939,510.7512,239.8226,-1.0425,-5.2133,-31.2815,-17.7267,1.0425,5.2133,1.0425,7.7008,
-4.1703,-13.5554,-8.3411,41.7085,495.7512,233.5664,5.2138,-4.1703,-30.2386,-2.7267,-1.0429,10.427,-3.1279,22.7008,
-8.8628,-0.52123,-13.0336,45.3576,480.7512,218.5664,0.52123,-4.692,-29.7168,1.5647,-6.7769,2.6071,-3.6496,16.162,
3.6496,8.8628,-6.7779,38.0584,465.7512,221.5747,-3.6496,4.692,-28.6744,-2.6071,0.52123,-1.5637,-0.52123,1.162,
8.3416,2.0849,-5.2133,36.4948,450.7512,229.3951,-6.2567,1.0425,-27.1107,0,-3.1283,-2.0859,-8.3416,0,
-1.5642,2.6066,-9.9058,42.2297,435.7512,219.4893,-2.6066,-9.9058,-20.3333,1.5642,-8.8633,9.9058,-9.9058,3.6491,
-2.6071,5.7345,-3.6496,33.8876,420.7512,212.1907,1.5637,-13.0336,-15.1195,-2.6071,0.52123,14.0761,-3.6496,-0.52123,
4.692,-0.52123,2.6071,37.016,405.7512,212.1907,0.52123,-8.8628,-23.4611,-5.7345,0.52123,-0.52123,-9.9053,-3.6496,
0,0,1.0425,40.6656,390.7512,212.7119,3.1283,-4.1708,-20.854,-7.2992,-2.0849,1.0425,-2.0849,-18.6496,
-7.8199,-0.52172,-7.8199,35.973,375.7512,205.9345,0.52172,-7.8199,-9.9058,-8.8633,2.6066,6.7774,11.9907,-4.6925,
-6.7774,-15.119,-14.0766,37.0165,360.7512,192.3796,-5.735,-16.1615,-8.8623,-6.7774,5.735,6.7774,9.9058,10.3075,
-16.1625,-26.589,-13.0341,37.0155,345.7512,177.7813,-13.0341,-19.2908,-4.6925,-1.5642,15.119,2.6066,1.5642,21.3747,
-25.5465,-33.8881,-11.9917,43.2722,330.7512,174.653,-23.4606,-18.2474,-1.5642,5.735,24.5031,7.8199,1.5642,6.3747,
-21.3752,-42.2292,-14.0771,38.0584,315.7512,172.5676,-31.8027,-22.4187,-10.9487,3.6496,9.9053,15.1195,-3.6496,11.9912,
-8.3416,-27.2292,0,42.7515,300.7512,175.1747,-19.8116,-13.5549,-8.3416,0,1.0425,22.9399,-5.2133,16.6832,
-23.3416,-19.2898,-6.7774,27.7515,285.7512,171.5256,-28.6739,-15.119,-6.7774,5.735,2.6066,20.3333,-2.6066,5.735,
-38.3416,-34.2898,-21.7774,12.7515,270.7512,163.7052,-43.6739,-25.0243,-15.6403,5.2138,5.2138,8.3421,-2.0854,2.0854,
-23.3416,-19.2898,-21.3757,27.7515,255.7512,172.5681,-38.0589,-10.0243,-11.9907,8.8633,16.1615,22.4182,2.6066,-2.6066,
-8.3416,-4.2898,-12.5124,31.2815,240.7512,168.919,-34.4089,-14.5973,-9.3841,15.6408,4.1708,31.2815,-9.3841,-6.2557,
-6.7774,-0.52172,-13.0341,29.7173,225.7512,173.6105,-35.973,-18.2474,-5.735,24.5041,0.52172,26.589,-14.0766,8.7443,
3.6496,14.4783,-24.5036,27.6319,217.4039,186.1234,-30.7603,-9.9063,-20.735,9.5041,-3.6496,19.2903,-25.546,-4.692,
18.6496,29.4783,-18.2469,24.5036,232.0022,201.1234,-22.4177,3.6496,-29.7168,-5.4959,-10.9487,27.6319,-28.6744,-3.6496,
23.4611,44.4783,-16.162,19.2903,217.0022,195.5075,-37.4177,-7.8204,-43.2717,-20.3328,-25.9487,12.6319,-32.8452,9.9063,
38.4611,59.4783,-4.1708,32.324,232.0022,198.1146,-23.9824,1.0425,-40.6656,-20.854,-16.6832,-1.0425,-18.7681,5.2133,
53.4611,74.4783,-4.1708,27.1107,247.0022,197.0721,-10.4265,9.385,-39.6231,-26.0673,-18.7681,4.1708,-26.0673,-5.2133,
68.4611,89.4783,-19.1708,12.1107,240.8656,182.0721,-25.4265,7.2987,-43.7934,-18.7686,-33.7681,2.0854,-40.6661,-2.0854,
79.2457,104.4783,-10.427,10.427,225.8656,167.0721,-40.4265,20.8535,-38.5802,-3.7686,-30.2386,-4.1713,-30.2386,3.1279,
85.5019,119.4783,-4.1708,25.427,210.8656,152.2348,-30.2381,23.9824,-46.9223,-18.7686,-26.0673,-13.5549,-40.6656,4.1708,
79.7665,134.4783,-13.0336,25.546,195.8656,138.1587,-39.1019,16.162,-51.6143,-33.7686,-41.0673,-16.162,-55.6656,13.0336,
76.6396,130.86,-6.7774,20.3333,180.8656,123.1587,-44.3146,21.3757,-44.3146,-24.5031,-40.1438,-8.8623,-40.6656,6.7774,
75.0749,128.2529,-3.1279,30.2386,165.8656,108.1587,-39.6226,29.1961,-40.6651,-15.6403,-29.1951,2.0854,-25.6656,-2.0854,
60.0749,113.2529,-11.9907,32.8457,150.8656,93.1587,-31.8022,27.6314,-44.3147,-19.2898,-28.6739,2.6066,-23.4606,-2.6066,
52.135,98.2529,-2.0854,37.5377,135.8656,78.1587,-16.8022,35.4518,-43.7934,-18.7686,-18.7686,2.0854,-16.6827,-11.4695,
44.8359,83.2529,-1.0429,28.1527,120.8656,63.1587,-12.5129,26.0678,-42.751,-25.0253,-22.9394,1.0429,-18.7686,-12.5129,
43.2727,68.2529,-4.692,26.5895,105.8656,48.1587,-19.2893,11.0678,-43.2717,-22.4177,-30.7593,4.692,-33.7686,2.4871,
41.1873,53.2529,-3.6491,33.8881,90.8656,33.1587,-17.2049,18.2474,-48.4855,-25.5465,-28.6739,3.6491,-44.3147,17.4871,
37.016,49.5284,9.9063,37.016,75.8656,18.1587,-2.2049,33.2474,-41.1868,-27.6319,-16.162,-0.52123,-29.3147,2.4871,
41.708,41.708,14.5973,44.8364,60.8656,3.1587,-1.0425,30.2381,-37.5372,-15.6408,-18.7691,0,-14.3147,-12.5129,
37.5377,26.708,1.0429,36.4953,45.8656,-11.8413,-4.1703,17.7262,-46.9218,-13.5554,-26.0678,-1.0429,-16.6827,2.4871,
32.8452,21.3752,2.6071,25.546,30.8656,-13.0336,9.9063,19.2903,-46.4001,-23.4611,-21.3752,-2.6071,-13.0336,-2.6071,
35.4523,27.1107,7.2992,32.324,18.7691,-7.2992,13.5559,23.9824,-49.0072,-31.2805,-28.1532,-13.5549,-11.47,-17.6071,
32.324,21.8965,7.2992,31.2815,5.2133,-7.2992,10.4275,17.7257,-52.1355,-30.2381,-22.9399,-21.8965,-20.854,-5.2133,
25.546,18.2479,4.692,33.8876,-9.7867,-7.8204,13.0336,16.162,-38.0584,-22.4177,-10.9487,-6.8965,-14.0761,9.7867,
18.2474,15.119,-1.5642,30.7598,-24.7867,-16.1615,7.8199,19.2898,-27.6314,-16.1615,-20.3323,1.5642,-5.735,15.119,
19.8116,14.5983,10.4275,21.8975,-39.7867,-20.854,6.2567,27.1107,-25.0248,-15.6408,-14.5973,1.0425,-1.0425,0.11903,
15.119,7.8209,3.6501,17.2049,-54.7867,-25.5465,1.5642,16.1625,-32.8447,-22.4182,-10.9482,1.5642,-6.7774,-1.5642,
18.7686,19.8111,-6.2572,17.7252,-59.4352,-20.8545,2.0854,14.5978,-29.1961,-7.4182,-6.2572,10.427,-2.0854,5.2128,
21.8965,32.324,-3.1283,20.854,-63.6055,-21.8965,4.1708,29.1956,-32.324,0,-8.3416,11.47,0,0,
19.8111,22.9394,-5.2138,26.0678,-75.0749,-34.4094,7.2987,32.3235,-37.5377,-15,-14.5978,3.1279,2.0854,-2.0854,
20.854,11.47,-10.4275,30.2381,-85.5024,-42.7515,11.47,27.1097,-25.0248,-25.0248,-14.5983,0,0,12.9146,
30.2386,23.9829,2.0854,41.7085,-90.7152,-27.7515,13.5554,39.6236,-25.0243,-10.427,-9.3836,-2.0854,-5.2128,27.9146,
17.7262,14.5978,3.1279,28.1527,-105.7152,-32.3245,2.0854,31.281,-40.0243,-14.5978,-20.8545,-15.6413,-2.0854,12.9146,
20.8545,14.5978,7.2987,26.0678,-90.7152,-39.6226,7.2987,25.0253,-44.8369,-16.6837,-20.8545,-7.2987,9.3846,-2.0854,
35.4518,29.5978,9.3846,35.4518,-75.7152,-35.4518,16.6837,35.4518,-29.8369,-12.5119,-14.5978,-6.2562,-2.0854,2.0854,
34.4099,37.5372,7.2992,28.1532,-90.7152,-33.3664,11.47,44.8364,-29.1956,-18.7681,-14.5973,-21.2562,-7.2992,8.3416,
26.5895,40.1443,2.6071,23.4611,-105.7152,-37.016,-0.52123,33.8886,-35.9725,-18.2469,-21.3752,-9.9053,7.7008,0.52123,
23.9824,37.5372,-7.2992,11.47,-99.0573,-41.708,-3.1284,21.8965,-33.3664,-7.2992,-26.0683,5.0947,3.1284,15.5212,
28.1532,29.1956,-6.2567,10.4275,-102.1852,-40.6656,7.2992,30.2381,-31.2815,-6.2567,-15.6408,6.2567,-6.2567,30.5212,
18.2474,17.2049,-8.8633,13.0341,-117.1852,-44.3147,0.52172,24.5031,-34.9306,-18.2474,-13.0341,2.6066,2.6066,15.5212,
22.9394,11.4704,4.1713,20.8545,-132.1852,-41.7085,3.1288,19.8121,-30.2386,-11.4695,-17.7262,-2.0854,2.0854,0.52123,
30.2381,9.3841,15.6408,35.8545,-121.9967,-43.7939,14.5983,32.324,-31.2815,-9.3841,-21.8965,-11.47,-10.4275,13.5549,
20.8545,8.3421,4.1713,36.4953,-136.9967,-44.8359,13.5554,40.6661,-28.1527,-21.897,-17.7262,-4.1703,3.1279,-1.4451,
19.2903,7.8204,-4.692,30.7593,-151.9967,-29.8359,4.692,38.0584,-21.3752,-22.4187,-13.0336,3.6496,18.1279,-3.6496,
14.5978,5.2138,-3.1279,34.4094,-138.6799,-14.8359,3.1279,35.4518,-36.3752,-21.897,-21.897,-6.2562,13.5554,11.3504,
7.8209,2.6066,-2.6066,35.974,-128.7741,-5.735,10.9492,33.8881,-45.3571,-20.3323,-20.3323,-3.6491,2.6066,16.1625,
12.5124,0,-4.1708,35.4523,-143.7741,-8.3416,2.0849,30.2381,-31.2815,-13.5549,-7.2992,0,9.3841,11.47,
18.7681,-6.2567,5.2133,38.5797,-158.7741,-12.5124,-6.2567,30.2381,-16.2815,-6.2567,7.7008,-6.2567,21.8965,25.0248,
3.7681,-21.2567,-1.0425,36.4948,-173.7741,-27.5124,-10.4275,15.2381,-1.2815,-11.47,22.7008,-8.3416,20.854,21.8965,
3.1283,-21.8965,-3.1274,43.7939,-188.7741,-34.4089,0,18.7691,-2.0849,-6.2557,15.6408,3.1283,21.8975,6.8965,
15.6403,-6.8965,2.0854,39.6226,-203.7741,-20.8545,11.4695,33.7691,-7.2987,-4.1703,3.1279,-4.1703,18.7686,-8.1035,
14.5973,-1.0425,1.0425,41.708,-209.5841,-11.47,14.5973,30.2381,-9.3841,-7.2992,5.2133,-4.1708,14.5973,-6.2567,
6.7774,-9.9058,-11.9907,31.8022,-210.1053,-14.0766,3.6501,15.2381,-24.3841,-10.9482,-1.5642,10.8292,1.5642,8.7433,
8.3416,4.1708,0,17.7257,-205.4132,-13.5549,0,16.6832,-37.5372,-7.2992,-12.5124,15.6408,-8.3416,20.854,
13.5554,19.1708,6.2562,20.8545,-202.2849,-14.5978,3.1279,22.9394,-35.4518,-3.1279,-18.7686,6.2562,-10.427,5.854,
9.3841,4.1708,-7.2992,17.7257,-207.4987,-18.7691,-4.1708,16.6832,-28.1532,1.0425,-11.47,7.2992,-1.0425,11.47,
4.6925,-2.6066,-8.8633,20.3333,-206.9769,-6.7774,-8.8633,22.4182,-27.6314,4.6925,-7.8199,7.8209,2.6066,17.2049,
6.7774,6.7774,-11.9907,24.5031,-206.9774,2.6066,-5.735,25.5465,-32.8457,-2.6066,-11.9907,2.6066,-7.8199,10.9482,
18.2474,0.52172,-9.9058,16.1615,-218.4474,-0.52172,-7.8209,19.2898,-21.3757,-0.52172,-4.6925,15.119,3.6491,25.9482,
17.7257,-5.2133,-13.5549,12.5124,-233.4474,-8.3416,-22.8209,12.5124,-17.7257,3.1283,-3.1283,16.6832,14.5983,26.0673,
14.0761,-6.7779,-9.9063,20.3328,-248.4474,-8.8628,-15.1195,19.2903,-24.5036,1.5637,-0.52123,1.6832,7.8204,11.9912,
29.0761,-4.1708,5.0937,19.8116,-238.7797,-5.2133,-0.11953,28.1532,-22.9389,2.0859,-5.2133,0,-5.2133,0,
31.8032,3.6501,1.5642,5.735,-223.7797,-1.5642,-10.9482,14.0766,-19.2898,4.6925,-17.2039,11.9917,-1.5642,-4.6915,
22.4177,14.0761,-13.4358,-7.8204,-229.9168,-3.6496,-23.4611,4.692,-26.5895,5.7345,-21.3752,3.6496,9.9053,7.8204,
23.9824,29.0761,-9.3841,-3.1284,-238.7797,3.1284,-16.6832,13.5549,-31.2815,8.3416,-18.7681,-6.2557,12.5124,20.854,
17.2049,25.5465,-3.6501,-5.735,-248.6859,2.6066,-20.3333,10.9482,-28.6749,9.9058,-22.4182,-2.6066,3.6491,5.854,
12.5124,16.6832,-10.4265,0,-263.6859,-5.2133,-20.854,8.3416,-20.854,2.0859,-14.5973,0,5.2133,5.2133,
13.5549,20.854,-8.3416,8.3416,-262.762,-1.0425,-11.47,17.7257,-14.5983,0,-6.2567,0,19.8116,20.2133,
13.5549,26.0683,-2.0849,-1.0425,-258.5912,6.2567,-11.47,28.1532,-11.47,1.0425,-9.3841,1.0425,7.2992,5.2133,
27.1107,35.4523,3.1284,11.47,-263.805,13.5549,-7.2992,32.324,-6.2557,-3.1284,-6.2557,4.1708,-7.7008,-9.7867,
24.5041,26.589,1.5642,13.0341,-274.7532,8.8633,-8.8633,17.324,-15.119,-6.7774,-7.8199,-1.5642,-2.6066,5.2133,
9.5041,19.2903,-7.8204,0.52123,-273.7103,0.52123,-11.9912,2.324,-20.3328,6.7779,-7.8204,-0.52123,11.9912,20.2133,
-0.52123,27.6319,-22.8204,-3.6496,-285.1807,-0.52123,-24.5036,0.52123,-6.7779,16.162,6.7769,1.5637,8.8628,5.2133,
-4.692,15.1195,-25.546,-8.8628,-300.1807,-5.7345,-39.5036,0.52123,7.8204,10.9487,15.1195,-0.52123,3.6496,0.52123,
-18.2474,1.5642,-24.5031,-3.6491,-315.1807,-13.0331,-54.5036,-1.5642,3.6501,9.9058,6.7774,11.9917,6.7774,15.5212,
-18.2469,14.0771,-32.8452,-1.5637,-330.1807,-9.9053,-54.7417,4.692,-0.52123,19.2903,3.6496,24.5036,0.52123,1.5637,
-10.427,25.0253,-23.9819,-7.2987,-321.1538,-1.0429,-52.135,8.3411,13.5554,31.281,11.4695,26.0678,1.0429,-1.0429,
-19.2898,10.9482,-31.8022,-13.0341,-336.1538,-15.119,-64.1262,8.8633,9.9058,26.589,3.6491,18.2474,-3.6491,5.735,
-24.5031,11.9917,-35.973,-10.9482,-351.1538,-17.2039,-64.1262,18.2474,7.8209,29.7173,6.7774,20.3333,-2.6066,2.6066,
-21.3752,16.162,-20.973,-6.7779,-366.1538,-10.9487,-65.1692,10.9487,4.692,39.1009,5.7345,19.2903,-0.52123,0.52123,
-12.5119,10.427,-9.3846,-3.1279,-370.1609,-20.8535,-63.605,-2.0854,6.2562,40.6661,4.1713,26.0678,2.0854,15.5212,
-9.9058,5.735,-18.2474,-6.7774,-385.1609,-34.9306,-66.2111,-1.5642,6.7774,35.974,4.6925,29.7173,1.5642,30.5212,
-1.0429,17.7262,-18.7686,-8.3421,-374.3317,-19.9306,-68.8182,9.3846,2.0854,36.4943,1.0429,21.897,-5.2138,15.5212,
12.5129,30.2386,-10.427,-10.427,-359.3317,-11.4695,-56.3058,12.5129,5.2138,34.4094,1.0429,15.6403,-4.1713,0.52123,
5.2138,17.7262,-21.897,-3.1279,-352.4348,-26.4695,-55.2634,-1.0429,1.0429,19.4094,1.0429,8.3421,-5.2138,15.5212,
-8.8628,7.8204,-29.7168,0.52123,-367.4348,-41.4695,-59.9549,-3.6496,3.6496,23.4611,8.8628,13.0346,-0.52123,30.5212,
-3.1283,0,-20.854,-12.5124,-380.5879,-34.4099,-58.3912,0,4.1708,33.3664,8.3416,19.8116,2.0849,32.324,
8.8633,2.6066,-13.0341,-8.8633,-377.9813,-38.0589,-56.8271,0.52172,-0.52172,26.589,-0.52172,23.4606,2.6066,17.324,
-6.1367,4.692,-18.2469,-8.8628,-388.4083,-44.3151,-58.9125,-2.6071,2.6071,25.546,14.0771,23.4611,6.7779,3.6496,
-21.1367,2.0854,-19.8111,-7.2987,-391.0149,-40.6651,-51.0926,-2.0854,15.6413,40.546,29.0771,38.4611,9.3846,18.6496,
-6.1367,-3.1283,-18.7691,0,-399.357,-32.324,-44.8364,0,18.7681,52.1345,28.1532,46.9213,11.469,33.6496,
2.0854,-6.2562,-19.8111,-3.1279,-410.8265,-30.2386,-51.0926,-2.0854,14.5978,42.751,25.0253,41.7085,14.5978,26.0678,
-12.9146,-1.5642,-18.2474,-4.6915,-423.8601,-37.0155,-58.913,1.5642,14.0766,38.0589,27.6324,43.2722,14.0766,40.1448,
-15.1195,-3.6496,-14.0771,-10.9487,-413.4336,-43.2727,-59.9559,3.6496,9.9053,33.8876,14.0761,44.3151,5.7345,48.4859,
-0.11953,-1.5642,-7.8209,-7.8209,-398.4336,-33.8881,-55.7846,2.6066,1.5642,28.6739,7.8199,39.1014,-5.735,33.4859,
0,11.469,-9.3851,-5.2142,-385.8022,-28.1532,-56.3063,0,2.0849,26.0673,10.4265,24.1014,-10.4275,18.4859,
-6.2562,11.4695,-10.427,-8.3421,-385.8017,-27.1102,-56.3058,-1.0429,11.4695,34.4094,11.4695,22.9394,1.0429,29.1961,
-7.8204,-1.5637,-13.0336,2.6071,-375.8959,-26.5885,-60.9984,-10.9487,5.7345,35.9735,1.5637,31.8027,2.6071,26.5895,
-8.3416,0,-13.5549,5.2133,-374.3317,-25.0248,-62.562,-6.2567,4.1708,36.4948,5.2133,32.324,0,19.8116,
-14.0771,0.52123,-10.9487,-9.7867,-384.2375,-30.7603,-64.1267,1.5637,7.8204,34.9301,9.9053,27.6319,-0.52123,31.8027,
-12.5119,-1.0429,-12.5119,-15.6403,-387.8866,-30.2386,-64.6474,2.0854,7.2996,34.4094,11.4705,28.1537,1.0429,40.6661,
-4.1708,2.0849,-16.6832,-6.2567,-396.2287,-18.7691,-59.4347,4.1708,1.0425,37.5372,7.2992,29.1956,-1.0425,26.0673,
3.6501,17.0849,-11.9907,-3.6491,-403.0061,-14.0766,-51.6138,10.9492,-2.6066,39.1014,1.5642,35.974,-1.5642,16.1625,
-0.52172,6.7774,-10.9482,-15.119,-407.1769,-29.0766,-51.6138,6.7774,0.52172,37.0165,2.6066,39.1014,-0.52172,20.3333,
-3.6496,-7.8204,-6.7769,-3.6496,-407.1769,-26.5885,-47.4425,3.6496,15.5217,51.6143,15.1195,47.4435,5.7355,35.3333,
-7.2987,-5.2138,-11.4695,7.2987,-413.9549,-14.5978,-52.135,3.1279,18.7686,56.3058,17.7262,60.4766,-3.1279,50.3333,
-1.5637,-3.6496,-5.7345,1.5637,-421.7747,-22.4187,-51.6143,3.6496,20.3328,52.6568,16.162,68.2975,-5.7345,35.3333,
-3.1279,-7.2987,-6.2562,8.3421,-422.296,-27.1102,-61.5201,3.1279,19.8111,55.2634,18.7686,58.3917,-7.2987,20.3333,
-18.1279,-20.3328,-21.2562,13.0336,-437.296,-19.2903,-76.5201,3.6496,15.1195,54.7417,23.4611,50.5709,-3.6496,35.3333,
-32.8452,-28.6744,-17.2044,5.7355,-452.0133,-27.6319,-73.5108,-0.52123,22.4187,43.2727,16.162,46.401,0.52123,45.3576,
-17.8452,-13.6744,-6.7774,4.6925,-437.0133,-30.7598,-58.5108,-2.6066,26.589,55.7856,9.9058,40.1448,2.6066,30.3576,
-10.427,-12.5129,-2.0854,1.0429,-422.2965,-18.7686,-63.605,-1.0429,25.0253,70.7856,22.9394,43.7934,15.6403,23.9819,
-25.427,-27.5129,-9.3846,3.1279,-437.2965,-23.9829,-78.605,-3.1279,32.3235,63.605,28.1527,49.0067,14.5978,38.9819,
-20.3333,-35.974,-6.7774,5.735,-446.8,-30.7598,-71.4254,-5.735,47.3235,54.7422,29.7173,51.6138,5.735,27.6314,
-13.0346,-28.6744,3.6496,-3.6496,-431.8,-30.7603,-56.4254,-9.9063,54.7417,58.9125,33.8876,40.1443,6.7769,14.0761,
-16.1625,-24.5041,-3.6491,1.5642,-429.0739,-25.5465,-56.828,-1.5642,39.7417,51.6138,28.6749,32.8457,21.3757,29.0761,
-18.2479,-24.5036,-18.6491,-0.52123,-444.0739,-28.6744,-56.8276,0.52123,24.7417,37.016,13.6749,30.7593,10.9477,27.6319,
-5.2138,-11.4705,-7.2996,10.427,-435.8518,-28.1537,-49.0077,2.0854,19.8111,42.751,15.6403,32.3235,-2.0854,26.0678,
-8.8628,-8.8628,0.52123,9.9063,-440.5433,-31.8027,-50.5709,-0.52123,17.2044,30.7603,17.2044,33.8886,-10.9477,26.5895,
-11.47,-8.3416,-5.2133,5.2133,-446.2783,-25.0248,-42.7505,5.2133,18.7691,25.0248,22.9399,39.6231,-11.47,13.5549,
-11.4695,-12.5119,-12.5119,14.5978,-440.0221,-25.0253,-41.7085,-1.0429,20.8545,29.1961,19.8111,33.3669,1.0429,10.427,
-17.2049,-14.0766,-6.7774,10.9482,-436.373,-26.589,-45.3581,-7.8209,21.3747,29.7173,10.9482,33.8881,6.7774,25.427,
-22.4182,-2.6066,-1.5642,10.9482,-430.1168,-14.0766,-37.0165,1.5642,25.5455,30.7598,17.2039,47.443,-1.5642,35.973,
-30.2391,-12.5134,-10.4275,16.6832,-433.7664,-17.7267,-40.6656,-4.1708,27.1097,25.0248,30.2381,32.443,4.1708,20.973,
-26.0678,-27.1102,-10.427,13.5554,-437.9367,-25.0243,-43.7934,-11.4695,23.9829,27.1102,33.3669,21.897,15.6413,10.427,
-21.8975,-28.1532,-4.1708,16.6832,-428.5527,-17.7267,-41.708,-3.1284,23.9824,34.4089,25.0248,36.897,3.1284,25.427,
-36.4948,-43.1532,-15.6408,17.7257,-437.9372,-23.9824,-54.2214,-7.2992,28.1532,31.2805,26.0673,42.7505,7.2992,40.427,
-38.0584,-50.5718,-27.6319,11.9912,-450.9708,-32.8452,-68.2975,-11.9912,27.6319,26.5885,30.7593,37.016,22.2992,26.5885,
-23.0584,-39.6221,-23.9824,5.2142,-435.9708,-25.0248,-61.5196,-4.1708,17.7267,30.2391,20.854,37.5382,7.2992,13.5559,
-20.854,-49.0072,-11.47,13.5549,-430.6381,-22.9399,-49.0072,0,21.8965,33.3664,21.8965,37.5372,0,26.0673,
-34.9306,-58.913,-15.119,26.589,-445.6381,-37.0165,-53.6997,-9.9058,27.6314,33.8881,32.8457,39.1014,9.9058,35.973,
-28.6744,-48.4859,-11.9912,34.9311,-460.6381,-37.016,-40.1443,-10.9487,42.6314,47.4435,47.8457,51.6143,10.9487,24.5036,
-27.1102,-51.0926,-2.0854,33.3669,-461.9191,-42.751,-37.5377,-13.5554,41.7085,32.4435,51.0926,38.5802,8.3411,9.5036,
-38.0584,-54.7417,-3.6496,23.4611,-467.6541,-46.4001,-52.5377,-15.1195,26.7085,17.4435,36.0926,29.7168,3.6496,15.1195,
-30.7593,-46.4001,-3.6496,20.3328,-467.6541,-35.9735,-58.9125,-13.0336,11.7085,8.8628,21.0926,32.8452,3.6496,30.1195,
-26.589,-49.5289,-2.6066,25.5465,-455.1416,-30.7598,-52.6572,-20.3333,3.6491,2.6066,6.0926,17.8452,4.6925,15.1195,
-27.6319,-48.4859,0.52123,29.7168,-440.5433,-22.4177,-45.3576,-11.9912,-0.52123,0.52123,9.9063,17.2044,1.5637,11.9912,
-26.5895,-37.016,3.6496,34.9301,-448.8854,-13.0336,-41.1868,-0.52123,0.52123,10.9477,13.0336,32.2044,-13.4363,26.9912,
-21.3747,-25.5455,2.6066,41.1873,-453.0558,-17.2039,-42.2297,-2.6066,9.9058,25.9477,9.9058,37.0165,-18.2474,41.1873,
-16.162,-22.4177,1.5637,37.016,-438.4584,-23.4611,-40.1443,-1.5637,20.3328,40.9477,17.2044,37.016,-5.7345,26.1873,
-20.3328,-33.8876,-2.6071,30.7603,-436.373,-23.4611,-44.3151,2.6071,16.162,34.9311,19.2903,42.2292,-9.9053,20.3328,
-23.9819,-38.5802,-2.0854,22.9394,-443.1505,-22.9394,-45.8793,2.0854,15.6403,33.3669,18.7686,40.6651,-5.2138,35.3328,
-18.7681,-29.1956,-4.1708,19.8116,-453.577,-23.9814,-46.9213,-10.4265,10.4275,47.9647,14.5983,39.6231,4.1708,47.9647,
-8.8628,-14.1956,-10.9487,34.8116,-449.9279,-10.9487,-42.2292,-0.52123,17.2044,54.7417,20.3328,54.6231,0.52123,35.9735,
-13.5554,-18.7686,-7.2987,43.7934,-434.9279,-7.2987,-37.5377,7.2987,25.0253,52.135,30.2386,56.3058,-7.2987,50.0501,
-17.2044,-30.7603,-0.52123,37.016,-424.9031,-21.3752,-38.0584,0.52123,20.3328,49.5284,27.6319,41.3058,-4.692,40.1443,
-8.3416,-21.8965,-2.0849,37.5372,-423.3389,-26.0673,-37.5372,-1.0425,19.8116,34.5284,22.9399,40.6656,1.0425,25.1443,
-8.3416,-11.47,1.0425,47.9647,-411.8695,-22.9399,-33.3664,-6.2567,28.1532,22.9389,31.2815,53.178,-1.0425,40.1443,
-9.9063,-18.2479,0.52123,57.87,-396.8695,-28.6744,-30.7603,-13.0336,31.8027,37.016,33.8876,43.2717,-0.52123,38.0584,
-5.735,-29.7173,-1.5642,45.3581,-381.8695,-33.8881,-29.7173,-7.8199,27.6314,42.2297,26.589,34.9306,1.5642,23.0584,
-7.8199,-24.5041,-3.6491,44.3147,-394.6645,-33.8881,-28.6749,-4.6925,31.8022,34.9306,28.6749,46.4005,3.6491,38.0584,
-13.5554,-26.0678,-1.0429,53.1775,-409.6645,-38.5802,-25.0253,-19.6925,38.5802,40.6651,40.6651,46.9218,1.0429,53.0584,
-11.9917,-32.8457,0.52172,43.2722,-406.1345,-37.0165,-28.6749,-15.119,33.8881,41.1873,35.973,33.8881,-0.52172,38.0584,
-6.2562,-17.8457,-7.2987,33.3669,-391.1345,-22.0165,-39.6226,-0.11903,22.9394,26.1873,21.897,31.281,-1.0429,23.9829,
-14.0766,-10.9482,-7.8199,35.974,-406.1345,-7.0165,-35.973,-2.6066,35.974,23.4606,32.8457,35.974,1.5642,38.9829,
-29.0766,-25.9482,-6.7774,40.1438,-421.1345,1.5642,-32.8457,-8.8633,46.4005,32.8457,43.2722,32.8457,-1.5642,23.9829,
-26.0678,-30.2386,-7.2987,40.6661,-436.1345,3.1279,-34.4094,-3.1279,39.6226,33.3669,34.4094,42.751,-6.2562,13.5554,
-19.2903,-21.3752,-4.692,37.016,-439.5009,4.692,-30.7603,-7.8204,32.8452,27.6319,31.8027,51.6143,-8.8628,28.5554,
-14.5983,-12.5124,-5.2133,43.7939,-427.5097,5.2133,-34.4099,-7.2992,30.2381,28.1532,33.3664,44.8364,-11.47,43.5554,
-11.9912,-3.6496,-10.9487,34.9311,-433.2447,-2.6071,-46.4001,2.6071,25.546,30.7603,24.5036,41.1868,-15.1195,28.5554,
-13.0341,-2.6066,-6.7774,33.8881,-435.3301,-6.7774,-40.1438,2.6066,28.6749,30.7598,30.7598,47.443,-9.9058,20.3333,
-18.7686,-8.3421,-3.1279,43.7934,-430.6381,1.0429,-34.4094,-1.0429,30.2386,17.7262,40.6651,32.443,-8.3421,35.3333,
-22.4182,-10.9482,-5.735,41.1873,-426.9885,0.52172,-40.1438,-0.52172,26.589,8.8633,31.8022,17.443,-9.9058,20.3333,
-15.119,-2.6066,0.52172,48.4855,-428.0314,-0.52172,-31.8022,-0.52172,32.8457,23.8633,29.7173,29.7173,-2.6066,22.4182,
-10.4275,-6.2567,4.1708,46.9213,-441.0651,-5.2133,-25.0248,-4.1708,38.5797,34.4089,40.6656,41.708,-7.2992,37.4182,
-9.3841,-13.5549,5.2133,38.5807,-448.3637,-16.6832,-35.4523,-5.2133,40.6656,25.0248,34.4099,45.8788,-22.2992,47.9647,
-17.2049,-16.1615,0.52172,38.0589,-444.7146,-20.3323,-38.0589,-0.52172,49.5289,33.8881,19.4099,58.913,-16.1615,32.9647,
-28.6739,-21.3757,-7.8199,33.8881,-444.7141,-15.119,-37.0155,-2.6066,53.6997,48.8881,32.8457,52.6572,-1.1615,43.2722,
-22.4182,-15.119,-1.5642,35.974,-438.4579,-9.9058,-44.3146,1.5642,46.4005,58.913,42.2297,48.4864,-6.7774,54.7422,
-20.854,-12.5124,0,30.2381,-432.7235,-19.8116,-38.5807,0,44.8364,45.8788,27.2297,45.8788,-20.854,39.7422,
-15.6408,-12.5124,4.1708,38.5797,-419.1681,-19.8116,-23.5807,-4.1708,50.0496,42.7505,21.8965,33.3664,-7.2992,24.7422,
-19.8111,-15.6403,3.1279,46.9218,-423.3389,-14.5978,-27.1102,-4.1703,35.0496,28.1537,28.1537,19.8111,-3.1279,39.6226,
-31.8027,-19.2903,-3.6496,35.9735,-434.2876,-19.2903,-42.1102,3.6496,27.6319,15.1185,20.3328,24.5036,-17.2044,49.5284,
-21.3752,-5.7345,-3.6496,38.0584,-419.2876,-18.2469,-30.7603,3.6496,40.1443,22.4187,10.9487,32.8452,-22.4177,45.3576,
-16.162,-0.52123,0.52123,41.1868,-404.2876,-13.0336,-19.2893,-11.3504,31.8027,24.5036,19.2903,23.4611,-11.9912,30.3576,
-24.5036,-11.9912,4.692,40.1443,-409.2623,-14.0761,-34.2893,-17.2044,25.546,15.1195,26.5895,17.2044,-4.692,15.3576,
-19.8116,-4.1708,-1.0425,44.8364,-395.1857,-6.2557,-42.7505,-2.2044,33.3664,26.0683,23.9824,32.2044,-3.1283,30.3576,
-23.4606,-2.6066,-7.8209,30.7598,-386.3229,2.6066,-41.1873,-2.6066,41.1863,35.973,23.4606,44.3146,-9.9058,45.3576,
-20.3333,-2.6066,-3.6501,35.973,-391.5367,2.6066,-32.8457,-4.6925,48.4855,31.8022,26.589,29.7173,-11.9917,51.6138,
-13.0336,2.6071,-3.6496,43.2727,-382.1521,-12.3934,-31.8027,-2.6071,40.1443,31.8027,23.4611,32.8452,-7.8204,36.6138,
-14.0766,-1.5642,1.5642,39.1014,-380.0667,-18.2474,-31.8022,-3.6491,34.9306,43.2722,29.7173,47.8452,-1.5642,32.8457,
-13.0341,0.52172,-0.52172,45.3581,-383.1951,-3.2474,-28.6749,-1.5642,46.4005,44.3147,34.9306,45.3581,-3.6491,31.8022,
-13.0336,3.6496,-6.7769,38.0594,-377.9808,-7.8204,-27.6319,-3.6496,41.1868,31.8027,28.6744,30.3581,-7.8204,34.9311,
-20.8545,-3.1279,3.1279,39.6226,-386.8441,-22.8204,-34.4094,-5.2138,26.1868,23.9819,26.0678,38.5802,-5.2138,49.9311,
-26.589,-13.0341,7.8199,50.5714,-394.6645,-33.8881,-38.0589,-7.8199,24.5041,19.2898,26.589,31.8022,-8.8633,59.9554,
-15.119,-5.735,3.6491,51.6138,-379.6645,-18.8881,-25.5465,-6.7774,33.8881,19.2898,31.8022,26.589,-3.6491,44.9554,
-29.7168,-2.6061,0.52123,42.2302,-369.6392,-15.1185,-27.6319,-3.6496,24.5036,14.0771,26.5895,30.7603,-0.52123,29.9554,
-44.7168,-12.5129,2.0854,33.3669,-384.6392,-30.1185,-40.6661,-2.0854,18.7686,11.4695,23.9819,25.0253,-10.427,34.4094,
-33.8886,-11.9912,7.8204,44.3151,-374.8535,-33.8886,-39.1019,-7.8204,22.4177,16.162,27.6319,25.546,-15.1195,49.4094,
-21.3757,-8.8633,8.8633,49.5289,-359.8535,-24.5041,-27.6314,-20.3333,24.5041,19.2898,25.5465,29.7173,-8.8633,55.7846,
-24.5031,-2.6066,2.6066,34.5289,-344.8535,-31.8022,-12.6314,-20.3323,17.2049,6.7774,10.9482,19.2908,-17.2039,40.7846,
-20.3328,12.3934,-2.6071,28.6744,-330.0166,-29.7168,-13.0336,-10.9487,10.9487,2.6071,6.7779,15.1195,-22.4177,25.7846,
-26.589,5.735,-5.735,24.5041,-345.0166,-28.6749,-28.0336,-14.0766,15.119,9.9058,19.2898,17.2049,-7.4177,19.2898,
-25.5465,-5.735,2.6066,35.973,-357.1273,-41.1873,-40.1438,-13.0341,17.2049,9.9058,22.4182,14.0766,-2.6066,22.4182,
-19.2893,2.6071,0.52123,41.1868,-350.8706,-44.3151,-25.1438,-3.6496,11.9912,-0.52123,10.9487,9.9063,-17.6066,15.1195,
-22.4182,4.6925,-8.8633,27.6314,-360.2552,-35.973,-15.119,-1.5642,13.0341,1.5642,14.0766,14.0766,-22.4182,7.8199,
-17.2044,5.7345,-6.7779,30.7603,-357.1273,-31.8027,-20.3328,-5.7345,15.1195,16.162,18.2479,22.4187,-17.2044,22.8199,
-18.2474,0.52172,-0.52172,32.8457,-346.6998,-43.2722,-5.735,-10.9482,13.0341,8.8633,11.9907,24.5041,-17.2049,37.8199,
-28.6749,-0.52172,11.9907,34.9306,-351.9135,-47.443,-4.6925,-7.8199,19.2898,-3.6491,19.2898,16.1615,-2.2049,52.6563,
-36.4953,2.0854,2.0854,27.1102,-358.6915,-46.9218,-19.6925,-9.3846,4.2898,-14.5978,9.3846,6.2562,-2.0854,37.6563,
-21.4953,7.8204,6.7779,32.8452,-348.7857,-31.9218,-20.3328,4.692,-4.692,-7.8204,4.692,11.9912,-14.0761,22.6563,
-20.854,0,6.2567,47.8452,-352.4348,-31.2805,-5.3328,0,-6.2557,-11.469,2.0859,3.1283,-26.0673,27.1107,
-18.2469,8.8628,10.9487,52.6568,-337.4348,-41.1868,-3.6496,-3.6496,3.6496,-7.8204,10.9487,14.0771,-11.0673,34.9311,
-22.4182,6.7774,6.7774,39.1014,-331.0595,-51.6138,-18.6496,-7.8199,0.52172,-2.6066,9.9058,15.119,-0.52172,30.7598,
-20.3328,3.6496,-0.52123,42.2292,-326.8887,-48.4859,-18.2479,0.52123,-4.692,1.5637,3.6496,13.0336,-2.6071,26.5895,
-15.1195,4.692,5.7345,44.3151,-323.7604,-45.3576,-6.7779,-4.692,-0.52123,0.52123,5.7345,21.3752,-10.9487,38.0584,
-22.4182,1.5642,6.7774,49.5279,-331.06,-51.6143,-14.0766,-10.9492,4.6915,-1.5642,11.9907,28.6739,-14.0766,45.3571,
-21.3752,0.52123,3.6496,54.7417,-330.0166,-53.6997,-7.8204,-2.6071,4.692,-0.52123,11.9912,25.546,-20.3328,31.8027,
-12.5124,0,5.2142,50.0506,-319.0679,-47.9637,5.2142,-6.2557,-4.1708,2.0859,0,19.8116,-33.3664,16.8027,
-5.735,5.735,7.8209,56.828,-304.0679,-37.0155,4.6925,-2.6066,-8.8623,2.6066,-3.6491,28.6749,-21.3757,31.8027,
-15.6413,6.2562,3.1279,49.0067,-312.8127,-37.5377,-5.2138,4.1703,-10.427,-7.2996,2.0854,27.1102,-6.3757,46.8027,
-23.4611,19.2903,0.52123,45.3576,-322.7174,-33.8876,-2.6061,10.9487,-4.692,-3.6496,7.8204,30.7603,-0.52123,35.9735,
-34.4089,19.8116,0,45.8788,-307.7174,-44.8364,-6.2557,4.1708,-1.0425,0,4.1708,28.1532,-2.0849,20.9735,
-42.7505,4.8116,1.0425,46.9223,-322.7174,-59.8364,-21.2557,-10.8292,7.2992,-1.0425,15.6408,17.7257,6.2567,35.9735,
-40.1448,-6.7774,-1.5642,54.7422,-337.7174,-64.1267,-36.2557,-7.8209,17.2039,2.6066,27.6314,19.2898,1.5642,45.3571,
-29.1951,8.2226,-6.2562,39.7422,-340.9648,-56.3058,-35.4518,3.1288,2.2039,-2.0854,12.6314,14.5978,-13.4358,30.3571,
-14.1951,23.2226,0.52123,38.0584,-325.9648,-42.2292,-20.4518,11.9912,-12.7961,-0.52123,-2.3686,15.1195,-7.8204,28.6744,
0.80488,38.0584,-0.52123,35.9735,-310.9648,-51.6143,-5.4518,-3.0088,-27.6319,0.52123,-3.6496,9.9053,-4.692,43.6744,
6.2562,23.9819,-1.0429,29.1961,-295.9648,-66.6143,1.0429,-15.6403,-29.1961,-1.0429,-2.0854,7.2987,1.0429,52.135,
6.2567,28.1532,0,35.4523,-280.9648,-81.6143,5.2142,-11.469,-31.2805,-7.2982,-7.2982,1.0434,0,37.135,
11.9907,26.589,6.7774,44.3147,-265.9648,-87.0661,13.0341,-11.9917,-27.6314,-4.6925,1.5642,4.6925,-15,22.135,
4.692,11.589,6.7779,46.4001,-250.9648,-102.0661,7.8204,-26.9917,-33.8876,-17.2044,2.6071,4.692,-30,7.135,
2.0854,-2.0854,8.3411,51.0926,-235.9648,-108.4419,12.5119,-25.0253,-30.2386,-20.8545,6.2562,5.2138,-15,9.3846,
-6.7774,7.8199,8.8633,44.3147,-220.9648,-104.7923,10.9482,-10.9482,-24.5041,-11.9917,6.7774,5.735,-4.6925,4.6925,
-3.1283,3.1283,14.5983,59.3147,-205.9648,-104.2706,13.5549,-15.6408,-17.7257,-4.1708,8.3416,9.3841,-13.5549,19.6925,
-1.0429,-11.8717,5.2138,57.3493,-202.2849,-114.6976,15.6413,-30.6408,-20.8535,-8.3411,5.2138,9.3846,1.0429,34.6925,
-0.52172,-6.7774,4.6925,50.5713,-196.5499,-108.9626,17.2049,-25.5465,-25.5465,-11.9907,0.52172,7.8209,5.735,27.6314,
3.6496,2.6071,19.6925,65.1692,-189.2513,-93.9626,23.4611,-10.5465,-20.3328,-5.7345,-2.6071,2.6071,-9.265,14.0771,
0,1.0425,28.1532,60.4771,-194.9862,-92.8011,22.9399,-6.2567,-9.3841,-2.0859,0,2.0849,-3.1283,25.0248,
-3.1279,8.3421,13.5554,45.4771,-200.1995,-107.8011,7.9399,-18.7686,-20.8545,-7.2987,-6.2562,3.1279,11.4695,15.6403,
11.8721,19.8111,12.5129,40.6661,-192.9008,-108.4414,15.6403,-13.5554,-21.897,-4.1703,-5.2138,3.1279,5.2138,0.64026,
5.7355,5.7355,9.9063,42.2302,-196.5499,-102.7064,16.162,-13.0336,-13.0336,-0.52123,-4.692,-3.6496,0.52123,1.5647,
-9.2645,0,4.1708,34.4099,-204.3703,-105.313,6.2567,-18.7681,-3.1274,4.1708,-2.0849,11.3504,0,16.5647,
-14.0766,8.8633,2.6066,26.589,-210.1053,-111.0485,17.2049,-20.3333,-2.6066,1.5642,-1.5642,23.4606,-15,31.5647,
-0.52172,11.9907,1.5642,38.0589,-211.1482,-105.8347,29.7173,-14.0766,-7.8199,0.52172,-1.5642,8.4606,-21.3757,16.5647,
-5.7355,6.7769,-2.6071,44.3151,-222.6182,-104.7923,18.2469,-14.0771,-11.9912,0.52123,4.692,10.9477,-6.3757,13.0336,
-16.6837,2.0854,-4.1713,43.7934,-222.097,-108.4419,17.7262,-14.5978,-11.4705,-2.0854,5.2138,22.9394,4.1703,16.6827,
-13.0341,8.8623,-1.5642,49.5279,-207.097,-102.7069,32.7262,-6.7774,-1.5642,1.5642,3.6491,14.0766,-3.6501,8.8623,
-14.0761,0.52123,-1.5637,47.4435,-192.3791,-100.621,33.8886,-11.9912,2.6071,2.6071,11.9912,-0.52123,0.52123,-0.52123,
-13.0336,1.5637,-5.7345,49.5284,-207.3791,-98.5361,24.5036,-8.8628,-1.5637,3.6496,17.2044,5.7345,3.6496,-3.6496,
-12.5124,6.2567,-12.5124,39.6231,-207.4987,-101.1427,25.0248,-3.1283,0,0,11.47,8.3416,-4.1708,11.3504,
-15.6408,-3.1283,-7.2992,35.4523,-193.9433,-110.5268,21.8965,-12.5124,5.2133,0,13.5549,0,1.0425,26.3504,
-10.9487,-0.52123,-3.6496,44.3151,-191.3367,-108.9626,15.1195,-18.2469,-4.692,2.6071,17.2044,0.52123,4.692,27.6319,
-5.2138,6.2562,-3.1279,39.6226,-204.3708,-96.9719,19.8111,-10.427,-3.1279,6.2562,14.5978,7.2987,-2.0854,12.6319,
-9.3851,1.0425,-3.1283,42.7505,-216.8832,-99.0573,21.8965,-1.0425,-1.0425,1.0425,8.3416,6.2557,-17.0854,15.6408,
-11.47,0,-10.4275,44.8364,-203.3278,-107.3989,17.7257,0,-8.3416,2.0859,10.4275,5.2133,-21.8965,29.1956,
-3.1279,3.1279,-9.3846,39.6226,-198.1146,-106.3564,17.7262,-5.2138,-5.2138,5.2138,9.3846,5.2138,-26.0678,14.1956,
-1.5637,5.7355,-1.5637,49.5284,-213.1146,-103.7493,25.546,-8.8628,-0.52123,2.6071,0.52123,1.5647,-25.546,1.5647,
-5.735,10.9482,-3.6491,52.6563,-204.892,-99.5785,31.8022,-9.9058,-6.7774,4.6925,8.8633,3.6491,-10.546,16.5647,
-9.3846,15.6403,-14.5978,45.8793,-200.1995,-99.0573,16.8022,-12.5129,-10.427,2.0854,12.5129,9.3846,-2.0854,31.5647,
-9.3846,4.1713,-10.427,51.0926,-215.1995,-99.0573,1.8022,-1.0429,-1.0429,3.1279,8.3421,11.4695,-16.6837,19.8111,
-8.8633,-5.735,4.573,54.7422,-229.9168,-105.8347,14.0766,1.5642,-1.5642,1.5642,7.8209,-3.5305,-20.3323,24.5041,
2.0854,9.265,15.6413,60.4776,-214.9168,-103.2276,27.1112,-5.2128,-6.2562,-5.2128,17.7262,-2.0854,-5.3323,34.4094,
-3.6501,-1.5642,2.6066,53.6997,-199.9168,-118.2276,17.2049,-16.1625,-8.8633,-20.2128,11.9907,1.5642,5.735,19.4094,
-3.1279,-1.0429,1.0429,52.136,-184.9168,-123.0392,14.5978,-14.5978,1.0429,-17.7262,9.3846,-5.2138,5.2138,8.3421,
-1.5642,13.9571,4.6925,45.3581,-169.9168,-111.048,18.2474,-9.9058,1.5642,-10.9482,14.0766,-3.6491,-8.8633,3.6491,
-10.4275,7.2992,3.1283,43.7939,-163.7052,-111.5697,21.8965,-3.1283,-5.2133,-11.47,19.8116,11.3509,-15.6408,18.6491,
-12.5124,-6.2567,3.1283,58.7939,-178.7052,-118.8689,27.1107,-7.2992,0,-3.1284,22.9399,16.6832,-0.64076,33.6491,
-7.2992,-12.5124,0,57.3488,-180.3879,-120.9538,21.8975,-22.2992,10.4275,0,21.8975,6.2567,-1.0425,46.9223,
-4.1708,-11.47,4.1708,56.3063,-183.5163,-114.6976,18.7691,-8.3416,18.7691,-4.1708,22.9399,18.7691,-13.5549,31.9223,
-15.119,-10.9482,1.5642,55.7846,-196.5504,-117.3047,16.1615,-2.6066,8.8633,-1.5642,19.2898,27.6314,-5.735,28.6739,
-15.6408,-17.7267,-4.1708,46.9213,-199.1575,-131.3813,14.5973,-17.6066,0,0,17.7257,12.6314,2.0849,38.5797,
-8.3421,-18.7686,3.1279,57.3493,-184.1575,-132.4237,17.7262,-19.8111,2.0854,-3.1279,19.8111,8.3411,-2.0854,23.5797,
-21.897,-25.0253,2.0854,55.2634,-184.5592,-129.2959,16.6837,-17.7262,1.0429,-17.7262,16.6837,12.5129,-1.0429,11.4695,
-11.47,-25.0248,0,54.2204,-190.8154,-132.4237,19.8116,-28.1532,5.2133,-21.8965,13.5549,8.3416,0,26.4695,
-2.6066,-19.2898,0.52172,57.8705,-189.2513,-139.2011,19.2898,-27.6314,10.9482,-16.1615,11.9917,0.52172,-0.52172,38.0589,
-17.6066,-20.3328,15.5217,56.8276,-187.1659,-142.3295,20.3328,-22.4177,14.0771,-24.5036,16.162,-2.6071,14.0771,23.0589,
-8.8633,-11.9907,22.4182,58.913,-177.7813,-137.1157,22.4182,-26.589,11.9917,-35.9735,15.119,-5.735,5.735,18.2474,
6.1367,-5.2138,11.4705,53.1785,-169.9609,-134.5091,18.7686,-28.1527,5.2138,-29.1951,14.5978,-13.5554,-5.2138,32.3245,
4.1708,-7.2992,15.6408,60.4771,-169.9614,-131.3813,21.8965,-13.1527,-4.1708,-25.0248,18.7691,-12.5124,9.7862,17.3245,
1.0425,-2.0859,20.854,69.8612,-173.0893,-119.9113,27.1107,-2.0859,-4.1708,-30.2386,20.854,2.4876,19.8116,2.3245,
7.8204,-4.692,10.9487,54.8612,-181.9521,-119.3896,17.2054,-16.162,-6.7769,-30.7593,16.162,4.692,4.8116,11.9912,
1.0425,-5.2133,12.5124,44.8364,-180.3884,-117.8259,16.6832,-15.6408,-8.3416,-22.9399,15.6408,-1.0425,15.6408,26.9912,
-9.9058,-4.6925,14.0766,59.8364,-176.7389,-112.0909,28.6749,-5.735,1.5642,-26.589,23.4606,-1.5642,26.589,35.973,
-4.1708,-5.2133,5.2133,57.3488,-179.3455,-109.4843,26.0673,-10.4275,4.1708,-37.5377,25.0248,-4.1708,11.589,20.973,
-3.6491,-0.52172,0.52172,51.6138,-176.7389,-117.3042,16.1625,-10.9482,-9.9058,-39.1014,10.0248,1.5642,7.8209,29.7173,
-18.6491,-6.2562,1.0429,59.4342,-179.3455,-120.9538,22.9394,-1.0429,-10.427,-39.6226,1.0429,2.0854,15.6413,36.4953,
-21.3752,-8.8628,3.6496,66.2116,-181.9526,-107.9201,29.7168,4.692,-3.6496,-45.3581,16.0429,-4.692,15.1195,21.4953,
-11.47,-10.4265,4.1708,62.563,-171.0039,-109.4838,25.0248,-4.1708,-10.4265,-50.0496,14.5983,6.2567,6.2567,9.3841,
0,-9.3841,13.5549,64.6479,-156.4061,-114.6976,31.2815,-2.0849,0,-36.4948,9.3841,21.2567,-7.2992,24.3841,
-9.9053,-11.9912,4.692,65.1692,-167.3543,-115.2193,22.4187,-5.7345,5.7345,-29.7168,3.6496,6.2567,-3.6496,20.3328,
-11.47,-6.2557,-4.1708,64.6479,-175.1747,-102.1852,19.8116,-3.1283,6.2567,-19.8116,6.2567,3.1283,11.3504,35.3328,
-5.735,-7.8209,-1.5642,65.1687,-176.7389,-103.7493,23.4606,-1.5642,1.5642,-15.119,13.0331,18.1283,20.3323,49.5279,
-11.9907,-13.0331,-2.6066,58.913,-162.1406,-116.2617,21.3757,-8.8623,2.6066,-19.2898,15.12,24.5041,5.3323,34.5279,
-19.8111,-17.7262,-4.1713,47.9642,-155.3631,-128.2529,14.5978,-19.8111,8.3421,-25.0253,6.2562,9.5041,6.2562,19.5279,
-6.2567,-16.6832,1.0425,53.178,-170.3631,-129.2959,13.5549,-20.854,0,-34.4089,7.2992,3.1283,0,13.5549,
3.6496,-15.1185,4.692,51.6143,-171.5251,-121.475,18.2479,-20.3328,-3.6496,-46.4,17.2054,4.692,-15,11.9912,
-5.735,-11.9907,5.735,55.7846,-156.5251,-123.5609,23.4606,-21.3757,5.735,-42.2297,17.2049,8.8633,-14.0766,10.9482,
-8.8623,-7.8199,1.5642,63.0838,-155.8844,-128.7741,15.12,-20.3323,-1.5642,-27.6314,15.12,18.2474,0.92342,19.2908,
-0.52123,-11.9912,7.8204,63.0843,-170.4827,-124.6033,0.52123,-21.3752,-2.6071,-21.3752,11.9912,18.2479,15.1195,24.5036,
1.0429,-18.7686,9.3846,69.8617,-164.7477,-133.4667,-1.0429,-31.2815,6.2562,-28.1527,2.0854,3.2479,0.11953,10.427,
-2.0859,-10.4275,7.2992,63.6055,-153.2777,-134.5091,11.47,-32.324,2.0859,-33.3664,6.2567,3.1283,-14.8805,2.0859,
1.0429,4.5725,-1.0429,48.6055,-148.0645,-119.5091,5.2138,-25.0253,-12.9141,-35.4518,2.0854,2.0854,-21.897,9.3846,
16.0429,19.5725,2.6071,55.7851,-137.1162,-104.5091,11.9912,-10.0253,-18.2479,-28.6744,0.52123,-9.9063,-10.9487,24.3846,
28.6749,34.5725,2.6066,57.8705,-152.1162,-89.5091,5.735,1.5642,-14.0766,-40.1438,-1.5642,-24.9063,-17.2049,18.2474,
33.3669,49.5725,2.0854,57.3493,-167.1162,-74.5091,-7.2987,9.3846,-2.0854,-37.5367,3.1288,-13.5554,-9.3846,19.8121,
45.8788,64.5725,-4.1708,43.7939,-182.1162,-59.5091,-14.5983,20.854,4.1708,-36.4948,-7.2992,-18.7691,-8.3416,5.2133,
60.8788,79.5725,5.2138,53.1775,-193.9438,-44.5091,-1.0429,35.854,1.0429,-32.3245,-8.3421,-13.5554,-12.5129,-4.1713,
75.5962,94.5725,-1.5642,49.5289,-194.4645,-29.5091,-5.735,47.443,-13.9571,-30.7598,-11.9907,1.4446,-27.5129,10.8287,
82.3736,109.5725,-5.2133,39.6231,-181.4309,-14.5091,-5.2133,62.443,-18.7691,-30.2391,-19.8116,5.2133,-32.324,25.8287,
97.3736,124.5725,1.0429,53.1785,-188.73,0.49088,-1.0429,77.443,-27.1102,-43.7934,-34.8116,-1.0429,-29.1961,40.8287,
106.356,139.5725,3.1284,58.3912,-203.73,15.4909,-4.1708,86.5444,-33.3664,-52.1355,-40.6656,-3.1284,-40.6656,37.5372,
104.2706,154.5725,3.1279,57.3493,-205.4133,30.4909,-3.1279,91.7581,-34.4094,-47.9642,-35.4518,-8.3411,-43.7934,28.1537,
104.2701,169.5725,0,58.3912,-198.1146,45.4909,0,93.8435,-40.6656,-55.2639,-42.7515,-12.5124,-37.5382,34.4089,
101.6639,184.5725,4.692,57.87,-213.1146,60.4909,-4.692,86.0232,-33.8876,-62.0413,-35.9735,-15.1195,-29.7168,32.8452,
94.3653,199.5725,13.0341,62.0413,-228.1146,75.4909,-13.0341,86.0237,-27.6314,-56.8276,-29.7173,-20.3323,-34.9306,26.589,
88.6303,214.5725,8.3416,53.178,-238.7797,90.4909,-8.3416,94.886,-35.4523,-45.8788,-33.3664,-9.3841,-47.9647,36.4948,
82.8948,229.5725,3.6496,51.6133,-241.3868,105.4909,-3.6496,92.2789,-29.7178,-41.1868,-31.8027,-7.8204,-59.9559,33.8876,
89.6732,244.5725,7.2987,66.6133,-253.378,120.4909,-9.3846,87.5873,-14.7178,-33.3669,-27.1102,-7.2987,-50.0501,21.897,
80.8099,239.3014,-1.5637,52.6568,-239.3014,135.4909,-18.2479,77.6816,-17.2044,-33.8876,-30.7603,1.5637,-40.1443,35.9735,
69.8617,229.3956,-5.2138,43.7934,-230.4386,150.4909,-13.5554,84.459,-18.7686,-18.8876,-20.8545,5.2138,-33.3669,50.9735,
58.9125,214.3956,-4.692,54.7417,-245.4386,159.0127,-19.2903,86.0232,-14.0771,-4.692,-23.4611,4.692,-34.9311,35.9735,
43.9125,199.3956,-11.4695,45.8793,-260.4386,144.0127,-34.2903,71.0232,-29.0771,-19.692,-34.4094,11.4695,-41.7085,20.9735,
33.8881,184.3956,-9.9058,46.4005,-275.4386,129.0127,-28.6749,67.2546,-20.3333,-34.692,-26.589,9.9058,-38.0589,35.973,
33.8881,169.3956,-1.5642,55.7846,-288.3086,114.0127,-20.3333,63.0838,-5.3333,-30.7598,-22.4182,-5.0942,-35.973,25.5465,
31.8022,154.3956,6.7774,70.3829,-303.3086,99.0127,-21.3757,53.6997,1.5642,-17.2049,-21.3757,-4.6915,-43.2722,10.5465,
18.2474,139.3956,0.52172,70.3829,-318.3086,84.0127,-25.5465,49.5289,-6.7774,-30.7598,-23.4606,-0.52172,-53.6997,13.0341,
7.8199,124.3956,-1.5642,60.9979,-333.3086,69.0127,-28.6749,50.5714,1.5642,-33.8881,-19.2898,-5.735,-39.1014,28.0341,
6.7774,109.3956,-1.5642,62.0413,-326.8882,62.0413,-32.8447,50.5713,1.5642,-20.3323,-6.7774,-11.9907,-24.1014,13.0341,
5.7345,94.3956,-0.52123,52.6567,-327.9312,53.6992,-34.9311,45.3576,-5.7345,-23.4611,0.52123,-15.1195,-37.016,6.7779,
5.2133,83.417,0,37.6567,-332.6232,38.6992,-36.4948,34.4099,0,-34.4089,-11.47,-5.2133,-52.016,16.6832,
4.1708,81.3311,-5.2133,38.5807,-329.4954,38.5807,-40.6656,33.3664,12.5124,-32.324,-13.5549,-4.1708,-40.6656,15.6408,
4.692,72.4683,-4.692,41.1868,-330.0166,41.1868,-39.1009,42.2302,18.2479,-17.324,-4.692,-14.0761,-37.016,11.9912,
4.1708,66.7328,-4.1708,37.5372,-335.7516,26.1868,-39.6231,38.5797,11.47,-8.3416,-13.5549,-10.4275,-50.0496,5.2133,
-0.52123,68.2975,0.52123,31.8027,-336.2728,21.3752,-37.016,31.8027,16.162,-8.8628,-13.0336,-4.692,-39.1019,7.8204,
0.52123,62.0408,-0.52123,39.1009,-331.0595,25.546,-30.7603,29.7168,20.3328,-6.7779,-3.6496,-7.8204,-25.547,16.162,
4.692,48.4859,-9.9053,43.2727,-320.6325,14.0761,-27.6319,21.3752,17.2044,-5.7345,-4.692,-9.9053,-35.9735,5.7345,
2.6066,34.9306,-2.6066,40.1438,-318.5471,2.6066,-21.3757,18.2474,23.4606,-6.7774,-5.735,-7.8199,-34.9306,7.8199,
-7.8204,23.4611,1.5637,49.5284,-324.8033,-1.5637,-25.546,18.2469,27.6319,-5.7345,1.5637,-6.7779,-21.3752,22.8199,
-11.4695,18.7686,-12.5129,51.0926,-320.1113,1.0429,-29.1961,18.7686,30.2386,-1.0429,8.3411,-4.1713,-20.8545,32.3235,
-11.4695,13.5554,-16.6827,47.9652,-315.94,-2.0854,-30.2386,23.9829,28.1537,2.0854,3.1288,-4.1703,-29.1951,17.3235,
-12.5124,11.47,-1.6827,47.9647,-305.5135,-11.47,-31.2815,33.3664,30.2381,13.5549,-2.0859,0,-14.5983,26.0673,
-11.4695,14.5978,1.0429,39.6226,-295.086,-6.2562,-29.1961,31.281,27.1102,20.8545,-1.0429,-6.2562,-5.2138,39.6226,
-8.3416,29.5978,-13.9571,34.4089,-300.2997,8.7438,-40.6656,25.0248,12.1102,9.3841,-14.5983,-14.5983,-20.2138,31.2815,
-6.2567,44.5978,-28.9571,23.9824,-315.2997,23.7438,-55.6656,32.324,3.1283,11.47,-29.1956,-3.1283,-35.2138,22.9389,
-6.2557,59.5978,-33.3664,14.5983,-330.2997,38.7438,-70.6656,45.8788,3.1283,18.7691,-30.2381,-3.1283,-50.2138,15.6408,
3.1283,74.5978,-36.4948,20.854,-345.2997,53.7438,-71.9471,60.8788,-7.2992,17.7257,-29.1956,-3.1283,-65.2138,19.8116,
-2.0854,89.5978,-46.9218,6.2562,-360.2997,68.7438,-78.2033,66.7333,-17.7262,10.427,-42.751,2.0854,-80.2138,19.8121,
-11.9912,104.5978,-31.9218,11.9912,-375.2997,83.7438,-79.7675,73.5108,-3.6496,17.2044,-38.0594,3.6496,-72.4683,22.4177,
-9.9058,119.5978,-21.3757,26.9912,-390.2997,98.7438,-72.4688,88.1086,1.5642,10.9482,-23.0594,-1.5642,-57.4683,37.4177,
-1.5642,123.5609,-27.6324,30.7598,-405.2997,113.7438,-66.2121,89.151,-5.735,1.5642,-27.6324,4.6915,-68.298,49.5279,
0,131.3808,-22.9399,29.1956,-401.4424,128.7438,-63.6055,82.3736,-5.2133,0,-38.5807,6.2557,-74.032,41.708,
-1.5642,130.86,-17.2049,31.8022,-408.2199,143.7438,-62.0413,88.1086,-0.52172,0.52172,-25.5465,0.52172,-59.032,51.6138,
0,118.8684,-20.854,36.4948,-412.9124,158.7438,-61.5196,103.1086,-1.0434,0,-23.9824,2.0849,-44.032,66.6138,
-4.692,107.9196,-19.2903,31.8027,-423.8606,173.611,-63.0843,104.7923,-0.52123,0.52123,-33.8876,0.52123,-55.7851,59.9559,
-8.3416,113.6551,-18.7691,27.1097,-433.7664,180.3879,-66.7338,99.0568,-1.0425,6.2557,-31.2815,1.0425,-68.8187,52.1355,
-5.7345,128.6551,-33.7691,26.5895,-425.9455,193.4226,-69.34,99.579,-4.692,5.7355,-33.8876,4.692,-65.1692,67.1355,
-6.2567,114.6976,-34.4099,19.8116,-413.9549,187.6871,-61.5196,98.0143,-3.1284,4.1708,-31.2815,3.1284,-62.563,71.9461,
-12.5119,99.6976,-21.897,22.9394,-428.9549,173.0893,-64.6474,89.6732,1.0429,3.1288,-27.1102,-1.0429,-58.3917,56.9461,
-12.5124,84.6976,-28.1532,20.854,-436.8943,158.4915,-76.1179,86.5444,-1.0425,1.0425,-33.3664,5.2133,-63.6055,41.9461,
-10.428,69.8607,-28.1537,7.2987,-422.297,143.4915,-72.99,85.5014,-6.2562,6.2562,-37.5377,15.6403,-67.7768,28.1527,
-17.7262,54.8607,-26.0678,16.6837,-428.5527,128.4915,-63.605,81.3316,-6.2562,6.2562,-33.3669,10.427,-62.5625,42.751,
-22.4177,42.2302,-23.4601,31.6837,-431.1588,128.7746,-58.9125,89.1515,4.692,-4.692,-22.4177,4.692,-56.8276,38.0594,
-22.4182,51.6138,-26.589,29.7173,-416.1588,126.6892,-62.0413,91.2369,7.8199,-7.8199,-22.4182,8.8633,-55.7846,46.4005,
-32.8452,53.6992,-34.9311,17.2044,-401.1588,111.6892,-65.1692,78.724,-4.692,4.692,-28.6744,11.9912,-57.87,61.4005,
-36.4953,60.4766,-26.0678,25.0243,-406.6562,96.6892,-65.6909,70.9041,-6.2562,6.2562,-26.0678,6.2562,-59.4342,67.7758,
-21.897,75.4766,-14.5978,40.0243,-394.1433,102.1856,-61.5201,71.9466,1.0429,-1.0429,-17.7262,5.2138,-55.2634,52.7758,
-21.897,79.2457,-15.6403,38.5802,-386.8441,98.0148,-60.4766,70.9041,-1.0429,1.0429,-22.9394,8.3411,-46.9218,63.605,
-24.5036,66.2116,-14.0771,34.9301,-389.4513,86.0232,-64.1267,67.2541,-0.52123,0.52123,-26.5895,2.6061,-47.4435,49.5284,
-14.5983,64.6479,-9.3841,40.6656,-374.4513,80.2887,-57.3488,63.6055,12.5124,0,-15.6408,0,-44.8364,34.5284,
-22.9394,51.0936,-23.9819,26.0678,-359.4513,65.2887,-61.5191,58.3917,11.4704,2.0854,-18.7686,-2.0854,-46.9218,30.2386,
-19.8116,43.7939,-23.9824,21.8965,-374.4513,57.3488,-70.9036,68.8187,0,6.2567,-30.2381,0,-55.2639,40.6656,
-9.9053,37.016,-9.9053,23.4611,-380.0667,55.7851,-62.0408,58.9135,4.692,-2.6071,-27.6319,2.6071,-64.1267,48.4859,
-18.2474,24.5031,-9.9058,35.973,-365.0667,56.8271,-55.7846,43.9135,15.119,-8.8633,-19.2898,8.8633,-56.828,54.7422,
-23.4606,14.0766,-19.2898,32.8457,-356.0844,56.828,-70.7846,45.3581,5.735,-5.735,-29.7173,13.0341,-55.7846,46.4005,
-8.8628,11.9912,-14.0771,20.3328,-371.0844,59.9559,-80.8099,56.8276,0.52123,-0.52123,-37.016,16.162,-66.2116,31.4005,
-13.0341,16.1615,-2.6066,28.6739,-364.426,69.3395,-65.8099,64.1262,1.5642,-1.5642,-33.8881,13.0341,-68.297,24.5031,
-22.4182,14.0766,-9.9058,27.6324,-349.426,79.767,-59.9554,64.1272,3.6501,-1.5642,-29.7163,1.5642,-60.9979,25.5465,
-23.4606,8.8633,-24.9058,22.4182,-334.426,71.4254,-65.1687,52.6572,3.6501,2.6066,-29.7173,-2.6066,-60.9979,39.1014,
-36.4943,4.1713,-32.3235,25.0253,-333.6662,56.4254,-68.8182,41.7085,-2.0854,2.0854,-34.4094,4.1713,-57.3493,52.135,
-32.324,-7.2992,-17.3235,30.2381,-324.2821,58.3912,-67.7763,55.2639,9.3841,9.3841,-19.4094,7.2992,-42.3493,37.135,
-17.324,-11.9912,-6.7769,43.2727,-316.4612,66.2126,-58.913,67.2551,24.3841,18.2479,-4.692,4.692,-28.6744,22.135,
-10.427,-18.7686,-12.5119,39.6226,-314.8976,53.1785,-60.4771,55.2634,10.427,15.6403,-19.692,14.5978,-41.7085,37.135,
-19.2898,-29.7173,-5.735,28.6739,-317.5047,43.2722,-57.8705,48.4855,5.735,7.8199,-26.589,19.2898,-42.2297,52.135,
-4.2898,-25.0248,-9.3841,37.5372,-312.8122,39.6231,-44.8364,58.3912,12.5124,0,-18.7691,4.2898,-40.6656,64.6479,
0.52172,-10.0248,-17.2049,41.1873,-301.8634,41.1873,-44.3146,69.3405,-0.52172,3.6491,-21.3757,6.7774,-37.0165,49.6479,
-5.2133,4.1708,-7.2992,49.0072,-286.8634,52.1355,-34.4099,71.9471,-4.1708,18.6491,-18.7691,21.7774,-22.0165,55.2629,
-8.8628,-10.8292,-13.0336,35.9735,-276.8386,37.1355,-28.6744,56.9471,8.8628,20.3328,-20.3328,27.6319,-24.5036,54.7426,
-14.5973,-25.8292,-16.6832,25.0248,-279.4452,22.1355,-32.324,41.9471,21.8975,13.5559,-12.5124,12.6319,-30.2381,45.8788,
-26.0673,-40.8292,-17.7257,36.4948,-284.659,7.1355,-42.7505,37.5372,17.7257,10.4275,-4.1708,5.2133,-32.324,36.4948,
-23.9819,-55.8292,-11.4695,41.7085,-286.7444,-3.1279,-37.5377,49.0077,29.1961,25.4275,3.1279,8.3421,-20.8545,23.9819,
-15.6403,-40.8292,-3.1279,40.6661,-283.616,1.0429,-34.4094,50.0501,35.4518,28.1527,-1.0429,8.3421,-7.2987,23.9819,
-17.2049,-38.0589,-6.7774,41.1863,-268.616,13.0331,-44.3156,49.5279,20.4518,13.1527,-8.8633,6.7774,-6.7774,38.9819,
-10.9487,-31.8027,-4.692,46.4,-253.616,24.5036,-34.9311,57.87,5.4518,19.2903,-5.7345,21.7774,-11.9912,53.9819,
-6.2567,-21.8975,-3.1283,45.8788,-239.8226,23.9824,-28.1532,59.4337,3.1283,34.2903,-16.6832,31.2805,-20.854,68.9819,
-13.5549,-36.8975,-9.3841,41.708,-254.8226,9.3841,-37.5372,52.1355,10.4275,33.3664,-29.1956,18.7691,-31.2815,53.9819,
-13.0341,-47.443,-2.6066,51.6138,-252.8567,2.6066,-38.0589,52.6563,21.3747,31.8022,-20.3333,31.8022,-30.7598,38.9819,
-16.162,-39.1009,-0.52123,38.0594,-252.8563,0.52123,-42.2292,48.4859,15.1195,41.1868,-17.2044,43.2727,-28.6744,47.4435,
-5.735,-38.0584,1.5642,42.2297,-262.2403,-1.5642,-37.016,59.9564,21.3757,48.4864,-6.7774,38.0589,-13.6744,62.4435,
-6.7774,-41.1868,3.6491,57.2297,-264.3262,-16.5642,-42.2297,63.0838,23.4606,35.973,-3.6491,32.8457,-5.735,63.0838,
-18.2474,-39.1014,6.7774,59.9554,-271.6249,-31.5642,-42.2297,48.4855,20.3333,27.6314,-6.7774,37.0165,-20.735,48.0838,
-6.2562,-37.5372,6.2562,53.1785,-274.2315,-46.5642,-31.281,50.0501,17.7262,25.0253,-10.427,34.4094,-20.8535,52.136,
-1.0425,-37.5377,1.0425,55.2639,-259.2315,-42.751,-20.854,60.4771,13.5549,21.8965,-12.5124,33.3664,-16.6832,59.4347,
-8.8628,-31.8027,6.7779,67.2551,-244.2315,-34.9306,-8.8628,66.2116,20.3328,31.8027,-6.7779,41.1868,-11.9912,58.9134,
-8.8633,-34.9311,8.8633,68.297,-232.0022,-35.9735,-21.3757,62.0413,13.0341,33.8881,-14.0766,33.8881,-10.9482,59.9554,
-1.0429,-44.8364,6.2562,53.297,-223.1394,-47.9647,-25.0253,54.2209,1.0429,28.1527,-17.7262,29.1961,-14.5978,61.5201,
-6.2562,-49.0072,8.3421,53.1785,-222.0965,-56.3063,-21.897,52.135,6.2562,25.0253,-10.427,25.0253,-16.6837,56.3058,
-16.6832,-39.6231,8.3416,63.6055,-229.3956,-52.1355,-25.0248,53.178,20.854,26.0673,-8.3416,18.7691,-11.47,45.8788,
-17.7262,-43.7939,9.3846,52.135,-241.908,-56.3063,-33.3669,46.9218,20.8545,19.8111,-9.3846,14.5978,-20.8545,43.7934,
-10.9482,-55.7851,9.9058,46.4005,-237.216,-71.3063,-42.2297,40.1438,8.8633,5.735,-5.735,19.2898,-21.3757,45.3581,
-14.5983,-65.6909,0,44.8364,-222.216,-86.3063,-32.324,41.708,7.2992,5.2133,-2.0859,21.8965,-6.3757,39.6231,
-26.5885,-66.2116,-5.7345,38.0584,-218.4469,-93.3223,-19.2903,47.4435,16.162,17.2044,-0.52123,21.3752,0.52123,40.1443,
-21.897,-66.7333,1.0429,38.5802,-221.054,-89.6732,-25.0253,44.8359,20.8535,11.4695,-1.0429,18.7686,-14.4788,46.9218,
-12.5134,-76.1179,2.0849,40.6656,-218.9691,-84.4595,-21.8975,36.4948,12.5124,0,0,15.6398,-27.1107,31.9218,
-11.4705,-70.9041,-1.0429,46.9218,-211.6695,-89.6727,-6.8975,38.5802,5.2138,9.3846,-5.2138,15.6403,-35.4518,16.9218,
-19.2903,-66.2121,-2.6071,45.3576,-211.1487,-97.4936,-0.52123,45.3576,9.9053,10.9477,0.52123,14.0761,-20.4518,31.9218,
-34.2903,-81.2121,-9.9058,38.0589,-223.6606,-103.7493,-15.5212,30.3576,5.735,-4.0523,6.7774,9.9058,-5.4518,46.9218,
-22.9394,-91.7586,-7.2996,44.8359,-208.6606,-95.9294,-27.1102,19.8111,7.2987,1.0429,5.2138,7.2987,-1.0429,31.9218,
-10.427,-76.7586,-2.0854,42.751,-193.6606,-98.0148,-12.1102,25.0243,16.6827,15.6403,7.2987,2.0854,-14.5978,27.1102,
-22.4187,-78.7245,-6.7779,43.2717,-188.2088,-107.9206,-11.9912,23.4601,16.162,5.7345,5.7345,3.6496,-3.6496,42.1102,
-22.4187,-90.1945,-11.9912,42.2292,-196.5504,-106.8777,-24.5036,22.4177,11.9912,6.7769,0.52123,2.6061,-0.52123,42.2292,
-7.4187,-78.7245,-2.6066,42.2297,-181.5504,-91.8777,-15.119,27.6314,26.9912,21.7769,5.735,2.6066,-6.7774,27.2292,
-0.52123,-63.7245,0.52123,42.2302,-166.5504,-86.0232,-2.6061,26.5895,33.8886,30.7603,-3.6496,17.6066,-16.162,42.2292,
-2.0854,-51.0926,-1.0429,43.7944,-178.3025,-91.7581,1.0429,32.3245,21.897,32.3245,-13.5554,32.6066,-6.2562,57.2292,
-6.7784,-66.0926,-5.735,39.1014,-188.2088,-100.6215,1.5642,32.8447,6.897,28.6739,-10.9492,17.6066,-1.5642,42.2297,
-7.2987,-77.1603,-10.427,39.6226,-189.7725,-103.2281,1.0429,29.1961,7.2987,22.9394,-1.0429,8.3421,-6.2562,29.1961,
-3.1279,-62.5625,-6.2562,53.1785,-198.1141,-92.8011,-3.1279,37.5377,19.8111,27.1102,3.1279,23.3421,-6.2562,44.1961,
-2.0859,-63.6055,-10.4275,54.2204,-183.5168,-88.6303,0,39.6221,14.5973,31.2805,0,23.9824,-13.5559,45.8788,
-3.1284,-66.7333,-14.5983,39.2204,-168.5168,-91.7581,10.4265,32.324,1.0425,22.9389,0,8.9824,-28.5559,33.3664,
2.6066,-62.0408,-15.119,32.8457,-153.5168,-93.3218,5.735,33.8881,7.8209,14.0766,-2.6066,-4.6915,-41.1863,26.589,
1.5642,-62.0408,-10.9482,39.1014,-154.8419,-87.0656,-4.6915,34.9306,22.4182,21.3757,-1.5642,10.3085,-26.1863,35.974,
-9.9063,-69.3405,0.52123,38.0584,-149.6286,-89.1515,-2.6071,29.7168,21.3752,25.546,-0.52123,18.2469,-11.1863,48.4859,
-7.8204,-63.0838,-2.6071,39.1019,-134.6286,-89.1515,-0.52123,35.9735,22.4177,28.6744,0.52123,13.0336,-1.5637,48.4859,
-5.2133,-67.7763,-17.6071,32.324,-133.4667,-88.6303,0,31.2815,25.0248,28.1532,0,5.2133,-13.5549,56.3063,
1.0429,-79.2457,-11.4695,27.1102,-148.4667,-94.8865,1.0429,20.8535,20.8535,22.9394,-6.2562,-1.0429,-28.5549,58.3917,
4.6925,-75.5962,1.5642,32.8457,-148.5857,-96.4507,-2.6066,34.9306,26.589,26.589,-1.5642,-3.6491,-26.589,43.3917,
-4.1703,-75.0744,-9.3846,35.4518,-133.5857,-102.1852,-3.1279,39.6236,32.3245,32.3245,8.3421,2.0854,-11.589,31.281,
-7.8209,-84.9807,-19.2908,30.7598,-145.4578,-117.1852,-6.7774,24.6236,17.3245,29.7163,-1.5642,10.9482,1.5642,39.1014,
-2.6066,-95.4082,-13.0341,21.3747,-160.0557,-129.8171,2.6066,16.1615,17.2039,28.6739,-9.9058,11.9907,-13.4358,42.2297,
-5.735,-94.3648,-9.9058,25.5465,-145.0557,-127.7317,5.735,30.7598,28.6749,25.5465,-6.7774,7.8199,-28.4358,49.5289,
-5.2138,-79.3648,-7.2987,40.5465,-130.0557,-114.6976,1.0429,43.7934,27.1102,30.2386,-1.0429,17.7262,-13.4358,62.5625,
-14.5983,-87.5878,-13.5559,41.708,-137.6375,-117.8259,-4.1708,30.2381,12.5124,27.1097,4.1708,13.5549,-11.47,47.5625,
-15.6403,-94.8865,-20.8545,38.5802,-126.1675,-126.1675,3.1279,27.1102,5.2138,15.6403,-3.1279,6.2562,-14.5978,32.5625,
-18.2474,-107.9201,-16.1615,32.8457,-127.7312,-130.8595,7.8209,29.7173,9.9058,1.5642,-18.1279,3.6501,-1.5642,32.8457,
-14.5983,-115.7405,-1.1615,33.3664,-135.5521,-128.2529,10.4275,21.8965,16.6832,1.0425,-11.47,-1.0425,7.2992,31.2815,
-3.6496,-100.7405,-7.8204,42.2292,-120.5521,-122.5179,10.9487,26.5885,11.9912,16.0425,-1.5637,-7.8204,1.5637,33.8876,
-2.0859,-85.7405,-22.8204,33.3664,-106.3564,-118.8689,7.2982,31.2805,6.2557,31.0425,-10.4275,0,0,48.8876,
-7.8204,-100.7405,-16.162,31.8027,-121.3564,-117.3047,7.8204,26.5885,8.8628,24.5036,-11.9912,11.9912,-8.8628,60.9984,
-6.2562,-115.7405,-8.3421,36.4943,-112.6122,-119.9113,12.5129,27.1102,8.3421,9.5036,-10.427,11.4695,-23.8628,46.9218,
-3.6496,-130.7405,-15.1195,22.4177,-102.7069,-134.9113,7.8204,22.4177,3.6496,5.7345,-13.0336,6.7779,-18.2479,31.9218,
-5.2133,-139.7224,-28.1532,18.7691,-117.7069,-143.8932,4.1708,15.6408,6.2567,11.47,-15.6408,7.2992,-4.1708,32.324,
-18.2474,-154.7224,-37.0165,25.5465,-132.7069,-146.5003,-1.5642,19.2898,4.6925,6.7774,-19.2898,1.5642,1.5642,27.6314,
-8.8628,-154.8419,-22.0165,39.1019,-147.7069,-141.2865,1.5637,27.6319,10.9487,13.0336,-6.7779,-1.5637,4.692,33.8876,
-11.47,-157.4485,-16.6832,36.4948,-158.4915,-141.8083,1.0425,25.0248,7.2992,10.4275,-11.47,-1.0425,1.0425,33.3664,
-12.5129,-157.4485,-17.7262,36.4943,-154.3207,-140.7653,1.0429,23.9819,5.2138,8.3421,-15.6403,1.0429,-1.0429,35.4518,
-12.5124,-156.4061,-16.6832,37.5372,-148.0645,-138.6804,3.1284,23.9824,4.1708,8.3416,-17.7267,4.1708,-3.1284,38.5797,
-13.0336,-154.8419,-16.162,39.1019,-141.287,-136.0733,4.692,25.546,3.6496,8.8628,-19.2903,6.7779,-3.6496,42.2292,
-11.9912,-153.7994,-14.0771,40.1443,-133.9879,-132.9454,7.8204,26.5885,3.6496,9.9053,-20.3328,10.9487,-3.6496,45.3576,
-8.3421,-150.1499,-9.3846,44.8369,-125.1251,-127.2105,12.5129,30.2386,4.1713,12.5129,-20.8545,17.7262,-4.1713,52.135,
-4.6925,-148.5857,-3.6491,47.443,-119.3901,-122.5179,16.1625,27.6314,3.6491,7.8209,-7.8199,13.0341,-6.7774,66.2121,
-2.6071,-138.1587,-0.52123,47.4435,-104.3901,-113.1334,21.3752,37.016,3.6496,10.9487,-9.9053,0.52123,-11.9912,51.2121,
-2.0854,-142.8507,-2.0854,37.5377,-106.356,-120.9538,8.3421,41.7085,10.427,4.1713,-17.7262,2.0854,-5.2138,36.2121,
0,-138.6799,-1.0425,39.6231,-121.356,-118.8689,0,39.6231,12.5124,-10.8287,-3.1283,12.5124,9.7862,51.2121,
-2.6071,-137.1162,-8.8628,38.0584,-122.5184,-116.2617,4.692,30.7593,0.52123,-13.0336,-0.52123,10.9487,7.8204,55.7851,
2.6071,-146.5003,-1.5637,29.7168,-136.0733,-131.2617,16.162,21.3752,0.52123,-0.52123,-11.9912,2.6071,-7.1796,40.7851,
-0.52123,-137.1157,3.6496,35.9735,-149.6282,-146.2617,5.7355,19.2903,0.52123,-4.692,-17.2044,7.8204,-22.1796,39.1019,
-7.8204,-129.8171,-0.52123,41.1868,-135.0308,-138.1587,-3.6496,30.7593,7.8204,0.52123,-4.692,22.8204,-7.1796,54.1019,
-15.6408,-144.8171,-9.3841,31.2815,-127.21,-136.5945,0,31.2815,6.2567,0,-10.4265,7.8204,6.2567,39.6231,
-1.5647,-150.6716,-0.52123,46.2815,-112.21,-124.6038,15,42.2292,8.8628,3.6496,-7.8204,-1.5647,0.52123,33.8876,
-7.8204,-136.0733,0.52123,51.6143,-127.21,-129.8171,6.7779,32.8452,3.6496,-0.52123,-6.7779,-0.52123,0.52123,48.8876,
-13.5554,-129.2959,1.0429,50.0501,-142.21,-134.5096,-8.2221,28.1527,8.3411,-1.0429,-2.0854,4.1703,12.5119,60.4766,
-14.5983,-131.3813,-7.2992,44.8364,-127.21,-132.4242,-3.1284,23.9824,10.4265,-1.0425,6.2557,1.0425,14.5973,45.4766,
-19.2898,-140.2441,-14.0766,44.3147,-115.2193,-145.4578,-0.52172,14.0766,21.3757,0.52172,7.8199,-8.8633,7.8199,30.4766,
-15.119,-136.0733,-6.7774,46.4005,-127.7312,-154.8419,-2.6066,16.1625,33.8881,8.8633,2.6066,-11.9907,3.6501,27.6314,
-17.7262,-121.0733,-2.0854,36.4943,-112.7312,-139.8419,2.0854,31.1625,18.8881,12.5119,-7.2996,3.0093,-4.1713,21.896,
-7.8199,-106.0733,-1.5642,48.4855,-121.4755,-124.8419,8.8633,45.3581,3.8881,14.0766,-11.9917,18.0093,-3.6491,33.8881,
7.1801,-99.5785,-2.6071,51.6143,-136.4755,-135.0308,-2.6071,32.8452,3.6496,2.6071,-5.7345,10.9487,-2.6071,41.1868,
-3.1283,-110.5273,-2.0859,40.6656,-151.4755,-142.8512,0,27.1107,3.1283,-12.3929,2.0849,0,1.0425,31.2815,
-18.1283,-117.8264,0,44.8364,-136.4755,-127.8512,0,38.5797,5.2133,-19.8116,-3.1284,9.3841,10.4265,31.2805,
-33.1283,-121.9967,1.0425,50.0506,-151.4755,-119.9113,-15,40.6656,15.6408,-4.8116,-11.47,18.7691,11.47,46.2805,
-18.2474,-113.1334,8.8633,52.6572,-166.4755,-134.9113,-15.119,31.8022,9.9058,-1.5642,-10.9482,6.7774,1.5642,51.6138,
-3.2474,-102.1856,14.5978,52.135,-151.4755,-139.7229,-0.11903,30.2386,-3.1279,-16.5642,-11.4704,-8.2226,8.3411,36.6138,
6.2562,-87.1856,17.7262,55.2634,-136.4755,-127.21,14.881,36.4953,-6.2562,-22.9394,-14.5978,-17.7262,18.7686,21.6138,
10.427,-72.1856,27.1102,64.6484,-121.4755,-128.2529,29.881,34.4094,-8.3411,-7.9394,-13.5554,-15.6403,7.2987,36.6138,
12.5124,-57.1856,25.0248,50.0496,-106.4755,-143.2529,32.324,19.4094,-23.3411,-22.9394,-28.1532,-30.6403,-7.7013,32.324,
27.5124,-42.1856,34.4099,51.0931,-91.4755,-128.2529,44.8364,23.9824,-29.1956,-37.9394,-34.4089,-39.6231,5.2133,17.324,
42.5124,-27.1856,19.4099,36.0931,-76.4755,-113.2529,47.4435,17.2044,-44.1956,-52.9394,-49.4089,-51.6143,-7.8204,2.324,
57.5124,-12.1856,5.735,28.6739,-61.4755,-117.3047,59.9554,7.8199,-39.1014,-63.0843,-47.443,-63.0843,-7.8209,-5.735,
72.5124,2.8144,14.0766,43.6739,-46.4755,-128.7741,60.9979,2.6066,-33.8881,-65.1692,-35.973,-58.913,-2.6066,-9.9058,
87.5124,17.8144,21.897,42.751,-31.4755,-127.2105,75.9979,7.2987,-33.3669,-65.6909,-30.2386,-43.913,-7.2987,-8.3421,
102.5124,32.8144,28.6744,30.7603,-16.4755,-133.9879,90.9979,0.52123,-46.4001,-79.767,-43.2727,-54.7417,-21.3752,-0.52123,
117.5124,47.8144,31.2815,38.5797,-1.4755,-145.9791,102.1852,-1.0425,-38.5807,-82.3741,-34.4099,-63.6055,-6.3752,-3.1284,
132.5124,62.8144,16.2815,30.7603,13.5245,-160.9791,96.4507,-13.0336,-32.8452,-83.9378,-27.6319,-68.297,8.6248,-18.1284,
147.022,56.3058,30.2386,45.7603,28.5245,-175.9791,107.3989,-10.427,-27.1102,-79.2457,-23.9819,-56.3063,10.427,-33.1284,
147.5432,45.3581,41.1873,60.7603,43.5245,-190.9791,117.3042,-10.9482,-18.2474,-77.6816,-17.2049,-56.8276,10.9482,-18.2474,
132.5432,30.3581,26.1873,54.2204,58.5245,-205.9791,106.356,-25.9482,-20.854,-85.5024,-15.6408,-71.8276,15.6408,-30.2391,
127.2105,15.3581,29.1961,54.2209,73.5245,-220.9791,115.7405,-33.3669,-13.5554,-71.9466,-12.5129,-71.9466,21.897,-25.0253,
121.9967,0.3581,37.5372,51.0931,88.5245,-235.9791,125.1251,-32.324,1.0425,-56.9466,-1.0425,-56.9466,22.9399,-10.4265,
106.9967,-14.6419,22.5372,43.2722,103.5245,-250.9791,110.1251,-47.324,1.5642,-50.5713,-1.5642,-69.34,32.8447,-25.4265,
91.9967,-29.6419,7.5372,43.2727,118.5245,-265.9791,96.4507,-62.324,2.6071,-44.3151,-2.6071,-76.6391,47.8447,-40.4265,
76.9967,-44.6419,19.8116,46.9223,133.5245,-280.9791,95.9294,-70.9041,-5.2133,-54.2204,5.2133,-71.9466,46.9223,-37.5372,
61.9967,-59.6419,18.2474,50.5713,148.5245,-295.9791,92.2794,-75.5962,-10.9482,-64.1262,10.9482,-56.9466,52.6572,-24.5031,
46.9967,-74.6419,5.2133,46.9223,163.5245,-310.9791,88.6303,-85.5019,-5.2133,-56.3058,8.3416,-43.7934,57.3488,-13.5549,
31.9967,-89.6419,5.2133,53.178,178.5245,-325.9791,88.6303,-92.8006,-3.1284,-50.0496,10.4275,-47.9642,42.3488,-12.5124,
16.9967,-104.6419,14.0771,62.0418,193.5245,-340.9791,91.2374,-91.2364,4.692,-41.1868,25.4275,-47.443,45.3576,-24.5036,
1.9967,-119.6419,10.427,66.7333,208.5245,-355.9791,83.4165,-91.7576,19.692,-33.3664,32.3245,-36.4943,60.3576,-29.1956,
-11.47,-134.6419,7.2992,80.2877,215.8403,-370.9791,84.4595,-83.417,28.1532,-19.8116,39.6221,-29.1961,75.3576,-14.1956,
-26.47,-149.6419,10.427,78.2033,200.8403,-385.9791,83.4165,-85.5019,20.8545,-26.0678,35.4518,-44.1961,68.8182,-10.427,
-25.0251,-164.6419,22.9397,79.246,185.8403,-400.9791,78.2035,-83.4163,31.2813,-34.4091,31.2813,-59.1961,66.7336,-22.9397,
-25.0248,-179.6419,17.7262,68.8192,176.2176,-406.6557,67.7758,-84.459,33.3669,-36.4948,30.2386,-74.1961,62.5625,-17.7262,
-34.9306,-194.6419,3.6496,66.2126,161.2176,-403.0061,64.1267,-86.0232,23.4611,-39.1014,21.3762,-89.1961,47.5625,-3.6496,
-35.4518,-209.6419,-1.0429,74.0325,146.2176,-395.1857,65.6909,-88.6298,25.0253,-40.6656,17.7262,-104.1961,32.5625,1.0429,
-28.1532,-224.6419,4.1708,64.6479,147.0215,-382.6733,71.9471,-84.459,40.0253,-25.6656,32.7262,-115.7405,41.708,-4.1708,
-24.5036,-218.4469,4.692,58.9135,148.5862,-379.0238,69.34,-71.4254,46.401,-10.6656,35.9735,-112.0909,56.708,-4.692,
-16.1615,-203.8491,-0.52172,57.8705,163.5862,-364.426,66.2121,-68.2975,39.1014,-4.6925,29.7173,-110.0055,66.2121,0.52172,
-7.8199,-194.465,5.735,51.6138,177.7813,-349.426,73.5113,-69.34,43.2722,-7.8199,38.0589,-110.0055,53.6997,-5.735,
-6.7774,-197.5929,6.7774,65.1697,162.7813,-350.8706,71.4254,-66.2116,45.3581,-9.9058,44.3156,-125.0055,60.9989,-16.1615,
-10.9482,-200.7212,-1.5642,78.7245,147.7813,-365.4689,65.1697,-69.34,35.973,-9.9058,35.973,-118.3471,68.297,-1.1615,
-25.9482,-213.2331,-9.9058,63.7245,132.7813,-373.81,52.6572,-84.34,20.973,-18.2474,20.973,-105.8342,53.297,9.9058,
-31.8027,-215.319,-3.6496,53.6992,117.7813,-364.426,54.7426,-90.194,16.162,-23.4611,16.162,-110.0055,44.3151,3.6496,
-17.7267,-200.319,0,67.7753,102.7813,-352.4353,64.6479,-81.3316,31.162,-13.5559,27.1097,-110.5273,52.1345,0,
-15.1195,-189.2513,-3.6496,80.8099,97.4931,-347.7427,59.9559,-74.5537,26.5885,-4.692,22.4177,-105.8347,43.2717,3.6496,
-28.1532,-203.3283,0,71.9461,82.4931,-349.3069,53.178,-78.2033,22.9389,-12.5124,22.9389,-112.6127,45.8788,0,
-30.7603,-199.6788,4.692,63.0833,67.4931,-346.7003,47.4425,-83.9383,33.8876,-4.692,25.546,-108.9631,49.5284,-8.8628,
-33.3664,-200.2,-10.308,59.4337,52.4931,-353.4777,32.4425,-88.6303,45.8788,10.308,13.5549,-103.2281,34.5284,-16.6832,
-37.5372,-213.7554,-18.7691,58.3912,37.4931,-357.6485,17.7257,-85.5024,43.7939,11.47,12.5124,-105.3135,19.5284,-11.47,
-49.5289,-209.0628,-20.3333,43.3912,40.1438,-355.0419,23.4606,-95.4082,29.7163,1.5642,10.9482,-114.1768,17.2039,-1.5642,
-46.4005,-194.4645,-20.3323,28.3912,55.1438,-348.7852,31.8032,-93.3218,30.7598,5.735,5.735,-116.2617,7.8209,-5.735,
-31.4005,-186.1234,-15.119,43.3912,70.1438,-339.4011,44.3147,-78.3218,43.2722,14.0766,14.0766,-101.6639,22.8209,-14.0766,
-33.8876,-191.3367,-20.3328,58.3912,66.2116,-338.3587,50.5709,-80.8099,41.1868,10.9487,16.162,-94.3653,37.8209,-10.9487,
-39.1009,-198.6353,-23.4611,47.4435,60.9984,-337.3157,44.3151,-95.8099,33.8876,6.7779,14.0771,-100.621,41.1868,-6.7779,
-26.5895,-183.6353,-17.2054,51.6133,75.9984,-325.8463,38.0584,-84.9807,27.6309,4.692,16.162,-88.1091,43.2717,-4.692,
-33.8876,-187.1659,-17.2044,56.8276,69.34,-326.8887,38.0584,-81.8524,20.3328,0.52123,11.9912,-94.3653,40.1443,-0.52123,
-37.016,-202.1659,-13.0336,50.5709,54.34,-328.9741,43.2727,-92.2799,26.5885,0.52123,7.8204,-109.3653,33.8876,-0.52123,
-22.4182,-188.2083,-8.8633,55.7846,69.34,-314.3758,50.5713,-82.8953,31.8022,8.8633,15.119,-113.1334,43.2722,-8.8633,
-32.324,-180.3884,-8.3416,63.6055,54.34,-313.8546,49.0072,-78.2033,21.8965,8.3416,23.9824,-98.1334,45.8788,-9.3841,
-42.2297,-185.0805,-16.1625,60.9979,39.34,-324.8033,44.3147,-93.2033,9.9058,-5.735,11.9907,-103.7493,30.8788,5.6159,
-27.2297,-170.0805,-28.1537,45.9979,54.34,-315.9405,53.1775,-95.9294,10.427,-5.2138,5.2138,-104.271,31.281,18.7686,
-20.3333,-155.0805,-37.0165,30.9979,69.34,-322.7179,60.9979,-100.6215,6.7774,-1.5642,6.7774,-110.0055,32.8457,3.7686,
-5.3333,-140.0805,-22.0165,45.9979,84.34,-328.4524,75.9979,-91.7581,16.6832,4.1708,21.7774,-107.3984,44.8364,-11.2314,
6.7779,-131.9025,-11.9912,51.6143,99.34,-323.7604,65.1692,-88.1086,19.2903,-6.7779,15.1195,-108.9626,50.5718,-26.2314,
8.8633,-125.6463,-15.119,53.6997,114.34,-320.632,56.828,-83.9378,21.3757,-8.8633,8.8633,-111.048,43.2722,-19.2898,
0,-129.2959,-12.5124,68.6997,101.1427,-330.5383,67.7763,-84.4595,25.0248,-8.3416,20.854,-106.356,35.4523,-4.2898,
-8.3416,-129.2959,-10.4275,69.8612,87.5868,-333.6667,58.3912,-89.6732,15.6408,-16.6832,15.6408,-102.1856,37.5372,8.3416,
-2.6066,-116.2617,-15.119,66.2121,86.0237,-318.6667,43.3912,-82.8953,9.9058,-17.2049,2.6066,-106.8777,49.5289,9.9058,
-3.6496,-117.3047,-11.9912,71.4249,73.5108,-317.5042,55.7851,-71.4254,14.0761,-23.4611,17.6066,-103.7493,50.5709,3.6496,
-5.735,-118.3471,1.5642,84.9802,69.3405,-317.5042,63.0838,-60.9984,13.0341,-31.8027,32.6066,-88.7493,35.5709,-1.5642,
-7.8209,-118.3476,-6.7774,81.8519,62.0403,-310.2055,48.0838,-63.0843,6.7774,-31.8027,17.6066,-77.6821,24.5031,6.7774,
-7.2987,-132.4237,-14.5978,76.1174,55.2634,-314.8976,39.6226,-75.0749,7.2987,-35.4518,9.3846,-84.459,38.5802,13.5554,
-7.8199,-135.0303,-9.9058,83.9378,60.9979,-324.8033,44.3147,-65.1692,7.8199,-44.3151,24.3846,-87.0661,46.4005,7.8199,
-10.9482,-132.9449,-15.119,82.8953,59.9554,-324.8028,38.0589,-54.7417,14.0766,-39.1014,25.5465,-89.151,35.974,10.9482,
-17.7259,-135.5513,-15.6405,80.2884,44.9554,-325.3243,36.4955,-69.7417,29.0766,-24.1014,25.0256,-86.5441,35.4521,15.6405,
-19.8116,-135.5521,-0.64051,89.6727,41.708,-340.3243,51.0931,-71.9466,44.0766,-9.1014,40.0256,-79.2457,50.4521,0.64051,
-7.8204,-128.7741,6.7774,93.3223,44.3151,-353.9989,57.87,-56.9466,45.3576,-6.7774,47.4435,-76.6391,60.9984,-14.3595,
-4.692,-113.7741,-0.52123,82.8948,29.7168,-338.9989,46.4001,-62.0413,30.3576,-21.7774,32.4435,-72.4683,45.9984,0.52123,
-8.3421,-98.7741,-1.0429,71.9466,29.1961,-331.5808,37.5377,-77.0413,15.3576,-36.7774,17.4435,-84.4595,30.9984,2.0854,
6.6579,-83.7741,8.3421,86.5449,44.1961,-320.1108,44.8369,-62.0413,1.0429,-51.7774,2.4435,-83.4165,16.6837,-5.2138,
12.5129,-68.7741,2.0854,88.6298,38.5802,-307.5984,43.7934,-54.2204,-4.1703,-50.0496,-1.0429,-71.9466,10.427,1.0429,
-1.5642,-74.5537,1.5642,82.8953,23.5802,-303.9493,39.1014,-66.2121,-1.5642,-46.4005,6.7774,-73.5108,3.6491,8.8633,
0,-65.6904,0,88.6303,38.5802,-300.2997,37.5372,-60.4771,-1.0425,-52.135,2.0859,-80.2882,13.5549,6.2567,
8.3411,-51.0926,-4.1713,81.3306,53.5802,-294.0435,51.0926,-55.2634,2.0854,-47.9647,-1.0429,-75.0749,23.9819,1.0429,
6.2562,-63.605,-2.0854,77.1608,45.8793,-298.2138,57.3493,-68.8187,2.0854,-35.4518,2.0854,-69.8612,27.1102,-9.3846,
1.0425,-72.9895,-1.0425,92.1608,36.4948,-290.9152,42.3493,-66.7333,6.2557,-22.9399,3.1283,-71.9471,31.2815,-4.1708,
-13.0341,-66.2121,-6.7774,80.8094,28.6739,-278.9245,27.3493,-55.7851,13.0331,-20.3333,6.7774,-74.5537,26.589,10.8292,
-16.6827,-65.6904,-10.427,67.7758,15.6413,-284.659,26.0678,-58.3912,20.8545,-16.6827,10.427,-75.0749,22.9394,14.5978,
-6.2567,-69.8617,-4.1708,82.7758,5.2133,-281.5311,41.0678,-64.6479,35.8545,-11.47,13.5549,-72.9895,18.7681,4.1708,
-5.7345,-66.2116,3.6496,93.3223,-3.6496,-269.5395,35.9735,-59.9554,42.2302,-15.119,20.3328,-60.9984,8.8628,6.7779,
-7.8204,-52.6572,4.692,87.0656,-4.692,-264.3267,34.9301,-48.4859,43.2717,-5.7355,31.8027,-45.9984,22.4177,14.0761,
-8.3411,-56.3058,-1.0429,82.3741,-13.5554,-271.1036,33.3669,-55.2634,45.8793,1.0429,22.9394,-47.9642,31.281,2.0854,
1.5642,-51.6138,4.6925,97.3741,-2.6066,-259.1125,39.1014,-50.5714,59.9554,-1.5642,24.5041,-52.6567,32.8457,-5.735,
-0.52123,-48.4855,2.6071,94.3648,0.52123,-252.8563,37.016,-46.4,66.2126,-11.9912,39.5041,-47.443,42.2302,-2.6061,
-6.7779,-51.6138,6.7779,92.2799,-10.9487,-260.1554,29.7168,-56.8276,62.0408,-6.7779,37.016,-50.5713,43.2727,12.3939,
-14.5973,-49.0072,7.2992,79.2462,-7.2992,-272.1461,19.8116,-67.7758,47.0408,-11.47,22.016,-64.6474,28.2727,25.0248,
-15.1195,-48.4864,0.52123,65.1692,-0.52123,-275.7962,18.2469,-59.9559,32.8452,-22.4187,7.8204,-66.2121,19.2893,10.0248,
-0.11953,-36.4948,7.2992,80.1692,-3.1284,-265.8899,26.0683,-44.9559,45.8788,-13.5549,19.8116,-61.5196,29.1956,-4.9752,
6.2567,-21.8965,3.1284,78.2028,-3.1284,-266.9328,25.0248,-54.2204,37.5372,-13.5549,11.47,-76.5196,14.1956,-10.4265,
8.8628,-6.8965,-1.5637,64.1267,11.8716,-265.3687,39.1019,-59.9554,22.5372,-26.5885,0.52123,-90.194,7.8204,-0.52123,
18.2474,2.6066,-4.6925,67.2546,26.8716,-268.4975,41.1863,-50.5718,7.5372,-41.5885,-2.6066,-92.2799,10.9482,-4.6925,
20.3323,4.6915,-5.735,56.8271,32.8447,-276.8391,31.8022,-47.443,3.6491,-53.6997,-1.5642,-105.8352,1.5642,-18.2474,
29.1956,19.6915,0,62.562,47.8447,-264.8474,46.8022,-37.5372,5.2133,-51.0921,0,-105.3135,-1.0425,-29.1956,
44.1956,34.6915,0.52123,74.5532,62.8447,-257.0275,61.8022,-29.7168,-0.52123,-55.7851,-8.8628,-96.4507,3.6496,-32.8452,
59.1956,40.6661,4.1713,61.5201,77.8447,-259.6342,76.8022,-31.281,-4.1713,-57.3488,-10.427,-100.0998,8.3421,-37.5377,
60.9979,54.7422,5.735,74.5537,92.8447,-244.6342,76.6386,-20.3333,-5.735,-48.4859,-9.9058,-102.7069,9.9058,-42.2297,
55.7846,69.7422,4.6925,89.5537,107.8447,-229.6342,77.6811,-5.3333,-13.0341,-44.3151,-15.119,-93.3223,14.0766,-27.2297,
52.136,66.7333,-2.0854,81.3316,122.8447,-220.0111,79.2457,-18.7686,-25.0243,-55.2634,-23.9819,-92.8006,12.5129,-12.2297,
57.8705,58.913,-2.6066,72.4688,114.1768,-221.5752,90.1945,-27.6314,-27.6314,-58.913,-28.6739,-107.8006,13.0341,2.6066,
59.9559,73.913,11.9912,80.8099,129.1768,-206.5752,102.7064,-12.6314,-24.5036,-50.5713,-18.2469,-101.6639,19.2903,-12.3934,
57.8705,88.913,9.9058,81.8529,144.1768,-191.5752,94.3653,-6.7774,-27.6314,-51.6143,-16.1625,-88.1086,6.7774,-11.9917,
71.4254,103.913,6.7774,78.7245,146.4998,-176.5752,96.4502,-6.7774,-21.3757,-57.8705,-18.2474,-92.2799,8.8633,-8.8633,
76.6396,110.006,6.7774,75.5962,153.7999,-178.8243,99.5785,-6.7774,-23.4606,-64.1262,-26.589,-99.5785,23.8633,-14.0766,
64.1262,119.3901,2.6066,70.3819,156.9273,-179.8672,96.4502,-11.9917,-26.589,-62.0413,-25.5465,-98.5361,33.8881,-2.6066,
59.4337,113.6551,0,68.8187,141.9273,-173.0893,95.9285,-9.3841,-27.1107,-66.7333,-22.9399,-101.1427,18.8881,0,
70.9046,112.6127,-1.0425,70.9046,135.5516,-167.8755,92.8011,1.0425,-34.4089,-66.7333,-29.1956,-99.0568,4.1708,-15,
71.9466,119.9113,1.0429,58.3917,140.7653,-175.1747,87.5873,-1.0429,-36.4943,-51.7333,-32.3235,-92.8006,16.6837,-17.7262,
69.3405,122.5184,14.0766,54.7422,125.7653,-182.9951,83.9378,-4.6925,-41.1873,-48.4855,-39.1014,-98.5356,4.6925,-8.8633,
77.6821,137.1157,17.2049,69.3405,117.3042,-169.4397,83.9378,5.735,-41.1873,-57.8705,-38.0589,-93.3223,-5.735,-7.8199,
79.767,147.5432,2.6066,67.2546,128.7741,-163.184,76.6386,5.735,-46.4005,-60.9989,-42.2297,-93.3223,-2.6066,-22.4182,
77.6816,159.0127,0.52123,59.9559,143.7741,-167.3548,75.5957,-0.52123,-54.7426,-64.1267,-56.8276,-106.8777,5.7345,-34.9311,
70.9036,165.7906,3.1283,53.178,130.3383,-166.8331,77.1603,-3.1283,-45.8788,-67.7763,-58.3912,-108.4414,10.4275,-37.5372,
65.1692,161.0986,-2.6071,56.8276,115.3383,-161.0981,69.34,2.6071,-32.8452,-56.8276,-43.3912,-100.621,9.9063,-23.4611,
64.6479,156.4066,-7.2992,63.6055,116.7835,-153.2777,67.7763,7.2992,-42.7505,-50.0496,-36.4948,-98.0143,7.2992,-15.6408,
63.0838,148.5857,2.6066,54.7422,131.7835,-147.5427,79.767,-2.6066,-48.4855,-59.9554,-37.0155,-107.9196,5.735,-30.6408,
60.4776,149.1069,6.2562,59.4342,116.7835,-151.1923,81.3316,-5.2138,-33.4855,-57.3483,-35.4518,-107.3984,5.2138,-30.2386,
57.3488,156.4056,-7.2992,65.6904,101.7835,-151.1923,68.8187,5.2133,-26.0673,-42.3483,-36.4948,-92.3984,5.2133,-15.2386,
56.3063,158.4915,-11.47,58.3922,90.7162,-136.1923,68.8187,6.2567,-32.324,-43.7939,-39.6221,-92.8006,3.1284,-3.1284,
57.87,169.4402,-4.692,53.6992,105.7162,-121.1923,83.8187,6.7779,-38.0584,-58.7939,-40.1443,-100.621,4.692,-15.1195,
58.913,171.5246,-1.5642,44.3146,103.7493,-123.5609,92.2794,7.8199,-43.2722,-64.1272,-40.1448,-92.2799,1.5642,-23.4616,
61.5201,161.6193,-6.2562,46.9218,88.7493,-117.8259,83.4165,6.2562,-38.5802,-53.1785,-38.5802,-89.6727,9.3846,-23.9819,
63.0843,150.6711,-7.8204,50.5718,103.7493,-102.8259,86.0232,7.8204,-27.6319,-42.2292,-28.6744,-90.194,24.3846,-8.9819,
59.4342,139.7229,-5.2138,40.6661,109.4838,-102.1852,91.7581,5.2138,-26.0678,-41.7085,-25.0253,-80.2882,34.4094,-5.2138,
55.2634,130.3388,-6.2562,42.751,94.4838,-98.0143,90.7157,6.2562,-27.1102,-49.0077,-32.3235,-84.459,22.9394,-20.2138,
47.443,123.5609,-5.735,45.3581,93.3228,-84.9802,92.2794,5.735,-24.5031,-52.6563,-31.8022,-91.2369,26.589,-27.6314,
49.0072,132.4232,-8.3416,46.9213,104.2701,-72.9895,93.8435,5.2133,-23.9824,-39.6231,-27.1107,-76.2369,41.589,-12.6314,
45.8793,130.3378,-19.8121,39.6226,105.313,-61.5201,84.459,1.0429,-19.8121,-34.4094,-34.4094,-78.2033,33.3669,-1.0429,
42.2297,121.475,-16.1625,37.0165,96.4502,-54.7422,77.6821,1.5642,-5.735,-45.3581,-38.0589,-82.8953,21.3757,-1.5642,
37.5377,120.9538,-16.6837,38.5802,81.4502,-59.4342,62.6821,3.1279,-20.735,-60.3581,-41.7085,-83.4165,18.7686,-3.1279,
47.4425,126.6887,-11.9912,33.8876,88.1081,-54.7426,58.9125,8.8628,-35.735,-54.7426,-40.1443,-87.0666,20.3328,-8.8628,
55.7841,133.9879,-7.8204,32.8452,93.3223,-50.5718,59.9549,7.8204,-32.8452,-44.3151,-46.401,-81.8524,10.9477,-21.3762,
57.8705,144.4149,-10.9482,42.2297,78.3223,-50.5714,58.913,10.9482,-17.8452,-32.8457,-35.973,-66.8524,18.2474,-11.9917,
52.6567,129.4149,-7.8204,45.3576,63.3223,-54.7426,55.7841,7.8204,-19.2903,-42.2302,-22.4187,-70.3834,30.7593,-8.8638,
43.7934,114.4149,-6.2562,44.8359,74.0315,-52.136,60.4766,6.2562,-34.2903,-54.2209,-33.3669,-81.3316,21.897,-23.8638,
38.5802,99.4149,-10.427,50.0501,89.0315,-50.0501,70.9041,10.427,-28.1527,-39.2209,-25.0253,-66.3316,26.0678,-14.5978,
23.5802,84.4149,-20.8545,49.0077,74.0315,-65.0501,61.5201,-4.573,-25.0253,-40.6651,-22.9394,-64.6474,28.1527,0.40219,
19.2898,69.4149,-11.9917,51.6138,68.297,-80.0501,64.1262,-10.9482,-15.119,-40.1448,-18.2474,-51.6138,40.1438,10.9482,
19.2903,54.4149,-9.9053,46.401,79.7675,-65.0501,67.2551,-0.52123,-1.5637,-25.1448,-8.8628,-43.2727,43.2727,0.52123,
5.7355,45.3576,-24.5036,51.6143,70.3824,-62.0408,52.2551,-5.7345,-5.7345,-10.1448,-14.0761,-54.7417,30.7603,0.52123,
-2.6066,34.9306,-20.3333,57.8705,62.0413,-62.0413,42.2297,-3.6501,2.6066,-9.9058,-9.9058,-44.3156,38.0589,13.0341,
-15.1185,29.7178,-27.6309,42.8705,47.0413,-56.8276,38.0594,0.52123,3.6496,-20.3328,-10.9477,-50.5709,42.2302,-0.52123,
-1.0425,38.5807,-29.1956,45.8788,40.6656,-41.8276,38.5807,7.2992,1.0425,-6.2557,-9.3841,-58.3912,42.7515,-2.0849,
3.1283,28.1532,-19.8116,49.0072,44.8364,-50.0496,40.6656,-3.1283,-3.1283,-6.2567,-16.6832,-51.0931,33.3664,10.4275,
-3.1279,28.1537,-11.4695,51.0926,29.8364,-57.3483,42.751,2.0854,-2.0854,-6.2562,-14.5978,-36.0931,39.6226,23.9829,
-6.2557,32.324,-15.6408,47.9647,14.8364,-55.2629,35.4523,7.2992,0,0,-5.2133,-38.5797,54.6226,8.9829,
-4.1708,19.8116,-14.5983,56.3063,-0.16363,-69.8612,33.3664,-1.0425,15,1.0425,5.2133,-46.9213,57.3488,-4.1708,
-6.7774,9.9058,-9.9058,65.1687,-15.1636,-83.9378,32.8457,-1.5642,21.3757,-5.735,5.735,-40.1438,42.3488,1.5642,
-12.5124,18.7691,-1.0425,62.562,-30.1636,-68.9378,33.3664,7.2992,8.3416,-1.0425,1.0425,-25.1438,34.4099,-3.1284,
-13.5554,20.8535,-6.2562,62.5625,-45.1636,-56.3063,26.0678,-1.0429,-4.1713,4.1703,1.0429,-21.897,39.6226,5.2138,
-11.9907,9.9058,-14.0766,59.9554,-30.1636,-58.913,17.2049,-6.7774,1.5642,-1.5642,4.6925,-29.7173,47.443,20.2138,
-15.119,3.6491,-13.0341,58.913,-28.6749,-55.7851,13.0341,-3.6491,16.5642,-8.8633,3.6491,-34.9306,59.9554,34.9306,
-11.4695,13.5554,-6.2562,67.7758,-34.4094,-45.8793,19.8111,1.0429,18.7686,-7.2987,-1.0429,-23.9829,55.2634,21.897,
-11.4695,10.427,-2.0854,62.5625,-29.1961,-50.0501,28.1527,2.0854,6.2562,-5.2138,-9.3846,-19.8121,40.2634,23.9819,
-19.8116,6.2557,0,62.562,-28.1532,-52.1355,22.9389,3.1274,-1.0434,0,-9.3851,-23.9824,25.2634,28.1532,
-21.8965,12.5124,-3.1283,63.6055,-26.0673,-44.8364,7.9389,-8.3416,7.2992,3.1283,-5.2133,-19.8116,34.4099,34.4099,
-15.12,14.0766,-3.6501,64.1262,-21.3757,-35.974,7.8199,-5.735,19.2898,2.6066,-2.6066,-18.2474,37.0155,33.8881,
-21.8965,13.5549,-14.5973,60.4771,-29.1956,-34.4089,12.5124,1.0425,16.6832,-1.0425,-10.4265,-33.2474,22.0155,18.8881,
-24.5036,20.3328,-13.0336,52.6567,-35.9735,-27.6319,5.7345,-2.6071,15.1195,5.7345,-14.0761,-27.6319,8.8628,3.8881,
-9.5036,28.1527,-2.0854,59.4342,-34.4094,-19.8111,-3.1279,2.0854,12.5119,12.5119,-11.4695,-12.6319,15.6403,18.8881,
-17.7262,17.7262,-14.5978,56.3058,-49.4094,-26.0678,-5.2138,5.2138,16.6827,10.427,-6.2562,-18.7686,30.2386,28.1527,
-31.281,3.1279,-26.0678,45.8793,-64.4094,-33.3669,2.0854,-4.1713,21.897,11.4695,-2.0854,-21.897,25.0253,13.1527,
-24.5031,7.8199,-20.3323,57.8705,-62.0413,-31.8022,13.0341,-7.8199,15.119,7.8199,-15.119,-9.9058,10.9482,11.9917,
-21.896,15.6413,-15.6403,59.4352,-51.0926,-38.5802,19.8121,-6.2562,15.6413,6.2562,-17.7252,-8.3411,19.8121,19.8121,
-34.4094,6.2562,-9.3836,50.0501,-66.0926,-41.7075,9.3846,-10.427,18.7696,9.3846,-6.2562,-15.6403,16.6837,7.2996,
-34.4099,-1.0425,4.1708,56.3063,-81.0926,-26.7075,1.0425,-9.3841,25.0248,16.6832,-2.0859,-12.5124,7.2992,11.47,
-31.281,1.0429,-1.0429,59.4342,-77.1603,-18.7686,-4.1713,-16.6837,26.0678,8.3411,4.1703,-4.1713,21.897,26.47,
-32.8452,4.692,-16.0429,55.7851,-69.34,-21.3752,-4.692,-21.3752,28.6744,8.8628,10.9487,-4.692,28.6744,25.546,
-29.7173,-2.6066,-9.9058,52.6572,-71.4254,-22.4182,2.6066,-13.0331,30.7598,11.9917,13.0341,-10.9482,19.2908,21.3757,
-23.4611,1.5637,-2.6071,58.9125,-72.4683,-27.6319,-0.52123,-14.0771,30.7593,0.52123,14.0761,-9.9063,19.2893,20.3328,
-25.0253,16.5637,-14.5978,57.3483,-70.9041,-28.1537,1.0429,-25.0253,38.5802,-1.0429,8.3411,-15.6403,22.9394,13.5554,
-28.6739,16.1625,-10.9482,48.4864,-74.5532,-28.6739,6.7774,-31.8022,44.3156,1.5642,-1.5642,-29.7173,8.8633,2.6066,
-23.9819,19.8121,-1.0429,49.0077,-67.7758,-32.3235,7.2987,-34.4094,41.7085,1.0429,3.1279,-16.6827,-1.0429,5.2138,
-36.4943,15.6403,-16.0429,34.0077,-64.6474,-36.4943,1.0429,-40.6661,33.3669,-1.0429,8.3421,-13.5554,4.1713,6.2562,
-51.4943,0.64026,-31.0429,26.5895,-68.2975,-27.6319,1.5647,-33.8876,31.8027,4.692,3.6496,-28.5554,15.1195,0.52123,
-44.3156,1.5642,-27.6324,37.0155,-70.3829,-27.6324,2.6066,-22.4182,33.8871,3.6491,3.6491,-18.2474,22.4182,-1.5642,
-34.4094,11.4695,-26.0678,37.5377,-68.8182,-32.3235,5.2138,-13.5554,40.6651,-1.0429,10.427,-4.1713,22.9394,1.0429,
-44.3151,10.9487,-35.9735,41.1868,-76.6391,-27.6319,-0.52123,-21.3752,34.9301,4.692,0.52123,-19.1713,7.9394,2.6071,
-54.7417,19.2903,-38.0584,45.3586,-86.0232,-20.3328,-3.6496,-32.8452,34.9311,19.692,3.6496,-13.0336,4.693,4.693,
-52.6563,25.5465,-37.0155,45.3581,-86.0232,-24.5031,-2.6066,-23.4606,47.444,26.589,9.9058,-1.5642,10.9492,1.5642,
-46.9218,27.1102,-33.3669,45.8793,-74.0325,-20.8545,-12.5129,-16.6837,49.0077,13.5554,9.3846,-9.3846,10.427,16.5642,
-44.8369,31.281,-18.7686,42.751,-68.8192,-10.427,-13.5554,-27.1102,54.2209,13.5554,14.5978,-11.4705,10.427,31.5642,
-39.6231,39.6231,-23.9824,41.708,-75.0744,-10.4275,-11.47,-25.0248,68.8187,28.1532,12.5124,-6.2567,6.2567,22.9399,
-40.6651,32.3235,-38.5802,30.2386,-84.4595,-15.6403,-16.6837,-19.8111,68.8182,34.4094,3.1279,-2.0854,2.0854,9.3846,
-48.4859,20.3328,-28.6744,17.2044,-92.2799,-23.4611,-22.4187,-34.8111,53.8182,27.6309,4.692,-4.692,4.692,23.4601,
-44.3146,35.3328,-17.2049,32.2044,-80.8094,-16.1615,-21.3757,-26.589,51.6138,30.7598,11.9917,-5.735,5.735,21.3757,
-36.4943,46.9218,-20.8545,47.2044,-70.9041,-4.1713,-19.8111,-11.589,66.6138,43.7934,11.4695,3.1279,4.1713,6.3757,
-40.1438,34.9306,-22.4182,38.0589,-79.767,-9.9058,-23.4606,-17.2049,63.0838,41.1873,-0.52172,0.52172,5.735,5.735,
-35.4518,38.5802,-11.4695,42.751,-70.9041,-12.5129,-17.7262,-25.0253,48.0838,37.5377,4.1713,-4.1713,11.4695,20.735,
-35.973,32.8457,-13.0341,43.2722,-85.9041,-18.2474,-21.3757,-19.2898,33.8881,24.5041,6.7774,-6.7774,6.7774,21.3757,
-43.2717,22.4187,-18.2469,47.4435,-100.9041,-16.162,-28.6744,-14.0761,40.1443,18.2479,3.6496,-3.6496,3.6496,9.9063,
-37.5372,29.1956,-16.6832,54.2204,-95.9289,-5.2133,-21.8965,-14.5983,46.9213,27.1107,9.3841,-5.2133,5.2133,24.9063,
-34.9311,29.7168,-7.8204,56.8276,-92.2799,-17.2044,-23.4611,-25.546,44.3151,27.6319,10.9487,-8.8628,7.8204,39.9063,
-47.9647,16.6832,-7.2992,51.0921,-107.2799,-32.2044,-31.2815,-30.2391,45.8788,28.1532,7.2992,-10.4275,11.47,24.9063,
-41.7085,31.6832,-15.6403,45.8793,-116.783,-17.2044,-32.3235,-19.8111,45.8793,31.281,-2.0854,-14.5978,2.0854,21.897,
-26.7085,46.6832,-22.9399,54.2204,-101.783,-2.2044,-28.1532,-10.4275,42.7515,35.4523,-1.0425,-11.47,1.0425,36.897,
-11.7085,61.6832,-27.6319,47.4435,-86.783,12.7956,-32.8452,-16.162,33.8876,24.5036,-0.52123,-18.2469,0.52123,28.6744,
-1.0425,76.6832,-20.854,51.0931,-79.2452,27.7956,-30.2381,-1.162,32.324,16.6832,-3.1283,-19.8116,-1.0425,13.6744,
3.6491,91.6832,-34.9306,36.0931,-88.1086,42.7956,-42.2297,-2.6066,17.324,2.6066,-18.1283,-25.5465,-16.0425,23.4606,
16.162,106.6832,-28.6744,40.1443,-83.9373,54.7426,-46.4001,-8.8628,21.3752,8.8628,-13.0336,-16.162,-10.9477,38.0594,
23.4611,121.6832,-24.5036,48.4859,-68.9373,56.8276,-39.1009,-7.8204,15.1195,7.8204,-15.1185,-7.8204,-17.2044,23.0594,
32.324,136.6832,-26.0673,37.5382,-53.9373,61.5206,-24.1009,-4.1708,10.4275,4.1708,-21.8965,-5.2133,-26.0673,20.855,
17.324,123.0397,-32.3245,34.4094,-68.9373,56.3058,-28.1537,-10.427,12.5119,10.427,-26.0678,-15.6403,-28.1537,23.9819,
2.324,110.5268,-28.1532,49.4094,-83.9373,55.2639,-43.1537,-2.0849,22.9399,25.427,-13.5549,-1.0425,-13.1537,26.0673,
1.5642,106.8777,-25.5465,49.5289,-93.3218,44.3146,-46.4005,-0.52172,18.2474,10.9482,-15.119,-1.5642,-11.9907,11.0673,
16.5642,120.9538,-13.5554,55.2634,-78.3218,59.3146,-31.4005,5.2138,27.1102,11.4695,-11.4695,-12.5129,-5.2138,-3.9327,
5.735,105.9538,-21.3757,40.2634,-83.9378,57.8695,-38.0589,-9.7862,23.4606,6.7774,-16.1625,-25.5465,-5.735,11.0673,
-2.0854,90.9538,-18.7686,46.9218,-92.8011,42.8695,-42.751,-24.7862,27.1102,2.0854,-8.3421,-10.5465,4.1703,26.0673,
3.1279,87.5873,-13.5554,57.3483,-84.46,44.8359,-38.5802,-12.5129,26.0668,-2.0854,-10.428,-10.428,2.0854,41.0673,
3.6496,88.1091,-8.8628,42.3483,-77.6816,59.8359,-37.016,-14.0771,24.5036,9.9053,-11.9912,-21.3752,-3.6496,26.0673,
8.3416,89.6727,-10.4265,37.5372,-81.3311,61.5196,-37.5372,-28.1532,21.8965,20.854,-11.47,-8.3416,-10.4265,11.47,
13.0336,82.8948,-13.0336,46.4001,-88.1091,57.87,-37.016,-23.4611,20.3328,21.3752,-16.162,-3.6496,-11.9912,3.6496,
3.1284,74.032,-17.7257,38.5807,-100.0998,67.7763,-44.8364,-14.5973,13.5549,16.6832,-19.8116,-8.3416,-3.1284,7.2992,
-11.8716,66.2116,-25.547,38.0584,-107.9206,82.7763,-52.6568,-19.2903,13.0336,13.0336,-17.2044,3.6496,-3.6496,22.2992,
-17.7262,61.5191,-17.7262,49.0067,-110.5273,91.7581,-43.7934,-26.0678,23.9819,11.4695,-10.427,10.427,-10.427,23.9819,
-4.692,76.5191,-7.8204,63.0833,-114.1763,103.7488,-35.9735,-15.1195,28.6744,7.8204,-4.692,1.5637,-1.5637,8.9819,
-3.1283,86.5444,-11.47,69.8612,-118.8684,109.4843,-40.6656,-5.2133,27.1107,0,0,-4.1708,12.5124,7.2992,
-9.9063,71.5444,-10.9487,73.5108,-113.1339,104.7923,-39.1019,-15.1195,25.546,-1.5637,0.52123,-0.52123,2.6071,22.2992,
-6.2567,86.5444,-3.1284,77.1603,-98.1339,112.6117,-29.1956,-12.5124,17.7257,9.3841,-7.2992,3.1284,-5.2142,37.2992,
-9.9063,101.5444,-4.692,65.1692,-100.6215,112.0904,-30.7603,-7.8204,4.692,9.9053,-13.0336,-8.8628,9.7858,22.2992,
-5.2138,88.6298,-5.2138,70.9041,-112.6122,117.8264,-32.3235,-7.2987,5.2138,7.2987,-5.2138,-10.427,20.8545,19.8111,
-1.5642,86.0237,-19.2898,59.9554,-98.5356,115.2193,-38.0589,-17.2049,1.5642,3.6501,-20.2138,-11.9907,5.8545,29.7173,
4.1708,101.0237,-13.5559,47.9637,-83.5356,112.6117,-29.1966,-13.5559,16.5642,14.5973,-16.6842,-8.3426,-4.1708,25.0248,
2.0854,102.1847,-6.2562,54.2209,-86.5449,115.7405,-30.2386,-4.1713,23.9819,15.6403,-10.427,-6.2562,1.0429,10.0248,
-6.2572,89.6722,-11.4704,55.2634,-101.5449,116.783,-40.6661,-7.2996,8.9819,4.1703,-21.897,-2.0854,2.0854,6.2562,
-4.1713,86.5449,-8.3421,60.4766,-116.5449,110.5273,-26.0678,-13.5554,1.0429,7.2987,-16.6837,-1.0429,9.3846,21.2562,
-15.119,71.5449,-11.9907,56.828,-121.475,95.5273,-30.7598,-28.5554,9.9058,5.735,-5.735,-16.0429,7.8209,36.2562,
-22.9399,56.5449,-6.2567,61.5196,-136.475,80.5273,-45.7598,-43.5554,14.5973,-4.1708,4.1708,-31.0429,7.2992,21.2562,
-12.5129,52.135,1.0429,76.5196,-151.475,85.5014,-49.0077,-28.5554,15.6403,-5.2138,-1.0429,-16.0429,18.7686,6.2562,
-10.427,59.4342,-8.3411,71.9466,-136.475,89.6732,-34.0077,-18.7686,12.5129,2.0854,-14.5978,-2.0854,14.5978,19.8121,
-8.8633,74.4342,-14.0766,65.1687,-121.475,104.6732,-29.7173,-16.1625,5.735,10.9482,-14.0766,-5.735,7.8199,31.8022,
-4.1708,83.417,-13.5549,64.6479,-109.4838,105.3135,-31.2805,-17.7257,4.1708,5.2142,-10.4265,-14.5973,17.7267,26.0683,
-5.735,70.3829,-7.8209,64.1262,-110.0055,93.3218,-16.2805,-18.2474,8.8633,1.5642,-1.5642,-8.8633,28.6739,17.2049,
-20.735,65.1697,-19.2898,60.9989,-113.1334,92.2794,-31.2805,-24.5031,4.6925,5.735,-6.7774,-4.6925,13.6739,18.2474,
-35.735,72.4673,-26.5895,54.7417,-128.1334,93.3223,-46.2805,-20.3328,4.692,14.0761,-18.2479,3.6496,-1.3261,24.5036,
-29.7168,79.7675,-26.5885,39.7417,-142.3295,81.8524,-55.7851,-25.546,-3.6496,8.8628,-32.8452,3.6496,13.6739,15.1195,
-14.7168,87.0656,-15.1195,39.1009,-127.3295,87.0656,-40.7851,-34.9311,0.52123,8.8628,-18.2479,-0.52123,28.6739,28.6744,
-6.7779,72.4683,-15.1195,40.1443,-112.3295,78.724,-25.7851,-35.9735,6.7779,6.7779,-17.2044,-6.7779,21.3752,28.6744,
-15.6408,65.6904,-30.1195,43.7939,-97.3295,64.6479,-38.5807,-26.0683,-4.1708,7.2992,-32.2044,4.1708,6.3752,13.6744,
-10.427,62.5625,-31.281,39.6226,-82.3295,66.7333,-23.5807,-30.2386,-10.427,14.5978,-26.0678,13.5554,10.427,12.5129,
-13.0336,47.5625,-16.281,46.4001,-67.3295,60.9984,-11.9912,-34.9311,-3.6496,6.7769,-20.3328,3.6496,8.8628,27.5129,
-16.162,52.6568,-4.692,61.4001,-82.3295,57.871,-13.0336,-28.6744,0.52123,-0.52123,-19.2893,3.6496,7.8204,23.4611,
-4.692,56.8276,-4.692,54.7426,-73.5108,59.9559,-4.692,-29.7168,0.52123,-0.52123,-14.0761,3.6496,22.8204,8.4611,
0,47.9647,-5.2133,52.1355,-68.8187,55.2639,-10.4265,-28.1532,6.2567,0,-18.7681,0,23.9824,20.854,
-15,44.8359,-10.427,51.0926,-83.8187,51.0926,-25.4265,-23.9819,8.3421,-2.0854,-23.9819,2.0854,8.9824,26.0678,
-28.6749,40.1438,-16.1625,49.5289,-92.2799,54.7422,-25.5465,-28.6749,8.8633,7.8199,-19.2898,-2.6066,2.6066,11.9907,
-22.4182,39.1014,-13.0341,56.8271,-77.2799,44.3147,-17.2049,-32.8457,8.8633,15.119,-18.2474,-8.8633,9.9058,19.2898,
-27.6314,34.9306,-11.9907,49.5289,-71.4254,34.9306,-25.5465,-39.1014,10.9482,10.9482,-18.2474,-6.7774,6.7774,23.4606,
-31.2815,29.1956,-9.3841,43.7939,-83.4165,43.7939,-27.1107,-38.5807,25.9482,12.5124,-6.2567,-3.1283,3.1283,11.47,
-34.9306,14.1956,-16.1615,33.8881,-83.9378,31.8022,-23.4606,-47.443,27.6314,3.6501,-2.6066,-5.735,2.6066,3.6501,
-25.546,10.9487,-8.8628,34.9301,-75.5967,16.8022,-21.3752,-55.7851,24.5036,3.6496,-2.6071,-11.9912,4.692,2.6071,
-16.6832,25.9487,-4.1708,49.9301,-72.9895,16.6832,-19.8116,-44.8364,33.3664,12.5124,4.1708,-16.6832,5.2142,-5.2133,
-31.6832,23.9824,-19.1708,40.6656,-82.3736,12.5124,-16.6832,-47.9647,32.324,0,0,-16.6832,0,3.1283,
-38.5807,32.324,-13.5559,39.6231,-83.417,8.3416,-1.6832,-55.2639,30.2381,0,0,-2.0859,8.3416,18.1283,
-33.8876,34.9311,-13.0336,41.1868,-89.1515,6.7779,-0.52123,-51.6143,18.2479,0.52123,-3.6496,-9.9053,4.692,8.8628,
-25.0248,41.708,-8.3416,45.8798,-77.1603,20.854,4.1708,-36.6143,20.854,-4.1708,6.2567,-10.4265,10.4275,-5.2133,
-19.8116,45.8788,-8.3416,49.0072,-82.3741,20.854,5.2133,-39.6231,11.47,-18.7691,0,-15.6408,8.3416,0,
-11.9912,45.3576,-3.6496,48.4859,-89.1515,21.3752,5.7345,-45.3576,8.8628,-8.8628,-4.692,-23.4611,3.6496,13.0336,
-15.1195,40.1443,-13.0346,50.5709,-74.5542,31.8017,-0.52123,-39.1019,19.2893,6.1372,-4.693,-20.3328,0.52123,11.9912,
-13.5549,33.3664,-16.6832,53.178,-62.562,38.5807,4.1708,-37.5372,23.9824,8.3416,-4.1708,-23.9824,6.2567,-3.0088,
-11.47,21.8965,-13.5559,44.8364,-77.562,23.5807,10.4265,-41.709,18.7681,3.1283,-3.1283,-37.5372,9.3841,-11.47,
-21.3757,17.2039,-28.5559,37.0155,-92.562,10.9482,-2.6066,-47.444,14.0766,2.6066,-4.6925,-26.589,3.6491,3.53,
-26.0673,18.7691,-34.4089,35.4523,-84.4595,21.8965,-4.1708,-47.9647,17.7257,4.1708,-4.1708,-18.7691,5.2133,18.53,
-19.2903,25.546,-19.4089,43.2727,-78.724,23.4611,5.7345,-39.1019,15.1195,-3.6496,-7.8204,-25.546,3.6496,14.0761,
-10.427,40.546,-8.3421,45.8793,-68.8182,26.0678,9.3846,-24.1019,23.9819,10.427,-1.0429,-10.546,1.0429,-0.92391,
-16.6832,38.5797,-15.6408,39.6231,-75.0754,27.1097,2.0849,-19.8116,34.4089,19.8116,0,-6.2567,0,-4.1708,
-14.5983,38.5807,-16.6832,51.0931,-88.6303,30.2381,17.0849,-18.7691,19.8116,10.4275,-7.2992,-12.5124,-4.1708,4.1708,
-8.8628,52.6568,-10.9487,51.6143,-87.0661,28.6744,32.0849,-19.2903,4.8116,6.7779,-5.7355,-8.8628,-3.6496,19.1708,
-12.5124,55.2629,-12.5124,42.7505,-83.417,17.7257,35.4523,-26.0683,8.3416,4.1708,-5.2133,-7.2992,-4.1708,28.1532,
-17.7267,43.7939,-18.7691,45.8788,-95.9294,16.6832,28.1532,-32.324,16.6832,-3.1283,-7.2992,-5.2133,3.1283,27.1097,
-23.9824,28.7939,-21.8975,44.8364,-110.9294,11.469,22.9389,-46.9223,8.3416,-18.1283,-8.3416,-15.6408,8.3416,21.8965,
-8.9824,36.4948,-8.3416,58.3912,-95.9294,18.7691,26.0673,-40.6656,6.2567,-20.854,-6.2567,-20.854,12.5124,17.7257,
-4.1708,44.8364,-5.2133,59.4347,-80.9294,32.324,38.5797,-25.6656,11.47,-18.7691,-1.0425,-20.854,12.5124,2.7257,
-19.1708,30.7598,-15.119,47.443,-95.4077,23.4606,34.9306,-32.8457,9.9058,-22.4182,1.5642,-32.8457,7.8199,-1.5642,
-14.5978,26.0678,-7.2987,50.0501,-98.0143,13.5554,19.9306,-38.5802,16.6837,-15.6403,-6.2562,-44.8359,6.2562,6.2562,
-2.6071,30.7593,7.7013,49.5284,-83.0143,23.4611,21.3752,-24.5036,28.6744,-0.64026,-15.1195,-43.2727,-0.52123,-4.692,
-7.8204,35.9735,2.6071,44.3151,-94.3653,33.8876,28.6744,-25.546,22.4177,5.7345,-11.9912,-41.1868,-3.6496,-2.6071,
-10.9487,37.016,-6.7779,41.1868,-109.3653,21.3752,24.5036,-40.546,9.9053,-0.52123,-8.8638,-43.2727,0.52123,12.3929,
-0.52123,43.2717,0.52123,45.3576,-94.3653,25.546,30.7593,-37.016,3.6496,-4.693,-9.9063,-28.6744,-5.7355,16.162,
-2.0854,43.7934,-4.1713,55.2634,-79.3653,40.546,32.3235,-22.016,8.3411,-3.1288,-3.1288,-20.8545,7.2987,2.0854,
-17.0854,30.2386,-11.4695,54.2209,-94.3653,51.0926,18.7686,-13.5554,12.5129,-2.0854,-1.0429,-32.3235,22.2987,1.0429,
-21.897,31.281,-6.2562,53.1775,-101.1432,36.0926,27.1102,-23.9829,8.3411,2.0854,-8.3421,-30.2386,28.1527,-2.0854,
-22.9399,30.2381,-4.1708,42.7505,-86.1432,36.4948,38.5797,-32.324,2.0849,0,-6.2567,-27.1107,13.1527,0,
-19.2903,19.2903,0.52123,35.9735,-79.7665,39.1019,32.8452,-32.8452,3.6496,-0.52123,-0.52123,-26.5885,-0.52123,15,
-26.0678,12.5119,-3.1279,41.7085,-94.7665,24.1019,27.1102,-34.4094,2.0854,2.0854,-7.2987,-26.0678,-2.0854,22.9394,
-36.4948,10.4265,-6.2567,45.8788,-96.9719,14.5973,29.1956,-38.5807,3.1284,-6.2567,-3.1284,-36.4948,6.2557,13.5549,
-27.1107,13.5549,-3.1283,53.178,-95.9289,20.854,29.1956,-26.0673,3.1283,-12.5124,3.1283,-46.9223,8.3416,-1.4451,
-12.1107,18.7686,-3.1288,53.1775,-92.8011,32.3235,39.6226,-11.0673,7.2987,-5.2138,-2.0854,-34.4094,2.0854,2.0854,
-12.5124,14.5983,0,45.8788,-96.9719,29.1956,37.5372,-17.7257,10.4275,-8.3416,-7.2992,-32.324,2.0849,0,
-22.4182,5.735,1.5642,52.6572,-103.7488,16.1625,25.5465,-29.7163,9.9058,-11.9907,-1.5642,-41.1863,8.8633,-13.0331,
-29.7163,-8.8623,-6.7774,48.4864,-108.9626,7.8209,32.8457,-32.8447,7.8209,-6.7774,6.7774,-32.8447,13.0341,1.9669,
-31.8027,-18.2469,-11.9912,46.401,-110.0055,8.8628,40.1443,-33.8876,4.692,-2.6071,2.6071,-26.5885,14.0771,16.9669,
-28.1527,-8.3411,-5.2138,57.3493,-99.0568,17.7262,37.5377,-28.1527,11.4705,3.1279,-3.1279,-23.9819,14.5978,13.5554,
-23.4606,-2.6066,-2.6066,55.7846,-96.4502,21.3757,38.0589,-28.6739,15.119,9.9058,2.6066,-17.2049,11.9917,-1.4446,
-18.7681,0,-2.0849,56.3063,-98.0143,25.0248,41.708,-28.1532,6.2567,6.2567,0,-12.5124,8.3416,-2.0849,
-18.2469,-1.5637,0.52123,53.6992,-97.4931,16.162,42.2292,-23.4611,1.5637,0.52123,-14.0761,-25.546,5.7355,-0.52123,
-20.3323,-0.52172,0.52172,59.9554,-95.4077,8.8633,41.1873,-18.2474,2.6066,6.7774,-11.9907,-29.7173,8.8633,-6.7774,
-21.3752,3.6496,-11.9912,60.9984,-87.0661,13.0336,31.8027,-23.4611,-2.6071,2.6071,-8.8628,-17.2044,3.6496,8.2226,
-19.2898,16.1615,-10.9482,50.5714,-80.8094,23.4606,30.7598,-22.4182,-0.52172,3.6491,-7.8209,-2.6066,0.52172,23.2226,
-18.2479,24.5036,-4.692,42.2292,-90.1945,27.6319,31.8027,-22.4187,-2.6071,6.7779,-9.9063,-17.2044,2.6071,15.1195,
-15.6403,26.0678,-2.0854,41.7085,-81.3311,29.1961,39.6226,-20.8545,2.0854,9.3846,-2.0854,-32.2044,12.5129,0.11953,
-14.0761,26.5895,-6.7769,42.2302,-69.34,25.547,45.3576,-19.2893,9.9063,11.9912,0.52123,-18.2469,-0.52123,-4.692,
-8.8633,18.2474,-8.8633,39.1014,-80.8099,24.5031,46.4005,-23.4606,16.1615,10.9482,2.6066,-11.9917,-9.9058,-2.6066,
-9.9058,3.2474,-2.6066,38.0589,-95.8099,20.3333,45.3581,-32.8447,14.0766,2.6066,4.6925,-26.9917,5.0942,-5.735,
-13.0336,-5.7355,0.52123,48.4859,-89.1515,9.9053,47.4435,-33.8876,7.8204,-0.52123,0.52123,-29.7168,18.2469,-15.1195,
-17.7262,6.2562,-7.2987,35.4518,-95.9289,-2.0854,37.5377,-29.1951,4.1713,2.0854,2.0854,-17.7262,9.3846,-20.8535,
-23.9829,-1.0429,-10.427,32.3235,-109.4843,3.1279,29.1951,-27.1102,1.0429,1.0429,2.0854,-16.6837,5.2138,-5.8535,
-29.1956,-7.2992,-8.3416,47.3235,-104.271,12.5124,35.4513,-27.1107,3.1283,5.2133,-3.1283,-18.7691,7.2992,9.1465,
-34.9301,-15.1185,-2.6061,51.6143,-113.1334,1.5647,33.8886,-26.5885,16.162,7.8204,-0.52123,-22.4177,4.692,0.52123,
-29.7173,-21.3757,4.6925,52.6563,-119.3901,-4.6925,23.4606,-15.119,21.3757,6.7774,14.0766,-19.2898,15.119,-14.4788,
-29.1956,-17.7257,0,50.0496,-104.3901,0,22.9399,-12.5124,14.5983,7.2992,17.7257,-12.5124,15.6408,-21.8965,
-31.2805,-9.3841,-1.0425,38.5807,-96.9714,3.1284,36.4948,-21.8965,11.47,3.1284,2.7257,-9.3841,0.64075,-6.8965,
-25.0248,4.1708,5.2133,41.708,-91.7581,8.3416,45.8788,-13.5549,0,0,-12.2743,-17.7257,-14.3592,8.1035,
-20.3323,8.8633,7.8199,46.4005,-98.5356,13.0341,39.1014,-3.6491,-15,1.5642,-8.8633,-23.4606,0.64075,-1.5642,
-18.2469,5.7345,5.7345,52.6568,-113.5356,9.9053,26.5895,-4.692,-14.0761,1.5637,-1.5637,-15.1195,15.6408,-8.8628,
-21.3752,-2.6061,6.7779,52.6568,-128.5356,7.8204,23.4611,-6.7769,0.52123,-0.52123,-2.6061,-5.7345,17.2044,6.1372,
-13.0341,-8.8633,13.0341,51.6138,-143.5356,11.9907,34.9306,-5.735,-2.6066,0.52172,-1.5642,-0.52172,8.8633,21.1372,
-9.9053,-9.9053,3.6496,52.6568,-139.2016,0.52123,28.6744,-5.7345,-14.0761,1.5637,-3.6496,-0.52123,0.52123,8.8628,
-13.5559,-4.1708,5.2133,57.3488,-137.6375,-3.1283,19.8116,4.1708,0,3.1283,2.0849,0,0,-6.1372,
-18.2474,-7.8209,5.735,60.9979,-148.5857,9.9058,13.0341,2.6066,-1.5642,-0.52172,1.5642,-9.9058,0.52172,-17.2049,
-16.6832,-15.6408,0,63.6055,-144.9361,14.5983,13.5559,-2.0849,-16.5642,0,1.0434,-4.1708,3.1283,-2.2049,
-18.7691,-22.9399,2.0849,63.6045,-135.5526,0,18.7681,-9.3851,-22.9399,0,5.2133,-2.0859,8.3416,12.7951,
-17.2049,-21.3757,9.9058,71.4254,-136.0733,-5.735,20.3323,-6.7774,-7.9399,-0.52172,4.6925,-13.0341,10.9482,17.2049,
-14.5983,-15.6408,9.3841,67.7763,-141.8083,5.2133,12.5124,-3.1283,7.0601,1.0425,-1.0425,-10.4275,11.47,2.2049,
-20.854,-14.5983,1.0425,64.6479,-137.6375,9.3841,4.1708,-3.1283,-3.1283,-1.0425,1.0425,-2.0849,12.5124,6.2567,
-19.8116,-23.9824,7.2992,69.8612,-132.4237,1.0425,9.3851,-5.2133,-1.0425,-4.1708,12.5124,-3.1283,14.5983,20.854,
-10.4275,-19.8116,20.854,72.9895,-124.0821,1.0425,15.6408,-4.1708,13.5549,-5.2133,14.5983,-8.3416,13.5549,5.854,
-4.1713,-4.8116,10.427,71.9466,-111.5697,16.0425,11.4695,-2.0854,7.2987,-11.4704,2.0854,-16.6837,-1.4451,-9.146,
-0.52123,1.5637,4.692,56.9466,-111.0485,14.0761,15.1195,-3.6496,-0.52123,-17.2044,4.692,-24.5036,-13.0336,0.52123,
-7.8209,-13.0341,8.8633,51.6138,-125.6463,-0.92391,16.1615,-10.9482,5.735,-15.119,13.0341,-19.2898,1.9664,15.119,
-10.427,-3.1279,9.3846,60.4776,-125.1246,-1.0429,13.5554,-6.2562,13.5554,-0.11903,15.6413,-4.2898,16.9664,0.11903,
-5.735,-11.9917,15.119,53.6987,-119.3901,2.6066,13.0331,-7.8209,8.8623,1.5642,13.0331,-3.6501,1.9664,-14.881,
5.2142,-19.8106,26.0683,65.6914,-108.4409,0,16.6842,-3.1274,8.3426,-8.3416,13.5559,-1.0425,0,-6.2557,
-1.5647,-18.2479,15.1195,73.5108,-105.8347,-2.6071,11.9912,-0.52123,2.6061,-15.1195,11.9912,0.52123,15,-13.0336,
-6.2562,-19.8111,12.5129,72.989,-104.2706,2.0854,10.427,-2.0854,2.0854,-13.5554,16.6837,-7.2987,17.7262,-28.0336,
-1.5642,-16.1625,22.4182,74.5527,-91.2374,8.8623,9.9058,-3.6501,1.5642,-8.8633,16.1615,-17.2049,11.9907,-13.0336,
-5.2138,-11.4695,17.7262,65.6909,-93.8435,3.1288,11.4704,2.0854,-2.0854,-10.427,10.427,-18.7686,9.3846,-2.0854,
-4.692,-7.8204,8.8628,70.3824,-102.7069,5.7345,14.0761,16.162,-0.52123,0.52123,8.8628,-5.7355,-4.692,-0.52123,
-8.8623,-15.119,15.12,69.3405,-103.7488,16.1625,-0.92391,8.8633,-7.8199,5.735,1.5642,-7.8199,-13.0331,8.8633,
1.0425,-10.4275,30.12,74.032,-90.7157,20.854,0,0,-10.4275,-2.0859,9.3841,-18.7691,-4.1708,7.2992,
6.7779,0.52123,18.2479,73.5108,-81.8524,5.854,14.0771,-0.52123,-5.7345,-8.8628,7.8204,-16.162,-1.5637,-7.7008,
-0.52123,0.52123,6.7779,65.1692,-95.4072,2.6071,5.7355,3.6496,-8.8628,2.6071,-6.7769,-4.692,-7.8204,-4.692,
1.5642,-1.5642,15.119,70.3829,-110.0055,14.0766,-6.7774,10.9482,-22.4182,9.9058,-10.9482,-7.8209,-18.2474,2.6066,
8.8633,-5.735,16.1625,73.5113,-110.005,14.0766,-1.5642,8.8633,-16.1615,1.5642,4.0518,-5.735,-7.8199,-4.6915,
1.5637,-15.1195,11.9912,65.1692,-112.0909,6.7779,-0.52123,0.52123,-5.7345,-1.5637,17.2044,-2.6071,7.1801,-5.7345,
-13.4363,-21.897,17.7262,66.7333,-111.5697,6.2562,-3.1279,4.1713,-6.2562,-2.0854,9.3846,-10.427,16.6837,2.0854,
-10.427,-23.9824,23.9829,75.0749,-113.6551,2.0854,4.1713,9.3846,-3.1279,-10.427,8.3421,-10.427,2.0854,-2.0854,
-2.0849,-21.897,20.854,81.3311,-121.9967,1.0425,1.0425,10.4275,-4.1708,-9.3841,6.2567,-1.0425,2.0859,-11.47,
-3.6496,-21.3752,10.9487,72.4683,-117.3047,10.9487,-0.52123,14.0761,-8.8628,-6.7779,0.52123,-7.8204,3.6496,0.52123,
-5.2142,-18.7691,13.5549,68.8187,-103.2281,14.5973,4.1708,10.4265,-8.3416,-4.1708,8.3416,-8.3416,-6.2567,15.5212,
-10.9482,-19.2898,16.1615,76.6386,-105.8347,8.8623,-6.7774,3.6491,-6.7774,-2.6066,9.9058,2.6066,-6.7774,14.0766,
-8.3416,-22.9394,16.6832,78.2028,-111.5697,9.3841,-3.1283,16.6832,-1.0425,1.0425,11.47,-2.0849,5.2133,-0.92342,
-1.0429,-21.897,11.4695,78.2033,-114.6981,1.0429,4.1703,12.5119,-3.1279,-7.2987,7.2987,-12.5129,5.2138,-10.427,
-5.735,-18.2474,4.6925,77.6821,-112.0909,2.6066,-0.52172,0.52172,-4.6925,-9.9058,9.9058,-5.735,2.6066,4.573,
-12.5129,-20.8545,8.3411,62.6821,-108.4418,12.5119,-1.0429,10.427,-4.1713,-11.4695,3.1279,-6.2562,1.0429,15.6403,
0,-21.897,17.7257,63.6055,-113.6551,8.3416,8.3416,12.5124,-11.47,-14.5983,-2.0859,-10.4275,0,4.1708,
4.1703,-32.324,14.5978,77.1598,-128.2529,-6.6584,8.3411,-2.4876,-14.5983,-3.1279,11.4695,-1.0429,1.0429,5.2138,
-10.8297,-46.9218,15.6408,81.3311,-137.6375,-8.3416,1.0425,-1.0425,-6.2567,-3.1283,12.5124,8.3416,6.2557,14.5973,
-13.0331,-39.1014,21.3757,77.6821,-123.5604,-2.6066,4.6925,11.9917,-2.6066,-14.0766,2.6066,3.6501,11.9917,-0.40269,
1.0425,-28.1532,32.324,76.1179,-108.5604,-1.0425,16.6832,8.3416,-6.2567,-8.3421,7.2992,-2.0859,14.5973,-13.5554,
-5.2142,-43.1532,28.1522,79.2452,-113.6556,-1.0434,10.4265,2.0849,-17.7267,-10.4275,0,0,7.2982,1.4446,
-11.9912,-55.7851,23.4606,77.6821,-128.6556,-2.6066,5.735,1.5642,-21.3757,-19.2903,-1.5642,4.6925,13.0341,16.4446,
-3.1288,-43.7939,25.0243,88.6298,-115.741,-2.0854,12.5119,2.0854,-16.6837,-13.5559,8.3411,-2.0854,14.5978,8.3411,
-2.0854,-32.3235,28.1537,101.1432,-105.313,2.0854,11.4705,6.2562,-10.427,-5.2133,10.427,-2.0854,-0.40219,18.7686,
-15.1195,-41.1868,25.5465,90.1945,-120.313,-1.5642,6.7774,-0.52172,-6.7779,-16.162,5.735,2.6066,0.52172,11.9907,
-10.4273,-39.6229,25.0251,91.7579,-129.2956,1.0427,10.4268,7.2989,-1.0427,-14.5981,14.5976,-2.0856,15.5217,-3.0093,
-5.2135,-45.8791,28.1529,90.7159,-114.2956,-3.1281,7.2989,12.5132,3.1281,-5.2135,23.9821,-7.2989,26.068,-3.1281,
-8.3416,-59.4342,32.3235,93.844,-115.7405,-6.2562,5.2133,-2.0854,2.0854,-5.2138,28.1527,-2.0854,21.897,6.2562,
-17.2047,-64.1265,27.6317,92.2796,-130.7405,-6.7777,3.6493,-5.7347,-3.6493,-6.7777,21.376,3.6493,30.76,8.8636,
-23.4606,-60.9984,23.4611,77.6816,-130.8595,-18.2474,-1.5642,1.5642,-6.7774,-9.9058,9.9063,4.692,15.76,9.9063,
-8.4606,-45.9984,28.1537,90.7157,-115.8595,-10.427,13.4358,13.5554,2.0854,-7.2987,15.6413,11.4705,0.76004,-2.0854,
-10.4273,-39.6229,21.8962,94.8858,-118.8686,-8.3419,21.8962,6.2565,-6.2565,-19.8118,13.5546,6.2565,10.4273,-17.0854,
-25.4273,-54.6229,19.2901,91.2372,-130.8598,-13.0339,6.8962,2.6069,-14.0763,-30.7595,7.8201,6.7777,25.4273,-2.6069,
-20.3328,-52.6567,17.2049,93.3218,-122.5184,-9.9058,-5.735,6.7774,-11.9912,-24.5036,5.735,9.9058,27.6314,7.8199,
-18.2474,-50.5713,23.4606,88.1086,-124.6033,-1.5642,1.5642,10.9482,-11.9912,-18.2474,7.8204,5.735,17.2049,-7.1801,
-17.7259,-58.3915,28.1529,93.8443,-113.6549,-1.0427,4.1711,12.5132,-19.8113,-26.0675,3.1281,1.0427,10.4273,-4.1706,
-19.2898,-58.913,16.1625,94.3653,-98.6549,-4.692,2.6066,11.9917,-26.589,-31.8022,-2.6066,8.8633,9.9058,10.8294,
-33.3664,-66.7328,12.5129,89.6732,-107.3984,-10.427,-2.0854,6.2562,-20.854,-22.9394,2.0854,8.3421,10.427,18.7686,
-23.9821,-57.349,22.9397,99.0575,-105.3133,-1.0427,1.0427,13.5556,-11.4697,-8.3419,13.5556,9.3848,15.6405,3.7686,
-14.5976,-51.0923,12.5132,84.0575,-92.8008,1.0427,-1.0427,10.4273,-16.683,-22.9392,5.2135,7.2989,12.5132,-11.2314,
-21.3752,-66.0923,11.9917,82.8953,-103.7493,-6.7774,-1.5642,3.6496,-21.3752,-30.7598,1.5642,3.6496,15.119,3.7686,
-22.9392,-70.9039,18.7694,92.8013,-111.5695,-13.5551,-1.0427,1.0427,-25.0246,-26.0675,6.2565,1.0427,17.7259,13.5551,
-9.3841,-55.9039,25.0248,87.5878,-99.0568,-4.1708,6.2562,10.427,-22.9394,-20.854,4.1708,5.2138,14.5983,-1.4449,
-15.6403,-45.8788,20.8545,85.5024,-113.6551,2.0854,4.1708,23.9829,-19.8111,-22.9394,-2.0854,12.5129,2.0854,-10.427,
-28.1532,-60.8788,16.6832,93.8435,-128.2529,-6.2562,0,20.854,-17.7257,-27.1102,6.2562,18.7691,0,4.573,
-29.7168,-67.2546,9.9058,93.3228,-113.2529,-10.9482,7.8204,5.854,-31.8027,-31.8027,1.5642,9.9058,0.52123,11.9917,
-14.7168,-52.2546,21.3752,93.3223,-98.2529,0.52123,22.8204,2.6066,-32.8452,-16.8027,-0.52123,10.9487,6.7774,-3.0083,
-10.427,-46.9218,30.2386,89.6732,-86.5449,-7.2992,12.5129,11.4695,-29.1956,-12.5124,-2.0854,15.6403,2.0854,2.0854,
-16.683,-61.5193,29.1959,95.9297,-101.5449,-11.4697,-2.4871,13.5551,-18.7684,-19.8113,8.3419,11.4697,8.3419,5.2135,
-17.2049,-72.4683,33.8881,105.8342,-116.5449,-8.8628,4.692,9.9058,-3.7684,-18.2474,23.3419,2.6066,22.4182,-3.6496,
-13.0341,-74.5537,38.0584,116.2612,-121.4755,-9.9058,13.0336,9.9058,-3.6496,-13.0341,27.6314,3.6496,27.6314,-13.0341,
-0.52147,-60.9986,37.0157,120.4328,-112.0912,-2.6069,9.9055,11.9909,-6.7777,-10.9485,24.5033,0.52147,32.8449,-22.4184,
-0.52147,-65.1694,38.0587,107.9199,-102.7066,-0.52147,6.7777,8.8631,-10.9485,-20.333,17.2047,0.52147,25.5463,-21.3755,
-13.0336,-71.4254,38.0584,101.6639,-103.7493,-4.692,4.692,7.8204,-19.2903,-24.5036,8.8628,15.5215,14.0766,-16.162,
-17.2047,-69.3402,33.8884,100.6212,-104.792,-7.8201,10.9485,7.8201,-16.1622,-19.2901,15.1193,14.0763,21.3755,-15.1193,
-3.6496,-60.9984,31.8022,111.0485,-93.3223,-7.8204,18.2474,13.0336,-10.9482,-16.162,18.2474,3.6496,27.6314,-8.8628,
-3.6493,-67.2548,25.5468,103.7496,-99.5783,-9.9055,7.8201,14.0763,-22.4184,-24.5038,3.6493,3.6493,18.2471,-23.8628,
-9.3841,-77.1603,31.2815,92.8011,-106.356,-6.2562,8.3416,15.6408,-23.9824,-33.3664,8.3416,6.2562,33.2471,-38.8628,
-6.7774,-70.3829,29.7173,99.5785,-91.356,-4.692,4.692,7.8204,-28.6744,-38.0589,14.0766,11.9912,45.3581,-23.8628,
-18.2471,-60.9981,20.3325,91.2372,-80.8097,-4.6923,-0.52147,0.52147,-34.9308,-32.8449,1.5639,26.9912,30.3581,-8.8628,
-28.1529,-72.9893,18.7694,88.6305,-93.8433,-3.1281,1.0427,2.0856,-34.4091,-27.11,-1.0427,25.0251,16.6835,6.1372,
-20.8545,-76.1179,25.0248,103.6305,-89.6727,2.0854,-2.0854,12.5124,-29.1961,-26.0678,8.3416,15.6403,31.6835,-8.8628,
-15.1193,-76.6389,29.7171,112.0907,-89.1513,1.5639,-1.5639,11.9909,-31.8025,-34.9308,10.9485,14.0763,39.1011,-15.1193,
-13.5551,-80.2884,34.4091,111.5695,-102.1854,-3.1281,3.1281,10.4273,-36.4945,-47.9645,10.4273,10.4273,24.1011,-17.7259,
-13.5556,-72.9898,37.537,115.7408,-104.2708,1.0427,-1.0427,18.7684,-26.068,-43.7937,16.683,11.4697,26.0675,-11.4702,
-10.4273,-67.776,42.7507,113.6554,-103.2279,5.2135,-5.2135,17.7259,-13.5551,-33.3667,18.7689,10.4273,36.4945,-21.8967,
-10.9485,-71.4256,43.2719,116.2615,-101.6642,2.6069,-2.6069,10.9485,-8.8631,-33.8879,17.2047,4.6923,23.4609,-32.8454,
-13.5551,-69.8614,44.8361,114.6973,-98.0146,3.1281,-3.1281,16.6835,-4.1711,-26.0675,22.9397,16.6835,27.1105,-17.8454,
-8.3419,-58.392,39.6229,109.4841,-95.9292,3.1281,-5.2135,23.9821,-8.3419,-17.7264,21.8967,28.1529,36.4945,-3.1281,
0,-56.3058,28.1537,105.314,-98.0143,0,-3.1279,15.6408,-17.7257,-27.1102,16.6832,16.6832,30.2386,-18.1281,
-2.0854,-58.3917,35.4518,112.6122,-93.8435,2.0854,-8.3416,11.47,-9.3841,-29.1956,23.9824,14.5978,30.2386,-33.1281,
-4.1708,-57.3493,42.751,120.9538,-80.2887,0,-2.0854,18.7686,-2.0854,-25.0253,29.1956,29.5978,32.3235,-18.1281,
-4.692,-66.2121,37.016,115.2188,-76.6391,-11.9912,4.692,17.2044,-10.9482,-24.5036,28.6744,29.7168,27.6319,-7.8204,
-4.692,-59.9559,35.9735,117.3047,-78.7245,-1.5642,1.5642,19.2898,-10.9482,-18.2474,32.8452,17.2044,34.9311,-17.2049,
-13.5549,-64.6479,28.1532,114.6976,-87.5873,0,0,10.427,-9.3841,-33.2474,30.2391,2.2044,40.6656,-23.9824,
-7.2992,-71.9471,35.4518,117.8254,-79.2457,-11.47,12.5124,3.1279,0,-47.9647,33.3669,0,40.6651,-29.1961,
-11.4697,-67.776,31.2808,109.4846,-69.8614,-16.6835,3.1281,4.1706,5.2135,-32.9647,30.2383,-3.1281,25.6651,-30.2388,
-17.7259,-60.4769,28.1529,96.9716,-75.0747,-10.4268,3.1281,10.4273,11.4697,-20.8538,37.538,-3.1281,28.1529,-21.8967,
-16.1617,-60.9981,21.376,100.6212,-75.5964,-17.2047,6.7777,2.6069,2.6069,-33.8879,33.8884,-2.6069,29.7176,-35.9733,
-7.2989,-50.0499,16.6835,107.3987,-60.5964,-11.4697,2.0852,-1.0427,1.0427,-18.8879,30.2383,12.3931,34.4091,-25.0251,
-6.2562,-52.1355,22.9394,99.0573,-69.8617,-5.2138,2.0854,-2.0854,9.3841,-3.8879,36.4943,22.9394,39.6226,-10.0251,
-7.8201,-58.9132,31.8025,96.4504,-84.8617,-13.0339,7.8201,-3.6493,3.6493,-10.9485,38.0592,17.2047,33.8884,-22.4184,
-5.2135,-58.3915,34.4096,98.0141,-80.2884,-19.8113,11.4697,-2.0852,-1.0427,1.0427,39.6229,19.8113,38.5804,-37.4184,
-4.692,-54.7422,25.546,104.7923,-65.2884,-17.2044,6.7774,0.52123,-5.735,-0.52123,27.6319,15.119,34.9311,-26.589,
-3.6496,-42.2297,24.5036,104.7923,-67.2546,-9.9058,6.7774,3.6496,-13.0336,-15.5212,16.162,19.2903,23.4611,-11.589,
-3.1281,-40.6653,34.4091,92.8013,-74.0322,-10.4268,7.2989,3.1281,-14.5976,-30.2383,25.0251,27.111,20.8543,-4.1706,
-3.1281,-49.0069,35.4526,107.3987,-75.0747,-7.2989,6.2565,3.1281,-12.5122,-23.9821,32.3242,23.9826,35.4526,-19.1706,
-10.9482,-49.5284,31.8022,120.4325,-73.5108,-6.7774,13.0336,6.7774,-7.8204,-17.2049,30.7598,16.162,45.3581,-29.7173,
-23.4611,-47.443,23.4606,106.8777,-66.2121,-18.2474,11.9912,3.6496,-3.6496,-24.5036,31.8022,10.9482,37.0165,-17.2044,
-20.3325,-47.4432,21.376,94.3645,-60.9981,-17.2047,2.6069,0.52147,-0.52147,-32.8454,29.7176,5.7347,37.0157,-14.0763,
-9.3841,-43.7934,36.376,98.0148,-68.8187,-7.2987,7.2992,0,1.0429,-26.0678,23.9829,0,31.281,-28.1532,
-4.1708,-32.324,40.6656,112.6127,-56.3063,-4.1708,16.6832,0,1.0425,-19.8116,19.8111,0,20.854,-19.8116,
-10.9485,-38.0587,25.6656,103.7496,-41.3063,-9.9055,8.8631,-4.6923,1.5639,-26.5892,23.4609,-1.5639,20.3325,-4.8116,
-10.4268,-45.8791,21.8967,93.8438,-56.3061,-9.3843,3.1281,-1.0427,1.0427,-22.9392,30.2383,3.1281,13.5551,-4.1706,
-4.1708,-44.8364,23.9824,100.1002,-71.3061,-4.1708,7.2992,4.1708,-4.1708,-7.9392,30.2391,18.1281,12.5124,-19.1706,
-8.8628,-52.6568,15.119,97.4931,-75.5962,-10.9482,6.7774,3.6496,-10.9482,-3.6496,23.4611,23.4611,21.3752,-23.4611,
-7.8201,-47.4432,23.4609,96.4504,-74.5535,-8.8631,7.8201,5.7347,-6.7777,-5.7347,18.2471,21.3755,22.4179,-8.8631,
-2.0854,-44.8364,26.0678,91.7581,-76.1174,-9.3841,9.3846,2.0854,-2.0854,-3.1279,15.6408,27.1102,12.5124,-15.6403,
-2.0854,-49.0072,20.854,92.8011,-63.605,-13.5554,6.2562,2.0854,-13.5554,-9.3846,19.8116,28.1532,16.6832,-30.6403,
-5.2133,-34.4094,23.9829,107.8011,-48.605,-4.1708,4.1708,17.0854,-17.7257,-15.6403,29.1961,22.9394,27.1102,-28.1532,
-9.9055,-26.5887,18.2476,97.4929,-51.614,-0.52147,0.52147,16.1617,-17.2047,-22.4179,23.4609,8.8631,21.376,-23.4609,
-4.1711,-20.8543,12.5122,92.8008,-58.3915,-1.0427,2.0852,1.1617,-15.6405,-17.7259,20.8538,9.3848,28.1529,-22.9397,
-4.6923,-19.2901,18.2471,98.5358,-45.3578,-5.7347,5.7347,4.6923,-9.9055,-17.2047,29.7171,7.8201,39.1011,-33.8879,
-1.0427,-26.0675,19.8113,95.9292,-45.8791,-5.2135,6.2565,8.3419,-8.3414,-25.0251,29.1964,1.0427,38.5804,-35.4521,
13.9573,-19.8116,14.5983,88.6303,-45.8793,-5.2138,0,0,-19.8116,-23.9824,19.8116,0,28.1532,-20.4521,
21.3757,-10.9482,26.589,87.0661,-37.016,-10.9482,2.6066,-2.6066,-14.0766,-14.0766,25.5465,2.6066,25.5465,-11.9912,
10.4278,-19.8113,28.1534,89.673,-45.8791,-17.7259,3.1281,3.1281,-3.1281,-12.5122,22.9402,-4.1706,20.8543,-26.9912,
10.4268,-21.8967,17.7259,86.5446,-53.1782,-13.5551,3.1281,12.5127,-4.1711,-14.5981,16.6835,-3.1281,18.7684,-11.9912,
9.9055,-24.5033,17.2052,79.7672,-54.7419,-17.2047,-0.52147,1.5639,-17.2047,-29.5981,14.0768,-0.52147,28.6741,0.52147,
7.2989,-19.8113,25.0256,89.6725,-46.9215,-21.8967,4.1711,-3.1281,-18.7684,-26.0675,17.7264,3.1281,30.2388,-14.4785,
3.6496,-23.4606,29.7168,83.9383,-43.2722,-34.9306,8.8628,-3.6496,-20.3328,-21.3752,14.0771,7.8204,15.2388,-29.4785,
1.0427,-25.0246,22.9402,87.5881,-54.2207,-30.2383,-1.0427,2.0861,-27.11,-33.3662,8.3419,3.1286,3.1286,-44.4785,
1.0427,-14.5976,13.5551,100.1005,-61.5193,-15.2383,-8.3414,13.5551,-29.1954,-31.2808,11.4702,-1.0427,17.7259,-50.0499,
-2.0854,-12.5124,14.5978,86.5449,-67.7758,-0.23832,-9.3841,6.2562,-33.3664,-21.8965,7.2996,2.0854,9.3846,-35.0499,
-3.6496,-15.1195,20.3323,88.1086,-68.2975,5.735,-6.7779,-1.5642,-33.8881,-28.6744,5.735,1.5642,9.9058,-20.0499,
-0.52123,-9.9058,25.546,101.6639,-62.0408,20.735,0.52123,13.0336,-25.5465,-37.016,17.2044,-2.6066,19.2903,-6.7774,
-1.0427,-3.1281,18.7689,86.6639,-56.3061,28.1529,1.0427,15.6405,-32.3237,-38.5799,11.4697,-7.2989,4.2903,-21.7774,
1.5642,-1.5642,15.119,78.7245,-54.7422,19.2898,2.6066,5.735,-41.1868,-31.8022,-2.6066,-6.7774,4.6925,-17.2044,
-0.52123,-2.6071,16.162,80.8099,-63.0843,15.1185,3.6496,3.6496,-38.0589,-28.6749,0.52123,-9.9063,19.6925,-27.6319,
-7.2992,7.2992,6.2557,72.9895,-72.9895,12.5124,-1.0425,1.0425,-37.5377,-31.2815,4.1708,-10.4275,7.2992,-36.4948,
-0.52123,16.162,3.6496,66.2116,-72.4683,9.9053,4.692,0.52123,-40.1443,-29.7173,3.6496,-2.6071,-2.6071,-21.4948,
