"AF3","AF4","F3","F4","F7","F8","FC5","FC6","O1","O2","P7","P8","T7","T8",
-87.0102,-60.4975,44.5895,0.72302,16.1486,-39.2871,-22.4153,18.0768,22.4155,46.0358,-1.2052,5.0616,-5.5435,-0.72302,
-83.4769,-60.483,39.2631,-1.4895,11.5642,-29.9402,-22.2757,9.0384,19.8653,49.7816,1.5185,6.4449,-7.3803,-3.8131,
-88.3502,-59.9873,29.4357,-3.5693,13.0398,-31.759,-17.3237,1.0245,15.5401,47.9997,4.0787,0.51479,-2.8399,-0.93301,
-89.7981,-58.3163,23.8129,-8.6578,10.3292,-39.9768,-21.1048,-0.4832,15.0899,40.2993,2.3877,-1.9265,-6.0439,1.5333,
-71.6357,-53.6122,34.1945,-2.5947,7.5403,-25.2857,-20.0795,5.0894,15.3896,39.5683,1.5215,0.84046,-11.7069,-1.21,
-54.3223,-45.5749,41.7839,-0.51073,19.1391,-9.6686,-10.1977,12.4967,12.5381,37.6763,3.3583,-0.65611,-8.5942,0.30875,
-54.1963,-38.261,34.6973,-4.0956,19.1957,-20.0552,-10.791,11.988,10.0983,33.2466,2.4338,-3.7501,-9.7659,3.4236,
-58.6573,-39.3396,29.7229,-3.3677,7.4391,-27.5288,-16.4103,3.5559,10.9386,31.7338,-2.0508,1.2954,-11.1081,1.29,
-50.7993,-39.8717,33.2424,-3.1657,16.6335,-11.8977,-10.6052,3.8245,14.6208,26.9375,-0.48147,2.6639,-0.80044,-0.23367,
-43.172,-33.3819,32.935,1.6037,21.179,-11.9069,-5.3895,12.0308,13.0206,14.9572,3.6447,-5.9319,0.93447,0.021429,
-45.8843,-34.2713,22.7637,1.5075,6.4109,-19.3874,-10.8507,6.4885,9.8288,14.0593,1.4978,-6.0582,-5.8703,0.020144,
-43.1311,-31.733,19.9517,-0.99323,8.9189,-8.1009,-13.0918,3.6889,7.7929,26.2313,-4.8587,7.8028,-4.5539,2.4292,
-35.4817,-24.2853,20.9241,-1.6566,11.999,-3.9996,-13.0293,12.3858,3.7102,24.4168,-9.1466,9.5041,-5.0036,3.0064,
-29.0144,-25.2384,25.4532,-2.0393,3.5662,-11.9544,-8.8732,12.1245,7.8258,24.8799,-2.3312,1.221,-2.7751,4.2722,
-22.9351,-29.0269,30.1926,-0.95296,6.2444,-11.7192,-9.787,0.30987,11.2128,27.2436,2.1471,-3.1907,-0.68052,2.5697,
-18.6665,-23.4287,32.7197,-1.3778,14.5467,-6.1957,-6.7895,-2.6009,8.1298,20.3062,2.5004,-1.0712,0.80645,-0.47664,
-27.9107,-20.818,25.6951,-2.9824,2.8279,-5.5827,-7.5875,1.1704,4.0268,17.4004,0.18118,1.6444,-1.8933,-1.1712,
-32.5028,-21.0149,21.2609,1.5351,-8.9109,-7.6581,-14.3628,1.5823,6.6773,23.1053,0.17031,-1.8285,-2.2616,3.2377,
-23.5629,-18.067,26.011,1.684,-4.2789,-12.2601,-9.4037,1.2464,11.3381,18.5857,3.2933,-10.1549,0.043261,-0.57203,
-21.9081,-14.8135,25.6555,4.2344,-0.88882,-13.6938,-1.3675,4.7869,12.3454,11.4449,4.7831,-2.5559,0.76368,-5.1173,
-29.2706,-18.2634,20.2597,1.0879,-4.2101,-7.5696,-6.1061,0.64319,6.3019,15.0964,-0.3245,7.2386,-3.1386,-0.95379,
-27.9964,-15.2392,20.4902,-3.798,-6.8496,-0.36664,-9.1141,-3.2517,2.0673,18.0474,-3.6794,2.4658,-5.3606,3.9238,
-15.7113,-4.2018,24.0815,2.6967,-0.65407,-0.34464,-3.2646,7.5485,3.3895,16.9645,-2.0123,-1.5385,-1.1823,1.2782,
-9.9483,-3.9498,21.1903,3.0169,5.6518,-1.2882,-3.0688,8.5417,-0.18846,16.9109,-2.3739,0.96404,2.263,-2.1728,
-20.6795,-6.8462,14.3754,1.6307,-2.159,0.47646,-6.9822,-2.8169,-7.1664,16.1373,-7.2928,-0.78092,-0.042091,-0.35531,
-26.4283,-3.3019,12.3078,1.2919,-9.0193,3.5811,-7.2864,0.96775,-5.0495,15.8917,-9.9887,-0.49309,-0.28053,2.3176,
-15.6837,-3.1037,15.9075,-1.1959,-5.5858,5.7765,-7.8132,8.1404,1.5204,15.9024,-6.497,1.9467,-1.7098,2.1784,
-7.271,-3.6407,23.3891,1.5271,-0.18906,-0.11359,-4.211,3.5543,4.5621,13.7433,0.8826,-0.82128,-2.3305,2.2885,
-9.4861,-6.0736,25.6009,-2.6619,0.063253,-12.3991,3.5135,2.136,4.0476,10.2674,4.927,-3.9055,5.7633,-0.98203,
-12.5322,-8.8425,19.9676,-4.1895,-1.6277,-8.522,4.0257,2.2489,1.6352,6.0361,1.0161,-5.3583,10.961,-1.1642,
-13.9494,-7.5888,16.1182,0.64161,-1.771,-0.056686,-1.2773,-5.3579,5.1528,7.8433,1.1961,-3.8315,4.2778,3.4852,
-19.3792,-8.5798,14.1871,-3.7354,-6.0033,-10.6586,-2.165,-7.9287,7.7359,6.8905,1.1243,-0.22737,-3.2097,1.8298,
-17.2524,-4.6905,16.2283,-5.4395,-6.6072,-11.4651,4.2316,2.188,-1.4054,5.9952,-4.7277,6.535,2.2855,2.6843,
-8.7453,1.6166,20.316,-6.3183,-1.1489,3.3228,1.8087,3.7441,-12.1672,9.7325,-10.9517,11.6866,1.4254,3.7282,
-4.1233,6.5811,21.2663,-0.87765,3.9813,5.8953,-2.8795,-2.0241,-3.9652,11.7997,-6.6793,12.6723,-0.34749,1.8174,
-8.4553,-2.7317,16.3748,-3.9584,-0.35501,-8.5585,-1.0196,-2.1439,1.8162,7.4767,-3.6273,2.9942,4.7349,-1.9069,
-7.948,-7.8704,12.5,-10.4695,-5.1542,-11.5398,1.452,-1.051,-3.5952,6.5459,-6.3019,-3.4522,5.8971,1.5817,
-3.3738,5.8582,14.4016,-3.3337,-4.604,-0.4833,1.1236,-1.2289,-3.6205,4.9479,-6.1648,-0.59373,2.8919,0.76369,
0.20321,13.2196,17.8757,0.72287,-2.8816,0.027751,2.5026,-0.67333,2.3812,0.313,-2.4206,2.3343,5.1287,-3.1384,
-2.4604,4.4725,12.224,-4.3821,-8.2522,-7.9278,1.1473,-4.7304,-3.7871,-1.8753,-3.9624,-1.4213,4.5799,2.1115,
-5.2051,3.7223,10.0443,-5.5654,-7.7571,-6.9699,4.9348,-5.4107,-3.5599,-0.3165,-3.2428,-1.336,5.2692,8.7337,
-8.5082,5.1859,10.6464,-4.5084,-6.0866,-4.8647,6.8079,-4.8451,4.1251,-5.3592,1.5313,-2.4609,6.1581,2.1837,
-4.8642,4.6338,13.1411,3.234,-6.9264,-4.8138,8.0866,-2.8671,1.7084,-1.4222,3.1267,-1.1082,5.0657,0.84757,
-0.47502,0.25819,13.0758,-2.5039,-5.7877,-6.2122,9.7706,-4.8645,-8.2762,5.1708,-5.0149,4.5017,1.6283,5.376,
-1.1696,2.894,15.9067,-7.8971,-2.3074,-6.5626,11.3535,-4.8136,-7.5382,-1.165,-9.7755,1.0985,0.32574,2.4023,
1.3109,10.4334,16.8805,1.2536,-3.615,-1.3482,13.0827,0.29594,0.14489,-6.8797,-6.2966,-1.3777,1.7522,1.7763,
0.026943,7.1561,7.4315,0.93744,-6.5314,-1.0263,11.0926,-1.891,-2.0334,-3.3338,-7.6061,7.1408,2.8522,8.6596,
-3.3489,2.8703,-0.24499,-3.4574,-5.1754,-8.1956,5.1244,-6.1161,-8.1782,-5.5442,-11.0061,2.3738,3.6451,4.7653,
3.3597,4.3851,2.9032,-2.0449,2.6069,-8.9089,12.289,-5.0262,-4.554,-9.7908,-1.4279,-6.2045,9.9339,-0.58183,
3.1582,-2.6265,2.2468,-7.2246,-1.888,-13.1948,17.8184,-11.4731,-1.8704,-9.6851,-2.3061,-1.0115,5.9636,-4.4035,
1.2814,-0.78188,9.5838,-4.14,-8.2822,-15.0547,17.9541,-14.4003,4.7493,-8.3811,-3.373,6.521,3.9186,3.8144,
2.8918,2.3985,20.8189,4.5445,-7.5443,-11.4999,23.8668,-9.4387,6.1516,-13.9037,5.7474,-1.8242,13.5659,12.0217,
1.5132,-2.8071,17.8826,5.4769,-3.9584,-15.3894,30.3885,-13.4519,-2.1713,-21.5057,2.7513,-8.2225,10.5823,0.93606,
0.69906,-4.3259,16.0865,-1.8416,-2.0337,-20.0099,33.1447,-21.0807,-5.6566,-15.1539,-4.8858,-1.7034,-0.89867,-3.6996,
4.5137,4.1288,23.3165,-0.28482,-7.6962,-12.0601,35.4948,-16.4414,-2.4243,-9.9059,-1.2178,2.7372,3.976,10.6224,
7.3759,6.05,18.7838,6.24,-13.7424,-7.7216,37.4622,-9.4296,-5.4125,-19.6761,-0.90398,-2.4885,11.209,9.6236,
13.6823,5.687,17.657,6.3477,-5.2051,-8.2221,44.8552,-5.4892,-3.1598,-19.9415,-0.84997,-2.8214,13.4287,0.36928,
16.7177,9.2022,19.4901,4.5206,-2.0003,-5.3187,43.6102,-9.9805,-3.9341,-16.8168,-7.5476,-2.6521,9.7309,-0.13481,
16.9197,10.3373,15.6691,4.0084,-5.9776,1.5081,42.1989,-13.9612,-4.9033,-15.0849,-13.6025,-0.80574,8.4237,5.8988,
13.4944,5.3785,11.8367,1.3576,-8.0293,0.45356,47.3795,-11.1953,0.21136,-11.2871,-4.5914,1.653,8.4005,7.4729,
9.5515,4.3329,13.7778,0.071038,-12.609,-7.0455,45.2598,-11.7287,-0.042061,-6.0303,3.1561,2.7588,7.1733,2.4454,
13.7989,6.9652,17.7718,-1.8614,-11.3705,-4.2124,43.0266,-13.9173,-3.414,-2.7765,-0.88965,5.4858,12.0456,-0.59381,
14.176,9.6806,20.8029,-1.0268,-11.8936,-0.82638,49.3627,-10.9128,-1.04,-6.7072,-2.0416,3.4695,15.4202,8.8418,
13.0847,11.2691,23.6521,2.1683,-16.2412,-1.4997,53.8732,-6.6426,2.6383,-8.9559,4.1069,0.1278,18.1104,17.7113,
20.0124,9.6289,22.7151,1.0741,-9.9643,-0.92778,48.2304,-10.5826,1.9978,-4.5624,4.8242,0.6023,19.4341,7.0079,
18.0883,3.9895,21.5929,2.2147,-5.2689,-5.9338,40.2747,-16.9375,2.6006,-8.3862,-0.044805,-0.15697,17.063,-1.8489,
10.7365,-2.0345,19.8154,0.63555,-13.1474,-11.8443,37.8587,-18.8134,4.3728,-14.6315,-3.8985,1.2987,17.4855,5.0109,
16.6,0.25697,20.314,0.83861,-15.9742,-8.9642,34.864,-15.9973,0.013293,-4.8358,-7.2798,0.97959,18.6053,6.8796,
22.8349,4.5799,27.7718,4.1627,-7.303,-2.6418,29.8796,-10.6992,-0.95183,-0.68923,-6.843,-2.4536,16.5251,3.5743,
15.439,-0.27444,26.8288,-0.18437,-8.0701,-7.0628,28.3278,-13.1907,-0.65375,-14.7479,-7.6377,1.7909,10.4719,0.70878,
13.7898,-4.3553,19.1935,-0.89667,-16.5035,-15.5571,28.3154,-19.3887,-7.122,-20.0088,-7.4204,3.3707,8.6383,-1.5029,
25.9776,1.2084,23.3441,1.0853,-6.8367,-6.9109,33.3654,-11.4769,-3.3207,-4.7083,0.25565,0.2764,14.387,2.9256,
27.7931,6.9205,26.2818,0.53827,0.32244,3.6269,27.0247,-4.5218,-2.1571,-3.5826,-1.2059,0.74175,9.6669,-1.1063,
24.9205,3.8539,21.5714,0.74694,-6.6868,1.7218,14.5569,-11.7223,-8.0532,-15.1778,-5.7133,4.7946,8.8459,-0.79899,
25.8356,-3.6079,18.8315,-1.7082,-14.4805,-8.0222,16.5763,-15.357,-5.1597,-14.2669,-0.54959,2.579,18.9207,4.5514,
25.9725,0.70592,20.3525,0.56365,-11.4423,-7.2999,21.1251,-8.4103,-1.7169,-8.3499,0.20605,0.25483,18.5081,3.5552,
26.5837,4.7611,23.7111,-1.1574,-4.2478,0.6101,17.2065,-6.218,-4.2649,-8.0894,-3.4213,1.9268,12.8184,2.6189,
26.6757,-3.9607,25.9036,-1.8111,-6.1623,-5.4525,14.4866,-9.4606,-3.7683,-10.2558,-1.0471,2.5343,17.1107,2.2206,
21.46,-8.3023,21.6985,0.94891,-12.3003,-19.2254,15.7868,-9.1341,-3.7829,-10.8451,-1.7069,-0.26909,17.2891,-2.0097,
20.1719,-2.0196,21.3605,0.89198,-12.0447,-16.2641,10.9832,-5.2116,-5.0022,-10.6768,-4.0151,-0.25294,13.3597,0.52097,
24.5052,0.27075,25.1406,3.9719,-12.0449,-7.3343,2.3705,-6.5862,-9.2818,-12.6873,-7.8715,2.4133,8.9427,3.1408,
25.2043,-1.4325,24.8372,3.4924,-13.9735,-10.0275,0.058874,-7.878,-8.4837,-7.8284,-7.64,8.7762,7.683,-0.1809,
19.1127,-1.5877,20.2135,-0.81447,-18.1963,-14.4875,-0.66756,-8.6106,-3.8774,-7.1178,-4.0486,5.5986,7.9449,3.9273,
15.5556,-3.9026,14.1802,0.1985,-18.551,-16.9925,-2.074,-8.5761,-4.6088,-11.5112,-5.2517,-0.52215,6.5042,4.1738,
16.5503,-5.1147,13.3291,1.6326,-17.9201,-13.5628,-4.3599,-5.1693,-5.7783,-6.9644,-4.4549,9.6323,11.4163,2.4774,
16.2806,-6.0129,10.8426,0.32983,-24.7987,-12.0259,-10.6058,-2.2076,-4.2268,-6.7875,-1.536,11.2235,14.8292,2.0878,
15.0626,-15.5343,8.0227,-3.7875,-28.3722,-17.8121,-12.6208,-6.1727,0.12441,-10.9597,0.24314,1.6323,11.77,-2.1351,
16.5692,-17.0123,9.4697,-3.5605,-23.7776,-18.6716,-10.417,-13.0329,3.4912,-9.82,1.1926,1.5346,13.4742,-2.0068,
17.9851,-12.1352,10.8297,-0.93631,-21.8688,-12.2486,-14.6127,-13.6972,-2.5029,-14.0515,1.6035,2.4064,13.63,-0.92248,
24.619,-9.9611,14.0361,0.083969,-14.7721,-3.319,-17.1106,-1.306,-3.3168,-14.1725,3.9172,4.1899,13.2939,1.5432,
21.6956,-12.2555,9.8195,1.0428,-16.2959,-6.4941,-21.8681,0.21862,-4.0817,-12.3578,-4.0306,-0.39977,8.158,-4.3339,
17.0197,-12.4845,8.2662,1.9443,-26.4056,-6.5866,-22.9664,-8.9538,-4.8009,-13.5448,-14.3939,-2.3037,4.7762,-6.0023,
19.1315,-11.4942,10.9037,3.033,-30.3646,-0.16539,-22.7937,-6.7293,-5.7181,-14.9013,-8.9505,0.96796,2.8024,8.4578,
11.9583,-13.9378,4.2237,2.1279,-32.6401,-5.2172,-34.2003,-3.1923,-4.6519,-13.766,-0.45994,-2.7058,-3.391,12.1686,
9.5536,-16.7172,4.2113,-0.65091,-33.333,-9.9658,-32.8716,-4.206,4.0629,-6.4325,-0.19138,0.59007,2.3556,2.5204,
11.6317,-23.6679,7.0919,-0.85305,-36.3947,-18.2859,-29.2119,-9.0151,-1.7243,-10.6261,-6.6876,1.2773,3.9017,-3.1746,
15.2721,-24.658,8.1131,4.9827,-37.5853,-23.9372,-29.8693,-7.5099,-7.4054,-10.4705,-0.019378,-0.24511,1.2575,6.1753,
14.8382,-22.6965,10.0364,3.7199,-37.7403,-19.6087,-30.4877,-5.1311,1.2341,-1.6471,7.2126,-6.015,3.5921,6.7687,
11.5371,-19.8887,15.2186,3.4965,-36.9223,-13.13,-30.1045,-3.3772,5.9801,0.37925,3.4052,-3.2442,9.6429,-0.8685,
15.1836,-16.7672,16.2337,3.7686,-34.2248,-15.7164,-28.7802,1.1637,3.2112,-3.4994,5.1291,7.5558,10.0287,-3.2265,
21.9854,-14.7971,16.224,6.9169,-30.2432,-16.2195,-31.8741,3.0221,2.5365,-3.2895,7.7138,6.6205,6.0525,-0.6228,
22.5945,-15.8374,19.1065,4.5737,-28.4288,-8.9798,-36.7105,0.91259,2.8663,-2.6102,3.3942,0.92061,5.6893,7.1273,
23.8899,-14.1641,20.6116,1.6482,-23.5896,-5.7897,-35.2308,1.0993,5.3454,-4.6227,6.8064,9.3015,9.4453,16.0997,
22.9387,-19.0988,16.0007,1.5491,-27.4768,-19.5423,-39.3837,-4.7515,-1.724,-13.0222,2.0595,1.5123,5.9863,5.0106,
29.5161,-22.0502,20.5843,-0.23108,-27.5152,-23.7926,-38.7079,-4.7074,-0.41526,-9.5898,1.6949,-5.0859,9.2426,4.9514,
25.5759,-26.7528,13.8056,-4.3146,-31.8899,-20.1957,-42.8929,-7.076,0.33301,-2.9884,-0.57593,-0.68337,6.5188,5.8596,
20.185,-25.6298,9.1209,-0.68124,-35.7613,-21.8765,-43.2119,-4.7237,0.79497,-3.7734,0.42249,4.6603,6.1277,1.1692,
21.8662,-20.7177,16.2862,-0.6406,-32.6515,-24.4203,-34.8343,0.86256,5.0854,-8.8494,8.5921,3.4166,12.9907,6.8839,
20.0723,-16.5824,16.2733,-2.0484,-35.5129,-22.9551,-32.7443,-0.63545,4.2983,-8.3185,8.5585,1.7653,12.2112,13.2193,
18.868,-13.659,9.9943,-2.8894,-38.6845,-17.7214,-37.5281,-0.11493,0.18402,-3.963,3.2247,4.0695,6.1764,9.0522,
16.5306,-10.1882,5.7792,-1.5107,-37.0866,-14.9709,-40.82,3.025,-2.96,-3.9662,-1.0661,3.5844,3.1542,-1.8553,
11.9236,-6.4436,8.0838,2.1951,-34.1383,-14.7957,-37.1657,3.0847,-2.5417,-3.0055,-3.1715,0.23606,7.0626,-6.3235,
11.2081,-7.0211,11.4551,2.0634,-30.1618,-14.8719,-36.864,2.8996,-0.46101,-4.271,-1.535,-1.7063,10.0133,-8.3542,
11.2586,-2.9844,9.563,6.5193,-32.4494,-14.2207,-39.7138,6.3411,1.7358,-9.5583,4.5827,2.4934,8.6891,-6.1657,
7.9319,-4.0106,4.4095,4.9229,-39.4205,-14.0906,-39.9823,7.1654,5.2471,-6.3338,6.9588,7.8874,5.9986,5.5324,
8.9021,-8.1083,0.28874,1.7352,-38.9833,-12.2809,-40.9576,9.1459,7.3426,0.79541,7.9878,7.4144,9.0134,14.8417,
6.6807,-6.8989,-2.8621,2.354,-36.8855,-14.6775,-47.4182,9.8024,5.6968,-2.8682,7.7495,6.2462,10.6417,12.2635,
-1.6739,-1.9052,-0.52119,1.4899,-37.3237,-14.0378,-45.7782,11.3834,6.5602,-3.419,8.0074,9.9692,8.7979,13.2153,
-3.0197,-3.7193,0.47395,2.8467,-36.0486,-15.124,-41.1035,8.7722,4.7204,-3.6958,6.0807,8.4068,5.8599,15.3145,
1.2593,-7.1114,-4.1338,3.8812,-32.1982,-13.9753,-41.7703,6.5587,4.6786,-8.5357,8.8493,7.1795,7.6775,6.9238,
-12.9163,-12.4693,-12.0802,0.27367,-44.3663,-19.4033,-50.8333,3.7552,6.8082,-7.0595,9.2829,6.2665,6.7351,-5.0605,
-22.8671,-16.3006,-13.525,1.4625,-52.4301,-26.1931,-55.7373,0.39598,6.6402,-1.5742,5.592,6.6134,7.0539,2.2325,
-7.395,-14.1175,-6.6878,0.65166,-35.1843,-21.4883,-45.4034,1.5773,5.0368,-0.75665,5.9796,5.9754,11.2097,11.9807,
3.533,-13.0295,-5.0812,-1.0747,-18.9732,-19.958,-38.5816,2.6879,4.0117,-2.3985,7.3081,-5.2289,7.4041,2.8257,
2.8393,-19.4786,-7.1867,-1.0104,-5.5426,-26.4733,-41.0874,-2.2938,6.6632,-4.183,6.8698,-6.3612,8.4059,-3.1282,
2.4278,-27.2275,-5.5504,-0.70859,1.7801,-33.3206,-42.7193,-6.2533,8.9148,-5.1371,6.6988,5.8308,14.4093,2.121,
0.83585,-25.5941,-5.2174,-0.18414,2.155,-38.0702,-41.1205,-5.8786,4.5235,-2.4187,5.3326,8.855,6.7958,1.9937,
3.1961,-20.202,-2.9764,-2.5835,-3.7589,-35.786,-33.8327,-1.6692,5.6981,-2.2734,7.423,5.9133,6.3883,0.91,
10.7171,-15.1335,5.3974,0.46407,1.7693,-29.7825,-28.4283,3.2516,9.6946,-7.9216,8.9058,8.933,19.9847,5.1937,
10.074,-18.0819,2.181,0.43623,2.1451,-28.4777,-37.3279,-1.2823,5.2565,-9.3745,4.5146,7.4327,20.2315,9.7028,
7.3007,-21.5763,-3.0113,-0.79501,-8.3475,-28.938,-44.488,-5.3024,4.7004,-3.2686,6.4136,7.2279,12.9923,11.29,
-0.36844,-24.6205,-1.8665,1.663,-18.9341,-32.9865,-46.6394,-5.4665,2.4899,-5.4828,4.1003,5.3482,7.8737,-0.95676,
-3.4798,-24.3483,-3.4418,2.7681,-15.1467,-28.8381,-43.6001,-1.5231,4.5097,-5.3948,4.0953,6.7145,12.9454,-1.1408,
-3.2708,-21.9231,-9.0196,-0.29028,-13.7558,-20.3589,-46.2865,-2.3958,5.6856,-3.1427,5.2956,13.5423,12.1684,10.9794,
-5.9671,-21.0899,-7.5146,-1.7191,-21.6075,-20.5837,-50.7402,1.6044,2.9339,-1.5079,4.014,20.4425,1.7973,13.6947,
-5.8498,-21.5117,-7.7868,-1.3748,-19.5879,-22,-49.8649,5.1233,2.999,-1.6586,4.0139,13.6726,-3.372,7.3296,
-2.6065,-20.7032,-12.1401,1.1181,-10.6999,-21.1621,-44.9448,-0.96891,5.7114,-3.9695,3.2909,-1.2478,3.579,0.14116,
2.3701,-15.6044,-3.6989,-0.87721,-4.2731,-16.518,-39.3559,0.053548,10.1894,-1.8031,7.4322,1.3577,12.5233,-1.7955,
2.4691,-12.017,1.1025,0.38049,-7.1502,-13.3577,-42.0562,5.1118,7.4087,-2.9,9.1552,10.1941,6.71,0.48116,
3.526,-11.5372,-6.4357,6.8654,-5.5161,-11.3512,-41.702,6.4921,5.7586,-9.2337,8.8471,5.9672,2.2103,9.3701,
9.0991,-13.2548,-11.8336,0.66887,-0.36443,-13.5622,-35.3432,2.7286,3.9673,-9.1616,3.9779,4.6453,8.3442,11.2185,
15.3018,-10.0494,-7.7494,0.14657,-5.1631,-14.1947,-38.5253,2.5651,0.35504,-7.1659,-0.59928,10.6329,8.3257,6.2068,
8.3581,-14.9901,-8.4897,1.3431,-14.7357,-14.5483,-44.6499,0.72348,-1.354,-12.2795,-0.32235,4.4513,-3.9844,3.6653,
3.2771,-13.8497,-3.8828,5.842,-7.8255,-12.9521,-35.463,3.8138,3.3073,-7.9271,4.2765,3.4611,0.83462,8.5068,
0.42895,-11.3315,-2.445,5.2501,-6.1511,-10.006,-34.5405,5.7541,-0.98899,0.50225,-1.0418,14.5816,6.3277,6.7911,
-3.212,-16.6771,-3.9853,0.35599,-15.664,-5.79,-42.35,5.6501,-1.6523,2.6415,-1.7024,17.3224,0.88658,7.1068,
-10.2499,-24.3534,-8.5666,3.7089,-21.4729,-12.1913,-46.5577,2.4183,3.2673,-4.7481,5.6308,3.7498,-2.5408,8.6088,
-15.1787,-25.5435,-15.0423,4.6914,-19.4613,-19.4138,-49.79,-2.7882,5.7221,-5.6682,7.9443,-0.090851,0.26294,5.4409,
-13.7858,-18.2263,-16.5501,3.9277,-17.3296,-14.3926,-50.659,-1.1749,5.861,-4.846,6.0211,6.6633,-0.235,10.8988,
-7.8972,-12.0713,-14.834,8.2716,-17.977,-3.6468,-47.8604,2.5112,5.7505,-8.1709,7.3473,6.9866,0.50223,11.9324,
-7.4232,-13.7571,-16.3543,5.8473,-19.7907,-3.428,-44.5068,3.8066,5.8876,-6.7165,9.3169,1.7469,3.8463,-1.3168,
-11.7985,-16.3062,-19.7113,4.5322,-23.4237,-14.7917,-47.1388,1.1681,3.1238,-5.3492,4.4191,1.1602,-1.6866,-4.6123,
-9.6443,-16.2919,-16.6005,6.1884,-23.4646,-17.2785,-50.0951,-1.3121,3.9007,-5.0282,4.1539,5.9113,-3.996,9.1618,
-8.5837,-14.3503,-12.7124,7.2634,-16.2721,-7.5651,-47.5716,-0.26954,8.005,-8.101,11.1355,8.9306,4.4384,14.3967,
-11.9246,-14.9353,-13.3954,7.3095,-16.7418,-7.5929,-46.6452,-0.73531,8.489,-8.0969,11.4317,7.4309,4.1726,12.569,
-14.3429,-15.2445,-13.7968,7.1121,-16.9424,-7.3785,-46.0159,-0.93238,8.7028,-7.8523,11.9509,5.78,4.163,10.6098,
-17.0977,-15.5351,-14.6567,6.9264,-17.6133,-8.1411,-45.4243,-1.1174,8.9035,-7.6221,11.9567,4.2279,3.6722,8.2855,
-19.4461,-16.0488,-15.2231,6.9927,-18.4845,-8.1343,-45.109,-1.5323,8.8512,-7.6467,12.2036,2.528,3.4519,6.3426,
-22.1357,-16.5321,-15.7557,7.0553,-18.8214,-8.1284,-44.3307,-1.9225,9.2843,-7.6701,12.4355,1.4122,3.245,4.9979,
-24.423,-17.2274,-16.0159,6.8732,-19.3796,-7.8817,-43.84,-2.5303,9.4503,-7.4511,12.4125,0.12239,2.8091,3.493,
-22.4757,-15.2297,-16.019,6.4606,-8.0937,-3.5526,-40.7276,0.99574,-1.2398,-7.0038,9.2574,7.3457,0.71214,2.8013,
-24.7425,-14.5569,-22.0475,10.1705,-7.849,-0.206,-46.7199,5.5155,-6.7088,-9.2349,5.5687,5.2179,-3.4277,2.8744,
-21.8117,-12.7194,-22.6529,11.0066,-12.1986,2.6986,-46.3271,5.667,3.3347,-7.7169,4.7522,4.4229,-2.7401,6.5583,
-15.9235,-10.269,-15.2681,4.3202,-9.2975,5.6702,-45.2344,3.1578,7.7139,-5.0843,6.6367,12.5932,2.9679,5.4414,
-15.4503,-7.2427,-10.4957,7.4354,-9.2218,0.99145,-47.3411,3.4503,4.359,-9.118,6.7204,8.9456,4.2361,-1.1516,
-10.1847,-6.326,-8.9014,7.9534,-0.9555,0.45003,-43.5363,4.6893,4.0972,-13.8733,3.9068,0.21388,2.0535,3.2561,
-4.0302,-3.7775,-6.6803,5.3068,6.5734,6.4483,-40.6834,5.1311,3.1283,-7.9795,2.9493,2.37,1.6891,11.4962,
-9.5728,-4.5147,-10.1356,2.5785,-1.5335,7.0258,-42.5805,1.449,3.4227,-2.6802,2.7726,8.495,1.106,7.4326,
-14.542,-6.8951,-11.215,4.5927,1.2096,7.3274,-35.4463,4.0133,7.7969,-4.6883,5.2575,7.7441,2.2447,7.7093,
-14.3924,-9.1325,-11.265,6.0048,9.091,4.7186,-36.4528,4.4954,-2.0709,-10.915,2.2905,0.28957,-0.059099,7.9701,
-8.2264,-3.7643,-10.5895,3.7159,9.0274,6.8456,-43.9066,3.7438,-4.3568,-5.4394,4.0813,6.5387,1.8726,8.4558,
-11.348,-1.851,-15.0151,3.7341,0.53205,3.3016,-41.9954,3.278,4.8224,-5.8361,6.0058,10.7264,3.4477,2.887,
-16.452,-8.9708,-15.5605,4.4739,0.50013,-2.6813,-37.5474,2.1174,9.3538,-9.8245,5.1631,3.3339,4.6867,-0.17873,
-9.1983,-8.9147,-6.9143,4.6877,8.6648,-2.5204,-30.4743,1.5082,10.2386,-4.8967,8.7099,4.5799,7.2978,7.545,
-7.2002,-2.5952,-9.8739,6.8165,6.2167,-1.4051,-25.7534,-0.51047,1.4291,-6.0492,4.8129,8.6434,4.9317,1.3077,
-16.4094,-6.7781,-14.1017,5.4437,-0.423,-9.0336,-22.7621,0.002087,-2.9949,-9.0605,6.4523,6.1966,4.6358,-4.0734,
-23.6194,-13.6019,-8.4353,5.5991,-7.6281,-14.7582,-24.7705,-0.48009,7.3082,-4.6603,13.778,7.2712,3.3934,7.7403,
-26.7819,-12.5449,-11.0623,3.0939,-16.0886,-3.0266,-31.7203,-1.6565,9.0388,-2.2114,6.4437,7.0758,-6.2103,12.8194,
-20.5952,-1.9101,-15.9422,0.73909,-11.5076,11.255,-26.2017,3.9865,3.4348,0.090412,1.9598,6.4103,-5.5962,9.3991,
-24.4214,3.266,-20.5295,0.45355,-10.5762,13.8335,-27.763,1.096,-1.8328,0.32618,2.0829,1.4461,-6.9479,-2.4933,
-32.838,1.865,-20.9849,-0.7785,-16.4494,5.5319,-36.4611,-6.4415,4.3028,1.5114,3.1632,2.0823,-8.7002,-4.5128,
-33.5191,0.065842,-18.0386,1.4374,-15.7036,7.3691,-35.9609,-2.9218,10.5521,-0.7484,5.6245,7.019,-3.5989,9.8579,
-35.1234,-3.0714,-21.5358,3.0381,-15.0023,6.2039,-26.8134,1.8333,-0.92709,-6.2469,3.1181,5.8747,-6.5162,12.0385,
-32.7748,0.24617,-21.9307,1.6508,-9.0405,12.3393,-15.8046,2.9283,-4.9686,-2.2569,5.1,10.5837,-7.8123,6.7367,
-32.4957,2.4006,-16.5175,3.239,-7.293,14.7322,-19.4358,1.0654,-3.4656,-2.8444,6.9631,9.7077,-4.2105,8.0192,
-35.8484,-1.1177,-14.0804,2.5625,-8.3017,7.0996,-21.162,1.4836,-2.7755,-8.4585,7.9918,1.8946,-0.58318,6.0921,
-32.7334,-0.5687,-16.1279,1.4446,-2.501,5.7095,-12.1795,2.3587,5.5859,-2.6486,10.8866,-0.6294,1.3798,-2.9503,
-27.6361,-0.77554,-16.3652,-0.32906,-0.66367,6.0901,-13.1359,-0.91606,4.5276,1.6079,1.7975,2.0597,-5.2107,-9.281,
-22.1214,0.71725,-9.1166,-1.2734,3.2325,12.4734,-12.8297,2.5131,-1.0464,2.4755,-1.2027,13.0236,-4.8978,2.8452,
-26.0967,0.67421,-11.944,1.6951,4.0027,12.6891,-11.0958,-0.52972,0.94455,-0.56506,10.921,10.7959,-0.74759,10.8692,
-28.3873,-2.7407,-19.4221,2.5577,4.2447,4.2149,-9.466,-3.3905,9.0826,-1.4955,12.6759,3.3992,-0.2208,7.8069,
-24.7561,-3.0584,-18.7392,-2.8984,8.8103,2.9977,-7.452,-0.29497,4.6812,3.8969,2.2739,2.7133,-4.0639,3.4821,
-24.4758,-1.1877,-14.4811,-1.5195,9.9689,2.5769,-7.2458,-3.4105,1.2671,2.458,7.6813,-1.0651,-5.0252,-0.34244,
-22.2839,0.57103,-9.0325,4.1153,12.0223,0.25335,-1.2672,-1.5184,14.4475,-3.2331,19.513,0.68648,0.33802,0.40147,
-23.8394,1.0185,-13.3117,3.3865,6.9622,-1.2083,-2.6377,-0.46347,11.6524,-2.5572,10.147,8.3576,-3.5386,0.85931,
-23.6141,-0.72963,-16.6099,-1.3965,1.9652,-0.89464,-7.0587,-2.1229,3.4815,2.176,7.369,6.6513,-5.9779,3.9412,
-15.6898,1.0011,-7.66,-0.10739,12.6933,1.8101,-4.4663,3.5479,6.8875,0.84016,18.2551,1.6725,2.8165,11.6585,
-14.7481,4.7977,-7.6819,1.8272,16.7524,1.2198,-7.5723,1.8892,1.654,-6.923,9.447,-2.7662,-0.24458,5.6563,
-13.8635,7.8841,-8.6675,0.75352,16.229,6.4488,-1.8155,-0.15258,1.5546,0.24104,5.9879,4.1485,-2.1583,1.9427,
-16.1647,3.3137,-9.8342,-2.9071,15.0145,7.2674,5.7654,2.5081,3.149,3.842,7.7978,7.033,-1.3055,3.9953,
-15.436,4.8018,-7.0752,-2.4915,18.6929,8.0362,8.0706,5.9728,2.7188,1.924,8.0531,9.2624,1.4242,3.0325,
-14.9918,4.5137,-6.6509,-4.2704,14.1971,3.2157,5.176,-0.16989,1.5916,5.1833,9.4978,9.1883,-0.1073,-7.2726,
-16.7436,0.62771,-12.7591,-1.8448,10.6939,-4.9312,7.5168,-0.88282,3.6655,2.7029,9.1692,4.5399,-2.7522,-8.0413,
-18.6315,0.10789,-12.4762,-0.77002,14.3906,-2.7071,14.2964,4.4726,9.7119,-4.6901,12.4752,-0.071021,3.1973,1.6,
-21.3697,3.476,-9.3169,0.24016,6.7786,-1.0983,13.9209,3.2402,11.0575,-4.8905,15.1012,-0.54858,4.9338,1.0222,
-23.944,8.5697,-13.5785,1.6721,-3.7511,-7.2993,11.1573,1.5994,6.0558,-3.1512,11.3027,2.3765,-6.9313,-5.788,
-22.5076,10.4657,-15.6563,0.12554,2.2583,-6.8613,10.9698,2.9497,5.2101,-1.998,9.1783,1.2696,-9.8899,-2.0662,
-18.988,10.0787,-10.1374,-0.60512,9.1127,-3.3164,11.0347,3.4959,8.0307,-2.6013,9.3508,-2.9042,-2.3068,-0.73719,
-15.4381,14.2947,-5.1904,-2.497,10.4941,-0.2249,14.7112,5.2143,11.4057,0.44732,15.0567,2.0908,1.206,-0.21102,
-11.1374,20.6681,-7.7715,-2.3472,13.2389,3.645,17.203,4.9015,13.1315,4.2769,17.0458,12.0887,-1.2765,4.1404,
-11.9153,15.5715,-10.6793,-2.2065,17.2652,2.4623,11.8324,2.6793,9.9334,4.0204,10.7203,11.8452,-0.7176,5.3381,
-10.9593,10.5397,-5.9411,-3.7612,20.8089,3.5197,7.9893,5.6519,8.1322,5.4663,9.3543,7.5192,4.8687,4.777,
-6.9277,16.6558,-6.067,-2.0893,19.078,6.6826,4.6172,4.3485,4.7517,1.2819,7.8282,2.2473,-0.72605,-1.2947,
-4.3428,20.718,-9.8005,-0.75873,19.1385,9.8971,8.4376,2.8824,6.1537,-0.00042495,7.1179,4.2815,-4.298,-0.49374,
-18.1822,14.4138,-12.8275,-2.4005,6.1802,3.7598,9.6189,1.9867,10.8465,4.0973,9.3423,7.6404,-1.3887,4.5975,
-26.8528,11.1384,-13.9863,-1.7744,-1.4217,-0.3224,7.5953,-2.9533,10.6775,3.3693,10.7097,7.1817,-1.7875,3.3575,
-11.1417,17.942,-9.0496,-1.4268,12.7636,8.133,18.9498,1.8033,7.3858,2.9261,15.1285,10.3664,1.9352,4.8429,
-3.8449,16.6245,-10.676,-3.5106,26.0978,4.5117,23.8386,5.7927,-1.9752,-0.38276,11.0875,8.5393,0.13214,2.3834,
-6.5062,12.2528,-10.5172,-0.40767,38.6319,0.8668,21.4444,2.5529,1.5176,1.0865,8.4943,12.3655,1.0883,1.2763,
-4.911,12.7225,-8.1992,-0.14201,36.6756,5.876,21.8448,1.1944,8.4162,1.7442,9.6716,15.7207,4.6382,2.8867,
-4.3752,12.2004,-7.466,-2.3029,37.6085,5.7646,23.6673,4.2562,6.7061,0.43446,9.3325,8.7522,8.9394,4.401,
-5.3177,5.4426,-4.367,-3.8519,39.9315,2.2855,24.8986,1.3495,11.8474,5.4701,9.9779,8.468,12.5004,5.8242,
-11.2655,2.2238,-5.5511,-3.6207,34.1613,1.6663,22.4407,-6.9263,12.1005,5.1418,9.8612,8.442,6.4479,4.5105,
-10.3487,6.1876,-7.3873,-4.1265,34.7626,7.1096,25.6735,-4.3416,0.04618,5.5563,5.654,7.212,2.4454,6.4089,
-6.3532,6.2987,-8.8721,-6.7713,34.6054,3.7909,26.0614,1.2216,-2.8485,8.1153,-2.8803,11.1181,-1.5576,2.65,
-5.0079,10.7412,-5.9295,-2.0265,26.7445,1.1533,23.0516,1.6303,4.0711,3.2898,-5.5997,12.379,-4.3564,-0.88318,
3.2465,18.0505,1.4162,0.74622,30.6834,14.8226,27.6943,2.7377,3.1034,-0.04082,-0.20207,6.0931,-0.47959,4.2315,
2.3285,12.87,-3.2486,-0.02157,31.4936,13.6922,26.7557,-1.0421,-6.4824,1.1668,-3.3231,1.6296,-2.6201,4.2185,
-9.6213,5.5902,-7.6329,2.149,19.2398,1.5424,23.9452,-4.1127,-3.9242,-1.0725,-2.4007,6.5936,-2.2218,5.1703,
-10.2493,8.388,-3.0778,3.2251,21.2189,5.0652,29.4981,-0.25073,10.4112,-2.2132,10.0356,5.4749,7.3117,7.0295,
-8.9113,5.7155,-11.8111,-1.0656,18.7403,2.5921,24.5948,-5.7794,10.1477,2.0168,6.7821,-3.7716,2.2934,-1.8283,
-10.7869,-0.41191,-19.2972,-6.7864,7.4931,-3.3479,18.7809,-8.8068,9.5392,7.6805,1.0728,3.2035,-3.6289,2.1381,
-10.1397,3.4692,-13.8006,-2.5228,9.4537,0.22716,20.5461,-2.9759,12.8232,3.3633,2.4543,8.7959,-0.036709,7.7944,
-8.326,5.9124,-9.8393,0.76181,12.5019,3.829,20.0367,-1.5921,6.51,0.02825,0.13808,3.2067,-2.6858,-2.5554,
-2.2828,4.8345,-7.0798,-2.8993,9.5826,3.8402,21.9678,-2.2197,-0.38812,3.642,-2.0394,3.7372,-5.6582,-4.5713,
6.5308,8.8827,-2.3167,-1.2791,18.6486,2.6457,26.9162,-0.64048,-3.7393,1.9772,-5.7738,3.513,-4.8367,1.9695,
9.2724,13.4115,0.47385,0.96681,31.6297,7.5486,30.8449,1.5673,-4.2378,-0.3106,-4.2221,0.65108,-1.895,2.0923,
3.8955,11.6426,-4.8576,2.8371,25.9959,15.7725,27.5478,1.9551,-5.9121,-2.2203,-1.5586,2.5399,-0.33537,2.4488,
3.4209,10.221,-13.0019,2.4258,15.0363,17.9595,24.69,2.5611,-5.798,-1.846,-2.67,5.5213,-3.9303,4.9533,
4.4207,9.8487,-12.9449,-0.853,14.857,12.7846,26.3418,4.0946,-3.7631,1.398,-1.3047,5.9127,-7.7921,5.3793,
0.058009,10.463,-9.0346,-0.078809,16.1348,9.8482,26.4487,2.1618,-2.3324,0.59115,1.4248,3.3889,-7.5654,-1.4513,
1.7414,12.0042,-6.3235,1.1311,21.1922,13.3546,27.5127,-0.61955,2.8691,-0.6495,4.9546,4.8727,-3.4962,-5.4617,
7.9037,13.2122,-4.9802,2.9914,23.7773,14.9636,32.6109,1.346,2.697,-2.5387,3.2111,6.5085,-5.697,1.6145,
7.6706,12.6606,-3.4759,0.16062,19.2174,12.3788,34.7518,3.9166,-6.8646,-9.376,-4.9351,1.5385,-9.9342,3.687,
8.4155,15.5162,-2.5444,-3.9464,20.2335,15.2513,33.3896,7.779,-6.2122,-6.6443,-2.9522,4.0973,-6.2052,4.1887,
7.9105,16.5134,-7.6944,-1.7814,19.9836,14.8181,28.9759,5.384,-1.5007,-1.9073,0.11741,3.8514,-7.2791,5.8655,
8.1589,13.8355,-7.4736,0.49476,19.5076,13.6882,33.7451,-1.4466,3.1687,1.3405,3.2435,-0.4769,-4.1907,3.8265,
8.8746,13.2464,-4.374,-0.7401,21.9524,11.6617,38.228,-4.4934,6.5941,2.4652,8.1107,-0.6896,2.5683,-1.9466,
7.378,13.4157,-8.4503,-0.6957,22.5635,5.6594,32.5599,-1.8134,6.6804,2.3173,7.624,5.1364,-0.47828,-3.758,
6.6944,8.5135,-13.4867,-0.89515,17.5945,-0.22357,29.4015,-3.3916,5.5565,2.4195,4.0333,7.48,-3.5828,-3.2913,
0.99027,4.6284,-15.0876,3.0149,8.3439,2.2,27.6374,-8.4908,2.813,-1.5821,1.3808,2.2105,-3.8498,-5.9864,
-6.0589,6.52,-12.9769,3.0751,4.2279,7.6117,26.7021,-3.4017,3.8496,-1.7282,3.4672,6.1753,-7.2341,-1.0473,
-2.5621,12.6365,-10.0294,-0.24264,10,7.396,29.1976,3.792,7.7157,1.5087,8.803,8.938,-3.6668,6.9695,
1.4481,13.3245,-13.2839,4.1104,14.2204,5.9882,28.4097,-2.22,8.2168,-2.9203,9.2388,1.171,2.8198,3.1765,
-0.326,8.4274,-13.6919,2.6587,15.5366,11.6545,30.3206,-4.2561,4.5905,-1.54,5.0693,1.342,0.4817,0.33507,
1.3807,10.573,-9.737,0.32988,16.7734,16.0168,33.5629,1.0608,1.1819,0.7217,0.18527,1.5023,-4.609,-1.3724,
2.2619,14.2769,-11.0812,2.7204,14.8029,13.6095,31.067,1.4791,0.14693,-8.9628,-1.2719,-0.51627,-2.4045,-4.1823,
-2.9352,11.2514,-11.6212,3.2801,13.6738,12.552,27.0338,0.66743,-0.58525,-10.112,0.0097266,1.6843,-3.4651,-3.6904,
-5.6516,8.1657,-9.4784,3.5655,11.4071,9.8704,25.8937,0.14522,-3.4424,-4.6851,-1.9193,-3.2377,-15.3085,-3.9512,
-1.9381,11.5324,-7.4629,3.8335,12.6511,7.8324,27.7145,-0.34542,-0.34336,-9.2242,2.0523,-7.8637,-12.4618,-1.7859,
-1.3396,12.7686,-9.9075,4.5676,8.9997,5.4343,23.1594,-1.2888,0.15941,-11.0809,1.4474,0.80309,-4.9654,-2.6428,
0.66882,10.5564,-10.7594,3.3295,8.9416,5.1079,24.662,-0.24749,-3.2247,-2.7036,-2.014,8.4676,-8.042,-1.5201,
2.3161,14.0206,-10.3546,2.4066,16.359,9.3811,36.921,0.49049,2.0302,-1.3359,3.6507,0.48793,-8.2822,3.1507,
-2.1615,16.0717,-13.1081,4.6725,16.8236,5.9261,40.4902,-1.9492,2.8728,-6.0763,3.4313,-4.3619,-6.3393,-1.859,
0.37856,13.6612,-11.8392,1.0177,18.7065,6.5344,34.6864,1.5422,-2.1202,-1.3734,-2.5592,3.1306,-6.4409,-5.1219,
6.3813,14.5286,-9.4417,-0.24834,18.3071,13.1321,29.4718,2.6546,-2.716,-1.0499,-0.2361,3.6656,-7.7418,-2.1631,
6.4807,18.4775,-5.9831,2.6587,17.2088,15.2366,31.0781,-0.39681,3.2316,-4.8432,-2.1505,-3.7846,-6.7952,1.8232,
3.1995,15.4407,-7.0703,0.089086,17.1404,10.9479,32.1057,2.0371,2.0734,-4.5526,-6.8417,-5.9681,-7.3514,-0.21443,
-1.09,10.4166,-12.6717,-1.1216,15.871,10.0501,29.4562,3.1202,-4.0766,-5.0026,-2.3338,-7.2973,-10.5257,-4.7813,
1.3856,11.7199,-9.5011,0.87405,17.329,14.2677,33.9555,1.0047,0.9884,-1.8102,0.69837,-8.7875,-8.4483,-1.6018,
4.6767,14.391,-3.6284,2.2679,15.8071,11.9651,35.2924,-2.4301,2.3754,1.1907,-5.6101,-5.8501,-8.9052,-1.5061,
2.4682,12.0815,-7.2671,2.6137,12.4485,6.9089,28.8365,-3.2484,-2.5879,0.63728,-6.7197,-4.0529,-11.2634,-5.7541,
3.7662,8.4642,-11.1697,1.0108,13.1478,7.9405,27.5884,0.80305,0.94196,2.0452,-3.9063,-3.3277,-7.2131,-2.5167,
6.9146,10.8487,-9.0532,1.4322,9.4665,5.536,29.7893,0.27282,-3.4532,-3.3801,-9.4564,-6.0204,-8.2264,-1.4012,
11.8022,15.5003,-4.1715,3.2745,11.7909,10.0244,33.3047,-1.6719,-9.0305,-9.926,-8.8889,-6.141,-9.179,-3.7276,
14.4684,13.6061,-2.9573,4.042,21.2065,11.8332,30.8244,-2.5355,-4.1502,-9.3304,-6.9096,-8.6649,-8.1462,-4.4682,
10.708,11.3435,-3.7442,1.3894,20.416,-2.9768,26.5646,0.026726,-2.455,-6.8426,-12.2796,-11.5195,-11.5138,-6.6102,
10.5477,17.4118,-0.14483,-3.0325,16.299,-16.8982,31.7194,4.3637,-8.5744,-3.0573,-12.025,-1.6691,-13.2333,-5.2495,
9.6738,21.9106,-1.3413,-0.19935,16.526,-25.5254,34.8778,1.4506,-8.3008,-2.633,-11.0624,1.0823,-11.7163,-3.2472,
9.8162,15.5343,-5.3584,0.053803,19.1496,-13.63,32.5439,1.1224,-0.33116,-3.6804,-7.2654,-8.8648,-7.8801,-3.2936,
12.8427,13.3974,-4.3136,-3.5648,23.5445,1.2878,32.7607,4.6705,-1.5161,-4.1824,-1.7678,-11.4664,-8.6121,-6.2294,
9.9031,15.7269,-7.1883,-3.592,21.4088,15.3106,28.1438,4.6313,-9.379,-5.1364,-5.7592,-6.6807,-13.1572,-8.5064,
5.6934,15.5063,-6.516,-0.72531,16.0268,28.4919,28.1423,1.7022,-6.1651,-2.6592,-8.0651,-4.1106,-8.7522,-3.4166,
8.0031,13.8528,-2.5096,1.0054,17.2344,37.0262,36.3359,-2.0153,-2.6621,-6.597,-8.3041,-10.3719,-7.5042,-3.4531,
8.7281,9.4063,-0.6719,-5.0805,22.226,31.6713,35.361,-5.0278,-9.9739,-13.1909,-11.9033,-13.8471,-13.5615,-9.7535,
11.0968,10.2881,0.81479,-4.2937,20.4104,32.6634,32.7572,1.0586,-7.9295,-7.5789,-10.2247,-9.1597,-12.2658,-7.7219,
9.7079,12.3221,-1.8856,-2.3488,17.4985,26.606,30.0687,2.6823,-8.1767,-3.9909,-12.7447,-10.2974,-13.2171,-9.4277,
8.6433,9.6545,-2.2543,-8.9567,23.1974,24.5279,22.962,-1.8171,-11.5423,-9.054,-17.2825,-13.5358,-15.7984,-12.2364,
11.4992,10.0393,-0.19088,-8.4193,21.8055,24.9844,21.5843,-5.5644,-11.8141,-14.7775,-17.2099,-15.1338,-14.8505,-11.0203,
15.3885,10.1601,0.061313,-10.5654,23.1485,25.6542,29.689,-11.2563,-15.6848,-15.5781,-18.3467,-14.467,-17.5746,-16.3849,
14.7062,8.3454,-0.66527,-17.8853,30.6777,29.1767,31.5233,-9.3759,-19.323,-12.9562,-20.3789,-10.9478,-19.6537,-19.981,
9.2443,9.0498,-4.2405,-12.7146,23.7751,25.7388,20.2317,-3.2697,-15.9947,-11.4557,-18.4331,-13.9062,-15.8231,-12.2745,
10.3769,13.0863,0.11125,-5.4442,15.8411,22.5075,24.0795,1.024,-1.7786,-0.40422,-6.4808,-10.9026,-5.4737,-6.4768,
7.8261,11.3368,2.0328,-8.0096,17.7827,16.3364,30.8294,-4.8222,-4.082,0.58413,-7.0563,-8.8022,-8.0378,-18.6212,
4.4642,5.8363,-6.2841,-12.8319,22.0186,11.0179,24.6416,-11.2816,-17.8166,-10.5381,-18.6842,-15.0228,-18.1606,-23.2887,
3.2323,5.9681,-11.2095,-12.0618,21.1797,11.8028,21.7166,-6.7483,-15.7835,-10.8699,-19.9735,-17.0137,-17.5527,-13.6965,
-1.5412,9.7073,-5.9576,-6.7588,14.8472,11.8178,22.5827,3.0566,-7.3647,0.14634,-13.7135,-10.9316,-11.9202,-8.2954,
1.2026,15.6328,1.3897,-7.0762,14.6793,16.6523,25.3254,8.8992,-6.1995,8.5735,-5.4188,-5.2141,-6.1433,-4.1823,
5.9509,18.0691,-3.9963,-9.0617,16.2087,18.5455,23.8058,8.3648,-7.2738,8.541,-6.54,-7.7933,-6.2571,-10.6798,
4.871,14.8158,-9.2999,-8.7592,15.4773,14.7814,19.2442,4.7297,-9.9706,0.55696,-14.5835,-9.977,-9.9788,-15.1004,
7.4708,13.4447,-2.9576,-11.6079,17.9229,12.9304,15.1971,-1.8209,-10.3369,-5.2613,-14.1906,-8.8967,-10.3442,-8.4101,
8.9507,15.0481,-0.36979,-10.9116,18.2936,10.7084,11.8749,-9.4244,-12.127,-8.32,-11.8932,-13.1834,-12.1339,-15.1365,
6.0036,17.0378,-1.7936,-9.7748,18.1605,13.9225,12.6089,-3.0741,-11.3992,-8.7847,-8.2868,-12.3921,-11.888,-15.6739,
3.4742,17.7027,-0.96311,-10.3936,16.3475,12.8459,12.0933,2.1718,-11.9201,-10.427,-6.5848,-10.4433,-9.9695,-2.4414,
5.1937,17.1225,3.4332,-11.216,16.3308,6.7725,14.2598,-2.7792,-13.1333,-7.3913,-7.6357,-8.8531,-7.9253,-8.0797,
5.3645,14.6491,5.6376,-11.5071,16.3155,11.1869,22.0813,-3.0942,-10.8988,-5.5013,-9.1055,-5.4291,-8.4138,-17.7176,
8.1756,17.8673,6.0222,-5.2731,14.1308,17.5053,22.4436,2.1529,-9.5224,-9.269,-10.2469,-6.7911,-11.5244,-7.737,
17.0853,23.3032,7.8303,-6.1618,21.2369,18.1422,20.8558,1.3006,-6.2993,-5.0972,-10.8367,-9.9988,-9.6279,-4.139,
12.6857,19.0125,4.468,-12.059,22.3733,15.6074,21.0507,-7.4545,-4.9575,0.511,-11.1508,-10.8451,-7.604,-16.9066,
-0.84986,11.8462,1.0666,-12.5406,11.6307,7.1992,19.0646,-9.1764,-2.973,-4.0992,-8.7948,-9.4713,-8.3528,-16.1329,
-1.0398,8.0019,2.2077,-14.9214,7.3176,-0.22242,17.1976,-5.9745,-3.9997,-9.8788,-6.0977,-10.59,-7.1285,-11.0678,
9.3867,8.7273,1.8345,-12.3386,10.0118,4.8526,16.4069,-9.7134,-10.7494,-9.527,-7.9008,-12.124,-6.942,-13.0546,
12.6801,7.7215,1.7242,-10.6342,12.3034,8.4178,16.3866,-10.0947,-6.7297,-5.5809,-8.8732,-10.432,-7.4896,-14.6817,
6.3757,10.3917,6.2003,-11.2012,11.3245,3.3332,14.6803,-3.4632,-0.30017,-3.0767,-5.6895,-7.6372,-6.3171,-13.5596,
2.1365,12.6603,8.2384,-9.5653,5.3424,3.6152,13.3175,-2.2916,-4.139,-2.4102,-3.9019,-5.7327,-5.4561,-11.7821,
3.9363,8.5262,2.4412,-17.6685,5.9855,5.3262,17.3389,-8.903,-13.5319,-9.4966,-10.4169,-9.7273,-9.9492,-14.9318,
9.003,9.4609,-2.0434,-15.644,17.6776,5.4891,22.083,-6.4404,-16.0942,-8.9266,-13.648,-12.5178,-10.7983,-15.482,
6.5344,6.9648,-4.8133,-12.2953,15.6531,1.785,15.9377,-6.0542,-16.5748,-4.5348,-10.419,-13.6954,-9.6685,-11.1786,
4.9372,7.2703,-0.42668,-13.2448,10.6166,2.4013,14.2581,-4.4856,-12.4468,-4.0215,-5.6961,-12.1503,-8.365,-8.8206,
5.1234,13.5828,4.4192,-11.9677,16.2461,13.8266,17.2595,-3.2522,-12.6639,-9.5648,-10.175,-17.6878,-10.7556,-13.594,
4.0926,13.0088,4.395,-10.5267,24.6713,18.5404,18.875,-5.7086,-11.1811,-13.5705,-9.8055,-22.1702,-9.8693,-12.5374,
-1.4553,6.4436,-0.68896,-8.9308,18.8527,5.3769,14.368,-11.1504,-12.9204,-16.6126,-7.7709,-21.8043,-9.7591,-12.7491,
2.0062,9.4315,0.31624,-10.3234,15.7934,7.9466,13.9883,-8.5532,-15.0377,-13.2055,-6.8227,-14.2291,-5.3172,-15.3586,
5.2603,9.3475,-2.1126,-15.0066,16.2918,15.6645,12.1849,-7.0759,-10.2788,-6.1464,-9.3056,-8.0729,-7.4085,-11.5448,
6.1497,12.884,-3.6733,-5.6703,17.9656,15.4475,15.551,0.82021,1.1839,6.5144,-5.614,-1.0808,-10.0972,3.2479,
-1.6911,10.9059,-9.4785,-9.9096,15.6824,11.8696,14.3769,2.4585,-0.57432,8.7749,-6.0001,-1.7393,-8.7685,2.9326,
-5.6869,5.6721,-10.597,-13.8946,13.0542,15.7369,10.8632,-3.7148,-1.7452,4.633,-6.3634,-2.8398,-7.519,-9.5359,
-0.52547,5.8137,-4.6585,-9.2045,9.8608,16.7206,12.6216,-4.9382,2.2159,4.8369,-5.0173,2.1508,-8.0322,-6.0712,
0.47015,4.0188,0.44147,-10.0985,6.3769,11.861,11.3821,-4.16,0.63696,6.9571,-5.6804,-0.38857,-6.5862,2.4875,
-0.28119,3.5365,5.4764,-8.7695,10.5738,8.9802,10.9399,-2.2231,-0.12439,2.9242,-4.1345,-5.9086,-7.3961,-4.6514,
5.2798,6.9402,8.2813,-4.1455,21.75,13.0211,18.7201,2.0081,6.8729,-1.3484,1.1753,-2.9026,-7.1933,-8.9516,
5.4447,8.4517,8.7485,-2.9329,20.4447,16.096,16.6324,-3.4153,4.0502,0.17857,-0.82368,-4.1749,-9.654,-5.5222,
2.9488,12.042,10.8747,2.3048,18.0128,19.2278,12.9833,0.40503,4.0482,11.0139,-1.0152,-8.5037,-8.8338,-0.12919,
1.3256,12.2836,2.9914,-1.6901,15.0038,17.1098,14.6145,8.5757,5.2515,10.835,-0.95431,-11.3679,-8.3037,-2.532,
4.3794,11.7875,-4.178,-4.24,14.8265,14.396,20.727,5.892,1.321,6.0875,-1.138,-4.6603,-7.5645,-5.0312,
7.2501,7.4648,-1.2757,-4.7088,21.8911,18.112,22.6169,-0.48733,-2.3737,5.4813,-2.275,-0.28333,-5.9054,-5.9346,
8.5025,12.0789,3.3803,-3.7029,29.4955,31.1253,16.6808,4.1217,-1.99,7.8038,-5.2718,-2.9172,-6.2742,-6.7831,
7.9922,15.2101,0.76739,-4.927,25.7975,35.1628,11.3412,8.6946,-5.727,4.443,-8.8119,-3.2246,-10.7185,-6.8585,
7.9948,11.8876,3.6136,-1.7391,23.2856,24.8581,17.8918,9.137,-10.6858,-4.0183,-2.0164,0.34314,-8.6289,0.78358,
3.6585,9.2459,4.8426,3.6679,24.2986,18.5464,19.2284,5.2144,-8.5989,-10.0439,0.032768,-5.462,-5.2191,-2.1555,
-1.1405,8.4502,1.9007,-4.5061,21.6356,26.3514,14.941,-0.64189,-1.0933,-0.52345,-4.0668,-5.3755,-6.5934,-9.9801,
-2.2769,5.774,-2.7926,-8.3331,15.7582,28.8677,11.8758,0.60192,-2.7145,3.1236,-5.9919,0.009165,-11.7409,-7.6941,
-0.93549,2.7762,-3.8301,-0.84347,19.3917,22.5561,15.2604,6.5911,-8.0954,-4.0537,-4.9093,-5.5352,-11.7596,-4.0992,
2.9773,2.6097,-4.5642,0.17146,28.8335,20.7208,20.1293,7.16,-5.1991,1.0103,-4.1328,-7.1313,-6.2333,-4.8171,
4.2446,7.2738,-7.6648,-0.32122,28.5498,20.9238,19.8859,4.8022,-5.3696,9.6263,-5.3311,-0.91885,-7.3056,-5.9743,
5.6772,7.5603,-6.482,2.8315,23.7033,18.4631,17.4875,5.237,-4.8064,3.9872,-3.8059,0.82351,-9.0369,-4.893,
9.193,7.5886,-2.2367,7.9643,24.2093,11.5708,16.4382,8.2972,1.2665,1.8198,2.207,3.6662,-4.1559,-0.26063,
7.6775,9.0617,0.30788,6.5223,26.6134,10.3943,15.4521,10.6917,-1.2194,7.4954,2.5567,8.2671,-2.9424,1.201,
3.6014,6.8308,1.4947,-1.8227,25.7395,13.3861,13.8017,6.9167,-8.618,0.055842,-1.2121,0.2993,-7.3452,-2.4864,
6.5184,6.1797,1.1638,5.7582,24.4363,9.4497,13.6967,3.3684,-4.9677,-11.7579,2.4758,-9.1189,-3.2893,-1.1322,
6.1275,3.3988,-5.6547,5.8949,23.4523,9.3649,15.7672,-0.20815,-3.2236,-12.4984,2.8095,-10.4997,-2.1278,-1.5464,
6.7237,0.78452,-3.8696,-0.72579,30.2398,11.695,22.5339,0.2865,-3.9945,-3.0716,-0.73357,-10.3521,-5.3746,-4.3457,
14.5155,6.0401,6.4862,8.959,39.9948,2.7989,26.9667,5.5722,-0.86207,5.3076,3.1671,-2.018,-0.23163,-1.1927,
15.0906,9.5343,5.1327,7.9395,34.7026,-1.2259,24.8668,6.2017,-5.1491,1.6147,0.56691,2.4414,0.2642,-1.1211,
12.2567,19.0851,3.3784,3.6067,24.9077,12.9476,20.9642,7.7578,-9.1785,-0.41039,-6.6979,-4.9359,-6.5001,-4.4283,
16.824,26.6169,2.2116,6.7645,19.5566,26.2708,14.4039,8.2564,-8.1456,-0.86793,-7.2602,-14.2805,-10.4486,-6.573,
21.3581,27.1891,-0.57215,6.1177,18.6247,25.6586,9.9242,7.5201,-8.3802,-6.8414,-5.1373,-10.7726,-9.5808,-7.3834,
22.487,30.8606,2.8364,6.7147,18.4713,26.0475,12.2211,8.9968,-7.8772,-7.395,-5.3113,-7.2339,-11.8982,-6.9406,
15.5942,26.3574,2.9072,4.6246,9.4088,23.7613,13.657,6.7698,-5.7173,0.52049,-5.2335,-10.4153,-13.3535,-7.2471,
1.1609,16.581,-6.426,1.9368,-0.79647,14.1407,8.0171,5.3995,-7.3027,0.0070978,-4.4378,-6.4162,-11.1062,-5.8482,
6.1527,20.1654,-1.9431,2.5435,8.1689,13.5332,11.6334,11.1011,-9.0337,-6.0189,-4.8945,-2.8977,-7.7888,-3.3281,
17.5939,22.0892,9.9834,0.22195,20.9354,11.9981,20.3352,12.1225,-4.8765,-7.345,-4.3601,-9.7135,-4.6701,-6.2622,
13.1641,18.3535,8.9026,5.511,17.2689,6.4582,17.1871,11.3949,0.71896,-5.9402,-1.2057,-11.541,-1.4976,-7.3325,
8.7588,17.0113,0.41475,6.3857,13.5817,4.8654,10.6123,11.4346,-1.0114,-1.9683,-2.8206,-4.8226,-3.0945,-5.6872,
17.1511,19.6061,4.0053,4.7972,19.7562,9.6352,16.4835,11.4714,-6.9763,6.1035,-6.2668,1.4919,-7.9705,-5.5869,
15.6401,17.9478,9.0676,4.0275,22.9096,9.0571,14.5301,11.7474,-8.4859,7.6657,-4.9264,0.92088,-7.0104,-2.8416,
5.7839,12.7733,3.4616,0.17064,19.3656,3.9341,0.8841,6.945,-6.2897,6.0005,-3.9082,-3.232,-2.0102,-2.4299,
6.8829,17.7913,1.8079,6.9091,17.7215,1.7696,1.3132,7.4924,-2.0557,10.4609,-7.0479,-4.4845,-4.7819,-1.802,
3.3366,12.1445,-0.46972,5.7712,11.597,-4.3621,0.99345,8.2482,-1.2095,9.1104,-11.2043,-2.0458,-13.895,-0.489,
2.4133,5.3903,-4.057,3.2557,10.6598,-4.8233,-4.1278,4.6198,-1.8598,2.538,-2.0964,-2.1645,-14.2664,1.2276,
4.4377,7.7182,-7.4287,4.7479,15.0821,-2.8469,-6.0496,-1.6832,-1.0251,-5.568,2.6089,-7.578,-8.8309,-3.9075,
5.3767,9.9064,-4.8136,7.1143,19.2386,-3.3987,-1.589,6.8542,4.5798,-3.5467,1.7292,0.34869,-4.6856,-2.95,
4.8129,1.8402,-4.7662,3.554,13.0226,-6.8107,-6.5553,11.0222,-1.2386,-5.0212,-5.3644,0.56874,-13.8045,-2.0501,
13.2012,0.76574,-3.9981,-0.99783,13.2058,-4.4736,-6.6437,8.4325,-1.646,-3.7556,-4.078,-2.8396,-12.9762,-0.48057,
21.327,9.1555,-2.071,2.6775,23.2593,-8.3026,-3.1121,9.6137,3.032,-2.8073,-2.6285,-6.2851,-6.1721,-3.5852,
34.1474,17.5244,5.0429,10.4708,35.9637,-14.3121,2.1366,8.7962,0.1988,-5.2902,-2.7115,-9.0413,-3.6324,-6.0214,
46.1985,24.6677,11.9712,7.9143,47.4237,-7.669,3.4542,7.3041,-5.5977,-6.901,-0.62106,-8.4988,-7.271,-1.8038,
57.5266,35.4799,10.0479,6.2344,40.9631,6.8911,-4.2247,12.4092,-7.9132,-11.0664,-3.7171,-9.6759,-13.3422,-2.4187,
68.175,40.8229,6.7934,3.6907,30.5516,11.66,-14.3355,9.9779,-12.5001,-22.2126,-11.4478,-16.5671,-21.9419,-11.6735,
78.1845,52.1121,14.8217,3.2286,39.5645,9.273,-11.306,11.5482,-16.8115,-21.603,-12.4479,-19.6707,-23.7587,-15.0707,
87.5934,63.0854,17.3069,9.3014,50.688,2.4501,-4.3611,20.4962,-17.2491,-6.8094,-14.1116,-12.2239,-22.3332,-15.1303,
96.4378,61.3489,12.6528,7.5382,38.2465,3.5081,-7.2327,23.364,-15.9729,-7.124,-16.3982,-10.2854,-26.5368,-11.5712,
104.7516,52.6063,10.2069,1.0604,22.6958,9.3232,-11.86,16.4186,-18.63,-20.7966,-19.0292,-22.9242,-30.006,-12.5641,
112.5665,58.3678,12.7277,2.6837,30.2519,7.0768,-1.2667,22.905,-15.8252,-22.3206,-16.2007,-20.3437,-21.216,-16.8717,
116.779,64.2657,9.3125,6.1381,36.3905,3.0368,3.3886,28.5206,-10.7783,-11.5813,-15.4699,-13.0975,-18.2561,-18.0291,
100.8547,56.7943,-4.5026,3.1188,25.7709,5.5057,-10.9147,17.8913,-16.1572,-23.1787,-21.5313,-26.4117,-29.9349,-25.8652,
85.4036,50.7358,-4.9551,-1.166,20.61,9.2729,-14.9596,18.9877,-15.9104,-25.4032,-16.6238,-29.0448,-29.8256,-27.9282,
81.0021,52.2707,3.2957,3.4835,11.9013,4.137,-9.9644,27.2482,-10.3767,-13.5152,-8.6367,-13.2021,-23.9389,-17.3349,
80.7215,51.7858,-2.4454,2.5514,5.1615,6.5401,-19.2487,25.854,-11.4411,-11.017,-9.8057,-13.0126,-25.1539,-13.1613,
76.8425,53.0174,-8.0833,0.47011,13.0469,20.2477,-16.1656,26.7134,-8.8265,-8.4276,-7.7711,-16.0883,-23.1625,-16.71,
64.0368,49.8364,-9.5265,1.8882,5.9972,33.1329,-16.6419,29.4489,-9.7431,-9.8503,-9.2331,-12.2307,-27.5574,-19.564,
67.9073,50.7021,-1.2421,4.185,2.2629,41.0268,-18.0535,39.7331,-5.7843,-7.8133,-2.8947,-5.7125,-23.9759,-10.1954,
63.5922,50.7937,0.037459,4.657,4.2965,24.4652,-17.6935,40.0009,-5.1958,-2.2826,0.8946,-9.4669,-17.4755,-11.2705,
53.5097,46.7818,-0.92912,5.8239,12.7153,8.8973,-18.0781,31.8158,-3.4383,3.1566,0.84069,-5.5246,-11.6067,-10.1125,
52.2275,41.5645,3.9471,5.4742,10.9883,18.0044,-16.9932,30.389,-2.7498,-1.8533,-3.0661,-4.2291,-12.8385,-4.6853,
47.4066,38.8301,3.9517,6.351,-3.771,12.8268,-17.1789,34.5912,-10.5386,-8.2496,-8.9075,-11.4469,-20.986,-9.4654,
40.9469,40.1154,-0.86502,8.1393,2.3607,9.4062,-18.3174,40.4696,-6.7729,3.0915,-0.41941,-5.6987,-16.1116,-5.2824,
34.1514,37.2267,-5.1518,10.0611,16.319,13.1798,-27.8236,36.5953,1.3461,7.7264,4.9083,-2.4644,-9.8423,-0.62703,
34.0304,34.9929,2.8704,8.9754,7.0245,14.7995,-29.5283,26.6867,1.7474,1.4783,-0.20658,-7.1371,-11.662,-5.4098,
37.5325,35.5447,7.7597,7.2318,-2.3148,18.0091,-24.1414,29.665,2.8476,6.933,0.52872,3.6552,-8.7931,-0.98784,
26.8447,29.7965,-5.9624,7.0388,-9.6479,7.0465,-35.4672,28.1264,-4.7949,4.8299,-0.70796,4.641,-17.6654,-2.6157,
27.4032,30.6598,-1.5073,10.2319,-6.8998,0.11579,-29.7238,23.7872,-4.2662,-0.52131,4.396,-4.5555,-18.2927,-8.4845,
31.0614,29.3024,3.8855,6.7257,1.7091,4.9293,-22.6379,23.3241,-1.118,-6.7568,7.0245,-8.6207,-8.0364,-8.9395,
17.8695,19.5905,-6.7115,4.6349,-2.4908,2.9463,-35.3797,22.6476,-2.256,-10.4487,8.2903,-7.8623,-9.2412,-5.2697,
6.1925,16.0049,-7.2726,4.3568,-13.4286,-5.4251,-47.3569,22.253,-1.6384,-7.4114,7.7928,-6.9084,-15.9173,-5.9176,
9.4363,22.0344,0.15348,7.7107,-13.3459,3.3364,-44.7563,23.0869,-1.7812,-1.4233,3.71,-6.253,-12.3111,-5.3215,
13.6904,22.1581,1.5901,5.802,-4.8323,17.2362,-36.7683,24.5942,-2.6384,0.59033,4.9334,-2.5034,-4.8237,1.2643,
8.5307,14.5622,-0.43341,3.0437,-5.5066,8.8506,-45.1674,21.6724,-0.55183,6.3396,7.0476,3.4315,-8.3908,-0.25767,
-1.8634,5.7344,-5.469,1.6559,-16.5043,-5.7804,-48.9652,13.8642,5.9889,7.1642,1.0813,-1.8359,-11.9848,-6.7498,
1.8638,4.6674,-9.7201,-0.61264,-11.8986,2.8819,-35.6629,11.3452,7.7987,-2.6657,3.6677,-7.7516,-5.24,-0.8012,
4.4033,8.9669,-9.3781,3.5215,-1.7849,8.2524,-33.7643,13.3158,-6.7692,-6.1209,5.6168,-7.0453,-9.0229,-1.4763,
-3.8145,11.562,-5.1999,4.9973,-2.883,4.6239,-34.8719,14.6861,-10.0989,3.1643,3.5927,-0.11496,-13.0612,-5.4852,
-6.9604,10.8684,-11.1548,0.84118,-9.4584,7.2391,-28.923,5.1279,2.5583,-0.88207,7.2334,2.7841,-6.4928,1.5927,
-7.7476,10.4573,-19.8855,0.067584,-9.1318,10.9021,-28.3927,5.0617,-1.2106,-14.9291,7.5225,-3.8904,-5.8623,0.77406,
-8.0058,13.4452,-13.1488,2.2328,-6.8968,10.9707,-25.4842,18.858,-3.7892,-11.0205,4.9019,-6.7904,-8.6439,-7.2262,
-15.7203,4.926,-12.3596,3.545,-20.583,-3.7875,-24.9191,9.6518,3.6689,-4.5746,2.6797,-11.6855,-9.0893,-12.0952,
-14.7774,-2.1183,-16.4388,3.3322,-24.5304,-15.4909,-31.1369,-2.4963,7.3052,-3.3361,6.8574,-8.0922,-5.1696,-2.6927,
-3.2855,4.7572,-9.6677,1.204,-8.9586,-0.46141,-29.2687,3.438,-4.7025,-6.5104,4.5177,-5.1963,-3.4134,0.36135,
5.3478,11.4617,2.2406,3.7831,5.6789,12.7022,-18.1125,4.437,-10.4459,-12.6273,1.5953,-7.5358,-5.3777,-4.7218,
-2.204,7.8818,0.65976,3.0741,0.035887,-0.5931,-23.7746,2.2425,-6.9269,-9.9416,1.9817,4.0034,-7.4653,-1.5463,
-12.6767,6.4449,-7.0923,3.3717,-12.9818,-6.3422,-31.5068,1.144,-7.4753,-3.0784,0.41663,8.5838,-6.5353,4.3312,
-11.6755,3.8887,-12.6926,0.51818,-8.1054,-2.3464,-23.591,-5.4325,0.44491,-2.6526,4.0069,-4.7055,-6.3843,3.8302,
-11.6981,-3.8162,-16.0284,-4.0924,-13.1625,-7.267,-20.4883,-9.2041,7.89,-4.1807,8.346,-10.9309,-9.6167,-5.3177,
-15.3346,-5.9979,-11.2104,-0.47254,-19.1218,-12.6157,-23.5974,-8.17,2.1141,-4.8941,4.4709,-5.4547,-6.6294,-9.337,
-8.3888,-1.0581,-2.5836,2.2071,-7.128,-1.0125,-14.2276,-4.0642,-4.0383,-6.2874,1.5514,0.41643,-0.20587,-0.34068,
-1.619,3.3437,-5.803,3.0388,6.3147,7.7249,-9.0356,3.4105,-4.7601,-7.3564,0.49418,2.3194,-8.8706,1.1258,
-3.4498,2.6609,-10.7577,3.3384,5.936,2.9233,-15.2422,8.0263,-3.9926,-4.5047,-0.017406,5.5547,-10.7485,-0.38801,
-4.93,-2.5604,-6.9788,-0.47709,2.4464,0.57851,-12.6404,-0.89137,-7.8504,-12.6703,3.5988,-0.80413,1.7068,2.7688,
-7.5265,-4.3347,-7.0422,-0.93062,1.8174,-3.7947,-6.5796,-6.6222,-11.7179,-23.4795,3.8651,-6.5407,0.64002,0.6742,
-16.957,-5.762,-9.2709,0.33039,-6.245,-14.8951,-11.2461,-3.0915,-5.4711,-7.9707,5.3203,2.2878,-4.4597,-1.5353,
-30.0395,-15.2983,-12.3299,0.069485,-19.9703,-16.1707,-18.5254,-9.4141,2.811,3.9564,7.1703,-0.018775,-5.3973,0.24394,
-27.8757,-20.1647,-16.8927,-4.2731,-16.4824,-10.3799,-15.9675,-18.4899,5.0526,-4.9579,6.2581,-12.5508,-6.5196,1.1935,
-15.1158,-13.6525,-11.5407,-5.9448,-4.4062,-10.7213,-7.7788,-16.4165,9.0879,-4.6604,8.2928,-9.3875,-1.79,-0.32424,
-13.4861,-6.8079,-5.7869,0.43731,-13.06,-12.2473,-6.589,-10.8523,3.963,3.091,4.1799,-1.8347,0.48644,-4.8844,
-9.7845,-3.989,-4.4755,1.3753,-14.6866,-0.42511,-2.8193,-2.4881,-3.9875,-0.46884,0.072647,-0.76043,-2.4349,0.22924,
-9.4384,-3.9906,-6.8583,-1.3586,-11.1543,4.1797,-3.3733,-0.65156,1.3132,-5.9843,2.7196,-0.47383,-7.3503,7.6873,
-10.5592,-2.5462,-6.2057,0.41007,-9.2797,-1.6146,-1.4838,-5.674,2.9216,-5.8663,0.86932,-1.6506,-6.6684,2.6464,
-2.6947,0.49921,1.3976,3.2779,3.8103,1.3747,12.7052,-6.2978,-4.0023,-10.3347,-2.0752,-4.9257,-0.96554,0.077628,
-4.4615,-0.49484,-0.61468,3.0812,5.992,0.32811,18.5712,-7.8479,-10.0287,-14.0532,-1.9507,-4.6301,-0.42567,2.4831,
-14.558,-6.0091,-9.4958,0.24512,2.4991,-6.1994,11.4313,-13.4029,-5.8116,-2.3639,0.81753,6.0117,-1.1231,7.3957,
-20.915,-15.2896,-15.1926,-2.1798,1.3852,-11.13,8.3352,-18.3834,-4.0168,0.18821,3.6609,1.3125,0.39039,7.9159,
-19.1781,-16.7823,-10.4246,-1.0851,1.3022,-11.9083,17.4761,-19.2085,1.0448,-7.0538,10.6722,-12.2637,9.0439,3.1025,
-16.0991,-13.847,-5.4607,-2.4661,3.1519,-12.1578,27.0327,-21.9123,11.5871,4.4565,14.8522,-3.333,13.8038,2.4343,
-18.0254,-16.8728,-7.5432,-0.38994,-4.7498,-11.9105,18.6621,-24.9361,8.9636,17.6867,9.6228,9.4004,0.92429,6.6268,
-18.1494,-20.44,-6.8496,1.3207,-9.5267,-11.919,13.927,-16.9322,3.3644,9.1537,6.876,1.3646,-5.6389,2.1319,
-5.7321,-14.1518,3.9254,0.51842,5.1449,-10.4808,26.3476,-14.2289,2.4393,2.5788,5.2583,-5.2251,2.6533,-4.986,
-0.32664,-10.1698,8.7514,0.72817,17.249,-1.416,32.2387,-21.3291,-5.6609,2.183,-3.493,-4.1886,2.253,-2.9995,
-8.0198,-15.8261,7.262,2.6127,2.1141,1.0791,26.448,-20.5317,-6.2854,5.9084,-4.2475,-1.045,-0.77444,4.8932,
-10.6721,-13.6712,10.4417,6.0713,-5.3639,-7.9035,22.2098,-12.3099,-0.36464,9.1693,2.0329,6.9717,0.47732,8.215,
-5.9341,-10.2,12.9486,1.6096,4.8402,-5.7421,26.9028,-13.2587,-7.3325,4.0395,0.22378,8.2405,-4.131,4.1066,
-4.1319,-12.9621,9.7614,-5.7177,2.6215,7.6179,31.5553,-22.1038,-19.9079,-7.2899,-10.8768,-6.3539,-12.0779,-3.3705,
-3.884,-13.6306,7.2475,-3.4465,-0.91023,3.7864,27.7338,-22.7062,-18.7134,-16.9757,-13.5986,-16.9393,-9.9072,-3.6505,
-3.6512,-16.187,10.6693,-1.3115,5.4111,-10.5408,30.8902,-16.5229,-4.5752,-10.1725,1.1968,-6.7639,3.2207,2.3534,
-9.9396,-23.6519,11.7164,-4.366,-2.8673,-15.3315,28.3137,-21.5573,-0.68525,1.7662,4.2583,-5.153,2.7865,-1.8852,
-4.282,-16.2068,15.1107,-2.899,2.366,-0.31159,20.5893,-21.4691,4.4173,15.3986,2.7977,2.1458,0.93208,5.6995,
5.3749,-9.6912,13.4807,-4.8942,11.624,12.1199,15.2564,-18.4938,8.7318,20.9824,4.799,9.9708,4.0094,13.3115,
5.0524,-11.038,14.1181,-1.7083,9.9627,-2.7073,23.982,-14.974,6.2797,24.0617,1.6188,9.3728,8.1072,7.6923,
1.3751,-15.1962,18.0915,-0.6417,10.329,-6.7627,36.6431,-13.5932,3.0106,24.5465,-0.8887,9.2923,9.5489,4.8204,
-2.3226,-21.756,8.0882,-3.2545,14.7708,-3.7056,39.8678,-18.3214,-1.7495,12.7096,-3.0045,0.78106,6.8071,0.91579,
2.3961,-20.2095,5.9158,0.074122,27.6229,-6.6167,33.86,-12.1604,-5.2601,7.8495,-2.1013,0.97528,13.3882,3.5123,
1.7701,-17.551,15.2019,-2.8225,28.8577,-3.3275,29.4184,-9.5029,-8.801,6.8963,-3.9035,5.7371,11.6207,7.1578,
-5.0846,-17.9442,16.218,-1.6893,18.4496,6.5131,33.4379,-17.6094,-4.8985,2.1442,-5.5975,1.0543,5.1388,2.3898,
-7.1897,-25.0624,7.532,-3.0341,19.7527,5.1584,33.8421,-15.1066,-3.1582,-3.7689,-5.2615,-8.1678,9.6511,-0.1636,
-4.3483,-26.4508,7.08,1.0045,32.6675,-7.2023,30.3652,-0.70301,-2.0047,0.31348,-0.60738,-3.3393,18.231,8.041,
-11.318,-28.7199,7.1374,1.4264,34.9256,-17.3753,31.4355,-6.9276,2.4541,5.1152,0.39316,1.1996,18.1014,3.7022,
-17.1468,-33.9865,7.4321,-5.649,22.9478,-8.8611,32.2006,-15.4296,13.6349,11.798,3.5029,4.7431,21.5948,-1.5815,
-20.4565,-39.1784,4.5759,-7.2382,16.7505,-10.2576,24.4842,-14.5039,13.7809,14.9465,2.3287,7.3508,18.8528,2.3698,
-19.4701,-39.4788,7.9167,-2.2246,18.397,-23.7421,23.7381,-11.4645,11.749,22.0037,2.9121,6.1867,16.5166,7.289,
-23.3634,-40.2433,8.1649,0.56016,15.6057,-36.4176,16.288,-11.0176,7.4287,20.9244,1.5323,0.27185,19.141,-0.13795,
-21.7205,-38.552,9.3623,0.76763,6.7158,-20.1326,9.2853,-5.2949,4.8139,21.3563,1.1993,10.6198,21.1259,1.5574,
-17.525,-39.6131,15.0669,-4.5811,4.8663,-7.476,18.8513,-5.9413,2.1145,23.9311,-3.6934,19.6235,14.0735,7.2486,
-12.6168,-32.8977,22.8402,0.032338,18.6743,-16.6684,26.879,-4.6208,1.5057,22.9774,-1.0614,14.1076,16.1217,9.7059,
-17.1627,-31.4063,18.5775,-2.8619,20.3257,-19.5247,11.1663,-0.9693,2.8616,13.4038,5.269,1.6917,21.4209,5.2672,
-30.2329,-34.3422,5.8933,-4.6185,5.0061,-23.1736,-3.6037,-0.42909,8.9565,2.4766,5.4349,-5.6405,17.2434,-0.83352,
-41.0726,-34.4509,1.4426,3.6126,-3.1274,-24.4345,-8.69,3.6942,12.5165,-0.80529,5.8319,0.24154,18.378,2.35,
-35.2341,-30.9377,5.2123,0.50343,9.5936,-8.8684,-7.2044,9.257,11.7656,2.6174,11.2665,9.8681,25.4701,11.8501,
-34.0841,-27.6353,1.5252,0.47334,9.5001,-0.26188,-7.2542,8.2196,17.8085,13.0655,14.9292,9.2762,22.9779,12.103,
-46.139,-31.7618,-5.7972,5.7475,-5.1699,-14.3462,-12.6036,11.5829,25.4167,26.3816,14.9974,12.5759,15.3326,11.377,
-56.5067,-37.8099,-10.993,-0.14099,-18.9597,-27.5854,-18.3551,19.806,17.8662,37.9345,9.0361,18.329,14.6536,10.9353,
-56.2494,-37.7106,-16.841,-7.1223,-3.7221,-11.8303,-18.4587,18.3763,9.3225,35.8995,6.3247,16.0243,17.3897,10.0381,
-56.7311,-40.2684,-16.7947,-9.1053,4.3344,-25.2205,-18.3155,13.4176,11.1733,35.6737,5.463,16.0267,11.5259,7.5076,
-55.9784,-41.9498,-9.2792,-3.4974,3.3511,-37.8072,-17.9396,15.7457,7.8517,36.1845,1.038,19.1626,3.8446,5.852,
-59.8506,-44.7354,-8.2405,-0.87722,5.5604,-43.1312,-12.5249,17.2113,5.4522,21.4802,4.3499,12.2283,8.9165,10.8035,
-59.8746,-46.6307,-7.9869,2.3088,9.8067,-27.769,-5.7475,20.2761,18.3815,10.3093,18.1889,5.4689,22.4815,18.5913,
-64.4772,-47.2072,-10.4001,1.206,3.9153,-32.8516,-11.6695,21.9517,19.6889,5.3523,16.254,6.105,27.5196,12.6553,
-62.0547,-38.1081,-10.2581,-1.7585,7.0547,-28.9522,-9.0411,26.4191,19.4718,4.067,13.8326,17.7899,19.1199,9.0035,
-65.0802,-36.7859,-14.9452,-2.6172,2.7751,-21.4304,-10.4269,24.3521,19.2674,-3.8899,12.5206,15.2764,13.6343,9.4275,
-72.2624,-43.7375,-15.4947,-1.978,-8.4786,-30.7499,-19.9242,27.2293,18.5935,4.0565,5.0207,8.5752,13.2982,8.3797,
-73.7115,-48.8263,-15.5291,-3.7875,-21.4672,-43.0049,-23.5495,32.3444,11.2112,17.9131,-2.5114,13.3631,11.0542,6.4309,
-75.3143,-50.9581,-20.141,-6.2116,-29.5794,-42.4733,-25.2697,25.3423,-1.2718,25.6356,-6.4581,18.5871,2.9192,5.8039,
-76.8211,-49.5878,-21.1018,-7.0441,-15.512,-36.7915,-26.8869,20.2065,3.3841,21.9282,-1.4912,14.3385,4.4311,6.1789,
-77.7553,-51.1919,-22.4869,-5.4162,-13.3761,-39.1634,-24.0685,23.0913,9.6889,26.6382,2.2138,7.4525,8.7449,2.6748,
-70.4387,-49.3257,-22.8249,-0.99392,-23.4201,-31.2702,-17.0808,26.2854,6.456,23.3527,0.39377,12.067,9.9072,4.2015,
-68.1407,-39.6174,-20.9734,2.9222,-20.0865,-21.199,-23.2867,29.0467,7.5148,15.6849,2.2982,17.6097,10.277,10.698,
-70.0778,-34.589,-19.9559,2.9879,-14.7838,-26.4347,-32.2536,27.0627,9.2333,15.4669,5.2938,11.0095,8.4553,6.4409,
-62.7398,-38.5393,-15.6252,-2.7349,-26.1891,-21.7153,-18.5081,23.2699,9.4023,15.2619,8.5915,12.036,11.0814,7.2596,
-67.6524,-38.6372,-16.1339,1.2854,-36.1871,-12.2175,-17.8797,26.6943,15.587,5.6692,11.4503,19.5087,15.7188,20.9241,
-72.5113,-34.6317,-23.1198,9.1623,-27.026,-20.8845,-30.9069,35.4565,24.5337,3.6421,14.8609,17.6152,17.9091,23.6454,
-61.4118,-34.0002,-27.0351,6.6842,-28.7788,-25.4161,-33.5116,33.3292,24.0259,11.6184,15.8973,20.8965,16.3525,11.1395,
-60.6194,-35.3344,-34.0899,0.49861,-41.152,-19.0707,-32.4648,18.796,14.8715,16.7058,7.7127,26.8736,4.7661,10.4712,
-71.0822,-45.5069,-43.3727,-8.9313,-46.5162,-32.0264,-44.6169,11.1605,12.774,25.1035,2.1884,18.2715,-6.3659,12.494,
-80.9173,-50.4892,-36.432,-7.4313,-47.5818,-44.2048,-43.9888,14.8294,16.3461,31.792,7.8417,10.4263,-2.6097,6.4419,
-69.7955,-40.229,-26.5331,-3.1291,-46.1729,-36.7318,-29.2982,12.4936,5.7243,18.3155,4.4789,11.247,1.8854,2.199,
-54.2798,-27.9331,-26.1464,-1.2541,-29.664,-20.4279,-17.1762,19.698,1.7655,14.0831,3.4871,19.0081,4.9055,13.3953,
-61.628,-36.3802,-35.6647,-4.0713,-37.5252,-20.046,-19.5199,22.3724,3.1057,16.1305,4.242,10.1549,-0.20916,6.8069,
-55.0381,-36.6078,-28.2223,-2.8628,-38.6483,-25.1098,-7.7436,21.0299,12.0783,17.0908,11.2182,6.1711,9.4442,1.0959,
-44.746,-29.8318,-25.8058,-1.4859,-22.2294,-22.3982,-6.0739,13.2604,15.9331,11.968,10.7861,2.6676,13.4573,0.7892,
-53.3895,-29.729,-29.3191,-0.1916,-22.9442,-26.1159,-19.8095,13.1878,15.2182,10.0447,8.9338,-0.1437,6.1421,-1.4274,
-52.5963,-29.3913,-22.7394,-3.5546,-35.0649,-24.0668,-14.4029,18.6635,22.0179,16.1907,15.1467,12.8803,8.1839,2.0327,
-40.7636,-25.6997,-24.7493,-5.7514,-32.961,-15.3919,0.56124,12.7232,19.7327,16.6655,14.2379,17.8921,6.7288,4.3208,
-44.1024,-30.9063,-35.7976,-4.4422,-32.9115,-24.1096,7.1558,5.2111,13.2463,12.2912,10.9732,6.6954,2.4687,4.0616,
-51.3385,-35.0779,-33.891,-4.4168,-37.4447,-35.9195,1.1829,5.1391,17.995,12.7589,13.4482,6.0526,4.4896,3.0949,
-44.8835,-27.1884,-22.6983,-3.1877,-32.3057,-27.4974,6.4146,11.5799,20.2898,13.9215,13.1235,11.9562,4.7024,1.9451,
-36.6471,-17.6033,-19.1673,-4.2015,-25.7878,-18.376,13.5015,14.9824,13.0466,12.3631,10.6488,6.1774,2.733,3.0334,
-32.2789,-13.8958,-20.6685,-0.81613,-26.4097,-23.7809,9.5582,13.8423,8.1665,9.9343,7.3586,1.2272,5.7025,-0.28182,
-26.4859,-12.0979,-9.7874,1.6431,-24.3431,-11.7491,7.5383,14.9401,13.9431,13.1945,7.8813,11.7588,10.1807,-2.6751,
-26.584,-8.7209,-3.6565,-0.14273,-19.2671,-0.68003,14.0759,13.8025,12.8656,14.0901,10.0595,14.6684,8.8468,-0.82741,
-36.5581,-9.6439,-17.5371,-0.6161,-24.86,-14.7392,19.0157,4.7794,3.8985,7.4599,3.6713,1.737,0.12101,-0.29584,
-36.5338,-12.1983,-19.4977,-2.2664,-26.5016,-19.2778,21.0082,1.3596,9.6903,11.592,5.6205,-0.53614,1.8012,1.4091,
-27.1109,-6.6459,-4.8304,1.726,-22.0192,-10.8905,17.3376,5.1344,13.4475,15.2348,9.6216,4.3165,4.1033,-2.5318,
-18.4947,-1.6678,-2.8535,3.3096,-23.8315,-11.4422,19.9127,5.5491,9.5072,9.2592,6.3931,5.7446,0.24176,-4.067,
-18.8312,-9.2806,-12.3234,-5.0838,-25.7759,-7.8633,22.0922,-2.9786,5.0803,1.9551,1.671,0.57936,-0.73696,-1.8949,
-16.0141,-7.0365,-8.9326,-4.0557,-11.4549,-2.812,19.0795,-8.3435,3.0883,2.5607,4.704,-2.5887,0.99449,-0.093979,
-4.2072,1.8216,3.4134,1.7313,2.9707,-4.8127,14.8012,-1.8174,3.6261,9.8788,7.555,4.0741,5.5141,-1.7756,
0.62485,-1.4211,1.5215,2.8326,-5.6433,-0.90837,7.8877,-0.50292,2.2033,10.0093,4.9325,9.8554,11.6911,-2.8742,
1.0693,-4.71,-5.3184,-0.71183,-13.4997,9.269,5.9682,-10.5957,3.0355,2.6599,2.7083,9.7462,10.5077,0.67269,
8.7181,2.3212,3.1956,-3.0792,-1.1205,7.749,14.2872,-15.2628,5.2635,3.4646,3.5099,3.8588,5.0567,2.0784,
8.6771,7.0023,10.2346,-0.0023183,7.6237,4.3917,16.3221,-13.3826,3.9837,7.5952,2.3353,-2.1572,7.1636,-0.93851,
8.3974,2.967,7.4513,-1.6892,6.9253,9.6718,14.6199,-15.2312,1.5755,5.9344,4.3646,0.14138,11.7952,-1.6053,
11.509,1.5837,4.8351,-4.7213,4.3404,6.4402,18.8042,-24.1992,-4.5448,-0.44745,-1.4409,0.37409,5.062,-5.1244,
5.0338,0.042521,-1.7219,-8.2945,4.562,3.1613,18.6399,-29.9782,-7.6465,-4.2771,-12.9239,-5.9152,-0.062362,-5.7809,
-0.57067,-2.3702,-8.3672,-11.6532,1.8782,8.7565,13.6651,-31.0718,-5.7416,-3.5383,-8.2919,-5.0781,0.90548,-0.13144,
5.73,-1.264,-5.9371,-7.5797,1.7654,9.677,18.6299,-34.5101,-10.2177,-1.3979,-3.9381,-5.2557,3.2614,-7.3545,
10.6888,-0.22403,1.65,-10.0172,11.7826,12.953,25.7068,-33.8855,-9.1225,-1.3141,-9.4864,-9.2787,9.3324,-13.6619,
7.8783,2.9227,-0.13627,-8.6931,9.8703,14.8269,19.5849,-27.755,2.2709,-7.2608,-8.1943,-6.5528,9.4954,-1.514,
5.2362,4.9167,-4.2254,-1.1818,-1.086,7.9118,20.097,-31.6333,1.4117,-11.4046,-3.6051,-2.5442,4.3462,3.1563,
9.9839,1.9705,1.5718,-3.7621,7.8976,14.4268,32.9912,-40.5815,-4.6986,-7.587,-2.6657,1.224,6.7368,2.244,
10.5899,-0.31713,0.75437,-5.2236,12.4852,21.5149,30.4092,-36.9415,-7.0681,-8.3368,-5.6391,-1.983,5.1273,4.2785,
5.1339,1.6302,-3.1474,-2.5,4.5053,14.4396,21.8361,-29.9044,-6.1619,-9.7649,-5.3006,-7.1665,0.48125,2.5756,
4.344,2.9785,1.862,-1.8677,5.6809,13.5733,30.167,-31.4845,-5.3099,-8.697,-4.0186,-6.2545,1.8988,2.4212,
9.6268,3.0408,8.258,-1.0327,11.3659,19.2664,34.8645,-28.3904,-4.2684,-9.3802,-4.0184,-2.2638,3.4718,5.8911,
10.0134,1.8944,2.46,-2.4169,7.7915,13.29,29.3983,-26.2049,-4.9763,-7.3713,-5.2235,-5.5023,-0.11082,1.1992,
7.9663,5.1549,4.2404,3.5127,5.3956,10.0823,30.0445,-33.3095,-2.7498,-0.18032,-3.464,-7.1006,5.6804,-2.7291,
8.6934,7.0148,9.0476,1.1328,7.7232,16.467,28.0009,-34.9263,-4.7539,-0.89263,-6.3894,-6.9155,10.4013,2.4961,
13.9566,9.0043,8.0228,-1.3456,9.1882,16.9252,24.875,-24.1539,-8.807,-5.1774,-11.3087,-7.4647,3.9926,7.167,
15.5293,4.6076,9.4694,2.5918,0.44198,8.1969,33.9876,-23.6687,-6.8326,-3.9026,-6.7738,-4.6064,-2.0318,4.3266,
11.4641,1.6798,14.4449,1.7129,-5.6103,11.3203,41.83,-25.3819,-0.39707,-0.53523,1.5866,-0.71487,4.5979,1.4157,
10.0532,10.497,13.8193,3.2975,-6.4786,20.5234,33.2946,-21.6897,0.83193,-2.6724,-0.67789,-7.1796,6.0091,1.0897,
10.8962,16.1338,7.2054,6.474,-9.9462,21.2201,25.5124,-19.9063,-2.1102,-6.3686,-5.9397,-1.4463,0.34602,5.3628,
10.2424,12.2735,5.3271,4.1573,-8.8675,18.0187,29.2843,-16.7837,-4.8758,-6.9505,-7.0296,8.2817,1.7715,8.4154,
11.7973,10.332,11.5152,-1.6357,-5.202,16.2144,29.2145,-17.4639,-11.5732,-8.7027,-10.7052,-4.9896,1.4243,-0.043228,
19.0433,11.3992,13.4755,-5.1529,-1.2745,20.3031,29.1487,-19.0673,-11.1196,-4.565,-10.7859,-7.8234,0.13363,-2.6921,
16.6954,9.9921,2.3028,0.21775,-4.3315,17.3977,28.1227,-13.3439,-8.7655,-2.1219,-11.826,3.492,0.36657,1.0849,
16.4169,12.526,2.4057,3.3381,-2.8662,19.4874,28.6046,-8.9278,-6.0702,-0.78942,-12.3216,5.4518,4.442,-1.6314,
22.1807,12.2565,13.8307,-3.6108,-0.28403,25.5489,25.4422,-18.5151,-3.7777,2.6323,-11.5822,-2.5882,4.1756,-7.3182,
23.26,9.5929,17.3394,-4.8404,-4.1234,19.1955,19.0954,-20.2965,-7.8896,0.54615,-11.8513,-11.1098,-4.7518,-4.951,
22.3465,11.4277,14.8528,-5.996,0.46235,15.1515,22.288,-14.2582,-11.7546,-9.1276,-11.1403,-11.4073,-3.5026,-4.6539,
24.862,18.9368,18.7822,-4.6723,4.2911,28.3424,33.4843,-12.9207,-6.7108,-6.6518,-9.9898,-1.5639,7.3125,-4.8567,
20.478,21.1748,17.655,-4.3919,-0.30491,35.68,31.957,-14.5558,-3.8981,1.46,-11.3188,3.8323,9.2841,3.6296,
14.188,18.2175,12.9807,-5.8155,3.3287,25.5856,26.4245,-11.5132,-10.6537,-3.6889,-9.9165,-0.9768,6.0759,8.9556,
12.3723,18.0882,10.2733,-3.5385,6.0211,26.4605,24.8387,-9.3762,-15.7994,-8.7703,-10.7676,-2.8467,3.3009,0.70513,
10.907,17.726,9.4159,-2.6031,0.5982,25.1141,26.4818,-8.5727,-5.9334,-0.29037,-10.3625,0.45756,6.2363,-2.9524,
5.9142,18.1088,6.9229,-2.4468,-4.2581,13.4842,23.9289,-9.0223,-1.2389,1.1734,-8.2946,-6.3185,6.3442,-4.7035,
5.8003,21.6016,8.1945,-2.0592,2.0232,20.6289,21.7701,-8.24,-7.6723,1.344,-9.4842,-8.5909,3.312,-3.2163,
9.0677,19.5826,7.4619,-8.4432,2.1428,23.9707,23.5969,-8.9507,-13.7197,3.9147,-14.9407,-4.46,-3.3942,-4.2283,
14.5492,24.4332,7.2554,-3.3571,2.7373,16.9888,33.9914,-5.2804,-7.3529,3.9208,-8.0187,-4.9153,-0.057324,-6.1438,
7.1686,22.7263,6.5789,0.94184,5.7062,20.067,34.6032,-7.6148,-1.368,-2.3401,1.8625,-12.0923,7.9,-6.9804,
-5.3128,16.542,3.7739,-2.0072,5.3641,21.7552,30.599,-17.7632,-3.6963,-1.2356,-1.6237,-7.0282,7.9081,-4.1512,
-2.3428,23.0214,0.89622,-0.19942,8.1756,22.6192,37.681,-12.1178,-3.2334,6.7924,-4.6596,6.6497,5.2644,0.67729,
2.6185,26.9426,-3.978,0.77664,4.3109,26.5645,45.5433,-1.2676,-5.9317,0.60023,-3.8979,-0.015771,4.9485,-2.2556,
5.3536,26.7723,3.0093,6.9968,5.9802,25.4528,43.7748,-2.6378,-7.9862,-3.2922,-5.1103,-4.8353,9.9542,-3.0844,
5.0324,21.3096,6.2032,3.2025,12.8522,21.5155,30.543,-10.1923,-6.0607,1.7258,-6.7318,1.2396,11.2852,-2.8993,
3.5253,19.3077,-3.0869,-3.0153,9.9116,31.0705,30.3978,-11.2678,-4.4921,2.3453,-5.1227,-1.4864,9.4029,-3.9305,
6.6881,23.452,-4.83,-0.42413,7.389,36.9191,42.6739,-7.2174,-5.1866,2.2047,-5.7796,-1.3971,7.8745,-3.2127,
3.8765,19.1526,0.76242,-7.1474,7.9095,26.509,51.5623,-6.7844,-6.8036,2.0724,-8.3251,5.9175,5.956,-3.0199,
-0.93552,15.834,-2.4167,-5.0314,7.1939,22.7492,41.9605,-9.5107,-1.816,-0.70336,-3.7281,1.465,9.6959,-1.6335,
2.977,16.8121,-6.1283,-0.87313,9.1724,26.2047,39.9248,-18.5813,-3.1533,-0.66116,-2.5404,-8.2641,6.704,-2.4996,
0.8703,19.6601,2.4344,-5.1592,15.8532,25.5967,43.3142,-16.02,-10.6767,5.1632,-5.7623,-2.9474,3.4096,-3.7958,
4.9154,19.6856,3.0115,-5.5725,17.071,25.7483,41.9204,-5.6588,-9.7949,1.238,-7.5857,3.7372,9.7125,-4.7731,
7.0309,20.9146,-0.54364,-1.3818,13.6366,27.5774,42.7797,-5.8014,1.3976,-3.1746,-4.2383,1.1023,15.8787,0.33377,
-7.491,22.7931,1.6583,0.38823,10.1672,25.1998,39.9718,-10.0328,1.5551,-0.81486,-4.225,-1.1326,9.3822,-3.3016,
-21.1415,19.4972,-0.85125,-8.312,12.4495,22.7238,37.5734,-11.3591,-10.1075,3.5725,-11.2023,-0.10091,5.9271,-13.2267,
-33.973,21.7018,0.16369,-9.2594,15.077,29.5555,37.7296,-9.7132,-13.3575,7.6969,-14.8685,-1.0587,8.464,-8.0943,
-46.0347,24.0151,1.8411,-2.1961,8.6288,31.3972,32.8142,-7.9251,-15.2071,1.691,-18.0739,-5.0926,2.4125,-2.5475,
-57.3726,21.3689,0.043403,-3.2696,13.6542,23.9697,36.389,-5.2809,-9.7154,1.8305,-11.928,-2.6183,7.8109,-1.1893,
-68.0302,19.8458,-0.6821,-6.6889,23.1993,21.3267,31.5546,-10.0255,-6.4814,-0.9304,-9.043,-5.5942,13.3683,-3.2871,
-78.0484,28.7782,12.374,0.46115,22.7714,34.1471,30.143,-1.7112,-9.4667,-5.6951,-6.5724,-7.6689,10.6378,-4.0544,
-87.4655,28.9799,10.1855,-2.9405,19.4772,34.3881,42.3144,4.1763,-18.0575,-4.3893,-11.9624,-10.1011,4.2152,-9.1131,
-96.3176,27.7231,0.41538,-7.1029,29.3953,28.468,50.3804,-7.1615,-14.5639,2.1406,-16.0654,-3.7104,3.9618,-3.7461,
-104.6385,23.4081,4.4878,-8.8458,32.6933,27.0009,37.9575,-17.5781,-12.0029,-2.0852,-16.3068,-1.3187,6.3756,-2.7984,
-112.4602,25.3783,18.3185,-0.12016,26.8755,28.7555,30.8596,-9.7743,-12.2468,-0.99598,-12.4356,-6.542,11.296,-7.9329,
-119.8126,26.9889,16.3758,2.5384,24.0579,30.6454,37.4439,-6.0546,-7.8968,4.1252,-10.9663,-11.2109,11.3409,-5.77,
-114.552,21.5132,7.1986,-8.2192,30.3272,28.3247,40.4999,-7.6195,-9.8331,-1.9069,-15.1291,-4.7537,10.6604,-5.4238,
-105.2688,20.7045,12.0691,-9.654,28.0254,27.1074,32.7675,-2.8242,-18.4019,-6.6129,-19.0418,0.35205,9.0567,-10.4008,
-95.8192,25.97,17.8526,-6.9059,18.8719,33.4349,30.0783,-0.48539,-15.6108,-1.6366,-16.6942,-4.2486,8.2726,-7.1254,
-86.2139,27.3041,11.961,-6.9737,20.6318,38.6594,35.0223,-3.8305,-12.2638,-0.092411,-18.5849,-5.4397,5.8478,-4.2875,
-75.0153,23.9786,9.5561,-9.2063,22.0455,30.3143,36.5364,-7.2161,-18.5179,-0.80977,-23.9773,-4.3904,2.8458,-10.0558,
-67.863,22.2989,14.0444,-8.8949,14.6968,18.6131,30.7288,-7.9884,-11.8632,1.8899,-16.5131,-6.7781,4.3618,-6.3194,
-66.6838,22.8889,11.2733,0.31563,9.9588,13.6401,27.4386,-6.545,-1.0283,2.2587,-5.3996,-6.8536,3.136,-1.1198,
-63.6468,14.7669,0.95619,-2.5956,10.8073,12.8215,22.418,-9.0446,-8.6796,-0.76913,-11.3419,-3.5501,0.055587,-8.2832,
-59.3459,9.0607,-2.9576,-5.8143,2.928,15.4267,15.7703,-9.9482,-16.3535,-0.24105,-18.8566,-3.819,0.052251,-11.6426,
-46.1441,16.7115,2.0399,1.7652,1.7882,17.3934,25.4292,-2.6026,-5.2496,2.1838,-7.6021,-6.0002,4.3877,-1.7852,
-29.2755,21.4936,9.6305,5.0339,15.7809,21.6522,37.8829,1.4102,4.2246,-2.7677,2.4953,-4.6761,11.8374,6.5168,
-20.8905,18.276,10.9811,5.2141,20.9803,22.7634,37.5384,-3.4949,1.5612,0.29062,-1.5106,-3.4314,17.8758,3.2335,
-30.0014,8.2614,1.8861,-2.0887,6.4651,11.0337,31.1887,-8.3469,-3.5941,5.8168,-7.9279,-8.7692,9.3315,-5.8786,
-25.0679,13.3093,2.4963,-0.27611,5.3543,13.5047,31.9685,1.072,-0.24543,3.2986,-3.3549,-6.0739,0.81785,-1.428,
-9.4638,22.8746,7.4077,4.3197,16.3613,24.0226,32.7015,6.5513,0.01026,0.44915,-0.5025,-3.0579,1.4917,5.6471,
-3.714,20.7793,5.2761,1.4095,13.21,19.4478,31.9447,-0.34975,-1.1952,3.0738,-3.1234,-5.526,3.0894,3.1391,
-4.2143,22.1838,4.7188,5.9044,3.0176,13.2195,29.7868,-2.0158,3.456,1.2019,0.19722,-6.3995,7.0016,2.2276,
4.9568,24.4682,9.9792,9.1656,5.0062,20.3805,27.2767,4.1307,3.9716,0.40686,2.8369,-3.3639,10.1969,5.2274,
8.5154,19.6252,9.8624,4.2769,4.7053,20.6035,23.7119,3.8829,-6.3901,2.3106,-8.9029,-4.1264,-1.0202,-2.3171,
9.21,20.6173,6.6196,8.6,2.7358,15.2699,22.0482,7.7473,-9.6216,1.4491,-14.3943,-7.9762,-5.5382,-7.2397,
14.6831,22.9959,8.8737,7.3609,4.2591,18.9337,27.7154,9.4518,-5.4287,-0.80723,-7.0224,-11.1128,-0.14449,-4.1535,
21.9969,25.4726,14.1259,7.8835,4.9679,25.9924,32.8009,5.0283,-0.28271,3.0976,-0.81652,-3.6976,3.7206,2.8441,
17.0614,17.918,7.2526,5.2407,-2.3203,15.0326,21.9146,1.111,1.9032,-0.22152,-0.52679,-0.34249,1.3279,5.8067,
13.8686,10.3354,0.30946,3.7214,0.47001,3.7668,18.9129,5.1421,4.4405,-0.4492,3.6022,-1.0448,5.3456,6.1812,
19.062,11.8847,4.8704,5.6675,10.8059,8.1198,26.2136,-0.71024,-1.3697,4.6392,-0.22961,-5.0797,3.3379,-0.21543,
28.7648,15.7511,12.5322,3.6405,13.7732,18.4791,27.7745,-2.8366,-2.0102,5.5659,-3.3486,-6.9439,-0.47758,-0.44324,
40.5362,23.4829,14.1906,7.7601,9.0902,19.2984,24.1796,7.9387,1.4846,-1.0348,0.22651,-5.5631,0.9971,3.9219,
52.2041,36.1739,18.6416,11.6331,18.6679,15.2482,28.0317,8.9084,-0.53288,-3.865,-1.7155,-5.2296,2.8652,1.2762,
63.1718,45.2112,30.2975,10.6941,31.6478,16.5029,32.3754,-1.0261,1.6687,1.9105,-0.88921,-8.0493,3.8986,0.47676,
73.4815,48.5241,30.1669,11.7397,29.6287,16.7175,27.2994,-0.24163,1.3272,0.10867,3.7434,-14.0738,1.4955,3.5812,
83.1726,55.977,19.9208,10.7943,27.1276,19.8119,18.6715,7.2447,-8.1525,-6.4053,-4.4349,-16.3629,-3.1739,-0.73104,
92.2823,66.7184,21.6178,10.1465,35.6231,24.4075,9.8382,6.8102,-14.412,-9.3957,-18.2688,-18.7558,-9.2502,-9.3641,
100.8453,75.128,28.5161,10.5018,29.1476,23.4257,9.7306,5.4375,-9.2087,-9.3137,-11.7493,-18.5941,-12.0695,-5.9099,
108.8946,74.7172,21.2611,9.6307,18.4802,23.7069,15.1718,5.3522,-7.4514,-4.6575,-0.19857,-14.3454,-11.5863,-1.9399,
116.4609,76.9833,13.7187,14.3553,14.4791,27.105,10.4053,7.9234,-10.8604,-1.4857,-4.5252,-12.0387,-13.7834,-3.27,
123.5733,76.9436,22.2956,13.7349,12.8875,24.7558,2.3092,9.6171,-9.4859,-3.5658,-5.9409,-9.6291,-15.1255,-1.3866,
130.2589,73.7733,28.1891,13.3932,17.8993,21.3422,-0.7214,7.1119,-6.9881,-6.7263,1.1644,-10.4972,-12.2898,-2.2672,
121.479,69.3471,18.7848,10.1793,18.2714,21.5077,-6.4629,9.5775,-13.318,-10.6612,-5.6541,-18.0623,-12.0346,-12.7363,
114.9134,68.3195,14.042,7.8815,10.6674,27.2074,-9.2084,16.9568,-12.7596,-10.2623,-10.8587,-16.2554,-9.6255,-9.8027,
109.4646,66.1483,11.2711,13.6749,2.3143,28.4667,-11.0663,7.7445,-5.7278,-5.7904,-6.3506,-12.3878,-12.9041,-2.4663,
108.4404,57.6001,9.39,10.2033,4.8266,21.6975,-9.6789,2.7005,-4.6607,0.10063,-4.7642,-12.8498,-11.407,-4.9694,
105.0674,50.0468,9.0676,2.1193,5.2603,14.8521,-9.3392,12.9024,-12.8168,-4.0028,-11.4683,-14.7299,-10.4811,-11.6607,
97.3171,48.4902,11.898,3.4384,4.4628,16.8535,-17.4559,8.7542,-18.3147,-9.0652,-18.011,-12.3999,-16.1192,-18.6738,
89.7911,49.196,13.353,4.9191,7.3278,23.7958,-23.3987,7.5054,-11.6725,-2.4956,-14.279,-8.5226,-12.9827,-16.8307,
80.547,40.9414,11.5877,7.0343,-3.7169,18.9938,-21.0306,14.7681,-4.7054,-1.3822,-5.2278,-11.8679,-6.9013,-5.6977,
68.4836,24.3849,6.072,6.1301,-13.617,10.6231,-23.625,4.2408,-8.7616,-8.5299,-2.5038,-10.6736,-6.0051,-2.4636,
60.518,20.1504,5.226,8.1726,-3.1588,12.8785,-24.1354,1.5764,-7.2713,-5.6077,1.0211,1.0538,-5.645,-7.1363,
46.5228,20.6284,9.0095,8.4054,-4.6563,9.9364,-21.4827,14.2561,1.6004,-0.69173,2.1649,-2.1427,-9.4039,-10.3237,
34.8136,12.8832,11.6024,4.2857,-11.8487,-0.54176,-24.2906,20.3906,1.7458,1.037,0.34781,-9.0036,-4.2599,-6.0884,
24.771,1.2637,2.4704,2.3415,-12.3429,-7.017,-35.1259,13.6233,-10.6513,-4.0867,-8.109,-7.7407,-2.3173,-12.2308,
11.2334,-8.453,-5.3906,5.0931,-16.423,7.5041,-37.3567,12.8059,-2.7818,-2.8776,-4.248,-1.0093,-5.0703,-11.9794,
-3.5406,-19.997,-7.4773,5.2694,-25.5605,16.5741,-40.8999,11.5556,8.4728,1.6338,4.2016,-3.3588,-8.1406,-2.5835,
-13.3306,-24.0996,-9.439,3.0253,-20.6527,1.4796,-49.5329,10.3801,1.6977,3.4638,2.5035,1.1808,-5.2418,-0.018149,
-12.0488,-22.1719,-10.3187,2.3616,-15.5569,-12.7092,-48.9713,14.5778,-0.3326,3.2562,3.3174,9.7873,-2.035,-2.9093,
-23.6184,-26.3849,-15.7254,4.8713,-20.1673,-21.5878,-47.7204,11.5337,2.3387,-3.4469,4.3234,-1.6465,-4.5642,-5.8685,
-30.396,-30.5867,-16.2279,0.72237,-17.9932,-23.1844,-47.7495,14.6983,0.75233,1.0985,4.0642,-2.9937,-0.43374,-5.0342,
-35.5619,-34.2948,-14.5311,-3.4181,-26.7953,-35.8933,-54.2843,11.1651,-1.4622,8.0222,2.6153,8.032,-2.0952,-5.9372,
-40.9,-36.3345,-13.9002,1.8482,-34.588,-35.5474,-57.5347,-2.7612,-0.65157,3.4435,2.217,2.4884,-6.0668,-5.822,
-34.3484,-34.3954,-9.9327,-2.842,-23.1123,-19.3146,-47.5752,5.8406,4.9316,-1.3424,5.2174,-8.0248,3.6972,-0.41098,
-31.5646,-31.1268,-11.9883,-8.697,-19.0745,-12.0099,-43.5154,18.7466,2.948,-4.3953,4.1815,-5.8561,9.5009,-0.14535,
-33.7683,-29.5004,-14.4022,-6.0062,-24.9196,-14.9045,-48.8584,10.1497,-7.593,-6.7829,-0.64892,0.038654,6.7619,-3.7523,
-30.055,-30.3815,-12.3333,-4.4406,-25.1117,-20.0358,-43.7577,7.3716,-6.8964,-0.35042,0.59485,5.098,5.1509,-4.25,
-34.5182,-37.2355,-19.3058,-6.1021,-34.2101,-31.8488,-41.6144,8.8577,-1.6617,8.3475,-3.297,4.7924,-3.3531,-8.8155,
-41.3652,-42.9553,-22.245,-8.8697,-46.2575,-26.8046,-44.179,0.85422,0.12501,10.9799,-4.7866,4.2636,-4.357,-7.0815,
-41.7755,-41.3421,-21.3925,-6.4091,-50.3516,-15.5556,-43.4563,1.2851,0.59967,5.9825,-0.16089,-1.2946,-1.6852,-2.8,
-37.0998,-36.6924,-20.3499,1.9292,-41.7869,-19.202,-33.3775,15.308,10.9276,4.9007,8.7668,-0.97643,-0.86117,1.9473,
-37.5249,-40.0343,-18.8877,-0.35549,-38.0742,-24.0752,-28.2412,14.2691,12.4413,1.9553,9.4459,5.1079,1.8418,-1.3028,
-36.7197,-40.5247,-13.8981,-3.2267,-43.0206,-15.3999,-30.8855,4.7358,0.60759,0.39175,2.6126,9.6222,3.1776,-3.1528,
-38.6141,-38.3344,-17.6437,-2.3104,-46.9475,-14.2351,-34.0938,7.5849,0.32994,8.8041,1.2503,7.8393,-3.0389,1.6158,
-37.5021,-37.7209,-19.2364,2.8901,-43.889,-16.0319,-34.699,8.3353,13.5668,14.3017,11.5399,4.2362,-1.1691,2.242,
-31.6366,-42.4475,-18.3232,-4.7551,-35.2301,-19.6497,-30.4479,-3.9749,9.6197,2.5973,10.6065,-0.11536,1.0702,-5.3643,
-19.1335,-34.5985,-10.4754,-6.8799,-22.5115,-16.0606,-21.3907,3.9759,5.6676,3.8877,5.6313,9.5321,-1.8865,-0.2222,
-21.8419,-31.0763,-13.2208,-0.2006,-30.8017,-7.8661,-32.6403,13.3788,3.3998,10.8853,-0.97305,10.4064,-6.5936,1.2374,
-21.2543,-31.3807,-16.0432,2.4628,-34.497,3.9343,-32.8512,14.2631,9.2212,17.2218,5.1111,9.0594,0.7917,2.3682,
-20.2202,-35.0417,-15.8038,-5.639,-36.0429,-1.3633,-23.4086,7.8634,8.9091,8.2346,4.5632,9.2385,1.4673,1.0211,
-20.2121,-35.1083,-13.6502,-11.3262,-33.1569,-6.8251,-25.1371,5.2225,0.42081,-0.21326,-5.1105,7.9613,1.6203,-3.1376,
-14.1789,-35.4122,-13.7953,-13.5389,-23.455,-4.0057,-30.3775,6.8375,-2.4967,2.6918,-5.768,-0.22943,1.0409,-5.8416,
-9.7127,-33.5284,-10.7984,-5.2548,-20.8424,-7.3807,-29.7602,8.114,6.5707,6.6277,4.9419,-3.3491,-1.1907,-2.84,
-10.5762,-34.8909,-13.0428,-7.3498,-25.8586,-9.8302,-29.903,2.3248,4.7304,1.8915,2.2355,-5.0762,1.773,-3.6337,
-5.8441,-28.6999,-12.9834,-10.524,-19.7275,-4.6604,-22.565,8.2111,-2.0611,1.5372,-5.8526,-3.5665,5.7642,-2.2102,
-8.8676,-24.5678,-9.3119,-6.5181,-19.0258,-2.935,-25.5494,16.8774,2.4013,1.9269,-1.645,-0.46002,-0.84863,2.2608,
-9.2997,-27.9144,-10.1994,-5.6451,-17.4023,6.8825,-31.7292,9.1164,7.0775,-0.11687,4.7206,7.7623,4.9873,7.9097,
-1.0289,-26.7213,-20.1925,-7.7168,-11.5377,5.5055,-28.3794,-2.0357,-2.506,0.85423,-3.2756,9.7069,14.8112,2.6146,
0.72004,-23.9129,-21.1504,-11.3509,-17.8351,1.0776,-25.4716,1.7016,-5.0069,3.4543,-6.6943,6.4732,4.0404,-1.1574,
-0.52822,-20.7909,-13.8553,-8.0187,-17.4879,15.1129,-24.1843,9.0713,0.35517,7.3444,-1.2314,9.7002,-0.78179,8.794,
-4.8353,-23.4003,-19.291,-10.9121,-16.4391,9.5057,-34.3028,5.6345,-12.682,3.0473,-12.245,5.2618,3.1215,9.2302,
-0.92977,-22.7194,-17.8923,-12.9087,-17.1397,-0.46442,-36.3418,12.2861,-8.7874,2.6233,-10.305,5.1873,4.6212,7.9532,
2.2593,-17.7408,-12.2395,-8.5187,-16.3523,4.1427,-23.7974,13.2362,0.65747,8.0095,-2.697,9.9373,-2.6455,4.3426,
-0.28641,-19.0863,-12.4692,-14.2743,-12.4789,3.4125,-23.3332,1.355,-6.6126,6.5649,-7.8376,5.9668,0.88748,0.22585,
3.8281,-20.1105,-8.1059,-14.141,-9.5612,4.8947,-26.9951,5.8528,-3.5645,2.5558,-3.7522,2.9575,14.9342,8.1658,
8.9011,-19.868,-9.0656,-12.8104,-12.3618,3.6369,-17.1805,15.1428,-0.94028,1.4383,-3.5268,3.2622,12.2302,11.0505,
11.0181,-21.8091,-15.5113,-24.8162,-3.1842,2.6956,-12.5345,0.97807,-12.2123,6.8954,-16.5716,6.6817,3.5429,4.8437,
13.0086,-20.2596,-15.3035,-31.2808,6.4073,9.5237,-21.1819,-9.4445,-14.6126,3.8306,-24.0132,6.0398,5.0176,6.2407,
15.6025,-15.6696,-11.9752,-27.9579,4.5766,11.3629,-19.4291,5.2222,-6.0231,-1.7019,-21.1261,4.7135,8.5729,12.1328,
11.5329,-17.8629,-15.8364,-39.0549,4.5426,6.1014,-21.8788,7.9212,-14.0978,-0.87687,-25.4024,5.1536,6.8532,6.3432,
12.046,-18.9603,-18.9836,-43.2193,6.9216,15.6172,-31.4123,-5.3281,-20.7237,-0.1009,-28.4576,7.0136,5.7191,3.3115,
13.9745,-13.7253,-14.2291,-26.5261,-6.2682,15.8855,-26.8765,-3.3216,-5.3803,-2.264,-14.458,4.9055,4.1707,9.1383,
10.7257,-2.2967,-0.35973,-10.8346,-19.9921,0.83235,-22.3711,4.1087,9.0425,-1.1641,0.50944,-0.69122,1.5101,10.0361,
4.2976,-4.0874,4.9643,3.9155,-31.6873,-13.3176,-31.6344,-5.779,4.1616,-3.5046,9.0353,-6.4346,-3.8829,-3.5813,
11.7525,-8.6626,6.1124,17.7806,-25.448,-11.7959,-26.3616,-5.432,6.8042,-4.7403,6.5649,-3.1562,-0.75766,-1.9204,
16.35,-7.1783,-1.003,23.7036,-32.1156,-20.7288,-25.744,0.19632,15.5548,-8.3125,6.1713,-6.341,-1.6763,4.4616,
17.5382,-4.5784,-1.6657,27.3426,-38.1424,-14.9054,-32.1531,0.90744,16.7906,-6.1266,14.2369,-6.2016,-0.85282,4.9168,
14.7989,-8.4011,0.12147,21.6047,-33.2027,-1.719,-35.7676,0.13009,6.8656,-2.1435,12.1774,-1.7321,-1.0426,1.4888,
9.5724,-10.7895,-3.2603,18.3802,-28.8004,-8.3643,-36.514,-1.8059,-0.77717,0.87759,1.8058,-0.66385,-3.8721,2.3633,
12.6135,-5.5624,1.0327,21.3748,-32.1336,-17.2624,-34.5641,0.954,9.1514,6.8505,10.6155,-0.86499,-0.024374,9.6933,
16.4359,-4.9879,3.6221,18.4053,-31.8931,-17.4322,-32.7315,1.6194,9.3254,0.89561,15.0398,-6.8391,-0.26411,2.1221,
14.0038,-5.6528,6.297,13.4444,-25.6409,-15.4222,-28.8392,0.076235,4.9093,-2.5323,7.8709,-3.5362,-3.1406,0.066315,
4.0045,-4.8314,6.4014,19.8688,-34.7075,-22.2094,-32.8936,-2.3387,10.8815,3.4044,9.3268,1.0145,-4.3981,7.2934,
10.9948,-3.0957,6.0168,23.4969,-28.7687,-19.431,-31.8843,2.6223,9.7467,3.6816,10.2133,-3.8673,-3.6523,2.0351,
24.4352,-5.8018,5.656,10.0362,-12.9426,-11.9984,-18.8838,3.911,-0.96127,-4.2518,3.8161,-13.7582,-2.951,-8.6921,
25.0182,-8.1053,10.8603,8.2288,1.934,-24.0525,-13.1711,-6.2056,1.2656,-10.5042,6.7206,-13.6556,2.7697,-5.519,
21.8296,-9.7881,12.8602,16.1707,3.5049,-36.7094,-21.2989,-12.8231,8.1795,-9.633,9.9326,-1.9902,3.3264,3.7297,
22.6892,-11.8519,7.0269,18.3339,-3.2128,-31.0121,-23.1544,-10.3665,7.9297,-0.13694,6.6853,6.0832,-2.8988,6.1575,
15.5433,-17.8895,1.3029,13.3773,-8.8049,-22.8846,-20.3191,-3.4778,8.8999,1.7992,8.6945,-0.06664,-4.6533,5.7878,
14.8517,-15.1293,4.3578,5.5852,-8.5176,-24.645,-16.4484,2.7565,10.0532,-2.888,12.2702,-6.5704,-0.2767,5.6815,
16.6119,-8.6777,7.7119,8.8653,-10.6578,-25.8177,-20.041,-2.9523,5.8348,-0.54533,7.9188,-0.15035,-0.98277,-2.6131,
10.0716,-13.2185,4.5979,13.3948,-18.9362,-24.0274,-24.382,-11.2111,7.1717,0.69246,6.7206,11.6688,-2.6113,-4.6255,
11.3957,-15.3177,4.8042,10.1813,-14.9077,-23.0679,-23.4012,-4.2717,6.7416,-1.2775,3.9072,12.8971,-1.9724,6.7395,
11.6758,-6.6861,6.9258,11.4983,-12.5672,-22.166,-21.515,4.6615,7.3012,3.6196,3.1906,-0.89216,-4.2644,12.1195,
6.1547,-5.3207,6.5106,15.629,-20.9721,-22.7641,-14.9218,1.0072,14.5758,7.7411,15.5323,-2.2848,-1.1162,8.0178,
11.3291,-8.1349,5.8787,21.1989,-20.9187,-23.0854,-13.7854,-2.6685,12.0142,3.1789,17.2518,9.1804,1.1201,8.2599,
16.434,-8.1287,5.0443,19.9272,-12.433,-22.6644,-15.8505,1.8302,5.509,1.0602,6.5757,7.1835,-3.7676,10.6569,
12.3145,-5.9539,4.9822,16.0801,-13.3741,-16.7251,-15.1406,3.8896,12.1679,3.6478,11.7247,6.0293,1.0379,7.8479,
12.5398,-6.0788,-1.5832,14.6332,-18.3563,-14.7575,-22.9093,0.28156,16.2584,1.9827,16.3236,7.1138,7.7243,2.0744,
23.3567,-6.1959,-1.9703,13.2733,-10.0242,-14.3541,-27.3192,1.711,15.7649,6.6843,12.9342,6.2049,10.1534,5.8065,
19.3038,-5.1013,-0.16472,10.7894,-7.7354,-18.0725,-23.5107,0.88514,9.7574,14.2371,4.2041,0.28889,3.0364,4.7348,
15.2535,-3.349,-0.15507,7.2502,-11.6098,-12.1674,-16.7974,-0.614,10.1361,19.6497,6.3622,4.1282,0.9258,3.9688,
15.5435,-5.7993,-5.2071,1.7534,-17.903,-9.7503,-20.3692,-5.1566,12.6613,11.4807,10.0779,6.5317,-1.781,5.8999,
20.6364,5.8771,0.16678,12.4942,-12.2493,-17.119,-18.9059,-1.7139,10.2146,6.6947,8.7501,4.9347,-5.7715,6.751,
19.3982,13.237,5.4592,11.7448,-5.7297,-11.2714,-13.9151,3.2094,4.2989,11.1135,5.815,4.1565,-4.9432,-0.40273,
4.4958,3.043,-2.8221,2.1223,-17.1961,0.73334,-21.0342,3.258,2.3539,8.7593,3.2969,2.702,-2.9594,-1.1015,
-5.656,-2.6833,-6.7502,4.1642,-22.1902,-5.3366,-27.2438,5.2318,-0.43873,1.7263,6.2322,4.7092,-4.9511,6.4363,
0.46806,2.2981,-1.5246,7.7704,-11.2177,-15.6215,-21.2708,4.9176,1.0337,2.1048,9.7148,3.9446,-2.7257,5.0859,
7.1887,-0.73209,-0.95099,1.0377,-5.7242,-8.4177,-16.1381,-6.4647,2.4177,-3.8065,1.9011,-3.041,3.7043,-5.3424,
7.2395,-3.0981,-0.89416,-5.7733,-2.9704,-0.6816,-15.6518,-8.0048,0.34471,-5.0242,-2.5513,4.3725,6.8567,-4.0575,
4.6357,1.1849,-2.5275,0.59843,-1.5871,-10.5231,-18.3283,2.3572,-2.3273,2.2669,0.7348,10.6174,-1.0267,-0.19885,
3.8757,4.4881,-3.8221,6.8293,-2.456,-6.9992,-11.926,6.5543,0.2227,2.6131,2.6191,2.2678,-3.8574,-0.66885,
0.26867,5.6648,-2.1465,-0.32917,-9.5394,5.4721,-5.4258,2.3049,1.6554,-3.3285,-0.43053,-4.135,-2.1799,-0.62895,
-0.2295,9.6636,-0.089661,2.583,-10.8951,-0.159,-7.0284,1.6846,2.5203,1.6918,3.4518,2.8619,-3.9772,-1.073,
1.4715,6.9146,-2.2534,6.5254,-6.626,-7.621,-8.2939,3.7526,4.056,10.0264,8.7883,6.7876,-2.5335,-1.7318,
1.6242,0.95613,-2.8414,3.0008,-10.808,-3.0664,-7.5553,3.2865,1.1616,4.3632,4.6458,1.3188,-0.69427,1.5056,
4.1779,8.3707,-0.50161,4.99,-10.8825,-8.9081,-3.0045,4.7767,3.7431,1.9323,3.6438,3.8909,-1.3756,3.1024,
7.7838,14.1348,-2.8818,4.2086,-2.9988,-22.353,1.0323,-2.2589,6.4107,6.1546,3.9072,6.5499,-0.32911,-2.3863,
10.2091,10.3948,-1.2627,1.0637,2.4839,-8.4785,1.9343,-6.9436,-1.2047,-0.96302,-1.1476,-3.002,3.5471,-7.5456,
8.8732,5.6733,5.3205,-0.20544,-6.5835,6.1302,0.13102,0.46248,-4.7478,-5.9669,-2.7662,-7.4017,2.129,-5.4059,
0.86937,5.0921,1.8684,-1.3983,-19.4447,-2.5531,-4.9382,2.604,0.11691,0.41676,-0.91285,0.99653,-4.9883,-0.50192,
5.8788,10.33,-1.3773,0.37317,-13.2165,-1.6767,-7.2931,4.6173,5.1715,3.5251,0.82926,4.552,-4.4479,4.1076,
13.721,3.9259,0.63375,-4.9521,-3.7466,1.3162,-4.4454,4.8219,-2.3699,-6.3276,-1.6309,-5.844,-1.2887,-2.8875,
14.3435,2.2441,7.8261,2.0935,0.33433,-4.0654,6.9083,8.8709,-2.2277,0.80052,5.6976,-2.6013,4.5732,-0.78632,
8.4216,-1.0237,4.2234,-0.20095,-4.7471,-8.4009,2.8785,-3.4716,1.5213,9.1885,7.0431,0.20623,3.0938,-0.49783,
13.9419,2.653,1.8007,-5.7326,-1.811,-0.90707,2.4647,-8.8065,-1.2212,1.6477,-0.85141,1.3988,0.25655,-3.6013,
16.2385,4.6628,1.9334,-1.2915,-4.8359,0.83435,7.3785,2.5679,-9.5838,-6.4052,-9.7184,1.0737,-2.8921,-2.1804,
13.8183,1.9729,3.7461,4.0891,-6.9556,-3.0721,6.9358,8.6803,-3.7062,7.477,-4.3146,0.52779,2.1021,3.2535,
12.989,2.8188,3.5213,4.3257,-0.27175,-4.816,1.217,0.92913,0.37259,12.8129,1.7289,-5.2887,3.9042,-1.2805,
11.9689,4.8186,2.5869,0.93286,-1.4605,-0.91136,2.8312,-2.7423,-0.3729,0.23379,4.2765,-2.32,-4.284,0.48358,
5.4659,0.67323,-0.46073,-1.0517,-12.9422,2.9994,2.1793,1.2788,-0.35041,-4.1189,1.1275,3.1215,-8.3654,5.2749,
5.379,2.8019,-3.5662,3.5911,-11.4426,4.0246,-3.4952,0.96096,0.3934,4.0819,-4.0017,2.2114,0.5723,0.86097,
12.0461,3.3569,0.74487,1.2062,0.57214,-5.6167,1.2941,-0.30176,2.0573,1.668,-4.9667,-3.9471,4.6355,-6.1803,
11.3234,1.2273,2.1464,-0.79434,-2.3545,-13.9568,7.001,-2.2118,-0.47631,-4.2166,-7.0788,-8.5307,-3.3554,-5.8095,
14.9823,6.9385,-0.87464,1.6637,-2.6951,-0.10371,6.5812,-4.0076,-4.3043,1.8212,-6.6541,-6.0907,-3.1543,2.7342,
18.4219,3.1477,-0.34023,-1.3287,1.8049,-0.57988,4.2581,-6.6592,-6.4562,6.0502,-3.3628,-4.279,2.3376,-3.6968,
12.7368,-4.513,3.7775,0.92021,-6.2574,-14.6451,6.6537,-6.501,-1.9715,6.892,1.4185,2.9672,2.9203,-14.8032,
9.0806,-1.3499,-0.30527,-2.9912,-12.1482,-15.3329,6.7366,-3.7002,-2.8173,2.6224,-1.0767,5.1995,-3.0393,-6.6842,
13.1153,12.8311,-0.045756,0.32157,-8.2861,-0.31292,5.1274,9.778,-4.3353,2.2238,-2.2172,2.7186,-4.062,7.4552,
8.2308,20.1357,1.1616,3.9179,-20.0814,13.8059,4.0966,14.7347,-4.7987,2.3316,-3.7716,4.7244,-3.5775,3.3927,
2.1935,18.2046,-3.9693,1.0313,-32.9765,27.0775,4.0918,10.2357,-2.3412,5.3252,-2.822,5.1643,-2.1576,0.53805,
-4.928,19.2815,-8.3107,4.5848,-42.4466,39.5529,0.23085,12.2726,1.8966,8.6206,1.4447,-0.20724,2.0692,5.567,
-16.6836,12.8215,-7.8123,1.4172,-42.3102,45.8566,-5.0856,14.4283,-2.0735,6.6571,-2.4986,6.5536,-0.46506,5.233,
-14.2363,12.0525,-4.9332,2.7787,-39.2894,56.1208,1.9682,15.491,-5.8057,6.2579,-4.7588,16.2836,-2.8475,7.3293,
-7.8385,9.1602,-9.6986,5.7454,-38.1371,56.369,7.3937,9.018,-4.734,6.1234,-0.37569,1.2065,-1.4714,5.6843,
-14.3581,-1.7535,-15.1425,-0.62505,-37.0542,38.8868,3.8168,3.415,0.61145,2.6228,2.2979,-9.3504,0.30391,2.6919,
-14.7017,-2.8534,-12.5465,0.13558,-35.0717,23.6585,3.829,3.9337,0.33356,-3.078,-0.97319,-6.62,-1.4013,4.6998,
-7.5528,1.1742,-10.8296,3.5019,-32.0033,30.4341,13.2402,0.80513,0.31355,-0.96512,0.049296,-8.6332,-1.3172,4.4178,
-11.197,-0.58326,-19.0977,1.1224,-35.1445,33.1876,11.2408,1.48,2.4641,5.1186,1.2516,-3.0533,-3.4076,3.4296,
-12.6946,1.139,-19.1571,-0.14978,-38.0975,29.0267,6.469,8.863,-1.2991,7.4625,-4.3671,6.0475,-8.2644,1.0547,
1.3235,10.9526,-3.9077,6.3667,-24.9656,32.8287,20.1808,11.9466,-2.4265,8.702,-0.9718,4.9618,-2.2253,2.1967,
6.3055,13.4287,3.4371,7.6717,-15.9959,36.4028,29.9363,2.7939,-7.3423,5.5286,-2.6007,4.9048,-4.2608,3.2699,
-7.3292,1.7767,-9.0616,-6.045,-27.8104,30.1209,14.0401,-0.98915,-15.3375,-4.2031,-14.737,5.3339,-16.7796,3.3147,
-1.3458,3.8392,1.364,1.7895,-24.4548,29.0365,22.4774,6.542,-4.0534,-2.2642,-4.453,1.8804,-6.3728,5.285,
8.6171,2.4041,6.3439,4.3337,-15.5157,17.4128,35.2288,-7.1069,0.76958,-2.3688,1.358,-5.7043,-0.44681,-6.8422,
7.8591,0.57236,1.8661,-4.8446,-10.9693,17.5731,34.9228,-7.4036,0.96415,0.42415,-3.3027,4.5202,-2.107,-2.3346,
2.808,1.7431,0.066687,-5.2771,-11.5162,23.9903,29.6941,1.4765,-3.1908,-1.7702,-7.6841,4.4897,-5.1143,2.8674,
11.7986,7.9055,5.3653,-0.13975,-4.0766,30.7461,40.4455,-1.0222,1.3389,4.1206,0.48974,-0.11802,0.49521,-1.161,
12.7777,8.6362,0.94583,-5.1928,-6.9652,24.3218,41.1525,-9.3968,-0.42839,7.9709,-1.709,1.0941,2.6349,-5.6709,
9.8416,10.7694,0.16595,-4.1586,-7.2704,22.6213,40.8523,-2.8077,-8.3567,2.9127,-9.5605,1.2697,2.2356,1.1766,
16.2408,10.3637,3.2895,-4.632,3.0475,27.2896,48.765,-3.8445,-13.3993,-1.3594,-13.0842,-5.3144,1.8605,0.38313,
23.2205,9.9835,4.2972,-2.1847,8.8909,23.0009,52.8292,-11.5673,-12.8361,2.3378,-12.5399,-2.8262,0.5438,-4.7013,
19.4169,7.9383,3.5574,-1.5716,4.983,17.2825,50.1414,-9.909,-14.958,0.26933,-14.68,3.128,-2.8633,-1.0448,
25.0006,10.8362,10.0926,-6.2978,10.4683,23.4762,52.9173,-6.9045,-15.507,-1.1933,-13.7994,1.0119,1.6471,1.4278,
32.4186,8.9812,10.6924,-7.6072,16.3482,21.8266,52.3938,-15.8898,-20.1197,-5.2186,-18.0327,-9.8947,3.2355,-8.0574,
33.1246,0.97051,6.4354,-7.3917,14.6439,12.0813,50.4554,-22.8906,-20.5998,-10.9315,-20.5661,-11.4701,3.2823,-11.1894,
32.5834,1.8761,7.4955,-5.502,12.8014,12.8027,54.177,-23.4454,-17.9175,-8.3474,-13.5476,-5.9612,1.6391,-4.7334,
29.9055,4.8971,11.6251,-5.4128,14.2025,15.6495,53.0951,-20.8334,-18.5302,-2.7849,-9.6017,-4.3987,1.7817,-5.1728,
26.1827,-0.21725,10.4454,-5.0883,10.94,8.9262,49.4277,-16.2091,-16.9362,-3.1,-12.3998,-7.509,1.6751,-6.3085,
23.6479,-4.0611,7.8905,-1.4085,0.1607,2.606,45.9796,-18.1291,-12.0636,-4.8422,-12.6197,-11.8792,-1.7999,-1.5916,
29.2187,0.76258,10.5508,-3.9753,1.8381,6.0649,48.7647,-19.2103,-12.0625,-3.3461,-9.6931,-7.0688,0.95942,-0.77254,
30.1166,3.3679,7.7481,-5.906,3.8969,8.3521,49.9362,-13.4784,-15.4366,-8.6894,-12.2455,-4.9579,3.071,-7.7165,
23.4892,1.2374,1.9808,-4.1056,-2.1212,6.8869,44.5296,-14.1157,-12.5819,-6.7216,-13.4387,-6.1065,1.4407,-6.289,
23.0441,3.0914,7.6466,-0.96673,1.38,9.8481,43.3041,-18.5714,-7.4887,6.2148,-7.3298,-1.4013,2.3181,2.765,
25.5179,5.3165,11.0442,1.0195,5.1541,6.3652,40.2239,-19.3853,-10.4138,3.4317,-3.0336,0.12855,5.0716,0.18898,
23.7458,2.3459,5.8022,-2.1752,-0.21685,0.92156,37.5695,-15.0887,-9.0656,-6.6561,-2.1287,-2.0483,4.5263,-1.0277,
19.67,1.9642,7.1413,2.0531,-4.3012,-0.33857,34.5925,-13.9424,-1.5318,-0.23118,0.16867,-3.1303,-1.2889,7.9521,
23.31,1.8464,9.123,3.8577,-1.1511,-1.2826,32.9989,-18.4085,-1.9223,2.6748,-0.80578,-9.2094,-1.2115,7.9569,
34.2037,0.53051,4.9599,0.49297,3.9799,0.48183,40.9011,-19.9553,-1.5658,-1.1009,-0.99817,-12.272,9.2252,2.418,
28.5363,4.1143,1.5291,5.0429,-5.6591,0.69366,38.6878,-21.8913,-1.2306,0.1702,0.74872,-5.028,9.3949,1.0679,
18.6287,2.9029,1.9195,0.40178,-11.1044,-5.6147,29.6178,-26.3626,-4.0495,2.5703,1.1855,-0.87017,0.63623,4.378,
31.611,-0.16355,6.6244,-3.9609,3.6619,-9.1344,38.9277,-27.6731,-1.8786,2.4159,4.4886,-7.0847,6.3824,6.5257,
38.5119,-7.1432,3.0939,-6.3743,17.5422,-19.4322,43.582,-38.3048,-10.6835,-8.0929,-3.2521,-16.0592,3.8303,-6.6403,
36.2015,-6.7148,6.7648,-5.5097,23.7205,-20.6766,36.1466,-40.827,-11.9709,-8.0895,-2.5748,-4.4905,1.1901,-8.1698,
29.6908,-7.276,1.0565,-3.7331,13.6204,-18.9538,24.3366,-35.4851,-12.2163,-6.1577,-3.3844,-2.7751,-0.80924,-4.3054,
25.258,-8.0445,-6.4789,-0.85777,6.2955,-16.6115,22.1532,-35.0434,-10.7606,-6.0294,-7.2789,-12.9727,-1.0019,-1.3958,
28.804,-5.8748,0.41755,0.88069,12.4254,-14.8917,24.4397,-39.9305,-7.4637,-12.1753,-7.0834,-15.81,-0.21864,0.37497,
32.1374,-2.3889,4.4899,2.997,21.0799,-18.0956,27.0707,-36.8113,-6.2925,-13.614,-5.935,-14.6199,1.9636,-1.3348,
27.0757,-6.3429,-0.84122,-1.7621,13.3076,-22.0715,24.2411,-32.4335,-3.7458,-8.6998,-5.3379,-10.1273,4.9793,-1.4956,
24.7285,-9.0956,1.861,-0.93324,4.0733,-18.5778,22.064,-34.5846,-1.8336,-8.9009,-2.8483,-8.7966,1.0654,0.28155,
28.5472,-4.2113,5.6055,2.9794,7.685,-12.6427,24.1144,-33.4741,3.0964,-9.8129,5.9995,-9.7153,-0.44505,5.0851,
20.0857,-4.4408,-4.8539,0.87218,2.4034,-22.0073,14.9545,-31.9475,2.9109,-9.2244,4.6754,-11.5427,-1.8644,6.2261,
14.301,-6.3437,-3.3576,5.3994,-4.7304,-29.6051,7.5495,-34.1283,1.5312,-6.9834,-1.6309,-14.9473,-1.9937,5.1294,
22.6016,-5.4812,9.8592,4.1111,0.37368,-19.6336,9.5067,-32.5625,1.9212,-8.0107,0.8771,-11.1584,-0.42783,2.8934,
25.5842,-1.2959,7.8214,2.9005,5.172,-9.2966,9.9006,-24.3422,-0.12223,-7.0481,0.82448,-3.258,-0.8841,4.648,
13.4441,-6.5206,-5.1811,2.7267,-6.7073,-20.7901,3.5222,-25.2918,-1.079,-6.625,-1.6349,-10.7751,-3.2414,6.7795,
8.5399,-15.0472,-6.0753,4.2501,-16.6692,-32.7993,0.17718,-31.7281,4.5291,-3.0942,4.9709,-16.6365,-4.252,5.6496,
13.3301,-11.2523,-3.3007,4.4771,-11.8126,-26.0107,-1.7616,-34.6451,2.3292,-1.4628,6.1185,-9.8535,-7.3713,2.9005,
12.2891,-4.0694,-3.8258,2.5214,-7.9704,-16.0141,-0.93282,-30.8792,-4.3183,-5.4721,1.6538,-5.1652,-9.5804,6.3416,
15.1672,1.7184,-0.46272,10.8058,-8.2155,-15.2942,2.7386,-27.3392,-2.3719,-8.7592,4.2061,-4.6143,-8.2822,11.0228,
23.1752,1.3743,0.77034,12.3266,-6.0354,-20.4026,-0.55923,-28.8323,-2.4706,-6.5465,3.7128,-9.3987,-8.9905,7.228,
19.1334,-2.8053,-2.8911,5.5617,-8.8065,-23.7575,-2.6946,-32.6458,-4.0094,-3.5023,2.2849,-17.2706,-9.1742,4.143,
10.0314,-0.94998,-3.9231,10.2895,-13.8217,-20.1631,-3.7385,-33.8205,-0.63554,-4.0153,5.2811,-6.8346,-8.865,9.9202,
10.6348,-1.6159,-5.8569,11.8413,-9.8589,-12.9273,-2.7908,-29.6219,5.4281,-1.6053,9.0616,6.8323,-3.7533,16.7968,
3.971,-8.991,-14.4238,8.9614,-13.8471,-18.6598,-1.9007,-30.4961,8.7176,-0.78581,10.6868,-4.4244,-0.39488,14.1015,
0.11752,-9.6566,-10.9066,14.9314,-13.2573,-22.6017,2.7933,-29.8712,19.523,3.3589,19.4458,-4.8816,2.2801,14.4609,
-1.336,-11.4875,-12.6625,10.1794,-10.5337,-21.2454,-5.0873,-32.4175,18.8338,5.0853,17.7969,2.6419,1.6612,15.5212,
-1.7378,-10.7983,-19.1336,7.6404,-11.3477,-14.668,-13.9411,-32.8828,10.9549,5.7446,11.4269,1.5193,4.454,17.9644,
1.5,-10.3914,-17.2627,6.4586,-13.3184,-13.065,-9.9711,-31.1508,8.1284,2.2664,10.0179,0.22286,1.0533,18.5738,
9.3639,-5.6703,-9.2368,5.8304,-11.314,-13.9681,-6.7215,-29.5227,10.774,1.4073,12.5501,-0.51341,-4.0714,11.9155,
10.7298,-8.705,-11.5752,1.1418,-16.4199,-14.0944,-14.0315,-34.9824,8.1993,-0.60535,7.9407,-8.6778,-1.8989,3.9697,
12.4964,-8.1825,-14.7373,1.0735,-16.8808,-6.5,-11.2611,-34.8114,2.8869,-5.3895,3.1257,-11.0492,3.0355,8.552,
20.6647,5.5649,-4.453,6.5527,-5.986,-0.56641,1.2246,-25.7331,-0.90175,-3.3789,5.1074,-6.771,1.1662,12.1367,
16.7735,4.9898,-0.57019,-2.2768,-5.3859,-6.5582,1.3924,-25.8763,0.83935,-0.042922,3.5958,-3.2315,-7.8221,4.9004,
10.2237,3.0034,0.66908,-0.93469,-9.1598,-5.9235,-2.3064,-22.1544,10.6712,-1.2454,8.442,0.57803,-5.1834,12.5603,
14.1898,9.8128,-0.57613,7.0754,-8.3693,-3.3987,-1.4449,-15.2815,12.6822,-3.3401,14.4432,-7.4106,2.1177,17.3505,
15.2666,6.8144,-8.7363,-0.58,-9.3132,-11.3895,-4.7326,-17.7388,4.6909,-0.24715,8.274,-10.34,-0.90186,2.2095,
9.7708,0.37954,-9.4174,2.1059,-5.6211,-13.3577,-5.172,-15.9516,7.0605,8.2034,8.5004,4.0185,-1.0887,3.8844,
3.4002,-6.8738,-8.8521,1.0154,-3.3556,-12.5564,-9.1998,-20.2969,8.5649,-0.48379,12.3289,-0.078755,-1.0232,13.7745,
3.9191,0.046065,-6.6342,2.6417,-0.02105,-8.6696,-11.7813,-20.2844,10.2201,-3.5878,14.7227,-7.0639,2.1713,10.2969,
-1.8594,7.5153,-8.8873,5.6165,-5.5632,-11.7646,-14.2077,-14.9698,6.9561,4.0991,9.7418,-7.3632,-0.61034,0.27933,
-3.9172,6.8232,-2.8104,2.1463,-3.5424,-7.4435,-10.222,-11.4205,8.2257,7.9507,11.8086,-3.7881,-0.33252,3.8778,
-2.4771,4.2444,-1.9187,-2.562,2.2138,-2.8993,-13.7062,-13.8685,6.0452,0.48401,7.9668,-6.212,-1.5176,4.3682,
-0.88224,6.8823,-2.2855,-0.48012,2.5631,-8.5099,-15.7759,-13.0364,6.1644,-0.50935,4.5963,-4.393,-1.4266,3.6242,
3.75,5.7465,5.8054,5.0923,-1.688,-16.9174,-8.3219,-11.5311,8.4456,1.2084,12.7566,-2.4424,1.3101,6.0578,
11.238,8.7759,5.4568,9.1253,2.2694,-5.2973,-8.3047,-7.9469,6.0109,-5.1308,11.991,-4.7062,1.2317,3.7659,
24.6637,22.3493,5.6116,8.5776,10.328,9.1205,-11.1807,2.6528,6.6139,-4.8232,5.9691,1.8429,0.67567,7.8785,
37.2839,35.1084,8.4084,8.3043,-1.6197,22.6733,-12.197,1.2888,-4.1468,-7.1849,-3.3071,1.4914,-7.8005,4.7547,
49.1469,47.1019,12.7244,12.1442,-14.0558,35.4129,-10.9831,4.1035,-12.5749,-11.5743,-6.001,-3.4186,-12.6354,0.61283,
60.298,58.3758,13.8891,9.9697,-17.0688,47.3881,-17.073,15.4267,-9.4102,-11.8437,-6.1228,-12.3725,-14.2874,-1.3521,
70.7802,68.9732,18.3579,10.8173,-20.8654,58.6448,-21.8332,19.3216,-6.9174,-6.7948,-9.6118,-16.9328,-16.3227,-5.6093,
80.6333,78.9348,19.4261,12.3379,-29.0135,69.2261,-21.2461,20.8136,-10.1178,-5.1818,-12.1686,-10.8552,-17.9944,-6.4781,
89.8953,88.2987,18.5017,18.1053,-37.6365,79.1726,-23.1046,28.4829,-8.3052,-10.8966,-10.233,-3.214,-21.9762,-0.063599,
76.1864,97.1008,24.1401,23.2855,-44.0554,88.5222,-25.0928,31.1122,-3.9505,-13.6173,-6.245,-5.4315,-23.5501,3.3147,
77.8815,105.3748,24.6201,26.7089,-46.7145,97.3109,-23.587,29.7274,-6.1238,-6.5335,-4.9062,-7.9979,-22.6191,-3.151,
80.1983,113.1523,16.1528,28.7215,-57.6504,105.5722,-24.8235,31.559,-8.4077,-1.562,-7.7451,-1.9746,-23.9135,-7.5414,
66.7097,120.4631,14.7017,21.6961,-64.3143,113.3379,-24.298,31.5941,-5.4931,-6.289,-6.3165,-1.8562,-19.1042,-2.2682,
48.6072,113.5968,20.8094,21.5991,-57.322,117.9863,-20.6709,28.0112,-7.8147,-8.0808,-4.2503,-8.7344,-10.9681,0.037039,
37.1341,94.4887,17.8734,24.4008,-52.1956,109.7021,-20.1538,28.9819,-8.0689,-1.0882,-6.6466,-5.0771,-9.1049,-6.4729,
23.5781,77.4914,2.701,10.1625,-63.1639,95.6484,-27.8624,24.1097,-1.559,3.5566,-10.3449,0.28919,-15.5483,-10.664,
8.0634,60.3082,-7.7047,0.87542,-73.4741,84.6066,-35.3495,14.9501,-2.4296,1.4152,-10.2064,0.27161,-18.472,1.0628,
-6.5204,42.5897,-6.76,1.3053,-81.5989,73.2637,-38.0492,12.1249,-7.5864,0.8479,-7.1839,3.6298,-13.0249,10.1581,
-20.2292,25.9343,-10.211,-1.1834,-75.7386,61.6372,-44.4427,14.7721,-4.7209,4.6536,-8.1989,-0.92611,-12.2432,-2.9847,
-33.1154,10.2783,-0.68028,1.0568,-72.8815,60.5901,-41.0532,18.4651,-1.7865,8.4718,-5.5378,-8.3426,-12.7139,-11.7237,
-45.2285,-4.4384,13.4605,14.7317,-62.9653,66.3547,-24.49,20.9726,3.8643,10.615,2.7482,-2.2984,-1.5872,-0.17398,
-47.4557,-3.9309,0.4811,13.1249,-56.0541,54.9016,-22.1775,13.6882,4.3553,-1.8325,-1.996,-10.1145,-2.6972,-5.2252,
-30.5084,10.4049,-6.0555,10.168,-38.5908,65.3461,-16.7492,26.9669,5.2991,-0.99939,3.1852,0.37456,0.59831,1.596,
-37.7164,23.8806,-1.8358,9.076,-38.5648,68.1742,-14.78,36.0747,-8.0338,-5.2777,0.10206,8.5472,-5.7041,9.2135,
-46.0585,36.5478,12.3744,22.511,-31.4307,63.1192,-4.2524,30.0536,6.4272,4.1977,5.8803,9.48,2.3507,18.3014,
-57.395,29.1728,8.3782,7.4217,-32.6781,48.0041,-12.4332,17.8863,10.1392,6.1153,1.4299,-4.345,-1.8879,6.3573,
-68.0513,22.8429,4.7422,10.5921,-33.8507,42.4725,-12.4099,24.7671,4.4694,11.2917,5.9241,-1.9149,-1.5335,-0.049925,
-78.0682,9.662,12.4112,21.2845,-33.0249,38.7191,-7.0862,21.1121,6.8525,16.1581,9.6658,-5.8976,4.5843,-2.6983,
-87.4841,19.6878,13.595,10.3667,-25.2586,50.496,-9.0709,14.543,9.3337,11.3324,3.3015,-16.6307,2.3808,-5.4286,
-96.3351,32.6065,9.6458,0.34426,-15.7896,61.5662,-8.2862,24.9981,2.7481,6.0727,3.3439,-9.6076,-3.3056,1.4046,
-104.655,44.7501,5.4516,4.4214,-14.6008,43.7722,-3.6912,22.7753,3.3061,6.4313,3.3847,-3.0053,-2.3839,3.9718,
-112.4757,46.8854,15.9708,16.9306,-15.8941,27.0459,-9.0133,13.4551,6.2412,7.2507,-5.2545,-5.9585,-2.4823,-3.2564,
-119.8271,58.1722,29.1125,11.8169,-6.5046,13.8537,-13.5342,24.9398,-1.605,5.1284,-7.5904,-1.9856,-4.5025,-5.7121,
-126.7375,68.7819,16.399,-2.9921,7.9857,27.1225,-9.8299,31.1564,-15.6087,-2.8923,-10.5092,-7.6508,-6.1604,-10.1898,
-110.3359,78.755,6.9794,-9.1996,21.6066,18.3848,-0.32201,30.01,-12.8645,1.3786,-14.9403,-12.7353,1.1987,-13.1939,
-108.5362,66.4376,10.8992,5.4524,27.541,10.0511,2.1077,27.2453,-0.041303,8.045,-11.1516,-9.5609,5.9477,-11.4381,
-116.1241,75.7078,8.0756,1.8713,17.9346,14.5097,-7.4188,26.3339,-3.1723,-2.3201,-7.8314,-9.2286,1.0111,-9.0646,
-123.2566,85.2653,21.6911,5.6156,13.0021,16.0495,-10.3479,31.0206,-2.9817,-7.4833,-5.915,-7.2284,4.3251,-3.2183,
-129.9612,66.0494,34.4896,13.4732,15.5962,0.98653,-1.5325,20.0001,-0.39294,0.67825,-5.5604,-14.5077,5.5112,-7.8457,
-119.1508,47.9864,24.9487,6.8804,28.7604,-2.8088,12.6594,18.3179,4.9335,14.7376,2.0039,-17.4937,8.0733,-6.8928,
-97.9017,54.8687,9.3518,-7.6324,41.1348,4.5906,14.1899,31.3189,-2.5933,7.9482,-3.4185,-24.1568,6.1426,-12.2638,
-106.1276,60.4946,18.3114,-0.063857,44.4518,9.3768,9.2412,43.5397,-6.0532,2.4101,-4.9007,-18.6098,8.9075,-12.2513,
-113.86,45.2953,31.3127,14.04,55.2816,16.0446,16.881,55.0274,-6.6543,2.7475,-2.1965,-13.6373,9.3369,-12.9625,
-92.9284,56.6776,43.5339,5.6046,62.8109,26.892,20.9298,65.8257,-3.1216,0.89538,-2.7881,-7.7574,10.464,-11.4619,
-73.2527,67.3769,39.9573,4.7866,49.8835,31.5453,17.2641,75.9762,-3.8984,-2.0506,-12.7434,0.42106,0.67686,-5.9532,
-54.7575,49.2343,23.4599,7.8739,44.9623,24.8323,19.6027,65.513,0.19193,-3.8558,-11.4969,-6.3526,-10.4505,-3.6678,
-37.3721,53.6318,36.1523,7.4012,56.3645,13.2192,24.2109,50.0124,11.2674,-3.1423,3.2929,-18.9874,2.2274,-3.9299,
-21.0297,43.9062,48.0832,6.7164,56.9598,4.4726,20.1069,60.2682,11.315,-1.7487,9.4826,-20.0171,13.4222,-7.7912,
-5.668,27.1718,59.2982,0.52861,46.3111,2.2758,13.5981,59.0625,7.2614,3.1767,-0.72759,-14.4777,0.5655,-16.0011,
8.7721,11.4415,69.8403,-0.46721,46.4247,5.5135,10.3719,50.6983,6.3435,3.4683,0.28016,-16.0194,-8.6272,-15.5227,
22.3458,-3.345,79.7499,-0.19798,55.9315,7.834,15.2934,54.646,-4.4012,-2.7656,-0.94171,-23.4939,-5.4583,-13.3863,
35.1051,-17.2443,89.0649,-5.2478,55.2267,1.3379,11.7242,46.7875,-18.2371,-13.9278,-14.9852,-36.1843,-12.603,-26.6831,
47.0987,-30.3096,91.0725,-16.9842,47.575,-5.9725,0.89765,30.0012,-31.2429,-26.5898,-28.1861,-41.8467,-25.8259,-39.1821,
58.3728,-42.591,98.6234,-23.1958,51.9511,-3.2042,11.9312,21.4525,-35.1529,-30.2968,-26.4949,-40.3,-24.7585,-33.9392,
68.9705,-54.1356,90.7782,-29.0349,56.0649,-14.5812,16.518,6.1856,-46.0587,-34.7455,-38.4026,-51.982,-31.9497,-46.0028,
78.9322,-64.9874,71.2315,-38.1391,63.5473,-21.1781,9.9833,2.6814,-49.3212,-32.4198,-47.4266,-62.9631,-34.1305,-57.3426,
88.2963,-75.1882,69.488,-36.5736,60.4573,-20.1484,3.8407,3.7253,-38.8901,-32.1618,-40.9656,-52.1954,-30.8774,-64.2659,
97.0985,-84.7769,64.5958,-44.2611,66.7118,-31.232,3.3688,-9.7546,-50.6567,-42.5246,-52.6077,-63.1637,-39.3891,-74.51,
105.3726,-92.2238,61.2018,-45.4621,68.9759,-35.1429,0.75635,-8.2052,-61.7173,-38.5271,-62.5876,-73.4739,-39.918,-72.0885,
84.9502,-100.7903,43.4297,-28.6343,50.7373,-47.1343,-13.389,6.3871,-43.9142,-22.1155,-44.7323,-54.9654,-38.0049,-53.6632,
65.7532,-108.8429,26.7239,-12.8163,33.5931,-58.4062,-26.6857,18.6577,-27.1794,-6.6886,-27.9484,-37.5675,-38.8577,-36.3434,
47.708,-116.4124,11.0205,2.0527,17.4775,-69.0019,-39.1845,16.5741,-11.4486,7.8127,-12.1715,-21.2135,-48.0955,-20.0628,
30.7456,-123.5276,-3.7408,16.0295,2.3288,-78.9618,-50.9335,29.6796,3.3383,21.444,2.6588,-5.8407,-43.7639,-4.759,
14.8008,-130.216,-17.6163,29.1678,-11.9109,-88.3241,-61.9775,41.9989,17.238,34.2573,16.5993,8.6098,-41.8609,9.6265,
-0.18723,-136.503,-30.6593,41.5177,-25.2962,-97.1246,-72.3588,53.5789,30.3037,46.3019,29.7033,22.1932,-45.616,23.1489,
-14.276,-142.4128,-42.9198,53.1266,-37.8785,-105.3971,-82.1173,51.2079,42.5855,57.6238,42.0211,34.9616,-40.9509,35.86,
-27.5194,-147.968,-54.4446,64.039,-49.7058,-113.1733,-91.2903,49.3405,54.1304,68.2664,53.5999,46.9639,-39.6989,47.8084,
-39.9683,-153.19,-65.2779,74.2967,-60.8234,-120.4829,-99.9128,38.6673,64.9825,78.2704,64.4839,58.2461,-47.922,59.0399,
-51.6702,-158.0986,-75.4612,83.9389,-71.274,-127.3539,-108.0181,22.2473,75.1836,87.6741,74.7148,68.8513,-44.3236,69.5975,
-62.67,-162.7127,-85.0336,93.0026,-81.0976,-133.8127,-115.637,6.8124,84.7726,96.5137,84.3319,78.8202,-42.1464,79.5216,
-73.0098,-147.5268,-94.0315,101.5224,-90.3317,-139.8839,-122.7988,-7.6963,93.7862,104.8229,93.372,88.191,-52.3919,88.8503,
-82.7292,-152.7752,-82.3638,109.5311,-99.0118,-145.5909,-129.5308,-21.3345,102.259,84.4335,101.8697,96.9996,-51.6586,97.6193,
-91.8654,-157.7086,-90.9194,117.0592,-107.1711,-150.9554,-135.859,-11.8596,110.2235,93.4675,109.8575,105.2796,-48.5592,105.8622,
-100.4535,-162.3461,-99.5642,124.1356,-114.8408,-155.9981,-141.8074,2.9519,117.7101,101.9594,117.3661,113.0628,-51.1891,113.6104,
-108.5263,-166.7054,-107.6904,130.7875,-122.0504,-160.7382,-147.399,16.8748,124.7475,109.9419,124.4241,120.379,-45.4666,120.8938,
-116.1147,-151.4005,-113.0392,137.0403,-128.8274,-165.1939,-152.6551,27.6726,131.3626,117.4454,131.0587,127.2563,-29.7231,127.7402,
-123.2478,-156.4165,-110.3543,142.9178,-135.1977,-169.3823,-157.5958,30.1097,137.5809,124.4986,137.2951,133.7209,-19.9858,134.1758,
-129.953,-161.1315,-91.6819,148.4428,-141.1859,-173.3194,-162.24,16.2519,143.426,131.1287,143.1574,139.7977,-19.7509,140.2252,
-136.2558,-165.5636,-72.0809,153.6362,-146.8147,-177.0202,-138.4056,1.1768,148.9205,109.161,148.668,145.5098,-30.8581,145.9117,
-142.1804,-169.7298,-53.6561,132.1256,-152.1058,-180.499,-116.0013,-12.9938,154.0852,88.5113,153.8479,139.4304,-41.058,151.257,
-147.7496,-173.646,-36.3367,110.0981,-157.0795,-160.3892,-94.9412,-26.3142,158.9401,69.1007,158.717,116.9646,-45.1022,156.2816,
-152.9846,-177.3272,-20.0565,89.3922,-161.7547,-136.6658,-75.1447,-38.8353,163.5037,50.8546,163.294,95.8467,-42.6371,161.0047,
-157.9056,-180.7876,-14.9966,69.9287,-161.3287,-115.0889,-56.536,-40.3617,162.973,33.7033,167.5964,75.9959,-34.5353,141.8241,
-136.7415,-184.0403,-14.5789,51.633,-137.549,-100.4707,-39.0439,-37.458,147.4102,17.5811,171.6406,57.3362,-27.1604,127.0483,
-138.9012,-187.0979,-14.9093,42.2683,-120.9809,-95.1657,-27.1805,-34.0053,147.4833,2.4263,175.4422,39.796,-25.7721,126.4149,
-144.6671,-189.9721,-15.943,53.8322,-127.822,-101.989,-39.5292,-30.0368,152.7343,-11.8193,179.0156,23.3082,-18.9231,132.93,
-150.0871,-192.6737,-16.6735,61.328,-134.2527,-102.3775,-37.8805,-26.5475,157.6702,1.7849,182.3747,30.1047,-6.9416,139.0542,
-155.1819,-195.2133,-13.745,71.7483,-140.2975,-105.8757,-49.7077,-26.8827,162.31,8.9088,185.5322,31.6727,-7.9712,144.811,
-159.971,-197.6005,-13.4024,81.5434,-145.9797,-113.6231,-60.8252,-24.7877,166.6714,8.8563,188.5003,40.8595,-11.3492,150.2223,
-161.942,-199.8445,-12.8392,72.7944,-144.9338,-112.7109,-45.6065,-23.0595,170.7711,11.4582,191.2903,47.3258,-5.6068,139.7628,
-138.1255,-201.9538,-0.017502,54.3267,-122.1378,-91.8483,-28.7701,-33.7272,146.4249,-3.3293,165.7128,30.3862,-8.6447,117.2771,
-115.7379,-203.9366,14.0835,36.9671,-100.7095,-72.2374,-12.9439,-42.5496,123.5394,-17.2296,141.6701,14.463,-10.2954,96.1404,
-94.6936,-205.8004,27.3385,20.6491,-80.5669,-53.8031,1.9327,-29.6327,102.027,-30.2958,119.0699,-0.50475,4.4224,76.272,
-74.912,-207.5524,39.7982,5.3102,-61.6329,-36.475,15.9168,-38.2188,81.8054,-42.578,97.8257,-14.5745,18.257,57.5957,
-56.3173,-209.1992,51.5103,-9.1084,-43.8349,-20.1865,29.0617,-21.8257,62.7971,-54.1234,77.8561,-27.8,31.2616,40.04,
-38.8383,-210.7473,62.5197,-22.6619,-27.1048,-4.8753,41.418,-6.4161,44.9292,-64.976,59.0848,-40.232,43.4859,23.5376,
-22.408,-212.2024,72.8685,-35.4022,-11.3785,9.5172,53.033,8.0688,28.1335,-75.1774,41.4397,-51.9181,54.9767,8.0253,
-6.9635,-213.5703,82.5964,-47.3781,3.4042,23.0462,63.951,21.6847,12.3455,-84.7668,24.8533,-62.903,65.7781,-6.5562,
7.5543,-214.8561,91.7406,-58.6354,17.2999,35.7634,74.2139,23.7578,-2.4953,-93.7807,9.2621,-73.2288,75.9315,-20.2628,
21.2011,-216.0647,100.3362,-69.2173,30.3619,47.7176,83.8611,23.2965,-16.4455,-94.0589,-5.3936,-82.9351,85.4756,-33.1471,
34.029,-217.2008,108.416,-79.1642,42.6402,58.9546,92.9294,26.9601,-29.5588,-94.4411,-19.17,-92.059,94.447,-45.2582,
46.0873,-218.2688,116.0111,-88.5144,54.1818,69.5173,101.4537,23.8965,-41.8853,-94.077,-32.1198,-100.6354,102.8802,-56.6428,
57.422,-219.2726,123.1504,-97.3035,65.0309,79.4463,109.4664,17.4013,-53.4722,-92.53,-44.2926,-108.6973,108.9996,-67.3442,
68.0767,-220.2163,129.8614,-105.5653,75.229,88.7795,116.9985,21.901,-64.3638,-92.5221,-55.7351,-116.2755,113.3061,-77.4035,
78.0921,-221.1033,136.1697,-113.3314,84.8153,97.5527,124.0785,26.8532,-74.602,-93.237,-66.491,-123.3989,113.7383,-86.8593,
87.5066,-221.9371,142.0995,-120.6315,93.8264,105.7996,130.7338,25.0011,-84.2259,-87.4018,-76.6015,-130.095,112.4576,-95.7478,
96.3562,-222.7209,147.6735,-127.4936,102.2968,113.5516,136.9898,26.1526,-93.2723,-84.8093,-86.1054,-136.3893,107.3974,-104.1029,
104.6748,-223.4576,152.9131,-133.944,110.259,120.8385,142.8704,30.6087,-101.776,-85.746,-95.0391,-142.306,104.5688,-111.9567,
112.4943,-224.1502,157.8383,-140.0074,117.7434,127.6882,148.3982,26.6031,-109.7694,-78.4321,-103.4367,-147.8676,109.1409,-119.3393,
119.8447,-224.8012,162.468,-145.7069,124.7788,134.1269,153.5943,21.8736,-117.2833,-70.5929,-111.3305,-153.0955,114.8847,-126.279,
126.754,-225.4131,166.82,-151.0645,131.3921,140.1793,158.4786,27.792,-124.3463,-73.5882,-118.7507,-158.0098,113.2943,-132.8022,
133.2487,-225.9883,170.9108,-156.1006,137.6086,145.8685,163.0699,32.1501,-130.9855,-75.1984,-125.7257,-162.6292,107.7015,-138.9341,
139.3538,-226.529,174.7561,-160.8346,143.4521,151.2164,167.3857,27.3288,-137.2264,-67.7942,-132.2821,-166.9715,101.2396,-144.698,
145.0926,-227.0373,178.3707,-165.2845,148.9449,156.2434,171.4426,21.8327,-143.0928,-59.8702,-138.4452,-171.0532,100.4679,-150.1162,
150.487,-199.315,181.7685,-169.4675,154.1082,160.9688,175.256,20.5227,-148.6072,-56.278,-144.2385,-164.6463,102.1526,-155.2092,
155.5578,-173.2561,184.9624,-173.3994,158.9618,165.4107,178.8407,25.799,-153.7908,-59.409,-149.6842,-159.8289,95.7822,-159.9966,
160.3243,-149.1221,187.9646,-177.0954,163.524,169.586,182.2102,30.0357,-158.6633,-61.6291,-154.8031,-160.3621,91.9639,-164.4968,
164.8049,-126.0748,190.7868,-180.5697,167.8126,173.5109,185.3776,29.6798,-163.2435,-59.3776,-159.6149,-153.151,88.3738,-168.727,
169.0166,-104.4103,193.4396,-183.8355,171.8438,177.2002,188.355,30.5501,-167.5489,-58.466,-164.138,-144.6848,81.3846,-172.7034,
172.9756,-84.0457,195.9332,-170.5154,175.6332,180.6682,191.1537,29.4402,-171.596,-55.6812,-168.3898,-135.763,79.6348,-176.4412,
176.6971,-64.9029,198.2772,-166.5512,179.1952,183.9281,193.7844,23.3353,-175.4002,-48.0018,-172.3864,-119.9042,71.4821,-179.9547,
180.1952,-46.9088,180.1135,-158.969,182.5435,186.9924,196.2574,22.4173,-178.9762,-45.6038,-176.1432,-120.9049,64.3008,-183.2574,
183.4835,-29.9942,183.4067,-135.3308,185.6909,189.8729,198.5819,25.893,-182.3376,-47.6883,-179.6746,-127.7506,73.4582,-186.362,
186.5745,-14.0946,184.8155,-115.7616,188.6494,192.5805,200.767,21.4469,-185.4974,-41.9345,-182.9941,-120.9292,76.2816,-189.2803,
189.48,0.8511,159.6266,-122.9159,191.4305,195.1257,202.821,14.3755,-188.4675,-33.6338,-186.1145,-99.5734,60.1355,-192.0235,
192.2112,-0.88742,137.8772,-118.5542,194.0447,197.5181,204.7517,13.7539,-191.2595,-31.8568,-189.0476,-104.0836,54.3582,-194.6021,
194.7786,7.6022,139.4867,-102.0407,196.502,199.7671,206.5666,15.58,-193.8839,-32.5967,-191.8048,-101.4538,56.6401,-192.3258,
197.1918,8.5919,117.0175,-98.8108,198.8119,201.881,185.6161,16.0915,-196.3509,-32.0872,-194.3965,-84.7617,46.4933,-180.3043,
199.4603,9.7636,99.2704,-91.6769,200.9831,190.0093,168.9355,14.4026,-198.6698,-29.4386,-196.8327,-74.1324,41.0521,-173.5834,
201.5927,23.2778,95.7246,-85.2121,203.0242,179.0904,161.2098,11.6105,-200.8496,-25.7443,-199.1227,-63.4177,44.3733,-159.7942,
203.5972,26.5813,83.2327,-83.4739,204.9427,159.6683,141.4143,13.324,-193.2577,-26.6098,-201.2754,-57.6844,38.3369,-153.0986,
205.4813,10.8864,68.3565,-78.7062,206.7461,137.7959,118.8294,13.7296,-182.8673,-26.2182,-203.2988,-52.5359,29.0471,-148.4922,
207.2524,2.6407,54.8549,-69.4047,208.4414,123.5024,104.1071,6.3981,-162.0131,-18.1374,-205.2009,-39.0201,28.5093,-126.3265,
208.9173,3.4466,46.2614,-58.9735,210.0349,106.9337,91.5942,2.1579,-139.7588,-13.1928,-195.5397,-32.8221,30.6551,-104.6469,
210.4823,-8.5705,42.7624,-52.3016,211.5328,88.2252,76.2166,3.7156,-126.3121,-14.0885,-174.4073,-33.9862,26.1647,-90.0527,
211.9533,-22.1563,36.5812,-40.2459,212.9408,76.4237,65.6181,1.8055,-114.6355,-11.5559,-152.6147,-29.7779,19.5332,-78.1416,
209.6006,-34.9269,24.2634,-32.0466,214.2644,61.2334,59.7523,-2.6412,-97.6345,-6.5242,-134.7807,-28.9551,20.2894,-70.561,
182.9245,-18.7313,12.4435,-29.8826,215.5085,43.4594,46.2855,-5.134,-81.8943,-3.4815,-117.2941,-27.9409,21.2414,-65.1223,
157.8491,-3.5074,3.502,-21.8229,216.678,26.7519,29.4084,-5.7901,-72.1601,-2.3085,-99.6509,-15.1775,15.6284,-53.0196,
134.2781,-17.397,-5.1438,-18.3443,217.7773,11.0468,13.5439,-9.0581,-56.0204,1.4454,-83.308,-1.4924,8.6651,-38.9926,
112.1214,-2.2532,-11.3431,-15.5565,218.8107,-3.716,-1.3688,-14.5402,-44.2235,7.3843,-77.1047,3.6589,2.6016,-36.894,
91.2941,11.982,-24.7625,-28.7231,203.8747,-17.5931,-15.3866,-27.7678,-55.6701,-7.1588,-86.5784,-10.6607,-11.6545,-48.7804,
71.7165,25.3631,-37.3768,-41.0997,177.5422,-30.6375,-28.5634,-40.2017,-66.4299,-20.8293,-95.4837,-24.121,-25.0552,-59.9535,
53.3135,37.9413,-49.2342,-52.7337,152.7897,-42.8992,-40.9496,-51.8896,-76.5441,-33.6795,-103.8547,-36.7738,-37.6519,-70.4563,
36.0147,49.7648,-60.3801,-41.2545,129.5223,-54.4253,-52.5927,-62.8762,-84.364,-45.7587,-97.5029,-48.6673,-49.4928,-56.9494,
19.7538,60.8789,-70.8573,-24.6792,107.6509,-50.4371,-63.5371,-61.9959,-65.2021,-57.1132,-77.5527,-59.8473,-60.6232,-39.4325,
4.4686,71.3262,-80.7059,-9.0985,87.0919,-45.2415,-73.8249,-52.7328,-47.19,-46.0939,-58.7996,-42.1565,-71.0858,-22.9665,
-9.8995,81.1466,-89.9635,5.5474,67.7664,-53.1318,-83.4954,-48.6045,-30.2586,-29.2283,-41.1716,-25.5271,-80.9207,-7.4885,
-23.4056,90.3778,-98.6657,15.4582,49.6004,-57.6569,-92.5857,-44.7241,-18.1995,-20.8466,-24.6013,-18.5723,-78.8375,-0.65199,
-36.1012,99.0552,-106.8458,12.1208,32.5244,-59.9819,-101.1305,-43.0048,-20.4817,-31.6471,-24.0889,-21.7965,-73.1431,-3.9876,
-48.0352,107.2119,-96.217,4.1627,16.4729,-69.8808,-104.9449,-45.7271,-20.6991,-29.7483,-27.9462,-16.1504,-63.4519,-9.0505,
-54.0711,114.8791,-84.6594,6.3231,13.1947,-70.0262,-98.6482,-44.9117,-25.2417,-20.7326,-29.1619,-11.8069,-57.7166,-6.0973,
-64.9268,122.0864,-82.9538,11.7283,10.9572,-61.9683,-88.8729,-44.1452,-23.7272,-26.719,-22.5915,-14.473,-52.3254,1.0174,
-75.1312,128.8612,-86.6539,17.7733,-3.8002,-58.7323,-87.8791,-43.9068,-10.7347,-28.0086,-11.1129,-16.015,-46.7755,3.3663,
-80.5058,135.2295,-84.3469,15.7428,-17.6722,-55.6906,-91.2832,-42.2365,-5.2701,-12.8305,-5.6261,-8.7873,-43.0049,6.0566,
-61.5754,141.2158,-79.5271,14.5572,-12.2736,-51.6258,-85.0828,-40.4252,-7.1231,-4.1069,-9.3854,-0.30634,-39.7017,11.2368,
-43.7809,146.8428,-73.0682,19.2274,-3.5834,-45.8771,-77.8092,-41.1332,1.74,-4.5839,-7.1355,3.3275,-34.1861,15.1419,
-27.054,152.1323,-59.2844,11.5661,0.7287,-36.6168,-78.684,-45.6549,2.3592,-9.3703,-3.5741,-5.79,-25.1453,8.208,
-11.3308,157.1043,-44.1579,7.9798,14.785,-21.8865,-68.6605,-54.9669,-8.8698,-1.0951,-9.144,-4.9605,-11.5853,1.9308,
3.4491,161.7781,-37.8928,13.5268,27.9979,-8.7625,-50.4409,-62.033,-3.2757,13.0706,-10.7643,9.4372,-0.52605,15.5535,
17.3421,166.1714,-31.5223,15.8482,40.418,5.8632,-44.1605,-62.4084,1.982,17.4686,-6.5035,16.9452,3.6029,20.1639,
30.4016,170.3011,-19.0255,15.8614,52.0929,19.6114,-41.5106,-61.0742,-11.6345,2.3204,-9.9695,1.8285,5.7971,6.4208,
42.6775,174.183,-4.869,18.7661,63.0674,29.0394,-24.92,-63.1943,-6.1157,6.64,-6.4792,3.7674,11.2338,15.1946,
54.2168,177.832,-1.4434,21.7375,70.491,28.5023,-14.6274,-73.5027,7.9896,20.3416,-1.9931,17.6414,8.3906,28.3829,
65.0638,181.2621,-6.6592,18.5053,60.4772,32.0946,-23.8729,-83.1925,2.2078,25.5086,-3.8015,12.3651,7.887,17.6414,
75.26,184.4864,-10.3572,15.708,52.751,40.0511,-29.4302,-81.8164,-2.9861,19.8805,-3.8146,6.5617,11.5113,9.1113,
84.8444,187.5172,-9.4946,15.9706,53.2016,46.5658,-25.495,-78.5944,-0.63757,18.4465,-4.7908,12.1938,11.0618,13.6261,
93.8537,190.3662,-1.6943,13.0839,60.6146,52.4487,-18.1809,-74.8428,-3.0097,16.3756,-7.3956,14.8364,11.3622,15.7008,
102.3225,193.0442,4.6741,15.1912,59.388,55.569,-18.0542,-67.46,-5.7214,12.0188,-6.4697,9.1257,14.0547,13.7947,
110.2832,195.5616,-0.90899,13.3154,55.8243,55.1269,-19.8634,-63.8948,-4.4142,11.2977,-6.5639,9.542,13.2114,11.5207,
117.7662,197.9279,-10.7364,2.6345,53.6801,43.8651,-17.9483,-70.4249,-7.2829,14.2352,-12.6776,9.6924,8.8033,3.3577,
124.8002,200.1522,-11.0563,3.4405,53.3516,31.1106,-12.5328,-73.4301,-10.2201,10.0069,-12.881,-1.9761,11.6493,2.674,
131.4122,202.2431,-13.5264,6.8495,50.3915,30.4488,-9.6117,-66.8556,-5.5096,2.4166,-5.6007,-4.991,17.9403,11.4317,
137.6275,204.2085,-24.043,7.6438,33.268,18.258,-14.5786,-65.0129,1.329,3.9588,-1.1668,-1.0762,15.1766,12.9149,
143.4698,206.056,-28.6257,6.4621,17.1719,3.0625,-17.8015,-66.656,5.3468,9.2647,3.4827,1.6397,8.7226,13.8275,
148.9616,207.7926,-31.7289,3.6642,13.4903,-8.329,-17.2153,-60.246,-1.241,12.0833,2.3094,12.6286,4.8248,14.4436,
154.1239,209.4251,-34.4047,6.5776,11.4758,-1.8035,-16.4236,-52.0522,-3.3359,10.1532,0.48385,18.8605,5.7404,16.7103,
158.9765,210.9595,-37.6431,3.2905,-3.3128,-13.7468,-20.7408,-53.7493,10.9642,9.544,5.7575,8.5698,5.396,18.6002,
163.5379,212.402,-40.2052,1.6468,-13.1166,-20.6348,-29.6193,-50.5248,17.8989,14.756,5.8939,3.7173,-0.71236,15.0736,
167.8256,213.7579,-33.9363,13.5997,1.7704,-5.2967,-19.1653,-33.3934,4.7737,9.0501,6.0225,13.1355,4.1509,23.8104,
171.8561,215.0324,-24.1871,23.8708,13.113,9.1211,-3.9153,-18.9765,8.3434,-2.098,16.2657,20.0599,14.5069,36.4817,
175.6447,216.2304,-23.7,27.259,-1.7737,6.8869,2.4658,-19.7659,19.8946,-0.52605,23.4852,14.5182,12.1904,33.2087,
179.206,217.3566,-33.6064,20.0801,-15.7673,-7.6264,-11.7821,-25.57,17.9778,4.567,24.7269,12.924,6.3976,29.5287,
182.5537,218.4152,-41.7127,14.5367,-28.9213,-13.0741,-16.0162,-27.4101,13.5249,6.7033,23.2435,17.451,3.6033,34.0238,
185.7005,219.4103,-47.887,8.8438,-35.2602,-19.0381,-20.3578,-30.1038,12.231,8.7112,14.1362,14.4757,0.97702,20.4132,
188.6584,220.3457,-49.3523,-5.7868,-41.8219,-22.7167,-31.1877,-34.0824,4.2665,12.5271,-0.20959,12.1611,-3.4202,6.6547,
191.4389,221.2249,-43.2579,-13.2731,-44.856,-19.6663,-33.8959,-30.8324,-5.3897,17.8013,-9.5968,16.4929,-9.2407,12.2812,
194.0526,222.0515,-38.4933,-11.2714,-37.5854,-15.3533,-28.2468,-22.9569,-8.1998,11.1896,-11.1906,8.5135,-3.1427,8.4108,
186.8685,222.8284,-37.8707,-5.0513,-29.7864,-8.8882,-22.9363,-21.3383,-2.164,0.63603,-5.9392,0.049157,6.9281,-1.0117,
161.5564,223.5587,-39.937,0.5542,-42.0992,-5.9446,-23.9705,-14.7555,5.1969,9.2747,-0.76235,14.1462,-2.1645,9.1722,
137.763,224.2451,-41.3972,1.4853,-53.6733,-4.1416,-24.9424,0.10953,12.116,14.0209,10.3706,25.228,-7.3373,22.7218,
115.3972,224.8904,-44.2158,8.6268,-64.5529,-9.196,-21.0359,3.9591,22.476,-0.79987,23.8484,9.6144,7.0825,22.2024,
94.3734,225.497,-45.4192,10.5193,-64.1744,-15.8751,-17.8456,-2.063,26.912,-2.6801,23.7428,5.7835,8.5857,6.8905,
88.229,226.0672,-40.2839,14.7088,-59.3601,-7.2094,-15.3286,5.774,22.4048,5.1935,18.4618,19.5365,0.35781,17.0823,
88.2382,226.6032,-37.3847,22.0213,-55.3163,4.3102,-17.3012,17.9608,18.1682,3.4359,17.3544,28.8491,1.7824,30.1574,
68.8439,227.107,-43.8185,10.5768,-64.5306,-3.1795,-26.8682,9.6521,15.6321,5.6401,11.0102,23.2616,-0.73493,24.3709,
50.6132,227.5805,-50.8306,2.7112,-74.7587,-17.0887,-36.8255,-1.0502,8.9093,12.5323,4.0829,17.0454,-7.9214,11.8211,
33.4764,228.0257,-58.1451,5.682,-83.8915,-18.1121,-44.4979,2.6283,4.2774,13.9495,8.8996,12.8892,-9.6153,17.1379,
17.3679,228.4442,-65.2612,1.4847,-91.391,-12.2046,-51.9509,2.953,3.0569,16.487,8.3656,13.0802,-12.4129,15.1457,
2.2258,228.8375,-61.8275,-5.3529,-99.4049,-12.9182,-53.6541,-3.4912,0.94531,17.426,2.0795,12.2954,-13.5963,0.25725,
-12.0078,229.2073,-59.5641,-4.5502,-106.9385,-15.518,-52.8454,-2.7998,7.1551,10.1139,7.7389,6.255,-6.514,-1.2044,
-25.3873,229.5548,-63.7032,9.8228,-114.6221,-12.6585,-55.4595,8.9376,20.8258,9.0249,21.3746,11.1821,-5.641,12.9678,
-37.9641,229.8815,-58.917,22.6105,-121.8448,-11.4168,-63.2189,14.6681,28.1326,13.3039,28.6485,20.6343,-10.123,26.2898,
-49.7862,230.1887,-55.8641,28.0026,-128.6341,-6.3937,-58.9436,21.9829,30.7832,14.4341,31.75,18.4322,-0.35682,34.5945,
-60.899,230.4773,-66.0096,28.733,-135.0161,8.0899,-46.2485,33.6794,32.3107,6.8191,34.1838,12.9879,-0.81735,34.4471,
-71.3451,230.7487,-49.0334,34.2396,-141.0151,21.7045,-45.8834,44.6738,34.7106,11.2305,35.0251,26.3086,-8.9628,46.4802,
-81.1644,231.0038,-31.9914,46.2853,-146.413,34.5023,-49.8791,52.1165,32.1458,24.0542,34.8515,38.8301,1.2157,51.2839,
-90.3945,231.2435,-33.5668,41.9414,-137.6282,40.748,-43.5119,48.9895,25.8783,24.5392,31.3146,47.3466,7.4093,39.0479,
-99.0709,231.4689,-45.6528,28.097,-131.5399,44.3284,-35.8397,48.2195,35.1721,32.9485,38.3536,34.1417,3.8315,44.1766,
-107.2266,231.6808,-47.132,40.5111,-135.9396,30.8225,-39.2334,50.8695,46.3177,45.0716,48.8264,46.1932,9.6271,55.626,
-114.893,226.3361,-36.832,44.7084,-136.2191,16.6808,-37.1202,53.8431,50.0468,52.8521,54.8151,57.5216,23.1495,63.2552,
-122.0994,222.1559,-38.7194,38.8924,-132.1433,3.3879,-33.2057,45.5509,52.1052,53.7783,55.6235,56.9626,23.5682,58.2546,
-128.8735,194.7266,-35.9146,43.7895,-126.6251,-10.9154,-32.1775,34.1409,57.6557,52.962,59.0348,49.2063,16.8517,50.4207,
-135.2411,168.943,-33.5185,43.332,-114.4481,-24.3604,-24.7035,36.672,62.1504,48.0973,63.9286,55.1717,19.4558,47.6367,
-141.2266,144.7064,-41.3893,32.7779,-103.0019,-27.9605,-23.4622,37.1232,57.6985,44.4881,55.0312,52.1024,17.0836,45.5018,
-146.853,137.591,-34.3262,35.8729,-87.9037,-17.8467,-15.0646,38.9932,61.2264,50.2549,56.3091,63.0763,22.0842,56.8717,
-152.1418,119.9355,-29.6155,38.2998,-82.3885,-30.8759,-12.4735,36.4126,59.2396,42.6599,60.8843,65.4379,26.3027,62.0158,
-157.1133,98.6394,-32.9003,36.7252,-78.65,-43.1234,-16.3048,35.4327,52.5522,35.0391,57.4722,54.5218,25.9299,48.8949,
-161.7865,78.621,-32.6133,35.2448,-76.5824,-42.9463,-15.5673,35.9581,43.8552,37.5158,54.2651,54.3837,19.3122,50.0583,
-166.1793,59.8038,-27.5232,39.1554,-74.1568,-53.1442,-8.1255,35.97,44.8396,42.2549,60.4089,61.0029,17.4303,57.9008,
-170.3086,42.1156,-28.2824,34.8779,-67.7792,-64.0556,-0.88956,31.8836,55.6465,49.8425,64.9791,62.1634,24.0973,50.0885,
-174.19,25.4886,-29.2366,35.4368,-63.9534,-62.7431,-2.041,30.2115,62.1897,60.952,62.7676,63.9772,22.8928,47.8065,
-177.8386,9.8593,-27.7231,41.7465,-64.6957,-67.8959,-5.0518,32.9784,64.0021,70.6722,63.5815,62.308,16.4578,58.6767,
-181.2683,-4.8323,-27.024,35.8672,-58.8858,-72.4997,-1.3747,29.0715,64.0179,60.1649,62.6587,59.5334,19.8082,58.0481,
-184.4922,-18.6423,-23.2334,31.0636,-53.6654,-66.4625,0.395,25.6399,60.4183,51.0114,58.1758,55.7204,21.2713,47.5754,
