"AF3","AF4","F3","F4","F7","F8","FC5","FC6","O1","O2","P7","P8","T7","T8",
94.7229,18.559,-35.4308,-89.4205,71.1026,-39.7692,-67.7282,83.1537,-125.5745,75.441,-18.559,-57.1231,72.5489,74.959,
74.9395,31.5455,-19.205,-69.9553,52.7365,-51.483,-49.5645,64.0645,-103.94,56.8145,-3.3455,-67.7957,54.096,56.3615,
56.3432,43.7528,-3.9527,-51.6579,38.1234,-50.6839,-32.4906,46.1206,-83.6036,39.3056,10.9552,-49.628,36.7502,38.8798,
38.8626,50.7686,10.3845,-34.4585,49.936,-61.7429,-24.7564,29.2534,-64.4874,22.8473,22.8314,-36.286,20.4452,29.3162,
22.4308,33.6224,-2.1692,-46.491,43.4449,-47.7947,-37.371,13.3982,-74.7181,7.3765,7.3615,-48.2088,17.6517,24.9059,
35.185,17.5051,-16.1391,-57.8015,35.5358,-45.8911,-49.2287,26.6943,-84.335,21.0339,-7.1802,-59.4163,30.6926,37.5115,
18.9739,2.3548,-28.3068,-68.4334,19.3036,-57.2376,-34.4651,10.9927,-65.1749,5.6718,7.3506,-42.113,14.7511,21.1608,
3.7354,16.3135,-12.5084,-50.2274,29.3531,-39.7034,-18.2972,-3.7669,-47.1644,-8.7685,21.0096,-25.4862,-0.23398,5.9119,
2.186,29.4347,2.3421,-33.1138,39.1616,-51.4212,-16.1143,-17.6409,-30.2346,-21.6192,17.0977,-36.8518,9.5417,19.6572,
-6.3813,17.6662,9.1914,-45.2269,35.6066,-62.4359,-29.2475,-8.8694,-42.5205,-14.7785,1.9718,-48.7407,16.4406,12.8134,
0.26809,2.5062,-5.4601,-56.6133,24.3111,-54.8334,-41.5926,-0.6245,-53.1052,-3.2865,-11.2826,-31.7162,10.152,10.1164,
4.1086,-11.7441,-19.2325,-58.2782,8.7525,-59.2564,-30.4207,-14.5665,-35.8189,-10.8023,3.4944,-29.0906,-4.5572,-2.5419,
-10.2379,3.0605,-3.9785,-40.6815,22.3273,-41.601,-14.4954,-27.7926,-19.5697,-24.2541,17.3847,-13.2451,7.4057,11.7106,
4.4764,12.1566,4.5756,-24.1406,21.4696,-53.2049,-27.2433,-12.025,-32.4955,-8.6989,2.2416,-26.5504,7.4437,14.262,
-9.8922,25.1653,15.6295,-23.656,33.92,-53.1457,-20.5473,-14.9189,-17.4097,-18.5408,1.7457,-39.0574,18.8075,23.7703,
-12.3114,23.6554,0.59173,-26.0933,36.2231,-35.8569,-5.2144,-7.7573,-2.2651,-9.7156,15.7409,-22.614,23.4631,33.4313,
2.5272,8.1361,-13.5438,-27.661,19.9497,-47.5645,-19.0016,-4.6403,6.186,-1.1789,21.1837,-7.1571,7.9554,17.3255,
-11.7244,15.2404,1.3689,-11.9013,8.9915,-38.9259,-3.7615,-7.7363,2.4408,-8.339,34.0127,-4.9198,6.8758,9.8987,
3.0791,0.226,1.6481,-25.2872,6.0413,-50.6903,-17.6358,6.8279,-11.8056,6.2613,17.8719,-18.7246,10.3196,13.1611,
-11.2057,4.1893,11.6722,-9.67,19.7789,-57.1694,-11.0338,-7.6818,3.0027,-8.2144,19.6923,-29.5317,23.8004,19.1206,
-24.6333,18.038,-3.0079,5.0102,32.6921,-39.6392,3.7282,-20.2366,16.9226,-21.2191,32.6108,-13.6598,26.1079,32.0734,
-9.0553,2.8557,-15.6014,-9.3904,16.6306,-23.1609,-3.1239,-6.7296,1.8072,-5.8459,16.5542,-2.5968,10.4415,16.049,
-13.3325,-11.4157,-8.8807,-22.927,1.5328,-7.6712,-17.0364,5.2431,-12.4012,-3.9282,1.4609,11.659,-0.91058,0.98607,
1.5675,-18.0822,4.6674,-24.6847,15.5408,-21.3109,-30.1143,19.0285,-25.7571,10.4075,-12.7267,-3.1406,13.2441,15.0269,
-12.6266,-2.8972,16.1978,-9.1036,22.6829,-34.1323,-14.2074,3.7868,-10.1117,-4.317,2.1369,-17.0521,7.7496,5.448,
-25.969,11.3766,4.1387,5.5426,16.0193,-17.9843,0.74504,-10.5404,4.595,-18.158,16.1086,-1.929,-6.8153,12.3519,
-10.3109,-3.406,-7.679,-8.89,0.95813,-2.8053,14.8003,-8.1003,17.3345,-3.6916,23.8185,12.2867,-12.0703,9.2007,
4.4078,-17.3016,-16.6182,-22.4566,0.29823,11.463,-0.18768,6.4857,2.1944,10.6299,8.2894,25.6495,2.7539,22.7486,
18.2433,-16.9867,-3.8109,-25.2065,14.3803,-3.3247,-14.2764,20.1966,-12.0373,24.0921,-6.3079,10.0106,16.6887,35.4837,
3.0487,-5.6033,10.5178,-9.5942,-0.58248,-17.2253,-14.7454,4.8848,-6.4945,8.5466,1.7833,-4.6901,1.5874,19.2547,
-11.2342,8.8329,23.9867,5.0815,5.2368,-2.0917,0.23934,-9.5083,7.9951,-6.0662,15.7763,9.5706,-12.6079,3.9994,
-3.0883,2.6389,8.4475,-9.3234,3.2356,0.56414,5.6479,-14.2402,14.8665,-6.6663,18.3247,-0.88555,-18.1181,-2.5073,
11.197,-11.6195,-6.1594,-22.864,10.0311,14.6303,-8.791,0.71421,-0.12547,7.8336,3.1252,13.2676,-2.9311,11.7431,
24.6251,-25.0223,-19.8898,-19.3229,23.5292,18.6937,-22.3635,14.7714,-14.2179,21.4636,-7.7879,24.6436,11.3448,25.1386,
9.0476,-17.7364,-4.5964,-9.0045,8.0175,3.4721,-6.9217,-0.21493,0.73513,6.0758,6.7794,9.065,11.1461,9.5302,
-5.5952,-2.5722,9.7794,5.6358,-6.5636,-10.8363,7.5936,-14.302,14.791,-8.3887,20.4726,2.3746,-3.6227,-5.1416,
-6.4646,11.6821,20.4002,8.5514,0.69942,-10.9092,0.14833,-17.5415,17.037,-21.624,25.2701,14.2834,-11.48,0.71031,
8.0233,-3.1188,5.0762,-6.0617,3.7909,3.8453,-13.9606,-2.389,1.9148,-6.2265,9.6539,-0.67359,3.3088,14.7677,
21.6419,-17.0317,-9.3284,-19.798,12.9635,17.7146,-25.0538,11.8543,-12.3001,8.2471,-5.0254,-14.7332,17.2102,27.9816,
6.2434,-15.7688,-18.4096,-28.2513,-1.9143,2.5517,-9.4506,8.2508,2.5379,-4.2991,9.3761,-26.8646,2.0776,12.2027,
-8.2312,-0.72267,-3.2051,-12.4562,-15.8995,-4.7115,5.2165,-6.3443,16.4857,-18.1411,22.9136,-11.1527,-12.147,-2.6294,
-14.9682,1.8513,6.7489,2.3911,-2.171,-18.5288,-7.871,-8.0123,1.3965,-24.404,7.4388,-20.9679,-4.1874,-14.5228,
-5.8754,-5.9726,6.344,-11.8523,8.5641,-15.1274,-21.4987,6.5685,-12.7873,-8.8398,-7.1076,-33.8098,10.0436,-3.0466,
6.5285,-8.5065,-8.1367,-25.2412,-5.4469,-0.11979,-25.8726,20.2743,-26.12,5.7906,-20.7811,-17.6813,4.6205,10.1519,
2.5217,-17.396,-21.7485,-31.4394,-19.2201,-14.2126,-10.2203,11.3452,-10.4528,2.0689,-5.4342,-26.9846,-3.6106,-4.5572,
-11.7296,-2.2522,-6.3435,-15.453,-3.9669,0.74015,4.4929,-3.4355,4.2743,-12.1553,8.9918,-11.2655,10.7061,4.2726,
-1.9876,0.4134,-8.2528,-0.42583,-5.1754,-13.4043,-9.8766,-2.3859,-10.0821,-6.7261,-5.6477,-21.0743,-1.8672,-5.384,
-15.9684,12.9221,6.3424,-2.3284,6.7048,-26.7,-9.8867,-1.2784,-23.5772,-11.1428,-19.0472,-33.9098,3.5474,1.206,
-10.0691,18.8954,-8.1382,-16.2887,10.641,-22.085,4.8065,7.4752,-8.0626,-4.6899,-3.8043,-22.5955,10.0833,4.0259,
4.6351,3.6617,-18.978,-15.4319,-4.0974,-12.3241,-1.628,14.016,6.5212,3.0635,10.5239,-7.1398,-2.8139,-10.3156,
-9.743,17.542,-3.7393,-0.40602,10.2484,2.5153,12.5697,15.5855,20.2299,2.8798,23.9925,7.3886,11.4549,4.4033,
4.9415,2.3895,-2.4302,-3.1533,6.2591,-11.7356,-2.2845,28.7504,4.9161,16.807,8.4529,-7.1547,22.4572,13.2982,
-9.455,10.8027,11.8156,-0.31283,7.5705,-25.1314,-6.4859,12.9253,-4.6584,1.6986,-6.1542,-20.8254,11.71,3.5824,
-22.9877,24.2546,4.4782,13.8059,21.2163,-9.5236,8.0033,-1.9502,9.7211,-12.5034,8.315,-5.4759,14.8637,17.4675,
-7.5084,8.6993,-9.8905,2.9747,5.8433,5.1479,1.3768,0.93864,6.3661,-2.7148,5.1646,8.9527,-0.12808,2.3194,
-10.1916,-5.9227,-4.3561,-3.7115,-8.6073,18.939,-3.2853,10.7643,-8.1159,-0.86471,-9.2453,22.5155,-4.3385,-7.9431,
4.5199,-15.3289,8.1977,-17.5888,0.94781,3.7026,-17.1882,24.2184,-21.7289,13.2872,-22.7906,7.0646,10.0218,6.6335,
-9.8513,-0.30913,14.6958,-2.4335,5.4703,-10.6195,-8.3234,8.6653,-6.3252,-1.6101,-7.3232,-7.4593,3.9976,0.81259,
-23.3602,13.8094,-0.28593,11.8125,15.265,4.1177,6.276,-5.9546,8.1543,-15.6135,7.2162,7.0883,-10.3422,13.2969,
-7.8586,-1.1192,-14.3688,-2.9962,0.24912,12.1859,3.6096,-4.7537,6.701,-3.7101,6.7833,6.4218,-10.8063,-1.601,
6.7129,-15.152,-12.302,-16.9164,-5.9123,25.5547,-10.707,9.6315,-7.8011,10.6125,-7.7237,20.1365,3.9421,0.54378,
20.4101,-20.2685,0.48763,-25.4219,8.5424,9.9215,-24.1646,23.1536,-21.433,24.0757,-17.5039,14.7104,17.8056,14.6112,
5.0855,-9.6524,7.9304,-9.7966,5.7407,-4.7738,-8.6147,7.6644,-6.0471,8.5312,-2.3537,-0.27219,9.2654,-0.36552,
-9.3196,5.0267,5.7674,4.8912,-3.0399,9.6126,6.0022,-6.8955,8.4158,-6.0807,11.8875,13.8441,-5.3905,-9.0205,
-4.4217,6.2916,1.0825,4.8387,-2.8575,23.1358,19.742,-7.687,5.2595,-7.885,8.5227,26.0287,-14.8287,-1.2484,
9.9436,-8.1859,-13.0824,-9.5516,11.414,35.8477,4.4575,6.8742,-9.1561,6.6881,-6.0886,29.5286,0.16099,12.9265,
23.447,-17.9381,-22.5409,-22.5964,24.8291,19.5968,-9.9099,20.5617,-22.7067,20.3868,-17.8949,13.6569,14.2513,26.2509,
7.9402,-12.2823,-7.0884,-7.1406,9.2394,4.321,4.5437,5.228,-7.2443,5.0636,-3.0826,-1.2625,5.4425,10.5759,
-6.6362,2.5546,7.4369,7.3878,3.7443,18.1618,18.3711,-9.1857,7.2904,-9.3402,11.2023,12.9133,-8.984,-4.1587,
-8.6484,16.5014,8.9189,1.6421,-2.7469,3.6954,4.6151,-13.4545,-7.2471,-20.8307,0.76872,-1.9615,-22.545,-14.5142,
5.9705,1.4113,-5.7163,-9.3026,11.5179,9.9809,-9.7618,1.4527,-20.9122,-5.4808,-13.3774,-2.085,-7.0923,0.45663,
19.7123,-10.1222,-19.4733,-18.3856,24.9268,13.2386,-23.2761,15.4656,-33.7575,8.948,-23.7826,-0.99573,7.4332,14.5292,
4.791,-8.3097,-10.8331,-9.3283,9.3312,1.5984,-7.7796,0.43763,-17.6321,-5.6889,-8.2556,-15.036,-6.5101,-0.44252,
-9.5965,6.2889,3.9169,5.3314,-4.1236,15.6025,6.7872,-13.6886,-2.4741,-19.4475,6.3397,-0.033823,-20.2195,-14.516,
-5.2845,10.8525,11.0332,10.9165,6.7287,0.56631,-2.5381,-16.483,-0.99991,-21.8963,-8.1407,-14.1318,-17.6808,-12.4399,
9.1325,-3.0552,1.4534,-1.5488,17.6534,2.9425,-16.4858,-1.394,-15.0399,-6.4825,-21.7522,-27.3839,-2.5199,2.4064,
22.6846,-5.5231,-12.7338,-15.5559,2.4942,16.8659,-13.4479,12.7897,-28.2375,8.0064,-24.7854,-18.751,11.7313,8.4084,
7.3438,-11.6993,-18.116,-28.7225,-11.7555,1.754,1.459,7.202,-12.4433,-1.633,-9.1983,-21.2415,-3.0726,-6.1961,
-7.1969,3.1026,-2.9291,-12.8992,-4.0605,0.20269,15.4715,-7.3301,2.4033,-15.635,5.4536,-5.867,-6.6244,-6.909,
4.2017,-4.6758,1.7055,0.76971,-5.5043,-13.9095,0.44318,0.21961,-7.3821,-0.59693,-8.9736,-19.615,2.209,-9.1458,
-10.1504,5.7276,15.7031,9.8823,6.8775,-27.1749,-13.6834,5.0271,-21.0391,-0.80231,-22.5352,-32.5381,11.2355,-3.7768,
-14.2414,14.543,0.66095,-4.8106,1.6441,-20.7242,1.2376,8.1,-16.2819,2.1383,-7.0831,-16.4858,5.2587,-0.17572,
0.71309,-0.42958,-13.4787,-18.622,-12.5545,-14.6602,-0.40352,5.6858,-1.2049,7.7946,7.4419,-10.4352,-5.1797,-14.2652,
-13.4297,13.6962,-1.7032,-3.4047,2.2987,0.31939,13.7207,4.6213,12.9673,3.7115,21.0954,4.2909,9.2311,0.69073,
1.4761,-1.2256,1.7734,9.2126,0.95599,-13.7998,-1.2025,18.444,-1.9107,17.5888,5.7297,-10.0665,22.7772,14.7493,
-12.7125,8.8508,15.767,7.2136,-0.54786,-27.0718,-0.8892,3.2374,-9.3883,2.4335,1.5296,-23.5625,7.913,0.48746,
-26.0497,22.4198,17.3518,4.6116,13.585,-18.5781,13.2642,-11.0569,5.275,-11.8125,15.5378,-8.0488,4.3049,8.8941,
-10.3867,6.9746,2.2107,-9.7651,-1.3301,-3.9659,1.9836,0.57362,19.0585,2.9962,14.7257,6.5341,-10.0534,-5.7395,
-12.1737,-7.5439,-12.0219,1.5464,-15.3503,10.372,-9.2228,6.8056,3.815,3.0574,1.791,20.2421,-3.5453,-11.5414,
2.6568,-17.5761,2.7994,5.5512,-3.2216,0.2291,-22.7694,20.4973,-10.5139,16.974,-12.4165,4.9276,10.7674,3.2511,
-11.6027,-2.4215,16.7314,19.3181,0.10545,-13.8846,-7.3032,5.1674,4.2169,1.8556,2.4285,-9.4681,7.5912,-2.8491,
-25.0065,11.8238,4.881,32.259,11.4269,1.0484,7.235,-9.2426,18.0639,-12.3558,16.3828,5.2,-4.6749,9.1325,
-9.4061,-2.9856,-9.5118,16.2235,-3.3588,15.0855,9.0907,-4.7112,28.5492,1.5215,8.5304,18.747,-7.0459,-5.5155,
5.2583,-16.9065,5.1589,1.1501,-3.5187,28.2804,0.59156,9.6715,12.7363,15.5302,-6.0814,31.7222,7.4768,8.9154,
19.0428,-15.1691,11.8393,-13.0189,10.7924,12.4836,-13.5439,23.1912,-2.1279,28.6984,-19.8165,15.7189,21.1282,22.4805,
3.8002,-2.9309,9.9238,1.8622,-1.545,-2.3654,-2.4879,7.6997,12.0998,12.8765,-4.5275,0.67575,5.7605,7.0317,
-10.5278,11.345,-2.7227,15.8505,-5.7901,-16.3235,11.7614,-6.8623,25.4738,-1.9961,9.8441,14.7352,-8.6851,1.7893,
0.94989,-3.4357,-2.0776,0.79945,-17.0126,-10.4031,10.9352,-16.8144,14.5453,-7.9019,7.0843,23.2511,-9.8508,-2.1747,
11.257,-17.3296,-13.2812,-13.3485,-9.4841,4.3211,-3.8209,-1.7055,-0.42738,6.6722,-7.4407,28.8457,4.8403,-1.3215,
24.6816,-18.3382,-9.1099,-21.8271,5.1849,18.1618,-17.6917,12.4968,-4.8605,20.3719,-10.9712,13.0149,18.6499,12.8578,
9.1007,-17.9611,1.3187,-6.4175,-1.7541,2.9721,-2.5302,1.3827,9.5311,5.0496,3.7871,-1.866,5.7203,-2.0137,
-5.5454,-2.7834,14.014,8.0676,-7.6749,0.021718,11.7216,-12.8003,23.0592,-9.3534,17.6599,12.346,-8.7229,-15.39,
-5.0922,11.4836,7.3886,21.6835,-12.5166,13.0363,20.4186,-18.9014,17.0962,-12.8896,12.9851,-2.4948,-22.2996,-10.6102,
9.3134,-3.3054,-7.1547,6.2825,2.3344,3.3361,5.0935,-3.6674,1.9704,1.9838,-1.894,7.778,-6.8616,4.1264,
22.8546,-17.2071,-20.8255,-8.1945,16.2943,-3.1309,-9.3121,10.6527,-12.2478,15.9648,-5.7575,21.4114,7.6501,17.9788,
7.3833,-21.2362,-5.4759,6.3972,1.2167,-16.1995,5.3466,3.5059,2.587,5.6068,8.688,6.0267,14.6633,2.8001,
-7.1597,-5.8621,8.9526,20.1134,-12.9563,-1.1275,19.1258,-10.8044,16.5318,-8.8296,22.2667,11.6906,-0.31653,-11.4679,
-11.7916,4.2515,17.3333,4.8066,-13.8659,-15.1599,3.8782,-20.3999,1.4399,-19.9894,6.8307,-3.1108,-14.3975,-8.1285,
3.0159,-10.1036,2.1933,-9.5818,1.066,-13.768,-10.4545,-5.0759,-12.7465,-4.69,-7.6791,-17.0242,0.56631,6.4592,
16.935,-17.331,-12.0383,-23.1069,5.9431,1.0375,-23.9272,9.3287,-21.3816,9.6914,-9.8696,-1.9027,14.6323,20.1716,
4.1087,-13.6399,-17.3415,-12.3207,-8.5134,-13.1248,-8.3916,0.8152,-5.9987,2.12,4.8226,-15.8885,-0.34561,4.8613,
-10.2378,1.2785,-2.201,2.5185,-19.6926,-8.1191,6.2119,-13.3337,8.4612,-12.1072,18.6332,-0.83523,-14.4249,-9.5303,
-2.7546,-4.7033,9.8616,5.6214,-4.4111,-21.732,-8.2608,-12.8951,6.0252,-5.4757,3.4152,-14.8851,-12.1135,-12.8147,
-5.7226,-5.6262,7.101,5.5253,8.5073,-25.8512,-21.8651,1.9786,-8.4363,3.7712,-10.8897,-28.092,2.7133,2.0542,
-11.646,-4.8064,-7.4251,-8.9062,-6.1031,-10.2001,-6.4532,-1.3943,-18.6559,-1.276,-7.8261,-38.0961,6.0457,0.60495,
3.1528,-11.5081,-16.7411,-15.2411,-19.8369,-8.0217,8.034,-1.0696,-3.4365,2.416,6.7435,-24.4821,-7.0914,-10.7594,
-11.1364,3.2824,-1.6367,-0.22666,-5.3905,-21.6404,21.6519,-8.4773,10.8697,-11.8289,20.4389,-8.9131,7.4341,3.9861,
3.6318,-7.6401,3.6435,-5.6362,8.6718,-34.442,6.2528,6.1313,-2.7978,2.9808,5.1126,-22.4783,21.0881,7.0007,
-10.6861,6.0744,17.5249,8.802,10.8025,-44.9088,2.1415,-8.3366,-7.6917,-11.298,-8.8123,-35.2296,8.7354,-5.7115,
-24.1449,19.8099,13.9427,10.5634,11.8415,-28.1143,16.113,-10.9694,6.8698,-10.5,5.8165,-19.0159,1.7034,8.7312,
-8.5962,4.5213,-0.99391,-4.1704,-2.969,-12.3274,8.2771,1.981,20.5576,4.23,11.6135,-3.7749,-12.4988,-5.8927,
-3.2597,-9.85,-15.0343,2.2261,-8.6957,2.5122,13.565,14.3954,33.4241,18.0762,11.8813,10.5516,2.3511,8.5609,
11.0358,-5.2817,-0.032215,10.7695,5.9261,-11.7385,-1.3489,27.6317,17.3187,31.0916,-2.9316,-4.1815,16.31,22.1472,
-3.7263,9.1352,14.0697,16.6309,4.7267,-25.1342,5.3603,11.8738,6.6388,15.1261,2.426,-18.0306,7.9801,6.7184,
-17.6027,22.6871,12.2614,6.474,-1.8234,-22.5416,19.1386,-2.9386,20.3405,0.11856,16.3804,-2.8488,-6.5987,-7.7847,
-2.4466,7.2258,-0.76654,-8.0144,-11.114,-7.0891,5.5776,-5.0519,29.8456,-1.2139,11.18,6.6018,-7.7693,-12.62,
9.7513,-7.3077,-14.8205,-19.2232,-14.7857,7.4363,-8.8571,9.3512,13.9549,12.959,-3.5908,20.3057,6.7969,-2.2221,
23.2662,-13.1359,0.16869,-7.9467,0.2014,-4.5791,-20.2563,22.8901,-0.98242,26.2814,-17.4754,4.9873,20.4891,12.0112,
7.7703,-0.5376,14.2586,4.3405,-4.9926,-18.4043,-4.9409,7.4167,13.1765,10.6045,-2.4473,-9.4119,5.1597,-2.8095,
-6.7959,13.5947,6.0517,18.1801,-2.0422,-27.7849,9.4555,-7.1283,26.4859,-4.1317,11.7995,5.2528,-9.2499,-6.0151,
3.6147,-1.321,0.62695,2.9893,-4.5708,-12.0178,7.9239,-14.1724,17.9069,-7.9812,2.7759,19.0376,-10.864,-5.8952,
17.4978,-10.8826,10.7126,-10.6876,5.8267,2.8033,-6.6515,0.77793,2.7325,6.5977,-11.4907,31.9954,3.8878,8.5585,
30.5479,-8.0605,10.7929,-24.1463,19.5771,16.7351,-20.3525,14.8313,-11.5315,20.3018,-24.9012,15.9757,17.7545,22.145,
14.6151,-18.6642,1.9505,-8.5975,4.3025,1.631,-5.0313,-0.15862,3.2604,4.9837,-9.3071,0.91711,4.1558,6.7163,
-0.36185,-3.4444,-2.2638,6.0183,-8.489,-12.5669,9.3706,-14.2491,17.1648,-9.4153,5.3513,14.9621,-10.1936,-7.7867,
-12.6327,3.8727,3.4156,12.5263,-8.7026,-7.5946,7.1213,-18.9378,2.0349,-8.6094,-1.4773,-0.035639,-11.3894,-7.5604,
2.2253,-8.893,12.3695,-2.3253,5.9196,6.9611,-7.4059,-3.7015,-12.1872,6.0071,-15.4886,14.0665,3.3939,6.9932,
16.1918,-2.0928,-2.4727,-16.2858,19.6644,20.6434,-21.0616,10.6206,-13.8662,19.7467,-22.1517,25.153,17.2903,20.6736,
7.2667,-16.0672,-14.2551,-1.2086,4.3845,5.3048,-5.6979,4.4398,1.0658,4.4619,-6.7226,9.5438,7.3349,5.3332,
-7.2693,-1.0032,0.70025,12.9639,-9.9785,-3.811,8.744,-9.9265,15.1018,-9.9058,7.7807,19.2152,-7.2052,-9.0868,
-13.2205,13.157,13.3121,19.1757,-7.2107,-0.93106,7.496,-19.5747,0.095724,-13.8912,-6.7861,3.9622,-20.8729,-2.9984,
1.6727,-1.7324,-1.5866,3.9251,7.322,13.2248,-7.0538,-4.3002,-14.01,1.0423,-19.9969,0.47054,-5.5205,11.2815,
15.6723,-15.3668,-15.5914,-10.4104,15.9209,26.5313,-20.7305,10.0578,-17.7487,15.0797,-5.5408,14.5423,8.9107,23.0177,
10.1525,-21.6757,-14.8972,-4.7241,0.86561,10.8394,-5.3867,6.803,-2.5838,8.1496,8.2891,-0.43023,-2.952,7.5366,
-4.5567,-6.2752,0.096678,9.6594,-13.2863,-2.9466,9.0365,-7.7052,11.6712,-6.4393,21.8918,-7.3943,-16.8749,-7.0156,
-13.3218,-6.5011,12.5039,-5.0202,-26.5891,-16.8698,-5.6057,-13.3889,-3.129,-9.7889,6.4783,-21.0506,-16.2243,-20.6946,
-3.1225,-8.2802,4.7638,-8.8163,-10.8938,-10.6757,-19.3691,1.5145,-9.0874,4.8984,-8.0104,-33.8876,-1.1508,-5.3529,
-4.8633,-7.7834,-9.6221,-22.3873,1.8115,4.0649,-9.5301,13.5954,-21.0754,11.4737,-7.1684,-32.3363,11.0905,9.0682,
5.7927,-9.9678,-14.468,-10.0775,-12.3972,-2.8073,5.1417,5.3077,-6.0727,-1.025,-4.0868,-16.2961,-3.6749,-5.5759,
-8.6549,4.7303,0.50011,4.6272,-11.5329,-2.3978,18.9332,-9.1107,8.3916,-15.0635,10.2584,-1.2183,-0.4419,-13.9181,
5.9644,-2.6637,5.8935,6.8804,3.2591,-16.354,3.6972,5.5359,-6.2118,-0.059659,-4.4571,-15.2452,13.5642,-10.191,
-8.4935,4.2449,15.6631,20.447,8.2453,-29.4727,-10.6246,-8.5344,-15.721,-13.7947,-7.3231,-28.4305,9.3758,-9.0973,
-19.9148,18.0902,1.9486,22.3536,9.438,-13.6044,4.1128,-0.068857,-0.6777,-5.0131,7.2163,-12.6247,8.5725,5.5485,
-4.6199,2.9048,-12.2683,6.9124,-5.2283,1.3119,17.9661,-5.6081,1.1704,1.3135,-1.0501,-9.5776,-6.0418,-8.8844,
-16.9967,-0.40295,-13.3399,-7.6023,-12.9893,15.3332,13.0317,2.1997,15.2002,1.9576,9.8591,5.0971,8.4207,-0.87996,
-1.8769,2.0316,1.5605,-2.0847,1.8901,0.3132,-1.8502,16.1677,0.1882,15.9401,-4.8324,-9.3087,22.0155,13.2728,
-13.6947,16.0097,15.5669,12.1403,1.8974,-13.8056,5.8531,1.0977,-13.9231,0.8837,-12.8579,-22.8502,6.5945,-1.6235,
-26.973,29.1491,22.828,25.5119,14.317,1.1227,19.6019,-13.0682,1.0123,-13.2693,2.0136,-7.3792,-7.9011,1.6078,
-11.2546,13.3002,7.3583,9.8812,-0.64199,15.1554,6.2542,-9.0297,3.8441,-7.291,-5.9405,-11.2748,-18.635,-12.5886,
3.5207,-1.5978,-7.1832,-4.8117,-3.375,28.3461,-0.86969,5.6121,3.1315,7.2465,-7.5123,3.5017,-3.4169,2.2667,
17.4094,-0.538,3.8528,0.77956,10.9275,12.5453,-14.9175,19.3754,-11.1564,20.9117,-21.1615,10.1607,10.8881,16.2307,
2.2649,13.5943,17.7216,14.8328,-3.8282,-2.3074,0.077543,4.1129,-0.24362,5.557,-5.7918,-4.549,-2.5394,1.1568,
-11.971,26.8786,14.8507,25.1506,-1.1886,-4.5793,14.1729,-10.2339,13.871,-8.8764,8.6557,-4.3966,-16.487,-13.0126,
2.8472,11.1659,-0.14033,9.5416,-7.3843,9.7954,-0.77748,-14.9227,16.7744,-15.0925,2.7132,9.9672,-20.1978,-15.0041,
16.7764,-3.604,-11.0987,-5.1309,0.28987,23.3077,-14.8308,0.072617,1.6679,-0.086981,-11.5496,23.4691,-4.886,-0.0038441,
29.8698,-1.2185,-3.6841,-13.7411,14.3725,15.8837,-17.1952,14.1683,-12.5321,14.0182,-21.3412,7.961,9.5072,14.0964,
13.9776,-6.2071,6.4189,-15.568,-0.58987,0.83067,-2.0635,-0.78184,-0.69275,-0.92286,-5.9607,-6.6167,-4.5606,-0.8494,
-0.96103,8.2653,7.48,-0.53388,-9.9547,-13.3192,12.1603,-14.8349,13.4488,-14.9675,8.4969,7.8803,-18.3869,-14.8984,
-4.8802,5.9617,4.8619,13.5982,-2.8493,-4.0841,7.3334,-17.801,7.4597,-22.2644,2.9257,1.5027,-9.2095,-12.0761,
9.5126,-4.5189,2.16,-1.3177,9.3728,10.2609,-7.2066,-2.6329,-7.0879,-6.8285,-11.3499,15.5125,5.4431,2.7485,
23.0418,3.7061,-5.9234,-15.3387,22.9104,23.7453,-20.8742,11.625,-20.7626,7.6812,-24.7689,17.5944,19.2165,16.6836,
7.5593,-10.6163,-13.7629,-25.0234,7.4358,8.2206,-5.5218,0.80419,-5.4168,-0.49245,-9.1828,2.4388,3.9635,1.5825,
-6.9942,4.1207,0.5605,-9.422,-7.1103,-6.1317,8.9095,-13.3441,9.0082,-14.5629,5.4682,16.3924,-10.3743,-12.6124,
-11.6363,13.5143,6.7934,5.2433,-8.7326,-8.1739,1.8672,-17.7254,-5.6323,-19.8354,-7.1524,1.3089,-15.7774,-0.52747,
-1.2971,-1.3965,1.0831,-9.1713,-0.013511,6.4165,-12.3448,-2.5618,-19.3944,-4.5453,-20.8233,-12.8696,-0.73076,2.8786,
12.8807,3.1464,-12.4793,-22.721,14.0873,20.1315,-18.7143,11.6919,-26.9077,9.8275,-21.3815,2.0025,13.4131,16.8059,
9.0951,-11.1424,-13.6586,-11.2346,-0.85794,4.8236,-3.4915,9.7851,-11.1932,3.2123,-5.9986,-12.2176,3.2083,1.6976,
-5.5506,3.6262,1.2609,3.5395,-13.5811,11.4036,10.818,-4.902,3.5784,-11.0805,8.4613,2.6154,-11.0842,-12.5043,
-3.4099,13.7726,6.6084,17.4271,-3.1249,5.4165,14.5076,-8.1024,-10.7363,-10.0542,-6.1463,-11.6415,-8.6114,-0.7873,
-3.2051,1.8592,1.8733,2.2815,9.114,-9.0085,-0.46287,6.4838,-24.1922,0.67219,-19.8776,-25.043,6.0052,9.865,
11.0873,-7.6523,-12.3391,-11.9554,8.8081,-0.87569,-11.1609,20.1947,-15.5097,10.0319,-8.5619,-14.0198,18.2984,11.4423,
17.7731,-12.0139,-16.5399,2.8619,-5.8204,5.9255,3.6088,6.9313,-0.4791,-2.1392,-1.2993,-8.8403,3.1005,-3.3443,
2.6067,2.8069,-1.4475,16.7902,-5.1099,19.67,17.4923,-7.5846,13.6496,-16.1109,12.8787,5.7901,-11.1855,-10.9771,
4.7402,7.0975,8.8831,1.6828,-11.0699,4.3898,2.3427,6.9705,-1.2693,-4.1777,-1.994,-8.6573,-2.8011,-12.2467,
-9.6442,14.1435,8.5911,9.1741,3.6943,-9.9736,-9.9697,1.25,-14.811,-15.2552,-7.177,-22.2379,10.1414,-2.1114,
-11.1145,27.3949,-6.0243,14.4082,17.5727,4.7248,4.7285,5.0314,0.17765,-5.1809,7.3536,-6.8036,8.5686,12.1153,
3.6524,11.6512,-19.7629,-0.55626,2.4183,16.7336,2.6371,4.4884,-5.9795,-1.7368,-7.1876,-10.0108,-6.0455,-2.7116,
-10.6667,19.388,-4.4771,10.4439,-2.1856,25.853,16.5789,8.0759,8.4793,-5.489,7.3436,4.6899,0.46323,-4.2364,
4.0733,4.1247,4.589,-3.9212,11.2016,10.2018,1.4841,21.6913,-6.1295,8.9404,-7.197,-9.6915,9.8355,1.5615,
-10.2711,10.7466,15.1598,10.4141,13.6631,-4.5103,-4.8714,6.2899,0.98742,-5.696,1.671,-23.21,-4.0109,-7.4501,
-23.7549,24.2018,5.0912,23.8892,17.1816,9.8603,9.5209,-8.1875,15.0282,-19.4543,15.6707,-7.7174,-3.2883,7.0969,
-8.2296,8.6497,-9.3143,8.3559,2.0507,16.6198,5.4545,-8.5401,0.026487,-5.6331,0.63046,-13.5211,-17.191,-7.4289,
-0.26377,-5.9692,-16.3477,-6.2455,-10.0029,29.7226,-8.8521,6.0723,-2.8676,8.8049,-12.423,1.3901,-2.0595,-2.1627,
13.8521,-6.9369,-1.2669,-14.3068,4.6972,13.8392,-22.421,19.8079,-16.7956,22.3766,-25.7776,10.3453,12.1641,12.067,
-1.0791,7.5793,12.9091,0.65163,-0.043849,-1.0911,-6.9757,4.5195,-10.8469,6.934,-10.131,-4.3754,-2.6658,-2.757,
-15.1143,21.2246,26.2346,14.7125,14.0588,13.0743,7.5428,-9.8517,3.9039,-7.582,4.5769,9.9871,-16.6058,5.8441,
-0.10746,5.8511,10.5605,-0.27022,-0.88474,26.3899,10.3442,-8.2965,9.816,-9.5374,10.9305,20.4753,-24.648,-8.6065,
13.999,-8.6,-4.1731,-14.354,6.3994,38.9065,-4.3764,6.3013,-4.2706,5.1348,-3.7047,33.3468,-9.0692,6.0099,
27.259,-7.8429,-8.6226,-5.5389,20.1154,22.4721,-13.3935,20.0232,-18.1143,18.9267,-14.3287,17.246,5.575,19.7493,
11.5235,3.4736,5.9947,8.8934,4.8085,7.0238,1.5101,4.7218,-3.4096,3.6911,0.26964,2.1112,-0.78528,4.4643,
-3.2679,17.3652,19.7351,22.4598,-8.2544,10.7002,15.5195,-9.6615,10.8949,-10.6304,14.3535,-11.1516,-14.8382,-9.9035,
-9.0976,2.2233,4.451,7.0122,-5.3488,-4.0418,0.48835,-17.5177,11.8082,-19.8742,14.0949,-17.2309,-12.6219,-12.0809,
5.5482,-12.0101,-9.9161,-7.5085,9.0721,10.3007,-13.6409,-2.3666,-3.0003,-4.5818,-0.85079,-2.0971,2.2354,2.7439,
19.3154,-12.856,-23.4211,-21.158,15.6379,18.3593,-20.5354,11.8754,-16.9203,9.7931,-10.3205,12.1287,16.2013,16.6793,
4.0564,-18.5924,-12.0136,-28.686,0.59963,3.1577,-5.2033,-2.9372,-1.805,0.046275,4.3988,-2.699,1.1292,1.5786,
-10.287,-3.3768,2.8073,-12.8648,-13.5363,-11.1318,9.2089,-16.8609,12.4033,-14.0565,18.2348,1.1984,-13.0385,-12.6162,
-10.875,-0.88458,8.7851,2.0071,-4.0475,-24.5638,-3.3949,-21.3929,8.0434,-15.0208,3.0408,1.3677,-14.9078,-7.2799,
3.8775,-11.1956,4.6428,-1.4876,10.2953,-8.99,-17.2912,-6.0093,-6.5392,-0.019572,-11.2417,-7.6322,0.086705,7.2569,
17.7448,-6.1852,-9.7358,-15.4983,13.6546,5.6494,-20.2305,8.4512,-20.2468,14.0816,-14.4237,-12.4768,14.1815,20.9215,
2.9416,-19.9141,-23.2516,-28.6684,-1.2647,-8.7896,-4.9167,3.8466,-4.932,10.1034,0.54173,-25.8282,5.859,5.5662,
-11.3349,-4.6192,-7.7565,-12.8483,-13.3605,-10.1906,9.4783,-10.4842,9.4639,-4.6028,14.6092,-10.1785,-8.5925,-8.3859,
-11.9801,1.2014,6.0857,2.0226,-5.81,-23.6792,3.1249,-14.073,-5.2039,-0.34972,-0.36733,-13.6653,-2.1719,0.31247,
-12.7076,-0.79887,10.0589,-9.427,7.0721,-26.9582,-11.1626,0.87139,-18.9917,9.3122,-14.4453,-18.6299,12.0584,3.6682,
2.1549,-8.4639,-4.6446,-22.9614,2.3092,-11.2407,-14.7106,14.9191,-23.8777,22.8535,-9.4809,-3.4121,24.7118,10.1968,
11.0638,-22.0561,-18.466,-16.1607,-11.9293,-8.2765,0.27199,14.7472,-8.3451,21.3619,5.188,-5.2562,9.1291,-4.515,
-3.7,-6.6327,-3.3785,-1.091,0.23536,-0.308,14.3557,-0.23763,6.2556,5.9802,18.9767,9.1592,13.2813,9.133,
3.6322,-4.5473,2.6088,13.0744,-2.6715,-14.3895,5.2992,8.8146,-8.2197,10.321,3.7381,-5.4904,24.5353,7.6204,
-10.6857,-1.6234,8.96,-1.81,3.9963,-25.6982,-2.0084,-4.0063,0.34769,-4.3982,0.018877,-19.2609,18.4839,4.5121,
-18.1188,1.1253,-5.6776,-15.8014,9.7823,-10.0563,12.2121,0.33163,14.4268,0.32494,14.1177,-9.549,13.2778,15.0874,
-2.9317,-13.0422,-14.8576,-0.87405,-4.9047,-14.394,11.8409,11.1576,19.2254,10.6694,15.078,5.1239,4.0451,0.082162,
-16.8558,1.8404,0.1339,13.2784,-10.2743,-6.0584,25.2305,-1.3221,15.4205,-3.2272,23.0913,10.4806,8.8639,0.19795,
-1.7444,-10.3213,12.7798,0.55108,3.8394,-19.7949,9.6166,12.8573,0.39524,11.0664,7.6058,-4.2483,22.4321,9.8269,
-15.7398,-3.9175,12.977,14.618,7.4658,-32.7072,-5.0604,-2.0142,-0.47186,-3.6976,0.039587,-18.0934,17.1093,-2.8139,
-28.8954,10.4175,-1.9016,27.8409,16.6588,-33.3961,9.3433,-15.9933,13.6565,-16.9729,14.1372,-2.9078,16.5647,11.4549,
-13.0617,-4.3075,-15.8875,12.0705,1.5593,-17.2924,3.4801,-0.93372,18.2602,-1.8545,9.5531,11.3667,1.4708,-3.3324,
-9.8676,-18.1491,-6.0162,-2.7537,-12.6343,-2.1548,-7.5747,12.6199,3.0646,9.7052,-5.1201,24.7847,10.1799,-11.8091,
4.8245,-8.9856,8.4448,-3.3117,2.2238,-1.5435,-18.9307,25.9627,-11.2193,23.2229,-18.672,9.1976,23.6691,2.9995,
-9.565,5.292,13.1203,10.987,5.1029,-15.5509,-3.6949,10.3049,3.5539,7.7295,-3.4517,-5.4542,8.149,3.1805,
-23.0911,19.0745,7.9945,24.4278,8.6533,-5.0974,10.6268,-4.4134,17.4406,-6.8342,10.8554,8.973,-6.44,13.1128,
-7.6056,3.83,-5.9826,8.8622,-5.9659,9.3084,23.0046,-12.7053,2.2942,-0.036838,15.5067,10.3629,-3.5226,-1.774,
6.9507,-10.4998,-10.4443,-5.7696,8.4921,22.8499,7.5244,2.157,-11.9435,14.0654,0.4763,23.8412,10.7887,12.4325,
20.6337,-16.4981,4.2824,-13.8593,22.0826,13.525,-7.0271,16.1276,-8.8168,27.3215,-7.6267,36.5107,24.2414,25.7865,
5.2956,-13.0978,10.1717,1.0723,16.2986,-1.3865,3.2768,1.0599,5.8122,11.5822,6.8105,20.2201,8.6869,10.1393,
-9.1221,1.7881,18.72,15.1079,5.6792,-2.1468,17.1802,-13.1036,19.5634,-3.2128,20.5019,4.9069,-5.9343,-4.569,
-5.6825,3.4881,3.4968,0.10144,-2.3741,12.082,10.2439,-16.1737,6.5794,-9.7688,10.4742,11.361,-19.6782,-11.8872,
8.7585,-10.8212,-10.813,-14.0046,2.1069,25.4571,-4.4708,-1.1033,-7.9154,4.9173,-4.2543,24.7793,-4.3975,2.9261,
22.333,-16.3179,-24.2643,-4.4873,16.0805,35.7399,-14.2048,13.0629,-21.2991,18.7223,-2.9143,37.3926,9.9663,16.8505,
6.893,-12.2054,-8.7084,3.2537,1.0157,19.4955,0.74747,-1.8209,-5.9212,3.499,11.3605,21.049,7.5607,1.7395,
-7.6206,2.6269,5.9141,17.1584,-13.1453,4.2258,14.8026,-15.8116,8.5341,-10.811,24.7789,5.6861,-6.9929,-12.4649,
-12.2248,6.6874,15.5624,3.475,-19.2257,-10.1277,-0.18554,-19.9244,8.5039,-13.2956,9.1922,-8.7551,-20.6733,-13.404,
2.6087,-2.6319,0.52862,9.2922,-3.9722,4.5799,-14.2744,-4.6289,-6.1064,1.6022,-5.4594,5.8702,-5.3329,1.5002,
16.5522,-4.8843,-13.6031,-5.3653,10.3662,11.7769,-17.7565,9.7488,-19.84,15.606,-15.2549,19.618,9.087,15.5102,
2.3024,-13.027,-13.0281,-19.1434,-4.3558,-3.0297,-2.5911,-4.9361,-4.5496,3.8232,-0.23963,4.3409,-5.5582,0.47961,
-11.9357,1.8546,1.8536,-3.8948,-18.1944,-12.8507,11.6644,-18.7399,9.8234,-10.5062,13.8747,6.0087,-19.3247,-13.6492,
-9.1707,6.9253,10.2988,10.4389,-11.3184,-26.1796,-3.0149,-18.5796,18.8749,-10.2371,1.9551,-6.6441,-7.3192,-4.1534,
0.53836,-3.6134,10.163,-0.55152,-4.8545,-10.5088,-16.934,-3.3649,3.6425,4.4772,-12.2622,-20.3455,7.22,4.2908,
14.6061,-2.1915,-4.5468,-14.6184,-15.4093,4.2217,-23.7512,10.937,-10.6761,18.3085,-16.4674,-23.5836,13.6559,4.7565,
3.9682,-13.8701,-18.374,-27.8413,-28.5847,-10.1316,-8.2261,-2.4936,4.0645,3.11,-1.3794,-32.0505,-1.2634,-9.6289,
-10.3699,1.0621,-3.1715,-12.0708,-12.7696,-11.2107,6.3674,-16.444,17.9206,-11.1766,12.8034,-16.0275,5.9225,5.0488,
4.3523,-4.9069,-4.789,2.7534,-12.7268,-21.6253,-8.1146,-1.3574,2.7454,3.594,-2.0648,-29.1658,6.5315,4.0225,
-10.0088,9.4875,9.5984,-0.54528,-2.563,-34.4278,-18.3535,-1.5167,-11.5194,-3.25,-16.0409,-41.5159,4.9345,-0.31595,
-14.1083,22.7773,-5.0775,-14.6126,-0.24027,-34.1698,-3.1523,2.1895,3.2718,-2.8139,-0.97845,-24.9249,-1.3873,2.3543,
0.83822,7.3106,-18.8729,-17.9536,-14.3259,-18.0196,3.665,1.8172,17.1755,5.7907,13.1803,-9.3294,-8.2939,-11.8869,
-13.3121,0.96692,-11.1125,-2.7764,-14.0687,-2.8385,17.5451,-5.5225,30.245,-3.2337,26.4894,5.3304,6.3037,-0.68936,
1.5867,-2.4654,3.6542,10.285,-7.4399,-15.6835,2.3924,8.9089,14.3303,11.0604,10.8001,-9.0895,20.0255,13.3314,
-12.6085,11.7825,17.535,23.7679,7.1065,-28.8424,7.7923,-5.7256,17.8088,-3.7033,10.6338,-22.6441,13.0391,5.0596,
-25.952,25.1755,10.6983,27.2827,20.7801,-13.0119,21.4247,-17.6746,30.8402,-17.5811,24.0957,-7.1855,6.4722,8.1305,
-10.2949,9.565,-4.0436,11.5457,5.4333,1.8688,11.5831,-2.5141,14.8898,-5.3183,8.55,-3.7416,-8.0161,-6.4574,
-6.5437,-5.1089,-10.6699,-1.8006,-8.9927,15.8567,-3.2119,8.8444,-0.10356,-4.9994,-6.063,10.5829,-5.2451,-14.3851,
7.9489,-5.7665,4.0703,-4.1028,1.67,6.9515,-17.1192,22.4137,-14.1973,9.4006,-19.7992,-4.152,9.1696,0.578,
-6.628,7.3539,15.9974,10.2434,2.775,-7.5656,-3.5588,6.9689,0.7545,-5.2635,-4.5113,-18.0029,3.4371,-13.3157,
-20.3304,21.0126,2.2636,23.7288,15.8649,-2.6527,10.7547,-7.5492,14.8092,-19.0477,9.8594,-2.8227,-2.7947,1.5832,
-5.0105,5.6519,-11.9723,8.2051,0.81297,11.6065,5.8915,-9.3858,14.6441,-4.7688,8.0631,11.4466,-11.7857,-12.6118,
9.3901,-8.7872,2.8461,-6.3872,-2.9719,25.0101,-4.585,5.2774,-0.3345,9.6173,-6.5207,24.8598,3.0214,1.8833,
22.9267,-12.2369,15.2086,-14.681,11.3064,10.2531,-18.4099,19.0607,-14.4144,23.1403,-20.2294,9.2682,16.9402,15.8703,
7.4511,-9.3335,5.8604,0.29988,5.4463,-4.4621,-3.2053,3.8171,0.55043,7.6519,-4.9157,-5.3879,10.621,0.81805,
-7.096,5.3265,-2.4452,14.3819,-0.42433,-7.9303,11.087,-10.512,14.6174,-6.9072,9.4793,9.0354,-4.1163,-10.3178,
7.0679,0.065955,6.6193,0.50355,-2.5678,6.6455,24.5218,-16.8712,1.9299,-13.0004,9.6333,12.4702,-16.2821,-5.6016,
20.7438,-14.038,-7.7573,-13.6267,9.1554,20.3468,8.9505,-1.7589,-12.2859,1.8796,-5.0447,25.8219,-1.2052,8.8345,
33.5992,-14.0393,-10.1842,-19.4373,22.7061,33.226,-5.6865,12.4466,-15.2844,15.8669,-9.9239,25.1162,12.9672,22.4044,
17.4832,-20.4278,2.9604,-4.171,7.2437,17.1324,8.7546,-2.4002,-0.26736,0.81485,4.7715,9.5093,0.86094,6.9602,
2.3342,-5.1021,16.8827,10.1792,-5.0015,2.0045,22.3294,-16.3562,13.8487,-13.334,18.5852,1.1055,-13.2907,-7.5575,
-7.2058,9.304,10.2054,10.0504,-0.845,13.8148,16.4101,-15.6158,0.96621,-10.8468,4.9366,-12.4585,-22.7369,-10.7194,
7.3265,-5.3543,-4.5069,-4.6526,9.57,27.0859,1.3255,-0.57884,-13.1918,3.904,-9.4596,2.3891,-7.2727,4.0237,
20.9869,-19.133,-18.3365,-18.4734,22.4931,24.1354,-12.854,13.5559,-26.5003,17.7698,-18.6533,16.3457,7.2637,17.8823,
12.497,-20.3953,-8.0771,-5.3136,7.0435,8.5872,2.0172,7.44,-10.8102,9.4729,-3.4341,1.265,13.5764,2.7094,
-2.3528,-5.0715,6.5075,9.1052,-7.4791,-6.028,15.9962,-7.1064,3.9384,-5.1955,10.8719,-3.7521,-1.3382,-11.5532,
-6.9115,9.3327,20.217,9.4026,-6.7891,-19.7663,0.9364,-20.5389,-4.7336,-12.4762,-3.0369,-11.9624,-15.3579,-18.8135,
7.6031,0.81893,6.2297,2.0896,7.7183,-4.4803,-13.2198,-5.2066,-16.9828,2.3724,-16.9547,-20.8859,-0.3364,-3.5847,
21.247,-8.389,-8.2441,-12.1358,7.6164,9.8885,-20.6215,9.2058,-25.1229,16.3301,-10.0324,-5.5327,13.7838,10.7304,
5.8721,-12.2242,-21.8495,-20.9281,-6.9406,3.6312,-5.2842,-0.26461,-9.5155,4.0221,4.6696,3.8378,-1.1432,-4.0134,
-8.5802,2.6092,-6.4385,-5.5725,-16.5266,6.7873,9.1328,-14.3487,5.1554,-10.3193,18.4894,17.7075,-15.1746,-11.124,
-0.11163,-5.6218,-1.8343,0.18479,-8.5453,-7.7199,-5.5152,-11.1979,5.328,-2.59,3.28,2.5451,-2.213,-6.8413,
-11.6741,0.018178,10.327,12.7072,6.0674,-21.3567,-18.5611,-2.3314,-9.0917,1.4218,-11.0168,-11.7076,9.4894,-2.5745,
-16.2763,6.766,-4.3926,-2.1552,-8.3967,-5.9753,-3.3475,2.1468,-15.1744,5.1929,0.0083464,3.0948,-5.1799,-7.7226,
-1.1997,-7.74,-18.229,-16.1259,-21.9929,-13.209,4.2048,0.81331,-0.1639,9.9431,7.9617,-2.3936,-18.9691,-21.3593,
-15.2277,5.3782,-17.8582,-1.0584,-15.2499,-22.2985,18.0525,-13.3355,13.9459,-4.7535,21.584,11.85,-3.731,-5.9777,
-0.21407,-4.5856,-2.6867,8.2845,-0.23493,-35.0606,2.8694,1.5646,-0.99082,9.6317,6.189,-2.961,10.5929,8.4809,
-14.3012,9.7895,11.5745,2.7259,3.2739,-35.0056,0.76892,-12.6292,-8.5237,-5.0462,-1.8953,-16.8834,6.3419,-2.0301,
-25.4942,23.3022,18.8338,-1.535,17.1774,-18.8053,14.8228,-21.6333,6.0878,-11.6127,12.3184,-1.7704,3.7917,9.4194,
-9.8646,7.804,3.6038,-15.5429,2.0468,-3.577,4.6539,-6.2353,19.8225,3.1841,25.4384,12.4359,-10.5358,-5.2457,
-5.0549,-6.7642,-10.7125,-0.51034,-12.176,10.7376,1.7233,8.2388,17.1869,16.3699,9.8121,25.7897,3.2328,-8.6664,
9.3484,-1.0558,4.0303,7.2331,2.6545,6.5987,-12.4801,21.8445,2.0557,29.4877,-4.8767,10.1423,17.1388,5.9536,
-5.3125,13.1075,17.8885,17.8865,-0.63798,-7.8972,1.887,6.4338,16.0323,13.6184,9.3959,-4.5662,2.0105,-5.1292,
-19.0937,26.4211,5.9689,29.5876,7.8362,-14.775,15.8738,-8.0522,29.1704,-1.2987,22.9322,9.8078,-11.3668,0.23954,
-3.8481,10.7358,-8.4892,13.7123,-6.734,0.21154,5.1595,-6.7254,30.192,1.3099,18.0608,23.3193,-10.9257,-10.6206,
6.7469,-4.0083,-14.6081,-1.2104,-20.4299,14.2988,-9.2501,7.7781,14.2805,15.3313,2.8772,35.6586,1.5399,-7.8142,
20.4421,-5.696,0.3684,-15.2378,-5.1041,19.7077,-22.7951,21.4114,-0.67637,28.5114,-11.3954,19.4191,15.5475,6.7546,
5.1155,6.938,14.4463,-0.22354,0.14308,4.4252,-7.3274,6.0267,11.4155,12.7007,-6.8553,4.1539,0.99661,-7.7507,
-9.2914,20.6217,-0.52048,13.8899,-3.2395,-9.9403,7.2123,-8.4349,24.8306,-2.1613,7.656,18.0047,-13.1632,-0.054779,
0.30463,5.2844,-10.9738,1.8488,-8.107,4.7561,0.99518,-18.5339,9.2408,-10.7085,9.2458,31.0244,-9.6014,0.67164,
14.3864,-9.1326,-9.1103,-12.3622,4.1895,18.5707,-13.1645,-3.3218,-5.4137,4.034,-5.409,39.2861,5.0747,7.1388,
27.6232,-11.3564,-8.0817,-25.7204,18.0381,31.5565,-26.4747,10.9775,-13.1632,17.892,-19.1844,22.8289,18.8702,20.8105,
11.8658,-15.9775,-11.9352,-10.0772,2.8559,15.5631,-10.7862,-3.7812,1.7266,2.7184,-3.9334,7.3592,5.6869,5.4619,
-2.9462,-0.91886,-3.0244,4.6274,-11.4155,0.52932,3.961,-17.6543,15.723,-11.5447,10.4026,21.0176,-8.7543,-8.9659,
-4.4566,13.2363,5.8342,18.4498,-8.1993,10.5002,9.2669,-14.9078,7.7901,-8.6824,-1.5497,5.6566,-17.2678,-2.5226,
9.9108,-1.6579,-7.5313,3.2428,6.3927,23.9702,-5.3891,0.086655,-6.7773,5.9386,-15.5567,19.4172,-2.1317,11.7287,
23.4161,-15.6584,-21.1794,-11.0518,20.1091,36.632,-19.1657,14.1815,-20.4707,19.6823,-24.144,32.3521,12.0962,25.125,
10.9238,-20.7448,-11.8343,3.7113,4.8026,20.3341,-3.9158,3.2076,-5.1424,4.4013,-8.5954,16.311,-2.7296,9.5175,
-3.8316,-5.4001,2.9757,17.5887,-9.5856,5.014,10.4192,-11.0849,9.2661,-9.9628,6.0203,16.1757,-16.6658,-5.1535,
-9.7476,9.0239,16.8972,12.5565,-3.949,-9.3868,4.7323,-23.3146,-5.3899,-18.2833,5.1769,1.1052,-19.763,-18.9443,
4.9372,-5.6176,1.7834,-2.2969,8.821,-12.8005,-9.6516,-7.8158,-19.1665,-3.0863,-9.2337,-13.0611,-4.4772,-3.7077,
18.741,-13.5957,-12.4236,-16.2591,9.2557,0.018756,-23.1725,6.7532,-27.1756,11.1989,-10.0053,-8.6619,9.8914,10.6148,
7.7344,-12.2979,-16.4986,-11.1862,-5.3996,-10.1054,-7.6822,-1.124,-11.4451,-3.2116,-2.1743,-10.5524,-4.8021,-4.1221,
-6.8297,2.54,-1.4087,3.585,-12.4269,-4.9195,6.8788,-15.1566,3.3416,-17.1189,12.0562,4.1807,-18.6139,-17.9748,
4.788,9.0158,12.0527,7.5877,-2.7634,-18.7244,-7.634,-9.7882,-10.9589,-16.4534,-2.7672,-10.1701,-10.7484,-22.3196,
-5.6226,3.6541,10.8476,6.6505,9.4539,-3.5009,-21.2759,-2.9344,-24.4013,-9.1993,-16.7012,-23.6599,3.9965,-6.8805,
-12.7568,2.2298,-3.9032,-7.8485,-5.2133,10.8091,-6.5018,-5.8916,-32.3372,-5.5141,-4.7323,-9.8273,-7.2101,-6.3467,
2.1086,-8.2681,-17.769,-21.4776,-19.0005,-3.9394,7.9883,-3.3687,-16.2969,0.84257,9.6516,-14.7813,-13.2852,-20.0659,
-12.1179,6.328,-2.6029,-6.089,-3.7605,-17.803,21.609,-7.9873,-1.2191,-13.308,23.1725,0.20557,1.6119,-4.7619,
2.7091,-2.6081,-4.4956,-5.3622,-2.2093,-30.8349,6.2125,6.592,-8.1358,1.5905,7.6821,-13.9068,11.7588,2.2725,
-11.5534,11.6484,9.8741,9.0596,12.0233,-29.2257,-6.3321,-6.6983,-4.7552,-12.6049,-3.0222,-27.1724,8.1612,-11.3612,
-22.9113,25.0495,15.4277,17.0724,18.4122,-13.3722,8.1479,-4.8503,9.6301,-13.8973,11.2592,-11.442,6.707,3.4204,
-7.4366,9.4465,0.40203,1.948,3.2075,1.5301,1.7537,-4.0771,22.9111,-6.7972,1.7858,1.0546,-7.7954,-10.8848,
-5.1829,-5.2203,-13.7221,-2.3867,-11.085,15.5383,3.0947,10.2675,22.9825,4.6981,3.1251,15.0914,1.4701,-2.5192,
9.228,0.15464,-8.0781,5.2283,3.5597,0.50603,-11.191,23.7514,7.5036,18.5162,-11.1624,0.085872,15.4819,11.732,
-5.4256,14.2454,6.5066,19.0146,4.069,-13.6243,3.5805,8.2263,1.3892,3.3052,3.6074,-14.0193,6.2374,4.6406,
-19.2001,27.4906,19.4933,14.8607,3.1017,1.2931,17.4657,-6.3672,15.4059,-10.9931,17.4909,0.92188,-8.2369,-4.0733,
-3.9481,11.7412,4.2237,-0.1309,-11.1844,15.3155,2.3177,-6.7083,5.9251,-8.526,2.3415,-2.7489,-18.4684,-17.9289,
10.3888,-3.0633,-10.1297,-14.223,-21.2387,28.4966,-11.9213,7.7942,-8.5304,6.0855,-11.899,11.5161,-3.2603,-2.9943,
23.8655,-2.8795,-0.60407,-8.7901,-5.8643,25.0996,-25.3061,21.4265,-22.1185,19.8204,-25.2851,-3.2749,11.0353,11.2853,
8.3335,11.3933,13.5322,5.8373,-6.8382,9.4936,-9.6877,6.0409,-6.6914,4.5312,-9.668,-17.1784,4.3476,-3.4918,
-6.2665,24.8097,5.128,19.587,5.3822,-5.176,4.9936,-8.4215,7.8101,-9.8407,5.0121,-2.0477,-10.0132,0.57387,
0.61699,9.2211,-6.5081,4.3118,-0.9663,9.2346,10.7195,-13.7008,21.4415,-11.6604,17.0034,12.1752,-12.1843,-1.1473,
7.5698,-5.4322,-15.0355,-10.0469,-12.2365,22.7805,-4.0237,1.2212,6.055,3.1393,1.8832,25.5444,2.6468,-6.1402,
21.2157,-7.0344,-0.033367,-23.5441,2.5977,35.5137,-17.8822,15.248,-8.4083,17.0509,-12.3298,9.9118,16.588,8.3282,
5.8427,-11.1921,-4.0082,-8.0314,-8.7659,19.2828,-2.7093,0.23308,6.1962,1.9278,2.51,-4.7829,1.4927,-6.2715,
-8.6079,3.5794,-7.3834,6.5504,1.1598,4.0259,11.5532,-13.8809,19.9244,-12.2878,16.4594,9.604,-12.6968,-12.4031,
-3.6326,16.2594,2.4598,18.8112,7.116,5.1096,13.9931,-11.843,8.2441,-12.7556,3.6615,7.7022,-18.9247,-0.3305,
10.6854,1.1838,2.312,3.5825,15.8481,18.9031,-0.9465,2.9676,-6.3505,2.1097,-10.6582,21.3401,-3.6892,13.7893,
24.1443,-11.0587,-11.083,-10.7325,28.9972,31.8689,-14.9897,16.8895,-20.0695,16.0831,-20.7441,19.6984,10.6322,27.062,
9.9216,-23.6514,-13.5511,-6.955,13.1574,15.8567,0.0096682,8.4044,-4.7653,1.0181,-5.3995,4.4165,2.0405,11.3383,
-4.7737,-8.1323,1.3619,7.5623,-1.7321,0.80533,14.1091,-6.1999,9.6206,-13.1429,9.0245,18.2515,-12.1819,-3.442,
-10.6335,6.4556,15.3802,20.4856,-6.8101,-11.2939,8.9245,-12.4561,-5.0566,-8.9799,-5.617,3.0564,-19.5255,-3.7175,
4.1045,-8.0317,0.3574,5.1565,7.6985,3.4838,-5.711,2.3913,-18.8532,5.6589,-19.38,2.0293,-4.254,10.6056,
17.9582,-21.6498,-13.764,-9.2529,4.7058,17.3748,-19.4684,16.3478,-30.9782,19.4193,-14.6019,16.0075,10.1013,17.5613,
6.9986,-16.4947,-17.2767,-5.0825,-9.6766,2.2323,-4.2003,1.2669,-15.0195,4.1542,0.37425,0.94707,-4.6048,2.4076,
-7.5214,-1.405,-2.1401,9.3224,-11.6266,-4.0479,10.1518,-12.9091,-0.018339,-10.1951,14.4518,2.8187,-18.4285,-11.8368,
-5.9855,6.7537,12.0883,1.8939,-15.0263,-17.9051,-4.5573,-16.955,-14.1172,-11.5118,-0.51531,-11.4505,-16.8406,-20.0444,
-8.5184,-6.6669,-2.737,-8.8248,-0.14548,-24.6642,-18.3839,-1.8377,-17.729,-9.3748,-14.5844,-24.8634,-1.7302,-8.2365,
-7.5254,-8.1951,-16.6728,-22.3953,-6.8852,-9.0844,-18.9679,5.8651,-18.1115,-4.4735,-5.9963,-37.4716,-5.6035,-2.9216,
5.7004,-10.8366,-19.2879,-19.726,-20.5721,-7.4547,-3.7298,-3.8871,-2.9248,-3.4825,-2.5033,-21.1233,-10.3287,-16.8463,
-8.7417,3.9136,-4.0306,-4.4425,-5.2378,-9.8995,10.594,-12.3305,11.3507,-17.3735,11.7469,-5.7559,4.391,-3.423,
5.8828,-9.9393,-4.8733,-11.5272,-4.6828,-23.4055,-4.1416,2.5093,-3.4304,-2.2311,-3.0579,-19.5106,5.935,-9.0022,
-8.5701,4.757,9.5191,3.2644,8.8548,-36.1012,-11.7266,-5.2335,4.3677,-12.9433,3.1513,-32.4399,2.9276,-5.3288,
-20.2277,18.5716,12.4426,17.1685,15.0722,-19.8351,3.077,-2.0277,18.2057,-4.9361,17.0623,-16.3935,6.6086,9.0909,
-4.9141,3.3573,-2.4039,2.0384,0.067877,-4.545,11.2078,-5.5212,3.0133,-2.4705,1.9385,-6.0099,-7.888,-5.5545,
-15.5855,-4.1954,-16.3597,-12.1839,-14.0362,9.8277,5.2327,4.9334,16.9325,-1.358,2.5451,8.4507,-0.30432,5.625,
-0.55038,5.9385,-1.2781,0.3575,0.90598,-4.862,-9.1813,18.7374,1.8166,12.8235,-11.7076,-6.1564,13.8139,19.3875,
-11.9663,19.6821,12.8986,14.4361,10.1311,-18.6703,5.4696,3.5132,1.7076,-2.0459,3.0949,-19.887,4.9106,4.1243,
-25.3483,32.6012,23.2119,23.5725,9.523,-3.4501,19.2414,-10.7976,15.7051,-16.0231,17.0092,-4.5938,-9.484,-7.4516,
-9.7274,16.5451,7.7192,8.0582,-5.1483,10.857,11.2178,-1.8346,17.2937,-10.121,9.1197,6.2872,-14.82,-21.1045,
4.9563,1.4524,-6.844,-6.5253,-12.1908,24.3055,-3.5553,12.3755,2.156,4.5863,-5.5275,20.0099,0.16919,-5.7382,
18.7589,-10.927,-6.4333,-6.616,2.6407,8.7472,-17.442,25.733,-12.0733,18.4111,-19.0551,4.7093,14.259,8.706,
3.5333,3.8286,8.0527,7.881,-0.7715,-5.8776,-2.2955,10.089,2.7511,3.2064,-3.8118,-9.6732,7.6187,-5.4342,
-10.7787,17.6989,15.8852,19.58,0.23865,-11.551,11.9423,-4.6163,16.686,-11.086,10.5169,5.0072,-6.9384,-16.1953,
3.9681,2.537,0.9523,4.3052,-2.1858,3.2421,10.9845,-12.2933,21.7104,-9.6977,20.0088,13.1424,-14.5966,-11.8492,
15.6608,-11.7153,-13.2048,-10.0532,-12.6595,17.1476,-3.7745,2.5443,6.3078,4.9842,4.7083,26.4539,0.37921,-4.8717,
28.8212,-9.3251,-4.0971,-23.55,2.2001,22.6266,-17.6481,16.4916,-8.1707,18.7851,-9.6742,10.7666,14.4565,9.5206,
12.9919,-7.0786,6.9947,-8.037,-6.4885,7.169,-2.4892,1.4021,6.4195,3.558,5.0062,-3.9794,-0.51093,-5.1506,
-1.8876,7.4461,6.8162,6.5453,1.3728,-7.3611,11.7602,-12.782,20.1344,-10.7555,18.8059,10.3594,-14.5803,-5.3235,
1.4794,14.5916,6.6482,19.5294,6.8336,5.6138,22.8649,-10.8098,16.275,-11.3154,15.0264,23.8378,-0.44907,5.8421,
15.4906,-0.38386,1.1879,4.2576,6.6648,19.377,7.393,3.9388,1.1985,3.4635,0.024824,16.0206,13.6779,6.6967,
28.6612,-3.3735,-4.6681,-10.0978,20.3649,32.3144,-7.1506,17.8025,-12.9734,17.3557,-14.0767,3.0079,26.9572,20.3949,
12.8415,-17.2711,-15.7163,-15.5177,5.043,16.2755,7.3785,2.6343,1.905,2.2143,0.86793,-10.4291,11.2398,5.0712,
-2.029,-2.1348,-8.0242,-0.48666,-9.3596,1.199,21.0358,-11.6237,15.8907,-12.0185,14.9159,4.2967,-3.5346,-9.3331,
-7.2099,12.0933,6.5573,13.6425,-7.4722,7.3938,10.1324,-12.8545,10.1168,-9.3692,2.9337,1.9902,-13.4454,4.1218,
-2.6797,-1.7683,-3.3569,-1.276,-1.9624,15.8682,-4.5755,2.0168,-4.5902,5.2929,-11.3423,-1.2625,1.4613,7.0078,
11.5811,-11.3031,-17.2555,-15.2995,9.7243,18.2902,-18.401,15.9958,-18.4148,19.0754,-20.4234,12.9133,15.4736,13.3361,
4.9813,-18.3377,-18.0277,-10.2838,-4.9591,3.0928,-3.1969,0.93601,-3.2099,3.8308,-5.098,-1.9615,0.44519,-1.5641,
-9.4176,-3.1374,-2.8461,4.4332,-15.1463,2.064,11.0949,-13.2202,11.0827,-10.499,9.3079,12.2562,-13.6815,-15.5702,
-2.7066,11.1508,11.4247,7.6621,-8.6936,-12.1599,1.7523,-8.5708,-3.6823,-13.7252,-5.3506,-2.5792,-9.004,-20.4209,
-5.6775,-2.7745,-3.3608,-6.8977,5.928,-17.5765,-12.4528,-1.0664,-17.5614,-5.4301,-19.1295,-16.5245,5.6362,-5.9391,
-4.8549,-14.6596,-17.2591,-20.5838,-5.8764,-2.4219,-12.7902,0.92574,-22.7742,-1.7299,-7.8585,-29.633,-2.7766,0.6838,
6.7646,-12.0928,-16.9468,-11.395,-19.6238,-6.4947,2.0772,-2.2633,-7.3077,-5.2415,4.9051,-13.755,-14.4202,-13.4572,
-7.7413,2.7328,-1.83,3.3887,-4.3464,5.7054,16.0525,-16.2275,7.2307,-19.027,18.7108,1.1703,-3.6728,-0.95969,
-1.6127,-3.5772,2.2566,-7.2992,-11.7986,-8.737,0.9894,-1.877,-7.3031,-3.7854,3.4881,-12.9999,-7.3088,-15.0021,
-11.8801,10.7374,14.4133,7.2387,3.0093,-22.3127,-9.0726,0.40458,1.9322,-7.4147,3.2788,-26.3199,7.2297,-2.6538,
-15.0236,24.1932,-0.55149,16.0837,16.9288,-6.874,5.5717,-1.066,15.9163,-3.1134,17.1821,-10.6407,6.434,11.6055,
-0.022226,8.6416,-14.6184,1.0187,1.813,7.6385,17.6504,-11.1247,8.0921,-5.8189,10.2461,1.4464,-8.052,-3.1909,
-12.9158,8.0024,0.23822,-6.8757,-12.3957,21.2801,19.2427,3.2811,21.3451,-6.1926,14.693,15.4596,-0.45853,-3.7221,
1.9591,-2.6008,6.4908,-8.8732,2.448,5.9033,3.9882,17.1843,5.9644,8.2789,-0.28856,0.43203,13.669,10.6012,
-9.1249,11.6553,20.2013,5.7592,15.4373,-8.5509,11.8231,2.0532,1.1475,-6.3178,-4.7303,-13.6939,-1.2512,2.3726,
-22.6774,25.056,24.1715,19.5137,19.5725,6.0622,25.2137,-12.17,15.1787,-20.0387,9.6535,1.2277,-8.4067,11.1486,
-7.2168,9.4526,8.6212,4.2428,4.2981,19.7985,9.6009,-8.668,0.16796,-6.4237,2.6871,15.2541,-22.0023,-3.6203,
-2.9274,-5.2146,-5.996,-10.1117,-10.0598,32.7106,-5.0752,5.9521,-13.9421,8.0618,-11.5741,28.4388,-6.5822,-1.1135,
11.3482,-5.3839,-1.539,-2.2744,4.6438,16.6479,-18.8706,19.695,-27.2056,21.6781,-24.9797,12.6325,7.9128,13.0533,
-3.4327,9.0392,12.6533,11.962,9.5469,1.549,-3.6384,4.4133,-11.4733,6.2774,-9.3809,-2.2254,-3.0468,-1.8299,
-17.3267,22.5968,25.9941,25.3443,15.2411,11.82,10.6799,-9.9515,3.3151,-8.1993,5.282,-4.9842,-16.964,-13.7716,
-2.1871,7.141,10.3345,9.7237,0.22659,25.2108,11.7263,-7.6672,6.7317,-9.3945,3.7602,9.4148,-10.7638,-13.6682,
12.0441,-7.3874,-4.3856,-4.9598,-13.887,37.7981,-3.0773,6.8928,-7.7722,5.2691,-10.5654,22.9499,3.9821,0.16729,
25.4215,-8.3902,-16.6557,-18.7622,1.0462,21.4302,-16.9926,20.5793,-21.4059,19.053,-24.0315,9.5215,17.8431,14.2573,
9.7962,6.2132,-1.5564,-3.5364,-8.5375,6.0444,-1.8731,5.2445,-6.0216,3.8098,-8.4896,-5.1498,5.6851,-0.69818,
-4.8916,19.9404,12.637,10.7757,-1.0351,-8.4182,12.3393,-9.1702,8.4397,-10.5188,6.1198,9.2592,-8.756,-5.9589,
9.5019,18.5031,12.6018,18.2038,10.1142,6.1869,19.7939,-11.0301,22.0334,-7.4775,19.8526,22.8037,-14.6176,5.4858,
20.8626,3.2929,-2.2543,3.0115,2.0355,19.9156,4.5063,3.7317,6.6114,7.0711,4.5614,19.6278,0.35941,4.9157,
33.7109,-4.7382,-8.024,-11.2691,16.0134,32.8207,-9.8641,17.6078,-7.8853,20.7469,-9.8122,4.3502,14.4378,18.7208,
17.5882,-18.5539,-12.6044,-20.4752,0.95259,16.7515,-5.1749,2.4513,6.6878,5.402,-2.8365,-10.0108,-0.52843,3.4975,
2.4329,-3.3407,1.8905,-5.1467,-13.2046,1.6464,9.2356,-11.7957,20.3865,-9.0221,11.4337,4.6898,-14.5967,-10.8123,
-0.0031404,10.9597,15.877,9.2621,-2.1689,-12.5524,-3.7316,-10.3649,5.0633,-14.9885,-3.3523,2.6007,-12.0339,1.0437,
5.2997,-2.8336,3.7167,-5.3936,-1.0744,0.8547,-17.6077,4.357,-9.3405,0.010847,-17.2512,-11.6553,2.7881,0.017173,
19.0817,-4.5917,-10.6063,-19.17,12.0051,7.0701,-27.0357,18.1956,-22.88,14.1102,-29.8343,3.144,16.7208,13.9955,
4.319,-17.8139,-24.0699,-22.1174,-2.8152,-7.4542,-11.3135,3.0039,-7.4072,-0.83642,-13.9443,-11.1446,1.6176,-0.94419,
-10.0402,-2.6451,-8.5257,-6.6903,-7.8279,2.7547,3.4653,-11.2764,7.1372,-14.8862,0.9924,3.624,-12.5795,-14.9875,
2.0109,9.6857,6.0858,7.8111,-5.671,-11.5106,11.9344,-7.9487,-7.391,-10.8596,-5.8155,-10.6934,-5.7987,-0.59059,
-6.0637,-2.7058,-1.028,-6.7576,1.1765,-15.52,-2.8817,-1.446,-21.0476,-5.6285,-18.2412,-24.1518,8.2873,-2.2426,
-4.4944,-16.6435,-15.0663,-20.4521,-9.7401,-6.6348,-16.8088,-1.118,-22.4358,-0.71125,-11.6029,-14.0256,0.3185,-11.5078,
9.8753,-17.9345,-21.2725,-9.5838,-13.735,-20.3367,-1.7003,-2.7382,-6.9897,-1.3919,1.3853,-2.338,-13.8006,-24.9174,
-4.8172,-2.7584,-5.8961,5.0912,1.1891,-5.0165,12.5017,-16.6739,7.5297,-15.4084,15.4022,11.9022,-2.488,-10.5271,
-0.18986,-3.9189,8.5574,-9.3142,-10.3311,-18.8155,-2.3484,-5.1889,-7.0221,-4.4813,0.37807,-2.9119,1.7586,-19.296,
-12.4708,5.7164,5.3926,4.2598,4.3887,-17.8073,-2.3282,-1.2623,4.6067,-6.8637,6.6221,-16.8372,15.7531,-4.0382,
-16.0611,19.4734,-9.0309,11.717,18.2254,-2.6389,11.9115,-2.1507,18.4303,-2.1133,20.3248,-1.7269,17.3388,10.3041,
-1.841,4.205,-22.5891,-3.086,3.0319,7.7631,17.1021,-9.4935,10.6963,-4.1557,25.0104,12.4767,2.1984,-4.4142,
-15.8306,18.0527,-7.1337,11.1991,-1.1269,-0.41548,30.176,5.1761,24.1545,0.91412,35.0791,25.8281,7.7306,1.5148,
-0.78072,2.8696,-2.2464,-3.5728,-1.3,-14.4906,14.2654,18.9656,8.6053,14.9593,18.8744,10.1784,9.9181,5.0395,
-8.4467,16.7974,11.9884,10.7416,11.552,-23.6235,3.7685,3.7276,7.1249,-0.038282,8.7034,-4.5323,4.7437,4.9781,
-22.0399,29.8896,16.4508,24.1971,21.223,-8.1061,17.6424,-10.596,20.7974,-14.136,22.2812,9.8396,-4.4592,17.9356,
-6.6175,13.9962,1.3637,8.6452,5.8496,6.4802,19.5967,-9.7193,5.4495,-4.2493,6.8443,0.93383,-18.2916,2.7595,
-7.9076,-0.94359,-12.8181,-5.9735,-8.6014,20.1914,4.3209,3.8793,-8.9774,-5.4406,-7.6664,14.9778,-8.397,-11.5061,
6.6668,-10.287,2.051,-10.0739,6.0147,7.0489,-10.0384,17.7465,-22.5388,8.9859,-21.3064,28.1791,6.2068,3.2843,
-2.5305,4.4302,16.0279,4.6306,7.2205,-7.4741,4.6639,2.5817,-12.5096,-5.6533,-12.3152,12.3884,-1.0348,-3.0588,
-16.4787,18.2644,29.1662,18.4527,9.1974,7.0744,18.4841,-11.6732,2.341,-19.4141,2.5237,2.3656,-15.0727,-6.2497,
-1.39,3.0686,13.3163,3.2456,-5.4544,20.7499,4.6006,-5.3085,16.3005,-7.2827,15.5084,16.3236,-14.2886,-11.4184,
4.9597,-11.2156,-1.5827,-11.0492,-19.2271,33.6049,-9.7755,9.1101,1.2225,7.2542,0.4779,29.4442,0.66875,-5.1899,
18.7621,-15.1221,-15.5877,-15.4477,-3.9735,17.4886,-21.8427,22.6635,-12.9509,20.919,-13.6508,13.5776,14.7286,9.2215,
3.5364,-0.11481,-0.55248,-0.42081,-9.3992,2.3393,-6.4321,7.2036,1.9262,5.5638,-8.0117,-1.3371,-0.25509,-5.4318,
-10.7758,13.9921,13.5807,13.7044,-0.39911,-6.4777,8.0538,-7.3286,15.9106,-8.87,6.569,-12.1029,-14.3398,-19.2059,
3.9708,17.973,17.8275,9.9899,7.3376,7.4083,16.7296,-11.2274,7.2432,-11.712,9.67,2.7233,-13.4792,-3.9535,
11.6865,2.7947,2.6579,-4.7095,-7.2026,21.0638,1.6258,3.5462,-7.2914,3.0907,-5.0102,16.6599,0.82671,-2.9927,
25.0853,-11.473,-11.6016,-18.5269,6.6064,28.1154,-12.5717,17.4335,-20.9539,17.0053,-18.8096,21.4449,14.8771,11.2868,
9.4802,-17.7743,-13.5566,-25.8512,-7.89,12.3285,-4.3456,2.2875,-5.5967,1.8849,-3.581,6.0582,3.2589,-3.4904,
-5.1886,-2.6078,1.3568,-10.2002,-13.3217,-2.5112,10.0151,-11.9498,8.8391,-12.3282,10.7339,12.3229,-11.0366,-9.0658,
-0.90022,11.6486,14.6522,4.5119,1.5776,-16.4605,10.2576,-12.1969,22.4088,-2.9116,15.3923,9.1731,1.7974,5.5782,
5.9027,-3.1503,-0.32689,-9.8589,1.3625,-1.3729,-4.4578,2.6349,6.9643,11.3631,0.36872,-5.4772,6.5103,2.2305,
19.6485,-17.0613,-14.4073,-23.3673,-1.1295,12.8095,-18.2904,16.5768,-7.5536,24.7813,-13.7534,-15.6331,11.4222,4.9891,
10.154,-20.8581,-25.3532,-18.1089,-15.1617,-2.0591,-3.093,1.4822,6.9996,9.1944,-11.7227,-28.6747,-3.3631,-9.4103,
-4.5553,-5.5066,-12.7448,-2.9224,-13.6495,-16.0356,11.1926,-12.7067,20.6796,-5.4572,3.0807,-12.8542,-17.2614,-14.9916,
-0.54582,8.9238,2.1199,11.353,-6.3226,-11.3375,-3.5789,-12.6675,5.3389,-4.4067,-5.1786,2.017,-5.1386,0.0079194,
-10.6362,-5.7116,5.0053,-3.4282,0.32305,-16.924,-17.4642,2.1926,-9.0815,3.0883,-18.9679,-5.3346,5.7748,14.1074,
-2.2853,-17.7819,-9.3951,-17.3225,-4.0346,-5.7854,-19.3084,10.6177,-22.6366,8.6881,-17.7093,9.0855,4.9464,6.9943,
4.8415,-18.402,-22.9314,-8.5704,-17.8926,0.1053,-4.4116,-4.1194,-7.1784,-2.6797,-2.5468,4.3223,-9.4504,-7.5254,
-9.549,-3.1979,-7.4555,6.0438,-2.719,4.4373,9.9531,-17.4903,7.3523,-16.4984,11.706,18.1629,-1.7732,-0.92762,
-0.41966,-11.0805,6.1282,3.3913,-13.6433,-9.9289,-4.7441,-7.0411,-7.1888,-1.4085,-3.0963,2.9732,-7.6926,-14.1286,
-7.1434,-0.29274,15.8834,-5.489,1.2753,-20.5409,-1.8083,-9.0288,-13.6269,-5.5418,-1.5852,-11.3052,6.8689,0.69843,
-10.8121,13.8248,0.83042,-12.1495,15.2988,-5.2085,12.4002,-8.2461,1.2907,-5.4503,12.6099,-4.2399,7.5414,14.7565,
3.9366,-1.1047,-13.3194,-3.4666,0.28083,-18.9959,2.3769,-3.654,5.4314,-1.0259,0.16387,10.1145,-7.0111,-0.22887,
-10.3996,11.0129,1.5798,10.8414,-6.123,-22.1947,16.3343,-2.9526,5.1055,-9.6412,11.723,23.6076,-9.1211,-14.3151,
4.3244,-3.7478,5.462,-1.4988,8.3444,-34.9631,1.2542,11.3246,-9.3009,5.0372,-3.0804,8.0911,5.5262,0.64377,
-7.8657,3.8286,7.5447,12.6911,12.5437,-43.8318,-12.9211,-3.4549,-7.658,-7.4368,-4.2211,-6.4943,2.6638,7.3543,
-21.4938,17.6989,-6.6467,26.0296,15.8884,-27.1019,1.9542,-17.3476,6.9015,-21.0906,10.1321,7.9953,1.2987,21.013,
-6.1041,2.5369,-15.166,10.3678,0.83513,-11.3758,15.937,-6.5453,7.8129,-5.7252,15.1883,21.6156,-8.179,5.6522,
-12.4866,-11.7153,-25.825,-4.3542,-13.315,3.4068,0.88074,-1.3319,-6.7558,-2.4894,0.17701,33.3341,-1.9037,-8.7869,
2.3626,-8.2407,-10.1755,-17.8313,1.5839,5.0102,-13.2721,12.8481,-20.4505,11.76,-13.9336,17.2341,12.3105,5.8403,
-5.1304,6.3538,4.535,-2.6614,10.0457,-9.3904,1.6242,-2.0228,-5.1235,-3.0456,1.0024,2.1,3.7386,3.5617,
-18.9226,20.0725,18.3629,11.5983,9.6835,5.273,15.6268,-16.0015,9.284,-16.9629,15.0423,0.045589,-10.5857,-0.26787,
-3.6873,4.7682,3.1612,0.53816,-4.9975,19.0566,26.3788,-6.4852,19.091,-1.8451,9.5602,14.1429,-17.3016,-7.4822,
0.14939,-9.6179,-11.1285,-13.5941,-18.7977,32.0132,10.6961,8.0039,3.8456,12.3656,-5.1134,27.3943,-2.1635,-4.1407,
14.2404,-10.487,-24.5608,-19.4067,-3.5698,15.9924,-4.0457,21.6237,-10.4852,25.7237,-18.9066,18.7612,12.0663,10.2077,
2.9014,4.2422,-8.9871,-4.1423,2.3087,0.93289,7.7664,6.2262,4.2439,10.0803,-3.6722,3.5355,6.5216,-4.5048,
-11.3727,18.0877,5.6521,10.2063,4.3396,14.9769,21.4005,-8.2473,18.0893,-4.6246,10.6481,-10.7766,-7.9697,-18.3345,
3.4097,20.6181,19.413,11.7633,2.6329,28.1783,6.7396,-7.7523,6.8808,-9.8907,10.0095,3.97,-21.5915,-12.2937,
17.3051,5.281,4.1482,-3.0425,-6.2021,40.5876,-7.7648,6.8129,-7.632,4.8027,-4.6911,17.8318,-6.196,2.544,
30.3668,-7.449,-10.2007,-16.96,8.27,29.1138,-21.3989,20.5041,-21.2741,18.6146,-18.5096,2.6619,8.2757,16.4913,
14.4448,4.0851,4.0289,-1.8424,-6.3262,13.267,-6.015,5.1739,-5.8977,3.3977,-3.2991,-11.5978,-5.9594,1.4018,
-0.52189,17.94,17.8872,12.3682,-4.9823,1.0222,8.4459,-9.2366,8.5562,-10.9062,10.9989,-5.8405,-19.7018,-12.7823,
12.0429,30.9636,27.0578,23.9181,9.4166,-8.9211,10.1083,-12.78,4.4274,-9.0467,-0.50707,1.0176,-8.5168,2.0847,
7.7049,15.0058,11.3343,8.3831,-4.7662,5.7142,-4.5982,2.0868,-9.9382,5.5961,-14.5767,-0.24825,-2.4622,-2.9811,
21.3426,0.0054204,-3.4457,-6.2199,-18.5802,19.4713,-18.4223,16.0616,-23.442,19.3603,-27.8021,-14.3334,-1.3506,-7.623,
5.9621,-13.2513,-17.339,-13.8005,-30.1194,4.203,-7.9172,0.99793,-7.9354,4.0987,-12.0339,-27.5734,-12.598,-21.2656,
-8.4957,1.6438,-7.9834,1.1276,-20.8409,-6.5337,6.6578,-13.1619,6.6407,-10.2472,2.7881,-11.819,-16.4214,-7.3362,
6.1141,15.6452,6.5956,15.1599,-5.4904,7.9583,3.2456,-7.5515,14.9191,-5.776,-3.6462,-14.605,-1.3361,7.204,
-3.412,6.5117,12.828,0.15031,4.8416,-5.6553,-11.0491,7.0016,-0.076028,3.9708,-17.5274,-16.38,10.6749,4.7233,
2.8185,-7.979,-2.0417,-13.9587,-8.2231,-3.1466,-24.4862,11.2815,-14.1715,5.9015,-27.9242,-1.2972,-4.0656,-6.4061,
10.6029,-12.6826,-16.0192,-9.0238,-21.8297,4.9959,-8.917,-3.4954,0.77882,-5.2987,-12.1487,-15.3194,-17.9217,-20.1217,
-4.1333,2.1783,-0.95801,5.6176,-6.4199,18.7962,5.718,-14.7346,14.8321,-15.3448,2.6802,-0.30021,-2.7464,-4.8144,
7.0817,6.5067,-4.3952,15.0422,-1.6962,3.5684,-8.7251,0.24948,-0.15783,-0.32414,-11.5806,-14.3822,-0.29171,-7.4179,
-6.5994,19.8548,9.9685,2.3293,12.5056,-5.3226,-3.0194,-3.0192,-14.2484,-10.7893,-4.0166,-27.6193,12.5,6.2834,
-7.168,28.3047,-4.7296,-8.8977,18.1425,9.0968,11.2618,-3.8022,0.70654,-7.2496,10.3244,-20.5388,9.8216,14.1013,
7.3621,12.5064,-18.5459,-5.2303,2.9539,-5.549,4.4398,-3.8152,5.1232,-6.5735,5.0049,-5.2064,-4.8677,-0.84478,
-7.1796,22.9635,-3.3331,9.1835,0.0049029,-14.3749,18.2734,0.9932,13.2517,-11.2405,18.8046,9.206,1.3297,-14.8941,
7.3512,7.4857,6.2668,-2.3344,-5.7799,-27.6124,3.077,15.0336,-1.6434,3.5339,3.5763,-5.4464,3.6601,-4.6003,
-7.1899,7.1573,16.0138,11.9057,8.6669,-22.9431,-5.0614,0.031588,0.021938,-4.5116,4.5668,-19.2196,12.5994,9.6549,
-20.8585,20.8279,0.95295,25.2914,22.2469,-9.274,9.3423,-14.0703,14.1206,-18.3409,18.3928,-3.9664,7.2637,19.9218,
-5.507,5.4782,-13.2042,9.6739,6.8121,5.3824,13.2408,-4.6695,5.6811,-4.8274,16.4459,10.3715,-7.2721,4.6265,
-12.8891,-8.9505,-20.8479,-5.0066,-7.6966,19.1595,-1.6536,-0.29195,-8.7598,-1.8867,1.3591,23.8493,-10.8122,-9.7511,
1.9842,-5.4007,-5.497,-12.4188,6.8652,12.2253,-15.6544,13.8256,-22.3342,12.3265,-12.8224,8.3183,3.9365,4.934,
-5.9686,9.0233,8.9328,2.4263,14.0452,-2.6082,-1.7,-1.104,-6.8941,-2.5131,0.9621,-6.2808,8.8821,-8.4977,
-19.7104,22.5819,17.5561,16.3807,15.854,11.6483,12.502,-15.1377,7.6195,-16.4623,15.0044,8.196,-5.7509,2.376,
-4.4278,7.127,2.4027,1.2979,0.80281,25.0494,15.0057,-9.2887,11.2597,-3.303,0.0041104,21.8043,-19.5058,-8.1304,
-0.78746,-7.4006,-11.8414,-12.88,-13.3454,37.6464,0.0053165,5.3686,-3.5159,10.9952,-14.0961,34.596,-4.2355,3.9268,
13.3598,-21.0566,-21.7362,-26.2072,1.5554,21.2877,-14.095,19.1465,-17.4049,24.4355,-18.9145,18.4203,10.1187,17.7912,
-1.5418,-5.6932,-6.3321,-10.5348,5.6801,5.9104,0.8507,3.8977,-2.2606,8.8694,-3.6796,3.2151,11.9221,2.6237,
-15.5493,8.7484,8.1479,4.1973,10.8827,19.6558,14.8997,-10.4362,11.975,-5.7628,10.6412,-11.0779,-2.8932,-11.6337,
-0.51634,10.5134,20.9154,14.9122,15.7736,25.1046,24.129,-3.543,15.5951,-8.3091,24.1027,3.6868,6.5597,0.75396,
6.7453,-4.2174,5.5605,-0.082503,0.72715,35.1675,8.5813,10.7696,0.55935,6.2894,8.5565,17.5656,14.8432,-7.4864,
20.4405,-18.0644,-8.8732,-14.1776,-8.8373,18.9575,-6.0336,24.2234,-13.5742,20.0121,-6.0568,30.6117,28.0526,7.0627,
5.1141,-8.3036,-4.0025,-5.6144,-20.1173,3.72,-0.85108,8.67,1.3402,4.7114,6.9603,14.675,12.2694,-7.461,
-9.2927,6.2946,10.3377,8.8225,-5.8946,-7.108,13.3,-5.9502,15.3598,-9.6713,20.6427,-0.30553,-2.5667,-8.2182,
5.3648,20.0169,23.8174,22.3932,7.7152,-11.7437,-1.598,-10.4137,10.0995,-3.7886,11.8116,5.2562,-7.5949,5.5311,
7.9352,4.7159,8.2884,6.9496,-6.8477,3.0609,-15.6021,4.3111,-4.6065,8.4898,-2.9971,-9.1592,-7.1392,0.86087,
21.5591,-9.6671,-6.3089,-7.5674,-20.5368,16.9773,-28.766,18.1525,-18.4301,22.0804,-16.9173,-22.7096,6.3047,13.3424,
7.8528,-22.5844,-18.4634,-12.4158,-33.4046,1.8586,-12.94,2.9633,-3.2243,6.6556,-1.8022,-18.9367,-8.1736,-1.5582,
-6.7184,-7.1293,-3.2556,2.4292,-20.4338,-12.3529,1.9364,-11.3145,11.0691,-7.8438,12.4059,-3.7005,-11.9013,-1.3441,
7.7847,7.3984,5.2549,12.5268,-8.1204,-25.7117,-12.2798,-4.3693,-2.6102,-2.9139,-2.4384,-17.5785,2.9127,11.7517,
5.1487,-7.1455,4.9399,-2.3248,-1.3666,-10.069,-25.643,2.1598,-16.5536,-2.739,-16.3921,-2.4238,5.9919,0.44181,
13.9986,-20.8167,-9.4565,-16.2853,-12.854,4.6351,-38.2045,10.7071,-29.6604,3.692,-29.5086,11.8217,-8.3471,-4.4052,
27.2587,-27.0398,-8.2867,-11.6926,-7.7442,-9.743,-21.8122,23.0803,-18.4807,16.0038,-15.807,-2.9876,-1.0976,-1.2486,
11.5232,-11.3174,6.3105,3.109,5.2539,-18.7994,-6.4035,7.5955,-3.2719,0.94355,-0.75861,-7.9908,8.1268,9.4312,
20.2319,-9.0715,6.0524,12.684,-7.3535,-29.9633,-19.3962,-4.5502,-16.9345,0.76634,-14.8131,-21.6113,3.0603,-0.53436,
4.918,-7.8042,19.7893,-2.177,7.1877,-31.2991,-17.9914,2.2304,-25.8005,-5.7872,-20.6732,-34.4146,16.1327,13.5977,
-9.4771,6.7641,4.5019,-10.8441,12.1795,-15.3212,-2.8119,4.9891,-10.1525,-5.44,-5.3328,-18.2498,11.3084,18.6868,
-6.9804,-3.4032,-9.8682,-1.0342,-2.6513,-0.30192,11.4568,-9.4103,4.5567,-14.2729,9.0872,-3.0548,-3.4701,3.4656,
-19.577,10.901,4.8239,13.1279,11.6078,13.8162,24.8694,2.3621,18.3833,-1.3649,22.6419,11.2285,2.6436,-9.6373,
-4.3024,-3.8531,-1.7323,-1.7598,6.3315,-1.1128,9.2772,16.3203,3.1803,12.817,7.1834,-3.5452,7.5463,4.6794,
-8.2621,9.6343,12.4717,12.4458,20.0516,-1.046,17.3972,1.2411,1.5432,-2.0521,16.3934,-4.0554,21.1935,16.4498,
-21.8663,23.1562,-2.3766,15.6757,16.8001,13.1167,30.4534,-12.9334,15.5506,-16.0289,29.5098,10.2879,12.5705,14.017,
-6.4544,7.6668,-16.334,0.63514,1.6921,13.4146,22.4804,-18.7855,19.5588,-6.7518,20.1473,23.7707,-2.2837,-0.92399,
-20.1671,-6.8932,-23.4283,-13.503,-12.5094,26.7097,7.0316,-7.2943,4.2853,-5.6235,4.8385,36.4444,-16.2467,-14.9685,
-4.8571,-10.6974,-7.9226,-13.4157,2.3412,11.0071,-7.4903,7.2433,-10.0719,8.8139,-9.5518,20.1578,-1.1719,0.029566,
-5.5298,4.0444,6.6527,1.4892,15.3366,-3.7533,7.0591,-6.3272,4.6325,-5.815,5.1213,4.8483,8.6598,4.9685,
-19.298,17.9018,0.22756,15.4999,15.38,9.3664,20.7356,-20.0475,18.4545,-19.5661,18.914,18.6574,-5.9597,8.0446,
-11.2709,2.7276,-13.8861,0.4699,0.35724,22.9044,8.6454,-24.0266,14.6959,-13.9333,3.6792,31.6379,-19.7022,-6.538,
-11.5588,-11.536,-27.1529,-13.6583,-13.7642,35.6301,-5.9733,-8.485,8.9934,0.88222,-10.6416,43.8397,-14.9044,-20.2458,
3.2348,-24.9439,-30.1028,-26.9388,0.80044,19.3923,-19.7149,6.1241,-5.6462,14.9293,-24.1031,27.1093,0.089882,-4.931,
8.9455,-9.3472,-14.1966,-11.2225,14.8524,4.1288,-4.432,-5.8127,8.7926,-0.066474,-8.5569,11.3827,13.7021,-0.89902,
-5.6912,5.3136,0.75516,3.5509,8.0562,6.2914,9.9339,-19.564,22.3651,-14.1625,6.0565,-3.4002,-1.22,-14.9451,
8.7502,18.3719,14.8098,17.4378,9.501,20.0139,19.4608,-4.2901,30.0617,-5.4795,19.7931,10.663,-0.30298,-0.6715,
-5.8748,3.1696,-0.17874,2.2916,-5.169,32.9131,4.1931,1.5111,14.158,-0.33,4.5055,24.1233,-14.3848,-14.7312,
8.5777,-11.1206,-14.268,-11.9459,-17.5126,17.9231,3.3389,15.5204,-0.79148,13.7898,-9.8648,35.3296,0.57828,0.25266,
1.5556,1.8389,0.68806,2.7503,-4.6515,2.7477,3.8617,0.48921,13.356,0.30844,4.8271,19.1098,3.9178,-11.8138,
-12.6378,15.8286,14.7468,16.6853,9.7276,-11.5171,17.73,-13.6401,26.6546,-13.8101,18.6375,3.8632,-10.4173,-15.4435,
2.2205,13.7941,21.2131,14.5994,23.2439,-16.1288,30.7662,-6.9169,10.9554,-2.7381,3.7804,-10.4686,-1.4766,-0.41693,
11.487,-1.1336,5.8403,-0.37658,7.7493,-1.061,14.8202,7.5981,0.05443,11.5262,-10.5464,4.2596,7.0477,-7.0201,
24.8978,-15.1656,-8.6101,-14.454,-3.9237,13.1026,-0.16901,21.2422,-3.0822,24.9346,-24.0136,15.5733,16.9888,4.7294,
15.8119,-14.4966,-14.1191,-6.5969,-13.8113,-1.7835,13.9411,5.8677,10.6002,9.3386,-8.4728,0.53887,1.8695,-9.6544,
0.76318,0.4732,0.82807,7.8989,-7.921,-15.7765,27.2047,-8.5844,24.0642,-5.3218,6.1356,-10.7011,-12.3427,-8.7135,
14.8174,14.5448,14.8784,21.525,6.6543,-28.9299,11.4724,-7.3462,25.6333,-2.8331,5.0443,-13.4335,2.4979,5.9093,
1.877,-0.42788,4.5855,6.1335,-1.8192,-13.0941,-3.316,4.4228,9.9953,-6.2785,-9.3583,-15.7607,9.2173,5.6752,
-3.0561,-14.5022,-9.7897,-8.3345,-15.81,1.7915,-17.217,-0.66306,-4.7044,-6.8659,-22.8968,-0.71506,-5.4358,-8.7653,
11.107,-5.9193,-23.0609,5.181,-26.3101,-7.1133,-2.084,-5.9259,9.6779,-3.0795,-7.423,2.5818,-18.486,-15.3493,
-3.6594,8.5359,-7.5772,18.9701,-10.6315,-20.7865,12.1411,-19.6704,23.1972,-16.9947,7.1224,0.73945,-3.2769,-0.32833,
7.5265,4.7697,-1.6997,13.1319,-7.463,-19.1779,-2.6874,-4.3901,7.7054,-3.562,-7.405,-13.4049,2.8244,-1.6344,
-5.6991,16.7761,12.5023,4.3903,7.0848,-3.9272,-3.0081,-5.0908,-6.8569,-6.9637,-5.6347,-0.66978,16.7549,2.0791,
-12.8292,27.5799,-2.3478,-9.1295,6.0573,10.4084,11.2724,-5.9904,1.0263,-7.751,8.8034,13.4704,4.06,7.4977,
2.0405,11.8251,-16.307,2.2643,-8.4062,23.8839,21.0806,1.3586,15.0647,-7.5271,22.3752,-1.4378,-10.2836,-7.0521,
-12.1819,25.2156,-1.2286,16.2284,2.3414,34.6227,33.9158,4.4104,25.6093,-12.6193,35.1327,-15.4516,1.5413,-7.4726,
2.649,9.6026,8.0042,6.6983,-3.5837,18.4453,17.7808,14.2691,9.9727,2.2378,18.9247,-28.6245,0.0025786,-0.27536,
-7.2714,5.7725,21.6239,16.4195,10.1289,3.2386,2.614,-0.68705,-4.7257,-8.1398,3.6892,-41.007,14.1024,13.8412,
-20.9351,19.5262,6.2265,20.0137,8.7983,17.1443,16.5572,-14.7458,9.6579,-21.7514,17.5679,-24.4466,10.0023,27.1107,
-5.579,4.2546,-8.2471,4.7128,-5.8296,30.2156,21.1071,-10.728,18.3582,-6.8285,24.2264,-8.8798,-4.6978,11.384,
-18.9826,-10.1007,-15.1038,-9.6699,-19.5798,42.5027,5.7407,-4.5405,15.0873,-13.8904,8.6728,5.753,-18.516,-3.399,
-3.7436,-12.2665,-0.097582,-12.9459,-4.3051,25.8525,-8.7038,9.8319,0.082041,1.0431,-5.9476,-8.6922,-3.305,10.9049,
0.93958,2.5695,14.0083,1.9309,10.0532,10.2014,5.9185,-0.27872,-0.043365,-5.1658,8.5093,-22.2706,10.9933,7.7196,
-13.2168,16.5154,4.4909,15.915,14.9934,-4.5107,19.6634,-14.362,14.0592,-18.9558,22.0987,-6.8344,1.4159,9.1848,
-10.3749,1.4244,-9.8785,0.86011,-0.0061716,9.8599,4.3836,-25.4311,21.2899,-16.7339,6.6728,7.6757,-12.7691,-5.4663,
-10.4755,-12.761,-23.3858,-13.2915,-14.1058,23.3683,-7.5689,-9.8052,15.9154,-1.6299,-7.8276,21.3151,-11.6413,-15.8638,
4.253,-26.0954,-34.2749,-26.594,-3.8596,27.2688,-21.2147,4.8831,0.86046,12.5679,-21.4579,24.4951,3.1572,-0.812,
5.3234,-10.4296,-18.1184,-10.8984,7.7003,11.5326,-5.8419,3.1441,-0.51694,1.2088,-6.0705,8.9254,17.0678,0.56226,
-9.096,4.2961,-2.9313,3.8555,15.4335,13.1307,8.6087,-11.1446,13.6141,-12.9637,8.3938,-5.7101,1.9437,1.0105,
-2.645,-1.6262,10.7421,4.7086,1.974,26.4428,22.1921,-9.8733,2.5534,-14.9577,12.5901,8.7325,-9.3808,-0.97836,
-15.0195,-15.6286,-4.0024,-9.674,-12.2445,38.7151,6.7606,4.8191,-5.7943,0.039734,-2.2653,22.3086,-13.6385,-15.0197,
-0.018356,-28.7909,-17.8623,-23.1935,-25.6098,22.2922,-7.745,18.63,-19.5466,14.1373,-16.2293,20.729,1.2798,-3.3929,
3.2365,-12.9634,-2.6906,-7.7019,-9.9732,6.8546,-0.049944,3.4122,-4.2738,2.925,-1.1556,5.3852,15.303,-0.29707,
-11.0577,1.9144,11.5709,6.8602,4.7252,-3.6795,14.0531,-10.8925,10.0826,-11.3505,13.0138,-9.0379,0.28485,-6.3048,
3.7058,7.8253,12.5636,17.7768,18.5417,-1.5308,27.3099,-7.5877,4.2955,-4.0413,17.7763,4.0376,3.7625,8.1735,
-5.9164,-6.7442,-2.2902,2.6102,3.3292,12.661,11.5713,6.9676,-9.9415,7.2882,2.6097,17.8954,-2.2476,-0.15017,
8.5386,-20.4396,-16.2528,-11.6464,-10.9706,24.3144,-3.223,20.6495,-23.445,20.9509,-11.6469,15.7371,-9.3438,-11.7105,
3.3263,-17.2848,-19.1338,-3.7168,-10.1921,8.7555,10.4682,5.3106,-7.9383,5.5939,3.152,0.69285,-4.6856,-11.7306,
-10.9733,-2.1477,-3.8858,10.6062,-1.8676,-5.8698,23.9401,-9.1081,6.638,-8.8418,17.0628,-4.7716,-7.2968,3.0732,
3.7851,12.0812,10.4474,18.2853,12.3445,-19.6176,8.4037,3.4895,15.2778,0.0043838,3.988,-10.5111,7.241,16.9889,
4.2809,-2.7437,2.1073,3.0881,8.3499,-4.3406,-6.2005,14.3671,0.2611,3.3783,-10.3513,1.2068,11.2654,6.3281,
-5.3762,-16.6791,-12.1191,-11.1972,-6.2511,10.0199,-19.9285,6.5155,-8.5519,-1.8858,-23.8302,15.2344,-3.5106,-8.1516,
7.2387,-12.0629,-25.492,-0.64339,-19.9761,-0.10204,-4.6328,2.5093,1.8434,-0.5676,-8.3004,3.5948,-8.4819,-10.4343,
-7.2956,2.7609,-9.8625,13.4952,-5.7619,-14.1959,9.7452,-11.7412,15.8328,-14.6335,6.2976,6.5123,6.1271,4.2918,
7.2421,-11.5048,-8.4269,9.9139,1.8147,-27.4442,-4.9395,-1.9982,0.78279,0.34447,-8.1802,-7.9784,9.2544,17.6525,
-5.4845,3.2855,6.1787,1.1242,15.8058,-11.6975,-9.3436,2.4598,-13.3642,-4.7379,3.7592,6.6003,22.7991,18.0394,
-19.2554,11.6445,-8.292,-13.0433,0.75746,3.1043,5.317,-5.1594,-12.9238,-18.5536,17.6337,20.3043,7.3312,5.6286,
-4.0001,-3.1542,-21.8945,-9.0067,-13.388,17.0181,-3.076,-11.1161,1.9517,-18.5245,30.6757,11.9757,-7.2087,-8.8091,
-17.8601,11.1351,-19.2552,5.6337,-10.2953,27.4459,11.2085,-2.2547,15.9346,-11.6287,37.0301,-2.8429,1.7802,5.8195,
-2.6885,-3.633,-3.9999,5.4163,1.651,11.6991,-3.564,11.9806,0.87848,3.169,20.7083,-16.7723,6.253,14.3887,
-3.7322,10.685,10.3401,15.9372,15.6519,-3.1028,-8.1706,-0.42809,14.9258,0.44805,5.3658,-23.7199,16.2418,22.4431,
-17.6083,24.1439,-4.3803,0.88096,0.61279,11.1834,6.4196,-14.5024,28.1302,-13.6788,19.1438,-8.1967,1.1673,6.9965,
-2.4518,8.5952,-18.2175,-13.2719,-13.524,22.6842,7.36,-17.8499,25.5988,-13.7017,10.4031,6.3951,-13.0027,-7.5233,
-16.4047,-6.0205,-25.3192,-17.537,-26.8125,35.4231,-7.1816,-6.656,38.1629,-10.4695,-4.3211,20.1114,-26.3226,-21.1719,
-1.3204,-15.1795,-9.7,-14.0747,-11.1038,19.1977,-20.8507,7.8434,21.7731,4.2587,-18.1618,4.8047,-10.6432,-5.8016,
8.641,-0.16873,4.982,0.8698,3.6624,3.9459,-5.4997,2.1906,6.3667,3.1598,-2.9721,-9.5836,4.0954,8.6465,
-5.9775,13.9414,7.8161,14.9176,8.504,-10.3909,8.9303,-12.0408,20.0847,-11.1298,11.3062,3.8866,-0.36841,11.1405,
-8.3909,-0.99509,-6.7529,-0.077447,-6.1062,4.3326,0.92269,-25.4184,15.2642,-20.4649,3.1556,17.7534,-14.4463,-3.6279,
-12.2257,-15.0354,-20.4477,-14.1728,-19.8398,18.1726,14.9673,-9.7933,20.6149,-5.137,1.5205,30.7882,-20.9306,-17.5102,
2.6078,-28.2333,-33.3208,-27.4224,-11.4185,14.913,-0.030712,4.8943,5.278,9.2712,-12.6708,14.8409,-5.5748,-2.3596,
16.5511,-12.4393,-17.2216,-11.6771,3.3666,-0.081795,14.0711,7.2522,0.50249,7.2689,2.1895,-0.14956,8.8597,11.8819,
1.458,2.4071,-2.0883,3.1235,17.2646,0.28491,27.3269,-7.2829,14.5723,-7.2672,16.1581,-11.7097,3.9898,-0.40013,
-5.0167,6.2395,12.137,11.7337,9.7209,14.3678,17.7333,-14.6794,6.1055,-7.9158,10.7294,3.0928,0.13477,-6.8838,
-14.8386,-8.2348,-2.6912,-3.0703,-4.9623,27.6057,8.4746,0.30134,19.7189,1.2363,-4.0144,17.0073,-11.9244,-9.8453,
0.15175,-21.8407,-16.6297,-16.9861,-18.7646,11.8494,-6.1339,14.3833,4.4358,15.2621,-17.8735,29.243,-7.1116,-14.7982,
13.2785,-6.4303,-1.532,-1.8669,-3.5387,-2.9616,8.3341,2.9152,-9.9304,1.9334,-2.7011,13.3884,7.4151,-19.2127,
-1.6182,8.0555,12.66,12.3451,10.7736,-12.4253,21.9341,-11.3597,4.7654,-12.2826,11.5609,-1.5149,6.3673,-3.9599,
-4.775,21.3105,8.5261,17.1478,12.2963,2.4202,21.2207,-9.1114,18.5795,-7.5688,24.9673,-9.3777,10.8062,10.3777,
-12.9244,5.9319,-6.0854,2.0189,-2.5414,16.375,5.8474,5.5353,3.3647,6.9853,9.3693,5.2849,0.27569,5.4167,
0.14331,-8.524,-19.8203,-12.2022,-16.4889,7.9209,-8.6034,11.3494,-10.9371,20.6662,-5.2929,19.0678,-13.8409,-9.0083,
-1.0704,-4.6379,-11.8822,2.5096,-4.4122,3.8305,6.0128,-3.4315,3.8191,5.3262,9.1247,3.8238,-3.2487,-13.6497,
-15.1061,9.7404,2.9307,16.4591,1.6372,-10.4993,19.752,-17.3256,17.6899,-9.0933,22.6772,-10.5057,-4.5001,-8.9744,
-0.099763,12.8916,1.6703,3.7816,5.3953,-23.9694,20.7358,-8.5736,2.5285,-8.3065,20.7141,4.2247,9.8699,5.6641,
-5.8784,-1.9819,-12.5299,-10.5452,8.4456,-8.4312,5.3917,5.4382,5.3894,4.2429,5.3713,14.6965,18.798,7.6137,
-9.382,-15.963,-25.8781,-24.0125,-6.0404,6.1747,-9.0318,7.0401,1.2096,8.3271,-9.051,19.5998,3.5701,-6.9432,
-3.0345,-8.0153,-32.2794,-8.4718,-16.2833,6.768,5.6101,-7.4823,8.3679,-6.2725,5.5921,22.7621,-10.7441,-15.083,
-16.9525,6.5656,-16.2426,6.1365,-16.7526,-7.738,19.3735,-21.1334,21.9658,-19.9961,19.3565,7.2964,-18.5351,-0.077979,
-1.8353,0.025405,-1.1681,0.22495,-1.6474,-21.3738,4.1111,-5.7654,6.5479,-4.6964,4.0952,-7.2414,-3.323,14.0267,
-7.0276,0.26508,13.002,-4.3681,12.5514,-5.9913,-10.2356,-1.9245,-7.945,-0.91965,9.2726,7.2931,10.9764,10.0518,
-20.706,-4.5715,-1.8781,-18.206,-2.3017,8.4681,3.1528,-15.909,5.6676,-14.9645,-5.3838,20.9555,-3.7822,-4.6513,
-6.8099,-0.9228,-15.8654,-13.6189,-16.2636,22.0601,16.4614,-15.3157,15.4509,-19.7309,-19.1608,28.375,-17.6553,-18.4722,
-20.5013,13.2326,-13.8287,1.2982,-7.3338,15.0724,19.5711,-0.29676,3.1952,-4.4471,-3.9111,12.5725,-2.496,-3.2639,
-5.1712,-1.6614,-18.3016,0.37671,-1.5909,0.068016,4.2968,11.4107,-11.0965,9.9198,-17.7764,-2.2818,5.0053,7.8987,
-13.7785,10.7308,-3.1035,5.6568,12.6046,14.1639,4.6417,-3.374,3.6693,-4.7754,-3.6944,11.9551,18.805,16.1017,
-27.0518,19.7277,-17.0173,-8.7826,-2.2517,27.4141,-9.6164,-17.2715,-8.6017,-18.5889,10.6272,25.3378,3.5767,4.5305,
-11.3287,4.444,-30.0963,-22.3557,-16.2166,17.6946,-2.5319,-25.8767,6.0144,-22.776,6.2537,9.838,-10.7379,-9.8413,
-17.3979,-9.9226,-42.3905,-18.363,-29.3436,30.7329,11.72,-10.2241,19.7535,-11.0453,-5.9319,12.381,-17.6859,-23.3509,
-2.254,-23.4272,-25.7471,-25.2153,-13.483,14.7889,1.7374,4.4894,4.4683,3.7174,-19.676,-2.4619,-2.5247,-7.8498,
11.9812,-7.9216,-10.1022,-9.6024,1.426,-0.19841,-12.4668,16.2714,-9.8998,11.5688,-4.3954,-16.4142,11.7267,6.7212,
-2.8377,6.6537,4.6039,5.0737,15.4404,-14.2865,2.3812,1.1951,4.7942,-3.2253,9.9683,-14.7062,25.1231,20.4179,
-9.2958,-7.8455,-9.7723,-9.3307,0.41401,0.67068,16.3383,-12.9766,18.6065,-17.1318,-4.7298,-14.0648,9.5158,5.0928,
-12.1125,-21.4748,-23.286,-22.8708,-13.7108,14.7304,22.9502,-0.62865,31.5901,-3.5711,-18.546,0.8791,-5.1552,-9.3127,
2.7142,-34.2863,-35.9888,-35.5986,-26.5062,19.6312,7.4732,13.5091,15.5947,10.7432,-31.5332,-13.2736,-4.7259,-16.5875,
16.4106,-18.1291,-19.7295,-19.3627,-10.8159,4.3533,-6.3521,11.1318,4.5359,8.5323,-15.5412,-26.5772,9.6577,-1.4922,
1.326,-2.9414,-4.4457,-4.1009,3.9331,-10.0079,8.129,-3.6361,18.3638,-6.0796,-0.50877,-34.0209,21.0091,12.6973,
-12.8536,-2.5235,-6.1072,2.0505,3.2152,4.6926,2.9415,-17.518,10.6335,-19.8149,-3.8525,-17.8797,5.6485,-2.1645,
-20.7594,-16.4721,-19.8408,-12.1725,-11.0777,18.511,16.865,-15.5026,24.0955,-8.985,10.4787,-2.7069,-8.7904,-16.1346,
-5.4139,-29.5837,-32.7503,-25.5421,-24.5131,18.8469,1.7531,-0.4724,8.5498,5.6541,-4.25,11.5555,-22.363,-15.1663,
9.011,-13.7087,-16.6853,-9.9096,-8.9423,3.6161,-7.7518,8.3533,4.9035,4.4712,10.105,-3.2378,-6.9212,-2.2053,
-5.6297,1.2138,-1.5842,4.785,5.6942,-10.7009,6.8133,-6.2479,4.8503,-9.897,23.5987,-17.1435,7.5941,9.2552,
8.8081,15.241,12.6109,18.5979,19.4526,2.7156,20.5045,1.9605,2.3901,0.94039,15.916,-19.1275,16.9004,11.3515,
-5.8204,0.22652,-2.2458,3.382,4.1854,16.6527,19.2738,-6.5933,16.3467,-6.1059,29.061,-3.8798,1.7863,-3.4296,
8.6288,-13.8871,-16.211,-10.9209,-10.1657,29.7535,4.0173,7.9023,1.2659,8.3605,21.6531,10.453,-12.4208,-17.3238,
14.86,1.0462,-2.8256,3.8343,4.5442,13.8683,7.0305,6.5845,-12.3074,0.26676,6.2539,-4.2742,2.4244,-25.2025,
-0.1316,15.0834,11.4439,17.7043,18.3716,-1.0638,20.7087,-7.9105,2.531,-13.8492,19.9786,-18.1178,11.7992,-9.5903,
12.53,16.2266,18.3496,10.0136,10.6409,-15.1,5.3661,-6.3513,1.7765,-6.1491,12.7544,-22.3338,8.9221,5.0851,
1.8963,1.153,3.1486,-4.6872,7.3513,-0.093977,3.3569,5.358,0.46464,8.3198,-2.1109,-6.8938,8.6277,5.7439,
-12.3175,-13.0162,-11.1403,-18.506,-7.1898,14.0117,17.2555,-2.9173,-13.6632,5.2898,6.8131,7.6199,-5.9899,-8.7008,
-12.1811,-10.548,-24.5719,-3.2956,-20.8584,0.034829,5.2532,-16.8422,1.2566,-9.1276,20.5043,13.6706,-19.7305,-22.2787,
-25.5502,4.1849,-8.9976,11.0021,-5.5069,-14.0673,19.038,-20.7729,15.2812,-22.6799,28.0717,-1.2496,-4.4467,-6.842,
-9.9172,18.0338,5.6423,16.6087,8.9235,-27.3232,5.2422,-5.4265,0.26429,-23.0064,12.2874,-15.2746,9.9201,7.6685,
-13.6607,2.8518,16.5117,5.9712,22.4881,-11.5838,-9.1723,-6.4265,-1.9205,-35.726,-2.5499,-0.25817,8.1198,-3.6376,
-26.9411,5.6934,1.421,-8.487,7.0388,3.2112,-10.1887,-20.1409,12.2947,-47.6824,-16.4969,13.8573,-6.4674,-17.5194,
-11.2246,15.475,-12.7643,6.1222,-7.4835,17.1185,4.5226,-9.4117,22.2826,-44.3393,-29.6071,27.1259,-20.1793,-17.0708,
-24.6511,28.6465,-6.2141,19.8549,-17.0371,1.9914,18.3513,-7.401,6.8456,-32.0378,-13.7307,19.3521,-10.7736,-1.9466,
-9.0721,12.8277,8.2588,26.9791,-1.9149,-12.2281,3.1502,7.1431,-7.6651,-16.0155,-12.0631,4.0909,3.9728,12.2702,
-4.4302,3.3811,21.8633,11.8627,12.3,2.6056,4.7687,1.2911,-6.4821,-29.1546,2.7607,-10.2545,17.8344,15.6311,
-18.2643,17.2783,6.4515,-2.9491,-2.538,16.5493,2.7955,-12.8863,-20.1931,-41.5053,-8.3716,-0.96237,2.6644,0.59325,
-3.0685,30.3416,-8.0356,11.3278,-9.4958,1.4563,-11.4722,0.78201,-4.8815,-24.915,-21.9693,13.1954,-1.2312,7.1863,
-3.8487,14.4211,-21.6535,18.8429,-19.2904,-12.7311,-15.2431,2.4223,9.5113,-10.8871,-27.0386,26.5036,-13.4503,-5.0555,
10.4822,-0.54418,-6.2543,3.6123,-4.033,-26.0672,-2.036,16.377,-5.1593,3.8662,-11.3163,10.8134,1.4567,9.3479,
8.7687,7.6832,8.221,17.4956,10.309,-10.4032,-2.6368,3.7045,3.8269,-10.4658,3.4627,-3.9354,15.4693,22.887,
-5.8574,21.3222,0.13543,17.6514,3.9061,4.321,-6.5761,-10.6178,17.6973,-23.9379,15.3063,-17.7993,0.44117,7.4138,
6.1837,10.2814,-9.7546,2.4923,-9.1027,18.1618,7.9184,-19.5012,30.7354,-22.863,0.2879,-30.8313,-9.8287,-7.1311,
-3.8283,-4.4355,-23.2694,-11.7573,-20.6081,31.1721,21.5433,-4.2311,42.9913,-7.3912,-13.8294,-14.8814,-14.5412,-20.8032,
10.5014,-18.2693,-35.9732,-25.1518,-22.987,15.2017,6.1507,10.1227,26.3118,7.1522,-25.7741,-13.8678,-6.1973,-5.455,
19.392,-3.0732,-19.7148,-9.5427,-7.5078,0.18963,-8.3183,17.951,10.6331,1.6614,-10.1276,-27.1358,8.2745,8.9723,
4.1285,11.2112,-4.4319,5.1298,7.0426,-13.9217,6.2808,2.774,18.7929,-12.5383,4.58,-26.351,5.7298,9.0371,
-10.2192,-3.5615,4.9928,-9.2779,-6.877,1.0136,10.8451,-11.4925,16.942,-25.886,-9.7948,-10.6699,-8.714,-5.6052,
-15.1499,-17.4478,-9.4068,-22.8213,-20.5644,15.0527,24.2944,-9.5974,30.0255,-17.3427,-23.3071,4.0703,-22.2911,-18.8869,
-0.14091,-30.5009,-22.9424,-35.552,-33.4306,28.2496,8.7368,5.0785,14.1239,-2.2022,-13.2316,17.926,-25.0512,-6.4257,
13.9675,-14.5709,-7.4658,-19.3189,-17.3247,12.4546,-3.5978,8.2682,13.0353,-0.50374,1.6623,2.7505,-9.4482,3.6008,
-0.97051,0.40339,7.0821,-4.0597,-2.1852,-2.3927,10.7181,-6.3279,-1.8468,-14.5735,15.6626,-11.5145,5.2187,11.8211,
13.1877,-1.4282,20.7572,10.2838,12.0459,-16.3491,-2.3379,8.1518,-15.836,0.4009,0.62284,-24.9237,19.0056,25.2118,
5.1656,-15.4425,5.4118,-4.4332,-2.7769,-1.2682,-8.2233,4.7704,-0.78584,9.5356,14.6855,-9.3283,3.7653,9.5991,
18.9557,-28.6159,-9.0129,-18.2672,-16.7103,12.9079,-20.5041,8.5818,13.3613,23.0635,20.0709,5.3314,-10.5607,-4.4744,
30.2313,-12.799,5.6278,-3.0712,-1.6076,-1.9665,-5.1739,7.8259,-1.5404,16.2568,10.4309,-9.0884,4.173,-9.75,
14.3175,2.069,19.3902,11.2131,12.5888,-15.9486,9.2366,-6.7437,-10.0041,1.1814,23.9051,-22.6431,18.0226,4.935,
24.6661,15.2009,32.3268,24.6403,17.7383,-19.6916,-5.4176,1.9766,-3.6193,-0.69697,10.7811,-35.3845,25.2564,18.7389,
9.0862,0.18881,16.2872,9.0619,2.6947,-4.4101,9.0074,3.7862,-15.9351,7.0576,19.2933,-19.1615,11.69,16.4099,
4.5639,-13.9225,1.2099,-5.5818,-11.567,9.9545,22.567,6.6921,-28.7178,9.2853,28.9815,-3.9118,-3.1114,1.3253,
5.9775,-9.9535,-1.5138,8.8531,-13.6445,8.1521,7.113,-5.5194,-12.8947,-5.3719,13.1426,-5.7262,-15.3378,-12.8542,
-8.4811,4.7438,12.6771,22.4219,1.2742,-6.437,19.4604,-12.6602,1.9789,-14.5698,26.454,-19.4826,-0.31749,2.0171,
6.1277,-9.6409,26.0164,6.9766,15.2977,-20.1508,4.1928,2.1994,-12.2398,0.40439,10.7668,-20.3621,13.8016,15.9961,
-0.26548,-23.1624,25.9015,-7.542,18.7182,-4.8417,-10.1588,2.4289,2.5946,4.116,-3.9792,-5.0404,17.7942,0.93629,
-14.3496,-19.0011,10.2474,-14.3205,3.4951,9.5488,-23.6493,-11.8169,16.5389,-10.2309,-17.8405,9.362,2.6265,-13.2199,
0.61142,-16.6557,-4.4674,-3.5792,-10.8146,3.6734,-8.1303,-16.0486,1.4466,-8.2915,-2.67,20.3692,-11.6311,-21.3448,
-11.7176,-1.5564,9.9006,10.7356,-0.52501,-10.647,6.4575,-0.98567,7.1444,3.7753,11.5902,5.0471,1.6001,-5.9641,
3.0855,-0.37831,23.4066,19.853,13.6065,-24.1082,-8.0299,13.1735,-7.3843,17.6488,-3.2052,-9.3557,15.6041,8.4938,
10.4924,11.4544,36.1022,32.7618,26.8901,-8.5617,-16.7072,16.4804,-2.0003,7.7921,3.736,-2.7689,28.7678,14.4916,
-4.2371,6.6696,19.836,16.6961,11.1767,2.4364,-22.2125,1.3916,-5.9774,-6.7754,-10.5882,11.4973,12.9417,-0.47787,
4.5737,-7.8306,4.5459,1.5944,-3.5939,16.3902,-6.7797,-12.7919,8.4813,-10.8275,-24.0529,24.9074,-1.9348,-13.5851,
-9.8007,-17.8454,-9.8269,8.8499,-17.4783,29.5068,7.7271,-0.9374,22.0724,1.3911,-36.7097,21.967,-15.9187,-12.2881,
4.8873,-30.8746,-12.6118,-5.7811,-5.7037,13.6364,1.479,13.2188,6.648,15.4076,-43.7868,6.5489,-0.86356,2.5492,
18.6941,-14.9222,2.2449,8.6658,8.7385,-1.2818,-12.7098,13.2693,-7.8508,16.2909,-27.0596,-7.944,13.2883,16.4963,
3.4725,0.073166,16.2102,22.2458,22.3142,-15.3049,2.1528,-1.6268,6.7202,1.2134,-11.336,-6.7442,26.591,29.6065,
-10.8359,-14.0312,1.1376,6.8111,6.8754,-0.2866,10.2185,-15.6292,20.417,-12.9594,-15.2352,7.7604,10.8955,13.7301,
-2.3525,-15.5992,-13.0307,-7.6976,-7.6372,13.8306,23.7054,-0.59147,33.292,1.9182,-0.22111,21.3948,-3.8582,-1.1937,
11.8887,-28.7633,-26.3488,-21.3357,-21.2789,12.8805,8.1831,13.544,17.1945,15.9031,0.39458,15.5316,-3.386,-14.7397,
12.9828,-12.9375,-10.6679,-5.9556,-5.9022,-1.9923,-6.4079,12.7316,2.0628,11.0925,13.3865,0.4997,10.9172,0.24469,
-1.8961,1.9388,4.0722,8.5018,8.5519,-15.9728,5.6662,-2.1323,16.039,-3.673,26.6834,-13.6303,24.3621,14.33,
-13.2308,-8.4212,-0.87205,-6.1084,-6.0612,-0.91442,-5.5198,-16.1044,0.97668,-17.5526,10.9824,1.2875,8.8004,-0.62979,
-20.3909,-22.0159,-14.9197,-19.8419,-19.7975,13.2404,8.9114,-16.1022,15.0181,-7.8226,24.4234,15.3103,-5.8276,-14.692,
-5.0675,-34.795,-28.1245,-32.7513,-32.7097,10.0357,-5.7233,-1.0361,0.016998,6.7467,8.858,26.9249,-19.578,-22.4874,
9.3366,-18.6073,-12.3371,-16.6863,-16.6471,-4.6665,-19.4799,8.7873,2.3059,7.9089,-5.1711,11.2094,-4.3033,-7.0381,
-5.3236,-3.3908,2.5032,-1.5851,-1.5482,-18.4865,-4.2111,-5.8399,-4.3407,-6.6656,9.2392,-3.5631,10.0549,7.4842,
9.0958,10.9126,16.453,12.61,12.6446,-3.6387,10.1416,-1.0305,-13.48,6.388,10.9747,-9.3749,14.1521,13.5428,
-5.55,-3.8421,1.3658,-2.2466,-2.214,10.6796,8.2075,-15.0687,1.4288,-7.7338,2.8442,5.2876,-0.79705,-1.3697,
8.883,-17.7116,-12.8162,-16.2118,-16.1812,24.1388,-6.3849,-0.064534,15.4431,6.8302,-8.8956,19.0703,-14.8492,-8.6393,
15.5809,-2.5489,-5.178,-1.1391,-1.1103,8.5905,-5.1585,11.5085,0.41649,12.8077,5.7381,3.8261,0.14173,-11.7362,
0.54604,11.704,9.2327,13.0293,13.0563,-6.025,9.2511,-3.282,-13.2266,-2.0608,19.4938,-10.5034,14.2332,3.068,
13.4082,5.3375,21.3327,12.9706,16.9726,-19.7635,-4.6809,4.5072,-13.638,12.1628,4.2242,-23.9732,16.0301,16.9839,
-1.4963,-9.0828,5.9527,-1.9076,1.8542,-4.4776,-1.7487,-9.8632,-2.4557,1.3099,18.0708,-8.4348,0.96829,8.0111,
-6.8296,-22.6378,-8.5045,-15.8931,-12.357,9.891,8.4791,1.6953,-7.129,9.9084,31.0865,6.1712,-13.1898,-6.5695,
7.6801,-7.1796,-9.1993,-0.83955,-2.2156,-4.8025,-2.3937,6.1731,1.2527,6.6624,15.1213,-7.5759,0.37603,-20.2753,
-6.8807,7.3512,5.4527,13.3108,12.0173,-18.6143,11.8499,-4.8023,5.5161,-7.8374,22.168,-21.2213,14.4535,-4.9588,
7.6322,16.31,19.2255,1.666,25.3963,-31.5974,-2.9611,9.5858,-8.9149,6.7329,6.7379,-34.0481,27.6863,9.4387,
-6.9258,1.2314,3.972,-12.5339,9.7725,-15.6016,-6.3989,0.45449,-10.9106,3.1957,-7.7663,-17.9052,11.9251,-5.2276,
-20.6102,-12.9425,-10.3663,-25.8819,-4.9138,-0.5655,8.0851,-13.6728,-0.61501,-11.0961,6.7996,-2.7309,-2.8904,-19.014,
-5.2736,-4.453,-21.3137,-10.229,-17.152,13.5684,4.8282,-9.5987,-6.1217,1.5005,17.117,-0.15666,-16.817,-16.4271,
-13.3931,9.9142,-5.9349,4.4848,-2.0229,12.8748,-9.5615,4.9565,-0.45223,14.9078,3.0745,-14.2473,-1.708,-1.3415,
1.5105,-4.7807,8.5212,-8.5588,12.1985,-1.9977,-23.0878,18.7591,-14.5251,28.1134,-11.2099,-27.4924,12.4945,12.839,
3.9505,3.9421,22.1099,6.0547,25.5666,-15.9778,-8.6869,11.4876,0.44641,14.014,-3.9089,-11.7429,25.8448,13.0328,
-10.3865,2.5005,6.6833,-8.4085,9.9326,-0.91915,-22.2657,-3.3017,11.0254,-0.92682,-17.7744,3.0617,10.1941,-1.8492,
0.48049,-6.0852,-7.8177,-13.9295,-4.7634,13.236,-6.8298,-11.178,-2.893,-8.9457,-30.8079,16.978,-4.5175,-5.9561,
-13.6483,-13.6743,-21.4486,-0.80163,-18.5776,26.5418,7.68,-8.338,-6.8168,-3.8299,-37.1544,30.0593,-18.3465,4.7652,
1.2706,-18.6383,-6.0617,0.21068,-3.3629,10.8493,-2.3014,6.2623,-20.5078,10.4999,-40.7096,14.1558,-3.1457,18.5792,
15.2943,-3.42,8.402,14.298,10.9388,-3.9016,-16.2633,19.9866,-23.4951,20.3547,-24.167,-0.79359,11.1431,23.611,
0.27667,10.8852,21.9979,27.5402,24.3825,-17.7675,-1.1875,4.6874,-7.9854,5.0335,-8.617,-10.3869,24.5745,36.2943,
0.26007,1.0729,6.578,11.7877,8.8196,-2.6015,12.9838,-9.6939,6.5937,-9.3685,-22.2,4.3363,9,20.0167,
-6.2632,-13.0915,-7.9167,-3.0195,-5.8096,11.6546,26.3047,4.9878,20.2981,5.2936,-10.3833,18.1761,-5.64,4.7157,
8.2125,-26.406,-21.5417,-16.9383,-19.561,-3.1447,10.6264,18.7885,4.9802,19.076,-12.4114,19.9778,-18.5577,-9.6673,
21.8198,-10.7216,-6.1492,-1.822,-4.2874,-17.056,-4.1111,22.2407,-9.4186,25.6442,2.4333,4.6792,-3.3443,5.0128,
6.4106,4.0217,8.3198,12.3873,10.0699,-30.1326,10.2355,6.8063,5.2465,10.0055,16.3873,-9.7016,10.9564,18.812,
-8.074,1.6115,-6.2794,-2.456,-4.6343,-14.2247,3.2341,-7.7021,19.0317,-4.6948,8.6552,4.9805,-3.801,3.5833,
-15.0614,-12.5852,-20.0026,-16.4086,-18.4563,0.72881,17.14,-6.2761,23.5541,-1.0387,22.2359,18.7817,-17.6729,-10.7317,
-0.05771,-25.9301,-32.9025,-29.5241,-30.6053,14.7851,2.0116,8.2004,8.0409,13.1236,15.2376,30.188,-27.2176,-24.1878,
14.0458,-10.2743,-16.8283,-13.6526,-14.669,-0.20203,-12.2091,5.6597,-2.9264,1.1287,0.22335,14.2767,-11.4846,-8.6365,
-0.89699,4.4421,-1.7186,1.2665,0.31118,-14.2899,-2.4378,-8.7798,11.3492,-13.039,14.31,-0.67986,3.3045,5.9816,
10.8465,18.2756,12.4845,15.2905,14.3925,0.66749,-4.9428,-5.4812,2.5938,1.8434,17.5487,-14.7391,-0.26822,12.4921,
-3.9043,3.0791,-2.3646,0.27309,-0.57104,14.7274,9.4538,-19.2524,16.5382,-12.3672,2.3958,0.24527,-14.3521,-2.3574,
6.5736,-11.2057,-16.3227,-13.8433,-14.6368,27.9438,1.053,-3.9972,10.1225,2.4748,-11.848,14.3306,-27.591,-16.316,
17.2661,3.5667,-11.9689,1.0873,-4.4791,12.1672,-13.1101,5.8838,3.2489,-0.32502,2.9629,-0.62928,-11.8355,-17.5064,
2.1302,17.4527,2.8492,15.1221,9.8897,-2.6629,1.7765,-8.5692,-11.046,-14.4055,16.8851,-14.6915,2.9746,-2.356,
16.1024,24.9617,16.7783,28.3147,23.3963,-16.6031,7.4545,2.6702,-24.4833,0.55882,1.772,-24.2946,4.7243,8.7521,
1.0362,9.364,1.6716,12.5159,7.8925,-1.5069,-7.0928,-4.2384,-8.9143,-1.4029,11.9093,-8.7369,-9.6591,-4.3065,
7.6027,-5.2979,-12.5287,-2.3351,-6.681,12.6835,-5.8234,10.1159,5.7206,12.7813,25.2948,5.8873,-20.7692,-11.0378,
15.3415,9.12,-4.3049,1.9027,5.0483,-2.1775,8.626,6.2552,-8.7227,2.9761,16.667,6.4984,-5.4231,-24.4755,
0.32098,22.6728,10.0533,15.8885,18.8454,-16.1469,22.2084,2.7464,-9.5251,-6.1206,29.7669,-7.9915,9.0023,-8.907,
14.4017,18.4201,21.6217,3.4863,24.5836,-29.278,6.7759,16.5611,-17.1485,8.3467,13.8809,-21.612,22.5622,5.7275,
-0.56238,3.2149,6.2244,-10.8229,9.0086,-13.4214,7.454,1.4675,-20.4579,-4.8081,5.576,-6.2153,7.1084,-1.7263,
-14.6286,-7.4625,-8.249,-24.2735,-3.4628,1.4839,21.1067,-11.0338,-17.3023,-7.8941,19.3415,8.2576,-7.4181,-15.7227,
0.34908,-1.4709,-8.7182,-10.2838,5.1809,15.4949,5.7403,-13.5048,-2.1641,-3.3228,4.081,-3.8075,-18.1807,-28.8794,
-13.7719,12.7173,5.9049,4.4332,18.97,16.9753,-8.7041,-0.88417,4.1118,1.9378,-6.287,-17.679,-2.9899,-13.0466,
1.1544,7.0131,10.2506,-9.9328,19.6395,1.8568,-22.2819,13.2689,-10.2349,15.9215,-20.0098,-30.7183,11.2895,1.8362,
1.2052,5.146,23.7356,4.7632,32.5612,-2.7134,-18.0529,6.8086,-1.0642,0.8662,-9.7707,-14.7752,22.4221,-2.3718,
-12.9671,7.2476,8.2114,-4.3197,16.5075,11.5494,-31.0697,-7.6999,12.4972,-13.2858,-23.2844,0.21133,6.9767,-16.3295,
1.429,1.9923,-6.3813,-5.9892,1.417,24.9564,-15.1055,-21.3379,-2.3526,-16.4655,-29.9618,14.2986,-7.5419,-19.0854,
-12.7568,-1.2605,-20.0984,-9.245,-12.768,9.359,-0.099194,-9.4525,-9.563,-4.6311,-14.0641,19.346,-21.1894,-3.8403,
2.1087,-10.5851,-4.7925,-11.3417,2.0981,-5.3025,-8.8906,5.2146,-23.0892,9.7468,-27.3202,4.0853,-5.818,10.4901,
15.2385,4.15,9.5951,3.4388,16.0722,-19.0843,-22.4572,19.0017,-31.7063,7.1131,-11.581,-10.2599,8.6311,23.3581,
0.22421,18.001,23.1194,17.3325,29.2079,-12.9985,-7.0097,3.7616,-15.7039,-7.4137,3.2138,4.4557,22.2132,23.1617,
-13.8892,2.8209,7.6322,2.1926,13.3554,1.8814,7.5109,-10.5641,-0.66169,-21.0689,-11.079,18.2884,6.7804,7.672,
-13.0557,-3.2534,-6.9257,-7.2185,-1.5459,15.8685,21.1602,4.1698,13.478,-5.7048,-24.5143,31.2911,-7.7264,-4.7192,
1.8277,-17.1582,-20.6102,-20.8854,-15.5532,0.81637,5.7906,18.0196,-1.4307,8.7375,-37.1434,15.3136,-10.6368,-5.1587,
-0.81259,-2.0287,-5.2736,-5.5323,-0.51997,-13.3326,4.3586,4.8871,1.0653,4.1162,-20.8148,0.29481,4.1014,7.4429,
-14.8638,12.193,9.1428,8.8997,13.6112,-26.6327,18.1971,-9.5061,14.4987,-10.2308,-5.4659,-13.8229,17.9553,21.0963,
0.12799,-2.6385,-5.5057,-5.7343,1.4661,-11.1757,13.3693,-14.8408,-0.47119,-3.4712,-19.238,0.74481,2.778,5.7305,
-0.12111,-16.5802,-19.2754,-19.4903,-12.7218,3.5949,26.6672,0.14962,13.6571,8.3067,-3.9837,14.8001,-11.4887,-8.7133,
13.9862,-29.6854,-32.2189,-32.4208,-26.0585,-2.5256,10.9671,14.2406,11.6326,21.9083,10.3553,19.5764,-24.2969,-22.2905,
27.2469,-13.8043,-16.1857,-16.3756,-10.395,-16.4741,-3.7909,25.4374,-3.1654,33.7294,2.7445,4.3019,-8.7391,-6.8531,
11.5121,1.124,-1.1146,-1.2931,4.3287,-29.5857,1.1366,9.8112,11.1246,17.6056,16.6798,-10.0563,5.8852,7.6581,
7.5677,9.2515,13.0523,12.8845,16.8432,-13.8312,-5.1984,-4.8775,24.5571,2.4493,29.779,0.66979,15.1728,12.0189,
-6.9864,-5.4036,-1.8308,-1.9885,1.7326,1.0986,9.2135,-13.0206,8.9837,-0.83082,38.8384,14.7296,0.16247,-2.8023,
7.5328,-19.1794,-15.821,-15.9692,-12.4714,2.8407,18.6636,1.8606,-5.6554,13.319,22.4081,27.9458,-13.9473,-15.5286,
21.1809,-3.9286,-0.77174,-0.91108,-17.025,-11.4298,3.4438,11.0282,-1.3389,11.6763,6.9636,12.1691,0.38714,-0.49689,
5.81,10.4071,13.3746,13.2436,-1.9035,-24.844,-7.4886,-3.7334,-1.7408,-3.1243,20.6458,-2.6611,14.4639,13.6329,
19.5614,23.8826,26.6721,26.549,12.3107,-34.9227,0.19131,2.3959,-15.7363,11.1632,5.3071,-16.6014,14.9221,24.3841,
4.2877,8.3497,10.9718,10.856,-2.528,-18.7274,-13.9202,-10.7633,-0.69214,0.37001,-9.1114,-1.5053,-0.07324,8.8211,
-1.5134,-6.2513,-3.7865,-3.8953,-16.4763,-3.5037,-27.185,1.4516,13.4494,10.9531,4.0891,12.685,-11.0358,-5.8082,
12.6774,8.2236,-6.8133,2.123,-1.3877,-14.381,-11.4539,8.3544,-1.4576,17.2856,17.9437,-2.1761,1.4365,-15.5831,
-2.1832,21.8301,7.6955,16.0956,12.7956,-27.6181,3.3334,-6.2468,-1.3703,2.1484,30.9671,-16.1455,13.1604,-0.54808,
12.0478,9.313,21.3338,26.0967,10.0993,-40.061,-10.9666,8.228,-15.3881,16.1195,15.0091,-29.2768,18.3969,13.5848,
2.2868,-5.3458,9.2077,10.4309,-3.522,-23.5574,-16.2137,9.6622,-18.4417,17.5625,6.5162,-13.4202,18.739,24.0981,
-11.9504,-19.1251,-5.4448,-4.2949,-17.4107,-8.0439,-1.1409,-5.0175,-12.5145,2.4087,20.2253,1.485,3.5147,8.5522,
2.8666,-3.8776,5.6075,-3.7964,-4.6764,6.5387,-8.9059,-5.5598,2.3364,10.5799,12.6248,12.4834,-7.181,-6.0609,
-6.9466,10.4551,19.371,10.5314,9.7042,-7.9536,3.1978,4.4147,10.2704,9.4631,25.9673,-2.3656,7.3498,8.4028,
7.5702,-2.9467,30.3807,-4.2005,14.5452,-21.5764,-11.094,17.8883,-4.4458,22.9953,10.3092,-16.3237,21.0088,21.9986,
7.2365,-2.2878,42.537,2.559,26.6878,-6.1818,-24.5284,2.8354,5.8234,14.0229,-4.4093,-1.2443,24.0869,22.3655,
-7.2977,-10.1045,25.8848,-11.6945,10.9865,8.2891,-37.1567,-11.4348,5.2332,-0.9185,-18.2448,12.9304,8.5416,6.9235,
5.312,-16.4879,10.2317,-8.4618,-3.7727,15.6252,-20.8273,-5.8075,7.5705,13.2366,-3.0501,16.2521,-6.0709,-7.5919,
-9.1067,-16.9446,-4.4822,-14.2208,-17.6463,0.58773,-5.4777,-12.6899,14.8289,5.2118,11.2329,29.377,-10.2861,3.7101,
5.5397,-30.028,3.1384,-26.1419,-2.4875,-13.5475,-19.249,2.1715,-0.16087,18.9991,-3.541,13.5144,4.4311,17.5875,
6.1716,-14.1263,17.0501,-10.4734,11.7617,-26.8347,-26.289,9.1516,-14.2512,21.1131,3.7813,-1.3965,18.2652,12.0735,
-8.2987,0.82129,30.1271,4.255,25.156,-37.1552,-10.6117,-5.4975,-0.3805,5.7463,17.6544,-15.4127,31.2693,25.449,
3.8889,-13.328,14.2195,-0.33896,9.5467,-20.8259,4.125,-11.3139,12.8985,6.4861,21.7773,-0.38792,15.2931,9.8221,
-10.4445,-26.6283,-0.7337,-14.4186,-5.1261,-5.4763,17.9775,-6.2965,26.2246,7.0611,34.5707,13.7354,0.27553,-4.8672,
4.2822,-39.1306,-14.7897,-27.6535,-18.9186,8.9522,2.7989,8.1813,10.5511,20.7374,18.3964,-1.1888,-4.1996,-8.7935,
7.1585,-22.6828,0.1977,-11.8943,-3.6835,-5.6849,-11.469,7.8109,-4.182,21.0599,3.1927,-15.2174,10.1524,4.0269,
-7.371,-7.2218,14.2858,2.9194,10.6375,-19.4438,3.3191,-6.7578,10.169,5.6963,17.1011,-28.4044,23.6433,17.8853,
0.42238,0.20114,4.6312,-3.2813,-4.1007,-4.1772,1.1918,-20.2114,23.6588,-8.5045,30.175,-12.6001,8.1247,2.7121,
-13.703,-13.9109,-9.7467,-17.1845,-17.9547,10.1735,15.2203,-4.8987,8.1393,6.1058,14.2645,2.2559,-6.4628,-11.5506,
1.2192,-27.1763,-23.2619,-30.2534,-27.6029,-4.537,0.20704,9.4952,-6.4491,19.8394,-0.69134,4.169,-7.5213,-8.5679,
11.5104,-11.4457,-7.7661,-14.3382,-11.8468,-18.3647,-13.9054,6.5154,-8.3518,26.3618,2.3631,-10.1812,7.03,6.0462,
-3.2802,3.341,6.7998,0.6221,2.9641,-31.3629,1.0289,-7.9755,6.2493,10.6801,16.3214,-23.6703,20.7082,19.7834,
6.6781,17.2406,20.4918,14.6848,16.0425,-15.3811,0.24396,-3.0381,18.287,3.8932,19.56,-8.1501,12.9579,18.3551,
-7.8225,2.1062,5.1623,-0.29631,0.97993,-0.35822,-13.8707,11.2442,3.0898,9.2031,4.2864,6.4389,-1.9196,3.1538,
6.7468,-12.1202,-9.2474,-14.3785,-13.1789,-1.0599,-27.1384,24.6696,-11.1956,22.7509,-10.0708,14.4887,-15.9044,-11.1354,
11.6443,2.707,5.4074,0.58418,-10.7008,-15.0963,-27.6792,9.0894,3.5762,12.8294,4.6335,-0.4806,-2.1761,-1.5491,
-3.1544,16.6446,19.183,14.6491,4.0413,-28.2905,-11.9184,-5.556,17.4616,-2.0403,18.4555,-14.311,12.0545,12.6438,
4.1454,18.8998,32.132,27.8702,17.8988,-29.7264,-9.1545,-6.4277,2.3139,8.5668,10.8402,0.64764,14.8263,24.0569,
-4.7806,3.6658,16.1041,12.098,7.1837,-13.8428,-22.7053,8.058,-11.9249,14.8013,-3.9102,8.6832,3.3318,8.5135,
2.7373,-10.6542,1.0378,-2.7279,-7.3474,1.0877,-35.4429,8.418,-25.3094,9.5752,-17.7756,-5.9378,-10.9681,-6.0973,
16.6731,4.0851,9.1704,11.5358,-3.4117,-13.0775,-19.2164,7.4309,-11.6188,15.2671,-2.6091,-19.6815,3.3077,-17.0597,
1.5727,17.94,22.7202,24.9436,9.0854,-26.3929,-3.9634,-7.115,3.1783,0.25104,11.6475,-32.6006,-7.7367,-1.9361,
15.5784,13.0072,35.457,34.2934,16.012,-32.0402,-15.295,7.4119,-11.1124,14.336,-3.1514,-35.1035,6.8275,12.28,
3.195,-1.8732,27.5451,18.1358,8.0615,-16.0177,-24.7413,7.6904,-24.5457,19.0198,-17.0623,-18.8973,14.4923,17.8101,
-3.7456,-6.2198,11.7924,2.9476,-6.5222,-0.95668,-9.1568,-0.96614,-37.1728,9.2015,-18.4488,-3.6634,-0.47724,12.8847,
10.5791,4.7586,-3.0152,-3.9779,-9.3845,0.54698,-14.9945,2.4664,-20.8424,8.6493,-3.2419,8.6077,-14.3075,-1.9884,
-4.1556,18.5731,11.2657,10.3608,5.2786,-13.5858,0.0051859,5.6927,-5.4919,0.89961,11.0527,-6.0088,0.65092,12.2309,
10.1937,4.3227,16.9768,0.94165,13.0364,-26.8707,-14.0951,13.064,-19.2624,13.3789,-3.7105,-19.7482,2.9014,5.2307,
0.54353,10.0891,22.4659,8.8389,26.3543,-11.1584,-27.3494,9.6288,-17.5042,7.9969,-9.6339,-4.4634,16.8273,19.0169,
-13.5891,9.4835,7.0179,-5.7914,10.673,3.6111,-26.7931,-5.0489,-2.4744,-6.5829,5.0441,9.9044,1.7177,3.7759,
1.3263,5.7812,-1.7186,-7.4926,-4.0674,17.4944,-11.0856,-1.9742,2.2533,6.7067,3.4157,9.792,-12.4854,-10.5507,
-11.7685,10.0139,11.159,7.0569,-0.56983,2.3447,3.6796,1.7599,2.3595,1.7248,2.4879,23.3045,-6.5541,0.084788,
3.0376,-4.6869,16.0331,-7.4665,13.5644,-11.8959,-10.6412,15.7543,-11.882,15.7213,-11.7614,7.8062,7.9391,14.1797,
3.2166,9.6943,29.1711,7.0815,22.7531,-25.2822,-2.8926,0.70906,-9.1207,2.1243,-12.8637,-6.7622,19.8751,6.4598,
-11.0764,23.2126,36.9413,20.7566,27.4133,-31.7193,11.381,-13.4335,5.5266,-12.1032,2.0082,-20.4564,7.8366,16.9182,
3.6882,7.7199,20.6248,5.4112,11.6685,-15.7162,-0.5095,-8.1686,1.218,-1.6154,2.7314,-5.129,-6.7336,1.8031,
-10.6331,-6.8433,5.2873,-9.0135,-3.1316,-0.67321,13.6211,-1.4118,3.5554,-2.0008,-11.5325,9.2787,-19.9474,-12.4051,
4.1049,-20.5327,-9.1299,-22.2112,-3.9076,13.4672,-1.2962,12.7729,-10.7579,12.2193,-24.9405,-1.16,-4.6506,2.4392,
2.8947,-5.2008,5.5179,-6.7785,10.4269,-1.4409,-15.3184,-2.0935,-21.5614,0.27866,-15.49,-15.1904,9.7284,-1.684,
-11.379,9.2113,19.2868,7.7282,23.9012,-13.1645,-0.29932,-16.0679,-6.1677,-13.8381,-0.46062,-28.3789,-3.8705,1.0684,
3.4038,-3.6337,4.0296,1.4799,8.3672,1.7253,10.5648,-13.7783,3,-1.5591,13.667,-12.5762,-17.7382,-12.0112,
-8.3699,-17.5157,-10.3122,-12.7089,-6.2349,15.7218,1.4948,1.1484,-11.28,8.4164,-1.253,2.2784,-29.3281,-25.3905,
6.2323,-30.5647,-23.7934,-26.0463,-15.7428,0.67851,-12.6949,15.1795,-24.7032,22.0114,-15.2778,10.0955,-13.4684,-9.7671,
7.4254,-14.6308,-8.2658,-10.3836,-0.69825,-13.4622,-12.0532,0.16876,-9.121,6.5907,-0.26116,-4.6102,1.4397,-2.4321,
-7.1202,0.34701,6.3301,4.3394,13.2023,-26.7545,2.7699,-13.9414,5.5262,-7.9047,13.8545,-18.4336,-12.7467,-2.7686,
7.4071,14.4262,20.0503,18.1791,6.867,-11.0492,14.7753,-13.828,14.1123,-6.3459,-1.0768,-3.2276,-12.5841,-1.3972,
-7.1374,-0.53938,4.7473,2.9883,-7.645,3.7138,-0.21119,1.1017,-0.83448,8.1349,-15.1122,11.0661,-25.9291,-15.4134,
7.3909,-14.607,-9.6375,-11.291,-21.2863,7.7089,-14.2985,15.1356,-14.8844,21.7468,-28.3054,24.5021,-15.817,-16.0552,
18.0344,0.3694,5.0407,3.4865,-5.9091,-6.8537,-12.4765,4.1043,0.10865,12.7294,-12.5071,8.932,-0.76802,-6.4149,
2.8524,14.4472,18.8383,17.3773,8.5454,-20.5424,2.3721,-10.242,14.2021,-2.1343,2.3433,-5.7039,3.4962,8.07,
10.5145,25.9927,28.4333,19.1062,18.8785,-19.069,-1.7473,-9.025,-0.75,0.52434,-2.9799,7.7741,10.9988,18.5521,
2.8942,10.3332,12.6273,3.8599,3.6458,-3.8249,-15.7425,5.6165,-14.805,13.2673,-16.9011,17.6717,-3.7611,3.339,
16.8205,-4.3868,-2.2303,-10.4717,-10.6729,10.5046,-28.898,19.3795,-28.0167,26.5713,-29.987,8.6577,-16.9121,-10.9614,
20.2701,1.9024,-1.8553,4.2566,-8.827,7.2232,-13.0641,11.7092,-12.2357,17.3847,-14.0878,-2.949,-7.7025,-12.9546,
4.9539,15.8882,12.356,18.1012,-4.2003,-7.3102,1.8198,-3.0933,2.5984,2.2416,0.85746,-2.5311,-6.9991,1.9227,
2.608,6.3786,18.484,19.6667,-5.3941,-20.9716,-12.3894,-9.7769,5.9377,-0.90586,-12.9319,-16.4792,2.0975,5.7842,
-2.8511,-2.6813,21.2311,4.3867,6.9807,-5.6133,-25.7461,4.9097,-8.5186,9.7538,-26.2559,-16.3339,16.0716,10.2574,
-6.2955,-5.1715,5.8573,-9.9765,-7.5382,8.8235,-24.9242,3.7715,-22.1074,0.73243,-14.6784,-1.2538,1.0073,-4.458,
8.1822,5.021,-8.5942,3.3965,-13.7139,11.4276,-9.3287,1.858,-6.681,-2.4448,0.30231,6.8959,-10.1401,-18.2905,
-6.4087,18.8197,6.0215,17.2927,1.209,-3.358,5.331,-10.5457,7.8199,-12.18,14.3842,-7.6179,2.7604,-3.0931,
8.0758,3.5905,19.7602,16.3754,6.5591,-17.2566,-9.0889,4.187,-6.7493,2.6508,-0.57888,-21.2608,4.0408,10.4696,
-4.5803,9.8826,26.0466,5.27,20.2656,-2.1212,-11.0744,7.1895,-14.6596,7.1917,-2.1104,-5.8852,17.8983,23.9414,
-18.4055,21.1002,10.3838,-9.1462,4.9496,12.1061,3.6901,-7.3419,0.32001,-7.3398,12.1162,8.5679,2.9656,12.5025,
-3.2012,5.8545,-4.3392,-3.8974,-9.4473,25.4797,9.8559,-3.1652,5.7237,-2.6813,6.6892,2.7512,-11.3123,-2.3476,
-15.5428,19.6032,10.0211,10.4364,1.845,20.215,18.1824,10.2809,4.1752,-2.2797,11.8313,5.2375,-6.4157,-10.5224,
-0.51023,4.327,7.6121,-3.0848,6.5549,4.9021,2.9914,23.764,-10.1753,11.9571,-2.9786,-9.1768,6.0206,2.1603,
0.36423,16.8418,21.2553,11.2003,20.2616,-6.3587,0.52231,8.2382,4.5352,8.709,6.4796,-22.7262,19.7594,16.1307,
-13.7576,29.9313,5.88,24.6282,20.1306,8.1228,14.591,-6.3561,18.3631,-5.9135,20.1908,-12.2036,9.0532,23.9604,
-1.0011,14.0354,-8.5728,9.0505,4.8228,21.7354,-0.38448,-17.1822,5.3305,-5.1972,4.8794,2.6286,-5.59,8.4227,
-15.041,-0.90669,-22.1584,-5.5925,-9.5666,34.5313,-6.387,-2.0513,0.19018,-0.064921,-9.5134,16.5709,-15.7389,-6.1826,
-0.038572,-11.337,-6.7289,-18.7543,5.1074,20.5287,-20.1037,12.1718,-13.9212,14.039,-23.0426,4.9713,-0.69457,8.2883,
2.1327,3.4432,7.7748,-3.529,11.9113,5.197,-4.7975,-2.6585,-6.4582,-0.90336,-7.56,-9.427,13.4471,2.8498,
-12.0953,17.3366,21.4083,10.7827,5.1709,-9.2148,9.5903,-16.599,8.0293,-14.9492,6.9936,-22.9614,-1.4597,-11.4212,
2.7304,2.1964,6.0238,4.3513,-9.2394,5.438,9.3766,-13.6749,10.0786,-7.1828,3.4407,-7.4837,-15.4721,-16.641,
-11.5334,-12.0353,-8.4376,-10.0098,-22.785,19.2118,4.4752,1.2456,-4.6261,1.4431,-10.8657,7.0653,-12.6156,-18.0524,
3.2586,-25.4132,-22.0313,-23.5092,-7.3179,26.736,-9.8933,15.2709,-18.4486,15.4565,-24.3138,19.6569,2.2413,-2.8693,
0.89393,-9.7884,-6.6095,-7.9987,1.9187,11.0319,-5.8048,0.25462,-3.2417,2.3573,-8.755,4.3775,7.2888,-9.0848,
-13.2597,4.8989,7.8871,6.5813,6.1419,-3.73,8.6435,-13.8607,11.0528,-11.8841,5.8703,-9.9851,-7.2486,-16.7344,
1.6359,18.7049,16.573,20.2864,12.2811,10.5938,14.9943,1.071,5.3282,-4.061,8.6516,3.8704,0.29672,-1.6303,
-6.175,3.4826,1.4786,4.9692,-2.5557,24.0581,-0.0053564,8.599,-9.0915,2.2082,-5.9675,17.7381,-13.8211,-15.6325,
8.2955,-10.8263,-12.7101,-9.4289,-16.5024,8.5147,-14.105,22.1831,-22.646,16.1757,-19.7094,12.9379,-0.57928,-5.5355,
4.0621,-0.53565,-1.5831,5.2368,-16.2349,-6.0962,-16.392,6.7521,-7.1872,1.1052,-4.4269,-1.9383,-7.052,-19.3034,
-10.2817,13.5965,12.6118,19.0226,-1.1608,-19.8304,-1.3085,-7.753,7.344,-13.0611,9.9387,-15.922,-14.8236,-4.0452,
4.4352,25.4343,20.6521,17.7606,8.188,-17.5562,12.87,-9.5776,5.6982,-2.9978,2.3522,-15.2078,0.16583,10.2975,
7.5431,9.8083,5.313,2.595,-6.4033,-2.4028,-2.0022,5.097,-8.7437,11.2821,-11.8889,-0.19532,13.0506,8.3541,
21.1905,-4.8802,-9.1058,-11.6607,-15.7806,11.8414,-15.982,18.8912,-22.3191,24.7051,-25.2756,13.9164,6.483,4.9604,
21.0037,-1.9357,-4.9439,-0.11492,-14.1109,-2.6075,-0.92311,3.6577,-6.8799,9.1228,-9.6591,-1.0186,-5.7166,-9.4373,
5.6435,12.2804,9.4527,13.992,-14.2281,-16.5511,13.2323,-10.6617,7.6329,-5.5245,5.0205,-15.0575,-11.1577,-2.2428,
12.8972,10.6998,12.8626,10.3808,-1.564,-29.658,-1.6617,-9.781,1.6313,0.35054,-9.3808,-27.4104,3.6117,11.6304,
2.4821,-4.0421,12.0905,-4.3421,6.2423,-13.7785,-15.662,4.9058,-12.5666,9.0063,-22.9179,-16.1247,9.7818,3.2195,
-2.0051,-13.8021,-2.735,-18.1816,-8.2322,1.1482,-28.8222,4.4911,-25.9126,7.502,-34.0757,-1.0572,-4.9051,-5.6504,
12.2152,-3.0921,-16.6709,-2.9907,-15.5713,0.11519,-12.9929,4.4626,-10.2578,8.2567,-17.9312,-1.8374,-5.213,-9.8911,
-2.6177,11.1934,-1.5706,11.2888,-3.5503,-13.9917,1.8867,-9.9052,4.4576,-6.3387,-2.7553,-15.2245,1.3663,4.1997,
11.6393,0.5193,8.7676,22.6625,-5.0244,-27.2522,-12.3265,0.69168,-9.9098,8.1417,-16.69,-28.411,12.1302,5.6351,
-3.1588,10.1292,22.3415,7.2028,9.3771,-11.5171,-8.6949,0.16813,-22.6922,-3.6748,-16.2915,-12.6064,25.5024,13.4918,
-5.1387,23.6215,6.901,-7.3294,13.2734,3.2739,5.9268,-5.8677,-7.2307,-6.1056,-1.214,2.25,13.4876,12.9235,
9.2696,8.1042,-7.613,-3.5153,-1.623,17.1775,6.1738,-14.6745,7.3031,-4.7752,-0.53851,-11.985,-1.4217,-1.9519,
-5.3865,21.7179,6.9438,10.7956,0.52349,16.0264,19.9034,0.306,16.9883,-2.0786,12.9912,-25.3659,4.0868,-9.9095,
9.0367,6.3149,15.4449,10.5096,4.3485,0.96478,4.6092,14.3876,1.869,12.1461,-1.8883,-37.9439,13.483,4.7851,
-3.4364,14.1309,25.3644,12.5301,10.5953,-13.1931,-3.1391,-0.57562,-8.9689,-2.6826,-9.1263,-39.0418,15.3249,17.152,
-17.3302,27.383,9.7426,14.4298,11.1649,1.6985,11.1492,-14.6411,5.6692,-16.6217,5.5212,-28.7451,11.2724,26.4872,
-2.1904,11.6401,-4.942,-0.53594,-3.605,15.6966,12.7701,-9.665,9.065,-3.6935,3.6237,-12.9204,-3.504,10.7979,
-10.4946,-3.1583,-14.7684,-14.6038,-17.4887,28.8548,-2.0961,3.2069,-4.2531,-4.677,-10.6937,1.9549,-17.3938,-3.9499,
4.235,0.76695,0.21773,-3.8455,-2.3394,13.0235,-16.0703,17.1145,-18.0979,9.7036,-24.1521,15.9376,-2.2501,10.3871,
7.4756,14.8209,14.3047,10.4852,11.901,-1.8579,-1.0061,1.9876,-2.9121,-4.7376,-8.603,0.88132,11.9849,8.6793,
-7.0729,28.0317,8.8666,23.9561,17.9353,-15.8464,13.1543,-12.2316,11.3627,-18.5534,6.0132,-7.6077,3.0711,12.7378,
7.4515,12.2498,-5.7654,8.4187,2.7592,-0.79565,8.5084,-15.9568,6.945,-6.2324,-4.471,6.9488,-11.2132,-2.1265,
2.4249,-2.5852,-19.5194,-6.1864,-11.5063,13.3521,5.8285,-0.89935,11.1076,4.5054,-18.3027,20.6318,-5.1177,-16.0989,
16.3794,-10.866,-10.1532,-19.9152,3.284,26.651,-8.6212,13.2546,-3.6589,18.335,-31.3045,5.2939,9.2893,-1.033,
4.6713,3.886,4.556,-4.6203,2.2434,10.9519,5.9961,-1.6407,-17.5393,3.1349,-15.3263,-9.1237,3.3093,-15.071,
-9.709,17.7528,18.3826,9.7569,-11.8705,-3.8052,19.7363,-15.6422,-2.387,-11.1532,-0.30669,-22.6763,-10.9892,-26.9407,
4.9736,7.2875,17.5205,20.3791,-7.5431,10.5231,20.1191,-11.8114,11.8562,-8.1941,-1.7345,-7.2157,-8.0402,-11.2243,
-8.0995,-7.2497,2.3693,5.0564,-21.1905,23.9917,4.8119,-0.49742,-2.9551,-0.95354,-10.789,7.3172,-9.486,-16.2149,
6.4864,-20.9147,-11.8729,-9.347,-5.8191,17.6111,-3.7923,13.6324,-16.8778,13.2037,-7.0086,7.7217,5.1831,-1.142,
20.1973,-9.7777,2.9395,5.3138,4.653,2.4545,1.0149,-1.2855,-1.7652,3.1317,2.3299,-6.8416,14.3924,-13.2458,
4.8854,4.909,16.8631,19.095,-0.20549,-11.7928,15.054,-15.3084,12.4407,-11.1562,16.2901,-20.5311,-0.57114,-23.7792,
16.7642,8.5914,25.7334,20.1185,13.9068,-19.5211,0.050736,-10.6539,-2.4057,-11.0891,1.2127,-33.3992,-12.2266,-8.2525,
11.9021,-6.0241,10.0894,4.8114,-1.0276,-4.2499,-12.7268,4.0854,-7.4435,3.6762,-12.9601,-17.2953,-9.0828,-1.6108,
24.2029,-19.7626,-4.616,-9.5773,-15.0659,10.1051,-14.8554,17.9402,-21.0969,17.5556,-26.2825,-2.1576,-10.948,-9.7093,
18.6539,-4.4769,-3.8567,5.0974,-9.4617,-3.5165,0.13588,2.7638,-5.7311,2.4023,-10.6055,-16.1281,-4.7475,-7.9215,
3.4346,9.8917,10.4747,18.8915,-6.9658,-17.4055,14.2277,-11.502,8.7128,-11.8418,4.1308,-29.2604,-15.5498,-5.9999,
8.8924,17.0111,14.7869,11.0093,7.1904,-30.4612,22.7743,-13.2224,19.157,-15.9517,1.7136,-41.6048,-0.51685,8.4601,
5.4663,1.8905,11.9715,-3.7513,11.0973,-14.5335,7.3078,1.671,3.9076,-0.89459,-12.4892,-25.0085,13.6142,11.9291,
-2.3332,-12.323,-2.8468,-17.6262,-3.6685,0.43851,-7.2306,4.1016,-10.4269,-1.2024,-25.8399,-9.408,-1.3027,-2.8867,
11.9068,-7.9684,-16.776,-2.4686,-17.5484,-3.2032,7.3032,3.6145,4.2987,4.4129,-10.1895,-21.6179,-0.62165,-3.0749,
-2.9076,6.6097,-2.0309,11.7795,-4.6856,-17.111,20.965,-10.7024,18.1408,-9.9518,4.5219,-34.4208,13.5156,11.2096,
8.5953,-0.65581,-4.8013,9.6267,-3.4399,-30.1844,5.6071,-2.227,2.9523,4.7453,-9.8494,-33.1992,26.8047,9.9346,
-6.0205,7.5782,9.5868,4.2286,10.8665,-14.2733,-8.8293,-3.0572,-11.3248,-2.2881,-22.1532,-19.1559,31.2217,10.7848,
-14.457,16.0412,-5.0884,-6.8716,10.3348,0.68309,5.8004,-3.5971,-16.4303,-0.94554,-6.724,-3.9065,15.2484,15.1989,
0.51038,0.97869,-18.8831,0.048621,-4.3853,10.2833,4.1266,-3.1401,-1.3445,3.6905,7.7795,10.4279,0.23353,0.18698,
-13.6202,15.02,-8.2299,14.1457,-8.8222,-4.4337,17.979,-4.1572,12.8361,-1.1102,21.4127,0.64293,6.486,7.5269,
1.297,0.018768,6.3639,13.8995,1.3482,-18.2677,2.8003,10.1922,-2.034,13.0564,6.0279,-13.4956,17.6661,21.1752,
-6.3731,7.6104,20.0821,13.7885,13.5599,-3.0716,-11.4677,-2.8319,-9.5038,-1.827,-8.4337,-16.6625,15.8834,14.2411,
-20.0907,21.2538,4.7771,4.5251,9.1305,9.0431,3.3203,-16.762,5.1664,-15.8174,6.1723,-1.5628,8.9044,17.0016,
-4.7853,5.8785,-9.6095,-5.8691,-5.5174,20.0701,4.8083,-5.2714,14.1357,-5.1069,13.9969,12.631,-5.7299,1.8815,
-10.7649,-8.5742,-10.2377,6.293,-18.3222,32.9659,-9.5802,6.855,1.4772,2.6711,-0.94294,25.9731,-10.8092,-7.5109,
3.981,-7.6983,4.4765,6.1566,-3.1229,19.2981,-23.1053,20.5437,-12.7114,16.6108,-14.9864,10.3147,3.9393,7.0397,
-3.6092,0.2352,18.3079,19.8872,11.1645,4.0402,-11.1142,5.2111,-13.2745,1.5142,-9.7489,-4.4042,8.8851,7.4612,
-17.4927,14.3211,3.1095,32.794,14.1103,-10.3022,3.6527,-9.2016,1.622,-12.6767,4.9361,-18.2399,-0.807,17.1364,
-4.753,1.7722,-11.1771,16.7263,-0.83635,4.4159,0.42073,-22.7495,14.4196,-22.8826,-3.1933,-3.0455,-14.8586,2.0082,
-5.6731,-12.4341,-21.8347,1.6227,-14.8862,18.251,-13.7045,-7.2845,-0.54559,-7.4096,-17.1017,11.2372,-16.4972,-12.2123,
8.7673,-11.8086,-6.4246,-12.5746,0.107,19.566,-22.1615,7.2525,-12.6844,7.1349,-27.2834,24.663,-1.4074,2.6205,
11.9771,2.9999,8.0609,2.2799,14.2006,4.2921,-6.7318,1.2735,2.1766,-0.52376,-11.5464,9.0832,12.7771,5.2355,
-2.8415,16.9199,-0.61748,16.2431,1.7792,-10.0655,7.7721,-12.9029,16.146,-14.5923,3.2464,-5.5618,-2.0896,-9.1786,
5.4035,11.0845,13.3991,1.4097,6.011,4.6385,8.7518,-9.3567,18.5517,-8.0529,3.0516,8.631,-5.2186,-6.8204,
1.946,-3.6806,-1.5049,-12.7749,-8.4497,18.4602,2.6831,5.3047,3.3386,6.5303,-11.2315,22.2131,-3.7,-13.8832,
15.9292,-17.5597,-15.5146,-26.1084,6.1573,31.4525,2.7632,19.0865,-10.9617,20.2384,-21.0423,14.9751,10.622,1.0498,
17.0217,-2.4062,-0.4837,-10.4419,9.6442,15.4654,16.6974,5.1666,3.796,4.9241,-5.6797,-0.023375,12.5153,1.5897,
1.9004,11.8382,13.6453,4.2846,-4.1906,0.43747,29.7955,-9.2434,6.3398,-9.4713,8.7611,-14.122,-2.3356,-12.6057,
14.9224,2.4507,26.9266,15.1144,10.1609,-13.6888,13.9078,-4.2297,-8.1406,-0.70799,-5.8646,-27.3747,-4.4855,2.2506,
-0.072955,-11.7963,11.211,0.10755,-4.5488,1.2325,-1.0267,6.8703,-11.87,4.3958,-15.9972,-11.6322,-9.2779,-3.9104,
14.0314,-25.1886,-3.5617,-13.9989,-18.3759,15.2586,-15.0651,20.558,-25.2578,18.2321,-12.8682,-7.8011,-7.034,-4.3987,
18.0105,-9.5772,-1.7816,-9.5433,-4.8607,0.24308,-10.6662,5.2246,-21.4525,6.1718,-11.6141,-21.433,-0.34487,-5.0985,
2.8299,5.0974,12.4253,5.1293,-12.0409,-13.8715,4.0737,-9.1889,-6.0654,-8.2986,3.1828,-34.2471,-14.4242,-18.8926,
-3.0042,9.1302,17.344,12.4137,1.9381,-13.039,2.2627,-19.8451,8.3985,-15.393,6.7276,-43.5202,-13.4384,-3.6591,
2.2375,-5.5176,2.2034,-2.4311,8.3296,1.8434,-11.9731,-4.5544,-6.2054,-0.36946,-7.7761,-26.809,1.4679,10.6605,
-0.30729,-19.2865,-12.0288,-16.3853,-6.2702,15.8328,-25.3547,9.8189,-19.9331,10.378,-21.4095,-11.1004,-8.623,1.4639,
3.5682,-13.791,-19.984,-12.9916,-19.994,1.8674,-9.7334,-3.7854,-4.6371,-3.7418,-6.0249,-24.5344,-13.89,-12.603,
-10.7459,1.1364,-4.6849,1.8879,-11.0816,-12.3447,4.9506,-17.6583,9.7411,-17.6173,8.4366,-35.7163,-0.76429,2.2532,
3.9989,6.2503,9.6962,15.6336,3.6833,-25.704,-6.1926,-2.4988,2.8902,-2.4602,-6.1696,-19.8347,13.3816,16.218,
-8.7748,11.66,23.2144,11.321,17.5623,-10.0618,-13.5339,2.9536,-11.3832,-2.7948,-16.0428,-28.2857,15.1095,12.1117,
-7.5252,17.4676,7.7215,-3.4583,10.9647,4.642,1.3781,8.3197,-10.3391,4.8445,-0.98026,-12.4885,2.8745,15.4821,
7.0264,2.3196,-6.8418,0.24417,-3.7932,16.8967,10.8159,10.4719,4.3812,12.5082,9.5631,2.3608,-2.3594,0.81507,
-7.4952,8.0859,-15.4696,14.3295,-3.927,22.8728,24.267,-0.038383,18.2183,-2.3423,23.0894,-4.0476,11.8822,14.8662,
7.0545,-6.4992,-1.044,2.9852,10.2881,7.4004,8.7109,14.0639,3.0252,11.8983,7.604,-17.9048,25.2692,24.2176,
-7.4688,6.3037,13.1186,6.9034,23.7708,-7.1436,-0.48835,-0.87992,-9.5686,-2.9156,-5.3855,-27.0741,18.6916,10.9544,
-21.1207,20.0255,6.1852,16.1302,21.0188,-20.815,13.6409,-14.9271,5.1055,-16.8407,9.0376,-11.3496,3.4701,10.2969,
-5.7534,4.724,-8.2859,17.5727,5.6577,-5.4661,13.6659,-0.17269,10.9452,-3.5382,9.8207,3.4313,-10.8381,-4.4209,
-17.4598,-9.2983,-15.6224,15.3131,-8.7818,8.9619,-1.2541,5.3813,-3.8115,1.2536,-3.5428,-5.4516,-15.4904,-16.3277,
-2.3122,-15.0069,-0.5851,0.41476,5.8451,2.2779,-15.2788,19.1584,-17.6828,15.2784,-17.4302,-19.2245,-0.46101,-1.248,
-5.6682,-0.0064611,13.55,14.4899,16.4612,-11.9588,-0.2621,3.9089,-2.5218,0.26171,-2.2844,-27.5916,12.9437,11.722,
-19.4281,14.0939,0.92711,18.8024,7.7605,-25.3413,13.8536,-10.4256,11.7295,-13.854,11.9527,-40.0361,-1.9329,3.7876,
-4.1624,-0.85171,2.0763,3.5743,-3.5512,-9.7208,13.5041,-7.9926,18.2563,-4.4664,12.3201,-23.5339,-7.2403,-4.3931,
-3.1895,-14.9006,-10.0994,-10.7402,-17.4381,4.9625,-1.4061,6.5869,3.0609,3.5146,-2.5191,-8.0219,-12.1083,-16.6628,
11.1019,-7.2579,4.6066,-16.6033,-2.2918,3.7006,-15.4218,20.2917,-11.2227,17.4037,-16.468,6.5594,2.7182,-1.563,
7.182,7.2776,18.4302,-1.5071,4.8358,-10.6214,-4.8553,4.9742,1.502,2.2595,-1.3799,-7.9341,4.1217,5.8818,
-7.3489,20.9409,3.2244,12.6834,-8.711,-24.0841,9.536,-9.4242,15.5118,-11.9761,12.8029,-8.3012,-10.2256,-1.9427,
7.192,23.5409,13.5155,11.9224,1.9348,-8.5391,10.5306,-5.4843,8.9168,-2.4601,15.4089,6.2968,-4.4302,12.2739,
9.6528,8.0284,-1.3954,-2.893,-12.2813,6.0733,-4.2012,8.9447,-5.7182,11.7875,0.38441,20.019,2.8257,9.7295,
23.1736,-6.5533,-8.1809,-16.8194,2.5556,19.8089,-18.0491,22.5081,-19.4751,25.1802,-13.7387,17.3714,16.7562,23.2458,
12.2627,3.2399,6.41,-1.7102,-3.3823,4.5203,-3.7098,7.0576,-6.9782,9.5694,-5.4421,2.2291,9.6048,7.751,
-2.573,17.1455,10.7256,12.4924,-17.2794,-7.32,10.6128,-7.4659,7.5405,-5.1048,8.9845,-12.0046,-5.0715,-6.814,
3.0045,14.55,21.4103,20.4197,-2.6248,7.2192,-2.6777,-17.623,-4.1196,-10.5833,-5.6546,-2.6075,-18.8672,6.49,
14.1524,-0.42297,6.0257,5.0945,-1.262,20.886,-16.6171,-2.4656,-17.9724,4.1517,-19.4153,11.649,-3.6352,20.2006,
27.4033,-14.4976,-8.4359,-9.3111,12.9137,33.7328,-27.3098,11.7823,-30.9941,18.0026,-27.0481,25.05,10.6829,33.0885,
11.6591,-9.5303,0.023904,2.0939,-1.9611,17.6089,-11.5712,-2.1809,-15.0345,2.8225,-11.3252,9.447,-2.9736,17.0032,
-3.1405,5.1415,14.1225,16.0683,-15.9434,2.4523,3.2231,-16.15,-0.032388,-11.4469,3.4543,-5.2198,-16.8952,1.883,
3.6759,16.2816,27.3751,27.5168,-0.88683,-11.7948,-4.6832,-14.0966,-14.1304,-8.3497,-10.853,-19.0066,-8.0483,-3.0509,
17.5554,1.2047,11.6326,11.7658,13.2664,3.0129,-18.5022,0.84923,-27.1415,6.2513,-24.3018,-3.7662,6.5346,11.2322,
29.3971,-12.7263,-3.1653,-3.0401,8.7344,13.5575,-31.4921,14.8983,-33.226,19.9762,-18.7463,10.5598,20.2425,14.2942,
14.1354,-8.1063,-13.0986,-16.9577,-5.8897,-1.3559,-15.5026,-0.095624,-17.1325,4.6776,-3.5216,-4.1738,4.928,-0.66341,
-0.81268,6.4801,1.7874,-1.8403,-10.9593,-15.3745,-0.4724,-14.1899,-2.0045,-9.703,10.7897,-18.0234,-9.4677,-14.7236,
13.3361,5.9709,15.0571,8.1523,3.7982,-28.5521,-8.6388,-1.2869,4.6236,4.9791,-3.9576,-27.4263,5.2003,0.25981,
-1.5641,5.8534,16.3231,9.8323,17.6704,-12.739,-18.4848,1.9233,-9.7539,1.4267,-17.8202,-11.6808,18.9883,12.1752,
-15.5702,8.3947,1.2437,-4.8576,3.354,2.1254,-5.8063,-6.8687,-11.6995,-3.4797,-9.7612,3.1201,3.749,11.4447,
-0.53603,-6.209,-12.9309,-18.6661,-10.9473,-1.7379,2.0139,-10.0723,3.1025,2.2727,3.117,-0.68277,-10.5759,-3.342,
-14.6039,8.2636,-2.996,-3.4462,-8.9649,-15.7337,15.9931,-17.1805,17.0164,-7.5046,17.03,-14.7418,4.1586,10.9585,
0.37237,-6.3322,4.6553,1.7016,5.673,-28.8896,0.93348,-2.0496,1.8954,7.0457,1.9082,-27.9573,18.0091,21.8702,
-10.6164,8.1477,18.476,15.6995,19.4326,-19.6842,-4.4249,-10.2421,-12.3183,-7.4771,-10.7398,-12.1799,15.7237,6.4579,
-24.0794,21.7588,25.924,16.5654,20.1949,-11.5135,9.9405,-20.9558,2.5208,-17.8742,4.0046,2.6509,1.042,6.6731,
-8.5346,6.3533,10.2686,1.4715,4.8832,3.2773,2.9565,-5.5984,16.4695,-2.7018,4.608,8.7585,-13.1205,-7.8273,
-12.1201,-8.1279,-4.4475,4.3958,-9.5098,17.1807,-6.6205,-0.56273,8.0095,3.6059,-1.2124,22.333,-6.9106,-12.0579,
2.7071,-11.1352,-4.1809,4.3732,2.6299,2.0498,-20.3233,13.571,-6.571,17.4895,-15.2397,6.893,7.604,2.7656,
-9.1448,3.6329,10.17,18.2108,12.8362,-12.1732,-5.0039,-1.3432,7.9232,2.3402,-5.5275,-7.6206,5.0993,5.3715,
-22.6961,17.515,3.8957,18.6847,6.2812,-25.5428,9.3964,-15.3626,21.5478,-11.9002,8.9042,-21.2633,-9.3066,-9.0508,
-7.2343,2.3641,-10.4381,9.3689,-1.8082,-9.9102,16.9068,-14.3202,26.8832,-9.6193,18.8545,-5.8875,-10.5562,-22.6078,
-4.8721,-11.8778,-15.4759,-5.2932,-15.7997,4.7844,1.7924,0.63905,11.1702,5.0579,3.6232,8.5657,-7.0303,-21.9742,
9.5203,-19.119,-0.44734,-19.0756,-0.7517,-3.3363,-12.4152,14.7007,-3.6,18.8544,-10.6942,-0.86606,7.4915,-6.5557,
-5.151,-3.8718,13.6795,-3.8311,1.4623,-17.2361,1.8271,-0.28134,10.716,3.6232,4.0475,-14.9141,4.27,4.5634,
-18.9419,10.4605,-1.2413,10.4988,-7.5432,-30.3019,15.8175,-14.3645,24.173,-10.6942,17.9046,-4.7398,-10.0862,-0.2904,
-3.7054,-2.7006,2.328,-4.2312,-2.0291,-14.3838,3.6606,-16.6362,8.6226,-3.0628,2.7304,9.6445,-11.7708,1.4146,
10.6169,-16.6386,-8.6576,-18.0773,-9.8614,0.57922,-10.659,-1.538,-5.9947,11.221,-11.5335,23.1659,2.192,-12.7703,
24.0799,-11.9043,-0.9075,-24.9466,4.8303,14.6445,-24.1195,12.6543,-19.7351,24.6477,-24.9415,35.8759,16.1604,2.0959,
13.7169,-6.8516,-1.3351,-9.3498,0.081757,-0.3342,-8.5723,-2.205,-5.1737,9.0688,-9.345,19.6234,6.3934,-1.6452,
-1.2061,7.6595,-10.6549,5.3112,-10.7695,-14.4142,6.042,-16.1727,9.2367,-5.5753,5.3157,4.346,-8.0902,-7.5722,
0.43315,9.4897,4.0844,8.1257,-0.72335,-21.6236,0.61817,-20.7458,6.6335,-10.3026,-4.0418,-0.85576,-15.197,-1.5742,
14.5072,-5.1797,-0.86077,-6.4618,7.5153,-6.2262,-13.5189,-5.4011,-7.8645,4.4156,-17.8993,13.2956,-0.18519,6.2331,
27.7367,-16.0766,-9.7271,-20.1741,21.1644,8.2474,-17.1668,9.023,-21.4927,18.2506,-11.1612,26.5978,13.9259,19.9591,
23.1804,-12.7018,0.015698,-4.8636,6.9996,-6.3475,-2.0368,-1.1592,-6.1031,8.4789,3.6085,10.902,6.8237,4.6616,
7.6895,2.1603,12.3069,9.5282,-7.5204,-20.0666,12.1854,-15.1897,8.3631,-6.1299,17.492,-3.8521,-7.6857,-9.7181,
-4.7028,-0.98217,22.8967,17.3926,-5.0204,-32.9626,-2.6457,-24.2808,-6.2387,-14.8005,2.3424,-17.721,-16.7449,-18.4147,
9.6794,-15.0232,7.4229,2.2491,9.3809,-16.8849,-16.587,-8.724,-19.9644,0.18751,-8.0417,-2.5578,-1.6402,-3.2098,
23.1986,-26.2935,-7.1225,-11.9859,22.4357,-1.7718,-19.6892,5.8994,-24.792,14.2763,1.3587,11.6957,12.5582,11.0828,
17.4683,-12.1827,2.946,1.7486,6.9896,-15.7655,-4.4079,3.6172,-9.2044,14.3839,15.3772,-3.106,0.23497,-3.6822,
2.3202,2.6483,8.3127,15.7437,-7.5298,-28.9196,9.9566,-10.6999,5.4478,-0.57914,28.5546,-17.0197,-13.8791,-17.5612,
1.3372,-0.52303,16.7322,14.6787,7.022,-41.2844,-4.7408,-15.2399,-8.979,-9.1009,12.7413,-30.0985,-1.8381,-11.4457,
-1.8763,-7.4818,5.3637,4.3977,17.0851,-31.5765,-18.5564,-2.033,-16.9968,2.2912,-2.1232,-14.1926,10.564,3.3411,
0.16474,0.68016,-9.0581,-9.9661,3.5268,-15.5819,-4.1865,6.2835,-2.9616,11.7949,6.4402,0.75898,2.2176,16.2763,
14.2549,-6.5916,-12.7323,-15.9963,-5.3616,-12.8392,10.1647,4.9425,11.3161,14.4616,15.2127,-1.4558,2.0845,1.1997,
-0.70044,7.9039,2.1316,-0.93648,1.7084,-26.1688,23.6548,-9.4541,24.7372,-0.50613,28.4,-15.4685,11.1183,1.2482,
13.4416,-6.6703,4.5343,-7.9906,11.4884,-38.6987,8.1355,5.2132,9.1529,13.6242,12.596,-28.6404,22.2615,12.0192,
-1.4649,-9.6445,16.5545,4.299,10.0759,-25.5308,-6.4526,-9.1996,-5.4962,-1.2932,-2.2598,-12.822,6.8258,-2.8019,
-15.477,5.0342,9.5356,12.4768,13.0868,-9.899,8.0346,-18.8911,8.9335,-14.8336,11.9758,2.0474,-7.4427,-1.0672,
-0.44839,-9.3678,-5.1365,-2.3718,-1.7984,-12.0766,4.7807,-7.6345,22.4975,-1.4103,17.2827,10.3605,-15.1911,-15.1031,
-14.5215,-15.5545,-18.9283,-7.6524,-14.8264,-2.9161,1.3604,2.2235,34.886,2.2897,22.7537,23.8389,-0.17961,-0.096955,
0.4498,-9.0776,-3.6926,0.76069,0.16315,-16.8412,-12.8213,16.1901,18.6928,16.2523,7.2884,13.1291,13.9312,14.0089,
-13.6772,5.5671,10.6289,14.815,14.2534,-29.9307,1.8073,1.1187,3.4713,1.1772,-5.8026,-1.7587,3.2134,-0.93167,
-26.9566,19.3331,10.9553,4.1645,5.6854,-42.2348,15.7988,-13.0484,17.363,-12.9934,8.6456,-15.7532,-11.0794,-14.9758,
-11.2392,4.0731,-3.802,-10.1854,-8.1534,-25.6008,2.679,-0.81695,20.0572,1.8862,13.3089,-0.70798,-4.9917,-10.1002,
-7.7932,-10.2713,-17.6739,-23.6743,-21.7642,-9.9647,-11.5818,9.8372,4.7538,15.873,-1.5897,13.4345,3.5029,-12.3864,
6.7744,-19.537,-2.5135,-14.5408,-6.3584,2.3228,-24.9868,23.347,-9.6314,29.0206,-15.5943,25.4029,17.3927,2.4568,
-7.7321,-4.2647,11.7373,0.43163,-1.1563,-11.9166,-9.3876,7.8462,-0.61777,13.1794,-0.55862,9.7787,4.1774,-4.5598,
-21.3682,10.0911,2.5972,10.8903,-6.1484,-25.3016,5.2756,-6.7246,13.5193,-1.7114,13.5749,-4.908,-10.1733,-12.7221,
-5.9861,-4.6143,5.8158,2.042,8.3206,-9.6835,11.9488,-15.1187,12.3467,-6.9113,16.3757,9.4865,3.3318,-0.87178,
8.4731,-18.4375,4.0206,-12.1806,4.8085,4.9975,-2.8681,-0.11157,-2.4941,7.6033,1.2932,23.0173,17.2319,1.5909,
22.0647,-13.475,6.6718,-25.5497,14.643,-7.3535,-16.796,13.9951,-16.4445,21.2471,-12.8844,7.5362,30.298,15.5954,
6.6408,-19.4152,7.2357,-9.9167,-0.33554,-21.0123,-3.014,-0.94458,-1.3578,5.8723,-7.5321,-7.0159,14.3801,0.55971,
-7.8576,-4.1503,-7.2985,4.7783,-13.6924,-33.8516,11.2668,-14.9879,12.8237,-8.58,7.0199,-15.0311,-0.58269,-10.0789,
0.56779,-4.5037,1.4546,11.7222,-9.9786,-30.1334,-3.5092,-26.6219,-2.0457,-15.2958,-4.6091,-10.7548,-14.6477,1.6128,
14.6337,-14.3567,9.5624,-3.0812,4.7202,-14.2254,-17.3986,-10.9246,-16.023,-0.27808,-18.4325,3.9905,0.33113,15.616,
27.8557,-10.844,-0.89349,-16.9963,18.5369,0.72816,-23.7059,3.8309,-20.3642,13.8386,-15.5187,17.8511,14.4113,28.7791,
20.6407,-15.2549,-7.3475,-1.8765,3.3247,-13.4155,-8.1836,-0.97847,-5.0423,18.5519,-0.48761,2.68,13.4261,12.9523,
5.3023,-0.23965,-4.7375,12.3361,-10.9748,-26.7106,6.4074,-15.0198,9.3602,3.3388,13.6416,-7.9656,-1.4795,-1.9248,
-9.1158,1.1003,9.6468,12.0779,-13.2088,-29.4465,-3.1362,-28.2186,-5.3014,-10.9615,-1.2769,-12.0672,-15.4907,-11.9322,
5.5311,-9.3296,6.5371,-2.7468,1.6837,-13.5797,-17.048,-12.4255,-19.0833,3.7962,-14.3363,2.7568,-0.46125,2.8837,
19.2992,-22.8698,-7.9551,-16.682,15.6827,1.3351,-18.5556,2.4201,-20.3487,17.6684,-5.7632,16.6914,13.6664,16.8107,
17.9001,-15.5926,-1.0906,-1.5811,5.101,-12.845,-3.3423,7.8185,-5.0277,16.849,8.6826,1.5899,2.9643,1.702,
2.7261,-0.55702,10.3031,12.6138,-9.305,-26.1743,10.9583,-6.7506,9.3739,1.7381,22.2616,-12.6054,-11.3136,-12.5001,
-10.0912,-2.8135,17.3979,2.6981,-18.026,-14.9629,-3.7992,-20.4456,-5.2885,-12.4662,6.8259,-25.9491,-15.5757,-18.4988,
-0.56768,-3.8495,2.6152,-1.0789,-2.8445,-14.788,-17.6713,-5.1189,-8.466,2.3818,-7.6836,-10.2922,-0.54119,-3.2888,
9.3484,3.371,-11.6417,-15.1142,11.4262,0.19924,-2.511,9.2883,4.8165,16.3389,6.8774,4.4254,13.5913,11.0085,
16.0179,-1.6517,0.98777,-2.2766,-1.0698,14.2873,11.7397,8.4899,10.794,12.7075,20.5648,2.1113,2.4116,-1.4625,
0.95683,12.5474,6.9542,11.96,-8.9593,-0.66995,25.1353,-6.1195,24.2464,-2.1549,31.6233,-12.1154,-11.8331,-13.1847,
14.9994,-2.3055,5.5728,7.5064,5.6783,-14.7298,9.5272,6.1784,8.6916,12.0744,15.6259,-25.4885,2.9769,1.7063,
-0.00054316,-4.3364,11.0228,12.3586,9.0733,0.25403,-5.1445,-8.2923,-5.9299,-2.7501,0.58833,-26.3694,-1.299,-5.7476,
-14.1005,10.0238,-3.7386,8.7248,11.4212,14.3388,9.2642,-14.4227,8.5259,-10.9006,14.653,-19.4846,-2.6671,8.6973,
0.84552,-1.7854,-12.0704,-5.8987,-3.3641,15.6476,22.8084,0.54263,16.9323,3.8534,17.7509,-4.2155,-9.7381,-5.9246,
-13.3052,-5.7758,-16.89,-11.45,-12.9237,0.60877,12.6422,2.0766,17.1214,1.3321,7.7674,10.1374,3.1382,-0.025484,
1.5931,-3.9829,-1.7766,-1.122,1.9517,-13.5278,-2.2164,16.052,1.9941,15.3522,-6.7987,15.3139,17.0499,14.076,
-12.6025,10.3561,12.43,13.0454,8.704,-20.1879,-2.6858,0.98887,-12.2255,0.33106,-13.2597,0.29503,1.9269,3.711,
-25.9463,23.8347,4.4536,19.6141,-0.49535,-21.8689,11.5753,-13.1705,2.608,-13.7888,1.6359,-13.8227,-12.2887,-6.6346,
-10.2896,8.3046,-9.9137,4.3372,-6.9731,-6.4568,13.4117,-3.5827,16.5515,-2.2352,15.6377,1.1067,-17.6969,-4.5493,
-7.2619,-6.2937,-23.4188,-10.023,-20.6547,8.0306,-1.493,8.9246,1.4584,11.9989,0.59948,15.1403,-2.5351,2.2309,
7.2738,-11.9417,-7.9137,-9.6626,-5.3154,21.6488,-15.5035,22.4891,-12.7291,25.3789,-13.5365,22.6677,11.717,16.1971,
-7.2626,2.8748,6.6611,5.0172,4.1621,6.2499,-0.47325,7.0398,-2.5655,9.7562,1.3757,7.2076,0.64966,1.1253,
-20.9269,16.8023,7.9485,9.1749,-4.7645,-8.2251,13.6551,-7.4826,11.6884,-4.9292,15.3932,-7.3249,-13.4893,-13.0423,
-5.5713,1.6942,1.6872,-5.4756,-3.0322,6.3684,-1.2642,-15.831,-3.1129,-18.7334,0.36957,7.2146,-26.0566,-17.6824,
8.863,-12.5075,-12.514,-19.247,-5.5018,20.0863,-15.2883,-0.78115,-17.0261,-3.5094,-13.7526,20.8818,-10.3932,-2.5214,
22.4312,-9.1058,-0.5556,-21.2256,8.9283,16.3504,-27.6275,13.3657,-30.1046,10.8012,-21.3632,33.7288,4.3304,11.7298,
6.9853,-13.6209,13.5777,-9.5877,-5.7074,1.2694,-11.8699,-1.5362,-14.1983,-3.9469,-5.9814,17.6051,-2.1965,-1.0252,
-7.5338,1.2963,-1.3369,5.0875,-16.6931,-12.9068,2.9423,-15.544,0.7536,-17.8101,8.4774,2.4488,-16.1647,-15.0636,
