"AF3","AF4","F3","F4","F7","F8","FC5","FC6","O1","O2","P7","P8","T7","T8",
-18.0771,-13.7385,-10.3641,19.5231,31.5742,-8.4359,16.6306,-9.4002,-2.6513,-7.472,22.8971,2.6513,13.7385,5.0615,
-9.2795,-1.827,-5.4039,18.3517,39.3207,-0.69891,1.5328,-4.9798,-3.9385,-0.75674,23.9339,4.9024,12.9142,10.0604,
-7.7584,-3.6456,-6.5255,16.2863,40.3359,2.2351,-7.5975,-5.6449,-3.7022,0.25253,19.1234,-0.21203,11.1751,4.6365,
-7.7753,-12.5859,-9.0265,10.9708,37.9158,-5.1294,6.3557,-10.6089,-4.4439,1.2017,12.1914,-1.1636,6.1662,2.4301,
-5.1396,-7.7334,-1.495,12.4817,25.277,-6.5089,-4.8719,-9.7314,-2.0081,4.745,12.6652,2.5216,7.9654,10.72,
-12.303,-6.5462,-1.6465,11.0097,10.9857,-4.9133,-18.6796,-10.8347,0.76368,0.36274,12.628,1.1652,13.5133,13.692,
-11.0827,-6.6354,-4.9222,13.2416,9.8446,-5.5828,-3.4588,-11.1485,2.1641,-4.9617,9.4602,-1.7972,12.2205,13.3529,
-1.4996,-0.2115,1.3989,15.5804,10.9414,-8.863,10.8487,-9.7565,1.7931,-9.7252,9.1338,-7.7147,7.8717,7.9722,
-10.5685,-3.0911,1.315,11.7535,1.1259,-13.1517,6.2211,-14.4735,1.6855,-17.3366,5.6937,-15.9287,2.5791,-2.1471,
-13.7909,-4.352,-1.1742,15.3867,3.9505,-10.4345,2.9555,-10.7129,5.9228,-11.4761,7.2799,-8.2244,2.424,4.2483,
-6.456,-2.4038,1.5475,9.8837,-1.8303,-10.0495,4.9472,-5.4909,0.98803,-3.3158,9.0122,-2.6696,2.0375,10.0189,
-2.9352,0.39177,7.4804,4.7111,-9.192,-1.9745,8.7479,-2.5102,-5.097,-0.94746,14.0153,-3.2325,4.0846,6.2845,
-4.2051,1.8148,3.175,5.393,5.4595,2.9644,5.3308,-1.8774,-4.309,1.0378,17.5129,-0.14584,6.2499,4.9433,
-5.3991,2.6697,-6.1745,0.73066,10.3136,-3.4804,-8.0045,-6.1031,-3.0866,4.3495,11.6414,2.755,3.9467,7.0568,
-9.6546,4.1968,-7.4908,2.374,-4.4052,-3.0302,-10.1753,-8.388,-3.6243,1.9194,3.4711,2.3487,-1.3518,7.3568,
-10.5214,2.0166,-0.7751,8.9803,-15.3481,-2.3667,-4.7443,-4.9926,4.7881,3.7327,6.6375,5.582,-4.1629,11.2535,
-7.721,0.20833,-0.005466,6.7545,-24.3096,-12.1066,-14.824,-6.3803,8.5979,9.534,10.8183,6.9341,-3.672,10.8195,
-6.2936,4.0524,-5.7897,2.0109,-20.4407,-6.0775,-11.042,-6.9616,-0.11268,2.2135,3.9027,4.1079,-3.9336,4.8677,
-7.8442,9.5941,-6.8884,2.3719,-14.3938,8.3871,3.7205,1.6508,-4.9264,-4.668,-2.1158,9.1643,-10.9286,10.3604,
-11.2301,12.3925,-3.583,7.5323,-26.0636,21.7425,2.8946,6.3725,-2.7026,-1.0139,-1.025,13.9166,-16.5394,17.4516,
-10.3151,12.8544,-1.1986,8.7673,-28.115,20.1972,-2.3405,3.8207,0.59279,2.1807,2.6522,10.4308,-9.5213,16.1633,
-2.4654,16.4213,0.80171,4.8671,-20.6433,31.0367,-4.1285,6.9662,-1.3707,2.0496,6.8316,8.3584,-3.6476,15.1937,
-4.2459,13.99,3.1635,0.71888,-33.3844,31.1024,-8.2193,7.5123,-10.4478,-0.96567,1.1188,4.9646,-12.588,12.3537,
-13.6319,8.812,2.0096,0.67551,-34.7556,21.0418,-1.4594,4.1693,-9.8207,2.9489,-1.8406,-0.63565,-14.7246,6.7919,
-14.9831,8.0425,-6.0645,2.3224,-19.4139,16.646,-9.8073,3.6779,-7.544,6.8695,3.3313,0.60756,-6.8514,6.1437,
-14.5665,9.4877,-11.0033,-0.70943,-17.2852,18.5393,-23.3189,4.9035,-11.912,2.6005,4.0957,9.7301,-11.2611,15.4156,
-14.6566,11.8108,-4.5587,1.2611,-22.0326,22.2475,-16.979,6.0553,-4.931,0.99846,1.9216,9.1461,-16.8521,21.7217,
-10.1616,10.3792,1.7408,3.3551,-28.6644,21.1536,-8.4885,4.4867,-2.4656,2.1438,-1.8091,2.5718,-12.2256,14.3929,
-3.7673,10.2384,1.6359,0.74317,-25.0164,22.2945,-21.9589,7.11,-11.959,-0.87731,-5.557,3.8637,-5.7075,10.6368,
-1.854,11.3113,0.81485,6.2422,-9.4154,19.752,-9.7951,11.2627,-11.0001,-6.3683,-2.0901,-1.4298,-0.78529,9.7576,
-4.3941,3.643,-0.92104,8.037,-10.417,9.649,4.8926,5.0436,1.4703,-5.745,10.3276,-12.19,3.8413,1.2186,
-3.8895,-3.565,-1.1067,0.56495,-21.6023,2.0802,-5.1624,-1.7665,5.9614,0.62526,19.5899,-9.2894,3.3699,-6.3268,
4.5388,0.98699,1.3696,-3.3251,-23.1985,1.9552,-11.6013,-0.2145,0.78319,9.2646,12.6302,-0.055213,-1.1708,-0.16233,
-1.7593,-0.75923,-7.6305,-8.6694,-31.6885,4.0073,-13.5566,0.5215,-8.1816,10.3962,-2.2277,1.1532,-6.6444,8.7652,
-15.6333,-4.0881,-12.4753,-6.703,-25.9308,9.5514,-17.5634,2.9003,-7.6907,7.8438,-11.3735,5.4228,-11.5484,14.9882,
-13.49,-4.0838,-3.7726,-5.0955,-12.5646,6.8092,-13.3761,2.9673,-5.0601,2.3119,-5.1475,2.9282,-10.1322,12.8841,
1.0577,-0.70552,4.4073,-2.1389,-12.5341,5.6775,-2.6919,3.9943,-6.444,1.4501,0.70474,-3.2732,-1.5707,12.3513,
0.51257,-1.6273,4.1431,4.7385,-20.9408,8.2291,0.36193,4.7187,-4.6109,4.2554,0.1803,-4.0409,-1.9582,15.4669,
-8.6774,-4.9041,5.3408,2.0436,-19.6844,3.397,0.82215,2.0255,1.4504,4.9644,1.1338,-0.90597,0.56944,14.5389,
-8.6387,-3.6455,4.056,-3.3812,-17.5392,0.30071,-0.19105,-0.50616,-1.0468,0.32772,2.994,0.11226,2.4635,11.2564,
-1.8539,0.91152,4.777,2.6063,-16.4869,10.406,-4.5179,4.3445,-0.98397,-4.9946,2.8143,-2.787,-4.4328,13.4735,
4.0419,2.3031,11.7207,7.2702,-8.749,10.7455,-2.3191,3.6019,3.8953,-5.6588,1.1992,-3.1017,-0.31089,12.6647,
0.42518,-1.6915,4.751,0.56743,-14.0089,0.94176,-1.698,-6.2557,-8.8719,-12.0682,-5.1397,-3.3975,4.5285,2.7458,
3.5332,3.9536,1.8148,1.7387,-14.8551,11.7315,5.8761,4.0021,-7.1343,-7.2463,1.1947,3.3142,2.0876,12.4634,
-0.77642,1.547,-0.94539,-0.053098,-14.6871,7.4124,-0.020281,6.8952,-0.19851,-4.6425,-1.0464,1.9099,-9.3661,17.7414,
-6.0325,6.7571,0.55736,4.7706,-8.0211,2.1472,-7.2497,4.5535,2.7057,-0.98977,-0.98338,4.6876,-3.9832,16.1947,
-4.9474,10.4488,6.5497,8.1,-11.6374,4.1873,3.0675,-0.29921,2.3022,-4.5456,-0.20125,-0.1732,-3.0215,9.1973,
7.642,6.2067,15.0746,8.3367,-13.5905,1.2847,12.7651,0.44187,4.3334,-7.888,-2.3586,-5.7062,-9.3477,3.584,
15.137,4.6287,13.4469,4.2213,-10.124,0.0025953,0.18886,2.1024,4.7965,-1.8714,-3.9045,-2.2306,-7.0996,0.23569,
9.1675,8.4488,8.0608,6.6191,-5.9009,6.5104,-10.1863,2.2172,5.714,-2.9644,1.8738,-2.3377,1.762,-10.6247,
3.3146,6.4959,7.095,10.0786,-2.1726,2.7451,0.54797,1.1201,6.8172,-12.9094,3.2074,-9.9104,2.1385,-24.0872,
3.8388,0.56227,9.3207,4.8943,-5.6574,-7.3013,13.2893,0.32972,7.1313,-12.3758,-0.11827,-11.9669,0.80511,-29.5112,
6.501,6.3136,10.6896,5.0831,-4.3537,-1.5606,4.2973,5.1306,3.329,-2.9562,4.7095,-4.9821,6.5414,-28.2224,
-0.39674,12.442,-0.31587,3.0906,-0.95942,5.0407,-8.7348,8.438,-1.9322,-0.12748,4.6677,-1.068,6.872,-32.5549,
-1.3373,12.1774,-2.2251,2.9052,-2.8303,2.8096,5.8893,12.752,0.59386,2.2898,1.9771,3.3344,5.0135,-36.8685,
-0.29293,6.1444,0.80069,-1.1253,-1.6961,-5.0715,17.4665,6.6849,-1.3697,1.1888,-4.4078,-3.132,1.8204,-42.369,
0.68875,13.4887,-1.1758,-0.57606,9.9748,6.3198,2.3185,9.658,2.0867,2.5635,-0.28722,-0.051765,10.388,-35.4883,
-2.2446,17.0177,-5.4435,3.7973,-3.6389,14.1358,-11.9206,15.8275,0.51521,-0.96475,2.1406,4.2897,14.1035,-35.2872,
2.2284,6.8376,-0.77862,2.6051,-17.5206,1.2361,2.8947,8.1289,-3.854,-11.0298,-0.39842,-7.5369,6.5084,-47.2699,
-0.79763,0.1606,-0.73167,-0.44348,-13.9389,-7.515,12.9646,-0.55377,0.23338,-20.4913,-1.8205,-16.2439,1.7793,-56.3648,
-11.3548,5.4538,-3.5801,6.8137,-11.6561,2.5771,-1.9133,6.7101,8.4143,-16.8515,1.6629,-2.2536,9.8675,-41.4135,
-15.2531,1.9931,-6.0164,7.1283,-16.9823,2.1815,-11.5599,7.9947,5.7403,-17.0455,1.8046,0.050735,13.3728,-38.6875,
-6.6251,1.8738,-4.6913,7.6647,-7.2865,-3.2522,3.2337,6.5509,4.4318,-14.5765,1.6961,-4.2909,12.0887,-39.2586,
-2.6122,2.4842,-4.6508,10.3383,-13.8389,-0.40554,5.0883,6.8812,5.8531,-3.3378,-2.985,-0.41799,9.1943,-29.9132,
-6.0709,-4.1725,-7.9874,7.5486,-27.1086,-4.4788,-9.317,-1.4856,6.707,3.8521,-10.2779,-1.116,3.5807,-26.9136,
0.80109,1.1393,-7.7489,9.747,-22.4693,-7.3433,4.3782,-1.6377,9.9202,6.2723,-3.1535,-2.2541,6.9815,-25.5395,
3.8861,3.7222,-8.9714,5.5465,-7.0212,-6.18,11.5871,-0.33436,0.4067,1.7984,-1.2773,-2.842,6.3214,-26.6587,
13.5351,8.0784,1.931,12.2034,7.5001,1.1809,7.2762,2.819,3.0336,3.3779,0.004828,-0.020176,11.4855,-19.0334,
12.2408,4.7014,3.2612,9.5432,10.1831,-6.1211,4.9117,-1.6887,1.4056,-7.4303,-3.3701,-12.0703,8.386,-15.9634,
10.5425,-0.8833,3.5474,4.6323,8.6083,-15.8767,18.717,-3.0332,-1.0889,-14.2151,-6.06,-17.1307,7.4009,-14.5234,
16.1764,-2.7585,6.2271,9.1746,2.307,-16.8523,20.8477,-4.2975,2.8328,-13.8441,-2.8043,-9.8361,14.1877,-14.6161,
14.9651,0.058336,4.1665,10.7935,16.2686,-13.6718,5.8583,-6.2086,6.76,-13.7366,4.836,-3.2204,18.3979,-8.6775,
8.7646,0.537,1.9881,8.6994,25.5361,-13.3336,6.4709,-6.3182,6.3546,-13.3945,1.6535,-3.5091,14.8841,-1.4082,
11.8541,-5.521,3.0738,6.9724,9.9039,-18.5592,15.0009,-7.6263,8.1427,-8.4933,-3.0252,-3.0576,17.1243,-3.4928,
10.9017,-3.9847,2.1663,2.9389,-4.7903,-19.615,7.5931,-9.8199,6.4486,2.3804,3.1821,3.1517,21.1583,-5.4526,
3.7399,7.1004,-0.61501,5.8958,9.5971,-13.8583,3.5219,-5.1335,1.0003,11.6376,6.1244,5.1315,17.2375,0.41813,
4.7208,3.0594,0.14525,4.3372,20.2292,-15.196,5.9621,-7.9586,3.1094,11.6622,-1.2329,1.2086,8.2495,0.15207,
10.7043,-6.7653,4.957,0.7023,4.9154,-19.1052,4.1579,-14.2302,5.8151,8.0702,-4.5332,0.17158,3.8979,-1.3033,
11.0261,-0.092651,5.1418,0.66039,11.4897,-14.5842,6.3188,-10.4836,-0.80005,8.5501,0.5593,4.4998,9.9308,6.9701,
9.4002,6.1794,0.012538,1.5846,24.9003,-8.8889,14.1344,-5.0343,-2.6807,6.1089,1.9715,3.7479,15.1195,13.3003,
9.5593,-2.1453,2.6631,4.6228,10.9933,-5.7042,21.2403,-7.8655,1.0958,4.0554,-5.1364,-1.0565,10.5972,11.7792,
3.2014,-6.8371,6.8419,3.3818,-3.7663,-10.6644,13.6996,-14.1423,1.9941,7.1863,-8.6844,-0.028998,5.1409,8.1801,
4.6961,-0.40131,6.6723,1.9731,-2.6967,-15.5684,2.0309,-10.1607,2.5974,6.0322,-0.20957,0.69564,4.591,8.4122,
8.5121,-2.064,6.031,1.1319,11.5651,-11.9829,-0.26012,-7.8639,1.2367,-0.35529,3.4184,-5.8536,2.1464,7.1846,
5.3499,-7.4842,4.9458,0.34104,10.7507,-6.6842,2.407,-10.0433,1.4035,5.2092,4.4182,-4.7795,9.4894,8.9227,
-4.3711,-5.8299,-2.8228,3.4536,-0.74062,-9.8988,0.093461,-10.6458,6.3805,11.8865,8.2509,-2.3233,13.9817,8.6283,
-3.6267,-2.5878,1.2032,6.6208,-9.855,-9.7868,-0.87647,-1.8121,18.0492,5.3887,9.684,-5.5584,6.3939,9.0749,
-4.3733,-8.217,3.0591,0.43913,-17.4585,-9.1995,3.0326,1.189,15.0382,-8.914,0.42599,-11.4915,-2.6663,5.638,
-6.0389,-3.3857,-0.49866,-0.55132,-2.311,-8.6475,9.1174,-2.7387,5.459,-5.0047,-1.528,-6.9454,-0.096396,7.2279,
-3.7486,4.0483,-0.46874,0.44563,11.2045,-6.6826,11.9444,-2.5746,3.6852,3.0081,-1.9182,-2.1903,-0.090611,6.7942,
0.81489,-1.0151,2.4517,-1.0271,-0.073029,-3.3894,4.9614,-1.938,5.874,-0.54659,-7.1056,-1.577,-6.3519,3.0121,
-1.8854,-7.4618,-0.34663,-4.581,1.6185,-5.8375,-0.39807,-7.8474,-0.021705,-2.2011,-7.4027,-2.6875,-3.3194,5.9648,
-3.9415,-2.9169,0.87923,-4.5469,7.0652,-9.5846,8.0617,-8.0997,-3.1537,6.3671,-5.2711,-7.1056,0.97738,6.8119,
-0.57173,1.3559,3.4776,-2.5869,-6.6153,-10.6967,2.0344,-3.0342,-3.6878,7.6723,-5.6782,-7.8845,-7.5174,-0.10425,
9.1038,3.6847,2.787,-2.9141,-2.844,-4.2701,-9.6568,-0.44175,-3.4665,12.0322,1.4114,6.6885,-7.5483,4.2403,
6.1476,0.089373,-2.2007,-6.5954,5.5218,-3.5317,-10.5234,-7.1639,-6.6328,8.4184,3.2552,10.9877,-0.34625,6.3963,
-0.97012,-0.88031,0.34191,-5.2353,6.1546,-7.1762,-0.25107,-6.7341,0.032176,-0.76378,2.5779,4.0614,-0.32548,3.6024,
-3.0813,0.3778,0.079967,-5.1626,1.2056,-9.3972,3.8613,-5.6071,1.717,-0.47721,2.1818,3.5768,-10.6703,1.699,
-0.2451,-1.814,-0.64773,-4.6119,-7.7848,-8.1102,-2.3959,-9.3681,-2.9653,6.5411,2.2919,5.5313,-11.7173,2.8019,
-1.6767,-5.0799,2.7654,-1.4429,-2.4972,-5.2135,-2.7343,-8.806,2.515,5.6669,5.0466,1.3429,-4.748,3.5979,
-3.9863,-3.3287,0.67136,4.4284,9.704,-2.9724,3.2145,-5.3854,6.7026,-0.45804,9.0823,-4.5222,-1.5705,2.418,
2.5196,-2.647,-0.81518,3.6807,3.8192,-2.794,10.2524,-5.0621,4.3722,-0.91249,10.9479,-2.3227,0.45197,3.7192,
-1.0061,-9.2368,4.5363,-0.39661,-0.74843,-15.6419,7.709,-15.8457,4.5917,-2.3039,5.9526,-2.6653,-0.53959,4.46,
-7.9354,-8.9235,8.8434,-0.61378,5.8042,-21.6931,3.1491,-21.4027,2.147,-8.1912,1.0157,-8.049,-7.0147,4.4334,
-9.6284,-7.1833,0.84142,-8.0488,-0.087445,-9.5452,0.30905,-15.0568,-2.5611,-11.3152,-2.1783,-8.7712,-12.1374,4.8907,
-8.8098,-0.72676,-1.8606,-4.4324,2.087,5.1275,-4.7712,-4.7534,2.6543,1.656,2.5317,3.0835,-7.3118,16.8894,
-13.1017,-1.647,-1.267,-2.2382,-0.44861,4.9403,-10.2695,-4.4685,-2.8076,5.4131,2.8618,2.4161,-9.7652,17.8042,
-7.4951,-1.0663,3.6297,-2.5863,-3.314,5.6078,-1.9405,3.0305,-4.0854,4.124,6.5464,-0.6209,-6.7691,14.3258,
-2.948,2.1312,1.7247,-4.6003,0.01811,5.9947,-1.5831,3.0896,-6.9738,-1.1847,3.0206,-3.7171,-5.6401,9.8508,
2.0493,7.7877,0.6571,-5.2884,2.4271,6.5991,-2.4523,-0.95236,-10.412,-2.5601,0.42903,-3.4943,-8.194,8.7776,
7.229,11.6592,4.4741,-0.15036,0.83572,7.1675,-1.8232,1.9978,-8.3405,-0.47785,2.8134,-1.838,-9.1481,9.2153,
5.1081,10.7187,6.8572,2.9921,7.2931,2.6396,-1.4728,-1.2556,-2.2965,-0.20821,5.7781,0.44148,-5.9482,10.3496,
0.94542,5.737,-0.30339,-0.56206,4.9273,-1.8569,-0.90229,-9.3752,-2.6409,-8.8728,6.3955,-4.4055,-6.0734,9.2465,
8.3605,6.5981,-2.9363,2.1232,-5.2503,4.762,0.35714,-5.6792,-3.2053,-10.0274,8.1809,-11.131,-6.4319,8.4507,
8.3408,3.7916,-1.3143,1.0315,0.84908,6.4045,-0.62862,-4.8567,-2.5315,-5.0877,6.7258,-16.248,-7.9742,5.5331,
9.2866,0.67205,2.139,-1.9225,3.6907,4.574,7.1219,-7.9396,-1.4153,-6.7104,7.7685,-11.8987,-6.0495,8.5756,
9.4526,-5.394,1.288,-5.9047,-10.6308,-2.2082,-0.29508,-13.9709,-8.802,-14.2615,3.6872,-9.9797,-5.4458,11.6767,
11.2955,1.6785,4.5852,0.7161,-7.2211,3.227,-7.9902,-6.8659,-2.4893,0.69417,7.8043,-0.70402,2.5942,19.6527,
2.9048,3.0238,-3.8849,3.0835,7.3121,3.5155,-0.28013,-6.4539,-0.41194,8.2446,7.3362,-1.6259,-4.3106,15.0993,
8.2743,1.6373,-2.4467,2.6577,3.6194,3.0634,13.8367,-7.272,0.3359,6.0629,7.1368,-2.7334,-10.0773,10.5782,
13.8034,-2.0763,5.6538,-3.5277,-5.0336,-3.6279,3.727,-12.3793,-5.7098,-3.2189,1.6474,-10.5234,-10.6779,3.9175,
12.2519,7.9302,10.8582,4.6381,2.2583,-5.5794,-9.2707,-8.0211,-1.2699,-4.713,5.6459,-13.5071,-3.0474,6.8159,
7.6606,8.4185,3.94,4.3596,-2.2156,-11.0294,-1.9657,-10.9141,-2.1578,-8.7686,4.825,-21.8557,-4.793,3.0327,
14.6728,1.4054,4.9089,-3.3738,-3.2879,-15.4293,8.5161,-16.7669,-9.0182,-18.6065,6.7046,-26.5702,-8.1208,-3.1748,
13.7924,-0.12471,5.5782,-3.6533,-1.6446,-14.9855,-1.1539,-14.3149,-6.0665,-27.1311,15.4614,-23.0475,-5.223,-1.5385,
5.2521,4.703,7.6541,3.7968,-4.9202,-13.6042,-3.4948,-9.5996,4.4204,-22.611,12.6055,-21.1828,-5.392,2.8926,
7.1061,5.1442,10.3283,3.328,2.3649,-16.8853,8.5255,-12.1567,-1.8704,-20.5312,-2.2508,-27.3834,-19.1685,-3.7884,
20.7798,13.2712,20.5544,4.3331,6.3202,-8.4006,5.3624,-6.366,-5.8555,-18.0942,-3.4413,-23.0893,-12.595,0.053832,
25.9202,18.2595,26.0701,8.4119,-8.1591,-0.66575,-9.0594,-0.19927,-0.68392,-11.7059,4.4779,-17.8475,1.1761,9.2096,
13.0368,13.0666,22.3363,7.6658,-3.9336,-1.3492,-7.1903,-2.8389,2.4906,-8.8347,3.4859,-21.3562,-2.0279,9.8619,
7.6751,0.95419,11.1144,-2.1939,5.7024,-15.3682,7.3412,-13.9967,-6.0947,-22.0429,-2.2666,-31.403,-11.3065,0.83473,
8.1787,-3.9231,5.1446,-3.5083,-4.2805,-19.8688,6.5395,-19.9054,-4.283,-28.4331,-0.20222,-34.3393,-10.1459,-2.1076,
0.4571,-4.652,3.8721,-6.1903,-10.7726,-15.7846,-4.4582,-20.6395,4.1691,-27.2093,1.2557,-35.6534,-16.768,-2.9455,
1.8759,0.92928,7.0138,-3.4088,1.443,-15.3197,-5.637,-16.0269,5.3648,-28.9512,3.1086,-36.4065,-20.1005,-3.7331,
13.3325,7.6224,11.8956,-1.2761,8.1053,-16.8106,-3.8525,-14.5831,2.6328,-30.1064,7.7428,-33.7402,-9.7352,-1.5809,
16.1482,7.8882,15.7614,-4.3328,-3.7092,-16.043,-4.3445,-17.3233,3.1979,-29.0229,8.0013,-28.5823,-8.9099,4.0578,
16.8661,12.4766,18.4311,4.8453,-8.0662,-12.4291,-7.2173,-10.2584,6.1395,-25.5943,11.1367,-24.6982,-11.9907,10.3218,
19.7105,15.1025,20.6997,5.5184,-3.7258,-13.6115,-2.9279,-7.7147,1.9148,-23.0946,11.4323,-26.1086,-11.2713,8.2567,
15.8766,10.0987,17.2883,-8.0688,-5.6717,-19.3028,6.648,-17.6159,-7.6003,-26.7706,9.5413,-31.5317,-14.6926,2.2174,
18.2987,13.8314,21.0715,-4.2105,0.93538,-11.8779,2.3925,-12.2204,-3.2877,-20.8258,21.5021,-21.927,-6.5804,9.7974,
22.9851,15.8938,25.592,2.3089,14.9793,-6.8266,-5.9459,-4.2563,5.1045,-18.13,25.0325,-18.2011,-2.329,8.7274,
23.0525,12.5298,20.2003,-3.614,25.5294,-14.6117,1.6419,-14.1241,-5.3249,-31.1422,9.4305,-31.209,-16.2892,-5.8963,
35.6486,20.4551,23.3266,0.94116,26.8897,-11.8068,15.6434,-12.3125,-5.9697,-38.7941,11.8777,-34.0365,-15.1914,-12.1704,
41.2225,23.5661,28.6759,8.1155,21.4199,-10.6163,17.9585,-6.2711,3.0655,-33.5742,22.2523,-26.2095,-2.2284,-18.6711,
30.7954,14.1984,23.34,-0.32514,25.1964,-22.2716,8.9273,-13.3667,-2.1801,-40.4776,13.4453,-32.5909,-5.2281,-31.6508,
25.8142,12.1412,20.7343,-2.9572,36.4591,-26.4791,3.8119,-13.77,-6.6285,-42.6287,9.9875,-39.5535,-6.1197,-43.8517,
31.4964,15.7513,25.2746,4.9332,28.9687,-24.4082,1.6552,-8.6052,-4.3029,-38.1427,20.4752,-36.6981,2.9243,-44.8361,
40.4529,16.0115,33.6405,4.8782,17.3486,-23.6669,10.9559,-7.8479,-4.7676,-39.4694,22.3802,-32.3271,7.8105,-47.2073,
37.5433,21.3173,31.6221,2.1749,23.0566,-25.1391,17.5294,-7.8592,-8.8203,-42.886,13.8066,-38.5824,0.59299,-52.0879,
33.6037,28.4742,29.0016,4.6958,19.0219,-19.5334,12.38,-6.1826,-2.2653,-39.5897,18.0396,-42.2932,-1.612,-50.1677,
37.1311,27.971,30.8769,-0.16527,15.229,-15.2282,5.1293,-9.909,0.52215,-41.3117,27.3211,-41.4426,4.5107,-46.4345,
30.3235,22.1954,21.5525,-9.0734,18.895,-24.6783,0.72463,-19.6783,-13.6092,-52.933,16.7642,-50.7662,1.1066,-56.9048,
29.2272,27.8529,17.608,-4.4314,17.0382,-27.2952,4.2963,-19.221,-16.529,-55.4213,12.1427,-51.8178,1.7633,-56.1421,
36.6324,35.8229,24.2641,7.8853,7.821,-20.3551,6.4485,-11.3191,-1.4373,-45.8293,23.9474,-42.4422,9.8525,-42.6504,
40.9424,34.8788,31.2444,14.4021,4.7006,-13.59,20.1616,-5.0961,3.5902,-43.3205,32.8749,-37.7263,9.0204,-35.0297,
42.8244,32.7859,33.7083,13.5382,11.1672,-6.508,26.3032,-3.8262,2.4107,-35.9008,34.7586,-34.9808,4.1406,-34.8561,
38.3267,27.4447,26.3831,9.3519,9.051,-9.9737,10.625,-9.3812,3.7123,-33.2646,32.1916,-35.2918,2.9283,-32.7645,
29.0375,19.2903,14.918,2.2826,9.713,-18.2934,5.5287,-17.2542,-4.9464,-43.561,35.3215,-41.6102,4.4396,-27.1835,
28.7413,15.2406,15.4689,3.1098,7.6842,-17.6779,19.297,-19.5934,-7.5419,-50.1064,39.4685,-41.042,5.6192,-22.6602,
41.1168,23.244,28.6408,12.3234,1.1973,-11.5556,23.0801,-13.3562,1.3466,-45.8947,38.7879,-33.5178,9.8616,-17.203,
38.7703,23.7776,34.7561,6.7633,2.5717,-16.1646,14.9469,-16.4112,-1.1444,-54.2283,31.6399,-42.594,9.2699,-17.6171,
35.7207,19.6994,24.7165,0.33194,7.9611,-17.8463,14.291,-20.9703,-10.4757,-61.3389,27.0904,-53.295,3.1701,-17.7653,
42.2545,23.3381,31.4282,-0.17037,9.8935,-12.9192,6.6847,-18.748,-13.704,-57.1766,25.4645,-49.6153,0.56977,-14.2893,
42.1294,22.9017,40.1478,-6.4267,12.6744,-15.5185,3.3911,-23.8899,-15.7738,-57.1205,19.5983,-47.1203,-2.8389,-17.2883,
43.6994,23.2148,40.8724,-4.8358,16.0113,-17.2384,12.1057,-26.0717,-12.6582,-51.0417,23.966,-45.9801,-6.7659,-18.9021,
50.7187,31.9455,43.2406,2.2031,13.6045,-14.2757,16.2003,-18.2406,-8.0421,-40.2662,32.6517,-37.4367,-4.9139,-10.055,
51.7722,41.3563,47.6358,5.6861,8.2088,-12.6965,17.3972,-12.5669,-11.6574,-40.9839,32.8615,-33.0216,-0.039555,-4.8726,
52.0408,40.3216,46.7058,1.0066,10.1264,-12.8988,23.5842,-10.8488,-13.3681,-42.8632,39.0845,-33.4504,-2.4473,-8.9186,
51.3285,34.5279,43.4215,-4.8384,16.7496,-14.0528,22.6511,-12.608,-8.2275,-34.5066,45.8985,-28.0687,-9.5313,-8.8654,
54.0334,42.0972,52.3854,3.1647,13.3345,-9.8354,15.0255,-11.3696,-1.9492,-24.7234,44.1089,-21.5643,-7.9956,1.7896,
64.8914,50.8993,63.3423,15.749,2.6523,0.63661,27.3801,-3.2156,6.6036,-19.6248,49.4159,-14.7269,3.8126,15.7823,
66.18,41.8198,56.5287,5.8865,5.6266,-4.9452,33.6911,-8.0841,-0.78246,-27.8474,48.6201,-22.2792,0.45035,13.2686,
51.363,34.7313,39.037,-8.5667,19.389,-15.4943,17.5696,-15.5528,-14.8355,-33.1659,34.3751,-31.7884,-11.3868,5.965,
47.3169,38.914,43.8054,-8.6554,28.9512,-16.0109,14.467,-12.6917,-15.03,-29.7302,30.8664,-29.8814,-12.6318,8.9811,
58.4577,42.3638,55.2771,5.3614,13.2345,-13.6041,27.6989,-9.0375,-7.3791,-24.0896,42.0299,-20.3754,-8.9815,14.2271,
60.0118,39.5809,58.3477,-2.9141,15.0919,-19.2957,22.3009,-13.5571,-11.516,-21.4393,39.2666,-19.3942,-13.9863,14.5785,
52.3135,38.893,52.1955,-13.1034,10.5707,-24.1635,11.5631,-12.5027,-13.4764,-21.8402,28.4747,-22.81,-19.6548,18.2833,
50.38,35.3546,56.0536,-5.3273,1.0189,-18.6163,22.6794,-8.619,-7.1242,-22.6989,31.8279,-16.8617,-18.7165,25.14,
49.2854,26.9668,54.6186,-6.4539,2.8859,-18.9454,22.7649,-15.3327,-11.9992,-21.337,33.2927,-14.8859,-25.7885,21.7034,
45.8459,21.9744,46.5208,-15.2257,5.6048,-25.5216,9.8298,-21.6436,-21.8845,-19.5748,25.9925,-17.3672,-37.7385,17.9911,
41.1672,23.0663,42.7654,-19.6146,1.8943,-28.3287,8.7579,-18.8987,-17.6791,-22.7387,21.0587,-17.2892,-39.3306,22.214,
37.2509,24.5744,44.5383,-17.9558,2.2626,-27.593,7.2685,-16.3186,-19.0285,-23.7845,18.3489,-19.1442,-39.863,20.3993,
40.8006,26.9565,45.2402,-17.8425,12.25,-22.0808,9.2428,-13.8932,-24.1533,-15.1266,23.9971,-16.0671,-36.025,20.1394,
46.0651,26.3028,47.8282,-19.6643,5.2482,-15.4538,22.6673,-10.6497,-15.9557,-12.2912,30.7518,-13.6573,-26.151,21.8233,
43.5422,25.448,54.3585,-15.8333,-2.5385,-18.6239,21.5482,-10.2517,-11.8651,-18.5432,26.7375,-15.4889,-23.8588,17.8628,
39.7248,26.0902,51.8199,-18.0163,11.7138,-20.6398,9.4095,-9.3954,-19.1069,-17.1896,25.8561,-6.1237,-26.0427,19.9241,
43.8488,25.7301,43.1671,-23.9252,21.9775,-14.8221,13.4242,-7.6268,-20.1299,-8.2045,28.4021,5.5717,-25.2032,25.7185,
46.7617,30.694,47.5672,-22.7309,18.008,-11.7634,20.5727,-9.3381,-19.1628,-6.9891,26.4573,1.6222,-20.0754,24.4166,
46.8481,33.6726,58.8131,-21.849,24.1579,-9.6115,17.4102,-7.814,-20.4236,-11.8724,27.28,-0.88549,-18.3892,23.4335,
43.0731,27.7961,53.7176,-21.9841,11.6214,-10.4809,13.9552,-4.9348,-20.6443,-9.2319,26.1253,3.9881,-26.4446,23.4736,
43.3812,29.5028,52.4228,-17.773,-3.1758,-6.9595,20.3487,0.66394,-10.2463,5.3018,26.9679,8.5695,-20.5194,28.8141,
38.368,26.2861,53.1335,-23.4553,-1.9005,-9.9166,13.343,-5.1605,-14.4523,-0.31896,21.0113,1.7886,-12.5395,24.6749,
43.2963,28.0834,54.7662,-20.6017,12.3135,-7.8754,13.5068,-5.333,-19.8519,-6.5668,19.2687,2.1632,-14.6797,21.2662,
47.2067,28.0859,53.1677,-20.5707,22.3005,-6.6795,25.953,-4.7718,-13.5991,2.7455,18.3538,6.6132,-18.378,21.1953,
40.2767,21.3388,52.6285,-25.3622,6.8625,-7.4842,26.0828,-18.2243,-13.5065,3.7856,15.5651,5.493,-12.2141,25.9493,
37.137,21.7455,61.2812,-15.8865,-6.4444,-3.9019,18.0101,-29.4231,-9.0807,-1.503,17.7644,7.3326,-14.1326,32.8283,
30.8114,20.6822,53.5069,-16.6205,-4.3705,-8.7293,13.3141,-38.9859,-10.2231,-5.0282,11.6369,1.8312,-26.541,27.2432,
25.1063,17.0311,36.1965,-28.6387,9.8714,-9.1694,13.9615,-42.4311,-23.589,-1.834,4.6726,0.75748,-19.6459,27.5368,
24.0819,17.4551,35.5913,-31.2587,12.6531,-1.3886,7.3392,-36.9932,-29.4045,7.4348,10.1764,11.3171,-8.344,37.9356,
25.7705,20.9875,46.7126,-23.3576,5.8684,-0.58192,2.3196,-28.2657,-20.6501,9.6403,17.52,14.2535,-11.9407,40.7212,
22.778,15.8719,41.0173,-27.2588,10.8189,-9.2241,9.8927,-29.4623,-23.2677,-0.57931,9.238,4.7212,-16.5269,32.4933,
24.7855,18.7757,40.0023,-27.0693,11.6158,-8.1887,12.6738,-29.1405,-26.6921,-0.54455,4.3451,3.956,-12.1611,31.5078,
33.6627,24.1566,51.7022,-16.0452,1.5189,-0.22559,14.5645,-19.4384,-14.7267,4.5496,8.6637,6.8519,-11.1904,35.161,
34.2942,20.0563,58.1204,-17.2517,3.597,-1.8992,22.6088,-18.9949,-7.3351,-0.30281,12.7238,1.8614,-9.3136,32.3281,
25.0056,16.4427,44.0283,-23.4474,10.6119,-9.4981,16.4315,-27.0143,-13.1618,-0.28452,10.9963,0.30353,-10.2009,27.4962,
24.7104,20.5177,46.4481,-17.4611,5.3958,-9.1693,10.8662,-22.7422,-10.685,10.5785,11.5413,4.8647,-10.3121,27.0516,
32.628,22.4199,55.9535,-11.8339,0.49255,-6.4498,24.3142,-16.316,-1.1258,15.4876,14.9464,8.6704,-3.1857,27.5979,
27.7782,16.7362,50.1861,-11.1238,0.46288,-12.3294,26.8326,-19.6755,-0.094086,14.5582,12.6037,10.5604,-3.9585,26.4239,
18.1575,16.4552,44.5236,-8.7694,-1.2519,-15.6872,15.3404,-18.254,3.0448,21.6385,10.6419,13.542,-7.8186,29.4179,
17.5501,20.7702,47.6364,-8.7252,-0.69472,-12.8179,11.0452,-12.8206,4.308,20.3401,6.1472,11.7653,-7.8315,27.1706,
24.4506,23.6215,51.7683,-16.6376,7.7829,-9.3975,4.8391,-12.2923,-6.7965,9.7196,0.71688,12.2646,-10.013,22.889,
23.7069,22.9276,47.4574,-21.6649,13.3414,-7.6284,5.2721,-12.7596,-9.0398,5.5213,-1.4953,14.1801,-13.0274,31.88,
12.8845,25.1669,39.0659,-18.1959,10.3718,-8.8579,13.8734,-7.4147,-3.9181,6.877,-2.6109,10.1958,-11.5228,41.7773,
14.7624,30.1647,39.8553,-16.863,9.5084,-12.906,16.6563,3.3941,-5.3701,9.1158,-2.6953,12.2355,-11.0725,41.4402,
21.3486,21.3651,40.5976,-20.4307,13.5173,-26.2317,13.006,1.5036,-12.5196,4.9536,-6.1489,9.8142,-21.7363,36.7843,
16.6935,15.2627,42.5003,-16.3125,9.814,-38.7578,11.2615,-5.3353,-0.68121,11.405,-0.47708,7.2972,-18.5037,36.5057,
18.584,23.5061,52.4834,-8.1033,1.5125,-32.5759,14.4419,3.6616,13.4597,24.8207,13.6515,16.0181,-3.8964,37.2075,
21.8078,20.6495,48.3701,-9.0631,-0.024533,-29.1751,19.8423,5.8522,22.1725,23.2109,26.9325,14.0931,-12.8215,30.1548,
15.1968,16.0362,39.6834,-13.3397,6.2436,-26.9423,21.5444,1.6448,14.5755,18.4441,18.8088,11.8016,-26.1522,31.2377,
4.644,21.8229,37.3024,-14.4675,9.7253,-11.3463,6.272,6.8486,9.8446,26.4963,5.1468,18.8061,-36.0316,36.5943,
3.1599,22.2006,34.3412,-15.769,9.8651,-4.1581,0.83389,11.9812,8.5306,22.7372,3.1506,21.7749,-38.4493,38.4958,
9.9603,15.3251,38.3064,-10.7251,0.83714,-6.5596,11.1483,12.4675,16.4548,15.8295,3.6851,23.602,-36.8654,44.1399,
10.3267,15.3696,43.2385,-5.2612,0.78703,-9.0584,15.2998,13.1656,15.4674,16.3259,-2.321,25.0781,-34.1714,43.9018,
-4.0313,7.4574,26.5442,-19.0456,14.8398,-20.3252,9.8024,4.9039,0.43937,1.2463,-9.1712,10.7991,-38.1468,30.9037,
-11.5026,2.1894,14.708,-30.5566,15.034,-21.9981,5.3575,3.6455,-0.67157,-6.6619,-8.6213,2.4382,-40.1964,29.0496,
-5.2688,10.0122,27.5643,-15.949,0.87557,-16.5808,1.903,11.3805,12.6251,5.5481,-4.0067,10.2459,-35.6155,36.7066,
-4.4703,13.2679,32.1769,-16.4381,1.305,-15.1038,-0.62128,12.6261,11.3857,3.7692,-4.2482,12.0415,-31.5504,34.9862,
-4.6842,16.3279,25.9078,-18.8262,3.637,-2.1463,4.7184,16.6888,8.2922,1.1327,-6.4037,10.3547,-28.6932,39.1537,
1.6221,24.7485,28.9328,-10.707,-5.0171,12.0825,7.5686,27.4976,16.2305,10.9467,-3.8501,14.7949,-28.1769,50.9045,
-1.3676,21.8174,27.1969,-12.4748,-8.0904,9.0676,-5.4189,25.8478,18.6311,1.6129,-2.6551,11.015,-28.4144,48.9347,
-5.3828,14.0006,18.5754,-20.1621,-1.0974,3.4622,-11.6016,21.1638,11.0056,-11.7402,-5.6291,4.8106,-25.9863,39.9732,
2.171,15.0887,23.2454,-20.8804,-2.9597,13.8597,3.1945,30.0171,12.2735,1.9799,-4.3271,12.7169,-21.5348,44.8056,
4.9329,14.6655,27.1535,-19.1457,-13.8693,14.9562,12.0413,33.0365,22.6242,15.9611,-0.21094,20.1487,-19.7607,44.5275,
-9.463,2.2164,14.919,-23.7816,-13.0371,3.9357,-2.7812,21.8955,21.2667,9.5802,-3.0908,11.227,-19.5391,27.7559,
-18.4156,-4.6652,12.0955,-28.1394,-5.0242,4.1816,-6.8321,20.0997,12.76,4.6669,-7.7257,6.215,-21.7411,15.1234,
-3.8131,2.3634,21.011,-27.4149,-1.8304,18.0307,7.6779,28.5347,9.1021,11.6178,-2.9236,16.4471,-20.4367,15.1806,
-2.1381,4.6317,15.8939,-33.0008,-0.27433,29.3617,-1.0985,30.679,7.1097,8.9923,-1.3024,21.7268,-13.908,9.931,
-13.0971,-3.3591,11.0838,-33.431,-5.5606,22.7796,-9.2274,29.8025,11.9859,-5.6473,-7.4909,16.5669,-10.6631,-4.7649,
-13.0343,-6.2907,13.0702,-31.6662,-9.8064,16.3513,-1.684,28.2552,15.8461,-11.2135,-7.7645,13.8856,-11.7106,-14.7224,
-4.7806,-1.334,6.2603,-34.3459,-6.0846,18.0214,10.2275,25.8368,11.762,-1.1408,-1.7551,13.7757,-8.3568,-15.0444,
-4.7348,5.2538,3.7154,-27.7055,-5.9606,28.7503,14.1935,28.866,11.2974,8.8099,0.51972,17.0466,-2.7938,-10.526,
-14.3324,2.2873,3.2513,-26.7663,-10.6645,34.9793,2.0135,24.0008,15.681,13.3428,-6.5011,20.1212,-5.2773,-15.4383,
-19.0163,0.94497,-2.4871,-28.2936,-10.7477,31.1933,-2.6868,11.2326,15.4632,15.6755,-10.2086,17.7088,-10.5043,-24.3942,
-7.9929,9.8063,3.6876,-20.5702,-13.7183,32.4552,8.3206,8.8716,18.1509,13.048,-4.0525,14.9593,-8.1868,-23.1715,
-3.6574,5.3616,3.9483,-19.3362,-15.3053,34.364,8.3033,10.7494,19.4719,6.4803,-7.6657,5.8666,-7.6958,-25.6376,
-17.538,-7.0111,-10.3886,-22.5142,-9.5666,27.4818,-6.2949,8.6583,13.4833,0.30699,-18.2929,-2.68,-13.0185,-37.1146,
-26.2469,-12.6161,-18.5626,-24.2968,-13.572,23.6636,-20.0172,7.4158,17.2537,-1.3985,-14.062,4.9525,-10.5501,-34.1645,
-17.4417,-15.234,-12.1462,-23.8033,-16.6141,28.5106,-4.8364,7.4528,20.0748,-3.2431,-7.916,14.7782,-3.6506,-22.4737,
-17.1182,-18.4175,-16.4792,-17.7957,-8.6275,33.7895,2.4431,10.1388,11.8806,-6.6638,-12.9844,10.2762,-5.6008,-18.4743,
-22.1168,-18.0354,-21.5157,-15.0406,-6.4227,35.8596,-2.7648,17.0024,9.4806,-7.9511,-17.2671,6.0441,-12.7367,-17.1245,
-22.7177,-14.5428,-16.8504,-13.6561,-8.4476,39.9749,-2.1167,17.9105,11.322,-7.4739,-14.3025,11.9483,-12.9365,-14.6509,
-26.1752,-17.5265,-18.7318,-13.801,-9.3869,33.2377,-2.472,8.1589,12.0889,-8.4718,-11.9985,16.0518,-6.8577,-16.1823,
-30.6307,-22.019,-24.1158,-16.5883,-14.3673,18.9511,-10.7598,3.0899,16.9071,-9.6507,-12.0019,14.8477,-8.1335,-13.5241,
-23.0077,-17.3229,-19.7762,-14.1466,-19.7719,27.9373,-9.1497,13.9918,22.1593,-7.1434,-11.2812,19.7416,-5.235,-7.4099,
-14.8789,-8.0889,-16.6616,-7.5134,-18.1035,40.3611,-4.2626,23.7573,20.3477,-4.7867,-9.1587,30.6083,4.238,-2.1447,
-22.6628,-6.1573,-20.4826,-4.1703,-16.5354,42.6393,-7.8632,22.814,18.6449,-0.64289,-6.6809,40.8231,3.0196,3.7685,
-28.534,-11.5726,-19.2538,-11.633,-18.9176,36.2244,-3.0527,23.8552,20.9006,5.6621,-4.3516,48.4967,-5.3566,7.3987,
-29.4732,-17.3858,-17.8572,-18.4064,-25.2542,48.151,-6.4851,27.4856,15.5491,6.5278,-6.2597,50.6485,-7.6864,8.6419,
-34.6949,-19.9583,-26.186,-19.4717,-18.6775,53.8184,-19.8345,24.6312,6.1802,6.3768,-11.9099,44.9583,-6.5023,10.7747,
-33.818,-16.1092,-24.3734,-16.6159,-7.6749,45.5276,-15.9929,21.9483,10.8711,14.9123,-11.9182,40.0916,-5.3888,11.3335,
-27.4506,-13.6969,-16.1626,-11.7626,-15.8911,37.9757,-8.7668,20.1494,15.0391,14.0178,-12.6494,34.3119,-4.5836,4.8689,
-21.465,-17.6956,-17.6032,-11.539,-23.1328,38.5895,-4.8666,19.9043,11.2444,4.0175,-16.229,29.3607,-2.8625,4.0942,
-21.1415,-20.0083,-18.9571,-14.2211,-20.7807,42.5406,-6.9847,21.6024,4.3033,-2.0082,-21.5218,25.6708,-5.1011,3.3666,
-14.8113,-14.71,-12.2761,-11.6806,-16.8823,43.6036,-15.0013,21.5115,0.42965,-6.467,-19.9895,21.4792,-7.9281,-1.8966,
-9.3429,-9.2481,-12.7448,-10.2566,-9.8438,40.2645,-11.4501,16.1233,1.1268,-9.6946,-17.5853,20.4315,-4.8013,-2.0238,
-12.3979,-9.4163,-19.9341,-10.3644,-8.0481,39.0537,3.3369,10.5763,-1.5922,-8.3898,-24.4837,23.3029,-4.7542,0.26655,
-14.7872,-11.5026,-19.4606,-14.3219,-9.2524,38.3976,3.9804,9.2187,-8.4862,-8.6094,-31.4504,23.5921,-10.9765,1.9377,
-11.0076,-12.2588,-16.8468,-18.2832,-5.3227,32.7191,-9.7559,5.7734,-13.7617,-8.0927,-31.4917,21.2126,-9.354,3.2676,
-9.8653,-11.5229,-16.3181,-11.8837,-5.4856,31.2383,-13.0271,3.4987,-11.0077,-2.3046,-28.1561,20.4219,-5.4184,4.5176,
-14.8172,-10.5908,-15.5802,-8.0374,-14.5567,33.9435,-4.7739,6.904,-1.4294,0.96666,-29.6004,17.9913,-8.7087,1.1133,
-15.6148,-12.6063,-17.2968,-12.6165,-21.6369,31.1836,-0.3895,5.2848,-0.62037,-4.6346,-34.3318,10.4042,-15.6579,-6.9071,
-13.473,-11.6089,-18.428,-15.4748,-15.2771,32.9282,-4.4638,4.2447,-4.1987,-7.9721,-35.4052,11.4673,-17.8518,-1.9133,
-26.6443,-20.0713,-29.8557,-20.331,-10.504,31.9164,-18.296,0.61568,-12.1416,-11.8322,-40.5116,8.369,-20.6369,-1.3164,
-27.4557,-18.867,-28.5463,-9.47,-17.5865,33.8578,-22.3801,7.3276,-8.0386,-2.4451,-38.0809,7.8669,-14.0961,-2.6837,
-25.3263,-19.1816,-26.8339,-14.2045,-30.6313,29.8983,-11.3966,11.2262,-5.6282,-3.2626,-37.7242,11.7331,-12.2863,-2.5226,
-31.2784,-22.6098,-30.2854,-22.7524,-25.0578,30.2737,-13.3638,11.2756,-7.4598,-9.5747,-40.0404,20.9111,-12.7543,-1.1663,
-40.007,-22.2176,-31.8427,-16.5667,-12.4671,30.3854,-22.2034,11.081,-8.9404,-7.072,-41.4943,22.5488,-10.0609,-2.5425,
-36.6426,-22.8126,-31.3779,-14.1264,-12.683,27.5981,-15.5684,14.7548,-7.4398,-2.3091,-38.0407,17.3396,-10.9034,-2.3899,
-38.059,-29.8795,-41.7877,-26.5352,-13.1271,30.0396,-11.5009,14.5927,-16.3934,-8.6782,-45.1582,10.2736,-19.167,-5.8614,
-45.4168,-36.2818,-50.8495,-33.62,-10.4114,34.5043,-19.9697,11.3069,-24.0866,-9.1215,-56.5487,7.247,-23.8014,-9.8484,
-43.4146,-33.3819,-43.7011,-25.095,-11.9558,31.7108,-19.9767,16.6541,-18.062,-0.62036,-55.2045,11.8737,-20.2043,-5.16,
-46.5943,-40.538,-48.7918,-27.4459,-25.3384,23.0592,-23.1164,16.1368,-18.9064,-5.4039,-52.3742,9.715,-25.2588,-8.2249,
-44.2809,-44.8545,-49.721,-28.6916,-31.4108,26.978,-27.5144,18.061,-17.7724,-0.74142,-52.1241,13.4703,-25.6716,-12.552,
-37.0444,-39.0299,-37.3374,-19.016,-18.6797,26.5649,-25.6222,19.1466,-12.6083,6.2931,-51.1659,15.7957,-19.0695,-12.0395,
-37.2323,-38.1343,-34.6152,-17.3931,-12.7385,20.6323,-21.1928,15.1053,-12.8159,1.095,-45.2035,12.4376,-14.0692,-11.7995,
-43.6754,-42.5951,-40.7333,-16.8316,-15.8307,22.7689,-19.4392,13.235,-9.1548,1.0292,-41.5273,10.7272,-13.7071,-8.6813,
-39.6085,-40.0392,-37.3254,-11.9654,-16.327,27.6694,-15.3807,12.4408,-0.4107,8.6803,-39.0355,11.5297,-6.618,-3.3401,
-28.0731,-33.2982,-26.8908,-15.1037,-17.2754,23.599,-13.9755,11.2125,0.096218,8.6415,-36.2116,11.8021,3.9023,-0.24726,
-24.7014,-31.0594,-28.4108,-12.9925,-12.6237,22.424,-15.7886,13.1909,-3.043,10.2922,-36.69,10.853,-0.42941,1.4548,
-27.3169,-30.8828,-37.0698,-10.0435,-1.502,29.5145,-17.0102,13.1225,-1.6552,17.1467,-35.2117,10.443,-11.7316,0.16245,
-24.2318,-27.1018,-32.9176,-10.8871,-7.1965,29.1898,-15.9897,12.3353,-3.002,15.1537,-33.0991,9.3342,-7.6534,1.5988,
-18.6801,-21.8602,-23.9526,-6.6184,-7.9698,25.2692,-6.5942,15.2106,-5.9554,16.4139,-34.7286,12.3895,1.2417,7.0465,
-17.8002,-19.3433,-26.6128,-2.124,5.2828,30.7429,6.5759,16.4671,-2.9467,26.7572,-34.814,16.7078,-0.037834,8.7929,
-15.5273,-15.5315,-32.0063,1.1369,7.1349,33.4778,-0.80838,17.1662,0.36345,27.803,-34.4123,11.6079,-7.0253,6.5782,
-10.9801,-10.9841,-27.9166,4.6842,-2.2111,23.0331,-7.2677,21.1978,2.0288,25.4118,-37.4091,5.3679,-2.0244,9.7991,
-11.7675,-7.9154,-21.4209,7.7771,-8.8274,19.241,4.7375,21.8541,8.1735,28.7074,-37.0928,6.9738,6.7739,14.9957,
-15.159,-7.6811,-22.3049,6.5875,-7.0923,27.0045,1.8021,18.8558,7.9244,28.1901,-33.1801,12.5811,-1.1042,14.8187,
-13.5264,-6.0153,-22.1718,7.8796,7.4332,33.82,-9.6346,21.3397,6.2438,29.1501,-34.8046,21.2263,-5.6176,20.4377,
-11.9919,-7.8235,-21.5644,12.4682,19.3999,29.1397,-5.923,22.7107,7.5562,22.3394,-41.1522,19.2296,1.2272,18.488,
-12.7186,-11.2104,-19.3066,9.7918,4.1359,26.4271,1.6633,22.7942,14.8157,19.5529,-37.7191,15.6656,3.0819,17.3789,
-18.4634,-11.743,-24.1742,1.2504,0.87484,28.4564,-4.9444,20.2215,14.6496,30.672,-30.8764,23.1613,0.72757,24.7718,
-21.6934,-13.4486,-34.2924,-0.27046,14.9224,26.2676,-4.6478,17.5619,2.2017,35.5806,-33.3622,28.5205,5.0225,26.178,
-23.5254,-21.5599,-37.2967,-1.4596,13.6654,21.076,-5.0919,19.1596,0.86445,33.6866,-34.4938,24.1579,3.5159,20.5099,
-34.1651,-27.4968,-36.5048,-2.818,-1.2545,17.8831,-18.8864,15.5996,12.3819,35.5219,-23.7472,23.6726,-5.3718,17.8334,
-41.9971,-25.606,-42.2687,-1.4438,-3.2278,13.6766,-16.9097,8.6381,14.29,34.1138,-22.5636,28.278,-10.5931,14.5938,
-38.5134,-24.5516,-45.9991,-1.8391,11.0659,12.856,-1.7951,6.1916,6.684,30.1387,-28.9225,28.9915,-18.6346,9.3798,
-41.5051,-27.8994,-43.2394,-3.1753,14.1376,15.4589,-7.5925,10.1584,4.3547,29.7764,-25.259,23.8778,-31.6165,12.6732,
-43.1122,-29.8405,-36.0654,0.14861,-0.81064,15.7365,-19.4291,13.6466,10.1191,34.0155,-18.1999,18.3474,-37.0707,19.3849,
-34.4998,-29.2553,-32.6965,6.1654,-14.1389,7.3207,-5.4893,10.1764,14.5735,38.4822,-17.831,13.6313,-34.1235,13.1603,
-35.5634,-31.1155,-37.7242,4.1083,-12.5673,-4.4464,-5.8829,0.64784,16.3503,32.076,-16.0379,10.1622,-40.994,0.56042,
-38.0087,-29.9712,-39.076,-0.71746,-13.0183,2.3281,-17.8222,-0.5961,15.1283,31.3565,-14.8346,11.2397,-46.9701,1.2499,
-30.6671,-25.04,-37.4549,2.4587,-18.2631,16.2884,-15.0658,7.8755,8.1947,38.875,-28.0445,19.4832,-46.8035,7.2004,
-30.0316,-28.1167,-43.643,-2.2681,-31.2673,11.816,-14.8845,6.1979,-1.2145,29.5529,-40.4619,19.5193,-53.3948,-0.22131,
-28.7124,-20.1634,-41.989,-3.0963,-25.1732,11.1068,-17.3661,6.7901,-1.1419,22.477,-51.7728,17.3841,-49.7095,0.27413,
-27.4713,-12.6869,-43.8078,-1.9465,-9.5628,15.7433,-21.6266,11.2032,-5.8939,25.467,-45.292,11.5205,-37.0857,1.7037,
-24.377,-12.8897,-45.0359,-2.3118,-1.8789,17.2086,-18.401,13.4233,-8.4325,22.9746,-45.4668,7.937,-33.8967,0.155,
-20.2631,-12.3571,-37.7542,3.8529,-8.2737,18.8279,-10.7888,13.8229,-4.3109,14.1246,-47.8002,6.2557,-36.9241,2.3156,
-23.8678,-12.5802,-33.0786,4.1037,-3.4389,19.1442,-11.5879,15.4039,0.76798,14.2412,-42.5221,3.47,-26.0318,3.6227,
-33.2819,-15.9227,-39.5299,0.2419,-5.8838,10.5234,-20.2926,20.0234,2.409,21.3406,-35.8733,3.0207,-16.5163,0.75385,
-37.5518,-17.3778,-43.9069,0.22727,-15.654,0.25116,-20.5212,15.9296,-4.4843,26.3265,-39.9875,4.2856,-26.1305,-3.1481,
-39.3963,-18.9864,-42.9595,-3.8837,-12.5454,0.47729,-15.6747,6.5379,-8.7945,28.8445,-40.7215,8.608,-28.1778,-6.0925,
-40.4065,-26.0419,-42.3101,-5.0967,-9.3825,2.3768,-18.5906,4.2175,-5.8567,26.1498,-32.4936,10.0197,-17.8103,-9.5833,
-43.7669,-35.5664,-46.0383,-7.2011,-19.9066,-1.14,-19.8851,6.3748,-4.541,19.7603,-34.4004,7.0082,-17.2236,-15.757,
-46.6845,-39.4584,-46.8914,-5.082,-29.5585,-7.0976,-10.7382,8.6434,-1.6175,21.7079,-42.2186,9.2392,-21.2519,-20.3552,
-46.2936,-40.9473,-46.4885,-3.813,-28.2671,-9.5643,-13.9508,5.7142,-0.074382,26.672,-41.1317,11.095,-20.9408,-24.9185,
-43.9981,-38.0083,-45.1448,-3.584,-16.4477,-0.79501,-21.3082,7.2998,-0.55162,27.4822,-28.5404,16.2141,-8.115,-21.4949,
-44.4915,-29.2201,-42.6773,3.1388,-3.6505,11.0631,-16.8964,17.2263,2.6147,32.341,-17.428,25.6054,6.4719,-10.805,
-52.1861,-33.0105,-49.0347,0.2989,-2.2266,7.2658,-15.6417,17.3976,8.9656,37.8721,-18.0696,25.2739,3.5527,-15.2184,
-56.7679,-42.1171,-49.4671,-2.6113,-3.5393,3.4554,-20.4878,10.0868,14.2122,39.9381,-16.5035,16.5266,0.92922,-28.4053,
-53.6026,-39.8311,-42.8836,2.607,-6.46,3.489,-18.5356,10.2049,12.6366,37.3011,-12.3798,10.4738,5.453,-40.319,
-48.4585,-35.513,-47.0595,0.040257,-2.2162,-6.3613,-14.049,15.8591,8.5039,32.6527,-15.0114,10.8092,-0.65877,-43.2025,
-39.2842,-30.9721,-40.8615,3.8942,9.4861,-4.0514,-16.5805,26.4772,11.3681,35.514,-15.0748,16.4277,1.7911,-41.5742,
-35.9628,-31.0415,-29.7327,10.8914,-0.72399,2.4582,-16.0676,25.3705,11.168,38.6858,-11.2781,16.4059,13.2528,-43.9005,
-42,-36.4101,-42.0487,8.7919,-14.7805,-10.2226,-3.5342,12.2789,10.9801,34.9186,-15.4219,5.2984,14.868,-53.7997,
-41.8902,-31.3328,-51.4563,11.1566,0.20629,-15.3937,1.4982,10.5779,17.5518,34.2697,-19.3169,3.5343,19.7604,-54.9102,
-35.0384,-26.5609,-40.6563,10.0051,14.2939,-7.2393,-4.3764,17.174,12.1602,32.2136,-19.1221,3.3222,27.7337,-51.1338,
-23.2954,-21.593,-32.4325,11.8149,1.2642,2.8358,-1.2215,24.3385,6.6101,33.655,-14.1186,6.0151,29.926,-47.5838,
-28.4051,-22.4664,-44.2247,9.419,-9.6576,0.49669,-6.2096,16.8529,2.1159,35.7333,-17.3686,9.7518,18.7305,-49.3078,
-33.9316,-23.0468,-46.3917,7.8898,-6.1859,-5.3179,-4.873,12.467,1.5073,35.9992,-21.6292,12.059,15.1965,-46.3496,
-30.9317,-22.6283,-40.7161,13.6829,-9.6714,-7.8914,2.6502,18.4679,7.6834,25.6445,-20.8136,4.5865,23.9255,-44.5329,
-33.4143,-24.1627,-46.9503,19.1287,-7.6448,-3.561,-5.2215,23.1444,13.9708,24.1059,-16.6725,-0.50891,29.7208,-43.307,
-40.0862,-27.5333,-54.256,21.3553,5.8294,-6.2398,-9.7288,18.8633,13.6151,30.8543,-15.1898,5.3063,24.5634,-40.7085,
-37.922,-29.0148,-47.8674,20.7971,9.0951,-8.9986,-6.0119,15.5621,10.6288,29.2443,-14.5196,11.4956,25.2588,-33.6864,
-32.2723,-29.202,-44.0312,17.1391,-1.0915,-2.1919,-9.5072,23.7878,6.1345,26.5256,-15.0944,11.7701,33.8665,-27.8087,
-25.0334,-26.4858,-49.1021,17.075,5.7227,4.2062,-5.5623,29.1094,1.4281,30.2367,-17.5632,12.5102,37.6191,-21.8019,
-22.3263,-24.6554,-47.8434,15.8093,19.4793,9.0152,3.6888,16.5164,0.13739,26.2531,-16.2684,13.9285,38.4952,-16.3962,
-27.4942,-27.7556,-42.321,11.7275,15.7797,9.6794,-0.14771,1.4254,-2.0402,20.5804,-11.6769,14.7802,37.8727,-11.7968,
-28.4961,-28.7418,-43.3974,12.7109,3.9867,9.3398,-5.2003,-1.4319,1.2154,33.0841,-5.9148,22.3289,42.1078,-1.2073,
-29.9196,-33.5248,-45.855,11.7072,1.0961,5.6462,-3.2013,-0.6229,6.204,35.6786,-9.1754,23.1585,42.7148,3.9266,
-32.9451,-39.7083,-40.6936,13.8969,-1.38,5.7893,5.6679,-6.3701,3.4216,25.8246,-16.3376,15.502,33.403,-2.5755,
-29.2812,-35.6385,-38.4929,16.1966,1.8363,8.575,2.6763,-3.3368,3.4573,28.8549,-17.0446,13.3671,28.2656,-4.1082,
-16.919,-19.5207,-37.1474,21.0096,15.8261,18.666,-10.0176,10.9634,12.891,41.2236,-3.9706,23.1701,40.6697,10.2383,
-15.6631,-16.6625,-38.0521,20.4719,27.5305,21.643,-6.283,15.7287,8.0197,39.8345,2.2932,29.2517,45.0987,15.5291,
-19.0614,-21.9292,-34.8049,18.2797,22.9864,16.0063,8.194,15.2672,5.1287,34.0702,-0.73645,29.425,38.5366,10.7412,
-18.8819,-19.1672,-34.6448,16.7008,21.1251,14.082,-0.61287,16.7613,6.7491,35.4005,-2.6205,23.8032,41.0449,12.9888,
-14.6157,-10.5456,-36.1815,16.4219,21.0626,21.1909,-1.7814,20.8173,8.0314,41.2302,1.152,25.9904,50.3925,23.5376,
-18.8002,-8.2256,-33.7694,17.1238,19.076,26.4269,7.7255,23.6656,7.7905,46.2286,1.324,37.2054,49.5381,26.7051,
-27.5545,-11.3476,-29.5742,17.7832,14.3159,23.1539,-4.5483,20.0764,9.0102,41.7671,-3.8172,35.2139,43.9144,19.5591,
-27.1063,-16.6921,-29.0048,13.5832,18.0364,21.0418,-4.0344,17.1846,9.6749,34.1999,-4.793,24.183,46.3412,17.6626,
-29.8183,-22.9213,-38.3516,6.5016,24.6671,17.369,6.3309,15.6719,-1.993,26.3632,-8.8439,17.4298,41.1505,15.1565,
-28.5114,-21.0643,-37.0149,5.6291,21.2589,17.7732,0.166,14.7311,0.054802,27.1915,-7.8315,18.7941,31.9326,11.8365,
-17.4006,-14.2565,-23.9476,16.1377,11.0654,24.1787,-2.013,18.4271,14.1515,35.9245,3.4847,24.174,35.5603,19.5626,
-20.695,-18.2219,-28.7774,18.0616,9.4373,22.2457,0.036085,22.6238,13.4229,34.733,4.2396,26.0977,39.6934,21.7629,
-30.7817,-26.5286,-40.3073,7.0958,18.7532,17.7777,-7.9201,25.8459,-1.4825,28.0695,-2.0405,25.7369,38.0347,16.36,
-29.6577,-23.2497,-38.6118,10.2857,15.9408,22.2547,-7.6858,26.4643,2.1014,30.0007,-6.4974,25.398,34.5477,17.0657,
-29.3246,-18.9625,-33.4029,21.2376,3.4151,23.8115,4.3446,23.9122,12.5803,33.9849,-13.3385,24.3562,34.8849,17.0057,
-23.9496,-17.5837,-28.7473,21.6507,0.55896,20.6957,6.7351,23.2005,15.441,34.5975,-10.8508,26.0284,40.2637,15.2621,
-18.4152,-17.7336,-32.084,10.4696,6.5511,17.7667,0.30537,22.0498,6.5607,34.2088,-6.1023,22.7793,37.6068,12.6595,
-28.1564,-18.3569,-40.041,3.3336,14.1116,13.5673,-7.6666,21.9318,-0.82272,32.3973,-10.7977,16.351,30.2888,9.7304,
-33.6979,-13.3989,-30.8899,15.6671,17.1216,10.8251,-11.0632,25.9185,7.4218,31.4178,-10.1499,17.2982,34.2563,13.9673,
-31.4349,-13.8002,-27.3492,16.8963,8.1404,7.0424,-2.4456,19.784,4.3253,27.8454,-9.7817,17.9474,34.8521,12.8882,
-26.6564,-10.08,-35.3493,11.5439,8.616,9.9942,8.7883,19.0788,0.69121,29.549,-9.1949,23.1374,32.279,11.1509,
-32.0469,-10.6805,-40.7004,12.0563,10.2684,7.7071,-5.839,20.1034,0.40854,27.5349,-13.223,23.4361,28.6548,6.8662,
-26.7497,-7.1472,-26.6891,20.974,9.6522,19.2963,-5.609,27.574,9.0608,36.0058,-3.2705,32.6349,37.5407,15.6134,
-27.7958,-7.4413,-24.8465,19.9568,3.0475,24.646,0.75306,28.5711,9.2405,41.3177,-1.387,34.2927,36.9757,17.3281,
-30.4668,-5.5489,-28.6585,17.313,7.685,17.8645,-4.1125,24.9285,9.1679,42.2125,-5.1603,27.8963,33.3108,15.324,
-33.9413,-11.4826,-32.7237,11.9358,10.5983,8.1161,-7.2401,15.2378,5.7254,29.0746,-11.5995,18.9918,28.9019,7.1738,
-42.2687,-21.1575,-39.6779,11.4608,6.3472,5.4598,-3.1905,14.0828,-1.1254,13.2301,-15.9647,14.2371,27.409,0.23571,
-43.83,-21.5752,-43.3229,8.6039,11.0277,8.7475,-8.0604,20.2275,2.0755,13.521,-13.3197,17.9625,33.2361,9.6214,
-37.585,-19.5578,-42.4107,5.4363,9.6429,12.3202,-6.8536,19.737,16.051,22.11,-12.7617,21.4642,32.9292,14.588,
-33.1607,-21.9996,-38.179,11.6177,-0.8175,13.2681,3.4394,16.8655,27.9828,23.9168,-12.2369,21.8635,27.3381,10.5791,
-38.1608,-23.3308,-42.878,9.7157,7.1852,8.8567,-4.7206,18.0228,26.5449,26.5792,-3.5488,23.2029,32.6876,13.5599,
-36.8352,-20.485,-46.5721,5.7583,19.7697,9.2894,-17.453,17.9055,22.5418,31.7331,4.3769,25.6669,41.3314,18.0487,
-27.3943,-18.2915,-39.4389,5.4131,12.3168,8.7323,-10.1391,13.9389,25.5279,29.8294,1.7041,22.6813,38.8517,13.1097,
-23.3405,-19.1227,-33.6986,7.4982,5.311,5.3156,-3.264,14.5486,30.7444,33.824,-2.2547,19.8739,37.4843,8.4665,
-27.2427,-18.9394,-32.6408,12.3507,6.4386,2.5865,-4.5144,17.0501,30.346,35.1685,-4.5298,21.0916,39.5738,9.8867,
-28.0184,-16.8388,-27.308,17.3946,4.124,1.4671,-2.3152,13.1347,28.5254,27.2739,-4.2579,21.7544,33.825,11.2218,
-18.1422,-11.4899,-22.7771,19.7252,0.020295,1.8614,1.6799,12.3465,22.4754,19.3709,2.2642,21.8953,24.0828,7.1744,
-6.6896,-6.2209,-18.2772,19.2649,-2.6322,5.3649,4.2305,18.5958,19.4399,17.4855,5.2618,25.1611,27.2174,5.5384,
-7.0114,-4.1607,-14.5293,24.6167,1.623,8.6586,-1.567,18.2032,22.853,24.3903,0.36662,24.8565,36.9125,7.3755,
-20.6907,-11.8648,-27.7575,21.4525,10.9257,-3.1891,-15.573,5.7828,18.8307,23.1679,-6.645,13.4832,34.9388,-3.4309,
-22.462,-15.9734,-35.3714,18.7193,3.5214,-8.7825,-1.7436,3.9894,19.1469,15.5115,-7.2104,10.2638,31.3964,-9.9742,
-16.0527,-18.6305,-30.5979,13.4984,-10.7898,-7.5326,9.2071,3.0268,7.1515,4.6986,-18.5883,10.371,21.0766,-9.6166,
-8.582,-7.1485,-25.6289,14.3759,3.9575,6.1761,-3.6375,12.2455,2.143,18.5166,-10.9654,23.4874,24.8733,5.0604,
-15.0567,-8.4066,-33.9728,7.9699,12.156,3.6364,-17.5192,11.7517,-0.63667,26.4443,-7.6559,21.3553,26.5144,2.7082,
-11.502,-6.6971,-26.873,17.8556,5.883,7.5156,-3.8143,17.5541,8.3196,21.7242,-9.3659,19.3506,29.9852,6.1611,
-18.7658,-8.9468,-29.8404,16.0611,6.2532,12.1261,-4.3086,14.3319,4.6867,17.7694,-21.0963,11.1999,20.2322,2.1758,
-21.0141,-5.0353,-35.2806,9.3129,16.483,11.3987,-14.6552,11.0617,-2.8251,15.2572,-20.7946,7.1537,14.6797,0.1173,
-12.0407,-3.2874,-29.7895,7.7898,9.7095,8.3042,-14.7402,13.772,-2.6556,10.9669,-14.7267,12.0267,21.0297,9.2688,
-13.9696,-8.6338,-29.6894,7.5634,1.6551,1.298,-9.2765,15.1148,1.6011,9.104,-17.4585,14.4381,27.2398,10.8819,
-26.3878,-14.1413,-36.3439,3.4944,8.5454,-7.6977,-21.976,5.7725,-7.4128,-0.36007,-26.2929,7.0646,18.6157,0.34725,
-26.2506,-18.1133,-36.0912,-1.0536,13.3354,-6.2715,-34.1548,-2.7686,-18.0553,-8.5332,-25.6792,6.1587,13.6424,0.80835,
-29.0141,-27.1496,-39.7106,-0.99062,4.3403,-8.3056,-24.3925,-6.9415,-18.418,-3.2012,-24.6206,11.0916,19.5725,3.1702,
-35.9501,-31.3052,-44.5585,0.99724,-0.25843,-12.1455,-8.829,-7.0069,-9.6001,4.2218,-24.1075,9.9442,22.7365,-0.39446,
-33.7931,-32.3192,-39.9568,-0.026695,0.23901,-14.7913,-2.6354,-7.5504,-4.6858,2.5226,-14.9482,4.0449,20.8904,-5.1915,
-27.6677,-32.0671,-33.944,6.0007,-4.8368,-19.9291,-10.4308,-5.8918,0.17532,6.9508,-0.31257,-0.29491,24.6984,-7.5309,
-26.0079,-32.5534,-37.21,6.1223,-7.4389,-23.5543,-15.5897,-6.9848,5.9492,13.7644,5.4905,-0.75984,26.1088,-10.4537,
-30.9551,-34.2156,-46.7878,-1.7166,2.4072,-19.4897,-26.9466,-10.6633,-1.3974,11.7334,-8.0953,0.49128,15.1425,-11.5135,
-28.8568,-28.5473,-45.6675,-4.2649,10.6989,-12.2948,-27.9812,-10.2645,-12.1599,8.8603,-21.7096,5.523,5.7978,-5.2791,
-18.4483,-19.6036,-33.7684,3.7038,7.1645,-8.6646,-18.1074,-1.4534,-12.3941,8.8106,-26.3121,11.9405,8.3425,2.7505,
-13.9672,-16.9813,-27.8862,9.7481,3.8425,-7.1808,-18.4672,4.4179,-12.1329,7.3176,-24.2514,13.6342,10.734,5.9599,
-19.1549,-21.5061,-35.1308,1.2094,7.2272,-18.078,-19.5285,-0.90863,-13.5743,3.7453,-32.1963,10.6468,6.4747,2.4686,
-25.4775,-23.349,-39.0485,-1.5145,8.4808,-31.0933,-21.972,-6.3977,-13.0008,0.38757,-34.8441,0.60845,4.399,-7.5615,
-25.3951,-22.9124,-35.2598,5.3251,9.4182,-33.2048,-31.259,-4.5676,-14.6309,1.3282,-27.9329,-6.177,6.0633,-13.8567,
-23.6302,-24.1887,-36.7594,7.175,14.3965,-28.0792,-21.4295,-2.1242,-14.9581,3.8998,-24.5697,-3.637,6.9046,-12.7841,
-27.2738,-26.835,-42.5076,3.611,10.3994,-36.2762,-6.0437,-9.9507,-14.3018,-5.7344,-25.2647,-6.5525,6.7315,-16.1142,
-31.422,-30.0451,-41.8853,-0.94399,10.2574,-41.3305,-9.4168,-13.21,-15.3719,-13.1031,-24.7129,-10.4976,8.2558,-21.4143,
-29.2957,-26.5554,-36.7209,1.764,18.0781,-31.8608,-20.6621,-6.3919,-12.2804,-4.8451,-23.9533,-1.914,5.5913,-16.514,
-27.7789,-24.2387,-35.2405,4.3095,7.5934,-26.8156,-17.253,-7.6951,-8.4101,-4.313,-24.685,4.2268,2.1223,-11.9073,
-29.2454,-29.2921,-37.2237,-2.9388,-2.2622,-28.8221,-20.7973,-15.1876,-12.0029,-14.9005,-24.8911,-1.0885,8.0205,-10.9519,
-25.0806,-27.0527,-36.4365,-0.83424,11.9735,-28.0573,-24.8524,-12.3484,-18.9957,-15.9349,-15.203,-1.0234,13.3241,-7.403,
-22.1297,-18.6808,-32.3221,8.8568,25.3551,-23.4814,-11.7921,-5.3405,-16.4097,-9.6761,-8.9884,3.3768,11.0784,-5.9944,
-22.248,-16.1137,-25.0802,8.8073,16.8442,-23.0368,-3.3715,-6.4664,-9.1586,-9.5775,-22.5491,0.7636,4.1472,-11.9013,
-20.4311,-16.1112,-19.7192,9.2427,23.5463,-22.6185,-7.99,-8.4885,-5.2346,-7.557,-35.0552,3.1284,0.52389,-14.5617,
-25.9539,-21.4111,-23.8385,9.6527,34.6668,-28.4924,-13.7771,-15.2098,-5.8846,-12.888,-25.7208,3.9048,1.4566,-20.919,
-33.3146,-26.6341,-31.326,8.3504,20.2945,-39.0747,-18.4938,-22.7331,-8.6648,-18.1405,-16.7057,-6.6936,4.5024,-33.7639,
-26.4952,-22.6259,-31.3749,6.4032,15.2204,-36.2483,-14.9741,-19.4409,-7.1806,-9.8212,-20.0419,-7.2563,9.5349,-41.4995,
-16.7105,-15.9657,-26.5998,7.4652,28.2865,-27.8069,-13.1115,-12.008,-7.7141,-9.7139,-20.2857,-2.4826,11.373,-39.4915,
-9.4414,-5.3668,-19.2193,20.5144,29.9635,-23.2462,-16.1812,-0.68242,-2.9127,-9.6132,-9.9095,-1.8515,16.4754,-41.4605,
-6.9467,-4.0809,-19.9945,18.8016,22.3811,-24.7439,-6.5337,3.2149,3.0466,-2.288,-5.9407,-1.7404,21.7534,-48.6139,
-3.3967,-6.9693,-19.9999,15.5044,32.3665,-15.3056,7.9583,8.5656,5.033,4.3573,0.44129,2.4614,31.294,-44.4922,
-2.9517,-6.7921,-21.9332,17.2254,38.3784,-8.3615,6.3962,11.6669,2.0797,1.9264,6.4406,-2.2658,32.0681,-42.0634,
-4.9437,-6.1434,-25.6786,19.3252,32.9425,-14.367,-8.0875,8.7979,-1.1783,1.0882,2.9211,-12.0116,26.5284,-49.9037,
-9.2266,-12.7647,-30.6456,20.335,30.7247,-23.3872,-1.697,-0.64824,-3.277,-2.1108,-1.8339,-14.9065,24.6955,-54.3813,
-12.0472,-15.855,-31.699,18.6328,21.6511,-24.3943,9.9742,-6.3937,-2.5982,-2.9478,7.4354,-13.53,24.6602,-50.1541,
-14.4581,-13.6988,-35.3411,17.2738,6.252,-24.6179,-1.4705,-6.7334,-2.2014,-3.4943,6.7479,-16.3336,18.1189,-49.3145,
-12.8675,-15.528,-36.8358,16.4782,19.9769,-24.8278,-11.2644,-6.0882,-1.3462,-6.4179,-1.6108,-22.3432,18.2369,-49.4888,
-11.1314,-18.4529,-36.0719,16.9357,32.8783,-24.7844,-11.0707,-9.5793,-2.2297,-8.4434,-1.0322,-24.3771,22.4453,-46.5195,
-7.33,-15.6585,-38.4871,20.4991,16.8056,-27.8768,-9.6834,-12.6198,-3.301,-13.4802,0.71698,-19.7812,17.001,-42.0411,
-3.7567,-15.9239,-36.4186,21.4385,1.6973,-28.3736,-7.8971,-14.032,-0.45116,-18.2148,-5.8335,-20.2813,12.3658,-41.2056,
-1.6031,-18.8248,-27.4848,18.706,3.6436,-25.2249,-7.9052,-15.6002,-2.8347,-18.0862,-13.6784,-27.7416,14.0339,-41.6256,
1.8673,-14.8033,-23.9078,18.0658,15.9583,-23.2293,-11.7696,-14.6644,-8.9313,-19.4114,-6.5912,-25.113,17.0485,-33.8256,
-1.3782,-10.2999,-28.981,17.7047,8.4933,-23.0408,-12.7507,-11.6154,-9.1184,-23.3084,1.2761,-19.0269,15.7842,-24.8067,
-8.7671,-12.8149,-32.7856,17.3658,6.2965,-22.3813,-8.8522,-10.677,-7.8484,-20.7046,-1.4516,-20.5364,14.5966,-22.113,
-14.0259,-17.3489,-32.2649,14.3954,20.0187,-19.5924,-11.2136,-10.519,-6.8953,-15.6062,-2.3288,-19.7864,14.6845,-18.8583,
-10.0506,-16.5485,-28.1594,13.7727,26.1689,-18.6578,-4.5147,-9.6464,-3.83,-14.4284,3.3547,-16.9115,14.0448,-14.1109,
-4.1452,-17.484,-25.0238,14.3926,13.5115,-18.9846,-0.38746,-13.8884,-1.672,-12.5983,4.5995,-19.7537,15.6123,-15.1924,
-4.1374,-19.0863,-23.7633,14.2519,23.5471,-18.5684,-13.6206,-13.778,3.0076,-10.1552,2.6365,-17.3631,16.8447,-13.0756,
-7.2636,-19.8693,-24.7477,13.397,36.2343,-17.4545,-11.8393,-11.5053,-0.065164,-13.4025,2.9603,-14.8749,8.1215,-10.845,
-2.9714,-17.2309,-22.7809,11.6289,43.5807,-15.4429,2.9711,-11.7788,-3.9176,-11.1521,8.0853,-12.5366,5.224,-11.6406,
-1.3471,-17.1613,-19.968,12.8596,34.2172,-16.4448,3.1543,-16.8569,2.1018,-1.8061,9.0462,-8.4102,6.8386,-9.978,
-8.9791,-20.47,-22.1444,11.1239,28.3075,-14.494,-11.135,-19.2197,3.9041,-1.216,7.5393,-6.4591,5.4642,-10.3435,
-8.4403,-18.7598,-19.8514,7.082,29.5016,-10.2499,-6.49,-17.5846,-1.6328,-13.1942,9.4971,-9.9279,9.4746,-8.2766,
-2.6312,-13.7779,-14.8039,10.9956,28.2132,-13.9735,2.5763,-21.8319,-2.017,-22.0437,8.4453,-16.5633,8.424,-6.8159,
0.65988,-12.2281,-13.6747,12.0231,28.2076,-14.8223,-4.0858,-20.281,-0.20875,-19.9977,1.9131,-17.7387,5.7494,-8.0942,
2.7894,-16.0739,-15.0234,7.6861,31.0947,-10.3173,-4.0818,-9.182,-2.8476,-18.5571,-4.2275,-14.5049,11.4302,-7.3678,
-0.26998,-17.5196,-13.1579,9.1534,27.3011,-11.6267,-8.1753,0.5277,-1.7126,-17.9254,-2.5276,-13.1525,11.2265,-4.033,
-6.2796,-14.2993,-9.7171,12.7015,15.2987,-15.0264,-14.6746,1.2189,3.4518,-11.3063,-0.68869,-8.7484,2.1168,-3.0681,
-10.7235,-13.4413,-15.4008,11.4575,18.7191,-10.7504,-13.3122,-2.2286,-3.9861,-16.8949,-5.95,-3.4028,-1.3846,-8.6686,
-1.1618,-8.0551,-14.2356,8.6006,27.4785,-5.0439,-5.5234,-0.88941,-8.8084,-16.1219,-5.3518,-2.4755,0.86783,-3.569,
5.1744,-4.1975,-6.6328,6.1564,16.1884,-8.5977,-1.8177,-2.2823,-2.0129,-5.0317,3.164,-4.2551,-2.5587,0.50157,
0.76661,-9.0074,-5.9938,7.4743,21.725,-9.769,-0.021453,0.50619,2.2052,-5.4527,10.446,-0.3844,0.24638,-3.6259,
-4.3411,-16.9028,-13.5882,2.9282,31.2676,-5.0853,-14.1202,-0.24731,-4.4353,-9.2231,7.1679,0.84373,6.2569,-7.5059,
-2.8755,-12.7554,-11.5678,3.9576,15.2915,-5.5033,-23.2756,-5.2944,-5.8562,-4.5721,-2.1803,-7.6428,8.5328,-7.2967,
-4.6312,-10.0619,-7.4995,6.6126,0.27402,-8.5476,-7.7791,-7.3868,-0.20214,-5.2621,-9.2803,-14.8975,6.0927,-5.8951,
-6.5225,-12.5914,-13.557,3.5646,1.9448,-5.3834,-2.8535,-2.3641,-1.8775,-6.1515,-6.0721,-7.9778,5.4859,-4.8182,
1.3407,-10.1487,-10.0923,5.0379,11.2281,-5.3014,-16.7823,-2.9452,-4.4159,-2.167,-3.5384,-3.8838,8.2902,-6.2159,
5.8397,-9.2988,-3.9431,7.8689,-3.5456,-9.5628,-6.0137,-10.2405,1.3929,-5.1702,-7.4237,-10.1584,11.4085,-8.0123,
2.1151,-11.151,-10.4552,5.951,-7.7916,-6.5789,4.9524,-8.1798,-2.0651,-11.6089,-7.46,-12.441,6.3856,-8.9774,
2.2292,-3.4923,-11.5151,4.8705,4.0041,6.1084,-9.4447,1.711,-8.9311,-3.9225,2.3874,-3.2589,9.1355,-3.8595,
0.16725,-0.87243,-6.9678,3.1321,6.1739,4.2956,-19.6038,-3.2119,-6.949,-5.1334,1.28,-5.4735,12.9262,-3.146,
2.5673,-4.6765,-6.0676,7.7648,-0.9454,-6.085,-4.4481,-10.7324,-1.7118,-12.0562,-5.0633,-14.786,11.1863,-9.2237,
9.4029,-4.6371,-0.16016,9.4681,-2.5759,-6.9252,-5.8684,-10.8114,-0.40379,-12.0558,-1.6262,-13.176,12.6843,-10.3575,
6.1877,-2.1895,4.9111,6.7309,5.5328,-2.8943,-12.9881,-18.5984,-3.995,-12.5377,-3.6978,-14.0722,9.754,-9.0132,
5.8164,1.3161,1.7242,7.2911,9.057,1.6179,-5.4601,-18.929,-8.0938,-9.3751,-9.7427,-19.0126,1.4558,-11.3647,
12.939,3.4063,-2.9588,7.0946,1.0418,3.69,-4.8916,-9.3576,-9.7774,-6.1615,-8.9172,-20.5234,-0.8007,-14.2982,
15.2962,9.2277,-5.4326,4.9815,-1.672,7.5662,-14.9619,-8.5549,-9.4315,-13.2634,-2.8385,-15.1944,3.8269,-11.2709,
9.7989,6.9868,-6.3117,4.4419,5.4184,3.9785,-12.8592,-15.9951,-8.6248,-25.2418,-0.49904,-15.0059,6.7305,-8.4253,
14.2726,-1.3861,4.9133,9.719,5.3343,-1.3214,1.6509,-13.8306,-4.01,-28.307,0.25403,-18.6848,11.8703,-6.2325,
20.6469,-0.82102,9.9209,7.2074,-4.1451,-0.27806,3.4798,-12.0367,-4.7335,-30.4648,1.2029,-19.0098,7.7838,-2.4844,
15.7926,5.2538,0.8895,3.6415,5.0217,6.2461,-2.7547,-11.5554,-7.1006,-31.7704,0.40736,-14.7362,3.7014,3.6902,
5.4451,1.3234,-6.6355,5.5924,17.0127,5.6306,-6.6866,-12.0672,-9.8078,-26.2485,-1.786,-15.0571,4.6844,1.2994,
7.5285,2.2078,-1.4171,5.739,17.438,5.2925,-2.9114,-11.3434,-9.7015,-14.5509,4.5877,-12.7076,2.4749,0.73931,
11.4153,7.8602,3.4887,3.9484,4.8225,4.0107,-5.6288,-9.2165,-7.6731,-11.2677,8.6509,-7.6068,-4.9044,5.5157,
8.8022,3.5322,2.3153,6.6038,-4.1437,-0.086137,-9.1474,-13.9659,-3.8385,-14.4478,1.3832,-7.6321,-3.6456,4.7026,
6.5871,-2.2234,1.4532,8.3767,8.8794,-2.2501,-0.6446,-19.1535,-1.4391,-16.2321,2.9874,-9.8253,9.3476,-0.64082,
11.7355,2.4896,4.9817,8.5972,15.8182,-0.42812,5.9018,-16.3173,-3.0397,-15.9813,15.5827,-8.5126,14.3301,-2.7718,
17.7798,3.7862,10.949,5.1889,0.7691,1.0438,0.2448,-18.7127,-4.3036,-10.2021,14.1653,-8.0023,-0.027063,-0.19532,
20.0875,2.113,9.3282,6.3238,-8.3154,0.016867,-8.9287,-22.4102,-3.081,-7.6618,4.1566,-9.4504,-7.7382,-1.6299,
15.9899,6.3245,5.3941,11.729,6.2836,-0.94801,-10.3212,-16.2453,-1.9323,-8.166,1.9788,-9.8472,-1.9717,-2.4959,
11.1741,6.9092,5.5526,9.5792,12.0526,0.072965,-9.2197,-14.3065,-2.7805,-8.1582,2.8244,-8.2923,-9.084,0.064172,
17.4936,10.5922,8.8349,13.5842,-1.927,5.6122,-5.0511,-17.5455,-4.7828,-9.3559,5.3062,-1.2873,-17.939,7.0502,
23.4336,15.9822,13.8482,19.7588,0.83998,7.4444,7.544,-15.2877,-5.7009,-11.4459,9.0852,4.8157,-8.9087,14.0988,
23.4738,12.6132,16.3917,19.0554,9.9484,1.2134,14.3222,-12.442,-3.9128,-8.3488,10.4683,2.1164,-3.5537,9.8786,
24.4755,11.3742,13.48,17.4302,15.6185,0.65865,3.34,-12.1774,-3.1961,-3.9915,9.8402,-3.7951,-7.1968,2.0551,
23.7301,13.3431,9.538,13.2509,13.9584,4.2346,-2.8862,-12.6521,-5.1735,-8.3313,9.491,-5.7366,-0.2571,1.6908,
17.9678,8.6861,12.8221,14.384,3.4795,0.12363,-1.7489,-14.7855,-1.9706,-14.5803,7.4753,-6.3567,4.0966,2.5532,
10.382,0.21097,10.3655,15.6899,-3.7189,-4.9452,-4.7773,-16.0673,2.7272,-18.285,3.4113,-9.5905,-5.0674,-1.6971,
8.554,-1.9709,6.1282,10.6511,5.9042,-1.0331,7.8017,-15.8266,0.87632,-17.4289,1.5194,-13.5944,-5.9682,-2.3186,
12.8613,1.5219,5.7605,11.4586,15.6731,-0.48895,18.9027,-16.805,2.7517,-10.5983,10.5873,-12.7789,1.6205,2.641,
16.6691,4.0819,9.0303,16.7966,3.8865,-5.5213,6.4404,-16.0376,16.6866,-0.080481,24.052,-0.20207,3.6924,0.31334,
16.1511,7.2114,14.7552,18.6813,-9.8441,-5.672,7.5002,-14.5934,26.8933,4.7451,36.7089,4.6308,5.8814,-2.1156,
14.7001,7.7428,15.3162,16.114,-2.5048,-4.3675,16.2092,-14.6819,20.4593,3.0143,42.2194,1.4606,9.8671,4.2781,
11.1666,7.0371,10.7815,15.3881,5.1173,-4.3465,2.462,-13.56,13.6876,3.5559,32.6964,8.8448,8.5517,11.4928,
4.7122,6.6148,6.7604,19.7677,-1.9384,-3.6035,-4.9161,-13.2286,12.3847,5.7534,25.9141,15.5452,3.2181,12.7316,
5.6345,6.9411,8.042,17.8583,-5.9194,-3.1463,6.2249,-12.6759,8.9905,0.82842,18.3337,8.1045,1.3378,10.7629,
9.1526,8.9347,9.4877,12.9306,0.22008,-3.4397,6.8155,-11.4331,-2.6364,-9.3444,10.4848,-2.0229,-6.4555,7.2244,
12.2189,12.9782,10.6054,17.2162,10.089,0.86426,4.2372,-10.024,-3.2013,-5.1686,14.4352,3.1599,-12.5758,6.5502,
10.7629,11.9585,6.8361,16.4242,6.3507,-0.87483,-2.5245,-12.5561,5.9088,0.68563,13.3281,6.5862,-15.9182,3.5061,
9.153,11.241,5.4616,12.5462,-2.2255,2.0702,-11.0502,-12.2846,0.25164,-8.0326,8.672,1.3703,-18.3375,-1.0431,
18.2448,17.3152,17.6671,17.0961,1.7644,12.0689,3.7128,-8.1731,-3.1379,-11.8894,20.685,3.2163,-4.7043,2.8759,
23.8988,20.6149,21.91,18.9629,7.9255,9.8985,16.8672,-8.647,-1.9853,-5.873,25.2287,4.4695,7.1476,2.2214,
19.5726,20.3421,21.0773,19.2714,11.3063,13.161,1.7551,-8.1282,-1.8662,-2.6285,17.9304,1.7912,-0.99448,2.57,
13.5775,13.8187,19.3303,16.6684,7.2531,19.1197,-9.7991,-10.0507,1.1378,-7.7735,12.9977,-6.0295,-15.0348,1.9339,
22.4038,17.3281,17.6885,18.0788,12.6025,17.9726,4.8889,-7.5194,10.2286,2.8158,21.3769,3.4913,-24.6173,5.6743,
19.6135,14.8421,7.4682,6.871,7.0258,8.2173,1.1006,-11.4068,3.8301,12.77,21.5403,12.9226,-18.8017,6.2979,
12.8931,9.8545,14.01,9.11,-2.3136,13.7501,-8.3654,-8.553,-0.014921,10.7988,22.4173,13.3528,-19.3611,8.5714,
7.54,5.6478,18.2308,16.0352,2.405,14.6123,0.090464,-3.9425,0.70933,5.5716,19.8672,7.9719,-22.7787,-1.3432,
4.4363,5.5497,9.183,11.9394,14.553,5.7816,9.4848,-6.3573,-1.5026,8.3701,15.5417,10.1449,-14.4223,-10.1806,
11.8831,10.5193,12.0065,11.2235,15.1261,7.8453,8.4338,-6.4578,-0.93053,10.7604,17.5017,14.3569,-5.3618,-11.0158,
18.4007,11.8166,18.035,9.1036,7.4694,11.7127,4.5535,-4.6243,-2.3207,7.2225,19.8258,9.6389,-8.8967,-21.4419,
12.4762,13.5177,14.0606,10.0039,5.5752,12.4564,6.6904,-3.3827,-3.1456,5.3431,19.6004,7.1326,-8.8451,-31.2426,
5.4609,10.2963,8.8784,10.8495,-4.8822,13.1548,1.9505,0.67665,-6.8132,-3.6546,12.1576,2.8478,-5.9043,-30.3324,
8.5077,4.858,10.7558,5.378,-13.2662,8.9913,-3.4692,1.6001,-7.3685,-8.7377,3.7154,-5.0356,-3.1396,-31.4047,
10.4076,7.941,9.1466,6.0196,-2.8292,6.0417,-1.8148,-0.90599,-4.5163,-2.9108,7.3491,-5.2154,6.2078,-39.6433,
5.6858,8.1877,2.0901,5.8994,2.8841,8.3303,-5.3211,-2.0569,-3.04,-6.8335,11.4876,-4.1796,13.7895,-48.1108,
7.7548,3.84,3.8929,2.171,-10.7863,6.8666,2.7109,-0.0053171,-4.7858,-12.2081,6.942,-10.1954,11.5159,-50.0446,
15.4844,5.5378,8.48,7.8256,-15.9239,2.5984,9.7791,0.9591,-5.4628,-7.619,9.4178,-13.4398,10.3428,-48.4882,
15.2785,6.8928,1.9452,7.5968,-0.86847,1.7189,-4.9076,-4.1599,-0.073547,-3.0647,16.3243,-11.4288,16.7118,-48.2302,
15.5668,5.7561,-1.7869,2.0797,12.0786,1.3748,-4.9748,-6.0795,2.1,-0.22976,18.4783,-8.0915,19.3245,-44.6133,
21.8637,3.4825,4.1051,4.8472,11.3541,0.81065,9.4236,-2.8224,-0.91827,5.5688,22.6722,-2.3036,18.1653,-37.116,
18.6236,0.86345,0.96653,9.3769,0.54972,1.2437,9.7018,-2.1709,-1.3453,2.8243,24.2042,0.24497,18.5214,-36.8172,
9.7932,4.1859,-3.9122,7.368,-6.2322,-1.723,-4.9803,-3.4869,0.18165,-1.2015,22.7517,3.6047,18.8559,-35.5723,
8.9647,6.1039,0.90207,6.203,-5.6173,-4.2711,3.393,-5.4468,2.3399,0.55782,26.4483,7.9677,17.0017,-27.8943,
10.8369,2.8451,-0.59831,12.0974,-9.1366,3.216,14.7584,-6.5663,3.6458,-2.8501,25.8253,7.0077,17.4278,-26.7028,
14.0433,8.4592,-3.9366,12.8178,-4.2501,10.7358,14.8372,-3.7622,1.0169,-2.6791,19.4555,3.2128,18.3104,-25.1007,
23.5648,19.762,4.2535,10.8437,10.1049,12.743,14.1879,-2.8133,0.23276,3.9894,23.3496,3.7432,17.4529,-11.3023,
22.8741,14.479,7.1316,15.7364,13.2347,10.2914,10.2034,-6.2597,3.834,5.9194,27.0103,7.6162,18.5747,-5.5625,
13.0657,3.7281,2.1242,16.4795,-1.6593,7.0223,1.6374,-7.5714,5.2912,0.98448,15.5075,9.3284,16.2554,-13.6647,
14.9331,10.4942,4.648,14.7676,-15.6598,7.8065,0.33413,-6.394,4.2506,-1.7255,6.1412,5.6354,13.1107,-9.7115,
25.1241,23.9646,14.9744,17.7381,-0.6202,16.9789,14.4141,-5.0462,3.0314,5.1267,13.9676,2.8869,20.037,4.9712,
19.0371,22.6472,12.3888,12.5765,11.8298,19.0936,23.7928,-2.0924,0.19846,8.4341,15.2987,4.8829,23.4141,1.9011,
13.3156,17.1908,1.7633,5.3142,-2.98,9.0302,8.2653,-3.1719,1.3916,0.93841,5.9449,3.3848,15.5015,-7.1308,
19.7475,21.462,6.4782,6.9235,-12.5627,8.4884,-6.3306,-5.3917,3.7182,-2.4919,7.9986,0.28968,15.0538,2.938,
22.9008,25.4767,18.1404,12.2925,2.2911,16.6555,8.1492,0.23423,-1.8073,5.3702,17.1594,7.0205,22.3451,9.9923,
22.0091,21.5382,15.1242,11.073,12.6385,14.6927,9.9499,4.0766,-5.5552,10.833,16.1303,8.5279,21.0048,6.0188,
22.8577,17.1124,12.0474,7.2751,-2.2199,9.2314,2.8452,-0.74732,-0.64262,12.3517,11.5468,5.3647,18.0569,6.8625,
22.6916,18.737,19.7604,11.9005,-12.0895,12.2932,14.9668,-4.8001,3.4935,15.2263,12.0593,11.5505,17.2146,11.0305,
19.1607,16.4075,19.2979,10.9455,-7.2668,13.7243,8.5251,-6.1993,4.9711,12.1435,8.6844,11.0985,13.0483,7.7173,
15.6007,10.1206,11.3914,8.8425,-4.9026,3.7423,-2.1095,-6.3093,5.1548,8.0405,4.7889,-2.1005,7.4451,2.4338,
16.1109,9.9953,13.6002,9.7582,-8.4648,-1.7849,11.9966,-5.9307,4.8455,9.0043,12.6965,-3.9026,8.9266,6.1442,
16.5903,10.8416,16.6403,5.7978,-8.9208,1.6962,22.364,-7.5031,6.483,10.8742,21.0935,4.5262,14.1756,13.0061,
15.3539,12.3605,14.4371,5.6912,-5.7342,7.1382,15.9607,-9.7042,8.7453,9.9805,19.5872,5.4597,16.9407,15.3593,
10.8173,12.8241,15.258,8.4831,-10.9339,2.6125,14.762,-11.7734,10.872,4.3204,12.3863,0.070803,15.2008,11.7863,
11.1322,11.5724,20.1268,12.3126,-23.2935,1.0092,18.2146,-12.5132,9.2556,-1.7237,10.6788,-2.3438,10.4321,9.6328,
16.7311,15.2165,23.7398,14.4663,-10.3264,13.4825,14.7115,-6.9418,6.29,7.0567,18.715,3.5813,13.6629,16.2858,
13.7988,15.7496,22.3154,4.9212,-0.065866,17.4938,8.044,-5.0791,4.4664,13.8642,20.9664,5.2946,16.2172,19.1648,
10.0788,15.7689,21.9406,6.072,-14.1619,10.6598,9.0078,-7.1847,6.6088,9.6581,14.406,-0.32549,12.8342,15.1229,
12.8484,15.787,18.6961,14.8668,-24.2788,6.164,11.8417,-7.7176,7.1762,10.5245,12.0957,-0.78778,8.6898,9.8771,
11.8363,12.6704,13.9589,9.8772,-13.9043,7.9631,8.9618,-5.5675,5.0586,12.0624,16.4312,6.2491,7.9272,9.5254,
5.5828,12.1514,14.3267,3.2592,-17.1671,6.2802,5.773,-4.9923,4.5139,5.3129,12.3123,6.5973,9.621,7.2669,
3.8015,10.9401,16.3591,4.9919,-27.2243,1.5651,6.3907,-6.6209,6.1713,7.4043,5.3066,0.41644,10.49,3.4564,
3.5734,6.9093,16.3417,6.1382,-23.1807,1.9531,-0.74162,-5.7418,5.3191,10.8164,7.3985,0.87384,7.45,2.7669,
2.3952,5.5308,11.0229,3.8419,-26.6104,2.8,-0.21496,-4.9151,4.5178,1.0086,9.8471,3.2318,8.4495,1.637,
4.9027,7.8502,8.6744,4.3347,-34.4139,0.94469,5.8236,-5.8254,5.4519,-5.5595,4.6767,-2.5059,13.968,-0.14857,
4.1263,6.4151,13.9385,4.0743,-24.636,-1.5219,-4.1668,-4.9937,4.6426,0.076487,6.3243,-3.8015,9.7557,-0.13966,
1.7095,1.9327,15.2715,0.21435,-14.2399,-1.6717,-9.4605,-3.971,3.641,5.1335,11.4883,1.0057,2.6627,-0.37236,
6.4275,6.6371,13.8731,3.5761,-11.4572,2.7671,5.2071,-2.2866,1.9764,5.3075,10.7991,-0.50077,8.2877,2.5424,
12.5496,11.7825,17.62,5.5309,-6.1907,6.6982,18.0305,1.4658,-1.7574,6.1941,14.7307,0.73434,15.262,10.8257,
8.9041,8.6652,18.491,0.86025,-2.4448,7.2601,4.4154,-0.068448,-1.17,9.1969,22.0416,6.9568,14.3463,13.0683,
3.5496,6.6995,15.9355,2.7373,-8.5647,8.2713,-2.116,-2.474,0.82841,15.8759,18.7909,7.0218,12.0392,10.8384,
0.68506,7.0204,13.7741,6.6699,-17.4508,3.1952,-0.78401,-1.6027,1.5016,18.0564,11.6376,4.4313,13.0041,14.7674,
-0.80196,9.4916,10.0555,8.1981,-14.4754,-2.299,3.1195,-3.4348,3.3398,18.4194,11.9036,5.1294,14.1522,14.8455,
0.21003,6.9937,9.9341,4.3317,-8.3047,-1.6791,5.8244,-5.1571,2.6575,20.6887,14.0817,1.9291,12.3387,5.7596,
2.6077,-0.17473,11.7483,-0.74878,-21.9064,-2.0607,-4.6481,-5.3298,1.5338,18.9651,14.201,0.36724,13.0443,3.0038,
2.2104,-1.8514,7.9102,0.98371,-34.692,-10.8547,-7.9845,-8.1431,2.647,10.8377,12.1437,2.0323,9.6109,3.0647,
-4.1891,-0.29413,8.3996,0.92458,-25.3798,-17.434,6.5946,-11.511,5.8625,5.849,10.4509,0.9464,4.6953,-0.97549,
-8.758,-1.2404,11.7522,-2.023,-18.5539,-17.8342,10.4169,-14.1946,1.6544,4.5337,11.2701,-4.4126,5.8603,-1.8811,
-5.5815,-2.3712,7.4315,-2.6249,-27.805,-11.7029,-3.4645,-15.0302,-2.5422,2.0925,14.6913,-10.1738,8.1598,-0.081199,
-9.103,-7.0494,3.6113,-8.2523,-34.8136,-11.0005,-9.0412,-14.6105,-1.4256,-4.7817,12.8457,-18.2403,2.8497,-8.271,
-5.4235,-3.9754,10.8662,-3.6598,-32.9662,-16.366,1.3832,-11.0826,-0.61718,-1.3618,11.352,-17.8692,1.9554,-6.5697,
5.266,2.2889,17.6861,2.5858,-30.7468,-11.7686,-2.3152,-7.7663,-2.7493,9.5662,12.8401,-9.8072,5.4535,6.5987,
3.9862,0.22339,14.6969,-1.9079,-28.9022,-6.242,-11.8173,-4.408,-3.5484,9.4744,13.0338,-10.6648,4.6446,8.1312,
-4.4479,-1.7182,9.4766,-4.6857,-28.6141,-8.7598,2.9917,-3.1794,-0.44325,5.5317,9.3595,-10.989,4.3657,4.751,
-9.4837,1.2772,7.4617,-2.9585,-30.2715,-12.5728,16.9122,-6.3631,-1.3808,5.682,5.9056,-5.0272,1.2114,10.2506,
-5.5402,7.9492,12.7986,2.5219,-24.599,-8.4442,3.6052,-2.6069,-3.7083,9.6791,11.818,5.3975,1.6209,19.7584,
-3.7618,8.4364,14.441,-2.4502,-22.1592,-6.0093,-10.7111,-2.4507,-3.9677,10.0627,11.5909,8.4481,3.4514,19.537,
-2.3308,8.1714,14.7799,-5.9186,-18.66,-7.8179,-9.707,-5.9188,-1.0785,8.736,8.2443,5.7721,-2.7808,12.8214,
-0.74469,4.7888,15.8213,-3.635,-19.4684,-10.2411,0.034697,-9.4199,-2.4599,-0.46499,9.1957,-1.3229,-8.3987,2.4112,
4.1202,4.9834,18.7284,-2.4531,-18.7827,-7.6985,0.51455,-7.4086,-3.2761,-6.7041,9.6078,-8.9563,-2.1102,-1.108,
11.345,7.3358,27.0048,3.2379,-19.3428,-1.6928,-1.6854,-3.8308,2.4642,0.20624,3.97,-10.588,5.0064,6.4304,
15.9669,10.7521,34.5433,9.3101,-23.4849,0.81885,7.0926,-1.6727,11.4749,8.3886,9.0345,-1.758,5.1879,16.6497,
5.6088,6.4914,20.1785,2.7261,-25.2092,-7.1839,8.3542,-8.5621,3.3147,0.41356,11.6258,-0.9295,-2.1131,11.5532,
-1.2355,7.3072,11.978,1.8391,-21.5275,-3.1375,1.3452,-5.8792,-6.2842,0.14732,9.7229,-3.5248,5.0035,10.1369,
-2.6076,7.8327,14.6335,1.2469,-24.0922,-0.53908,1.7464,-2.6342,1.3237,6.4055,12.0321,-2.8314,15.3082,14.3492,
-7.7537,-2.2781,8.453,-3.1664,-28.4312,-14.6067,-2.6968,-15.9736,8.475,0.71837,18.0585,-6.518,5.2305,5.2934,
3.5576,-0.45446,15.8995,2.085,-23.592,-18.1892,3.0084,-13.8101,14.4742,2.8447,31.075,-5.8862,0.81958,-2.0141,
16.3597,7.7679,26.5151,2.9244,-26.9969,-12.2775,16.9279,-6.2327,9.2671,-1.6647,24.9927,-8.9069,1.2524,-8.1599,
19.2345,15.0146,26.3702,5.641,-19.1106,-7.6845,17.7201,-2.9665,1.4802,-9.2776,9.3932,-10.7831,-1.7152,-5.2599,
15.1881,18.4522,23.3419,6.2666,-15.0716,-2.4029,2.5569,-0.37812,-5.3573,-9.685,4.6118,-6.2795,-5.9504,0.84026,
19.0974,27.9501,31.1003,10.2291,-24.2903,5.9361,-6.1528,10.2497,-2.1432,1.9834,14.4581,8.1973,3.0834,11.395,
15.7823,20.7295,24.1728,4.554,-29.3405,-2.374,8.3163,7.9476,1.1188,5.9617,11.9032,21.3235,6.0318,21.0755,
7.6045,5.9882,11.153,-0.058044,-31.9186,-11.8725,14.2045,-0.72438,4.9076,7.5321,10.7071,19.5617,4.2236,25.1134,
4.9791,5.3879,8.7968,4.525,-41.3317,-7.0626,-0.38635,2.9345,8.2288,10.2135,14.6442,16.701,2.7651,19.0271,
9.9828,14.2237,15.0177,7.1457,-38.8518,3.4843,11.206,9.9893,11.1093,13.9392,12.8015,19.0732,4.5272,18.8496,
19.507,18.6728,21.3474,4.7889,-44.2334,3.7573,11.98,8.4259,7.0684,15.0312,6.7308,15.0364,-2.4928,23.0211,
24.6032,21.8909,24.4049,5.4658,-54.5949,2.5674,-2.8388,9.3663,-1.0686,12.201,7.7731,10.7601,-11.5024,20.1937,
17.1015,19.3724,16.4332,0.076172,-44.3293,4.1011,-5.6814,12.9019,-7.512,5.4434,7.5477,9.8735,-13.4633,12.9565,
18.7267,21.8254,19.0626,1.7591,-32.2696,7.9521,7.434,14.7791,-5.3738,3.9117,4.4435,11.4505,-4.702,17.723,
24.3516,22.926,24.6673,2.6172,-44.4334,1.2083,1.6853,8.1076,-5.534,-4.9999,1.7666,6.9068,0.40059,21.962,
13.7319,14.802,17.8851,1.0143,-55.8674,-8.0228,-8.5387,2.8008,-7.1297,-14.8228,5.035,2.1541,-3.4794,17.2699,
-1.192,3.3086,5.2426,1.9173,-59.9872,-11.8802,-0.31363,0.7046,-2.3636,-10.5594,7.143,2.9887,-4.7169,14.3055,
-1.7231,-0.98726,7.5793,5.9001,-59.5212,-11.4084,6.6948,0.90329,8.1426,3.3305,7.4378,9.3174,0.14543,13.6881,
7.298,1.241,16.0423,9.6431,-64.8681,-6.1445,-3.5889,5.9107,14.1616,16.8692,11.089,15.2659,1.824,6.3592,
-0.37051,-0.7614,8.3311,0.86981,-62.9042,-6.2577,-10.1222,6.038,4.6348,20.6777,10.9056,14.35,-5.9982,-6.5556,
2.5439,6.0328,6.3851,-0.14659,-47.5607,-4.9183,4.4645,6.6399,-2.3921,24.2574,7.3589,13.4886,-8.5307,-10.5009,
16.4913,18.9273,16.3661,7.334,-40.6097,0.92043,7.3299,10.8208,3.777,27.3817,2.338,7.6181,-11.1523,-14.9323,
20.443,18.7557,17.3123,3.0378,-50.2242,-2.991,-4.1969,13.0638,5.4788,21.4003,-0.69453,-4.4084,-17.2319,-28.1364,
6.442,13.533,9.2839,-3.6519,-49.3799,-13.1758,0.15226,11.5571,-4.7319,6.3779,3.4445,-14.0258,-8.7262,-40.5482,
4.127,10.3107,6.3165,-7.2897,-43.0431,-12.3853,10.7482,10.8637,-5.8942,-4.61,11.4325,-18.9689,5.8974,-52.095,
7.7358,5.3535,5.9373,-5.406,-54.5605,-11.6422,13.4777,10.2118,2.6541,-9.6361,11.2285,-15.903,16.5101,-47.0411,
8.4769,5.7556,7.2685,5.2827,-59.6021,-12.6309,19.6587,11.2864,11.8949,-12.1909,12.242,-4.1021,22.0274,-39.1568,
8.4504,3.9642,5.3863,5.9295,-41.926,-10.9088,17.9972,9.163,13.1097,-12.9059,17.7744,-1.446,24.0801,-31.987,
6.7382,-1.3355,-0.96257,2.4403,-43.6285,-10.0132,10.8917,8.8541,8.7074,-14.7829,19.841,-7.3851,21.9121,-29.8269,
2.2365,-0.53222,-6.4484,0.6069,-55.1108,-11.5818,8.0688,10.4923,-0.73289,-17.5112,12.1429,-7.6647,15.5359,-34.0629,
1.3792,3.1151,-13.5333,-4.4912,-65.9041,-11.1278,-0.36909,10.1037,-11.5352,-12.8455,-0.39582,-7.4462,2.7931,-36.1164,
5.8762,2.2053,-15.8546,-6.8726,-47.8499,-7.8088,-7.3366,12.6307,-15.9045,1.1823,-5.4335,-8.204,-10.6306,-35.1545,
6.0056,0.62674,-10.565,-5.9783,-38.8326,-10.7148,-6.4145,15.2473,-10.1295,12.1981,-5.1075,-7.7118,-11.921,-31.5992,
7.8144,6.1328,-1.495,1.3698,-50.6027,-13.2054,-0.96791,11.6814,-3.4962,16.5279,-1.6676,-2.1879,-3.7339,-17.411,
16.0224,9.139,4.8613,6.59,-55.8819,-8.5564,10.1772,7.1239,0.56972,21.8025,6.627,6.1383,3.7208,-2.2663,
16.2663,0.63693,6.2568,4.99,-38.429,-6.838,14.146,5.4914,5.1151,20.2536,11.2912,5.5293,10.0052,1.8468,
9.0237,-7.1142,9.2557,11.9211,-28.2899,-8.3558,7.0309,7.09,16.8598,8.9156,16.3985,-0.58738,23.3848,-2.6025,
9.2052,-11.7488,10.8695,15.3034,-35.0284,-7.1313,15.5269,5.4595,24.7661,-3.9121,22.8861,-5.1317,32.3458,-9.4362,
4.3147,-17.3105,1.5406,2.334,-47.0267,-14.4163,23.7542,-5.473,9.1801,-17.7773,10.908,-18.9238,16.305,-22.97,
5.9838,-2.1718,4.3405,2.6757,-35.4076,-8.7309,15.0983,3.532,-5.2296,-24.785,6.8789,-22.0063,5.8061,-16.1688,
0.80426,11.3353,0.22366,3.4797,-37.6215,-5.7966,0.092414,6.2124,-8.2901,-35.3488,-5.5847,-25.5064,-2.2552,-16.1625,
6.2996,10.8962,0.93337,6.8861,-44.2823,0.57693,-3.4081,6.0809,-7.5519,-37.3255,-12.2398,-20.8427,-7.6633,-16.88,
12.9115,8.5554,4.4928,-0.034533,-38.974,1.7471,3.3041,5.475,-11.1962,-24.7216,-11.2644,-14.0481,-14.1934,-3.5749,
9.4855,8.7652,3.9823,-2.684,-44.5893,-2.455,-0.027148,6.3518,-9.801,-9.1383,-10.8295,-9.5898,-21.2955,7.0037,
4.3366,7.5159,2.5378,0.61028,-46.9759,-4.9591,-1.231,5.7291,-4.152,5.51,-7.5284,-2.0252,-15.4387,10.1986,
9.1383,7.3062,8.8935,0.81509,-30.0573,-4.9025,5.8327,4.1805,3.087,19.2794,5.2158,11.8351,-0.41241,18.5048,
21.3643,8.5548,18.724,5.8274,-14.1539,-4.3674,12.9545,2.2424,9.4097,32.2226,13.3385,14.7404,12.9894,22.9381,
23.4567,4.1852,17.1185,3.0675,-21.7404,-9.4079,17.9617,-3.6766,7.3988,26.9145,8.1998,-0.24404,13.1743,10.9566,
14.3363,2.4879,13.1988,-0.0090495,-8.3847,-15.1101,16.4021,-2.9741,6.4729,12.2842,7.2254,-14.3294,15.2759,1.1402,
13.4762,12.9437,18.6737,7.7045,-0.16882,-9.865,7.223,5.3993,14.2795,8.6548,14.9868,-11.7828,15.8058,7.3385,
17.7294,15.7826,14.4201,7.0014,-14.2587,-4.6937,3.6563,6.2805,8.3611,-2.2282,11.4366,-11.7986,4.9752,7.6212,
19.7989,10.7383,8.9754,-0.89028,-21.4773,-3.6889,4.16,5.1806,-3.4685,-15.8331,5.2071,-15.6702,0.57956,7.8873,
18.6109,10.5759,15.6675,-0.35516,-8.1375,-2.5035,2.4644,3.9056,-1.3324,-19.7036,5.8587,-8.9456,2.4727,13.1984,
16.53,10.4233,13.7633,5.9327,-6.6852,-2.3533,8.1011,2.225,1.6396,-19.9676,9.3631,-5.0344,1.8424,14.8167,
11.682,5.9417,4.2609,-1.1717,-11.5865,-4.1403,8.097,1.6096,-6.1711,-18.2872,4.9454,-10.9989,-0.67822,12.4819,
12.4271,9.9235,13.646,-3.512,-7.9993,-1.9637,5.683,3.4412,0.46522,-3.0899,4.6482,-7.4469,3.7008,12.2147,
13.8506,14.3896,18.3708,3.6888,-4.868,0.32354,1.7266,1.0654,4.053,11.1955,7.5031,0.9539,7.5763,6.9025,
9.6454,9.1879,13.4122,2.5031,-18.6759,-0.17826,3.5514,1.4838,-1.0109,24.6237,6.0885,0.89667,4.2292,5.0421,
0.14882,-3.6557,13.8125,-8.0111,-31.6553,-10.5314,12.2562,-4.149,-4.5655,25.1948,-3.6765,-12.8957,-10.1245,-0.80383,
1.1038,-4.4007,13.4657,-9.4589,-15.656,-11.346,17.7871,-7.2743,-3.8098,19.8265,-5.3844,-15.0142,-22.6532,-1.238,
6.3404,3.0945,7.3556,-5.0345,-0.61666,2.3504,2.6198,0.87491,-2.1345,20.0831,4.5801,-1.0975,-10.6882,9.4418,
0.65711,0.98036,4.5036,-6.1789,-14.3182,1.2453,-11.6373,1.7865,-3.4529,9.7189,4.787,-1.9962,-9.0833,8.3929,
2.5459,0.92154,7.1257,-8.7003,-14.4232,-8.9526,3.1609,-2.659,0.12868,-3.3973,6.9099,-12.9637,-11.9128,4.0329,
5.7673,2.7944,1.8777,-10.5886,-2.4706,-10.8258,14.1792,-6.838,-4.2176,-13.799,7.9414,-16.0425,-8.7876,2.3447,
10.483,8.6526,8.7549,0.41081,-9.312,-0.29385,6.3388,0.56192,-5.6515,-8.8734,7.2241,-7.6079,-1.2707,5.3375,
5.5157,1.8669,9.6759,-5.3984,-16.948,-3.1687,7.8867,-1.4,-8.6869,-10.2688,-2.8503,-10.0435,-5.5328,2.1252,
6.6308,6.093,4.2746,-8.9309,-1.8311,0.87777,5.4853,0.6122,-6.2375,-8.6888,1.6591,-5.5849,-0.38014,7.782,
3.0997,11.2712,1.367,-4.7796,-7.3853,3.9586,-2.3157,0.81644,-3.2117,-3.1058,2.2829,-6.4547,-2.5265,5.1462,
3.3959,11.0771,7.0698,-3.0468,-19.4755,-0.61747,6.5001,-1.6424,-3.9831,8.1676,-2.6746,-8.9597,-7.1954,3.8733,
10.4229,14.2689,9.0558,-3.8279,-4.2069,-0.58042,4.1819,1.3482,-4.7084,19.2467,2.3061,3.6295,-4.3535,16.1742,
6.9053,11.4843,1.2816,-10.8288,10.1455,0.4185,-10.169,4.1596,-7.8001,16.1639,2.168,8.2322,-6.9846,15.6859,
2.1524,8.8673,2.1688,-9.2154,1.1006,-0.57071,-9.9205,4.8741,-7.8143,10.8555,-5.6751,-1.421,-9.9398,8.4778,
-1.8333,7.8529,3.9666,-8.1806,-6.6784,-4.8752,4.7747,-0.72101,-5.8996,6.8297,-7.7452,-3.7459,-5.9694,10.8614,
2.1333,7.8641,9.0315,-5.2792,-0.97485,-4.1003,5.3318,0.28658,0.72132,9.3125,1.3967,0.81719,5.9584,14.0663,
11.6462,8.8383,16.2024,3.7145,-8.1472,-2.8902,-0.29048,5.5718,7.9091,9.7178,7.0977,-2.6061,10.9033,12.7404,
4.1986,2.5232,7.9994,-3.2571,-15.3714,-11.3939,6.9576,-1.9931,2.1317,-4.9652,-1.0412,-13.0548,1.0899,10.5295,
-2.0789,0.68455,7.2782,-9.0877,-0.34909,-12.3975,16.422,-7.4171,-0.16538,-15.8755,-6.5223,-13.9587,-6.4473,12.0669,
8.8921,5.7052,18.1697,-5.4089,13.7719,-4.6635,13.2676,-5.7673,1.0494,-8.897,-7.3358,-12.8802,-5.8195,9.1737,
14.3841,8.9783,16.8386,-3.3972,9.5713,-2.2146,4.5178,-0.8415,1.7098,0.072531,-6.1728,-10.9021,-8.6034,10.7927,
3.1572,4.8242,8.8386,-6.3264,-5.103,-8.1072,4.0057,-0.55004,-4.9003,-9.8138,-7.0073,-11.4533,-13.6308,13.2784,
6.583,4.294,14.3341,-7.1523,-6.6045,-4.4876,9.7912,-4.6146,-4.8475,-12.3582,0.88476,-11.0073,-3.8951,10.7944,
15.347,9.8204,16.8483,-6.2412,7.8918,0.60195,2.4548,-9.158,5.0843,-1.0119,5.17,-10.8288,-0.28696,5.8082,
12.4978,16.4623,16.3193,-1.0463,20.313,1.048,-0.58479,0.55029,14.42,7.2438,8.234,-2.9484,-0.26997,15.5829,
2.1069,11.6182,13.4122,-4.8394,4.9942,-5.2814,2.3428,0.9992,3.4319,2.4708,7.7404,-0.84288,-1.6996,18.5043,
5.114,7.3057,12.3663,-7.6825,8.4307,-2.7954,8.7097,-4.6044,-6.174,3.5279,8.9628,-3.9258,0.57156,14.261,
9.1455,5.4211,11.6245,-7.7035,22.0248,1.2288,4.3308,-4.81,-5.3212,2.8343,9.3893,-5.1365,3.4298,12.9234,
4.9816,11.1216,14.5422,1.6765,13.593,3.8064,-0.99054,3.9145,-0.42284,4.8331,7.1385,2.1613,2.0185,20.1015,
2.0313,10.2131,13.4287,4.2273,-1.3226,-2.9297,-1.1723,3.9208,-1.6025,6.2306,-1.7252,-0.61967,-6.0561,13.352,
8.6579,5.7439,20.8177,1.0811,0.56448,-7.5747,2.2725,0.3111,1.8681,-2.8203,-0.65785,-5.8851,-3.765,5.802,
5.4871,8.0506,23.1841,1.2574,4.628,-3.9869,2.8593,-2.3589,0.068535,-9.1588,2.5149,-3.3626,-0.40588,8.5871,
-5.4472,6.6035,11.6699,-5.0848,11.099,-4.2294,3.1699,-0.77133,-7.6481,-7.1633,-6.7948,-3.1611,-11.9505,7.5898,
-3.9153,-1.2648,8.8005,-10.3235,12.6024,-16.2682,4.1847,0.96241,-9.3586,-10.3486,-13.8592,-9.4792,-16.7773,1.109,
5.9608,-3.1169,17.4315,-5.8475,2.6872,-20.5945,2.0052,-0.059433,-5.9048,-15.0306,-7.2428,-9.3921,-7.5757,3.4526,
7.2904,2.6138,17.5907,-1.8812,6.6234,-12.3692,3.0902,-1.2612,0.47502,-8.5852,-3.1928,-7.6237,-4.4696,10.7171,
2.2737,5.1083,12.4381,-0.08089,7.4315,-13.796,6.0381,-4.8007,2.134,-6.3826,-6.6164,-10.7815,-8.2986,5.495,
5.2703,6.4888,18.1993,1.129,4.8162,-18.0299,2.0606,-4.2719,3.211,-7.2047,1.7341,-5.0732,-0.32906,-2.3068,
9.2926,7.5459,22.4098,4.4355,10.3118,-14.538,0.49046,0.80489,10.249,-0.023739,15.6095,1.9799,8.3676,-1.6862,
-0.66492,-1.8249,15.5218,5.8566,-2.1173,-18.7271,5.0408,-3.3408,16.142,6.4852,14.432,-2.7182,-1.0526,-2.7903,
-3.0352,-1.7154,17.0006,3.5768,-10.6671,-16.6394,6.1844,-4.5863,18.5477,16.7011,10.6738,6.1218,-1.4716,3.1617,
7.0287,6.341,19.5958,4.0853,4.0729,-7.2054,-1.1763,2.6785,11.891,17.386,7.864,17.0824,1.75,11.8898,
5.8843,4.2738,16.7333,4.5633,9.0107,-6.5316,-5.6853,7.0973,6.1165,3.5691,3.7769,7.622,-7.2724,12.382,
3.8438,2.3299,17.4163,6.4589,-5.6299,-9.7554,-4.1391,5.4664,8.4004,-1.225,-1.5116,2.1028,-10.9341,9.4696,
5.0592,6.0465,15.8891,7.9993,-11.1976,-10.1344,-1.4804,2.7281,5.9684,2.2227,-7.2052,6.7971,-6.4214,6.973,
1.8636,5.2018,10.5975,5.1093,-1.3665,-8.562,-2.8378,4.0106,5.1284,-1.7666,-3.8804,4.4616,-6.5181,8.0012,
1.7517,3.9256,8.0334,3.8388,1.1258,-5.6379,-7.488,7.6264,6.2669,-11.3015,-0.75553,-0.62684,-10.9477,8.4852,
6.9493,6.5823,6.1054,-1.6944,1.0583,-2.4074,-4.1462,4.2765,-2.786,-11.1056,-5.0483,3.2674,-9.3263,10.3862,
2.6755,-0.56151,-2.9383,-12.198,-2.3799,-9.9759,4.2972,-3.2109,-10.814,-10.4393,-9.0842,2.5889,-10.6954,6.3886,
-1.1002,-5.5893,0.85368,-5.4401,-1.514,-14.4388,2.3522,-1.331,-1.2471,-11.5001,-7.3343,0.26445,-15.1153,-0.020292,
5.7145,0.53067,9.9613,1.1528,3.3973,-8.7522,-1.6453,2.6052,3.1661,-5.0256,-4.966,5.5508,-16.1366,2.3911,
6.3361,5.8015,6.4715,-2.2906,13.3169,-7.7447,0.86374,0.038538,-4.7364,4.4352,-2.7396,8.5924,-11.3118,7.5505,
6.4379,5.4538,8.4936,-2.6351,13,-5.8338,-0.63435,1.4825,-4.9342,1.759,-2.5748,5.6667,-11.115,4.2054,
6.2928,4.4035,9.671,-3.2001,11.9788,-4.2787,-1.8013,2.5986,-5.3613,-0.99786,-2.1796,2.1935,-11.1712,1.3015,
6.397,4.139,11.0189,-3.0083,11.742,-3.0579,-3.1393,3.8887,-5.5217,-2.8664,-2.049,-0.34849,-10.9831,-1.6691,
6.0134,2.9266,11.8038,-3.7919,10.5556,-1.9103,-4.3974,4.6195,-6.1545,-5.5867,-2.4078,-3.2199,-11.2882,-4.9432,
5.1702,1.7867,12.5418,-5.0107,9.4401,-1.3137,-6.5437,4.8247,-7.2315,-8.626,-3.2277,-6.4011,-12.0572,-8.5032,
4.619,0.47419,12.5122,-6.3973,8.1505,-0.99394,-8.8026,4.7762,-8.4849,-11.7238,-3.7574,-10.1144,-13.5029,-12.0904,
3.1368,-0.75887,12.0027,-2.8797,10.3128,-3.1035,-7.5509,8.5872,-1.4681,-17.0462,-2.3264,-14.0871,-12.4516,-24.6213,
6.805,4.5893,10.8006,4.0415,20.2993,-0.5069,-1.7952,11.446,5.3689,-15.541,2.6339,-17.0982,-5.9199,-37.2441,
4.7097,5.519,9.9114,-0.2981,18.3583,4.585,0.96338,15.8211,-0.49705,-12.4396,5.6091,-17.2774,-0.50324,-41.3964,
-2.8037,2.7773,7.3885,-4.619,12.9182,1.4176,-6.3253,12.9432,-7.6981,-10.7289,0.9338,-12.3844,2.4195,-35.0565,
-4.3227,0.92343,-2.9368,-5.5471,10.4559,-3.7292,-11.007,8.0693,-7.9591,-6.4698,-1.2914,-8.9902,-0.37725,-32.2299,
-6.7145,-7.0857,-7.3401,-5.9372,12.962,-3.2642,-5.2853,10.2367,-2.4203,-2.4662,0.95525,-7.7274,-1.5594,-36.8039,
-13.5427,-11.4811,-6.8997,-6.5451,10.2561,-2.5864,-4.486,11.5504,-4.2031,-4.2466,0.41578,-7.746,4.8004,-37.4879,
-7.4272,-7.418,-12.7524,-14.8292,7.7126,-4.3594,-4.2167,6.5188,-5.8793,-3.5097,-2.0191,-5.3532,8.8509,-32.3464,
1.2131,-9.383,-12.9514,-17.7959,15.9267,-6.0261,-3.4817,2.2713,-4.5622,-1.8533,-5.2724,-7.4422,3.4996,-33.2979,
7.1659,-7.6147,-0.84587,-5.3999,23.4072,-1.5669,0.82454,8.643,-0.67306,-0.53632,-2.7869,-11.093,9.3152,-32.987,
8.9051,-2.5786,1.856,-0.49619,14.5307,-2.196,0.5341,10.2936,3.4647,-7.494,0.03189,-12.5966,16.2281,-32.695,
8.8529,-0.97783,1.2625,-0.46665,16.069,-3.0284,0.98422,9.6757,6.631,-16.2036,3.8861,-12.3229,10.9158,-33.1437,
4.2242,-10.8009,-0.018358,-7.9107,22.0947,-5.9801,5.5047,4.9981,-5.0948,-29.3314,-2.8547,-21.9477,2.3069,-38.1447,
6.8632,-8.7066,2.8753,-5.9898,19.805,-2.7288,8.5489,10.0008,-4.3072,-38.7792,3.5835,-21.1127,13.2557,-27.6611,
12.236,4.3489,6.0767,7.867,21.9909,6.1115,3.2152,13.7391,10.0512,-38.3807,14.9372,-11.1693,17.763,-12.9862,
12.7069,6.2573,6.4355,5.7079,28.1435,8.3964,4.7093,7.3714,8.6048,-40.6574,6.5694,-12.1862,5.8512,-14.3762,
10.7397,-0.14366,2.4339,-2.1063,23.8035,-1.0252,6.114,6.2057,-4.204,-37.0126,-4.1886,-15.5524,1.8847,-13.7546,
5.2746,-0.1355,-2.0506,-0.5337,15.1445,-1.928,-0.037456,8.7254,-2.9879,-20.6919,0.401,-9.317,5.1456,-3.2886,
4.4759,3.7292,-0.48157,2.8725,7.005,6.8645,-1.4812,6.7559,1.5299,-5.3504,3.2692,-5.3833,4.3552,2.2114,
4.9305,-0.1097,-0.21125,0.53126,5.8618,4.7657,-1.6331,1.7715,-3.1409,8.9504,0.42176,-5.7835,-1.4495,-1.0543,
-3.0781,-3.4776,-5.5012,-1.9112,14.6691,2.0694,-6.3558,0.70086,-3.4349,15.6438,5.2172,2.2763,-2.8088,3.8294,
-5.5447,-1.0995,-4.9302,-0.10907,14.0299,7.0071,-8.6258,-0.064326,-2.0233,23.141,5.1453,8.1655,-1.4352,12.9997,
-0.15059,-5.6135,0.90901,-4.2001,9.0905,6.345,-4.4931,-2.2299,-7.4457,20.5475,-3.1178,2.1318,-4.4828,12.4604,
3.956,-10.8201,-0.83253,-11.4201,20.3552,-1.0253,-3.9823,-3.7831,-11.0965,8.4682,-6.064,-4.0219,-9.2753,6.1692,
8.298,-4.6273,0.42226,-8.0834,21.7853,-2.1686,-7.3588,-3.3151,-10.6717,-5.2963,-7.3874,-4.9854,-7.0315,3.1477,
10.9336,-4.1087,5.4586,-3.983,7.7039,-0.35152,-4.7481,-3.8391,-3.5239,-13.8961,-9.5952,-9.748,-0.5841,1.2718,
8.8315,-10.6108,4.6492,-5.19,14.4725,0.15174,2.2855,-7.9473,1.9904,-21.7392,-8.0554,-17.3578,-0.54882,2.6418,
9.9889,-6.3588,7.5035,-7.5302,27.3427,2.3118,4.7999,-6.7476,-4.637,-31.7631,-4.4386,-15.1113,-1.2388,9.9551,
18.5486,3.6637,16.6942,0.15249,16.5431,8.4398,3.5476,1.8525,-4.3588,-29.3754,-2.2441,-5.5275,5.102,18.0347,
13.579,1.034,7.4981,2.0718,3.0173,6.4874,-3.4139,-0.18712,-3.1327,-21.3461,-4.5198,-7.1243,1.9036,17.4347,
3.6055,1.4537,-2.1111,-4.3193,7.6565,4.1697,-1.7631,-5.4783,-4.3912,-10.4246,1.5357,-3.8045,-0.13901,24.1012,
-0.70843,3.0539,0.18499,-7.1934,6.4742,5.1246,-1.4161,-6.8366,-8.2249,-0.88081,3.131,-0.92495,-1.8177,27.2346,
3.1905,2.8702,2.1021,-4.834,2.2291,8.1916,-10.0082,-3.5344,-7.7318,13.272,1.4969,-1.8333,-5.0831,24.1543,
0.34771,3.4216,-2.6036,-8.1592,-5.8581,5.5312,-18.8075,-7.9018,-6.0624,20.309,0.68397,1.4099,-9.3571,22.4643,
-0.87821,11.1698,1.1683,-2.6077,-4.3016,6.8863,-9.2432,-6.7046,-3.5293,21.2598,2.8123,10.2432,-10.0008,26.1779,
0.37954,9.7765,2.3028,-5.1031,0.53581,4.3037,-16.1606,-4.1334,-11.2719,10.584,-6.2747,-1.2174,-16.3908,17.6176,
9.2748,16.1798,4.3338,-6.4841,6.0473,9.1072,-25.0729,3.1045,-14.693,5.8516,-5.6568,-8.1343,-14.2025,18.2473,
8.2364,15.6909,1.6637,-10.4334,1.3461,10.007,-18.7478,0.99005,-16.7035,-2.6942,-6.2817,-8.1281,-14.3143,15.7067,
7.0189,12.5803,6.6251,-7.6382,8.2548,12.0577,-5.3309,0.20729,-11.122,-7.5947,-2.7713,-5.9537,-10.8043,13.559,
9.9724,17.1279,12.4948,-0.43124,8.7238,10.8521,-11.7597,-1.7331,-10.4544,-11.4771,2.6974,-8.4883,-8.7096,18.0483,
15.8813,25.0185,10.5395,1.764,3.6209,10.4421,-16.5977,-0.906,-9.5864,-14.4041,2.7767,-6.292,-6.5,18.6524,
13.7236,20.8659,7.2561,2.3811,7.9831,7.1641,-5.2378,-1.5745,-7.324,-17.1548,-3.4154,-9.5299,-6.351,8.1333,
11.6951,10.2141,13.3284,5.3719,9.1914,2.6371,-3.2361,-4.1314,-6.6434,-14.9205,-4.8975,-16.4297,-8.6212,5.4761,
9.5469,5.2627,16.8673,-1.2171,6.2295,-2.824,-10.7551,-8.2221,-10.1014,-4.8664,-7.9783,-13.9979,-12.9244,9.0037,
7.2869,10.0082,14.168,-0.90313,11.3991,-5.3059,-7.4585,-6.0415,-6.3618,9.5255,-6.2948,-3.2761,-10.4617,11.1148,
-1.1038,9.6489,8.7384,-1.0901,5.1718,-2.8182,-8.216,-2.5458,-5.257,15.1,1.073,1.0181,-9.1109,12.6173,
-5.3762,1.8394,9.1782,-5.3628,-3.3332,1.2073,-14.4718,-3.839,-7.8338,11.7841,1.9727,2.403,-10.4927,13.3063,
0.0078663,-0.92233,13.207,-4.3184,3.8564,-2.9625,-7.0957,-7.7063,-3.7486,13.728,1.6131,7.3203,-7.2118,14.6773,
-0.23334,-0.14386,11.6915,-5.2643,5.7944,-6.3999,6.1047,-9.4128,-2.3182,4.9508,3.6857,5.676,-2.1996,13.5559,
-0.70173,4.6855,9.0618,-6.3943,-1.7841,-0.23157,-0.046637,-2.5816,-10.3743,-9.4463,2.0183,1.4791,-0.62133,9.8501,
3.1968,4.4039,6.108,-8.9031,-0.231,-0.21767,-11.613,-0.016534,-18.9108,-17.9178,-1.9591,-3.4299,-4.4404,12.1511,
6.8613,7.5141,5.2595,-4.9945,12.3161,0.75971,-5.1316,0.46639,-13.4379,-12.9868,-1.8416,-6.1167,-5.6203,19.6172,
3.0752,13.3298,2.0515,-0.35651,15.4335,7.4626,-4.8237,4.7767,-9.7391,-14.1358,-5.5875,-10.5704,-12.032,13.6195,
0.48033,13.0122,2.4105,-1.7816,5.3485,5.5688,-18.6343,3.526,-12.047,-13.2874,-5.7344,-13.3104,-17.0944,7.9818,
3.585,8.1341,8.2914,-3.3615,-7.2647,-3.2015,-21.4931,-3.6749,-13.9758,-11.7673,-8.0414,-13.717,-15.8278,11.6003,
7.9499,8.3692,10.9272,-0.9904,-2.2491,3.0164,-6.1035,-6.5877,-8.0753,-5.0355,-5.3896,-7.3502,-9.8166,15.9661,
5.7854,9.0721,6.6564,-1.6541,10.6601,12.2356,8.1217,-2.5773,-5.9038,3.7026,2.4054,-5.7041,-6.0939,16.6952,
1.1,7.0819,3.8469,-3.4831,7.6104,5.235,-5.863,-0.97636,-12.298,4.4447,-1.1129,-8.7359,-8.6208,16.1754,
3.9263,4.7286,5.544,-3.7562,5.7075,-3.7564,-2.1369,-2.3638,-11.0784,4.6598,-6.349,-3.3917,-10.5139,16.6509,
4.6548,1.5526,5.6936,-4.495,6.3291,-2.0846,3.2937,-2.2222,-8.0034,1.9703,-2.5939,-1.2598,-9.8829,11.3138,
-2.8556,-0.95091,4.3878,-2.2973,0.16457,-0.031525,-6.063,-1.1248,-5.5952,-1.0407,-0.51026,-4.5588,-5.4337,7.7422,
-2.4428,-2.0991,2.4373,1.456,1.36,-2.1988,-5.9399,1.1123,-1.1617,-1.7012,1.208,-2.1157,-2.4562,13.3037,
2.7652,-3.1783,4.4605,0.16354,5.376,-5.2001,0.92418,-2.0881,-1.3332,-9.0707,3.7869,-2.7119,-8.3346,13.7105,
2.8405,-0.33624,9.7362,-1.5333,1.438,-6.0932,0.62776,-5.578,2.8444,-13.1059,4.7647,-0.86172,-9.5215,9.7546,
2.6701,3.5408,7.7058,-0.95934,-3.4688,-8.1379,0.59009,-5.2434,3.6381,-13.7658,6.407,-0.32808,-3.6475,9.6513,
6.366,4.292,5.7974,-3.7941,1.5596,-5.7215,1.5186,-4.447,-6.7038,-16.3146,7.4686,-10.432,-3.4289,10.5182,
8.6354,3.3113,8.1009,-7.664,5.5636,-3.6912,-1.2239,-7.7954,-11.845,-14.6121,-1.8973,-21.616,-10.2128,7.2358,
7.1532,7.4512,7.1327,-2.3837,2.8197,-6.8439,-4.0427,-11.6662,-6.7957,-7.951,-7.5683,-19.8371,-11.5285,7.2838,
5.2775,11.3427,3.8124,0.65163,2.6503,-5.4692,-6.2105,-7.592,-6.3882,-2.1716,-5.6682,-14.7905,-6.9806,9.7391,
3.0329,10.1804,2.6196,-2.2793,-0.88275,-1.2844,-5.3553,0.094552,-8.4148,1.3334,-6.2917,-13.9028,-9.4536,7.7087,
-0.041391,3.3024,1.9803,-2.6252,-9.5071,-7.4743,-2.1421,0.57104,-4.0538,2.6994,-5.4325,-10.6587,-15.1531,4.8358,
0.92519,-3.1625,2.3436,0.42509,-12.3109,-9.9182,-1.0495,-3.3198,3.4201,5.9117,1.6421,-6.6448,-9.9054,9.3662,
2.3159,-5.3829,1.7211,2.8097,-10.1262,-2.0922,-0.98653,-4.0845,6.1074,11.3416,5.8819,-0.46127,-3.0446,18.4452,
-1.9204,-3.8546,0.4125,-2.9025,-3.9748,-0.27948,0.27795,-3.1165,3.5718,8.01,5.2885,3.6638,-6.4773,19.99,
-8.0721,-6.5159,3.2803,-6.5847,-10.0031,-8.4577,-11.79,-4.8577,-1.9452,-6.5706,-4.1878,-8.6074,-15.7296,10.5954,
-2.0444,-7.8119,5.7343,-2.5744,-11.0901,-2.8887,-16.1443,-2.8793,-3.9978,-10.6356,-7.5522,-12.6705,-9.7244,12.1291,
4.8274,-4.4509,1.0522,-4.8299,3.6753,4.0333,-1.0757,1.1501,-4.7221,-5.6585,1.0958,-2.2693,3.8747,21.0426,
1.6452,-2.7376,0.024713,-3.5762,10.083,-5.3675,11.8838,-0.84711,-2.5106,-8.6934,4.4046,-4.0613,3.1598,13.0311,
3.9571,-2.5733,13.521,4.3511,-1.6092,-11.3122,6.8325,-1.2782,7.7634,-7.6899,7.0323,-15.3868,3.9346,1.6439,
3.9606,-7.4806,20.1816,5.7773,-8.9843,-11.8386,5.2174,-3.8526,11.8769,-3.6131,17.4567,-17.1147,7.7958,0.8224,
-3.5078,-8.96,10.2936,2.5386,-3.6247,-15.9487,-1.8443,-8.4422,7.3079,-5.3245,21.7119,-8.857,2.0254,4.6294,
-7.8769,-5.2891,2.6863,-3.6395,-6.0586,-17.6431,-9.6876,-11.0689,2.2899,-5.2462,10.527,-5.1923,-3.1575,7.9673,
-7.1635,-4.7306,5.176,-5.5905,-9.3105,-13.4513,-4.527,-12.0922,-4.8371,-3.2444,-3.3612,-7.5323,-6.1013,4.3556,
-3.8414,-5.4108,4.3833,-3.8091,-2.9675,-9.7519,-3.2911,-12.8127,-8.8854,-3.5315,-9.9082,-9.4907,-12.002,5.0583,
-2.1647,-5.0862,1.7106,-4.5444,-2.307,-6.7564,-8.3963,-8.6695,-4.4959,-2.3553,-9.7957,-5.5466,-12.7281,13.4319,
-3.2399,-5.0222,1.8487,-5.9592,-3.3739,-3.2178,-5.2414,-5.0161,-3.503,-1.9732,-8.9667,-5.455,-8.3493,11.9029,
-0.87609,-4.4797,2.9429,-6.3248,4.3003,-0.37341,-2.7575,-5.4382,-2.5697,-5.9524,-8.6699,-7.2968,-8.089,5.6449,
1.8276,-3.9699,1.5615,-3.7757,1.391,-4.9305,-1.869,-8.7274,1.1999,-11.1389,-8.3907,-9.5104,-12.1834,6.5115,
1.9589,-3.9727,4.1189,-4.7544,-7.6103,-11.6243,-1.9978,-15.1931,-1.0413,-9.2652,-7.1639,-12.073,-8.8009,2.5054,
5.9389,-0.60108,8.9332,-4.7099,6.9463,-5.8654,-3.5651,-11.6307,-5.0764,-3.6479,-5.0471,-11.1076,-0.31886,-0.77822,
7.993,-1.5291,5.023,-6.8376,20.6295,-4.5494,-8.6539,-6.1124,-7.6641,-11.6239,-6.6727,-12.8515,-7.5308,0.23257,
7.7543,0.24986,7.8546,-5.2225,16.7404,-1.1432,-4.0373,-3.0941,-2.1426,-15.0239,-3.6207,-8.947,-11.1763,2.8697,
3.1915,0.958,10.999,-1.7755,1.636,-2.2797,-2.5898,-6.5241,-2.7371,-13.8812,-6.0548,-9.6152,-8.8183,-0.43573,
2.0361,-2.4739,6.9646,-5.0434,2.8636,-8.4094,-4.3626,-10.4709,-6.9112,-10.6382,-4.7272,-6.6279,-10.2174,7.3036,
-0.25541,-5.4588,0.52095,-11.2485,3.8969,-6.6998,-8.6803,-8.6376,-5.2915,-6.8667,-1.3108,0.75915,-12.738,12.8907,
-2.6504,-4.1671,2.4181,-9.61,-6.4603,2.3791,-18.2826,-4.7451,-6.4205,-7.4188,-4.1244,2.642,-13.4198,6.3325,
-2.4912,-4.8812,1.7909,-8.5507,-2.698,-2.5841,-14.7753,-5.9065,-6.517,-5.5272,-3.3948,2.9657,-15.5069,3.0607,
0.55057,-1.2141,-3.619,-6.1097,11.5639,-1.9469,0.090709,-4.588,-0.3416,3.4813,3.5576,9.0545,-9.756,2.3949,
2.4457,4.6433,1.4188,-1.8868,22.3187,12.2699,1.0494,4.3644,3.0533,8.0927,0.93399,11.4033,-2.9037,-6.9078,
5.4322,0.74953,6.3952,-2.9786,7.7232,24.1877,-4.5572,9.6459,0.21883,-0.34682,-5.1478,4.2114,-7.7914,-17.3394,
8.7217,-0.018802,2.878,-1.1127,1.234,13.8183,-1.1505,9.7905,-1.4815,-5.3872,-3.1517,-1.103,-7.5648,-24.7352,
3.8599,3.357,-0.187,-0.081819,5.0164,7.6864,0.36454,5.8284,-2.8387,-7.9563,-4.4087,-6.3392,-2.2905,-36.2665,
-0.2281,4.6018,4.1625,2.8156,7.1258,8.1895,-1.5853,6.443,-4.1146,-8.4432,-5.5904,-10.7794,-0.22484,-41.3211,
-7.686,0.22815,-4.5231,-1.9328,-0.29143,4.0829,-5.1056,7.7434,-8.4472,-9.6236,-6.942,-15.1941,0.029844,-45.3495,
-7.2251,-1.714,-4.2515,-1.8171,-0.27417,4.3197,1.9494,9.6892,-4.0838,-7.6002,-4.1151,-10.9082,12.0794,-46.4849,
-0.042884,-2.5752,3.2342,3.1124,10.8295,7.4349,4.7247,9.59,1.4636,-6.1801,2.8805,-6.8792,17.6214,-40.8036,
3.5751,-2.6617,-1.0572,-0.20782,11.867,10.1221,-0.13826,10.2199,1.1349,-6.0502,4.3949,-5.7434,12.4663,-32.8117,
1.4326,-1.5379,-3.8861,0.28727,7.7807,12.8895,-0.12974,14.4272,1.067,-5.2051,0.27458,0.86798,12.2005,-27.4686,
3.998,-2.6507,-1.9654,5.8134,12.8575,12.8392,2.5291,16.6948,0.76178,-5.134,2.4275,3.9492,13.1559,-27.5077,
13.6398,0.1597,-1.6068,2.3309,21.9677,15.2017,2.6181,14.4876,-0.97138,-7.4772,8.7891,1.0607,13.0892,-24.1705,
13.3034,4.9704,-3.4386,3.1554,25.4702,17.1821,4.3892,12.1721,3.4252,-10.885,10.1899,2.9252,13.7501,-18.8638,
6.4799,4.9133,-3.4734,11.8839,20.3268,13.9822,12.0801,12.6473,11.6561,-9.5088,12.2303,9.7396,20.3971,-14.5983,
4.4036,2.9315,-4.4701,7.5557,15.0098,8.0814,11.1143,8.7552,3.9671,-6.2869,9.8091,6.5041,20.3784,-11.5532,
4.1396,7.0937,-4.6841,1.7994,18.9297,11.4531,1.2882,5.3376,-5.4302,-5.4275,6.3282,0.32905,15.2991,-6.0393,
1.4807,5.2219,-3.4387,3.1377,10.0809,14.6223,-3.1277,5.0169,0.19824,-6.0662,5.9485,0.79124,16.3093,-2.7851,
2.8381,1.0526,-4.1967,3.9138,-3.5391,10.8525,0.43446,7.6084,4.0427,-4.7379,3.1815,4.6002,12.9206,-4.0641,
2.909,0.74827,-5.6319,0.54525,3.1807,12.3707,1.1318,10.2851,-4.1538,-2.7666,0.82121,6.4935,2.2632,2.6875,
-4.0145,-1.2248,-8.6684,-2.8615,13.1132,13.5567,-6.6492,5.8116,-2.9402,-4.5288,0.29,4.6577,-4.1391,5.4188,
2.011,3.187,-2.8457,4.5406,12.8081,12.2609,-1.9119,6.4273,7.841,-4.2571,3.6466,7.2705,5.2678,9.4317,
8.1571,5.4061,-1.2289,6.6785,11.5579,10.5616,8.3262,7.4877,6.8888,-5.4477,7.7668,8.7627,9.2908,14.1689,
9.5961,4.1177,-2.6012,7.2419,14.2387,11.3739,5.4163,1.736,4.5471,-5.1211,14.5314,7.2726,6.8049,15.2468,
10.4666,2.4243,0.44693,3.4334,11.9381,12.1377,-0.6933,-8.4915,3.3104,-4.8138,15.5877,5.3902,6.8785,12.8857,
10.8029,4.6895,6.2052,3.2274,11.222,11.8914,2.2408,-4.1252,2.1479,-5.0069,11.7604,2.6567,-0.28262,11.1487,
4.6107,5.6129,3.1813,3.7567,10.3075,9.4907,4.7575,-1.2266,-0.15059,-8.8039,4.5468,1.292,-10.63,5.4181,
1.6827,3.5892,0.82148,-2.0121,7.5199,11.5726,13.8722,-7.1788,1.0635,-5.1424,3.5509,5.3123,-4.4483,5.3342,
0.13593,2.8919,4.1466,-3.3377,3.2123,7.0218,4.3628,-10.122,-0.44611,-0.97744,8.1586,3.5473,4.4957,10.3168,
1.5736,8.021,5.3436,4.0934,3.0196,3.2261,-9.999,-4.2125,1.0265,-0.43686,7.1871,1.8882,2.7797,15.9643,
-3.1004,7.7805,-0.038419,3.6066,7.4177,6.1658,-8.5556,-1.3085,-1.6864,-2.0976,-1.1985,2.498,-3.4129,16.6934,
-11.8324,5.1445,-8.4722,-2.1534,6.2497,7.965,5.2141,-4.8454,-6.6469,-1.7308,-3.2958,-4.1598,-7.3059,15.4509,
-7.0249,7.4872,-4.3483,-1.301,-1.597,4.3538,-0.64237,-4.7958,1.7058,2.9525,2.9277,-3.6692,-6.6264,15.7289,
-4.675,0.77118,1.215,-3.1514,-5.3576,-2.1742,-1.0858,-10.2924,1.1213,1.3294,1.306,3.7817,-12.0132,10.4466,
-12.1075,-5.5418,2.1062,-3.9264,7.979,4.223,11.0307,-6.3007,-1.8382,3.1776,3.1556,12.2317,-13.2208,13.6764,
-16.6837,-6.6556,-0.43026,-5.619,1.7157,6.3802,-0.23643,1.7901,-0.28169,2.9869,3.9306,7.6414,-10.9813,17.1941,
-9.8981,-2.8818,-2.8146,-5.2819,-12.4872,1.6587,-11.7914,-4.5838,-3.1568,-0.56676,-2.5722,1.8803,-12.2506,10.8599,
-6.1705,2.3526,-0.9587,-4.2418,-2.6994,1.8003,-0.71982,-10.8165,-3.2086,0.67277,-3.6229,3.4549,-11.2744,8.5213,
-10.38,1.0061,1.268,-4.2283,11.5625,3.8615,1.9745,-9.9265,-1.3289,-2.0191,-6.539,2.0423,-6.9829,9.6972,
-5.4184,0.46427,6.0126,-2.0464,10.0252,4.5941,0.41019,-9.8129,-1.7311,-3.3443,-11.9308,2.8839,-2.7071,10.0792,
0.93225,3.5694,6.8567,-6.5029,7.7364,4.077,6.8931,-10.4294,-1.3863,-0.97398,-11.4559,1.5058,-4.2319,7.3053,
2.5635,5.5244,7.1687,-2.0154,13.7802,3.5914,12.5055,-3.2957,-1.0621,-0.67458,-9.5637,-2.6819,-3.737,2.7697,
4.0967,4.4698,10.8357,7.5053,16.0864,-0.72116,11.0318,-2.8572,-1.7215,3.463,-4.4104,-1.3159,-3.2721,-2.4582,
5.7791,5.166,9.7036,7.055,9.3366,-8.3909,8.9236,-9.4344,2.2382,13.3786,2.6031,4.5476,-6.9321,-5.203,
1.3348,2.6866,4.5419,-0.35795,3.233,-10.5388,7.6653,-8.6272,4.2733,13.299,2.6877,6.9261,-9.1675,-2.2395,
-2.1193,-1.8129,5.2337,-2.7466,4.0032,-3.1578,-1.4715,-4.2529,2.0887,8.6447,0.59823,8.4387,-2.3505,5.1257,
-5.3668,-2.6682,2.9912,-3.064,-3.4679,-2.9681,-10.5422,-6.4083,-2.8574,3.3055,-1.8476,6.0044,-2.6916,5.7823,
-6.4908,-1.544,-0.56247,-5.2905,-0.36751,-8.5748,3.5877,-6.5058,0.2066,1.6607,1.1556,5.6439,-5.4224,4.4712,
-0.79875,-3.3796,-1.0107,-5.455,13.7545,-2.2753,15.4237,-3.2229,2.6043,-0.84907,3.4964,9.1617,-3.1689,6.1312,
1.9005,-3.8999,1.7013,-1.5125,6.3011,7.743,11.847,2.9958,-3.5777,-5.3776,1.5991,5.9607,-7.0763,6.0045,
1.786,-0.77387,6.4195,1.9527,-8.0567,7.2784,18.367,5.2262,-0.95292,-5.5374,-1.3889,-1.1459,-7.6161,4.198,
5.7767,-1.9323,7.7215,1.1126,6.5267,1.2981,15.5778,-1.5949,3.2021,2.2671,-4.921,-1.3179,-0.16879,0.33066,
12.4199,-2.0573,2.679,-3.0515,20.2351,3.3893,0.54309,0.18803,1.3227,12.013,2.3642,7.1971,3.4568,2.48,
5.1666,-2.1751,-3.5076,-7.4484,16.6108,-1.8755,-7.082,3.31,-0.4441,8.6409,6.8014,6.5241,-2.7769,4.5006,
-1.6507,-2.7677,2.7287,-1.9395,5.7323,-7.3063,7.4429,0.46009,-0.65819,4.0254,-1.5602,3.4818,0.52344,4.9537,
2.7867,-3.5655,7.8671,2.5151,2.496,1.8087,6.1529,1.3968,0.34517,6.6759,-6.7693,10.0213,5.7947,5.6203,
-4.129,-4.7978,-5.1379,-1.4921,-3.4383,7.0028,-6.2673,0.83106,-1.1216,5.7934,-2.9886,11.8302,-8.653,3.3549,
-11.1123,-2.5815,-10.6144,-6.2231,-10.9448,5.1366,-3.4812,0.29904,-4.4283,2.5535,-2.3272,5.8179,-18.1362,6.0459,
-8.2762,-4.1141,-3.9518,-8.501,-19.6881,6.0335,-4.9595,1.4862,-13.5628,-2.1792,-13.516,0.40741,-18.7355,6.4063,
-8.5027,-1.6979,-2.0277,-4.3758,-19.2302,9.7686,-18.7619,-0.29047,-12.9902,-3.254,-15.3563,-0.82256,-20.7446,3.3706,
-12.5721,3.9474,-5.0393,-5.8002,-8.1942,9.9056,-13.6594,-0.99617,0.081471,-1.3713,-7.4453,-1.9783,-13.9566,2.9276,
-11.3358,4.6744,-5.2189,-8.3447,-4.8103,9.3113,1.2602,2.4381,-0.40535,-6.5917,-3.6241,-1.3776,-9.2628,7.5722,
-9.6916,-3.8005,-4.9055,-9.2896,-10.306,6.3427,-4.7205,-3.4926,-13.3964,-19.6933,-6.7809,-0.81236,-14.9733,6.1538,
-5.2532,-5.0188,0.69147,-7.286,-5.3491,4.5159,-6.8474,-4.7293,-5.8438,-16.5835,-4.9278,1.1646,-4.9159,6.2669,
-6.6257,-1.5841,1.3724,-6.1264,7.2639,1.1114,-1.8572,-3.2407,1.4965,-11.4916,-3.9092,-2.0388,2.8504,5.6495,
-3.8176,-0.52523,7.557,-5.2764,6.3462,0.080887,8.3776,-2.5639,1.4067,-8.3915,1.146,-0.95259,-2.6233,9.1669,
1.9546,-2.6629,15.0574,0.10139,-8.1346,2.2452,16.7925,-0.24087,3.4912,-4.755,4.2103,-0.17231,-5.5989,10.3041,
0.6325,-4.6723,10.0566,-0.14566,-0.77738,2.8334,6.385,0.97888,4.0049,-2.3001,-3.0317,-1.8492,-4.5401,3.6603,
-2.0568,-7.5252,2.9455,-7.6085,13.3693,0.97638,-7.2545,-4.1418,1.1133,-0.47507,-5.0192,-1.0149,-5.9546,5.6101,
-0.24591,-9.725,3.4919,-6.4289,15.8211,0.19467,-4.6496,-7.9904,0.32382,0.27656,-0.62047,-2.6412,-8.2487,10.8173,
0.97345,-6.9726,2.5592,-6.2843,1.615,1.3881,-3.1661,-7.7522,-1.3831,-0.94509,-4.1989,-4.17,-7.995,6.0703,
1.397,-2.2154,-0.0049136,-7.8355,13.0875,-0.62342,-4.4221,-4.8769,-5.6384,-0.40645,-7.8033,-4.4022,-6.5514,1.8497,
4.9286,-3.2878,3.1289,-7.1244,9.6509,-3.7195,-0.54114,-6.2715,-6.0235,0.82323,-5.166,-3.8966,-8.8094,2.944,
4.3921,-0.43921,5.1105,-5.0094,-5.0282,-0.84501,-4.6063,-6.136,-4.9385,-1.8775,-5.0968,-4.8679,-12.378,3.4905,
-2.1381,5.8539,1.9116,-2.7809,-0.99057,3.0623,-9.1506,-1.9116,-9.4631,-4.6571,-8.6476,-5.5404,-13.0818,1.8345,
-3.2149,7.1897,1.5557,-6.2292,2.2023,2.6374,-3.5399,-1.5557,-15.403,-4.137,-7.8875,-4.9667,-7.2354,4.8582,
-0.12996,8.6865,9.6575,-3.9273,-5.1606,3.4435,-8.6301,-4.8369,-10.6225,-2.9244,-8.3786,-8.5251,-7.2832,7.9407,
4.4576,12.745,16.0675,4.744,-4.1279,5.8879,-9.7993,-3.3414,-2.0311,-4.4362,-10.045,-12.5931,-9.4973,10.5977,
3.708,10.5338,10.283,3.9772,0.94029,5.5349,4.8886,-0.73052,-2.8734,-8.0266,-9.9245,-13.2836,-3.1431,9.4797,
-1.335,7.4919,4.8455,0.36435,-0.080223,3.2744,11.2233,-0.68691,-8.0036,-8.5091,-7.4006,-13.9328,1.8659,5.0548,
-3.906,4.8732,4.7957,-3.2729,-4.6549,-2.4657,-2.7063,-3.2968,-1.4974,-7.7572,-1.413,-14.7838,-3.3072,3.5462,
-1.7434,-2.1681,7.8824,1.2622,-1.9653,-7.6199,-2.5439,-6.4734,12.6925,-1.0252,10.7229,-0.8814,0.74758,3.8158,
-5.254,-12.884,3.3124,0.46336,2.2502,-14.1526,-1.186,-7.772,14.9435,3.6158,12.2489,7.6074,3.354,-0.51072,
-4.2161,-8.9777,6.7288,-3.1796,4.2844,-1.9753,3.9466,-0.31606,6.0933,8.4603,5.0063,10.7664,-1.9086,10.366,
-5.6501,-5.3058,7.0482,-7.5684,-4.4086,10.4355,6.3612,0.42603,-0.77998,7.712,-9.3941,13.2536,-8.7838,21.0724,
-1.9369,-5.9515,8.5533,-5.6682,0.19424,8.8453,3.5691,1.3646,-1.2153,5.8028,-11.8432,11.9763,-8.257,19.3259,
3,-3.1843,10.9326,-3.8823,13.6799,3.9758,-2.4298,4.6567,-3.553,2.0801,-9.6868,1.6167,-10.1717,12.3818,
2.3379,-0.10098,6.42,-0.75711,16.2336,7.1119,-3.7301,3.4132,-5.7497,0.027366,-11.0336,-4.2651,-11.4898,9.7104,
-4.3104,-3.2279,0.0092939,-1.9165,11.6442,13.1927,-6.1576,2.4855,-2.7536,4.1231,-7.2381,2.0164,-8.6313,10.3331,
-6.9438,-0.62414,0.9726,-3.2478,3.7147,11.4368,-10.6088,0.89011,-7.4091,2.9114,-5.8399,-0.032818,-10.5235,9.2307,
1.6678,7.6082,8.1453,0.80324,4.4559,8.3407,-2.7415,0.83693,-6.9646,0.32679,-9.8281,-6.2974,-10.3743,8.1952,
0.12167,1.8493,-0.53788,-5.5112,7.5632,3.5017,-5.469,-1.6236,-7.9925,-2.1032,-7.7919,-5.9191,-7.3414,5.2936,
-7.1167,-0.67198,-9.1829,-13.8574,0.84245,0.88126,-13.3358,-1.526,-12.3334,-1.0129,-2.5039,1.6667,-7.8651,6.422,
-5.9666,8.7681,-2.1242,-12.3029,-4.2695,3.4797,-11.8126,0.25256,-7.9783,5.0737,-7.8975,7.592,-8.5982,11.0981,
-6.3315,4.6271,-1.7558,-7.9493,0.084211,4.9582,-16.6474,-0.0035587,-6.2943,-1.7387,-15.8593,1.5929,-5.4312,9.7089,
-1.6135,-0.95344,-5.5071,-4.0985,6.8276,9.4811,-7.936,4.3347,-3.5067,-5.9729,-2.3745,6.7997,3.5715,17.3213,
-3.2035,-2.5835,-6.8634,-10.842,-1.5356,1.9229,6.6401,-2.4324,-2.5729,-5.3731,-0.54483,8.0794,-3.1503,13.149,
-3.7344,2.6335,2.4662,-3.6838,3.618,2.5306,8.5318,1.3288,3.6072,0.49265,-7.5018,7.3535,-7.5408,8.2625,
-5.6797,-3.0684,4.0052,2.563,7.4983,5.0296,-6.0801,7.7563,5.0778,7.4527,-7.2929,7.153,-2.5088,6.0793,
-5.5799,-7.464,2.5601,2.1682,1.0228,-1.7796,-2.2206,3.676,8.3885,14.4774,0.61651,8.8934,1.2571,-5.1313,
-5.0041,-2.4364,3.1294,1.3148,5.0588,0.014392,6.3486,4.6602,12.9469,16.2603,3.713,13.9034,-0.023572,-18.9234,
-5.1858,-4.7008,-0.91477,-3.1024,14.8782,7.7258,-0.78125,11.6115,7.3494,13.8379,0.11577,14.0331,-1.4684,-25.1396,
-2.7055,-8.5162,-0.61892,-1.229,17.119,5.5755,0.47092,12.1201,4.2569,16.1412,-1.5784,10.0576,-0.65695,-23.8722,
-2.0612,-6.077,2.7927,-1.1553,5.0046,1.8665,5.2634,10.9109,5.9301,14.6908,-1.9656,8.4903,4.6851,-25.8143,
-1.6964,-5.4712,-1.4725,-6.1474,-9.3956,2.9596,0.36806,11.4613,2.923,7.3016,-2.0889,7.2578,9.4655,-33.1833,
-4.0049,-9.4815,-10.061,-9.6352,-1.2396,0.37168,-0.61812,8.8452,-0.6271,5.4175,0.4468,2.4837,9.8616,-38.9053,
-4.4878,-5.7793,-3.914,-4.4776,12.9348,-2.3019,2.552,9.0376,6.8826,9.6719,1.1431,4.0217,12.4032,-35.8478,
-3.0132,-0.37087,0.4187,-0.11111,12.0384,-1.9224,-7.0007,10.1826,10.085,4.0304,-4.4691,7.3963,12.8643,-32.4914,
-0.1811,-0.10742,-6.1141,-1.31,1.9159,-1.5663,-4.8939,5.4741,7.7925,-4.6478,-7.3346,1.8906,11.8512,-35.1217,
1.517,1.1043,-9.8446,-0.9904,15.9009,-0.26705,9.4998,4.4227,3.2276,-6.5381,-7.1351,-5.2122,9.4529,-38.0758,
-2.6716,1.7607,-10.4595,-2.6184,6.1493,-2.4204,13.6296,5.3624,-3.4738,-7.3509,-11.2869,-11.8896,3.8243,-40.853,
4.2371,-0.27311,-4.5293,1.8775,-8.3197,-3.2391,7.5096,6.4869,6.8575,-0.16136,1.4418,-8.7659,11.3076,-33.0994,
7.8398,-5.077,-6.1857,6.5855,6.2795,-4.009,0.31034,4.1695,12.2311,2.7408,11.9606,-3.9014,17.86,-25.8108,
-0.8258,-5.2547,-12.0811,2.3335,16.508,-1.8403,2.2197,4.4013,3.784,4.9865,6.4223,-1.2572,17.7523,-27.1544,
-4.1505,-6.8674,-9.9102,0.26556,1.4176,-1.7297,6.4251,3.1731,2.1109,9.5078,2.6627,-0.21764,13.7948,-28.8994,
5.2576,-6.4554,-3.0486,6.9985,4.3455,-3.0721,6.5219,2.9827,12.1077,11.8299,9.7338,1.2421,15.8597,-19.9346,
5.9062,-4.622,-4.7941,8.9885,11.7973,-3.37,8.5405,3.2859,11.8629,2.4432,9.6315,0.20305,20.6924,-12.9541,
2.6593,-0.97025,-4.0245,8.9316,2.8945,-0.75765,10.9204,1.1606,5.3665,-6.3805,4.7152,-1.2554,19.4509,-12.1769,
7.8027,1.4983,2.4837,9.3598,8.0237,2.6625,3.9986,1.0907,4.5628,-6.9618,3.9502,-0.21574,12.4995,-8.0716,
10.4675,0.68506,-0.31643,8.0749,17.4243,2.7437,7.8561,2.7125,3.5657,-7.267,2.9903,-1.89,9.5804,-2.5259,
9.5985,-0.56088,-3.4309,9.2776,8.4248,3.7844,21.4847,0.86253,-0.26365,-4.1798,-2.7328,-1.5354,11.6566,-2.1333,
7.0946,2.3651,0.63155,8.7212,-1.2395,4.5214,14.5315,1.7749,2.6445,4.7478,-4.4972,6.2692,8.0649,2.333,
-1.0443,2.2232,-1.3345,5.7873,1.7272,-1.5349,0.64422,1.6684,4.414,5.4273,-5.1913,4.9292,-1.578,3.6393,
3.116,1.8486,2.8427,8.0914,10.5414,3.6186,14.7056,1.3271,9.693,6.7886,-0.30027,7.2843,5.0244,3.6619,
2.4471,0.2914,0.26197,2.3037,10.3911,7.7403,16.3543,0.76552,8.6295,3.0073,0.68161,3.9552,11.4718,0.06794,
-6.8586,1.238,-7.9487,-1.2092,6.3932,4.3836,1.273,0.23789,3.2912,-3.4399,0.64095,-2.0665,6.445,1.028,
-4.2779,0.44083,-6.2665,0.55059,3.3582,1.9514,-3.7448,-2.4279,3.8167,0.86389,0.84346,1.1906,0.03274,7.4738,
1.7631,-1.996,-2.0343,5.82,8.4594,4.7266,10.5799,1.5744,7.4438,10.9352,0.31069,6.9039,5.3332,12.3282,
-5.5733,-4.7685,-9.1429,3.5428,13.2543,2.5146,10.789,3.8898,7.4793,7.3868,2.7024,5.5256,10.798,12.0702,
-5.4798,-3.2771,-6.4251,-2.2134,7.3975,2.1228,9.4187,1.0053,8.2359,4.292,8.5658,6.3989,10.873,12.5513,
-4.1872,-5.4906,-5.0753,-1.5986,-0.27692,2.4778,8.8536,-0.9832,5.3316,1.1424,3.7135,5.0511,7.3286,12.7626,
-3.6948,-8.7766,-6.9402,-1.7435,4.3192,-1.2865,-0.11351,-0.20108,5.2529,-4.4695,-0.12447,-1.7597,10.5041,13.6838,
6.891,-8.4912,2.8765,-2.362,1.8909,-3.3783,-1.7939,-3.3223,1.804,-6.8526,-0.3582,-6.2336,10.115,12.1396,
8.647,-8.7046,2.4627,-5.3535,2.5003,-3.4168,7.7137,-7.2205,-9.6322,-5.7188,-1.5418,-6.1008,0.10789,12.6163,
-2.9591,-11.0749,-5.8798,-7.9248,9.099,-4.658,13.5174,-10.1617,-9.5367,-3.4475,-4.3418,-4.7704,-9.0576,13.7875,
4.4493,-4.1434,3.632,-0.70043,14.3381,-2.9323,12.7064,-8.1053,4.0514,0.6162,-4.0808,-1.5917,-7.5498,10.5502,
15.0286,4.0589,11.3678,1.5108,22.3954,3.2692,3.9902,-2.0758,4.0493,5.1585,-0.70294,0.67299,-0.10698,10.1581,
3.5214,3.3332,3.4547,-2.9184,10.4466,5.001,0.37614,-2.4335,-2.9428,5.3307,-3.5531,2.0786,-3.4752,10.5127,
-2.9562,2.6511,0.35514,-2.2612,-4.2802,3.2549,8.0666,-1.3234,3.9825,8.3856,-5.7502,3.4,-8.0872,10.3641,
2.2826,2.2513,1.057,-4.2949,2.6048,2.8189,-0.85333,2.8536,4.4666,10.5337,-1.3076,1.509,-3.9863,9.0191,
-0.023727,-1.9818,1.7167,-1.8683,7.9919,0.48037,-12.1305,1.9593,-2.3091,7.2499,0.45783,0.69483,-3.9883,7.2729,
-6.0481,-2.5856,1.8549,3.3057,-0.92326,0.21035,2.6973,2.0829,5.3015,6.5742,-0.29277,4.7512,-0.13385,7.5597,
-8.8182,0.70303,-8.1388,0.45584,-0.14496,3.3312,15.9128,3.1628,8.5988,7.385,4.3045,6.1529,4.4539,4.4546,
-4.9147,3.5529,-8.1324,-6.32,2.756,6.0239,1.9426,3.9373,-1.5581,7.4239,8.8665,3.8555,-0.15163,5.6335,
-6.7894,0.20625,-6.4392,-10.0381,0.90344,6.3853,-2.2718,1.0495,-7.9725,4.8093,2.7909,-0.47317,-4.7223,9.8748,
-6.623,4.7736,-11.1145,-1.0001,9.2854,13.9559,3.4081,4.602,-2.9149,6.208,-1.9558,-0.20381,-0.82352,13.8621,
-6.2256,4.4872,-10.93,-5.7609,8.7278,11.1904,-10.2937,3.362,-4.1862,4.8711,-4.731,-1.6378,-6.5587,7.2458,
-5.6114,3.4948,-3.7665,-9.5123,6.5171,7.3853,-9.9173,2.4372,-1.7657,5.302,-2.2777,4.0038,-6.4064,8.0161,
-7.6848,5.2133,-7.3965,-3.6389,7.0904,6.4607,4.1756,2.2909,2.1966,2.5738,-0.21289,4.7279,2.1732,11.8734,
-3.6083,1.7671,-10.5681,-2.2153,14.1368,0.52942,11.8788,-0.015688,1.3419,-0.71415,-0.44108,-1.5813,2.7657,8.5099,
-0.25831,-2.9187,-10.6574,-6.6621,19.7961,-5.5284,3.6942,-6.0408,-4.7646,-4.2867,-2.1018,-4.6199,-2.4619,4.3839,
1.4442,-1.5381,-6.4023,-6.5036,12.1006,-0.13474,2.7495,-5.919,-1.345,0.068064,3.0857,-0.24514,-0.14482,8.2185,
-0.088039,-6.7482,-6.9822,-5.6308,-2.7254,-0.60882,6.923,-6.0456,2.1104,2.9563,3.3827,-1.1941,-0.13591,6.7613,
1.6038,-8.0308,-7.7688,-3.6064,7.9227,2.561,-4.7886e-05,-1.1038,-0.18607,6.8765,4.8668,3.9386,-1.8152,5.6325,
-2.5893,-4.8974,-10.4357,-9.4151,14.4372,4.5769,-14.1,-0.79616,-6.2,6.7049,-0.0045235,8.282,-9.66,7.9456,
5.2783,1.663,-2.0968,-5.4762,-0.52905,2.3737,-10.0003,0.69741,-1.0077,8.2308,-0.0042521,7.7851,-5.7064,10.3609,
10.7464,-3.2573,-1.4888,-4.1835,-7.1253,-2.5892,1.2052,-2.2367,-3.3576,3.8808,-0.48616,2.0156,-2.9532,4.4373,
11.5477,-0.16955,-1.8817,-3.9327,7.4022,4.7967,1.6146,-0.17455,-0.74582,4.1296,0.025173,6.2327,-4.7045,10.4374,
10.3731,4.1792,-0.80467,-6.5886,1.0528,3.0633,-6.1948,-2.092,-1.6652,5.3283,-5.2788,4.4127,-12.1347,11.7395,
10.4734,4.6516,-1.4795,-6.4345,-6,4.5665,-5.5824,-0.27953,-7.1091,5.2494,-5.6852,2.9429,-10.2021,10.312,
5.5067,4.3725,-4.2828,-3.1564,8.46,9.5947,-2.8373,3.1117,-9.0927,3.0062,-1.0057,3.7302,-6.2155,12.1034,
3.9712,2.4227,-3.3027,-6.5822,15.3037,1.5475,-4.836,-0.69019,-3.0033,-3.1999,-4.5606,0.85551,-9.9401,9.2083,
9.0356,1.3134,1.7157,-11.0075,0.2855,-5.7762,-11.7767,-7.3972,2.9615,-5.9,-8.6253,-2.5703,-11.2715,1.425,
10.1807,1.9575,0.88986,-6.7321,-13.8316,-2.7781,-9.3828,-9.6049,0.13226,-1.4487,-5.4567,-3.6213,-7.4621,5.4368,
5.2308,4.2504,-2.0563,-0.061411,1.0983,1.2448,1.3028,-2.2804,0.60648,2.4944,0.17316,-0.029845,-2.1939,14.2694,
-3.0365,3.2723,-2.1736,-2.2267,13.6861,-1.9632,-4.3188,3.4002,-0.63497,0.17583,-2.0066,1.6594,0.1071,8.3518,
-3.0951,1.8709,-4.6945,-5.2263,14.07,0.32399,-5.7466,1.9912,-1.8019,4.2629,-0.6807,3.7292,5.6441,10.0201,
-0.49947,-0.65173,-2.4844,-2.9848,0.21016,4.1607,8.6982,0.42566,2.1623,11.2377,3.6982,4.9515,5.7876,19.5416,
-5.29,-2.5406,1.0388,-0.39533,-6.0687,2.465,7.0917,0.88228,0.10463,4.7786,0.10212,0.31586,-4.2009,13.5486,
-2.0803,2.9143,-0.46952,-1.3357,8.3954,2.3174,-5.3851,0.82912,-0.38381,-3.2206,-3.2782,-0.18525,-5.8768,5.5051,
-2.4374,2.2575,-6.2259,-5.5939,12.5914,-4.0886,-8.9184,-8.8616,-5.6634,-7.3657,-11.2762,-6.4407,-6.9704,0.83643,
-2.5324,3.3271,-0.30899,-0.67919,3.4,-4.5665,-1.3937,-9.535,-5.0824,-1.8628,-6.5025,-7.7417,-4.3828,4.8834,
-2.1392,-0.97012,-1.4955,-3.2898,13.0782,-5.9795,-0.58691,-7.2759,-2.6085,-3.9199,-4.4254,-4.6258,-3.8791,8.6879,
-1.7697,-0.67072,-7.4316,-0.92299,13.4986,-5.3795,-0.3105,-4.6699,1.1636,-6.3361,-6.3288,3.6057,-0.51266,11.3004,
-3.1095,4.19,-2.1652,4.4353,-1.4113,-3.6107,4.5286,-3.9076,4.468,2.239,-0.16472,6.2816,5.7848,12.5503,
-2.2001,1.7694,1.5801,1.5176,-14.9445,-7.9738,4.4979,-10.663,3.959,7.6483,1.0505,1.8074,0.37608,7.7,
2.2703,2.6271,-1.4067,3.3547,0.052178,-5.0848,7.1201,-8.577,7.0959,7.6713,-1.4227,2.6628,-2.539,8.2018,
-0.75824,1.0235,-1.3225,0.26116,14.149,-6.7081,2.8367,-8.0621,5.706,2.3906,-1.3376,-0.87119,-0.94018,4.8174,
7,2.8903,9.3621,4.1019,3.4179,-8.2338,-2.1542,-8.5427,6.3275,4.1753,1.6347,0.14495,-1.8481,4.5284,
12.8468,3.199,7.3543,7.7124,-0.64329,-8.222,-0.57848,-7.066,6.4301,6.3352,-0.87324,1.5827,-5.5938,5.7027,
6.7733,2.0428,-3.2103,2.9109,13.4953,-11.585,3.3126,-10.9804,-0.22226,1.1343,2.5536,-5.7431,-2.3657,1.0222,
1.7874,-4.1056,-1.3302,-3.2891,10.3955,-21.736,5.2828,-21.1681,0.5142,-10.7441,9.39,-14.7983,-1.5006,-6.9931,
-0.97116,-17.1154,2.8467,-6.2255,-4.3282,-33.2063,1.3506,-26.8876,11.8113,-13.7146,7.6216,-18.972,-9.3645,-14.0451,
-0.43073,-17.5345,1.7118,-4.4055,-12.384,-30.2498,-4.5152,-21.9001,12.0667,-2.7686,6.2002,-14.9417,-8.3205,-12.7202,
3.2108,-4.1902,0.40406,-5.3462,2.4591,-20.963,-5.4494,-17.9346,0.97909,2.459,1.2487,-5.6088,-6.6162,-2.0748,
5.6694,3.5328,0.62101,-4.7847,16.4115,-14.1614,-2.953,-13.2433,-1.249,-4.1963,-7.7441,-4.5496,-12.245,4.5574,
14.0059,5.7314,10.2247,3.2152,6.0268,-6.0813,1.5625,-5.7,4.6105,-6.3546,-8.7257,-7.6506,-11.0279,3.8015,
21.6015,8.5208,16.1189,3.2635,3.9782,-5.9572,5.5663,-8.9732,3.6107,-5.7322,-8.4429,-9.8429,-8.6792,-1.488,
17.1721,10.1785,8.6441,2.8265,9.2834,-13.5537,7.8837,-14.4606,0.26082,-7.5576,-6.7317,-10.9398,-13.7023,-1.1575,
7.4647,4.7475,6.1973,1.2106,11.6184,-20.9354,3.0719,-16.4853,-0.23722,-7.5866,-3.9177,-10.7656,-13.3621,-1.5705,
7.4987,1.0882,11.61,-0.30783,7.0649,-22.0897,-0.0045058,-18.3884,-0.22299,-7.1314,-2.7183,-13.0119,-5.8115,-5.8146,
12.3517,4.3972,9.4669,4.5311,-1.072,-18.3539,5.2982,-16.3213,2.6827,-10.5596,1.7833,-12.2312,-5.945,-4.0197,
11.6106,5.0977,3.5967,1.3672,2.8492,-17.2525,5.4627,-11.9673,1.5579,-13.3005,5.0508,-8.1226,-6.0702,-1.3679,
10.6725,5.5147,12.2985,3.9358,5.3293,-16.9407,-2.3373,-9.0803,3.1516,-12.7435,3.5424,-11.2509,-0.64477,-2.9735,
9.5502,5.6657,21.2016,9.9666,-9.0904,-19.2987,-0.75084,-9.4996,8.7471,-20.1738,1.4017,-20.2168,-4.9444,-7.6153,
11.1466,5.0851,17.7605,6.7173,-17.3423,-23.6841,13.3942,-12.5448,7.4991,-26.9171,2.0407,-23.1012,-4.4065,-10.2917,
15.0573,10.3233,14.0436,4.6273,-2.2018,-20.5759,11.9879,-14.4435,0.54148,-17.83,2.1595,-18.0997,2.3656,-7.9872,
13.1898,13.0782,13.6831,2.4212,12.0303,-12.1107,-0.78269,-13.5769,0.50876,-10.9759,0.1015,-17.0139,-5.4894,-5.5795,
16.7367,14.7041,19.1287,6.1323,5.0417,-5.5995,7.4594,-7.9418,10.6016,-10.3173,3.9518,-12.6187,-10.4627,0.53982,
10.9123,5.6271,13.6426,0.94413,2.3291,-18.7606,11.3502,-15.66,4.1809,-13.0723,4.1971,-16.1999,-5.9781,-9.1335,
10.7395,2.8789,15.2342,4.7439,6.5277,-19.0813,6.8128,-14.2384,4.412,-5.0576,10.6937,-11.3715,2.5753,-18.2265,
8.4081,0.054843,12.1508,7.5925,3.4847,-17.6954,1.8245,-12.1791,6.7986,-11.7438,8.3646,-10.9304,-4.5693,-29.4254,
4.0468,-1.8766,9.9759,1.8343,10.0241,-23.8645,7.9816,-14.3406,8.3189,-19.7162,4.9707,-17.9873,-7.6691,-39.2291,
-2.2216,-2.4869,10.1003,1.4833,4.8433,-26.53,4.3696,-12.757,7.0968,-15.3998,4.9134,-25.344,-5.0398,-46.7572,
2.0096,5.6161,12.6278,12.2406,-5.3291,-17.4663,1.9382,-0.18115,9.8042,-11.8243,8.7161,-20.6898,0.8063,-45.157,
1.8885,7.6892,11.3877,8.6136,-7.902,-19.3107,3.7502,0.31154,7.2876,-24.1304,4.8185,-29.0897,-1.1704,-54.499,
3.4626,8.4333,13.3562,5.4459,3.4186,-23.6957,9.551,-4.2864,3.2352,-27.744,-1.014,-41.4443,-3.2696,-65.3291,
8.3163,5.276,12.3136,4.3956,8.275,-23.9612,10.6649,-6.6808,-1.0565,-27.7669,-6.4965,-49.4422,0.54181,-66.5913,
10.9506,8.5747,15.19,9.1937,3.199,-19.3902,5.4455,-3.6286,3.5864,-29.2341,1.8468,-39.0039,11.3558,-55.6061,
10.0526,12.1575,16.9301,13.7038,-10.2494,-16.0574,-0.42485,-3.1697,8.9148,-28.203,8.2439,-34.9762,11.8797,-55.4028,
8.4854,3.2331,7.7194,4.6862,-21.6857,-22.807,9.2414,-11.6566,2.1132,-32.7775,-0.92758,-44.447,-0.40244,-63.1661,
11.8328,1.5931,1.9538,1.9951,-10.7436,-25.7769,15.918,-14.3315,-3.316,-37.0774,4.4305,-41.298,1.0677,-57.4477,
8.9537,7.0411,0.14936,6.4547,4.001,-18.6867,3.6347,-9.8562,2.4265,-32.2016,18.2647,-28.9382,8.9574,-46.0471,
-5.6835,-0.8529,-8.2955,5.3443,4.1226,-24.0732,-3.0911,-15.7725,3.968,-36.7773,11.7457,-33.7096,-0.015933,-48.8279,
-3.2938,-6.8277,-4.1824,4.3007,-4.5609,-31.5469,10.3508,-21.3339,2.525,-43.4885,5.4973,-39.641,0.70838,-50.4777,
8.7142,-4.2487,1.612,0.90941,-5.4918,-28.4485,12.8634,-22.223,0.20415,-41.1201,14.5677,-36.5392,11.03,-41.9052,
6.9858,0.58576,-2.5823,3.0238,4.7194,-22.1626,5.5834,-16.7923,-1.9775,-37.93,14.8987,-35.0702,7.7169,-34.8118,
-2.8329,-0.65422,-4.5966,4.5296,9.0155,-24.448,0.66916,-19.4001,-4.028,-41.6798,5.5691,-45.2581,-2.1462,-38.2665,
3.6036,-0.61543,4.8383,6.186,5.1001,-27.3197,3.0391,-21.6106,1.5163,-40.1433,5.7169,-47.3633,1.3571,-35.0064,
5.3153,-3.9527,-0.75444,6.297,-2.9184,-29.0547,6.231,-23.206,0.46125,-44.0012,2.4816,-48.8598,2.7217,-30.9779,
1.8632,-2.0281,-4.8068,7.1242,-10.2151,-22.2497,4.6521,-21.0905,-0.77149,-50.7609,1.6096,-51.4718,1.8352,-28.878,
7.0538,5.8061,5.1228,11.0353,-6.228,-13.2022,0.99874,-15.4868,2.649,-46.7514,7.2973,-45.4912,5.0994,-20.3969,
4.7026,1.6011,1.9232,8.9272,0.89459,-21.5691,3.3492,-16.4858,0.079727,-39.1258,6.3778,-37.4593,3.3474,-13.8704,
1.7689,-5.4843,-0.84376,6.2224,3.0101,-27.2646,17.2482,-20.0761,1.7622,-38.4653,8.6462,-37.3809,2.9056,-15.6895,
1.9042,-8.2888,4.7505,1.7517,2.5885,-26.3516,21.8772,-24.8971,4.7899,-43.6292,15.5993,-45.5022,2.9722,-21.7378,
-0.13872,-12.1298,0.60907,-6.5486,7.2534,-31.5194,6.4646,-27.2599,2.0924,-38.6013,19.4836,-43.254,-1.5445,-20.9157,
1.798,-8.9918,1.0547,-1.8171,7.3004,-30.5924,-1.9975,-23.2139,4.8591,-29.0544,20.7249,-31.4999,-0.97009,-15.3222,
7.234,-4.8369,6.5348,-1.4673,-2.0555,-25.1414,6.5582,-23.0262,2.3982,-39.6034,12.4918,-39.0099,-2.5989,-22.8388,
11.8612,0.51498,7.8299,-9.333,2.6472,-22.4279,3.0312,-23.3318,-7.6276,-46.6272,5.7167,-50.7693,-3.1659,-24.1198,
7.775,3.8581,1.0936,-13.5933,6.8271,-24.9386,-2.4533,-25.7883,-14.8827,-42.3835,4.4094,-52.182,-4.4222,-18.334,
11.4064,5.3138,4.1615,-13.0187,2.8021,-21.755,2.2737,-27.3745,-10.3743,-42.0097,5.3501,-50.2564,-7.2903,-15.5467,
18.9167,6.9236,14.5166,-9.3455,3.5978,-20.4497,8.8861,-27.66,-7.3418,-43.3455,6.9573,-55.4357,-7.8168,-17.5062,
16.8176,2.6516,16.056,-9.2665,2.4178,-33.3228,6.4246,-30.3389,-7.3834,-43.1549,9.4321,-65.125,-6.3837,-20.3122,
14.1215,-0.15882,15.3338,-7.9878,1.0677,-41.567,8.2085,-30.688,-1.3966,-36.9504,16.3383,-59.5302,0.989,-16.9244,
11.3456,0.81458,12.0032,-7.5085,0.039777,-30.3961,14.4644,-31.2568,-3.7234,-31.3589,19.6963,-50.656,1.894,-14.9448,
3.4342,0.76594,6.9449,-10.9142,0.03716,-26.162,5.884,-31.3096,-2.5354,-26.5851,20.4429,-46.6523,-4.0045,-10.6737,
-0.38723,-4.8236,5.8049,-10.0188,-6.9549,-35.9207,0.95122,-33.0467,5.0881,-27.1594,21.867,-46.0228,-7.3796,-10.7566,
7.349,-7.4265,15.0978,-3.1505,-11.8401,-37.6216,12.9455,-32.9919,7.1931,-30.3503,21.5195,-46.1535,-2.5983,-14.9317,
7.8722,-3.6067,14.6736,-4.8899,-11.6118,-35.3645,4.4557,-35.3509,3.3873,-33.3498,13.9616,-50.1332,-5.3347,-19.8204,
10.0509,6.4916,11.624,-2.9093,-1.0329,-29.1451,-4.2473,-29.1325,5.8352,-28.6975,20.1138,-43.5098,-8.1481,-12.1234,
12.8226,5.1385,14.3013,-3.6988,3.8497,-26.9142,10.1076,-24.492,4.039,-27.9397,24.6913,-44.2734,-8.6233,-12.8421,
16.8737,2.9018,20.1919,-0.10266,5.0648,-31.0842,20.9495,-24.4688,3.3145,-30.1197,16.9431,-55.1146,-10.5163,-22.6768,
20.1996,7.5479,22.8363,3.278,3.3146,-35.4859,8.6053,-24.9291,4.5619,-31.687,13.5164,-53.254,-11.3315,-24.6907,
18.7466,11.1929,25.082,-4.8725,6.2492,-30.2232,5.4379,-25.1201,0.19085,-30.9908,18.249,-43.5508,-5.59,-21.0398,
17.1397,8.5929,24.5412,-9.4006,4.9102,-28.4098,6.0758,-29.8796,-6.0873,-28.6494,13.7798,-47.2045,-4.2905,-21.7056,
24.547,11.2108,27.648,-3.2934,3.4103,-30.3207,9.8086,-25.9179,1.7497,-21.869,12.7116,-45.5775,-4.274,-16.3059,
17.5308,4.0304,21.4096,-12.4956,7.3033,-40.7937,8.9793,-25.0857,-0.52467,-34.6569,7.3699,-50.7964,-11.4891,-18.4608,
5.6324,-0.79092,16.0274,-17.2897,15.3005,-40.0335,5.3068,-26.7141,-3.6264,-40.1698,6.6865,-47.0259,-15.3798,-18.0766,
7.7051,2.631,18.4407,-9.5029,3.7776,-31.8465,7.8809,-25.5929,1.8938,-23.6596,15.9263,-30.1044,-7.7076,-11.6891,
9.8939,4.6423,19.021,-6.7641,-6.8131,-33.5511,8.1314,-22.3704,2.5031,-17.2988,20.5143,-25.2849,-2.6659,-8.8186,
7.6132,5.0869,19.5672,-9.9734,4.4419,-31.779,14.1513,-15.4845,1.1478,-19.8761,22.4172,-23.5268,-4.1929,-0.81766,
7.3976,7.9149,24.9004,-7.2056,0.55977,-28.6674,16.435,-11.9041,3.7303,-16.0324,22.2767,-22.3564,-3.7006,1.4006,
11.774,14.1885,30.1553,-2.9169,-4.776,-30.8038,8.2185,-13.1181,0.132,-23.7473,15.6379,-34.9945,-0.10412,-9.7707,
10.5857,8.9988,19.187,-12.3828,9.0079,-38.1144,3.869,-22.4541,-10.9631,-36.4225,6.9869,-46.9949,-6.8468,-18.3433,
12.1199,6.29,13.4567,-13.8093,9.6725,-37.5147,10.1446,-21.3478,-6.6897,-37.2499,10.6648,-46.7058,-7.641,-11.6991,
14.285,5.9124,24.2182,-8.6422,-5.0079,-33.3357,12.4282,-17.6568,2.8705,-29.7125,13.8815,-39.5651,-0.91583,-10.9971,
13.4279,2.6651,28.5497,-10.0518,-5.0691,-35.6741,9.2719,-22.382,1.7344,-31.304,12.0843,-39.1194,0.10299,-14.1937,
9.4887,0.81796,18.4006,-14.5104,9.3351,-40.5235,3.172,-29.9572,-8.2521,-34.0055,10.6364,-39.9057,-4.4825,-11.1731,
13.0165,5.3484,20.4303,-14.8448,3.834,-35.9227,4.1867,-25.9906,-5.1056,-25.4574,15.0596,-28.5933,-1.5622,-0.13841,
18.5023,10.8123,30.2915,-6.7235,0.71168,-28.9468,14.0587,-18.6466,4.8419,-16.2172,16.5664,-14.8264,-1.9506,7.1005,
10.8844,6.066,23.4125,-8.4895,4.7666,-29.8614,15.8665,-22.107,0.45381,-27.0543,10.5105,-19.4804,-9.3054,4.5053,
7.0981,1.1225,18.8745,-14.0055,5.2032,-27.8287,9.853,-23.9141,1.1497,-23.7438,12.0493,-12.2861,-8.5061,11.7068,
11.0111,2.5015,28.347,-6.4166,-2.8214,-22.7844,9.262,-18.6225,7.3474,-8.2192,14.2189,2.5511,-7.9956,25.1044,
13.2424,3.3157,32.913,-1.6929,1.6863,-19.489,12.0806,-16.5412,2.5681,-10.2567,12.8838,6.1342,-5.5876,25.888,
10.7609,2.8755,23.4667,-11.4735,12.4312,-21.453,5.33,-23.9846,-11.686,-23.7413,10.9057,-8.3339,-1.155,10.2347,
22.1665,16.2006,28.8073,-10.3029,10.7212,-13.8993,11.7593,-18.6889,-9.1769,-16.6527,15.0718,-21.9338,-1.5678,2.7515,
29.7544,20.29,37.4425,-5.1052,3.0883,-8.486,16.5971,-10.096,0.77348,-9.628,12.48,-33.3923,-10.8735,7.1657,
27.7282,13.529,39.2933,0.2623,4.5902,-10.628,8.6114,-8.7671,-0.96015,-12.6657,12.4541,-25.8451,-9.4982,6.9767,
19.3158,9.343,32.1153,-1.6814,3.8327,-19.6315,7.6126,-12.0977,-0.42038,-8.5316,14.5992,-23.8125,-6.036,9.4504,
18.3976,11.4338,33.804,0.58842,-4.8332,-17.7305,15.5917,-10.6487,8.0407,-3.9221,20.2309,-20.2143,-4.9508,19.7296,
23.8015,8.0965,39.2474,1.7583,-10.5689,-15.9434,6.2204,-8.3225,9.2454,-3.9278,24.0787,-12.9758,-2.4844,25.0537,
19.2404,2.5491,34.2415,-1.4802,-3.427,-16.1918,5.6062,-9.5103,6.5215,-0.076746,23.3573,-2.7973,-0.16621,25.2377,
