"AF3","AF4","F3","F4","F7","F8","FC5","FC6","O1","O2","P7","P8","T7","T8",
-8.1947,20.2463,-13.0154,2.4101,-4.8203,28.441,-21.6921,-1.4463,2.8925,1.4463,20.7282,14.9436,-8.1947,-3.3745,
-6.0158,21.2006,-8.1367,2.9889,-12.0028,23.1195,-19.6676,-2.5643,-2.3427,4.9749,20.6898,12.3598,-6.0158,2.3716,
-3.7269,29.0874,-4.7567,6.1838,-6.9446,27.5167,-26.6825,4.3382,-3.1662,-1.5903,18.9662,10.1722,-4.2088,1.2652,
-4.2262,22.2809,-3.266,4.6075,2.8721,21.7684,-18.5736,-0.98375,6.4237,-9.4487,12.7666,-1.2844,-10.9462,-8.6926,
-2.0446,19.4981,8.4994,9.1519,0.7718,15.1594,-3.3592,-4.299,18.5716,-5.5075,14.8929,-2.1715,-4.5046,-1.9043,
-8.6706,15.9174,2.6865,5.2281,-11.8082,10.8756,-6.6528,-0.66679,8.7804,-9.9975,15.4453,-1.0771,0.58617,-2.7542,
-7.9092,13.2753,-5.4282,0.33494,-5.5559,15.7665,-20.3537,9.2554,3.1921,-7.7107,18.6162,11.7618,-0.17213,-1.3838,
-10.3267,11.9969,-6.0668,-2.0953,-8.1146,13.8566,-14.9141,5.808,-1.8201,-6.7657,9.7865,20.2151,-8.8384,2.0736,
-7.2974,15.6154,-0.88207,-0.52331,-7.6282,16.8816,-8.7171,4.0128,-3.1572,-13.1086,3.4147,16.5921,-7.8267,4.3594,
-0.59262,12.7503,0.13472,-0.49191,-2.8317,17.7969,-9.6403,6.1826,-2.9677,-17.1428,2.7279,2.5811,-8.3209,3.1335,
2.8172,8.1291,-1.8013,1.4656,-13.2669,12.3905,-10.5079,0.99117,-6.6458,-15.1497,2.082,-4.3224,-10.714,1.0175,
5.7816,11.7387,-0.48841,4.9931,-13.6761,14.2986,-6.744,-2.6837,-3.596,-11.5896,5.0906,0.034273,-5.9738,1.6793,
6.8807,11.5165,-0.94081,5.6576,-4.6606,12.4766,-3.4471,-3.0049,-0.48794,-14.7509,2.8567,-5.2702,-8.0257,0.61449,
5.2628,9.62,-1.1256,3.1487,0.19805,7.6304,-6.3739,-2.1014,0.26447,-16.0352,0.51595,-6.1595,-5.8572,2.2646,
3.2598,7.3556,-2.2633,-1.6195,2.3558,6.9317,-5.2681,-6.0727,-1.9206,-9.0471,2.1722,-0.72826,-1.4079,2.8521,
6.9206,4.5046,-3.0914,-0.55799,-0.67762,6.0338,3.725,-10.5291,-1.8053,-3.6835,1.078,-2.1304,-6.6261,0.75278,
7.4697,4.2343,-1.9416,-1.4888,-4.9757,4.2255,0.60902,-7.4867,-1.697,-7.8013,-1.3968,0.40758,-5.7461,5.5283,
2.4418,4.2212,-1.1022,-0.67615,4.2409,3.731,-8.8275,-1.4939,-3.2824,-8.5381,1.3381,7.373,1.5881,10.7402,
-1.8021,2.7627,-0.79509,0.087323,8.0838,2.3019,-7.5745,-3.5739,-2.8445,-4.8928,5.3552,5.2434,0.76987,6.9623,
0.71619,4.0427,1.6627,-1.8461,1.8142,5.0558,2.5205,-2.8775,1.1826,-4.1173,8.4083,3.9645,1.2056,5.5803,
1.3963,4.5233,0.35792,-2.9409,5.3205,9.8139,2.1285,0.91078,-2.5036,-13.27,4.7706,4.9317,1.8564,6.9329,
0.83063,4.2519,0.81838,-1.8001,4.5193,11.1537,6.3391,-0.59013,-3.3177,-14.402,5.9306,3.19,1.2631,7.4808,
-0.42427,4.238,1.4924,2.4055,-9.8518,7.3513,4.2718,-0.79546,0.97895,-6.0658,6.2979,0.82917,-1.464,3.8987,
-3.773,4.4658,-4.8634,3.7072,-11.7911,7.3924,-9.9641,3.1084,-1.9721,-4.2558,-1.3111,4.636,-4.2685,-0.19138,
-4.029,1.3054,-7.4641,-2.2998,3.0164,9.3589,-6.4742,2.9219,-5.7101,-4.9648,-6.535,3.3935,-9.7974,-3.0724,
1.9975,2.1911,1.6606,-0.2334,2.2325,7.8333,8.0143,2.7468,-1.029,2.0817,-1.8044,-2.1125,-7.7631,-3.3702,
5.2519,1.578,1.0788,2.6729,-10.9166,1.5785,1.6286,-4.1667,-0.0031492,3.8853,-2.1783,-2.4679,-2.4768,-2.2039,
6.1421,1.2423,-3.0833,2.7535,1.0666,1.2428,-12.5691,-4.64,-3.1364,-0.9276,-2.2886,1.7775,3.6974,1.0618,
6.2552,-0.76064,2.4041,-1.2683,13.0539,3.0962,-9.5253,-0.98739,-6.8044,-8.1026,0.74105,-5.0778,3.9577,-4.3043,
8.2901,0.24887,12.3828,-3.6024,13.7165,2.9104,1.651,-3.3383,-2.0578,-7.6164,4.071,-6.7013,8.0585,-6.4567,
1.0442,-3.1401,4.4094,-4.8325,3.7344,-4.977,-3.7502,-11.8151,-2.8987,-9.0876,-0.029612,-4.853,7.575,-6.0693,
2.4276,-6.3263,-0.19369,-3.0965,3.5106,-1.7861,-3.5254,0.94515,-1.2787,-7.5783,0.45387,-3.1158,6.1564,-1.3665,
2.5229,-8.5978,-1.3874,-6.0437,7.3973,3.3828,-3.5549,6.4321,-4.335,-9.2927,-1.7421,-6.5442,1.2078,0.40267,
1.8896,-0.36921,-2.268,-1.8247,11.7742,8.4825,-6.2336,2.1897,-8.8956,-6.807,-2.6019,-5.1877,0.17096,5.6812,
4.1863,4.4732,-1.65,-1.7152,2.8726,10.3836,-4.4138,3.0227,-4.5055,-4.4704,-2.4458,-7.7685,2.0889,5.8222,
7.551,0.58985,2.0644,-1.8533,-5.7355,9.0377,4.2871,5.9748,2.7547,-3.4792,-0.12985,-8.9896,4.1332,0.8936,
6.8565,-2.0971,-4.085,-2.4655,0.15229,5.8439,-1.9956,2.4828,-4.4005,-4.9577,0.6013,-0.49652,-1.1765,-0.84724,
7.6504,-2.2122,-11.3117,-7.8611,5.6868,5.2523,-15.9759,-0.79962,-12.5721,-10.2039,-4.0145,1.7024,-7.1319,-0.55544,
12.4943,-0.63301,-4.3662,-3.5329,6.7916,8.7938,-10.3171,1.6587,-5.0691,-13.4478,-2.8091,-3.7021,-2.8474,2.3702,
8.6109,-3.7287,0.95719,-2.1158,10.4817,5.1329,3.0761,1.318,-2.1136,-13.364,4.3491,-3.2388,-0.98908,2.4692,
6.1663,-3.0229,-0.064339,-5.3631,17.0834,-0.95988,-2.4113,-4.0635,-3.4329,-14.0082,6.498,0.81168,-1.4119,1.8388,
6.0373,-4.5287,4.0369,-5.7647,12.443,-3.0714,-4.4358,-13.2197,-0.57579,-20.6398,4.4209,-3.3344,2.7702,3.4157,
5.4341,-11.7288,7.892,-7.1056,7.599,-5.5383,5.7127,-9.775,1.146,-28.8012,0.058785,-12.0519,-0.52907,0.55971,
3.4204,-10.3022,3.3211,-4.0281,8.8303,-7.3756,4.6466,1.6573,1.3182,-31.1709,-5.9707,-12.5346,-7.0057,-2.1254,
-0.15863,-2.9349,2.1578,0.070172,-2.7865,-4.5227,2.9218,2.522,4.1314,-17.2491,-1.274,-3.5871,0.16376,7.1609,
-1.3544,-7.3386,2.7512,-2.5856,-16.7193,-5.4566,-3.7614,-6.0655,3.6425,-8.2604,0.0073181,-0.72077,0.3949,9.8647,
4.5114,-8.8264,3.0681,-0.9842,-5.714,-5.1292,-10.7666,-3.7733,3.9059,-10.6571,-4.8134,-1.1595,-3.9676,4.9341,
0.6251,-3.2354,-1.6951,-0.68441,8.7289,-2.1701,-7.4693,1.515,3.9128,-13.1509,-7.6578,-1.3311,-2.524,2.4691,
-3.2686,2.2616,-4.9676,-1.125,13.6285,4.2273,0.20994,0.45998,1.2676,-7.5414,-2.3779,1.1591,1.4841,10.5159,
-2.1083,-2.6946,-5.6341,-2.0216,4.6159,5.9016,-3.6593,1.8784,1.1918,-6.1248,0.65709,0.12549,1.3948,18.0799,
-6.0792,-10.4871,-4.0908,-2.6237,8.4363,2.414,-3.1987,3.9349,1.8432,-15.1573,-3.9621,0.35893,1.5521,19.6462,
-3.7865,-9.8576,0.49324,-2.466,16.125,4.1971,7.1163,1.7708,-2.124,-21.4787,-3.7241,3.2297,5.7975,18.4672,
0.056353,-7.0973,-2.1877,-4.0055,4.3115,4.6689,-4.1567,-0.022894,-3.6836,-22.8413,-1.8137,0.38458,4.7265,13.262,
-4.5265,-4.0201,-1.3333,1.7786,-10.0472,0.77311,-9.9331,7.4505,3.5271,-15.9272,-4.3562,-0.36163,0.34534,9.333,
-12.4501,-6.671,5.0132,2.6358,-21.1345,-2.6477,0.78581,7.9674,7.6538,-8.7051,-8.9151,-2.2681,-1.1216,2.0242,
-9.5335,-11.3324,7.8459,5.1292,-9.0201,-6.5862,5.3184,-2.3926,11.2924,-6.4953,-1.3903,-8.1576,7.3818,-1.2303,
-4.8641,-15.7137,4.2417,8.4369,-2.9353,-17.5192,-0.062147,-5.3821,15.6765,-7.7926,11.4676,-12.7296,15.375,0.048327,
-1.9212,-13.566,7.1207,6.7254,-1.072,-23.458,5.003,-3.3724,21.2434,-8.5306,18.7328,-8.8325,19.0318,4.1428,
-2.0469,-8.6547,7.8983,5.5985,-1.2486,-18.917,14.1029,-4.3749,18.2816,-5.3674,16.404,0.13308,20.0591,8.474,
-2.8882,-7.6532,2.1219,-1.4857,-2.1378,-13.4434,7.9543,-2.1844,6.0977,-3.5991,3.3684,6.8742,12.5888,8.9296,
-1.9917,-6.4709,-0.6567,-6.9404,-0.32254,-10.4679,2.4151,-0.8483,0.18798,-7.9629,-6.7158,6.2206,4.3614,8.6346,
-2.5954,-7.2882,-2.7867,-3.3907,4.2763,-12.0087,-0.38113,-2.0025,1.3818,-15.4389,-5.5898,1.2678,3.859,6.4295,
-1.7165,-6.1273,-5.2703,-3.9099,8.1173,-6.7087,-4.9373,2.6972,-2.7983,-10.8969,-3.085,5.2893,7.725,4.8387,
3.9301,-1.1804,-2.303,-9.7013,-0.80584,-0.28063,-2.9539,-0.11573,-13.4766,-7.592,-9.8898,2.8028,0.27165,-0.031392,
17.7943,9.2545,11.9352,-3.5754,1.8938,2.8695,5.1769,-4.2064,-6.6423,-8.8235,-8.0913,-1.4629,-5.288,5.0324,
15.883,7.2532,8.4472,1.9415,4.6725,-2.1232,-7.1851,1.8304,-3.3519,-14.561,-8.5699,-5.2318,-7.3811,9.0685,
7.9402,8.5053,0.95053,3.0303,-4.0435,-3.2006,-16.1535,12.5673,-10.1402,-13.4459,-8.7786,-0.82005,-1.8766,7.8015,
7.9461,9.4412,4.7503,-1.4903,-13.4419,-6.865,-4.5794,9.4026,-10.978,-13.6033,-10.1801,2.1212,-0.8001,4.9233,
6.2641,4.295,6.1521,0.28638,-3.7173,-12.4791,0.757,10.0438,-5.2577,-12.5461,-10.2922,1.753,-2.9213,5.8332,
-4.958,-7.2909,-8.317,-3.3462,-0.36124,-13.4176,-11.099,11.1279,-8.0757,-12.5167,-4.6134,0.92444,-2.9874,4.7599,
-2.9733,-8.5407,-8.1797,-3.3864,-9.2576,-7.5508,-2.4793,7.8091,-3.9757,-6.2221,1.207,5.9306,5.146,9.5355,
3.954,-5.6176,-2.8682,-2.7008,-11.1123,-12.8824,0.080021,4.4485,-4.7011,-8.2589,-6.0963,0.75456,1.4628,7.0356,
4.6806,0.0216,-1.2498,0.35328,-0.8046,-8.253,-9.0838,9.4838,0.40125,-6.3173,-0.90979,-0.25504,0.89312,8.0593,
-4.0361,-3.5949,-3.3442,0.090882,-12.5667,0.19566,-9.2619,0.96127,3.0285,-3.287,2.76,-1.4448,-3.258,2.0323,
-2.8301,-3.3797,2.1591,1.5317,-18.0792,3.5584,-5.3317,-10.666,-1.0096,4.1409,-0.29813,4.4265,-3.0626,-0.98212,
3.3657,1.4029,3.2348,-2.6576,-2.8944,-3.6445,-14.894,-19.4256,-1.6719,6.0618,-1.4851,6.33,-0.70965,2.2103,
1.4766,-1.3324,-1.539,-4.6673,7.7638,-10.4157,-10.3847,-16.0909,1.0795,5.4571,1.2556,5.2273,-1.8719,-4.4298,
-3.9149,-7.0373,1.4456,0.91518,-3.7895,-7.8628,4.3384,-1.6283,4.8709,14.7707,6.9646,13.5906,1.1327,-10.9131,
-5.8487,-7.8199,5.9386,4.4757,-17.6621,-6.6677,1.3063,-3.2174,8.6764,13.6437,9.6802,13.4985,1.3057,-14.8376,
0.52775,-5.6634,9.6796,7.8226,-9.7328,-10.365,-1.4234,-12.9063,13.6995,8.2456,5.484,5.2168,1.9503,-19.9729,
1.219,-6.5289,7.4116,8.558,0.73314,-14.8048,4.6875,-10.9271,11.1903,10.8838,3.4677,3.6985,3.5205,-27.6926,
-4.6387,-3.7271,4.0749,10.9371,-5.0954,-8.1319,-3.7884,-3.0406,8.5907,11.6773,12.4187,7.333,0.89912,-29.4053,
-5.3245,-2.5393,3.8302,9.3168,-13.4668,-2.8235,-0.66908,-7.6787,12.4133,13.3866,16.0116,6.4108,-2.5295,-26.1947,
-1.3898,-4.5564,-0.97916,5.1421,-13.8636,-7.7156,4.4327,-12.7618,8.5353,19.573,12.3996,7.2312,4.6124,-29.6849,
-2.2703,-3.3187,-4.2949,3.3878,-6.2834,-7.2526,-5.9561,-8.1397,6.0954,15.0246,9.7279,11.1361,14.9409,-31.7598,
-4.3033,-3.3605,-0.42176,7.7638,1.0835,-2.2377,-2.9477,-6.9279,18.5037,8.0974,12.7597,10.2265,17.1775,-26.7212,
0.052284,-4.8461,1.2908,16.216,-4.043,-8.6114,7.1114,-14.9482,22.9371,14.1195,17.0553,9.8544,14.942,-24.8767,
1.0135,-6.4835,3.1415,11.8691,-5.7286,-14.8432,10.5413,-12.605,13.3661,13.2723,16.0324,7.8169,16.9375,-25.7942,
-3.1449,-9.7097,6.5687,3.6849,6.9072,-6.481,12.0778,-1.0029,10.8767,1.6297,12.9011,3.2503,20.9827,-24.9699,
-4.4025,-13.4659,0.38952,5.392,2.1545,-3.682,5.0863,-0.46035,13.1166,4.4242,11.6446,3.5372,19.2418,-21.5435,
1.8874,-10.4886,0.60735,11.0943,-2.0722,-6.5943,4.0583,-0.19176,15.4629,18.2588,16.9717,11.7613,20.7387,-13.743,
-3.5287,-14.1978,1.0531,0.30547,7.2112,-6.6808,6.2247,-7.4111,5.8582,11.017,8.2404,2.8602,16.602,-18.7032,
-5.7271,-15.2741,1.4718,-4.0516,6.7785,-2.4236,11.1538,-9.859,5.9887,-3.744,-1.895,-6.9523,8.857,-22.4015,
-1.2861,-14.1167,-0.30372,2.217,-7.7282,-4.9293,4.941,-10.4725,10.691,-6.5324,-4.4324,-5.3299,4.7102,-21.2986,
-3.1371,-9.4133,-0.76743,4.4941,-5.457,1.1511,-9.4555,-9.362,4.2645,-0.35587,-2.2387,0.77446,11.1765,-17.6106,
-2.2258,0.069315,-1.4445,-0.35505,6.6808,12.41,-11.9011,-4.7031,-2.4986,-0.57549,0.065033,5.7894,14.1211,-12.9385,
-1.1281,0.065384,-5.6964,-2.2617,5.3158,0.57836,-3.956,-7.7952,-6.2053,-6.3253,-5.7232,-2.7524,1.2229,-13.6082,
-0.81925,3.1947,0.18923,4.8636,-0.54651,-4.5178,-5.4056,-6.6043,-1.2534,-0.88434,-4.6567,-8.1311,-1.0198,-12.5505,
-6.7961,4.2083,0.90078,3.8489,-7.986,-0.14937,-19.1813,-1.6288,0.02705,-0.59031,-6.5465,-8.8485,1.2105,-12.5209,
-3.9782,2.5096,-1.0815,3.618,-5.5786,-2.551,-13.8128,2.3253,-6.7235,-6.8216,-8.0823,-5.4256,-0.30836,-7.9132,
5.42,2.359,5.2504,1.9551,2.9512,-3.8437,1.1159,1.2224,-11.1403,-4.9659,-4.2225,-1.2432,1.1564,-6.956,
2.6844,0.77142,8.3096,-2.5008,-4.4564,-4.5772,9.1237,0.18497,-7.0977,-1.2937,-7.3433,-0.68642,-0.84095,-10.8772,
-2.2971,-4.5777,4.9183,-2.8329,-6.5994,-2.8565,-5.5237,3.5476,-0.40508,1.1941,-9.3136,2.729,-1.2727,-2.994,
-0.95424,-9.3645,0.52606,-4.8323,3.6783,0.93004,-12.5439,1.6478,-6.8885,-1.047,-8.0316,-0.086075,6.7572,4.1753,
2.9592,-2.054,2.4225,-5.0245,9.7243,1.3564,-2.15,-5.1998,-11.778,-5.8046,-9.4777,-5.3833,10.2084,1.9968,
-0.11044,0.96178,0.34937,-7.1332,10.1052,-1.1351,-6.8418,-9.2261,-6.7326,-9.7947,-11.8015,-4.5784,0.43686,1.877,
1.8244,2.8323,-2.0822,-3.3307,5.1605,4.2356,-5.4669,1.4504,-5.3643,-8.7248,-9.1653,-3.8218,-1.0352,9.4772,
13.0431,7.724,-0.27002,0.0026038,3.6456,7.5969,2.8148,6.425,-13.4786,-5.0681,-5.4819,-8.6537,2.6419,10.5958,
13.7068,3.8861,0.22812,-2.4081,4.8731,-0.57167,-6.0312,-4.0838,-12.6699,-8.6204,-7.5631,-14.4014,-1.373,4.6574,
9.269,1.4838,4.3122,2.3161,6.7499,-4.1528,1.3206,-3.5974,-3.9559,-11.2364,-5.4221,-11.3677,-2.9774,4.6193,
4.6155,0.67141,2.8482,1.9357,6.104,-0.77059,13.5339,2.1616,-7.334,-7.9111,-3.41,-9.9628,-1.5939,5.0651,
2.4103,2.0774,-0.2152,1.82,4.2915,3.6144,-1.3782,5.8888,-7.3759,-1.1697,-5.1336,-9.365,-0.5344,4.7612,
6.8452,6.0503,2.449,1.4696,3.7928,-2.6282,-15.3955,7.7044,-4.282,0.58768,-8.9227,-7.1161,-0.74307,1.8242,
9.5676,10.2666,5.4356,-1.752,3.3242,-4.6397,-6.5182,6.0368,-7.6405,1.7575,-7.1825,-1.6274,1.9526,2.4376,
0.31663,9.1689,1.2533,-3.0929,-2.1776,-0.50469,-7.0908,-1.0736,-16.3409,1.1703,-7.7152,-2.012,-0.092511,-1.5648,
1.0205,9.8236,3.8292,1.19,-0.35975,2.6586,-8.353,3.5701,-13.6737,-0.58757,-7.4937,-2.1322,3.528,-3.1581,
8.6723,10.1983,4.0816,2.0831,0.144,-2.3214,1.3074,8.1764,-8.5142,-2.9622,-5.1156,-4.4146,2.8346,-0.076341,
5.0187,6.4531,-2.1895,0.27024,3.7506,-3.3872,0.50585,6.9627,-4.8706,-1.0977,-1.1935,-1.9808,0.97708,3.0615,
-1.5492,2.2093,-4.4681,-2.6378,5.9359,-3.6661,-0.4886,5.0989,-3.6143,-1.9957,-1.1217,1.5127,-0.52757,0.46745,
-2.6615,3.764,-3.959,-1.2747,-4.3027,-2.2408,6.0482,5.0339,-12.315,-5.4914,-5.6341,-0.74722,-4.1113,-3.176,
-3.7069,7.6357,-4.4446,0.0072985,-3.8033,3.9194,1.5882,5.455,-11.8173,-1.0646,-5.0549,1.467,-2.1772,0.1478,
-2.2794,3.08,-2.4905,-3.6088,8.2352,-1.3777,-8.3893,-1.38,-5.0825,-3.6518,-6.439,4.0303,-4.216,-1.0661,
-0.93757,-1.2024,3.6843,-2.6691,5.0898,-5.8745,-8.609,-1.0565,-6.9469,-6.5662,-5.8115,3.5473,-3.7223,0.2029,
-5.4604,-0.88904,6.5965,-2.7502,-2.6876,-0.46016,-1.1029,1.6582,-11.1096,-3.0387,-0.88329,2.1294,2.0449,2.3601,
-5.6151,3.5026,5.7188,-1.6208,0.84809,-0.43255,-0.07236,-2.7796,-9.4787,-2.3744,0.13357,-1.8548,0.47596,-1.1559,
-2.6265,1.6055,2.7248,-1.7648,3.9309,-3.0579,-5.1295,-6.7099,-6.7406,-5.3652,-3.0072,-9.2155,-0.75766,-2.7736,
-0.5409,-0.90122,2.5611,-3.5869,4.1768,11.2256,3.3732,-0.041046,-6.8183,-6.4894,-1.8632,-11.0725,2.6625,1.2494,
7.2043,5.4198,8.192,-0.96153,9.2293,-3.548,16.6682,7.1923,-5.9273,-10.4383,-0.30466,-8.4799,1.5384,3.1027,
11.5926,10.3971,8.6645,2.4708,1.9264,-10.0835,7.4732,7.7248,-2.6794,-8.8479,1.1597,-8.9352,-1.9281,3.8806,
1.0148,4.2294,-1.2556,1.599,-12.2892,4.6215,-7.0752,4.61,-8.5444,-2.7739,-2.5256,-12.0148,-6.3924,-0.9322,
0.9544,8.7963,4.1229,5.8418,-0.10318,-9.7558,2.8698,9.6361,-4.6573,3.6595,2.9286,-6.9551,-3.5983,2.9806,
-3.9238,8.2688,6.7673,3.081,5.6878,-23.2705,8.9643,4.2374,3.3352,-1.8627,0.82446,-14.2508,-5.3108,2.8015,
-6.8216,1.7469,4.6743,1.2087,3.1772,-35.9742,-0.0094324,0.8499,7.7141,-2.4741,-1.3944,-17.4933,-0.41264,-0.98177,
4.6747,1.6418,10.6601,0.65444,3.9506,-47.9158,9.1499,2.7269,3.3951,3.4587,6.4023,-6.3206,8.289,0.040774,
13.0711,7.3281,17.2516,2.5431,11.4266,-59.1408,11.9752,-0.81096,-4.0392,2.7693,7.9466,-4.9773,10.202,4.8593,
5.5381,6.8882,13.3242,3.3546,12.187,-69.6924,5.9542,-1.7264,-3.7971,-3.6634,0.72109,-14.8018,5.2513,3.6036,
-0.09682,6.4749,13.4886,6.5278,-1.0777,-79.6108,13.7917,7.5362,2.2153,-0.069372,2.606,-9.5753,2.0442,3.3874,
2.8015,5.6045,11.233,4.6899,-5.8337,-88.9342,5.7333,7.566,-3.7022,2.8271,3.4135,-3.2162,-2.8992,7.5225,
6.972,2.8579,6.7029,-3.304,5.6037,-97.6981,-8.7107,-1.0829,-9.7468,-2.163,0.31642,-7.3614,-6.5814,8.5172,
8.2409,4.3736,5.0959,0.50962,13.2213,-105.9363,-11.6825,1.6336,-7.9567,-8.0588,-0.42546,-11.9814,-6.9099,0.53432,
7.0233,6.7625,5.9952,6.9868,0.61809,-113.6801,3.1185,8.0433,-4.828,-5.888,-1.605,-8.1292,-11.0748,1.2254,
7.807,8.5262,8.7688,3.4343,-6.891,-120.9593,7.1494,5.3913,-0.9231,0.97295,-2.2318,-2.0976,-10.1691,9.5878,
5.6513,6.3274,5.1091,-1.8334,5.3326,-127.8017,-5.0901,-3.8502,-6.4113,-1.7367,-0.89309,-6.0696,-2.5691,5.3971,
3.1431,1.8504,1.6696,-1.0005,19.1126,-134.2336,-0.68691,1.4425,-10.124,-9.1043,3.2583,-8.3565,4.0925,0.01204,
-2.1072,-5.2505,-0.60023,-3.1097,8.2042,-140.2796,-3.2973,3.5251,-10.7219,-17.9581,-0.070673,-14.363,-2.6605,-5.5328,
12.1192,9.1645,13.5358,11.1769,-5.3028,-145.9628,3.6493,6.2059,4.0215,-3.8652,7.1646,-7.2341,4.7302,5.8867,
22.1181,14.038,20.0752,12.5552,-0.88752,-151.3051,13.7944,3.1822,7.2753,-2.9101,7.9398,-9.9337,6.1334,6.2566,
14.2828,0.42104,10.9167,-0.0089251,3.2629,-156.3268,5.4947,3.7144,-7.2612,-16.8355,0.95526,-21.63,-8.3346,-4.001,
10.5338,3.7702,9.2974,-1.4542,4.5133,-161.0471,-3.9936,10.24,-12.2486,-13.0538,0.89795,-17.4401,-12.7757,-2.3146,
4.5994,3.5438,4.4014,-4.2592,0.86832,-165.4843,-5.6824,1.913,-14.406,-9.3783,2.2906,-12.5371,-6.7068,-5.5504,
6.0106,0.19813,5.8246,2.9862,0.57525,-169.6553,3.5766,0.11102,-1.7311,-7.1282,16.2531,-8.1695,5.0243,-3.0478,
5.891,-4.8754,5.7161,4.9762,-3.0747,-173.5759,3.1211,3.7198,6.8085,-10.7978,19.496,-13.7048,6.892,-5.0341,
-1.2116,-7.4752,-0.4117,-2.0711,0.0020901,-177.2614,0.041525,0.6043,-6.1338,-15.935,4.3463,-13.3647,1.1756,-8.1067,
-3.5491,0.68609,-0.86893,-3.875,9.161,-152.5257,3.413,1.05,-8.1759,-4.3736,6.0137,1.5372,7.3716,4.9132,
-2.1306,3.7786,-2.0219,0.93702,-5.4887,-129.2742,0.55738,3.1564,-1.1771,-0.97769,3.4839,4.9399,4.2784,7.7516,
6.4329,2.3466,7.9814,7.8702,-14.6798,-115.7336,1.7288,8.5106,1.0622,-2.1243,-3.715,-0.90013,-3.9325,2.7072,
2.1905,-1.1686,9.4307,-0.7967,0.30096,-109.7534,-2.7133,4.1436,-5.75,-1.9969,-3.0101,-4.2206,-11.4093,2.5448,
-3.2438,2.2757,1.1519,-0.74913,7.8752,-94.4916,-5.9252,3.4128,-5.4052,-7.1797,-0.90111,-7.3416,-10.2426,2.8738,
5.387,2.3801,1.8061,2.9112,-3.9255,-84.2426,-9.1846,3.9309,-3.3937,-20.8489,-3.0162,-15.3372,-5.5307,-1.396,
13.9818,3.9246,14.4722,6.352,-1.5208,-77.9827,-6.9463,1.044,-1.5028,-22.8517,-5.4868,-22.3707,-6.4041,0.85696,
13.1432,5.6175,17.4605,9.3455,3.3914,-67.037,4.0755,1.9454,-1.8944,-18.1059,-6.1212,-22.9564,-7.9478,4.1802,
10.4259,2.8699,10.6278,5.4104,10.9002,-59.1586,7.205,0.38245,-4.1913,-19.9123,-2.3799,-14.3487,-6.0247,2.4831,
13.175,9.9287,14.3287,9.9062,17.4768,-48.3783,4.3628,-2.5328,-0.083194,-13.4149,3.5477,-7.7029,-4.6991,5.7084,
13.1074,14.8766,19.0126,13.4092,2.3282,-34.6296,8.6803,1.2346,-0.31963,-8.9946,-1.2449,-11.8203,-10.9251,6.5712,
13.0441,8.9221,15.7024,8.5071,0.38079,-29.4183,7.9183,7.6682,-1.9874,-14.4807,-8.1599,-12.3164,-17.7412,5.4538,
10.0923,4.2894,11.1449,4.3812,9.7579,-31.7506,-6.6568,3.5927,-3.5554,-15.2989,-8.8756,-8.9258,-20.2921,6.3318,
8.7637,7.6477,16.9839,4.8415,0.73657,-23.338,-9.5109,-0.23803,-3.5833,-6.4272,-2.7992,-5.257,-9.6748,6.1927,
16.4325,11.5272,23.1957,8.8893,-4.1279,-11.3327,5.1598,5.5608,-0.47578,-4.5955,0.74273,-8.798,-2.3454,0.51846,
15.9285,11.3175,16.5013,10.7665,10.2198,-8.2424,1.8369,6.191,3.4092,-11.5504,-2.1939,-20.3214,-7.9893,-9.1536,
14.2499,13.29,16.7165,13.254,20.3322,-6.0606,-1.8882,0.27597,3.4456,-3.8675,3.9633,-13.5585,-2.4483,-11.2555,
17.2513,11.0463,23.9082,12.4588,5.6149,-6.6608,10.2761,-4.5608,-1.0995,0.70285,5.6537,-0.21176,2.5189,-14.4365,
22.0006,11.3476,27.7762,15.0855,8.1703,4.8258,17.8545,-1.3949,7.1614,1.1426,4.8323,2.2113,-1.0065,-15.0168,
20.6805,13.0769,20.8069,20.4469,21.78,17.5514,15.8189,-3.7218,12.9983,0.59212,6.9525,-2.7421,-2.8743,-17.9722,
18.4758,12.7742,20.0409,18.7381,12.1578,16.0164,15.8341,-7.3549,7.3976,-5.7101,6.0534,-4.5058,-0.77363,-28.463,
15.1981,15.6232,21.4896,16.8909,-2.6716,20.5991,9.3404,0.076294,8.1591,-5.1266,4.4854,-2.066,3.8521,-26.5141,
0.54792,10.1065,6.9438,12.2621,-3.8369,23.9426,-5.32,-4.0256,1.644,-3.1318,2.0471,-7.0037,4.3439,-26.1285,
1.9611,4.6796,7.0093,10.5622,1.2138,19.6138,-6.5675,-9.0865,2.0275,-4.3899,9.1549,-7.0654,6.0116,-29.3811,
11.7253,3.676,19.3632,17.4003,-10.6691,13.8574,7.9265,-8.3004,12.2697,-5.3315,11.2571,-5.9184,1.5536,-30.2695,
6.9245,4.1783,10.2477,17.5611,-6.896,14.7132,-0.38209,-10.9358,8.4005,-0.9143,4.0738,-8.2146,0.25508,-29.6586,
6.7502,9.471,0.2326,12.8923,7.6178,27.569,-11.6876,-13.8949,-1.0218,5.6483,4.0705,-6.0345,7.2299,-25.2278,
8.032,12.5182,5.2803,12.3597,0.77372,36.7609,-3.0326,-9.9281,0.24479,4.1041,5.5131,-9.2879,7.519,-22.991,
4.8992,6.7056,9.0611,17.162,-8.1905,34.7964,11.2494,-0.89655,9.1479,1.6889,6.8697,-10.4176,5.8628,-20.8884,
-1.4206,-7.7967,-0.40087,11.0703,-0.22753,22.8265,6.1158,-7.8324,1.6094,-9.2587,-1.014,-14.8542,2.8597,-28.071,
-0.13003,-8.6542,1.7928,7.2731,8.7042,24.5904,-7.0256,-18.2083,-2.5845,-11.3543,0.73405,-14.6859,6.7855,-25.6636,
-3.7376,-5.4839,4.3363,5.1495,-3.1463,28.1764,-5.3992,-14.9466,3.5961,-8.986,9.6076,-15.01,9.9938,-19.5445,
-3.0317,-6.6013,1.6658,10.1429,-9.7062,26.9677,3.6016,-3.9271,10.129,-12.3032,12.8878,-16.5198,11.8045,-18.3718,
-0.92136,-11.5077,-0.84452,6.1601,-3.3394,23.9036,0.97562,-10.4402,3.7369,-20.2419,1.9914,-20.831,7.2396,-22.572,
-5.4456,-7.6835,-1.5165,2.6573,-0.96968,26.5668,-2.2162,-12.947,1.3433,-13.9659,-2.7076,-17.8939,5.1182,-19.5304,
-13.3136,-8.6688,-7.692,3.9441,0.052825,23.0448,-5.9396,-11.6878,1.2627,-5.415,-4.4734,-20.1945,-0.49151,-19.8046,
-6.0073,-10.8002,-4.0975,3.466,5.5933,24.3132,1.4062,-14.12,1.4279,-0.5108,-6.8565,-21.6344,-0.70299,-22.232,
1.343,-7.983,5.066,3.0171,-5.1067,30.8082,14.0963,-11.5856,0.61936,-5.0597,-10.5425,-21.5414,-0.90177,-23.5494,
-6.9325,-5.0937,7.1724,5.7284,-5.2824,33.7802,14.2146,-3.1779,-2.3106,-11.9869,-10.3921,-26.9978,-5.1862,-23.1005,
-10.132,-1.6546,6.0191,13.3384,9.1345,36.815,7.3362,-4.1921,1.9259,-6.6882,-4.2249,-20.7984,-0.77769,-15.2068,
-9.5238,-4.93,1.8014,10.6101,3.4043,33.1599,-0.33506,-15.5099,1.8101,-8.2151,-4.9355,-12.3197,-0.7308,-10.9199,
-5.096,-2.7055,3.6219,10.9378,-9.333,35.0269,5.4701,-4.9384,8.9323,-8.6861,-0.30064,-13.9906,1.7232,-5.9262,
-11.5394,-7.8461,-1.8983,10.7633,-7.327,31.961,0.80333,-2.7137,6.9504,-15.396,-5.1031,-27.2512,-3.2007,-14.2477,
-10.1234,-12.4368,-4.9176,7.9485,7.2126,37.0332,-3.8244,-10.0229,1.9538,-9.8925,-6.002,-24.7725,1.5709,-15.562,
-2.5266,-8.5571,-1.0071,2.8919,12.9259,43.2468,-2.3901,-9.1805,-1.2969,-1.3452,-1.0626,-13.8864,3.1638,-8.1206,
4.3739,4.9718,4.8379,10.4311,0.58119,47.4009,5.4665,1.4937,0.22719,2.11,5.2682,-11.6067,-0.40045,0.5616,
5.5573,6.1193,4.5476,10.2872,7.7772,46.967,9.9588,-0.042223,3.588,-2.3552,2.0596,-12.8387,-3.7509,1.0098,
6.1884,-3.4067,8.6133,4.8495,21.4105,44.149,13.2179,-7.7527,4.3368,-5.1061,-7.2233,-15.9248,-5.9362,-2.9071,
7.2631,-5.6126,11.9526,5.5226,12.7748,44.3923,19.1735,-5.841,2.6306,-0.46145,-8.2359,-13.0411,-7.508,0.64174,
4.6582,-2.6243,8.1025,7.3609,-2.0917,50.6469,11.5151,-0.91129,3.1957,1.2535,-6.5365,-2.8586,-5.3703,1.8083,
2.4503,-3.431,3.2778,8.8472,7.5543,54.3567,-3.2758,-5.1952,4.4499,1.1783,-6.1445,8.4001,-4.084,-5.531,
1.3391,-6.5998,1.6346,6.3879,12.4035,49.6491,-3.4409,-9.222,4.6651,5.4459,-2.8835,21.9961,-4.3211,-5.6813,
1.9817,-3.0703,4.1881,5.7637,4.1874,46.9111,10.8656,-0.23255,2.216,7.7705,-0.059438,34.7763,-4.3028,4.0595,
7.8888,8.4421,8.0342,9.5157,8.0336,56.8711,8.1652,6.7713,4.2522,8.5095,3.0776,42.0895,-3.8036,9.8417,
3.8001,8.1765,2.9728,9.6676,3.9361,60.9304,-6.4247,-0.14294,2.3099,8.7221,3.1339,31.6104,-1.8882,3.7076,
0.1976,4.3115,1.8301,11.4977,-0.63837,57.2746,-1.8212,0.34757,1.2074,8.1988,-1.3924,22.4829,-0.81104,-1.8172,
8.8628,6.4634,8.9512,12.2541,6.1488,55.7663,12.3881,3.2192,3.5451,2.4042,-9.0217,18.2417,-7.5108,-4.6007,
13.8742,11.1368,7.6907,11.7598,9.8773,55.0717,14.1752,0.37453,3.5734,2.0187,-8.7213,15.46,-10.6756,-2.1555,
10.8728,9.2635,5.0604,11.7774,14.828,57.311,2.4786,3.9677,4.0821,6.9593,-0.24454,17.1837,-3.0454,3.5174,
5.3998,-2.3795,7.6492,4.3223,12.4925,51.4622,4.7405,-2.5369,5.2834,3.6494,-5.0501,10.8502,-4.309,-3.4421,
6.0401,-3.2006,10.5643,5.5087,7.8861,44.5178,7.3481,-11.0618,11.2329,5.8406,-7.1572,6.8248,-5.4967,-10.9486,
1.0982,-5.6599,1.0126,1.0811,11.5105,41.6058,2.8097,-8.2289,6.4614,2.3569,-6.4866,0.8719,-2.5156,-14.8712,
3.2017,-2.187,0.7111,1.257,17.8096,48.5097,6.2567,1.1829,2.9404,-2.846,-3.4461,-0.86764,-2.6054,-13.7377,
7.5886,6.862,7.1757,6.243,6.8588,50.6603,5.1582,0.3888,7.3435,0.45806,-4.9268,1.8355,-5.5828,-7.852,
1.8309,9.3426,4.8172,4.4224,2.1087,51.9593,1.9564,-3.4911,6.4208,6.2152,-5.5953,5.5818,-1.8731,-1.1143,
0.51621,6.6129,2.359,2.9518,16.0822,62.0981,5.4545,1.2981,-0.95391,1.263,-4.5367,4.0418,0.40844,0.15781,
5.0648,2.119,4.8688,3.4978,20.7818,62.4698,9.7067,3.8715,0.79032,2.3922,-5.9514,0.66604,-1.785,-0.57479,
1.3864,-5.239,5.5405,4.7342,5.4349,49.5626,12.9807,-6.002,6.0456,5.6229,-10.897,-4.1944,-7.9449,-3.9145,
0.57987,-4.2018,5.4491,6.1373,-2.7247,52.1324,10.5146,-5.8828,3.9956,3.1164,-10.9661,-2.7377,-3.8528,-1.9924,
4.1603,1.5937,2.9527,3.5997,8.7668,62.2606,1.9298,2.9058,2.5508,-3.5783,-7.6573,-4.2606,2.8861,2.7064,
3.4289,-1.8761,-0.11628,3.384,14.0256,59.4893,4.2243,-4.9811,2.8799,-2.8814,-7.6795,-9.7896,-0.17934,-0.8302,
4.4283,-4.8968,2.0596,5.3499,18.7279,57.125,12.8887,-8.2976,2.9479,6.6915,-6.4956,-0.76631,-6.6763,-0.057492,
5.3674,1.4225,5.0695,6.2342,8.2038,62.1334,11.3925,4.0106,3.9763,6.0488,-7.3112,4.3411,-8.4449,5.9715,
0.70728,11.4603,4.7651,9.7167,-6.3885,64.19,9.7449,8.1085,3.7375,-0.09874,-8.8005,-4.1141,-3.5996,7.0597,
1.1468,8.8445,3.5154,8.6513,4.2387,57.9282,8.6778,-2.0194,2.5494,-0.57498,-5.3804,-4.8315,-2.9017,5.1899,
3.0062,-3.7377,1.3762,2.3477,10.2509,44.8116,7.1932,-7.2007,2.3964,0.42362,-5.0576,-5.5057,-6.584,2.4681,
2.5848,-4.7183,3.9448,-0.92668,-4.4642,44.7742,11.8229,-6.5277,4.4218,-0.80686,-6.9233,-16.5036,-5.948,-5.1518,
4.8399,1.3494,3.2261,-1.353,-1.9064,49.3186,10.1496,-9.5102,3.6745,-4.6148,-9.4004,-24.1902,-3.181,-10.6273,
7.2008,1.5092,-2.0289,-0.066765,12.3079,47.0824,6.4074,-12.555,3.2129,-3.6148,-10.0414,-18.6415,-2.7489,-5.8923,
9.1793,-1.9554,-0.46088,-0.062302,23.2596,51.0063,9.8793,-11.3196,6.3945,5.2792,-7.9927,-13.6664,-6.4404,-3.1281,
14.1722,1.2954,4.1461,2.1106,27.8895,55.8999,11.4557,-2.2045,4.8056,10.506,-6.3078,-11.6413,-4.8487,-3.6636,
17.9011,10.6177,3.1744,7.0452,28.3853,58.5715,6.671,2.0254,-1.5083,7.7063,-5.2065,-2.5069,-1.9067,2.0996,
10.0782,7.5701,2.0196,6.6225,18.487,57.4673,6.2708,-8.7015,-3.8279,-0.46887,-9.7143,-3.3206,-15.8923,8.2404,
0.79661,-2.0429,1.4163,2.8509,7.2547,54.0195,10.715,-9.6256,-3.5985,-5.2612,-12.9881,-15.6546,-29.0387,4.3715,
-5.9996,-3.8486,-4.4533,-1.1765,1.5172,51.7422,7.662,1.075,-4.3464,-0.60723,-11.7269,-13.2691,-37.1783,2.1813,
-6.604,1.685,-5.15,0.34031,8.1746,48.1557,8.1661,3.9026,-3.6037,4.2497,-12.4695,-1.8681,-27.717,6.3887,
6.3257,4.476,2.3899,2.2481,14.4331,43.3382,14.907,-1.1518,-1.4593,6.8872,-13.1671,-0.30978,-27.9822,13.2362,
1.6074,-4.4692,-4.0205,-8.0102,-0.53292,46.5225,9.6743,-8.7957,-7.1563,7.92,-19.608,-10.4143,-34.9804,4.729,
-8.8529,-4.924,-6.4304,-7.7701,-13.1547,43.4902,3.0683,-8.9909,-6.486,18.2911,-20.1187,-10.0302,-33.1223,0.34817,
-8.0808,-6.7982,-7.7318,-5.1352,0.40859,36.7834,-3.6238,-8.6926,-1.9995,18.8806,-13.8499,-8.7055,-28.966,4.4244,
-6.873,-11.452,-13.7758,-6.5138,4.9638,48.6764,-5.5755,-9.3761,-0.67421,14.1324,-7.9577,-11.3164,-23.6124,0.54352,
-14.1732,-16.0673,-11.5028,-10.462,-9.434,59.8558,-3.313,-21.3468,-1.5979,7.4998,-12.7826,-23.1709,-23.6419,-13.5891,
-11.3948,-15.5854,-5.5102,-10.316,-17.9067,70.3645,-2.6321,-28.7429,-1.0198,-4.0371,-16.8362,-35.8807,-25.1157,-26.8737,
-0.82874,-5.7322,-7.3487,-4.1534,-2.7323,80.2426,-1.7508,-13.7619,-3.6102,-9.3385,-12.2106,-33.3661,-20.9574,-17.0664,
-5.5995,-3.4598,-8.8358,-6.7965,0.4446,89.5281,4.1386,-6.1875,-9.1779,-7.8141,-15.3343,-21.241,-19.7,-7.3653,
-11.7715,-4.9395,-5.1726,-6.6297,-13.6821,98.2564,3.6493,-11.3599,-7.9043,-4.212,-27.1887,-17.7976,-24.5438,-4.7545,
-2.3881,2.1053,-1.4878,0.99895,-8.1612,106.461,1.5022,-2.4834,-5.9838,-3.9593,-32.788,-14.3194,-24.5172,3.726,
-0.3166,3.9072,-2.8448,-3.3998,-3.3327,114.1733,10.0891,2.9683,-14.3019,-10.4704,-35.1593,-20.2089,-24.0102,2.5383,
-4.8773,1.5036,-1.9512,-5.8469,-10.1226,121.4229,10.6886,-2.7534,-14.1667,-6.2268,-30.3984,-23.0938,-20.8824,-2.1935,
-5.0666,-2.4425,-1.3517,-5.978,4.5847,128.2376,-0.07559,-6.4446,-3.6757,4.27,-22.3078,-16.8874,-17.2191,-0.61562,
-8.1371,-10.0092,-6.0913,-6.5836,11.4198,134.6433,2.3391,-5.0941,-1.527,4.4955,-19.5235,-11.0542,-17.6324,-0.09698,
-9.0947,-9.4087,-5.2435,2.9704,-1.3165,140.6647,14.7322,-2.86,-1.4354,7.6004,-8.2287,-2.1957,-9.3434,7.1399,
-9.5133,-8.3622,-8.3033,-1.5461,-6.0582,146.3248,3.7254,-8.9551,-1.8312,12.929,-6.7709,-0.1358,-6.3727,8.6397,
-5.0861,-7.8605,-8.2875,-7.7203,-2.8027,151.6453,-3.247,-4.0795,-1.2394,13.5993,-13.5955,5.1748,-8.4007,7.157,
2.4499,-6.4245,1.3688,-5.8109,2.1862,156.6466,11.0478,9.6631,-2.6113,15.6758,-7.9593,16.4337,-4.5222,15.8866,
0.85685,-3.6287,3.697,-4.98,3.0191,161.3478,16.5309,4.2624,-4.8649,19.5555,-3.1434,14.0014,-1.3586,19.7539,
-1.3639,2.6144,-1.1043,-1.0661,2.1149,165.7669,1.4391,-0.57291,-4.8138,19.1053,-3.1955,5.6895,-2.4823,16.3993,
-3.4515,1.2524,-2.2431,-5.5816,0.30097,158.1103,7.258,6.9335,-9.1045,12.4154,-6.6194,0.76861,-7.8768,11.3182,
0.37101,2.8645,2.4707,-7.4159,-0.44045,147.4189,20.9225,12.0611,-12.1736,11.4293,-8.8734,1.9276,-10.5377,11.362,
-0.85654,2.9336,-1.7749,-7.2119,0.79127,139.7786,5.5672,7.722,-9.2741,11.4667,-8.1,3.4991,-10.6285,6.5829,
-6.1076,-2.0629,-5.5245,-0.030493,7.9744,130.4278,-6.3362,12.0792,0.92359,17.5276,3.9554,11.4841,1.5786,5.7058,
-12.2488,-8.4468,-7.3624,0.69447,2.4345,108.5021,5.8543,11.5956,2.0732,19.1272,4.9231,12.0001,7.5094,-1.144,
-9.5855,-8.9041,-6.9205,-3.6853,5.1812,91.7488,13.216,2.223,2.9129,18.9437,3.1817,13.2086,5.1309,-5.8959,
-5.3949,-11.9853,-4.818,-2.2593,9.4496,83.5923,10.7359,-3.4542,6.3536,19.4943,7.0882,14.1033,1.6895,-7.7115,
-10.1329,-15.3635,-3.806,0.52731,-5.2174,67.2486,9.3683,5.6709,10.0697,17.1193,7.8677,9.1595,4.2395,-15.6847,
-11.4531,-14.9236,-1.1675,-1.9145,-13.7017,58.3934,8.3243,9.6694,9.9475,15.1283,7.3961,10.0562,11.6979,-21.4923,
-0.16088,-12.5822,3.723,-0.83549,1.2204,63.0843,12.6453,4.2688,7.9046,18.5589,9.8442,15.2374,13.4061,-16.3464,
6.5977,-12.3092,6.8741,0.17851,-1.8658,59.2993,24.4201,4.9765,7.9123,22.7478,3.9511,12.8769,9.7095,-13.9196,
4.9968,-10.3656,7.6667,0.40899,-15.8539,51.1618,20.3036,7.3292,6.2325,18.7319,-2.7937,8.971,6.9578,-17.6637,
4.2146,-7.8155,5.2785,1.8307,-0.80264,51.9485,4.9854,5.9252,3.9303,14.7154,-2.6261,15.6634,9.9147,-13.2296,
1.5516,-8.7928,-1.7871,1.7209,8.1634,46.4214,0.95011,2.6776,5.1408,16.7248,-2.9507,17.6159,11.2481,-10.9896,
0.012665,-8.7472,-5.5358,1.6176,-6.4264,33.9952,14.9931,-3.7496,5.3142,17.1678,-1.3271,6.436,11.5375,-19.489,
1.4577,-6.2941,-8.0962,-0.88957,-11.2228,28.581,15.4195,-4.4889,3.0672,10.8348,-1.7299,-1.181,12.291,-22.6585,
-2.7273,-3.2652,-11.708,-1.5593,-6.9342,32.8919,1.2377,1.3242,0.23184,12.8361,-3.7953,8.772,12.7586,-15.2732,
-12.4452,-4.7565,-9.8002,4.0779,-12.0613,29.7136,6.2251,-8.1552,1.9052,21.9483,0.048335,21.5021,13.1984,-6.8848,
-10.7346,-7.8455,-6.3202,5.7614,-12.7839,15.3973,10.6719,-19.2353,5.1653,20.6314,5.8296,21.658,13.8528,-2.6155,
-5.511,-5.2054,-4.2535,4.6926,-3.099,15.1966,7.3807,-11.0913,2.686,16.2603,5.239,20.5997,15.191,-0.77136,
-11.6885,-5.6162,-3.7575,1.2778,-8.4569,22.2383,15.3733,-1.9901,3.248,20.3456,0.82689,22.9789,16.4485,3.8542,
-16.7713,-8.6537,-4.496,2.6469,-18.5544,18.9758,18.3073,4.396,8.8377,22.0174,1.7416,22.0823,18.836,10.8538,
-17.2113,-12.4728,-8.0826,1.5242,-15.031,6.2681,3.1089,5.5783,9.2713,10.5732,2.119,14.4907,16.2596,10.2026,
-15.9377,-20.6423,-7.3567,-4.1109,-0.87227,-1.5793,-1.0543,3.0747,7.5102,5.8417,1.7512,7.1137,15.0431,6.4574,
-16.1865,-26.3936,-9.0847,-3.623,3.2772,-2.6901,13.109,3.1309,5.8545,9.5884,0.4408,6.9279,15.3455,7.2748,
-14.9741,-21.1946,-10.7085,0.20956,-8.7298,3.4971,15.0942,4.6303,5.262,10.7003,1.6194,14.466,14.666,13.3462,
-11.6653,-15.1024,-6.6918,4.5355,-16.8829,5.6976,3.5835,9.6551,9.7672,10.0585,5.8608,22.2751,15.2321,19.7763,
-14.34,-18.535,-8.2187,1.853,-6.7111,-1.3934,2.8863,17.7527,7.7347,8.9726,3.5807,23.8304,13.354,19.5534,
-12.2746,-20.5562,-9.8945,-5.7302,7.4301,6.1623,8.2565,20.7851,-0.68333,8.6754,1.6787,23.6059,11.3477,17.6573,
-10.8152,-15.7074,-7.1317,-1.2885,-4.3439,13.2643,12.3409,16.4045,2.4912,6.4677,0.37287,20.5023,9.4616,18.285,
-11.8533,-12.5956,-7.9088,5.2965,-8.1808,6.4427,7.5029,14.2152,10.2957,10.177,-1.3365,25.2979,11.0633,19.8393,
-12.1062,-11.3579,-12.7372,-1.77,5.3257,-2.1388,-3.5524,12.8801,3.4112,9.5664,-3.6667,25.2261,11.3636,18.1667,
-6.8001,-5.6145,-9.3214,-2.3872,5.729,-2.2514,4.1326,13.3126,1.0373,6.8232,2.5791,20.0976,11.4047,16.8358,
-6.1516,-4.5548,-7.5573,-1.0386,-4.979,-3.8036,13.2846,10.8266,3.1443,10.0292,6.5217,9.0093,8.5512,12.2102,
-7.469,-1.6301,-7.3446,1.1931,-2.0285,-2.3698,8.3904,11.3821,2.2325,17.3815,2.0331,-5.6312,7.3155,16.0573,
-6.5392,-0.086305,-6.9041,-0.325,6.2877,-0.78209,3.548,9.735,1.1344,19.7128,-0.98144,-19.3934,8.3221,19.9139,
-5.9058,-3.6965,-7.6947,-2.9566,-4.4535,-9.1708,7.9148,4.5717,4.1999,15.3965,-1.1635,-32.3298,4.6898,15.1039,
-5.3103,-1.7878,-6.5099,-0.61026,-15.0323,-11.7538,8.645,10.3227,1.2965,11.3395,-2.2988,-44.49,0.79273,12.9926,
-10.7763,-5.5369,-9.4938,-5.3939,-12.2022,-10.5667,2.3417,13.0778,-2.1557,7.7671,-6.4994,-49.2924,-2.6288,13.1771,
-12.0581,-7.1326,-8.442,-4.1062,-12.9165,-11.3787,-0.20912,12.7753,8.5787,12.6035,-3.6991,-41.0322,-1.0251,15.761,
-11.8168,-9.597,-12.7559,-5.7878,-13.1052,-12.142,-11.2836,12.4909,0.35143,9.4369,-6.3694,-28.9291,-2.4096,13.8512,
-7.7331,-2.7544,-9.0983,-2.0663,-0.26798,-6.1111,-2.4116,15.5976,-7.3827,11.763,-2.1309,-15.6242,3.5193,19.7686,
-8.4744,-4.2764,-4.9374,-0.73746,-10.1338,-11.77,11.4714,8.6362,1.496,15.1545,-0.79795,-17.8202,5.9593,19.3058,
-7.243,-8.5993,-6.328,-1.8981,-15.5514,-16.6074,11.0241,8.359,14.6626,17.3788,0.45522,-20.3664,11.6277,18.8704,
-9.2186,-9.0474,-14.6254,-3.7124,-1.1209,-12.7189,-3.7374,8.8218,7.0344,12.4796,1.8739,-9.5032,10.9301,22.0769,
-8.6655,-7.0583,-12.3016,-4.9359,-0.089339,-6.6531,-5.3206,8.7744,-2.0648,12.6952,1.7615,0.226,5.4535,23.1624,
-8.8684,-10.2505,-9.3943,-8.2551,-14.184,-9.3874,-0.90401,5.1145,-1.218,15.0665,-1.9596,-7.7415,1.029,16.2291,
-7.8546,-10.1174,-13.6512,-9.6883,-8.1512,-9.7882,-4.2245,1.9153,-4.5191,14.1627,-3.2883,-6.3129,-0.4788,12.845,
-4.7318,-5.8949,-10.1805,-6.9373,-2.6005,-7.0313,-2.2833,6.8621,-6.4171,15.4821,-2.3676,4.9121,-1.173,16.654,
-8.7864,-6.5053,-8.6061,-3.6288,-12.0856,-8.5379,-2.6285,6.9325,-3.6218,17.4455,-3.6718,1.2429,-0.13895,15.1726,
-13.3207,-7.8022,-10.2586,-3.6523,-6.2986,-9.7126,0.6625,3.8652,-1.2351,16.64,-0.31827,-2.929,8.3053,14.0211,
-14.2085,-9.5033,-11.8125,-12.351,0.58702,-13.2274,3.2741,6.2846,-2.8484,12.5083,-0.057979,-2.5123,9.4944,10.5285,
-9.9822,-6.5232,-11.104,-10.1639,0.069181,-13.3979,0.66727,10.7276,-1.7134,7.9012,-2.947,-4.29,4.5862,10.3789,
-7.6956,-6.3725,-10.1963,-3.5281,-4.9962,-16.6914,6.1708,9.361,0.076624,3.3298,-2.529,-4.2733,6.9626,15.7818,
-10.1261,-8.8825,-11.513,-6.2091,-7.5887,-21.4747,8.6929,6.8714,-2.3383,3.1298,-5.2696,-3.0528,8.9547,16.2809,
-12.893,-6.4213,-13.7142,-7.7648,-5.2052,-11.5091,-1.4697,11.2794,-2.198,5.3521,-7.8457,-1.9056,7.4536,14.8221,
-11.8787,-8.2054,-15.5427,-8.022,-3.6878,-5.7571,-7.8892,8.4337,-1.343,1.8977,-7.134,-0.10423,6.2832,14.6559,
-4.4168,-6.2668,-7.3795,-3.6841,0.872,-16.0167,-2.1134,3.5891,-1.7446,6.1224,-4.2956,7.615,6.3884,18.597,
-8.0084,-8.301,-9.3471,-7.3196,-6.8929,-24.6969,-2.4683,3.3735,-4.5322,9.6117,-4.52,7.1581,5.041,20.3735,
-12.5894,-14.3108,-16.2579,-12.4238,-5.7566,-18.6356,0.33065,3.8943,-5.4653,0.59861,-7.8642,2.6311,7.8718,19.3923,
-7.2545,-13.211,-11.6672,-11.4372,4.9529,-13.4199,7.3009,5.3481,-4.4143,-1.6062,-8.5974,3.6785,5.712,19.9157,
-5.1322,-11.213,-7.3515,-13.4023,-1.8515,-16.7118,3.7296,2.3758,-1.0162,1.6234,-8.3225,1.2886,1.7541,17.9981,
-4.8245,-8.1304,-9.3213,-9.2244,-5.5975,-19.0838,0.13114,-2.5876,-2.4012,-3.7769,-10.2338,-4.0916,6.9513,11.6154,
1.7319,-1.3758,-8.2796,-5.296,7.2718,-15.0467,1.5695,-1.95,-7.5598,1.2704,-8.6554,-0.47163,11.8369,8.9902,
-0.3002,-3.7036,-11.1573,-11.2452,5.3897,-12.6976,-3.8273,3.9516,-6.1419,7.4612,-10.0643,1.4849,6.3059,5.5583,
-5.8258,-8.5426,-12.657,-9.8472,-0.95923,-16.997,-5.7668,4.9198,-1.1941,0.98797,-12.1118,2.1189,4.7227,1.6099,
-1.8608,-6.8252,-4.4258,-2.2669,8.9798,-22.0032,-0.84151,-0.43708,3.4568,4.0617,-8.2518,9.9455,6.6085,4.6463,
-3.9186,-6.6567,-7.7754,-1.8897,1.9338,-24.2982,-4.8881,-1.6159,1.0805,11.2901,-7.5157,9.5897,1.6325,4.6087,
-5.3705,-6.4982,-12.8527,-7.3197,-11.9208,-16.8145,-10.6206,5.9526,0.29254,10.8534,-5.8595,8.7736,4.1859,2.1628,
-3.361,-6.8315,-10.8763,-12.4241,-9.0364,-14.1184,-11.1887,2.4624,-1.4122,8.515,-6.231,8.9701,6.5858,0.3458,
-1.9543,-4.2524,-9.0186,-6.6172,3.3161,-14.4768,-5.9379,-1.7829,-2.5326,14.9937,-0.79574,10.6011,9.8063,5.8684,
-7.6218,-4.4792,-15.2262,-5.7385,1.6707,-16.9825,-4.6175,1.2164,-4.309,13.6124,2.1443,12.3753,8.2539,10.8192,
-13.1901,-1.0772,-15.5179,-7.5634,-11.2036,-18.6146,-8.9197,9.0971,-4.2915,10.6265,-4.0099,13.3201,2.6969,13.3035,
-8.783,4.0491,-8.5611,-3.4939,-17.521,-14.8464,-13.9284,7.3462,0.063606,15.0503,-4.9744,9.3874,0.36573,12.7461,
-1.2664,5.0112,-5.3961,-0.15101,-9.4801,-13.7149,-10.9233,-2.4948,-0.18141,9.5678,-5.399,2.7986,-0.37934,6.9199,
1.9429,8.3262,-1.4567,1.5455,3.381,-17.471,1.0605,1.2706,-1.8575,2.0041,-6.7621,3.3538,2.7771,5.7815,
-10.707,2.0418,-6.1902,-7.2241,-3.0886,-24.6177,-6.7161,1.6765,-1.7458,7.6682,-8.7667,7.009,1.6464,6.3987,
-14.6441,2.6424,-9.9164,-5.1041,-9.411,-16.6334,-18.6054,2.781,-1.4004,17.0903,-5.5896,15.9882,3.7166,10.5943,
-9.6683,2.2427,-7.6339,-5.0386,-9.5695,-14.4303,-5.6787,4.783,-7.824,7.6289,-8.8697,13.3419,3.2528,6.8254,
-9.8111,-3.9174,-6.453,-5.9411,-4.4155,-25.3746,8.762,1.845,-0.36472,4.5201,-5.204,4.1057,5.2268,1.3542,
-16.2119,-10.672,-15.4656,-3.8977,-4.3918,-32.2876,2.8131,-7.6655,10.0213,12.6848,9.2082,6.5107,11.4209,1.5142,
-17.1678,-11.9601,-19.8405,-7.0383,-15.2158,-27.9407,-11.4557,-2.8673,7.0094,16.262,20.3454,18.6531,14.1097,9.1361,
-14.6912,-12.2064,-14.3113,-10.954,-20.0869,-23.8534,-17.3963,4.0535,-3.0519,10.9478,10.93,17.5341,6.0329,11.4802,
-8.9897,-7.1359,-7.1861,-6.4409,-4.9024,-22.9046,-12.9785,1.8821,-2.8688,8.8446,-2.2593,13.5893,-0.59602,9.8271,
-3.1475,-6.7075,-10.1292,-8.4648,0.2122,-24.4226,-9.7894,1.287,-2.6969,8.3142,-11.2828,16.1486,-0.078098,8.7557,
-1.0307,-2.9308,-7.5935,-7.4747,-6.5492,-19.583,-1.4895,3.6201,-5.4274,16.4922,-10.1237,21.4465,1.3726,13.5328,
-4.3428,2.0655,-5.2097,-7.9901,-4.2281,-12.6235,-10.5587,1.9566,-5.1017,24.1798,-9.5163,23.5337,-0.63793,19.9517,
-3.8415,2.6647,-7.066,-8.7158,-3.7332,-12.5887,-15.951,6.4188,-4.0725,24.416,-9.1862,27.1836,-0.84085,20.924,
-2.165,1.5407,-3.7498,-4.8186,-10.7403,-15.69,-0.89393,9.8898,-2.864,26.8072,-4.2967,30.855,-0.79017,20.1502,
-6.3734,2.8945,-2.5609,-4.0476,-9.6135,-14.2667,0.0030911,6.8863,-5.5843,29.5375,-0.66449,29.968,-1.7071,20.8694,
-6.7139,6.3363,-5.0584,-5.4915,-6.3856,-15.5799,-14.0971,11.0528,-6.9364,29.9344,-1.3475,28.8928,-2.3276,18.8943,
-3.1776,3.305,-7.4064,-7.8135,-4.3152,-22.5988,-10.7204,9.6663,-2.9048,25.9692,-1.0257,27.4002,-3.3932,16.0735,
-6.8433,0.21419,-9.8541,-6.8628,-4.5382,-23.653,-3.8102,-1.0366,-0.80235,20.0727,4.8204,25.2743,-0.29709,18.4835,
-15.351,-0.039858,-10.9503,-8.138,-18.3659,-19.583,-12.4999,-0.73317,-4.3699,13.8065,1.8799,22.5527,-0.52046,20.5078,
-15.1529,-2.2064,-3.7853,-10.7832,-27.2666,-15.2745,-6.6882,7.2646,0.47208,14.6653,-3.7763,21.9225,-5.5505,22.8927,
-11.3514,-4.4844,-2.5941,-8.6902,-12.1333,-17.2503,-4.8409,7.3108,1.8898,14.7495,-6.4422,19.1611,-10.0384,23.4471,
-4.1626,0.84614,-8.9462,-5.9994,0.88702,-18.3847,-13.9502,6.631,-2.8031,16.5158,-5.3326,19.2165,-4.8566,20.8352,
-3.1897,0.55441,-7.2043,-4.9163,-13.2662,-17.5223,-8.5337,1.1717,-0.94747,18.1762,-4.2895,19.7505,-2.8777,15.488,
-6.6138,-3.094,-0.26438,-1.97,-23.4367,-15.7479,0.89616,2.3065,2.7246,19.255,0.54739,14.9503,-4.392,13.8356,
-5.4938,-1.7033,1.9209,0.31759,-8.7744,-21.7926,-2.7728,13.4965,2.3199,21.233,6.5401,13.3301,0.93294,8.4259,
-4.9232,-3.7703,-2.7737,-3.3169,-3.6682,-28.4388,-11.5245,9.5532,1.4578,12.4872,3.9785,14.2176,-0.81027,-6.1796,
-5.1097,-8.3648,-9.3564,-8.9027,-11.1611,-25.2869,-10.3513,-3.0713,2.3344,9.3276,0.8473,13.8467,-6.0645,-14.6064,
0.25806,-1.3552,-7.1078,-7.6456,-8.3223,-18.708,0.63408,2.6566,-0.93912,17.686,4.4119,15.185,-2.0852,-11.0785,
3.6173,8.8492,-1.3784,-1.4021,-5.4126,-11.3188,4.9346,10.2102,1.0456,16.1427,4.1474,13.3098,-0.99602,-12.3422,
4.8465,10.7284,1.5963,-1.7999,-11.3546,-13.5317,5.6024,4.2949,8.6957,12.2821,5.3446,11.065,1.9563,-19.7964,
3.1094,9.1208,-1.8739,-5.0663,-15.9759,-26.2176,7.6768,-1.2654,1.9074,17.3297,6.4699,8.9548,4.7309,-27.7676,
0.99445,10.0196,-5.6176,-2.8339,-9.7147,-21.2699,0.94947,-1.6716,-2.5456,22.5567,10.4203,13.7204,6.8574,-24.6555,
-3.8855,7.0083,-10.1013,-3.1463,-8.6499,-15.1735,-9.7128,-4.4634,0.49923,16.8645,7.3847,14.343,2.5896,-24.1401,
-3.8938,2.49,-3.4697,-1.7522,-14.6386,-22.2168,2.6801,0.38369,2.1565,17.5399,-1.0121,11.3132,-0.21686,-24.8613,
-7.0341,-5.3719,-0.85089,-4.5392,-13.7601,-27.1503,9.7506,-0.12127,1.5452,16.9699,-3.8434,9.1887,0.27808,-19.9947,
-9.5046,-8.906,-9.4769,-4.7492,0.56288,-23.1112,-4.3323,-6.8629,6.2732,15.4693,3.1356,10.0831,3.6359,-12.0466,
-8.2112,-9.0948,-12.5237,-4.7052,-4.0502,-25.8218,-8.6516,-5.2458,1.317,21.0491,5.1166,13.0936,2.6943,-13.011,
-1.452,-4.2108,-2.1311,-2.9769,-10.0741,-20.4164,5.9675,3.7458,-2.1362,28.9449,5.2918,20.021,3.0148,-8.8561,
-1.1237,-1.3068,-2.2444,0.335,1.8585,-11.7193,6.694,-5.3968,1.6072,21.6648,7.1435,16.1684,5.0033,-3.2633,
-9.01,-6.2898,-11.9915,-5.7104,2.4701,-15.5957,-2.6255,-19.173,1.7519,14.8211,9.8483,12.065,3.4981,-2.8263,
-11.6027,-10.0098,-13.4414,-9.4654,-4.1853,-17.7932,-2.7091,-17.9019,0.92368,24.2959,12.3909,24.5977,4.0113,2.4052,
-1.2655,-8.9273,-7.3325,-7.9334,3.7783,-13.3514,5.166,-9.5976,-0.095838,27.1767,8.2728,30.352,4.7343,7.5628,
0.73858,-8.3916,-6.4106,-7.9393,0.65911,-16.8886,6.3023,-12.8782,0.39185,18.7972,2.9559,14.4309,3.0044,0.84254,
-9.911,-7.8881,-10.8464,-4.0887,-13.4804,-22.1421,-8.0554,-12.5872,3.2606,17.6696,6.635,2.1164,2.342,-4.5104,
-14.3778,-8.138,-11.4007,-3.1203,-20.5049,-19.1265,-7.8128,2.2681,-0.068269,17.3326,4.5496,13.7997,-2.378,-1.5885,
-7.4896,-6.9266,-4.2092,-5.1022,-9.8746,-12.9173,6.756,15.9908,-2.2333,15.5693,0.17931,20.9255,-1.9944,5.0143,
-6.3171,-8.6801,-6.1256,-6.9655,-1.8103,-16.2394,7.6764,11.8981,-3.7863,11.9842,0.89168,16.5372,0.29466,7.3648,
-4.733,-5.5082,-8.4096,-6.7885,0.46748,-13.5782,-6.8842,9.9789,-3.3182,12.47,0.11505,15.7854,0.51795,11.5022,
-2.5206,0.1249,-0.67395,-4.9352,-1.4885,-12.2814,-2.7357,11.3086,-5.0475,7.3833,-1.82,15.3205,-0.95916,10.8123,
-7.6722,-4.2211,-1.5978,-5.121,-7.6662,-20.2216,4.1773,8.2195,0.55798,2.1196,1.6634,10.5449,-3.7941,5.8252,
-16.8526,-12.1626,-13.5531,-6.7419,-21.3062,-23.8285,-4.268,0.014,3.899,3.4386,-0.36439,1.2355,-9.3511,-1.7551,
-11.5029,-5.648,-10.8117,-4.4092,-14.1223,-19.0244,1.7727,0.013161,0.29057,-0.6236,-0.82446,-1.7311,-3.4874,-1.1674,
-8.4029,-6.7556,-10.1632,-9.9295,0.82501,-21.7395,0.7022,0.97601,-2.6192,-12.638,2.1171,-1.1451,3.4706,4.687,
-14.4064,-12.3761,-17.9893,-11.0207,-12.6018,-17.7838,-12.1146,8.3895,0.18931,-7.7821,4.1592,8.3234,0.61101,12.8416,
-16.6753,-10.4282,-14.7406,-8.1903,-25.9457,-12.1375,-1.5058,9.0909,3.7934,5.4593,6.0788,13.8495,-3.0411,17.1324,
-11.0952,-9.0794,-4.4561,-6.0114,-16.0733,-21.291,12.6845,-5.5545,5.7352,7.3011,8.8476,6.5113,3.1672,16.8276,
-8.7423,-13.5963,-5.3941,-8.3023,-1.0089,-28.9316,2.162,-7.9928,4.1858,9.9961,9.0396,3.951,7.0745,12.6844,
-15.4484,-16.1547,-13.2651,-15.5167,-9.0228,-26.7135,-8.5728,0.68169,-2.3321,11.8067,6.5693,12.3913,1.8295,11.4416,
-13.7986,-9.1599,-8.8538,-8.5601,-10.1687,-21.0134,4.2341,4.7381,-1.4693,12.3036,4.0057,20.0835,0.99687,19.6732,
-5.7398,-4.7537,-5.4303,-7.0827,-2.8097,-18.3063,5.9083,4.9362,-1.8631,11.0834,4.7299,17.9146,1.419,21.8673,
-1.539,0.83393,-3.6584,-8.5857,-3.6054,-8.5311,-4.5694,7.5319,-3.6793,10.9001,10.2305,20.2139,3.2618,20.555,
-7.4725,2.4711,-5.1262,-4.9373,-5.0763,-5.8503,-5.0183,6.8393,-1.2896,11.4512,5.0371,17.3137,0.89717,15.7061,
-9.1933,0.1537,-8.9159,-5.3644,0.77188,-11.5248,1.3083,6.6699,1.4394,11.4875,1.6014,11.2136,-1.8082,13.0769,
0.75831,5.6879,-7.6579,-4.8016,3.3769,-10.1104,5.8096,12.2952,-1.2986,8.6286,11.3873,13.6738,0.95184,15.9073,
3.6051,7.275,-6.7162,-4.0311,3.6567,-8.5395,-1.7698,7.7011,-3.6308,4.2549,9.2582,14.782,3.3049,11.5788,
-3.1189,0.33057,-7.0366,-5.4764,-1.1427,-19.8377,-2.387,-0.23276,0.2025,5.6864,-4.5539,6.9048,-0.50886,1.4841,
-3.4135,-1.1351,-5.1679,-4.6655,-14.0891,-26.8417,8.8439,3.6381,4.0467,11.6122,-3.7982,5.5271,-4.3347,2.8413,
-1.2807,-0.58503,-6.7863,-6.3142,-18.5466,-20.8928,4.9388,4.3836,0.91141,9.9511,5.1065,17.7285,-1.1821,11.3475,
0.48313,-1.7552,-10.9586,-6.6585,-3.6953,-14.5778,-1.8652,-3.3514,-2.2765,5.2565,6.4871,24.1364,2.0221,9.4616,
2.6233,-1.8909,-8.1319,-3.1255,5.9264,-20.2111,-0.066551,-5.8014,1.9574,9.0385,3.9287,17.6265,-1.2327,4.3141,
-3.5596,-3.9466,-4.9925,-2.215,-8.5292,-27.916,-0.78546,0.57221,5.4554,13.5578,1.0417,11.5077,-5.7381,4.2967,
-8.8894,-2.5047,-6.3801,-4.2511,-18.502,-21.1796,-0.97907,5.5993,1.0309,13.9499,5.0765,14.4324,-1.2967,11.5105,
-6.4281,-0.90841,-8.4077,-11.2271,-5.3408,-5.8088,-3.8131,3.3349,-3.3695,14.5589,9.5924,19.8332,3.1197,18.5329,
-3.6321,1.0745,-8.8673,-7.1788,0.76448,3.0961,-5.0303,8.4377,-0.75694,16.0957,8.5347,20.0893,0.52216,18.385,
1.6475,9.9281,-3.7555,4.098,-13.3814,8.9361,7.5638,19.7418,-0.95272,17.7813,8.7462,23.9458,0.73202,21.8614,
3.7181,15.8401,-3.2892,1.6829,-26.6785,15.3898,8.3153,20.7265,-2.5828,21.7761,11.3545,28.0527,2.3753,27.5396,
-0.6026,16.0948,-7.6714,1.3412,-12.0621,12.297,-6.2837,11.5294,0.22351,21.6746,10.9144,25.6464,-0.41851,25.646,
-7.0742,13.9238,-10.3446,3.9119,-8.6873,3.605,-12.0527,6.7398,0.933,14.3481,6.1617,17.5997,-2.5626,19.0456,
-8.3369,10.9192,-8.5186,0.061722,-16.1201,3.6301,2.7705,9.4689,0.15412,13.2463,9.4075,14.3745,-0.23965,18.1438,
-4.7035,6.1665,-6.3205,-3.0755,-16.3579,4.1352,-4.7473,9.1417,2.314,21.8515,15.8329,18.5737,-2.3944,20.6706,
2.3274,5.3146,0.32545,0.0011216,-12.9663,1.9589,-10.729,9.5571,7.4778,27.7713,14.8829,18.9051,-3.697,21.3586,
6.0442,9.334,5.1264,-0.48065,-3.9934,0.39535,3.8943,13.3222,2.6906,23.2127,9.6514,10.0583,-2.993,16.2209,
4.9586,7.5689,0.72147,-7.4415,3.2361,-1.7978,7.2758,6.9795,-2.5323,18.6867,9.7954,8.2497,2.248,12.5963,
-1.3647,2.0533,-3.9013,-6.2723,-11.0581,-12.5359,-4.0068,-7.5393,-1.1753,14.9141,10.4128,11.8518,0.90805,14.0095,
1.6095,9.1607,1.1532,4.2272,-15.8177,-10.8197,-4.7305,-13.4741,4.6801,17.8755,12.6803,12.5872,0.3714,19.4356,
5.1283,11.7446,0.36091,-0.12381,-2.5764,-1.2524,-1.3131,-11.4604,3.6759,18.9721,7.8221,6.7703,-0.85617,15.1365,
9.6411,10.0758,6.606,1.3299,-6.2782,0.75091,9.8529,-13.1834,2.9734,24.1007,3.4964,8.2923,1.6058,17.1203,
4.0014,2.9638,6.9328,1.9732,-18.6757,-6.7662,11.4311,-10.223,1.5899,22.8959,4.0098,4.6615,-0.65995,18.7444,
-2.2644,2.0628,-1.9191,0.64976,-6.7091,-5.6371,-2.9933,-3.5838,3.1815,20.799,8.3487,2.6948,-4.2355,17.861,
-0.68253,7.2415,-4.2143,0.61054,1.8881,-2.8885,-8.1166,-7.2254,4.4371,19.0689,10.7401,3.0148,-4.4636,13.4146,
2.0097,9.9402,4.4744,-1.595,-7.143,-3.9203,4.6627,-9.9251,0.073323,17.2016,13.2289,4.5214,-0.09818,12.851,
0.92484,12.7183,9.5086,2.839,-16.8376,-1.2749,7.275,-4.5094,-1.3773,14.7233,11.9532,11.4805,-0.57468,21.7209,
-1.5408,13.4012,4.1174,4.1147,-9.5606,-3.6088,-6.6586,-8.095,2.0795,8.5375,4.9693,7.8994,-4.8788,25.2381,
3.8543,14.5253,4.8347,2.9039,5.1131,-6.7667,-4.3309,-6.6454,6.7755,17.1842,5.1531,3.5695,-1.2116,21.7956,
4.5871,9.7977,4.5444,1.2832,1.3114,-6.8429,0.74941,-1.9081,1.0665,23.3838,3.8798,12.5141,-2.103,20.4881,
4.7941,6.7997,5.718,0.72429,-12.8673,-3.5398,-6.044,-0.82932,1.4845,16.1962,4.6113,16.584,-5.8332,23.1152,
2.819,6.6324,1.7595,-0.042298,-15.5902,-6.4606,-9.7789,-1.0208,2.6005,9.6806,5.0573,1.4889,-5.242,9.4355,
-3.6164,5.7525,-1.2382,2.3706,-12.7262,-11.8574,-0.51533,-5.78,1.9627,12.4744,0.89819,-5.952,-3.481,-3.6634,
-1.2305,7.0944,6.7896,5.3616,-9.7939,-11.3876,3.1308,-8.5664,6.906,12.4486,0.12071,-2.9435,-3.5138,-2.239,
7.2792,10.2844,10.4798,2.3888,2.6041,-10.9448,-0.67249,-5.4014,7.215,4.7123,8.5496,-9.7568,-0.6514,-1.8632,
2.9858,1.9543,-2.2005,-8.842,4.376,-19.4474,1.2963,-8.9339,-3.3411,2.5011,16.2311,-7.2434,2.28,-7.5362,
-5.6288,-8.0449,-3.2733,-10.9623,-8.6607,-26.2341,4.8342,-12.495,-4.3457,6.931,22.7293,6.4478,3.3482,-9.253,
-7.2194,-11.9007,1.2614,-10.305,-12.9616,-26.5887,-1.2409,-18.0118,1.2177,5.5509,18.9554,11.3636,-2.1553,-11.1084,
-0.51954,-7.3303,-0.2603,-9.2043,1.9161,-20.1726,0.76172,-15.9672,2.1085,2.3253,10.5872,21.2871,-2.5079,-4.1749,
4.8143,0.82228,-1.2088,-7.2058,13.732,-12.6953,5.5367,-2.4757,-6.6946,0.73997,6.0956,33.0253,1.4989,2.824,
7.6587,11.6192,1.5148,-3.1585,7.8464,-0.60585,-3.2316,11.7728,-8.9445,6.7211,4.5246,37.5512,2.6143,4.3418,
9.1274,19.5987,2.87,2.8156,-3.7118,5.697,-2.5558,13.5968,-1.177,7.7637,-0.085681,33.8519,1.0112,6.9734,
6.8925,14.8074,2.939,3.37,-3.7299,-5.4906,8.4438,3.8634,1.0628,-0.17397,-4.6598,24.8309,-3.6292,9.2065,
8.1662,9.3396,6.3781,2.9268,7.3402,-12.151,9.6244,4.8369,1.24,1.5237,0.19951,24.5463,-4.1344,10.3413,
5.507,9.9845,4.7903,2.9922,2.3203,-9.2528,-2.7632,5.7515,0.92462,4.5658,1.3928,28.6172,-3.163,8.0336,
0.11493,7.698,5.226,0.64328,-8.1831,-9.4208,-6.2126,1.3093,2.0742,7.9075,-2.3064,30.0334,-1.7681,5.8646,
3.2413,3.1388,9.01,2.2919,-2.6306,-12.471,-0.29666,-1.9027,5.0832,10.566,-3.8552,23.1702,-3.3493,5.2713,
8.3495,3.4328,9.4333,4.5645,11.5067,-11.2403,4.0599,1.5859,-1.4883,1.7374,4.0889,15.513,-0.25624,3.9912,
0.37669,-1.835,6.6984,-4.6272,1.4163,-13.2172,7.4315,-4.0531,-9.8349,-12.1054,6.9772,10.0027,1.4466,-1.3097,
5.4158,3.3367,11.8401,0.23019,-3.2482,-13.1471,13.4936,-8.3892,1.1191,-7.7637,6.3172,14.4642,1.1188,4.3125,
8.2243,3.3777,9.4422,-1.953,8.7571,-17.9021,3.2842,-3.3063,-0.63506,-8.021,2.8049,15.7658,-6.9023,3.8125,
1.7051,-2.3685,6.7065,-7.8614,13.2931,-17.0689,4.292,10.992,-5.1767,-12.119,7.2163,16.507,-6.2472,2.3789,
-4.664,-9.4573,4.376,-4.9796,-1.6045,-17.0087,8.8552,14.3092,1.4009,-10.9099,0.51639,5.3933,-9.2468,-1.1383,
5.98,-1.9002,6.7647,-0.10128,-2.1109,-8.5166,4.2263,9.8354,3.4858,-1.8194,-1.6835,4.3465,-6.0407,0.61703,
12.1289,8.5779,5.6357,-3.2285,9.8261,1.8766,-5.9095,10.4504,-9.4976,-0.022816,5.4071,14.9322,2.7577,-1.107,
7.7857,8.7861,3.1279,-5.6863,8.5132,-2.8158,-3.3857,10.5462,-9.6511,-0.74481,5.3237,15.7231,2.3513,-4.6564,
7.8005,8.7414,7.279,1.4038,8.0027,-12.2878,6.9408,9.9139,0.56937,1.71,1.6298,11.8876,0.76392,-7.2691,
4.6816,6.0475,4.6734,-1.3318,9.2097,-12.7556,0.016602,8.596,-4.5262,-2.4897,5.6296,11.4156,1.4412,-20.0891,
0.54387,1.3459,-1.3921,-10.8928,2.8723,-12.9546,-4.8051,-1.0788,-10.0397,-7.6434,9.6301,5.9099,-2.9836,-32.9838,
1.2346,3.9167,3.7531,-3.7318,-4.7716,-15.7927,1.0268,-4.6295,-4.3756,-3.087,7.3651,5.7963,-5.9381,-36.91,
0.67813,3.1997,4.4918,-1.5797,-6.8957,-15.3271,-1.9273,-0.49537,-0.73865,0.47219,2.5849,10.2692,-0.76106,-39.0338,
3.0478,2.0437,2.7763,-4.3772,5.0872,-11.0332,0.11675,5.8011,-0.21217,4.3005,5.804,10.6172,4.1051,-38.6202,
9.6136,4.3309,7.4302,2.1522,4.782,-10.371,14.2097,1.5964,1.2466,3.5603,9.3124,6.6055,-2.408,-37.749,
12.4115,4.5537,11.8053,4.4334,-3.6994,-15.5331,15.1651,-5.248,5.0284,-4.3659,7.3076,-0.057161,-5.6377,-38.8583,
10.2203,5.2441,6.7584,3.6852,2.7891,-15.0833,0.15519,0.85165,2.7983,-6.5143,9.7614,-5.3566,1.9312,-37.4909,
12.7406,9.9911,2.2551,4.6694,12.0217,-6.7065,-0.93893,6.8261,-2.9132,0.86645,13.755,0.5084,5.4307,-30.6621,
16.5559,8.6688,6.6996,2.2201,13.4696,-6.5451,13.2174,0.87292,-1.0512,0.091106,13.6531,7.4678,3.8996,-27.6171,
9.2958,-0.52822,5.3335,-0.32347,11.2154,-13.383,5.7964,-4.9638,-0.024036,-9.5551,12.8337,2.1992,4.1478,-28.8524,
-1.1444,2.1546,-4.3865,-1.5093,4.9986,-9.447,-6.8439,-1.533,-5.0843,-9.2228,12.7866,-2.0301,3.176,-23.9882,
-2.2808,5.6405,-6.7746,-3.5882,-0.8449,-3.3368,-0.40795,-1.6822,-8.8768,-6.0185,5.5117,-4.0777,-1.1121,-18.4513,
3.8816,1.6866,0.13931,-3.6139,2.3393,-4.3414,4.1963,-5.6786,-5.2107,-2.5239,3.0118,-1.1815,0.64182,-13.2469,
-4.305,-2.9938,-3.9664,-5.5662,-1.8987,-11.5527,-10.1555,-5.0969,-4.1747,-4.5417,5.4826,1.0586,0.36234,-12.693,
-8.6258,-3.055,-10.7181,-4.0267,-7.8101,-12.0646,-14.7283,0.27081,-4.1654,-8.8487,5.3949,0.75388,-0.38253,-9.7621,
-6.4212,-9.8618,-8.8699,-7.4007,-13.8492,-10.1357,0.25536,-1.9148,-5.6025,-13.8611,1.9375,-6.7629,-2.529,-9.4175,
-5.313,-5.6546,-6.6505,-6.2338,-7.9568,-3.9839,6.8685,-1.559,-4.5434,-13.7528,3.5085,-10.455,-6.4746,-9.0935,
-9.3328,0.95139,-12.5182,-2.9675,5.5358,-5.1914,-7.6436,2.8731,-2.3424,-15.3376,0.40566,-8.8636,-11.3885,-6.1375,
-7.8087,-3.9264,-14.1772,-0.86123,6.1678,-8.7363,-18.6337,6.5571,3.1003,-20.6843,-1.0649,-7.8494,-8.2951,-2.8772,
-2.7605,-8.2699,-9.7112,-5.3886,-2.156,-11.8273,-3.4157,0.13791,-3.111,-23.5403,0.20402,-11.9579,-12.3769,-7.2836,
1.5027,-0.30211,-4.0668,-5.7884,6.4092,-11.8408,8.7201,-1.0754,-5.0937,-11.7638,4.7718,-0.87635,-14.2856,-0.82128,
-5.5775,-2.4534,-9.3667,-1.344,8.1941,-16.6737,-4.0959,-2.216,-3.5831,-4.0684,2.3156,4.7196,-17.5261,2.3613,
-7.8942,-9.778,-10.4919,-0.058068,-0.25177,-14.4685,-6.0193,-3.2883,-2.1628,-4.0657,2.4176,-2.5534,-17.6793,-4.7703,
0.53342,-7.986,-7.6932,-6.5625,3.8609,-13.3594,-7.8273,-4.7782,-0.34579,-1.6521,3.4779,-6.4976,-13.4855,-3.2788,
5.8038,0.68809,-3.8569,-4.2403,9.8958,-11.5937,-2.0552,0.32895,-2.2535,-3.4814,-0.58697,-4.1793,-13.1581,6.0767,
4.4917,6.9133,2.1591,3.2449,3.5174,-2.221,9.1553,7.0581,-5.4927,-10.9853,1.8584,-4.8929,-11.8867,9.5685,
0.84755,5.5344,0.10109,0.63986,-5.3705,-6.4263,-5.494,3.2604,-6.1272,-12.7365,4.1572,-9.9017,-8.2812,6.5845,
10.4379,13.3973,2.5054,3.9762,8.4493,-6.0405,-14.2027,7.8853,1.9534,-4.2593,10.6565,-1.1127,2.8207,13.4205,
9.8116,7.2908,-0.53747,-3.0113,8.4243,-10.0168,-2.7457,2.1095,-5.8766,-18.1038,0.37612,-13.5794,-7.9538,1.5276,
8.0181,9.0225,3.1102,0.30284,4.3034,-11.585,7.7834,0.77764,-9.1394,-29.1894,-1.8156,-26.503,-10.6096,-2.1795,
2.957,9.2043,-0.20967,-2.3671,5.7322,-13.5412,-5.4578,-4.8124,-11.2424,-20.9303,0.94419,-22.7438,-1.0552,3.9771,
3.2618,7.6879,0.76701,-5.1174,10.6912,-6.9439,-8.0227,-3.5596,-6.7117,-7.1412,4.2622,-7.8816,4.7925,7.1127,
2.5841,6.7447,-1.2072,-2.3997,7.6396,-10.3837,-8.5056,-2.8641,-5.8266,-9.6048,-0.81422,-6.4444,-3.2078,5.2401,
5.0804,3.6887,1.5166,2.3238,7.9043,-8.5556,-5.344,-0.040886,-2.8257,-11.1979,2.8503,-2.4426,1.0822,11.4334,
3.0881,-10.6326,4.0769,1.4612,3.3325,-2.4989,-2.8539,-2.6898,0.47714,-9.321,8.2226,1.3192,4.1505,8.578,
3.3852,-24.0946,1.4221,-0.55466,1.6863,-5.241,-8.4673,-0.60018,0.93045,-10.6899,2.909,-2.134,-4.2932,7.099,
5.3513,-16.1413,0.13152,0.20152,9.0569,-5.6494,-5.3082,10.2821,-1.7765,-15.5921,0.082941,-5.6213,-9.5792,12.2167,
4.7888,-13.0036,0.84653,0.43039,11.1646,-5.5519,9.1103,6.5317,-3.3571,-17.7901,1.7652,-6.4894,-15.03,7.8683,
5.9477,-19.4542,2.242,-1.0417,7.1203,-7.147,11.5765,-1.573,-1.2275,-15.7583,1.6593,-6.5819,-17.5029,3.0578,
7.5193,-20.2152,0.66145,-0.49703,10.0677,-9.6105,-3.2181,1.8956,-0.67168,-20.5977,2.0419,-11.0075,-13.0783,6.731,
11.1657,-14.4228,4.237,2.1841,16.9352,-12.649,-3.6277,5.8795,2.9838,-22.0131,5.0526,-14.9266,-17.355,4.6397,
8.8085,-8.0138,3.7418,0.36584,14.7143,-11.6491,5.9905,1.9113,2.5638,-15.1487,4.0266,-11.8618,-30.4137,0.26394,
2.9774,-5.6045,-1.7849,0.82629,9.0107,-5.1656,-3.0461,1.3147,-3.3746,-13.2755,2.3387,-3.4373,-30.1554,5.0688,
2.5575,-10.3297,1.4554,1.9818,9.6751,-3.1682,-5.9966,2.9228,-1.4851,-18.9867,6.296,-1.0617,-21.8384,5.0054,
8.4301,-10.9152,4.0192,1.14,5.9616,-8.5217,0.38878,-4.7244,1.2555,-24.8373,2.7847,-4.1315,-24.6254,-0.35612,
9.3703,-4.4755,1.3677,0.5894,8.4962,-5.1181,0.36568,-3.9588,0.69804,-21.4187,-0.27464,-0.50891,-22.666,6.8959,
0.61315,-8.546,-4.4992,-2.8206,13.7708,-5.2932,-3.5129,1.5812,-1.7542,-20.6157,-0.74033,-2.8892,-22.2703,12.7484,
3.4687,-8.5149,1.5556,0.72328,17.2831,-7.8679,-3.7843,4.861,-3.5769,-19.8609,3.1607,-4.6438,-21.4158,10.5379,
5.9119,-4.8708,6.0418,-0.043248,12.6309,-4.2626,-4.2803,1.918,-3.1216,-15.536,4.1761,2.6245,-15.5516,12.0746,
-0.95033,-5.7836,1.5819,-0.28162,2.955,-7.1403,2.4844,1.562,1.6455,-11.4704,2.2383,1.2622,-9.0749,14.4836,
-5.4731,-4.7134,0.28215,4.7965,-2.7659,-10.8092,2.0944,3.6374,5.6441,-9.0949,8.1296,-8.6955,-4.4328,10.4811,
-0.082997,-1.7795,0.50619,3.3039,3.908,-7.9915,-9.8419,1.7319,3.1363,-11.6827,14.1497,-7.9328,-1.5157,8.165,
1.8499,-2.1549,-1.935,-0.26904,9.4578,-6.066,-8.7692,2.1097,2.466,-17.7304,8.9618,-5.0469,-2.8711,6.2291,
-3.3225,-6.123,-3.5059,-3.8681,5.2752,-7.389,2.603,2.7067,3.0411,-22.6924,4.3269,-11.2518,-4.3858,-1.1343,
0.010336,0.7521,3.2124,1.9076,10.5023,-6.7047,5.0984,-2.0354,2.6177,-21.0894,12.5034,-11.7816,1.9029,-1.3072,
6.7584,7.4561,7.3582,7.096,16.1389,-7.7485,3.3464,-1.9131,3.9067,-14.5216,18.5019,-4.326,7.5738,4.556,
6.3529,2.188,5.9524,0.88523,13.2419,-10.658,5.0738,0.61184,7.0467,-12.2041,14.9812,-6.4766,4.2266,4.2822,
3.8023,0.3693,7.2822,1.0733,16.063,-8.3311,4.5282,-3.5225,4.9365,-15.5694,10.9491,-14.0419,2.7679,2.3383,
4.7795,2.9987,8.5325,6.0706,16.7865,-8.5546,9.3182,-4.9983,2.4711,-17.2863,7.641,-16.8148,4.2891,1.4746,
5.6978,2.0954,6.8155,7.8753,7.3429,-12.1389,8.0355,1.3273,6.4204,-14.0802,4.0489,-16.5291,4.7546,0.663,
8.007,2.6928,7.6119,6.1975,2.3231,-8.2771,2.0102,3.8988,5.7942,-12.5125,8.3857,-10.958,8.5667,6.1668,
10.9013,2.0495,11.0118,3.8977,9.8967,-5.3701,11.0484,-1.1552,3.0362,-8.869,10.2929,-4.5157,8.0529,13.0279,
6.1494,-2.1712,6.7352,5.351,14.3646,-7.699,12.0727,-2.7735,3.577,-1.8294,1.2392,-7.3783,1.544,10.559,
3.1293,-1.3181,-1.1407,3.8247,11.815,-4.5859,-2.7516,0.043974,2.6394,1.8958,2.3701,-7.6585,3.6207,5.3457,
7.2801,7.4383,-2.0359,0.22097,6.2861,-1.4185,-10.4198,1.4878,-2.3394,1.2999,8.0127,0.51402,10.6341,7.4353,
7.3255,13.2588,3.8706,3.1,6.873,-1.8155,-1.1177,2.845,-1.7169,-4.5625,5.1216,0.0010156,9.9963,9.8815,
1.3421,10.2939,5.8077,3.1552,8.6296,-1.9474,-3.702,-2.3876,-0.89074,-10.3145,-3.1397,-13.2557,2.8888,3.7452,
2.7076,11.6042,4.9771,4.8939,1.845,-2.3127,-9.7466,3.5405,0.60873,-4.3932,0.42295,-8.6037,2.7152,6.4128,
4.2326,10.6672,2.9915,4.3595,-6.2192,-6.2715,-7.4744,7.4256,5.1517,-2.9241,2.567,2.7585,4.7217,13.4996,
1.0861,7.1347,0.88335,2.6512,-6.3284,-5.8952,-4.6158,-5.5534,4.8426,-10.9438,-0.96151,-0.29949,2.9922,12.2077,
0.77999,10.8039,4.9277,5.1437,-3.7795,-2.408,-0.7234,-4.4973,0.45425,-14.3845,-5.0012,-5.3427,-2.2491,8.8237,
0.010061,11.8432,8.7301,2.1837,-3.3116,0.3878,-1.4031,9.0292,-1.26,-12.3164,-9.7626,-4.781,-0.90859,7.0897,
1.9379,11.6147,7.2417,2.5349,4.1182,4.2207,-9.5139,7.5233,-3.1124,-9.1671,-3.3924,-7.3869,3.484,3.7715,
7.124,11.4,1.9867,4.7931,8.2096,-1.335,-11.3534,-0.15868,-0.99766,-8.6168,8.8624,-15.1381,1.8289,0.6534,
7.1787,5.8955,-1.0243,0.64939,-3.3704,-9.4494,0.8972,-0.63132,5.3289,-7.1357,13.6336,-15.6759,1.2375,1.5783,
1.6863,1.9259,-1.2043,-1.0773,-9.1937,-5.7494,2.5306,-3.245,5.2502,-0.20008,13.5384,-5.3358,3.8143,4.1347,
1.3442,6.872,-1.373,2.1209,-4.0628,-3.7172,-11.7212,-1.845,3.7299,9.6939,12.9671,9.0844,3.8265,9.4302,
7.5303,13.6903,2.0836,6.8141,1.9653,-3.9763,-13.549,6.9426,4.9521,8.6301,6.4043,15.4087,-2.6701,10.7924,
3.704,8.0487,3.8868,2.5489,1.3655,2.5288,-7.9154,6.526,-0.64721,-0.56484,-2.1747,6.7714,-7.8123,3.8783,
-0.13319,4.4327,5.3413,0.7087,0.078702,2.6185,-5.7532,4.9296,-5.1877,-1.7358,-4.2134,4.196,-0.83564,1.9584,
6.8642,9.228,5.2613,6.2098,3.6894,-8.3849,-5.1671,1.5004,-2.2253,-4.2827,-4.2015,-1.1175,2.3475,4.01,
7.6574,8.4335,6.1512,4.6321,0.33478,-11.9794,-8.9542,-4.1335,1.0415,-7.159,-3.2263,-13.8247,-5.7468,4.0106,
-0.51456,5.9991,13.0127,1.9439,-9.3265,-6.9221,-8.4172,2.3812,1.9431,0.019196,-1.5867,-16.3694,-6.8483,0.87771,
-2.894,7.5676,13.678,2.3094,-5.3922,-6.0246,-5.5018,5.6131,-0.58341,13.5156,-2.4556,-15.8694,0.31129,-2.5492,
0.41263,8.3184,10.6881,4.34,-0.48941,-8.3147,-5.895,2.6247,2.1027,15.8377,-6.4056,-25.2816,-1.3946,-0.709,
-0.81696,6.132,6.9134,6.2487,-11.3063,-10.4669,-3.8541,0.29807,0.2893,16.0927,-14.9393,-24.0056,-7.8186,0.53838,
3.5701,12.0309,6.9807,2.9815,-5.3255,-0.68005,-0.73056,-0.20197,-9.3693,29.2272,-11.1507,-15.3347,0.84541,2.9164,
8.1766,16.6117,3.6698,-1.5357,9.094,12.3762,-10.3277,1.2564,-15.0736,41.5736,-3.2508,-28.5146,4.6511,3.7058,
6.722,15.6147,3.9313,3.3769,11.8023,9.7056,-8.262,6.4834,-5.4923,49.9249,-4.5018,-40.9037,3.8898,11.196,
3.4263,9.3754,7.5521,4.6204,-0.47472,-4.9767,6.2137,3.2021,3.5141,61.0294,-7.6059,-52.5495,4.1386,14.3808,
5.3902,7.1254,8.7859,6.5125,-4.0619,-10.5834,3.1891,-0.12324,0.16999,65.6831,-1.1242,-59.399,2.6852,7.9741,
6.754,5.975,8.4997,6.8447,-0.20276,-9.2255,-7.8481,0.60705,-2.4913,59.5729,0.63044,-54.63,3.7294,5.8085,
0.32296,2.9652,8.231,4.2651,2.4607,-6.9845,-2.7977,-1.1164,3.2016,54.3116,-2.5406,-55.4495,7.1208,4.7368,
-5.4812,-0.10501,5.3267,4.0089,-0.5792,-8.4939,-4.0763,-0.085291,5.4198,51.0527,0.50408,-52.1225,4.7652,-4.7062,
2.0785,0.86562,5.9715,4.2503,2.83,-11.8406,-3.3493,2.8123,4.1303,47.0256,2.884,-44.1747,-1.7873,-15.993,
4.8463,2.2595,6.577,2.0671,-1.6786,-11.6121,5.0464,-4.1053,1.4724,39.3834,-6.4481,-42.9703,-3.6082,-26.1206,
1.9042,6.2215,6.4236,0.73803,-7.6034,-7.7821,4.9848,-5.064,5.9635,38.7078,-4.8557,-45.4535,6.0083,-29.6148,
4.1998,6.8123,5.0741,0.21158,3.4576,-8.2793,-5.9198,-2.8322,4.1592,44.0979,3.1482,-45.1369,13.8425,-29.2844,
8.5278,4.2346,5.9747,0.92202,12.1685,-8.0237,-5.8054,-3.8674,-1.1513,42.1752,2.2362,-44.1156,11.3249,-30.1782,
4.1595,0.60587,4.6521,2.7951,-2.0592,-7.5421,-2.0828,-7.4919,2.292,32.896,-3.2004,-44.361,7.2712,-33.6704,
3.91,3.944,3.8906,10.3402,-8.2024,-8.0539,-0.029677,-2.2217,6.4928,36.2249,-0.59827,-39.2892,10.6913,-32.1321,
4.1573,3.2254,2.2114,6.3453,1.449,-5.6425,-0.99176,-1.1241,4.175,41.2822,1.3658,-34.0393,10.0499,-30.6861,
3.4259,1.5856,4.0069,0.66195,12.9312,-2.8938,-0.93272,-11.6619,1.9963,36.3947,-0.64432,-34.4076,8.4825,-32.7018,
5.8715,4.1416,7.8638,3.2738,13.3606,-3.925,4.6669,-13.6133,0.18933,37.8264,-0.84663,-36.9224,-4.3187,-33.8727,
4.3141,0.75982,3.7768,1.3899,7.4971,-8.7509,1.7355,-4.843,1.383,42.0646,1.3736,-34.9483,-18.1596,-34.0098,
2.1273,-5.0701,-2.2346,0.34242,14.7603,-13.0464,-5.5992,-2.624,3.2285,35.2021,5.1473,-32.3692,-31.17,-33.8971,
2.4816,-6.2122,2.7202,3.2144,12.4284,-12.7455,5.824,-9.6974,2.0704,31.1618,1.9464,-29.9449,-24.4791,-31.3814,
2.8149,-4.3934,5.4493,1.0931,-1.8144,-11.981,12.2232,-9.5977,3.3927,37.0051,-0.098802,-23.8096,-21.5643,-28.5344,
8.1894,-1.9604,-0.90347,-1.6238,11.0687,-9.0928,-2.2487,-6.3705,2.466,32.6154,5.451,-16.8377,-20.0295,-26.5811,
12.2775,0.80853,2.284,0.16108,24.5045,-1.0756,-4.7651,-5.2652,-3.7077,22.2226,8.2572,-14.6221,-10.8738,-18.9609,
2.1409,-0.44527,1.906,-2.5001,19.0574,-5.5904,-0.86381,-5.6722,-11.439,19.202,0.77186,-17.3602,-11.4266,-13.2435,
3.6996,1.2687,-3.752,-3.073,12.8523,-4.532,1.3576,-0.27015,-6.6553,26.9679,4.341,-6.4367,-9.0536,-6.4234,
8.0569,0.46965,-3.7678,-3.1296,16.6609,1.2835,-3.3036,0.46896,-2.1586,21.7344,7.214,-3.3989,-4.8952,-3.3864,
2.7535,-0.040692,2.725,-0.53148,6.02,-3.1321,-5.9976,-1.9695,-2.0289,10.7896,0.032484,-15.2463,-3.1552,-4.1473,
-0.063257,-1.2435,2.8024,-3.6331,5.8998,-11.3798,-1.5404,-0.64653,-1.6662,7.0088,1.7173,-19.3932,-2.243,-9.4426,
3.7969,-1.6509,2.6343,-3.4151,16.1511,-7.805,5.7828,-4.9461,1.8082,8.5164,3.0605,-12.927,-0.66214,-11.7681,
5.2563,-3.239,3.1991,-0.5591,12.5305,-5.6494,4.713,-14.5312,1.9407,8.7284,-3.6306,-9.0181,-0.38145,-7.9285,
4.6998,-3.7678,1.8021,-2.2125,7.1991,-5.0693,-3.0419,-5.7054,-3.2376,13.2666,-0.2795,-5.3435,0.3648,-3.3557,
3.6946,-0.4085,2.4171,0.57153,1.2238,-2.5962,-2.6181,4.5191,-2.8022,17.0501,4.7987,-3.8178,-1.8265,-3.3951,
-1.3473,0.098402,1.7902,1.0192,-11.3831,-5.8144,8.6262,-4.9111,3.1505,12.6526,-2.2376,-11.3015,-3.6451,-8.494,
-1.5076,4.1896,1.4416,4.0913,-5.1563,0.55976,10.7599,-5.3395,5.6128,10.206,-3.3089,-7.4902,5.9736,-6.2974,
2.1982,1.2872,-1.778,2.1586,7.9271,-1.643,-3.9857,-2.85,-2.1958,-1.2521,-3.3513,-5.8357,5.374,-4.2323,
7.8507,-0.7185,1.7029,1.065,3.1129,-13.5957,-11.0979,-5.0894,-1.0999,-8.89,-5.0782,-12.2345,2.1593,-3.4962,
1.3541,-0.43442,0.39548,3.6526,-9.3659,-15.9132,-1.9963,-5.025,2.5815,-7.6337,-6.9432,-13.6696,1.7888,-5.4556,
-5.7168,-2.0954,-0.83332,4.6385,-1.8143,-6.0406,-2.5997,-2.0721,6.5242,-0.18605,-1.4647,-4.4135,7.225,2.3433,
-1.5172,-6.7901,2.109,0.98553,5.5251,-8.0885,-6.2998,-8.697,3.7224,-6.4416,-0.41268,-1.2564,5.3453,7.5051,
3.1534,-2.7675,2.2236,-0.7606,2.5428,-8.8081,-6.645,-3.5952,-2.5267,-17.3831,-4.4855,-2.3861,3.8195,2.9577,
1.5181,4.1477,1.608,0.24959,-0.020148,0.3973,-6.246,8.6719,1.9634,-13.4474,-2.2879,-1.2786,9.8571,3.7443,
-0.74256,0.76532,0.78867,1.9214,-0.74184,-2.76,-8.5228,1.1617,4.0148,-4.2048,1.4647,2.8953,12.8811,8.099,
5.0868,-1.691,5.0799,0.36007,8.4615,-8.8607,-17.1703,-5.1748,-1.0466,-3.9528,0.41277,10.4345,12.1084,5.6851,
10.0842,5.6413,8.631,-0.14347,1.2049,-3.0269,-13.248,7.6692,-0.50187,-9.9821,-4.9146,9.8085,9.4533,2.4514,
2.7301,8.1952,-1.5276,-2.0633,-12.9674,2.4572,1.6469,9.619,-4.3279,-16.6143,-7.9944,5.8453,4.0656,3.7504,
-0.56655,5.5341,-9.8718,-5.5547,1.9106,0.14079,15.6481,-1.8042,-10.094,-18.7507,-3.4172,12.9666,4.0629,5.2128,
2.3597,3.756,-5.4229,-3.7754,9.268,-0.34936,0.60919,-3.142,-7.56,-23.8919,-2.2481,12.6708,5.2651,0.5615,
-0.91557,6.1819,0.9278,2.4765,-5.3881,9.5533,-13.5274,5.9644,0.36522,-26.556,-1.872,13.1156,8.5644,0.28661,
-4.9578,6.5342,0.149,3.051,-3.9802,10.1852,-26.8157,7.2935,4.4409,-24.2395,2.3375,21.2465,12.1481,5.3313,
-0.56317,2.0445,1.8275,-0.2653,10.3586,-0.79003,-39.3068,-3.9901,2.487,-29.2928,3.4027,13.464,11.1785,4.2883,
2.1219,0.23486,3.4049,-0.0081868,4.7961,-2.4296,-51.0484,-8.3298,2.579,-33.561,1.0292,2.7744,12.1948,-1.0304,
0.78957,1.9078,-0.89701,2.6436,-2.9637,0.84941,-62.0855,-1.3227,4.5936,-26.9679,-1.6839,8.6333,12.6682,-4.5843,
1.7065,0.82943,-2.289,1.0388,0.10667,-3.5399,-72.4603,-1.2429,3.3537,-26.3137,-3.993,12.4541,7.5697,-5.755,
2.809,1.0206,0.017507,2.6637,0.34124,-4.5328,-82.2127,-3.8199,4.3577,-33.6529,-1.5843,8.5733,9.7667,-3.7229,
0.23053,0.95916,-0.94764,4.9142,-3.5359,-2.8148,-91.38,-2.1447,5.0604,-37.9005,5.7414,7.0948,16.8937,-5.4275,
1.6625,0.90161,1.0374,-0.20137,-0.91357,-2.164,-99.9972,2.3223,7.1669,-30.8062,11.1815,9.5612,19.2545,-4.6199,
-0.60619,-2.2857,6.0366,-2.8406,-2.5458,-7.0956,-108.0973,0.97792,5.0499,-28.2347,4.0029,7.3005,11.5915,-5.0659,
-4.4264,-3.5946,5.6747,1.1864,-0.94652,-5.7055,-115.7115,-1.9726,2.8189,-30.3968,5.2092,9.2729,15.7165,-4.2798,
-3.4379,0.23601,-1.6562,-0.57198,8.5098,5.4828,-122.8688,-4.5058,2.8903,-30.7426,15.2605,14.742,28.0294,0.074383,
-1.5442,2.3912,-7.5821,-2.2251,7.7585,5.877,-129.5967,-2.5484,-0.41639,-31.067,12.6579,13.1344,27.0713,2.2393,
-0.72866,-1.3672,-4.4756,-3.2964,2.7137,-2.9113,-135.9209,0.73795,-1.1143,-30.8902,6.8368,12.5873,21.8316,2.3459,
-0.92568,-2.4907,-0.5919,-4.7857,4.7198,-3.4597,-141.8656,-1.9576,-0.80671,-34.0982,2.8114,8.2169,24.1369,1.964,
-1.1116,2.7204,1.1308,-2.8117,10.9441,0.8452,-147.4537,-4.4913,0.92892,-32.7757,2.4013,4.5904,24.3759,4.4977,
-1.7678,-0.57628,1.7859,-4.3303,6.672,-2.339,-152.7065,-8.8016,0.15028,-35.3884,3.9444,4.074,18.3336,3.9864,
5.087,-0.059537,2.6428,-2.624,4.8257,-1.7165,-157.6441,-5.3812,-0.82283,-40.0138,4.1899,5.2756,21.0902,2.7836,
6.4692,4.0416,-1.6129,-4.6359,0.92094,-3.3005,-162.2854,-2.407,-2.4605,-37.8537,-7.3895,-1.0663,20.5479,0.9291,
0.53722,7.8962,2.0991,-0.74257,-2.2676,-1.4155,-166.6483,-4.9139,-0.1439,-25.7008,-11.0437,-2.2078,19.0738,2.5604,
-2.3871,6.9405,2.4551,0.74825,-2.1315,1.0796,-170.7494,-4.1367,-2.0635,-28.0151,-6.0427,5.1555,23.232,0.96093,
0.16627,4.114,-4.9231,-4.5993,1.3704,-4.7698,-174.6044,-2.9246,-4.8322,-40.4342,-6.1621,4.3642,24.7306,-3.4355,
5.6997,3.6259,0.91617,-4.0821,10.2064,-1.8323,-178.2282,-4.4361,-3.8191,-39.5749,-4.5873,-1.9234,24.9338,-1.5419,
6.5632,-0.2068,4.4764,-6.9705,4.0507,3.8215,-181.6345,-6.8213,-10.0972,-35.5129,-5.0352,-3.9769,20.3045,-0.24434,
10.5073,3.662,-3.023,-4.1421,7.1816,9.3763,-184.8364,-2.0737,-9.9738,-42.5417,-2.8049,0.11761,19.5682,7.0007,
4.3337,5.1295,-7.4209,-4.6165,18.0794,6.1627,-187.8462,-3.6365,-8.1701,-49.3887,-6.734,-7.3608,16.2249,8.2683,
1.9045,1.6882,2.4243,-6.5087,21.092,4.1061,-190.6755,-5.5874,-5.5107,-47.6307,-6.0885,-11.0165,19.3492,8.4951,
9.2621,3.2742,5.4123,-1.0565,14.7648,3.6183,-193.3349,-3.565,-2.0466,-48.8702,-2.1078,2.4189,21.8037,12.0832,
7.742,5.9698,2.1951,-0.029205,9.5401,5.3294,-195.8348,-1.4229,-0.47797,-47.8662,-1.9818,8.5399,16.6386,13.7679,
-4.2917,-0.17298,3.0272,-3.4019,2.2193,3.0815,-198.1847,-1.3375,-4.7876,-39.2096,-4.273,0.79709,12.2659,8.6035,
-2.106,0.31979,2.8461,-0.78721,-4.6628,4.8248,-200.3937,-4.6317,-6.9105,-26.2517,-4.4985,7.0158,12.4942,10.016,
2.5999,1.5057,-6.243,-6.2838,-1.7317,8.1509,-202.47,-9.8972,-14.4498,-26.3641,-9.2905,13.1025,2.3444,9.1738,
-1.1715,4.0664,-6.5913,-8.0759,3.4339,7.9029,-204.4218,-1.8316,-17.1983,-31.2897,-9.456,8.701,0.03454,8.8644,
-2.7887,2.6174,0.31188,-3.4943,-10.8722,2.3668,-206.2565,2.3755,-9.1767,-33.5099,-5.7554,4.0813,4.612,11.4657,
5.8148,4.1476,4.8725,-1.5974,-16.3659,2.9481,-207.9811,0.063775,-4.0464,-32.2222,-5.1691,10.3444,5.5406,13.9113,
9.3223,9.2013,-1.2045,-1.0191,-1.2839,4.2175,-209.6023,-0.42199,-10.5525,-36.0735,-3.8946,11.6519,8.1006,9.7022,
9.727,12.9878,1.2782,3.8625,12.8931,4.9285,-211.1261,0.56743,-6.5447,-42.104,10.4391,6.6143,18.2197,10.5661,
9.3844,10.5213,10.6015,5.7999,-1.9805,1.9813,-212.5586,-1.1538,4.6938,-46.5676,21.5024,-2.2183,19.2956,6.3167,
7.6162,5.3105,11.1704,3.2825,-4.3925,-3.681,-213.905,-3.254,7.0635,-49.7994,16.1146,-8.111,15.9685,-2.4982,
3.3033,1.6174,8.0901,0.67543,5.9944,-10.691,-215.1707,-7.3966,2.3014,-52.1136,5.0249,-6.178,12.6003,-3.7941,
5.997,1.0382,9.0507,1.599,-3.0426,-5.711,-216.3605,-9.8456,-1.2109,-45.6125,-0.57905,0.94132,6.5418,1.254,
8.2887,2.1812,6.3385,0.78016,-4.5472,5.478,-217.4789,-6.1214,-2.3436,-31.5476,-1.2677,10.2848,3.9797,7.2043,
-2.5732,0.3629,0.89675,-2.4004,-4.9975,2.9799,-218.5301,-5.5133,-6.7825,-25.0752,-7.6993,10.3909,1.5715,8.459,
-0.49036,0.82329,3.2533,-0.80985,-6.6256,3.7652,-219.5183,-5.6642,-7.3396,-23.0886,-7.7191,13.1417,2.9237,12.772,
3.3952,0.29173,-0.79852,-4.6179,-4.7821,9.8056,-220.4472,-10.1453,-5.9351,-22.6678,-6.7742,21.03,2.2662,14.416,
-1.3878,0.51565,-1.4735,-3.1355,-7.1462,12.3507,-213.9691,-2.0643,-0.51735,-19.6205,-3.7162,21.4554,-0.52091,13.3101,
-8.5353,0.002319,-1.3851,-3.4293,-17.3228,3.415,-194.8642,8.1824,2.4058,-22.2992,-0.60118,12.4553,3.3667,11.0652,
-5.1307,4.341,-3.2302,-0.33149,-3.268,3.692,-181.2441,4.317,2.7438,-24.8181,5.2195,14.1182,17.2647,13.2938,
0.47978,1.188,-4.4826,0.17033,11.0281,8.2912,-169.4054,-6.0649,-5.1336,-32.4876,3.4605,15.1993,19.4826,12.9781,
3.5842,-4.9091,3.7403,0.88324,-1.0823,9.4807,-153.6975,-1.6039,-4.5848,-40.9027,0.11916,4.8875,11.8059,11.9583,
2.1641,-2.9271,8.5773,5.8922,-3.6686,7.2249,-141.3421,4.5181,3.6442,-47.3663,3.2457,-1.9134,11.3388,11,
-3.9915,-1.0645,6.8572,3.3692,10.6515,0.28368,-132.6209,-2.2607,4.6306,-49.1041,5.7018,-2.5218,12.8274,8.6526,
-5.9212,-1.2416,8.1334,3.408,7.4818,-3.3488,-121.048,-4.7761,2.1836,-40.1318,4.1549,-0.20129,9.889,9.3387,
-2.9146,-0.92586,8.8505,2.9624,-4.7775,-0.97844,-112.58,-5.2127,0.36561,-33.1446,0.29042,4.3903,4.7157,7.0914,
-2.7395,-3.2807,5.9091,-2.9997,3.2222,-1.4019,-108.2353,-7.3098,-0.13849,-28.7456,-1.173,5.091,1.5409,1.8454,
-3.7804,-0.91467,2.4211,-2.0968,-3.4791,-0.59489,-100.5364,-1.81,-1.8174,-17.6211,-1.826,4.5446,-2.6493,1.9752,
-2.5895,2.5144,1.3117,-0.042607,-8.5732,4.7432,-95.4683,-1.2197,-7.9751,-9.3328,-5.0911,11.0206,-1.5263,-1.5175,
-3.6394,-1.7338,-3.3463,-6.548,1.3412,1.8075,-88.5349,-9.1003,-12.0763,-18.1733,-7.4368,8.6721,0.25253,-15.5265,
-3.9032,-0.66566,-2.1814,-3.7448,3.671,1.2169,-69.1228,-1.3236,-3.1568,-17.5646,-1.6881,2.8494,0.71954,-26.7665,
-2.2225,0.82077,2.288,2.7467,7.3074,6.4468,-50.8754,6.4688,2.3355,-12.1721,-3.5148,-0.21389,-1.2521,-27.0889,
4.6593,1.7354,6.4891,4.992,20.8482,7.9882,-57.7051,3.6705,3.6411,-19.1548,-5.7141,-1.1654,1.2332,-29.8019,
7.0311,3.3183,8.2691,4.9337,14.054,4.8576,-53.5196,3.2091,3.1819,-21.1388,-0.79169,-2.7825,5.7387,-33.5576,
2.0299,0.46808,3.6751,3.4324,-0.045662,2.8789,-36.5702,4.2218,-1.5887,-18.6654,-1.9495,-4.7847,1.297,-36.1235,
1.9081,0.43999,4.419,5.637,5.2597,6.0806,-29.5552,2.0403,-0.046693,-16.0992,-2.7964,-0.15927,2.6655,-34.438,
1.0703,1.6189,7.2873,3.1292,8.5596,5.9567,-28.505,-1.6975,5.4993,-14.8923,-0.45944,1.5375,10.4593,-32.1307,
5.1032,1.2806,9.019,6.0747,7.8048,4.8762,-24.1436,0.57328,4.4462,-17.6144,1.2551,-3.1343,12.4831,-32.8542,
6.2432,-0.72447,5.1034,5.2283,4.9259,6.5118,-21.2488,-0.42498,-3.0514,-27.1626,-1.7127,-8.7312,4.5032,-37.1499,
1.7715,2.4523,1.182,-0.14689,1.9795,9.2544,-12.984,-4.979,-4.0734,-29.148,-3.2969,-9.412,0.61785,-39.0181,
-2.1912,4.2333,-2.2634,4.2002,-0.5494,4.3608,-10.2767,-8.0543,-3.829,-21.6146,-4.063,-9.3292,-0.38355,-38.1232,
0.10947,4.7022,0.041604,11.902,-5.0962,4.3401,-6.5269,1.8285,4.3545,-6.2177,0.27768,-1.78,6.6293,-24.9896,
0.82603,1.2873,-0.20163,8.0546,-8.8875,5.2848,-6.3762,5.3345,1.9243,-0.18054,-2.3898,1.4605,6.9547,-17.9464,
2.9456,-0.95957,2.4616,4.4378,-4.7393,4.2448,-9.1271,-0.047268,-5.663,-2.3391,-3.4517,0.16757,2.4401,-19.5211,
5.6612,-0.41984,11.4727,8.992,-5.901,5.4361,5.5205,1.4016,0.94308,0.21137,3.0221,-3.2172,4.2216,-14.4937,
2.9112,-0.39442,11.7489,12.3091,-5.0648,4.6278,19.0483,3.2459,3.7792,2.1271,2.3586,-3.9882,6.3787,-12.1776,
-1.3609,-0.12978,2.1259,5.0631,5.121,2.6629,5.6131,-1.0462,-6.8118,-6.4364,2.9405,-2.5436,4.3087,-16.5086,
2.5772,1.3238,1.9983,4.7593,7.2239,1.0573,1.4199,-1.9477,-9.7776,-19.5476,7.1024,-2.873,4.5326,-7.8053,
4.1098,-0.92479,7.904,7.6068,1.7293,-0.21141,15.4347,1.3026,-5.0931,-25.8465,2.5789,-6.7979,4.5016,1.0991,
1.2121,2.7461,4.7782,4.9812,3.3123,-0.92209,21.1368,-0.94471,-7.4391,-24.0548,0.7369,-6.6315,1.58,-4.0285,
3.5495,9.8122,-2.257,2.7542,2.6316,-0.38437,9.7457,-7.1545,-13.2593,-27.9139,1.1746,-6.2331,-1.4069,-7.6432,
8.6394,5.3673,0.28881,-0.78531,-2.8287,3.0129,15.4277,-4.7973,-12.4635,-33.4697,-2.2701,-8.7514,2.5341,-6.2205,
9.3261,0.46575,1.9585,-1.9433,-0.97153,4.0372,28.6021,0.55199,-10.993,-31.2205,-1.8927,-4.6112,4.0691,-5.1241,
10.4533,5.0171,1.6,0.3425,1.7379,-0.78432,29.6575,1.2418,-10.0924,-23.322,3.2821,1.2091,1.6553,1.2089,
8.1389,5.439,0.78064,0.080981,-3.4281,-6.7633,19.9241,-2.4482,-12.138,-13.0046,-0.53025,-2.4788,0.35117,1.3773,
3.0713,5.3541,3.8678,6.5841,-1.5352,-1.7777,23.7906,0.35028,-9.2405,1.5142,-0.7394,-3.053,3.9455,-0.8745,
-6.0311,1.8993,3.8762,2.5731,-2.166,-4.3222,25.9783,-3.7681,-9.409,2.1463,-5.2743,-5.0395,-1.3529,-0.099132,
-4.9461,3.9548,5.813,2.6599,-9.0261,-6.7141,22.7324,-2.3369,-10.0495,2.2587,-10.9836,-1.6034,-5.3693,6.8969,
-3.685,3.717,5.9462,6.3567,-20.0537,-3.9012,34.8658,-0.75046,-9.929,6.9434,-8.8784,1.8668,-4.0828,9.3752,
-2.7405,0.8429,7.759,3.8062,-12.3426,-4.39,46.8739,-3.3565,-5.7173,3.876,-4.2483,1.0319,-0.70436,10.5003,
-7.1559,-2.3407,3.1961,-3.4121,-3.6483,-10.6341,31.8898,-7.7349,-11.4003,-10.4566,-10.9828,-8.9119,-6.2057,3.8443,
-10.101,0.6918,-3.2626,-3.2073,-2.4655,-9.9965,22.7454,-9.6814,-18.4291,-16.2167,-9.8424,-8.3777,-9.2078,3.6137,
-6.6026,8.3633,2.236,6.6263,-5.6918,-4.0938,35.4807,-6.2077,-10.5746,-7.5307,1.3537,3.2124,-2.3886,10.1455,
-2.3501,8.8254,5.4758,6.2287,-8.7247,-5.2945,46.7289,-1.9789,-11.3864,-12.8634,0.30814,-0.35476,-0.3171,7.1267,
-1.4862,3.7166,0.085616,-1.1349,-1.2114,-8.1103,36.9355,-4.9936,-20.5852,-25.3482,-7.6641,-12.6255,-9.6981,-0.29082,
-5.0124,4.2165,-2.0887,0.13804,-0.89773,-9.7928,29.1756,-9.7557,-19.1091,-23.1044,-5.9994,-10.6632,-13.214,-0.51434,
-1.337,12.1584,6.7135,4.4683,-5.1824,-8.2412,41.525,-6.2781,-16.0341,-9.1847,-2.2648,1.546,-3.7438,3.8551,
5.01,13.8393,10.6492,3.7185,-2.943,-6.3007,53.1335,-3.973,-26.6415,-10.0796,-9.8419,-4.3311,-3.5194,1.6953,
8.3246,17.106,12.6616,6.6287,5.1875,-2.7894,49.4636,0.84493,-27.2124,-4.4134,-10.9384,-5.2768,-6.4415,0.8705,
4.6916,16.3206,13.5891,3.5794,-3.5599,-0.45284,52.0394,3.9273,-18.1078,9.9514,-8.1129,6.85,-9.1885,2.0236,
7.7848,12.9315,15.6661,1.9186,-5.7566,-0.90737,63.017,3.2099,-14.1291,13.8131,-6.1801,5.9573,-12.9753,4.7944,
8.2818,9.7453,11.8338,2.7676,8.5683,-8.5659,50.9206,-3.2494,-21.4758,-1.1157,-8.2196,-4.5233,-19.4278,-0.31371,
3.9285,10.6068,10.6419,4.0478,7.0903,-2.7493,39.1885,0.80193,-23.0798,-4.3022,-2.9058,4.4252,-20.6723,2.1152,
3.2106,11.8984,14.8238,1.8765,-7.4351,6.5744,50.9372,7.9844,-27.9617,-2.5981,-1.7673,8.9802,-22.8067,6.3269,
6.8746,14.0767,17.3086,0.80026,-3.4943,7.1445,61.9809,9.4338,-29.6582,-8.2265,-3.5892,-1.1998,-19.5098,4.5012,
1.1593,9.3755,8.0752,3.1621,5.3922,-4.3716,44.1621,3.0829,-25.9508,-17.3744,-5.3023,-4.0201,-15.4469,-0.10739,
-3.0076,7.1262,2.0475,8.0341,-4.3313,-1.9401,36.3304,2.1751,-22.2243,-14.6444,2.0057,4.6572,-11.3866,4.9607,
-5.2373,6.2167,4.3348,2.7318,-15.1582,3.4789,48.2506,2.0446,-24.7473,-7.9812,6.2237,2.9315,-5.8827,3.6988,
-2.7539,6.5666,9.1359,1.8445,-3.8848,-1.3096,59.4556,1.6809,-21.093,0.93335,8.9837,2.5142,2.424,1.7896,
-7.6504,-2.7454,3.0446,-0.91724,-7.2672,-13.5231,54.6832,-5.4098,-21.5147,5.4571,8.2038,5.0149,-2.7831,1.9237,
-11.2887,-3.7856,3.5848,-1.5856,-16.7131,-16.809,54.5354,-6.29,-27.6956,10.1913,5.06,8.8114,-8.6417,2.5311,
-6.5138,0.5387,8.4312,-4.6237,-9.685,-14.5954,53.4325,-4.2256,-34.47,5.4823,2.1051,5.1494,-7.8825,0.20988,
-1.0617,2.1936,12.5046,-4.5872,-0.1858,-9.1404,46.6109,-3.7311,-32.1608,-0.39073,7.04,2.1889,-1.384,4.2946,
-6.0595,4.2314,11.0312,4.6058,-1.3797,-3.0481,51.2863,-2.7841,-27.5799,-3.0181,7.3412,3.2631,3.2786,9.5808,
-4.7318,5.4235,11.3339,4.3297,-3.2249,-5.2756,58.3322,-0.20674,-28.8171,-10.0677,2.5621,2.5851,0.19004,9.0057,
3.988,6.7856,13.3052,-1.9558,-2.7907,-9.5386,52.1812,-0.43553,-34.0778,-20.792,-1.2068,-4.5596,-5.8471,5.8145,
4.4716,9.9934,11.7835,-1.1156,-3.3461,-6.3152,49.773,-0.16843,-36.6128,-23.1599,0.5524,-10.794,-2.8452,3.296,
-0.37597,11.5634,10.3536,1.6029,-4.3507,-4.2486,52.8124,-1.3632,-39.9595,-25.3858,1.7245,-12.3155,2.3872,2.8573,
-0.59438,16.8952,10.9372,4.6398,-4.8125,-4.717,47.9564,-1.5228,-44.5518,-28.4419,-3.4406,-12.7819,-1.8534,3.4088,
2.5748,21.4251,10.04,1.2283,2.4657,-6.1212,44.8381,-0.22614,-42.1196,-23.6024,-10.2236,-15.148,-6.8039,1.5175,
5.5535,20.3803,7.7506,-2.461,5.4514,-8.4053,47.2092,-7.2022,-42.2438,-18.5706,-12.2615,-17.8547,-4.7087,-1.7073,
10.5227,23.0141,17.4087,3.9534,-0.17853,-4.5263,58.4767,-7.7342,-40.6732,-8.7795,-6.7053,-10.5167,0.87674,4.18,
8.6861,23.3205,20.4615,5.8853,-0.89072,-5.9424,65.6936,-1.2446,-37.0278,5.8473,-5.5801,-4.3421,2.5109,5.6164,
3.1039,20.2342,13.6905,1.917,2.296,-13.5394,47.652,0.51755,-44.2059,12.1249,-8.3785,-4.8042,2.6019,0.69988,
4.8454,20.9479,18.1712,5.6584,2.1582,-10.3169,40.3341,1.4504,-44.4463,12.8432,-7.8758,0.30426,4.3735,9.8165,
11.0624,20.8966,25.9992,7.0059,5.162,-10.9029,52.014,0.15828,-37.6817,11.8319,-10.5365,-0.91906,4.8342,12.3612,
17.8707,20.3659,24.68,2.0065,9.4318,-15.3102,61.306,-0.57435,-42.8926,10.3988,-14.4839,-6.4078,6.2316,1.7374,
20.6546,23.482,21.2708,2.8497,5.9736,-9.5711,54.7353,4.2806,-48.032,2.0619,-14.097,-4.5768,6.3395,2.5972,
17.9695,25.4476,19.0307,9.9096,3.205,-4.1761,49.523,6.4339,-46.1142,-9.631,-13.2512,-4.7846,5.9591,13.0467,
11.8297,21.7516,11.3809,8.1097,8.5564,-6.0952,41.4899,0.50424,-46.9628,-17.0069,-14.6253,-11.4874,6.3244,12.5048,
7.0221,18.2768,5.1544,3.5258,10.6941,-9.3449,47.4365,-2.1771,-46.3144,-20.0843,-17.8451,-15.3774,0.88375,4.7647,
11.4217,19.1087,11.1124,4.2788,11.4989,-8.784,54.7136,-1.0824,-47.3917,-23.6992,-22.0768,-18.3109,-0.6153,1.5865,
17.0032,21.3368,17.6762,2.576,8.8806,-5.8466,50.4667,-1.4996,-52.7429,-25.652,-24.1264,-19.6226,2.7958,3.4197,
11.1625,21.9846,16.1335,5.7957,4.4911,-4.0497,49.3669,2.447,-51.5068,-20.2562,-25.5716,-13.1429,-1.2281,8.9989,
2.5388,20.4248,15.4067,7.135,2.5346,-5.0118,43.2716,3.9872,-46.247,-4.9409,-27.1706,-6.8104,-4.2876,11.5927,
2.8686,19.199,21.231,3.3326,3.8286,-6.1571,34.8905,2.3019,-47.8107,9.4556,-30.3608,-9.776,2.2359,8.9687,
0.76806,16.6011,20.9212,4.5787,4.081,-13.9827,38.0997,1.6816,-50.7266,22.9883,-31.9134,-20.2769,2.5839,5.5383,
0.23958,16.0869,21.5937,12.0168,5.7644,-16.0362,47.3827,-0.34746,-39.4883,35.709,-21.3219,-17.6145,2.4289,8.0981,
13.2406,25.2446,30.4214,22.3825,9.2749,-3.5049,55.6269,-4.6654,-28.4422,44.4125,-5.9426,-4.0242,11.4417,13.3967,
12.2057,19.6326,27.3913,12.122,10.8876,-9.8021,55.905,-18.4855,-39.0277,30.4195,-5.4654,-12.7003,9.5504,4.1573,
8.5808,15.0802,22.8553,5.6101,20.3577,-21.2655,55.443,-23.2812,-40.0605,17.9891,-3.2092,-23.0255,8.9774,0.53338,
4.4506,15.8626,14.0122,10.8171,8.2899,-19.2662,48.0188,-20.1971,-38.38,13.2943,-2.7757,-23.8136,4.8233,0.26041,
11.4144,29.0108,22.8124,24.268,3.9362,-4.0102,58.1531,-4.8853,-27.8822,25.9944,-0.19905,-8.2848,14.6573,14.3448,
9.7654,32.9343,26.2641,21.7272,5.146,7.6791,54.1818,1.072,-34.8864,16.2398,-13.6847,-1.6412,13.2957,20.1121,
11.3484,27.825,21.0731,14.3982,9.8987,-1.2176,49.7258,-4.0538,-46.0494,1.1655,-25.1554,-15.6427,4.5439,11.4338,
13.0781,24.2273,22.2188,13.0524,14.6074,-4.519,57.3475,-7.185,-46.1787,-9.6303,-27.9849,-24.9476,2.3431,6.4094,
10.8474,24.7021,29.0807,16.1254,9.3924,-0.87362,50.5322,-4.3436,-45.3364,-6.1601,-28.2338,-21.0408,3.1666,6.9889,
19.3553,30.4506,35.5307,19.9784,1.5983,8.82,52.8029,3.1476,-42.6162,-0.48812,-21.7193,-10.1372,4.4227,13.8002,
21.0861,27.1773,33.3989,20.7078,4.3944,1.0599,63.7348,0.06673,-37.167,2.9156,-20.4161,-8.0831,1.2652,14.9004,
11.8674,20.4852,30.1899,20.6704,13.531,-12.7422,62.9234,-5.4811,-29.8753,11.1766,-26.6632,-8.8032,0.4662,10.8731,
6.0937,19.497,25.727,20.6355,7.1755,-10.2904,45.048,-3.465,-29.2878,18.9421,-30.607,-10.9261,1.1611,9.4978,
6.2102,20.7376,20.8091,24.2179,5.299,-5.3345,45.5991,-1.8111,-29.9409,22.6261,-32.6267,-13.1628,-0.35457,10.8559,
12.1041,22.3858,22.935,24.211,17.0321,-4.5325,56.9632,-2.6663,-25.7341,28.4994,-27.2947,-2.7321,-1.7796,14.061,
11.6191,20.8015,20.8358,17.6969,7.5743,-1.6092,60.4146,-0.81932,-27.3235,26.0663,-22.5237,2.0113,-3.3598,12.9766,
9.4752,22.9274,18.6213,19.5272,-2.5211,5.7182,51.4868,4.5325,-25.6843,16.7891,-24.0648,-3.8944,-1.2305,13.1618,
13.2452,24.444,22.8065,23.658,7.2709,4.411,61.8952,1.8502,-18.8406,13.3718,-28.8877,-9.927,-5.9767,13.3362,
23.5378,25.8699,32.0434,29.9513,12.6192,4.1464,72.2815,3.1854,-13.3717,17.3898,-25.2262,-7.8851,-7.0643,13.9823,
18.9922,19.2563,25.5412,21.6465,1.9803,4.6207,73.8496,3.7174,-25.3438,8.8748,-31.6666,-13.4378,-7.3636,4.7075,
13.7553,20.2701,21.8396,17.2147,12.2254,7.4765,64.3572,3.7354,-28.8846,2.3168,-34.8278,-16.2469,-7.1627,-0.15473,
19.1968,23.3924,27.7598,22.4481,22.5789,9.4383,67.7264,4.4753,-27.1515,3.1414,-27.9177,-10.4516,-7.6971,0.81865,
17.3223,15.4811,21.9971,16.5221,9.8966,4.7748,69.6888,3.0017,-37.3324,0.30205,-34.1961,-8.619,-6.0302,-5.7377,
14.1136,18.1675,17.0617,14.8077,5.2053,3.2833,66.2304,4.0267,-42.5644,2.4529,-45.8829,-8.825,-3.9809,-14.7937,
16.8819,25.9953,22.5457,20.9088,12.3645,7.6653,67.318,6.4364,-33.5031,11.7059,-42.8892,-3.7165,-7.3577,-16.5574,
17.5563,20.8206,23.3625,25.1979,7.0434,4.0724,74.6074,4.8449,-22.0927,23.2961,-33.8079,4.4607,-6.1929,-14.3586,
13.6108,17.6432,19.5507,25.6142,-3.0202,-3.8847,78.3258,5.5186,-16.9105,32.5031,-30.8156,8.0495,-0.51867,-16.8716,
10.1428,23.5742,17.6545,25.7648,-2.5983,2.8561,77.7237,9.767,-12.7626,35.1325,-32.5818,5.8795,1.1994,-20.4388,
12.4261,21.6776,17.0769,27.5932,-7.2629,11.3616,76.9166,11.1089,-13.9253,31.5785,-35.4474,5.5265,-2.2472,-21.1409,
16.0193,16.0386,20.3906,26.9015,-15.0218,9.7156,82.9067,11.4067,-13.5717,26.3093,-32.3567,3.7487,-5.0044,-18.4262,
11.9244,18.6915,23.7467,27.4563,-12.9154,9.3738,86.368,12.4093,-11.0704,24.9715,-28.2464,1.3544,-4.9454,-18.5257,
3.4964,17.5702,18.9477,25.3272,-10.2121,7.3654,69.1348,8.7725,-15.2264,26.8479,-36.1923,4.6478,-7.0585,-23.1985,
4.0095,11.4543,17.0879,21.1565,-10.8046,1.8618,64.2636,8.4871,-11.6618,24.9961,-34.7437,11.3588,-5.4302,-16.263,
1.8408,2.5724,9.3137,20.369,-12.0846,-3.5526,68.6027,9.906,-13.3722,9.5166,-32.1771,6.3385,-8.4788,-13.8414,
-1.162,-0.95666,1.0419,20.111,-9.4315,-0.44715,70.7533,8.3476,-20.2828,7.9815,-34.1031,4.5121,-5.5597,-13.0107,
0.11328,1.7521,1.7025,13.8429,-18.7473,5.6055,72.5336,10.0161,-19.3068,19.3129,-33.262,13.1592,-0.64664,-6.6866,
-4.9557,2.8522,-5.3895,12.2889,-26.0586,5.0277,59.7457,10.1381,-18.8716,19.8414,-36.8099,13.0926,-10.0078,-8.4546,
-4.6579,2.1992,-12.7784,15.408,-11.9616,6.1723,55.1969,10.0122,-18.7034,22.0254,-41.3497,10.8612,-11.8175,-9.3936,
-4.8608,-5.1641,-18.2787,9.1809,-7.8699,-1.9108,62.9721,5.0727,-26.2583,13.9549,-47.5459,4.9069,-10.6265,-9.3119,
-4.3279,-7.0232,-13.5663,9.8355,-13.423,-6.3757,73.2937,7.9016,-20.5852,16.7333,-43.0056,8.2277,-8.3019,-2.2455,
-9.8531,-12.8685,-13.7169,8.7632,-20.3307,-13.2237,71.9091,7.9096,-13.5655,21.5136,-45.2462,3.3955,-13.5882,-4.5211,
-7.0923,-10.8911,-16.9908,11.8529,-16.4593,-10.7426,72.1743,8.6403,-14.9205,16.1255,-45.1821,1.023,-8.6755,-2.5622,
-9.559,-10.7198,-23.6843,9.6957,-14.0257,-3.3499,65.9154,9.086,-20.292,11.3013,-45.3639,8.1923,-4.2984,2.4116,
-16.9397,-14.174,-22.0223,5.9804,-11.9793,-5.8,60.7552,8.7818,-18.3516,15.6849,-49.15,5.5311,-9.1022,1.0616,
-7.0048,-12.6002,-17.0856,10.2014,-7.6447,-5.6929,69.4026,9.4602,-11.2245,16.431,-47.8878,-1.7902,-10.2432,2.2037,
-2.9695,-9.6755,-24.4966,15.1324,-5.9812,0.1918,66.4433,9.1336,-7.9002,13.276,-44.2916,3.8609,-7.4595,2.7939,
-9.0581,-4.7564,-30.7393,15.1886,-2.73,2.1087,61.0105,12.9236,-7.9081,10.551,-42.5982,4.5933,-6.5298,2.6265,
-4.1758,-2.0604,-24.0747,13.3134,-1.1199,-2.3561,71.4498,19.8615,-5.0232,4.1334,-45.345,-5.3233,-7.5842,4.3971,
2.5822,0.7143,-21.4249,17.0939,-2.258,-1.4919,80.299,22.2852,-1.1064,4.6088,-48.6498,-0.42458,-5.9239,4.8566,
-0.70599,5.7329,-25.2009,18.7196,-3.8096,4.1415,74.276,26.4915,-2.2453,8.4294,-40.6694,12.8575,-3.8815,7.2161,
-4.2793,7.0764,-21.5199,16.8733,-2.3759,6.0619,67.65,28.9996,-0.90532,6.7185,-35.096,10.8805,-4.8536,10.3988,
-4.9864,3.7593,-14.4441,19.2353,-0.7871,9.5546,73.232,26.2953,3.4873,8.2436,-43.1131,2.033,-6.4906,8.8105,
-8.7846,0.40023,-10.444,15.912,-2.9095,13.0787,81.6125,26.8867,9.3036,9.4362,-45.588,5.0445,-4.4139,10.451,
-11.391,-0.82862,-9.5764,10.86,-4.9036,8.1966,68.762,25.9969,10.9148,8.6291,-39.2371,12.2136,-3.9081,16.8139,
-15.0461,-4.1531,-16.7143,7.798,0.21107,7.2231,51.1387,20.0985,2.065,6.1829,-45.56,9.0705,-9.9404,13.8771,
-20.651,-8.9658,-22.7016,3.2326,3.8136,8.9587,51.6856,13.8307,-2.6384,2.1967,-55.1189,-0.39205,-13.9235,6.5363,
-13.3859,-1.438,-12.9034,7.6183,0.4513,10.1084,61.8413,16.6167,5.4738,5.1984,-48.1961,5.6575,-13.811,10.2419,
-10.6546,5.3972,-4.4164,11.982,-3.9141,9.5019,62.9511,20.44,7.5558,9.2248,-42.4118,17.3696,-14.4286,13.4838,
-16.2823,5.5553,-3.1875,16.0833,-1.7511,16.6445,62.0661,24.9981,12.8868,6.7432,-38.9032,16.8093,-5.3682,10.2642,
-23.9822,-2.973,-11.1908,11.2617,-1.1638,8.4152,54.9679,19.1602,16.4521,-5.7128,-39.4613,4.7133,-0.70752,-4.4517,
-21.8202,-1.5895,-10.7605,7.9351,2.5212,-1.4894,55.7674,14.8773,17.1522,-10.4314,-35.8884,5.1537,-3.7983,-12.0176,
-18.8237,7.9058,-2.1607,14.9308,2.1289,9.4457,64.2315,25.7948,21.6667,-11.9747,-30.1196,13.2806,-3.8114,-1.4146,
-23.2379,6.2262,0.6196,15.7217,-12.0988,22.1354,66.8851,31.7185,21.0896,-12.4615,-32.4103,14.6524,-1.8955,4.2139,
-18.2284,2.7194,2.7518,9.235,-12.6986,24.4229,67.9339,24.7539,11.3885,-5.2061,-34.563,15.9427,-6.8432,-0.13655,
-22.1962,-3.9515,-4.8849,-0.23689,-3.9827,20.7881,49.7578,11.9407,0.34113,-6.0988,-42.3712,8.9608,-20.5326,-7.118,
-23.2745,-0.8219,-4.5918,2.1874,-1.8156,25.8078,36.0471,21.8295,10.926,-0.91217,-42.239,11.3157,-22.3137,1.0223,
-17.2988,2.8428,-0.21892,6.6355,-8.6965,25.9461,47.9842,30.4017,10.9933,0.34739,-41.8741,13.2878,-21.2158,4.094,
-15.5377,0.50287,-1.8928,3.5865,-6.4873,25.1125,54.1433,21.1056,0.9337,-1.8424,-39.6026,10.8031,-20.1836,0.71511,
-17.0156,-1.4555,-7.0819,-0.003149,-3.6879,25.5339,43.6638,16.4652,3.77,3.5708,-34.3341,13.0474,-14.1523,5.0105,
-16.9588,0.078326,-7.1391,2.4074,-10.2153,19.1814,41.0442,23.1899,10.2924,3.3563,-30.8278,13.7106,-13.7853,5.674,
-18.8335,-0.89093,-4.3004,1.7808,-14.4229,18.5127,52.0787,18.9062,13.5313,-2.1479,-28.0143,15.7803,-12.9585,4.3695,
-20.837,-5.4168,-9.1041,2.8792,-13.3165,21.4993,51.6055,8.8542,15.3707,0.15057,-25.1281,17.9669,-9.047,8.2051,
-16.9355,-4.851,-8.3166,10.66,-9.8662,20.9324,44.8936,19.1685,19.9919,5.6849,-19.0412,14.2376,-9.7097,10.8456,
-14.4731,-3.5956,-2.515,11.9486,-3.4897,21.6047,54.2515,30.07,24.0952,1.0055,-14.0421,11.9371,-10.5729,7.3028,
-18.9071,-8.6823,-1.4,10.2676,-4.2444,17.8981,63.5297,23.4453,24.0956,0.94494,-17.5381,16.5233,-7.5287,7.8287,
-26.9317,-19.2486,-6.6186,3.8669,-13.6307,9.1114,47.6668,10.9513,20.2397,5.709,-22.7523,15.0499,-14.3073,8.3233,
-31.1008,-22.9144,-9.114,-2.632,-13.7772,8.5647,36.1297,7.8837,19.507,9.7047,-20.9055,9.8086,-22.1264,4.449,
-35.2601,-27.5648,-16.0388,-9.9457,-18.012,7.3277,32.7568,2.3497,10.865,12.7381,-29.0509,5.6045,-29.2343,-4.2534,
-29.5293,-23.2601,-15.7996,-10.554,-21.0289,4.2367,29.5859,1.0032,7.0796,17.9991,-36.7081,6.9556,-27.2395,-6.65,
-22.4547,-15.5977,-10.0311,-7.9928,-17.8387,1.0902,25.8828,0.9432,13.4038,13.063,-33.5413,9.4306,-24.641,-9.1428,
-24.2411,-13.9387,-10.6343,-4.3795,-18.9378,0.30168,25.5349,4.9842,19.5892,11.0742,-26.9493,9.5879,-25.3315,-6.4253,
-26.6426,-14.0663,-11.9244,3.1141,-26.9601,-0.19835,33.6442,8.5415,27.5729,16.6762,-22.4398,9.4946,-21.4015,-2.1829,
-27.6956,-16.8377,-12.4143,-0.20625,-22.6914,-4.7657,34.2767,-6.071,26.6414,11.0959,-24.7091,13.5042,-17.9482,-3.7392,
-22.6594,-15.8275,-14.0795,-5.9785,-7.3502,-3.5159,29.8099,-19.8067,20.7046,7.5381,-27.5649,24.2635,-21.2097,-0.14037,
-19.8533,-16.8058,-15.6447,-3.6913,-21.0091,-2.3409,40.5546,-15.726,20.9086,6.1217,-28.3211,18.4692,-28.132,-0.13218,
-20.5906,-20.6179,-11.3318,-4.4339,-23.4847,-3.1645,52.2213,-10.4439,25.921,6.7185,-23.7295,10.1304,-24.9976,-6.391,
-25.6219,-24.6837,-14.0265,-13.3272,-7.9756,-5.385,34.988,-23.9173,17.1347,8.7258,-23.752,14.3431,-21.5698,-8.4179,
-27.9412,-20.7923,-15.1129,-12.0454,-17.7407,-5.0617,18.7888,-21.3981,12.25,8.202,-21.363,24.5695,-22.686,-2.6104,
-23.6134,-18.8217,-6.2522,-7.2251,-14.025,-4.9992,16.0949,-9.7497,24.7716,7.9511,-14.0555,24.7828,-22.0479,-3.1764,
-22.1963,-22.0309,-5.3953,-9.6839,0.91654,-8.0734,14.1647,-17.3596,26.6595,13.2588,-14.6582,19.9211,-22.1711,-9.2526,
-19.6595,-18.0577,-8.2049,-8.3802,9.177,-7.3478,4.8789,-19.9337,22.891,16.0785,-10.1633,23.7873,-18.6714,-5.0823,
-14.3828,-12.3948,-5.5432,-3.2978,-3.184,-7.6301,7.2375,-12.23,31.3993,9.5699,1.2926,26.4577,-12.9721,0.28413,
-15.2068,-19.1231,-11.7183,-11.5359,11.107,-19.465,5.1162,-17.0396,30.7204,5.3805,-2.4004,19.3263,-15.327,-3.83,
-17.1865,-28.0986,-18.246,-21.4485,15.8637,-30.3482,7.2194,-26.6225,20.6825,7.9502,-10.9333,13.8284,-19.2276,-10.3491,
-8.9247,-20.146,-5.1,-8.5927,9.1271,-22.2606,20.8862,-13.9377,29.0827,12.2937,-2.0826,20.2298,-13.2535,-5.8716,
-6.702,-18.2143,-3.5891,-6.8718,8.8205,-20.684,22.646,-2.2556,41.0761,11.3151,1.6578,18.2927,-11.7354,-5.7603,
-11.3613,-21.2186,-8.9172,-13.9311,10.4606,-26.9145,11.4051,-6.2174,45.1192,12.3232,-2.0568,11.6517,-10.3081,-7.584,
-12.8493,-25.9715,-8.6231,-12.8543,11.0383,-24.0948,17.7107,-10.4241,39.2786,14.7173,-4.5848,12.1574,-13.3051,-8.3343,
-13.2834,-31.4028,-9.3108,-9.9141,8.2066,-14.6952,24.1196,-2.3266,34.7529,15.0393,-8.4073,17.4538,-14.1938,-5.6648,
-15.3786,-27.1083,-11.6444,-4.9807,3.3756,-7.0648,15.9238,7.4537,33.6318,16.0649,-10.3129,18.8169,-10.4499,-0.98639,
-13.4918,-26.9283,-12.3922,-7.0922,5.1015,-6.1587,15.4505,2.6679,31.6137,13.1731,-10.6583,9.493,-16.0896,-2.8556,
-10.2717,-29.6509,-13.5764,-13.4151,7.2056,-8.1993,20.3081,-1.8305,30.1993,8.5263,-6.1624,3.1388,-20.9088,-5.0944,
-13.7532,-24.2564,-20.7161,-9.9591,7.0142,-10.8409,13.546,-1.9616,23.8076,5.8456,-1.6953,6.084,-14.1107,-5.0297,
-18.7124,-22.8013,-25.7398,-7.4336,3.7011,-7.2981,13.2149,-4.7362,23.8252,9.351,-7.3781,10.057,-10.8541,-1.8356,
-12.5284,-25.0482,-19.1338,-5.7823,-2.0646,-1.7986,26.522,1.5735,30.8318,19.6362,-4.7663,12.5871,-15.7465,3.8181,
-6.956,-19.207,-15.0937,-6.3992,-4.3509,-5.5475,39.0307,4.8536,28.4995,24.2426,9.6197,12.3138,-11.4273,5.9991,
-13.7693,-18.0543,-20.4543,-8.9076,-1.1975,-13.891,28.0124,-6.5246,27.2721,17.4856,12.7786,6.2725,-2.5462,2.7469,
-13.6667,-21.551,-15.6119,-1.8659,-1.8488,-11.853,24.6442,-6.8567,39.7358,13.7847,5.9859,4.6907,0.73935,3.3052,
-4.6515,-18.3293,-7.4443,5.4774,-5.1123,-1.9823,37.2656,-6.4449,51.4517,14.8863,5.145,5.8559,6.48,11.3016,
-2.203,-10.2399,-9.649,8.7639,3.6303,8.0183,49.1296,-14.4941,50.5333,14.2338,7.0055,7.6735,6.332,22.9158,
-9.0607,-13.2409,-14.1317,4.1403,6.546,9.7064,46.4226,-16.7579,39.5475,4.4617,1.0413,9.3823,-5.8581,20.818,
-8.0347,-21.6055,-11.8376,-2.8566,0.36864,6.7139,43.6377,-12.378,33.3183,-2.072,-4.3233,7.3735,-14.1832,13.7843,
2.3293,-15.7294,-5.5837,1.8946,2.9981,7.9983,51.3838,-13.3226,41.2016,1.1853,-3.3408,-0.54069,-10.6811,15.1264,
1.7072,-8.0372,-7.6588,4.6729,1.8539,9.4466,50.7104,-14.4514,45.4779,3.5243,3.6081,-1.9545,-7.6302,16.6289,
-9.7235,-13.5805,-21.2993,-3.0792,-10.5499,5.2644,33.5678,-9.9689,29.9748,-2.2307,9.4172,0.33193,-8.3776,12.0158,
-9.1398,-10.8377,-28.8189,-1.448,-7.9885,9.287,33.3619,-7.9247,26.7303,2.7236,19.4574,2.2404,-1.1258,14.6695,
-8.3505,-9.9465,-20.0999,-2.5664,-2.4479,2.7043,45.4602,-21.1876,33.5621,5.2117,24.7977,-2.4737,-0.81778,10.6559,
-6.1622,-11.5189,-14.7966,-3.1358,1.3144,-2.5197,50.3246,-19.6753,31.7894,2.2475,26.9252,2.2544,-2.4555,9.2936,
-1.2134,-7.6945,-16.0782,-2.7064,3.4049,4.1392,35.0129,-6.2025,33.9796,2.3538,28.4428,5.252,-3.0317,18.1358,
-5.9606,-9.1608,-18.0058,-7.3645,-4.512,2.9268,37.7326,-10.6509,38.6895,-1.6436,21.434,-2.2933,-10.5624,19.458,
-10.6649,-16.0832,-18.1305,-10.0559,-3.0366,-3.7565,43.9045,-18.4477,37.5732,-5.6425,24.7272,0.013223,-13.5438,17.5674,
-8.5788,-14.1539,-21.8629,-9.4526,4.3764,-3.0492,36.9319,-13.0025,37.247,2.4088,34.813,8.2071,-11.2849,17.9596,
-9.5098,-8.4839,-27.3,-6.9572,-9.9862,0.99059,37.1261,-6.9197,37.4228,9.977,35.6165,8.1971,-13.0184,14.4719,
-13.0368,-13.5187,-28.7953,-4.3709,-20.5947,-0.7563,43.8164,-9.1559,34.4543,8.1733,36.1306,6.9821,-14.4063,15.7725,
-9.3626,-15.6001,-25.6213,-0.25221,-5.259,-1.6753,45.0438,-10.0528,37.2073,7.2006,45.05,9.4553,-9.6855,15.3081,
-6.1495,-13.4586,-24.3252,-1.4421,3.3722,-2.2979,50.2952,-9.2084,34.7341,4.1172,43.0701,5.2728,-11.7557,2.5797,
-13.0111,-11.205,-26.2399,-2.8016,-3.0969,-0.23157,53.5442,-5.2817,31.6859,-3.8424,38.5577,3.9923,-13.9426,-2.878,
-21.3895,-11.979,-28.5219,0.74091,-0.018583,-1.6639,45.5108,-1.1084,39.4258,-4.0938,40.5828,6.6448,-7.8034,-5.1154,
-17.4546,-13.9114,-22.7133,1.4194,8.9001,-2.7689,48.8062,-5.1392,50.3166,4.1056,39.3529,6.4876,-2.7559,-11.7984,
-10.8641,-8.4974,-15.3249,7.8421,4.7507,-0.91603,59.9778,-10.8564,53.3231,6.0284,38.1968,10.6776,-0.42142,-10.8495,
-12.6226,-2.2027,-17.2977,14.6022,2.0553,-0.86084,66.6225,-7.3128,53.9799,9.0409,40.7255,19.1957,3.9424,-7.7882,
-15.2393,-9.7833,-17.2242,6.4952,7.2346,-6.1118,62.1432,-5.9097,53.1517,17.1756,38.2819,19.0083,5.6341,-18.89,
-9.9864,-12.571,-7.9958,8.9978,4.8726,-9.1193,65.1633,-8.4474,51.4086,20.0017,41.7696,12.565,7.224,-25.4696,
-15.413,-8.2011,-10.6493,14.0018,-9.5198,-6.8852,61.0123,-9.628,49.0472,8.9194,44.3249,6.2677,8.478,-22.254,
-22.9241,-8.9141,-17.9643,8.0998,-15.5768,-4.7846,52.2901,-2.0607,48.7557,8.143,39.4962,6.1328,6.7643,-19.7137,
-16.9694,-11.9947,-17.1274,10.2653,-3.7964,-7.1491,51.8038,0.23213,49.4458,14.1619,34.9573,5.5234,1.2965,-22.1463,
-7.7563,-12.2391,-13.6894,13.5056,-10.3168,-6.238,62.7956,-1.7098,48.407,5.1177,36.7162,-1.5567,3.1471,-22.7455,
-7.5321,-7.4076,-13.5912,11.0082,-11.3852,0.16161,73.1279,-2.3303,45.7438,-6.9997,39.0926,-6.0428,11.8759,-21.6219,
-12.3823,-8.8911,-19.042,4.5634,3.3979,-0.81173,54.6402,-2.1903,42.517,-2.7231,40.6036,-1.8236,14.538,-19.8425,
-16.9421,-16.0704,-24.1664,1.879,5.966,-3.1732,45.6981,2.7614,41.4123,6.1169,39.6137,-1.2323,12.2195,-15.7599,
-20.987,-15.3474,-25.3678,3.4537,-8.4919,-2.742,57.0562,9.1034,38.2044,0.68848,35.0675,-13.4506,8.3531,-14.5731,
-18.7637,-13.4622,-21.9175,-1.0923,-3.2826,-6.9158,61.9481,5.1828,34.9483,-4.6555,31.0352,-21.3202,4.4774,-14.663,
-12.3354,-15.0649,-13.8538,-1.5084,8.9656,-7.465,65.4618,1.9795,36.7075,-2.4477,26.763,-21.0051,3.2447,-11.3729,
-7.7389,-13.679,-12.0582,5.3305,3.1251,3.5878,69.7288,11.5017,40.2896,-0.37267,28.5314,-21.191,9.7989,-3.4597,
-5.8283,-12.3761,-17.1196,5.9748,11.1325,7.2291,62.1708,16.1145,40.2826,1.0957,30.194,-20.4017,14.9953,1.5684,
-3.3095,-14.2849,-11.5129,5.3756,7.8132,3.6621,70.7329,13.4602,38.5888,3.1994,26.2132,-16.5263,11.9267,2.1974,
-12.0287,-16.561,-15.4016,1.4374,-5.9117,6.5756,68.6583,11.9299,34.1041,4.2125,24.3994,-12.4015,10.006,4.235,
-22.6354,-17.7368,-28.5775,-7.0848,-0.013646,8.8324,50.4388,11.9368,26.5145,5.6467,26.5504,-4.6678,8.6821,6.6317,
-18.8669,-15.7085,-36.1426,-5.6956,6.7358,11.6767,41.0252,16.523,22.0313,7.2359,30.7422,3.3253,9.6076,11.5367,
-20.1453,-20.0688,-31.5637,-4.3898,-3.7914,7.6019,52.6637,9.2648,24.0836,-1.3932,27.9336,-6.0335,7.5847,9.88,
-18.2132,-15.731,-31.3566,0.45314,-4.2866,8.3508,62.64,10.8788,36.7386,-0.10409,34.2115,-9.7686,13.1558,13.3852,
-20.2539,-15.51,-32.1268,-2.7075,-3.3065,9.537,52.8556,17.2155,33.9319,-2.7489,33.8461,-10.8697,12.1251,6.0741,
-19.0387,-16.5079,-20.0763,-1.581,0.74803,9.9289,53.0585,18.5929,24.183,-9.8151,31.8151,-11.1816,10.4335,2.3355,
-10.4248,-12.8661,-13.3279,1.1652,1.4263,6.6818,63.975,12.4154,22.9727,-10.9136,33.5216,-7.8594,13.4226,10.1489,
-8.3528,-14.5042,-17.3484,-6.1351,-4.4439,4.3527,66.524,12.1529,22.5587,-12.6685,33.4387,-5.4596,9.7252,10.9862,
-13.6364,-16.0446,-20.1644,-9.6238,9.9228,7.9479,52.8916,14.3158,16.8669,-16.7291,28.5399,-6.0964,4.8034,5.9887,
-22.7004,-22.0715,-27.8724,-19.4105,15.2325,0.96336,36.4614,-0.64316,5.0088,-15.9665,14.5352,-13.6841,-3.9207,-4.2528,
-13.3844,-14.7217,-23.0665,-11.7379,0.2185,6.4492,43.6738,5.7829,17.9647,-0.90854,22.5811,-6.8375,-2.4802,3.4742,
-11.8582,-15.0432,-22.4057,-6.4544,-6.4228,6.7851,44.1868,14.8359,19.5379,0.95391,25.3236,-7.1502,-9.8034,5.4349,
-15.2441,-23.0587,-22.2664,-14.9847,8.0626,2.2807,50.4537,8.8841,12.3401,-5.6108,20.189,-9.3727,-11.8663,1.4938,
-18.1858,-23.6034,-24.7868,-16.9782,6.2533,1.6619,45.9802,4.9766,15.456,-1.4182,25.2442,-3.5077,-3.4418,6.2245,
-22.6385,-22.4281,-37.3996,-15.2366,-8.2219,-0.12505,29.1214,2.9908,17.6622,-2.056,29.2732,0.31818,-2.9943,6.5739,
-21.5209,-21.8053,-37.9274,-14.0809,-21.8286,-2.2867,23.156,-1.768,20.6998,-4.1018,28.7218,2.4683,-4.9836,0.63631,
-16.6143,-18.81,-21.9132,-9.6209,-12.8059,-0.94444,35.8667,-1.4207,28.3761,0.72379,34.9525,1.1151,3.2694,2.7671,
-12.4842,-16.9585,-14.091,-6.3923,-2.6378,1.7635,47.8147,8.5462,34.1451,1.4035,41.7732,-1.6031,11.0268,8.1444,
-10.2891,-10.6384,-14.6918,-3.1165,7.6436,1.6575,36.028,13.8183,32.0962,-1.0911,39.7487,-2.471,6.9907,2.8353,
-15.2151,-9.2769,-16.9433,-6.5447,12.2465,-6.3955,40.8559,2.6251,29.4473,-5.6051,36.6409,-7.3842,-4.2745,-10.591,
-8.5179,-7.2745,-10.6245,-4.7062,11.0297,-2.6377,49.0094,4.3958,34.4289,-8.6433,40.2268,-6.4592,-0.16192,-7.0635,
1.3932,-5.1508,-2.9972,0.15545,8.6807,5.4743,47.2741,13.532,32.1222,-10.7762,38.5363,-4.3845,6.8374,0.3502,
-1.1005,-3.8774,-2.3352,-2.264,3.3392,7.0745,44.4377,10.31,31.6411,-7.2371,35.7422,-5.5677,4.4992,-0.63468,
-3.9268,-3.6446,-7.9796,-5.5024,-1.6817,7.6141,37.4333,5.8348,27.8147,-3.4282,31.6695,-6.1977,1.8189,-3.9713,
-6.1015,-9.6926,-19.0702,-12.8852,-8.3294,5.2288,25.0642,1.1461,15.0583,-8.5254,25.4308,-3.8974,-1.1825,-9.5174,
-7.6638,-11.5217,-20.8185,-15.9685,-7.3477,2.505,28.8625,-1.8152,16.083,-8.0139,31.6177,-0.28957,-1.1118,-8.4644,
-6.2395,-6.4916,-17.1588,-10.1897,-0.15797,0.42648,39.1823,1.1867,25.2414,0.18019,36.9517,0.69213,-1.5268,-6.0283,
-1.768,-2.005,-17.3346,-5.9631,1.5385,1.124,41.4109,2.8025,28.3064,6.6766,35.9394,4.7477,0.73376,-6.3898,
0.74846,-4.7767,-19.1866,-5.6053,-4.3379,1.0566,40.3725,-2.1863,26.1261,4.3478,38.6038,5.9091,2.6182,-6.0064,
0.94475,-10.0337,-16.3484,-5.51,0.50164,0.75222,40.1193,1.5603,30.1022,-3.8668,37.9748,0.011422,2.2201,-5.405,
-0.31723,-12.565,-12.2342,-7.8307,9.3894,-0.016047,40.3635,7.4924,28.5368,-9.1782,27.7423,-4.0868,2.3279,-7.732,
3.3175,-6.2675,-5.9563,-4.7091,3.7646,1.19,45.4137,6.8021,27.0658,-4.5299,28.7293,-0.70838,6.7677,-3.6525,
1.9131,-6.1324,-6.3221,-4.668,-2.969,3.2877,44.8581,1.3323,27.129,-2.5713,33.5131,-2.835,8.0489,2.5922,
0.35207,-10.1032,-4.4967,-2.4595,11.3091,8.3929,41.202,0.28783,30.8037,-6.2737,31.0201,-10.3779,8.0479,-0.4556,
-1.3562,-15.0405,-4.9499,-4.4814,22.3201,2.828,38.0071,-0.93415,29.6785,-8.0663,23.6154,-16.745,2.5034,-7.418,
2.8228,-9.5583,-4.4118,-3.4894,6.8809,3.3814,45.1265,6.1115,33.4416,5.1924,31.5987,-2.0018,6.4508,6.7656,
-8.916,-16.6978,-18.247,-8.5827,-7.632,3.6605,35.6704,-0.039734,26.6144,-3.7963,20.5435,-2.3636,-2.6131,2.5033,
-6.4528,-11.3574,-17.5139,-0.3547,-1.8712,9.7076,33.048,-1.0014,33.2125,-5.9788,9.188,-8.4885,-4.3845,-4.8775,
6.7087,-2.2402,-7.5451,3.2821,11.0154,4.5457,38.5371,0.26359,36.7635,3.2981,8.8776,-5.328,0.93989,1.9227,
4.6189,-8.1313,-10.2257,-11.0148,6.7391,-3.1988,30.6812,-3.3676,21.3013,1.413,10.0322,-1.3929,0.64253,4.9404,
-4.094,-12.2228,-15.6378,-18.4285,3.2014,-2.7658,21.8504,-3.8886,15.9257,-6.1437,10.6354,1.824,-1.0831,-2.8275,
-0.23293,-6.91,-9.6381,-4.0662,1.8042,-4.769,33.796,-4.378,26.2982,-3.6057,8.7922,3.4021,-1.7413,-4.3453,
4.6015,-6.4956,-2.793,-2.8583,2.1779,-5.9294,43.8193,-7.9721,28.5767,-0.49733,8.7466,2.2336,-4.5291,6.0383,
1.192,-13.5777,-6.723,-13.0507,6.1446,-3.4042,31.3082,-7.7348,21.3184,-4.5648,11.3551,-1.9978,-7.3908,11.2196,
-5.1461,-14.691,-14.5144,-13.2318,7.7043,-3.6819,17.3784,-6.3066,15.7012,-6.7013,12.12,-3.8063,-10.3216,6.6903,
-4.3553,-13.8096,-13.6436,-13.4021,3.3856,-5.8712,19.7103,-9.3025,18.6152,-3.4066,10.9108,0.27856,-11.1485,5.8071,
1.9315,-8.8838,-10.1738,-11.8749,-0.91503,-1.9039,24.0709,-6.0932,31.2367,3.3049,18.2098,4.3593,-5.9001,10.52,
6.8773,-2.8072,-11.2506,-8.0292,0.34494,-0.58435,26.2418,-5.0044,36.3522,2.8659,25.0711,2.8927,-0.96662,13.022,
6.4645,-3.1208,-13.9499,-10.9218,5.1448,-5.8518,26.1137,-12.4168,27.9046,-2.6086,21.6386,-2.1015,-3.3189,6.9382,
0.051222,-3.6566,-18.1742,-13.882,5.5592,-8.1519,13.701,-10.949,21.169,-0.76495,19.1353,-2.6984,-7.2172,-1.432,
5.1095,1.1422,-10.0943,-9.4338,-2.7282,-1.1554,19.3863,3.8079,33.1552,5.7888,25.941,3.007,-2.2048,2.7512,
12.2748,-0.6134,-2.0167,-4.77,-7.6259,2.0475,32.3231,3.9413,34.7812,-1.0664,26.5539,0.65731,-0.8673,6.6838,
10.3332,-5.6382,-4.5469,-6.6531,1.2675,-0.24463,30.7456,-6.6596,19.9197,-4.1358,25.6836,-0.10514,-0.57418,4.5954,
2.9645,-11.0845,-9.5767,-13.0026,-2.183,-6.4967,14.8009,-8.188,19.6886,0.45092,23.6607,0.3831,-1.5038,1.9094,
4.9558,-10.1782,-5.8689,-10.5354,-6.6313,-3.4556,17.1666,-2.1533,30.3177,5.0034,21.5179,1.0832,-3.5828,9.2668,
7.5508,-8.6035,-5.0347,-9.4213,-3.8232,3.9825,21.9213,-2.024,25.6062,0.36475,19.7448,0.054268,-6.7421,10.6391,
3.9644,-9.7744,-14.1325,-13.4352,-10.5836,7.3591,9.2775,-7.4461,11.7779,-9.5392,16.3908,-3.5645,-11.8813,-0.36343,
4.9316,-8.947,-19.7922,-17.6907,-19.3486,12.4609,4.1415,-13.0248,4.0813,-14.0285,12.2741,-6.9658,-11.8914,-2.9932,
11.3846,-1.1793,-17.6406,-19.0397,-19.1518,22.3183,12.5699,-7.9053,2.8724,-11.2584,11.5377,-8.4763,-11.1779,1.043,
14.5581,7.0863,-12.2435,-14.5227,-14.1461,28.6921,12.2978,-1.6462,4.6283,-11.5471,12.2916,-7.0035,-15.8097,-1.4296,
12.9613,8.8304,-10.304,-11.0001,-7.2719,31.5504,9.3908,-5.6447,6.5199,-12.0594,13.2412,-5.3781,-20.8868,-3.5133,
17.2452,12.398,-9.9268,-11.5451,-9.0049,36.6467,15.3348,-4.1009,2.9951,-12.0589,13.6519,-4.3324,-21.8029,1.2771,
29.708,19.367,-1.6183,-10.8525,-12.803,36.8584,23.0917,7.2323,8.6003,-12.7815,21.0276,-3.5904,-12.2999,2.6467,
25.5152,13.8663,-1.0392,-9.2371,-2.8757,26.4521,14.4757,2.4599,18.2071,-14.4249,26.9967,-12.5339,-7.2235,-6.6713,
14.1022,8.937,-7.9664,-6.514,3.3224,18.8392,1.7968,-5.6416,15.9096,-14.2825,26.1,-20.6997,-13.2978,-13.2607,
20.0049,13.7034,-5.5603,-3.7128,-2.6615,22.0474,9.8839,3.3737,15.9191,-13.4255,24.534,-15.6014,-12.0177,-3.7881,
28.4456,17.7017,3.9322,-0.11555,-1.0558,29.8836,21.342,8.474,21.7129,-13.1019,20.1697,-5.5065,-2.1379,9.9365,
24.0876,12.5422,3.9374,0.13235,4.5514,27.3676,21.7487,0.011783,18.7229,-12.0749,14.38,-0.59657,-6.1069,7.6535,
18.5447,5.7639,-1.3605,-7.3474,6.4474,17.7714,23.0948,-4.0865,15.9123,-11.5913,13.7581,-0.80174,-13.6943,0.20422,
15.9859,1.0797,-4.6532,-10.2807,-0.20626,9.9565,18.335,-5.7694,15.4394,-15.7165,16.7891,-4.6101,-10.9445,0.19208,
9.4832,-7.4211,-11.3638,-15.6899,-12.9682,0.92313,4.9423,-11.4491,5.1129,-17.9068,14.5766,-3.1284,-10.0468,0.90334,
-1.6908,-17.099,-19.3588,-24.3895,-16.5284,-6.3631,-2.5846,-8.8338,-2.9067,-17.3144,12.7379,-1.9766,-11.3722,-3.9711,
-3.5178,-14.1449,-15.7872,-20.0336,-18.4293,-3.571,9.1396,-0.10902,1.1241,-14.3475,16.7941,-5.7143,-8.7616,-5.1791,
3.9241,-6.5473,-7.1269,-15.4572,-24.0722,-1.9104,17.2683,1.3438,10.2157,-9.1481,20.125,-6.8177,-9.2,-0.047645,
6.0988,-7.1188,-5.7355,-14.048,-12.0228,-5.1703,5.6267,5.1193,15.3876,-5.707,20.8455,-3.0342,-10.5765,0.43692,
-3.667,-17.5378,-10.9348,-17.3024,1.9551,-6.0652,-3.6286,6.0173,7.9567,-10.908,18.3898,-1.647,-8.7367,-4.6506,
-6.3392,-17.4495,-10.7608,-21.5668,-11.1775,-5.7012,4.302,-3.9846,4.5869,-16.0382,15.8403,-1.5483,-6.7663,-6.7818,
4.1642,-12.546,-6.7408,-20.2729,-12.9171,-5.3592,10.7924,-5.6738,10.0964,-15.0758,15.8539,-1.4553,-6.8424,-0.59046,
7.5298,-14.9267,-6.5773,-20.7435,1.9579,-0.94011,8.9398,-0.27169,6.3574,-12.4841,18.0361,-5.4655,-4.2625,3.0606,
7.0779,-12.585,-7.1469,-19.499,2.9249,1.5263,7.4392,0.7086,1.6373,-6.9147,18.4001,-6.1016,1.7777,-0.49736,
4.7251,-11.3476,-9.1281,-21.7034,-11.3506,-4.3497,2.6547,-3.6721,8.288,-3.1252,14.8861,-1.3971,-0.25701,-3.3599,
3.2363,-14.2824,-10.7498,-21.1243,-19.4668,-8.1861,11.4132,-5.6212,14.7804,-1.2507,15.198,3.2663,-2.4107,-0.02507,
7.8627,-11.0152,-10.5869,-16.0004,-17.3348,-7.2129,20.3693,-1.9096,10.519,0.75243,21.0344,2.1061,0.62607,-4.362,
10.0424,-6.7388,-10.6747,-16.2455,-3.0382,-4.1289,6.855,-1.0718,5.3085,-1.4618,25.3163,-0.67149,4.686,-16.3925,
7.7525,-3.6832,-7.8651,-10.6914,10.8825,-2.676,6.2026,-8.4794,7.159,-3.0614,27.8946,1.5381,10.4305,-18.0603,
8.4925,-3.7033,-2.3317,-6.4344,2.2757,-4.6847,19.9304,-6.7654,12.7554,-1.6725,30.3181,0.24062,16.3122,-15.2896,
19.7932,-1.3116,9.6187,-0.022648,2.8622,0.65794,31.1476,7.7405,23.8,4.4535,38.8633,0.46726,23.2876,-15.0953,
21.4979,-2.6792,9.5235,1.4247,16.7904,1.5826,27.3503,8.3608,28.6388,3.7043,40.3881,0.92116,23.3364,-19.9741,
16.5927,-2.7595,2.9264,-3.2401,17.8318,-2.1277,22.094,-6.2409,28.6078,1.7947,35.7953,2.5532,20.2491,-24.3192,
18.7306,-0.90661,4.4382,-0.39453,5.4336,-2.7233,21.4914,-3.8178,30.0245,2.4103,36.7812,5.0512,22.1675,-23.1011,
21.7041,-5.4317,5.8591,1.3164,8.7232,-4.729,24.2992,-0.45544,28.9464,4.4348,38.6717,8.3636,24.4529,-22.9201,
17.7506,-11.6136,2.374,-8.6447,11.8149,-5.6505,24.0465,-11.2743,21.6659,5.3739,35.1464,10.513,22.7444,-28.0527,
12.347,-10.4347,-2.5889,-11.5004,-2.994,-3.3833,24.5321,-13.4901,16.9917,3.1233,36.4118,12.2926,21.8619,-27.8156,
7.5089,-10.0496,-7.0129,-5.7487,-16.9141,-5.3494,22.3373,-6.173,25.8541,5.1051,42.1809,12.7601,28.022,-21.085,
1.7558,-13.3031,-10.9305,-2.0295,-3.8481,-8.4028,9.4275,-5.3205,31.5338,8.1731,39.1682,8.1382,27.7868,-17.8918,
1.6503,-12.9872,-8.8288,0.02038,6.5058,-6.4525,8.8618,-3.0732,26.2672,6.2366,33.9255,7.1676,23.7094,-13.4442,
5.4078,-8.3514,-5.8886,-0.46289,1.2949,-4.1373,19.8996,0.0035629,27.5836,3.9343,38.6387,6.2555,27.5893,-9.263,
9.9038,-4.9578,-2.643,1.9752,1.2174,-1.4787,17.7415,-0.47858,35.0874,1.2879,44.0334,1.0599,35.093,-11.5995,
12.9249,-10.2041,3.0591,1.6156,7.1698,1.7434,20.2921,0.27292,34.1871,-1.9228,38.258,-0.691,34.1924,-11.6267,
11.9084,-14.6533,3.1165,-0.16852,11.3191,2.362,25.5823,1.4618,29.9669,-2.5305,32.3469,2.9659,28.5256,-4.9034,
7.8196,-10.8819,0.037341,0.32364,8.7119,1.256,19.7089,-1.0361,33.9534,-1.8967,33.7804,3.7519,27.2961,-3.163,
10.0016,-8.5417,2.6863,-0.90073,-3.1391,0.45765,24.0701,-2.1791,34.5674,-0.57767,32.959,4.25,27.8277,-3.6963,
13.9809,-10.6806,5.6583,-3.0162,-2.7099,0.18911,25.7593,2.0491,25.5038,-0.30193,27.8479,4.7178,24.9526,-3.7158,
16.9987,-9.5576,3.8727,-4.7632,11.5527,0.17776,14.0906,-0.0020509,23.0095,-1.2479,23.7671,2.9887,23.9376,-1.5644,
19.835,-11.8766,4.6044,-7.852,15.0775,-3.2072,11.3168,-12.5353,21.1469,-2.6194,19.4484,2.3273,22.5012,1.9038,
19.127,-10.6819,7.7027,-6.4166,8.8705,0.35953,20.7611,-16.1216,16.5035,-0.53371,17.3176,4.5979,22.5975,5.6461,
8.3384,-6.1846,2.42,-5.0675,12.6768,5.1584,16.6231,-17.5644,15.0316,-1.9479,15.3144,3.358,20.7597,4.8251,
5.6687,-5.0904,2.0336,-3.0763,9.7468,2.6798,6.7074,-19.6441,17.2629,-3.0364,16.5649,2.4334,19.273,5.7407,
14.7288,-5.5081,8.4193,-6.0249,0.72613,1.7959,7.5105,-15.3322,18.3961,-1.6489,17.258,3.9746,14.5012,7.5656,
17.9423,-2.0443,8.6374,-8.3149,-1.4867,2.8933,15.0133,-14.1712,14.159,-5.1655,11.6429,3.495,-0.46891,3.9783,
16.8659,4.8272,12.4576,-0.58526,7.2795,5.1299,20.3793,-16.6952,15.238,-7.2658,14.8011,3.2854,-14.5408,8.56,
14.4078,4.5374,17.4948,2.3423,9.7351,5.7863,10.9617,-10.391,23.0007,-9.2401,20.1794,-4.1424,-27.7683,12.3851,
11.1331,1.855,12.5886,-1.6545,2.8844,3.993,3.0733,-2.0546,18.2463,-14.4702,17.5225,-11.6067,-27.9097,3.4471,
8.5368,-0.18442,6.0486,-6.858,-1.6274,-0.10306,6.2633,-9.6442,5.5822,-15.0481,17.9173,-3.1975,-22.3789,1.312,
11.158,1.9957,14.1217,-6.2055,4.014,2.0724,13.8413,-12.199,11.273,-6.1914,22.8679,7.3584,-19.8309,13.5255,
13.622,-1.7392,19.7821,-7.0382,5.4604,2.189,14.2159,-11.708,15.1761,-5.5789,14.9881,0.89132,-26.5951,10.5448,
12.3224,-3.0813,18.5951,-8.0621,-3.0623,2.5397,12.3987,-10.5235,15.2295,-3.798,14.089,3.2481,-24.0354,5.5736,
3.1474,-4.1012,9.0437,-6.8552,-11.3142,-2.1922,0.32662,-6.2766,14.5567,-3.8111,15.8952,5.7045,-20.9058,5.9624,
-1.1391,-8.4347,1.5112,-9.0952,-7.5021,-5.6761,-13.4313,-2.2846,10.5498,-6.7157,8.4335,-1.1455,-23.2669,3.4355,
3.5087,-10.0979,4.0718,-9.7547,-5.3649,-6.0585,-5.1535,1.4678,9.194,-7.5179,9.1325,-1.7997,-20.1837,3.9523,
10.5289,-5.1538,12.0223,-1.9387,-8.4173,-8.1052,9.2557,8.1285,14.9088,-8.0311,14.3694,-1.6919,-13.6702,3.7151,
20.2615,3.1094,21.1831,3.2393,1.0056,-3.5216,15.5696,9.328,21.0039,-5.38,18.5687,-5.6877,-3.45,3.2512,
16.8765,2.682,22.0814,0.39375,14.2017,-2.1051,1.379,1.7786,20.4669,-10.1186,19.1417,-6.5516,1.3367,1.851,
11.2843,1.3159,18.5872,1.5751,11.1804,-4.1481,1.5371,4.805,12.7313,-16.9834,16.7883,-3.9893,1.0154,1.981,
13.7406,5.3342,21.0873,1.2395,3.0376,-2.694,14.2194,9.5783,3.5314,-16.2055,14.5758,-4.9551,2.6416,2.103,
17.0136,8.6297,27.7759,2.3703,5.0246,-1.3272,13.6073,6.3524,10.3091,-11.1357,16.8344,-5.863,5.6164,2.7,
15.2697,8.3529,26.8325,5.8435,8.3386,-5.3451,0.016444,5.7303,22.9474,-3.9598,20.886,-2.3777,7.9308,4.2253,
13.1484,9.5389,19.6789,6.698,-0.59765,-7.6758,2.6668,5.1452,22.7756,2.3033,18.4278,-1.03,5.7677,4.2127,
10.9134,8.9665,17.5342,6.2962,-2.972,-4.3228,16.6068,2.9084,18.9988,4.0934,17.8039,-1.4502,6.3859,3.4779,
7.3663,6.9824,16.4819,8.3285,4.4371,-4.5454,15.4898,7.5544,24.6076,5.2941,21.0742,-0.88127,10.8232,-0.10522,
5.2372,7.7687,6.5753,7.1058,-2.8189,-6.9239,0.46038,6.8603,19.5158,7.6276,17.6407,-0.58731,8.0045,0.14218,
1.0665,3.4461,-1.0502,-1.9975,-7.9523,-6.0266,-4.5084,-2.2283,7.7397,2.8316,12.7256,2.3403,4.1499,4.9542,
0.52055,1.3111,6.7256,-1.3955,4.094,-4.7009,1.0649,-3.0587,13.542,-1.1947,16.3006,6.0563,7.2751,4.657,
0.7304,4.8477,11.8658,1.3394,3.6075,-6.106,-1.6504,-1.1881,15.3807,-0.40003,17.9738,3.5236,5.1515,1.2442,
5.9891,5.0392,11.154,-2.1153,-5.7681,-3.3294,3.7514,-3.527,1.4426,-3.7504,16.4135,-0.062111,5.3245,-0.2766,
14.3066,5.2187,16.7512,-1.5064,-2.0475,-0.71925,3.5259,-2.8335,-6.3572,-13.6485,18.8032,-5.361,12.2358,-2.1882,
17.7867,9.7262,20.0846,1.9585,6.7523,-2.6044,-3.9162,0.22895,4.6294,-23.9167,21.5312,-8.8956,11.9837,-3.503,
22.2632,13.2401,22.0129,3.5281,3.2138,-3.1712,8.611,-0.98974,9.4134,-25.1329,15.6597,-10.049,11.5058,-2.5699,
23.5785,11.7226,24.3075,2.1114,2.78,-1.7758,11.7097,-3.0997,0.89488,-18.5635,8.2127,-9.2051,15.8769,-3.6207,
15.4151,5.2344,17.0643,-5.2461,9.8438,-2.1512,-3.0929,-0.98557,-2.0516,-16.4856,9.6479,-7.6889,14.4421,-2.9215,
6.5364,-1.1051,5.6764,-8.0647,2.7456,-4.6733,-15.079,-5.0239,-5.0616,-11.8811,14.1306,-0.71977,9.9603,-0.57698,
9.2775,0.64833,9.9153,-4.4475,-3.4448,-2.2239,-8.1488,-7.8558,-1.1426,2.9317,18.8262,11.6158,17.7985,7.4115,
6.7926,-4.2112,10.2846,-9.9653,-0.34594,-6.4289,-12.4803,-5.4562,1.3364,16.3739,14.3225,5.6161,19.141,3.5925,
4.4569,-6.3687,5.329,-8.4032,6.4236,-8.4534,-8.3571,-2.2366,1.7381,4.3041,12.9811,-0.98749,14.618,-3.3719,
6.5997,-3.0943,5.0093,-7.4171,4.5919,-8.9103,-3.5171,-5.4767,-1.2585,-0.29243,16.0584,2.4462,16.6332,-0.27727,
7.1678,-0.49831,9.5292,-7.454,4.3164,-10.786,-12.9471,-6.1122,-4.0751,1.1711,13.1667,5.1917,20.9379,6.0061,
6.0147,-1.6736,9.1986,-6.2837,-0.039805,-9.8978,-14.3395,-5.0224,-4.5536,-7.8168,3.9409,-2.1095,18.9586,1.0663,
15.0538,4.4524,18.5286,3.0114,0.68571,-5.2063,0.62086,-3.9979,5.1194,-6.1428,6.3558,-7.5266,20.9543,2.2074,
18.9712,8.5239,27.5401,5.7229,10.2854,-9.7146,6.0068,-3.7582,6.7406,-2.882,7.4208,-9.9672,19.6972,2.557,
12.5304,4.156,25.8876,-3.2973,7.7402,-12.506,-8.4536,-3.5326,2.4798,-11.868,2.155,-9.8512,18.5152,-1.9348,
9.6094,4.6297,21.6832,-2.8585,-6.8242,-8.1402,-17.2258,-5.0078,4.5,-17.6637,1.7845,-9.9832,19.0915,-1.5775,
16.5045,12.3058,25.4436,7.1951,-8.7045,-6.9288,-7.7566,-5.4304,9.2916,-4.7936,8.6672,-8.6612,18.6691,2.6143,
17.4423,10.6032,27.2913,6.7633,5.3152,-9.4055,-2.4706,-5.5866,8.252,2.7247,10.5576,-4.285,17.549,4.3858,
10.1293,1.2902,17.941,-3.7654,7.4065,-9.3231,-10.9993,-3.8054,2.9364,-0.33103,8.9601,-0.65372,14.5679,5.5687,
6.8701,-3.8488,8.4286,-10.0473,-2.92,-9.487,-17.3293,-7.6745,-2.7835,0.41185,6.7351,0.59068,12.4886,6.4395,
8.8681,-2.1717,10.3331,-6.0701,-2.2627,-11.328,-10.5049,-13.4807,-5.9908,1.8333,0.064155,0.073192,12.2214,3.161,
10.7463,0.85075,19.8364,-0.88534,7.0319,-12.0944,-2.6436,-9.7794,3.0458,1.7234,0.06042,-3.3055,14.8624,3.4534,
6.7272,-6.431,18.1641,-4.6887,7.0921,-13.2969,-14.0543,-5.8183,6.2374,-1.7543,6.8056,-6.4815,16.3809,3.7282,
5.6006,-10.6244,12.4948,-7.5407,2.5692,-8.8836,-19.2366,-8.1206,-3.5368,-6.7105,11.4589,-2.9594,20.9417,2.2994,
13.7003,-1.5511,18.7347,-7.8113,2.656,-2.807,-3.9824,-7.8743,-5.0121,-6.0669,10.5302,-2.0587,23.3006,3.3665,
15.5297,3.6033,21.2262,-9.5119,5.1479,-5.7719,-5.3103,-9.5711,-4.9524,-8.3544,-3.84,-9.4071,13.9487,-0.93292,
11.4645,1.2181,16.8192,-7.736,10.3827,-9.0409,-19.0917,-11.6481,-11.6446,-21.1094,-11.0813,-10.5298,9.4965,-4.4923,
11.2586,0.66283,16.7742,-6.3078,6.3853,-8.9806,-15.1745,-11.9135,-9.9823,-25.6276,-1.2577,-9.898,14.711,-4.7049,
15.1627,6.1668,14.5625,-4.242,-5.3259,-9.1648,-10.6485,-15.7779,-0.94709,-10.8332,9.6642,-12.4373,19.3721,-5.6275,
14.2528,8.689,11.2785,0.35075,-5.0065,-11.9895,-15.3121,-13.3853,3.9301,1.3858,22.0994,-4.9425,24.9583,-2.8796,
6.408,1.178,7.4686,-2.3214,0.83754,-19.2239,-14.1526,-7.5205,2.0073,-1.3487,29.6917,-1.0305,23.702,-4.3941,
7.7108,1.3483,9.6718,-4.8334,6.3309,-16.8651,-9.2057,-5.8642,3.0917,3.7939,23.3305,0.2364,19.6286,0.44907,
4.1146,1.5083,4.9939,-7.1948,-4.8952,-7.8997,-14.6793,-10.574,-3.6013,7.1815,7.8307,2.8735,12.4251,6.4477,
4.3499,5.7564,1.802,-6.7631,-7.4938,1.7333,-16.6906,-7.0471,-13.5086,1.4482,-5.7749,2.7011,12.6439,7.5071,
15.6582,10.7135,10.3708,-8.7675,7.0558,5.486,-10.3864,-3.7318,-16.0719,2.3255,-3.9824,-1.7994,14.7777,7.0568,
12.7905,4.7681,15.5332,-11.1338,9.4044,-2.5561,-3.9787,-9.2927,-10.2874,3.1501,-5.1893,-6.5119,10.5166,1.8129,
3.105,4.723,12.914,-4.9221,-3.4521,-4.5719,-6.8737,-9.4583,-4.1267,-2.5828,1.1474,-7.3265,19.2856,-0.94745,
5.5702,10.9474,9.9701,-5.832,10.855,0.76395,-18.2713,-9.6138,-7.4944,-8.9354,4.2121,-7.6099,28.4927,-1.6136,
9.0922,7.3982,11.2999,-9.3386,10.3242,-1.2102,-21.0317,-12.8935,-15.7218,-17.0763,-1.3436,-11.4917,17.624,-7.3015,
6.1364,3.5799,13.5144,-4.9217,-4.3953,-5.476,-10.6107,-18.8684,-16.2246,-21.8362,-2.7087,-13.2125,12.7102,-7.8274,
4.5631,8.9089,8.1239,-1.4931,1.0506,-5.8705,-6.8404,-30.5107,-13.0818,-17.8748,-5.1976,-7.3582,18.4552,-0.85015,
2.6021,11.5076,0.64678,-2.6085,8.4591,-3.3491,-13.4201,-33.7417,-12.5377,-6.9201,-3.6807,2.9653,14.2147,5.2266,
2.4459,6.9607,0.12581,-4.8624,2.6492,2.6364,-14.5429,-22.0762,-8.8931,4.5821,7.1452,7.1259,11.4334,8.7694,
6.8787,6.3019,2.2874,-1.4374,5.1415,4.6474,-13.9112,-12.7977,-1.3701,7.4406,9.85,3.5651,22.5577,9.9305,
5.502,5.4417,3.5966,-0.8691,6.2792,0.5123,-14.0408,-16.8504,-2.7341,8.9223,5.4023,2.8691,25.5427,7.8885,
4.6898,4.1513,9.1652,-2.745,-0.84634,1.4455,-3.0751,-18.2496,-3.534,15.1357,11.8269,3.661,20.6358,5.4869,
5.6134,2.2148,9.8205,-3.7855,-0.55471,3.5281,4.5811,-13.0572,0.29335,14.4684,12.8044,1.7542,20.1206,-0.86798,
6.2408,-2.2563,5.8569,-6.4506,6.7095,-0.057938,-2.4426,-14.684,-0.688,11.1903,6.2517,5.9874,23.734,-5.6363,
8.0355,-2.844,6.2286,-3.4124,5.1019,-8.0084,-14.5885,-21.7567,-5.2265,6.9035,6.5995,5.3872,21.1049,-8.4316,
13.3381,-1.2272,11.6394,-1.2794,6.7239,-9.9382,-6.0003,-14.6668,-0.092514,-2.1877,7.6499,-5.0593,18.8744,-19.495,
18.3224,-0.67166,11.4232,-6.5053,18.8537,-2.111,1.5908,-2.6996,3.2877,-6.8769,5.2625,-8.13,21.5983,-29.4123,
20.3565,8.7689,8.0865,-3.4636,28.5687,8.3797,-5.4943,0.59586,-2.9353,-0.9207,9.5267,-0.17037,27.2923,-28.8526,
16.0016,11.8579,3.9859,0.35962,16.4905,5.7078,-3.4777,3.6934,-8.3026,-1.5886,11.606,-0.40111,26.8598,-31.219,
13.1133,7.2901,2.7826,1.3021,9.2346,-0.41927,7.3361,9.2563,-5.3945,-5.3497,7.5354,-6.1616,23.32,-32.7201,
14.2547,7.3346,2.6157,1.224,22.6598,2.9801,2.0754,6.2906,-2.1786,6.0583,9.9756,-1.4536,25.2951,-24.4904,
8.579,4.4844,-1.8798,-2.2239,20.3361,2.3194,-5.7621,-0.35357,-2.5296,14.3719,8.4129,5.8644,25.7056,-24.9491,
6.8593,0.11809,-1.0438,-0.88527,5.0159,-4.8095,8.3225,-1.5373,0.27342,11.8225,2.8466,5.2715,20.066,-31.888,
12.2322,4.9314,6.2496,0.13183,-1.1901,-4.0389,11.6792,-3.3734,1.221,10.1489,8.4605,1.5809,21.7542,-32.3852,
10.0521,4.1534,6.8388,-3.2504,12.3788,-3.7967,-3.1216,-8.9554,-6.083,4.2375,9.3988,-1.8883,20.931,-33.3342,
9.4489,-3.8087,6.4284,-3.0553,9.2258,-7.9073,-4.742,-8.9002,-5.236,-1.8015,4.0147,-3.7033,15.3367,-33.7444,
13.4616,-3.821,6.2837,-3.113,1.6825,-5.7456,2.5323,-8.6072,-1.7884,-1.9342,4.979,-9.5066,17.0679,-35.3351,
13.618,6.0492,3.4964,-0.51591,10.7404,4.7221,-6.2967,-5.1985,-8.912,-2.7825,10.9468,-11.3465,27.613,-34.1793,
10.1496,7.3735,2.0815,0.72011,17.0858,6.126,-9.052,-3.6813,-11.9927,-9.123,9.5671,-4.6402,29.0895,-24.1746,
9.5406,5.0027,2.4386,0.19497,8.3479,0.456,2.0962,-2.9785,-2.5962,-7.6116,9.9571,-0.50539,27.8263,-14.5292,
8.004,7.1128,-2.5281,1.6294,7.8469,5.249,2.9347,5.395,-1.9582,-1.3704,17.5543,3.8634,30.4951,-10.2831,
1.9801,2.1067,-10.3304,-1.6018,19.1864,7.5854,-3.7494,8.6868,-8.3486,-5.3855,14.3319,6.7651,24.5679,-7.0148,
-0.066899,-2.3582,-11.6388,-3.9159,10.8044,4.7199,-1.1138,6.2374,-7.8477,-4.5802,5.7592,8.7693,14.8991,-2.2556,
1.8654,3.0858,-8.048,-1.2707,-3.9439,14.0778,7.1476,14.0579,-3.0382,9.7946,7.8237,18.3661,19.7896,7.5209,
-8.6106,-2.1608,-10.2165,-2.8816,-3.3457,13.4743,-0.27066,8.6349,-5.5074,16.5581,9.0415,22.808,23.6639,10.2029,
-19.4222,-12.3953,-15.1471,-7.2883,3.8447,1.3374,-14.3544,-3.6933,-9.7563,7.6107,1.0272,15.4138,15.2542,2.601,
-12.2312,-6.59,-10.6228,-7.092,1.445,6.3188,-9.5164,4.9641,-7.0016,8.8414,-0.23918,10.8736,14.58,5.0962,
-1.6152,3.2053,-2.5137,-0.64086,-4.6674,13.4116,5.1546,15.9946,-6.8226,7.5876,5.8006,10.4621,19.2487,9.3698,
0.65083,-1.0846,-1.64,0.12072,1.1561,1.2784,5.2066,7.0809,-8.1007,-6.9676,-2.5014,0.9165,9.6579,2.2999,
7.6014,4.0422,1.5919,3.2467,15.1867,3.3711,7.5456,7.8611,-3.0352,-9.3214,-11.7511,-2.2717,5.4632,2.8851,
8.1095,10.5484,0.53241,1.1238,22.1091,13.2919,6.611,14.1383,-11.0476,-13.5825,-12.0102,-2.1356,12.8481,2.7121,
5.2128,11.3615,-0.94579,0.092321,14.5158,12.9765,-1.4984,13.29,-13.7592,-16.6239,-2.6125,0.88487,22.6823,-0.34294,
0.32045,7.5467,-5.9506,1.7739,3.2809,7.6185,-3.0956,9.3594,-8.3543,-13.4572,-5.1072,-0.85534,16.7422,1.8469,
0.30122,6.6117,-4.6295,1.6675,2.6019,10.5356,9.6231,11.208,-6.4068,-15.5421,-9.1391,-5.6245,11.3991,12.3412,
