"AF3","AF4","F3","F4","F7","F8","FC5","FC6","O1","O2","P7","P8","T7","T8",
353.7268,270.8144,-169.5948,-54.3782,448.4851,433.4096,-70.5303,25.3046,-72.6833,-25.3046,-65.1455,-584.1609,104.9875,104.9875,
368.7268,285.8144,-180.3626,-50.0705,452.7918,439.8703,-68.3767,27.4582,-73.7604,-27.4582,-50.1455,-587.3916,107.141,112.5247,
378.4937,289.119,-184.6698,-50.0705,459.253,440.9479,-72.6838,18.8439,-69.4532,-18.8439,-53.3011,-590.6217,122.141,110.3717,
390.3381,290.196,-179.2866,-58.6853,474.253,450.6382,-69.4537,12.3832,-73.7609,-12.3832,-58.6853,-599.2365,137.141,116.8324,
388.1845,275.196,-164.2866,-60.8389,466.7908,437.7173,-55.4552,13.4602,-62.993,-13.4602,-47.9174,-588.4681,152.141,124.3697,
391.4146,276.198,-169.5947,-47.918,468.9444,447.4076,-59.7619,15.6138,-53.3016,-15.6138,-54.3782,-578.7773,150.2131,124.3691,
380.6462,277.2746,-184.5947,-62.918,474.3281,461.4066,-74.7619,17.7669,-61.916,-17.7669,-61.916,-593.7773,139.4447,127.5998,
365.6462,280.5052,-198.6683,-77.918,462.4831,462.4831,-81.2976,17.7669,-65.1466,-17.7669,-57.6088,-607.8508,135.1375,125.4467,
375.8008,291.8108,-189.5157,-64.6073,463.0214,465.1755,-71.0685,13.998,-55.993,-13.998,-49.5328,-597.6212,150.1375,123.8309,
390.8008,306.8108,-204.5157,-72.1456,478.0214,480.1755,-81.8364,7.5373,-63.5302,-7.5373,-64.5328,-598.6977,165.1375,129.2151,
405.8008,321.8108,-219.5157,-87.1456,493.0214,495.1755,-96.8364,7.5373,-78.5302,-7.5373,-79.5328,-613.6977,180.1375,144.2151,
420.8008,336.8108,-234.5157,-102.1456,508.0214,510.1755,-103.9109,6.9995,-93.5302,-6.9995,-94.5328,-628.6977,195.1375,159.2151,
435.8008,351.8108,-249.5157,-114.6783,523.0214,525.1755,-88.9109,-0.53827,-92.066,0.53827,-101.7568,-643.6977,210.1375,174.2151,
450.8008,366.8108,-264.5157,-129.2151,538.0214,540.1755,-97.9885,1.077,-100.1415,-1.077,-110.9099,-658.6977,217.5122,189.2151,
465.8008,381.8108,-279.5157,-125.4472,553.0214,555.1755,-98.5267,6.999,-102.8339,-6.999,-98.5267,-673.6977,220.2046,204.2151,
480.8008,396.8108,-286.4271,-115.2166,568.0214,570.1755,-100.141,8.6143,-113.0635,-8.6143,-92.6043,-679.4566,220.7433,193.8239,
495.8008,411.8108,-283.7353,-125.4472,583.0214,585.1755,-97.4502,10.2296,-117.9094,-10.2296,-100.6808,-664.4566,206.2055,183.5932,
495.8633,397.8753,-274.0445,-116.8329,598.0214,600.1755,-90.989,18.8439,-102.9094,-18.8439,-99.6043,-649.4566,205.129,188.9769,
481.8653,392.4917,-267.5832,-107.141,598.1594,612.1574,-100.6798,15.6133,-100.6798,-15.6133,-103.9104,-640.1544,197.5923,182.5167,
476.4816,384.9539,-256.8159,-106.0645,602.4666,597.1574,-90.989,0.6133,-100.6808,-0.6133,-88.9104,-633.6942,182.5923,179.2861,
489.9414,395.184,-271.8159,-96.9109,617.4666,612.1574,-85.066,2.1536,-102.2956,-2.1536,-81.8364,-636.3855,197.054,189.5162,
474.9414,380.6467,-278.3516,-100.6808,602.4666,597.1574,-83.4522,17.1536,-96.3737,-17.1536,-94.2196,-643.3851,212.054,181.4402,
459.9414,367.187,-269.199,-105.5262,587.4666,582.1574,-87.2201,16.1516,-101.2191,-16.1516,-108.7558,-642.8468,212.1285,170.1335,
474.9414,382.187,-282.1195,-101.2181,602.4666,597.1574,-89.3742,7.5373,-107.6793,-7.5373,-94.7579,-655.7672,197.1285,174.4407,
473.7898,380.109,-268.122,-99.0655,617.4666,605.1584,-76.4522,7.5378,-92.6793,-7.5378,-79.7579,-653.6147,188.4392,179.8249,
458.7898,365.109,-266.5062,-104.9875,602.4666,590.1584,-81.2976,10.2291,-88.8354,-10.2291,-81.2976,-638.6147,194.3611,178.2091,
473.251,353.7273,-278.3516,-115.7553,600.3125,575.1584,-80.2216,9.1531,-93.1431,-9.1531,-88.8359,-632.6167,206.2055,171.7483,
465.176,352.1125,-270.2746,-119.5242,590.0834,571.7783,-75.3752,2.1536,-90.4507,-2.1536,-73.8359,-627.7712,215.3591,175.5182,
450.176,337.1125,-272.9674,-118.9855,575.0834,556.7783,-85.6048,0.53827,-89.9119,-0.53827,-78.068,-619.6957,210.5132,172.8254,
436.6407,322.1125,-276.1975,-120.0625,560.0834,541.7783,-85.6053,14.5368,-92.0655,-14.5368,-84.5277,-619.6952,209.4372,157.8254,
451.6407,337.1125,-284.2736,-111.9865,575.0834,556.7783,-82.9129,16.1516,-103.3722,-16.1516,-87.2201,-617.0029,207.8214,148.5978,
450.6392,347.2666,-280.5042,-114.6783,560.0834,551.8578,-79.1435,1.1516,-97.4497,-1.1516,-85.6048,-610.0039,194.3622,163.5978,
435.6392,332.2666,-265.5042,-118.4472,545.0834,536.8578,-80.7594,-3.2306,-82.4497,3.2306,-87.2206,-601.9288,193.8229,158.2881,
420.6392,317.2666,-260.5842,-103.4472,530.0834,521.8578,-81.8359,11.7694,-87.2206,-11.7694,-91.5277,-597.6207,208.8229,143.2881,
428.0254,317.116,-265.4302,-95.2961,515.0834,506.8578,-71.6073,10.2296,-94.2196,-10.2296,-80.2216,-599.236,197.5923,140.5217,
414.0274,306.3476,-265.4302,-103.9104,500.0834,491.8578,-74.8369,5.9225,-92.0655,-5.9225,-81.2981,-601.3901,182.5923,136.2146,
410.259,291.3476,-253.0465,-96.9114,487.7878,476.8578,-74.2991,8.6143,-87.2206,-8.6143,-75.3757,-592.237,172.2871,139.983,
397.8753,276.3476,-238.0465,-89.9124,477.5582,461.8578,-62.993,5.9225,-79.1451,-5.9225,-60.3757,-577.237,187.2871,152.3667,
382.8753,264.8914,-235.8179,-96.9114,462.5582,446.8578,-67.8379,0,-82.9134,0,-69.992,-565.3175,200.2841,143.2136,
367.8753,265.9679,-220.8179,-99.0655,447.5582,431.8578,-65.6848,-4.3072,-77.5298,4.3072,-71.0685,-568.5482,185.2841,136.7523,
363.4176,272.9674,-228.8194,-89.913,450.6382,445.2545,-69.4537,0.53827,-73.7609,-0.53827,-69.4537,-569.0864,178.2091,141.5988,
378.4176,279.4287,-243.8194,-100.6803,457.0994,448.4851,-83.4517,9.1526,-88.7609,-9.1526,-84.4537,-584.0864,173.9029,143.7529,
374.186,275.1215,-243.8939,-106.064,443.1015,438.7943,-82.3742,8.076,-97.4497,-8.076,-76.9905,-578.7773,158.9029,142.6753,
380.109,283.1965,-246.5862,-93.6808,458.1015,444.7163,-80.7594,5.3837,-92.6043,-5.3837,-63.5307,-563.7773,150.7513,136.7534,
376.8778,274.5827,-254.1235,-102.2956,447.9464,429.7163,-78.6058,7.5373,-94.7579,-7.5373,-71.068,-567.4711,145.3671,121.7534,
361.8778,260.046,-246.047,-111.4477,432.9464,414.7163,-78.067,4.8454,-94.2191,-4.8454,-76.9905,-561.5487,149.1365,114.6783,
346.8778,254.123,-242.2791,-107.6798,417.9464,399.7163,-72.1451,4.3072,-81.8369,-4.3072,-73.2216,-550.242,164.1365,117.3707,
331.8778,240.125,-241.2015,-104.4492,402.9464,384.7163,-67.8379,9.6908,-82.9134,-9.6908,-79.6828,-542.7042,169.0565,102.3707,
346.8778,253.0465,-256.2015,-106.6033,400.5672,384.4151,-82.8379,9.6908,-97.9134,-9.6908,-94.6828,-545.9348,154.0565,99.0645,
354.265,254.123,-248.7393,-105.5257,402.7213,396.26,-82.9134,7.5378,-86.1441,-7.5378,-79.6828,-551.3196,149.6738,114.0645,
342.9589,246.0475,-233.7393,-90.5257,387.7213,381.26,-68.3767,13.4602,-81.2981,-13.4602,-66.2226,-558.3175,152.3667,129.0645,
348.8814,254.124,-248.7393,-83.99,385.4927,366.26,-81.8359,17.2286,-96.2981,-17.2286,-81.2226,-569.6237,137.3667,114.0645,
333.8814,239.124,-249.8164,-98.99,370.4927,351.26,-79.6823,19.3822,-111.2981,-19.3822,-71.068,-555.6262,135.6763,99.0645,
318.8814,224.124,-234.8164,-92.6043,355.4927,353.1885,-69.992,21.5358,-96.2981,-21.5358,-60.3012,-540.6262,144.2901,86.143,
303.8814,212.129,-219.8164,-77.6043,340.4927,344.5742,-60.3001,17.2286,-81.2981,-17.2286,-66.7614,-525.6262,129.2901,101.143,
288.8814,200.2841,-204.8164,-69.992,325.4927,329.5742,-58.1471,16.1521,-89.3737,-16.1521,-65.6848,-519.0154,128.138,94.7584,
293.9649,215.2841,-219.8164,-82.9134,340.4927,325.1925,-67.8379,21.5358,-101.2186,-21.5358,-66.7614,-533.0134,132.4462,81.8369,
296.6568,216.9739,-210.5137,-81.2981,339.7283,340.1925,-62.993,23.1511,-100.6808,-23.1511,-59.7624,-531.3981,117.4462,88.8359,
302.041,201.9739,-200.8224,-66.2981,324.7283,325.1925,-60.8394,20.9975,-87.7589,-20.9975,-67.2996,-518.4771,102.8334,89.9119,
302.5797,200.2836,-213.205,-73.2221,314.4247,310.1925,-66.7609,18.3057,-83.9895,-18.3057,-79.6823,-513.6302,117.8334,85.067,
308.5012,215.2836,-224.5122,-87.7589,317.1155,325.1925,-70.5303,17.7669,-95.2966,-17.7669,-75.9139,-521.7067,117.9089,87.7589,
316.5772,226.127,-225.0505,-83.99,309.0394,340.1925,-66.7614,21.5358,-91.5277,-21.5358,-71.0685,-525.4756,116.2931,92.6043,
301.5772,211.127,-210.0505,-77.5292,294.0394,325.1925,-54.917,18.3057,-76.5277,-18.3057,-65.6843,-510.4756,123.8314,80.7599,
286.5772,196.127,-212.6673,-74.8374,305.2716,310.1925,-69.4537,13.4597,-80.2211,-13.4597,-67.2996,-495.4756,111.4477,76.9905,
275.6593,184.1315,-227.6673,-89.8374,293.9644,315.5002,-81.8364,18.3057,-95.2211,-18.3057,-63.5313,-500.7097,96.4477,82.9129,
260.6593,169.1315,-217.5122,-99.065,278.9644,300.5002,-66.8364,19.3822,-91.5272,-19.3822,-64.6078,-509.3241,90.4507,78.6058,
259.5067,165.8259,-219.6668,-88.2971,287.5037,285.5002,-65.6848,12.9215,-90.4512,-12.9215,-79.6078,-505.0174,105.4507,75.3757,
244.5067,155.0585,-225.0505,-88.2971,283.1965,286.4271,-77.5298,13.998,-89.3737,-13.998,-78.6063,-493.1725,113.0635,67.8379,
229.5067,150.7513,-229.3566,-93.6808,268.1965,301.4271,-85.0665,17.2286,-90.4502,-17.2286,-79.6828,-484.5572,98.0635,65.6848,
222.3581,163.1345,-224.5122,-88.8354,278.3511,299.8869,-76.9915,9.1526,-87.7589,-9.1526,-86.6823,-482.9424,106.064,80.6848,
219.6668,148.1345,-218.5892,-82.9134,269.1985,284.8869,-65.6838,7.5378,-76.4522,-7.5378,-78.6053,-472.7122,120.6013,95.6848,
206.2061,133.1345,-224.5122,-89.913,254.1985,269.8869,-73.7609,16.6903,-75.9139,-16.6903,-69.4537,-476.4821,108.2171,80.6848,
205.129,129.7544,-213.7433,-96.3727,239.1985,254.8869,-74.8369,15.6133,-73.7604,-15.6133,-60.8389,-480.7888,93.2171,65.6848,
193.8234,118.4477,-206.7448,-95.8344,224.1985,239.8869,-74.2986,17.2291,-74.2986,-17.2291,-60.3006,-472.7127,82.9129,55.9935,
181.9785,106.6028,-201.3611,-95.8344,209.1985,224.8869,-74.2986,19.3822,-74.2986,-19.3822,-59.2241,-464.0984,77.5292,53.8394,
169.0575,95.8349,-194.8994,-94.7573,194.1985,209.8869,-74.2981,21.5358,-74.2981,-21.5358,-59.2236,-456.5602,72.1461,51.6868,
157.7509,84.5282,-188.9774,-94.2191,179.1985,194.8869,-73.7598,24.2281,-73.7598,-24.2281,-57.6088,-447.4076,67.2996,50.071,
146.4442,73.2216,-181.9779,-93.6808,164.1985,179.8869,-73.2216,25.8429,-74.2991,-25.8429,-57.0705,-439.3326,61.3777,48.4562,
134.061,61.9159,-176.056,-93.1425,149.1985,164.8869,-73.7609,28.5353,-74.8374,-28.5353,-55.4547,-430.18,56.5312,44.6863,
131.9079,62.9925,-167.4417,-78.1425,134.1985,149.8869,-60.8384,22.074,-70.5303,-22.074,-58.6853,-416.181,44.6873,29.6863,
126.5237,52.2246,-163.134,-63.1425,119.1985,134.8869,-51.147,12.3837,-66.2226,-10.2296,-50.0705,-401.181,43.6103,14.6863,
128.6768,51.147,-178.134,-61.9165,104.1985,125.4462,-66.147,23.1511,-78.0685,-18.8439,-57.6093,-401.106,28.6103,18.8439,
127.6003,56.5318,-165.2881,-65.1461,89.1985,132.984,-57.6083,38.1511,-72.6838,-18.8439,-56.5318,-397.8753,18.8439,33.8439,
114.1406,51.6863,-150.2881,-53.8394,89.3742,117.984,-42.6083,41.9955,-62.4537,-18.3057,-49.5322,-383.3391,18.3057,37.6883,
122.2166,55.4552,-165.2881,-42.5338,104.3742,126.5237,-54.3777,26.9955,-57.6083,-16.6898,-41.4562,-375.263,22.0745,30.6888,
135.6763,60.3006,-169.057,-47.3792,119.3742,121.6773,-51.6863,23.6893,-54.917,-15.075,-43.072,-370.4176,15.075,26.92,
150.6763,75.3006,-162.0575,-34.996,134.3742,136.6773,-36.6863,38.6893,-52.2246,-2.6918,-44.6868,-359.111,2.6918,41.4562,
165.6763,90.3006,-147.0575,-31.2271,149.3742,151.6773,-31.2271,53.6893,-37.2246,10.7679,-29.6868,-348.8808,-10.7679,56.4562,
150.6763,75.3006,-133.5222,-36.6108,134.3742,150.7519,-35.5343,48.4557,-30.1496,10.7679,-18.3046,-333.8808,-10.7679,71.4562,
155.058,79.6823,-148.5222,-41.9955,142.1365,156.1345,-37.6883,49.5322,-45.1496,-1.077,-33.3046,-348.8808,1.077,59.2231,
153.4437,80.2211,-163.5222,-52.2241,148.059,144.8284,-28.5353,48.9945,-51.1476,-9.1526,-44.6873,-363.8808,9.1526,44.2231,
138.4437,65.2211,-156.135,-58.1471,133.059,134.5993,-40.9185,33.9945,-50.6093,-4.3072,-45.2256,-348.8808,4.3072,40.9185,
123.4437,53.3016,-171.135,-70.5303,118.059,123.2926,-55.9185,18.9945,-65.6093,-10.2291,-50.071,-348.3431,17.7669,42.5333,
124.3697,51.1481,-178.2096,-73.7604,108.2176,108.2926,-61.9154,17.7674,-74.8369,-17.7674,-47.9174,-362.3416,19.9204,40.3797,
139.3697,66.1481,-163.2096,-58.7604,122.7549,123.2926,-46.9154,32.7674,-59.8369,-2.7674,-32.9174,-347.3416,4.9204,55.3797,
143.7518,81.1481,-148.2096,-43.7604,107.7549,131.9069,-31.9154,47.7674,-44.8369,12.2326,-33.919,-332.3416,-10.0796,48.9945,
150.2126,96.1481,-137.2911,-28.7604,122.7549,127.6003,-20.998,62.7674,-37.1501,15.6133,-18.919,-317.3416,-25.0796,52.2246,
147.5212,92.6038,-137.8294,-22.6128,107.7549,119.5242,-27.9965,65.6843,-33.3812,9.6913,-9.6913,-302.3416,-40.0796,55.9935,
140.5217,77.6038,-127.6003,-28.5348,92.7549,120.0625,-22.0745,54.3787,-40.3797,17.7674,-17.7674,-289.119,-55.0796,56.5318,
147.5207,83.99,-134.5993,-25.8429,107.7549,135.0625,-21.5358,47.3787,-51.6858,21.5358,-32.7674,-291.8108,-70.0796,57.0705,
132.984,90.989,-119.5993,-17.7674,116.8319,131.9074,-20.997,62.3787,-37.1491,17.7674,-22.0745,-293.4261,-85.0796,60.8389,
125.4472,85.6053,-113.6013,-10.2296,101.8319,121.1401,-18.8439,73.7604,-39.3031,10.2296,-17.7664,-291.2731,-100.0796,64.0695,
132.4457,86.1436,-117.3712,-10.7679,116.8319,121.6773,-10.7679,58.7604,-43.072,10.7679,-19.3832,-298.2726,-111.9875,62.4537,
127.0615,95.8339,-117.3707,-16.1521,131.8319,118.4472,-12.9215,48.4552,-29.0735,12.9215,-16.1521,-300.4262,-104.4492,53.8389,
142.0615,110.8339,-121.6773,-17.2291,145.3671,132.4457,-22.6128,53.8394,-31.2271,13.9985,-13.9985,-299.3491,-119.4492,58.1466,
157.0615,107.1405,-115.7559,-27.4587,141.5978,117.4457,-12.3832,54.3782,-46.2271,8.076,-8.076,-304.195,-134.061,58.6853,
142.0615,96.3732,-117.9089,-23.1516,139.4447,111.4477,-8.076,56.5312,-54.3782,8.076,-17.7669,-306.3481,-119.061,53.3006,
142.1365,111.3732,-116.2936,-20.4587,131.3692,126.4477,-7.5373,50.6088,-47.3792,7.5373,-27.9965,-302.5797,-104.061,44.1486,
134.061,96.3732,-109.2946,-31.7659,116.3692,111.4477,-4.8454,41.4567,-41.4567,4.8454,-16.6903,-287.5797,-89.061,30.6883,
132.9845,83.4517,-124.2946,-23.1506,118.9855,96.4477,-17.7669,52.2241,-43.6098,13.4597,-13.4597,-276.198,-81.2976,37.1496,
125.4462,92.0655,-129.7533,-18.8439,120.0625,99.6033,-16.6898,64.0695,-42.5338,15.6133,-15.6133,-289.119,-70.5297,43.6103,
128.6773,101.7569,-115.7559,-17.7669,135.0625,87.7589,-12.3832,59.7619,-38.2261,12.3832,-23.1516,-281.5817,-55.5297,37.1496,
132.4457,102.2956,-122.7549,-13.9985,145.3671,89.3742,-20.4587,50.6088,-39.8414,13.9985,-26.92,-266.5817,-40.5297,43.072,
117.4457,87.2956,-125.985,-19.3827,130.3671,86.1441,-12.9215,47.3787,-44.1481,12.9215,-16.1521,-265.9679,-40.9185,45.2256,
102.4457,72.2956,-130.2916,-20.4587,115.3671,75.3762,-9.6913,49.5322,-50.6088,9.6913,-24.7659,-272.4286,-25.9185,38.7649,
87.4457,57.2956,-145.2916,-35.4587,100.3671,60.3762,-24.6913,34.5322,-65.6088,-5.3087,-39.7659,-287.4286,-10.9185,31.7654,
82.9129,42.2956,-159.3662,-47.3792,92.6038,51.6863,-39.6913,19.5322,-71.069,-15.075,-51.6863,-287.5042,4.0815,35.5343,
97.9129,57.2956,-170.6718,-50.0705,107.6038,66.6863,-46.8409,29.6123,-72.6838,-13.4602,-39.3031,-290.1965,13.4602,37.1491,
82.9129,62.4537,-159.3662,-60.3006,104.4487,67.8374,-46.3027,23.6893,-80.7599,-22.6128,-51.6863,-298.2726,28.4602,22.6128,
97.9129,48.9945,-151.2896,-45.3006,89.4487,56.5323,-36.072,22.074,-76.9905,-22.074,-60.8384,-295.5797,43.4602,22.074,
112.9129,42.5333,-146.9825,-41.4557,83.4517,61.916,-33.9189,32.8424,-68.3762,-20.9975,-45.8384,-289.1185,58.4602,20.9975,
127.9129,54.3777,-132.984,-39.3031,98.4517,59.7624,-34.996,43.6103,-69.4532,-18.8439,-30.8384,-274.1185,68.3767,18.8439,
142.9129,69.3777,-147.984,-45.2251,113.4517,68.9149,-41.9955,38.7649,-84.4532,-27.9965,-45.8384,-281.044,66.7609,27.9965,
157.9129,54.3777,-146.4437,-60.2251,98.4517,59.2241,-34.4577,33.3802,-86.1436,-33.3802,-60.8384,-283.197,51.7609,34.4577,
172.9129,44.1491,-131.4437,-48.4552,83.4517,53.8399,-27.997,35.5348,-72.1451,-27.997,-47.3787,-268.197,58.1471,27.997,
187.9129,57.07,-121.6773,-33.4552,95.8354,51.6863,-22.6128,36.6118,-67.8374,-24.7659,-33.3802,-253.197,73.1471,22.6128,
202.9129,52.2241,-127.5998,-40.3802,86.6823,44.6873,-27.4587,33.9189,-69.4537,-30.6883,-31.7659,-238.5102,69.4537,27.4587,
207.2831,52.2246,-135.138,-41.4572,71.6823,52.2246,-30.6888,30.6888,-78.0675,-36.0725,-46.7659,-241.7403,54.4537,31.7654,
192.2831,41.4567,-124.3702,-38.2261,56.6823,37.2246,-16.6903,31.7649,-79.1446,-33.9189,-50.071,-236.3571,61.9149,16.7654,
188.978,40.3797,-114.6788,-25.3041,50.0715,23.1511,-23.1511,43.6103,-71.6063,-29.6113,-42.5327,-221.3571,73.7604,23.1511,
190.054,36.072,-116.8324,-32.8424,35.0715,38.1511,-36.073,42.5333,-69.4537,-39.3037,-43.6108,-210.5132,58.7604,38.1511,
175.054,27.4582,-120.0625,-33.9195,30.6888,44.6868,-27.4582,46.8409,-67.3001,-33.9195,-29.6123,-210.5137,51.1481,34.996,
164.2111,32.8424,-134.061,-25.3046,45.6888,33.9189,-29.6118,41.4567,-75.9139,-31.7649,-30.6883,-207.2826,66.1481,25.3046,
159.3651,22.6128,-119.061,-13.9985,30.6888,21.5363,-15.075,43.072,-65.6843,-32.3036,-27.9965,-192.2826,71.068,27.9965,
156.6743,19.921,-104.061,-9.1526,15.6888,36.073,-18.8434,48.9945,-64.069,-34.9955,-36.072,-183.5927,56.068,22.0751,
159.9039,30.6883,-118.9865,-12.3832,30.6888,51.073,-27.4587,46.8404,-68.3772,-29.6118,-32.8424,-186.8244,41.068,12.3832,
149.6748,17.2286,-103.9865,-7.5378,31.2276,36.073,-12.4587,46.3021,-55.993,-21.5358,-17.8424,-172.2871,53.8399,7.5378,
144.2911,12.9215,-99.0645,-7.5378,16.2276,21.073,-10.7674,48.4562,-55.993,-23.6888,-18.3051,-159.3656,65.6848,18.3062,
145.3671,27.9215,-97.9885,-2.1536,2.1536,36.073,-9.6913,57.07,-52.7629,-16.1516,-15.075,-147.5212,51.6863,30.1506,
142.1365,31.2271,-111.9875,-2.1536,9.6903,40.9179,-20.4597,53.8394,-66.7619,-20.4597,-24.7669,-156.1355,36.6863,15.1506,
153.9815,31.2271,-120.6008,-7.5373,11.8444,32.3036,-16.1516,53.8394,-71.069,-16.1516,-20.4587,-141.1355,29.073,7.5373,
149.136,22.0745,-105.6008,-6.999,-3.1556,28.5348,-1.1516,53.3011,-58.6858,-10.2296,-5.4587,-126.1355,44.073,22.5373,
143.2141,26.92,-90.6008,1.077,-1.077,27.9965,-9.6913,51.6863,-55.9935,-13.9985,-7.5373,-111.1355,58.1476,35.5343,
131.9079,27.4587,-94.2191,3.7689,-14.5363,12.9965,-14.5363,65.1466,-51.1476,-11.3056,-3.7689,-106.064,43.1476,26.3822,
132.984,19.9204,-94.2196,1.6153,-29.5363,3.7684,-5.9225,73.7604,-45.7644,-11.3061,-1.6153,-91.064,51.147,26.3817,
140.5212,19.921,-85.6048,2.6924,-32.8424,18.7684,-4.8454,70.5303,-42.5333,-13.4597,-2.6924,-76.064,61.9159,28.5353,
125.5212,4.921,-74.8369,3.7684,-47.8424,3.7684,-2.6918,62.992,-44.6868,-17.7674,3.7684,-62.993,46.9159,18.8439,
122.2161,3.7689,-85.6048,8.076,-39.3026,-11.2316,-0.53827,62.9925,-43.6098,-16.6903,0.53827,-56.5312,37.1496,28.5353,
121.1401,-1.6153,-79.144,3.7694,-41.4562,-5.9225,1.6153,62.993,-32.8419,-15.6133,1.6153,-45.7634,44.6868,42.5338,
106.1401,-11.8444,-64.6078,17.2291,-56.4562,-9.6913,5.3842,75.3762,-23.6893,-5.3842,15.075,-30.7634,52.7629,31.2271,
93.6813,-15.075,-79.6078,20.4597,-63.5302,-24.6913,3.2311,76.4527,-25.8424,-2.1536,13.9985,-31.2261,54.917,16.2271,
78.6813,-26.3817,-66.2226,10.2296,-78.0675,-39.6913,2.6918,61.4527,-17.7664,1.6153,16.6909,-23.1511,58.6858,1.2271,
75.3757,-21.5358,-63.5307,22.6133,-68.9144,-34.4572,-4.3072,51.6858,-22.6123,4.3072,17.2286,-16.1521,51.6858,16.2271,
67.3001,-25.3052,-76.991,28.5348,-73.7604,-40.3797,2.6918,61.9154,-33.9195,-2.6918,17.7674,-16.6898,36.6858,4.8459,
59.7613,-27.4582,-61.991,31.7654,-88.7604,-51.1481,13.4592,76.9154,-27.4582,1.6153,20.997,-1.6898,21.6858,-10.1541,
62.4542,-12.9215,-58.1471,30.1501,-83.99,-36.1481,0,77.5287,-32.3042,10.7674,9.6908,0,23.6888,-1.0765,
47.4542,-27.9215,-70.5297,15.6133,-98.99,-51.1481,0.53878,62.5287,-42.5338,2.6918,2.6918,-5.9225,24.2276,-0.53878,
49.5322,-42.9215,-75.3762,21.5352,-105.5262,-66.1481,5.3842,62.4537,-49.5333,-7.5383,-1.077,9.0775,13.9985,1.077,
64.5322,-27.9215,-70.5308,28.5348,-90.5262,-51.1481,-1.6153,72.6838,-64.5333,-4.8459,1.6153,24.0775,12.3827,16.077,
65.6848,-18.3051,-78.6063,23.6898,-77.5298,-48.4562,-5.3837,62.4542,-68.9155,-8.6143,5.3837,13.998,12.9215,16.1521,
50.6848,-25.8434,-75.3752,30.1506,-92.5298,-63.4562,3.2301,59.2241,-53.9155,-13.9985,-1.077,18.3057,13.9985,1.1521,
35.6848,-39.3026,-60.3752,42.5333,-107.5298,-78.4562,18.2301,74.2241,-38.9155,-8.076,5.9219,33.3057,6.9995,-5.9219,
27.997,-43.0715,-47.3787,43.0725,-107.6788,-91.5267,22.6133,83.99,-41.995,-4.3072,8.6143,48.3057,4.3072,-13.998,
20.998,-54.3777,-60.8389,28.0725,-110.3717,-79.144,23.1511,68.99,-48.994,-19.3072,2.6918,34.996,6.999,-2.6918,
5.998,-63.5307,-45.8389,30.1501,-125.3717,-94.144,19.3827,61.3777,-52.7624,-30.1501,4.3072,44.1491,-1.0765,12.3082,
14.5368,-48.5307,-44.6868,45.1501,-122.2156,-88.8349,6.999,68.3767,-57.6083,-18.8439,10.2296,52.2246,-6.999,10.2296,
22.6123,-40.9185,-35.5348,57.0695,-109.8339,-82.9134,21.999,74.2981,-42.6083,-6.4612,21.5358,64.6073,0,0,
8.076,-55.9185,-22.074,56.5323,-124.8339,-97.9134,36.073,72.6843,-32.8414,-11.3056,10.2301,79.6073,8.076,-8.076,
3.7689,-56.5323,-30.6894,56.5312,-139.8339,-112.9134,28.5342,71.6068,-41.4567,-12.3832,13.4597,89.9119,4.8454,-3.7689,
9.1526,-58.6853,-26.3812,53.3016,-138.3682,-106.064,30.6883,80.2211,-32.8424,-8.076,28.4597,88.8354,-0.53827,0.53827,
16.6909,-51.1481,-31.7654,50.0715,-125.4462,-97.4502,25.3052,80.2216,-30.6888,-8.0755,25.3052,103.8354,0.53878,-0.53878,
12.9215,-51.6858,-19.3817,53.8399,-140.4462,-99.0645,33.3807,81.8369,-22.6123,-1.0765,37.6878,118.8354,1.0765,-2.1531,
16.1516,-55.9935,-4.3817,66.7609,-131.3692,-106.6028,44.1486,87.2201,-19.3822,3.2301,48.4557,128.1385,-3.2301,-12.922,
18.8439,-57.6083,-10.2296,59.7624,-124.3697,-121.6028,43.6103,74.8369,-31.7654,-1.6153,33.4557,125.4462,1.6153,-18.8439,
3.8439,-72.6083,0,53.8389,-139.3697,-136.6028,47.3787,63.5307,-33.3807,-8.6153,18.4557,140.4462,0,-12.9225,
11.8444,-63.5313,-2.1536,68.8389,-153.9815,-121.6028,43.072,76.4527,-23.6893,-7.5373,25.8434,155.4462,-15,2.0775,
11.8444,-65.6843,-3.2301,66.7609,-138.9815,-125.9845,41.9955,79.6823,-13.9985,-4.3077,40.8434,144.2906,-17.2291,3.2301,
-3.1556,-80.6843,11.7699,60.8384,-153.9815,-140.9845,47.9169,75.9139,-15.6138,-2.6924,38.2261,144.8284,-2.2291,-0.53827,
-12.3837,-75.9144,26.7699,70.5297,-157.7503,-148.0595,56.5318,88.8349,-14.5368,-2.6918,28.5348,159.8284,-2.6918,2.6918,
-27.3837,-79.6823,33.3812,83.9905,-172.7503,-133.0595,67.8384,103.8349,0.46323,-2.1536,43.5348,174.8284,-17.6918,-10.7679,
-33.9189,-94.6823,18.8444,90.9895,-187.7503,-148.0595,55.4557,99.6038,3.7689,-3.7689,46.8414,179.2866,-32.6918,-20.9975,
-39.3031,-100.6808,19.9204,76.991,-187.9004,-163.0595,45.7634,84.6038,-0.53878,0.53878,32.8419,183.5932,-32.8419,-5.9975,
-54.3031,-93.6808,16.1521,63.5307,-179.8249,-150.7513,43.0715,72.1451,-5.3837,1.0765,36.6113,186.2851,-40.9185,-1.0765,
-53.8394,-85.067,18.3057,77.5292,-164.8249,-135.7513,46.3027,80.7599,-2.1536,2.1536,47.3792,181.9785,-30.1506,-3.2301,
-58.6853,-100.067,33.3057,85.6058,-179.8249,-150.7513,55.4557,88.8354,0.53827,-0.53827,51.1476,188.9774,-32.8424,-18.2301,
-56.5318,-104.987,42.5338,85.6053,-194.8249,-165.7513,57.6083,90.989,1.6153,-1.6153,50.0705,188.978,-47.8424,-19.9205,
-71.5318,-119.987,34.9955,75.9139,-209.8249,-180.7513,60.8384,82.3752,3.7689,-3.7689,47.9169,184.6703,-48.9945,-16.6903,
-86.5318,-134.987,46.3021,78.6063,-224.8249,-195.7513,59.2236,80.7594,1.0765,-1.0765,46.3021,199.6703,-44.1481,-23.6898,
-71.5318,-120.0625,40.3797,85.6053,-225.5887,-186.8239,54.3777,80.2216,-3.7684,3.7684,47.9175,210.5137,-51.1481,-26.3817,
-80.2216,-124.3697,33.9195,75.9145,-235.2796,-199.7453,46.8409,70.5297,1.6153,-1.6153,52.2246,204.0525,-66.1481,-30.6888,
-75.9139,-121.1395,34.9965,78.068,-224.5112,-186.8234,43.6108,84.5282,-0.53827,0.53827,47.918,214.8204,-75.9139,-22.074,
-66.7614,-108.7564,38.7644,83.99,-213.2056,-171.8234,58.6108,97.988,-5.3837,5.3837,52.7624,225.0495,-66.7614,-20.4592,
-81.7614,-118.4472,47.3787,85.0665,-221.8199,-173.3641,59.2236,86.143,-4.3072,4.3072,52.7624,225.0495,-51.7614,-33.3807,
-96.7614,-125.985,36.6103,85.0665,-232.5883,-188.3641,44.2236,74.2981,-4.3072,4.3072,40.9174,213.2045,-39.8419,-30.1511,
-111.7614,-140.985,43.6098,73.7598,-247.5883,-203.3641,44.6873,68.3762,0.53827,-0.53827,45.7639,209.4367,-54.8419,-34.9955,
-126.7614,-155.985,50.071,73.7609,-262.5883,-218.3641,54.3782,75.9139,-1.6148,1.6148,43.6098,220.2051,-47.9169,-36.072,
-123.2926,-140.985,42.5333,82.3752,-247.5883,-203.3641,47.918,89.913,-4.8454,4.8454,40.3802,230.9724,-32.9169,-21.072,
-122.2166,-135.138,40.3797,85.6053,-238.5102,-191.1315,43.6103,93.142,-2.6918,2.6918,55.3802,234.2025,-47.9169,-12.3837,
-129.2156,-143.2136,46.3021,83.99,-223.9734,-206.1315,47.3787,81.8369,1.0765,-1.0765,70.3802,222.8964,-48.4562,-27.3837,
-142.6753,-158.2136,59.7619,78.067,-238.9734,-221.1315,50.071,68.3762,4.8454,-4.8454,69.4527,219.1275,-41.4567,-42.3837,
-147.5207,-170.1335,44.7619,81.8369,-253.9734,-226.1265,35.5348,67.8379,0,0,58.1471,233.6648,-44.148,-46.3021,
-143.7523,-160.981,40.3797,80.2206,-238.9734,-211.5902,39.3031,72.6838,-2.6918,2.6918,53.3011,240.6638,-33.9195,-31.3021,
-137.8299,-153.9815,55.3797,79.6828,-226.1265,-209.9749,54.3031,75.3757,3.2306,-3.2306,60.3001,243.3556,-22.6123,-19.3827,
-122.8299,-138.9815,69.4532,92.0655,-223.4347,-194.9749,52.2246,79.144,-0.53878,0.53878,56.5318,237.4332,-26.3817,-17.7674,
-125.9845,-143.2131,54.4532,83.9905,-228.2801,-200.2836,37.2246,73.2221,-9.6913,9.6913,57.07,222.4332,-41.3817,-32.7674,
-117.3707,-149.6748,45.2256,82.9134,-231.5107,-202.4377,38.7644,69.992,-7.5378,7.5378,61.3777,212.128,-52.7634,-47.7674,
-102.3707,-137.2911,60.2256,84.5277,-246.5107,-202.9759,50.0705,71.6063,1.6153,-1.6153,65.1461,226.6648,-56.5318,-54.3787,
-117.3707,-152.2911,67.8374,77.5292,-261.5107,-217.9759,47.3792,71.068,2.1536,-2.1536,66.7609,237.9714,-66.7619,-39.3787,
-127.6003,-157.7503,52.8374,86.6818,-249.2781,-216.9739,42.5338,72.6838,-1.6153,1.6153,57.6083,235.2791,-55.4552,-28.5348,
-138.9069,-162.5963,51.6863,83.9895,-255.2005,-222.8969,45.2251,66.7609,3.2301,-3.2301,62.4537,231.5102,-46.3027,-43.072,
-153.9069,-177.5963,65.6838,79.6828,-270.2005,-237.8969,47.3787,60.3001,4.3072,-4.3072,61.3767,246.5102,-48.4562,-48.4562,
-154.5202,-184.6708,56.5318,88.8349,-285.2005,-243.8944,51.147,65.1461,-1.6153,1.6153,47.9174,246.0475,-54.3787,-37.1501,
-152.9049,-188.4392,59.2236,91.5277,-285.3506,-247.6628,47.3787,64.6073,1.0765,-1.0765,54.9164,231.0475,-69.3787,-52.1501,
-149.136,-173.4392,55.4552,95.2961,-270.3506,-232.6628,32.3787,60.8389,4.8459,-4.8459,69.4532,226.6648,-74.8369,-54.3787,
-152.3667,-164.2116,52.2246,92.0655,-255.3506,-217.6628,39.3031,65.1461,2.6918,-2.6918,71.6063,233.126,-59.8369,-40.3797,
-162.057,-169.5947,67.2246,97.4502,-256.8153,-225.5882,54.3031,71.6073,2.6918,-2.6918,59.7624,224.5117,-44.8369,-55.3797,
-168.5182,-170.6718,64.0695,99.6043,-258.9689,-240.5882,52.2246,65.1461,5.9225,-5.9225,56.5318,215.8974,-50.0705,-70.3797,
-176.5943,-185.2086,68.9149,85.067,-273.9689,-242.2791,51.6863,51.6863,7.5373,-7.5373,71.5318,230.4337,-60.3006,-57.07,
-166.3646,-185.7468,66.2236,78.0675,-269.7368,-227.2791,41.4572,40.3797,2.6918,-2.6918,66.2236,237.4332,-60.8389,-42.5327,
-171.7488,-182.5167,60.8389,79.144,-265.4296,-242.2791,31.7654,43.6103,2.6918,-2.6918,58.6858,229.8954,-64.0695,-57.5327,
-172.2871,-167.98,63.5313,94.144,-250.4296,-244.4322,43.072,58.6103,5.3842,-5.3842,67.8384,240.1255,-59.2231,-53.8394,
-163.1345,-154.5202,56.5312,93.1425,-240.6638,-229.4322,41.4567,60.8384,1.6148,-1.6148,59.7619,236.3561,-52.2251,-48.9945,
-178.1345,-169.5202,66.2231,78.1425,-255.6638,-240.6633,34.9955,45.8384,2.6924,-2.6924,57.6088,227.7418,-61.9159,-63.9945,
-185.7468,-176.056,69.4532,90.989,-268.6603,-252.5082,44.6868,51.1481,5.9225,-5.9225,64.0695,242.7418,-57.6083,-57.6083,
-177.133,-161.056,74.8369,95.2961,-253.6603,-237.5082,51.147,66.1481,6.999,-6.999,62.992,256.8148,-53.3011,-42.6083,
-192.133,-172.2871,77.5292,80.2961,-246.5857,-230.4342,43.072,67.8384,11.8444,-11.8444,64.6078,253.047,-53.8394,-54.9159,
-177.133,-161.5192,75.3757,89.3737,-253.0465,-230.4337,44.1491,57.0705,11.8449,-11.8449,71.0685,259.5077,-38.8394,-61.3767,
-177.6708,-164.7493,80.7599,104.3737,-268.0465,-233.6643,54.917,65.6843,11.8444,-11.8444,77.5292,265.9684,-48.4557,-54.917,
-192.6708,-168.5182,66.2226,104.988,-253.5847,-224.5117,55.4552,70.5297,11.3061,-11.3061,73.7604,262.1995,-63.4557,-48.994,
-190.0545,-160.981,67.2991,97.4502,-238.5847,-224.5117,57.6083,66.2226,8.0755,-8.0755,75.9145,258.9689,-48.4557,-45.7634,
-190.054,-175.981,78.068,97.4497,-253.5847,-239.5117,57.6088,58.6853,9.1526,-9.1526,76.9905,262.2001,-42.5333,-51.1476,
-193.8234,-185.2091,67.8379,91.5267,-265.9689,-241.2026,46.3021,49.5317,8.6143,-8.6143,61.9905,255.1995,-57.0705,-53.8399,
-208.8234,-198.13,75.3752,79.6833,-254.1235,-246.5857,52.7629,38.7649,10.7679,-10.7679,64.6078,255.2,-51.6863,-67.8384,
-220.7428,-207.8214,76.4527,85.067,-265.9684,-256.2771,50.6098,35.5343,10.7679,-10.7679,63.5313,262.7378,-49.5322,-81.8364,
-206.2061,-192.8214,74.8379,88.8359,-271.8904,-241.2771,45.7644,50.0715,6.999,-6.999,62.993,251.4322,-54.3777,-66.8364,
-207.2831,-177.8214,88.8359,89.9124,-262.1995,-226.2771,50.0705,65.0715,5.9225,-5.9225,70.5297,246.0475,-53.3011,-51.8364,
-192.2831,-162.8214,79.1451,99.6033,-247.1995,-228.8189,48.994,62.993,1.6153,-1.6153,68.3767,255.7393,-60.8389,-52.2246,
-191.6693,-170.1335,71.0685,89.3737,-240.125,-233.6643,48.4562,54.9164,4.3072,-4.3072,71.0685,258.4312,-64.6073,-64.6073,
-206.6693,-185.1335,73.7609,76.9905,-255.125,-229.8954,41.4567,46.8404,9.1526,-9.1526,61.9159,258.9694,-58.6853,-65.1455,
-221.6693,-191.6693,58.7609,75.3762,-270.125,-244.4322,34.4577,31.8404,7.5373,-7.5373,49.5322,249.8164,-65.6843,-73.2221,
-229.3571,-198.13,53.8404,74.2997,-285.125,-259.4322,37.6883,30.1506,6.4607,-6.4607,57.07,247.6633,-74.2986,-86.1436,
-216.9739,-183.13,57.6083,86.6818,-283.7353,-244.4322,29.6123,45.1506,9.1531,-9.1531,53.3011,253.5852,-75.9145,-81.2981,
-207.2831,-173.9024,54.3782,76.9905,-268.7353,-229.4322,19.921,54.3782,12.3832,-12.3832,43.6098,246.048,-90.9145,-73.7609,
-206.7448,-179.8249,57.0695,72.1451,-253.7353,-239.0485,29.0735,39.3782,7.5378,-7.5378,44.1481,240.125,-93.6808,-63.5307,
-206.7448,-176.5943,57.0695,87.1451,-268.7353,-235.8184,40.9185,54.3782,5.3837,-5.3837,48.4552,239.0485,-78.6808,-60.3012,
-221.7448,-189.5162,62.4537,82.9129,-283.7353,-229.3576,34.4567,59.2231,10.7679,-10.7679,52.7629,236.8949,-78.6058,-75.3012,
-222.8964,-185.2086,63.5313,75.3762,-268.7353,-218.5892,34.4577,52.7629,6.4607,-6.4607,47.3792,237.9714,-87.2201,-82.9129,
-216.9739,-190.054,76.991,82.3747,-267.5832,-233.5892,49.4577,67.7629,4.8459,-4.8459,48.994,244.9709,-72.2201,-67.9129,
-212.6673,-186.8239,84.5282,97.3747,-274.0445,-239.5873,57.6078,67.2996,8.076,-8.076,60.8384,253.5847,-66.2231,-68.3767,
-197.6673,-171.8239,69.5282,107.6793,-259.0445,-224.5873,46.3027,52.2996,4.3077,-4.3077,65.6843,248.7398,-75.3752,-69.9915,
-187.9009,-164.2111,70.5297,97.4502,-244.0445,-209.5873,56.5318,57.6083,1.6153,-1.6153,61.9154,244.9709,-68.3767,-73.7604,
-185.7473,-162.0575,71.6063,93.1431,-229.0445,-224.5117,51.1481,72.6083,1.6153,-1.6153,57.6083,246.0475,-54.3787,-76.991,
-184.132,-151.8279,74.2986,92.6048,-219.6663,-209.5117,48.4557,68.9149,8.6148,-8.6148,72.6083,244.4327,-61.3772,-73.2221,
-188.4392,-158.2886,79.6828,95.8349,-233.6643,-201.3606,58.1471,57.0705,11.8449,-11.8449,71.0685,242.2791,-76.3772,-68.9144,
-184.132,-160.4422,67.8379,89.3737,-232.5877,-208.8979,45.2256,54.9164,4.3072,-4.3072,56.0685,233.6648,-73.2216,-76.4522,
-199.132,-174.9789,74.8374,86.6823,-247.1245,-223.8979,41.4567,58.6853,4.8454,-4.8454,52.2251,237.4337,-68.3762,-88.8354,
-200.2841,-171.2106,83.9895,101.6823,-234.7413,-217.5127,56.4567,64.6078,6.4607,-6.4607,62.4537,252.4337,-73.2226,-73.8354,
-204.5913,-171.2106,85.067,96.9109,-243.3556,-226.127,60.3006,58.1466,3.2301,-3.2301,47.4537,258.4307,-76.4527,-69.992,
-202.4377,-167.98,80.7594,85.0665,-258.3556,-221.8199,47.3787,61.3777,3.2306,-3.2306,34.4572,247.6628,-85.067,-84.992,
-187.4377,-152.98,65.7594,100.0665,-243.3556,-206.8199,41.9955,76.3777,-1.077,1.077,49.4572,237.9714,-90.4507,-69.992,
-172.8259,-137.98,75.9139,103.9109,-228.3556,-191.8199,53.3016,83.4517,-0.53827,0.53827,64.4572,248.201,-80.2216,-54.992,
-187.8259,-144.8289,89.9124,99.6033,-213.3556,-180.3631,48.994,71.6073,5.9225,-5.9225,51.1481,256.8159,-66.2231,-55.4552,
-192.7463,-152.9049,75.3757,94.7573,-213.2056,-175.5177,40.9174,60.3001,8.6143,-8.6143,41.995,241.8159,-81.2231,-66.7614,
-202.9759,-164.2116,74.8369,89.9124,-214.8209,-190.5177,48.994,67.2991,5.9225,-5.9225,48.994,229.8954,-96.2231,-66.2226,
-191.131,-158.8274,81.2976,90.9895,-199.8209,-194.3616,51.1476,74.8374,3.7689,-3.7689,54.3782,238.5102,-111.2231,-59.7619,
-206.131,-173.8274,89.3737,81.8369,-214.8209,-203.5142,52.7634,59.8374,11.8449,-11.8449,57.0705,239.0485,-126.2231,-62.4542,
-209.9755,-175.5177,85.0665,93.6808,-222.8969,-205.6683,57.0695,59.2236,12.9215,-12.9215,48.4552,248.7393,-141.2231,-72.1456,
-194.9755,-160.5177,79.1451,102.8339,-207.8969,-190.6683,59.7624,72.6838,5.9225,-5.9225,44.6868,246.0475,-156.2231,-69.4532,
-180.3626,-166.3646,86.6818,89.9124,-218.0505,-200.8219,57.6083,65.1461,2.6918,-2.6918,48.994,231.0475,-171.2231,-76.9905,
-178.2091,-158.8269,82.3752,97.4507,-203.0505,-199.7453,53.3016,62.9925,-0.53827,0.53827,48.9945,233.1265,-171.7483,-79.144,
-163.2091,-143.8269,84.5288,101.7574,-188.0505,-184.7453,59.7624,69.4532,1.6153,-1.6153,59.7624,248.1265,-156.7483,-71.6068,
-153.9815,-146.4442,91.5277,92.6043,-194.8999,-189.5157,63.5307,62.4542,7.5378,-7.5378,59.2236,250.8934,-159.3656,-69.9915,
-161.5187,-159.3651,95.8349,86.1441,-194.8994,-204.5157,66.7614,54.9164,12.9215,-12.9215,45.2256,235.8934,-174.3656,-73.2216,
-167.98,-166.9029,92.6043,92.6043,-197.0535,-219.5157,68.9144,55.993,11.8449,-11.8449,47.3787,239.0485,-189.3656,-77.5292,
-159.9039,-154.5202,77.6043,104.9875,-184.6703,-212.6668,58.6853,59.7619,6.9995,-6.9995,43.6098,252.5082,-181.4397,-76.991,
-171.2106,-162.5963,85.067,97.9885,-199.6703,-223.9734,61.3772,55.9935,9.6913,-9.6913,45.2251,248.7398,-172.2871,-87.2206,
-166.9029,-163.6723,100.067,104.4492,-204.5907,-220.7428,67.8379,62.4542,11.8449,-11.8449,52.7634,242.2791,-177.6708,-86.143,
-151.9029,-148.6723,97.4502,111.4482,-189.5907,-205.7428,67.2991,75.9145,10.2296,-10.2296,50.0705,235.2791,-181.4397,-71.143,
-160.981,-140.5222,98.5267,97.4492,-174.5907,-190.7428,78.0675,71.6063,10.2296,-10.2296,54.3777,237.4332,-177.133,-57.6088,
-156.6738,-132.9845,99.6038,106.064,-159.5907,-182.5167,81.2976,62.9925,8.076,-8.076,51.1476,248.201,-166.3646,-55.4552,
-151.8279,-138.9064,96.9119,109.8334,-164.7493,-193.8229,74.2986,57.07,7.5373,-7.5373,41.9955,235.8184,-178.7478,-64.6078,
-156.6738,-140.5217,93.1425,98.5262,-179.7493,-196.5152,65.1455,53.3016,5.9219,-5.9219,46.8404,220.8184,-193.7478,-78.0675,
-157.2126,-134.5998,93.6803,102.2946,-164.7493,-181.5152,64.6068,46.3016,6.4607,-6.4607,53.8394,211.051,-178.7478,-64.6083,
-172.2126,-149.5998,101.2186,104.4492,-179.7493,-196.5152,75.3757,39.8409,12.9215,-12.9215,50.6093,226.051,-163.7478,-52.7629,
-180.9014,-156.135,87.2206,96.9114,-193.8229,-203.5142,71.0685,37.6878,7.5378,-7.5378,35.6093,235.8179,-178.7478,-47.3787,
-165.9014,-141.135,86.1441,90.4512,-178.8229,-188.5142,63.5307,38.7644,1.0765,-1.0765,48.4562,231.5107,-186.2851,-53.8399,
-156.6738,-128.6773,101.1441,102.8334,-163.8229,-182.5167,69.4527,53.7644,6.9995,-6.9995,63.4562,240.6633,-171.7488,-66.2231,
-155.5973,-113.6773,106.0635,109.2941,-156.6738,-172.8259,76.99,61.9154,5.9225,-5.9225,51.147,240.6628,-170.6723,-55.4552,
-169.057,-122.7549,92.6038,102.2956,-171.6738,-185.2091,74.2986,46.9154,3.2301,-3.2301,45.2251,237.9714,-180.9019,-53.8399,
-178.7478,-137.7549,90.4512,108.7564,-186.6738,-193.8229,60.3012,40.9185,7.5378,-7.5378,41.995,244.4322,-167.9794,-64.6073,
-191.131,-148.0595,105.4512,98.5267,-201.6738,-192.2081,64.0695,55.9185,11.3061,-11.3061,47.9174,239.5862,-163.1345,-61.9159,
-206.131,-162.5963,111.986,90.4502,-213.2056,-200.2841,66.7614,46.3021,12.9215,-12.9215,53.8399,233.6638,-178.1345,-66.7614,
-191.131,-148.059,96.986,105.4502,-198.2056,-185.2841,57.6083,41.4572,10.2296,-10.2296,45.7644,232.0495,-163.1345,-74.8369,
-176.131,-133.059,87.2201,108.7558,-183.2056,-170.2841,52.7629,49.5322,13.9985,-13.9985,46.3027,232.5877,-148.1345,-66.7614,
-165.8264,-123.8314,91.5272,102.2956,-168.2056,-155.2841,43.072,44.1486,13.9985,-13.9985,46.3027,225.05,-141.06,-54.9159,
-168.5182,-125.4462,83.4522,101.7574,-153.2056,-160.9804,39.3031,37.1501,10.2296,-10.2296,39.3031,210.05,-151.2896,-62.992,
-177.133,-128.6773,84.5277,100.6798,-157.7509,-174.9795,46.8399,41.4562,10.2296,-10.2296,39.3031,208.3596,-146.9825,-67.3001,
-162.133,-113.6773,70.5297,98.5267,-142.7509,-159.9795,41.4562,45.7634,6.999,-6.999,38.2256,216.9739,-131.9825,-52.3001,
-147.133,-100.6803,70.5303,95.2966,-127.7509,-144.9795,39.3026,44.6863,3.7689,-3.7689,40.3792,201.9739,-121.1395,-37.3001,
-135.1375,-94.2196,84.5288,107.141,-112.7509,-129.9795,50.0705,59.6863,4.8459,-4.8459,37.1491,192.2076,-120.0625,-27.4582,
-131.9074,-79.2196,74.8369,103.9104,-97.7509,-114.9795,48.994,56.5318,5.9225,-5.9225,31.7654,200.8219,-122.2161,-15.6133,
-145.3677,-83.9905,68.9149,89.3742,-100.1421,-121.6778,44.1486,41.5318,9.6913,-9.6913,44.1486,194.8999,-119.5242,-30.6133,
-144.2901,-85.0665,66.7614,88.2971,-101.2186,-115.2171,38.7644,44.1491,12.9215,-12.9215,46.3021,198.13,-107.6793,-45.6133,
-143.2136,-81.8364,75.3752,90.4507,-88.2971,-100.2171,38.7649,59.1491,9.6913,-9.6913,38.7649,205.6673,-111.987,-46.3027,
-128.2136,-66.8364,68.3762,100.6803,-73.2971,-85.2171,38.2261,57.6088,2.6924,-2.6924,34.9955,198.6683,-111.4482,-31.3027,
-122.2166,-69.4537,53.3762,92.066,-76.9915,-95.2966,30.6883,42.6088,4.8454,-4.8454,26.3812,185.7468,-97.4502,-36.073,
-137.2166,-84.4537,65.1466,81.2976,-91.9915,-108.2176,30.6883,42.5333,9.1526,-9.1526,17.7669,192.2081,-97.4497,-51.073,
-122.2166,-69.4537,51.6858,92.6043,-76.9915,-93.2176,23.6898,57.5333,4.3072,-4.3072,19.3827,187.3626,-82.9134,-47.3787,
-107.2166,-54.4537,36.6858,82.9134,-61.9915,-78.2176,21.5358,42.5333,5.3837,-5.3837,34.3827,172.3626,-67.9134,-32.3787,
-97.988,-58.1471,49.5328,81.8369,-71.0685,-74.2981,36.5358,30.1511,8.6143,-8.6143,45.2256,176.5943,-57.0695,-31.2266,
-87.7583,-45.7634,61.9154,96.8369,-56.0685,-67.3001,46.8409,45.1511,11.3061,-11.3061,31.7654,186.8239,-57.6083,-26.3817,
-87.2206,-45.2256,51.6858,97.988,-41.0685,-57.0705,36.6113,60.1511,11.8449,-11.8449,33.3807,180.9014,-53.8399,-33.3807,
-88.2976,-48.4557,41.9945,95.8344,-30.1506,-44.1486,29.073,46.3016,3.2301,-3.2301,33.3802,170.1335,-45.2251,-31.2271,
-85.067,-48.4562,56.9945,97.988,-45.1506,-38.7644,40.9185,46.3021,2.1541,-2.1541,34.4572,177.6708,-43.0715,-16.2271,
-85.067,-53.8404,54.9159,91.5272,-30.1506,-50.6098,40.9179,41.9945,3.2301,-3.2301,27.9965,187.3621,-46.3027,-9.6913,
-76.4517,-50.6088,39.9159,76.5272,-15.1506,-51.6853,25.9179,26.9945,-11.7699,-6.4607,12.9965,172.3621,-55.9925,-24.6913,
-79.144,-47.9174,24.9159,61.5272,-0.15058,-57.6083,14.5368,16.6909,-6.999,-12.3827,26.3817,157.3621,-51.1481,-39.6913,
-78.6058,-41.9945,38.7649,76.5272,-15.1506,-53.8394,26.92,31.6909,7.5373,-7.5373,40.9179,172.3621,-36.6108,-26.92,
-72.1451,-49.5328,44.1481,82.9134,-17.2286,-54.9164,30.1501,35.5337,4.3072,-4.3072,31.2266,181.9779,-39.8419,-27.997,
-64.0695,-52.2246,34.996,80.2206,-11.3072,-65.1461,31.7654,33.9184,10.2296,-10.2296,33.9184,169.5953,-37.1501,-39.3031,
-64.0695,-45.7634,37.1491,89.9124,-26.3072,-58.6848,32.8419,48.9184,15.6133,-15.6133,44.6868,182.5167,-36.0725,-41.4562,
-79.0695,-60.7634,51.1481,82.3747,-41.3072,-72.6838,36.0725,48.994,13.4602,-13.4602,43.6103,191.131,-51.0725,-43.6103,
-94.0695,-70.5297,36.1481,88.8359,-56.3072,-76.991,24.2276,40.3797,9.1531,-9.1531,28.6103,180.3637,-54.3777,-37.1491,
-88.2971,-66.7614,37.6878,93.6808,-52.7634,-77.5287,19.3827,44.1491,7.5378,-7.5378,22.6123,175.5177,-39.3777,-34.4572,
-81.2971,-69.4532,52.6878,90.99,-55.4542,-85.6043,27.4582,37.1501,5.9225,-5.9225,36.0725,185.7473,-38.2256,-41.4562,
-73.7598,-62.9925,37.6878,88.8354,-40.4542,-75.9139,26.3822,22.1501,3.7689,-3.7689,33.919,171.7488,-50.071,-38.2261,
-88.2971,-77.9925,46.3021,83.99,-41.995,-83.99,30.1501,31.2276,3.2306,-3.2306,31.2276,158.2891,-43.0715,-44.1481,
-73.2971,-69.4527,58.6853,96.3732,-26.995,-68.99,39.3026,46.2276,1.6148,-1.6148,33.9189,173.2891,-28.0715,-43.6098,
-71.6073,-61.9154,43.6853,92.0655,-11.995,-53.99,29.6123,56.5318,-4.8459,-11.3061,27.4582,166.3646,-37.1491,-30.6888,
-86.6073,-76.9154,37.1501,90.99,-26.995,-59.7613,33.9195,45.7644,5.9225,-5.9225,38.2266,158.8279,-52.1491,-18.8439,
-94.7579,-71.068,52.1501,88.2966,-41.995,-55.9935,32.3036,31.2271,3.2301,-3.2301,29.073,170.1335,-45.2251,-33.3812,
-79.7579,-59.7619,50.071,80.2211,-26.995,-54.3782,24.2281,29.6118,6.9995,-6.9995,27.4587,178.2101,-32.8424,-38.2261,
-72.6838,-48.994,37.1491,76.991,-33.9195,-42.5338,11.3061,44.6118,4.8459,-4.8459,24.2276,169.5953,-46.8409,-23.2261,
-66.7614,-34.4572,33.3807,75.3757,-48.9195,-41.995,18.3051,59.6118,-3.2306,3.2306,23.6898,156.135,-61.8409,-12.9215,
-66.2231,-29.6118,41.4567,85.6048,-55.4547,-56.995,23.1516,44.6118,2.6924,-2.6924,38.2261,163.1345,-59.7619,-27.9215,
-51.2231,-14.6118,36.6113,97.988,-40.4547,-41.995,8.1516,34.4572,3.2306,-10.7684,27.996,166.9034,-45.2256,-42.9215,
-49.5328,0.3882,44.1481,82.988,-52.7634,-29.0735,13.998,49.4572,-3.2306,-10.7684,12.996,156.135,-49.5328,-38.7644,
-47.3782,12.922,38.7649,79.6833,-51.6863,-35.5343,22.6128,48.4557,-6.4607,-6.4607,6.4607,157.2121,-64.5328,-45.2251,
-32.3782,27.922,23.7649,94.6833,-36.6863,-20.5343,14.5363,40.3802,-14.5363,-12.3832,8.076,157.7509,-79.5328,-38.2261,
-20.9975,42.922,33.9189,93.1425,-51.6863,-5.5343,20.9975,52.2241,-20.9975,-27.3832,4.8454,151.2896,-64.5328,-40.3802,
-35.9975,34.9955,36.072,94.2191,-47.918,-8.076,18.8434,64.069,-11.3067,-19.921,8.076,152.3661,-49.5328,-43.6108,
-50.9975,19.9955,23.6893,88.2966,-62.918,-23.076,3.8434,49.069,-3.2301,-12.922,20.4587,158.2886,-64.5328,-38.7649,
-65.6848,4.9955,35.5337,89.3737,-77.918,-38.076,12.9215,47.3787,-3.2306,-16.1521,26.9194,169.0565,-79.5328,-36.6113,
-62.992,-3.7684,50.5337,99.6033,-79.1446,-43.6103,27.9215,59.7624,3.7684,-12.3827,31.7654,173.9024,-64.5328,-39.3031,
-77.5298,-18.7684,58.146,89.3737,-77.5298,-57.0705,31.2266,44.7624,8.6143,-8.6143,31.2266,170.133,-57.0705,-41.995,
-72.1451,-33.7684,48.4562,87.2206,-62.5298,-64.6073,20.4592,38.7644,7.5378,-7.5378,22.6133,164.7493,-69.991,-26.995,
-87.1451,-40.3802,54.3782,93.1425,-77.5298,-79.6073,26.3812,50.071,9.1526,-9.1526,26.3812,167.4417,-54.991,-34.9955,
-96.9114,-43.0715,45.2256,92.6043,-92.5298,-88.2971,19.3827,35.5348,5.3837,-5.3837,17.2286,173.3636,-59.2236,-49.9955,
-81.9114,-28.0715,30.2256,88.2971,-77.5298,-73.2971,4.3827,44.1481,-4.3072,4.3072,11.8449,167.98,-73.2226,-35.5348,
-94.7584,-32.3042,30.1501,73.2971,-62.5298,-58.2971,5.3837,59.1481,-5.3837,6.4602,26.8449,163.6728,-68.9155,-31.2276,
-109.7584,-47.3042,38.7644,67.8379,-77.5298,-73.2971,3.2306,44.1481,-3.2306,3.2306,23.6898,160.4422,-71.0685,-46.2276,
-102.2951,-62.3042,37.6878,66.7614,-92.5298,-88.2971,18.2306,29.1481,4.3072,-4.3072,11.8449,165.8269,-69.991,-61.2276,
-89.9124,-69.4527,47.9169,72.6833,-81.2981,-88.8354,33.2306,37.1496,10.2291,-10.2291,26.8449,177.1325,-57.6088,-48.9945,
-74.9124,-54.4527,38.2261,79.1446,-66.2981,-88.8354,24.2281,43.6108,3.7689,-3.7689,33.919,162.1325,-58.6853,-52.2241,
-83.4517,-60.8384,39.3026,74.8374,-81.2981,-103.8354,27.4587,32.8424,6.9995,-6.9995,27.4587,154.5202,-73.6853,-65.1455,
-98.4517,-68.3767,50.0705,84.5288,-96.2981,-110.3717,33.9195,47.8424,13.4602,-13.4602,14.5368,169.5202,-67.2996,-52.2246,
-107.6788,-60.2996,43.072,90.4507,-107.6788,-95.3717,32.3047,61.3782,6.4607,-6.4607,19.3832,172.2876,-52.7629,-38.7639,
-92.6788,-58.1471,33.3807,86.1441,-96.9114,-91.5277,32.3042,50.6093,0,0,32.3042,162.5963,-67.7629,-45.2256,
-77.6788,-52.7629,27.9965,85.067,-81.9114,-85.067,30.1496,47.3792,2.1536,-2.1536,19.3822,165.8264,-82.7629,-40.9179,
-92.6788,-67.7629,34.996,78.0675,-96.9114,-82.3747,22.0745,37.1491,5.9225,-4.8459,4.8459,159.9044,-90.989,-37.1491,
-77.6788,-58.1471,29.0735,93.0675,-100.1415,-67.3747,17.2286,44.1491,0,0,7.5378,155.0585,-75.989,-22.1491,
-62.6788,-43.1471,24.7664,101.2186,-85.1415,-52.3747,27.997,59.1491,-3.2306,3.2306,22.5378,156.135,-64.6073,-7.1491,
-61.3772,-28.1471,27.9965,88.2976,-70.1415,-37.3747,30.1506,74.1491,-2.1536,2.1536,29.073,160.4427,-78.6058,-22.1491,
-64.0695,-30.6888,18.8439,89.9124,-55.1415,-44.6868,22.0745,59.1491,-1.6153,1.6153,20.998,158.8279,-93.6058,-34.996,
-72.6838,-45.6888,33.8439,80.2216,-70.1415,-59.6868,29.6113,44.1491,6.999,-6.999,22.0745,150.2126,-100.6803,-43.6103,
-87.6838,-59.2241,40.9179,73.2221,-85.1415,-74.2986,32.3036,57.07,7.5373,-7.5373,21.5363,150.7508,-85.6803,-50.6098,
-96.3732,-56.5323,25.9179,70.5303,-70.1415,-59.2986,26.3812,58.6853,3.7689,-3.7689,27.4577,156.6733,-85.6048,-42.5333,
-109.2951,-70.5308,23.1511,65.1461,-82.3747,-74.2986,29.6113,43.6853,5.9225,-5.9225,34.996,166.3646,-98.5267,-42.5338,
-97.4502,-55.5308,23.1506,71.6068,-88.8354,-71.6068,33.919,37.1496,3.7689,-3.7689,23.1506,163.1345,-96.3732,-45.7639,
-86.6823,-40.5308,32.8424,74.8374,-73.8354,-56.6068,36.072,52.1496,4.8454,-4.8454,20.9975,164.2111,-87.7589,-36.073,
-76.4522,-31.2266,31.2266,81.8369,-58.8354,-55.993,21.072,58.1471,5.3837,-5.3837,21.5358,173.3636,-87.2206,-29.0735,
-62.9925,-32.8424,18.8434,87.7589,-43.8354,-51.1476,14.5363,55.4547,0.53827,-0.53827,19.921,164.2111,-93.1425,-32.8424,
-63.5307,-37.6878,33.3807,83.99,-58.8354,-48.4562,29.5363,66.7614,1.0765,-1.0765,27.996,167.98,-96.9119,-32.3042,
-56.5323,-31.7659,37.1496,84.5282,-43.8354,-34.9955,44.5363,62.9925,3.7689,-3.7689,13.4597,170.6713,-81.9119,-23.1516,
-62.9925,-34.9965,32.8414,82.3742,-33.919,-36.073,39.3026,53.3006,3.7689,-3.7689,3.7689,155.6713,-71.6068,-17.7679,
-63.5313,-30.1506,33.3802,89.3742,-26.92,-33.3802,44.1486,67.8384,-1.077,1.077,18.7689,161.5192,-86.6068,-7.5373,
-58.6853,-26.3822,28.5342,94.2191,-31.7659,-26.3822,43.6098,76.9905,-4.8454,0.53827,17.7669,157.7498,-85.6058,-0.53827,
-73.6853,-41.3822,43.5342,87.7578,-46.7659,-41.3822,36.072,61.9905,8.076,-8.076,16.6903,142.7498,-83.4522,-15.5383,
-88.6853,-56.3822,40.9179,78.6058,-61.7659,-56.3822,30.1506,46.9905,12.922,-12.922,19.3822,137.8294,-88.2971,-30.5383,
-88.8354,-65.1461,38.2266,67.3001,-46.7659,-71.3822,43.6103,48.994,6.999,-6.999,23.1511,152.8294,-76.991,-27.4582,
-96.9114,-80.1461,40.9185,63.5307,-61.7659,-86.3822,43.0715,49.5328,9.6908,-9.6908,23.6898,164.7493,-78.6063,-42.4582,
-99.065,-91.5277,37.6878,65.6848,-76.7659,-101.3822,35.5337,43.0715,12.9215,-12.9215,26.9194,149.7493,-92.6043,-51.6858,
-98.5262,-86.6818,52.2251,70.5303,-69.4532,-116.3822,50.5337,42.5333,9.1526,-9.1526,37.1496,164.7493,-87.7583,-36.6858,
-83.5262,-72.1451,51.6863,85.5303,-66.7614,-101.3822,54.917,54.917,5.3842,-5.3842,26.92,179.7493,-72.7583,-29.073,
-68.9144,-61.3767,44.1491,91.5277,-79.6828,-86.3822,43.0715,54.9164,8.6143,-8.6143,20.4592,172.2871,-67.8379,-34.4572,
-75.3752,-50.6098,41.9945,88.2966,-64.6828,-80.7599,38.7649,50.6098,11.8444,-11.8444,21.5363,160.4427,-78.6063,-34.4577,
-61.3777,-35.6098,35.5337,82.9124,-49.6828,-65.7599,38.7644,65.6098,13.998,-11.8449,11.8449,174.4402,-76.4522,-25.8429,
-75.3757,-48.4562,43.0715,72.1451,-59.2236,-73.2216,41.995,66.7614,13.998,-11.8449,11.8449,180.9014,-88.2971,-30.1501,
-79.1446,-46.8404,34.9955,81.2976,-69.4527,-66.2231,39.3026,59.7619,6.9995,-6.9995,17.7669,174.9795,-86.6818,-15.1501,
-93.6813,-61.8404,31.2271,73.2221,-61.3772,-81.2231,35.5343,51.6863,7.5373,-7.5373,24.7659,166.9029,-71.6818,-8.6148,
-108.6813,-76.8404,39.8414,59.2241,-76.3772,-96.2231,34.4577,45.2251,13.9985,-13.9985,21.5363,170.1335,-85.0665,-23.6148,
-107.6798,-74.2986,26.92,73.2221,-68.9149,-95.8349,34.4567,48.4557,13.9985,-10.7679,10.7679,174.4407,-97.9885,-24.7669,
-104.4492,-59.2986,22.6128,72.1445,-53.9149,-80.8349,30.1496,45.2251,13.9985,-9.6913,9.6913,164.7498,-87.2201,-15.075,
-109.8329,-71.0685,26.9194,68.9144,-46.3021,-79.6828,20.4592,46.3021,8.6143,-3.2306,3.2306,149.7498,-86.143,-23.6898,
-102.2956,-62.4542,35.5337,71.0685,-59.2236,-69.992,32.3042,51.6858,4.3072,-4.3072,9.6908,137.8299,-101.143,-23.6898,
-117.2956,-57.6083,40.3797,71.6063,-74.2236,-82.3752,47.3042,52.2246,15.6133,-15.6133,24.6908,152.8299,-103.9109,-33.9195,
-110.3717,-51.1476,25.3797,74.8374,-59.2236,-75.9144,32.3042,46.8404,17.7669,-15.6138,15.6138,167.8299,-88.9109,-38.2261,
-95.3717,-41.4572,31.7654,71.6063,-44.2236,-67.3001,34.996,44.6868,12.3827,-10.2296,10.2296,167.4412,-76.991,-25.3052,
-82.3752,-30.6888,42.5327,74.8369,-41.4572,-66.2226,43.6103,50.0705,13.4602,-13.4602,24.2276,162.0575,-86.6823,-24.2276,
-79.144,-27.4582,37.1491,74.8369,-33.9184,-61.9154,29.6123,52.2246,14.5368,-14.5368,30.6888,163.134,-80.2206,-24.2276,
-89.9124,-38.2261,34.9955,73.7598,-43.6108,-61.9159,26.3812,46.8404,13.4597,-13.4597,15.6888,168.5182,-74.8374,-13.4597,
-76.991,-23.2261,31.7659,88.7598,-28.6108,-47.9169,41.3812,57.6088,23.1516,-3.7689,3.7689,180.3631,-74.8374,-4.8454,
-88.2971,-36.6113,30.1501,74.2991,-37.6878,-62.9169,40.9185,54.9164,23.6898,-11.8449,11.8449,172.2871,-89.8374,-19.8454,
-93.1431,-51.6113,36.0725,62.992,-52.6878,-77.9169,30.6878,48.994,14.5368,-14.5368,15.6133,159.9034,-85.6058,-31.7654,
-89.3737,-55.994,25.8429,67.8379,-66.7614,-91.5277,24.7664,40.9185,8.6143,-8.6143,8.6143,150.7513,-75.3757,-21.5358,
-103.9109,-62.9925,20.9975,68.3762,-71.6068,-94.2196,30.6883,30.6883,12.3832,-12.3832,16.6903,156.6733,-80.2211,-32.8424,
-88.9109,-47.9925,22.074,75.9139,-56.6068,-79.2196,37.1496,41.4567,13.4597,-13.4597,16.6903,156.6733,-65.2211,-39.3026,
-76.4527,-44.1486,21.5352,71.068,-52.7629,-77.5292,33.3802,41.9945,11.8444,-11.8444,13.9985,141.6733,-65.6843,-38.7649,
-91.4527,-59.1486,17.2286,71.0685,-67.7629,-92.5292,19.3827,26.9945,11.8449,-11.8449,15.0755,146.4442,-80.6843,-37.6878,
-79.144,-45.7644,22.0745,81.2981,-52.7629,-83.4512,20.997,32.8419,11.3061,-11.3061,13.4602,160.981,-76.991,-32.8419,
-80.2216,-50.071,26.3812,80.2211,-38.2261,-82.3752,32.8424,33.919,12.3832,-11.3067,11.3067,164.2111,-68.3762,-33.919,
-79.6823,-43.072,11.3812,74.2986,-32.3036,-80.7599,27.9965,22.6128,8.6148,-3.2301,3.2301,149.2111,-81.8364,-18.919,
-90.9895,-45.7639,19.921,65.1455,-47.3036,-95.7599,24.2281,18.8434,10.2291,-6.9995,6.9995,134.2111,-82.3752,-15.6138,
-95.2961,-45.7639,28.5353,71.6068,-62.3036,-108.2176,29.6118,25.3046,12.3832,-12.3832,21.9995,146.9825,-79.144,-30.6138,
-80.2961,-30.7639,13.5353,72.6833,-47.3036,-93.2176,24.2271,27.4577,3.7689,-3.7689,18.8434,150.2121,-85.6058,-33.919,
-82.9129,-31.2271,16.1516,65.6843,-46.3027,-78.2176,26.92,23.6893,5.3842,-5.3842,8.6138,142.1365,-83.9905,-21.5363,
-77.5292,-24.7664,31.1516,80.6843,-46.3021,-82.9129,38.7644,29.0735,8.6143,-4.3072,4.3072,157.1365,-68.9905,-19.3817,
-87.2201,-19.3817,27.997,77.5298,-52.7624,-81.8364,41.995,27.997,4.3072,-4.3072,6.4612,166.9034,-71.0685,-27.996,
-96.9114,-34.3817,25.8429,68.9155,-55.993,-91.5272,33.3807,27.997,11.8449,-11.8449,15.0755,161.5197,-86.0685,-33.3807,
-81.9114,-29.6118,22.0751,83.4517,-41.4567,-78.067,24.2281,23.1516,15.6138,-8.076,8.076,162.058,-90.989,-31.7649,
-75.9134,-26.3817,20.998,84.5288,-46.8409,-73.7604,28.5348,17.7674,10.2296,-5.9225,5.9225,152.3667,-93.1425,-36.0725,
-73.7604,-22.0745,23.1511,78.0675,-31.8409,-60.8389,39.3031,31.7654,11.3061,-12.3827,9.1531,150.2126,-82.3747,-23.1511,
-86.6823,-37.0745,37.1496,75.9139,-16.8409,-70.5303,47.9169,31.7649,18.8434,-18.8444,9.1526,165.2126,-69.4537,-9.1526,
-100.6803,-52.0745,47.9174,86.6818,-31.8409,-84.5282,45.7634,32.8419,22.0745,-11.3061,11.3061,180.2126,-69.4532,-16.6909,
-85.6803,-37.0745,32.9174,87.7583,-16.8409,-69.5282,34.995,43.6093,15.6133,-10.2296,10.2296,165.2126,-66.2236,-26.3817,
-89.913,-34.9965,23.1506,72.7583,-8.076,-67.2996,34.9955,28.6093,11.3056,-22.0751,8.076,150.2126,-76.9915,-41.3817,
-75.3757,-36.6113,38.1506,77.5287,-7.5378,-72.1451,35.5337,13.998,16.1521,-15.0755,7.5378,153.9809,-81.8369,-40.9185,
-74.2981,-31.2266,31.2276,78.6063,-11.8449,-57.1451,32.3042,12.9215,13.999,-17.2286,11.8449,144.2911,-72.1451,-40.9174,
-89.2981,-40.3792,33.9189,86.6823,-26.8449,-60.8389,41.4567,27.9215,16.6903,-16.6903,20.9975,144.8294,-57.1451,-39.3026,
-74.2981,-25.3792,31.7659,101.6823,-28.5353,-46.8404,38.2261,36.073,11.3067,-5.9219,5.9975,159.8294,-65.1455,-24.3026,
-59.2981,-10.3792,33.3812,90.4507,-21.5352,-41.9945,43.072,34.4577,6.4607,-6.4607,6.4607,159.3662,-80.1455,-9.6913,
-62.4537,-10.7679,38.7649,83.9905,-36.5352,-48.4557,47.3792,41.9955,10.7679,-10.7679,11.8454,159.3662,-81.8364,-16.1516,
-62.4537,-10.7679,38.7649,78.6068,-31.2271,-50.6088,34.4577,35.5343,11.8454,-12.9209,10.7679,162.5968,-66.8364,-13.9975,
-51.1476,-12.3832,42.5333,79.1446,-20.9975,-55.4547,34.9955,27.4587,11.3067,-11.3067,18.8444,162.058,-73.7604,-12.3832,
-36.1476,-1.6153,27.5333,92.0665,-10.2296,-48.994,40.3797,31.7654,5.9225,-13.4602,3.8444,154.5197,-78.0675,-20.997,
-37.6878,-4.3072,42.5333,97.988,-18.3051,-53.8399,51.6858,41.995,16.1521,-1.0765,1.0765,169.0565,-69.9915,-19.3827,
-52.2246,-19.3072,54.3787,94.2196,-22.0745,-65.1461,42.5338,31.7654,11.3061,-2.6918,2.6918,170.6718,-72.6833,-19.9204,
-38.7649,-4.3077,39.3787,95.8344,-7.0745,-50.1461,36.6108,26.92,-2.1536,-10.7679,2.1536,157.2121,-72.1456,-18.3057,
-36.6108,-1.077,29.073,87.2201,-5.3842,-51.6863,34.4577,25.8434,1.077,-19.3822,7.5373,153.9815,-86.1436,-29.073,
-50.6088,-11.8444,36.6108,88.2976,-11.8444,-52.7629,29.074,29.074,11.8444,-11.8444,11.8444,166.9029,-85.0665,-18.3057,
-65.6088,-25.8429,44.1491,83.99,-24.7664,-62.4532,36.6113,23.6898,4.3072,-9.6908,11.8449,166.9034,-82.9129,-4.3072,
-57.6083,-11.3061,53.3011,88.8359,-9.7664,-47.4532,43.6103,25.3052,-2.6918,-14.5368,10.2296,159.9044,-90.989,1.6153,
-54.3782,-6.9995,38.3011,87.7589,3.7689,-32.8424,28.6103,23.1516,-2.6924,-19.921,2.6924,145.9059,-86.6818,-3.7689,
-69.3782,-17.7674,51.147,87.7583,-11.2311,-47.8424,29.6113,29.6113,10.2296,-12.3837,15.6133,160.9059,-71.6818,-10.2296,
-54.3782,-2.7674,48.4557,88.2976,-7.5373,-40.9179,33.3812,29.074,2.1536,-11.8444,6.4607,157.2121,-61.3772,-25.2296,
-39.3782,0,37.6878,83.99,7.4627,-25.9179,37.6878,19.3817,0,-11.8449,-1.0776,142.2121,-68.9155,-32.3042,
-54.3782,-8.6138,49.5322,86.1436,-4.3066,-40.9179,34.4577,26.92,3.2301,-3.2301,5.3842,150.7519,-57.07,-17.3042,
-67.2996,4.8464,37.1496,81.2986,0.53827,-44.6863,19.4577,32.8424,-11.7699,-14.5363,-0.53827,153.4437,-65.1455,-16.6903,
-52.2996,3.7689,22.1496,71.6068,6.9995,-38.2261,15.6138,19.921,-17.7669,-29.5363,-3.7689,138.4437,-80.1455,-31.6903,
-37.6878,11.8449,8.6143,72.1451,21.9995,-26.9194,27.997,18.3051,-8.6143,-29.0735,-10.7674,128.1391,-65.1455,-33.3807,
-43.071,5.3842,15.075,64.6078,20.4597,-31.2271,27.9965,25.8434,-5.3842,-14.0735,-7.5373,142.1376,-57.07,-18.3807,
-49.5322,-9.6158,19.3832,74.2997,5.4597,-46.2271,25.8434,25.8434,-2.1536,-8.6138,2.1536,157.1376,-59.2231,-18.3046,
-37.1496,-4.8454,9.1526,89.2997,8.076,-45.7639,19.921,24.2281,4.8454,-20.9975,-5.922,155.5968,-44.2231,-15.6138,
-46.3027,-10.7679,20.4587,81.8364,-3.2301,-58.1466,21.5363,24.7659,18.3057,-13.9985,3.2301,146.4437,-37.6883,-22.6128,
-51.6868,-20.4592,5.4587,66.8364,4.3072,-62.4542,6.5363,10.7674,3.3057,-11.8449,0,131.4437,-52.6883,-37.6128,
-36.6868,-5.4592,-1.077,78.6058,17.2291,-47.4542,17.2291,21.5363,1.077,-12.922,6.4607,135.6763,-37.6883,-29.073,
-42.5338,-13.4602,13.923,87.7583,2.2291,-42.5338,31.7654,27.4582,3.7684,-15.6133,1.6153,138.3676,-30.6888,-22.0745,
-40.3797,-6.999,4.8459,92.0655,17.2291,-27.5338,28.5348,31.7654,1.6153,-3.7694,-1.6153,130.8309,-45.6888,-18.8439,
-52.2246,-2.6918,-1.6153,80.2206,19.9204,-23.1511,23.1511,25.3041,1.6153,-13.4602,8.0755,126.5227,-58.6858,-12.3837,
-51.6858,2.1541,4.3072,80.7594,4.9204,-31.2266,16.1521,19.3827,2.1541,-27.997,-2.1541,132.4462,-48.4562,-13.998,
-45.7639,1.6148,3.7689,79.1446,8.076,-32.8424,8.076,20.9975,-1.6148,-19.921,-17.1541,130.8304,-37.1496,-20.9975,
-55.4542,-2.6918,8.0766,75.9144,10.2296,-36.0725,13.4602,33.9195,2.6918,-5.9225,-10.2296,127.6003,-41.4562,-19.9204,
-58.1471,3.2306,3.2306,75.3757,-3.2306,-24.7664,19.3817,36.6103,4.3072,-8.6143,-6.4612,125.985,-45.2256,-22.6133,
-51.6863,-3.2301,16.1526,75.3762,-12.9209,-15.075,32.3036,22.6128,9.6913,-5.3842,3.2301,140.985,-39.8414,-30.1506,
-38.2261,-2.6924,2.6924,70.5303,2.0791,-13.4597,17.3036,10.2301,-3.7689,-6.9995,3.7689,155.985,-41.4567,-22.074,
-53.2261,-5.3837,0,65.6848,0,-28.4597,2.3036,17.2286,-4.3072,-4.3072,9.6908,146.4442,-32.3042,-7.074,
-68.2261,-20.3837,15,69.991,-15,-43.4597,17.3036,23.6888,5.3837,-5.3837,8.6143,142.137,-30.1501,-22.074,
-61.3772,-17.2281,21.5363,84.991,-8.6138,-33.3802,27.9965,35.5343,6.4607,2.1536,-2.1536,157.137,-33.3802,-31.2271,
-46.3772,-2.2281,6.5363,83.99,0,-18.3802,12.9965,26.9205,-1.0765,0,-12.9215,145.3677,-35.5337,-16.2271,
-61.3772,-7.5373,21.5363,83.9905,-15,-33.3802,27.9965,38.7649,10.7679,2.1536,-8.6138,155.059,-20.5337,-2.1536,
-72.1451,-17.2291,36.5363,92.6048,-19.3822,-46.3021,41.9945,46.3027,17.2291,-3.2301,3.2301,166.9029,-18.3057,-17.1536,
-72.6838,-29.6113,21.5363,77.6048,-4.3822,-53.3011,26.9945,31.3027,2.2291,-18.2301,1.6153,151.9029,-33.3057,-32.1536,
-57.6838,-14.6113,6.5363,81.8364,10.6178,-38.3011,11.9945,17.2291,3.2301,-4.3077,-1.077,137.8294,-35.5343,-17.1536,
-53.8404,-21.5368,21.5363,81.8359,-4.3822,-29.0735,26.9945,23.6888,13.998,4.3072,-4.3072,141.0595,-27.997,-22.6133,
-68.8404,-36.5368,36.5363,87.2201,-19.3822,-44.0735,18.3057,25.8434,18.3057,3.2301,-3.2301,153.9815,-42.997,-37.6133,
-67.2996,-32.8419,23.1511,94.2196,-34.3822,-58.6848,5.9225,22.0745,12.3837,5.9225,-5.9225,150.2136,-33.9184,-23.1511,
-64.6078,-33.3812,26.92,85.067,-26.92,-64.6078,20.9225,13.9985,7.5373,1.077,-1.077,149.6743,-19.3822,-23.6893,
-77.5292,-31.2266,39.8419,88.2971,-20.4592,-72.1451,26.9194,16.1521,12.9215,-1.0765,1.0765,159.3656,-29.0735,-24.7664,
-87.2206,-27.997,36.6103,93.6808,-25.8429,-66.7614,16.1521,29.0735,19.3817,-3.2306,3.2306,158.2881,-41.995,-13.999,
-72.2206,-12.997,25.8434,102.2956,-10.8429,-51.7614,18.3057,39.8414,12.9209,-3.2301,3.2301,160.4427,-36.6108,-12.922,
-57.2206,2.003,17.2286,104.4492,1.0765,-36.7614,17.2286,40.9185,-1.0765,-4.3072,-4.3072,148.5973,-30.1501,-20.4592,
-59.2241,-4.3072,32.2286,94.7573,-13.9235,-37.6878,18.3051,35.5337,9.6908,-1.0765,1.0765,151.8279,-21.5358,-22.6133,
-67.8379,-13.998,41.995,95.8349,-28.9235,-48.4557,17.2286,29.0735,15.0755,4.3072,-4.3072,166.8279,-7.5378,-8.6143,
-58.6853,-6.999,42.5338,101.7574,-22.0745,-53.3011,17.7674,32.8419,6.999,4.8459,-4.8459,170.6718,-15.6133,-17.7674,
-69.992,-8.6143,37.6878,103.3716,-23.6898,-53.8399,8.6143,36.6113,3.2306,1.0765,-1.0765,163.6728,-30.6133,-32.7674,
-64.0695,3.7684,22.6878,90.989,-8.6898,-38.8399,-5.9225,23.1511,-1.6153,1.6153,-10.2296,150.2126,-33.9195,-33.9195,
-72.1456,-8.6148,30.1496,87.2201,-23.6898,-37.6883,6.4607,19.3822,9.6903,2.1536,-2.1536,151.8274,-18.9195,-19.3832,
-74.8374,-16.6909,37.1491,102.2201,-38.6898,-46.8409,4.8459,30.6888,16.6898,0.53878,-0.53878,152.3667,-28.5348,-24.2276,
-68.3767,-3.7684,28.5348,103.9104,-23.6898,-34.996,5.9225,27.4582,10.2296,3.7684,-3.7684,145.9054,-36.0725,-16.6898,
-83.3767,-8.0755,36.0725,93.1431,-9.1531,-42.5338,20.9225,17.7674,4.8459,3.7684,-3.7684,146.9819,-26.3817,-9.1531,
-74.8374,-9.1531,28.5348,89.9124,3.7684,-37.1491,6.999,24.2276,2.6918,-2.6918,-8.0755,134.0605,-14.5368,-13.4602,
-75.3757,-16.1521,33.3807,86.1441,-10.7684,-33.3807,6.4612,32.3042,9.6908,-4.3072,1.0765,137.8299,-1.0765,-12.9215,
-90.3757,-27.4577,32.8424,90.9895,-25.7684,-39.3026,13.4607,31.7659,6.9995,-0.53827,0.53827,152.8299,-5.9219,-23.1506,
-95.2961,-26.3812,24.2281,93.1425,-40.7684,-43.6098,4.8454,23.1506,3.7689,1.6148,-1.6148,154.5202,-20.9219,-38.1506,
-89.9124,-34.996,26.3817,80.2206,-32.8429,-58.6098,2.6918,8.1506,5.9225,-2.6918,8.0755,139.5202,-32.8429,-46.8409,
-85.6048,-43.6098,24.2281,75.9139,-43.6098,-67.2996,3.7689,15.6138,3.7689,-3.7689,5.923,143.7518,-25.3046,-47.9169,
-83.4517,-41.4562,32.8419,82.3747,-52.2246,-74.8374,1.6153,30.6138,9.1531,0.53878,-0.53878,154.5197,-23.1511,-34.996,
-68.4517,-26.4562,33.9195,90.989,-37.2246,-59.8374,3.7684,37.1491,13.4602,12.3827,-3.7684,151.2891,-10.2296,-19.996,
-81.8369,-26.9205,23.6888,77.5287,-37.6878,-44.8374,4.3072,22.1491,8.6143,7.5367,-4.3072,136.2891,-16.1521,-18.3062,
-96.8369,-40.9185,36.6113,79.6828,-52.6878,-59.2236,3.2306,17.2286,11.8449,-3.2306,4.3072,145.3677,-26.9194,-32.3042,
-81.8369,-25.9185,42.5333,94.6828,-37.6878,-48.9945,6.9995,25.3046,16.6903,1.6148,-1.6148,160.3677,-16.6903,-24.2281,
-76.991,-25.3046,43.6098,93.1425,-52.6878,-62.993,11.3056,25.3046,13.4597,3.7689,-3.7689,150.2121,-22.075,-24.2281,
-86.1436,-31.2276,43.0715,92.6043,-49.5328,-53.8399,0,40.3046,11.8449,2.1531,0,148.5973,-29.0735,-20.4592,
-71.1436,-16.2276,41.4572,99.6033,-34.5328,-38.8399,6.999,45.7644,20.998,8.0765,-6.999,151.2901,-18.8439,-24.2276,
-79.1446,-31.2276,56.4572,92.0655,-49.5328,-53.8399,21.999,30.7644,28.5348,5.9225,-5.9225,153.4432,-13.4602,-39.2276,
-78.6058,-46.2276,44.1491,92.6043,-45.2256,-68.8399,16.1521,17.2286,13.998,-1.0765,1.0765,152.9044,-16.1521,-45.2256,
-73.7604,-36.0725,31.7654,87.7594,-30.2256,-53.8399,1.1521,15.6133,3.7694,1.6153,14.5368,143.7524,-23.1511,-30.2256,
-83.99,-38.7644,32.3042,82.9134,-29.0735,-61.3777,-1.0765,16.1521,1.0765,2.1531,5.3837,130.2921,-25.8429,-29.0735,
-77.5292,-32.3042,32.3042,91.5277,-27.997,-62.4542,4.3072,27.997,7.5378,11.8449,-4.3072,136.7534,-16.1521,-18.3051,
-92.5292,-44.6868,31.7654,78.0675,-37.1501,-58.6858,2.6918,22.0735,6.999,12.3827,-2.6918,151.7534,-31.1521,-18.8439,
-87.2201,-34.4577,32.3036,82.9129,-29.073,-49.5322,6.4607,25.8434,5.3842,18.3057,-5.3842,161.5192,-29.073,-24.7659,
-84.5282,-24.2281,43.6098,88.8354,-25.3046,-62.9925,14.5373,31.7659,8.076,23.1516,-9.1526,155.5968,-14.073,-17.7669,
-94.2196,-39.2281,47.9169,85.6048,-40.3046,-69.4532,9.1526,30.6883,11.3067,17.7669,-9.1526,160.9804,-20.9975,-10.2291,
-79.2196,-25.3046,32.9169,88.8354,-37.1496,-54.4532,3.7689,27.4577,13.4597,19.921,-3.7689,156.6733,-26.3812,-8.076,
-72.1451,-24.7664,20.4592,73.8354,-35.5337,-57.0695,0,13.998,4.3072,12.9215,0,141.6733,-27.997,-18.3051,
-77.5287,-23.6893,30.1506,80.7599,-45.2251,-64.6073,2.1536,26.92,8.6148,13.9985,-2.1536,143.2141,-23.6893,-11.8444,
-86.1436,-35.5348,37.6878,86.143,-60.2251,-63.5313,3.2306,35.5337,12.9215,12.9215,-3.2306,142.137,-30.1501,-22.6133,
-101.1436,-48.4562,26.92,78.6058,-69.992,-77.5292,1.077,24.7659,10.7679,12.9209,-1.077,134.5988,-38.7649,-36.6108,
-102.8339,-33.9195,25.3041,93.1431,-56.5318,-83.4517,5.9225,26.3817,8.0755,13.4602,-5.9225,144.8289,-23.7649,-21.6108,
-107.1405,-36.0725,40.3041,101.7574,-53.3011,-84.5282,14.5368,30.6888,3.7694,2.6918,-18.8439,155.5973,-13.4592,-6.6108,
-92.1405,-21.0725,40.9185,113.0635,-38.3011,-69.5282,15.0755,45.2256,5.3837,17.2286,-13.998,155.0585,-20.4592,-6.4602,
-77.1405,-6.0725,25.9185,100.1415,-23.3011,-54.5282,7.5373,45.2251,-4.3077,21.5363,-3.2301,140.0585,-35.4592,-6.4607,
-90.989,-17.7674,34.996,94.2196,-38.3011,-39.5282,14.5368,39.3031,-3.7684,8.0766,1.6153,135.138,-37.1491,-1.6153,
-81.2981,-4.8464,26.3812,103.9099,-23.3011,-27.4587,12.3832,38.2261,0.53827,5.9219,-8.076,134.061,-29.6118,-0.53827,
-89.3742,0,17.2286,93.6808,-23.6898,-38.7644,0,32.3042,0,6.4602,-12.9215,121.6778,-44.6118,-15.5383,
-91.5272,-2.1536,27.9965,95.8354,-23.6893,-53.7644,2.1536,37.6883,6.4607,11.8454,-6.4607,121.6783,-59.6118,-25.8424,
-83.4517,-5.923,31.7649,89.9119,-22.074,-48.9945,8.076,37.1496,3.7689,17.7669,-3.7689,131.9069,-52.2246,-18.8444,
-90.4507,-13.998,31.2266,83.99,-37.074,-51.6863,17.2286,26.9194,3.2306,21.5358,-3.2306,145.3677,-54.9164,-15.0755,
-86.6823,-8.0766,24.2276,92.0655,-29.6123,-55.4552,17.7664,22.0735,6.999,22.0735,-11.3061,141.5983,-67.3001,-6.999,
-101.6823,-23.0766,35.5343,80.7599,-44.6123,-70.4552,15.075,13.9985,9.6913,19.3822,-9.6913,126.5983,-67.8379,-19.3822,
-116.6823,-38.0766,40.3797,76.991,-59.6123,-85.4552,11.3061,18.8439,5.9225,15.6133,-5.9225,139.4452,-52.8379,-33.9184,
-119.5237,-36.6103,25.8429,82.9134,-44.6123,-78.6058,13.999,25.8429,4.3072,9.6919,-4.3072,150.7513,-48.4552,-25.8429,
-121.1395,-51.6103,25.3041,76.991,-46.8409,-79.1446,9.1531,11.3061,5.9225,1.6153,-1.6153,135.7513,-63.4552,-26.3817,
-110.9104,-39.8414,36.6108,76.4517,-39.8414,-75.3762,9.6903,12.9209,6.4607,7.5373,-6.4607,128.1385,-53.8404,-24.7669,
-121.6778,-44.1486,40.9179,82.9129,-50.6093,-86.1436,21.5363,22.6128,10.7679,8.6148,-8.6148,143.1385,-38.8404,-25.8434,
-122.7549,-46.3027,26.9194,97.9129,-55.9935,-76.4527,15.0745,24.7664,10.7674,8.6143,-8.6143,156.135,-53.8404,-24.7664,
-113.6023,-31.3027,25.3046,101.7569,-40.9935,-61.4527,3.7689,22.074,8.076,16.6903,-3.7689,141.135,-68.8404,-15.6138,
-128.6023,-46.3027,25.3046,86.7569,-36.073,-76.4527,4.8454,7.074,-0.53827,6.9985,0.53827,126.135,-75.9145,-26.3822,
-113.6023,-37.6878,22.6123,80.7594,-21.073,-63.5313,16.1521,15.0745,-2.1541,10.7674,1.0765,123.8309,-60.9145,-11.3822,
-98.6023,-33.9195,32.8419,81.2981,-20.998,-48.5313,26.3817,12.3827,1.6153,12.3827,-5.9225,131.9074,-51.1481,-1.6153,
-109.2946,-48.9195,37.1491,84.5288,-35.998,-63.5313,25.3052,6.999,11.3061,12.3837,-6.999,137.2911,-58.6853,-16.6153,
-94.2946,-42.5333,24.2281,87.7589,-39.3026,-78.5313,17.7679,8.076,16.6903,19.921,-8.076,141.5988,-51.1476,-23.1506,
-79.2946,-29.6118,30.6894,83.4517,-39.3026,-63.5313,16.6903,8.076,16.6903,20.9975,-8.076,136.2151,-66.1476,-13.4597,
-69.9915,-18.3051,34.4582,85.0675,-36.6103,-52.7629,13.999,8.6143,13.999,12.9215,-8.6143,121.2151,-81.1476,-17.2286,
-84.5282,-31.7654,27.4582,73.7604,-46.8409,-67.7629,15.6133,5.9225,9.1531,6.999,-5.9225,117.9084,-71.6068,-16.6909,
-95.2966,-36.073,27.4577,78.067,-53.3016,-82.7629,24.2281,3.7689,8.076,17.7669,-3.7689,132.9084,-56.6068,-12.3832,
-82.3747,-21.073,30.6883,93.067,-38.3016,-67.7629,23.1516,3.7689,11.3067,26.3812,-3.7689,141.5988,-59.7619,-5.9219,
-97.3747,-33.3807,33.3807,80.7594,-53.3016,-80.7599,16.1521,4.3072,7.5378,11.3812,-4.3072,129.2156,-74.7619,-18.3062,
-112.3747,-48.3807,31.2266,78.6053,-68.3016,-95.7599,16.1521,15.0745,8.6143,9.6908,-8.6143,133.5217,-69.992,-24.7664,
-125.9855,-38.7649,32.3036,78.6058,-66.7614,-87.2206,17.2281,10.7679,10.7679,20.4587,-10.7679,132.4457,-63.5313,-15.075,
-116.8324,-33.9195,32.8419,79.144,-51.7614,-84.5282,19.9204,0.53878,12.3827,20.997,-0.53878,131.9074,-78.5313,-1.6153,
-109.8334,-41.9955,17.8419,82.9129,-43.072,-90.4512,19.3822,-2.1536,9.6903,19.3822,2.1536,125.9845,-69.992,-9.6913,
-124.8334,-56.9955,29.6123,78.0675,-58.072,-105.4512,22.0745,-2.6918,9.1531,16.6909,2.6918,120.0625,-54.992,-24.6913,
-125.4467,-41.9955,44.6123,81.2981,-51.1481,-90.4512,14.5368,9.1531,10.2296,14.5368,-9.1531,130.8309,-60.8389,-15.6133,
-115.7559,-27.4587,34.9955,74.8364,-42.5333,-75.4512,12.3832,10.2291,3.7689,9.1526,-13.4607,122.2161,-75.8389,-3.7689,
-113.063,-35.5343,48.4562,78.6063,-43.0715,-90.4512,27.3832,4.3072,6.4612,8.6143,-4.3072,107.2161,-74.2986,-12.9215,
-104.9875,-20.9975,51.1476,88.8354,-28.0715,-75.9139,26.3812,12.3832,12.3832,20.9975,-12.3832,109.2946,-68.3762,-25.3046,
-119.9875,-32.8419,54.3782,78.068,-37.1491,-70.5297,27.4587,8.076,20.9975,28.5353,-8.076,124.2946,-75.9139,-30.6883,
-114.1406,-33.3807,62.4537,79.6823,-40.9185,-85.067,33.3802,2.1536,21.5363,21.5363,-2.1536,139.2946,-72.1456,-18.3057,
-99.1406,-18.3807,51.1481,82.3747,-25.9185,-76.9905,27.4582,4.8459,8.0766,14.5368,-4.8459,129.7533,-67.2996,-9.1531,
-95.2961,-17.7674,47.9174,82.3747,-26.3817,-65.1461,19.9204,-0.53878,6.999,17.7674,0.53878,123.2931,-70.5297,-22.0745,
-92.066,-2.7674,46.8404,95.2966,-14.5373,-51.1481,20.9975,-1.6158,21.999,28.5353,0.53827,131.9069,-62.9925,-8.076,
-107.066,-12.9215,35.5337,80.7594,-25.8429,-66.1481,22.6123,-5.3837,17.2286,21.5358,-6.4612,116.9069,-77.9925,5.3837,
-108.2176,-18.8439,32.8429,74.8379,-19.9205,-69.4532,23.1511,-1.6153,6.999,17.7674,-1.6153,111.4482,-81.2976,1.6153,
-93.2176,-6.9985,33.9189,82.3752,-4.9205,-54.4532,14.5373,-0.53827,11.3067,15.6138,-0.53827,115.7559,-66.2976,0.53827,
-80.2211,-21.9985,40.3792,80.2211,-19.9205,-65.1461,14.5363,-1.6158,26.3067,20.9975,-0.53827,122.2161,-56.5318,0.53827,
-95.2211,-36.9985,32.8424,78.068,-29.6118,-80.1461,16.6903,-5.922,26.3822,23.1516,-3.7689,116.8324,-69.4527,3.7689,
-107.141,-47.9174,44.6863,80.2211,-28.5353,-95.1461,22.074,-9.1526,12.3832,14.5363,-0.53827,114.6783,-69.4532,0.53827,
-92.141,-32.9174,52.7629,87.2201,-30.1496,-80.1461,16.1526,1.077,10.7679,20.4597,-1.077,129.6783,-66.7609,-7.5373,
-95.8349,-22.6128,38.7639,89.3742,-27.9965,-65.1461,9.6913,5.3842,12.9209,29.073,-5.3842,130.2916,-74.2991,-8.6148,
-110.8349,-37.6128,48.9945,88.8354,-32.8419,-80.1461,18.8444,-4.8454,15.6138,20.9975,4.8454,135.1375,-76.9905,-6.9985,
-95.8349,-28.5348,42.5338,87.7583,-17.8419,-65.1461,11.3061,-14.5368,8.0755,11.3061,-1.6153,131.9074,-79.1446,1.6153,
-80.8349,-13.5348,31.7654,79.144,-11.3061,-50.1461,11.3061,-12.3837,5.9225,5.9225,-5.9225,116.9074,-73.7604,6.999,
-65.8349,-0.53827,34.9955,82.3752,-3.7689,-42.5333,14.5373,-0.53827,10.2301,6.9995,0.53827,113.6018,-58.7604,-4.8454,
-50.8349,7.5373,20.4587,76.4527,11.2311,-27.5333,2.1536,-13.9985,-2.1536,6.4607,-6.4607,102.2956,-52.7629,-12.922,
-35.8349,-1.077,29.073,66.7609,13.9985,-15.075,15.075,-17.2291,1.077,13.9985,-5.3842,102.2956,-67.7629,-3.2301,
-35.5337,0,25.8429,71.0685,-1.0015,-12.9215,16.1521,-2.2291,1.0765,19.3827,-16.1521,111.987,-72.1451,0,
-44.1481,-1.0765,26.9194,81.8369,-16.0015,-19.3827,10.7684,-3.2306,2.1541,17.2286,-8.6143,117.3707,-57.1451,1.0765,
-40.919,-4.3077,31.2271,79.6823,-2.1536,-25.8434,13.9975,-13.9985,8.6138,8.6138,-6.4607,114.1395,-61.3777,2.1536,
-30.1501,-12.9215,22.6123,65.6848,9.6908,-25.8429,9.6908,-4.3072,7.5378,4.3072,-21.4607,99.1395,-68.9149,-10.7684,
-32.3036,-26.92,32.3036,76.4517,-5.3092,-32.3036,13.9985,9.6913,12.9209,17.2281,-9.6913,102.2956,-53.9149,-9.6913,
-22.6123,-11.92,17.3036,82.9134,8.6143,-17.3036,2.1541,-5.3087,0,13.999,-11.8449,100.1421,-40.9185,0,
-8.0766,3.08,2.3036,68.3767,23.6143,-2.3036,-6.999,-20.3087,-12.3837,4.8449,-26.8449,85.1421,-55.9185,1.6153,
-0.53827,4.8454,-5.9219,61.9159,38.6143,10.2291,-16.6903,-16.6903,-17.7669,0.53827,-38.2261,70.1421,-64.069,4.8454,
4.8454,19.8454,-19.921,57.6088,53.6143,25.2291,-25.3046,-16.6903,-23.1506,-4.8454,-44.6873,55.4547,-56.5312,11.3067,
0,31.2276,-4.921,52.7634,63.5307,22.6133,-10.3046,-18.3051,-9.6908,0,-41.995,55.993,-51.6858,1.0765,
7.5378,29.0735,-6.4612,65.6838,68.9144,24.7664,1.0765,-19.3827,-13.998,-1.0765,-43.0715,57.0695,-43.0715,-13.9235,
22.5378,44.0735,-4.8454,74.8374,83.9144,39.7664,-3.7689,-11.3056,-11.3056,3.7689,-28.5353,60.8394,-28.0715,-4.8454,
34.9955,59.0735,3.7689,60.8384,88.8354,54.7664,-13.4597,-14.5363,-10.2291,-3.7689,-20.9975,61.916,-29.6118,-5.9219,
49.9955,74.0735,-1.077,66.7619,103.8354,69.7664,-15.075,-10.7679,-13.9985,1.077,-24.7659,62.4547,-35.5343,-2.1536,
56.5318,89.0735,-5.9225,62.993,88.8359,66.2226,-10.2296,-16.6898,-17.7674,2.6918,-36.0725,54.3777,-44.6868,-2.6918,
68.9149,104.0735,-3.2301,72.1456,88.2966,61.3772,-12.922,-13.9985,-9.6913,3.2301,-43.072,54.9159,-47.3792,-9.6913,
83.9149,119.0735,-4.3072,76.4532,103.2966,76.3772,-21.5358,-5.3837,-5.3837,4.3072,-45.2246,57.0705,-46.3021,-9.6908,
79.1446,134.0735,-0.53827,68.3762,88.2966,72.6833,-20.9975,-2.6924,-10.2291,0.53827,-40.3802,61.9159,-59.7619,-1.6148,
64.1446,134.5993,1.0765,69.991,73.2966,57.6833,-20.4592,-1.0765,-16.1521,-5.3837,-34.4572,60.3001,-58.1471,-3.2306,
49.1446,121.6778,4.3072,65.6848,58.2966,42.6833,-16.1521,-4.3072,-9.6908,-5.3837,-29.0735,71.0685,-43.1471,-18.2306,
48.4557,127.061,-6.4607,72.1445,60.3006,52.7629,-20.4597,-6.4607,-8.6148,6.4607,-44.0735,77.5292,-32.3047,-17.2291,
36.6103,112.061,-21.4607,73.2216,57.0695,40.9174,-24.7664,-6.4612,-18.3062,4.3072,-53.8399,62.5292,-47.3047,-4.3072,
21.6103,97.061,-6.4607,64.6073,42.0695,25.9174,-11.8449,0,-8.6143,0,-38.8399,63.5307,-50.6093,-12.9215,
23.1516,82.061,0.53827,59.7619,30.6894,10.9174,-23.1506,-1.6148,-8.076,-0.53827,-38.2261,66.2231,-35.6093,-12.3832,
11.3067,67.061,-0.53827,59.7619,28.5353,14.5363,-29.6118,-12.3832,-6.9995,0.53827,-37.1496,58.6853,-45.7639,-1.6148,
-3.6933,52.061,10.2296,69.4532,17.7674,1.6153,-24.2276,-18.8439,0.53878,-0.53878,-27.4582,58.6848,-56.5318,-10.2296,
-9.6913,37.061,-3.2301,67.8374,23.6893,7.5373,-25.8434,-15.075,4.3066,3.2301,-30.1506,60.3006,-47.3792,-10.7679,
-22.0735,22.061,11.7699,60.8389,8.6893,-5.9225,-13.4592,-6.999,15.6143,17.7674,-19.9204,75.3006,-32.3792,-2.6918,
-19.3822,23.6904,15.0761,67.8384,2.1536,-15.075,-16.1516,-4.3066,7.5383,13.9985,-27.9965,89.3742,-30.1496,-2.1536,
-9.1526,27.4577,13.4597,76.9905,6.9985,-9.1526,-12.3832,0.53827,-0.53827,1.6148,-18.8444,84.5282,-40.3802,-1.6158,
-18.8444,18.8434,28.4597,76.9905,-8.0015,-18.8444,-1.6148,1.6148,6.9995,5.922,-9.1526,94.2191,-42.5333,-4.8454,
-26.3817,15.6133,41.4562,74.8369,-17.7674,-32.8419,-2.6918,2.6918,14.5368,16.6898,-17.7674,93.1431,-29.6123,-5.9225,
-11.3817,18.3046,36.6108,81.8364,-2.7674,-24.7669,-5.3842,2.1536,12.9209,17.2281,-9.6913,91.5272,-21.5363,-7.5383,
3.6183,33.3046,21.6108,67.8384,12.2326,-9.7669,-20.3842,-12.8464,-2.0791,2.2281,-22.6128,83.9905,-36.5363,-12.922,
12.3827,33.9184,6.6108,60.8389,27.2326,-1.6153,-17.7674,-5.9225,-5.9225,3.7684,-18.8439,80.2206,-39.3031,-1.6153,
-2.6173,18.9184,21.6108,69.992,12.2326,-16.6153,-11.8449,4.3072,9.0775,7.5378,-10.7674,80.7594,-24.3031,-10.7674,
-8.6143,8.6143,29.0735,75.3757,4.3072,-31.6153,-15.0755,-4.3072,5.3837,17.2286,-16.1521,92.6043,-21.5358,-18.3051,
3.2306,9.6908,14.0735,69.992,8.6143,-17.2286,-12.9215,-9.6908,-3.2306,17.2286,-22.6123,93.6808,-36.5358,-7.5378,
0.53827,9.1526,-0.92647,72.6833,9.1526,-8.076,-22.074,-0.53827,-9.1526,6.9995,-30.6883,78.6808,-44.6873,5.9219,
-14.4617,-2.6918,14.0735,76.991,-5.8474,-23.076,-14.5368,3.7684,3.7684,8.0755,-17.7674,83.4512,-29.6873,2.6918,
-25.3046,-3.7689,29.0735,91.991,-20.8474,-38.076,0.46323,5.923,18.7684,18.8444,-2.7674,98.4512,-14.6873,-4.8454,
-12.3837,9.1521,14.0735,95.2961,-5.8474,-28.5348,-14.5368,-2.6918,3.7684,6.999,-13.4602,89.9124,-28.5348,-9.1531,
-15.0745,6.4612,9.6908,80.7594,4.3072,-18.3051,-8.6143,-1.0765,0,2.1541,-7.5378,74.9124,-37.6878,0,
-17.2286,0,20.4592,74.2991,-9.6908,-27.997,-3.2306,3.2306,5.3837,0,-13.998,73.2216,-35.5348,1.0765,
-13.4602,0.53878,17.7674,69.4532,-5.9225,-25.3052,-8.0755,3.7684,0.53878,-0.53878,-24.2276,75.9144,-20.5348,4.8459,
-15.6133,8.0755,15.6133,73.7604,0.53878,-18.8439,-3.7684,4.8459,-4.8459,2.6918,-9.2276,78.0675,-16.6909,-0.53878,
-4.3077,23.0755,8.6138,79.6823,15.5388,-10.7679,-3.2301,5.3842,-6.4607,3.2301,-12.922,77.5292,-25.8434,-13.9985,
-16.1516,9.6913,19.3822,68.9149,0.53878,-25.7679,3.2301,7.5373,-3.2301,5.3842,-23.6893,89.3742,-18.3057,-13.9985,
-31.1516,-4.3072,20.4592,74.2991,-14.4612,-36.6113,2.1541,16.1521,-2.1541,12.9215,-16.1521,101.2186,-10.7684,1.0015,
-31.2266,-1.0765,11.8449,73.2226,-16.1521,-34.4572,-8.6143,3.2306,1.0765,8.6143,-17.2286,89.3737,-21.5358,7.5378,
-22.0745,-2.6918,25.3041,72.6838,-8.0755,-40.3797,0.53878,0.53878,13.4602,9.1531,-19.9204,96.3727,-14.5368,-0.53878,
-15.6138,-1.6148,10.3041,69.4537,6.9245,-33.9189,0.53827,2.6924,0.53827,-0.53827,-28.5353,89.9119,-14.5363,-6.9995,
-30.6138,-4.8454,15.6138,67.2996,-8.0755,-44.6863,4.8454,4.8454,11.3067,4.8454,-13.5353,94.2201,-14.5363,-10.2291,
-45.6138,-19.8454,30.6138,75.3752,-23.0755,-59.6863,3.2301,8.6138,17.2291,9.6913,-3.2301,109.2201,-13.9985,-10.7679,
-60.6138,-34.8454,39.3031,85.6053,-38.0755,-69.4532,4.8459,10.2296,2.6918,3.7684,-13.4602,110.3717,-28.5353,-2.6918,
-75.6138,-49.8454,45.7644,84.5288,-53.0755,-84.4532,12.3837,4.8459,8.0766,1.6153,-1.6153,118.986,-43.5353,-12.3832,
-90.6138,-64.8454,46.3019,95.8346,-68.0755,-99.4532,3.2304,15.0753,18.3059,4.3069,-3.2304,119.5245,-37.6876,-25.8432,
-86.6818,-57.6083,50.0715,98.5267,-83.0755,-103.9104,4.8454,23.1511,14.5368,2.6918,-2.6918,108.2176,-26.3812,-27.4582,
-72.6836,-53.3014,53.3014,89.9127,-72.6836,-88.9104,9.1533,12.3829,10.2299,3.7686,-3.7686,112.525,-28.535,-16.6901,
-86.6818,-62.9925,53.3016,89.9119,-87.6836,-97.4497,11.3067,10.2301,18.8444,4.8454,-4.8454,121.1395,-31.7654,-4.8454,
-101.6818,-77.9925,52.2241,83.4517,-102.6836,-112.4497,13.4597,11.3061,20.9975,0.53827,-0.53827,121.1395,-46.7654,-19.8454,
-104.9872,-78.0673,37.2241,84.5285,-117.6836,-127.4497,0.53852,6.9998,8.0763,8.0763,-0.53852,118.9857,-46.8407,-24.2279,
-93.6808,-68.9144,46.3027,87.2201,-118.4472,-117.3701,-2.1536,4.3072,11.8454,11.8454,2.1536,119.5242,-31.8407,-19.3822,
-108.6808,-83.9144,61.3027,84.5282,-133.4472,-132.3701,8.076,14.5368,25.3046,3.7689,-3.7689,126.5232,-46.8407,-32.8424,
-103.3724,-82.9132,51.6866,83.9897,-145.3674,-143.2133,7.5375,20.459,19.3824,9.6911,-7.5375,132.4459,-43.0718,-35.534,
-94.2193,-80.2213,52.2249,80.2208,-138.3679,-128.6771,0.53852,10.2299,6.9992,11.3064,-0.53852,132.9842,-58.0718,-30.6886,
-102.8336,-90.9892,55.455,83.452,-144.8286,-131.9072,1.6151,12.3829,9.1528,11.3064,-1.6151,139.4449,-73.0718,-24.2279,
-117.8336,-105.9892,56.5315,70.5295,-159.8286,-146.9072,2.6921,13.46,12.3829,4.8457,-2.6921,139.4449,-88.0718,-30.6886,
-132.8336,-120.9892,61.3777,71.0685,-174.8286,-161.9072,-1.077,5.3842,12.9215,3.2306,1.077,137.8299,-103.0718,-40.9179,
-137.8294,-122.7543,57.0705,85.0665,-159.8286,-176.9072,0,5.3842,17.2286,15.075,0,143.2136,-118.0718,-41.995,
-127.6003,-112.5252,56.5318,81.2981,-144.8286,-179.2861,8.076,5.9225,16.6903,9.1526,-5.9225,153.4432,-133.0718,-42.5333,
-112.6003,-97.5252,57.6085,92.0658,-129.8286,-164.2861,14.5365,14.5365,15.6136,5.9222,-5.9222,145.9057,-148.0718,-27.5333,
-97.6003,-93.6808,50.6093,80.7594,-114.8286,-149.2861,4.3072,8.6143,16.1521,5.3842,-4.3072,130.9057,-163.0718,-16.1516,
-112.6003,-108.6808,50.6095,73.2218,-129.8286,-157.2118,-1.0768,1.0768,23.6901,1.0768,1.0768,115.9057,-178.0718,-31.1516,
-97.6003,-93.6808,44.1486,87.2201,-114.8286,-142.2118,6.4607,9.6913,26.92,2.1536,-2.1536,123.8314,-193.0718,-27.9965,
-87.7589,-78.6808,41.4567,79.1446,-99.8286,-127.2118,12.3832,9.1526,24.2281,1.6153,-1.6153,110.3712,-208.0718,-12.9965,
-81.8359,-85.0665,34.4572,76.4522,-84.8286,-121.6773,6.4612,7.5378,17.2286,0,0,111.987,-223.0718,-23.6893,
-69.4532,-70.5297,32.8424,71.6068,-69.8286,-106.6773,4.8454,11.3067,15.6138,-0.53827,0.53827,114.6783,-238.0718,-23.1511,
-84.4532,-58.6853,41.4572,65.1461,-58.6853,-91.6773,6.999,6.999,19.9204,5.9225,-5.9225,108.2176,-253.0718,-17.7669,
-69.4532,-43.6853,38.2266,80.1461,-43.6853,-76.6773,9.1531,13.4602,29.6113,20.9225,-9.1531,111.4482,-268.0718,-17.7674,
-57.07,-43.0715,30.1501,74.2991,-46.3021,-79.6828,3.2306,5.3837,20.4592,15.0755,-3.2306,113.0635,-283.0718,-23.6893,
-57.07,-35.5343,32.3042,71.0685,-33.3807,-73.2221,-3.2306,9.6908,18.3051,10.7684,3.2306,115.2176,-298.0718,-8.6893,
-61.9159,-23.1511,29.6118,68.3762,-48.3807,-59.7624,-0.53827,23.1506,23.1506,14.5363,-9.1526,109.2946,-313.0718,0.53827,
-73.2224,-32.3039,41.9942,74.2984,-63.3807,-69.9917,8.6146,26.9197,26.9197,12.9217,-8.6146,122.7546,-328.0718,-14.4617,
-58.2224,-17.3039,29.0735,87.2206,-48.3807,-54.9917,0,20.4592,12.9215,4.3072,0,120.6013,-324.1155,-23.6898,
-43.2224,-2.3039,24.2281,82.3752,-33.3807,-39.9917,-0.53827,17.7679,2.6924,0.53827,-5.9219,105.6013,-316.0389,-8.6898,
-49.5328,-2.1536,29.073,75.3752,-48.3807,-30.1506,-4.3077,17.2291,4.3066,2.1536,-20.9219,102.2956,-317.6543,3.2301,
-53.8399,2.1536,29.073,79.6823,-44.1491,-34.4577,-3.2311,20.4587,18.3057,5.3832,-17.2291,117.2956,-302.6543,-2.1536,
-54.9164,-11.8449,34.4572,74.2991,-31.2271,-49.4577,1.0765,18.3051,25.8429,-1.0765,-2.2291,120.6013,-287.6543,-10.7684,
-41.995,-6.4612,36.6113,78.6063,-22.6128,-34.4577,-4.3072,21.5358,23.6898,9.6908,0,109.8329,-272.6543,0,
-56.5323,-21.4612,41.4562,79.144,-37.6128,-44.6873,1.6153,12.3827,24.2276,13.4592,-10.2301,118.986,-269.7373,-1.6153,
-49.5328,-36.4612,38.7649,77.5292,-40.9185,-55.9935,10.7679,10.7679,34.4577,5.3842,-8.6148,116.2936,-258.4307,-5.3842,
-34.5328,-21.4612,32.8424,70.5303,-25.9185,-40.9935,-0.53827,19.921,34.9955,9.1526,0.53827,101.2936,-243.4307,-0.53827,
-49.5328,-23.6893,35.5343,66.7619,-37.6873,-39.8409,-11.8444,16.1526,26.92,10.7679,6.4607,101.2191,-237.9709,-6.4607,
-46.8404,-8.6893,27.4582,75.9145,-25.3041,-24.8409,-5.9225,15.6143,24.2286,16.6909,2.6918,110.3717,-238.5097,-2.6918,
-56.5318,3.7684,28.5348,61.9154,-26.3817,-28.5348,-3.7684,9.1531,19.9205,14.5368,-5.9225,96.3737,-224.5117,-10.2296,
-71.5318,-9.6913,43.5348,69.991,-41.3817,-43.5348,3.2306,16.1521,29.0735,20.4592,-3.2306,111.3737,-212.1285,-11.8449,
-59.7619,-5.9225,43.6103,84.991,-39.3031,-50.071,1.6153,19.9204,33.9195,30.6888,-1.6153,126.3737,-204.0525,-2.6918,
-66.2226,-5.9225,37.1491,76.991,-32.8419,-44.6868,-10.2296,6.999,28.5348,26.3817,5.9225,112.5247,-189.0525,-16.6898,
-59.7619,-3.7684,31.7654,72.6838,-26.3817,-45.7639,-6.999,3.7684,24.2276,27.4582,10.2296,113.6023,-174.0525,-19.9204,
-59.2236,-18.3057,24.7669,59.2241,-41.3817,-60.7639,-3.2301,3.2301,26.92,31.2271,3.2301,114.1406,-159.0525,-8.6138,
-64.6073,-18.3057,26.92,64.6078,-50.6093,-62.4537,-12.9209,3.2301,23.6893,31.2271,5.3842,109.8334,-144.0525,-3.2301,
-60.8389,-5.9225,25.3052,79.144,-51.1476,-48.994,-22.0745,0.53878,9.1531,16.2271,0.53878,104.988,-129.0525,-11.3061,
-75.8389,-20.9225,36.6108,68.9139,-66.1476,-63.994,-7.0745,4.3066,16.1516,2.1536,-2.1536,109.8324,-114.0525,-24.7669,
-87.2201,-33.3807,32.3036,68.9149,-65.6843,-76.4522,-11.8444,11.8444,18.3057,15.075,-13.9985,104.4487,-99.0525,-17.2281,
-72.6838,-19.921,17.3036,68.3762,-50.6843,-61.4522,-26.8444,0.53827,3.3057,5.9219,-19.921,89.4487,-84.0525,-2.2281,
-69.991,-18.3046,27.9975,66.7619,-54.9159,-46.4522,-17.2281,-2.1536,12.922,2.1536,-4.921,91.5283,-69.0525,4.3077,
-84.991,-30.1506,35.5343,59.2231,-69.9159,-50.6098,-22.6133,6.4607,24.7659,9.6903,-9.6913,99.065,-54.0525,-6.4607,
-99.991,-45.1506,27.4587,51.1476,-74.8369,-65.1461,-37.6133,-0.53827,9.7659,0.53827,-20.9975,93.1425,-39.0525,0.53827,
-84.991,-30.1506,16.6898,66.1476,-59.8369,-50.1461,-37.1501,-2.6918,6.999,2.6918,-5.9975,102.8339,-24.0525,15.5383,
-69.991,-15.1506,9.1531,54.3777,-44.8369,-37.1491,-27.4582,-4.8459,13.4602,2.6918,1.6153,88.8359,-9.0525,0.53827,
-84.991,-30.1506,24.1531,47.9169,-56.5318,-52.1491,-26.3817,0.53827,13.4597,8.076,-0.53827,88.8354,5.9475,-14.4617,
-83.4512,-29.6118,27.4587,62.9169,-41.5318,-38.2261,-30.6883,0.53827,0.53827,15.6138,-15.5383,103.8354,20.9475,-0.53827,
-68.4512,-15.6138,36.073,64.069,-26.5318,-40.3797,-18.8434,-1.6148,1.6148,22.074,-4.8454,118.8354,35.9475,1.6148,
-64.6073,-7.5373,24.7669,64.6078,-41.5318,-35.5343,-26.92,8.6148,-1.077,13.9985,1.077,113.064,50.9475,-8.6138,
-65.6848,-15.0755,11.8449,64.6073,-41.995,-20.5343,-31.2276,13.998,3.2306,10.7674,-5.3837,115.2166,65.9475,-3.2306,
-77.5292,-30.0755,26.8449,60.3012,-40.9179,-35.5343,-18.3051,0,15.0755,13.998,-6.4602,130.2166,80.9475,0,
-69.9915,-29.073,24.7659,58.1466,-25.9179,-50.5343,-26.92,-2.1536,3.2301,4.3066,-17.2291,125.9845,89.3742,2.1536,
-74.2986,-17.2291,26.92,66.7609,-40.9179,-38.7649,-36.6108,9.6913,3.2301,1.077,-7.5373,124.9079,79.6823,-1.077,
-88.2971,-25.8434,20.4587,65.6843,-55.9179,-31.2271,-49.5328,3.2301,3.2301,3.2301,-3.2301,139.9079,72.1456,-15.075,
-79.6828,-31.2276,13.998,59.2236,-41.995,-41.995,-49.5328,0,0,10.7674,0,137.8299,72.1451,-6.4612,
-91.5272,-46.2276,28.998,53.8394,-56.995,-56.995,-35.5343,2.1536,3.2301,3.2301,-2.1536,125.9855,80.7599,-4.3066,
-88.2971,-48.4557,34.4572,65.6848,-71.995,-63.5307,-31.2271,0,6.4602,3.2306,-17.1536,128.138,91.5277,0,
-80.2211,-43.6098,29.6123,66.2236,-74.8369,-55.4547,-27.4582,1.6153,6.999,8.0765,-8.0755,127.6003,85.6053,-1.6153,
-78.0675,-41.4562,24.2286,64.0695,-64.069,-45.7634,-33.9189,11.3061,2.6918,3.7694,-5.9225,132.984,72.6838,-2.6918,
-72.1451,-27.996,13.999,64.6083,-49.069,-30.7634,-47.3787,1.0765,3.2306,-1.0765,-20.9225,125.985,85.0665,12.3082,
-68.3762,-24.2276,24.2276,62.993,-34.069,-22.0745,-34.996,-5.9225,18.2306,2.6918,-5.9225,122.2166,100.0665,17.7674,
-64.0695,-25.3052,26.3817,60.8389,-40.3802,-37.0745,-29.6123,6.999,16.6898,-2.6918,1.6153,126.5227,97.4502,2.7674,
-69.4532,-26.3817,41.3817,68.3762,-48.994,-36.0725,-24.2281,21.999,18.8434,0.53827,-4.8454,141.5227,83.4517,-0.53827,
-69.4537,-33.9195,44.6868,66.2226,-45.7639,-38.2266,-39.2281,12.3827,16.6898,-1.6153,-10.2296,140.5217,79.144,1.6153,
-54.4537,-26.3812,32.8424,62.9925,-44.6868,-27.4582,-43.6098,9.1526,18.8444,4.8454,-10.2291,126.5232,87.7589,-4.8454,
-64.6078,-41.3812,45.2251,64.6078,-59.6868,-42.4582,-28.6098,7.5373,21.5352,5.3842,-5.3842,134.5988,78.6058,-12.922,
-71.6073,-44.6873,48.994,75.9134,-74.6868,-53.3016,-26.3817,9.1521,20.997,2.6918,-6.9995,149.5988,78.0675,-2.6918,
-69.9915,-36.6108,44.1486,73.2221,-77.5292,-48.4557,-34.4572,6.4607,20.4587,1.077,-11.8444,149.6743,75.3762,-1.077,
-77.5298,-43.072,48.4557,75.3752,-86.1441,-52.7634,-31.2276,6.4607,21.5352,2.1536,-6.4607,148.5967,72.1445,-2.1536,
-85.6048,-48.994,53.3011,76.991,-95.2961,-57.6083,-28.5348,5.9225,20.998,2.6918,-2.6918,146.983,68.3767,-3.7689,
-96.3729,-57.6085,54.3784,75.9142,-107.1408,-65.1458,-28.535,3.7691,18.8437,0.53852,-0.53852,142.6756,61.9162,-8.0758,
-106.6025,-65.6841,57.0708,74.2994,-117.3704,-71.0683,-27.9962,1.0768,16.1523,-1.0768,1.0768,138.9067,55.9932,-10.7676,
-114.6783,-72.6833,60.8389,75.9145,-126.5232,-75.9139,-25.3046,0.53827,16.6909,-0.53827,5.9225,137.2911,52.2246,-12.3832,
-123.2931,-78.0675,65.1466,78.068,-136.2146,-80.2211,-23.1511,0.53827,15.6133,-0.53827,10.2296,135.1375,48.9945,-13.4597,
-138.2931,-90.9892,80.1466,88.8351,-151.2146,-95.2211,-20.9978,6.9993,24.2279,-0.53852,0.53852,150.1375,63.9945,-19.9207,
-126.5237,-85.6053,82.3742,87.7589,-139.4452,-81.2981,-11.3067,9.1526,20.9975,-5.9225,5.9225,158.8274,64.069,-8.076,
-111.5237,-70.6053,67.3742,87.2198,-124.4452,-83.9902,-13.9988,4.3069,5.9975,-3.2304,7.5375,160.4424,58.1463,-8.6146,
-126.5237,-80.2211,73.7598,85.6048,-139.4452,-98.9902,-22.0745,0.53827,-0.53827,0.53827,4.8454,166.3652,58.6853,-19.921,
-141.5237,-95.2211,88.7598,82.3752,-154.4452,-113.9902,-12.3832,1.6153,14.4617,-1.6153,14.5368,165.2876,43.6853,-18.8439,
-133.5222,-92.6043,78.6063,90.4512,-164.7493,-124.9079,-6.4607,2.1536,23.6898,-2.1536,5.3842,155.0585,43.072,-11.8444,
-136.2143,-83.4515,83.4515,101.7576,-150.2128,-132.9842,-4.8457,6.9993,22.0743,3.7686,-3.7686,165.2884,58.072,-18.8437,
-124.3697,-72.6838,83.4517,98.5262,-138.3682,-122.2161,-6.999,0.53827,16.6903,5.9225,-0.53827,165.2876,55.4547,-30.6888,
-117.9092,-74.8372,68.4517,83.5262,-153.3682,-112.525,-6.9993,-11.3064,12.3829,8.0758,6.9993,150.2876,40.4547,-29.6121,
-132.9092,-89.8372,69.4532,72.6838,-168.3682,-127.525,-11.3061,-5.9225,15.6138,5.9225,5.9225,156.6738,42.5333,-24.2276,
-134.0607,-99.6035,73.7601,87.6838,-162.0572,-135.1378,-19.9207,8.0763,20.9978,-2.6921,2.6921,166.3644,43.61,-20.9972,
-132.4459,-91.5275,75.3754,87.2203,-159.3654,-131.3689,-16.1518,5.3839,18.3054,-5.3839,10.7681,158.2889,28.61,-25.8432,
-138.3682,-83.4517,71.6073,93.1431,-167.4417,-131.9074,-13.4597,2.6918,10.2296,-2.6918,8.076,159.9044,26.3817,-25.3046,
-129.2156,-78.6058,63.5307,96.9114,-152.4417,-123.8314,-4.3072,10.7679,15.075,-8.6143,4.3072,155.0585,41.3817,-19.3822,
-141.5985,-93.6058,71.607,81.9114,-156.6735,-138.8314,2.6921,-2.6921,16.6906,-6.9993,3.7686,150.2133,26.3817,-34.3822,
-129.2153,-92.6045,76.4519,90.451,-156.1353,-136.7531,-3.2304,-6.461,13.9982,8.0007,3.2304,157.2123,11.3817,-31.2269,
-138.3679,-100.6801,72.6841,86.6821,-153.4429,-148.0592,-10.2294,-4.8457,10.2299,10.2299,4.8457,149.1363,22.0743,-28.535,
-146.4439,-104.4489,80.7601,89.3744,-146.4439,-150.7511,-2.1533,1.0768,20.4595,-1.0768,10.7681,157.2123,33.3809,-32.3039,
-131.4439,-89.4489,80.2216,93.1431,-134.061,-135.7511,-1.6153,-3.7689,19.921,1.6153,8.076,155.5973,31.7654,-22.074,
-116.4439,-82.9132,82.9132,80.7591,-144.2904,-137.8296,-1.0768,-10.7681,12.9217,1.0768,9.6911,150.7511,30.1503,-17.2289,
-108.7558,-77.5287,73.2226,77.5298,-141.06,-143.2136,-3.2301,0,10.7684,6.4612,0,159.3656,32.3042,-29.073,
-115.7551,-78.0673,69.453,78.0673,-152.3664,-135.1378,-1.6151,-6.9993,13.46,15.6136,1.6151,166.3644,28.535,-39.3029,
-127.062,-93.0673,67.8379,75.3757,-158.2886,-150.1378,-3.2306,-18.3057,9.6913,5.3842,3.2306,157.2116,16.1521,-35.5343,
-120.0625,-92.066,64.069,76.9905,-143.2886,-143.7524,1.6153,-3.3057,9.1526,1.6153,-4.8459,153.4427,12.3832,-20.5343,
-131.9072,-85.605,73.7601,80.2213,-128.2886,-128.7524,-0.53852,0.53852,17.7671,4.8457,-1.6151,157.7501,22.0743,-31.7651,
-120.0625,-72.6838,69.4532,93.1431,-113.2886,-121.1395,-6.9995,-3.7689,19.9205,3.7689,5.9225,151.2891,37.0743,-37.1496,
-127.6003,-79.1446,68.3767,90.989,-121.1395,-136.1395,-4.8454,3.7689,11.3067,-3.7689,8.076,140.5217,51.1481,-32.8419,
-142.6003,-91.5275,75.3759,91.527,-136.1395,-151.1395,-5.3839,11.8447,9.6911,-5.3839,5.3839,148.5975,39.8412,-34.4575,
-127.6003,-76.5275,60.3759,95.2964,-121.1395,-136.1395,-6.9993,-0.53852,11.3064,2.6921,0.53852,143.7516,32.8422,-28.535,
-128.6771,-75.9137,66.2234,87.7591,-135.1378,-149.1358,8.0007,-11.3064,13.46,2.6921,-2.6921,140.5215,32.8422,-24.2279,
-143.6771,-83.9897,74.2989,90.451,-150.1378,-159.3654,3.2304,1.0768,9.6911,-1.0768,-12.9212,153.9817,47.8422,-25.8427,
-139.4449,-80.2213,62.9927,86.6816,-135.1378,-144.3654,-6.9993,4.8457,13.46,4.8457,-4.8457,148.0592,47.9172,-27.4585,
-129.7538,-80.2211,59.7619,81.2976,-120.1378,-129.3654,-1.6153,-10.1543,18.8439,12.3832,1.6153,142.6753,32.9172,-30.6888,
-114.7538,-70.53,69.4535,85.6055,-123.2929,-126.5235,4.8457,-16.6906,12.3829,15.6136,-4.8457,152.3659,36.0723,-24.2279,
-99.7538,-73.7606,70.53,76.9912,-108.2929,-137.2914,4.8457,-14.537,9.1528,10.2294,-4.8457,151.2894,32.8422,-23.1513,
-90.451,-65.6846,62.454,85.0673,-93.2929,-122.2914,1.0768,-1.0768,9.6911,6.461,-12.9217,146.4439,27.9967,-18.3054,
-105.451,-66.7614,76.4522,87.2206,-108.2929,-128.1385,-2.1536,3.2301,7.5378,2.1536,-23.6893,139.983,34.4572,-24.7664,
-115.7553,-65.1461,83.4512,80.2206,-123.2929,-126.5232,-0.53827,0.53827,10.2296,4.8454,-11.3067,148.0595,40.3797,-33.9189,
-100.7553,-50.1461,68.4512,81.2981,-108.2929,-111.5232,0.53827,-0.53827,10.2296,6.999,-14.5368,152.3667,42.5338,-18.9189,
-86.1436,-43.0715,58.1471,74.2991,-109.8329,-100.1415,8.6143,-6.4607,13.9985,6.4607,-17.2286,142.137,43.0715,-15.075,
-92.066,-44.6868,73.1471,82.3752,-94.8329,-102.8339,5.9225,-5.9225,18.8439,19.9204,-8.076,146.9825,47.9169,-15.6138,
-77.066,-29.6868,68.3762,92.066,-79.8329,-87.8339,0.53827,-4.8454,14.5368,27.4587,-9.1526,153.4437,44.6873,-0.61381,
-80.2213,-43.61,59.7626,89.9127,-94.8329,-93.1428,-0.53852,-2.6921,8.0758,16.6901,-12.3829,145.9057,38.2258,0.53852,
-92.0658,-42.5335,53.3009,84.5285,-88.8356,-85.605,-10.2294,-2.6921,8.0758,14.5365,-16.6901,135.1378,45.7641,2.6921,
-89.3742,-44.1486,50.6093,72.1451,-73.8356,-70.605,0,-12.9215,11.8444,20.4592,-9.6913,135.6758,53.8399,0,
-93.6808,-59.1486,48.4562,69.992,-58.8356,-74.2986,12.9215,-13.998,6.4607,17.2286,-10.7679,131.3686,59.2236,-6.4607,
-88.8357,-54.3779,54.3784,76.9907,-48.9942,-78.0678,4.8457,-5.9222,0.53852,13.46,-12.3829,125.447,64.0693,-0.53852,
-89.3739,-45.2254,63.531,76.4525,-57.0703,-72.1453,3.2304,-6.461,7.5375,19.3819,-6.461,139.9832,49.0693,-3.2304,
-88.8356,-43.61,48.531,83.4515,-57.6085,-61.9157,3.7686,-5.9222,16.6901,22.0748,-10.2294,141.5985,34.0693,-3.7686,
-103.8356,-56.5318,44.6868,78.0675,-70.5303,-76.9157,0.53827,-2.6918,13.4597,11.3061,-13.4597,128.6768,39.3031,-0.53827,
-97.988,-41.5318,57.07,69.9915,-55.5303,-75.3757,0,0,3.2306,13.9985,-15.075,129.2151,51.6863,-2.1536,
-82.988,-26.5318,48.9948,64.0693,-40.5303,-60.3757,-1.6151,-12.3829,2.6926,25.3049,-12.3829,126.5235,47.9172,1.6151,
-90.4504,-41.5318,39.8417,59.2244,-55.5303,-74.2989,-3.2304,-19.3819,3.2304,13.9988,-15.0748,133.5225,32.9172,3.2304,
-93.6808,-54.9164,39.8414,65.6843,-70.5303,-59.2989,0,-4.3819,0,10.7679,-21.5358,148.5225,19.3822,6.4607,
-91.5277,-39.9164,49.5328,62.4542,-55.5303,-61.3772,5.3837,-2.1536,-5.3842,11.8444,-20.4592,146.4442,34.3822,2.1536,
-76.5277,-35.534,55.9932,74.2994,-43.0718,-69.9912,3.2304,-3.2304,-5.3839,4.3074,-23.6891,131.4442,32.3044,5.3839,
-61.5277,-20.534,41.995,83.99,-28.0718,-54.9912,-4.3072,11.7696,-3.2306,3.2306,-18.3057,119.5237,33.3807,19.3827,
-72.1451,-35.534,45.2251,68.99,-36.6108,-54.9164,0,-1.0765,0,11.8454,-10.7679,117.3712,48.3807,4.3827,
-78.0675,-43.6103,50.0705,75.9144,-46.8404,-69.9164,5.9225,-2.6918,2.6918,26.3817,-20.9975,131.9074,47.9174,-4.8454,
-69.4532,-43.6103,40.3802,74.8374,-61.8404,-65.1461,-5.9225,-1.6148,1.6148,23.1506,-23.1511,131.9069,32.9174,5.922,
-80.2213,-46.8407,50.0713,67.2999,-60.8392,-55.455,-15.6136,-5.9227,4.8457,24.2273,-8.1511,135.1378,27.458,20.922,
-83.9897,-43.0718,49.5325,69.9917,-45.8392,-58.1468,-3.2304,-4.3069,3.2304,23.6896,-12.9212,130.2929,42.458,18.3059,
-88.8359,-51.1481,42.5338,64.0695,-46.8409,-73.1468,3.7684,-5.9225,0.53878,8.6896,-18.8439,121.139,32.8419,3.3059,
-81.2979,-37.1493,50.0708,74.8371,-34.9957,-59.7621,-2.6921,-5.9222,2.6921,12.3829,-10.2294,132.9842,30.6891,18.3059,
-93.1428,-47.9172,57.6085,76.9912,-30.6886,-65.1458,-1.6151,-12.3829,1.6151,19.9207,-16.6901,128.6771,37.1493,25.3044,
-90.9892,-55.455,48.9937,70.5305,-33.9192,-80.1458,3.7686,-11.3064,5.9222,18.8437,-16.6901,115.7551,38.2264,10.3044,
-75.9892,-40.455,41.4562,72.6838,-18.9192,-65.1458,-0.53827,0.53827,10.2296,27.4582,-12.3832,122.2166,42.5338,-2.6918,
-90.9892,-52.2246,56.4562,75.9139,-33.9192,-78.0675,0.53827,-4.8454,6.999,24.2276,-20.9975,129.7539,36.073,-0.53827,
-80.2211,-48.994,57.6083,83.4512,-48.9192,-74.8369,3.7689,-12.3832,-1.6153,17.7674,-25.3046,123.2931,24.2276,1.6153,
-65.2211,-33.994,42.6083,76.991,-33.9192,-59.8369,-0.53878,-3.7684,0.53878,25.3041,-10.3046,112.5247,26.3817,16.6153,
-65.1461,-28.5348,42.5333,74.8374,-25.3046,-54.3782,-4.8454,-4.8454,4.8454,14.5373,-5.9225,109.2946,31.7659,11.3067,
-68.3764,-30.6886,45.7636,86.6821,-25.3044,-60.8386,-2.6921,-11.3064,2.6921,3.7686,-20.9225,109.2944,27.4585,6.9993,
-61.3772,-18.3057,44.148,75.3757,-38.7649,-54.9164,0,-2.1536,9.6908,18.3051,-18.3057,121.6778,20.4592,0,
-74.8371,-20.9972,29.148,67.2994,-52.2243,-58.6851,-15,6.9993,13.4605,18.8442,-14.5365,125.4464,28.535,-6.9993,
-87.7583,-30.6883,15.6138,71.6068,-46.8404,-54.3777,-23.1506,0.53827,-0.53827,10.2301,-29.5365,110.4464,24.2281,8.0007,
-81.8364,-37.6878,30.6138,78.6063,-57.07,-54.9164,-8.1506,1.0765,1.0765,25.2301,-33.3807,119.5237,9.2281,23.0007,
-78.0675,-39.3026,24.2276,71.6073,-56.5318,-62.9925,-17.7669,-1.6153,1.6153,36.0725,-28.5348,120.0625,2.6918,16.6909,
-93.0675,-43.0718,31.2269,62.4534,-63.531,-74.2989,-16.1523,-4.3074,4.3074,21.0725,-16.1523,108.7556,17.6918,17.2289,
-94.2198,-37.1493,46.2269,76.9902,-56.532,-59.2989,-6.9993,1.6156,-1.6156,22.0738,-19.9207,106.0637,17.7666,22.0738,
-79.2198,-23.1516,33.9184,87.7583,-41.532,-44.2989,-10.2296,10.2296,-11.3061,24.2276,-28.5353,100.6798,17.7664,18.8439,
-65.6848,-30.1506,30.1501,76.4522,-37.6883,-37.6883,-8.6143,10.7674,-8.6143,9.6908,-23.6898,92.6043,32.7664,8.6143,
-50.6848,-15.1506,33.9184,78.0675,-23.1516,-29.6123,-4.8459,1.6153,-1.6153,6.999,-18.8444,92.0655,36.0725,3.7684,
-36.6108,-0.15058,31.2276,71.0685,-8.1516,-15.0745,0,-13.3847,-6.4602,6.4612,-16.1511,90.4512,21.0725,0,
-35.5345,-13.9988,40.9177,72.1453,-11.8452,-27.9967,8.6146,-15.0753,-8.6146,9.6911,-15.0753,95.8341,12.9217,15,
-45.7641,-15.6136,47.9172,79.1438,-26.8452,-36.0728,4.8457,-4.8457,-4.8457,16.6906,-23.1513,99.603,27.9217,25.3049,
-57.6085,-4.8457,47.9172,80.2213,-20.9972,-21.0728,1.6151,-1.6151,-3.7686,17.7671,-15.6136,108.2183,38.2264,25.3049,
-43.072,-1.077,32.9172,72.1456,-8.6148,-6.0728,-8.6148,-3.2301,-17.2291,3.2301,-17.2291,96.9109,34.4577,23.6893,
-47.3787,-16.077,37.6883,72.1456,-23.6148,-21.0728,2.1536,-6.4607,-2.2291,5.3842,-4.3072,95.8354,37.6883,18.3057,
-62.3787,-31.077,52.6883,77.5292,-38.6148,-36.0728,0,-21.4607,7.5373,9.6908,-2.1536,110.8354,30.1506,3.3057,
-52.7629,-16.077,41.9945,75.3752,-23.6148,-46.3021,2.1536,-20.4592,-2.1536,12.922,-13.9985,114.1406,27.9965,5.3842,
-60.3001,-23.6893,45.2256,64.6083,-31.2266,-55.993,15.0755,-15.075,-8.6143,8.6143,-12.9215,99.1406,24.7664,13.999,
-71.0685,-33.3807,39.8419,68.9144,-16.2266,-70.993,4.3072,-23.6893,-9.6913,6.4612,-9.6913,89.3737,23.6898,9.6908,
-56.0685,-26.92,44.1481,77.5287,-5.3842,-73.2221,2.1531,-21.5363,0,12.9215,-2.1541,99.0645,38.6898,0,
-48.456,-26.9197,53.8402,76.4525,-20.3842,-72.1453,5.3839,-10.7681,1.0768,9.6911,-1.0768,111.9862,48.4555,-12.9217,
-43.6103,-16.6903,42.5333,74.8374,-5.3842,-57.1453,-2.6924,-17.7674,-3.7689,6.9995,-1.6148,106.064,36.072,1.6148,
-58.6103,-31.6903,36.6103,64.6073,5.3837,-68.9149,3.2306,-29.0735,-3.2306,-1.0765,-6.4612,95.8349,21.072,1.0765,
-64.6078,-26.92,48.4552,79.6073,-9.6163,-77.5292,18.2306,-14.0735,4.3072,10.7679,-12.9215,110.8349,36.072,-4.3072,
-49.6078,-16.1518,52.7626,79.6831,-15.0753,-62.5292,15.0748,-6.461,1.0768,21.536,-5.3839,114.1403,37.6881,-1.0768,
-34.6078,-6.999,46.8409,72.6838,-0.075288,-47.5292,5.9225,-21.461,-6.999,18.8439,-1.6153,99.1403,22.6881,-12.3832,
-26.3812,3.7689,31.8409,70.5303,14.9247,-42.5333,-3.7689,-36.0725,-21.999,5.9219,-16.6153,84.1403,12.3832,-27.3832,
-38.7644,-5.3842,34.4577,68.9149,8.6148,-51.6858,2.1536,-30.1501,-6.999,15.075,-24.7664,82.9129,27.3832,-12.3832,
-37.1496,-8.076,34.9955,64.069,-6.3852,-54.3787,-4.8454,-23.1516,4.8454,18.8434,-24.2281,87.7589,27.4577,2.6168,
-22.1496,4.8454,25.3046,62.9925,-3.7689,-56.5318,3.7689,-9.1526,-8.076,15.6138,-33.9189,82.3752,23.1516,-12.3832,
-29.0735,-4.3072,40.3046,67.8379,-5.3842,-68.9149,17.2286,-8.6143,4.3072,21.5358,-18.9189,97.3752,21.5358,-12.9215,
-38.7649,-6.4612,33.3807,67.8379,-19.3827,-55.9935,2.2286,-21.5363,8.6143,24.7664,-15.0755,95.8349,17.2286,2.0785,
-37.6878,-1.0765,38.7644,73.2216,-22.6128,-60.3006,3.2306,-25.8429,1.0765,27.997,-21.5358,99.0655,22.6123,-7.5378,
-25.3046,0.53827,47.918,82.3752,-14.5368,-70.5297,14.5373,-25.3046,-0.53827,23.1516,-36.5358,113.6018,15.6138,-13.4597,
-19.9204,5.9225,32.918,70.5297,-13.4602,-55.5297,-0.46272,-23.1511,-5.9225,10.2296,-45.7639,111.4482,14.5368,1.5403,
-25.3046,13.4597,23.1506,66.2231,1.5398,-40.5297,-6.9995,-26.3812,-17.7669,3.7689,-30.7639,103.9109,29.5368,-3.7689,
-34.4577,16.1521,18.3051,72.1451,16.5398,-40.9185,1.0765,-23.6898,-20.4592,-1.0765,-18.3051,90.4502,35.5337,-6.4612,
-49.4577,1.1521,33.3051,76.9912,1.5398,-55.455,14.537,-8.6898,-5.4592,-0.53852,-20.9972,99.6035,32.8422,8.5388,
-46.3021,-10.7679,48.3051,79.6833,11.8454,-40.455,13.9985,-11.8444,-9.6908,-2.1536,-34.4572,102.2956,29.074,2.1536,
-31.3021,4.2321,33.3051,75.3757,26.8454,-25.455,5.3837,-26.8444,-23.6898,-5.3837,-34.4577,87.2956,26.9194,-12.8464,
-28.5348,14.5368,20.998,67.3001,24.2286,-23.1511,2.6918,-27.4582,-13.4592,-2.6918,-25.3041,79.1451,29.6123,-2.6918,
-33.3807,13.998,16.1521,63.5307,13.998,-31.2266,-7.5378,-26.9194,-20.4592,-7.5378,-39.8414,83.99,23.6898,7.5378,
-33.9189,-1.002,31.1521,61.9154,1.6153,-46.2266,6.999,-17.7669,-10.2296,-3.7684,-28.5348,86.6818,16.6909,5.9225,
-48.9189,-16.002,37.6873,53.8394,-13.3847,-61.2266,8.6138,-15.0755,-1.077,5.3842,-23.6898,93.6813,18.3057,1.077,
-54.9164,-10.7684,25.8429,47.3787,1.6153,-65.6848,4.3072,-30.0755,-9.6908,6.4602,-33.3807,82.9134,24.7664,-4.3072,
-55.9935,-8.6143,39.8414,62.3787,-1.077,-69.9915,19.3072,-41.995,1.077,4.3077,-18.3807,89.3742,22.6128,-19.3072,
-40.9935,-1.077,33.3802,75.3752,-16.077,-76.4522,6.4607,-26.995,6.4607,1.077,-23.6893,103.3722,18.3057,-32.3036,
-27.9965,3.2306,25.8429,63.5307,-7.5378,-71.0685,0,-12.9215,0,4.3072,-38.6893,94.7584,18.3051,-18.3057,
-39.8414,-4.3077,26.92,61.3772,2.1536,-63.5307,13.9985,-27.9215,-2.1536,2.1536,-37.6878,85.067,16.1516,-6.4607,
-37.1496,1.6148,19.921,70.5303,4.8454,-53.3011,10.2291,-28.5353,-1.6148,-1.6148,-37.1496,89.9119,20.9975,-1.6148,
-27.997,-1.0765,26.9194,65.6838,8.6143,-58.1471,5.3837,-20.4592,-4.3072,1.0765,-36.6113,103.3716,19.3817,-4.3072,
-25.8429,0,21.5358,60.3012,10.7684,-50.6093,3.2306,-27.9965,-8.6143,0,-43.0715,118.3716,7.5378,-9.6908,
-40.8429,1.6153,24.2276,60.8389,-4.2316,-44.6868,6.999,-26.3817,-1.6153,1.6153,-28.5353,133.3716,4.8459,-13.4602,
-48.4557,-3.2306,31.2266,65.6848,-19.2316,-46.3021,11.8449,-16.1521,3.2306,7.5378,-19.3822,148.3716,5.3837,-11.8449,
-33.4557,0.53878,16.2266,60.8389,-4.2316,-48.994,3.7684,-27.4582,-9.1531,-0.53878,-34.3822,144.8289,6.999,-11.3061,
-45.2254,-6.461,30.1498,61.3774,-19.2316,-63.994,17.2284,-21.536,5.8469,10.7681,-30.1503,155.0582,21.999,-8.6146,
-60.2254,-19.3819,34.4575,64.6075,-34.2316,-71.0683,16.1523,-18.3054,11.8447,16.1523,-20.459,167.9802,32.3044,-11.8447,
-46.3027,-4.3819,24.7659,68.9139,-30.1506,-56.0683,18.3046,-23.6898,-2.1536,4.3066,-25.8434,156.1345,17.3044,-3.2311,
-31.3027,10.6181,31.2276,78.6063,-15.1506,-41.0683,24.7664,-12.9215,-7.5367,0,-23.6893,155.0585,11.8449,0,
-20.4592,25.6181,22.6128,71.068,-5.3842,-26.0683,11.8444,-8.6148,-3.2301,3.2301,-29.0735,162.5958,26.8449,-10.7679,
-28.5348,10.6181,23.1516,56.068,-20.3842,-30.6883,16.6903,-23.6148,-1.6148,-0.53827,-32.8419,174.9795,18.8444,3.7689,
-18.3057,18.3057,29.073,62.4537,-34.4577,-24.7664,23.6893,-36.6113,-15.075,2.1536,-26.92,189.9795,3.8444,18.7689,
-27.9965,26.92,21.5363,66.7619,-30.1501,-24.7659,13.9985,-26.92,-27.9965,-7.5373,-29.0735,203.5142,7.5373,8.6148,
-32.8424,17.7664,28.5348,66.2226,-36.073,-29.6123,19.9204,-12.3837,-16.6909,-1.6153,-28.5353,218.5142,22.5373,1.6153,
-20.4592,16.1521,13.5348,54.9164,-26.9194,-26.9194,4.9204,-27.3837,-31.2266,0,-43.5353,225.0505,7.5373,6.4612,
-24.2281,18.8434,15.6138,59.7619,-33.9195,-25.3046,11.3067,-38.2266,-19.921,5.9219,-33.9195,239.5867,-4.8454,4.8454,
-39.2281,11.8444,30.6138,72.1456,-44.1486,-34.4577,23.6893,-23.2266,-12.922,3.2301,-21.5363,254.5867,10.1546,-3.2301,
-53.3011,-3.1556,32.8424,69.4537,-41.4562,-46.8404,13.4597,-23.1511,-27.922,3.7689,-29.6118,244.9714,16.6903,3.7689,
-56.5315,-10.2294,47.8424,71.607,-53.3014,-53.3014,25.3049,-20.9972,-12.922,17.7671,-14.6118,259.9714,8.0758,18.7689,
-54.3782,-2.6924,55.4547,78.067,-51.1481,-38.3014,30.6883,-19.921,-3.7689,8.076,-19.921,274.9714,2.6924,12.3832,
-51.1476,-3.7689,45.7639,76.9915,-39.3026,-24.2276,30.6883,-19.9205,-10.2296,3.7689,-27.4582,284.8123,15.6138,14.5373,
-57.6088,-10.2296,43.6103,66.2226,-31.7654,-36.0725,22.0745,-22.0745,-10.2296,10.2296,-19.921,291.2731,19.9204,19.9204,
-62.4542,-5.3842,41.9945,57.07,-38.7649,-34.4577,18.3057,-23.6898,-12.922,5.3842,-23.6898,304.7328,11.8444,19.3822,
-52.7626,-3.2304,54.9172,67.8387,-47.3789,-25.8427,25.8437,-21.5355,-7.5375,3.2304,-21.5355,319.7328,7.5375,18.3059,
-37.7626,6.4602,39.9172,62.4542,-32.3789,-10.8427,18.3051,-24.7664,-9.6908,1.0765,-27.997,334.7328,-1.0765,5.3837,
-45.7634,6.999,32.8429,52.2246,-20.9975,-16.6903,28.5348,-10.2296,-1.6153,9.1531,-20.9975,349.7328,1.6153,-2.6918,
-49.5325,-2.1538,47.8429,58.1468,-29.0733,-31.6903,35.5345,-8.6146,-4.3074,8.614,-25.8432,364.7328,7.5375,2.1538,
-39.3031,-1.6148,41.4567,50.071,-25.3046,-20.9975,24.2281,-23.6146,-16.6903,2.6924,-40.8432,379.7328,1.6148,14.5363,
-47.3792,0,49.5328,48.4552,-40.3046,-32.3042,27.996,-21.5363,-1.6903,15.0745,-25.8432,394.7328,-3.2306,20.4592,
-62.3792,-2.6921,40.3799,50.0708,-51.1478,-47.3042,14.537,-9.1528,2.6921,22.0748,-18.8437,409.7328,-4.8457,11.3064,
-77.3792,-13.4597,54.3782,55.4547,-66.1478,-46.8404,27.4587,-9.1526,2.6918,28.5353,-19.9204,424.7328,-2.6918,9.1526,
-92.3792,-20.4592,68.9149,69.9915,-81.1478,-45.2251,40.9179,-2.1536,2.1536,25.8429,-15.075,433.9484,-11.8444,8.6143,
-92.0658,-13.46,60.8392,67.2994,-86.6821,-57.6085,29.6115,0.53852,-0.53852,12.3829,-17.7671,426.9491,-14.5365,15.6136,
-84.5282,-18.8439,73.7598,62.9925,-72.6838,-68.3767,43.6098,-2.6918,2.6918,19.9204,-9.1531,441.9491,-3.7689,23.1511,
-69.5282,-12.3832,71.6068,70.5303,-57.6838,-53.3767,43.6098,0.53827,-9.1526,27.4587,-6.999,456.9491,-0.53827,24.2281,
-84.5282,-16.1521,65.6848,67.8379,-59.2236,-39.8414,32.3042,2.1536,-6.4607,19.3822,-2.1536,452.254,-5.3842,21.5358,
-99.5282,-31.1521,65.6843,66.7609,-74.2236,-54.8414,36.6108,-7.5378,3.2306,5.3842,-3.2306,456.5607,-9.6913,8.6143,
-98.5267,-26.3817,68.3767,79.144,-70.5303,-52.2246,45.7634,-0.53827,-5.9225,16.6903,-9.1531,468.9439,0.53827,18.8439,
-102.2954,-30.1503,75.3754,73.2224,-64.6075,-53.8397,44.1488,5.3839,-6.461,29.0733,-5.3839,475.9436,-9.6911,33.3804,
-89.3737,-22.6128,60.3754,77.5298,-49.6075,-43.0715,31.2276,0,0,26.9205,-6.4607,473.7898,-20.4587,27.997,
-74.3737,-7.6128,55.4552,81.2981,-34.6075,-28.0715,42.5338,-1.6153,-2.6918,25.3052,-5.9225,463.5602,-5.4587,28.5348,
-89.3737,-22.6128,70.4552,67.8384,-49.6075,-43.0715,47.3792,-10.7679,-4.3072,20.4592,-10.7679,468.4056,4.3072,24.7664,
-104.3737,-21.5358,75.3752,76.4527,-64.6075,-58.0715,34.4572,-6.4607,6.4607,25.8429,-10.7679,483.4056,-10.6928,10.7679,
-90.4507,-21.5363,60.3752,76.4527,-60.3006,-49.5328,26.92,-2.1536,4.3072,20.4587,2.1536,486.7107,-25.6928,-4.2321,
-75.4507,-12.3832,52.2241,76.9905,-45.3006,-34.5328,32.8424,-5.9225,-5.9225,17.7669,5.9225,487.2495,-10.6928,10.7679,
-71.0688,-1.0768,58.1468,74.2989,-36.611,-33.3809,34.457,-12.9217,-11.8447,18.3054,-5.3839,488.8651,1.0768,25.7679,
-75.9139,-0.53827,66.2231,75.9139,-25.3046,-27.4582,37.1496,0.53827,-3.7689,18.8439,-1.6153,492.6332,-13.4597,25.3046,
-85.605,-13.46,51.2231,70.53,-37.1493,-18.8437,27.4585,3.7686,-3.7686,9.1528,-16.6153,484.0197,-16.6901,13.4605,
-100.605,-28.46,60.3004,71.0678,-52.1493,-33.8437,33.3804,-5.3839,1.0768,6.4605,-17.2289,486.7105,-1.6901,28.4605,
-99.6035,-29.6121,62.9922,76.9912,-44.6871,-48.8437,36.0728,-1.6151,-9.1528,10.2294,-5.9222,485.0962,1.6151,14.5365,
-87.2203,-16.1518,47.9922,71.0688,-33.3804,-34.4575,39.8412,-1.0768,-6.4605,10.7681,1.0768,471.636,-2.1533,1.0768,
-102.2203,-31.1518,59.2236,59.2236,-48.3804,-49.4575,38.7644,-16.0768,3.2306,0,0,478.0969,-17.1533,3.2306,
-117.2203,-38.2258,68.3764,72.6836,-63.3804,-64.4575,32.8422,-11.3064,0.53852,3.7691,-0.53852,493.0969,-20.9972,15.6136,
-132.2203,-53.2258,68.9144,74.2991,-78.3804,-79.4575,33.3807,-8.6143,-2.1536,4.3072,2.1536,486.7112,-22.6128,6.4607,
-147.2203,-68.2258,77.529,61.3769,-93.3804,-94.4575,36.611,-8.6146,9.6911,2.1533,1.0768,488.8646,-20.4595,-1.0768,
-149.1363,-65.1463,79.1448,47.9172,-108.3804,-109.4575,33.9192,-2.6921,13.46,8.0758,2.6921,501.2478,-14.5365,-5.9222,
-139.4449,-53.3014,81.2984,45.7636,-107.1413,-98.5265,36.0728,-4.8457,4.8457,20.9972,11.3064,507.7085,-29.5365,-8.0758,
-134.061,-47.9174,68.3762,46.8404,-99.6033,-83.5265,30.6888,-5.9225,0.53827,17.7674,0.53827,496.9403,-44.5365,-0.53827,
-139.9832,-53.8397,71.0683,38.7646,-114.6033,-77.5295,27.9967,1.0768,8.614,5.3839,-2.1538,489.9416,-39.8417,-1.0768,
-134.0607,-46.8407,74.8377,41.4565,-111.4479,-72.6836,20.9978,1.6151,1.6151,4.8457,-1.6151,494.7875,-42.5335,-1.6151,
-119.0607,-31.8407,69.453,51.1478,-96.4479,-57.6836,27.4585,0.53852,-9.1528,15.6136,-0.53852,491.5569,-45.7636,13.3849,
-124.3697,-45.7639,83.4517,47.9174,-103.9109,-72.6836,40.3797,-1.6153,-3.7689,5.9225,1.6153,477.5587,-31.7654,10.2296,
-117.9089,-40.3797,84.5282,60.8389,-101.7574,-79.1446,36.0725,3.7689,1.6153,-1.6153,-4.8454,474.3281,-27.4582,5.9225,
-125.4467,-39.3031,71.6068,54.3782,-86.7574,-65.1461,27.4582,-1.6153,-5.9225,1.6153,4.8454,465.7138,-42.4582,6.999,
-140.4467,-54.3031,65.1458,39.3782,-98.5265,-78.0678,24.2279,-6.9993,-3.7686,10.2299,14.537,462.4834,-43.61,3.7686,
-155.4467,-69.3031,71.068,38.7644,-113.5265,-93.0678,20.4592,-8.6143,4.3072,12.9215,-0.46298,463.0219,-40.9185,7.5373,
-170.4467,-82.3747,86.068,45.7639,-128.5265,-108.0678,34.9955,-9.1531,14.5368,12.3832,-1.6153,478.0219,-53.3016,1.6153,
-156.6736,-69.4535,80.2213,50.0708,-113.5265,-97.45,33.9192,-3.7686,3.7686,9.1528,8.0758,471.0977,-50.0708,-5.9222,
-147.5205,-66.7611,71.0688,40.9182,-98.5265,-91.5275,21.536,-7.5375,-1.0768,5.3839,3.2304,456.0977,-35.0708,1.0768,
-162.5205,-74.2989,86.0688,44.1488,-99.0653,-106.5275,20.459,-15.0753,8.6146,5.3839,1.0768,458.7145,-23.6896,-1.0768,
-170.672,-65.1463,84.528,51.1478,-84.0653,-96.3734,30.6886,-10.2299,0.53852,5.9222,4.8457,460.3298,-26.3814,-0.53852,
-174.9789,-71.6068,76.991,41.4567,-69.0653,-93.1425,38.2261,-3.7689,-10.2296,3.7689,14.5368,449.5622,-41.3814,5.9225,
-173.3641,-72.1456,83.99,43.0715,-82.9134,-103.3727,26.92,-8.6143,-4.3072,6.4607,10.7679,451.1765,-52.7629,4.3072,
-170.6718,-67.2996,90.9895,44.6873,-97.9134,-104.9875,25.3046,-9.1526,3.7689,11.3067,9.1531,459.2525,-37.7629,-3.7689,
-160.981,-66.2231,86.6818,46.8404,-85.6053,-106.0645,27.4582,-8.076,-0.53827,9.1526,3.7689,451.7153,-38.2261,0.53827,
-145.981,-51.2231,78.0678,60.8392,-70.6053,-91.0645,18.8442,-1.6151,1.6151,15.6136,-1.6151,442.0247,-33.9192,15.5383,
-135.1375,-37.1496,76.991,47.9175,-58.6853,-82.3747,16.6903,-9.1526,9.1526,15.6133,2.6918,443.1009,-30.6888,0.53827,
-139.4449,-46.8407,71.607,42.5335,-66.2228,-88.8356,17.7671,-12.3829,15.6136,16.6901,1.6151,443.1007,-27.4585,-1.6151,
-136.2146,-50.071,68.3762,40.3797,-67.2996,-96.3732,10.2296,-11.3061,4.8454,12.3832,-4.8454,428.1007,-30.6883,13.3849,
-137.8294,-52.7629,66.7619,43.072,-79.6828,-92.6043,8.6148,-7.5373,-2.1536,11.8449,2.1536,413.1007,-24.7659,11.8449,
-133.5227,-41.995,51.7619,48.4557,-64.6828,-87.2201,4.3072,-18.3057,-2.1536,15.075,2.1536,408.1055,-11.8449,7.5378,
-148.5227,-56.995,51.1481,34.996,-70.5297,-102.2201,1.6153,-33.3057,-0.53827,15.6138,1.6153,393.1055,-26.3812,0.53827,
-156.6738,-62.9925,64.0695,40.3797,-79.1446,-103.9104,6.999,-18.3057,4.8454,18.8439,3.7689,381.7233,-28.5353,-3.7689,
-146.4437,-49.5322,60.3012,48.4557,-77.5292,-88.9104,5.3842,-3.3057,10.7684,17.2291,0,367.1875,-19.3822,-3.2301,
-153.9812,-55.9932,66.7616,49.5325,-92.5292,-79.6826,7.5375,-16.1518,18.3059,19.3824,3.2304,368.2643,-32.3039,-3.2304,
-138.9812,-46.8404,66.2231,53.3016,-77.5292,-79.1446,10.2296,-13.4597,6.999,20.9975,-1.6153,367.7258,-30.6883,1.6153,
-136.2146,-46.8404,62.993,45.7639,-68.3762,-70.5303,14.5368,-1.6153,-4.8454,10.2296,1.6153,352.7258,-15.6883,3.7689,
-149.6743,-57.07,51.6863,34.4577,-75.3757,-71.0685,2.1536,-6.4607,0,5.3842,5.3842,337.7258,-29.0735,0,
-142.675,-59.7621,51.1483,36.0728,-68.3764,-80.2213,-0.53852,-13.46,9.1528,16.6906,9.1528,334.3448,-43.61,0.53852,
-157.675,-74.7621,66.1483,39.8417,-83.3764,-95.2213,13.9982,-17.2289,11.8447,17.2289,12.9217,340.2673,-28.61,-11.8447,
-165.8264,-79.6828,80.7594,48.4557,-98.3764,-110.2213,19.3822,-12.9215,11.8449,19.3822,10.7679,334.8829,-15.075,-10.7679,
-150.8264,-73.7604,67.3001,40.3797,-85.6053,-118.986,10.2296,-12.3832,8.076,23.1511,13.4597,328.9609,-30.075,-8.076,
-137.2911,-61.9154,65.1466,45.7639,-70.6053,-111.4482,8.076,-9.1526,8.076,25.3046,16.6903,343.9609,-45.075,-8.076,
-130.8304,-48.994,57.6083,44.6868,-85.6053,-98.5267,3.7689,-15.6133,4.8454,18.8439,1.6903,340.8058,-30.075,-1.6153,
-122.2163,-58.6851,61.9157,32.8422,-98.5265,-109.2944,5.9222,-13.46,4.8457,13.46,-4.8457,325.8058,-20.9972,9.1528,
-107.2163,-45.2251,54.9164,40.9185,-83.5265,-94.2944,2.1536,-2.1536,3.2306,21.5358,-7.5378,314.4241,-26.92,8.6143,
-92.2163,-43.0715,52.7629,45.2251,-68.5265,-81.8364,5.3842,-7.5378,12.9215,24.7664,4.3072,307.9634,-19.3822,-4.3072,
-107.2163,-58.0715,48.994,37.1491,-83.5265,-96.8364,0.53827,-18.8439,6.999,15.6133,2.6918,298.8108,-34.3822,-0.53827,
-97.9885,-46.3021,50.6093,48.4562,-71.0685,-81.8364,5.3842,-3.8439,0,23.6893,0,303.6558,-44.1486,14.4617,
-99.6033,-57.6083,55.4552,47.9174,-60.8389,-89.9124,4.8454,-5.9225,-0.53827,24.2281,0.53827,306.3486,-29.1486,4.8454,
-85.6053,-46.8409,46.8404,58.6853,-45.8389,-74.9124,-1.6153,-9.1531,2.6918,31.7654,5.9225,309.5787,-14.1486,1.6153,
-80.7594,-37.6878,40.9179,47.3792,-30.8389,-59.9124,-2.1536,-6.4607,2.1536,23.6893,3.2306,294.5787,-21.5358,16.6153,
-89.9124,-51.1481,55.9179,33.9189,-45.8389,-74.9124,9.1526,-5.9225,5.9225,9.1526,-3.7689,279.5787,-25.3046,3.7689,
-74.9124,-36.611,60.3009,48.9189,-30.8389,-61.3774,15.0753,-3.2304,3.2304,15.0753,-7.5375,285.3504,-13.9982,5.3839,
-59.9124,-28.5353,48.9945,56.5312,-15.8389,-46.3774,17.7669,1.6153,-5.9225,16.6903,-1.6153,289.1195,-28.9982,20.3839,
-68.9149,-22.6128,48.4562,47.3787,-30.8389,-44.1486,17.2286,6.4607,-7.5378,6.4607,-6.4607,286.4271,-36.6108,19.3822,
-80.7596,-22.6125,60.3004,36.611,-45.8389,-50.6095,12.9217,6.461,-2.1538,6.461,-1.0768,275.659,-21.6108,4.3822,
-74.8369,-37.6125,58.6858,41.4567,-56.5318,-50.071,-0.53827,0.53827,-3.7689,6.9995,9.1531,270.8138,-23.1511,12.3832,
-61.3774,-30.1503,44.1488,55.9937,-41.5318,-35.534,1.0768,6.461,-1.0768,9.6911,-1.0768,283.1973,-27.9967,27.3832,
-76.3774,-32.8422,53.3014,46.8412,-44.6871,-50.534,16.0768,-0.53852,8.0763,13.46,-10.2294,284.8121,-27.458,12.3832,
-72.1453,-24.7661,55.9932,47.3789,-35.534,-57.0703,16.1518,-5.3839,13.9982,17.2289,-4.3074,276.7366,-31.2269,4.3074,
-60.8392,-30.6886,40.9932,41.4565,-50.534,-53.3014,1.1518,-0.53852,5.9222,9.1528,-5.9222,261.7366,-37.1493,19.3074,
-75.8392,-45.6886,29.6115,39.3029,-65.534,-68.3014,3.7686,1.6151,-1.6151,3.7686,-15.6136,249.2778,-31.7656,14.5365,
-71.607,-36.0728,38.2258,53.3009,-50.534,-65.1463,5.9222,-1.6151,1.6151,12.3829,-15.6136,247.1237,-25.3049,1.6151,
-81.2981,-46.8409,44.6873,42.5333,-41.4567,-70.5303,-1.6153,-12.3832,6.999,11.3061,-0.61355,232.1237,-38.2261,1.6153,
-96.2981,-61.8409,37.6878,34.4572,-56.4567,-71.0685,0,-13.9985,4.3072,7.5378,0,218.5898,-43.072,11.8449,
-101.7568,-65.1461,37.1496,49.4572,-71.4567,-73.7604,14.5368,-9.1526,9.1526,13.4597,-15,233.126,-31.7654,26.8449,
-108.2176,-65.1461,42.5333,57.6083,-70.5303,-86.6818,15.6133,-9.1526,9.1526,11.3061,-13.4597,248.126,-44.6868,14.5368,
-93.2176,-50.1461,32.8422,48.9942,-55.5303,-71.6818,6.9993,-0.53852,0.53852,15.6136,-9.1528,233.126,-45.7641,4.8457,
-78.2176,-47.9174,37.1496,37.1496,-50.071,-56.6818,6.9995,-1.6153,1.6153,11.3067,-4.8454,218.126,-31.7654,15.6138,
-63.2176,-62.4537,41.995,41.995,-55.993,-68.9144,4.3072,-12.9215,11.8449,10.7684,-4.3072,232.5877,-30.1501,18.3057,
-53.3016,-50.071,41.4562,45.7634,-40.993,-58.6853,5.9225,-15.6138,20.9975,16.6903,-5.9225,239.5867,-28.5353,12.3832,
-68.3016,-42.5333,52.2246,42.5333,-52.2246,-70.5303,16.6903,-3.7689,22.0745,4.8454,-10.2296,224.5867,-36.0725,3.7689,
-63.5313,-32.3042,37.2246,44.1486,-53.8399,-67.8384,3.2301,0,7.0745,0,-20.4592,209.5867,-51.0725,1.0765,
-66.2228,-42.533,36.0728,37.1493,-57.6085,-70.53,2.6921,-2.6921,8.0763,15,-5.4592,210.514,-59.7621,4.8457,
-81.2228,-57.533,51.0728,43.61,-67.2999,-85.53,12.3829,-1.6151,23.0763,20.9972,0.53852,224.512,-44.7621,-0.53852,
-78.0675,-50.071,37.1496,50.071,-52.2999,-76.9905,3.7689,-1.6153,14.5368,5.9972,-14.4615,216.9744,-41.4567,1.6153,
-71.607,-42.5335,28.535,40.3799,-37.2999,-61.9905,9.1528,-5.9222,5.9222,6.9993,-10.2299,201.9744,-56.4567,16.6153,
-71.0685,-57.07,25.8429,35.5343,-36.6108,-57.07,8.6143,-10.7679,12.9215,12.9215,-8.6143,188.4387,-41.4567,16.1521,
-63.5307,-55.993,36.6113,50.5343,-39.8414,-63.5307,13.9985,0,27.9215,17.2291,-5.3837,203.4387,-26.4567,1.1521,
-78.5307,-48.994,51.6113,58.6853,-54.8414,-72.6838,16.6903,-2.6918,27.4582,15.6133,-0.53827,216.9739,-41.4567,0.53827,
-93.5307,-50.6093,48.4557,59.2236,-63.5307,-67.8379,15.075,-10.7679,12.4582,9.6913,-9.6913,201.9739,-46.3021,11.8449,
-94.2196,-57.6088,47.9169,59.7619,-52.2246,-59.7624,22.074,-8.076,14.5368,11.3061,-12.3832,191.1305,-31.3021,8.076,
-82.3744,-45.7636,37.1493,55.4555,-37.2246,-44.7624,14.537,-9.1528,17.7671,12.3834,-13.46,194.3619,-28.535,9.1528,
-95.8349,-44.1486,35.5343,43.0715,-26.92,-37.6878,10.7679,-9.6913,12.9215,7.5378,-7.5378,179.3619,-40.9179,13.9985,
-85.605,-46.8407,36.0728,48.9942,-39.3029,-45.7636,11.3064,-6.9993,9.1528,9.1528,-6.9993,171.7486,-51.1478,6.9993,
-70.605,-38.7644,31.2271,55.9935,-41.995,-30.7636,6.4607,-6.4607,12.9215,15.075,-11.8449,177.6713,-43.0715,11.8449,
-85.605,-53.7644,44.6868,40.9935,-56.995,-45.7636,8.076,-13.4597,17.7674,6.999,-6.999,166.3646,-41.4567,8.076,
-89.9124,-53.3011,34.996,40.3797,-64.069,-60.7636,8.076,-13.4597,15.6138,11.3067,1.6153,168.5187,-47.9175,-1.6153,
-74.9124,-47.3789,19.996,38.7651,-49.069,-73.2218,8.6146,-21.536,15.0753,21.536,6.461,172.2868,-48.456,-6.461,
-81.8361,-62.3789,26.9197,26.9197,-64.069,-88.2218,11.8447,-20.459,20.459,13.9982,3.2304,164.7491,-50.6095,-3.2304,
-85.6053,-56.5318,28.5348,34.996,-53.3016,-73.2218,8.076,-6.999,17.7669,6.999,-8.076,166.3646,-53.3016,9.1526,
-100.6053,-41.5318,38.2264,43.61,-57.6085,-58.2218,11.3064,-16.6901,19.9207,12.3834,-2.6921,173.9027,-51.1478,2.6921,
-115.6053,-46.3021,44.1486,51.6863,-72.1451,-68.9149,13.9985,-10.7679,25.8434,16.1521,0,174.4412,-40.9179,0,
-122.7543,-58.1466,29.1486,45.2256,-77.5287,-71.068,0,0,10.8434,1.1521,-15,162.5958,-51.6858,7.5378,
-128.6771,-60.8387,34.9957,48.9942,-82.3749,-74.8372,1.6151,-1.6151,1.6151,6.9992,-12.3829,160.9807,-64.0693,4.8457,
-131.9072,-51.1478,42.5335,62.9922,-67.3749,-84.5285,10.2294,-3.7686,4.8457,20.9972,-8.0758,156.6735,-59.7621,3.7686,
-146.9072,-65.6843,43.072,48.4557,-82.3749,-99.5285,8.6143,-2.1536,10.7679,5.9972,-6.4607,147.5212,-72.1451,2.1536,
-131.9074,-58.6853,47.9174,50.071,-82.3747,-87.7589,9.1526,-0.53827,17.7669,0.53827,-2.6918,153.4437,-74.8374,6.999,
-117.3707,-46.3021,45.2251,55.993,-67.3747,-72.7589,11.8444,-13.9985,15.075,4.3072,-4.3072,141.0595,-59.8374,10.7679,
-132.3707,-55.9935,38.7644,51.6858,-71.0685,-71.0685,9.6908,-17.2286,16.1516,0,1.0765,133.5227,-47.3792,0,
-117.3707,-47.3789,30.1503,46.3029,-56.0685,-56.0685,1.0768,-3.2304,17.2289,3.2309,2.1538,130.2929,-48.4555,-1.0768,
-115.7551,-62.3789,42.5335,36.0728,-68.3764,-71.0685,16.0768,-9.1528,13.46,1.6151,-1.6151,123.2929,-55.455,2.6921,
-130.2921,-65.6843,53.8399,51.0728,-77.5292,-86.0685,31.0768,-12.9215,20.4592,2.1536,-2.1536,133.5227,-51.6858,2.1536,
-115.2921,-50.6843,40.3799,58.6851,-62.5292,-71.0685,16.0768,-8.0758,26.3814,5.9222,3.7686,124.3699,-44.6871,-3.7686,
-111.4479,-54.3779,37.1493,43.6851,-57.6085,-61.9157,9.1528,-9.1528,19.9207,5.9222,8.0763,110.3719,-47.9172,-5.9222,
-110.3712,-56.5318,29.6118,39.3031,-66.2226,-71.6068,18.8439,-9.1526,14.5368,8.076,-3.7689,117.9089,-58.6853,3.7689,
-124.9079,-55.993,32.3042,44.1486,-75.3757,-86.6068,11.8449,-9.6908,19.3827,6.4607,2.1536,128.1385,-60.3001,-2.1536,
-121.1395,-50.071,41.4567,52.2246,-60.3757,-85.6053,4.8454,-4.8454,22.0745,9.1526,12.3832,126.5237,-45.3001,-5.9225,
-106.1395,-38.7646,27.9967,47.3789,-45.3757,-70.6053,11.8447,-9.6911,13.9982,9.6911,-2.6168,111.5237,-49.5325,4.3074,
-96.9114,-51.6863,27.9965,41.995,-60.3757,-67.8379,21.5358,-12.9215,18.3057,11.8449,-6.4607,108.7558,-64.5325,6.4607,
-97.4502,-53.3016,19.9205,50.0705,-73.7604,-58.6853,6.5358,-12.3832,16.6903,5.9225,-3.7689,102.8339,-79.5325,3.7689,
-108.7564,-47.3792,20.4592,51.6863,-75.3757,-61.3772,0,-12.9215,20.4592,8.6143,0,103.3722,-79.6828,4.3072,
-120.0622,-53.3014,17.7671,47.9177,-60.3757,-66.2228,2.6921,-11.3064,18.8442,13.46,-2.6921,108.2178,-87.7586,4.8457,
-105.0622,-40.9182,7.5375,53.8391,-45.3757,-51.2228,4.3069,-3.2304,3.8442,10.7676,-13.9982,93.2178,-90.451,18.3054,
-90.0622,-31.2271,22.5375,55.9935,-34.4572,-36.2228,19.3069,-6.4607,6.4607,17.2286,-7.5373,91.5272,-75.451,25.8429,
-75.0622,-26.3817,12.3832,51.1476,-19.9204,-34.996,5.9225,-18.8439,12.3832,18.8439,-5.9225,98.5262,-73.7604,23.1516,
-62.9925,-24.2281,3.7689,51.1481,-4.9204,-33.919,-1.6153,-13.4597,20.998,19.9205,-10.2296,89.9124,-72.6838,15.6133,
-47.9925,-18.8442,18.7689,60.8386,-6.9993,-28.535,13.3847,-8.0763,28.535,33.9187,-11.3064,102.8336,-60.8392,6.9993,
-32.9925,-16.1518,3.7689,45.8386,8.0007,-13.535,3.2304,-23.0763,13.535,31.2274,-24.7661,96.9122,-75.8392,6.461,
-26.3817,-14.5373,-8.0766,31.7654,23.0007,1.465,-2.6918,-16.6909,10.2296,29.6113,-9.7661,83.4512,-71.6073,21.461,
-31.2266,-9.6908,-2.1536,37.6883,17.2291,-13.535,2.1536,-13.998,11.8454,20.4597,-9.6908,71.069,-56.6073,18.3057,
-16.2266,-0.53878,-3.7684,33.9184,26.3817,-5.9225,6.999,-20.9975,0.53878,22.0745,-24.6908,72.6838,-64.0695,17.7674,
-2.1541,1.0765,-10.7684,23.6898,39.8409,9.0775,-1.0765,-23.6898,-3.2306,17.2286,-26.92,61.3777,-79.0695,13.998,
-3.7689,8.076,-18.8434,31.7659,54.8409,5.9219,-8.076,-24.2281,0.53827,11.3067,-26.3812,46.3777,-73.7604,-0.53827,
-17.2286,-2.1536,-6.4607,39.8414,39.8409,-9.0781,3.2311,-27.9965,4.3077,11.8454,-23.6893,61.3777,-58.7604,2.1536,
