"AF3","AF4","F3","F4","F7","F8","FC5","FC6","O1","O2","P7","P8","T7","T8",
19.8356,-10.4399,44.8925,41.7603,-58.4642,77.2566,-25.0564,45.9362,-11.4837,-18.7919,-26.1001,9.3962,-9.3962,22.9679,
17.7482,-15.6597,29.8925,45.9362,-54.2872,74.1243,-28.1876,48.0247,-16.7034,-19.8356,-25.0554,10.4399,-10.4399,32.3646,
4.6978,-22.4465,38.1057,49.5899,-69.2872,59.1243,-13.1876,33.0247,-5.7426,-16.182,-21.4018,17.2258,-4.6978,17.3646,
3.1327,-13.5722,36.5405,56.3767,-84.2872,44.1243,-17.7482,27.1439,2.088,-16.7034,-26.1001,12.5284,-11.4837,2.3646,
6.2645,-17.7477,27.1444,42.8045,-83.52,40.716,-32.3641,35.4963,-3.1322,-19.8361,-26.0996,12.5279,-22.9674,3.1322,
19.8361,-25.0559,26.1006,30.2766,-68.9036,42.8045,-33.4078,25.0559,-15.6602,-21.9236,-30.2756,17.7486,-18.7914,15.6602,
21.9241,-14.6159,20.8794,31.3198,-63.6844,43.8478,-27.1439,24.0116,-17.7482,-28.1886,-31.3198,7.3077,-7.3077,16.7034,
6.9241,-4.176,25.0559,33.4078,-63.6844,49.068,-18.7924,37.5838,-8.352,-26.1006,-21.9246,3.1322,-1.0437,20.8799,
3.1317,-4.1765,32.3636,48.4078,-48.6844,64.068,-17.7482,52.5838,-3.1317,-13.5722,-26.1001,18.1322,-11.4847,35.8799,
12.0061,-19.1765,23.4902,43.3254,-47.5024,63.1615,-28.71,43.3254,-12.0061,-20.358,-34.9744,18.2695,-26.4847,37.0619,
25.0564,-6.264,24.0116,48.0237,-32.5024,70.9921,-30.2761,28.3254,-11.4837,-19.8366,-22.9679,6.264,-22.9679,31.3198,
12.5274,-1.0442,25.0554,61.5954,-17.5024,79.3441,-25.0564,28.1876,-10.4399,-22.9679,-21.9241,-1.0442,-7.9679,25.0554,
-2.4726,-16.0442,36.5405,59.5079,-32.5024,64.3441,-14.6159,43.1876,3.1317,-26.1001,-10.4399,13.9558,-3.1317,20.8804,
7.3082,-31.0442,21.5405,44.5079,-38.6275,49.3441,-29.6159,28.1881,-7.3082,-33.4078,-18.7924,7.3082,-15.6602,13.5717,
15.1378,-21.4023,20.3575,29.5079,-23.6275,34.3441,-26.622,16.1815,-22.3082,-34.9739,-20.3585,1.5661,-1.5661,9.9181,
16.7044,-22.9679,35.3575,33.4083,-20.8804,19.3441,-11.622,28.1876,-9.3962,-26.1001,-16.7044,12.5284,-16.5661,7.3077,
31.7044,-33.4083,28.1876,44.8915,-12.5284,4.3441,-12.5284,24.0116,5.6038,-11.1001,-19.8366,6.264,-31.5661,-1.0442,
31.3193,-38.6285,17.7477,32.3641,-10.4404,-9.3967,-12.5279,14.6154,9.3957,1.0437,-11.4842,9.3957,-16.5661,-11.4842,
24.0116,-31.3198,22.9679,28.1876,-9.3962,2.088,-17.7482,14.6159,-2.088,-12.5284,-26.1001,19.8356,-1.5661,-5.2202,
25.0559,-26.0996,19.8361,24.0121,1.0437,7.3082,-31.3203,10.4394,-16.7039,-15.6602,-37.5838,4.8356,-16.5661,6.2635,
25.5787,-14.0935,19.3143,33.9307,8.8738,8.8738,-21.4018,20.358,-12.0061,-8.8738,-22.5838,-8.8738,-31.5661,14.0945,
22.4465,-4.6979,8.8738,42.2826,-3.6541,17.2258,-21.4018,32.8859,-14.0936,-21.4018,-22.4455,3.6541,-22.4455,9.9186,
18.7919,-7.3077,19.8356,55.3319,-18.6541,21.9241,-15.6597,42.804,-12.5284,-18.7919,-21.9241,18.6541,-14.6159,7.3077,
5.7421,-13.0493,34.8356,61.0745,-15.1378,15.1388,-12.0056,30.798,-8.8733,-5.7421,-21.4013,21.4023,-13.0493,7.8306,
3.1322,-26.0996,32.3641,46.0745,-0.13779,7.3082,-20.8799,15.798,-7.3082,-10.4394,-29.2318,6.4023,-18.7924,14.6164,
18.1322,-33.4078,27.1444,34.4526,14.6164,8.352,-20.8799,4.176,-4.176,-20.8799,-30.2756,-7.3082,-17.7477,16.7039,
19.3143,-30.7985,17.2258,41.2379,16.182,13.0498,-20.358,19.176,-1.5656,-20.358,-30.7985,-13.0498,-15.1383,1.7039,
4.3143,-15.7985,17.7482,42.804,9.3962,27.1439,-10.4399,29.2323,13.4344,-5.358,-15.7985,-3.1317,-7.3077,2.088,
-10.6857,-20.358,4.6979,27.804,-5.6038,15.1383,-25.4399,14.2323,5.7426,-3.6541,-14.0936,3.6541,-19.3133,3.6541,
-25.6857,-35.358,3.1317,15.6597,-12.5274,6.264,-21.9241,2.088,-2.088,6.264,-29.0936,10.4399,-19.8356,9.3962,
-27.6662,-48.5461,10.9623,18.2705,-25.5777,4.6979,-15.1383,9.9186,-3.6541,3.6541,-32.8859,4.6979,-20.358,8.8738,
-12.6662,-33.5461,14.094,33.2705,-10.5777,19.6979,-14.094,24.9186,1.5661,-1.5661,-26.622,17.2253,-13.0503,23.8738,
-14.6159,-20.8804,8.3515,26.1001,-19.8366,11.4837,-18.7929,19.8356,-2.088,2.088,-26.1001,15.6597,-28.0503,17.7472,
-10.4394,-27.1444,16.7039,32.3641,-26.0996,9.3957,-26.0996,22.9684,-5.2197,9.3957,-26.0996,5.2197,-36.5401,18.7924,
4.5606,-12.1444,19.3143,44.3701,-16.182,19.3143,-30.7975,32.8859,-18.2695,-5.6043,-30.7975,3.6541,-26.6215,6.7863,
19.5606,2.8556,30.798,49.5904,-9.9181,18.27,-15.7975,28.7095,-21.4023,-20.6043,-28.7105,12.0056,-11.6215,-8.2137,
34.5606,-2.6099,32.8864,48.5466,5.0819,18.27,-16.1815,13.7095,-21.4023,-25.5782,-43.7105,-1.5661,-15.1378,1.5661,
46.98,-6.264,20.8804,34.4521,15.6597,10.4399,-31.1815,6.264,-28.1876,-27.1439,-53.2435,-12.5274,-30.1378,13.5722,
46.9805,0,24.0121,35.4963,1.0447,0,-34.4516,11.4842,-27.1434,-19.8361,-46.9795,-6.2635,-40.716,2.0885,
36.5405,-3.1317,37.5843,46.98,16.0447,3.1317,-19.8356,10.4399,-18.7919,-16.7034,-42.804,-5.2202,-25.716,4.1765,
26.6225,-9.9176,43.3264,45.4139,22.4465,7.8301,-14.0936,4.6979,-15.1383,-22.4455,-42.2816,-4.6979,-17.2258,13.0498,
32.8859,-6.7853,43.3264,46.4586,15.1383,19.3143,-19.3133,3.6541,-8.8738,-12.0061,-41.2379,-3.6541,-24.534,12.0061,
22.446,-12.0056,53.7663,43.3259,2.6099,19.3138,-14.094,4.6983,-3.6536,-9.9181,-26.622,-2.6099,-17.2263,14.094,
22.9684,-2.0885,56.3762,39.6723,-1.0437,14.6164,-13.5717,10.4404,-3.1322,-13.5717,-26.0996,1.0437,-21.9236,17.7477,
36.5396,1.0442,44.8925,37.5843,-5.2202,9.3962,-19.8356,1.0442,-1.0442,-3.1317,-39.6718,-5.2202,-27.1439,8.3525,
33.9297,-13.9558,59.8925,39.1504,-5.7416,0.52187,-4.8356,-12.0061,4.6979,-0.52187,-25.5777,3.6541,-12.1439,1.5656,
35.4958,-14.6169,67.8599,40.7155,7.3077,3.1317,-5.2202,-9.3962,-2.088,-15.5219,-27.1448,7.3077,-11.4847,2.088,
45.4139,0.38308,52.8599,44.3701,-2.6104,7.8301,-20.2202,5.6038,-10.9623,-22.4465,-42.1448,-7.6923,-26.4847,2.6104,
49.0685,15.3831,64.7286,53.2445,-12.5274,8.3525,-5.2202,20.6038,-3.1317,-13.5722,-30.2761,-7.3077,-26.1001,2.088,
34.0685,0.52187,79.7286,42.2816,-20.358,-6.6475,7.8301,17.2258,3.6541,-14.0945,-15.2761,-0.52187,-12.0061,-4.6988,
22.446,-14.4781,78.8222,43.3259,-27.6657,-21.6475,-1.5661,2.2258,1.5661,-8.8733,-2.6099,9.9181,-3.6536,2.6099,
37.446,0.52187,63.8222,58.3259,-12.6657,-6.6475,-16.5661,12.0061,-7.8301,-2.6104,-17.6099,17.2258,-15.1383,7.8301,
45.9358,4.176,55.3314,48.0242,-12.5279,8.3525,-18.7924,20.8799,-6.2645,-7.3082,-32.6099,8.352,-28.1881,-4.176,
30.9358,1.5666,70.3314,46.4586,-7.8301,0.52187,-8.8738,23.4902,2.6104,-22.3082,-43.3254,-0.52187,-22.4455,-5.7416,
21.4023,-1.5661,55.3314,51.6788,1.5661,6.7868,-23.8738,21.4023,-12.3896,-37.3082,-46.4581,-12.0056,-30.798,9.2584,
36.4023,-1.0442,61.5964,57.4194,-9.3962,21.7868,-12.5284,29.2323,-8.3525,-22.3082,-31.4581,1.0442,-19.8356,24.2584,
34.9734,-12.0061,67.3375,48.5461,-24.3962,14.0936,-0.52187,14.2323,-4.6979,-12.0061,-21.4028,0.52187,-16.182,24.534,
28.71,-0.52187,68.3822,52.7221,-9.3962,10.9623,-3.6541,12.0061,0.52187,-16.182,-29.7537,-1.5656,-7.8301,9.534,
28.1881,7.3082,56.3762,43.8483,3.1322,8.352,-18.6541,16.7039,-14.4781,-25.0559,-38.6275,-15.6602,-22.8301,-3.1322,
19.8356,8.3525,46.98,37.5843,-8.3525,16.7044,-25.0564,21.9241,-25.0564,-22.9679,-42.804,-13.5722,-27.1439,11.8678,
17.2258,0.52187,55.8533,42.2816,-16.182,21.4018,-10.9623,25.5777,-10.0564,-13.0498,-33.9307,-0.52187,-12.1439,23.4902,
32.2258,3.6536,61.0735,51.6778,-4.6983,13.0493,-15.1378,14.094,2.6099,-3.6546,-36.0187,-2.6099,-19.3138,8.4902,
32.8864,8.8743,52.7216,48.5456,-3.6536,4.6983,-19.3138,5.7421,-4.6983,-1.5661,-38.1062,-0.52237,-28.7105,0.52237,
17.8864,-3.1322,46.9795,41.7598,-18.6536,1.0437,-16.7039,19.8361,-1.0437,-8.352,-28.1881,13.5717,-17.7477,15.5224,
18.7919,-5.2202,39.6718,37.5833,-16.7044,10.4399,-27.1439,27.1439,-6.264,-14.6159,-34.4521,5.2202,-26.1001,30.5224,
27.1443,0,40.716,34.4526,-16.7039,10.4404,-13.5717,12.5289,-12.5279,-8.352,-31.3193,0,-28.1871,15.5224,
17.2268,-5.7416,36.0182,40.1942,-9.9176,7.8301,-8.8738,16.182,-4.6978,0.52187,-32.8859,15,-17.2258,0.52237,
5.7416,-20.7416,21.0182,29.7537,2.6104,5.7416,-23.8738,12.0061,-10.9623,-13.0498,-47.8859,0,-32.2258,15.5224,
18.7924,-14.6154,29.2318,33.4078,4.176,12.5279,-21.9236,11.4842,-4.176,-12.5279,-46.9795,-4.176,-39.6713,30.2766,
22.9679,0.38458,42.804,48.4078,-6.264,11.4837,-15.6597,15.6597,-9.3962,-12.5284,-38.628,-4.1765,-24.6713,15.2766,
7.9679,2.088,33.4073,51.156,-7.3087,20.8794,-27.1439,12.5274,-24.3962,-18.7919,-53.628,-8.3525,-9.6713,10.4399,
3.1317,6.264,20.8804,43.8478,-3.1317,35.8794,-32.3636,10.4399,-27.1439,-19.8356,-54.2882,-13.5722,-24.6713,25.0564,
18.1317,4.6983,28.7095,42.2821,-5.7421,47.5019,-17.3636,25.4399,-12.1439,-8.8743,-39.2882,-10.9618,-22.446,38.1062,
3.1322,-10.3017,41.7598,27.2821,-17.7486,32.5019,-2.3636,10.4399,1.0437,-10.4404,-24.2882,-8.352,-15.6602,23.1062,
2.0885,-17.7477,39.6723,26.1006,-2.7486,19.8361,-8.352,-1.0437,1.0437,-3.1322,-32.3641,-3.1322,-17.7477,15.6602,
4.6979,-8.8738,25.5777,30.7975,4.6979,34.8361,-10.9623,13.9563,-6.7863,-4.6979,-29.7537,-7.8301,-19.3143,9.9176,
19.6979,-2.088,38.628,42.804,4.1755,36.5396,-3.1327,28.9563,-2.088,-3.1327,-22.9689,2.088,-14.6159,-2.088,
34.4516,3.1322,31.3203,31.3203,3.1322,21.5396,-18.1327,13.9563,-16.7039,-14.6164,-37.9689,-3.1322,-29.6159,-5.2197,
22.9684,18.1322,30.2756,34.4516,-10.4404,18.7924,-12.5279,3.1322,-27.1443,-19.8361,-52.2002,-3.1322,-35.4963,9.7803,
37.9684,33.1322,22.446,49.4516,4.5596,30.798,-20.3575,17.2263,-27.6657,-27.6657,-54.8101,-18.1322,-46.4581,-4.6983,
52.9684,48.1322,14.6164,54.2877,19.5596,45.798,-28.1881,22.9684,-32.3641,-38.6275,-59.5084,-31.3203,-42.8035,-14.6164,
67.9684,63.1322,12.0061,53.7658,34.5596,42.2816,-22.4455,12.0061,-47.3641,-53.6275,-74.5084,-42.2816,-52.7221,-12.0061,
82.9684,78.1322,24.534,68.7658,49.5596,56.8981,-13.0498,13.0498,-62.3641,-62.1178,-84.0424,-33.9297,-63.1625,-24.534,
97.9684,93.1322,26.0996,82.4758,64.5596,60.5522,-11.4842,11.4842,-50.1117,-50.1117,-69.0424,-34.4526,-51.1565,-39.534,
112.9684,108.1322,20.3585,67.4758,79.5596,47.5019,-10.9618,10.9618,-57.9423,-56.8976,-61.0735,-41.2374,-38.1062,-31.8417,
123.1918,114.8399,26.0996,59.5074,78.2998,32.5019,-7.3082,7.3082,-48.0242,-53.244,-73.0801,-26.2374,-44.892,-17.7486,
108.5764,99.8399,29.2318,62.6397,66.8156,30.2756,-11.4842,4.176,-33.0242,-38.244,-58.0801,-11.2374,-42.8035,-12.5279,
93.5764,84.8399,14.2318,52.7226,52.7226,26.622,-26.4842,1.5661,-33.9302,-25.5782,-53.7653,-26.2374,-42.2821,-1.5661,
78.5764,69.8399,13.5722,39.6718,37.7226,11.622,-24.0126,3.1317,-40.7165,-40.5782,-56.3757,-41.2374,-29.2323,-3.1317,
63.5764,54.8399,17.7477,41.7598,22.7226,16.7039,-20.8799,1.0437,-28.1881,-34.4516,-52.2002,-27.1443,-14.2323,-1.0437,
48.5764,39.8399,2.7477,36.5396,10.4399,22.9679,-29.2323,-1.0442,-29.2323,-19.4516,-63.6839,-26.1001,-29.2323,10.4399,
33.5764,24.8399,8.8743,41.2384,-4.5601,10.9618,-20.3585,10.9618,-15.1378,-9.9181,-49.5904,-32.8864,-44.2323,5.7421,
31.8412,15.1373,14.0936,54.8096,-7.8301,9.9176,-16.182,14.0936,-0.52187,-6.7863,-34.9744,-17.8864,-31.8422,0.52187,
16.8412,16.182,10.9613,41.2379,-13.0508,7.8301,-12.0061,8.8738,-9.9186,-10.9623,-38.1067,-7.8301,-16.8422,8.8738,
3.6536,18.27,19.3138,41.2384,-14.094,-1.5661,-7.8296,15.1378,-1.5661,-7.8296,-31.8417,-9.9181,-1.8422,23.8738,
14.6159,6.264,15.6597,45.9362,-14.6159,-3.1317,-14.6159,14.6159,3.1317,-4.1765,-26.1001,-10.4399,-4.1765,32.3636,
27.6662,-6.7853,19.3143,48.5461,-8.8738,11.8683,-6.7853,15.1383,-1.5656,0.52187,-28.71,-0.52187,-13.0498,17.3636,
12.6662,-5.2202,24.0116,53.2435,-8.3525,15.6597,2.088,22.9679,-2.088,-4.1765,-30.2761,-4.1765,-18.7919,15.6597,
-2.3338,0.52187,36.0182,48.5461,-23.3525,3.6541,7.8301,28.71,-9.9176,-19.1765,-16.182,-0.52187,-13.0498,29.7537,
11.4837,2.088,30.2761,50.1122,-38.3525,17.7482,-7.1699,22.9679,-24.9176,-30.2761,-31.182,-2.088,-19.8356,20.8804,
22.4465,2.6104,15.2761,60.0303,-23.3525,29.7537,-14.0936,22.4465,-9.9176,-15.2761,-39.1494,-10.9623,-20.358,18.2705,
7.4465,-2.6099,3.6536,49.5904,-10.9618,14.7537,-10.9618,14.094,5.0824,-0.27608,-31.8417,-16.1815,-16.1815,30.798,
-4.6978,12.3901,12.0061,51.6783,-3.6541,26.6215,-4.6978,20.358,3.6541,-15.1383,-40.1942,-17.2258,-10.9623,43.3254,
10.3022,0,20.8799,46.9805,0,25.0559,-2.0875,17.7486,-10.4394,-30.1383,-40.716,-26.0996,-11.4842,28.3254,
16.182,-3.6541,20.358,39.1504,-15,10.0559,-6.7853,14.0945,4.5606,-15.1383,-25.716,-17.2258,-10.9613,13.3254,
7.3082,-1.0437,10.4404,28.1881,-30,-4.9441,-11.4842,9.3957,12.5279,-0.13829,-29.2318,-13.5717,-11.4842,19.8361,
0,-14.6154,24.0121,27.1443,-45,-12.5279,3.5158,7.3082,4.176,-6.2635,-26.0996,-6.2635,0,21.9246,
-2.6099,-14.094,29.7542,34.9739,-30,-6.7858,7.8306,17.2263,2.6099,-5.7421,-16.1815,3.6546,-7.8296,8.8743,
6.2635,-19.8361,18.7924,33.4078,-19.8361,-8.352,-1.0437,10.4394,7.3082,-1.0437,-16.7039,1.0437,-13.5717,3.1322,
12.5284,-34.8361,15.6607,41.7603,-34.8361,-23.352,4.1765,-2.088,3.1327,-2.088,-25.0554,-8.3515,1.4283,18.1322,
1.0442,-25.0564,13.5722,43.8478,-46.98,-21.9241,-1.0442,4.1755,2.088,-6.264,-37.5843,-11.4837,4.1755,8.3515,
3.6536,-10.0564,15.1378,40.1937,-31.98,-6.9241,-3.6536,18.27,15.1378,-0.52237,-25.5782,-3.6536,-2.6099,0.52237,
3.1317,-9.3962,4.1755,44.8915,-16.98,8.0759,-10.4399,17.7482,7.3077,-3.1317,-28.1886,-14.6159,-6.264,15.5224,
-11.8683,-21.4018,3.6541,43.3254,-31.98,-6.9241,-0.52187,13.0498,2.6094,6.7853,-31.8422,-8.8738,0.52187,19.3143,
-26.8683,-19.3143,12.0061,40.1942,-46.98,-21.9241,-1.5656,1.5656,7.8301,12.0061,-24.534,4.6978,-14.4781,6.7863,
-11.8683,-4.3143,0,48.0232,-31.98,-6.9241,-16.5656,9.3957,5.2197,2.0875,-34.4526,-10.3022,-25.0569,21.7863,
-1.5661,1.5661,0.52237,42.2821,-16.98,8.0759,-10.9618,24.3957,6.7858,-2.6099,-34.9739,-25.3022,-10.0569,36.7863,
-16.5661,-13.4339,11.4837,33.4083,-24.0126,7.3077,-2.088,9.3957,8.3515,2.088,-22.9679,-16.7044,-6.264,21.7863,
-14.094,-16.1815,8.8743,34.9739,-29.7542,4.6983,-2.6099,-0.52237,0.52237,5.7421,-16.1815,-1.7044,-12.0056,15.1378,
-8.352,-10.4404,7.3082,37.5838,-24.0121,19.6983,0,14.4776,0,7.3082,-28.1881,-5.2197,-8.352,30.1378,
-23.352,-16.182,6.7853,33.9297,-34.9744,9.9176,-3.6541,10.9613,3.6541,6.7853,-33.9307,-10.9623,-5.7426,18.2695,
-37.5843,-31.182,13.5722,26.1001,-49.9744,-5.0824,3.1317,5.2202,6.264,-3.1317,-19.8356,4.0377,-9.3962,14.6159,
-22.5843,-24.5335,10.9618,24.5345,-50.6341,-1.5661,1.5661,17.2263,14.094,-1.5661,-34.8356,15.1378,-15.1378,29.6159,
-18.7919,-16.7034,-2.088,16.7044,-35.6341,12.5284,-9.3962,7.3087,17.7482,3.1327,-46.98,2.088,-18.7919,38.628,
-18.7924,-14.6164,10.4394,28.1881,-42.8045,15.6602,-1.0437,14.6154,16.7039,-3.1322,-31.98,1.0437,-3.7919,23.628,
-9.3967,-9.3967,4.176,43.1881,-38.6285,25.0559,-4.176,29.6154,8.352,-6.2645,-19.8361,-5.2207,6.2635,17.7477,
-13.0498,-7.8301,0.52187,47.5024,-29.7537,23.4902,-0.52187,24.534,6.7863,7.8301,-31.8422,-1.5656,-0.52187,32.7477,
-25.0559,-15.6602,1.0437,43.8483,-44.7537,8.4902,-8.352,9.534,1.0437,4.176,-33.4078,6.2645,-13.5717,35.4963,
-23.4897,-22.446,2.6099,49.5904,-45.4144,3.6536,-8.8743,17.2263,16.0437,-2.6099,-18.4078,5.7421,-5.7421,26.622,
-34.4516,-33.4078,8.352,36.54,-30.4144,13.5727,0,26.1006,27.1443,-3.1312,-15.6592,0,-5.2197,41.622,
-32.8859,-32.8859,3.6541,24.534,-15.4144,19.3143,2.6104,11.1006,16.182,-6.7863,-27.6662,-5.7416,-2.6104,41.2379,
-33.4078,-43.8483,0,22.9684,-30.4144,5.2197,0,1.0437,7.3082,-11.4842,-22.9684,-5.2197,12.3896,26.2379,
-37.5843,-44.8915,10.4399,36.5405,-34.4521,11.4837,-8.3515,16.0437,14.6159,-7.3077,-18.7919,-2.088,2.088,21.9241,
-22.5843,-29.8915,22.446,45.4144,-19.4521,26.4837,-4.6974,26.622,15.1388,-2.6099,-23.4897,-5.7421,-12.912,36.9241,
-10.4399,-14.8915,30.2761,33.4083,-7.3077,26.1001,6.264,12.5274,2.088,-5.2202,-27.1439,-3.1317,-2.088,45.9362,
-21.9241,-29.8915,30.2761,27.1439,-22.3077,11.1001,-3.1317,5.2202,3.1317,-7.3077,-37.5843,5.2202,9.3962,30.9362,
-21.4018,-39.1494,42.2826,33.9307,-33.9297,-3.8999,0.52187,14.0945,13.0498,-21.4018,-25.5777,1.5666,-0.52187,18.2705,
-8.3515,-27.1439,49.0685,34.4521,-18.9297,11.1001,8.3525,14.6159,3.1317,-36.4018,-20.8794,-7.3077,-3.1317,29.2323,
-6.2645,-16.7039,45.9358,31.3203,-14.6164,15.6602,0,11.4842,0,-48.0242,-34.4516,-2.0885,0,36.54,
-21.2645,-26.6225,54.8096,37.0619,-29.6164,0.66016,2.6104,9.9176,8.8738,-46.4576,-20.358,6.7863,-3.6541,31.8422,
-36.2645,-34.9744,51.6783,38.1057,-44.6164,2.6104,3.6541,9.9176,0.52187,-55.8543,-18.2695,-0.52187,-12.0061,17.2258,
-47.5024,-33.9307,48.5461,32.8859,-41.2379,8.8738,0.52187,5.7416,-0.52187,-42.2826,-29.7537,2.6094,-2.6104,14.0936,
-37.5838,-29.2318,56.3762,37.5838,-40.716,-6.1262,-1.0437,1.0437,13.5717,-34.4516,-30.2756,8.352,1.0437,19.8361,
-22.5838,-29.2318,61.5959,38.6285,-25.716,-13.5717,2.0885,1.0437,10.4404,-49.068,-30.2756,1.0437,-1.0437,16.7039,
-12.5279,-33.4078,64.7281,34.4516,-18.7924,1.4283,3.1322,-1.0437,1.0437,-52.2002,-26.1006,-8.352,2.0875,6.2635,
2.4721,-18.4078,58.4642,49.0685,-6.264,16.4283,-2.088,2.088,11.4847,-41.7593,-20.8794,-12.5274,-8.3515,17.7482,
-3.6541,-3.4078,44.3701,40.1942,1.5656,13.0498,-3.6541,3.6541,6.7863,-45.4139,-22.4455,-25.5777,-15.1383,27.6662,
-6.7858,-4.6983,52.7216,39.1499,-7.8296,22.446,5.7421,12.0056,0.52237,-48.5456,-19.3138,-21.4023,-0.52237,32.8864,
4.6983,-7.8306,48.5456,49.5904,-14.094,26.622,-1.5661,1.5661,2.6099,-55.8538,-28.7105,-17.2263,-2.6099,24.5335,
1.0437,0,53.244,45.9358,-22.9684,11.622,0,-4.176,4.176,-56.3762,-26.1006,-9.3967,-3.1322,9.5335,
4.176,4.176,52.2002,43.8483,-19.8351,11.4842,-4.176,8.3529,-5.2197,-53.244,-32.3631,-12.5279,-13.5717,12.5289,
19.176,-2.0885,50.1117,43.8473,-4.8351,26.4842,0,18.7914,0,-45.9367,-30.2766,-16.7039,-24.0121,27.5289,
4.176,-17.0885,47.5019,28.8473,-19.8351,11.4842,-2.6099,3.7914,7.8306,-60.0298,-34.9739,-24.5335,-27.6657,21.4023,
5.7421,-4.6974,49.5904,40.1947,-34.8351,2.6099,-2.6099,8.8743,12.0066,-57.9413,-33.9302,-15.1378,-12.6657,12.0066,
6.7863,-0.52187,48.5461,48.5461,-49.8351,7.8301,3.6541,9.9186,-1.5656,-51.6773,-30.7975,-1.5656,-4.6979,0.52187,
1.0437,-15.5219,45.9358,51.1565,-52.2002,13.5717,2.0875,4.176,-16.5656,-60.5522,-45.7975,-1.0437,-15.6602,1.0437,
16.0437,-28.1886,50.1122,56.3757,-37.2002,24.0116,2.088,3.1317,-14.6159,-62.6402,-43.8488,-2.088,-3.1327,16.0437,
28.1881,-21.9236,55.3324,55.3324,-24.0121,16.7039,2.0885,-1.0437,-4.176,-50.1117,-32.3641,-1.0437,1.0437,28.1881,
33.4078,-6.9236,51.1555,52.2002,-11.4842,26.0996,-10.4404,12.5279,-7.3082,-45.9367,-47.3641,-15.6602,-13.9563,32.3641,
18.4078,3.6541,45.4139,39.1504,-9.9176,36.0182,-3.6541,22.4465,-17.2258,-60.9367,-43.3264,-29.7537,-10.9623,46.4586,
3.4078,-11.3459,35.4963,27.1443,-16.7039,21.0182,4.176,7.4465,-15.6602,-72.0364,-38.6275,-32.3641,4.0377,31.4586,
8.352,-20.8799,45.9358,42.1443,-3.1322,24.0121,8.352,0,-0.66016,-57.0364,-35.4963,-17.3641,-1.0437,16.4586,
7.3077,-20.8794,51.156,44.8925,-2.088,22.9679,4.1765,1.0442,-1.0442,-50.1122,-36.5396,-13.5722,-16.0437,7.3077,
2.6099,-26.622,42.2821,29.8925,1.5661,21.4023,-1.5661,7.8306,-16.0442,-65.1122,-47.5019,-14.094,-10.9618,22.3077,
5.7421,-26.622,39.1499,21.4023,-6.7858,28.7105,-2.6099,10.9618,-12.0056,-56.8976,-49.5904,-12.0056,2.6099,31.8417,
20.7421,-11.622,47.5024,36.4023,-0.52187,41.2379,0.52187,-0.52187,2.9944,-41.8976,-37.0619,-4.6978,-7.8301,34.9744,
22.446,-10.9628,42.2821,31.8417,1.5661,28.7095,-1.5661,-15.5219,9.9181,-46.4581,-38.1062,-9.9181,-7.8306,22.446,
18.2705,-25.9628,42.2816,16.8417,-13.4339,18.2705,1.5656,-1.5656,-1.5656,-41.2379,-37.0619,-9.9176,6.7863,15.1383,
19.3148,-26.622,44.3706,20.3585,-26.622,31.8427,2.6099,13.4344,-10.9618,-34.9739,-34.9739,-3.6536,-2.6099,30.1383,
9.9181,-19.3138,47.5019,35.3585,-33.9302,30.798,5.7421,1.5661,-7.8296,-44.3696,-28.7095,-1.5661,-10.9618,42.2821,
1.0437,-22.9674,48.0242,30.2766,-30.2756,15.798,-1.0437,-3.1322,-8.352,-54.2877,-36.5401,2.0885,1.0437,27.2821,
-2.088,-34.4521,36.5405,21.9241,-16.7034,7.3087,-5.2192,5.2202,-6.264,-56.3757,-40.7155,2.088,10.4409,28.1886,
-10.9613,-44.3701,34.9744,22.4465,-23.4902,2.6104,0.52187,7.8301,-0.52187,-65.25,-27.6662,-12.912,6.7863,34.9744,
-1.0437,-30.2756,38.6275,35.4963,-8.4902,17.6104,-4.176,8.352,1.0437,-60.5522,-26.0996,-24.0121,3.1322,30.2756,
-6.2635,-40.716,41.7598,30.2766,0,31.3203,-4.176,0,5.2207,-45.5522,-27.1434,-13.5717,1.0437,22.9684,
-21.2635,-55.716,45.9353,28.1876,-15,16.3203,4.1755,-2.088,14.6159,-34.4521,-19.8366,1.4283,-4.1765,30.2761,
-31.3198,-45.9362,35.4958,36.5396,-22.9679,16.7034,3.1317,-3.1317,15.6597,-32.3646,-20.8804,1.0442,-1.0442,32.3636,
-26.0996,-38.6275,31.3203,29.2318,-36.54,8.352,0,-12.5279,14.6164,-31.3203,-25.0559,2.0885,0,21.9246,
-11.0996,-39.1499,25.5782,32.8854,-23.4897,8.8743,-3.6546,-1.5661,9.9181,-25.5782,-40.0559,1.5661,-15,30.798,
3.9004,-38.1057,19.3143,40.1942,-15.1383,17.2258,-0.52187,13.0498,0.52187,-31.8422,-48.5461,-13.4339,-25.5777,23.4902,
12.5279,-30.2766,31.3203,43.8483,-30.1383,11.4842,6.2635,10.4394,-2.0885,-42.8045,-33.5461,-20.8799,-10.5777,8.4902,
18.7924,-16.7039,32.3641,48.0242,-18.7914,13.5717,0,8.352,-1.0437,-36.54,-28.1881,-11.4842,0,15.6602,
29.2318,-13.5717,33.4078,55.3324,-18.7924,16.7039,0,19.8361,-1.0437,-35.4963,-30.2766,0,0,30.6602,
30.798,-9.9181,36.0187,58.9861,-33.7924,14.094,-2.6099,22.446,-7.8296,-46.4581,-39.1499,-1.5661,1.5661,15.6602,
27.1443,-1.0437,37.5838,58.4637,-34.4526,16.7039,-1.0437,25.0559,-4.176,-39.6723,-36.54,1.0437,-13.4339,7.3082,
12.5284,-7.3077,29.2323,57.4204,-26.1001,10.4399,-5.2202,21.9241,2.088,-33.4083,-37.5843,-2.088,-21.9241,17.7482,
7.3082,-17.7477,17.7477,51.1565,-40.716,8.352,-9.3957,12.5279,-3.1322,-33.4078,-43.8483,-9.3957,-6.9241,24.0121,
-0.52187,-23.4893,29.7547,43.3264,-55.716,8.8738,-1.5656,8.8738,-2.6094,-23.4893,-28.8483,0.52187,2.6104,28.71,
-1.5656,-20.358,37.0619,57.9418,-40.716,8.8738,-5.7416,15.1383,1.5656,-22.4455,-27.6662,5.7416,-12.3896,28.71,
8.8738,-19.3143,26.6215,60.0293,-25.716,10.9613,-7.8301,14.0936,3.6541,-24.534,-41.2389,-3.6541,-14.0945,28.71,
-1.5661,-20.3585,29.7542,46.4581,-39.1499,6.7858,1.5661,3.6536,4.6974,-21.4023,-34.9739,-5.7421,-7.8306,32.8854,
-9.9186,-22.4465,33.9297,48.5461,-43.3264,-3.6541,1.5656,-0.52187,8.8738,-16.182,-25.5787,0.52187,0.52187,44.3701,
-8.8743,-32.8864,33.9302,50.6341,-28.3264,-5.7421,3.6536,-2.6099,14.094,-16.1825,-21.4023,2.6099,14.094,44.3696,
-10.4399,-26.1001,21.9241,40.7165,-13.3264,5.2202,-2.088,8.3525,10.4399,-21.9241,-36.4023,-7.3077,2.088,29.3696,
1.0442,-11.4837,20.8804,40.7165,-1.0442,20.2202,-4.1765,20.8804,8.3525,-21.9241,-43.8478,-11.4837,-3.1317,34.4521,
-3.1327,-19.8366,26.1001,48.0237,-10.4399,24.0116,2.088,5.8804,-2.088,-22.9679,-36.5405,-10.4399,2.088,36.5396,
-10.9623,-5.7416,27.6662,57.9418,-25.4399,27.6662,3.6541,16.182,-0.52187,-15.1383,-31.8422,0.52187,-1.5656,47.5024,
-24.0121,-10.4404,25.0559,42.9418,-40.4399,12.6662,-4.176,29.2318,4.176,-13.5717,-32.3641,4.176,-13.5717,53.244,
-14.6159,-17.7482,32.3636,48.0237,-46.98,-2.3338,2.088,18.7919,15.6597,-2.088,-28.1886,13.5712,-2.088,43.8478,
-15.6597,-14.6159,18.7919,48.0237,-35.4958,1.0442,-2.088,4.1755,17.7482,-1.0442,-33.4083,3.1317,-2.088,30.2761,
-13.5717,-21.9236,22.9684,34.4526,-39.6723,-1.0437,1.0437,19.1755,18.7924,-4.176,-27.1434,1.0437,-6.2635,43.8483,
0,-32.3641,27.1443,36.54,-36.54,0,0,20.8799,9.3957,-14.6154,-37.5838,3.1322,-3.1322,53.244,
-13.5722,-27.1439,21.9241,39.6718,-49.0685,4.1755,3.1317,12.5284,-3.1317,-21.9241,-43.8478,-4.1765,6.264,38.244,
-25.5777,-14.0936,16.182,42.2826,-53.7658,8.8748,-0.52187,7.8301,4.6978,-12.0061,-30.7975,-9.9176,0.52187,23.244,
-10.5777,-14.094,22.446,49.5904,-38.7658,7.8296,1.5661,-7.1699,19.6978,-1.5661,-17.2263,-3.6536,5.7421,30.798,
-6.7858,-25.5782,37.446,43.3259,-30.798,-5.7421,13.0493,-22.1699,14.094,-16.5661,-17.2263,5.7421,17.2253,36.0177,
1.0442,-10.5782,40.7165,48.0237,-15.798,9.2579,5.2202,-37.1699,8.3525,-17.7482,-28.1876,-2.088,2.2253,39.6718,
14.6159,2.088,25.7165,48.0237,-2.088,24.2579,-9.3962,-41.7603,6.264,-6.264,-37.5843,-17.088,-12.7747,41.7603,
17.7486,-8.352,20.8799,45.9367,-7.3082,9.3967,1.0437,-44.892,3.1322,-11.4842,-27.1434,-3.1322,-1.0437,39.6723,
16.1825,-13.0503,20.3585,43.3259,-5.7421,5.7421,-1.5661,-40.1937,-0.52237,-18.27,-25.5782,0.52237,4.6983,25.5782,
9.9176,-9.9186,21.4018,47.5024,-20.7421,12.0061,-0.52187,-46.4586,0.52187,-10.9623,-31.8422,-13.0498,4.6978,33.9297,
7.3082,-3.1322,12.5279,42.8035,-34.4526,17.7477,0,-42.8045,0,-13.5727,-46.8422,-22.9684,1.0437,48.9297,
7.8306,-3.6536,16.1825,33.9302,-30.798,16.1825,3.6536,-27.8045,15,-7.8296,-40.1937,-7.9684,-5.7421,38.1062,
-1.5656,-10.9623,25.5777,36.0182,-33.9297,1.1825,3.6541,-26.6225,15.1383,-0.52187,-25.1937,4.6979,-12.0061,25.5777,
0.52187,-3.6541,17.2258,46.4576,-18.9297,5.7416,0.52187,-34.9744,4.6978,-1.5666,-33.9297,-1.5666,-0.52187,40.5777,
-7.8301,-10.9623,12.0061,44.3701,-3.9297,4.6979,0.52187,-27.6662,14.0945,-1.5656,-33.9297,-0.52187,14.4781,42.2816,
-6.7858,-19.3138,12.0066,44.3706,-12.0056,-2.6099,-4.6974,-32.8854,16.1825,2.6099,-25.5772,7.8306,12.0066,27.2816,
8.2142,-19.8361,9.3967,41.7608,-8.352,2.0885,0,-40.716,5.2207,-9.3957,-25.0559,-4.176,0,42.2816,
-2.088,-26.1001,5.2202,31.3198,-1.0442,1.0442,4.1755,-35.4958,7.3077,-20.8804,-36.5405,-19.176,2.088,53.2435,
-11.4842,-13.5727,3.1322,35.4963,8.352,4.176,-6.2645,-36.5401,12.5279,-5.8804,-43.8483,-17.7486,4.176,38.2435,
-2.6099,-8.8743,6.7858,44.3696,1.5661,8.8743,-1.5661,-48.5466,15.1378,8.8743,-28.8483,-15.1378,-1.5661,30.798,
-0.52187,-23.8743,4.6979,39.1504,-12.0061,2.6104,0.52187,-53.7658,9.9186,-6.1257,-28.71,-23.4902,1.5656,32.8859,
-4.6983,-21.4023,5.7421,32.8854,-6.7858,17.6104,4.6983,-38.7658,7.8296,-17.2263,-37.0624,-16.1825,14.094,24.5335,
-1.5656,-6.4023,6.7863,37.0619,2.6104,32.6104,9.9176,-31.8422,1.5656,-2.6104,-31.8422,-13.0498,-0.90595,39.5335,
13.4344,-1.5666,0.52187,44.3701,5.7416,37.0619,-0.52187,-34.9744,4.6979,-1.5666,-38.1067,-21.4028,-4.6979,54.5335,
12.0061,-12.0061,4.6979,36.0182,-9.2584,22.0619,-4.6979,-34.9744,7.8301,-9.9186,-36.0182,-15.1383,10.3021,39.5335,
5.2202,-10.4399,12.5284,39.6718,-24.0116,7.0619,1.0442,-27.1439,3.1317,-13.5722,-33.4083,-7.3077,11.4837,24.5335,
3.6541,-10.9623,19.3143,42.2816,-13.0498,7.8301,4.6979,-24.534,16.182,-3.6541,-26.6225,-3.6541,-3.5163,39.5335,
-9.3957,-24.0121,33.4078,27.2816,-28.0498,2.0885,6.2645,-31.3203,26.1006,-2.0875,-27.1434,0,0,45.9358,
5.2207,-15.6602,38.6285,25.0559,-15.6602,0,0,-27.1434,15.6602,-13.5717,-37.5838,-9.3957,1.0437,33.4078,
20.2207,-17.2263,40.1937,34.9739,-1.5661,-5.7421,1.5661,-26.622,1.5661,-22.446,-30.798,-20.3585,4.6983,20.3575,
22.9684,-20.8799,55.1937,43.8483,0,-2.0885,16.5661,-30.2766,0,-12.5279,-16.7039,-5.3585,19.6983,32.3641,
7.9684,-28.1886,59.5079,40.7155,-3.1317,3.1317,18.7919,-32.3646,-3.1317,-14.6159,-26.1001,8.3515,14.6159,43.8478,
-7.0316,-31.8417,53.7663,38.1062,-1.5661,-3.6536,14.094,-31.8417,3.6536,-16.1815,-24.5335,5.7421,1.5661,37.0624,
4.1755,-31.3198,39.6718,43.8478,3.1317,-9.3962,1.0442,-36.5405,9.3962,-9.3962,-24.0126,-4.1765,-1.0442,26.1001,
6.7863,-30.7975,46.4586,38.1067,0.52187,-4.6978,-0.52187,-28.71,4.6988,-5.7416,-25.5777,-9.9176,5.7426,24.534,
-7.8296,-22.446,58.9861,23.1067,6.7868,-2.6099,4.6983,-26.622,2.6099,-7.8296,-33.9292,-23.4897,12.0066,21.4023,
1.0442,-26.1001,45.9362,18.7919,12.5274,-7.3087,4.1755,-40.7165,6.264,-8.3525,-38.628,-35.4958,-1.0442,20.8794,
16.0442,-25.5777,60.9362,33.7919,-0.52187,0.52187,12.0061,-25.7165,12.0061,-0.52187,-25.5777,-20.4958,-7.8301,35.8794,
20.358,-14.0936,61.074,36.0182,-15.5219,-0.52187,-2.9939,-20.358,0.52187,3.6541,-40.5777,-5.4958,-14.0936,27.6662,
6.7863,-8.8738,47.5024,33.9297,-17.2258,-6.7863,0.52187,-30.7975,10.9623,15.1383,-36.0182,-8.8738,-0.52187,12.6662,
1.0437,-20.8799,40.716,35.4963,-12.5279,-13.5717,6.2645,-31.3193,15.6602,6.2645,-26.0996,-3.1322,-1.0437,25.0559,
16.0437,-7.8296,38.1062,30.798,-2.6099,-1.5661,4.6983,-18.27,8.8743,-1.5661,-40.1937,1.5661,-6.7858,40.0559,
14.094,-5.7421,39.1499,25.5782,-13.0503,-6.7858,7.8296,-27.6657,8.8743,4.6983,-41.2384,-13.4339,-4.6983,28.7095,
-0.90595,-6.264,44.8915,40.5782,-14.6159,-6.264,7.3077,-21.9241,23.8743,13.5722,-26.2384,-6.264,1.0442,13.7095,
-15.906,-14.0936,39.1504,44.3701,-22.4455,-2.6094,3.6541,-16.182,14.0945,-0.52187,-31.8412,0.52187,1.5666,28.7095,
-16.7044,-13.5722,41.7593,39.6718,-16.7044,4.1755,6.264,-14.6169,3.1317,-2.088,-37.5843,-8.3525,2.088,41.7593,
-3.1322,-4.176,48.0242,54.6718,-3.1322,11.4842,3.1322,-14.6164,7.3082,8.352,-34.4526,-9.3967,-10.4404,38.6275,
-10.9623,-3.6541,58.9856,55.8543,-18.1322,6.7853,18.1322,-8.8738,12.0061,-0.52187,-21.4018,0.52187,-0.52187,37.0619,
-7.3082,-10.4404,46.9805,42.8035,-25.0559,8.352,13.5717,-11.4842,13.5717,-15.5219,-27.1443,-12.5279,7.3082,33.4078,
7.6918,-8.8738,45.4139,51.6783,-10.0559,22.4465,-0.52187,-16.182,18.2705,-13.0498,-26.6215,-14.0936,0.52187,36.0182,
15.6607,-3.1317,56.3767,58.4642,-24.0116,20.8804,1.0442,-17.7482,7.3077,-5.2202,-26.1001,-1.0442,-10.4399,33.4083,
16.1825,2.6099,41.3767,48.5466,-16.1815,21.4023,7.8306,-18.27,-2.6099,-10.9618,-41.1001,-9.9181,-10.9618,27.6657,
5.2202,-5.2202,26.3767,36.5396,-10.4399,20.8804,6.264,-25.0564,5.2202,-17.7482,-46.98,-24.9181,-6.264,14.6159,
6.264,5.2202,27.1439,37.5843,-13.5722,20.8804,-5.2202,-22.9679,8.3525,-17.7482,-42.804,-20.8794,-14.6159,15.6597,
18.27,9.9181,29.7542,29.7542,-13.0503,10.9618,-7.8296,-19.3138,7.8296,-12.0056,-46.4581,-12.0056,-21.4023,17.2263,
19.8361,0,24.0121,32.3641,-11.4832,5.2207,0,-27.1434,16.7039,-7.3072,-42.8035,-15.6602,-13.5717,24.0121,
18.2695,5.7416,19.3143,47.3641,-10.9623,14.0936,-5.7416,-27.6662,15.1383,-16.182,-43.3264,-27.6662,-5.7416,39.0121,
3.2695,4.177,34.3143,43.8483,-25.9623,-0.90645,9.2584,-21.9236,12.5289,-22.9674,-28.3264,-14.6154,0,24.0121,
2.6099,7.8296,49.3143,42.2821,-20.3585,0.52237,9.9181,-17.2263,4.6983,-17.2263,-39.1499,-2.6099,-14.094,9.0121,
16.7039,22.8296,34.3143,54.2877,-5.3585,15.5224,-5.0819,-8.352,-4.176,-15.6602,-49.068,-9.3967,-24.0121,24.0121,
1.7039,7.8296,41.7608,45.9367,-20.3585,16.7049,9.9181,-14.6154,-6.2635,-26.0996,-34.068,-6.2635,-9.0121,39.0121,
-3.6541,-4.6988,41.2379,40.1932,-20.358,7.8301,15.1373,-20.358,3.6541,-15.1383,-36.0182,-7.8301,5.9879,38.1057,
10.9618,2.6099,41.2374,46.4581,-10.9618,13.0503,0.1373,-18.27,15.1378,-2.6099,-32.8864,-15.1378,-9.0121,30.798,
25.9618,2.6104,47.5024,46.4586,-12.0061,13.0498,-2.6104,-24.534,2.6104,-17.6099,-23.4902,-18.2695,-8.8738,21.4018,
24.5345,-3.6536,32.5024,31.4586,2.6099,6.7858,-0.52237,-39.534,-12.3896,-32.6099,-38.4902,-33.2695,0.52237,6.4018,
9.5345,0,26.0996,26.0996,0,2.0875,4.176,-42.8045,-10.4404,-44.892,-49.068,-38.6285,-5.2197,3.1322,
24.5345,2.6099,27.6657,41.0996,1.5661,9.9181,-3.6536,-27.8045,-1.5661,-29.892,-41.2374,-28.7095,-13.0503,17.2263,
37.0624,-2.6099,31.8417,50.6341,-7.8296,18.27,4.6983,-12.8045,2.6099,-14.892,-34.9739,-17.2263,-3.6536,19.3138,
22.0624,-1.0437,33.4078,45.9358,-22.8296,13.5717,1.0437,-15.6602,4.176,-16.7039,-38.6275,-14.6164,-11.4842,11.4842,
25.0559,10.4404,32.3641,36.5401,-9.3957,13.5727,0,-20.8799,0,-17.7477,-39.6713,-4.176,-6.2635,22.9684,
30.798,-2.6109,30.798,27.6657,-13.0503,5.7421,12.0056,-17.2263,-12.0066,-26.622,-38.1062,1.5661,-1.5661,18.27,
24.0121,1.0437,19.8361,40.716,-20.8799,7.3082,0,-17.7477,0,-28.1881,-42.8035,-8.352,-15.6602,12.5279,
9.0121,10.9618,19.3138,43.3259,-27.6657,9.9181,-5.7421,-26.622,15,-13.1881,-28.7105,-2.6099,-7.8306,16.1815,
-5.9879,5.7426,34.3138,37.0619,-41.2379,-0.52187,8.8738,-19.3133,0,-10.9613,-19.3133,4.6979,0.52187,6.7863,
8.352,0,39.6713,43.8473,-35.4963,0,16.7039,-5.2207,-7.3082,-21.9246,-27.1443,1.0437,-1.0447,5.2197,
15.1378,-15,24.6713,36.0177,-30.798,-2.6099,10.9618,-20.2207,7.6918,-8.8743,-25.5782,2.6099,-6.7858,17.2263,
8.352,-15.6602,19.8361,31.3203,-28.1881,3.1322,0,-35.2207,11.4842,0,-29.2318,-1.0437,-8.352,25.0559,
17.2258,-0.66016,34.8361,41.2379,-31.8422,13.0498,2.6104,-23.4902,-3.5158,-15,-28.71,-6.7863,-1.5656,16.182,
20.3575,4.6983,30.798,46.4581,-29.7542,2.6099,6.7858,-21.4023,-4.6983,-30,-29.7542,-2.6099,-8.8743,2.6099,
14.0945,0.52187,15.798,44.3701,-17.2258,-0.52187,6.7863,-34.9734,10.3017,-15,-40.1942,-5.7416,-15.1383,15.1383,
4.1765,-4.1765,16.7044,37.5843,-26.1001,-3.1317,13.5722,-39.6718,9.3962,0,-36.5396,-9.3962,-9.3962,29.2323,
0,0,19.8351,40.716,-32.3641,-5.2207,7.3072,-24.6718,5.2197,-5.2207,-33.4088,0,-8.353,21.9236,
-2.6099,-1.5661,13.0503,39.1499,-31.8417,1.5661,4.6983,-14.094,13.0503,-2.6099,-27.6657,2.6099,-6.7858,15.1378,
1.5661,-6.7858,18.27,27.6667,-37.0614,-1.5661,7.8306,-27.6657,14.094,3.6546,-23.4897,-2.6099,-3.6536,22.446,
12.5279,-3.1322,13.5717,33.4078,-26.1006,-8.352,3.1322,-31.3203,4.176,3.1322,-37.5838,-5.2197,-13.5727,28.1881,
16.7044,10.4399,9.3962,42.804,-12.5284,2.088,6.264,-16.3203,-3.1317,-2.088,-37.5843,-3.1317,-18.7919,21.9241,
24.0121,22.9684,12.5279,42.8045,-5.2197,17.088,0,-8.352,-5.2197,-4.176,-35.4953,0,-17.7477,25.0559,
19.8356,7.9684,14.6159,40.7155,-20.2197,2.088,-3.1327,-16.7044,-5.2202,-1.0442,-32.3646,1.0442,-8.3525,37.5833,
4.8356,-7.0316,10.4394,39.6723,-35.2197,-12.912,8.352,-24.0121,-6.2645,4.176,-22.9684,6.2635,3.1322,34.4516,
-3.6541,-22.0316,9.9186,37.0619,-50.2197,-20.358,6.7863,-25.5777,-3.6541,6.7863,-22.4455,5.7426,3.6541,34.9744,
-5.2197,-22.9684,7.3082,33.4078,-50.1117,-20.8799,3.1322,-27.1443,-3.1322,8.352,-22.9684,4.176,4.176,33.4078,
-6.7853,-20.358,6.7863,30.7985,-49.5899,-21.4018,0.52187,-27.6652,-0.52187,9.9186,-22.4455,3.6541,4.6978,32.8859,
-6.7858,-17.2263,5.7421,28.7105,-47.5019,-20.3575,-1.5661,-27.6657,1.5661,13.0503,-21.4023,3.6536,6.7858,32.8864,
-7.3082,-14.6164,5.2197,26.0996,-45.9358,-19.8361,-3.1322,-29.2318,4.176,15.6602,-20.8799,3.1322,7.3082,33.4078,
-5.2197,-10.4404,6.2645,24.0121,-41.7598,-16.7039,-5.2197,-27.1443,9.3957,20.8799,-17.7477,5.2197,10.4404,34.4516,
-6.2645,-19.8361,8.352,21.9236,-51.1565,-31.7039,7.3072,-42.1443,14.6154,26.0996,-18.7924,0,0,19.4516,
-7.3082,-34.4526,7.3082,31.3203,-50.1117,-42.8045,7.3082,-35.4963,22.9684,28.1881,-15.6602,9.3957,-10.4404,11.4842,
7.6918,-26.6215,0.52187,30.7985,-35.1117,-30.7975,-1.5656,-26.6215,14.0945,26.6225,-20.358,12.0061,-0.52187,26.4842,
14.0945,-19.3143,-0.52187,15.7985,-48.5461,-38.1057,-3.6541,-41.6215,8.8738,21.4018,-26.6215,0.52187,6.7863,18.2705,
13.5712,-15.6607,-2.088,8.3515,-51.157,-43.8488,-11.4847,-41.7603,13.5712,27.1439,-32.3646,2.088,2.088,10.4399,
21.4023,-6.7858,2.6099,18.27,-38.1062,-28.8488,-5.7421,-26.7603,10.9618,36.0187,-19.3138,14.094,-2.6099,23.4897,
11.4842,-3.1322,5.2197,29.2318,-44.892,-13.8488,-5.2207,-11.7603,6.2635,29.2318,-13.5727,3.1322,-7.3082,22.9674,
6.7858,-10.9618,1.5661,33.9302,-52.7216,-23.4897,-1.5661,-24.5335,13.0503,30.798,-24.5335,0.52237,-0.52237,10.9618,
5.2207,-25.9618,-4.176,18.9302,-67.7216,-38.4897,4.176,-38.6275,8.352,25.0559,-31.3193,5.2207,-5.2197,7.3082,
18.27,-29.7542,-1.5661,16.1815,-69.4265,-53.4897,2.6099,-27.6657,13.0503,21.4023,-20.3585,1.5661,-16.1825,22.3082,
4.6979,-44.7542,-0.52187,20.358,-69.426,-54.8096,2.6104,-28.71,10.9623,20.358,-12.0061,0.52187,-13.0498,21.4018,
-10.3021,-49.5899,3.6541,21.4018,-55.8543,-41.2379,4.6979,-37.0619,-3.6541,23.4902,-18.2695,8.8738,1.9502,6.4018,
-6.2645,-34.5899,5.2197,32.3641,-50.1127,-26.2379,0,-30.2766,0,29.2318,-21.9246,2.0875,8.352,11.4842,
0.52187,-19.5899,8.8738,32.8859,-65.1127,-38.1057,3.6541,-29.7537,12.0061,25.5787,-17.2258,-0.52187,-6.648,5.7426,
15.1383,-8.8738,5.7426,37.0619,-50.1127,-34.9734,5.7426,-30.7975,6.7863,24.534,-28.71,4.6979,-16.182,-4.6979,
22.9679,-9.3962,-1.0442,38.628,-35.1127,-19.9734,4.1755,-28.1886,1.0442,36.5396,-36.5405,1.0442,-1.182,6.264,
18.7924,-15.6602,0,29.2318,-40.716,-8.352,0,-29.2318,12.5279,45.9358,-24.0121,5.2197,-4.176,14.6164,
27.1439,-21.9241,3.1317,18.7919,-31.3198,-14.6159,-3.1317,-32.3646,25.0564,33.4083,-22.9679,9.3962,-8.3525,10.4399,
34.4516,-16.7039,9.3957,18.7924,-25.0559,-14.6164,3.1322,-30.2756,16.7039,18.4083,-26.0996,-1.0437,-2.0885,1.0437,
41.2379,-1.7039,2.6104,33.7924,-24.534,-1.5656,3.6541,-17.2258,1.7039,16.182,-31.8422,-12.0061,-7.8301,-3.6541,
42.8045,13.2961,0,48.7924,-17.7477,-9.3957,8.352,-17.7477,8.352,20.8799,-26.0996,-2.0885,-3.1322,0,
27.8045,-1.7039,4.176,33.7924,-20.8799,-24.3957,3.1322,-32.7477,9.3967,13.5727,-32.3641,4.176,-3.1322,-12.5279,
22.9674,-3.1322,10.4394,30.2756,-18.7924,-16.7039,1.0437,-26.1006,10.4394,18.7914,-37.5838,2.0875,-1.0437,-5.2197,
25.0564,10.4399,6.264,35.4958,-30.2761,-9.3962,1.0442,-11.1006,-1.0442,5.2202,-39.6718,-12.9125,-11.4837,5.2202,
26.622,2.6099,17.2263,44.3696,-15.2761,-14.094,2.6099,-15.1378,-2.6099,4.6983,-44.3696,-15.1378,-9.9181,15.1378,
11.622,-12.3901,26.622,32.8864,-0.27608,-25.5782,4.6983,-29.7542,-6.7858,2.6099,-41.2384,-14.094,-2.6099,4.6983,
1.0447,-17.7477,40.716,28.1881,-12.5279,-24.0111,19.6983,-14.7542,3.1322,0,-26.2384,-1.0437,6.2645,0,
0,-2.7477,39.6713,35.4953,-16.7039,-14.6164,20.8799,-12.5279,2.0875,2.0875,-37.5848,-2.0885,-6.2645,6.2635,
-1.5661,-3.6546,54.6713,43.3259,-9.9181,-9.9181,18.27,-15.1378,2.6099,13.0503,-32.8864,-1.5661,1.5661,21.2635,
-10.4394,-18.6546,48.0242,28.3259,-1.0437,-24.9181,11.4842,-21.9236,1.0437,1.0437,-22.9674,-9.3957,9.3967,14.6164,
-0.52237,-12.0066,33.0242,16.1815,12.0056,-24.5345,6.7858,-32.8864,4.6983,0.52237,-30.798,-18.27,2.6099,-0.38358,
14.4776,-6.264,45.9362,24.0116,11.4837,-10.4399,9.3962,-33.4083,5.2202,8.3525,-35.4958,-19.8356,-5.2202,-12.5284,
29.4776,-7.3087,49.0675,33.4073,14.6159,-5.2202,6.264,-18.4083,2.088,11.4837,-40.7165,-21.9241,-2.088,-3.1327,
14.4776,-18.7914,34.0675,21.9246,4.176,-17.7477,4.176,-16.7039,0,5.2207,-43.8473,-25.0559,-5.2197,0,
8.352,-4.176,33.4078,28.1881,12.5279,-8.352,1.0437,-18.7924,-1.0437,3.1322,-39.6723,-10.4394,-17.7477,8.352,
23.352,10.4399,36.5405,36.5405,15.6607,2.088,-4.1755,-16.7034,-10.4399,-2.088,-46.98,-8.3515,-31.3198,17.7482,
20.8799,0,46.9795,33.4078,0.66066,-1.0447,10.8245,-16.7049,-5.2207,5.2197,-35.4963,-5.2207,-16.3198,17.7477,
16.182,-3.6541,38.1057,28.71,12.0061,-2.6104,2.6104,-20.358,-9.9176,1.5656,-43.3264,-12.0061,-1.5656,7.8301,
25.0564,11.3459,33.4083,39.6728,27.0061,6.264,-6.264,-9.3952,-16.7034,-8.3515,-52.1997,-17.7472,-16.5656,7.3087,
40.0564,22.9679,39.6718,54.6728,27.1439,12.5274,-5.2202,-6.264,-9.3962,-10.4399,-45.9362,-24.0126,-20.8804,5.2202,
49.5904,14.094,44.3696,53.7663,25.5782,10.9618,-2.6099,-20.3585,-8.8743,-4.6983,-47.5019,-26.622,-17.2263,2.6099,
34.5904,4.6978,40.1942,38.7663,10.5782,0.52187,-2.6104,-21.4028,-23.8743,-0.52187,-50.6346,-14.0945,-24.534,10.9613,
20.358,19.6978,40.1942,41.2379,0.52187,12.0061,-4.6978,-6.4028,-29.7537,-0.52187,-51.6783,-13.0498,-27.6662,25.9613,
32.3636,27.1439,46.98,53.2435,3.1317,11.4837,-3.1317,-8.3525,-14.7537,-3.1317,-44.8925,-28.0498,-17.7482,19.8356,
31.3203,18.7914,42.8035,40.716,5.2197,-3.1322,-7.3082,-23.3525,-10.4404,3.1322,-49.068,-33.4078,-25.0559,7.3082,
42.2821,18.27,28.7095,33.9302,18.27,0.52237,-17.2263,-30.798,-22.446,-0.52237,-63.162,-41.2384,-40.0559,5.7421,
41.2384,16.1825,42.2821,30.798,4.6983,1.5661,-2.2263,-19.3138,-19.3138,-10.9618,-48.5456,-36.0177,-25.0559,3.6546,
26.2384,14.6164,57.2821,36.5401,-10.3017,-9.3957,10.4404,-16.7039,-4.3138,-3.1322,-38.6275,-21.0177,-10.0559,1.0437,
26.1006,11.4842,45.9367,39.6723,-16.7039,-13.5717,8.352,-17.7477,9.3967,11.8678,-36.54,-13.5717,-15.6602,-8.352,
36.0182,13.0498,42.2816,39.1504,-12.0061,0.52187,12.0061,-8.8738,-0.52187,10.9623,-30.7985,-13.0498,-19.3143,-6.7863,
22.9679,3.1317,35.4958,30.2761,-27.0061,3.1317,2.088,-9.3962,-15.5219,-2.088,-43.8478,-16.7044,-14.6159,8.2137,
7.9679,-7.3082,40.716,28.1881,-38.6285,3.1322,1.0437,-11.4842,-1.0437,7.3082,-40.716,-3.1322,-11.4842,23.2137,
2.6099,-2.6099,40.1937,27.6657,-23.6285,14.094,-5.7421,-13.0503,3.6536,2.6099,-46.4581,-10.9618,-13.0503,8.2137,
11.4832,12.3901,34.4516,32.3641,-8.6285,29.094,-3.1322,0,-11.3464,-8.352,-49.068,-25.9618,-11.4842,14.6154,
19.8366,19.8366,36.5405,32.3646,-5.2192,43.8488,2.088,-2.088,-19.8356,-5.2192,-43.8478,-29.2313,-26.4842,20.8804,
15.6597,10.4399,33.4073,33.4073,-11.4847,44.8915,-6.264,-14.6159,-15.6607,6.264,-43.8488,-19.8366,-33.4083,16.7034,
0.65967,-1.0437,38.6275,31.3193,-26.1006,37.5838,5.2197,-9.3967,-11.4842,11.4842,-33.4078,-13.5727,-18.4083,30.2756,
-14.3403,-7.8306,34.9739,24.5335,-24.5345,37.0614,6.7858,-5.7421,-10.9618,7.8296,-36.0177,-19.3138,-3.4083,28.7095,
-7.8301,-13.0498,37.0629,19.3143,-13.0498,39.1504,7.8301,-20.7421,4.0382,20.358,-37.0619,-18.2695,-18.2695,13.7095,
-4.176,-14.6164,45.9358,21.9236,-11.4842,33.4078,21.9236,-24.0121,16.7039,27.1434,-28.1881,-9.3967,-16.7039,4.176,
-13.0498,-5.7426,42.2816,19.3143,-10.9623,44.3701,14.0936,-10.9623,1.7039,14.0936,-28.71,-20.358,-1.7039,14.0936,
-25.0559,-7.3082,46.9795,13.5717,-25.9623,55.3315,9.3957,-10.4404,-3.1322,10.4394,-15.6602,-19.8361,3.1322,25.0559,
-10.9618,-7.8296,45.4144,23.4897,-40.9623,53.7663,19.3138,-12.0056,6.7858,23.4897,-12.0056,-6.7858,-11.8678,12.0056,
4.0382,-5.7421,36.0177,29.7542,-34.9739,55.8538,17.2263,-12.0066,10.9618,29.7542,-22.446,-5.7421,-23.4897,-2.9944,
-10.4394,-16.7039,34.4526,15.6602,-31.3193,61.5959,6.2645,-17.7477,8.352,24.0121,-27.1434,-3.1322,-16.7039,3.1322,
-14.0945,-13.0498,36.0182,13.0498,-33.9297,72.5582,-2.6104,-21.4018,8.8738,26.6215,-29.7537,2.6104,-16.182,18.1322,
-10.4399,-10.4399,36.5405,7.3087,-34.4521,68.9046,3.1317,-17.7482,8.3525,19.8366,-19.8356,-3.1317,-9.3962,8.3525,
-6.7853,-10.9613,37.0619,6.7863,-19.4521,71.5145,9.9186,-7.8301,3.6541,13.0508,-24.534,-7.8301,-0.52187,0.52187,
0,-15.6602,26.0996,19.8361,-4.4521,79.3446,5.2197,-11.4842,-8.352,14.6164,-39.534,-9.3957,-15.5219,15.5219,
3.6541,-16.182,23.4902,25.5777,-8.8738,77.778,7.8301,-18.2705,-3.6541,10.9623,-38.1057,-12.0061,-24.534,13.0498,
1.5666,-3.6541,27.6662,24.534,0.52187,91.3506,5.7426,-17.2258,-2.6094,-0.52187,-34.9734,-22.4455,-12.0061,5.7426,
-8.3525,2.088,39.6718,34.4521,-6.264,106.3506,13.5722,-6.264,-4.1765,6.264,-31.3198,-19.8356,-2.088,20.7426,
-16.1815,-5.7421,41.2384,46.4581,-19.3138,101.7906,14.094,-2.6099,-9.9181,8.8743,-28.7095,-14.094,2.6099,21.4023,
-1.1815,0.52187,27.6662,43.3264,-4.3138,103.8786,7.8301,-16.182,-12.0061,-6.1257,-37.0619,-15.1383,-7.8301,9.9186,
2.088,-2.088,20.8794,28.3264,3.1317,105.4437,8.3515,-31.182,-5.2202,-17.7482,-39.6718,-22.9679,-22.8301,7.3077,
-2.088,-7.3087,21.9231,26.0991,3.1317,103.3552,2.088,-35.4968,4.1755,-8.3525,-35.4968,-32.3646,-19.8366,10.4399,
-2.088,-3.1317,27.1439,36.5405,10.4399,110.6644,6.264,-32.3636,2.088,-6.264,-29.2313,-22.9679,-4.8366,13.5722,
-6.2635,0,34.4526,36.54,-4.5601,97.0922,15.6602,-33.4078,-2.0875,-3.1322,-17.7477,-7.9679,0,21.9246,
-17.2263,-5.7421,24.5345,28.7105,-19.5601,82.0922,3.6536,-26.622,2.6099,-2.6099,-19.3138,4.6983,-5.7421,26.622,
-22.4455,1.5656,29.7537,29.7537,-23.4902,97.0922,-1.5656,-20.358,6.7863,-12.0061,-21.4018,1.5656,-17.2258,23.4902,
-7.4455,16.1825,30.798,41.2384,-10.9618,112.0922,1.5661,-28.7095,7.8306,-16.1815,-28.7095,-1.5661,-25.5782,28.7105,
-2.088,5.2202,15.798,34.4521,-25.9618,127.0922,2.088,-35.4958,3.1317,-13.5722,-36.5405,-12.5284,-14.6159,29.2313,
-3.6536,18.27,21.4023,48.5466,-10.9618,142.0922,12.0066,-20.4958,1.5661,-4.6983,-30.798,-1.5661,-6.7858,38.1062,
-9.3957,28.1881,28.1881,52.2002,4.0382,157.0922,0,-5.4958,-9.3957,-11.4842,-39.6723,-11.4842,-21.7858,38.6275,
-21.4018,13.1881,22.4455,48.5461,-10.9618,145.6383,2.6104,-20.4958,0.52187,-0.52187,-30.7985,-13.0498,-17.2258,46.4576,
-22.4465,13.0498,9.9176,56.8981,-15.1383,146.6821,-3.6541,-19.3143,5.7416,3.6541,-38.1057,-7.8301,-6.7863,53.7658,
-32.3641,21.9246,15.6602,50.1127,-0.13829,156.6006,-11.4832,-4.3143,0,0,-32.3641,-8.352,-15.6602,55.3324,
-45.9362,11.4837,28.1876,38.628,-9.3962,147.2034,2.088,-9.3962,6.264,-2.088,-17.3641,-5.2202,-7.3087,45.9362,
-37.5838,1.0437,13.1876,39.6723,-9.3967,140.9395,6.2635,-24.0121,6.2635,-10.4404,-27.1444,-11.4842,-1.0437,32.3641,
-32.3646,-2.088,8.3515,41.7593,2.088,140.94,8.3515,-15.6607,4.1755,-8.3525,-28.1886,-15.6607,-7.3087,37.5833,
-37.5848,2.0875,19.8351,39.6713,-12.912,138.852,0,-17.7486,7.3072,0,-25.0569,-18.7924,-22.3087,38.6275,
-38.1062,10.9618,18.27,37.0614,-27.912,133.1099,-1.5661,-25.5782,17.2263,1.5661,-26.622,-15.1378,-17.2263,23.6275,
-48.0237,2.088,11.4837,26.1001,-42.804,120.0601,3.1317,-27.1439,9.3962,-2.088,-30.2761,-15.6607,-3.1317,12.5274,
-48.0242,0,4.176,32.3641,-29.2318,116.9284,0,-30.2756,6.2645,11.4842,-36.5401,-15.6602,-17.7477,27.5274,
-46.4581,1.5661,13.0503,37.0624,-44.2318,115.3622,-1.5661,-25.5782,18.27,26.4842,-30.798,-1.5661,-18.27,42.5274,
-45.9358,-4.176,21.9236,34.4516,-59.2318,112.7524,-10.4404,-11.4842,20.8799,20.8799,-31.3203,4.176,-8.352,34.4516,
-33.4083,-2.088,20.8804,41.7603,-44.2318,123.1923,-7.3077,-5.2202,15.6597,12.5284,-27.1439,2.088,-21.9241,38.628,
-41.2384,1.5661,22.446,45.4134,-54.8101,121.6257,-3.6546,-16.1825,9.9181,10.9618,-17.2263,-1.5661,-36.0187,36.0177,
-56.2384,9.9176,19.3143,45.4139,-62.1178,110.142,-17.2258,-19.3143,8.8738,14.0936,-29.7537,-8.8738,-24.534,40.1942,
-63.6844,11.4832,13.5717,44.892,-52.2002,109.6192,-5.2207,-8.3529,4.176,16.7039,-35.4963,-4.176,-9.534,55.1942,
-75.1681,-3.5168,3.1317,41.7603,-58.4642,101.2677,3.1317,-10.4399,1.0442,8.3525,-28.1876,-1.0442,-6.264,42.804,
-72.5582,-18.2705,13.0498,49.5899,-53.7658,95.5256,4.6979,-19.3143,10.9623,10.9623,-24.534,-4.6979,-12.0061,32.8859,
-57.5582,-4.6978,25.5777,49.5899,-43.3264,97.6141,19.6979,-24.534,4.6978,13.0498,-22.4465,-10.9623,-18.2705,47.8859,
-42.5582,10.3022,18.7919,48.0237,-28.3264,112.6141,18.7919,-12.5284,-9.3962,9.3962,-19.8366,-12.5284,-14.6159,62.8859,
-57.5582,7.3087,18.7919,43.8478,-35.4958,115.8841,3.7919,-11.4837,-5.2202,10.4399,-21.9241,-3.1317,-8.3515,47.8859,
-72.5582,-6.264,20.8804,51.157,-50.4958,100.8841,2.088,-21.9231,-2.088,9.3962,-26.0991,7.3087,-15.6597,32.8859,
-64.7281,8.736,9.3957,50.1117,-44.892,103.3557,1.0437,-18.7924,-16.7039,4.176,-34.4526,-1.0437,-26.1006,35.4953,
-58.4632,2.088,13.5722,41.7603,-39.6718,107.5322,5.2202,-4.1755,-7.3077,13.5722,-24.0116,-2.088,-24.0116,44.8925,
-52.7216,-2.6099,12.0066,43.3269,-49.5894,100.7468,1.5661,-17.2253,-1.5661,14.094,-27.6657,3.6546,-25.5772,34.9739,
-47.5024,8.8738,12.0061,41.2379,-40.1942,91.3496,0.52187,-32.2253,-12.0061,4.6978,-31.8422,-0.52187,-10.5772,27.6662,
-51.156,6.264,24.0116,43.8478,-26.1001,81.4316,2.088,-28.1876,-9.3962,-1.0442,-20.8804,-8.3525,1.0442,33.4083,
-53.7663,5.7421,21.4023,48.5456,-29.7542,96.4316,3.6536,-13.1876,-2.6099,2.6099,-20.3585,-8.8743,-13.9558,39.1499,
-68.7663,1.5656,16.182,42.2816,-44.7542,111.4316,8.8738,-9.9176,-4.6978,5.7426,-17.2258,-1.5656,-28.9558,30.7985,
-83.7663,-4.176,25.0569,41.7608,-59.7542,96.4316,6.2645,-17.7477,-7.3072,4.176,-17.7477,5.2207,-17.7477,33.4088,
-90.8283,-6.264,34.4521,43.8478,-73.0796,84.5638,2.088,-14.6159,-6.264,3.1317,-19.8356,5.2202,-2.7477,48.4088,
-86.1304,-7.8306,39.1499,44.3696,-67.338,99.5638,1.5661,-2.6099,-1.5661,5.7421,-23.4897,6.7858,-12.0066,61.0735,
-81.9539,-12.0061,34.9744,39.1504,-56.8981,93.4381,-2.6104,-15.1383,4.6979,9.9186,-27.6662,2.6104,-25.5777,51.6783,
-75.1681,-16.7044,42.804,35.4958,-53.2445,78.4381,5.2202,-30.1383,4.1755,2.088,-14.6159,-2.088,-12.5284,36.6783,
-60.1681,-1.7044,46.9795,44.892,-38.2445,88.7403,7.3082,-22.9684,0,0,-28.1881,-4.176,-6.2645,33.4078,
-54.2887,12.5279,40.716,38.6275,-23.2445,103.7403,0,-7.9684,-1.0447,8.352,-39.6723,-9.3967,-17.7486,48.4078,
-69.2887,-0.52187,52.7221,28.71,-38.2445,100.7463,4.6979,-7.8301,0.52187,8.8738,-24.6723,-5.7426,-14.0945,63.1615,
-62.6407,0,56.3762,31.3193,-38.6285,87.6955,12.5279,-13.5727,0,8.352,-14.6164,-1.0447,-17.7486,48.1615,
-58.4637,-3.1322,57.4199,21.9246,-41.7598,75.1686,19.8361,-17.7477,3.1322,10.4404,-20.8799,-3.1322,-22.9674,33.1615,
-63.162,-6.7858,58.9861,22.446,-46.4581,72.5577,12.0056,-30.798,6.7858,6.7858,-25.5782,-8.8743,-8.8743,29.7542,
-55.8538,2.6099,50.6341,31.8417,-39.1499,80.9107,4.6983,-30.798,1.5661,-1.5661,-24.5335,-12.0056,-2.6099,41.2384,
-56.8986,9.9181,48.5456,27.6657,-36.0177,79.8659,12.0056,-21.4023,-1.5661,1.5661,-18.27,-7.8306,-8.8743,30.798,
-61.5964,2.088,50.1112,30.2751,-38.628,72.0359,-2.088,-26.1001,4.1755,9.3952,-27.1448,-7.3087,-22.9689,24.0116,
-57.4199,-5.2197,58.4647,45.2751,-51.1555,62.6407,0,-19.8351,19.1755,16.7049,-13.5717,0,-24.0111,37.5848,
-72.4199,-13.5712,48.0247,38.628,-66.1555,51.157,6.264,-15.6597,8.3525,7.3087,-13.5712,-6.264,-25.0554,28.1886,
-85.608,-2.088,56.3757,44.8915,-65.7724,66.157,21.264,-6.264,2.088,14.6159,-20.8804,-2.088,-10.0554,33.4083,
-70.608,-3.1317,63.6839,49.0685,-56.3757,72.0359,19.8356,-12.5284,3.1317,12.5284,-27.1439,-5.2202,-11.4837,35.4958,
-55.608,4.6978,48.6839,46.4576,-41.3757,79.8664,4.8356,-22.4465,-0.52187,0.52187,-33.9297,-20.2202,-23.4902,29.7537,
-50.6336,12.0061,58.9865,48.5461,-33.9297,90.3059,19.8356,-17.2258,-3.6541,3.6541,-21.4018,-8.8738,-16.182,34.9744,
-63.6839,-2.088,69.9484,54.2882,-48.9297,75.3059,25.0564,-22.9679,-9.3962,8.3525,-19.8356,2.088,-21.9241,20.8804,
-51.156,-1.0442,58.4642,58.4642,-54.2882,69.9484,13.5722,-24.0116,1.0442,15.6607,-17.7482,-4.1755,-15.6597,20.8804,
-45.4139,0.52187,50.6336,46.4576,-39.2882,69.426,17.2258,-18.2705,-0.52187,18.2695,-12.0061,-8.8738,-4.6978,35.8804,
-34.9739,3.6536,52.7216,42.2821,-25.5782,71.514,20.3575,-13.0503,-15.5219,21.4023,-25.5782,-3.6536,-19.6978,43.3259,
-29.7542,2.6099,54.8101,44.3696,-38.1062,63.162,24.5345,-13.0503,-7.8296,20.3585,-26.622,-2.6099,-27.6657,36.0177,
-44.7542,-12.3901,45.9358,36.5401,-53.1062,48.162,14.6164,-28.0503,3.1322,7.3082,-22.9674,-3.1322,-16.7039,21.0177,
-55.3315,-27.3901,42.8045,29.2318,-68.1062,33.162,4.176,-36.54,0,11.4842,-29.2318,0,-15.6602,10.4404,
-55.8543,-17.2258,50.6336,31.8422,-77.7784,44.3701,17.2258,-21.54,-3.6541,25.5777,-22.4465,3.6541,-15.1383,25.4404,
-56.3762,-2.2258,35.6336,43.8483,-62.7784,52.2002,11.4842,-6.54,-8.352,14.6164,-28.1881,-7.3082,-19.8361,33.4078,
-47.5029,-4.6983,32.8854,47.5019,-47.7784,48.5456,4.6974,-2.6099,2.6099,15.1378,-26.622,-3.6546,-9.9181,18.4078,
-45.9358,-9.3957,38.6285,32.5019,-53.244,41.7608,4.176,-17.6099,0,22.9684,-30.2756,0,-14.6154,9.3967,
-32.3636,3.1317,43.8478,35.4958,-38.244,56.7608,16.7044,-10.4399,-12.5284,21.9241,-32.3636,-3.1317,-18.7919,24.3967,
-33.4078,-1.0437,51.1565,50.4958,-23.244,67.8604,31.7044,-1.0437,-3.1322,20.8799,-17.3636,1.0437,-3.7919,39.3967,
-48.4078,-16.0437,36.5401,45.9358,-32.3641,55.3324,16.7044,-16.0437,-1.0437,20.8799,-29.2318,-9.3957,1.0437,33.4078,
-33.4078,-5.7421,42.2821,44.3706,-28.7095,70.3324,5.7421,-12.0056,-1.5661,30.798,-24.5335,-4.6983,1.5661,36.0177,
-19.8361,-1.0437,42.8045,36.5401,-21.9236,78.2998,16.7039,1.0437,-16.5661,15.798,-21.9236,-8.352,-13.4339,46.9805,
-11.4847,6.264,38.628,35.4958,-7.3087,78.2993,20.8794,-6.264,-10.4409,18.7919,-30.2761,-12.5284,-17.7482,37.5833,
-11.4842,-8.352,41.7598,24.0121,-17.7477,72.0364,20.8799,-20.8799,4.5591,31.3203,-26.0996,-11.4842,-7.3082,30.2756,
-6.7863,-20.358,45.4139,24.534,-25.5777,68.3822,19.3143,-12.0061,3.6541,29.7537,-19.3143,-3.6541,-9.9186,41.2379,
-7.3077,-9.3962,50.1122,32.3636,-25.0564,65.7724,26.1001,-5.2202,2.088,20.8804,-19.8356,-2.088,-6.264,27.1439,
-6.264,-4.1765,53.2435,31.3198,-25.0564,61.5964,30.2761,-12.5284,3.1317,20.8804,-17.7482,-4.1765,-3.1317,12.1439,
7.8301,-7.8301,39.1504,34.9744,-20.358,55.8543,16.182,-13.0498,-11.8683,22.4465,-28.71,-10.9623,-18.1317,18.2705,
6.7858,-13.0503,44.3696,44.3696,-34.9739,43.3259,22.446,-8.8743,-18.27,18.27,-25.5782,-6.7858,-30.798,12.0056,
-3.1312,-5.2197,49.068,51.1565,-41.7598,32.3641,27.1443,-15.6592,-6.2635,16.7039,-16.7039,0,-15.798,7.3082,
-1.0437,0,42.8035,48.0242,-26.7598,34.4516,19.8361,-16.7039,-8.352,18.7924,-18.7924,-5.2197,-0.79796,22.3082,
1.0442,-1.0442,49.0675,45.9362,-11.7598,45.9362,26.1001,-6.264,-13.5722,28.1876,-17.7482,-2.088,-3.1317,34.4521,
-13.9558,-4.6983,34.0675,34.9739,3.2402,46.4581,11.1001,-21.264,-19.3138,14.094,-32.7482,-13.0503,-14.094,21.4023,
-15.1378,2.6099,23.4897,36.0177,1.5661,53.7663,-1.5661,-36.0177,-15.1378,1.5661,-41.2384,-22.446,-23.4897,18.27,
-4.6978,2.6104,38.4897,51.0177,13.0498,62.1178,-0.52187,-21.0177,-18.2695,0.52187,-36.0182,-29.7537,-9.9176,18.2705,
-19.6978,-3.6541,41.2379,43.3264,10.9623,52.7221,12.0061,-14.0945,-27.6662,3.6541,-37.0619,-27.6662,-13.0498,22.4455,
-34.6978,4.176,38.6285,35.4963,-4.0377,57.4209,26.1006,-14.6154,-12.6662,18.6541,-24.0111,-12.6662,-28.0498,37.4455,
-22.446,-1.5661,23.6285,38.1062,1.5661,65.2505,11.1006,-8.8733,-16.1815,15.1378,-39.0111,-17.2263,-37.0614,38.1062,
-21.4018,-10.9613,21.4018,36.0182,16.5661,57.9418,3.6541,-3.6541,-23.4902,5.7426,-36.0182,-28.71,-22.0614,28.71,
-24.0121,-1.0437,20.8799,30.2756,2.0875,42.9418,7.3082,-17.7486,-15.6602,1.0437,-30.2766,-29.2318,-9.3967,13.71,
-9.0121,13.9563,10.9623,37.0619,-3.6541,49.5899,-4.6979,-19.3133,-13.0498,3.6541,-44.3701,-33.9297,-24.3967,5.7426,
-1.0442,1.0442,21.9241,39.6718,-5.2202,51.156,6.264,-11.4837,-26.1001,3.1317,-42.804,-30.2761,-28.1876,20.7426,
-8.352,-4.176,31.3203,50.1127,-5.2197,55.3324,19.8361,3.5163,-17.7477,8.352,-27.804,-15.2761,-13.1876,26.1006,
-6.264,-2.088,17.7482,39.6718,-16.7034,48.0247,9.3962,2.088,-12.5274,12.5284,-24.0116,-3.1317,-15.6597,11.1006,
-13.0493,1.5661,26.622,37.0624,-5.7421,45.4144,17.2263,-5.7421,-9.9181,23.4907,-28.7095,-1.5661,-9.9181,18.27,
-27.1439,-6.264,20.8794,39.6718,1.0442,49.0675,17.7482,-1.0442,-10.4399,17.7482,-39.6718,-14.6159,-18.7919,24.0116,
-19.3148,-9.9181,20.3575,45.4134,-5.7421,52.7216,16.1815,5.7421,-13.0503,12.0056,-30.798,-10.9628,-23.4907,20.3575,
-13.5717,-3.1322,19.8361,41.7608,3.1322,51.1565,9.3967,-9.2579,-27.1434,8.352,-30.2756,-11.4842,-18.7914,24.0121,
-22.446,-4.6983,14.094,34.9739,6.7858,55.8538,8.8743,-15.1378,-24.5345,4.6983,-32.8864,-23.4897,-13.0503,33.9302,
-29.7547,-6.7863,13.0498,36.0182,-3.6541,70.4697,10.9613,-0.13779,-13.0508,3.6541,-33.9307,-20.358,-22.4465,32.8859,
-36.0177,-1.5661,14.094,39.1499,-7.8296,74.6462,12.0056,1.5661,-15.1378,9.9181,-37.0624,-18.27,-21.4023,29.7542,
-46.4581,-3.6536,26.622,41.2384,-3.6536,59.6462,26.622,-2.6099,-9.9181,10.9628,-22.0624,-18.27,-6.4023,31.8427,
-40.716,-3.1322,18.7924,38.6285,9.3967,46.9805,15.6602,1.0437,-5.2197,-1.0437,-26.0996,-16.7039,-5.2197,18.7924,
-29.2323,-1.0442,7.3077,34.4521,7.3077,43.8478,7.3077,-12.5284,1.0442,2.088,-26.1001,-15.6597,-18.7919,3.7924,
-30.7975,-4.6978,16.182,37.0619,-0.52187,34.9744,16.182,-23.4902,3.6541,6.7863,-14.0936,-18.2695,-16.182,0.52187,
-27.1439,1.0442,13.5722,36.5405,8.3525,39.6718,6.264,-13.5722,-6.264,-1.0442,-29.0936,-25.0564,-25.0564,15.5219,
-22.9684,5.2197,22.9684,36.5401,-2.0885,50.1117,16.7039,1.0437,-4.176,-1.0437,-31.3203,-11.4842,-12.5279,22.9684,
-26.0996,-1.0437,26.0996,45.9358,-17.0885,38.6275,22.9684,1.0437,-7.3082,-10.4404,-28.1881,-9.3957,1.0437,9.3957,
-11.0996,13.9563,19.3138,56.8976,-2.0885,41.2384,13.0503,1.5661,-9.9181,-9.9181,-32.8864,-13.0503,-13.9563,8.8743,
-4.6978,21.4018,8.8738,41.8976,5.7416,44.3701,4.6978,-13.4339,-21.4018,-7.8301,-32.8859,-16.182,-28.9563,6.7863,
-14.6159,15.6597,14.6159,41.7603,8.3525,44.8925,14.6159,-16.7044,-17.7482,-10.4399,-27.1439,-11.4837,-13.9563,15.6597,
-29.6159,8.8743,23.4897,49.5904,-3.6536,38.1062,24.5345,-1.7044,-10.9618,-21.4023,-24.5335,-5.7421,1.0437,25.5782,
-22.9684,19.8361,24.0121,55.3315,-5.2207,50.1117,11.4842,4.176,-10.4404,-17.7486,-20.8799,-4.176,-10.4404,34.4516,
-16.1815,18.27,26.622,53.7663,-0.52237,62.1183,13.0503,0.52237,-0.52237,-2.7486,-13.0503,-5.7421,-1.5661,39.1499,
-29.7537,3.27,27.6662,43.3264,-4.6979,47.1183,28.0503,-13.0498,5.7416,0.52187,-10.9623,-3.6541,-0.52187,24.1499,
-17.2258,6.7863,12.6662,39.1504,10.3021,32.1183,29.7537,-25.5777,-9.2584,-6.7863,-23.4902,-12.0061,-15.5219,12.0061,
-2.2258,5.2202,-1.0442,24.1504,25.3021,17.1183,14.7537,-37.5843,-24.2584,-20.8804,-38.4902,-27.0061,-30.5219,3.1317,
12.7742,-2.6104,9.9176,30.7985,40.3021,8.8738,9.9176,-30.7985,-23.4902,-17.2258,-38.1057,-30.7985,-20.358,2.6104,
18.2695,4.6979,8.8738,26.6215,55.3021,7.8301,15.1373,-39.1504,-19.3143,-19.3143,-36.0182,-29.7547,-6.7863,-4.6979,
16.7039,18.7924,19.8361,17.7477,70.3021,3.1322,22.9684,-40.716,-9.3957,-14.6164,-21.9236,-27.1443,-3.1322,-7.3082,
31.7039,17.7477,30.2756,29.2318,85.3021,-1.0437,30.2756,-25.716,1.0437,-4.176,-15.6602,-15.6602,-5.2197,-3.1322,
29.2318,4.176,28.1881,35.4963,70.3021,-9.3957,33.4078,-28.1881,-10.4394,-3.1322,-18.7914,-7.3082,0,0,
15.6602,4.176,27.1434,27.1434,55.3021,-21.9246,28.1881,-36.5401,-20.8799,-11.4842,-19.8361,-6.2645,-4.176,9.3957,
8.352,1.0437,30.2756,24.0121,40.3021,-36.9246,29.2318,-31.3203,-15.6602,-22.9684,-15.6602,-14.6164,-1.0437,16.7039,
3.1312,-11.4842,42.8035,35.4953,42.8035,-41.7608,40.716,-22.9684,-0.66016,-18.7924,-0.66016,-8.352,13.9563,1.7039,
7.8296,-5.7421,44.3696,45.4134,49.5894,-26.7608,29.7542,-27.6667,4.6974,-10.9618,-10.9618,-1.5661,1.5661,-13.2961,
3.6541,0.52187,50.6346,37.0619,45.4139,-30.7975,27.6662,-30.7975,-0.52187,-9.9176,-15.1373,-5.7416,-13.0498,0.52187,
-10.4404,-6.2645,65.6346,37.5838,45.9358,-32.3641,42.6662,-15.7975,-1.0437,1.0437,-8.352,-6.2645,1.9502,15.5219,
-22.446,-14.094,62.1183,45.4134,49.5894,-20.3585,33.9302,-14.094,-2.6099,9.9181,-19.3138,-6.7858,2.6099,23.4897,
-37.446,-25.5782,65.2495,30.4134,34.5894,-34.9739,31.8417,-29.094,2.6099,9.9181,-12.0066,-2.6099,-3.6546,10.9618,
-52.446,-33.4078,74.1238,17.7477,19.5894,-49.9739,37.5838,-38.6275,12.5279,10.4404,-3.1322,-9.3957,3.1322,-4.0382,
-53.7663,-41.2384,75.69,27.6657,27.6657,-43.3259,36.0177,-27.6657,16.1815,16.1815,1.5661,-15.1378,-1.5661,-16.1815,
-49.0685,-51.156,73.0796,27.1439,27.1439,-51.156,35.4958,-42.6657,10.4399,11.4837,3.1317,-3.1317,-9.3962,-7.3077,
-45.4139,-41.2379,66.2938,19.3133,19.3133,-58.9865,32.8859,-51.6783,1.5656,0.52187,-6.7863,-0.52187,1.5656,-12.0061,
-41.7603,-26.2379,69.9484,15.6597,17.7482,-48.0237,37.5843,-38.628,1.0442,13.5722,-1.0442,-4.1765,14.6159,-27.0061,
-32.8859,-19.3143,63.1625,24.534,17.2258,-39.1494,24.534,-44.3701,-6.7853,27.6662,-0.52187,0.52187,3.6541,-27.6662,
-21.4018,-20.358,66.2938,39.1504,9.9176,-38.1057,17.2258,-37.0619,-1.5656,26.6225,0.52187,15.5219,-0.52187,-12.6662,
-36.4018,-30.7985,71.5145,31.8422,-4.6978,-43.3264,21.4018,-24.534,-1.5656,15.1383,-1.5656,18.2695,1.5656,1.5656,
-33.4088,-18.7924,72.0354,32.3641,10.3022,-30.2766,28.1881,-24.0121,-10.4404,16.7039,-7.3082,3.2695,0,16.5656,
-18.4088,-14.6154,76.2123,37.5848,25.3022,-34.4516,31.3203,-30.2756,-12.5279,14.6164,0,-6.2635,0,21.9246,
-22.9684,-22.9684,74.1238,43.8483,18.7924,-39.6723,30.2756,-21.9236,-1.0437,8.352,3.1322,-2.0875,1.0437,6.9246,
-30.798,-19.3138,70.4702,45.4144,28.7105,-32.8864,30.798,-21.4023,8.8743,13.0503,3.6536,-3.6536,-3.6536,-7.8296,
-40.7165,-16.7044,69.9484,41.7603,29.2323,-37.5843,22.9679,-28.1886,-4.1765,12.5274,3.1317,-8.3525,-3.1317,7.1704,
-38.1057,-12.0061,65.25,45.4139,36.0182,-31.8422,9.9176,-23.4902,-12.0061,13.0498,-9.9176,-5.7416,5.7416,22.1704,
-31.8427,-20.3585,65.2495,37.0614,37.0614,-27.6667,21.4023,-26.622,1.5661,8.8733,-10.9618,-1.5661,6.7858,7.1704,
-19.8366,-19.8366,64.7276,33.4073,48.0237,-34.4521,28.1876,-29.2323,8.3515,6.264,-7.3087,-6.264,9.3952,-7.8296,
-14.6164,-4.8366,58.4637,33.4078,63.0237,-27.1443,19.8361,-20.8799,-3.1322,7.3082,-9.3957,-20.8799,3.1322,7.1704,
-8.352,4.176,70.9916,38.6275,64.7281,-12.1443,30.2756,-8.352,-7.3082,6.2635,-4.176,-22.9684,-11.8678,22.1704,
0.52187,-0.52187,69.426,45.4139,60.0303,-8.8738,28.71,-9.9176,-0.52187,4.6978,-9.9176,-23.4893,-13.0498,7.1704,
-14.4781,-14.6164,56.3762,31.3203,45.9358,-21.9236,25.0559,-20.8799,-1.0437,10.4404,-5.2197,-15.6602,1.9502,1.0437,
-27.1444,-12.5279,51.1565,19.8361,42.8035,-19.8361,25.0559,-26.0996,-13.5717,4.176,-4.176,-10.4404,9.3957,7.3082,
-22.9684,2.4721,55.3324,27.1443,52.2002,-13.5717,29.2318,-20.8799,-6.2645,0,-11.4842,-14.6164,0,9.3957,
-37.9684,-8.8738,57.9418,27.6662,37.2002,-28.5717,34.9744,-26.6225,4.6978,4.6978,-7.8301,-14.0936,6.7863,-4.6978,
-43.8478,-19.8356,57.4204,27.1439,24.0116,-43.5717,27.1439,-21.9241,1.0442,3.1317,-8.3515,-1.0442,9.3962,-4.1755,
-36.5405,-9.3962,60.5517,26.1001,37.5843,-36.5405,25.0564,-11.4837,-3.1317,3.1317,-12.5284,3.1317,-4.1765,9.3962,
-28.1881,0,59.5074,41.1001,40.716,-27.1443,28.1881,-17.7486,0,13.5717,-13.5727,-9.3967,-18.7924,16.7039,
-15.1378,1.5661,50.6341,54.8101,39.1499,-25.5782,23.4897,-20.3575,-1.5661,9.9181,-19.3138,-14.094,-19.3138,19.3138,
-14.6154,0,56.3762,55.3324,35.4963,-29.2318,30.2766,-6.2635,-6.2635,0,-10.4394,-1.0437,-4.3138,11.4842,
-15.6602,3.1322,57.4199,60.5522,50.1117,-24.0121,30.2766,-3.1322,-8.352,-3.1322,-12.5279,-7.3082,3.1322,9.3957,
-10.4394,4.176,66.8166,60.5522,58.4637,-20.8799,37.5838,-17.7477,1.0437,-1.0437,-4.176,-8.352,-7.3082,18.7924,
-10.4404,-4.176,79.3446,51.1565,43.8483,-33.4078,42.8045,-27.1443,-1.0437,-5.2197,8.352,1.0437,-2.0875,6.2645,
-0.52237,0.52237,74.6462,55.8538,57.9423,-23.4897,42.2821,-19.3138,-4.6983,-2.6099,0.52237,-9.9181,10.9618,-0.52237,
3.6541,-2.6104,63.1625,44.3701,72.9423,-19.3143,34.9744,-21.4018,-10.9623,-12.0061,-14.4776,-24.9181,5.7416,2.6104,
10.9623,7.8301,68.3822,36.0182,76.7342,-18.2695,31.8422,-14.0936,-7.8301,-10.9623,-16.182,-23.4902,-4.6979,4.6979,
1.5661,7.8306,62.1183,32.8864,61.7342,-33.2695,29.7542,-19.3138,-1.5661,1.5661,-14.094,-14.094,-14.094,-10.3021,
-0.52187,0.52187,51.6773,40.1942,46.7342,-45.4139,27.6662,-28.71,4.6978,7.8301,-12.0061,-14.0945,-13.0498,-20.358,
8.8738,7.8301,50.6336,41.2379,52.7221,-37.0619,22.4455,-20.358,-3.6541,0.52187,-20.358,-14.0945,-10.9623,-5.358,
-2.6099,14.094,63.162,29.7542,48.5456,-31.8417,37.0624,-7.8296,-5.7421,-0.52237,-10.9618,-4.6983,0.52237,6.7858,
-5.2202,14.6159,60.5517,36.5405,54.2882,-18.7919,37.5843,-5.2202,2.088,-2.088,-8.3515,-4.1755,11.4837,-3.1317,
2.088,7.3077,45.5517,45.9362,50.1122,-16.7044,22.5843,-2.088,-4.1765,-14.6159,-21.9241,-16.7044,5.2202,-3.1317,
-0.52187,10.9623,46.4576,44.3701,44.3701,-24.534,21.4018,0.52187,-12.0061,-12.0061,-21.4018,-14.0945,-4.6978,8.8738,
-2.6099,21.4023,46.4581,48.5466,59.3701,-16.1815,23.4897,-10.9618,-10.9618,-0.52237,-23.4897,-10.9618,0.52237,12.0066,
-5.7421,16.1825,48.5466,49.5904,58.9861,-12.0056,25.5782,-16.1815,-13.0493,-5.7421,-19.3138,-13.0493,13.0503,5.7421,
6.264,21.9241,56.3767,50.1122,58.4642,-8.3515,27.1439,-3.1317,-12.5274,-11.4837,-15.6597,-15.6597,-1.9497,2.088,
15.1383,20.358,55.8543,48.5461,70.4697,-6.7863,28.71,-2.6104,-7.8301,-8.8738,-16.182,-25.5777,-16.9497,2.6104,
5.7421,5.358,49.5904,44.3706,63.162,-10.9618,29.7542,-16.1815,-15.1378,-8.8733,-19.3138,-27.6657,-1.9497,4.6983,
-1.5656,1.5656,36.0182,41.2379,55.8543,-7.8301,17.2258,-25.5777,-25.5777,-13.0498,-34.3138,-32.8859,3.6541,4.6978,
1.0437,16.5656,48.0232,56.2379,43.8473,0,29.2318,-10.5777,-15.6602,-10.4404,-19.8361,-21.9246,-5.2207,0,
-5.2197,28.1881,57.4199,66.8156,32.3641,-1.0437,36.54,4.4223,-9.3957,-8.352,-4.8361,-6.9246,1.0437,-5.2197,
-10.4404,19.8361,44.892,51.8156,37.5838,-7.3082,28.1881,-9.3957,-4.176,4.176,-16.7039,-17.7477,10.4394,-4.176,
-19.8356,4.8361,37.5843,36.8156,37.5843,-22.3082,27.1439,-22.9679,-2.088,2.088,-20.8804,-29.2323,7.3077,-13.5722,
-13.5722,13.5722,43.8478,51.8156,46.98,-18.7919,28.1876,-7.9679,-7.3077,-10.4399,-13.5722,-14.2323,9.3962,-15.6597,
1.0437,26.0996,44.892,55.3315,51.1555,-13.5717,24.0121,7.0321,-16.7039,-19.8361,-16.7039,-7.3082,-1.0437,-12.5279,
10.9618,28.7105,41.2384,54.8101,60.0298,-9.9181,22.446,-3.6536,-5.7421,-10.9618,-20.3575,-16.1815,-16.0437,2.4721,
-1.5661,18.27,36.0177,58.9861,54.8101,-2.6109,20.3575,9.9181,-2.6109,-8.8743,-23.4907,-22.446,-12.0066,1.5661,
-15.6597,6.264,50.1122,60.5517,39.8101,-8.3525,31.3198,21.9241,-3.1317,-6.264,-15.6597,-19.8356,2.9934,-12.5284,
-17.7477,19.8361,46.9795,72.0364,34.4516,-20.8799,24.0121,6.9241,1.0437,-1.0437,-20.8799,-17.7477,-9.3957,-12.5279,
-14.0936,31.8422,38.1057,74.6457,40.1942,-15.1383,17.2258,0.52187,-0.52187,-2.6104,-15.1383,-13.0498,-1.5656,2.4721,
-17.7482,16.8422,28.1886,59.6457,43.8478,-22.9679,11.4847,-1.0442,-10.4399,-10.4399,-17.7482,-28.0498,3.1317,1.0442,
-13.5717,4.176,29.2328,56.3762,52.2002,-30.2756,16.7049,0,0,4.5601,-21.9236,-27.1434,-6.2635,-2.0875,
-24.5345,13.0493,38.1062,60.0298,37.2002,-33.9302,20.3575,-4.6983,2.6099,1.5661,-13.0503,-18.27,-12.0066,-1.5661,
-9.5345,21.9241,48.0237,64.7276,39.6718,-18.9302,28.1876,2.088,-4.1765,-13.4339,-7.3077,-16.7044,2.088,-3.1317,
5.4655,17.7482,39.6718,62.6402,54.2882,-17.7482,26.1001,2.088,-19.1765,-28.4339,-22.3077,-31.3198,-2.088,-18.1317,
-3.6541,31.8422,46.4576,69.426,61.074,-15.1383,28.71,14.0936,-21.4028,-27.6662,-21.4028,-19.3143,3.6541,-13.0498,
-5.7421,31.8427,42.2821,54.426,53.7663,-22.446,28.7105,14.094,-7.8296,-26.622,-10.9618,-10.9618,2.6099,-2.6099,
-3.1322,17.7477,46.9805,45.9358,42.8045,-34.4516,42.8045,9.3957,-1.0437,-31.3203,1.0437,-3.1322,-5.2197,-8.352,
1.0442,19.8356,50.1122,60.9358,55.3319,-19.8366,35.4958,10.4399,-10.4399,-31.3198,-8.3525,-4.1765,-1.0442,-12.5284,
-5.7416,10.9623,35.1122,46.4576,53.7658,-27.6662,20.4958,5.7416,-23.4902,-38.1057,-22.4455,-19.1765,10.9623,-9.9176,
-19.8361,12.5279,24.0121,32.3641,38.7658,-38.6275,13.5727,5.2197,-22.9674,-35.4963,-19.8361,-14.6154,8.352,-5.2197,
-18.2705,27.5279,36.0182,47.3641,25.5777,-23.6275,16.182,16.182,-12.0061,-26.6225,-17.2258,-5.7426,-0.52187,0.52187,
-31.3198,14.6159,33.4083,53.2445,22.9679,-20.8804,12.5284,13.5722,-3.1317,-26.1001,-13.5722,-8.3515,3.1317,-8.3515,
-30.2756,-0.38408,21.9246,40.716,37.9679,-35.8804,19.8361,5.2197,-4.176,-20.8799,-15.6602,0,15.6602,0,
-18.27,7.8306,20.3585,45.4144,51.6778,-32.8854,21.4023,-2.6099,-13.0493,-25.5772,-17.2253,-5.7421,2.6099,15,
-33.27,1.5661,27.6657,42.2821,36.6778,-30.798,21.4013,4.6974,-5.7421,-28.7105,-2.2253,-7.8306,-7.8306,9.9181,
-38.628,-2.088,28.1876,38.628,30.2761,-24.0126,20.8794,13.5722,1.0442,-25.0564,-2.088,-4.1765,7.1694,-1.0442,
-23.628,3.6541,30.7985,42.2816,38.1057,-24.534,28.71,5.7416,-7.8301,-28.71,-3.6541,-5.7416,22.1694,-4.6978,
-15.1388,8.8733,27.6657,43.3259,33.9302,-27.6667,34.9739,1.5661,-10.9628,-33.9302,-4.6983,-5.7421,7.8296,-1.5661,
-30.1388,1.5661,17.2263,34.9739,22.446,-33.9302,26.622,2.6099,-1.5661,-27.6657,-12.0056,-7.8296,-4.6974,5.7421,
-45.1388,-10.4399,24.0116,34.4521,7.446,-48.9302,18.7919,2.088,6.264,-15.6597,-9.3962,-2.088,5.2202,-3.1317,
-43.8478,-4.1755,29.2323,41.7603,4.1765,-63.9302,9.3962,2.088,2.088,-17.7482,-11.4837,-2.088,2.088,-18.1317,
-31.3203,9.3957,43.8483,43.8483,0,-51.1565,24.3962,6.2635,-6.2645,-22.9684,-4.176,0,4.176,-18.7924,
-31.3198,10.4399,50.1122,41.7603,2.088,-40.7155,33.4083,1.0442,-12.5284,-22.9679,-4.1755,-4.1755,6.264,-3.7924,
-33.4083,17.7482,50.1122,41.7603,10.4399,-40.7165,18.7919,9.3962,-3.1317,-14.6159,-7.3077,-9.3962,-3.1317,3.1317,
-39.6718,18.7919,58.4642,45.9362,2.088,-42.804,14.6159,16.7034,2.088,-21.9241,-4.1765,-10.4399,-7.3077,-2.088,
-24.6718,19.8361,57.4199,57.4199,15.6602,-45.9358,12.5279,15.6602,-3.1322,-25.0559,-12.5279,-7.3082,0,0,
-9.9176,12.0061,54.8106,44.3701,30.6602,-53.7658,17.2268,4.6978,-10.9613,-17.2258,-17.2258,-4.6978,5.7426,-7.8301,
-7.8296,8.8743,69.8106,31.8417,43.3259,-46.4581,30.798,-0.52237,-1.5661,-7.8296,-2.2258,-0.52237,13.0503,0.52237,
-22.8296,-3.6541,77.778,24.534,28.3259,-53.7663,23.4902,-6.7863,0.52187,-19.3143,-0.52187,-8.8738,3.6541,12.0061,
-21.4018,-1.5656,78.8217,31.8422,24.534,-63.162,19.3143,0.52187,-0.52187,-16.182,3.6541,-3.6541,-0.52187,2.6104,
-6.4018,13.4344,72.0364,41.7598,39.534,-54.2877,13.5717,12.5279,-7.3082,-6.2645,-1.0437,-2.0885,1.0437,-7.3082,
-21.4018,1.5661,60.0298,31.8417,36.0177,-54.8101,17.2263,8.8743,-12.0056,-7.8296,-1.5661,-7.8296,13.0503,-1.5661,
-36.0182,-6.7853,64.2063,33.9307,21.0177,-54.8101,22.4465,-0.52187,-6.7853,-14.0936,0.52187,-5.7416,7.8301,7.8301,
-21.4018,5.7416,76.7342,48.5461,36.0177,-47.5024,24.534,2.6104,-5.7416,-10.9623,-2.6104,-2.6104,-7.1699,21.4018,
-30.2756,-3.1322,76.2123,33.5461,31.3203,-62.5024,26.0996,0,-10.4404,-16.7039,4.176,-7.3082,4.176,6.4018,
-30.7975,3.6541,67.3385,30.7985,21.4028,-70.4697,26.6225,-3.6541,-8.8738,-16.182,10.9623,-7.8301,19.176,-8.5982,
-20.8799,14.6164,68.9041,41.7608,36.4028,-56.3757,30.2766,-4.176,-10.4394,-7.3072,4.176,-11.4842,5.2207,-6.2635,
-25.5782,14.094,77.7784,39.1499,38.1062,-45.4144,32.8864,2.6099,-9.9181,-2.6099,-2.6099,-6.7858,-2.6099,3.6536,
-40.5782,11.4837,70.9921,29.2323,23.1062,-53.2445,17.8864,6.264,-13.5722,-3.1317,-8.3525,-2.088,2.088,-10.4399,
-38.6285,13.5717,70.9916,39.6713,8.1062,-61.5964,12.5279,5.2197,-16.7049,0,0,3.1312,0,-8.353,
-23.6285,16.7034,67.8599,54.6713,23.1062,-53.2445,11.4837,3.1317,-20.8804,-7.3077,-8.3525,-3.1317,-9.3962,6.647,
-27.1434,12.5279,56.3762,48.0242,25.0559,-49.068,10.4404,4.176,-18.7914,-17.7477,-20.8799,-10.4394,-4.176,7.3082,
-34.9744,9.9176,54.8096,38.1057,16.182,-48.5461,10.9613,10.9613,-9.9186,-7.8301,-13.0498,0.52187,-7.8301,-0.52187,
-28.71,9.9176,55.8543,36.0182,25.5777,-43.3264,0.52187,-0.52187,-4.6978,4.6978,-16.182,-2.6104,-19.3143,2.6094,
-41.7598,0,62.6397,29.2318,10.5777,-46.9805,14.6154,-15.5219,-1.0437,0,-4.176,-5.2197,-4.3143,3.1322,
-49.068,3.1312,58.4637,34.4516,0,-42.8045,25.0559,-5.2207,-9.3967,-6.2645,0,-3.1322,10.6857,3.1312,
-55.8538,1.5661,43.4637,39.1499,4.6983,-36.0177,10.0559,3.6536,-20.3575,-4.6983,-14.094,-9.9181,0.52237,-0.52237,
-61.0745,-10.9623,52.7221,36.0172,-10.3017,-42.2826,16.182,0.52187,-5.3575,-0.52187,-3.6541,3.6541,0.52187,4.6979,
-46.0745,-3.6541,62.1178,32.8859,-3.6541,-48.5461,28.71,-9.9176,2.6104,-9.9176,3.6541,7.8301,-2.6104,8.8738,
-31.0745,3.1317,53.2435,35.4958,11.3459,-44.8925,24.0116,-13.5722,-12.3896,-17.7482,2.088,-2.088,-6.264,2.088,
-34.9739,1.5661,43.3259,40.1937,16.1815,-40.1937,12.0056,-0.52237,-24.5345,-18.27,-6.7858,-12.0056,6.7858,0.52237,
-20.8804,8.3525,36.5396,33.4083,1.1815,-42.804,2.088,1.0442,-29.2323,-19.8356,-21.7858,-24.0116,2.088,1.0442,
-5.8804,23.3525,48.0237,46.98,10.4399,-38.628,7.3077,-3.1317,-31.3198,-4.8356,-18.7919,-12.5274,-12.912,3.1317,
9.1196,38.3525,44.3696,61.98,14.094,-34.9739,1.5661,-0.52237,-30.798,0.52237,-22.446,-7.8296,-27.912,-0.52237,
3.1317,39.6718,51.156,62.6402,-0.90595,-30.2761,9.3962,14.4776,-16.7034,-8.3515,-13.5722,-3.1317,-15.6597,13.5722,
-11.8683,28.1881,55.3324,60.5522,-11.4832,-29.2318,9.3967,24.0121,-25.0559,-4.176,-18.7914,4.176,-10.4394,18.7924,
-13.5717,25.0559,45.9358,67.8604,-9.3957,-32.3641,0,13.5717,-40.0559,2.0875,-25.0559,0,-6.2645,8.352,
-4.1765,24.0116,60.9358,54.2882,-14.6159,-38.628,15,3.1317,-32.3646,-1.0442,-10.0559,-5.2202,1.0442,9.3962,
-1.5661,22.446,70.4702,55.8538,-10.9618,-36.0177,22.446,8.8743,-17.3646,1.5661,-9.9181,-3.6536,-13.9558,24.3962,
-13.5722,12.5284,56.3757,59.5079,-25.9618,-34.4521,18.7919,15.6597,-13.5722,3.1317,-8.3525,-3.1317,-20.8804,10.4399,
-13.5722,11.4837,51.156,46.98,-30.2761,-29.2323,20.8794,13.5722,-9.3962,-2.088,2.088,-7.3077,-5.8804,-4.5601,
-6.7863,20.358,58.9856,49.5899,-15.2761,-27.6662,19.3133,6.7853,-6.7863,-0.52187,-1.5666,-8.8738,4.6978,0.52187,
-20.8799,16.7039,64.7281,53.244,-15.6602,-42.6662,20.8799,1.0437,-14.6164,7.3082,-4.176,-1.0437,-4.176,15.5219,
-19.8356,8.3525,50.1122,44.8925,-29.2323,-35.4958,10.4399,3.1317,-12.5274,9.3962,-10.4399,-3.1317,-8.3515,20.8804,
-10.9623,4.6978,46.4576,42.2816,-20.358,-20.4958,7.8301,10.9623,-4.6978,12.0061,-7.8301,-9.9176,-6.7863,21.4018,
-15.1383,13.0498,61.074,50.6346,-29.7537,-20.358,14.0945,15.1383,-10.9623,12.0061,-9.9176,-5.7416,-4.6979,6.4018,
-6.7863,28.0498,56.8981,54.8096,-32.8859,-31.8422,16.182,16.182,-12.0061,10.9623,-15.1383,2.6104,-2.6104,-6.7863,
-10.9618,25.5782,45.4144,48.5456,-34.9739,-39.1499,8.8743,2.6099,-14.094,10.9618,-9.9181,1.5661,-8.8743,-1.5661,
-8.352,19.8361,43.8483,56.3762,-25.0559,-31.3203,0,0,-18.7914,16.7039,-13.5717,0,-12.5279,6.2645,
-8.8738,20.358,40.1942,47.5024,-38.1057,-41.2379,5.7426,5.7426,-15.1373,13.0498,-25.5777,4.6978,-17.2258,-4.6978,
-7.8296,18.27,48.5466,45.4144,-43.3259,-49.5899,13.0503,10.9618,-6.7858,7.8306,-10.5777,6.7858,-14.094,-9.9181,
2.6099,16.1815,48.5456,50.6341,-28.3259,-37.0624,6.7858,5.7421,-21.4023,1.5661,-1.5661,-8.2142,-8.8743,-2.6099,
-9.9181,2.6099,49.5904,41.2384,-43.3259,-46.4581,18.27,2.6099,-18.27,0.52237,-1.5661,-10.9618,-0.52237,4.6983,
-24.9181,0,42.8045,40.716,-58.3259,-56.3757,21.9246,6.2645,-6.2635,2.0885,-11.4842,3.1322,-3.1322,0,
-26.0996,15,48.0242,53.244,-43.3259,-41.3757,20.8799,15.6602,-17.7477,5.2207,-8.352,0,-8.352,0,
-11.0996,23.4907,53.7663,56.8986,-28.3259,-26.3757,25.5782,17.2263,-32.7477,-1.5661,-1.5661,-1.5661,-10.9618,9.9181,
-1.0437,9.3957,42.8035,48.0242,-27.1443,-41.3757,17.7477,2.2263,-24.0121,0,-9.3967,0,-6.2645,5.2197,
-16.0437,-0.52187,55.8543,48.5461,-38.1062,-44.3701,24.534,-4.6978,-9.0121,15,0.52187,6.7853,4.6978,-4.6978,
-16.7039,5.2197,50.1127,53.244,-23.1062,-31.3193,22.9684,6.2645,-14.6154,13.5727,-8.352,4.176,-10.3022,-4.176,
-1.7039,3.1317,35.1127,41.7603,-21.9241,-30.2761,7.9684,7.3077,-29.2323,6.264,-18.7919,-6.264,-25.3022,-2.088,
-16.7039,-1.0442,36.5396,44.8925,-36.9241,-43.8483,15.6597,11.4837,-27.1439,14.6159,-3.7919,8.3525,-16.7044,-8.3525,
-31.7039,7.3077,40.7165,50.1122,-51.9241,-55.3319,16.7044,10.4399,-34.4521,2.088,-5.2202,14.6159,-2.088,-18.7919,
-16.7039,19.8361,48.0242,46.9805,-50.1117,-41.7598,27.1444,10.4404,-20.8799,-2.0875,-1.0437,12.5279,1.0437,-8.352,
-7.8301,8.8748,46.4586,36.0182,-39.1499,-44.3696,26.6225,2.6104,-22.4455,0.52187,-1.5656,12.0061,-13.9563,-0.52187,
-22.8301,5.2202,41.7603,35.4958,-52.2002,-55.3319,17.7482,5.2202,-28.1876,1.0442,-1.0442,26.1001,-10.4399,-5.2202,
-23.4897,14.094,34.9739,39.1499,-62.1178,-54.8101,10.9618,8.8743,-23.4897,-2.6099,1.5661,17.2263,-1.5661,-20.2202,
-8.4897,29.094,31.3193,53.244,-47.1178,-39.8101,6.2635,14.6154,-19.8361,-1.0437,-8.352,8.352,-11.4842,-5.2202,
-6.264,28.1876,32.3636,51.156,-32.3646,-29.2323,6.264,15.6597,-26.1001,-8.3525,-11.4847,17.7472,-25.0564,9.7798,
-16.7049,30.2756,29.2318,55.3315,-38.6285,-22.9684,8.352,18.7914,-29.2328,-14.6164,-8.352,9.3957,-22.9684,10.4394,
-1.7049,37.0619,24.534,69.426,-27.6662,-17.2258,14.0936,24.534,-24.534,-15.1383,-13.0498,-3.6541,-16.182,3.6541,
-2.6099,22.0619,24.5335,54.426,-31.8427,-24.5345,20.3575,17.2253,-17.2263,-16.1825,-12.0066,2.6099,-16.1825,16.1815,
-14.6159,12.5284,28.1886,39.426,-33.4073,-21.9241,19.8366,6.264,-9.3962,-6.264,-2.088,2.088,-5.2202,14.6159,
-22.9679,8.352,34.4526,35.4963,-42.8035,-36.9241,19.8361,0,-12.5279,-3.1312,9.3967,0,3.1322,-0.38408,
-26.622,-0.52187,40.1942,38.1057,-47.5019,-51.9241,29.7537,6.7863,-9.9176,0.52187,14.0936,15,-0.52187,-15.3841,
-13.5722,3.1317,25.1942,43.8478,-38.628,-37.5843,22.9679,8.3515,-13.5722,2.088,-0.90645,17.7482,-13.5722,-4.1765,
-8.8738,10.9623,19.3143,44.3701,-43.3259,-31.8422,14.0945,9.9186,-25.5777,-3.6541,-4.6978,3.6541,-12.0061,10.8235,
-5.7416,13.0498,22.4465,39.1504,-51.6778,-36.0182,5.7416,9.9186,-28.71,-10.9623,-5.7416,18.2705,-10.9623,7.8301,
1.5661,14.094,21.4023,30.798,-45.4139,-38.1062,12.0066,-0.52237,-23.4897,-6.7858,-5.7421,26.622,-23.4897,0.52237,
0.52187,16.182,21.4018,31.8412,-30.7985,-37.0619,16.182,-0.52187,-22.4465,-3.6541,-3.6541,20.358,-20.358,0.52187,
-5.2197,24.0121,18.7924,44.892,-19.8361,-27.1443,9.3957,14.4781,-30.2756,-14.6164,-8.352,9.3957,-13.5717,5.2197,
-3.6541,28.71,19.3143,45.4139,-32.8859,-24.534,7.8301,17.2258,-39.1494,-22.4455,-13.0498,3.6541,-24.534,5.7426,
11.3459,33.4078,17.7477,46.9795,-33.4078,-26.1006,5.2197,2.2258,-33.4078,-7.4455,-16.7039,13.5717,-30.2766,3.1322,
-1.0442,18.7919,18.7919,45.9362,-40.7165,-37.5843,7.3077,5.2202,-24.0126,1.0442,-6.264,20.8794,-21.9241,-5.2202,
-16.0442,7.8296,29.7542,40.1937,-39.1504,-47.5024,17.2263,19.3138,-26.622,-10.9618,5.7421,10.9618,-19.3138,-5.7421,
-3.1322,16.7039,31.3193,44.892,-24.1504,-34.4526,14.6154,11.4842,-30.2766,-6.2645,-9.2579,4.176,-27.1444,3.1322,
-3.6541,7.8301,30.7975,50.6336,-23.4902,-36.0182,12.0061,3.6541,-25.5777,-4.6978,-13.0498,13.0498,-14.0945,5.7416,
-9.9181,9.9181,38.1062,46.4581,-38.4902,-44.3701,8.8743,9.9181,-23.4897,-19.6978,-5.7421,15.1378,-3.6536,3.6536,
-14.094,24.5345,49.5904,41.2384,-39.1499,-31.8417,3.6546,16.1825,-19.3138,-14.094,-2.6099,7.8306,-10.9618,2.6099,
-24.0121,18.7914,55.3315,43.8473,-39.6723,-25.0569,5.2197,14.6154,-17.7486,0,-1.0447,4.176,-19.8361,0,
-31.8422,8.8738,44.3701,33.9307,-39.1494,-38.1057,0.52187,4.6978,-29.7537,0.52187,-9.9176,2.6104,-34.8361,-0.52187,
-40.716,0,57.4199,25.0559,-46.98,-53.1057,7.3082,5.2197,-32.3641,9.3957,-3.1322,10.4404,-41.7603,0,
-34.9744,0.52187,68.3823,39.1494,-46.4581,-60.0303,4.6978,15.1383,-27.6662,8.8738,-4.6978,12.0061,-26.7603,-0.52187,
-20.8804,13.5722,60.5517,46.98,-50.1122,-48.0242,1.0442,14.6159,-24.0116,-1.0442,-9.3962,7.3077,-17.7482,5.2202,
-22.9679,10.4399,57.4194,41.7603,-61.5964,-49.0685,2.088,10.4399,-29.2323,-2.088,-7.3087,8.3515,-27.1439,2.088,
-15.1388,17.2253,66.2933,54.8101,-46.5964,-39.1499,-6.7858,13.0493,-32.8864,7.8296,-16.1825,14.094,-29.7542,6.7858,
-4.6978,28.71,72.5582,64.2063,-36.0182,-25.5777,-4.6978,19.3143,-30.7985,4.6978,-12.0061,20.358,-29.7537,14.0936,
-10.9628,33.9292,69.4255,69.4255,-51.0182,-22.446,1.5661,30.798,-25.5782,-2.6109,-1.5661,20.3575,-32.8864,9.9181,
-19.3143,31.8422,67.3375,67.3375,-53.7663,-29.7537,-2.6104,24.534,-16.182,5.7416,-3.6541,8.8738,-27.6662,2.6104,
-21.9246,20.8799,73.0801,54.2877,-54.2882,-41.7598,-1.0437,9.534,-16.7039,14.6154,-3.1322,1.0437,-26.1006,2.0875,
-12.0061,19.3143,64.2063,55.8543,-48.5461,-30.7985,-0.52187,18.2695,-31.7039,7.8301,-9.9186,0.52187,-27.6662,6.7863,
-22.9684,13.5717,62.6397,57.4199,-49.068,-27.1443,4.176,17.7477,-25.0559,4.176,-7.3082,11.4842,-33.4078,-4.176,
-37.0624,9.9176,67.3375,52.7221,-54.8101,-42.1443,0.52187,2.7477,-10.9623,8.8738,1.5656,16.182,-48.4078,-13.0498,
-29.7537,17.2258,57.9418,47.5024,-51.6783,-39.1504,-9.9186,4.6978,-25.9623,6.7863,-3.6541,3.6541,-48.5461,1.9502,
-29.2313,13.5722,67.8599,41.7603,-56.3757,-39.6718,1.0442,17.7482,-39.6718,-1.0442,-5.2202,12.5284,-33.5461,16.9502,
-23.4893,16.182,76.7342,42.2826,-56.8976,-46.4576,7.8301,9.9186,-31.8417,-4.6979,-6.7853,27.5284,-28.71,4.6979,
-9.9181,23.4897,69.4265,43.3259,-52.7221,-44.3701,6.7858,8.8743,-28.7095,1.5661,-1.5661,25.5782,-32.8854,-2.6099,
-12.0061,19.3143,60.0303,33.9297,-43.3264,-51.6783,-0.52187,4.6979,-27.6662,0.52187,-3.6541,12.0061,-29.7537,1.5656,
-11.4842,17.7486,66.8166,29.2318,-33.4078,-55.3319,1.0437,3.1322,-12.6662,-5.2197,0,18.7924,-21.9236,0,
-16.7034,19.8366,70.9921,27.1439,-45.9358,-48.0237,7.3077,3.1317,-11.4837,-9.3962,5.2202,19.8366,-14.6159,-3.1317,
-12.0061,34.8366,56.8981,42.1439,-36.0182,-33.0237,0.52187,8.8738,-24.534,-0.52187,-8.8738,12.0061,-24.534,2.6104,
-5.2202,44.8915,54.2882,55.3319,-35.4958,-32.3646,6.264,12.5274,-12.5284,2.088,-3.1327,18.7919,-30.2761,-2.088,
-5.7421,38.1062,60.0308,42.2821,-44.3696,-41.2379,10.9618,5.7421,-5.7421,-10.9618,8.8743,19.3148,-25.5772,-12.0056,
-0.52187,42.2826,56.8981,40.1942,-29.3696,-28.71,0.52187,3.6541,-19.3133,-17.2258,-3.6541,4.6988,-19.3133,2.9944,
0,36.54,60.5522,39.6723,-14.3696,-28.1881,0,9.3967,-22.9674,-13.5717,-6.2635,8.352,-10.4394,13.5727,
3.1317,37.5843,59.5079,35.4958,-29.3696,-33.4083,-6.264,1.0442,-13.5722,-14.6159,5.2202,15.6597,-16.7044,-1.0442,
5.7421,52.5843,68.3818,34.9739,-34.9744,-28.7105,-1.5661,-6.7858,-4.6983,-6.7858,19.3138,14.094,-13.0503,1.5661,
1.5661,51.6778,66.2943,22.446,-28.7105,-27.6662,8.8733,-1.5661,-19.6983,-2.6099,9.9181,10.9618,-20.3585,-1.5661,
14.0945,36.6778,51.6783,15.1383,-34.9734,-30.7975,7.8301,3.6541,-29.7537,-3.6541,-5.0819,12.0061,-32.8859,-9.9176,
8.8733,26.622,60.0298,15.1378,-40.1942,-41.2384,15.1378,-7.8306,-17.2263,-4.6983,1.5661,17.2263,-17.8859,-1.5661,
-6.1267,36.5396,66.8161,10.4399,-25.1942,-39.6723,12.5274,-14.6159,-8.3525,-5.2202,12.5274,15.6597,-13.5722,5.2202,
-14.6154,33.4088,60.5522,5.2207,-25.0559,-31.3193,8.3529,-5.2197,-6.2635,0,11.4842,15.6602,-22.9674,0,
-7.3082,20.8799,61.5959,6.2635,-38.628,-44.892,11.4842,1.0437,-8.352,-1.0437,16.7039,20.8799,-8.352,-13.5717,
-15.6597,18.7919,66.8161,10.4399,-34.4521,-53.244,10.4399,-5.2202,-10.4399,5.2202,13.5722,19.8356,-6.264,-11.4837,
-27.6662,10.9618,61.0745,12.0056,-49.4521,-51.6778,10.9618,-14.094,-14.094,2.6099,4.6983,24.5345,-21.264,-2.6099,
-15.1378,18.27,55.8548,26.622,-48.5456,-38.1057,8.8743,-1.5661,-16.1815,-6.7858,1.5661,37.0624,-27.6657,12.3901,
-20.8799,22.9674,54.2877,20.8799,-33.5456,-42.8045,0,6.2635,-18.7924,-16.7039,0,22.9674,-13.5727,6.2635,
-34.4521,17.7482,69.2877,12.5284,-31.3198,-48.0237,14.6159,3.1317,-8.3515,-8.3515,14.6159,19.8356,-3.1317,-8.3515,
-26.622,21.4018,68.3823,16.182,-31.8422,-37.0619,20.358,-1.5656,-6.7863,-7.8301,15.1383,27.6662,-7.8301,1.5656,
-15.1383,14.0936,61.074,14.0936,-41.2379,-42.2821,14.0936,-2.6104,-14.0936,-19.3143,8.8738,23.4902,-16.182,2.6104,
-0.52187,7.8301,73.602,19.3133,-36.0182,-45.4144,15.1373,0.52187,-8.8738,-4.6978,12.0061,23.4893,-5.7426,-6.7863,
-9.3962,4.1755,68.9036,21.9241,-32.3641,-40.716,13.5722,-3.1317,-6.264,3.1317,14.6159,25.0554,-3.1317,-5.2202,
-18.7919,0,62.6407,26.1006,-38.6275,-41.7598,17.7486,0,-1.0437,0,26.1006,34.4526,-5.2197,7.3082,
-6.264,5.2202,47.6407,18.7919,-25.0554,-39.6718,8.3525,-3.1317,-8.3515,-4.1755,11.1006,26.1001,-16.7034,3.1317,
-4.6983,16.1815,46.4581,3.7919,-13.0503,-34.9744,15.1378,-1.5661,-10.9618,1.5661,3.6536,24.5335,-9.9181,5.7421,
-7.3077,11.4847,57.4204,-11.2081,-19.8356,-39.6718,16.7044,-2.088,-11.4837,2.088,17.7482,28.1886,-2.088,3.1327,
7.6923,13.0503,46.4581,-1.5661,-10.9618,-30.798,8.8743,-4.6983,-6.7858,-1.5661,19.3138,26.622,-4.6983,1.5661,
3.1322,17.7486,43.8483,-3.1322,-18.7914,-25.0559,11.4842,-4.176,-7.3082,-3.1322,17.7486,26.1006,-7.3082,4.176,
-11.8678,20.8799,45.9358,0,-33.7914,-28.1881,0,4.176,-13.5717,1.0437,2.7486,24.0121,-8.352,-5.2197,
-16.182,14.0945,43.3264,0.52187,-44.3701,-33.9302,-0.52187,5.7416,-10.9623,7.8301,-4.6979,19.3143,-9.9176,0.52187,
-24.0121,5.2202,42.804,-2.088,-45.9362,-40.716,14.4781,1.0442,-10.4399,-1.0442,8.3515,25.0564,-8.3525,15.5219,
-33.4083,6.2635,39.6723,-1.0437,-39.6723,-42.804,14.6154,1.0437,-21.9241,-15.6602,9.3957,20.8799,-4.176,22.9684,
-18.4083,14.6154,48.0242,-3.1322,-24.6723,-36.54,18.7914,8.352,-14.6164,-1.0437,11.4842,17.7477,1.0437,7.9684,
-3.4083,14.0945,37.0619,-3.6541,-16.182,-30.7975,3.7914,4.6978,-7.8301,3.6541,1.5656,9.9186,-13.0498,-2.6104,
-1.5656,21.4018,32.8859,11.3459,-14.0936,-15.7975,-3.6541,0.52187,-7.8301,-2.6104,10.9623,12.0061,-0.52187,12.3896,
-4.1765,19.8356,31.3198,11.4837,-18.7919,-17.7482,1.0442,-8.3525,-13.5722,-12.5284,7.3077,6.264,-1.0442,3.1317,
0.52237,24.5345,30.798,15.1378,-10.9618,-18.27,4.6983,4.6983,-7.8296,-4.6983,-0.52237,8.8743,-14.094,-4.6983,
-14.4776,15.1383,32.8859,8.8738,-25.9618,-23.4902,0.52187,1.5656,-15.1383,-5.7416,-0.52187,14.0945,-16.182,2.6104,
-29.4776,5.7421,36.0187,7.8306,-25.5772,-22.446,1.5661,-6.7858,-6.7858,-1.5661,4.6983,21.4023,-3.6536,12.0066,
-14.4776,-6.2645,29.2318,-2.0885,-10.5772,-30.2756,5.2197,-9.3957,1.0437,-1.0437,7.3082,14.6164,5.2197,9.3957,
-18.27,-2.6099,30.798,-5.7421,-4.6983,-32.8859,9.9181,-1.5661,-6.7858,1.5661,10.9618,17.2263,9.9181,1.5661,
-15.1378,8.8743,28.7095,-1.5661,-17.2263,-23.4897,1.5661,-6.7858,-9.9181,10.9618,3.6536,19.3138,-5.0819,3.6536,
-8.8743,3.6536,29.7542,-2.6099,-32.2263,-8.8743,2.6099,-7.8306,-5.7421,15.1378,3.6536,23.4897,-15.1378,8.8733,
-15.1378,2.6099,27.6657,-1.5661,-31.8422,3.6536,1.5661,1.5661,-20.7421,0.13779,-3.6536,17.2263,-12.0056,4.6983,
-11.4847,6.264,29.2313,2.088,-22.9679,-2.088,4.1755,7.3077,-25.0564,-6.264,-3.1327,18.7919,-2.088,13.5722,
-5.2197,-4.176,20.8799,-5.2197,-22.9684,-12.5279,6.2635,2.0875,-20.8799,1.0437,0,26.0996,0,21.9236,
-3.6541,0.52187,9.9176,-0.52187,-7.9684,2.4721,-3.6541,9.9176,-25.5777,-0.52187,-7.8301,22.4455,1.5656,22.4455,
-16.182,0.52187,23.4902,-4.6978,-18.2695,4.6978,-2.6104,14.0945,-22.4455,-3.6541,-0.52187,21.4018,4.6978,19.3143,
-10.4404,-6.2645,34.4516,-6.2645,-24.0121,-10.3022,3.1312,2.0875,-16.7039,0,5.2197,21.9236,0,16.7039,
0,-3.1322,24.0121,4.176,-9.0121,-2.0885,4.176,-2.0885,-24.0121,0,0,13.5717,0,9.3957,
-15,-3.6541,20.358,9.9186,-18.2695,-0.52187,0.52187,1.5656,-25.5777,-7.8301,3.6541,12.0061,-4.6978,3.6541,
-30,-0.52237,21.4023,10.9618,-22.446,-2.6099,-2.6099,7.8296,-12.0056,1.5661,0.52237,18.27,-14.094,8.8743,
-36.0182,-9.9176,20.358,1.5656,-7.8301,-3.6541,7.8301,8.8738,-15.1383,6.7863,0.52187,21.4018,-12.0061,-0.52187,
-28.71,-6.7863,17.2258,0.52187,6.7863,8.8738,8.8738,6.7863,-30.1383,-2.6104,-0.52187,16.182,-4.6979,-4.6979,
-21.9241,8.2137,6.264,-2.088,10.4399,23.8738,-6.1262,2.088,-41.7593,-11.4837,-13.5722,4.1765,-14.6159,7.3087,
-20.8799,14.6164,13.5727,-1.0437,-4.5601,19.8361,-1.0437,1.0437,-29.2318,-5.2197,1.0437,12.5279,-12.5279,19.8361,
-16.182,6.7863,13.0498,5.7416,-19.5601,4.8361,0.52187,-3.6541,-32.8859,-8.8738,-2.6104,10.9623,-0.52187,7.8301,
-4.6978,14.0936,18.2695,17.2258,-19.3143,19.3143,0.52187,2.6094,-38.1062,-9.9186,-13.0498,10.9623,-0.52187,-0.52187,
-4.6978,15.1383,14.0945,20.358,-27.6662,25.5777,-13.0498,4.6978,-37.0619,-17.2258,-20.358,6.7863,-15.5219,6.7863,
-0.52187,15.1383,8.8738,17.2258,-31.8422,13.0498,-20.358,5.7416,-32.8859,-14.0936,-20.358,0.52187,-30.5219,7.8301,
-9.9181,8.8743,23.8738,14.094,-27.6657,5.7421,-6.7858,7.8306,-34.9739,-10.9618,-5.358,6.7858,-15.5219,-7.1699,
-17.2253,6.7868,38.1062,21.4023,-16.1815,10.9628,-7.8296,9.9181,-33.9292,-10.9618,-5.7421,14.094,-0.52187,-10.9618,
-20.8804,5.2202,38.628,21.9241,-29.2323,12.5284,-9.3962,11.4837,-31.3198,-5.2202,-13.5722,14.6159,-15.5219,4.0382,
-18.7919,4.1765,43.8478,18.7919,-35.4958,11.4837,-3.1317,9.3962,-43.8483,-12.5284,-10.4399,5.2202,-30.2761,3.1317,
-3.7919,17.2258,45.4139,29.7537,-20.4958,17.2258,-3.6541,13.0498,-46.4576,-21.4018,-8.8738,0.52187,-22.4465,-1.5656,
-1.5661,6.7868,44.3706,26.622,-5.4958,5.7421,-4.6974,6.7868,-34.9739,-16.1815,-9.9181,4.6983,-9.9181,1.5661,
-6.264,1.0442,48.0237,22.9679,-13.5722,10.4399,-1.0442,2.088,-34.4521,-10.4399,-12.5284,7.3077,-7.3077,8.3525,
-7.3082,6.2645,50.1127,15.6602,-16.7039,22.9684,0,0,-38.6275,-16.7039,-9.3957,2.0885,-15.6602,7.3082,
-2.6094,10.9623,53.7668,10.9623,-15.1373,13.0508,1.5666,0.52187,-26.6215,-12.0061,-7.8301,3.6541,-13.0498,-0.52187,
2.088,14.6159,52.1997,10.4399,-2.088,13.5712,-3.1327,10.4399,-22.9689,-4.1765,-13.5722,3.1317,-10.4409,-10.4409,
-12.912,-0.38408,52.7221,8.8748,-17.088,16.182,0.52187,12.0061,-37.9689,0.52187,-6.7853,6.7863,-14.0936,-15.1373,
-20.8804,-7.3087,51.156,15.6597,-32.088,7.3077,3.1317,11.4837,-44.8925,2.088,-14.6159,17.7482,-18.7919,-2.088,
-5.8804,4.6983,48.5466,6.7858,-34.9739,-3.6536,1.5661,10.9618,-30.798,-1.5661,-21.4023,12.0066,-18.27,10.9618,
1.5661,8.8743,60.0298,-2.6099,-25.5782,-12.0056,15.1378,8.8743,-24.5335,3.6536,-6.4023,7.8296,-12.0056,-4.0382,
7.8301,0.52187,56.8981,9.9186,-12.0061,-13.0498,15.1383,4.6978,-37.0619,-2.6094,-0.52187,7.8301,-20.358,-12.0061,
3.6536,2.6099,47.5019,13.0493,-22.446,-6.7868,4.6974,5.7421,-41.2384,-17.6094,-6.7868,8.8733,-23.4907,-2.6099,
-6.264,17.6099,46.98,13.5722,-37.446,8.2132,-3.1317,12.5284,-31.3198,-2.6094,2.088,13.5722,-8.4907,-3.1317,
-16.7034,2.6099,40.7165,9.3962,-52.446,-2.088,-8.3515,5.2202,-41.7598,3.1317,-1.0442,6.264,1.0442,-4.1755,
-1.7034,-12.0061,54.8106,24.3962,-37.446,-15.1383,4.6978,13.0498,-36.0182,-1.5656,-2.6104,16.182,-0.52187,6.7863,
9.3957,2.9939,39.8106,34.4516,-22.446,-0.13829,-10.3022,8.352,-36.54,0,-17.6104,11.4832,-15.5219,-3.1322,
0,17.7477,35.4963,29.2318,-18.7924,14.6164,-14.6154,1.0437,-40.716,0,-22.9684,-2.0875,-30.5219,5.2197,
-2.6104,24.534,50.4963,36.0182,-26.6215,8.8738,0.38458,5.7426,-42.2821,-13.0498,-10.9623,-9.9176,-15.5219,15.1383,
-1.0437,20.8799,51.1555,39.6723,-11.6215,2.0875,-2.0885,3.1322,-36.54,1.0437,-16.7039,-5.2197,-0.52187,0.13829,
-1.5656,8.8738,49.5899,28.71,-7.8301,-3.6541,-4.6979,1.5656,-24.534,16.0437,-13.0498,8.8738,1.5656,-3.6541,
0,12.5279,41.7598,25.0559,-17.7477,-6.2635,-5.2197,6.2645,-29.2318,11.4842,-10.4394,3.1322,-3.1322,0,
-2.0885,26.0996,43.8473,31.3193,-26.1006,1.0437,2.0875,6.2635,-32.3641,0,-4.176,0,-16.7049,-1.0447,
-8.352,17.7477,38.6285,22.9684,-30.2756,0,-7.3082,0,-33.4078,2.0885,-11.4842,2.0885,-28.1881,11.4842,
-12.0061,2.7477,37.0619,15.1383,-39.1504,-12.0061,-13.0498,0.52187,-27.6662,16.182,-10.9623,9.9176,-13.1881,15.1383,
-27.0061,-6.7853,41.2379,15.1383,-54.1504,-18.2695,0.52187,-0.52187,-21.4018,16.182,4.0377,16.182,1.8119,0.13829,
-26.6225,0.52187,27.6662,9.9176,-39.1504,-6.7863,-6.7863,3.6541,-21.4018,1.182,0.52187,1.182,-6.7863,1.5656,
-11.6225,2.6099,36.0177,10.9618,-24.1504,-2.6099,-2.6099,10.9618,-13.0503,7.8296,-1.5661,1.5661,-1.5661,15.1378,
-18.7919,-6.264,44.8925,22.9689,-32.3636,-8.3515,5.2202,2.088,-20.8794,10.4409,-2.088,15.6607,8.3525,0.13779,
-20.8799,4.176,39.6723,32.3641,-35.4963,1.0437,-1.0437,9.3957,-30.2756,5.2197,-3.1322,19.8361,-6.2645,-2.0885,
-19.3143,3.6541,40.1942,18.2705,-28.71,-2.6104,-8.8738,14.0945,-28.71,2.6104,-5.7416,12.0061,-10.9623,12.9115,
-26.622,-2.6099,40.1947,22.446,-13.71,-1.5661,-14.094,1.5661,-30.798,4.6983,-18.27,3.6546,4.0377,20.3585,
-31.8417,-1.5661,44.3696,30.798,-4.6983,2.6099,-4.6983,0.52237,-28.7105,3.6536,-12.0066,5.7421,12.0056,5.3585,
-21.9241,2.088,41.7603,16.7034,-6.264,6.264,-4.1765,3.1317,-24.0126,2.088,-10.4399,1.0442,-1.0442,-9.6415,
-6.9241,13.5717,38.6275,20.8799,8.736,21.264,-7.3082,-2.0885,-30.2766,1.0437,-21.9246,-11.4842,-8.352,5.3585,
-6.2635,12.5279,46.9805,35.8799,0,24.0121,5.2207,0,-35.4953,-5.2197,-7.3082,-4.176,-7.3082,8.352,
-20.8794,1.0442,40.7165,33.4083,-14.6159,9.0121,5.2202,3.1317,-30.2761,1.0442,-7.3077,10.824,-10.4399,-2.088,
-27.1439,-5.2202,35.4958,20.8804,-22.9679,-2.088,5.2202,-1.0442,-20.8804,16.0442,-7.3077,12.5284,1.0442,6.264,
-34.9739,-6.7868,39.1499,20.3575,-28.7105,-1.5661,-2.6109,-9.9181,-22.446,12.0056,1.5661,2.6099,8.8733,7.8296,
-31.8422,-1.5656,36.0182,19.3143,-17.2258,-4.6979,-2.6104,-0.52187,-21.4018,3.6541,0.52187,10.9623,6.7863,7.8301,
-34.9739,-15.1383,34.9744,4.3143,-32.2258,-19.3143,2.6104,4.6979,-29.7537,9.9186,-2.6104,14.0945,-7.8301,2.6104,
-19.9739,-4.6979,43.3264,19.3143,-28.71,-6.7863,0.52187,18.2705,-32.8859,18.2705,-0.52187,22.4465,-2.6104,10.9623,
-25.5777,-0.52187,28.3264,24.534,-14.0936,-5.7416,-14.4781,6.7863,-33.9297,6.7863,-15.5219,14.0945,1.5666,0.52187,
-26.0996,2.0885,27.1444,18.7924,-3.1322,-2.0875,-3.1322,1.0437,-22.9684,12.5279,-5.2197,14.6164,13.5717,-1.0437,
-26.1001,-6.264,36.5405,21.9241,-6.264,-3.1317,4.1765,1.0442,-32.3636,-1.0442,-6.264,9.3962,8.3525,3.1317,
-39.1499,-14.0936,38.1057,21.4018,-18.2695,-4.6978,3.6541,8.8738,-36.0182,-16.0442,-3.6541,15.1383,7.8301,3.6541,
-24.1499,0.90645,32.3641,20.8799,-4.176,0,-7.3082,9.3967,-32.3641,-8.352,0,11.4842,2.0885,-3.1322,
-9.1499,10.4394,20.8799,19.8361,10.824,3.1322,-15.6602,3.1322,-38.6285,-9.3957,-8.352,-3.1322,-9.3957,-3.1322,
-5.7421,-3.6536,22.446,22.446,-4.176,4.6983,-2.6099,6.7858,-38.1062,-14.094,-7.8296,2.6099,3.6546,8.8743,
-10.9618,1.5661,20.3575,27.6657,-18.27,7.8296,-1.5661,14.094,-31.8417,-4.6983,-6.7858,-0.52237,5.7421,0.52237,
-0.52237,9.9181,19.3138,27.6657,-17.2263,0.52237,-3.6536,8.8743,-29.7542,2.6099,-6.7858,-3.6536,1.5661,-7.8306,
-2.088,10.4399,20.8794,35.4958,-15.6607,-1.0442,-6.264,1.0442,-27.1439,-3.1317,-14.6159,5.2202,5.2202,5.2202,
1.5661,14.094,18.27,28.7095,-6.7858,12.0056,-17.2263,2.6099,-29.7542,-10.9618,-18.27,4.6974,-9.7798,-1.5661,
4.6978,9.9186,17.2258,13.7095,-13.0498,9.9186,-10.9623,12.0061,-23.4902,-5.7416,-4.6978,5.7426,-24.534,-16.5661,
10.4394,11.4842,13.5717,21.9236,-25.0559,0,-3.1322,14.6154,-18.7924,0,-6.2645,9.3957,-9.534,-4.176,
5.2192,6.264,18.7919,30.2751,-26.1001,-5.2202,-2.088,3.1317,-33.7924,-3.1327,-10.4409,13.5712,2.088,-3.1327,
1.5661,3.6536,21.4013,31.8417,-17.2263,-1.5661,-2.6099,1.5661,-38.1062,1.5661,-5.7421,21.4013,-9.9181,-5.7421,
4.6978,-1.5656,7.8301,27.6662,-28.71,-10.9623,-8.8738,6.7863,-27.6662,1.5656,-10.9623,10.9623,-8.8738,5.7416,
-1.0437,-11.4832,13.5727,24.0121,-37.5838,-16.7039,-3.1312,9.3967,-16.7039,0,0,5.2207,6.1262,7.3082,
-0.52187,-1.5666,9.9176,30.7975,-22.5838,-1.7039,-14.0945,4.6978,-27.6662,0.52187,-4.6978,5.7416,-1.5666,2.6094,
1.5661,4.6974,-3.6546,26.622,-7.5838,13.2961,-22.446,1.5661,-42.6662,-8.8743,-19.6978,-1.5661,-16.5666,12.0056,
-0.52187,-3.6541,5.7426,22.4465,5.7426,14.0945,-7.8301,6.7863,-31.8422,-5.7416,-20.358,0.52187,-2.6094,17.2258,
-15.5219,-12.0061,9.9176,24.534,0.52187,15.1383,-8.8738,4.6978,-23.4902,1.5656,-18.2705,-1.5656,0.52187,2.2258,
-21.9236,1.0437,16.7039,30.2766,-12.5279,28.1881,-3.1322,19.6978,-32.3641,0,-3.2705,5.2207,0,-4.176,
-7.3082,7.3082,3.1322,20.8799,1.0437,34.4516,-9.3967,19.8361,-47.3641,-15,-8.352,-1.0437,-5.2197,5.2197,
4.6978,5.7416,-0.52187,17.2258,16.0437,32.8859,-8.8738,4.8361,-32.3641,-8.8738,-10.9623,-8.8738,-9.9186,15.1373,
4.6978,3.6541,0.52187,15.1383,12.0061,28.71,-10.9613,-9.9176,-26.6215,-0.52187,-10.9613,-7.8301,-15.1373,6.7863,
0,0,0,12.5279,10.4394,30.2756,-14.6164,-3.1322,-39.6723,0,-8.352,-1.0447,-0.1373,4.176,
-15,-12.5274,7.3087,10.4399,-4.5606,15.2756,-9.3962,-1.0442,-32.3636,-1.0442,1.0442,3.1327,14.8627,10.4399,
-20.358,-0.52187,7.8301,23.4902,-19.5606,15.1383,-7.8301,2.6104,-28.71,0.52187,-4.6979,1.5656,-0.1373,3.6541,
-5.358,8.8738,0.52187,32.8859,-4.5606,30.1383,-3.6541,14.0936,-32.8859,2.6104,-3.6541,-0.52187,-15.1373,-9.9176,
-0.52187,3.6541,7.8301,37.0619,-0.52187,34.9734,-3.6541,17.2258,-30.7985,-0.52187,-0.52187,9.9176,-0.1373,-1.5666,
-15.5219,0.52187,8.8738,31.8422,-15.5219,19.9734,-18.2695,4.6979,-30.7975,-2.6094,-15.5219,4.6979,-0.52187,13.4334,
-30.5219,3.6536,10.9618,26.622,-14.094,6.7858,-6.7858,-1.5661,-24.5345,1.5661,-4.6983,1.5661,-4.6983,15.1378,
-27.1443,10.4394,8.352,28.1881,-3.1322,12.5279,1.0437,0,-22.9684,-4.176,-1.0437,1.0437,0,0.13779,
-28.1881,1.0437,10.4394,28.1881,-12.5279,22.9674,-1.0437,9.3957,-28.1881,-6.2645,-9.3967,5.2197,5.2197,-4.176,
-42.804,-13.9563,17.7477,28.1881,-19.8361,21.9236,-2.0885,14.6164,-34.4516,-3.1322,-1.0437,6.2645,1.0437,3.1322,
-33.9307,0.52187,12.0061,30.7975,-4.8361,21.4018,-4.6979,10.9613,-32.8859,-1.5666,3.6541,-0.52187,4.6979,-6.7863,
-34.9739,-4.6983,16.1825,19.3138,-17.2263,8.8743,1.5661,-1.5661,-28.7095,-3.6536,2.6099,1.5661,14.094,-21.7863,
-36.0182,-13.0498,31.1825,26.6225,-22.4455,7.8301,5.7416,-0.52187,-31.8422,0.52187,-2.6104,15.1383,5.7416,-22.4455,
-25.0564,1.9502,35.4958,37.5843,-7.4455,19.8356,-5.2202,4.1755,-43.8478,-2.088,-11.4847,5.2202,-5.2202,-7.4455,
-18.7919,16.9502,41.7603,33.4083,-3.1317,30.2761,-6.264,7.3087,-35.4958,-2.088,-6.264,-2.088,2.088,4.1765,
-16.7039,17.7477,39.6723,26.0996,-6.2645,30.2756,-9.3967,11.4842,-27.1443,2.0875,-5.2197,-1.0437,1.0437,-4.176,
-14.0936,10.9623,44.3701,17.2258,-17.2258,17.2258,-2.6094,5.7426,-30.7975,-0.52187,0.52187,1.5666,-3.6541,-0.52187,
0.90645,9.3962,55.3319,22.9679,-18.7919,6.264,1.0442,-8.3525,-30.2761,-9.3962,-2.088,1.0442,-1.0442,-4.1765,
15.9064,9.3962,56.3757,36.5396,-11.4837,6.264,-5.2202,-5.2202,-25.0564,-2.088,-5.2202,6.264,2.088,-9.3962,
3.1317,-5.2202,43.8478,26.1001,-9.3962,7.3077,-8.3525,-1.0442,-35.4958,3.1317,-7.3077,7.3077,1.0442,-9.3962,
-0.52237,-3.6536,38.1062,24.5335,-7.8306,8.8743,-3.6536,1.5661,-43.3259,-5.7421,-17.2263,3.6536,13.0503,0.52237,
-14.6164,1.0437,53.1062,33.4078,-22.8306,-5.2197,11.3464,4.176,-34.4521,-6.2645,-6.2645,14.6154,6.2635,-1.0437,
0.38358,7.8306,38.1062,27.6657,-7.8306,9.7803,-3.6536,-5.7421,-32.8854,2.6099,-21.2645,-0.38458,-8.7365,-0.52237,
15.3836,22.8306,23.1062,13.5722,7.1694,24.7803,-18.6536,-3.1317,-39.6718,3.1317,-36.2645,-15.3846,-23.7365,14.4776,
30.3836,37.8306,8.1062,-1.4278,22.1694,39.7803,-33.6536,8.8743,-40.1937,1.5661,-51.2645,-30.3846,-8.7365,29.4776,
25.0559,22.9684,-6.8938,-10.4404,13.5717,51.1555,-34.4526,4.176,-38.6285,3.1322,-52.2002,-45.3846,-3.1322,26.0996,
10.0559,7.9684,8.1062,4.5596,-1.4283,36.1555,-19.4526,4.1765,-30.2761,1.0442,-37.2002,-30.3846,-4.1755,11.0996,
1.5666,5.7426,23.1062,19.5596,-4.6979,21.1555,-10.9613,0.52187,-38.1057,-13.9558,-22.2002,-15.3846,-0.52187,8.8738,
3.1317,4.1755,35.4958,17.7482,2.088,19.8356,-7.3077,-2.088,-39.6718,-10.4399,-17.7482,-9.3962,-2.088,6.264,
-11.8683,-8.8743,50.4958,19.3138,-12.912,19.3138,5.7421,-1.5661,-30.798,3.6536,-2.7482,-2.6099,2.6099,-6.7858,
-8.8738,-0.52187,56.8981,29.7537,-27.912,7.8301,2.6104,0.52187,-29.7542,-1.5656,-4.6979,5.7416,4.6979,-4.6979,
-5.7416,0.52187,45.4139,25.5787,-42.912,0.52187,7.8301,1.5666,-34.9739,-8.8738,-2.6094,5.7426,-0.52187,-2.6094,
-13.0498,-9.9176,42.2826,22.4465,-38.1057,8.8738,4.6978,3.6541,-42.2821,-7.8301,0.52187,-0.52187,2.6104,-4.6978,
-13.5717,-1.0437,42.8045,37.4465,-38.6275,15.6602,-9.3957,12.5279,-37.5838,3.1322,-3.1322,1.0437,3.1322,-3.1322,
-16.182,-3.6541,41.2379,28.71,-45.4139,2.6104,-2.6104,3.6541,-31.8422,8.8738,-2.6104,8.8738,2.6104,-4.6979,
-20.3575,-6.7858,43.3259,15.1378,-39.1499,-0.52237,3.6536,-7.8296,-37.0619,2.6099,-4.6983,8.8743,4.6983,0.52237,
-29.2318,-2.0885,44.892,25.0559,-40.716,0,-6.2645,1.0437,-39.6723,2.0885,-9.3957,6.2645,5.2197,0,
-31.8427,-1.5661,39.1499,30.798,-54.8106,1.5661,-9.9181,10.9618,-36.0187,2.6099,-7.8306,9.9181,3.6536,-10.9628,
-22.446,3.6546,32.8864,32.8864,-39.8106,15.1378,-6.7858,9.9181,-36.0177,2.6099,-14.094,8.8743,-3.6536,-2.6099,
-25.5787,-0.52187,32.8859,40.1942,-30.7985,6.7853,-8.8748,4.6979,-50.6346,0.52187,-17.2268,0.52187,-18.6536,3.6541,
-10.5787,3.1317,35.4958,49.0675,-24.0126,2.088,-5.2202,8.3515,-39.6718,7.3077,-12.5284,-2.088,-10.4399,3.1317,
3.6541,-3.6541,21.4018,34.0675,-10.9623,4.6978,-6.7863,-3.6541,-24.6718,8.8738,-18.2705,-3.6541,4.5601,8.8738,
-9.9181,-13.0503,30.798,26.622,-10.9628,4.6974,-5.7421,-1.5661,-18.27,8.8733,-13.0503,1.5661,6.7858,14.094,
-5.7416,-5.7416,44.3701,29.7537,-17.2258,5.7426,-7.8301,10.9623,-29.7537,10.9623,-3.6541,7.8301,-3.6541,3.6541,
-2.6104,-4.6979,36.0182,16.182,-28.71,7.8301,-3.6541,5.7416,-39.1504,12.0061,0.52187,7.8301,-1.5666,-0.52187,
-11.4842,1.0437,22.9684,25.0559,-22.9684,7.3082,-5.2197,0,-45.9358,8.352,-7.3082,0,-7.3082,0,
-4.1765,16.0437,20.8794,33.4073,-9.3962,8.3515,-11.4847,5.2192,-37.5843,4.1755,-12.5284,2.088,-13.5722,-2.088,
-0.52187,7.8301,31.8422,23.4902,-24.3962,0.52187,-10.9623,5.7426,-22.5843,3.6541,-3.6541,13.0498,-1.5656,-1.5656,
0,2.0885,24.0121,26.1006,-27.1434,0,-19.8361,6.2645,-36.54,0,-18.6541,1.0447,-9.3957,-6.2635,
2.6099,7.8296,24.5345,31.8417,-23.4897,1.5661,-14.094,13.0503,-45.4144,5.7421,-25.5782,-10.9618,-20.3575,-1.5661,
0,1.0437,34.4516,33.4078,-35.4963,-7.3082,-6.2645,5.2197,-30.4144,11.4832,-10.5782,0,-9.3967,5.2197,
-8.3525,1.0442,22.9679,39.6718,-33.4083,-5.2202,-16.7044,3.1317,-30.2761,5.2202,-13.5722,10.4399,-1.0442,4.1755,
-14.6159,5.2202,18.7919,39.6718,-24.0116,-2.088,-13.5722,13.5722,-37.5843,2.088,-17.7482,5.2202,-8.3515,3.1317,
-3.1322,9.3957,32.3641,48.0242,-9.0116,0,-1.0437,18.7924,-26.0996,16.7039,-12.5279,-1.0437,-2.0875,13.5717,
-1.5661,-5.6043,30.798,33.0242,-8.8743,-10.9618,1.5661,3.7924,-27.6657,13.0503,-7.8306,-6.7858,6.7858,3.6536,
0,-20.6043,27.1443,18.0242,-20.8799,-14.6154,0,0,-31.3193,5.2207,0,-1.0437,0,-2.0875,
-3.1322,-5.6043,31.3203,22.9684,-18.7914,-11.4842,-4.176,10.4404,-24.0121,7.3082,0,6.2645,0,6.2645,
-13.0503,-2.6099,37.0624,22.446,-30.798,-26.4842,2.6099,3.6536,-29.7542,1.5661,-0.52237,4.6983,0.52237,-8.7355,
1.9497,1.5661,26.622,32.8864,-15.798,-16.1815,2.6099,2.6099,-44.7542,-1.5661,2.6099,-4.6974,-12.0056,-12.0056,
1.5661,2.6099,13.0503,32.8864,-14.094,-12.0056,-1.5661,7.8296,-48.5456,5.7421,3.6536,-6.7858,-7.8296,-1.5661,
-13.4339,-4.6979,24.534,20.358,-29.094,-23.4902,0.52187,6.7863,-36.0182,17.2258,-3.6541,8.2142,6.7863,-0.52187,
-3.1322,-3.1322,32.3641,17.7477,-14.094,-12.5279,3.1322,5.2197,-37.5843,21.9236,-7.3082,11.4842,9.3957,-6.2645,
-1.5661,-8.8733,25.5782,14.094,-21.4013,-15.1378,3.6546,3.6546,-39.1499,13.0503,-3.6536,3.6546,1.5661,-21.2645,
3.6541,6.1267,21.4018,27.6652,-21.4028,-10.9623,-3.6541,9.9176,-27.6662,19.3133,-15.1383,12.0061,-9.9186,-6.2645,
-2.088,8.3525,24.0116,25.0564,-16.7044,-6.264,-4.1755,2.088,-38.628,15.6597,-17.7482,12.5284,-24.0116,8.7355,
-8.352,-6.2635,32.3641,27.1443,-21.9236,-6.2635,3.1322,7.3082,-44.8915,9.3967,-2.7482,11.4842,-9.0116,0,
0.52187,-0.52187,17.3641,36.0182,-21.4018,-8.8738,-6.7863,14.0945,-31.8422,15.1383,-5.7416,5.7426,5.9884,-13.0498,
-14.4781,-2.088,27.1448,36.5405,-36.4018,-23.8738,6.264,9.3962,-30.2751,17.7482,2.088,9.3962,-3.1317,-5.2192,
-29.4781,-8.8743,33.9302,33.9302,-44.3701,-30.798,7.8296,8.8743,-39.1499,10.9618,1.5661,15.1378,-9.9181,-1.5661,
-36.5401,-17.7482,18.9302,18.9302,-35.4963,-28.1876,-1.0442,6.264,-27.1439,16.7044,1.0442,12.5284,-1.0442,1.0442,
-49.068,-20.8799,29.2318,10.4404,-50.4963,-39.6718,9.3957,-1.0437,-21.9241,20.8799,15.6602,14.6164,1.0437,-6.2635,
-42.804,-5.8799,34.4516,25.4404,-52.2002,-24.6718,14.6154,0,-27.1443,21.9236,9.3957,21.9236,0,-8.352,
-54.2877,-19.8361,29.2318,21.9246,-51.156,-27.1439,9.3957,-12.5279,-21.9236,18.7924,10.4404,13.5717,10.4404,-9.3957,
-65.7719,-33.4078,26.1006,17.7486,-42.804,-40.716,-1.0437,-14.6154,-16.7039,18.7924,11.4842,1.0437,10.4404,1.0437,
-50.7719,-18.4078,24.0121,31.3203,-32.3641,-25.716,0,0.38458,-25.0559,28.1881,0,1.0437,-3.1322,15.6602,
-43.8478,-3.4078,22.9679,33.4083,-47.3641,-21.9241,5.2202,15.3846,-31.3198,19.8366,-4.1755,5.2202,-12.5274,0.66016,
-33.4083,-1.0437,26.0996,37.5838,-44.892,-27.1443,1.0437,16.7039,-16.3198,16.7039,6.2635,10.4394,-5.2197,-6.2645,
-26.0996,-2.0875,21.9246,30.2766,-36.5391,-31.3193,0,3.1322,-29.2318,10.4404,2.0885,0,-6.2635,1.0447,
-38.1057,-2.6094,23.4902,26.6225,-49.5899,-32.8859,6.7863,3.6541,-44.2318,2.6104,-4.6978,0.52187,-0.52187,4.6988,
-39.1499,-0.52187,16.182,40.1942,-52.7216,-23.4893,-3.6541,18.2705,-32.8859,9.9186,-5.7416,8.8748,5.7426,0.52187,
-24.1499,14.4781,1.182,51.156,-37.7216,-8.4893,-17.7482,22.9679,-19.8366,16.7034,-11.4837,10.4399,-3.1317,8.3515,
-9.1499,26.1006,-13.818,36.156,-22.7216,6.5107,-20.8799,7.9679,-34.8366,1.7034,-26.4837,-4.5601,-17.7477,16.7039,
-16.7039,11.1006,1.182,34.4516,-35.4963,-5.2197,-5.8799,9.3957,-37.5838,9.3957,-11.4837,0,-4.176,11.4842,
-31.7039,-3.8994,16.182,41.2384,-50.4963,-16.1815,2.6099,18.27,-22.5838,18.27,3.5163,12.0066,-2.6099,-3.5158,
-30.2761,1.0442,16.7044,48.0247,-50.1117,-3.1317,-9.3962,25.0564,-10.4399,24.0126,-2.088,16.7044,-1.0442,11.4842,
-43.8483,-7.3077,12.5284,37.5843,-52.2002,-17.7482,3.1317,18.7919,-25.4399,13.5722,-3.1317,8.3525,-8.3525,26.4842,
-49.068,-12.5279,12.5279,40.716,-56.3762,-21.9236,3.1322,15.6602,-38.628,8.352,0,0,-15.6602,13.5717,
-51.6778,-14.0936,7.8301,40.1942,-51.6778,-12.0061,-5.7416,14.0945,-36.0182,5.7416,2.6104,7.8301,-2.6104,9.9186,
-50.1122,-19.8366,9.3962,33.4073,-57.4204,-13.5722,-4.1765,8.3515,-34.4526,10.4399,-2.088,22.8301,2.088,12.5274,
-35.1122,-4.8366,10.4394,38.6275,-50.1122,-2.0885,0,7.3072,-22.9684,19.8361,0,25.0559,-4.176,7.3072,
-47.5019,-1.5661,12.0066,31.8417,-54.8101,-8.8743,1.5661,1.5661,-20.3575,15.1378,9.9181,16.1825,-1.5661,-1.5661,
-56.8981,-16.5661,12.0061,25.5777,-61.074,-23.8743,-0.52187,0.52187,-27.6662,18.2705,3.6541,17.2258,-8.8738,6.7863,
-60.5517,-22.9674,18.7924,24.0121,-50.1117,-31.3198,1.0437,-1.0437,-29.2318,22.9684,6.2645,19.8361,-14.6154,12.5279,
-66.8161,-17.7477,32.3641,33.4078,-37.5843,-26.1001,0,0,-21.9241,20.8799,20.8799,26.0996,0.38458,0,
-56.8981,-13.0498,29.7537,44.3701,-46.4581,-27.6662,-0.52187,0.52187,-22.4455,15.1383,12.0061,23.4902,14.0945,-12.0061,
-42.2821,-16.182,33.9297,40.1942,-61.4581,-41.2379,12.0061,-5.7416,-20.358,14.0945,5.7416,17.2258,5.7416,-10.9623,
-38.1062,-18.2705,43.3254,41.2379,-55.8543,-44.3701,-0.52187,0.52187,-10.9623,23.4902,6.7853,21.4018,-1.5666,4.0377,
-53.1062,-30.2761,43.8478,36.5396,-66.8161,-45.9362,-12.5284,3.1317,-19.8356,21.9241,3.1317,19.8356,-3.1317,4.1755,
-63.6839,-26.1001,42.804,35.4958,-68.9036,-39.6718,2.4716,-2.088,-26.1001,13.5722,3.1317,9.3962,-3.1317,2.088,
-48.6839,-15.1383,45.4139,50.4958,-53.9036,-24.6718,7.8301,2.6094,-25.5777,12.0061,0.52187,-0.52187,-2.6104,17.088,
-53.244,-22.9674,51.1565,53.244,-53.244,-30.2756,-7.1699,7.3082,-26.0996,16.7039,4.176,4.176,-4.176,10.4404,
-51.156,-7.9674,57.4199,62.6397,-67.8599,-25.0559,-6.2645,9.3957,-15.6602,22.9684,6.2635,19.176,-5.2197,5.2197,
-40.1937,-3.6536,53.7663,62.1183,-69.4255,-19.3138,3.6546,1.5661,-18.27,21.4023,-1.5661,8.8743,-15.1378,8.8743,
-38.1062,-18.6536,53.7658,54.8096,-70.4702,-28.71,7.8301,-0.52187,-24.534,20.358,0.52187,5.7416,-9.9186,6.7853,
-36.0182,-15.1383,49.5899,51.6783,-70.4702,-36.0182,-1.5656,-4.6978,-16.182,21.4018,1.5656,17.2258,5.0814,2.6104,
-33.4078,-19.8351,61.5969,55.3324,-85.4702,-39.6718,0,-6.2635,-1.182,30.2766,16.5656,19.8361,13.5727,-3.1312,
-18.4078,-25.0554,67.8599,61.5964,-89.784,-35.4958,4.1765,1.0442,-4.1755,37.5843,12.5284,17.7482,-1.0442,-8.3515,
-5.2197,-17.7477,56.3762,51.1565,-83.52,-31.3193,1.0437,3.1322,-16.7039,31.3203,-1.0437,20.8799,-9.3957,6.6485,
-20.2197,-30.2761,54.2882,41.7603,-98.52,-40.716,1.0442,-1.0442,-12.5274,21.9241,11.4837,18.7919,-4.1755,15.6597,
-29.2318,-43.8478,57.4199,49.068,-104.3999,-44.892,0,0,-2.0875,25.0559,19.8361,12.5279,1.0437,0.65967,
-14.6159,-43.8483,63.6839,53.2435,-89.3999,-54.2882,3.1317,1.0442,-6.264,27.1439,11.4837,22.9679,-2.088,-1.0442,
-4.6983,-28.8483,65.2495,66.2943,-81.9544,-44.3701,-2.6099,2.6099,-17.2263,26.622,2.6099,29.7542,-8.8743,4.6974,
-6.7858,-13.8483,58.9861,72.5577,-66.9544,-29.3701,-5.7421,5.7421,-17.2263,32.8864,5.7421,14.7542,1.5661,-1.5661,
-21.4013,-23.4897,56.8986,57.9423,-71.514,-39.1499,-2.6099,-3.6536,-16.1815,23.4907,10.9618,7.8306,5.7421,2.6099,
-25.0559,-32.3641,52.1997,61.5964,-86.514,-44.892,-9.3962,-2.088,-20.8794,17.7482,4.1765,21.9241,2.088,13.5722,
-25.0559,-29.2318,54.2887,66.8166,-101.514,-39.6718,-9.3957,4.176,-20.8799,21.9246,10.4404,24.0121,6.2645,-1.4278,
-16.182,-22.4455,57.9418,63.1625,-86.514,-38.1062,-4.6979,0.52187,-10.9623,30.7985,13.0498,24.534,-0.52187,1.5656,
-1.182,-25.5777,53.7658,65.25,-71.514,-23.1062,-0.52187,-0.52187,-0.52187,42.2816,8.8738,27.6662,-3.6541,16.5656,
-15.1383,-40.5777,47.5024,50.25,-75.69,-36.0182,0.52187,-8.8738,-15.1383,29.7537,6.7863,12.6662,-0.52187,19.3143,
-26.1006,-38.6285,46.9795,35.25,-90.69,-48.0242,0,0,-19.8361,27.1434,9.3957,11.4832,9.3957,4.3143,
-35.4958,-27.1439,44.8925,35.4958,-102.3119,-46.98,-9.3962,2.088,-14.6159,26.1001,12.5284,26.1001,13.5722,-2.088,
-29.7542,-37.0619,45.4144,45.4144,-101.7901,-31.98,-7.8296,-2.6099,-23.4902,17.2263,7.8296,23.4897,2.6099,6.7858,
-17.2258,-44.3696,43.3264,49.5899,-89.2616,-28.71,-3.6541,4.6978,-22.4455,28.71,3.6541,13.0508,-10.9613,15.1383,
-28.1881,-53.244,39.6723,38.6275,-99.1802,-43.71,-3.1322,4.176,-10.4404,39.6723,13.5717,22.9684,-4.176,3.1322,
-16.7044,-44.8925,33.4073,40.7155,-86.6523,-49.0685,-6.264,-2.088,-9.3962,28.1876,12.5274,34.4521,9.3952,2.088,
-6.7858,-45.4139,36.0177,32.8864,-92.3939,-34.9739,-8.8743,-2.6099,-15.1378,16.1825,8.8743,21.4023,2.6099,13.0503,
-21.4018,-53.7658,44.3706,26.622,-107.3939,-42.2816,-14.094,-1.5661,-17.2253,21.4023,10.9618,17.2263,1.5661,10.9618,
-21.9241,-45.9358,42.8045,41.622,-92.9157,-43.8478,-7.3082,-3.1322,-12.5279,31.3203,13.5717,27.1443,3.1322,8.352,
-28.1886,-57.4204,38.628,46.98,-77.9157,-51.1565,7.3077,-9.3962,-15.6607,25.0554,11.4837,20.8794,-6.264,6.264,
-25.5782,-52.7221,47.5024,49.5899,-65.25,-47.5019,0.52187,-1.5656,-15.1383,28.71,9.9176,10.9623,-0.52187,10.9623,
-36.0182,-49.5899,44.3696,45.4144,-80.25,-52.7221,-14.094,-4.6983,-19.3138,30.798,4.6983,8.8743,5.7421,12.0056,
-43.8483,-59.5084,48.0237,46.98,-95.25,-55.3324,-5.2202,-9.3962,-10.4404,34.4521,14.6159,23.8743,5.2202,15.6597,
-30.2761,-53.2445,50.1122,53.2435,-80.25,-40.3324,-1.0442,-2.088,-4.1765,38.628,18.7919,18.7919,1.0442,9.3962,
-29.2323,-38.2445,51.156,50.1122,-74.1243,-39.6723,-2.088,2.088,-9.3962,43.8478,21.9241,11.4837,2.088,-5.6038,
-21.9241,-28.1881,54.2877,65.1122,-89.1243,-45.9362,1.0437,-2.0885,-3.1322,52.2002,24.0121,26.4837,4.176,-1.0437,
-13.5717,-39.6718,39.6723,62.6397,-96.048,-56.3757,-8.352,-6.2635,0,38.6285,13.5717,26.1006,0,7.3082,
-5.7421,-41.2379,28.7105,47.6397,-81.048,-61.074,-14.094,2.6099,-2.6099,36.0177,5.7421,17.2263,-1.5661,1.5661,
4.6983,-27.6657,27.6657,48.5456,-66.048,-54.8101,-20.3585,6.7858,-16.1825,34.9739,-4.6983,18.27,-14.094,7.8296,
-2.088,-33.4083,41.7603,49.0675,-81.048,-49.068,-12.5284,2.088,-17.7482,24.0116,8.3515,18.7919,-8.3525,9.3962,
-8.3515,-45.9358,35.4958,48.0237,-67.8599,-49.068,-8.3515,-1.0442,-10.4399,19.8366,10.4399,12.5284,6.6475,1.0442,
-6.2635,-48.0237,22.9684,48.0242,-54.2877,-57.4199,-13.5717,0,-13.5717,18.7924,0,11.4842,4.176,12.5279,
-9.9181,-50.6341,33.9302,42.2821,-69.2877,-62.1183,-7.8296,3.6536,-12.0056,14.094,12.0056,19.3138,-3.6536,15.1378,
-8.352,-42.804,24.0121,42.8045,-63.6839,-56.3757,-20.8799,-4.176,-9.3957,7.3082,9.3957,9.3957,8.352,4.176,
-7.3082,-36.5405,19.8361,49.068,-48.6839,-54.2882,-22.9684,-8.352,-11.4842,22.3082,7.3082,15.6602,17.7477,17.7477,
-5.7421,-40.1937,28.7105,54.8101,-63.6839,-50.6336,-12.0056,5.7421,-9.9181,37.3082,7.8306,24.5345,2.7477,31.8427,
-2.6104,-37.0619,25.5777,49.5899,-56.8981,-44.3701,-10.9623,10.9623,-2.6104,30.7985,2.6104,9.5345,-12.2523,18.2705,
-8.8738,-44.3701,23.4902,38.1057,-41.8981,-52.7221,-16.182,-2.6104,-2.6104,22.4465,6.7863,5.7416,2.7477,3.2705,
-6.7858,-51.6778,20.3585,46.4581,-44.3701,-56.8981,-27.6657,0.52237,-17.2263,30.798,3.6546,5.7421,7.8306,-0.52237,
1.5661,-36.6778,18.27,54.8101,-59.3701,-48.5466,-20.3585,12.0056,-17.2263,27.6657,-1.5661,5.7421,-6.7868,8.8733,
6.2645,-21.6778,19.8361,40.716,-62.6397,-48.0237,-13.5717,3.1322,-4.176,19.8361,-3.1322,11.4842,-12.5279,15.6602,
11.4847,-18.7919,15.6607,31.3198,-55.3319,-57.4199,-17.7482,-3.1317,-2.088,28.1886,2.088,12.5284,-13.5722,14.6159,
-0.52187,-33.7919,19.3133,31.8422,-70.3319,-69.4265,-8.8738,0.52187,-8.8738,27.6662,13.0498,19.3133,-4.6979,18.2695,
-15.5219,-48.7919,15.6597,32.3636,-85.3319,-79.3441,-14.6164,-6.264,-10.4399,16.7034,6.264,26.1001,6.264,15.6597,
-30.5219,-53.7658,17.2263,38.1062,-86.1299,-80.9102,-14.094,0.52237,-0.52237,17.2263,15.1378,24.5335,9.9181,0.65967,
-15.5219,-38.7658,26.6225,50.6346,-71.1299,-65.9102,-3.6541,10.9623,-0.52187,15.1383,16.182,20.358,0.52187,-10.9613,
-0.52187,-23.7658,25.0559,48.0242,-56.1299,-50.9102,-9.3957,-4.0377,-4.176,16.7039,1.182,16.7039,0,4.0387,
-7.8301,-38.7658,13.0498,36.0182,-71.1299,-51.6783,-23.4902,-8.8738,-3.6541,28.71,5.7416,19.3143,3.6541,19.0387,
-11.4842,-36.5405,4.176,41.7598,-61.5964,-39.6723,-27.1444,6.1262,-4.176,34.4516,6.2635,29.2318,-8.352,34.0387,
-4.176,-32.3646,13.5717,40.716,-51.1565,-41.7603,-14.6164,5.2197,-7.3082,27.1434,4.176,26.0996,-4.176,21.9236,
0,-45.9362,13.5717,41.7598,-53.2445,-43.8483,-17.7486,-4.176,-12.5279,17.7477,0,11.0996,6.2635,11.4842,
15,-30.9362,6.264,51.156,-38.2445,-28.8483,-27.1439,3.1317,-21.9241,19.8356,-12.5284,-2.088,2.088,15.6597,
11.4842,-19.8361,12.5279,39.6723,-36.5401,-27.1444,-12.5279,-1.0437,-30.2756,15.6602,-12.5279,4.176,1.0437,4.176,
-3.1317,-34.8361,10.4399,36.5405,-51.5401,-42.1444,-3.1317,-2.088,-22.9679,19.8366,2.088,8.3525,3.1317,8.3525,
-5.7421,-40.1942,13.0503,43.3259,-64.2063,-41.2379,2.6099,-2.6099,-7.9679,34.8366,15.1378,22.446,-2.6099,20.3575,
2.6099,-29.7542,18.27,47.5019,-71.5145,-41.2384,-6.7858,-8.8743,-5.7421,36.0177,8.8733,26.622,-2.6099,5.3575,
17.6099,-20.8799,3.27,45.9358,-56.5145,-45.9362,-21.7858,1.0437,-18.7924,21.0177,-2.0875,12.5279,7.3082,1.0437,
12.0061,-20.358,-4.6979,31.8422,-55.8543,-44.3701,-18.2705,0.52187,-17.2258,16.182,-0.52187,13.0498,1.5656,3.6541,
4.6983,-24.534,10.3021,38.1062,-70.8543,-46.4581,-3.2705,-1.5661,-7.8296,18.27,0.52237,23.4897,-6.7858,-0.52237,
4.176,-29.2318,11.4842,43.8483,-82.4758,-52.1997,-15.6602,11.4842,-19.8361,10.4404,-3.1322,17.7486,-5.2197,3.1322,
2.088,-22.9679,3.1327,38.628,-75.1676,-44.8915,-22.9679,12.5284,-32.3636,9.3962,-2.088,12.5284,-7.3077,8.3525,
13.5722,-9.3962,1.0442,53.628,-60.1676,-35.4958,-18.7919,7.3087,-24.0116,14.6159,-1.0442,11.4847,-2.088,1.0442,
8.8743,-22.446,3.6536,55.8538,-61.074,-50.4958,-20.3575,8.8743,-21.4023,15.1378,-3.6536,10.9618,4.6983,-8.8743,
2.088,-27.1439,6.264,43.8478,-65.7719,-48.0242,-15.6597,6.264,-21.9241,14.6159,-4.1765,18.7919,-2.088,6.1257,
2.088,-29.2323,6.264,39.6718,-56.3762,-33.0242,-8.3525,-2.088,-17.7482,3.1317,3.1317,16.7034,-9.3962,21.1257,
0.52187,-44.2323,5.7426,44.3701,-67.338,-29.7537,-17.2258,0.52187,-21.4018,-3.6541,5.7426,14.0945,-0.52187,6.1257,
4.1765,-40.7155,8.3525,40.7165,-64.7276,-31.3198,-16.7034,2.088,-22.9679,-3.1317,2.088,12.5284,-2.088,6.264,
8.352,-34.4521,12.5279,38.6285,-59.5079,-32.3641,-14.6154,4.176,-22.9674,-1.0437,1.0437,12.5279,-2.0875,11.4842,
12.5284,-28.1876,15.6597,36.5396,-54.2882,-32.3641,-12.5284,6.264,-22.9679,1.0442,-1.0442,12.5284,-2.088,16.7044,
16.7044,-21.9241,19.8366,34.4521,-49.068,-33.4078,-11.4837,8.3525,-21.9241,2.088,-2.088,12.5284,-2.088,21.9241,
21.4018,-15.1383,23.4902,31.8422,-45.4139,-33.9302,-9.9176,10.9623,-22.4455,3.6541,-4.6978,12.0061,-3.6541,26.6225,
23.4902,-10.9623,25.5777,26.6215,-41.2384,-37.0624,-8.8738,10.9623,-23.4902,4.6978,-8.8738,10.9623,-4.6978,30.7975,
24.5345,-17.2263,25.5782,33.9302,-56.2384,-52.0624,-20.3575,-4.0377,-23.4897,-0.52237,3.6536,14.094,0.52237,18.27,
16.7044,-32.2263,26.1001,32.3636,-65.7719,-65.7719,-21.9241,-2.088,-38.4897,-7.3077,3.1317,2.088,11.4837,10.4399,
20.358,-28.71,36.0182,33.9297,-68.3818,-51.6778,-9.9176,12.912,-32.8859,0.52187,-0.52187,6.7863,-1.5656,16.182,
16.7044,-27.1439,37.5843,27.1439,-81.4321,-65.7719,-9.3962,3.1317,-25.0564,-3.1317,3.1317,13.5722,-16.5656,14.6159,
30.2756,-17.7486,29.2318,36.5401,-66.4321,-63.6844,-19.8361,7.3082,-18.7924,1.0437,-1.0437,11.4842,-10.4404,22.9674,
18.7924,-30.2756,27.1443,31.3203,-61.5959,-67.8599,-27.1443,11.4842,-13.5717,5.2197,-2.0885,2.0885,-5.2197,7.9674,
11.4837,-39.6723,40.7155,34.4521,-73.0806,-68.9046,-16.7044,-3.5158,-11.4847,3.1317,12.9115,10.4399,-2.088,2.088,
23.4897,-26.622,37.0624,47.5019,-58.0806,-53.9046,-13.0503,-1.5661,-22.446,-5.7421,4.6983,16.1825,1.5661,17.088,
21.9241,-25.0564,41.7603,46.98,-43.0806,-42.804,-7.3077,13.4339,-17.7482,3.1317,-5.2202,24.0116,-3.1317,15.6597,
22.446,-33.9302,41.2384,44.3696,-53.7658,-46.4581,-17.2263,14.094,-18.27,6.7858,-6.7858,17.2263,-18.1317,12.0066,
28.71,-27.6662,36.0182,40.1942,-41.2379,-41.2379,-17.2258,4.6979,-32.8859,-2.6104,2.6104,3.6541,-10.9623,27.0066,
18.7919,-31.3198,33.4073,28.1876,-40.7165,-53.2445,-16.7044,8.3515,-37.5843,-10.4399,2.088,-2.088,4.0377,34.4521,
27.6657,-33.9302,28.7105,28.7105,-32.8854,-57.9418,-23.4897,3.6546,-28.7095,-0.52237,-5.7421,0.52237,2.6099,19.4521,
42.6657,-26.1006,31.3193,35.4953,-29.2318,-42.9418,-10.4404,3.1322,-30.2766,6.2635,-3.1322,7.3082,-3.1322,12.5279,
53.244,-17.7477,34.4516,38.6275,-28.1881,-29.2318,-9.3957,17.7477,-39.6723,6.2645,-5.2197,5.2197,-17.7477,22.9684,
38.244,-32.7477,33.4083,25.0564,-43.1881,-44.2318,-17.7482,13.5722,-32.3641,11.4847,1.0442,-1.0442,-21.9241,19.8366,
23.244,-41.2384,31.8422,21.4018,-58.1881,-59.2318,-19.3143,-1.4278,-23.4902,8.8738,3.6541,3.6541,-9.9186,7.8301,
33.4078,-26.2384,29.2318,36.4018,-54.2882,-59.5079,-22.9684,6.2645,-22.9684,0,-6.2645,13.5717,0,13.5717,
37.5838,-34.4521,27.1443,27.1443,-59.5079,-53.244,-22.9684,16.7039,-22.9684,-6.2645,2.0875,8.352,-1.0437,1.0437,
27.1443,-44.892,28.1881,26.1006,-59.5079,-60.5517,-11.4842,8.352,-19.8361,-1.0437,11.4842,4.176,1.0437,-7.3082,
25.5782,-29.892,28.7105,38.1062,-47.5019,-61.0735,-9.9181,-1.5661,-23.4897,1.5661,3.6546,8.8743,-4.6974,7.6918,
12.0061,-39.1504,25.5777,26.6215,-62.5019,-63.162,-17.2258,0.52187,-23.4902,-0.52187,6.7853,16.182,-9.9186,21.4018,
-0.52187,-54.1504,24.534,21.4018,-77.5019,-67.338,-16.182,0.52187,-25.5777,-3.6541,5.7426,15.1383,2.6104,12.0061,
3.6541,-58.9861,39.534,36.4018,-76.7342,-76.7342,-3.6541,2.6104,-32.8859,-2.6104,1.5656,15.1383,10.9623,-1.5656,
16.7039,-43.9861,43.8483,38.6275,-61.7342,-75.1681,-10.4404,6.2635,-30.2761,7.3082,-3.1322,12.5279,-4.0377,3.1322,
17.7477,-38.6285,28.8483,27.1434,-46.7342,-60.1681,-6.2645,0,-24.0121,8.352,0,7.3082,-13.5727,18.1322,
15.1378,-46.4581,27.6657,29.7542,-56.8981,-56.8981,3.6536,-10.9618,-26.622,-3.6536,6.7858,3.6536,-4.6983,14.094,
26.6225,-43.3259,27.6662,39.1504,-62.1178,-60.0298,-10.9623,-0.52187,-20.358,3.6541,3.6541,2.6104,0.52187,-0.90595,
19.3138,-41.2384,16.1815,25.5782,-70.4702,-63.162,-22.446,2.6099,-24.5345,10.9618,-2.6099,3.6536,-13.0503,3.6536,
26.1001,-26.2384,27.1439,37.5843,-62.6402,-48.162,-17.7482,5.2202,-26.1001,16.7044,-5.2202,14.6159,-16.7044,14.6159,
33.9297,-24.534,29.7537,48.5461,-64.2058,-41.2379,-16.182,15.1383,-23.4902,19.3143,-10.9623,10.9623,-17.2258,13.0498,
18.9297,-31.8417,22.446,39.1499,-78.8222,-51.6783,-17.2263,16.1815,-28.7105,12.0056,-5.7421,5.7421,-19.3138,28.0498,
24.534,-16.8417,17.2258,42.2816,-71.514,-52.7221,-27.6662,9.9176,-30.7985,4.6978,-4.6978,6.7863,-20.358,40.1942,
23.4902,-20.358,22.4455,39.1504,-76.7342,-52.7221,-22.4465,13.0498,-31.8422,7.8301,0.52187,-0.52187,-16.182,25.1942,
15.6597,-20.8804,34.4521,41.7603,-68.9041,-40.716,-7.4465,27.1439,-46.8422,14.6159,5.2202,-3.1317,-10.4399,10.1942,
19.3148,-13.0493,39.1499,48.5466,-54.8096,-42.2816,1.5661,21.4023,-61.8422,7.8306,-1.5661,-1.5661,-12.0056,25.1942,
14.0945,-27.6662,33.9297,39.1504,-64.2058,-57.2816,-9.9176,8.8738,-76.8422,2.6104,2.6104,-2.6104,-13.0498,10.1942,
20.8804,-25.0554,26.1001,41.7603,-49.2058,-45.9358,-8.3515,17.7482,-91.8422,16.7044,9.3962,-1.0442,-1.0442,1.0442,
16.7034,-36.5405,19.8356,28.1876,-54.2887,-39.6728,-9.3962,2.7482,-106.8422,3.1317,-2.088,-9.3962,3.1317,14.6159,
19.3138,-32.8859,29.7542,28.7105,-61.074,-54.6728,-1.5661,0.52237,-121.8422,-2.6099,3.6536,3.6536,-0.52237,28.7105,
18.2695,-22.4465,24.534,37.0619,-46.074,-51.6783,-6.7863,7.8301,-136.8422,0.52187,3.6541,-0.52187,-15.1383,23.4902,
14.6164,-34.4521,26.0996,38.6275,-38.628,-40.716,-1.0437,1.0437,-151.8422,6.2635,11.4842,-3.1322,-4.176,10.4404,
13.5722,-42.804,15.6607,35.4958,-53.244,-40.716,-9.3962,-2.088,-166.8422,7.3087,6.264,2.088,1.0442,-1.0442,
14.6154,-30.2766,2.0875,34.4516,-54.2887,-46.9805,-16.7049,9.3957,-181.8422,0,0,1.0437,-13.9558,13.5717,
23.4902,-27.6652,16.182,39.1504,-53.7658,-55.8538,-8.8738,14.0945,-196.8422,-4.6978,4.6978,7.8301,-21.4018,22.4465,
27.6657,-41.2384,19.3138,34.9739,-58.9861,-57.9423,-10.9618,1.5661,-211.8422,3.6536,-1.5661,7.8296,-9.9181,7.4465,
12.6657,-49.068,11.4842,22.9684,-72.0359,-56.3762,-12.5279,-1.0437,-226.8422,9.3957,1.0437,1.0437,-10.4404,15.6602,
11.4842,-34.068,8.352,30.2756,-64.7281,-46.9805,-17.7486,9.3957,-241.8422,-1.0437,6.2635,1.0437,-12.5279,26.0996,
20.8799,-30.2756,12.5279,33.4078,-60.5522,-46.98,-17.7477,16.7039,-256.8422,-2.0885,2.0885,7.3082,-6.2645,11.0996,
5.8799,-45.2756,8.8738,26.6215,-75.5522,-61.98,-18.2705,9.9176,-266.7427,3.6541,-3.6541,8.8738,-18.2705,6.7853,
-1.0442,-49.068,3.1327,33.4083,-67.8599,-46.98,-12.5274,9.3962,-274.5718,9.3962,1.0442,10.4399,-19.8356,21.7853,
0.52187,-34.9739,6.7863,37.0619,-68.3818,-40.1937,-0.52187,7.8301,-288.6658,-1.5656,10.9623,8.8738,-8.8738,22.4465,
15.5219,-34.9744,14.0936,48.5461,-53.3818,-55.1937,-3.6541,0.52187,-283.4466,4.6978,9.9176,12.0061,-13.0498,7.4465,
19.8361,-29.2318,14.6154,51.1555,-38.3818,-62.6402,-7.3082,-5.2197,-268.4466,19.6978,5.2197,8.352,-14.6164,22.4465,
4.8361,-29.2323,3.1317,36.1555,-42.804,-47.6402,-8.3525,8.3525,-277.704,4.6978,3.1317,-6.648,-2.088,26.1001,
12.0061,-16.182,3.6541,42.2826,-45.4139,-32.6402,-14.0936,23.3525,-291.798,-3.6541,-0.52187,-4.6979,0.52187,24.534,
0,-22.9674,8.352,39.6723,-60.4139,-17.6402,-21.9236,15.6602,-289.1877,4.176,0,0,-11.4842,31.3203,
-14.094,-17.2263,1.5661,39.1499,-75.4139,-2.6402,-18.27,20.3575,-281.3586,17.2253,5.7421,3.6536,-10.9628,30.798,
-9.3962,-8.3525,-4.1765,42.804,-82.4763,4.1765,-17.7482,35.3575,-281.88,25.0564,15.6597,8.3525,-9.3962,30.2761,
-17.7482,-23.3525,5.2202,33.4083,-90.8278,-10.8235,-20.8794,20.3575,-279.792,22.9679,20.8804,18.7919,-5.2202,38.628,
-16.7039,-20.8799,6.2645,33.4078,-89.784,-4.176,-21.9236,14.6164,-273.528,26.0996,5.8804,21.9236,-8.352,53.628,
-11.4842,-9.3957,0,39.6723,-89.784,6.2645,-22.9674,29.6164,-270.3958,25.0559,0,8.352,-23.352,42.8045,
-9.3967,-6.2645,0,50.1117,-82.4763,10.4394,-29.2318,29.2318,-266.2203,18.7914,8.352,0,-26.1006,30.2756,
-7.8301,-0.52187,-7.8301,52.7221,-68.3818,17.2258,-28.71,26.6225,-271.9619,15.1383,0.52187,2.6104,-12.0061,34.9744,
-19.8361,-9.3967,-6.2645,40.716,-78.3003,6.2635,-18.7924,28.1881,-277.7045,13.5717,4.176,4.176,-4.176,31.3193,
-29.7532,-19.3138,3.6546,43.3259,-93.3003,-8.7365,-23.4897,15.1388,-270.9176,8.8743,13.0503,2.6099,-2.6099,28.7105,
-20.8799,-15.6602,8.352,52.2002,-92.9162,-21.9236,-19.8361,12.5279,-266.2203,3.1322,15.6602,9.3957,-3.1322,41.7598,
