"AF3","AF4","F3","F4","F7","F8","FC5","FC6","O1","O2","P7","P8","T7","T8",
-139.3947,-67.8834,55.4472,90.6848,-207.7966,-149.7585,1.5547,-1.5547,13.9913,4.6641,30.5735,106.2299,-57.5195,-55.4467,
-141.9853,-64.2561,60.1111,92.2388,-198.9872,-162.7135,5.1819,1.0364,18.6552,-1.0364,37.3101,121.2299,-59.074,-64.2561,
-131.1033,-57.5197,61.6653,106.2301,-183.9872,-147.7135,9.8455,5.7,28.501,-5.7,44.0465,127.9939,-62.7019,-55.447,
-137.8405,-70.4747,70.4742,109.8573,-198.9872,-132.7135,17.6183,2.0728,23.8366,-2.0728,47.6737,130.5855,-76.693,-52.8564,
-134.7308,-55.4747,57.0017,110.8937,-183.9872,-117.7135,13.473,1.0364,8.8366,-1.0364,34.2007,125.4036,-77.7294,-45.6012,
-119.7308,-40.4747,58.5559,106.2301,-168.9872,-102.7135,19.1732,4.6639,8.8094,-4.6639,31.6099,113.485,-66.8475,-30.6012,
-105.7115,-25.4747,66.3294,105.712,-153.9872,-87.7135,25.9101,1.0364,16.5824,-1.0364,35.2373,118.1487,-51.8475,-15.6012,
-114.5212,-36.792,56.4831,109.339,-138.9872,-81.3569,22.2822,-4.6639,12.9549,4.6639,36.7916,120.7395,-38.8648,-21.246,
-117.112,-38.3467,54.9289,105.7115,-132.658,-79.8022,24.8735,-1.0364,17.6185,1.0364,45.6012,108.8209,-45.6012,-24.8735,
-102.112,-23.3467,57.0019,99.494,-117.658,-64.8022,30.0554,-2.0728,27.9826,2.0728,43.5287,99.494,-35.2371,-12.4366,
-116.0756,-38.3467,72.0019,92.239,-132.658,-79.8022,38.3465,-7.2549,40.4193,7.2549,48.7104,112.9667,-36.2737,-20.7277,
-131.0756,-53.3467,87.0019,90.6841,-147.658,-94.8022,39.901,-3.6272,45.0831,3.6272,55.447,127.9667,-51.2737,-35.7277,
-138.8764,-64.2561,86.0205,98.4576,-140.9491,-109.8022,42.4923,1.0364,38.3467,-1.0364,52.8561,134.7308,-66.2737,-39.3829,
-136.2853,-54.4106,90.6843,102.0848,-126.958,-94.8022,51.3017,-2.5908,31.6101,2.5908,49.2289,134.213,-61.665,-34.719,
-147.6855,-66.8475,87.5752,102.0846,-141.958,-109.8022,49.2287,-4.6639,31.6099,4.6639,44.0465,136.2855,-56.4831,-40.9376,
-162.6855,-81.8475,97.9388,95.866,-156.958,-124.8022,55.4467,-3.6275,38.8646,3.6275,58.5561,145.613,-71.4831,-53.3745,
-168.9318,-84.9843,100.5299,100.5299,-171.958,-129.5491,60.1106,-3.1092,34.2007,3.1092,55.965,151.3135,-77.7294,-50.7834,
-153.9318,-69.9843,85.5299,107.2667,-156.958,-114.5491,49.2287,-3.6272,19.2007,3.6272,40.965,136.3135,-62.7294,-35.7834,
-138.9318,-54.9843,70.5299,95.3479,-141.958,-99.5491,54.9287,-6.2183,23.8366,6.2183,37.3099,122.2944,-47.7294,-26.9465,
-129.0308,-48.1923,67.8834,87.5749,-126.958,-102.0848,53.374,-5.7002,28.5007,5.7002,47.1556,130.0674,-55.4472,-38.8646,
-114.5212,-48.192,63.7381,90.6841,-111.958,-89.6479,48.192,-5.7,31.6099,5.7,36.792,123.8489,-62.7019,-33.6826,
-109.3395,-45.0831,62.7019,94.8296,-96.958,-81.3569,49.2287,-7.7728,35.7554,7.7728,34.7193,122.8123,-70.993,-29.5371,
-123.3306,-42.492,59.0742,93.2752,-103.639,-79.8019,49.747,-6.2183,32.1282,6.2183,38.3465,129.5489,-72.5475,-29.0188,
-124.885,-50.2648,74.0742,91.7207,-101.0479,-88.6113,64.747,-4.6639,31.6099,4.6639,41.9742,135.2489,-73.0653,-29.5371,
-124.367,-54.9289,84.9838,95.3482,-101.5665,-100.5299,68.4017,-5.1819,31.0918,5.1819,37.3101,129.5491,-88.0653,-27.9824,
-139.367,-65.2928,82.9111,96.3843,-116.5665,-111.9303,64.2561,-3.1092,30.0552,3.1092,47.674,133.6942,-91.2026,-22.8007,
-154.367,-63.22,87.0566,105.7115,-120.2214,-105.712,71.5111,1.0364,32.1279,-1.0364,52.8556,148.2036,-83.9477,-27.9829,
-139.367,-48.22,88.6115,112.4487,-105.2214,-90.712,80.3205,2.5908,32.6463,-2.5908,40.9373,139.3947,-98.9477,-39.9012,
-138.8761,-63.2197,102.6029,101.5667,-105.7118,-105.712,91.2024,0,38.3465,0,54.9292,144.0588,-113.9477,-44.5648,
-148.2038,-70.4747,97.4207,96.3846,-118.1489,-112.9667,82.9113,-4.1455,35.2371,4.1455,58.0381,158.5677,-128.9477,-36.2737,
-133.2038,-55.4747,82.9113,93.2752,-103.1489,-97.9667,72.5475,-10.3639,32.1282,10.3639,43.0381,148.2038,-143.9477,-35.2376,
-118.2038,-40.4747,73.5836,89.1296,-88.1489,-82.9667,67.3653,-15.546,25.9099,10.3639,28.0381,133.2038,-128.9477,-45.6014,
-103.2038,-25.4747,58.5836,92.7573,-73.1489,-67.9667,52.3653,-12.9549,10.9099,-3.6272,13.0381,118.2038,-129.0306,-30.6014,
-88.2038,-10.4747,43.5836,77.7573,-58.1489,-52.9667,37.3653,-20.2096,-4.0901,-18.6272,-1.9619,103.2038,-135.2491,-16.0641,
-73.2038,4.5253,28.5836,62.7573,-43.1489,-37.9667,22.3653,-35.2096,-13.473,-33.6272,-16.9619,88.2038,-150.2491,-31.0641,
-58.2038,19.5253,13.5836,50.7826,-28.1489,-22.9667,15.5455,-45.6014,-28.473,-46.6376,-31.9619,73.2038,-165.2491,-46.0641,
-43.2038,34.5253,28.5836,65.7826,-13.1489,-7.9667,30.5455,-30.6014,-13.473,-31.6376,-16.9619,87.0571,-180.2491,-33.1646,
-28.2038,49.5253,27.4643,76.1747,-6.7366,7.0333,35.7554,-26.4282,-12.9549,-38.8648,-21.246,80.3202,-195.2491,-41.9737,
-13.2038,64.5253,42.4643,74.62,-19.6913,22.0333,48.7106,-24.8735,-8.2913,-53.8648,-16.5824,73.5838,-181.3684,-56.9737,
-0.51807,79.5253,57.4643,86.5388,-23.319,23.319,61.6655,-13.9913,0.51807,-43.0101,-2.5908,88.5838,-175.6684,-67.8838,
-6.7366,94.5253,49.2287,91.7207,-10.8822,27.4643,53.3742,-13.9911,4.6639,-31.6099,-4.6639,103.5838,-164.2682,-52.8838,
-21.7366,109.5253,47.6742,76.7207,-25.8822,12.4643,45.6014,-22.8005,3.1094,-41.4554,2.0728,92.239,-151.3132,-45.6009,
-36.7366,124.5253,61.665,80.32,-40.8822,-2.5357,57.5195,-12.9552,11.9186,-28.5007,17.0728,107.239,-136.3132,-51.3017,
-51.7366,113.485,66.8475,91.7207,-55.8822,-17.5357,65.8108,-15.0277,15.0277,-18.1366,21.246,122.239,-123.8489,-54.4103,
-66.7366,98.485,70.4747,99.4935,-67.3653,-32.5357,61.147,-13.4733,18.6549,-14.5094,13.4733,121.2578,-112.9667,-40.4193,
-64.2564,94.3118,61.147,94.3118,-53.8925,-19.6916,51.8198,-10.3639,12.4366,-19.6916,10.3639,106.2578,-97.9667,-25.9099,
-63.22,91.2026,59.0744,86.0205,-50.7829,-26.9463,55.965,-5.1819,5.1819,-25.9096,18.6552,103.6393,-83.9477,-27.9824,
-51.3017,87.5749,59.5923,89.6477,-44.0467,-33.6829,57.5195,-3.6275,3.6275,-28.5007,10.8819,104.1571,-70.9928,-32.6463,
-46.6378,78.766,66.3289,97.4209,-50.7834,-31.0918,68.4017,-9.3275,13.473,-26.9463,9.3275,100.5299,-57.0017,-35.2373,
-48.1923,82.3932,65.8111,110.3759,-38.8646,-26.4279,68.92,-11.9186,11.9186,-26.4279,17.1007,105.1937,-54.4106,-30.5735,
-37.8282,96.9024,51.3014,107.2662,-23.8646,-17.1005,57.5197,-10.8822,8.8094,-19.1732,17.1005,112.4489,-49.2287,-22.2822,
-47.6737,81.9024,52.8559,92.2662,-33.1643,-27.9826,61.147,-18.6549,14.5094,-14.5094,20.7277,112.9672,-57.0014,-26.946,
-52.3378,73.0655,52.3378,83.4294,-40.9373,-13.9913,63.7383,-12.9547,12.9547,-13.9913,15.0275,108.3031,-62.7017,-17.1002,
-63.2197,72.5475,40.4193,73.5841,-34.2005,-2.0728,52.8564,-11.4,7.2549,-22.8005,2.0728,93.3031,-60.1103,-6.2183,
-63.7381,64.7742,29.5371,68.9197,-31.6099,-0.51832,39.901,-17.1005,10.8822,-28.501,-4.6639,78.3031,-55.447,0.51832,
-59.0744,61.1467,14.5371,67.3655,-30.0552,7.2547,24.901,-22.8007,-4.1178,-39.3829,-19.6639,63.3031,-58.0378,6.2186,
-64.2564,62.1831,20.7277,73.5836,-26.946,6.2183,34.201,-17.6188,-6.2183,-35.2376,-13.4733,68.4019,-46.6376,11.4,
-63.2202,60.1103,5.7277,64.2559,-11.946,9.3272,24.8732,-32.1282,-14.5099,-45.6014,-28.4733,57.0009,-53.8925,4.1455,
-57.0014,63.2197,-6.2183,52.8564,3.054,21.7643,17.6188,-38.3465,-25.9099,-55.9648,-42.492,42.0009,-63.2197,6.2183,
-61.6655,62.7017,8.7817,53.3745,-4.6636,10.8819,26.4279,-32.6463,-18.1369,-47.1561,-27.492,45.0834,-55.4472,4.6636,
-46.6655,70.9925,-0.51832,52.3381,10.3364,13.9911,15.0277,-45.0831,-12.9549,-39.901,-28.501,49.2287,-49.2287,0.51832,
-32.6465,67.8841,-9.8455,46.1193,25.3364,27.4648,9.8455,-49.2287,-13.9911,-34.7193,-22.2822,46.1193,-43.0104,9.8455,
-47.6465,57.0017,-7.2547,39.3834,14.5101,21.7641,7.2547,-49.7467,-22.8002,-41.4557,-15.5458,42.4918,-43.5284,12.4369,
-61.665,54.4111,7.7453,50.2655,-0.48987,6.7641,20.2096,-45.0829,-7.8002,-37.8284,-0.54578,54.4111,-36.7918,5.7002,
-76.665,39.4111,22.7453,65.2655,-15.4899,-8.2359,35.2096,-32.1279,7.1998,-27.9824,14.4542,69.4111,-21.7918,-9.2998,
-74.6202,43.5282,37.3099,73.5836,-30.4899,-23.2359,45.6014,-20.7277,6.2183,-18.6549,24.8732,84.4111,-25.9099,-6.2183,
-89.1296,33.1648,40.4193,66.3291,-45.4899,-38.2359,38.3465,-20.7277,6.2183,-13.4728,17.6188,96.3846,-40.9099,-6.2183,
-102.6029,22.8005,41.4554,69.4381,-60.1108,-41.4559,30.0554,-16.5822,9.3277,-16.5822,16.5822,100.5296,-55.9099,-9.3277,
-98.4576,27.9824,32.1279,66.3289,-45.6017,-31.0918,34.2007,-20.7279,1.0364,-22.8007,15.5458,95.3482,-70.9099,-1.0364,
-100.5299,27.9824,44.5646,61.1472,-54.9289,-46.0918,48.7101,-24.8735,3.1092,-16.5824,20.728,109.8576,-85.9099,-3.1092,
-102.6029,25.9099,43.5282,73.5836,-54.9287,-55.9653,43.5282,-21.7643,12.4366,-12.4366,16.5822,118.1489,-100.9099,-16.5822,
-106.7484,23.8371,31.0916,74.6202,-43.5287,-40.9653,37.3099,-19.6916,12.4366,-16.5822,16.5822,104.6752,-115.9099,-12.4366,
-104.6754,30.0557,16.5824,64.2566,-35.2373,-25.9653,23.8374,-32.1279,-2.5634,-23.8369,8.2913,89.6752,-130.9099,2.5634,
-112.4487,26.4279,24.3552,64.7744,-50.2373,-40.9373,16.0641,-37.8284,-0.51807,-19.1735,12.9547,84.466,-145.9099,0.51807,
-127.4487,11.4279,39.3552,69.4381,-65.2373,-55.9373,30.0554,-29.0193,14.4819,-4.1735,27.9547,99.466,-145.0949,-12.4366,
-132.1397,-0.51807,31.6101,65.8111,-77.2111,-54.4106,23.319,-26.4279,4.6636,0.51807,18.1369,107.2665,-130.0949,-7.773,
-132.658,-13.473,25.9096,52.8561,-64.2561,-55.965,20.728,-33.1646,5.1819,8.2913,13.473,101.5665,-115.0949,-5.1819,
-147.658,-28.473,29.0193,45.6014,-79.2561,-70.965,24.8737,-43.5282,18.6549,23.2913,24.8737,102.6034,-100.0949,-18.6549,
-147.6858,-21.2463,35.7557,59.5923,-94.2561,-85.965,28.5007,-40.9373,18.1369,38.2913,20.2096,112.4482,-85.0949,-18.1369,
-132.6858,-12.9549,50.7557,74.5923,-89.6474,-81.3564,36.792,-31.6099,12.9549,53.2913,18.1371,117.6306,-70.0949,-21.246,
-117.6858,-12.4366,50.7831,71.5108,-74.6474,-89.1296,31.0916,-30.0554,12.4366,57.0014,19.6916,102.6306,-55.0949,-32.1282,
-129.0306,-19.1732,45.0831,56.5108,-89.6474,-104.1296,29.5371,-35.7554,19.1732,51.3014,28.5005,101.0479,-49.2287,-41.9737,
-141.4677,-23.3188,60.0831,61.6653,-104.6474,-114.5217,30.5732,-31.6099,23.3188,63.7381,30.5732,116.0479,-34.2287,-52.3381,
-128.5125,-14.5096,63.22,70.4744,-111.9303,-101.5665,30.0552,-24.8735,14.5096,61.1472,23.8369,122.2947,-23.8369,-47.674,
-135.2494,-17.1005,66.847,68.9197,-120.74,-105.194,43.0099,-22.2827,12.9549,54.4103,38.8369,130.0667,-12.9549,-32.674,
-144.0583,-29.0188,72.5475,71.5113,-135.74,-118.1484,33.1648,-24.8732,15.546,55.9653,46.6376,143.0221,-15.546,-31.0916,
-138.8766,-33.1643,78.7658,74.6202,-148.2038,-127.4761,26.9465,-20.7277,20.7277,61.147,44.5648,144.0583,-30.546,-35.2371,
-148.7219,-29.5369,68.9205,75.1388,-152.8674,-126.9576,34.7195,-18.1369,18.1369,54.4106,41.974,146.6501,-34.719,-34.719,
-159.0865,-25.3916,57.5197,75.138,-158.0499,-122.8128,24.3549,-24.3554,17.1005,48.192,34.7188,144.5761,-19.719,-35.7559,
-167.8956,-38.3467,72.5197,77.7294,-163.7501,-132.658,18.6552,-24.8735,30.0552,59.0744,40.419,145.0947,-18.6552,-37.3101,
-155.9771,-23.3467,60.6287,81.3569,-148.7501,-117.658,21.246,-21.246,29.5371,67.8836,37.8282,139.3949,-22.2827,-28.501,
-143.5402,-15.0275,45.6287,66.3569,-133.7501,-102.658,13.9913,-29.5373,14.5371,53.3745,29.5373,124.3949,-11.9186,-25.3913,
-143.0219,-30.0275,45.6012,51.8195,-118.7501,-102.6026,10.3641,-34.2007,5.1819,40.4195,33.1646,109.3949,-5.1819,-30.0552,
-140.4308,-32.6463,44.0467,55.4472,-103.7501,-94.8299,7.773,-34.719,8.8092,46.1195,28.5007,107.2665,-7.773,-26.4279,
-151.3135,-30.0557,41.4557,58.0378,-99.4937,-89.1299,13.473,-31.0918,18.6547,52.8556,34.2007,101.566,-13.473,-25.9101,
-151.8315,-28.501,37.8282,56.4831,-105.194,-93.7935,8.8094,-23.3188,13.9911,48.192,36.792,106.2301,-8.8094,-21.246,
-158.5677,-38.3465,41.4559,50.7831,-120.194,-104.6756,5.1822,-27.9826,8.2911,51.8198,39.3831,120.2212,-5.1822,-20.7277,
-173.5677,-53.3465,56.4559,59.5923,-135.194,-119.6756,20.1822,-29.5373,23.2911,59.5923,54.3831,135.2212,-20.1822,-33.6829,
-188.5677,-68.3465,71.4559,64.7747,-150.194,-134.6756,31.6104,-23.3188,23.3188,54.4108,60.6291,148.7226,-35.1822,-48.6829,
-203.5677,-83.3465,86.4559,64.2561,-165.194,-149.6756,34.2012,-25.9096,25.9096,50.7834,75.6291,163.7226,-25.9096,-63.6829,
-218.5677,-98.3465,101.4559,76.1747,-180.194,-164.6756,31.6099,-31.6099,35.7554,49.2287,86.5385,178.7226,-40.9096,-78.6829,
-233.5677,-113.3465,111.9301,76.693,-195.194,-179.6756,31.0916,-29.0188,29.0188,50.7831,76.693,193.7226,-55.9096,-93.6829,
-248.5677,-128.3465,96.9301,65.2928,-210.194,-194.6756,31.0918,-22.8007,22.8007,51.8195,71.5111,194.8416,-70.9096,-100.5299,
-263.5677,-132.6578,86.0207,65.293,-225.194,-209.6756,21.7643,-21.7643,24.8737,46.6376,62.1836,195.878,-85.9096,-95.3479,
-278.5677,-138.3583,101.0207,67.8836,-240.194,-224.6756,27.4643,-25.3916,25.3916,47.1559,67.8836,204.6874,-100.9096,-92.7568,
-272.5708,-133.6942,96.3843,76.6932,-255.194,-239.6756,36.274,-22.8007,22.8007,62.1559,71.5111,202.0966,-115.9096,-91.2021,
-274.1257,-133.1764,82.3932,80.3205,-270.194,-240.9609,31.6101,-22.2824,22.2824,67.8834,62.7017,190.1778,-130.9096,-86.5388,
-289.1257,-134.2127,97.3932,81.3569,-285.194,-240.9607,27.4643,-21.246,21.246,64.7747,62.7019,197.4325,-145.9096,-82.393,
-274.1257,-119.2127,93.2754,93.2754,-270.194,-225.9607,22.8007,-17.6185,17.6185,72.5472,58.0378,194.8416,-160.9096,-67.393,
-259.1257,-104.2127,84.466,84.466,-255.194,-212.9783,34.719,-23.319,23.319,73.0655,64.7744,187.0689,-155.9768,-74.1022,
-274.1257,-119.2127,99.466,77.2113,-270.194,-227.9783,41.9742,-25.3916,25.3916,67.8836,78.2479,202.0689,-170.9768,-89.1022,
-289.1257,-134.2127,114.466,88.6118,-285.194,-242.9783,38.8648,-19.1732,19.1732,67.8836,80.3207,217.0689,-174.632,-101.0479,
-292.2626,-149.2127,115.0395,94.3113,-287.0804,-257.025,41.4554,-18.6549,18.6549,59.0742,77.7291,209.3508,-159.632,-97.4207,
-278.7896,-140.9491,105.712,90.166,-277.753,-250.8069,38.3463,-20.7279,20.7279,53.8923,76.6928,206.2416,-164.7862,-104.6754,
-271.0161,-126.9578,117.6306,88.6113,-268.9433,-240.9612,38.8648,-23.3188,23.3188,62.7019,85.5024,203.6508,-170.4865,-102.0846,
-256.0161,-111.9578,120.2214,97.4209,-253.9433,-225.9612,37.3101,-19.6913,19.6913,68.4017,73.5838,208.3149,-155.4865,-87.0846,
-241.0161,-96.9578,105.2214,100.5301,-238.9433,-210.9612,29.0193,-10.3639,10.3639,63.2197,58.5838,204.1691,-140.4865,-72.0846,
-241.4792,-91.2021,100.5299,85.5301,-223.9433,-197.9506,31.0918,-15.5458,15.5458,59.0744,70.4749,193.8055,-137.8397,-72.5472,
-243.552,-83.9477,97.4209,79.8022,-209.351,-193.805,32.1284,-22.8007,22.8007,70.4749,71.5111,196.9144,-131.6214,-78.7655,
-228.552,-83.4294,94.8299,79.2838,-215.051,-179.8139,28.5007,-17.1002,17.1002,78.2477,66.8472,204.6872,-116.6214,-67.8838,
-219.7151,-88.0935,96.3846,81.8747,-212.4602,-179.2959,26.946,-14.5094,14.5094,75.6564,72.5475,208.3147,-117.1123,-66.3291,
-208.833,-73.0935,92.7573,86.539,-197.4602,-172.5592,21.246,-15.0277,15.0277,66.8475,64.7747,193.3147,-118.6667,-68.9197,
-208.3149,-65.2928,94.3115,83.9477,-182.4602,-164.7862,25.9096,-13.473,13.473,58.0378,61.1472,184.4778,-103.6667,-65.2928,
-193.3149,-50.2928,79.8022,90.166,-167.4602,-149.7862,27.9824,-12.4369,12.4369,66.3289,55.965,187.5867,-88.6667,-50.2928,
-178.3149,-38.8646,76.1749,95.866,-152.4602,-134.7862,29.5373,-12.9547,12.9547,70.9928,53.374,179.8139,-93.7932,-35.2928,
-192.2506,-50.2651,87.5754,96.9026,-150.7947,-133.1764,35.7557,-11.9186,11.9186,55.9928,59.5928,176.705,-103.1209,-41.974,
-177.2506,-35.2651,79.8024,98.4573,-135.7947,-118.1764,31.092,-4.1455,4.1455,48.7104,50.7831,174.1137,-88.1209,-32.1282,
-162.2506,-20.2651,80.3202,87.5752,-129.0306,-103.1764,25.3916,-2.5911,2.5911,53.3742,40.9376,167.3771,-73.1209,-22.2827,
-159.6043,-16.5822,87.0568,87.0568,-144.0306,-100.5301,21.7643,-6.2183,6.2183,49.747,44.5648,171.0048,-74.6202,-22.8005,
-147.1674,-9.3275,78.766,84.9843,-129.0306,-88.0932,21.7646,-12.4364,9.3275,46.6378,43.5284,168.9318,-59.6202,-26.9463,
-138.3583,-18.1371,80.3202,79.2836,-114.0306,-97.939,22.2822,-10.8822,10.8822,57.5197,36.7915,155.9766,-44.6202,-36.792,
-141.9858,-26.9463,82.9111,82.9111,-129.0306,-112.939,25.9096,-9.3275,9.3275,60.1106,40.419,145.0947,-29.6202,-35.2373,
-148.7221,-30.5737,86.5385,80.3202,-135.2494,-110.3756,40.9096,-17.1005,17.1005,57.5197,55.419,155.9771,-20.2099,-32.6465,
-137.3221,-25.3916,71.5385,65.3202,-120.2494,-100.0118,25.9096,-29.5371,15.0277,45.0831,48.192,144.5766,-15.0277,-38.8648,
-122.3221,-10.3916,56.5385,61.1472,-105.2494,-85.0118,12.4369,-27.9824,7.2547,39.3829,33.192,129.5766,-14.5096,-25.9096,
-119.1853,1.0364,49.7467,66.3289,-90.2494,-72.5477,26.9463,-27.9824,-1.0364,43.5284,21.7641,127.4759,-7.2547,-15.5458,
-116.5942,11.9186,34.7467,61.665,-75.2494,-73.0655,17.1002,-35.7557,-16.0364,37.8279,9.8458,116.5937,-9.8458,-27.4646,
-118.6672,10.8822,44.0465,58.5559,-90.2494,-79.2841,20.2094,-29.5371,-10.8822,30.5732,18.1366,107.2662,-13.9916,-26.4282,
-111.9303,7.2547,51.8195,68.4017,-95.3482,-81.8749,32.1279,-25.9096,-7.2547,21.7641,18.6552,119.1848,-8.2913,-22.8007,
-108.3031,7.773,36.8195,60.6289,-80.3482,-90.6843,30.5735,-40.9096,-22.2547,16.0641,3.6552,115.5576,-2.5908,-37.8007,
-122.8123,-4.6639,33.6826,48.192,-90.6846,-93.7935,41.9737,-47.1559,-17.1005,24.3549,18.1366,112.4484,4.6639,-36.792,
-116.5939,-11.9183,41.9737,54.4108,-98.9752,-83.4296,44.0465,-46.1193,-18.1366,16.0643,17.1005,111.4123,8.8094,-21.792,
-106.2303,0.51807,37.8284,56.4834,-84.466,-83.4294,44.0467,-60.6289,-28.5007,1.0643,8.8092,110.3754,-0.51807,-23.319,
-106.7484,8.2911,26.946,48.7103,-74.6202,-75.6569,45.6009,-69.4385,-26.9465,2.0728,12.4366,109.8578,-2.0728,-38.319,
-112.4487,-3.6275,26.4279,50.2651,-85.5021,-67.8838,48.1923,-65.8111,-20.2096,3.6275,16.0641,106.2299,5.7002,-31.6101,
-110.3756,-0.51832,41.4279,60.6292,-92.7568,-63.7381,63.1923,-58.5559,-10.8822,6.7366,27.4643,113.485,0.51832,-31.6099,
-101.0482,13.9913,31.6101,50.2651,-83.4294,-53.374,64.7744,-72.0294,-19.1735,5.7002,23.3185,105.1937,-5.7002,-45.0829,
-114.0029,-1.0087,16.6101,38.3465,-98.4294,-68.374,62.1836,-76.693,-23.8371,4.1455,21.7643,101.5662,2.0728,-31.0916,
-112.4487,-3.6275,20.2096,45.0829,-92.7571,-76.1749,66.8472,-64.7744,-21.2463,12.9547,24.3552,110.3754,3.6275,-16.0916,
-100.0118,5.7,6.7366,30.0829,-77.7571,-61.1749,60.6291,-79.7744,-30.5732,10.8822,18.1371,95.3754,-5.7,-30.5732,
-107.2665,-2.5908,13.9913,24.3552,-87.5749,-51.3012,70.9928,-91.7205,-21.2463,10.8819,26.4279,92.7571,2.5908,-35.7557,
-93.7932,12.4092,3.6275,39.3552,-72.5749,-36.3012,61.6655,-76.7205,-28.5007,1.5547,15.028,94.8304,-1.5547,-20.7557,
-78.7932,27.4092,0,54.3552,-57.5749,-21.3012,61.147,-61.7205,-25.9099,9.3277,19.6916,87.0573,0,-5.7557,
-89.1301,29.0188,-2.0728,39.3552,-63.2202,-24.8737,58.0376,-76.7205,-23.8371,9.3272,21.7638,86.0202,2.0728,-9.3277,
-103.1209,18.1369,-5.7002,24.3552,-62.7017,-18.1369,57.52,-91.7205,-28.5007,5.7002,15.028,95.8665,17.0728,-8.8092,
-96.9024,17.1005,-4.6639,31.6099,-55.447,-15.0277,59.5925,-77.2108,-28.5005,4.6639,19.1732,92.7573,24.3554,-7.7728,
-96.9026,17.1002,-19.6639,32.6463,-56.4834,-23.319,47.1556,-78.2477,-30.5735,6.7364,10.8819,77.7573,9.3554,-6.7364,
-102.0846,32.1002,-27.4643,34.7193,-60.6287,-8.319,48.192,-68.9202,-31.6099,9.8455,6.7366,74.1019,-0.51832,0.51832,
-100.5301,40.4193,-32.1282,31.0916,-60.1108,6.681,49.7465,-59.0742,-33.1648,0,0,70.4742,0,-7.2549,
-89.1296,38.3465,-37.3104,32.1282,-45.1108,11.4005,41.4554,-66.3291,-27.9826,9.3277,-3.1094,63.2202,2.0728,-2.0728,
-104.1296,23.3465,-24.3549,30.5737,-52.3376,-3.5995,50.2648,-73.0658,-22.2822,24.3277,11.8906,72.0291,-1.5545,1.5545,
-104.6754,22.8007,-39.3549,17.6185,-38.3463,-1.0364,38.3467,-66.3289,-37.2822,18.6552,1.0364,64.2561,4.1458,-3.1092,
-95.866,28.5007,-54.3549,2.6185,-23.3463,13.9636,23.3467,-69.9561,-52.2822,3.6552,-13.9636,49.2561,10.8824,3.6275,
-94.312,21.7641,-45.6012,6.2181,-38.3463,-1.0364,25.9096,-75.6566,-47.674,3.1092,-10.3641,43.5279,4.1453,10.3636,
-79.312,26.9463,-36.2735,17.6185,-30.0552,1.0364,38.3463,-74.62,-36.2735,9.3275,-1.0364,55.9655,1.0364,-3.1092,
-66.8472,27.4641,-37.8284,15.0275,-15.0552,12.9547,38.8646,-72.0294,-39.9012,5.7002,-11.9186,50.2651,8.8092,-5.7002,
-77.2111,27.4641,-45.0829,16.0641,-19.173,7.773,25.3918,-75.1383,-50.2651,2.5908,-19.173,43.0101,7.773,-2.5908,
-86.0205,37.3096,-55.965,14.5096,-29.019,9.3275,15.5458,-79.8022,-52.8561,7.2547,-11.4002,41.4552,8.2908,-7.2547,
-77.7294,41.4557,-59.074,7.2552,-33.1641,18.6557,19.6918,-79.8022,-48.7101,6.2191,-9.3275,39.3834,5.1819,-5.1819,
-66.3291,42.492,-67.3653,3.1089,-22.8005,21.7643,18.6549,-88.0935,-52.8559,1.0366,-19.6916,27.9822,-1.0366,4.146,
-72.0291,37.8282,-52.3653,6.7366,-13.9911,6.7643,29.5371,-85.5024,-45.0831,7.7728,-4.6916,29.5371,12.9549,1.5545,
-72.5475,43.5282,-50.7831,14.5094,1.0089,-4.1455,16.5827,-74.6202,-41.4559,7.2545,-2.0728,31.0916,20.7282,-6.2183,
-63.2197,50.7831,-65.7831,15.5465,-13.4728,10.8545,2.0728,-72.547,-39.3826,6.2183,-14.5094,20.7282,14.5094,-2.0728,
-72.5475,40.4198,-54.9287,10.3639,-28.4728,0,17.0728,-75.6564,-31.0916,7.2549,-1.0361,26.946,19.6921,0,
-63.2195,49.7472,-54.9284,15.5458,-16.5819,-3.1092,32.0728,-71.5106,-40.419,1.0364,-1.0364,36.2735,24.874,9.328,
-58.0376,51.8198,-55.9648,15.546,-18.6549,0,23.8371,-56.5106,-49.7465,0,-5.1817,34.2014,12.4366,14.5099,
-73.0376,38.8646,-54.4106,11.919,-30.5735,-2.5908,12.9552,-49.2284,-50.2651,4.6641,-6.7364,29.5373,12.9552,2.5908,
-84.466,37.8284,-65.8111,8.8096,-15.5735,8.8096,8.8096,-64.2284,-50.2651,-0.51856,-16.0641,22.2824,18.1369,-1.5547,
-72.5475,44.5653,-60.1108,11.4,-0.57349,10.3639,19.6911,-60.1108,-42.492,-2.0728,-8.2906,20.7282,4.146,-7.2545,
-57.5475,59.5653,-59.5923,20.2096,3.6275,18.1364,18.1364,-52.3378,-48.1923,0.51807,-11.9186,12.9547,-0.51807,-4.6636,
-53.3745,55.4472,-67.8838,5.6997,10.8824,21.2458,3.1364,-67.3378,-60.6289,-4.6636,-26.9186,-0.51807,2.5903,2.5903,
-63.2197,57.0019,-68.4019,4.146,25.8824,23.8366,-1.0366,-73.5836,-51.8198,-3.1089,-30.0554,1.0366,6.2183,7.2544,
-48.2197,72.0019,-73.0655,8.8096,39.9017,33.6829,8.8096,-58.5836,-52.3378,-5.7002,-29.5373,-10.8819,5.7002,13.9913,
-33.6829,73.0655,-62.7017,6.7369,24.9017,28.5007,18.1374,-59.5923,-53.374,-6.7369,-21.2458,-16.0641,8.8092,12.9547,
-23.8371,75.6569,-66.3287,9.3282,23.8371,18.6554,7.2549,-65.2925,-51.8193,1.0361,-22.8,-12.4366,15.546,-1.0361,
-36.7913,90.6569,-67.8834,9.8458,30.5735,25.3918,2.5908,-57.5195,-47.1556,8.8096,-25.3918,-15.0275,10.8819,-2.5908,
-43.5282,89.1301,-70.4747,3.1089,43.5282,40.3918,13.4733,-63.2197,-47.6742,5.1822,-31.0916,-20.7282,-3.1089,12.4092,
-28.5282,90.1658,-79.8024,10.3634,52.8559,41.4554,10.3634,-65.293,-51.8198,0,-36.2737,-25.9104,0,25.9094,
-13.5282,101.5662,-72.5475,25.3634,37.8559,26.4554,-1.0361,-57.0014,-43.5287,1.0361,-24.8732,-17.6183,11.4005,19.6916,
-4.6636,116.5662,-75.1383,29.5369,52.8559,41.4554,-2.5913,-46.119,-41.9735,2.5913,-32.6463,-17.1002,16.0641,29.5369,
9.3272,110.8935,-84.9841,14.5369,67.8559,52.8559,-6.2188,-47.6742,-56.9735,-11.4005,-47.6463,-32.1002,6.2188,27.9826,
-2.0728,105.7123,-69.9841,14.5094,59.0742,42.492,2.0728,-48.7099,-51.8193,-5.1812,-32.6463,-26.946,8.2916,25.9099,
12.9272,108.8212,-70.4742,22.801,47.6742,46.6371,-8.2911,-61.147,-53.892,-1.0361,-39.3831,-26.9465,1.0361,22.801,
27.9272,96.9031,-65.8111,18.1369,53.3745,31.6371,-19.173,-49.2289,-50.2651,-0.51856,-44.0462,-37.8284,0.51856,21.2463,
12.9272,105.7128,-75.6564,17.6193,68.3745,16.6371,-20.7277,-36.2737,-37.3099,6.2188,-39.3821,-32.1282,15.5186,31.092,
-2.0728,120.7128,-86.5388,19.173,83.3745,31.6371,-5.7277,-39.9007,-36.7913,4.6641,-32.6458,-39.9007,26.4279,44.0472,
12.9272,123.8486,-87.5749,13.9913,98.3745,46.6371,-19.173,-47.1557,-51.7913,-5.7002,-43.0101,-54.9007,11.4279,32.6467,
27.9272,117.6308,-102.5749,5.7002,113.3745,31.6371,-34.173,-61.6655,-66.7913,-4.6641,-58.0101,-69.9007,4.6641,23.3185,
12.9272,129.0303,-92.7571,10.8819,128.3745,46.6371,-19.173,-46.6655,-51.7913,10.3359,-43.0101,-54.9007,19.6641,38.3185,
25.9094,127.4756,-101.5667,-1.0361,143.3745,61.6371,-4.173,-34.2015,-50.7836,1.0361,-37.3099,-51.8198,26.9465,53.3185,
40.9094,135.2491,-101.0477,2.5908,158.3745,65.8111,-19.173,-25.3908,-54.4106,-2.5908,-45.0824,-66.8198,23.3195,38.3185,
55.9094,120.2491,-96.3841,-2.0728,173.3745,50.8111,-4.173,-40.3908,-61.1465,-5.1822,-43.5282,-79.8019,18.6549,23.3185,
70.9094,117.1123,-93.2752,-14.5099,188.3745,35.8111,3.1094,-55.3908,-60.1108,-3.1094,-47.6742,-68.4019,7.2549,8.3185,
85.9094,126.44,-78.2752,-7.2544,203.3745,40.4188,-11.8906,-40.3908,-45.1108,7.2544,-37.3104,-53.4019,9.3277,23.3185,
70.9094,122.8125,-93.2752,1.5547,218.3745,46.1195,-1.5547,-25.3908,-51.3012,-2.5908,-32.6458,-68.4019,23.3185,20.2101,
55.9094,134.7311,-107.7846,-2.0728,233.3745,61.1195,13.4453,-29.0193,-51.8193,2.0728,-22.8005,-66.3291,36.2732,35.2101,
40.9094,119.7311,-101.0482,-17.0728,248.3745,46.1195,28.4453,-44.0193,-53.374,-6.7369,-37.8005,-64.7744,21.2732,36.7918,
25.9094,108.8212,-100.5301,-8.2911,263.3745,31.1195,43.4453,-32.1282,-49.7475,-7.2549,-50.7836,-63.2202,10.3634,34.2005,
10.9094,112.9662,-94.3118,-5.1822,278.3745,37.3104,58.4453,-17.1282,-38.3465,5.1822,-35.7836,-57.0019,25.3634,39.3826,
-1.0366,97.9662,-95.3479,-17.6188,293.3745,36.2732,73.4453,-19.6911,-42.492,1.0366,-29.0193,-68.4014,14.5094,30.0554,
3.6275,98.9749,-101.0482,-5.7007,308.3745,21.2732,88.4453,-13.9918,-43.0106,-3.6275,-35.7557,-81.3576,15.027,20.2096,
-11.3725,100.5296,-87.0568,-2.0728,323.3745,23.8366,103.4453,-11.401,-35.2381,2.0728,-20.7557,-66.3576,25.9099,14.5094,
-6.2183,115.5296,-86.0207,1.0366,338.3745,38.8366,118.4453,-20.7282,-44.5653,-1.0366,-29.0193,-58.0381,31.0916,29.5094,
8.7817,117.6303,-101.0207,-11.9186,353.3745,23.8366,133.4453,-30.574,-59.5653,-16.0366,-44.0193,-73.0381,16.0916,18.1374,
-6.2183,114.5214,-86.0207,-15.0275,368.3745,15.0275,148.4453,-15.574,-49.2289,-23.3185,-35.7552,-83.4294,18.1369,21.2463,
-21.2183,129.5214,-77.2111,-20.2096,383.3745,30.0275,163.4453,-0.57398,-55.4472,-23.319,-36.7918,-78.2472,20.2096,35.7557,
-6.2183,144.5214,-92.2111,-34.201,398.3745,45.0275,178.4453,1.0366,-70.4472,-38.319,-51.7918,-93.2472,5.2096,20.7557,
8.7817,159.5214,-84.9836,-35.2371,413.3745,42.492,193.4453,5.1822,-72.547,-46.6376,-64.2559,-104.6752,-5.1822,15.5455,
3.6275,174.5214,-69.9836,-45.0829,428.3745,43.0106,208.4453,20.1822,-73.0655,-38.8651,-61.665,-95.8665,-3.6275,8.8092,
13.9913,189.5214,-62.7017,-45.0834,443.3745,28.0106,223.4453,12.9552,-82.3932,-37.8284,-63.7378,-93.7937,-7.7725,7.7725,
11.9186,204.5214,-74.1017,-54.4101,458.3745,38.8651,238.4453,19.1735,-80.3205,-36.7918,-63.7373,-105.1937,-11.9186,22.7725,
-0.51807,219.5214,-60.6289,-50.2646,473.3745,53.8651,253.4453,34.1735,-66.8467,-29.5369,-50.2646,-104.1576,0.51807,34.7195,
14.4819,234.5214,-65.8111,-35.7552,485.5498,38.8651,268.4453,19.1735,-81.3571,-44.5369,-65.2646,-109.3397,-8.8096,19.7195,
29.4819,249.5214,-64.774,-36.7913,470.5498,23.8651,283.4453,19.174,-79.2838,-39.9007,-74.1022,-94.3397,-10.8819,10.8819,
29.0193,264.5214,-64.2559,-51.7913,455.5498,35.2381,298.4453,34.174,-72.547,-32.1277,-68.4014,-86.0197,-10.3639,10.3639,
38.8646,279.5214,-77.2116,-43.0101,470.5498,50.2381,313.4453,49.174,-80.32,-40.9378,-80.32,-98.9754,-9.8458,9.8458,
51.8198,294.5214,-66.3287,-44.5648,485.5498,57.0014,327.4997,34.174,-84.9841,-46.6371,-80.8385,-102.6024,-14.5099,15.546,
58.0381,309.5214,-67.3653,-57.0019,470.5498,67.3653,326.4631,30.0554,-96.3841,-50.7831,-88.093,-114.0034,-14.5094,14.5094,
65.293,324.5214,-82.3653,-63.2197,456.0119,71.5108,311.4631,42.492,-110.894,-63.2197,-103.093,-129.0034,-8.2916,8.2916,
75.6559,339.5214,-97.3653,-54.9292,471.0119,74.6197,309.8804,27.492,-101.5672,-64.2564,-111.9306,-144.0034,-4.1455,9.3272,
90.6559,354.5214,-112.3653,-52.8554,486.0119,89.6197,302.626,12.492,-99.4935,-58.0381,-126.9306,-159.0034,2.0728,24.3272,
105.6559,369.5214,-127.3653,-67.8554,501.0119,104.6197,287.626,14.5094,-114.4935,-73.0381,-141.9306,-174.0034,-12.9272,13.4733,
118.1484,377.2462,-142.3653,-82.8554,486.0674,117.1123,280.8626,10.3643,-129.4935,-79.8024,-156.9306,-189.0034,-10.3643,18.6554,
121.2578,392.2462,-157.3653,-79.8024,496.4317,114.0029,295.8626,-4.6357,-114.4935,-64.8024,-141.9306,-174.0034,4.6357,31.092,
110.8935,395.9016,-162.7132,-79.8024,481.4317,99.0029,309.8804,5.1817,-99.4935,-49.8024,-126.9306,-167.8959,-5.1817,22.8,
112.9667,400.0471,-177.7132,-82.9108,466.4317,98.4578,294.8804,12.4366,-106.7479,-60.1108,-129.5489,-177.2231,-12.4366,20.7277,
117.1123,389.6838,-186.5503,-84.9841,454.9763,102.6034,288.1166,-1.0361,-99.493,-60.1108,-116.0761,-173.0776,1.0361,14.5099,
126.4395,374.6838,-201.5503,-99.9841,469.9763,104.6756,274.6438,1.0361,-114.493,-62.1831,-130.585,-183.4409,0,0,
141.4395,378.8014,-216.5503,-101.0482,484.9763,112.4487,268.9441,7.773,-129.493,-69.9561,-145.585,-198.4409,-7.773,9.8463,
150.7947,382.9459,-209.8694,-86.0482,469.9763,110.3754,283.9441,-0.51807,-119.7036,-70.9932,-130.585,-190.1778,0.51807,24.8463,
135.7947,367.9459,-222.306,-86.5383,454.9763,110.3764,275.1619,-0.51807,-117.6303,-75.1378,-131.1031,-176.704,0.51807,18.1374,
120.7947,352.9459,-217.1238,-97.9383,439.9763,96.9031,272.053,5.7002,-120.7392,-72.0289,-135.2491,-177.7407,-5.7002,7.7735,
135.7947,340.4549,-202.1238,-82.9383,424.9763,85.5026,283.4534,-3.627,-123.8486,-74.1022,-135.2491,-186.0318,3.627,5.7002,
150.7947,355.4549,-204.1691,-68.4024,418.7021,100.5026,285.0077,-6.2183,-124.3677,-76.6935,-146.1315,-196.9152,15.5455,6.2183,
155.4593,345.118,-215.5691,-83.4024,405.2288,105.7118,274.6438,-11.4005,-118.1484,-67.3658,-139.9132,-197.9508,11.4005,12.4366,
150.2771,337.8635,-216.6057,-91.2024,420.2288,120.7118,264.2799,-17.6188,-119.185,-55.9648,-135.7672,-200.0236,17.6188,27.4366,
152.3499,328.5358,-229.0429,-95.3484,405.2288,122.2939,269.4621,-21.7638,-128.5127,-69.4381,-149.2405,-213.4968,21.7638,27.9826,
141.986,319.2091,-234.224,-96.3841,390.2288,116.0756,269.4616,-17.6188,-123.3306,-73.5841,-148.2038,-210.3869,19.6921,17.6188,
129.0308,318.6905,-219.224,-90.6838,378.8014,116.5942,261.6891,-15.028,-117.6303,-62.7022,-133.2038,-215.051,15.028,22.2819,
114.0308,306.772,-204.224,-81.8747,363.8014,101.5942,276.6891,-12.4366,-109.8573,-54.9282,-118.2038,-209.3513,12.4366,13.4728,
99.0308,303.6626,-193.8053,-67.3648,348.8014,86.5942,290.1898,-7.2549,-103.6385,-51.8198,-115.039,-194.3513,16.5822,7.2549,
86.0207,288.6626,-196.9142,-72.547,333.8014,71.5942,279.826,-9.3277,-104.6751,-57.0009,-110.894,-179.3513,10.3639,9.3277,
101.0207,280.8621,-181.9142,-66.3291,318.8014,56.5942,294.3359,-2.0728,-95.3479,-49.746,-99.4935,-164.786,2.0728,5.1822,
101.5662,295.8621,-166.9142,-59.0747,303.8014,57.0014,298.4799,0,-94.3123,-40.4193,-99.494,-157.5315,4.1455,0,
86.5662,289.6713,-174.6323,-74.0747,288.8014,51.3012,283.4799,-0.51856,-94.8299,-41.974,-88.6111,-154.9407,4.6641,0.51856,
71.5662,274.6713,-176.186,-74.6197,273.8014,39.3831,274.6438,0,-92.238,-43.5277,-91.2019,-147.1672,0,7.2549,
86.5662,280.8626,-161.186,-59.6197,258.8014,31.092,289.6438,5.1817,-82.9108,-34.2005,-95.3484,-132.1672,-5.1817,10.3643,
88.6115,283.453,-155.9763,-50.2646,243.8014,44.0467,288.6356,8.8092,-82.3927,-32.6463,-88.6115,-133.1764,-4.6636,4.6636,
76.693,276.7171,-170.9763,-62.1831,240.4433,59.0467,273.6356,0,-97.3927,-46.6371,-97.4207,-148.1764,0,2.0733,
75.6569,264.2804,-172.0404,-71.5103,249.7706,54.9292,268.426,0,-99.493,-44.5648,-95.3474,-149.2395,0,7.2549,
88.0935,270.4983,-165.8226,-58.0376,239.4062,61.147,282.9349,5.1817,-94.3113,-29.5648,-93.2752,-134.7306,-5.1817,22.2549,
76.1749,262.7252,-163.2313,-49.2284,224.4062,70.9932,277.2351,3.6275,-91.721,-14.5648,-89.6477,-142.5036,-3.6275,37.2549,
61.1749,247.7252,-154.4226,-53.8925,209.4062,55.9932,277.7527,7.2545,-90.1662,-18.6549,-80.838,-136.8033,-7.2545,22.2549,
76.1749,237.3334,-161.6776,-54.9287,224.4062,54.9287,270.4978,10.3639,-92.2395,-17.6188,-89.1301,-140.9499,-10.3639,16.5817,
83.4294,236.8154,-151.8313,-56.4829,226.452,58.5561,265.8342,-1.5547,-86.5388,-11.9181,-85.5026,-138.3585,1.5547,26.4279,
76.1749,230.5971,-157.0135,-53.374,230.5971,56.4834,272.0525,-10.8824,-81.3566,-17.1002,-85.5021,-127.9947,10.8824,24.3552,
91.1749,237.3334,-172.0135,-58.0381,245.5971,64.2559,270.4978,-14.5094,-88.093,-22.8005,-91.2024,-141.986,14.5094,23.8366,
104.1571,232.6698,-172.559,-65.8111,238.8886,68.9205,262.7248,-15.0275,-93.7937,-13.9913,-87.5749,-146.6496,13.9913,29.5373,
105.7118,240.4433,-187.559,-61.147,248.7344,83.9205,252.88,-15.546,-88.0935,-11.4005,-100.5301,-148.2033,11.4005,33.1643,
109.3397,246.1426,-202.559,-66.8472,263.7344,84.4655,250.2881,-24.3547,-79.2838,-17.1007,-108.3026,-162.1956,17.1007,33.6829,
94.3397,232.6698,-217.559,-80.32,248.7344,69.4655,237.8515,-39.3547,-94.2838,-19.173,-110.3759,-176.7045,19.173,29.5373,
83.4289,221.2698,-232.559,-77.2111,233.7344,56.4834,237.852,-38.8651,-106.2299,-16.0641,-105.1937,-177.7412,16.0641,27.4646,
86.0212,220.7518,-247.559,-66.3287,218.7344,52.8559,252.852,-23.8651,-92.239,-15.546,-94.3113,-162.7412,15.546,25.9104,
84.466,223.3421,-262.559,-60.6289,203.7344,54.4111,251.3248,-18.1364,-90.6838,-12.9547,-104.1576,-150.7947,12.9547,25.3913,
69.466,208.3421,-261.6891,-55.4472,188.7344,39.9012,255.4703,-29.5369,-94.8304,-0.51807,-105.1937,-147.6862,0.51807,25.3913,
58.5566,193.3421,-246.6891,-49.2284,173.7344,24.9012,255.4703,-32.6463,-93.7932,12.9547,-103.1204,-134.2125,-12.9547,27.4646,
57.52,180.8501,-243.0337,-60.6284,158.7344,17.1007,240.4703,-30.5735,-93.7937,20.2101,-101.0477,-133.1759,-17.1007,18.1369,
48.1918,166.3402,-228.0337,-53.3745,143.7344,9.8458,255.4703,-21.2463,-78.7937,34.719,-86.0477,-125.9219,-9.8458,9.8458,
46.1195,163.2318,-229.5604,-38.3745,128.7344,16.0646,252.3614,-28.5002,-75.1383,26.4279,-86.5388,-123.8486,-13.9913,13.9913,
37.3104,161.6776,-226.9696,-35.2371,113.7344,20.7282,237.3614,-34.201,-77.7296,23.8366,-89.1301,-117.1118,-18.6549,18.6549,
30.573,163.2313,-211.9696,-36.7918,98.7344,17.1002,240.9604,-24.3552,-70.9932,32.6463,-80.3205,-106.2299,-17.1002,20.2096,
36.2737,168.932,-226.9696,-40.4193,97.4207,19.6916,244.5889,-26.9465,-78.7653,26.9465,-93.2752,-112.9667,-19.6916,25.9094,
38.8651,161.159,-222.306,-38.8651,106.2299,20.2096,250.2886,-30.573,-68.92,25.3913,-82.3927,-111.4115,-20.2096,33.6824,
46.6376,157.531,-218.6785,-37.3104,105.7123,21.7643,237.3334,-30.0554,-74.6202,24.8737,-82.9113,-116.0756,-21.7643,29.0193,
44.5648,156.4954,-219.7146,-42.4915,92.239,19.6916,234.2245,-30.0549,-83.9479,25.9104,-90.1658,-116.0751,-19.6916,31.092,
35.7552,151.8313,-220.2332,-43.0101,91.7205,21.2463,227.4881,-37.8284,-78.2477,28.5002,-88.612,-112.4482,-21.2463,31.6096,
50.7552,164.2679,-223.3426,-40.9378,106.7205,36.2463,212.4881,-47.1556,-89.6482,23.3185,-100.0115,-127.4482,-23.3185,29.5373,
65.7552,168.4135,-211.9421,-41.974,96.9021,35.7552,217.1238,-52.3383,-92.7576,18.1369,-100.0125,-134.213,-18.1369,30.5735,
55.9648,165.8221,-223.8607,-47.6737,95.3479,26.946,211.4241,-55.9648,-83.9474,15.5455,-101.5667,-133.6949,-15.5455,29.0193,
48.7103,169.9682,-219.7156,-49.7475,110.3479,41.946,207.278,-40.9648,-75.6569,23.8371,-97.4207,-129.5489,-23.8371,38.346,
43.0101,154.9682,-204.7156,-43.0101,95.3479,33.6829,217.1238,-25.9648,-81.3571,25.3918,-92.7576,-116.5937,-34.719,39.9007,
53.374,150.7947,-199.505,-29.5369,80.3479,27.4646,217.1243,-29.5369,-80.3205,23.319,-93.7932,-113.4848,-23.319,37.8279,
47.6737,141.986,-186.5508,-20.7282,65.3479,15.5455,229.0424,-32.1287,-66.3291,29.0193,-79.8019,-101.5667,-15.5455,32.1277,
32.6737,128.5127,-171.5508,-5.7282,50.3479,1.0361,244.0424,-17.1287,-51.3291,43.5287,-64.8019,-86.5667,-19.6916,38.346,
17.6737,118.667,-156.5508,9.2718,35.3479,-12.9552,259.0424,-2.1287,-36.3291,57.52,-49.8019,-71.5667,-16.0636,53.346,
2.6737,123.3306,-141.5508,24.2718,20.3479,-24.8737,274.0424,12.8713,-21.3291,69.4385,-34.8019,-56.5667,-8.2906,61.1475,
-4.1455,108.3306,-126.5508,39.2718,5.3479,-37.3099,287.0804,18.6544,-21.7648,58.0376,-19.8019,-41.5667,-20.7277,46.1475,
-19.1455,93.3306,-111.5508,37.3099,-9.6521,-52.3099,281.8987,11.4005,-17.6183,55.9653,-11.4005,-26.5667,-27.9826,31.1475,
-34.1455,78.3306,-96.5508,42.492,-24.6521,-67.3099,271.5349,10.3639,-11.4,55.9648,-6.2183,-11.5667,-31.092,16.1475,
-43.0101,70.9928,-81.5508,54.4106,-39.6521,-65.8106,274.1252,6.7364,-10.8819,54.4106,-6.7364,3.4333,-30.5735,17.1007,
-33.1648,68.4014,-76.693,54.9287,-42.4925,-57.0019,278.7888,9.3277,-9.3277,55.9648,-10.3639,18.4333,-29.0193,24.8727,
-20.2096,72.0294,-85.5021,43.0106,-27.4925,-55.4472,272.0525,11.9186,-18.1374,56.4834,-25.3639,10.8824,-28.5007,24.3552,
-6.2183,73.5841,-86.0207,33.1648,-12.4925,-47.6737,285.0077,1.0366,-14.5094,63.2197,-23.8376,6.2183,-13.5007,29.0193,
-1.0361,77.7291,-88.093,38.347,-20.7277,-34.2005,282.9349,1.0361,-6.2178,62.1831,-10.3634,1.0361,-1.0361,31.092,
-16.0361,67.3653,-82.9118,41.4549,-35.7277,-49.2005,274.6433,14.5094,-10.3639,55.9648,-10.3639,10.3639,-16.0361,16.092,
-31.0361,52.3653,-67.9118,46.1193,-50.7277,-64.2005,289.6433,17.1005,-5.7,58.5559,4.6361,25.3639,-31.0361,1.092,
-46.0361,37.3653,-68.4024,46.6376,-65.7277,-79.2005,290.1893,3.1089,-11.401,47.6737,-2.0728,34.201,-46.0361,2.0728,
-52.8556,22.3653,-62.1834,46.6383,-80.7277,-94.2005,289.1539,7.2552,-9.3275,43.5289,-5.1819,36.274,-40.419,5.1819,
-50.2651,24.3557,-51.3012,61.6383,-76.1749,-101.0482,297.9623,22.2552,-2.5908,57.52,1.5547,51.274,-33.6824,-1.5547,
-50.2651,39.3557,-66.3012,60.6284,-61.1749,-86.0482,284.4896,16.0636,-6.7364,62.7017,-5.7002,41.974,-33.6829,5.7002,
-42.492,40.4198,-72.547,50.7831,-55.9648,-71.0482,277.7527,2.0728,-2.0728,63.2197,-7.2544,26.974,-33.1638,16.5827,
-27.492,47.6742,-87.547,51.8198,-40.9648,-56.0482,262.7527,4.1455,-17.0728,51.8198,-22.2544,11.974,-32.1282,17.6193,
-12.492,62.6742,-102.547,44.5643,-25.9648,-41.0482,247.7527,-8.2916,-32.0728,36.8198,-37.2544,-3.026,-41.4559,19.6911,
2.508,77.6742,-117.547,31.0916,-10.9648,-26.0482,232.7527,-23.2916,-47.0728,31.0916,-52.2544,-18.026,-50.7831,22.8005,
3.1094,77.7291,-132.547,16.0916,4.0352,-11.0482,217.7527,-33.1643,-62.0728,16.0916,-67.2544,-33.026,-48.7104,16.5822,
15.0275,68.9195,-147.547,1.0916,19.0352,3.9518,211.9421,-26.4279,-65.8111,8.8096,-78.2477,-48.026,-37.8284,16.0636,
20.7272,78.7658,-162.547,-6.2183,25.9089,6.2183,211.4231,-41.4279,-54.9296,17.6178,-75.6574,-63.026,-35.2381,17.6178,
22.801,86.0202,-153.386,-4.1455,24.8732,4.1455,220.7518,-42.4925,-39.9296,32.6178,-60.6574,-65.2925,-21.7638,32.6178,
20.7272,76.6925,-155.4588,-10.3639,20.7272,10.3639,215.5696,-31.0916,-43.5292,22.8005,-57.0019,-72.5479,-21.7643,41.4549,
18.1369,83.4294,-170.4588,-5.7002,12.9552,25.3639,201.5788,-46.0916,-58.5292,7.8005,-72.0019,-83.4294,-31.6096,38.8646,
10.8814,79.2833,-157.0135,-0.51807,0.51807,10.3639,211.9416,-49.2294,-66.8477,3.6275,-77.2111,-76.1749,-25.3923,30.573,
25.8814,83.4299,-148.7224,-7.773,15.5181,12.9547,206.76,-34.2294,-61.665,7.773,-74.1017,-73.0655,-12.9547,25.3913,
36.2732,86.0207,-145.0954,-14.5094,16.5817,24.8728,208.3147,-27.9831,-55.9658,13.4733,-69.4385,-76.6935,-13.4733,22.8005,
33.1648,79.8019,-130.0954,0.49061,1.5817,10.3639,223.3147,-16.5817,-40.9658,28.4733,-54.4385,-61.6935,-11.4,37.3104,
33.1643,82.9108,-115.0954,15.4906,-12.4366,3.1094,238.3147,-3.1094,-25.9658,43.4733,-39.4385,-46.6935,-8.2911,52.3104,
18.1643,67.9108,-100.0954,30.4906,-27.4366,-11.8906,243.0332,1.5547,-10.9658,55.4467,-24.4385,-31.6935,-1.5547,47.1556,
3.1643,52.9108,-85.0954,32.6463,-42.4366,-26.8906,254.4342,2.5913,-4.6636,56.4834,-10.8814,-16.6935,-0.51807,32.1556,
18.1374,56.4834,-88.6115,34.7195,-27.4366,-12.9547,254.4342,3.6275,-8.8092,52.3378,-20.2096,-16.0641,-3.6275,43.0106,
15.546,71.4834,-99.494,26.9465,-12.4366,0,239.4342,0,-16.5822,37.3378,-35.2096,-27.9826,-7.2549,42.4915,
19.173,73.065,-114.494,17.0997,2.5634,-2.5908,224.4342,-10.8819,-30.5735,22.3378,-50.2096,-42.9826,-11.919,30.5735,
32.6467,58.065,-129.494,12.9552,2.5908,-2.5908,222.3065,-17.1007,-34.719,22.2824,-51.3012,-57.9826,-4.6641,33.6829,
27.9831,46.6376,-128.5123,3.1089,-10.3639,8.2916,223.8607,-22.8005,-47.6737,14.5094,-61.1465,-72.9826,-3.1089,33.1648,
13.9918,60.6289,-119.7026,3.6275,-7.773,8.8092,220.2337,-21.2458,-46.119,15.028,-60.6289,-70.9923,-3.6275,33.6834,
8.8092,61.665,-117.6303,9.8453,3.6275,-3.6275,228.5238,-24.3552,-38.8651,24.3552,-50.2655,-66.8477,-8.8092,33.6824,
23.8092,54.9282,-132.6303,-4.1455,17.6183,9.3272,218.6785,-35.2376,-53.8651,9.3552,-65.2655,-81.8477,-20.7277,32.1282,
38.8092,62.7022,-139.3942,-7.773,27.4646,24.3272,226.4515,-21.2458,-44.0467,4.6636,-80.2655,-85.5021,-5.7277,45.0829,
23.8092,62.7022,-146.6491,-9.8453,13.9908,11.9186,211.9416,-35.7557,-45.0829,7.773,-82.3927,-94.8294,-7.773,30.0829,
38.8092,68.4014,-140.9489,-9.3277,9.3277,14.5094,215.5696,-31.0916,-46.6376,20.7282,-89.1301,-96.3841,-15.5455,33.1648,
42.4925,58.0376,-125.9489,-10.3643,7.2549,12.4366,230.5696,-16.0916,-32.1282,32.1282,-74.1301,-81.3841,-14.5099,44.5648,
27.4925,57.0019,-110.9489,2.0728,3.1089,-2.5634,230.0795,-12.4361,-23.8366,41.4559,-59.1301,-66.3841,-2.0728,36.2742,
12.4925,54.4106,-95.9489,17.0728,-11.8911,-17.5634,245.0795,-2.5908,-8.8366,56.4559,-44.1301,-51.3841,12.9272,36.7913,
-2.5075,39.4106,-80.9489,32.0728,-26.8911,-32.5634,260.0795,12.4092,0,63.2202,-29.1301,-36.3841,-2.0728,32.1282,
-17.5075,24.4106,-65.9489,47.0728,-41.8911,-47.5634,262.7252,17.1002,-5.6997,49.2284,-14.1301,-21.3841,-17.0728,23.319,
-32.5075,9.4106,-50.9489,51.3017,-56.8911,-62.5634,262.7252,8.8092,-2.5913,39.9012,-2.5913,-6.3841,-17.1007,16.0641,
-47.5075,-5.5894,-35.9489,54.9289,-71.8911,-77.5634,266.3525,23.8092,3.1092,43.5284,-3.1092,8.6159,-20.7275,17.619,
-62.5075,-20.5894,-20.9489,61.147,-86.8911,-92.5634,270.4983,37.3099,7.2549,43.5287,0,23.6159,-35.2371,2.619,
-73.0658,-5.5894,-6.7366,73.0658,-101.8911,-107.5634,273.0889,27.4648,5.7,43.0099,3.6272,38.6159,-33.6826,-5.7,
-68.92,9.4106,-21.7366,63.7378,-116.8911,-97.9393,259.6163,13.9913,-9.3,41.974,-11.3728,28.5012,-21.2463,9.3,
-57.52,2.5908,-17.1007,56.4829,-104.1576,-83.4299,273.0891,27.4641,-2.5908,49.2279,-10.8819,22.2824,-11.919,24.3,
-45.6014,1.0366,-20.7282,62.1836,-104.6756,-74.6202,269.4616,18.6549,-1.0366,46.6376,-10.3639,22.8005,-17.6188,23.8366,
-43.5282,7.2549,-24.8732,62.1841,-99.4935,-69.4381,261.171,3.6549,-3.1094,46.6381,-3.1094,21.7648,-15.546,19.6916,
-58.5282,0,-30.0559,51.8188,-108.8217,-70.4752,252.879,3.1084,0,44.5648,-1.0371,15.546,-16.5822,13.4728,
-63.7378,4.6636,-33.6824,57.5195,-118.667,-57.5195,248.2163,1.5542,-1.5542,36.7918,-8.8091,3.6275,-17.1002,12.9547,
-48.7378,12.4366,-18.6824,70.4742,-133.667,-65.293,263.2163,-9.3272,-4.1455,37.3099,4.1455,9.3272,-17.6188,15.546,
-33.7378,20.7282,-12.4366,72.5479,-119.185,-80.293,270.4978,-5.1822,-9.3277,41.4559,5.1822,18.6549,-30.0554,8.2916,
-31.6101,11.9181,-23.319,69.9566,-116.5942,-95.293,261.6886,9.8178,-9.8458,40.9378,5.7002,20.2091,-39.9012,-5.7002,
-46.6101,-1.0364,-8.319,80.8383,-131.5942,-92.2388,267.3886,20.7279,-2.0725,41.4561,20.7002,35.2091,-25.9096,-6.2181,
-61.6101,-11.9186,6.681,81.3566,-146.5942,-96.9026,266.8708,5.7279,-10.8819,30.5735,11.9186,46.12,-34.719,-5.7002,
-76.6101,-26.9186,20.7282,76.6935,-161.5942,-111.9026,275.6804,6.2183,-6.2183,33.1648,23.8371,53.8925,-49.719,-13.4728,
-91.6101,-41.9186,18.6552,70.4744,-176.5942,-126.9026,264.2797,5.1819,-5.1819,37.3101,21.7646,59.0749,-63.2195,-21.7641,
-106.6101,-56.9186,31.0918,77.7294,-191.5942,-141.9026,264.2797,1.0364,-1.0364,45.6012,24.8735,68.4022,-48.2195,-8.2913,
-113.4848,-59.5928,38.8646,91.721,-206.5942,-156.9026,269.9802,-2.5908,2.5908,39.9012,30.5735,80.3205,-38.8646,-3.6275,
-98.4848,-44.5928,23.8646,93.7937,-191.5942,-141.9026,254.9802,3.6275,-3.6275,25.3913,15.5735,65.3205,-52.3378,-6.7369,
-83.4848,-29.5928,15.0275,88.6111,-176.5942,-126.9026,260.6525,0.51807,-2.5908,32.6468,8.8092,50.3205,-41.974,-0.51807,
-68.4848,-23.8371,26.946,99.4935,-161.5942,-111.9026,275.6525,-10.3639,-9.3277,37.3104,10.3639,39.3826,-29.0188,9.3277,
-73.5838,-16.5824,13.473,103.6393,-146.5942,-99.4937,269.4619,-5.1819,-13.473,25.9096,5.1819,39.3829,-29.019,8.2913,
-88.5838,-9.3275,5.1819,93.2749,-149.2402,-94.3115,255.9891,-1.0364,-4.1453,24.8735,11.4002,41.4561,-34.2007,1.0364,
-78.766,-8.2913,3.1092,88.0932,-148.2041,-90.166,259.0975,-16.0364,-3.1092,32.1279,16.5819,40.419,-36.274,6.2181,
-84.9841,-23.2913,4.1455,73.0932,-161.6771,-92.239,260.1344,-26.9465,-4.1455,19.6911,14.5094,33.1648,-43.5287,5.1817,
-73.0658,-8.2913,-0.51832,78.2479,-146.6771,-77.239,251.3245,-11.9465,0.51832,26.4282,12.9549,30.5737,-35.7554,12.9549,
-58.0658,6.7087,-15.5183,92.7566,-131.6771,-62.239,243.0342,-8.8096,-5.7002,41.4282,5.7002,15.5737,-28.5007,25.3918,
-43.0658,21.7087,-23.319,83.4299,-116.6771,-47.239,245.1069,-23.8096,-5.6997,39.9012,5.6997,9.8463,-26.4275,34.7195,
-28.0658,36.7087,-36.2732,68.4299,-101.6771,-32.239,235.2612,-21.7643,-5.1822,35.2371,-3.1089,9.3277,-13.4733,42.492,
-13.0658,45.6009,-37.3099,65.2925,-86.6771,-17.239,238.3701,-16.5822,0,35.2376,-1.0361,0,-10.3643,32.1282,
1.9342,47.1557,-35.7552,66.8472,-71.6771,-2.5908,236.8154,-21.2463,-2.5908,28.5012,2.5908,-5.7002,-10.8819,19.173,
16.9342,58.5561,-44.0462,52.3383,-56.6771,6.7364,221.8154,-36.2463,-16.0636,13.9913,-9.8458,-20.2091,-6.7364,28.5012,
14.5094,51.8193,-29.0462,50.7831,-43.5282,-8.2636,236.2973,-42.492,-4.146,21.7643,2.0728,-16.5827,-2.0728,43.5012,
17.1002,43.0106,-31.6101,58.5556,-55.4472,-23.2636,251.2973,-32.6463,0.51807,30.574,-0.51807,-5.6997,-8.8092,32.6463,
2.1002,37.8289,-36.7918,60.6289,-69.9561,-38.2636,250.2886,-31.6101,-3.6275,27.4646,-0.51807,0.51807,-11.9186,17.6463,
-1.5547,41.974,-21.7918,73.066,-62.7012,-39.9007,248.2159,-26.4279,-1.5547,29.5373,1.5547,8.8096,-11.9181,20.2101,
13.4453,54.4111,-19.1725,76.1749,-47.7012,-24.9007,243.0347,-20.2096,-7.773,38.8651,-8.8092,7.773,-15.027,35.2101,
15.546,39.4111,-34.1725,66.3287,-44.5648,-21.7648,239.4062,-35.2096,-15.546,38.346,-9.3272,9.3272,-11.4005,40.4193,
19.6916,44.5648,-40.4193,75.6569,-30.0549,-13.4728,229.0429,-40.4193,-16.5822,30.0559,-11.4005,0,0,43.5287,
29.5369,59.5648,-39.9012,70.9923,-16.0641,1.5272,219.1966,-25.4193,-22.2829,23.319,-18.1374,-15,-11.9186,50.2646,
37.8279,59.5918,-46.12,56.4834,-31.0641,7.773,220.2327,-27.4646,-26.4284,28.5007,-16.0641,-7.773,-21.2468,39.9002,
52.8279,48.7108,-60.1103,48.7108,-22.8005,9.3277,222.8245,-42.4646,-21.7643,22.8005,-22.8005,-9.3277,-10.3639,34.201,
37.8279,33.7108,-54.9287,42.492,-12.4371,3.1089,221.7874,-53.8925,-13.4733,15.5455,-21.7643,-21.7643,-3.1089,37.3104,
30.573,38.8651,-51.3017,50.2646,-8.8092,-0.51807,211.9416,-53.374,-6.7369,26.4275,-17.1002,-25.3913,0.51807,41.9735,
35.7557,50.2646,-54.4111,38.8651,-23.8092,-0.51807,210.9055,-56.4834,-7.773,24.3552,-20.2096,-32.6463,0.51807,29.5369,
33.1653,36.2737,-46.6371,31.092,-38.8092,4.1455,213.4968,-58.0376,-10.3634,10.3643,-22.8,-31.0911,-4.1455,14.5369,
48.1653,49.7465,-44.5648,46.092,-23.8092,4.1455,212.4597,-51.8198,-15.546,4.1455,-20.7287,-32.1282,-8.2911,24.8732,
63.1653,64.7465,-32.1277,61.092,-10.3639,-2.0728,227.4597,-42.492,-10.3639,15.5465,-5.7287,-17.1282,-1.0366,36.2742,
48.1653,50.2646,-41.9745,59.5928,-25.3639,-11.9186,225.4154,-46.12,-16.0641,12.9547,-0.51807,-8.8092,0.51807,28.5007,
33.1653,35.2646,-38.346,64.2564,-40.3639,-26.9186,213.4968,-42.4915,-13.4728,15.546,-1.0361,-3.1094,1.0361,31.092,
18.1653,23.318,-28.5007,52.3378,-55.3639,-41.9186,215.051,-48.1923,-20.2096,11.9186,-4.6636,4.6636,-13.9639,24.3552,
18.1369,38.318,-36.7923,58.5561,-40.3639,-26.9186,215.0505,-41.974,-20.2101,10.8819,-7.7735,5.7002,-6.7364,39.3552,
22.8,47.6732,-35.2376,64.2564,-44.5648,-11.9186,207.278,-35.2376,-15.546,6.2178,-4.1455,-8.2911,-5.1827,48.7104,
37.8,58.5556,-23.319,77.2111,-29.5648,-0.51807,207.7961,-30.574,-12.9547,12.9547,-6.7369,0.51807,-7.773,34.7195,
38.8641,48.1923,-35.7557,72.0294,-20.2096,-3.6275,199.505,-40.9373,-27.4646,6.7359,-21.7369,3.6275,-15.028,19.7195,
23.8641,33.1923,-20.7557,72.5475,-35.2096,-18.6275,211.4236,-31.092,-17.6183,7.2549,-7.2549,12.4366,-8.2911,25.9094,
8.8641,19.1735,-15.028,64.7744,-50.2096,-33.6275,201.5783,-38.8651,-15.028,4.6636,-3.6275,3.6275,-6.7369,20.2096,
-4.146,6.2183,-17.6188,60.1103,-60.1108,-33.1648,200.0236,-45.6014,-9.3277,15.5455,9.3277,2.0728,-2.0728,16.5817,
-8.8101,-0.51807,-26.4284,57.5195,-45.1108,-18.1648,197.4317,-39.9012,-11.9186,17.1002,6.7359,5.6997,0.51807,31.5817,
-7.773,3.6275,-34.7195,52.3378,-46.119,-3.1648,186.0322,-49.2284,-21.2458,6.7369,-0.51807,-1.5542,0.51807,46.119,
0.51807,3.6275,-19.7195,65.8106,-61.119,-18.1648,186.0322,-48.1923,-16.0641,5.6997,14.4819,-0.51807,-4.6636,31.119,
15.5181,15.028,-26.4275,70.9932,-50.2651,-16.0641,172.5595,-33.1923,-20.2096,-3.6275,15.028,3.6275,-17.1002,16.119,
2.5908,6.7364,-31.6106,59.5923,-58.5566,-3.628,165.3041,-37.8284,-22.2824,-2.5908,7.7725,5.7002,-27.4651,25.3908,
-10.3643,4.1455,-18.6554,68.4019,-73.5566,-15.546,180.3041,-41.4559,-7.2824,12.4092,19.6916,15.546,-26.9465,31.092,
-9.8458,10.8829,-29.5364,58.5561,-85.5021,-19.173,177.7417,-29.5364,-10.8819,15.0284,9.8458,12.9552,-29.5364,17.1007,
-6.2183,6.2183,-16.5817,66.3291,-71.5108,-13.4723,179.2959,-14.5364,-11.4,15.5465,15.5465,25.9099,-16.5817,23.8376,
-0.51856,3.627,-23.3185,73.066,-60.6289,-19.173,164.2959,-29.5364,-19.173,9.8458,0.54652,13.9913,-19.173,23.3185,
2.5913,17.1002,-22.2819,65.8106,-75.6289,-22.2819,153.9041,-44.5364,-10.8824,15.028,-2.5913,8.8092,-23.319,19.1735,
-3.1089,8.2916,-22.8005,58.0381,-90.1663,-32.1277,151.3132,-42.492,-6.2183,21.7643,3.1089,14.5094,-26.946,15.5455,
-1.5547,1.5547,-28.5012,66.8472,-76.1749,-32.6467,148.7219,-45.0834,-8.8096,36.7643,10.8819,20.2091,-21.2463,20.2091,
-16.5547,-3.1094,-17.6183,66.3296,-91.1749,-42.492,153.386,-45.6009,3.1094,51.7643,22.801,33.1643,-18.6544,16.5822,
-31.5547,-4.6641,-24.3547,66.8472,-105.1937,-41.974,138.386,-39.9012,4.6641,54.4106,12.9552,28.5012,-26.4279,16.0646,
-23.8376,-5.1822,-25.9099,69.4376,-90.1937,-31.0916,138.8766,-27.9831,5.1822,41.4549,16.5817,17.6188,-24.8737,27.9822,
-18.6549,-2.0728,-13.4733,66.3291,-76.693,-31.092,143.0221,-34.201,2.0728,39.3826,19.6911,13.4733,-26.946,22.8005,
-3.6549,11.4,-4.146,75.6564,-79.8019,-25.9099,133.6949,-47.6742,-8.2916,25.9099,4.6911,1.0366,-30.0554,7.8005,
6.2188,5.1817,4.1455,77.7291,-80.8385,-33.1643,141.9855,-45.6014,-14.5099,12.4366,-10.3089,2.0733,-33.1643,-2.0733,
0,9.3272,0,72.5475,-65.8385,-23.8371,144.0578,-35.2376,-16.5822,19.6916,-13.4737,15.546,-26.9465,12.4366,
-15,3.1094,6.2188,61.147,-57.0014,-18.6544,135.7677,-47.6737,-17.6183,26.9465,-3.1094,7.2549,-20.7277,16.5822,
-30,-11.8906,21.2188,55.9653,-72.0014,-32.1282,137.84,-54.9287,-5.1817,26.9465,5.1817,9.3272,-8.2911,12.4366,
-44.5648,-22.801,17.6188,55.9648,-87.0014,-44.5648,133.6939,-39.9287,1.0366,31.0916,-1.0366,16.5817,-8.2916,9.3277,
-36.2732,-23.8366,32.6188,65.2925,-102.0014,-59.5648,143.0226,-24.9287,4.1455,37.3099,13.9634,27.9826,-21.7638,-4.1455,
-21.2732,-11.9183,46.1198,80.2925,-96.9024,-58.5559,149.7583,-27.4643,2.5911,31.6099,23.3188,36.7916,-28.5005,-2.5911,
-25.3918,1.5542,34.7185,84.466,-104.1576,-43.5559,136.2848,-33.6829,-10.8824,16.6099,8.3188,25.3913,-35.7557,0.51807,
-25.3913,2.5908,48.1923,89.6477,-112.4482,-39.9012,141.4674,-18.6829,-5.7002,22.2829,8.8092,38.8651,-25.3913,-2.5908,
-22.2824,-9.8458,48.1923,90.6838,-112.4487,-53.374,143.5407,-11.9186,-0.51807,36.7918,10.8819,44.0467,-20.2096,0.51807,
-37.2824,-24.8458,48.1923,76.1749,-127.4487,-68.374,134.2125,-26.9186,-3.6275,28.5007,6.7364,41.9735,-35.2096,3.6275,
-52.2824,-39.8458,53.374,82.3927,-142.4487,-83.374,127.9947,-25.3918,1.5547,30.5735,20.2096,56.9735,-46.1195,-1.5547,
-67.2824,-35.2376,47.6737,95.3479,-145.0949,-68.374,127.4761,-10.3918,0,42.492,20.7277,53.8925,-42.492,0,
-52.2824,-29.019,46.6373,90.166,-156.4951,-53.374,123.3303,-15.5458,-5.1819,36.274,5.7277,41.4557,-53.8923,6.2181,
-37.3104,-14.019,34.201,91.2024,-141.4951,-38.374,114.0024,-15.546,-2.0728,31.0916,2.0728,42.492,-40.4193,19.6911,
-30.574,-8.8096,24.3547,86.5388,-126.4951,-23.374,113.4843,-23.319,-6.7364,27.4641,6.7364,34.719,-27.4646,21.2453,
-15.574,2.5908,26.4279,82.3932,-111.4951,-8.374,115.5576,-32.6463,-11.9181,27.4651,-2.5908,26.4279,-36.7918,33.6829,
-4.6636,0.51807,11.4279,67.3932,-96.4951,6.626,100.5576,-41.9735,-24.3552,12.4651,-17.5908,11.4279,-41.9735,33.6824,
-1.0361,0,4.1455,65.2925,-81.4951,18.6554,97.4207,-26.9735,-9.3552,22.801,-17.6183,0,-26.9735,38.347,
13.9639,11.9186,-10.8545,56.4834,-66.4951,28.5007,88.6115,-35.7557,-21.2468,20.2096,-32.6183,-15,-12.9557,28.5007,
26.4275,19.1725,-20.2096,41.9735,-51.4951,25.3913,85.5021,-46.12,-22.2829,11.9186,-34.7195,-23.319,-15.028,31.6101,
17.1002,16.0641,-22.2819,44.0467,-36.4951,13.9918,78.2482,-38.8641,-18.1364,10.8824,-22.2819,-17.1002,-10.8824,32.6463,
25.3918,31.0641,-34.719,50.2651,-22.2824,28.9918,70.9928,-44.0462,-25.3918,13.9913,-32.6468,-31.6096,-13.9913,27.4641,
27.4641,28.5012,-23.3185,46.1195,-15.0275,30.5735,82.3932,-49.2289,-17.1007,15.0275,-27.4641,-36.7923,-16.0636,23.3185,
12.4641,15.028,-30.573,44.0467,-30.0275,20.2096,74.1027,-39.9012,-11.9186,17.1002,-22.2819,-28.5007,-24.3552,28.5007,
-2.5359,11.4005,-23.8371,49.7465,-45.0275,16.5822,79.8024,-24.9012,1.0361,32.1002,-7.2819,-13.5007,-23.8371,39.3831,
-17.5359,-3.5995,-8.8371,51.8198,-60.0275,2.0723,83.9479,-34.2015,3.1094,21.7638,1.0361,-13.4737,-26.9465,24.3831,
-10.3639,-14.5094,6.1629,66.8198,-72.5475,-3.1089,87.0568,-29.0193,11.4,17.6188,-2.0728,1.5263,-35.2371,22.8005,
-25.3639,-29.5094,17.1007,60.6284,-87.5475,-18.1089,85.5017,-21.2463,1.5547,20.2091,-1.5547,16.0636,-50.2371,8.8087,
-36.7918,-30.5735,27.4646,72.0294,-102.5475,-28.5007,91.721,-6.2463,-7.773,26.4275,0.51807,22.2819,-41.974,12.9547,
-36.2735,-40.419,42.4646,80.8388,-117.5475,-35.2368,93.2754,-3.1092,-17.6185,13.473,3.1092,21.7641,-41.4557,17.6185,
-37.8282,-50.2648,57.4646,88.6118,-130.0672,-50.2368,107.2662,-7.7728,-7.7728,11.9183,15.0277,36.7641,-51.3014,7.7728,
-46.1193,-54.4108,51.3014,85.5019,-127.9944,-60.6291,111.4123,1.5545,-3.6272,7.7728,8.8094,46.1198,-45.0831,-1.5545,
-61.1193,-69.4108,61.1475,79.8019,-142.9944,-75.6291,102.6029,1.0361,0,0,16.5822,48.7108,-49.747,-4.1455,
-76.1193,-84.4108,72.5472,90.1665,-157.9944,-90.6291,95.3482,-11.4002,3.1092,5.1819,25.9101,63.22,-64.2561,-3.1092,
-91.1193,-80.3205,74.1022,93.7937,-172.9944,-90.6843,104.1571,-4.6636,4.6636,8.8092,26.4279,62.7017,-68.92,-9.8458,
-103.1209,-92.7571,70.9932,87.5754,-181.8867,-105.6843,96.9026,0.51807,-0.51807,1.5547,20.2096,55.4467,-80.3205,-24.8458,
-88.1209,-85.5024,70.9925,102.5754,-166.8867,-101.0479,97.939,-0.51832,0.51832,15.0277,29.5371,62.7014,-74.1019,-25.3916,
-74.1019,-100.5024,82.393,97.939,-166.3409,-112.4484,112.939,-6.7366,6.7366,15.0277,37.8282,64.7742,-65.8108,-17.1005,
-85.5021,-115.5024,89.6477,91.7205,-180.8501,-126.958,122.8125,-2.5908,4.6636,2.5908,26.4279,72.0294,-67.8834,-20.2096,
-96.9026,-106.2299,93.7937,94.8299,-183.9595,-129.0308,107.8125,-1.5547,1.5547,1.5547,29.5373,79.2838,-82.8834,-35.2096,
-108.3031,-107.2665,90.6843,94.8299,-195.36,-124.8853,92.8125,-0.51807,0.51807,6.7364,28.5007,73.0655,-89.6482,-40.9373,
-96.3843,-93.2754,75.6843,92.2383,-180.36,-109.8853,84.9843,5.1819,-5.1819,14.5096,13.5007,63.2195,-84.9843,-25.9373,
-92.7568,-89.6479,88.6118,92.7573,-176.7048,-122.8123,91.7202,-2.5911,2.5911,26.4282,25.3916,72.0296,-86.5385,-10.9373,
-92.7571,-94.8299,95.8665,104.1576,-186.0323,-137.8123,87.5754,-9.8458,9.8458,24.3552,37.8284,78.2482,-79.2838,-22.2824,
-98.9752,-104.1573,80.8665,92.7568,-200.5419,-129.0306,79.2841,-5.7,5.7,13.9911,22.8284,63.2482,-64.2838,-25.3916,
-113.9752,-119.1573,74.6207,77.7568,-215.5419,-144.0306,87.0573,-2.0728,2.0728,3.1094,17.6188,58.0381,-75.6564,-40.3916,
-114.0029,-115.0395,79.8019,92.239,-200.5419,-135.7672,88.0935,0,6.2183,0,27.9826,73.0381,-73.5836,-38.3465,
-99.0029,-100.0395,83.4299,101.0482,-185.5419,-120.7672,83.4299,2.5908,3.6275,-2.5908,25.3913,77.2111,-58.5836,-23.3465,
-84.0029,-86.0205,70.4744,96.3848,-170.5419,-105.7672,77.7294,2.0725,-1.0364,1.0364,10.3913,68.4022,-53.8923,-8.3465,
-69.0029,-72.5475,60.1103,99.4935,-155.5419,-90.7672,71.5108,-6.2183,-2.0728,9.3277,2.0728,58.0381,-55.9653,6.6535,
-60.6289,-77.2111,64.774,97.9393,-140.5419,-75.7672,74.1022,-8.8092,-5.7002,9.8458,7.773,50.2651,-61.6655,5.7002,
-45.6289,-70.4744,50.7829,96.3848,-125.5419,-60.7672,76.6932,1.0364,-4.1453,7.2547,12.4369,41.4557,-57.0012,-1.0364,
-45.6014,-70.4747,44.5648,81.3848,-110.5419,-58.0381,68.4019,-6.2183,3.1089,-2.0728,12.4366,33.1643,-43.5287,2.0728,
-44.5646,-61.1467,58.0383,73.5843,-95.5419,-52.8556,63.22,-12.4364,3.1092,-3.1092,5.1824,34.2012,-35.2369,13.4735,
-29.5646,-47.1557,44.0472,79.2838,-80.5419,-37.8556,64.7749,-17.1002,-2.5908,2.5908,3.628,21.2463,-35.7552,12.9552,
-14.5646,-54.9292,32.1277,74.6202,-65.5419,-30.0554,63.2197,-25.9099,1.0366,4.145,9.3277,16.5817,-35.2376,-1.0366,
-13.9908,-45.0829,31.6101,65.8116,-52.3373,-29.5369,48.2197,-24.3552,3.6275,3.6275,-3.6275,21.2468,-29.5369,5.7007,
-6.2178,-34.201,32.1282,62.1841,-37.3373,-15.546,48.7104,-9.3552,5.1817,7.2549,-5.1817,17.6193,-24.8732,15.546,
3.628,-41.974,17.1282,62.7017,-31.6096,-21.2463,52.3383,-15.0275,-8.8096,1.5547,-1.5547,5.7002,-29.5373,3.628,
18.628,-27.4641,9.8458,66.8472,-24.3557,-6.2463,47.1556,-10.8819,-17.1007,6.7364,-2.5908,-0.51856,-19.173,10.8819,
3.628,-27.4646,18.1364,54.4101,-37.8279,5.6997,36.7918,-0.51807,-18.1374,1.5542,-7.773,-0.51807,-24.3552,25.8819,
-4.1455,-19.6916,5.1827,60.1108,-32.1282,9.3282,34.2015,7.2549,-23.8371,-7.254,-15.546,4.1455,-26.9455,40.8819,
5.6997,-16.0641,0.51807,66.8477,-36.7918,12.9547,34.7195,-2.5913,-24.3552,-0.51807,-11.9186,3.6275,-25.3913,45.0829,
11.9186,-24.3552,0.51807,63.7383,-41.9735,9.8453,22.2829,-17.1002,-17.1002,6.7369,-15.028,-0.51807,-37.8279,34.7195,
26.9186,-9.3552,-1.5547,75.1383,-26.9735,24.8453,26.4279,-2.5908,-7.7725,15.0275,-19.173,0.51856,-31.6096,49.2289,
27.9826,1.0361,-3.1094,64.2564,-11.9735,33.1643,40.4193,-1.0361,-19.6916,5.1817,-17.6183,-7.2549,-23.8371,38.346,
25.9099,2.0728,-18.1094,50.7831,3.0265,40.4198,27.9822,-10.3639,-29.0193,-2.0728,-27.9822,-13.4733,-11.4,38.3465,
32.6463,3.6275,-28.5007,50.2646,18.0265,48.1923,18.1364,-15.028,-29.5378,-3.6275,-35.7557,-21.2468,-13.9918,53.3465,
44.5648,4.1455,-21.7638,55.9653,33.0265,39.3831,23.8371,-17.6183,-29.0188,-4.1455,-30.0549,-24.8732,-16.5822,47.6742,
59.5648,19.1455,-36.7638,49.747,48.0265,54.3831,8.8371,-17.6188,-37.3104,-8.2916,-43.5292,-37.3104,-5.1822,50.7831,
74.5648,34.1455,-51.7638,39.9012,61.665,69.3831,0.51807,-20.2096,-32.6463,-7.773,-46.119,-39.9012,-0.51807,65.7831,
72.0299,34.719,-52.3373,37.8284,46.665,76.1754,5.7002,-26.4279,-30.5735,-5.7002,-47.1556,-38.8646,-8.8087,65.8111,
82.9108,49.719,-58.0386,36.2737,61.665,91.1754,4.1455,-12.4366,-30.0559,-4.1455,-50.7836,-42.4925,-7.2549,63.2192,
82.9108,62.1831,-62.1831,33.1643,76.665,106.1754,0,-1.0361,-24.8732,-6.2188,-43.5287,-42.4925,0,75.6569,
81.8752,53.8925,-67.3653,31.0916,76.6925,120.2212,-8.2916,-16.0361,-25.9099,-3.1089,-42.492,-44.5653,3.1089,79.8019,
78.7653,38.8925,-59.0747,18.6554,67.3658,105.2212,-6.2188,-31.0361,-26.9465,-4.1455,-48.7103,-46.6381,4.1455,64.8019,
92.239,47.6742,-52.8559,22.801,82.3658,91.2029,-8.2911,-35.2376,-30.0549,-12.4366,-53.892,-46.6381,8.2911,49.8019,
99.4935,62.1836,-65.293,29.0183,67.3658,105.7113,-10.3639,-30.0554,-33.1648,-16.5827,-45.6014,-49.747,10.3639,51.8193,
84.4935,47.1836,-74.1017,19.1735,52.3658,90.7113,-12.9547,-24.3552,-33.6824,-17.1002,-46.119,-44.0467,12.9547,51.3017,
99.4935,42.492,-80.839,18.6549,67.3658,82.9113,-23.8376,-20.7282,-44.5653,-18.6549,-61.119,-48.7108,22.8005,41.4559,
114.4935,45.0829,-76.1749,20.2096,82.3658,77.2111,-20.2096,-33.6824,-39.9012,-21.2458,-49.2284,-57.5195,28.5007,49.2284,
119.7036,53.374,-70.9932,20.2096,97.3658,83.4299,-23.319,-40.9373,-31.6101,-19.1735,-38.8651,-60.6289,19.1735,64.2284,
131.6217,68.374,-55.9932,20.7282,112.3658,98.4299,-31.0916,-27.9822,-38.3465,-12.4371,-51.8193,-70.4747,12.4371,77.7296,
117.1123,59.0737,-40.9932,14.5089,116.0751,106.7479,-29.0188,-30.0559,-39.3831,-12.4366,-54.9292,-72.5475,12.4366,63.2192,
121.2578,63.2202,-27.9826,20.7277,114.0029,105.7118,-27.9826,-34.2005,-35.2376,-11.4005,-61.147,-72.5475,11.4005,63.2202,
136.2578,78.2202,-26.4284,23.319,109.3393,116.5942,-23.319,-22.2829,-33.6824,-6.7369,-63.7383,-73.0655,6.7369,72.0294,
142.5041,74.1022,-19.173,17.1007,108.3036,122.8125,-25.3908,-21.2453,-33.6829,-6.7364,-55.4467,-68.9195,6.7364,64.7749,
129.5484,68.4014,-29.0193,22.8005,115.0395,123.3306,-38.3465,-31.0916,-38.3465,-9.3277,-54.9287,-71.5108,9.3277,58.0381,
118.1489,71.5108,-17.6188,24.8737,100.0395,108.3306,-35.2371,-25.9099,-43.5282,-6.2183,-57.0019,-62.1836,6.2183,53.8925,
122.2944,77.7296,-14.5094,9.8737,85.0395,101.5667,-30.0554,-19.6911,-38.3465,-6.2183,-59.0742,-57.0009,6.2183,53.8925,
107.2944,62.7296,-5.1822,4.146,70.0395,86.5667,-19.6911,-22.8005,-23.3465,-2.0728,-44.0742,-54.9287,2.0728,48.7108,
92.2944,47.7296,2.5908,18.1369,55.0395,71.5667,-16.0636,-23.3185,-10.8819,-2.5908,-32.6458,-40.9368,-8.8087,33.7108,
78.7658,32.7296,3.1089,20.7282,40.0395,64.2559,-14.5094,-12.4361,-21.7643,-3.1089,-36.2732,-25.9368,-8.2906,30.0554,
64.7749,18.1369,18.1089,19.173,25.0395,50.265,-2.5908,-2.5908,-16.0636,-3.627,-21.2732,-12.9552,-12.9552,39.9007,
67.8838,21.2458,31.6101,34.173,10.0395,37.8279,-5.6997,1.5542,-10.8824,-4.6636,-25.3913,-1.5542,-20.2096,38.8651,
62.7017,15.0275,19.173,34.719,2.5908,27.4641,-20.6997,-13.4458,-25.8824,-16.0646,-40.3913,-2.5908,-26.4279,23.8651,
58.5561,9.8458,16.0646,26.4279,9.8458,28.5012,-26.4279,-9.8458,-30.5735,-23.3185,-46.1195,-10.8819,-31.6096,11.919,
73.0655,24.8458,1.0646,36.7918,13.9918,43.0106,-32.6463,0.51807,-39.9012,-34.7185,-60.6289,-25.8819,-37.8279,26.4284,
75.1383,30.5735,6.7364,37.8284,2.5908,46.1195,-28.5002,-2.5908,-41.974,-29.5373,-52.3373,-28.5002,-33.6829,32.6467,
81.8747,32.1282,15.546,30.0549,17.5908,61.1195,-27.9826,-15.546,-41.4554,-20.7277,-54.9292,-22.801,-23.8371,30.0549,
91.72,34.7185,11.9186,29.5369,32.5908,68.92,-21.2468,-11.9186,-36.7918,-23.319,-62.7022,-36.7918,-17.1012,34.7185,
83.9479,26.9455,11.4005,34.2005,37.3099,53.92,-23.8371,-11.4005,-37.3099,-24.8732,-58.0386,-32.1282,-21.7648,27.9826,
98.9479,41.9455,12.4366,43.5287,52.3099,68.92,-25.9104,-12.4366,-32.1282,-15.546,-51.8198,-17.1282,-35.2376,31.0911,
89.6477,38.8641,7.773,28.5287,67.3099,64.7744,-24.3552,-7.773,-37.8289,-29.5378,-59.5928,-31.6101,-50.2376,18.1364,
88.094,23.8641,2.0728,19.6921,71.5118,61.1475,-32.1277,-2.0728,-46.6376,-32.1277,-66.3291,-45.6005,-64.2559,10.3639,
103.094,35.2376,8.2911,29.0198,68.4019,76.1475,-27.9826,-8.2911,-36.2737,-17.1277,-51.3291,-33.1643,-49.2559,25.3639,
109.3393,29.5369,19.1735,27.4646,53.4019,66.8467,-19.1735,-20.2096,-27.4646,-22.2829,-43.0106,-26.4284,-61.665,32.6463,
119.1855,44.5369,8.2911,40.4193,67.3658,69.439,-25.9094,-8.2911,-22.8,-15.546,-58.0106,-24.8732,-53.892,37.3109,
134.1855,59.5369,-3.6275,54.4101,82.3658,84.439,-32.6463,-2.5913,-25.3913,-0.54602,-59.5928,-22.2819,-38.892,38.8651,
146.1315,74.5369,-5.1822,49.747,88.094,99.439,-40.4188,5.1822,-37.3104,-7.2544,-58.0381,-29.0183,-52.8554,39.3826,
131.1315,71.5113,-7.2549,34.747,73.094,105.7118,-55.4188,7.2549,-48.7103,-22.2544,-69.4381,-44.0183,-67.8554,31.092,
117.6303,69.9571,-4.6636,38.8651,58.094,95.8665,-51.3007,4.6636,-37.8279,-12.9547,-67.8838,-33.6824,-75.1378,28.5007,
132.6303,84.9571,-8.8092,53.8651,59.5928,110.8665,-40.9373,8.8092,-35.7557,-12.9547,-66.8467,-24.3552,-70.9923,43.5007,
131.6222,69.9571,-1.0361,38.8651,50.7836,100.5301,-48.7103,1.0361,-39.3831,-27.9547,-68.4019,-36.2737,-85.9923,37.3099,
126.44,54.9571,-2.0728,25.9099,63.2197,90.1662,-54.9287,2.0728,-34.201,-36.2732,-66.3291,-42.492,-74.6202,22.8005,
141.44,69.9571,-11.4005,36.2737,78.2197,105.1662,-46.6381,11.4005,-35.2376,-29.0188,-70.4742,-45.6009,-59.6202,35.2376,
156.44,69.9566,1.5547,28.5002,93.2197,120.1662,-41.974,-1.5547,-33.6829,-27.4641,-64.7749,-39.9007,-50.2651,48.1918,
163.7498,73.5841,1.0366,40.4198,102.6029,128.5132,-41.4559,-1.0366,-18.6829,-12.4641,-51.8193,-25.9099,-46.6376,57.0019,
149.24,63.2197,-6.2183,40.4188,108.8207,117.1118,-38.3465,6.2183,-14.5094,-9.3277,-47.6737,-33.1648,-37.3104,42.492,
134.24,48.2197,-0.51807,33.6834,93.8207,102.1118,-43.0096,0.51807,-24.3552,-24.3277,-52.3378,-39.9012,-52.3104,29.5378,
127.4761,43.5282,6.2183,47.6737,79.8019,91.2024,-48.7108,-6.2183,-21.7643,-22.8005,-53.8925,-33.1648,-67.3104,36.2732,
116.5942,41.9735,-0.51807,48.1923,70.9923,87.5744,-47.1561,0.51807,-21.2468,-13.9918,-48.1923,-32.6463,-62.7022,35.7557,
103.639,38.3465,-9.3277,40.4188,70.4747,95.3479,-50.7831,9.3277,-33.1648,-22.8005,-54.9287,-41.4559,-69.4385,45.6014,
88.639,23.3465,-2.5908,32.6467,55.4747,80.3479,-49.2289,2.5908,-36.7923,-33.6829,-53.3745,-43.0101,-84.4385,37.8284,
76.693,22.801,1.0361,36.2737,40.4747,77.7291,-52.8559,-1.0361,-34.2015,-40.4193,-50.7836,-32.1282,-80.8385,22.8284,
91.693,37.801,1.5547,32.6468,40.9378,86.5388,-59.5923,-1.5547,-41.974,-43.0101,-60.6284,-33.6829,-76.1744,24.3557,
76.693,22.801,16.5547,17.6468,25.9378,71.5388,-47.6737,-5.1822,-36.2732,-37.3104,-45.6284,-23.8366,-73.5841,16.5827,
77.2111,7.801,27.4646,27.4646,26.4284,56.5388,-39.9012,0.51807,-21.2732,-26.4284,-30.6284,-8.8366,-58.5841,10.8824,
66.3291,-7.199,26.946,27.9822,12.4361,41.5388,-44.5653,-1.0366,-12.4371,-24.8737,-26.946,1.0366,-45.6014,11.4,
57.0014,-13.4728,29.0188,32.1282,0,26.5388,-46.6371,0,-9.3272,-20.7277,-22.801,6.2188,-48.7103,15.546,
52.3378,-12.9547,34.7195,38.8651,-7.773,18.1364,-45.0829,3.6275,-3.6275,-12.9547,-15.028,15.028,-48.1923,22.2819,
41.974,-19.174,34.719,39.9007,-22.2824,9.8458,-48.1928,2.5908,-2.5908,-10.8829,-11.919,18.1369,-53.3745,23.3185,
32.1277,-23.8376,35.2371,41.4559,-35.2371,2.0728,-51.8202,1.0366,-1.0366,-8.2916,-9.3277,20.7272,-58.0381,24.8728,
23.8366,-25.9099,38.3465,46.6376,-45.6014,-4.146,-51.8193,3.1089,3.1089,-3.1089,-3.1089,26.946,-60.1103,30.0554,
8.8366,-34.7195,36.7918,43.0106,-60.6014,-17.1002,-55.4472,9.8453,9.8453,-0.51807,-7.773,34.7195,-73.0655,36.7918,
17.0997,-31.6106,24.3547,48.1918,-48.1928,-2.1002,-57.52,6.7364,-2.5908,1.5547,-22.773,25.3908,-74.1022,39.9007,
11.9186,-39.9012,37.8279,48.1923,-43.0106,0.51807,-46.119,11.9186,-6.7369,-0.51807,-10.8824,21.2458,-59.1022,24.9007,
-3.0814,-39.3826,45.6014,61.1475,-43.5282,-10.3639,-43.5282,24.8737,-2.0728,2.0728,2.0728,36.2458,-44.5643,9.9007,
4.145,-27.9831,32.1277,64.2559,-51.8202,-12.4371,-46.6376,21.7643,-2.0728,2.0728,-5.1822,32.1277,-43.5292,10.3639,
19.145,-12.9831,47.1277,64.2564,-37.3099,1.0361,-37.3099,23.8371,-1.0361,-7.2549,-2.0723,32.1282,-41.4554,22.801,
16.0641,-3.6275,34.7195,51.3017,-22.3099,3.6275,-52.3099,8.8371,-16.0361,-22.2549,-17.0723,20.2096,-54.4101,12.9547,
12.9557,-7.773,38.8651,61.666,-13.9908,7.773,-56.4834,9.8463,-19.1725,-13.9908,-18.1364,31.6101,-39.4101,22.2829,
18.6549,-14.5094,23.8651,58.0381,-28.9908,14.5094,-62.1836,14.5094,-19.6911,-16.5817,-23.8366,25.9099,-40.4188,35.2381,
33.6549,-3.1089,8.8651,43.0381,-19.6911,29.5094,-74.6202,13.4733,-31.0916,-31.0916,-35.2371,14.5094,-48.7108,39.3826,
37.3104,-3.1089,3.1089,35.2371,-18.6549,33.1648,-71.5108,6.2183,-29.0193,-29.0193,-25.9099,15.5465,-39.3826,24.3826,
44.0472,5.7002,-4.6641,41.974,-11.9181,39.9017,-80.32,5.7002,-33.6829,-29.5373,-37.8284,4.6641,-34.719,19.173,
58.0376,19.6916,1.0361,45.6009,-7.2549,48.7104,-76.693,11.4005,-27.9826,-25.9094,-41.4554,-1.0361,-23.8371,34.173,
64.7744,26.4275,-10.8824,39.9012,7.7451,56.4834,-78.2472,1.5542,-31.6101,-25.3913,-43.0106,-1.5542,-13.9918,34.7195,
79.7744,41.4275,-25.8824,40.4198,22.7451,71.4834,-87.0568,6.2183,-37.3094,-24.8728,-49.747,-13.4733,-6.2183,41.4559,
94.7744,47.1557,-34.719,35.7552,37.7451,86.4834,-97.9393,10.8819,-38.8646,-34.719,-59.5933,-28.4733,-10.8819,48.1918,
109.7744,52.8559,-42.4915,35.2376,52.7451,101.4834,-102.6024,0,-33.1643,-31.0911,-67.3648,-35.2366,0,49.7475,
100.0115,47.1556,-47.1556,27.4641,62.7017,104.1571,-96.9021,-12.9552,-27.4641,-19.173,-61.6655,-30.5735,12.9552,47.1556,
108.8207,48.7099,-58.0381,27.9822,77.7017,119.1571,-97.4212,-6.2183,-35.2381,-26.946,-64.2569,-39.3836,6.2183,54.9287,
120.2217,63.7099,-73.0381,24.8732,90.1658,134.1571,-109.8573,0,-50.2381,-41.946,-79.2569,-54.3836,0,62.1831,
105.2217,62.1836,-66.3291,12.4371,75.1658,127.4761,-112.9662,-8.2916,-50.7831,-52.8564,-80.838,-51.8193,8.2916,61.1475,
110.3754,72.0294,-64.7744,19.1735,80.3205,142.4761,-112.4487,-19.1735,-50.2655,-45.0829,-77.2111,-54.4111,23.2916,63.7383,
121.7759,68.92,-65.8106,15.028,95.3205,152.8679,-110.3754,-15.028,-50.2646,-47.1552,-77.2111,-65.8106,21.2458,52.3378,
106.7759,63.2202,-61.147,1.0361,90.1658,137.8679,-115.039,-1.0361,-44.5648,-47.6742,-70.4742,-59.0747,13.4728,47.6742,
101.0487,78.2202,-58.5561,5.7002,83.4294,136.2853,-113.4843,-5.7002,-38.8646,-36.7923,-57.52,-48.1918,24.3557,62.6742,
95.866,63.2202,-43.5561,13.9913,68.4294,121.2853,-98.9754,-13.9913,-37.8284,-32.6458,-46.1195,-38.8646,27.4641,55.4467,
83.4294,48.2202,-48.1918,8.8096,53.4294,106.2853,-111.412,-8.8096,-46.1195,-44.0462,-61.1195,-39.9007,12.4641,40.4467,
68.4294,39.3826,-50.7831,2.0728,38.4294,91.2853,-118.1489,-2.0728,-43.5282,-51.8193,-68.4024,-39.3826,13.4733,25.4467,
53.4294,43.5287,-35.7831,8.2911,23.4294,80.8385,-107.7841,-8.2911,-32.1282,-46.6371,-53.4024,-24.3826,18.6554,37.3109,
55.9653,33.1643,-20.7831,23.2911,8.4294,75.6569,-93.2752,-1.0361,-25.9094,-32.1282,-38.4024,-9.3826,14.5099,52.3109,
40.9653,18.1643,-20.2096,18.1364,-6.5706,60.6569,-92.7571,-1.5542,-35.7557,-44.0467,-40.9373,3.6275,1.5542,37.3109,
29.5369,12.9547,-22.2829,24.3552,-21.5706,45.6569,-103.1214,-6.7369,-34.7195,-52.3378,-48.1923,6.7369,8.8092,22.3109,
31.6101,25.3913,-9.8453,35.7557,-36.5706,38.8651,-96.9026,1.5542,-21.2458,-45.0829,-36.7918,-1.5542,12.9547,22.2829,
22.2829,10.3913,-8.8091,32.6463,-51.5706,28.5007,-87.5754,7.773,-18.1364,-45.0829,-31.6101,-1.5542,1.5542,16.0641,
19.6911,3.1089,-23.8091,31.0916,-36.5706,37.3094,-99.4935,-2.0728,-25.9099,-45.6014,-46.6101,2.0728,11.4,17.6188,
15.028,4.6636,-27.4646,32.6463,-21.5706,34.7195,-106.2299,-3.6275,-27.4646,-36.7918,-39.9012,3.6275,24.3552,32.6188,
16.0641,18.1364,-30.574,29.5369,-26.4284,37.8279,-107.267,4.6636,-35.7557,-39.9012,-35.7557,-4.6636,17.1002,39.9012,
17.6188,24.8737,-27.9822,23.8376,-14.5094,52.8279,-106.7484,10.3639,-31.0916,-43.5282,-36.2732,-10.3639,17.6188,41.4559,
13.9913,11.9181,-12.9822,28.5002,-22.2824,47.1556,-98.9754,-1.5547,-16.0916,-29.5373,-30.5735,1.5547,28.5002,35.7552,
28.9913,26.4279,-19.174,41.974,-7.2824,62.1556,-97.9393,-2.5908,-16.0646,-14.5373,-33.6829,2.5908,40.9368,45.0824,
42.492,20.7282,-16.5827,30.0554,-8.2916,66.3291,-94.3118,7.2545,-29.0193,-22.8005,-33.1648,-7.2545,37.3104,39.3826,
36.2742,5.7282,-3.1089,19.6921,-13.4733,51.3291,-98.4573,4.146,-30.0554,-37.8005,-32.1277,-2.0728,33.1648,24.3826,
46.6381,8.2911,-10.3634,14.5099,-5.1817,38.347,-105.7118,-4.1455,-26.9455,-46.6371,-32.1282,4.1455,38.347,17.6193,
46.12,23.2911,-4.6636,-0.49011,-9.8453,51.3017,-101.0482,4.6636,-26.4275,-31.6371,-34.7185,5.7007,39.9012,27.4646,
43.5287,33.1643,-13.4728,14.5099,-19.6916,64.2564,-108.8212,8.2911,-39.3831,-27.9826,-49.7185,-8.2911,24.9012,24.8732,
34.7195,18.1643,-10.8824,29.5099,-30.573,49.2564,-100.012,6.7369,-32.6463,-30.573,-36.7918,-6.7369,15.028,24.3552,
20.7277,4.1455,-1.0361,14.5099,-26.9465,34.2564,-100.5301,4.1455,-33.1643,-37.3099,-33.1643,1.0361,18.6554,18.6554,
18.6544,7.2549,-1.0361,29.5099,-33.1643,19.2564,-109.8573,1.0361,-46.6381,-43.5287,-48.1643,-2.0733,6.2178,4.1455,
15.028,-0.51807,5.7007,44.5099,-48.1643,4.2564,-98.9749,2.5913,-32.6463,-35.7557,-44.0467,5.7007,1.5552,0.51807,
5.7007,-0.51807,0.51807,59.5099,-62.7012,-1.5542,-106.2299,4.6636,-29.5369,-36.7918,-33.6824,8.8092,13.9918,9.8463,
-5.1822,5.1822,15.5181,44.5099,-69.4385,11.4,-101.5662,13.4733,-18.6549,-31.0916,-24.8737,20.7282,26.946,14.5094,
-4.1455,4.1455,20.7287,29.5099,-65.2925,15.546,-90.1658,20.7287,-8.2911,-18.6544,-13.4728,35.7282,30.0559,18.6554,
-5.7002,-5.7002,5.7287,44.5099,-63.7378,11.919,-104.1571,19.173,-23.2911,-23.3185,-26.4279,29.5373,26.4279,24.3557,
-5.1817,-8.2911,20.7287,29.5099,-78.7378,5.1817,-96.3841,27.9826,-11.4005,-19.6916,-11.4279,30.0559,32.1282,25.9104,
-4.1455,-9.3272,24.8732,14.5099,-79.8024,1.0361,-96.3846,19.6916,2.0723,-19.6916,-1.0361,33.1643,29.0188,12.4366,
-3.1094,-20.7277,9.8732,29.5099,-66.3287,3.1094,-102.6029,10.3643,-7.2549,-24.8732,-7.2549,27.9826,23.8371,14.5099,
9.3277,-25.9099,-2.0728,18.6549,-63.2197,2.0728,-117.6029,2.0728,-20.7282,-39.3836,-22.2549,12.9826,12.4361,8.2906,
24.3277,-10.9099,-2.5913,33.6549,-48.2197,17.0728,-117.6303,6.7369,-9.8463,-24.3836,-24.3552,-1.5542,22.2819,12.9547,
12.9557,-4.6636,1.5552,37.8289,-53.374,9.8463,-111.4115,0.51807,-15.027,-15.027,-27.4636,-0.51807,22.2829,11.9186,
13.9913,4.6641,-7.7725,28.5002,-49.2289,12.9552,-120.7392,-2.5908,-26.4279,-25.3918,-36.7923,2.5908,16.0636,17.1007,
28.9913,15.546,-9.3272,29.0188,-41.4554,19.6916,-122.2939,5.1817,-24.8732,-37.3099,-25.9094,-5.1817,18.6554,17.6183,
13.9913,0.54602,1.5542,31.6101,-55.4472,5.6997,-117.6303,7.773,-30.574,-36.7918,-25.3913,-2.5913,16.0641,3.6275,
5.7002,-1.5547,-10.8819,32.6468,-47.1556,6.7374,-122.812,1.5547,-39.9007,-33.6819,-40.3913,3.628,9.8458,3.628,
2.0728,1.0366,-7.2544,23.8376,-62.1556,-1.0366,-115.0395,6.2183,-29.0183,-25.9099,-26.946,11.401,16.5827,18.628,
8.2906,-3.1089,2.0728,35.2371,-77.1556,-2.0728,-114.0034,15.5455,-29.0193,-29.0193,-14.5094,10.3639,29.0193,22.8005,
7.7735,-6.7364,-1.5547,35.7562,-68.9195,1.5547,-121.7759,11.919,-37.8284,-38.8646,-29.5094,9.8458,29.5373,9.8458,
1.0361,0,-16.5547,21.7638,-61.147,8.2911,-135.7672,0,-36.2737,-37.3099,-44.5094,12.4366,15.546,6.2188,
16.0361,15,-31.5547,25.9094,-46.147,23.2911,-138.8761,4.1455,-29.0188,-22.3099,-45.6009,-2.5634,27.9826,21.2188,
31.0361,30,-46.5547,10.9094,-31.147,38.2911,-135.7672,-7.2544,-43.5282,-34.201,-49.747,-17.5634,34.201,31.0916,
38.3465,20.7282,-54.9287,5.1822,-16.147,53.2911,-139.9127,-5.1822,-46.6376,-49.201,-57.0009,-32.5634,23.8376,16.0916,
36.2742,32.1287,-60.1103,7.2544,-1.147,67.3653,-152.3494,-7.2544,-40.4188,-49.747,-59.0742,-47.5634,11.4,23.8376,
51.2742,44.0462,-48.1918,8.8096,13.853,82.3653,-139.3947,-8.8096,-35.7552,-34.747,-51.3012,-44.0462,26.4,38.8376,
65.8116,34.7195,-47.1552,8.8092,23.319,79.2843,-137.3219,-8.8092,-45.0829,-30.573,-65.8106,-46.119,34.7195,43.0106,
50.8116,19.7195,-32.1552,15.5455,8.319,64.2843,-126.44,6.1908,-30.0829,-24.8737,-50.8106,-31.119,23.8366,39.3826,
35.8116,5.7002,-17.1552,20.2091,-6.681,49.2843,-125.9219,13.9913,-20.2101,-23.3185,-35.8106,-16.119,25.3918,34.719,
38.8646,16.0636,-20.2101,18.1369,-13.9913,49.2279,-130.0674,5.7002,-25.3918,-19.174,-30.5735,-5.7002,31.6096,33.6829,
39.3826,13.4733,-27.9831,14.5094,-14.5094,38.3465,-127.4761,10.3639,-24.8737,-16.5827,-37.3104,-10.3639,22.8005,26.946,
46.119,15.028,-42.9831,-0.49061,0.49061,49.2284,-142.4761,5.6997,-38.8651,-29.5369,-47.1561,-22.2829,12.9547,29.5369,
61.119,30.028,-45.0834,-2.5908,15.4906,64.2284,-137.3224,2.5908,-26.4279,-22.2824,-32.6468,-21.2463,22.2824,44.5369,
76.119,45.028,-50.2646,4.6636,30.4906,79.2284,-133.1764,-4.6636,-20.2096,-15.028,-44.0467,-28.5007,12.9547,59.5369,
90.6843,55.4467,-64.7749,7.7725,45.4906,94.2284,-146.6496,-1.5547,-33.6829,-15.0275,-58.5561,-41.974,1.5547,47.1556,
80.8385,55.9653,-58.0376,4.1455,47.6742,100.5301,-143.0216,9.3282,-33.1643,-8.2911,-45.6009,-35.2366,-4.1455,46.6381,
88.0935,70.9653,-70.4742,5.1817,62.6742,115.5301,-141.9855,9.3272,-29.0188,-5.1817,-50.7836,-39.3831,-9.3272,60.1108,
90.6843,85.9653,-66.8472,5.7002,77.6742,130.5301,-137.3214,11.919,-23.3185,-5.7002,-49.2289,-45.0834,-5.7002,65.8111,
75.6843,70.9653,-51.8472,3.1094,62.6742,120.2217,-138.8761,15.546,-19.6916,-3.1094,-47.6742,-38.347,-8.2911,64.2564,
83.9479,69.4381,-63.2202,1.0361,53.892,132.6583,-149.2405,9.3272,-27.9826,-1.0361,-61.147,-48.7104,-10.3643,68.4019,
98.9479,82.3927,-64.7744,0.51807,68.892,147.6583,-146.6501,1.5542,-26.4284,-0.51807,-57.5195,-57.5195,-4.6636,74.1017,
113.9479,83.9484,-72.547,2.0728,83.892,148.2048,-154.4216,2.0728,-24.8728,-6.2183,-57.0009,-66.3282,-2.0728,77.7296,
120.7392,72.0289,-72.0299,-2.5908,83.4294,133.2048,-147.6858,2.5908,-26.4279,-8.8096,-51.3012,-72.0299,8.8087,75.1383,
125.9219,70.9928,-60.6294,-1.5547,89.6482,134.213,-132.6858,0.51856,-23.3185,-0.51856,-39.9007,-57.0299,23.8087,75.1383,
135.2486,84.466,-64.7744,-0.51807,104.6482,149.213,-144.5768,-1.5552,-26.4284,0.51807,-40.9373,-53.374,29.5369,85.5021,
124.8848,77.2116,-59.5923,-3.627,102.0848,134.213,-143.5402,3.627,-26.4279,-4.6641,-38.8646,-63.7378,14.5369,82.3932,
132.1397,84.4655,-68.9195,-4.6641,111.412,132.1397,-145.6125,4.6641,-31.6096,-12.9552,-52.3373,-75.1383,7.7725,67.3932,
139.9132,99.4655,-75.6569,-1.0361,123.3301,147.1397,-145.0949,1.0361,-27.9826,-14.5099,-54.9292,-77.7291,19.6916,72.5475,
124.9132,114.4655,-74.1022,-2.5908,108.3301,162.1397,-144.5763,2.5908,-21.2463,-16.0636,-47.1557,-79.2838,13.9913,81.3571,
109.9132,118.6665,-83.4299,-8.8092,100.012,161.159,-154.9402,12.9547,-33.6824,-20.2096,-56.4834,-80.3205,8.8092,80.3205,
94.9132,121.2578,-81.8757,-8.2911,90.1658,158.5677,-158.5677,13.4728,-43.5287,-24.8732,-58.0386,-83.9479,8.2911,67.3648,
93.7937,127.9942,-80.32,1.5547,85.5026,168.4135,-160.1224,-1.5272,-38.8646,-27.4641,-56.4839,-88.612,9.8458,67.8834,
91.2024,124.3667,-69.4385,-1.0366,79.8019,163.7498,-148.2038,1.0366,-25.9099,-20.7282,-47.6737,-74.6202,20.7282,80.838,
76.2024,109.3667,-69.4381,-11.4005,64.8019,148.7498,-151.3127,11.4005,-36.2737,-25.9094,-48.7103,-71.5113,12.4366,65.838,
75.6564,94.3667,-82.9113,-5.1822,54.9287,140.9499,-164.786,9.3277,-44.5643,-25.9099,-62.1836,-86.5113,5.1822,53.8925,
68.4014,97.4202,-67.9113,-3.1089,41.4559,138.8766,-149.786,3.1089,-29.5643,-13.4733,-47.1836,-71.5113,18.6549,66.3291,
53.4014,89.6482,-52.9113,-5.7002,26.4559,123.8766,-134.786,5.7002,-14.5643,-9.8458,-32.1836,-56.5113,26.4279,68.9205,
38.4014,80.838,-67.9113,-3.1089,11.4559,112.9662,-145.0954,8.2906,-29.5643,-11.401,-42.492,-55.9658,15.5455,61.1465,
42.492,75.6564,-70.4747,3.1089,4.146,106.7484,-152.3494,-3.1089,-42.492,-19.6911,-55.9648,-67.3653,4.146,57.0019,
57.492,90.6564,-67.8838,8.8092,19.146,121.7484,-147.6853,-8.8092,-37.8279,-34.6911,-61.665,-70.9923,15.028,59.5928,
58.0381,86.0207,-60.1103,2.0728,4.146,121.2583,-141.985,6.1908,-22.8279,-30.0554,-46.665,-65.292,26.947,57.0019,
53.892,81.8747,-52.8559,7.2549,-7.2549,115.039,-138.8761,16.5822,-15.546,-15.0554,-32.1282,-50.292,32.1282,61.147,
60.1108,78.7663,-55.9653,7.2549,3.1094,120.2217,-133.6944,1.5822,-27.9826,-15.546,-47.1282,-61.147,26.9465,58.0376,
60.6289,79.2833,-58.5566,4.6636,0.51807,124.8853,-127.9947,-0.51807,-26.4284,-26.4284,-44.0467,-61.666,38.8641,56.4834,
63.7378,90.6843,-72.0299,1.5547,-1.5547,130.0665,-137.3224,8.8087,-25.3918,-21.2463,-43.0101,-56.4839,46.1195,56.4829,
66.8472,82.3932,-57.0299,4.6641,-5.7002,118.667,-125.9219,5.7002,-11.9181,-6.2463,-36.7913,-52.3373,44.0472,52.3383,
56.4834,68.92,-42.0299,-0.51807,7.773,106.2299,-130.067,0.51807,-8.8092,-8.8092,-40.9373,-51.3017,50.2646,48.1923,
48.7103,83.92,-57.0299,-4.1455,16.5822,119.1855,-140.9494,4.1455,-11.3995,-14.5089,-47.6732,-54.9282,65.2646,62.1841,
43.5287,80.8385,-42.4925,4.1455,1.5822,115.039,-129.5489,5.1817,-4.1455,-16.5822,-37.3099,-57.0014,65.2925,61.147,
58.5287,80.3205,-39.9012,15.028,-8.8092,123.8491,-132.1402,8.8092,-10.8824,-23.319,-44.0467,-58.5566,58.5556,52.3378,
73.5287,95.3205,-49.2289,12.9552,-12.9552,132.1397,-132.1397,22.2824,-20.2101,-18.1369,-47.1557,-53.3745,61.6655,60.6284,
78.7658,109.8578,-60.1103,9.3277,-9.3277,131.6217,-136.8033,20.7282,-25.9099,-21.7643,-51.8193,-55.9648,51.8193,74.6202,
77.7296,96.3841,-64.2559,6.2183,1.0366,127.4761,-148.2038,5.7282,-26.946,-36.7643,-59.0742,-64.2559,43.5282,64.2559,
69.9561,95.8665,-49.2559,15.028,-13.9634,113.4848,-133.2038,6.7369,-11.946,-24.3552,-44.0742,-50.2646,58.5282,53.374,
54.9561,92.2395,-37.3104,16.5827,-28.9634,101.5667,-134.7311,10.3639,-10.3639,-22.8005,-39.3826,-53.8925,58.0381,53.8925,
47.6742,78.7653,-44.5648,18.6554,-13.9634,99.494,-144.0588,12.4366,-12.4366,-29.0188,-42.4925,-51.8198,60.1108,63.2202,
52.8559,77.7291,-35.2376,19.6916,-22.801,101.5662,-134.7306,11.4005,-11.4005,-17.6183,-36.2737,-44.5648,75.1108,55.9653,
58.5561,85.5026,-41.974,15.0275,-30.5735,110.3759,-143.5402,8.8096,-13.9913,-8.8096,-38.8646,-57.52,79.2838,55.4467,
43.5561,70.5026,-31.6106,12.9552,-40.9378,95.3759,-142.5041,9.8458,-9.8458,-21.2463,-32.6468,-55.4467,70.9928,52.3373,
45.0824,61.6655,-24.3557,24.3547,-40.9378,82.3932,-135.2491,9.8458,-9.8458,-24.3557,-35.7562,-43.0101,66.8472,37.3373,
57.5195,66.8467,-31.6101,21.2458,-55.9378,88.6115,-132.1402,11.9186,-11.9186,-20.2096,-38.8651,-50.2655,54.4101,30.573,
62.7022,72.0294,-33.6824,16.0641,-63.7383,92.7571,-134.2125,20.2096,-16.0641,-24.3552,-45.0829,-46.119,40.9373,44.0467,
77.2111,87.0294,-33.6824,20.2096,-48.7383,107.7571,-140.4303,27.4646,-20.2096,-20.2096,-54.4101,-46.119,46.12,59.0467,
62.2111,80.32,-27.4651,16.0636,-33.7383,97.9383,-137.3224,13.9913,-13.9913,-18.1369,-39.4101,-55.4477,52.3373,58.5561,
61.6655,79.2838,-28.5002,20.2101,-30.5735,86.5388,-129.0303,5.7002,-5.7002,-18.1369,-24.4101,-44.0462,65.8111,45.0834,
66.8467,89.6477,-34.7195,11.9186,-34.7195,101.5388,-123.8491,10.8824,-10.8824,-23.319,-33.6824,-48.1923,70.9923,37.8279,
55.4467,83.4294,-28.5012,9.8458,-19.7195,98.9754,-122.8125,20.2091,-9.8458,-21.2463,-31.6096,-55.4467,70.9928,44.0462,
47.1561,82.3927,-43.0106,17.1002,-10.8824,92.7571,-137.8125,10.8824,-13.9918,-25.3913,-46.6096,-61.665,59.5928,44.0467,
53.8925,89.1301,-40.4188,20.7282,-25.8824,103.639,-136.8033,8.2916,-8.2916,-26.946,-49.747,-55.9648,53.8925,44.5653,
68.8925,84.4665,-43.0101,20.2101,-40.8824,107.2665,-133.1759,9.8458,-9.8458,-27.4641,-45.0834,-60.6284,56.4839,43.0101,
76.1744,75.1383,-41.974,20.2091,-28.5012,92.2665,-134.213,5.7002,-5.7002,-21.2463,-40.9378,-62.7017,63.7378,46.1195,
61.1744,73.0655,-44.0467,11.9186,-43.5012,86.5393,-134.2125,3.6275,-3.6275,-26.4275,-46.119,-59.5928,50.2655,40.9373,
63.2197,88.0655,-53.8925,13.4733,-28.5012,101.5393,-130.5845,18.6275,-13.4733,-37.3094,-59.0742,-64.2559,46.6376,39.3836,
63.2202,91.2029,-46.6381,18.6554,-18.6554,96.3846,-125.4033,22.801,-21.7638,-41.4554,-52.8559,-70.4742,61.147,26.9465,
65.2925,82.9118,-50.7826,20.7277,-5.1817,90.1658,-131.6212,7.801,-24.8732,-39.3831,-53.892,-80.8385,73.5836,32.1282,
62.1831,83.947,-59.0747,12.4366,0,105.1658,-130.586,0,-20.7287,-33.1653,-54.9292,-86.0212,75.6559,47.1282,
47.1831,69.4385,-44.0747,14.5094,-15,105.7123,-119.185,15,-14.5094,-29.0193,-43.5282,-71.0212,65.293,40.4188,
50.7831,70.4747,-33.1648,23.8366,-16.5827,94.3118,-118.1489,16.5827,-17.6188,-29.0193,-46.6376,-64.2559,67.3653,30.0554,
45.6019,68.4019,-34.2005,17.6193,-22.8,86.0212,-107.7841,4.1455,-4.1455,-14.0193,-34.2005,-62.1831,82.3653,41.4564,
30.6019,53.4019,-31.0916,7.2545,-37.8,71.0212,-117.1128,5.1822,-5.1822,-15.5465,-33.1648,-50.7831,70.4747,26.946,
15.6019,43.0106,-20.2096,13.9908,-52.8,56.0212,-113.4848,15.028,-10.8824,-24.3552,-32.6463,-46.12,58.5556,22.2819,
11.4,29.0193,-7.2545,13.4733,-62.1836,41.0212,-98.4848,3.1089,-3.1089,-22.8005,-24.8737,-39.3826,57.0019,16.5827,
-1.5542,22.2829,-15.028,11.9186,-77.1836,26.0212,-106.2299,9.8453,1.5542,-25.3913,-26.4284,-32.6463,57.5195,4.6636,
-5.1817,31.092,-10.3643,16.5822,-92.1836,20.7277,-107.785,24.8453,5.1817,-30.0559,-20.7277,-34.2015,59.0747,6.2178,
3.1089,30.0554,-7.2545,22.8005,-86.0207,18.6549,-107.7846,10.3639,-3.1089,-25.9099,-30.0554,-37.3104,53.8925,13.4733,
3.627,36.7923,-6.7364,32.6468,-78.2477,29.5373,-115.5576,18.1369,-3.627,-11.9181,-30.5735,-27.4641,57.52,25.3918,
-11.373,23.8376,-2.0728,20.7282,-93.2477,14.5373,-120.2212,31.0925,2.0728,-17.6188,-20.7272,-22.8005,59.0742,12.4371,
-20.7277,32.1282,-5.1817,31.092,-102.6024,8.2911,-116.0761,26.9465,5.1817,-22.801,-22.801,-21.7638,62.1831,11.4005,
-5.7277,26.9465,-5.1817,37.3099,-95.3484,7.2549,-107.785,13.4728,-4.1455,-25.9104,-24.8732,-26.9465,50.7826,16.5822,
0.51856,18.1369,-0.51856,34.719,-106.2303,10.8819,-97.9393,19.173,-0.51856,-18.1369,-19.173,-23.3185,50.2651,18.1369,
-4.1455,22.801,-12.4366,33.1643,-91.2303,23.8371,-112.9393,27.9826,4.1455,-18.6544,-27.9826,-32.1282,53.892,19.6916,
-2.5908,21.2463,-10.8819,35.7562,-83.4294,16.0646,-108.3026,27.4651,2.5908,-31.6096,-21.2463,-30.5735,55.4467,19.173,
7.2549,36.2463,-22.801,31.092,-68.4294,15.546,-98.4568,12.4651,-7.2549,-38.347,-24.8732,-36.2737,63.2202,23.8371,
4.6641,50.2651,-27.4641,18.1369,-53.4294,24.3547,-103.1209,8.8096,-4.6641,-35.7552,-33.6829,-50.2651,74.1022,32.6458,
5.1817,45.6009,-20.7277,19.6916,-45.6009,37.3099,-117.1123,23.8096,-5.1817,-40.4193,-33.1643,-53.892,76.693,31.092,
20.1817,54.4101,-35.7277,21.2458,-38.8651,52.3099,-124.8853,27.4646,-20.1817,-37.8289,-37.8289,-58.5566,78.2472,33.6824,
23.8371,53.892,-38.347,12.4366,-43.5287,59.0737,-109.8853,25.9094,-12.4366,-22.8289,-32.1282,-50.7836,77.7291,35.2376,
11.9186,47.1561,-45.0829,9.8453,-44.0467,47.1561,-123.8491,19.1735,-9.8453,-27.4646,-45.0829,-51.3017,67.8838,24.3552,
25.3913,50.2646,-41.9735,11.9186,-41.9735,50.2646,-121.7759,16.0641,-11.9186,-25.3913,-37.8279,-52.3378,76.1749,33.6824,
33.1643,54.9292,-26.9735,10.3643,-49.7465,55.9653,-106.7759,20.7277,-10.3643,-14.5099,-22.8279,-45.6009,82.9118,48.6824,
33.1643,65.2925,-41.9735,11.4005,-34.7465,70.9653,-117.1123,22.801,-11.4005,-20.7277,-32.1282,-48.7103,80.8385,49.7465,
21.7643,66.3291,-55.9648,9.3277,-33.1648,68.4014,-125.4038,22.8005,-9.3277,-29.0193,-40.4198,-59.0742,69.4385,34.7465,
36.7643,78.2472,-49.2284,12.9547,-18.1648,77.2111,-119.7036,25.3913,-12.9547,-22.2819,-34.7185,-64.7744,72.0294,43.0106,
51.7643,73.5841,-45.6014,9.3277,-9.3277,89.1301,-118.1489,20.7282,-17.6188,-19.6911,-37.3104,-72.547,83.9474,55.9648,
43.0101,62.7017,-41.974,9.8458,-24.3277,82.3932,-113.4853,25.3918,-9.8458,-18.1369,-45.0834,-67.8834,85.5026,56.4829,
38.8646,77.7017,-56.974,7.7725,-9.3277,77.2116,-128.4853,21.2463,-24.8458,-32.6467,-60.0834,-82.3932,70.9928,52.3373,
35.2371,75.6564,-62.1836,-2.0728,2.0728,68.4024,-141.985,8.2916,-36.2732,-47.6467,-57.0009,-91.2024,71.5108,40.4198,
50.2371,67.8843,-62.7017,-2.5908,17.0728,76.1754,-135.2491,2.5908,-23.3185,-46.1195,-51.3012,-87.5749,83.4294,34.719,
64.2569,71.5108,-67.3653,-2.0728,30.0554,74.6202,-128.5123,2.0728,-21.7643,-35.2371,-53.8925,-95.3479,86.0207,40.4198,
49.2569,66.8477,-58.5556,-0.51807,15.0554,59.6202,-127.9947,5.6997,-27.4646,-36.7918,-49.2284,-90.6838,86.5383,41.9735,
42.4915,74.6197,-70.4752,0,7.2549,73.5836,-141.9855,0,-34.2015,-47.6742,-64.2284,-105.6838,81.8747,38.346,
49.7475,87.0573,-66.3287,4.1455,11.4005,77.7291,-129.5489,-4.1455,-27.9826,-42.4915,-63.2192,-118.1484,77.7291,32.1282,
47.1561,79.2843,-65.8106,4.6636,7.773,63.7383,-130.067,-4.6636,-34.7185,-37.8279,-59.5918,-103.1484,73.0655,26.4284,
62.1561,84.9836,-73.5841,-2.0728,22.773,78.7383,-137.8405,2.0728,-30.0554,-34.201,-62.1836,-93.2757,81.8752,41.4284,
76.6935,99.9836,-59.0742,-2.0728,34.201,93.7383,-124.3667,2.0728,-15.0554,-21.7643,-53.8925,-97.4202,93.2757,56.4284,
84.9841,114.9836,-67.3658,0,46.6371,108.7383,-131.6222,0,-17.6193,-20.7277,-62.1841,-109.8573,94.3113,49.7465,
71.5108,117.1118,-76.6935,-6.2183,34.201,118.1479,-141.986,6.2183,-31.0925,-31.0925,-63.2207,-117.1128,87.0568,55.9648,
66.8472,112.4482,-69.9566,-5.7002,23.3185,122.8125,-142.5041,5.7002,-28.5012,-32.6468,-64.7749,-114.5214,77.2106,70.9648,
81.8472,125.4038,-80.838,-6.2183,38.3185,130.5855,-137.8395,6.2183,-23.8366,-23.8366,-76.6925,-119.185,78.7658,65.293,
90.1653,119.185,-87.0568,-10.3639,38.3465,118.1479,-133.6949,10.3639,-21.7643,-17.6188,-73.5841,-111.9311,82.9113,50.7831,
89.6477,118.6665,-94.8294,-2.5913,28.5007,119.7036,-148.6949,2.5913,-31.6101,-27.4646,-84.466,-110.3754,85.5021,54.4111,
97.4207,129.5489,-87.0564,1.0361,43.5007,134.7036,-139.9122,-1.0361,-30.0549,-34.2005,-82.9108,-122.2939,91.2029,57.0014,
90.1663,136.8033,-80.839,-3.1089,48.7099,123.3306,-130.5855,3.1089,-26.946,-41.4559,-70.4747,-132.6578,79.8019,42.0014,
92.239,151.8033,-93.2752,0,39.3831,124.3672,-145.5855,0,-41.946,-49.7465,-84.9841,-135.7667,65.2925,36.2737,
92.7576,164.2679,-85.5017,1.5547,24.3831,137.3224,-157.013,-1.5547,-49.2279,-59.5923,-90.6843,-137.3214,55.4477,32.6468,
100.5306,172.0409,-79.8019,1.0366,29.0193,144.0583,-150.2771,-1.0366,-53.8925,-73.5841,-90.1663,-145.0944,43.5282,24.8737,
101.5667,176.1865,-68.4014,5.1822,29.0193,129.0583,-143.0221,-5.1822,-53.8925,-67.3653,-80.838,-136.8033,46.6376,17.6188,
96.3846,171.0043,-65.2925,8.2911,14.0193,114.0583,-143.0226,-8.2911,-42.4925,-52.3653,-75.6569,-124.3672,53.892,8.2911,
105.1932,178.7768,-80.2925,5.7002,12.9542,122.8125,-148.7229,-5.7002,-45.0834,-57.52,-90.6569,-135.2491,50.2651,15.0275,
90.1932,172.0414,-68.4019,2.0733,14.5099,119.1845,-136.8038,-2.0733,-50.7836,-62.1831,-86.0202,-129.5489,49.7465,30.0275,
75.1932,163.2313,-67.8838,4.6636,13.9908,104.1845,-136.2858,-4.6636,-44.0467,-52.3378,-73.0655,-116.5942,56.4834,35.7557,
80.3205,148.7224,-60.6289,7.773,-1.0092,94.8294,-127.9947,1.5542,-29.0467,-38.8651,-60.6289,-120.7397,68.92,37.8279,
78.7663,133.7224,-48.7103,4.1455,-4.1455,89.1296,-122.2939,14.5099,-21.7638,-34.2005,-55.9653,-117.1123,79.8024,37.3099,
74.6202,118.7224,-63.7103,2.0728,-2.0728,97.4212,-136.8033,9.3277,-24.8728,-30.0544,-64.2559,-107.7846,78.7658,45.6014,
70.9932,124.8853,-55.4472,16.0641,-17.0728,92.7571,-127.9947,5.6997,-9.8728,-15.0544,-49.2559,-92.7846,75.1388,58.5556,
74.6202,122.2944,-53.8915,20.7282,-13.4723,94.3118,-127.4761,10.3639,-10.3639,-15.5455,-45.6005,-98.4563,75.6574,51.8202,
75.6559,112.9667,-61.147,11.4005,-11.4005,93.2752,-130.586,18.6544,-22.801,-23.8371,-60.6005,-112.9667,69.4381,38.346,
66.3291,104.6751,-46.147,17.6188,-26.4005,78.2752,-116.0756,21.7643,-17.6188,-30.0554,-54.9287,-104.6751,64.2559,38.3465,
57.0014,104.6756,-31.147,26.9465,-41.4005,69.4381,-118.1484,14.5099,-14.5099,-35.2376,-39.9287,-101.5662,74.6197,46.6381,
42.0014,89.6756,-31.6101,11.9465,-56.4005,54.4381,-119.7036,7.773,-7.773,-30.573,-30.573,-102.0843,66.8477,38.8651,
27.0014,74.6756,-38.3465,6.2183,-71.4005,46.6376,-114.0034,11.4,-6.2183,-19.6921,-36.2742,-91.2024,59.0742,35.2371,
26.4284,67.8838,-43.0096,15.028,-56.4005,59.5928,-116.5942,10.8824,-10.8824,-20.2096,-33.6824,-93.7932,74.0742,43.0106,
20.7272,67.3653,-45.6014,13.4733,-41.4005,51.8193,-122.2944,6.2183,-6.2183,-20.7282,-30.0554,-95.3479,89.0742,43.5282,
20.7282,66.3291,-60.6014,14.5094,-30.0554,55.9648,-130.5855,9.3277,-9.3277,-16.5817,-45.0554,-98.4573,83.9474,46.6376,
15.0275,64.774,-51.3012,13.9913,-32.6467,63.7378,-123.8486,15.0275,-13.9913,-15.0284,-43.0101,-102.0848,74.1022,45.0824,
26.9465,76.693,-41.4554,16.5822,-22.801,70.4742,-122.2939,13.4728,-13.4728,-18.6554,-37.3099,-97.4207,74.6207,45.6009,
41.9465,81.3571,-55.4467,13.9913,-7.801,77.2116,-131.1036,7.7725,-20.2091,-31.6096,-47.1556,-108.3026,69.9566,52.3373,
43.5282,67.3653,-54.9287,7.2545,-7.2545,71.5108,-127.4761,9.3277,-23.8366,-39.3826,-46.6376,-117.1128,69.4385,40.4188,
48.1923,75.1388,-62.7012,0.51807,-0.51807,73.0655,-137.3219,6.7369,-31.6101,-38.8651,-54.4101,-120.7397,66.8477,27.4646,
47.6737,86.0197,-51.8202,10.3639,-10.3639,68.4014,-128.5132,12.4361,-21.7643,-33.1648,-39.4101,-114.0034,72.547,42.4646,
41.974,80.321,-49.2289,22.2824,-22.2824,57.52,-121.7754,17.1007,-17.1007,-36.7913,-35.7552,-108.3026,79.2838,49.2289,
48.7108,86.0207,-59.0742,17.6188,-19.6911,72.52,-123.3306,20.7282,-17.6188,-31.0916,-43.5282,-103.639,81.8752,44.5653,
43.5287,78.7663,-48.7103,13.4728,-34.6911,61.147,-118.1484,25.9094,-13.4728,-19.6916,-33.1643,-97.4207,74.6197,44.5648,
49.2289,77.2116,-58.5561,16.0636,-19.6911,53.3745,-130.0674,17.1007,-18.1369,-22.2824,-45.0834,-110.3759,74.1022,43.0101,
47.6742,77.7291,-68.4019,10.3643,-8.2911,57.0014,-134.7306,8.2911,-16.5822,-19.6916,-50.7826,-116.0761,77.7291,35.2376,
39.9012,69.9561,-62.7022,9.8453,-23.2911,47.1561,-131.1031,15.028,-9.8453,-18.1374,-35.7826,-107.267,68.92,33.6824,
44.0462,70.9928,-64.7749,10.8819,-38.2911,41.974,-136.2853,16.0636,-10.8819,-28.5012,-26.4279,-106.2303,64.774,38.8646,
35.2371,66.3291,-62.1836,9.3277,-53.2911,26.974,-133.6949,14.5094,-9.3277,-26.946,-23.8376,-99.4935,64.2559,33.1638,
39.3836,73.5841,-69.4376,13.4733,-58.0381,24.8737,-130.5855,18.6549,-13.4733,-24.8728,-36.2732,-104.6752,55.9658,35.2381,
49.2289,72.0299,-64.774,18.1369,-43.0381,37.8284,-122.8125,21.2463,-18.1369,-29.5373,-34.719,-114.5214,61.6655,38.8646,
49.747,63.2197,-51.8202,22.8005,-28.0381,42.492,-119.185,17.6188,-20.7282,-24.8737,-26.946,-107.7846,76.6655,39.3826,
43.5287,63.2202,-66.8202,8.2911,-13.0381,44.5648,-133.6944,5.1817,-21.7638,-22.8,-41.946,-122.2939,72.5475,45.6009,
28.5287,49.2289,-76.1744,-2.5908,-28.0381,34.719,-118.6944,10.8819,-6.7638,-16.0636,-30.5735,-115.5576,72.0299,46.1195,
16.0636,34.2289,-73.066,5.7002,-39.9017,23.3185,-111.412,13.9913,-5.7002,-25.3918,-25.3918,-106.2303,75.1383,35.7552,
31.0636,43.0106,-60.6289,20.2096,-24.9017,37.8279,-116.5942,21.2458,-20.2096,-29.5369,-26.4284,-112.4487,78.2472,40.9373,
36.2742,49.747,-64.2559,10.3639,-25.9099,52.8279,-123.3306,16.5827,-10.3639,-32.1277,-27.9822,-108.8207,72.5479,32.1287,
41.4559,59.0742,-79.2559,5.1822,-19.6911,64.2559,-127.4761,11.4,-5.1822,-30.0554,-32.1287,-100.5296,73.5841,34.201,
36.7923,49.2289,-64.2559,10.8819,-32.6458,49.2559,-116.5937,18.1369,-10.8819,-24.3547,-23.3185,-103.1209,77.2116,46.1195,
38.346,44.5648,-49.7465,13.4728,-35.2376,34.2559,-121.2578,13.4728,-13.4728,-23.8371,-29.0188,-109.8573,69.4381,31.1195,
46.119,55.4472,-55.4472,10.8824,-29.5369,19.2559,-120.7397,6.7369,-6.7369,-23.319,-31.6101,-108.3031,58.5556,16.1195,
39.9007,49.2279,-45.0834,13.9913,-44.5369,6.7364,-111.412,16.0636,-6.7364,-23.3185,-21.2463,-98.9754,46.1195,13.9913,
47.1552,49.2284,-30.0834,27.4646,-51.3017,11.9186,-119.7036,26.4275,-11.9186,-23.319,-20.2096,-95.8665,51.3007,28.9913,
34.2015,34.2284,-15.0834,18.6554,-61.147,-3.0814,-120.2217,12.4366,-9.3272,-24.8732,-20.7277,-97.4207,58.0386,14.5099,
31.6101,25.3913,-0.083373,18.1374,-46.147,-10.8824,-113.4848,8.8092,-5.6997,-21.2458,-22.2819,-94.8294,62.7022,7.773,
36.2737,34.2005,-13.4728,19.6916,-43.5287,4.1176,-121.2578,13.4728,-17.6183,-30.0549,-37.2819,-106.7479,57.0014,20.7277,
30.0559,26.9465,-7.2549,13.4737,-58.0376,12.4366,-123.3301,7.2549,-24.8732,-35.2366,-39.3821,-111.9296,46.6381,16.5822,
45.0559,36.2737,-4.1455,17.6183,-43.0376,7.2549,-118.1484,4.1455,-23.8371,-27.9826,-37.3099,-104.6756,50.7836,14.5099,
41.4554,37.3099,1.0361,20.7277,-28.0376,-1.0361,-110.8935,15.546,-18.6544,-22.8,-26.9455,-94.3113,53.893,22.801,
26.4554,25.3923,-0.51807,18.1374,-39.9012,0.51807,-119.7026,18.1374,-23.318,-27.4636,-23.318,-101.0482,49.2284,31.6101,
26.4279,24.3557,-5.7002,15.0275,-24.9012,5.7002,-121.7764,11.919,-21.2463,-29.5373,-30.5735,-116.0482,55.4467,34.719,
25.3913,19.1735,9.2998,16.0641,-21.2458,-9.2998,-106.7764,10.8824,-10.8824,-28.5007,-27.4646,-110.3754,59.5928,21.2458,
31.6101,23.319,-3.6275,13.9908,-21.2458,3.6275,-115.5581,9.8453,-25.8824,-31.6101,-34.7195,-111.4125,55.4472,8.8092,
44.0467,23.319,-8.8092,8.8092,-16.0641,18.6275,-123.8482,10.8824,-30.573,-29.5369,-24.3552,-119.7026,57.5195,23.8092,
44.5648,22.8,-4.1455,8.2911,-27.9826,6.2178,-123.3311,4.1455,-17.6193,-31.092,-25.9104,-115.04,51.8198,38.8092,
56.4834,37.8,-4.6636,18.1374,-12.9826,4.6636,-116.5942,12.9547,-6.7369,-16.092,-26.4275,-106.2299,60.6289,39.9012,
48.1923,26.4275,-7.773,3.6275,-3.6275,16.0641,-118.6675,15.027,-8.8101,-12.9557,-22.2829,-107.267,63.7373,26.4275,
52.3378,25.3913,-19.1735,-8.8092,11.3725,24.3552,-130.067,8.8092,-16.0641,-19.1735,-35.7557,-113.4848,59.5928,31.6101,
52.8559,39.3821,-7.2549,4.1455,-3.6275,9.3552,-118.1494,13.4728,-4.1455,-8.2921,-24.8742,-109.8583,66.3287,38.346,
37.8559,24.3821,2.0728,14.5094,-18.6275,-5.6448,-110.894,12.4361,-2.0728,-18.6549,-21.7643,-99.4935,72.547,23.346,
37.3104,24.8737,-2.0728,20.7282,-33.6275,2.0728,-108.8207,26.947,-6.2183,-23.8366,-22.8005,-89.1291,81.8752,21.7643,
32.1287,25.9099,2.0728,7.2554,-32.1277,-3.1089,-109.8568,29.0193,-2.0728,-17.6178,-8.2906,-94.3108,76.6935,22.8015,
17.1287,18.6549,1.0366,9.3277,-26.946,-14.5094,-123.3306,17.6188,-1.0366,-12.4371,-11.4,-103.639,72.547,20.7282,
2.5908,13.9913,5.7002,24.3277,-37.8284,-2.5908,-112.4482,23.3185,-4.6641,-4.6641,-10.8819,-90.6843,72.0289,35.7282,
-3.6275,15.028,3.6275,23.319,-52.8284,6.7369,-112.4487,28.5007,-16.0641,-12.9547,-12.9547,-91.721,57.0289,34.7195,
8.2911,25.9094,-8.2911,17.6183,-48.7103,12.4366,-126.4405,24.8732,-25.9104,-27.9547,-27.9547,-106.721,42.0289,26.9455,
0.51807,12.9547,-0.51807,23.319,-54.4111,0.51807,-115.5581,24.3552,-29.5378,-33.6834,-29.5378,-110.3764,36.7918,30.573,
2.0728,13.4733,-2.0728,27.9831,-39.4111,3.1089,-110.894,25.9099,-31.0916,-31.0916,-24.8728,-106.7484,21.7918,27.9831,
5.1817,19.6916,-4.1455,16.5822,-42.4925,4.1455,-115.04,20.7277,-31.092,-36.2737,-27.9826,-116.0761,7.254,17.6183,
5.1822,20.7282,10.8545,30.0554,-49.747,-5.1822,-106.7484,22.8005,-22.8005,-30.0554,-19.6911,-101.0761,22.254,16.5827,
9.8458,22.2824,15.0275,41.973,-34.747,-10.8829,-106.2303,20.2091,-18.1369,-22.2824,-9.8458,-86.0761,37.254,12.9542,
-5.1542,7.2824,23.319,31.6101,-36.7918,-25.8829,-96.9026,26.4284,-3.6275,-20.2096,5.1542,-78.2472,51.3017,5.7007,
-9.3277,-1.0366,27.9822,36.2732,-51.7918,-20.7282,-94.3118,41.4284,1.0366,-16.5827,4.145,-69.4385,47.6737,18.6549,
-5.1817,7.2549,35.2376,47.6742,-66.7918,-5.7282,-96.3846,48.7103,0,-8.2911,0,-61.147,44.5648,33.6549,
-17.6183,-4.1455,49.7465,46.6381,-72.5475,-20.7282,-86.0202,48.7104,4.1455,-4.1455,15,-46.6371,44.5648,21.7648,
-7.2544,-2.0728,41.4559,47.6747,-75.6564,-29.0183,-88.093,54.9296,2.0728,-5.1812,16.5827,-46.6376,49.747,12.4371,
-15.546,-5.1827,43.5287,44.5648,-87.0573,-33.1643,-97.4207,51.8198,3.1094,-3.1094,13.4728,-48.7103,44.5648,17.6183,
-30.546,-20.1827,47.1561,43.0106,-92.7571,-44.0467,-95.8655,43.0106,4.6636,-4.6636,12.9557,-40.9373,34.7195,15.028,
-45.546,-30.0554,46.6376,47.6737,-107.7571,-58.0381,-81.8752,48.7108,12.4371,-6.2183,22.8005,-35.2371,41.4559,6.2183,
-60.546,-33.6829,61.6376,62.6737,-122.7571,-73.0381,-73.0655,62.7017,26.4279,-0.51856,37.8005,-25.3918,48.1918,0.51856,
-57.0019,-24.8737,64.2559,74.6202,-127.4766,-80.839,-87.0573,65.292,19.6911,-2.0728,24.8728,-25.9099,42.492,2.0728,
-62.1831,-27.9826,67.3658,73.5836,-121.2578,-86.0202,-73.5836,60.1108,20.7277,0,27.9826,-13.4728,42.4925,0,
-77.1831,-42.9826,70.4747,70.4747,-136.2578,-96.3846,-65.2925,59.0742,24.8737,1.0366,38.3465,-1.0366,43.5282,-6.2183,
-81.8752,-43.5287,77.7286,73.5831,-143.0221,-91.2029,-76.693,72.547,24.8728,2.0728,41.4559,-3.1099,48.7099,-2.0728,
-87.5749,-50.2651,87.5754,68.92,-141.4674,-106.2029,-74.1017,68.92,20.2096,-2.5913,41.9735,2.5913,36.7918,-7.773,
-98.4568,-54.9282,82.9118,75.6569,-140.9489,-109.8568,-68.4014,60.1108,17.6193,-4.1455,36.2737,4.1455,21.7918,-8.2911,
-113.4568,-66.3291,92.239,86.0202,-155.9489,-118.1489,-61.1475,69.4381,27.9826,2.0723,44.5648,-1.0361,6.7918,-10.3643,
-127.9942,-66.8472,88.6111,82.3932,-170.9489,-120.7397,-69.9566,72.0289,28.5012,1.5547,39.9007,4.6641,-1.5547,-17.1007,
-122.2944,-57.0014,78.7658,78.7658,-155.9489,-105.7397,-76.693,63.2197,17.6188,-6.2183,32.1277,6.2183,9.3277,-7.2544,
-137.2944,-72.0014,92.239,78.7653,-170.9489,-120.7397,-69.4385,58.0376,16.5822,-12.4366,38.346,5.1817,11.4005,-5.1817,
-122.2944,-59.0737,87.0573,77.7301,-155.9489,-125.4029,-71.5108,59.0747,18.6554,-4.1455,27.9826,4.1455,10.3643,-12.4366,
-111.9306,-53.8925,79.8024,72.5475,-149.2405,-125.4033,-69.4385,63.2202,19.6916,-1.0361,25.9094,1.0361,1.0361,-19.6916,
-119.1853,-51.8195,94.8024,87.5475,-164.2405,-117.1125,-54.4385,78.2202,34.6916,5.1819,40.9094,16.0361,-10.3641,-5.1819,
-125.9217,-46.1193,105.1935,95.8662,-179.2405,-111.4118,-62.7014,88.6113,32.646,0.51832,48.192,28.5005,-25.3641,-0.51832,
-133.6947,-61.1193,108.8214,84.9843,-178.2595,-126.4118,-65.2928,73.6113,33.1646,5.1819,43.5279,21.7641,-40.3641,-5.1819,
-138.3585,-76.1193,106.2303,97.9393,-184.9961,-140.4313,-68.92,76.1744,36.7913,12.9552,45.0824,25.3918,-50.265,-12.9552,
-144.0583,-74.6202,110.8944,100.5301,-198.9869,-141.9855,-60.1103,81.8747,39.3831,16.5822,50.7836,37.3099,-65.265,-16.5822,
-143.0221,-68.4019,125.4033,97.4207,-188.6236,-143.0221,-51.8198,81.8747,39.3831,10.3639,52.8559,44.5648,-80.265,-10.3639,
-128.0221,-62.7014,113.485,106.2301,-173.6236,-128.0221,-65.8108,80.3207,28.501,2.5911,46.1193,37.8282,-95.265,-2.5911,
-113.0221,-68.9197,109.339,103.1212,-161.1588,-119.7034,-64.7742,88.6113,35.7554,4.6639,54.4108,35.7554,-110.265,-4.6639,
-100.012,-62.7017,100.012,91.721,-148.7224,-115.5576,-65.8111,83.4299,34.7185,0.51807,41.9735,20.7554,-125.265,-0.51807,
-109.8578,-61.1475,92.239,89.1296,-143.0221,-123.3306,-65.293,68.4299,30.0549,1.0361,39.3831,5.7554,-140.265,-1.0361,
-101.0482,-66.8472,101.0477,96.9021,-151.8313,-123.8491,-56.4834,75.1383,45.0549,9.8458,54.3831,19.173,-155.265,-9.8458,
-86.0482,-51.8472,92.7571,90.6848,-136.8313,-108.8491,-66.8472,90.1383,46.12,3.6275,52.3378,11.9186,-153.9041,-3.6275,
-98.4573,-44.5648,93.2747,88.093,-121.8313,-93.8491,-67.3658,84.9836,36.2732,3.1089,52.8554,4.145,-157.5315,-3.1089,
-98.9754,-39.9007,82.3932,103.093,-107.2665,-90.6838,-67.8834,76.1754,33.6829,8.8096,61.6655,5.7002,-157.013,-5.7002,
-91.2029,-36.2742,73.5836,89.1296,-120.2217,-97.4212,-75.6569,76.693,38.346,0,52.8559,0,-154.4226,1.0361,
-103.639,-49.7465,87.0568,76.6935,-134.7311,-109.8573,-77.7291,68.4014,36.2742,-3.1089,46.6376,6.2183,-151.3132,3.1089,
-88.639,-48.1923,77.2116,91.6935,-119.7311,-101.0482,-79.2838,59.5923,27.4641,8.8096,41.974,-1.5547,-145.613,1.5547,
-73.639,-37.8284,80.3205,102.0843,-104.7311,-90.6843,-70.9932,69.9561,38.8641,18.1364,54.4101,-7.773,-132.1402,7.773,
-61.147,-31.092,74.6197,87.0843,-110.894,-89.1296,-79.8024,73.5836,36.2737,4.1455,44.5648,-4.1455,-129.5489,9.3272,
-67.3653,-21.7643,73.5841,87.0568,-115.0395,-86.0207,-83.9479,73.5841,33.1648,-2.0728,42.492,2.0728,-126.44,10.3639,
-76.6935,-36.2742,86.0197,93.2747,-126.44,-96.3846,-78.7663,67.3653,37.3094,2.0728,52.8554,4.145,-119.1855,-2.0728,
-63.7378,-31.6096,76.1744,87.5749,-111.44,-81.3846,-84.466,67.8834,29.5373,2.5908,44.0462,0.51856,-104.1855,-0.51856,
-55.9648,-24.8732,75.6569,79.8024,-99.493,-66.3846,-81.8747,74.6207,34.2015,0,49.7475,0,-89.1855,12.4376,
-62.1831,-27.9826,78.7663,83.9479,-110.894,-68.4014,-79.8019,74.6207,40.4193,-3.1094,50.7836,3.1094,-93.2752,15.546,
-66.3291,-29.0193,75.6564,84.9836,-101.5662,-72.5475,-79.8024,74.6202,35.2371,1.0366,46.6376,-1.0366,-81.8752,20.7282,
-69.4381,-38.3465,74.6207,77.7291,-107.7846,-87.5475,-77.7291,67.3658,31.092,4.1455,50.7836,-4.1455,-66.8752,15.546,
-57.5195,-27.4636,61.666,84.466,-92.7846,-82.3927,-89.6477,56.4834,27.4646,7.773,43.0106,-7.773,-51.8752,15.028,
-66.3287,-24.8728,67.3653,88.094,-78.7658,-67.3927,-88.093,64.2569,27.9831,10.3639,49.747,-10.3639,-36.8752,17.6188,
-78.2472,-27.4641,77.2111,87.5754,-80.32,-63.7378,-78.2472,79.2569,31.6101,8.8092,56.4834,-8.8092,-21.8752,17.1012,
-82.3927,-23.318,62.7022,85.5031,-84.4655,-68.9195,-89.6477,76.1749,23.319,-0.51807,41.4834,-17.1002,-6.8752,17.1012,
-87.0568,-22.8005,58.0381,81.8752,-94.3118,-76.693,-93.2752,61.1749,13.4733,-9.3277,33.1648,-23.8366,8.1248,15.5455,
-72.0568,-9.8458,56.4829,80.32,-81.3566,-61.693,-100.012,63.7378,9.8458,-15.0275,31.6096,-36.7923,21.2463,16.0636,
-65.8111,-10.8824,56.4834,75.1388,-95.8665,-58.5561,-97.9393,74.1017,18.1364,-13.9918,37.8279,-37.8279,34.7195,10.8824,
-80.8111,-25.3913,56.4834,68.92,-110.8665,-73.5561,-94.8299,65.8106,20.2096,-6.7369,35.7557,-27.4646,39.9012,6.7369,
-89.1296,-35.2376,50.7836,57.0014,-125.8665,-82.9113,-108.8212,50.8106,13.4728,-9.3272,29.0188,-27.9826,32.1282,9.3272,
-89.1296,-41.4559,65.2925,62.1831,-124.3672,-96.3846,-98.4573,52.8559,28.4728,-7.2549,44.0188,-14.5099,35.2376,7.2549,
-77.2111,-28.5007,65.8106,77.1831,-110.3759,-89.6477,-85.5021,61.665,32.6463,-1.5542,57.5195,-8.8092,50.2376,1.5542,
-78.2477,-33.6829,64.774,74.1022,-120.7397,-92.7571,-91.721,60.6284,24.3547,-2.5908,48.1918,-17.1007,59.5923,2.5908,
-92.7571,-46.1195,68.92,67.8838,-135.7397,-101.0487,-103.1214,61.665,26.4275,-3.6275,49.2284,-8.8092,44.5923,3.6275,
-83.4294,-31.1195,57.5205,77.2111,-120.7397,-86.0487,-100.0115,67.8838,33.6834,-3.6275,45.0829,-5.6997,46.12,3.6275,
-78.7663,-16.1195,62.1831,76.693,-116.0761,-83.9479,-94.3118,69.4381,37.3099,-4.1455,43.5277,-5.1827,50.7826,4.1455,
-66.3291,-2.0728,47.1831,68.4014,-111.9301,-74.6202,-109.3118,57.0019,22.3099,-19.1455,28.5277,-20.1827,35.7826,2.0728,
-51.3291,12.9272,40.9373,70.9932,-96.9301,-59.6202,-111.412,57.5195,7.3099,-31.6101,16.0641,-35.1827,33.6834,0.51807,
-36.3291,27.9272,55.9373,77.2111,-81.9301,-45.0829,-96.9026,68.92,4.6636,-30.573,26.4284,-35.7557,43.0106,-4.6636,
-21.3291,42.9272,57.519,81.3561,-66.9301,-30.0829,-100.012,66.8472,5.7002,-23.3195,29.5364,-26.4279,41.973,-5.7002,
-9.3277,57.9272,60.1103,76.6925,-63.2197,-21.7643,-92.239,55.9648,9.3277,-24.8737,36.2732,-40.4193,27.9822,-20.7002,
-5.1822,72.9272,59.0742,74.6202,-52.8564,-19.6921,-94.3118,50.7831,5.1822,-31.0916,29.0183,-49.747,18.6549,-27.9831,
-0.51856,87.9272,44.0742,62.7017,-50.2651,-4.6921,-109.3118,47.1556,-9.8178,-34.719,16.0636,-59.5928,11.9181,-12.9831,
0.51807,88.6115,49.2284,63.7373,-55.4472,-0.51807,-105.1942,54.4101,-3.6275,-31.6101,28.5007,-56.4839,25.3913,-8.8092,
-8.2911,90.1667,55.9653,74.6207,-55.9648,-13.4728,-97.4207,60.1108,8.2911,-25.9094,32.1282,-45.6009,36.2737,-18.6544,
-23.2911,75.1667,68.4014,69.4376,-70.9648,-28.4728,-87.0573,58.0381,18.6549,-18.6549,42.492,-36.2742,22.8005,-21.7643,
-38.2911,60.1667,66.3291,66.3291,-85.9648,-43.4728,-92.2385,58.0381,24.8737,-13.4733,41.4559,-35.2371,13.4733,-15.5455,
-53.2911,45.1667,52.3378,61.665,-95.8665,-43.0106,-107.2385,53.374,11.9186,-11.9186,26.4559,-48.1928,17.1002,-23.319,
-68.2911,30.1667,63.2202,63.2202,-109.8573,-58.0106,-103.639,50.7836,8.2911,-7.2549,27.9826,-41.4559,26.9465,-29.0188,
-83.2911,15.1667,65.8111,72.0299,-100.0115,-63.7378,-94.8294,57.52,20.2101,-2.5908,40.9378,-30.5735,31.6106,-14.0188,
-87.5749,0.16674,72.0294,70.9932,-108.3031,-59.5923,-84.466,63.7383,26.4284,-1.5542,47.1561,-25.3918,29.5369,0.98122,
-80.3205,-4.6641,77.2116,75.1383,-96.9026,-44.5923,-84.466,68.9205,21.2463,-0.51856,48.1918,-22.2824,36.7923,0.51856,
-91.2029,-11.401,64.2559,68.4014,-94.3118,-42.4925,-95.3484,64.2559,17.6188,-2.0728,43.5282,-35.2376,36.2732,2.0728,
-106.2029,-26.401,67.3653,69.4385,-109.3118,-57.4925,-86.0207,60.1103,25.9099,3.1089,47.6737,-32.1282,24.8737,-3.1089,
-118.1489,-27.9826,69.4385,83.9474,-120.2217,-52.8559,-80.8385,63.2197,26.946,3.1089,44.5643,-27.9826,32.1277,-3.1089,
-112.4487,-37.8284,70.9928,68.9474,-105.2217,-58.5561,-82.3932,55.4467,25.3918,-2.5908,48.1918,-33.6829,35.7552,2.5908,
-123.3311,-48.7108,64.2564,54.9282,-107.785,-73.5561,-88.0935,44.5648,23.8371,0,46.6371,-30.0559,29.0188,0,
-120.2212,-48.7103,54.9287,63.2197,-101.5662,-84.9841,-92.239,40.4198,21.7643,4.146,39.3826,-36.2732,42.492,-4.146,
-129.0308,-61.665,62.7022,59.5928,-106.2299,-81.3566,-86.5388,39.9012,29.5369,7.773,47.1561,-44.0467,51.3017,-7.773,
-134.7311,-57.0014,50.7831,47.6737,-112.9667,-68.4019,-99.4935,35.2371,21.7643,3.1089,39.3826,-54.9287,36.3017,-3.1089,
-133.6944,-53.8925,46.6376,41.4559,-126.4395,-71.5108,-101.5662,41.4559,16.5827,-1.0366,36.2742,-57.0014,34.201,1.0366,
-134.213,-65.8111,55.4472,52.3378,-120.7397,-83.4299,-91.721,51.3017,24.3552,7.773,41.9735,-42.0014,43.0096,-7.773,
-140.9494,-64.2564,51.8193,53.8925,-108.8212,-74.6202,-95.3479,40.4198,19.6911,7.2545,40.4198,-40.4188,40.4198,-7.2545,
-143.5402,-60.6289,59.5923,51.3012,-123.8212,-76.1749,-87.5749,32.6467,16.0646,-0.51856,49.2289,-39.9012,38.8646,0.51856,
-128.5402,-51.3017,54.4106,54.4106,-113.4853,-75.1388,-93.7937,38.8646,11.9181,1.5547,43.0101,-41.974,39.9007,-1.5547,
-113.5402,-44.0462,53.3745,52.3373,-109.3393,-66.8472,-102.0848,44.0462,10.8819,4.6641,41.974,-44.0462,41.974,-4.6641,
-119.185,-48.7103,66.3291,51.8193,-124.3393,-75.6569,-92.239,38.3465,12.4361,1.0366,46.6376,-30.0554,39.3826,-1.0366,
-120.7392,-53.374,59.5928,58.5566,-139.3393,-83.4294,-91.7205,33.6834,4.6636,-4.6636,36.7918,-29.5369,32.6463,7.773,
-132.1397,-61.665,61.665,61.665,-139.3947,-91.7205,-95.866,45.0829,4.6636,-3.6275,41.9735,-35.7557,28.5007,3.6275,
-133.1764,-52.3378,58.5556,59.5928,-124.3947,-80.3205,-94.8299,47.1561,9.8453,-2.5913,35.7557,-37.8279,34.7185,2.5913,
-127.9947,-53.3745,54.4101,57.5195,-114.5214,-80.321,-85.5026,36.7918,17.1002,-3.6275,22.2819,-40.9378,39.9002,3.6275,
-124.3672,-63.2197,61.147,66.3287,-106.7484,-75.6569,-88.0935,42.4915,23.8371,-7.2549,33.1643,-44.5648,39.3831,7.2549,
-116.5942,-51.3017,48.1918,63.7378,-91.7484,-60.6569,-102.0848,44.0462,13.9913,-13.9913,33.6829,-56.4834,36.7923,15.0275,
-123.8486,-50.2651,50.2651,52.3383,-105.1937,-61.665,-96.9026,33.6829,6.7364,-6.7364,29.5373,-55.4467,35.7562,10.8819,
-131.6217,-46.6371,43.5287,52.8559,-104.6756,-64.2564,-105.7118,35.2376,0,0,15.546,-57.0014,33.1643,0,
-125.4033,-39.3826,45.6014,62.1836,-93.2752,-49.2564,-103.639,50.2376,10.3639,-1.0366,25.9099,-58.0381,37.3104,1.0366,
-126.958,-54.3826,60.6014,57.5195,-103.1209,-45.0834,-90.6843,47.1561,16.0641,-4.6636,40.9099,-47.1561,36.7918,4.6636,
-123.3306,-52.8559,50.7836,45.6009,-93.2752,-52.8559,-98.4573,34.2015,5.1817,-5.1817,25.9099,-44.5648,30.0549,7.2549,
-124.8853,-59.5923,51.3012,40.9378,-108.2752,-67.8559,-98.9754,28.5012,7.7735,-4.6641,25.3918,-53.374,23.3185,4.6641,
-112.9667,-58.0381,55.9653,50.7836,-118.1484,-72.5475,-94.3118,31.092,11.4005,-4.1455,34.2005,-53.8925,30.0549,4.1455,
-102.6029,-43.0381,52.8554,51.8193,-103.1484,-62.1836,-95.3484,40.4188,6.2183,1.0366,36.2732,-53.8925,38.3465,-1.0366,
-103.1209,-28.5002,55.4467,51.3012,-88.1484,-59.5923,-92.7571,47.1557,13.9913,4.6641,37.8284,-51.3012,40.9378,-4.6641,
-88.1209,-30.0549,42.4925,47.6742,-89.1296,-49.7465,-98.4568,32.1557,13.4728,1.0361,22.8284,-61.147,40.4193,-1.0361,
-93.7937,-45.0549,43.0101,35.7552,-86.5388,-62.7022,-95.8665,27.4641,7.7725,2.5908,27.4641,-64.7749,48.1918,-2.5908,
-104.6752,-55.9648,51.8198,35.2376,-78.7653,-77.7022,-99.4935,42.4641,12.4366,7.2549,37.3109,-59.0742,49.7475,-7.2549,
-94.8299,-46.1195,54.4101,46.119,-93.7653,-73.0655,-103.1209,46.119,12.9547,0.51807,34.7185,-54.4106,39.9012,-0.51807,
-90.6843,-49.2284,66.8472,52.3383,-108.7653,-62.7017,-88.1209,39.9007,7.7735,-3.627,43.0101,-44.0467,38.8646,3.627,
-87.5754,-56.4834,58.5556,50.2646,-93.7653,-64.7744,-94.8299,38.8651,0.51807,-0.51807,39.9012,-48.1923,44.0467,0.51807,
-89.6482,-62.7017,59.5923,43.0101,-89.6482,-79.7744,-107.2665,40.9378,8.8096,1.5547,41.974,-54.4106,38.8646,-1.5547,
-83.9474,-61.1465,69.439,53.893,-104.6482,-79.8019,-97.4202,33.1653,14.5099,-4.1455,41.4564,-49.7465,32.1282,4.1455,
-76.1749,-55.4472,65.8106,66.8467,-98.9754,-64.8019,-89.6482,25.3913,11.9186,-6.7369,30.573,-51.3017,46.119,6.7369,
-81.8752,-53.8925,68.4019,67.3648,-92.239,-62.1836,-82.9118,40.3913,14.5089,0,37.3099,-42.4925,55.9653,0,
-68.4019,-40.4188,58.0381,63.2197,-91.2024,-53.8925,-89.1296,50.7831,8.2916,-1.0366,35.2371,-45.6014,44.5653,1.0366,
-66.8472,-39.9012,64.7744,57.5195,-103.1209,-59.5928,-84.466,43.0106,9.8453,-2.5913,35.7557,-57.52,39.9012,2.5913,
-68.4019,-37.3104,79.7744,67.3658,-90.1662,-62.1836,-76.693,37.3099,13.4728,1.0361,44.5648,-45.6014,54.9012,-1.0361,
-54.4106,-22.3104,64.7744,69.9561,-75.1662,-47.1836,-91.693,38.8651,2.5913,-2.5913,32.6463,-49.2289,61.665,9.8453,
-53.893,-17.6188,49.7744,55.9648,-60.1662,-32.1836,-98.4578,37.3094,6.2183,-6.2183,27.9822,-52.8564,49.746,19.6911,
-39.3831,-6.2188,41.4554,49.7465,-45.1662,-17.1836,-99.4935,26.9465,4.1455,-4.1455,18.6554,-55.9653,46.6371,19.6916,
-30.0554,1.0366,44.5653,41.4559,-38.3465,-2.1836,-94.3113,20.7282,-7.2544,-7.2544,14.5094,-70.9653,46.6376,17.6188,
-42.4925,-13.9634,59.0747,39.3831,-49.7465,-16.5822,-93.2752,34.2005,4.1455,-4.1455,25.9094,-68.4019,46.6371,14.5089,
-52.8564,-28.9634,44.0747,36.2732,-58.0381,-31.0925,-104.6756,32.1277,6.2183,-6.2183,24.8728,-64.2569,45.6005,10.3639,
-62.7017,-38.8641,38.8651,33.6834,-73.0381,-46.0925,-97.9388,19.1735,4.6636,-4.6636,29.5378,-62.7017,47.1561,8.8092,
-67.8829,-41.9735,41.9745,41.9745,-88.0381,-52.3378,-106.2299,16.0641,3.6275,-3.6275,21.2468,-67.8829,52.3378,12.9557,
-70.9932,-43.0106,40.9373,40.9373,-73.0381,-38.8651,-107.2665,17.1002,7.773,-7.773,17.1002,-79.2843,52.3378,19.1735,
-66.3291,-43.5282,38.3465,33.1648,-74.6202,-32.1277,-98.4568,17.6188,5.1822,-5.1822,18.6549,-70.4747,37.3378,10.3639,
-51.3291,-28.5282,31.0925,47.6747,-69.4376,-18.6549,-105.7113,18.6559,-2.0728,2.0728,9.3277,-65.292,31.0925,7.2554,
-42.4925,-17.6183,43.5287,57.0014,-58.0376,-14.5099,-100.5301,21.7638,3.1094,-3.1094,19.6916,-65.293,45.6009,12.4366,
-43.0106,-10.8824,34.7195,42.0014,-43.0376,-0.51807,-106.2299,21.2458,0.51807,-17.1002,17.1002,-74.1022,47.1561,12.9547,
-28.0106,1.5547,23.3185,33.6829,-39.9007,-1.5547,-114.5214,15.0275,-2.5908,-17.1007,2.5908,-89.1022,32.6467,4.6641,
-13.0106,16.5547,37.3104,45.6014,-37.3104,-3.1089,-106.7484,17.6188,3.1089,-17.6188,6.2183,-96.3846,31.0916,-7.2554,
1.9894,31.5547,22.3104,36.2737,-22.3104,11.8911,-121.7484,15.546,-11.8911,-32.6188,-8.7817,-111.3846,18.6544,-15.546,
16.9894,46.5547,7.3104,32.6467,-7.3104,26.8911,-135.2491,17.1007,-16.0636,-41.974,-17.1007,-117.6303,13.9913,-7.7725,
31.9894,61.5547,2.5908,39.9007,-2.5908,40.9378,-130.067,7.7725,-7.7725,-26.974,-19.173,-114.5214,12.9552,-12.9552,
46.9894,76.5547,-5.7002,32.6458,10.8819,55.9378,-133.1764,10.8819,-22.7725,-34.719,-29.5373,-122.8125,5.7002,-12.9552,
51.3017,91.5547,9.2998,32.6463,3.6275,61.665,-123.8491,24.3552,-32.6463,-41.9745,-24.3552,-111.4125,-3.6275,-8.8092,
50.7831,106.5547,12.4371,38.3465,9.3277,46.665,-126.44,9.3552,-37.3104,-46.6376,-38.3465,-109.8578,-9.3277,-22.8005,
52.3378,91.5547,5.7007,28.5007,7.773,31.665,-134.2125,-1.5542,-37.8279,-53.374,-40.9373,-110.3754,1.5542,-29.5369,
37.8284,76.5547,6.7364,26.4279,-6.7364,16.665,-139.3947,11.9181,-32.6468,-49.2289,-35.7552,-103.1209,8.8096,-18.1369,
29.0188,67.3658,12.4366,36.2737,-21.7364,11.4005,-124.3947,21.7638,-18.6554,-34.2289,-30.0559,-99.494,9.3272,-9.3272,
14.5094,52.3658,27.4366,47.6747,-36.7364,-3.5995,-109.3947,26.946,-3.6554,-19.2289,-15.0559,-84.494,21.7643,1.0366,
0,37.3658,23.8361,57.0014,-21.7364,0,-100.5306,30.0549,-6.2188,-16.5831,-8.2921,-69.494,36.7643,16.0366,
-12.9542,22.3658,37.8284,58.5561,-26.4279,1.5547,-98.9749,33.6829,-1.5547,-15.0275,-5.7002,-64.774,38.8646,26.4279,
-22.2829,8.8092,48.1923,59.5928,-41.4279,-9.8453,-83.9749,35.7557,7.773,-12.9547,-7.773,-68.92,30.574,15.028,
-37.2829,4.1455,45.6009,65.2925,-56.4279,-17.6193,-79.8024,39.3821,13.4728,-4.1455,-5.1827,-62.1841,40.4193,22.8,
-52.2829,-10.8545,54.9292,53.892,-71.4279,-32.6193,-92.239,24.3821,16.5822,-7.2549,8.2911,-55.9653,38.346,7.8,
-67.2829,-25.8545,59.0742,59.0742,-86.4279,-47.6193,-95.3479,23.8366,19.6911,-3.1089,6.2183,-48.7103,40.4188,3.1089,
-79.8024,-35.2376,58.0376,64.2564,-81.8752,-55.9653,-83.9479,38.346,11.4005,4.1455,-4.1455,-45.6014,40.4193,14.5089,
-94.8024,-48.1918,54.4111,58.5566,-96.8752,-66.8467,-89.6477,24.3552,2.5913,-0.51807,0.51807,-46.119,26.4284,10.8824,
-86.0207,-47.6742,44.5653,57.0019,-81.8752,-54.9287,-103.639,16.5827,6.2183,-6.2183,9.3277,-50.7831,26.946,8.2916,
-83.9479,-51.8198,50.7826,62.1831,-88.0935,-57.0014,-88.639,31.5827,7.2549,-3.1094,7.2549,-45.6014,26.9465,3.1094,
-79.8024,-44.5653,52.8559,68.4019,-92.239,-57.0019,-77.7296,46.5827,1.0361,0,0,-41.4559,20.7277,6.2178,
-92.7571,-51.3012,56.4834,57.5195,-104.1571,-60.6289,-84.466,31.6101,2.5913,-2.5913,8.8092,-43.0101,19.1735,4.6636,
-107.7571,-65.293,67.3653,65.292,-116.0761,-71.5113,-83.9479,26.946,16.5817,2.0728,20.7272,-31.092,26.946,-2.0728,
-100.5301,-71.5113,52.3653,60.1103,-116.0761,-73.5841,-96.3846,25.9099,9.3277,3.1089,5.7272,-34.201,17.6188,-3.1089,
-102.0848,-74.1022,52.3378,64.7744,-120.7397,-80.3205,-92.7571,27.4646,8.8092,3.6275,8.8092,-30.574,17.1002,-3.6275,
-104.6756,-76.693,59.0747,68.4019,-126.4395,-86.0202,-89.1296,29.0188,8.2911,3.1094,12.4366,-25.9099,16.5822,-3.1094,
-107.2665,-79.2838,64.7739,72.0289,-131.1036,-92.7571,-84.466,30.5735,7.7725,3.627,17.1007,-22.2824,16.0636,-3.627,
-109.8578,-80.839,71.5103,75.6559,-136.8038,-98.4573,-80.839,32.1282,8.2911,3.1094,21.7638,-17.6188,15.546,-3.1094,
-111.412,-83.4294,77.2111,80.3205,-141.4674,-105.1937,-77.2111,32.6463,7.773,3.6275,26.4284,-13.9913,15.028,-3.6275,
-113.485,-86.5385,83.4296,83.4296,-147.686,-111.4123,-73.0658,34.7193,6.7366,3.6272,30.5737,-8.8094,15.0277,-3.6272,
-128.485,-94.8299,82.3932,79.2838,-162.686,-120.7397,-70.9928,49.7193,-0.51807,0.51807,17.1002,2.5908,4.6636,-9.8458,
-143.485,-102.0846,95.8662,84.4658,-170.4865,-108.3029,-55.9928,62.7019,-0.51832,3.6277,26.4282,0.51832,7.7733,-0.51832,
-153.3857,-117.0846,109.8576,91.2021,-178.259,-123.3029,-48.7101,58.0378,9.3275,-3.1092,41.4282,4.1458,3.1092,-9.3275,
-138.3857,-102.0846,100.5303,98.4571,-163.259,-115.0392,-58.0378,52.8561,6.2186,-6.2186,36.2735,9.3275,10.3641,-12.4369,
-129.0306,-95.8662,104.1578,97.939,-148.259,-100.0392,-43.0378,49.2287,3.6272,-3.6272,41.9737,8.8094,25.3641,-11.9183,
-136.8033,-110.8662,107.785,96.3846,-163.259,-115.0392,-38.3465,43.5287,4.1455,-4.1455,48.7103,11.4005,17.6188,-18.6549,
-147.1677,-124.3672,100.5296,87.0568,-178.259,-130.0392,-53.3465,44.5643,6.2183,0,44.5643,7.2544,2.6188,-22.801,
-162.1677,-135.2491,100.0115,72.0568,-177.7412,-132.1397,-58.5561,45.0829,9.8458,4.6636,44.0467,13.9913,-4.6636,-20.2096,
-160.1224,-120.2491,102.0848,78.2477,-162.7412,-117.1397,-46.1195,40.9373,13.9913,5.7002,38.8646,22.2824,-11.9186,-5.7002,
-145.1224,-112.9667,117.0848,93.2477,-171.0043,-132.1397,-33.1643,44.5648,24.8737,10.3639,48.7103,27.9826,-26.9186,-10.3639,
-136.285,-116.5939,118.6667,100.0123,-166.3404,-147.1397,-32.646,49.2287,24.3554,17.1005,53.3742,32.6465,-17.1005,-23.3188,
-142.5036,-113.4848,103.6667,85.0123,-151.3404,-132.1397,-40.9373,37.8284,12.9552,9.8458,41.974,17.6465,-9.8458,-20.2096,
-147.6858,-107.2665,114.5209,87.5754,-157.0135,-117.1397,-31.6101,47.1556,22.2824,4.6636,50.2651,12.9547,-13.9913,-5.2096,
-139.9127,-98.4568,109.8578,95.3479,-162.7132,-118.1484,-38.3465,59.0742,18.6554,2.0728,41.4559,16.5827,-16.5822,-2.0728,
-130.0672,-105.194,113.485,86.5385,-161.1588,-118.6667,-26.4282,55.447,20.2094,7.7728,49.2287,28.501,-11.9183,-7.7728,
-128.5127,-110.894,123.3301,92.239,-146.1588,-103.6667,-21.7643,50.7831,20.7277,10.3639,53.892,36.2737,-10.3639,-12.4371,
-132.14,-95.894,115.5578,102.0841,-144.5766,-88.6667,-33.6826,65.7831,10.8822,7.7728,46.1193,33.6826,-9.8455,-7.7728,
-140.9491,-100.5299,111.9298,103.6388,-159.5766,-103.6667,-33.1646,80.7831,14.5096,5.1819,57.0017,33.1646,-15.5458,-5.1819,
-130.5855,-104.6756,108.8207,109.8578,-167.8954,-116.0761,-35.2376,65.7831,25.9094,8.2911,59.0742,27.9826,-19.6916,-8.2911,
-127.4761,-108.8212,121.2583,99.4935,-152.8954,-101.0761,-26.946,54.9287,29.0193,6.2183,59.0742,23.8371,-15.5455,-6.2183,
-114.0029,-101.5662,124.3672,104.6756,-137.8954,-87.0568,-19.6916,60.1108,23.8371,4.1455,59.0742,26.9465,-8.2911,-4.1455,
-110.3754,-100.0115,109.3672,102.0848,-134.2125,-102.0568,-34.6916,45.1108,8.8371,4.6636,44.0742,12.9552,-4.6636,-19.1455,
-111.412,-115.0115,105.1942,87.0848,-119.2125,-117.0568,-37.8284,34.719,16.0641,10.8824,41.974,7.773,-7.773,-34.1455,
-96.412,-100.0115,112.4489,80.3207,-104.2125,-102.0568,-32.6465,49.719,23.3188,10.8822,48.192,6.7366,-6.7366,-26.4277,
-81.412,-85.0115,105.712,92.2393,-119.2125,-87.0568,-23.8369,64.719,18.6552,14.5096,45.6012,7.2547,-7.2547,-15.5458,
-96.412,-95.3479,97.4207,91.2019,-134.2125,-102.0568,-34.201,52.8559,16.5822,19.6916,31.0916,22.2547,-16.5822,-30.5458,
-98.9754,-88.6115,102.0848,90.6843,-119.2125,-111.4125,-33.6829,49.2284,16.0641,17.1002,26.4279,29.5369,-16.0641,-40.9378,
-83.9754,-88.0935,117.0848,91.2024,-108.8212,-99.494,-18.6829,61.147,8.2911,11.4,40.4193,23.8371,-8.2911,-46.6376,
-91.7207,-89.6479,103.1212,89.6474,-119.7034,-114.494,-28.501,50.2648,3.6272,13.9911,33.6826,20.2099,-3.6272,-61.6376,
-106.7207,-94.8296,88.1212,79.2841,-104.7034,-122.8123,-43.501,35.2648,9.846,8.8094,28.501,20.2099,-8.8094,-54.4103,
