"AF3","AF4","F3","F4","F7","F8","FC5","FC6","O1","O2","P7","P8","T7","T8",
-1.4126,-31.5456,-7.0621,-482.6013,33.4293,-475.068,-232.1192,8.9458,-360.1852,1.4126,12.7125,7.0621,14.5953,5.1792,
12.7722,-15.5528,4.6606,-467.7452,22.948,-460.6639,-204.0921,-1.9493,-352.6741,-11.8558,-2.1503,5.6969,3.3612,1.1018,
9.2057,-24.0116,-9.719,-453.7805,9.3298,-447.1241,-177.7465,8.526,-343.7804,2.0392,7.3698,19.4551,-2.49,7.6266,
4.4156,-8.4709,0.72723,-440.6536,22.87,-434.3966,-152.9817,-0.93135,-309.0536,-2.321,17.7572,4.1878,11.7594,10.4654,
18.2506,-22.0627,-13.4164,-428.3144,10.2226,-422.4328,-157.9028,13.2245,-304.6104,10.5312,2.5918,13.3531,-3.0461,15.9586,
3.9979,-25.9181,-7.9284,-416.7156,23.7092,-397.6573,-154.5001,4.9229,-272.2338,-4.2007,16.5362,9.256,11.2366,6.9962,
15.0575,-10.263,6.6473,-377.6126,29.3738,-359.6979,-131.1301,8.3937,-241.7997,-8.2115,1.4441,-0.71592,-3.0669,-7.5236,
13.213,4.4528,-2.2012,-369.0559,19.1371,-352.216,-109.1623,20.1327,-213.1918,6.3812,3.2161,13.427,-13.2408,-2.3883,
2.0614,18.2856,12.0309,-339.0329,32.0889,-335.7916,-88.5126,4.8247,-208.3295,-2.4513,7.7308,-1.4786,1.6536,-3.1868,
16.0377,3.0885,-2.791,-332.7909,30.1886,-329.7441,-97.3018,18.6352,-209.9297,11.7958,-0.26587,12.7101,-5.0124,11.1044,
6.6258,-11.1968,-7.332,-326.9235,40.6182,-324.0594,-105.5637,3.4171,-204.8918,-3.0119,4.4586,2.5565,9.3884,2.9299,
18.4695,3.575,7.2079,-293.2081,34.4144,-290.5159,-85.1299,-3.4052,-178.4983,-7.5402,-5.2259,-4.1887,6.9668,-8.5457,
20.1861,2.4691,0.20914,-261.5156,18.2496,-258.9849,-65.9221,10.8991,-153.6884,7.0122,-2.0876,10.1626,-7.5512,-1.4416,
5.3211,11.2668,14.2966,-231.7247,31.2546,-229.3458,-47.8668,-3.8548,-158.5671,-4.2117,6.9844,-4.5472,7.0019,-3.7092,
19.1018,-3.5092,-0.66121,-231.9212,23.7294,-229.6851,-59.0948,10.4764,-163.1531,10.141,-7.0895,9.8257,0.93184,8.2844,
10.9178,-17.3986,-14.7215,-232.1059,24.1894,-230.004,-69.6491,-0.48597,-167.4639,-0.33056,-2.8975,7.377,5.584,-2.5711,
9.7929,-2.2547,0.26176,-204.0795,26.9754,-202.1037,-51.3701,-9.4022,-143.316,-8.3147,-0.36917,-7.1656,11.37,3.7043,
4.4964,4.4469,-11.5245,-177.7348,11.2568,-175.8775,-34.1879,5.2619,-120.6171,3.4841,-0.34702,5.9521,-3.4122,0.65683,
5.1689,18.2801,3.2669,-152.9707,24.6814,-151.2249,-18.0366,-9.1538,-99.2801,-9.9077,13.7738,-2.8797,10.8926,-5.9744,
18.9588,3.0833,-11.0291,-157.8924,9.5467,-156.2514,-31.0544,5.4954,-107.4233,4.7868,-1.1526,2.4723,-0.59058,-4.2033,
3.7212,-11.2017,-24.4673,-162.5189,-4.2102,-160.9763,-43.2912,4.7201,-115.0779,4.053,5.9791,-1.4431,10.7452,-5.8344,
5.3808,3.5704,-8.8993,-138.6678,8.7553,-137.2177,-26.5937,-5.4509,-94.0732,-7.0193,3.2658,-6.5353,13.3955,-3.1308,
12.1201,-10.7439,3.4048,-116.2477,-5.87,-114.8846,-10.8981,8.9762,-74.3288,7.5018,-3.9922,7.9569,-1.5083,0.3534,
-2.7071,1.1756,17.3005,-95.1728,8.5822,-93.8916,-18.1234,-4.721,-55.7691,-0.45648,10.3473,-5.6791,12.6822,-7.6722,
11.5553,-12.9949,2.1625,-103.5625,-6.0327,-102.3581,-31.136,9.2171,-66.5229,13.2248,5.0426,2.666,-2.1787,-3.9155,
7.0958,-26.3153,-6.4415,-111.4487,-9.9332,-110.3166,-43.3678,3.9556,-76.6315,14.3146,9.4485,3.448,-0.65999,-5.5639,
-0.39248,-10.6363,8.045,-90.6618,-1.3323,-89.5976,-26.6657,-3.3443,-57.9337,-0.64426,3.7029,-10.8589,13.4796,-3.8179,
13.7311,-24.0982,-6.5377,-71.1221,-15.3524,-70.1217,-39.1658,10.9564,-40.3576,13.4944,7.7176,3.8926,-1.4292,10.5112,
-1.1928,-8.5523,7.9546,-52.7548,-3.6271,-51.8144,-47.6946,-3.801,-23.8362,9.8604,15.7305,6.4842,12.7566,-4.2195,
3.5868,6.0609,-3.3277,-63.6895,-17.5095,-62.8056,-58.933,7.7269,-36.506,4.0892,0.68671,0.91553,-2.1088,-0.19972,
-2.7495,-7.9562,-1.715,-73.9681,-29.6676,-73.1372,-41.297,16.2087,-48.4156,6.1974,14.7455,14.9606,-2.9237,9.7,
-12.9425,6.6212,12.4879,-66.6552,-13.7876,-54.649,-24.7192,1.1362,-31.4107,-8.2745,14.8018,-0.037042,11.3517,-4.982,
1.9341,-7.8761,-2.3614,-48.5559,-20.9394,-39.5246,-37.336,15.168,-43.6261,6.322,5.909,14.0652,-3.4294,9.4169,
-12.282,6.6964,11.8803,-31.5425,-11.2077,-23.0531,-49.1958,7.1958,-54.6127,-8.1573,-2.9195,-0.87873,0.072722,-5.2481,
2.5549,20.3947,21.0803,-43.75,-13.3609,-35.7699,-32.1441,13.3563,-65.436,-7.2213,-9.3366,-7.4178,-9.3482,-1.6624,
0.54338,23.9291,5.7154,-55.225,-21.5046,-47.7237,-16.1155,10.2005,-65.7722,3.0997,2.0527,7.1273,-9.2589,-2.0333,
2.8652,34.264,18.5302,-64.6239,-6.1144,-50.535,-1.0485,-4.5115,-47.7259,-11.1863,9.9335,-7.4004,5.3966,-4.2658,
16.7933,18.1081,3.3184,-74.8465,-11.8435,-61.6029,-15.0856,9.8591,-58.9623,3.5849,-0.079479,5.2849,-9.0272,3.5234,
1.6857,2.9216,-3.9679,-56.2557,2.9671,-43.8068,-28.2805,4.5591,-41.3246,0.54415,14.0253,-1.1528,5.6145,-3.7501,
-1.2406,16.8463,9.9241,-38.7804,-11.3109,-27.0784,-12.4836,-5.6017,-24.7451,-11.2586,-0.91623,-13.7961,1.0653,-13.4124,
-4.9332,18.6353,0.85354,-22.3535,-16.2822,-11.3537,2.3654,-1.4994,-9.1604,-6.8169,-0.8608,-8.2598,0.059505,-10.7243,
-4.1665,14.2212,-5.3188,-12.9587,-18.6012,3.4276,16.3234,4.7107,5.4892,0.6546,6.2534,0.23971,1.4681,-4.9021,
-6.2697,6.3059,-13.9446,-10.7682,-22.6643,17.3219,29.444,7.7253,19.2599,4.8531,9.1745,5.4054,0.90973,-2.2539,
-6.3651,1.6902,-20.1704,-7.768,-25.5418,28.1534,41.7774,12.4406,32.2043,10.6821,14.7442,12.1427,1.3259,2.1186,
-7.3953,-2.6486,-25.0813,-4.0061,-27.3052,33.5262,53.3708,17.8143,40.3087,16.1623,19.0393,18.4767,2.6585,6.2289,
-5.539,-5.786,-28.7556,0.4712,-28.0214,39.5186,52.2008,23.8076,39.3023,23.1961,25.9004,25.3716,3.9115,11.0343,
-19.3067,-0.25962,-12.9303,-13.6571,-12.2401,23.0475,34.9687,8.2791,22.8442,7.7043,20.1086,9.7493,17.7768,3.3102,
-6.4023,-14.344,-26.2545,-26.9376,-14.7765,7.5647,18.7706,16.704,7.3735,19.9303,9.486,19.9689,2.6102,17.2116,
-17.7892,-27.5834,-38.7792,-39.4214,-2.1189,-6.9892,3.5444,16.173,-7.1689,24.8552,23.0168,29.6004,16.5536,27.0326,
-15.7804,-11.8284,-22.3525,-22.9561,-12.3502,7.5301,17.4317,1.1026,7.3613,9.2639,15.5402,13.7243,16.5278,11.3107,
-0.73358,-12.5559,-17.2447,-7.4787,-18.2006,21.1783,30.4858,14.1945,21.0196,21.8661,17.4325,20.4086,5.1772,11.5489,
-14.7896,2.2975,-2.11,7.07,-3.0085,15.1754,14.5567,-0.75712,5.6584,6.4542,21.0951,5.0841,18.9666,-3.2441,
0.19781,-11.9404,-16.0834,-7.4542,-9.8659,0.1649,-0.41674,9.1505,-8.7811,8.3968,5.7294,4.2837,3.7286,0.22188,
-9.6763,-25.324,-29.2184,-21.107,-4.5655,-13.945,-14.4917,-0.81506,-22.3542,6.0088,19.4856,1.202,11.5088,-0.73331,
-8.1538,-9.7045,-13.3653,-5.7405,-9.0001,0.9917,0.47777,-11.1241,-6.913,-8.4517,6.5459,-12.9701,13.644,-10.1059,
6.4354,-9.5934,1.5366,8.7039,-14.1095,15.0322,-13.6509,3.6433,7.6018,6.1554,9.9198,1.9081,-1.2747,4.6005,
-8.0507,-0.54269,15.5444,22.2817,0.83704,28.2303,-26.9318,-10.6753,-6.9543,-8.314,13.0908,-11.39,12.9018,-6.0094,
6.5323,-14.6101,0.51176,6.8448,-6.2511,12.4365,-39.4159,-8.6231,-20.6371,-0.77765,2.4176,-2.7027,-1.9723,-0.46914,
4.2817,-27.8335,-13.1482,-7.6659,-5.4049,-2.4097,-51.151,-0.10129,-33.4988,13.369,16.3725,11.5595,6.5957,-0.91216,
-8.217,-12.0635,1.7407,-13.3517,2.4522,-16.3651,-33.9819,-14.1952,-17.3889,-1.5331,1.2902,-3.2341,16.5579,-10.274,
6.3761,-25.4397,-9.6384,1.5494,-11.7949,-1.2832,-46.043,0.7565,-2.2456,12.6589,9.217,11.06,1.4644,4.4425,
-8.1065,-9.8133,5.0399,15.5565,-5.4619,4.8893,-53.3417,-11.5297,11.9892,-2.2007,13.3727,-3.7036,15.4766,3.2595,
6.4799,4.8755,-6.5379,0.52308,-9.8431,-9.504,-64.2412,-1.4218,-2.8302,-3.4808,-1.5297,-3.9521,5.131,4.0054,
-5.1837,-3.8917,-8.9704,-13.6083,-4.5436,-23.0338,-46.2867,9.0219,-16.7604,8.0279,11.7207,10.385,15.1824,11.2983,
-16.6442,10.4418,5.6678,-26.8918,9.829,-35.7517,-29.4095,-5.6194,-1.6547,-6.5537,13.371,-4.3381,28.3715,-2.0925,
-1.5455,-4.2847,-8.7723,-39.3783,-4.8607,-47.7066,-41.7449,8.8173,-15.6555,6.9976,5.5067,10.0222,12.5692,10.7455,
-15.5528,-18.1276,1.6413,-22.9156,8.1438,-30.7442,-53.3403,-4.4242,-0.61614,3.2823,16.005,5.2086,25.915,4.9225,
-2.8481,-2.94,4.8388,-35.6407,-6.4448,-42.9996,-36.0398,0.078593,-3.9493,8.2641,0.94466,0.65871,14.0268,-0.55255,
5.7979,-1.8222,-3.9267,-47.6022,-13.1461,-54.5196,-19.7774,14.1739,-17.8124,21.8683,14.988,14.7192,2.8263,13.5806,
-8.2043,-0.30023,4.3138,-58.8461,1.297,-65.3484,-32.6908,-0.77655,-23.8308,6.4562,8.4397,-0.26396,13.4867,10.4368,
6.3879,-14.3822,-10.045,-69.4153,-12.8809,-75.5275,-44.8294,13.37,-36.5009,20.1688,2.2827,13.8519,-1.4225,18.2859,
-5.7413,-27.6193,-18.4132,-65.3743,-0.36203,-59.8705,-56.2396,3.1768,-43.2817,4.8587,8.2666,0.80452,12.7629,3.5342,
4.4909,-11.8621,-3.2084,-47.3519,-11.1695,-42.1782,-38.7652,-6.9015,-26.5848,-9.5328,-6.3294,-13.3437,-2.1029,-3.7404,
3.2798,2.9496,0.30435,-42.1319,-13.3247,-45.7438,-22.3393,7.6126,-10.8897,0.90157,-9.2708,1.5569,-6.7105,5.9008,
-8.2171,16.8726,14.3861,-25.504,1.5748,-28.8992,-6.8989,-6.9442,-24.3364,-13.2525,-3.0644,-12.6365,7.7921,-5.7533,
6.3759,1.7603,-0.57707,-38.0737,-8.3817,-41.2652,-20.585,7.5725,-36.9762,-0.71118,-9.0016,1.2789,-6.7754,2.5959,
-8.1066,-12.4453,-1.4846,-49.8893,6.2212,-52.8893,-33.4499,-5.0986,-23.9289,-3.023,5.6385,-5.8604,7.7311,-1.7972,
-4.7951,2.4014,12.7045,-32.796,11.0518,-35.616,-17.3429,-13.2673,-8.3932,-16.0243,-0.7959,-19.6088,20.4748,-8.2812,
1.6128,15.9116,3.9633,-16.7282,-3.7114,-19.379,-2.2023,1.6287,6.2104,-0.96287,2.5487,-4.3322,5.1463,-3.547,
-12.5839,25.3154,17.8255,-1.6245,10.6113,-4.1163,1.7215,-12.569,-1.1742,-14.5344,16.4957,-18.1723,18.9375,-5.217,
0.85896,9.6964,2.656,-15.627,-4.1254,-17.9693,-12.4818,2.2851,-15.2037,-1.8908,1.406,-3.9225,3.7013,6.8666,
-10.0217,-4.9853,-11.6034,-28.7894,5.9848,-30.9911,-25.8329,-4.8895,-28.3915,-5.0733,8.8549,-4.1588,17.5792,3.1587,
-3.2998,9.4138,3.1929,-12.962,7.9798,-15.0317,-10.1829,-18.2509,-12.588,-12.7733,2.202,-18.0092,24.0582,-5.0353,
2.5481,9.2946,-11.0987,1.9157,-6.599,-0.029763,4.528,-3.0558,2.2673,2.0931,7.7198,-2.8287,8.5147,3.742,
-8.9046,20.9782,3.6672,15.9007,7.8969,14.072,-8.4565,-10.3802,15.7851,-12.1325,14.7908,-11.6043,22.1038,0.69316,
1.5174,5.6195,-10.6528,0.84669,1.3025,-0.8723,-22.0491,-1.7534,0.73801,-7.1677,-0.19665,-13.2626,6.6776,0.17996,
-12.6737,-8.8176,-24.1137,-13.3041,13.9372,-14.92,-34.8262,1.6477,-13.4063,-0.6165,0.73153,0.2461,1.5442,4.4074,
-6.2884,5.8114,-8.5668,1.5941,20.1622,0.075237,-18.6366,-11.1637,1.4981,-14.6795,-9.2005,-13.8687,12.2803,-2.92,
5.3888,-5.3915,-9.0193,15.5985,4.8524,14.1707,-11.4228,3.6062,15.5082,-1.1113,-19.9484,1.0635,-2.5565,2.9047,
-9.0345,9.032,5.6218,28.7626,18.6613,27.4205,3.3625,-10.7102,28.6777,-13.2864,-4.6515,-9.8295,11.6969,2.7308,
0.42833,-5.6099,-8.8155,12.9368,3.4416,11.6753,-10.9392,-1.1218,12.8571,-9.1933,9.7276,-1.2358,-3.1049,-2.6118,
-6.1887,-19.3733,-22.3865,-1.9394,7.4483,-3.1253,-24.3829,2.7126,-2.0144,2.6586,23.244,2.6054,5.0612,-3.397,
0.30369,-4.1109,-6.9433,12.277,21.1014,11.1623,-8.8199,-11.5501,12.2065,-11.6009,17.2164,-11.6509,13.7029,-1.781,
9.7016,-17.9643,-17.8266,25.6404,5.7353,24.5925,-22.3907,3.2429,6.2949,3.1951,7.7088,3.1482,-1.2193,9.6257,
-4.9805,-5.14,-2.657,38.2019,11.0411,37.217,-6.9473,-1.6602,20.0172,-2.6465,21.3462,-1.7501,12.9539,3.8699,
5.181,9.2684,-1.0599,21.8098,-3.7213,20.8839,-20.1839,0.32272,4.7162,-7.1962,5.9655,-9.1779,-1.9234,-6.7203,
1.5742,-0.20846,3.241,6.4012,-10.5852,5.5309,-4.8728,0.77407,-9.6668,2.1809,2.7824,5.4728,-15.908,0.74454,
-3.699,12.5161,17.1465,-8.0828,0.87907,-5.0844,9.5195,-11.0438,5.0132,-12.0499,13.4446,-8.0142,-0.85349,-3.5375,
10.6229,-2.3349,2.0177,-7.548,-13.2737,-18.8794,-5.1516,3.7188,-9.3876,2.7731,2.2799,6.5667,-14.9023,5.1499,
-3.173,4.3719,15.9967,7.0049,1.6227,-3.6466,3.6576,-3.0702,5.2757,-11.0467,3.085,-6.985,-0.40391,-7.4008,
7.8465,18.2096,27.3032,-7.5154,0.11234,-17.5278,17.5382,-9.9485,-9.1409,-15.5636,-11.2001,-16.4536,-14.4797,-9.3113,
3.1379,4.9004,11.565,-21.1645,-10.7231,-30.5762,30.5859,4.7484,-22.6924,-0.52978,3.5719,-1.3664,-18.3444,-0.74818,
-2.6998,18.7063,24.9711,-21.803,4.0203,-37.2664,42.8507,-4.4573,-7.2309,-14.598,10.8904,-8.3223,-3.1438,-8.2365,
11.5622,3.484,9.3729,-34.5948,-10.3209,-49.1304,26.1797,9.9101,-20.897,0.37789,-3.863,6.277,-17.0552,1.6747,
0.063446,-10.8251,2.1941,-18.4191,4.3983,-32.0826,10.5089,-4.7845,-5.5432,-2.4445,9.998,1.6881,-1.9318,-7.3721,
11.3604,3.9244,16.1624,-3.214,3.6888,-16.0576,23.9784,-5.9104,8.8894,-9.831,-3.7855,-12.5132,-9.7948,-18.2296,
13.0332,17.789,4.3886,-5.8208,-6.4203,-2.8274,36.6397,8.5442,22.456,4.8588,1.6213,2.3376,-23.3071,-7.2481,
9.4256,30.8216,18.2253,8.6284,8.0649,5.8174,39.224,-6.0685,7.0087,-7.1787,-1.3007,-11.9026,-7.8087,-9.638,
22.9601,14.8723,3.0318,-5.9893,5.2516,-8.6316,22.7706,8.3956,-7.5119,5.9645,-15.3227,2.9115,-21.4402,-4.8228,
13.132,6.4713,-2.8001,-19.7299,19.0365,-22.2137,7.3044,2.7377,-21.1611,-0.51403,-4.0708,1.3242,-6.0538,-5.9461,
26.444,20.1831,11.4679,-4.4461,31.9943,-6.7809,20.9661,-2.1346,-5.7915,-14.5832,-17.9266,-12.8552,-8.9869,-13.1225,
32.8864,33.0721,24.4583,9.9206,19.7659,7.7259,33.8081,7.8803,8.656,-5.7293,-27.7052,-5.0464,-22.5477,-17.5139,
24.3219,45.1878,37.0908,23.4254,32.6799,21.3624,45.8797,-6.6925,-5.9633,-9.1517,-11.9429,-11.335,-7.0948,-7.0466,
36.9625,28.3765,20.7654,7.9199,16.6191,5.9806,29.0269,7.809,-19.7055,2.2256,-25.3263,-3.5924,-20.7691,-1.445,
20.6448,21.5448,5.4195,-6.6553,27.8646,-8.4782,13.1853,12.9913,-32.6232,-4.0281,-21.9225,-2.9061,-9.6599,-1.829,
23.6439,34.3521,19.1943,7.844,22.8964,6.1305,26.4941,7.9741,-16.5658,-13.6746,-27.6701,-12.6199,-2.9596,-4.0733,
22.2253,46.391,17.5719,21.4734,7.4226,19.8627,39.0045,18.7955,-1.4719,1.2459,-32.6017,-0.56197,-16.8821,-8.537,
6.7917,57.7075,30.6176,34.285,21.0773,32.7709,23.0345,3.5678,12.7164,-10.5739,-16.5456,-14.6283,-1.7691,-16.9706,
20.4842,40.1451,14.6806,18.1279,6.1583,16.7047,7.5524,17.4537,-2.1465,3.2437,-23.5318,-2.9465,-15.763,-1.8523,
5.1552,23.6364,-0.30028,2.9402,-6.4525,1.6024,-7.0007,7.4602,-16.1178,-3.5427,-20.237,0.99695,-15.313,-2.6589,
9.5293,36.3182,13.8177,16.8638,8.0346,15.6062,7.5193,1.8343,-1.0507,-6.6256,-22.3183,-4.2421,-0.2942,-2.0273,
9.4283,20.0391,-1.1113,29.952,-6.5474,28.7699,-7.0318,15.8242,13.1124,7.4253,-35.0792,10.1124,-14.3765,3.2731,
-5.2374,32.9367,13.0553,42.2548,7.9454,41.1437,5.5822,0.77475,-0.85756,-7.1202,-20.287,-4.5943,0.58604,1.1934,
4.4683,16.8605,-1.828,25.6195,-6.6313,24.575,-8.8528,4.9652,-14.9061,-0.12576,-26.603,1.802,-13.5491,9.5965,
-9.8998,1.7489,-15.8183,9.9824,-20.3334,9.0005,-22.4216,2.3137,-28.1117,-0.58893,-16.0615,4.9898,-7.5574,1.9581,
0.085712,15.744,-0.7692,23.4834,-5.0134,22.5605,-6.9763,-11.9252,-12.325,-14.6536,-13.6852,-9.4096,6.996,-2.3962,
14.1806,0.69933,-14.823,36.1744,-17.8958,35.3069,-20.6577,2.8904,-5.9611,0.32562,-13.8055,5.255,-7.5237,11.8475,
-0.77026,6.778,0.16634,48.104,-14.468,47.2885,-33.1223,-0.10826,-9.8403,-13.7939,-14.3898,-8.2439,4.2276,4.0988,
7.7511,20.4713,14.2564,31.1177,-13.1292,30.3512,-17.0349,9.786,-23.3499,-4.9874,-22.4718,-2.5696,-7.7967,11.8568,
-6.814,5.1431,-0.69902,15.1507,-18.4626,14.4301,-1.9128,2.1363,-36.0489,3.3158,-14.0609,6.5299,-9.6824,6.9081,
-20.5052,17.0762,5.9101,0.14162,-6.0545,7.0221,12.3019,-3.6427,-19.786,-5.3582,-9.4511,-5.1613,4.9985,7.4354,
-5.1748,1.9516,-8.5445,-13.9669,-15.5787,-7.4992,-2.5362,10.6758,-32.6988,9.0632,-7.4712,9.2484,1.4271,21.0893,
-18.9644,-12.2655,-10.4109,0.97114,-0.544,7.0508,-16.484,-4.0647,-16.6369,-4.168,-10.7898,-3.0525,15.4414,5.724,
-5.1632,2.5705,4.3138,-13.1871,-4.7239,-7.4723,-1.395,-9.4703,-1.5387,0.31991,-18.1459,-3.3405,0.41495,-2.1527,
-7.6786,6.1578,-4.8658,-26.4959,-18.5404,-21.124,12.7887,5.1979,-15.5464,14.4007,-7.6411,10.9599,-13.7099,5.5097,
-20.4011,3.905,9.5261,-14.5482,-3.328,-27.4399,13.0375,-9.214,-0.51357,-0.56333,-6.2407,-3.7972,1.2127,-2.3546,
-5.077,-10.4293,-5.1455,-27.7753,-15.3696,-39.8935,-1.8447,5.4389,-14.5828,13.5705,-2.1001,10.5306,-2.1558,11.8867,
-15.5769,-23.9035,-16.6073,-40.2088,-10.2101,-48.3536,-15.834,-6.633,0.39221,5.7188,12.1259,5.686,12.0736,10.7283,
-13.2297,-8.3693,-5.7236,-23.6962,-23.6975,-31.3524,-0.78398,-9.5305,14.4687,-3.5702,-1.7589,1.108,-2.7509,4.9054,
-17.1444,-13.5421,-19.4802,-36.3745,-36.3757,-33.684,13.3631,5.1414,27.7006,10.744,-5.4213,15.1415,-14.8271,6.4935,
-24.1193,-4.7252,-4.2114,-20.092,-20.0931,-25.5418,7.3825,-9.2671,11.9385,-3.5299,6.675,0.13302,0.16253,-0.95823,
-8.5721,-18.5417,-18.0587,-32.9865,-16.0876,-38.1093,-7.1604,5.3889,-2.8778,10.7819,4.3914,14.225,2.5316,13.1993,
-17.4498,-31.5292,-18.4133,-45.1073,-1.0224,-49.9228,-20.8308,1.7938,-16.8051,15.8095,13.5443,21.3996,16.4797,16.199,
-7.9281,-15.5374,-3.2085,-28.3008,5.6556,-32.8274,-5.481,-12.4138,-1.6968,0.76094,-1.3684,6.0157,1.3912,1.127,
1.0227,-0.50518,9.2508,-12.5028,-8.7837,-16.7578,8.9479,1.4891,12.505,-0.25075,-12.6108,0.92118,-12.7923,1.0339,
-13.1387,-1.887,12.9336,2.3474,5.8433,-1.6523,-5.2429,-12.7002,-0.462,-10.123,1.7998,-10.9042,2.0752,-0.43982,
1.7497,-15.8738,-1.9425,-11.8935,-4.8657,-15.6532,-19.0283,2.1618,-14.5343,4.5844,-6.3122,3.85,-9.3491,11.3572,
-12.4553,-29.0214,-15.9259,-25.2799,0.60544,-28.814,-31.9866,9.0946,-27.7622,9.042,-4.5208,5.5274,3.9234,0.78846,
-3.2575,-13.1801,-0.87035,-9.6631,1.0398,-12.9851,-15.9674,-5.5511,-11.9965,-5.154,-11.3121,-8.9043,1.3344,-0.671,
5.4129,-4.4106,-0.37224,5.0167,-13.1226,1.894,-0.90936,8.882,2.8233,9.2553,-0.27474,5.73,-12.8457,13.4693,
-9.0119,-6.9709,8.1254,18.8157,1.7648,15.8803,-0.38408,-5.7509,16.7539,-1.6339,-4.0255,-8.7138,-5.5077,-1.4389,
5.6288,-20.6527,-6.4621,3.5868,5.8962,0.82752,-14.461,8.6941,1.6487,12.5642,-9.9047,5.909,-12.2402,12.7474,
-4.5973,-33.5135,-20.1744,-10.7284,-3.8741,-13.3221,-27.6934,-1.2441,-12.5503,1.9476,-4.6019,4.6126,-3.0307,0.23572,
0.38703,-17.4027,-4.8639,4.0153,2.9497,1.5772,-11.9318,-10.586,2.3028,-9.4686,-5.2676,-9.7641,-3.7907,-11.0778,
14.4638,-6.0252,7.6442,17.8744,-5.2308,15.5826,2.8841,4.1492,16.2646,5.1995,-4.4809,4.9217,-17.6633,3.6868,
-0.50402,8.4363,21.2855,30.9019,9.1831,28.7476,-1.056,-10.1998,29.3887,-5.917,-2.3287,-9.4736,-2.5035,-0.74711,
4.2343,-6.1698,5.9084,14.9478,-5.4679,12.9228,-15.0926,4.5122,13.5254,8.538,2.9902,5.1948,-7.0613,10.1264,
-9.6732,-19.8996,-8.5461,-0.04909,-2.3151,-1.9526,-28.2871,9.4462,-1.3861,15.5845,7.049,15.7127,-5.2255,8.1076,
-9.0928,-4.6057,6.0667,14.0539,11.9238,12.2645,-12.4898,-5.2206,12.797,0.54939,-4.6747,0.66996,9.188,-1.7959,
5.5527,-18.4293,-8.3973,27.3106,6.5249,25.6287,-25.8405,1.659,19.1163,14.616,-2.5109,12.8456,-5.4633,2.0781,
-8.8804,-14.5234,6.2065,39.772,20.2334,38.1909,-10.19,-11.6233,32.0694,-0.36098,11.7398,-2.0252,8.9645,-9.3465,
5.7524,0.44798,3.0089,23.2857,4.9194,21.7995,-19.0198,-0.56835,16.0452,-4.131,-3.0646,-7.5782,-5.6733,-9.7271,
-3.9851,-5.2042,-2.822,7.7885,-2.909,6.3915,-3.7786,-0.53425,0.98249,9.3005,-7.5888,6.9765,-6.2748,-2.5526,
-10.8077,4.9957,11.4473,-6.7788,11.3656,-8.092,10.5481,-14.6022,15.0235,-3.9704,6.9666,-7.5421,8.2017,-7.5782,
3.9408,-9.404,-3.3395,-20.4721,-3.4164,-21.7064,-4.1848,0.37394,0.022131,10.3678,-2.3727,7.0104,-5.9197,2.2935,
-9.4542,-18.2809,6.7486,-5.1437,10.8886,-6.3041,-18.0337,-13.7485,12.7087,-4.3543,6.2453,-4.2143,8.5355,-8.2026,
-1.3533,-3.0841,4.4603,-18.9351,6.9649,-20.0258,-2.8517,-7.7694,-2.1539,-8.8015,-6.3712,-15.2617,0.5156,-3.0019,
-9.7472,-0.049675,-9.9073,-31.899,-7.553,-32.9243,11.4194,5.8808,-16.1246,-3.5649,-5.9894,-1.162,-4.2238,3.7696,
-9.1624,8.4289,4.7872,-30.9766,7.0002,-32.3865,24.8343,-8.572,-1.0572,-17.451,0.96179,-15.1923,10.1296,-1.1646,
3.6287,-6.1769,-9.6001,-43.218,-4.7201,-44.5433,9.2442,3.2171,-15.0937,-2.304,-6.6292,-0.18072,-4.5782,0.78809,
-10.6891,-19.9062,-23.1241,-26.5249,9.6631,-27.7707,-5.4104,-1.6849,-0.0881,5.3675,7.8686,1.713,9.7965,1.6822,
-4.4233,-4.6119,-7.6366,-10.8334,8.166,-12.0044,9.0142,-5.3504,14.0172,-9.0545,-6.7035,-12.4898,2.642,-3.1267,
-1.803,-14.2475,-18.0322,3.9166,-5.9778,2.8158,22.5733,0.14983,27.2762,5.1185,-3.0059,2.3596,-11.6166,3.1815,
-5.4618,0.70737,-2.8502,9.8523,8.4808,15.409,7.1189,-13.9592,11.5396,-5.5475,11.2745,-9.5526,3.1804,2.0496,
4.2829,-13.4351,-16.7792,-4.8388,-6.1276,0.38445,-7.4082,0.97839,-3.2528,1.3771,-3.502,0.4367,-5.0143,-2.7823,
-10.0741,-26.729,-21.8931,-18.6485,6.9525,-13.7386,-21.0637,-3.3176,-17.1576,3.6494,10.3625,7.4735,9.3865,-2.1442,
-1.9615,-11.0252,-6.4795,-3.4296,10.7723,1.1857,-5.6999,-13.0059,-2.0282,-2.6911,-4.3593,-7.0749,3.198,-5.3119,
3.8061,-6.5971,-5.5954,10.8762,3.5346,15.2146,8.7421,1.8745,12.1935,9.7121,-11.1853,7.4496,-8.2933,2.5405,
-6.3095,7.8987,8.8403,24.3236,17.4225,28.4017,22.3176,-11.8673,18.9952,-4.9706,3.5858,-7.0974,6.3043,3.8007,
8.1691,-6.6752,-5.7901,8.7642,2.2771,12.5976,6.8785,2.9448,3.7554,2.8358,-10.7293,3.1902,-7.2325,4.9852,
-5.0085,-20.3747,-19.5427,-5.8616,8.7323,-2.2583,-7.6342,-4.2698,-10.5699,-2.0424,0.27287,-6.4173,7.3014,-6.6137,
-0.47018,-5.0522,-4.2702,8.5901,11.5047,11.9772,6.9239,-9.192,4.1643,-9.9233,-5.8641,-13.0944,13.009,-7.6295,
13.658,1.8421,0.69477,22.1747,-3.2855,25.3586,20.6084,5.4596,18.0145,4.7721,-5.0414,1.7913,-1.8715,6.9283,
-1.2615,8.3231,14.7531,34.9442,8.6567,37.9371,20.3881,-8.968,31.0336,-1.6108,-3.7972,-10.0621,12.3408,-7.5874,
12.9142,-6.2763,-0.2321,18.7475,-0.33785,21.5609,5.0648,5.6701,15.0716,12.5859,-12.0445,4.6416,-2.4997,6.9678,
-1.9606,-19.9997,-14.3182,3.5227,2.0373,6.1672,-9.3391,4.413,0.067276,9.5013,-8.9678,9.5669,-2.3743,1.8663,
7.102,-4.6997,0.64092,17.4113,14.6271,19.8972,5.3212,-9.5061,14.1632,-3.7808,-4.1924,-5.1071,11.4216,-8.1334,
16.5636,-3.0302,2.0148,30.4666,-0.35052,32.8033,-0.20185,5.1643,27.4134,10.5461,-5.353,9.2993,-3.3637,-0.58288,
1.4697,11.2516,15.9939,42.7386,13.7705,44.9351,13.9103,-0.77135,23.4388,-4.1867,-2.6778,-4.9125,10.9381,-9.4937,
15.4816,7.7768,2.8176,26.0743,-1.1557,28.139,-1.0244,7.2793,7.9324,-3.4648,-16.6171,-5.0889,-3.8182,-5.6278,
7.0194,-0.223,5.4737,10.4099,-0.64071,12.3507,-6.6128,3.076,-6.6435,5.2178,-7.6408,9.3164,-3.1425,-0.58204,
1.8893,13.8904,19.2453,23.8853,13.4977,25.7096,7.8839,-9.3499,7.8551,-6.3951,-8.1246,-5.3426,11.146,-1.4894,
15.876,-1.043,3.9906,36.5522,4.7092,38.2671,-6.6891,5.3111,21.4838,8.0886,-4.3406,9.078,-3.6227,12.6999,
0.8234,13.1195,17.8512,48.459,18.5266,50.071,7.8123,-6.2828,34.2948,-6.4968,-4.5511,-5.5667,10.6946,-2.1621,
14.874,26.4324,30.8801,31.4515,8.0233,32.9668,15.3725,3.9819,18.1371,-9.4024,-18.378,-16.0614,-4.047,-1.5612,
-0.11845,19.2452,14.9514,15.4644,-6.5581,16.8888,24.337,1.388,2.9489,-5.5428,-12.5928,-1.4438,-17.9042,-3.8215,
3.185,32.1905,28.1544,28.6365,7.9354,1.7754,36.9768,-2.9321,16.8719,-12.2732,-6.6571,-14.0697,-2.73,6.295,
17.0939,16.1591,12.3651,12.8183,0.86747,-12.4311,20.6582,11.3438,1.7596,2.5632,-4.3748,0.87452,-7.7454,20.0173,
1.9683,10.0117,13.9777,26.1492,5.5239,2.4148,5.3187,-3.4368,15.754,-9.8064,-0.34526,-13.278,6.8193,4.7163,
9.3839,23.511,27.239,10.4803,1.4259,-11.8301,19.0996,0.53643,28.9088,-4.51,-14.4245,-12.4817,-5.8065,-5.9247,
5.9952,19.2997,19.9798,-4.2485,-9.96,-25.2203,32.0536,8.9785,13.0743,3.2934,-24.8844,-0.43251,-19.5581,-8.3939,
-0.013996,30.383,32.881,-10.5608,4.7376,-18.0822,42.8679,-5.6602,11.3484,-6.3203,-9.2914,-9.8236,-4.2846,0.58437,
14.0868,14.4601,16.8081,-24.0272,-4.4672,-31.0973,26.1958,8.7794,-3.4325,8.1589,-1.6461,4.8659,-5.4404,14.6493,
-0.85837,-0.50754,1.6996,-36.6855,7.5712,-43.3314,10.5241,13.9025,-14.5515,9.5769,2.6902,18.6739,8.9861,14.7364,
-7.8694,13.6229,-1.7233,-20.3844,-6.9831,-26.6315,23.9926,0.35683,0.4216,-5.0977,-11.5712,3.4535,-2.8277,9.6153,
6.7028,-1.2945,-8.6824,-5.0614,-17.889,-13.7584,36.6531,14.4354,14.4963,9.3081,3.2231,17.3463,6.2874,23.1384,
-7.7994,-9.7416,5.9385,9.3423,-2.7157,-27.0329,20.3539,-0.5307,7.0848,2.1583,5.8545,2.2055,20.0101,7.6501,
6.7686,-23.2571,-8.5178,-5.3182,-11.4731,-39.5109,5.0326,13.6011,-7.4403,16.1288,4.0906,16.1732,4.7095,21.2911,
-7.7375,-22.8277,-22.1067,-19.0991,-15.022,-51.2403,-9.3693,12.339,-21.0939,7.6533,10.9077,13.3696,8.1931,16.7423,
-10.0985,-7.358,-6.6803,-3.8532,-15.5333,-34.0658,5.2928,0.76903,-5.7282,2.9563,-3.8468,-1.5326,-3.1272,7.7343,
2.7498,-4.5377,-15.2247,10.478,-24.9595,-17.9219,19.0753,14.8229,8.7155,16.8789,6.2474,12.6593,-13.2978,21.3702,
-11.5151,-2.8526,-0.65751,23.9493,-9.3619,-2.7466,3.8308,-0.16649,11.9592,1.7662,9.1678,3.4251,1.6001,5.988,
3.2758,-16.7815,-14.7181,8.4124,-4.5381,-16.6818,-10.4991,13.9435,-2.8584,15.7602,0.14257,17.3196,6.7077,18.3407,
-11.0208,-29.8746,-27.935,-6.1924,-0.027994,-29.7809,-23.9691,5.5992,-16.7869,16.723,2.488,8.3015,9.6016,13.0034,
-9.9141,-13.9821,-12.1589,8.2792,-7.0893,-13.894,-8.431,-8.8368,-1.6797,1.6196,-7.5485,-6.2966,4.7877,-1.4307,
2.4509,0.95684,-14.7503,21.8824,-20.7639,1.0396,6.1749,5.7934,12.5211,15.6224,2.7917,8.1812,-5.3868,9.4838,
-11.7962,3.2534,0.23472,34.6695,-5.4181,15.0772,4.3421,-8.6542,16.9491,0.58508,5.4489,-6.4096,9.0364,4.2063,
3.0116,-11.0418,-13.8794,18.4893,-3.6804,0.072605,-10.0184,5.9651,1.8321,12.7662,1.3558,8.0749,8.5193,18.0539,
-11.2691,-24.4793,-27.1466,3.28,-3.9308,-14.0318,-23.5173,5.136,-12.3778,8.7048,10.2203,10.8859,18.8368,6.1666,
-12.9716,-8.9105,-11.4178,17.1832,0.072159,0.91015,-8.0063,-8.3553,2.4649,-5.9175,1.132,-3.8673,12.0567,-8.3034,
1.9067,-15.4632,-10.2614,30.2522,-12.1737,14.9555,-0.48819,6.246,16.417,8.5375,9.5389,10.4648,-2.7667,6.2948,
-12.3077,-0.43542,4.4543,42.537,2.6567,28.1582,-9.4041,-6.8162,29.5319,-6.0747,1.9043,-4.2631,11.4993,-0.20308,
2.5308,-8.86,-9.9129,25.8848,-1.2445,12.3687,-22.9398,7.6928,13.66,8.3898,-1.5059,10.0927,-3.2907,13.9091,
-2.7752,-22.4284,-16.3809,10.2317,-9.1738,-2.4734,-35.6634,11.9643,-1.2596,20.5984,6.5884,19.3748,-11.1218,11.2159,
-16.7087,-6.9827,-1.2981,11.0805,1.7351,11.775,-19.4236,-2.8535,12.916,5.2625,-7.9069,4.1123,3.6455,-2.6407,
-1.6062,-20.6638,-15.3202,24.5157,1.1598,25.1685,-32.3582,11.4177,8.8456,11.9847,-3.2197,17.9656,-7.3778,11.6177,
-9.0431,-5.3239,-0.30096,37.1447,15.1902,37.7584,-16.3167,-3.3674,22.4149,-2.8344,2.1527,2.7877,7.1649,-3.1793,
-0.49653,9.0955,1.1543,20.8161,0.17883,21.3929,-8.3007,1.0469,6.97,-12.1059,-12.0765,-8.2338,-4.5403,-5.3431,
-8,9.5162,-0.79782,5.4671,-13.9319,6.0093,5.3805,11.3426,-7.5482,2.7204,2.2774,6.3602,-8.9759,4.3945,
-7.9907,21.6582,13.35,-8.9609,1.004,10.853,19.1577,-3.438,7.0047,-11.5428,10.1447,-8.1214,5.217,-9.5235,
6.5887,6.2587,-1.551,-22.5233,-1.8814,-3.8982,3.9082,10.8683,-7.5156,3.2498,0.59019,0.84102,-9.196,4.7027,
-7.9066,-7.7958,5.1335,-7.0719,12.3315,10.4357,-10.4263,-3.8838,7.0353,-3.5115,7.1466,-2.9761,5.4557,4.4197,
-7.9033,6.772,10.4758,-20.7476,-2.5084,-4.2904,4.2993,-16.859,19.7964,-8.0089,-7.3822,-15.0397,-8.9716,1.3302,
4.8126,3.566,-1.453,-33.6027,-8.0078,-18.133,18.1414,-3.6057,4.5086,6.5716,5.2774,-0.95413,-14.5795,8.7832,
-6.7756,17.452,12.7342,-45.6865,6.5726,-7.2074,26.4945,-17.4894,0.4464,-7.9227,9.6693,-14.9969,0.39531,0.72338,
7.731,2.3049,-2.1299,-57.0454,13.7366,-20.875,10.8048,-2.34,-13.6804,6.6527,-2.2112,0.0029288,-11.8446,14.78,
-6.8329,-11.9334,-9.0646,-54.6884,14.3254,-5.5225,-3.9435,0.15485,-8.6468,-3.6096,1.2174,2.3572,1.5789,2.1472,
1.581,2.8826,5.5793,-37.3071,-0.63412,8.9089,10.3931,-10.2133,5.972,-17.493,-3.5642,-11.8842,-5.1081,-9.2819,
-1.3386,3.1804,-2.2637,-20.9687,-0.62112,22.4744,23.8695,4.4995,19.7137,-10.8181,2.2996,1.046,-11.3929,-4.0165,
-5.4956,17.0895,11.9721,-5.6106,13.5161,35.2259,8.3374,-9.8705,4.4308,-24.269,0.74949,-13.1168,3.3906,-10.8381,
8.9341,1.9642,-2.8462,-19.3739,22.1463,19.0123,-6.2629,4.8217,-9.935,-8.7129,1.1752,1.7702,-10.9128,3.9122,
-4.7605,-12.2537,-6.9128,-32.3115,18.464,3.7716,-19.9871,-2.5046,-23.4389,-6.778,10.051,-8.2237,-0.37032,-8.5387,
-4.4753,2.5815,7.602,-16.2728,11.7053,17.6453,-4.6879,-5.18,-7.9326,-12.0212,-1.8524,-19.0306,-5.9989,-12.7349,
6.1521,6.664,2.4629,-1.1964,-3.097,30.6866,9.6934,9.2308,6.6434,2.8001,-2.6831,-3.7887,-19.739,-3.4957,
-6.4588,20.3641,16.4151,12.9753,11.1888,42.9454,21.3285,-5.423,-7.8552,-10.5265,5.0116,-14.8362,-4.4546,-5.1693,
8.0288,5.0423,1.3302,-1.9032,12.872,26.2687,5.9488,9.0024,-21.4839,4.2051,-4.2354,0.15394,-6.5409,4.0863,
-5.1408,-9.3602,-12.8496,-15.889,15.8663,10.5925,-8.5082,-0.4581,-34.2949,-1.2009,5.4357,-6.8928,4.2099,-10.2589,
5.5261,5.3014,2.0214,-0.83564,19.6232,24.057,6.1023,-7.9639,-18.1372,-13.3702,-5.2489,-19.6619,-3.5759,-14.3765,
19.2945,19.0833,6.137,13.3145,4.3458,36.7136,19.8362,6.614,-2.9489,1.532,-8.7005,-4.3822,-17.4613,-1.2717,
4.0368,24.084,19.8688,26.6156,7.8258,48.6108,4.546,-7.8829,4.7608,-12.6599,3.1214,-18.2193,-2.3137,-15.2954,
17.8946,8.5389,4.5766,10.9187,2.6486,31.5941,-9.8267,6.6901,-9.6249,2.1997,-3.6573,-3.0261,-0.29153,-0.27767,
5.0745,-6.0734,-9.798,-3.8364,4.8428,15.5985,-23.3371,-5.4577,-23.1474,-0.26259,-1.0838,4.2421,-7.337,-5.4407,
6.1831,8.391,4.8899,10.4938,14.4409,28.7626,-7.8369,-19.2303,-7.6585,-14.3468,6.9852,-10.1124,7.2032,-13.1182,
18.9953,-4.3792,-5.7615,23.9641,-0.52559,41.1368,-21.4667,-3.9764,6.901,0.61397,5.6242,4.5943,-7.329,1.7689,
3.7556,9.9835,8.6842,36.6263,12.1929,52.7686,-22.1367,-6.5621,20.5869,-6.0138,-8.8133,-9.7813,7.2108,-2.5504,
15.2762,21.1806,0.18381,20.3287,1.1029,35.5025,-34.9085,7.9316,5.2517,2.8217,-16.313,-1.6863,-7.3219,6.0782,
0.25963,14.7301,3.4687,5.009,-12.6176,19.2723,-38.0183,-2.407,-9.1634,-2.5264,-1.2343,-2.0558,1.1214,-0.4076,
-9.1976,27.9463,17.3606,18.8084,2.2394,32.216,-21.6372,-11.2084,5.4864,-13.2044,-1.1356,-16.0324,15.1541,1.0294,
5.4543,12.1695,2.2189,31.7799,-11.9949,44.383,-34.4389,3.5641,12.6905,1.6879,3.1703,-0.9705,0.14485,15.0677,
-8.973,3.9065,8.6772,43.9731,-2.7992,50.8153,-46.4726,-5.5701,26.029,-6.3923,10.5138,-3.737,14.2362,2.4181,
3.336,17.7721,10.0394,27.2348,-12.0483,33.6664,-29.5842,1.355,10.3673,-5.0673,-4.217,-11.046,-0.71801,1.3307,
-3.9267,6.8432,-3.275,11.5007,-13.6798,17.5464,-13.7092,11.1615,-4.3547,9.3367,1.1897,3.7167,-13.3865,6.4305,
-17.345,5.02,6.8088,-3.2894,-1.088,2.3936,-11.9197,-3.6082,5.2985,-0.61498,0.64715,-8.723,1.5167,-1.0183,
-2.2043,-9.3812,-7.6997,-17.192,-14.2064,-11.85,-25.3045,10.7083,-9.1194,13.5219,2.4921,5.9004,-4.6708,13.1428,
-14.2887,-17.3176,3.0961,-2.0605,0.74603,-11.2383,-37.8862,-4.0342,5.5277,4.2605,12.7005,1.8044,9.7095,5.7879,
-1.6604,-2.1786,15.6228,-16.0369,2.1385,-24.664,-21.5131,-6.642,16.9667,-5.8824,-2.1615,-9.1326,-4.9731,-6.3304,
-2.5026,-7.2025,0.5854,-29.1746,-7.4064,-37.2842,-6.1223,5.9974,1.8487,1.0619,-11.0022,2.7148,-9.8539,-0.30063,
0.0015641,7.3297,14.6503,-34.9082,7.138,-49.1471,8.345,-8.0163,-12.3623,-9.8305,-6.1052,-10.1606,4.8373,5.8381,
14.1015,-7.2101,-0.32874,-46.9137,13.7971,-60.2983,-6.2557,6.5646,-25.7205,4.8594,-8.5634,4.5491,0.33455,19.5878,
9.0431,-3.9528,12.8487,-58.1989,19.0901,-58.1932,-19.9803,1.017,-38.2773,-9.5322,-6.6372,-0.87759,1.7273,4.3125,
10.3838,10.3844,26.1777,-40.607,3.8447,-40.6016,-4.6815,-2.811,-21.8807,-2.8396,-16.597,-14.9249,-9.6767,-3.9498,
9.2896,6.4905,10.5071,-24.0705,-10.486,-24.0655,9.6994,11.4576,-6.4678,11.4307,-14.1886,0.070563,-11.4501,6.1745,
-4.9221,2.8052,10.8181,-8.5263,4.2432,-8.5216,23.2174,-3.3298,-20.1797,-3.3551,-14.7503,-3.7003,3.3369,-8.296,
9.4732,-11.4632,-3.931,-22.1147,-3.0985,-22.1103,7.7244,10.97,-33.069,10.9462,-1.1528,10.6217,-2.4882,6.3018,
-4.724,-24.8754,-17.7951,-34.8878,5.5629,-34.8837,-6.8391,-3.7882,-45.1848,11.7266,-2.0251,9.5383,11.7611,3.0989,
9.6594,-9.2828,-2.6274,-18.6946,5.2292,-18.6906,7.6713,-11.5649,-28.3737,-3.077,-16.0036,-5.134,8.2553,0.087812,
20.405,5.3741,-9.5567,-3.4729,-9.1846,-3.4692,21.311,3.229,-12.5713,11.2077,-11.3016,9.2741,-6.34,6.6737,
5.0807,4.1098,5.1167,10.8355,-4.4212,10.8389,24.3193,-11.0648,-11.8917,-3.5648,-3.5612,-3.9944,8.1404,-4.5552,
18.8759,-10.2368,-9.2903,-3.9147,2.9066,-3.9114,8.7602,3.6991,-25.2782,10.7491,-7.5848,10.3453,4.8268,9.8181,
3.6433,-23.7226,-22.8329,-17.7798,5.5569,-17.7767,-5.8655,13.8602,-37.8615,10.1046,-4.305,13.9865,13.9537,13.491,
-3.1919,-8.1992,-7.3629,-2.613,5.2235,-2.6101,8.5865,-1.0714,-21.4898,-4.6017,-10.6385,-0.9527,18.7669,-1.4185,
11.0996,6.3927,-6.9214,11.6438,-9.1899,11.6465,22.1713,13.0929,-6.1005,9.7744,-18.4753,13.2045,3.5409,2.4077,
-3.6664,14.4843,7.5939,25.0452,5.4615,25.0477,34.941,-1.7927,8.3656,-4.9121,-10.3038,-1.6878,9.4236,-11.3897,
10.6536,-0.48477,-6.9617,9.4425,0.4253,9.4448,18.7446,12.4149,-6.2364,9.4827,-1.6812,11.5716,1.7961,3.3937,
-4.0856,-14.5557,-20.644,-5.2241,-0.070485,-5.2218,3.5199,4.6075,-19.9622,2.7926,3.5989,10.407,14.4008,12.6312,
-14.1989,0.41765,-5.3054,9.1894,2.2873,9.1915,17.4087,-6.4981,-4.6644,-8.2041,-3.6805,-4.3174,15.8903,3.8694,
0.75303,-13.7074,-11.5784,22.738,-11.9499,22.74,2.2642,7.9918,9.7154,6.3882,10.6404,10.0416,0.83688,17.7372,
-9.6255,1.215,3.2163,35.4737,-1.841,35.4756,12.9324,-6.5878,23.2325,-8.0951,-1.2729,-4.6609,14.8867,2.573,
5.052,-5.945,-11.0767,19.2453,-10.2056,19.247,-1.9435,7.9075,7.7385,6.4906,-9.6707,9.7188,-0.10653,9.9523,
0.065432,-16.8886,-12.2954,3.9906,-10.5347,3.9922,-15.9269,21.5331,-6.8258,20.2011,5.0095,23.2357,-0.12475,18.7712,
-13.1217,-1.7753,2.5423,11.3345,-3.3113,-10.3473,-0.87131,6.1411,7.6838,4.8891,-9.3911,7.7415,8.3579,3.545,
1.7656,-15.7688,-11.7102,24.7544,-14.4125,4.3735,-14.919,19.8726,21.3227,18.6957,5.2724,21.377,1.2655,15.549,
-12.4403,-3.993,3.0924,37.3691,-11.1937,18.2111,-13.6028,4.5803,34.1434,10.5611,14.8679,5.9944,13.9011,0.51603,
-1.8062,10.3465,9.994,21.027,-22.7638,3.0185,1.3133,-9.7946,17.9948,-2.3143,-0.12414,-8.4653,-1.033,-13.6149,
-3.5816,7.8675,6.5701,5.6654,-22.3394,-11.2627,15.3345,-13.4442,2.8151,-4.9997,-3.9079,-6.0995,-7.5874,-16.144,
-9.958,14.9282,20.2759,-5.5037,-6.899,-24.6869,28.5145,-22.9955,16.7462,-12.2334,10.4266,-19.8336,6.9678,-8.5831,
4.7395,-0.067466,4.9593,-19.2735,-9.2852,-37.3057,12.7036,-7.5158,1.6414,2.6006,10.7674,-4.5435,2.8082,6.0318,
-9.6449,-14.1634,12.1941,-4.0171,-1.1949,-28.4509,-2.1586,-11.7483,15.6429,0.58628,-3.0622,3.2623,16.7397,-5.6053,
-1.0618,0.78639,25.5624,-17.876,-4.4182,-40.8439,12.0709,-14.3393,28.8044,-10.278,-4.2906,-11.0334,6.815,-6.6812,
-8.0615,-13.3608,9.9287,-30.9035,-8.3913,-52.4932,25.4466,-3.5921,12.9761,3.0506,10.0668,3.7286,-4.4239,-1.1015,
-12.2854,-6.9589,2.7425,-26.2742,6.2121,-63.4436,9.8199,-17.4766,-1.9025,-6.548,11.8419,-3.0865,9.9415,-11.3934,
2.5517,-20.6413,-11.522,-38.7977,-7.7894,-73.737,-4.8693,-2.328,-15.8883,7.9448,8.7769,11.1987,-0.51722,3.3902,
-10.76,-20.3693,-2.3811,-50.5699,3.5071,-61.8784,-18.6772,-5.9545,-3.6347,-0.98237,10.6047,-3.5732,13.6138,-6.2052,
3.9856,-5.0472,11.8618,-33.4357,-6.1203,-44.0657,-3.4565,-14.0719,10.6834,-6.5729,0.55236,-9.9497,-1.303,-7.7157,
17.8465,-3.3074,-0.59614,-17.3295,-9.9907,-27.3218,10.8508,0.8724,24.1424,7.9215,8.523,4.7472,-11.5835,6.8472,
2.6757,9.133,11.6811,-2.1898,4.7088,-11.5825,19.1957,-10.9259,8.5938,-6.6538,0.47811,-5.4007,3.2115,0.3399,
16.6152,-5.515,-3.1197,-16.1584,0.21372,-24.9875,3.944,3.8296,-6.0218,7.8454,-0.021294,9.0233,-5.9017,10.2072,
1.5182,-19.2841,-13.7863,-29.2889,3.0265,-37.5883,-10.3927,-8.1461,-19.7605,6.4574,2.8047,-0.43885,8.5524,-4.5052,
-9.3769,-4.027,1.1409,-13.4315,5.1985,-21.233,4.3309,-15.6613,-4.4749,-2.8754,-8.1927,-14.0669,-0.88155,-3.7888,
1.0725,-17.8854,-13.0276,1.4744,-5.9425,-5.859,18.1711,-0.62162,9.8936,11.3971,5.9532,0.87716,-10.7164,9.1505,
-13.0919,-8.858,1.8541,15.4859,8.514,8.5925,31.1808,-14.2136,16.8579,-0.09172,9.3626,1.3203,4.0266,-5.4985,
1.7936,-22.4265,-12.3572,0.45674,-4.6842,-6.023,15.2099,0.73921,1.7464,14.0138,3.6216,15.3411,-7.9601,8.9314,
-12.414,-35.1809,-24.7984,-13.6707,-2.9906,-19.7616,0.19734,6.3703,-12.4584,10.3737,16.1168,13.5042,-7.9536,-0.079131,
-10.7519,-18.97,-9.2105,1.2496,1.8969,-4.4759,14.2855,-8.1119,2.3891,-4.3487,1.9662,-1.406,-4.6521,-11.3751,
3.9933,-8.4401,-8.6335,15.2746,-9.517,9.8926,27.5284,6.4748,16.3458,10.0122,7.4988,12.7783,-13.7889,3.4074,
-10.3463,6.1663,5.9845,28.4581,5.154,23.3991,16.014,-8.0137,29.465,-4.6885,10.8153,-2.0884,1.1385,-10.8971,
4.3744,-5.4787,-8.4746,12.6506,-4.5465,7.8951,0.95317,6.5671,13.5971,9.6928,1.6912,12.1369,-13.0298,3.8567,
2.2542,-11.7414,-7.9663,-2.2084,-8.9822,-6.6786,-13.204,20.2731,-1.3187,19.4688,6.2983,12.3502,-12.2483,11.1845,
-8.7111,3.0631,6.6116,12.0241,-5.1474,7.8221,1.6882,4.9567,12.8604,4.2006,1.683,-2.4909,-0.68423,0.62575,
5.9115,-11.2207,-7.8851,25.4027,-14.726,21.4528,-12.5131,18.7593,26.1888,18.0486,14.2943,11.7586,-5.8222,14.6882,
-8.5432,1.6943,6.688,37.9785,0.25755,34.2656,-24.9951,3.5337,38.7175,2.8657,4.0199,-3.0469,8.6272,-0.29309,
6.0694,7.2421,-2.1633,21.5998,3.0917,18.1097,-37.5954,14.6211,22.2944,7.3772,-5.6383,-1.9473,-5.9905,12.4361,
2.9056,0.68652,2.2038,6.2038,-1.3312,2.9231,-21.2397,5.7399,6.8567,-0.12797,-1.0618,8.0573,-7.9857,4.6283,
0.37722,14.7453,16.1716,19.9316,12.8487,16.8477,-5.8653,-8.7045,20.5453,-14.2203,2.2974,-6.5262,6.5934,-4.5953,
14.4546,-0.23939,1.1013,32.8357,-2.022,29.9369,-19.6134,5.9178,5.2126,0.73293,-0.19473,7.9654,-7.9022,9.7804,
-0.51269,-5.4038,7.1563,44.9655,9.8697,42.2407,-21.2618,-5.2664,18.9999,-3.5484,-0.65354,-4.284,6.6719,-3.9645,
-2.836,9.0204,2.4896,28.1676,-0.60933,25.6062,-5.8861,0.22832,3.7599,-9.4557,-14.7143,-11.0886,-7.8284,-5.1388,
0.63011,0.97102,0.92808,12.3775,3.6646,9.9698,8.5671,6.3357,-10.5657,-9.36,-4.4395,-2.4193,-6.8871,-2.4769,
-11.6494,15.0128,14.9724,-2.4651,17.5447,-4.7283,22.1531,-8.1444,4.1682,-22.8984,6.1848,-16.3741,7.6262,-4.2116,
3.1495,0.01199,-0.025946,-16.4172,2.392,-18.5446,6.7239,6.4442,-10.1819,-7.4245,0.63453,-1.2917,-6.4616,10.1411,
-11.1394,3.7774,-0.024838,-1.3322,16.3485,-3.332,-7.7795,3.2328,4.529,0.5547,5.7757,-2.1561,8.0261,-4.5673,
2.7125,17.6508,14.0767,-14.3853,11.6265,-6.7989,6.7872,2.0974,12.7329,-13.5786,-8.6709,-15.2094,-6.5555,-6.1762,
-0.2754,30.6917,5.7239,-27.6222,-3.1711,-20.491,20.48,1.0293,-2.1311,-7.1385,-4.409,-5.8222,-19.8151,-2.9813,
2.5659,42.9502,19.4804,-11.8649,11.1191,-12.6952,26.8596,-13.1325,-8.6201,-18.0105,4.3306,-13.948,-4.5262,-8.4524,
16.5119,26.2732,4.2116,-25.253,13.747,-26.0335,11.148,1.7555,-22.2029,-2.8299,-4.8751,0.98889,-5.6426,3.8258,
1.4212,10.5968,1.6044,-37.8378,18.5726,-38.5715,-3.6209,-0.70344,-34.9707,-12.5223,5.7759,-6.1084,8.7959,-7.7036,
11.2232,24.061,15.6082,-21.4675,16.5159,-22.1572,10.6964,-7.253,-18.7725,-23.0708,-3.9877,-16.1003,0.75997,-15.7161,
5.8418,24.0796,2.4545,-6.0795,1.4249,-6.7278,24.1546,0.71538,-3.5461,-7.5866,-11.2817,-1.0343,-13.3856,-15.7154,
1.2539,36.7348,16.4073,8.3853,14.9696,7.7759,8.6053,-10.1567,-17.4334,-15.1103,0.22439,-13.6592,1.5175,-5.8262,
15.2787,20.4307,1.3228,-6.2178,3.713,-6.7907,-6.011,4.5527,-30.4874,-0.10369,3.0361,1.2604,-12.2279,8.6234,
0.26195,5.1049,-12.8565,-19.9448,10.0816,-20.4832,-19.7503,-3.2291,-42.7581,2.7514,16.9539,-3.4987,2.6058,-0.34411,
-3.0501,18.8986,2.0149,-4.6481,5.2394,-5.1542,-4.4653,-14.8059,-26.0926,-11.5137,4.1907,-17.3888,4.8285,-9.2697,
6.0787,7.8779,-4.2262,9.7308,-9.175,9.255,9.9026,0.18243,-10.4271,3.2772,-1.2399,-2.2454,-9.5612,-5.4172,
-8.386,21.5052,10.1273,23.247,5.4755,22.7997,-0.60432,-12.9871,-9.3553,-11.0195,3.0723,-12.9399,5.1125,-14.9794,
6.2172,6.1149,-4.5803,7.7522,-5.6822,7.3317,-14.6681,1.8921,-22.894,3.7417,4.3001,1.9365,-9.2943,0.019324,
-8.2559,-8.352,-18.4055,-6.813,-7.225,-7.2082,-27.888,-9.0255,-35.6204,-3.0737,9.6924,2.3161,-1.6991,-1.3698,
-5.4311,6.2491,-3.2012,7.6958,4.9795,7.3243,-12.1147,-14.6046,-19.3832,-13.7189,4.8731,-11.9229,12.5028,-7.4083,
7.6077,-8.2258,-17.1091,21.3341,-9.4193,20.9849,-5.2918,0.37168,-4.1202,1.2042,1.2848,2.8925,-2.3474,-2.7265,
-6.9488,6.3677,-1.9825,34.154,5.2459,33.8258,-1.6788,-13.7506,10.227,-7.3185,15.3077,-6.2269,11.8935,0.73214,
7.097,-8.1143,-15.9636,18.0048,-5.4277,17.6962,-15.6781,1.1744,-4.4866,3.4795,0.76043,0.73809,-0.56565,4.4553,
-6.9827,-21.7275,-21.6226,2.8245,-5.5723,2.5345,-28.8374,-3.1083,-18.3174,-0.96709,7.7769,0.22354,13.5683,-4.7579,
-6.0926,-6.3238,-6.2253,16.755,2.7664,16.4824,-13.0072,-17.0218,-3.1183,-7.9711,4.9562,-10.6186,26.8542,-7.7679,
8.373,-20.0444,-19.9518,29.8497,-11.4996,29.5934,-26.3267,-1.9005,11.1688,6.6071,5.6005,4.1185,11.1429,6.7982,
-6.2294,-8.0627,-4.6547,42.1587,3.29,41.9178,-27.622,2.4499,24.5986,1.5273,16.5646,7.6618,24.5744,5.4735,
3.0897,-13.6996,-18.4754,25.5292,-11.0074,25.3028,-40.0646,16.4029,9.0227,12.2643,1.9168,18.0316,21.737,7.4991,
-4.6289,-15.7028,-9.8332,9.8975,-19.3179,9.6846,-23.5608,23.4482,-5.6186,21.8869,11.2179,24.483,34.5327,5.1663,
-11.4137,-0.66063,4.8568,-4.7964,-4.5045,-4.9965,-8.0471,7.9413,8.8185,6.4737,5.3661,8.914,46.5608,-9.2437,
3.3711,-14.721,-9.5346,9.5914,-18.3342,9.4033,-21.6643,21.0948,-5.8106,11.2396,5.0439,21.0668,29.6671,5.4109,
-10.9311,0.26227,5.1375,23.1159,-6.4301,22.9391,-15.1848,5.7291,8.638,-3.5347,1.4456,5.7028,37.3292,-8.0973,
3.8247,14.3465,12.3875,7.629,-12.6361,7.4628,-0.17369,-1.7029,-5.9803,-6.6434,-9.941,-1.7267,23.7886,-2.9034,
-6.7377,-0.61426,-2.4557,-6.9288,-17.9985,-7.085,13.9367,-5.8376,-19.7215,6.4677,-4.1654,11.0893,20.9496,-7.9075,
-9.1591,13.5226,11.7916,-18.259,-2.8186,-20.7599,27.2005,-17.7291,-4.4382,-7.1036,1.7345,-3.676,33.7927,-15.9082,
5.4905,-1.3888,-3.0159,-31.2635,-10.1577,-33.6143,11.4685,-2.5653,-18.2719,7.4227,0.68855,10.6445,40.2648,-0.85373,
-1.8769,-15.4054,-0.97666,-33.6501,2.2223,-22.2059,-3.3196,-2.8575,-3.0756,-6.6515,6.7683,-2.707,46.7943,-5.0152,
-4.589,-0.38111,13.1819,-27.8649,-4.5024,-26.5235,10.9796,-9.2774,11.209,-6.2529,-7.7378,-11.0197,29.8867,-8.4814,
-7.6091,-4.571,-1.709,-40.293,-8.47,-39.0321,24.4208,5.3792,22.8028,8.2223,4.472,3.7414,13.9935,6.1275,
-12.3322,8.4162,4.9854,-23.7754,6.1382,-22.5902,20.2051,-9.0435,7.3346,-4.4877,15.9743,-0.22416,27.2538,-0.80647,
2.5077,-6.1888,-9.4138,-36.4489,-8.3301,-35.3348,4.8928,5.5991,-7.2055,9.8815,7.9537,13.8893,39.7186,8.1878,
-8.9171,-19.9175,-18.2905,-48.362,-5.4763,-47.3147,-9.5008,-7.8954,-5.4107,0.83856,12.6553,5.5473,51.4355,-5.0164,
-0.37858,-4.6224,-3.0931,-31.3602,-3.7351,-30.3758,5.1692,-10.7172,9.014,-11.9242,0.12495,-8.8855,53.5532,-8.9523,
-1.2973,-3.8994,-15.5954,-15.3786,-17.611,-14.4533,18.9591,4.0259,22.5731,2.8912,-1.7654,4.335,61.6399,-4.6495,
-12.0486,7.1637,-0.55964,-0.35591,-2.4543,0.51394,12.1716,-8.9035,7.1188,-5.2611,3.5202,-5.8119,72.0415,-4.8403,
2.7743,-7.3661,-14.6261,-14.4346,-10.311,-13.6169,-2.6587,5.7307,-7.4084,9.1545,1.4252,8.6368,53.619,5.8085,
-4.4296,-21.0241,-27.8485,-27.6685,-6.3965,-26.8999,-16.5992,-2.5921,-21.0639,5.3344,7.4608,16.1476,49.4604,-8.64,
2.8991,-5.6627,-12.0776,-11.9084,0.10797,-11.1859,-1.5032,-10.441,-5.7,-9.0857,-4.7579,1.0787,44.1388,-12.8551,
10.7289,-6.7604,-9.469,2.9061,-10.7274,3.5853,12.687,4.2855,8.742,5.5595,8.2403,13.2305,27.3904,-8.7881,
-4.0148,2.1202,5.1992,16.8318,4.0162,17.4701,9.5717,-3.9501,-5.8825,-5.1325,9.6294,-1.6634,37.493,-19.56,
10.3261,-12.107,-9.2128,1.7219,-0.90821,2.3219,-5.1026,10.3869,-19.6296,9.2754,-5.0484,12.5364,21.1434,-4.2864,
6.8815,-25.4806,-22.76,-12.4815,7.6212,-11.9174,-18.8964,14.4964,-32.5518,21.9271,-16.0708,12.7259,31.1501,-3.0632,
13.06,-9.8518,-7.2944,2.3674,21.2639,2.8977,-3.6626,-0.47343,-16.4987,6.5115,-11.3404,-2.1376,36.8138,-16.9794,
22.1641,4.8393,-17.6861,16.3254,5.8881,16.8238,10.6571,13.655,-1.4088,9.3921,-11.1303,12.0906,20.505,-10.8065,
6.7343,18.649,-2.5249,29.4459,13.0685,29.9144,-4.0823,-1.2643,12.7757,-5.2714,-9.0498,-2.7348,23.0172,-13.454,
20.4302,3.43,-16.4734,13.5791,23.1135,14.0195,-17.9374,12.9115,-2.0908,4.4359,-8.9776,5.4086,8.9232,-7.468,
18.7337,-10.8758,-15.0143,-1.3356,22.1965,-0.92166,-30.9611,13.0778,-16.0654,4.6405,1.4479,5.5548,6.9748,-16.9067,
19.9632,3.8768,-0.013461,12.8445,16.6274,13.2336,-15.0035,0.52258,-1.0014,-8.35,-7.5844,-8.4328,-0.50621,-18.2468,
32.8654,-10.4558,-14.1127,26.1738,1.5298,26.5396,-28.2032,14.5912,13.1587,6.251,-7.6002,6.1732,-14.5758,-3.052,
16.7935,4.2715,0.83411,38.7034,15.538,39.0472,-17.6399,-0.38425,18.0441,-8.224,-0.08192,-7.3553,0.39872,-15.0856,
25.2029,18.1152,-4.3701,22.2812,6.131,22.6044,-30.6815,13.7388,2.8615,-7.7306,-12.3187,-2.2055,-13.7252,-8.5305,
18.0404,2.9283,-3.1665,6.8443,5.7632,7.1481,-14.7411,12.9395,-11.4102,-0.67493,-4.9878,11.1095,-16.6925,-5.1935,
8.0125,16.8526,11.1235,-7.6663,19.5174,-7.3807,0.24338,-1.9368,3.3744,-10.5222,-4.2178,-3.657,-1.5909,-6.2949,
16.9481,1.7415,-3.6439,-10.477,4.2463,3.9165,-13.8712,12.2794,-10.9281,4.2092,-5.8478,10.6624,-15.5955,-0.26662,
1.8312,9.6409,4.108,4.2516,12.4662,17.7815,-27.1389,-2.5574,-3.7307,-10.1434,3.4486,-4.0774,-0.55974,-14.3506,
3.1091,23.1625,-3.6717,-10.1035,1.3607,2.6146,-11.4106,-1.4867,-17.6068,-5.2974,-10.8583,-6.6821,-14.6262,-7.3938,
-9.3196,7.6727,-17.5514,-23.5973,-12.8209,-11.6422,3.374,-1.3984,-30.6504,-1.213,-17.7651,5.0178,-21.2827,0.5831,
-6.8767,20.396,-2.3983,-36.2814,2.0483,-25.0437,17.2716,-9.7882,-14.7114,-15.2402,-2.5992,-9.3832,-5.9058,-3.2185,
7.6359,5.0722,-16.3544,-48.2045,-5.1367,-37.6411,2.1353,4.8991,-27.9287,-0.22578,-4.7722,5.2798,-19.6514,-0.67137,
-0.80203,-1.3783,-1.2732,-31.2123,9.2715,-21.2826,-10.6807,-9.0251,-12.153,-10.0999,1.1641,-3.041,-11.4098,-6.281,
5.8388,12.8044,12.9032,-15.2395,7.7975,-5.9057,4.0602,-4.7169,2.6762,-17.0272,-13.0058,-7.5666,-19.1999,0.68765,
-1.1038,3.5861,-1.971,-28.4252,-6.7703,-19.6513,17.9165,9.6661,-11.5844,-1.9056,-6.6005,6.9874,-25.5807,8.1792,
-8.0996,17.4709,12.2473,-17.8232,3.4995,-23.7013,15.4795,-5.0139,-24.9893,-11.653,0.85846,-7.5318,-9.9458,-0.31507,
6.4863,2.3227,-2.5876,-30.8538,-10.8105,-36.3793,0.45074,9.3869,-37.59,3.1462,2.2191,7.0201,-23.4491,13.8038,
-8.0028,-11.9167,-16.5323,-43.1026,-9.7167,-48.2965,-13.6763,0.37455,-49.4346,-4.0805,4.9107,0.032561,-33.342,1.2296,
6.5773,2.8983,-1.4404,-26.4165,-7.7215,-31.2987,1.2443,-0.11953,-32.3685,-11.8405,0.37871,-9.8571,-43.113,0.68424,
3.383,5.0789,4.2964,-10.7315,-21.3582,-15.3208,15.2696,5.538,-16.3264,0.17066,0.35599,4.8343,-40.5253,-3.1225,
-10.92,12.3074,18.1386,4.0124,-5.9767,-0.30154,0.25344,-8.8943,-29.4468,-13.0223,6.9264,-9.5557,-23.9938,-8.5856,
3.8352,-2.531,2.9503,-10.3283,-7.501,-14.3834,-13.8618,5.7394,-41.78,1.859,-0.080955,5.1176,-33.8299,6.0296,
-10.4949,-16.4792,-11.3267,-23.8086,-5.1676,-27.6204,-27.1301,-7.7881,-45.9648,-1.0531,14.0239,8.6018,-17.7001,0.98434,
-21.6613,-1.3904,3.4529,-8.2801,-3.4454,-11.8632,-11.4023,-14.3834,-29.1069,-9.9362,18.3867,-6.0143,-2.5381,-7.0787,
-9.0615,-15.407,-10.8543,6.3167,-17.3387,2.9486,3.3819,0.57962,-13.2605,4.76,14.4586,8.4465,-14.1065,7.446,
-22.6178,-5.5869,-0.34034,20.0377,-2.1984,16.8717,-7.6752,3.3951,1.6352,8.2661,20.1826,-5.7137,0.83992,14.5576,
-7.1608,-19.3516,-14.4199,4.7354,-16.1665,1.7594,-21.3147,17.2914,-12.5629,21.8701,11.9092,8.7291,-13.3105,21.6881,
-11.4398,-32.2905,-27.6547,-9.6487,-12.3959,-12.4462,-34.1358,4.0372,-25.9092,18.6996,16.3738,16.7046,-12.5116,8.6158,
-21.1119,-16.2531,-11.8954,5.0302,-10.7107,2.4006,-17.9877,-10.305,-10.2546,3.4776,1.2914,1.6024,-22.1194,-2.2596,
-5.7452,-14.8316,-12.6196,18.8284,-24.1681,16.3565,-20.2292,4.4133,4.4607,17.369,15.3139,15.6062,-33.5044,11.976,
-18.5581,0.15831,2.2376,31.7987,-8.618,29.4751,-12.8945,-9.0351,18.293,2.2268,28.4951,0.56985,-17.3942,8.4582,
-3.3446,-13.9512,-11.9967,15.7908,-16.576,13.6066,-26.2209,5.607,3.0954,12.4262,12.6854,8.0443,-26.2134,7.9502,
-2.6484,-26.2973,-6.5684,0.74334,-13.2272,-1.3098,-38.7476,11.4165,-11.1903,16.8605,26.0242,20.2739,-19.4616,11.7108,
-14.2603,-10.6195,7.9257,14.7987,-18.5545,12.8688,-22.3228,-3.3685,3.5811,1.7489,15.0713,4.9574,-13.1145,0.17966,
0.69531,-12.3119,-4.296,28.0108,-24.9749,26.1967,-35.0834,10.9336,17.4663,15.7439,16.9913,18.76,-26.4276,14.2689,
-12.0338,2.5268,10.0618,40.4302,-9.822,38.7249,-20.316,-3.8224,30.5183,0.69929,1.8718,3.5344,-18.7464,-0.68726,
2.7882,16.4752,9.0119,23.9044,-18.6488,22.3014,-33.1971,-7.3845,14.5872,-7.8431,-10.9771,-9.8852,-31.7216,-4.8838,
-7.2413,1.4117,14.5928,8.3701,-19.8839,6.8633,-17.1052,-2.7037,-0.38804,-3.1347,0.51113,1.5375,-29.3713,-4.1196,
-2.5695,15.427,27.8172,-0.55758,-4.5909,6.5012,-1.9789,-16.6414,13.7352,-17.0466,1.8926,-12.6548,-13.509,-5.2855,
11.6847,0.40139,12.0482,-1.9367,-2.4075,-7.9889,-15.9602,-1.543,-1.1889,-1.9238,-2.4592,2.2045,-25.8579,9.1317,
-3.1164,0.37686,21.6833,12.2795,11.8369,6.5904,-14.5319,-3.3346,12.9825,-11.2249,7.1049,-12.0277,-10.2064,-0.33703,
-8.5798,0.82541,18.9697,25.6427,9.7387,20.295,-0.9475,-1.7219,26.3035,-9.1388,5.266,-12.7442,2.2016,-0.78798,
-9.9483,1.7178,16.8896,24.625,5.3882,23.8104,12.293,-0.67673,24.8501,-6.7072,2.1253,-11.0376,-4.5219,-1.6826,
-9.3519,3.498,15.8767,9.9639,3.1816,12.9652,25.6554,2.1886,24.3005,-3.48,1.9974,-8.493,-8.9591,-0.63974,
-10.6732,3.2877,13.0408,-4.734,-0.77634,-0.05442,37.3243,2.9992,20.9592,-1.3879,-0.0048973,-7.0415,-15.0129,-0.60091,
-10.9747,4.0323,11.3164,-18.5499,-4.4959,-10.4091,48.268,4.7025,19.7016,0.57867,-0.94648,-4.7357,-19.762,-0.5653,
-11.7288,5.203,10.1663,-31.5369,-7.5225,-21.5556,59.0258,5.833,18.0488,2.898,-3.2437,-3.039,-24.697,-1.0017,
-11.4958,5.3615,8.1442,-43.7447,-10.3662,-32.0324,69.1386,6.896,17.4371,5.0786,-3.5198,-2.385,-28.3939,-0.47084,
-8.452,11.1613,21.7555,-27.02,4.3558,-19.2813,50.8903,-7.6177,2.2908,-8.88,10.7914,-16.3419,-12.5903,-2.7966,
6.1551,-3.6083,6.3502,-39.4988,-2.0021,-32.2244,33.7369,3.643,-11.9466,5.7528,9.6978,-1.2614,-22.6394,11.4712,
-8.3142,-17.4918,-8.1308,-51.2289,9.8891,-44.391,17.6127,-4.58,-12.2218,6.8443,18.0618,-1.1866,-7.181,15.9863,
-9.6986,-2.3423,6.457,-34.0552,7.8836,-27.6275,30.6559,-12.3091,2.6115,-7.6663,2.878,-11.0022,-13.3165,8.9069,
-1.583,-0.34397,1.8327,-17.9119,-6.6894,-11.8699,42.9165,2.5294,16.5548,6.8937,5.0343,3.7579,-22.8764,16.8476,
-10.4348,2.0307,15.8228,-2.7372,7.8119,2.9423,26.2415,-7.485,1.4615,-2.9361,1.4368,-10.5676,-7.4038,5.0072,
4.2913,-12.1911,0.77339,-16.6729,6.4014,-11.3342,10.5671,7.0641,-12.7262,11.3401,-8.5376,4.1665,-21.0596,18.8067,
-10.0662,-25.5597,-13.373,-29.7725,19.6712,-24.7542,-4.167,0.073471,-26.0626,2.2092,6.0747,1.5871,-6.1421,12.053,
-9.4618,-9.9261,1.5294,-13.8862,13.7824,-9.1689,10.183,-10.2889,-10.3988,-12.0234,-6.9767,-12.6082,-8.5983,-2.7702,
5.206,4.7695,-0.44638,1.047,-1.1446,5.4812,16.5597,4.4284,4.3251,2.798,-9.8538,2.2483,-22.1824,11.496,
-9.2064,18.5833,13.6804,15.0842,13.0241,19.2524,1.4661,-9.9373,18.1656,-11.4698,-2.6714,-8.7157,-6.7515,4.6861,
4.9994,3.3683,-1.2404,0.079108,7.063,3.9972,-12.7219,4.7589,2.9757,2.8472,-12.8691,-1.6014,-20.4464,1.5793,
-9.4005,-10.9338,-15.266,-14.0256,16.0567,-10.3426,-26.0586,6.8525,-11.3029,5.502,2.003,0.37798,-13.124,1.485,
-6.5062,3.8222,-0.25004,0.9159,17.4473,4.3779,-10.3951,-7.6587,3.4753,-8.9281,-0.4466,-13.7447,-6.2159,-2.8419,
7.9842,-0.64444,0.70662,14.9609,2.3005,18.2153,4.3286,6.9009,17.3668,5.7076,10.4093,1.18,-15.7298,11.4286,
-6.5949,7.3982,14.7642,28.1633,12.4963,31.2223,-6.785,-7.6132,24.85,-6.4055,1.7813,-10.6614,-5.8402,-3.3571,
7.9008,-7.1457,-0.22163,12.3735,15.9838,15.249,-20.4779,6.9436,9.259,4.808,4.028,3.6326,-19.5898,10.4991,
-6.6732,-20.817,-14.3083,-2.4689,5.1375,0.23406,-21.1576,7.9396,-5.3966,4.0484,16.4988,10.4767,-12.7895,7.5142,
-15.2196,-5.4679,0.65017,9.4001,17.5408,14.32,-5.7882,-6.6368,9.0272,-7.0232,4.6792,-4.2519,2.0779,-5.6491,
-0.20639,-19.2399,-13.4888,22.9361,6.1304,27.5608,-19.5409,7.8614,12.6983,7.4982,0.63231,10.1033,-12.1468,4.1073,
-6.7603,-6.3646,1.4205,35.66,19.8626,40.0072,-12.2473,1.2686,23.2363,-4.227,11.8942,-3.2149,2.682,0.094247,
0.23711,7.2009,-5.2565,19.4204,4.5708,23.5067,-25.6125,6.842,7.7421,-2.0905,-2.9194,-2.0806,-11.5789,-2.7375,
-3.073,-7.3311,-5.4114,4.1551,1.0007,7.9963,-9.9757,10.6697,-6.8224,12.1349,8.0607,12.1442,-14.6508,2.6064,
-3.3594,-9.7415,9.0133,-10.1942,15.0406,-6.5834,4.7228,-4.0705,7.6869,-0.80942,16.5216,-2.6844,0.32826,-2.7296,
8.6132,-23.257,-5.6275,-23.6825,1.9215,-20.2884,-9.6606,10.2738,-6.8743,5.3598,1.4303,10.1891,-13.7914,7.3223,
-6.0036,-7.7616,8.8101,-8.1616,15.9062,-4.9711,5.0191,2.1236,7.6382,-7.2031,14.0328,0.16074,1.136,7.8244,
-4.2563,6.8041,22.3815,-21.7719,11.681,-18.7729,18.8179,-8.8329,-6.9201,-20.8709,-0.9092,-13.9489,-11.6195,-6.7451,
-15.7719,20.4959,35.1386,-34.5656,17.1008,-31.7465,31.7888,-5.9489,7.5951,-13.9938,5.7117,-12.1951,3.1777,-13.8982,
-9.1757,33.3661,47.1303,-18.3916,30.1747,-15.7417,43.9815,-12.1833,21.2394,-4.679,19.469,-19.9386,17.087,1.0357,
2.6752,17.2641,30.2025,-31.3881,22.7398,-28.8972,27.2426,2.6477,5.865,7.8435,4.2008,-8.3834,1.9618,15.0736,
0.16065,2.1283,14.2903,-38.9965,34.087,-13.0643,11.5081,14.2844,-8.5869,-5.3405,8.1857,-5.5263,15.9441,12.8057,
7.6838,16.1006,26.1946,-22.5567,17.9418,1.8196,24.9176,-0.67265,6.0283,-19.1201,-6.4055,-17.4365,0.88742,-2.0626,
0.63097,4.8262,10.5229,-35.3029,2.7653,-12.3896,37.5225,11.5844,19.7666,-3.8729,-19.2285,-2.2903,-13.2658,2.7446,
0.12329,11.5992,-4.2085,-47.2847,16.6993,-25.7462,21.1712,6.652,4.4806,-3.1693,-3.9748,-6.3652,-3.524,9.6425,
14.2159,-3.1968,-18.056,-58.5476,15.6732,-38.3014,5.8009,20.3529,-9.8882,7.8504,-5.5945,8.1167,-17.4126,19.8935,
0.20437,-17.105,-31.0726,-69.1348,13.3202,-50.1034,-8.6471,8.7983,-23.3949,-4.3916,-2.9048,1.063,-6.0345,10.6955,
12.4338,-1.9787,-15.1083,-50.8867,11.5791,-32.9971,5.9717,8.2709,-7.8912,-6.0114,-12.1471,-12.184,-16.9727,9.1128,
8.8626,8.473,-23.2218,-33.7335,-3.2156,-16.9173,19.7134,18.1322,6.6823,-3.767,-12.3597,2.6471,-30.0543,-2.7347,
-3.4397,22.0646,-7.7285,-17.6095,11.0773,-1.8023,7.305,2.9442,-7.8187,-13.4287,2.4819,-2.6664,-14.1511,2.6081,
10.8667,6.6407,-21.3648,-30.6529,0.054709,-15.7941,-7.2333,16.8676,-21.4496,1.477,-1.4091,11.5936,-22.7186,16.5516,
-1.0606,-7.8577,-34.1829,-42.9137,3.3464,-28.9465,-20.8993,16.3267,-34.2626,14.5966,6.6794,14.6892,-10.5263,24.0587,
-2.8803,6.7138,-18.032,-26.2389,2.2047,-13.1097,-5.5454,1.2471,-18.1068,-0.37917,-7.8213,0.62559,-18.369,12.2572,
2.9429,3.9573,-25.8959,-10.5646,-12.0276,1.7769,8.8874,15.2723,-2.9204,13.7436,-6.4352,14.6881,-31.3668,15.2884,
-7.1214,12.6653,-10.2421,4.1693,2.794,15.7703,-5.7459,3.5272,11.3548,-1.181,8.0509,-0.29323,-15.3848,10.1337,
7.4059,-2.1946,-23.7276,-10.1809,13.9263,0.72405,-19.5011,17.4156,-3.4265,12.9898,1.0011,13.8244,-19.1707,23.6257,
5.5736,-16.1629,-28.8957,-23.67,14.0321,-13.4194,-32.4311,13.0989,-17.3209,15.0352,8.4743,7.3696,-11.4286,15.1707,
-3.7062,-1.0932,-13.062,-8.1498,5.1862,1.4858,-16.3852,-1.787,-2.1816,0.03307,1.8447,-7.1726,-1.7975,0.16045,
10.6161,-10.469,-4.2491,6.4392,-9.2249,15.4966,-19.6893,12.4202,12.0493,14.1311,10.2098,7.3578,-15.7897,14.2508,
-4.1208,4.2592,6.3645,20.1528,5.4286,28.6668,-14.7411,0.84673,17.4219,-0.81678,1.1223,8.3284,-0.74228,11.0413,
9.3096,-10.0964,-8.1173,4.8437,-3.3723,12.8468,-27.9566,14.8959,2.2766,12.862,-2.7121,7.8292,-12.9395,19.7954,
-0.19481,-23.5906,-21.7303,-9.547,0.12552,-2.024,-37.1334,14.497,-11.96,13.5019,11.5507,5.0045,-4.1587,9.6618,
-3.0079,-8.0752,-6.3265,-5.2075,14.218,-16.0026,-20.8054,-0.47278,2.8576,-1.4082,1.9364,-9.3958,4.5659,1.5493,
11.2726,-21.6906,-20.0469,9.2049,-0.73509,-0.9424,-33.6571,13.6556,16.3154,12.7763,2.7621,5.268,-9.808,15.5564,
-3.5037,-6.2892,-4.7441,22.7526,12.0224,13.2141,-17.5377,4.8327,16.7491,4.9477,10.6008,0.71501,4.8805,13.235,
-4.2354,8.1881,-6.839,7.2875,-2.799,-1.6787,-23.9936,3.1302,1.6441,-3.3536,-4.1353,-8.2737,-9.5124,1.6122,
-0.21466,1.601,-9.2538,-7.2498,-0.30206,-15.678,-8.454,16.1251,-12.5545,10.9476,10.2128,6.3227,-21.2084,14.6982,
-4.9103,9.9801,5.4014,-20.9148,11.9578,-28.8373,6.1533,1.0576,2.2988,-3.8088,2.5375,-7.2148,-5.8359,6.2835,
9.4843,-4.7187,-9.0227,-33.7599,-2.8597,-41.2071,-8.3159,15.0941,-11.9392,10.5197,-2.7939,7.3181,-11.5818,9.2019,
-5.1847,0.71858,5.6187,-17.6343,11.4119,-24.6346,1.1539,0.088487,2.8772,0.96776,11.4737,-3.9255,3.2131,4.8832,
1.247,14.7755,19.3816,-30.6762,11.1975,-37.2566,15.1847,-5.1206,-3.9123,-9.4487,-3.3147,-17.79,-3.5464,-2.0016,
-6.8318,11.5595,4.1187,-42.9357,-3.5744,-49.1212,28.3736,8.8409,-17.7776,-2.7616,-11.1198,-4.0347,-16.9871,-2.3522,
-6.8926,24.9659,17.9716,-26.2595,10.7401,-32.0739,39.904,-5.7895,-2.6109,-16.2494,1.318,-17.447,-1.8679,0.14339,
7.621,9.368,2.7933,-38.784,17.6289,-44.2495,23.4098,8.6578,-16.5543,-1.1744,-6.2943,-2.3002,-6.9104,14.2348,
-5.5237,-5.2941,2.6512,-35.5893,30.6712,-54.8765,7.9052,6.2551,-17.9396,-0.60771,8.1833,-3.5497,7.6042,10.1103,
0.92883,9.1236,16.5921,-19.3539,14.7309,-37.4839,21.5309,-1.1828,-2.7632,-11.4013,-6.4072,-17.4367,-3.185,2.4412,
-1.0102,22.6761,12.3253,-5.4556,-0.25295,-21.1349,34.339,5.4796,11.5025,2.466,-15.4402,-5.586,-15.2356,-0.53095,
-9.8954,27.932,21.473,0.99234,13.8622,-26.409,18.1787,-8.9492,-3.2876,-11.782,-11.2175,-19.3508,-0.22147,-5.6783,
4.7983,12.1561,6.0846,-13.1672,14.9138,-38.9244,2.9879,5.6877,-17.1904,3.0249,1.2261,-4.0898,-10.542,8.7624,
-5.3527,-2.6733,-7.9594,-26.4772,22.4941,-50.689,-11.2913,4.405,-16.6301,8.4938,15.2526,10.2556,4.1905,22.3366,
-1.7352,11.5871,6.6182,-10.7885,18.7904,-33.5476,3.4861,-8.5717,-1.5323,-6.1158,0.23742,-4.4597,1.6097,7.8629,
-3.5148,24.0504,4.8336,3.9588,3.563,-17.4348,17.377,3.2425,12.6596,4.1133,-10.606,-1.8381,-12.5869,3.6245,
-17.404,10.3657,18.6435,17.8212,6.1489,-2.2887,16.78,-11.0521,17.1289,-7.4329,4.1304,-15.8278,2.2683,-2.2429,
-2.2597,-4.3563,3.4249,2.652,16.6096,-16.2514,1.6732,3.711,2.0012,7.1131,7.2026,-0.77815,-6.8132,11.9917,
1.1718,-18.1949,-10.8806,-11.6071,25.9714,-29.3763,-12.5272,11.4923,-12.2189,5.2979,2.0624,0.68068,7.6956,17.4179,
1.5722,-3.0032,3.8723,3.1893,19.2335,-13.5137,2.3245,-3.2972,2.6143,-9.12,-10.7733,-13.4602,2.0792,8.3689,
-0.40546,11.277,2.698,17.0979,3.9795,1.3971,16.285,-1.7118,16.5574,3.1732,-15.7769,-0.90658,-12.1455,6.9249,
-10.7391,24.7004,16.6362,30.172,17.8407,15.4133,25.6663,-11.0257,19.3306,-11.1172,-1.6471,-9.3273,2.6832,10.2764,
4.0052,9.1184,1.538,14.2617,16.7703,0.3885,10.0263,3.7359,4.0707,3.6498,-3.4311,5.3323,0.63937,22.8426,
1.9062,-5.5287,-12.6543,-0.69398,16.7064,-13.7348,-4.6752,16.7204,-10.2735,16.6149,10.8747,16.3373,3.4262,12.9973,
-0.56174,8.903,2.205,13.4477,24.6494,1.1893,9.7053,1.6172,4.4429,1.518,3.1839,1.2571,5.5742,4.2135,
0.88411,2.7189,-0.75206,26.7408,9.0704,15.2179,-1.2605,15.6192,18.2763,2.3433,-11.1071,-3.5515,-8.8603,6.3143,
-13.2689,16.6557,13.3931,39.2364,18.3889,28.4048,-5.8925,0.58208,22.8301,-4.3891,3.6593,-14.6382,5.7714,2.1697,
1.6272,7.6775,-1.5105,22.7822,3.1855,12.6006,-19.6389,7.5855,7.3603,1.0539,-8.8016,-4.8145,-8.6749,9.1021,
3.4129,7.6871,-9.895,7.3152,17.0944,-2.2555,-18.4861,5.7178,-7.1813,5.2276,4.439,-4.0545,0.76636,10.9091,
-4.3251,21.3259,4.7987,20.9763,27.369,11.9798,-3.2769,-8.7253,7.3496,-9.1861,-2.4183,-17.9112,10.1374,-2.9273,
10.0344,5.9463,-9.5892,33.8177,11.6269,25.3611,-17.1803,5.8982,3.5877,5.4651,-4.6285,-2.7366,-4.5709,11.3483,
-4.6677,19.6895,5.0861,45.8887,16.5542,37.9394,-18.9742,-4.8136,17.4724,-8.9628,5.5373,-4.4557,9.8034,5.9831,
9.7124,32.6082,18.881,29.0354,5.2025,21.563,-24.4276,-1.7005,2.3241,-8.4497,-8.8949,-12.6639,-4.8848,3.7404,
-0.73259,27.4063,5.0857,13.1932,-2.1722,6.1692,-8.8619,4.5226,-11.9154,5.7116,-4.1489,1.7503,-6.0294,11.5208,
-5.8678,28.116,14.6679,-1.6984,12.0581,-8.3009,5.7698,-9.8488,2.8995,-8.7311,2.2216,-12.4548,8.4324,10.3584,
8.5842,12.329,-0.31221,-15.6965,4.297,-21.9029,-8.6764,4.8422,-11.3744,5.8928,1.1462,2.3925,-6.1736,23.8369,
-2.2642,-0.67707,10.0399,-0.65467,17.2225,-6.4887,-22.2554,-6.2771,3.408,-8.1146,2.0186,-8.5797,8.2969,8.3067,
5.4049,13.4636,23.5375,-14.7154,4.8893,-15.4913,-6.8201,2.5742,14.0322,-8.5701,-11.2852,-9.9487,-4.8884,3.1002,
-2.4526,26.7557,8.0253,-27.9325,-9.504,-28.6618,7.6891,12.7782,-0.90969,6.0441,-10.6081,4.7482,-17.7778,2.9142,
-3.2474,34.6162,8.4856,-29.1068,5.1662,-30.7338,9.1608,-2.0885,-13.1215,-8.4185,-3.3803,-9.6367,-2.6111,-2.9106,
11.0475,18.4392,-6.1235,-41.4603,7.2103,-42.9898,-5.4889,12.1368,-26.4342,6.1866,5.7679,5.0415,-5.7257,11.364,
-3.7154,3.2328,-19.8561,-49.8269,13.3694,-33.3729,-19.2596,3.4042,-10.7481,11.0196,17.664,5.2353,8.7178,14.0023,
6.3948,17.1389,-4.5647,-32.7373,10.684,-17.2705,-4.004,9.7913,3.9968,-0.94184,16.6037,2.0964,1.6284,11.2797,
-4.3469,11.8481,-16.0869,-16.6731,-4.0571,-2.1343,10.3363,6.3791,17.857,-3.7101,6.191,13.27,-12.5693,-1.6388,
-9.2648,19.1421,-1.0217,-1.5727,10.2864,5.1068,7.8332,-8.1036,2.6855,-7.7248,13.8244,-1.6262,2.2849,-4.8364,
5.3911,3.8936,-15.0604,-15.5783,7.7854,-9.2996,-6.7368,6.4826,-11.5756,6.8387,6.8734,12.5714,-4.444,9.5538,
-5.2662,-10.44,-28.2568,-28.7436,12.4971,-22.8416,-20.4326,3.7396,-24.9811,4.5692,10.6983,5.6965,5.7094,9.0052,
1.1704,4.2864,-12.4614,-12.919,3.7437,-7.3711,-5.1066,-10.5848,-9.3822,-8.4165,-4.0436,-8.7453,0.18855,-5.6351,
-5.02,18.1292,2.3863,1.9561,-10.5809,7.1712,9.2998,-9.9743,5.2807,4.8014,-6.6499,3.9961,-13.9228,-9.0883,
-7.0733,23.1616,16.3431,15.9388,4.154,20.8409,22.8418,-9.8465,-6.7816,-9.5867,7.8491,-3.3062,1.0126,5.557,
7.4511,7.6719,1.2625,0.88244,6.2592,5.4904,7.3713,4.8442,-20.4747,5.0885,12.1113,10.9922,-0.4612,17.49,
3.7332,-6.8884,-12.9132,-13.2705,13.4169,-8.939,-7.171,1.2827,-33.3462,13.2579,25.4846,6.1204,7.0997,2.3406,
0.21329,7.6249,1.9616,1.6257,9.316,5.6974,7.3593,-12.8942,-17.2455,-1.6376,9.8555,-8.3469,2.4364,-9.5955,
3.0257,21.2674,-2.8396,15.6282,-5.343,19.4555,21.0177,1.9794,-2.1107,-2.0351,-4.8358,1.0743,-11.8098,-9.9612,
-0.92293,27.5251,11.4308,28.7905,9.0776,32.3882,22.1353,-10.8518,-2.926,-7.5629,9.5543,-11.231,2.9988,-9.364,
13.2324,11.7736,-3.355,12.9631,7.1199,16.3449,6.7072,3.8993,-16.8504,6.9908,8.0387,1.213,-10.8355,3.9103,
5.8713,-3.0328,-9.7455,-1.9147,7.1634,1.2642,-7.7953,3.69,-29.9394,0.0041837,11.7938,-0.27196,-3.1228,-6.212,
5.0487,11.2491,4.9392,12.3002,12.8551,15.2883,6.7724,-10.6314,-14.043,-13.65,-3.0139,-14.3556,-4.3471,-16.668,
10.3958,-3.5258,-6.1604,25.6622,-2.0162,28.471,-7.7339,4.1064,0.89955,1.269,-10.862,-5.5154,-18.1863,-2.4847,
-3.4112,10.7857,8.3093,38.2224,8.4382,40.8628,6.8301,-6.9686,-10.925,-5.3739,3.8897,-14.601,-2.9951,-7.0442,
10.8935,10.1131,-6.2893,21.8291,-6.1681,24.311,-7.6797,-0.42988,-24.3695,6.7196,-7.1478,-3.8377,-16.9154,-12.7422,
-3.8601,-4.5937,-20.0119,6.4193,-19.898,8.7524,-21.3189,-2.7581,-37.0073,10.5542,5.9935,4.397,-20.6336,-12.4479,
-1.7452,7.4283,-4.7112,-8.0658,-4.6041,-5.8728,-5.9398,-6.3597,-20.6869,-4.179,19.7339,-3.4005,-5.2956,-3.2268,
12.4595,-7.1174,-18.5285,6.5181,-10.0026,8.5796,-19.6834,8.1219,-14.762,10.1717,15.7504,10.9035,-17.1948,8.2669,
4.6745,7.4097,-3.3168,20.227,4.6975,22.1648,-4.4024,-2.2281,-2.1059,-4.0934,19.9839,1.329,-2.0631,-0.23329,
17.1065,21.0651,10.9822,4.9134,3.4986,6.7349,3.8165,4.9686,-16.0796,-6.2018,4.6849,-4.8714,-12.2729,5.9022,
1.9801,5.7012,-3.7768,-9.4814,-10.8113,-7.7692,8.7659,3.2574,-29.2148,2.1743,4.3792,6.25,-19.5405,5.0765,
-8.9929,3.0051,-9.6708,-23.0125,3.9374,-21.403,22.3399,-7.2956,-13.3619,-2.6643,18.2164,-4.4834,-4.2681,1.9476,
5.6467,-11.2752,-23.1905,-35.7318,-9.4825,-34.2188,6.8995,7.2422,-26.6602,11.5956,16.6769,9.8856,-5.4,14.5428,
10.9828,-24.6987,-34.0659,-36.3871,0.033192,-46.2657,-7.6145,7.7737,-39.1606,19.4,20.8564,19.6755,2.9284,10.3747,
7.4991,-9.1168,-20.7221,-48.3039,-14.0688,-57.5898,6.9424,9.1906,-50.9109,4.136,5.505,4.3949,-11.3473,-4.3477,
-6.6052,-21.3077,-29.3665,-59.5056,-27.3247,-68.2344,20.6259,11.935,-61.9563,-7.9082,0.91188,8.344,-24.7664,-18.1869,
5.5622,-10.1411,-13.5045,-70.0353,-11.5852,-78.2403,5.2883,-2.8811,-44.2382,-3.1959,14.9572,-1.1025,-9.1804,-12.4377,
19.3284,-23.6326,-26.7942,-79.9332,-14.6824,-87.6459,-9.129,11.3918,-55.6839,11.0958,18.3219,13.0637,-9.5963,2.4086,
4.0687,-36.3147,-28.482,-73.3536,0.29852,-68.2871,-22.6813,6.4705,-42.0095,2.9219,30.406,20.7796,5.0795,11.7061,
3.3535,-20.0358,-12.6731,-54.8524,-0.16483,-50.0899,-7.2204,4.6697,-25.3889,-9.0244,14.4816,5.4328,11.862,5.8245,
-10.0309,-5.2053,-26.0127,-37.4613,-14.2549,-34.968,7.3128,-0.319,-9.7656,-0.95019,-0.48728,0.84443,-2.9497,-8.625,
-4.2494,9.2071,-10.352,-21.1136,0.70036,-22.9822,8.7578,-11.1281,-23.2797,-2.3053,13.642,-5.3264,11.3273,0.81332,
10.1056,-5.4454,-23.8308,-33.9468,-4.0502,-35.7033,-5.8676,3.6396,-35.9829,11.933,19.8609,9.0932,1.2311,14.8645,
-4.6008,-19.2186,-15.8096,-46.01,7.022,-47.6611,-19.6156,-3.1456,-29.1159,-2.883,19.14,2.9222,15.2572,-0.12735,
-3.8545,-3.9655,-0.76105,-29.1494,11.7799,-30.7014,-4.3386,-17.0568,-13.2689,-16.81,3.8916,-11.3531,13.425,-14.2197,
-5.0358,10.3724,13.3846,-13.3004,-3.0269,-14.7594,10.0217,-9.4676,1.6272,-7.3518,-2.0164,-11.6393,-1.4805,-16.2168,
-16.0335,23.8501,26.6815,1.5976,11.2547,0.22621,23.5204,-22.9995,15.6296,-18.2096,11.2882,-25.0409,12.7083,-17.1266,
-0.97149,8.3191,10.9806,-12.5982,14.8168,-13.8874,8.0092,-7.5195,0.59181,-3.0171,9.669,-9.4385,15.2417,-1.999,
-8.8921,-6.2801,4.2508,-25.9423,10.6314,-27.1541,-6.5714,-4.7139,-13.5437,-2.3412,16.1509,-4.6339,20.4479,2.3833,
-6.0046,8.1967,18.0958,-10.2858,10.4647,-11.4249,7.9229,-16.2021,1.3689,-7.3799,7.1775,-18.4559,14.0418,-8.5893,
-2.8195,21.8049,24.0976,4.4313,-4.2632,3.3606,21.5475,-6.7548,15.3868,5.3046,-1.7274,-4.6616,-0.90073,-9.0158,
-16.7504,34.5966,36.7517,18.2655,7.2674,17.259,11.8041,-20.4495,28.5636,-8.1968,12.4762,-16.6236,13.2533,0.00025645,
-1.6453,18.4208,20.4466,3.0695,-3.9973,2.1234,-3.0041,-5.1226,12.7498,6.395,19.7558,-1.5262,5.396,14.1002,
-3.4299,3.2156,5.1198,-11.2146,-1.4035,-12.104,-16.9239,1.777,-2.1152,15.4533,26.5757,12.6654,11.1929,7.6298,
-8.4029,17.1226,18.9126,3.5582,6.6847,2.7223,-1.8084,-12.4296,12.1117,0.42613,16.0349,-2.1946,24.1757,-6.928,
0.57594,1.9953,3.6779,17.4447,-7.8164,16.6589,-7.8452,-0.87971,25.485,11.2047,6.5981,0.31664,8.6251,-7.9495,
-13.5586,15.9756,17.5572,30.4981,4.8693,29.7594,6.7255,-14.9269,38.0559,-3.5676,18.4431,-13.8024,22.2076,-18.7728,
1.3549,0.91703,2.4038,14.5682,-4.8394,13.8738,-7.778,0.068689,21.6725,10.7464,6.0371,-2.6408,6.7752,-3.5465,
-2.9637,-13.238,-11.8404,-0.40591,-5.0198,-1.0586,-21.4113,2.4181,6.2722,13.3967,7.087,5.5216,-1.6612,5.6363,
-9.8484,1.6563,2.97,13.7184,9.3814,13.1049,-6.0266,-11.8269,19.9959,-1.5071,-1.3422,-8.9097,12.5384,-4.5887,
4.8425,-12.5431,-11.3082,26.9953,-5.2815,26.4186,-19.765,2.9827,32.8961,5.1505,-3.6157,5.7249,0.51177,9.3405,
-9.5481,2.3095,3.4703,39.4756,9.1354,38.9335,-4.4791,-8.9673,45.0223,-9.2585,4.6052,-7.3311,14.5811,-2.9905,
3.7373,16.2709,17.3621,23.0071,4.8453,22.4975,-3.7397,-7.9577,28.221,-13.4361,-9.7711,-12.07,9.0223,-1.3989,
-6.8454,28.0577,5.0205,7.5267,-3.9201,7.0476,10.5847,-0.88839,12.4277,-3.2139,-8.7391,2.7542,10.3647,5.2768,
-7.3761,32.0237,18.8192,21.1751,10.4151,20.7248,24.0496,-14.9351,25.7821,-16.2037,2.1436,-11.511,23.8428,4.9602,
7.1665,16.0023,3.5901,5.8046,-0.072477,5.3813,8.5067,0.061018,10.1352,-1.1315,-7.8718,3.2796,8.3123,13.608,
-5.0095,0.94214,10.4377,19.5563,14.0319,19.1584,-6.1037,-1.3552,13.8646,-1.5097,0.1333,-3.0128,21.9135,3.3759,
-4.7089,14.9856,23.9114,4.2829,1.9147,9.1378,8.3625,-12.5747,11.1489,-15.5192,-13.9747,-14.1327,6.4987,-10.0103,
-7.2511,8.8827,16.8509,-10.0741,-6.6753,-5.5105,21.9607,2.2798,17.0714,-1.4299,-16.9283,0.81522,-1.8952,0.94829,
-12.9372,7.8781,19.1358,-12.1955,7.8252,-0.96757,15.9842,-11.957,24.051,-5.5814,-6.9664,-13.3337,12.3185,-6.1711,
1.9391,-6.6946,3.8876,-25.5638,-6.7443,-15.0095,0.92518,2.8604,8.508,8.8535,-13.1402,1.5663,0.77534,8.2991,
-7.5692,-20.3929,-2.0202,-9.93,5.4318,-0.0089431,-13.2303,-2.4645,3.2648,1.7555,1.7482,10.4432,14.8288,14.418,
-5.702,-5.0693,12.2011,4.7658,-5.7232,14.0916,1.6635,-6.5539,17.169,-7.2952,-12.4567,-4.2834,5.9593,-0.54704,
1.2315,9.3348,11.0229,18.5799,-5.3794,27.3461,15.6637,7.9393,30.2388,7.2425,-15.9462,7.7196,-0.98963,1.8148,
-5.4342,14.8963,17.8947,30.2277,9.0434,35.6427,28.8239,-3.8123,14.3245,-7.2921,-0.88938,-6.8436,13.1697,0.76444,
2.8962,-0.097508,2.7211,14.314,-5.5992,19.4041,12.9944,10.5164,-0.63498,7.2455,-14.936,7.1959,2.5173,1.1888,
-10.4607,-14.1917,-11.5422,-0.64484,2.7398,4.1399,-1.8852,14.1469,-14.6969,20.9107,0.06014,19.0059,16.4663,15.2175,
-8.8912,0.75984,3.2503,13.4938,-4.016,17.9915,12.3279,-0.80189,0.28493,5.5561,-14.0435,3.7655,19.27,0.20446,
-3.6501,-5.4319,-9.6826,26.7842,-17.875,31.012,25.6882,-3.6031,14.3678,1.01,-22.1471,11.0478,4.0138,-5.4577,
-10.4932,1.0147,4.9983,39.2772,-2.7025,28.2094,10.0469,-17.4869,16.8263,-7.9964,-7.1644,-3.269,17.873,-5.6005,
4.2364,-13.1462,-9.4016,22.8205,-4.8939,12.4168,-4.6559,-2.3377,1.7167,3.7832,-20.8346,2.5775,2.7006,1.3273,
7.3027,-26.4574,-1.3033,7.3513,8.1122,-2.4282,-18.4765,-5.9641,-12.4863,-10.0977,-21.9627,-0.87346,16.6386,-0.16493,
-1.1394,-10.77,12.8749,21.0102,12.8042,11.8175,-3.268,-14.5525,2.3629,-23.5918,-33.3578,-14.9211,3.8692,-9.1013,
1.7537,3.9762,11.6562,33.8496,-2.0641,25.2085,11.0281,0.42064,16.3211,-8.0763,-31.3559,0.074209,-10.4629,-8.5548,
-4.0015,17.8376,23.1986,45.9186,12.1598,37.796,-3.7336,-13.7046,29.4418,-6.1796,-15.3745,-6.9919,4.2648,-6.1582,
10.3386,2.6674,7.7067,29.0635,-2.6698,21.4282,-17.6096,1.2177,13.5753,5.9627,-15.8396,7.0811,-3.0536,6.9242,
0.79753,-11.5927,-6.8557,13.2197,6.4112,6.0425,-30.653,5.4075,-1.3392,4.663,-8.2979,7.5981,1.8381,0.85792,
5.9289,3.2029,7.6556,26.5265,4.6139,19.78,-14.7138,-9.017,12.8412,-9.7168,-21.9,-6.9578,6.9062,-13.2936,
19.6732,-8.7594,-6.4831,39.0349,-9.7629,32.6932,-27.931,5.624,18.1913,4.9663,-30.9699,7.5597,-7.1616,1.6041,
4.3928,5.8662,8.0059,50.7928,4.9229,44.8316,-32.9212,-8.8134,6.7419,-9.4317,-19.6943,-6.9939,7.3681,-12.5922,
12.1332,-2.9363,-6.5745,33.6453,-9.4725,28.0417,-45.0459,5.8154,-7.7626,5.2342,-27.9292,1.8758,-1.5245,-1.5028,
-2.6948,-16.8602,-18.4213,17.5265,-23.0042,12.2592,-56.4432,0.75797,-21.3969,15.2781,-24.3706,9.2965,-2.3745,4.2368,
-7.2662,-3.6314,-3.216,20.7369,-7.5239,14.8195,-38.9566,-11.5288,-6.0131,0.26142,-14.4337,-5.3613,11.868,-2.6092,
7.2697,-17.5135,-17.123,33.5927,-21.1725,28.0304,-50.7192,3.2629,-2.3814,8.2246,-10.2717,9.0604,-2.9441,-0.098166,
-7.2664,-23.0796,-1.9957,45.6771,-5.8021,40.4485,-33.576,-11.0329,11.8615,-3.098,-12.9513,-5.5832,11.3325,-14.1923,
7.2695,-7.5948,12.2241,28.8365,-11.5993,23.9216,-17.4615,-4.7205,-2.9502,3.6797,-26.2743,-8.0985,-3.4474,-15.7194,
7.8003,1.3611,3.0647,13.0063,-24.0874,8.3863,-2.3138,4.037,-16.8732,8.1674,-20.0144,6.4874,-14.5409,-4.4182,
1.2112,3.6339,8.0605,-1.8741,-8.5421,-6.2169,11.9251,-10.3053,-1.7608,-6.4226,-9.8672,-6.5892,0.43157,-14.9823,
15.2385,-10.6842,-6.5231,-15.8616,1.4129,-19.9438,-2.8904,4.413,-15.7552,8.0627,-15.3958,7.9061,-5.2192,-9.8456,
0.2242,-9.1272,5.1435,-0.80993,15.4281,-4.6472,-9.7545,-8.5642,-0.70986,-4.1921,-4.5853,-3.8426,9.194,-15.3759,
14.3107,5.5205,18.9349,10.5139,6.0515,-14.7514,4.9308,4.6621,13.4327,-7.236,-17.964,-9.7336,-1.6906,-10.2156,
11.5943,19.2892,31.8988,-4.2169,-0.43181,-27.9663,18.7349,12.3872,15.477,1.2021,-17.3569,-2.0862,-12.4183,-16.6652,
-1.344,32.2319,44.0849,10.1361,13.6941,-12.1883,31.7108,-2.456,20.1979,-12.97,-10.6656,-16.061,2.4268,-22.2575,
12.8366,16.198,27.3398,-4.5721,-1.2275,-25.557,15.7082,11.7914,4.886,1.9082,-9.5549,-0.99733,-6.6396,-6.8221,
-2.0336,1.1261,11.5994,-18.3977,7.7919,-38.1236,0.66569,-3.0161,-9.5072,-2.4441,-0.50694,-3.2924,7.8588,-4.0332,
7.5055,15.1585,25.0034,-3.1939,12.5032,-21.7362,14.7258,-16.9351,5.1633,-10.3014,-13.1885,-17.1949,5.0578,-8.0286,
5.6425,28.349,22.1407,11.0978,-2.347,-6.332,27.9422,-4.1986,18.9535,4.4167,-16.635,-4.8879,-9.3457,-4.2514,
-5.054,14.9526,21.7533,14.199,7.6565,8.1479,33.4029,-18.0466,10.7542,-9.9483,-1.5369,-18.6946,5.3151,-4.9373,
9.3492,-0.044518,6.3481,-0.75298,-6.9029,-6.441,17.2987,-2.8638,-3.9911,4.7486,-2.3611,-3.473,-9.1038,9.4589,
0.33821,-14.1418,-8.1328,-14.8078,-8.3971,-20.1545,2.1608,2.9584,-17.8516,8.7265,-8.8112,10.8354,-3.4034,-2.3838,
11.1462,0.80666,6.4552,0.18067,-12.1306,-4.8453,16.1312,-0.51594,-2.6805,-1.6848,-22.3825,-1.5611,-3.6699,-5.5376,
11.8904,-13.3417,-8.0321,14.2698,-25.5028,9.5455,29.2633,13.615,11.5803,12.5163,-22.0061,12.6325,-17.5497,6.5661,
-2.923,-24.8326,-7.5994,20.9469,-9.8726,23.0727,25.6242,-1.3019,-3.2145,-0.92209,-7.5025,3.8961,-2.3968,-1.3606,
11.3524,-37.4427,-21.2435,5.5901,-0.80557,7.5884,9.9867,12.8762,-17.1216,13.2332,-0.93174,17.7624,-6.961,11.4326,
-1.0998,-49.2961,-34.0689,-8.8453,-7.3486,-6.9669,-4.7125,-1.9959,-30.1943,11.0512,1.0075,12.4834,-4.66,-3.3534,
3.6747,-32.2383,-17.9247,5.7854,-3.1415,7.5511,9.6703,-8.4684,-14.2827,-3.7118,-13.153,-2.3656,2.2109,-14.4771,
17.5542,-16.204,-3.2206,19.5383,-17.053,21.198,14.244,6.1397,0.67429,10.6109,-18.9804,11.8764,-12.0217,-7.9588,
2.401,-21.3533,5.4475,32.466,-7.5793,34.0261,-0.71064,-8.3287,-8.3375,-3.2089,-11.2505,-2.9362,-0.96704,-18.7813,
16.3569,-34.1721,-8.9793,16.418,-0.062488,17.8846,-14.768,6.271,-21.9373,11.0836,-1.6287,11.34,-2.3216,-3.5545,
9.2799,-46.2218,-22.5406,1.3329,-6.6497,2.7115,-27.9819,5.4496,-34.721,10.9148,-6.239,11.1303,3.4681,-5.6693,
4.9569,-29.3485,-7.0881,15.3529,-2.4836,16.6488,-12.203,-8.0606,-18.5378,-3.8401,-15.2812,-3.6375,2.3181,-16.6294,
18.7595,-17.2538,-11.396,28.5318,-15.9894,29.7499,2.6292,6.5231,-3.3255,10.4903,-3.5357,10.6807,-11.921,-1.5317,
3.534,-3.0354,3.3878,40.9199,-0.93001,42.0649,16.5714,-2.7887,10.974,-4.2391,-7.0897,-4.0601,2.8943,-13.1853,
17.4219,-16.0364,-10.9155,24.3647,1.9751,25.441,1.4771,11.4787,-3.7844,10.1152,-2.8982,10.2835,-2.4586,1.7058,
9.8089,-29.1742,-24.3605,8.8028,-12.2434,9.8145,-12.7115,14.11,-17.6573,19.8663,1.5135,23.7665,-2.7822,3.9821,
0.74574,-13.3238,-8.7989,-0.20094,2.5912,13.9834,2.1512,-0.83661,-2.4979,4.5743,-4.2277,8.2405,11.4847,-10.3568,
14.801,-26.6244,-22.371,13.9111,8.0864,27.2444,-12.0779,13.3136,-9.881,18.3999,4.0302,21.8461,-3.3044,4.3646,
-0.18707,-27.8762,-6.9287,27.1764,1.01,39.7097,2.7224,-1.5852,4.8118,3.1959,-2.8032,6.4353,10.9939,-9.9973,
13.9242,-12.1037,7.587,11.4459,-13.1506,23.2271,10.563,-5.2813,-9.5769,-3.6123,-16.735,-2.4255,-3.7658,-18.839,
12.1723,-2.4074,2.9195,-3.3409,-6.2659,7.7335,20.2877,9.1355,-23.1023,6.021,-11.5182,11.82,-12.9559,-3.6087,
8.6168,7.154,16.8443,-17.2404,8.21,-6.8305,27.5451,-5.5126,-7.6161,-8.4403,-5.1776,-2.9892,1.9214,-6.1919,
22.1998,-7.3752,1.7337,-30.306,-6.3826,-20.5207,11.7924,8.9182,-21.2592,6.1662,6.4331,11.2902,-5.7023,8.2796,
6.7678,-21.0327,-1.6658,-14.3877,3.8876,-5.1894,-3.0152,-5.7169,-5.8836,-7.8577,13.1099,0.7501,8.7399,-5.846,
5.4203,-5.6708,12.5341,-27.6244,-10.4456,-18.9781,11.2658,-7.2572,8.5694,-5.0322,-1.7767,-12.0074,-4.0014,-11.6168,
2.2694,-2.5308,-1.8476,-40.0669,-23.9189,-31.9394,24.6898,7.2782,-6.0448,9.3697,-11.5829,2.8131,-6.5861,-1.5032,
-5.3995,4.2124,9.5631,-23.5629,-8.3837,-37.631,19.4413,-7.2585,0.43834,-5.2925,-7.1217,-3.9225,7.9091,-12.7133,
9.0245,-10.1404,-5.1107,-36.2491,-0.84369,-49.4731,4.1749,7.277,-13.688,9.1251,5.5478,10.4129,-4.7822,2.1495,
-5.617,-23.6319,-18.9041,-26.1445,-11.6218,-35.7002,-10.1756,-7.2596,1.2333,-5.5224,-1.8472,4.6339,4.4506,-12.0795,
4.6077,-8.114,-3.6698,-10.4758,-20.341,-19.4582,4.5349,-8.2371,15.2593,-4.7204,-12.0943,-7.8849,-4.2916,-17.4749,
1.5061,-1.5311,7.3545,4.2527,-33.2206,-4.1907,18.3628,-0.20959,28.4438,5.9213,-14.1943,6.6882,-18.1341,-17.3679,
-8.9432,3.2692,21.0132,11.5805,-17.1273,-4.8315,3.161,-14.297,12.6371,-8.534,-2.0428,-7.8131,-2.946,-20.0928,
5.6934,-11.0269,5.6524,-3.2144,-17.9832,-18.6416,-11.1286,0.6608,-2.2211,6.0781,6.5551,6.7557,-2.7695,-4.7873,
-8.7482,-24.4653,-8.7867,-17.1215,-18.317,-31.6231,-24.5609,-2.6743,-16.1878,4.3008,0.040946,4.0204,6.3428,-10.5961,
4.9603,-8.8974,5.8405,-1.9942,-10.1546,-15.6257,-8.9872,-10.5178,-1.1166,-9.6116,-14.0615,-5.1662,1.7249,-5.7221,
9.8424,-3.2089,7.8441,12.2254,-23.6453,-0.58816,5.652,4.2133,13.0504,4.6194,-14.1847,9.2438,-12.4786,-3.0252,
-4.8482,-9.6087,21.4734,25.5919,-8.1266,13.5471,19.4129,-9.6693,8.5263,-9.7577,0.76634,-5.4108,2.3701,-9.435,
9.5427,-23.1321,6.085,9.9564,-1.5188,-1.3657,4.1481,5.0109,-6.0853,4.9277,1.6873,9.0138,3.64,5.2311,
0.49459,-35.8442,-8.3801,-4.741,2.3389,-15.3838,-10.2008,0.96822,-19.8202,5.5735,-1.2391,14.6182,6.2468,-3.5329,
10.8233,-19.5936,6.2227,9.6435,10.6733,-0.36073,4.5113,-0.031301,-4.531,-8.8609,-8.698,-0.35885,3.0468,-8.0289,
9.7028,-4.3179,19.9494,23.1649,-4.0671,13.7609,18.3406,8.9164,9.8409,-8.8246,-17.122,1.0502,-11.236,-11.785,
4.8837,10.0411,32.8524,35.875,10.2769,27.0353,31.3402,-5.7186,23.3504,-13.4743,-1.9947,-10.7838,3.5382,-11.5491,
18.6907,-4.6613,16.7813,19.6225,18.1359,11.3131,15.3597,8.7245,7.8494,1.4341,4.2707,3.9632,2.3844,3.2439,
9.1187,-18.4817,1.6744,4.3451,3.8641,-3.4656,0.33816,-1.6862,-6.7215,3.256,4.9559,6.5757,1.2999,-1.6337,
11.8671,-3.2728,15.6739,18.1844,17.7322,10.8423,14.4179,-15.2389,7.7817,-11.0394,1.3631,-7.9189,15.3219,-1.0655,
21.9846,-4.0174,8.1667,31.1934,2.5683,24.2918,-0.5472,-0.22458,21.4148,3.723,-6.7231,6.6563,0.30263,0.41196,
6.5656,9.4059,14.2681,43.4218,-1.3529,36.9343,-14.6144,-13.8404,29.5711,-10.6004,0.27165,-7.8431,14.3845,-13.7128,
15.5636,-5.2584,-0.68801,26.7164,-1.2712,20.6182,-27.8375,1.09,13.6968,4.1356,0.25579,6.7275,4.1295,1.21,
0.52976,-19.0429,-14.7467,11.0135,-14.8489,5.2811,-40.2673,-13.0754,-1.225,4.3587,2.5945,13.3868,1.5277,-3.1004,
-5.6477,-3.8003,0.23808,16.0281,0.14208,19.0642,-23.7512,-16.5282,12.9485,-10.0028,9.0306,-1.5164,15.536,-7.6224,
8.7911,-17.6723,-13.8762,29.1664,-12.5539,32.0204,-36.4262,-1.4365,26.2716,4.6973,5.1933,12.6746,0.50384,1.7808,
-5.8363,-3.9496,1.0564,41.5164,2.2994,44.1992,-23.5112,-15.4503,38.7953,-8.7686,15.71,0.61379,14.5736,-6.3309,
-9.7239,10.3874,14.152,24.9254,-11.9386,27.4472,-32.9292,-14.9944,22.3676,-4.9457,0.66737,-0.83519,-0.4008,-12.0713,
-13.3778,4.1397,7.1818,9.3299,-25.3223,11.7004,-18.241,-4.2071,6.9255,9.4511,-1.2806,13.3149,-9.7933,-4.2845,
-12.1044,8.1286,12.872,-5.3299,-9.7029,4.9278,-6.3174,-16.6666,20.61,-5.216,7.7425,-1.584,4.8943,-0.73149,
2.7218,-6.4591,-2.0003,-19.1101,-22.3039,-9.4679,-20.0384,-1.5666,5.2734,9.197,9.1613,12.6111,-9.0291,13.4124,
-11.5415,-20.1715,1.3905,-3.8635,-23.3206,5.2002,-32.9361,-15.5727,19.057,0.66535,4.3738,-2.2456,5.6126,-1.4923,
-0.96128,-4.8612,15.4071,-17.7317,-20.979,-8.7657,-16.8599,-13.2261,32.0136,-4.0826,-6.247,-4.4653,0.12172,-7.5239,
-11.7332,8.5886,2.7367,-30.7678,-27.7247,-22.3397,-1.7483,-3.4867,15.9928,-6.1917,-2.5767,-1.8434,-8.8314,-6.6022,
-18.0913,15.1362,15.285,-14.8217,-11.9612,-6.8994,4.4772,-15.99,7.0292,-19.9202,8.4074,-15.8328,5.7985,-12.3267,
-2.9058,0.12804,0.26786,-28.0324,-13.5725,-20.5854,-9.8914,-0.93059,-7.4925,-4.625,7.903,-0.78282,-8.1783,2.5129,
-15.8896,-13.9796,-6.3646,-40.4505,-7.1082,-33.4503,-23.3979,-9.3248,-21.143,2.715,1.7789,2.5601,6.4124,2.3876,
-0.8362,0.95914,8.1172,-23.9234,-16.569,-17.3433,-7.894,-7.3527,-5.7744,-5.4523,-6.3322,-11.6935,3.6983,3.657,
1.1219,15.0016,-6.4698,-8.388,-24.5207,-2.2027,6.6796,7.1884,8.6721,8.9749,2.9935,3.1081,-10.6236,4.8492,
-13.0454,10.3353,6.1597,6.2152,-8.9495,12.0295,-7.8212,-7.3429,-5.9482,-5.6636,2.8139,-1.7865,4.1138,-9.5417,
1.8373,-4.3848,-8.3099,-8.2577,-9.8005,-2.7923,-21.4519,7.1977,-19.6913,6.9179,1.2329,11.9751,-1.783,5.1308,
-9.1021,-18.2217,-21.9113,-21.8622,-5.4458,-16.7247,-34.2648,0.19862,-32.6099,-0.088948,13.4002,-2.8435,11.5067,-2.2396,
-4.3186,-3.0284,-6.4966,-6.4505,-4.6484,-1.6213,-18.1089,-5.9335,-16.5533,-7.1461,-1.5038,-8.819,1.8709,-3.5174,
-2.1762,11.2533,7.9932,8.0366,-18.4695,12.576,-2.9224,3.8391,-1.4601,2.6992,-14.151,5.8102,-12.3413,-0.48158,
-2.9866,22.8194,21.6136,21.6544,-3.2613,25.9215,-1.8302,-8.633,-5.1637,-11.5628,0.79802,-8.6385,2.4992,-0.45223,
11.2926,7.3502,6.2168,6.2551,-4.0071,10.2662,-15.8204,5.985,-18.9539,3.231,-4.8747,5.9799,4.233,13.6749,
-3.485,-7.1908,-8.2562,-8.2202,-17.8666,-4.4498,-28.9712,-0.94089,-31.9166,-3.5542,2.0095,4.7038,6.8033,1.5787,
-16.9302,7.3407,6.3391,6.373,-10.6986,9.9172,-13.1329,-6.0632,-15.9016,-9.4621,-0.4655,-9.6784,12.5162,-2.7525,
-1.8144,21.0002,-1.1033,20.0906,-24.1567,23.4222,1.7551,8.4006,-0.84754,5.2057,0.50431,5.0023,-2.3348,2.1212,
-15.8055,7.4989,-3.3911,32.9852,-8.6073,36.1168,-12.4502,-6.2034,13.3033,-2.1442,5.6533,-2.8302,11.9053,-10.7194,
-0.7572,-7.051,-17.2876,16.9061,-9.0327,19.8498,-25.8032,4.5267,-1.5949,12.0845,0.13486,11.4396,-2.909,4.0237,
-6.8078,-20.728,-30.3504,1.7917,-10.8448,4.5588,-38.355,0.95878,-15.5992,0.084614,2.4808,-2.4054,3.3616,-1.8421,
-0.74896,-5.3843,-14.4294,15.7842,-10.1941,18.3853,-21.9537,-4.7482,-0.56324,-7.4537,-8.0256,-16.361,11.6354,-13.0315,
13.396,3.3884,0.5364,28.9372,-17.1157,31.3822,-6.5365,9.6367,13.5706,7.0935,1.872,-1.2794,-3.1627,1.8504,
-1.5078,4.5977,14.1581,41.3009,-1.9887,43.5993,7.9557,-5.0415,17.0183,-7.4321,0.34713,-7.3241,11.1271,-12.3606,
11.7654,-9.7782,-0.79138,24.7229,-15.9694,26.8833,-6.6216,9.361,1.8972,4.3137,5.5055,7.2153,4.8091,2.481,
-3.0405,-20.0461,-14.8439,9.1395,-22.5445,11.1703,-20.3243,13.5324,-12.3167,18.1549,15.5336,20.8824,5.462,7.0644,
-13.7123,-4.7434,0.14673,18.4779,-7.0918,24.6001,-5.0049,-1.3795,2.5223,2.9656,0.94726,5.5294,13.1382,-7.4595,
1.2105,-18.5588,-13.9621,31.4693,-10.8791,37.2241,-18.8046,11.3915,16.471,16.8876,5.5989,18.4063,-1.7501,0.026907,
-12.0203,-8.4994,0.97565,43.6811,1.0736,49.0906,-3.5763,-3.392,29.5827,1.7744,17.5043,3.202,12.4549,-14.0747,
2.8009,6.1106,15.0171,26.9602,-13.0909,32.0452,10.7383,-6.0391,13.7078,-4.4532,2.354,-2.6651,-2.3924,-8.5477,
3.1291,5.2987,14.5872,11.2426,-10.9179,16.0225,24.194,8.4232,-1.2147,9.914,-0.16629,11.5948,-9.3364,5.6195,
-7.8878,6.3929,25.4826,6.8019,3.8372,20.3151,36.8423,-6.1822,12.9582,-4.7808,1.2567,-3.2009,5.3238,-8.8176,
6.6855,-8.0906,9.8536,-7.7062,-4.3719,4.9961,20.5318,8.2888,-1.9193,9.606,13.4226,11.0911,-9.0957,5.8114,
-7.8157,-9.5136,18.6539,6.8562,-0.34255,18.7964,5.1999,-6.3086,12.2958,-2.2447,6.9673,-3.6743,4.1634,-7.2497,
6.7533,5.1573,31.6347,-7.6552,-4.5598,8.7228,18.9879,1.1325,25.6581,3.0692,-7.5507,-6.7498,-10.1864,-11.0516,
3.0772,18.9478,25.5239,-21.2959,-13.7032,-5.9006,31.9486,11.423,10.4898,10.4183,-10.4182,6.8388,-23.6752,-12.2723,
-4.1699,31.911,31.055,-5.9181,1.219,8.5534,33.3773,-3.3624,23.9604,-4.3068,-1.7891,-7.6715,-8.1547,-12.949,
10.1803,15.8963,15.0917,-19.6631,3.0542,-6.0598,17.2746,10.9393,8.4228,10.0516,10.0892,6.8888,-13.8115,1.9279,
-4.5306,0.84252,0.086164,-25.1247,-4.1911,-19.7962,2.1381,-3.817,-6.1826,0.50222,0.53806,0.35437,-7.8036,-8.5202,
9.8413,14.892,14.181,-9.5172,8.7724,-4.5084,16.1099,-8.3211,8.2884,-4.7067,-13.1486,-6.7294,-11.5737,-8.4806,
17.2789,16.4026,11.8929,5.1538,-3.0538,9.8621,29.2433,-0.28861,21.8911,0.28377,-17.0686,4.9742,-24.9792,-20.2131,
14.83,29.5184,25.2794,18.9446,11.2294,23.3704,41.5887,-11.1004,10.7149,-7.7372,-1.9445,-7.0948,-9.3805,-14.763,
28.0402,13.6473,9.6626,3.7079,3.9884,7.8681,24.9933,3.6656,-4.028,6.827,8.5561,7.4309,-8.8172,0.22282,
12.2578,-1.2715,-5.0172,-10.6146,-0.017057,-6.7039,9.3937,3.9414,-17.8863,11.6212,-1.3738,12.1888,1.1284,-8.7118,
7.2855,12.9048,9.3839,4.1223,-3.7822,7.7983,22.9301,-9.4782,-2.7131,3.3912,-2.2333,-2.6425,-2.7055,-11.9552,
13.4401,-1.9695,-5.2792,17.975,-15.797,21.4304,35.6543,5.1905,11.5497,17.2877,12.0007,11.6161,-16.6432,2.8621,
-1.4663,-5.1719,9.1376,30.9965,-0.74919,34.2446,36.3653,-9.221,-1.3846,2.1504,12.7179,-0.85104,-1.5446,-5.2886,
12.7217,-18.9615,-5.5107,15.0367,2.6163,18.0899,20.0834,5.4323,-15.4015,16.1214,9.1296,13.3,-7.573,9.1288,
-2.1416,-31.9239,-19.28,0.034466,-8.3699,2.9045,4.7784,-8.0522,-28.5774,1.0541,12.8201,7.3474,4.652,-5.519,
3.1406,-15.9084,-4.0232,14.1324,-3.6303,16.8302,18.5917,-8.9812,-12.7628,-10.7806,4.9884,-7.1934,2.9607,-13.6634,
7.6602,-0.85391,-9.9275,27.3845,-17.5125,29.9204,31.5762,4.7404,2.103,3.9662,-1.9028,6.8675,-11.3169,-13.785,
-6.8994,13.2973,4.7681,39.8414,-5.1869,42.2252,15.5816,-9.6441,16.0768,-8.488,12.3114,-5.7859,3.4621,-17.666,
7.6146,-1.6005,-9.618,23.3509,-4.4046,25.5917,0.54671,5.0346,1.0122,6.1213,25.6727,8.6613,1.8418,-2.506,
17.9873,-15.6045,-18.9282,7.8498,-7.9069,9.9562,-13.5861,18.8325,-13.1485,19.854,38.2324,22.2416,5.4979,11.7443,
3.2537,-0.56822,-3.6925,21.4789,-18.2616,23.4588,1.3291,3.6026,1.7404,4.5628,22.8304,6.8071,-1.8945,-2.0934,
17.1585,-9.4802,2.2038,34.2901,-31.2659,36.1513,-12.8507,17.4864,15.736,18.389,32.289,20.4987,-15.435,12.1322,
2.029,5.1886,16.1716,46.3327,-15.29,48.0822,-10.271,2.3372,28.8918,3.1857,29.8812,5.1688,-0.40887,-2.6957,
15.0904,-7.8099,1.1013,29.4528,-4.956,31.0973,-23.7548,6.905,13.0583,7.7276,26.2046,0.17473,-5.5387,0.29077,
1.4725,-21.4413,-3.673,13.5856,-0.42089,15.1314,-11.5254,-4.338,-1.8252,-4.5071,26.0449,-1.2483,-12.2685,-10.5563,
0.91348,-6.0548,10.6473,26.8705,13.7044,28.3235,3.2661,-18.1777,12.3843,-16.9486,23.0701,-9.1774,2.5676,-7.5684,
14.9587,-19.7915,-4.0915,39.3582,3.4902,40.7241,-11.0298,-2.987,25.7412,-1.8317,34.3983,5.4732,-11.6864,6.9857,
-0.038853,-4.504,10.254,51.0967,17.3807,52.3807,3.732,-12.2244,38.2968,-15.8218,40.8082,-8.9552,3.1148,-7.5335,
14.0635,9.8662,20.4921,33.9309,9.3004,35.1378,5.8867,-9.1369,21.899,-10.1645,24.2597,-11.243,-11.1721,-10.8481,
-0.88033,-4.8258,5.1625,17.7951,-5.3576,18.9296,-1.0574,1.7698,6.485,4.5454,25.134,3.5315,-12.8554,-4.5468,
-14.9275,-0.29932,6.2408,2.6274,9.0639,3.6938,13.106,-12.4364,20.1959,-9.8273,33.5137,-7.4844,2.0159,-7.5708,
0.06814,-14.3814,-8.2337,-11.6303,7.1074,-10.6278,-1.7804,2.4098,4.8842,4.8623,43.7446,7.0646,-4.2015,6.9834,
-13.1187,-27.6185,-0.70128,3.1675,12.8025,4.1098,-15.7735,-11.8348,18.6911,-1.9953,34.9993,-5.1048,10.1506,-7.5356,
1.7684,-11.8614,13.4408,-11.1225,-2.0656,-10.2367,-0.72712,-9.2665,26.094,-7.5264,18.7993,-5.7404,-4.5584,-7.5537,
-2.0792,-6.9365,-1.4657,-24.5552,-11.3837,-23.7225,13.4165,5.3895,10.4283,7.0252,23.2958,8.7041,-18.3849,-0.50911,
-7.6053,7.5797,12.7223,-9.849,3.3993,-8.1992,26.7115,-9.0338,8.8362,-7.4963,24.7228,-5.9182,-3.1818,-8.9537,
6.951,-6.9751,-2.1411,-23.3581,-0.54624,-21.8072,11.0088,5.6082,-5.794,7.0535,15.7066,8.5369,4.0711,5.6835,
-7.566,-19.269,-2.4838,-36.0566,-4.7513,-34.5988,-3.7517,-8.3576,-8.7669,-5.1153,11.4688,0.98721,13.715,-7.3444,
5.6008,-4.0129,11.7653,-19.7932,-17.6498,-18.4229,10.5734,-4.0895,5.8591,-10.4587,-3.3194,-7.5467,-1.2079,-6.9038,
4.3233,4.7276,5.434,-4.5056,-30.6908,-3.2175,24.039,6.5143,19.6076,-1.3556,-14.4451,7.0061,-15.2354,-1.7815,
-7.7066,14.3316,19.208,9.8647,-14.7494,11.0755,8.4967,-7.9766,4.3311,-11.162,-8.3996,-4.2184,-0.22127,-8.7371,
6.8558,-0.62825,3.9555,-4.8272,-1.1519,-3.689,-6.1131,6.602,-10.0287,3.6077,6.2043,10.1347,8.7128,5.8871,
-5.302,-14.6906,-10.3818,-18.6375,-10.0287,-17.5676,-19.8464,5.2645,-23.527,14.2445,-0.26397,14.7305,7.7189,12.6215,
-12.9883,0.29088,4.3411,-3.4193,-21.1971,-2.4136,-4.5556,-9.1514,-8.0154,-0.71013,-14.3481,-0.25335,-6.8443,-2.2358,
1.891,-13.8266,-2.04,10.8859,-15.2172,11.8312,9.8178,5.4977,6.5655,13.4325,-17.7492,13.8619,-7.8713,5.8777,
-11.8508,-5.9841,9.853,24.3327,-0.20416,25.2214,21.9658,-8.9322,-3.2199,-1.4735,-13.3883,-1.0699,6.701,-8.1293,
2.9602,-19.7251,-4.8382,8.7728,3.1286,9.6081,6.5478,3.82,-17.1267,1.416,-25.7682,4.6197,6.7952,4.6002,
-11.3174,-32.6416,-18.6479,-5.8536,16.5952,-5.0684,-7.9451,-10.0626,-30.1991,-6.6738,-17.1596,-0.83718,19.0995,-4.6221,
-6.4019,-16.5831,-3.4291,8.5976,25.0161,9.3357,6.6316,-17.934,-14.2872,-12.8648,-22.7223,-11.1449,16.0702,-7.1695,
5.2821,-25.5013,-15.0189,22.1818,9.4151,22.8756,20.3337,-2.758,0.67007,2.0071,-15.7094,3.6238,1.006,7.3606,
-9.1349,-10.3164,-0.017802,34.9509,22.9502,35.603,5.0137,-14.338,14.7299,-9.8588,-10.5286,-5.5149,15.0456,-6.7103,
5.5132,-23.7974,-14.1167,18.7538,7.4732,19.3668,-9.3871,0.62227,-0.25393,4.8327,-21.1968,8.916,0.042881,-0.65729,
-8.471,-36.4696,-27.3697,3.5286,2.7624,4.1048,-22.9239,-4.099,-14.3387,14.9262,-7.6828,8.407,4.2535,-7.2097,
-8.4339,-20.1814,-11.6275,17.4169,11.5425,17.9585,-7.4484,-14.6817,0.62163,-0.069361,-17.11,-6.1974,15.7684,-9.1311,
6.1721,-16.6418,-15.6382,30.4718,-1.3916,30.981,-12.2306,0.29918,14.6843,14.0348,-17.025,8.2744,0.7223,5.5168,
-8.2982,-1.5433,-0.59988,42.7435,7.1664,43.2222,-12.4384,-8.1697,27.9033,0.47981,-19.7704,-5.8773,14.779,-8.9142,
6.2997,3.2822,-12.7808,26.0789,-2.6797,26.5288,-25.7921,6.4204,12.1291,14.551,-15.759,8.5754,0.70906,5.7206,
6.8886,-11.0147,-13.8968,10.4142,-6.2856,10.8371,-38.3446,7.0026,-2.6987,23.12,-6.3388,18.4443,4.4331,10.1109,
-2.9412,3.7461,1.037,0.42244,5.391,5.0824,-21.9439,-7.5176,11.5633,7.6328,-20.0584,3.2377,11.7008,-4.5957,
11.3352,-10.5786,-13.1252,14.4971,-3.4069,18.8774,-34.7273,7.0335,24.9695,21.2748,-4.7549,17.1434,0.64013,9.78,
-3.4449,-11.8518,1.7623,27.7273,-5.086,31.8448,-22.3353,-7.4885,37.5713,5.8983,-10.1191,2.0148,14.7017,-3.9904,
10.8618,2.9593,8.7437,11.9636,-9.9601,15.8341,-24.2911,4.7068,21.217,-5.3102,-20.3416,2.34,-0.28038,7.0777,
-3.8899,-11.3183,-5.8809,-2.8542,-7.9494,0.78405,-12.0045,9.6031,5.844,6.779,-8.2919,10.2036,-3.0885,8.0661,
-17.3108,3.4608,7.6305,-5.9784,6.6275,-13.363,2.8158,-5.0731,19.5934,-7.7277,-12.0317,-4.5086,11.1968,0.5196,
-2.1722,-10.8468,-6.9273,-19.7197,-3.633,-26.6612,-11.4532,9.3313,4.3178,6.8359,-0.010202,9.8619,0.66254,14.5884,
-16.1419,-24.296,-12.6574,-19.0323,7.4139,-10.9615,-24.866,-5.3286,18.1587,-1.107,4.2284,2.6788,14.7228,-0.38688,
-6.2271,-8.7382,2.202,-31.9903,4.1443,-24.4039,-9.274,-8.8005,2.9692,-1.0411,-10.1253,-10.6651,3.0351,-4.601,
0.73748,-3.5055,4.9197,-44.1709,2.0119,-37.0396,5.3824,5.8275,-11.309,10.3213,-23.6178,4.0748,-6.5631,2.266,
-4.0148,10.8049,18.7245,-29.329,15.9912,-33.0086,7.9093,-8.6221,-12.0435,-4.398,-16.6009,-10.2697,7.9307,-7.2861,
10.3261,-3.9434,3.5011,-41.6693,0.93171,-45.1281,-6.6653,5.9952,-25.4209,9.9659,-6.1883,4.4465,-5.7037,7.2511,
-4.3935,-17.8068,-10.809,-25.0691,5.1136,-28.3204,-20.3654,-7.9934,-9.7956,2.3058,-10.0543,1.8507,8.7385,-3.0462,
0.10745,-2.6384,3.9395,-9.465,8.5738,-12.5212,-5.0435,-1.8638,4.8921,-11.9325,-23.5511,-7.6778,4.9433,-9.4557,
1.0424,-2.0094,0.40726,5.2029,-4.1828,0.96712,9.3592,12.348,16.3942,1.9416,-18.396,6.8829,-2.8865,-3.238,
-10.7902,12.2112,14.4828,17.1826,10.1682,-3.3282,-1.5604,-2.4929,1.3106,-12.2749,-9.2878,-7.6301,11.3867,-8.2229,
3.9572,-2.6215,-0.48615,2.0516,1.5787,-17.2285,-15.5668,11.7567,-12.8681,2.5616,-9.6729,6.9277,-3.3965,6.3705,
-8.0267,-15.6474,-14.557,-12.1715,11.3717,-30.2948,-28.7328,0.71747,-26.196,2.4074,-5.7966,2.7701,10.9073,-8.1118,
-5.6613,-0.60853,0.41644,2.6588,1.2733,-14.3771,-12.9088,-5.9174,-10.5242,-11.837,-19.5488,-9.6374,-2.9053,-17.5128,
8.7784,5.5735,-11.3793,16.5993,-1.1578,0.58549,1.9657,8.5377,4.2072,2.9732,-4.7468,5.0408,-15.4436,-2.362,
-5.8483,19.339,3.4034,29.7033,13.0117,14.6504,15.9478,-5.603,-4.0738,-5.2083,-9.1698,3.3513,-0.41703,-4.5497,
8.6026,4.0787,-10.9008,13.8211,12.7263,-0.32866,0.89093,8.8332,-17.9293,9.2042,-10.9743,17.2502,0.10376,6.5526,
-0.36411,-10.266,-20.1347,-1.1081,11.9634,-14.4089,-13.2625,15.3899,-30.9536,8.2054,-2.7824,12.9443,4.8054,-7.9405,
3.4248,4.4499,-4.8266,13.0584,11.2452,0.55559,1.6332,0.36648,-14.9964,-6.3869,-16.7155,-1.9323,0.75087,-21.5641,
17.3193,12.1873,9.563,26.3749,-3.5296,14.6223,15.6352,14.4445,0.0034152,8.0963,-9.146,12.2836,-6.8277,-6.1702,
2.1802,13.8104,17.0437,38.8924,5.6035,27.8449,28.7971,-0.52218,14.1032,-1.3353,-10.0096,5.425,7.682,-19.9,
16.1493,-1.1183,1.9211,22.4588,-7.9164,12.0742,12.9693,13.6092,-0.84298,12.8448,-3.7587,19.1995,3.9505,-4.606,
1.0804,-15.1512,-12.2942,7.0113,-5.0869,-2.7502,-1.9089,14.6759,-14.8924,11.6285,8.2374,11.0101,9.8336,-4.3545,
-6.9884,-0.1421,2.5435,20.6906,0.39706,11.5148,12.3057,-0.30464,0.10114,-3.1692,-6.3568,-3.7505,4.0648,-14.9224,
7.5309,-3.9252,1.4239,33.5492,-11.8681,24.9239,20.067,13.8136,14.1951,11.1209,-5.5297,10.5745,-3.7123,0.072979,
-7.0209,10.4103,15.4385,45.6362,2.944,37.5285,32.963,-1.1152,27.4434,-3.6463,0.45198,-0.88865,10.6104,-14.0314,
7.5003,1.8063,0.4122,28.7981,-7.0948,21.1768,16.8852,13.0517,11.6968,10.6724,-2.871,13.2647,-0.83072,0.91048,
12.7246,-12.4021,-13.7125,12.9702,-9.0234,5.8062,3.6306,19.3318,-3.105,23.6862,7.1892,26.5688,3.4567,2.764,
-2.1389,2.442,1.2102,9.8625,-3.303,19.5578,17.5128,4.0719,11.1813,8.165,-3.1297,10.8747,12.1958,-11.5018,
12.0895,-11.8045,-12.9624,23.3708,-6.8714,32.4843,2.362,17.9276,24.6104,21.7751,9.2994,24.3222,-2.636,3.2883,
-2.7359,3.0038,1.9153,36.0685,-2.2218,44.6353,14.4618,2.7519,37.2338,6.3686,-3.9706,8.7629,6.4425,-11.009,
11.5282,16.9236,15.9004,19.8044,-6.7966,27.8571,4.1775,10.0952,20.8997,-2.513,-6.5575,-1.1544,-4.3024,-16.0232,
7.0697,22.0534,10.2625,4.5162,-3.564,12.0857,18.0269,16.08,5.5458,11.7378,1.3687,13.0148,-6.869,-12.2371,
-7.4545,26.3806,17.1809,-9.8548,6.0668,-2.7144,31.0453,1.0152,19.313,-3.0665,-10.0133,-1.866,1.0763,-25.6029,
7.0928,10.6977,2.05,-23.3635,-4.1849,-16.6515,15.0826,15.0543,4.0542,11.2175,4.6875,12.3459,-6.0508,-9.9667,
-7.4328,-4.0441,-1.8646,-7.8617,-1.5793,-1.5524,0.077608,0.051026,17.911,-3.5555,-4.0433,-2.4944,4.2,-22.5514,
7.1132,10.2985,5.3093,-21.49,-1.0143,-15.5593,14.173,-7.9806,10.7653,-4.7553,-6.1548,0.95073,-0.28979,-12.2525,
11.8658,1.6518,-6.3089,-34.3006,-6.6032,-28.7257,27.4226,6.5982,-3.9806,9.6301,8.3145,14.9937,3.4944,2.5826,
-2.9461,15.6527,8.1697,-18.1426,4.1517,-12.9022,39.8772,-7.8968,-0.94162,-5.0477,-4.4015,-0.0059356,8.9349,-11.6723,
11.3307,0.61356,-6.4205,-31.154,-3.6311,-26.2281,23.3846,6.677,-14.9851,9.3551,5.2791,14.0944,-5.7012,3.128,
-3.4492,-13.5233,-11.2143,-43.3848,-1.0592,-38.7544,7.8815,-0.76105,0.013982,9.2896,19.0624,10.9193,8.7409,-4.0971,
-7.9747,1.3881,3.5586,-26.6817,-15.0957,-22.3291,21.5086,2.5796,14.1131,3.5534,3.8187,-0.56497,4.4498,-15.6219,
6.6038,-5.7579,5.253,-10.9808,-15.1564,-6.8894,34.3181,16.5248,27.3664,17.4402,13.4772,13.5689,0.88649,-0.58457,
-7.8924,0.23795,15.2967,3.7781,-1.0638,-18.7423,18.159,1.4334,11.6244,2.2938,5.1354,-1.3452,14.9333,-14.6495,
6.6811,-13.8763,0.27887,-10.5486,0.8833,-31.7178,2.9695,15.4474,-3.1731,16.2562,17.0685,12.8355,4.6458,0.32947,
-5.4662,-25.3105,-5.4128,-24.0157,-5.7615,-43.9147,-11.3087,10.3082,-17.0827,11.0676,2.8613,7.8531,-3.1662,-13.7903,
6.6328,-9.6919,9.0119,-8.4748,-2.1195,-27.1798,3.4698,0.7439,-1.9577,-3.6964,-11.4104,-6.7181,-7.214,-13.9057,
20.3349,4.9896,22.5712,6.1337,5.0698,-11.4491,17.3616,14.7993,12.2597,10.6254,-5.1005,7.785,-9.1352,1.0287,
5.0148,18.7902,35.3169,19.8657,18.8656,3.3379,30.4199,-0.18869,-1.1637,-4.1122,-11.3862,-6.7821,5.5129,-13.133,
18.8139,3.5628,19.0979,4.5738,14.4632,-10.9624,14.4947,13.9226,-15.1939,10.2346,2.0094,7.7248,8.5036,1.7549,
3.5851,-10.7509,3.852,-9.8007,8.4158,-24.4046,-0.47494,-1.0127,-28.3823,-4.4795,-1.4071,4.4357,3.7551,-12.4504,
-5.5763,3.9941,17.7209,4.8874,3.2028,-8.8404,13.6536,-15.052,-12.5793,-18.3107,-11.6811,-9.9305,-7.7701,-25.8033,
8.8582,8.0417,2.5577,18.6941,-11.0894,5.7901,26.9343,-0.048848,2.2754,-3.1121,3.1198,4.7654,-1.183,-10.1551,
-5.7732,4.7347,13.258,31.6725,1.3224,19.5427,11.2183,-14.1459,6.3767,-17.0254,-8.8129,-9.6205,12.988,-11.4278,
8.6731,-9.6494,-1.6375,15.6721,10.1885,4.2701,-3.5548,0.80284,-8.1059,-1.9038,-3.1054,5.0567,1.4048,3.3579,
1.586,-23.1705,-15.6393,0.6318,-0.78129,-10.0861,-17.4415,1.2254,-21.7196,3.8353,5.5556,8.5199,-4.3298,-4.8234,
-11.6919,-7.6802,-0.60091,14.6939,3.9736,4.6191,-2.295,-12.9481,-6.3164,-10.4948,-7.019,-6.0913,10.03,-15.8339,
3.1096,1.23,13.5351,27.9123,-0.50189,18.4419,11.9427,1.9287,8.1626,4.2348,-8.0103,8.3742,0.50716,-0.78382,
-11.1769,15.2562,26.823,40.3375,13.6282,31.4354,25.3261,-12.287,21.7728,-10.1192,-16.9464,-6.2283,11.7773,-14.8368,
3.5937,7.3036,11.1137,23.8173,6.7143,15.4493,9.7065,2.5502,6.3665,4.5879,-9.8085,3.5374,-3.0294,0.15342,
-1.3054,-7.2347,3.3839,8.2882,-7.7886,0.42232,-4.9759,7.1057,-8.1155,12.7878,1.138,6.1499,-4.2853,6.7606,
-10.6436,7.2994,17.2808,21.8909,-0.75452,14.497,9.4227,-7.4206,6.4714,-2.0795,-7.4045,-8.3191,7.2722,-5.8868,
4.095,-7.2385,2.144,34.6775,-4.9466,27.7272,-5.2427,7.1246,20.1831,12.1453,-3.6648,6.28,-2.1104,8.5665,
-10.2507,3.9999,16.1153,46.6968,9.4502,40.1635,-7.2571,-7.4029,33.0721,-2.6835,-8.1534,-8.1968,12.1162,-6.0475,
4.4643,17.8599,29.2484,29.795,-5.2168,23.6537,0.71114,7.1413,16.9878,-8.6677,-21.7642,-11.0259,-2.7108,-7.0973,
5.163,27.6425,35.0773,13.9073,-8.1997,8.1345,14.7685,14.2456,1.8685,5.9524,-9.6543,3.2904,-6.7855,1.3325,
-7.389,36.3415,35.797,17.3348,6.3923,18.9955,27.9824,-0.70911,15.8564,-8.5048,-8.1336,-11.007,7.7216,-5.3388,
7.1543,20.061,19.5491,2.1947,0.85459,3.7558,12.2034,13.4334,0.80505,6.1055,2.2421,3.7534,-6.8416,9.0815,
-7.3749,4.7573,4.2762,7.2177,5.5123,17.6304,-2.6288,-1.4726,14.8567,-8.3608,2.1081,-10.5718,6.2813,-5.5634,
-5.5194,18.5719,8.2078,-7.3154,-5.1774,2.4726,11.6289,-15.4842,13.9899,-5.9759,-7.4359,-11.3756,-8.1956,-4.7588,
4.2288,3.3576,-6.3847,-20.9765,-4.8667,-11.7758,25.0312,-0.45516,-0.94945,8.4827,1.4859,3.407,-5.8456,3.0604,
-4.0298,11.5816,8.0984,-33.8179,9.5253,-15.8269,27.8168,-14.5279,13.2075,-6.1263,0.92599,-10.8975,8.6052,-4.1862,
10.312,-3.2133,-6.4875,-45.8888,-4.2046,-28.9773,12.0478,0.44382,-1.6849,8.3413,7.9327,3.8564,3.4056,10.165,
-4.4067,-17.1205,-14.5985,-56.4189,-5.8358,-38.0929,-2.7751,-13.6828,4.041,-6.2592,11.2232,-1.0584,4.1425,-4.5449,
0.56661,-1.9933,0.37746,-38.9337,-2.1893,-21.7073,11.4914,-8.203,17.8986,-6.3543,-3.5502,-9.9399,-6.9348,-11.8055,
10.4197,-5.194,5.0886,-22.4977,-3.4708,-6.3049,24.9019,6.3892,30.9247,8.1269,-0.53685,4.7565,-1.3397,3.0028,
-4.3055,-0.64522,13.7289,-7.0478,10.8375,8.1734,9.3078,-8.0942,14.9692,-6.4607,2.791,-9.6289,12.8407,-4.6851,
10.0528,-14.7065,-1.1949,-20.725,-0.61666,-6.417,-5.3507,6.4915,-0.02897,8.0269,1.6821,5.0489,-2.0297,9.696,
-4.6504,-27.9241,-15.2232,-33.5815,-5.2886,-20.132,-19.1296,-3.2895,-14.1272,-0.90474,0.63979,1.0039,1.3882,2.5475,
-8.6335,-12.1487,-0.20977,-17.4666,-10.6208,-4.824,-3.8818,-11.5677,0.8204,-12.1503,-1.2824,-13.1563,6.9544,-3.2557,
2.7139,-18.5067,-14.2972,-2.3186,-17.9877,9.5654,10.4511,3.2264,14.8712,2.6787,12.8946,1.7331,-1.4666,11.0396,
-11.549,-4.6845,-2.1891,11.9205,-2.8084,23.0915,-4.276,-11.0672,-0.12109,-9.6987,11.2041,-9.6712,12.7214,-3.7228,
3.244,-18.5034,-16.1578,-2.8947,1.6224,7.606,-18.1194,3.6968,-14.2138,4.9832,10.5321,5.009,5.8616,10.6006,
-11.0507,-31.4932,-29.2883,-16.821,3.8793,-6.9504,-31.1323,-7.3286,-27.461,-3.2956,13.1958,1.4376,18.2226,-2.7228,
-17.4754,-15.5036,-13.431,-1.7118,-0.5912,7.5667,-15.1643,-15.8348,-11.7133,-9.2176,1.5754,-9.4773,11.9509,-5.8549,
-2.773,-21.6601,-15.9461,12.4909,-14.2096,21.2127,-0.15448,-0.78468,3.0895,5.4355,8.5429,5.1913,-2.8662,8.5964,
-16.7066,-6.2605,-0.88936,25.8415,0.74297,34.0399,-2.5489,-13.4254,17.0041,-7.5785,4.2642,-4.9828,11.4058,-6.0194,
-1.6042,-19.9848,-14.936,10.191,-5.3977,17.8975,-16.496,1.4801,1.8838,6.9762,5.4209,9.4161,-2.4626,8.4418,
6.9671,-32.8857,-27.223,-4.5205,0.10542,2.7237,-29.6062,15.4913,-12.3292,20.6576,19.1957,22.9512,11.7852,14.0805,
-7.5509,-16.8126,-11.4896,9.8508,-0.37207,16.6602,-13.7298,0.4618,2.5106,5.3182,3.9439,7.4741,4.5113,-0.86433,
7.0022,-18.1581,3.2998,23.3597,-5.9995,29.7606,-17.1686,14.5341,16.4599,19.0991,7.4732,21.1257,-9.8594,13.2875,
-7.518,-4.8271,17.2018,36.0581,0.9521,42.075,-16.1383,-0.43796,29.5723,3.8531,0.43326,5.7581,-4.5844,-1.6097,
7.0331,-15.3666,2.0697,19.7947,-1.4591,25.4505,-29.27,13.6883,13.698,11.1798,-0.063003,4.4967,-7.6048,12.5869,
-4.6885,-28.5446,-12.1545,4.507,-4.1965,9.8235,-41.6138,13.8588,-1.2239,18.9843,9.3567,18.3269,-6.2073,16.5399,
-15.2361,-12.7319,-3.3958,6.6908,-1.5904,5.0965,-25.017,-1.0727,12.9496,3.7453,2.6753,3.1273,-3.4801,1.4475,
-0.22195,-26.068,-17.292,20.3893,-7.1452,18.8907,-37.616,13.0916,26.2726,17.6206,16.6148,17.0396,-7.0382,15.4607,
-14.3086,-10.4039,-2.1545,33.266,-2.0082,31.8572,-33.5258,-1.7939,38.7962,2.4633,2.4589,1.9173,7.4841,0.43304,
0.64989,4.3203,-7.6761,17.17,-2.8291,15.8458,-39.0475,-1.2399,22.3685,9.3528,-5.2219,-5.2607,-7.0649,1.7948,
2.0474,-3.4473,-15.2192,2.0398,-4.0722,0.79505,-22.6046,12.9345,6.9263,22.4457,9.1914,9.1549,-6.1703,8.7494,
-12.1754,10.8595,-0.20609,-12.1826,-3.3569,-13.3526,-7.1484,-1.9416,20.6108,6.999,-1.693,-5.4944,3.1455,-5.8755,
2.6551,-3.8921,-14.2937,-25.5516,-5.0386,-26.6515,-20.8195,12.2749,5.2741,20.679,12.5086,8.9353,-7.4014,8.577,
-11.6042,-8.3673,-5.9031,-9.9185,-0.49916,-10.9524,-20.0164,-2.5616,19.0577,5.3383,0.01208,-5.2301,7.1427,4.296,
3.192,6.2348,7.164,-23.4234,-6.5894,-24.3953,-4.7154,1.3587,24.0854,-2.0694,-7.0512,0.26334,2.0313,9.217,
0.17601,-1.6475,-7.3658,-36.118,-15.1403,-37.0315,9.6675,13.9888,8.5403,12.1548,7.4719,14.3475,-3.2702,4.4266,
-13.9346,3.631,1.5257,-34.0256,-0.13191,-24.5259,-5.0125,-0.95056,6.1195,-2.6745,4.2234,-0.61331,8.6966,-9.939,
1.0015,-10.6869,-12.6658,-46.0841,2.726,-37.1544,-18.8118,13.2065,-8.3477,11.586,2.5577,12.1353,-5.9252,4.7574,
-13.1586,-24.1456,-10.9886,-42.4027,4.9163,-49.0251,-31.7831,-1.6859,0.60282,-3.2092,-2.7752,-2.6928,-2.7696,-9.6281,
-7.2153,-8.5969,3.7707,-25.7585,1.7965,-31.9836,-15.7761,-15.6848,14.6666,-13.3755,-7.3172,-16.6313,-11.0785,-13.3132,
7.3176,-14.6979,1.6858,-11.9462,-1.136,-15.9646,-0.72953,-0.64367,26.9953,1.527,7.2218,-1.5334,-9.4719,1.5856,
-7.2215,0.28393,15.6846,2.8706,13.0322,-0.90671,3.5766,-14.7051,11.2756,-12.6646,0.22175,-15.5414,5.1964,-5.0763,
7.3118,-13.8331,0.64356,-11.4017,7.0958,-14.9523,-10.738,0.27725,-3.5009,2.1953,2.5627,-0.50891,-9.2154,9.3283,
-7.2269,-27.1031,-13.4951,-24.8176,4.787,-28.1552,-24.1937,-11.0638,-17.3909,-10.6229,1.4682,-4.2698,-4.4242,-5.3314,
-13.3842,-11.3769,1.4146,-9.2285,3.0872,-12.3659,-8.6421,-16.5207,-2.2474,-10.4567,-8.5081,-15.7847,0.078103,-6.8944,
1.5189,-4.5734,-2.9078,5.4252,-9.8103,2.4761,5.9765,-1.4294,11.9874,4.2707,3.7732,-0.73758,-7.9308,7.6193,
-12.6723,9.801,11.3667,19.1997,4.8784,16.4275,16.9182,-13.5603,0.88514,-10.0856,4.0178,-14.7933,6.6451,-6.9379,
2.1881,-4.8871,-3.4153,3.9477,-0.56874,1.3419,1.8031,1.3533,-13.268,4.6196,3.7771,0.19428,-6.4413,7.5784,
-1.2141,-18.6939,-17.3104,-10.3892,4.6442,-12.8386,-12.4051,6.4763,-26.5719,5.7796,7.7878,7.2702,8.0452,6.678,
-8.6745,-3.4722,-2.1718,4.3342,0.59978,2.0317,2.4392,-8.0122,-10.8776,-8.6672,-6.7794,-7.266,8.0592,-7.8227,
5.946,10.8361,-2.9834,18.1741,-4.1454,16.0098,16.3929,6.5685,3.8751,5.9528,-0.74801,7.2699,-6.5244,6.7467,
-8.5108,24.2859,11.2956,31.1837,8.8165,29.1492,29.5093,-7.9256,17.7426,-8.5043,2.5926,-7.2663,7.9671,-7.7581,
6.0999,8.7288,-3.4821,15.2127,0.28285,13.3002,13.6387,6.6499,2.578,6.1059,4.7917,7.2697,6.547,6.8074,
0.10901,-5.895,-17.3732,0.19991,4.9742,-1.5978,-1.2796,10.018,-11.6767,8.5652,3.5621,20.9335,13.6876,3.5742,
-4.6065,8.5587,-2.2308,14.2879,11.2675,12.5981,12.8972,-4.6831,3.1239,-6.0487,-8.8929,5.5775,8.1574,-10.7403,
9.7699,-2.7589,-11.0423,27.5306,-3.0626,25.9422,26.2233,9.6979,17.0365,8.4142,-4.1222,19.3429,-6.432,4.0042,
12.5044,0.2314,-9.4383,39.9788,-3.8208,38.4857,35.0332,18.0612,30.1143,7.4375,-3.8749,15.8531,-10.3083,2.3511,
10.342,2.5715,-6.518,51.6801,-5.0041,50.2765,28.6934,12.7402,33.5361,5.5791,-3.1717,9.7232,-8.2772,-0.14445,
7.3668,5.7129,-4.7141,41.1704,-5.1744,33.1599,22.7343,7.7373,17.4239,2.8897,-2.5109,4.9013,-7.3101,-3.4319,
5.5131,8.6665,-2.0772,24.6002,-6.2765,17.0703,17.1329,3.0362,2.2785,0.36318,-1.8891,0.37034,-5.4589,-5.5796,
2.3571,10.9713,-1.0112,9.0242,-6.8413,1.9461,11.3968,-1.854,-11.9582,-2.4838,-1.7757,-4.3599,-4.1899,-9.0114,
1.2738,13.1382,1.8751,-5.6173,-7.3727,-12.2706,6.9464,-5.509,-25.3407,-3.2767,-0.72731,-8.8068,-2.0543,-10.354,
-0.68592,15.1746,3.6459,-19.3803,-7.8722,-25.6344,3.7044,-8.9455,-37.9203,-4.9634,1.1996,-12.0455,-1.9315,-12.5575,
-0.64431,11.4394,10.96,-32.3174,-5.5166,-38.1963,17.5822,-2.7588,-49.7451,2.8681,3.011,2.7772,-3.6989,-4.2713,
-2.4903,24.853,24.4024,-16.2784,8.9144,-21.8046,30.6272,-16.6933,-32.6604,-11.404,-4.7029,-11.4894,10.623,-11.5483,
11.7591,9.2619,8.8382,-1.2017,5.5796,-6.3963,14.6896,-1.5917,-25.1752,3.3803,3.1132,3.3,-4.1144,3.2446,
-3.0464,3.9972,7.3665,12.9704,3.3618,8.0875,-0.29177,-15.5962,-9.5647,-10.9225,1.0428,-10.998,10.2325,-11.05,
3.7282,17.8574,15.3992,-1.9078,-6.257,-6.4978,13.8257,-0.56043,-8.0245,-3.7013,-4.6701,-7.5134,2.1095,-0.028614,
5.3885,5.5113,0.37523,-15.8933,-5.8813,-20.2079,27.0962,13.5732,-21.643,10.6208,6.9102,7.0374,-6.4916,10.3313,
-9.0349,19.2807,14.4527,-14.0976,8.5716,-4.8954,39.1744,-1.3412,-6.2445,-4.1165,-1.5082,-7.4848,7.9979,-4.3886,
5.6072,4.0238,-0.51445,-27.3518,7.6114,-18.7017,22.7239,12.8393,-19.9698,10.2305,9.8822,7.0642,4.2474,7.6205,
-8.8292,-10.3176,-10.8666,-28.0893,12.3339,-31.6796,7.2605,-2.0311,-4.6716,-4.4833,2.2267,-7.4596,14.8217,-6.9367,
3.4468,4.4014,3.8854,-12.3039,12.0641,-15.6788,20.9249,-15.5636,9.7087,-15.9849,-9.6779,-12.1908,-0.16757,-8.4284,
5.5942,5.0792,-0.089083,2.5343,-2.3134,-0.63809,33.7694,-0.52974,23.2262,-0.92581,4.5569,2.6406,-11.4827,5.7314,
-8.8415,12.3075,6.5069,16.4823,11.9254,13.5002,29.3887,-14.598,7.7326,-13.5577,8.9913,-11.6178,3.3063,-8.7125,
5.789,-2.531,-7.9835,1.3933,6.0557,-1.4098,13.5254,0.37792,-6.8314,1.3558,2.3314,3.1793,-1.1044,5.9102,
-8.6583,-16.4791,-21.6045,-12.7903,7.1052,-15.4252,-1.3861,-7.6237,-20.5215,-1.5252,2.662,-3.1075,10.7323,-3.8611,
-14.2852,-1.3903,-6.2082,2.0771,-6.0335,-0.39971,12.7971,-10.4626,-5.1902,-13.2048,-6.4435,-17.0211,-3.5656,-14.4591,
0.67193,11.3805,-12.9224,16.0525,-3.7887,13.7243,26.1292,4.2652,9.2212,1.6875,8.0431,-1.8998,-3.3516,0.50847,
-12.0558,14.935,1.953,29.1894,9.1511,27.0008,10.4615,-10.0907,-3.5487,-12.5137,-6.5395,-15.8858,10.9495,-6.5591,
2.7676,-0.061114,-12.2642,13.338,1.0688,11.2808,-4.2662,4.6147,-17.4358,2.3371,-1.9094,-0.83267,-2.3949,7.9345,
-3.9648,-14.1574,-18.5909,-1.5623,2.888,-3.4961,-18.1102,2.9507,-30.4897,-2.9577,7.6217,5.8095,8.1068,-6.6416,
-3.7269,0.792,-3.3754,12.6315,-0.11049,10.8137,-2.9236,-11.3263,-14.5603,-15.0216,-6.9356,-8.639,-1.7957,-10.9516,
10.5967,4.0156,-14.9187,25.9736,-2.4577,24.2649,11.3518,3.4533,0.41333,-0.020272,3.343,5.9793,-8.7507,3.8055,
-4.1391,17.8746,0.076462,38.5152,11.7898,36.909,24.7707,-10.8539,14.4885,-7.5272,16.797,-3.7955,5.8743,-5.8139,
10.2092,2.7021,-14.0281,22.1042,0.27809,20.5944,9.1844,3.8973,-0.48078,7.0244,6.3726,10.5322,-1.5159,8.635,
-4.5033,-11.56,-27.2864,6.678,0.73212,5.2588,-5.4666,6.9589,-14.5519,10.8658,9.2862,13.2208,-0.011863,12.3788,
-14.1208,3.2336,-11.5493,20.3773,7.2796,19.0432,8.9614,-7.5586,0.42118,-3.8862,-3.5127,-1.6725,-1.8954,-2.4639,
0.82642,-1.6684,-3.3231,33.2547,-7.2572,32.0006,5.103,6.9949,14.4959,10.447,1.4059,12.5279,-14.0227,11.7839,
-13.3232,12.0858,10.9763,45.3594,1.1576,44.1806,-1.3236,-7.5248,27.7262,-4.2798,-10.4493,-2.3238,0.91866,-3.0231,
1.5762,-2.7394,-3.7823,28.5378,8.1506,27.4298,-15.3442,7.0267,11.9626,10.077,3.832,9.0904,-11.3534,11.2583,
-1.3185,-16.675,-10.1469,12.7256,2.9531,11.684,-28.5236,11.3136,-2.8552,11.3548,15.8438,13.2526,-8.7889,1.1658,
-7.8307,-1.5745,4.5619,24.7733,4.6592,25.0829,-12.7121,-3.4652,11.4161,-3.4265,0.79319,-1.6425,3.0388,-10.204,
6.7391,-15.58,-9.8118,37.3869,-5.9783,37.678,-26.0494,10.8427,24.8312,10.8791,-4.9294,12.556,-9.3853,4.5082,
-7.7652,-0.54524,4.8769,49.2437,-0.91111,49.5173,-26.8901,-3.9079,16.3289,-3.8737,-5.5751,-2.2974,0.59438,-9.8623,
6.8007,13.5875,10.2588,32.1891,-0.85689,32.4463,-21.5106,-3.6985,1.2491,-17.7413,-9.9491,-16.2595,-11.683,-12.0953,
-7.7074,16.0681,3.9934,16.1577,-4.5717,16.3995,-6.1199,-1.5932,-12.9258,-11.0761,-8.4102,-10.6246,-9.0987,-4.7782,
-15.2498,29.204,17.8538,2.4758,6.5318,1.3155,8.3473,-14.2096,1.9497,-16.5326,-9.3187,-22.7001,5.5472,-1.1956,
-0.23479,13.3518,2.6825,-11.7727,-3.2769,-12.8634,-6.2536,0.74293,-12.2672,-1.4406,5.3405,-7.2381,-8.8856,12.9761,
-14.3207,-1.5493,-6.4238,3.0336,2.5699,2.0084,-19.9783,-13.4016,2.5688,-15.4542,2.2199,-10.5454,4.3595,0.92274,
0.63854,12.6436,8.0616,-11.2484,-2.2928,-12.2121,-4.6796,-5.0639,2.8608,-11.7013,-12.0133,-15.5626,-3.4349,0.86782,
-5.4954,-2.215,-3.2266,-24.6735,-8.2763,-25.5794,9.7011,9.34,-11.4109,3.1008,0.45347,-0.52881,-4.6409,6.936,
-17.8777,12.0179,8.7376,-33.6007,6.3202,-22.6074,23.2191,-5.3204,3.3738,-11.1853,2.7807,-14.5971,9.7375,-1.4842,
-2.705,-2.8031,-5.8867,-45.6847,5.0246,-35.351,7.7259,9.0988,-10.9286,3.5858,4.026,0.37874,-4.9467,12.2588,
-3.9307,-16.735,-19.212,-57.0436,12.2564,-47.3299,-6.8376,-2.2521,-16.4191,3.8656,16.9681,0.85179,9.4501,-0.71849,
-3.2237,-1.6309,-5.3468,-39.521,-2.579,-30.3901,7.6726,-4.471,-1.3339,-10.0203,1.85,-9.0875,-4.7466,1.6786,
3.5615,-15.2119,-17.2677,-23.0497,-6.6866,-14.4667,21.3123,9.8972,12.8461,4.681,6.8932,5.5578,-2.5781,15.6779,
-10.7521,-0.19923,-2.1317,-7.5667,7.8146,0.50128,5.9335,-4.7966,-2.0247,-9.6999,8.8336,-8.8757,11.6766,0.63725,
3.993,-14.2873,-16.1038,-21.2127,0.77894,-13.6288,-8.5225,9.5912,-16.0032,4.9821,13.4833,5.7568,-3.124,11.8993,
-4.251,-27.0844,-19.3749,-34.04,1.2029,-26.9111,-22.1111,1.9787,-29.143,-0.471,8.436,-1.6256,5.0678,6.948,
3.5373,-11.3593,-4.1124,-17.8976,-3.5773,-11.1964,-6.6845,-12.24,-13.2944,-10.8012,-6.1701,-14.7108,-3.7118,-1.0021,
17.4251,3.4222,8.4007,-2.7237,-6.1879,3.5754,7.8166,2.5944,1.6033,3.9469,8.3001,0.27186,-8.1971,11.2993,
2.2796,11.2705,15.9002,11.5397,8.2834,17.4609,-6.7524,-11.6613,-5.5309,-10.3899,1.6814,-13.8444,6.3947,-3.4786,
16.2428,-3.5057,0.84615,-3.2527,-4.4298,2.3132,-20.4472,3.1384,-19.299,4.3335,-9.2482,1.0862,-8.089,10.8301,
1.1682,-17.3954,-13.3046,-17.1575,-1.8105,-11.9256,-33.3204,5.3037,-32.2411,1.744,5.4067,12.8158,3.2255,8.7681,
-13.0019,-2.2516,1.5937,-2.0281,-5.9392,2.8899,-17.2212,-9.1145,-16.2066,-12.4606,-9.0177,-2.0532,-4.972,-5.858,
1.8782,11.9835,-7.4719,12.1936,-4.6409,16.8166,-2.0879,5.5323,-1.1342,2.387,0.93949,12.17,-8.4407,8.5935,
-12.3345,21.1522,7.0764,25.562,9.7375,29.9076,-10.4127,-8.8996,13.0338,-11.4101,3.7088,-2.6602,6.1657,-3.6931,
2.5056,5.783,-7.4482,9.9283,-1.6513,14.0131,-23.8879,5.7344,-1.8482,3.3745,3.9565,11.5994,-3.125,8.2995,
-1.8821,-8.664,-21.1013,-4.7674,6.9225,-0.92768,-36.5547,2.5651,-15.8373,8.3763,7.4857,6.1954,1.7705,0.26829,
2.4686,5.9559,-5.7352,9.6186,20.6071,13.228,-20.2614,-11.6888,-0.78706,-6.2262,-5.6759,-8.2763,10.6101,-9.6351,
16.4205,-3.3721,-3.9788,23.1415,7.1542,26.5343,-4.9457,3.1125,13.3602,8.2473,-3.9229,6.32,-4.1265,0.83007,
1.3353,10.9302,10.36,35.853,20.825,39.0422,9.451,-11.1742,26.6586,-6.3475,-10.7499,-8.1592,6.4549,-11.9315,
15.3552,24.3744,7.8803,19.6018,26.1926,22.5997,-5.216,3.5962,10.959,3.4253,-15.2836,3.6063,-8.0324,2.8844,
19.1665,9.3075,0.34499,4.3257,16.617,7.1437,-19.0031,6.6764,-3.7985,-2.9013,-10.1293,-0.84829,-10.4007,-3.8563,
6.246,22.849,14.4243,18.1662,29.72,20.8151,-3.7629,-7.8242,10.5294,-16.8272,-11.876,-14.8974,4.3234,-17.2793,
19.9712,7.3781,-0.54117,31.1762,17.1325,33.6662,-17.6371,6.7452,19.3395,-1.7176,-2.6885,0.096451,-9.5651,-2.1425,
6.5567,21.0354,13.5913,43.4056,27.4046,45.7462,-2.4789,-7.7595,32.2791,-15.7146,-4.4103,-14.0093,5.1088,-1.0466,
20.2633,33.8733,26.8758,26.7013,13.9889,28.9015,-13.63,-0.72715,16.2424,-11.9715,-18.2457,-15.0767,-9.2977,-5.222,
4.9475,35.1864,22.017,10.9992,7.0289,13.0674,1.2878,5.4371,1.1678,-0.42455,-18.1179,-4.2848,-16.2729,-9.1461,
1.8254,39.6675,33.8792,10.414,20.7072,16.1246,15.3105,-8.9891,2.0148,-14.4991,-13.2637,-18.1277,-1.1965,-9.5387,
15.8159,23.1875,17.7464,-4.3109,13.8401,3.8571,0.29189,5.6502,-12.2061,0.47087,-3.993,-2.9401,-9.575,5.1336,
0.76696,12.3542,15.7152,10.0478,21.4841,17.7257,-13.8256,-6.9305,2.6263,-10.8568,-9.4032,-12.1802,-3.3508,-6.4492,
14.8209,25.7129,28.8722,-4.6551,12.1911,2.5621,1.1039,1.4893,-11.6313,-7.8518,-8.3682,-18.5119,-13.0375,4.7669,
1.2438,24.6659,13.0399,-18.4758,-2.6403,-11.6916,15.1377,-0.48294,-25.0334,-7.3798,-11.6328,-7.9842,-23.5546,2.598,
-5.8933,37.2859,26.3575,-6.1175,11.6181,3.1099,10.0413,-8.4579,-16.9902,-15.8833,-6.6975,-21.6052,-8.0413,-4.6213,
8.5603,20.9488,10.6761,-19.8504,2.4463,-11.1767,-4.6612,6.1496,-30.0707,-0.83031,0.7669,-6.2089,-8.4757,9.756,
-6.0533,5.5919,-0.79364,-14.4467,-5.2337,2.1815,-18.4815,-8.3194,-14.1665,-10.6432,-3.0457,-13.3696,-3.2591,-3.5163,
7.9637,19.3563,13.354,0.52014,-3.0364,16.1506,-3.2726,-7.3491,0.78349,-6.2375,-14.1633,-7.8598,-4.9469,0.46081,
19.7283,13.4867,-1.5473,8.0474,-2.854,18.9735,11.0237,7.1919,-1.5923,8.2368,-4.8382,6.7118,-9.3579,9.8499,
4.4446,26.7775,12.6456,20.7475,11.4173,14.0678,4.2417,-7.3397,-15.5967,-6.3574,-2.6648,-7.7909,5.3036,-3.9245,
18.278,11.0708,-2.2132,5.4027,9.8154,-0.87628,-10.1128,7.2007,-28.7609,8.124,2.2034,6.7766,-7.2313,10.411,
3.0813,-3.6934,-16.1804,-9.0215,4.5173,-14.9237,-23.6061,8.6761,-41.1353,13.3106,-1.6952,5.4531,5.4436,10.7533,
7.108,10.6282,-1.1096,5.6198,1.8927,0.07172,-8.0897,2.9768,-24.5672,-1.588,-15.6935,-8.9741,-4.7698,9.6374,
6.2117,13.7573,3.6651,19.3826,-10.9329,14.1674,6.4957,15.5111,-8.9931,-1.5169,-16.6603,4.723,-18.5836,6.7047,
-8.261,27.0319,17.5452,32.3197,3.8231,27.4174,20.2059,0.48044,2.8215,-15.5259,-1.5606,-9.6604,-3.3686,-1.2304,
6.3347,11.31,2.3925,16.2805,2.2057,11.6723,4.8936,14.5516,-11.4478,-0.49431,-0.029356,5.0192,-1.2836,12.9434,
-6.288,-3.4686,-11.8511,1.2037,3.486,-3.128,-9.5,1.4368,-24.8609,3.3015,6.0931,-0.93188,12.8934,3.7163,
-2.614,10.8395,2.96,15.2314,3.7475,11.1597,5.17,-9.4786,-9.2693,-10.55,-6.9845,-14.976,14.9705,-9.2187,
11.6429,7.3644,-4.7504,28.4176,-9.1902,24.5901,18.9598,5.1901,5.3869,4.183,-3.2705,0.022589,-0.027745,3.1046,
-3.1557,11.6306,9.6346,40.8125,5.4612,37.2147,31.9222,-9.2213,19.1637,-10.168,1.6347,-10.3363,14.0739,-6.4983,
11.1336,-3.1672,-5.0435,24.2638,-8.9665,20.8818,15.9069,5.432,3.9138,4.5421,1.5366,4.3839,-0.87052,7.9916,
-3.6344,-17.0772,-18.8409,8.7079,-11.2532,5.5289,0.85244,2.7762,-10.421,8.5315,9.9187,11.6787,2.4521,5.6539,
-17.5163,-1.9526,-3.6104,22.2855,-5.3984,19.2972,14.9013,-11.4904,4.3043,-6.0804,-3.3885,-3.122,3.7171,-7.3974,
-2.3653,-15.9354,-17.4938,35.0483,-15.9038,32.2393,14.9739,3.2991,18.146,8.3844,8.5856,11.1653,-9.2181,7.1465,
-16.3234,-0.90435,-7.9945,47.0454,-2.7085,44.405,13.1338,-10.9989,31.1573,-4.3604,7.1284,-3.6046,5.435,-0.32024,
-1.2445,-14.9501,-21.6149,30.1227,-13.3747,27.6407,-1.7542,3.7611,15.1878,10.0013,2.4638,10.7116,-4.7536,12.4114,
-15.2698,-28.1531,-34.418,14.2153,-16.81,11.8822,-15.7489,3.5358,0.17655,18.8432,4.67,20.4269,-3.9972,11.1956,
-18.1453,-12.3639,-18.2529,9.1501,-1.7014,11.6655,-0.70401,-10.7763,14.266,3.6126,-5.4975,5.1013,10.3426,0.63658,
-2.9566,-25.7221,-31.2577,22.7011,-15.6993,25.0656,-14.7618,3.9703,27.51,14.6709,5.6613,10.4208,-1.5534,13.3111,
-16.8792,-10.0787,-15.2823,35.4391,-0.65738,37.6616,0.22394,-6.1552,39.9594,-0.30934,19.4216,-4.3045,12.6398,2.6249,
-7.3913,4.626,-7.3278,19.2127,-10.4806,21.3019,-5.9352,3.6306,23.4618,5.8041,4.1563,-6.4259,-2.2186,7.1759,
-6.4771,-9.7516,-17.7169,3.96,-15.972,5.9238,8.5209,16.1248,7.9541,19.1111,0.14011,8.0596,-0.20194,8.1575,
-18.8009,-1.1871,-3.9419,-10.3776,-1.3598,-8.5316,22.1097,1.0573,6.0893,3.8645,-5.0475,-6.524,9.6974,-6.4319,
-3.5729,-15.2159,-17.8053,-23.855,-13.0488,-22.1197,6.6831,15.0939,-8.376,17.7326,6.0845,7.9675,-4.9844,8.054,
-17.4585,-28.4029,-16.2909,-8.3237,-2.8493,-6.6925,-7.8179,0.088253,6.2265,2.5686,9.4865,1.3943,9.4147,7.5707,
-2.7571,-12.5988,-5.8965,-21.9243,-3.6197,-20.391,6.7512,-0.88352,-8.2471,-5.1447,-3.3249,-3.3983,-1.0375,0.52468,
-2.1205,-2.4513,-6.0138,-34.7088,-8.5818,-33.2675,20.4461,9.0568,-21.8522,4.1098,8.6456,10.9056,-2.3878,3.7896,
-16.0933,11.7957,8.447,-39.2923,4.1744,-38.8794,29.6279,-5.5867,-6.4411,-10.2367,9.0692,-3.8488,11.8554,-2.0882,
-1.0277,-3.012,-6.1598,-51.0348,-10.176,-50.6466,13.7502,8.8485,-20.1546,4.4775,3.3452,8.6237,-2.9559,12.1371,
-15.066,-7.5389,-9.5569,-62.0727,4.5345,-61.7078,-1.1748,-4.8651,-4.8454,8.9178,14.9153,1.9863,11.3215,-0.80738,
-9.0079,7.0134,3.729,-44.2484,-9.8376,-43.9054,12.9957,-15.4028,9.5454,-5.7173,-0.079654,-12.2329,4.5466,-7.8219,
4.2446,-7.5074,-10.5947,-30.3191,-15.8637,-31.8795,26.3159,-0.37861,23.0726,8.7257,7.4338,2.6011,3.8031,6.7474,
-10.1101,0.94659,4.141,-19.5537,-0.81189,-24.7871,12.9664,-12.5721,7.5883,-5.4517,14.0503,-11.655,17.6749,1.6596,
4.5965,-13.2102,-10.2075,-32.4804,-14.3927,-37.3999,-1.9116,2.2822,-6.967,8.9754,6.6157,3.1443,2.5144,15.66,
-9.7793,-20.9178,-19.9781,-44.6316,-6.9375,-49.2559,-15.8969,-1.5968,-20.649,2.8111,7.1604,7.1921,7.5419,5.3289,
-18.1625,-5.5627,-4.6794,-27.8537,-12.1708,-32.2005,-0.84308,-8.0919,-5.3101,-5.8322,-7.3692,-7.3394,0.49843,-2.5241,
-2.9728,1.8589,-10.4945,-12.0825,-13.7948,-16.1685,13.3075,6.4936,9.1086,8.6177,7.1729,7.2009,-2.8276,11.7274,
-16.8944,15.8473,1.4344,2.7425,0.21586,-1.0984,11.096,-7.996,22.662,-5.9994,3.4462,-7.3311,11.442,-2.606,
-1.7807,0.79649,-12.7517,-11.5221,-12.5091,-15.1325,-3.6697,6.5838,7.2023,8.4606,5.5939,7.2087,-3.3445,8.3795,
-15.7739,-13.3513,-26.0866,-24.9308,-7.0505,-28.3245,-17.5496,-1.3199,-7.3298,4.2109,17.4995,5.8352,10.9562,5.993,
-16.7112,1.5498,-10.4214,-9.3349,-3.8018,-12.5251,-2.3966,-9.7158,7.21,-10.1417,2.3496,-8.6149,-3.8012,-1.8994,
-1.6085,15.5568,-4.171,5.3252,-8.7536,2.3264,11.8472,4.9671,20.8774,4.5668,-2.054,6.002,-17.6731,12.3146,
-15.612,28.7234,10.1793,19.1057,5.8716,16.2868,11.1364,-9.4309,26.2411,-9.8072,3.7198,-8.4581,-2.5127,-2.5243,
-0.57531,12.9,-4.5315,3.8593,-6.6972,1.2096,-3.6318,4.7889,10.5667,-5.9479,-2.1537,1.9112,-1.4208,2.8064,
-8.0485,-1.974,-18.3596,-10.4722,-5.8246,-12.9629,-17.5139,-6.3276,-4.1673,-8.8861,4.0966,-3.3823,8.5522,2.1673,
-10.862,12.2444,-3.158,4.2561,0.64551,1.9148,-2.3631,-15.8352,10.1827,-8.8241,-2.2699,-17.2793,20.7515,0.62463,
3.8897,-2.5902,3.1528,18.1007,-13.4932,15.8999,11.8787,-0.78512,23.6717,5.8054,-0.72107,-2.1426,5.4064,10.4744,
-10.4436,11.6652,17.0636,31.1147,1.4164,29.0459,11.6367,-14.838,36.3514,-8.6429,5.9136,-14.2558,19.1821,1.3708,
4.283,-3.1347,1.9398,15.1478,-9.0266,13.2032,-3.1615,0.15227,20.0704,0.34986,-7.1537,0.69958,3.9311,15.3886,
-8.1907,-17.0467,-11.8309,0.13894,-8.485,-1.689,-17.0718,9.5847,4.7661,7.863,2.6925,4.9204,-0.09596,9.3111,
-7.229,-1.9239,2.9789,-13.0284,6.1241,-7.2134,-1.9475,-5.0903,18.5802,-6.7088,1.1175,-9.4748,14.0098,-2.0763,
7.3048,-15.9084,-11.2998,1.8533,-5.5184,7.3194,-15.9306,9.3151,20.2903,7.7938,0.58037,5.1937,-0.93079,12.1483,
-7.2335,-10.7419,3.4782,15.8421,7.5254,20.9802,-9.3745,-5.3438,33.1729,-6.7739,5.7245,-7.8304,12.7789,-0.79772,
5.4427,4.0027,9.4152,0.79157,-7.0261,5.6214,-19.1705,2.9562,17.0825,-7.8051,-8.7189,-16.7776,-2.0878,1.1339,
-8.0675,-2.8043,0.37561,-13.3559,-16.988,-8.8159,-6.7204,6.5445,1.9576,-2.6287,-7.2794,-6.3539,-4.8128,2.0073,
-10.4082,11.464,14.4531,-26.6546,-1.8687,-18.6454,7.7828,-7.9482,15.9401,-16.571,5.3991,-10.6812,9.576,-0.93788,
4.3163,-3.3238,-0.51411,-39.1553,-6.4399,-31.6266,-6.7841,6.6287,0.88371,-1.4767,8.8424,4.0597,-5.0986,13.2184,
-10.0427,-17.2244,-0.95443,-22.706,0.067411,-15.629,-20.4771,-6.4806,14.9307,-0.91698,10.6657,-4.1628,9.3074,8.213,
-7.5568,-2.091,-0.426,-35.4436,-10.7653,-28.7913,-5.1485,-3.7377,-0.06515,-6.0412,-4.0742,-7.2085,-1.5836,0.65725,
-7.1032,-16.0655,-14.5004,-47.417,-4.4702,-41.1638,9.2604,10.5866,-14.1612,8.4213,7.9164,7.324,-7.1387,11.9179,
-20.777,-1.0016,0.46959,-51.7092,9.8981,-42.0396,-5.3952,-4.1486,-27.4116,-6.184,9.7952,-7.2154,7.3896,4.1405,
-5.4304,-15.0415,-13.6586,-62.7067,-4.3249,-53.6172,-19.1715,10.2003,-39.8669,8.2871,7.3242,7.3175,-7.1538,17.9921,
-9.3421,-21.2257,-6.743,-44.8443,5.3516,-36.3001,-32.1212,-4.5117,-23.3749,-3.0143,-4.4151,-6.7508,7.3755,2.8126,
-3.1321,-5.8521,6.8443,-28.0536,2.2053,-20.0221,-16.0939,-10.3621,-7.8724,-14.1333,-18.2502,-15.7628,-4.8137,-3.0061,
-4.3563,-7.8304,-7.6664,-12.2704,-4.9895,-4.7208,-1.0283,4.3596,-0.38738,0.81473,-3.0552,-0.717,-8.7613,7.062,
-5.9782,6.7394,6.8936,2.5658,9.4098,1.7336,0.91717,-10.002,-14.4641,-4.3883,11.2281,-13.3614,5.8644,3.8126,
8.4804,-7.765,-7.62,-11.6881,-1.4881,-12.4704,-13.2379,4.6981,-27.6963,9.975,-3.5456,1.5403,-5.7632,11.1166,
-6.1284,-21.3991,-18.0166,-25.0868,7.0763,-25.8222,-26.5436,-2.6208,-40.1345,2.8097,-3.804,0.53149,5.8829,1.9754,
-9.5268,-6.0151,-2.8356,-9.4816,0.060344,-10.1728,-10.851,-9.9972,-23.6264,-4.8917,-3.5753,-13.6004,-7.6533,-3.793,
5.1448,1.8793,0.18458,5.1873,-5.5939,4.5375,3.9001,4.7026,-8.1089,9.5018,4.1727,1.3156,-9.0776,10.5345,
-5.9685,14.4787,14.2735,18.976,8.8418,18.3653,-10.4339,-9.6795,-12.8266,-5.1683,-6.9075,-11.4762,5.5671,-4.1975,
8.4896,-0.48999,-0.6829,3.7375,-5.3178,3.1634,-23.9079,5.0012,-26.157,6.9124,-7.434,3.3124,-8.867,9.7087,
-6.1197,-14.5606,-14.7419,-10.5868,0.18047,-11.1264,-36.5734,-3.7489,-38.6876,-7.6023,-2.7511,-3.9239,-1.7429,-2.6449,
4.1352,0.41304,0.24259,4.1484,14.2696,3.6412,-20.279,-5.4068,-22.2663,-20.826,-16.686,-14.9883,9.6606,-1.5448,
12.3617,1.7758,-7.3054,17.9995,-0.68654,17.5227,-4.9623,9.0176,-6.8303,-5.4765,-4.4092,0.011011,-5.019,12.6479,
-2.48,10.1444,7.2329,31.0196,12.5383,30.5713,-18.7645,-5.6235,7.6795,-2.2976,9.9554,-10.323,9.3821,6.2646,
11.7688,-4.5643,-7.3011,15.0584,-2.314,14.637,-31.7387,8.8139,-6.8813,11.9402,3.7323,4.3964,-5.2808,14.363,
-3.0373,-18.3904,-20.963,0.054883,-3.6133,-0.34118,-43.9343,-2.519,-20.5684,5.1278,-1.6709,8.395,-7.3426,3.6139,
-9.4715,-3.187,-5.6052,14.1516,2.7242,13.7793,-27.1983,-16.4679,-5.2343,-9.2799,-2.0409,-6.2087,2.0438,-0.8407,
5.1968,-17.0958,-4.7978,27.4025,-8.268,27.0525,-34.5869,-1.3798,9.1798,5.3769,9.8521,8.2638,-7.0247,13.3097,
-9.215,-1.97,9.5901,39.8583,6.3281,39.5294,-18.4117,-12.5973,22.729,3.171,12.0862,-4.4738,7.4968,6.416,
