"AF3","AF4","F3","F4","F7","F8","FC5","FC6","O1","O2","P7","P8","T7","T8",
-10.5129,-4.3591,-1.282,22.8206,-42.8206,-0.76929,-25.3848,-3.3333,8.4612,19.2307,14.1023,14.615,0.76929,16.6667,
-14.8718,-6.1541,-1.0256,19.4871,-54.3589,-4.6155,-26.6667,-3.5896,6.6667,17.949,11.282,10.7693,1.0256,13.8459,
-1.7949,2.3076,-0.25635,18.7178,-39.3589,-8.4614,-17.1797,-1.2822,0.25635,3.8462,7.436,10,-8.4614,2.8203,
11.0256,11.0256,-1.7947,21.7947,-24.3589,-8.9744,-6.9231,0.25659,-1.7947,-1.282,1.282,4.3591,-9.4871,-0.25659,
13.5898,12.564,-2.3076,22.8203,-9.3589,-13.5898,-0.25635,-3.8462,1.7949,-1.2822,-0.25635,0.25635,-1.2822,9.4873,
17.9485,13.8459,-5.6409,23.0769,5.6411,-22.5642,-1.0256,-8.718,-3.5896,-8.718,1.0256,2.5642,-6.6667,9.7434,
27.6926,20.5129,-2.051,19.4875,20.6411,-21.5383,6.1541,-8.718,-3.5896,-8.718,-1.0256,1.0256,-8.2048,2.0515,
29.2307,23.5901,1.0256,20.0002,35.6411,-18.4612,13.3333,-9.2307,-1.0256,-9.7434,-9.2307,-9.2307,-3.5896,1.0256,
24.3589,22.3076,0.76904,27.436,50.6411,-18.2051,10.5127,-7.436,-0.76904,-9.4873,-5.3848,-10,-2.3076,12.0513,
17.6926,12.0515,0.76929,23.3333,56.1541,-23.8462,6.4104,-6.4104,-0.76929,-5.3845,-0.76929,-5.8972,-5.3845,13.5896,
16.6667,5.8972,1.282,17.6921,52.051,-32.0513,7.9485,-10.5129,-1.282,-10.0002,-4.3591,-10.0002,-5.8972,2.8206,
17.1797,5.8975,0.25635,16.667,57.1797,-34.6152,7.436,-14.6152,0.25635,-15.1279,-2.8203,-14.1025,-0.25635,-2.8203,
9.7437,0,0,16.4102,51.7949,-32.3079,4.6152,-14.8721,0.5127,-12.3076,-2.0513,-13.8462,0.5127,-0.5127,
8.9744,-2.3079,1.7947,20.7693,44.8718,-29.4873,4.8718,-13.0769,-0.76929,-10.5129,-2.8206,-12.5642,0.76929,3.3333,
13.0771,-2.3076,2.3076,20.2563,43.8462,-33.0769,4.3589,-15.1279,-2.8203,-14.1025,-2.3076,-14.6152,2.8208,2.3076,
12.0513,0.25635,1.2822,18.2051,51.0259,-36.1538,7.9487,-17.6924,-6.4102,-16.6665,-6.4102,-18.2051,3.3335,-0.25635,
13.3335,5.6411,-1.5386,19.4873,56.4102,-30.2563,12.8203,-15.3848,-4.1025,-11.2822,-3.0767,-14.8716,5.1284,1.5386,
7.9487,-1.2822,-8.4614,21.2822,45.8975,-31.0256,4.3589,-16.6665,-1.7949,-10.5127,1.7949,-14.6152,1.2822,2.8203,
5.1284,-6.6665,-6.1538,23.5898,46.6665,-30.7693,4.6152,-10.2563,3.0771,-6.1538,2.0513,-11.2822,-2.0513,3.5898,
8.2051,-8.2051,-0.5127,21.5386,49.7437,-29.231,10.769,-5.1284,5.1279,-2.5645,0.5127,-7.6924,-1.0259,2.564,
8.9741,-14.1025,-2.3076,24.8716,43.333,-33.0771,5.3843,-14.1025,0.76904,-7.9487,1.7949,-11.0259,0.25635,-0.25635,
5.1284,-13.8462,-5.1284,28.7178,46.1538,-30.2563,0.5127,-15.8975,2.0513,-7.6924,1.5386,-8.2051,1.0259,-0.5127,
2.8206,-5.3845,-4.3591,22.3079,48.4617,-23.3333,1.282,-11.0256,0.25659,-5.8977,0.76929,-1.282,-0.25659,3.3333,
9.2305,0,-4.6157,16.4102,46.1538,-18.4619,2.564,-9.231,-2.0513,-5.1284,2.0513,0,-0.51318,13.8462,
11.0254,-8.4614,-0.25635,17.6924,45.3848,-21.7949,2.8203,-12.0513,0.25635,-1.2822,1.2822,-2.3076,-0.76904,15.6411,
7.9487,-8.9746,6.4102,19.231,45.3848,-20.2563,-1.7949,-12.564,-1.2822,0.76904,0.76904,-0.76904,-0.76904,5.3848,
8.2053,2.5642,9.7434,14.8718,47.1794,-14.8718,-3.0769,-9.2307,-3.0769,-0.51294,0.51294,-2.5642,-1.0256,1.5383,
7.6924,0,14.3589,14.8721,47.1797,-20,0.51269,-9.231,-1.5386,-4.1025,0,-8.7178,-2.0513,3.5898,
4.3589,-8.4614,12.0513,21.7949,39.231,-24.3589,1.2822,-9.4873,-1.7949,-5.3848,0.25635,-5.3848,-0.25635,0.25635,
-1.2817,-15.6411,4.8721,18.2051,27.9487,-26.4102,-0.25635,-12.0513,0.76953,-6.9229,2.3076,-3.333,0.76953,0.25635,
-3.0769,-20.0002,5.1282,19.9998,21.0256,-31.7952,-1.0256,-14.3591,8.2048,-8.718,8.7175,-13.3337,1.0256,2.051,
4.1025,-16.4102,10.769,25.1284,21.5386,-31.7949,0,-14.8716,5.6411,-11.2822,9.7437,-14.8716,0,0,
13.8462,-4.6152,8.7178,21.0254,34.3589,-20.5127,2.0513,-11.7949,0,-9.7437,3.0767,-4.6152,-1.5386,0,
11.7947,-0.51294,0.51294,22.5642,45.6409,-14.3591,2.5642,-7.1794,-1.5383,-5.6409,1.0256,-6.6667,-2.5642,4.1028,
5.8972,-10.0002,1.282,23.8459,39.7434,-18.2053,0.76929,-9.4875,-3.3333,-5.8977,2.3074,-10.5129,-0.76929,5.3845,
6.6665,-13.3335,2.564,20,31.2822,-17.9487,-0.51269,-12.3076,-3.0767,-11.2822,1.0259,-3.0767,1.5386,0.5127,
5.6411,-10.7695,-2.0513,18.9741,34.8716,-12.3076,-0.51269,-9.231,1.5386,-9.7437,0.5127,-0.51269,1.0254,3.0767,
4.3589,-12.0513,-0.76904,21.2822,38.7178,-11.5386,0.25635,-6.9233,2.3076,-3.3335,2.8203,-0.25635,-0.25635,8.4614,
4.6152,-15.3848,-2.564,19.4873,34.3589,-13.8462,0,-8.7183,-1.5386,-3.5898,1.5386,1.5386,0,5.6411,
1.282,-19.7434,-11.0256,14.6155,28.4617,-11.0256,0.76929,-11.5383,-0.25659,-5.8972,0.76929,-3.3333,0.25659,6.4104,
3.0769,-21.5383,-8.718,18.9744,23.5901,-11.282,1.0256,-10.7693,2.0515,-3.0769,3.5901,-2.5637,-1.0256,9.2307,
1.7949,-19.2305,-1.7949,22.3076,19.7437,-20.769,-2.8203,-9.4873,0.25635,-2.8203,2.3076,1.7949,-0.25635,8.9746,
0.25635,-11.0259,-0.25635,21.7949,22.3076,-11.0259,-1.7949,-5.8975,1.7949,-5.3848,2.3076,-4.3594,1.2817,8.9741,
6.4104,-3.8459,-3.8459,22.3079,21.7947,3.9741,-1.282,-2.3079,1.282,-4.8718,2.3079,-4.3591,-4.3591,7.4358,
8.9741,-4.8716,-3.3335,20.2563,11.5386,10.5127,-1.7949,-0.76904,-1.7949,-2.3076,0.76904,5.3848,-5.8975,6.9229,
2.5642,-7.6921,-4.6155,19.4871,3.5896,9.2307,-4.1028,1.0256,-1.0256,-1.0256,-1.5383,4.1023,-3.0769,8.718,
1.0259,-3.5898,-11.2817,17.436,2.0513,18.4614,-11.2817,0,-2.564,0,-5.1279,0.51269,-6.1538,7.1797,
7.1797,-1.5386,-5.6411,15.8975,1.5386,22.0513,-9.7437,0,-4.1025,2.0513,-4.6152,0,-11.2817,4.1025,
1.2822,-5.3843,-2.3076,21.2822,1.2822,14.1025,-5.8975,0.76953,-0.25635,0.25635,-5.3843,-7.9487,-16.6665,1.2822,
-6.1538,-3.0767,-4.6152,22.0513,1.0259,14.8721,-6.1538,0,6.1538,0,0,-1.5386,-17.436,2.564,
-2.5642,-2.051,-5.1282,13.8464,-7.1794,20.0002,-8.2048,-1.0256,1.0256,3.5896,6.1541,6.6667,-17.4358,8.2053,
2.8203,-5.8975,-6.4102,13.0767,-0.25635,22.3076,-4.3589,-3.3335,-1.2822,7.9487,7.4355,0.25635,-17.6924,14.1025,
-2.8206,-15.1282,-9.4871,10.5129,3.3333,15.1282,-5.3845,-7.949,6.4099,2.8206,8.4617,-7.4358,-20.2566,4.8718,
-0.76929,-7.949,-1.282,19.7434,-8.4617,16.1536,-6.4104,-0.76929,16.6667,1.282,19.2307,0.76929,-17.6926,2.8206,
-0.25635,-0.76904,-2.3076,22.8203,-16.6665,16.1538,-10,-0.25635,16.1538,4.3589,19.231,0.25635,-19.7437,7.436,
-0.25635,-3.333,-8.9741,20.7695,-10.5127,13.5898,-12.564,-2.3076,14.6152,12.0513,15.1284,0.25635,-18.2051,11.0259,
-5.3845,-6.9231,-11.5383,17.6921,-15.6409,11.0256,-15.1282,-2.8206,8.4617,11.0256,13.5896,2.8206,-19.2307,3.3333,
-9.2307,-6.1541,-5.1282,14.3591,-21.0256,12.8206,-14.8718,-1.5383,9.2307,7.6921,16.4104,2.5642,-22.0515,1.5383,
-7.1794,-7.1794,-2.5637,17.4363,-18.9744,12.3079,-17.9485,-1.0256,9.7439,6.6667,15.8977,1.0256,-23.5896,8.2053,
-7.1794,-8.718,-5.1282,21.0256,-18.4617,8.718,-14.3591,-0.51294,5.6409,0.51294,14.8718,1.5383,-23.0769,10.7693,
-9.231,-4.6152,0,20,-15.8975,11.2822,-6.6665,0,11.2822,-3.0767,18.9746,2.564,-18.4614,7.1797,
-12.8203,-3.0767,-2.564,17.9487,-13.3335,16.4102,-10.769,0.51269,10.7695,-0.5127,15.8975,1.5386,-17.9487,3.5898,
-14.6155,-5.8972,-15.1282,17.1794,-18.718,18.718,-17.1794,2.3079,5.8972,1.282,9.4871,-1.282,-21.7947,8.4617,
-11.282,1.0256,-16.4099,20.0002,-12.3074,21.5388,-16.4099,1.0256,6.6667,-1.0256,10.2566,-5.6409,-22.051,12.8206,
-4.1023,13.3333,-10.7693,18.9744,2.6926,33.8464,-15.8972,-0.51294,0.51294,-3.0769,9.7439,-9.7434,-21.5383,7.6926,
7.949,26.4104,-10.5129,14.6155,17.6926,46.9231,-13.5896,1.282,-10.5129,-1.282,-1.7947,-13.0769,-24.3591,2.3079,
22.949,41.4104,-8.2051,13.3335,32.6926,55.3848,-2.564,7.1797,-13.8462,-0.51269,-8.2051,-12.8203,-27.6924,0.5127,
34.8716,56.4104,-4.6157,10.2563,47.6926,67.6919,0,12.8203,-8.7183,-0.51318,-7.1797,-8.7183,-30.7695,0,
35.1282,71.4104,-7.949,8.9744,62.6926,78.2053,-6.9231,11.0256,-8.4617,0.76929,-8.4617,-6.9231,-33.5896,-0.76929,
40.769,86.4104,-7.9487,10,77.6926,83.3335,-4.8721,8.4614,-6.4102,1.7949,-3.8462,-6.4102,-31.5386,-1.7949,
45.6409,96.9231,-1.5383,8.2053,85.1282,77.4358,-0.51294,8.718,-2.5642,0.51294,-1.5383,-9.7434,-33.3333,-5.6409,
42.5642,96.9231,-0.51294,10.7693,80.5129,74.3586,-2.0515,8.718,-5.1282,0.51294,-5.6414,-10.2566,-34.8718,-6.6667,
41.282,97.1794,-0.76929,11.0256,75.6409,82.3074,-1.7952,9.9998,-6.9231,0.76929,-5.8977,-4.8718,-29.4875,-3.8464,
39.4873,87.6924,0.5127,10.769,65.6411,81.5386,-0.51269,11.2817,-7.6924,-2.0513,-5.1284,-2.564,-33.3335,-4.1025,
33.5898,81.2817,1.7949,12.564,66.9229,73.0767,-1.7949,11.0254,-10,-2.8208,-4.8721,-6.9233,-36.667,-7.436,
25.3845,73.5896,0.76929,5.8977,65.3845,66.9231,-3.8459,6.4104,-12.5642,-0.76929,-4.3586,-9.9998,-27.4358,-7.4358,
18.2053,61.282,-2.3074,5.3845,50.3845,66.9231,-3.3333,4.3591,-7.4358,1.282,-1.282,-1.282,-18.718,-3.3333,
8.4614,46.282,-8.9741,3.8462,35.3845,51.9231,-5.3843,0.25635,-4.3589,-0.25635,1.2822,-1.7949,-20.769,-5.8975,
4.1025,31.282,-9.7437,3.0771,31.2822,37.436,-5.1279,0,-5.6411,0,2.0513,-11.2817,-17.9487,-4.6152,
0.76929,20.7693,-8.4617,4.8718,25.3845,34.6155,-4.8718,-1.282,-1.7947,1.7952,1.7952,-14.1023,-14.6155,-0.76929,
-1.5386,15.3843,-9.7437,5.1279,14.8716,29.7437,-5.1284,-4.1025,1.5386,1.5386,3.5898,-6.667,-17.436,-2.0513,
0.5127,12.3076,-17.9487,6.1538,13.333,22.564,-9.7437,-0.5127,-3.0771,-2.0513,2.564,0.5127,-18.9746,-5.6411,
-3.0771,3.5898,-22.0513,5.1284,6.1538,13.8462,-13.8462,0.5127,-0.5127,4.1025,4.6152,-1.5386,-14.8716,-1.5386,
-9.231,-5.6411,-14.8716,6.1538,1.5386,12.3076,-13.8462,-6.6665,4.1025,10.2563,8.7178,-1.0259,-12.8203,1.0259,
-7.436,-1.2822,-9.4873,9.4873,1.2822,20.7695,-13.5898,-2.8203,-1.2822,9.4873,14.6152,13.9741,-9.4873,1.2822,
-8.2053,-4.6155,-9.7434,6.6667,-2.5642,20.5129,-10.7693,2.5642,-4.6155,6.1541,15.3845,18.9744,-7.1794,3.0769,
-14.1025,-19.231,-11.5386,10,0.25635,6.9229,-7.436,-1.2822,-0.25635,5.8975,9.4873,5.8975,-5.3848,2.8203,
-13.5898,-26.4102,-13.5898,15.6411,-6.4102,-1.7949,-6.4102,-1.7949,3.3335,12.0513,11.5386,3.3335,1.7949,3.8462,
-14.6152,-25.8975,-17.6924,10,-21.4102,-0.25635,-11.0259,-5.3848,1.2822,10,16.6665,1.7949,2.8203,0.25635,
-15.6409,-19.7434,-15.6409,13.5896,-14.1023,8.4617,-5.3845,-0.76929,6.4104,8.4617,23.3333,-2.3079,3.8464,0.76929,
-21.0259,-30.2563,-18.4614,10.769,-4.1025,0,-6.6665,0,3.5898,4.6152,16.9229,-3.5898,3.5898,0.51269,
-23.0771,-38.4617,-16.9233,11.2817,-15.8975,-5.6411,-12.8208,-4.1025,4.6152,6.1538,17.4355,4.1025,7.1792,4.6152,
-29.4873,-41.7949,-16.1538,11.0259,-23.3335,-0.76904,-15.1279,-7.436,7.9487,11.0259,17.1797,0.76904,4.3589,2.3076,
-27.9487,-40.2563,-15.6411,13.0771,-14.6152,2.8203,-8.9741,-1.2822,7.436,17.6924,19.231,-2.3076,3.3335,1.2822,
-21.5386,-41.0256,-18.9741,11.2822,-13.8462,3.5898,-8.2051,-1.5386,3.0771,16.4102,18.4614,-5.6411,2.5645,1.5386,
-19.4871,-40.5127,-12.8206,7.1794,-21.0256,7.1794,-10.2561,-5.1282,5.6414,14.3591,17.949,-2.5642,3.0769,2.5642,
-23.0769,-35.8972,-4.6155,8.718,-23.5896,3.5896,-12.3079,-2.0515,4.6155,14.3591,18.9744,4.6155,2.0515,-2.0515,
-19.4873,-29.231,-4.1025,7.6924,-16.4102,4.1025,-6.1538,1.5386,-1.5386,12.3076,16.4102,5.1284,1.5386,-5.1284,
-18.9741,-29.231,-3.0771,4.6152,-16.9229,11.2822,-1.5386,-0.5127,-3.5898,9.231,14.8716,1.0259,3.5898,0.5127,
-28.718,-36.4099,-5.6409,8.718,-25.1282,11.282,-7.6921,-3.0769,-1.0256,7.1794,14.8718,1.0256,3.0769,4.1028,
-31.7947,-42.5642,-13.3333,9.7434,-26.6667,6.6667,-13.8459,-5.6409,2.0515,2.5642,14.3591,-2.0515,3.5896,3.5896,
-23.8462,-34.1025,-14.6157,10,-27.436,7.9487,-10.5132,-3.8462,1.7949,2.3076,16.6665,-1.7949,3.333,2.3076,
-24.8721,-31.0259,-10,11.5386,-28.4614,9.4873,-7.9487,-0.25635,0.25635,7.9487,18.2051,1.2822,4.3589,-0.76953,
-28.7178,-36.9231,-9.2305,14.3589,-13.4614,11.2822,-9.7437,0.5127,4.6157,9.231,20,-0.5127,9.7437,-0.5127,
-22.3079,-33.0769,-15.1282,15.1282,-5.3845,15.6409,-2.8206,-2.3079,5.3845,10.5129,21.7947,-5.8972,13.0769,2.3079,
-21.2822,-30,-13.5898,8.9741,-19.231,15.1279,1.2822,-3.3335,3.3335,14.1025,22.3076,-4.8721,12.564,-1.2822,
-26.4104,-32.5642,-12.5642,6.9231,-23.8464,15.6409,-11.0256,0.25659,1.282,12.5642,15.1282,-0.25659,8.9744,-2.8206,
-27.6924,-32.8203,-18.9741,9.231,-12.3076,21.0259,-16.9229,-2.0513,-2.564,9.7437,15.3848,6.6665,11.2822,2.0513,
-27.436,-32.0513,-17.1797,6.9229,-10.5127,24.8716,-4.3589,-0.76904,-2.8208,11.0254,25.3848,8.9741,17.1792,0.76904,
-29.7437,-36.4102,-14.3589,1.0254,-17.9487,25.1279,-0.5127,0.5127,-3.5898,10.2563,21.5386,0.5127,12.8203,-6.1538,
-25.3848,-31.5386,-10,2.8208,-18.2051,30,-3.8462,-0.25635,0.25635,11.0259,15.1284,-4.8716,12.0513,2.3076,
-22.5642,-24.1028,-4.1028,11.7947,-21.0256,29.2307,-2.5642,-1.0256,1.0256,6.6667,13.8459,-10.7693,15.3845,4.6155,
-23.8464,-26.4104,-2.8206,12.5642,-17.1794,25.8972,5.3845,1.7947,-1.7947,1.7947,17.6921,-17.1794,16.1536,-6.9231,
-31.0259,-34.1025,-7.436,0.76904,-18.2051,22.3076,4.3589,-0.76904,0.76904,1.7949,21.7949,-22.8203,9.4873,-13.5898,
-29.4871,-28.9744,-8.4617,6.9231,-17.6921,24.8718,-0.76929,0.76929,8.9744,5.8972,27.4358,-14.6155,12.5642,-2.8206,
-28.9744,-23.3333,-4.8718,8.4617,-13.0769,26.4104,1.282,-1.282,3.8459,3.3333,22.3079,-7.4358,13.5896,-2.8206,
-28.2048,-21.5383,5.6414,4.1028,-8.2048,31.282,14.8718,-3.0769,-3.5896,3.0769,15.8977,-11.282,7.1794,-7.1794,
-29.4875,-24.8718,9.4871,2.8206,-10.5129,35.1282,12.051,0.76929,-7.4358,-0.76929,11.0256,-18.2053,0.76929,-6.9231,
-31.5386,-28.9746,11.5386,3.8462,-11.0259,34.6152,8.4614,1.2822,-5.3848,-1.2822,11.0254,-9.4873,7.436,-5.3848,
-31.5383,-28.4617,8.4617,5.3845,-14.1028,32.0515,13.5896,-2.8206,-4.8718,2.8206,11.5383,-3.3333,10.5129,-9.4871,
-35.3848,-26.1538,3.5898,0.51269,-29.1028,28.7183,10.7695,-0.5127,-8.7178,2.564,5.6411,-10.2563,4.1025,-11.2817,
-38.4614,-26.1538,9.7437,-0.5127,-30.769,31.2822,9.231,1.0259,-7.6924,0.5127,6.1538,-6.1538,7.1797,-4.6152,
-38.9744,-27.6921,6.6667,5.6409,-17.9485,34.3591,11.7947,0.51294,-2.051,-0.51294,11.7947,-2.051,13.8459,-2.051,
-38.718,-28.9744,-3.8459,2.8206,-18.718,33.5896,12.5642,2.3079,-1.282,1.282,14.1023,-7.4358,13.5896,-4.8718,
-37.6924,-30,-1.2822,1.2822,-22.3076,33.5898,12.0513,4.3589,-2.8203,6.9229,15.1284,-1.7949,8.9741,-5.8975,
-41.7949,-34.6152,-0.25635,-0.25635,-25.3843,29.4873,6.9233,1.7949,-4.3589,1.2822,10,0.25635,0.25635,-8.4614,
-35.1284,-24.8721,-0.76904,2.8203,-24.8721,33.0767,11.5386,7.9487,0.76904,-0.76904,12.0513,-1.7949,1.7949,-3.8462,
-34.1025,-17.1797,-0.25635,3.8462,-23.3335,34.1025,14.1025,7.9487,0.25635,-0.25635,11.5386,-1.2822,1.2822,-3.8462,
-38.718,-28.9744,3.8459,1.282,-29.4875,24.8718,14.615,0.76929,-0.76929,-1.282,12.5637,3.8459,-2.3079,-3.8464,
-41.5386,-38.9741,1.5386,1.5386,-44.4875,17.9487,14.3589,2.0513,-1.5386,-2.0513,9.231,2.0513,-4.1025,-3.0767,
-36.9229,-31.2822,-5.1284,4.6152,-34.3589,26.1538,16.4102,9.7437,0.5127,-0.5127,3.5898,-5.6411,-7.6924,1.5386,
-25.8972,-25.3845,-2.3079,10.0002,-19.3589,29.4871,23.8464,12.0515,4.3591,-3.3333,2.8206,-13.0769,-15.6409,2.3079,
-28.4614,-32.564,0.76953,7.9487,-4.3589,14.4871,28.4619,6.9233,0.25635,-11.0254,3.8462,-15.1279,-21.2817,-8.4614,
-33.8459,-33.3333,-0.51294,3.5901,1.0256,9.7439,34.8718,5.1282,0.51294,-9.2307,8.2053,-5.1282,-15.3845,-7.6921,
-28.4614,-25.3848,-5.8975,5.3848,14.6152,21.2822,30,5.3848,-0.25635,-8.9746,6.9229,-3.8462,-13.0771,0.25635,
-21.5386,-23.5898,-4.1025,4.1025,20,21.0259,23.5898,5.1284,-2.564,-7.6924,9.231,-14.3589,-15.8975,2.564,
-23.3335,-27.436,2.8203,0.25635,17.1792,10.5127,26.9229,6.4102,-0.25635,-2.8208,14.6152,-20.2563,-14.6157,-4.3594,
-25.1284,-25.1284,-0.5127,1.0254,23.0767,10.2563,25.1279,3.5898,0.5127,-3.5898,14.8716,-16.9233,-14.3589,-11.2822,
-22.3076,-22.3076,-0.25635,2.8203,24.8716,20.2563,19.7437,0.25635,3.8462,-1.2822,18.2051,-11.0259,-13.5898,-5.3848,
-24.8721,-24.8721,-0.25635,1.2822,13.0767,20.2563,14.6152,0.25635,1.2822,-5.3848,17.1792,-14.6152,-16.6665,-2.3076,
-21.0254,-19.4868,0,2.5645,10.2563,17.9487,16.4102,3.5898,0,-6.1538,15.8975,-12.3076,-16.4102,-1.0254,
-22.0513,-24.1025,0,0.51318,11.2822,13.8462,15.8975,0,2.5645,-4.6152,16.4102,-7.1792,-15.3843,-6.1538,
-25.6409,-28.7175,1.0256,7.6926,15.8977,11.7952,18.9744,-1.0256,6.1541,-3.5896,19.4875,-6.6663,-13.3333,-5.1282,
-25.8975,-25.8975,0.25635,11.0254,15.6411,13.5898,17.6924,-1.2822,5.8975,-5.3848,19.7437,-13.0771,-12.0513,-0.25635,
-26.4102,-24.3589,0.25635,8.4614,12.0513,18.2051,7.436,-0.25635,3.8462,-7.436,18.7178,-19.231,-11.0254,-0.76904,
-25.8972,-26.4104,0.76929,6.4104,14.1028,22.8206,5.3845,3.3333,-0.76929,-7.4358,16.1541,-11.5383,-13.0769,-2.3079,
-24.1028,-26.1541,0.51294,5.1282,11.7947,21.0256,11.7947,0.51294,-0.51294,-5.6414,11.7947,-7.1794,-15.3845,-4.6155,
-19.4871,-21.5383,4.6155,9.7439,13.3337,16.4104,13.3337,-1.0256,1.0256,-2.051,10.7693,-19.9998,-8.7175,-6.1536,
-19.2307,-21.282,5.3845,12.0515,19.2307,12.5642,10.0002,3.3333,-3.3333,-6.9231,10.0002,-31.0256,-4.8718,-3.8459,
-21.282,-23.3333,2.3079,11.5383,12.5642,11.5383,10.0002,4.8718,-2.3079,-12.051,6.9231,-26.4104,-8.9744,-2.3079,
-25.6411,-23.0771,0,8.7178,1.0254,6.1538,5.6411,0,1.5381,-8.7183,4.1025,-25.6411,-13.3335,-8.2051,
-22.5642,-18.9744,6.6667,3.5896,6.1541,3.0769,2.5642,-0.51294,0.51294,-5.6409,2.5642,-30.2566,-12.8206,-4.1028,
-18.7178,-14.6152,4.8721,4.3589,8.9746,2.8208,1.2822,0.25635,-3.3335,-12.564,-0.25635,-27.9487,-15.1279,1.7949,
-18.9746,-11.2822,-1.5386,8.2051,4.6152,0.5127,2.564,3.5898,0.5127,-12.3076,2.564,-18.4614,-9.7437,-0.5127,
-17.9487,-12.3076,0.5127,5.6411,6.6665,-2.0513,4.6152,5.1284,2.0513,-0.5127,4.6152,-13.3335,-9.231,-2.0513,
-18.718,-13.0769,2.8206,5.3845,5.3845,-0.25659,0.76929,0.76929,-1.282,0.25659,4.3591,-16.1541,-15.1282,-2.8206,
-17.6924,-8.9741,-0.25635,11.0259,1.2822,-1.2822,1.2822,2.3076,4.3589,0.25635,11.5386,-15.6411,-6.9229,-0.25635,
-19.2305,-8.9741,-7.9487,10,-0.25635,-7.9487,1.2822,4.8721,2.8208,0.76953,11.0259,-17.1792,-5.8975,0.25635,
-18.4614,-10.769,-3.0767,10.2563,2.5645,-5.6411,2.0513,5.1284,0,0,4.6157,-17.4355,-11.2817,0,
-17.436,-11.2822,1.0254,10.769,5.6406,-6.667,4.1025,3.5894,0,-4.103,1.0254,-18.4619,-8.7183,0,
-17.1797,-8.4614,-6.9233,8.9741,8.4614,-14.1025,3.8462,5.3848,0.25635,-1.2822,3.8462,-20.769,0.25635,-0.25635,
-20.2563,-12.564,-9.4873,5.8975,-0.25635,-15.6411,3.8462,6.9233,1.7949,3.3335,5.8975,-21.2822,0.25635,-1.2822,
-15.1282,-13.0769,1.282,12.0515,-3.3333,-16.1541,4.8718,7.949,4.3591,0.76929,6.9231,-18.718,-4.8718,-0.76929,
-13.0771,-16.667,3.333,10,0.25635,-24.3589,-0.25635,2.8203,1.7949,-4.3589,3.8462,-23.8462,-10,0.76904,
-12.564,-14.6152,0.76953,10.5132,0.25635,-19.2305,-2.3076,7.436,5.8975,-0.25635,8.4619,-24.3589,-3.8462,3.8462,
-7.6924,-4.6152,-3.5898,20.5127,-8.2051,-6.6665,0,16.9233,5.6411,2.564,14.3589,-16.4102,0,1.5386,
-7.1794,-2.5642,-2.5642,22.0515,-19.9998,-11.7947,2.5642,20.0002,5.1282,1.5383,15.8977,-7.1794,-1.5383,6.6667,
-16.9231,-12.8206,0.51294,17.9485,-31.2822,-26.7947,0.51294,16.9231,5.6409,-0.51294,12.3074,-5.6409,-1.5383,16.4104,
-21.2822,-18.2051,-1.2822,14.6152,-38.2051,-37.1794,-1.7949,11.0259,1.2822,1.2822,8.9741,-10,3.8462,13.0771,
-11.5386,-8.9746,0.25635,16.1538,-37.6924,-33.5898,-0.25635,12.564,-0.76953,4.3589,12.0513,-13.0771,12.0513,8.4614,
-12.0513,-1.7949,-3.3335,21.7949,-37.1797,-33.5898,0.25635,17.1792,-0.25635,4.3589,12.564,-7.9487,8.9741,13.5898,
-18.9744,-5.1282,-3.5896,21.5383,-43.0769,-38.4617,-0.51294,15.8972,0.51294,4.1023,6.6667,-6.1541,0.51294,14.8718,
-19.4873,-13.8462,0,20.5127,-53.8464,-44.6155,-8.2056,11.2817,0,4.6152,2.0513,-15.8975,0.5127,8.7178,
-20.7695,-14.6157,-2.3076,24.3589,-54.6155,-45.3848,-9.4873,13.0767,2.3076,5.3843,2.8203,-12.0513,3.333,10,
-21.0259,-14.8721,-2.0513,22.564,-45.6411,-44.6155,-1.5386,12.8203,3.0767,6.1538,2.564,-5.6411,1.5386,10.769,
-15.385,-15.8977,3.0769,23.0769,-44.6155,-43.5898,-3.5901,11.282,2.5637,6.1536,1.0256,-12.8206,-1.0256,6.1536,
-15.6411,-16.1538,0.25635,20.2563,-48.9744,-47.4358,-12.564,10.5127,0.76904,0.25635,0.25635,-15.1284,-0.25635,4.3589,
-14.3589,-11.7949,4.6152,18.9741,-43.5898,-49.7437,-5.1284,8.7178,0,0,2.564,-5.1284,3.0767,13.3335,
-13.5898,-10.5127,8.9741,15.1284,-41.7949,-52.0513,-0.76904,5.3848,-2.3076,3.3335,0.76904,-10,0.76904,16.6665,
-14.1028,-8.9744,3.8459,14.1028,-47.9487,-52.0513,-7.4358,6.9231,0.25659,6.9231,4.8718,-17.6921,-0.25659,8.4617,
-9.9998,-3.8459,-2.8206,22.3079,-50,-52.564,-8.4617,9.4871,3.3333,6.9231,6.9231,-8.9744,2.8206,4.3591,
-7.949,-8.4617,-1.282,22.3074,-51.0259,-60.2566,-7.949,6.9231,1.282,1.7947,1.282,-2.3079,3.8459,6.9231,
-11.2817,-14.3589,4.1025,20.5132,-53.8459,-61.5383,-11.2817,5.6411,0,0,1.0259,-11.2817,3.0771,4.1025,
-13.5898,-12.564,4.3589,25.3848,-53.5896,-57.1794,-11.5386,9.4873,2.3076,-2.3076,5.3848,-21.2817,2.3076,2.8208,
-8.2053,-8.718,5.6409,29.7434,-48.718,-55.8975,-6.6667,14.3591,8.2053,-3.5896,3.5896,-19.4873,6.1541,13.3333,
-0.25659,0.25659,11.5383,33.0769,-37.6924,-48.9744,-3.8459,18.718,3.8464,-2.8206,-4.8718,-16.1536,6.4104,20.2566,
0.25635,6.4102,12.0513,29.4873,-28.9744,-42.3079,-0.25635,17.6924,-9.4873,-9.4873,-12.0513,-24.8718,2.3076,16.6665,
-1.0256,8.718,7.6921,28.2053,-25.6411,-42.0513,6.1541,16.4104,-7.1794,-12.3079,-10.2566,-26.1538,1.0256,14.3591,
-1.7949,8.4614,2.8208,27.436,-27.4358,-42.3076,3.3335,14.6152,-6.4102,-10.5127,-10,-22.8206,1.7949,12.564,
-1.0256,6.1541,4.1028,20.5129,-27.6924,-38.9744,1.0256,10.2566,-13.3333,-11.282,-14.3591,-26.6667,2.5642,8.718,
1.282,7.4358,9.4871,22.3074,-24.3591,-36.6667,1.7947,10.5125,-12.0515,-13.5901,-15.6414,-31.0259,-1.282,7.9485,
4.6152,14.8716,13.333,28.7178,-17.949,-30.7693,2.0513,17.9487,-3.0771,-8.2051,-9.7437,-25.1284,-2.0513,8.7178,
4.3591,13.5896,10.5129,25.3845,-20.2563,-30,-0.25659,17.6921,-8.4617,-8.4617,-11.5383,-20.2563,0.25659,5.3845,
1.5383,10.7693,4.6155,27.1794,-23.5898,-35.3845,-0.51294,13.8459,-15.3845,-12.8206,-16.4104,-23.5898,0.51294,1.5383,
1.5386,11.2822,3.5898,28.7178,-18.4614,-37.4358,2.564,13.3335,-10.2563,-10.769,-12.8203,-30.2563,-0.5127,0.5127,
1.0254,7.6924,2.0513,22.564,-16.4102,-41.5386,1.5386,9.7437,-11.7949,-14.3589,-11.2822,-34.8718,0,0,
1.282,3.8464,-1.282,23.8464,-18.718,-45.8975,1.7952,6.4104,-13.0769,-18.718,-11.5383,-32.0513,4.3591,3.3333,
1.5386,7.1797,-1.5386,28.2051,-18.4614,-43.0769,4.6152,5.6411,-9.231,-16.4102,-10.769,-32.8206,3.5898,5.6411,
4.1023,14.8718,-1.5383,31.282,-5.1282,-37.436,5.1282,8.2048,-12.3079,-11.282,-10.7693,-35.8975,2.051,1.5383,
4.6152,11.2817,-4.6152,26.6665,5.1279,-37.436,2.0513,9.2305,-18.4614,-15.8975,-15.3848,-38.9744,2.0513,-2.0513,
5.8972,9.4871,-5.8977,23.8459,6.4099,-33.0771,2.3074,9.9998,-18.2053,-25.3848,-22.8206,-39.7437,-0.76929,0.76929,
11.7949,17.436,-3.0771,26.1538,9.7437,-26.1541,7.1792,11.2817,-16.9233,-22.0513,-27.1797,-34.8718,-2.0513,2.0513,
14.3591,20.0002,-0.51294,28.2053,14.3591,-27.6924,8.2053,13.3333,-15.8972,-16.4104,-26.6667,-34.3589,-2.051,0.51294,
15.3843,22.0513,0,31.2817,18.4614,-23.0771,8.2051,16.9229,-13.8462,-16.9233,-23.5898,-34.3591,-0.5127,0,
11.2817,22.0513,1.5386,22.564,12.8203,-21.0259,4.1025,11.7949,-16.9233,-19.4873,-28.2053,-36.9231,-1.5386,-4.6152,
7.4358,21.282,2.8206,18.2053,6.9231,-25.8972,3.8459,8.4617,-18.2053,-17.6921,-30,-42.3076,-2.8206,-4.8718,
9.231,23.0771,0,22.564,9.231,-23.0767,4.6152,11.2822,-16.9229,-18.9741,-26.6667,-45.1282,-4.1025,0,
14.1023,23.8459,2.3079,23.3333,13.5896,-22.3079,4.8718,11.5383,-18.718,-22.8206,-28.4617,-41.7949,-3.8464,-2.3079,
13.3333,16.9231,5.1282,23.5896,11.7947,-32.8206,5.1282,7.1794,-22.0515,-25.6411,-33.3335,-45.1284,-5.1282,-7.1794,
8.9744,8.4617,1.282,20.7693,6.4104,-36.6665,5.3845,6.4104,-21.7947,-30.5127,-31.5383,-52.0513,-8.9744,-1.282,
10.5129,8.9744,0.25659,20.7693,3.8459,-32.5642,3.3333,7.4358,-22.3079,-33.0769,-31.5386,-47.9487,-14.1028,-0.25659,
14.3591,16.9231,2.5642,28.2053,11.282,-30.769,5.6414,6.1541,-18.9744,-29.2307,-31.282,-38.4614,-4.1023,-2.5642,
6.9233,11.5386,-7.436,25.3848,13.0771,-37.6921,4.8721,1.2822,-23.8462,-33.0769,-37.1794,-46.4102,1.2822,-1.2822,
5.3843,10,-12.5645,26.9229,11.0254,-35.1284,3.8462,6.4102,-30.0002,-34.1028,-38.718,-54.6155,-3.8462,5.3843,
9.231,14.8716,-4.1025,28.2051,14.3589,-31.282,7.6924,12.3076,-25.6411,-29.2307,-30.7693,-48.718,-4.6152,4.1025,
7.6924,14.3589,1.5386,25.6411,16.4102,-34.8718,6.6665,10.2563,-23.5898,-28.718,-31.2822,-41.0259,-1.5386,-2.0513,
5.8972,18.2048,-3.8464,28.4617,17.1794,-34.6155,7.9485,10.5129,-26.4104,-29.4873,-36.1538,-42.3079,-1.282,1.282,
9.7434,24.1023,-6.1541,31.282,19.9998,-29.7437,18.4612,15.3845,-23.5898,-30.2566,-31.2822,-45.1284,-1.0256,1.0256,
12.8208,27.6924,-2.564,30.7695,20,-24.6152,22.0513,19.4873,-16.9229,-30.2561,-28.2048,-39.9998,0,0,
12.051,28.9744,-2.8206,26.4099,12.051,-23.3335,15.6409,20.2561,-15.1284,-24.8718,-31.0259,-37.6924,-3.8464,2.8206,
15.1282,30.0002,-2.8206,30.0002,2.8206,-24.3589,15.6414,19.2307,-16.1538,-17.1794,-28.4614,-39.7434,-3.8459,2.8206,
11.282,26.1541,-6.6667,31.282,4.1028,-24.6155,12.8206,16.4104,-18.4617,-18.4617,-27.1794,-33.3333,-3.0769,3.0769,
4.8718,18.7175,-5.8977,23.3333,9.4871,-28.4617,9.9998,11.5383,-14.1028,-16.667,-25.3848,-23.8464,-4.8718,8.4612,
4.8718,14.1023,-3.3333,25.3845,3.3333,-38.2053,12.051,7.4358,-12.5642,-15.6411,-20.7693,-25.8975,-7.4358,3.3333,
13.5896,26.9231,-3.8459,37.6921,3.3333,-24.3589,19.2307,18.2053,-7.9485,-10.5129,-9.9998,-17.1794,-3.3333,5.3845,
9.231,32.3076,-11.7949,35.3848,-3.0771,-9.3589,15.3848,24.6152,-1.5386,-3.0771,-4.6152,-2.1794,0.5127,17.9487,
0.51269,18.4614,-16.4102,31.2822,-18.0771,-10.769,6.1538,19.4873,-1.5386,-0.5127,-5.6411,3.0771,-1.5386,17.9487,
1.7952,12.5642,-13.5896,34.1028,-33.0771,-14.6152,2.8206,18.718,-1.282,-0.76929,-2.8206,0.76929,-1.282,13.0769,
1.5383,22.0515,-15.3845,35.3845,-33.8462,-2.051,-1.0256,21.5383,-1.0256,-1.0256,-3.0769,2.5642,1.0256,12.3079,
-3.3335,20.7695,-21.282,28.9746,-25.8975,1.2822,-5.8975,17.6924,-0.25635,0.25635,-10.5127,4.3589,-2.8203,6.9233,
-7.1797,10.2563,-18.4614,23.5898,-30.7693,-3.0771,-7.1797,13.8462,4.1025,3.0771,-10.769,3.0771,-8.7178,9.7437,
-5.8975,12.0513,-14.1025,29.4873,-28.4617,-1.7949,-6.9233,14.6152,7.436,4.3589,-3.8462,1.7949,-3.3335,13.5898,
-2.8203,19.231,-12.0513,28.9746,-19.2305,-5.3843,-2.3076,14.1025,4.8721,1.7949,-6.4102,-1.7949,2.3081,4.8721,
-0.25635,19.7437,-4.3589,22.8208,-22.3076,-9.4873,0.25635,13.5898,1.2822,1.2822,-11.0254,-8.4614,-3.8462,0.25635,
-1.0256,19.9998,10.6411,21.0256,-35.8977,-6.6667,-3.0769,14.3586,1.0256,2.051,-10.7693,-11.7952,-7.1799,3.0769,
-0.5127,22.0513,23.0771,20,-36.4102,-5.1284,-4.1025,12.8203,1.5386,0.5127,-12.3076,-8.7178,-2.0513,1.5386,
5.6411,23.5898,21.0259,22.564,-26.1538,-4.1025,1.5386,10.769,-1.5386,0,-15.3848,-3.5898,0,-0.5127,
5.8972,17.6921,11.0256,21.7947,-26.4104,-3.3333,2.8206,9.4871,-1.282,-0.76929,-16.6667,-3.3333,-0.76929,0.76929,
-3.3333,15.6409,6.4104,19.7434,-31.5386,-5.8972,-4.8718,6.9231,0.76929,-0.25659,-14.6155,0.25659,0.25659,-2.3079,
-10.5127,17.6924,4.3589,20.769,-32.5642,-8.9746,-8.4614,2.8203,-0.76904,0.25635,-11.5386,4.3589,-0.25635,0.76904,
-5.3845,14.6155,1.7952,22.8206,-34.1025,-8.4617,-2.3074,4.3591,-1.282,0.76929,-12.051,2.3079,-0.76929,10.0002,
-1.0256,14.8718,-2.0515,27.1794,-31.7949,-5.6414,3.0769,5.6409,-0.51294,3.0769,-15.3845,-2.0515,0.51294,7.6921,
-3.8464,13.5896,-6.4104,23.8459,-25.8977,-4.3591,2.3074,1.282,-0.76929,0.76929,-13.5901,-2.3079,2.3074,0.76929,
1.0254,13.8462,-5.1284,24.6152,-23.0771,0,0,3.0767,0,-8.2051,-12.3076,-2.5645,4.6152,3.0767,
1.7952,12.5642,-5.8972,27.4358,-23.3333,1.282,-3.3333,7.4358,-0.76929,-12.5642,-17.6921,-5.3845,1.7952,0.76929,
0,8.2051,-6.667,23.5898,-24.6155,0.5127,0,7.1792,0.5127,-7.1797,-17.9487,-6.667,0.5127,-2.0513,
3.5896,13.3333,-9.7439,19.9998,-30.7693,0.51294,2.5642,3.0769,-0.51294,-9.7439,-18.9744,-9.2307,-2.5642,1.0256,
4.8716,18.2051,-3.8462,16.6665,-32.0513,0.25635,0.76904,1.2822,-0.25635,-13.0771,-17.1797,-7.436,-0.25635,4.3589,
0.5127,12.8203,4.1025,17.9487,-29.7437,1.0259,-0.5127,1.0259,-0.5127,-11.2822,-14.3589,-5.6411,-1.0254,0.5127,
9.9998,18.2053,-1.282,25.3845,-16.6667,11.5383,4.3591,7.4358,0.25659,-3.3333,-13.0769,-0.76929,-4.8718,-0.25659,
12.564,25.3848,-10.5127,21.7949,-12.0513,13.0771,3.3335,10,-0.25635,0.25635,-15.6411,-2.3076,-3.333,-1.2817,
3.5901,23.5901,-9.7434,18.9744,-11.7947,6.6667,1.5388,7.6926,-3.5896,-1.0256,-15.3845,-8.2048,1.0256,-3.0769,
6.9229,21.2822,-10.5127,19.231,1.2822,11.0259,6.9229,4.8716,-5.3848,-1.7949,-15.1284,-6.9229,-1.2822,-2.8203,
12.8206,19.4871,-10.7693,16.4104,8.718,15.3845,6.6667,1.5383,-1.5383,-4.6155,-14.3591,-4.6155,-2.5642,-3.0769,
4.1028,15.3845,-9.2307,15.3845,0.51294,9.2307,0.51294,3.0769,-2.051,-7.6921,-15.3845,-10.2566,-0.51294,-3.5896,
0,15.3843,-9.231,17.4355,-1.0259,6.6665,4.6152,6.1538,-5.6411,-6.1543,-15.3848,-11.2822,0,0,
3.5896,12.3079,-12.3079,20.0002,2.5642,7.6921,5.1282,1.0256,-6.6667,-10.7693,-17.9485,-10.2566,-1.0256,-3.5896,
3.333,8.4614,-7.436,20.2563,-0.25635,8.4614,2.3076,-1.7949,0.25635,-11.0259,-17.1797,-13.5898,3.333,-0.25635,
-1.0256,4.1028,-6.6667,21.0256,-4.1028,6.1541,4.6155,-3.5896,4.1028,-8.718,-14.8718,-14.3591,5.1282,1.0256,
0.76929,4.3591,-13.5896,27.4358,-0.76929,9.9998,5.3845,-3.3333,3.3333,-4.3591,-9.4871,-10.0002,4.8718,-4.3591,
-0.25635,6.4102,-14.1025,25.8975,0.25635,12.564,2.3076,-2.3081,2.8203,-0.25635,-12.5645,-12.0513,5.8975,-3.3335,
-2.3079,5.3845,-12.0515,21.7947,-1.282,7.9485,4.8718,-2.8206,1.282,-5.8977,-21.282,-17.6921,3.3333,2.3079,
0.76904,2.8203,-13.0771,19.231,-5.8975,6.4102,7.436,-4.8721,-0.76904,-9.4873,-18.7178,-12.564,5.8975,1.7949,
7.1794,8.2053,-5.6409,21.0256,1.5383,13.3333,9.2307,-1.5383,-2.5642,-3.0769,-8.718,-2.5642,10.7693,-2.5642,
7.6921,13.3333,-4.1028,22.5637,9.2307,12.8201,5.1282,-3.0769,-8.2053,-6.6667,-14.3591,-5.6414,3.0769,-8.718,
8.4614,14.1025,0.25635,23.333,-0.25635,13.0767,5.3843,-0.76953,-0.76953,-3.8462,-15.1284,-2.3076,6.9229,-2.8208,
0,5.6406,0,18.4614,-15.2563,9.7432,-1.5386,-1.5386,-4.1025,0.5127,-14.8721,1.0254,6.1538,-0.51318,
-1.0256,5.1282,-4.1028,20.5125,-16.9231,10.7688,1.0256,1.0256,-14.3591,-2.5642,-16.4104,1.5383,4.615,-1.0256,
1.5383,4.6155,-11.7947,20.5129,-4.1023,11.282,6.6667,1.0256,-11.7947,-8.2053,-18.4617,-1.0256,7.1794,-2.051,
-1.5388,3.5896,-13.8464,24.615,-19.1023,12.3074,-1.0256,1.0256,-1.0256,-3.0769,-13.8464,2.051,8.2048,2.051,
-1.5386,3.5898,-9.7437,26.1538,-21.0259,14.8716,-7.1797,0.5127,0.5127,-0.5127,-10.7695,-2.0513,4.6152,3.0767,
7.6924,6.6665,-6.6665,24.6152,-6.0259,12.3076,-0.5127,-2.0513,-6.6665,-2.564,-17.9487,-10.769,3.5898,0.5127,
9.4873,6.4102,-11.0259,21.2822,8.9741,6.4102,2.8203,-7.436,-11.0259,-2.8203,-22.3076,-9.4873,4.3589,-4.3589,
9.2305,4.1025,-9.7437,23.0767,23.9741,7.1792,2.0513,-6.1543,-7.1797,-2.0513,-18.4619,-7.6924,4.6152,-3.5898,
15.8975,9.231,-7.6924,22.564,32.3076,9.231,2.0513,-2.0513,-11.2822,-5.1284,-22.564,-12.8203,2.564,-3.0767,
18.9746,11.7949,-6.1538,12.3076,21.0259,5.6411,2.564,-5.6411,-14.3589,-7.1792,-27.1792,-11.2822,2.0513,-2.0513,
11.5386,6.9229,-0.76953,14.1025,18.2051,3.333,0.25635,-10,-6.4102,-4.3589,-18.2051,-9.4873,4.8716,-0.25635,
6.6665,-0.5127,0.5127,21.5386,22.564,-1.5386,1.0254,-10.7695,1.5386,-3.0771,-6.667,-13.3335,9.7437,-4.1025,
8.2051,-6.6665,-5.6411,20,9.231,-7.6924,3.0771,-10.2563,4.6157,0,0,-7.6924,11.7949,-4.1025,
2.0513,-8.2051,-14.3589,21.5386,1.0259,-9.7437,-2.564,-10.769,2.564,2.0513,-1.0254,0,8.2051,0,
-2.3076,-5.8975,-7.436,26.9229,7.9487,-5.3848,-3.8462,-4.3594,2.3076,9.4868,-3.8462,5.3843,4.8716,2.3076,
0.25659,-7.949,5.3845,24.3591,3.3333,-2.8206,-2.3079,-2.8206,-0.76929,12.5642,-9.4871,7.4358,1.282,-0.25659,
-0.25635,-8.9741,6.9233,21.7949,-0.25635,-1.7949,1.7949,-10,-2.8203,5.3848,-14.1025,3.3335,6.4102,0.25635,
-4.3594,-13.5898,4.8716,22.8203,-0.25635,-4.3594,5.8975,-12.5645,-0.25635,0.25635,-14.1025,0.25635,13.0767,3.8462,
-1.7947,-15.1282,8.9744,25.8972,-14.6155,-6.9231,-1.282,-9.4871,1.282,9.9998,-10.0002,6.9231,12.051,5.3845,
-2.3076,-13.5898,10,20.2563,-22.3076,-7.9487,-12.564,-14.6152,4.8716,18.7178,-4.8716,10.5127,11.0254,2.3076,
-1.5386,-15.3848,7.6924,17.436,-7.6924,-8.2051,-5.1284,-17.9487,7.6924,13.8462,-3.5898,7.1797,14.3589,1.5386,
-2.5642,-18.9744,2.5642,17.9485,-6.6667,-11.7952,-1.0256,-14.3591,3.0769,7.6921,-6.1541,8.718,9.7434,1.0256,
-4.6155,-10.2566,4.6155,19.4871,-14.8718,-9.2307,-7.1794,-7.1794,4.6155,13.3333,-3.0769,12.3079,9.2307,3.0769,
-3.5898,-3.5898,4.6152,26.6665,-14.8721,-7.1797,-7.1797,-6.667,7.1792,11.2817,-5.1284,8.2051,12.3076,3.5898,
-0.25635,-12.0513,0.25635,25.8975,-16.6665,-10,-0.76953,-8.9746,6.9229,3.8462,-6.4102,7.436,5.8975,0.25635,
-0.76929,-14.1028,0.76929,19.7434,-21.282,-8.9744,1.282,-5.385,13.5896,11.0256,-1.7952,13.0769,1.7947,-1.7952,
-3.8462,-11.0259,-0.25635,22.3076,-17.6924,-6.9233,-1.2822,-7.436,15.1284,18.2051,0.25635,15.1284,4.8716,4.8716,
-4.3591,-19.2307,-0.25659,22.8206,-18.2053,-13.0769,-3.3333,-15.1282,7.9485,9.9998,0.25659,9.9998,7.4358,11.0256,
-2.564,-21.0254,0.5127,18.9746,-22.5642,-16.4102,-3.5898,-16.4102,2.0513,1.5386,-0.5127,2.0513,7.6924,2.564,
0,-6.0254,3.0771,24.1025,-15.3843,-9.2305,4.1025,-11.7949,4.6157,4.6157,-3.0767,0,8.7183,-1.0254,
1.0256,-4.1028,3.5896,25.6409,-14.8718,-10.2566,5.6409,-14.8718,1.0256,0.51294,-12.3079,-2.5642,4.1023,-0.51294,
4.8721,-8.9741,3.3335,24.3589,-15.6411,-6.9229,0.25635,-12.0513,-2.8203,2.3076,-14.1025,0.25635,0.76953,-0.25635,
3.3335,-6.4102,1.7949,21.2822,-16.1538,-4.3589,0.76904,-8.9746,-0.76904,13.0767,-11.0259,2.3076,-0.76904,0.76904,
-3.0771,-6.667,-0.5127,22.564,-16.4102,-10.7695,4.1025,-14.8721,2.564,14.3589,-6.1538,1.5386,0.5127,2.0513,
-3.5901,-7.1794,0.51294,22.5642,-11.7952,-6.6667,-1.0256,-14.3591,8.718,15.8972,-0.51294,3.5896,5.1282,4.6155,
-4.1025,-7.6924,-2.564,17.436,-16.9229,0,-12.8203,-12.3076,10.7695,17.436,0,0,1.0259,3.0771,
-0.25635,-3.8462,-2.8203,25.8975,-21.282,1.2822,-6.9229,-9.4873,15.6411,17.1797,2.8203,0.25635,-1.7949,6.9233,
-2.3076,-12.0513,-2.8203,27.9487,-24.3589,-4.8716,-0.25635,-9.4873,15.6411,12.564,1.7949,4.3589,0.25635,6.9229,
-4.8716,-18.7178,-0.25635,24.3589,-25.8972,-4.8716,-6.9229,-7.4355,11.5386,12.5645,2.3076,6.4106,0.25635,3.8462,
-5.3843,-16.6665,4.8721,23.3335,-28.4614,-6.9229,-6.4102,-8.9741,11.0259,10,6.4106,0.25635,-0.25635,3.3335,
-8.7178,-18.9744,7.6924,21.5386,-32.3076,-12.8203,-0.51269,-14.3589,11.2822,4.1025,2.5645,-6.1538,3.0771,0.5127,
-2.8206,-11.0256,10.0002,27.949,-24.8716,-3.3333,-1.7947,-8.9744,10.0002,8.9744,-0.76929,1.7952,10.0002,0.76929,
-0.76929,-14.1023,5.8977,26.4104,-26.4102,-6.4104,-11.0256,-10.5129,4.8718,5.8977,-1.7947,3.3333,4.3591,0.76929,
-4.8718,-22.8206,2.3079,22.3079,-30,-17.1794,-13.5896,-16.6667,8.9744,0.76929,0.76929,1.7947,-0.76929,2.3079,
-6.6665,-16.4102,0,19.4873,-20,-8.7178,-12.8203,-18.9741,12.8208,4.1025,0,3.0771,0.51318,0.51318,
-6.9233,-11.0259,-0.76953,19.2305,-23.8464,3.8462,-11.5386,-13.0771,9.4868,10,-0.25635,3.8462,3.333,0.25635,
-13.5898,-17.1797,-7.9487,18.2051,-38.8464,1.2822,-14.6152,-12.0513,3.3335,6.9229,-0.76904,2.3076,2.3076,0.76904,
-16.9229,-17.436,-17.436,16.9233,-47.6924,1.5386,-15.3848,-16.4102,5.6411,4.1025,1.0259,0,2.0513,0,
-9.2307,-5.1282,-11.282,24.6155,-32.6924,7.1794,-10.2566,-14.3591,9.2307,7.1794,0.51294,-0.51294,5.1282,4.6155,
-2.3079,-0.25659,-2.3079,27.4358,-27.4358,7.4358,-8.4617,-6.9231,6.4104,7.949,-2.3079,0.25659,6.4104,4.8718,
-1.0256,-5.6414,-7.1794,20.5129,-39.4873,9.7434,-9.7439,-3.5901,4.1023,4.1023,-2.5642,1.0256,2.5642,2.5642,
-1.0256,-4.1028,-9.7439,26.1536,-40.0002,13.8459,-7.1794,-2.5642,5.1282,3.5896,-3.5901,6.1536,1.0256,8.2048,
-7.436,-5.3848,-8.4614,27.436,-37.1797,5.8975,-5.3848,-4.8721,6.9229,4.3589,-3.8462,8.4614,3.8462,10,
-7.6921,-13.3333,-11.7947,19.9998,-41.5386,-0.51294,-10.2566,-8.2053,7.6921,2.0515,2.0515,0.51294,6.1541,4.6155,
-2.8206,-7.9485,-12.5642,22.8206,-42.8206,7.4358,-15.6409,-2.8206,8.4617,1.282,4.8718,-1.282,6.4104,5.8977,
-7.6921,-7.1794,-7.1794,24.6155,-44.6155,7.6921,-16.4104,-2.5642,11.282,6.1541,-0.51294,0.51294,5.1282,7.6921,
-6.1536,-10.7693,-3.0769,30.2566,-41.0256,1.0256,-13.3333,-7.6921,15.8977,14.8718,1.0256,-1.0256,9.7439,7.1794,
-5.1282,-11.7947,-10.2566,29.2307,-41.0256,0.51294,-18.4617,-11.282,14.3591,15.3845,3.5896,-0.51294,11.7947,5.6409,
-16.4102,-15.8975,-18.9741,20,-47.1794,0.5127,-26.6667,-13.3335,10.2563,9.231,-0.5127,3.0771,5.6411,2.0513,
-18.4617,-16.4104,-13.3333,25.6409,-45.1282,1.5383,-21.5386,-9.7434,13.8459,9.2307,-1.5383,2.051,7.6921,6.6667,
-5.6409,-9.7437,0.51294,35.3845,-35.8975,7.6921,-12.3079,-4.6155,13.3333,7.6921,-0.51294,-4.6155,15.8972,14.8718,
0.51294,-1.5383,6.1541,37.4358,-32.8206,10.7693,-11.282,-0.51294,2.0515,-0.51294,-4.6155,-5.6409,15.3845,12.3079,
-1.282,1.282,4.3591,34.1028,-30.5127,7.949,-12.564,2.3079,-2.8206,-4.3586,-8.4612,-5.3845,12.0515,10.0002,
-1.7949,-1.7949,0.76904,30,-24.3589,6.4102,-13.5898,2.8203,1.7949,-0.76904,-8.9741,-4.3589,12.0513,15.1284,
-2.3076,-0.25635,-4.3589,29.4873,-24.3589,8.4614,-17.1794,3.8462,0.25635,0.25635,-6.9229,-1.2822,10,14.1025,
-5.1282,1.5383,-9.7434,28.2053,-26.6667,7.6921,-16.9231,2.5642,-5.6409,-1.5383,-7.1794,2.5642,10.2566,8.2053,
-4.1028,-5.6409,-9.2307,30.7693,-29.2307,5.6409,-13.3335,-0.51294,0.51294,1.5383,-4.6155,5.6409,12.3079,11.7947,
-4.1025,-14.8718,-8.2051,31.7949,-32.8206,5.1284,-15.3845,-0.5127,13.3335,3.5898,-1.5386,0.51269,11.2822,15.8975,
-3.8462,-7.436,-3.3335,32.0513,-27.4358,8.4614,-12.5642,3.3335,16.1538,0.25635,-0.25635,-4.3589,11.0259,12.0513,
-3.3335,0.25635,-3.3335,32.564,-24.3589,6.4102,-5.3848,0.25635,5.8975,-0.25635,-3.8462,-5.8975,7.436,4.8721,
0.76929,-2.3079,-5.3845,32.5642,-25.8975,4.8718,-1.7947,-0.76929,10.5129,3.8459,-3.8459,-5.3845,9.4871,7.949,
-3.5898,-6.1538,-4.1025,32.8203,-23.5898,6.1538,-8.2051,0.5127,15.3848,1.5386,-0.5127,-7.6924,14.3589,13.3335,
-9.231,-8.2053,-5.1282,33.8459,-21.0259,6.1536,-8.7183,-1.0256,6.6663,1.0256,1.5383,-4.1028,12.3074,14.3586,
-6.4104,-9.4873,-4.8718,32.0515,-21.7949,3.3333,-4.3591,-0.25659,5.8972,0.25659,0.76929,-3.3333,12.0515,13.5896,
-2.051,-9.2307,-2.5642,34.8718,-16.9231,7.6921,-11.7949,3.0769,9.7434,-1.5383,1.5383,-6.6667,18.4617,12.8206,
-6.4102,-11.5386,-2.3076,33.0771,-19.7437,6.9229,-18.718,0.25635,7.436,0.76904,-0.25635,-7.436,15.6411,11.0259,
-7.6921,-7.1794,-4.6155,33.3333,-25.1282,2.051,-9.7437,-0.51294,7.6921,4.6155,0.51294,-4.1028,14.3591,6.1536,
-6.1541,-3.5896,-5.6409,33.8459,-20.5129,1.5383,-7.1794,-1.5383,5.6409,1.5383,3.0769,-5.1282,18.9744,2.051,
-5.8975,-6.4102,3.8462,31.0259,-22.3076,5.8975,-14.6152,-0.25635,2.3076,-0.25635,0.25635,-1.7949,17.6924,10,
-6.4104,-7.9485,1.7947,28.9744,-32.564,3.3333,-18.718,-1.7947,-2.3079,2.3079,-9.4871,8.9744,7.4358,16.1541,
-4.8716,-6.9229,-2.8203,30,-25.3845,3.3335,-13.5896,-1.7949,1.7949,10.5132,-3.8462,14.1025,11.0259,16.667,
-10.2563,-16.9233,-2.5645,27.6919,-24.6155,0.5127,-15.8977,-3.0771,3.5894,8.2051,0,0,13.8462,8.2051,
-9.4873,-17.1794,1.2822,32.0513,-34.6155,-2.3076,-17.6924,-0.25635,4.3589,3.3335,0.25635,-2.8203,13.5898,8.9746,
-7.949,-15.6411,1.282,31.5383,-36.6667,-4.8718,-17.1797,-1.282,2.3074,2.8206,-1.282,5.8972,14.1023,13.5896,
-10.5129,-16.6667,0.25635,34.1025,-28.4617,-1.2822,-14.1028,-0.25635,2.8203,6.4102,-8.4617,8.4614,16.6665,7.9487,
-17.4358,-16.9229,-1.5381,35.8975,-27.6921,0,-13.3333,1.5386,2.5645,5.1284,-12.3076,0,16.9233,2.5645,
-13.0769,-14.6155,0.25635,36.1538,-30,0.25635,-12.5642,0.25635,-0.25635,3.3335,-6.9231,-0.76904,15.6411,14.1025,
-6.667,-12.8208,0,33.8462,-28.2053,0.5127,-14.8721,0.5127,-3.0771,1.0254,-8.2051,0,13.8462,20,
-7.436,-12.0515,-3.3335,32.0513,-23.3335,4.3589,-14.1028,4.3589,0.25635,2.8203,-9.4873,-0.25635,15.1279,16.1538,
-7.4355,-10.5127,-4.8716,36.1538,-21.7947,4.8721,-12.564,3.8462,-0.25635,6.4102,-9.4871,0.25635,12.5645,13.5898,
-2.564,-10.2563,-4.6152,34.8721,-21.0256,2.564,-13.8462,3.0771,-7.1792,4.1025,-13.3333,4.6152,13.8462,13.3335,
-1.5383,-14.3589,-1.5383,31.7947,-22.0513,1.5383,-17.4358,2.5642,-7.1794,2.5642,-12.8206,7.1794,14.8718,12.8206,
-2.8206,-15.1282,0.76929,38.2053,-25.8975,-0.76929,-16.1538,2.8206,-1.7947,5.8977,-6.4102,4.8718,13.5896,18.2053,
-0.76917,-14.6154,-0.76917,39.7435,-25.3846,-7.4359,-12.5641,2.308,1.2821,2.308,-2.8204,0.76917,21.2821,19.7435,
0.76917,-18.205,-4.359,38.205,-23.3334,-11.0255,-14.1024,0.76917,5.3846,-4.359,1.2821,-0.76917,27.9486,13.5897,
-4.8721,-23.3335,-8.4617,38.7178,-28.9746,-11.5386,-16.6667,0.25635,9.4868,1.2817,6.4102,-0.25635,22.3076,10,
-10,-24.3591,-10,39.7437,-35.1282,-12.5642,-18.718,0.76904,4.8716,5.3848,2.3076,-0.76904,16.6665,10.5127,
-5.3846,-16.6666,-7.9486,45.3846,-27.9486,-3.3334,-16.1537,5.3846,1.2821,1.2821,-1.2821,6.9232,23.3334,21.2821,
-4.1027,-15.3846,-7.6925,43.0768,-27.1796,2.0514,-12.8207,5.6407,4.1027,-2.0514,-2.0514,11.7946,24.1027,22.5641,
-5.3846,-16.1539,-8.9745,41.2821,-26.9232,0.76941,-11.5385,7.9486,2.3075,-0.76941,-2.8207,2.3075,17.6923,14.1024,
-0.25647,-13.5897,-4.8717,43.8463,-16.1537,5.8976,-6.4103,13.0768,0.25647,-2.3077,-1.7948,1.7948,19.7438,20.2565,
1.0258,-15.8973,-1.0258,39.4872,-21.0258,2.5643,-9.2308,5.1283,-5.641,-8.7179,-7.6923,5.641,18.9745,25.641,
1.7952,-9.4871,-1.282,43.8464,-27.4358,1.282,-15.6409,3.8464,-5.3845,-1.7949,-10.5127,5.3845,17.6921,19.7434,
-2.0513,-7.6924,-7.1794,43.0767,-30.7693,3.5896,-17.436,7.6924,-1.0256,1.0256,-9.7437,2.0513,12.3076,15.8975,
-2.0513,-14.3589,-2.564,43.0771,-34.8718,-1.0256,-11.282,9.2307,4.6155,1.0256,-9.2307,10.2563,13.8462,25.6411,
-3.5897,-24.1027,-0.51282,43.0768,-38.4615,-14.359,-13.8463,2.0511,3.0768,0.51282,-13.3334,5.641,13.8463,20.0001,
-1.0256,-21.5383,2.0513,47.1797,-31.7949,-5.6409,-13.3333,5.6411,5.1282,1.0256,-7.1794,-1.0256,14.8721,14.8721,
-0.76929,-14.6155,-0.76929,48.4617,-38.2051,4.8718,-13.0769,11.0256,6.4102,-4.8718,-6.4102,0.76929,12.5642,20.2566,
-0.51269,-13.8462,0,47.1794,-51.7949,0,-13.3333,10.7693,3.0769,-4.6152,-12.3076,0.51294,8.2051,21.5383,
0.76929,-13.0769,3.8462,51.5383,-52.0513,-0.25635,-12.0513,13.0769,-4.3589,-3.3333,-16.6667,0.25635,9.4871,19.2307,
-1.5385,-4.1027,1.5385,52.8207,-44.1027,8.7181,-13.3334,18.4613,-6.6666,-5.641,-13.3334,9.7435,17.4359,25.641,
-3.5897,-5.641,2.5641,50.7694,-43.5897,11.2821,-11.7948,18.4618,-2.5641,-5.1281,-9.2308,11.2821,17.9486,33.8461,
0.76929,-12.5642,8.4614,56.6665,-41.7949,8.4614,-6.4104,16.6665,-1.282,-3.3333,-10,-0.76929,14.1025,28.9741,
0.51282,-9.7435,11.2821,56.923,-35.8973,8.2052,-5.641,18.9742,-0.51282,-3.0768,-9.7435,-1.5385,17.4362,19.4874,
-12.0513,-17.1794,1.282,46.9231,-43.3333,2.3076,-17.1794,13.0769,0.25635,-10,-13.0769,-0.25635,12.0515,16.1541,
-9.2308,-16.4103,-2.5641,54.3593,-39.4872,6.6666,-16.4103,13.3334,7.6923,-7.1796,-4.6154,2.5641,13.3334,25.641,
-3.5897,-11.795,-2.0514,55.3844,-32.3077,8.7179,-12.8207,11.7948,7.6923,-8.7181,1.5385,-1.5385,17.4357,22.0514,
0,-7.6924,0,50.2561,-28.718,8.7178,-10.7693,12.3079,8.2051,-10.7693,-1.0256,-1.0256,14.8718,15.3845,
-4.1025,-11.7949,1.0256,38.9741,-37.436,1.5383,-15.3848,11.2822,6.1538,-9.7437,-9.7437,-1.0256,5.1282,12.3076,
-6.6667,-11.282,4.1025,38.9744,-42.0513,-1.0256,-15.8975,11.7947,3.0769,-4.1025,-10.2563,1.0256,6.6665,16.9231,
-6.4102,-11.0256,-0.25635,44.3589,-41.7949,0.25635,-16.1538,6.9233,2.3076,-0.25635,-7.9487,4.8718,4.3589,15.6411,
-6.6666,-13.8461,-0.51282,40.5128,-45.1281,0.51282,-15.8973,5.1285,10.7692,5.6412,-4.1024,7.6925,-1.5385,13.8463,
-7.1794,-8.7178,-1.5383,38.4614,-46.6665,0,-19.4871,10.2563,10.2563,4.6157,-5.1282,6.1538,0,13.3335,
-9.2307,-9.2307,-4.6155,41.5386,-45.6411,0,-18.9744,12.3076,0.5127,0,-5.6411,7.1797,4.1025,13.3335,
-10,-15.1282,1.7949,45.3848,-47.4358,-2.8206,-14.1025,11.0259,2.8206,-1.7949,-2.8206,11.5386,7.4358,15.6411,
-9.2307,-11.7949,4.1025,47.6924,-45.1282,-4.6152,-15.8975,12.3076,5.1282,-4.1025,-7.1794,10.7695,6.6667,19.4873,
-6.1537,-5.641,0.51282,47.6923,-38.4615,0.51282,-17.4359,16.4105,-0.51282,-3.0768,-13.8461,9.7435,4.1027,23.5897,
-3.8462,-3.3333,6.4102,48.9746,-41.7949,4.8718,-14.1025,17.1797,-8.4614,-3.3333,-15.6411,3.8462,3.3333,18.7178,
1.282,-1.282,17.6924,53.5898,-39.2307,10.5127,-8.4617,19.231,-7.9487,-4.3589,-11.5386,-1.7949,8.4614,17.1797,
1.5385,-5.1283,14.359,51.2819,-31.795,9.2306,-11.795,17.9489,-7.1796,-4.6154,-13.8463,-1.5385,6.1537,16.4103,
-3.077,-4.1027,5.1283,45.641,-31.2821,4.1024,-17.9489,12.8202,-9.7438,-3.077,-16.9232,4.1024,3.077,14.8715,
-6.923,-0.76917,3.3336,38.7179,-31.5385,0.76917,-18.7179,11.0255,-5.8973,-4.359,-16.1537,8.9742,8.9742,17.1793,
-6.6666,-6.6666,3.5897,39.9999,-30.7692,-0.51282,-17.4359,12.8207,0.51282,-4.1024,-12.8204,11.2821,10.7694,21.0258,
-5.3845,-12.0513,0.76929,47.4358,-32.0513,-0.76929,-14.1025,14.6155,1.7949,-1.282,-10,7.9487,5.3845,21.7947,
-2.8206,-4.3589,0.25635,47.436,-32.0513,0.25635,-12.0513,15.1284,1.282,-0.25635,-8.9744,-2.3076,5.8975,16.1538,
-1.7949,1.282,1.7949,45.3845,-28.9744,0.25635,-14.1025,13.5896,-0.25635,-2.8206,-11.5383,-7.4358,6.4102,8.9744,
-1.7948,-2.3077,11.0255,51.5382,-33.077,0.25647,-9.4872,17.1793,6.923,-2.3077,-6.923,-0.25647,8.4615,17.6925,
-8.9745,-8.9745,10.5128,54.1024,-48.077,-6.9232,-10.5128,14.1024,5.8973,-4.8717,-4.8717,4.8717,5.8973,22.8207,
-3.8462,-4.8718,9.4871,53.0769,-43.8462,-10.5129,-6.4102,14.6155,2.8206,-2.8206,-4.3589,8.9744,8.4614,22.8206,
4.359,-4.359,11.0255,50.5128,-28.8462,-13.5897,0.25647,13.0768,-1.7948,-6.9232,-8.9745,-0.25647,13.0768,19.2306,
2.5641,-11.2821,11.2821,49.7435,-13.8462,-20.5128,-2.5641,5.641,-7.1796,-14.8717,-12.8204,-10.7692,11.2821,15.3846,
2.8206,-16.1538,14.6152,50,1.1538,-26.4104,-2.8206,5.3845,-4.8718,-12.0513,-9.4873,-3.3333,10,17.6924,
1.7949,-19.7437,15.1282,51.0256,12.0513,-35.1282,-4.3589,3.3333,-7.9487,-15.6411,-15.6411,-1.7949,5.8975,15.1282,
3.0769,-14.3589,18.9746,58.9746,20.5127,-32.8206,-3.0769,3.0769,-4.6155,-14.8718,-13.3333,-6.6667,14.8718,16.9231,
0.76917,-18.7179,14.6154,54.6154,8.9742,-33.077,-0.76916,1.7948,-1.7948,-8.9745,-7.9489,-9.4872,19.2306,17.1793,
-1.2821,-22.3077,8.4615,48.9742,7.9486,-35.641,1.2821,2.3077,-5.8973,-5.8973,-10.5128,-4.8717,12.0514,17.1793,
-1.0256,-18.4617,11.282,46.6667,21.5383,-34.3591,2.0513,1.0256,-9.7437,-10.7693,-13.8462,-6.6667,11.7947,17.4358,
-0.25635,-15.1282,12.0513,44.8716,23.3335,-35.6411,0.76929,0.25635,-8.9744,-17.1794,-15.6411,-11.5386,13.5898,10,
0.25647,-13.5897,6.4103,46.923,21.2819,-35.641,-0.25647,3.8461,-7.4359,-14.6154,-14.6154,-5.3846,14.6154,7.9486,
0.76917,-14.6154,4.359,45.3846,20.7694,-35.641,-4.359,0.25647,-9.9999,-13.5897,-14.1027,-0.25647,13.5897,13.5897,
7.4358,-12.0513,10.5127,52.051,18.718,-32.0513,-3.8462,0.76929,-5.8975,-14.1025,-8.9744,-0.76929,12.564,14.6155,
4.359,-18.2052,5.8973,52.5638,11.5385,-36.1539,-7.4359,4.359,-4.359,-16.1539,-10.5128,-8.9745,10.5128,7.9486,
1.2821,-22.8204,4.8719,54.6156,13.077,-35.1281,-4.359,8.4615,-1.2821,-8.4615,-5.3846,-6.4103,18.7179,20.2567,
0.76929,-24.3591,3.3333,56.6665,12.564,-32.0513,-0.76929,4.3589,-1.7949,-6.4104,-1.2822,-1.7949,21.2822,26.4102,
0,-20,3.5896,52.8206,8.2051,-29.7437,-4.1028,3.0769,0,-9.231,-1.5386,-0.51294,18.4617,15.3845,
0,-16.9231,5.6409,52.8203,7.1794,-29.231,-7.6924,7.1794,0,-10.7693,-4.6155,-3.0769,20,13.8459,
0.25635,-20.2563,5.8975,53.0769,13.0769,-31.0256,-4.8718,6.9231,-2.3076,-11.5386,-8.4617,-0.25635,21.282,21.7947,
-1.2821,-21.7948,6.923,47.9489,10.5128,-31.5385,-7.9486,1.2821,-5.8973,-11.0255,-12.0514,2.3077,12.5641,18.2052,
-0.25635,-13.0769,13.5898,48.4614,6.4102,-30.5127,-13.5896,1.7949,-8.4614,-12.564,-13.0769,0.25635,7.436,14.1025,
-0.25635,-7.9487,18.7178,47.436,8.9744,-30.5129,-11.0256,4.3589,-8.9744,-12.5642,-14.6155,0.25635,12.0513,16.1538,
0.51282,-10.7694,11.2819,48.205,13.3334,-28.7181,-8.2052,3.5897,-7.6923,-5.641,-14.8719,-0.51282,13.3334,14.3588,
4.359,-14.6154,4.8717,50.0001,15.1281,-27.9489,-8.4615,3.8461,-3.8461,-5.3846,-12.5641,-4.359,12.0511,15.6412,
7.1796,-16.923,8.2052,48.2052,10.2565,-33.8461,-7.1796,4.6154,-4.6154,-14.359,-14.359,-6.1539,11.2821,15.8976,
5.6411,-15.8975,8.718,47.6921,4.6155,-35.3845,-9.2307,4.1025,-11.7949,-15.8975,-17.4358,-4.1025,8.2051,8.718,
3.5896,-17.9487,6.6665,44.1023,3.0769,-33.3335,-11.2822,4.1025,-10.2563,-11.2822,-14.8718,-3.0769,9.2307,12.8206,
2.8206,-22.8206,6.4102,43.3335,2.3076,-38.718,-13.5898,3.8462,-10.5129,-16.1538,-16.6667,-2.3076,12.0513,19.7437,
-0.25635,-23.3333,6.4102,47.436,7.4358,-40.2563,-13.5898,0.76929,-20.7693,-20.7693,-19.7437,0.25635,10,13.5898,
-0.25635,-18.718,6.9231,49.4873,13.5898,-33.5898,-12.5642,0.25635,-21.7949,-13.0769,-17.1794,1.7949,9.4873,11.5386,
0,-18.4617,8.2053,46.6667,6.6665,-34.3591,-17.9487,4.1025,-15.8975,-11.7949,-17.9487,0,11.282,13.3333,
1.2821,-19.7435,8.9745,42.8207,2.3077,-37.6923,-21.2821,7.9486,-13.5897,-15.1283,-17.1796,-1.2821,12.5643,12.0511,
0.25635,-18.718,5.8975,41.7947,3.3333,-34.6155,-20.7693,3.3333,-15.1282,-13.0769,-14.6155,-0.25635,13.0769,15.1282,
-0.51282,-15.8973,2.5641,45.1281,2.0514,-30.7692,-19.9999,1.5385,-12.3077,-6.1537,-13.8461,0.51282,18.9742,20.5128,
0.76916,-17.6923,6.923,46.4103,4.359,-30.5128,-19.7435,5.3846,-9.4872,-6.4103,-13.077,-0.76917,20.2565,20.2565,
-0.76917,-20.7692,6.923,46.923,0.76916,-27.9486,-20.2565,7.9486,-8.4615,-5.8973,-10.5128,2.8204,11.0255,19.7438,
-0.51282,-16.923,0.51282,48.7179,-3.0768,-25.1281,-13.3334,11.7948,-2.5641,5.641,-7.6923,8.2052,11.2821,25.6412,
0.51282,-17.9486,-3.5897,46.6666,8.7179,-29.2308,-9.2308,9.2308,-9.7435,-0.51282,-15.3846,1.0258,16.923,22.5641,
2.8206,-15.6411,2.8206,45.8975,23.7179,-26.9231,-5.8975,8.9744,-12.5642,-10,-18.718,-2.8206,20.2563,14.6152,
1.2821,-17.6923,8.4615,45.3844,13.0768,-31.0258,-8.4615,7.4359,-3.3334,-7.4359,-8.9745,-1.2821,21.2819,15.641,
-2.5641,-24.6154,5.641,49.7438,-0.51282,-42.5641,-13.8461,3.5897,0.51282,-10.2565,2.0514,-4.1027,23.0768,23.59,
-3.3333,-27.9487,6.4104,54.1025,-0.76929,-43.3333,-14.6152,3.3333,0.76929,-13.0769,5.3848,-5.8975,21.7949,28.4614,
0.25647,-21.2821,13.077,59.7435,-0.25647,-34.1027,-12.5641,8.9745,4.8717,-4.8717,-0.25647,-3.3334,23.8461,28.4618,
0.51282,-11.2819,13.3334,62.5641,1.0258,-28.205,-10.7692,12.8207,-0.51282,-0.51282,-10.7692,-1.0255,21.5385,24.6154,
0.25647,-9.4872,17.1796,57.1796,1.795,-25.8973,-4.359,13.5897,-7.9486,-2.3077,-13.0768,-0.25647,17.1796,21.7948,
4.8718,-12.0513,16.1538,52.5642,5.3848,-29.4871,-4.8718,8.9744,-12.0513,-7.4358,-13.5896,-10.5127,15.6411,17.1794,
8.4615,-11.0255,13.077,52.5643,15.641,-31.5385,-7.4359,6.4103,-12.5641,-6.4103,-15.1281,-12.5641,16.1539,17.6923,
4.6155,-15.8975,10.7693,55.3848,10.7693,-31.7949,-5.6411,8.2051,-11.7949,-4.6155,-16.9231,-8.718,14.8718,17.9487,
3.5897,-16.923,13.3334,54.8717,4.6154,-31.7948,-4.6154,9.2308,-6.6666,-3.5897,-13.3334,-10.2565,17.9486,18.9742,
0.51282,-18.4615,13.8463,49.7438,2.5641,-34.8717,-8.7179,5.641,-1.5385,-0.51282,-7.1793,-10.2562,16.9232,20.5128,
-2.3076,-22.3076,11.5386,57.6924,-3.8462,-36.1538,-11.0256,5.3845,2.3076,2.3076,-6.9231,-6.4102,15.6411,20.2563,
-1.5385,-25.1281,12.3077,59.4872,-3.5897,-35.8973,-11.2819,4.6154,4.1027,1.5385,-7.6923,-2.0511,20.0001,22.5641,
-5.8973,-26.4103,16.6666,50.0001,-2.8204,-39.7435,-13.0768,1.7948,2.3077,-1.7948,-7.4359,1.7948,21.2821,21.7948,
-5.8975,-24.3589,19.2307,57.1794,-4.8718,-40.7693,-12.0513,8.4617,3.8462,-2.3076,-3.3333,2.3076,20.7693,22.3076,
-0.51282,-25.641,21.0258,62.0511,-4.1024,-38.4615,-7.6923,13.8463,8.7179,-3.0768,0.51282,-4.1024,23.5897,26.6666,
0.25647,-24.359,23.3334,59.2306,-0.25647,-35.641,-1.7948,11.0258,7.9486,-4.359,-1.7948,-5.8973,22.8204,28.4615,
-3.8462,-19.7437,22.3076,60.2563,0.76929,-34.1025,-0.76929,11.5386,5.3845,-4.8718,-6.9231,-1.282,19.7437,28.9746,
-5.8973,-23.8461,21.7948,60.7694,-1.7948,-33.5897,-5.8973,13.5897,7.4359,-2.3077,-6.4103,1.7948,22.3077,29.9999,
-5.641,-31.795,22.5641,62.0514,-3.5897,-33.3334,-8.7179,11.2821,8.205,1.5385,-1.5385,-1.5385,22.5641,28.205,
-2.5642,-27.1794,21.0256,61.0256,-1.0256,-32.8206,-3.0769,9.2307,6.6665,1.0256,-1.5386,-5.1282,21.5383,25.6409,
0.51282,-23.0768,16.4103,55.8976,-0.51282,-35.8973,-5.1281,6.6669,2.0514,-2.0511,-7.1793,-8.7179,20.0001,20.0001,
0.76917,-29.4872,16.6666,52.5643,-3.3334,-35.641,-6.4103,3.8463,1.2821,-0.76917,-8.4615,-8.9742,16.1539,18.7179,
-4.1025,-31.282,20.5127,54.3591,-5.6411,-37.436,-3.0769,3.5898,3.0769,3.0769,-8.2051,-5.1282,15.3845,22.0513,
-3.8462,-26.9231,15.6411,54.6155,-3.3333,-40.2563,-5.3845,4.3591,0.25635,2.3079,-7.4358,-0.25635,14.6155,18.718,
1.2821,-29.4872,13.5897,47.9489,-3.8463,-40.7692,-8.4615,0.25647,2.8204,-0.25647,-4.359,-0.76916,14.1024,13.5897,
3.5898,-29.7437,22.564,50.769,-9.2307,-39.4873,-4.6155,0,9.7437,-1.5386,0,-3.0769,15.3845,16.4102,
2.8207,-26.923,21.2821,53.077,-13.0768,-42.8204,-4.359,0.25647,6.9232,-4.359,-0.25647,-4.8717,14.6154,13.5897,
6.4103,-25.3846,19.7435,52.0514,-4.8719,-43.8463,-2.8207,2.3077,2.3077,-2.8207,-2.8207,-2.3077,15.641,14.6154,
5.1284,-25.1282,25.1282,53.8464,-3.0769,-42.564,0,0,0,-4.1025,-5.1282,-2.564,12.8206,19.4873,
1.282,-25.8975,25.8975,54.1025,-13.5896,-38.718,0.76929,-2.3076,3.8462,-7.9487,-0.76929,-4.3589,14.1025,17.1794,
1.2821,-26.4103,21.7948,53.59,-15.1281,-36.1539,-1.2821,1.7948,4.8719,-9.4872,-1.2821,-6.4103,14.6154,13.5897,
1.5385,-24.1024,22.5641,56.9232,-7.1793,-35.3844,-1.5385,3.59,3.59,-7.6923,-3.5897,-4.6154,16.4103,16.4103,
1.0256,-28.2051,23.0769,56.4104,-9.7437,-36.4104,-1.0256,1.0256,4.6152,-7.6924,-1.0256,-6.1538,19.4871,17.4358,
4.1025,-25.6409,17.9487,57.949,-5.6409,-33.3333,-2.0513,2.0513,3.5898,-10.2563,-3.0769,-12.8203,20.5129,16.9231,
0.25647,-21.7948,13.5897,54.1024,-0.25647,-34.1024,-6.923,2.3077,0.76916,-12.0511,-12.0511,-18.2052,19.2308,14.6154,
4.1027,-21.0255,18.4615,55.8973,-3.0768,-30.7692,-1.5385,7.6925,1.5385,-6.1537,-7.6923,-8.7179,16.9232,23.077,
10.2566,-16.9231,17.436,58.9746,-4.1025,-29.2307,0,7.1794,0,-1.5383,-5.1282,-0.51269,14.3591,27.1794,
9.7437,-14.3591,15.8975,54.8716,-2.0513,-31.7949,-5.1282,3.0769,2.0513,-7.1794,-11.282,-6.1538,14.8718,19.4871,
8.9744,-12.564,16.6667,54.6155,-0.76929,-32.0513,-7.9487,7.436,0.76929,-15.1282,-12.0513,-6.4102,12.5642,16.1538,
9.4873,-8.4614,15.1282,54.6152,3.3333,-32.0513,-5.3845,8.4617,-4.3589,-13.5896,-6.4102,-3.3333,12.0513,22.3076,
8.2053,-10.769,13.3335,51.282,3.5898,-35.3845,-1.5383,1.0256,-1.0256,-10.2563,-7.1794,-12.3076,15.3848,18.9744,
7.6924,-15.8972,9.7437,51.282,0,-35.3845,-2.564,0,1.0259,-13.3333,-9.7434,-13.8459,12.8206,16.9231,
9.7437,-16.4102,9.2307,51.282,3.5898,-32.3076,-3.0769,3.0769,-3.5898,-15.3845,-6.6667,-5.1282,8.718,21.5383,
11.2819,-14.8719,8.7179,52.3077,4.6154,-33.3334,-2.5641,2.5641,-5.1283,-13.8463,-5.6412,-4.6156,11.7948,17.9489,
10,-15.1282,4.8718,52.0513,0.76929,-34.1025,-0.76929,3.3335,-0.76929,-11.0256,-6.4102,-4.8718,15.1282,16.1538,
8.2052,-20.0001,4.1027,52.3077,2.0514,-31.2821,-1.0258,1.0258,-2.0514,-11.2821,-6.1539,-2.0514,13.8461,17.4359,
7.4359,-21.2821,6.4103,58.205,9.4872,-23.3334,-0.76916,0.25647,-1.7948,-12.0511,-2.3077,-0.25647,16.6666,15.641,
6.9232,-19.7435,4.8719,52.5643,7.9489,-24.359,-2.3077,1.2821,-2.3077,-14.6154,-4.8717,-1.2821,14.6154,18.2052,
13.3333,-11.7949,4.1025,50.7693,4.1025,-27.1794,-3.0769,2.0513,-2.0513,-14.8718,-9.7437,-7.6924,12.3076,23.5896,
16.9229,-9.231,10.769,53.333,5.1282,-24.6155,-2.0515,1.0256,-1.0256,-17.436,-9.231,-13.8462,13.8459,19.4873,
16.4102,-12.3076,15.8975,53.3335,6.6667,-23.0769,0,0,-1.0256,-16.9231,-8.2051,-5.6411,14.3589,15.8975,
16.4103,-13.8461,5.1283,51.2821,11.2821,-25.641,-2.5641,-1.0258,-2.5641,-13.3334,-9.7435,1.0258,14.8717,18.4615,
19.4869,-12.8207,0.51282,46.1539,12.8204,-28.2052,-1.5387,1.0255,-0.51282,-9.7438,-7.6925,-3.59,15.3844,21.0255,
19.2307,-12.0513,8.4614,48.4617,3.3333,-31.0256,-0.76929,0.76929,-2.3079,-12.5642,-9.4873,-5.3848,10.5127,13.5896,
16.6665,-13.0769,12.564,51.5383,0.25635,-28.9744,-0.76929,-0.25635,-4.8718,-10,-12.5642,1.282,11.0256,11.5383,
12.0511,-15.1283,8.4615,47.9489,0.76916,-27.4359,0.76916,-0.76917,-2.3077,-7.9489,-12.0514,-2.3077,8.9742,14.6154,
11.7949,-14.8718,8.2051,49.7434,0,-31.7949,0,0,-3.0769,-14.8718,-13.3333,-7.1794,1.0256,11.7949,
17.1793,-16.1539,11.0255,52.0514,1.2821,-32.5641,2.3077,-1.2821,-5.3846,-18.2052,-14.6154,-7.4359,3.3334,5.8973,
17.4358,-13.3335,7.1794,50.7693,2.0513,-27.1797,6.1538,-2.0513,-5.6411,-20,-9.231,-11.7949,6.1538,5.1282,
12.8204,-10.7692,2.5641,48.7179,0.51282,-27.1793,4.1027,-0.51282,-5.1281,-20.5128,-6.1537,-12.3077,3.5897,15.3849,
11.7948,-14.8719,5.641,48.7179,3.5897,-31.795,-0.51282,0.51282,-4.1027,-10.7694,-10.2565,-10.7694,6.1537,22.0514,
13.8459,-12.3079,7.6921,50.2563,7.1794,-30.2566,-1.0256,1.0256,-4.1028,-4.1028,-15.3848,-12.8206,8.2051,14.8716,
15.1284,-5.3845,1.282,46.9229,2.3076,-26.4104,3.3333,-1.282,-3.8462,-8.9744,-16.6667,-16.6667,5.3845,12.564,
21.2819,-2.8207,0.76916,49.4869,4.8717,-22.8207,8.9742,-1.795,-0.76917,-6.4103,-10.0001,-13.077,9.9999,22.8204,
15.3846,-12.3077,2.5641,46.6669,8.2052,-26.1539,4.1027,-5.641,-2.5641,-8.7179,-9.2308,-12.3077,9.7435,15.8973,
10.5127,-17.1794,6.9231,44.8716,3.8462,-31.0256,1.7949,-3.3333,-1.7949,-14.6155,-7.9487,-13.0769,8.4614,6.4102,
17.6923,-15.641,5.8973,49.9999,-0.25647,-32.0514,2.8204,0.25647,-4.359,-14.6154,-4.8719,-10.5128,10.5128,14.6154,
17.4358,-15.8975,0,45.6409,2.564,-27.1797,1.5383,0,-4.6155,-11.2822,-6.6667,-3.5898,8.7178,18.9744,
12.3075,-15.8976,2.0511,41.0258,-0.51282,-28.2052,-1.0258,-1.5385,1.5385,-6.6669,-7.6925,0.51282,6.6666,13.8461,
13.5896,-17.1794,2.3076,49.4873,-10.5129,-35.6411,1.282,-4.8718,3.3333,-3.8462,-5.3848,-1.282,8.9744,13.0769,
15.3848,-20,-1.0256,54.3591,-6.1538,-32.8203,8.2053,-1.5383,2.0513,-4.6152,-1.0256,1.0256,13.8462,15.8975,
13.5896,-17.6924,-6.9231,50.5127,5.8975,-24.8718,7.4358,1.7949,-1.7949,-11.0256,-4.3591,-1.7949,12.564,12.564,
16.9232,-11.795,-6.6669,49.2308,9.7435,-22.0514,8.205,3.5897,-3.5897,-10.2565,-4.1027,-5.1283,12.8204,11.7948,
13.3333,-16.4102,-4.6155,50.2566,5.1282,-25.6411,9.7437,2.0513,-2.0513,-9.7437,-4.1025,-6.1538,11.282,12.3076,
6.6667,-22.5642,-4.6155,50.2563,2.0513,-26.1538,5.1282,-2.0513,2.0513,-9.7437,-7.6924,-15.3845,7.1794,11.282,
14.359,-19.4872,0.51282,53.8463,-0.51282,-24.6154,3.5897,-0.51282,7.6925,-3.5897,-4.6154,-19.9999,13.8463,17.9489,
16.923,-17.4359,0.51282,54.8719,-2.0514,-26.6666,2.5641,-0.51282,1.0255,-5.1283,-4.6154,-15.3846,14.8717,16.4103,
14.6152,-13.5898,-1.2822,49.4871,4.8718,-20.2563,5.8975,0.25635,-0.25635,-3.8462,-5.8975,-7.436,11.5383,14.1025,
12.0514,-15.641,-2.3077,45.3849,1.2821,-19.7435,5.3846,-1.2821,4.359,-2.3077,-11.0255,-12.0511,7.4359,14.6154,
12.3076,-15.3845,-2.0513,51.7949,-7.1794,-26.6667,2.0513,2.0513,5.1282,-2.0513,-10.7693,-13.8462,5.6411,13.8462,
8.718,-17.9487,-2.0513,51.282,-6.6667,-27.1794,2.0513,3.0769,2.5642,-2.5642,-6.1538,-7.6924,2.5642,13.3333,
7.4359,-18.7179,-4.359,51.0255,-4.8719,-18.7179,-0.76917,3.3334,0.76916,1.2821,-7.9489,-2.8207,0.76916,16.6666,
10.0001,-16.1537,-4.359,51.0258,-5.3846,-19.7435,-1.2821,6.9232,2.8207,1.2821,-7.4359,-3.3334,6.9232,22.8207,
5.8973,-19.2308,-2.8204,45.8976,-0.76916,-28.4615,4.8717,2.3077,0.76917,-3.3334,-7.4359,-6.9232,7.9486,19.7438,
4.8717,-21.7948,-1.2821,47.9489,6.4103,-22.8204,9.4872,0.25647,-1.2821,-2.3077,-7.4359,-0.25647,6.923,16.6666,
5.1282,-31.282,-4.1025,46.1541,-3.5898,-22.5642,2.0513,1.0256,-2.0513,-1.0256,-9.7437,1.0256,7.1794,18.4614,
5.1283,-34.359,-1.5385,51.795,-9.7435,-29.2308,-1.5385,2.5641,6.1539,1.5385,-2.0514,-5.1283,13.8461,20.5128,
1.5383,-32.3076,-2.0513,53.8459,-4.1025,-31.7949,4.6155,-2.5642,11.282,-1.0256,1.0256,-10.2563,14.3589,10.7693,
1.0256,-28.718,-1.0256,47.6921,1.0256,-29.7437,9.7434,-4.6155,7.1794,-2.5642,-4.1028,-9.7437,11.282,4.1025,
4.6152,-24.6155,0.51269,46.6667,0,-25.1282,5.6409,-2.0513,-3.5898,0,-8.2051,-5.1282,6.6665,11.7947,
7.1794,-22.0513,0,44.6155,0,-21.5386,3.5896,-2.0513,-9.7437,-1.0256,-12.3079,0.5127,2.0513,17.9485,
7.6921,-17.9487,2.0513,38.9744,1.0256,-24.1025,5.1282,-1.0256,-9.7437,-7.1794,-20.5129,-4.6155,3.5896,10.2566,
7.9487,-14.1025,6.4102,38.718,1.7949,-26.9231,4.3589,-1.7949,-10.5127,-12.0513,-21.7949,-17.1794,3.3333,5.8975,
8.7179,-12.3077,5.641,40.5131,2.5641,-22.5641,3.077,-2.5641,-11.7948,-13.3334,-13.8461,-15.8973,3.5897,12.308,
8.9745,-5.8973,-1.2821,42.8207,4.359,-17.1796,1.7948,1.2821,-9.4872,-8.4615,-9.9999,-7.4359,6.4103,12.0511,
7.4362,-6.923,-3.8461,39.7438,1.7948,-22.3077,0.76917,3.8461,-6.923,-0.76916,-14.6154,-9.9999,4.359,3.8461,
4.6152,-18.4617,0,34.8716,-2.0513,-29.7437,2.564,2.0513,-9.2307,0,-15.3848,-10.7693,1.0256,5.1282,
1.282,-24.8718,3.8462,34.6155,-10,-28.4614,1.282,0.76929,-9.4873,-2.8206,-10.5129,-0.76929,2.3076,15.6409,
1.0256,-22.564,8.2051,42.564,-15.8975,-23.0769,-1.0256,4.1025,-4.1025,-1.0256,-7.6924,6.1538,6.6667,21.0259,
3.5897,-23.5897,9.2308,48.205,-9.7435,-20.5128,-2.5641,2.5641,-9.2308,-4.1024,-14.8717,3.077,3.5897,17.4359,
7.1794,-24.1025,5.6409,39.4871,1.0256,-21.0256,-0.51294,0,-13.8462,-9.7437,-17.9487,0,0.51269,15.3845,
7.4359,-18.2052,0.76917,37.1796,-0.76916,-21.2821,1.7948,4.359,-9.4872,-12.0511,-15.641,-2.8204,3.3334,14.6156,
7.9487,-15.1282,1.282,43.8459,-1.282,-16.1538,4.3589,7.9487,-5.3845,-10.5129,-13.0769,-4.3589,7.9487,14.6155,
5.641,-24.1024,0.51282,35.3846,2.5641,-16.923,1.5385,-0.51282,-12.3077,-13.3334,-15.8973,-9.2306,3.077,11.2821,
8.2053,-19.4871,0,36.4104,11.7952,-16.9231,0,1.5386,-13.8462,-12.3076,-13.8462,-6.6665,2.0513,14.8718,
9.4873,-13.0769,-0.76929,39.231,14.1025,-19.2307,0.76929,6.4102,-5.3845,-10.5127,-14.1025,-7.4358,3.8462,14.1025,
12.3076,-14.8718,2.0513,35.3848,10.2563,-18.9744,1.0256,3.0769,-1.5383,-7.6921,-13.8459,-7.6921,-1.0256,9.231,
11.2823,-16.4103,3.077,35.3849,3.077,-14.359,-1.5385,3.5897,-4.1024,-3.0768,-10.7692,1.5385,-4.1024,11.2823,
7.4359,-16.6666,3.3334,38.7179,-0.76916,-17.1796,1.7948,5.8973,-3.3334,-3.8461,-11.5385,0.76917,-3.3334,12.0511,
8.2051,-17.9487,2.0513,39.9998,2.0513,-23.5898,5.6409,2.0513,-2.0513,-7.6924,-12.3079,-8.2051,-5.6411,7.1794,
9.2307,-20.5127,1.5386,36.4102,2.5642,-23.0769,6.6667,1.0256,-1.0256,-8.7178,-8.2051,-2.0513,-2.0513,8.718,
8.9742,-18.2052,4.8717,36.1539,-3.3334,-18.7179,3.8461,1.7948,-1.7948,-11.5385,-8.9742,1.7948,-2.3077,12.0514,
13.8463,-3.5897,7.1793,45.1281,4.1024,-13.3334,4.6154,3.5897,-6.1539,-12.3077,-13.8463,-3.5897,-5.641,12.3077,
11.5385,-0.76916,0.76917,41.7948,8.4618,-14.1027,5.3846,1.2821,-11.5385,-13.077,-17.1796,-6.4103,-4.359,10.5131,
10.2565,-5.1281,1.0258,37.9489,6.6666,-13.3331,5.641,-0.51282,-4.6154,-7.1793,-12.3075,-1.5385,0.51282,10.7692,
11.5387,-8.9742,7.4362,38.2052,5.3849,-13.0768,3.3334,1.7948,-2.8204,-2.8204,-8.9742,-4.8717,-1.7948,7.4362,
8.7181,-9.2308,13.3334,36.41,4.1024,-15.8976,3.5897,7.1796,-9.2308,-3.5897,-11.7948,-7.6923,-3.5897,5.641,
6.1542,-7.6923,12.308,35.3846,5.1283,-15.3846,2.5641,5.1283,-7.1793,-7.6923,-13.3331,-9.7435,-2.5641,4.1027,
9.4872,-7.4359,15.1283,34.6156,12.0511,-9.4872,2.8204,-0.76917,-0.76917,-6.923,-5.3846,-9.4872,0.76917,9.9999,
9.2306,-12.3077,18.9742,33.8463,4.6154,-15.3846,4.1024,-1.5385,-4.6154,-7.1796,-3.5897,-6.6666,1.5385,16.923,
11.7949,-12.3076,19.4873,35.3848,0,-22.564,6.6667,2.5642,-6.6665,-6.1538,-7.6921,-2.564,0,18.9746,
14.8719,-6.6666,13.8461,33.3334,9.7435,-16.4103,2.0514,1.5385,-3.0768,-8.7179,-12.3075,-6.6666,-1.5385,10.2567,
12.8204,1.5385,7.1798,34.8717,12.3077,-1.5385,-3.0768,3.0773,-3.0768,-13.3331,-12.3075,-9.7435,-2.0511,2.5641,
8.7179,2.5641,7.6925,32.8204,-2.5641,5.6412,-4.6154,6.6666,-7.6923,-11.7948,-11.7948,-8.2052,-5.1283,3.0768,
10.7693,3.0769,13.3333,33.8464,-12.8203,12.3079,-4.1025,9.2307,-10.2563,-8.2051,-12.3076,-3.0769,-6.1538,7.1794,
6.1536,1.5383,5.6409,31.282,-21.5386,15.8972,-8.2053,6.6667,-12.8206,-11.2822,-18.9744,-1.5383,-13.8462,5.1282,
-0.25635,0.25635,3.3335,29.4873,-21.282,16.1538,-7.4358,6.4102,-8.9744,-14.1025,-22.8206,0.76953,-17.1794,7.9487,
0.25635,-0.25635,11.0259,36.6665,-13.5896,19.7437,-4.8718,8.4614,-5.3845,-16.6665,-19.2307,0.76929,-13.5896,12.0513,
9.231,-2.5642,11.2822,39.4873,-13.3333,22.564,0,11.7949,-1.5386,-12.8206,-7.6924,0,-6.1538,14.3589,
12.0511,-3.8461,4.3593,36.6669,-17.6923,16.6669,0.76916,13.077,-1.7948,-8.9742,-4.359,-0.76917,-1.7948,11.0258,
7.436,0.25635,6.9233,36.6665,-13.0769,16.1538,-2.3076,11.0259,-4.8718,-10.5127,-8.9744,-0.25635,-2.8206,6.4102,
7.1797,0,13.3335,35.8975,-11.7949,19.4873,-2.5642,9.231,-4.6155,-11.282,-12.3076,0,-4.6155,6.6665,
5.641,-3.077,6.1537,32.8202,-15.3846,15.3846,-6.1539,6.6664,-6.1539,-6.1539,-12.3077,3.077,-5.1283,7.6923,
0.25635,-0.25635,-1.7949,27.9487,-16.6667,12.0513,-8.4617,5.8975,-5.8977,1.2817,-11.5386,5.8975,-6.4104,12.564,
0.51282,-1.5385,-0.51282,32.3077,-18.4615,13.3336,-5.1281,11.2823,-1.0255,6.1539,-12.8204,3.0773,-6.1537,16.923,
2.5641,-3.5897,-2.5641,36.4103,-22.0511,13.8463,-4.1024,10.2565,-0.51282,2.5641,-14.3588,0.51282,-4.6154,7.6925,
2.5641,-0.51282,-3.5897,30.7692,-23.077,14.359,-3.077,5.6412,0.51282,-3.5897,-11.2821,2.5641,-5.641,2.5641,
2.5643,-0.51282,-2.5641,32.3075,-22.5641,14.3588,-2.0514,5.641,0.51282,-6.6666,-6.1539,0.51282,-8.2052,10.7694,
4.1024,-1.5385,-2.5641,39.4869,-21.0258,12.8204,-0.51282,11.795,0.51282,-10.2565,-4.6154,2.5641,-3.5897,16.923,
2.5642,0,-2.564,41.5386,-18.9744,15.3848,-0.51269,13.8462,0,-11.282,-9.7434,9.231,-3.5896,14.8721,
1.5385,1.5385,-3.0768,41.5387,-17.4359,19.4874,-1.5385,13.3336,-2.0511,-7.1793,-13.8461,8.7179,-8.205,13.8463,
2.0513,2.0513,-2.0513,38.9744,-18.9744,19.4871,-2.0513,13.8464,-3.5896,-5.6409,-11.7947,6.6667,-9.2307,13.8464,
3.0769,3.0769,-3.0769,37.949,-23.0769,16.4104,-4.1025,11.282,-4.6152,-8.2051,-13.8459,3.5901,-14.8716,11.7952,
4.1024,1.5385,-2.5641,39.4872,-22.5641,18.9745,-0.51282,11.7948,-0.51282,-6.1539,-16.4103,0.51282,-10.2565,12.3075,
3.0769,-3.0769,2.0513,37.949,-20.5127,18.9744,1.0256,12.8206,-1.0256,-3.0769,-16.4102,-2.564,-7.1794,12.8206,
4.6156,1.0258,1.5385,34.3588,-14.8717,16.41,-4.6154,11.2821,-6.1539,-4.6154,-18.4615,-1.0258,-14.8717,12.8207,
6.6665,4.1025,-3.5898,32.8203,-12.3076,19.4873,-3.0769,10.2563,-2.0513,-3.0769,-16.9231,2.0513,-14.3589,13.8462,
3.5896,0,-3.5898,35.3845,-19.4873,20.5129,-1.5386,8.718,0.51269,-2.0513,-12.8206,0,-10.2563,11.282,
1.5383,-5.6411,1.5383,32.8206,-24.1025,12.3079,-5.6411,8.2053,0,0,-11.7949,0,-11.7949,8.718,
-0.51294,-10.7693,-1.0256,25.6409,-24.1025,4.6155,-10.7693,2.5642,2.051,0.51294,-14.3591,0.51294,-15.8975,6.6667,
1.7949,-7.436,-3.3335,28.9741,-19.7437,8.9741,-6.9231,3.3335,1.7949,-0.76904,-15.1282,0.76904,-13.5898,9.4873,
4.8718,-4.8718,0.25635,31.0259,-16.6667,12.564,0.76929,9.4873,-0.25635,-0.76929,-10,-0.76929,-8.4614,15.6411,
5.641,-9.2306,-5.1281,32.308,-17.9486,9.7435,-1.5385,10.7694,2.5641,-2.0511,-4.1024,1.5385,-2.5641,13.3334,
3.5896,-8.2053,-12.8206,35.3845,-22.0513,9.7434,-8.2053,9.2307,3.0769,-3.0769,-6.1541,7.1794,-5.6411,6.1536,
4.3586,-3.8464,-5.3848,32.5637,-21.7949,17.6921,-6.4104,8.9744,-1.282,1.282,-8.9746,6.9231,-11.5386,9.4871,
5.8975,-5.8975,0.25635,33.5898,-12.564,18.2051,-2.3076,7.9487,-3.3333,2.3076,-4.3589,-0.25635,-10.5127,12.564,
5.3849,-7.9486,-0.76917,36.1539,-6.923,11.0255,0.25647,7.9489,1.2821,-0.25647,-0.25647,-3.3334,-9.9999,10.0001,
4.6154,-10.2562,-1.5385,36.4103,-13.3331,9.2311,0.51282,7.1798,-0.51282,-1.5385,-8.7179,0.51282,-15.3844,11.795,
5.641,-13.3331,-2.5641,38.9745,-12.3075,15.3846,0.51282,6.1542,-3.0768,-0.51282,-9.7435,1.0258,-16.923,16.4105,
8.7179,-6.1539,-0.51282,39.4869,-5.1283,18.9742,-0.51282,8.2052,0.51282,1.5385,-3.077,-3.5897,-12.8204,12.8204,
7.6925,0.51282,-0.51282,34.359,-7.1793,16.923,-4.1024,10.7692,-3.5897,1.5387,-12.3075,-8.7179,-19.9999,4.6154,
8.2048,-1.0256,-3.5896,28.2048,-7.6924,15.8972,1.0256,12.3074,-7.6924,3.0769,-17.9487,-2.5642,-27.1797,7.1794,
8.2053,-3.0769,-6.6667,22.5642,-11.282,9.2307,1.0256,6.6667,-11.7949,1.5383,-18.9744,-1.0256,-30.2563,5.6409,
11.0254,0.76904,-3.8462,24.8716,-8.9744,10.5127,-0.76904,7.436,-11.0256,3.8462,-17.1794,-2.8203,-23.8462,1.7949,
12.3076,-2.0513,-4.1025,26.1538,-4.1025,11.7944,3.5894,10.769,-9.231,3.5894,-14.8721,-2.5645,-17.436,2.0513,
10,-0.76953,-5.8977,29.4868,-7.949,10.5127,5.8975,11.5381,-11.0259,0.25635,-13.5898,-0.25635,-22.3079,5.8975,
5.8972,2.3079,-8.9744,26.4104,-14.1025,9.9998,-0.76929,7.9485,-14.1025,-3.8459,-21.282,0.76929,-28.9744,5.3845,
8.2051,2.564,-4.6152,29.231,-10.2563,11.2822,0,6.6665,-12.3076,-1.5386,-25.6409,0,-26.1538,4.1025,
11.7949,0,-3.5898,34.3589,-10.2566,8.2051,0.5127,9.7437,-11.2822,0,-20.5129,-1.5386,-25.6411,2.564,
15.6409,0.25659,-0.76929,34.6155,-9.4873,11.0256,1.282,14.6155,-8.9744,-1.2822,-14.6155,-0.25659,-24.3591,8.9744,
12.564,1.2822,-1.2822,32.0513,-1.7949,15.6411,3.8462,12.564,-12.0513,-6.9231,-19.7437,-3.3335,-24.3591,11.5386,
5.6409,1.5383,-2.051,27.1794,-1.5383,16.9231,4.1028,11.7952,-17.4358,-6.1536,-26.6665,-8.2048,-30.2563,3.0769,
6.4102,4.3589,0.25635,26.4102,-7.4355,17.6924,-0.25635,14.6157,-16.6665,-1.7949,-26.9229,-3.8462,-31.5383,1.2822,
6.4102,2.3076,-2.8203,26.9233,-2.3076,14.1025,-2.3076,12.0513,-13.5896,-4.8716,-23.8459,3.3335,-28.9744,11.5386,
0.76929,-9.4873,-3.3333,22.8206,0.76929,6.4104,-0.76929,7.9485,-11.0256,-6.9231,-19.2307,1.282,-26.4102,15.6409,
7.6924,-5.6409,5.1284,30.7695,-2.564,3.5898,1.0256,14.3589,-2.0513,-1.0256,-5.1282,-4.6152,-17.4358,10.2563,
11.2822,0.51294,3.0769,31.2822,-11.7947,0,0,10.2563,0,-4.6152,-2.0513,-12.3076,-16.4102,2.0513,
10.2565,-3.0768,0.51282,29.7438,-8.7179,2.5641,2.0514,7.1798,-0.51282,-7.1793,-7.6923,-8.7179,-20.5128,7.1798,
14.1024,-1.7948,-1.2821,34.1024,1.2821,9.9999,1.2821,14.6156,-3.3334,-3.3334,-12.5641,-5.3846,-23.8461,10.5131,
12.0513,-0.25635,-11.0256,27.9487,0.25635,8.9741,0.76904,10,-11.5386,-7.9487,-18.718,-14.6155,-29.4873,1.7949,
8.2048,-1.5383,-17.436,26.1536,3.0769,3.5896,4.6155,1.5383,-15.3848,-16.4104,-22.5642,-14.8718,-31.2822,1.5383,
10.2563,-1.5386,-16.4104,28.2051,8.2051,3.0767,1.5386,2.0513,-16.9231,-20,-22.0513,-12.8206,-30.7693,6.6665,
11.0256,-0.25659,-13.0769,24.3591,1.282,7.9485,0.25659,6.9231,-17.6924,-16.6667,-19.2307,-16.1538,-34.1025,3.8459,
10,-0.76904,-11.0256,26.9229,0.76904,11.5386,6.9229,11.0254,-13.0769,-12.5642,-15.6411,-11.5386,-34.1025,3.3335,
6.6665,-4.1025,-10.7693,28.2051,4.1025,8.7178,5.1279,11.7949,-11.7949,-15.3848,-14.3591,-6.6667,-32.3079,6.6665,
8.9741,0.76904,-7.436,26.4102,2.8203,14.1025,-0.76904,11.0254,-14.1025,-14.6155,-17.1794,-10.5129,-34.1025,4.8716,
9.7437,1.5386,-3.5898,21.0259,6.1538,15.8975,-1.5386,7.6924,-16.4102,-15.3845,-22.564,-11.2817,-36.4102,3.5898,
7.1794,-2.0515,-1.5383,16.9231,14.8718,6.6667,1.5383,6.6667,-16.9231,-17.9487,-23.0769,-8.718,-37.436,5.6409,
7.9487,-0.25635,-9.4873,21.2822,17.6924,5.8975,0.25635,10,-17.6924,-15.1282,-20.7693,-13.0769,-36.1538,6.4102,
11.0256,-1.282,-10.5129,25.3845,11.0256,12.5637,1.282,11.5383,-11.5386,-12.0515,-16.1541,-13.5898,-29.4873,11.0256,
11.282,-2.5642,-5.6411,30.7693,2.5642,12.3079,6.1541,12.3079,-4.6155,-13.3333,-11.282,-10.7693,-26.6667,12.3079,
4.8721,-0.25635,-15.1282,25.8975,0.25635,6.9233,1.7949,8.9746,-12.0513,-16.6665,-18.2051,-13.5896,-34.6152,0.76953,
5.6411,7.1797,-15.3845,19.4873,8.7183,11.2822,0,11.2822,-14.8716,-14.8716,-22.051,-11.7947,-31.282,0,
5.8972,2.8206,-12.5642,22.8206,2.3079,10.0002,-1.7947,11.5383,-17.6924,-18.718,-22.3076,-10.5129,-30.5127,1.7947,
10.769,2.0513,-9.7437,32.3076,-2.0513,8.2051,5.1279,13.8462,-8.718,-15.3848,-13.3335,-3.5898,-30.2566,8.2051,
6.4104,-0.76929,-14.1025,25.8972,4.8718,4.3591,0.76929,5.3845,-5.8972,-16.1538,-10.5129,-8.4617,-30.5129,3.8459,
4.1023,1.0256,-7.6924,26.6667,4.6155,7.1794,-1.0256,9.2307,-4.1028,-9.231,-6.1541,-6.6667,-21.0256,2.051,
6.6669,-0.51282,-1.5385,34.3588,-10.3845,2.0511,1.5385,17.4359,-1.0258,-6.6666,-5.641,0.51282,-18.4615,8.205,
10.7694,-0.51282,-6.1537,39.4872,-3.0768,4.6156,1.5385,16.9232,0.51282,-14.3588,-9.7435,-0.51282,-17.4359,15.8973,
9.2307,1.0256,-9.7439,34.8713,11.9232,14.3586,-1.0256,14.3586,-4.1028,-17.436,-11.7952,-5.1284,-10.2566,15.3845,
7.436,0.25635,-6.4102,32.0513,14.6152,11.0259,-5.3845,14.1025,-6.9231,-10.5127,-8.4614,-0.25635,-5.3845,11.0259,
5.1279,-6.1541,-10.2566,29.7437,0.5127,7.6924,-8.718,13.333,-0.5127,-6.6667,-6.6667,5.6411,-8.2053,6.6665,
0.25659,-16.1538,-14.1025,25.8972,-0.25659,13.0769,-5.8975,13.0769,8.4617,-8.4617,-5.3848,4.8718,-11.5386,6.4104,
-1.282,-18.2051,-8.9744,32.0515,-3.8462,8.9744,-0.76929,13.5896,7.949,-8.9744,0.76929,6.9231,-10.5127,12.0515,
1.2821,-14.6154,-9.4872,33.5897,-10.5128,-1.795,-1.2821,11.0258,5.8973,-8.9745,6.41,6.9232,-9.4872,13.077,
0.5127,-13.3333,-16.4102,26.6665,-10.2563,-0.5127,-6.1538,10.2563,8.2051,-10.7693,5.1284,2.0513,-9.2307,9.231,
-4.6156,-12.3077,-11.2821,31.7946,-11.2821,4.1027,-4.1027,14.359,13.3331,-6.1539,7.1793,5.1281,-4.6156,11.2819,
-5.1282,-16.4104,-3.0769,38.9744,-14.3589,-1.0256,1.0256,13.3333,14.3591,-3.0769,9.7434,10.2566,-1.5386,13.3333,
1.7949,-13.5896,-4.8718,38.7178,-8.4614,-1.7949,-3.3333,14.1025,11.0259,-4.3589,10,13.0771,-5.3845,10.5127,
0,-7.6924,-11.7949,27.1792,-5.6411,0,-7.1797,12.3076,7.1792,-5.6411,5.1279,10.769,-8.718,7.1792,
-4.3589,-11.0259,-7.949,23.8462,-9.4873,-0.76953,-0.25635,9.4868,6.4102,0.25635,0.25635,5.8975,-7.436,6.9229,
-6.6667,-16.9231,-4.1025,30.2563,-6.1538,-1.0254,-0.51269,6.1538,4.6152,7.1797,0.5127,6.1538,-7.6924,3.5898,
-9.4871,-22.3076,-6.9231,29.4873,-2.3076,-2.3076,-2.8203,2.3076,4.8721,4.3589,2.8208,11.0259,-5.3845,4.3589,
-8.2051,-25.6411,-9.7437,29.2307,-6.6667,-4.1025,-0.51294,3.0769,8.2053,1.0256,0.51294,12.3079,-2.051,8.2053,
-10.5129,-26.9233,-11.5386,26.4099,-11.5386,-2.8206,-5.8977,2.3074,8.9744,3.3333,-0.76929,9.4871,0.76929,7.4358,
-15.6411,-31.0256,-14.6155,20.2563,-16.1538,-2.8203,-12.5642,0.25635,4.8716,-0.25635,2.3076,4.3589,3.8462,4.3589,
-9.4873,-28.4617,-15.6411,24.8718,-11.5386,-0.76929,-8.9746,1.7947,5.3845,-6.9233,1.7947,0.76929,7.4358,4.8718,
-4.1023,-24.6152,-10.7693,25.1282,-4.6155,0.51294,-9.2307,2.5642,4.1028,-8.2051,0.51294,-0.51294,4.1028,3.0769,
-3.5896,-18.9744,-4.1028,25.6409,-8.2053,-1.0256,-9.7437,4.6155,1.0256,-4.6155,5.6409,5.6409,2.051,4.1023,
-8.718,-18.9744,-12.3079,25.1279,-13.8462,-4.1028,-8.718,2.564,3.0767,-2.564,6.1538,6.6665,3.5898,6.1538,
-9.4871,-22.8206,-17.6921,23.8462,-4.8718,-2.8206,-6.9231,2.8208,11.5386,0.25635,6.4102,-0.25635,6.9233,6.4102,
-3.3333,-23.8462,-12.5642,27.4358,0.76929,-4.3591,-0.76929,4.3591,10.5129,-1.282,8.9744,-3.8459,5.3845,8.9744,
-2.8203,-23.8459,-7.9487,25.8975,-1.7949,-6.4102,3.8462,1.7949,4.3589,-3.8462,6.9233,-2.3076,3.8462,11.0259,
-6.1538,-20.5127,-9.7434,23.0771,0,-2.564,1.0259,0,7.1797,-1.5381,3.5898,-5.1279,6.667,2.5645,
-3.3333,-21.282,-15.1282,22.8206,0.76929,-1.7947,-0.76929,2.3079,8.9744,0.76929,2.8206,-5.8972,-2.3074,3.3333,
-2.3076,-26.9231,-18.2051,21.2822,-0.76904,-4.3589,2.3076,4.8716,3.8462,0.76904,1.7949,-2.8203,-17.3074,13.0771,
-5.8972,-25.3845,-19.2307,24.8718,1.7947,-4.3591,3.3333,1.282,0.25659,-0.25659,0.76929,-7.4358,-32.0513,7.4358,
-5.6411,-18.4614,-17.9487,27.6921,8.718,-1.0256,5.1282,0.51294,3.5896,-0.51294,4.1028,-7.1794,-24.6152,6.1541,
-8.7178,-17.9485,-20.5127,21.5386,7.1797,-2.0513,0,0.51318,0.51318,0,1.5386,0,-28.2048,12.8208,
-9.4868,-15.6409,-18.2051,20.7695,5.3848,0.76953,-3.333,4.8721,-0.76904,1.7949,0.25635,-0.25635,-29.4871,15.1284,
-5.6411,-11.2822,-12.8208,23.0767,9.7437,2.564,0,4.6152,0,-1.5386,2.0513,-7.6924,-18.9746,7.1792,
-2.3079,-11.5386,-13.5898,23.3333,13.0769,2.3079,1.7947,5.3845,-2.3079,-1.7947,2.3079,-4.3591,-20.7693,5.8972,
-5.3845,-16.1538,-13.5898,20.2566,5.3845,-0.25659,1.282,11.0256,-2.3079,0.25659,0.76929,-1.282,-32.5642,12.0515,
-7.949,-15.6411,-10.5129,21.7947,0.76929,0.76929,3.8459,6.9231,-0.76929,-1.7952,2.8206,-4.8718,-32.5642,10.5125,
-7.6921,-11.7949,-12.8206,24.1028,7.1794,0.51294,4.6155,1.0256,-0.51294,-2.5642,2.5642,-4.1023,-23.0769,6.1541,
-6.6665,-14.3589,-14.3589,21.5386,9.231,-2.564,3.5898,3.5898,-0.5127,3.5898,0.51269,-1.5386,-17.9487,8.7178,
-6.6665,-13.8462,-11.282,24.1025,10.7695,-2.0513,2.0513,6.6665,-2.0513,2.564,2.0513,-3.5898,-21.0256,11.7949,
-3.5896,-9.231,-6.6667,26.6667,15.8972,-0.51294,3.5896,8.2048,0.51294,-2.0515,8.2048,-2.0515,-18.9744,13.3333,
-4.8718,-16.1541,-9.4871,22.8206,9.9998,-2.8206,1.282,4.3586,1.7947,-1.282,4.3586,-4.3591,-16.1541,9.9998,
-9.2305,-20.5127,-16.4102,24.1025,7.6924,-2.0513,0.5127,0,0,3.0771,2.0513,-7.1792,-13.3333,5.6411,
-7.9487,-16.6667,-14.1025,24.3589,14.6152,-1.2822,2.8203,-1.7949,1.2822,3.3335,5.3848,-8.9744,-13.5898,7.436,
-4.1025,-12.8206,-5.1279,24.6152,17.9487,-2.564,2.0513,0,0,0,4.1025,-9.2305,-16.9231,13.8462,
-5.1282,-13.8462,-5.6409,22.051,17.4358,1.0256,0.51294,-0.51294,-3.0769,0.51294,2.051,-8.2053,-11.7947,13.8459,
-4.6152,-11.2822,-7.6924,22.564,20.5127,1.0254,3.0767,0.5127,-2.0513,-0.5127,5.1279,-8.7178,-4.1025,7.6924,
0,-3.0767,-2.564,27.1797,23.5898,-0.5127,6.1538,3.0771,0,-3.5898,4.6152,-9.2307,-3.0767,8.2051,
-0.25635,-6.9233,-2.3076,23.8462,15.6411,-3.3335,4.3589,0.25635,1.7949,-5.8977,3.333,-10.5129,-6.4104,11.5381,
-0.25635,-10,-2.8203,27.436,8.4614,-2.3076,3.3335,0.25635,3.3335,-4.3589,7.436,-7.9487,-4.3589,9.4873,
-4.3589,-5.8975,-2.3076,25.3848,5.3848,2.3076,0.76904,-0.76904,1.2822,-2.8203,6.9229,-3.3335,-3.3335,4.8716,
-2.0515,-2.5642,-2.5642,20.5129,13.3333,7.1794,2.051,-0.51294,0.51294,-2.0515,2.051,-1.0256,-1.0256,11.282,
1.282,-1.282,-7.9485,24.8718,18.718,4.8718,0.76929,4.3591,-1.7947,-1.282,-1.282,-2.3079,-0.76929,15.1282,
-6.6667,-5.6409,-7.1794,23.5896,4.6155,1.5383,-3.0769,6.6667,-3.0769,3.5896,1.0256,-1.5383,-1.0256,8.2053,
-12.3074,-11.282,-7.1794,20.0002,-0.51294,-1.0256,0.51294,2.5642,-3.0769,4.6155,3.5896,-6.1536,3.5896,6.1541,
-4.8718,-7.9485,-7.9485,21.7947,14.4871,-2.8206,7.949,0.76929,-2.3079,-0.76929,5.3845,-10.5129,10.5129,5.8972,
-0.25635,-3.3335,-4.3589,24.8716,29.4871,-2.8208,4.8716,0.25635,-3.8462,-5.8975,5.3843,-9.4873,7.9487,3.333,
0.76929,-1.7947,-6.4104,26.4104,27.949,3.3333,-0.76929,-0.76929,-5.3845,-2.8206,3.3333,-9.4871,5.3845,6.9231,
0,-3.5898,-7.6924,20,30.7695,3.5898,-0.5127,-1.5386,-4.6152,0,2.0513,-14.8716,7.1797,10.2563,
-0.76904,-0.25635,-1.2822,21.7949,30.5127,2.8203,-0.76904,-0.25635,-2.3076,0.25635,1.7949,-16.6667,7.436,11.5386,
-0.25635,1.7949,-3.3335,23.3335,23.3335,2.8203,-1.2822,-3.8462,-4.8716,0.25635,-2.8203,-17.1794,3.8462,11.0259,
2.5645,-1.5381,-8.2051,18.4619,20.5132,0,0.51318,-8.2051,-7.1792,0,-7.1792,-18.9741,3.0771,8.7183,
3.3337,-4.3586,-5.8972,19.7439,21.7952,-0.76929,0.76929,-8.9744,-6.9231,0.76929,-3.8459,-18.2051,4.3591,4.3591,
1.5386,-4.6152,-3.0767,18.4614,24.6157,0,5.1284,-8.2051,-5.1279,2.564,-1.0254,-18.9744,6.667,0,
0.76929,-0.76929,-5.3845,15.6409,24.8718,-2.3079,11.0256,-6.9231,-5.3845,4.3591,-4.3591,-13.5896,10.5129,1.282,
1.7949,-1.7949,-7.436,17.1792,23.8462,-4.3589,8.9741,-7.436,-8.4614,4.8716,-4.3589,-2.8208,9.4873,3.3335,
-1.5386,-9.7437,-4.1025,17.436,24.1025,-3.0767,4.6157,-7.6924,-3.0767,8.2051,1.5386,-2.0513,7.1797,2.5645,
-10,-16.1538,-5.3848,16.6665,16.6665,-3.3335,-1.7949,-7.9487,4.3589,9.4868,3.8462,-5.8975,7.9487,1.7949,
-13.8462,-21.5383,-10.769,12.8208,7.1797,-10.2563,-4.1025,-13.333,2.0513,6.667,2.5645,-2.0513,5.6411,4.1025,
-8.7178,-17.436,-5.1284,17.9487,13.8462,-9.231,-0.5127,-8.7178,-2.0513,8.2051,1.5386,0.5127,5.1284,5.1284,
-9.7437,-8.7178,0,22.0513,21.0254,1.0254,-2.0513,0,-6.1538,7.1797,-0.5127,-7.1797,8.2051,6.6665,
-11.0259,-8.4614,-1.7949,18.2051,14.1025,1.7949,-4.3589,-2.3076,-4.8721,4.8716,2.3076,-14.1028,10,5.8975,
-3.8462,-3.8462,0.76904,19.7437,14.1025,-6.4102,-2.8203,-7.436,4.3589,8.9746,10.5127,-11.0254,10,-0.76904,
-1.7949,-2.3076,1.7949,17.1797,16.6665,-8.4614,-2.3076,-10,4.8721,10.5127,9.4873,-6.9229,10,-5.8975,
0.51294,-1.5383,-0.51294,14.8718,14.8718,-2.0515,1.5383,-7.6921,-4.1028,8.2053,-1.5383,-3.5896,10.2566,1.5383,
-0.25659,5.8972,-5.8972,13.0769,15.1282,-2.8206,0.25659,-5.8972,-11.0256,3.3333,-14.1028,-2.8206,2.8206,0.25659,
-1.0259,10.769,0.5127,10.2563,23.0767,-0.5127,0.5127,-3.5898,-9.7437,1.5386,-13.8462,-2.564,2.564,-2.0513,
0,1.0254,4.1025,10.2563,22.564,0,1.5386,-2.564,-15.3848,-7.6924,-10.2563,-9.231,5.6411,-1.5386,
3.5896,0.51294,-0.51294,13.8459,21.0256,-2.0515,3.5896,-2.0515,-15.3845,-8.718,-8.2053,-10.2566,8.718,0.51294,
3.0767,3.0767,-3.0771,13.8462,22.0513,-2.0513,3.5898,-8.2051,-12.3076,-5.1284,-8.7183,-6.667,9.7437,2.0513,
4.1025,-0.51269,-0.51269,16.9233,21.0259,0.5127,4.1025,-8.7178,-10.769,-3.0767,-4.1025,-0.51269,11.2822,8.2051,
0,-9.7437,-6.667,12.3076,13.333,-7.1797,1.5381,-7.1797,-8.7183,-2.5645,0,0,8.2051,6.1538,
-3.8459,-11.5383,-12.5642,13.0769,14.6155,-11.0256,2.8206,-6.9231,-2.8206,1.7947,3.3333,-1.282,8.4617,1.282,
-2.5642,-14.3591,-9.2307,15.3845,21.5383,-9.7439,6.1536,-7.6926,-2.5642,4.1023,6.1536,-6.6667,8.2048,2.5642,
-0.76904,-22.3076,-2.3076,14.1025,25.3848,-11.5386,10,-7.436,-5.8975,0.76904,7.9487,-8.9741,7.436,3.8462,
0.76929,-24.3589,-3.3333,18.2053,24.8718,-11.5383,11.0256,-5.8972,-3.8459,0.76929,6.9231,-2.3079,10.0002,-0.76929,
-2.3076,-27.9487,-7.9487,15.6411,16.6665,-11.5386,-3.9744,-4.8716,1.2822,2.8208,5.8975,-1.2822,10.5127,1.2822,
-3.8459,-26.4102,-7.4358,18.2053,15.1282,-8.4617,-18.9744,-2.8206,2.3079,7.949,12.0515,-2.3079,11.5383,11.5383,
-1.7949,-19.2307,-6.4102,22.8203,19.7437,-8.9741,-33.9744,-5.3848,-2.3076,8.9746,12.564,1.7949,12.564,13.0771,
-1.0256,-17.9485,-9.2307,15.3845,14.3591,-13.3333,-48.9744,-10.7693,-6.6667,3.5896,1.0256,1.5383,4.6155,4.6155,
4.6155,-8.2048,-10.2561,15.3845,15.3845,-8.718,-47.1794,-5.1282,-4.1023,1.0256,1.5388,-1.0256,3.0769,5.6414,
4.6155,-1.0256,-6.1536,17.949,18.9744,-4.615,-46.6665,1.0256,-4.615,-2.5637,6.1541,-2.5637,7.6926,4.1028,
2.051,-0.51294,-4.1028,21.5383,11.7947,-3.5896,-51.282,0.51294,-6.1541,-3.0769,3.0769,1.0256,4.1023,-2.0515,
4.3589,0.25635,-7.436,24.3589,2.8203,-5.8975,-53.0769,-3.8462,-2.3076,-0.25635,3.3335,5.8975,-0.76904,0.76904,
3.3333,-0.25659,-8.9744,21.282,3.3333,-11.0256,-52.564,-8.4617,-5.3845,-2.3079,5.3845,0.25659,3.3333,4.8718,
2.0515,1.0256,-7.6921,20.0002,11.7952,-7.1794,-49.2307,-4.1023,-11.282,-3.5896,4.1028,-1.0256,7.1794,4.6155,
1.5386,-3.0771,-10.7695,18.4614,13.333,-5.6411,-49.231,-1.5386,-12.3076,-6.667,1.5386,3.0767,3.5898,4.1025,
6.6667,-3.5901,-6.1541,21.5383,15.3845,-8.2053,-45.6411,-2.5642,-5.1282,-9.7439,2.5642,3.0769,5.1282,7.1794,
7.6921,-1.0256,0.51294,20.5129,19.4871,-2.0515,-41.5386,-1.0256,-0.51294,-8.718,4.6155,-3.0769,8.718,7.6921,
1.7949,-1.7949,-4.8716,14.6152,16.1538,1.2822,-42.3076,-1.2822,-4.3589,-6.9229,3.3335,-4.3589,5.8975,3.3335,
2.8206,0.25659,-4.3591,18.718,18.718,-2.3079,-40.2563,-1.282,-7.9485,-5.3845,2.8206,-0.25659,8.4617,0.25659,
5.6414,1.0256,0.51294,20.0002,26.1541,-4.6155,-35.3845,-2.5642,-7.1794,-6.1536,3.5901,-8.718,11.7952,-0.51294,
2.5642,1.0256,-1.0256,18.4617,23.5901,-4.615,-37.9485,-5.6409,-6.6663,-8.2048,4.6155,-12.3074,8.718,3.5901,
-2.3079,2.8206,-5.3845,18.2053,16.6667,-1.282,-40.7693,-2.8206,-5.3845,-2.3079,5.3845,1.282,5.3845,8.9744,
-3.5898,-4.6152,-7.6924,12.8203,15.3848,-7.1797,-36.4102,-3.5898,-3.0771,3.0771,3.0771,3.0771,5.6411,7.1797,
1.7949,-10.5127,-2.3076,16.6665,19.2305,-10.5127,-32.0513,-6.4102,-4.3589,2.3076,4.8716,-1.7949,8.4614,3.8462,
0.25635,-14.1025,2.3076,17.1792,15.1279,-8.4614,-37.1794,-7.436,-10.5127,-0.25635,2.8203,-0.25635,6.4102,1.2822,
-2.0515,-16.4104,2.5642,13.8459,11.282,-7.6926,-40.5129,-5.6414,-6.6667,0.51294,-0.51294,4.1023,4.6155,0.51294,
-0.5127,-13.8462,0.5127,15.3843,17.9487,-6.667,-36.4104,-3.5898,-2.564,-1.5386,1.0254,2.564,7.6924,2.564,
0.76929,-15.1282,1.7947,15.6409,25.8972,-4.8718,-26.9233,-2.3079,-5.8977,-6.4104,0.76929,-0.76929,9.4871,2.3074,
3.8462,-19.2307,2.8203,17.6924,26.9233,-3.3335,-22.8206,-0.25635,-8.9741,-6.4102,-3.8462,0.25635,8.9746,0.25635,
4.3589,-18.2051,3.3335,18.2051,23.3335,-3.3335,-23.8462,-1.2822,-6.4102,-0.25635,-3.3335,0.25635,15.1284,1.7949,
0,-7.6924,6.1538,16.4102,22.564,-3.0767,-29.2307,-2.564,-7.6924,1.0259,0,-2.0513,13.8462,4.6152,
-4.8718,3.3333,3.3333,13.5901,20.2566,0.76929,-37.6921,-0.76929,-16.1536,-3.3333,-1.282,-4.3586,5.8977,0.76929,
0,0.5127,2.0513,11.7949,15.3848,2.564,-34.8718,-2.0513,-12.8203,-3.0767,-1.0254,-6.6665,12.3076,0,
6.1538,-0.5127,1.0254,17.4355,17.9487,-2.5645,-25.6411,-5.6411,-6.1538,-2.0513,0.5127,-11.2822,17.4355,2.0513,
4.3589,6.9233,3.3335,17.6924,25.3848,-4.8716,-24.8718,-2.3076,-8.4614,-2.3076,-0.25635,-11.5386,8.4614,0.25635,
4.6152,6.1538,7.6919,10.769,24.1025,-0.51318,-28.2053,0,-12.8208,-1.5386,-0.51318,-8.2056,2.564,0,
5.8972,2.8206,3.3333,11.5383,19.7434,-3.3333,-30,-6.4104,-10.5129,-3.3333,-0.76929,-6.4104,9.9998,0.76929,
2.0513,3.0767,-0.5127,13.8462,16.9229,-5.6411,-29.231,-5.6411,-3.5898,-3.5898,1.5386,-3.0771,15.8975,0.5127,
-0.76929,-1.7952,1.282,9.9998,12.5637,0.76929,-31.0259,1.282,-5.385,-0.76929,3.8459,-0.76929,8.9744,-1.7952,
1.0256,-7.1794,2.0515,6.6667,12.8206,2.0515,-32.8203,-2.5637,-11.282,-2.5637,-1.0256,1.0256,3.0769,-3.5896,
1.7947,-0.76929,1.7947,7.9485,19.7434,0.76929,-33.0771,-4.3591,-12.5642,-3.3333,-4.3591,6.9231,8.4612,-2.8206,
0.51294,1.5383,-0.51294,6.6667,21.0256,2.5642,-33.3335,-1.5383,-18.9744,-4.1028,-7.6921,0.51294,10.7693,-6.6667,
5.8975,2.3076,4.3589,6.4102,21.2822,4.8716,-25.8975,-2.3076,-21.2822,-5.3848,-5.8975,-8.4614,9.4873,-5.8975,
5.1284,7.1797,9.7437,11.2822,21.5386,3.5898,-19.4873,-7.1792,-18.4614,-4.1025,-3.5898,-6.1538,9.231,-4.6152,
2.0513,6.1538,8.7178,11.7949,24.1025,2.564,-20.5127,-6.6665,-15.3848,-2.0513,-3.0771,-3.0771,13.8462,-3.0771,
5.8977,1.282,11.0256,10.5129,25.3845,4.8718,-21.282,-3.8459,-15.1282,-3.3333,-2.3074,-5.3845,13.0769,-1.282,
7.436,1.7949,12.0513,16.1538,22.3076,2.8203,-23.3335,-4.3589,-15.6411,-5.3848,-3.3335,-7.9487,4.3589,-1.7949,
4.3589,2.8208,5.8975,16.1538,19.7437,-0.76904,-24.3589,-2.8203,-10,-5.3848,-0.25635,-8.4614,6.9233,0.25635,
2.564,2.0513,2.564,9.231,16.4102,-0.51269,-27.1794,-2.564,-10.2563,-11.2822,0.5127,-11.7949,12.3076,-1.0254,
6.4102,3.3335,7.9487,9.4873,16.667,1.7949,-28.9741,-3.333,-15.1279,-13.0767,-1.7949,-10,10.5132,-3.8462,
10.5129,3.3333,12.051,12.051,21.7947,0.76929,-23.3333,-1.282,-13.0769,-2.3079,-0.76929,-0.76929,11.0256,-2.8206,
4.8718,1.7947,5.8972,9.4871,19.2307,-2.8206,-24.3591,-3.3333,-14.1028,-0.25659,-2.3079,0.25659,10.5129,-3.8459,
0.25635,0.25635,3.8462,7.4355,14.6152,-0.25635,-30.5129,-3.8462,-15.1284,-3.3335,-0.76953,2.8203,11.5386,-1.7949,
-1.7949,-5.3843,5.3848,9.4873,10.5127,0.25635,-34.1025,-1.7949,-17.1792,-3.333,0.25635,7.436,10.5127,-0.25635,
-2.8203,-7.9487,2.8203,12.0513,8.4614,2.8203,-32.5642,-1.2822,-16.1538,0.25635,-0.25635,5.3848,10,-1.7949,
0.25635,-7.436,3.8462,12.564,8.9741,6.4102,-28.4617,-3.3335,-11.5386,-0.25635,0.25635,-0.76904,11.0254,-0.25635,
0.25635,-11.5386,4.3589,13.5898,7.436,-0.25635,-31.0256,-5.8975,-12.0513,-6.4102,0.25635,-3.8462,10.5127,0.25635,
-0.25635,-10,5.3848,16.6665,7.9487,-3.8462,-29.4873,-3.3335,-7.436,-1.7949,2.8203,0.25635,13.5898,1.7949,
-1.0259,-7.6924,6.1538,13.3335,5.1279,-1.5386,-32.8206,-3.0771,-4.1025,0.5127,-0.51269,1.5386,10.2563,0.5127,
0.5127,-7.1797,3.5894,6.1538,3.0767,0,-36.4104,-5.1284,-6.1538,0,-4.6157,-3.0771,4.6152,2.0513,
1.5383,-3.5896,1.0256,4.6155,6.6667,-1.0256,-28.718,-4.6155,-5.6409,3.5896,-3.0769,-8.718,6.6667,5.1282,
5.1282,1.5383,1.0256,10.2566,9.2307,-3.5896,-20.5129,-4.1023,-5.6409,0.51294,-2.051,-10.7693,12.3079,-0.51294,
10.7693,3.5896,7.6921,13.3333,13.8459,-2.0515,-14.3591,-0.51294,-3.0769,-6.6667,0.51294,-15.8977,16.9231,-3.0769,
8.4617,-2.3079,11.5383,12.051,11.5383,-3.8459,-17.6921,0.76929,-3.3333,-14.6155,1.7947,-26.9231,11.5383,-0.76929,
4.8718,-2.8206,9.4871,15.1282,5.3845,-5.8972,-23.8459,-0.76929,-4.3586,-15.1282,0.76929,-17.1794,8.9744,2.3079,
5.1282,-3.0769,8.7175,12.8201,5.1282,-7.6926,-21.0256,-1.0256,-1.5388,-7.6926,1.0256,-2.1794,11.7947,2.5637,
4.3589,-3.3335,9.4873,12.0513,7.9487,-12.0513,-16.6665,-1.7949,-2.3076,0.25635,0.25635,-3.8462,6.9229,-0.25635,
1.0256,-3.5896,11.282,14.8718,6.6667,-10.2561,-18.4612,-2.5637,-3.0769,-1.0256,1.5388,-8.2048,5.1282,1.0256,
-3.3335,-8.9746,15.1279,13.5894,4.3589,-6.9233,-17.6924,-0.25635,0.25635,-11.5386,2.3076,-8.4619,10.5127,0.76904,
-2.0513,-8.2051,15.3843,15.8975,10.2563,-8.2051,-12.3076,4.1025,0.5127,-13.3335,3.5898,-8.2051,12.8203,-0.5127,
0.25635,-7.9487,13.5898,13.0767,13.0767,-8.4614,-12.564,2.3076,-0.25635,-5.3848,5.8975,-4.3589,12.0513,-0.25635,
0,-11.2822,12.3076,12.3076,12.3076,-6.1538,-14.3589,0,0,-3.5898,6.1538,0,13.8462,0,
-2.0513,-11.7949,8.7183,14.3594,15.3848,-6.6665,-13.333,0.51318,0,-5.6406,3.5898,0,15.3848,-2.0513,
-0.76904,-13.0771,7.9487,13.5898,12.564,-10.5127,-11.0259,-3.3335,1.2822,-3.3335,4.3589,0.25635,15.6411,-0.25635,
-1.282,-16.1541,7.4358,14.1023,9.9998,-13.0769,-11.0256,-5.3845,2.3079,-0.76929,5.3845,-0.76929,15.1282,0.76929,
-3.5896,-15.3845,9.2307,10.7693,11.282,-9.2307,-13.8464,0.51294,2.5642,-2.0515,4.1023,-1.0256,16.4104,-0.51294,
-4.1025,-11.2822,10.769,8.7178,3.5898,-2.0513,-17.436,2.564,0,-9.231,0,0,11.7949,-1.0254,
-0.76953,-7.436,10.5127,11.0254,-1.2822,3.8462,-17.6924,5.3843,0.25635,-10.5132,-0.76953,5.8975,11.0254,-0.25635,
-0.25635,-7.9487,11.5386,6.9229,-3.3335,1.7949,-16.6665,5.3848,0.25635,-3.3335,-1.2822,6.4102,11.5386,-1.7949,
-0.51294,-7.1794,14.8718,8.718,-8.718,-1.5383,-15.3845,6.1541,-2.5642,0.51294,-2.051,6.1541,6.6667,0.51294,
0.5127,-6.6665,12.3076,9.231,-11.2822,-0.51269,-16.4102,6.6665,-2.564,-3.5898,-3.0767,5.6411,5.6411,2.0513,
0.76929,-6.9231,7.4358,8.4617,-8.4617,2.3079,-19.7434,1.282,-3.3333,-3.3333,-2.3079,3.3333,7.4358,-0.76929,
-1.282,-7.9485,4.3591,11.0256,-5.8972,-0.25659,-18.718,1.282,-3.8459,-0.76929,4.3591,7.9485,7.4358,0.25659,
-8.718,-16.4104,1.0256,9.2307,-10.2566,-9.2312,-16.9231,3.5896,2.5637,-3.5901,12.8206,8.7175,9.2307,-1.0256,
-2.8206,-15.6414,6.4099,14.1023,-8.9744,-6.9231,-10.5129,4.3586,14.615,-0.76929,22.3074,0.76929,17.6921,-1.282,
-0.76904,-12.0513,13.0771,15.6411,-4.3589,-1.7949,-8.9741,-0.25635,15.6411,2.8208,23.8462,-5.8975,13.0771,0.25635,
-10.2566,-13.3333,12.8206,10.7693,0.51294,-0.51294,-15.3845,-1.5383,7.6921,1.5383,13.8459,-2.5642,3.5896,-1.5383,
-10.769,-12.3076,13.3335,1.5386,3.0771,0.5127,-15.8975,1.0259,-2.0513,-3.5898,3.0771,-0.5127,4.6152,-1.5386,
-4.3589,-9.4873,23.3335,-6.4102,5.3848,0.25635,-10.5127,1.2822,-6.9229,-6.9229,2.8203,-0.25635,6.4102,0.25635,
-3.3333,-5.8972,24.3591,-1.282,4.8718,1.282,-12.5642,-0.25659,-5.3845,-3.3333,1.282,4.3591,4.8718,0.25659,
-2.8206,-5.3845,18.718,0.76929,-0.25659,3.8459,-13.5896,0.25659,-2.8206,-0.25659,-2.8206,6.4104,3.3333,0.25659,
-0.76929,-3.8464,21.7947,-2.3079,0.76929,3.8459,-7.949,2.8206,-4.8718,-4.8718,0.76929,3.3333,4.3591,-3.3333,
-1.282,1.282,21.282,-1.282,8.9744,-1.282,-7.4358,2.8206,-7.9485,-9.4871,4.3591,1.282,5.3845,-6.4104,
-1.0254,-2.0513,18.4614,0,5.6411,-2.564,-6.6665,3.0771,-3.5898,-6.6665,0,3.5898,7.6924,1.0259,
-0.76904,-7.4355,20.2563,6.4102,-2.3076,0.25635,-1.7949,6.4102,-0.25635,-2.3076,-2.8203,3.3335,11.5386,2.3076,
-4.3589,-7.436,19.7437,8.4614,0.76904,-0.76904,-2.3076,7.9487,-3.3335,-3.3335,1.7949,2.3076,11.0259,-7.436,
-5.3845,-3.8459,15.1282,4.8718,1.282,-4.8718,-6.4099,4.3591,-7.4358,-6.9231,1.282,5.8977,8.9744,-1.282,
-5.8975,-3.8462,13.0771,3.8462,0.76904,-2.8203,-10,0.76904,-6.9229,-5.8975,-0.76904,9.4873,7.9487,10,
-7.1792,-6.1538,16.9233,1.5386,2.5645,0,-8.7178,0,-6.6665,-2.564,-1.0254,8.2056,7.1797,3.5898,
-5.1282,-1.0256,21.5383,3.5896,2.5642,1.0256,-5.6409,4.1028,-8.2048,-3.0769,-2.5642,7.1794,7.1794,-1.5383,
-8.2051,0,15.8975,4.6157,0,0.51318,-8.7178,2.5645,-8.2051,-3.5894,-4.6152,4.6157,6.1543,-0.51269,
-8.7183,-3.5898,13.333,6.6665,0.5127,0,-8.2051,0,-5.1284,0.5127,-4.1025,1.0254,1.5381,-3.0771,
-6.1538,0,18.4614,7.6924,4.1025,2.564,-5.1279,3.5898,-5.1279,0,0,-2.564,0.5127,-7.6924,
-10,0.25635,20.2563,-0.25635,0.76904,3.333,-6.9233,2.8203,-6.4102,-0.76953,1.7949,-6.9233,4.3589,-5.3848,
-10.2563,-0.5127,20,1.0259,0,0,-9.2305,0,-4.1025,3.0771,4.1025,-4.6152,2.564,-3.0767,
-8.9746,0.76904,20.2563,4.8716,1.2817,-1.2822,-8.9746,0.25635,0.25635,-3.3335,5.3843,-0.25635,-0.76953,-5.8975,
-9.4873,-1.2822,22.8203,0.25635,1.2817,0.76904,-7.9487,0.25635,3.8462,-11.0259,5.8975,-0.76953,-0.25635,-7.9487,
-8.9741,-1.2817,19.7437,0.25635,6.4106,1.2822,-6.9229,-0.25635,-0.25635,-5.3843,3.8462,2.3076,0.76953,-5.8975,
-9.7434,2.5642,16.9231,1.0256,8.2053,-2.5642,-7.1794,-0.51294,-5.6409,-4.6155,2.5642,3.5896,0.51294,-9.2307,
-11.2822,5.1284,16.9229,3.0767,4.1025,-3.5898,-11.2822,0.5127,-4.6152,-11.2822,5.6411,2.0513,-0.5127,-13.8462,
-11.5383,0.76929,12.5642,2.3079,4.8718,-0.76929,-7.9485,0.76929,-5.3845,-9.4871,5.3845,3.8464,-2.8206,-8.4617,
-10.5127,-4.3589,10,-1.7949,12.0513,1.2822,2.3076,-0.25635,-7.9487,-1.7949,4.3594,7.436,0.25635,-2.8203,
-12.8203,-3.0767,6.667,0,13.8462,1.5386,0,-0.51269,-6.6665,-5.6406,7.6924,5.1284,5.6411,-5.6406,
-15.1282,-0.76929,3.8459,0.76929,8.4617,1.7947,-10.0002,-2.3079,-4.3591,-12.5642,8.4617,1.7947,3.3333,-7.4358,
-11.0256,0.76929,8.4617,2.8206,9.4871,1.7947,-7.4358,-2.8206,-9.4871,-11.5383,3.8464,3.8464,-0.76929,-8.4617,
-7.6924,6.6665,13.8462,2.564,15.8975,-1.5386,2.564,-2.564,-14.3589,-11.2822,-0.5127,4.1025,0.5127,-10.2563,
-10.2566,8.718,10.7693,-1.5383,14.3591,-1.5383,2.0515,-2.0515,-5.6409,-13.3333,2.0515,2.0515,1.5383,-7.1794,
-9.4871,3.3333,6.9231,0.25659,8.4617,3.3333,-5.8972,-2.3079,-0.76929,-6.9231,4.3591,5.3845,-0.25659,-2.8206,
-5.6409,2.0515,7.1794,1.0256,8.718,3.5901,-6.1536,-4.1023,-3.5896,-1.0256,2.5642,10.2566,-2.5642,-5.6409,
-7.436,6.9229,10.5127,-0.25635,11.0254,0.25635,0.25635,-0.25635,-7.9487,-7.436,0.76904,5.3848,-0.76904,-12.564,
-9.2307,3.0769,11.282,2.5642,8.718,-1.0256,-0.51294,0.51294,-13.8464,-12.3079,1.5383,3.0769,-2.5642,-14.8718,
-4.8721,0.76904,12.564,5.8975,12.564,1.7949,-0.76904,-2.3076,-9.4873,-6.9233,6.4102,8.9741,-2.8208,-11.5386,
-8.2056,4.6152,4.1025,0,17.9487,0,0.5127,-7.6924,-12.3081,-10.2568,1.5381,3.0767,-3.0771,-15.3848,
-10.2563,6.1538,1.5386,0,22.0513,3.0771,3.5898,-2.564,-12.8203,-8.2051,0,6.667,-2.0513,-9.2305,
-10.0002,1.282,3.8459,4.3591,19.2307,3.3333,-0.25659,0.25659,-14.1028,-2.3079,-1.7947,13.0769,-2.8206,-1.7947,
-11.0254,3.8462,0.25635,0.25635,20.7695,2.8208,-4.3589,0.76953,-18.2051,-3.333,-0.25635,7.9487,-4.3589,-7.9487,
-9.231,8.2051,0,-3.5898,26.6665,6.6665,0,3.5898,-15.3848,-3.0767,5.6411,8.7178,-0.5127,-8.2051,
-7.1797,5.6406,0,1.0254,22.0513,5.6406,-1.0259,-4.6157,-12.3081,-0.51318,2.0513,15.897,0,0,
-6.9231,3.3333,3.3333,2.8206,18.718,-0.25659,-1.7947,-8.4617,-10.5129,-1.7947,3.8459,14.6155,0.25659,-1.7947,
-10.5129,1.7947,2.8206,0.25659,19.7434,-2.8206,-0.25659,-6.9231,-10.5129,-3.8464,7.9485,7.4358,0.76929,-4.8718,
-11.7949,4.6157,-2.564,0.51318,20,0,0,-7.1792,-7.1792,-0.5127,9.231,7.6924,0,-1.0254,
-9.2307,3.0769,2.051,-3.5901,21.0256,-1.0256,-0.51294,-8.2053,-7.6926,1.5383,9.2307,10.2561,0.51294,-2.0515,
-6.9231,-1.7947,4.3591,-0.25659,22.3079,-0.25659,0.76929,-5.8972,-5.8972,3.8464,8.9744,17.1794,0.25659,-1.7947,
-9.4873,0.25635,-2.3076,1.2822,15.1279,-1.2822,0.25635,-5.3848,-4.8721,3.3335,5.3848,18.2051,-0.76904,-0.25635,
-6.6665,5.1284,2.0513,-1.0259,10.2563,-5.6411,1.0259,-3.0771,-10.769,-1.0259,3.0771,9.231,1.0259,-3.5898,
-4.3589,6.4102,5.3848,5.3848,14.6152,-2.3076,1.2822,-1.7949,-15.1279,-6.9229,7.9487,5.8975,-1.2822,-10.5127,
-2.8206,9.4871,-0.76929,5.8977,19.2307,3.3333,0.76929,-3.8459,-11.5383,-6.4104,10.0002,13.0769,-2.8206,-6.9231,
-0.5127,15.3848,0,0,20,3.0771,1.0259,-1.5386,-13.8462,-2.564,5.6411,13.3335,-1.0254,-0.5127,
-4.8721,11.5381,3.333,-2.8208,20.2563,3.8462,0.25635,-0.25635,-17.6924,-1.2822,6.4102,10,-1.2822,-2.8208,
-3.0771,6.6665,6.6665,-1.0259,25.6406,8.2051,0,-2.0513,-10.2568,0,11.2817,13.333,-3.0771,-4.103,
-0.25659,9.4871,7.4358,-0.25659,32.051,9.4871,-2.3079,0.25659,-9.4871,-1.7947,5.3845,15.1282,-2.8206,-3.8459,
-6.9229,8.4614,3.3335,-6.4102,31.0254,6.4102,-2.8203,1.2822,-17.1797,-3.8462,0.76904,10.5127,-0.76904,-4.8716,
-6.4102,6.9233,-2.3076,-4.3589,29.4873,6.4102,0.76953,-1.7949,-16.1538,-0.25635,8.9746,8.9746,0.25635,-2.3076,
-3.0767,4.1025,-6.6665,-2.564,28.2051,5.6411,0.5127,-6.1538,-12.8203,1.0259,11.2822,9.7437,-0.5127,-3.5898,
-3.0771,-0.5127,0.5127,-3.0771,23.5898,2.0513,2.564,-4.6152,-9.231,-1.5386,10.769,11.7949,3.0771,-4.6152,
0,-2.564,1.5386,0,24.6152,-1.0254,2.0513,-6.6665,-8.2051,-1.0254,14.3589,11.2822,4.1025,-3.0771,
-1.282,-2.3074,-2.8206,-2.3074,30.5129,1.282,1.282,-7.9485,-10.5129,7.4358,13.0769,13.5896,1.7952,-1.282,
-8.4617,-1.282,-1.282,-2.8206,24.3591,3.3333,2.8206,0.25659,-11.5383,8.4617,4.8718,19.7434,-0.76929,-0.25659,
-10.2563,-1.5386,-4.6152,-1.5386,14.8716,1.0259,0,0,-13.3335,2.564,2.564,15.8975,1.5386,-3.0767,
-5.8975,-0.25635,-5.3848,-0.76904,20.2563,6.4102,0.25635,-2.3076,-13.0771,5.8975,11.0254,12.0513,11.0254,-3.3335,
-9.7437,-0.5127,-7.6924,-2.564,21.0254,3.0767,0.5127,-4.1025,-17.9487,6.1538,4.1025,14.3589,5.1279,-6.1538,
-7.436,3.8462,-8.9746,0.25635,20.2563,0.25635,4.3589,-1.2822,-13.5898,8.9741,-1.2822,19.7437,-0.25635,-2.3076,
-8.2051,0.5127,-11.7949,-0.5127,15.8975,2.564,1.5386,-3.5898,-14.8721,4.6152,0.5127,8.7178,-1.0259,-4.1025,
-8.9741,-4.3589,-3.8462,0.25635,14.6152,3.8462,0.76953,-3.8462,-16.1538,-0.25635,3.3335,4.3589,1.2822,-2.8203,
-9.7437,-8.7178,1.0259,1.5386,6.1538,-4.6152,0,-6.1538,-8.7178,0.51318,0.51318,7.6924,0,-6.1538,
-6.4104,-3.3333,-1.282,12.5642,2.3079,-4.8718,1.282,-5.8972,-1.7947,8.9744,5.3845,8.9744,3.3333,-8.4617,
-7.9487,-4.8716,-2.8203,9.4873,6.9233,-1.7949,1.7949,-3.8462,-7.9487,7.9487,6.4102,3.8462,4.8721,-2.8203,
-11.5386,-7.9487,1.2822,-0.25635,10,-3.8462,0.76904,-5.8975,-15.6411,2.8203,0.25635,1.7949,1.7949,-1.7949,
-6.1541,0.51294,4.6155,5.6409,10.2566,-1.0256,1.0256,-3.5896,-13.8459,5.6409,-1.5383,4.6155,-0.51294,-9.2307,
-5.3845,2.3079,2.3079,3.8459,4.3591,-0.25659,0.25659,-4.3591,-15.6409,5.8972,-3.3333,3.8459,-3.8459,-11.0256,
-7.436,-1.2817,0.76953,2.3076,5.3848,0.25635,2.3076,-5.8975,-15.6411,5.3848,-0.25635,6.9233,-0.25635,-0.25635,
-6.9233,-6.4106,-1.7949,3.333,5.3843,-0.25635,2.3076,-3.8462,-11.5386,2.8203,-0.76953,5.3843,0.25635,0.25635,
-3.0771,-7.6924,-3.0771,4.1025,1.5381,0,3.0767,-1.0259,-11.7949,3.5894,0,0,0,-5.1284,
-10.2566,-8.2053,-3.5901,4.6155,-1.0256,0.51294,2.5642,-0.51294,-15.3845,5.1282,2.5642,0.51294,4.1023,-3.0769,
-14.6152,-11.0254,-1.7949,3.3335,-1.2822,-2.3076,3.8462,-4.8716,-10.5127,5.3848,5.3848,4.8721,6.4102,1.2822,
-8.4614,-12.564,-0.76904,3.3335,0.76904,-4.3589,4.3589,-3.8462,-12.564,-1.2822,2.8208,4.3589,4.3589,2.3076,
-11.0256,-16.1536,-6.4104,3.8464,4.8718,-2.3079,4.3591,-0.25659,-19.7434,-6.4104,0.76929,0.25659,4.3591,1.282,
-15.6409,-17.6921,-8.4612,8.9744,8.9744,-2.3074,5.385,-1.282,-16.1536,-2.8206,1.282,1.7952,6.4104,2.8206,
-16.4102,-13.8462,-8.7183,3.0767,8.2051,-4.6157,1.0254,-5.6411,-16.4102,0,0,4.6152,3.0767,1.5386,
-10.2561,-11.7947,-3.0769,-1.5383,10.2566,-1.0256,7.1794,-0.51294,-16.4099,3.5901,4.1028,5.6414,8.2053,0.51294,
-6.667,-14.3594,-4.1025,5.1279,6.1538,-1.5386,5.6406,3.5894,-16.9233,0,-0.51318,0,12.8203,0,
-9.4873,-11.0259,-6.9233,8.9741,1.2817,-0.25635,-2.3076,5.3843,-13.5898,0.25635,-1.7949,2.8203,12.564,4.3589,
-12.5642,-10.5129,-8.9744,1.282,6.9231,0.76929,-2.3079,-0.76929,-15.6409,-3.3333,0.76929,2.8206,6.9231,3.3333,
-8.7178,-10.2563,-7.6924,2.0513,1.0254,-1.0259,0,0,-12.8203,-2.0513,6.1538,1.5386,7.6924,5.1284,
-13.5901,-16.1541,-1.282,7.4358,-13.9746,-5.8977,-3.8464,3.3333,-1.7952,4.8718,13.0769,1.282,13.0769,6.4099,
-14.8716,-20,4.1025,11.2822,-15.8975,-5.6411,-0.51269,-1.5386,0.5127,3.0771,15.8975,3.0771,13.8462,-1.5386,
-3.5898,-14.3589,2.564,5.1284,-0.89746,-7.1792,8.7183,-8.7178,-7.6924,-2.564,11.2822,4.6152,10.7695,-4.6152,
5.1282,-4.6155,1.0256,-1.5383,14.1025,-12.8206,14.8718,-6.1536,-12.3074,-2.5642,2.0515,3.0769,10.2566,-1.0256,
15.6411,10,-0.25635,7.436,29.1025,-15.6406,19.231,0.25635,-16.6665,-4.3589,-5.8975,-2.8203,7.9487,-5.8975,
30.6411,25,1.7949,10.5132,44.1025,-14.1025,28.4619,-1.7949,-24.3589,-12.0513,-10.5127,-10,5.8975,-10,
42.3079,40,6.9231,7.949,59.1025,-15.6409,41.282,-6.9231,-25.8972,-15.6409,-11.5383,-18.718,7.949,-8.4612,
54.6152,53.0767,10,9.4873,74.1025,-19.7437,52.564,-9.4873,-24.3589,-23.3335,-12.564,-23.8462,12.564,-12.564,
69.6152,65.6411,12.3076,5.6411,89.1025,-19.4873,55.8975,-5.6411,-25.6411,-29.231,-15.3848,-20,15.8975,-16.4102,
79.9998,76.9231,13.3333,5.1282,104.1025,-13.8464,58.4617,-5.1282,-26.1541,-25.6409,-16.4104,-19.4871,13.8459,-15.8977,
82.564,79.4873,12.3076,11.2822,119.1025,-15.8975,66.6665,-11.2822,-24.1025,-28.2051,-18.9741,-29.7437,11.7949,-20,
88.2053,83.0769,11.7947,12.3079,134.1025,-22.0515,68.2053,-8.2053,-23.0769,-33.3335,-21.5383,-27.6921,8.2053,-24.6155,
89.2305,83.0767,9.7437,6.1538,149.1025,-20,66.6665,-6.1538,-26.1538,-31.2822,-20.5132,-14.8721,7.1792,-17.436,
88.2053,83.0769,15.3845,6.6667,164.1025,-9.2307,72.3079,-7.1794,-15.8972,-17.9485,-8.718,-12.3079,18.4617,-6.6667,
75.1282,74.1023,15.1282,6.4104,179.1025,-19.7439,61.7947,-15.6414,-15.1282,-18.718,-6.4104,-26.4104,15.6409,-17.6926,
66.9233,63.8462,14.6152,5.8975,193.5898,-31.5386,54.6152,-15.6411,-15.1279,-19.231,-5.8975,-21.7949,13.5898,-19.231,
62.8206,54.6155,17.6921,5.3845,185.3845,-28.4617,56.1541,-11.5383,-11.5383,-13.0769,-5.3845,-14.1023,15.1282,-11.0256,
55.8975,50.769,17.9487,6.1538,170.3845,-23.5898,54.8716,-9.231,-11.7949,-8.7178,-6.1538,-16.4102,12.3076,-12.8203,
45.6414,44.1028,12.8206,4.6155,155.3845,-32.3074,49.2307,-11.7947,-13.8459,-8.718,-4.6155,-12.8206,9.2307,-14.3586,
38.7178,33.0771,10.5127,6.4102,140.3845,-43.8462,42.3076,-17.6924,-15.6411,-10,-6.4102,-8.4614,8.9746,-11.0254,
36.9229,25.6411,13.333,8.7178,127.1792,-44.1028,40,-14.3589,-16.9233,-8.2051,-8.7183,-11.7949,8.2051,-10.7695,
32.5642,22.8206,14.6155,7.4358,114.6155,-42.8206,43.3333,-10.5129,-17.1794,-7.4358,-7.4358,-8.4617,8.4617,-9.4871,
30.2566,19.9998,11.7947,6.6667,104.6155,-45.1282,43.0769,-13.8459,-14.3591,-11.282,-8.2053,-6.6667,9.7434,-9.7434,
33.0767,17.1792,15.6411,7.9487,104.3589,-42.3079,40.2563,-13.0771,-8.9746,-12.0513,-7.436,-11.5386,7.436,-11.5386,
28.718,14.8718,15.3845,6.6667,101.5383,-41.0256,36.9231,-11.7947,-9.7434,-8.718,-5.1282,-10.2561,5.1282,-11.7947,
23.3333,11.0256,11.5383,0.25659,94.6155,-44.3589,34.6155,-15.1282,-10.5129,-8.4617,-0.25659,-10.5129,12.5642,-14.6155,
22.564,4.6152,8.2051,-0.5127,87.1797,-50.2563,32.8203,-20,-13.3335,-15.3848,0.5127,-18.9741,15.8975,-16.9229,
19.4873,1.5386,0.5127,5.1284,83.0771,-50.2563,32.3076,-21.0259,-14.3589,-17.436,-0.5127,-17.436,12.8203,-15.3848,
16.1541,-0.25659,0.25659,0.76929,74.6155,-50,32.0515,-19.2307,-10.5129,-11.0256,3.3333,-8.9744,15.1282,-13.5896,
17.949,-1.0256,5.1287,1.0256,71.7952,-51.7947,32.3079,-14.3586,-9.2307,-9.2307,7.1799,-5.6409,20.0002,-12.3074,
17.1797,-2.3076,2.3076,4.8721,75.1284,-51.0256,31.0259,-14.6152,-12.564,-11.0254,5.3848,-3.8462,20.2563,-13.0767,
15.1282,-3.3333,3.3333,4.8718,67.949,-49.4871,31.5383,-16.1536,-10.5129,-8.9744,3.8464,-4.8718,16.1541,-12.5642,
11.5383,-2.8206,3.3333,4.3591,62.3079,-48.4617,28.9744,-15.1282,-13.0769,-11.0256,2.8206,-8.9744,9.4871,-15.1282,
7.6924,-1.5386,1.5386,2.564,68.2051,-43.0771,28.7178,-14.3589,-12.8208,-9.231,5.6411,-3.5898,12.3076,-13.8462,
7.6924,-5.1284,5.6411,3.5898,65.6411,-41.0256,29.231,-16.9229,-8.7178,-3.5898,7.1797,-5.1284,18.9741,-13.3335,
11.0256,-7.4358,10.5129,3.3333,56.1541,-46.4102,32.0515,-19.2307,-7.4358,-3.3333,8.4617,-9.4871,16.6667,-14.6155,
13.3335,-3.0771,8.2051,-0.5127,59.4873,-48.718,36.4102,-19.4873,-3.5898,0.5127,12.3076,-1.5386,14.8716,-13.3335,
5.1282,-4.6155,4.1023,-2.5642,59.9998,-46.1541,25.6409,-23.0769,-2.5642,2.5642,5.1282,-5.6414,13.8459,-16.9231,
1.0256,-7.1794,11.282,-1.5388,52.8206,-42.0515,18.9744,-19.4871,0.51294,-0.51294,2.5642,-17.4358,16.9231,-12.3079,
6.1538,-5.6411,10.2563,0,44.6157,-39.4871,22.0513,-16.4102,0,-7.1792,4.6157,-16.4102,16.4102,-9.2305,
10.0002,-4.8718,0.76929,3.8464,49.4871,-33.0769,25.3845,-14.6155,-0.76929,-2.3079,6.4104,-5.3845,17.6921,-8.9744,
3.0771,-8.2051,3.0771,-0.51269,53.3335,-33.333,22.5645,-16.4102,0.5127,-1.5386,6.667,-2.564,20,-9.7437,
6.6667,-4.6155,9.2307,1.0256,49.7434,-36.4104,23.5896,-13.8459,-1.5383,-8.718,9.7434,-1.0256,17.9485,-9.2307,
11.0259,-6.9229,3.3335,1.2822,42.8208,-36.1538,23.8462,-14.1025,-8.4614,-12.0513,4.8721,-1.2822,10.5127,-13.0767,
7.4358,-6.4104,0.76929,0.76929,42.8206,-34.1028,23.3333,-15.6409,-8.4617,-10.0002,2.8206,-0.76929,12.051,-17.6921,
3.3333,-1.7952,-0.76929,2.8206,43.3333,-37.1794,26.9231,-16.1541,-1.7952,-10.0002,4.8718,0.76929,16.6667,-11.5383,
3.0769,-6.1541,-5.1282,1.5383,41.0256,-40.5129,28.718,-19.4871,-1.5383,-8.718,2.0515,2.0515,14.3591,-6.1541,
6.1536,-5.1282,-0.51294,3.0769,48.718,-37.4358,28.718,-20.0002,-4.1028,-5.6414,5.6409,0.51294,12.3074,-10.2566,
6.6665,-2.0513,4.1025,2.0513,53.8457,-38.4619,27.1792,-20,-2.5645,-8.2056,13.8457,-3.5898,13.333,-14.8721,
4.3589,-3.8462,4.8716,0.25635,48.4614,-37.6924,26.9229,-19.7437,-0.25635,-4.8721,12.0513,-1.2822,13.5898,-13.5898,
4.3591,-3.8459,4.3591,-1.282,43.8464,-36.6667,26.4104,-19.7434,-2.8206,-0.76929,6.4104,0.76929,11.0256,-17.1794,
6.4102,0.25635,7.9487,-0.25635,47.436,-38.2051,25.8975,-16.1538,-1.2817,-3.333,8.4614,-2.8203,11.0259,-18.2051,
2.3079,-3.8459,11.0256,4.3591,43.3333,-39.7434,19.7439,-13.5896,-2.3079,-5.3845,6.4104,-5.3845,10.0002,-14.6155,
0.5127,-9.7437,11.7949,3.0771,29.7437,-37.9487,16.9233,-15.8975,-4.6152,-0.51269,1.5386,-3.0767,8.2051,-14.3589,
3.5896,-8.2053,12.8206,-0.51294,24.6155,-38.9744,21.5383,-19.4871,-4.6155,3.5896,0.51294,-1.0256,3.0769,-14.8718,
4.6155,2.051,11.7947,0.51294,31.7947,-34.8718,19.4871,-15.8977,-3.5901,-3.0769,-0.51294,-4.1028,2.5642,-10.2566,
5.6406,4.1025,11.7944,-0.51318,30.2563,-30.7695,16.9229,-10.7695,0,-5.6411,0,-3.5898,12.8203,-3.5898,
4.3589,-4.8716,10,-0.76904,18.2051,-41.282,17.1797,-14.6152,-0.25635,-1.7949,1.2822,0.25635,15.1284,-10,
2.3076,-3.8462,6.4102,1.2822,22.8203,-41.7949,18.7178,-14.1025,-1.7949,-2.8208,4.3589,-1.2822,10.5127,-16.6665,
-0.25635,1.2822,6.9233,0.25635,28.4614,-26.7949,18.2051,-10,-2.3076,-6.9229,6.9233,-4.8716,10.5127,-8.9741,
-4.1025,-1.0254,7.1797,0,13.8462,-11.7949,16.9233,-7.1797,0,-1.0254,10.2563,4.1025,14.3589,-1.0254,
-9.4871,-8.4617,4.3591,-3.3333,-0.25659,-11.5383,15.6409,-6.4104,0.25659,5.3845,14.1023,9.4871,13.0769,-2.3079,
-11.5386,-8.9746,-0.76953,-0.25635,4.3589,-6.9233,15.6406,-5.8975,-1.2822,3.333,17.1792,4.3589,16.1538,0.25635,
-16.1538,-13.5898,-0.25635,2.3076,-2.8208,-7.436,15.6406,-8.4619,-0.25635,0.25635,15.1279,4.3589,18.2051,2.8203,
-19.7437,-21.2817,6.4102,0.25635,-17.8208,-5.8975,13.5898,-6.9229,2.8208,-0.76904,13.0771,5.8975,13.0771,-0.25635,
-24.1023,-20.5129,0.51294,-0.51294,-32.8208,2.0515,3.0769,-4.6155,0.51294,-1.0256,11.282,5.6409,11.282,-2.5642,
-28.7178,-19.4868,-4.1025,0,-47.8208,1.5386,-2.564,-5.6411,1.5386,4.1025,14.8721,8.7183,14.8721,0,
-27.6924,-21.0259,0,0.5127,-56.9233,-4.6157,0,-8.7183,6.1538,5.6406,17.4355,6.6665,11.7944,-1.0259,
-22.8203,-24.8716,0.25635,-0.25635,-55.6409,-2.8203,1.2822,-8.9741,4.3589,6.4102,15.6411,9.4873,8.9746,-0.76904,
-20.769,-25.8975,1.7949,-1.2822,-57.6924,-2.8208,0.76904,-5.8975,-0.76904,5.8975,14.1025,21.2822,12.564,2.3076,
-22.051,-18.9744,6.6667,-1.5383,-56.4102,-7.1794,-1.0256,-6.6667,2.5642,2.0515,13.8464,21.0256,12.3079,1.0256,
-19.7437,-12.0513,7.436,-2.3076,-45.8975,-2.3076,-0.25635,-7.9487,14.1025,2.8203,17.1797,13.5898,14.1025,0.25635,
-17.1794,-12.5642,3.8464,-1.7947,-45.8975,3.3333,-0.76929,-4.8718,8.4617,0.76929,16.6667,14.6155,13.0769,-2.8206,
-17.4358,-12.3079,5.6409,1.0256,-52.3079,1.5383,-1.0256,-1.5383,-2.0515,3.5896,15.3845,23.0769,10.2561,-1.5383,
-23.0771,-16.4102,6.1538,-2.0513,-57.436,-5.6411,-2.564,-6.667,5.6411,8.7178,15.3843,23.0767,11.7949,2.0513,
-25.3845,-25.3845,0.25659,0.76929,-57.6924,-7.4358,-2.3079,-10.5129,13.5896,6.4104,16.1541,18.2053,14.6155,-0.25659,
-23.5896,-28.718,-4.6155,2.5642,-56.9231,-6.1541,-1.0256,-7.6926,11.7947,4.1023,15.3845,13.8459,12.8206,1.0256,
-24.6152,-25.1279,0,0,-55.3845,-4.1025,-1.5381,-3.0767,11.7949,12.3076,14.8721,15.8975,11.7949,9.231,
-26.9231,-25.8977,2.3079,-2.3079,-54.6155,-5.3845,-4.8718,-5.3845,10.5129,15.1282,15.1282,15.6409,11.5383,6.9231,
-21.2822,-26.4106,9.4868,-0.25635,-48.9746,-5.3848,-0.25635,-3.8462,12.564,12.564,14.6152,14.6152,15.1279,0.25635,
-23.3335,-23.3335,11.5386,-0.25635,-45.3848,-7.436,-0.76904,-6.4102,8.9741,4.3589,5.8975,14.6152,11.0254,0.25635,
-23.0771,-13.8462,8.2051,-2.0513,-41.5386,-6.667,-2.5645,-6.1543,7.6919,2.0513,7.1792,18.4614,9.2305,9.2305,
-19.4875,-12.8206,4.1023,-4.1028,-45.6414,-4.6155,-6.1541,-3.0769,8.7175,7.6921,10.7688,13.8459,9.2307,3.0769,
-20.2566,-10.0002,6.9231,0.76929,-46.9233,-3.3333,-3.8464,-0.76929,11.5383,14.615,11.5383,13.0769,13.0769,-3.8464,
-20.0002,-1.5388,6.6663,-1.0256,-41.5388,-3.5901,1.0256,-2.0515,11.282,15.3845,10.2561,21.0256,12.3074,-2.0515,
-15.8975,0.5127,1.5386,-4.1025,-41.0259,-0.5127,-1.5386,-1.5386,8.2051,14.3589,10.2563,20.5127,8.7178,-0.5127,
-18.2053,-6.9231,0.76929,-4.3591,-44.8718,-1.7947,-5.3845,-0.76929,9.9998,10.5129,8.4617,16.1541,8.4617,2.3079,
-15.3843,-8.7178,2.0513,-2.0513,-38.4614,-6.1538,-2.0513,-2.0513,9.231,11.2822,10.2563,24.1025,12.8208,7.6924,
-11.2822,-6.1538,-3.0771,-1.5386,-30.2563,0,-1.5386,1.5386,0,14.8716,13.8462,30.769,13.8462,8.7178,
-20.5129,-9.2307,-4.6155,-6.1541,-31.7952,4.6155,-4.1028,3.5896,-3.5896,6.1536,11.282,20.5129,11.282,4.1023,
-22.8208,-8.4619,-1.7949,-0.25635,-30.5132,0.25635,-2.8208,-0.25635,8.9741,0.76904,15.1279,14.1025,15.6406,3.8462,
-18.2051,-15.1279,-1.7949,3.3335,-34.1025,-8.4614,-8.4614,-4.3589,17.1797,6.4106,24.3594,10.5132,18.2051,1.7949,
-20.2563,-21.2822,0.25635,1.2817,-38.7183,-12.0513,-13.5898,-4.3594,16.1538,12.564,24.8716,10.5127,15.6406,-0.25635,
-22.3076,-10.5127,-0.76904,0.76904,-31.0259,-8.4614,-7.9487,-5.8975,14.1025,15.6411,18.2051,20.769,12.0513,1.7949,
-16.1538,-0.25635,-0.76904,0.25635,-25.8975,-0.76904,-0.25635,-4.8721,14.6152,16.6665,13.5898,25.3848,12.564,3.8462,
-15.6411,-3.8462,-1.2817,-0.76904,-28.4614,1.7949,-2.8203,0.25635,6.4102,5.8975,3.8462,15.6411,12.0513,-0.25635,
-18.4617,-6.6667,-5.6409,-3.0769,-24.1028,4.1028,-2.051,2.0515,-0.51294,3.0769,0.51294,17.4358,13.8459,3.5896,
-18.4614,-9.7437,-11.7949,-6.1538,-25.1284,1.5386,0,-4.6152,0,5.6411,1.5386,23.0771,9.231,6.6665,
-14.3591,-8.718,-13.3333,-0.51294,-24.6155,-1.0256,-1.5383,2.0515,2.5642,4.6155,0.51294,22.0515,4.1028,3.0769,
-15.6411,-10.5127,-17.1792,-3.8462,-25.3848,0.25635,-4.8716,6.9233,-0.25635,2.3076,2.8208,19.231,7.436,0.25635,
-18.4614,-13.8462,-14.3589,-6.6665,-28.7178,3.0771,-2.564,2.564,-4.1025,3.5898,7.1797,18.9746,13.8462,4.6152,
-18.9741,-11.7949,-7.6924,-0.5127,-26.6665,-2.0513,0.5127,2.0513,-2.0513,5.6411,8.2051,21.0259,14.8716,6.6665,
-19.7437,-10,-11.0254,-0.25635,-23.8462,-3.8462,-0.25635,3.3335,2.3076,4.8721,7.436,23.8462,11.0259,0.25635,
-20.0002,-11.7952,-14.8718,-0.51294,-26.6667,-2.0515,-3.5896,0.51294,0.51294,1.0256,4.6155,19.4871,10.7693,2.051,
-17.1797,-11.5386,-8.9746,0.76904,-27.9487,-3.3335,-1.7949,0.76904,0.76904,-0.76904,3.8462,14.6152,13.5898,10.5127,
-18.2048,-9.4871,-6.9231,0.76929,-26.9231,-2.8206,-0.76929,2.3079,0.76929,-0.76929,3.3333,13.0769,7.4358,5.8977,
-18.9744,-7.6926,-7.1794,0.51294,-23.0769,-1.0256,-0.51294,4.1023,-0.51294,2.5642,1.0256,14.8718,5.6409,3.0769,
-20.5127,-8.7178,0.51318,-1.5381,-23.0767,-4.6152,-3.5898,1.5386,0,4.6157,0,17.9487,10.7695,7.6924,
-21.5381,-7.1792,0,-1.0254,-30.2563,-6.6665,-5.6406,0.51318,0,2.5645,2.5645,17.9487,3.5898,8.2051,
-17.1792,-4.3589,0.25635,-1.2817,-30,-0.25635,-1.7949,3.8462,0.76953,1.2822,5.8975,16.1538,-2.3076,4.3589,
-16.9231,-6.6667,2.5642,-3.0769,-30.2566,-2.0515,-7.6921,1.5383,-1.0256,1.5383,2.0515,11.282,1.0256,2.5642,
-17.1794,-5.3845,-1.282,1.7947,-29.4871,-4.8718,-12.0515,2.3079,-2.8206,3.3333,1.282,15.6409,3.8459,6.4104,
-16.4102,-6.6665,-3.5898,2.0513,-28.7178,-5.6411,-4.6152,4.1025,1.5386,0,4.6157,18.4619,0,5.6411,
-17.1794,-7.949,-1.7947,5.3845,-29.4871,-6.4104,0.25659,-0.76929,3.3333,0.76929,9.4871,17.1794,-0.25659,2.3079,
-18.718,-6.9231,-5.3845,6.9231,-29.9998,-2.3079,-2.8206,-4.8718,2.3079,6.9231,11.5383,19.7439,2.3079,7.4358,
-21.0254,-10.769,-13.8462,1.5386,-29.231,-4.1025,-3.0771,-1.5386,7.6924,6.6665,12.8203,20.5127,1.5386,10.2563,
-20.5129,-13.3333,-17.9485,-1.5383,-27.6921,-8.2053,-0.51294,1.5383,12.3079,0.51294,14.8718,14.8718,2.0515,4.1028,
-17.4358,-6.1541,-13.8464,-3.0769,-24.1028,0.51294,-0.51294,3.0769,6.1536,-2.5642,15.3845,10.7693,3.5896,3.0769,
-18.7183,-0.25635,-14.6157,-4.8721,-20.7695,6.9229,-2.3076,1.2817,1.2817,-1.7949,10.5127,14.1025,0.25635,2.8203,
-18.718,-4.3591,-16.1536,-1.7947,-20.2561,-1.7947,1.282,-1.282,15.1282,7.949,16.1541,19.2307,4.3591,1.282,
-18.9744,-8.718,-13.3333,-1.0256,-22.0515,-6.6667,4.1023,-1.5388,17.9485,10.2561,21.0256,17.9485,8.718,1.0256,
-21.7949,-1.7949,-15.6411,-6.9233,-23.8462,7.436,-1.7949,2.3076,5.8975,5.3848,11.0254,17.6924,0.76904,-0.76904,
-28.9741,-0.25635,-20.769,-18.2051,-37.1797,16.6665,-12.564,0.25635,3.3335,2.8203,4.8716,15.1284,-5.8975,0.25635,
-28.9741,-0.25635,-11.5386,-13.5898,-52.1797,19.7437,-18.7178,0.25635,6.4102,0.25635,8.4614,11.0259,-3.8462,8.9741,
-24.8718,2.8206,-8.9744,-12.5642,-64.3589,21.7947,-22.3079,3.3333,3.8459,-2.8206,5.8972,6.9231,-4.3591,4.8718,
-25.8975,2.3076,-20.769,-19.7437,-64.3589,20.769,-25.8975,5.3848,1.2822,0.76904,0.76904,4.3589,-8.9741,-0.76904,
-24.6155,4.6155,-22.051,-16.9231,-56.4102,22.5642,-22.051,6.1541,-1.5383,2.0515,1.5383,6.6667,-10.7693,2.5642,
-21.0256,8.2048,-10.2566,-18.4617,-53.8464,27.1794,-12.8206,10.7693,-1.0256,1.0256,5.6409,13.8459,-8.2053,2.051,
-26.1538,2.564,-15.3848,-24.6157,-58.4617,22.564,-18.9746,9.2305,0,2.0513,3.0767,14.8716,-11.2822,0,
-28.9744,0.76929,-22.3074,-16.6667,-56.1538,20.7693,-22.8206,5.3845,-0.76929,5.8977,2.8206,19.2307,-11.0256,6.9231,
-28.4614,2.3076,-12.5645,-10,-57.6924,19.7437,-14.1025,3.8462,-2.3076,6.9229,5.8975,18.2051,-9.4873,6.9229,
-26.1536,3.0769,-7.1794,-8.718,-57.4358,16.4104,-11.282,7.1794,-1.0256,5.1282,5.1282,9.2307,-11.7947,1.0256,
-26.4102,5.8975,-13.5894,-11.0254,-52.0513,16.1538,-17.1792,6.4106,0.25635,2.3076,0.76953,7.9487,-15.1279,-0.25635,
-22.564,13.3335,-8.2051,-6.6665,-46.6665,22.0513,-12.8203,6.1538,1.5386,4.6152,4.6152,11.7949,-11.7949,-1.5386,
-21.2817,10.5132,-2.3076,-6.4102,-40.2563,22.3076,-10.5127,7.436,2.3076,2.8208,4.3589,10.5132,-11.0254,-5.8975,
-20.5129,6.1541,-3.0769,-11.7947,-34.8718,22.051,-11.7947,7.1794,4.1023,3.0769,3.5896,11.7947,-10.7693,-5.1282,
-17.949,11.7947,-6.6667,-10.7693,-38.9744,23.0769,-9.7434,3.5896,4.6155,5.1282,8.718,11.7947,-8.718,-3.5896,
-19.7434,10.5129,-8.4612,-9.9998,-41.282,22.3079,-9.9998,1.282,2.8206,0.76929,6.9231,8.4617,-11.5383,-0.76929,
-19.7437,9.4873,-11.0254,-8.4614,-32.564,22.3076,-11.5381,4.8721,-0.25635,0.76953,0.25635,12.0513,-13.5894,5.3848,
-16.1541,17.6921,-13.0769,-8.4617,-29.9998,24.8718,-10.5129,10.0002,-3.8459,4.8718,3.8459,17.6921,-8.4617,6.4104,
-14.6152,21.7949,-8.4614,-8.4614,-34.6152,26.9233,-5.8975,8.9746,-3.8462,6.9233,5.3848,15.1284,-6.9229,3.8462,
-12.0515,22.8206,-0.76929,0.76929,-31.5388,27.9485,-3.3333,12.5642,-3.8464,8.9744,-2.3079,14.6155,-11.0256,5.3845,
-10.7693,17.9485,1.5383,-1.5383,-33.3333,25.1282,-6.6667,16.9231,-8.2053,8.718,-7.1794,13.8459,-12.3079,5.6409,
-7.6924,12.8203,0,-2.564,-33.8462,29.2305,-3.5898,18.4614,-0.5127,11.7949,0,14.8716,-4.1025,10.2563,
-14.8718,8.2053,-9.7434,-2.051,-33.3333,24.6155,-4.6155,9.7439,1.0256,6.6667,-1.0256,8.2053,-7.6921,4.6155,
-17.1794,7.4358,-8.9744,-2.3079,-32.0515,17.6921,-4.3591,12.0515,-1.282,4.8718,2.3079,8.9744,-11.0256,1.282,
-16.1538,1.7949,-6.4102,-1.7949,-35.1284,19.7437,-4.8721,15.1279,-2.8208,7.9487,7.4355,16.6665,-8.4619,9.4868,
-13.8464,1.0256,-5.6414,-1.0256,-38.9744,25.1282,-4.6155,12.8201,-1.0256,12.3074,8.7175,15.8972,-5.6414,12.8201,
-10.5127,8.9741,-6.9229,0.76904,-37.6924,24.3589,-4.8716,14.6152,-2.8203,10.5127,6.9229,10.5127,-8.4614,-0.76904,
-7.436,14.1025,-11.5386,0.76904,-27.9487,25.8975,-2.3076,16.1538,-3.3335,11.5386,7.436,18.2051,-8.9746,-0.76904,
-16.6665,3.8462,-24.3589,-6.9229,-34.6152,19.7437,-5.3843,4.8721,-3.8462,11.0259,3.8462,17.6924,-9.4873,8.4614,
-20,2.564,-22.564,-2.564,-46.6665,17.9487,-9.231,7.1792,-3.5898,10.2563,4.6152,17.436,-7.1797,9.7437,
-17.6926,2.8206,-17.6926,-2.8206,-46.9231,21.282,-10.5129,13.0769,-5.3845,8.9744,5.8972,19.7434,-8.4617,3.8459,
-17.4358,1.0256,-20.5129,-6.6667,-41.5383,18.4617,-7.1794,9.7434,-1.0256,8.718,5.6409,19.4871,-10.2566,3.5896,
-20.2566,0.76929,-20.7693,-5.3845,-45.8977,12.051,-7.4358,8.4617,-0.76929,8.9744,2.8206,18.718,-9.4871,2.3074,
-17.9485,1.0256,-10.7693,-1.0256,-44.615,17.4363,-4.1023,16.4104,-2.051,11.282,6.1541,23.0769,-4.615,5.6414,
-18.9746,-1.5386,-10.2563,1.5386,-40.5127,15.3848,-4.1025,12.8203,-4.6152,8.2051,7.6924,18.9741,-4.1025,8.2051,
-21.0256,-2.0515,-8.718,1.5383,-42.5642,12.8206,-2.5642,7.1794,-1.5383,7.6921,3.0769,17.4358,-3.0769,9.2307,
-16.6665,0.76904,0.25635,-0.25635,-39.7437,18.7178,-2.3076,11.5386,-0.76904,5.8975,-1.7949,23.8462,-2.3076,8.4614,
-12.8208,4.1025,-1.5386,-0.51269,-29.7437,22.0513,-2.0513,16.9229,-5.1284,0.5127,4.1025,24.6152,-3.5898,4.6152,
-16.4104,-0.51294,-5.1282,-4.1023,-30.7693,18.4617,1.0256,14.3591,-6.1536,0.51294,6.1541,13.8464,-5.1282,3.0769,
-15.6411,1.2822,-1.2822,-1.2822,-31.0259,21.2822,4.3589,15.1284,-7.9487,8.4614,-2.3076,12.0513,-3.8462,10.5127,
-17.4355,4.1025,-9.2305,-1.5381,-25.1279,24.1025,0,15.8975,-8.7178,10.7695,-2.0513,19.4873,0,12.8208,
-20.5132,-2.0513,-13.8462,-4.1025,-25.6411,20.5127,-2.0513,13.8462,-4.1025,8.7178,4.1025,17.9487,2.0513,7.6919,
-18.9746,-3.0771,-14.3594,0,-29.231,21.0254,-3.0771,12.8203,-2.5645,10.2563,1.5381,16.9229,0,7.6919,
-16.4102,-1.0254,-18.4614,1.5386,-30.2563,21.5386,-2.564,14.3589,-2.0513,10.7695,0,23.5898,0,9.7437,
-17.1792,-3.8462,-15.6411,-0.25635,-28.4614,18.2051,-0.76904,16.1538,-0.76904,7.9487,2.3076,23.3335,0.25635,7.436,
-19.2307,-2.3079,-9.4871,-3.8459,-25.3845,14.6155,-1.7947,12.5642,-1.7947,7.9485,2.8206,18.2053,1.7947,6.4104,
-17.9487,-2.0513,-9.7437,-6.1538,-30.769,9.231,-4.1025,8.2051,-6.1538,4.1025,2.0513,15.3848,3.0771,7.1797,
-15.8972,-4.615,-5.6409,3.0769,-35.3845,6.6667,-1.0256,10.2566,-6.1536,-3.0769,1.0256,16.9231,1.5388,9.2307,
-17.4358,-3.0769,-0.51294,9.7434,-31.7952,11.282,1.5383,13.3333,-1.0256,-3.0769,0.51294,20.5129,-0.51294,12.8206,
-17.6924,3.3335,-5.8975,7.436,-29.4873,14.6152,-0.76904,14.6152,-2.8208,-2.3076,0.25635,20.2563,-0.25635,7.436,
-16.1538,6.9229,-10.5127,3.3335,-26.4102,14.6152,-2.3076,14.1025,-8.4614,-0.25635,-4.8716,18.7178,0.25635,0.25635,
-17.6924,3.333,-9.4873,-0.25635,-27.436,13.0767,0.25635,13.0767,-7.436,2.8203,-8.4614,18.7178,-1.7949,5.8975,
-19.7437,1.2822,-8.9741,2.3076,-26.9229,14.1025,-0.25635,11.0259,-4.3589,0.25635,-3.8462,17.1797,-0.25635,9.4873,
-18.4617,0.51294,-8.718,1.0256,-23.0769,16.4104,-2.0515,9.7434,-4.6155,-2.0515,-0.51294,12.8206,4.1023,4.6155,
-13.8462,4.1025,-6.6665,-0.51269,-20,16.9233,0.5127,12.8203,-6.1538,-0.51269,-3.0767,14.3589,2.564,6.6665,
-11.5386,8.9741,-10.5127,1.7949,-19.231,17.6924,2.8203,16.1538,-5.3848,-1.7949,-5.3848,22.3076,-2.3076,13.5898,
-15.6409,4.3591,-14.1023,1.282,-23.3333,19.2307,1.282,13.0769,-3.8459,-2.8206,-3.8459,23.3333,-1.282,11.0256,
-14.6152,5.8975,-11.0254,2.3076,-25.8975,17.6924,0.25635,9.4873,-6.9229,-2.3076,-3.8462,19.7437,-0.25635,7.436,
-9.231,15.8975,-8.2051,-0.5127,-20,15.3848,3.0767,13.8462,-8.2051,-4.6152,-4.1025,15.3848,0.5127,10.2563,
-9.7439,13.3333,-13.3333,-4.1028,-14.8718,13.8459,2.051,12.8206,-4.6155,-5.1282,-1.5383,14.8718,1.5383,6.6667,
-14.1025,-0.76904,-19.231,-0.76904,-19.231,7.436,1.2822,6.4102,-0.25635,-2.3076,8.4614,19.7437,5.8975,0.25635,
-19.4873,-10.2563,-15.3848,1.0259,-29.7437,-5.1284,3.0771,3.5898,1.0259,-6.6665,14.3589,13.3335,7.1797,-1.0259,
-21.7952,-10.5129,-13.0769,3.3333,-34.1028,-6.4104,1.282,4.8718,-0.76929,-8.9744,8.9744,4.3586,4.8718,0.76929,
-21.0259,-8.2051,-15.3848,0.5127,-29.7437,4.6152,-0.5127,3.5898,-0.5127,-3.5898,1.5386,9.7437,8.2051,2.0513,
-20.769,-5.8975,-11.5386,-2.3076,-23.8462,10.5127,0.25635,0.76953,1.2822,-0.25635,-0.76904,16.1538,11.0259,0.76953,
-21.0256,-1.5388,-10.2566,1.5383,-21.0256,7.6921,1.0256,6.1536,-6.6667,-3.5901,-1.0256,13.3333,3.0769,6.1536,
-20.5127,0,-11.2817,1.0259,-23.0767,8.7183,3.0771,10.7695,-8.7178,-3.0767,-3.5898,9.7437,0,12.3076,
-21.282,0.76929,-9.9998,-2.8206,-27.4358,14.1028,1.282,4.3591,-5.3845,-0.76929,-7.9485,5.3845,2.8206,3.8464,
-15.8975,3.5898,-8.2051,-2.0513,-19.4873,13.8462,1.5386,4.1025,-8.2051,-0.5127,-5.6411,6.1538,2.0513,0.5127,
-8.9746,5.8975,-9.4873,-0.25635,-7.436,15.1279,11.0254,12.564,-10.5132,-1.2822,-2.8208,12.0513,0.25635,6.9229,
-13.5901,7.9485,-7.949,-3.8464,-13.5901,19.2307,15.6409,12.051,-6.9231,-0.76929,-4.3591,11.5383,0.76929,7.9485,
-21.7947,8.4617,-1.7947,-11.0256,-20.2561,18.718,7.949,5.3845,-2.3074,-1.282,-4.8718,4.8718,1.282,3.3333,
-16.6665,8.4614,-1.7949,-6.9233,-10.5127,17.6924,4.3589,7.9487,-6.4102,-0.76904,-5.8975,6.4102,2.8203,0.76904,
-11.5383,5.3845,-5.8972,-4.3591,-10.5129,15.1282,8.9744,8.9744,-10.5129,-0.76929,-7.9485,10.0002,0.76929,1.7952,
