"AF3","AF4","F3","F4","F7","F8","FC5","FC6","O1","O2","P7","P8","T7","T8",
12.3076,-23.0767,-12.3076,11.7949,21.5386,-26.6665,-1.5386,9.231,0.5127,-8.2051,2.564,-0.5127,18.9746,-0.5127,
16.9233,-20.5127,-7.1792,19.4873,17.9487,-31.7949,0.5127,8.2051,0.5127,-5.6411,-1.5386,-0.5127,17.9487,-2.0513,
16.1538,-16.1538,-7.9487,17.1792,14.1025,-30.5127,-0.25635,6.4102,-3.3335,-6.9233,-7.436,0.76904,20.769,0.25635,
11.5383,-14.6155,-13.5896,13.5896,13.0769,-23.3333,1.282,5.8977,-5.3845,-7.4358,-13.0769,-1.282,22.8206,2.8206,
15.8972,-9.7439,-12.3079,12.3074,19.4871,-24.1028,5.6409,13.3333,-6.1541,-6.1541,-9.2307,-1.0256,21.5383,1.0256,
19.2307,-5.3845,-10.5129,11.0256,16.6667,-25.8977,-0.76929,14.6155,-9.4871,-8.9744,-5.3845,0.76929,18.2048,0.76929,
17.1794,-1.7947,-9.9998,14.6155,15.1282,-18.718,-3.8459,14.1028,-5.8972,-6.4104,-5.3845,1.7947,20.2566,5.3845,
12.5642,-3.8464,-7.949,14.1023,21.282,-18.718,2.8206,15.6409,-4.8718,-7.4358,-7.4358,-2.8206,22.3074,4.8718,
16.9233,-4.1025,-4.6152,16.4106,22.0513,-21.0254,2.0513,18.4619,-6.6665,-10.769,-4.6152,-2.0513,23.5898,6.1538,
17.6924,-5.8975,-5.8975,16.6665,7.0513,-18.2051,-4.3589,14.6152,-5.8975,-10,-5.8975,4.3589,22.3076,5.3843,
14.1028,-8.9744,-9.9998,14.6155,3.8464,-18.718,0.25659,11.5383,-11.5383,-10.5129,-10.5129,5.8977,17.6921,-0.25659,
16.6667,-10.5129,-7.9485,18.718,18.8464,-23.3333,1.7947,16.1541,-10.5129,-11.0256,-7.4358,-0.76929,21.282,0.76929,
20.2563,-11.5386,-1.2822,19.7437,24.3589,-20.2563,-0.25635,19.7437,-1.2822,-7.436,0.25635,-1.7949,32.0513,4.8716,
18.718,-12.5642,-4.3591,19.7434,19.7434,-18.2053,5.3845,17.6921,-3.8464,-13.0769,-3.3333,-0.76929,26.4099,0.76929,
20,-12.3076,-7.6924,20,21.5386,-20,3.5898,16.4102,-8.7178,-13.8462,-8.2051,-0.5127,14.3589,0.51269,
22.0513,-12.8203,-5.1279,17.9487,16.9233,-23.5898,-4.1025,14.3589,-5.1279,-6.6665,-6.6665,4.1025,13.8462,6.6665,
13.8462,-17.9487,-7.6924,13.8462,1.9233,-32.3076,-1.5386,8.2051,-7.6924,-15.8975,-8.7178,2.0513,15.8975,6.6665,
15.1282,-14.6155,-8.9744,12.0515,3.8464,-29.9998,7.4358,10.0002,-9.4871,-20.2566,-8.4617,2.3079,18.718,-2.3079,
27.436,-4.3589,-5.8975,20.2563,15.6411,-19.7437,3.8462,14.6152,-4.8721,-6.9233,-3.8462,8.4614,21.7949,-5.3848,
24.6152,-3.0771,-2.0513,21.5381,10.769,-21.0259,-2.5645,11.7949,-3.0771,-5.1284,-4.1025,7.1792,23.5894,2.0513,
18.2053,-5.3845,0.25659,13.0769,4.8718,-25.8972,-0.25659,10.0002,-8.9744,-18.2053,-8.9744,-1.282,17.1794,2.3079,
25.6409,0.51294,-0.51294,16.9231,8.2053,-20.5129,6.6667,14.3591,-7.6921,-21.5383,-1.0256,-2.5642,14.3591,-6.6667,
23.8462,-1.7949,-4.3589,19.7437,6.9233,-17.6924,1.7949,14.6157,-1.7949,-19.7437,5.8975,-2.8203,22.8208,-5.8975,
19.4873,-3.5898,-3.5898,22.0513,8.7178,-17.436,-3.0771,14.8716,0,-18.4614,0,-1.0259,31.7949,8.7178,
20,-3.0767,-3.5898,18.4614,9.7437,-21.5386,2.564,10.7695,-8.7178,-22.564,-8.2051,-2.564,24.6157,6.1538,
21.0256,-4.6155,-3.5896,15.3845,11.282,-23.0769,7.1794,10.2566,-5.6409,-22.5642,-0.51294,0.51294,19.4871,-1.5383,
15.3845,-8.718,-9.2307,16.4104,6.6667,-22.5642,-4.1023,9.2307,-3.5896,-24.1023,1.0256,4.1028,20.0002,-1.0256,
17.949,-10.2561,-9.7434,17.949,4.1028,-20.5129,-5.1282,9.7439,-3.5896,-26.6667,-1.0256,4.1028,25.6414,1.0256,
20.769,-10,-5.8975,16.1538,7.436,-21.2822,-2.3076,10,-0.76904,-21.7949,3.8462,0.76904,27.9487,-1.7949,
18.4614,-7.6924,-4.1025,13.8462,13.8462,-16.4102,-5.6411,8.7183,-1.5386,-11.7949,5.6411,0.5127,22.564,-0.5127,
16.4099,-8.2053,-7.6926,12.3074,11.7947,-15.3845,-1.5388,8.2048,-9.7439,-10.7693,-1.0256,2.051,16.9231,1.0256,
15.3845,-9.2307,-11.7947,12.8206,5.6409,-21.0256,1.5383,6.1541,-13.3333,-10.2566,-8.718,5.1282,23.0769,-1.5383,
16.9233,-4.6152,-9.7437,13.8462,5.1284,-16.4102,-6.6665,5.6411,-1.5386,-2.0513,-6.6665,12.3076,32.8208,1.5386,
15.8972,-4.1028,-8.718,13.3333,1.0256,-13.8464,-11.282,6.6667,-1.0256,-3.5901,-5.6414,14.3586,26.6667,3.5896,
18.718,-3.3333,-8.4617,17.1794,4.3591,-11.5383,-1.7947,13.0769,-7.9485,-6.4104,-4.8718,12.5642,23.3333,1.7947,
20.2566,-0.76929,-6.9231,18.2053,8.4617,-10.5129,0.25659,14.6155,-0.25659,-5.8972,-3.3333,10.0002,28.9744,-1.7947,
15.3845,-5.6409,-8.2053,16.9231,2.5642,-18.9744,-9.7434,5.1282,3.0769,-10.7693,-7.1794,6.1541,22.5642,-2.5642,
19.4873,-9.7437,-2.564,18.9746,0.5127,-22.564,-3.0767,5.6411,-0.5127,-12.8203,-4.1025,9.231,22.564,5.1284,
20.2566,-8.4617,-2.3079,20.7693,0.25659,-18.718,1.7947,9.4871,-5.8972,-17.6921,-1.282,0.76929,29.4871,-0.25659,
22.3079,2.3079,-3.8459,26.4104,5.8972,-10.0002,-1.282,11.5383,-0.76929,-12.5642,0.76929,-0.76929,32.0515,-0.76929,
18.4617,-0.51294,-8.2053,18.4617,3.0769,-13.3333,-8.718,7.1794,-4.6155,-12.3079,-5.1282,0.51294,24.1023,2.051,
17.4358,-1.0256,-6.6667,17.9485,1.5383,-13.3333,-5.6414,10.7693,-8.2053,-13.8464,-6.6667,1.0256,24.1023,3.5896,
16.9233,0,-4.6152,20.5127,0,-16.9229,0,11.2822,-2.0513,-13.8462,-4.1025,-1.5386,27.6924,1.0259,
18.7183,-3.8462,-2.8203,24.8721,-1.2817,-17.6924,-0.25635,10.5127,2.8208,-11.0254,-0.76904,0.25635,32.564,1.7949,
19.9998,-4.6155,-3.0769,27.1794,1.0256,-10.2566,-1.0256,12.3079,-1.5383,-10.7693,-2.0515,2.5642,35.8972,4.1023,
17.6924,-1.7949,-7.4355,19.231,5.3848,-10.5127,-3.333,6.4102,-4.8716,-11.0254,-4.3589,1.7949,31.5386,2.3076,
19.4873,1.0259,-6.6665,23.0771,2.0513,-18.9741,-4.6152,2.0513,-3.5898,-12.8203,-1.5386,0,27.1797,0,
21.5386,-2.564,-4.1025,26.6665,0,-22.0513,5.1284,7.6924,-3.5898,-19.4873,0,-4.1025,36.4102,1.0259,
17.1797,-5.8975,-8.4614,17.1797,10,-18.2051,7.9487,6.4102,-0.25635,-22.3076,-3.8462,-6.9229,42.8208,0.25635,
11.5388,-5.8972,-4.8718,21.282,2.8206,-19.2307,0.76929,6.4104,8.4617,-17.6921,-1.282,-2.8206,40.2566,-0.76929,
9.4871,-14.6155,-0.76929,26.9231,-12.1794,-28.9746,-2.3079,7.4358,5.3845,-15.1282,4.3586,-1.7952,35.1282,0.76929,
12.0515,-15.6409,-6.9231,22.3079,0.25659,-28.9744,2.8206,3.3333,-4.3591,-16.6667,-0.25659,-3.3333,31.0256,0.25659,
19.231,-3.3335,-5.3848,22.3076,15.2566,-23.8462,13.0771,3.3335,-0.25635,-16.1538,-0.76904,0.25635,35.1284,-1.7949,
21.7949,-3.8462,-0.25635,22.8208,30.2566,-38.8462,17.1797,0.25635,-0.25635,-16.6665,1.7949,-4.3589,35.1284,-1.2817,
23.3333,-8.9744,0.76929,25.8972,45.2566,-53.8462,19.2307,-3.3333,-4.3591,-15.1282,2.3079,-8.9744,35.1282,-0.76929,
28.4617,-6.9231,1.282,26.4104,60.2566,-49.4873,20.2566,-4.8718,-1.282,-13.0769,3.3333,-4.3591,42.3079,-2.8206,
30,-3.8462,-0.25635,24.8716,75.2566,-52.0515,19.2305,-4.8721,0.25635,-19.231,2.3076,-6.9233,43.8462,-2.8208,
29.7437,0.5127,-2.0513,24.6152,84.1025,-57.4358,17.9487,-3.5898,-0.51269,-21.0254,2.0513,-8.2051,42.0513,-2.564,
27.6926,3.5901,-2.5637,22.0515,82.0515,-51.7947,18.9744,-4.1023,-1.0256,-16.9231,1.0256,-7.1794,42.5642,-3.5896,
26.4104,3.3333,-2.8206,25.3845,78.2053,-45.3845,19.2307,-5.8972,0.76929,-14.1023,-0.76929,-8.9744,41.282,-2.8206,
27.9487,4.8716,-0.76904,26.4102,76.6665,-44.8718,16.6665,-4.8716,0.76904,-13.0771,-1.7949,-6.9233,33.0767,-1.2822,
30.5129,7.4358,0.25659,25.3845,73.5896,-47.9487,13.5896,-0.25659,-2.8206,-13.0769,-2.8206,-3.3333,31.5383,-2.3079,
30.2561,8.2048,-0.51294,26.6667,74.8718,-49.231,18.4617,0.51294,-0.51294,-9.7439,-0.51294,-5.6409,43.0769,-3.0769,
25.8975,5.3848,-3.3335,23.8462,73.0771,-47.4358,22.8203,-2.8203,-0.25635,-8.4614,0.25635,-11.0259,46.4102,-3.8462,
28.718,8.718,-2.051,27.1794,68.718,-43.5896,20.5129,-0.51294,-3.5896,-10.7693,0.51294,-8.2053,43.0769,-1.5383,
29.7437,8.2051,0,26.6665,64.6152,-47.6924,14.8716,0,-1.0259,-13.8462,-0.5127,-7.1797,45.6411,-2.0513,
26.4104,6.4104,-2.3079,23.3333,65.3845,-46.9231,17.1794,-1.7947,1.7947,-12.5642,-2.3079,-5.3845,46.4104,-4.3591,
25.8975,9.4873,-3.3335,22.3076,70,-38.2051,21.7949,-0.25635,-1.7949,-5.8975,0.25635,-1.7949,38.7178,-0.76904,
21.0256,2.0515,-4.1023,15.8977,64.6155,-43.5896,13.8464,-4.6155,-0.51294,-5.1282,0.51294,-4.1023,34.8718,-2.051,
23.3333,-2.8206,-2.3074,23.3333,59.2307,-49.4871,12.0515,-8.4612,7.4358,-1.282,1.282,-1.282,43.8464,-2.8206,
27.9487,-2.3076,-1.7949,26.4102,56.6665,-47.4358,17.6924,-6.9229,3.8462,-1.7949,1.2822,-1.2822,46.4102,-1.2822,
25.3843,-2.3076,0.25635,21.7949,54.1025,-46.4104,16.1538,-0.76953,-1.2822,-2.3076,1.7949,-2.3076,45.8975,-0.25635,
22.0513,-5.6411,-1.5386,23.0771,48.7178,-51.7949,12.3076,0,0,-2.0513,2.0513,-2.564,46.1538,-1.0254,
22.0513,-7.6924,-4.6152,25.6411,46.6665,-51.7949,13.8462,-1.0259,0.5127,-5.6411,1.5386,-6.1538,46.1538,-0.51269,
22.3076,-3.3335,-0.25635,26.9229,44.8716,-44.8718,15.6411,4.3589,-1.2822,-6.4102,-0.25635,-7.9487,44.8716,0.25635,
18.7178,-2.8203,-1.2822,20.2563,37.1797,-44.8718,11.0259,1.7949,-4.3589,-9.4873,-4.8716,-7.9487,40.2563,1.2822,
21.5386,0.5127,-1.5386,22.0513,44.6152,-41.0256,13.8462,-0.5127,-2.564,-13.8462,-2.0513,-3.0767,43.5898,8.2051,
21.0254,-0.5127,-4.1025,21.5386,45.6411,-40,13.3335,0.5127,-5.6411,-17.9487,-4.1025,-4.6152,41.5386,7.1792,
17.6924,-2.3076,-5.3843,16.1538,38.7183,-40.2563,12.0513,2.3076,-7.4355,-14.1025,-5.8975,-8.4614,38.2051,2.8208,
17.9485,0.51294,-4.6155,19.4871,41.5383,-33.8462,10.2566,0.51294,-8.718,-17.949,-5.6409,-10.7693,41.5383,-0.51294,
20.5129,2.0515,-1.5383,23.0769,46.6667,-28.2048,12.3079,1.0256,-8.7175,-23.5896,-2.5637,-7.1794,46.1541,-1.0256,
20.2563,-0.25635,-1.2822,19.231,43.8462,-33.5898,16.6665,0.25635,-6.4102,-23.3335,-2.3076,-7.9487,45.3848,1.2822,
16.9229,-2.564,-0.5127,24.6152,44.1025,-38.9744,15.8975,0,-0.5127,-24.6152,0,-13.8462,45.6411,3.0767,
12.0513,-15.1284,0.76904,24.8716,39.231,-46.9231,12.0513,-5.3848,-0.76904,-27.436,6.4102,-19.7437,47.436,-3.3335,
14.6152,-14.6152,1.7949,24.8716,33.0771,-47.9487,14.6152,-5.8975,-1.7949,-18.7178,9.4873,-16.1538,44.8716,-4.8716,
15.8972,-4.1028,0.51294,23.0769,37.9485,-40.5129,16.9231,-2.5642,-0.51294,-10.7693,3.5896,-8.2053,41.0256,-1.0256,
14.6152,-0.25635,1.2822,22.3076,42.8203,-38.2051,16.1538,0.25635,-1.7949,-13.0771,-0.76904,-7.9487,43.3335,-0.76904,
17.1794,1.282,-1.282,24.8718,44.8718,-39.2307,12.5642,2.8206,-6.9231,-19.2307,-4.3591,-15.1282,43.8459,-2.3079,
15.6411,1.2822,-7.436,16.1538,44.8721,-34.6152,7.9487,-1.2822,-10,-16.6665,-9.4873,-14.1025,37.1797,2.3076,
14.6155,-0.25659,-5.3845,17.1794,40.7693,-25.8972,8.4617,0.25659,-5.3845,-4.3591,-5.3845,-0.76929,37.6921,15.6409,
12.3076,-4.6152,-4.6152,20,32.3076,-26.6665,5.1284,1.5386,-4.6152,-5.6411,-3.5898,-1.5386,40,12.8208,
13.8464,-3.0769,-4.1023,18.4617,34.3591,-25.6409,9.2312,3.0769,-3.5896,-9.2307,-4.615,-3.0769,37.949,9.2312,
12.564,-2.8203,-4.8716,18.7178,30.5127,-30,12.564,2.8203,-5.8975,-11.5386,-4.3589,-4.8716,34.1025,10.5127,
12.3079,-3.5896,-5.6409,16.4104,25.1282,-34.8718,8.718,3.5896,-8.718,-16.9231,-3.5896,-6.6667,41.5383,6.6667,
14.1028,3.3333,-5.3845,16.6667,33.5896,-27.4358,6.9231,0.25659,-7.9485,-20.2566,-2.8206,-5.8972,45.3845,-0.25659,
18.9741,12.8203,-3.5898,23.5894,43.5894,-18.9746,13.8462,0,-4.1025,-16.4106,-0.51318,-3.0771,44.1025,0,
14.8718,12.3079,-4.6155,20.5129,36.9231,-25.6409,12.3079,2.5642,-5.6409,-18.9744,-2.5642,-5.6409,40.0002,-4.6155,
11.7949,10.2563,-6.1538,17.9487,29.7437,-32.3076,5.1284,4.6152,-8.2051,-18.4614,-6.6665,-8.7178,30.2563,-4.6152,
10,6.4106,-8.4614,14.6157,24.3594,-30,5.8975,-1.7949,-10.5127,-17.6924,-10.5127,-11.5381,21.7949,1.7949,
11.282,3.0769,-7.6926,15.3845,21.5383,-27.1794,4.615,-3.0769,-6.1541,-20.0002,-9.2307,-7.6926,28.718,3.5896,
9.7439,0.51294,-2.5642,22.0515,20.0002,-32.3076,-4.1023,2.0515,-2.051,-17.4358,-6.6667,-0.51294,33.8464,1.0256,
6.6667,-0.51294,-0.51294,22.5642,19.4871,-32.3079,0.51294,1.0256,-4.1028,-11.7952,-6.1541,-0.51294,26.6667,2.5642,
9.7439,-0.51294,-2.5642,21.0256,15.3845,-30.2561,12.8206,0.51294,-7.1794,-17.4358,-6.1536,-7.6921,23.5896,0.51294,
11.0259,-0.76904,0.76904,20.769,13.0771,-34.1025,9.4873,3.3335,-4.3589,-24.3589,-2.8203,-7.9487,28.9741,-4.3589,
5.8975,0.25635,1.7949,22.3076,14.6157,-36.1538,-0.25635,0.76953,-3.8462,-20.2563,-2.3076,-3.333,29.4873,-4.8716,
6.4102,-0.25635,-1.2822,26.4102,16.6665,-34.1028,1.2817,0.25635,-2.8208,-14.6157,-0.76953,-3.3335,25.8975,4.3589,
11.0254,-2.8203,-1.2822,22.3076,12.564,-35.1282,0.76904,4.8716,-1.2822,-17.6924,-0.76904,-10,20.769,6.9229,
12.0515,1.282,7.4358,19.2307,3.3333,-31.5386,-4.3591,8.9744,-4.8718,-18.2053,-5.3845,-8.9744,21.7947,-1.282,
12.8203,6.6665,12.3076,21.0254,0,-22.564,-2.0513,9.7437,-3.0771,-11.7949,-3.0771,-0.5127,29.2305,0,
8.7183,0,0,18.4619,1.0259,-24.1025,-4.6152,5.6411,-2.564,-15.3843,-2.0513,-5.6406,23.5898,3.5898,
9.2305,-6.1538,-0.51269,22.564,10.2563,-29.7437,4.6152,6.1538,-2.564,-17.9487,-0.51269,-8.7183,20,0.5127,
7.436,-11.5386,8.4614,19.7437,6.9233,-40.769,11.5386,2.3076,-3.8462,-18.2051,-2.3076,-5.3843,23.8462,-7.4355,
8.9744,-2.8206,11.0256,23.8459,5.8972,-35.6411,1.7947,2.8206,-3.8459,-19.2307,-2.8206,-1.7947,28.9744,-3.3333,
12.8208,-0.5127,9.231,28.7178,5.1284,-36.4102,-4.6152,1.5386,-0.5127,-18.9741,-0.5127,-4.1025,29.231,0.5127,
9.7437,-12.3076,5.1279,24.6152,-1.5386,-51.2822,1.0254,-2.0513,0,-13.3335,1.0254,-6.1538,28.2051,0,
5.3848,-6.9229,4.8716,22.8203,-3.8462,-36.2822,1.7949,1.7949,-3.3335,-10.5127,-1.7949,-2.8203,28.9741,3.3335,
3.8459,2.8206,5.8972,19.7434,-17.1794,-21.2822,-6.9231,8.9744,-2.8206,-18.2053,-5.3845,-3.8464,18.718,9.4871,
-0.51294,-0.51294,0.51294,22.0515,-32.1794,-6.2822,-10.2566,15.3845,-2.051,-16.4104,0.51294,-6.6667,11.7952,11.7952,
-8.4614,-3.3335,-0.25635,23.8462,-47.1794,8.7178,-4.8716,19.231,-3.3335,-4.3589,8.9741,0.25635,21.2822,8.9741,
-15.8975,-9.231,-0.5127,13.8462,-62.0513,20.5127,-13.3335,15.8975,-4.1025,-8.7178,2.0513,0.5127,17.9487,3.0771,
-11.2822,-8.2051,-1.0259,14.3589,-75.3845,15.8975,-26.1538,16.4102,4.1025,-8.7178,-0.5127,0.5127,5.1284,5.1284,
-14.6155,-8.9744,-8.4617,11.0256,-76.1538,10.5129,-28.9744,12.051,-1.282,-0.76929,1.282,0.76929,0.76929,4.3591,
-17.6924,-11.5386,-12.564,8.9741,-71.0256,16.1538,-23.3335,10.5127,-10.5127,0.76904,-0.76904,3.8462,6.9229,3.8462,
-11.7949,-8.7178,-10.2563,13.3335,-70.2563,18.9741,-22.564,15.3848,-6.1538,0.5127,-0.5127,10.2563,9.7437,7.6924,
-14.1028,-8.4617,-11.0256,9.4871,-70.0002,12.051,-21.7952,9.4871,-3.3337,-0.76929,0.76929,6.4099,2.8206,5.3845,
-11.5383,-7.9485,-6.9231,15.1282,-62.3076,12.0515,-9.4871,11.5383,-3.3333,-1.7947,1.7947,7.4358,5.3845,5.3845,
-4.8718,-10.0002,-2.3079,21.7947,-59.231,12.051,-12.0515,21.282,-1.282,-2.8206,1.282,11.5383,13.5896,10.5125,
-8.718,-14.8718,-2.5642,20.5129,-69.2307,3.5896,-21.5383,15.3845,-0.51294,-4.6155,0.51294,6.1536,12.3079,9.7434,
-13.3333,-17.4358,-3.0769,21.5383,-67.1794,1.5383,-8.2053,7.1794,-1.5383,-6.1541,2.5642,4.1023,8.2048,8.718,
-14.1023,-19.2307,-1.7947,21.7952,-54.1025,5.3845,-2.3074,10.0002,-1.282,-6.4099,1.282,5.8977,12.0515,11.5383,
-15.8977,-20.5129,-3.0769,22.051,-54.8721,3.5896,-17.3074,8.2048,1.0256,-1.0256,-3.0769,5.1282,15.8972,10.7693,
-14.8718,-19.9998,-8.2048,17.949,-63.5896,1.0256,-22.051,1.5383,-1.0256,1.0256,-6.1536,2.5642,11.7952,5.1282,
-5.3848,-4.9998,-1.7949,24.8716,-51.5386,14.6152,-7.051,16.1538,-1.2822,1.2822,-1.2822,8.4614,14.6152,13.0771,
-8.718,1.0256,-1.0256,25.6409,-53.8464,16.4099,-15.8977,18.4612,-4.6155,-5.6414,-3.5901,6.6663,10.7688,14.3586,
-11.5383,-2.3079,-2.8206,20.2566,-62.8206,10.5129,-17.1794,8.9744,2.3079,-4.8718,-3.3333,8.4617,6.9231,11.5383,
-11.2817,-1.5386,-4.6152,18.4614,-53.8459,13.8462,-14.3589,12.8208,1.5386,-4.6152,-3.0767,10.2563,6.1538,8.7183,
-8.2048,1.5383,-1.5383,21.0256,-40,25.1282,-17.9485,23.0769,-3.0769,-4.6155,-2.051,10.2566,12.8206,12.8206,
-9.4873,1.2822,-5.3848,20.769,-48.4614,23.3335,-13.5898,15.1284,-1.2822,-5.3848,-2.3076,11.5386,7.436,11.0259,
-14.1025,0.25635,-6.9233,17.6924,-58.718,14.1025,-9.4873,8.9741,-0.76953,-6.9233,-0.25635,7.9487,0.76904,5.3848,
-16.6667,1.282,-2.3079,14.6155,-50.5127,15.1282,-16.6667,15.6409,-5.8972,-7.4358,-1.282,4.8718,11.5383,6.9231,
-16.4102,1.5386,-1.5386,15.8975,-49.2307,20,-22.564,15.3848,-13.8462,-10.2563,-10.2563,4.6157,11.7949,5.6411,
-15.3845,0.51294,-0.51294,16.4104,-58.4614,15.8977,-22.051,10.2566,-11.7947,-8.718,-13.3333,6.1541,2.5642,4.6155,
-13.5898,0.25635,-0.25635,20.2563,-56.1538,10.5127,-21.2822,12.0513,-3.3335,-1.7949,-3.3335,8.9746,8.9746,10.5127,
-11.5386,-0.25635,-2.3076,24.3589,-45.3845,12.0513,-18.2051,11.5386,-2.8203,-1.2822,0.25635,9.4873,16.6665,12.0513,
-12.051,-2.8206,2.8206,20.2566,-44.8716,10.5129,-17.6921,4.8718,-6.9231,-4.8718,-4.3586,8.9744,10.0002,8.4617,
-13.3335,-8.2051,7.6924,26.1538,-57.436,0,-18.4614,5.1279,-3.0771,0,-2.564,12.8203,7.6924,12.8203,
-17.949,-20.0002,1.5383,26.6667,-63.5898,-8.718,-17.949,4.6155,-0.51294,0.51294,-2.0515,6.6667,10.2561,12.3079,
-6.4104,-6.9231,7.4358,27.4358,-48.5898,6.282,-7.4358,12.051,-0.25659,0.25659,-0.76929,-0.25659,16.1541,13.0769,
-3.3335,8.0769,3.3335,20.769,-33.5898,21.282,-9.4873,10.5127,-12.0513,-11.0259,-11.0259,-5.8975,5.3848,4.3589,
-0.25635,23.0769,0.25635,16.1538,-27.436,32.0513,-10.5127,11.0259,-13.0767,-13.5898,-13.0767,-2.3076,1.2822,3.3335,
2.3079,31.5383,-0.25659,13.0769,-31.0256,41.7947,-13.5896,10.5129,-16.6667,-14.6155,-16.1541,-10.0002,0.25659,0.76929,
4.1025,41.5386,2.564,13.8462,-36.9229,50.2563,-15.3848,14.3589,-17.9487,-12.3076,-15.8975,-9.7437,0,0,
7.436,43.333,0.25635,17.6924,-38.718,52.0513,-14.6152,22.8203,-11.5386,-7.436,-8.9746,-1.2822,-0.25635,5.3848,
12.0513,39.7437,-1.7949,21.7949,-35.1282,51.5386,-10.5127,26.4102,-6.4102,-2.8203,-6.4102,1.7949,-3.8462,11.0259,
1.7952,35.6409,-0.25659,11.5383,-42.8206,44.8718,-11.5383,16.6667,-12.051,0.25659,-12.051,-2.8206,-8.9744,7.949,
-5.6411,33.3335,3.0771,13.3335,-50.7693,41.5386,-14.8716,10.2563,-12.8203,3.0771,-10.2563,-3.0771,-5.6411,6.1538,
2.3079,31.0256,1.282,22.8206,-48.9744,38.2053,-11.5383,15.6409,-8.4617,-2.3079,-4.8718,-1.282,-1.7947,5.8972,
4.3589,30.5127,-4.3589,16.6665,-46.9231,35.1284,-12.0513,16.1538,-9.4873,-10.5127,-7.436,3.8462,-1.7949,1.7949,
-2.8206,30.5129,-3.8459,18.2053,-40.2563,39.2307,-14.1023,15.1282,-7.9485,-6.9231,-6.4104,5.8977,2.8206,8.4617,
-2.8206,23.8464,-1.7947,24.3591,-38.2051,43.3333,-13.0769,18.718,-1.7947,-0.76929,0.76929,-2.3074,6.9231,14.1028,
4.8716,21.2822,-0.76904,24.3589,-43.8462,43.3335,-15.6411,19.231,-1.2822,-1.2822,-0.76904,-5.8975,0.76904,11.0254,
3.3335,25.8975,-3.3335,24.8716,-43.8462,50.5127,-12.564,20.2563,-2.8203,-0.76904,-5.8975,0.76904,-3.3335,25.8975,
-6.1538,24.6152,-8.7183,20,-36.4104,52.3076,-6.1538,21.0254,-4.6157,-2.0513,-5.1284,2.0513,3.0767,40.8975,
-4.8718,25.8972,-6.9231,20.7693,-28.9744,47.9485,-8.9744,21.7947,-3.8459,-3.8459,-1.7947,1.7947,10.0002,48.9744,
-4.6155,27.1794,-7.6921,20.5129,-35.3845,45.1282,-20.5129,21.0256,-2.5642,-3.5896,-3.0769,2.5642,8.718,42.0515,
-5.6409,25.6409,-8.2053,21.0256,-42.5642,47.6921,-14.8718,24.1023,-1.0256,-1.5383,-1.0256,1.0256,7.1794,30.7693,
-5.3843,21.2822,-9.4868,20.2563,-38.7178,45.8975,-3.333,20.7695,-4.3589,-4.8716,0.25635,-0.25635,12.5645,15.7693,
-7.436,17.1797,-8.4614,17.1797,-36.6667,37.1797,-11.0259,12.0513,-4.3589,-6.9229,-1.2822,1.2822,9.4873,5.8975,
-5.3845,21.282,-3.8459,22.3079,-39.2307,36.1541,-16.1541,20.7693,0.25659,-0.25659,-0.25659,6.4104,-0.25659,15.6409,
-7.1794,17.9485,-5.6409,19.4871,-40.5129,42.051,-8.2053,23.0769,-2.0515,-1.5383,-5.1282,4.1023,1.5383,9.7434,
-12.8206,12.3079,-5.6409,18.4617,-37.4358,45.6409,-0.51294,14.3591,-4.6155,-8.718,-6.6667,0.51294,8.718,6.1541,
-3.3335,23.8462,-0.25635,27.9487,-26.4104,48.4614,-3.8462,19.7437,-4.3589,-3.8462,0.25635,1.7949,-0.76953,15.1279,
7.949,36.1541,-0.76929,25.3845,-20.7693,55.6414,-7.4358,25.8977,-7.4358,-4.8718,-1.7947,0.76929,-15.7695,13.0769,
6.9231,39.2307,-4.3591,24.3591,-23.3333,63.8459,3.8459,22.3079,-5.3845,-11.0256,-3.8459,-4.3591,-21.282,11.0256,
5.1282,37.949,-10.2561,18.9744,-10.7693,53.8464,17.4358,13.8464,-6.6667,-19.9998,-3.0769,-19.3591,-16.4104,3.0769,
19.231,52.0513,-10,10,4.2307,49.4873,13.5898,12.0513,-15.6411,-26.9229,-11.0254,-34.3591,-26.9229,-11.9231,
34.231,67.0513,-4.6152,10.2563,19.2307,64.4873,4.6152,15.3848,-22.564,-26.1538,-25.6411,-29.7437,-41.0254,-18.4614,
49.231,82.0513,-8.4614,8.4614,34.2307,79.4873,19.6152,14.6157,-28.4614,-26.9229,-35.1279,-25.3843,-38.7178,-10,
57.1794,97.0513,-10.5129,7.4358,49.2307,94.4873,34.6152,17.1794,-36.1536,-35.1282,-38.2048,-32.051,-29.4871,-7.4358,
64.1025,112.0513,-4.6152,4.6152,64.2307,101.5386,19.6152,18.4614,-40,-45.1279,-38.9741,-43.5898,-40,-13.8462,
65.3845,127.0513,-3.3333,3.3333,79.2307,100.7693,20.2566,18.718,-38.2053,-42.3079,-39.2307,-42.3079,-48.4617,-13.5896,
59.4871,129.2307,-9.7434,7.1794,94.2307,97.4358,35.2566,14.8718,-37.949,-36.9231,-36.4104,-35.3845,-36.9231,-7.1794,
53.8462,114.2307,-7.6924,7.6924,82.0513,82.5645,50.2566,13.3335,-34.3589,-37.4355,-25.6406,-36.9229,-30.2563,-9.7437,
49.7432,99.2307,-6.1538,6.1538,67.0513,67.5645,65.2566,12.3076,-34.8721,-39.4873,-23.0771,-41.0259,-37.436,-20,
38.2051,84.2307,-7.9487,7.9487,53.5898,58.2051,71.0259,10.5127,-37.1792,-36.6665,-25.8975,-34.1025,-37.1792,-16.1538,
23.3335,69.2307,-5.3848,10.5127,38.5898,43.2051,76.667,5.3848,-29.4873,-33.0767,-22.3076,-29.4873,-32.564,-7.9487,
14.1025,54.2307,-3.8462,11.0259,23.5898,36.1538,91.667,7.9487,-18.7178,-26.9229,-18.2051,-21.7949,-31.5386,-8.9741,
20.0002,52.3079,1.0256,12.3079,8.5898,48.2053,106.667,22.9487,-12.3074,-11.9229,-15.3845,-6.7949,-25.1282,-1.0256,
16.1538,44.3589,-1.7949,10.5127,-6.4102,39.7437,121.667,20.769,-18.2051,-11.0259,-18.2051,-12.0513,-37.1797,1.7949,
4.6155,29.3589,-1.0256,14.3591,-21.4102,27.6926,136.667,12.8206,-17.9485,-14.3586,-12.8206,-19.4871,-50.2563,1.0256,
-1.282,18.2048,4.3586,17.6921,-30.5129,31.5383,150.5129,13.0769,-12.0515,-11.5383,-10.5129,-17.6926,-45.8975,1.282,
-1.282,12.051,1.282,16.6667,-45.5129,35.6409,146.4104,12.5642,-11.5383,-10.5129,-7.4358,-17.6926,-33.0769,1.7947,
-2.3076,8.4614,-8.4614,14.1025,-58.2053,38.7178,161.4104,11.5386,-16.1538,-12.564,3.8462,-12.564,-26.9233,2.3076,
-6.4099,10.5129,-8.9744,16.6667,-43.2053,48.4617,176.4104,17.1794,-18.718,-11.0256,5.8977,-2.8206,-27.9485,2.8206,
-7.1792,11.2822,-1.5386,18.9746,-36.9229,56.9233,180.5127,22.5645,-11.7949,-3.0767,2.5645,-5.1279,-15.3843,1.5386,
-1.7949,9.4873,0.76953,14.6152,-33.0767,54.6152,195.5127,29.4873,-9.4873,-0.25635,0.25635,-13.0767,-11.0254,-3.8462,
-0.25635,13.5894,0.25635,13.5894,-18.0767,64.8716,210.5127,44.4873,-16.667,-4.8721,-2.3081,-10,-26.0254,-4.8721,
-8.2051,13.8462,-1.0259,11.7949,-3.0767,79.8716,225.5127,59.4873,-8.7178,-4.1025,0,0,-30.2563,-1.0259,
-17.6926,1.7947,-13.0769,9.4871,-12.0515,83.8459,240.5127,74.4873,-0.76929,-2.8206,0.76929,1.7947,-17.6926,-6.9231,
-15.1282,1.7947,-17.6921,14.1023,1.282,80.2566,255.5127,89.4873,-7.4358,-1.282,3.8459,-1.282,-14.6155,-10.5129,
-18.718,1.282,-10.5129,7.9485,4.8718,91.0256,270.5127,104.4873,-12.5642,-1.282,8.4617,-4.8718,-18.2053,-9.4871,
-24.3591,-13.5896,-6.9231,7.4358,-0.25659,106.0256,285.5127,119.4873,-0.76929,0.25659,17.1794,0.25659,-13.5896,-11.0256,
-33.0771,-28.5896,-16.1538,5.8975,10.5127,101.7949,300.5127,134.4873,-1.7949,-1.2822,14.6152,1.2822,-12.564,-22.8203,
-38.718,-18.718,-15.6409,5.8972,23.8459,96.6667,315.5127,149.4873,-11.0256,1.282,8.9744,-1.282,-6.9231,-24.3591,
-39.9998,-3.718,-11.7947,7.1794,22.5642,101.5383,330.5127,164.4873,-12.8206,2.5642,3.5896,-3.5896,-4.1023,-22.051,
-34.6152,1.7949,-11.5386,4.3589,7.5642,89.4873,345.5127,179.4873,-10.5127,-1.2822,2.3076,-3.3335,-9.4873,-25.3848,
-30.2563,0.5127,-8.7178,3.0771,-7.4358,90.2563,360.5127,194.4873,-10.2563,3.0771,3.0771,-0.5127,-12.3076,-27.6924,
-38.2051,-6.9229,-3.8462,3.8462,-22.4358,105.2563,375.5127,209.4873,-6.4102,12.5645,6.4102,7.436,-7.9487,-24.8716,
-53.2051,-19.231,-14.1025,-0.76904,-7.4358,120.2563,371.0259,224.4873,-11.0254,0.76904,5.3848,2.8203,-2.8203,-26.9229,
-53.5898,-14.1025,-13.0771,3.8462,7.5642,128.9746,381.7949,239.4873,-10,-5.8975,6.9229,-3.8462,4.8716,-26.4102,
-38.5898,-15.6411,-1.7949,5.8975,-7.4358,143.9746,381.2822,254.4873,-3.8462,6.4102,8.4614,-1.7949,1.7949,-22.8203,
-42.3076,-21.2822,-4.3589,4.3589,-22.4358,158.9746,380.2563,269.4873,-7.9487,12.0513,7.9487,5.3843,-8.4619,-20.7695,
-46.4102,-8.4614,-8.4614,4.8716,-25.8975,161.2822,386.9229,284.4873,-10.5127,6.4102,4.8716,3.3335,-3.3335,-23.8462,
-42.8206,-2.8206,-2.8206,5.3845,-17.1794,146.2822,379.2307,299.4873,-6.4104,5.8972,2.8206,-3.3333,11.0256,-32.5642,
-49.231,-14.8721,-6.6665,3.5898,-10.2563,144.1025,380,314.4873,-9.231,9.2305,2.0513,-2.0513,8.7178,-35.3848,
-52.8206,-13.3335,-9.7437,0.5127,-13.3335,146.6665,381.0254,329.4873,-10.2563,6.1538,7.1792,4.6152,-0.5127,-29.231,
-47.1794,-14.8716,1.5386,4.1025,-28.3335,143.5898,366.0254,344.4873,-8.7178,-2.0513,11.7949,1.5386,-1.5386,-30.769,
-40.769,-27.436,16.5386,11.0259,-43.3335,146.4102,356.6665,359.4873,-7.436,-0.25635,13.0771,-4.3589,0.25635,-35.1279,
-42.5637,-21.0256,13.8464,9.2307,-45.6409,153.3333,371.6665,374.4873,-5.1282,4.6155,9.7439,-5.1282,-4.6155,-32.3074,
-45.8975,-6.0256,1.282,6.9231,-30.6409,148.9744,380.7693,389.4873,-3.3333,1.282,3.8459,-6.4104,-12.0515,-31.5383,
-43.5896,-11.282,3.0769,3.5901,-15.6409,151.282,365.7693,404.4873,-2.5642,2.5642,8.2053,-6.1536,-9.7434,-31.282,
-46.1541,-26.282,1.0256,1.0256,-1.0256,159.4871,361.5383,419.4873,-4.6155,3.0769,13.3333,-11.282,-6.6667,-33.3333,
-36.4106,-11.282,0,6.6665,-16.0256,145.6406,372.3076,434.4873,0,3.5894,12.3076,-10.7695,-4.103,-31.7949,
-33.3335,3.718,0,0,-31.0256,130.6406,357.3076,449.4873,-4.6152,3.5898,5.6411,-7.6924,-10.2563,-31.7949,
-32.3079,-11.282,10.2561,1.0256,-21.0256,145.6406,365.6409,464.4873,-5.6414,10.7693,14.3586,-1.0256,-4.6155,-16.9231,
-35.3848,-18.4614,7.6924,2.564,-13.3335,160,365.1279,479.4873,-6.6665,10.2563,13.3335,-2.564,-3.5898,-18.4614,
-38.9741,-19.4871,4.1028,3.0769,-6.1536,157.4363,364.1028,494.4873,-8.2048,8.718,11.7952,-5.1282,-3.0769,-20.5125,
-43.0767,-22.0513,0,3.0771,0,153.8462,362.0513,509.4873,-10.2563,6.1543,8.7183,-8.2051,-3.0767,-23.5894,
-47.1794,-23.5896,-4.1023,3.0769,6.6667,150.7693,360.5129,524.4873,-12.3074,4.1028,6.6667,-10.7693,-3.0769,-26.1536,
-51.0254,-25.3845,-7.4358,3.8464,13.5901,147.949,359.2307,539.4873,-14.1023,2.8206,4.8718,-13.0769,-2.8206,-28.4612,
-54.1028,-25.3848,-11.0259,4.8716,21.2817,145.3843,359.2305,554.4873,-14.6157,1.7949,3.8462,-15.1284,-1.7949,-30,
-39.1028,-12.8203,3.9741,8.2051,6.2817,160.3843,374.2305,569.4873,-4.1025,2.564,8.2051,-4.6152,-2.564,-15,
-34.1028,-5.3848,18.2051,11.5386,-8.7183,175.3843,365.3843,584.4873,-1.7949,1.7949,10,-4.3589,-6.4102,-4.3589,
-49.1028,-18.4617,3.2051,3.0769,6.2817,160.3843,352.8206,599.4873,-10.7693,-1.0256,6.6667,-11.282,-2.5642,-19.3589,
-37.4358,-17.9485,8.718,10.7693,-8.7183,152.3079,352.8206,614.4873,-7.1794,-3.0769,7.6926,-11.7947,3.0769,-14.8718,
-31.0256,-14.6152,21.2822,17.1797,-23.7183,167.3079,361.2822,629.4873,0.25635,-0.76904,10,-8.9741,-0.25635,-6.4102,
-46.0256,-15.8977,11.7947,8.718,-11.7952,174.3591,372.3079,644.4873,-4.6155,4.6155,5.1282,-11.7952,-6.1541,-16.4104,
-48.718,-6.6667,10.7693,12.8206,-9.7434,159.3591,373.8459,659.4873,-5.1282,3.5896,6.1536,-13.8464,-3.5896,-20.5129,
-47.6926,-13.3337,14.3586,12.8201,-24.7434,150.7688,359.4871,674.4873,-1.0256,-5.6414,11.282,-10.2566,1.0256,-17.4363,
-52.5642,-22.3076,12.0513,9.4868,-37.6924,162.3076,345.3843,689.4873,-0.25635,0.25635,11.0254,-2.3076,-0.76953,-11.0259,
-50.5127,-24.3589,7.436,5.3848,-40.2563,158.7178,353.5898,704.4873,-5.3848,7.9487,5.8975,-5.3848,-11.0254,-12.564,
-55.1282,-25.3845,5.8972,5.8972,-25.2563,149.4871,367.9485,719.4873,-5.8972,3.3333,9.4871,-12.5642,-3.3333,-19.7434,
-61.5383,-23.0767,4.1025,8.7183,-10.2563,143.5898,352.9485,734.4873,-8.2051,-6.1538,8.2051,-16.4102,6.1538,-25.1279,
-51.0256,-24.8718,4.3591,5.3845,-18.718,150.0002,337.9485,749.4873,-3.8459,-1.7947,3.3333,-11.5383,1.7947,-18.718,
-47.6921,-34.3589,-1.5386,1.5386,-20,149.7437,352.9485,764.4873,3.5898,3.0771,3.0771,-7.6924,-8.7178,-17.9487,
-50.2566,-35.8977,-2.5642,3.0769,-14.8718,146.1536,352.8206,779.4873,4.1023,2.5642,4.6155,-11.282,-8.2053,-21.0256,
-49.4871,-26.9231,2.3079,3.3333,-29.8718,144.3591,337.8206,794.4873,-4.8718,-2.3079,2.3079,-16.6667,2.8206,-18.718,
-43.3333,-21.282,4.8718,7.949,-32.051,147.949,338.2053,809.4873,-5.8972,-2.8206,5.3845,-10.5129,2.8206,-16.1536,
-36.4102,-22.0513,3.5898,7.1797,-17.436,154.8721,338.4614,824.4873,0,0,7.1797,-4.1025,-10.2563,-15.8975,
-34.3591,-17.949,4.1028,8.718,-24.6155,147.1794,323.4614,839.4873,-4.1028,4.6155,5.1282,-5.6409,-7.6921,-11.7947,
-40.5132,-20,0.5127,6.1538,-23.0771,133.333,308.4614,854.4873,-15.3848,0.5127,0,-12.8208,0,-16.9233,
-32.564,-11.0254,3.3335,5.8975,-12.564,143.8462,307.436,869.4873,-6.9229,4.3589,3.8462,-5.8975,-3.3335,-17.1792,
-29.4871,-7.9485,2.3079,7.949,-25.3845,142.3079,295.6409,884.4873,-2.3079,4.8718,2.8206,-7.4358,-11.5383,-15.1282,
-28.4614,-8.4614,3.3335,6.4102,-27.436,131.5386,285.3848,899.4873,-4.8716,1.2822,2.3076,-11.0254,-1.2822,-14.1025,
-19.9998,2.0515,1.0256,1.5383,-12.436,133.8459,273.8459,914.4873,-7.6921,-0.51294,-3.0769,-2.5642,0.51294,-18.4617,
-13.5898,5.3848,-0.25635,0.25635,-13.5898,137.6924,262.3076,929.4873,-1.7949,3.3335,-2.3076,5.3848,-6.4102,-16.6665,
-19.4873,-6.1538,2.0513,0,-28.5898,122.6924,247.3076,944.4873,0,2.5645,3.5898,-6.1538,-7.1792,-12.3076,
-24.1028,-7.1794,2.5642,4.1028,-35.8972,107.6924,232.3076,959.4873,-2.0515,2.0515,3.0769,-9.7434,-3.0769,-13.3333,
-20.2566,-2.3079,0.76929,2.8206,-26.4104,92.6924,217.3076,974.4873,-1.282,3.8459,-1.282,-0.25659,0.25659,-16.1541,
-15.1284,-1.7949,1.7949,3.8462,-31.5386,78.7178,202.3076,989.4873,-2.3081,3.333,-5.8975,3.8462,-1.7949,-13.5898,
-21.0256,-3.0769,5.1282,10.2566,-39.4871,63.7178,187.3076,1004.4873,-6.1536,3.0769,-9.7434,3.0769,-3.0769,-10.2561,
-26.6665,-8.2051,3.5898,9.231,-49.2307,48.7178,172.3076,1008.7183,-9.7437,2.0513,-10.2563,0.5127,-0.5127,-9.2305,
-18.718,-8.9744,6.4104,14.6155,-56.6667,33.7178,157.3076,993.7183,-6.9231,3.3333,-5.8972,-3.3333,5.3845,-5.3845,
-20,-14.3589,8.2051,14.8716,-68.2051,18.7178,142.3076,978.7183,-3.5898,0.5127,-0.5127,-13.3335,4.1025,-7.6924,
-27.9487,-23.8462,5.3848,15.1284,-76.1538,3.7178,127.3076,963.7183,4.8716,-1.7949,9.4873,-16.6665,1.7949,-5.3848,
-30.5129,-34.1025,4.8716,15.1284,-87.436,-11.2822,112.3076,948.7183,3.8462,-7.9487,9.4873,-18.7178,2.8203,-2.8203,
-25.8975,-30.5127,8.4617,10.5129,-96.6665,-3.3333,97.3076,933.7183,3.3333,-4.3586,3.8464,-14.1023,11.5383,-3.8459,
-28.4612,-18.2048,2.8206,9.4875,-99.2307,11.6667,82.3076,918.7183,2.8206,2.8206,-2.8206,-3.8459,8.4617,-5.8972,
-34.1023,-9.9998,-3.3333,10.0002,-98.7178,26.6667,67.3076,903.7183,-0.25659,4.3591,-6.4104,4.8718,0.25659,0.25659,
-33.8459,-10.2566,-3.5896,10.7693,-94.3589,28.2053,52.3076,888.7183,-2.5642,7.1794,-6.1541,4.1023,2.5642,7.6921,
-26.4102,-10,0.76904,15.6411,-80.2563,13.2053,37.3076,873.7183,-1.2822,13.5898,-4.8716,-0.76904,8.9741,8.4614,
-21.7947,-11.0256,8.4617,15.1282,-71.5386,-1.7947,22.3076,858.7183,1.282,11.5383,-1.282,-1.282,12.051,12.5642,
-26.4102,-17.1797,4.8716,15.1279,-83.3335,-16.7947,7.3076,843.7183,-1.2822,4.8716,-0.25635,0.25635,5.3843,14.1025,
-24.3589,-14.6152,-4.3589,16.667,-84.3589,-31.7947,-7.6924,828.7183,0.25635,10.5127,-0.25635,7.436,2.8208,14.1025,
-19.4871,-9.2307,-3.5896,14.8718,-73.3333,-46.7947,-22.6924,813.7183,3.0769,15.8977,-3.0769,8.2053,8.718,14.3591,
-21.0256,-14.8718,6.6667,15.3845,-72.8206,-58.9744,-37.6924,798.7183,1.5383,8.718,-4.1028,-1.5383,13.8459,14.8718,
-22.0513,-18.4614,11.7949,15.8975,-74.3589,-57.4358,-52.6924,783.7183,-0.51269,2.564,0.5127,-3.0767,17.9487,17.9487,
-18.9746,-10.7695,7.1792,15.8975,-73.8464,-55.8977,-67.6924,768.7183,0,2.0513,-2.0513,0,13.8462,14.3589,
-17.4358,-9.2307,4.1028,12.8206,-70.2563,-58.9744,-82.6924,753.7183,2.5642,5.1282,-8.718,-2.5642,6.6667,9.7439,
-16.1541,-12.5642,9.4871,16.6667,-66.9231,-51.5386,-97.6924,738.7183,2.8206,9.9998,-2.8206,-2.8206,12.5642,15.1282,
-17.4358,-15.8972,3.0769,23.0769,-73.8462,-47.1794,-112.6924,723.7183,0.51294,9.7434,-0.51294,-0.51294,11.7952,13.3333,
-16.9233,-14.3589,-4.1025,14.3589,-72.3076,-51.7949,-127.6924,708.7183,4.1025,18.9741,-5.1284,7.6924,6.1538,7.1797,
-21.282,-11.5383,-4.8718,4.8718,-70,-57.6924,-142.6924,693.7183,5.3845,23.3333,-10.0002,7.9485,7.4358,4.8718,
-19.4873,-11.2822,-0.5127,13.8462,-74.8718,-54.3589,-150.2563,678.7183,7.6924,17.436,-1.5386,0.5127,15.3848,11.7949,
-16.9229,-16.4102,-3.0767,20.5132,-80.5127,-56.9229,-149.7434,663.7183,2.0513,11.2822,2.5645,-2.0513,12.8208,13.3335,
-16.4102,-10.2563,0,21.0259,-74.8718,-57.9487,-154.3589,648.7183,0,15.8975,-0.51269,7.1797,8.7178,11.2822,
-24.3591,-18.718,-2.8206,6.9231,-80.2566,-67.9487,-161.2822,633.7183,2.8206,12.051,-8.4617,5.3845,3.8459,4.3591,
-23.5896,-26.6667,-4.6155,7.6921,-81.5386,-73.3333,-156.9231,618.7183,6.1541,9.7434,-5.6409,6.1541,4.6155,6.6667,
-24.8716,-25.8975,-0.25635,13.0771,-82.3076,-75.6411,-165.8975,603.7183,0.25635,9.4873,-4.8716,6.9233,1.2822,4.8716,
-25.1279,-25.6411,2.0513,11.7949,-87.1794,-77.9487,-174.8716,588.7183,3.0771,11.2822,-7.6924,5.1284,-2.0513,2.564,
-21.0259,-24.1025,0,13.8462,-87.6924,-73.8462,-172.8206,573.7183,7.6924,12.8203,-5.6411,4.6152,0,8.2051,
-23.333,-26.4102,0.76953,12.5645,-86.4102,-74.1025,-171.5383,558.7183,0.25635,12.0513,-2.3076,1.2822,-0.25635,7.436,
-25.6411,-30.7693,2.0513,14.3589,-85.6409,-83.0769,-171.7949,543.7183,0.51269,11.2822,-1.0254,0.51269,2.0513,-0.5127,
-21.7947,-27.9485,-1.282,14.6155,-81.7947,-85.3845,-173.5896,528.7183,1.7952,7.4363,12.0515,4.8718,1.282,-1.282,
-18.9744,-15.3845,-1.0256,9.7434,-75.8975,-73.8462,-172.8206,513.7183,1.0256,7.6921,27.0515,8.2048,-6.1541,7.1794,
-17.1794,-11.0256,1.282,12.5642,-73.5898,-70,-172.0513,498.7183,-0.76929,8.4617,36.6667,0.76929,-3.3333,6.9231,
-11.0256,-16.6667,5.3845,16.1541,-74.1025,-79.2307,-166.4102,483.7183,0.25659,8.4617,24.8718,-2.3079,11.5383,6.4104,
-17.6924,-23.3335,1.2822,12.564,-80.7693,-84.3589,-170.5127,468.7183,0.76904,9.4873,13.5898,-0.76904,9.4873,6.9229,
-22.051,-19.4871,-1.5383,12.8206,-80.5127,-74.8716,-177.4358,453.7183,3.0769,14.3591,9.2307,1.5383,4.1028,6.6667,
-15.8975,-16.4102,2.564,8.2051,-75.3848,-73.3333,-175.3848,438.7183,-0.5127,11.7949,5.6411,0.5127,4.6152,6.6665,
-7.6921,-13.3333,7.6921,15.8977,-65.6409,-80.5127,-164.6152,423.7183,-1.5383,11.7947,11.7947,1.5383,5.6409,10.2566,
-15.1282,-14.1023,0.76929,18.718,-67.9487,-86.4102,-164.3589,408.7183,0.76929,13.5901,13.0769,-0.76929,2.8206,7.4358,
-17.4358,-14.8718,0.51294,17.4358,-73.3333,-81.0256,-166.6665,393.7183,2.0515,14.8718,5.1282,-0.51294,3.5896,10.7693,
-12.3076,-14.8721,2.0513,22.0513,-68.718,-77.436,-162.0513,378.7183,3.5898,11.7949,-0.5127,0.5127,3.0767,18.9741,
-14.1028,-11.0256,-0.76929,20.7693,-66.4104,-78.718,-157.1797,363.7183,4.8718,6.4099,1.7947,0.76929,4.8718,14.1023,
-15.1282,-7.4358,2.3079,23.8459,-75.1282,-76.6667,-162.8206,348.7183,3.8459,4.8718,0.76929,-0.76929,6.9231,7.9485,
-12.564,-11.5381,6.4106,31.0259,-75.1279,-69.9998,-168.4614,333.7183,8.4619,13.0771,-1.7949,1.7949,8.4619,16.1538,
-14.3589,-13.333,2.0513,26.667,-66.6665,-75.8972,-171.7947,318.7183,4.6157,12.3076,-2.0513,2.0513,3.5898,12.3076,
-6.6667,-5.6409,2.051,21.5383,-62.5642,-80.5129,-167.1794,303.7183,-0.51294,10.2561,0.51294,2.051,1.5383,5.6409,
-4.6157,-8.7183,0,18.4614,-65.6414,-77.436,-165.1284,288.7183,2.0513,11.2817,0,3.0767,4.6152,9.7432,
-8.4617,-6.4104,-0.76929,23.8459,-59.7437,-72.0515,-163.8464,273.7183,6.9231,11.0256,0.76929,5.3845,12.051,19.2307,
-10.5129,-1.7947,-0.76929,22.3079,-59.2307,-73.5898,-161.282,258.7183,3.3333,6.9231,0.76929,0.76929,15.1282,16.1541,
-7.9487,-1.7949,1.2822,19.231,-65.3845,-75.1282,-161.7949,243.7183,0.25635,10.5127,0.76904,-0.25635,15.6411,3.8462,
-6.6667,-4.1028,3.0769,23.5896,-64.6155,-78.9744,-163.5898,228.7183,0.51294,13.3333,-0.51294,1.5383,13.3333,0.51294,
-7.6924,-6.1538,5.1284,21.0259,-64.6152,-81.0254,-162.051,213.7183,0.51318,10.7695,0,0,10.2563,9.7437,
-11.2825,-8.718,5.1282,21.5383,-78.4617,-82.0515,-168.2053,198.7183,-1.0256,12.3074,2.5637,1.0256,5.1282,12.3074,
-7.1797,-7.1797,5.1284,25.1284,-73.8462,-84.6152,-168.2051,183.7183,1.5386,16.4102,-0.51269,4.6152,0.5127,5.1284,
0.25659,-6.4104,4.3591,21.7947,-58.8462,-88.9744,-153.2051,168.7183,2.8206,13.0769,-9.4871,2.8206,-0.25659,0.76929,
1.282,-11.5383,2.3079,24.8718,-43.8462,-99.7437,-145.8975,153.7183,0.25659,5.3845,-12.5642,-0.25659,4.3591,1.282,
0.76929,-17.6921,5.8977,26.9231,-28.8462,-112.051,-146.9229,138.7183,2.3079,3.8464,-8.4612,-0.76929,8.9744,4.3591,
1.5386,-18.4617,10.769,28.7178,-19.4873,-114.8718,-142.5642,123.7183,7.6924,10.2563,-1.5386,-2.564,8.7178,8.7178,
-2.8206,-21.2822,5.8972,28.4617,-10.5129,-115.1282,-143.3335,108.7183,5.3845,9.4871,2.8206,-7.949,3.8459,4.3591,
-2.0513,-22.0513,4.6157,27.1797,-10.2563,-117.4358,-150.2563,93.7183,4.6157,6.667,3.0771,-6.6665,6.667,2.0513,
1.5388,-19.9998,10.2566,30.2566,-14.3586,-118.4614,-146.6665,78.7183,1.0256,6.6667,-1.0256,-5.1282,8.2053,7.1799,
1.2822,-21.282,14.6157,31.5386,-17.1794,-115.1282,-134.6152,63.7183,0.25635,10,-0.25635,-6.9229,0.25635,10.5132,
2.3079,-20.2563,15.1282,34.6155,-15.1282,-107.4358,-133.0769,48.7183,8.9744,16.6667,0.76929,-3.3333,-0.76929,11.0256,
0,-21.0256,5.1284,30.2563,-16.4102,-107.6921,-143.5896,33.7183,4.1025,12.8208,-6.6665,0,3.0771,6.1538,
1.0256,-19.4871,4.6155,26.1541,-16.4099,-107.1794,-144.1025,18.7183,-1.0256,9.2307,-5.6409,1.5388,6.1541,7.6926,
6.4102,-16.6667,12.0513,31.5386,-15.1282,-103.8462,-136.6667,3.7183,3.8462,10.5127,-2.3076,-4.3589,2.3076,10,
5.1284,-19.4871,13.3335,33.8462,-14.8718,-105.1282,-133.3333,-11.2817,8.7183,14.3589,-0.5127,-5.1279,0.5127,10.7695,
0.25635,-20.7693,2.8203,36.1538,-19.7437,-107.436,-138.2053,-26.2817,7.436,13.5898,-0.25635,-2.8208,4.8716,11.0254,
3.3333,-14.6155,0.25659,38.2053,-25.3845,-105.3845,-141.282,-41.2817,9.4871,11.5383,-0.25659,-2.8206,8.9744,10.0002,
1.7949,-16.1538,3.333,30,-26.4104,-106.9233,-142.3079,-56.2817,7.9487,8.9741,-2.8208,-1.7949,5.8975,4.8716,
-1.0259,-17.9487,1.0259,30.2563,-21.5386,-106.6667,-140.5129,-71.2817,5.1284,8.7178,-4.6152,5.1284,4.1025,6.1538,
0.51294,-20.0002,-0.51294,29.7434,-23.5898,-112.3079,-142.0515,-86.2817,5.6409,6.6667,-6.1541,5.1282,5.1282,6.1536,
2.5642,-21.0256,5.6409,27.1794,-31.7949,-113.8462,-143.5898,-101.2817,5.6409,3.5896,-7.1794,-2.5642,3.5896,3.5896,
2.3076,-13.5898,11.5386,34.1025,-32.0513,-101.2822,-139.7437,-116.2817,7.9487,7.9487,-3.3335,-2.3076,7.436,9.4873,
3.5901,-14.8713,6.6667,30.7693,-32.3074,-102.564,-136.9229,-131.2817,4.1028,3.0769,-5.1282,-3.0769,9.2312,9.2312,
12.3079,-13.3333,7.6926,31.282,-25.6409,-103.5896,-133.8459,-146.2817,1.0256,1.5383,-6.1536,-1.0256,9.2307,9.2307,
11.282,-7.6921,10.7693,33.8464,-17.9487,-90.769,-134.3589,-149.7434,2.5642,9.2307,-5.6409,-2.5642,8.718,10.2566,
10.0002,-3.8459,7.4358,33.0769,-14.6155,-81.282,-130,-147.9487,3.3333,6.9231,-3.3333,-4.8718,10.5129,11.0256,
15.1284,-2.8203,5.8975,34.1025,-16.1538,-83.8459,-122.3076,-149.9998,0.25635,1.7949,-0.25635,-1.2817,13.0771,19.7437,
11.282,-9.2307,4.1023,28.2048,-20.5129,-88.718,-125.1284,-160.5129,1.0256,1.5383,-1.0256,-3.0769,11.282,24.6155,
7.436,-12.0513,4.3589,31.0259,-19.2307,-89.4871,-125.8975,-165.8975,5.3848,1.7949,-1.7949,-5.3848,10.5127,21.7949,
11.5383,-11.0256,5.8972,37.1794,-22.8206,-87.9487,-126.4104,-161.7949,4.8718,0.76929,-0.76929,-1.282,14.6155,19.2307,
11.0256,-10,3.3333,36.6667,-32.0513,-88.9744,-131.5386,-160.2563,0.25659,-0.25659,7.9485,-1.282,17.6921,18.2053,
5.6411,-11.7949,1.5386,37.9487,-28.718,-93.3335,-126.1538,-164.6155,-1.5386,3.0767,14.3589,-2.564,15.8975,19.4873,
2.5642,-16.4099,2.0515,27.6926,-26.6665,-97.4358,-125.6409,-173.3333,-1.0256,1.0256,1.5388,-5.1282,6.6667,18.9744,
13.0769,-3.3333,11.0256,31.0256,-19.2307,-84.8718,-127.9487,-167.9487,7.949,0.25659,-2.8206,-0.25659,11.0256,25.8977,
14.1025,-0.76953,11.5386,36.6665,-18.718,-79.7437,-126.9231,-167.436,6.9229,-1.2822,0.25635,-0.25635,17.1792,25.8975,
4.1028,-11.282,4.1028,29.7439,-28.7178,-87.1792,-125.6409,-176.4099,-1.0256,1.0256,2.0515,-3.5896,12.3079,18.9744,
0.76904,-15.6411,-0.76904,28.9746,-38.2051,-94.6152,-130.5127,-183.8462,4.3589,1.2822,5.8975,-6.4102,9.4873,17.6924,
9.4873,-13.0769,-0.76904,35.1284,-35.1282,-94.1025,-127.9487,-183.3333,16.6665,0.76904,17.6924,-2.8203,24.3589,23.3335,
9.2307,-15.8975,-2.5642,32.3079,-33.8462,-92.8206,-126.1538,-188.2051,11.282,2.5642,15.3845,-3.0769,29.2307,19.4871,
2.0513,-11.7949,-2.0513,24.1025,-33.8462,-88.718,-130.7693,-195.8975,3.0771,5.1284,4.6152,-7.1797,16.9229,14.3589,
3.8462,-0.76904,-1.7949,24.3589,-28.9744,-82.3079,-130.5129,-194.6155,0.76904,1.7949,2.3076,-5.8975,15.1279,16.6665,
11.282,4.1028,1.5383,36.9231,-25.1282,-80,-123.5896,-185.1282,-2.5642,-1.5383,2.5642,-1.5383,24.6155,22.5642,
11.5383,0.76929,4.8718,36.1536,-26.9231,-81.7949,-118.2053,-183.3335,-3.3333,-0.76929,1.7947,-1.7952,25.3845,25.3845,
10,1.2822,2.8203,30.5127,-35.1282,-76.1538,-121.282,-187.9487,-3.3335,1.7949,-1.2822,-2.8203,15.6411,20.769,
12.5642,5.8977,-0.25659,34.1028,-33.0769,-67.4358,-125.8975,-186.4102,-4.8718,0.25659,-3.8459,2.3079,9.4871,17.1794,
12.0513,8.4619,0.25635,32.5645,-20.2563,-64.3589,-122.3076,-185.3845,-2.8203,-0.25635,-0.25635,6.9233,18.2051,20.7695,
6.1541,4.6155,-2.0515,28.2053,-24.6155,-69.2307,-122.0513,-195.8975,-4.1028,-1.5383,1.5383,2.5642,26.6667,18.9744,
8.9746,2.8203,-3.3335,30,-27.9487,-72.564,-124.3589,-200.7693,-2.8203,-0.25635,4.3589,0.25635,30,15.1284,
12.8208,9.231,-1.5386,34.8721,-15.3845,-69.7434,-127.6921,-196.4102,-1.5386,-0.5127,3.5898,0.5127,27.1797,15.8975,
11.0259,12.0513,1.2822,35.1284,-18.718,-64.3589,-127.4358,-196.6667,-3.8462,-2.3076,-1.2822,1.2822,25.3848,17.1797,
8.4617,2.8206,1.282,26.4104,-33.718,-69.4871,-125.3845,-206.4102,-4.8718,-5.8972,1.282,-1.282,24.3591,17.1794,
7.4358,0.76929,-0.76929,27.4358,-31.0256,-70.5127,-124.8718,-212.0513,-4.3591,-5.8972,7.4358,2.3079,22.8206,22.3079,
5.8972,5.8972,-2.3079,26.9231,-16.0256,-65.3848,-125.3848,-214.1025,-4.3591,-0.76929,0.76929,7.4358,22.3074,22.3074,
7.4358,0.76929,-0.76929,24.8718,-17.6924,-69.4871,-123.3333,-218.2051,-3.8459,3.3333,-3.3333,5.8977,22.8206,19.7434,
12.8208,-5.6411,-0.5127,31.2822,-20.5127,-72.3076,-119.4871,-224.6152,0,0,9.7437,7.6924,25.6411,24.1025,
10.7695,-1.5386,-2.564,32.3076,-21.0256,-67.1794,-121.0256,-229.7434,1.5386,-3.0767,12.3076,7.6924,27.1797,23.0771,
13.0771,9.4873,-1.2822,34.1025,-18.718,-60.2563,-120.7693,-228.9744,-3.3335,-0.25635,0.25635,2.8203,25.3848,20.769,
20,12.3076,-0.51269,29.7437,-12.3076,-60.5127,-122.564,-234.3589,-5.1279,-3.0767,0.5127,2.5645,17.436,16.9233,
11.0254,1.7949,-7.436,20.769,-27.3076,-72.0515,-128.9746,-248.4617,1.7949,-8.9746,4.3589,-1.7949,7.9487,8.4614,
6.6667,4.1028,-3.0769,26.6667,-42.3076,-71.7947,-124.1025,-251.282,3.0769,-5.1282,3.5901,-4.1023,8.2053,9.2307,
11.5386,7.9487,0.25635,29.4873,-29.4871,-63.3333,-119.2307,-255.6409,-8.9741,-6.9229,4.8721,-0.25635,11.0259,14.1025,
13.5898,2.8203,-2.3076,29.4873,-14.4871,-65.8975,-118.718,-265.3848,-12.0513,-10,5.3848,2.3076,12.0513,16.1538,
12.8203,-0.5127,3.5898,31.2822,-7.1797,-75.8975,-107.1794,-266.6667,0,-0.5127,5.1279,0,16.9229,20.5127,
8.2053,-4.6155,5.6409,31.282,-13.8462,-84.6152,-105.6409,-273.3333,-1.5383,1.5383,6.1541,-5.1282,16.9231,16.9231,
13.3335,-1.5386,3.5898,36.4102,-7.6924,-78.9744,-113.8462,-280.5129,-1.0259,0,12.3076,0,21.0254,13.8462,
11.0254,-7.436,-2.3076,24.3589,-11.0259,-82.8206,-120.7693,-290,1.2822,-1.2822,5.8975,2.8203,19.231,14.1025,
5.3845,-11.5383,-1.282,20.7693,-18.718,-90,-117.6924,-296.6667,-0.25659,1.282,0.25659,0.76929,12.5642,16.1541,
4.8718,-8.4617,-1.282,27.949,-18.2048,-84.8718,-114.6152,-296.6665,-3.3333,3.3333,2.8206,1.282,15.6409,15.6409,
4.8718,-10.5129,-4.8718,24.8718,-17.6921,-80.7693,-121.282,-293.5896,-5.8972,4.8718,6.9231,6.4104,18.718,17.6921,
2.5642,-12.8206,-2.5642,26.1541,-24.6152,-84.1025,-128.2051,-294.8716,-5.6409,7.1794,5.6414,9.2307,14.3591,17.949,
2.3079,-8.4617,-0.25659,27.4358,-27.9487,-82.3079,-119.7437,-304.3591,-0.25659,5.8972,0.25659,7.4358,13.0769,17.6921,
7.1794,-3.5901,-0.51294,24.6155,-22.5642,-77.436,-110.7693,-306.6667,1.0256,0.51294,-2.0515,1.5383,14.8718,17.4358,
7.949,-2.3079,-0.76929,26.4104,-24.3589,-78.2051,-116.6665,-302.3076,-4.3591,1.7952,3.3333,0.76929,17.6921,16.6667,
3.3335,-1.2822,-0.76904,24.8716,-27.436,-77.1794,-120.7693,-307.436,-8.9746,3.3335,1.2822,0.76904,12.0513,16.6665,
6.9231,2.8206,1.7947,25.3845,-25.3848,-72.0515,-115.6411,-309.4873,-5.8977,1.282,-1.7952,-1.282,7.4358,16.1536,
11.282,4.1028,-2.5642,23.5896,-28.2051,-72.3076,-115.3845,-312.8206,0.51294,0.51294,-0.51294,-2.051,11.7947,13.8459,
6.6667,4.1023,-10.7693,23.0769,-34.3591,-75.8975,-118.9744,-323.0769,1.5383,2.5642,-1.5383,-4.1028,12.3074,13.3333,
6.6665,3.0771,-4.6152,30.2563,-35.8975,-75.8975,-116.9231,-325.1282,-3.0771,4.1025,3.5898,-5.1284,12.8203,17.9487,
6.4104,-0.76929,1.282,26.9231,-36.6665,-77.6921,-114.1025,-324.3589,-7.9485,0.76929,5.3845,-2.3079,13.5896,20.2566,
2.5645,0,-4.1025,25.1284,-33.8459,-72.8203,-116.4102,-325.6409,0,3.0771,-3.0767,6.1538,14.8721,20,
-0.76929,0.76929,-9.4875,21.7947,-30.5129,-69.4873,-123.3335,-331.0259,5.3845,5.3845,-9.4875,4.8718,14.1023,21.7947,
2.564,4.6152,-6.6665,24.1025,-25.6411,-68.718,-121.5383,-335.8975,-2.564,4.1025,-7.1797,4.1025,12.8203,32.3076,
3.3335,6.4102,-7.9487,28.9746,-23.3333,-68.9744,-114.6152,-339.2307,-8.4614,3.8462,-3.3335,8.4614,10.5127,37.1797,
2.0513,0,-10.769,25.1284,-26.6665,-73.8459,-115.3845,-344.6152,-3.5898,4.1025,0,4.1025,13.3335,27.1797,
3.5898,0.5127,-7.1797,23.5898,-30.7693,-73.3333,-118.4614,-352.3076,-0.5127,1.5386,1.0259,-0.5127,17.9487,17.436,
2.0513,1.5386,-7.1797,19.4873,-30.7693,-69.7437,-118.9744,-358.4614,1.0259,0.5127,-1.0254,-0.51269,14.3589,15.3848,
4.1025,-2.564,-4.1025,24.1025,-27.1794,-67.1794,-112.3076,-354.3589,4.6157,1.5386,4.1025,-1.5386,19.4873,21.0259,
6.6665,-5.1284,-3.0771,31.7949,-25.1284,-64.1028,-106.1541,-354.8718,0,0,8.2051,0,25.6411,24.1025,
1.5383,-1.5383,-6.6667,26.6667,-22.0513,-59.4873,-107.1794,-363.0769,-2.0515,1.5383,5.6409,5.1282,22.0515,22.5642,
-0.25635,2.8203,-3.8462,27.436,-17.6924,-55.6411,-109.4873,-364.3591,0.25635,2.8203,-2.3076,3.8462,17.6924,20.2563,
5.6409,2.0515,-0.51294,27.1794,-16.9231,-56.4102,-106.6667,-367.1794,-0.51294,0.51294,-5.6409,2.0515,15.3845,20.5129,
3.8464,0.76929,-5.3845,23.8464,-16.6667,-58.2051,-100.2563,-373.5896,-0.76929,-1.282,2.8206,4.3591,18.718,22.8206,
-0.51269,5.1284,-11.7949,27.6924,-15.3843,-61.0256,-101.0256,-373.8459,0.5127,-2.564,6.667,0.5127,24.6157,21.5386,
5.8975,5.8975,-4.8716,33.0771,-14.6155,-55.6411,-102.8206,-369.4871,1.2822,-0.76904,0.25635,-0.25635,29.4873,25.3848,
6.9229,1.2817,0.25635,34.1025,-17.6924,-50,-100.7693,-371.5386,-1.7949,-0.25635,-1.7949,1.2817,27.9487,28.4614,
3.333,3.333,-2.3076,33.5898,-14.1028,-47.436,-95.6411,-372.5642,-0.25635,-2.8208,10.5127,0.25635,32.0513,29.4873,
1.0256,3.0769,-3.5896,30.7693,-17.436,-44.6155,-97.9487,-369.7437,5.6409,-5.1282,8.718,-1.0256,29.2307,27.6921,
4.6155,0.51294,-2.051,33.3333,-20,-43.0769,-99.4871,-371.7947,7.6921,-2.051,-0.51294,3.0769,20.5129,29.2307,
5.1282,0.51294,-6.1536,25.6414,-17.9487,-52.3076,-98.4614,-383.0769,0.51294,-7.6921,2.0515,-0.51294,16.4104,23.5901,
8.7178,9.2305,-4.6157,26.6665,-10.2563,-51.7949,-91.2822,-383.0771,2.0513,-11.2822,10.2563,-2.0513,23.5898,16.4102,
6.9233,4.8721,-6.9229,28.4614,-15.6411,-45.8975,-94.6152,-382.8206,2.3076,-15.6411,2.3076,-2.3076,24.8721,17.1797,
7.6926,1.5388,-6.6663,27.6926,-22.051,-46.6665,-96.9229,-381.5383,4.6155,-14.3589,1.0256,-1.0256,23.5901,26.1541,
4.1023,3.0769,-6.6667,28.718,-22.0515,-58.4617,-95.3848,-384.1028,4.6155,-11.7952,5.6409,-3.0769,19.9998,22.5642,
-10.8977,3.3333,-1.7947,30.0002,-13.0769,-50.5127,-87.4358,-381.282,1.7947,-6.9231,12.0515,4.8718,25.8977,22.8206,
-25.8977,7.436,-0.76904,28.9746,-8.9741,-35.5127,-88.4614,-376.6667,0.76904,-1.2822,13.0771,14.6152,28.9746,27.9487,
-40.8977,5.8972,-5.385,21.7947,-16.1541,-44.8721,-98.718,-384.8721,1.282,-0.76929,0.76929,8.9744,16.1536,19.7434,
-55.8977,6.4102,-1.2822,24.3589,-8.4614,-45.3845,-93.5896,-381.7949,3.8462,0.25635,-0.25635,7.9487,18.2051,20.7695,
-70.8977,6.1541,-1.0256,32.3079,1.0256,-30.3845,-89.2307,-370.2563,-3.0769,-3.5896,2.5642,9.7434,26.6667,25.6409,
-85.8977,6.6665,-3.5898,29.2305,-1.5386,-27.1797,-90.2566,-366.1541,0.5127,0,0,9.7437,25.6411,24.6152,
-100.8977,5.8977,-3.8459,25.8977,-3.8459,-35.1279,-88.9741,-368.9741,6.9231,1.282,-1.282,5.385,22.3079,23.3333,
-115.8977,4.1025,-2.0513,30.7695,-0.5127,-33.8462,-84.1025,-366.6665,5.6411,-3.0767,7.6924,0.5127,22.0513,26.1538,
-130.8977,1.282,-4.8718,24.8718,-1.7947,-33.5896,-86.4102,-370.5127,1.282,0.76929,4.3591,-0.76929,14.1028,23.3333,
-145.8977,3.8462,-4.8716,24.8721,-3.8462,-38.7178,-83.8462,-371.5383,4.8721,13.0771,-5.8975,8.4614,10.5127,22.3076,
-160.8977,4.1028,-4.6155,26.6667,-4.6155,-41.5386,-75.3845,-361.0256,8.718,7.1794,-4.1028,11.282,16.4104,23.5896,
-175.8977,9.231,-4.6152,27.6924,-2.0513,-26.5386,-77.9487,-349.7437,1.5386,-1.5386,2.0513,7.1797,21.5386,23.0767,
-186.6665,24.231,-4.6155,30.7693,-4.1023,-11.5386,-86.6665,-340.5127,-2.051,6.1541,1.0256,9.2307,24.6155,24.1028,
-194.8718,26.6667,-10.7693,20.0002,-19.1023,3.4614,-91.7949,-340,-3.0769,3.0769,-7.1794,6.6667,15.3845,20.0002,
-193.5898,34.1025,-6.4102,24.3589,-34.1023,17.1792,-86.4104,-329.4873,-1.7949,1.7949,-4.3589,12.0513,12.564,23.8462,
-194.1023,34.1028,-8.4612,24.3591,-49.1023,25.8977,-92.564,-323.8459,-6.9231,2.8206,-2.8206,10.5129,10.0002,22.3079,
-200.769,23.3335,-17.1792,21.7949,-63.8459,15.6411,-101.282,-324.8716,-4.3589,-2.3076,2.3076,3.8462,12.564,17.6924,
-210,10.5129,-23.3333,22.3079,-72.5642,4.3591,-109.4873,-331.5386,-0.25659,-9.4871,2.8206,0.25659,9.9998,12.5642,
-211.282,8.7183,-19.4868,19.4873,-75.8972,7.1797,-108.2051,-325.1279,0,-4.1025,0,1.5386,5.6411,13.3335,
-206.4102,13.5898,-16.1538,21.7949,-73.0769,11.5386,-104.8718,-315.1282,-1.7949,-0.25635,0.25635,1.2822,9.4873,16.1538,
-201.5386,15.8975,-16.9233,23.0767,-64.6155,14.8716,-105.1282,-313.3335,0,-0.5127,0,8.7178,11.2817,17.9487,
-203.0769,13.8462,-15.8975,19.4873,-64.1025,15.8975,-104.1025,-308.718,-0.5127,0.5127,-8.2051,15.3848,3.5898,17.9487,
-197.9487,17.4358,-9.7434,24.6155,-61.0256,17.9485,-96.4102,-299.4871,-2.0515,2.0515,-11.282,11.282,6.1541,20.0002,
-196.4099,14.8718,-10.2561,25.1287,-54.3586,14.3591,-94.3586,-299.9998,1.0256,-1.0256,-5.6409,4.1028,15.385,20.5129,
-201.282,6.9233,-12.564,24.3589,-56.6665,5.3848,-98.2051,-299.2307,3.8462,-3.8462,-3.8462,4.3589,11.5386,21.2822,
-197.1794,6.9231,-7.4358,25.3845,-62.8206,5.8972,-95.1282,-293.0769,0.76929,-0.76929,-6.4104,5.8972,4.3591,25.8972,
-191.7947,5.6414,-10.7693,23.0769,-61.5383,6.1541,-94.8716,-294.3589,-3.0769,3.0769,-7.6921,3.5901,6.1541,27.1794,
-193.5896,1.7947,-17.6924,25.8977,-61.282,0.76929,-99.2307,-294.1025,-0.76929,1.7947,-3.8459,2.8206,10.0002,26.9231,
-192.3074,5.6411,-11.7944,26.667,-65.6409,3.5898,-100.5127,-285.6409,0,0,-1.0254,5.6411,11.2822,26.667,
-182.5642,16.4102,-4.1025,29.7437,-58.4617,11.7949,-97.436,-281.0256,-5.1284,4.1025,-7.1797,10.2563,9.7437,23.0767,
-178.9744,17.4358,-8.718,30.7693,-50.2566,7.1794,-94.3591,-283.0771,-3.0769,3.0769,-12.3079,9.2307,7.6921,20.5125,
-182.8206,12.5642,-9.9998,25.8977,-53.5896,4.3591,-93.5896,-281.282,5.3845,-4.3591,-6.4104,5.8977,10.0002,22.8206,
-182.3079,14.1025,-8.4614,26.9229,-59.7437,8.9741,-95.6411,-279.231,4.8716,-4.3589,-3.3335,3.3335,8.4614,21.7949,
-177.6921,17.6921,-12.5642,24.3591,-56.1538,8.9744,-97.1794,-279.7434,1.282,-1.282,-9.4871,3.3333,7.949,19.7439,
-177.6921,22.3079,-15.1282,23.3333,-50.5127,11.5383,-99.7434,-277.6921,2.8206,-2.8206,-11.0256,4.3591,15.1282,21.282,
-184.6152,20,-13.8462,22.564,-48.2051,14.8716,-100,-275.8975,3.5898,-6.1538,-2.564,2.564,18.4614,17.9487,
-183.8462,13.0767,-15.1284,17.6924,-43.3333,11.0254,-97.6924,-277.1794,-0.76904,-7.9487,1.2822,0.76904,12.564,13.0767,
-172.8206,11.7949,-14.3589,25.1279,-37.9487,10.2563,-95.3848,-272.3079,0.5127,-3.0771,-0.5127,5.1279,14.3589,15.8975,
-176.1538,9.4871,-14.6155,25.3845,-42.3076,11.0256,-95.1282,-270,2.8206,-7.4358,-2.8206,3.3333,16.6667,16.6667,
-177.6924,14.1025,-15.1284,20.769,-44.3589,11.0254,-93.5898,-270.5129,0.25635,-13.5898,0.25635,-0.25635,13.0767,14.1025,
-166.4102,18.718,-15.1282,21.7952,-37.6921,10.5129,-94.1025,-266.4102,-1.282,-8.9744,1.282,5.3845,12.0515,12.0515,
-162.3079,18.2048,-14.6155,21.282,-32.5642,9.9998,-94.6155,-261.7949,0.76929,-0.76929,-1.282,11.5383,12.051,12.051,
-167.1797,18.9741,-13.8462,23.0767,-33.8462,11.7949,-91.7949,-259.4873,2.0513,-2.564,-2.0513,7.6924,13.333,13.8462,
-167.436,14.6155,-14.6155,18.718,-34.1028,7.9485,-92.0515,-261.2822,0.76929,-7.4363,-0.76929,2.3074,13.0769,12.5637,
-163.8462,7.9485,-15.6409,17.1794,-32.5642,0.25659,-93.5898,-258.718,0.76929,-7.4358,-0.25659,3.3333,8.4617,11.0256,
-160.7693,9.4873,-13.0771,20.2563,-35.1282,2.3076,-92.5642,-250,0.76904,-10,-0.76904,4.8716,8.4614,15.1284,
-160,9.231,-11.7949,19.4873,-40.5127,9.7437,-96.9231,-246.6667,0.5127,-11.2822,-0.5127,3.5898,14.8716,11.7949,
-161.7949,7.9485,-12.0515,22.8206,-39.231,7.9485,-99.7437,-243.3335,0.76929,-12.0515,-0.76929,5.8972,15.6409,5.8972,
-158.4617,10.2563,-12.3076,22.0513,-33.3335,1.0254,-91.2822,-239.4873,-0.5127,-13.3335,0.5127,9.2305,13.8462,11.7949,
-149.4873,14.1025,-14.6152,19.231,-27.9487,4.8716,-85.3845,-237.1794,-0.76904,-8.9746,0.76904,5.8975,15.1284,12.0513,
-146.1538,14.8718,-10.7693,24.6155,-25.6411,6.6667,-90.2563,-235.3845,-0.51294,-9.2307,0.51294,1.5383,15.3845,5.1282,
-150.2566,10.769,-5.6411,27.6924,-31.7949,4.1025,-93.8462,-233.3335,0,-14.8721,3.0767,0,15.8975,10.2563,
-150.7693,11.2817,-9.231,26.6665,-37.436,6.1538,-95.3848,-233.3335,-0.5127,-10.2563,0.5127,2.564,15.8975,14.3589,
-149.231,16.9231,-14.8718,21.5383,-31.7952,11.282,-95.3848,-233.3335,1.0256,-1.0256,-4.1028,3.0769,13.3333,9.7434,
-148.2053,18.4614,-17.436,21.0254,-27.6926,13.8462,-94.8721,-226.1541,0,0,-4.6157,0.5127,12.3076,11.7944,
-140.7693,21.282,-11.5383,26.9231,-27.9487,15.1282,-96.6667,-214.1025,-0.25659,0.25659,-1.282,6.9231,14.1023,16.6667,
-137.9485,20,-9.2305,20.5132,-24.1025,14.3594,-97.9485,-216.4102,0,0,0,9.7437,13.8462,14.8721,
-138.2051,18.7178,-14.1025,21.7949,-21.2822,13.5898,-95.6411,-218.2051,-0.76904,-2.3076,0.76904,8.4614,14.1025,16.1538,
-133.0771,22.8203,-11.5386,24.8716,-26.4102,15.1279,-92.5642,-203.2051,0.25635,-0.25635,-1.2822,9.4868,14.6152,16.6665,
-127.949,28.9744,-4.8718,21.7947,-27.949,16.6667,-90.0002,-188.2051,0.76929,-0.76929,-3.3333,7.4358,14.1023,14.6155,
-125.1282,29.7437,-4.1025,25.6411,-21.0254,16.4102,-88.718,-186.6667,0.5127,-5.6411,-0.5127,4.6152,14.3589,18.4614,
-124.8718,23.3335,-5.8975,23.8462,-22.3076,14.1025,-91.0256,-183.8462,0.76904,-3.3335,-0.76904,8.4614,15.1279,19.231,
-123.8462,25.3843,-0.25635,23.8462,-32.0515,13.0767,-94.1028,-175.1284,0.25635,-0.76953,-2.8208,7.9487,18.7178,16.1538,
-125.8975,29.9998,0.76929,28.4617,-34.6155,18.2053,-97.6924,-169.4873,-0.76929,-4.3591,-1.282,2.3079,15.1282,17.6921,
-125.8975,27.9487,-3.3335,26.9229,-31.5386,20.2563,-98.718,-157.1794,2.3076,-2.3076,-4.8721,6.9229,8.9741,22.3076,
-123.0769,24.6155,-2.5642,28.718,-33.3333,14.3591,-96.4102,-144.1025,1.5383,-1.5383,-6.1541,6.1541,13.3333,20.0002,
-120.769,22.8206,-1.282,28.9744,-33.0769,13.5896,-98.2051,-142.3076,-2.8206,-8.9744,1.282,2.8206,21.7952,17.6921,
-116.6665,22.3079,-1.282,25.8977,-24.3589,24.3591,-99.2307,-138.7178,-1.7947,-11.0256,1.282,8.4617,19.2307,21.282,
-113.3335,21.0254,-2.0513,24.1025,-23.5898,24.1025,-92.8206,-130.7693,2.0513,-3.0771,-5.6411,6.6665,14.3589,16.9229,
-114.3591,18.9741,-3.0771,23.0767,-29.7437,11.2817,-91.7949,-128.718,2.0513,-2.0513,-3.5898,3.0767,17.9487,5.6411,
-113.0769,16.6665,-5.3848,25.3848,-23.3335,10.5127,-96.6667,-125.8975,0.25635,-7.9487,-0.25635,5.3848,18.2051,2.8203,
-107.9487,17.6921,-2.3079,23.3333,-15.1282,15.1282,-92.5642,-118.718,2.3079,-11.5383,-4.8718,5.8972,19.7434,7.4358,
-108.4617,17.1797,-0.76904,22.8203,-23.8462,9.4873,-91.5386,-110,0.76904,-13.0771,-10,2.3076,16.6665,4.8716,
-112.0515,12.0513,-4.3594,27.4355,-35.6411,2.8203,-97.6924,-100.7693,2.3076,-6.9233,-2.3076,5.8975,9.4868,3.333,
-112.5642,7.4358,-10.0002,23.8459,-33.5898,-1.7947,-101.282,-95.6411,1.7947,-4.3591,3.3333,3.8459,11.0256,2.3079,
-102.3076,19.7437,-5.3848,30,-20.7693,13.2053,-93.5896,-80.6411,0.25635,-0.25635,-0.25635,8.4614,20.7695,5.3848,
-102.8206,18.7178,-2.3076,26.9229,-35.7693,22.3076,-96.1538,-65.6411,-2.3076,2.3076,-4.8721,19.7437,14.6152,9.4873,
-109.7437,6.1541,-2.051,20.0002,-50.7693,8.2053,-101.0256,-66.1538,-1.0256,-2.5642,1.0256,15.3845,6.1541,8.718,
-102.3076,8.4617,-0.76929,25.3845,-35.7693,-4.3591,-92.0513,-61.7949,0.76929,-6.4104,3.3333,8.9744,12.5642,1.282,
-98.9741,7.6924,-3.5898,25.6411,-20.7693,-8.7178,-82.564,-46.7949,1.0259,-7.6924,0,11.2822,19.4873,0,
-105.1284,-2.5642,-4.6155,25.6409,-5.7693,-23.7178,-80.5129,-36.4104,2.5642,-11.282,4.1023,7.1794,20.5129,4.6155,
-104.1025,-12.3076,-1.5386,27.1797,9.2307,-38.7178,-78.9744,-35.8972,6.1538,-13.8462,6.1538,1.5386,24.6157,2.0513,
-97.1794,-15.6411,2.3079,31.0256,24.2307,-47.4358,-74.1025,-21.7949,7.949,-8.9744,2.3079,10.5129,27.4358,-2.3079,
-94.8718,-14.3589,2.0515,35.8977,35.3845,-38.4614,-73.3333,-6.7949,6.1541,-9.7434,0.51294,16.9231,26.6667,-0.51294,
-98.9746,-16.4104,-1.0256,31.7947,23.5896,-46.6667,-75.3848,4.1023,1.0256,-11.282,1.0256,6.1536,25.6409,-2.0515,
-98.9744,-20.5127,-1.5383,31.7952,21.5383,-55.3845,-76.4102,6.1541,1.5383,-5.1282,2.0515,2.5642,25.6414,-4.1023,
-95.3848,-20.5129,-4.6155,32.3079,23.5896,-47.6924,-75.3848,13.3333,4.6155,-2.0515,1.5383,9.7434,24.6155,-1.5383,
-95.8977,-20.5129,-5.6414,30.7693,23.5896,-39.4873,-75.3848,28.3333,3.0769,-4.1028,5.1282,9.7434,25.1282,-3.0769,
-99.4873,-26.1541,-1.0256,29.7434,14.3586,-45.6411,-77.949,43.3333,1.0256,-7.1794,5.1282,3.5896,23.5896,-7.6926,
-93.5896,-22.8206,-0.76929,25.8977,16.1541,-52.564,-78.718,55.1282,5.8977,-4.8718,0.76929,3.8464,23.3333,-6.9231,
-88.7178,-12.3076,-5.1279,25.1284,23.5898,-47.6921,-78.9741,64.6157,7.1797,1.5386,-1.5386,8.2051,20,-8.2051,
-97.436,-18.9746,-7.1797,20.5127,16.9229,-37.9487,-82.0513,74.8716,0.5127,2.0513,-0.5127,10.769,15.3848,-11.2822,
-99.2307,-29.4871,-6.4104,18.2053,11.5383,-32.0513,-81.282,81.7952,1.282,-1.282,3.3333,12.5642,18.2053,-9.4871,
-96.9231,-27.6924,-10.769,23.0771,7.1797,-31.282,-83.0769,91.7949,4.1025,-2.0513,2.0513,7.1797,19.4873,-7.6924,
-95.3845,-17.9485,-10.2566,24.1028,5.6409,-17.9485,-81.0256,106.7949,4.6155,-1.5383,1.5383,5.6409,20.0002,-6.1541,
-88.4617,-11.5383,-3.8464,25.8972,13.0769,-2.9485,-73.0769,119.2307,2.8206,0.76929,-0.76929,13.0769,20.7693,-2.8206,
-86.4104,-18.7178,-5.3848,24.3589,16.6665,-7.9487,-72.0513,125.3848,0.25635,0.76904,-0.25635,15.6411,19.7437,-2.3076,
-89.7437,-24.1025,-9.2307,21.5383,18.9744,-14.3591,-73.8462,124.6155,3.5896,-3.5896,4.6155,13.3333,20.0002,-5.1282,
-87.6924,-12.8206,-8.718,26.1541,23.5896,-0.51294,-72.8206,121.0256,0.51294,-5.6409,4.1028,13.8459,17.9485,-8.2053,
-80.2563,-7.9485,-5.8972,25.8977,23.3333,14.4871,-69.4871,127.949,-7.9485,-2.3079,2.3079,12.5642,19.7434,-4.3591,
-75.1282,-14.1023,-5.3845,23.8464,24.3591,14.1028,-71.0256,139.2307,-6.4104,-4.3591,2.8206,9.4871,24.3591,-2.8206,
-78.4617,-16.9233,-13.3335,22.0513,22.0513,0.5127,-76.4104,136.9229,-0.5127,-14.8721,1.5386,3.5898,21.5386,-11.2822,
-79.7437,-16.1538,-11.0259,21.2822,13.0767,-4.3589,-72.0513,131.5386,7.9487,-9.4873,6.9229,4.3589,22.3076,-8.9746,
-81.282,-24.8718,-4.8718,24.3591,2.3079,-5.3845,-71.5383,132.0515,7.949,-2.3079,11.0256,4.8718,23.3333,-5.8972,
-82.0515,-29.7437,-9.2307,21.5383,5.1282,-1.0256,-74.8718,138.9744,1.0256,-8.718,8.2048,3.5896,19.9998,-10.7693,
-76.6665,-17.1792,-12.564,23.8462,11.0259,11.5386,-73.5896,153.0771,-3.3335,-11.0254,3.3335,7.9487,20.2563,-8.9741,
-71.5383,-8.9744,-2.8206,35.6414,8.4617,15.1282,-68.4614,160.7693,-1.282,-4.8718,1.282,11.0256,19.2307,-3.8459,
-76.4102,-18.4614,-1.0259,30.769,2.564,6.1538,-71.282,152.8203,-3.5898,-10.769,1.0259,4.1025,8.7178,-10.2563,
-73.0769,-14.6155,-5.8977,30.5129,11.5383,8.9744,-70.5129,157.6921,-1.282,-15.1282,1.282,4.3591,14.6155,-6.9231,
-75.3848,-15.3848,-13.3335,23.5894,17.4355,6.1538,-71.7952,163.0767,2.0513,-13.8462,-7.1797,3.0767,16.9229,-2.0513,
-78.718,-18.2051,-10,24.3589,15.1279,4.3589,-71.5386,170.5127,1.7949,-7.436,-1.7949,6.4102,15.6406,-2.8208,
-75.3845,-17.436,-8.7178,30.2563,10.769,13.8462,-72.8206,169.231,-5.1284,-9.7437,5.1284,6.6665,17.9487,-5.6411,
-68.4617,-16.1541,-11.0256,25.3845,14.1023,16.1536,-68.4617,159.7434,-5.8977,-12.0515,1.282,5.3845,17.1794,-1.282,
-65.3845,-13.5896,-5.3845,26.9231,21.282,8.9744,-61.282,159.7439,-2.8206,-6.9231,1.282,6.9231,15.6414,-1.282,
-72.5642,-18.2053,-2.3079,28.4617,17.6921,7.4358,-65.3848,164.8718,-5.8977,-7.4358,2.3079,5.8972,18.2048,-9.4871,
-72.564,-21.282,-2.8206,28.9744,11.0256,15.1282,-66.4102,173.0769,-1.7947,-9.4871,1.7947,5.8977,19.2307,-4.3591,
-67.9487,-18.2051,-2.8203,27.9487,9.4873,17.6924,-66.9231,175.6411,0.76904,-10,-2.8203,5.3848,6.9233,-0.76904,
-67.6924,-10.769,0,25.6411,13.3335,9.7437,-70.2563,174.3589,0,-8.7178,-7.6924,5.1284,9.7437,-7.6924,
-65.6409,-7.6924,-0.5127,29.7437,15.3848,3.0771,-67.6921,174.3589,0.5127,-9.7437,-3.0767,4.1025,23.0771,-4.6152,
-64.3589,-8.4614,-7.436,26.9233,11.0259,8.4614,-64.8718,170,-6.4102,-14.6152,4.3589,1.2822,15.1284,-1.2822,
-59.7434,-3.3335,-8.4614,25.3848,18.2051,23.4614,-64.8718,169.4873,-6.9229,-13.5898,5.3848,3.3335,5.3848,-4.8716,
-60.5127,-9.7434,-5.1282,27.1794,22.0515,23.0769,-67.6924,172.3079,1.0256,-12.3079,-1.0256,2.0515,1.0256,-7.6921,
-65.6409,-16.4099,-6.1536,22.5642,13.8464,8.0769,-68.7178,171.7952,4.1028,-13.3333,-1.0256,2.0515,1.0256,-3.0769,
-67.1794,-12.8203,-11.2822,21.5386,8.7178,7.1797,-67.1794,169.231,0,-19.4873,0,5.1284,0.5127,-3.0767,
-62.8206,-12.0515,-10.0002,24.3591,15.6409,15.1282,-61.7949,172.051,0.25659,-21.7947,-0.25659,4.3591,0.25659,-5.8977,
-61.0256,-12.8208,-7.1797,22.0513,21.0254,14.8716,-58.9744,180.5127,0,-18.4614,0,1.5386,0,-7.6924,
-61.5383,-5.1284,-9.7437,25.1284,13.3335,15.8975,-62.564,185.1284,0.5127,-12.8203,1.5386,3.5898,-0.5127,-6.1538,
-61.7952,-4.3591,-9.4875,24.3586,-0.76929,11.0256,-65.8977,184.3586,5.8972,-10.5129,4.3586,5.3845,0.76929,-1.2825,
-61.0256,-9.7437,-7.1797,21.5386,5.6411,2.0513,-65.6411,180,4.1025,-12.8203,1.5386,4.1025,-1.5386,-5.1284,
-57.1794,-8.9744,-8.9744,25.8972,20.6411,4.3591,-57.6924,171.5383,3.3333,-12.0515,-0.25659,2.8206,0.25659,-9.4871,
-59.7434,-16.6663,-10.5125,24.8718,31.5388,6.4104,-55.1279,167.949,4.3591,-14.1023,3.3337,-2.8206,2.8206,-7.4358,
-64.1025,-25.1282,-10.2561,25.1282,20.0002,13.8464,-63.0769,171.7952,3.0769,-17.4358,5.1282,-3.0769,4.6155,-7.1794,
-65.3848,-24.8718,-12.564,23.8462,18.2051,28.8464,-67.436,171.5386,2.8203,-16.1538,-0.25635,0.25635,2.3076,-8.4614,
-60.7693,-21.282,-7.9487,26.9233,15.1284,43.8464,-61.282,175.6411,7.9487,-8.9741,-0.25635,1.7949,0.25635,-5.8975,
-60.769,-22.8203,-8.9741,26.4106,7.9487,41.2822,-57.6921,171.5386,7.9487,-8.9741,4.3594,0.25635,-0.25635,-8.9741,
-65.1282,-23.5896,-16.4104,21.0256,14.3591,35.8977,-60.5127,156.9231,1.0256,-14.3591,2.5642,-0.51294,0.51294,-12.3079,
-60.769,-18.7178,-14.1025,24.8721,23.8462,42.3076,-62.3076,163.3335,-0.25635,-10.5127,0.25635,3.8462,2.3076,-4.8716,
-61.0259,-22.5645,-13.3335,20.5127,15.3843,46.1538,-60.5129,171.7944,0.5127,-9.7437,0,2.564,0,-5.6411,
-61.7947,-17.6921,-14.1023,19.7439,15.6409,39.2307,-52.564,158.718,1.282,-11.0256,0.76929,1.282,-0.76929,-12.5642,
-56.9231,-12.3079,-11.7947,25.6409,30.2566,31.7947,-50.7693,149.7434,1.0256,-9.2307,-1.0256,6.1541,2.0515,-10.2566,
-54.8718,-20.0002,-11.7952,19.9998,33.8459,42.051,-55.3848,160.5129,1.5383,-7.6926,-1.5383,1.5383,3.0769,-7.6926,
-50.2563,-15.8972,-10.7693,23.5896,34.3591,57.051,-50.7693,167.6921,8.718,-5.1282,5.1282,-9.2307,5.6409,-6.6667,
-47.4358,-12.564,-7.9487,26.9233,34.6152,55.1284,-46.9231,160.2563,8.4614,-9.4873,6.9233,-8.4614,5.8975,-5.8975,
-50.769,-20,-11.2817,23.0771,27.6924,43.5898,-51.7947,155.8975,1.5386,-10.2563,0.51318,0,0,-7.6924,
-51.7947,-19.4868,-12.3076,24.6157,23.0771,46.1538,-53.3333,154.8721,2.5645,0,-0.5127,0,0.51318,-11.7949,
-52.5642,-18.2051,-12.0513,21.2822,19.7437,46.4102,-53.5898,154.1025,5.3848,-1.7949,1.7949,-2.3076,2.8203,-14.6152,
-52.8206,-18.9746,-14.3589,20,16.9229,40,-56.4104,158.9741,2.0513,-9.231,1.5386,0.5127,-0.5127,-13.8462,
-49.7437,-10.2566,-10.7693,21.0256,23.5896,42.5642,-50.7693,155.3845,0.51294,-2.0515,1.5383,3.0769,-0.51294,-10.7693,
-47.6921,-7.1792,-8.2051,18.4619,29.231,50.2563,-47.6921,145.6411,1.5386,1.5386,-2.0513,0,0,-15.3843,
-46.1541,-15.3848,-11.2822,22.564,25.6411,51.2817,-51.2822,153.8462,4.1025,-5.6411,0.5127,-0.5127,4.6152,-14.8721,
-49.4871,-21.282,-15.6409,21.282,17.1794,42.3079,-54.6152,156.1541,1.282,-11.5383,4.3591,-1.282,8.9744,-7.9485,
-45.3848,-12.0515,-13.0769,22.8206,21.7947,43.3333,-48.9746,145.8972,-1.282,-5.385,1.7947,1.282,11.5383,-2.3079,
-36.6665,-3.8462,-13.5898,23.8462,32.564,45.8975,-44.3589,144.8721,1.7949,-1.7949,-3.333,3.3335,6.9233,-8.4614,
-36.1541,-6.4104,-15.6414,23.8459,29.9998,42.3074,-45.3848,149.9998,5.3845,-7.949,-1.282,1.282,6.4099,-12.5642,
-37.6924,-7.436,-11.0259,27.9487,22.3076,37.6924,-43.3335,145.3848,4.8716,-13.5898,3.3335,-3.3335,16.1538,-3.8462,
-36.6665,-7.4355,-11.0254,23.8462,28.4619,33.0771,-41.7947,137.1797,4.3594,-7.9487,3.8462,-3.8462,16.1538,-3.8462,
-39.2307,-10.5129,-14.6155,21.282,29.4871,33.0769,-50.5129,136.1541,2.3079,-1.282,-0.25659,0.25659,8.4617,-13.0769,
-41.0259,-10.2568,-6.1538,22.0513,18.9741,39.4868,-53.8464,136.9229,1.0254,0,-1.5386,0,12.8203,-9.7437,
-42.0513,-14.3591,-5.1282,21.0256,16.9231,34.8718,-48.718,129.7434,2.5642,-0.51294,0.51294,-2.051,13.3333,-7.6921,
-42.8206,-20.2566,-13.0769,22.8206,20.7693,24.8718,-48.4617,130.5129,1.282,-1.282,0.25659,5.8972,-0.25659,-12.5642,
-40.7693,-20.769,-8.9746,18.2051,21.7949,35.1284,-48.9744,136.1538,1.2822,-0.25635,-0.76904,13.5898,0.25635,-8.4614,
-42.3076,-19.7437,-4.3589,16.1538,18.7178,40.769,-48.4617,127.436,0.76904,-0.76904,-1.2822,4.8716,7.9487,-3.8462,
-39.7437,-13.0771,-5.3848,22.8203,17.1797,25.769,-47.436,131.5386,1.7949,-1.2822,1.2822,-1.2822,2.8203,-5.8975,
-35.6411,-12.5642,-6.4104,23.3333,16.1541,13.5896,-45.8975,143.3333,1.7947,0.25659,2.3079,-0.25659,-2.8206,-7.949,
-36.6667,-18.7178,-2.3076,22.8203,18.2051,28.5896,-41.282,128.9741,-0.76904,0.76904,0.76904,-1.7949,0.76904,-8.4614,
-37.1794,-16.6667,-2.3074,21.282,22.8206,43.5896,-38.2051,115.6414,-0.76929,0.76929,1.7952,-2.3074,4.3591,-8.4617,
-32.3076,-11.2817,-5.6406,20.5132,24.6157,38.4619,-37.9485,129.7437,-1.5381,1.5386,0,0,1.0259,-7.6924,
-30.2563,-12.8206,-3.0769,25.1282,24.6155,27.1794,-38.4614,133.3333,1.5383,-0.51294,0.51294,2.0515,-0.51294,-7.1794,
-35.3845,-13.8459,-4.1028,25.1282,22.0515,16.9231,-45.1282,118.3333,4.1028,-12.3079,1.5383,2.0515,-1.5383,-9.7434,
-35.8975,-9.7439,-7.6926,25.1282,22.051,27.6921,-42.5642,113.3333,0.51294,-14.8718,1.5383,2.051,-0.51294,-10.2566,
-35.3845,-21.5386,-7.1797,19.4873,18.9746,29.7437,-35.8975,118.4614,-1.5386,-4.6152,2.0513,2.564,1.5386,-8.7178,
-34.6155,-29.4873,-2.3076,18.2051,13.5898,14.7437,-36.1538,116.6665,-0.76904,-0.76904,2.3076,0.76904,0.76904,-6.9233,
-25.6409,-14.4873,-1.5381,27.1797,26.1538,17.436,-33.8459,122.0513,-0.5127,0,2.5645,5.1284,0,-4.1025,
-18.4614,0.5127,-4.1025,22.564,31.7949,32.436,-31.2822,128.7178,-1.5386,0,0,7.1792,-1.0259,-3.5898,
-13.8459,15.5127,-3.0769,20.5129,19.4875,47.436,-35.8972,126.6667,1.0256,-1.0256,-1.0256,5.1282,-2.5637,-4.1023,
-6.9229,30.5127,-3.3335,24.3589,10.5127,62.436,-38.2051,122.8203,1.2822,-1.7949,-1.2822,7.9487,-3.3335,-4.8716,
-0.51269,45.5127,-3.0771,28.2051,8.7178,77.436,-33.8462,128.2051,-3.0771,0.5127,-2.564,14.8716,-4.6152,-1.0259,
-2.3079,59.7434,-7.4358,19.7434,2.8206,92.436,-39.2307,130.0002,-8.4617,2.3079,-7.9485,11.5383,-10.5129,-5.8972,
-2.3079,61.282,-6.4104,15.1282,2.3079,105.3845,-41.282,127.4358,-5.3845,3.3333,-6.9231,8.9744,-8.9744,-8.9744,
0.25659,59.7434,-1.282,27.4358,2.8206,108.9744,-36.6667,130.5129,-1.7947,-0.25659,-3.8459,10.5129,-3.3333,-4.8718,
-0.76929,58.2048,-0.76929,27.4358,-4.3591,110.5125,-33.5898,137.1794,0.76929,4.8718,-1.7952,11.0256,-2.8206,-2.8206,
-3.5896,53.8464,-4.6155,18.9744,-10.7693,101.5383,-35.3845,131.7952,1.5383,7.6921,-2.5642,10.7693,-5.6409,-1.5383,
-2.0513,49.2305,-2.0513,27.6924,-7.1797,90.2563,-34.3591,127.1792,0,5.1279,0,13.3335,-2.564,0,
-5.8972,44.3591,-2.8206,24.8718,-6.9231,93.0769,-35.1282,129.9998,1.7947,5.3845,-1.7947,12.0515,-2.8206,-3.8459,
-7.436,50.5127,-7.436,19.2305,-3.8462,106.9229,-38.718,125.8975,3.8462,11.5386,-6.9233,16.1538,-8.9746,-4.3589,
-0.76953,56.6665,-2.3076,21.2817,0.25635,106.4102,-40.2566,120.769,-0.25635,13.0767,-9.4873,19.7437,-11.5386,-1.7949,
0.76929,52.5642,-0.76929,19.7434,-3.3333,99.7434,-41.282,121.282,-5.3845,9.4871,-11.5383,14.1028,-11.0256,-7.4358,
0.51294,54.3591,-3.5896,21.5383,-4.1028,102.051,-37.436,123.5896,-0.51294,13.8459,-7.6921,13.8459,-6.1541,-7.1794,
-4.8718,47.9485,-5.3845,19.7434,-4.8718,93.5896,-35.6411,113.5896,1.282,12.0515,-3.8459,8.9744,-1.282,-2.3079,
-4.1028,35.8972,-1.0256,22.5642,-9.7439,91.282,-36.4104,113.8459,-1.5383,10.2561,-1.5383,3.5896,1.0256,-2.0515,
-5.8972,25.3845,-3.8459,21.7947,-20.2566,87.9485,-39.7437,116.6667,0.76929,9.4871,-0.76929,7.4358,-2.8206,-7.4358,
-18.9741,12.8208,-14.8716,11.7949,-28.7178,72.9485,-44.1025,102.0513,4.1025,5.6411,-4.1025,5.1284,-7.6924,-12.8203,
-18.7178,13.0771,-12.564,16.1538,-23.3335,75.1284,-39.7437,98.7178,5.8975,6.4102,-3.3335,3.3335,-3.3335,-7.9487,
-5.8977,26.4099,-3.8464,22.8206,-12.5642,90.1284,-35.1284,106.4099,1.282,9.4871,-2.3079,7.9485,-1.282,-3.3333,
2.5642,40.0002,-2.5642,26.1541,-7.6921,84.1028,-34.8718,112.3079,-4.6155,11.282,-3.5896,7.6921,-3.5896,-5.6409,
1.2822,39.7437,-3.333,25.8975,-10.5127,80.7695,-32.0513,113.0771,-7.9487,5.3848,-0.76904,-0.25635,0.25635,-5.3843,
-2.0513,33.333,-0.5127,24.6152,-16.4102,87.6924,-29.7437,116.4102,-7.6924,0.5127,-2.0513,-1.5386,4.1025,0.5127,
-2.0513,28.2051,-1.0259,29.7432,-21.0259,78.9741,-32.3079,115.897,-2.0513,4.1025,-11.2822,3.5894,0,0,
-0.25635,24.8721,-1.2817,30,-20.2563,70,-32.0513,107.9487,0.25635,7.9487,-10.5127,5.3848,-0.25635,-1.7949,
-1.0259,28.2051,-0.51269,26.1538,-16.4102,71.2817,-32.3079,109.7437,-5.1284,1.5386,-3.5898,1.0254,0.5127,-2.0513,
3.5898,34.3589,0.5127,25.1284,-8.7178,75.8975,-32.3076,113.8462,-1.5386,-2.0513,-0.5127,-1.0254,3.5898,-1.5386,
8.9741,35.6411,-1.2822,21.2822,-7.436,75.6411,-32.0513,115.6411,1.2822,-2.8203,-6.9229,-1.7949,3.3335,-2.3076,
5.1284,31.2822,-1.5386,24.6152,-10.2563,69.231,-32.3076,110.769,-3.0767,-2.564,-11.2822,-3.0767,1.5386,5.1284,
-1.282,28.4617,0.76929,26.4104,-6.9231,68.4617,-32.5642,102.3079,-2.8206,-0.76929,-5.8972,-0.76929,3.8459,11.5383,
-0.76929,34.6155,-1.7947,21.282,-6.4099,70.5129,-33.5896,104.3591,-3.8459,-2.8206,-6.4099,0.76929,0.76929,6.9231,
3.3333,34.1028,-0.76929,22.3079,-16.6667,69.9998,-31.0256,112.5642,-3.3333,-2.8206,-11.0256,0.76929,-0.76929,9.9998,
0.76929,22.3079,-0.25659,22.8206,-18.718,63.3333,-30,102.3079,-1.7947,0.25659,-14.1028,-2.8206,-0.25659,9.9998,
4.8718,33.0769,-0.76929,25.3845,-3.718,68.9744,-28.9746,93.5896,-1.282,0.76929,-11.0256,-2.3079,-1.7952,3.3333,
11.2822,48.0769,0.5127,23.0767,-2.564,83.9744,-25.1284,103.5898,-3.0771,-2.0513,-7.1797,-0.5127,-4.1025,5.1279,
14.1023,56.1536,0.76929,22.8206,-15.1282,98.9744,-23.3333,114.1023,-3.8464,-2.8206,-4.3591,-0.76929,-2.3079,10.5129,
15.1284,55.6411,-5.3848,23.8462,-19.7437,100.769,-30,109.4873,-6.4102,0.25635,-7.9487,-0.25635,-5.8975,4.8716,
12.0513,57.6924,-12.0513,14.6157,-30,102.3081,-41.282,101.7949,-11.0254,-0.25635,-16.1538,1.7949,-15.6406,0.25635,
9.2307,55.3845,-8.718,16.4104,-35.8972,109.2307,-39.4873,104.1028,-8.718,-3.0769,-14.3591,3.0769,-13.8459,5.6409,
13.5896,55.6409,-1.282,23.3333,-24.3591,112.5642,-28.4617,105.8972,-3.3333,-3.3333,-5.3845,1.282,-5.3845,11.5383,
17.6926,54.6155,-1.282,23.3333,-23.8459,110.0002,-30.5127,92.5642,-1.7947,0.76929,-0.76929,-4.3586,-4.3586,11.0256,
11.5383,48.9744,-5.8972,22.3079,-38.8459,95.0002,-35.1282,85.3845,-5.8972,5.8972,-4.3591,-4.3591,-8.4617,4.3591,
3.0771,44.1025,-12.8203,13.3335,-45.6411,80.0002,-34.8716,89.7437,-10.2563,3.0771,-10.2563,-1.5386,-11.7949,1.5386,
5.6414,46.6667,-11.282,14.8718,-37.9487,90.7693,-34.3586,93.3333,-9.2307,3.0769,-9.2307,-3.0769,-11.7947,4.1028,
7.1794,45.1282,-2.5642,15.8977,-40,95.8977,-34.8718,92.3079,-10.2561,2.5642,-9.2307,-10.2561,-11.282,3.5901,
6.6665,45.1279,2.0513,14.3589,-41.5386,89.7437,-26.667,91.7949,-6.667,-2.0513,-7.1797,-10.7695,-7.6924,6.6665,
13.5896,50.5129,1.282,17.6921,-31.0256,85.8972,-21.7947,86.9231,-3.3333,-1.282,-4.8718,-6.9231,-3.3333,3.8459,
17.6921,52.5642,1.282,18.718,-28.4617,79.2307,-25.3845,80.7693,-5.3845,5.3845,-4.8718,-1.282,-3.3333,-8.4617,
11.2822,51.2822,-5.1284,20,-37.436,73.8462,-27.6924,78.9741,-9.231,5.6411,-9.7437,5.1284,-10.2563,-13.8462,
10.769,50.2563,-10.2563,23.0767,-33.8462,79.4868,-27.6924,80.5127,-7.6924,5.6411,-9.231,8.7178,-10.7695,-5.6411,
11.0256,41.7947,-9.4871,17.6921,-31.0256,80.7693,-31.0256,80.2566,-5.3845,8.4617,-4.8718,2.3079,-7.9485,-2.3079,
10.769,36.4102,-3.5898,20,-31.7949,74.3589,-28.2051,78.9741,-3.0771,11.7949,-3.0771,1.5386,-6.1538,-1.5386,
5.3845,31.0256,-6.4099,19.7439,-32.051,67.4363,-24.3586,63.9741,-6.4099,7.949,-7.9485,5.3845,-10.5125,-5.3845,
5.3848,31.5386,-4.3589,22.3076,-31.0254,59.231,-22.8203,60.7695,-6.4102,4.3589,-7.4355,6.9233,-8.9741,-5.8975,
7.6924,32.8203,1.0254,20.5127,-33.8462,58.9741,-24.6152,73.3335,-4.6152,0,-8.2051,-2.564,-8.7178,0,
7.6924,33.3335,1.5386,16.9233,-29.7437,65.6411,-24.6152,70.7695,-4.1025,1.5386,-9.7437,-10.769,-11.2817,-1.5386,
14.6155,38.2053,0.76929,23.8464,-23.8459,64.3591,-19.7434,59.7439,-4.3586,10.0002,-5.3845,-2.3074,-6.9231,-0.76929,
16.1541,29.4871,-9.4871,18.2053,-32.051,54.6155,-24.8718,53.5896,-7.4358,5.3845,-8.9744,1.282,-11.0256,-1.282,
18.4614,31.2822,-9.7437,17.436,-26.6665,60,-26.6665,58.4614,-2.0513,2.0513,-8.7178,5.1284,-13.8462,-2.564,
15.6409,37.6921,-8.9744,18.718,-19.7434,60.7693,-27.4358,59.2307,-3.3333,7.949,-8.4617,3.3333,-14.6155,-6.4104,
15.1279,33.5898,-13.5898,13.0767,-19.7437,60.769,-24.3589,59.2305,-6.4102,12.0513,-12.0513,1.7949,-12.564,-1.7949,
12.5642,31.0256,-17.6921,13.5896,-22.3079,66.4104,-25.8977,49.4871,-6.4104,4.8718,-17.6921,1.282,-16.6667,-1.282,
13.5896,34.6155,-12.5642,15.1282,-23.8464,60.7693,-28.9744,45.3845,-2.3079,2.3079,-13.5896,3.3333,-15.6409,-5.3845,
18.9744,32.8206,-10.2566,11.282,-17.4358,54.8718,-25.1282,52.3079,-5.6409,2.5642,-9.7434,6.1541,-11.7947,-2.5642,
18.9744,29.7434,-11.282,11.7947,-16.4104,56.4099,-17.949,50.7693,-10.7693,1.5383,-11.7952,7.1794,-13.3333,-1.5383,
13.3333,27.1794,-7.6921,13.3333,-25.6409,41.4099,-18.4617,39.4871,-4.6155,3.5896,-10.2566,5.1282,-10.7693,-3.5896,
14.1028,25.3845,-9.4871,11.5383,-25.3845,39.7434,-28.4617,42.3079,-6.4104,2.8206,-11.5383,5.8977,-11.0256,-2.8206,
16.6663,32.5637,-16.6667,11.0256,-20.2566,54.7434,-32.5642,49.9998,-13.5901,0.76929,-12.0515,8.9744,-14.1028,-0.76929,
9.2307,40.5129,-16.9231,14.8718,-32.3079,69.7434,-29.7434,49.2307,-12.3079,1.5383,-8.718,7.6921,-15.3845,-1.5383,
2.0513,38.9741,-10.7695,15.3843,-47.3079,81.0254,-28.7183,52.8203,-4.6157,5.1279,-9.231,10.2563,-15.3848,-2.0513,
1.0256,31.7947,-11.7947,8.2053,-62.3079,78.4617,-29.2307,49.2307,-1.0256,10.7693,-11.7947,11.282,-14.8718,-2.5642,
1.0256,31.7947,-9.2307,8.718,-53.3333,83.0769,-28.2053,40.5129,-5.6409,15.8972,-10.2566,7.1794,-11.282,-1.0256,
-0.5127,26.6665,-8.7183,4.6152,-47.1797,84.1025,-28.2051,40,-9.231,11.2817,-10.7695,7.1792,-11.2822,0.5127,
-0.76929,27.4358,-14.1028,5.8972,-54.1028,88.4612,-27.949,42.8206,-5.8977,7.4358,-6.4104,13.5896,-12.0515,0.76929,
0,32.3076,-12.8203,20,-60,90.2563,-27.6924,38.9741,-0.5127,15.3848,-1.5386,17.9487,-11.2822,0,
-0.25635,24.3594,-8.9741,15.1284,-57.1792,82.8208,-27.4355,36.667,-2.8203,16.1538,-6.9229,16.1538,-12.564,0.25635,
0.51294,21.0256,-13.8459,8.2053,-56.9231,70.7693,-28.2053,36.9231,-7.1794,4.6155,-10.7693,12.3079,-13.8459,-0.51294,
1.7949,27.436,-16.6665,11.5386,-58.2051,64.8716,-28.9746,28.9741,-3.8462,4.3589,-1.7949,7.9487,-12.564,-2.3076,
1.0256,22.0515,-11.282,11.7952,-56.4102,69.7439,-29.2307,25.1282,-2.5642,9.2307,-1.5383,2.0515,-11.7947,-1.0256,
-0.51294,10.7693,-11.282,11.7952,-57.4358,66.6667,-27.6921,28.2053,-2.5642,8.2053,-8.2048,1.0256,-11.7947,0.51294,
-0.25635,16.1538,-14.6152,7.9487,-57.6921,64.3594,-26.9229,27.436,-0.76904,10,-4.3589,5.8975,-8.9741,0.25635,
1.7949,22.8203,-12.5645,10.5127,-58.2053,67.9487,-30.5132,20.2563,-1.7949,15.6406,-4.3594,4.8716,-2.3081,-2.3081,
1.0256,16.4099,-13.3333,13.8459,-56.4104,63.5896,-31.7952,12.8206,-1.0256,14.8718,-10.2566,1.5383,-1.0256,-2.5642,
0.76929,19.7434,-16.1541,9.9998,-48.9746,59.7434,-26.9231,14.1023,-2.3079,11.5383,-13.0769,5.8972,-12.5642,-0.76929,
0.76929,23.8464,-17.1794,11.0256,-44.8718,64.8718,-25.8972,18.2053,-3.3333,13.0769,-13.0769,4.3591,-13.0769,-0.76929,
1.0256,13.3333,-14.8718,12.3079,-45.1282,63.5896,-28.718,11.7947,0.51294,15.8972,-7.1794,-1.0256,-0.51294,-0.51294,
1.7949,6.4102,-14.6152,12.564,-43.8462,50.5127,-28.9741,-0.25635,0.76953,9.4873,-2.8203,0.25635,-2.8203,-1.7949,
1.2817,10.5127,-15.6411,12.564,-47.436,50.5127,-24.3594,0.25635,-2.8208,2.8203,-0.25635,2.8203,-6.9233,-1.7949,
-0.51294,11.7947,-14.3591,10.7693,-50.2566,56.4099,-23.5901,1.0256,-1.5388,7.1794,-1.5388,2.051,-1.0256,0.51294,
3.0767,15.8975,-11.7949,14.3589,-42.5642,50.769,-24.6157,-5.6411,0.5127,14.3589,-1.0259,1.5386,-0.5127,-1.0259,
7.9485,22.3074,-11.5388,13.5896,-36.1541,49.4871,-18.2053,-1.7952,-0.76929,11.0256,2.8206,0.76929,-5.385,-2.3079,
3.0769,18.4617,-14.3591,7.6921,-44.6155,52.8206,-22.5642,6.6667,-1.5383,6.1536,-3.5901,0.51294,-5.6414,-0.51294,
-0.25635,10.5127,-11.5386,4.8721,-47.4358,53.5898,-31.0254,0.25635,-1.7949,8.9746,-13.0767,4.3589,-6.9229,0.25635,
3.5896,9.7434,-6.6667,9.7434,-34.8718,57.4358,-22.0515,-7.1794,-1.5383,12.3074,-7.1794,12.8206,-1.5383,1.5383,
4.1028,14.3591,-12.8206,14.8718,-34.8718,61.5383,-16.4104,-5.6409,-5.1282,10.7693,-1.0256,13.8459,-4.6155,1.0256,
4.8718,16.1536,-17.1794,10.5129,-38.2053,57.1794,-17.6921,-6.4104,-2.8206,8.4617,-1.7947,14.1023,-13.0769,1.7947,
2.3074,8.4612,-14.6155,7.9485,-36.6667,50.5125,-17.1794,-14.1028,-0.76929,5.8972,-1.282,11.5383,-10.0002,0.76929,
2.8203,4.8716,-13.0771,12.564,-35.1284,48.4614,-18.2051,-16.6665,-2.3076,3.3335,1.2822,5.8975,-1.7949,-1.2822,
7.6921,10.7693,-13.3333,11.282,-30.7693,44.6155,-17.9485,-20.5129,-1.5383,3.5896,-1.0256,4.6155,-0.51294,0.51294,
5.8972,7.9485,-16.6667,11.5383,-31.0256,43.3333,-20.2566,-25.8977,-1.282,5.3845,-1.7952,4.8718,-2.3079,1.282,
-0.76929,-3.8459,-17.6921,11.0256,-37.1794,44.3591,-25.3845,-22.3074,0.76929,10.5129,2.8206,3.3337,-2.3074,1.2825,
0.25635,-4.8721,-14.6152,10.5127,-37.1797,37.1792,-24.8721,-21.2822,0.25635,16.1538,-0.25635,6.9229,-10.5127,2.8203,
8.2053,5.1282,-14.3591,14.3591,-26.6667,32.8206,-20.5129,-30.2566,-3.0769,17.4358,-8.718,13.8459,-17.9485,3.0769,
10.769,9.7437,-15.3848,15.3843,-24.6157,39.4873,-17.9487,-33.3335,-2.0513,14.8716,-10.7695,11.2817,-12.3076,2.0513,
10.2563,10.2563,-9.231,15.3843,-30.2563,38.4614,-17.9487,-31.2822,0,7.6924,-10.2563,4.1025,-9.7437,0,
13.0769,11.5383,-3.3333,11.5383,-30.5129,31.0256,-16.1541,-35.6409,0.25659,3.3333,-13.0769,2.8206,-13.0769,-0.25659,
14.8716,11.2822,-8.7178,10.769,-28.2051,31.2822,-17.9487,-36.4102,-2.0513,2.564,-13.3335,3.5898,-12.3076,2.0513,
14.6155,15.1282,-9.4871,17.1794,-23.3333,36.1536,-18.718,-27.949,-8.4617,4.3591,-10.5129,4.3591,-4.3591,5.8972,
10.2561,12.8201,-7.6926,10.2561,-23.5901,29.2307,-19.4875,-36.9231,-18.4617,3.5896,-15.8977,2.5637,-1.0256,1.0256,
17.6924,16.1538,-8.9741,12.564,-18.7178,24.8721,-15.6411,-45.8975,-10,10,-12.0513,5.3848,0.25635,-0.25635,
18.9744,10.7688,-16.9231,13.3333,-21.0256,21.5383,-16.9231,-49.231,-1.0256,8.2048,-4.6155,4.1023,-1.0256,1.0256,
10,-3.3335,-16.1538,9.4868,-27.9487,19.7437,-22.3081,-52.0515,-1.2822,1.2817,2.8203,-0.25635,0.25635,1.7949,
6.1538,-6.1538,-13.3335,11.7949,-23.5898,20,-25.1284,-54.8718,0.5127,3.5898,5.6411,-0.5127,0.5127,-1.0259,
8.7178,0,-18.9746,7.1792,-17.436,21.0254,-23.5898,-58.9746,0,12.3076,1.0254,4.6152,-3.5898,-1.5386,
11.282,3.0769,-20.5129,6.6667,-17.4358,21.5383,-22.0515,-61.0256,-5.1282,14.3591,-3.0769,10.7693,-5.1282,3.0769,
9.4873,1.2822,-17.1797,13.0767,-17.1797,17.1797,-22.8203,-65.3848,-4.3589,11.0254,-1.2822,15.1279,-2.3076,6.9229,
8.2053,3.0769,-16.4104,9.2307,-10.7693,14.3591,-22.051,-71.7949,-3.5896,10.2566,-3.0769,10.2566,-3.5896,7.6921,
10.2563,8.2051,-17.436,11.2817,-20.5127,23.0767,-22.0513,-69.231,-6.1538,12.8203,-5.6411,4.1025,-4.1025,10.769,
9.2307,3.5896,-18.4617,11.7947,-35.5127,24.1023,-28.2053,-73.3335,-3.5896,8.2048,-5.1282,6.6667,-3.5896,8.718,
18.2051,8.4614,-13.5898,10.5127,-20.5127,22.3076,-23.3335,-81.2822,-2.3076,2.3076,-2.3076,11.5381,-2.8208,8.9741,
26.1538,16.4102,-12.3076,6.1538,-5.5127,14.8716,-13.8462,-87.6924,-12.3076,-4.6152,-3.0767,1.5386,-1.5386,11.2822,
26.6667,12.8206,-11.282,10.2566,9.4873,0.51294,-5.6409,-87.1794,-14.3586,-0.51294,-5.6409,-3.0769,1.0256,13.8464,
26.1541,1.5383,-11.282,14.8718,24.4873,-14.4871,-3.5896,-95.8975,-12.3079,1.5383,-13.3333,2.5642,-1.5383,14.3591,
32.8208,-3.5898,-6.1538,10.7695,39.4873,-29.4871,1.5386,-110.8975,-10.769,-1.5386,-9.2305,4.1025,10.7695,16.4102,
37.4363,-2.051,-1.0256,16.4104,54.4873,-39.4871,7.6926,-110.2561,-7.1794,-3.0769,1.0256,-1.5383,25.1282,15.8977,
34.6155,-3.8459,-0.76929,23.8464,69.4873,-54.4871,12.0515,-105.3845,-8.9744,-5.8972,0.76929,-3.8459,17.1794,14.1028,
31.2822,-7.6924,-8.2051,16.9233,84.4873,-64.1025,11.2822,-114.3589,-10.2563,-8.2051,0,0,9.7437,11.2822,
28.2048,-13.8464,-12.8206,14.3586,92.3074,-62.0515,3.5896,-127.6926,-11.7952,-7.6926,-1.0256,1.0256,11.282,3.0769,
29.7437,-13.8462,-8.2051,15.3848,96.4102,-58.9744,5.6411,-125.1282,-11.7949,-0.5127,-2.0513,0.5127,5.1284,3.0771,
27.4358,-9.9998,-9.4871,12.5642,90.0002,-63.8462,8.4617,-122.3076,-11.0256,2.3079,-0.76929,0.76929,-2.3079,4.3591,
22.5645,-13.8462,-10.769,12.3076,80.5132,-67.1794,5.1284,-126.1538,-12.8203,-0.5127,0,0,8.2051,2.5645,
28.4614,-16.6665,-5.8975,12.564,89.4873,-63.8462,3.3335,-122.3076,-10.5127,-1.7949,-0.25635,0.25635,14.6152,3.3335,
34.1023,-13.0769,-5.8977,12.5642,91.0256,-66.9231,1.282,-118.718,-5.8977,-5.3845,-1.282,1.282,1.7947,3.3333,
32.0513,-16.1538,-5.3848,11.0254,80.2563,-68.4617,4.8716,-121.282,-0.25635,-2.3076,0.25635,3.8462,-0.76904,6.4102,
21.2822,-28.4614,-8.9746,6.4102,70.5127,-73.0769,2.8203,-127.436,-3.3335,-0.25635,-0.76904,0.25635,1.7949,2.3076,
23.0767,-25.1284,-13.3335,11.2817,70.769,-73.3335,0,-129.7439,-3.5898,2.0513,0,5.6406,-0.51318,0.5127,
26.6667,-21.0256,-13.3333,14.3591,70.2566,-72.8206,0.51294,-135.3845,-0.51294,4.1028,-0.51294,10.2566,-2.0515,6.1541,
20.2566,-23.3333,-13.5896,13.5896,66.4104,-74.6155,1.282,-134.6155,-4.8718,0.76929,-3.8459,1.282,-0.76929,4.3591,
19.231,-22.3076,-16.6665,10,59.7437,-73.0769,2.8203,-120.2563,-1.2822,0.76904,0.76904,-0.76904,0.76904,-1.7949,
23.8462,-24.3589,-15.6411,8.4614,60.769,-76.1538,1.2822,-117.1794,1.2822,-0.76904,0.76904,1.7949,-0.76904,-0.76904,
28.2053,-24.615,-9.7434,17.4363,69.2312,-81.0254,5.6414,-126.6665,-2.5637,-7.1794,1.0256,-1.0256,1.0256,6.6667,
25.3848,-25.8975,-7.9487,19.7437,54.6152,-83.8462,6.4102,-133.0769,-0.76904,-10,9.4873,-4.8716,4.3589,0.76904,
25.6411,-24.6152,-7.1797,19.4873,49.231,-73.8462,4.1025,-127.1794,1.5386,-7.1797,6.6665,-1.5386,5.1279,-5.1284,
32.8206,-17.9485,-5.1282,20.0002,64.231,-63.0767,13.8464,-120.5127,-3.0769,-6.6663,-3.5896,3.0769,5.1282,3.5901,
35.3848,-15.8975,-5.1284,16.4102,79.231,-74.8718,22.564,-121.0256,-11.2822,-9.231,-4.1025,4.6152,4.1025,4.1025,
37.6924,-16.6665,-3.3335,19.231,94.231,-88.9744,25.3848,-121.7949,-6.9229,-4.8716,3.3335,8.4614,8.4614,-3.3335,
38.2051,-22.3076,-3.8462,16.1538,109.231,-99.7437,25.3848,-131.0256,-0.25635,-4.3589,0.25635,1.7949,11.0259,-6.4102,
43.0771,-25.6411,-4.6152,21.0259,124.231,-104.6152,26.1538,-134.8718,0,-6.1538,2.0513,-3.0767,11.2822,0,
44.1028,-29.2307,-2.5642,25.1282,121.0256,-103.0769,25.6409,-131.7949,-3.0769,-4.6155,11.282,-0.51294,13.3333,0.51294,
38.2053,-31.5386,-1.282,19.2307,115.6409,-100.2563,25.8972,-135.1282,1.282,-3.3333,11.5383,-1.7947,15.1282,-4.3591,
31.282,-30.7693,-5.1282,18.4617,113.8464,-101.5383,21.5383,-140.5127,3.0769,-6.6667,4.6155,-3.0769,10.2566,-4.6155,
35.6411,-27.9487,-7.9487,18.7178,117.1797,-101.7949,20.2563,-139.2307,-5.3848,-6.9229,4.8716,0.25635,7.9487,-0.25635,
44.615,-26.1541,-4.6155,22.051,116.9231,-101.0259,27.1794,-137.436,-6.6667,-7.1794,9.2307,-1.0256,13.3333,1.0256,
39.7434,-31.5383,-6.9231,21.282,103.8459,-103.8462,24.3586,-138.718,2.8206,-9.4871,7.9485,-2.8206,11.5383,-3.8464,
33.0769,-34.1023,-8.9744,15.6409,100.2566,-102.8206,20.2566,-140.7693,0.76929,-6.9231,3.8459,-0.76929,5.8977,-4.8718,
41.0256,-29.7437,-1.0256,25.1282,100.5129,-97.9487,26.6667,-142.5642,-8.2053,-0.51294,5.6409,-0.51294,11.7947,0.51294,
40,-29.7437,-4.6152,23.5898,86.1538,-100,24.1025,-144.6155,-6.1538,-0.5127,3.0767,-4.6152,9.231,0.5127,
30.2563,-28.2051,-12.3076,14.3589,87.6924,-98.4614,16.4102,-144.1025,1.0259,0,-0.5127,-4.6152,1.5386,0,
28.4612,-28.4617,-8.9744,15.1282,98.2048,-96.1541,17.6921,-146.9233,-3.3337,1.282,0.76929,-8.4617,2.8206,-0.76929,
33.0769,-30.5129,-3.8459,19.7434,94.1028,-98.718,24.3591,-148.4614,-7.9485,1.282,6.4104,-7.9485,11.5383,-1.282,
33.0771,-28.4614,-4.8716,21.7949,88.9746,-101.7949,22.3076,-144.3589,-4.8716,0.76904,10,-4.8716,13.0771,-0.76904,
31.7952,-25.6409,-7.6921,15.8977,83.5901,-96.9229,15.8977,-142.564,-3.5896,3.0769,5.1287,-6.1536,7.6926,-3.0769,
37.6921,-21.282,-4.3591,17.6921,76.6667,-85.3845,22.3079,-141.282,-4.8718,7.949,0.25659,-2.8206,8.9744,-0.25659,
37.1797,-22.3076,-1.2822,18.2051,76.1538,-88.4614,20.2563,-145.8975,-8.4614,1.2822,-3.3335,-5.8975,5.8975,2.3076,
37.6924,-20.769,1.2822,19.231,83.8462,-93.5898,13.0771,-144.3589,-3.3335,-3.3335,-1.2822,-5.8975,7.9487,4.8716,
45.3845,-15.1282,1.282,26.4104,82.8206,-89.4873,19.7434,-138.718,-1.282,-1.7947,-2.3079,-1.7947,11.0256,4.8718,
44.8718,-16.1541,2.3079,22.3079,75.1282,-88.9744,26.9231,-141.282,-4.3591,-2.3079,-2.3079,-3.3333,7.9485,2.8206,
35.1284,-21.7949,-0.25635,14.6152,73.0771,-92.564,17.1797,-144.8718,-6.9229,-5.3848,5.8975,-7.436,6.9233,0.25635,
36.1541,-21.282,-2.3074,21.282,79.7439,-86.4102,20.7693,-145.3845,-2.3074,-0.76929,11.0256,-2.3074,13.5901,0.76929,
36.1538,-30.5127,-3.8462,21.2822,79.7437,-88.4614,30,-154.6152,1.7949,-2.8203,2.8208,-3.8462,12.0513,-1.7949,
33.3333,-33.8462,-1.5383,21.5383,74.8718,-95.8975,21.5383,-152.8206,1.5383,-3.5896,2.5642,-9.2307,6.6667,-4.6155,
32.8206,-30.2561,1.0256,20.5129,75.3845,-96.9231,14.3591,-146.6665,-3.0769,-1.0256,9.2307,-5.1282,6.1541,-1.0256,
28.2053,-35.8972,-6.6667,10.7693,76.9231,-90.769,17.4358,-150.769,-7.1794,-7.6921,4.6155,0.51294,0.51294,-0.51294,
29.2307,-35.3845,-8.718,14.8718,80.0002,-81.0256,21.0256,-148.7178,-3.5896,-7.6921,3.0769,-0.51294,1.0256,0.51294,
31.2822,-25.1279,-2.0513,20,83.0771,-80.5127,18.9746,-145.6409,-5.6411,-4.1025,9.231,-5.1279,9.231,2.0513,
28.4619,-19.2305,-4.8716,16.667,83.8462,-80.769,15.6411,-149.9998,-12.564,-6.4102,6.9233,-0.25635,7.436,0.25635,
28.2051,-22.0513,-13.8462,11.7949,81.0259,-77.4358,17.436,-151.7949,-11.7949,-6.6665,3.0771,1.5386,2.564,-1.5386,
35.3845,-21.5383,-8.2053,16.9231,82.051,-73.3335,22.051,-146.6667,-3.5896,-0.51294,11.282,-2.5642,9.7434,0.51294,
37.6926,-19.2307,-0.76929,20.7693,80.7693,-73.0769,18.2053,-146.4102,-2.3074,-3.3333,13.0769,0.76929,10.5129,-0.76929,
33.3335,-18.9741,-5.6411,11.2822,70.7695,-77.9487,13.8462,-153.8459,-7.6924,-9.7437,4.1025,6.1538,4.1025,-4.1025,
36.9233,-14.3589,-7.1792,14.8721,60.5132,-76.9229,17.436,-153.8459,-9.2305,-6.1538,2.0513,3.5898,6.667,-2.0513,
38.718,-17.1794,-1.282,19.2307,56.1536,-70.5129,12.051,-147.436,-6.9231,-5.8977,5.3845,1.282,8.9744,-4.8718,
30.5132,-23.8462,-0.25635,10,59.7437,-73.0767,4.8721,-151.0254,-10.5127,-10.5127,2.8208,1.2822,0.25635,-12.0513,
29.2307,-18.4617,1.0256,15.8977,64.6155,-77.4358,14.3591,-154.3589,-11.7947,-2.5642,1.5383,3.5901,-1.0256,-5.6409,
33.3333,-15.3845,-1.5388,17.4358,62.5637,-73.8462,19.9998,-148.718,-10.2566,-1.5388,1.0256,3.5896,5.1282,-1.0256,
36.6665,-13.5898,-1.7949,14.1025,64.3589,-70.5129,17.1792,-145.8977,-12.0513,-4.8721,1.7949,2.3076,5.8975,-4.3594,
36.4102,-11.7949,0,15.3843,69.2305,-73.3335,17.9487,-155.8975,-12.3076,0,-1.5386,4.6152,4.1025,-9.7437,
37.9487,-12.3076,-0.5127,18.9746,69.7437,-69.2307,24.6152,-155.3845,-4.1025,-1.5386,0.5127,5.1284,10.7695,-7.1792,
34.6155,-15.6409,-1.282,21.7947,60.2566,-66.4102,23.8459,-147.4358,-3.3333,-16.5386,5.8972,-2.8206,13.5896,1.282,
31.0259,-19.231,-1.2822,18.2051,54.6152,-70.5127,19.7437,-151.5383,-9.4873,-18.7178,1.2822,-6.9229,6.4102,2.3076,
41.7947,-9.9998,0.25659,21.282,69.6152,-62.3076,23.8459,-150.5127,-7.4358,-3.7178,-6.4104,-0.25659,5.8972,1.282,
44.8721,-1.2817,0.25635,21.7949,77.1797,-55.6409,24.3589,-147.4358,-5.3843,-4.3589,-7.4355,-0.25635,10,1.7949,
36.1538,-2.8203,1.2822,15.6411,64.3589,-58.2051,20.2563,-149.4871,-7.9487,-10,-5.3843,0.25635,6.4106,-0.25635,
38.9744,0.51294,-0.51294,20.5129,64.1023,-55.3848,21.0256,-142.0513,-7.6921,-6.1541,-4.6155,9.2307,3.0769,-1.0256,
42.3079,0.76929,-6.9231,19.7439,69.4875,-53.5896,22.8206,-141.7947,-8.4612,-11.5383,-5.8972,3.8464,6.9231,-0.76929,
43.0769,-0.51294,-1.0256,22.5642,68.2053,-53.3333,28.2053,-144.6152,-1.5383,-11.282,0.51294,-1.5383,17.4358,3.0769,
38.2051,-3.3335,0.25635,23.333,64.8716,-57.6924,27.9487,-146.4104,-0.76953,-6.9233,-0.25635,-0.76953,14.1025,3.333,
39.7434,-2.8206,-0.76929,19.2307,67.4358,-60.2566,25.8972,-145.8975,-4.8718,-7.949,-1.282,0.76929,8.4612,4.8718,
43.5898,-1.0254,0,22.0513,64.6152,-58.4614,25.6411,-148.7178,-7.1792,-13.8462,-5.6411,0,9.231,1.0259,
46.1538,-2.0513,0,24.6152,60,-58.9744,29.2305,-148.718,0,-8.7183,-0.5127,5.1279,14.3589,-2.564,
35.1282,-15.1282,-7.949,16.1536,52.5642,-71.5386,21.282,-152.0513,-3.3333,-10.5129,3.8459,3.3333,8.9744,-4.3591,
30.7693,-15.8972,-7.1794,18.4617,52.3079,-68.7178,17.4358,-151.7947,-9.7434,-10.7693,1.5383,9.7439,3.5901,-1.5383,
36.9233,-4.6152,-2.0513,21.5386,55.3848,-53.8459,21.5386,-145.6409,-10.769,-3.0767,-8.7178,18.4619,2.0513,2.0513,
36.667,-0.25635,-6.9229,19.231,52.5645,-49.4871,19.231,-144.8716,-13.0767,-5.3843,-15.1279,10,0.25635,3.8462,
34.1025,-2.3076,-12.564,16.1538,55.1284,-50.5127,18.7178,-149.4871,-11.0254,-11.5386,-6.9229,7.436,2.3076,2.3076,
36.6667,-1.282,-11.5383,14.1023,61.7947,-47.9487,21.282,-150.5129,-10.5129,-9.4871,-3.3333,17.1794,3.8459,1.282,
38.2051,-0.25635,-11.0254,15.6411,58.7183,-44.8716,20.2563,-147.9485,-14.1025,-10.5127,-11.5381,12.5645,1.2822,0.25635,
37.6924,0.25635,-7.436,16.6665,55.1279,-40.7693,20.769,-145.3848,-10.5127,-17.1797,-6.9233,0.76904,4.8716,-0.25635,
38.9741,-0.5127,-2.0513,22.0513,50.769,-46.6667,24.1025,-143.0769,-2.0513,-18.9746,8.0767,-1.5386,11.2822,0.5127,
38.718,-8.9744,-2.8206,23.8459,40.7693,-60.7693,24.3591,-146.9231,0.76929,-14.1028,16.1541,-5.3845,12.0515,-0.76929,
37.6926,-5.3845,-3.3333,20.7693,43.8464,-55.1282,24.8718,-150.5127,-0.76929,-3.8459,10.0002,0.76929,12.0515,-0.76929,
32.8203,0,-7.6924,15.3848,37.9487,-46.6667,16.4102,-149.7437,-11.7949,-6.6665,0,4.1025,3.5898,-6.1538,
31.5381,-3.8462,-8.9746,13.5894,22.9487,-46.9233,14.6152,-143.3335,-14.1025,-12.0513,3.333,1.7949,1.7949,-1.7949,
27.4355,-9.4873,-15.1284,12.0513,19.2305,-44.3591,14.1025,-143.8464,-15.6411,-16.1538,0.25635,0.25635,0.25635,-0.25635,
30.7693,0.51294,-8.718,14.8718,32.8206,-29.3591,15.8972,-134.8718,-14.8718,-13.3333,-6.1541,6.1536,1.5383,-0.51294,
36.9229,4.6152,-2.0513,15.3848,30.2563,-14.3591,15.8975,-132.8206,-14.8716,-11.7949,-9.231,4.6152,0.5127,-0.5127,
36.4099,-0.51294,-3.5901,16.9231,23.0769,-24.1028,15.8972,-140.5129,-15.3845,-12.8206,-7.1794,7.6921,0.51294,1.5383,
32.3076,-3.5898,-4.6157,13.8462,18.9741,-34.8721,18.9741,-143.5898,-12.8208,-11.7949,-8.2051,13.8462,3.5898,3.5898,
33.5896,-8.4617,-4.3591,14.6155,10.0002,-36.6667,14.1028,-143.8462,-9.4871,-11.0256,-9.9998,9.4871,4.3591,6.4104,
35.6409,-13.0769,-2.8206,16.1536,9.4871,-40.2566,9.4871,-148.4617,-10.5129,-12.0515,-3.3333,5.3845,2.8206,5.3845,
31.7949,-11.7949,-5.6411,11.2822,15.3848,-46.1538,12.3076,-149.7437,-14.3589,-13.8462,-0.5127,0.5127,1.5386,2.564,
37.1794,0.25659,-1.282,18.718,23.3333,-35.1282,17.1794,-138.718,-8.4617,-7.9485,-0.25659,-2.3079,7.949,6.9231,
38.2053,-2.3079,1.282,17.6921,22.3079,-29.4871,13.5896,-134.1025,-5.8972,-8.9744,-1.282,-6.9231,9.4871,8.4617,
32.3076,-13.8462,-1.5386,14.3589,14.3589,-44.4871,15.3848,-138.4617,-8.7178,-13.8462,1.5386,-8.2051,6.1538,4.6152,
31.0256,-11.0256,-9.4871,14.6155,6.4104,-52.564,20.7693,-142.3076,-11.5383,-8.4612,5.8977,-0.76929,6.4104,0.76929,
30.769,-3.0771,-12.8208,12.3076,-0.51318,-37.564,15.8975,-136.4104,-12.3076,0,0,3.5898,6.6665,1.0254,
27.6924,-1.5386,-7.6924,15.8975,-8.7178,-22.564,6.1538,-129.2307,-11.7949,1.5386,-4.6152,2.0513,3.0771,3.5898,
29.231,1.5386,-8.2051,14.3589,-20,-11.7949,3.0771,-131.282,-11.7949,0,-1.0259,7.1797,0,1.0259,
29.7434,11.282,-10.7693,13.8459,-30.2566,-4.6155,1.5383,-128.718,-14.3591,0.51294,-1.0256,12.8206,1.5383,-0.51294,
26.667,12.8208,-8.2051,21.5386,-43.5896,9.231,-3.0767,-123.0769,-13.333,2.0513,-3.0767,11.2822,-2.0513,5.6411,
27.4358,14.1023,-10.5129,18.718,-52.5642,16.6667,-4.3591,-121.7949,-3.8464,1.282,-1.282,15.6409,-10.5129,6.9231,
32.051,21.282,-10.5129,14.1023,-43.3333,17.1794,-0.76929,-120.2566,-3.3333,0.76929,-2.3079,19.7434,-14.1028,4.8718,
28.2051,15.8975,-8.2051,13.8462,-35.3848,12.8203,-0.51269,-119.4871,-10.769,0.5127,-5.1279,12.8203,-10.2563,6.6665,
21.5383,7.6921,-12.8206,14.3586,-44.1028,15.8972,-2.0515,-115.8977,-6.1541,1.0256,-1.0256,11.282,-2.5642,5.1282,
20.769,14.1025,-17.6924,14.6152,-50.5129,17.6924,-3.3335,-114.6155,-2.3076,4.3589,-1.7949,13.5898,-2.8203,1.7949,
21.2817,19.7437,-9.4873,10.5127,-42.8208,11.5381,-4.3589,-123.3335,-6.9233,6.9229,-7.436,6.9229,-7.9487,4.3589,
24.3591,13.5896,-2.8206,11.0256,-41.282,11.5383,-1.282,-123.8459,-7.4358,2.8206,-4.3586,1.282,-6.4104,2.8206,
25.1284,4.1025,-11.2822,10.769,-49.7437,9.7437,1.5386,-120.5127,0,0.5127,0,-1.5386,-2.564,-1.0254,
21.2822,4.3589,-15.1284,12.0513,-50,0.25635,0.76904,-125.8975,0.25635,2.3076,-0.25635,-0.76904,-6.9233,-1.2822,
24.1025,9.2305,-7.1797,17.436,-46.1541,4.6152,0,-123.0769,-5.1284,2.0513,-2.0513,6.6665,-13.8462,0,
24.8718,3.8459,-7.949,11.5383,-49.4873,11.0256,-0.76929,-115.6411,-4.8718,4.3591,-2.3079,5.3845,-17.1794,0.76929,
20.769,2.8203,-11.0259,10,-51.5386,5.8975,-0.76904,-119.2307,-2.8203,13.5898,-1.7949,2.3076,-11.5386,0.76904,
22.5642,5.1282,-6.1541,13.3333,-47.1797,4.1023,0.51294,-121.5386,-9.7439,14.8718,-1.5383,10.2561,-5.1282,-0.51294,
26.1538,0,-4.1025,12.8203,-43.5898,7.1792,0,-117.436,-15.3848,10.769,-1.5386,14.3589,-7.6924,1.5386,
26.4102,-2.8208,-7.436,18.2051,-43.8462,3.3335,0.25635,-118.718,-12.0513,6.4102,-0.25635,5.3848,-10,3.3335,
26.1538,-1.0259,-1.5386,20,-41.5386,0,4.1025,-121.0256,-9.231,2.0513,3.5898,0,-6.1538,3.5898,
23.0771,-2.0513,-1.5386,17.9487,-40.5129,0,2.0513,-122.5642,-15.3848,0,1.5386,3.0771,-10.769,0.5127,
22.8208,-2.8203,-5.3848,19.231,-41.7949,6.9233,0.25635,-118.718,-11.5386,4.8721,-0.25635,8.4614,-10.5127,6.4102,
24.1025,-1.5386,-5.6411,18.4614,-42.564,10.7695,0.5127,-115.8972,-10.2563,1.5386,-0.51269,6.1538,-0.51269,9.7437,
25.3843,3.8462,-5.3848,19.7437,-37.6924,7.9487,-0.76953,-114.6155,-19.7437,-0.25635,-1.2822,0.25635,0.76904,4.3589,
23.5898,3.5898,-12.3076,14.3589,-32.3076,8.2051,-2.564,-115.3845,-15.3848,4.6152,-3.5898,3.0771,-10.769,2.564,
23.0769,1.5383,-14.3591,14.3591,-29.7434,15.3845,-1.5383,-112.3076,-1.5383,6.1541,-1.5383,13.3333,-15.3845,5.1282,
22.3076,1.7949,-11.5386,15.1279,-31.5386,10.5127,-3.3335,-115.6411,-10,4.3589,-1.7949,13.0767,-15.1284,2.3076,
20.5129,8.2048,-12.3079,10.2561,-33.3333,7.6921,-5.6409,-119.4873,-18.4617,5.1282,-5.1282,9.7434,-18.4617,9.7434,
21.5381,11.7944,-12.8208,10.769,-33.8462,14.8716,-6.1538,-115.8977,-12.3081,6.1538,-7.1797,11.2817,-21.0259,24.7434,
22.564,6.6665,-10.7695,10.769,-34.8721,9.7432,-4.1025,-114.8721,-8.7183,4.1025,-5.6411,12.8203,-14.8721,34.3589,
25.1279,5.6411,-6.667,14.3589,-31.7949,0,0,-112.3079,-8.2051,2.564,-2.0513,10.769,-8.7183,24.1025,
24.3589,7.9487,-6.9229,17.6924,-26.9229,0.25635,-0.25635,-115.6409,-10.5127,2.8208,-2.3076,8.4614,-15.6411,11.5386,
20.2566,5.8977,-10.5129,11.5383,-25.3845,2.8206,-2.8206,-123.8459,-16.1536,10.5129,-4.8718,11.0256,-20.2561,2.8206,
22.564,5.6411,-10.769,12.8203,-28.7178,1.5386,-1.5386,-122.0513,-16.4102,16.4102,-5.1284,15.8975,-13.3335,3.0771,
21.282,1.7947,-12.0515,17.1794,-32.5642,-0.25659,0.25659,-115.6411,-14.1028,5.8972,-0.76929,11.0256,-6.9231,2.8206,
18.2053,-3.8459,-11.0256,18.2053,-30.5129,0.25659,0.25659,-113.5896,-13.5896,-0.25659,5.3845,4.8718,-8.9744,1.282,
20.769,-7.436,-7.9487,16.1538,-26.4106,-0.25635,0.25635,-117.6924,-11.5386,3.8462,2.8203,6.9229,-10,3.8462,
24.8721,-3.8462,-7.9487,11.5386,-17.1792,11.0259,2.3076,-116.6665,-13.5898,10.5127,-3.3335,15.1284,-2.3076,8.9746,
22.8206,0.76929,-10.5129,13.5896,-13.5896,16.6667,-0.76929,-112.0513,-19.7434,12.051,-4.8718,16.1541,-6.4104,7.4358,
17.436,2.0513,-7.6924,15.8975,-19.4868,1.6667,-2.564,-116.9229,-13.333,11.2822,0,12.8208,-19.4868,0,
18.9741,3.5894,-2.5645,13.8457,-19.4873,-4.6157,0,-121.0259,-4.6157,13.8457,0,13.8457,-14.3594,2.0513,
21.7947,2.8206,-11.5383,9.4871,-19.7434,10.3843,-2.8206,-114.1025,-5.8972,9.9998,-7.949,13.5896,-2.8206,7.4358,
22.0515,2.5642,-19.9998,6.1541,-33.3333,25.3843,-2.5642,-109.7437,-5.1282,9.2307,-4.6155,13.3333,-6.1541,10.7693,
17.1797,2.8203,-19.231,10.5127,-48.3333,19.231,-6.4102,-117.6924,-6.9233,8.9741,-2.8203,7.436,-20.2563,8.4614,
14.8718,5.1282,-14.8718,12.3079,-54.8718,25.6409,-8.718,-112.8206,-7.1794,8.718,-5.1282,8.718,-19.9998,8.718,
15.6411,5.3848,-14.1025,10.5127,-53.5898,31.0254,-6.4102,-108.9744,-5.3848,9.4873,-5.8975,14.1025,-16.1538,9.4873,
15.3845,5.1282,-16.4104,15.8972,-52.3079,23.0769,-5.6414,-112.8206,-5.1282,12.8206,-5.1282,15.3845,-18.4617,9.2307,
14.8713,3.0769,-18.4617,12.8201,-51.7952,19.4871,-5.6414,-112.3079,-4.6155,7.6921,-3.0769,13.3333,-18.4617,9.2307,
20.5127,4.6152,-14.3589,11.7949,-54.3589,24.1025,-4.1025,-108.718,-2.0513,0,0,12.8203,-13.3335,8.7178,
21.7949,8.4614,-12.0513,15.1279,-54.1028,21.2817,-8.4619,-108.9746,-3.3335,2.3076,-2.3076,11.5381,-13.5898,6.9229,
18.2051,2.3076,-15.1284,14.6152,-55.1282,16.6665,-12.0513,-108.9744,-3.8462,4.8716,-2.3076,7.9487,-13.5898,5.8975,
17.6924,-3.3335,-9.4873,18.2051,-54.6152,21.2822,-4.8716,-107.4358,-0.25635,0.25635,3.3335,7.436,-10.5127,7.9487,
17.9487,1.5386,-4.6157,16.4102,-49.231,25.6411,-2.564,-105.6411,-3.5898,0,0,10.769,-10.2563,9.7437,
13.0769,6.9231,-12.5642,12.5642,-51.0259,26.4099,-10.5129,-102.8206,-10.5129,7.4358,-6.9231,15.1282,-15.1282,7.9485,
14.6152,4.3589,-14.6152,12.0513,-51.0256,25.3848,-9.4873,-105.3845,-8.4614,11.0254,-4.3589,14.1025,-16.1538,6.9229,
21.0256,3.0769,-9.7439,7.6921,-41.0256,26.6663,-6.1541,-107.6926,-6.1541,9.7434,-3.0769,9.7434,-10.7693,8.7175,
15.8975,8.7183,-14.3589,6.1538,-44.1025,27.6924,-8.2051,-104.1023,-10.769,10.2568,-6.1538,10.7695,-7.6919,7.1797,
8.2053,4.6155,-18.9744,8.718,-57.9487,21.0256,-7.6921,-107.1794,-10.2566,8.2053,-4.6155,9.7434,-8.718,5.1282,
14.3589,-0.5127,-16.4102,15.3848,-51.7949,16.9229,-10.769,-109.7437,-3.0771,4.6152,0.5127,3.0771,-4.1025,12.3076,
16.1538,-0.25635,-18.7183,15.1279,-44.3591,16.6665,-13.0771,-104.3591,-0.76953,0.25635,3.8462,-0.25635,0.76904,16.1538,
14.3589,0,-17.436,11.2822,-46.6667,20,-3.0771,-97.4358,0,-1.0254,4.6152,3.5898,-4.6152,15.3848,
17.9485,-0.51294,-10.2566,17.9485,-44.1028,20.5129,-2.0515,-99.4873,-0.51294,1.0256,0.51294,6.1536,-8.2053,15.8972,
18.2051,-3.8462,-12.0513,18.2051,-43.8459,20.2563,-12.0513,-106.9229,-0.25635,2.3081,0.25635,6.4106,-4.3589,18.2051,
12.564,-7.436,-15.6411,11.5386,-47.9487,21.7949,-9.4873,-103.8462,-2.3076,2.3076,2.3076,10,-8.9746,15.1279,
12.3076,-8.2051,-10.769,12.8203,-44.6155,21.5386,-0.5127,-102.0513,-6.6665,0.5127,2.0513,9.7437,-9.231,12.8203,
15.1284,-7.4355,-4.3589,16.1538,-42.8203,18.7183,-3.333,-109.9998,-1.7949,-1.7949,5.3848,3.8462,1.7949,17.6924,
15.8975,-4.1025,-8.7178,20,-44.6155,16.9229,-7.6924,-107.6924,3.5898,-4.6152,7.6924,1.5386,-1.5386,19.4873,
22.8203,-1.2822,-8.4614,21.2822,-38.2051,21.2822,-3.8462,-98.718,1.2822,-2.3076,7.436,5.8975,-6.9229,20.769,
26.4106,-2.3076,-4.3589,19.231,-35.6409,18.7183,-5.8975,-104.8716,-4.3589,-1.7949,3.8462,5.8975,1.7949,21.7949,
21.0256,-5.1282,-6.6663,18.9744,-35.3845,15.385,-7.6921,-108.7178,-7.6921,-1.0256,1.0256,5.1287,6.6667,19.4875,
16.4104,-7.1794,-10.7693,18.4617,-35.8972,16.9231,-5.1282,-102.0513,-7.6921,1.0256,2.0515,5.6409,-1.0256,17.4358,
20.5129,-0.51294,-12.3079,24.1028,-40.5129,13.3333,-8.2053,-106.1538,-9.2307,1.0256,1.5383,0.51294,-10.7693,15.3845,
23.8464,8.9744,-12.5642,20.2566,-38.2048,15.6409,-8.9744,-107.9487,-12.5642,2.8206,-2.8206,4.8718,-8.9744,16.1541,
17.6924,4.3589,-16.1538,8.9741,-37.6924,20.769,-3.3335,-98.2051,-16.1538,3.3335,-5.3848,12.0513,-5.3848,14.6152,
18.2048,-3.3333,-13.0769,15.1282,-38.718,22.3079,-2.3079,-93.5898,-10.5129,2.8206,2.3079,11.5383,-5.3845,16.6667,
22.3079,-3.8459,-8.4617,19.7434,-29.9998,20.2566,-6.9231,-102.8206,-3.3333,3.3333,5.8977,7.4358,-5.8972,18.718,
18.7183,-0.76904,-11.0254,16.1538,-23.333,19.231,-6.4102,-103.8459,-5.8975,0.76953,0.25635,5.8975,-0.25635,16.1538,
15.1279,-2.8208,-14.1025,13.5894,-31.0259,14.6152,-0.76953,-100.2566,-11.5386,0.25635,-0.25635,6.4102,4.8716,15.6406,
20.5129,-1.5383,-11.282,18.4617,-30.2566,13.3333,2.0515,-103.5898,-12.8206,-1.0256,1.0256,5.6409,-2.5642,16.9231,
25.6409,1.5383,-8.718,25.1282,-18.9744,19.4871,3.0769,-102.5642,-11.282,-7.6921,-1.5383,4.6155,-5.6409,17.4358,
17.436,-6.1538,-11.7944,17.9487,-26.6665,17.436,2.5645,-102.051,-9.7432,-12.8203,0,5.1284,0,17.9487,
11.0256,-14.615,-13.5896,16.1541,-41.6665,6.4104,1.282,-112.564,-11.0256,-9.4871,5.385,5.385,-1.282,18.2053,
18.4614,-11.7949,-9.7437,22.0513,-38.9746,2.0513,4.1025,-113.8462,-6.1538,-2.0513,9.2305,4.6152,-7.6924,18.4614,
20.2566,-6.9231,-11.5383,18.2053,-31.5383,2.3079,0.76929,-104.8718,-4.8718,-0.76929,7.4358,3.3333,-7.4358,16.1541,
16.667,-3.8462,-12.0513,16.667,-34.1025,5.3848,-2.8203,-105.3845,-8.9741,1.7949,3.3335,5.3848,-1.7949,14.6157,
19.2307,-0.25659,-10.5129,17.1794,-25.3845,12.0515,0.25659,-106.4102,-10.5129,-0.76929,0.76929,4.8718,-1.7947,16.6667,
20.5129,2.0515,-12.3079,18.4617,-10.7693,17.9485,1.0256,-98.4614,-12.3079,-9.7434,-1.0256,3.5896,-3.5896,18.9744,
19.231,3.3335,-10,18.2051,-12.564,17.6924,-0.25635,-99.7437,-13.5898,-9.4873,0.25635,3.3335,-3.8462,18.7178,
21.282,5.8972,-7.949,14.6155,-22.8206,14.1023,0.76929,-102.3076,-15.1282,-6.9231,-0.76929,1.282,-3.3333,15.6409,
21.0256,7.1794,-11.7947,19.4871,-24.6155,12.8206,0.51294,-97.9487,-14.8718,-11.7947,-0.51294,1.0256,-0.51294,14.3591,
16.6665,5.3848,-13.5898,20.769,-20.2563,15.1279,-1.2822,-102.3079,-14.1025,-14.1025,1.2822,3.3335,-1.2822,16.1538,
19.7437,6.4102,-9.4873,19.7437,-11.5386,19.7437,1.2822,-104.8718,-12.0513,-6.9229,-1.2822,3.3335,-1.7949,19.7437,
24.6152,5.1284,-9.7437,18.9741,-11.7949,20.5127,2.564,-94.8718,-9.7437,-6.1538,-6.1538,1.5386,-1.5386,20.5127,
20.2566,2.8206,-13.5896,17.1794,-18.2048,17.1794,-0.76929,-98.7178,-10.5125,-11.0256,-9.9998,0.76929,1.2825,17.1794,
20.769,11.0254,-5.3848,22.8203,-14.6152,17.1792,0.25635,-103.8462,-13.0771,-7.9487,-8.9746,4.3589,-0.25635,16.1538,
23.0771,10.2563,-1.5386,17.9487,-16.9229,16.4102,1.5386,-97.9485,-15.8975,-9.7437,-3.5898,3.0771,-7.1792,16.4102,
23.0771,6.6665,-7.1797,18.9741,-13.3335,20,3.0771,-90.7693,-13.3335,-12.8203,4.6152,-3.5898,-3.0771,18.9741,
24.8721,11.5386,-6.9229,23.8462,-7.4355,22.8208,1.7949,-94.1023,-14.1025,-10,-1.7949,-6.9229,1.7949,16.667,
25.8975,11.5386,-1.2822,18.2051,-18.2051,12.564,1.7949,-98.2051,-15.1279,-5.3848,-12.0513,-5.3848,1.2822,14.6152,
23.8464,8.9744,-2.8206,20.2566,-15.6409,14.1028,6.9231,-94.6152,-9.4871,-5.3845,-4.3586,-2.8206,2.8206,23.8464,
15.1284,4.3589,-13.5898,16.6665,-13.5898,24.3589,1.2822,-98.718,-11.5386,-12.564,-1.2822,-5.8975,2.3076,22.3076,
14.8718,3.0769,-9.2307,16.9231,-28.5898,26.1541,-0.51294,-94.3589,-10.7693,-9.2307,-4.6155,0.51294,2.0515,18.4617,
18.718,-0.25659,-2.8206,21.7947,-41.282,22.3079,6.4104,-90,-6.9231,-3.3333,-4.8718,9.4871,0.25659,30.5129,
19.7437,-1.7949,-3.8462,20.769,-26.282,24.3589,6.4102,-93.5898,-6.9233,-2.8208,1.7949,10.5127,-2.3076,40.2563,
17.6924,-0.25635,-3.8462,23.8462,-28.4614,21.7949,0.25635,-92.5642,-10.5127,-4.8721,5.3843,7.9487,-6.9233,27.9487,
16.6667,-3.3333,-3.8459,25.385,-43.4614,15.1282,3.3333,-93.5896,-10.5125,-5.8972,3.3333,4.3591,-8.9744,17.6926,
21.5381,-2.0513,-5.6411,22.564,-37.949,20,4.6152,-95.8977,-9.7437,-6.1538,2.564,2.0513,-9.231,21.0254,
23.8464,3.3333,-5.8972,23.8464,-27.9485,26.9231,-4.3586,-84.8716,-8.9744,-7.9485,3.8464,4.8718,-3.3333,21.282,
18.9744,-0.51294,-3.5896,22.0515,-34.3586,20.5129,-7.6921,-76.9231,-7.6921,-9.7434,6.1541,0.51294,1.0256,18.4617,
21.5383,5.1282,-1.0256,27.1794,-40.5129,18.9744,-1.0256,-80.5129,-3.5901,-3.5901,8.7175,-3.5901,1.0256,25.1282,
25.1282,12.3079,-7.1794,25.6409,-36.4104,20.5129,-5.6409,-85.1282,-5.1282,-2.5642,6.1536,-0.51294,0.51294,23.0769,
19.7434,6.9231,-12.5642,15.6409,-31.0256,20.2561,-13.0769,-81.7952,-10.5129,-10.0002,0.76929,1.282,-0.76929,16.1536,
14.6155,1.282,-9.9998,20.2566,-36.6667,23.3333,-7.9485,-78.2051,-8.9744,-6.4104,3.8464,1.282,-1.282,20.2566,
16.1538,-0.25635,-10,21.7949,-46.4102,17.1797,-4.3589,-84.3589,-7.9487,2.3076,7.436,0.25635,-4.3589,20.7695,
18.7183,-0.25635,-12.564,17.6924,-41.7947,10,-8.9741,-88.4614,-12.564,1.2822,0.76953,0.25635,-8.9741,16.1538,
23.0767,2.0513,-5.6411,20.5127,-27.6924,20,-7.1797,-79.4873,-5.6411,6.1538,-2.0513,7.1792,-7.1797,21.5381,
18.718,1.282,-4.8718,19.2307,-28.4612,20.7693,-1.282,-81.282,-5.3845,5.8977,-4.3586,7.4363,-8.4612,21.282,
18.4617,1.0256,-7.1794,25.1282,-36.9231,10.7693,5.1282,-88.7178,-8.718,-1.0256,-2.5642,8.2053,-6.6667,21.0256,
19.7434,-5.3845,-3.8459,26.4104,-39.7437,8.9744,3.3333,-88.4614,-5.3845,-3.8459,2.8206,6.9231,-2.8206,22.8206,
20.7695,-7.436,-0.25635,27.436,-32.564,11.5386,-0.25635,-78.7178,-2.8203,-0.25635,1.7949,2.8208,0.25635,22.8208,
24.6152,-1.5386,-0.5127,29.7437,-27.1797,13.8462,5.1279,-72.8206,-3.0771,-0.5127,0.5127,9.2305,-1.5386,28.7178,
25.3843,-0.76953,-0.76953,29.4868,-33.0771,13.0767,7.9487,-76.1541,-0.25635,-0.25635,0.25635,17.1792,-1.2822,28.9741,
24.8718,-3.3333,-2.3074,31.5383,-36.6665,4.8718,0.76929,-83.8459,-2.3074,-0.76929,1.7952,7.4358,-1.7947,15.1282,
27.6919,0,0,28.7178,-25.1284,7.6919,3.0767,-81.0259,-2.5645,-1.5386,11.2817,-1.0259,-0.51318,17.4355,
22.3076,-1.7949,-0.25635,26.9229,-24.3589,16.1538,3.333,-73.0771,-2.3076,-0.25635,10,0.25635,-1.7949,28.4614,
20.0002,-1.0256,-0.51294,32.3079,-28.2051,19.4871,-1.0256,-67.6924,-2.051,2.5642,0.51294,5.6409,-3.0769,29.7434,
25.1284,5.1284,-0.5127,29.231,-24.6152,15.8975,-1.5386,-73.3333,-3.5898,0.5127,-1.5386,6.6665,-3.5898,24.1025,
20.769,1.2817,-1.2822,27.9487,-26.9233,13.0767,-0.25635,-82.3079,-3.8462,-0.76953,0.25635,2.3076,-4.3589,25.8975,
12.0513,-8.4614,0.76953,30,-37.1794,13.5898,0.25635,-79.7434,-1.7949,-0.25635,0.76953,-0.76904,-2.3076,28.4614,
16.4102,-8.2051,1.5386,28.7178,-38.9744,12.8203,-0.5127,-75.8975,-2.0513,0,0,1.5386,-1.0259,20,
17.9485,-6.1541,-0.51294,25.6409,-35.3848,9.2307,-2.5642,-76.4104,-2.0515,1.0256,0.51294,7.6921,-4.6155,18.4617,
10,-11.5386,-0.25635,24.8716,-41.2822,3.333,-1.2822,-75.1284,-0.76953,0.25635,2.8203,6.9229,-8.9746,22.8203,
11.0254,-9.4873,-0.25635,28.4614,-43.8462,1.2817,-0.76953,-75.6411,-3.8462,0.25635,1.2817,5.3843,-16.667,21.2817,
21.5386,-2.0513,0,29.2305,-31.2822,9.2305,0,-74.3591,-3.0771,6.6665,0,10.769,-18.4614,21.5386,
19.4873,-5.1284,-2.0513,27.1792,-24.6152,8.7178,0,-75.8975,-1.5386,4.1025,0,9.7437,-17.9487,20,
18.7178,-6.9233,-0.25635,29.4868,-30.0002,5.8975,2.3076,-73.0771,-2.3076,-1.7949,0.25635,11.0254,-14.6157,21.7949,
21.0254,-5.1284,0.5127,27.1792,-32.8206,9.7437,2.564,-70.7693,-3.5898,-0.5127,-0.5127,15.3848,-14.8721,25.6411,
18.9741,-5.1284,0.5127,27.1792,-29.231,5.6411,-1.0259,-74.3591,-4.1025,1.5386,-0.51269,8.7178,-20.5127,21.5386,
17.6921,-1.282,3.3333,29.4871,-28.9744,-3.8459,0.76929,-80.2563,-2.3079,-0.76929,1.282,1.7947,-24.8718,15.1282,
17.9487,-0.51269,2.0513,28.2051,-28.718,-2.0513,0.5127,-82.5642,-2.0513,-2.0513,0.5127,10.2563,-30.2566,17.9487,
19.4871,-6.1541,-1.0256,27.6921,-24.6155,4.6155,0.51294,-83.5898,-2.5642,-0.51294,0.51294,9.7434,-33.3335,18.9744,
21.0254,-5.6411,-1.0259,26.1538,-18.9746,4.6152,5.6411,-83.0769,-0.51269,2.0513,0.5127,-1.0259,-32.8206,14.3589,
21.2822,0.25635,-1.2822,27.9487,-19.231,3.3335,2.8203,-73.0769,-1.7949,0.25635,-0.25635,-0.76904,-34.6155,15.6411,
20.2566,-1.282,-1.7947,27.4358,-20.2566,4.3591,3.8459,-69.4873,-3.3333,-3.3333,4.3591,1.282,-32.5642,18.718,
21.5383,-2.051,-3.0769,25.1282,-17.9485,11.7947,10.7693,-71.282,-2.051,-1.5383,5.1282,1.5383,-30.2563,17.949,
20.7693,0.76929,-6.4104,24.8718,-18.2053,15.1282,3.3333,-68.9744,-2.8206,-1.7952,-0.76929,7.4358,-32.5642,19.7434,
22.0515,0.51294,-2.5642,26.6667,-18.9744,13.8464,-1.0256,-70.2563,-1.5383,-0.51294,4.6155,16.9231,-31.282,25.1282,
17.9487,-3.5898,-8.2051,25.1284,-26.1538,4.1025,0.51269,-83.0769,-8.2051,-0.5127,2.0513,12.3076,-38.9744,15.8975,
15.3845,-2.0515,-11.7952,19.4871,-23.0769,1.0256,3.5896,-84.1028,-8.718,2.5642,-1.0256,6.6667,-41.5386,10.2561,
20.5127,-3.0771,-9.7437,12.8203,-14.3589,3.0767,2.0513,-75.3848,-6.667,-2.0513,3.5898,6.6665,-36.4102,17.4355,
25.6411,-1.5386,-3.5898,21.5386,-14.3589,8.7178,3.5898,-72.3076,-6.6665,-4.1025,1.5386,10.769,-34.3591,23.0767,
20.0002,-1.5383,0.51294,22.5642,-27.1794,8.718,3.0769,-77.9487,-8.2048,-0.51294,-9.7434,4.1028,-37.9487,17.949,
21.2822,2.3076,2.3076,24.8721,-23.8462,8.4614,6.4102,-76.6667,-5.3848,-2.3076,-4.8716,-4.3589,-35.6411,17.1797,
21.5386,2.564,-2.564,24.1025,-12.3076,10.2563,5.6411,-76.9231,-5.6411,-7.1792,3.0771,-2.564,-30.769,18.9746,
15.3848,-1.0259,-7.6924,15.8975,-15.8975,5.1284,1.5386,-84.1025,-3.0771,-2.0513,1.0259,3.0771,-30.2563,13.8462,
14.3589,-0.5127,-9.7437,21.0259,-24.1025,-3.0767,0,-90.769,1.5386,3.5898,0,1.5386,-36.4102,7.6924,
17.1794,-3.8459,-9.4871,22.8206,-23.3333,-0.76929,-2.3079,-84.3589,2.3079,3.3333,2.8206,0.76929,-35.1282,11.0256,
15.6409,-9.4871,-5.8972,19.2307,-20.7693,7.4358,-4.3591,-72.0513,0.76929,3.3333,-0.76929,3.8459,-25.3845,18.2053,
17.6926,-9.9998,-2.8206,23.3333,-16.6667,10.5129,1.282,-68.9741,-0.76929,0.76929,-3.8459,3.3333,-20.2561,16.6667,
21.2817,-8.4619,-2.3076,26.4102,-13.0771,11.0254,4.8716,-74.6155,0.25635,-3.8462,0.25635,-0.25635,-19.7437,13.5898,
15.3843,-9.7437,0,28.2051,-28.0771,7.1792,-1.0259,-76.4104,4.1025,-0.51318,7.6919,0,-20.5132,19.4868,
17.9487,-5.1279,-0.5127,27.6924,-21.5386,6.6665,0.5127,-75.8975,1.5386,-2.0513,5.1284,-0.5127,-21.0254,18.9746,
21.2822,0.25635,-0.25635,27.436,-13.5898,7.436,3.3335,-74.1025,-0.25635,-2.8203,2.8208,-0.76904,-20.769,19.231,
24.1028,4.6155,-0.51294,27.1794,-6.1536,7.6921,5.1282,-72.8206,-2.5642,-4.1023,0.51294,-1.0256,-21.0256,18.9744,
27.1794,9.7439,-1.0256,26.6667,1.0256,8.2053,7.6926,-71.282,-4.615,-5.1282,-1.5383,-1.5383,-20.5125,18.9744,
26.6665,11.2822,-4.6152,23.0767,5.1279,4.6152,6.1538,-73.8462,-10.2563,-9.7437,-7.1797,-5.1284,-24.1025,15.3848,
29.7434,15.8972,-5.1282,22.5642,12.3079,5.1282,8.718,-72.8206,-12.8206,-11.7947,-10.2566,-5.6409,-24.6155,15.3845,
22.8203,9.4873,-11.5386,14.6152,5.8975,2.3076,2.8203,-81.7949,-17.1797,-14.1025,-16.1538,-2.3076,-31.0259,7.9487,
21.5383,12.8206,-8.2053,18.9744,6.6667,6.6667,4.6155,-76.9231,-10.2566,-9.2307,-5.6409,-4.6155,-27.6921,6.1541,
16.9233,5.1284,-5.6411,19.4873,5.6411,0,4.1025,-81.0256,-8.7178,-13.8462,0,-11.7949,-25.6411,8.7183,
23.5898,6.1538,-1.0254,27.1797,8.2056,0,8.2056,-82.051,-7.1792,-8.7178,-1.0254,0,-22.0513,13.3335,
22.564,6.1538,-4.6152,24.6157,6.667,2.0513,7.1797,-83.0769,-10.769,-8.2051,-6.6665,-2.0513,-25.1279,6.1538,
19.2307,6.4104,-8.9744,21.282,5.3845,3.3333,5.3845,-78.718,-9.4871,-12.5642,-3.3333,-11.0256,-24.8718,5.3845,
26.1541,9.7439,-6.1536,25.1282,6.1541,6.1541,4.6155,-72.3076,-9.2307,-7.6921,-4.6155,-8.718,-21.0256,9.7439,
27.1797,9.231,-2.0513,18.9746,4.6157,2.0513,2.5645,-81.0256,-12.8203,-2.564,-10.769,-6.6665,-20.5127,7.1797,
24.1025,10.769,0,21.5381,5.6411,-2.0513,6.1538,-86.6667,-4.1025,0,-5.1284,-5.1284,-17.9487,8.2051,
18.4617,2.0515,-10.7693,19.4871,-3.5896,-11.7947,6.6667,-86.1538,4.1028,1.0256,-1.0256,-9.2307,-21.0256,5.6414,
19.2307,-2.3079,-11.0256,14.6155,-11.5383,-15.1282,4.8718,-82.3076,6.9231,7.4358,2.3079,-12.5642,-19.7434,3.8464,
21.0256,-0.51294,-4.1028,19.9998,-9.2307,-10.2566,1.0256,-84.1025,0.51294,7.6921,4.6155,-5.1282,-12.3079,6.1541,
18.718,-0.25659,-5.3845,19.2307,-4.8718,-8.4617,3.8459,-85.3845,-4.8718,0.25659,0.25659,4.8718,-9.9998,6.4104,
20.769,5.3848,-3.3335,24.8716,0.25635,-1.2822,10.5127,-71.5386,-0.25635,-1.2822,-1.7949,6.9229,-12.0513,14.1025,
15.1282,3.3333,-4.3591,23.8459,-1.282,3.8459,3.3333,-71.0256,-2.8206,-3.3333,-2.8206,1.282,-15.6409,19.2307,
9.7439,0.51294,-6.1536,21.0256,-0.51294,4.1028,1.0256,-84.1025,-6.6667,-2.051,-2.051,8.2053,-14.8718,16.4104,
6.1538,0,-6.667,24.6152,2.564,0,4.6152,-84.6155,-9.7437,0,-9.231,10.2563,-19.4873,11.7949,
0.76904,-0.25635,-4.8721,18.7178,2.8203,0.25635,2.3076,-69.6155,-11.5386,-0.76953,-14.1025,1.2822,-23.8462,12.0513,
2.8206,-0.25659,-5.3845,18.2053,0.76929,1.282,0.25659,-67.9487,-11.5383,-1.282,-8.4617,0.76929,-21.282,10.0002,
8.4617,-1.7947,-7.9485,23.3333,1.7947,-2.3079,1.7947,-81.7949,-9.4871,1.7947,-5.8972,5.8977,-17.1794,11.5383,
6.9231,-2.3079,-8.9744,18.2053,2.8206,1.282,1.7952,-83.3333,-12.5642,-1.282,-13.0769,5.3845,-17.1794,14.1028,
2.5642,-1.0256,-10.7693,16.9231,2.5642,5.1282,3.0769,-76.9229,-15.8972,-9.7434,-15.3845,1.0256,-16.9231,10.7693,
5.1282,1.0256,-11.7947,20.5129,6.1541,2.5642,4.6155,-77.4358,-12.3074,-10.2561,-10.2561,-1.0256,-13.3333,10.2566,
6.4106,2.3081,-12.564,18.2051,8.9746,1.7949,0.25635,-79.7434,-13.0767,-2.8203,-12.0513,-0.25635,-14.6152,9.4873,
5.3848,-0.25635,-16.1538,14.6152,4.8721,2.8208,-0.25635,-82.8206,-14.1025,0.25635,-15.1279,0.25635,-17.6924,4.8721,
9.9998,-0.76929,-13.0769,19.7434,3.3333,2.8206,7.4358,-76.6667,-9.4871,-3.8464,-6.4104,0.76929,-10.5129,7.4358,
8.2056,0,-10.769,25.1284,0,2.0513,4.6157,-74.8716,-10.769,-6.1538,-4.6152,1.0259,-10.2563,6.1543,
7.1794,-0.51294,-11.282,20.0002,2.5642,-2.051,5.1282,-86.1538,-8.2048,0.51294,-6.1536,7.1794,-14.8718,7.1794,
5.1284,-6.1538,-10.769,16.9233,0.51269,-9.7437,4.1025,-86.6665,-6.6665,-0.5127,1.5386,4.1025,-10.769,12.8208,
6.9231,-2.8206,-1.7947,29.9998,-14.4873,-3.8459,1.282,-71.6665,-1.282,3.3333,14.6155,4.3591,-2.8206,15.6409,
5.3848,-4.8716,-3.8462,25.3848,-27.9487,-5.3848,-0.25635,-72.5642,0.25635,6.9229,6.4102,6.4102,-13.0771,8.9741,
14.3589,-5.6411,-5.6411,18.4614,-12.9487,-12.3076,9.7437,-83.5896,-1.5386,1.5386,-4.6152,2.564,-15.3848,12.3076,
27.1792,-1.0259,4.1025,23.0767,2.0513,-18.4614,24.1025,-75.8975,-1.5386,-3.5898,0,0,-4.1025,16.9229,
21.7947,-6.9231,2.8206,26.9231,17.0513,-33.4614,27.4358,-84.8718,-2.3079,-0.76929,0.76929,-0.76929,-6.4104,7.9485,
18.9744,-17.9485,-2.051,27.1794,32.0513,-48.4614,29.7439,-96.4102,-1.0256,1.5388,-1.5383,1.0256,-6.1536,8.718,
22.0513,-24.1025,0,20.5132,47.0513,-63.4614,31.7949,-90.769,-1.0254,-6.1538,0.51318,-5.6406,0,11.2822,
23.8459,-23.3333,0.76929,23.3333,62.0513,-78.4614,33.0769,-87.436,-0.76929,-14.6155,3.8459,-14.6155,-1.282,3.3333,
25.6411,-23.0767,0.5127,26.6665,77.0513,-92.8206,38.9746,-92.3076,1.5386,-15.8975,7.1797,-15.3848,-1.0254,-0.5127,
23.5898,-25.1284,0,22.0513,92.0513,-97.436,37.436,-95.3848,-1.5386,-15.3848,3.5898,-14.3589,0,1.5386,
24.8718,-26.4104,0.76929,26.9231,107.0513,-98.718,35.1282,-94.6155,-2.8206,-14.6155,1.282,-14.1028,-0.76929,1.7947,
22.8206,-35.1282,0.25659,27.9485,117.1794,-105.3848,33.0769,-101.7949,-0.76929,-13.0769,3.8459,-15.1282,-0.25659,0.25659,
21.0259,-37.9487,0,27.6924,108.7178,-104.6155,32.3076,-112.8206,0.5127,-8.7178,5.1284,-13.3335,-0.5127,0,
24.8718,-27.9487,1.282,27.4358,110.5129,-94.1025,34.6155,-117.6924,-0.76929,-8.4617,3.3333,-10.5129,-0.25659,0.25659,
26.4102,-22.8203,1.2822,26.4102,112.0513,-95.6411,35.1284,-116.6667,-3.3335,-14.1025,-0.76904,-13.0771,0.76904,1.2822,
24.6157,-31.282,1.0259,29.7437,104.1025,-101.5383,34.8721,-115.3845,-1.5381,-18.4614,0.51318,-17.4355,0,0,
23.3335,-37.1794,1.2822,28.4614,95.1279,-96.1538,35.1279,-114.6155,0.76904,-18.7178,4.8716,-15.6411,-0.76904,-0.76904,
22.051,-28.718,1.5383,28.2048,96.4104,-94.3591,32.8206,-113.3335,-0.51294,-12.3079,2.051,-12.3079,-1.5383,0.51294,
21.7947,-24.3591,0.76929,27.9485,103.3333,-95.6411,32.051,-117.1794,0.76929,-3.3333,-0.76929,-14.6155,-0.76929,0.76929,
25.1284,-34.3589,-0.51269,24.6152,102.0513,-91.282,32.8203,-119.4871,2.0513,-2.0513,1.0259,-12.3076,-0.51269,0.5127,
28.4614,-35.1284,-0.76953,24.8716,98.2051,-85.3848,32.564,-113.5898,0.25635,-0.25635,2.8203,-1.7949,-1.2822,0.76904,
23.0767,-31.7949,-1.0259,23.5898,97.9487,-90.2566,32.3076,-111.2822,-0.51269,0.5127,2.0513,-4.1025,-0.51269,2.0513,
23.8462,-32.0513,1.2822,25.8975,97.6924,-93.0769,33.5898,-116.1538,0.25635,-5.3843,5.8975,-12.0513,-0.25635,-0.25635,
30.2566,-26.1536,4.6155,26.1541,103.5896,-85.6409,33.3333,-114.8718,-1.0256,-7.1794,12.8206,-5.1282,1.0256,-2.5642,
25.6411,-28.2051,-0.5127,17.9487,104.1025,-83.5898,28.7178,-113.3335,-3.0771,-5.6411,10.2563,-7.6924,3.5898,0.5127,
19.7437,-33.0769,-4.8716,21.2822,95.1284,-89.4871,27.436,-117.1794,-3.8462,-6.4102,3.8462,-18.2051,10.5132,8.9746,
21.7949,-32.0513,-2.3076,21.7949,88.9741,-90,32.0513,-120.2563,-4.3589,-10.5127,2.3076,-13.0771,11.0259,10.5127,
24.8718,-29.4873,-0.76929,21.7947,91.5383,-78.2053,33.5896,-115.1284,-2.8206,-15.1282,2.3074,-8.9744,0.76929,9.4871,
23.5896,-28.7183,-3.0769,26.1536,87.6921,-74.3591,31.282,-115.8977,-1.0256,-18.4617,3.0769,-17.4363,1.0256,12.8206,
18.718,-28.4617,-4.3591,22.8206,75.6409,-81.7949,28.9744,-122.3079,-3.3333,-19.2307,3.3333,-19.2307,11.0256,8.4612,
20,-23.0767,0,25.6411,80.5132,-81.0254,28.7183,-119.9998,-5.1279,-16.4102,0,-13.333,13.8462,5.6411,
23.5898,-25.1284,2.564,25.1279,88.2051,-80.5129,27.6924,-118.9744,-3.5898,-12.8208,-2.564,-13.3335,8.2051,7.6924,
25.3848,-30.5129,0.25635,22.8203,84.3589,-80.7693,27.436,-119.7437,-1.7949,-15.1284,-0.25635,-15.6411,4.8716,3.8462,
26.6665,-27.1797,0.5127,27.1792,85.6411,-71.7949,31.2817,-115.3848,-1.5386,-14.8721,3.5898,-12.3076,4.6152,-0.51269,
24.1025,-25.1284,0,24.6152,88.7178,-68.718,31.2817,-115.8975,-2.564,-8.7183,1.0254,-8.7183,3.0767,0,
26.4102,-22.8203,-0.76904,24.8716,86.9229,-71.5386,29.4873,-116.1538,-1.7949,-7.9487,0.76904,-8.9746,6.9229,1.2822,
27.6924,-21.5386,0,25.1284,84.1025,-71.282,31.2822,-114.3589,0,-12.8203,6.6665,-10.2563,14.3589,0,
22.051,-25.6414,1.0256,24.1023,79.4871,-79.4873,31.7947,-118.9746,-1.0256,-13.8464,6.6663,-12.3079,12.8201,-1.0256,
23.333,-28.4617,-0.25635,26.9229,75.6411,-82.3079,31.0254,-117.6924,0.25635,-10.5132,8.4614,-14.1025,10.5127,-1.2822,
26.9231,-23.3333,-1.282,22.3074,78.718,-73.0771,28.9744,-107.949,1.282,-12.5642,10.5125,-15.1282,11.5383,-2.8206,
24.1028,-19.9998,1.0256,22.5642,77.4358,-69.7437,28.2053,-109.2307,-1.0256,-13.3333,1.5383,-11.7947,8.718,-4.1023,
26.9231,-22.8206,4.3586,30.5125,74.1023,-72.5642,32.5637,-115.6411,-0.76929,-8.9744,-1.282,-2.3079,5.8972,0.76929,
28.9744,-26.9231,0.76929,28.4617,76.1541,-72.564,31.5383,-118.7178,-3.3333,-11.0256,2.3079,-5.3845,4.8718,-0.76929,
25.3845,-24.8718,1.282,27.9485,80.7693,-65.8975,33.0769,-110.5129,-2.3079,-14.6155,2.8206,-14.1028,9.9998,-1.282,
23.8464,-22.3074,2.8206,24.3591,76.6667,-62.3076,33.0769,-108.4614,-1.282,-18.2048,1.282,-16.1536,11.5383,-1.282,
30.5127,-19.231,1.2822,27.436,77.1797,-59.2307,31.5386,-112.5642,-1.2822,-18.2051,11.0254,-13.5898,13.0771,-2.3076,
30.2563,-20,0.5127,28.7178,87.1797,-56.4102,35.3848,-110.2563,-0.51269,-13.3335,13.8462,-13.8462,13.8462,-1.5386,
25.1279,-22.564,0,22.0513,87.6924,-55.3848,36.4102,-108.2053,-1.0259,-6.6665,4.1025,-8.7183,7.6924,0,
26.1538,-22.0513,0.5127,22.564,77.9487,-54.8718,28.7178,-111.282,-3.5898,-3.0771,-0.5127,-3.0771,2.0513,2.0513,
24.1023,-20.0002,0.51294,24.6155,72.8206,-53.3335,26.6667,-112.3079,-2.5642,-6.6667,-0.51294,-9.7434,6.6667,5.1282,
17.9485,-16.4104,-2.0515,27.1794,70.2561,-52.8206,30.2561,-107.1797,-0.51294,-12.8206,0.51294,-14.3591,13.8459,1.5383,
