"AF3","AF4","F3","F4","F7","F8","FC5","FC6","O1","O2","P7","P8","T7","T8",
-64.0749,-29.465,-81.8476,3.274,81.8472,-3.274,-10.7572,-7.0156,50.0442,-19.1755,10.7572,14.4987,22.9171,33.2066,
-55.5536,-38.9223,-82.5491,-11.0224,68.5176,-17.1776,-24.2117,-4.7238,33.9451,-3.925,24.2117,9.8868,33.7024,17.1142,
-42.3984,-22.487,-63.4962,-5.1475,77.0349,-2.0469,-8.659,-2.1016,46.0084,-6.0976,16.6102,16.3091,29.3414,17.5594,
-48.7413,-21.2071,-63.4973,-7.177,63.5264,8.3655,-17.4939,-3.3787,32.8899,-18.3597,2.9848,1.7675,13.4809,15.1027,
-36.93,-18.531,-56.413,-8.1491,68.6017,0.84798,-25.3302,1.9684,25.7722,-3.1581,16.3692,-2.5477,15.5478,15.6002,
-38.9239,-12.2744,-51.6255,1.2253,69.6294,1.2651,-9.7103,-4.2297,38.3259,-8.6498,1.2871,8.3618,14.1469,28.7641,
-45.9424,-25.6379,-56.0111,-12.9482,51.3517,-12.9108,-23.2277,4.4424,22.3934,0.28839,15.3099,6.925,17.0397,12.9383,
-36.1703,-16.0796,-38.5504,-1.3449,51.6139,1.9639,-8.7381,-2.8393,30.8723,-13.8289,9.7145,2.3007,14.6141,13.0972,
-30.2585,-11.3732,-24.6139,2.4774,49.4522,8.8612,-5.4083,-7.3457,25.2784,-9.6568,-4.9684,0.29146,7.1901,15.1177,
-18.1534,-13.4972,-16.5896,-0.47766,46.4851,-5.7705,-8.8254,0.57824,23.7608,5.0226,9.4297,-2.5324,19.8538,9.533,
-23.1446,-11.2842,-11.3841,6.567,44.164,6.3373,5.8042,-13.5565,18.1264,-9.3787,-5.236,-12.202,10.7123,20.6538,
-19.8847,-12.4779,3.3989,-0.37499,34.9662,-8.1429,-5.3697,1.3569,3.0077,5.284,9.1781,-4.9219,15.6815,12.8666,
-22.9012,-13.1325,16.6888,-0.82008,43.6254,-6.1818,5.7097,4.0815,16.9272,7.7041,9.5631,-4.159,15.2082,12.5631,
-21.9947,-11.8765,8.6723,1.5675,39.6046,0.26905,3.0287,2.4334,25.1967,1.1619,6.6509,-1.5711,15.6989,25.3724,
-20.207,-20.0503,2.072,-9.2837,26.4721,-13.8471,-11.253,5.5614,18.5405,15.1922,16.0738,-5.686,18.0309,12.1577,
-16.1886,-10.4285,16.0477,1.5629,38.914,1.0837,3.5222,-5.997,31.5281,4.3898,1.0094,-10.9568,3.8531,18.9114,
-16.1529,-13.5448,29.0463,-8.8209,22.4792,-2.2557,9.3908,0.91032,15.5364,18.2264,5.694,-19.6542,-2.9256,3.6768,
-23.1345,-15.0709,34.3191,-12.5008,9.5065,-9.136,1.8118,-7.095,5.717,23.1439,3.9496,-31.1029,-4.1528,-7.2326,
-20.3432,-16.5046,33.6636,-12.2183,13.1462,-14.6673,5.9122,-14.6201,6.7776,33.4485,-7.0445,-32.5103,-8.1128,3.9585,
-11.6395,-19.2563,40.0616,-19.9036,-0.73812,-21.2709,-7.538,-4.3889,-2.0478,45.5416,3.6673,-31.4948,-7.6265,-5.6329,
-12.3443,-4.537,51.7579,-4.6094,10.0629,-5.8946,7.0143,-12.0759,12.175,33.8534,-10.6528,-33.8143,-16.0553,4.5275,
-5.0557,-8.9424,55.5992,-7.6761,7.5883,-6.0774,-4.2326,-1.9983,1.5537,41.1762,-1.058,-30.8503,-7.6084,1.449,
9.3477,-3.2611,62.0848,-15.1663,15.0842,4.1088,3.9725,-2.3455,-2.7482,50.3984,-6.1393,-22.9193,-7.6199,-0.041182,
8.718,7.6913,69.1168,-9.1115,20.2587,17.9623,17.2969,-12.9619,-6.7934,33.2745,-19.8709,-26.6889,-21.2627,4.1705,
7.7269,1.1499,59.825,-12.7744,5.48,10.2672,2.159,-5.1691,-13.4009,17.3153,-4.5786,-33.0383,-14.3057,-4.031,
13.8112,15.112,54.3652,-0.78234,17.312,23.7512,12.856,-10.4709,-4.1776,5.9877,-18.4039,-19.8308,-23.736,10.3109,
16.2561,16.5437,51.5704,-11.493,17.6756,36.4261,9.7462,1.8493,-18.027,19.7284,-26.1168,-20.0442,-30.2631,15.7033,
17.6191,16.9543,59.2338,-6.5938,18.9535,37.8444,7.7582,3.1415,-4.7166,30.6358,-10.4497,-27.7284,-16.7554,8.6812,
7.2085,12.1954,46.3263,-8.0694,17.8171,35.5747,11.0343,-11.147,-8.1752,14.6976,-23.9228,-34.4825,-28.8452,10.9667,
20.876,15.6733,56.1746,-19.2776,30.8481,37.6489,22.065,1.2835,-21.7847,13.4175,-8.4563,-31.946,-16.3569,1.4232,
29.8437,10.5238,56.0772,-20.4593,43.0972,49.49,34.8411,-6.7443,-22.2795,-1.4876,-22.0489,-39.8517,-29.4754,1.8045,
29.4558,15.0367,55.9866,-5.1317,44.5824,58.6116,18.6507,-6.8072,-22.3455,3.3473,-34.8259,-23.3606,-36.9925,15.7963,
31.8981,11.7961,45.6114,-5.8292,33.9563,40.9949,16.1275,-17.1564,-28.0208,3.6136,-34.9379,-36.0589,-39.9177,12.9089,
27.1782,13.8943,44.7464,-5.479,45.9505,37.2013,29.2599,-24.5449,-15.1144,-10.7032,-46.9417,-47.9954,-43.135,10.2635,
24.1443,6.0455,45.3352,-12.1654,29.0935,20.8692,16.6792,-8.9722,-18.4171,4.039,-30.0252,-32.418,-26.4469,3.5678,
8.5957,1.9407,36.0675,-5.8231,13.2478,31.3783,14.7428,-9.9064,-6.0869,8.0062,-33.3675,-21.1198,-22.591,8.9661,
2.0684,1.3572,30.629,-6.8769,0.43033,18.7389,6.8422,-8.844,-0.57691,17.3474,-17.2655,-12.8366,-17.0259,16.3793,
4.2827,-2.9343,25.5177,-16.2863,-6.6115,3.5145,-4.325,3.3786,-0.075156,25.1929,-2.1296,-13.4696,-16.4724,13.9933,
1.6882,-1.3546,24.4547,-9.2287,-7.6171,11.7908,9.4976,-5.7096,3.2038,9.5813,-16.1018,-15.935,-23.4344,27.2537,
15.1496,2.9358,30.9382,-7.2718,-13.2405,-3.0166,-5.1723,8.733,7.2207,23.1065,-1.0357,-3.2866,-7.9283,38.6452,
7.225,5.0985,26.743,-0.75551,-12.9137,1.91,2.6901,-5.891,12.867,7.6201,-1.5793,-15.7178,-18.7471,29.3109,
9.5984,4.7921,28.8805,0.22544,-14.0096,8.3438,9.0771,-6.4732,-2.005,3.0226,-5.2266,-20.3866,-19.4922,29.423,
17.9084,-5.3169,29.4856,-13.8881,-15.5079,-6.2568,-4.0959,2.8011,-15.9847,16.9412,9.187,-12.1483,-4.2226,17.8357,
15.4307,0.14733,30.0557,-6.4375,-3.8198,-0.19927,10.2499,-9.0588,-13.9519,4.6316,-1.7222,-0.66181,-14.3281,27.5231,
9.3605,-5.0067,23.1071,-14.0025,-17.6906,-14.2873,-4.4651,5.5847,-11.7111,10.4332,12.4812,-7.6377,-15.8068,19.7913,
0.84769,-8.916,19.3823,-10.8244,-14.6895,-18.0384,-2.7936,-1.3677,2.5547,6.5337,8.8566,-20.743,-13.4557,23.7486,
-1.0735,-12.1217,17.2842,-4.5621,-12.873,-10.4081,-0.75562,-8.7688,2.4014,19.2376,6.4549,-5.4673,-10.7771,32.6133,
7.8766,-16.5394,19.5205,-17.8517,-15.3744,-20.5415,-5.8548,5.3207,8.337,32.1834,20.1676,7.4885,3.4329,24.5763,
-3.3529,-16.9509,16.0111,-17.2484,-2.7598,-12.2936,8.5964,-7.6267,16.7234,16.1524,4.8575,-7.0608,-10.3364,30.1171,
-1.281,-20.6101,16.9212,-16.2135,-16.6942,-25.656,0.99601,4.9913,1.62,17.9892,18.5968,-11.7129,-3.1687,19.8913,
3.9411,-20.7767,20.1151,-15.7083,-28.2508,-20.7734,-2.3377,0.48261,7.6716,17.3774,20.7549,-2.1233,4.037,22.9079,
-2.3766,-16.2566,10.9566,-14.2986,-31.701,-15.3178,-6.4066,-5.6267,21.3113,13.9959,23.7188,12.1041,-6.9624,35.6334,
4.7822,-6.3946,12.6387,-6.4249,-24.6539,-18.6081,-14.9084,8.8109,33.0595,27.2562,36.3957,25.4779,3.2771,39.0382,
-9.6047,-17.7035,-0.74825,-14.926,-26.4489,-14.2178,-4.1921,-5.8178,17.5122,11.5208,20.1119,9.8492,-11.0195,28.745,
-1.0091,-16.6417,0.23271,-18.7072,-24.8619,-14.3,-3.0054,-6.4043,11.7847,15.5068,19.8408,-0.63304,-16.3697,22.3426,
-0.48005,-16.1104,-6.7968,-16.1816,-27.5794,-8.2976,-7.9694,-9.2932,20.8996,15.9791,17.2476,2.6789,-19.5966,19.5993,
3.2903,-2.9838,-2.6474,-2.1152,-25.9246,-0.3166,-6.5561,-1.2524,19.6456,9.4084,3.1168,-1.2234,-19.3565,32.5234,
3.0925,-4.6756,-0.6178,-6.665,-31.8528,-11.5219,-20.2627,12.9227,4.3669,22.9439,17.0298,-9.5688,-16.3238,31.4387,
-9.2525,1.2182,-1.5155,4.9596,-23.3932,3.2694,-4.947,-1.9526,-0.50303,7.4673,1.908,-6.1878,-29.4444,32.3592,
-5.4247,-5.8709,-11.247,-0.48272,-29.0056,-0.2696,-6.0534,-4.1748,0.92947,7.4864,3.1967,2.1338,-26.2061,25.272,
7.9967,-13.0018,-7.7657,-3.2597,-19.7812,-10.543,-1.9486,5.4301,0.87459,5.1669,14.2297,-1.7354,-10.5338,17.2086,
-1.8366,-16.8993,-12.9126,-6.8062,-13.9176,0.37916,6.5867,-8.9957,-9.4675,-9.2431,-0.72411,-12.8564,-24.0017,16.1752,
2.9508,-14.0141,-16.8142,-10.1389,-16.8245,-4.3208,-7.8392,-4.6451,-9.835,5.4115,13.4193,-6.4722,-16.0132,11.4635,
-7.0482,-11.7701,-25.6273,-4.3863,-18.153,7.6308,6.1947,-18.4664,2.4474,-9.0132,-1.4858,-5.6168,-15.5204,16.8561,
-13.6409,-13.4027,-32.9765,-14.8802,-27.8219,-3.5842,-3.0638,-9.8064,-6.5862,-0.92087,-1.3274,7.3486,-15.0572,20.9891,
-6.2749,-12.5985,-37.5454,-21.4706,-19.6041,-2.4335,-9.4275,1.0711,-8.997,13.2344,7.171,12.5196,-16.0242,21.6005,
1.5852,2.2574,-29.6803,-6.0823,-4.3972,11.8125,5.2381,-10.2174,-1.9088,-1.6597,-7.3592,6.1565,-19.7399,34.4045,
-3.6551,-0.28575,-28.3671,-7.1899,-18.2333,6.8253,-3.0962,-6.3313,-15.8943,-15.6601,0.16632,-8.3129,-22.7651,22.449,
-0.62943,7.2154,-21.0522,6.3375,-3.0393,20.5157,11.1896,-4.0802,-11.5978,-23.5376,-13.8748,-14.7608,-27.0107,25.7797,
13.5083,14.7324,-9.968,19.5208,11.243,30.9083,18.4001,10.2646,-20.7239,-8.0253,-8.8332,-4.0532,-13.6982,24.7005,
19.1765,15.2525,-4.2252,12.2696,-3.5316,26.7163,3.733,10.5155,-30.2371,0.80614,-1.2871,-17.91,-11.4726,9.1184,
13.3492,23.6909,-8.6484,16.2101,10.2434,39.2133,15.6689,-2.2762,-16.263,-13.3422,-15.3099,-30.3296,-24.8843,8.1731,
21.9022,14.7867,-16.5483,8.69,23.7288,30.2432,5.3757,10.0207,-29.3872,-11.5372,-8.7101,-33.1871,-27.9991,-3.5416,
31.3448,19.9795,-17.8937,15.1837,36.4051,42.5286,19.1532,-4.6805,-34.5707,-24.945,-22.2875,-35.4054,-38.9476,-9.41,
39.2865,31.4086,-19.1585,14.7407,48.3208,44.5848,19.8055,-9.0076,-46.5965,-37.5483,-35.0502,-32.8131,-46.4327,-6.507,
43.0088,26.2501,-13.7998,3.0991,58.7781,27.8097,9.7303,-0.51638,-57.9007,-38.4317,-32.341,-44.9443,-36.6307,-20.2166,
46.0411,28.4167,-2.6823,17.0132,69.3514,27.6127,23.2465,-10.775,-41.1934,-43.6089,-40.6901,-54.8067,-32.5625,-16.5959,
37.1982,12.6117,-16.6213,2.36,68.3955,11.856,29.7336,-13.4016,-52.8218,-26.8924,-24.1487,-49.1795,-27.3343,-29.7001,
32.628,18.4714,-21.1676,7.3632,78.3917,9.3436,42.0496,-7.4527,-45.8416,-28.1537,-27.4459,-32.1287,-14.0019,-31.5904,
28.3319,8.4767,-22.2359,2.7118,85.7793,-1.9746,53.6266,-4.668,-28.9911,-15.7077,-16.9128,-17.1748,-5.2115,-18.0031,
31.3087,-6.1319,-34.9329,-8.6752,67.5375,-15.9562,37.1762,0.28968,-13.1516,-0.66528,-1.798,-17.0795,7.262,-15.0517,
28.9626,8.3361,-31.4341,5.9453,73.3063,-0.89878,49.0457,-5.8081,1.7375,-14.7254,-0.3562,-7.1688,10.0993,-0.048593,
25.3541,15.7871,-26.7421,11.5992,55.8124,-2.2481,38.082,8.6404,-6.0565,0.25816,12.7607,7.3613,23.5934,12.5125,
21.9621,12.0339,-29.8148,6.2261,48.7216,9.112,39.5391,10.8586,1.7896,10.931,12.9307,4.98,8.0782,12.6974,
24.8535,14.5859,-32.2342,13.8041,48.1371,21.1928,37.6343,11.6108,0.27946,0.45313,10.7512,2.3428,-6.5065,23.6288,
13.5408,0.1467,-43.8641,-1.1241,31.1489,5.8212,21.2763,9.5109,-13.8373,6.5059,17.1221,0.79907,-20.2161,8.111,
11.7931,14.2379,-31.8779,13.0433,27.0113,5.0737,33.6325,2.3932,-5.9222,-6.9795,5.8052,7.2996,-33.1031,18.4508,
5.0051,1.6224,-44.0652,3.842,11.2907,-9.3308,17.5146,3.6523,-19.6669,-11.706,19.5569,-7.2384,-45.2169,3.2438,
0.028085,-9.6996,-53.9804,-7.6133,5.5369,-22.2656,2.3637,-2.1796,-4.3869,-14.7452,15.9758,-7.2033,-56.6039,2.6495,
-9.7956,-1.1669,-54.9512,5.471,1.9307,-14.8493,6.1003,-4.3877,8.9714,-4.9737,7.0665,7.3289,-67.3077,16.5906,
-3.1279,-3.4353,-55.8628,3.74,-12.2852,-21.9095,-8.3657,9.4396,-3.2587,9.4247,20.7425,14.3035,-77.3692,18.3322,
1.7374,-8.8411,-59.9942,-2.0968,-4.4632,-8.4341,6.2362,-5.2268,8.1606,-5.2408,5.398,2.2205,-86.8271,17.2323,
7.7122,-7.8435,-59.669,-9.9222,-0.92186,-15.8793,7.7333,4.9772,-5.8921,5.3624,17.234,15.65,-95.7174,24.1495,
3.0403,-2.2285,-61.2332,-8.8593,-6.0109,-6.0406,5.8665,4.211,-19.6386,-7.5869,14.7972,2.0835,-104.0744,18.4914,
14.0831,12.0052,-51.9468,5.7723,-0.037868,8.4218,19.6145,0.2172,-8.569,-21.1624,1.749,-0.84794,-111.9299,31.4819,
12.3029,1.8621,-52.5721,-3.0617,-14.0667,-6.1835,4.3377,3.0097,-21.1513,-5.7926,15.7441,-8.2802,-119.3141,15.493,
13.9031,6.8951,-41.4661,9.75,0.87726,4.0095,18.1774,0.49073,-5.7822,-14.4003,10.521,2.039,-122.552,14.0958,
-1.031,-7.6186,-53.0781,-2.9954,-13.2754,-10.3311,2.9868,-2.3447,-0.35933,-6.9887,17.3733,9.3994,-125.4884,20.7328,
-15.0692,-12.705,-63.9934,-4.6864,-26.5788,-18.9963,-11.2924,1.5376,13.7622,7.5306,30.4309,20.0602,-113.2819,24.1656,
-22.4456,-10.071,-74.2538,-1.5989,-27.2536,-12.2441,-11.0136,-5.1022,27.0365,20.1054,14.5051,20.7273,-112.0974,29.2641,
-6.9989,-12.7416,-83.1556,-10.3893,-34.5052,-25.6095,-21.11,7.8314,15.4542,28.7202,27.7348,26.4988,-97.4208,27.9758,
-13.6634,-9.1707,-89.3906,-4.1536,-46.4652,-10.4405,-22.6498,-6.7385,8.915,12.897,11.9707,10.8782,-105.6755,25.3621,
-10.5052,0.26677,-81.6883,4.9829,-38.5325,-3.7332,-19.8867,-2.0557,6.0417,-0.43503,6.5757,14.4351,-112.8288,20.5668,
-13.1489,-10.5073,-82.8674,-8.8796,-29.205,-11.4609,-19.162,2.2768,8.9532,6.6066,18.8086,9.3594,-104.6563,5.7693,
-12.36,-2.3937,-80.7018,0.071485,-24.6471,3.3268,-4.9163,-11.9598,15.8992,-7.8898,3.5801,1.3151,-110.5369,17.583,
2.4816,4.766,-73.5213,2.4056,-30.1834,-1.1513,-18.7213,1.4546,0.84523,6.6836,15.1269,-0.16743,-102.5019,13.2536,
6.473,11.9627,-65.3684,16.2919,-14.2724,13.0178,-3.498,2.3029,-8.9586,-7.8174,0.11932,3.5842,-99.1582,20.8772,
-1.3985,10.3098,-73.6067,12.508,-18.1621,13.1026,-3.7566,1.2287,-17.7746,-12.4247,3.9222,7.1107,-89.4671,14.9478,
8.5065,3.6108,-73.3994,1.936,-31.1724,-1.7836,-17.6312,9.1066,-5.951,2.4208,17.7868,8.0873,-69.9991,1.4225,
-6.1039,-9.7014,-83.0266,4.6262,-34.378,-6.7516,-10.4245,-5.5398,3.76,-11.8245,7.7644,-5.4939,-76.6256,8.8208,
-3.7967,-1.6357,-79.9154,9.0259,-28.5733,-18.5069,-17.2818,8.8926,1.6636,2.985,21.3985,8.9357,-57.9965,17.6455,
-9.6497,-3.8768,-86.8132,-5.6157,-32.9397,-16.9284,-20.4545,0.40785,6.7086,16.9059,34.2146,22.4996,-52.1783,16.1187,
-9.0707,-11.1274,-89.0876,-12.2259,-37.5104,-4.688,-22.0327,-3.3582,10.0477,26.0429,29.6852,35.2496,-52.7892,26.3763,
-2.9137,-14.2009,-86.5483,-8.6855,-32.4534,-2.5363,-28.1939,10.9433,6.6384,37.5763,42.0041,29.6541,-44.0095,17.3115,
-9.7549,-7.2684,-90.2418,-0.21362,-17.8792,11.7158,-12.4023,-3.8133,6.7081,21.2218,25.3839,13.7748,-55.4689,18.6112,
1.5876,0.18327,-80.6181,-5.3451,-18.2092,15.6212,-12.6626,0.15752,-4.4515,13.4698,33.2157,17.6944,-45.5239,20.7685,
0.08911,-0.29576,-80.9258,-11.1053,-21.3262,17.0223,-14.2412,1.5504,-2.7812,6.5816,24.2067,12.4231,-40.4541,10.636,
-6.4638,-8.6968,-90.1702,-5.7618,-19.111,10.3886,-17.1288,-0.41254,3.9332,-7.844,20.8835,7.9366,-31.4789,10.9326,
6.5524,-13.3193,-82.3523,-2.1416,-15.6256,1.8146,-20.3102,11.3045,4.1648,6.7267,33.7305,19.1532,-15.4901,10.7451,
1.4816,-2.2306,-77.4112,-3.8839,-6.2697,15.8057,-4.9916,-3.4737,-4.5034,-7.7769,18.0743,16.1332,-28.1932,13.842,
4.1992,8.1919,-83.9917,-7.3933,1.5897,12.9173,0.85095,4.2867,-18.3332,-2.166,25.4081,16.1004,-23.6956,10.2051,
3.9472,6.7652,-86.4354,7.0814,2.4294,14.9486,-12.2952,6.835,-3.1332,0.7695,26.6901,7.6512,-12.9199,11.4631,
-7.5144,-1.1238,-86.8616,11.3333,-11.8163,16.8572,-14.3639,-7.6053,10.1498,-8.6302,11.0575,6.256,-21.4987,13.5817,
2.758,4.0884,-83.0531,-1.0391,-25.2073,1.7458,-20.5181,6.951,2.5257,5.9876,24.4941,19.9807,-15.064,3.8805,
-4.4226,5.2463,-86.9559,1.3621,-13.2676,8.2588,-9.4646,-2.8893,1.9062,-2.8588,17.3436,13.1011,-23.046,6.9212,
0.051944,-4.8896,-78.4645,-0.12238,-10.1319,0.74768,-12.1707,-1.3123,1.3242,11.4127,30.403,17.4602,-7.5633,14.4575,
-0.88724,-13.0159,-83.111,-14.215,-16.0728,-8.6516,-15.182,-6.8464,4.9863,23.2866,34.5895,20.1533,6.9905,5.1709,
-7.3811,-2.881,-89.3491,-10.4878,-16.0436,1.2219,-9.5943,-14.8548,4.6871,7.8583,18.4141,24.5569,-7.5289,10.4734,
7.1618,1.0341,-71.8276,-4.2455,-7.5981,-4.4636,-14.6308,0.13646,5.3413,21.4868,31.4093,32.4372,7.0228,12.6512,
-6.4323,-13.1279,-81.5493,-14.2801,-10.8831,-7.9375,-9.0765,-13.9717,3.1498,6.0976,22.042,16.391,3.1893,-1.2032,
-4.1756,-2.9177,-77.5915,-1.2629,-4.6177,2.8278,-10.4027,0.89772,3.8965,2.9253,27.267,9.8642,3.9336,7.2869,
-3.4575,2.4026,-79.0164,1.1508,-3.8731,11.5441,-14.9228,14.4074,5.0654,16.8498,39.731,16.288,12.5835,8.2533,
-11.2012,-3.8215,-81.2906,-0.32057,-9.7207,19.7387,-1.3995,-0.55703,8.9711,1.7388,23.2471,8.2956,7.6197,16.6445,
-0.70805,-7.8023,-77.8168,-7.3178,-9.6059,4.4544,-8.3311,10.7704,0.4821,7.7144,35.9523,6.3937,21.2626,3.0174,
-6.7451,-7.8017,-81.0981,-8.2815,3.5988,6.1263,4.7971,1.2383,3.7272,-6.3111,24.3724,0.86621,20.8531,-10.7263,
-5.8723,5.2943,-72.023,-0.76858,-8.3099,8.0971,-0.63548,7.2439,3.0355,8.1676,28.99,14.9142,21.9403,-3.0676,
-1.7784,12.4598,-65.8313,-2.5937,-14.3593,8.5464,-9.0166,12.4212,5.6598,21.7775,41.3506,20.03,34.6546,1.7932,
-13.3645,-0.91481,-75.9814,-11.3244,0.6023,22.1337,5.6244,-2.424,10.465,6.3708,24.7695,5.2656,21.8186,13.3784,
-4.1438,-10.2148,-72.7564,-14.3866,-3.7119,6.7056,-6.4742,11.3538,2.3535,17.144,35.9118,17.1091,23.3154,6.0282,
4.9907,4.4981,-54.8275,0.57664,-3.0216,-7.7967,8.0142,-0.084567,9.2278,20.3246,37.0302,21.2278,23.3197,2.3925,
2.8205,8.369,-65.6378,-9.3488,3.7073,-8.1948,11.6732,-13.175,-5.4258,5.0051,20.7777,5.8541,19.1141,4.1197,
12.9413,10.6728,-72.8555,-13.4646,8.162,6.3969,-3.1272,1.7155,-7.8369,-7.3863,25.1434,-3.7827,23.5797,11.3553,
4.6812,14.7096,-73.1613,1.4433,-1.6816,20.1131,-3.8058,5.2853,-6.432,-20.0386,9.5348,4.8631,8.0649,24.7055,
-0.74447,15.2294,-77.658,1.7549,-15.6807,33.0063,-17.6775,19.0682,-14.9324,-4.7363,23.0627,18.6713,14.6654,22.7552,
-13.3273,19.4608,-83.7552,3.0533,-28.8399,45.1259,-30.5787,20.6612,-1.4081,7.6394,18.8725,15.6114,11.4476,23.7287,
-9.7221,25.7764,-76.8596,16.9701,-41.2095,56.5184,-20.3256,22.2279,-1.3236,-6.919,3.6402,10.9331,1.4063,33.5288,
2.0868,15.8114,-71.3124,15.883,-42.2715,48.1049,-22.8472,34.9942,-11.5338,7.5961,17.5217,20.5667,15.4219,28.7116,
-10.1992,7.3796,-73.5812,8.3821,-29.4456,44.2834,-8.3809,22.5362,0.38299,13.6884,13.6649,23.0743,24.7173,32.6017,
-7.2486,4.5978,-66.8282,-6.2209,-25.3408,31.8047,-16.7646,29.135,-0.1078,23.6235,26.945,22.1576,37.3343,16.5456,
-3.0724,6.1929,-64.6895,-10.9235,-13.5305,41.1214,-7.3402,19.903,1.7697,8.1061,25.7266,18.9571,34.5573,17.024,
-11.3068,4.8857,-74.9081,-5.5909,-21.1375,44.2665,-9.7057,10.2901,-3.9489,8.6245,10.083,23.4321,22.1943,30.1026,
-14.8376,-6.1646,-82.9723,-18.819,-28.7556,27.5105,-23.2234,21.3654,-3.2439,22.207,19.3689,21.5581,26.9426,20.2768,
-16.2852,-4.391,-77.5259,-16.2862,-12.9302,34.3479,-7.73,6.5204,11.0507,6.7746,4.1067,9.5079,17.3758,14.8515,
-1.2081,5.2268,-66.3264,-8.7615,-10.8201,23.8678,-10.0717,15.4836,-1.3739,3.5617,2.526,17.3558,29.4288,19.5723,
2.5366,7.7183,-63.2828,-7.3007,-3.6233,32.7249,-3.8559,10.8125,-5.0335,12.7019,-6.9795,13.5085,28.5982,22.1391,
-7.9042,11.9328,-71.6458,-4.0562,-0.59953,44.7934,1.9883,12.035,1.8165,-0.22009,-20.6608,5.2148,18.464,30.1652,
-5.0923,14.4906,-72.492,-5.2163,-14.6636,28.0058,-12.231,25.4129,-1.5663,13.8931,-5.3211,7.2401,31.4561,19.4687,
-18.3501,8.4762,-77.9643,-8.1771,-26.81,25.4583,-13.2996,15.4001,12.6277,-0.1053,-15.2914,2.5963,23.8871,18.7688,
-20.0555,-4.1927,-84.5112,-16.1052,-28.9434,9.8308,-25.5971,12.6053,14.1393,14.001,-13.4383,13.6657,20.5831,18.5774,
-20.7225,-6.7471,-86.9236,-12.3325,-30.0128,3.6978,-30.6088,9.9782,11.4202,27.261,-7.9548,15.6517,14.6714,15.5929,
-25.5587,-3.0674,-79.3694,-10.1889,-27.7444,3.9436,-16.1439,-2.3128,15.8802,13.7953,-21.0411,16.1163,7.7111,18.8665,
-14.6719,-12.238,-72.7367,-23.6776,-28.8859,-10.3931,-27.3359,9.9865,20.5391,27.0676,-5.6786,16.0842,21.3484,3.6345,
-11.921,-10.5683,-78.6618,-14.7053,-20.605,-8.7654,-12.6,-4.7127,33.4067,18.8267,-5.4068,11.3778,21.8686,-1.1924,
-17.2857,-8.531,-82.8285,-13.3554,-25.4487,-9.6427,-19.7951,-0.15213,21.5122,23.777,-5.5504,24.7951,21.9597,12.9792,
-24.6669,-13.632,-78.7939,-18.1665,-25.7925,-15.6117,-15.801,1.7278,15.5442,15.8029,-2.4105,27.4478,27.1901,10.7288,
-18.9777,-5.7985,-70.7927,-2.9765,-10.145,-0.575,-0.75297,-7.2622,17.8851,0.75468,-16.3659,11.7009,26.0263,15.2298,
-8.9527,-4.0474,-72.6251,-9.4143,-15.2179,-10.8989,-12.937,7.2735,2.712,14.8094,-1.2839,3.5845,34.2867,4.4945,
-19.6402,-1.9333,-77.6216,-9.7851,-12.4336,-6.5034,-10.2895,-2.1181,13.3758,-0.17916,-15.3069,1.4982,19.1339,5.16,
-11.4467,2.3914,-70.6259,4.3652,-9.3492,4.6444,-7.3338,3.1537,2.7517,-8.0508,-22.2708,-0.93005,25.0015,4.3833,
3.3401,9.7311,-56.0988,11.5869,0.56522,12.7841,-4.0874,12.3189,-7.703,1.7867,-6.8346,1.9322,37.6014,-1.4925,
-6.2831,12.8893,-64.8932,13.6981,-6.0162,17.6294,-1.0362,-1.5158,-9.1116,-12.4205,-20.5245,3.687,41.824,7.0158,
-7.7769,13.9862,-66.612,16.6173,-19.6864,2.4716,-15.074,12.6752,-9.5001,2.4247,-23.9702,15.6257,53.4145,6.5948,
-13.3898,5.1968,-66.8244,12.3463,-13.3604,6.6018,-14.5687,1.0882,-6.5917,-10.3492,-33.2887,3.9315,59.0272,-0.81597,
-8.3777,8.1585,-58.6063,13.0087,-7.414,6.6728,-7.6146,0.5549,-15.0834,-6.4547,-30.8242,6.9691,65.3066,1.5705,
0.075712,10.943,-52.7511,11.7606,-10.2432,2.9994,-15.1085,13.15,-10.9036,8.0326,-20.088,7.0186,75.4882,-5.5384,
-6.9444,16.3659,-54.7308,20.876,1.1286,16.9194,-0.102,-1.739,3.8507,-6.5493,-32.9827,0.51794,69.9545,8.8939,
-5.1241,10.2396,-57.5269,17.2856,-1.278,8.3513,-4.8415,1.2406,-10.4804,-1.0111,-35.6116,0.95445,79.8572,4.5489,
-2.4792,7.2869,-53.6077,20.4571,1.1371,17.6718,-3.1487,0.69813,-19.674,-11.7081,-36.7494,3.2356,89.1658,-2.7391,
-4.6683,2.6405,-55.5356,12.215,-7.8171,7.7256,-11.8457,-2.6178,-6.8003,-16.1499,-44.3655,6.3154,94.4357,0.69919,
2.1602,4.3529,-52.2034,9.6113,-7.3476,-6.838,-8.3285,7.8293,-4.5215,-1.0809,-27.6036,1.2593,102.8696,-4.02,
1.0945,12.51,-44.3945,20.2594,7.1933,7.6723,6.2712,-6.7404,-3.3151,-15.1161,-40.0474,-8.1707,106.9177,0.89799,
4.7709,-0.40005,-41.7304,4.9438,2.0156,-6.888,-6.3343,-2.526,-9.6637,-0.17797,-23.6134,-1.132,114.6026,-11.3154,
-5.3369,-6.4569,-42.5005,3.3133,-7.9269,-13.421,-9.2282,-7.5192,-3.0039,2.1711,-32.9542,-4.3385,109.0603,-12.9757,
-8.2911,6.5585,-40.4185,17.2145,-6.9841,1.4842,5.4255,-2.8585,-5.1621,-3.104,-37.0569,0.13142,103.9199,-1.4396,
0.6251,3.3594,-40.7994,2.0816,-10.3066,-12.7048,-9.0001,4.7962,-10.4643,4.5654,-20.7335,2.9299,111.7847,-15.4532,
3.394,8.7694,-28.0618,13.6491,4.4118,0.68497,5.6399,-9.5916,4.2636,-9.8085,-33.5895,-0.05182,107.8148,-13.5215,
5.5287,5.9048,-28.717,11.4269,-0.13097,2.0471,-2.2509,-2.8668,-10.0922,2.5412,-32.0417,-7.9999,102.7491,-18.7911,
10.8094,2.7446,-31.6707,2.3225,1.7477,4.7311,-6.7922,-0.82403,-9.0195,-6.0292,-27.3132,-4.7131,105.0029,-18.5983,
3.1457,6.7895,-28.3672,7.328,3.046,5.8495,-0.30469,-5.9194,-2.3984,-19.7674,-39.7744,1.6488,102.9115,-12.3377,
-2.6563,6.3817,-36.0196,-5.2721,-9.2971,-2.9202,-14.3864,0.048158,-16.3545,-8.6914,-23.288,-12.5501,110.7684,-25.6974,
11.5347,20.0988,-31.9876,6.2694,5.3607,11.355,0.57678,-0.89035,-5.95,-15.6526,-31.7122,-8.9219,107.8634,-10.0556,
11.7782,16.0176,-34.7451,-5.3319,-3.449,-3.4254,-13.5578,-5.5141,-19.693,-10.0363,-27.0035,1.9035,97.6504,-14.1294,
12.0067,15.0565,-24.2416,-1.2704,0.50042,-7.8975,-15.4815,-9.86,-11.895,-7.5629,-18.8353,-6.6291,105.8914,-22.6352,
8.0127,19.2979,-31.6735,9.5634,8.4207,6.6763,-0.45258,-10.6716,2.9187,-18.8019,-31.8052,-16.0538,105.549,-7.177,
11.7411,8.319,-35.8535,-3.6388,-6.1845,7.1425,-14.5254,2.5971,-11.3564,-5.9814,-18.6028,-15.5581,102.4901,-12.4285,
21.7934,19.5117,-19.6023,9.2075,8.2865,20.814,0.4461,-11.6588,-10.2075,-19.7226,-31.5867,-3.8679,93.0662,-10.2796,
18.1474,17.8739,-10.0762,10.0582,0.77465,12.9483,-10.8747,-10.8904,-10.9973,-5.3744,-30.5578,0.57376,78.5968,-7.3236,
6.7694,12.1242,-20.6968,7.5839,-0.20833,15.9125,-18.641,0.98733,-21.5627,-2.2459,-24.9832,-9.7498,71.0741,-6.8846,
9.6368,18.4119,-18.0518,11.3385,13.9042,29.0578,-3.4225,-2.3455,-13.2538,-16.2112,-37.5842,-7.7616,75.6961,7.6285,
8.123,3.2072,-30.9999,-3.4418,7.8567,13.2143,-17.3172,2.4725,-26.5586,-11.8957,-22.6319,-13.8443,75.8315,-6.9292,
11.3772,5.8905,-22.5919,-7.8436,8.3205,25.0498,-2.7146,-5.159,-18.3478,-23.3418,-35.374,-18.6256,66.604,-5.1107,
17.7101,10.6814,-18.898,-7.8406,21.9213,29.6272,-0.2129,-11.8651,-31.3469,-24.2802,-41.1334,-23.5885,59.3346,-8.0781,
15.2448,6.7665,-24.7797,-21.4702,29.8906,16.1564,-13.7637,-9.7504,-39.6868,-23.2909,-39.1339,-31.0591,49.6941,-21.6934,
16.2004,16.6501,-15.8093,-6.0819,42.1972,29.2182,1.1621,-9.1654,-23.2056,-29.3766,-48.9458,-20.7772,47.6477,-14.2425,
17.0996,1.5511,-22.3443,-19.817,39.5965,13.3651,4.7642,-6.7442,-35.9132,-13.514,-31.909,-22.337,58.8199,-21.8063,
17.0093,2.4625,-16.3265,-22.7679,43.7691,21.0508,18.5784,-17.5648,-30.0164,-26.8032,-38.4821,-26.6091,56.2264,-14.8856,
15.9883,7.9271,-7.8637,-12.0487,38.3362,14.1754,22.0725,-11.8337,-20.7327,-27.0662,-29.6257,-23.1418,57.5291,-5.5745,
11.7554,-6.1116,-13.4719,-24.8885,36.504,-0.77515,6.6481,-4.1085,-6.8608,-11.3423,-13.7481,-17.5437,68.1773,-14.1255,
5.9049,3.141,-15.0024,-9.8321,41.3293,13.3714,20.3492,-12.7479,-3.1752,-23.8261,-21.41,-13.2171,64.0183,0.82199,
6.0186,7.1612,-8.9575,-10.6453,24.7496,8.3599,5.0283,-2.1615,-17.0847,-8.2965,-25.271,-14.7633,53.1612,0.70337,
7.0607,9.0708,4.2079,-7.6682,29.8814,1.7784,16.9549,-3.435,-16.9259,-3.1909,-17.6739,-7.7967,59.793,-0.74204,
2.8955,-1.763,-0.72174,-6.273,18.7342,-10.4891,15.9385,0.51265,-1.8104,2.6134,-3.5184,5.7662,66.495,10.5272,
-1.4874,-11.4792,-6.7584,-12.9117,4.0474,-19.6809,0.88219,11.239,12.3983,16.5566,10.7927,12.4358,70.457,11.2992,
-9.8174,-0.50087,-1.6761,-6.5247,17.9046,-4.4,14.9293,-1.5952,24.1442,1.4632,-3.9549,9.8193,62.4871,16.2332,
1.5292,-5.6156,0.76325,-17.8255,13.487,-18.236,9.3563,6.4517,8.5955,8.8581,10.314,-1.5265,69.4954,1.1592,
11.2586,-12.2942,7.733,-20.9656,17.8221,-13.4007,22.8949,-5.6286,-1.2053,-5.7734,-3.8684,-12.193,63.923,-13.0103,
0.29395,-4.073,7.269,-15.0305,15.8181,-2.3067,30.3387,-13.7097,6.3506,-13.3084,-17.7363,1.6341,49.7976,1.8703,
-0.65886,2.7194,7.7681,-7.5806,0.83786,-16.1994,14.4184,1.2129,7.8399,1.5901,-2.5721,15.5672,60.8409,13.0517,
0.31539,7.2325,11.9787,6.9742,3.5936,-1.1275,15.493,-9.2179,19.5299,4.2318,-8.0306,13.6976,56.2548,25.3641,
-7.1867,-5.3613,5.6477,-7.5443,-9.718,-15.1598,0.46338,-8.6648,23.0348,17.073,4.612,17.5534,44.4612,16.3591,
-7.2226,-8.3132,4.8412,-12.2368,-4.9253,-23.137,0.0364,-14.2248,35.2159,10.9038,5.7385,19.7737,39.4551,9.2976,
-5.3865,-4.5404,11.5668,-6.3574,-0.42065,-13.7972,13.5978,-27.4714,19.0029,-0.50667,-8.7058,15.3133,38.4906,14.8201,
-1.3217,1.3439,23.9683,-8.7824,-8.8137,-27.0693,-1.3181,-15.9322,3.7627,13.6237,5.9166,9.7177,45.5355,3.6414,
-8.7256,9.6816,19.7238,0.16292,-8.2849,-24.4412,12.861,-29.0763,14.4327,3.3831,-8.5384,-0.21972,28.7723,3.4229,
4.8939,5.36,15.7344,1.0892,-9.6582,-32.3282,2.7358,-25.3916,2.342,17.2112,-5.6185,12.8894,41.1459,5.0887,
0.39111,1.7644,20.8703,2.4266,-5.8056,-28.0506,-9.1215,-13.1119,12.9586,12.9045,6.411,12.5837,48.4303,2.4446,
-13.7324,7.2705,20.5532,2.281,-7.3276,-17.9492,-2.9614,-26.4252,21.5346,-1.9697,-8.0737,2.4751,31.4245,4.1683,
1.1916,2.6256,25.4004,-9.5482,-12.0327,-30.9722,-6.9934,-20.5612,9.4858,12.2485,6.5107,6.5353,31.0111,-3.097,
2.9904,-5.4832,29.9564,-1.9597,-7.1011,-22.4971,7.5262,-27.2778,19.6743,-2.5176,-5.1046,2.8697,24.9408,3.1688,
1.4078,-3.751,38.9161,6.1082,-9.9495,-28.1624,2.3291,-11.5411,15.2194,11.7335,3.1519,8.7775,28.5891,1.5755,
3.6622,-5.8647,40.7903,-3.1447,-10.7553,-36.2946,-3.8911,-8.1125,11.0322,18.4433,2.4952,5.912,33.8894,-12.6191,
-4.0412,-7.3836,35.537,-2.956,-3.5624,-20.0169,10.4424,-21.7257,20.6594,3.2367,-11.7545,8.3641,23.4372,-1.9706,
-1.4599,-11.1498,32.0015,-10.7289,-4.7515,-23.0944,3.667,-7.7249,5.8572,17.1425,3.0508,16.7482,33.7233,0.48554,
-0.9047,-5.3365,38.9678,-4.9404,8.1611,-8.1452,11.3978,-21.3614,5.9733,3.0184,-10.2278,11.5341,34.0387,8.408,
1.0204,-4.0807,43.1777,-0.90286,5.8007,-6.7208,6.0367,-15.8008,4.6793,2.8378,-1.1953,9.9065,33.8672,11.6447,
-4.6532,-15.9962,34.0391,-13.9442,-6.7077,-20.4176,-2.7443,-2.6933,7.2045,12.0215,12.9764,5.5709,29.0292,-3.154,
-17.4691,-15.9716,25.4492,-10.3012,-6.3044,-26.6064,7.7099,-16.6317,13.3202,-2.7998,-1.9022,12.7198,16.9979,-8.5083,
-6.5999,-3.321,31.8725,-1.7323,-8.2649,-35.768,-6.3162,-6.6786,4.5703,11.4682,0.5503,25.5193,30.078,-0.98219,
-10.8802,-1.2509,33.7022,2.1132,-4.0279,-19.522,8.1628,-19.373,2.4253,-1.8479,-9.7718,9.9575,23.9949,1.8827,
-8.3566,-3.0466,38.2281,1.9868,-0.044198,-4.3875,13.217,-4.179,1.3441,6.6818,4.8452,20.5852,32.8452,11.1246,
-11.1296,-16.9638,31.7248,-12.2324,-10.7987,-18.2242,-1.6761,4.9572,0.79591,20.3809,15.3116,19.8177,39.7604,-3.1073,
-9.5262,-12.6032,30.7565,-3.4793,-0.79727,-4.4344,6.4441,-9.4402,7.2961,5.058,0.29292,12.0806,26.15,1.7567,
5.1453,-0.15421,43.0111,2.8103,5.3314,9.9317,-4.6993,-3.6597,-5.7696,12.2381,12.9721,25.4558,38.681,9.6025,
-5.0542,-1.0806,50.1831,0.77002,-3.4073,-4.7642,1.1951,-15.6005,3.9306,-2.5961,-1.9062,19.6495,33.0164,0.60759,
-14.5729,-8.0313,43.8985,-2.5493,-8.348,-18.5784,6.2677,-20.7449,17.7947,-1.9044,-14.3509,7.7143,20.2792,-9.2508,
-12.7625,-18.7742,27.2335,-13.6211,-9.7175,-20.2012,-8.2084,-10.1458,12.449,9.4346,0.61015,7.2514,16.256,-8.6958,
-15.7383,-4.5517,35.889,0.29129,-0.71612,-4.8892,4.5138,-16.085,7.0244,-5.2315,-13.5265,9.6228,5.9263,5.926,
-3.5693,4.1397,47.8357,3.0802,-11.8979,7.4952,4.243,-1.0199,-1.8154,-2.9775,-12.7149,7.1742,19.6707,12.9847,
0.38555,3.8913,54.2502,5.7009,-8.3785,-7.0545,7.7291,-7.5756,-1.7064,3.7483,-22.2415,3.0021,20.2919,0.04482,
-1.5079,6.4642,45.3828,10.9717,-0.39175,7.4688,5.395,-8.9923,-5.3456,-10.5078,-33.067,14.0467,10.6561,14.1421,
3.7273,5.6083,53.4175,4.2339,-5.513,0.9416,-9.0287,5.6473,-3.6217,-0.054886,-16.9829,22.0903,24.1167,1.5329,
-9.1238,7.6107,50.68,8.1886,-8.4562,5.0934,2.8071,-8.7916,-5.7432,-14.1516,-30.064,6.6649,8.5697,-2.7683,
5.5236,13.702,56.9931,8.6333,3.2768,1.9823,6.3802,-2.6508,-19.4986,-9.9596,-35.7428,-1.6169,-0.36235,7.6874,
12.6061,1.6547,53.5736,-5.9163,17.1802,-3.7499,7.8682,-3.4274,-22.937,-14.9744,-36.4051,-14.6154,0.59412,1.6129,
8.5757,6.6998,50.8267,2.3894,13.7412,10.5751,3.1869,-7.4309,-12.674,-28.176,-39.3652,-2.9813,7.574,8.5317,
3.3844,5.3626,52.4543,-2.4307,-1.1832,-2.7558,-11.1043,-1.3731,-26.0136,-12.3854,-22.9032,3.7455,14.6028,-1.3337,
1.3101,4.1057,63.3378,2.3919,8.3101,11.5096,3.662,-9.7091,-10.3528,-10.2395,-23.4691,8.1975,15.5978,12.8463,
5.9087,-1.753,62.3439,0.37761,11.5535,5.1378,9.9898,4.9735,4.3684,4.4748,-7.961,21.8057,28.762,25.1022,
4.619,1.1586,56.7325,0.35495,4.3123,2.0231,0.036012,1.7994,4.037,11.6211,-12.2294,12.9449,26.0318,9.4961,
6.2122,5.7658,58.9409,5.0113,11.5367,4.7081,7.5179,-12.4086,-1.8171,-3.1762,-25.5956,-1.9318,15.1155,10.8655,
17.5327,-2.5309,59.6136,-9.3894,3.829,-9.6744,-3.6903,-0.83764,-9.6589,11.1144,-18.8458,-5.9562,28.3085,3.198,
4.788,0.89451,50.8925,-3.1448,7.8088,5.0061,10.6311,-13.4149,4.4838,-3.6525,-31.8151,-8.8724,18.1233,4.4102,
-3.4501,6.9212,49.2417,2.1882,1.2599,6.108,-2.236,0.017515,1.8759,-8.5092,-19.5482,-1.3245,14.6971,13.0315,
-0.43709,3.7,52.8352,-2.6198,-12.9157,-1.7412,-12.3918,8.4352,0.82777,2.2904,-8.0857,0.62579,14.75,6.6373,
-3.6849,1.1392,46.3906,-1.9955,-16.2806,4.4428,2.4517,-6.1709,1.2457,-11.947,-21.7006,-2.6857,3.1078,2.965,
5.4226,-0.33237,45.946,-5.1493,-5.4822,-9.9238,-2.4415,8.2989,4.4454,2.8698,-6.2985,10.1033,17.0214,5.1255,
-9.0028,-2.1832,39.4481,-0.16315,-5.1529,-2.243,-8.8425,7.8014,6.0494,6.4401,-20.0206,0.14319,22.0116,16.0432,
-6.991,12.0478,48.7731,9.6682,-10.9245,11.9916,-19.0687,10.6069,-7.8766,2.7793,-21.0889,7.1497,16.4813,24.9021,
-0.023092,7.0469,51.4591,-1.2015,-14.9454,3.2516,-21.6666,5.2933,-9.2748,1.6769,-5.7236,1.1084,15.4929,9.308,
-6.1021,-1.3267,47.9039,0.27381,-9.8395,-5.8294,-6.2666,-8.587,5.3817,-12.5237,-19.4802,-5.9737,6.6126,4.6087,
1.2796,0.15568,46.4329,-0.2102,-9.7176,-19.0432,-7.8307,6.0282,3.1187,2.3277,-4.2114,5.1419,20.3158,4.7998,
-10.0219,-6.4016,34.2925,-6.7456,-6.3281,-3.8006,-7.3608,-1.4188,9.4795,-6.2303,0.64923,2.027,27.9139,10.1246,
-7.5498,-4.1468,35.0418,-4.4692,-9.6896,1.0358,-6.9187,-2.2684,7.04,0.69107,-5.0012,11.2602,16.8851,23.6172,
3.6603,3.1176,38.0837,-0.92791,-19.8653,-8.8484,-17.2608,8.6249,-4.1396,13.278,0.44276,5.4393,18.2108,20.7281,
-0.30087,7.6073,36.7343,12.2237,-14.9318,5.7825,-3.1292,-4.0525,3.592,-1.6187,-13.6838,-6.1118,4.0222,27.9027,
5.3295,0.60334,36.401,3.0715,-18.7131,-2.1169,-14.1666,7.4149,-8.7839,-12.6779,-1.5692,-2.9391,0.97493,20.6162,
9.687,8.9859,44.5061,3.8229,-3.4903,12.0417,0.78341,-6.1255,-11.0628,-14.7232,-15.575,-8.3751,-3.7608,14.702,
12.3793,19.2035,51.6577,13.415,3.6658,25.4192,11.4247,-6.2251,-18.3503,-12.4366,-28.7405,-13.0165,-2.1319,22.7071,
20.9905,3.9513,47.623,2.3206,-10.5849,9.7941,-3.3608,8.2484,-20.9904,-0.4661,-12.9161,-14.1072,8.2851,18.5379,
17.3931,0.50949,41.4917,2.6494,-1.999,9.2064,8.6025,-5.8794,-5.631,-14.5381,-14.8782,-10.9219,6.3853,27.2476,
7.4632,-0.92429,30.1158,-4.5256,-14.507,-5.446,-6.0137,-2.2531,-11.9104,-2.3718,-4.1636,-6.9931,3.6638,15.7903,
5.6122,1.4704,32.518,4.6323,-12.2334,1.4976,-2.7776,0.22139,-7.9213,-8.3095,-16.5413,-5.1703,-1.7008,19.0525,
11.355,-6.5694,30.0989,-0.79,-5.4199,1.8754,4.4038,-9.6139,-14.4625,-21.9109,-26.3068,-2.5212,-1.1312,25.8601,
17.2217,-10.852,30.1638,-14.8426,-0.41705,-6.6555,-8.9556,4.9941,-24.819,-6.4962,-10.6284,2.3068,13.0367,19.6317,
2.0884,-2.7177,28.3544,-4.5297,-1.3281,7.8438,2.8065,-1.8535,-9.2299,-8.4453,-5.3819,0.29803,3.7664,32.485,
5.3063,-6.7643,29.9267,-1.9186,-13.8763,-6.7268,-7.1834,0.59606,-5.471,3.7542,4.7625,1.6825,6.8148,26.3263,
15.2771,-1.6812,42.1622,-1.804,0.051765,-18.9516,7.3476,-6.9233,-3.2719,-4.8898,5.4124,-5.9012,12.0183,20.0695,
2.2001,-2.516,33.0845,-11.0497,-0.88607,-13.1373,14.321,-14.9258,-6.8176,-18.6964,-9.0123,-19.5787,0.07204,19.8009,
16.1681,-3.7682,37.1798,-8.0479,0.5703,-18.429,-0.10133,0.069756,1.5426,-3.4746,5.6284,-4.304,14.1677,19.0809,
6.7108,-4.0093,32.6107,2.257,3.8096,-6.5665,10.6615,-13.0993,-3.6947,-17.3662,-8.8093,-1.3082,7.6369,23.0808,
3.0342,0.44046,29.2508,-0.21726,-10.5189,-15.9945,-4.0782,-6.2338,-17.573,-16.7225,-14.2919,-5.4389,-3.5794,21.2284,
5.191,2.7529,30.7698,0.26336,-14.4957,-18.308,-8.4414,7.7038,-25.8033,-7.7684,0.66566,-5.5801,5.5222,18.551,
-4.9425,2.1201,22.8436,3.5216,-13.1584,-8.3236,-0.91938,3.0324,-10.1551,-16.1882,-10.6679,8.8547,5.6584,31.538,
1.9016,-0.81396,26.1498,-3.2377,-18.9164,-19.9845,-14.9642,16.9505,-3.5347,-1.1169,4.0722,22.4234,19.4189,31.9152,
-2.4217,-4.9743,29.726,-3.5106,-12.6362,-14.5754,-1.3696,1.8334,10.7774,4.9612,13.5805,6.978,13.9762,30.4688,
-0.87315,-2.3375,33.0863,-5.6392,-14.2173,-20.7169,-4.5618,8.2714,10.0614,8.8723,19.7808,5.0868,17.3464,27.2366,
0.11441,3.4156,36.714,-4.3653,-14.2994,-13.8611,-9.9,21.8751,-4.5734,7.4047,27.0123,9.4592,29.4016,22.7969,
-11.5848,6.4847,32.1727,7.5894,0.12209,1.0706,4.2575,7.8654,7.3933,-7.1395,11.2916,11.2296,24.3635,35.529,
-8.5509,4.6919,29.7748,2.9249,-1.288,-13.0936,-4.8838,18.1515,8.3534,7.3888,24.7141,24.6558,30.8524,47.3596,
-8.5058,5.8136,30.3267,2.2814,-2.6139,-6.2281,7.1011,2.9624,2.7074,-1.0048,9.1312,17.4962,17.3094,30.9549,
-7.0603,6.4,33.1838,2.1445,-0.58674,-5.8544,2.9334,-3.2273,-10.551,-15.0445,7.2499,2.3464,20.0115,32.8383,
-4.2983,1.8073,28.854,-6.8705,11.1403,-11.584,2.2894,9.5943,-5.7083,-1.4459,20.9149,1.8064,32.9108,34.1415,
-14.7976,-8.1232,16.3656,-12.5387,13.7459,-0.13176,16.252,-4.545,-3.0279,-15.4592,5.56,4.036,17.7718,31.6255,
-1.7494,-2.0234,29.4837,-5.2384,9.18,2.6821,8.192,9.8277,-6.5878,-0.43163,19.3264,17.8938,30.8055,33.47,
-10.9984,3.7104,41.6769,3.4951,7.6936,11.876,6.7658,15.7172,-2.4501,1.9331,9.6792,15.8162,30.7586,37.0741,
-12.2088,-0.25383,32.6288,1.4142,9.1032,-0.061285,10.1014,11.0335,9.8568,-3.7948,10.9688,23.2864,23.3012,36.7209,
-11.0091,-13.8017,21.7847,-12.7707,7.1538,-14.1576,-2.1974,15.5154,20.0221,10.5329,24.4107,15.8084,33.5959,21.8897,
-14.0902,-9.2329,24.2187,-12.4036,17.9493,0.79185,11.9655,0.48444,16.9505,-4.1991,8.846,0.75988,18.4842,21.5115,
0.85525,-3.5337,36.8656,-13.9973,18.2751,3.5503,10.78,3.7982,1.8334,3.5356,22.346,-11.8444,26.261,6.1208,
7.7506,-10.8049,33.1816,-11.2871,23.7266,8.9492,14.81,-6.7192,-6.1585,-10.7766,10.7156,-13.9401,23.7502,1.6133,
4.9468,-4.0762,27.9172,0.14724,36.403,21.0406,11.5834,-3.9773,-19.889,-16.1415,-4.0273,-8.8945,19.0512,15.6165,
15.4076,-1.4932,30.4518,-6.8767,40.6984,17.4398,10.4204,6.0829,-32.7956,-5.3506,-1.8451,-16.3112,17.441,8.0631,
28.0458,5.6119,37.5106,-6.9317,52.3565,30.4934,23.8952,-8.3821,-16.7279,-19.1296,-14.3628,-23.2841,12.1845,1.4989,
34.7823,-1.2728,32.454,-20.6158,49.613,21.5794,15.377,-7.3427,-25.4769,-21.1869,-3.2115,-28.4342,17.0662,-12.6222,
39.2433,10.0283,43.6023,-9.0204,60.7362,29.6381,28.5544,-4.0957,-25.8195,-31.1405,-17.1188,-29.5345,17.9126,-6.2529,
37.8239,15.9746,45.6633,-1.9312,71.192,34.4087,40.9412,-12.2683,-25.2055,-35.82,-30.1917,-25.8912,18.7091,2.5415,
36.4901,3.791,29.8275,-15.9153,61.1704,18.2442,24.3847,-11.5327,-37.7932,-22.4456,-14.2802,-31.8214,25.0701,-11.711,
31.0262,17.6635,38.795,-0.86043,71.0633,31.2496,30.8035,-6.6311,-21.4256,-35.1989,-26.9172,-22.8969,18.4211,-0.18235,
15.0647,5.7781,35.5322,-6.8892,52.6995,19.5526,14.8553,6.8627,-33.7036,-22.2614,-19.6902,-21.5231,11.7031,1.6989,
7.6825,-0.18136,36.2062,-7.411,42.1232,6.2186,12.1625,8.3213,-17.5814,-15.3129,-4.4088,-20.2317,25.1009,6.2746,
15.1723,8.7163,32.6311,6.5963,44.7411,19.9455,25.5327,-0.1287,-2.4265,-23.2809,-2.8104,-12.9374,33.3479,18.5257,
0.16199,-4.4346,17.1096,-7.8995,27.9566,4.6488,9.9008,0.34616,-16.3809,-9.2561,-0.30336,-17.306,25.2662,3.3141,
-3.9885,3.3146,30.1831,2.4658,17.4617,17.4654,22.4023,2.1966,-1.2981,-14.3127,-4.9619,-5.0429,31.2334,17.2153,
1.8632,-8.1094,42.4721,-0.48813,6.1249,2.3175,12.6393,7.6772,6.1253,-4.1,9.4358,-2.8695,38.7142,19.4563,
6.4286,-5.7521,46.3331,7.959,1.0793,-11.9216,12.8157,7.2161,2.0157,-5.7248,22.8319,-0.82655,37.3261,17.3534,
-7.5202,4.4155,41.2152,20.1094,-6.9358,-1.2461,16.2573,-3.9736,3.2989,-19.4813,7.362,1.5614,24.3298,30.4122,
-9.8754,3.2145,35.9355,9.5485,-18.6804,-15.2714,1.1818,10.3649,-5.3183,-4.2124,21.0203,4.2741,36.97,25.2441,
-7.4121,8.634,36.5857,23.0072,-5.3992,-8.6739,10.5328,10.6088,0.61319,-17.5232,10.8723,2.1469,30.0058,33.0834,
-6.0318,-0.30193,36.2618,18.8208,-13.4932,-20.3138,2.4181,4.3608,-13.5236,-20.213,6.4788,1.0825,22.5931,28.2934,
-2.8635,-4.9615,44.3752,10.2084,-11.7484,-17.2237,-11.7581,14.3887,-7.031,-4.9002,20.1901,3.8239,35.3375,21.9181,
-11.578,-2.3254,38.4387,12.8694,-10.5755,-5.4336,-0.295,7.4446,4.1485,-11.691,24.0546,6.868,33.6155,30.4246,
-9.9477,-4.0567,34.2621,6.4849,-23.9725,-19.2076,-8.6961,11.6751,-9.1959,3.1104,36.7113,11.1332,27.8575,22.0515,
-12.1573,2.7347,37.8187,13.5789,-8.503,-13.3091,5.9257,-1.1853,4.4518,-5.5638,23.2146,6.7236,25.2508,30.0828,
-16.5722,-1.6385,34.1464,7.6199,-9.3956,-26.0732,-8.5299,4.031,-0.025379,-1.0208,35.9217,3.9822,21.397,24.0687,
-6.2243,-9.0234,37.71,0.61469,-10.7031,-37.6048,-13.1624,7.5307,-0.023411,11.2012,47.8664,2.8072,21.0492,9.5286,
-4.4481,-5.208,38.7214,7.5934,-3.9805,-21.2485,1.7273,-7.0211,10.7347,-3.5709,30.8944,3.1064,12.7698,23.0569,
-7.4548,-11.9115,29.3825,-6.4258,-17.8417,-27.526,-4.9936,1.8869,-3.4725,6.0662,28.5039,4.3232,13.4068,24.4106,
-14.9582,-9.7932,31.8287,-0.89545,-20.4444,-16.0525,-1.42,0.37094,4.6866,-1.3134,30.0677,0.78983,0.91008,20.6071,
-16.8676,-8.2709,26.1774,11.3186,-24.8301,-16.025,-8.8184,3.1546,8.1474,2.5066,29.1992,7.2909,-4.7569,31.5311,
-16.7903,-16.1925,15.2528,5.0271,-37.4403,-29.0942,-22.3893,12.3193,11.3997,16.3878,41.5473,14.3361,2.0761,25.8981,
-21.8628,-9.141,24.1596,11.7406,-21.0938,-13.2485,-6.9459,1.7586,19.6021,1.3045,31.97,20.492,-4.1285,38.4442,
-20.0834,-19.3497,19.4361,0.2795,-16.0857,-26.5536,-20.6292,9.6038,4.326,15.3258,42.6793,15.9885,0.32842,36.0682,
-16.5405,-15.8508,12.1895,7.2779,-16.5242,-13.2685,-14.1773,5.7536,4.1353,11.1323,42.4574,9.8839,7.3243,30.6301,
-14.1449,-6.0134,19.4089,11.986,-27.2256,-2.6509,-2.57,2.1349,12.7735,-3.6357,42.2483,9.7589,-1.0664,26.454,
-5.813,-10.3293,32.3443,3.7837,-27.4624,-16.5918,-14.5757,12.2963,-2.0929,6.4737,49.0678,3.5606,-4.7431,17.3836,
-16.2209,-10.1767,29.8672,13.3782,-11.7146,-10.3818,0.39884,-2.5414,-3.3008,-7.4787,32.0237,3.815,-14.2809,30.4405,
-20.392,-11.9049,19.1893,7.4311,-25.1113,-22.3873,-13.7251,7.0338,-2.6351,7.07,34.8483,17.6861,-2.6669,35.0928,
-13.5566,-6.5139,26.4563,15.4036,-25.4759,-19.1728,-16.6436,6.6118,11.623,7.0446,34.6278,18.894,-7.1836,34.8585,
-9.0021,-1.4458,25.8041,21.9621,-10.8518,-12.4109,-1.545,-5.9453,10.8563,-3.6672,18.4501,10.2776,-20.8526,35.5729,
-3.3171,-3.6975,24.7234,6.5444,-6.9271,-21.4878,-6.6655,1.4266,-3.8951,10.6528,26.2979,1.7098,-17.1938,19.3385,
-3.5857,0.73355,37.34,14.6402,4.2456,-6.0986,7.8344,0.87341,10.4386,-4.0864,16.7693,-2.602,-17.5658,21.0531,
-7.5802,-13.4105,29.4184,8.6161,-10.1091,-19.8326,-1.1233,6.901,2.7967,-0.56719,22.7791,-2.9139,-19.7854,16.5163,
-8.0601,-10.1982,27.6533,18.3892,-14.578,-20.513,-5.7331,7.4225,-1.1131,10.6911,21.4119,8.4861,-21.4051,23.0081,
-9.9153,2.1061,31.1393,26.1726,-7.6229,-5.1822,-5.8567,2.768,-3.3843,-2.5778,6.0272,4.703,-34.2208,28.644,
4.7796,-4.0998,36.2861,11.0387,-4.8267,-13.3585,-12.5208,11.4887,-6.4552,4.5924,19.7656,-3.5299,-25.5498,16.1682,
-0.25322,-2.4515,33.6413,19.2628,5.2844,1.543,2.3304,-3.3006,5.6249,-9.7831,5.9526,1.8266,-24.4849,29.2981,
-10.9947,-0.90122,28.3489,24.187,-9.1327,-3.2961,-0.68467,4.4495,-4.535,-2.5793,16.3522,7.797,-31.9022,29.3417,
-0.51396,-0.37956,33.663,21.3321,-15.9995,-8.2435,-10.4656,13.0684,5.5591,5.5262,18.6441,-4.3632,-34.1972,13.4812,
6.0644,8.062,30.7076,27.5358,-0.93949,5.3466,4.2624,-1.8157,11.7731,-8.9054,3.4255,4.3165,-33.081,21.6267,
-4.5886,-1.7757,18.5761,11.8529,-14.9831,-9.0742,-10.0934,3.0397,-3.0333,5.7289,11.708,17.1539,-30.1605,16.588,
-4.7804,-4.9427,31.5615,9.7385,-8.9394,-2.3796,1.2698,-4.1587,4.234,-3.5012,0.24884,9.1087,-42.4509,18.8671,
8.1339,-8.8553,42.6949,0.26831,-2.3226,-1.7692,2.5964,-0.63515,0.70595,-4.6938,-2.1049,4.353,-48.2537,21.0091,
4.8399,-11.1308,32.6492,-10.9739,-1.2485,-11.9531,-5.043,-4.3391,-7.7561,-0.67108,-3.8494,0.3498,-45.359,8.5234,
2.2112,3.637,35.8355,1.3773,-0.70557,0.45687,7.8884,-9.2226,6.8093,-2.034,-12.5048,9.2152,-43.1046,16.8983,
3.0137,-3.6661,33.6853,-8.9944,-14.7632,-13.6705,-6.6849,5.4307,0.25193,12.188,2.3455,11.4687,-44.2599,5.5949,
-0.90829,-1.5744,28.8578,-2.8419,-6.325,1.2497,3.139,5.9708,4.914,6.7107,-6.2829,10.781,-54.6998,15.5492,
1.4841,3.6644,25.7236,-3.139,7.6181,7.2547,6.2247,8.8865,5.0876,6.7765,-9.1799,16.2145,-46.2726,21.6318,
2.7987,0.17052,23.7126,-11.8375,-1.7258,-7.2806,-7.7124,10.6921,13.6683,16.191,-1.6135,11.0316,-47.7063,10.5119,
-0.64363,5.3051,32.1114,1.5007,0.71611,-3.9681,6.8504,-4.0494,12.3802,1.1196,-15.6167,-1.3231,-58.9439,17.8315,
9.217,-2.0288,39.0706,-8.4113,-2.6008,-15.4232,1.6933,5.6164,-2.4626,6.7336,-7.1273,-11.0648,-62.8211,2.6616,
5.8575,0.89933,36.7264,-7.9066,2.232,-0.39781,7.2036,2.473,3.8344,-6.7655,-16.054,-2.9177,-51.5687,9.5863,
0.36176,5.0545,31.2497,-3.2222,-3.9815,0.96085,4.4335,4.6634,16.2327,2.5273,-13.6871,11.3573,-51.7486,23.1112,
2.2108,-0.8611,34.9866,-10.5125,-8.4198,-13.1968,-9.8632,9.996,16.1935,16.4756,1.2341,20.4286,-43.0313,13.7053,
-4.0027,-2.2126,36.161,-2.8666,-7.4466,1.2265,-1.3211,-3.2317,26.9146,1.3871,-12.9399,11.2517,-54.5494,21.7685,
0.91515,-1.1447,31.1853,-3.6298,-13.5478,3.0242,-14.337,11.0622,11.1997,8.3185,-12.6311,9.6414,-53.546,15.7856,
-0.074935,5.472,33.0563,-1.5407,-4.3157,16.9427,-2.252,14.0712,7.7911,0.33627,-19.3564,0.64459,-56.8803,2.6786,
-1.0065,15.4332,35.7492,5.0988,-12.476,28.0172,-5.8585,3.8725,12.9356,-3.4255,-31.291,0.60592,-67.5675,-2.1589,
6.5375,15.4428,33.6047,1.0517,-10.7918,16.0471,-19.607,9.2534,-1.9406,-0.41311,-35.9611,-13.5304,-70.9282,-16.1294,
15.0316,23.4026,45.1515,12.6814,3.9557,29.1842,-4.3305,-1.1242,-15.9241,-14.4883,-47.9034,-22.4717,-70.8821,-7.142,
15.5334,7.8985,40.1045,-2.1795,17.8184,18.9456,3.4125,-0.58827,-15.7662,-2.3259,-38.4128,-18.7846,-66.1607,-20.8135,
28.164,13.1053,51.2609,-8.5278,30.8493,26.6947,6.4817,3.6553,-0.72018,-12.0083,-32.8341,-12.5132,-60.7883,-24.1726,
25.539,17.9318,50.0565,-11.7577,43.0983,39.1931,20.1928,-8.7239,-14.777,-25.3878,-44.964,-25.8624,-71.241,-18.0455,
36.6342,13.5819,53.1335,-21.8094,54.6124,31.6283,21.2512,-1.1849,-27.9904,-18.6505,-48.2773,-31.2565,-60.8173,-31.0627,
41.9188,19.3146,63.0401,-6.4702,65.4357,36.2781,32.1356,-9.5326,-22.5009,-26.8854,-59.4806,-26.5751,-59.9751,-36.1452,
35.6621,13.4789,59.2577,-10.7587,65.7723,20.0014,16.1075,5.0705,-23.0212,-15.9187,-44.6182,-15.6271,-51.6998,-31.1701,
19.9597,10.3323,50.5579,-12.4511,57.6168,24.0154,7.2591,4.2987,-23.9779,-17.3016,-49.8919,-14.221,-60.2893,-30.7027,
12.2146,10.6471,43.7833,-9.8333,51.3538,34.7349,12.4359,-10.0592,-25.3461,-30.3635,-60.9983,-17.1098,-70.7719,-23.249,
24.5773,7.2023,51.4454,-10.1789,39.8538,18.5508,-2.3409,4.6443,-15.4065,-14.4417,-43.2384,-6.7292,-52.4256,-17.1769,
9.0026,4.4313,44.1495,-7.2302,30.447,12.3618,7.6206,-1.7147,-2.7898,-27.6752,-48.5949,-10.5347,-60.0381,-16.6139,
-2.2258,3.2303,40.5645,-17.086,14.5202,-2.4799,1.5515,-2.547,-16.7224,-19.8654,-51.292,-5.2258,-66.7254,-29.717,
10.5361,-3.044,52.2306,-19.3339,8.5735,-6.4714,5.6675,-0.055385,-11.4402,-4.5735,-45.8757,-2.5735,-51.0287,-39.5575,
4.2911,-2.8613,57.9147,-6.9491,2.4463,7.9471,13.7458,-0.052062,-5.1418,-18.3991,-53.4127,-2.4191,-48.903,-23.084,
-3.4495,-4.56,50.6983,-10.2742,-11.8005,-6.6297,-1.1789,14.0511,-18.9333,-5.6028,-36.1079,-0.40356,-44.0976,-26.4446,
-9.7905,-3.3512,44.85,-4.9806,-7.2821,-7.0982,-1.9745,-0.892,-3.6973,-19.3666,-48.0415,-1.3145,-47.9997,-25.794,
-4.0579,-3.6177,46.3681,-10.7612,-12.9246,-5.2687,-2.3236,6.1771,-5.8134,-4.1046,-40.9494,7.6512,-39.0393,-19.1011,
-3.8148,-8.0779,42.6504,-22.2764,-25.2447,-15.2417,-12.4733,14.2244,-11.0779,5.028,-33.8156,0.64365,-41.3742,-29.1802,
-3.1179,-3.3836,45.2362,-6.8398,-20.4565,-6.3769,-0.96822,-0.19222,2.2147,-9.3737,-45.8867,4.8146,-50.5836,-24.155,
-8.5437,-16.2765,45.3284,-10.7079,-33.3291,-20.0943,-15.0101,10.1089,-11.9488,5.2888,-29.5011,8.2673,-47.5495,-36.8057,
-12.7082,-2.2044,53.8339,-5.3886,-28.4545,-17.8842,-12.1699,10.438,2.8681,-0.1738,-33.3434,9.6421,-43.7609,-27.9809,
-16.622,-3.9429,41.2499,-9.7416,-33.2948,-23.3586,-9.568,7.9409,15.7227,8.2554,-34.1487,12.8056,-47.6828,-16.9481,
-17.496,-13.995,33.1621,-14.7695,-36.909,-32.2467,-21.1538,14.0124,5.4258,19.9209,-21.8103,15.7788,-46.6922,-30.0313,
-14.1074,0.94467,43.7999,-0.32022,-22.067,-16.2119,-6.3219,6.1561,0.89021,4.6256,-34.6016,11.5572,-52.7774,-25.8217,
-7.649,1.2858,40.2367,-12.4618,-34.7741,-18.582,-20.0426,7.6571,-13.2632,-9.7519,-45.0851,-3.2362,-56.1588,-38.3035,
-8.5933,-2.0649,40.1609,-10.3109,-34.0909,-20.7415,-22.0456,8.6009,-6.3186,1.26,-33.4941,4.978,-51.386,-38.3446,
-12.2864,-6.1506,38.2193,-11.095,-35.319,-25.577,-22.1252,8.5528,6.6885,11.942,-25.404,12.6305,-49.7061,-41.1878,
-12.9533,-9.0551,38.2645,-9.0265,-34.603,-27.3159,-21.2657,10.378,20.3871,24.7886,-14.9934,21.6942,-45.3205,-41.991,
-14.514,-10.8506,38.3074,-8.0169,-33.9296,-29.8861,-19.5222,12.0942,33.2639,36.8649,-6.1426,30.2145,-41.1976,-42.7446,
-15.0464,-13.4731,38.3474,-6.1327,-33.297,-31.3674,-18.818,12.7708,45.3681,48.2161,3.1119,39.1584,-37.3235,-42.5192,
-15.5464,-14.0675,38.3853,-4.3615,-32.7029,-33.6945,-17.2218,15.2786,56.746,59.4231,12.7471,47.566,-33.6804,-43.2412,
-13.6784,-11.3531,39.8238,6.1897,-23.2575,-23.2536,-6.8345,9.6851,43.7114,41.7577,-2.1177,40.9705,-41.014,-30.358,
-9.1157,-13.4783,29.9508,1.1411,-25.6032,-23.7292,-17.6492,17.5228,26.9887,25.1523,12.1094,24.4123,-28.264,-42.5672,
-14.182,-8.928,30.0245,3.8786,-18.4546,-8.2055,-2.4903,2.3714,31.0511,9.5431,-2.7172,10.8565,-34.0509,-39.0776,
-10.9918,-15.4075,37.1094,-8.982,-18.7506,-21.8131,-8.4896,10.2487,19.3665,23.0705,-2.0177,24.3051,-32.4759,-47.4905,
-12.2031,-17.289,37.6888,-5.6362,-12.9483,-17.2308,-5.1743,0.27987,18.2041,7.5863,-14.0566,8.7468,-38.9452,-56.8006,
-7.2618,-2.1517,42.443,8.8019,-7.9623,-2.0969,9.2362,0.73066,25.0634,-6.9689,-23.0347,2.61,-40.8185,-45.4418,
-4.0205,-6.3015,35.2197,2.1241,-18.7093,-15.6035,-5.418,10.9764,16.0756,7.5493,-7.5526,16.5534,-34.6279,-56.8153,
-7.9876,-11.0677,32.6389,4.335,-9.636,-6.7157,5.1966,-3.7822,29.2111,-4.9259,-11.3779,18.7654,-43.3064,-50.9987,
-3.7672,-12.2745,40.9697,10.6229,-15.6054,-15.6676,-6.3404,10.0767,36.2759,9.4697,3.4047,21.3806,-32.2902,-45.1328,
-4.4763,-10.6028,45.0595,8.1148,-16.5403,-12.8563,-2.2183,15.0849,37.8409,23.0015,17.3005,24.7745,-26.6112,-55.5208,
-11.6913,-12.7726,31.1308,0.14427,-13.6771,-7.4086,1.6568,0.07982,37.4413,10.2581,7.7055,22.3524,-36.2397,-51.2539,
3.1101,-10.1355,35.8114,-2.6703,-11.9208,-20.9948,-10.603,14.175,47.3551,23.7426,21.3432,26.6236,-19.9653,-45.3727,
-1.3541,-6.2533,36.9367,2.6351,-7.9316,-13.6547,2.6616,-0.23903,47.7878,12.4276,6.4306,18.9467,-29.593,-50.6011,
2.9355,-3.5402,37.0584,4.8149,-9.7945,-13.303,-5.4498,3.0493,30.8206,13.0847,-0.035629,20.1478,-41.3809,-61.6651,
3.695,-6.1338,34.8353,9.2032,-4.5296,-6.8925,-4.1871,1.9307,14.8713,4.8169,-4.7102,6.7795,-47.3164,-71.4594,
-0.73591,3.1211,34.148,18.473,3.6929,5.2134,10.1641,-4.2646,4.7628,-9.5721,-12.3784,3.0987,-44.0094,-55.4795,
3.5174,-4.0822,26.9539,3.2646,-9.1562,-9.1994,-4.5458,10.0913,4.0094,5.1022,2.4643,13.6691,-31.5477,-64.7782,
-5.58,-9.9168,17.3863,0.33165,-6.2684,-6.7078,-9.4178,-4.6142,2.3657,-5.0254,-10.8484,9.5754,-43.7549,-68.8427,
4.5768,2.3705,26.1651,10.1328,-5.4247,-9.5793,-9.3203,1.7426,-2.9206,-7.9979,2.4305,6.6629,-41.9955,-68.9213,
7.1086,5.9699,31.1432,4.8481,-11.6472,-19.2932,-10.6319,9.1212,7.5442,-0.034863,16.3847,-1.22,-26.3802,-78.8861,
-5.4778,3.7414,24.5979,5.4933,-11.8836,-4.0356,-1.5752,-1.7156,19.2515,-4.7095,8.7856,8.2067,-38.8974,-72.2128,
8.8815,0.70958,36.2166,2.3568,-18.6542,-9.4756,-15.5807,12.4873,9.6776,9.673,22.3585,21.745,-35.5595,-77.2349,
4.6071,1.6026,43.398,5.0218,-11.9221,-5.1655,-4.2879,6.0568,8.1618,-5.0073,7.8513,6.3403,-46.5215,-82.8904,
0.12102,4.78,36.5845,8.9292,-5.1268,-8.1291,4.8558,3.3542,6.2689,-7.9818,5.977,-8.1401,-48.875,-75.5777,
6.6617,-3.9251,29.7127,9.3291,-8.5608,-11.3829,-9.5356,10.637,18.9887,6.5971,19.7184,6.4483,-38.4589,-78.5262,
1.1177,-6.9627,31.2039,12.979,-8.5147,3.4,-23.0634,-3.5648,23.9298,11.2777,12.3873,14.5499,-49.7144,-71.4758,
2.921,-9.3518,30.2669,-1.8998,-12.6806,-2.9532,-35.7796,10.6802,8.394,15.2778,24.7392,8.9993,-44.8612,-70.9297,
2.7457,-11.5967,22.8389,-14.8125,-7.243,5.6423,-44.1826,-3.9917,1.4112,1.266,9.1548,0.040988,-52.4587,-66.6739,
5.3869,-9.0301,22.4033,-0.82862,-5.8728,3.433,-38.7256,-7.4943,3.1973,4.9312,4.9324,14.0692,-58.6656,-66.4146,
5.0642,-9.4239,20.1244,-2.6488,-5.5209,0.42103,-35.4665,-8.9145,2.0699,-0.97705,2.7665,7.6127,-57.9516,-68.9773,
4.2923,-9.3256,18.4489,-2.9579,-4.7216,-1.9426,-31.9353,-10.718,0.54248,-6.0623,1.1973,2.9472,-57.748,-69.9834,
3.5672,-10.1697,15.9392,-5.1193,-3.9707,-5.1,-28.6164,-12.4138,-1.828,-11.779,-0.27815,-3.31,-57.5571,-71.8648,
4.7563,-9.0915,15.45,-4.3441,-2.3293,-6.1972,-24.5611,-12.137,-2.1863,-15.2819,-0.72861,-6.3858,-56.4425,-71.7625,
8.6806,-5.2725,17.7974,-1.745,2.0201,-4.4222,-17.9426,-9.0704,1.2184,-15.7681,1.6535,-7.405,-51.6528,-69.7952,
11.4333,-1.6817,20.0031,1.6341,6.1085,-2.7537,-11.7213,-7.1229,3.4845,-16.2253,3.8927,-7.4287,-48.0856,-67.0098,
14.4884,0.28913,20.6737,3.4059,10.4183,-0.71766,-5.4056,-4.8248,5.1454,-18.9938,5.5299,-10.725,-46.1365,-66.7312,
13.1524,-5.8077,15.2242,-0.071957,-4.3068,-14.7746,-19.1813,9.5647,-7.7908,-3.7541,19.2981,-0.25956,-42.9003,-75.3548,
16.572,3.4271,20.3907,4.1415,-3.0439,-4.4653,-25.4447,9.8576,6.7766,10.5711,25.5541,4.9008,-37.9879,-82.5272,
15.1105,7.4311,20.5704,5.2962,8.8315,9.9026,-9.818,-4.8339,-5.8596,-4.1632,9.9208,-4.2796,-46.4658,-77.1075,
28.3039,10.7264,22.1422,4.0428,14.8491,-1.5176,-11.6366,9.5562,-18.6036,10.1866,23.4256,2.5247,-29.6471,-71.5455,
12.5057,6.8083,6.7136,3.3322,7.8782,6.5247,3.1616,-5.1172,-5.7946,-4.5246,7.92,-5.578,-41.9683,-75.2039,
17.8344,6.4003,13.3952,0.32635,0.8571,8.0031,5.2414,-0.99974,-10.1241,0.35525,8.4489,-1.5013,-43.5905,-77.2392,
29.8603,5.0811,22.8811,4.0483,12.0304,6.5877,10.5397,8.4138,-13.2583,-8.0844,19.1667,-4.2176,-35.3627,-66.993,
25.7308,12.727,13.5575,17.9054,13.6474,11.3377,24.0073,4.6358,-12.9304,-21.6993,3.9167,3.9871,-43.062,-50.345,
19.0412,13.3666,11.3408,9.2796,-1.2714,0.83591,8.4669,12.308,-23.8473,-6.2974,12.1697,9.8278,-48.4295,-61.4243,
17.8992,19.1121,24.7604,15.2703,-0.65782,14.8858,22.0589,-1.526,-8.3165,-16.2091,-2.6604,-1.987,-51.1361,-71.8388,
19.1641,7.2082,19.9315,0.79054,-0.15165,-0.10739,16.4573,5.5811,-19.5791,-1.1366,8.3252,-9.8186,-38.2464,-78.6155,
22.2238,1.6318,18.2684,-6.272,9.6799,-1.9722,22.485,14.1326,-7.6468,13.0316,21.9257,4.8706,-22.3881,-80.9137,
13.8739,-6.4177,11.0919,-8.2345,4.8899,0.48497,28.1515,-0.81536,-2.9788,-1.8503,14.9289,5.4442,-35.1448,-81.2041,
25.2019,-2.2911,15.1036,-6.8048,3.6609,-10.7693,21.7852,13.3336,-0.92927,11.7555,28.1332,6.0532,-18.9361,-85.6854,
9.5898,-12.4427,0.097395,-13.8797,2.5061,1.1016,22.3493,5.5184,7.5448,-3.0499,28.2471,-8.41,-31.8999,-87.0922,
-5.0856,-15.4382,-11.0648,-12.1122,1.4192,0.099869,7.912,7.9924,0.54459,-14.9584,28.4222,6.1946,-27.5787,-69.7068,
9.3195,-1.8835,-3.3853,2.1781,6.4793,-1.3089,11.6473,19.2061,-7.4388,0.039129,38.4101,16.5805,-15.1668,-63.1856,
-1.4604,10.8574,-4.5854,16.1474,7.4937,12.8697,25.0485,3.9537,-12.1373,-14.0632,22.0055,1.4857,-28.3568,-64.5392,
10.3205,22.8335,9.2533,23.5285,8.4469,19.5113,14.1219,17.8165,-14.683,-19.2994,19.8184,-12.7035,-30.3281,-71.424,
10.6364,16.7867,5.8917,23.052,9.8113,28.6302,18.8874,2.6475,-25.0268,-32.2414,4.5293,-14.6095,-41.6035,-70.8802,
10.9338,13.9087,7.409,18.8629,10.1582,21.3,19.6249,4.4287,-14.1712,-28.3673,-7.8331,-11.8622,-32.5598,-68.4981,
9.8098,10.7358,8.3676,13.5215,10.0159,13.9421,20.7858,6.5014,-3.4994,-20.5853,5.2648,-9.7472,-24.5262,-67.6622,
6.8833,4.0113,6.4628,6.6307,7.077,4.2196,19.0711,5.6437,2.7909,-17.0114,14.7709,-9.63,-19.7802,-69.682,
0.38942,-4.1806,0.93026,-3.5896,1.5076,-6.7911,14.6532,2.0306,6.8322,-15.5235,20.8998,-13.2618,-19.0614,-74.3879,
3.1725,-3.9297,4.616,-4.3094,4.2226,-10.1252,17.5156,6.5856,17.647,-7.109,33.7458,-8.7245,-9.4994,-69.9246,
-1.2275,-10.7091,1.0646,-12.0016,-0.23943,-20.2744,15.0615,3.8521,22.669,-5.2792,42.4089,-10.5394,-7.5263,-73.6799,
-5.3626,-15.2113,-7.8856,-21.1034,-11.9178,-31.6864,1.5294,10.6369,7.2089,2.9887,41.2676,-15.9879,-11.2838,-79.0811,
-2.702,-12.8954,-5.0728,-16.5628,-6.9927,-26.5107,4.7121,9.5311,-5.3151,3.277,38.3239,-10.8186,-10.1388,-71.9974,
2.1369,-8.3797,-1.0268,-11.8274,-0.02605,-19.3073,8.1709,9.8944,-5.9314,4.9516,36.9597,-5.4927,-7.6597,-63.0004,
5.2822,-4.6034,1.3723,-6.9086,6.0555,-13.9401,10.9542,9.7688,-6.0436,6.0568,35.2101,-0.018348,-6.7329,-55.0112,
6.3685,-2.924,2.6931,-4.1557,9.9018,-9.8302,11.7002,6.8443,-8.9545,4.2911,31.6943,2.3211,-6.7966,-49.3721,
7.8567,-2.7485,3.4667,-2.0356,12.1141,-7.3691,12.8694,4.5624,-12.1588,3.0976,27.9214,4.9883,-7.3239,-45.4746,
9.7241,-1.1808,4.6624,-0.51027,15.5964,-3.6539,13.5,2.885,-14.7042,2.4441,24.8434,7.0269,-7.3525,-40.4078,
10.0759,-2.0452,3.4475,0.45552,16.5309,-2.4986,12.69,-1.0297,-18.4987,0.42713,21.4815,7.5414,-9.7173,-37.0477,
2.9238,-3.7932,0.43376,2.299,2.4436,11.7513,5.3811,1.839,-8.0339,-1.4693,21.1283,5.2181,-13.8115,-40.4372,
2.7488,3.918,6.9562,11.515,5.1038,25.1463,14.4121,5.4707,-1.9395,-15.4811,17.9898,-6.3202,-12.0472,-31.463,
3.0514,-6.1396,-0.47678,-3.2759,2.4587,9.5375,-0.55259,11.2219,-5.0971,-0.45226,31.0104,-12.0214,-3.3736,-43.6752,
-11.2316,-15.1242,-14.5482,-13.7668,-0.4943,-4.6672,-8.4013,-3.5514,9.2399,-14.5251,20.195,-11.2992,-17.2712,-42.3886,
-18.4401,-11.8793,-27.7753,-12.4736,-14.0286,4.4992,-21.4612,-4.6727,0.73427,-11.7144,22.2568,2.0058,-27.8584,-26.2822,
-3.2337,2.9335,-27.8418,0.90319,-8.9778,18.3293,-20.6412,0.75293,3.9642,-3.0599,13.9059,5.1594,-23.8481,-23.302,
-1.2373,10.1718,-21.027,14.949,-7.0363,29.3206,-11.4519,-4.4375,7.0003,-11.7631,2.3144,2.5119,-30.3684,-16.7596,
-5.3726,-4.5385,-19.2973,-0.047944,-11.758,13.4613,-18.7151,4.7151,-7.5197,-1.2358,16.2755,0.95803,-22.4663,-28.3819,
-0.37309,0.012675,-10.6559,-6.5931,3.0474,16.9326,-3.4922,-9.6678,3.7575,-15.2617,1.199,-2.8415,-21.1183,-22.937,
1.5192,-14.0881,-12.8234,-20.2975,16.9646,1.8166,10.8173,-17.4372,3.5316,-21.7603,12.8198,-14.8313,-8.6265,-35.6608,
5.1705,-27.3428,-1.7644,-33.0419,16.7433,-12.3924,10.9657,-8.9078,11.7381,-12.9715,26.1506,-21.4246,5.9911,-45.6126,
1.5863,-29.7741,1.6154,-26.8498,12.4656,-13.8495,19.1937,-22.4733,6.8246,-26.2932,18.4323,-23.4131,-7.0652,-37.7311,
15.5911,-13.8877,15.6185,-11.1388,22.9419,-10.2126,15.2361,-7.0249,-1.0676,-10.6156,31.4264,-7.9768,3.6483,-33.5964,
17.3928,1.0456,9.9353,3.6295,28.1134,4.5002,28.422,-8.9418,-5.6812,-24.0787,15.4408,-14.0461,-10.6706,-29.7103,
7.4624,15.0828,1.3885,11.2243,12.3266,18.3302,12.6166,-5.1313,-19.4403,-25.3711,5.628,-6.1878,-19.7835,-24.6537,
3.742,14.9065,-5.71,15.6957,-1.4388,3.1304,-2.2404,3.1278,-16.3333,-9.7488,11.3712,-6.2837,-18.128,-29.254,
-5.8369,17.7537,-10.0441,28.7851,7.0659,10.3573,10.1233,-6.4143,-1.2533,-22.7958,-3.4111,-3.1011,-25.4591,-13.3987,
-1.2771,6.8669,-11.7798,12.958,-5.986,6.4614,-4.5841,0.98658,-5.4566,-7.3281,10.8936,3.1658,-20.6576,-11.2605,
-4.0073,3.648,-8.268,2.4274,-3.7569,11.6861,-0.031055,-9.3626,3.2896,-18.6496,7.9002,-2.6374,-24.0957,-12.4565,
1.3783,12.316,-0.75544,13.0398,6.2913,6.7758,-0.49589,-0.84923,-3.9234,-9.5799,8.8299,6.4076,-17.5048,-7.4991,
8.3108,6.4322,8.1754,7.1117,7.3162,2.1596,-4.6766,-0.33114,-11.6392,4.558,17.1864,-3.7993,-13.1809,-21.1491,
12.4893,5.1107,21.7848,1.0726,19.9727,16.13,9.704,-14.4113,3.1592,-9.8154,3.9949,-14.7956,-13.3253,-24.9561,
21.5615,-9.296,21.8125,-13.0917,9.888,1.0622,15.1333,-1.7854,-1.3084,-23.3265,17.8552,-10.6343,1.5743,-33.2807,
7.1727,-22.2316,9.2791,-26.4062,10.2308,-13.1015,14.2253,-13.8382,9.9948,-36.0269,30.8839,-14.673,8.4265,-35.9606,
-5.886,-17.6246,4.5131,-24.6832,8.2133,-13.1817,9.1626,-15.3458,9.8627,-47.9653,39.1823,-16.1306,8.3885,-33.335,
5.6919,-4.4063,8.9191,-10.1067,0.23733,-12.3908,-5.4872,-0.32509,4.5942,-58.8422,50.9313,-15.1636,12.562,-42.56,
-1.6657,1.002,-0.50329,4.5997,-7.7281,1.9157,-2.7507,-5.5201,3.8505,-69.4117,33.7754,-22.2041,-2.2918,-37.6681,
-1.0977,8.893,-5.617,18.4237,-14.2795,-3.344,-16.1488,8.9111,-4.3308,-56.7598,39.2321,-6.7718,-13.3101,-21.308,
-10.8538,9.7622,-18.8435,23.2601,-14.8255,8.5499,-19.389,12.0496,-5.4746,-53.8218,27.9922,5.7251,-18.5915,-5.9295,
-12.541,8.7093,-23.7929,27.0093,-13.4689,10.3752,-21.5001,6.181,-5.6141,-59.4789,14.6199,12.3976,-26.3624,1.3037,
-1.0309,7.7196,-11.6077,19.3087,-9.3863,-4.3473,-21.6124,12.8261,-2.0029,-41.8101,27.8427,10.2505,-11.2171,-12.3372,
0.90085,13.8031,3.1888,25.6329,5.2769,10.0136,-6.2157,-2.0435,3.7297,-53.4015,12.0722,-4.4645,-20.834,-6.9207,
7.3952,8.2986,13.2173,13.8058,-0.72139,10.816,6.2483,-1.852,-10.5941,-42.2462,18.3639,-3.1926,-20.5187,-15.8594,
7.4196,6.3975,17.569,5.9624,-2.0813,-3.933,8.2118,3.4039,-3.8092,-27.0835,31.362,3.0798,-5.1876,-21.9234,
3.7004,3.6748,14.176,-0.47578,-7.1008,-16.7237,7.2515,-2.8807,9.0468,-13.7662,38.7645,2.4265,4.4083,-23.8815,
12.3647,-2.6256,19.4063,-4.6564,-5.2715,-20.8651,-2.0699,8.9849,13.6488,1.1598,50.5386,2.749,18.2438,-32.2702,
-0.069485,-8.5476,11.2264,-2.9738,2.9955,-8.856,10.6817,-5.6542,25.4583,-13.0098,51.1795,-4.4315,8.662,-18.6416,
6.0146,-7.5676,6.3432,-11.6817,-0.45865,-19.0822,-4.0592,1.3023,18.786,-7.0844,62.2087,9.9344,22.2423,-11.4432,
9.3949,-13.662,0.34933,-17.5293,2.3748,-13.2601,-7.9559,-3.453,18.5936,-1.0474,65.422,10.6722,19.4352,-23.8526,
2.2837,-12.8418,-6.2183,-7.1227,6.9095,1.6355,-0.93013,-17.3458,22.1551,-15.0846,47.3967,19.3867,4.1691,-8.3214,
-0.19174,-9.732,-14.7315,-3.4218,-7.605,-10.2238,-14.9743,-2.2051,27.8419,-0.079518,58.6529,31.7866,-2.0917,4.7374,
-13.7438,-0.26308,-23.6696,10.8835,-21.2487,4.4896,-28.1759,-2.0728,35.9924,0.86043,43.909,24.7342,-16.0662,6.7911,
-13.3867,-0.71399,-22.717,6.4201,-23.1096,2.2802,-38.0404,-0.54564,19.7329,1.2773,44.5484,21.8474,-13.163,-3.4379,
-3.2296,-7.2196,-7.254,-8.0651,-10.4979,-8.1458,-21.7273,3.2291,4.4489,13.361,55.9755,17.7297,1.7268,-15.392,
-5.3746,-8.1892,-4.5493,-7.9804,-3.7876,-6.2543,-6.3236,-7.7218,17.4161,-1.5407,55.8226,6.8448,2.9575,-14.9356,
6.6406,-0.68269,2.7388,4.1908,-2.158,-15.7005,-6.0131,6.8415,2.2711,10.7805,66.5732,5.9661,15.4076,-21.9911,
-3.5794,3.5679,7.7193,10.9558,-0.62536,-4.0018,5.1049,-3.9274,-9.9562,-3.9663,48.4788,-7.955,0.3831,-25.816,
-8.5098,4.7575,3.047,7.9596,-5.7322,-12.6476,-5.9586,0.51742,4.7412,4.7598,55.3912,-4.2037,-1.4414,-23.799,
-2.8536,4.9392,-2.2806,6.0788,-3.0499,-18.9039,-17.2929,13.1143,18.4186,18.0373,66.1677,3.9997,9.4027,-21.9035,
-2.6828,7.4488,-4.9498,10.3913,3.6807,-9.3518,-3.1598,-1.7032,5.1531,2.8551,48.0977,4.6945,-5.2615,-6.5581,
11.5782,10.2758,2.3628,9.2998,12.3466,-9.2583,-7.1798,12.499,-3.1068,16.7837,59.3118,15.1699,9.1542,4.5925,
-3.2165,-0.63029,-11.879,-0.61215,5.0578,1.5868,-11.4263,-2.351,-1.9853,1.6767,42.5892,0.15975,-5.495,1.5106,
-12.3775,6.4236,-18.1134,3.6342,2.416,5.7012,-6.5311,-9.6935,-7.9461,-12.5239,40.5009,5.3638,-16.3216,9.3707,
2.4652,2.2966,-3.9306,-0.32544,11.6245,-3.9953,-3.3328,2.1128,-7.4693,2.3276,52.1709,15.3315,-5.0528,-4.2871,
0.37762,-4.3897,-6.5007,-0.30636,19.3458,2.792,8.0915,-12.1139,7.0788,-4.2908,34.9406,6.9289,-15.0392,-4.0299,
-2.4519,-3.1907,-7.0463,-7.7716,4.0851,-11.4062,-6.494,1.7777,3.7788,10.0667,46.9442,5.5776,-0.10613,-10.3361,
-6.9815,-0.19282,-3.8171,-4.4989,-3.5739,-0.43228,-5.0999,-8.6185,2.6169,10.3285,51.5418,4.3078,-0.09932,-5.0387,
-7.4978,-4.858,-2.6529,-4.2289,-2.4243,-0.40634,5.4957,-8.1014,-5.9593,14.3865,41.9014,13.4028,-8.5121,-0.059626,
6.0471,0.11023,6.8606,-5.8456,3.334,-6.9299,9.8431,6.4847,-3.7305,27.6233,53.4873,17.2763,6.0986,-7.5388,
-8.4157,-7.3791,-7.651,-8.3008,-4.3496,-5.5785,10.1877,-2.392,-3.5071,11.8659,43.6616,2.1397,2.8579,-8.9572,
-16.2602,-2.26,-11.8007,1.5508,-8.7659,-7.1146,-4.5236,11.8515,2.3157,25.2539,55.1419,16.1113,7.3631,3.7401,
-23.7029,-11.4788,-16.7046,-4.1546,-10.1111,1.7306,-14.4724,0.78154,4.9831,15.2506,49.8929,16.0789,0.37336,-7.7095,
-17.6036,-7.9833,-20.3795,-9.5177,4.5271,3.4976,0.49593,-9.5545,6.5549,0.23558,36.6102,3.8899,0.35096,-1.6341,
-4.3879,-4.6983,-21.0275,-22.0426,9.8679,-9.8078,5.0741,2.244,7.0973,14.3214,48.5136,7.3976,7.8131,5.0115,
-12.0754,-3.0136,-25.8463,-19.3169,7.873,4.8806,6.1724,-11.9907,4.3326,-0.63784,31.5028,2.7446,-6.7557,12.662,
-5.27,6.9896,-19.1498,-4.5939,-0.55054,7.3249,-8.298,1.8932,-10.0274,7.8881,43.6437,2.1128,-7.2162,2.0807,
-1.6798,15.4561,-10.9862,9.7818,0.88614,6.4178,-0.24762,-3.3648,-21.5163,0.3992,27.4625,-10.6415,-20.8833,-9.7364,
1.227,15.4644,-2.8434,23.2949,8.3157,11.6451,13.8672,-9.7113,-21.161,-12.7203,13.6544,-14.6802,-24.7062,-3.5403,
12.3781,14.5365,2.94,20.3563,11.5583,-1.2135,19.5139,4.9714,-8.6666,2.1429,26.9351,0.30062,-9.1238,-2.3923,
-2.4646,5.246,-11.3364,9.7805,-3.1663,-0.20551,11.796,-7.5557,-1.5986,-5.5376,28.9917,0.21373,-13.3225,-4.1195,
-5.0538,10.5436,-2.1695,8.258,-1.1056,2.6128,8.2813,6.9284,-10.8566,8.8946,41.3522,4.8772,1.5769,-2.9372,
-7.089,-4.189,-4.3777,-4.8654,6.912,-7.3655,17.606,5.1103,-5.0604,9.6948,52.9711,-9.5154,15.5823,-16.861,
-18.3564,-7.6104,-13.9365,-5.0406,6.9653,-0.84363,26.3721,-8.7603,5.0647,-3.5148,35.6928,-7.9396,1.4141,-10.1676,
-3.155,6.9462,-0.93999,0.8742,9.3533,3.8842,10.6897,5.8653,-9.3392,10.7961,43.772,6.6368,8.8124,-7.6863,
-8.6474,7.3958,-2.7544,1.7574,20.9525,11.1347,24.1484,-8.5866,-21.805,-3.9517,27.0456,-7.8614,-5.8163,-12.838,
-6.2573,1.3392,-10.0723,-10.5089,25.3073,-3.5645,28.3114,-4.3298,-10.2081,-11.1977,16.1369,-7.3897,-4.4633,-6.4553,
-5.4147,-9.4978,-23.5679,-23.9783,19.5801,-8.4954,13.0496,-6.4084,1.162,-1.6395,29.2687,-1.8016,4.6913,-5.6,
-15.847,-2.8476,-30.5038,-26.2119,13.2601,6.1143,11.799,-20.1239,-1.2465,-14.1686,13.4126,-2.1619,-5.4122,8.836,
-7.8806,9.0156,-23.5292,-10.5392,4.5137,8.4841,-1.5373,-4.8165,-10.0585,0.78149,23.3645,4.9833,-3.6847,8.2361,
-15.3585,8.9423,-28.197,4.1931,6.5817,22.0751,8.3769,2.4881,-0.56822,-13.3654,7.8627,-2.3303,-17.5636,5.404,
-12.5662,11.2117,-22.764,17.8337,4.3151,19.2785,5.0674,14.4983,-2.4049,1.5365,13.5406,8.0977,-10.361,17.2392,
-12.2798,3.5234,-17.189,9.7481,0.78223,5.4943,9.9086,22.5152,-6.4698,15.5443,24.4205,7.1443,1.0178,8.2541,
-19.4938,-4.6387,-21.302,13.3732,6.8157,8.4386,23.4141,7.0643,-5.614,0.51167,8.8553,-3.1055,-6.9935,-1.127,
-6.1647,-2.4896,-18.1531,10.7001,2.6647,-6.1677,9.3125,20.2724,-6.2128,14.581,22.4239,1.758,7.5261,-5.7366,
-17.9543,-1.4046,-24.5466,-0.23196,0.63495,-3.8584,7.8181,9.703,-2.098,5.1487,6.9785,-12.4474,0.45767,-4.4568,
-11.7327,1.0176,-21.6711,-5.3624,11.3531,-2.2233,12.4934,2.1043,-8.9886,8.1138,1.9519,-13.971,5.5745,-2.7866,
3.0713,5.6337,-7.2753,-0.36389,20.0268,-10.5086,10.809,13.2033,-5.6424,21.727,15.9348,-1.9076,19.3401,-8.2318,
-7.0034,1.0865,-15.7256,-1.7453,11.8096,-7.5393,16.24,-1.6889,-1.0947,7.7266,0.8787,-6.0023,7.3537,-4.4639,
-6.5836,-0.84945,-18.5232,-10.994,4.5535,-5.2162,1.1656,12.5124,-2.8998,21.363,14.926,6.5182,16.2668,3.2875,
-11.333,3.4116,-24.4274,-7.06,1.0063,9.1968,-6.7858,3.3438,-4.1286,34.1812,-0.069582,0.98279,5.4693,10.1059,
-4.573,2.7388,-24.364,-6.1692,-5.1341,0.15737,-8.717,-10.9568,-17.9809,42.2822,-14.1654,-13.1762,-8.9589,0.61315,
9.8014,-1.1675,-8.8022,-6.7347,5.4631,-13.9521,-1.6465,-2.2798,-10.7528,53.8452,-3.4246,-10.914,-7.8853,-13.5236,
-4.8867,-5.7747,-5.5374,4.8946,-2.3483,-2.7565,4.0647,-14.3034,3.9924,48.6744,-15.3795,-3.7116,-13.0246,-4.225,
-15.8187,4.8609,-7.0759,15.8252,-16.3074,-7.2683,-10.2792,0.6548,8.3599,59.854,-0.35675,10.5418,1.788,2.576,
-12.5308,6.9081,-8.9902,19.0848,-19.4688,-0.75183,0.22885,5.6914,-1.0276,42.1627,-10.2257,-4.1907,-2.5284,-6.4645,
-16.9237,-0.5215,-8.9179,13.731,-13.1559,-2.1099,12.8431,-8.75,-11.7227,25.6018,-23.7122,-18.0393,-7.5215,-9.3506,
-4.6835,5.1217,2.841,9.1656,-4.8843,-4.7897,5.5245,5.875,-6.3426,38.1657,-8.1895,-2.8569,7.0298,-2.242,
-18.5025,-4.5391,-11.4295,-1.6739,1.0216,-1.6959,6.1282,-4.3,-10.6388,21.7758,-15.6493,-11.0345,0.92679,1.6345,
-7.0344,4.1511,-22.8343,7.7805,14.0558,-2.5298,4.8249,10.058,-15.6128,34.5692,-0.61033,-12.2433,14.9712,8.084,
-12.6918,-4.983,-20.9967,-0.6371,11.8097,-0.97437,3.1326,13.5953,-9.5308,27.2823,-2.9809,-18.5242,25.6964,-1.287,
-22.6875,-9.8292,-30.494,-2.9377,12.5039,12.6468,8.089,5.764,-0.073051,18.6289,-6.0761,-3.3128,25.5574,12.8903,
-7.7627,4.8605,-33.8087,6.1254,19.7053,23.5803,-2.2174,19.5182,8.8172,31.6112,8.3885,10.986,38.1239,26.2168,
-15.2481,10.1124,-39.7314,5.2898,14.3134,35.7286,-2.5524,4.2471,6.885,21.2269,-3.4089,-3.7732,21.7365,20.2961,
-3.108,13.2468,-23.2475,6.8432,13.4541,19.4849,-8.0116,6.7987,2.7308,33.0488,10.8957,-5.9545,15.7555,9.7244,
-12.7431,5.4369,-17.7123,-0.5825,10.3085,4.2158,-4.2565,3.1172,9.5821,23.1156,12.5119,-6.9995,18.0842,0.25498,
-25.5425,-3.7757,-11.5048,2.726,7.3516,-8.9941,10.0989,-11.1698,5.7336,7.6286,-2.3388,-9.854,14.6603,11.932,
-12.3172,-12.4355,1.8134,0.22407,2.7009,-22.5545,13.1648,3.6004,-7.2384,21.2709,11.9015,1.494,27.8807,7.0065,
-24.6737,-14.4953,-12.3954,-5.4017,0.66806,-19.7296,10.5041,-4.0993,7.2266,16.2526,6.5102,-7.0135,24.7362,0.97416,
-11.5014,-0.062515,-11.1152,4.7439,3.9024,-13.401,2.8587,10.2467,17.5497,29.3775,20.2196,7.5073,36.8147,15.0157,
-6.1337,-6.6067,-3.9003,5.3944,-1.9445,-15.4034,-1.0544,10.9662,4.3368,40.1739,25.0175,9.3263,37.4123,21.061,
-19.3288,-10.42,-8.8111,1.7972,-11.6494,-0.37916,1.3473,-3.7917,-3.8746,23.6635,9.4165,-5.3332,21.0675,18.3942,
-12.0886,-6.5199,-9.6852,-9.0678,-18.9012,-0.42482,-12.8336,4.9234,2.4383,12.0234,2.3728,-4.0088,18.002,17.7586,
-15.1058,-0.51676,-11.9105,-2.9118,-8.4136,6.1478,-11.5271,-6.5976,13.5168,-2.7291,-6.1888,1.8437,14.1155,26.9822,
-13.2634,10.739,-15.8726,4.747,-10.7143,11.3917,-22.9954,4.0878,4.2874,9.5945,2.6018,12.9578,18.8809,33.7825,
-14.8059,9.6266,-24.7418,9.6069,-18.9578,11.1762,-35.7157,7.117,4.4982,15.0997,1.0425,2.3588,13.5389,25.6751,
-11.5797,11.3878,-16.2426,23.1305,-4.2577,15.65,-20.4083,-5.9384,12.1782,0.093711,-13.1201,-3.8631,-0.83701,33.0201,
3.2151,10.237,-1.168,20.7378,3.9494,0.611,-10.297,8.5179,0.69122,14.1881,1.7671,6.1906,13.3132,25.895,
-4.9969,-4.4079,7.7196,5.3935,-2.8351,-5.4368,1.5451,-6.0932,-1.221,-0.7632,-12.3696,-8.2808,15.7196,17.7933,
-13.5844,-0.86991,8.6596,2.7999,-11.5522,-2.7722,1.9204,-3.8564,-3.4862,-2.0522,-15.837,-8.1827,15.244,18.1289,
0.7938,1.5207,22.24,-0.64161,-3.8431,-14.2986,7.8851,10.475,-0.0034417,12.1709,-0.78682,4.001,28.4293,8.1548,
-8.6078,-10.7309,18.4979,-10.8922,-2.6778,-13.4403,20.5076,-4.2535,0.93238,-2.6593,-14.8396,-3.7226,19.6391,13.2779,
0.79505,-4.0071,15.0497,-2.2875,-6.7258,-7.4891,5.1771,9.0972,3.2148,11.6002,0.15076,9.1287,27.3472,22.3027,
-13.3527,-12.6526,0.046701,-5.4243,-18.9507,-5.637,-9.2335,-5.5486,7.2311,5.6906,-9.7496,-5.519,11.6063,6.8646,
-7.3379,-9.0875,8.0639,-3.2289,-6.5884,-5.2983,-1.9938,-10.2916,20.8972,5.3487,-5.4226,8.9121,10.5108,20.5527,
7.2024,-13.219,16.9336,-15.1951,0.35485,-19.0804,-13.0989,-5.9325,13.9622,19.1278,9.0028,18.1989,23.9801,18.852,
-4.9905,-7.2811,1.8176,-6.3322,0.80159,-3.8356,-11.845,-14.4629,7.9797,9.0258,-5.6374,5.4151,12.6509,11.6409,
-0.48187,2.9769,-12.2533,2.9337,-13.3465,1.0718,-25.2343,0.50483,4.2269,22.5842,8.8009,13.0409,18.9074,13.2808,
-8.4041,4.2015,-11.0501,5.096,-23.702,9.8929,-29.2646,3.2116,3.5052,7.1292,-5.8272,0.56571,3.673,16.6931,
-11.1734,10.9654,-7.1135,15.5479,-8.1799,16.3154,-15.8151,-3.061,-3.7202,-7.3986,-19.5776,-0.87144,-8.6384,24.5783,
-5.8263,10.3075,-3.8803,20.2269,-3.5493,1.2364,-24.2206,11.2227,-7.2386,7.1453,-4.3029,13.212,5.9799,26.8448,
-19.5767,-2.0037,-14.4042,16.6749,-7.545,6.3759,-12.0106,-1.2123,3.0173,2.9746,-18.1447,10.0809,10.6966,33.1848,
-15.9944,-10.3023,-6.9924,1.5744,6.9384,-3.3606,-8.484,9.1495,14.0614,16.8961,-2.956,13.2172,24.1548,32.1294,
-8.9548,-22.3117,-0.4929,-12.62,20.6221,-9.2389,-0.023791,0.65026,22.1041,25.6355,8.4461,7.2803,36.8055,25.0573,
-22.5175,-20.973,-0.46288,-25.9628,5.2848,-5.8786,-2.8283,-8.7427,6.7472,19.4202,-5.1562,11.5206,22.7671,20.7474,
-20.1622,-13.1668,6.1122,-24.6654,-9.1323,-9.2677,-16.7586,5.8819,0.72974,31.3503,8.2484,11.7639,28.884,5.4026,
-30.6446,-21.2634,1.5361,-25.5236,-3.8379,-0.76068,-3.0559,-8.5711,13.3132,15.3692,-6.3465,-3.0419,13.051,14.9688,
-14.7059,-27.0027,6.5892,-27.2662,4.3431,-12.4074,-0.53369,-0.57363,10.1765,28.5471,-5.8962,11.2406,25.433,28.1707,
-4.0709,-27.2533,8.0641,-23.7595,-0.59422,-11.6629,-10.7917,-0.53921,12.3723,34.3181,1.9408,21.7916,31.3897,21.2672,
-13.1806,-11.5181,10.3867,-8.2339,-3.365,3.1369,-11.0789,-14.6069,12.5652,18.159,-12.2757,6.4529,15.4063,20.9268,
-3.0358,3.2729,13.5055,2.4804,-10.6458,-2.7326,-23.5101,0.36955,-2.2888,10.5908,-8.6634,3.2598,8.0033,14.994,
-13.1437,-0.80361,0.53484,1.3964,-9.0723,11.4621,-11.8109,-8.071,-11.437,-4.1447,-22.2436,0.25734,-6.5081,12.2236,
-25.4506,-13.8509,-3.2393,-5.2358,-16.0116,1.4204,-23.2626,1.7664,-10.7503,-0.086447,-35.009,14.3419,-2.376,22.7145,
-30.4711,-11.1486,2.5679,-2.1153,-16.9212,-4.2767,-19.9956,2.5964,-4.4934,11.1444,-30.9004,12.4769,3.3789,25.0932,
-26.7725,2.6158,0.54303,8.3008,-4.6817,9.0754,-4.6958,-11.59,-6.0946,-3.6243,-43.1464,-2.3717,-0.5654,23.588,
-13.0053,2.4589,4.252,3.1264,-1.5935,-4.5651,-4.4829,3.2054,-3.8576,-0.53202,-26.4576,0.64631,13.5685,11.8832,
-26.325,-11.7887,-3.9534,-7.8183,-2.9011,0.85358,-3.7455,-11.087,5.2602,-14.6001,-38.9701,-12.9556,6.6056,4.1551,
-17.1935,-10.0773,5.1693,-14.3652,4.2881,8.7536,0.68795,-11.3578,-4.877,-10.8488,-40.3042,-5.1631,7.612,12.7917,
-10.5495,-7.6014,16.0839,-24.7276,5.9012,4.4868,-3.0949,-0.38677,-13.0036,-8.3267,-25.7261,-7.6597,14.6389,3.6059,
-9.4489,-2.0006,25.8764,-9.1439,14.4335,18.3176,11.1908,-9.2499,1.8766,-21.9271,-38.2825,-5.797,10.4866,17.4895,
-4.2053,-15.9805,26.1942,-18.4866,5.1491,3.1185,1.5632,-5.8885,1.2272,-6.5114,-41.9966,-4.514,9.8569,11.226,
-0.21047,-12.1464,38.7225,-9.8938,14.1946,-1.2782,15.5694,-10.212,-1.652,-8.4591,-52.5719,-7.9838,2.718,11.4881,
9.6232,2.6823,50.4992,3.3273,15.6808,7.6844,20.6468,-1.6485,-11.3748,-20.58,-46.1445,-8.9084,13.3116,15.0075,
15.5938,15.08,61.5692,5.9341,21.288,7.2242,5.308,1.2568,-13.4988,-9.0556,-34.0214,-13.9859,25.6089,8.4952,
4.8362,23.9963,43.7751,19.6781,28.8966,20.8908,19.0895,-7.7054,1.4112,-18.3342,-46.0802,-6.132,9.9724,22.0854,
-9.4851,10.3966,55.2486,15.1545,13.0628,6.9401,3.8442,6.7881,-12.7735,-6.0095,-37.167,-10.4408,0.55651,8.0631,
-10.3187,14.9181,66.0337,15.648,-1.821,20.6237,-2.8656,5.9132,-10.1359,-12.6645,-49.037,-11.2172,5.6679,16.4661,
-4.0877,26.1829,47.9716,26.869,12.3883,33.4863,1.9831,8.3639,-5.7861,-6.2927,-60.1947,3.4861,18.4234,29.5781,
9.2535,21.8055,30.9933,16.839,24.3422,28.0654,-12.2359,21.9621,-2.6326,8.1849,-42.4831,5.1482,31.4179,39.8945,
-1.5903,14.8853,15.0337,8.346,26.6233,29.1879,-14.2384,14.9636,10.6205,-6.4062,-38.4616,-1.7078,36.012,36.5657,
-1.9634,18.2013,0.031717,10.1827,18.0103,17.6137,-25.0769,28.1658,-1.7091,8.0782,-22.0539,12.4947,39.9308,32.0325,
-6.0548,14.7709,-14.0702,11.9105,14.5913,30.6569,-16.5567,20.7946,0.73185,10.3315,-32.0247,19.1589,31.455,30.5785,
-2.8846,11.0782,-27.326,13.0671,26.8118,38.571,-10.8857,16.7405,3.4943,5.97,-39.4567,14.2677,33.3102,37.1626,
8.0449,21.1709,-39.7864,21.1688,30.3468,22.1568,-22.8611,29.8361,-7.4727,19.7118,-22.9893,10.137,43.9388,25.1111,
-1.7915,29.2548,-51.4992,33.9301,23.8499,31.6534,-12.1348,13.9459,-7.9593,4.4291,-35.7099,-2.6304,27.2025,26.4106,
-1.2164,21.4191,-62.5093,24.8787,20.0801,24.6098,-25.5068,0.94925,-21.5817,-7.9966,-47.6673,1.7365,19.5595,31.8415,
1.6625,19.1983,-72.8587,24.3216,27.294,29.6808,-20.6335,11.1814,-34.3868,-8.4524,-56.8988,-3.98,25.8691,33.6731,
6.708,23.1917,-82.5872,28.0066,25.1888,33.9795,-5.8324,9.1078,-32.1855,-18.7024,-67.5849,-3.2736,17.3013,37.7322,
20.4055,19.9292,-91.732,17.9077,25.5481,17.8407,-4.547,22.6613,-25.5778,-3.4802,-49.4298,11.0228,30.3633,31.7265,
10.2251,23.878,-100.328,22.9134,38.1152,30.8702,9.8258,13.2816,-21.7045,-6.6147,-60.564,19.178,28.0046,38.7095,
-1.1451,10.7525,-80.2084,7.4386,21.7283,21.5358,23.3362,12.9527,-34.5023,-3.8786,-71.0302,6.3355,24.922,29.3718,
-0.1408,11.9786,-61.2959,8.4643,13.8772,19.3076,22.7333,11.2395,-38.4432,-4.5819,-73.6453,4.085,22.4906,26.6743,
1.738,13.1302,-43.5181,12.6332,13.0437,17.2139,19.499,10.5651,-38.0074,-5.2422,-73.9042,2.9038,21.1412,26.009,
3.0369,13.7461,-26.807,15.1492,11.7935,15.7135,15.9902,9.4636,-38.0658,-5.3952,-74.6143,1.326,19.4047,23.98,
0.51633,11.5181,-11.0986,15.6435,7.8124,11.4963,9.886,6.5574,-40.9262,-8.346,-79.0238,-2.0271,14.9668,20.2028,
-0.45027,10.8266,3.6673,15.6405,4.5377,8.0005,5.5517,3.358,-44.083,-10.6512,-81.7656,-5.6467,11.2624,16.1847,
-0.42281,11.1126,17.5473,17.508,1.4585,3.7785,0.54141,0.3497,-46.1152,-12.8181,-84.3432,-8.1147,7.7803,13.3428,
-10.2194,10.9134,30.5944,21.6028,3.7098,5.8906,14.6089,-13.7713,-37.2679,-26.149,-93.3826,-21.1905,3.1047,25.1697,
2.0861,6.0495,42.8588,14.2262,-10.0763,-8.5629,17.4051,1.155,-45.7894,-10.48,-76.4856,-19.4515,9.9336,9.5596,
-0.84506,4.7509,54.3872,14.3082,-1.9881,-6.577,26.6499,-12.0089,-28.942,-23.9512,-85.9965,-21.0903,-2.8223,2.0397,
3.8824,15.6906,65.224,18.1265,-3.7401,5.0423,17.5678,-4.7413,-37.5639,-29.9289,-94.9367,-14.213,-7.3298,15.9485,
12.5363,17.0879,75.4106,12.8297,-7.7248,15.4969,20.7229,9.6432,-49.4101,-17.376,-91.4412,-11.9575,0.12516,15.4591,
-0.84341,9.0471,84.9859,5.0444,-6.7929,18.7772,33.5795,-5.0354,-51.053,-30.4335,-100.0547,-17.3195,-6.8975,17.8056,
5.7543,8.5043,93.9868,3.8065,-11.9981,3.5506,17.4647,-1.9269,-45.1838,-14.5075,-81.3542,-7.862,4.7411,15.8021,
-8.691,2.8497,102.4476,17.6782,-17.3586,-4.5453,9.8689,-15.3748,-54.1656,-27.737,-90.5729,-21.4903,-9.6434,5.032,
-9.0354,5.0171,110.4007,27.7729,-18.6555,-11.2877,10.6799,-13.9843,-65.0156,-40.1728,-99.2386,-27.6147,-23.1648,2.3917,
5.6067,10.3284,117.8767,21.4293,-8.1822,-19.0292,13.7812,-4.7265,-69.9317,-27.8027,-98.7585,-29.6999,-19.7664,-1.4929,
9.4106,23.8087,124.9041,34.2436,-0.67525,-3.7874,26.5174,-12.3941,-61.5267,-40.2346,-106.9329,-33.9978,-30.2727,12.6966,
7.9099,36.4802,131.5098,44.748,-13.7307,10.5398,10.8264,2.4496,-62.5118,-23.7205,-100.9161,-17.858,-25.6504,12.3331,
-4.7246,28.0728,137.7192,39.2568,-13.842,12.1081,13.052,-0.57267,-53.1487,-36.3973,-108.9612,-27.1449,-38.2114,6.9164,
-1.6347,17.9701,143.5561,27.5478,-10.206,11.3816,26.3689,-10.8279,-52.7662,-47.7077,-109.8374,-30.193,-36.7846,15.8549,
0.3333,6.6019,149.0427,11.795,-21.754,-3.4013,10.6868,-5.501,-61.7606,-30.7452,-89.1471,-19.0274,-20.4775,0.8036,
-2.9598,14.1574,154.2002,13.4945,-8.7555,-3.5955,24.1456,-19.2709,-46.3622,-40.6612,-97.8983,-16.483,-13.2377,1.2923,
3.7653,5.8244,159.0481,0.52448,-11.0371,-17.4798,36.1907,-6.3531,-53.87,-24.1216,-81.2677,-19.2352,-5.8964,-4.3976,
-1.1373,-3.8786,163.6053,-0.44216,-13.1804,-20.1033,41.5033,-8.7783,-56.2498,-19.9372,-89.4867,-17.1459,-9.2837,4.2854,
-0.60151,-5.9847,167.8889,7.5351,-13.7923,-23.1071,49.7702,-19.9439,-66.9748,-32.8409,-98.2175,-10.9719,-22.8267,11.0439,
13.5346,2.7932,171.9156,16.437,-12.9652,-35.8207,39.3004,-8.4582,-71.7738,-23.7865,-89.9172,-9.3789,-35.5571,-3.7187,
0.49329,16.6567,175.7007,29.5507,-17.7992,-26.119,32.2656,-15.4338,-59.9842,-35.4544,-98.6222,-13.4929,-47.5237,4.056,
-7.0199,11.9153,179.2586,19.2901,-30.8313,-32.9706,16.2297,-5.1539,-66.6747,-19.2271,-103.8607,-9.8774,-42.1269,6.6186,
-0.51832,7.9264,182.6031,11.1171,-14.8814,-26.7832,26.0815,-12.7954,-56.5943,-27.9648,-93.4199,-12.5587,-31.6485,-4.5357,
-3.2932,14.9344,185.7469,24.5501,-0.42583,-19.5639,38.6166,-17.64,-52.263,-37.5112,-101.9147,-7.128,-32.556,1.3488,
2.9839,17.3123,188.7021,24.4114,-14.5003,-31.0175,22.1996,-2.4816,-55.2076,-21.1605,-81.6999,-5.2976,-21.7163,-1.0701,
-3.7431,15.3375,191.48,20.1403,-20.577,-16.9966,34.4307,-4.7404,-41.6056,-28.8465,-90.8979,-17.1396,-30.7029,9.2828,
-3.0505,9.2734,194.0912,14.7232,-16.0679,-22.0567,21.6082,1.6249,-50.8016,-22.9061,-77.8915,-10.0313,-26.5214,12.9355,
-7.5442,2.169,196.5457,3.5502,-20.7167,-16.9917,9.0869,-0.34385,-52.4302,-15.9198,-77.8948,-13.171,-23.995,7.4826,
-18.7839,2.5064,198.853,-4.6135,-26.4892,-8.0215,22.6417,-11.0804,-39.4629,-21.9802,-81.1723,-9.1067,-24.8937,12.1789,
-7.3677,7.0328,201.0218,-4.3376,-25.8351,-21.5714,18.8756,-3.8685,-24.9352,-6.5614,-62.202,5.5397,-9.3,10.5116,
-12.0704,2.4017,203.0605,1.0679,-23.8174,-11.3912,31.3057,-17.7363,-16.424,5.4557,-44.976,6.5412,-8.3437,16.8969,
-0.58907,6.4667,204.9769,8.0194,-23.7911,-18.6584,34.5726,-30.7722,-25.2596,19.2284,-43.6802,20.2487,-4.5691,29.9831,
12.5423,13.5628,206.7782,18.7629,-13.0101,-25.9573,45.5942,-43.0258,-21.8733,24.0862,-35.4466,22.2389,2.253,25.7765,
5.7093,13.2157,208.4715,25.5879,-3.3436,-13.6427,56.9585,-54.5443,-31.3185,8.5411,-47.4198,6.8046,-11.9822,16.2791,
15.1887,18.5032,210.0633,29.1979,-1.7393,-17.0333,42.2474,-52.8657,-43.5394,15.5806,-43.5701,5.53,2.8368,19.5115,
0.17741,14.587,211.5595,27.4455,-7.2473,-12.2701,38.777,-63.7937,-55.027,0.54577,-55.0559,2.3922,-11.4334,14.5997,
-8.1832,17.4534,212.9659,22.9924,-4.0061,-9.6627,37.3855,-49.6081,-65.1503,-13.587,-65.8526,-4.2993,-18.1617,11.8525,
-5.8214,10.7938,214.2879,10.3886,-6.5726,-8.1473,29.53,-40.0836,-60.3061,-5.1509,-60.8285,-12.4601,-8.6537,12.077,
-19.5721,3.131,215.5307,7.4269,-20.2782,0.29182,29.1614,-51.7786,-49.6718,-18.9418,-71.2788,-10.3093,-22.2345,23.0451,
-7.5713,13.2323,216.6988,13.5288,-21.3306,-10.0148,26.4761,-36.9103,-35.4667,-3.7053,-52.9021,4.4093,-9.1388,23.5332,
-16.003,1.6817,217.7969,6.6371,-13.0347,-14.5587,30.9684,-48.7957,-39.4187,-8.1593,-63.828,-2.9397,-22.1536,14.17,
-15.0437,1.5799,218.8291,6.2389,-13.1887,-13.6852,30.0446,-59.3622,-51.1535,-17.0241,-74.0983,-6.5049,-34.9244,18.9317,
-0.041047,8.9687,219.7993,3.9938,-14.2682,-11.9285,32.92,-41.7005,-48.0155,-1.9027,-55.5524,-3.3087,-24.3413,11.2483,
-0.57502,10.7689,220.7114,8.8989,-15.7505,2.8873,40.7663,-52.8308,-39.9898,-15.8885,-66.3193,-12.9317,-35.5087,17.5894,
1.3303,9.1872,221.5687,-2.8602,-16.6762,-7.1768,24.2203,-39.3719,-51.6904,-0.83522,-68.2823,-6.5434,-30.5723,17.4688,
-10.4423,3.4912,222.3746,-10.6398,-3.0477,-5.343,36.8671,-46.8311,-55.5357,-8.3371,-72.1361,-11.2956,-29.2055,15.0174,
-21.5081,0.94377,223.1321,-3.921,-8.0092,-12.038,44.0086,-40.7472,-43.3172,-13.9173,-69.2107,-3.6023,-24.1792,23.0032,
-6.1176,9.7735,223.8442,2.3942,-7.0615,-13.6541,35.2881,-24.2024,-47.7337,1.0177,-50.9581,10.177,-8.6284,26.7678,
-18.9154,-3.4408,224.5135,-4.7645,0.3782,-0.20691,47.2708,-36.8503,-58.9697,-13.1433,-62.0006,-4.5336,-22.2107,18.1457,
-11.7001,-2.7668,225.1427,-1.2047,-1.9833,-2.5333,42.4949,-20.5392,-61.9102,-2.5327,-54.0714,-11.6755,-12.9269,13.7839,
-13.336,4.4148,225.7341,4.948,-8.8799,7.4407,46.0257,-13.7629,-46.5028,-16.4808,-64.9271,-14.2489,-21.0376,11.5532,
-16.2779,6.9558,219.0991,7.4571,-10.2179,9.8002,51.6829,-27.0372,-55.873,-29.5919,-75.1315,-11.5232,-33.8065,18.3436,
-10.1568,4.1997,198.0024,9.3476,-15.6852,-0.6098,35.0184,-11.3149,-66.6206,-13.7164,-58.3255,-4.7514,-19.1502,18.6457,
-23.6474,3.9477,173.0263,13.4635,-5.3897,13.5268,47.0173,-12.0401,-51.7978,-26.9934,-68.926,-13.8207,-21.7432,23.1389,
-21.6913,-0.49833,148.5447,-1.4443,-3.6636,4.6956,41.7885,-5.2373,-51.9635,-14.4785,-50.6904,-14.3942,-6.3386,10.9943,
-16.1811,2.8051,127.5405,-8.7715,-2.9757,4.8819,43.49,-4.455,-47.4429,-3.7883,-45.7782,-13.9986,0.52039,14.5434,
-22.6934,12.9264,109.5985,-1.6972,-2.7972,14.8776,48.3637,-10.7357,-48.3379,-17.661,-57.1315,-13.1587,-13.542,23.9603,
-18.0582,14.4896,91.3303,-10.4822,4.3853,1.3575,40.3176,4.0084,-47.7765,-3.905,-39.6036,-12.8368,-1.0367,8.4227,
-23.9898,11.2814,71.7505,-2.8377,10.2026,12.9684,51.9985,-7.5257,-33.2171,-17.7707,-51.3274,-18.147,-13.6024,6.1159,
-18.3413,2.6538,63.7727,1.5417,-4.5095,0.49793,37.5841,-0.99463,-40.1105,-6.346,-53.3237,-7.2362,-11.3835,17.4412,
-11.16,6.7042,62.2856,4.7237,-5.1048,-8.4183,35.798,1.4043,-33.4938,1.9859,-47.785,-1.6572,-1.8133,21.5396,
-21.7156,15.6559,44.5169,11.9238,-5.7342,3.312,42.068,-5.2284,-37.097,-12.2332,-59.0179,-7.1701,-15.8045,26.7947,
-6.3126,17.0549,39.5075,9.8052,-8.6637,3.5804,29.7224,9.1853,-44.6931,2.6008,-48.3929,-3.4664,-9.643,15.3655,
-1.7931,12.29,32.4603,11.0872,0.27449,10.8496,42.039,-1.2562,-27.9115,-11.6553,-59.5893,-11.6767,-14.6763,10.702,
0.18527,13.4234,26.7715,13.2289,-5.3544,-1.0265,43.1899,3.4964,-26.3053,-3.8711,-57.8154,-5.3638,-11.925,12.8667,
-1.2295,10.2801,18.1488,5.4195,-8.3071,-2.3677,37.3245,14.0438,-33.6133,3.3768,-47.3314,-1.7679,-7.0003,2.2727,
-12.8485,3.5824,2.9599,-0.051298,-2.6639,-0.82333,49.185,-0.89887,-28.3234,-10.9258,-58.5915,-6.8067,-17.3379,7.2803,
2.0224,11.7858,-0.42242,3.6934,5.9143,-9.1923,42.8906,13.2551,-20.076,0.55527,-40.976,1.0849,-2.1976,18.0682,
2.2998,9.6759,-13.9597,-0.73652,3.2215,3.0516,47.3327,1.2346,-24.951,-10.2352,-50.6773,-10.6725,2.075,12.7758,
5.4358,11.4342,-19.2026,-4.9024,-5.8586,2.4009,40.2836,10.0473,-37.5539,-11.959,-48.1047,-3.0166,1.4829,0.31606,
9.3193,14.9577,-15.712,1.4726,-2.2326,3.6601,37.3986,18.3308,-41.7798,-11.7095,-41.9445,-5.174,-1.8801,-11.3957,
3.6153,13.5922,-27.3972,12.141,3.0461,17.5405,49.2547,3.131,-25.7095,-25.1069,-53.5278,-10.9444,-15.8673,3.3881,
1.06,2.9552,-39.8534,-2.6875,-11.2367,2.388,32.1994,17.0431,-33.0532,-9.5005,-36.2161,3.8123,-0.81522,13.4055,
-13.1036,-0.49703,-51.5622,-9.0058,-11.4292,-0.094068,26.9934,16.4872,-23.1198,-16.8821,-44.8008,4.4503,-7.7823,7.4559,
-10.8462,7.0164,-60.4916,1.8245,-5.1311,14.0116,39.4045,23.9168,-16.1202,-13.9984,-38.3711,-1.4291,-4.509,18.2338,
-4.115,2.3862,-62.0064,-8.1069,-8.0972,8.8924,30.0247,32.3037,-7.2018,0.94149,-21.9689,1.9307,9.8616,18.5425,
-17.9681,-3.3693,-72.386,-13.2329,-6.6758,15.8425,38.5132,16.2655,-0.2217,-11.8118,-27.7347,0.8792,13.4102,19.3007,
-14.4819,-1.7639,-82.1429,-19.454,-10.4848,6.0056,26.3809,27.9868,-14.3084,2.9969,-12.5071,5.0361,22.4275,9.2572,
-13.6134,0.21269,-82.2205,-17.3512,-5.1786,12.1928,28.5392,22.5656,-12.913,-7.0728,-15.4987,0.056701,10.7923,9.6365,
-22.1506,-4.4768,-90.3832,-11.6333,-8.6094,6.7845,23.0852,11.8573,-10.2679,-7.5845,-22.0519,3.7949,-2.0156,15.6063,
-10.532,-10.7566,-84.9598,-8.1294,-12.7701,-7.6533,12.3462,23.3062,-9.6514,6.9705,-6.6288,13.8563,12.2054,12.7991,
-9.9001,-3.5628,-81.733,-2.0284,-8.2618,6.9059,22.8306,7.8771,-10.9431,-7.5468,-20.3311,3.671,-0.75572,12.9668,
1.9187,8.8109,-82.4418,-3.7779,-2.1542,6.4222,15.8479,21.5045,-22.4468,6.9371,-16.3048,-2.1612,0.2248,0.96406,
1.3364,7.8151,-83.5753,6.2703,5.9262,3.6985,24.7195,18.7422,-9.4073,-1.4303,-18.6005,-15.5946,0.67889,-5.1737,
-1.0826,12.4905,-81.8347,16.6512,9.7798,13.2986,28.3806,13.4085,-12.1173,-9.2961,-31.5845,-19.8042,-4.5066,0.28103,
13.0824,16.8859,-79.263,1.5522,19.9506,19.5158,20.5979,22.4255,-24.9533,-0.78713,-15.5894,-22.8256,-7.5098,-13.8358,
26.3974,28.0326,-71.7017,10.4143,32.8536,32.4449,33.462,13.5968,-9.3561,-14.8399,-28.754,-15.8432,-17.3492,-12.4688,
29.8202,18.8679,-81.4996,6.0483,39.2314,28.5585,21.0954,18.3934,-22.8948,-15.7506,-39.1199,-16.7634,-14.437,-17.333,
34.1114,31.8359,-76.0719,13.6361,45.7643,40.945,24.9749,16.8222,-32.2778,-18.0795,-31.6279,-26.5147,-7.4904,-15.8255,
37.6771,44.0257,-65.8952,22.1719,57.1185,52.5883,37.5764,13.0069,-21.9228,-28.2199,-30.6658,-27.7298,-15.4597,-12.07,
42.432,33.7629,-68.9571,8.2132,47.5417,35.333,29.1721,26.3265,-27.623,-12.4267,-14.7259,-27.4697,-4.7106,-25.4458,
36.1445,36.4138,-71.3676,18.946,55.9148,47.313,41.5218,14.856,-11.8656,-19.7007,-24.6683,-26.7567,-2.5568,-14.0282,
24.1534,25.3426,-81.1856,10.7933,42.7375,36.3849,24.9305,15.3679,-17.3029,-10.5684,-16.1731,-20.9417,-7.5486,-14.5897,
9.6091,15.4038,-90.4144,-2.0143,26.0732,20.1018,9.3347,19.1226,-21.8771,-13.6759,-11.4607,-22.4916,-11.7724,-18.3911,
-4.0634,11.6731,-99.0896,-5.635,10.4088,20.8358,6.5051,4.8792,-12.1457,-25.9504,-22.9334,-22.0773,-15.7433,-4.1916,
2.7289,-2.1228,-103.6939,-13.7157,3.3754,5.4856,-7.9852,15.8117,0.74337,-10.2934,-7.4574,-10.4635,-0.69867,-15.1653,
4.4359,-1.9959,-96.5375,-4.4739,17.2729,3.355,6.5939,12.9922,14.7988,-1.3263,4.1459,-7.9649,13.4433,-12.3846,
-0.040297,-5.1501,-104.8453,-14.0275,14.7635,-9.4747,17.8906,15.4866,5.8904,-2.6504,0.62273,-11.6962,5.4829,-14.9155,
-5.6494,-7.6462,-106.436,-18.7982,4.5238,-6.0993,2.7171,12.6867,12.0854,8.7338,12.7462,-10.0588,4.2192,-12.1498,
-8.1168,-8.1235,-103.7914,-10.1872,10.8003,8.3666,4.4946,1.6359,15.1018,-5.8902,-2.0497,-2.9073,4.9012,2.6792,
2.1909,-18.3937,-108.3215,-23.6759,7.813,-6.2354,-9.339,15.6377,5.3089,8.5632,12.1732,2.4111,18.7072,-4.5664,
-4.0201,-10.2745,-111.6442,-24.0573,21.4443,8.1694,2.9145,16.5014,19.0904,-1.3045,23.5339,-1.9428,15.6446,5.5295,
-17.8789,-9.1904,-119.0456,-19.3399,6.9937,15.63,-11.3604,12.2373,3.8449,-15.3262,8.0219,-9.7769,0.60597,0.98858,
-6.9153,-7.7029,-117.9135,-18.1795,4.7037,10.9506,-21.367,18.9862,-1.0625,-8.2579,18.367,-7.3191,-7.3123,-13.1707,
-4.1625,4.4516,-112.2414,-9.138,18.5215,20.1156,-5.985,3.7471,13.1013,-21.8624,3.165,-9.2188,-2.6644,-4.3609,
2.6357,6.9904,-104.5722,-15.1372,17.8085,13.2963,-19.2588,14.3487,2.4243,-6.4506,16.6071,-18.0196,-0.63372,-14.3884,
14.6375,13.119,-86.1371,-5.8107,28.8999,26.5985,-4.0032,10.6814,-3.333,-19.6263,2.5151,-19.7448,-13.6908,-13.5251,
19.3716,12.3323,-75.3565,-4.5264,39.3262,23.9981,10.3369,9.1049,-3.1331,-18.4491,5.1706,-13.8829,-9.1278,-11.7779,
32.3093,20.0107,-67.0935,-7.9964,48.1923,20.6879,17.9978,22.6586,4.5381,-3.2422,18.9604,-10.2436,5.5199,-17.6192,
28.8982,23.0192,-77.1679,-7.9851,40.1546,33.5466,16.4495,10.4731,2.8621,-17.1477,3.7227,-21.3222,-2.8318,-13.2881,
26.2296,19.7673,-82.2905,-8.4407,23.6454,22.5777,1.3625,23.9447,-11.4096,-7.2324,16.1273,-13.4944,-5.4678,-14.3616,
18.5759,17.178,-82.4979,-2.7895,31.1823,16.0783,-10.3418,14.4884,-9.2525,-20.8985,1.0597,-16.8943,-13.0905,-17.7095,
22.1381,15.2122,-89.7088,-4.4934,33.989,21.6616,-1.303,4.2647,3.4626,-10.6894,-4.0798,-11.2039,-7.6283,-7.2925,
31.0989,6.8159,-93.6802,-14.5129,21.6597,6.2619,-15.3248,18.1088,13.5444,4.052,10.265,3.5683,6.9294,-4.9842,
15.133,-3.4142,-102.1594,-14.1097,16.1509,11.0998,-15.7397,14.6151,19.7473,6.0784,10.0478,-0.92426,-3.3768,-4.2176,
24.1163,6.1446,-102.9761,-10.4571,17.9878,15.111,-19.4716,27.8382,20.4332,19.8137,23.5449,7.55,10.9258,-6.7705,
21.7337,10.4522,-92.1203,-4.2173,15.0378,10.4623,-10.8206,27.0342,33.2379,24.1679,36.2322,7.0974,21.4257,-11.9766,
6.3297,-1.3992,-91.2703,-3.0287,0.035493,-4.2654,-20.4605,14.1869,20.0189,8.6179,20.8242,-7.4284,6.0402,-12.1936,
18.6467,1.0227,-79.7146,-2.3794,-14.0666,-18.1095,-30.9261,27.4357,9.9314,22.2008,33.6747,-8.3171,10.8914,-11.9296,
3.4279,4.7038,-87.0907,-2.2366,-20.1001,-2.9229,-19.7161,11.6896,9.336,6.7687,17.5542,-18.1076,-3.8621,-11.2138,
3.2915,4.4211,-87.4777,-7.7148,-24.5055,-16.8476,-30.6926,21.7458,9.7114,7.8351,20.711,-4.8608,10.4696,-4.9286,
6.8356,-5.1976,-90.6482,-18.4766,-13.6817,-29.9367,-14.8199,20.4411,23.2288,20.461,33.5684,9.5308,23.9415,9.4671,
0.34506,-16.579,-98.7729,-31.468,-9.5868,-23.2563,0.16929,6.5862,35.935,10.3465,37.5649,14.9705,17.2913,19.5874,
14.4244,-17.4546,-88.1689,-41.2034,-11.818,-28.408,-13.9409,20.291,25.6896,23.8257,49.411,14.0723,30.3539,9.0577,
19.102,-5.1826,-87.5564,-24.6312,-7.3673,-36.0579,-7.9601,30.2295,38.2482,36.4962,60.5464,17.9047,42.6326,22.6143,
4.3927,-11.8872,-96.403,-9.0533,-21.0253,-47.9944,-21.5825,40.108,50.0533,48.4064,71.0136,29.4579,47.8877,33.816,
-9.9708,-24.7375,-104.7188,-17.0662,-32.79,-34.7564,-34.3875,23.6015,56.2664,40.6187,71.2234,19.7397,30.9144,21.966,
-16.7864,-16.2377,-111.8606,-5.286,-41.5798,-21.9138,-42.9437,8.0854,55.2287,24.0816,52.85,16.2174,14.9596,31.4052,
-1.6793,-4.5058,-98.133,3.9176,-47.9713,-34.699,-52.0599,21.7003,61.737,36.7367,63.779,29.3444,24.0221,33.7296,
-10.0661,-16.8639,-102.067,3.2149,-43.6903,-33.4838,-46.5974,18.5972,66.9187,26.5813,48.2595,20.0312,9.0172,31.2382,
-15.0745,-24.2704,-92.2014,-1.6547,-37.3273,-39.8931,-53.1551,26.8349,63.8392,37.1463,58.4594,32.8605,22.5762,34.9768,
-14.1705,-28.4265,-82.9282,-15.5866,-34.152,-51.5995,-48.0959,30.8372,69.3628,48.0131,69.0519,36.5012,35.3216,21.653,
-6.3047,-24.383,-78.4201,-14.1834,-24.1522,-47.0315,-31.1101,18.2298,79.301,37.1816,75.5971,30.102,47.3023,25.499,
-5.9262,-37.02,-86.8106,-27.4324,-36.734,-58.3096,-43.3435,22.7482,63.7167,49.0507,85.1612,23.6185,49.4018,9.8691,
-10.7152,-48.8988,-83.9406,-33.6687,-20.4299,-68.911,-38.8721,7.2833,73.9937,44.6356,69.2251,19.8628,37.5515,8.8778,
3.9589,-47.2295,-77.0329,-41.0026,-6.6453,-67.9122,-28.1206,5.5126,78.3718,42.8926,79.1716,21.4774,41.8464,16.7643,
6.0595,-52.3467,-79.4263,-49.2993,-15.1331,-77.9375,-40.5333,8.4561,72.2661,50.1408,81.3678,21.5917,44.4802,3.1303,
1.0189,-42.6581,-75.5965,-32.2414,-11.4185,-59.1612,-31.9525,8.8841,78.2199,38.7138,62.3857,34.3276,35.2636,17.0425,
-2.316,-40.5664,-80.8825,-16.2069,-20.5552,-66.8365,-44.1354,22.451,69.3169,50.491,72.7426,30.8645,41.0988,14.5479,
-16.277,-32.5199,-90.0605,-6.4865,-17.4513,-48.7263,-54.0463,16.8255,74.5116,33.3615,56.6855,14.9126,29.2782,14.6095,
-11.9573,-26.3595,-90.7364,1.8539,-17.807,-31.7027,-48.4647,16.2836,57.4134,22.0059,44.3984,19.2322,23.3128,27.8329,
-1.4183,-30.8579,-85.7602,-0.59573,-20.9482,-21.5197,-59.6569,26.0642,44.1471,31.4431,52.4917,15.739,26.1232,26.0945,
-13.9616,-20.1201,-75.4698,10.1967,-8.9337,-6.1286,-49.4606,11.8715,55.5982,15.4565,35.2422,4.038,10.4558,32.4801,
-16.3975,-27.7992,-70.4736,-4.5151,-19.1553,-19.8608,-53.5081,23.788,51.2579,25.8227,41.6153,11.7469,15.5101,16.9681,
-1.8503,-32.2114,-56.4243,-9.7875,-8.1842,-19.137,-36.1976,26.5697,62.2824,28.4823,51.7461,23.6693,28.6795,24.8357,
-5.4806,-28.4082,-52.103,-7.3292,-13.3053,-20.795,-24.2731,25.9104,65.4922,29.5796,44.8995,20.3786,27.3575,28.023,
3.2665,-25.7681,-45.2357,-15.3082,-13.4426,-29.8368,-27.4939,38.4558,55.0147,41.9048,56.3056,21.9618,39.7467,17.9229,
4.0059,-31.7054,-44.3917,-11.5836,1.464,-13.9466,-11.7443,26.7259,65.8138,27.1615,58.471,22.5147,42.9745,26.2012,
3.2982,-40.56,-52.4856,-22.5806,3.6457,-27.2098,-25.1396,21.8481,55.7157,39.0952,66.6552,21.6321,43.6698,10.5291,
2.1647,-34.3848,-59.626,-21.2263,2.4913,-23.2389,-25.97,12.1189,62.6623,30.2015,64.5267,15.6574,32.6309,-3.5966,
-4.0453,-24.3708,-64.9346,-5.8527,-0.9315,-14.8287,-23.9436,17.4719,60.306,20.4384,56.4457,19.8621,19.9161,6.4409,
-8.0118,-16.8286,-61.5065,4.719,-12.5684,-23.761,-36.607,30.5236,51.5424,33.3121,67.159,26.6215,24.8011,3.7156,
-21.5625,-12.077,-68.105,13.7896,-15.5561,-8.2353,-45.0995,23.4784,62.5499,27.0347,49.0294,17.5409,9.2821,10.9761,
-6.1687,-12.7558,-68.2281,14.3656,-14.1549,5.753,-43.7965,36.1696,72.8969,39.5126,60.1877,30.0517,19.4821,24.4175,
-3.0613,-23.6828,-66.4728,-0.059883,-0.67767,-8.6921,-31.3472,28.318,60.9018,40.8148,55.1044,23.1039,15.9748,8.8525,
-5.216,-26.471,-55.4693,-10.813,13.463,-10.9073,-15.3664,12.5189,56.7805,24.2659,37.6981,16.5737,21.0967,-5.7787,
-2.5646,-38.9827,-55.4151,-24.2642,5.1028,-24.3528,-25.7375,16.5139,53.8408,26.6204,49.5362,2.0153,33.9309,-19.532,
-0.53995,-22.5438,-48.3482,-11.0467,2.9262,-8.7917,-10.1626,12.7171,64.7104,13.7984,54.0472,9.3775,34.1646,-4.26,
-3.7813,-14.6434,-53.3983,-13.6581,-4.2651,-8.2644,-23.6528,21.7758,59.3559,27.0705,57.8197,22.9149,24.1637,7.7567,
-5.4252,-24.9895,-51.1296,-23.1282,4.4096,-18.9937,-28.2445,29.8228,64.2133,39.5463,63.7045,24.7449,27.3906,-0.19182,
-19.1304,-30.9733,-52.739,-22.6753,6.9514,-10.3705,-21.8727,23.3571,71.5853,23.0735,45.7822,11.1008,21.0705,0.7553,
-14.2415,-30.9862,-53.3162,-30.6691,-0.9493,-23.8482,-34.6603,36.0557,62.613,34.248,56.2001,16.0462,29.1602,-11.4504,
-14.7897,-29.5941,-58.068,-25.555,5.1876,-36.5174,-18.4807,36.1614,64.001,18.0931,38.7281,9.9386,13.8475,-10.2953,
-9.2258,-31.5603,-54.5846,-19.3447,4.8766,-48.4263,-20.6465,48.0917,53.6131,19.4154,34.1347,8.4074,20.4995,-15.2902,
-6.3337,-32.0053,-46.1645,-17.7167,5.987,-31.4207,-26.4231,52.1529,58.3473,30.8786,46.1866,7.4351,30.9621,-26.0653,
-16.7108,-24.9406,-46.6691,-3.0906,1.4186,-15.4355,-18.7573,34.9237,59.0556,14.9259,29.3154,4.6506,15.0044,-13.7447,
-1.6082,-9.3442,-34.0463,10.6587,-1.0051,-0.40936,-23.7116,46.9283,41.4123,21.5826,31.7661,12.3221,8.5608,-4.0334,
-9.9993,-6.046,-35.2786,5.8093,-0.47701,5.6947,-16.2096,39.9026,42.7376,6.1876,15.7601,-1.0449,-4.5814,-7.0656,
-4.7221,-10.36,-35.967,-2.022,-2.3192,0.67628,-18.9782,40.3153,50.4633,14.7714,12.5448,2.7598,7.8543,-16.9308,
9.6612,-12.545,-34.7443,-12.19,8.1093,-10.5888,-11.2917,51.9964,52.1125,25.1096,25.8921,-1.1476,21.483,-28.0751,
2.4649,-12.7275,-42.0141,-19.8774,16.9771,4.1465,3.4169,34.7766,49.9209,9.503,11.1739,-12.3035,21.0601,-16.101,
-0.95699,-12.4314,-37.1544,-21.9587,7.0717,-5.0579,-10.8881,45.3181,45.5229,23.0329,24.6035,-4.5501,29.6185,-24.0213,
-5.5768,-11.6855,-35.8612,-13.158,17.8721,-1.9481,-8.7632,28.4991,55.8871,10.8937,23.526,-9.8895,28.7766,-30.0632,
-8.5157,-22.6772,-47.8095,-26.4686,9.7847,-15.9312,-22.3374,12.6891,44.5831,-1.4518,8.0145,-6.9578,22.8408,-20.3087,
-5.6666,-25.5259,-52.3546,-33.2297,-4.9024,-29.0753,-35.0971,26.0278,45.1819,12.7353,21.6336,3.2815,27.5505,-22.3639,
-19.4266,-27.7359,-60.4385,-24.6884,-5.9424,-19.7097,-24.4342,11.4392,45.2769,-2.1288,6.2356,-10.9466,11.7975,-23.8281,
-12.1118,-23.733,-54.4734,-24.6103,3.3001,-11.5115,-24.3718,24.8528,36.4804,-2.0013,19.4936,-7.0158,20.9805,-16.3184,
-8.1113,-16.2293,-39.5129,-12.3763,3.5703,3.2792,-10.2813,25.1638,36.6301,-10.7673,4.224,-7.0626,10.8351,-17.6779,
2.6647,-1.1555,-23.0421,2.4663,7.0975,17.1824,1.5601,30.2009,30.691,-8.2512,-8.5885,5.5217,8.314,-12.8759,
2.9724,2.1187,-27.8086,8.3292,-1.2796,2.9178,-12.6335,42.4888,26.5107,6.3439,6.0268,-1.8252,21.3787,-15.3769,
-11.3059,-10.6359,-40.2401,5.4911,-13.8307,2.2751,-25.9755,25.8395,29.1292,-8.1367,-8.4348,-13.408,5.996,-6.5031,
3.4724,-7.6593,-26.5321,7.5,-12.5329,-9.5537,-28.488,28.4987,25.0431,6.4515,-1.8483,1.4965,7.5758,-10.3225,
11.6831,-9.0708,-30.5523,3.3086,-2.4272,-11.7867,-27.7141,23.047,37.6405,8.3346,-5.4792,-5.678,17.4111,-23.8031,
-2.5815,-4.3169,-42.2823,6.3841,-2.7491,-4.0643,-33.0664,22.1322,44.1994,-2.9231,-17.778,-16.0944,8.4152,-19.9675,
7.8632,1.5542,-36.9387,5.0657,-4.4547,-2.8846,-41.3722,34.9043,35.9352,11.3523,-2.6113,-1.0288,6.9754,-14.0925,
-6.7086,-12.639,-48.8224,-6.463,-13.5414,3.836,-36.0839,18.71,35.6499,-3.4289,-16.5546,-11.3252,-7.5432,-16.0529,
0.31056,-9.9408,-47.6948,0.47252,-12.7291,-8.5543,-37.6602,18.5226,40.0587,10.8769,-4.3366,-9.7103,-3.2804,-11.3484,
10.5815,-7.4736,-30.8024,6.9917,1.1301,-13.6534,-29.7882,19.282,43.2675,14.8326,7.1483,-10.9985,5.3352,-16.2798,
8.5434,-5.622,-24.7446,1.4279,5.2719,-5.8186,-20.9854,4.562,39.2683,-0.15735,-7.3806,-9.871,-2.9356,-18.577,
22.1308,4.0691,-9.1599,1.342,2.1494,-5.4697,-21.5973,18.3883,37.8476,13.9521,7.1623,-1.7958,11.3405,-24.9453,
18.8631,5.6962,-11.4863,11.551,3.8908,8.9584,-6.2014,19.0867,49.6767,8.9056,5.3296,-11.9772,0.30144,-13.1595,
18.1987,3.951,-21.5545,4.7773,-8.0352,-2.4053,-19.9293,23.0865,43.353,22.4712,10.1539,-3.308,-2.0552,-8.1605,
31.2067,17.8139,-6.1612,13.3773,2.2691,8.4964,-26.2167,29.6523,47.7677,35.0853,13.7545,10.9905,8.8254,-9.0739,
19.9118,5.4513,-6.7953,4.6239,-0.20584,1.9067,-16.693,13.7731,36.0157,18.8801,-1.1708,-3.769,-5.8041,-14.6099,
32.8171,3.2534,-8.2584,-2.2015,0.74169,-12.3077,-25.9805,17.2252,44.1434,29.5081,12.9995,1.1341,7.241,-5.3145,
30.3111,4.4614,-19.4557,-0.66622,-0.70557,2.0627,-27.6957,2.0917,51.3168,13.6376,4.7363,-5.0139,-3.0155,-1.7216,
30.3633,14.4833,-27.6423,1.2445,1.2076,10.3577,-39.1295,2.5026,39.819,12.4206,1.6458,0.89934,-9.3821,0.25246,
30.8801,20.6296,-33.9347,1.6372,1.6025,19.5576,-40.9911,10.303,39.7685,15.8852,12.3039,-1.4932,-11.1578,-3.9721,
21.5439,17.5208,-36.5752,8.0872,-6.9118,30.5451,-30.1126,-4.4152,41.1242,0.83208,-2.5343,-8.8866,-24.5883,-1.8627,
28.67,9.9221,-23.1559,3.8604,-8.3679,14.6124,-40.4662,9.9497,42.3983,14.8822,11.7178,5.7466,-9.013,-2.6866,
12.8498,-0.96306,-22.7028,-0.11348,2.4231,9.1271,-23.9383,1.8696,53.9544,16.7947,8.2083,17.4927,-0.053889,4.958,
3.2613,-8.8558,-23.6784,-7.122,-0.06089,7.1765,-19.2973,-3.3876,47.3743,10.6429,13.796,14.1045,-4.2596,2.3219,
17.1656,-9.7277,-14.3074,-12.7747,5.088,0.66551,-13.9303,1.9613,55.2885,23.5675,27.0682,12.7911,8.6239,-2.0266,
2.0357,-21.7719,-27.5489,-19.0237,-6.9096,-4.5188,-11.6908,-12.2563,51.5041,8.0534,11.3441,-0.60431,-5.9935,-3.3086,
16.0136,-11.1114,-11.796,-7.5925,-6.4953,0.42934,-16.6019,2.579,54.9616,21.6702,24.7635,13.5319,8.4661,2.5025,
15.4515,-10.9126,-13.8946,-13.2176,2.7806,12.0957,-12.3321,-4.1237,63.356,13.822,28.3536,5.6352,11.6993,-0.92144,
13.1214,-6.0484,-19.1407,-17.5691,0.27516,9.967,-21.4139,-12.7624,56.2804,10.6546,14.9598,7.6356,1.176,7.0848,
18.8821,-4.7504,-20.7978,-14.6437,-9.0953,4.6922,-34.2291,2.1033,44.4853,24.1153,28.1622,9.9839,-1.701,0.11174,
11.6688,-1.1913,-33.1135,-0.20199,-4.34,18.5107,-24.1557,-6.9785,48.8317,8.5684,12.3725,-0.4371,-15.6989,6.1854,
15.6459,3.5569,-41.4162,0.7453,-8.7568,3.7676,-36.8064,4.6649,35.6123,14.1338,14.9041,4.2663,-14.2201,3.0079,
14.7069,8.0209,-35.1899,4.4424,-2.6192,17.6415,-33.5933,-4.0335,34.4114,-0.81426,5.5913,3.0754,-12.4315,0.95686,
12.8897,2.8624,-28.4013,3.2407,-5.268,23.062,-30.6421,-13.1455,23.9279,-14.8654,-2.2273,0.084909,-12.6208,-0.036169,
22.4053,0.81969,-19.2138,4.9168,-2.1458,7.5782,-32.5454,1.7433,25.298,0.12652,12.0063,8.4975,1.2318,-8.4526,
14.9808,-0.63247,-19.4644,6.0248,9.6751,11.4016,-16.4926,-3.575,37.8801,1.5912,13.5555,7.5203,-5.8575,-1.8652,
16.4205,-11.3515,-16.8931,-8.4367,-5.0054,-3.3825,-24.9259,6.4608,49.7073,15.5957,26.8422,14.0848,8.594,-4.0919,
13.5647,-15.3473,-10.267,-13.9412,-3.2326,-6.3843,-15.0118,1.3967,57.8125,21.6072,39.3316,14.1751,22.1783,-4.7818,
9.4768,-17.7005,-11.0542,-12.6371,4.9121,1.0144,-0.011066,-6.6383,53.8758,6.2107,38.7044,11.9214,17.9035,1.5851,
13.1174,-23.654,-8.0525,-23.5717,-9.4826,-13.1465,-14.1104,0.77554,51.1108,19.0025,50.4821,12.6094,21.9736,-3.6544,
7.1856,-9.6064,0.38181,-8.0574,-6.9736,1.7423,-2.5066,-5.3505,62.1442,14.5883,36.1596,16.0624,14.5753,7.322,
4.8836,-7.1597,-2.4479,3.1144,-10.2967,-5.8454,-16.4562,8.0652,53.2019,27.813,39.6024,17.9042,17.4423,1.2699,
5.9938,-10.9393,-8.381,2.4595,-5.4698,-10.6395,-15.868,-0.36904,50.4778,22.8014,39.5646,12.6208,12.1866,5.4033,
0.48964,-7.0091,-19.5703,7.4569,0.0029834,4.0989,-1.3522,-13.9102,49.7873,7.3333,23.0907,11.3962,0.6985,13.0301,
3.2662,-9.3945,-23.0732,-3.2801,-4.6739,-1.3609,-15.371,1.0244,44.9292,20.9933,35.8053,17.2599,14.7566,-1.8517,
5.4088,-4.6219,-15.6091,-1.6803,-4.8613,7.6069,-19.5249,1.3614,50.1845,6.6377,27.109,13.8857,3.9801,10.0203,
13.0353,1.7356,-8.5924,3.5656,-12.5206,4.8123,-24.4332,10.1659,33.0734,20.3395,36.2398,15.3912,-4.2096,7.081,
16.9299,2.567,-2.4645,7.0932,-2.4154,8.2652,-15.484,9.5559,40.9792,28.8725,46.2258,14.4677,0.72014,-7.4439,
9.3664,1.4776,0.49002,7.603,0.53569,3.0923,-7.072,-5.1174,48.8102,13.0401,29.3522,9.8578,1.6123,-5.0574,
15.3521,-2.3528,-1.4104,-6.8841,-12.5918,-11.1932,-20.7477,5.5485,31.7816,18.8741,41.6911,5.525,15.6156,-14.1081,
14.4312,-1.2763,-0.39038,-6.4713,1.2595,3.5783,-13.8212,-6.0098,43.0391,7.4523,36.3835,7.0641,13.6742,-10.4554,
13.5654,-6.8121,-0.36695,-13.5662,-5.3641,0.55724,-12.0567,-10.326,36.7151,4.1988,37.0064,12.2526,5.3706,-9.8281,
16.0252,-0.32316,-0.81275,-2.9304,-3.6392,-5.5559,-11.8007,-1.755,38.7221,7.2215,48.886,3.5669,11.1285,-14.383,
7.5805,6.2438,-5.4412,11.3454,-5.2917,8.8774,-11.0931,-9.1333,43.8815,-4.437,32.3207,2.4173,-0.76438,-4.1661,
21.2257,11.0141,6.5783,21.3527,-14.7959,12.4849,-24.5275,5.5147,34.2332,9.9292,44.4814,16.3723,10.0389,-1.5775,
9.1262,9.4179,-7.9164,11.653,-8.2956,8.9296,-22.519,-1.9006,34.9854,8.797,31.9217,9.2407,1.018,-7.0954,
3.9014,6.0469,-21.5414,10.0182,-3.1211,3.7171,-28.651,1.0194,35.6922,10.14,38.4252,6.8154,11.2465,-1.9925,
11.1507,-6.4765,-21.0464,0.063407,-9.4816,-0.24776,-33.4797,0.95798,26.0673,13.273,46.409,6.4067,15.2486,-10.292,
11.8846,3.7338,-7.1563,0.52696,1.8442,13.8671,-17.3709,-13.1995,19.3592,-1.6234,29.5245,-7.5415,0.23372,-10.1418,
10.704,8.6546,-10.9357,-6.5198,6.8788,3.6121,-9.8498,-7.6613,6.5049,6.9619,41.853,-15.0393,8.7071,-23.6333,
8.1909,5.3289,-7.4731,-0.51667,9.272,11.8137,-3.6464,-21.2327,20.2146,-7.5559,30.9233,-11.3309,10.0555,-22.614,
7.6995,-6.2156,-4.2188,-9.8396,0.29694,3.6217,-7.1692,-24.636,23.61,-10.7757,20.6491,-1.2967,9.4521,-11.9032,
2.0927,-19.4058,-15.658,-23.3492,-2.0593,-10.6956,-17.4962,-15.2062,16.113,3.9709,33.5102,-8.2349,14.0298,-22.8814,
6.6441,-6.0813,-5.3652,-13.9285,9.2888,4.0461,-2.3464,-18.9717,29.2463,-10.3674,23.4797,-7.7406,8.511,-11.2191,
17.9378,-10.8612,1.9727,-12.6247,-5.3685,-10.2966,-13.0319,-10.8173,25.084,4.3547,36.1709,2.5454,11.2744,-20.368,
8.4432,-14.8867,-2.8229,-0.6425,-0.76793,-12.4162,-13.1856,-22.3287,26.3849,-1.5876,21.3039,-0.41375,4.0499,-18.2103,
7.0012,0.1065,-0.78247,13.496,13.3781,2.4288,1.7056,-13.506,20.1249,-3.3638,15.3487,7.0945,2.8715,-3.0177,
4.2426,7.0468,-4.9449,8.4083,-1.5245,1.7466,-12.4968,-1.9378,17.5144,10.938,28.5278,5.2658,8.7794,-15.5334,
2.1172,17.8488,2.8349,22.0038,-7.513,15.7418,-7.5374,-12.1111,30.5635,-3.8183,22.5374,4.9499,3.5755,-0.5014,
10.8765,6.0207,-1.5443,23.8882,-3.7883,10.5193,-20.6482,-3.4337,23.5165,2.9595,25.3948,1.3789,-1.7834,-1.0082,
7.8856,-1.3557,-5.6608,8.3549,3.4546,16.9033,-14.265,-6.5017,11.3484,-2.3633,20.5971,-1.0422,-4.0152,-7.9633,
1.7998,4.3378,-1.5798,9.3255,-4.236,21.5017,-5.9257,-11.7237,17.2152,-4.0921,10.9427,2.7621,-6.5805,0.93307,
13.852,7.8193,4.1276,5.0246,-4.9173,6.1116,-13.9887,-5.4082,10.5697,5.5072,24.3861,-7.6934,5.0393,-13.2229,
9.2793,0.80218,-8.2809,0.045922,9.4778,15.1679,-1.9247,-19.1837,11.8063,-8.9233,11.6292,-21.3318,-0.87544,-18.9084,
3.1102,-13.3459,-20.8791,-14.0568,3.2279,0.15782,-15.9092,-20.7702,8.292,-12.9958,24.9626,-19.9826,4.7895,-24.3215,
-1.2858,-10.1377,-14.4818,-12.6763,-1.1752,-8.6689,-8.8056,-19.0557,20.4218,-4.2646,23.9326,-9.8975,8.7115,-21.4592,
-2.6117,-1.5785,-15.9511,-9.5776,12.9953,5.9512,4.3505,-28.6698,20.5999,-18.1087,15.4809,4.2592,9.5918,-6.0717,
-3.3904,-15.5838,-28.0897,-23.1029,1.3896,-8.5059,-10.0106,-30.6905,5.2639,-2.9222,28.652,-3.4788,9.9517,-19.8074,
3.3608,-8.0319,-12.3044,-7.6168,9.7252,-14.0757,4.6901,-39.1388,19.0481,-7.8919,12.8333,-6.0767,2.8068,-21.8927,
6.9008,1.8039,-3.2164,3.1298,5.3997,-10.4247,-0.2681,-22.6905,7.616,-2.7416,19.546,-3.8413,-1.1032,-16.8375,
5.5515,-6.7231,-12.3778,1.0712,-2.4075,-11.6701,-14.352,-20.4628,-0.32407,-7.2539,15.5673,-9.2232,-0.10183,-13.9565,
5.2184,-3.5133,-10.7,15.107,-1.3283,-0.68073,0.60911,-33.335,13.7954,-17.1082,0.53328,-4.9282,-0.095716,-0.95921,
1.1635,-7.9795,-13.7993,14.1315,-14.3439,-14.7399,-13.5274,-17.2349,25.9937,-1.9817,14.6013,-2.7615,9.2642,-11.191,
-1.2449,4.1919,-14.3739,22.1702,-3.6615,0.24451,-5.6314,-9.1857,38.534,-1.4636,16.9992,4.4195,5.4346,3.5805,
7.716,7.2141,-11.1738,12.8885,-10.4572,-6.3179,-3.8905,-10.0375,22.122,1.8971,23.9298,11.1697,6.5115,1.426,
0.23765,-7.3187,-13.7767,-1.9848,-18.7159,-20.0388,-17.22,-23.5353,6.6947,-10.844,29.5098,-3.6005,3.7822,-12.7596,
-0.712,0.20482,-6.4027,12.2343,-3.4929,-4.7365,-4.0266,-20.6506,20.393,-13.9352,21.1914,-5.6535,1.6847,-0.23237,
-0.20147,-4.0164,-20.1186,-2.5302,-13.1742,-17.5476,-17.885,-5.3116,5.1385,1.0009,34.0199,-2.0406,-0.75498,-12.8461,
4.4876,0.9011,-17.439,4.1689,-2.0944,-2.3948,-2.7119,-19.0929,13.2487,-11.7564,17.8787,-4.7243,0.22571,-12.0756,
1.8797,1.3148,-18.7312,4.3866,-4.3073,3.76,-11.9034,-28.2367,15.728,-17.1303,11.1934,-6.7794,2.5508,-5.2709,
-1.039,-6.2472,-26.9613,-7.1013,-11.532,-3.9487,-25.2892,-24.6721,17.5908,-2.0025,24.6218,-10.1143,1.4621,-15.2438,
1.3617,8.2276,-16.4577,7.4247,-0.08252,10.3882,-9.6718,-25.5302,30.6353,-15.5152,12.3185,-7.169,-7.512,-2.6368,
3.1508,4.3911,-13.599,6.4428,-14.1776,-2.9324,-23.1915,-13.7093,14.6972,-5.2303,25.6794,-15.1572,-7.0613,-16.5786,
6.2357,1.7893,-4.8323,-0.95933,-11.8553,-2.2888,-17.9896,-24.5786,5.3966,-12.8668,20.7958,-18.4574,-8.976,-20.6598,
9.1351,-0.6569,0.6024,0.50099,-15.3531,-7.2963,-13.6362,-20.7655,18.6359,2.0052,23.7572,-3.2499,-7.0346,-5.3202,
9.0548,-9.5036,-10.1907,-6.5444,-27.0601,-20.4214,-26.9181,-12.5038,12.3727,15.9849,29.3476,-0.31762,-6.1443,-6.0053,
22.5429,5.1666,0.71011,7.9482,-11.3365,-5.0961,-11.203,-16.4305,19.1142,0.9258,13.4867,4.3784,-2.9695,8.4551,
14.6424,1.0464,-8.6864,-6.6284,-24.7563,-1.1178,-24.6308,-13.5739,3.8673,1.7366,26.7773,-0.56105,-9.3393,6.0079,
16.5698,4.7247,-12.8425,-1.554,-21.3999,-2.9216,-19.8101,-16.5019,7.4453,8.1795,30.783,5.085,-8.7789,2.841,
18.8503,6.7799,-20.0229,1.8135,-14.0358,2.3983,-17.2181,-19.7203,15.8852,4.4154,24.7267,-1.2998,-0.30123,-0.60322,
7.8968,-0.64251,-28.643,-10.9233,-27.2936,-5.6963,-30.285,-10.5863,3.2397,13.0364,37.3431,-10.1087,9.5384,-14.667,
2.2789,12.9598,-21.7799,3.8321,-15.2974,8.7454,-16.2389,-14.1606,17.1453,-0.37353,24.7443,4.5979,3.8215,0.31299,
9.1571,-1.3816,-25.6177,-3.0151,-16.7186,2.539,-29.3646,-10.9723,20.7241,13.7489,36.8225,9.8651,8.7368,14.3942,
5.3336,-12.9914,-25.4838,-10.7849,-17.1186,-4.6289,-22.8569,-23.8775,13.4011,3.5005,32.2748,-4.8268,9.6158,12.5261,
-2.0015,-8.0023,-19.7456,-9.6698,-10.0111,7.3416,-7.3854,-32.2669,2.7751,-10.8095,16.7756,-18.4991,4.8297,9.4361,
2.328,-19.2147,-21.8346,-22.6529,-15.4906,-7.1989,-21.0423,-28.9274,-11.4914,-10.0915,23.7196,-23.4693,7.8137,-5.23,
3.5915,-9.1755,-14.4446,-7.1938,-6.6105,7.3328,-5.6798,-35.1425,3.2981,-22.1135,8.1964,-15.0451,1.2649,8.2484,
-0.83338,-2.5448,-14.9809,-0.28324,-20.3138,-7.2071,-5.4078,-18.934,-3.9154,-6.6867,21.8046,-2.4503,2.592,12.8985,
-4.993,-6.6013,-14.5496,-2.6051,-21.8319,-12.318,-16.7757,-15.9967,4.2707,-3.549,25.6414,-5.5773,2.904,6.0442,
-9.3704,-9.0118,-20.2244,5.0342,-13.039,2.5211,-12.0278,-22.5198,12.433,-14.5606,10.0029,-4.3073,-4.7536,19.7815,
-3.6632,-13.6157,-29.7683,-6.96,-19.272,-5.6502,-25.4061,-14.1533,5.6073,0.41305,21.1639,-0.77462,4.4182,20.8642,
-5.7824,-7.6542,-31.256,-5.1394,-8.294,8.7888,-9.7818,-27.4041,19.3709,-3.4226,7.2663,-3.0667,1.815,33.1752,
-7.306,-14.6779,-42.4764,-16.9912,-14.3441,2.1126,-23.2949,-22.417,20.4777,-3.217,14.3137,-0.076106,3.5766,25.5725,
-1.7229,-12.394,-39.4598,-14.5685,-0.8555,6.1951,-23.2309,-19.6688,5.149,-1.6208,7.375,-7.0876,3.8296,16.0874,
7.7347,2.4497,-22.9922,0.40562,13.2268,19.9234,-7.737,-24.1003,7.2475,-15.6236,-7.1675,-6.6621,-4.8187,29.2222,
6.8025,-1.0404,-13.731,10.1337,-1.6669,4.628,-21.3728,-15.6396,0.73229,-16.0198,7.3625,-14.2135,0.6152,22.255,
-2.9591,-8.4611,-9.1651,1.1074,-8.5131,-1.7295,-5.9904,-24.9904,12.8487,-22.5422,6.453,-20.8439,8.0614,19.985,
-10.7328,-14.0334,-18.4372,-13.0591,-5.664,-13.3185,8.469,-18.3462,2.2563,-7.0897,2.7913,-18.1901,9.9161,17.3827,
-9.621,-15.53,-22.476,-18.7544,-9.5335,-18.5995,-6.1391,-12.1008,0.71745,-2.9918,6.8333,-13.8249,9.789,6.5175,
-8.5764,-9.4536,-12.2413,-5.9371,-2.8818,-3.3836,-1.1636,-25.4748,6.7546,-16.9123,-7.6767,-13.4636,4.9922,19.6894,
-4.32,-14.4986,-15.2477,-16.8053,-16.7393,-9.3294,-15.1937,-14.9906,-6.7456,-6.0067,6.4163,-20.1383,12.1761,16.6379,
-6.3994,-4.7425,-19.4778,-4.1045,-10.5904,5.3304,-0.18211,-17.365,7.7592,-13.5969,-6.5969,-16.5914,10.9782,28.2673,
-9.757,-10.0703,-21.1156,-3.8582,-18.3738,-6.7513,-7.1863,-16.324,3.0149,-14.6523,-5.2659,-9.0479,4.7067,33.1193,
-6.833,-20.223,-24.9932,-12.5129,-24.2867,-20.4462,-20.8551,-12.0703,-9.7941,-3.9509,6.7431,-8.9729,2.0857,25.0519,
3.3983,-4.9097,-17.4139,2.3379,-8.7295,-5.1194,-5.5038,-19.2971,4.8935,-6.9881,-7.7615,5.6655,0.55754,37.6488,
-1.0145,-2.8136,-26.1904,-6.29,-8.275,3.1387,-19.2736,-21.413,-4.8233,-0.48908,1.1918,-5.0333,-3.6853,21.2899,
3.2557,8.1126,-15.7328,8.1874,0.17245,16.5137,-7.7588,-15.9188,8.0947,-14.5597,-4.9599,-9.8754,0.74476,29.8338,
2.1248,19.7857,-11.9824,21.7962,-6.3854,18.3289,-11.9704,-5.6098,-3.6162,-15.9555,-6.5331,0.071055,-2.1059,40.2041,
-2.2119,6.9063,-8.9251,14.7376,-18.6303,3.1291,-23.8801,-8.5472,-16.0267,-0.89813,7.9589,-4.1428,-2.4471,23.6919,
5.872,6.9599,5.7104,18.9986,-3.4124,17.0414,-8.3473,-16.9198,-0.96511,-5.5903,-6.6186,-2.4906,0.038086,27.0164,
0.37448,-7.5577,-1.2491,3.7587,-15.4369,1.9189,-21.9465,-10.7607,-8.4601,-10.3997,-7.6247,-11.228,3.3098,12.7675,
-1.0503,-6.1002,1.1647,-3.8811,-0.41069,-5.6101,-6.5297,-18.0658,-12.1608,-23.8757,-5.764,-15.6991,8.256,14.3403,
0.88306,-1.057,5.7716,2.8993,11.2379,0.33888,7.9621,-21.6586,-12.3672,-20.0355,-9.1598,-11.9507,8.6958,20.963,
4.1038,-9.8801,0.28072,-11.3747,-3.5364,-13.7814,-6.6156,-13.3442,-22.3821,-7.1408,-0.65966,-16.3787,8.6419,5.6052,
12.2766,4.8127,9.618,3.4078,10.7758,1.1454,7.8813,-16.2849,-6.9392,-20.8123,-12.7802,-10.719,6.2523,13.289,
0.78242,-2.5603,-3.587,0.39737,-3.9708,-2.6649,1.1907,-10.163,-6.1243,-5.4636,2.0866,-9.6078,3.5388,20.4419,
-6.2797,-2.8747,-7.5814,-0.094498,-8.8084,6.3814,-10.5735,-10.0213,3.1295,-4.2004,-1.849,-9.4994,5.6649,18.7483,
3.9187,9.9257,2.695,12.5391,3.4128,20.0985,4.1609,-17.3703,6.2162,-18.0484,-11.5596,-3.7846,2.9866,21.8321,
9.7633,9.798,-0.74043,12.2546,-4.7434,8.534,-4.5766,-14.9251,-7.721,-2.8657,3.234,-4.0249,-1.402,16.3132,
6.3717,23.3101,0.23984,25.6193,9.6412,22.1219,2.2462,-15.9011,6.8422,-16.7937,-11.0601,-0.04207,-12.5424,29.4344,
8.3274,23.2452,1.6282,26.3519,13.2029,34.8946,-7.7105,-2.3186,-2.5233,-12.4435,-15.0741,-0.50713,-14.1287,32.7436,
17.6497,23.2537,11.3516,23.3671,11.9431,27.0506,6.8521,-3.5831,-7.5171,-10.2932,-9.0244,-7.4923,-9.0718,17.2154,
13.3172,21.3909,10.2034,22.4331,15.4361,24.0244,20.541,-10.3833,-1.9204,-23.2388,-8.0158,-5.6395,-1.5114,23.1985,
-1.5819,6.0074,-4.5088,6.9871,0.40996,8.4829,5.2085,-8.3569,-15.9052,-7.7444,6.5651,-5.769,3.7238,7.7066,
-11.7077,-8.453,-18.3383,-7.5321,-3.2874,0.56008,6.6984,-17.6772,-8.334,-12.9614,-3.2512,1.593,2.0974,6.3779,
-3.5218,-10.6139,-14.2937,-18.167,2.5225,-5.0861,11.9086,-12.8748,-10.6402,-2.83,10.0392,-8.7924,6.6485,-2.4229,
-0.50432,-17.4604,-10.6299,-29.2371,16.4711,-13.1995,17.7419,-22.3921,-23.098,-16.7602,7.5663,-22.3649,9.0558,-16.3089,
12.1539,-2.3128,4.1079,-13.3829,29.5829,1.6925,30.7774,-19.6453,-13.7609,-25.5066,-6.9877,-17.6795,13.6572,-1.2303,
3.0063,2.9019,-8.8353,-14.9871,13.7079,-12.0415,14.8307,-10.9835,-27.0352,-11.8163,-3.2256,-25.0375,9.0962,-3.5637,
12.1799,14.8877,0.11355,0.01211,26.9854,2.781,28.0409,-11.2601,-15.0552,-24.2029,-9.58,-14.1817,7.6148,6.9392,
8.6422,6.5113,-6.4417,6.4896,18.2128,16.7141,25.8215,-12.4553,-16.0226,-19.0096,-4.328,-6.7833,-2.196,3.7169,
7.1883,0.50845,-8.8609,-2.3183,7.7658,9.0254,10.1722,-5.1602,-1.9655,-4.7732,10.0317,-8.2468,4.4835,-3.9895,
5.354,11.2353,-7.8619,11.3841,13.3796,22.0472,12.9048,-13.7367,-0.44417,-18.0497,-4.6702,-8.2198,-0.93006,9.8132,
12.5162,14.3026,1.964,15.3785,4.1587,14.1766,1.8411,-1.6875,-14.5175,-2.8667,9.1733,-4.92,5.6735,2.6766,
7.5558,13.9122,6.0555,14.9236,11.8597,27.426,15.8307,-8.6012,-11.2388,-16.7947,-5.4771,-2.2862,2.0593,5.7898,
-3.1871,1.8523,-7.4038,-0.071818,4.6002,17.7606,10.6026,-8.086,-6.8229,-19.9971,-14.9009,4.3981,-0.87064,9.184,
-7.205,-8.0804,-1.8148,-9.8206,-2.691,2.595,4.8216,-9.0036,-14.3651,-4.6973,0.093135,-1.0102,2.4556,1.6174,
-4.9015,4.5644,12.3941,4.8686,11.5705,16.0717,18.6323,-19.6881,0.59676,-18.5154,-5.1265,-1.8847,3.2434,15.6203,
-4.6074,-6.9338,3.1628,-6.7175,-0.41778,1.0074,4.35,-11.9589,-3.2495,-7.5825,9.2122,0.098697,2.1137,1.5183,
0.81337,-4.1794,5.3119,-0.2341,8.4941,12.7081,18.189,-17.3217,11.0455,-7.5952,1.6439,7.1083,-0.35199,1.8948,
-2.0418,0.74812,8.7348,8.1987,2.3716,7.2689,24.044,-16.2824,-1.3784,-12.7523,0.61009,2.9403,-1.266,1.7811,
-4.2577,3.0421,4.0011,4.4328,-7.5922,-7.2672,8.5013,-1.7424,-15.3957,-4.036,14.6735,-2.3809,3.0195,-10.9537,
0.20737,12.6806,3.293,18.2668,6.9633,7.2688,9.9309,-9.589,-0.37197,-13.6153,-0.30692,1.9715,-2.3073,3.8035,
0.66229,-2.1802,-10.4675,4.0062,-4.7483,-4.8599,-4.765,-4.8038,-1.7526,1.3016,4.8556,6.9982,-6.3778,5.377,
-6.3924,4.5679,-14.048,4.2337,-3.0604,9.5317,-15.6345,-5.9186,-5.8569,-5.3929,-4.3219,12.6585,-16.7521,8.3291,
0.53828,18.3938,0.89493,13.3331,7.4128,23.0598,-0.59644,-2.7571,-13.9238,-18.1653,-4.9977,10.0278,-12.0054,14.3773,
4.716,3.1902,7.7871,-1.5668,-4.7243,9.3779,2.6445,1.6175,-24.7807,-12.8662,9.4021,-4.6739,2.2785,-0.58534,
-6.3245,7.676,12.4646,8.886,5.3807,22.3788,16.5858,-4.5595,-9.1938,-20.0454,-4.3264,-9.0018,-2.0678,10.7429,
-14.8312,0.19961,2.8306,-0.53372,-9.0422,6.9361,5.232,3.6646,0.64266,-4.7427,10.0332,5.6383,2.2656,4.9538,
-10.6675,-8.6985,3.1286,-1.9047,-8.4303,-7.5801,8.1923,-4.5062,2.9427,9.5046,19.6515,-1.3164,6.3391,-4.2296,
-4.4156,-2.5642,12.2948,9.4348,0.49383,-6.0519,14.2483,-3.3007,-2.8467,-5.1657,4.3724,-12.4621,-1.5244,5.3777,
-1.8111,-4.749,9.2185,-0.017882,-12.1635,-19.7888,-0.70658,5.7839,-16.7759,-8.0611,1.8407,-12.1822,-1.9008,-9.045,
11.3928,9.636,18.9548,14.0832,2.6663,-4.5015,13.4358,-3.9164,-1.6693,-18.802,-6.6887,-0.22632,2.8903,5.5977,
11.1764,3.8439,11.7375,16.4427,-11.5937,-11.715,-0.46631,-5.0855,-14.6647,-3.5738,7.8126,-2.5511,-4.2983,-8.7688,
10.0387,9.6937,6.8236,14.9885,-12.7691,3.0879,-9.3242,3.1708,-14.2528,6.8604,7.275,-0.99485,-1.702,-13.3875,
-1.3208,23.2121,-7.6858,23.9107,-1.2458,17.0026,-12.974,3.4482,0.70233,-7.6512,-7.2615,4.2092,-3.0026,1.5158,
-6.8541,11.9288,-21.3246,8.3761,-15.271,4.6202,-26.2955,5.1127,-4.5528,6.9079,7.2742,4.892,-1.8875,3.695,
7.12,12.616,-5.9451,14.9584,-1.658,17.9064,-10.6178,-9.294,4.6065,-7.6066,-3.4514,7.8727,-5.9837,9.553,
20.2559,8.5846,8.5116,7.0449,-2.0265,7.0095,4.1193,-7.7326,-6.4275,-3.8074,8.4476,-6.1636,-0.47987,-0.84256,
6.8806,-4.0904,7.5333,-7.4778,-6.5821,-3.7006,7.544,-11.0102,-6.9779,-6.3853,19.1655,-16.0834,8.9024,-14.892,
-7.6322,-5.2482,11.29,-7.4274,3.6348,3.5375,21.1913,-17.3656,7.5408,-13.9525,7.2588,-1.0184,12.5779,-2.2369,
-8.0404,-18.4962,2.6621,-20.5451,-9.211,-10.7748,5.8198,-8.3723,-3.269,0.98464,20.9233,3.6513,4.8083,-12.8591,
6.5421,-3.8231,15.131,-5.2124,3.9698,3.9717,19.5706,-13.0145,11.0272,-3.8205,13.0515,-3.5831,4.9872,1.4757,
4.6773,-8.2709,2.9979,-6.3719,-3.752,1.8622,14.1184,-15.9756,-3.7345,2.0211,12.268,3.1794,11.2355,-1.4196,
2.5263,-7.7746,-5.6007,-9.7308,-0.72047,-7.6031,2.047,-6.5983,-14.2673,6.5775,17.1447,3.9242,16.1742,-10.688,
12.6634,6.7919,7.8308,4.9531,10.5475,6.9531,16.0242,-10.8796,-3.1226,-7.9172,2.016,-10.4112,1.1726,-1.6284,
21.258,14.7343,12.0386,6.4578,-1.3101,0.8547,3.7687,-8.3556,-17.0352,-2.6965,8.5119,-23.7484,2.0374,-15.5609,
9.2253,14.3174,2.4295,9.3439,3.9129,14.9034,11.4929,-20.4827,-5.1871,-9.5503,-1.8217,-11.5672,0.5115,-5.7422,
8.2042,19.5387,-2.8606,15.7988,4.1466,26.1007,1.9178,-5.1537,0.26933,-1.0265,-0.30873,2.6904,-1.8571,8.1667,
11.4536,12.754,-7.3666,6.4321,0.15574,16.1155,-12.2972,1.1671,-2.5532,-0.96495,9.9994,-6.825,-5.4873,-1.6777,
13.1047,21.8108,0.09141,14.933,11.8387,29.2485,2.5406,-10.5957,11.7,-11.6638,1.4482,7.6845,-0.94842,12.523,
-1.7816,6.4021,-14.0141,-0.062962,-2.9716,13.3936,-11.7118,-13.2335,-3.102,-4.884,6.5061,5.2838,-2.2947,-0.45714,
5.8778,7.9576,-2.8153,0.010118,5.6943,26.69,2.6233,0.18797,-2.4483,-8.8001,7.5194,0.75759,11.943,12.1978,
1.7835,10.2866,-0.7751,13.1046,0.67591,31.1001,9.9486,0.1767,-14.4613,-8.2721,0.52024,0.71213,1.3355,15.2075,
-10.9519,-4.4306,-7.7446,-1.7817,-13.4646,15.1341,-4.7483,2.5049,-20.6092,4.8517,12.1813,-1.6694,-5.7602,0.19505,
-2.8116,4.79,4.8804,8.2161,-0.89559,28.3261,9.6366,-1.387,-5.2727,-9.5394,1.1609,0.30198,3.0038,9.139,
-8.2548,-9.5974,-9.5124,-6.3769,-14.9419,12.5265,-5.0416,-1.3037,-17.186,-4.2205,6.7041,-8.1345,3.7596,-0.76373,
-6.8244,-9.8879,-6.0664,-9.667,-8.3637,6.6986,-8.8794,0.64483,-6.8004,-7.7089,4.4306,-9.5176,5.4044,-7.2659,
-4.0761,2.3977,5.0547,-5.8135,6.2382,19.8602,5.7533,-0.79662,2.4935,-14.2619,4.6323,-9.4142,7.4189,-9.1679,
0.84547,-4.2935,1.0096,-13.8832,-6.8332,4.5686,-2.6117,-3.555,-11.7561,-2.1817,18.4544,-8.8495,15.3924,-21.7135,
10.1489,7.1891,8.4325,1.0498,7.6768,18.3945,11.645,-8.9539,3.0493,-11.405,3.2471,-2.7064,16.3398,-6.3107,
5.3304,-3.9994,5.5881,-8.9034,2.938,3.1908,-0.81509,-1.4015,0.52794,2.8433,13.8099,-9.5592,10.2147,-20.0321,
6.4142,-1.4211,16.01,-10.7075,5.101,-7.2209,13.3338,-6.4617,5.6415,-2.4725,12.5137,-4.7756,9.1342,-24.4428,
0.41564,2.4049,12.243,-0.71158,3.858,0.69551,23.2212,-19.17,10.9149,-9.8073,-2.2691,-0.74833,7.6501,-8.8762,
2.2619,-5.2221,2.1545,-6.2813,-0.11421,-6.8294,7.7279,-3.9198,14.9368,4.8811,11.967,5.8446,20.287,-2.8005,
-7.6949,-0.69917,0.62199,5.7884,9.7146,7.6804,7.8016,-8.8978,14.5091,-9.5117,2.2942,8.7679,4.9698,2.5127,
-8.6368,1.6816,0.11708,4.9735,3.0513,4.3443,11.5426,-6.9612,-0.46149,-14.5538,5.4306,8.7094,8.4821,-3.7185,
-4.8442,-0.75812,-0.35797,-0.47014,1.4651,4.5517,8.5117,-11.6883,-2.2357,-3.8582,16.7975,7.7188,22.0731,-2.0921,
-9.6983,-6.793,-1.7397,-2.7799,-0.026049,7.5521,9.4042,-25.087,-9.1176,-4.0947,1.6896,7.7237,6.6488,-0.56341,
1.1732,-7.3206,6.7839,-3.5487,-6.572,-7.001,6.034,-10.8845,-16.9889,10.251,15.6883,1.6479,13.733,-14.6296,
8.1179,6.6817,16.1984,10.7642,5.5146,-1.3673,19.772,-23.795,-1.8695,-4.4641,12.8757,-5.4665,21.7954,-3.8614,
2.4856,-1.6704,1.1265,4.4363,-8.9163,-5.4944,4.4856,-31.2541,-7.4395,5.1577,2.2812,-2.8006,11.6008,-3.1622,
-1.4042,-4.3757,-7.7582,-3.3126,-8.78,2.3184,-9.8835,-28.4428,-12.605,6.7195,-4.4028,-1.6965,3.4225,-9.5195,
6.1627,9.9869,2.9965,10.9861,5.8468,16.2793,4.8095,-26.7367,2.2513,-7.7837,-9.751,3.0825,3.2167,5.1516,
2.5194,2.3032,-3.2633,-3.773,-3.4588,1.2025,-9.5791,-30.2768,-11.9838,2.5742,1.5917,-7.8592,-2.1211,-4.1131,
1.9002,-1.1089,8.6244,-9.159,6.5703,15.1611,5.0957,-40.1525,-25.3648,-11.6803,-12.6038,-8.7917,-1.5258,-5.2695,
2.2542,-1.5104,7.6398,-3.4647,-1.7751,5.365,4.3219,-23.6434,-17.6936,-14.6531,-5.2316,-0.31303,10.2577,0.19142,
0.24731,2.3218,1.569,5.1615,-10.0874,-8.9876,-10.0374,-9.6666,-12.8909,0.3261,9.1823,2.5117,18.061,-7.3037,
-3.0411,8.2629,4.7484,18.4154,-3.4022,5.6517,-2.3507,-23.1866,-9.7782,-13.7935,-5.4687,1.8939,9.9622,-8.2687,
11.173,9.6379,18.5635,19.1813,-6.0036,-7.3842,-2.2092,-7.6954,-9.1919,-27.0659,8.9595,6.457,23.4645,-18.9968,
-3.5974,10.4628,16.9133,24.1103,-6.1119,-3.6672,10.5508,-14.7168,5.4596,-39.5419,17.7065,2.7956,19.6489,-15.5186,
-17.4816,3.7551,4.2057,16.5838,-18.3726,-7.6567,-4.1822,-14.301,5.0632,-51.2694,7.7587,16.7278,11.4549,-1.9596,
-14.4242,-4.8894,-0.72338,1.4887,-20.0767,-8.1325,-18.0313,-1.283,2.889,-40.035,21.3234,23.6065,24.8676,-10.2608,
-14.4943,1.0167,-0.67998,5.2098,-4.7721,6.4554,-2.8494,-13.3659,9.2637,-51.7329,5.944,8.0901,29.8546,-3.0967,
-9.8829,-6.5276,-1.5746,-6.3277,7.6055,11.6119,-6.8185,-6.0167,-5.3235,-38.2703,19.6874,2.061,30.8687,-2.9111,
-13.0317,-14.5545,-5.2215,-15.3018,12.7622,10.9154,2.9447,-17.8153,3.4144,-49.0698,11.0238,15.9682,14.9165,-0.86589,
-13.185,-11.8105,-3.973,-14.3837,11.9965,11.1956,11.1864,-23.2944,10.6927,-52.6732,1.9432,9.3982,11.2851,1.9925,
-6.7815,-12.9726,-1.8638,-17.2622,15.0178,-2.5716,-0.70954,-20.026,-1.174,-36.4173,15.9266,-5.2657,22.7675,-7.481,
-12.9222,-7.5171,-2.6876,-4.0661,19.7291,6.9357,13.3637,-32.9244,-14.1991,-48.3322,0.87101,-11.4289,7.3014,2.3218,
-13.0824,-8.9369,-1.5907,-4.7578,4.4454,-5.6399,-0.53362,-16.8489,-27.4472,-37.8803,11.1088,2.3524,2.2554,-9.9779,
