"AF3","AF4","F3","F4","F7","F8","FC5","FC6","O1","O2","P7","P8","T7","T8",
98.1121,19.8255,102.1789,-81.8449,-59.4775,-116.4126,-145.8972,-17.7926,-6.6087,87.9446,278.0685,108.2786,6.6087,-62.5274,
86.1254,32.736,110.1481,-62.8342,-41.8088,-95.3279,-123.0433,-25.8753,7.8879,68.5679,247.2844,93.649,-7.0049,-44.6757,
66.8579,44.8718,117.6392,-44.9641,-25.2003,-75.5082,-101.5607,-38.4228,21.5146,50.3538,218.3473,73.93,-20.6846,-27.8952,
48.7464,56.2795,124.6809,-28.1663,-9.5883,-56.8777,-81.3671,-50.2174,34.3237,33.2326,191.1465,55.3942,-33.5436,-12.1215,
32.8444,43.6461,119.1273,-12.3763,1.0478,-39.3651,-62.3851,-61.3044,46.3643,17.1386,165.5777,60.4448,-45.631,2.7058,
44.9738,35.9436,104.862,2.4663,8.1016,-22.9031,-44.542,-71.7261,57.6824,2.0103,141.543,70.9181,-28.7931,5.6205,
29.1923,21.5866,84.4703,-11.7817,1.5153,-20.3511,-52.8919,-58.2989,68.3215,-9.4547,147.1505,57.6468,-22.7581,-8.8167,
19.8159,34.3914,93.5021,-8.5055,15.5244,-5.03,-38.0263,-64.4598,78.3222,-22.9874,124.2214,60.7964,-32.0683,-1.8126,
25.2351,46.4279,101.992,6.1048,0.49295,-3.5782,-42.3538,-46.4922,64.9011,-18.6918,125.758,69.8565,-30.6526,-1.1959,
9.621,29.5422,81.7724,19.8385,-13.6366,10.7365,-25.7126,-57.8027,75.107,-31.6703,104.1125,51.5651,-42.9135,-6.2071,
-5.0563,13.6697,62.7661,9.257,1.2816,24.1923,-10.0698,-68.4345,84.7006,-43.8701,83.7657,34.3712,-54.4387,8.2653,
9.3471,18.9502,63.9501,-3.4988,5.2715,8.6408,-23.5657,-50.2284,93.7186,-27.1379,92.8398,42.2091,-46.3564,10.953,
22.8863,15.7793,73.3299,-17.3889,-9.1448,-5.9777,-36.2517,-33.1147,73.9955,-11.4096,101.3694,53.7765,-29.4751,-3.8042,
35.6131,7.2074,59.2716,-30.4455,-22.6961,-19.719,-48.1766,-17.0278,55.4557,3.3749,109.3872,40.0083,-13.6065,-17.6759,
19.3763,10.3328,41.6153,-16.6865,-7.2344,-4.4359,-31.186,-30.1062,66.2284,-10.9276,88.724,23.5078,-26.8902,-30.7154,
4.1137,23.8128,25.0184,-1.5853,7.2997,9.9303,-15.2149,-42.3998,76.3547,-24.3719,69.3006,7.9973,-39.3767,-14.7724,
-10.2331,34.7187,37.6173,12.6098,-2.2883,13.5358,-12.1345,-53.9558,57.6734,-8.8096,51.0425,-6.5825,-51.1141,0.21391,
4.4809,18.5356,49.4602,-2.2468,-16.251,-1.3764,-25.5065,-36.6185,40.113,5.819,62.08,7.9124,-33.9473,-13.8989,
18.3121,3.3235,32.7671,-16.212,-29.376,-15.3938,-38.0761,-20.3214,23.6062,19.5699,72.4552,21.5377,-17.8105,-27.165,
3.1133,10.4818,25.2098,-23.8811,-13.5134,-7.1124,-21.6915,-33.2021,33.8827,32.4957,54.0079,6.1454,-30.8418,-15.2612,
-11.1735,-4.2471,9.5972,-8.3482,1.3974,7.4144,-6.29,-45.3099,45.9498,16.4459,36.6674,-8.3233,-43.0913,-0.24555,
-24.6031,10.1078,4.8198,6.2527,6.9055,21.0695,8.1874,-56.6913,39.2598,26.4027,20.3674,-21.9239,-54.6058,13.8692,
-9.0269,21.7014,18.6307,-8.2225,-7.6088,5.7053,-6.4039,-39.1899,22.8042,38.9185,33.2453,-6.5085,-37.2295,-1.063,
5.6147,6.2994,3.4128,-21.8291,-21.2523,-8.737,-20.1196,-22.7385,7.3359,50.6834,45.3506,7.982,-20.8957,-15.0992,
-2.4815,20.0214,17.308,-8.3185,-34.0771,-22.3128,-33.0125,-35.4742,-7.2042,61.7424,28.5296,16.3858,-33.742,-13.1763,
-16.4327,19.3291,2.1696,6.2806,-17.9325,-6.874,-16.9317,-47.4457,7.328,43.9379,12.7178,1.3027,-45.8175,1.7143,
-29.5467,4.0693,-12.0606,18.7462,-2.7566,7.6384,-1.8158,-58.699,20.9883,27.2016,-2.1453,-12.8755,-57.1684,15.7114,
-13.6739,-9.0177,2.763,3.5214,-16.6912,-6.9199,-15.8069,-41.077,5.629,39.6695,12.0834,-26.203,-39.6383,0.66874,
1.2465,-22.5767,10.2224,-10.7899,-29.7897,-20.6047,-28.9584,-24.5124,-8.8087,51.3893,25.4584,-10.5308,-23.16,-13.4714,
15.2718,-7.1221,23.709,3.9575,-13.9023,-25.6031,-27.997,-8.9417,-22.3802,62.406,15.0206,4.2011,-7.6704,-26.7631,
0.25545,7.4053,8.1865,17.8201,1.0318,-9.9669,-12.2172,-22.5052,-6.9374,44.5616,0.019332,-10.151,-21.3102,-11.0573,
-13.8599,5.0613,-6.4047,23.3593,15.0699,4.7311,-12.3666,-35.2549,-20.6211,27.7879,-14.0818,-23.6419,-34.1316,3.7061,
-15.195,-4.3929,-11.7455,7.8577,0.065714,-9.6528,-25.7246,-19.0396,-33.4839,40.2206,-6.3876,-8.1234,-17.9837,5.6505,
-0.18329,-13.2796,2.1759,-6.7137,-14.0382,-23.1736,-38.2811,-3.7972,-36.2118,51.9074,8.0957,6.464,-2.8047,-8.7886,
-2.0724,-8.4163,0.012171,-20.4109,-4.3135,-31.9499,-23.035,10.5306,-19.9391,62.893,15.8783,4.9254,9.0558,-22.3613,
-16.048,6.1887,-14.0886,-5.0863,10.0454,-15.9329,-7.5529,-4.2012,-4.6427,45.0194,0.82557,-9.4701,-5.5876,-6.9196,
-29.1852,19.9174,-10.8354,9.3189,3.9844,-0.87696,-6.4577,-18.0491,-18.4641,28.2182,-13.324,-23.0019,-19.3523,7.5956,
-21.6014,26.1075,3.9147,15.7431,8.3209,13.2757,8.0298,-29.3008,-4.0049,23.8761,-26.6245,-7.5218,-32.2912,8.1573,
-6.2053,10.4411,5.3388,0.69854,-6.2784,-0.33637,5.1397,-15.3424,-1.7312,13.293,-39.1271,7.0295,-21.605,-0.46623,
-5.6992,-2.5196,-1.0812,-13.4434,-16.2029,-14.4162,-9.2687,-0.32186,7.5236,26.5955,-22.6794,9.6581,-6.2087,2.6121,
-13.9991,11.7316,-2.542,-11.3801,-6.5889,-27.6512,-22.8126,6.4397,-4.6209,39.0997,-7.9954,6.5365,8.2638,11.0972,
0.94084,17.7694,11.7105,-4.5962,-0.093395,-29.8188,-27.3029,20.1533,-18.4436,50.8537,6.5843,10.2116,8.5443,-3.6687,
-13.2156,16.1946,14.6997,9.4042,14.0122,-13.9296,-11.5647,4.8441,-12.8953,33.7025,-7.9108,-4.5011,-6.0684,-5.1075,
-26.5227,6.5811,-0.28225,8.3317,20.4224,1.0061,3.2292,-9.5466,1.9784,17.5804,-21.5361,-18.331,-19.8043,9.299,
-19.9814,3.1368,-0.90684,2.7486,14.1138,3.2472,6.3533,5.1262,15.9597,30.6255,-6.144,-3.1312,-7.7002,19.55,
-4.6825,0.91523,13.2476,-11.5164,-0.83303,-11.0476,-8.1279,18.9187,0.90212,42.888,8.3247,11.1567,6.8619,4.277,
9.6985,-5.2399,19.7032,-24.9254,-14.883,-24.4848,-21.7402,31.8835,-13.252,54.4147,21.9252,24.5873,20.5501,-10.0796,
-4.9834,6.258,4.421,-9.3299,0.10994,-8.9157,-6.3358,15.8705,1.6431,37.0498,6.5097,9.0121,5.2171,-4.6596,
-18.7844,-2.7589,-9.9443,5.3299,14.2033,5.7193,8.1444,0.8183,15.6445,20.7269,-7.9809,-5.6287,-9.1959,9.72,
-31.7574,11.5067,-6.0566,19.1101,13.8594,19.4761,21.7557,-13.3308,13.957,5.3832,-21.602,-19.391,-22.7441,17.9133,
-15.7519,-3.2837,-9.2523,3.8635,-1.0722,4.2075,6.3504,1.569,-0.98045,19.1603,-6.2059,-4.1275,-7.2795,2.7385,
-0.70681,-17.1867,-22.7972,-10.4683,-15.1079,-10.1449,-8.1307,15.5749,-15.0216,32.1106,8.2664,10.2202,7.2573,-11.5258,
-9.1729,-2.0555,-8.8535,-3.3646,-0.10139,-3.0611,3.9151,0.54041,-0.020321,16.084,-6.3295,-4.1186,-7.2782,3.2658,
-22.7225,-16.0322,-22.4223,10.9373,14.0047,11.2226,17.7802,-13.592,14.0809,1.019,-20.0498,-17.9715,-20.9415,17.1698,
-35.4592,-0.97024,-34.4281,21.5983,21.298,24.6492,30.8134,-26.8765,6.1189,-13.1422,-32.9468,-30.9932,-33.785,13.0893,
-19.2316,-10.0635,-18.2624,6.2024,5.9201,9.0703,14.8646,-11.1639,-8.3482,1.7464,-16.87,-20.2516,-17.6579,-1.7961,
-3.9777,-23.5597,-31.2667,-8.2697,-8.5351,-5.5739,-0.12732,3.6059,-21.9473,15.7416,-1.7578,-4.9365,-2.4984,-15.7883,
-2.2139,-8.0461,-15.2907,6.3264,-22.123,-17.9486,-14.2197,-10.7104,-34.7305,0.69708,-15.7523,-7.0482,5.7856,-28.941,
-16.1811,6.5366,-28.4732,20.0468,-6.6956,-2.7717,0.7335,-24.1678,-18.5467,-13.4447,-28.9072,-20.7253,-8.6616,-13.1045,
-29.3102,-3.3801,-40.8648,16.3019,7.8061,11.4946,14.7895,-36.8177,-17.1932,-26.7381,-41.2727,-33.5818,-22.2419,1.7817,
-13.4516,-6.7353,-24.3129,1.2238,-6.7622,-3.2951,-0.19788,-20.5087,-30.2616,-11.0338,-24.6964,-17.4669,-6.8074,-12.4252,
1.4555,-20.4312,-29.9708,-12.9496,-20.4565,-17.1974,-14.286,-5.1781,-42.5459,3.7282,-9.1146,-2.3188,7.7011,-25.7797,
15.4682,-5.1053,-14.0726,1.9274,-5.1291,-2.0655,0.67115,9.2325,-54.0932,17.6046,5.5323,11.9203,21.339,-10.1329,
0.44008,9.301,-23.2624,15.9117,9.2786,12.1584,14.7309,-5.4214,-36.7476,2.4483,-8.8997,-2.8949,5.9587,4.5751,
-13.6863,22.8429,-35.9666,28.1743,22.8219,25.5289,18.5568,-19.1961,-20.4427,-11.7986,-22.4657,-16.8212,-8.4988,18.4006,
1.2349,16.1484,-19.7086,12.3839,7.3526,9.8972,3.3434,-3.9444,-33.3162,3.0093,-35.2177,-1.712,6.1111,6.6213,
15.2608,1.0795,-5.3088,-2.4591,-7.1886,-4.7967,-10.9572,10.3923,-45.4172,16.9287,-19.0047,2.9663,19.8444,-7.8759,
21.5963,12.0642,-1.4315,-16.4116,7.3428,-13.5254,-9.5511,23.8688,-51.2273,28.8904,-3.7644,-11.3117,32.7538,-11.6037,
6.2005,25.4403,8.3134,-1.3269,21.0022,1.3862,5.1219,8.3366,-34.0537,13.057,-17.6385,-24.733,16.6885,3.1925,
-8.2715,25.0639,21.9146,11.702,27.3669,-0.59687,18.9146,-6.2636,-32.8934,-1.8264,-30.6802,-30.126,1.5872,10.2516,
-10.0764,9.4601,14.1246,-3.1001,22.6756,11.6393,27.1976,-19.9877,-16.8198,-15.8168,-42.9394,-33.4017,2.5084,-4.4635,
-7.9472,3.1677,-0.82285,-17.0141,14.7061,18.5663,11.8407,-11.4302,-8.051,-28.9678,-54.463,-17.6715,10.9998,-3.8207,
6.6297,13.1441,-9.5496,-13.7192,17.8905,3.3524,-2.9698,3.3556,-21.6679,-13.1298,-37.0953,-2.5112,24.4398,4.5421,
20.3319,26.4555,5.1234,1.2039,14.2755,-10.9488,-16.8916,17.2543,-34.4678,1.758,-43.5383,11.7394,37.0734,4.7773,
33.212,31.6108,18.916,5.84,18.5022,-24.3919,-29.9781,30.319,-46.4998,15.7525,-26.826,11.8104,48.949,-9.6093,
33.6545,32.2563,24.1498,8.0327,31.4921,-8.8283,-14.0794,14.3999,-29.6098,0.70739,-39.3164,-2.9982,31.912,-23.1328,
17.5352,20.1535,8.6008,14.6669,43.7026,5.8014,0.86537,-0.56412,-13.7332,-13.4351,-51.0574,-16.9184,15.8973,-7.6448,
27.0245,31.6529,7.4422,12.2622,45.4148,19.5533,14.9134,9.2618,-27.0092,-26.729,-62.094,-30.0033,0.84348,-21.2861,
39.5031,22.1288,12.5877,-2.5735,28.5899,4.2801,-0.081362,22.8061,-39.4887,-11.0252,-44.2684,-17.9287,14.8929,-34.1089,
51.2329,6.7011,-2.2676,-16.5191,12.7745,-10.0767,-14.1765,35.5377,-51.2193,3.7363,-27.5123,-21.9362,28.0993,-46.1624,
34.0589,20.399,1.2932,-1.428,26.108,4.6279,0.77411,19.3055,-34.0462,-10.5879,-39.9615,-34.7201,12.3133,-29.2927,
17.9154,5.0751,-12.8843,12.7577,38.6415,18.4502,14.8277,4.0471,-17.9034,-24.0526,-51.6638,-46.7369,-2.5255,-13.4351,
2.7405,18.8706,-0.55388,23.6839,32.765,31.4432,28.038,-10.2957,-25.2313,-36.7095,-62.664,-33.0173,-16.4739,1.471,
15.1509,3.6383,-14.6206,8.1629,16.6991,15.4566,12.2557,4.422,-37.8174,-20.4069,-44.8042,-16.9362,-1.3855,-12.7173,
16.2752,-10.68,-27.8434,-6.4269,1.5971,0.4292,-2.5796,18.2567,-49.6484,-5.0825,-28.0159,-13.7524,12.7976,-26.0542,
1.1987,4.0608,-12.0728,8.0587,-12.5987,13.4865,11.6752,3.0613,-32.5695,-18.8775,-40.435,-7.844,-2.0702,-10.391,
-12.9732,-10.2828,-25.4484,21.6752,1.4809,26.7773,25.0746,-11.2224,-16.5153,-31.8449,-52.1089,-21.4733,-16.046,4.3325,
-26.2948,4.4342,-19.1049,34.4747,15.1176,39.2707,37.6702,-24.649,-1.4244,-44.0342,-63.0823,-34.2849,-29.1832,18.1725,
-10.6171,-9.9319,-32.0586,18.3062,0.11057,22.8144,21.31,-9.0701,-15.4389,-27.2921,-45.1974,-18.1279,-13.3323,2.9822,
4.1199,-23.436,-44.2351,3.1078,-13.9961,7.3456,5.9314,5.5741,-28.6126,-11.5546,-28.3855,-2.9402,1.5677,-11.2967,
9.3314,-7.9298,-27.481,-11.1786,-26.1325,-7.1952,-8.5245,19.3397,-12.7959,3.2387,-30.0008,11.3362,15.5736,-24.7189,
-5.3285,-8.2303,-36.6416,3.5921,-10.4645,7.3365,6.087,4.0793,2.0719,-11.0556,-42.3008,-3.4439,0.5392,-9.1358,
-19.1088,-2.1445,-33.9354,17.4766,4.2633,20.9964,19.8217,-10.2655,3.0983,-24.4923,-53.8627,-17.3373,-13.5931,5.5123,
-25.8557,-15.2332,-22.7487,2.328,-10.0925,5.6366,4.5324,4.4505,-11.1876,-8.9228,-36.5309,-2.1971,1.3224,19.2816,
-10.2044,-28.4192,-35.4838,-11.9117,-23.5869,-8.8016,-9.8395,18.2834,-24.6163,5.7126,-20.2391,12.0348,15.3431,4.0247,
-1.833,-17.1896,-19.2548,-25.297,-20.1388,-22.3735,-14.9759,29.5206,-37.2394,19.4698,-4.9247,18.0554,28.5225,-10.3168,
-15.823,-2.0582,-15.0491,-9.6792,-4.8305,-6.9311,0.022688,13.6494,-20.905,4.2017,-18.7293,2.872,12.7112,4.4022,
-28.9736,12.1653,-0.046181,5.0016,9.5594,7.5848,14.1213,-1.2696,-5.5507,-10.1504,-31.7055,-11.4003,-2.1515,18.2381,
-13.1352,25.5354,14.0566,18.8015,-5.1142,13.7386,25.7435,12.9066,-16.0262,-8.0439,-28.9195,3.3837,12.0776,11.0441,
-2.3139,9.9033,-0.88681,3.5734,-18.9073,-1.1857,10.0989,26.2322,-29.1646,6.5387,-13.0844,17.2807,25.4529,-3.7185,
-16.275,-4.6569,-14.9336,-2.3665,-17.7727,-15.2146,-4.6071,38.7583,-13.3147,20.2464,1.8007,30.3439,38.0257,10.6046,
-29.3985,9.7225,-12.5124,11.8755,-2.6063,-11.5194,5.5678,22.3328,1.5842,4.9316,-12.4073,26.6236,21.6442,24.0683,
-41.1195,4.1899,2.3383,-2.9371,11.6501,-13.8781,11.3339,6.8928,2.6389,-9.4643,-25.7629,19.9425,24.1712,36.7242,
-24.5524,-2.1621,-0.71852,-4.7945,25.0511,1.0546,24.7539,-7.6208,16.5805,-22.9964,-38.3171,4.6459,36.8209,20.4207,
-30.0621,-3.0489,-14.7754,5.6607,9.7158,15.0913,37.3687,-21.2635,29.6857,-35.7166,-50.1181,2.2,29.6627,22.3791,
-38.4258,4.2512,-27.9889,7.3539,-4.9671,0.085813,21.0265,-5.8877,13.8046,-19.4736,-33.011,16.168,41.9829,24.0867,
-29.0031,11.1123,-26.5771,5.8962,-18.7691,-14.0193,5.6649,8.5655,-1.1237,-4.2052,-16.9304,29.2979,53.564,23.658,
-13.163,-2.7708,-16.8494,-8.5575,-24.0112,-27.2782,-8.775,22.1516,-15.1563,10.1471,-1.8145,25.7742,64.4501,20.2051,
-26.4732,-16.7046,-18.3796,-14.7868,-8.4705,-11.5415,5.8515,6.7225,-0.14691,-4.5617,-15.8057,10.1278,46.4831,28.652,
-38.9848,-23.9697,-31.3768,-1.1905,6.1377,3.251,19.6004,-7.7808,13.9619,-18.388,-28.9573,-4.5799,29.5941,27.4407,
-25.5956,-8.4315,-15.3942,12.981,11.1207,17.1559,26.6918,3.6024,-0.97581,-23.5192,-23.2869,-8.6395,13.7185,11.6942,
-9.9598,-22.0256,-14.4705,-1.8979,-3.6465,2.0266,10.9903,17.4862,-15.0173,-8.0081,-7.7897,5.9789,26.9954,-3.1074,
4.7378,-34.8041,-27.7023,-15.884,-17.5277,-12.195,-3.7691,30.5371,-28.2162,6.5724,6.7777,10.8379,39.4756,-17.021,
-1.3796,-18.6158,-11.9402,-0.83098,-2.376,2.6367,10.557,14.6048,-12.4233,-7.9219,-7.7289,-3.9124,23.0071,-1.8997,
-15.3968,-6.8241,-25.3238,13.3189,11.8665,16.5785,24.0236,-0.37145,2.4221,-21.5466,-21.3652,-17.7776,7.5267,12.3143,
-28.573,7.6853,-14.7881,13.1613,22.8462,23.4767,33.2574,-14.4492,16.3768,-34.3538,-34.1833,-21.5543,-7.0249,25.6754,
-12.7586,-6.8758,-27.1176,-1.7284,7.3754,7.9681,17.162,0.51778,1.2942,-18.1926,-18.0323,-6.161,7.4966,10.0349,
2.1069,-20.5633,-31.5912,-15.7247,-7.1671,-6.61,2.0322,14.5867,-12.8834,-3.001,-2.8504,8.3086,21.1468,-4.6672,
4.5226,-5.2295,-15.5958,-0.68122,7.3629,7.8866,12.8272,-0.38849,-26.2104,-16.921,-16.7793,7.0617,12.3864,-18.4872,
-9.8488,0.16756,-28.76,13.4597,21.0212,21.5134,26.1575,-14.4652,-10.5378,-30.0057,-29.8726,-7.462,-2.4568,-3.2779,
-23.3578,5.7495,-40.76,26.7521,19.2521,34.3226,38.6881,-27.6973,4.1945,-42.3054,-42.1802,-21.1143,-16.4094,11.0187,
-7.8564,-8.6955,-25.6058,11.047,3.997,18.1633,22.2668,-11.9354,-10.1572,-25.667,-25.5494,-5.7474,-1.3248,-3.7424,
6.715,-22.2738,-28.6442,-3.7159,-10.3428,2.9735,6.8308,2.8807,-23.6478,-10.027,-9.9164,8.6974,12.8547,-17.6179,
20.4121,-6.8373,-12.8256,-17.5929,-16.5982,-11.3049,-7.6791,16.8079,-8.1289,-2.817,0.33633,12.2419,26.1834,-26.6209,
5.0874,1.5737,-26.156,-2.4373,-1.5023,3.4734,6.8817,1.6994,6.4588,-16.748,-13.7838,-2.5926,10.5124,-10.9236,
-9.3179,15.5793,-29.1619,11.8089,10.921,17.365,20.5688,-12.5026,20.1713,-29.8431,-27.0568,-16.5371,-4.2184,3.8318,
-8.3844,11.7284,-13.3122,0.42563,-3.8343,2.2231,5.2346,2.3476,4.861,-13.9525,-11.3334,-1.4448,10.1347,3.3612,
6.2187,-3.0753,-20.5133,-13.6999,-17.7042,-12.0103,-9.1794,16.3067,-9.5306,0.98466,3.4466,12.7419,23.6267,-10.9405,
12.0796,-16.9908,-5.1825,-26.9779,-5.2169,-25.3897,-22.7287,20.5458,-20.2765,15.0256,13.9155,0.28518,36.3091,-24.384,
-2.7452,-1.8713,8.9878,-11.2592,9.1961,-9.7663,-7.2649,5.2131,-4.9599,0.024043,-1.0194,-13.8319,20.0305,-8.821,
-16.6805,12.341,22.5485,3.5163,22.7444,4.9197,7.271,-9.1997,9.4377,-14.0774,-15.0583,-12.6276,4.7287,5.8083,
-12.3887,16.1746,7.0956,3.8136,7.2797,-5.6763,4.8003,5.4523,-5.2286,-23.5335,-16.9644,2.2301,18.545,5.968,
2.4547,1.1041,-7.4301,-10.5152,-7.2571,-19.4357,-9.5877,19.2251,-19.0149,-8.0215,-1.8466,16.1963,31.5323,6.6264,
-11.7926,2.43,-20.3352,3.7077,-20.9217,-32.3696,-23.1124,32.1716,-3.774,6.5598,12.3642,29.3245,43.7403,20.3288,
-25.1851,16.3842,-5.0151,17.5852,-5.5664,-16.3274,-7.6257,16.1413,10.5525,-7.9338,-2.4776,40.1677,27.0159,33.2091,
-15.1654,7.4011,6.6038,6.4967,-1.1656,-5.8228,-9.8431,1.0729,-4.1807,-17.9992,-16.429,32.1652,11.295,35.0436,
-0.15552,5.9396,11.2908,7.1233,13.0044,8.6266,4.8475,-13.0915,10.1701,-31.0193,-29.5432,16.1353,-3.4827,30.9071,
-14.2462,1.5169,-3.4866,7.7129,21.5089,14.3425,18.6567,-26.406,23.6599,-43.2581,-41.8706,1.0672,-17.3738,37.1868,
-9.8338,1.9341,-10.0201,2.6751,6.1184,-0.61807,3.4373,-10.7217,8.1403,-26.5626,-25.2584,15.1032,-2.2313,20.8556,
4.8562,0.8016,0.74759,-5.62,-8.3487,-14.681,-10.869,4.0216,-6.4481,-10.8689,-9.6429,28.297,12.0025,5.5042,
12.324,-11.9551,2.2284,-15.9575,-21.9478,-27.9001,-24.3168,17.8803,-20.1612,3.8833,5.0357,40.6992,25.3824,-8.926,
-2.5155,0.96306,2.0952,-0.90008,-6.5309,-12.1261,-8.7578,2.7075,-4.8515,-10.4497,-9.3665,24.1572,9.7594,5.7095,
-16.4645,-8.754,-12.1305,13.2539,7.9609,2.7015,5.8676,-11.5549,9.5396,-23.9227,-22.9045,8.6078,-4.9261,19.467,
-29.4703,-1.1121,-15.096,3.068,8.8737,-4.2028,2.0903,-20.7885,-1.44,-10.929,-24.7143,-6.0087,-18.7306,11.5558,
-13.602,-15.1454,-20.29,-11.2161,-5.7587,-18.0507,-12.1351,-5.4411,-15.4536,3.8267,-9.1315,7.8098,-3.5067,-3.2376,
1.3141,-28.3366,-26.1895,-24.6431,-19.5132,-31.0676,-25.507,8.9853,-28.6264,17.6971,5.5164,8.3579,10.8037,-17.1433,
4.0459,-12.5364,-10.5181,-9.0645,-4.2424,-15.1036,-9.8766,-5.6538,-12.8088,2.5353,-8.9146,-3.835,-3.9445,-2.0147,
-10.2969,2.3158,-23.987,5.5793,10.1121,-0.09736,4.816,-19.4146,2.0598,-11.7168,-22.4797,-17.7049,-17.8079,12.2062,
-23.7791,16.2768,-24.581,19.3446,23.6054,14.0085,18.6271,-32.3497,16.0362,-25.1138,-35.2309,-23.3858,-30.8394,25.5738,
-8.2523,1.2002,-21.5809,4.0839,8.0891,-0.93203,3.4094,-16.3087,0.974,-9.507,-19.0171,-7.8826,-14.889,9.9394,
6.3428,-12.9718,-19.2696,-10.2611,-6.4963,-14.9761,-10.8951,-1.2302,-13.1844,5.1634,-3.776,6.6903,0.10431,-4.757,
20.0623,1.9065,-4.0134,4.4545,7.9935,0.02246,3.8586,-4.5807,-26.4934,-9.2464,-17.6495,12.1489,14.198,-11.2138,
4.7585,15.8921,-17.8726,18.2873,21.6139,14.1211,17.7271,-18.4058,-10.8038,-22.7916,-30.6905,-2.68,-0.75383,3.559,
-9.627,1.8555,-30.9003,31.29,31.6348,27.3738,30.7634,-31.4015,3.9445,-35.5241,-42.9491,-16.6192,-14.8086,17.4455,
5.0506,-9.4393,-25.6215,15.3126,15.6367,11.6314,14.8176,-15.4174,-10.3922,-19.2926,-26.2721,-1.522,0.17991,2.2988,
18.8476,-22.9729,-20.5261,0.29386,0.59849,-3.1665,-0.17142,-0.39235,-23.8687,-4.0351,-10.5958,12.6693,14.2691,-11.9392,
25.9836,-8.0037,-14.2108,-13.8238,1.8202,-17.0765,-14.2611,13.7312,-36.5366,3.8324,-7.4179,4.792,27.513,-18.3399,
10.3246,6.5765,-27.4582,1.1057,15.811,-1.9519,0.69453,-1.1927,-20.2444,-10.4976,-21.0729,-9.5955,11.7622,-3.1395,
-4.3949,20.2819,-38.1458,15.1393,28.9623,12.2652,14.7529,-15.2211,-4.9297,-23.9677,-33.9085,-23.1198,-3.0435,11.1488,
-1.8566,14.7585,-21.7571,0.13096,13.1246,11.6636,-0.23231,-0.20785,-18.7339,-8.4296,-17.774,-7.6326,11.2391,9.2228,
12.3548,-0.227,-16.7586,-13.9769,-1.7629,-3.1362,-14.3184,13.9046,-31.7099,6.1761,-2.6075,6.9253,24.6647,-5.4306,
6.1543,5.2438,-16.262,0.96172,-8.7743,-10.7082,-24.2683,27.1703,-37.8345,15.9721,6.699,9.5592,17.8609,8.9953,
-8.3149,19.0292,-7.6604,15.004,5.8522,4.0343,-8.7122,11.4401,-21.4644,0.91375,-7.803,-5.1144,2.6893,22.5555,
-21.916,27.6805,-0.083667,18.3044,19.3599,17.8923,5.9106,-3.3463,-6.0766,-13.2411,-21.4348,-18.9075,-11.5721,35.3022,
-6.5011,16.3604,3.4799,3.1061,19.724,24.2034,19.6559,10.9545,8.388,-3.5637,-23.4661,-3.673,-0.97834,22.7764,
7.989,1.2788,-10.8289,-11.1803,4.4405,8.6512,4.3766,24.3972,-6.2153,10.7502,-7.9582,10.6473,9.2469,8.192,
-2.1486,4.6268,-16.9218,1.4229,-2.5686,-4.7103,-9.986,37.0334,-16.25,24.2052,6.6193,16.6174,4.1175,12.276,
-5.0691,18.4492,-1.8065,15.4375,11.6855,9.6724,4.7131,20.7114,-1.175,8.6528,-7.8778,24.7714,-10.2295,25.6395,
-0.18991,22.0516,0.97728,22.2709,15.6937,23.192,12.8325,10.5862,-15.2045,-1.899,-19.4718,29.893,-23.7158,20.6768,
-1.7042,6.6285,1.4269,13.3093,28.8521,35.9005,26.1625,-4.149,-0.19222,-15.8851,-32.4035,13.9994,-36.3928,33.5362,
-15.7019,-1.5284,-12.7587,10.4773,13.5287,43.2988,38.6928,-18,13.9193,-29.032,-44.5593,-0.94052,-48.3092,44.3664,
-0.6598,12.6633,-2.976,-4.2513,13.7344,32.5673,22.2712,-2.82,-1.0158,-13.1901,-27.7857,-12.8433,-31.3107,27.6044,
13.4798,10.5121,-0.25628,-18.0962,6.3014,16.5133,6.8349,11.4492,-15.0549,1.7013,-12.0186,2.0273,-15.3321,11.8482,
16.3636,9.8821,-1.2571,-16.7696,-8.1767,1.4225,-7.6752,24.8622,-28.2516,15.6993,2.8026,16.0056,-0.31213,-2.9627,
1.2818,8.7803,-8.8073,-1.6634,-16.4622,15.4371,6.8853,9.2705,-12.4565,0.6573,-11.4656,6.1618,-14.3934,11.315,
-12.8951,-5.8466,-22.3789,12.2955,-2.2566,28.6109,20.5722,-5.3857,2.3909,-13.4821,-24.8777,-8.3079,-27.6298,24.7361,
-26.2214,-16.3048,-16.5944,5.9663,11.9788,20.2853,32.6885,-19.1626,16.3474,-10.7741,-19.452,6.2906,-40.072,25.6598,
-10.5481,-14.3105,-1.4987,-8.4917,-2.8399,4.9682,16.6272,-3.9128,1.2666,3.9724,-4.1849,20.0132,-23.5677,10.0202,
4.1848,-27.5519,-11.4425,-22.0822,-16.7695,-9.4299,1.5296,10.4219,-12.9094,17.834,10.1662,32.9124,-8.0536,-4.681,
-10.1663,-11.7988,-1.6059,-6.6572,-1.6634,5.2359,15.5378,-4.3034,1.9652,2.664,-4.5438,16.8376,-21.6704,-13.8182,
-23.6564,3.0092,-15.6096,7.8422,12.5364,19.0218,28.7055,-18.1452,15.9472,-11.5959,-18.3711,1.7274,-34.4702,1.1109,
-36.337,14.655,-28.773,21.4717,25.8842,31.9805,41.0832,-31.1565,17.2914,-25.0001,-31.3689,-12.4763,-46.502,15.1442,
-20.0568,-0.32427,-12.9466,6.0834,10.2312,15.9616,24.5182,-15.1871,2.1539,-9.4001,-15.3867,2.3723,-29.6119,0.13555,
-4.7533,-14.4048,1.9302,-8.3816,-4.4827,0.90394,8.9471,-0.17585,-12.0753,5.2639,-0.36353,16.33,-13.7351,-13.9726,
9.6319,0.55948,15.0317,1.137,9.8863,12.9168,18.4435,5.8006,-0.94317,-9.1519,-14.4417,2.7758,1.189,0.96577,
-5.0461,0.90035,0.02981,15.1688,23.3931,26.2418,31.4369,-8.6474,13.2134,-22.7028,-27.6752,-11.4907,-12.9824,15.0078,
-18.8433,9.9969,-14.072,28.3587,26.8326,38.7673,43.6507,-22.2286,26.5206,-35.4406,-40.1147,-24.9013,-26.3034,28.2074,
-3.6127,-2.8029,0.87234,12.5572,11.1226,22.3412,26.9316,-6.7949,10.8294,-19.2142,-23.6078,-9.3072,-10.6252,12.4149,
10.7041,-16.7347,1.1949,-2.2963,-3.6447,6.9008,11.2157,7.7128,-3.9204,-3.9614,-8.0913,5.3512,4.1123,-2.43,
24.1618,-12.3063,1.1232,-16.2585,1.8974,-7.6133,-3.5572,21.3501,-17.7852,8.9849,6.4941,9.6052,17.9656,1.4082,
8.6121,2.5321,-13.0442,-1.183,15.8835,6.9435,10.7562,5.9691,-2.6181,-5.6542,-7.9955,-5.0711,2.7876,15.4237,
-6.0046,16.4802,-0.70314,12.988,29.0305,20.6269,24.2109,-8.4891,11.639,-19.4149,-21.6158,-18.8669,-11.4796,28.5983,
8.4557,2.0338,-4.7282,-1.8913,13.1887,5.2893,8.6582,6.1203,-3.1593,-4.15,-6.2188,-3.6348,3.3091,12.7824,
22.0483,-12.1882,-18.5445,-15.8778,-1.7026,-9.1281,-5.9613,19.853,-17.0698,10.199,8.2543,10.6832,17.2106,-2.0846,
10.0495,2.6431,-4.8566,-1.3334,-11.767,-22.6804,-19.7036,32.7619,-30.1456,23.6871,21.859,16.142,2.078,2.1073,
-4.6535,16.5845,9.5348,12.8466,3.039,-7.2196,-4.4214,16.6962,-14.2368,8.1658,6.4475,1.0734,-12.1467,16.0809,
-18.4743,29.6894,19.7718,26.1758,8.5825,7.3136,9.9439,1.5944,-12.4995,-6.4241,-8.0394,-0.64895,-25.5179,29.216,
-3.2658,13.8081,8.9272,10.5053,7.5593,8.3995,20.023,2.007,-0.057339,-20.1387,-0.94906,8.0318,-33.6735,23.6638,
11.0301,11.08,2.7991,-4.225,3.5472,-6.2045,8.1459,15.9865,-2.595,-4.8304,13.2079,21.6499,-17.5531,23.7696,
-3.7317,-0.26052,-8.0436,-4.988,-10.7657,-19.9322,-6.4429,29.1273,-16.5393,9.5595,26.5154,6.2509,-24.4992,8.2435,
-14.3168,13.8551,6.539,9.4113,-0.086528,-4.6363,-2.1238,25.1061,-29.647,-5.1141,10.8245,10.4509,-37.1293,-2.5519,
-4.3077,-1.0762,5.7718,14.5724,-14.1813,9.7419,-16.0964,25.6327,-36.2703,9.2927,13.8679,23.9238,-40.6273,-4.4327,
-10.6572,-9.1452,-7.2832,21.3234,-9.9062,23.2574,-1.0306,9.9947,-19.9941,-5.3648,-1.0642,8.3884,-52.2896,9.9333,
-4.4263,5.5035,3.8286,34.144,4.7882,26.5703,13.1313,-4.705,-4.6944,-19.1429,-15.1004,-6.2149,-51.3204,23.4373,
5.498,11.4068,4.1076,17.9953,0.56791,10.876,-1.7566,9.6773,-18.5128,-3.8944,-0.094341,-19.942,-34.1412,7.931,
19.2682,-3.3776,5.8945,2.8156,-13.5662,-3.8765,-15.7512,23.1967,-31.502,10.4393,14.0113,-4.6455,-17.9927,-6.6448,
28.4136,-2.2921,4.5241,-11.4533,-24.0697,-17.7439,-28.9061,35.9049,-43.7119,23.9129,27.2706,9.7332,-2.8131,-20.3461,
12.6088,11.9455,0.69436,3.3339,-8.5255,-2.5793,-13.0718,19.6506,-26.9892,8.3782,11.5344,-4.9508,-16.7444,-5.0254,
-2.2478,25.3287,-5.4475,17.2339,6.086,11.6755,1.8125,4.3716,-11.2698,-6.2245,-3.2577,-18.7537,-29.8397,9.3762,
-16.2129,11.876,1.4878,28.4002,19.8209,11.3499,15.8038,-3.6494,-22.152,-19.2022,-4.7212,-3.5285,-42.1493,22.9136,
-1.1401,-2.9366,-12.7015,12.5962,4.5316,-3.4311,0.75555,10.6696,-34.9229,-3.95,9.6621,10.7832,-25.5204,7.4388,
13.0283,-16.8604,-11.565,-2.2596,-9.8403,-17.3253,-13.3898,24.1294,-46.9275,10.387,23.1824,24.2362,-9.8891,-7.1076,
-1.613,-12.5578,3.2289,-1.8833,-10.6415,-2.1857,1.5136,8.5816,-30.0119,-4.3362,7.6914,8.6821,-23.3958,-20.7811,
-15.6162,2.2957,12.3195,12.3297,4.097,12.0454,15.5228,-6.0333,-14.1111,-18.1761,-6.87,-5.9389,-36.092,-5.4342,
-28.7792,16.2579,-2.5196,25.6899,14.6607,25.4227,28.6914,-19.7713,-24.4484,-31.1855,-20.5578,-17.4085,-48.0265,8.9918,
-12.9525,4.3671,1.5645,10.0485,-0.31897,9.7973,12.8699,-4.485,-37.0815,-15.2144,-5.2244,-2.264,-31.0449,-5.6477,
1.9247,-9.9949,-12.6293,-4.6544,-14.3998,-4.8905,-2.0023,9.8841,-48.9566,-0.20152,9.1891,11.9719,-15.0822,-19.4088,
15.9092,3.6878,0.19503,-11.4918,0.56416,2.8945,12.2179,15.0173,-60.1192,-14.2894,-5.4623,-0.17104,-0.077293,-4.1443,
0.85463,17.5665,12.8919,3.2977,14.6303,16.8208,25.5848,0.016255,-42.4121,-27.5321,-19.2345,-14.2608,-14.1727,10.2044,
-13.2966,26.3051,2.9684,17.1998,24.9364,29.9116,38.1497,-14.0847,-40.1349,-39.9801,-32.1804,-27.5051,-27.4223,23.6921,
1.6011,10.6268,-11.3097,2.0678,9.3402,14.0169,21.7607,0.86036,-51.8268,-23.4813,-16.1496,-11.7548,-11.677,8.1706,
15.6051,-4.1108,-24.7311,-12.1562,-5.3202,-0.92414,6.3551,14.9087,-62.8172,-7.9724,-1.0806,3.0505,3.1237,-6.4197,
0.56878,-16.8408,-9.1473,-0.2434,-19.101,-14.9687,-8.1262,28.1142,-73.1482,6.6059,12.7093,4.9008,17.0362,-10.1013,
-13.5654,-6.1711,5.5016,13.8712,-3.8549,0.029432,6.4614,12.3274,-54.6593,-7.8905,-2.1533,-9.4932,1.9141,4.6048,
-26.8514,-1.2259,10.7634,14.1897,9.8344,14.1277,18.4083,-2.5123,-65.4797,-21.517,-16.1241,-23.0236,-12.3008,18.4285,
-11.1403,-14.3696,4.0165,-0.76172,-4.8557,-0.81999,4.0865,11.7385,-75.6509,-6.126,-1.0566,-29.0274,-2.2779,3.2228,
3.6281,-7.9155,10.3849,-10.5086,-18.6643,-14.8708,-10.2587,25.1342,-85.2119,8.3416,13.1068,-13.1857,11.9587,-11.0706,
4.4273,6.285,22.4709,4.2219,-31.6445,-28.0785,-22.9943,37.7261,-94.1992,21.9411,-1.7797,-8.1935,0.19156,-17.523,
-6.0058,18.1073,25.1885,18.0686,-15.6458,-12.2938,-7.5146,21.3625,-85.7923,6.5246,-15.7729,-21.8019,-13.9199,-2.3716,
-1.5786,2.9209,9.5771,26.9108,-8.8754,1.5273,7.0363,5.9808,-94.7448,-7.9669,-28.9265,-29.7781,-27.1847,-5.1463,
12.6161,2.1041,8.361,27.8373,5.7571,-1.1064,20.7141,11.2134,-74.9601,-21.5889,-41.2909,-13.8914,-11.4537,9.2624,
5.8922,12.6531,10.401,27.6923,11.6461,-15.14,5.6393,24.6406,-56.3625,-11.786,-52.9135,-8.8574,3.3331,22.8067,
-8.5613,-1.8312,13.3355,11.9307,-2.7777,-20.4651,-8.7991,37.2622,-67.0808,3.0212,-54.9826,-22.4259,-10.9669,7.3383,
-11.2318,4.8861,6.9434,4.9804,-7.1865,-5.1372,5.8289,34.7858,-77.1559,-11.2601,-65.7836,-21.2142,-24.4089,-7.202,
-1.9155,17.3021,-0.081654,18.7816,-16.4141,-9.7789,0.90412,46.7986,-86.6266,3.5155,-67.0546,-5.8413,-8.8444,-7.2776,
-15.5252,9.6565,2.4649,31.7547,-1.3293,4.9078,11.5251,29.8907,-73.5625,-10.7954,-77.1314,-15.524,-16.5801,7.259,
-11.5443,16.1933,13.5009,43.9494,12.8505,18.7133,24.9336,13.9973,-55.0487,-24.2477,-86.6035,-28.6926,-29.6853,20.9235,
1.857,7.5963,10.1487,27.2125,4.2139,3.4905,9.3376,27.2574,-65.8458,-15.3003,-80.6579,-29.6465,-16.3463,5.7019,
15.8455,-6.0768,2.4232,11.4797,-10.1389,-10.8189,-5.3227,39.722,-75.995,-0.28227,-61.7184,-13.7677,-1.2655,-8.7403,
26.7212,-14.3535,0.75261,-3.3091,-23.6306,-24.2698,-19.1033,51.4387,-85.5353,13.8347,-43.9153,1.1584,12.9104,-10.8913,
11.018,0.60768,14.8075,10.9895,-8.1127,-8.7136,-3.8571,34.2524,-94.3968,-1.0954,-55.3804,-13.0111,-1.9642,3.8622,
-3.7431,14.6712,28.019,24.4301,6.474,5.9092,10.4743,18.0972,-85.6827,-15.1297,-66.1576,-26.3304,-15.9464,17.7305,
-1.245,5.4167,12.2379,35.9415,-8.0144,1.6217,23.9458,2.9114,-94.6417,-28.3219,-76.2881,-17.6335,-29.0896,2.5667,
12.9297,2.0414,-2.0882,19.685,-21.6336,-12.5756,8.4091,16.8367,-103.0632,-12.5226,-57.6108,-2.4755,-13.2442,-1.0126,
23.9804,0.39419,-15.688,9.7278,-34.4355,-25.9211,-6.1955,29.9265,-110.9794,2.3288,-40.0542,-13.8853,1.6505,-15.0518,
12.3751,14.4705,-0.64668,23.2441,-18.2694,-10.2658,8.2763,14.0309,-106.2472,-11.911,-51.7509,-27.1522,14.3943,-19.8735,
-2.4674,27.7023,13.4921,35.9495,-3.0732,4.4501,21.8797,-0.91095,-85.7724,-25.2963,-62.7459,-39.6231,-0.56935,-4.5811,
7.2051,40.1402,26.7826,47.8925,11.2112,18.2831,34.6669,-14.9563,-85.0673,-37.8785,-73.0811,-28.8714,-14.6352,9.7938,
20.8728,23.6318,11.0756,39.3201,-3.5615,3.0861,18.4869,0.041087,-94.0632,-21.5058,-54.5963,-13.0391,0.34293,-4.8939,
22.8043,8.1139,-3.6889,22.8609,-17.4478,-11.199,3.2777,14.1386,-102.5194,-6.1155,-37.2205,-10.0894,14.4224,-18.7002,
10.7606,7.7603,2.7664,16.2727,-2.301,3.5729,17.181,27.3903,-110.4683,-19.8485,-49.0873,-23.584,27.657,-24.6954,
-3.9851,21.3947,16.7004,29.3963,11.9371,17.4585,30.2502,11.6469,-89.7402,-32.7576,-60.242,-36.269,11.8976,-9.1136,
-11.5051,14.6533,24.474,41.7326,25.3209,30.511,42.5352,-3.1519,-98.4558,-44.8922,-70.7275,-48.1928,-2.9163,5.5332,
0.36914,-0.32587,8.9056,25.1286,9.7016,14.5804,54.083,11.1372,-106.6484,-28.0986,-52.3838,-58.9202,9.8335,-8.8988,
8.9893,7.1853,-2.4383,9.5209,-4.9805,-0.39446,36.7381,24.569,-114.3495,-12.3127,-35.1408,-41.285,23.3435,-22.4649,
-1.2093,13.3621,11.808,23.0496,4.3341,-14.4708,30.3606,37.1948,-93.3885,-25.674,-47.1324,-24.7079,18.0099,-9.4248,
-8.2539,17.6436,18.8592,35.7667,18.1741,0.49745,42.639,20.8631,-73.6852,-38.2335,-58.4044,-37.3254,2.8293,5.2407,
-0.13329,7.9432,10.1023,47.7207,15.6932,14.5676,54.1806,5.5113,-83.3641,-50.0395,-69.0002,-49.1859,-11.4404,19.0262,
-3.1751,-6.6334,9.4957,32.041,28.8516,-0.40645,65.0298,19.2807,-92.4623,-61.1371,-78.9601,-51.8272,3.346,3.7846,
-4.5093,-13.9936,15.5348,16.0185,15.5622,-14.4821,47.028,32.2238,-101.0145,-43.3689,-60.1225,-34.9915,17.2452,-4.4422,
8.4694,0.94602,28.7027,29.1574,0.52843,-15.2721,36.8485,44.3904,-109.0537,-26.6668,-70.6152,-39.5004,13.6684,-13.8345,
0.33633,14.9893,41.0806,41.5079,14.5967,-0.25577,48.7376,27.627,-116.6104,-39.1668,-80.4783,-48.8221,-1.2517,-5.3795,
-3.7506,26.5579,38.8833,53.1175,27.8209,13.8596,59.9134,11.8694,-116.7853,-50.9168,-89.7496,-31.7928,1.2317,9.0433,
-6.0677,20.3884,23.8417,61.3819,28.8271,-0.93821,63.7028,3.1574,-95.6781,-61.9618,-98.4646,-32.294,4.7154,22.6007,
-10.2787,5.44,8.3112,55.1579,12.9975,-12.5741,45.7806,17.0679,-75.8375,-72.3441,-106.6567,-32.8975,-3.1929,35.3446,
-15.2534,-8.9864,3.6115,37.7484,-1.8824,-4.1943,42.9005,30.1439,-85.3872,-53.9034,-104.004,-38.549,6.6579,19.1239,
-10.2719,-12.1395,17.4948,22.6411,12.3305,10.1574,54.4264,42.4352,-94.364,-37.7468,-103.8639,-22.1361,20.3585,3.8765,
-13.2137,-1.7524,19.1215,28.9075,12.9821,-4.5521,39.603,53.9891,-102.8021,-21.382,-95.09,-28.299,33.237,-2.3225,
-24.1135,9.0279,12.3822,41.2731,4.5773,9.8211,51.3268,36.6498,-82.534,-34.1991,-103.4846,-40.7011,17.1427,11.9169,
-20.6328,22.5863,21.8058,52.8967,18.4027,23.3318,62.3472,20.3508,-63.482,-46.2472,-111.3755,-35.8516,2.0142,25.3018,
-22.4457,7.1311,6.3974,40.3322,3.1985,11.0155,65.4819,5.0297,-73.773,-57.5723,-118.793,-38.7843,-12.2067,9.6837,
-6.9989,-7.3968,-7.8458,23.8122,-2.5849,-3.7454,47.453,18.828,-83.4467,-40.018,-97.5654,-22.3572,2.6257,-3.9803,
-15.5948,-13.1865,-21.1006,23.2657,-16.5298,-17.6207,30.5058,31.7983,-92.5399,-23.5169,-77.6115,-25.9648,16.5682,-9.3335,
-8.5589,1.7047,-5.7345,35.9697,-1.438,-2.4634,42.7754,15.7904,-72.8875,-36.2059,-87.0548,-38.5069,1.4741,-14.8737,
-11.6039,15.7024,8.7095,47.9116,12.7483,11.7844,54.3089,0.74296,-54.4142,-48.1335,-95.9315,-50.2965,-12.7144,0.11874,
-6.3327,7.9102,9.4715,38.1878,12.6249,15.1446,65.1504,-13.4016,-65.2494,-59.3455,-104.2756,-49.5806,-8.0185,-4.8383,
8.1473,0.8277,-5.1968,28.2712,-2.2326,0.13591,47.1413,1.5025,-75.4344,-41.6848,-83.9191,-32.5058,6.5626,-17.2566,
12.876,14.878,-7.0522,24.0337,-16.1986,-13.9722,30.2129,15.5123,-85.0083,-25.0837,-64.7839,-16.4554,20.2689,-30.3213,
-1.9966,14.6274,7.4709,31.7423,-1.1267,0.96609,42.5001,0.48159,-94.0078,-37.6787,-74.9969,-29.5681,4.9527,-40.3279,
-15.2279,2.5663,20.3738,43.9377,13.0409,15.0081,54.0501,-13.6473,-74.2674,-49.518,-84.5971,-41.894,-9.4444,-23.8082,
-0.21423,0.88665,18.6431,52.11,26.3584,28.2076,64.9071,-26.9285,-62.0791,-60.6469,-93.6213,-53.4804,-22.9778,-8.2797,
1.4576,7.9506,5.3232,34.8834,12.2026,25.1238,46.9127,-11.2128,-72.4544,-42.9081,-73.904,-64.1309,-7.4991,-21.883,
6.4534,-2.6939,-9.0962,18.6904,11.4704,9.5164,29.9979,3.56,-82.2071,-26.2336,-55.3697,-47.0657,7.0508,-34.67,
11.1499,-5.5821,-7.6668,3.469,24.8822,13.8949,42.298,17.4464,-91.3747,-38.7596,-66.1476,-58.3418,1.1691,-39.1987,
-1.7195,8.8528,4.9936,17.3608,37.4893,27.1612,53.8601,2.2996,-71.7922,-50.534,-76.2787,-68.9413,-13.001,-22.7468,
12.4837,13.5396,3.6771,30.4192,49.3399,39.6315,64.7285,-11.9384,-81.5847,-61.602,-85.802,-78.9048,-26.321,-7.282,
22.5442,-1.3728,-10.6436,14.494,58.4735,28.8798,58.1968,2.8779,-90.7896,-43.8058,-66.5539,-77.113,-10.6417,-20.945,
26.783,9.7593,0.028252,-0.47562,58.5237,13.047,40.605,16.8053,-99.4422,-27.0775,-48.4606,-58.3862,4.0968,-26.6707,
16.5342,11.7149,14.1266,13.6529,40.9123,-1.8358,31.9338,29.897,-79.3757,-39.5528,-59.653,-55.7672,17.951,-19.479,
16.0504,25.112,26.6301,26.9337,42.3901,12.3744,44.1177,14.0031,-60.5131,-51.2797,-70.1738,-65.1298,2.7739,-4.2103,
14.5791,37.7052,16.3905,39.4177,53.9467,25.7319,55.5707,-0.93705,-62.8761,-62.3029,-80.0634,-47.122,3.1162,-2.8069,
-0.39563,21.3429,1.307,24.3436,36.6099,10.088,38.1364,13.2192,-45.0036,-72.6647,-89.3596,-47.7194,4.9626,-8.7387,
9.1526,5.9624,-12.8714,28.4754,20.3133,-4.6173,21.7482,26.526,-55.8951,-54.2048,-69.898,-30.7563,18.3909,5.8856,
0.46986,-8.4954,-6.7747,25.7504,4.9945,7.0839,34.5433,39.0345,-66.6414,-54.2979,-75.7921,-43.0109,12.2032,-8.5675,
-0.57528,6.1143,7.7318,38.3054,18.7948,20.7588,46.5707,22.5924,-74.9771,-65.14,-85.3446,-54.5302,10.4541,-18.7287,
-14.6408,-8.3525,-6.8321,42.241,9.3997,5.4133,32.3524,11.9794,-56.3785,-75.3316,-94.3239,-64.1003,-4.2731,-17.6054,
-27.6217,-18.1521,-19.1313,40.2153,-5.2643,-4.5703,21.7699,8.7191,-38.8958,-84.9117,-102.7645,-65.8463,-18.1167,-11.9736,
-24.4387,-18.5877,-28.6591,51.9024,-19.0484,9.804,34.5637,4.6373,-50.662,-93.917,-110.6986,-64.4376,-31.1297,-0.57949,
-8.8724,-15.4386,-16.7721,34.6882,-3.8055,20.0247,46.5899,18.4591,-50.5384,-74.182,-89.9567,-46.4714,-15.162,-10.7122,
-9.2227,-18.5795,-18.8156,18.5069,10.5228,18.8237,57.8945,31.4516,-33.4061,-55.6311,-70.4593,-29.5831,-0.15224,-7.0196,
-11.2115,-24.0727,-20.2288,5.0623,7.3503,3.5943,40.3208,43.6645,-45.5017,-38.1932,-52.1317,-35.1654,13.9569,-4.0563,
-13.5886,-8.5283,-4.9151,18.8586,14.026,17.4786,52.0016,26.9446,-28.6716,-50.0016,-63.1038,-47.1555,-0.98052,-14.9964,
0.95177,6.0834,9.4798,31.8271,27.2844,30.5299,62.9815,11.2279,-12.8513,-61.1015,-73.4176,-40.9023,-13.2554,0.0033953,
-8.2554,-8.3816,-5.189,15.8175,16.1224,14.5981,55.1627,24.6542,-19.9463,-45.6369,-78.5644,-24.3482,1.6399,-4.4385,
6.3399,-10.2871,-18.9776,17.5433,1.055,-0.37776,37.753,37.275,-32.8495,-28.7987,-59.7506,-8.7873,15.6415,9.9278,
-8.1405,-7.1277,-23.9392,28.1829,-13.1083,-14.4551,21.3878,49.1385,-30.5036,-12.9707,-42.0655,5.8399,28.8031,-1.2093,
-10.1937,-7.717,-8.4028,33.6086,1.7782,0.51221,34.2045,32.0902,-14.5734,-26.2925,-53.6416,-8.6105,29.0019,-15.2368,
-1.9567,6.846,6.2014,39.2174,15.7715,14.5815,46.2522,16.0648,0.40103,-38.8149,-64.5231,-9.8587,13.1618,-0.22255,
-15.9393,-7.6647,-8.2707,22.7644,13.3005,-0.39341,32.8014,1.0009,14.477,-50.586,-74.7517,-23.3672,20.3719,-5.2925,
-0.88292,-5.1715,-5.6073,7.2985,-1.5975,-14.4698,16.7333,15.0408,-0.22408,-33.4509,-56.1666,-7.8651,33.2496,-15.1424,
1.203,-18.9612,-19.3709,-7.2394,-15.6016,-27.7016,1.6293,28.2384,-6.8195,-17.3438,-38.6966,6.7068,45.3546,-28.3338,
-2.4273,-31.9235,-12.2422,-20.905,-0.56554,-11.9395,15.6316,32.5374,7.6896,-24.8112,-22.2748,12.0296,56.7333,-12.5338,
3.8185,-15.9081,2.5923,-5.5507,13.5684,2.8768,28.7937,16.4852,21.3283,-37.4226,-35.0383,-0.89205,39.2293,2.3182,
2.0638,-10.5124,-4.0383,8.8823,26.8543,16.8042,41.166,1.396,34.1486,-49.2772,-47.036,-14.9385,22.7756,16.2791,
-9.2435,-23.9816,-17.896,-5.7506,19.7849,1.696,27.1382,15.4123,17.9996,-32.2206,-30.1139,-19.768,35.509,1.2024,
-6.6553,-36.6427,-29.1562,-19.5056,4.4978,-12.5058,11.4099,28.5875,2.8197,-16.1873,-14.207,-4.4819,47.4785,-12.9698,
6.4529,-24.0365,-13.3068,-4.2353,17.8187,-25.8554,17.1999,40.9723,16.7505,-1.1161,0.74538,-5.6044,58.7298,1.9084,
7.5904,-8.4943,1.5916,10.1189,30.8496,-10.2041,30.2679,24.414,29.8455,-15.1491,-13.3993,6.4236,41.106,15.8939,
12.2183,6.1153,2.7808,23.6117,43.0986,4.5081,42.5519,8.8491,42.1547,-28.3402,-26.6954,12.1388,24.5396,29.0403,
22.1609,-8.3516,-11.486,8.095,36.7144,-9.8623,27.0495,22.4182,53.7254,-12.5398,-10.9937,23.1027,37.1672,13.1979,
12.6976,-21.9505,-24.8969,-6.4907,20.4116,-23.3706,11.3265,35.1731,64.6019,2.3126,3.766,20.7,49.0372,1.4901,
19.5611,-11.9916,-9.303,7.9988,5.3266,-19.3204,7.9705,47.1627,74.8258,16.2739,17.64,5.358,52.2216,-4.1913,
7.204,2.8279,5.3551,21.6188,19.107,-4.0611,21.5923,30.2329,84.4363,1.1974,2.4816,-9.0634,34.9883,4.1943,
-7.3282,-11.4418,-4.6254,6.2217,32.0605,3.9422,34.3968,14.319,93.4701,-12.9744,-11.7673,-22.6196,18.789,-5.7161,
0.60256,-18.3812,-15.5313,7.1055,16.0369,-10.3944,18.233,27.5598,101.9619,1.904,3.0387,-7.1625,31.7617,8.7268,
14.6664,-29.9869,-28.6995,15.322,0.9747,-23.8707,3.039,40.0062,82.9492,15.8898,16.9564,7.3673,36.8393,22.3032,
12.395,-37.3377,-28.6364,0.30266,12.1006,-8.3385,16.9567,49.5661,63.8723,29.0364,30.039,-7.1747,37.6793,6.865,
8.0937,-23.4053,-12.8183,-13.8155,25.4746,6.2618,30.0393,32.4921,74.1399,13.1942,14.1367,-20.8443,27.7932,-7.6469,
5.066,-33.6932,-19.032,-17.3209,9.8461,-7.8394,14.1369,44.6426,83.7915,-1.6974,6.7075,-33.6936,21.5506,-3.63,
12.8951,-17.5716,-10.7735,-2.1817,20.4388,6.7309,21.5565,27.864,92.864,-15.6956,-7.795,-19.4985,15.1738,1.6716,
19.2391,-2.4173,-0.97651,12.0492,26.3301,20.4271,34.3632,12.0922,101.3922,-24.4126,-8.478,-4.2286,11.2135,-3.5125,
13.0005,-16.3722,-13.1183,-2.7737,17.6331,5.1015,32.4351,25.4667,109.4087,-8.8479,6.1307,10.1251,24.6407,-17.4017,
-1.8795,-29.4899,-24.5321,-16.7073,30.6752,-9.3046,16.389,38.0387,116.9441,5.783,19.8628,9.7847,37.2623,-4.291,
1.1498,-15.5206,-13.9101,-1.6049,19.8174,-6.7129,5.1044,49.8563,98.396,19.536,32.7711,12.248,49.1265,-8.1003,
7.6897,-0.48936,1.0245,0.14989,26.2547,7.7898,18.8982,32.765,106.5923,4.2639,16.7048,-2.5869,32.0789,-21.7143,
7.7366,13.64,13.2977,-9.5174,38.7794,21.4224,31.8643,16.6991,114.2967,-10.092,1.6025,-16.5317,16.0542,-12.4112,
13.3726,2.9231,-1.6002,-10.9797,28.9611,6.0371,15.8524,29.7971,121.5389,4.6136,15.6064,-1.4398,29.1909,0.5334,
14.6036,9.8644,-15.6042,-2.1878,13.1234,-8.4251,0.80128,42.1093,119.7317,18.4367,28.77,12.7466,41.5395,2.5348,
11.694,12.3229,-8.8353,-16.1566,-1.764,-22.0196,-13.3468,53.6827,98.4478,31.4305,41.1438,26.0818,53.1471,-11.7173,
3.8747,-2.5165,1.8618,-26.5044,12.4419,-6.5984,1.554,36.3618,106.6409,15.4447,24.5752,10.4169,35.8583,-25.1143,
11.2681,-14.1914,7.3421,-10.8141,25.7953,7.8975,15.5608,20.0801,114.3425,0.41803,9.0006,-4.3081,19.6068,-9.5074,
14.6588,-12.3235,-1.232,-14.6065,10.1476,-6.6764,4.0862,4.7753,93.3819,-13.7071,6.1865,-7.7415,10.0561,2.6214,
15.8127,-5.4839,0.87528,-22.8807,-4.5612,-20.3758,-10.259,18.5887,73.679,1.2154,19.9154,6.823,23.5528,-11.6359,
0.76391,-19.2549,-13.2772,-35.6078,-18.3876,-33.2533,-23.7435,31.5734,55.1583,15.2424,32.8204,20.5136,36.2396,-25.0377,
13.2929,-18.7416,-11.0897,-21.913,-3.1843,-18.3083,-8.2188,35.913,65.9488,26.9301,44.9512,31.2425,19.9652,-9.4355,
13.5123,-3.5171,2.793,-6.4982,11.1067,-3.1098,6.3743,19.6582,76.0918,11.2143,28.1541,18.1835,4.6673,5.2307,
1.0094,-6.7308,-9.0658,7.9917,17.9319,11.1768,20.0918,4.3787,85.6263,-3.5585,12.3649,2.9925,-9.7127,15.0838,
15.0488,-17.0027,-11.0644,-6.5878,13.2974,-3.5938,4.7863,18.216,94.5887,10.755,25.723,16.913,4.97,0.078794,
8.1795,-30.0825,-24.5006,-20.2926,-1.6004,-17.4782,-9.6009,31.223,74.8134,24.2097,38.2796,29.9982,18.7718,-14.0259,
18.3639,-14.1776,-8.9305,-23.1428,-15.6044,-30.5295,-23.1248,43.4497,84.4246,36.8571,50.0828,20.1985,29.471,-5.8271,
3.1621,0.77307,5.7053,-7.6542,-0.56812,-14.5977,-7.6373,26.7427,93.4591,20.5457,32.9779,18.4784,13.6027,8.6226,
-11.1276,14.8267,-8.737,-11.6357,13.566,0.37813,6.9209,11.0381,101.9516,5.2129,16.8992,30.5875,-1.3134,9.7642,
-2.5935,-0.16292,-22.3128,-25.0376,16.8188,-13.7446,-6.2034,24.4758,109.9345,19.0002,29.9852,42.8522,12.8654,15.7867,
-13.1138,-14.2531,-35.074,-37.6353,1.7097,-27.0199,-19.9312,37.1073,89.2384,31.9601,42.2861,52.615,26.1934,16.3649,
1.773,-17.973,-18.8696,-33.6114,-12.4929,-11.2987,-23.4447,46.7068,97.9841,44.1425,53.849,35.3581,38.7218,1.283,
0.2755,-4.186,-3.6374,-17.4947,2.3567,3.4792,-7.938,29.8044,106.2051,27.394,36.518,19.1366,22.2985,-7.5698,
-3.8078,-15.1178,-2.4022,-16.8199,13.2649,13.5708,1.3144,13.9161,113.9328,11.6503,40.4541,15.179,6.8606,3.0519,
6.5881,-4.0442,-16.3581,-9.7101,-1.631,-1.3435,-12.8645,24.5057,121.1968,25.0513,52.1268,28.3683,4.2823,5.9181,
17.3763,1.2822,-27.7108,-5.0602,-15.6331,-10.5467,-26.1926,37.1354,99.825,37.6482,63.0992,40.7662,18.1253,-5.6204,
5.6585,-12.8948,-29.6067,-18.8566,-3.2705,1.7778,-10.521,20.8073,79.7355,49.4894,73.4132,24.2202,17.6803,-19.3832,
1.2522,-26.2211,-21.7301,-31.8252,11.0257,9.8047,4.2102,5.4588,89.0514,32.42,83.1085,23.4095,10.5188,-20.8961,
11.344,-24.4071,-19.4094,-26.6256,-3.7358,-4.8836,-10.1424,19.2313,97.8083,44.5748,92.2219,36.1049,21.0711,-5.5423,
2.5293,-20.9093,-18.2453,-39.1281,-14.6956,3.4097,-11.1918,3.9774,90.4699,27.8003,72.5886,19.8386,5.7069,-19.3098,
8.9865,-5.5548,-10.5426,-47.5899,0.28611,10.8295,3.5797,-10.3612,99.1417,12.0323,54.1333,7.9726,-8.7355,-32.2512,
8.9555,-5.0872,-24.0101,-43.2088,14.3689,-3.9202,-8.7022,4.3605,107.2932,25.4103,64.9853,21.5942,5.8886,-16.2161,
-5.6818,-18.882,-36.6695,-39.0907,-0.59319,-16.0187,-22.2801,18.1988,114.9556,37.9857,75.1862,34.3986,19.6353,-1.1432,
-4.9662,-3.6491,-26.6025,-30.6458,-11.0993,-3.8739,-23.6189,31.2069,111.001,49.8066,84.775,46.4347,32.5572,11.7686,
-11.2774,-14.6145,-10.9064,-42.907,3.6667,10.4585,-8.1018,15.2345,118.441,32.7182,65.5885,29.5486,16.5037,-3.0376,
-6.0253,-16.2793,3.848,-42.5005,17.5467,23.931,6.4843,0.22041,125.4345,16.6551,47.5532,13.6757,1.4135,11.2447,
8.4363,-18.3519,-0.18187,-50.117,2.3939,8.3952,-8.0047,-9.0771,122.2435,29.7558,58.8,24.1733,-11.5137,1.4197,
-1.0862,-23.3519,-14.271,-61.21,-11.8498,-6.2085,-21.6244,5.5675,100.8089,42.0704,69.372,16.6218,3.2771,-12.7655,
-11.1885,-21.9508,-27.5147,-71.6374,-25.2388,-19.936,-34.427,19.3334,80.6604,53.6462,79.3097,29.7245,6.2646,-26.0995,
-8.9915,-26.2253,-12.4058,-58.9644,-9.6244,-4.6399,-18.7698,4.0734,89.9208,36.3274,68.8802,28.5835,-8.2113,-10.4336,
2.7314,-21.6019,-7.5952,-41.3265,5.053,9.7385,-3.5436,-10.271,98.6255,20.0478,50.6473,29.9193,-21.8186,4.2925,
16.6675,-15.7303,-5.6143,-24.7469,1.8335,-4.9458,-17.431,-23.7547,83.557,4.7449,48.9994,28.6319,-10.6105,-0.032371,
14.7846,-28.8864,-19.3774,-37.3621,-12.3765,-18.749,-30.4852,-8.2294,64.4435,18.5602,60.1594,12.814,4.1261,-14.1304,
16.4394,-41.2533,-32.3148,-49.2204,-25.7339,-31.7241,-42.7561,6.3643,46.4769,31.5466,70.6499,25.1287,17.9785,-27.3826,
10.878,-26.3375,-16.2759,-40.167,-10.0899,-43.9207,-47.5749,6.625,57.7883,32.7311,80.5109,37.721,2.7998,-11.6396,
-3.8747,-10.6573,-1.1993,-23.657,4.6155,-27.1854,-30.6204,-7.8725,68.421,16.6672,61.5802,21.3577,-11.4682,3.1587,
2.8324,-16.4925,-13.3283,-17.5292,18.4386,-11.4543,-14.6832,-21.5002,78.4158,1.5672,43.7854,17.0264,-24.8801,11.1033,
7.2375,-29.6029,-26.6286,-30.5775,6.7904,-24.867,-27.9022,-6.1102,87.8108,15.5731,55.2583,30.1048,-9.2873,-3.6629,
9.3451,-41.9267,-39.1308,-42.8428,-7.7171,-37.475,-40.3281,8.3565,68.4422,28.7388,66.0428,42.3985,5.37,-8.6604,
22.8844,-25.3111,-22.683,-34.4394,-21.354,-41.7281,-52.0084,21.9551,78.4356,41.1144,76.1802,25.7546,14.3323,-10.1747,
9.9532,-9.6925,-7.222,-18.273,-5.9728,-25.1244,-34.7879,6.5378,87.8295,24.5476,57.5094,10.1093,-0.62762,4.5358,
-1.8274,4.9891,-3.2301,-12.4671,8.4856,-9.5169,-18.6006,-7.9545,96.6597,8.9747,39.9588,23.6028,-14.69,11.0066,
7.9407,-9.4103,-17.1363,-25.8191,-6.1236,-23.0459,-31.5846,6.6228,104.9601,22.5362,51.6613,36.2866,-8.9934,7.8038,
-3.2114,-22.9456,-30.2081,-38.3699,-19.8561,-35.7631,-43.7895,20.3254,84.5625,35.2841,62.6616,31.8351,-2.8613,-6.7644,
11.0813,-13.5691,-14.2957,-36.8445,-4.5648,-19.5174,-31.6381,31.9488,89.1749,47.267,73.0019,28.3996,11.4104,-20.4585,
6.9919,-14.7884,-6.9623,-31.5835,9.8091,-4.2463,-15.6398,15.9318,97.9244,30.331,54.5218,12.5956,-3.3743,-17.4645,
16.2311,-4.2423,-1.97,-25.113,-4.8794,6.9515,-28.8014,0.87592,106.149,14.4111,46.1947,-2.2601,-17.2718,-2.3166,
18.8153,10.1122,0.6898,-16.9987,-18.6867,-2.1079,-41.1734,-5.5449,85.68,27.6465,57.523,7.7744,-30.3355,-16.2776,
20.229,21.8402,-2.9097,-20.5534,-3.5993,-8.5898,-38.3275,8.8878,74.0646,40.0877,68.1716,21.408,-29.8001,-29.4009,
19.0143,6.4298,-6.8024,-33.4202,10.7167,-1.9743,-21.9279,8.997,83.7207,51.7824,78.1813,34.2235,-14.7948,-22.1797,
3.7734,-8.056,-20.4942,-42.7322,14.2748,8.3112,-17.4286,-5.6428,92.7975,34.5755,87.5904,46.2701,-26.107,-6.7489,
-9.8036,-15.9743,-26.515,-26.0682,-0.68172,-6.2875,-30.4829,-2.3886,86.4807,46.6009,96.435,57.5939,-10.4406,7.756,
4.8846,-12.9825,-10.8241,-28.4376,12.4427,8.1898,-14.5539,-16.3453,80.2754,29.7049,76.5489,40.0382,-9.6808,-6.8093,
7.7757,1.8965,3.9253,-40.8314,25.7962,10.7487,0.41934,-29.4646,89.5589,13.8226,57.856,25.3292,-23.2,-8.2999,
-4.8915,-12.3173,-10.4102,-52.4815,10.1484,-3.9962,-13.7058,-13.5967,98.2854,27.0932,68.4846,37.9094,-7.708,6.2981,
-18.698,-25.6783,-23.8856,-61.2923,-4.5605,-17.8564,-26.9835,1.3191,78.2883,39.5676,78.4755,48.4777,-14.8709,-8.1798,
-20.76,-24.2713,-36.5524,-58.123,-18.3869,-30.8851,-39.4645,15.3399,59.491,51.2936,87.867,39.9771,-8.3867,-21.789,
-5.4144,-8.7151,-20.2593,-40.5357,-3.1837,-14.9319,-22.9966,0.31955,70.0215,34.116,68.495,41.6453,-21.9835,-6.3817,
5.2112,-16.1915,-4.9437,-24.0035,11.1074,0.063969,-7.5168,-13.7996,79.9202,17.969,50.2853,39.1466,-34.7645,8.1012,
18.9986,-7.0871,9.4529,-15.1788,-3.6591,-14.0399,-21.1658,-27.0716,89.225,30.9909,61.3682,38.8314,-18.5786,14.8658,
6.8085,-20.7619,-5.2143,-28.3681,-17.5395,-27.2975,-33.9958,-11.3474,69.7715,43.2314,71.7861,22.4015,-3.3639,-0.1261,
-5.2919,-33.6162,-19.0014,-40.766,-30.5872,-39.7596,-46.0561,3.4335,51.4852,54.7375,81.5789,31.5989,-3.6705,-14.2185,
3.6676,-18.6492,-8.7108,-39.6043,-14.6519,-23.2741,-43.6941,-10.8725,62.4961,37.3533,62.5842,43.8029,-17.5503,0.73458,
4.9728,-6.855,-5.6461,-23.1281,-6.415,-7.7776,-26.9724,-24.3202,72.8463,21.0121,44.7291,37.242,-30.5973,14.7905,
18.7744,-10.0026,-1.7494,-17.5396,-17.723,-0.46163,-34.3711,-36.961,82.5756,5.6514,56.1454,49.1075,-19.3702,1.7027,
3.5479,-23.5024,-15.7445,-30.5872,-30.7596,-14.5339,-46.4088,-20.6433,63.521,19.4123,66.8767,32.061,-4.108,-12.4995,
-10.7649,-36.1923,-28.8998,-42.852,-43.0141,-27.7619,-57.7243,-5.3047,45.6098,32.3475,76.9641,28.1037,10.2385,-25.8495,
3.9809,-20.0543,-13.0658,-33.432,-51.884,-40.1962,-68.3608,4.0303,56.9732,44.5067,86.4462,17.7754,4.8082,-10.3326,
0.18352,-4.751,1.8181,-17.3261,-34.6709,-23.6844,-50.1592,-10.3115,67.6548,27.7363,67.1594,9.5918,-9.5803,4.3874,
-9.4862,9.6341,-12.391,-2.4272,-18.4907,-8.1633,-33.0496,-23.7928,77.6955,11.9721,49.0299,23.1163,-23.1054,18.2241,
-1.8002,-5.044,-25.7475,-16.3815,-31.4813,-21.7735,-45.1667,-8.2652,86.4116,25.3538,60.1881,35.8293,-7.6191,18.9237,
12.4078,-18.8414,-38.3027,-29.4987,-43.6924,-34.5671,-56.5567,6.3307,67.1269,37.9326,70.6768,47.7795,6.938,3.6883,
22.9813,-3.9853,-21.9045,-38.1633,-48.6967,-18.3931,-67.2633,17.6435,77.199,49.7566,80.5362,30.8128,-7.5783,-10.633,
14.9935,10.3538,-6.4902,-21.7735,-31.6749,-3.1895,-49.1275,2.4849,86.6671,32.6712,61.604,14.864,-21.2236,4.1049,
17.1438,2.241,7.9992,-15.7583,-15.6744,-6.1825,-45.565,-11.7642,95.567,16.6109,43.8078,28.0722,-34.0501,17.9586,
13.0653,-3.9937,-6.5808,-28.9128,-28.8339,-19.9116,-56.9311,1.3817,75.733,29.7143,55.2793,40.4878,-17.9071,2.7811,
9.7397,-9.346,-20.2859,-41.278,-41.2039,-32.8169,-67.6152,15.3988,57.089,42.0314,66.0626,34.9018,-2.7327,-11.4857,
-4.9446,-22.8852,-33.1688,-52.9013,-32.6312,-44.9479,-71.451,0.37488,39.5637,53.6095,76.1988,18.7077,-0.16067,-24.8966,
9.452,-7.4121,-17.0786,-35.6273,-16.5733,-28.151,-53.0639,-13.7476,51.2899,36.293,57.5269,31.6853,7.9823,-9.3028,
19.5606,-3.4088,-4.1213,-24.6071,-9.8539,-12.3619,-39.0713,-27.0228,62.3125,20.0154,68.1753,43.8841,-6.5966,5.3554,
6.1861,-5.2377,-4.891,-37.2307,-22.48,-0.57055,-49.9444,-39.5014,44.4737,12.3667,78.1847,27.1511,-11.9271,-9.066,
6.8321,0.16006,-9.681,-49.0969,-17.0637,-14.6363,-61.0477,-23.0313,29.0969,25.7247,87.5937,33.1472,-25.3114,-22.622,
7.4384,-12.0502,-23.2002,-60.2511,-18.073,-26.0918,-71.4848,-7.5494,41.4511,38.2813,96.438,45.2583,-27.9928,-7.1647,
-7.1079,-3.7018,-35.9082,-42.536,-31.0886,-10.4263,-53.7373,-21.1965,53.0641,38.7941,104.7518,56.6428,-14.6211,7.3652,
-17.9989,-8.055,-30.9709,-40.2512,-43.3233,-21.8676,-62.2054,-16.1247,63.9802,50.5664,112.5667,67.3443,0.35615,-7.1767,
-7.26,-21.6717,-16.4043,-51.9361,-26.6239,-6.4555,-44.3731,-29.2572,74.2414,33.4324,91.7127,49.2036,7.5852,-20.8461,
7.2756,-17.9633,-1.32,-42.345,-10.9265,8.0318,-27.6107,-41.6018,83.8869,17.3265,72.1099,32.1514,-1.0035,-5.4953,
0.87246,-7.7352,3.9769,-42.8549,-24.3709,-6.5501,-40.0541,-25.0057,80.0313,30.3869,81.8833,38.9984,12.2743,8.9344,
7.4285,-0.66266,-6.9369,-29.6079,-37.0086,-20.2571,-51.7508,-9.4054,61.1295,42.6637,91.0703,49.3676,25.2634,-5.7017,
-7.1172,-14.7229,-20.6207,-41.9315,-40.1394,-33.1417,-62.7458,5.259,49.7023,54.2039,99.7061,47.4217,9.6476,-19.4596,
-19.0246,-27.9395,-14.4337,-52.7664,-23.6311,-17.0532,-44.881,-9.1566,60.8202,36.8516,79.6237,39.4937,-5.0313,-4.192,
-3.7831,-12.1632,0.5323,-35.5005,-8.1132,-1.93,-28.0882,-22.7072,71.271,20.5405,60.7463,51.2241,-18.8294,10.1595,
10.5439,1.6499,5.7174,-19.2704,-21.7264,2.3866,-40.5029,-35.4447,52.8947,26.9335,71.2015,34.0506,-3.5996,19.0747,
6.6207,-12.5491,-8.7256,-32.2142,-34.5228,-11.8566,-52.1727,-19.2181,35.621,39.4175,81.0294,17.9076,10.7164,3.8302,
7.7487,-25.8961,-22.3021,-44.3813,-46.5515,-25.2452,-63.1424,-3.965,34.5007,51.1524,90.2677,16.6988,24.1734,-10.4996,
21.3838,-10.2423,-6.864,-27.6185,-29.6584,-9.7645,-45.2538,-17.8271,46.5307,33.9833,70.7516,17.7301,8.623,4.2304,
11.5927,4.4722,4.0893,-11.8614,-13.7789,4.9214,-28.4386,-30.8575,57.8388,17.8443,52.4065,18.1912,-5.9944,18.0765,
14.9637,3.6959,-10.2561,-9.3572,-7.2266,18.7261,-12.6323,-43.106,68.4685,2.6736,35.1621,31.1997,-2.3442,4.2831,
-0.034136,-10.6259,-23.7407,-22.8957,-20.893,3.5025,-25.9743,-26.4196,57.6448,16.6132,47.1524,43.4277,11.8964,-2.5828,
10.0011,-24.0883,-36.4163,-35.622,-33.7394,-10.8076,-38.5159,-10.7345,40.0861,29.7164,58.4232,54.9221,25.2826,2.1477,
23.501,-8.543,-20.1313,-22.5688,-45.8151,-16.7676,-50.3049,-1.5824,29.9218,35.6928,69.0178,37.5268,37.8657,-12.0812,
11.5498,6.0696,-4.8234,-7.1147,-28.9662,-1.6615,-33.1866,-15.5874,42.2265,19.4512,50.7768,21.1751,21.4937,2.7437,
3.7392,19.8054,0.92417,-8.0789,-13.1282,4.1637,-18.1121,-28.7522,53.7929,4.1842,33.6302,12.4131,6.1041,16.6791,
2.4984,4.5171,-13.2313,-21.6942,-26.4405,-10.1861,-31.1254,-12.927,38.1241,18.0331,45.7124,25.7683,13.4973,1.5783,
13.0239,-6.9379,-22.2297,-25.1011,-38.9541,-23.675,-43.3579,1.9486,21.7366,31.0511,57.0696,38.3222,26.7874,-12.6164,
-1.8575,-20.6216,-24.963,-37.6951,-30.9182,-30.1474,-54.8564,-3.2518,6.3324,35.288,67.7454,21.9228,19.722,-25.9594,
12.354,-5.2843,-9.3652,-21.3334,-14.9631,-14.2386,-37.465,-17.1567,20.0525,19.0707,49.5807,6.5075,4.4387,-10.3018,
22.2877,1.6409,3.0227,-5.9533,-13.4229,0.71575,-40.5684,-30.2273,32.9493,3.8265,32.5059,20.217,-8.6705,4.4163,
10.2755,9.1681,13.5163,-19.6961,-26.7175,-13.4272,-52.2343,-14.3137,31.4808,17.6969,44.6555,11.5132,5.9497,-0.93244,
0.00040586,4.0427,-1.3947,-32.6144,-39.2144,-26.7216,-63.2003,0.64514,15.492,30.7351,56.0762,3.1968,18.9438,-14.9765,
-14.0996,-10.2998,-15.411,-44.7575,-22.7616,-39.2183,-67.3007,9.7565,27.6463,42.991,66.8116,9.6139,8.1489,-26.4118,
-16.4378,-19.9821,-6.1114,-27.9721,-7.2959,-22.7652,-49.1627,-4.9289,40.0875,26.3115,48.7029,23.137,-6.44,-10.7271,
-7.8261,-8.1085,-6.2534,-12.1937,-18.5503,-7.2993,-42.0128,-18.7332,51.7822,10.6328,41.7152,35.8488,7.0295,4.0165,
-4.8145,-21.722,-9.4368,-25.5621,-13.8787,-11.3025,-45.0835,-31.7092,34.5753,-0.81463,52.9379,19.5979,2.0322,-10.3245,
2.5906,-30.2112,5.2294,-38.1284,-4.9124,-24.7244,-56.4785,-19.5328,18.4008,13.3343,63.8616,4.322,-10.2901,-17.1966,
2.4356,-14.2985,1.9996,-43.7343,-18.7176,-37.3409,-67.1898,-4.2608,31.3967,26.6342,74.1299,18.1627,3.5446,-2.0648,
-11.8105,0.65938,-12.2204,-27.0103,-31.6946,-21.0005,-49.0584,3.7535,43.6129,39.1361,83.7821,31.1729,-5.3104,12.1591,
-9.7107,4.4462,-1.9624,-32.8805,-15.6929,-5.6404,-32.0149,13.6955,41.264,50.888,90.8489,29.5699,8.2258,9.1557,
2.5638,-9.9206,-0.31974,-45.0077,-0.65134,5.8814,-15.994,-1.2262,52.8881,33.7347,71.298,13.6957,5.1904,20.2983,
16.51,-5.9013,-4.3674,-28.2072,0.4042,4.5121,-3.7171,-15.2526,63.8148,17.6106,52.9201,18.3324,-9.221,33.1804,
15.6532,-5.5467,-9.189,-33.1239,-13.7201,-9.8586,-17.5941,-23.2471,45.886,30.654,63.8449,3.1324,5.4322,17.0896,
13.1891,-0.63865,-7.1123,-42.8284,-26.9968,-23.3671,-30.6385,-7.7523,29.0328,42.9147,74.1142,-4.8149,19.2063,1.9642,
3.2474,-14.7003,-14.8194,-54.3587,-25.1364,-36.0651,-42.9002,6.8129,13.1908,54.4399,83.7674,9.574,27.8465,-4.8963,
-11.0474,-21.5777,-10.3717,-36.9972,-9.5282,-19.8012,-26.2261,-7.6959,26.4994,37.0735,64.6413,9.6418,12.0757,9.4974,
3.7154,-6.183,4.3506,-20.6774,5.1435,-4.5131,-10.5526,-21.3342,39.0094,20.7491,46.6628,23.1633,-2.7489,23.0276,
17.2181,1.4389,9.3071,-5.3367,-9.2651,8.8412,-20.2202,-34.1541,22.5688,5.4041,29.7631,16.824,11.5161,7.5459,
2.085,-12.7475,-5.3513,-19.1165,-19.2509,-5.7893,-33.107,-18.0049,7.1147,19.1799,42.0773,20.8981,24.9251,-7.0068,
1.3176,-24.8253,-19.1302,-32.0695,-27.7546,-19.5419,-45.2206,-2.8246,-3.6139,32.1291,53.6527,33.7442,37.5296,3.5808,
10.8976,-9.2358,-3.8824,-16.0454,-26.5973,-4.2694,-33.6244,-16.7551,10.7029,16.1013,36.3335,17.6195,21.1778,7.9412,
24.3437,5.4184,10.4505,-0.98263,-10.9015,10.0868,-17.5069,-29.8498,24.1608,1.0352,20.0535,12.4948,5.8072,21.5648,
19.4581,19.1933,23.9235,-13.8729,3.8526,-4.6184,-13.7813,-42.1588,36.8111,-13.1269,4.7503,19.3712,-1.792,11.7626,
4.1906,3.9417,8.3881,-27.1406,-10.4785,-18.4413,-27.0544,-25.5293,20.5024,1.7607,18.5653,32.309,12.4156,12.0738,
4.8221,-2.1277,-6.2152,-18.529,-23.9498,-31.4348,-39.5312,-9.8975,5.1723,15.7551,31.5513,44.4704,25.7706,-2.7506,
4.5327,8.1675,8.2577,-13.3505,-35.2219,-28.4254,-51.2593,-23.4037,1.9456,16.7368,29.5247,27.7022,10.1244,-16.6856,
18.3608,21.7774,21.8623,1.5505,-19.0086,-12.6199,-34.0837,-36.0994,15.9289,1.6326,13.6532,11.9401,-4.5831,-1.5845,
25.0183,34.5708,34.6505,15.5575,-3.7681,2.2373,-17.9387,-48.0335,29.0732,-12.5654,-1.266,25.3237,-18.4081,12.6106,
9.4172,19.0385,18.4715,2.183,-17.642,-11.9969,-30.9624,-31.0515,13.2288,2.2886,12.91,37.9043,-4.7285,8.2952,
-5.2479,11.2878,3.2632,-12.048,-30.6835,-25.3771,-43.2047,-15.0884,-1.6649,16.2512,26.2354,21.53,9.6552,-6.3026,
-11.8092,-3.4895,-3.5413,-25.4251,-14.7425,-24.8717,-48.1309,-10.7585,12.5349,29.3762,38.7613,6.1382,15.8178,-20.0244,
2.9993,10.8199,10.7712,-9.7996,0.24207,-9.2794,-31.143,-24.213,25.8829,13.5136,22.3356,19.8699,0.76877,-4.7229,
16.9194,12.2043,19.4093,4.8884,5.5791,5.3774,-15.1744,-36.8602,38.4299,-1.3972,6.8955,28.979,0.58934,9.6604,
16.1723,2.3216,21.295,-9.5049,-8.8557,-0.77692,-28.364,-34.9162,22.0241,12.7866,20.5817,13.1402,10.721,-5.0192,
12.1514,-11.0348,13.9169,-23.0346,-10.4917,-14.8303,-40.7621,-18.7212,6.6026,26.1194,33.4468,-1.7482,6.0107,-18.818,
-0.77836,-24.4727,-1.0181,-35.7525,3.3549,-22.2083,-46.45,-4.2468,20.3065,38.6523,45.54,3.1719,-7.5671,-3.589,
-9.8815,-8.9044,13.143,-19.5074,5.1872,-6.7758,-29.563,-18.092,33.1881,22.2331,28.7076,17.0816,-21.213,10.7264,
-7.2554,5.7299,19.4713,-4.2369,-3.2579,7.7307,-13.6892,-31.1065,17.0968,6.7991,12.8852,9.0738,-12.9574,11.6082,
7.2799,-2.1055,4.203,-18.0827,10.6634,15.16,-15.1417,-43.3401,11.764,-7.7088,-1.9879,-5.5706,-2.5209,-3.1883,
7.4854,-16.0792,-10.1492,-31.0978,-4.0764,0.15044,-28.3332,-38.5997,-3.0418,6.8537,4.606,-19.3364,-16.4697,11.103,
13.6449,-3.5563,-2.6911,-33.1921,-17.9318,-13.9586,-40.7332,-23.5748,-16.9593,20.5425,18.4296,-32.2762,-10.0236,17.5535,
9.2674,10.7571,11.5703,-17.1005,-30.9559,0.97893,-27.3733,-21.6519,-11.1261,32.1523,13.3908,-22.0994,-8.9137,2.4003,
13.2869,5.162,17.1103,-14.924,-22.892,-11.9227,-39.8309,-6.2528,-8.9333,44.3232,26.6874,-6.6734,-4.8208,12.2897,
5.3725,-2.2649,4.8998,-0.81174,-7.4185,2.8927,-23.3411,-19.9776,5.7027,27.5638,10.9861,7.827,-13.6816,25.6523,
11.6586,11.971,9.1813,13.337,7.1267,16.8191,-7.8406,-32.879,19.4605,11.81,-3.773,21.4574,-9.3026,38.2132,
6.3841,15.4538,9.1387,11.6546,-7.4009,1.71,-21.4702,-26.465,4.1929,25.2014,10.5533,6.0699,1.9313,21.8204,
12.6099,0.42659,7.0652,-3.1447,-21.0569,-12.4926,-34.282,-10.7771,-10.1587,37.7893,24.0201,-7.2435,15.9154,6.4112,
-2.2467,-13.699,-7.4587,-17.056,-33.8935,-25.8431,-46.325,3.9695,-23.6492,49.6219,36.6789,7.2911,16.6194,-8.0735,
-4.2791,1.2229,7.0888,-1.9327,-17.7599,-10.1925,-29.4455,-10.3686,-8.1302,32.5446,20.3782,12.0711,1.5223,6.5109,
10.0777,15.2496,20.7635,12.2833,-2.5943,4.5191,-13.5788,-23.8465,6.4576,16.4919,5.0555,25.4469,-8.3621,20.2203,
9.6066,22.9766,33.6176,-2.1795,-6.8796,8.957,-17.8476,-33.0912,13.8295,2.2853,-9.3478,19.9868,0.78216,4.907,
-5.0698,7.498,17.5006,-16.1487,-20.5668,-5.6805,-30.8767,-17.0057,-1.1002,16.2482,5.313,32.8876,14.8352,-3.5212,
-15.0667,-7.0518,2.3506,-29.2798,-33.4328,-19.4396,-43.1241,-1.8854,-15.1342,29.3733,19.0943,45.0143,28.0451,-4.8349,
-0.062657,7.4713,16.3095,-13.423,-17.3269,-4.1732,-26.4367,-15.8722,-0.12617,13.5109,3.8486,28.2135,14.9376,-18.6448,
14.0411,21.123,29.4309,1.4824,-2.1872,10.1771,-10.7505,-29.0199,13.9814,-1.3997,-10.4823,12.4207,-0.058677,-3.4261,
21.0918,5.7556,41.7651,-5.215,12.044,-4.5335,-15.6974,-41.3787,15.6837,-15.4157,-23.9534,-2.4246,-12.3891,10.8795,
5.7263,-4.8907,25.1592,-15.5776,-2.7787,-18.3615,-28.8556,-24.796,0.64264,-0.3908,-8.4162,11.8209,-7.0705,5.2768,
-8.7173,0.4862,9.5496,-28.7429,-16.7119,-31.3598,-41.2242,-9.2082,-13.4959,13.7327,6.1888,20.2622,7.4538,-9.1399,
3.7383,-7.1681,16.7358,-30.7107,-2.1177,-22.2544,-44.1018,5.4443,-0.75359,24.7344,19.9175,4.9464,13.7487,-22.6915,
17.614,7.362,29.8317,-14.768,12.1094,-6.8192,-27.3557,-8.9824,13.3916,9.1503,4.6224,-9.4503,-1.1762,-7.23,
24.8251,21.0203,42.1418,0.21803,-2.7172,7.69,-11.6144,-22.5434,2.5559,-5.4987,-9.7549,5.2167,-14.4567,7.3038,
9.2356,9.3514,25.5133,-13.895,-16.6542,-6.8714,-25.0175,-7.0908,-11.6975,8.9312,4.9304,-9.1963,-1.8972,-7.2344,
-4.6697,-5.3097,15.9827,-27.1613,-29.7549,-20.5591,-37.6165,7.4346,-25.0956,22.4954,18.7346,-20.6045,12.3167,-20.9003,
-9.9817,-19.0911,18.582,-31.1239,-13.8696,-5.2256,-21.2595,21.0885,-17.2498,35.2456,31.7105,-8.6933,0.52776,-8.7302,
-0.23253,-3.8456,31.5671,-15.1564,1.0626,9.188,-5.8839,5.7232,-2.1148,19.0309,15.7079,5.9283,-13.6039,5.8936,
-4.7931,10.4851,33.3657,-0.14705,4.0487,22.7367,8.5691,-8.7202,12.1121,3.789,0.66538,19.6726,-8.3467,19.64,
9.5945,12.3976,31.3637,4.7051,0.75589,7.2725,3.3731,-15.6883,-2.7146,17.6617,14.7255,4.3923,6.2541,4.3616,
23.1188,-2.4462,15.3819,-9.6772,-13.3895,-7.2639,-10.9293,-0.647,-16.6517,30.702,27.9419,-9.9713,10.5884,-10.0001,
7.6317,-11.5838,6.1916,-8.2139,-26.6861,-14.8278,-24.3735,13.4918,-29.7526,42.9599,40.3654,-13.9478,-4.1469,4.6999,
-6.9262,3.2113,19.9201,6.3789,-10.9849,0.16182,-8.8111,-1.4177,-13.8675,26.2823,23.8435,-5.486,-17.9981,18.5179,
-3.4613,17.1186,32.8249,15.2805,3.7742,14.2521,5.8175,-2.2158,-21.6775,10.6054,8.3129,-0.58184,-16.6778,17.1664,
-14.9458,1.9915,16.7554,0.26368,1.0056,-0.70301,-8.6315,-16.1828,-6.2768,-4.131,2.8642,5.045,-13.135,21.7279,
-6.4227,5.0561,1.6501,14.3479,-13.1547,-0.52705,-18.4144,-27.546,-6.7829,-5.0329,15.4009,18.8423,-11.8387,34.5242,
-3.4959,11.3614,9.1762,8.9117,-26.4654,-8.1205,-31.4095,-13.1844,-20.4759,9.3691,28.5769,3.6118,-1.4698,18.3528,
-2.7782,12.2046,15.2338,17.0186,-29.7206,-4.0755,-23.559,0.31502,-33.3474,1.8231,16.8291,-10.7049,-2.9066,3.1516,
-2.6113,-2.6276,8.2198,4.8143,-21.8369,-13.9977,-36.2455,14.3961,-37.714,15.8137,29.0369,-5.6211,-13.9159,11.4708,
-2.9635,11.63,21.8266,18.6254,-6.4267,0.94217,-19.9708,-0.56765,-21.3512,0.76491,13.1947,8.8161,-18.6731,24.8826,
-4.8182,25.0322,34.617,31.6079,8.0589,14.9856,-4.6725,-14.6336,-5.9701,-13.381,-1.697,22.3872,-16.5358,37.4896,
-13.1716,15.5307,22.6411,26.9291,-6.5246,-0.013499,-8.3249,-19.9893,-19.7119,1.5219,-11.0133,6.9439,-1.4436,21.1402,
-4.2477,0.49888,12.1321,11.2134,-10.0657,-14.1127,-21.9254,-4.69,-32.6292,15.5306,3.7475,14.7952,12.743,5.7718,
-17.7182,-13.6311,-2.6958,-3.5594,-23.5617,-27.3659,-34.7099,9.6914,-41.3469,28.6987,17.6227,28.0074,20.3796,-8.6745,
-2.5551,1.2868,11.5659,10.7541,-8.048,-11.624,-18.5273,-4.99,-24.7661,12.8768,2.4653,12.227,5.0568,3.9128,
11.6982,15.3096,24.972,24.2089,6.5348,3.1735,-3.3157,-18.7906,-9.1801,-1.9958,-11.7826,-2.6066,-9.3466,17.778,
-3.1037,14.8993,30.2163,8.6564,18.9852,-1.4582,-8.7087,-18.1714,5.4707,-9.5012,-25.1757,-3.0922,-6.0033,2.6114,
-17.0175,-0.094701,14.3034,-5.963,3.746,-15.4707,-22.2862,-2.9811,-8.9576,5.1689,-9.5651,11.1933,5.0324,-3.6455,
-12.9463,-3.2731,-0.65485,-19.7052,-10.5787,-28.6424,-35.049,11.2977,-22.5201,18.9588,5.1088,13.7053,11.3391,-17.5268,
-1.4948,9.6319,13.4844,-4.691,4.156,-12.8239,-18.8461,-3.4801,-7.0689,3.7212,-9.2977,-1.217,3.0329,-30.5752,
12.6949,21.2551,26.7754,9.6905,18.0066,2.0455,-3.6153,-17.3713,7.4552,-10.602,-22.8399,-15.244,-11.2491,-14.6407,
23.2512,15.9125,39.2689,23.2091,2.8262,16.0228,4.2272,-30.4291,-7.0921,-24.0659,-35.5695,-21.2056,-11.7241,0.33778,
7.7561,9.8742,22.8127,7.7165,-11.4433,0.96143,-10.1264,-14.5033,-20.7666,-8.522,-19.3353,-8.7495,-5.9372,-13.7825,
-6.8093,-3.4268,13.3099,-6.8465,-24.8567,-13.1963,-23.6188,0.46689,-33.6206,6.0894,-4.0752,-10.7662,7.1277,-27.0555,
-5.6516,-17.3212,26.6113,-20.5357,-9.2653,-7.9632,-17.3863,14.5389,-17.5033,18.5664,9.3866,-21.8124,-7.4,-25.7,
8.7875,-2.182,39.1146,-5.2036,5.3906,6.6146,-2.2431,-0.43346,-2.3531,3.3524,-5.2766,-6.4036,-14.7154,-10.058,
-4.3153,12.049,37.0351,9.2087,5.9501,20.3177,11.9915,-14.5074,-16.3119,-10.9487,-19.06,8.0806,-17.3906,4.6455,
-1.0058,-2.774,20.713,-5.4439,-8.5069,4.9986,-2.828,-6.5203,-29.4332,3.8082,-3.8164,-6.5043,-2.2471,-9.7333,
8.7135,-16.7075,5.3702,-19.2172,-22.0965,-9.4013,-16.7583,7.9709,-41.7672,17.6797,10.5126,-20.214,11.9877,-23.2493,
-5.9093,-22.956,-1.3196,-17.6897,-6.6707,-8.3285,-14.2276,21.5926,-25.1612,30.7189,23.9819,-17.476,1.3693,-7.7543,
-13.3139,-7.4786,12.8596,-2.5284,7.8295,6.2712,0.72601,6.1971,-9.5515,14.7758,8.4429,-2.3274,-12.8129,6.8109,
-6.9228,7.0701,26.188,11.7233,11.935,19.9949,14.7825,-8.2748,5.1216,-0.21076,-6.1636,0.48811,-26.1441,14.8035,
5.1842,4.88,21.8345,6.2043,12.7441,4.6952,-0.20449,-18.9617,-9.2857,13.9019,8.3062,5.0339,-10.4755,10.3567,
-9.2268,-9.5128,6.4244,-8.268,-2.1206,-9.6865,-14.2922,-8.6735,-22.8286,27.1678,21.9078,-9.3682,-12.0146,22.9526,
-6.7734,5.158,1.8386,6.3281,-16.0933,0.045001,-22.585,-11.2032,-14.3417,39.6377,25.3019,-15.0403,-9.2601,14.4586,
-3.8258,18.9485,15.8283,20.0484,-3.7039,14.1423,-7.1299,-24.631,-4.8399,23.1594,9.6838,-20.7468,-22.8045,3.9328,
-3.0878,3.7116,23.1457,4.7455,4.144,4.2773,-0.46835,-36.5045,-18.6495,7.6699,-4.9972,-5.7762,-8.3529,17.7968,
-11.0354,6.5395,12.6067,7.5113,9.9958,-8.1795,-12.6399,-48.4142,-3.4305,-6.8903,-18.7974,8.6704,1.2985,30.829,
-23.5911,19.364,3.7167,21.1607,-4.704,2.4778,-5.7823,-59.6094,-1.7,-20.5769,-18.0709,14.3834,-6.913,17.5537,
-8.0756,8.5436,17.5937,14.4326,-11.1642,5.8874,-1.8765,-41.9328,-15.698,-5.2423,-2.8867,-0.57959,7.6018,2.4005,
6.5089,-6.069,11.5884,-0.53335,0.18088,-8.5658,-15.864,-25.3168,-13.8723,9.1723,11.3865,-14.6448,21.2457,-11.8436,
-7.9816,-19.8049,-3.2069,-14.6014,-13.93,-22.1519,-29.0121,-9.6978,-27.1399,22.7219,23.6798,-8.441,6.5132,-4.7914,
-2.7939,-4.5166,11.0855,0.37473,-4.5864,-6.7228,-13.1714,-23.216,-11.4115,7.2586,8.159,-12.0021,-7.9776,9.5961,
10.5911,9.8544,24.5204,14.4522,9.7888,7.7806,1.7189,-35.923,3.3732,-7.2769,-6.4305,-17.3821,-21.5989,23.1203,
-4.1444,16.8883,20.1328,4.9435,11.8774,10.8726,-6.0094,-31.8678,-10.9292,-20.9403,-20.1447,-11.7637,-6.203,7.6331,
-17.9957,1.775,4.8249,-9.4531,-2.9353,-3.8798,-19.7488,-15.8557,-24.3735,-5.5839,-4.836,3.0421,8.2692,-6.9249,
-16.6753,1.5347,-6.7824,-0.88657,-16.8592,-17.747,-32.6639,-0.80435,-37.0111,8.8512,9.5541,16.9596,9.298,-12.1011,
-1.5748,15.5426,7.7246,13.2666,-1.7476,-2.5822,-16.604,-14.8561,-20.6904,-5.7799,-5.1191,1.842,1.1147,0.31713,
12.6197,28.7101,21.3611,26.5706,12.4572,11.6728,-1.5078,-28.0647,-5.349,-19.5331,-18.912,-12.3685,-13.0522,14.3981,
14.1639,12.8875,25.4308,10.8764,10.6934,-3.1276,-7.5175,-40.4808,-19.128,-32.4611,-31.8773,-16.7101,-22.0616,15.1932,
-0.7859,10.2146,9.8049,3.2405,-4.0482,-17.04,-21.1665,-23.952,-32.0804,-16.4135,-15.8646,-1.6075,-6.6379,0.18158,
-13.5816,-4.4983,-3.6258,-11.054,-17.9053,-30.1176,-33.9965,-8.4149,-44.2555,-1.3287,-0.81274,-12.0525,7.8604,-13.9293,
1.3333,-11.9875,10.6918,-10.0158,-2.731,-14.2105,-17.8567,-22.01,-27.5002,-15.3489,-14.864,-25.4294,20.3654,-27.1936,
15.3533,2.8317,24.1503,4.6851,11.5328,0.74213,-2.6853,-34.7894,-11.7502,-28.528,-28.0721,-14.3786,5.0435,-11.4619,
15.7163,16.7618,29.0692,18.504,-3.2591,14.7976,6.1174,-46.802,-10.6717,-40.9163,-40.4878,-6.9077,-9.3591,3.3258,
0.67337,1.6561,13.2251,3.2938,-17.1636,-0.19026,-8.3496,-29.8939,-24.1314,-24.3613,-23.9585,-20.5933,-0.4233,-10.9738,
-0.0090525,-12.5433,-1.6684,-11.0038,-30.2338,-14.2788,-21.9487,-14.0003,-36.7835,-8.7997,-8.421,-27.1163,10.7858,-24.4153,
5.075,-25.8907,2.7389,-24.4436,-14.3197,-4.5396,-6.5317,0.93975,-20.4765,5.8283,6.1842,-11.3893,-2.0615,-8.8504,
14.4297,-10.2372,16.6746,-8.877,0.63944,9.8327,7.9602,-13.2166,-5.1479,-8.6214,-8.2868,3.394,-13.6295,5.7806,
-0.53605,4.477,29.7741,5.7556,11.6507,23.3428,21.5826,-26.5236,3.804,-22.2041,-21.8896,13.6257,-16.3708,19.5338,
13.5961,-4.2999,16.0551,-8.6897,8.9185,7.8422,6.1876,-10.8322,-10.5242,-6.7719,-6.4762,-1.2919,-1.2885,4.2617,
7.1881,-18.1419,0.99177,-22.2683,-5.7166,-6.7283,-8.2837,3.9177,-23.9928,7.7345,8.0123,-14.5657,12.8888,-9.3448,
-5.9525,-5.4952,-2.7603,-6.8322,-19.4736,-7.8498,-8.9371,17.7827,-8.4532,21.3704,21.6316,-4.0333,-1.9845,5.3159,
3.047,8.9345,11.5053,7.6777,-4.2052,6.7212,5.6991,2.6157,6.154,5.9882,6.2337,-7.3503,-15.9655,19.0969,
2.3559,22.4984,24.915,21.317,10.1471,20.4179,19.4572,-11.6412,-8.3153,-8.4711,-8.2403,-12.5008,-29.1075,10.5931,
-8.4607,7.0485,9.3201,5.938,13.6049,5.0928,4.1897,-4.8426,-21.9164,6.1371,-1.5386,2.3493,-13.2611,24.0575,
-14.5619,4.7265,-5.3391,8.7654,-1.3114,-9.3127,-10.1617,9.548,-34.7014,19.8689,12.6537,16.3083,1.6346,24.7812,
-5.0461,8.0012,3.6233,8.7479,-15.3327,5.346,-12.0933,-5.1249,-46.7193,9.0185,-2.2055,1.2298,4.7204,9.1943,
2.3735,13.6211,17.5059,15.3404,-0.31278,19.1253,2.7323,-18.9174,-29.8161,-5.6226,-16.1732,-12.944,-9.6628,-0.13293,
-3.3606,-1.2962,9.9809,3.7445,-10.0863,6.0452,-3.9063,-3.6824,-39.1045,-19.3852,-29.3028,-18.2673,-12.7754,13.975,
-12.3098,7.2901,13.4486,17.6199,-11.5153,-8.4175,-5.7061,-17.5614,-27.6084,-32.3221,-41.6446,-9.0379,-2.8586,16.8284,
-25.6712,20.9527,18.2336,30.6627,-23.5325,-8.5547,-0.7877,-30.6077,-18.326,-44.4828,-53.2459,-3.9201,-16.7871,1.7187,
-21.2143,9.6623,17.6479,14.7229,-10.4289,6.0586,10.9512,-14.6713,-21.802,-27.7138,-35.9512,-16.394,-1.6799,-12.4844,
-27.0586,-5.0174,2.489,-0.26046,0.36435,-0.77959,-3.8058,0.309,-25.5776,-11.951,-19.6941,-1.3104,12.5209,0.19795,
-25.4349,-14.0009,-8.9778,11.9551,-13.7575,-14.8328,-17.6775,14.3905,-27.093,2.8661,-4.4125,12.8683,6.82,9.3364,
-9.8088,0.93913,5.6608,25.3378,-11.5412,0.15715,-2.5168,-0.57296,-11.3675,-11.4059,-18.2477,-2.0038,-7.6892,10.3011,
4.8798,14.9828,19.4212,37.9175,3.2513,14.2477,11.7342,-14.6386,3.4146,-24.8216,-31.2529,-15.9836,-14.4786,23.783,
-9.513,-0.016186,7.8485,21.5425,16.4073,-0.70714,-3.0699,-0.67721,-10.8903,-11.5335,-30.796,-7.3992,-3.9511,8.2561,
-23.0422,-14.1152,-6.7224,6.1499,1.3229,-11.3399,-16.9857,13.4634,-24.3369,3.2585,-14.8482,7.1447,4.4196,7.7607,
-17.5929,-12.2514,2.1892,-8.3191,-12.8565,-24.7595,-30.0665,26.7556,-36.9767,17.163,0.14267,14.4754,-0.42087,-6.8049,
-2.4373,2.5837,16.1579,6.2801,2.0149,-9.174,-14.1626,11.0503,-20.6581,2.0332,-13.9659,-0.4931,13.7044,-13.6481,
11.8089,9.6794,29.2884,20.0033,15.994,5.4765,0.7872,-3.7127,-5.3186,-12.1888,-27.2279,-14.5635,2.8492,1.2708,
10.3517,-5.0014,13.4311,4.7033,0.93438,6.8064,6.7064,-17.59,-16.0489,-25.5574,-39.6943,-8.8738,-11.4218,15.2946,
-4.3694,4.3152,-0.45832,-9.6789,-13.2217,-7.702,-7.796,-2.4346,-29.1859,-9.924,-23.2126,-12.4084,-3.7539,0.27691,
-3.225,-10.0437,-12.6314,-23.1982,-26.5284,-21.3399,-21.4282,11.8115,-41.5348,4.7715,-7.7198,-25.7639,10.5714,-13.8397,
6.1192,-17.7085,-2.7233,-8.8568,-10.8367,-5.9595,-6.0426,0.56162,-39.3105,-9.6148,-9.6647,-16.2187,-4.1629,1.0907,
7.2775,-2.546,11.5401,5.7746,3.9135,8.4981,8.42,-13.5721,-22.8519,-23.1379,-23.1849,-1.1456,-10.5208,15.1252,
-7.2591,11.7068,18.0989,19.5282,1.0028,22.0882,22.0148,-26.8578,-18.2974,-35.8497,-35.8938,-2.9767,-8.3649,18.0443,
7.2764,-3.0956,5.829,4.2565,-13.1574,6.6629,6.5939,-11.1463,-31.2995,-19.5987,-19.6401,-16.8981,6.237,2.8617,
12.4313,-17.0099,-8.6207,-10.0989,-26.4679,-7.8369,-7.9017,3.6225,-43.5216,-4.3228,-4.3617,-26.1845,19.9628,-11.41,
-2.4146,-16.4975,-10.7791,-1.8676,-10.7798,6.7333,6.6724,17.5051,-26.8103,10.0366,10,-10.5135,4.665,-6.4177,
-9.5211,-1.4077,3.9676,12.3444,3.967,20.4293,20.372,2.3548,-11.1016,-4.6656,-4.7,4.2174,-9.7149,8.0673,
-7.4237,12.7768,17.8296,25.7038,17.8289,33.3036,33.2497,-11.8865,0.24063,-18.4857,-18.518,16.9415,-23.232,21.6833,
-19.6879,-2.0898,2.6598,10.0616,11.8097,17.2054,17.1547,2.9267,-13.8738,-3.2765,-3.3069,2.1994,-7.7381,6.2823,
-21.5567,-16.0644,-11.5998,-4.6421,-2.9989,2.073,2.0255,16.8511,-27.1414,11.0201,10.9915,16.1675,6.8262,-4.6361,
-6.1633,-1.0006,3.1962,9.7364,-9.0529,16.0487,12.0709,21.0573,-39.6129,24.4589,24.432,1.0974,1.4667,-13.5082,
8.3065,13.1595,17.1044,23.2522,5.5903,29.1857,25.4467,5.6939,-23.1361,8.8913,8.8661,-13.0684,-4.2128,1.4023,
15.1923,20.2628,20.9212,23.6498,19.3549,41.5346,37.2707,-8.7477,-34.7253,-5.7421,-5.7659,-11.4019,-12.6026,15.4182,
0.1808,4.9471,5.566,19.6892,4.0936,24.9425,20.9345,5.8771,-46.3664,-3.3635,-19.5199,3.3822,-15.4045,28.5931,
-13.93,18.7503,1.0314,27.1497,-10.252,9.346,5.5784,8.4408,-42.0597,10.9383,-4.2487,17.2793,-18.0388,12.7775,
-6.7529,12.0333,10.6283,11.4207,-13.1953,-5.3148,-1.6323,-3.7578,-46.1446,17.5325,-16.7029,2.1425,-2.8565,-2.0892,
1.2769,5.7196,12.532,6.5341,1.6965,9.1041,12.5657,-15.2247,-29.2759,2.3805,-29.8007,-12.086,9.6493,3.2532,
-9.4744,0.80087,6.1881,20.2421,-5.3884,-5.5422,14.9956,-0.21125,-13.4194,-11.8623,-42.1127,-5.7691,-2.6218,-0.50005,
5.194,14.8528,19.9168,33.1276,6.627,8.8904,28.1959,-11.2482,1.4858,-25.2506,-48.4956,-15.0813,3.127,-3.0117,
18.9824,28.0616,32.8218,35.983,20.3294,22.457,40.6041,-24.6733,15.4967,-37.8355,-57.2785,-21.8022,-11.1606,0.72711,
3.7434,12.2779,21.4615,19.724,33.2096,14.2607,28.7769,-9.0929,28.6669,-21.4654,-39.7418,-6.3941,3.609,-7.9586,
-10.5812,-2.5587,6.0739,4.4406,17.1171,-0.69494,12.9503,5.5526,12.8468,-6.0775,-23.2573,8.0895,10.0014,0.14454,
-15.538,-2.9137,-7.6417,-4.7355,1.99,-14.7532,-1.9267,19.3195,-2.024,8.3872,-7.7618,20.5806,2.7926,-12.5735,
-0.50574,11.3611,6.9168,9.6486,15.9706,0.23195,12.2889,4.0603,12.1975,-6.2161,-21.3961,5.2458,3.6423,-2.6688,
13.6246,24.0308,20.6018,23.1697,29.1124,14.318,25.6516,-10.2833,25.5656,-19.9431,-34.2124,-9.169,-8.7771,11.5914,
5.9578,8.489,5.2657,7.6795,13.2657,-0.64105,10.0125,-3.5661,9.9317,-26.7735,-46.2596,-14.9864,-22.3505,20.1807,
-8.4997,0.72897,-9.1502,-6.8812,-1.6303,-14.7026,-4.6883,10.7479,-4.7642,-11.0671,-29.384,0.012813,-15.0433,4.8698,
3.5687,-3.89,4.1076,-20.5684,-15.6325,-27.9204,-18.507,24.203,-18.5784,3.697,-13.521,-8.496,-1.4319,-9.5224,
17.4546,-2.131,17.9612,-5.2343,-0.59451,-12.1452,-3.2966,8.6508,-3.3637,-10.6249,-26.8097,-22.0862,12.754,-6.1687,
24.6742,7.6547,30.9835,9.1798,13.5412,2.6835,11.0012,-5.9682,10.9382,-24.0874,-39.3011,-6.6611,3.9895,8.3014,
9.0937,-2.9714,15.0245,22.729,-1.3713,16.6225,24.4412,-19.7102,-3.8181,-36.7421,-51.0431,7.8386,13.9169,19.6295,
-5.5519,-16.8931,0.023017,7.2653,-15.389,1.5251,8.8747,-4.4275,-17.689,-20.4376,-33.8805,-6.7317,7.9984,4.3517,
-8.5362,-29.9795,-14.0784,-7.2707,-28.5657,-12.6664,-5.7578,9.9381,-30.7277,-5.1113,-17.7477,-20.4278,16.669,-10.0094,
3.6684,-27.9401,-2.692,-8.8673,-12.7518,2.1936,8.6877,21.6762,-15.0252,-15.8546,-2.5828,-6.6276,1.943,-4.0849,
6.4974,-12.1637,11.5695,5.7647,2.1134,16.162,22.2664,6.2757,-0.023668,-29.0033,-16.5278,7.8701,-12.2735,10.2602,
20.2076,2.6662,24.9754,19.5188,16.0866,29.2923,35.0304,-8.2009,-14.1222,-41.3631,-29.6362,21.4979,-5.5705,23.7446,
6.9292,-0.27609,9.3768,4.2477,1.0214,13.4347,18.8286,6.3912,-27.3749,-24.7813,-13.758,6.108,8.8638,8.2199,
5.497,-14.3595,-5.2858,-10.1072,-13.1399,-1.4713,3.5989,20.1077,-39.8324,-9.1944,1.1675,-0.22487,21.6828,-6.3733,
-6.017,0.60204,-8.0187,4.5993,-26.4515,-4.5674,-10.7171,15.8507,-43.81,5.4572,10.0073,-14.3114,6.2818,-9.041,
8.444,14.6659,6.5624,18.4233,-10.7644,9.8066,4.026,0.79963,-27.0814,-8.9702,-4.6931,-22.7368,-8.1951,5.6015,
22.0374,27.886,20.2687,31.4179,3.9814,23.3182,17.8844,-13.3484,-11.3565,-22.532,-18.5115,-7.2726,-7.9717,19.3654,
6.6152,12.1128,4.9525,15.4328,7.3006,7.8191,2.7113,1.5525,-19.0494,-7.0801,-3.3008,7.2638,2.1659,22.0296,
-7.8818,-2.714,-9.4446,0.40687,-7.2374,-6.75,-11.5513,15.5594,-32.0064,7.4447,10.9972,20.928,16.1359,6.6078,
-6.3917,-7.6349,-0.7441,-6.6004,-19.6453,-20.445,1.0746,6.4925,-15.986,21.0981,24.4374,5.5723,17.8434,-7.8886,
8.0918,6.9232,13.4005,7.8956,-4.3666,-5.1183,15.1101,-7.9971,-0.92686,5.7322,8.8711,-8.8621,2.6728,6.6847,
-2.4271,15.7924,15.7804,18.7389,9.9954,9.2888,28.3035,-1.5511,-14.9712,-8.7118,-5.7611,1.9704,-6.7721,20.3836,
-14.9901,0.74485,0.73357,12.0231,-4.7043,-5.3685,12.5053,-2.9822,-28.173,-20.8974,-15.2075,2.3604,-13.9902,5.0606,
-16.1243,13.2748,0.047783,-0.89896,-18.5221,-19.1464,-2.345,1.2633,-40.5826,-5.5436,-0.19508,-11.8812,-23.3185,-9.3431,
-6.0066,1.2946,8.1783,-8.9784,-3.3107,-5.4223,11.8957,15.2875,-25.1984,8.889,13.9166,-24.5189,-7.8194,-18.2006,
-15.8127,-12.8831,-6.4124,4.7772,10.9879,6.0865,25.2819,12.4704,-24.7029,-5.7443,-1.0184,-8.9478,-1.1165,-3.0085,
-4.1887,1.9899,1.4634,17.1996,-3.6378,-8.3787,9.665,17.3141,-37.3207,-5.7746,-15.0573,5.6891,-8.6744,-12.353,
10.1626,15.9705,15.4756,30.2677,10.6804,6.224,23.1851,2.1753,-43.3498,-19.5281,-28.2538,-8.7523,5.9461,-23.304,
23.6528,2.437,28.6471,14.3516,24.1396,6.3593,35.894,-12.0552,-42.2731,-32.4564,-40.6586,-22.3271,-4.4434,-10.2131,
14.8761,-11.8093,12.8282,-0.60949,35.6677,-8.1223,24.4834,2.7681,-37.1953,-16.409,-24.1191,-13.8706,2.4314,-5.0255,
-0.11644,-11.7427,-2.0415,-4.2658,19.4276,-8.2775,8.9144,16.702,-49.0636,-1.3245,-8.5719,1.0616,-11.8145,-9.8075,
9.415,3.0618,12.181,-2.4844,17.6199,-12.3561,-5.7204,29.7999,-60.2198,12.855,6.0424,-13.1021,2.9944,-16.8442,
22.9501,-1.5631,25.5502,1.7312,30.6627,2.4853,8.7228,13.9119,-42.5066,-2.0163,-8.4202,-26.416,15.5241,-28.0337,
35.6731,2.5975,10.0505,15.7273,42.923,16.4362,22.2994,-1.0228,-25.8562,-15.9953,-22.015,-24.4568,8.4919,-12.2516,
19.4327,-8.2338,-4.6526,8.3093,26.2476,1.35,10.794,-6.6875,-14.1378,-29.1356,-27.9447,-8.8894,7.474,2.5835,
4.1668,5.9858,-3.49,-6.2892,10.5727,-12.831,-3.9537,7.8138,-27.3895,-13.2875,-12.1681,-22.456,4.4839,-11.6716,
17.6423,5.1184,6.3782,-20.0119,-4.1616,-26.1611,-17.8164,21.445,-39.8462,1.6098,2.662,-33.817,4.7231,-25.0713,
30.6838,2.7776,20.0955,-4.7112,10.1881,-10.4915,-2.6474,6.0583,-23.3554,-12.5868,-11.5977,-17.688,6.4733,-9.467,
14.7428,16.711,22.5823,9.6715,23.6768,4.238,11.6114,-8.4052,-7.8541,-25.9316,-25.0018,-2.5267,-8.0151,5.201,
13.3492,29.8083,22.2434,23.1912,8.1562,18.0837,25.0147,-22.0009,6.3425,-38.4757,-37.6017,-7.6993,4.0237,1.0888,
-1.5517,13.9198,6.8088,7.6997,-6.4332,2.8987,9.4138,-6.5809,-8.1381,-22.0672,-21.2456,-21.3373,14.9662,-13.0765,
-11.7589,-1.0154,-7.6998,-6.8623,-20.1472,-11.3752,-5.251,7.914,-21.7498,-6.6431,-5.8709,-15.1076,28.1683,-26.392,
-25.1534,-10.6132,-21.3378,7.141,-4.9724,3.4073,9.1641,10.1148,-16.6451,-9.4292,8.34,-4.0347,12.3782,-17.9589,
-12.594,4.1236,-5.9575,20.8125,9.4259,17.3029,22.7142,-4.5921,-1.5464,-22.9634,-6.2604,-2.7756,-2.4645,-2.7813,
1.3785,17.9762,8.4999,31.8985,22.9604,30.3647,35.4514,-18.4166,-4.3702,-35.6856,-19.9848,11.4909,-3.4674,11.4855,
-12.8042,2.7976,-6.1101,15.8845,7.4828,14.4428,19.2243,-3.2116,-18.2079,-19.4445,-4.6857,16.5277,10.8407,2.4226,
-24.3704,-11.4703,-19.8435,0.83147,-7.0662,-0.52376,3.9708,11.0811,-31.2155,-4.1778,9.6954,29.636,24.2902,-5.3483,
-8.8082,0.91036,-4.5528,12.2054,-20.7422,-1.8832,-6.4344,17.0249,-38.2522,10.1729,23.2137,13.7579,13.4419,-19.1274,
5.8203,14.9557,9.8203,25.5731,-5.3977,12.3298,8.0517,1.9034,-21.857,-4.5375,7.7209,-1.1676,-1.4646,-3.8798,
19.5711,24.8676,23.3311,34.8485,9.0262,25.69,21.6686,-12.3108,-6.4456,-18.3653,-6.8424,-6.8228,9.1649,10.453,
4.2968,9.2756,7.8312,18.6576,-5.6154,10.0486,6.2684,2.5279,-20.1589,-3.1633,7.6682,2.2274,0.98965,15.5513,
-10.061,7.0603,-6.7386,3.4381,-19.3785,-4.6543,-8.2077,16.4762,-33.0494,11.1265,21.3081,3.1109,1.947,0.51826,
-23.5573,-7.4633,-8.1268,-10.8682,-13.7743,-14.5425,-17.8822,4.3037,-19.8829,24.5589,34.1296,-11.1757,3.8635,-13.6128,
-8.9268,4.5426,6.4608,3.8839,1.1522,0.43,-2.7093,-10.0545,-4.59,8.9853,17.9818,-22.3318,15.3237,1.3039,
-14.4909,8.3369,16.8829,17.7509,0.70836,4.0968,11.5533,0.073963,-18.4146,-5.6538,2.8029,-6.8919,12.3713,15.3257,
0.47855,21.9367,29.9699,28.7524,-5.4343,4.8674,3.5025,3.1189,-31.4097,-19.4146,-11.4653,-12.4439,15.6958,4.7474,
14.5498,6.5205,30.8466,12.9273,-3.5831,-9.5246,-10.4332,-7.7435,-18.4747,-4.1497,3.3227,-25.7972,0.65409,-8.2456,
-0.42315,-7.9708,14.8958,-1.9484,9.3407,-23.0531,4.2928,6.4469,-3.2662,10.1993,5.1574,-24.3834,6.581,-15.3765,
-14.4978,-14.7439,-0.097913,11.1178,8.7805,-7.5699,18.1353,12.1606,-17.1703,-4.5127,-9.252,-8.8204,12.2861,-0.35386,
-14.1366,-4.2,7.7745,-3.6493,-2.422,-7.7578,2.9471,16.006,-30.2401,-8.8164,-18.4897,-7.6489,11.0407,-9.8574,
0.81159,-3.4398,16.9672,-6.6139,11.8233,6.8077,16.8703,0.9456,-14.3256,-22.3875,-31.4803,-21.29,22.0704,-23.3659,
14.8629,-6.7915,1.8492,7.8829,25.2139,20.4992,29.9581,-13.2111,0.63389,-35.1442,-43.6915,-34.1126,21.2549,-7.864,
-0.12888,-20.484,-12.3617,-6.6901,9.6011,5.1693,14.0606,0.022578,-13.5041,-18.9356,-26.97,-17.9658,7.2705,6.7079,
-14.2211,-13.797,-25.72,-17.4728,-5.075,-8.7324,-0.88303,14.1212,-26.7939,-3.6994,-11.2518,-2.7879,0.73385,-2.2029,
-12.3512,-15.5113,-21.0208,-26.0832,-18.8705,-22.3085,-14.93,27.3739,-39.2863,10.6225,3.5233,-16.7206,5.2653,-13.7629,
-1.9511,-17.1225,-6.0333,-10.4182,-3.6383,-6.8699,0.065755,11.6315,-22.8291,-4.1148,-10.7881,-29.8174,13.591,1.1629,
-13.0185,-1.9952,-10.756,4.3069,10.68,7.6423,14.1618,-3.1664,-7.3593,-17.9679,-24.2408,-13.9283,8.7082,15.1931,
-3.0866,9.4425,-11.1264,18.1484,-0.50244,21.2837,27.4121,-13.1436,-21.0178,-24.6492,-19.3613,1.0074,22.2857,26.2413,
-11.035,-5.224,-11.4757,2.9595,-14.5723,5.9067,11.6674,1.745,-33.8567,-9.0703,-4.0997,-13.1531,35.0486,10.5668,
-15.9646,-19.0106,-21.4627,-11.318,-17.3901,-8.5477,-3.1327,15.7403,-44.2938,5.5739,10.2463,1.7361,44.9064,-4.1672,
-19.5817,-3.77,-29.8341,3.461,-2.2467,6.0652,11.1553,0.69587,-27.5361,-8.8605,-4.4685,15.3575,28.112,10.1828,
-19.932,10.5562,-13.9441,17.3534,11.9881,19.8012,24.586,-13.4459,-11.784,-22.4289,-18.3003,0.33605,12.3253,23.6719,
-4.6361,22.6317,0.99255,17.7302,25.3689,14.3055,37.2108,-26.7391,3.0231,-35.1831,-31.3023,-13.7841,5.218,8.1515,
-18.4579,7.1738,-13.167,2.5664,9.7467,-0.65285,20.8782,-11.0348,-7.4322,-18.9721,-15.3242,1.1429,19.0049,-4.6715,
-19.8926,-7.3566,-26.477,-6.3632,-4.9381,-14.7137,5.5255,3.7273,-21.0862,-3.7338,-0.30473,15.1744,31.9646,9.7088,
-13.107,7.1848,-10.7884,8.1186,-13.6585,0.26914,11.5622,15.3299,-10.2961,-8.9677,13.8135,1.5553,15.9467,-4.9737,
1.7794,20.8537,3.9589,21.7315,1.261,14.353,24.9685,0.31007,4.4217,-22.5297,-1.1153,-12.638,0.88994,9.4247,
-0.22699,5.5025,12.6318,10.0195,15.2853,15.5252,36.821,-13.8085,18.2564,-35.2779,-15.1483,-5.9143,-13.2635,22.9592,
-14.3134,-8.9277,-2.2261,-4.6817,0.26819,0.4937,20.5117,1.12,3.061,-19.0612,-0.13945,8.5405,1.6324,27.9494,
-17.6552,5.5742,-16.1926,-10.6343,-13.8479,-13.6359,5.181,15.1528,-11.2227,-3.8175,13.9689,22.1281,15.6344,12.1725,
-2.4958,-8.8603,-10.914,-24.0962,1.083,-26.9178,6.1278,4.5848,3.5507,10.5115,27.2308,6.7004,28.5557,-2.6579,
-7.8043,-3.8879,3.8408,-8.5505,15.118,-11.2027,19.8601,-9.7902,17.4377,-4.2192,11.4969,-7.8016,12.7424,11.6016,
-3.777,9.0545,17.7103,6.0626,11.4291,3.5695,32.7685,-23.3028,7.5094,-18.066,-3.2929,0.80105,9.3024,25.0055,
0.0077373,-2.164,5.7323,6.3408,-3.3566,-10.7447,16.7024,-7.8047,-7.0412,-2.8821,-7.0286,-8.9058,4.1687,9.4052,
-4.0595,-12.2011,3.3545,-8.1396,-17.2552,-24.2,1.6002,6.7636,-20.7187,11.3909,7.4932,-22.4714,1.8852,-5.2591,
-7.883,-20.6199,12.3035,-10.8351,-2.1199,-8.648,-3.5793,18.5584,-20.2526,24.8074,21.1436,-13.1236,14.9892,-11.3116,
-10.9683,-5.2827,12.0733,3.915,12.1073,5.9709,10.7355,3.7191,-4.9374,9.219,5.775,1.7638,6.4638,3.4671,
-10.3102,9.1343,2.1989,17.7801,1.2134,11.579,6.6668,10.6131,2.1018,-5.4342,-8.6715,11.4503,-4.0906,8.9846,
4.4084,22.6862,16.1669,17.4893,15.2406,24.9843,20.3668,13.0262,-12.1244,-19.2081,-8.66,-3.3367,10.2549,-5.6545,
18.2439,7.2251,14.3142,2.34,24.6269,9.3852,9.1116,-1.8554,-25.4969,-3.9556,-2.0397,-17.2365,11.8072,4.7185,
3.0492,-7.3084,-0.64461,-11.9004,9.0493,-5.2779,-5.5351,5.2393,-12.0347,10.3817,-1.9178,-10.3697,-3.0012,9.5186,
-11.2337,-4.1943,-14.7059,2.9136,3.2893,9.1388,8.897,16.1089,-15.379,-0.27441,-15.9027,4.3525,-16.9211,10.9809,
-2.4261,-18.0426,0.27642,-11.3612,1.0585,-5.5095,-3.8372,24.2924,-28.5562,13.8421,-3.8979,-10.0087,-10.0737,-3.778,
9.4111,-24.7192,5.718,-10.4389,15.095,8.921,10.493,8.7348,-12.7429,-1.0885,-17.7641,-23.5081,4.6307,-14.3608,
3.7637,-9.1361,-8.7251,4.2874,28.2893,22.4858,23.9634,-5.8893,2.1217,-15.1232,-30.7982,-13.5896,-5.1716,0.60087,
5.5713,-7.4372,-13.4191,11.2811,12.492,7.0366,23.3019,-4.2783,-8.5475,-0.11577,-19.5596,-19.8909,4.2887,0.69909,
-4.9305,-6.9909,0.6029,-3.4958,-2.3576,-7.4856,7.8038,10.0784,-22.1347,13.9912,-4.286,-32.7974,3.0145,-13.4429,
0.4491,-17.7554,-5.5335,-17.386,-16.3161,-21.1364,-6.7644,23.5737,-34.9066,27.2517,10.0711,-16.7296,6.9004,-23.954,
-8.2197,-21.2646,-10.7929,-2.2428,-1.2371,-5.7683,7.7414,8.0593,-18.7122,11.5166,-4.6331,-2.0003,-7.6136,-8.4168,
-12.8102,-5.8888,3.9546,11.9917,12.9371,8.6778,21.377,-6.5243,-3.4895,-3.2744,-18.4552,12.2198,-21.2568,6.1882,
2.0584,8.5646,17.8174,25.3722,5.6857,21.8827,34.1943,0.98382,-17.3801,-15.7865,-31.4478,22.2961,-5.8814,1.0013,
6.6439,-6.0493,2.6483,9.7499,-8.7554,6.4698,18.0427,15.0248,-30.4373,-0.73935,-15.461,8.7577,8.5715,-13.1588,
-7.8547,-19.7863,-11.6106,-4.9351,-22.3301,-8.0184,2.8601,28.2233,-42.711,13.405,-0.43332,12.2985,22.1572,-7.4196,
-14.6341,-4.4992,-2.2721,9.461,-6.8903,4.396,12.7217,12.4299,-26.0484,-1.4993,-14.5073,-2.5394,6.7278,-4.9412,
0.34395,9.8708,11.9642,22.9933,7.6231,18.2322,26.0584,-2.4159,-10.3855,-15.5093,-27.7369,-16.487,-7.7759,1.4554,
5.5408,2.9372,23.581,10.5641,21.2658,4.0547,21.5784,-16.3709,4.3377,-28.6788,-40.1727,-11.6983,-18.6271,1.3686,
-8.8916,-11.339,8.0661,-4.1698,7.9237,-10.2885,6.1837,-1.2887,-10.0226,-12.858,-23.6623,3.1036,-3.4095,13.4869,
-8.4921,2.4246,-6.5178,-13.2041,-6.6517,-23.7712,-8.2874,12.8886,-23.5213,2.0134,-8.1426,17.0173,9.13,-1.4224,
6.1174,11.4294,7.9732,1.6881,-8.4203,-17.5293,-5.0078,17.3328,-8.01,-8.1406,6.446,1.8963,-0.56808,-15.437,
19.8503,24.8437,21.5949,15.6868,6.1849,-2.3775,9.3926,2.1929,6.5706,-21.7521,-8.0408,-12.3175,-14.634,-0.41079,
32.7593,24.5043,26.3994,28.8456,19.9138,11.8651,22.9291,-12.0387,20.2764,-34.547,-21.6583,-0.39498,-27.856,13.7139,
16.6938,8.934,10.7154,14.2994,4.619,-2.9468,7.4533,2.7836,4.9598,-18.3742,-6.2588,12.8458,-27.4694,-1.209,
1.5921,1.1468,-4.0275,-0.65858,-9.7581,-16.87,-7.0939,16.7166,-9.4378,-3.1717,8.2167,-2.0249,-17.6876,-15.2364,
3.1553,-11.6309,0.52109,-14.7191,4.9273,-23.4831,-20.3938,23.339,0.65346,11.1186,21.8237,-16.0034,-10.0177,-28.4222,
-1.6095,0.75914,7.0982,0.26408,18.7317,-7.9741,-5.0702,7.8386,14.7142,-3.6485,6.4143,-7.1775,-23.5166,-12.6169,
-4.0546,14.8136,4.1307,14.3482,14.3173,6.6043,9.334,-6.7317,18.032,-17.5296,-8.0706,7.3532,-20.206,2.2401,
10.2887,3.3833,8.9666,3.8283,-0.64174,-7.892,-5.326,1.5378,2.8501,-2.3779,-13.1783,-7.188,-12.8935,-11.9943,
23.7714,-10.037,22.5286,-10.5014,7.3961,-21.5184,-19.1064,15.5455,-11.4209,11.8648,1.7124,-20.8567,-0.9364,-25.3746,
8.2451,-19.6022,7.0769,1.1789,16.1029,-9.0439,-3.8601,28.7128,1.1971,25.2529,15.7096,-6.0135,-14.9802,-9.7522,
-6.3496,-4.3261,-5.0399,15.2081,19.7117,5.5988,10.4715,12.89,15.2253,9.6377,0.66707,1.9726,-28.1814,4.933,
8.1314,10.0335,9.3625,28.3956,22.0876,12.5137,19.2614,18.3506,0.21178,-5.0405,-13.473,-9.8379,-19.6414,5.0114,
21.7435,10.2077,22.9008,14.2504,34.8623,12.2716,32.2057,3.1495,-13.9009,-18.8381,-13.1728,-17.8894,-4.363,-9.3893,
26.8066,5.0202,7.4267,14.921,18.6706,17.1268,25.3239,-4.2899,-2.0177,-5.133,-3.7406,-3.091,-3.9669,5.2741,
11.0982,6.7524,-7.1189,18.0925,3.4503,6.9492,9.7044,6.1345,-15.9966,9.275,4.6179,-17.0055,-17.8289,-4.1929,
14.8741,20.4473,7.4083,31.107,-0.44855,20.6322,17.6307,2.2084,-16.6948,0.20999,-7.3518,-10.527,-24.5178,0.6342,
14.9981,5.1204,-0.019105,15.1406,-3.472,5.8025,2.4729,15.2927,-29.7931,14.2974,7.1893,-17.0121,-21.0138,-0.42079,
-0.0017959,-4.3373,-10.6937,10.1653,10.8363,19.5544,16.4245,0.27514,-13.9055,-0.66045,-7.3421,-1.8913,-15.178,13.7045,
-14.1017,10.0229,-13.6101,23.6554,24.2862,32.4811,29.539,-13.8414,1.0288,-14.7208,-21.0015,12.3221,-28.3673,26.9822,
-3.8642,22.7729,1.3065,28.4703,8.729,19.1079,22.3082,-1.5865,-13.1329,-13.4629,-5.6415,-2.5172,-12.5653,11.2633,
0.94296,7.3065,-0.672,12.6621,-5.8947,3.8614,6.8698,12.6087,-26.445,1.4449,8.797,-16.4661,2.2886,-3.5125,
-10.806,-7.2319,-5.2065,-2.1976,-19.6411,-10.4703,-7.6424,25.9521,-32.6177,15.4582,22.3692,-1.3782,16.2513,-16.0106,
-17.7833,6.6598,9.2059,12.0342,-4.3626,4.2579,6.9161,10.295,-16.5606,0.4307,6.9271,0.8717,1.1762,-0.95001,
-29.4249,20.3602,17.9372,25.4122,9.9992,18.1025,20.6011,-4.4227,-1.467,-13.6951,-7.5886,-13.2806,-12.9943,13.207,
-13.5594,5.0386,9.2361,9.7874,23.4992,2.9163,20.89,-18.2573,12.7211,-26.9734,-21.2333,-5.5004,-11.7064,-1.6854,
-14.1367,-9.3637,-5.4181,-4.8998,7.9893,-11.3587,5.5366,-3.0619,-2.1422,-11.255,-5.8593,8.9296,3.0959,-8.0592,
-15.3219,-10.9696,-19.193,-0.2986,-6.5901,-24.7771,-8.8956,11.2218,-16.1137,3.5203,8.5923,22.4938,15.2449,-5.5422,
-5.2526,3.7886,-3.9414,13.8193,-5.1778,-9.1905,-6.596,-3.5515,-1.0469,-10.7909,2.1108,7.0442,0.23016,-18.4265,
8.2799,5.7285,10.395,25.3248,9.2329,5.4609,7.8997,-17.4384,13.116,-24.2435,-12.1158,-7.4785,-13.8837,-3.2209,
21.5082,1.8262,23.8713,22.2797,22.5378,-1.101,21.5257,-21.6094,26.429,-36.8889,-25.4889,1.6121,-9.7596,11.0723,
6.1177,2.2253,8.3391,7.2178,7.0855,-15.1349,6.1342,-6.2128,10.7433,-20.5755,-9.8595,15.6153,-5.616,-1.5248,
-8.3494,0.56689,-2.8367,-7.3153,-7.4396,-28.3268,-8.3338,8.26,-4.0013,-5.241,4.832,28.7784,8.821,-15.5334,
3.5762,-11.159,11.4335,-12.0939,7.1068,-16.2191,-4.7835,17.6912,-17.8613,3.7155,18.6421,12.9517,8.4255,-25.9191,
-9.347,3.2361,15.9657,2.7318,20.7804,-1.1459,9.6035,2.5297,-2.6896,-10.6074,3.4236,-1.9254,-6.18,-10.2639,
1.3813,17.1419,26.1907,16.6679,5.4335,13.0228,23.1273,-11.7221,11.5718,-24.071,-10.8818,0.22402,-19.9092,4.4519,
-6.8352,2.0134,10.5193,8.31,-8.9925,-1.8585,7.6397,3.0812,-3.2225,-8.5267,3.8711,-13.8894,-8.3065,-9.9152,
5.7751,-12.2074,-4.2119,-6.2886,-22.5529,-15.847,-6.9187,16.9964,-17.1292,6.0849,17.7388,-18.2738,6.2919,-23.4203,
-8.6714,-25.575,-14.9017,-12.6537,-7.0997,-1.6796,7.5964,29.1932,-2.0014,19.8198,30.7745,-10.569,-5.6443,-7.9151,
-22.2511,-9.9405,-1.2997,2.2055,7.4262,12.5212,21.2406,13.3416,12.2187,4.5306,14.828,4.1652,-19.4056,6.6598,
-8.4753,4.756,12.8783,16.1732,21.0807,25.8699,23.2841,-1.5589,16.4627,-9.8412,-0.16166,18.0153,-15.325,20.3602,
6.1333,-9.255,-1.9944,1.1028,14.2239,10.2177,7.7871,-3.7661,1.3749,4.8492,5.9477,2.8343,-0.30547,5.0386,
5.899,-22.7997,-15.9748,-13.0634,-0.72957,-4.4954,-6.7802,10.5599,-12.8076,18.6583,19.6909,-11.4357,4.9304,-5.1631,
-8.5549,-13.9403,-28.3667,1.8204,-14.5449,-11.851,-14.267,24.0263,2.0609,31.6388,23.2185,3.3504,-4.0075,9.2467,
-19.3588,0.99607,-12.5647,15.8112,0.4278,2.9601,0.68901,8.4847,16.0372,15.6405,7.7254,5.3173,-17.8671,22.7919,
-4.0973,12.762,2.2892,24.2804,14.2617,16.8825,14.7477,4.0426,0.97498,0.60204,-6.8381,-3.1363,-27.6043,20.676,
-1.6848,-2.1037,-4.1887,8.7236,27.506,16.6456,27.9628,-8.4008,-1.2517,-13.5341,-20.4212,11.1519,-11.848,33.5354,
-15.6837,8.0562,-18.0374,22.3001,12.7716,21.7475,39.3953,-7.8968,10.0074,-26.822,-13.0953,24.5828,2.9629,36.7403,
-9.284,5.0307,-5.3973,19.4374,-2.0947,6.3427,22.9315,-5.8978,-4.6931,-16.8385,-6.7181,9.0078,10.678,20.4359,
4.9981,11.3373,9.0265,8.612,-14.3032,-4.3392,7.4556,-1.9854,-18.5115,-15.3199,-20.415,-5.6327,4.4459,5.1097,
-5.4688,-3.4429,-5.615,-2.0713,-5.3109,-18.1788,-7.0917,12.2338,-31.5008,-0.30074,-5.0901,-19.3947,-1.9216,-4.6149,
-19.2406,9.339,-5.2786,12.153,9.1078,-2.9881,7.4338,-2.6003,-15.5108,-14.3827,-18.8847,-7.6896,-15.9063,9.762,
-22.795,22.8786,9.1381,25.5238,22.6613,11.2912,21.0878,-16.5442,-0.48011,-27.6197,-31.8516,6.8718,-29.0519,23.2762,
-9.7351,16.0477,6.182,9.8924,11.4022,-1.4529,8.5053,-1.4516,-14.5513,-17.9627,-15.8405,-7.6405,-13.2088,7.7797,
-4.0675,0.98486,-8.289,-4.8011,5.6346,-15.4657,-6.105,12.7355,-27.7782,-2.785,-0.79008,6.9179,1.6837,-6.7871,
-13.9905,-5.3085,-18.0922,-8.5801,-8.8035,-28.6378,-19.8387,26.0714,-40.2115,11.4821,13.3573,20.6028,15.6827,-5.3632,
-2.9843,9.11,-2.9066,6.0347,5.8247,-12.8195,-4.5484,10.4071,-23.6988,-3.3068,-1.5441,5.2667,0.64176,-1.9913,
2.7862,22.6634,11.3678,19.7726,19.5752,2.0497,9.8245,-4.3173,-8.1769,-17.2084,-15.5515,-9.1493,-13.4967,7.7865,
3.6365,7.2036,14.5116,4.4863,32.5007,14.6358,9.7437,-6.6004,6.4137,-30.2759,-28.7184,-1.4832,-0.11163,17.4867,
-10.6817,-7.3286,-0.45909,-9.8829,16.4507,-0.34236,-4.9409,7.8956,-8.0711,-14.3593,-12.8953,12.7058,9.5533,4.7454,
-12.2082,-1.2969,-14.5315,-8.7812,1.3636,-14.4218,-18.7444,21.5219,-21.6869,0.60222,1.9784,22.2444,20.6725,-9.6393,
2.6243,11.998,0.44035,-6.2212,15.3818,0.54349,-3.5198,6.1306,-6.2856,-13.5339,-9.3232,6.8098,22.4828,-23.161,
16.5668,13.312,14.5139,8.2521,28.5589,14.6109,10.7914,-8.3373,8.1915,-26.8219,-22.8638,-7.6988,7.0338,-7.6713,
29.0575,9.4625,2.4592,21.8569,19.4878,22.8843,24.2439,-16.9871,13.1587,-39.3126,-35.592,-19.7051,-7.4882,6.889,
13.214,5.8453,-11.7884,6.4455,4.2185,7.4112,8.6893,-1.8679,-1.7308,-22.8538,-19.3565,-11.4057,-14.4241,-7.2499,
-1.6788,-7.7229,-17.3143,-8.0412,-10.1346,-7.1334,-5.9321,12.3442,-15.727,-7.3826,-4.0951,-21.905,0.54133,-20.9149,
-11.5044,-21.3596,-18.8178,-21.6587,4.5735,-8.4977,-19.6761,14.4128,-9.4595,7.1604,10.2506,-34.6907,4.2012,-27.4192,
-23.0141,-5.978,-3.5888,-6.2592,18.3991,6.1122,-4.3956,-0.552,5.2081,-7.3692,-4.4644,-18.5093,-10.1509,-11.674,
-7.5332,8.4807,10.7266,8.2163,14.7535,19.8454,9.9682,-14.6189,-5.1371,-21.0271,-18.2966,-3.2987,-2.559,3.1264,
7.0188,-6.1282,2.7257,-6.3766,7.2599,4.5547,-3.8473,0.35825,-18.9289,-5.6655,-3.0988,-17.2008,11.6946,-11.1612,
20.6976,-19.8605,-11.5379,-20.094,-4.8681,-9.8186,-17.7164,14.4368,-31.8931,8.7745,11.1872,-30.2687,25.0929,-9.341,
5.3558,-30.4948,-24.9456,-22.5805,2.5411,-9.2297,-2.5534,17.6381,-44.0796,22.348,-0.025746,-26.0448,9.4873,-2.6804,
-9.0656,-14.5651,-9.3489,-7.1257,16.4886,5.4241,11.6998,2.4798,-27.3348,6.9071,-14.1242,-10.3821,-5.1819,11.5804,
-11.4387,0.40881,5.3121,7.4019,27.8333,19.1986,24.8566,-11.769,-11.5947,-7.6073,-27.3767,-20.8091,-16.0544,22.2036,
0.43207,-10.5314,-9.1067,-7.1422,12.0633,3.9467,9.2652,-11.3312,-24.999,5.0495,-27.0189,-27.6946,-0.99117,6.7714,
-0.61104,-12.9501,-22.6603,-17.7639,-2.7605,-10.3901,-5.3907,3.4487,-37.5991,18.8465,-11.2978,-11.9329,13.1683,6.2311,
-14.6744,1.9269,-27.1604,-2.598,-16.6949,4.3333,-6.3515,17.3418,-43.8793,31.8157,-16.5866,-25.3169,10.6121,-8.2428,
0.30609,15.9113,-11.4308,11.6579,-1.5932,18.1733,8.1296,2.2013,-27.1465,15.8068,-29.6914,-23.7974,-4.1246,5.3351,
14.014,0.85665,-4.002,9.7015,-1.257,6.6755,17.4346,-0.33815,-39.6177,0.7584,-42.0099,-18.811,0.56436,5.5232,
-0.92684,-2.1106,-15.4545,20.8111,3.394,-4.4007,2.2885,-13.027,-36.2235,-13.3871,-53.5893,-3.5824,14.2561,18.9174,
-14.9712,12.1161,-7.9184,33.6624,-0.36823,1.4548,16.2512,-11.7371,-19.9501,-26.6839,-45.1831,10.7326,2.725,24.3912,
-16.3746,17.1146,-1.3433,17.5427,-13.5632,-10.8326,8.1593,3.0671,-8.9608,-10.9828,-28.3721,-4.0114,16.6615,8.8277,
-3.6998,1.9877,-2.7872,2.3901,0.97637,-11.7076,-6.4303,16.9831,-6.8982,3.7761,-12.5698,-17.8707,29.7618,-5.8019,
-17.5778,-6.9074,-16.7199,7.1962,-13.1822,-25.1051,-20.1445,23.857,-8.5177,17.6496,2.2844,-2.6985,30.7858,-3.1802,
-5.9817,7.6071,-1.6167,20.8644,-2.8673,-9.4988,-4.8358,8.3256,6.0934,2.4906,-11.9526,11.5635,14.8386,11.1106,
4.5437,21.2506,12.5803,33.7125,11.4048,5.1711,9.5543,-6.2739,19.8278,-11.7589,-25.3355,-3.2304,-0.15169,21.2534,
4.2713,5.8756,12.4672,17.5898,24.8205,-1.6136,6.9477,0.4436,4.5381,3.0467,-35.8822,-13.0695,4.1656,5.8782,
-5.6435,-8.5769,-2.3808,2.4344,9.2312,-15.6167,-7.5692,14.517,-9.8342,16.9639,-19.6293,1.8147,18.0157,-8.5745,
-1.7465,-8.5708,-15.5891,-11.8117,-5.4226,-28.7797,-21.215,27.746,-23.3441,30.046,-4.3515,15.8058,31.0347,-22.16,
12.4583,6.0435,-0.55372,2.997,9.0027,-12.953,-5.8421,11.9812,-7.8435,14.1433,-18.1904,0.75744,31.4729,-6.7304,
25.8108,18.524,13.5795,16.9172,22.5626,1.9242,8.6084,-2.8377,6.7271,-0.80532,-31.199,-13.388,15.4845,7.7734,
15.8876,3.3125,-1.3353,1.8022,7.1088,-5.8168,-4.617,-5.2093,7.4742,-14.857,-43.4271,-6.993,0.45543,19.8819,
0.83438,-0.57905,-15.3552,-12.4059,-7.4177,-19.5678,-18.4399,9.2033,-7.0742,0.13442,-26.7214,7.5266,0.16054,4.5889,
-2.9078,-11.728,-25.6173,-25.7616,-21.0727,-32.4938,-31.4336,22.7511,-20.7498,14.2264,-11.0181,-0.41635,14.2509,-9.7864,
11.3667,-10.5154,-9.9803,-15.3329,-5.7083,-16.4441,-15.4475,7.286,-5.4048,-0.72722,3.7429,-14.4914,27.4959,-13.5336,
-2.9069,-13.9522,4.4777,-0.31296,8.7342,-1.3575,-0.42069,-7.2511,9.0195,-14.7836,-10.5816,-24.4316,11.7461,1.3784,
-2.2242,0.98493,-5.4493,13.8058,-5.8898,12.824,13.7046,-20.9161,-4.2298,-27.9966,-24.0467,-8.8657,12.1925,15.3957,
11.1268,-3.5152,-13.2562,-1.1225,-19.6365,-0.52007,-1.2177,-5.5611,-18.076,-12.2168,-8.5039,-21.9253,23.6611,0.37198,
24.5592,-10.9299,-7.886,-15.1552,-19.1003,-14.5889,-15.2447,8.8726,-31.0915,2.6162,6.1063,-16.0345,36.3415,-13.7503,
8.9856,-24.3741,-21.5128,-28.3459,-6.7701,-14.356,-2.2636,22.4402,-15.126,16.5593,19.8399,-16.0891,20.061,-7.8418,
-5.6535,-8.8116,-6.1221,-12.5451,7.7361,0.60533,11.9722,6.9938,-0.11842,1.4657,4.5495,-1.0238,4.7573,6.7287,
-19.4143,5.8171,5.4292,2.3076,15.5391,14.669,25.3539,-7.5258,-9.771,-12.7222,-9.8234,3.238,-9.6281,13.5756,
-4.1494,-8.632,-8.9966,-11.9309,0.50673,-0.31113,9.7326,7.0257,-23.2848,2.1411,4.866,-11.0563,5.0496,-1.3389,
10.1995,-22.214,-22.5568,-25.315,-13.6237,-14.3925,-4.9513,20.7042,-35.9877,16.1126,18.674,3.7071,18.8466,-12.0678,
-3.6298,-6.7812,-16.8957,-9.6961,-26.9062,0.57109,-4.1455,13.1208,-44.771,26.9721,8.8049,-10.6154,3.6158,-14.3936,
10.688,7.7257,-1.7819,4.9857,-11.1919,14.6368,10.2032,-1.7664,-27.9847,11.2537,-5.8234,-19.7705,-10.7011,0.57002,
24.1467,3.3291,11.1671,5.8372,3.5796,27.8586,23.691,-15.7604,-12.2056,-3.5215,-19.574,-19.0925,-10.8356,2.195,
8.5979,-10.9706,-3.6029,-8.613,3.2316,12.0871,8.1695,-0.71481,2.6267,10.7898,-10.0256,-3.8469,3.9145,16.1633,
-6.0179,3.7876,-17.4867,6.0038,-11.0623,-2.7381,-5.9126,5.803,-8.8219,24.2424,4.676,10.4839,14.9974,1.0935,
4.5099,13.2191,-3.9965,0.051113,-24.4986,4.1681,7.1507,2.9127,-6.7675,19.7378,9.1042,-4.2452,24.7732,-13.0721,
9.323,11.409,10.3433,3.0984,-8.9287,18.018,20.8217,-10.4794,7.7386,4.4535,-5.542,-18.0905,22.2699,1.8122,
-0.38689,6.6582,1.7229,9.0127,-0.90186,6.9038,15.6394,4.2493,14.5247,-7.1319,-19.3095,-2.905,31.1007,15.8035,
-1.8888,11.8507,2.1283,18.1307,-14.9478,-7.2351,0.60102,-10.1056,14.1624,-20.804,-32.2509,1.4694,15.1347,0.75529,
3.3077,25.2396,16.1006,25.1764,-2.4925,2.3491,13.1403,-23.5993,27.4127,-33.6558,-35.2928,10.5322,0.12658,11.8929,
-10.9907,9.6252,1.0345,9.5658,4.2657,-0.33372,-1.7481,-8.0833,17.2596,-17.5364,-19.0752,-4.1997,9.0022,-2.9206,
-20.6325,-5.0523,-13.1275,-5.1081,3.5013,-6.9228,-8.8942,6.5017,2.1241,-2.3842,-3.8307,10.1523,22.5621,-6.946,
-23.4607,-8.95,-23.6574,-2.0191,-10.8088,-20.6075,-22.4605,20.2116,-12.1034,11.8588,10.4992,23.6431,21.8499,-0.42879,
-7.953,5.687,-8.1379,12.202,3.9397,-5.271,-7.0129,4.8989,2.7228,-2.9527,-4.2308,8.1246,6.4389,-4.9788,
6.6242,19.4458,6.4504,21.7709,17.8034,9.1452,7.5079,-9.4951,16.6595,-16.8755,-18.0769,-6.4629,-8.0475,9.4199,
1.411,4.1791,-0.78575,6.3647,12.8019,5.6807,10.2418,5.1747,10.0679,-1.763,-8.7242,7.0077,1.3179,17.6315,
-12.7736,-10.1717,-14.8386,-8.1172,-2.0662,-8.3852,-4.4727,18.9642,-4.6362,12.4428,5.8992,20.6872,15.3388,6.9149,
-3.4989,-10.0698,-2.3902,-21.7302,-16.0422,-19.0663,-18.3044,31.9263,-18.458,25.7962,19.6453,7.8878,7.9441,-7.6,
10.811,4.6343,11.8533,-6.3264,-0.97971,-3.8223,-3.1061,15.9107,-3.2505,10.1484,4.3666,-6.6854,11.5337,-3.2112,
21.9888,-2.1184,7.7173,8.1532,13.1791,10.507,11.1803,0.8561,11.0445,-4.5605,-9.9954,-20.3843,-3.2583,11.0814,
10.5015,4.1089,-1.8963,7.5302,-1.7117,23.9766,15.5929,-5.6694,-3.7181,-18.3868,-23.4957,-5.0612,2.3959,24.5165,
-4.2286,3.8626,-15.8825,-7.0216,-15.709,8.438,0.55736,8.7707,-17.5951,-3.1836,-7.986,2.7338,11.4029,8.9456,
0.46659,-10.4691,-22.6885,-20.7003,-28.8664,-6.1683,-13.5761,22.3445,-30.6394,11.1074,6.5932,6.1283,24.8187,-5.6912,
-4.1367,-23.941,-23.8685,-33.5583,-13.0344,8.3018,1.3385,6.9038,-14.701,-3.6591,9.381,6.2686,9.2296,8.7503,
-17.9885,-8.4045,-8.3364,-17.4448,1.8476,21.9037,15.3582,-7.6104,0.28107,-17.5395,-5.2819,19.9925,-5.4242,22.3253,
-18.0594,6.1998,5.5144,-2.2981,5.67,34.6895,28.5367,-21.2538,6.2304,-30.5871,-19.0649,12.827,-19.1987,17.6952,
-2.8758,-8.2722,-8.9165,-16.2602,-6.3623,18.5081,12.7245,-5.8785,-8.2435,-14.6519,-3.821,-2.0426,-3.9468,2.5335,
10.1394,-21.8759,-22.4815,-29.3846,-20.0806,3.2976,-2.139,8.5742,-21.8488,0.3272,10.5082,6.5882,10.39,-8.4282,
-4.1948,-10.6642,-29.5338,-13.5215,-4.7758,9.9763,9.039,22.1597,-6.4379,14.4076,23.9777,11.7842,20.9493,6.1775,
-18.0431,4.0757,-13.6617,1.3898,9.6108,23.4777,22.5967,6.7301,8.0484,-0.55689,8.4391,-3.0229,5.5924,15.5987,
-2.8605,7.0153,1.258,10.3222,23.1341,36.169,35.3409,-7.7737,9.5984,-14.6235,-6.1673,3.1244,-8.8432,28.7627,
-16.7889,-7.5056,-12.9175,-4.3972,17.4386,19.8989,19.1204,4.8931,-5.0775,0.35394,8.3028,17.037,5.7874,23.1049,
-10.3234,3.4861,-26.2425,-8.8416,2.2923,4.6049,4.3819,18.6995,-11.5146,14.4327,21.9046,30.1147,19.5402,26.2937,
-11.2289,9.8856,-17.551,4.3972,-11.9452,18.4287,14.794,28.895,1.8851,27.6667,34.6903,14.2078,15.3181,10.616,
-2.4218,18.4423,-2.398,12.2677,2.8715,31.4229,28.0063,13.0613,15.872,11.9067,18.5089,-0.74462,0.29906,5.2703,
2.8077,3.2358,-0.086175,2.3816,6.6322,19.6386,29.5103,-1.8223,8.954,-2.9077,3.2984,-3.7488,-13.8189,19.054,
-6.0031,12.5671,-4.6575,15.9633,-7.8657,4.3603,13.6397,6.661,7.9076,11.3668,0.55883,10.5761,1.1102,13.4696,
-19.7429,22.9965,-18.478,0.90549,-21.4938,-10.0013,-1.2787,0.16212,-6.6669,24.7848,14.6253,23.8009,-13.0564,-1.4386,
-9.0338,7.5167,-9.8773,-13.2488,-6.1042,-11.7032,-2.487,0.66014,4.2746,20.0077,8.2901,8.2728,1.827,-15.4523,
-1.8834,-6.2849,-5.7261,0.49537,8.3621,3.099,11.3878,8.2459,18.1181,4.7072,-6.3073,-6.3235,13.276,-7.6766,
-5.8367,8.1922,-9.4498,14.5656,-6.2396,-1.5282,-3.3955,21.8511,2.931,-9.6752,-20.0289,8.1559,4.3454,-4.1661,
6.7139,21.8006,5.2172,20.9426,-10.5745,12.6635,0.74129,6.4401,-7.9206,-23.1947,-32.9271,-6.4335,-10.0153,-18.0161,
20.4111,26.8599,19.0042,13.5859,4.1599,26.0037,14.7968,-8.0463,6.6547,-35.903,-45.0515,-20.1475,-13.616,-2.8352,
5.0864,11.1483,3.7639,-1.3293,18.0103,10.3435,3.3678,6.5364,19.0985,-47.8488,-28.2484,-13.7487,-6.1894,-10.2897,
0.20572,-3.6206,-10.5619,4.2087,10.5889,10.3649,3.1655,20.2443,3.8526,-59.0779,-12.4535,1.1762,8.282,4.4277,
2.2268,-4.1792,-6.3696,-10.1439,-4.1465,-4.357,-11.1244,33.1296,-10.4785,-69.6332,2.3937,5.3064,1.8184,-9.938,
16.1932,10.1716,8.1125,4.5648,10.2023,10.0044,3.643,17.0418,-3.5087,-79.5552,-11.8499,-9.112,4.2514,-19.0007,
29.3216,-4.5387,16.9096,15.4748,23.6902,23.5042,17.5245,1.9193,10.8018,-88.8819,-25.2389,-22.6652,-10.1037,-3.7607,
29.355,-8.8414,1.795,0.44633,8.1688,7.9939,2.8817,15.9042,-3.9463,-97.649,-24.6347,-7.2053,4.6025,10.565,
13.4937,5.7891,-12.4127,-13.6805,-6.4214,-6.5857,-11.3912,29.0499,-17.8095,-77.6901,-9.0566,7.327,18.4264,-4.1689,
20.6841,1.509,-2.2765,-26.9596,-20.1361,-20.2906,-24.8077,41.4069,-30.841,-58.9287,5.5868,-7.2126,3.2208,-18.0188,
29.6098,-9.7653,11.9601,-11.242,-4.8279,-4.9731,-9.2193,24.8225,-14.8905,-69.493,-8.8484,-20.6397,-7.1394,-2.8377,
13.7333,-12.2297,-2.8575,3.5325,9.5618,9.4252,5.4339,9.2332,0.10292,-79.4234,-22.4175,-25.501,-20.8111,11.4326,
-1.1907,-0.31198,-6.7526,17.4205,-5.1119,18.519,3.074,-5.4208,-14.0033,-88.758,-35.1724,-23.971,-16.6463,-3.3534,
12.9807,12.4154,7.7526,2.2753,-18.9052,3.3078,-11.2105,9.0044,-27.2631,-69.3325,-18.9621,-21.008,-1.5475,-16.7434,
3.426,-2.4296,-6.3046,-11.9612,-31.8709,-10.9906,-24.6378,22.5641,-39.7273,-51.0725,-3.7244,-17.7139,12.6453,-17.7725,
-7.454,-16.3838,-6.4338,-11.0024,-15.8587,3.635,-9.0596,19.4445,-23.2436,-62.1082,10.5991,-2.5511,0.97071,-2.6061,
-21.1068,-1.3008,2.5935,3.7577,-0.80714,17.5169,5.584,4.1778,-7.749,-72.4817,-4.1369,2.8198,-13.1875,11.6502,
-5.7404,12.8773,16.5379,17.6323,13.3413,16.5997,19.349,-10.1729,6.8159,-82.2328,-17.9886,-7.0087,-26.4963,-3.1488,
8.704,-1.9954,1.4456,2.4743,7.9658,1.5037,4.088,4.5375,-7.693,-63.1988,-2.8093,-0.48795,-10.8065,-16.5514,
5.265,-15.7352,-12.7411,-11.7741,-6.6122,-12.6865,-10.2573,18.3653,-21.3315,-45.3069,11.4592,10.725,3.9419,-5.3911,
19.0491,-0.69111,2.1234,3.0323,-8.3826,2.1747,4.4582,31.3633,-5.9516,-35.285,24.8717,-4.0185,11.8385,-13.2014,
17.0237,13.4504,16.096,16.9504,6.2203,16.1442,18.2907,15.3815,8.5055,-47.2679,9.2794,-17.8774,-2.9718,0.80798,
23.1185,11.8942,22.8894,18.2338,19.9471,20.2583,31.2933,0.35865,-6.1048,-58.5318,-5.3774,-30.9047,-16.8935,14.8595,
7.6314,-0.51112,7.416,3.0398,4.6503,4.9428,15.3157,14.4371,-13.4981,-40.9199,9.0453,-14.9505,-14.6228,12.5761,
-6.1774,13.6195,-7.129,-2.3599,-9.7287,-9.4538,0.29672,27.6709,-26.7883,-24.3647,22.6025,0.046577,0.35457,-2.2785,
8.2932,26.9024,7.3988,11.8817,4.955,5.2135,14.3789,39.3618,-11.081,-18.836,35.3464,-14.0562,14.4333,-16.2418,
-3.2542,11.1882,4.7877,1.1354,18.7577,15.9513,27.6162,22.9001,3.6839,-31.8059,19.1256,-27.3128,-0.5327,-3.8422,
4.5669,7.6009,11.1088,15.1673,3.5322,0.89421,20.6353,7.4261,9.6973,-43.9975,3.8781,-16.4169,-14.6007,10.4883,
3.2754,9.1777,11.4588,13.8828,-10.7797,-13.2594,5.2972,10.271,-4.9845,-55.4577,-10.4546,-8.3148,-21.8583,-4.241,
17.1789,22.7271,24.8712,3.3911,1.0505,-26.5639,-9.1207,17.2806,-17.5278,-38.0302,4.2727,-13.4078,-12.9209,-10.0862,
17.2989,7.2634,20.4629,-5.4542,15.0875,-10.87,4.3763,29.9688,-2.3762,-21.6484,12.9262,-15.145,1.9543,-16.0904,
2.161,-7.2724,5.1351,8.973,13.8078,3.8822,6.1462,14.0707,11.6253,-34.4495,-1.9494,-0.1363,-6.671,-1.025,
-8.2695,-0.86961,-3.4399,7.552,-1.1207,-10.4508,-8.3226,12.0762,-3.1723,-39.259,-15.9324,2.0391,-9.3211,-6.9299,
6.3267,13.2826,10.8665,9.1323,13.0466,4.2763,6.2768,-2.7484,-17.0819,-51.0035,-29.0765,-12.1833,-1.6451,-20.6141,
20.0471,-1.6144,21.0235,1.9759,26.3638,9.9866,20.0002,-16.6835,-5.6489,-62.0433,-41.4319,-25.5523,-15.6464,-13.9191,
28.7711,-14.2261,5.6621,5.9237,10.682,-4.7126,4.7002,-1.5825,8.7901,-44.2207,-24.846,-9.9191,-16.3661,1.016,
12.9448,-10.8309,-8.7776,-7.1404,-4.059,-18.5298,-9.6818,12.6125,-5.8373,-27.4674,-9.2552,4.776,-16.9093,-2.4697,
26.2681,3.9189,5.849,1.4219,6.218,-22.2614,-2.1173,25.9557,-19.5871,-11.7194,5.4001,-9.6106,-1.7948,-13.5052,
37.3997,-0.24924,19.5981,2.3533,19.9449,-6.8257,12.1097,10.2984,-4.3119,-25.1162,-9.0239,-23.1339,10.6471,-26.7949,
21.0557,-9.3848,4.3222,16.3121,29.0493,7.6838,25.4831,-4.4195,10.0468,-37.7092,-22.5825,-35.8459,-4.0917,-11.0872,
23.2176,4.9048,1.8957,22.0756,13.2063,1.8987,23.7137,-8.8636,-4.656,-42.1889,-35.3275,-19.5951,-6.5216,3.678,
35.0417,18.7105,15.882,11.6007,-1.6861,-12.3153,8.1909,5.7682,-18.4766,-25.5576,-19.1079,-9.0285,7.9697,-9.1175,
26.3307,16.1963,10.4876,-3.1953,-3.8861,-25.6763,-6.4006,19.5221,-31.468,-9.9241,-3.8614,-22.5868,21.5915,-22.6704,
10.6509,1.1245,-4.2417,0.42094,10.447,-10.0358,8.0835,4.2508,-15.4799,-23.4287,-17.7297,-32.0408,6.196,-7.2102,
-4.0882,9.5653,2.4877,14.4957,17.5796,4.6664,21.6985,-10.1043,-0.45114,-36.1229,-30.7659,-16.0184,-8.2758,7.3224,
3.5152,10.0073,10.4715,7.1513,2.4248,-9.7136,34.4966,-23.598,-14.5241,-48.0556,-43.02,-28.649,-13.8799,-7.2169,
17.4043,-4.6931,5.7764,-7.3778,1.1286,-23.2308,18.3268,-8.0821,-27.7526,-31.0722,-26.3388,-33.0303,1.0529,-20.8839,
27.1688,-6.0702,7.9717,-5.544,-9.6146,-30.7471,3.5014,6.5028,-40.1875,-15.1079,-10.6585,-16.9485,15.0897,-14.1727,
11.4386,-0.62203,-5.7232,8.8887,-8.021,-14.8022,17.3913,-5.4453,-23.6762,-0.10143,-12.4537,-30.0316,0.084338,-27.4223,
21.8022,13.5153,8.7202,22.4554,6.5603,0.1859,30.4478,-19.2186,-8.1557,-14.1953,-25.8065,-30.7713,-14.0207,-11.677,
6.3941,-1.3956,22.297,16.2921,20.2667,-7.691,23.8055,-32.1654,6.4337,-17.7849,-38.3581,-41.1249,-26.9041,-0.80964,
-8.0896,-15.4119,6.8592,1.2146,4.9507,-21.3296,8.2772,-16.1355,-8.0523,-2.6178,-21.9566,-24.5574,-11.1898,-1.7778,
-11.4306,-8.0128,-7.6524,-12.9583,-9.4464,-34.1498,-6.3195,-1.0674,-21.6692,11.6393,-6.5392,-8.984,3.5816,-15.7711,
3.3553,6.568,6.9068,1.9192,-5.3215,-18.0008,8.1597,13.0967,-24.7044,25.0409,7.9531,-20.887,17.4667,-28.9248,
5.8296,16.9832,20.5924,9.8039,9.0978,-2.8208,21.7701,-1.7891,-9.1221,9.4385,-6.624,-33.7337,2.3187,-13.0893,
-8.6202,1.8642,5.2568,-0.95185,0.043876,9.5484,34.5639,-15.7818,-16.0659,-5.2278,-20.3266,-45.8097,-11.9204,1.796,
2.9472,15.8523,4.0587,13.2053,-12.1587,-5.1245,18.3901,-0.73488,-29.2019,9.1858,-5.007,-28.9611,2.8948,10.8386,
-11.3296,2.1926,-10.2848,-1.6871,-25.5291,-18.917,3.1867,13.4092,-41.5498,22.7347,9.3934,-13.1235,-10.7374,-3.9118,
3.4501,-2.006,4.4323,-7.1771,-9.8974,-20.591,2.3532,26.7047,-24.9568,35.4706,22.9298,-26.4361,4.0069,-17.7771,
-10.8569,-15.9857,-9.9336,7.3536,4.7965,-5.2555,16.312,11.0024,-9.3594,19.2424,7.454,-38.7087,-0.67479,-2.6104,
-13.8983,-0.92653,-7.9472,15.1795,0.066942,-12.9402,16.4838,-3.7578,-21.5065,3.9878,-7.0932,-22.2862,-1.143,-11.2299,
1.0356,10.3137,6.6296,5.1187,0.062925,-6.0627,15.4948,-5.0575,-34.3161,17.8486,-12.2596,-35.049,10.1105,-24.6561,
15.0735,5.6266,20.3319,-0.2722,14.1591,-7.7333,19.6488,9.346,-18.1571,30.8777,2.576,-37.5216,23.6038,-14.1605,
20.5373,-8.811,13.2798,-1.2723,27.4096,5.9481,32.5699,22.8852,-2.9677,43.125,16.5214,-21.1703,36.2876,0.78915,
5.2051,-21.1237,-1.617,4.396,11.665,10.1672,29.2248,7.4121,-16.8896,49.3405,1.4301,-9.0901,20.0104,6.468,
-6.4254,-5.7563,11.5626,12.774,4.9987,-4.5429,13.3713,19.3011,-29.9762,60.4801,3.511,-14.1377,4.7097,-8.02,
8.0601,-6.8028,13.9197,-2.0924,18.7988,6.2707,26.1603,4.043,-14.0777,42.7513,-10.7996,-27.3894,10.5264,-21.6388,
18.3865,-15.0369,-1.0155,6.5417,31.7709,19.9944,38.6907,-10.2996,-4.5907,26.0862,-24.2517,-38.5884,14.4703,-6.2405,
3.1833,-9.051,-15.0546,8.1826,15.7646,4.6948,22.2693,4.4184,-18.4153,38.621,-8.6966,-22.1731,8.5183,5.1841,
-10.8676,5.5921,-16.4528,2.0992,0.71874,-9.6869,6.8331,18.2533,-31.4103,50.4038,5.9252,-6.7427,-6.0928,-9.227,
3.8845,-8.8434,-6.3151,-12.1268,-7.458,-23.2057,-2.8612,31.2581,-43.6257,61.4795,19.6697,-20.4382,8.3728,-22.7734,
12.9362,-14.9213,1.181,-4.4158,7.0895,-7.7134,11.4105,15.2826,-26.9082,43.6908,4.3895,-20.6023,21.9704,-7.307,
-1.9399,-9.451,-12.9899,9.9491,12.3899,6.8494,24.8258,0.26566,-11.1937,26.9693,-9.9738,-20.8918,6.5522,7.2315,
-8.0575,-1.2585,-9.2944,17.62,-2.4535,-5.7619,37.4363,-13.8503,-24.6221,11.2512,-23.4754,-33.7383,-6.549,-7.3024,
6.5259,-8.2999,5.3633,2.4628,-9.0488,-19.5162,21.0901,1.0807,-37.2447,24.6761,-7.9669,-45.814,7.9439,-20.9643,
-1.8659,-12.8854,-3.9753,-11.7849,-3.4223,-32.4452,5.7247,15.1159,-49.1101,37.2955,6.6111,-28.9652,21.5673,-31.6666,
-15.854,-7.029,-17.8368,3.0222,6.9505,-16.3985,19.4812,0.10894,-32.0635,20.9578,-7.8855,-13.1273,6.1732,-21.633,
-5.3778,7.4927,-2.6666,16.9408,20.6335,-1.3146,32.4123,-13.9976,-16.0397,5.6003,-21.5124,-4.206,-8.2972,-6.2351,
-14.7138,-0.95667,11.5934,1.8244,24.6125,-3.2696,27.8191,-27.2577,-0.97727,-8.8357,-34.3217,-18.0537,-11.8666,-19.961,
-18.9138,-14.9993,-3.2022,-12.3851,9.0357,-17.1734,12.05,-11.5223,-15.0186,5.7944,-18.1624,-2.8704,2.9454,-14.696,
-5.5793,0.0006887,-17.11,-5.8101,-5.6064,-30.243,-2.773,3.2691,-28.2175,19.5468,-2.9726,11.4018,16.8687,-8.7308,
-6.2612,3.0515,-1.9834,2.6724,-10.6213,-31.7459,8.3092,-11.0271,-33.5347,4.274,4.1891,-3.3823,1.7565,-22.3069,
8.2144,16.9684,12.2356,16.612,4.1159,-15.7411,21.9107,-24.4655,-17.4226,-10.0825,-10.1623,-17.2794,-12.4489,-6.8685,
6.8389,1.8503,11.6352,3.5487,17.969,-11.6135,34.696,-37.0975,-2.2773,-23.5775,-23.6525,-30.3426,-7.6351,7.6436,
-7.6714,-8.4282,-3.1629,-0.73151,2.7909,-25.0167,18.5143,-20.7717,-10.0072,-8.0629,-8.1334,-14.4221,6.923,11.3853,
-21.3111,1.2278,-17.0731,-5.7706,-11.4766,-37.6157,3.3034,-5.4254,-23.5067,6.5209,6.4546,0.54326,20.6076,-3.3978,
-13.6916,-12.9459,-1.9487,-19.5244,3.312,-26.9835,-4.5202,9.0001,-7.9963,20.2296,20.1674,-13.5893,19.13,-17.2939,
-7.2777,-5.1856,12.2682,-4.2529,17.2133,-11.2645,9.8511,-5.6399,6.5835,4.9159,4.8573,-26.874,5.2736,-2.1563,
-20.941,-6.9083,-2.5679,10.1022,2.0805,3.5114,23.36,-19.4015,3.2724,-9.4791,-9.5341,-25.0209,-9.1428,12.0731,
-5.5846,7.6062,11.6862,23.5961,-12.1443,-4.5658,7.8584,-4.1374,-11.024,5.1897,5.1379,-9.4196,5.5057,2.7064,
8.8505,-3.3916,21.6602,8.0803,-3.7903,-18.3919,-6.7131,10.2109,-24.4625,18.9783,18.9296,-14.3126,19.2754,-11.556,
12.0114,-17.2881,16.2938,-6.5045,10.5371,-10.305,7.7897,23.6982,-8.8948,31.9396,31.8939,-17.5207,32.2189,-24.9626,
-2.8093,-29.0942,1.2162,7.9858,24.0049,4.4133,21.4223,8.1763,5.7389,15.9232,15.8802,-2.3694,16.1857,-9.3649,
-16.7408,-18.1975,-4.5821,14.7573,8.4646,-9.9515,6.037,0.43481,-3.756,0.86782,0.82742,8.5822,1.1146,-1.3119,
-1.6363,-3.0057,9.7929,-0.22812,22.0567,4.7456,19.7747,1.4261,-17.6306,-13.2843,11.9612,-6.0327,15.1477,-15.3332,
12.5619,-1.6751,21.5395,-1.3647,34.8333,15.2703,32.6883,10.4911,-2.4728,0.97031,25.3435,-16.9885,28.3389,-0.31318,
10.283,-15.6746,6.1471,-6.3665,18.6433,0.25411,16.627,23.9616,11.7756,15.0121,34.1242,-1.8692,12.5385,13.8056,
-4.434,-9.7842,-8.3217,8.1155,3.4247,0.10459,17.4216,17.574,22.3868,0.011362,17.9767,10.5767,-2.3138,5.9949,
9.932,-1.5717,6.2776,0.13696,17.3192,-1.4264,12.8187,19.0617,6.9436,-1.5145,21.3389,-4.1579,0.36715,-8.4648,
23.4361,-0.96921,12.8848,-0.37949,30.3801,12.7592,26.1496,3.818,20.627,-15.5236,5.9586,-17.2586,14.4451,5.1266,
7.9299,-12.6032,-1.9883,7.2686,36.0762,26.0937,38.6806,-10.5111,33.4893,-28.6922,-8.499,-5.5474,5.5791,17.5276,
-1.1872,-7.7802,-15.969,8.8664,19.8117,10.428,22.2598,4.2196,17.38,-16.0543,4.9612,-15.382,13.3779,2.376,
6.0007,6.7866,-8.671,-5.7656,4.523,-4.2976,6.8242,18.0664,2.2372,-0.99105,18.7636,-28.5591,10.5409,-11.8666,
15.8074,-7.7206,-19.3344,-19.5196,-9.234,-18.1398,-7.6853,31.0824,-11.997,13.1684,31.7377,-23.9292,16.0089,-25.2546,
4.184,-14.8823,-13.5986,-4.2485,5.42,-2.9514,6.8758,15.1175,2.8228,-1.7217,15.7335,-8.3935,4.3729,-9.6393,
-10.1671,0.11068,-9.7333,10.1064,19.1948,11.3257,20.5633,0.11041,16.7534,-15.7184,0.68947,4.9523,-9.9895,5.0391,
-12.2329,9.8961,-8.6406,-4.5999,3.9431,-3.4539,20.4802,-13.9962,1.6482,-28.8753,-13.4519,-9.4448,-23.249,-9.3633,
2.601,-4.7977,-15.2388,-18.4239,-4.293,-17.3466,5.1514,0.94356,-12.5507,-13.0428,1.4552,-22.9782,-7.754,-22.9015,
-4.5381,-18.6098,-26.5251,-17.5868,-12.1688,-30.4058,-9.2577,14.9869,-25.8976,1.8398,15.4679,-7.4995,6.8112,-29.0456,
-14.9413,-3.3932,-17.3085,-2.4316,-12.9641,-15.123,-2.3609,-0.012273,-10.2438,-12.3706,0.43983,-16.3333,-7.6975,-41.4029,
0.05518,10.9104,-2.17,11.8143,1.9138,-0.11563,11.8808,-14.1115,4.4708,-25.7284,-13.6866,-18.4037,-20.8274,-24.8187,
14.1519,0.088766,12.0602,3.2397,15.8989,13.9913,25.2679,-19.6336,5.594,-38.2847,-26.9654,-3.1994,-5.4777,-9.2296,
-0.79724,-14.0166,-2.7634,-11.0547,7.079,-0.94817,9.6519,-4.3556,-8.8417,-21.8876,-11.2474,11.0925,8.9509,5.4242,
0.90931,0.92443,-16.6976,-10.5255,-7.4458,-14.9913,-5.0273,10.0058,-22.4112,-6.4743,3.5274,24.527,22.5139,-9.0013,
3.9048,-6.2482,-1.5957,-18.0278,-16.7911,-28.1918,-18.8256,-4.6946,-7.1003,-20.1859,17.4158,8.9553,7.063,-22.5612,
17.7706,8.2267,12.6,-2.8461,-1.6836,-12.4003,-3.5961,-18.5129,7.4257,-33.0747,2.2708,-5.682,-7.4608,-7.1075,
2.6043,-4.8422,-2.256,7.1172,4.1422,-2.5067,10.7197,-31.5021,-5.5951,-45.1902,-11.9654,-19.4411,-21.1131,7.4189,
-5.6855,9.5483,-9.6122,10.2487,-10.2063,-16.4563,-4.0235,-15.512,-19.3594,-28.3788,2.8525,-4.1746,-5.7463,0.12446,
7.3645,7.0766,-0.39342,-4.4662,-23.694,-29.5689,-17.8821,-0.48128,-32.2978,-12.5761,16.7813,10.1759,8.6985,-13.983,
12.5141,-7.448,-0.87804,-18.2982,-8.1723,-18.4038,-2.7092,10.866,-16.26,2.2785,29.8745,-4.5347,10.986,-27.244,
-1.9616,-3.0679,-6.4166,-3.1003,6.418,-3.1996,11.5534,-3.8859,-1.1844,-11.9582,13.982,-18.3626,-3.7732,-11.5094,
-15.9439,3.2159,-20.1316,11.1857,7.0499,11.0924,5.9093,-17.7528,11.0876,-25.3407,-0.95693,-13.194,-17.6468,0.73907,
-0.88727,10.1401,-4.8237,-3.5854,19.8447,14.2532,-8.5453,-2.5876,-3.6777,-9.7203,13.2005,-25.6192,-2.488,-13.4053,
13.266,-4.5683,-2.5014,-17.4703,32.754,-0.70199,-11.2162,11.6677,-17.557,4.9629,26.5085,-38.1821,9.2194,-18.8349,
26.57,-13.5786,-13.5352,-11.0977,44.8888,13.4401,3.5568,25.0676,-2.4036,18.7652,39.018,-21.7912,22.7663,-3.6048,
10.8758,-2.5964,-21.8732,3.6682,34.3294,26.7337,17.4434,9.4635,11.8406,3.5392,22.5769,-6.3837,7.3003,10.7114,
14.9326,7.2177,-6.4608,1.0402,26.6782,38.989,13.1067,-5.2043,-2.9698,-10.7731,7.1223,-20.1007,-7.2377,-4.0312,
28.1366,7.8016,8.0269,-13.1222,39.1775,49.867,26.4203,-5.0265,8.7667,-24.2267,15.9788,-31.6037,7.2965,-17.8894,
40.5484,-2.834,-6.5547,-3.3186,50.9268,43.8247,38.9351,9.3751,22.3407,-8.6731,29.12,-15.6075,20.9587,-2.716,
24.0155,-0.12185,-20.2615,6.5393,33.7712,28.4861,22.499,22.9126,21.6423,5.9473,41.2322,-0.57105,12.7179,11.547,
8.4746,13.9855,-16.5041,0.55497,17.645,30.336,7.0491,7.4378,6.2438,-8.5096,24.6582,-14.6368,-2.1452,-3.2459,
22.0661,7.1799,-5.8546,-10.1531,2.8607,26.9906,-7.4739,21.0915,-5.4481,6.101,9.0787,-15.149,-16.1165,-11.0504,
15.7917,-0.87624,-10.0794,4.5561,16.7891,39.4712,7.0745,5.726,8.9788,-8.3651,-5.566,-0.14006,-23.0424,3.7126,
0.74419,4.7688,-23.5746,18.3828,6.765,46.3868,20.7501,-8.7175,22.5401,-21.9632,-19.332,13.9683,-35.7599,17.5898,
3.6156,17.1913,-17.2102,3.8213,-7.7409,29.5036,5.4051,-3.1112,14.8463,-13.7968,-21.2494,-0.96976,-19.5143,2.4344,
17.4987,7.0093,-2.0776,-10.508,-21.3765,13.6333,-9.0192,11.1755,-0.14446,1.131,-5.8744,-15.0116,-4.2434,-11.8116,
13.5329,0.48828,-6.9026,-20.1785,-11.7199,-1.2847,-22.5781,24.6049,-14.2358,15.1632,8.5781,-0.010877,10.1112,-2.4613,
-1.379,4.0173,-20.5885,-4.8678,-4.408,12.8924,-7.1234,9.0286,0.71836,0.15338,-6.0366,-4.9607,-4.5955,-0.78873,
1.1113,17.8763,-5.2531,9.5243,9.9565,26.2189,7.404,-5.6131,14.7753,-13.9558,-19.7744,9.437,-18.4198,13.3586,
13.7537,9.3126,9.162,-5.0132,23.4591,10.5457,18.1427,5.9081,27.9887,-12.1015,-10.4539,19.6803,-3.2146,7.0999,
2.2528,-5.3462,-5.4877,-18.8124,7.9515,-4.187,2.9542,19.6536,32.0352,2.7246,4.2734,29.1747,11.0783,-2.9854,
10.7602,-7.1928,-19.2584,-16.8007,-6.6256,-18.0358,-11.3231,32.5744,18.4211,16.6611,18.117,41.5242,24.5136,10.9195,
4.0141,7.3388,-4.0029,-2.5756,3.4302,-16.9805,-3.7941,16.5199,31.4159,1.5614,5.0971,24.9327,25.478,-3.8356,
17.8733,16.183,10.3373,11.679,17.3244,-1.8617,10.5335,1.4288,43.6309,-12.6323,-9.3087,9.3368,9.8493,10.4945,
29.1351,1.112,6.8007,-0.071928,21.503,1.4336,19.1853,-12.757,55.1131,-25.9743,-22.8502,15.2517,21.325,23.9648,
13.2869,-5.6974,-7.7073,-11.7593,6.1128,-12.7524,3.9342,2.1084,37.7063,-10.3159,-7.3792,28.4366,30.7212,32.3193,
-1.6103,-4.8473,-13.4789,-25.1537,-8.354,-26.0872,-10.4018,16.0819,21.3439,4.4031,7.1636,40.8304,28.3692,16.2801,
12.5863,-12.6901,1.4299,-26.3204,6.2473,-15.639,-23.8777,8.1337,34.1633,18.2389,20.8338,24.2806,21.5843,1.2033,
-2.2688,-2.2699,3.0035,-10.6412,19.9724,-0.60071,-8.3451,-6.4543,46.2135,3.0446,5.4837,8.7237,6.1892,15.2311,
-14.6011,7.5246,-11.2767,4.0973,4.6741,-0.43136,-21.9444,-20.1671,57.5407,-11.2381,-8.9453,-5.8997,-7.5337,28.4172,
0.37492,18.7655,3.4999,17.8448,-9.7064,-14.5055,-34.7277,-4.8571,39.9882,3.5362,5.6914,8.5543,7.0183,12.6122,
14.4524,3.5396,8.3727,2.6741,-23.224,-27.7351,-46.744,9.5344,23.4889,17.424,19.4499,22.141,20.6972,-2.2445,
10.2955,-10.7728,1.7704,-11.5863,-7.7305,-13.6293,-29.8394,23.0623,36.1796,30.4786,32.3829,19.4209,33.5554,-10.5113,
-4.4222,-8.8686,-9.0118,3.2089,-9.5677,1.2885,-13.949,7.5786,48.1088,14.5499,16.34,9.6136,17.442,4.2194,
-18.2569,-6.8118,-4.9125,16.0996,-21.7022,-8.8218,-15.0381,-6.9762,36.0989,-0.42314,1.2596,2.4289,2.2955,0.033476,
-3.0615,-14.5367,3.5168,1.0337,-6.3001,-22.3925,-16.1697,-8.2161,19.833,13.7023,15.284,-11.8169,16.0171,-14.0685,
11.2222,-20.7814,-10.7942,-13.1284,-20.0221,-17.1166,-14.1824,6.3769,4.543,26.9801,28.467,2.9919,27.2563,-0.14112,
15.1232,-5.4345,-13.8394,1.7593,-7.1291,-1.9896,0.76858,20.0943,18.3704,39.4613,40.8589,16.9124,11.5209,13.9673,
0.11578,3.1592,-15.5512,15.7538,-4.1597,12.2297,12.039,4.7886,31.3682,22.9936,24.3074,1.7976,-3.2704,8.1796,
14.2088,7.5447,-0.51808,3.1164,9.8149,16.3388,-2.7834,-2.9907,15.3861,7.514,8.749,2.1978,-15.0336,12.2638,
21.4904,-7.008,-4.9278,-11.1706,23.326,23.493,9.9599,-16.9113,28.5629,7.3312,10.3912,16.1659,-0.031626,23.7284,
12.5761,1.9205,-18.7321,3.5996,23.5859,36.1834,23.4623,-20.6054,40.9492,20.9914,11.2929,29.296,14.0703,20.7795,
13.8544,-2.2615,-8.0837,3.8919,8.0708,19.9124,7.9546,-5.2691,24.3922,33.8319,24.7153,13.4382,18.0691,5.4328,
7.9394,8.0412,6.5013,-10.4416,-6.5135,4.6177,-6.6227,-4.8192,8.8287,21.3933,9.1324,-1.4681,2.885,-8.9932,
8.9887,-5.1499,-5.4471,-23.9151,5.3014,12.3399,1.774,8.1786,-5.801,34.2097,11.1261,-15.48,-10.1315,-20.4133,
-2.2268,1.7675,-2.5787,-8.3802,19.0833,25.6995,15.7676,-6.4121,8.647,18.0572,-3.6415,-0.45121,-23.6236,-5.0885,
-16.1932,15.7614,-4.9651,6.2226,32.0383,38.2576,28.9215,-20.1274,22.2282,2.8737,-17.523,8.7259,-36.3062,9.3168,
-1.1216,28.9158,1.4325,-5.8424,19.2002,32.1629,13.0862,-4.8198,6.7945,16.8013,-6.5722,-5.8976,-20.0278,-5.3422,
13.0457,13.0808,-10.3456,-19.5919,8.3889,16.1331,-1.799,9.5694,-7.7132,29.8932,7.9221,-13.3024,-4.7261,-19.1217,
1.7215,7.8547,-20.4001,-14.4838,-3.8061,1.0651,-15.791,23.0953,-3.9599,42.1996,21.5468,1.5957,9.6574,-16.9579,
-6.0066,21.4834,-8.5004,0.48518,10.5223,15.1012,-3.2857,7.6096,10.3777,25.5677,6.154,-12.6,-5.022,-23.5653,
8.4538,34.2944,6.1097,14.5561,23.9909,28.2952,11.0115,-6.947,23.8551,9.9336,-8.3152,-25.944,-18.8207,-8.0514,
22.0465,18.1368,19.8431,-0.41729,36.6515,20.4968,7.9429,5.5369,36.5238,11.8797,-21.0341,-10.2874,-3.5915,6.5317,
6.6237,2.9486,4.5525,-14.4923,20.3524,5.167,-6.6336,19.3047,25.5839,25.2669,-5.6721,4.4298,10.724,8.9492,
8.3937,-3.837,-9.8206,-19.2144,5.0312,-9.2431,-20.3356,32.2464,9.9489,37.8509,8.7682,18.2641,21.9073,-5.6878,
21.9901,-0.048472,4.8686,-17.5536,-9.3706,-21.1559,-33.2155,16.2116,23.4519,21.4798,15.6273,3.0682,12.9672,-19.4465,
34.7707,10.6297,18.6765,-2.4004,5.2916,-5.7866,-17.1226,1.1389,36.1448,6.0911,0.5897,-11.2159,5.5808,-4.1797,
