"AF3","AF4","F3","F4","F7","F8","FC5","FC6","O1","O2","P7","P8","T7","T8",
94.7206,49.3341,115.4414,-30.5871,102.6139,-18.747,-7.8934,-23.6801,-49.3341,-15.7868,116.4278,7.8934,75.9745,-8.8808,
87.8146,49.3341,106.5616,-33.5473,110.5083,-24.6666,-14.8003,-38.6801,-58.2139,-18.747,103.6013,9.8672,72.0278,-9.8672,
72.8146,34.3341,101.1348,-48.5473,106.0679,-39.6666,0.19968,-53.6801,-73.2139,-30.0943,91.2676,-1.4801,57.7202,-23.1874,
82.881,20.7204,113.4681,-42.4276,100.6406,-44.4005,8.8803,-47.3608,-82.881,-31.574,106.2676,-8.8803,72.7202,-17.7601,
92.2545,35.7204,113.9617,-27.4276,115.6406,-29.4005,3.4535,-32.3608,-67.881,-21.2131,121.2676,-4.4399,87.7202,-3.4535,
77.2545,49.3346,103.6018,-24.667,118.4012,-14.4005,-0.98691,-23.6797,-60.1873,-19.733,112.4816,-2.9598,83.8683,0.98691,
71.5336,37.0008,106.0674,-35.027,104.0945,-29.4005,-4.4399,-38.6797,-75.1873,-31.0803,106.0674,-6.4137,72.521,4.4399,
80.9076,27.6268,99.6546,-48.3477,106.5616,-43.4136,-0.98644,-51.3079,-77.9474,-39.4669,93.7341,-11.8401,68.0811,0.98644,
82.8814,31.5745,86.8281,-44.4,98.6682,-28.4136,0,-37.4931,-70.054,-39.4669,80.9076,-5.9196,59.2013,0,
82.8814,36.5076,91.7613,-39.4669,99.6546,-13.4136,0,-33.5473,-78.9338,-37.494,76.9609,-3.9467,50.3205,0,
97.8814,38.9737,106.0684,-44.8942,114.6546,-22.2005,5.4263,-43.9068,-85.3475,-30.0939,74.4939,-6.4137,54.7604,-5.4263,
101.6284,34.5338,98.6682,-48.3467,107.548,-37.2005,6.9069,-41.4407,-84.8543,-30.5871,69.0675,-6.9069,45.3874,-6.9069,
86.6284,24.1734,84.3611,-46.8671,92.548,-38.9737,7.4002,-37.0008,-88.3078,-37.0008,68.5743,-9.374,30.3874,-7.4002,
71.6284,28.6137,97.6813,-36.5071,97.6813,-30.5876,4.9336,-35.5207,-77.9478,-22.6942,75.974,-4.9336,33.5469,-6.9065,
74.0007,31.5735,102.6139,-34.5338,112.4811,-33.5473,-10.0664,-35.5202,-62.9478,-10.8536,81.8941,4.9331,48.3467,-4.9331,
63.147,26.6404,92.7477,-38.4805,97.4811,-34.5338,-25.0664,-34.5338,-52.2944,-15.7868,91.7613,2.9603,46.3738,-2.9603,
72.0273,35.5207,107.5475,-30.5866,96.6949,-22.6932,-10.0664,-31.574,-62.1611,-13.8134,98.6677,-7.8938,52.2939,1.9733,
70.5472,32.0667,108.0412,-36.0134,95.2147,-29.1065,4.9336,-45.8806,-71.5336,-28.1201,83.6677,-17.2664,54.7604,-6.4137,
58.2139,35.5202,95.7079,-21.7073,93.7341,-29.6006,5.9205,-41.4407,-63.147,-38.4805,77.9474,-6.9069,53.2808,-5.9205,
68.5739,37.0003,88.3083,-20.2271,92.2549,-35.0265,4.4404,-27.1331,-71.5341,-37.9868,75.4808,-10.3599,43.9073,-4.4404,
75.4813,22.2005,86.3349,-35.2271,84.3611,-43.9068,0.49322,-36.0134,-82.3873,-36.9999,60.4808,-13.3197,42.9204,-0.49322,
60.4813,9.8667,81.8945,-50.2271,80.9081,-48.3472,-2.9598,-51.0134,-90.7743,-49.3336,52.2939,-11.8405,40.4538,2.9598,
45.4813,16.2804,80.4139,-47.854,78.4411,-45.8802,-7.3997,-51.8007,-85.348,-49.8268,66.601,-15.2931,37.0003,7.3997,
53.774,25.1607,84.3611,-34.0406,82.3873,-34.0406,-12.3333,-36.8007,-70.348,-44.8942,61.6674,-13.3197,43.9068,12.3333,
62.1606,15.7868,86.8281,-37.494,76.9609,-49.0406,-0.98644,-45.3874,-74.9871,-57.2275,47.3603,-16.7732,40.4543,0.98644,
49.3346,9.8667,90.7743,-50.3201,64.1349,-64.0406,14.0136,-57.227,-84.8538,-61.1737,47.3608,-27.6264,27.6273,-9.8667,
49.3341,18.747,88.801,-37.494,79.1349,-49.0406,2.9603,-45.3874,-78.9347,-46.3738,45.3874,-29.6006,32.56,-2.9603,
64.3341,26.6404,90.7748,-26.6404,94.1349,-34.0406,-8.8798,-30.3874,-63.9347,-31.3738,51.307,-14.6006,47.56,8.8798,
60.6805,22.2,89.2947,-41.6404,93.2414,-30.0934,-2.4666,-40.947,-69.5612,-23.1874,46.8675,-10.3599,49.8268,2.4666,
60.6809,27.1336,95.2147,-41.9339,78.2414,-29.1074,8.3866,-37.9872,-84.5612,-14.3071,40.9475,-24.1734,35.027,-8.3866,
73.0142,33.5464,106.5606,-28.6142,63.2414,-24.6675,11.8401,-32.5609,-71.0414,-16.7741,54.2672,-25.654,45.3874,-11.8401,
66.601,23.1874,95.2143,-30.0934,71.5341,-39.6675,9.3735,-47.5609,-56.0414,-31.7741,69.2672,-18.2533,54.7609,-9.3735,
64.1335,16.7732,90.7739,-30.5871,86.5341,-54.6675,6.9069,-56.241,-41.0414,-27.6268,84.2672,-8.8808,60.1868,-6.9069,
71.5346,23.1869,105.7739,-24.1734,89.2942,-39.6675,3.4535,-42.9204,-33.0532,-12.6268,99.2672,-4.4399,59.6945,-3.4535,
56.5346,19.7335,107.548,-30.5871,74.2942,-41.4407,-6.9069,-49.3341,-48.0532,-9.8672,84.2672,0.98644,44.6945,-0.98644,
48.8404,8.3871,92.548,-45.5871,64.6272,-50.8142,-12.3338,-54.7609,-63.0532,-24.8672,69.2672,-2.4666,30.0934,2.4666,
63.8404,15.2935,102.1217,-41.9339,77.4541,-36.9999,-4.4399,-40.9466,-52.7876,-24.1734,58.7071,-12.3333,37.9872,4.4399,
64.1344,28.6142,115.4414,-26.9339,85.8417,-32.56,-10.8536,-37.494,-53.2808,-27.6268,58.2139,-10.8536,47.3612,10.8536,
49.1344,19.2398,103.1076,-26.1467,71.5341,-47.56,-5.4268,-48.8404,-68.2808,-39.9606,43.2139,-15.294,32.3612,5.4268,
48.3477,4.9331,95.7079,-29.5997,56.5341,-58.2139,9.5732,-51.307,-65.1209,-39.4669,43.4136,-28.6133,25.654,-4.9331,
58.2139,0,93.7351,-22.6937,54.2672,-57.2275,11.8401,-55.2537,-50.1209,-45.3865,47.3612,-31.5735,31.5745,0,
62.6543,13.3202,98.1745,-13.3202,69.2672,-57.7202,-3.1599,-44.8937,-43.9073,-44.8937,53.7745,-16.5735,25.1603,15,
58.2139,9.8672,96.6944,-17.7606,67.0947,-62.1606,-8.8798,-45.3874,-58.2139,-43.4136,47.3603,-19.7335,10.1603,9.8672,
54.7604,0.49322,99.1614,-21.214,52.0947,-54.7604,6.1202,-45.8806,-49.8273,-50.8138,37.9872,-28.1201,12.3333,-0.49322,
43.9073,2.4666,93.2404,-23.1874,57.7202,-55.7474,2.4666,-50.8142,-50.8142,-58.7076,39.9606,-27.1341,15.2931,-2.4666,
52.2943,12.8265,98.6682,-28.6133,72.7202,-59.2004,-2.9603,-57.2275,-53.2808,-43.7076,54.9606,-13.8129,11.8401,2.9603,
58.7071,6.4128,100.1479,-37.0008,57.7202,-70.5481,0.49322,-62.6538,-56.7343,-48.8409,41.9339,-28.8129,0.49322,-0.49322,
53.2808,0,91.7613,-32.5609,42.7202,-74.0016,0,-57.2275,-60.1877,-63.8409,30.5871,-43.8129,6.906,2.9593,
40.4543,-0.98644,84.8543,-34.5338,48.3477,-74.0007,1.9738,-58.2139,-59.2004,-65.1209,44.401,-44.4,13.8139,0.98644,
41.4407,7.8934,92.7477,-27.6268,63.3477,-77.9474,0.98644,-57.2275,-45.3874,-50.1209,55.2537,-29.4,9.8663,-0.98644,
52.7866,10.3595,98.174,-25.1607,52.7866,-81.4008,-3.4535,-49.8273,-43.9078,-41.9339,48.8399,-24.1743,14.3062,3.4535,
61.1742,0.98644,99.6546,-26.6404,56.241,-66.4008,2.9603,-47.3603,-53.2808,-38.4805,59.2013,-26.6404,29.3062,-0.98644,
74.9876,5.92,109.5214,-16.7737,71.241,-51.4008,17.9603,-38.4809,-43.4141,-38.4809,74.2013,-14.8008,39.4664,-5.92,
78.9347,7.8934,112.4821,-11.8401,74.0016,-45.3865,32.9603,-37.4931,-36.5066,-47.3603,71.0414,-7.8934,40.4543,-16.7732,
72.5206,5.4268,114.9477,-5.4268,79.4275,-40.947,43.9073,-40.947,-31.0798,-35.0265,73.5079,-5.4268,54.7609,-26.1467,
67.0942,4.9336,120.375,-10.8541,94.4275,-25.947,33.5469,-38.4809,-21.7068,-26.6409,81.8945,-4.9336,56.2406,-26.6409,
67.0937,3.9467,113.4676,-19.7335,86.8272,-31.5745,18.5469,-43.4145,-33.5473,-36.5076,70.054,-3.9467,42.4272,-36.5076,
68.0806,-0.98691,99.6542,-25.6535,71.8272,-46.3743,5.92,-58.4145,-48.5473,-37.4936,60.1873,0.98691,43.4141,-51.5076,
60.681,-0.49322,98.174,-15.2935,86.334,-40.9475,5.4263,-62.6538,-33.5473,-22.4936,75.1873,0.49322,58.4141,-59.6945,
45.681,-3.9462,97.6813,-6.9065,94.721,-51.3074,13.8134,-63.1475,-18.5473,-7.4936,90.1873,-10.8532,73.4141,-53.2803,
35.027,-16.28,94.2283,-12.3333,80.4144,-62.6538,28.8134,-76.4668,-11.3469,-3.4535,84.3611,3.4535,63.6412,-62.6538,
28.6142,-24.6666,79.9212,-15.7868,65.4144,-47.6538,15.7868,-86.8272,-26.3469,-18.4535,71.0414,18.4535,48.6412,-77.6538,
31.574,-9.6666,73.0147,-6.9065,70.0545,-32.6538,5.92,-74.9876,-25.6535,-17.7601,74.0011,25.6535,45.3869,-70.0545,
21.214,-11.3469,58.7071,-21.9065,80.4144,-27.1336,11.3469,-89.9876,-34.0406,-30.0939,59.6945,23.1869,35.027,-61.6674,
19.7335,-19.7335,62.1606,-22.6937,65.4144,-40.4543,26.3469,-101.6284,-36.5076,-44.401,54.2672,24.6666,23.6801,-64.1344,
21.214,-16.28,70.5472,-15.2935,50.4144,-36.0134,16.28,-90.2807,-34.0406,-44.8942,58.7071,18.2538,15.2935,-71.5346,
26.6409,-4.9336,65.1213,-7.8929,65.4144,-22.6932,4.9336,-86.8277,-20.7204,-29.8942,68.0806,30.5876,16.7737,-56.5346,
31.574,-13.8134,58.2134,-8.8803,80.4144,-29.6002,8.8803,-101.8277,-28.6137,-14.8942,67.0942,42.4267,9.8667,-43.4141,
32.0667,-24.1734,67.5879,-13.3197,65.4144,-24.1734,16.28,-93.2409,-31.0803,-9.373,66.6005,42.9204,9.373,-42.9204,
17.0667,-34.5338,61.1742,-17.7606,50.4144,-19.7335,17.7596,-90.7748,-26.6404,-11.8401,59.2004,36.5067,11.8401,-40.4543,
5.4268,-31.0798,46.8675,-13.3202,65.4144,-31.0798,24.1738,-103.1076,-30.0934,-5.4268,62.6543,43.9073,19.2407,-25.4543,
7.4002,-29.1065,44.8942,-18.2538,72.521,-46.0798,9.1738,-107.0548,-34.0406,-7.4002,62.6538,35.027,17.2674,-13.3197,
20.2271,-25.1603,59.8942,-4.4404,57.521,-31.0808,4.4404,-92.0548,-25.1603,-18.2533,64.6272,34.0401,27.1331,-5.4268,
13.8134,-33.5469,59.2008,-5.92,46.3743,-29.6002,5.92,-86.8277,-33.5469,-33.2533,59.2008,38.4809,21.7068,-11.8396,
14.7999,-28.6137,61.1737,-4.9336,55.2541,-37.4936,2.9598,-84.8548,-24.667,-33.5469,64.134,51.3074,20.7204,-2.9598,
3.9467,-31.5735,59.2004,-3.9467,41.4407,-41.4407,-3.9467,-83.8679,-13.8139,-30.5871,55.2537,56.241,23.6801,5.9205,
-2.467,-34.0406,54.7604,1.4797,35.027,-44.8942,7.4002,-86.334,-15.2935,-33.0541,56.7343,48.8409,24.1734,-1.4797,
7.4002,-44.8942,48.8409,0.49322,40.9466,-53.774,-0.49322,-90.2816,-29.1074,-28.1201,65.6141,33.8409,14.3071,-16.4797,
15.7863,-56.2406,53.2803,-4.9336,54.2668,-46.3743,4.9336,-88.8015,-26.6409,-20.7204,66.1068,30.5866,14.7999,-18.7475,
4.9336,-62.1611,56.2406,-7.8939,44.4005,-46.3743,19.9336,-91.7608,-26.6399,-35.7204,55.2541,33.5469,8.8803,-4.9336,
4.4399,-55.7469,60.681,-5.4263,31.0803,-51.8002,23.1869,-76.7608,-15.2935,-22.2005,65.6141,43.9068,10.3604,-4.4399,
6.9065,-58.2144,56.2406,-6.9065,39.4674,-53.2803,8.1869,-66.1078,-11.8405,-7.2005,74.9876,55.2541,13.8134,-6.9065,
4.4404,-63.6407,55.7474,-4.4404,27.1341,-63.6407,-1.4801,-80.4139,-25.1603,-20.2271,68.5739,47.854,12.3338,1.4801,
-2.467,-77.4541,53.774,-16.28,12.1341,-78.6407,2.467,-94.2273,-36.9999,-35.2271,56.7343,32.854,10.3604,5.4273,
-1.4801,-69.5603,49.8278,-18.2533,27.1341,-76.4672,1.4801,-79.2273,-28.1205,-37.9868,49.8278,29.107,16.2804,14.3066,
4.9331,-54.5603,45.3874,-7.8934,42.1341,-61.4672,-4.9331,-64.2273,-25.654,-35.5202,44.401,38.4805,19.7335,14.8003,
10.3604,-42.9204,48.8409,-7.4002,36.0144,-46.4672,-14.3071,-59.6936,-33.0532,-50.5202,44.8942,23.4805,10.3604,7.4002,
25.3604,-31.0808,57.7202,-4.4404,28.1205,-31.4672,-8.3871,-44.8937,-34.0401,-65.5202,45.8802,13.3202,-0.49369,18.2533,
23.6806,-27.6273,44.4005,-13.8134,24.667,-16.4672,-12.827,-37.4936,-46.3734,-65.1204,30.8802,21.7068,-10.8532,10.8532,
11.3469,-26.1472,42.9204,-6.4137,9.667,-1.4672,-27.827,-37.0008,-47.8535,-54.7604,29.1074,31.0803,-0.49322,6.4137,
0.98644,-25.654,46.3738,2.9603,-5.333,13.5328,-37.494,-45.3874,-41.4407,-43.4136,25.654,27.6268,-0.98644,11.8401,
7.8934,-16.7741,50.3205,3.9467,-20.333,2.9603,-22.494,-35.5202,-26.4407,-28.4136,28.6133,38.4805,-2.9603,19.7335,
6.4142,-13.3202,45.8811,-2.4666,-5.333,-9.3735,-7.494,-29.107,-28.1196,-18.2533,29.107,51.8007,2.4666,19.2407,
-3.9467,-14.8003,44.4,-3.9467,9.667,3.9467,-22.494,-36.5076,-35.5202,-24.6675,26.6404,53.2808,11.8401,30.5871,
-1.4797,-17.2664,50.8138,1.4797,-2.467,18.9467,-28.1201,-33.0532,-28.1201,-21.2131,34.0406,57.7207,19.2402,30.0939,
-0.98644,-19.7335,46.3738,0.98644,-17.467,25.654,-25.654,-25.654,-28.6133,-36.2131,35.5202,60.1877,19.7335,15.0939,
-7.4006,-23.1874,43.9073,-5.4268,-2.467,11.3464,-36.0139,-32.0672,-32.0672,-51.2131,27.1331,49.8268,19.2398,8.3871,
-6.9065,-25.6535,58.9073,1.9733,12.533,-1.9733,-22.6932,-35.5207,-22.6932,-57.227,28.6137,34.8268,22.6932,11.8405,
0,-25.654,73.0142,10.8527,3.9467,-5.9205,-7.6932,-35.5212,-7.6932,-62.1615,35.5202,19.8268,33.5464,0,
-3.4539,-33.0536,65.6136,5.4268,-2.4666,-14.3066,3.453,-46.8675,1.4801,-72.5205,32.0672,20.2271,44.8937,-1.4801,
-9.8667,-44.4005,53.2803,1.9733,-5.92,-9.8667,-1.9733,-48.3472,1.9733,-57.5205,29.6002,32.5604,43.4141,13.5199,
-14.8003,-48.3477,53.2808,6.9069,-20.7199,-3.9467,-3.9467,-33.3472,-0.98644,-42.5205,31.5735,47.5604,37.494,21.7073,
-23.6801,-47.3603,48.3477,6.9069,-8.8798,-18.9467,-6.9069,-33.5473,-9.8663,-27.5205,29.6006,60.1877,32.5609,23.6801,
-23.1869,-48.8409,43.9068,0.49322,6.1202,-33.9467,-5.4273,-44.8942,-10.3604,-12.5205,26.1472,56.7333,23.1869,25.1598,
-19.2398,-40.947,53.7745,6.4133,-8.8798,-18.9467,-4.4404,-34.0401,-1.4801,-1.4801,19.2407,57.7212,22.2,17.2669,
-15.7872,-35.5207,62.1611,17.7601,-19.7339,-3.9467,-8.8803,-24.667,-11.8405,-6.9065,12.827,49.3336,26.6399,13.8134,
-5.92,-42.4276,60.1873,6.9065,-4.7339,-16.7737,-2.9598,-39.667,-26.6409,-21.9065,2.9598,34.3336,11.8396,8.8803,
9.08,-32.0672,75.1873,12.3338,10.2661,-10.3599,12.0402,-39.9606,-12.3338,-36.9065,-3.453,19.3336,7.3997,-6.1197,
20.7204,-21.7068,89.7879,24.667,-1.9733,-4.9336,15.7872,-24.9606,1.9733,-51.9065,-1.9733,4.3336,20.7204,-18.7465,
6.9069,-23.6801,79.9212,20.7208,-10.8536,-19.7335,0.98644,-22.6937,0,-61.1742,2.9603,0,26.6404,-7.8934,
-4.4399,-26.1472,70.5472,28.1201,4.1464,-30.0939,15.2935,-29.1074,0.49322,-55.7478,3.4535,-6.4137,24.1734,-0.49322,
-13.3202,-41.1472,68.5739,28.1205,19.1464,-29.107,22.2,-27.1341,10.3599,-50.8142,9.3735,-9.3735,25.1603,-14.3066,
-13.8134,-50.321,74.0011,22.6932,4.1464,-26.6409,10.8532,-32.5604,15.7863,-43.4141,24.3735,5.6265,36.5071,-18.7475,
-8.3871,-38.9732,74.4944,29.107,-10.8536,-41.6409,21.2136,-34.0401,8.3871,-37.9868,25.1603,20.6265,39.9606,-13.3202,
-8.3871,-40.947,66.601,24.1738,-8.3871,-56.6409,14.3066,-36.0139,8.3871,-32.0672,10.1603,8.3871,30.0934,-25.1603,
0.98644,-41.4407,71.0404,29.5997,6.6129,-48.3477,-0.69337,-35.5202,23.3871,-17.0672,19.7335,-5.9205,32.56,-29.6006,
6.9065,-43.4141,74.9876,36.5071,-8.3871,-48.3472,6.9065,-37.4936,38.3871,-20.7204,23.6806,-6.9065,27.6273,-31.574,
0,-55.2541,74.0007,28.6133,-23.3871,-61.1742,8.8798,-39.4669,33.5473,-31.5735,15.7868,0,18.747,-37.494,
-9.373,-60.6805,67.5879,21.214,-8.3871,-55.7474,-0.49322,-35.027,34.0406,-31.0803,23.1869,9.374,17.2674,-31.0803,
-14.3066,-59.694,61.6669,10.3599,5.4268,-68.5743,-0.49369,-43.9073,23.1865,-46.0803,12.3338,0.49369,7.3997,-31.0808,
-4.4399,-44.694,72.521,21.2131,-9.5732,-63.6407,4.4399,-36.0134,21.2131,-48.8409,7.4002,5.4263,9.373,-23.1869,
-6.4133,-37.9868,69.5612,32.0672,-19.2398,-48.6407,6.4133,-21.0134,31.0808,-33.8409,22.4002,20.4263,20.2271,-9.3735,
-19.2402,-45.8806,60.681,29.1065,-8.3866,-33.6407,7.4002,-14.3071,34.0406,-18.8409,37.4002,25.1598,20.2267,-7.4002,
-4.4399,-33.0532,72.521,38.9737,-0.49322,-32.0667,0.49322,-14.3062,34.0406,-6.4128,41.9339,34.0406,35.2267,-1.4797,
-0.49322,-33.0532,72.521,38.9737,-15.4932,-32.0667,-2.4661,-21.2131,26.1472,-16.28,42.9213,24.1743,44.8942,0.49322,
-15.4932,-42.9208,57.521,28.1205,-30.4932,-32.0672,1.4801,-27.1341,16.2804,-31.28,32.0672,9.1743,29.8942,0.49369,
-24.1738,-40.947,46.8675,17.2669,-15.4932,-31.0808,-6.4133,-29.107,14.3066,-26.1467,17.0672,3.453,14.8942,-3.453,
-9.1738,-25.947,61.6679,22.2,-0.49322,-16.0808,0.49369,-14.107,22.2,-16.2804,2.0672,18.453,11.3464,-0.49369,
3.453,-10.947,64.6272,26.1467,-9.3735,-1.0808,-1.4801,-4.4404,8.3871,-31.2804,-9.3735,3.453,9.3735,-0.49369,
18.453,0.98644,66.1073,20.7199,5.6265,13.9192,-0.98644,-13.8139,-6.6129,-46.2804,-17.7606,-11.547,3.9467,-0.98644,
27.1331,5.4268,61.6669,9.3735,20.6265,2.4666,14.0136,-25.1603,-21.2136,-61.2804,-32.7606,-26.547,-2.4666,-15.9864,
36.0134,8.3866,60.68,7.4002,26.1462,-12.5334,24.1734,-21.214,-6.2136,-64.6276,-29.1074,-24.1743,0.49322,-24.1743,
46.8671,3.4535,61.6674,8.3866,39.9611,-27.5334,9.1734,-29.1065,4.4399,-64.6276,-14.1074,-36.0134,11.3469,-28.1201,
56.2406,8.8803,72.0273,9.8667,24.9611,-37.4936,0.98691,-42.4276,-10.5601,-79.6276,-0.98691,-51.0134,16.7737,-32.5604,
66.1073,23.8803,82.8805,11.8401,33.5473,-25.654,15.9869,-28.6133,-20.7199,-73.0142,-11.8401,-45.3874,13.8139,-25.654,
66.6005,33.0532,81.4008,15.2935,48.5473,-33.0541,30.9869,-22.2005,-10.3604,-58.0142,-26.8401,-30.3874,10.3604,-14.3071,
73.0138,25.6535,86.8277,18.7465,63.5473,-48.0541,37.4936,-33.5469,-23.6806,-56.2406,-41.8401,-34.5342,4.9336,-4.9336,
78.4411,12.3338,85.348,13.3202,78.5473,-63.0541,28.1205,-48.5469,-31.0798,-71.2406,-54.7609,-49.5342,5.4268,-5.4268,
75.9736,6.9069,77.9474,17.7596,86.8272,-78.0541,34.5338,-63.5469,-16.0798,-86.2406,-39.7609,-64.5342,15.7868,-7.8934,
64.134,-1.9733,77.9469,11.8396,71.8272,-93.0541,44.4005,-65.1213,-1.0798,-93.7346,-36.5071,-70.0545,18.7465,-20.7204,
61.1737,-4.9336,87.8141,18.7465,62.1601,-108.0541,50.3201,-53.2808,4.9336,-95.7079,-28.6137,-73.0142,33.5469,-24.667,
51.8011,-19.9336,79.428,20.2267,77.1601,-123.0541,39.9611,-68.2808,12.3333,-95.2143,-13.6137,-74.4939,42.9204,-39.667,
46.8671,-34.9336,74.4948,8.3866,92.1601,-138.0541,37.0008,-83.2808,14.3071,-93.2409,-8.3866,-65.6141,40.9475,-54.667,
53.774,-38.9737,84.3611,6.4137,77.1601,-153.0541,44.8942,-82.3877,11.3469,-84.3611,-6.4137,-51.8007,37.9872,-48.8404,
38.774,-48.8409,82.3873,3.4535,92.1601,-168.0541,49.8273,-77.4541,13.3197,-72.521,-3.4535,-45.8806,37.9872,-46.8675,
23.774,-63.8409,67.3873,-1.9733,107.1601,-183.0541,47.3608,-83.8679,13.8134,-72.0278,1.9733,-59.2008,39.4674,-59.2008,
11.8396,-78.8409,62.1601,-9.8667,103.6009,-198.0541,38.48,-81.8945,11.8396,-75.9745,9.8667,-65.1209,33.5469,-58.2144,
15.7863,-90.7748,72.0273,-12.827,88.6009,-213.0541,47.3598,-73.0147,23.6797,-74.9881,12.827,-50.1209,31.5731,-43.4141,
5.4268,-95.2143,71.5341,-5.4268,98.1745,-227.4293,60.6814,-77.4541,29.107,-82.3873,18.2543,-36.0134,36.0139,-46.8671,
-1.9733,-97.6813,61.1737,1.9733,113.1745,-229.8964,67.0942,-87.8146,31.574,-92.7477,29.6002,-34.5338,40.4538,-55.2541,
3.4535,-98.1745,61.6674,-3.4535,106.0684,-231.376,58.7071,-88.3073,35.027,-106.0679,33.0541,-36.0134,37.0008,-66.6005,
5.4268,-101.1343,68.5748,-5.4268,115.9351,-230.3891,51.8007,-75.4808,28.1205,-101.1343,33.0536,-32.0667,34.041,-81.6005,
-1.4801,-100.1479,62.6543,1.4801,113.9613,-228.4162,51.8007,-63.6407,34.0401,-86.1343,32.0672,-25.1603,36.0139,-96.6005,
-0.98644,-92.7477,69.0675,0.98644,98.9613,-226.9361,48.3467,-59.2008,45.3874,-71.1343,27.6268,-24.667,28.6133,-111.6005,
4.9331,-93.7346,79.9212,-4.9331,113.9613,-219.0427,52.2943,-62.1606,35.5202,-65.1209,22.6937,-31.574,19.7335,-126.6005,
-1.9733,-96.6949,72.0273,1.9733,128.9613,-211.1493,50.3201,-67.0947,25.6535,-76.9614,25.6535,-31.574,22.6932,-141.6005,
-7.3997,-85.3475,59.694,7.3997,113.9613,-209.6692,35.3201,-67.5874,26.1467,-61.9614,25.1603,-16.574,20.2271,-154.4151,
-0.49322,-70.3475,62.6538,-2.467,99.1614,-194.6692,20.3201,-61.6674,28.1201,-46.9614,17.2664,-1.574,9.373,-145.5353,
1.9733,-58.2139,65.1204,5.92,114.1614,-179.6692,35.3201,-57.2275,23.6806,-61.9614,14.7999,-7.8939,-1.9733,-151.9485,
-1.9738,-62.1606,56.241,15.7868,99.1614,-169.7086,50.3201,-65.1209,30.5871,-57.2275,29.7999,-0.98644,0.98644,-166.9485,
-16.9738,-77.1606,41.241,0.78676,84.1614,-184.7086,35.3201,-80.1209,34.0406,-43.9073,44.7999,4.4399,4.4399,-179.0821,
-31.9738,-92.1606,28.6133,-3.9467,92.7477,-199.7086,20.3201,-95.1209,48.3467,-37.494,58.2139,3.9467,19.4399,-165.7624,
-24.1738,-104.095,30.0934,2.4666,104.0941,-200.7894,22.2,-105.0815,53.7735,-25.1607,65.6136,-2.4666,26.1467,-171.1887,
-19.2402,-110.0146,23.1869,-0.49322,89.0941,-200.7889,26.1472,-111.001,38.7735,-23.1869,64.6276,0.49322,14.3071,-175.1354,
-34.2402,-107.5475,18.7475,-0.98691,74.0941,-185.7889,15.7872,-99.6542,44.4005,-25.6535,64.134,0.98691,21.7068,-160.1354,
-33.0541,-103.1081,23.1869,4.4399,89.0941,-170.7889,28.1201,-89.2947,59.4005,-16.28,65.6141,-4.4399,30.0939,-145.1354,
-32.0672,-111.0015,16.28,4.4399,98.175,-185.7889,35.027,-101.1348,44.4005,-13.3197,50.6141,-4.4399,15.0939,-151.4553,
-47.0672,-113.468,16.7732,1.9729,83.175,-184.5089,25.654,-99.6546,38.4805,-20.7199,35.6141,0.98644,0.093865,-150.9621,
-47.8537,-111.9877,28.1203,8.3868,74.4941,-178.0955,40.654,-98.1743,53.4805,-24.1736,46.8673,-8.3868,11.3471,-136.6547,
-41.9339,-126.7882,27.1336,10.3604,77.4541,-192.8955,54.7604,-111.0015,55.7469,-10.3604,44.8942,-13.3202,11.3469,-134.6816,
-56.9339,-136.655,12.1336,0.49322,64.6276,-194.8689,39.7604,-115.9346,40.7469,-0.49322,29.8942,-10.3604,3.4535,-145.5353,
-54.7609,-121.655,15.2935,10.3604,79.6276,-179.8689,24.7604,-100.9346,39.9601,-4.4399,37.0008,-4.4399,15.2935,-133.6952,
-51.8007,-109.0281,15.2935,16.28,64.6276,-164.8689,15.2935,-93.2414,48.8409,-19.4399,46.8671,-9.373,9.373,-121.8546,
-54.2677,-117.4147,14.7999,19.733,49.6276,-161.8152,12.827,-97.6813,43.4141,-24.667,31.8671,-0.98691,0.98691,-111.4947,
-43.9073,-107.0548,26.1467,20.2271,58.7076,-157.3753,10.3599,-88.3078,39.9606,-16.2804,25.1603,-6.4133,6.4133,-106.0679,
-28.9073,-92.0548,38.4809,21.7068,73.7076,-142.3753,25.3599,-74.0007,45.3869,-17.7601,36.5071,-18.747,17.7601,-94.721,
-37.4938,-92.7479,31.5738,19.7337,73.0145,-135.1751,40.3599,-74.0009,48.347,-29.6004,31.5738,-19.7337,19.7337,-87.8143,
-45.3874,-98.6682,26.6404,14.8003,58.0145,-148.9887,30.5871,-85.8412,51.307,-35.5207,21.7063,-14.8003,19.7335,-85.8412,
-30.5868,-94.7213,33.5471,23.6799,43.0145,-149.9749,45.5871,-75.9743,49.3339,-30.5868,13.8137,-13.8137,19.7332,-76.9607,
-15.5868,-80.9076,41.4402,38.4809,58.0145,-134.9749,60.5871,-60.9743,45.3869,-23.6801,8.8803,-8.8803,19.7339,-66.1073,
-15.2935,-80.4139,36.0144,30.0939,73.0145,-124.8149,45.5871,-59.694,48.8409,-17.2669,4.4399,-4.4399,11.3469,-68.5739,
-30.0934,-82.3873,26.1476,19.2407,73.5079,-135.6681,30.5871,-68.5739,45.8811,-17.2669,5.4268,-1.4801,1.4801,-65.6141,
-45.0934,-80.4144,16.2804,9.3735,58.5079,-146.5217,32.0672,-66.601,35.0275,-22.2,7.3997,-4.4404,4.4404,-56.7338,
-59.6945,-80.4144,16.28,19.2402,43.5079,-148.4955,36.0134,-67.5879,44.8933,-19.2407,7.4002,-7.4002,9.373,-55.7478,
-47.3608,-79.9212,30.5866,34.2402,58.5079,-138.1351,43.4141,-68.0811,59.8933,-14.8003,5.92,-5.92,14.7999,-50.3205,
-35.0272,-68.5741,37.0001,42.9206,49.8276,-126.788,36.0137,-58.7074,67.5872,-25.1605,9.3733,-9.3733,29.7999,-35.3205,
-26.1469,-53.5741,41.9337,44.894,34.8276,-141.5883,44.894,-43.907,64.6274,-27.1338,16.2802,-16.2802,30.0936,-35.0272,
-27.1338,-54.7607,56.9337,43.9075,49.8276,-126.5883,59.894,-45.8804,68.5741,-12.3335,9.3733,-8.3868,15.0936,-43.907,
-29.1072,-67.5877,58.7074,37.0001,64.6279,-111.5883,65.6143,-54.7607,63.6405,-18.2536,-2.4668,-1.4799,1.4799,-44.894,
-34.0406,-82.5877,43.7074,26.1462,49.8273,-96.5883,50.6143,-69.5612,48.8399,-33.2536,-0.49322,-14.3071,0.49322,-55.7478,
-44.4005,-90.7743,28.7074,15.7868,34.8273,-81.5883,35.6143,-84.5612,43.4136,-45.3869,0,-27.6268,0,-63.1475,
-52.2943,-78.9343,21.7063,14.8003,27.6268,-66.5883,50.6143,-78.9343,40.4533,-46.3743,-10.8536,-25.654,10.8536,-56.241,
-55.7474,-86.3344,12.3338,9.3735,30.0934,-51.5883,35.6143,-67.5874,37.9868,-56.7343,-9.3735,-25.1603,14.3066,-56.7343,
-62.1606,-101.3344,4.9336,4.9336,39.4674,-36.5883,23.6806,-74.9876,43.4141,-52.2939,-4.9336,-24.667,7.8938,-64.134,
-61.1742,-95.7079,16.7737,11.8405,44.4005,-21.5883,38.6806,-78.9343,41.4402,-53.2808,-6.9065,-23.6801,6.9065,-62.1606,
-67.0942,-88.801,13.8134,6.9065,39.4674,-6.5883,27.6273,-66.1078,26.4402,-68.2808,-4.9336,-27.6273,4.9336,-61.1742,
-81.8945,-101.628,5.92,2.9598,26.6399,8.4117,12.6273,-61.1742,25.6535,-60.1877,-2.9598,-22.6937,4.9336,-56.241,
-74.9871,-92.7477,12.827,5.92,26.6409,23.4117,27.6273,-70.054,35.5207,-45.3869,-5.92,-9.8667,5.92,-54.2672,
-62.6543,-80.4144,12.3333,10.3604,41.6409,38.4117,39.9601,-66.601,30.0939,-55.7474,-3.4535,-8.3866,3.4535,-59.694,
-70.5472,-87.3209,3.4535,12.3333,48.8409,53.4117,24.9601,-59.694,23.1869,-55.7469,11.5465,-7.4002,3.4535,-54.7604,
-75.974,-91.7608,1.9733,2.9598,33.8409,61.1746,9.9601,-66.1073,23.6806,-44.4005,17.7601,-7.8929,-1.9733,-55.2537,
-67.0942,-79.9212,5.92,8.8803,18.8409,47.3608,24.9601,-68.0811,27.6273,-42.4272,17.7601,-5.92,-5.92,-60.1873,
-77.4541,-82.3877,3.453,22.2,19.2398,41.9335,18.2533,-78.4411,36.0139,-54.7609,31.0808,-12.3338,-3.453,-61.6674,
-82.8812,-95.7082,5.9203,16.773,16.773,27.6266,18.7468,-83.8681,43.4134,-69.7609,35.52,-23.6804,-5.9203,-56.2408,
-70.5472,-94.2278,8.3866,15.2935,16.28,36.0144,21.214,-69.5608,43.9078,-79.4275,25.1607,-18.2533,-8.3866,-50.8138,
-71.5341,-96.2012,8.3866,14.3071,31.28,45.8806,22.2005,-68.5739,43.9078,-79.4275,19.2402,-15.2935,-8.3866,-49.8273,
-71.5341,-94.2278,17.2664,14.3071,46.28,30.8806,37.2005,-81.4013,43.9068,-77.4546,24.1734,-14.3071,-15.2935,-43.9073,
-67.5879,-98.175,14.3062,10.3595,31.28,17.2664,36.9999,-86.3344,33.0532,-67.5879,12.3333,-7.4002,-30.2935,-47.854,
-64.6276,-93.2414,9.3735,13.3202,16.28,32.2664,21.9999,-73.5079,35.0265,-57.7212,15.2931,-5.4268,-25.1607,-49.8273,
-63.1477,-80.9079,11.8398,15.7865,31.28,30.5868,9.867,-72.0276,46.3736,-43.4143,30.2931,-9.867,-12.8272,-44.4007,
-57.7207,-82.3877,11.3473,9.3735,27.1341,16.2804,6.4133,-82.3877,48.8404,-28.4143,23.1874,-6.4133,-17.2669,-41.9339,
-45.8804,-78.4408,20.2269,15.2938,12.1341,29.1067,19.2405,-72.5208,49.8276,-25.16,20.2269,-4.4401,-14.3069,-41.9337,
-50.8142,-73.5075,15.2935,15.2935,26.1472,32.0667,34.2405,-59.694,38.9737,-40.16,35.2269,-19.4401,-15.2935,-47.854,
-51.307,-67.0937,7.8934,10.8536,41.1472,39.4678,30.5871,-47.3603,40.4543,-55.16,50.2269,-25.6535,-7.8934,-32.854,
-53.774,-81.4008,8.3866,9.373,26.1472,38.9737,24.1734,-56.7343,34.0406,-70.16,35.2269,-30.0939,-8.3866,-27.1336,
-50.3205,-80.9072,17.7601,10.8541,11.1472,34.5342,39.1734,-62.1606,35.5207,-85.16,20.2269,-43.4136,-5.92,-31.5735,
-53.774,-68.5743,3.4535,8.3866,26.1472,30.0939,40.9475,-52.7876,40.9475,-100.16,19.2402,-36.0139,-3.4535,-23.1869,
-54.2672,-59.2008,3.9467,16.7732,41.1472,37.494,25.9475,-37.7876,45.3874,-85.16,23.6801,-21.0139,-3.9467,-8.1869,
-66.601,-69.5608,13.3197,13.3197,26.1472,33.0541,26.1472,-41.9339,32.0667,-79.4275,15.2935,-23.1869,-18.9467,-13.3197,
-62.6541,-67.5877,15.2933,14.3069,13.3204,37.987,40.9473,-46.8673,34.0403,-67.5877,19.24,-19.2405,-24.1736,-13.3204,
-61.6674,-70.5477,1.4797,0.49322,26.1472,33.0541,25.9473,-41.9339,36.0134,-52.5877,10.3604,-4.2405,-28.1205,-10.3604,
-54.7604,-61.6674,8.3871,8.3871,11.1472,29.107,10.9473,-29.107,43.9073,-39.9601,10.3599,4.4404,-14.3066,-1.4801,
-39.9606,-51.8007,23.3871,23.3871,-3.8528,36.0139,25.9473,-31.0803,44.8937,-53.774,15.294,-10.5596,-1.4801,1.4801,
-30.0936,-55.7471,38.3871,17.2667,11.1472,34.0408,40.9473,-36.0137,37.001,-56.734,8.3868,-13.32,-9.3733,-8.3868,
-35.5207,-54.2677,27.6273,9.8667,26.1472,26.6399,25.9473,-31.574,36.5071,-57.2275,1.9733,-1.9733,-12.827,-9.8667,
-50.5207,-54.7609,13.3197,12.3333,41.1472,20.2267,10.9473,-38.9737,37.9872,-72.2275,5.4263,-10.3604,-21.2136,-5.4263,
-49.8271,-63.6405,15.2938,15.2938,34.0408,21.2133,25.9473,-42.9206,37.9875,-87.2275,5.4266,-20.2269,-36.2136,-5.4266,
-37.0003,-59.694,24.1734,16.28,19.0408,28.1201,36.9999,-29.107,42.9204,-97.1881,6.4137,-20.2271,-51.2136,-6.4137,
-36.5069,-59.2006,23.6808,12.8272,13.8137,19.7342,21.9999,-25.6533,48.3474,-99.6544,10.8534,-21.7066,-66.2136,-10.8534,
-35.0268,-54.7607,26.1469,19.24,26.1469,10.3602,15.2933,-27.1334,46.8678,-85.3478,18.2536,-11.3466,-69.5605,-10.3602,
-31.0803,-49.8273,25.1603,19.2407,37.0003,2.4666,26.1467,-31.0803,44.8937,-70.3478,33.0536,-2.4666,-75.4808,-15.2935,
-25.654,-45.3874,37.494,26.6404,30.5871,-5.92,41.1467,-30.5871,59.8937,-55.3478,48.0536,5.92,-73.0142,-16.7737,
-18.7468,-40.4536,52.494,41.4405,23.6804,-15.787,56.1467,-23.6804,74.8937,-40.3478,63.0536,14.8001,-61.1739,-14.8001,
-15.2938,-38.9739,44.8935,26.4405,27.1338,-26.1469,41.1467,-29.1072,59.8937,-25.3478,49.8276,8.3868,-75.481,-8.3868,
-20.7204,-34.5338,29.8935,11.4405,36.5071,-19.733,26.1467,-25.6535,44.8937,-36.5071,34.8276,0.98691,-90.481,-0.98691,
-27.6268,-33.5469,30.5871,2.9603,33.5473,-4.733,34.5338,-10.6535,29.8937,-51.5071,19.8276,0,-105.481,0,
-24.1738,-32.0672,38.9742,6.4133,18.5473,7.3997,22.2,-11.3464,29.107,-66.5071,4.8276,-5.4268,-93.2409,-2.4666,
-10.8532,-20.7204,46.3734,15.7863,33.5473,-0.98691,37.2,-12.827,30.5866,-64.1344,6.9065,-5.92,-78.2409,0.98691,
-10.8536,-18.747,44.4,19.7335,48.5473,-0.98644,47.3603,-6.9069,28.6133,-60.1877,16.7732,-5.9205,-77.9478,0.98644,
-17.7606,-20.7204,43.4136,21.7063,45.3874,4.9331,32.3603,-11.8405,35.5202,-62.1611,31.7732,-11.8405,-74.0011,-4.9331,
-15.2935,-18.2538,46.8671,23.1869,30.3874,1.4797,43.9068,-22.2005,37.9872,-47.1611,42.9204,-1.4797,-70.5477,-9.3735,
-22.6937,-28.6137,36.5066,9.8663,15.3874,-6.9069,44.4,-29.6006,33.5473,-37.494,27.9204,6.9069,-85.5477,-19.7339,
-10.8536,-32.5604,47.3608,21.7068,30.3874,-4.9336,32.5604,-31.574,47.3608,-41.4407,24.667,4.9336,-78.9347,-8.8803,
0.98667,-32.5602,62.3608,34.5335,32.5607,-19.9336,47.5604,-37.4938,52.2941,-45.3872,37.4938,-3.9465,-64.1342,-0.98667,
0,-27.6268,60.1873,25.6535,25.6535,-34.9336,62.1611,-36.5071,45.3869,-37.4936,25.6535,0,-63.147,-1.9733,
0.98644,-21.7068,58.2139,17.7606,13.8139,-30.5871,47.1611,-39.4669,45.3874,-41.4402,11.8401,-0.98644,-71.0409,-5.92,
6.4137,-14.3071,67.587,30.0939,25.1598,-15.5871,49.8273,-35.0275,49.8273,-56.4402,20.2267,-15.9864,-66.601,-6.4137,
1.4801,-11.3469,61.6679,35.0275,40.1598,-1.4801,47.854,-27.1336,45.8802,-64.6272,26.1467,-23.1869,-62.6538,-3.4535,
0,-16.7737,58.2139,20.0275,55.1598,0,32.854,-25.6535,37.494,-59.2008,14.8003,-8.1869,-74.0007,-1.9729,
3.453,-28.1205,63.6407,6.4133,40.1598,-4.4404,38.9742,-32.0672,29.107,-71.5341,-0.19968,6.8131,-89.0007,-12.3338,
-0.49322,-22.2005,68.5734,21.4133,34.0396,-4.4404,48.8399,-31.0808,38.9737,-65.6145,10.3595,0.49322,-74.0007,-22.2005,
-2.4666,-14.3066,70.5472,36.0134,49.0396,-7.4002,45.8806,-25.1603,53.9737,-50.6145,25.3595,2.4666,-59.0007,-25.1603,
-0.98667,-16.7734,69.0673,26.6402,37.4938,-8.8801,51.3077,-26.6402,53.2806,-35.6145,40.3595,0.98667,-44.0007,-30.5868,
-3.4532,-10.3602,72.5213,33.0534,34.0408,3.4532,50.814,-24.1736,63.6405,-32.067,38.9739,-4.4401,-45.8804,-36.0137,
-7.8936,-5.9203,74.9874,44.4003,49.0408,5.9203,49.3343,-23.6804,78.6405,-17.067,47.3605,-11.8403,-30.8804,-51.0137,
0.49322,-10.3604,72.5206,38.9742,54.7609,-0.49322,62.6543,-27.1336,74.4944,-9.3735,39.9606,-22.2005,-15.8804,-66.0137,
1.4799,-17.2667,62.6541,30.0941,49.8276,-1.4799,61.6676,-40.9473,59.4944,-24.3735,39.9604,-25.1605,-19.2405,-60.6807,
-2.4668,-12.3335,67.5872,45.0941,53.7742,2.4668,69.561,-47.8542,74.4944,-37.0006,54.9604,-10.1605,-7.4004,-55.7476,
-17.4668,-18.2538,59.6936,42.9204,51.8002,-10.3604,63.6403,-59.694,87.3213,-26.1472,44.8942,4.8395,-5.4268,-63.6407,
-26.1472,-16.2804,44.6936,34.0401,43.9073,-9.3735,48.6403,-64.6276,72.5206,-29.107,34.0401,4.4399,-4.4399,-51.8007,
-29.6002,-21.7068,32.5604,40.4538,29.6002,-12.827,33.6403,-76.9609,57.5206,-42.4272,37.4936,-5.92,5.92,-48.3472,
-25.6537,-34.5335,36.5069,38.4807,36.5069,-16.7734,48.6403,-86.8274,55.2539,-37.4938,41.441,-11.8403,11.8403,-57.2272,
-21.707,-26.6406,30.5868,40.454,42.4269,-10.8534,52.2941,-72.0276,70.0538,-22.4938,37.4938,-2.96,2.96,-62.1608,
-23.1869,-15.2935,27.1336,47.8535,35.027,-1.4801,42.9204,-59.694,75.4813,-7.4938,37.9872,1.4801,-8.3866,-57.7207,
-28.614,-22.6939,28.614,38.4802,33.5471,2.96,43.4134,-74.694,68.0809,-2.96,35.52,-9.867,-14.8001,-52.2941,
-38.4805,-28.6137,19.7335,30.5871,28.6142,1.9733,38.4805,-86.8277,59.2013,-1.9733,26.6404,-6.9065,-12.8265,-44.4005,
-53.4805,-38.4805,4.7335,27.6268,13.6142,0,34.5338,-73.0142,60.1877,-1.9733,20.7199,0.98644,-6.9069,-41.4407,
-68.4805,-53.4805,-8.3868,26.1474,16.2802,-7.3999,31.0805,-81.4011,64.6279,-5.4266,28.1203,5.4266,8.0931,-26.4407,
-73.0142,-68.0806,-9.8667,14.8003,31.2802,-22.3999,16.0805,-96.4011,62.1611,-17.7601,35.5207,9.8667,19.7339,-14.7999,
-66.6008,-63.641,-4.4401,19.24,27.1338,-37.3999,13.32,-111.0013,64.6279,-25.1605,28.1203,4.4401,17.2667,-22.2002,
-63.6407,-48.641,7.4002,34.24,23.1874,-22.3999,28.32,-96.0013,67.5874,-33.0536,22.2,-7.4002,16.28,-20.2271,
-60.187,-33.641,2.96,30.5873,26.6406,-7.3999,43.32,-81.0013,57.2277,-47.3605,18.7472,-7.8931,4.9334,-8.8801,
-62.1606,-18.641,-5.92,37.494,32.5609,5.92,28.32,-66.0013,57.2275,-34.5338,18.747,1.9733,-1.9733,-2.9598,
-74.9876,-20.7204,-7.8934,39.4674,17.5609,7.8934,13.32,-63.1475,60.1873,-25.654,13.8134,1.9733,-1.9733,-3.9467,
-73.0142,-35.7204,0,26.6404,2.5609,-7.1066,28.32,-78.1475,54.2672,-21.7068,9.8667,6.9065,0,0,
-64.134,-48.3472,-0.98691,26.6399,0,-22.1066,21.7068,-93.1475,40.4538,-6.7068,11.8405,9.8667,14.7999,-5.92,
-64.6274,-33.3472,-4.4401,36.0141,15,-12.3335,6.7068,-78.1475,43.9075,8.2932,12.334,4.4401,29.7999,-11.3466,
-61.6672,-30.0936,2.4668,41.9337,9.3733,-2.4668,4.4401,-63.1475,54.7611,-6.7068,10.3602,-2.4668,19.24,-3.4532,
-51.8007,-36.0139,8.3866,37.0008,24.3733,-17.4668,19.4401,-72.521,50.8138,-18.2533,3.4535,-10.3599,4.24,-1.4801,
-42.9206,-30.0936,10.3606,33.0534,39.3733,-10.3602,25.16,-68.5741,51.8004,-3.4532,-0.49345,-8.3868,19.24,0.49345,
-50.814,-30.0936,3.4532,37.0006,34.0403,-5.4266,19.24,-53.7738,47.8542,-15.2933,0.49345,-9.3733,20.2274,-0.49345,
-59.694,-27.1336,3.4535,40.947,19.0403,-12.3333,23.1874,-53.774,51.8007,-29.107,11.3469,-12.3333,5.2274,5.4268,
-67.0942,-33.5469,-1.9733,25.947,11.8401,-27.3333,8.1874,-68.0806,53.2803,-33.5469,6.9069,-19.7335,1.9733,9.8667,
-58.2137,-39.4671,-2.96,18.7468,4.9334,-29.6004,16.7739,-65.1206,42.4269,-45.3872,2.96,-18.7468,16.9733,14.8001,
-48.3472,-31.574,9.8667,33.7468,-10.0666,-20.7204,30.5871,-54.2677,42.4272,-58.2144,12.8265,-9.8667,31.9733,25.654,
-61.1744,-36.5074,4.9334,38.4802,-2.96,-35.7204,15.5871,-60.1875,50.3203,-64.1342,9.8665,-19.7337,30.5868,10.8534,
-66.1075,-44.4007,-3.9469,36.5069,12.04,-43.4138,10.8534,-52.2941,60.187,-49.1342,15.787,-24.6668,26.6402,3.9469,
-65.1209,-54.2672,-5.92,37.4936,27.04,-41.4407,25.8534,-53.2808,56.241,-34.1342,26.6404,-25.6535,31.5735,5.92,
-62.1608,-57.2277,0.98667,38.4807,12.04,-52.2941,16.7734,-61.1744,59.2006,-19.1342,29.5999,-12.8272,30.5868,4.9334,
-61.6674,-54.7609,1.4801,28.1201,-1.4801,-48.8404,1.7734,-57.7207,52.7876,-4.1342,17.2669,2.1728,15.5868,-1.4801,
-66.6005,-47.854,-0.49322,24.1738,6.4133,-33.8404,0.49322,-53.774,37.7876,1.4801,2.2669,4.4399,0.58685,-4.4399,
-65.1206,-32.854,1.9731,30.5873,-8.5867,-36.5074,13.8132,-43.4138,27.6271,-1.9736,0.98667,10.8539,-0.98667,10.5601,
-57.2272,-17.854,0.98667,26.6406,-17.7603,-41.4405,-0.98667,-37.4938,36.5069,-11.8403,5.9198,15.787,6.9067,21.7066,
-59.6938,-20.2269,-3.4532,23.1867,-2.7603,-26.4405,1.4799,-47.8537,28.1208,-26.8403,0.49345,7.3999,-0.49345,8.3873,
-60.6805,-33.0536,1.4801,35.027,-0.49322,-25.1603,16.4799,-44.8937,32.0667,-41.8403,0.49322,-3.4535,14.5065,2.4666,
-45.6805,-18.0536,16.4801,50.027,-8.8803,-13.8134,22.6937,-29.8937,47.0667,-46.3738,7.8934,-7.8934,29.5065,12.827,
-30.6805,-9.867,18.7468,53.2806,-0.98667,1.1866,7.6937,-17.7603,54.267,-61.3738,2.96,-19.7337,44.4007,0.98667,
-41.9337,-17.2667,4.4401,38.2806,14.0133,5.4266,8.3868,-32.067,39.267,-76.3738,-4.4401,-31.0805,29.4007,-14.0133,
-37.9872,-5.4268,9.3735,41.9335,29.0133,-7.4002,23.3868,-17.2669,34.0401,-61.3738,5.4268,-16.28,28.1205,-21.2136,
-31.0803,-10.3599,10.3604,36.0134,14.0133,-11.3469,15.2935,-30.0934,30.0939,-46.3738,9.374,-13.3202,25.1607,-8.3866,
-37.0003,-16.28,2.4666,36.0139,-0.98667,0.49322,0.29354,-34.0401,25.1603,-35.027,11.3473,-5.4268,14.3066,3.4539,
-52.0003,-16.7737,-5.9205,33.5469,-0.98691,-8.8803,0.98691,-19.0401,18.7465,-20.027,6.9065,3.9462,1.9733,5.92,
-61.6674,-20.2271,-2.467,25.1598,1.4797,-23.8803,-5.4263,-19.2402,17.2664,-5.027,1.4797,1.4797,6.4137,-1.4797,
-47.361,-17.7603,2.96,32.5597,-13.5203,-9.867,-1.9736,-33.5471,19.7332,3.9465,8.8796,-1.9736,21.4137,1.9736,
-43.4138,-8.8801,-2.96,40.454,-11.8403,0.98667,5.9198,-21.707,34.7332,-3.9469,21.707,-0.98667,31.5733,2.96,
-40.454,-4.9334,2.96,46.3741,3.1597,-14.0133,4.9334,-11.8403,49.7332,-5.9203,29.5999,-2.96,34.534,-12.04,
-28.614,-4.9334,17.96,44.4007,12.8267,-29.0133,4.9334,-26.8403,43.4134,-14.8001,24.6673,-9.867,40.454,-18.7468,
-25.1603,-7.4002,32.0667,36.0134,7.4002,-19.2402,15.2935,-28.1205,31.0803,-15.2935,11.3469,-18.2533,32.0667,-12.3333,
-36.0137,-9.3733,21.2138,38.9734,22.4002,-15.2933,12.3335,-16.2802,35.0268,-18.2536,9.3733,-16.2802,17.0667,-11.3466,
-39.4669,-6.9065,26.6404,50.3205,7.4002,-18.7465,6.9069,-9.8667,39.4669,-18.7465,12.827,-1.9733,15.7868,-1.9733,
-33.0536,-8.3866,33.0536,55.7474,-7.5998,-32.0672,12.3333,-4.4399,35.0275,-17.2669,4.4399,-8.3866,30.7868,8.3866,
-36.0137,-15.2933,20.2269,52.7869,5.4266,-37.0006,15.2933,-7.3999,37.0001,-19.2405,6.4135,-23.3866,41.9342,-5.4266,
-51.0137,-26.1469,14.3069,43.9075,10.3602,-30.0936,30.2933,-18.2536,48.8406,-10.3602,16.2802,-22.2002,44.894,-12.3335,
-58.7071,-36.0139,23.1869,40.947,-4.6398,-38.9737,38.9737,-23.1869,53.774,1.4801,15.2935,-17.2669,43.9078,-1.4801,
-49.8273,-30.0939,21.2136,43.9068,-3.4535,-45.8806,23.9737,-20.2271,53.774,3.4535,12.3333,-20.2271,49.8273,-4.4404,
-44.894,-19.2405,11.3466,46.8673,11.5465,-39.9604,8.9737,-21.2138,46.8673,-0.49345,18.2536,-17.2671,51.8004,-19.4404,
-32.5602,-10.8534,26.3466,52.2941,-3.4535,-41.4405,18.7468,-16.7734,43.4143,4.9334,19.7337,-7.8931,46.3736,-21.707,
-19.2402,-7.4002,41.3466,46.8671,-10.3599,-49.8273,25.1607,-19.2402,36.0134,6.4133,9.3735,-11.3469,34.0406,-6.707,
-26.1467,-6.4133,37.0008,37.9872,2.4666,-57.7207,10.1607,-26.1467,26.1472,-6.4133,-0.49322,-26.3469,29.1074,1.4801,
-37.0003,-10.3599,22.0008,40.9475,4.4399,-55.7474,-4.8393,-11.1467,35.027,-4.4399,11.3469,-22.2,38.9737,7.4002,
-44.8937,-25.1603,13.3202,34.0401,-1.4801,-49.8273,-0.49322,-5.4268,32.0672,0.49322,14.3066,-8.3866,37.9868,4.4399,
-54.7604,-37.0003,13.3207,29.1074,-15.2935,-55.7474,0.49322,-20.4268,20.2267,-0.49322,0.49322,-21.2136,33.0541,3.4535,
-63.1477,-34.534,5.9198,32.5607,-24.6673,-64.1342,-2.96,-22.6935,31.5733,2.96,3.9465,-20.7201,37.4938,9.8665,
-58.2142,-26.6402,5.9198,27.6266,-13.8137,-57.2272,-4.9334,-21.707,30.5868,5.9198,9.867,-5.7201,26.6402,0.98667,
-46.3738,-25.6535,16.7737,18.7465,-9.8667,-49.3341,2.9598,-31.5735,15.5868,13.8134,1.9733,-1.9733,16.7737,-10.8536,
-40.947,-16.28,27.1341,33.0536,-7.4002,-54.7604,2.4666,-22.2,30.5868,28.1205,13.3202,-11.3469,31.7737,-2.4666,
-51.8004,-22.2002,15.2938,30.0941,3.4532,-67.5877,-12.5334,-19.24,31.0805,13.1205,12.3335,-23.1867,42.9206,-3.4532,
-41.9339,-31.0803,15.2931,16.2804,11.3464,-55.7474,-2.4666,-20.2271,16.0805,0.49369,-0.49369,-17.2669,34.0401,2.4666,
-42.4272,-32.5604,16.7732,14.8003,-3.6536,-54.2672,-3.9467,-22.6937,6.9069,7.8934,3.9467,-5.9196,32.5609,5.9205,
-57.4272,-43.907,4.4401,14.3073,-18.6536,-69.2672,-18.9467,-34.0403,21.9069,11.3471,18.9467,-4.4401,40.9477,12.3335,
-72.0276,-58.907,6.9067,11.8398,-8.8801,-76.9612,-10.8534,-39.4671,36.9069,22.6939,33.9467,-6.9067,53.281,18.7472,
-57.0276,-70.5474,13.32,15.2938,-23.8801,-83.3744,2.4668,-44.894,44.8935,29.1067,35.0272,-8.3868,41.9342,3.7472,
-42.0276,-55.5474,26.1469,25.1605,-37.0006,-68.3744,0.49345,-29.894,43.9075,36.0141,30.0936,-0.49345,34.0403,-3.4532,
-34.0403,-40.5474,28.1203,29.1067,-22.0006,-53.3744,-14.5065,-17.2667,37.9875,37.9875,21.2133,-9.3733,34.0408,4.4401,
-21.707,-25.5474,33.5471,28.614,-7.0006,-61.1739,-14.8001,-26.6402,25.6537,36.5074,6.2133,-21.707,25.6537,0.98667,
-19.24,-18.2536,41.9337,18.2536,-10.3602,-73.5077,0.19991,-37.0006,26.1469,21.5074,-8.7867,-28.1203,21.2138,10.3602,
-33.0539,-32.067,30.0941,13.32,-11.3466,-58.5077,5.4266,-29.1067,30.0941,6.5074,0.49345,-27.1334,36.2138,25.3602,
-48.0539,-40.947,15.0941,11.3473,-5.4268,-57.7207,-9.5734,-26.1467,25.1603,5.4268,10.3599,-17.2669,51.2138,40.3602,
-53.7738,-41.9337,1.4799,7.3999,-1.4799,-71.5339,-18.2536,-38.9739,20.2274,5.4271,6.4135,-17.2667,54.7611,46.8678,
-45.8806,-42.9204,5.4268,7.4002,-2.4666,-66.6005,-3.2536,-37.0003,23.1874,-0.49322,10.3599,-17.2669,52.7871,39.9606,
-43.4138,-54.2675,7.8936,2.96,-2.96,-68.0809,-14.8001,-35.5204,20.7201,5.9198,12.8267,-16.7734,37.7871,24.9606,
-50.8138,-56.7343,11.3469,2.467,12.04,-73.5075,-13.3197,-37.9872,7.4002,12.3333,-2.1733,-27.1336,22.7871,9.9606,
-36.0139,-41.7343,26.3469,13.3202,0.49369,-58.5075,0.49369,-22.9872,6.4133,17.2669,-14.3071,-32.0672,7.7871,9.3735,
-21.0139,-26.7343,41.3469,28.3202,-14.5063,-43.5075,-1.4799,-7.9872,21.4133,32.2669,0.6929,-17.0672,22.7871,24.3735,
-18.747,-11.7343,41.4407,37.494,-28.6137,-54.2672,-8.8803,-10.8536,28.6133,22.6937,7.8934,-20.7204,35.5202,39.3735,
-33.0534,-18.2536,29.1067,24.1736,-13.6137,-69.2672,-1.4799,-18.2536,23.1872,7.6937,1.4799,-33.0534,32.067,31.0805,
-38.4805,-26.6404,24.667,17.7601,-11.8401,-59.2008,0,-20.7204,18.7465,0,1.9733,-36.5071,33.5469,23.6806,
-38.4805,-25.654,23.6801,10.8536,-17.7606,-45.3874,-3.9467,-23.6806,11.8401,3.9467,11.8401,-22.6937,44.4,38.6806,
-27.1336,-26.1467,23.1869,3.4535,-2.7606,-59.6936,-3.4535,-23.1869,3.4535,-4.4399,9.374,-7.6937,31.0803,48.8409,
-22.2005,-29.1074,22.2005,4.4399,12.2394,-61.6674,-10.3604,-23.1869,0.49322,9.373,-0.49322,-8.3866,16.0803,33.8409,
-19.7339,-14.8003,36.5067,16.7732,-1.9738,-46.6674,1.9729,-15.7872,15.4932,24.373,4.9331,-1.9738,1.0803,18.8409,
-4.7339,0.19968,51.5067,24.1738,-10.3604,-31.6674,16.9729,-5.4268,19.2398,32.0672,0.49369,-5.4268,-6.4137,3.8409,
10.2661,-0.49322,54.7604,21.2131,4.6396,-46.6674,6.4137,-3.4535,14.3071,17.0672,-11.3469,-20.4268,-17.2669,-11.1591,
0.98667,-4.9334,49.3343,27.6271,19.6396,-51.3072,-7.8931,-12.8267,21.7075,2.96,-0.98667,-35.4268,-2.2669,-26.1591,
-13.8134,-8.8798,51.3074,31.574,20.7204,-50.3205,0,-27.8267,22.6942,0,5.92,-33.5469,12.7331,-41.1591,
-9.3737,-10.3602,48.8406,24.1731,14.3069,-54.7607,12.3331,-42.8267,19.24,-12.3335,9.3737,-31.0805,27.7331,-50.814,
-18.7468,-4.9334,33.8406,25.6533,24.6668,-43.4138,4.9334,-38.4807,17.7599,-4.9334,18.7472,-21.707,42.7331,-45.3872,
-33.7468,-6.4135,18.8406,25.1605,9.6668,-29.1067,-6.4135,-38.9734,15.2933,10.0666,14.3069,-9.3733,46.8678,-38.9734,
-32.067,0.49345,17.2671,32.0674,-2.4668,-14.1067,-5.4266,-34.0403,30.2933,25.0666,18.2536,-0.49345,45.8804,-26.1469,
-36.0139,-1.4797,10.3604,27.1336,8.3866,-16.28,-19.2402,-49.0403,16.28,40.0666,3.2536,-15.4935,30.8804,-41.1469,
-27.6268,13.5203,22.6937,33.5473,23.3866,-14.8003,-4.2402,-55.2537,8.8798,39.4669,2.9603,-14.8003,15.8804,-33.5469,
-23.6799,28.5203,30.5868,44.4007,8.3866,-2.96,-3.9465,-40.2537,23.6808,38.4802,10.8534,-8.8801,0.88039,-18.5469,
-19.7337,36.5074,30.5868,54.267,-5.9203,4.9334,-11.8403,-25.2537,35.52,37.4938,7.8931,-11.8403,-4.9334,-15.787,
-8.8798,26.6409,29.6002,52.2939,9.0797,-2.9598,1.9733,-29.6002,29.6002,28.6137,-1.9733,-16.7732,-4.9331,-29.6002,
-23.8798,11.6409,14.6002,39.9604,19.2405,-17.9598,-4.4401,-44.6002,17.2667,13.6137,-4.4401,-19.24,10.0669,-27.1334,
-38.8798,-0.98667,-0.39982,41.441,7.8936,-11.8398,-13.8132,-42.4269,29.6009,16.7734,10.5599,-4.24,25.0669,-12.1334,
-40.947,-3.4535,-3.4535,39.9601,18.2538,-13.3202,1.1868,-43.9073,33.0541,24.1734,23.1869,-1.4801,32.0667,-7.4002,
-41.9339,-15.294,-3.4535,24.9601,5.4263,-23.1874,3.4535,-58.9073,18.0541,10.3595,14.3062,-16.4801,21.2131,-11.3473,
-56.7343,-14.3071,-4.4399,16.28,10.3604,-13.3202,-11.5465,-55.7474,4.4399,19.2402,4.4399,-7.4002,25.1598,3.6527,
-52.2944,-2.9607,-1.9733,31.28,25.3604,-5.92,-16.7741,-40.7474,3.9462,34.2402,-6.9074,1.9733,10.1598,7.8929,
-37.2944,-0.98691,12.827,41.4402,40.3604,-15.7872,-1.7741,-30.5871,7.8929,42.4267,-13.8139,-10.8532,-4.8402,0.98691,
-24.1738,-3.453,14.3066,34.0401,28.1205,-22.2005,3.453,-44.8937,5.4268,38.9742,-15.2935,-18.2538,-12.3338,8.3871,
-30.0939,3.4535,7.4002,31.0803,36.9999,-8.3871,-11.547,-33.0541,4.4399,44.8932,-6.4137,-5.4273,-3.4535,19.2402,
-36.5066,0,5.9205,33.5473,33.5473,0,-6.906,-19.7335,2.9603,36.5076,-9.8663,-6.906,0,12.8274,
-43.9073,-3.453,3.453,37.0003,18.5473,-6.4133,-4.4404,-26.1472,3.453,34.0401,-17.2669,-17.2669,8.3871,7.3997,
-41.4402,-1.9733,1.9733,29.6002,18.7475,-20.7199,-9.8667,-32.56,8.8803,42.4276,-3.9462,-16.7732,21.7068,10.8541,
-36.0139,-7.3997,5.4268,18.2533,7.3997,-29.107,-10.3599,-40.947,2.4666,27.4276,-2.4666,-23.1869,15.2931,7.3997,
-25.6535,-1.9733,7.8938,31.574,17.7601,-20.7204,-7.8929,-34.5338,5.92,12.827,-15.7868,-27.6268,1.9733,4.9336,
-22.2,11.3473,7.4006,40.947,32.7601,-22.2,-11.3469,-25.1603,20.92,20.2271,-16.28,-25.1603,-2.4666,2.4666,
-15.7872,15.7863,18.7465,43.4141,29.6002,-24.667,-9.8672,-25.654,20.7204,20.7204,-8.8803,-22.6937,-4.9336,4.9336,
-14.8003,4.9336,19.733,37.4936,14.6002,-19.7339,0.98691,-30.5871,5.92,19.733,-17.7606,-23.6806,-8.8803,9.8667,
-17.7606,4.9327,8.8793,25.6535,1.9733,-18.7475,-1.9733,-28.6142,1.9733,26.6399,-23.6806,-17.7606,-5.92,8.8793,
-25.1607,4.4399,0.49322,26.1472,16.9733,-28.1205,-16.9733,-30.0939,-0.49322,28.1201,-20.2271,-14.3071,4.4399,2.4661,
-29.6002,0.98691,0.98691,33.5469,25.6535,-30.5871,-13.8134,-28.6137,-0.98691,26.6409,-9.8667,-6.9065,12.827,11.8405,
-31.0803,0.49369,4.4404,30.0934,14.3066,-28.1205,-2.4666,-26.1472,-4.4404,20.2271,-0.49369,-1.4801,9.3735,22.2,
-33.0536,-0.49322,0.49322,27.1336,17.2674,-29.107,-17.4666,-29.107,-2.467,22.2005,2.467,-5.4263,17.2674,19.2402,
-27.1336,0.49322,0.49322,35.027,2.2674,-38.9737,-32.4666,-26.1472,6.4137,33.0541,-7.4002,-12.3333,22.2005,6.4137,
-15.2935,5.4263,15.4932,40.9475,-12.7326,-39.9606,-17.4666,-17.2669,12.3333,29.1074,-5.4263,-15.2935,13.3197,8.3866,
-21.214,-0.49322,27.1336,25.9475,-19.2407,-33.0541,-26.1472,-30.0939,4.4399,14.1074,0.49322,-26.1472,3.4535,1.4797,
-30.5871,-1.9733,18.7465,30.5866,-4.2407,-30.5871,-18.747,-29.6002,15.7872,16.7737,1.9733,-19.7335,17.7601,-4.9336,
-33.5473,-4.9336,12.827,36.5071,7.8929,-41.4407,-7.8938,-18.747,22.6932,24.667,4.9336,-8.8803,32.7601,-4.9336,
-18.5473,-8.3866,21.214,34.0406,-7.1071,-39.9606,4.4399,-18.2533,21.214,26.1472,16.28,-13.3202,40.9475,-4.4399,
-13.3204,-15.2938,22.1998,32.067,-19.2405,-53.7742,15.2938,-33.2533,12.3335,19.2405,11.3471,-26.1469,37.9875,-11.3471,
-28.3204,-18.7465,16.7737,23.6806,-4.2405,-68.7742,1.9733,-45.3869,-1.9733,6.9074,1.9733,-33.5469,29.6011,-22.6932,
-28.6133,-13.8129,18.747,26.6404,10.7595,-61.1737,0,-30.5866,0,2.9603,4.9341,-35.5202,26.6404,-25.6535,
-26.1472,-12.3338,12.3338,27.1341,0.49369,-46.1737,1.4801,-31.0803,4.4404,8.3871,-0.49369,-35.027,23.1874,-21.2136,
-26.1472,1.4797,21.2131,34.0406,-6.4137,-31.1737,-1.4797,-24.1738,14.3071,23.3871,8.3866,-20.027,31.0803,-6.2136,
-35.5207,-1.9733,15.7863,30.5866,1.9733,-25.654,-16.4797,-17.7606,1.9733,17.7601,1.9733,-29.6006,16.0803,-14.7999,
-26.1467,7.4002,15.2935,39.9611,-10.3599,-13.3202,-19.2402,-3.4535,12.3333,17.2674,3.4535,-33.0536,14.3071,-10.3599,
-33.0541,11.3464,3.453,37.9868,-25.3599,-17.2674,-19.2407,-14.3071,10.3599,19.2398,1.4801,-37.0008,29.107,-1.4801,
-18.0541,21.7068,11.8405,36.5071,-10.3599,-8.8803,-9.8667,-12.827,-1.9733,23.6806,0.98691,-39.4669,33.5469,0.98691,
-6.4137,23.1869,21.2131,31.0803,4.6401,-8.3866,0.49322,-6.4137,-7.4002,11.3469,-8.3866,-38.9742,24.1734,-0.49322,
-16.28,26.1472,24.1743,37.9872,-6.4128,-20.2267,4.4399,-5.4263,-4.4399,9.374,-17.2664,-33.0536,21.214,7.4002,
-20.2267,25.1603,19.2407,42.9208,-2.4666,-12.3328,-7.3997,-4.4394,2.4666,24.374,-16.28,-32.0667,20.2271,4.4404,
-25.1603,14.3071,4.4399,37.9872,4.4399,-6.4137,-22.3997,-6.4137,3.4535,36.0134,-6.4137,-34.0406,15.2935,-3.4535,
-30.5871,4.9336,6.9065,28.6137,-1.9733,-21.4137,-22.6932,-6.9065,-0.98691,32.5604,2.9598,-30.5871,16.7737,0.98691,
-26.1472,1.4801,20.2271,25.1603,-7.4006,-28.1205,-7.6932,-11.3473,1.4801,28.1205,-1.4801,-32.0672,16.2795,5.4268,
-37.9872,1.4801,5.2271,24.1738,-1.4801,-23.1874,-22.6932,-21.214,1.4801,27.1331,-11.3473,-39.9606,5.4268,2.4666,
-43.4141,10.8536,-2.9603,28.6133,3.9467,-13.8139,-36.5071,-12.8265,2.9603,36.5067,-2.9603,-29.6006,14.8003,4.9331,
-28.4141,23.1869,12.0397,37.0008,-0.49322,-11.3469,-21.5071,-2.4661,0.49322,36.0144,-4.4399,-33.0536,25.1607,4.4399,
-13.4141,17.2674,21.214,28.1201,12.3333,-25.1598,-6.5071,-13.3197,-14.3071,21.0144,-19.4399,-48.0536,10.1607,-7.4002,
-11.3469,22.2005,20.2267,29.1074,27.1336,-25.1603,-5.4263,-12.3333,-0.49322,6.0144,-19.2402,-63.0536,10.3604,2.467,
-26.3469,23.6806,21.7068,40.4538,12.1336,-23.6801,-0.98691,-8.8803,-0.98691,0.98691,-11.8401,-76.9609,22.6932,0.98691,
-11.8401,30.5871,28.6142,47.3612,3.9467,-12.8265,0,0,-5.9196,3.9467,-8.8798,-71.0404,18.747,0,
-17.2669,24.1738,20.2271,32.3612,4.4404,-12.3328,4.4404,-4.4394,-2.4666,-1.4801,-16.2795,-65.6141,3.747,4.4404,
-31.574,12.8265,20.7199,27.6268,-10.5596,-11.8405,7.8934,-3.9467,3.9467,-15.7872,-18.7475,-60.1877,11.8401,9.8663,
-18.2538,15.2931,32.0672,39.9606,-7.4002,-5.4268,-5.4268,6.4133,5.4268,-20.2271,-8.3871,-57.7207,26.8401,24.1738,
-10.8541,11.8396,18.7465,33.5469,7.5998,-14.8008,-20.4268,1.9733,-1.9733,-13.8134,-7.8939,-58.2144,13.8134,31.5731,
-16.7732,12.8265,5.9205,24.6675,18.747,-13.8129,-21.7068,-4.9331,0,0,-10.8536,-43.4136,4.9331,36.5076,
-7.8939,21.7068,12.827,23.6806,10.8532,0.98691,-6.7068,-1.9733,-6.9065,-0.98691,-7.8939,-48.3472,3.9462,30.5866,
-0.49322,20.2267,19.2402,24.1734,0.49322,2.4661,-8.3866,3.4535,-21.9065,-8.3866,-7.4002,-63.3472,-9.374,23.1869,
-1.4801,21.2136,29.107,28.1205,9.3735,-1.4801,-1.4801,10.3599,-8.3871,1.4801,-14.3066,-48.3472,-8.3871,37.9868,
-8.3866,15.2935,26.1472,29.1074,3.4535,-14.3071,-2.467,-1.4797,1.4797,4.4399,-28.1205,-46.8671,-13.3197,29.1074,
0.98644,18.747,21.7073,34.5338,0,-11.8401,-1.9729,-8.8798,0,16.7732,-15.7868,-49.3336,-12.8265,16.7732,
0.98644,21.7073,14.8003,32.56,-0.98644,-9.8672,-7.8934,-0.98644,-4.9331,19.7335,-8.8798,-38.4805,0.98644,31.5735,
-8.3871,22.2,12.3338,33.0536,-15.2931,-12.3338,-16.2804,0.49369,-0.49369,5.4268,-7.3997,-37.0003,15.2931,45.8802,
-23.3871,7.2,4.4399,25.1598,-30.2931,-27.1336,-20.2271,-14.5063,9.373,-1.4797,3.4535,-52.0003,8.3866,30.8802,
-29.6002,2.9603,17.7606,33.5473,-27.6268,-35.5202,-11.8401,-12.827,24.373,8.8798,18.4535,-52.2939,18.747,15.8802,
-17.7606,5.9196,10.8536,23.6801,-12.6268,-50.5202,-26.8401,-14.8003,9.8663,-2.9603,23.6801,-42.4272,22.6937,2.9603,
-6.4133,6.4133,6.4133,20.2271,-9.3735,-43.9068,-21.2136,-5.4268,5.4268,-6.4133,10.3599,-34.0401,20.2271,17.9603,
-10.3604,-3.4535,21.4133,24.1734,-24.3735,-31.0803,-6.2136,-2.467,9.373,-10.3604,2.467,-37.0003,11.3469,26.1472,
-2.4666,-2.4666,36.4133,26.1467,-39.3735,-20.2267,8.7864,-1.4801,3.4539,-9.3735,1.4801,-38.9737,19.2407,37.9877,
0.98691,10.8532,26.6399,23.6797,-24.3735,-23.6806,-6.2136,-0.98691,-6.9065,-1.9733,-5.92,-44.4005,22.6932,35.5207,
-5.92,17.7601,14.7999,18.7465,-9.3735,-29.6006,-21.2136,1.9733,-5.92,-1.9733,-7.8938,-48.3477,18.7465,20.7204,
-8.8798,6.9069,20.7199,15.7868,-13.8139,-24.667,-6.2136,0.98644,-0.98644,-5.9205,-4.9331,-45.3874,25.654,23.6801,
-16.7732,3.9467,11.8401,19.7335,-20.7204,-14.8003,0.98644,-0.98644,-1.9738,6.9069,-13.8139,-37.494,22.6937,32.56,
-29.107,12.3333,7.4002,17.2664,-9.373,-15.2935,-14.0136,1.4797,-1.4797,10.3604,-21.2136,-33.0536,7.6937,29.1074,
-22.6937,20.7199,22.4002,17.7606,-9.8663,-14.8003,-10.8536,4.9331,-0.98644,0.98644,-13.8129,-26.6404,0.98644,30.5871,
-18.747,13.8129,12.8265,10.8536,-12.8265,-14.8003,1.9729,-0.98644,-8.8798,0.98644,-22.6937,-23.6806,0.98644,30.5871,
-13.3197,2.467,8.3866,11.3469,-16.2804,-21.2136,-5.4263,-2.467,3.4535,8.3866,-24.1738,-15.2935,7.4002,32.0667,
-7.4002,1.4797,23.3866,26.3469,-11.3469,-34.0406,-5.4268,-1.4797,12.3333,2.467,-10.3604,-19.2402,22.2005,37.0008,
-12.827,12.827,29.6002,36.5071,-0.98691,-35.5207,-3.9472,-0.98691,6.9065,-12.533,0.98691,-34.2402,27.6264,43.4141,
-13.3202,13.3207,23.1869,26.1472,-15.9869,-29.107,5.4273,0.49322,-0.49322,-27.533,-0.49322,-49.2402,18.2538,31.0803,
-6.9069,3.9462,29.6002,23.6797,-30.9869,-36.5071,16.7737,-1.9733,-0.98691,-24.667,0.98691,-43.4141,14.7999,20.7204,
-11.8401,0,28.6142,25.654,-15.9869,-51.307,1.9738,-4.9331,0,-12.8265,2.9603,-28.6133,17.7606,28.6142,
-22.6937,2.9598,13.8134,21.7068,-0.98691,-47.3608,-13.0262,-0.98691,0.98691,-13.8139,-8.8803,-24.667,4.9336,29.6002,
-14.3071,12.3328,23.1865,23.1865,-15.9869,-32.3608,-7.4006,9.3735,11.3464,-2.4666,-8.3871,-17.2674,2.4666,24.1729,
-8.8798,1.9738,31.5745,15.7868,-30.9869,-28.6133,7.5994,0,-0.98644,3.9467,-12.8265,-28.6133,0,9.1729,
-2.9603,5.9205,31.5735,18.747,-15.9869,-24.667,0.98644,6.9069,-7.8934,8.8798,-5.9196,-26.6404,9.8672,-0.98644,
-6.4133,12.3338,22.2,15.2931,-0.98691,-12.3338,-9.3735,20.2271,-4.4404,7.3997,-3.453,-12.3338,20.2271,-1.4801,
-8.8803,11.8396,24.667,15.7863,-8.8803,1.9733,-10.8541,12.827,-4.9336,14.7999,-1.9733,-12.827,15.7863,-16.4801,
-3.9467,10.8536,31.5745,21.7073,-23.8803,3.9467,-6.906,-2.173,-3.9467,24.6675,13.0267,-14.7994,11.8401,-30.5866,
-14.8003,6.9069,18.747,21.7063,-26.6404,-11.0533,-19.7339,-15.7872,2.9603,21.7063,23.6801,-2.9603,23.6801,-31.574,
-23.1869,5.4268,13.3202,24.1738,-18.2538,-19.2402,-34.0406,-14.3071,6.4133,10.3599,18.2533,-5.4268,38.6801,-38.9737,
-17.2669,11.3469,25.1598,30.0939,-33.2538,-6.4137,-19.0406,-20.2271,11.3469,6.4137,20.2267,-20.4268,42.9204,-49.8273,
-19.7339,14.7999,17.7601,29.6002,-46.3738,-14.8003,-4.0406,-35.2271,6.9065,-6.9065,25.6535,-35.4268,37.4936,-52.2944,
-4.9336,21.7068,19.7339,30.5876,-31.3738,-15.7868,2.9598,-35.5202,7.8938,-2.9598,30.5876,-27.6268,52.4936,-40.4538,
-5.4273,6.7068,17.2664,17.2664,-16.3738,-12.3333,0.49322,-40.9475,-0.49322,-5.4273,19.2402,-34.0406,57.7207,-38.9742,
-17.7601,0.98644,12.8265,23.6801,-1.3738,-9.8663,14.8003,-47.3603,-0.98644,-2.9603,14.8003,-37.4936,42.7207,-23.9742,
-25.654,1.9729,0,35.5202,1.9729,-11.8405,-0.19968,-52.2944,10.8527,0,15.7868,-40.4543,40.4533,-13.8139,
-24.1736,0.49345,-0.49345,41.9337,14.3069,-5.4266,-8.3868,-48.8406,25.1605,5.4266,26.1469,-36.0137,52.7873,-21.2133,
-28.6137,-12.827,-1.9733,26.9337,23.6806,-18.747,6.6132,-58.2139,15.7872,1.9733,20.7204,-27.6268,43.4141,-30.5871,
-25.654,-13.8139,-6.9065,14.7999,9.8667,-25.654,7.8929,-60.1877,7.8929,6.9065,10.8532,-15.7872,36.5071,-15.5871,
-20.2267,-2.4666,-8.3861,29.7999,-5.1333,-10.654,-7.1071,-45.1877,11.3473,16.2805,19.2407,-0.78723,50.8142,-0.58708,
-26.1472,-10.3604,-6.4133,38.9742,-4.4404,-5.4268,-0.49369,-39.9606,1.4801,11.3464,22.2,0.49369,56.7338,14.3066,
-29.107,-20.2271,-3.453,25.1603,10.5596,-20.4268,13.3202,-54.9606,-5.4268,3.453,10.3599,-14.5063,50.8142,4.4404,
-21.7066,-13.8132,-6.9067,31.5742,17.7603,-18.7468,9.867,-55.2539,7.8941,-6.9067,6.9067,-26.6402,49.3339,10.8534,
-17.7601,0,-3.9467,38.48,2.7603,-3.7468,24.867,-40.2539,16.7737,-10.8536,17.7601,-17.7601,54.2677,20.7204,
-29.107,-3.453,-7.4002,33.0536,5.4268,-1.4801,20.2271,-34.0401,1.7737,-11.3469,21.2136,-7.4002,50.8142,15.294,
-33.5473,-10.8532,-12.827,27.6273,13.8134,-0.98691,5.2271,-36.5071,0.98691,-20.7204,21.7068,1.9733,43.4141,16.7737,
-25.6535,-0.98691,-1.9733,31.574,-1.1866,3.9472,-4.9336,-32.5604,5.92,-34.5338,14.7999,0.98691,33.5469,27.6273,
-27.1341,0.49322,2.4661,30.0939,-2.467,-0.49322,3.4535,-28.1205,-6.4137,-30.0939,10.3595,-5.4273,32.0667,26.1472,
-29.6002,-9.8663,-4.9331,21.7073,12.533,0,-1.9729,-29.6002,-5.9196,-15.0939,18.747,3.9467,47.0667,31.5735,
-35.5207,-22.6937,-9.8667,16.7737,5.92,-6.9065,-3.9472,-40.4538,-0.98691,-0.093865,17.7601,0.98691,51.3074,35.5207,
-37.9872,-20.2271,-1.4801,21.2136,-9.08,-15.2931,5.4268,-37.0003,1.4801,1.4801,12.3338,-7.3997,37.9868,37.0003,
-34.5338,-15.7872,0,23.6801,-24.08,-19.7339,0,-32.5604,5.9196,5.9196,9.8663,-5.9205,41.4407,30.5871,
-23.1869,-13.3202,-1.4797,26.1472,-9.08,-12.3333,0.49322,-32.0667,9.374,19.2402,13.3207,-3.4535,48.8409,29.1074,
-31.0803,-28.3202,-0.49322,15.2935,5.92,-14.3071,3.4535,-34.0406,-4.4399,4.2402,9.373,-18.4535,37.0008,26.1472,
-31.0808,-24.1738,14.5068,27.1336,-0.49322,-15.294,7.4002,-22.2005,0.49322,-10.7598,19.2402,-20.2271,42.9204,36.9999,
-25.654,-9.1738,12.8265,41.4407,-0.98644,-12.827,0.98644,-19.7339,8.8798,-20.7204,13.8129,-11.8405,46.3738,40.4533,
-17.2674,-0.49322,6.4128,36.9999,-14.3071,-4.4399,4.4399,-21.214,3.4535,-23.1874,0.49322,-23.1874,35.027,27.1336,
-2.2674,0.98644,9.8672,31.5735,-20.7204,4.9331,12.8265,-11.8401,-8.8798,-29.6002,-1.9729,-26.6404,31.5735,29.6006,
-3.9467,2.9603,-0.98644,28.6142,-5.7204,4.9331,0,-5.9196,-16.7732,-35.5202,0,-11.6404,34.5338,39.4669,
-16.7732,1.9729,-5.9205,32.56,9.2796,0,-5.9205,-3.9467,-5.9205,-33.5473,4.9331,0,39.4669,42.4272,
-17.7596,-8.8798,8.8798,22.6937,0,1.9738,6.9069,-7.8934,-0.98644,-27.6268,0,-6.9069,32.5609,44.401,
-16.2804,-14.3066,16.2805,14.3066,2.4666,7.3997,15.2931,-8.3871,-7.4006,-17.2669,-2.4666,-4.4404,22.2,42.9199,
-26.6395,-4.9331,1.2805,23.6811,9.8672,4.9341,0.29307,0,-13.8129,-4.9331,-4.9331,3.9467,20.7208,33.5473,
-23.6797,2.9598,-4.9336,25.6535,0.98691,-1.9733,-9.8667,1.9733,-11.8396,5.92,-7.8929,-0.98691,22.6942,22.6942,
-8.6797,0,10.0664,22.6937,15.9869,-6.9069,3.9467,-3.9467,-4.9341,-3.9467,0,-14.8003,28.6133,11.8401,
-15.7868,-12.8265,5.9205,19.7335,18.747,-9.8663,0.98644,-11.8401,-0.98644,-18.747,3.9467,-28.6137,33.5473,1.9738,
-30.0939,-5.4268,-0.49369,31.0808,3.747,-6.4133,8.3871,-11.3469,7.3997,-3.747,5.4268,-19.2402,33.0536,14.3066,
-27.6268,-1.9729,2.9603,37.494,-11.253,-11.8401,15.7868,-14.8003,1.9738,-0.98644,0.98644,-17.7601,18.0536,16.7732,
-12.6268,-6.4137,6.4137,34.0406,-26.253,-4.4399,4.4399,-10.3604,4.4399,-15.2935,8.3866,-16.2804,23.1869,14.3071,
-16.7737,-2.9598,-1.9733,31.574,-11.253,1.9733,-4.9336,-4.9336,3.9472,-2.9598,10.8532,-5.92,35.5207,20.7204,
-27.6268,-3.9462,-2.9598,29.6002,3.747,-13.0267,0.98691,-9.8667,-8.8803,10.8532,5.92,-0.98691,26.6409,23.6806,
-20.2262,-8.3861,4.4404,30.0943,5.4268,-16.2795,2.4666,-10.3599,-8.3861,1.4801,-1.4801,-1.4801,24.1738,29.107,
-13.3202,1.4801,10.3599,30.0934,-2.4666,-1.2795,3.453,-1.4801,-5.4268,-8.3871,-9.3735,-5.4268,22.2,34.0401,
-22.2005,-0.49322,3.4535,15.0934,12.5334,0.49322,7.4002,-9.373,-20.4268,-18.2538,-20.2267,-17.2664,10.3604,19.0401,
-11.3464,2.4666,7.4006,17.2669,27.5334,-13.3202,9.3735,-2.4666,-20.2271,-23.1865,-20.2271,-24.1738,17.2669,13.3202,
-5.92,11.8396,12.826,32.2669,12.5334,-6.9074,-1.9733,1.9733,-9.8667,-19.7339,-23.6806,-33.5473,18.7465,19.733,
-13.3197,13.3197,15.2935,33.0541,-2.4666,0.49322,-0.49322,-5.4263,1.4797,-6.4137,-14.3071,-29.107,22.2005,28.1201,
-13.8139,3.9467,8.8798,30.5871,0,-6.9069,0,-3.9467,-6.9069,-2.9603,0.6929,-28.6137,34.5338,22.6937,
-6.9069,-1.9738,4.9331,34.5338,0,-21.9069,10.8536,0,-9.8672,-7.8934,2.9603,-37.494,34.5338,7.8934,
-5.9205,-0.98738,9.8663,35.5202,0,-25.654,9.8663,-2.9603,-0.98738,1.9729,0,-32.5609,25.653,14.7994,
-20.7194,-1.9733,4.9336,23.6806,1.9733,-10.654,-5.1337,-2.9598,-8.8793,10.8541,6.9074,-17.5609,26.6409,29.7994,
-25.1603,-10.3599,-0.49369,10.3599,6.4133,-6.4133,-20.1337,-2.4666,-20.2271,8.3871,9.3735,-2.5609,26.1467,34.0401,
-10.1603,-20.7199,4.9331,7.8934,12.8265,-10.8536,-5.1337,-9.8663,-22.6937,3.9467,-3.9467,-7.8934,15.7868,19.0401,
-6.4133,-19.2398,3.4539,7.4006,15.294,-1.4801,1.4801,-11.3464,-25.1603,1.4801,-9.3735,-14.3066,21.2136,24.1738,
-12.3342,-4.2398,3.4535,16.28,8.3866,5.4263,-13.5199,-1.4806,-24.1743,0.49322,-5.4273,-20.2276,34.0406,39.1738,
-12.3338,1.4801,4.4394,18.2533,3.453,-1.4801,-13.3202,2.4666,-29.107,-8.3871,-15.294,-35.0275,22.2,28.1205,
-9.373,-10.3604,1.4797,10.3604,18.2538,1.4797,-1.4797,5.4263,-33.0541,-15.2935,-22.2005,-46.8671,13.3197,13.1205,
-1.4801,-8.3871,1.4801,15.2931,33.2538,4.4404,-7.3997,5.4268,-31.0808,-4.4404,-16.2804,-44.8937,24.1738,22.2,
-1.9733,-5.92,5.92,13.8134,24.667,5.92,1.9733,-5.92,-37.4936,-5.92,-17.7601,-43.4141,24.667,28.6137,
-9.8672,-6.9069,12.8265,15.7868,9.667,16.7732,14.8003,6.9069,-35.5202,-11.8401,-19.7335,-44.401,18.747,16.7732,
-3.9467,0.98644,23.6801,28.6133,-5.333,15.7868,-0.19968,21.9069,-21.7073,-3.9467,-8.8798,-35.5202,27.6268,22.6937,
-5.4268,-4.4404,18.2533,17.2669,9.667,0.78676,-15.1997,6.9069,-28.1205,-0.49369,-9.3735,-33.0536,29.107,34.0401,
-12.8265,-15.7868,9.8672,7.8934,4.9331,1.9738,-0.19968,-6.9069,-37.494,-0.98644,-18.747,-33.5473,19.7335,26.6404,
-13.8139,-16.7732,9.8672,11.8401,-10.0669,6.9069,10.8536,-0.98644,-29.6006,0.98644,-27.6268,-30.5871,14.8003,18.747,
-14.3071,-9.374,10.3595,15.2935,2.4661,-0.49322,-4.1464,6.4128,-23.1869,0.49322,-28.121,-34.0406,19.2402,28.1201,
-10.8536,-1.9738,21.7073,24.6666,17.4661,-0.98644,0.98644,14.8003,-12.8265,-0.98644,-13.121,-40.4538,34.2402,25.654,
-14.3071,-16.28,21.2131,19.2402,13.3197,-9.374,3.4535,4.4399,-5.4273,-9.374,1.879,-52.7876,46.8671,10.654,
-6.4137,-13.3207,26.1472,29.1065,-1.6803,-9.374,-0.49322,7.4002,9.373,-1.4806,16.879,-40.9475,60.68,0.49322,
-9.373,-9.373,22.2005,29.1074,-1.4797,-18.2538,0.49322,-0.49322,2.467,-8.3866,16.28,-42.9204,50.8138,8.3866,
-1.9738,-7.8934,24.6666,25.654,0.98644,-11.8401,15.4932,-0.98644,0.98644,-21.7073,1.28,-43.4141,39.4669,16.7732,
4.4399,-8.3866,21.214,26.1472,-7.4002,-4.4399,30.4932,9.373,-5.4263,-23.1869,-13.72,-40.947,29.1074,23.1869,
3.4535,-12.3333,15.2935,18.2538,7.5998,-12.3333,15.4932,5.4273,-19.2402,-20.2267,-28.72,-44.8937,14.3071,18.2538,
13.8134,-2.9598,25.6535,19.7339,22.5998,-2.9598,0.49322,2.9598,-13.8134,-21.7068,-24.667,-47.3608,21.7068,17.7601,
1.4797,-8.3866,17.2664,16.28,7.5998,0.49322,0.49322,-0.49322,-14.3071,-32.0672,-21.214,-54.7609,24.1734,5.4263,
-4.9341,-6.9069,20.7199,25.653,-7.4002,0,1.9729,5.9196,0,-17.0672,-6.9069,-40.4543,35.5202,0.98644,
-7.4002,0.49322,25.1607,33.0541,6.4137,-15,-10.3599,-0.49322,10.3604,-2.0672,-4.4399,-30.0934,37.0008,8.3866,
-5.4266,4.4406,17.2671,34.0403,-1.4799,-28.1203,-6.4135,-5.4266,11.3466,1.4799,-7.3999,-32.067,36.0141,18.2536,
-6.4133,-5.4268,8.3866,35.0275,-6.4133,-25.1603,8.3866,-0.49322,18.2533,0.49322,-2.4666,-33.0536,42.9208,8.3866,
-21.4133,-18.7468,5.9198,33.5471,-10.8534,-37.4938,6.9067,-5.9203,26.6402,0.98667,-0.98667,-32.5607,41.4405,6.9067,
-13.8132,-9.8665,20.9198,43.4143,-25.8534,-35.5204,16.7734,-0.98667,27.6275,0.98667,-0.98667,-32.5602,37.4938,21.9067,
1.1868,-7.8934,35.5202,41.4407,-40.4538,-27.6268,10.8536,-1.9733,12.6275,-14.0133,-14.7999,-47.5602,28.6142,11.8401,
6.414,-7.3999,27.1338,35.0272,-25.4538,-24.1736,-2.4668,-2.4668,11.3471,-29.0133,-16.2802,-57.7205,35.0272,6.414,
-0.98667,-1.9731,32.5602,41.441,-10.4538,-32.5602,0.98667,-1.9731,22.6939,-23.6804,-6.9067,-46.3736,43.4138,21.414,
1.4799,-4.4401,39.9604,44.8935,-16.2802,-29.1072,9.3733,-1.4799,16.2802,-32.067,-8.3868,-49.8271,39.9604,23.1872,
16.4799,0,31.5735,34.5338,-9.8667,-19.7335,6.9069,-2.9598,16.7741,-46.3738,-12.8265,-64.8271,31.5735,8.1872,
13.32,6.414,18.254,29.1067,-9.3733,-31.0801,1.4799,-10.3602,15.2938,-42.9206,-20.2269,-69.5605,23.1872,-1.4799,
-1.68,2.9603,11.8401,37.494,-9.8667,-27.6268,1.9733,-7.8934,17.7606,-27.9206,-15.7868,-54.5605,32.5609,2.9603,
-6.9067,-0.98667,13.8132,44.4003,0.98667,-19.7337,0.98667,-2.96,25.6533,-12.9206,-9.867,-39.5605,38.4807,-9.867,
-5.92,3.9467,15.7872,40.4538,-8.8798,-26.6399,8.8803,-3.9467,20.7204,2.0794,-13.8134,-38.4805,26.6409,-24.867,
-10.8536,2.9603,13.8139,33.5473,-2.9603,-20.7204,7.8934,-8.8798,8.8798,2.9603,-22.6937,-43.4136,19.7335,-39.867,
-6.9069,1.9733,18.7465,47.3608,12.0397,-5.7204,3.9472,-13.8134,10.8532,-2.9598,-21.7068,-36.5071,25.6535,-44.4005,
2.96,11.8403,33.7465,51.3072,-2.9603,-2.96,18.9472,-7.8931,21.7075,-4.9334,-7.8931,-33.5471,37.4943,-43.4138,
-4.4399,15.2935,29.1074,36.3072,0.49322,-16.28,33.9472,-0.49322,21.214,-4.4399,-8.3866,-39.9606,40.9475,-58.4138,
-12.3335,12.334,16.2807,39.9608,15.4932,-1.28,18.9472,-3.4532,20.2274,-8.3868,-17.2667,-38.9739,45.8804,-64.6274,
-11.3469,17.2669,21.2136,47.854,6.4133,13.72,3.9472,-6.4133,25.1603,-23.1869,-16.28,-37.0003,51.8007,-62.6538,
-9.3735,15.2931,20.2271,37.0003,-8.5867,17.2669,9.3735,-12.3338,17.2669,-37.0008,-16.2804,-48.8409,40.947,-73.5075,
-3.4535,2.467,5.2271,31.0803,6.4133,2.2669,24.3735,-27.3338,16.28,-36.0139,-16.2804,-63.8409,33.0532,-73.5075,
-0.49322,-9.3735,0.49322,33.0541,21.4133,1.4801,23.1869,-42.3338,23.1869,-40.947,-7.4002,-69.5608,39.9601,-69.5608,
-3.4535,-6.4133,13.3202,36.0139,6.4133,14.3066,21.2136,-36.0139,26.1467,-36.0139,3.4535,-54.5608,46.8675,-69.5608,
-15.2933,-10.3602,2.4668,28.1203,8.3868,1.4799,21.2133,-35.0272,25.16,-21.0139,-4.4401,-39.5608,36.0137,-64.6274,
-23.1869,-12.3333,-11.3469,35.027,23.3868,-1.4801,7.4002,-37.9872,31.0803,-6.0139,1.4801,-31.0803,38.9737,-49.6274,
-27.6273,-26.6404,-9.8667,36.5067,8.3868,1.9733,1.9733,-41.4407,25.654,8.9861,3.9467,-35.5207,36.5067,-50.3205,
-21.7068,-30.5871,3.9467,37.4936,-6.6132,-3.9467,16.9733,-41.4402,35.5207,23.9861,4.9336,-26.6404,35.5207,-52.2939,
-24.6666,-33.5469,-1.9733,31.574,6.9069,-13.8134,22.6942,-54.2672,34.5342,28.6137,1.9733,-29.6002,34.5342,-49.3336,
-25.6533,-38.4802,-8.8801,17.7603,21.9069,0.98667,7.6942,-50.3203,19.5342,13.6137,-0.98667,-42.4269,35.5209,-47.3605,
-13.8136,-23.4802,0.98667,32.7603,27.6266,15.9867,15.7865,-35.3203,16.7739,-0.98667,-3.9469,-29.6004,41.4405,-32.3605,
-17.2669,-8.4802,2.4666,39.9601,21.214,0.98667,24.1734,-32.0667,17.2674,-0.49322,-16.28,-30.0934,27.1336,-26.1467,
-3.9467,-2.9603,17.4666,45.3874,22.6937,-1.9733,30.5871,-29.6006,28.6133,1.9733,-3.9467,-33.5473,33.5473,-26.6404,
-3.4532,-11.3466,13.32,37.9875,13.32,3.4532,15.5871,-24.1736,22.2007,-13.0267,-7.3999,-39.9604,32.067,-21.2133,
-8.8801,-0.98667,1.9731,33.5466,2.9605,11.8403,0.98667,-21.707,18.7472,-26.6402,-3.9469,-24.9604,34.534,-6.2133,
-14.3071,4.4404,-5.4268,35.0275,-5.4268,13.3202,5.4268,-17.2669,15.2931,-23.1869,7.3997,-20.2271,35.0275,-4.4404,
-6.4133,-1.4801,1.4801,41.9339,-5.4268,9.374,20.4268,-4.4399,12.3333,-32.0667,6.4137,-27.1336,30.0939,-8.3866,
-4.9334,-8.8801,7.8931,34.5335,-0.98667,0.98667,29.6004,-9.867,10.8534,-31.5738,6.9067,-24.6668,24.6673,-3.9469,
-10.3599,-0.49322,0.49322,33.0541,14.0133,2.4666,14.6004,-17.2669,12.3333,-16.5738,21.9067,-16.28,29.1074,-2.4666,
-14.8003,0,-9.8667,34.5338,23.6801,-0.98691,-0.39959,-13.8134,11.8401,-1.5738,34.5338,-22.6937,27.6268,0,
-28.1201,-15,-11.3469,29.1074,8.6801,-15.9869,11.3469,-22.2,8.3866,13.4262,23.1869,-37.6937,15.2935,-3.4535,
-26.6402,-22.6935,0.98667,36.5074,-1.9736,-11.8403,8.8805,-16.7734,23.3866,28.4262,38.1869,-22.6937,28.614,-0.98667,
-22.6935,-23.6804,-5.9203,26.6402,-0.98667,-9.867,0.98667,-16.7734,27.6266,33.5471,53.1869,-7.6937,30.5868,5.9198,
-30.0936,-32.067,-12.3335,19.24,-6.4135,-20.2269,15.2933,-28.1203,12.6266,18.5471,49.8271,-20.2269,15.5868,12.334,
-33.5473,-17.067,-0.98691,34.24,0.98691,-8.8803,17.7601,-17.7606,15.7863,3.5471,64.8271,-17.7606,20.7204,22.6932,
-32.067,-2.067,-5.4266,46.8678,6.4135,-5.4266,2.7601,-5.4266,22.2002,-11.3466,75.481,-16.2802,23.1867,23.1867,
-17.067,1.9733,-3.9467,37.4936,4.9336,-10.8532,-1.9733,-8.8798,14.8008,-26.3466,69.068,-21.7068,29.6002,28.6137,
-12.827,-0.98644,8.8798,24.6666,-2.9603,-6.9069,13.0267,-19.7335,0.98644,-41.3466,63.147,-22.6937,32.56,26.6404,
-13.8129,8.8798,0,25.654,0,-3.9467,11.8401,-12.8265,-8.8798,-56.3466,51.307,-28.6137,17.56,12.8265,
1.1871,18.7465,-10.8541,32.5604,15,-7.8938,-3.1599,-1.9733,-4.9336,-52.2943,41.4402,-37.494,6.9065,20.7204,
-1.9733,7.8929,-3.9472,30.5866,11.8396,-10.8541,-12.827,-7.8939,1.9733,-37.2943,43.4131,-35.5207,19.733,30.5866,
-16.2804,2.467,2.467,29.1074,-0.49322,-6.4137,-1.4797,-9.373,0.49322,-22.2943,50.8138,-20.5207,24.1734,31.0803,
-3.9467,2.9603,-2.9603,17.7606,14.5068,-14.8003,2.9603,-12.8265,-8.8798,-13.8139,50.3205,-14.8003,15.7868,16.0803,
11.0533,2.4666,-3.453,17.2669,29.5068,-15.2931,15.294,-21.2136,-15.2931,-10.3599,47.854,-22.2,7.4006,1.0803,
-1.4801,-1.4801,-10.3599,18.2533,19.2398,-6.4133,3.453,-21.2136,-14.3066,4.4404,45.8802,-25.1603,8.3871,1.4801,
-12.827,2.9598,-2.9598,21.7068,15.7872,-3.9472,-9.8667,-10.8532,-3.9472,19.4404,55.2541,-12.827,23.3871,16.4801,
-15.2935,-3.4535,0.49322,23.1869,27.1336,-18.9472,-0.49322,-23.1869,-7.4002,5.4273,48.8409,-18.2529,12.3333,5.4273,
-12.8274,0,0,28.6133,25.653,-12.8274,14.5068,-23.6806,-1.9738,-9.5727,49.3332,-28.6142,8.8798,6.906,
-19.2402,4.4404,-0.49369,28.1205,10.653,-0.49369,7.3997,-12.3338,0.49369,-24.5727,59.694,-35.027,23.8798,21.906,
-24.1734,8.3866,0.49322,28.121,-4.347,6.4137,-0.49322,-2.4661,-2.4661,-33.0536,60.681,-21.2136,30.0939,28.121,
-21.7068,17.7606,-7.8934,29.6006,10.653,0,0,-4.9331,-1.9729,-25.6535,57.2275,-15.7868,26.6404,22.6937,
-15.2931,15.294,-13.3202,28.1205,25.653,-1.4801,1.4801,-17.2669,-5.4268,-32.0667,58.7076,-30.7868,32.0672,29.107,
-14.3066,5.4268,-12.3328,21.2136,14.3076,11.3473,-5.4268,-12.3328,-10.3599,-41.9335,50.8142,-45.7868,27.1341,21.2136,
-15.7863,12.827,-11.8396,18.7475,9.8667,4.9336,-13.8134,-4.9336,-22.6932,-37.4936,35.8142,-52.2939,12.1341,7.8939,
-4.4399,16.28,-2.467,14.3071,14.3071,-9.373,1.1866,-19.9336,-34.0406,-27.1336,39.9601,-47.8535,3.4535,19.2402,
-0.49322,5.4263,-0.49322,9.373,8.3866,-10.3604,0.49322,-26.1472,-27.1336,-14.3071,54.9601,-32.8535,8.3866,34.0406,
0,8.8798,0,11.8401,0,-13.8139,-8.8798,-11.1472,-13.8139,0.69289,56.241,-19.7335,14.8003,34.5338,
-2.9603,9.8663,0,3.9467,-0.98644,-25.654,3.9467,-18.747,-22.6937,9.8663,41.4407,-34.5338,0,27.6268,
-5.4273,14.3062,-1.4806,14.3062,11.3469,-10.654,-0.49322,-23.1869,-22.2005,17.2664,45.8806,-24.1743,-2.467,42.6268,
-4.9331,11.8401,-3.9467,20.7208,-3.6531,4.346,-10.8536,-8.8798,-15.7868,21.7073,41.4407,-15.7868,3.9467,47.3612,
1.4801,6.4133,-4.4404,7.4006,-18.6531,-4.4404,4.1464,-7.3997,-18.2533,6.7073,26.4407,-30.7868,3.4539,33.0536,
3.4535,21.4133,-5.4273,19.2402,-3.6531,-15.2935,-3.4535,-4.4408,-19.2402,-8.2927,18.2529,-44.8942,9.373,44.8932,
-6.4133,30.0934,-4.4404,28.1205,11.3469,-0.29354,-18.4535,-0.49369,-20.2271,-23.2927,14.3066,-44.8937,18.2533,53.7745,
-5.9205,19.7335,-2.9603,18.747,2.9603,4.9331,-4.9331,-3.9467,-23.6801,-38.2927,4.9331,-59.8937,10.8536,38.7745,
1.4801,15.294,-1.4801,20.2271,-9.3735,-9.3735,10.0669,-4.4394,-21.2136,-53.2927,13.3202,-68.5739,2.4675,24.1738,
0.98644,8.8808,-0.98644,22.6937,5.6265,-24.3735,-4.9331,-5.9196,-16.7732,-68.2927,19.7335,-53.5739,7.8934,34.5338,
-0.49322,6.4137,0.49322,20.2276,13.3207,-17.2664,-15.2935,-2.4661,-22.1995,-74.4939,4.7335,-57.7202,9.374,28.121,
-1.9733,12.827,2.9607,14.8008,-1.6793,-2.2664,-1.9733,1.9733,-29.6002,-66.1073,-8.8803,-72.0273,4.9336,25.6535,
8.3871,20.2271,13.3202,17.2669,-6.4133,-6.4133,0.49369,-0.49369,-26.1467,-51.1073,-6.4133,-58.7076,1.4801,40.6535,
10.8532,12.827,15.7872,15.7872,7.8938,-19.7339,5.92,-5.92,-21.7068,-36.1073,-17.7601,-50.3205,-13.5199,38.4809,
-0.98691,0.98691,9.8667,10.8532,6.9065,-17.7601,4.9336,-8.8803,-26.6399,-21.1073,-32.7601,-53.2808,-21.7068,40.4538,
6.4137,10.3604,12.3333,14.3071,1.4797,-14.3071,-10.0664,-3.4535,-30.0939,-6.1073,-25.1607,-41.9339,-6.7068,55.4538,
13.8129,25.3604,19.7335,18.747,-7.8934,-14.8003,-25.0664,2.9603,-25.654,4.9331,-10.1607,-30.5871,-2.9603,69.0675,
19.7335,40.3604,34.5338,33.5473,-18.747,-3.9467,-19.7335,17.7606,-12.8265,-10.0669,3.9467,-39.4669,-17.9603,55.2546,
22.6937,42.4272,30.5871,28.6133,-3.9467,-18.9467,-6.9069,3.9467,-19.7335,-25.0669,8.8798,-54.4669,-15.7868,40.2546,
21.7068,27.4272,16.7737,13.6133,6.9065,-33.9467,-15.7872,-11.0533,-34.7335,-40.0669,8.8803,-69.4669,-4.9336,25.2546,
20.7194,13.8134,30.5866,11.8396,-8.0935,-31.574,-1.9733,-9.8667,-39.4674,-55.0669,11.8396,-84.4669,1.9733,15.7863,
17.7606,22.6937,35.5202,14.8003,-23.0935,-30.5871,7.8934,-20.7199,-39.4669,-70.0669,3.9467,-99.4669,-3.9467,15.7868,
20.7199,26.6404,28.6133,15.7868,-8.0935,-41.4407,0.98644,-27.6268,-29.6006,-85.0669,1.9738,-107.548,-0.98644,19.7335,
11.3469,18.2538,18.2538,19.2402,6.9065,-50.8142,-14.0136,-23.1869,-43.9068,-100.0669,-5.4263,-122.548,5.4263,17.2664,
17.2669,12.3338,29.107,13.3202,12.3338,-47.854,-8.3871,-19.2407,-48.8409,-115.0669,-9.3735,-122.8416,8.3871,23.1865,
29.1065,20.2267,44.107,18.2538,-2.6662,-43.9073,6.6129,-13.3207,-33.8409,-100.0669,-4.4399,-107.8416,3.4535,34.0406,
29.6006,22.6937,51.3079,26.6404,-16.7732,-54.2672,1.9738,-16.7732,-18.8409,-85.0669,-0.98644,-92.8416,0.98644,36.5076,
25.1607,15.2935,36.3079,20.2267,-1.7732,-59.694,-13.0262,-29.1065,-28.1201,-70.0669,-0.49322,-78.4411,6.4137,36.0134,
15.7868,8.8798,23.6801,7.8934,11.8401,-49.3341,-18.747,-30.5871,-40.4543,-55.0669,0,-93.4411,0,37.4931,
8.3871,10.3599,26.1467,7.3997,-3.1599,-39.9606,-3.747,-23.1874,-36.0139,-40.0669,3.453,-78.4411,-3.453,46.8675,
16.7732,17.7596,36.5067,19.7335,-15.7868,-30.5871,-0.98644,-15.7868,-28.6142,-28.6142,7.8934,-63.4411,0.98644,61.1742,
28.1205,25.1603,50.8142,21.2136,-0.78676,-20.2271,-10.3599,-0.78676,-34.0401,-42.9208,0.49369,-78.4411,-14.0136,49.8268,
39.9606,32.0672,65.8142,25.1603,-8.3871,-21.2136,4.6401,6.4133,-30.0934,-56.7338,-6.4133,-93.4411,-22.2,36.0139,
54.9606,42.4272,80.8142,40.1603,-1.9738,-27.6268,11.8401,0.98644,-32.56,-71.7338,-0.98644,-108.4411,-19.7335,47.3603,
57.7212,45.8811,72.5215,40.947,13.0262,-37.0003,1.4801,-5.4268,-45.8806,-86.7338,-1.4801,-123.4411,-34.7335,35.0275,
42.7212,30.8811,59.2004,25.947,0.98644,-52.0003,4.9331,-20.4268,-43.4136,-101.7338,-0.98644,-138.4411,-49.7335,20.0275,
49.8278,36.0139,72.5215,35.0275,-14.0136,-49.8268,19.9331,-28.1201,-28.4136,-108.0412,14.0136,-123.4411,-36.0134,14.3066,
46.8671,31.0803,65.6141,27.1336,0.98644,-50.8142,4.9331,-27.1336,-39.9606,-123.0412,17.2664,-124.8149,-32.0667,12.3333,
55.2541,38.4809,76.9614,42.1336,15.9864,-39.4669,-6.9065,-12.1336,-47.3603,-126.2946,21.7068,-133.2015,-27.6264,4.9336,
56.7347,35.0275,86.3344,48.8404,17.2669,-33.0536,6.4133,-9.3735,-32.3603,-111.2946,36.7068,-118.2015,-14.3066,-6.4133,
41.9339,22.2005,78.4406,33.8404,15.2935,-35.0275,8.3866,-23.1869,-21.214,-96.2946,38.9737,-103.2015,-8.3866,-9.374,
26.9339,10.8536,72.0278,19.7335,12.8265,-42.4272,6.9069,-20.7199,-28.6133,-81.2946,29.6006,-88.2015,-15.7868,-6.9069,
28.6137,12.827,79.9217,34.7335,-1.9733,-37.4936,13.8144,-16.7727,-17.7601,-66.2946,42.4276,-73.2015,-13.8134,1.9733,
31.0808,27.827,80.4139,49.7335,-2.4666,-25.1603,4.4404,-25.1603,-6.4133,-51.2946,53.7735,-58.2015,-3.453,-9.3735,
34.0401,39.9606,77.4546,52.7871,12.5334,-22.2,-0.49369,-37.9872,-12.3338,-36.2946,48.8404,-72.521,0.49369,-24.3735,
42.4272,24.9606,73.0142,41.4407,20.7208,-33.5464,14.5063,-52.9872,-27.3338,-51.2946,33.8404,-87.521,-14.5063,-39.3735,
56.2406,31.574,76.9614,53.2813,13.8134,-21.7068,26.6409,-62.1606,-37.4936,-66.2946,27.6273,-102.521,-13.8134,-53.2803,
52.2944,46.574,78.9338,62.1606,28.8134,-11.8401,11.6409,-65.1209,-30.5871,-81.2946,42.4272,-117.521,1.1866,-47.3608,
56.241,57.2275,76.9609,64.1344,43.8134,-19.7335,-3.3591,-80.1209,-36.5071,-96.2946,57.2275,-132.521,16.1866,-42.4272,
48.3467,42.2275,61.9609,49.1344,28.8134,-34.7335,0,-95.1209,-51.5071,-111.2946,44.4,-147.521,1.1866,-57.4272,
36.0139,27.2275,46.9609,38.9742,13.8134,-49.7335,8.3871,-110.1209,-51.8002,-126.2946,46.8675,-162.521,2.4675,-72.4272,
31.574,12.2275,54.2677,45.3869,23.6806,-63.147,-5.92,-121.3614,-41.4402,-130.2412,58.2144,-177.521,5.92,-74.0007,
44.8937,17.2669,64.6272,56.7338,31.0808,-48.147,-5.4268,-119.8813,-40.947,-115.2412,73.2144,-187.9624,5.4268,-59.0007,
54.2677,24.667,63.1475,61.1746,16.0808,-33.147,-1.9733,-109.5209,-40.4533,-100.2412,85.8412,-172.9624,1.9733,-44.0007,
49.8278,21.2136,61.6679,56.7347,5.4268,-37.9868,-2.4666,-103.1076,-37.9868,-85.2412,80.4149,-157.9624,2.4666,-29.0007,
36.9999,8.3866,52.7876,60.681,13.3197,-47.854,-16.28,-108.0417,-39.9606,-70.2412,78.4406,-142.9624,7.4002,-14.0007,
32.0672,-2.4666,49.8278,65.6145,13.3202,-62.6538,-24.1729,-122.8411,-39.9601,-55.2412,85.348,-131.7214,8.3871,0.99932,
47.0672,-2.9598,64.8278,70.0545,-1.6798,-59.2008,-9.1729,-129.2553,-24.9601,-40.2412,96.6939,-130.2417,19.733,15.9993,
44.8937,1.4801,55.7474,64.6272,-11.3464,-49.8273,-1.4801,-127.7747,-36.0139,-55.2412,81.6939,-145.2417,16.2804,19.2407,
41.4402,6.9065,40.7474,49.6272,3.6536,-46.3743,-16.4801,-133.2015,-51.0139,-70.2412,66.6939,-160.2417,1.2804,7.8929,
56.4402,13.3197,54.7604,51.8002,18.6536,-39.9601,-30.0939,-132.7083,-66.0139,-85.2412,72.521,-175.2417,-12.3333,12.3333,
71.4402,15.7872,63.1475,65.1213,33.6536,-42.4267,-21.7068,-132.2146,-77.9474,-100.2412,85.8412,-190.2417,-4.9336,4.9336,
57.227,18.7465,56.2406,60.1873,31.574,-51.3074,-35.5207,-130.2417,-81.8945,-115.2412,93.7346,-205.2417,9.8667,-9.8667,
70.5472,19.2402,69.5608,66.6005,29.1074,-54.7604,-23.1869,-121.8546,-68.5739,-130.2412,103.1081,-220.2417,24.8667,-19.2402,
78.4411,6.4133,84.5608,76.4672,30.0934,-59.694,-8.1869,-135.6681,-65.6141,-145.2412,88.1081,-235.2417,21.2136,-20.2271,
74.9871,2.9603,88.801,75.9736,37.4931,-67.0942,-15.7868,-147.0154,-75.9745,-160.2412,78.9338,-241.7364,6.9069,-5.2271,
74.4944,1.4801,80.4149,64.6281,27.1341,-75.4808,-30.7868,-147.5081,-84.3606,-145.2412,82.3877,-227.4293,-1.4801,3.4539,
72.521,-0.49322,81.4008,66.6015,19.2402,-71.5341,-15.7868,-136.655,-73.5075,-130.2412,88.3078,-212.4293,0.49322,12.3333,
67.0942,-6.9065,79.9207,77.9478,23.6806,-77.9474,-5.92,-133.2015,-68.0806,-115.2412,93.7346,-197.4293,5.92,27.3333,
69.5612,-5.4268,77.4546,85.348,23.1874,-83.3742,-20.92,-132.7078,-71.5336,-100.2412,105.0815,-182.4293,5.4268,42.3333,
65.1209,0.98644,71.0404,71.0404,8.1874,-74.9876,-35.92,-133.2015,-84.8543,-85.2412,103.6013,-167.4293,-0.98644,42.4272,
52.2944,-2.9603,56.0404,61.1742,5.9205,-74.9871,-50.92,-140.108,-99.8543,-94.721,92.7477,-182.4293,2.9603,35.5202,
62.1611,-10.8532,53.2803,68.0806,20.9205,-84.8543,-53.2803,-136.1618,-114.8543,-106.5611,92.7482,-197.3359,10.8532,31.574,
77.1611,-4.4404,68.2803,67.5874,35.9205,-87.3213,-38.2803,-133.6952,-114.9482,-121.5611,90.2811,-209.6692,4.4404,29.107,
88.3078,-1.4797,67.5879,52.5874,39.9601,-94.2273,-31.0803,-148.6952,-129.9482,-136.5611,82.3873,-224.6692,1.4797,24.1734,
74.0007,-7.8934,52.5879,43.4136,28.6142,-102.6144,-46.0803,-163.6952,-144.0551,-151.5611,84.8543,-239.6692,7.8934,10.8536,
89.0007,-4.9331,58.2139,58.4136,43.6142,-101.628,-35.5202,-158.8555,-131.2282,-166.5611,97.6808,-254.6692,12.8265,4.9331,
104.0007,-5.4268,73.2139,70.5467,58.6142,-114.9482,-20.5202,-150.4689,-127.7752,-181.5611,100.1474,-269.6692,13.3202,5.4268,
101.628,1.9733,88.2139,78.9343,43.6142,-125.3086,-29.6002,-154.9088,-128.2684,-196.5611,95.7075,-281.2038,13.8134,-1.9733,
104.0945,16.9733,91.268,93.9343,34.0406,-117.908,-44.6002,-145.5348,-115.9346,-191.9091,90.2816,-274.7901,7.4002,-7.4002,
115.9351,29.107,98.1745,95.2143,49.0406,-116.9215,-59.6002,-138.6283,-111.9879,-176.9091,90.2811,-259.7901,-0.49369,0.49369,
121.8546,27.1341,99.1609,87.3209,50.8142,-131.9215,-48.8404,-147.5081,-121.8546,-161.9091,102.1212,-244.7901,-6.4133,6.4133,
125.8018,22.2005,106.0684,86.334,62.6538,-145.5353,-37.0008,-158.3618,-124.8149,-146.9091,114.9482,-229.7901,-4.4399,4.4399,
116.4278,11.8401,111.4947,83.8679,49.3341,-147.0154,-42.4272,-163.7886,-122.3483,-131.9091,112.4811,-228.9094,-0.98644,0.98644,
101.4278,5.9196,101.6275,80.9076,34.3341,-148.9887,-56.241,-165.7624,-133.202,-116.9091,108.5345,-232.8566,-3.9467,3.9467,
102.6144,7.8939,93.7346,79.9207,37.4936,-145.0416,-65.1204,-174.6417,-148.202,-131.9091,98.6677,-247.8566,-6.9065,6.9065,
117.6144,12.3328,108.7346,92.254,52.4936,-146.5222,-50.1204,-172.1757,-151.4553,-146.9091,85.3471,-262.8566,-5.4268,5.4268,
129.748,15.2931,123.7346,98.1745,56.7338,-147.5086,-35.1204,-164.2823,-142.575,-161.9091,92.254,-277.8566,0.49369,-0.49369,
114.748,10.8532,108.7346,88.8015,43.4141,-138.1351,-50.1204,-169.7086,-144.0551,-176.9091,106.5611,-292.8566,15.4937,-10.8532,
118.4012,15.7872,105.5747,94.721,58.4141,-137.1482,-65.1204,-162.8021,-140.1084,-191.9091,107.5475,-307.8566,28.6137,-15.7872,
133.4012,19.2402,120.5747,109.0277,73.4141,-150.4689,-50.1204,-149.4824,-128.7621,-206.9091,105.081,-322.8566,36.9999,-19.2402,
141.0944,10.8536,130.2417,108.5345,65.1209,-155.8957,-35.1204,-155.8957,-132.2151,-221.9091,104.5878,-329.551,37.4931,-24.6675,
143.5619,10.3599,132.7083,107.0543,65.6136,-148.4955,-32.0672,-152.4422,-126.7882,-206.9091,111.001,-314.551,43.9073,-10.3599,
128.7621,-0.49322,119.8813,104.0945,62.6538,-159.3487,-47.0672,-149.4815,-128.7616,-191.9091,111.0015,-299.551,36.0134,0.49322,
124.8144,-7.4002,118.8949,109.0277,70.5472,-159.3487,-49.8273,-148.495,-135.6685,-176.9091,120.8677,-284.551,39.9601,7.4002,
134.6821,-9.3735,132.7083,104.095,75.4808,-154.4151,-36.0139,-153.4282,-136.655,-161.9091,125.8013,-269.551,44.8937,9.3735,
126.295,-9.8672,118.4016,99.6546,60.4808,-154.9083,-30.5871,-158.855,-139.1215,-146.9091,117.4152,-262.4563,33.5473,9.8672,
111.295,-15.2935,103.4016,101.1343,45.4808,-149.4815,-45.5871,-165.2682,-148.495,-131.9091,120.8687,-253.0828,38.9737,15.2935,
103.1081,-15.2935,102.1217,104.0945,60.4808,-149.4815,-60.5871,-159.3487,-138.6283,-123.828,135.8687,-247.1628,53.9737,15.2935,
118.1081,-3.9467,117.1217,110.5083,75.4808,-154.9083,-45.5871,-144.3487,-141.0949,-137.1482,128.2679,-262.1628,61.1742,3.9467,
133.1081,1.4797,120.8677,105.081,66.6005,-149.482,-40.9475,-143.5619,-156.0949,-152.1482,113.2679,-277.1628,46.1742,-1.4797,
146.5222,2.4666,129.748,98.1745,65.6145,-150.4684,-53.7735,-147.5081,-162.3085,-167.1482,107.0553,-292.1628,54.7609,-2.4666,
158.3618,8.3866,144.748,109.0277,80.6145,-161.322,-39.9601,-137.6419,-147.3085,-182.1482,118.8949,-307.1628,66.6005,-8.3866,
164.2818,12.3338,153.4291,121.8547,79.4275,-166.2552,-24.9601,-129.748,-154.4151,-197.1482,126.7887,-322.1504,52.7871,-12.3338,
160.8283,12.827,154.9088,125.3081,65.1204,-169.7091,-34.5342,-138.1351,-157.8686,-212.1482,126.2946,-333.4977,51.3074,-12.827,
154.9083,15.7868,149.9752,121.361,80.1204,-177.6025,-30.5871,-143.0687,-147.0154,-197.3359,117.4143,-335.471,62.1606,-15.7868,
150.9621,9.8667,140.1084,116.4283,95.1204,-186.4818,-15.5871,-132.2146,-157.8681,-182.3359,107.5485,-320.471,50.321,-16.7737,
146.028,5.92,136.1618,117.4147,80.1204,-178.5889,-28.6137,-126.295,-166.7488,-167.3359,117.4147,-305.471,49.3336,-5.92,
133.6952,0.49322,121.1618,105.0819,65.1204,-181.0555,-43.6137,-141.295,-163.2949,-152.3359,121.8551,-290.471,62.6548,-0.49322,
140.108,-3.9467,115.4414,103.6013,72.0269,-193.3892,-58.6137,-151.949,-165.7624,-137.3359,122.3483,-275.471,56.2401,3.9467,
155.108,-7.4002,130.4414,111.0015,86.334,-197.8291,-46.8671,-136.949,-170.2023,-122.3359,120.8677,-260.471,44.8942,7.4002,
164.2818,-6.4133,141.5881,110.0146,78.4411,-188.9489,-51.8007,-126.7882,-176.1219,-115.9346,117.908,-245.471,50.8142,6.4133,
162.308,-1.4801,142.5745,101.1348,75.4808,-184.0157,-60.6814,-137.6419,-191.1219,-130.9346,104.0941,-260.471,42.9199,1.4801,
172.6689,6.9069,148.0023,95.7079,84.8543,-179.5753,-49.3341,-138.1351,-206.1219,-145.9346,89.0941,-275.471,27.9199,-6.9069,
180.069,18.2538,154.4151,107.0548,99.8543,-164.5753,-45.8806,-123.1351,-191.1219,-160.9346,92.2545,-290.471,39.9601,-18.2538,
176.616,20.7204,156.8816,115.4419,113.4681,-167.7353,-30.8806,-115.4414,-176.1219,-175.9346,107.2545,-298.9634,54.9601,-20.7204,
170.2018,15.2935,155.4015,116.9211,98.4681,-182.7353,-15.8806,-120.8682,-161.1219,-185.9891,122.2545,-284.6568,63.6412,-18.2538,
161.3216,9.3735,151.4544,115.9341,83.4681,-169.2159,-30.8806,-118.8953,-167.2425,-181.0559,132.7083,-269.6568,56.7338,-9.3735,
155.8957,0,145.042,112.4821,84.8543,-155.8947,-45.8806,-118.4012,-158.855,-166.0559,123.3348,-258.5092,63.148,0,
159.8419,-5.92,147.0154,127.2819,98.6677,-170.8947,-36.5071,-119.3876,-146.028,-151.0559,129.2548,-255.5494,70.0545,5.92,
158.3622,-5.4268,154.4146,139.6152,91.2676,-174.149,-21.5071,-108.0412,-147.5086,-139.6152,120.8682,-253.0833,66.601,5.4268,
148.4946,-4.4399,152.4413,134.6816,84.3611,-159.149,-28.1201,-99.1614,-149.482,-154.6152,111.0015,-256.0431,62.6538,4.4399,
152.935,-6.9065,146.0289,134.1879,99.3611,-148.0018,-39.4674,-107.548,-151.9485,-156.8816,112.4816,-250.6162,67.0942,6.9065,
167.7348,-7.8934,154.9083,132.2146,114.3611,-163.0018,-24.4674,-115.4414,-156.8821,-156.8821,112.4811,-235.6162,72.0278,7.8934,
177.1083,-2.4666,169.9083,125.8013,104.0941,-164.2823,-11.3473,-111.0015,-158.3622,-169.2154,108.0408,-235.3232,70.5477,2.4666,
182.5361,3.9467,171.6824,126.295,91.7613,-155.8952,-7.8934,-113.4681,-157.8686,-181.5487,103.6013,-249.6293,68.0811,-3.9467,
173.1621,7.4002,157.3753,124.8144,98.175,-148.495,-18.2538,-117.908,-161.322,-191.9091,99.1614,-262.95,68.5743,-7.4002,
165.2687,11.3469,149.4819,122.8416,106.0684,-139.6148,-33.2538,-110.0146,-170.2018,-205.7221,95.2147,-269.8565,72.521,-11.3469,
178.0957,16.2804,154.4155,124.8149,105.0815,-136.655,-37.9868,-108.0412,-171.1887,-213.6159,97.1881,-274.7901,73.5079,-16.2804,
182.5356,17.7601,161.8157,128.2684,97.6813,-148.0018,-22.9868,-110.5078,-167.7353,-211.1489,90.7743,-280.2164,58.5079,-17.7601,
167.5356,12.3338,158.3622,122.8411,99.1609,-159.3487,-26.1467,-106.0679,-178.0952,-203.7492,78.4411,-279.7232,46.8675,-12.3338,
152.935,2.9598,148.0018,117.4147,114.1609,-149.9752,-33.5469,-101.628,-178.5889,-188.7492,79.9207,-266.403,49.3336,-2.9598,
167.935,0,150.9616,124.3212,110.5073,-142.0823,-18.5469,-95.7079,-163.5889,-173.7492,83.8669,-251.403,54.2672,0,
173.6558,4.9336,154.9088,127.2819,107.5475,-144.0551,-4.9336,-88.801,-148.5889,-158.7492,83.8674,-245.6831,69.0671,-5.92,
158.8555,9.8667,145.0425,125.3081,117.4147,-143.0682,-9.8667,-93.7341,-155.8947,-162.8017,75.975,-256.5363,67.0942,-20.92,
173.8555,17.2669,145.5348,126.7878,111.001,-128.0682,-17.2669,-95.2143,-162.3089,-164.2823,68.5739,-256.0431,52.0942,-35.92,
188.8555,24.1738,156.3884,122.8411,120.8682,-116.9215,-24.1738,-88.3083,-158.3622,-149.482,62.6543,-244.203,55.7474,-50.92,
195.8558,28.1201,155.4015,118.8949,135.8682,-123.8285,-28.1201,-95.2147,-170.2023,-157.3753,49.8273,-249.1366,53.774,-65.92,
199.3088,36.5071,155.8952,118.4012,150.8682,-117.4147,-36.5071,-100.6415,-175.6287,-172.3753,43.4141,-256.5363,38.774,-80.92,
214.3088,48.8409,159.3491,121.8551,135.8682,-102.4147,-41.9339,-102.1207,-172.1752,-178.0952,41.9339,-252.0959,42.9213,-95.92,
208.6828,45.8802,156.3884,118.8944,144.5484,-96.2016,-32.0672,-117.1207,-184.0157,-191.9091,32.0672,-264.9233,49.8268,-110.92,
198.8156,30.8802,147.5086,106.0679,155.402,-102.1212,-22.2,-132.1207,-196.8427,-206.9091,22.2,-279.9233,35.0265,-125.92,
202.7627,27.1336,144.5488,118.8949,154.416,-94.2273,-27.1336,-147.1207,-185.9886,-194.8684,28.121,-274.7896,44.8942,-140.92,
188.9493,17.2669,133.6947,117.908,149.4815,-97.1881,-17.2669,-158.3618,-175.1354,-191.9086,26.1467,-266.8962,54.7609,-141.5881,
174.149,2.2669,130.7345,103.1076,139.6152,-100.1483,-2.2669,-173.3618,-178.0957,-190.9222,31.0798,-264.9233,49.8268,-146.5217,
189.149,17.2669,136.1618,118.1076,154.6152,-85.1483,-17.2669,-158.3618,-165.7619,-175.9222,46.0798,-249.9233,64.8268,-131.5217,
193.8829,27.1336,125.8018,133.1076,169.6152,-70.1483,-27.1336,-143.3618,-151.4548,-160.9222,61.0798,-234.9233,66.6015,-116.5217,
178.8829,12.1336,111.002,118.1076,163.2954,-73.507,-12.1336,-150.4684,-163.2954,-145.9222,46.0798,-228.4158,51.6015,-118.8944,
163.8829,8.3866,111.9879,109.0286,148.2954,-81.4008,-8.3866,-154.4151,-170.2018,-148.495,42.9204,-229.4027,36.6015,-121.8542,
177.602,23.3866,124.3212,124.0286,144.0547,-66.4008,-23.3866,-139.4151,-155.2018,-133.495,57.9204,-214.4027,51.6015,-106.8542,
166.7488,20.7204,119.3876,129.2548,159.0547,-74.0011,-20.7204,-135.1748,-146.0285,-118.495,67.0942,-199.4027,64.134,-91.8542,
151.7488,5.7204,112.4816,114.2548,144.0547,-89.0011,-5.7204,-150.1748,-158.855,-132.2151,58.2144,-192.4023,50.321,-90.7743,
136.7488,3.9467,118.4016,129.2548,132.2155,-92.7477,-3.9467,-138.1346,-143.855,-117.2151,71.0414,-177.4023,65.321,-75.7743,
132.2146,10.8536,124.3212,144.2548,147.2155,-77.7477,-10.8536,-123.1346,-128.855,-102.2151,83.8679,-162.4023,80.321,-60.7743,
117.2146,5.4263,119.8813,145.5353,147.5081,-62.7477,-5.4263,-108.1346,-113.855,-87.2151,73.5075,-147.4023,95.2147,-45.7743,
102.2146,-6.9065,107.5475,135.1753,132.5081,-74.0011,6.9065,-93.1346,-115.4414,-102.2151,58.5075,-135.1748,80.2147,-30.7743,
100.1474,-2.4666,106.0679,127.7742,117.5081,-89.0011,2.4666,-108.1346,-128.7621,-111.0015,47.854,-132.7088,65.2147,-15.7743,
113.4676,11.8401,108.5345,128.2679,124.3212,-79.9212,-12.5334,-101.628,-135.1753,-96.0015,46.3738,-128.2684,50.2147,-11.8401,
123.3343,12.827,103.6009,131.2286,139.3212,-64.9212,-27.5334,-86.628,-137.1482,-84.8548,40.4538,-125.3081,47.3608,-12.827,
128.2684,10.8532,109.5214,138.1346,141.0949,-73.0138,-12.5334,-74.0011,-130.2417,-77.9478,45.3869,-114.4545,54.2677,-11.8396,
113.2684,4.4399,109.0277,139.6148,126.0949,-88.0138,-4.4399,-89.0011,-139.6152,-88.3078,43.9068,-119.8813,49.8273,-18.2538,
98.2684,9.8667,111.4952,144.0551,111.0949,-75.974,-16.7737,-104.0011,-134.1884,-76.9605,48.3472,-115.4414,49.3336,-9.8667,
85.8407,2.9603,111.4947,141.0954,116.4278,-79.9212,-22.6937,-100.6411,-124.3212,-69.0675,47.3603,-100.4414,48.3477,-2.9603,
82.3873,-12.0397,113.9617,140.6012,113.9617,-87.3213,-18.2538,-100.1479,-121.8546,-73.5075,50.8138,-86.3344,51.8002,12.0397,
71.0414,-27.0397,99.6546,136.1622,98.9617,-88.801,-25.654,-107.548,-131.2282,-75.9745,43.4136,-84.8543,40.4543,25.654,
63.6407,-42.0397,84.6546,121.1622,83.9617,-92.254,-25.1603,-105.0805,-137.6414,-72.5206,28.4136,-82.3877,25.4543,35.0275,
63.148,-57.0397,70.054,106.5616,68.9617,-93.7341,-30.5871,-101.628,-124.3212,-67.0937,30.5871,-72.0278,39.4669,45.3874,
67.0937,-47.3612,85.054,121.5616,83.9617,-95.7079,-35.5202,-98.6682,-109.3212,-62.1606,35.5202,-75.9745,54.4669,40.4533,
69.0675,-43.4145,97.6808,136.5616,98.9617,-100.6415,-20.5202,-90.7748,-105.5747,-63.148,20.5202,-90.9745,54.2672,25.4533,
64.6276,-58.4145,90.2807,121.8551,98.174,-102.1212,-5.5202,-88.3078,-109.0281,-60.681,11.3469,-100.1479,56.7343,10.4533,
73.0147,-73.4145,90.7753,124.3217,94.722,-91.7608,9.4798,-82.8805,-95.7075,-51.3065,25.6544,-87.8141,61.1746,-4.5467,
88.0147,-77.4541,103.1081,136.6554,109.722,-78.4406,4.4399,-67.8805,-88.3073,-53.774,33.0541,-75.4808,55.7478,-4.4399,
81.895,-72.0269,94.7215,122.3483,109.5218,-71.0404,3.9467,-57.2275,-103.3073,-68.0802,31.5735,-63.147,56.241,-3.9467,
67.5879,-57.0269,85.3475,119.8813,94.5218,-65.6141,0.49322,-65.6141,-111.001,-71.5336,33.0541,-56.7343,56.7343,-0.49322,
80.9076,-43.4145,91.7613,131.2282,79.5218,-55.2546,-10.8536,-59.2013,-98.6682,-64.1344,24.6666,-53.2808,43.4136,10.8536,
81.4008,-51.8011,95.2147,133.6952,94.5218,-48.8409,-10.3604,-44.2013,-95.2147,-51.8011,15.2935,-41.9339,40.9466,10.3604,
66.4008,-66.8011,86.334,119.8813,79.5218,-58.7071,3.4535,-45.8806,-101.1348,-51.8011,7.4002,-40.9475,42.9204,-3.4535,
58.2139,-64.1344,89.7874,119.3881,74.0007,-57.2275,3.9467,-43.4136,-86.8277,-49.3341,7.8934,-46.3738,40.4533,-3.9467,
73.2139,-49.1344,104.5878,134.3881,89.0007,-42.2275,-10.8536,-28.4136,-71.8277,-35.5202,22.8934,-32.5609,52.2934,10.8536,
72.0273,-41.4402,95.7075,131.2286,104.0007,-27.2275,-8.8803,-21.7068,-77.9478,-39.4674,28.6137,-23.6806,56.2406,8.8803,
57.0273,-41.4407,80.7075,118.4016,89.0007,-28.6133,0,-31.5735,-86.8277,-51.307,15.7868,-30.5871,47.3603,0,
61.6669,-28.1205,78.4411,133.4016,94.2278,-18.2533,-5.4268,-16.5735,-72.521,-41.9344,21.2136,-28.1205,51.8007,5.4268,
76.6669,-29.6011,81.8936,130.2412,87.8141,-21.7077,-1.9733,-15.7872,-68.0811,-37.4945,12.826,-26.6409,50.3201,1.9733,
63.148,-38.4805,81.8941,122.3483,82.8814,-31.5735,10.8536,-18.747,-66.1073,-35.5202,0,-27.6268,49.3341,0,
52.7876,-41.9339,81.4008,125.8018,96.2012,-20.2267,-0.49322,-13.3197,-52.7866,-35.027,6.4137,-30.0939,55.7478,0.49322,
59.2004,-36.5076,81.8941,127.2815,92.7477,-16.7741,3.9467,-12.8274,-54.2672,-40.4543,3.9467,-33.5473,42.4272,-3.9467,
73.0138,-26.6409,89.787,123.3343,90.7743,-14.8008,18.9467,-2.9607,-58.2144,-32.5604,-1.9733,-26.6409,37.4936,1.9733,
61.1742,-40.4533,81.895,116.4288,79.9212,-13.8129,14.8003,-11.8401,-62.1606,-37.4931,-7.8934,-33.5464,42.4272,7.8934,
56.2406,-42.4272,78.9343,129.2548,81.8945,-1.9733,1.9733,-13.8134,-55.2541,-38.48,-10.8532,-26.6399,50.321,22.8934,
41.9344,-44.8937,67.5874,120.8682,74.4944,-15.2931,9.3735,-9.3735,-52.7871,-46.8671,-25.8532,-37.9868,37.0003,11.3473,
37.9868,-45.8806,64.6272,116.9215,74.4944,-24.1738,10.3599,1.4801,-54.7609,-56.7343,-36.0139,-52.9868,27.1331,-1.4801,
52.2939,-42.4267,73.0147,118.4012,68.0806,-13.8134,7.8938,-0.98691,-66.1073,-50.3201,-33.5469,-55.2541,23.6806,0.98691,
62.1606,-39.4669,70.054,123.3348,53.0806,-10.8536,21.7063,-6.9069,-59.2008,-35.3201,-35.5202,-40.2541,26.6404,6.9069,
47.1606,-45.8806,55.054,124.8149,68.0806,-8.3871,6.7063,-5.4268,-47.854,-21.2136,-32.0672,-37.9868,29.107,15.294,
35.5207,-47.3608,42.4276,115.4419,83.0806,-7.8929,-2.9598,2.9598,-54.2672,-24.667,-31.574,-34.5333,24.667,30.294,
20.5207,-62.3608,29.1074,100.4419,68.0806,-22.8929,8.3866,-7.4002,-69.2672,-39.667,-46.574,-41.9339,9.667,15.294,
27.1336,-65.6141,29.1074,102.1207,53.0806,-20.2267,12.3333,-4.4399,-54.2672,-48.8409,-38.9737,-28.1201,24.667,4.4399,
31.5731,-60.1877,36.5071,104.5873,68.0806,-5.2267,-2.6667,-0.98691,-43.4141,-51.3074,-30.5876,-19.7339,31.5731,2.9598,
16.5731,-55.2541,39.4669,99.6546,71.0414,-2.9603,-5.9196,3.9467,-58.2139,-63.1475,-45.5876,-33.5473,16.5731,2.9603,
10.3599,-59.694,32.0672,95.2143,61.6669,-8.3871,9.0804,0.49369,-52.7876,-69.5608,-60.5876,-43.9073,2.4666,-0.49369,
23.6797,-62.1611,37.4936,95.7075,46.6669,-7.8938,18.7465,1.9733,-45.3874,-60.1877,-56.241,-31.574,12.827,-1.9733,
21.7068,-52.2944,51.3074,103.6009,31.6669,-18.7475,4.9336,14.7999,-53.2808,-45.3869,-61.1742,-24.667,-0.98691,0.98691,
26.6399,-40.4538,57.227,108.534,45.3869,-6.9074,5.92,27.6264,-44.401,-40.4538,-63.1475,-21.7068,-5.92,6.9065,
26.6404,-50.3205,42.227,93.534,60.3869,3.9467,9.8672,15.7868,-50.3205,-55.4538,-77.9474,-27.6268,-3.9467,-3.9467,
15.2935,-51.8011,27.227,80.4144,56.7343,5.4263,0.49322,13.3197,-55.7478,-59.6945,-92.9474,-25.1607,-8.3866,-0.49322,
16.28,-36.8011,24.1743,86.3349,61.6674,18.2538,-14.5068,27.1336,-50.8138,-46.8671,-107.9474,-16.28,-17.2664,14.5068,
20.7208,-43.4136,12.8265,81.8941,72.0278,3.2538,0.49322,16.7741,-65.8138,-61.8671,-122.9474,-31.28,-32.2664,-0.49322,
31.0803,-36.0134,27.1336,94.2273,66.6005,-3.4535,15.4932,20.2267,-50.8138,-46.8671,-124.8149,-22.2005,-20.2267,3.4535,
16.0803,-40.947,21.2136,89.2947,51.6005,-4.4404,7.3997,6.4133,-38.9742,-31.8671,-121.8546,-24.1738,-23.1874,4.4404,
20.2271,-37.0003,25.1603,89.2947,66.6005,6.4133,-6.4133,16.2804,-38.9742,-16.8671,-114.9482,-20.2271,-27.1341,7.3997,
7.3997,-44.8942,23.1865,82.3877,61.6669,-3.453,8.5867,24.1738,-52.7876,-29.107,-129.7485,-28.1205,-27.1341,3.453,
-0.49322,-52.7876,26.1472,82.3873,46.6669,0.49322,23.5867,32.0667,-43.9073,-14.107,-129.7485,-30.0939,-16.28,10.3604,
4.4399,-62.6543,24.1734,72.521,49.8273,-1.4797,8.5867,33.0532,-37.9872,-18.2538,-124.8149,-36.0134,-24.1734,2.467,
19.4399,-47.6543,33.0541,76.4677,57.7207,-0.49322,8.3866,37.9872,-37.9872,-28.1201,-124.8149,-33.0541,-28.1201,0.49322,
15.7863,-43.4141,18.0541,66.1068,42.7207,1.9733,5.92,24.667,-44.4005,-34.5342,-139.8149,-45.3879,-37.4945,-1.9733,
8.8798,-45.3874,3.0541,73.0142,33.5464,8.8798,0,29.5997,-29.4005,-19.5342,-128.2684,-44.401,-22.6937,0,
5.4268,-42.9204,4.4404,87.3209,48.5464,-2.4666,15,39.9606,-14.4005,-4.5342,-113.2684,-29.401,-7.6937,-7.3997,
0,-45.3874,10.8527,78.9338,52.2934,-13.8139,30,34.5338,0.5995,0,-98.2684,-14.8003,0,-12.8274,
10.3604,-46.8671,8.3866,75.4813,37.2934,-5.4263,37.0008,33.0541,-4.4399,6.4137,-85.3475,-7.4002,-8.3866,-2.467,
10.3599,-47.854,-2.4666,68.5739,22.2934,2.4666,22.0008,31.0808,-19.4399,15.294,-100.3475,-10.3599,-18.2533,4.4404,
0,-42.4272,0,61.1742,37.2934,0.98738,7.0008,33.5473,-24.6666,8.8808,-115.3475,-16.7732,-27.6268,0,
0.98644,-40.4538,12.8274,76.1742,23.6801,3.9467,22.0008,48.5473,-10.8536,-0.98644,-130.3475,-17.7596,-33.5469,-1.9729,
3.9467,-48.3477,14.7994,78.9338,8.8798,14.7994,23.6801,57.2275,-16.7741,-8.8808,-143.0687,-15.7868,-33.5473,-3.9467,
6.4133,-43.9073,22.2,69.5603,23.8798,18.2533,21.2136,49.8268,-25.1607,-12.3338,-146.5222,-13.3202,-29.1074,-6.4133,
2.4666,-45.8806,22.2,61.6679,21.2136,9.3735,36.2136,38.9742,-22.2,-19.2398,-153.4286,-28.1205,-35.027,-2.4666,
-6.9065,-49.3341,7.8938,61.1737,6.9065,8.8803,27.6273,44.4005,-16.7737,-29.6002,-167.7353,-43.1205,-44.4005,6.9065,
-3.453,-34.3341,4.4404,62.6543,21.9065,23.8803,12.6273,49.8278,-19.2398,-33.0536,-179.0821,-40.947,-40.947,3.453,
3.9467,-26.6404,3.9467,54.2672,6.9065,29.6006,24.6666,35.5202,-19.7335,-23.6801,-176.6156,-29.6006,-40.4538,-3.9467,
6.9065,-18.7465,1.9733,69.2672,-6.9065,33.5469,39.6666,49.3336,-4.9336,-8.6801,-161.6156,-14.6006,-31.574,11.0533,
-2.4666,-5.4268,-6.4133,84.2672,8.0935,46.8675,39.9606,64.3336,2.4666,-4.4394,-146.6156,-16.2795,-19.2402,16.2805,
0,-2.9593,-2.9593,71.0414,23.0935,51.3079,29.6006,58.2139,0,-16.7732,-139.1215,-28.6133,-25.6535,1.9738,
3.4535,-17.2674,-0.49322,61.6674,27.1336,36.3079,42.9204,43.2139,-2.467,-21.214,-148.4955,-31.0808,-40.6535,0.49322,
-1.9733,-26.6404,-2.9598,64.134,12.1336,21.3079,46.3743,47.3608,4.9336,-12.827,-151.9485,-21.7068,-55.6535,6.9065,
-12.3338,-28.1205,1.4801,50.8142,0.49369,16.2804,31.3743,41.9335,3.453,-16.2804,-155.402,-28.1205,-70.6535,-0.49369,
-12.826,-18.7465,1.9733,49.3346,3.9472,22.6942,33.5478,32.5604,-1.9733,-23.6801,-152.935,-37.4936,-85.6535,1.9733,
-12.8265,-12.8265,-3.9467,59.2004,15.7868,30.5871,40.4543,47.5604,3.9467,-12.8265,-153.9219,-27.6268,-90.7743,4.9331,
-19.2398,-13.3202,-1.4801,60.6805,6.4133,45.5871,26.1467,62.5604,6.4133,1.4801,-161.322,-12.6268,-97.1876,-10.0669,
-23.6806,-11.8405,-0.98691,54.2677,-1.9733,60.5871,41.1467,59.2008,0.98691,2.9598,-164.7755,2.3732,-97.6813,-25.0669,
-22.2005,-2.467,-14.3071,52.7876,13.0267,71.5346,56.1467,56.7343,11.3469,-0.49322,-153.4286,0.49322,-86.3344,-32.0672,
-34.5338,-1.9733,-29.3071,45.3869,13.8134,71.0409,41.1467,59.2008,15.7872,1.9733,-154.9083,-2.9598,-87.8141,-35.5202,
-44.4005,-5.92,-44.3071,41.4412,-1.1866,68.0806,26.1467,53.2813,5.92,11.8405,-167.7353,6.9074,-95.7075,-42.4272,
-43.4141,0,-33.5473,51.307,-5.9205,57.2275,39.4669,39.4669,0,17.7596,-170.6955,10.8536,-94.7215,-39.4674,
-58.2139,-0.98644,-34.5338,48.3477,1.9729,61.1742,33.5473,24.6666,0.98644,9.8672,-172.6689,-4.1464,-96.6944,-40.4538,
-65.1209,2.9598,-36.5071,54.2668,-4.9336,76.1742,36.5071,25.6535,15.9864,11.8396,-167.7353,-2.9598,-88.801,-39.4674,
-75.4808,-5.4268,-47.854,55.7474,-19.9336,78.4411,42.9208,20.2271,28.1205,13.3202,-162.3085,5.4268,-82.3877,-48.8404,
-74.4946,-18.2536,-42.9206,53.7738,-34.9336,76.4675,49.8271,18.2536,43.1205,28.3202,-147.3085,20.2264,-67.3877,-37.9875,
-59.4946,-20.2271,-28.1205,65.6136,-20.2271,90.2811,64.8271,20.2271,58.1205,43.3202,-132.3085,32.0672,-54.7609,-24.1738,
-64.1344,-20.7204,-43.1205,61.1742,-10.8536,82.8805,76.9609,10.8536,52.2934,44.4,-147.3085,25.653,-66.1078,-27.6273,
-79.1344,-21.2133,-58.1205,50.8145,-6.4135,84.3609,61.9609,6.4135,44.894,50.8145,-152.442,37.987,-61.6672,-18.2536,
-80.4146,-32.067,-73.1205,47.8537,-21.4135,89.2945,46.9609,15.2938,46.8673,60.6802,-145.535,52.987,-61.6676,-15.2938,
-70.0542,-35.5204,-75.9747,43.4138,-36.4135,89.7877,61.9609,15.787,51.3072,57.2268,-138.1353,58.2142,-69.0678,-15.787,
-73.0138,-23.6801,-87.8141,48.3477,-21.4135,95.7079,60.1877,3.9467,49.3341,58.2139,-134.1879,45.3874,-68.0806,-3.9467,
-81.4011,-21.2133,-98.1743,50.814,-6.4135,87.3216,45.1877,-1.4799,42.9206,58.7074,-143.5617,40.9477,-70.5474,-3.4532,
-82.3877,-27.1336,-84.3611,46.8671,-10.3604,78.4406,52.7876,7.4002,50.8138,55.7469,-148.495,42.9204,-73.5079,-7.4002,
-89.7877,-38.4807,-84.8545,43.4134,-25.3604,80.9074,67.7876,4.9334,51.3077,46.3736,-155.8954,30.5868,-82.8812,-4.9334,
-100.1479,-48.8404,-99.8545,37.9868,-40.3604,78.4411,52.7876,-2.4666,37.9868,45.8811,-170.8954,31.0808,-88.3078,2.4666,
-112.4811,-53.2808,-112.4811,31.5735,-55.3604,66.1073,37.7876,0,26.6404,38.4805,-185.8954,27.6268,-90.7743,0,
-115.4414,-54.2672,-111.4947,30.5866,-40.3604,68.0806,31.574,4.9336,33.5469,23.4805,-200.2957,20.7204,-86.8277,-4.9336,
-113.9613,-55.7474,-112.9748,27.1331,-29.107,83.0806,37.0003,9.3735,31.0798,22.2,-193.8825,29.107,-89.2947,-9.3735,
-115.4419,-47.3608,-120.375,23.6797,-44.107,85.8403,32.5604,13.8134,22.6932,33.5469,-186.4828,41.4402,-100.6415,-13.8134,
-124.8149,-39.9606,-131.7214,23.1869,-59.107,70.8403,30.0939,15.2935,33.0541,32.0667,-191.9091,35.027,-97.1881,-15.2935,
-139.8149,-45.8804,-143.5617,23.1872,-50.814,80.4146,20.2269,20.2269,29.1067,32.067,-192.8958,27.1338,-85.3478,-20.2269,
-148.0018,-47.3608,-134.1884,16.7737,-35.814,95.4146,21.7068,25.6535,14.7999,41.4402,-185.4959,42.1338,-89.7879,-14.7999,
-134.6816,-41.9339,-120.8682,10.3599,-50.814,86.3344,35.0265,26.1467,19.2398,35.0265,-196.8427,54.7609,-104.7879,-10.3599,
-149.6816,-38.9737,-135.8682,12.3333,-65.814,78.4406,20.0265,26.1472,16.28,20.0265,-211.8427,39.7609,-119.7879,-12.3333,
-164.6816,-43.4141,-150.8682,3.9472,-58.2139,86.8277,5.0265,28.6137,9.8667,18.7465,-210.1624,24.7609,-120.375,-3.9472,
-160.8288,-58.2144,-142.0818,-2.9598,-73.2139,71.8277,20.0265,27.6273,24.8667,33.7465,-208.1896,38.48,-118.4016,2.9598,
-164.7753,-67.094,-141.0951,2.96,-88.2139,56.8277,32.5602,24.6668,39.8667,43.4138,-223.1896,35.5204,-119.3883,-2.96,
-179.7753,-62.1606,-148.9887,7.8934,-73.2139,54.2672,17.7606,26.6404,35.5202,33.5473,-230.8828,20.5204,-128.2684,-7.8934,
-185.9886,-58.7071,-147.5081,8.3866,-88.2139,55.7478,25.1607,34.0406,39.9611,31.0803,-217.5626,19.2402,-130.7349,-8.3866,
-180.0686,-63.6407,-148.495,2.4666,-103.2139,64.6272,23.1874,41.9344,52.7871,38.9742,-213.6159,34.2402,-122.8416,-2.4666,
-176.6153,-69.0673,-154.9085,-0.98667,-112.4809,63.1477,10.8534,47.361,49.3339,43.4143,-206.2155,47.361,-122.3481,0.98667,
-170.2023,-70.5477,-150.4689,-3.4535,-97.4809,48.8399,13.3197,37.9872,36.9999,53.774,-201.7758,61.6674,-131.7218,3.4535,
-155.2023,-68.0809,-135.4689,-7.8936,-82.4809,56.2403,23.6804,41.44,42.4274,68.0804,-202.2693,76.6674,-126.2953,7.8936,
-149.9752,-60.1873,-122.3483,0,-97.4809,65.1209,20.7199,56.241,52.2943,63.147,-200.2957,71.0404,-114.455,0,
-155.4022,-47.8542,-121.8549,8.3868,-92.2547,65.6143,31.0805,58.7074,51.8004,55.7471,-193.8827,62.6541,-108.0415,-8.3868,
-141.5886,-37.0008,-117.9084,7.4002,-77.2547,71.5336,46.0805,56.7343,54.7604,66.6005,-196.8427,66.6005,-101.1348,-7.4002,
-126.5886,-35.027,-107.0548,13.3202,-62.2547,76.4672,61.0805,67.5874,67.5874,76.4672,-188.9489,58.7076,-106.0679,-13.3202,
-112.4811,-33.5469,-105.5747,15.7868,-48.3472,81.8945,56.2406,71.0409,75.974,71.0409,-178.5889,52.2939,-121.0679,-15.7868,
-127.4811,-27.6268,-120.5747,5.92,-63.3472,85.8407,41.2406,65.1209,63.148,63.148,-188.4556,56.241,-136.0679,-5.92,
-136.1615,-39.4671,-135.5747,0.98667,-78.3472,81.8948,49.3339,69.0673,52.2941,54.267,-192.4026,56.2408,-149.9749,-0.98667,
-144.0547,-51.307,-148.0014,-3.9467,-79.9207,77.9483,48.3477,69.0675,50.3205,57.2275,-177.602,62.1606,-150.9616,3.9467,
-157.8686,-46.3738,-161.8152,-14.8003,-64.9207,83.8679,33.3477,59.2004,43.4136,72.0278,-165.7624,77.1606,-139.122,18.9467,
-156.3884,-50.8138,-164.2818,-18.2533,-57.7207,84.3616,18.3477,63.6407,49.8278,72.5215,-162.3085,85.348,-131.7214,27.1341,
-147.0154,-60.1877,-149.2818,-10.8536,-72.7207,75.9745,33.3477,72.0278,59.2004,65.1209,-160.8288,83.8679,-134.1884,12.1341,
-158.855,-49.3336,-142.0818,-16.7732,-78.9343,79.9212,41.4407,67.0947,51.307,79.9212,-159.8419,92.7477,-125.3081,16.7732,
-171.1887,-36.0139,-150.4684,-28.1205,-91.268,94.9212,32.0672,64.6272,49.8268,91.2676,-163.2954,89.2947,-116.9215,28.1205,
-156.1887,-38.9737,-141.5881,-18.2533,-82.3873,98.1745,45.8811,72.5215,59.694,78.4411,-163.2954,85.348,-118.8944,18.2533,
-141.1887,-47.3603,-127.2815,-19.7335,-67.3873,87.8146,48.3477,74.0016,69.0676,75.9745,-161.8148,98.6682,-125.3081,19.7335,
-142.5755,-56.7343,-135.6685,-28.1205,-71.5346,77.4537,40.947,69.5603,63.6407,78.4411,-174.149,94.2278,-140.3081,28.1205,
-148.0021,-51.3077,-146.0287,-21.707,-86.5346,73.014,46.3736,69.0673,56.2408,74.9878,-183.5223,79.2278,-142.082,21.707,
-133.0021,-36.3077,-137.6416,-13.3204,-71.5346,73.5072,54.7602,77.4539,64.6274,81.4006,-173.1623,70.547,-127.082,13.3204,
-119.3881,-31.5735,-128.2684,-13.8134,-56.5346,73.0147,50.321,80.9081,57.227,77.9478,-164.7755,74.9876,-121.3614,13.8134,
-130.7347,-34.0403,-131.7216,-21.2133,-71.5346,71.5348,45.8809,77.4544,50.814,67.5881,-162.3082,76.4679,-129.7483,21.2133,
-145.7347,-35.5202,-142.0813,-23.6801,-86.5346,73.0142,46.3738,72.0278,58.2139,71.0414,-167.7353,81.895,-126.2946,23.6801,
-140.6017,-41.9335,-137.6414,-22.2,-93.2409,73.5079,43.9073,77.4546,51.8007,72.5215,-179.0821,83.3742,-123.828,22.2,
-125.6017,-41.9337,-133.695,-26.1469,-98.1743,70.5479,37.0006,83.3744,47.8542,76.4675,-178.0955,85.3482,-122.8413,26.1469,
-127.7749,-33.0539,-139.6155,-29.1072,-83.1743,67.5877,38.9734,83.3744,55.7466,91.4675,-168.2287,99.1612,-122.8418,29.1072,
-138.1349,-31.5738,-139.1218,-29.6004,-68.1743,69.0673,50.3203,87.8143,50.3203,95.7077,-169.7084,97.6815,-122.3481,29.6004,
-134.6819,-33.0539,-129.7487,-31.0805,-81.4011,62.6541,57.72,83.3739,35.3203,80.7077,-182.0426,82.6815,-121.8549,31.0805,
-129.7483,-26.1469,-120.868,-27.1334,-96.4011,56.734,59.6943,79.4277,41.9337,69.5605,-184.0155,71.5343,-129.7483,26.1469,
-122.8418,-18.2536,-116.9213,-21.2138,-91.2678,71.734,53.7738,94.4277,56.9337,84.5605,-177.109,83.3744,-128.7618,18.2536,
-120.3745,-18.747,-131.9213,-29.6002,-78.9343,86.734,38.7738,109.4277,49.3341,90.7748,-178.5889,86.8281,-122.3479,18.747,
-125.3081,-27.6273,-145.0416,-44.6002,-93.9343,76.9605,27.6273,106.5611,35.5207,75.7748,-184.5089,98.6677,-126.295,30.5866,
-125.8016,-36.0137,-138.6281,-45.8804,-107.0546,61.9605,42.6273,100.1481,36.0137,82.3875,-191.9089,108.0415,-131.7216,37.0001,
-124.3214,-34.5335,-136.1615,-35.5204,-92.7475,57.2272,48.3474,115.1481,41.4405,86.8279,-189.4423,104.5885,-122.3481,34.5335,
-124.3217,-30.5871,-145.042,-37.494,-83.8679,72.2272,33.3474,127.2815,52.2934,73.0142,-177.6025,100.6411,-114.455,31.5735,
-122.3481,-31.5738,-148.0016,-41.4405,-97.6811,68.0813,32.5602,124.3214,56.2403,62.1608,-179.5756,90.7741,-116.4281,31.5738,
-117.908,-27.1336,-134.6816,-39.9601,-94.2278,56.7343,40.9475,131.7214,53.774,64.6276,-185.0022,81.4008,-115.9346,27.1336,
-119.8818,-20.2271,-128.7616,-38.9742,-98.1745,61.6669,43.9073,136.655,47.854,59.694,-181.0559,82.3877,-114.9482,20.2271,
-127.7747,-21.2136,-133.6947,-38.9737,-113.1745,73.5079,53.7745,133.6947,43.9073,58.7076,-176.1219,84.3616,-118.8949,21.2136,
-127.2815,-23.6801,-126.2946,-33.5469,-128.1745,73.0142,57.2275,135.1748,54.2672,73.7076,-163.7886,99.3616,-114.4545,23.6801,
-121.8544,-24.1736,-125.8011,-29.1067,-115.9344,59.6947,42.2275,123.8282,54.7607,88.7076,-152.4415,114.3616,-107.0546,24.1736,
-116.922,-21.2136,-136.6554,-36.0144,-100.9344,63.6407,27.2275,124.8149,46.8666,87.3209,-155.4025,121.8546,-103.1081,39.1736,
-131.922,-31.5735,-151.6554,-51.0144,-99.6546,58.2139,34.5338,120.3745,31.8666,72.3209,-170.4025,106.8546,-116.4278,35.5202,
-128.7616,-26.1472,-141.5881,-44.8937,-114.6546,56.7343,38.9737,120.8677,44.8942,78.4406,-172.1752,100.1479,-112.9748,26.1472,
-113.7616,-24.667,-138.1351,-41.4407,-129.6546,55.2541,24.667,129.2548,55.2541,92.7472,-164.7755,115.1479,-101.628,41.1472,
-120.3748,-27.6271,-144.0554,-50.3208,-114.6546,53.281,27.6271,138.1353,51.3072,93.7344,-162.8019,121.3612,-97.6811,51.3072,
-130.2417,-31.5735,-147.0149,-60.1873,-104.5878,58.2139,36.5066,128.2679,39.4669,78.7344,-170.6955,107.548,-107.548,36.3072,
-118.8949,-33.0536,-139.6148,-59.694,-119.5878,63.6407,36.0139,122.842,36.0139,66.601,-177.1088,111.9884,-110.0146,33.0536,
-118.8949,-36.0134,-138.6283,-60.681,-122.8416,49.8273,36.0134,124.8144,37.9872,62.6538,-182.0424,119.8813,-105.0815,36.0134,
-119.3878,-27.6271,-134.1882,-60.187,-119.3878,51.3072,51.0134,129.2546,52.9872,71.0407,-175.6284,113.4678,-95.7077,27.6271,
-123.828,-24.1738,-136.655,-57.7207,-127.7747,57.7212,50.8142,126.7878,48.8404,67.5874,-175.1354,109.0281,-98.1745,24.1738,
-133.6945,-26.1469,-136.6547,-49.8271,-125.8011,51.8009,35.8142,124.8151,49.8271,80.4142,-160.1354,124.0281,-84.3609,27.1343,
-118.6945,-22.6937,-121.6547,-40.4538,-110.8011,40.4543,46.3738,127.2815,64.8271,95.4142,-145.1354,119.3881,-69.3609,22.6937,
-103.6945,-22.6937,-121.3614,-44.4005,-95.8011,31.5735,59.2004,126.295,77.9474,85.8407,-130.1354,104.3881,-66.1073,22.6937,
-116.9213,-28.1203,-136.3614,-59.4005,-110.8011,39.9604,44.2004,115.9348,62.9474,70.8407,-145.1354,89.3881,-81.1073,28.1203,
-124.3212,-27.6268,-138.1346,-63.147,-125.8011,54.9604,33.5473,111.4947,47.9474,72.0278,-160.1354,88.801,-96.1073,27.6268,
-109.5214,-29.6006,-139.1215,-63.1475,-110.8011,56.241,36.5067,122.3483,36.5067,81.8941,-175.1354,92.7477,-95.7079,29.6006,
-104.5878,-28.6133,-135.1748,-66.1073,-95.8011,48.3477,28.6133,125.3086,50.3205,77.9474,-184.5089,94.7215,-80.7079,39.4669,
-114.4547,-34.5335,-127.2812,-64.1342,-107.5478,42.4269,43.6133,110.3086,45.3872,66.108,-180.562,92.7484,-80.9074,34.5335,
-108.5347,-32.5602,-117.4145,-55.2539,-119.3878,45.3876,58.6133,113.4678,42.4274,71.0407,-165.562,96.6946,-77.9476,32.5602,
-112.4811,-28.6137,-120.3745,-58.2139,-104.3878,37.4936,43.6133,114.4545,52.2939,82.881,-159.8419,93.7346,-69.0675,28.6137,
-109.5216,-28.614,-121.3617,-55.2544,-89.3878,39.4667,35.52,106.5613,61.1739,96.6941,-160.8286,102.6147,-61.1744,28.614,
-96.6946,-34.5335,-118.4014,-54.2675,-95.7077,54.4667,50.52,112.4818,56.2408,96.6941,-161.815,112.4818,-63.1473,34.5335,
-103.1079,-32.067,-123.8282,-61.6672,-101.1345,60.6812,51.8004,119.8815,45.8809,81.6941,-167.2418,100.1481,-74.4941,32.067,
-115.4414,-25.654,-134.1884,-69.0675,-92.7477,53.2808,36.8004,108.5345,43.4136,68.0811,-170.6955,91.7613,-82.881,25.654,
-105.0814,-24.1738,-135.6685,-64.6276,-107.7477,49.8268,32.0672,107.0543,41.9335,74.4944,-170.2023,94.2278,-78.4411,24.1738,
-97.1876,-25.1603,-137.6414,-64.6272,-117.908,47.854,35.0275,112.9748,38.9742,75.4808,-174.1485,94.2278,-73.5075,25.1603,
-112.1876,-23.6801,-142.0818,-75.9745,-102.908,39.4669,23.6801,104.5878,35.5202,61.1742,-187.4692,89.7874,-80.9081,25.653,
-116.4283,-17.7601,-136.1618,-69.0675,-91.7613,43.4141,26.6399,102.6144,38.48,47.3608,-197.3359,77.9469,-88.8015,17.7601,
-101.4283,-13.3202,-122.8411,-55.7469,-106.7613,53.7745,41.6399,111.9884,48.8404,59.694,-182.3359,83.3742,-80.4139,13.3202,
-91.7608,-14.8003,-130.2412,-61.1737,-121.7613,44.401,51.3079,104.5878,47.3603,74.694,-167.3359,98.3742,-77.9474,14.8003,
-100.6411,-9.8667,-130.2417,-61.1742,-108.5349,34.5333,36.3079,96.6949,51.3074,74.9876,-162.8021,104.5882,-80.9076,9.8667,
-86.8281,0.98644,-115.2417,-47.3608,-93.5349,48.3467,43.4136,110.5073,66.3074,77.9474,-150.9621,108.5345,-68.0811,-0.98644,
-71.8281,10.3602,-100.2417,-32.3608,-78.5349,63.3467,58.4136,121.8549,81.3074,91.2678,-135.9621,123.5345,-53.0811,-10.3602,
-56.8281,20.7201,-88.8008,-22.6935,-65.1206,73.0145,73.4136,122.3486,96.3074,106.2678,-120.9621,131.2284,-38.0811,-20.7201,
-58.2144,23.6806,-82.881,-26.6404,-56.241,74.9876,83.8674,117.4147,100.6415,121.2678,-110.5083,123.3343,-23.6806,-30.5871,
-68.0809,24.6668,-90.7741,-28.6135,-69.0673,74.9873,73.0145,110.5085,95.7082,114.4552,-105.5744,124.3214,-24.6668,-29.6004,
-74.0014,19.7337,-102.6147,-33.5476,-84.0673,78.934,58.0145,101.6277,85.841,102.6142,-108.5347,129.2546,-19.7337,-32.5607,
-77.9478,8.8803,-96.6944,-38.4805,-96.6944,81.8945,73.0145,90.7743,81.8945,104.5882,-113.4681,142.0813,-8.8803,-38.4805,
-81.4008,6.4133,-99.1609,-39.9601,-81.6944,83.3742,86.3344,81.4013,77.4546,111.001,-107.0543,150.4689,-6.4133,-30.0934,
-90.2814,9.3737,-114.1609,-38.9739,-66.6944,85.3473,71.3344,70.547,80.4142,106.0681,-96.2014,144.5486,-9.3737,-15.0934,
-93.2411,9.3737,-127.7749,-35.0272,-51.8009,86.3347,56.3344,64.6274,87.3211,104.0943,-95.2145,142.5748,-9.3737,-9.3737,
-94.2278,7.4002,-120.8682,-35.0275,-66.8009,95.2147,71.3344,69.5608,87.3213,113.9608,-97.1881,150.4684,-7.4002,-10.3604,
-102.6144,8.8803,-125.3081,-37.4936,-74.0007,94.721,77.9478,71.0409,87.8141,120.375,-97.6813,150.9621,-11.8401,-8.8803,
-112.9748,2.4666,-138.6283,-46.8675,-71.5341,82.3877,62.9478,56.0409,78.4411,111.9884,-106.0679,140.6017,-24.1738,-2.4666,
-109.5211,-4.9334,-137.148,-50.3203,-84.8541,86.8284,54.2675,41.0409,80.9079,115.4416,-105.5744,138.1353,-34.5335,4.9334,
-107.548,-6.9069,-135.1748,-47.3603,-94.721,91.7613,46.3738,44.401,84.8543,125.3086,-95.7079,139.1215,-41.4402,6.9069,
-113.9613,-9.3735,-147.5086,-54.7604,-93.2409,85.348,36.0139,37.0003,86.3344,127.7752,-90.2811,143.5619,-37.0003,9.3735,
-116.9211,-9.3735,-156.3884,-60.6805,-95.2143,83.3742,51.0139,35.0275,88.3083,124.8149,-86.334,146.5222,-35.027,9.3735,
-121.3612,-7.8936,-156.8819,-58.2142,-87.8143,86.8274,59.2006,50.0275,79.9214,113.4678,-86.8279,143.0685,-40.4536,7.8936,
-126.7882,-13.3202,-163.2954,-54.7609,-72.8143,76.4672,44.2006,49.8268,76.4672,98.4678,-90.2811,143.5619,-38.9737,13.3202,
-124.8144,-13.3202,-173.1616,-55.7469,-66.6005,67.5874,29.2006,37.9877,73.5079,83.4678,-96.2007,142.5755,-35.027,13.3202,
-128.2684,-9.8672,-169.7086,-65.1209,-81.6005,73.0142,43.4136,45.3874,58.5079,75.9745,-100.6411,137.1487,-39.4674,9.8672,
-131.2282,-12.8265,-163.7886,-68.0806,-96.6005,71.0404,33.5473,52.2943,47.3603,78.9338,-107.548,136.1613,-52.2939,12.8265,
-134.6816,-16.28,-169.2154,-60.6809,-95.2147,56.0404,23.1869,43.9068,58.7071,90.2807,-106.0684,140.6012,-51.8007,16.28,
-143.0685,-20.7201,-173.6555,-68.0809,-99.6544,48.347,26.6406,43.4138,66.1075,105.2807,-97.6811,140.1082,-43.4138,20.7201,
-142.0823,-17.7601,-171.6824,-70.0545,-114.6544,59.2008,20.7204,54.2668,55.2541,120.2807,-98.6682,147.0144,-41.4407,17.7601,
-128.7616,-17.2669,-167.2421,-64.6276,-129.6544,59.694,35.7204,58.7076,56.7338,134.6821,-98.1745,155.402,-39.9606,17.2669,
-121.8546,-23.1869,-160.3351,-64.6276,-121.8546,52.7876,50.7204,50.8138,63.6412,131.7214,-91.2676,149.482,-35.027,23.1869,
-136.162,-25.6537,-162.8019,-66.1075,-106.8546,51.3067,35.7204,47.36,62.1604,139.1213,-95.7082,134.482,-36.5074,25.6537,
-139.6157,-19.2402,-162.3089,-64.6281,-91.8546,38.9737,29.1065,45.8797,60.68,127.7747,-98.175,119.482,-37.0008,19.2402,
-124.6157,-16.7737,-147.3089,-63.1475,-98.6677,23.9737,44.1065,42.4276,67.0942,112.7747,-89.7874,111.4952,-36.5071,16.7737,
-109.6157,-23.1867,-132.3089,-68.5741,-90.2809,27.1343,48.8406,45.8804,68.5741,97.7747,-90.2809,117.9082,-37.0001,23.1867,
-118.8946,-23.1872,-137.6416,-68.5741,-75.2809,38.9739,35.0272,60.6802,70.5474,93.2411,-98.1747,123.8282,-30.0936,23.1872,
-115.9346,-24.1738,-145.5353,-62.6543,-80.4144,31.0798,47.854,60.6805,75.4808,78.2411,-97.1881,115.9351,-26.1472,24.1738,
-107.0543,-25.1603,-130.7349,-61.6674,-87.3209,25.1603,48.8404,50.8142,67.5874,74.4944,-97.1876,115.9351,-33.0536,29.107,
-122.0543,-19.7335,-138.1351,-72.0278,-92.7477,32.56,33.8404,51.307,52.5874,89.4944,-108.5349,120.3745,-48.0536,19.7335,
-137.0543,-16.28,-152.4422,-78.4411,-107.7477,39.9601,22.2005,57.7207,51.8002,104.4944,-105.0815,116.9211,-57.7207,16.28,
-122.3479,-23.6801,-147.0149,-74.9876,-122.7477,31.5735,33.5473,54.2672,66.8002,112.4811,-91.7608,116.4278,-55.2541,23.6801,
-116.4276,-24.6668,-141.0946,-70.0538,-131.2279,27.6271,29.6009,49.3343,73.0145,121.3621,-87.8143,124.3214,-44.4003,24.6668,
-127.7749,-22.2003,-148.4953,-69.561,-116.2279,37.987,25.1605,55.7476,80.4142,127.7745,-82.388,126.788,-32.067,22.2003,
-133.6945,-36.0137,-151.4551,-61.6672,-101.2279,28.1208,34.0403,59.6943,88.3075,112.7745,-77.4539,113.9615,-26.1469,26.1469,
-125.8013,-44.8937,-138.6283,-52.7871,-116.2279,16.28,36.0139,56.7338,90.2811,97.7745,-66.601,111.9884,-16.28,29.107,
-133.2015,-45.3874,-141.0949,-67.7871,-118.4016,20.7199,21.0139,46.3738,82.8814,82.7745,-78.9343,110.5083,-19.7335,20.7199,
-118.2015,-30.3874,-132.7083,-69.5608,-103.4016,35.027,36.0139,53.774,71.5336,71.5336,-92.2545,106.0674,-32.0672,27.1336,
-103.2015,-25.6537,-121.3617,-61.1744,-88.4016,28.613,51.0139,56.2408,56.5336,56.5336,-92.7479,91.0674,-44.4007,25.6537,
-97.1878,-23.1867,-112.9746,-51.8004,-83.3744,29.1072,55.7476,61.6672,69.5605,48.8406,-86.3342,85.3473,-33.0539,23.1867,
-92.2545,-20.2267,-107.0543,-52.7871,-68.3744,40.9475,54.7604,59.6945,84.5605,49.8273,-94.2278,97.1876,-29.107,20.2267,
-88.3075,-16.2802,-101.1345,-55.7471,-66.6008,48.8411,63.6405,49.8276,75.4806,60.6812,-101.1345,104.0948,-42.9206,16.2802,
-103.3075,-10.8536,-111.4947,-60.1873,-81.6008,44.401,48.6405,45.3874,60.4806,75.6812,-109.5214,91.7613,-57.9206,10.8536,
-106.0679,-11.3469,-119.8813,-64.6272,-92.2545,42.9204,33.6405,55.7478,45.4806,82.3882,-114.9482,96.2012,-72.5205,13.3207,
-101.628,-19.7335,-122.3483,-63.1475,-80.9081,39.4669,23.6801,52.2934,47.3603,85.8407,-114.455,106.5606,-72.0278,19.7335,
-116.628,-24.1734,-137.3483,-70.5477,-95.9081,27.1336,25.1607,40.9475,45.8806,91.268,-110.0146,106.0684,-72.521,24.1734,
-131.628,-21.2136,-141.5881,-81.4008,-110.9081,22.201,21.2136,44.8937,56.7347,93.2414,-103.1076,106.0679,-67.5874,21.2136,
-116.628,-18.2533,-127.7747,-70.5472,-95.9081,28.1205,34.041,50.8142,67.5874,99.1609,-90.2811,108.0417,-52.5874,18.2533,
-108.5347,-19.7337,-127.2812,-71.0407,-80.9081,28.6135,40.4536,46.3741,58.2142,94.7208,-89.7877,107.5483,-50.3203,19.7337,
-122.3479,-20.7204,-129.2548,-74.0007,-81.8941,35.5207,25.4536,49.3336,57.2279,85.8412,-88.801,112.4816,-60.1873,23.6806,
-112.9746,-19.24,-120.868,-59.0007,-80.4142,46.8678,19.24,59.6943,72.2279,80.4142,-73.801,109.0284,-45.1873,32.0674,
-120.8682,-30.0939,-126.7882,-58.7076,-95.4142,31.8678,34.24,51.8002,79.427,65.4142,-72.521,94.0284,-30.1873,27.1336,
-105.8682,-15.0939,-111.7882,-43.7076,-103.1081,38.9737,49.24,63.6412,94.427,50.4142,-57.521,98.174,-17.2669,41.9339,
-90.8682,-0.093865,-96.7882,-28.7076,-88.1081,53.9737,54.7607,68.5746,104.0948,35.4142,-42.521,111.0017,-2.4668,53.7742,
-75.8682,-0.98667,-84.8545,-39.4671,-75.9743,50.3203,58.2137,72.0276,94.7213,20.4142,-27.521,101.6282,0.98667,59.2011,
-90.8682,-15.9867,-99.8545,-54.4671,-90.9743,35.3203,43.2137,62.1604,79.7213,17.7603,-42.521,95.7077,-14.0133,44.2011,
-105.8682,-22.2002,-114.8545,-54.7607,-79.4277,29.1072,28.2137,52.7873,77.4539,32.7603,-46.8673,110.7077,-22.2002,37.987,
-111.9877,-25.16,-120.868,-58.7074,-74.4941,23.1867,19.24,49.8271,76.4675,47.7603,-41.9337,113.9615,-19.24,42.9211,
-114.9479,-29.1067,-124.8147,-65.6138,-87.3211,33.0534,25.16,53.7742,72.5213,62.7603,-42.9206,118.8951,-25.16,47.8537,
-114.9479,-37.0001,-127.7749,-76.4675,-72.3211,41.9342,29.1067,38.7742,69.561,47.7603,-54.7607,124.8147,-29.1067,40.9477,
-111.0013,-31.0805,-127.7749,-76.4675,-74.4941,35.0272,27.1338,36.0137,55.7471,34.0408,-51.8004,127.7749,-27.1338,48.8402,
-111.9879,-22.2005,-121.8546,-75.4808,-89.4941,27.1336,25.1607,45.8806,45.8806,22.2005,-42.9204,113.9617,-35.027,50.8138,
-98.1745,-8.3866,-106.8546,-60.4808,-95.2143,38.9737,39.9611,52.7876,60.8806,8.3866,-32.0667,98.9617,-23.1869,40.9475,
-89.7877,-0.98667,-91.8546,-45.4808,-80.2143,44.4007,43.4134,56.2408,75.8806,0.98667,-26.6406,88.8008,-8.1869,39.4667,
-104.7877,-14.3069,-100.1476,-50.814,-81.4011,32.0674,28.4134,54.7611,73.5072,9.3733,-34.0403,85.3473,-9.3733,45.8804,
-119.7877,-23.1869,-110.0146,-63.6407,-96.4011,24.1738,19.2407,52.7871,62.6543,18.2533,-37.9868,95.2143,-18.2533,48.8404,
-118.8944,-25.1603,-113.9613,-71.5341,-97.1876,27.1341,26.1467,44.8937,69.5612,21.2136,-42.9204,104.095,-21.2136,55.7474,
-122.8413,-26.1469,-120.868,-75.4806,-82.1876,33.0539,26.1469,36.0141,58.7078,30.0936,-55.7471,97.1883,-27.1334,63.641,
-123.828,-26.1467,-119.8813,-80.4139,-97.1876,38.9742,25.1603,42.9208,43.7078,35.0275,-63.6403,97.1881,-25.1603,57.7212,
-108.828,-17.7606,-113.468,-78.9343,-112.1876,47.3603,17.7606,57.2275,46.3738,27.6268,-56.2406,107.548,-17.7606,58.2139,
-93.828,-14.3066,-107.0548,-75.4813,-97.1876,46.8666,14.3066,56.7338,51.8007,28.1205,-47.854,105.0814,-21.214,72.5205,
-90.2811,-25.1603,-99.1614,-80.4144,-82.1876,37.9868,29.3066,43.9073,45.8802,25.1603,-50.8138,92.254,-29.107,69.5612,
-83.3747,-20.2271,-84.1614,-65.4144,-67.1876,34.0406,44.3066,52.7876,60.8802,10.3604,-38.9742,90.2807,-14.107,54.5612,
-76.9607,-12.8267,-79.9209,-52.2936,-68.0809,22.6939,46.3741,59.2006,75.8802,-2.96,-23.9742,93.7344,0.89304,40.4536,
-68.5743,-5.4268,-83.3742,-54.7604,-56.7338,19.2407,31.3741,60.6805,81.4013,4.4399,-8.9742,104.095,-4.4399,55.4536,
-70.5477,-2.4666,-76.4677,-51.8007,-70.5477,31.0803,46.3741,62.6538,67.5879,2.4666,-23.9742,97.1876,-18.2533,51.8011,
-76.9609,0,-62.1606,-44.4005,-83.8679,43.4141,61.1737,71.0409,68.0806,0,-23.6801,90.7743,-5.92,50.3201,
-91.9609,-14.3069,-77.1606,-58.7074,-87.3211,28.4141,46.1737,56.0409,70.5474,-2.4668,-9.3733,91.2683,2.4668,47.8537,
-106.9609,-29.3069,-92.1606,-72.0276,-90.7746,13.4141,31.1737,41.0409,74.9878,1.9736,-5.9203,86.8279,-1.9736,44.4007,
-121.9609,-44.3069,-107.1606,-77.4544,-100.1476,-1.5859,18.2536,37.987,78.4413,-1.4799,1.4799,76.4675,1.4799,40.9473,
-112.9746,-55.7471,-107.0546,-72.5208,-102.121,-6.4135,16.2807,39.9608,78.4413,-3.4532,11.3466,82.388,3.4532,46.8678,
-97.9746,-41.9339,-94.2278,-73.5075,-87.121,8.5865,27.1341,47.854,73.5079,5.4268,-3.6534,91.2676,-5.4268,57.7212,
