"AF3","AF4","F3","F4","F7","F8","FC5","FC6","O1","O2","P7","P8","T7","T8",
-52.5436,-0.48216,-84.841,3.8566,-58.3282,0.48216,7.713,12.5333,5.7848,14.9438,-89.6615,-12.0513,-1.928,29.887,
-56.1394,-4.7916,-85.5351,2.6609,-58.2027,-2.9212,5.322,8.8892,3.9915,11.6371,-89.5842,-14.7022,5.9005,33.8788,
-52.5301,-0.88864,-80.162,0.81401,-52.5414,-1.0587,8.6181,11.4893,0.61849,9.7336,-86.8605,-15.9897,15.9103,30.6408,
-47.2094,1.3338,-79.4499,-1.404,-54.9328,3.5841,-0.33509,14.4149,-6.4085,0.23103,-88.1568,-20.574,4.1094,26.6327,
-41.0024,4.1461,-77.093,3.5007,-53.0828,14.4565,-1.761,21.263,-6.0238,1.6637,-83.3493,-17.8935,-0.9576,39.1348,
-44.3268,2.4511,-77.2879,1.3625,-52.7899,11.6609,-3.1016,17.0947,-8.5544,3.9744,-83.651,-16.3375,1.5104,47.2715,
-43.1132,5.6787,-70.7222,0.31665,-47.6943,10.9615,-1.9514,13.6592,-5.1488,5.182,-84.4163,-14.8751,4.3121,33.3482,
-39.3214,6.5428,-68.1663,-0.90764,-47.9662,11.0267,-0.62904,13.5625,-7.0095,1.2556,-83.4489,-16.6341,1.8842,22.4292,
-36.7211,5.4273,-64.7995,-1.5761,-47.2576,8.6779,0.1316,15.8818,-8.7581,1.9032,-78.6831,-15.3951,-0.39846,28.5553,
-32.5894,7.5121,-55.6086,-2.4456,-37.673,8.6394,1.0878,17.8216,-6.3042,6.1276,-79.7465,-12.543,2.0358,35.5193,
-28.9471,8.2664,-55.8878,-3.5039,-29.3873,8.3617,2.2276,19.4032,-3.757,8.4112,-78.5774,-8.6571,11.3139,37.9672,
-32.2717,1.7446,-61.9345,-2.5706,-27.3829,1.8343,1.3708,15.5881,-1.8441,8.6297,-68.801,-5.4864,12.804,38.8224,
-29.6125,0.43466,-54.1211,2.1629,-17.7864,-6.7115,4.422,9.1088,0.43566,11.7269,-65.3963,-1.0599,9.3842,36.2521,
-23.256,0.64978,-48.2223,3.7206,-7.3187,-20.0473,5.3618,-1.8014,-0.31361,10.7825,-72.3184,-0.75506,10.991,23.231,
-14.3891,-3.0046,-43.1598,11.4511,0.59197,-32.9445,6.7273,-8.6832,3.3206,13.2691,-69.1846,0.97747,17.8033,15.3296,
-6.0539,-5.9576,-36.955,19.6819,6.582,-42.4165,5.6005,-6.9571,6.7366,18.4982,-59.0077,5.4979,19.386,24.7735,
-6.8957,-8.7334,-34.9787,19.706,12.6948,-46.8612,4.5414,-7.2628,6.5736,17.1476,-54.7441,6.8555,16.0539,33.1692,
-3.1078,-6.7631,-29.0236,26.7189,23.0206,-47.9061,14.3923,-9.2372,12.9281,17.565,-47.6033,8.8543,23.2854,37.928,
5.0324,-2.2602,-22.7026,34.9974,27.1827,-47.2009,19.0721,-8.9241,9.983,18.1981,-41.6139,8.5642,35.1444,41.1957,
9.3102,-4.2938,-19.6532,36.513,27.239,-46.538,17.2049,-8.6297,5.7686,17.8296,-39.8399,8.2913,32.7952,34.6266,
9.4748,-9.0976,-18.715,34.5632,27.7738,-45.9149,16.4135,-13.6555,10.0018,18.929,-35.7623,9.963,24.3196,22.6671,
3.8444,-12.6493,-20.2437,29.3561,27.3124,-41.9552,13.7413,-15.9697,6.7503,17.552,-31.9296,8.1602,25.0293,19.6196,
0.96261,-13.0954,-20.2339,29.282,25.9147,-34.3762,13.1582,-8.9857,3.2123,15.776,-33.147,7.4296,27.6254,27.8429,
-0.54141,-15.6842,-25.7688,26.5607,21.4677,-33.2777,10.9225,-7.0003,2.5372,12.9008,-32.1223,7.4657,20.1833,27.6181,
-2.4371,-12.333,-25.6689,20.6286,21.6257,-28.389,12.1951,-10.4369,6.2416,14.0552,-20.554,7.9819,21.3822,28.8533,
-3.7369,-7.7364,-20.7543,15.0527,22.7385,-17.5264,12.9094,-13.6671,7.795,17.068,-17.3926,5.0926,29.2585,31.9426,
0.10271,-7.9951,-16.3756,14.8729,23.5433,-12.8594,15.7507,-13.0878,6.1225,16.7673,-18.036,2.6179,29.1902,23.0366,
1.5426,-5.5874,-15.8752,16.3905,22.6129,-15.9442,17.2156,-13.2668,7.2012,13.8328,-8.7592,1.9787,24.5465,13.9414,
1.2093,-3.5647,-16.6097,12.7559,20.0508,-11.3721,13.5316,-11.7475,9.4207,14.6905,-3.1719,3.0652,25.2429,12.864,
3.7876,-5.5205,-13.9261,11.2672,18.6068,-0.32592,12.9606,-4.053,10.0602,15.9778,-7.5614,3.1223,24.9332,13.7789,
8.1401,-4.948,-14.2956,9.8681,13.3928,0.89892,8.5673,0.76972,4.8771,9.9577,-11.687,-1.6446,15.0013,10.7832,
21.7517,1.3746,-10.7865,11.4454,12.8305,0.60402,7.8126,0.48234,5.3076,8.6376,-10.2626,-2.2686,11.4503,9.4131,
34.5466,-4.9746,-13.0316,6.4206,11.0965,-2.8067,4.4515,-4.3671,3.0612,8.1191,-13.9852,-2.6146,13.6556,3.5459,
29.8225,-5.3995,-13.9372,4.8298,9.2252,2.9051,2.015,-1.4537,2.1539,8.837,-9.5311,2.1213,16.9334,10.3228,
18.8743,1.1915,-14.0648,5.0222,7.7081,8.9978,1.8944,1.0438,1.543,6.3788,-7.9949,2.4762,12.0612,18.3803,
16.0544,2.807,-14.9082,3.9977,8.4506,12.0731,2.9858,1.2219,-0.23658,6.7188,-1.9716,2.0869,10.1325,12.216,
10.9938,-5.315,-17.6291,-1.3036,1.4359,8.6974,-1.291,0.90789,-2.3918,4.1467,1.2799,2.2024,10.7296,5.4573,
7.4419,-7.4064,-17.0533,-2.1895,-1.0606,7.2117,-3.1415,2.2995,-3.2124,8.2364,-6.0275,2.5524,9.1217,12.3609,
13.5028,-0.45433,-12.8968,1.0751,0.20809,13.7684,-6.5686,1.4384,-3.7428,11.3575,-4.9429,3.1224,7.8513,14.2701,
18.7187,2.224,-10.9177,-4.051,-5.3478,18.9683,-9.3075,3.5217,-3.7592,3.6861,3.3076,3.176,7.6212,8.8346,
13.498,2.3318,-10.0217,-10.7976,-7.6782,21.4454,-9.9542,9.8176,-2.8105,0.33171,4.3142,1.7804,6.9232,12.4021,
5.2163,1.9507,-7.7332,-11.8368,-2.638,20.8818,-12.0082,10.916,-3.365,2.4812,1.8862,-3.3879,6.7485,11.8992,
7.7956,5.6903,-2.4489,-6.3061,4.2687,21.0749,-16.1087,16.0454,-0.27079,3.7784,2.7371,-1.2566,9.7178,7.8106,
4.9175,6.3129,-6.6403,-5.9279,-2.7361,20.2926,-29.2422,18.9393,-5.557,1.6232,-4.1758,3.6393,4.3143,11.6805,
1.2482,2.5597,-12.9906,-10.8749,-10.2847,21.0032,-38.4541,14.4285,-10.5262,4.4184,-6.3356,6.7954,-2.2111,18.6924,
11.0553,3.129,-5.7037,-7.5709,-4.124,19.0201,-28.1931,11.3936,-8.6898,6.8043,-2.8222,6.1467,1.0546,15.4017,
20.0329,9.2083,4.2798,-1.332,7.2107,13.5401,-15.896,12.6382,-2.8657,4.9503,-2.6526,3.3677,10.6328,9.175,
18.5902,10.3428,5.7102,-5.3497,7.0192,10.0769,-15.1835,8.7466,-1.9707,-0.40818,0.6398,-0.44997,14.5743,6.4555,
19.1618,7.0709,4.6445,-1.895,4.9111,12.1236,-12.1031,8.463,-3.5394,0.82137,8.0732,0.78255,18.7613,8.7195,
20.4224,4.2363,1.4735,4.0031,8.9545,10.4316,-7.0388,7.955,-4.2912,2.7001,8.5529,2.1816,19.0817,10.1243,
16.5458,6.6334,2.108,2.5574,11.0685,6.6725,-8.7859,5.3083,-4.7568,1.333,9.7267,0.84521,11.429,8.3113,
15.3118,9.8511,6.0791,1.1993,10.1632,6.5133,-9.9457,6.6773,-5.6765,1.9761,16.6149,2,4.7175,8.0539,
14.1524,8.0549,6.4375,0.88615,8.3484,4.9174,-10.554,5.5535,-8.9511,3.5446,11.0388,2.1208,2.2655,6.3656,
13.303,2.7507,6.5332,-0.13111,5.4371,2.694,-10.8849,0.88177,-10.8244,0.92154,2.1815,1.9937,7.914,3.0913,
10.8178,3.7907,6.8643,-0.84638,6.316,5.1837,-8.5448,2.5159,-8.006,3.0356,6.148,3.5611,7.6803,5.0753,
8.2403,4.0454,6.4524,-1.7597,6.9016,6.8011,-6.5856,3.329,-6.0791,4.7819,8.6714,4.7935,6.7373,5.7348,
4.6129,3.5617,5.3424,-3.8233,6.7284,8.0802,-5.9495,3.8526,-4.9915,5.2179,10.8024,4.7473,5.1283,5.6317,
1.4441,2.8661,4.0578,-5.5221,6.3247,8.5593,-5.1101,3.6215,-4.2096,5.8692,12.0827,4.9444,3.8567,5.2938,
-2.2582,1.971,2.6092,-7.8421,5.2221,8.7689,-5.0447,3.163,-3.7163,5.7577,13.5269,4.4065,1.9378,5.2174,
-5.9791,0.88865,0.52425,-9.7814,4.4266,9.2068,-4.7423,2.4915,-3.4931,5.8944,14.6435,4.1424,-0.10685,4.9041,
-7.5486,1.3175,0.97496,-4.3741,7.0533,8.1722,-1.5655,3.3061,-2.8018,5.0586,17.6212,13.0526,4.7205,5.574,
-6.3728,1.4794,-3.1811,-9.1733,0.60457,7.4409,-6.0508,3.3482,-6.731,4.0322,16.8049,10.1003,4.6778,-0.3041,
0.035382,1.6318,-0.33893,-9.828,-2.083,13.5022,-5.929,11.1013,-5.604,-2.2355,18.448,-1.8341,5.1202,2.3655,
3.6484,1.2927,3.2968,-7.0694,0.69327,14.8615,0.93449,11.1584,-5.509,-8.1267,21.9206,-7.7494,4.5723,1.0185,
4.1529,2.9024,0.44769,-11.2245,-1.9994,10.3543,-0.80881,4.4633,-7.3476,-8.3625,17.4721,-7.5254,3.0927,-7.4783,
5.5907,7.7897,-0.30207,-12.7204,-5.977,10.4562,-1.9653,3.4724,-11.0039,-6.6556,12.3262,-4.9049,1.702,-4.8607,
2.1218,6.117,-2.4536,-12.1982,-7.788,9.5874,-4.017,3.0231,-13.4776,-5.0515,14.7199,-2.9234,-9.7283,-4.3281,
0.78965,4.0632,-1.583,-11.2253,-4.1868,9.7355,-6.4267,2.1188,-7.1249,-0.16864,17.4523,-2.989,-13.7239,-7.2014,
3.6343,5.2652,0.44018,-9.1055,-3.4537,12.5259,-2.6671,3.4375,-5.2516,-0.15852,17.8512,-4.2559,-4.7057,-7.2517,
0.28279,2.2982,-1.2737,-11.6927,-7.8262,12.0148,0.62645,1.544,-10.4801,-2.8006,14.1286,-0.86707,-2.7366,-16.2166,
-0.69805,0.71408,3.6234,-12.9193,-8.3205,11.7763,-2.3037,0.48749,-9.3689,0.25999,7.0144,1.1132,-5.4645,-19.5819,
5.3694,2.3585,7.5036,-8.0463,-5.6521,13.2389,-0.96015,3.5917,-4.2275,0.0034256,8.7629,-4.4973,0.407,-6.5964,
2.8778,-0.43437,1.0276,-13.1074,-5.0722,9.7932,5.6052,2.6531,-6.6252,-7.4684,15.7087,-10.2532,2.552,-6.9242,
-1.151,2.0021,3.8583,-14.7313,-2.3575,13.0623,7.6792,3.9399,-5.7455,-7.9844,17.6587,-7.7096,-5.3142,-17.5958,
-0.59977,7.1843,6.0369,-10.9551,-5.1084,17.5809,2.8799,8.0421,-4.4367,-6.0593,13.2247,-6.7653,-10.7801,-14.1297,
2.8104,7.2354,4.7108,-9.3337,-4.8016,17.0082,1.743,15.2726,-4.1702,-0.39283,17.7339,-2.5028,-0.0097162,-1.2306,
2.1596,6.8011,2.0178,-9.2559,-3.0675,17.4338,-0.77191,17.73,-6.3304,3.0045,18.1159,3.4322,7.2215,-2.1208,
-0.13932,6.1523,0.69145,-12.7976,-4.0885,20.4853,1.4438,11.6047,-8.1199,3.5474,11.9673,3.467,0.76241,-10.4295,
1.7977,1.4448,1.6143,-15.4042,-7.6996,14.4355,3.7673,6.0882,-5.2226,-1.0038,12.2135,0.84887,-4.586,-8.3575,
6.992,3.2859,3.4454,-13.0342,-8.6839,11.6412,1.6131,7.6506,-3.463,-2.8718,18.7113,2.7261,1.4738,-2.0719,
7.778,7.6687,2.0336,-10.5647,-8.4041,17.9324,2.2394,7.4328,-3.014,-1.0125,18.794,1.8394,-0.30166,-7.9729,
5.6241,7.4495,1.6706,-11.618,-8.1408,19.9899,3.7923,5.782,-2.5922,-3.6028,13.5687,0.041838,-13.54,-7.2536,
7.9378,7.7255,4.2219,-11.6438,-5.9651,17.5857,1.8775,7.6042,-2.6776,-4.1095,13.478,-2.6118,-16.8249,-2.721,
6.4976,9.6721,3.4862,-12.3915,-6.5711,16.0481,2.7287,5.7017,-1.5531,-2.8991,14.5973,-8.722,-10.0308,-16.0551,
2.7333,6.1997,5.2055,-11.1661,-7.1411,14.6033,5.9395,2.9495,-0.013673,-6.5815,17.5778,-7.7163,-3.6444,-19.4301,
6.1845,1.7301,5.6161,-9.773,-7.9177,12.0397,1.9679,3.0133,-4.1104,-14.1406,19.1745,-7.9765,-0.77441,-11.7566,
9.911,5.7239,-0.2643,-15.6943,-12.5041,8.6664,-2.2478,4.5199,-12.7816,-13.5329,15.8548,-16.4157,-8.6819,-19.9695,
5.7009,7.5496,-0.0074721,-16.9218,-14.405,5.0129,1.5025,8.8285,-13.2196,-7.6593,10.324,-15.1898,-19.4892,-28.1709,
-0.4257,4.6861,7.2236,-8.1937,-7.2746,8.5686,7.197,13.6009,-6.6423,-4.3076,12.1147,-3.1917,-11.5714,-16.3582,
1.0461,7.2974,7.7543,-6.2558,-4.9095,12.8747,5.3189,13.7492,-4.3156,-1.6391,18.6187,0.85669,-1.7181,-1.8789,
5.3217,13.6085,6.3251,-7.8087,-7.9894,11.1383,0.66142,10.5141,-4.5386,-1.5407,18.4659,-0.64097,-14.148,-0.8018,
7.6537,10.6226,9.0789,-8.0633,-9.6789,14.0857,-2.0296,9.1602,-8.3634,-6.0273,15.1888,-2.2895,-23.1813,-5.3332,
8.1586,3.7189,7.5703,-11.9176,-13.9187,15.1685,-2.8719,6.2002,-14.6102,-10.0042,16.6876,-7.4546,-12.6312,-9.8337,
5.0177,9.0387,6.8746,-9.034,-10.9151,13.5353,-0.04827,9.9253,-8.6726,-8.1994,23.6398,-7.2489,-3.9198,-6.1109,
0.61907,15.4865,9.1135,-1.5019,-2.7881,17.3027,4.0522,17.2838,0.76602,-3.6098,28.2472,1.14,-8.746,0.76394,
-1.346,7.3267,7.6026,-5.7503,-5.5131,15.3004,5.737,10.4624,-0.72597,-2.9111,23.6601,1.0718,-10.1497,-3.6204,
2.109,1.5842,3.29,-13.6003,-14.3412,7.6337,2.0186,0.19344,-6.4672,-9.4851,19.3482,-9.5976,-5.2022,-10.6343,
7.0441,4.6227,2.8517,-13.5071,-14.686,8.8629,-3.1642,5.2435,-10.1765,-13.9777,20.3567,-10.227,-8.0235,-10.2372,
3.7289,2.4171,3.6447,-12.2148,-12.8405,15.562,-0.081829,9.2672,-11.4941,-12.6566,18.6534,-0.93629,-19.1108,-11.0688,
0.13097,3.2362,0.051768,-7.6253,-12.5522,23.7871,3.2973,2.9268,-11.7686,-9.4869,13.6775,4.4223,-21.3389,-13.7789,
2.2923,8.5856,0.28963,-3.5523,-9.1475,31.7598,0.93031,3.4741,-8.8933,-9.641,16.4723,1.9878,-15.9607,-7.8909,
3.1191,6.1423,4.6106,-8.6418,-9.0811,30.8186,-0.089839,10.9785,-8.3597,-10.5088,22.7148,0.42228,-14.0392,-5.4893,
0.039398,5.7738,7.2262,-12.4621,-11.9107,29.4514,2.8081,10.8017,-5.448,-6.9862,26.1722,2.8071,-12.7149,-14.3189,
0.5192,8.8016,4.3825,-10.7498,-12.6421,27.2022,2.1574,4.8512,-5.6028,-10.4232,24.6021,0.22829,-16.2906,-21.6547,
5.7905,7.3094,4.6015,-5.2848,-11.8838,22.1958,-0.86431,2.6317,-12.4977,-17.0284,24.09,-4.1235,-20.1336,-17.4632,
4.238,2.2913,8.4228,-6.6547,-11.4115,16.2845,-2.0175,-2.1057,-11.0247,-12.8735,28.188,-3.6354,-18.2025,-16.6561,
-0.83702,0.70755,10.3278,-8.6656,-2.0497,15.3075,2.9242,-1.497,-1.6862,-3.424,35.1738,3.3317,-11.3257,-19.5131,
-4.643,-3.1911,1.5132,-8.1459,4.822,6.1941,3.2305,-5.2638,-3.9953,-4.665,35.4733,3.6139,-6.3076,-16.8963,
-3.1593,-4.2051,2.6274,1.2607,9.5941,-5.506,3.7598,-11.9376,-3.5149,-3.18,37.4425,2.674,-3.2779,-10.8211,
-1.5235,-7.3268,8.7365,4.5595,14.803,-18.673,2.0879,-15.5601,-1.8577,0.38521,37.6065,2.5135,-6.4556,-15.9564,
3.3884,-11.2258,7.2482,-0.53452,18.2529,-31.6526,-0.92962,-23.7853,-5.6029,-3.4945,34.868,1.3986,-8.4787,-14.5173,
14.9954,-3.5626,13.3211,10.826,24.1479,-38.5508,1.7775,-30.3122,-3.5793,-2.5613,34.9448,4.448,-7.7287,-4.246,
15.7829,-9.3744,15.1733,16.202,22.94,-50.3378,-0.98026,-34.5185,-7.9438,-6.9873,27.305,-0.3982,-16.665,-10.9807,
18.4514,-14.8374,17.8781,17.8814,26.6252,-51.0532,1.2477,-32.2069,-6.7443,-7.291,29.764,1.7949,-4.8189,-13.9373,
15.8983,-19.2496,12.9493,18.2545,22.6174,-53.7748,-1.7194,-42.3254,-9.7138,-10.2278,31.3524,-1.6871,0.29075,-24.188,
13.2569,-19.2997,9.0388,20.2925,22.4654,-59.4661,1.9989,-47.2579,-11.7823,-13.2297,30.1944,-5.2015,-12.5009,-28.2806,
6.1945,-20.5523,4.6399,13.2904,23.0457,-59.2726,1.3971,-45.8687,-12.5216,-12.9179,30.7929,-6.8176,-18.0178,-22.2454,
4.1356,-19.5601,4.1205,12.252,17.5656,-47.7625,-1.3379,-40.465,-8.1549,-11.4199,39.7916,-3.2751,-7.5368,-22.116,
7.5031,-22.966,6.5246,16.5783,18.1986,-41.2811,1.3937,-36.3501,-3.568,-12.9036,46.3219,-1.8735,-6.8434,-29.2249,
-0.41885,-24.7211,2.5177,10.522,19.2763,-40.0095,2.033,-38.7484,-4.0773,-11.4065,41.8554,-1.0382,-14.3865,-26.7481,
-3.286,-13.5971,5.7411,7.9627,14.2631,-28.4497,2.8751,-34.4955,-1.4223,0.36486,39.3443,3.8446,-11.5953,-15.502,
4.8649,-6.2733,11.9044,14.4748,11.2382,-20.7172,-0.91281,-25.9178,-1.578,1.0663,42.0453,2.891,-5.8379,-17.7054,
8.1889,-7.1022,14.8055,14.8116,10.8049,-18.2689,-0.61661,-25.5681,-7.5088,-7.9157,44.1019,6.8149,-3.3185,-24.5968,
3.359,-7.6402,14.8813,6.2099,6.7823,-15.7267,2.3127,-28.8545,-8.9867,-8.8868,40.4917,8.3344,-9.3861,-24.5675,
4.6033,-7.6637,13.0241,5.8373,8.7855,-8.9985,2.6554,-23.7487,-2.6629,-4.4972,42.4005,2.0493,-12.6794,-13.4525,
-0.011487,-10.0966,16.099,8.3789,11.1507,-5.5668,5.3884,-22.806,-0.0928,-8.5659,45.6408,-1.4478,-5.1699,-16.9839,
-3.6262,-3.4648,25.9793,14.3841,16.9891,1.2752,15.4294,-20.2328,4.4921,-2.9903,50.8565,7.0752,5.5046,-24.8824,
-4.6137,-0.60562,20.8052,9.9059,13.3189,0.95793,8.9602,-16.3675,3.9818,1.2862,47.082,6.4095,-0.85145,-20.2562,
-4.3369,-4.4257,16.6646,5.4551,9.1453,-3.4383,1.1918,-13.4568,3.7429,-3.6112,40.8826,2.1685,-8.0312,-16.1483,
3.1539,0.66035,23.8594,12.3584,11.0065,1.5885,5.4584,-13.6139,1.5899,-7.2511,41.8039,1.0743,-3.6932,-22.4105,
5.8572,1.5846,18.0895,11.135,5.0439,3.4213,-1.1357,-20.5099,-4.2901,-9.2262,40.26,-3.3285,-6.8456,-29.743,
3.5774,0.043492,13.6299,5.164,2.8129,4.6621,-4.4417,-17.8333,-2.1043,-6.2627,36.8803,6.03,-6.4351,-21.2097,
3.6041,-4.5384,14.0174,-5.5097,-0.48893,5.5877,-3.9343,-17.9681,-7.0397,-9.02,29.6063,6.8735,-9.6644,-13.4292,
13.0289,0.55415,18.4786,-4.6972,-1.4239,16.3396,1.1225,-16.4081,-4.6891,-5.1043,31.6863,1.6404,-13.9048,-9.7309,
7.6674,2.6901,20.9853,2.5745,-2.5438,20.4205,3.7062,-12.2901,-1.7567,-4.5571,32.4362,3.7111,-15.722,-12.2806,
2.6281,-0.12243,21.8958,5.0716,-0.70346,15.0983,1.7971,-5.0448,-3.82,-5.4885,34.1054,5.1757,-9.717,-13.231,
7.0499,-0.35628,20.3408,1.1517,-3.313,12.505,1.4481,0.80131,-6.7245,-3.4722,37.6025,2.6958,-5.5184,-11.714,
-0.36297,0.38845,14.5406,-4.943,-12.0319,11.9957,1.6022,-4.7904,-7.5258,-3.0229,34.1415,3.2574,-9.2851,-18.9649,
-4.6795,-2.5274,15.1145,-1.2724,-5.0434,9.3477,2.4699,-11.7338,-0.80778,-0.4314,35.949,8.8465,-9.2099,-29.3966,
-5.845,-7.196,15.1719,-2.6419,-1.8483,2.0384,-1.0523,-14.8862,1.6513,-1.8513,37.1669,4.4593,-6.2467,-34.8632,
-6.9406,0.46616,19.5638,1.373,1.1546,6.2544,6.7236,-6.7621,8.3006,-0.77637,40.2391,3.7098,-0.56974,-24.0947,
-12.5494,0.67938,18.6312,6.834,2.7728,8.0486,8.9715,-9.9716,8.5257,-0.48859,38.5479,3.2461,-7.0428,-21.4435,
-5.7709,0.39765,24.5032,12.45,6.7038,11.1811,9.6381,-7.2042,11.6296,6.5306,41.2967,12.4513,-6.8617,-14.6133,
-5.9068,-1.5542,25.9253,4.9539,5.8194,7.6179,7.6138,-3.3977,8.5215,-0.61038,36.4085,12.1864,-5.4859,-10.8442,
-6.0344,-0.49705,25.8155,4.6566,7.8804,5.2322,7.1569,-1.748,3.1895,-6.3583,32.2958,10.0089,-2.7466,-15.9786,
-2.0569,-3.6007,21.6155,11.3671,3.3102,1.7852,3.1121,-5.2581,1.7933,1.013,28.1889,8.685,-6.6791,-21.5274,
0.95882,-2.4206,20.3188,14.0593,-0.26263,-1.2142,-0.44931,-7.353,3.6136,4.8084,27.9436,4.7897,-12.0627,-8.1844,
2.8297,2.0632,21.992,7.9133,-0.72904,-4.5156,-1.8679,-10.7679,-0.45934,-5.6028,30.1236,4.985,-13.7493,0.98352,
4.8286,3.6266,24.7698,7.6795,0.51954,-3.5217,-0.069081,-9.8814,-1.6371,-5.99,27.5928,11.6748,-9.7914,-3.6552,
1.8878,-2.1346,24.9708,11.3161,2.1756,-2.1056,-1.7522,-7.1189,1.1122,-0.086945,17.0197,7.8413,-10.8906,-7.5333,
2.2565,-2.9704,22.0263,10.1552,3.0094,-1.0149,-3.0928,-6.2098,0.081646,1.3645,19.3729,1.5862,-13.6117,-4.1888,
-2.6994,1.064,14.438,4.243,-5.3661,-2.4001,-5.3181,-7.2837,-0.88735,-3.0559,26.887,1.4908,-14.7234,-12.6143,
-6.3938,4.3746,14.5361,9.7735,-5.0441,3.0466,-2.1065,-3.9542,9.2888,0.98385,31.0588,6.2221,-9.0193,-18.124,
-9.3846,0.25576,17.5203,12.0791,2.0069,8.6479,-0.53383,-0.82485,15.4804,9.6015,30.6411,10.1871,-0.2834,-6.9136,
-15.3288,-1.929,16.7103,8.2211,2.1277,14.1553,0.70327,3.8046,12.8646,12.1591,32.9002,20.4224,0.45674,3.8653,
-13.9271,2.0432,14.2614,7.2459,2.0001,17.1623,4.9998,3.0944,9.6821,10.4652,36.2288,26.4279,-2.9451,3.6334,
-6.1016,-0.2486,18.4674,3.6781,6.9417,9.1427,6.3871,-5.5274,8.3783,6.7043,28.5115,20.2624,-2.0451,0.28189,
-2.3613,-0.23345,24.1076,3.9391,5.0792,6.1838,4.5574,-5.196,8.3577,4.3736,23.9085,16.1544,0.0056123,-2.6273,
2.1187,-1.1838,24.5893,6.5948,-1.4925,10.633,4.7659,0.41843,5.4457,3.1469,30.1868,16.6314,-2.8868,-11.1468,
2.9557,-4.9689,24.0785,5.2355,2.4536,10.9596,3.0339,-2.0166,5.6011,0.54815,29.8216,12.2593,-7.5341,-12.8879,
-1.8014,-0.09148,21.9104,4.198,6.4038,9.5787,-2.6918,-4.5471,5.0241,-2.1363,25.8631,9.3541,-7.3234,-0.7864,
-1.211,3.7704,21.0777,3.9461,2.1632,7.0758,-6.3866,-7.6488,-0.098085,-3.9363,24.3113,4.4545,-6.884,-1.7035,
7.2976,1.3748,23.4287,4.4325,-3.9919,4.9642,-6.7266,-5.5024,-2.7431,-6.8334,20.2013,-4.2486,-10.0862,-12.4474,
10.7159,3.2207,23.951,7.5408,-6.6452,11.415,-8.2509,5.9148,-2.5787,-7.3875,17.5432,-1.1014,-13.8196,-7.8439,
13.9293,6.8839,20.5857,7.0883,-2.872,16.9967,-7.7559,4.5956,-0.01386,-4.0517,19.8651,8.1237,-12.5085,-4.4812,
13.0938,5.0248,17.9045,-1.0495,-1.2537,11.6383,-6.3264,-5.3209,-1.4591,-3.8088,17.7091,4.744,-10.3115,-11.9253,
1.9439,1.5898,18.5175,-3.6381,-4.3115,12.1453,-5.224,-1.8686,-0.64861,-5.2675,14.9593,1.8078,-14.2725,-10.9689,
3.9966,3.6638,16.6833,-1.2504,-6.7041,17.4424,-5.6336,7.6437,2.0416,-3.264,19.1232,8.6894,-17.0314,-3.8026,
9.0595,2.9621,14.7184,-2.1393,-5.8199,13.9857,-5.7776,4.775,2.4015,-2.5863,18.4577,6.7218,-11.1888,-2.6105,
0.079992,-0.83131,16.0043,-2.734,-7.6397,10.9772,-4.2258,-3.4655,2.9801,-5.5643,10.8426,-3.0813,-7.8661,-9.4435,
-2.0942,3.7981,15.7671,-2.8112,-11.7613,13.9337,-5.1774,-3.4988,-0.33196,-7.8818,5.1306,-3.1376,-14.8662,-18.2772,
7.1907,8.8726,15.3033,-2.1604,-7.199,13.0979,-5.3489,2.9779,-3.2043,-5.9629,6.7512,2.8355,-15.9022,-14.7702,
7.4819,3.2788,15.1082,-4.6821,-9.9003,10.6246,-5.7511,5.4505,-5.1815,-9.2203,8.0331,-0.95031,-11.3329,-6.8943,
2.9359,1.3951,13.9605,-3.678,-12.9215,14.5666,-5.1648,12.5956,-3.6651,-9.8721,8.7562,-3.0627,-8.4835,-10.0959,
-1.5788,1.7931,14.087,-1.0474,-10.7001,12.2466,-5.819,14.2497,-2.4815,-6.8699,6.3024,-0.46856,-9.9029,-21.5414,
-4.6176,-1.4475,20.2316,1.667,-6.9251,7.4145,-2.3364,7.3692,0.80086,-2.8423,8.5758,3.175,-6.6576,-16.6335,
-4.3403,-1.3609,19.0175,2.5311,-6.0274,8.4156,0.69608,4.9991,3.6451,-0.74333,13.3637,5.3948,-5.2941,-8.4049,
-5.0437,0.64894,14.0205,0.451,-7.594,7.9107,-2.7201,8.5555,-0.42953,-0.21679,10.1517,1.2148,-11.243,-15.131,
-4.0182,-0.59483,17.7586,2.1112,-6.8974,6.7131,-1.834,7.8012,-0.16279,-3.8192,4.9633,-5.3656,-13.2195,-22.6593,
-1.6079,-3.2107,21.2724,2.7074,-7.6884,6.5513,3.3377,2.7534,1.5342,-10.0975,1.532,-8.1772,-13.6316,-27.8072,
-4.6447,0.11521,17.3447,1.8218,-9.3965,4.4708,-0.96015,-0.06313,-4.5836,-7.8047,-0.24689,-5.5176,-12.0906,-26.3799,
-0.50966,6.3748,19.6785,3.1588,-8.3507,5.1669,-4.7589,7.6534,-0.93462,-4.9263,4.5882,-0.36583,-3.6524,-15.1562,
1.9313,1.1723,18.4975,0.55889,-10.26,3.4108,-4.9556,12.979,3.46,-11.3794,5.277,-1.7899,-4.8792,-16.6572,
-1.3181,0.86099,11.3626,-1.1614,-11.3312,5.3753,-3.4529,12.4413,1.5656,-6.5988,6.1657,-0.95962,-11.5764,-15.8987,
-0.9978,7.799,11.8854,-1.8153,-8.4824,3.8477,-5.4151,10.0078,-3.1083,0.30438,3.1444,1.2673,-14.9794,-11.3291,
3.6414,5.6433,13.8239,-4.8399,-9.6607,-1.9272,-11.1158,8.202,-6.5372,-7.6676,-4.0341,-1.9422,-20.1062,-12.3371,
5.8332,2.8949,13.4766,-6.9594,-13.9011,5.9019,-9.9667,8.674,-0.84209,-7.6893,-2.3456,-0.86155,-21.7916,-2.4376,
2.1088,2.7212,10.2574,-6.0599,-15.4776,10.368,-5.5123,4.7791,-2.2378,-4.3359,-2.6873,-2.2561,-21.4484,1.0831,
3.6695,5.209,11.8116,-0.15269,-13.826,2.2742,-4.9406,6.1796,-8.1291,-9.1374,-5.6591,-4.7718,-19.4386,-13.0819,
3.2083,2.2454,13.754,1.5442,-11.7912,-1.9596,-4.8851,5.5678,-1.6158,-5.4557,0.2241,-0.87011,-11.2824,-22.2996,
-3.2509,0.18221,10.5184,0.96889,-10.1196,5.8705,0.22848,1.3772,8.6043,3.0666,6.9589,7.859,-4.3392,-6.8616,
-6.1891,1.8587,10.1285,1.152,-8.3074,7.2057,3.348,0.089925,6.883,-4.107,-0.44784,7.1462,-7.2117,-1.509,
-5.0949,1.5062,14.5825,2.2881,-3.7111,1.2297,2.4242,0.80743,0.92636,-8.4399,-8.3752,1.6562,-9.4305,-15.5184,
-4.066,-2.6817,13.9482,5.766,-3.2477,-0.049101,1.5557,0.51779,0.14765,-0.94431,-3.7751,3.2439,-10.0697,-20.7333,
-3.3399,-3.003,12.6292,6.3842,-5.9451,2.8461,3.3903,-0.47738,3.0311,-1.8517,-2.1025,4.0133,-14.286,-10.3305,
-3.3807,1.2748,15.969,6.2423,-10.6499,1.4703,1.0179,1.7207,3.5723,-11.1404,-8.0017,-1.2889,-14.6339,-13.8078,
-2.9367,2.4034,20.5543,9.001,-5.4314,3.551,0.71566,10.5353,3.5987,-7.8207,0.43191,1.9217,-1.946,-7.9179,
-5.6528,-1.5975,15.4648,4.1224,-4.6238,2.3739,-1.2552,13.2774,-0.47334,0.36112,11.493,6.1449,0.099173,1.716,
-1.6982,4.0425,13.3317,2.6698,-10.3719,-0.41967,-3.3491,10.7935,-0.20397,0.58088,3.814,3.6071,-9.7887,3.3002,
3.9471,7.4151,15.1831,0.34066,-14.811,1.2925,-7.2457,4.6025,-1.3968,-12.7106,-10.5148,-3.1175,-14.7452,-0.99536,
6.3616,5.2827,11.6208,-5.2236,-12.7173,6.2764,-9.9447,3.1213,-5.4106,-18.9376,-13.1382,-4.6175,-9.7629,-3.587,
2.8466,4.725,8.7546,-6.5972,-8.821,-0.12549,-6.6962,4.621,-1.4703,-11.2936,-1.5034,-2.171,-12.7923,-10.8433,
0.74765,6.8517,11.1214,-1.3811,-9.7376,-6.8669,-1.4742,5.79,2.9562,-4.3495,2.9251,-2.0408,-17.8098,-19.8337,
2.872,5.2353,10.2131,0.87137,-13.2511,-1.8756,-3.5549,2.7911,-1.3185,-6.7396,-0.38385,-5.0518,-13.6078,-20.8128,
6.5563,2.5113,9.1186,0.33693,-11.0096,-0.31655,-4.3057,1.66,-1.2391,-7.7813,-5.6628,-4.2665,-9.8986,-8.4771,
3.2704,3.8064,9.5354,3.2088,-10.8314,-7.5284,-4.0474,2.0423,1.2453,-9.725,-5.8054,-3.0467,-11.2333,-2.1839,
2.11,6.4707,12.3375,3.9808,-11.6275,-5.6307,-2.8404,2.8838,1.1704,-8.1774,3.7017,-1.4174,-7.1846,-9.7654,
4.3938,3.1902,10.1512,-1.0785,-10.4477,-6.2569,-4.116,0.30046,-3.7203,-8.1685,1.5517,-3.2608,-8.2,-14.9643,
1.9608,2.2757,7.3728,-0.29115,-6.6876,-12.3892,-2.664,1.0056,-0.84578,-6.9552,-2.639,-1.8596,-6.9849,-12.3789,
-4.6646,7.6825,11.5099,9.1266,-5.5632,-8.9945,0.14715,9.3811,9.0871,-1.9588,6.9195,6.2055,-0.058091,-11.8774,
-16.436,8.1857,13.2297,9.0611,-3.7834,-8.4546,-0.34384,11.7106,7.5778,-0.87722,9.3967,7.2792,-5.357,-5.3804,
-14.7265,10.828,13.1588,8.7584,6.8079,-11.5628,-0.56418,11.2489,6.3998,3.2728,10.0377,7.5658,-6.7228,9.0424,
-3.2379,13.0706,15.7435,17.8737,17.4865,-18.1001,-0.53055,8.1636,9.8724,4.0405,12.8097,9.0398,0.42922,18.7437,
5.874,10.1172,23.235,22.3448,25.8373,-27.8599,5.5273,4.0584,12.4135,4.5214,11.8001,13.0772,4.0189,14.4856,
-0.021801,-1.3363,19.1896,17.3885,25.0102,-40.2883,6.8826,-6.0673,10.4632,5.4552,5.5487,9.6408,0.64404,1.8061,
-4.6,-2.4612,18.7613,26.2274,28.0891,-45.4635,7.1928,-10.2823,13.4511,8.2612,4.4927,9.7859,5.6673,-2.3994,
-3.3599,-0.38509,15.7077,28.5103,27.3678,-50.4482,3.869,-19.3066,8.3055,2.4631,-2.0436,7.7527,0.98872,8.8316,
-0.74796,-10.0032,9.9443,21.4973,29.1,-61.5213,4.1185,-32.2482,2.5043,-1.5413,-1.9208,3.4309,-2.4453,7.8195,
6.2866,-14.9464,15.3734,25.2689,33.8617,-59.8792,7.969,-34.7723,8.3798,3.6126,9.0405,6.8403,8.066,-4.46,
7.1147,-13.3267,13.2457,24.9576,27.2507,-47.3686,6.768,-35.3371,7.636,1.7086,11.1492,5.2246,9.2688,-0.57699,
4.5184,-11.322,10.282,22.2551,25.3745,-45.2492,5.1568,-35.8682,5.0089,-2.491,13.1315,0.33203,2.6873,9.3398,
5.2114,-10.1605,13.0393,25.7403,28.6725,-42.5344,4.3652,-29.8599,7.6002,-0.4136,17.1641,4.6502,7.8285,3.4765,
5.863,-11.961,11.775,23.232,24.542,-40.4643,6.5135,-26.1397,6.6627,1.5399,11.314,3.4073,12.1795,-9.747,
2.6187,-10.7614,12.0324,22.8019,19.2126,-41.4111,9.979,-30.8385,4.8163,2.8933,7.2607,-4.028,2.2893,-9.1622,
0.53341,-8.1876,13.7211,23.3625,18.0603,-40.3723,6.0063,-35.2545,3.0815,0.79194,3.4511,-6.6783,-7.4886,-11.0226,
5.0807,-5.0452,9.2824,14.4885,10.9512,-34.3347,0.10231,-34.8267,-0.71883,-8.1741,-3.7463,-4.1085,-4.8701,-24.4612,
8.3915,-2.5731,7.038,14.8242,8.1247,-24.8031,3.2294,-26.2291,-1.8808,-7.4425,2.5042,-2.175,1.9298,-19.981,
2.1034,-8.2033,8.5443,20.2017,15.35,-20.9043,3.5176,-20.799,-1.7679,1.6812,3.8003,-6.8647,2.7783,-4.6822,
1.4953,-9.1574,11.8876,18.0258,18.2854,-18.6857,3.7885,-20.5151,4.6047,5.4367,-3.6586,-2.5965,2.1292,7.0477,
4.5388,-5.9566,15.2719,13.3286,10.1986,-15.8776,9.5869,-19.0433,9.3903,4.3874,1.6228,10.3335,0.31449,8.7942,
2.0973,-3.912,14.1147,14.2161,7.8995,-6.0069,7.8064,-14.7674,6.1753,4.847,10.4431,10.4364,-5.7299,10.4357,
0.76621,-5.3645,10.6167,12.1583,10.0771,-2.513,0.83056,-14.1223,4.1176,3.8333,6.2011,-4.2897,-7.0734,2.3378,
2.166,-5.5246,18.6563,11.4283,7.0619,-10.0754,7.5292,-14.7213,11.1014,4.0852,5.3471,-9.4553,-0.86484,-11.9025,
-4.9533,-5.916,19.7061,10.0197,4.469,-12.6039,9.729,-16.0071,13.0864,4.5635,10.0879,-5.7545,0.87474,-20.4679,
-6.5846,-2.1873,16.1134,10.3826,10.4671,-0.76069,3.8424,-12.1547,12.7834,8.1458,5.1436,-2.0354,4.6784,-8.153,
-4.7432,-2.5375,19.9673,13.1341,8.8752,2.6594,4.0942,-11.4251,11.5344,5.7289,-3.8416,-2.3948,4.3977,4.3877,
-1.3252,0.74778,22.3847,11.6232,1.8352,-0.63364,6.0177,-6.6421,8.6732,2.2517,4.3431,-2.9745,1.0008,-0.45484,
-0.52274,6.2465,18.3905,7.3104,-0.44404,7.3581,3.0056,1.2283,6.4656,-0.052586,7.6974,-4.9651,-0.26452,-3.561,
-4.1066,8.0411,18.4921,9.0407,-1.1405,16.3169,4.5122,5.2522,9.6928,0.6737,-3.1285,-3.4622,0.47448,6.0529,
-3.1373,5.8714,20.998,7.7753,-9.5082,12.2044,1.108,7.1062,8.3884,-0.57202,-5.1099,-3.4954,-1.7232,3.0381,
6.21,8.8936,24.0765,5.8626,-10.8659,15.3285,-3.7787,11.0181,5.4745,-1.0196,4.8376,-5.6958,1.2723,-2.4468,
2.9453,5.9494,20.2217,1.6544,-16.9624,18.2652,-7.4084,8.9108,-1.1205,-3.3686,0.69097,-5.3541,-0.73223,0.11013,
-0.1239,4.1462,19.9723,3.9653,-17.8729,16.2054,-6,10.3043,1.3569,-0.2744,-0.79674,4.1262,-1.6526,8.7806,
4.2221,7.2721,26.487,6.1377,-9.5699,12.3408,-2.7477,9.6863,4.1677,2.6344,-2.195,3.3965,0.85689,7.2897,
5.6558,8.0408,29.9592,5.5283,-5.8624,10.8772,-1.8597,1.6331,1.2663,1.2712,-8.089,-5.2432,0.56428,-2.5479,
2.6653,7.3174,28.4026,7.8481,-4.7878,9.9836,-1.9891,0.81221,5.7701,2.8822,-4.9522,-2.2775,-1.1563,-0.70782,
-2.3149,4.4682,22.8421,5.931,-4.0181,5.5282,-5.7262,1.7278,9.2803,0.78106,-3.6907,-0.21222,-4.9434,4.1554,
-2.8996,3.9589,27.9793,6.2982,-3.0544,4.9553,-4.6595,1.8649,8.0003,2.9036,-6.121,-0.44114,-0.067693,7.0393,
-4.6538,1.7932,27.7468,5.9203,-5.7632,1.7655,-2.9336,0.78865,8.9666,3.2113,-2.8613,2.4778,4.2751,9.5095,
-6.5437,2.4085,23.4304,5.8061,-5.1764,-3.4017,-0.58845,1.4647,9.6339,2.7777,6.2285,5.9446,5.2239,7.7336,
-3.9817,0.57702,26.1222,6.6628,-2.2145,-4.8846,-2.7225,0.17175,10.7428,4.7804,4.6497,2.4547,4.1874,1.7262,
-4.9479,-3.0728,29.1344,9.8787,-3.2867,-2.4226,-5.2105,-0.56169,15.1597,8.5907,1.7194,2.0662,4.1769,5.7197,
-12.123,-5.0578,23.7711,8.5628,-5.2584,-5.8924,-2.2466,-1.2511,12.0812,7.3526,1.857,4.5935,4.1674,15.7407,
-9.7086,-3.5493,23.0675,6.3616,-2.774,-1.9237,0.057172,2.4391,9.6689,5.224,-0.42383,4.5591,1.2661,16.9656,
-1.4129,2.4483,27.9504,7.9081,0.7669,10.7252,-2.8383,6.1492,9.0887,3.9462,-2.8085,2.3574,-1.7024,13.0552,
-6.1491,3.2655,26.2732,5.5056,-2.1714,12.0097,-2.6678,2.8879,6.615,3.7097,-4.086,3.18,-1.1181,7.9333,
-15.6621,-4.4023,18.6712,4.9339,-8.5491,3.3354,-2.2668,-3.7928,5.9771,5.6562,-10.3488,-0.14425,2.0825,3.8419,
-12.7939,-5.5842,18.997,8.4945,-3.2152,1.2073,-0.68472,-2.1192,9.9571,9.6554,-11.1739,-1.0997,2.4397,-2.6549,
-11.3034,-1.1518,25.8114,5.8156,-2.2994,-0.070452,-4.2591,2.1053,8.6367,6.9069,-8.3339,-2.7209,-4.2146,-16.5956,
-8.4558,2.533,30.288,8.6,-4.8127,7.4054,-3.7623,7.0409,9.8055,6.2513,-6.6288,-2.7984,-3.7206,-19.818,
-8.9125,-0.99368,22.2044,6.156,-5.4881,8.8895,-2.0905,3.7261,7.2892,4.4302,-12.9797,-3.5946,-9.7641,-4.5289,
-7.8958,-0.93406,20.8717,3.8584,-7.087,9.8023,-2.9294,3.9845,5.4056,3.2001,-13.6472,-2.897,-8.6963,6.2274,
-6.9402,-0.39608,20.1013,2.1807,-8.5899,10.1781,-3.7175,4.7093,4.117,2.0442,-13.7927,-2.2412,-7.6926,7.3001,
-6.0416,-0.37208,18.8955,0.12141,-10.003,10.5315,-4.4586,5.3908,2.4239,0.95745,-14.4112,-1.6246,-6.7489,8.79,
-4.956,0.37337,18.4849,-1.0909,-11.0898,11.1047,-4.9142,6.2725,1.0734,0.17687,-14.7516,-0.804,-5.1384,9.9501,
-2.9714,1.5563,18.5811,-1.7484,-11.1473,13.0899,-4.3779,7.5838,0.76804,0.40723,-14.1074,0.93146,-3.1429,12.0046,
-1.3471,2.9089,18.9123,-2.1256,-11.443,14.2325,-4.1155,9.0567,0.72172,0.38302,-13.2612,2.3216,-1.5083,13.6942,
0.90338,4.4216,19.4648,-2.721,-11.4793,16.0301,-3.1456,10.6825,0.43745,0.60101,-12.2246,3.8695,1.2333,16.0061,
-2.0433,3.6739,16.3687,-2.5577,-13.6826,14.5859,-0.06439,7.1495,-1.517,2.0112,-13.4193,-4.5573,0.67738,10.7074,
-4.813,3.4537,9.6017,-1.9221,-13.8258,11.7828,-1.0246,5.7564,-4.3183,4.3004,-11.6496,-3.3198,-0.80929,9.5828,
-5.2472,4.9337,7.8208,-5.4222,-13.2372,12.763,-0.72218,8.5441,-0.44374,0.90938,-6.3713,0.97674,0.4441,11.177,
-10.9583,3.9143,6.1463,-5.3383,-13.1663,12.7202,-1.8841,8.7543,0.78818,-0.35048,-8.1582,-1.7334,-2.2336,0.62396,
-15.362,1.5103,2.1621,-6.7052,-14.0636,7.8596,-4.4222,4.6141,-2.8745,3.7679,-12.2485,-3.3166,-6.6794,-11.7055,
-11.7892,1.6607,4.2015,-10.4003,-12.4969,6.1827,0.42243,2.1676,-1.9792,2.8189,-15.129,-1.9124,-7.0015,-5.4596,
-4.5742,3.7304,5.1545,-6.643,-12.4702,8.4631,1.1202,5.1708,-1.6192,-2.4121,-20.7289,0.85371,-9.7147,4.7497,
6.0641,10.0141,6.0505,3.1556,-10.0347,14.9452,0.81204,14.2606,-1.2811,2.3124,-18.7618,5.3818,-7.927,4.2237,
0.15692,4.8342,3.0361,-2.0952,-15.9399,10.4333,-0.92368,9.3078,-3.8556,3.8606,-19.3236,-1.4484,-5.7639,-6.3933,
-13.1089,-1.9638,0.20288,-8.477,-18.117,4.7456,-0.6273,3.6877,0.47313,0.49595,-15.0307,-4.495,-3.7308,-5.7688,
-17.1428,-4.7383,-4.1478,-8.9324,-17.0297,1.0866,-1.0718,2.0204,1.4093,-3.39,-9.7903,-5.6713,-4.4711,-4.4585,
-9.8478,0.36627,-2.4527,-7.9146,-15.526,3.4316,0.43875,5.7555,-2.0502,2.5976,-7.2747,1.8994,-0.82881,-5.1553,
-9.2569,1.7906,-0.37735,-11.2961,-13.6306,6.1177,-1.5158,5.8921,-4.8192,4.3699,-13.5871,5.1599,-2.7073,-2.9178,
-10.1475,-3.1374,-3.7294,-10.6185,-7.9923,4.7866,1.9494,3.1283,-5.4942,0.73348,-17.1104,-1.8984,-9.2935,-0.33241,
-9.7799,-6.5643,-7.1208,-10.2222,-5.8253,-0.56207,7.8582,2.6998,-5.8876,1.8945,-15.8426,-4.9178,-4.1564,-6.3382,
-14.7362,-10.7497,-4.5244,-10.8137,-10.5374,-0.76931,5.6995,1.333,-1.919,6.3606,-15.615,-1.4892,3.5653,-11.9833,
-15.5393,-8.418,-6.4221,-12.8164,-13.0387,4.8205,1.7421,0.52966,-1.5629,4.2917,-13.9552,-1.1589,2.628,-2.3464,
-9.0638,-2.3693,-9.6522,-12.7708,-10.0872,6.2185,6.6988,3.149,-5.5664,-1.5094,-14.3231,-5.1872,0.78308,8.6406,
-7.7963,-0.05775,-13.1702,-11.7633,-8.2765,4.1584,8.4667,9.9501,-4.9913,-3.5882,-15.1507,0.18597,-0.9509,8.3634,
-11.9081,-0.77742,-19.3696,-13.7084,-11.3951,2.7038,3.3792,12.4864,-3.9687,-2.6498,-20.267,7.6468,-5.4734,10.5129,
-13.8451,-0.4898,-20.859,-12.6454,-14.8092,-1.5563,1.9712,6.1936,-6.864,-0.80357,-27.4871,3.0902,-9.7247,5.7843,
-13.0142,1.468,-20.0896,-9.9582,-13.9204,-2.9089,1.3707,3.4116,-7.8982,0.69068,-26.802,-1.9157,-13.9615,-8.6627,
-12.4746,-1.7538,-25.8739,-12.0121,-14.7726,-0.56544,0.56535,6.3402,-8.1474,-0.55583,-23.9888,0.85059,-20.5958,-9.7095,
-7.1468,2.9312,-25.5267,-10.5684,-11.2347,1.1557,4.1468,11.9853,-5.0075,-3.1736,-25.2006,4.415,-11.4061,4.9731,
-4.7893,11.9143,-23.0308,-4.6317,-12.0069,0.60444,1.9698,10.7843,-3.7427,-2.0193,-26.5811,2.2219,-1.5627,8.6518,
-10.046,7.1021,-29.1208,-7.9692,-19.2402,-2.5653,-1.2818,3.6297,-4.7235,1.2354,-25.2272,-0.080591,-11.3509,-2.2316,
-9.684,4.0247,-30.5068,-10.1424,-16.3988,-1.2059,5.3028,10.4016,-3.7169,-0.52622,-21.0622,3.0575,-14.2855,1.9998,
-7.8977,4.9885,-30.8455,-9.2924,-13.2453,-0.41062,5.226,15.803,-5.1811,-2.6634,-19.0751,0.22296,-8.8486,7.4235,
-10.0751,-2.3009,-32.6105,-8.9761,-13.6561,-3.0373,2.2612,5.4551,-3.6652,1.5936,-17.6899,-2.4417,-13.3794,-6.2786,
-9.9528,-3.127,-30.6541,-5.0633,-13.8008,-2.3729,3.0891,3.6813,-3.9275,1.0158,-17.1106,1.079,-16.4332,-15.543,
-10.32,4.2915,-32.1888,-4.7595,-14.9009,-0.78427,2.4218,15.0296,-6.5839,-6.276,-16.5659,0.049919,-2.4316,-4.9695,
-14.28,1.3829,-35.8011,-9.0532,-14.7298,-1.9425,2.5175,15.3331,-5.9479,-9.0325,-17.7411,-11.2813,-0.11652,2.8005,
-10.0488,0.81755,-28.3508,-6.0999,-10.472,0.58417,6.2228,12.003,-0.77074,-2.7059,-15.7128,-8.1938,-7.8223,3.1148,
-7.2765,4.8661,-30.265,-7.4209,-12.9765,-1.1379,0.30609,12.9698,-4.8216,-6.6412,-19.3491,-0.2306,-7.5937,2.2048,
-4.9122,6.0204,-33.2693,-4.5655,-13.1622,2.3048,-3.0867,13.6379,-7.9068,-8.1709,-20.5987,-0.6987,-2.3178,4.9646,
-6.0635,1.8025,-29.3452,-2.8455,-12.3727,1.6844,1.919,8.481,-8.8784,-2.8601,-20.8088,-4.5134,-9.8918,0.32863,
-4.0122,6.7563,-22.0407,-1.4697,-8.979,-1.5499,9.7578,10.6235,-2.8023,2.3729,-14.4989,4.1933,-6.1645,2.9602,
-0.6382,7.0736,-27.7083,-2.1047,-8.1993,-3.1444,7.9673,12.1555,1.9453,1.0255,-9.5314,8.0393,5.5333,9.2899,
-0.59991,3.2752,-29.4198,-3.9066,-9.6356,-1.5095,4.5967,9.9799,1.8286,2.4102,-10.8877,1.7724,4.7194,9.2149,
-8.036,2.3551,-26.45,-4.3953,-16.0473,-1.1777,3.1158,9.1399,-2.3787,-0.38573,-12.8862,-1.4677,-4.964,3.6001,
-7.7945,1.0092,-33.2985,-1.4803,-19.6637,-0.38391,6.0621,7.8684,-7.2974,-6.8703,-13.8,-2.1023,-6.8351,-2.1593,
-0.096709,-0.49787,-37.0854,-5.2481,-18.002,3.4953,4.7343,4.0221,-8.788,-7.9046,-13.9361,-6.3147,-3.0512,-6.8502,
3.2838,4.8344,-26.1834,-8.7894,-13.0655,9.0704,2.5223,7.155,-1.994,-1.6455,-12.6178,-9.3101,-3.8318,-7.4033,
-2.6981,7.4366,-21.7201,-6.816,-10.3534,2.2594,2.8527,10.5823,-1.3922,-6.3672,-16.6812,-12.6081,-10.833,-15.1541,
-6.1511,4.3393,-28.3706,-3.2735,-14.3114,-3.4198,4.3692,8.2601,-4.9236,-11.0464,-16.4032,-10.1644,-10.9059,-22.1986,
-1.9259,1.1867,-29.5611,-7.4157,-17.7915,-0.32229,1.6962,4.8722,-2.2183,-4.5993,-12.5272,-3.7701,-7.8416,-15.5642,
3.4923,1.1155,-23.9306,-6.0069,-13.3496,-0.30295,0.63058,4.5799,0.80688,0.01499,-12.2575,-2.0977,-7.3711,-1.615,
4.4876,4.1821,-20.8076,-0.10238,-9.8973,-3.4183,1.3156,7.4386,-2.8565,-0.70881,-10.3168,-1.2485,-1.3848,3.0612,
4.2188,5.8593,-17.6309,-2.5064,-7.375,-5.1414,1.2372,8.9205,-1.2388,2.2262,-3.4312,2.2009,3.0366,0.94982,
2.7601,5.7485,-15.8499,-5.9716,-0.42505,-11.8225,1.8856,8.144,-0.44185,3.7797,-6.8406,5.2016,-3.6533,2.0974,
1.8716,5.645,-14.658,3.3047,10.4467,-17.1387,3.4597,9.3426,-0.17391,1.8657,-11.9737,7.0592,-5.6033,7.5157,
0.55427,-0.23753,-14.5016,11.5424,14.8814,-23.1,7.3497,1.7924,7.79,5.8513,-7.1577,2.538,-1.6516,1.5209,
-6.9508,-8.6589,-20.139,8.1983,19.5321,-35.814,7.1497,-12.4151,7.0817,5.7412,-7.4516,-4.1217,2.0626,-12.6704,
-5.8108,-8.3808,-17.7258,10.8399,32.0985,-47.7652,7.4436,-25.0473,6.8977,5.1557,-5.7992,2.1511,8.4468,-12.7538,
6.3484,-11.011,-12.0825,21.5177,36.1986,-51.166,8.6842,-20.411,8.1711,7.9794,-3.2821,5.6375,6.7347,0.30398,
20.0675,-11.5554,-6.7781,27.2162,40.5344,-49.7833,16.1171,-19.9095,8.8859,13.5264,0.048066,4.5761,4.6434,6.7935,
21.635,-10.6211,-2.7564,24.3784,41.7177,-55.2322,18.2836,-28.5968,7.6298,16.3303,-0.19579,5.0244,12.3188,-0.12209,
15.9986,-9.9839,-4.5192,23.3977,36.8041,-58.185,14.2941,-32.6658,7.654,12.4579,-1.6303,5.6873,15.436,-4.935,
10.9409,-12.5183,-8.3454,27.055,37.7293,-53.0069,16.5694,-30.4651,7.9176,3.2748,-3.2197,1.7302,3.6634,-5.8444,
14.623,-11.767,-6.8806,28.8064,39.8041,-43.5595,22.3244,-27.1907,3.5864,2.1142,-1.0981,1.6266,5.8542,-6.9398,
21.4586,-11.0612,-3.5755,23.2214,33.0773,-39.4999,18.0927,-28.9338,0.96089,5.844,-2.9606,2.0112,15.626,-4.1128,
21.6171,-6.5414,0.9776,25.2023,30.6105,-34.2376,15.5606,-26.7158,3.3136,1.6367,-7.1215,0.444,12.2781,4.8103,
12.6075,-5.1843,-0.52708,23.6904,32.1486,-28.8089,19.4479,-21.2562,4.5608,-2.3181,-2.8376,2.3458,4.3106,5.9682,
0.52266,-12.3453,-9.4138,12.3868,28.5322,-28.2857,18.0398,-26.0066,4.5284,1.9186,-0.016059,1.4819,2.3647,-8.4899,
-0.23137,-14.2555,-9.5716,9.4747,25.6152,-24.9011,14.3061,-31.4357,5.4617,4.9372,-5.0765,-4.6323,5.8385,-22.0805,
5.0849,-11.4722,-0.80237,11.7985,23.5961,-20.5147,16.34,-25.2112,5.6162,4.6407,-6.7004,-2.9084,1.6318,-8.9453,
3.0924,-10.5426,-2.4417,12.7776,23.8678,-20.007,17.0471,-16.2267,3.5917,6.0493,-6.5391,6.184,-7.8661,0.99119,
-0.22642,-11.1151,-9.7668,9.3601,22.6765,-18.5654,12.4086,-15.0121,3.1355,5.4456,-7.8337,7.0185,-9.0814,-3.6476,
1.7154,-11.4126,-8.2169,8.3161,16.9776,-13.1133,13.1104,-15.0757,7.2857,4.1545,-2.0615,2.7405,4.9606,0.90938,
2.8175,-10.0047,-3.6263,9.5046,15.7177,-8.229,12.5649,-12.0018,7.0898,11.3773,5.0518,6.1917,9.2428,8.8088,
4.0945,-4.102,-3.4089,10.3803,16.7031,-2.9147,8.9183,-5.4971,4.7359,15.0327,4.7489,10.6407,3.8675,8.2805,
2.4028,-0.48163,-6.0967,6.3828,13.2905,-2.7399,10.3116,-3.2391,2.5238,3.0438,2.5356,3.2536,7.974,6.8196,
0.81258,1.4757,-5.7307,4.0719,10.5647,-1.6116,13.0671,-4.9732,0.44397,0.45079,-0.50886,0.16563,11.3517,7.8564,
4.3792,1.1462,-5.6278,4.5505,7.7616,6.9215,8.6677,-5.3977,0.6583,6.9317,-7.9501,3.2892,2.2349,5.6978,
3.1522,-2.297,-5.7725,1.8673,4.4039,7.952,7.6657,-4.1095,4.4752,-0.23313,-7.9551,-0.28263,-5.6119,5.8379,
4.6503,1.4562,-1.8107,4.8888,7.2727,5.3057,14.6776,0.71636,9.2684,-3.8346,1.9222,-0.024244,3.1607,11.0312,
9.1915,-0.55937,-2.184,2.1849,3.4619,7.8794,12.3507,-0.77288,1.9633,-1.6763,-5.4239,-1.469,3.9351,5.0667,
12.7378,0.19709,-1.812,5.6692,2.0493,21.5066,12.333,4.8171,0.64071,0.59344,-9.1958,3.1984,4.9043,7.8962,
1.6092,-0.53763,-6.765,-0.21458,0.23913,25.8806,8.4595,5.2514,1.8071,-1.6113,-5.993,2.7655,2.4407,7.6634,
-4.5129,-0.26441,-3.2256,-8.1554,-4.355,21.1943,6.2647,1.3205,0.97578,-1.7556,-7.3206,-0.53391,-4.2137,5.5163,
0.33719,1.9206,0.58336,-3.5688,-7.7091,21.6098,7.0941,6.7849,-1.2519,-1.4093,-9.5325,0.22149,-2.2737,7.3545,
-1.3696,0.60032,-2.5849,-0.70286,-7.0049,19.1086,9.3198,11.4397,0.02825,-2.0474,-4.863,0.93133,1.9606,6.1906,
-2.9746,0.32333,-2.1888,-3.3122,-3.9335,15.7925,10.4478,8.1022,1.7138,-2.166,2.9006,0.15255,1.6017,4.6139,
-1.8323,0.30393,-0.12932,-5.5241,-3.2156,14.8449,5.4822,2.7954,0.1647,-1.0722,0.79793,1.1073,-1.8688,2.4088,
-2.9272,0.52666,0.11987,-8.3257,-5.6737,14.1957,3.9484,3.8329,-0.086153,0.19791,-7.2032,1.7642,-3.4437,-0.86873,
-2.0287,0.2541,-0.12875,-10.4772,-3.1641,13.5849,6.845,3.8439,0.15998,-0.53732,-7.9763,-1.4752,-1.0679,1.8345,
0.74416,-1.4484,0.1204,-8.1614,4.9795,12.0464,10.0497,1.9261,1.8376,0.70021,-3.8823,0.78252,1.6475,11.1244,
0.45854,-1.6024,-4.4666,-8.395,2.9935,7.7082,8.241,3.0153,1.9683,1.3811,-5.3366,7.725,0.82528,16.4825,
0.18983,1.145,-4.4398,-10.5427,-1.7657,7.4869,4.1313,2.5937,-0.8011,0.093167,-8.1497,5.0926,5.3555,17.6629,
-0.30372,0.11223,-3.6912,-7.4997,0.2687,7.5194,3.4013,-0.93663,0.21106,-0.87652,-7.179,-0.51588,14.193,11.7822,
-0.7672,-2.3049,-7.3264,-6.0857,-0.71152,4.6584,5.1256,-1.8441,6.4651,0.6221,-2.8916,0.47963,10.9315,3.3627,
-2.4084,-1.9256,-5.1996,-6.4439,0.054075,2.6912,5.541,-1.0105,5.3539,0.34381,-0.067045,0.20943,0.87516,-1.4188,
-0.09473,0.35909,-5.1285,-5.8163,4.1482,4.6993,1.5931,0.73733,-0.51051,-0.88211,-0.78592,-1.008,1.5458,0.35359,
-0.089048,0.33755,-7.7129,-5.4668,-3.3311,5.3817,-2.3589,2.6213,-0.47988,-1.7931,-7.0053,0.016373,1.9352,3.2249,
-2.735,-2.816,-3.6349,-1.5236,-3.8548,9.6378,3.8085,7.0431,3.646,1.4478,-6.8262,2.1848,-0.83224,4.2365,
-8.5965,-2.888,-2.2115,-1.6732,1.9201,11.7111,7.6773,5.4156,2.7044,1.6019,-3.2831,0.36647,0.42299,0.84879,
-7.358,-1.5096,-2.32,-4.2241,-2.7746,9.321,4.5653,3.8856,1.337,0.30071,-3.8097,0.10328,1.1205,1.521,
0.0738,-2.142,-0.011684,-3.7297,-4.2949,9.4851,3.5685,10.6424,1.9797,1.9699,-5.2679,2.2667,0.33038,10.8297,
3.6846,-0.32644,-1.216,-2.3009,2.4705,11.0849,9.3802,14.101,0.17394,2.5748,-3.7468,2.3714,2.9616,13.3132,
1.0531,3.0674,-3.0715,-3.6088,-0.57003,9.4557,10.7453,8.4344,-2.2469,-1.9182,-4.968,-3.0733,4.7124,0.94548,
3.4001,4.8115,1.4516,-1.9461,-2.9464,11.299,5.2804,11.3028,-1.6301,-2.2851,-4.6699,-1.4426,7.8041,-1.5218,
6.5707,-0.29765,2.8105,-4.7216,3.0152,11.1032,3.5175,12.0711,-0.08581,0.74434,-1.4974,0.57191,8.2999,5.8005,
4.4893,-1.0027,-0.009224,-5.6436,5.0034,8.7498,6.4395,1.9469,2.0885,-0.50561,-0.68467,-2.5954,3.7044,2.8014,
1.5686,-1.6657,-3.1419,-4.5818,-1.8045,11.84,5.33,2.5527,1.2401,0.24786,-1.3667,1.1755,0.83077,0.46394,
1.9566,-7.3501,-4.8818,-9.1274,-2.6603,15.9501,5.4924,13.487,0.20156,4.5715,-0.80255,6.8898,1.2631,10.0768,
1.1159,-6.1862,-5.3118,-9.3031,-1.2954,15.234,4.4399,11.4725,-0.051502,2.61,-2.4416,3.3429,0.94611,8.2674,
-0.15613,0.69225,-3.7885,-7.0575,-6.2796,15.0431,1.5217,6.2046,-0.28961,-2.1261,-3.9826,-1.9196,4.9869,1.7456,
0.3354,2.0972,-3.561,-8.0805,-9.759,15.1046,0.94873,11.1348,-1.7183,-3.445,-4.7077,-2.2861,10.4721,4.5331,
3.2076,0.52535,-4.3114,-5.6673,-6.7631,16.6087,3.7841,15.2876,-2.5793,-1.3099,-5.3889,-0.22053,3.5775,5.2252,
0.60499,1.4577,-4.0527,-1.9528,-2.5009,18.5042,4.5209,14.3699,-1.9426,-2.1952,-6.5118,-3.5817,-1.4579,3.9474,
-0.87757,2.3346,-3.8096,0.092583,0.54167,18.8403,0.39373,18.3284,-1.826,-3.9917,-6.6031,-6.7413,4.8965,9.0137,
0.13895,-0.2161,-6.9554,-6.1799,2.9188,20.6019,-2.0405,18.675,-1.7165,-2.7883,-6.2073,-3.4448,3.6384,5.5803,
-2.0388,-1.4082,-8.7075,-13.2807,2.9849,22.499,-1.6773,13.9388,-0.89034,-1.8979,-8.0038,-0.10482,-5.016,-0.78027,
-0.46996,2.5329,-4.3284,-9.1097,-2.0147,22.1137,-0.61212,13.5847,-2.283,-2.7481,-8.9696,1.8299,-4.7151,6.9795,
-0.20103,1.6578,-4.3099,-3.9836,-4.0632,20.0637,-0.33465,14.939,-5.2797,-4.7526,-6.2625,0.99697,-1.2989,9.2116,
-7.1784,-3.5033,-4.7742,-9.2882,-0.20397,20.0652,2.8189,15.2479,-1.3475,-2.7802,-1.7889,-3.1602,-1.4617,5.5259,
-15.9069,-10.0418,-6.8981,-15.9615,-1.1558,12.1121,6.024,5.6557,0.66178,-2.1312,-6.5026,-9.2373,-0.41013,-6.375,
-12.7829,-10.1622,-5.279,-10.4245,-4.2195,4.396,4.4577,2.1834,-1.0651,-0.31613,-11.6556,-8.9241,5.6405,-18.2848,
-5.2673,-2.3219,-3.9981,-9.3169,-5.8948,7.0245,1.7799,9.283,-1.4834,0.185,-10.9565,-10.3166,4.8199,-6.1005,
-3.023,0.22803,-5.204,-14.5424,-6.9869,12.8696,4.5656,12.5824,-0.43007,-2.2362,-6.9246,-9.6976,1.6386,8.3655,
-3.0826,0.45531,-6.0971,-10.0545,-12.5937,14.2665,2.604,13.9966,-3.5378,-3.3073,-2.8937,-1.162,2.7452,7.02,
-8.9237,1.1509,-11.2749,-8.7283,-19.7918,10.7595,-8.398,16.2903,-8.8691,-8.6525,-12.1201,-2.7795,0.89322,5.3935,
-7.6651,4.2151,-9.3933,-10.8559,-13.0609,14.2115,-7.6534,21.3386,-5.6856,-7.4102,-14.5261,-5.264,-0.36544,15.4344,
-4.3129,0.58797,-6.9018,-16.4709,-10.3488,12.3947,-2.8557,16.6836,-5.8267,-6.4839,-10.2804,-5.9123,-1.7895,7.2773,
-0.67946,0.070528,-1.1848,-12.5903,-9.7281,10.2045,3.1005,16.6467,-4.0306,-4.1665,-9.1814,-2.6653,5.0665,1.0563,
0.80734,2.4767,-0.14959,-8.9426,-8.1799,13.9313,2.9147,18.0583,-1.3784,-0.54179,-11.0408,-1.0589,7.6548,6.7777,
-3.3387,3.5331,-8.0946,-13.4675,-11.7867,10.4436,-1.8402,11.9133,-4.9113,-2.6787,-11.5835,-4.611,1.1697,2.7554,
-6.0304,8.6238,-9.5371,-13.6238,-16.864,1.6223,-5.1038,6.8602,-7.9911,-7.3387,-11.8528,-6.7445,-1.7925,-4.1588,
-0.84811,8.1066,-8.0008,-12.8061,-18.7445,6.3454,-7.2079,7.8946,-7.9933,-6.8981,-12.5876,-2.9656,-2.6491,-5.3553,
6.9155,4.7277,-5.1106,-12.0382,-12.3176,17.0519,-3.4014,12.7236,-8.4781,-5.0384,-11.8324,-0.85944,-2.0082,2.6788,
-3.1404,7.3365,-5.2859,-14.208,-12.0605,8.798,-3.6793,8.5857,-10.8619,-9.0744,-10.6405,-7.0744,-1.8877,8.3026,
-15.7266,3.2807,-11.9584,-15.5249,-17.8446,-1.6121,-8.52,3.973,-8.0408,-6.843,-3.0124,-8.8193,-1.0513,-1.1134,
-5.624,-1.2549,-9.3127,-7.3626,-10.5074,6.6794,-1.2603,12.8937,3.5289,1.7623,6.3274,1.3508,1.4219,-3.9391,
-1.6709,-2.3842,-6.1026,-9.5721,-10.5996,5.0735,-0.46111,11.3969,-1.2624,-4.8507,-4.4164,-5.2379,-0.83279,0.39485,
-1.0885,8.8458,0.047896,-6.5874,-11.8921,8.6257,1.0126,12.1591,-4.0789,-1.6674,-8.4895,-7.334,6.4482,3.7454,
0.42263,9.7613,-4.7752,-7.1561,-14.5528,14.3747,-1.4583,14.804,-5.2804,-1.0854,-10.3907,-4.4834,3.1688,-1.2996,
9.0746,9.1759,-3.0427,-6.2445,-12.2333,16.405,-1.371,21.6288,-7.3735,-4.3945,-11.6952,1.5704,-0.39552,9.3834,
11.6634,9.348,1.2375,-6.5935,-8.848,12.7689,-2.4938,19.6079,-9.5829,-5.3359,-13.6448,-1.6575,1.3152,13.4,
9.2764,11.9206,1.8861,-2.1,-3.2555,15.1362,0.30736,20.1187,-3.9462,-0.43643,-6.8006,-5.6554,6.7799,6.0885,
2.935,13.1333,-4.0114,-1.4923,-5.9529,12.782,3.6631,20.8395,1.5934,-1.8563,-2.054,-9.6547,3.9628,1.3846,
0.58948,12.5865,-5.9401,-3.5717,-8.729,9.3638,2.2378,18.3841,2.2205,-1.5042,-3.1358,-7.8703,1.0737,2.5066,
1.2775,9.1802,-5.8247,-5.0446,-8.4462,11.9355,-0.54754,15.1119,-0.081905,-0.20862,-6.0812,-1.3725,2.2145,0.18705,
-0.0042451,6.942,-6.6803,-5.4651,-7.2163,12.9063,1.1728,15.4102,1.1285,-0.91923,-4.5112,3.7717,3.2867,-2.4755,
2.6471,7.7307,-6.5204,-1.0398,-5.0963,13.3372,6.6456,17.1372,4.1938,2.7513,-3.9996,3.304,4.7768,7.073,
4.4167,5.8209,-6.1294,-2.9054,-5.7544,8.1985,7.6933,10.8065,2.0143,3.0684,-10.0259,-4.1249,4.0084,6.6484,
1.7411,6.9174,-4.7973,-4.6593,-5.8913,0.47571,6.7493,6.7832,3.8211,3.3663,-6.0504,-6.2875,5.6957,-6.284,
1.8776,8.1896,-5.7148,0.6815,-4.8149,1.1701,6.5853,13.3661,2.387,1.477,-2.5539,-5.1873,5.5949,-11.4505,
10.4425,13.9652,-0.55118,4.0155,-0.66919,11.2232,11.0114,22.6875,2.2438,0.42456,-4.8107,-3.4298,9.598,-4.9785,
9.0924,13.85,0.20503,-2.2512,-3.2806,10.3086,10.1095,19.1569,3.7962,2.0861,-5.2452,-4.9111,8.7809,-8.2954,
3.9673,6.9932,-6.7974,-3.3216,-7.6633,6.5569,6.3692,13.9099,0.91708,4.1303,-1.3153,-3.8937,2.2283,-9.0028,
6.3808,11.1533,-5.6662,2.4213,-4.0702,10.2608,5.2642,15.7268,-3.2353,1.7133,-0.99544,-3.9011,1.8536,2.3837,
5.2751,20.8485,-1.2289,2.5174,-4.0667,9.8866,3.2611,19.8449,-1.8359,-1.041,-3.5868,-2.4617,5.3583,7.7843,
-0.3443,18.1511,-3.0835,-4.8647,-9.1254,9.7751,1.1375,23.9566,1.1666,0.46793,-2.8894,4.4347,5.0366,11.6558,
-2.734,6.4569,-8.6829,-6.9832,-10.0241,13.0452,1.069,23.9652,-0.34947,-0.042312,-3.6802,7.0609,1.3601,22.5253,
-4.9801,-1.1613,-15.8751,-7.528,-7.0125,5.0316,-4.7797,19.1529,-1.7748,-2.4504,-3.4594,4.709,3.2063,21.1738,
-6.3683,1.0777,-15.1634,-3.9431,-1.5301,-6.5987,-6.6619,16.3167,2.9112,0.34844,2.2916,5.1496,12.4141,5.8034,
-0.2016,5.3514,-8.9509,0.6318,4.8284,-13.4336,-1.9238,10.9989,0.32598,2.7377,0.70783,7.7327,13.5975,5.3347,
7.5233,5.5123,-4.5575,4.4503,18.0361,-19.376,6.8682,2.6262,-2.1037,5.4655,-3.191,10.6432,8.4433,19.1146,
1.0459,-0.84403,-6.9356,3.9423,27.8002,-32.3135,11.9997,-8.3772,4.5305,7.7886,0.61586,6.8716,5.7675,10.3757,
-11.068,-12.3625,-15.1961,0.33131,24.204,-44.4747,3.085,-21.9745,5.2225,6.3574,2.5071,-2.2178,3.0109,-4.3469,
-2.6909,-11.6206,-8.9819,12.8447,35.7669,-53.3756,7.2385,-23.4281,10.694,13.2066,8.6234,3.7001,13.9177,-4.9299,
-0.36051,-15.0209,-6.2736,13.2791,37.7185,-58.6089,9.4551,-30.9402,9.3292,9.7629,7.3829,4.2007,15.2516,-8.2493,
3.9999,-15.5655,-1.5589,12.9647,33.5272,-60.3948,8.4063,-35.3503,14.554,10.1414,9.8324,4.4311,11.9263,-21.8543,
10.2676,-14.8727,-2.6704,18.2126,32.7206,-56.5302,6.2144,-33.4705,13.922,10.2561,8.5194,5.3703,10.0057,-15.8431,
13.9899,-18.3191,-6.8485,19.048,35.5781,-49.282,4.8772,-34.3548,2.4814,0.96362,2.7055,2.6379,7.9591,-5.7337,
18.9355,-17.2195,-3.5451,20.3153,36.8179,-41.5043,7.9595,-34.2213,0.40429,0.42387,1.0974,-0.4124,3.6256,-4.9073,
13.4606,-14.2582,-4.2967,19.0964,30.7524,-39.0141,4.1075,-31.2041,0.86196,1.3628,0.54917,-2.7982,0.033636,-5.5772,
4.458,-10.0285,-2.5929,22.7711,38.0661,-30.4065,5.3071,-19.2087,8.0413,3.209,12.0856,7.0108,11.6005,-1.8678,
0.3344,-12.319,-4.8476,21.887,37.2281,-24.7257,7.399,-14.1996,11.8974,5.4268,15.699,9.0006,12.8329,-0.30974,
6.8218,-10.3751,-5.7616,16.9583,27.0407,-21.0732,8.6418,-15.0353,5.1575,6.7884,7.2853,2.4345,7.4832,11.519,
13.4022,-9.0294,-4.6928,8.9512,21.8031,-22.4599,6.9183,-20.6404,-2.1416,1.3196,-1.1058,2.0477,6.7935,12.0329,
15.0084,-9.9337,-4.4115,6.0038,20.4947,-18.2201,2.647,-19.8842,-0.56703,-1.1699,-3.9317,6.2629,5.9037,4.0803,
11.6975,-5.9634,-7.0391,9.0178,21.1929,-7.0039,5.8624,-12.9068,2.8412,4.2027,-6.1062,3.4768,3.1391,7.6916,
9.5496,-4.6415,-1.7962,9.9227,25.7062,-7.0659,13.2232,-11.1683,6.0454,11.1812,-4.2938,2.7865,1.5048,5.7841,
3.1918,-8.7016,-1.6887,5.4712,23.1997,-10.9802,8.5737,-16.2825,7.6107,6.6541,1.2667,5.0297,-0.03156,-4.2041,
-2.543,-6.4921,-6.6488,3.4559,18.6745,-2.3672,4.4441,-15.0644,10.2877,2.1573,2.8777,4.4867,1.6573,-1.7825,
3.1529,-1.523,-6.0087,8.31,18.2771,4.7644,6.8287,-7.1709,9.4293,6.1255,-3.3207,2.0481,0.83476,3.3859,
8.0254,-0.70873,-4.9253,7.5705,13.0827,4.7195,7.1419,-3.6076,2.3556,2.6244,-8.6651,-1.2078,-10.5435,1.4955,
7.7849,-0.90717,-3.9064,3.9827,10.6105,9.4976,5.5081,-1.222,1.9733,-4.0405,-1.6373,-1.3768,-11.1162,0.20051,
7.7997,-1.3347,-8.9747,0.85126,7.5637,6.0357,0.8393,-5.487,0.89101,-5.7263,2.3174,-3.2224,0.638,-2.7036,
15.5269,5.4939,-9.4005,4.6566,4.6998,7.1198,1.2709,-5.1578,-0.12677,-3.4545,-3.1243,-3.9929,4.4561,-4.9515,
17.4876,8.057,-4.4979,2.4492,2.9718,15.8514,3.123,0.93652,1.8093,-4.2113,-1.9728,-3.2712,-4.4881,-5.1366,
9.4484,1.5475,-4.9509,-4.2057,-2.2682,12.2488,1.2484,-1.7712,3.8699,-5.6459,3.6892,-2.352,-14.101,-3.6235,
5.2661,2.66,-7.7874,-0.81985,-4.7832,11.2733,-0.031765,-0.45966,0.98658,-3.138,-0.6295,-0.52364,-8.1933,8.8864,
8.0834,5.6336,-7.0789,-3.9039,-5.7017,19.9967,-2.6812,4.1474,-5.5808,-3.6728,-9.0276,-3.1435,-2.1581,11.0045,
10.25,1.6802,0.33521,-6.8032,-5.6006,19.0379,0.13124,1.7294,-2.1125,-4.6577,-8.7269,-4.1602,-5.1621,-0.020068,
8.1885,5.4356,4.6537,1.3176,-1.408,13.0751,6.3897,-2.7129,4.281,-2.4499,-3.3833,0.42794,-9.1909,-0.50103,
5.287,7.52,-0.44582,-0.68922,-1.3235,9.8805,-0.26024,1.7882,3.0603,-2.3029,-1.2516,-1.044,-7.6751,-4.3269,
2.0775,-3.0543,-5.7219,-7.8785,-6.0645,7.8416,-7.4752,8.4296,-1.4619,-4.575,-1.6587,-7.73,-2.876,-11.7803,
1.4707,-3.8352,-4.4141,-4.9959,-4.7366,13.6374,-4.1344,9.3703,0.071881,-1.8902,-1.077,-3.8915,2.5989,-4.8067,
-0.30476,-1.9178,-5.355,-8.7935,-1.3194,14.9883,-4.6097,2.3001,2.7187,-2.5001,-2.2177,-0.52503,4.1302,-1.8672,
0.19569,2.0534,-3.5872,-8.2656,2.6164,8.7866,-0.95846,0.71611,4.002,1.5065,-1.6025,0.47057,4.3646,-5.1294,
1.8712,0.24343,-6.0231,-6.0825,-1.1555,1.27,2.2325,0.91411,0.14649,3.1033,-8.4957,-2.6907,0.48728,-6.5084,
8.2666,-1.9406,-5.9029,-9.8151,1.5647,2.3984,0.41112,2.0643,0.37844,-1.6624,-12.084,-4.2167,1.1812,-2.0208,
8.4937,-0.61907,-2.8974,-10.9132,4.1221,3.942,-2.2649,3.1455,-1.3313,-3.7316,-8.7072,-3.2406,3.2797,-0.21254,
6.2967,1.5875,-1.0365,-0.85863,0.2596,2.5004,1.4867,8.0187,-2.9384,-0.85682,-5.5339,-0.87675,2.8417,5.826,
9.0526,4.1435,-3.6257,2.8081,-0.9615,2.1092,2.6025,9.2246,-1.0751,-2.4924,-6.4069,-2.0292,3.8763,9.0916,
5.8581,0.76121,-6.0595,-3.8681,4.1581,2.2238,0.277,3.1273,-1.2518,-4.9942,-5.7813,-6.005,0.51044,0.11022,
-1.2423,-3.1408,-1.8395,-4.5999,7.765,2.0904,7.9732,-0.43437,4.6079,0.12618,0.83206,-4.6809,-4.3409,-8.573,
-0.92656,-5.1213,-1.0055,-3.6008,5.1297,2.6881,12.0743,-0.6495,7.9471,1.8056,3.9159,-2.7126,2.9094,-6.3714,
1.5392,-3.3682,-3.8377,-3.8671,4.34,4.455,5.0833,-1.5749,3.6139,1.6973,1.7523,-5.9243,11.4117,-7.4356,
-1.2045,-0.51483,-1.9205,-4.8402,2.3921,4.4284,2.6089,-2.203,3.1558,1.8366,2.8522,-6.7739,3.7374,-11.0868,
-0.65008,-1.93,1.569,-4.5495,0.32064,4.163,4.8627,-0.14289,4.4125,-0.68392,2.6813,-3.4751,-4.6818,-1.2626,
1.0762,-3.5014,-1.1762,-4.518,1.5062,5.6004,4.33,0.10665,1.0147,0.080012,-5.4338,-4.9539,1.6247,-1.4278,
-0.67564,0.32411,-6.6493,-9.3081,-1.2352,5.9873,-1.4734,0.82315,-3.144,-2.5759,-8.2408,-4.8976,3.6963,-11.2243,
0.56996,5.3661,-2.1532,-7.5446,-0.43798,4.423,-4.5187,7.7634,-1.7503,-2.6625,-2.6849,-0.50662,-2.5512,-2.5971,
-0.42833,-0.74067,-0.095589,-4.6815,2.4806,5.1217,-3.7654,1.5133,-2.6093,-2.9849,-5.4161,-5.7786,-9.1468,6.7175,
0.07953,0.75026,-1.0539,-5.3647,3.7778,15.9014,-0.64721,1.9046,0.43998,-0.87742,-5.0909,-7.3599,-2.3313,1.4944,
-1.6127,3.8385,-2.1958,-8.1761,0.89979,15.6704,0.59714,9.2619,3.0649,0.38029,0.75794,-5.7132,8.1727,-9.4415,
-6.0952,-0.97109,-5.1975,-5.0345,0.60484,6.7765,0.31989,4.1269,3.122,0.59844,0.95343,-5.6114,8.4057,-13.4545,
-4.0425,-2.1179,-8.5009,-3.5273,-1.1185,9.0212,-1.3863,-1.6641,6.5498,-0.1606,-2.719,-1.1776,5.25,-5.1754,
-7.6561,-1.0267,-6.5448,-6.208,-5.8718,13.7824,-0.82096,6.6302,6.1571,-1.1151,0.33646,1.3034,6.863,5.7404,
-12.4994,-0.96512,-9.0441,-7.2818,-10.3402,10.5453,-0.28977,12.4994,0.48501,-0.56576,2.7264,-5.0413,5.9693,0.57525,
-6.2058,4.6359,-11.635,-5.6396,-6.5863,11.1174,0.45052,9.0979,1.6607,0.19108,-0.57067,-4.4979,-1.3787,-3.0747,
-5.8337,9.1787,-10.4547,-6.7472,-4.7451,11.8968,-1.0225,7.5879,3.0076,-2.7127,-4.8745,-1.3357,-9.9729,4.3404,
-9.822,4.2892,-8.8631,-8.7525,-4.9423,12.1474,0.967,9.5432,4.7553,-1.5856,1.2025,-2.7018,-6.482,6.0086,
-6.8226,-1.7527,-12.6701,-10.6379,-8.0203,10.4542,-3.4293,8.4887,2.0599,-0.044648,1.1304,-3.5036,1.1378,-1.5827,
-2.0744,1.245,-12.3918,-9.0353,-13.3236,9.345,-6.598,8.4613,-3.3664,-1.9702,-5.204,1.5269,1.0695,4.7788,
-2.6731,4.3035,-6.5869,-10.6626,-13.7293,9.9894,1.7518,7.2305,-1.9593,-3.057,-6.0972,6.0148,-1.646,13.8923,
-3.2356,0.4299,-5.9507,-13.6383,-12.1826,8.6671,2.3696,3.6632,-0.15453,-3.1146,-3.0799,2.5209,-6.1265,5.5869,
-1.5957,-2.006,-8.0038,-8.9636,-8.5591,10.5572,-3.0752,7.2998,-1.1096,-0.51756,-1.9312,-0.040954,-3.8312,-2.9435,
-6.0794,-2.6088,-7.7647,-10.1128,-8.7687,10.6469,-1.6852,9.5131,0.16206,0.23662,-5.4305,-3.1718,0.49626,0.3664,
-9.8123,-3.1754,-5.6114,-13.1217,-10.412,11.2132,2.995,8.2192,2.8037,0.94555,-1.9714,-3.2226,-3.1489,8.7803,
-12.5975,-2.9849,-8.1672,-12.8163,-9.7873,14.8787,-1.523,10.6186,-0.73902,0.88882,-0.40688,-2.5469,-12.119,8.2535,
-4.6111,4.9068,-8.1594,-11.5651,-7.754,19.2884,-3.842,16.2477,-1.1764,-0.61054,-4.721,-2.3943,-3.197,8.7224,
3.6193,10.1564,-4.5363,-12.0765,-6.5654,19.3364,0.48633,15.9962,2.9916,-0.81487,-8.0532,-2.0097,10.7334,9.4043,
-0.69517,8.3418,-5.469,-12.0748,-6.8944,16.489,2.6263,15.7594,2.0892,-0.52501,-9.7391,-2.1301,1.1713,2.3326,
2.962,12.4205,-2.4897,-4.8429,-4.7939,20.5613,2.7097,20.8393,3.1686,0.22939,-6.5037,-2.7252,-8.7809,0.98735,
8.8098,17.2189,0.31073,-2.3831,-9.5675,17.6404,-3.9608,16.9379,4.1838,-2.4355,-10.2108,-8.1053,-4.1567,-2.2054,
8.5224,19.319,1.0152,-0.070759,-10.6809,13.9307,-4.4463,13.2703,1.7634,-3.9768,-10.8032,-6.4139,1.1542,-4.7244,
4.3956,17.437,-5.5532,-2.7176,-9.3167,13.3358,-0.56365,15.6076,-0.99349,-4.943,-6.5396,-2.4136,-6.3866,-0.34311,
1.2398,15.4269,-5.7021,-4.9647,-7.3115,16.874,7.1829,17.5636,5.8146,-0.30812,-0.36268,-0.34062,-6.9675,5.4621,
-4.8606,11.8497,-3.673,-5.8721,-8.0781,16.1025,1.6903,10.4838,6.671,1.3976,-2.0281,-2.0074,-2.4524,-0.89167,
-0.9535,15.2361,-0.31915,-1.4224,-5.9062,13.4491,-3.4728,11.0601,5.0654,1.0728,1.227,-1.646,-1.5821,4.7054,
3.4425,13.3581,1.1463,-3.2653,-3.1417,12.6426,1.5563,17.6273,5.7258,0.52647,7.4199,-2.0292,-2.933,12.6183,
0.10222,8.459,-1.5738,-10.059,-6.5683,14.5354,2.668,17.2928,3.6948,0.73562,4.3234,-1.1843,-0.58806,4.8711,
-2.314,7.4695,-4.3715,-8.4911,-9.5487,16.0734,-0.38418,15.2909,0.09914,-1.2367,2.1358,0.81496,3.3041,-0.72337,
-2.6571,6.5394,-5.0735,-8.946,-8.0115,17.0372,-3.2536,17.266,-2.3169,-3.0907,1.0438,2.6943,1.1776,8.961,
-5.8722,5.1827,-7.6616,-15.1581,-9.9413,15.0506,-7.3967,13.8194,-2.1779,-4.8335,-8.6603,2.0507,-6.1239,11.3154,
-1.4222,8.487,-3.5863,-9.1872,-7.1755,12.9425,-1.8915,12.2671,2.0499,-2.3741,-14.166,2.1684,-9.8542,2.2006,
4.4474,9.9062,-0.47881,-3.3331,-3.8527,13.6125,3.5244,17.3159,-0.9654,1.1426,-9.4598,-1.8179,-2.9963,4.4789,
4.1808,12.2041,-0.45031,-3.1333,-2.1755,17.6157,2.3489,21.0974,-2.3535,2.5201,-4.5537,-4.6011,10.6809,12.887,
1.5194,16.2921,-0.90522,-2.4634,-2.0449,18.9694,-1.6485,18.3853,3.5723,3.8151,-6.6906,-3.8431,11.9682,8.2574,
1.4287,12.4225,-1.8148,-2.3151,-5.2967,16.8669,-3.4778,14.8721,1.4298,2.14,-11.1099,-2.1663,-2.2472,1.4955,
0.37864,8.3027,-4.5984,-5.0687,-9.3174,13.4447,-3.2691,11.5696,-5.4049,2.0116,-10.4433,-2.0363,-9.8252,3.8159,
-1.8132,10.4561,-7.9379,-5.4875,-9.4813,12.3971,-3.3139,11.5984,-0.98283,3.0962,-7.1651,-3.1194,-3.692,5.7565,
3.357,11.5157,-4.8106,-2.0255,-1.923,14.3041,-0.46421,13.0714,7.5116,2.1873,-6.9764,-2.2091,-3.2298,0.34923,
5.5659,7.9325,-3.5576,-2.8676,-0.84307,13.9285,-1.4,11.3235,3.2047,-1.3182,-8.4858,-2.5587,-10.2664,-8.8305,
3.3038,7.4565,-3.8263,-3.1775,-3.2026,14.0567,-0.83406,12.5722,-0.84394,1.653,-5.0846,-1.4409,-4.8299,-3.9624,
0.9364,8.2144,-1.4273,-5.6384,-9.0362,8.634,-0.060657,9.1668,-1.9986,2.7591,-7.4306,-2.5597,-2.371,10.3754,
3.2901,8.2037,-0.3776,-5.7822,-13.3148,4.2593,-0.53918,6.6884,-4.771,0.18318,-8.9132,-0.96011,-2.7109,12.7658,
4.057,7.2291,-2.7655,-5.9172,-10.1058,7.3782,0.45704,11.1073,-0.62833,0.17219,-3.0758,-3.3126,0.34408,-2.1001,
2.6083,8.0007,-2.8403,-5.3212,-7.33,11.9972,0.67058,12.1281,4.4711,1.3671,-0.72206,-13.4777,-0.88163,-8.8433,
2.934,8.4847,1.6689,-4.0379,-5.9259,10.3133,1.5949,8.0262,-0.13576,0.80296,-1.6428,-13.6332,-5.1671,-3.0102,
3.2399,8.9395,1.5683,-0.42113,-3.6424,7.7663,5.3551,8.9909,-1.0915,0.27285,-1.0623,0.20024,-0.51871,0.54482,
-4.4261,7.1981,-5.9974,-3.0472,-4.1467,10.4336,2.383,9.6565,-0.78525,-0.46666,-2.6856,2.3572,2.6459,2.1991,
-8.4988,8.2125,-1.2992,-8.6489,0.44039,12.6996,4.1677,11.0053,0.70812,5.8279,0.85,-4.0508,2.4871,2.0672,
-1.4814,7.9607,6.2505,-8.8529,1.6193,3.502,6.5692,9.6221,0.42467,5.2372,1.04,-5.495,0.16876,-2.1542,
5.5971,5.3141,3.2242,-3.7422,-3.0574,-3.2159,2.5599,6.3934,2.0862,-2.0667,-3.12,-2.5139,-1.5286,-2.2661,
-1.9693,3.0668,-2.7536,-2.5536,-3.8383,-0.61256,-1.9323,6.4915,4.3714,3.3598,-3.415,-1.399,-0.47301,-3.0943,
-14.1435,-0.25044,-9.5783,-7.9442,-5.295,-8.0478,-6.3959,3.9331,-1.4343,7.7377,-3.4508,-3.9664,-0.68537,-6.5238,
-11.6076,-0.95877,-8.7626,-9.6367,2.4943,-18.8932,-0.95088,2.9738,4.6773,4.6223,0.85359,-1.5592,1.0428,0.3751,
-4.8859,-2.5882,-3.6573,-6.4072,16.0832,-24.2673,1.2756,-3.23,11.3863,2.1756,4.4176,-0.74256,3.1493,7.3422,
-2.4235,-2.6739,-0.30465,2.4129,22.1081,-30.2831,-0.0062674,-11.4723,5.6415,6.1424,2.4653,0.024891,8.0218,5.6969,
-3.242,-2.5135,0.67796,7.0889,22.7098,-40.0352,2.8866,-15.6042,4.3391,7.2201,-2.5029,1.4697,6.0947,0.5348,
-0.87832,-4.0499,-0.56801,8.3507,24.4807,-47.9972,1.9901,-21.6578,4.8017,1.7252,-3.558,-1.2696,-3.6712,-0.22064,
6.4052,-9.5915,-3.4262,9.7779,26.3858,-55.7224,-2.4677,-32.4095,-5.1274,-2.7166,0.51186,-6.978,-0.55863,-0.2074,
16.3848,-9.257,3.2868,13.2886,30.3463,-55.5126,1.2958,-34.5627,-4.0969,0.57989,2.6503,-5.8364,13.5749,-3.8104,
17.0891,-5.0864,5.7409,14.1783,33.105,-54.8329,2.4231,-32.7297,1.2109,0.78584,-5.9444,-2.353,10.2296,-9.6075,
17.2689,-3.5761,4.6734,19.3533,36.6626,-47.9278,3.0009,-31.489,-1.0312,1.4618,-7.7571,-1.0068,4.5543,-6.3798,
16.4739,-8.423,8.9727,22.2897,34.7035,-40.9545,7.4003,-32.251,-3.6206,4.5074,-1.2657,-3.5977,7.4143,-0.93552,
14.5212,-10.8101,14.7009,16.6136,35.5139,-36.5693,10.8127,-30.316,2.8631,3.755,-1.1902,-3.3818,8.8977,3.4589,
14.6142,-8.7148,8.9985,12.7247,34.3474,-30.5183,4.8618,-28.0146,4.138,1.6015,-5.4569,-1.2502,4.9898,9.5184,
9.399,-8.6743,0.74563,11.9612,29.8759,-23.8669,-2.1789,-27.2981,2.4435,2.9517,-3.6834,-1.6576,4.2083,6.0552,
0.39874,-10.8052,-0.50417,11.4847,31.699,-19.3016,0.6032,-23.0088,6.876,6.8722,3.5272,2.0575,9.9813,-3.2264,
-3.2404,-14.7364,-4.0893,7.18,29.0739,-14.5281,1.2901,-20.4233,3.3301,7.183,4.5209,5.5492,10.1056,-2.3097,
2.0155,-14.5749,-1.6746,3.6159,23.7143,-9.5586,0.97154,-20.8849,-1.4487,2.6544,-1.294,0.15482,7.3301,5.3009,
8.8847,-5.2645,4.4514,5.0864,23.9785,-6.3342,4.0465,-17.4628,0.32519,-1.6025,-2.4214,-3.4697,11.9519,9.08,
3.5309,-5.9129,-2.0824,0.92487,16.7552,-7.4,-1.9809,-16.4151,-4.0326,-1.5063,-5.6506,-5.6721,9.3066,1.7867,
1.873,-11.8249,-2.4396,-0.57712,8.5188,-6.9562,-2.3442,-17.3586,-3.309,4.8508,-8.686,-4.8496,1.9991,-2.1771,
6.8218,-10.392,3.2504,0.6628,8.2486,-6.7798,1.8938,-17.5219,3.8794,1.4263,-6.4776,-3.8357,-1.2541,1.569,
7.6178,-7.5994,-0.077904,-0.58226,4.1383,-2.2757,-0.8709,-14.3014,2.4414,-0.82846,-2.9557,-5.2928,-1.4198,3.644,
-1.5161,-12.9282,-4.4118,-4.4039,-3.8225,0.27122,-6.1215,-17.7819,-3.9719,-3.1891,-5.6706,-8.8314,-6.1553,-3.8053,
2.431,-6.8501,3.5657,-2.6932,2.6731,3.6292,0.51251,-18.161,1.0869,-6.372,-1.4738,-7.3374,-3.8578,-3.0952,
12.4085,0.79175,7.2086,2.2891,6.8515,3.4114,3.8562,-11.7687,1.9861,-5.9897,1.0248,-10.2716,-2.1799,2.3936,
5.397,-5.0403,1.9554,-2.187,-4.6468,0.79661,-6.98,-8.1705,-8.256,-9.0047,-7.2317,-18.8143,-8.3158,-7.8734,
-2.1574,-2.3276,1.3559,-3.9838,-7.2603,6.5332,-5.5971,-3.8237,-7.7609,-8.9466,-6.7978,-10.9368,-5.8887,-7.8832,
-3.715,-1.4648,-0.89485,-4.4679,-5.1377,4.9361,-4.0562,-6.2456,-2.7157,-7.2048,-6.6309,-5.2191,-2.4021,5.8465,
-3.0101,-6.1976,-1.805,-7.0923,-9.1678,1.2659,-10.0793,-3.9426,-4.9629,-6.772,-10.5713,-11.6544,-4.1862,11.7622,
1.509,-0.52333,3.6057,-6.1846,-6.6893,11.7946,-5.6184,6.899,-6.1116,-4.4377,-6.5628,-8.0629,-2.489,8.6461,
0.45439,2.4004,3.8715,-3.4032,-3.3956,18.318,-0.46084,6.9672,-8.6372,-2.243,-4.2409,-3.2406,-2.3396,1.8606,
-5.5989,2.0154,1.4698,-1.9942,-7.7716,15.5317,-0.67416,6.3082,-4.9855,1.507,-4.2274,-4.2514,-0.99396,1.026,
-7.4319,2.6176,4.0332,-6.454,-7.0641,16.2868,0.089423,11.955,4.7134,3.5855,-2.7687,-7.6115,1.2348,6.0259,
-8.6732,-4.5289,1.6218,-12.0923,-4.4711,15.0691,0.80696,7.6228,3.7077,1.2012,-5.2536,-10.7703,-1.0084,3.9776,
-12.0092,-8.1135,-2.8138,-8.4743,-4.6848,9.3442,3.1691,0.41649,3.0033,1.611,-0.60011,-11.0881,1.9444,-2.0456,
-16.8323,-4.4937,-5.2963,-6.761,-5.609,2.758,0.32743,0.15054,6.9205,2.7197,2.5692,-10.664,3.0328,-1.2,
-9.0736,-7.1164,-5.9426,-5.8732,-5.7546,1.6284,-5.4766,0.14127,5.0592,1.5924,0.96921,-4.7213,-2.4516,8.0308,
0.38885,-12.233,-2.453,-3.3516,-7.0966,4.1818,-4.9075,-0.5901,-2.2342,-2.1186,1.634,-0.34116,-3.0279,14.5388,
0.12432,-4.9913,-2.5466,-5.3194,-8.8397,4.654,-1.4793,4.0248,-9.0898,-7.5348,0.33085,-1.5253,2.6976,12.9434,
3.7323,2.7804,-3.1169,-6.6875,-4.212,3.1695,0.77861,8.3631,-6.3753,-2.5035,-3.3044,-2.1571,2.2948,5.1774,
-0.34804,-5.582,-1.966,-4.8405,-5.4055,-6.6616,-3.6069,0.62999,-5.5108,1.9851,-6.963,-7.8123,-4.592,-3.3289,
-2.2554,-5.7286,6.829,5.5733,-4.5988,-4.3337,2.3946,0.11026,1.5687,5.2404,1.168,-4.9332,4.3608,4.1021,
-4.048,-2.4926,4.4911,4.2748,-0.46671,0.74677,7.0714,0.58581,5.3312,0.10551,5.4363,-2.709,-0.72129,-0.96448,
-6.6979,-4.2714,-4.4553,-3.2127,0.04346,-1.7084,2.3085,-2.3416,5.0111,-0.38298,8.9665,-7.8491,-11.7652,-12.9582,
-6.0548,-4.7383,-2.019,-1.333,-2.1285,-3.2929,-3.8557,-2.9243,6.8794,5.6658,13.9719,-3.763,-0.69545,0.59378,
-10.753,-9.0335,-4.0668,-3.4219,-7.0623,-4.3004,-8.6858,-5.4001,2.8514,-1.6638,8.0721,3.4527,4.4082,11.4042,
-12.2772,-8.2503,-5.0279,-0.56528,-3.9872,-1.873,-8.4054,-2.4248,2.4396,-1.8052,8.7933,6.8612,-0.43606,13.8536,
-13.9507,-10.1654,-4.2443,-4.3877,-6.1586,-3.6892,-11.2756,-1.7974,-0.59928,0.71325,2.9631,4.0389,-4.7484,16.3964,
-10.4628,-9.7967,-2.3026,-7.7401,-9.8866,-2.2628,-9.8764,-3.377,-1.7688,0.91166,-3.7229,5.4836,-2.7765,12.2794,
-6.9423,-6.7985,-1.2001,-6.7936,-7.365,-1.1625,-11.2117,-4.138,-1.1801,1.8211,-3.9812,3.2266,-3.0916,5.2759,
-9.1773,-6.6316,-4.2616,-8.5551,-8.1279,-4.7082,-13.1901,-6.0589,-2.3146,-1.4217,-7.8399,-3.4745,-8.4498,5.6827,
-6.216,-5.2698,-4.4878,-8.0418,-6.6764,-2.0156,-5.1683,-4.7315,0.23442,-0.854,-7.8515,-0.85589,-3.6045,4.8593,
-1.746,-1.8204,0.84289,-5.3899,-0.73198,7.9875,0.6856,-0.35002,2.8717,3.7768,0.57335,1.3649,7.94,-0.49368,
-1.6412,-0.26489,5.1309,-4.5846,-4.0625,12.3285,-2.2481,4.9736,1.7355,1.622,5.8416,-1.1276,9.392,1.9461,
-3.7117,-3.3822,1.6898,-7.4428,-10.8084,9.4199,-6.2103,6.8446,1.3902,-2.5729,4.286,-0.81877,3.7671,5.9269,
-6.3813,-5.1073,-1.3039,-7.9603,-11.6059,6.9263,-5.3555,4.5055,1.307,-0.97254,3.0648,-2.2157,-0.31559,4.1252,
-7.6858,-3.5958,-1.9488,-9.6521,-12.597,7.7158,-6.7216,3.512,-1.4227,-1.6373,5.0503,-5.6984,0.90841,4.6009,
-2.1628,3.1277,0.81944,-4.4934,-4.3692,13.2786,-1.7388,10.291,4.206,2.0766,10.7726,3.5618,10.2541,0.70916,
-3.7207,3.1805,-1.8813,-3.0185,-2.4203,11.2766,-0.42966,10.3964,3.2303,4.1211,4.5826,8.4093,3.6129,-9.6973,
-5.1842,-0.14333,-1.0453,-5.0066,-9.7468,10.359,-2.0906,7.6035,0.86731,3.6329,-0.27163,5.2537,-4.0755,-0.67975,
-5.8373,-1.0988,-1.9467,-7.1165,-13.9825,8.7734,-3.4117,5.2193,1.7794,-0.44169,2.155,-0.36442,3.3999,3.2176,
-1.1485,3.3057,-0.86553,-5.7254,-8.805,11.6217,-1.7605,10.6909,2.6372,1.5132,8.2925,3.996,12.8371,1.0962,
-4.9364,-3.1597,-1.7779,-9.7207,-13.0974,8.5138,-5.9937,8.6028,-4.7524,-1.4701,1.046,2.31,1.4616,3.9229,
-7.5325,-4.898,-2.6353,-8.1729,-13.2752,6.075,-6.5981,5.6767,-3.9851,-2.346,-7.2117,-0.23852,-4.8929,7.5437,
-5.1521,3.1088,-1.9951,-6.2365,-6.6944,10.049,-3.7919,8.7103,2.0389,2.6153,-1.4761,1.7038,1.1853,-0.13953,
0.70037,7.0194,6.0784,-4.6572,-3.1594,16.9177,1.4971,12.7672,8.4242,6.074,10.4224,4.7348,6.6578,-1.3362,
-0.064555,3.9472,2.5804,-7.0289,-7.5492,15.6617,-0.76191,6.94,1.8932,0.16595,2.8076,-0.12859,-0.24938,1.395,
1.8675,9.0125,1.4615,-8.5354,-4.2042,17.1321,0.24813,8.4513,0.33338,0.63793,-5.0741,1.3254,-2.6448,3.2395,
4.407,9.1951,6.9174,-7.3003,-3.2285,21.6478,3.8487,10.5958,3.4469,2.7688,-1.154,1.0049,0.16546,2.3223,
5.3474,5.9923,4.8154,-5.657,-8.5784,19.1441,2.4125,8.2728,2.0348,-1.0127,-0.36162,-3.6349,0.87866,1.942,
7.4369,7.5608,1.152,-7.246,-8.0637,13.1749,3.7142,9.7049,6.7332,0.49452,-2.7503,0.9215,1.3079,-1.0668,
5.5445,8.5534,2.5291,-5.365,-7.0977,13.8302,5.9015,10.0864,9.7036,6.7314,-2.1031,8.0971,2.1935,-1.9667,
-2.9829,7.0758,-3.8896,-6.4894,-10.5285,16.8568,0.24473,8.035,2.3725,4.8812,-5.3516,3.2724,-0.83063,2.9716,
-0.63501,10.7489,-8.2355,-10.6795,-10.1378,16.5685,-2.9032,13.0967,-0.90311,1.4551,-7.6816,-0.057155,-1.5037,10.7472,
7.1161,9.1398,-4.3671,-10.039,-11.4579,13.1641,-2.2473,16.1671,-2.295,-2.9708,-1.9181,-0.053496,-2.8597,6.2458,
9.3402,6.4223,-0.48992,-3.4106,-13.9037,11.6513,-0.42525,13.0279,-2.3987,-4.4797,-0.59814,-3.6657,-6.3036,-4.4933,
6.3697,5.555,-2.8704,-3.6879,-15.4796,9.0241,-1.3636,11.2824,-3.7006,-2.7647,-7.3107,-4.4096,-3.515,-6.1514,
5.0236,4.2574,-4.6266,-6.8411,-12.1407,11.8571,-4.1743,18.8001,-5.4067,-1.635,-5.426,1.1571,1.9986,5.7868,
6.4092,4.2432,0.23073,-7.6357,-10.2072,19.5811,-6.5752,21.7692,-2.431,-3.2239,4.7815,3.2571,-3.183,15.8037,
6.9888,4.9522,0.69859,-8.6241,-12.0051,16.9602,-6.6628,14.1963,-0.35717,-3.9945,4.9767,1.1332,-10.2229,12.4447,
6.5694,3.2093,-1.2713,-11.4806,-10.3205,7.2659,-3.3705,6.5961,-1.2996,-3.7548,-3.9985,1.0653,-4.3069,4.4676,
5.2112,1.0883,2.6614,-12.2383,-9.2193,8.276,-2.6861,7.6464,-2.6681,-2.5655,-9.0615,-0.92663,0.29008,1.7892,
3.9344,5.8439,3.4658,-8.1293,-10.112,16.4563,-3.0071,12.0085,-3.9536,-1.4474,-8.5175,-5.2096,-2.1374,1.2001,
5.1446,16.0981,1.3296,-3.7851,-7.0953,17.3971,-2.8267,16.5902,-3.7168,-2.8068,-2.2219,-4.4151,5.2214,9.8048,
5.5588,17.7838,1.4908,-3.3171,-5.9463,13.2203,-5.3082,19.2102,-2.7705,-6.7358,1.5268,-2.4629,9.4879,17.6526,
4.9843,11.6551,4.0525,-2.8771,-8.241,13.15,-1.8567,18.2986,-2.8457,-4.6444,-3.1445,-1.1099,-0.48186,9.1212,
2.998,13.1249,-0.76996,-1.9811,-9.9155,15.4944,2.3525,18.8879,-3.3978,-0.75033,-8.4992,1.1259,-7.9245,2.0664,
2.5772,15.9529,-6.2671,-5.96,-9.5615,14.8057,-0.9221,18.9599,-1.5067,-0.46435,-7.7483,1.7817,-4.3156,14.7169,
1.2175,9.4523,-3.722,-7.2894,-4.8905,14.6405,-0.14365,17.5811,2.6812,0.76858,-5.5962,1.4336,-3.8157,18.4134,
-1.5071,7.6799,-4.7039,-7.093,-2.4279,15.9313,2.998,15.3214,2.7613,3.374,-5.5016,5.4449,-4.3099,5.4985,
-1.6576,13.2446,-5.6268,-9.319,-7.3439,14.734,-0.31491,15.125,1.3904,3.4125,-4.9306,6.8055,2.9384,2.0351,
-2.7633,13.655,-3.1198,-5.1442,-9.5544,10.7171,-4.3936,14.9407,1.0662,4.4129,-4.8755,1.3357,0.11098,0.70791,
1.9821,13.5588,1.6467,0.70783,-4.4016,11.2792,3.824,14.7673,6.0637,5.3531,-1.9318,1.4963,-4.9574,-3.9141,
4.0323,11.0581,-0.62148,-5.8426,-7.7532,9.8791,3.8355,11.2298,3.5302,-2.9218,-5.9135,-1.2446,-6.3471,2.3463,
6.9238,9.1898,1.1033,-8.6251,-10.9032,13.3841,-3.3845,14.6538,-5.1172,-5.88,-7.2457,-4.3034,-3.7969,12.0879,
12.7752,7.6738,5.3756,-2.3227,-8.8029,16.9192,-0.28913,19.5589,-8.1844,-2.6349,-6.811,-3.0811,-4.5334,7.0241,
18.5161,13.7213,4.3297,-0.014218,-8.9979,17.5912,2.3793,24.4109,-6.9705,-3.6821,-7.1254,-2.6553,-5.4665,13.5921,
17.6464,17.9595,6.7213,-0.25456,-9.6628,16.295,-0.41431,30.4183,-6.311,-5.1481,-5.9748,-3.2186,-2.9691,26.8765,
12.7312,9.1692,9.2105,0.72504,-6.6729,8.0865,-1.3538,25.7007,-6.8967,-4.8393,-10.4368,-4.4718,-7.6117,24.9025,
13.8955,2.352,8.1755,-0.28279,-0.48822,-2.5221,3.0658,13.0714,-5.5186,-4.5489,-13.6672,-1.7933,-6.1909,14.7313,
11.1336,5.5854,4.7929,-2.6759,7.2543,-12.4936,5.7743,4.5744,-5.1875,-2.3478,-7.0623,0.72439,1.8933,16.258,
1.3065,5.2507,-2.2431,-5.8898,11.1574,-25.844,0.12524,-5.3411,-4.8762,-2.2069,-0.85379,-2.2111,-2.5586,7.5697,
-2.6282,-2.2952,-5.0013,-2.162,15.3082,-36.7062,-3.7387,-16.5898,0.23661,-0.1463,-0.32086,-2.0785,-3.3692,-0.5977,
-2.9525,-10.3526,-5.6653,4.2342,23.0668,-43.6628,-3.9963,-25.2353,2.1506,0.34441,1.1447,-0.025561,6.4742,2.8126,
-0.84737,-14.552,-9.6639,0.60595,27.4671,-52.1305,-4.7206,-30.9523,-3.2808,-3.5324,3.968,-0.50619,9.9419,4.0899,
4.2652,-14.8841,-9.3251,-2.082,30.3988,-54.5463,-2.2682,-32.2282,-3.325,-3.0795,2.5251,1.6933,5.248,2.6397,
0.87599,-21.4627,-4.668,5.0331,30.7443,-58.2629,-2.8552,-38.7304,-2.4023,-2.6535,-3.17,-0.57719,-0.12831,-1.1339,
-0.14067,-20.6571,0.91451,17.2643,29.8637,-57.1775,-4.13,-37.8526,-0.81216,0.39797,-0.56968,1.3854,0.36133,0.86209,
-2.5426,-19.4174,-4.443,13.3357,26.6254,-53.2649,-5.3286,-33.6535,-0.76366,-0.59047,-2.9459,4.6765,-3.517,-0.63613,
0.50226,-19.2165,-2.2482,8.1975,27.9202,-45.7307,-2.1166,-30.6702,2.1744,0.89145,0.12319,5.36,-1.3778,-0.59773,
8.1849,-18.0635,3.1893,12.044,28.1732,-42.5047,-5.3636,-30.2762,-0.36615,1.3199,8.7929,0.2177,1.1153,-0.079932,
13.2376,-15.7746,5.1673,16.3832,25.2777,-37.3031,-4.8006,-28.7004,-1.5492,0.035641,6.5783,-0.51804,2.2536,0.64799,
12.9253,-14.3462,5.3392,14.4359,21.8329,-27.8341,-0.65666,-26.9784,0.95384,-1.4128,-1.0474,-0.0050202,6.4567,0.12718,
11.4267,-13.2442,5.742,8.0264,23.6566,-21.5845,-4.7144,-25.6009,1.6202,-1.0868,5.0414,1.2003,10.6489,0.84268,
4.2334,-13.1727,3.7105,7.3036,21.0322,-21.4945,-9.9754,-23.3417,0.31746,-0.29846,10.7642,8.1184,8.3229,2.4796,
-6.3847,-15.0337,-2.056,8.5524,13.2621,-17.0716,-8.6537,-20.7361,2.4678,-0.52175,7.9495,13.6566,6.1361,6.4279,
-6.484,-12.2034,-2.4148,4.6648,11.9844,-6.8882,-4.76,-17.0818,3.7655,0.95582,7.472,9.9447,10.5886,13.755,
-6.5769,-10.5069,-2.7518,-2.8455,10.3015,-5.993,-5.4383,-17.5027,-3.6908,-0.065857,4.6136,1.6353,8.0251,12.9297,
-11.0026,-10.3589,-3.0687,-2.1928,8.2371,-6.1154,-2.2199,-16.4526,-3.9513,0.42049,-0.48349,-1.8368,1.759,6.3694,
-12.2706,-10.7012,-2.4026,0.83081,5.8147,-4.3022,-4.0149,-10.6451,1.1061,1.3591,0.99178,-1.7266,1.6535,3.0951,
-6.2317,-10.0592,-1.2943,-0.66484,5.4658,-3.0802,-8.1124,-3.2575,1.0397,-0.16868,6.2345,-0.17724,8.7851,4.3552,
-1.7605,-9.6966,2.3987,-2.7946,3.9326,-4.1007,-1.6001,-8.1238,0.73635,-1.3634,2.245,-6.6741,8.0166,-2.4136,
-1.6548,-8.1509,3.2191,-2.1445,3.6966,-3.3722,4.7624,-16.7954,0.21024,0.6466,-5.1203,-11.5763,0.30522,-11.4278,
-2.5194,-8.1438,0.1337,-2.4978,2.9929,3.0966,0.13838,-10.9669,-1.2486,-0.35606,-4.8129,-6.061,-0.19526,-15.0804,
-2.1275,-4.5219,-3.008,-4.0354,-2.7305,9.4185,-5.4138,-1.873,-4.307,-4.9147,-5.7296,-3.5284,-1.8708,-12.0067,
1.3744,4.9087,-3.3095,-4.7573,-10.7612,9.8175,-6.0526,-1.2785,-5.0127,-5.5839,-9.7242,-7.6548,-8.0253,0.76504,
-0.15413,-0.20679,-3.5931,-5.436,-12.0439,6.3362,-7.1359,-3.1302,-3.2659,-5.731,-7.2125,-9.6059,-5.6153,-1.2088,
-2.7962,-2.8457,0.23815,-1.4946,-5.296,12.4637,-3.5745,4.0473,1.0272,-1.2896,-0.754,-2.5223,6.0496,-12.9467,
-2.3875,4.7968,3.8393,-2.6098,-6.183,13.885,0.25539,5.4917,2.1709,1.4389,0.014137,-1.1656,2.0712,-9.5188,
-1.0392,8.6066,4.3321,-3.6583,-9.4273,17.6315,-0.48306,9.2597,2.7638,0.62989,7.0029,-0.85449,-7.4531,5.1524,
-5.0739,5.9213,3.8309,-2.2337,-9.1028,25.4914,0.26951,18.1039,2.3572,2.2791,14.0548,3.7763,1.9121,10.5076,
-12.9647,3.1554,4.0835,-4.9922,-9.5205,19.6236,0.25334,14.1256,2.6977,5.0349,6.4631,2.1035,13.3666,2.1643,
-10.9815,3.6895,2.151,-5.8975,-6.7801,13.3845,0.96104,6.7702,5.6693,5.9376,1.4955,-0.19191,9.9135,-3.9911,
-5.5021,3.4679,1.5398,-6.5082,-0.10703,14.5099,3.7952,8.2924,7.2571,6.0635,6.7082,2.7119,2.0876,1.0684,
-4.6901,5.6704,7.7141,-6.1173,0.38178,12.193,4.0499,9.723,4.8935,5.2178,6.7881,2.5492,3.8908,1.0048,
-1.7576,8.4632,8.9385,-1.1709,-4.7028,6.8821,3.5659,7.9343,3.3946,1.2893,4.6936,0.709,6.7906,-7.4917,
1.9635,1.9296,1.4121,-3.2701,-5.1438,0.44298,-0.74561,1.9144,2.4678,-1.4394,1.7602,-1.021,2.7675,-6.319,
1.6048,-1.3197,-0.35939,-10.5457,-4.5942,-1.7528,-8.6546,-4.226,-3.2239,-1.1121,-3.8888,-4.5747,1.8786,3.942,
-1.6248,1.8932,5.6875,-6.7797,-2.1491,2.9319,-2.11,-1.3211,-2.3073,2.0879,2.8525,-1.167,7.7916,6.3568,
-6.589,-1.3538,4.1414,-0.34689,1.5952,-2.3052,1.1505,1.4097,1.447,1.7217,7.2606,2.5185,7.0832,3.3243,
-2.5782,-1.0312,1.2416,-0.085111,2.7048,-9.6387,-4.9445,1.0842,2.565,1.3774,2.7276,2.1264,8.3454,7.2222,
1.9148,-0.0059009,-1.7252,-3.9364,-3.7244,-10.9886,-7.0584,-3.3197,0.48291,-0.63343,-0.81049,-3.3038,7.3623,2.9325,
0.59508,0.23588,-0.41638,-1.531,0.11444,-6.2319,0.83734,-3.3614,2.1412,0.12748,9.1201,0.50982,7.162,0.10501,
-1.1279,-0.50117,2.7416,0.72998,7.5794,-2.7245,4.4025,1.9019,5.6281,0.84319,14.1165,6.5048,10.8296,5.1604,
1.109,-2.6407,2.3359,0.44521,4.4731,-2.3201,1.4868,2.9926,3.6032,-0.4127,6.762,3.9453,8.4926,5.0917,
-0.40359,-1.5182,-0.69628,-0.5456,-1.5797,-1.2168,1.3978,-1.0431,0.97665,1.0581,5.3922,0.81632,4.6088,0.93007,
-5.9232,2.1886,0.55079,0.21027,-1.2437,4.882,2.0371,-0.25736,2.1236,1.2358,8.6843,2.9367,7.4655,2.0793,
-6.5319,-0.35311,2.4457,2.1261,0.27696,7.9633,-2.4237,3.6147,2.4779,-0.76677,7.6811,1.7964,6.5354,4.8469,
-1.0783,-9.25,0.13003,1.7571,-0.46256,2.9058,-6.858,1.2282,0.64197,-0.47933,3.6048,-2.4092,0.11777,3.3508,
1.8784,-5.8025,-1.324,-0.27653,0.52906,1.2856,-1.1439,-4.1477,-0.84281,-0.45057,2.4242,3.52,5.8953,-0.70667,
1.2838,3.7047,-0.28072,-1.2238,1.4616,3.6186,3.7455,-0.52482,2.1003,-0.90593,6.6171,8.1295,14.7006,-0.66427,
2.1709,4.4465,3.1108,-0.18628,-1.5183,3.4017,-0.81781,7.7016,6.3128,-0.85135,6.7022,-0.071292,8.0338,1.304,
3.9688,2.2515,2.9242,-3.0676,-8.1762,3.1976,-3.1789,8.6858,1.1133,-2.7285,1.4798,-3.441,-1.1249,3.154,
2.2844,4.5266,0.33812,-9.1501,-7.6856,7.3441,-1.0599,8.1646,-2.8099,-1.1185,2.3549,1.5857,2.799,2.0004,
-0.98591,5.942,-0.4053,-8.3603,-2.6449,10.0367,2.6188,8.8798,0.97392,2.0819,3.4187,1.7318,7.6925,-5.5912,
3.4118,0.76543,-2.3089,-4.966,-8.2706,9.4347,-1.8764,7.8649,-2.9407,-2.3816,-2.0889,1.1457,2.4105,-7.1842,
7.5459,0.71951,-0.72415,-6.5962,-11.6307,11.7607,-7.5484,10.2855,-4.2105,-5.1308,-2.9274,5.8977,-1.1086,7.2266,
3.2365,3.5686,3.6579,-6.2007,-7.5587,14.4293,-1.7931,13.0426,0.86262,-2.413,1.5863,5.0616,0.88631,9.2034,
1.3551,3.1131,-0.17704,-5.5877,-3.4897,14.2869,3.8581,10.0909,2.0162,-0.581,3.1784,0.66059,1.0741,-5.4488,
1.9967,2.6853,-6.1922,-6.9396,-4.4856,13.1887,1.9394,6.8343,-0.7559,-1.269,2.2648,-4.4407,0.2863,-8.3761,
1.8771,2.0425,-3.8925,-5.0768,-11.929,10.9509,-1.5512,9.7985,-1.1927,-1.1931,1.1648,-3.6921,4.6077,-1.1244,
2.4874,0.23227,0.92037,-4.0493,-13.3829,9.0885,-2.6634,14.7542,-0.88018,-1.8444,0.85347,4.9651,3.6083,-5.1547,
0.89211,0.7005,1.3473,-5.7347,-6.3132,9.9897,-2.5038,17.2432,-2.2739,-0.28775,0.8025,8.0414,1.9453,2.8676,
-2.7768,3.792,0.061177,-4.1853,-7.1397,15.4159,-1.1483,17.4139,-1.4141,3.3449,1.4772,8.2823,7.8546,14.9876,
-1.8871,4.7695,-2.1117,-0.80097,-9.8446,18.1061,2.0539,16.6098,1.804,2.4211,1.6298,6.5803,6.6597,5.1705,
-0.56881,5.6884,-0.29796,-2.9223,-3.2281,18.7072,2.1714,20.1927,1.4546,1.0708,2.7371,0.15968,-1.2114,-1.1655,
-2.4629,5.829,6.951,-5.639,-2.5525,13.7284,0.59529,20.9093,-1.0428,2.9347,3.0548,-0.33183,-1.1387,4.689,
1.0594,3.0692,5.0877,-4.8187,-9.6297,7.602,-1.8506,15.3164,-1.9441,-0.61581,0.94377,4.0264,1.8221,-1.8589,
10.1548,2.4031,1.4084,-4.0472,-9.5343,11.0023,-0.29326,11.023,-3.7557,-4.9172,-1.5234,3.7848,4.1229,-6.5676,
12.1966,0.089728,5.4213,-7.4198,-6.3107,15.4038,0.44723,10.6026,-5.2175,-3.8992,-2.1549,3.3168,7.491,-5.4506,
8.3318,0.80725,2.9268,-9.1438,-10.0294,14.2387,-1.7488,10.2079,-4.1816,-1.9781,-0.82035,-1.4615,6.8005,-11.1491,
9.037,7.2665,-0.86443,-4.98,-10.1508,12.1793,3.4176,7.9079,-3.2076,-3.5464,-0.53039,-8.8459,3.7412,-8.3108,
13.3148,12.1329,5.4542,-5.6453,-4.2393,11.9302,7.0687,7.4332,-3.9792,-4.7801,-0.98073,-4.459,5.9271,-3.956,
11.5522,8.0307,4.1628,-11.0914,-6.8773,11.6966,-0.10408,8.9157,-5.6684,-4.0111,-2.8498,0.62951,7.4994,-10.4673,
6.7618,-0.40484,-1.6306,-8.2563,-12.9723,11.2357,-0.82074,8.6217,-4.6054,-0.63697,-6.7762,0.83271,5.3627,-6.7058,
-2.0801,-2.0678,-3.2199,-6.556,-16.7735,9.8387,1.8801,6.4176,-2.6419,-0.35778,-9.5031,0.54178,-1.949,-2.2061,
-5.5707,5.0462,-0.85713,-5.9213,-10.2235,13.3457,1.0439,15.4326,4.5065,3.2791,0.94945,2.6784,-3.5193,-9.5455,
-0.65717,4.9844,-3.9392,-5.8074,-5.9949,14.2322,-1.6698,21.496,2.5489,0.43127,2.5793,1.3124,-4.5134,-9.6962,
6.1314,8.5415,-2.2568,-4.4949,-8.5275,11.4499,-2.0518,19.7241,-3.3888,-2.9693,-4.8061,5.0903,-2.7966,1.4911,
0.21967,10.6803,1.0119,-6.3946,-13.0773,9.5578,-3.6162,16.8537,-1.9804,-2.5499,-5.2409,0.20537,-1.9056,-6.0704,
-2.9268,10.2807,6.4945,-2.8772,-7.2312,14.0458,4.5548,20.422,7.5386,4.1108,4.4733,-6.7966,3.7525,-12.2139,
-2.7509,2.9152,0.32051,-4.633,-6.3152,11.2751,3.7998,9.0735,2.7477,1.4538,0.83072,-5.4247,2.5633,-9.0707,
-2.5861,2.7405,-3.0732,-5.3191,-8.8285,9.1525,0.67952,3.7086,-1.2733,0.40244,-5.9678,-2.2069,2.4093,-6.598,
-3.6362,6.6729,-0.23746,-6.2052,-9.9861,9.8082,-0.084614,12.8861,-0.47398,1.5836,-6.815,-1.3516,2.0237,-4.5154,
-2.2128,7.4779,1.9459,-5.1096,-7.6999,6.5686,-0.3205,12.3539,-2.6152,0.28328,-7.129,3.3088,-2.6774,-6.4136,
0.57132,7.7523,-0.33974,-2.6336,-1.2117,4.0056,-0.54201,7.0336,-6.5554,0.98941,-9.3524,4.7977,-5.6496,-4.8233,
0.77801,9.9383,-5.3813,-6.091,-0.89846,11.2366,0.21341,11.1909,-7.8493,2.6173,-10.4787,-0.06991,-1.2132,1.9736,
2.1776,12.2345,-2.1661,-8.6181,-6.147,19.2395,0.68254,14.3758,-4.9682,0.050112,-11.7782,-2.9578,-2.1048,3.7834,
7.8313,17.2852,2.3024,-3.2805,-4.8141,22.4237,-0.32251,16.4056,-3.2236,-1.3994,-8.6611,3.9684,-5.8346,11.2689,
10.2539,20.5864,-2.174,-1.6374,-2.1149,18.6681,2.107,17.3494,-3.9945,-0.3511,-7.1773,6.6228,1.7463,18.788,
3.8539,19.351,-5.9002,-6.8416,-5.3624,15.1377,2.9446,11.9699,-4.237,0.15213,-10.1212,4.297,7.4258,10.4296,
-3.1258,15.2979,-5.5462,-7.3954,-7.933,14.7114,-1.0884,9.3235,-3.5004,-0.33939,-10.9599,4.5211,-0.25055,3.5373,
-3.9026,12.4518,-0.87512,-2.1314,-3.1187,10.4542,-1.0231,15.9945,1.0479,0.6453,-5.4821,5.2142,-1.1998,4.289,
-0.053001,9.0532,-1.5455,-5.619,-3.1727,0.42697,-3.6133,12.3837,-0.22023,-3.0088,-5.3939,1.7678,3.4519,-5.3684,
5.494,9.2336,-2.1755,-5.0402,0.15157,-4.1782,-4.6011,6.0973,-1.894,-1.6232,-4.8291,2.3849,3.9679,-2.3945,
1.3078,5.7868,-2.0452,-0.8816,7.3726,-10.6762,-1.4332,2.3568,-2.7445,-0.56175,-2.1294,0.31338,-5.9114,8.3538,
-4.0733,-2.2732,0.48768,1.5814,18.4994,-23.051,4.4374,-4.5331,0.7942,0.91821,-2.4838,-3.5618,-7.4849,-1.7884,
-6.2391,-8.4033,1.4227,0.52267,28.4771,-35.7679,1.2791,-18.2408,2.1928,3.2732,-5.2268,-3.3481,5.4977,-14.2141,
-5.3828,-9.3454,-0.59081,3.8653,31.1068,-47.7219,-3.6184,-30.1613,-3.7233,3.0769,-2.985,-5.5573,10.4705,-12.3974,
-0.48031,-12.8822,2.0955,11.5874,32.8556,-54.0178,-0.26802,-31.9673,-5.1869,1.6872,-1.1189,-1.6087,0.92397,-9.4842,
-1.8978,-22.7141,2.4522,11.8564,35.705,-57.5252,-4.1083,-36.3158,-1.0193,0.13969,-3.4619,3.7905,-3.9517,-6.9869,
-3.2299,-24.2436,-1.5514,11.1453,35.4911,-59.3761,-6.2717,-40.4036,3.8623,3.0241,3.4947,7.4196,7.8548,-3.193,
-0.14406,-23.7533,-3.3867,11.9224,34.8075,-62.5624,-3.4853,-41.3538,0.73805,1.8783,11.4797,5.0463,14.6139,-7.3402,
4.2031,-24.256,1.1551,12.6531,37.0576,-56.8803,-4.7222,-38.3904,-2.6805,-1.1267,8.863,0.88688,7.9527,-3.5256,
5.1562,-24.9703,5.1831,14.063,34.5931,-48.8882,-5.6442,-36.328,0.13192,1.592,6.644,1.557,2.4138,8.0141,
0.74928,-24.6771,3.1851,12.4966,29.3843,-47.1599,-6.5106,-41.6203,0.84714,2.7015,11.7887,6.0431,3.9565,6.8101,
0.94575,-21.0269,-3.0318,8.1314,30.2723,-44.0891,-8.2891,-44.6663,-1.8552,0.37029,10.3585,8.3316,7.8164,3.2685,
8.6015,-17.8373,-3.814,8.1252,35.6866,-37.1055,-2.4893,-36.2019,-0.77983,0.83023,1.542,6.8676,7.8296,7.8929,
12.1833,-20.8644,-1.4157,8.843,32.3406,-32.7098,-0.17036,-27.5219,-2.9022,1.0214,-2.6478,6.697,5.1907,6.6964,
9.5236,-17.6844,0.11548,8.3124,24.6156,-24.9628,-2.0888,-26.8349,-2.7281,0.47817,2.8137,7.259,5.8431,6.7766,
7.5062,-9.3927,-1.3379,8.2958,23.6208,-17.6802,-1.4813,-27.6352,2.738,0.44925,8.4292,4.8951,5.0103,8.2979,
8.2609,-10.5161,-4.8731,7.5569,22.4443,-17.3426,-0.66929,-24.772,1.8506,0.1811,5.2721,2.432,5.9148,2.2562,
8.2471,-12.2953,-2.6525,7.5854,16.7593,-16.302,-2.5573,-22.3213,-1.6344,0.17069,-3.2389,-3.0161,5.5599,-5.1095,
7.9935,-7.9424,1.1221,7.8534,15.5125,-9.7805,-4.5733,-19.777,-2.7414,-1.0446,-7.1421,-6.9327,-3.2096,-7.9362,
5.5857,-7.9478,0.090875,5.454,16.51,-3.4091,-3.3346,-15.6983,-2.095,-1.4643,-3.3394,-9.4093,-6.8734,-6.9781,
4.7684,-7.9531,0.085652,5.6089,14.0734,-0.3118,-0.72413,-13.7919,-1.0052,0.55195,-1.2104,-6.9163,2.2163,-8.0055,
5.4464,-7.9581,2.4904,4.7902,10.3367,-3.1854,-3.091,-10.0721,-3.3552,-0.92719,-7.4047,1.2117,5.4576,-8.0073,
7.289,-6.7574,6.4386,2.8158,10.4396,-0.82533,-4.1106,-4.8887,-4.359,-2.0771,-5.2732,7.1643,1.5145,0.90904,
6.1283,-6.111,4.3646,4.816,5.2335,0.91142,-2.1772,-8.6927,-5.7847,-0.74717,0.58679,-0.25544,1.1826,6.88,
0.21722,-5.0212,0.4875,4.2859,3.2325,-0.34833,-4.2155,-14.6789,-4.2325,1.4671,-0.17155,-4.3372,6.1731,5.7441,
-6.7859,-5.925,-0.26488,-4.4072,8.1,0.87763,-8.5421,-11.1468,-0.84532,1.1378,-1.8487,3.8765,1.2232,5.1583,
-9.994,-7.2565,-2.4179,-4.8659,2.0706,1.0662,-7.3065,-8.3086,-1.9997,0.82837,-0.53227,7.2596,-11.1425,5.5724,
-10.8403,-5.3751,-4.6832,-3.6094,-6.7305,4.3764,-5.904,-10.2204,-2.8438,2.2252,-1.4644,-0.88855,-11.9199,2.3457,
-6.3333,-4.0885,-4.4022,-6.7675,-6.8089,10.8625,-7.9601,-5.7506,-4.6011,0.16322,-7.1614,-7.5844,-6.8662,-0.68776,
0.31298,-2.3972,-0.28169,-4.9154,-3.508,12.6211,-6.5184,0.86118,-6.7354,-1.2926,-10.1059,-4.719,-5.9721,-3.5388,
-1.634,-0.80707,-0.74672,-3.6562,-3.7795,11.8639,0.13923,3.7016,-3.9212,1.1951,-7.0894,-3.4715,1.1347,-10.0749,
-8.0434,-0.99961,-8.1737,-9.4623,-8.6144,14.2855,1.8186,3.7209,0.41192,1.8467,-3.5306,-8.3249,4.6825,-10.6752,
-10.6939,-3.5907,-8.8884,-11.0638,-7.3742,10.7768,1.468,3.2562,1.1101,0.53064,-3.5597,-9.9946,-4.5165,-8.348,
-9.3296,0.23991,-3.2938,-5.8209,-1.8707,4.5864,4.0313,5.7122,0.32037,3.1501,-2.1413,-4.8154,-4.9691,-13.3909,
-8.5286,5.7689,-1.8909,-3.3022,-4.4093,9.3731,0.65613,8.9846,0.059953,4.6481,1.6026,-2.3575,-0.091446,-14.7564,
-12.3554,3.4948,-2.7416,-4.5501,-6.5551,12.6669,0.61699,6.0357,1.5028,3.8875,0.54258,-3.1797,-5.8703,-7.1223,
-18.1218,1.5977,-8.1207,-6.9284,-3.5105,3.471,2.267,-0.35226,4.5459,4.8593,-2.1413,-1.3019,-5.7593,-9.3463,
-16.0702,4.8762,-8.1154,-3.6202,-0.88975,0.37064,-2.2074,2.5614,5.7194,5.0497,-1.0487,0.70439,1.8171,-14.5701,
-8.1163,1.4504,-5.9415,-2.1979,-5.4159,0.1072,-9.547,4.0947,-0.16757,1.6135,-3.6371,-2.9535,-3.8353,-5.7419,
-2.3269,-2.4928,-2.2105,-3.9945,-6.537,-3.7554,-4.6356,-0.48952,-4.4961,1.5164,-3.9008,-2.7761,-6.0155,1.3512,
-0.74128,-1.3796,0.81418,-3.2727,-2.7705,-5.4585,4.8013,-5.2806,-1.8159,1.9076,-2.221,-0.68155,-0.35219,-8.853,
-2.8657,0.39067,-1.4038,-2.3532,2.4572,-3.9259,2.8263,-7.6151,-1.4663,0.58809,-5.221,-1.8457,0.87401,-12.9013,
-2.2119,-0.11516,-3.2478,-3.1763,2.3097,-4.1723,-3.6103,-5.23,-3.7884,1.9986,-7.8,-3.6632,-1.1066,-0.076126,
-0.39168,-0.83093,-2.8117,-3.7084,-3.8542,-5.127,-3.6344,-6.1213,-3.3199,0.19169,-11.4291,-4.1661,-4.6554,3.5441,
-3.0197,0.42376,-2.8842,-1.7991,-0.97183,-2.6502,-2.2115,-7.4412,-0.46962,0.42116,-13.3949,-3.6756,-4.6171,-7.5148,
-3.3207,-1.5296,-3.675,0.71918,4.8713,-0.5628,-4.0068,-2.1743,-0.44121,3.7706,-14.0373,-7.7931,-1.4477,-17.1871,
-1.193,0.49012,-2.9726,0.67626,-1.2058,0.917,-8.1049,4.7049,-2.3432,0.65204,-15.1232,-9.254,-2.325,-13.7455,
-2.3265,8.8966,-4.4815,-2.0156,-4.2667,2.067,-7.8594,6.11,-0.99751,-0.5926,-12.5286,-3.1549,-2.4267,-2.5567,
-3.8744,7.1578,-7.8278,-3.0998,2.497,1.2199,-2.3264,-0.28235,0.7498,3.0586,-11.5359,-1.2786,-3.0042,-5.0546,
-0.50844,-1.2255,-6.153,-4.601,3.0701,4.2802,0.94626,-8.7015,-2.4287,1.1879,-16.3874,-7.2274,-2.583,-18.8513,
4.3425,-1.1522,-4.3378,-5.289,0.47553,7.3976,2.8179,-5.2872,-2.7651,-0.32944,-17.8145,-14.9887,1.9105,-28.4458,
4.5639,2.7738,-7.9337,-4.0078,-3.4089,4.5436,1.2026,3.2252,-1.153,-1.7559,-17.7095,-24.6945,-5.9169,-26.2569,
10.0747,8.3915,-6.0117,-0.87485,-3.2049,9.5732,0.16655,6.8881,-1.0838,-1.6506,-18.5753,-22.2487,-14.2387,-33.3585,
18.1473,14.155,0.13362,-1.7867,2.772,21.0503,-0.80777,6.4748,-2.465,-0.10528,-19.389,-13.201,-6.6357,-38.1057,
28.1452,20.5361,2.5357,-1.6795,5.9801,27.5001,0.20456,16.2092,-4.7272,2.3112,-17.7437,-7.5887,2.9215,-22.322,
33.4464,27.2581,5.0349,3.0006,3.4522,27.0549,5.254,22.7085,-4.2026,1.9315,-17.8842,-6.8922,1.0589,-9.6543,
27.1015,27.0691,4.2509,7.1596,-0.61111,23.0217,4.457,17.4898,-2.9864,0.85154,-18.7391,-8.8888,-1.8969,-21.1263,
25.7159,23.7573,4.2366,4.5604,0.63039,22.3633,3.9482,19.0915,-3.0482,1.0414,-18.3381,-6.6684,2.7962,-22.5103,
26.3424,24.5012,7.1159,-1.2566,-0.13056,25.601,5.8807,17.7048,-1.6602,-0.22614,-20.8532,-7.9556,4.7978,-8.8674,
18.0131,18.6926,4.2785,-3.1097,-2.0507,20.6908,4.0818,7.9657,-2.5247,0.75153,-21.5302,-14.2269,3.0639,-9.2995,
8.9786,6.7248,-1.0396,-6.0566,-1.6867,10.5312,0.22148,7.2468,-2.6142,0.9474,-20.4794,-16.9887,0.71048,-16.6952,
7.7168,5.5986,-1.7001,-7.8621,-3.7549,10.6225,-0.033006,14.7659,0.194,-1.7608,-24.794,-17.1742,-0.054824,-11.5959,
6.5309,9.3601,-3.7673,-3.775,-6.6626,20.3495,2.1386,18.4593,2.8339,-0.93222,-23.0654,-13.0105,3.082,1.3923,
-3.261,7.5932,-8.1208,-4.7535,-8.9144,21.2977,0.32305,18.557,2.4224,3.2215,-17.102,-4.7581,6.9944,6.37,
-14.1526,8.5838,-9.5619,-9.771,-10.7897,13.7528,-2.1069,14.0691,1.7952,4.474,-16.558,-0.13427,8.9849,2.1314,
-14.2675,11.443,-6.5781,-7.2567,-5.3218,13.4098,3.3219,11.2966,10.3643,9.508,-14.1185,1.3198,9.4099,2.0033,
-15.0987,2.8027,-9.3164,-6.5801,-3.3153,11.8823,2.8816,10.3783,11.9116,11.5891,-14.4765,0.035792,7.158,8.3911,
-15.1569,1.6705,-11.1678,-6.6673,-9.3831,9.241,-3.0756,8.7915,3.9663,7.0371,-17.9462,-1.4126,10.1028,11.7442,
-11.8373,5.9085,-9.0515,-3.8571,-11.2302,9.1689,-3.8554,8.7459,2.764,7.0973,-20.2439,-1.3279,8.0508,6.7008,
-7.9936,6.7593,-3.9289,-0.49219,-4.5309,15.1263,3.3658,18.585,12.9625,16.5534,-17.342,4.2954,2.5061,8.9501,
-9.9243,5.3897,-1.765,-2.873,-4.7412,19.0392,9.4306,21.3265,19.4154,18.9344,-14.3733,3.5555,6.2121,12.7516,
-16.8006,1.9327,-6.2387,-11.6186,-8.072,12.3531,3.321,9.683,11.2609,7.9163,-19.5366,-7.5039,11.865,4.5146,
-17.7208,4.7094,-9.7206,-14.778,-5.1772,11.1301,-2.1808,11.0298,5.2827,2.1388,-22.2206,-11.3921,8.7427,2.7976,
-14.0063,6.1138,-7.9323,-10.7578,-7.5181,13.5955,3.0115,21.2145,9.5453,4.6618,-21.1286,-7.0932,4.6029,11.5478,
-19.4326,-2.9299,-15.1692,-18.3073,-19.1184,6.5131,-1.9896,14.1569,2.2234,1.4898,-28.0558,-8.5958,5.7728,9.4089,
-21.3999,-1.0669,-21.2489,-25.1626,-18.2122,5.8813,-6.9315,9.2101,-4.8994,-1.7326,-29.9877,-11.2133,12.4163,9.5672,
-19.6338,2.3716,-22.3841,-27.5092,-18.0834,3.1183,-11.3363,8.1755,-6.0517,-5.9675,-35.419,-16.3251,3.9585,15.2602,
-16.5276,-0.1813,-17.6668,-20.5562,-16.5164,2.4493,-9.6918,12.5053,-1.3503,0.65711,-40.0428,-9.0791,-0.6173,25.4313,
-26.8639,-8.6061,-24.5603,-23.42,-14.8023,5.4358,-11.2795,10.5501,-1.9922,3.2692,-45.1118,-2.9905,0.14264,19.8086,
-31.278,-3.5104,-31.0409,-26.1124,-15.6014,12.0991,-16.1463,8.2299,-2.1136,-0.060406,-41.2002,-6.4267,0.37504,19.343,
-23.6165,4.4134,-26.7679,-22.1353,-17.5576,13.7833,-17.5877,9.1824,-0.058582,-3.9132,-39.2102,-8.9332,-0.12939,32.2824,
-25.574,-0.67233,-23.2338,-21.7715,-15.5401,10.064,-13.6406,9.1131,-0.53723,-5.1244,-48.9089,-12.2538,1.3244,27.3324,
-32.2345,-3.524,-26.6603,-21.9115,-13.6436,12.8346,-8.4834,10.0126,1.9051,0.96764,-51.277,-15.3749,2.2093,11.5925,
-33.4337,-0.17935,-27.2301,-19.3917,-14.0302,17.126,-5.8054,12.5451,6.3703,6.453,-47.4772,-12.7652,-1.5389,4.9919,
-34.561,-0.40944,-24.3908,-20.3972,-14.8755,11.5192,-5.216,13.4797,5.2653,1.9685,-54.9926,-13.6864,-6.026,16.9845,
-36.3439,-2.7953,-25.3379,-23.0299,-13.501,5.0431,-3.9391,12.6706,5.4315,-0.077647,-60.37,-17.6858,-3.7364,8.2528,
-35.8505,-2.8686,-25.5048,-20.925,-10.0398,7.3917,-2.9794,13.1157,7.7567,6.4345,-59.3991,-13.0095,0.10323,2.214,
-36.3505,-5.83,-28.5538,-22.8027,-12.5704,5.2614,-6.898,11.6058,1.7477,4.8436,-65.7171,-11.0236,-4.4822,14.3732,
-32.4824,-5.2391,-29.974,-26.0142,-12.0573,2.7762,-8.6536,10.6682,-0.52625,0.45528,-67.3178,-13.0134,-2.0443,19.0546,
-33.1847,-4.2015,-33.2371,-31.9251,-10.6108,-1.9698,-8.8574,6.8949,-5.0741,-2.7052,-62.5557,-15.8481,2.6578,6.583,
-31.1938,-2.0212,-30.279,-31.938,-8.046,-6.1904,-8.8083,8.8914,-6.2159,-3.9891,-62.6588,-19.2358,3.9446,6.6699,
-27.3938,0.51042,-27.0158,-27.1292,-4.1888,-12.0852,-7.7972,9.322,-4.3969,-5.1958,-68.0581,-23.3838,2.2619,16.3933,
-30.5706,-3.3768,-30.6975,-29.3578,0.88302,-21.9652,-7.3296,-1.3605,-5.5791,-3.438,-64.9389,-19.5707,3.5722,19.2659,
-37.8953,-13.2972,-32.7121,-28.5603,10.9531,-32.6987,-7.8538,-12.3657,-3.7982,3.999,-60.0784,-12.1298,7.6965,21.9662,
-39.4781,-22.1405,-32.6777,-22.5085,18.0088,-43.7521,-7.8646,-18.8547,1.2503,1.3488,-62.7403,-14.2944,7.7166,20.1662,
-30.1195,-22.0171,-30.9578,-17.0604,25.3644,-50.0448,-1.3672,-19.4107,4.3087,-1.3835,-61.145,-15.1238,14.2434,16.7871,
-27.3484,-22.1422,-34.4031,-15.0728,31.5552,-57.6475,0.6429,-26.9228,2.1217,1.1098,-60.3687,-13.2524,21.5834,15.2978,
-29.3229,-22.5009,-32.5799,-6.2145,39.544,-55.8757,1.8099,-27.9588,8.0204,6.1051,-59.8799,-6.4314,29.6886,20.8876,
-26.3583,-25.7303,-27.0098,0.666,45.6072,-50.3539,7.2445,-21.7018,16.9388,8.8717,-63.759,0.94397,34.4149,21.8036,
-20.4384,-23.2225,-25.871,5.9288,50.5836,-48.7788,13.0765,-21.3637,20.7431,15.0882,-72.4666,7.1542,33.3145,21.4594,
-15.1146,-17.7317,-25.0417,10.6346,50.6817,-42.7187,11.5691,-24.1793,20.2215,18.7625,-79.4469,7.9301,31.5567,28.6081,
-7.2181,-19.3191,-21.8522,9.7554,49.3281,-38.9507,11.1159,-20.0773,19.2494,12.5751,-76.3673,5.7669,32.3144,40.9916,
-3.1695,-21.7752,-23.6745,6.5188,43.2352,-36.8545,9.2436,-15.2573,14.4789,6.2771,-73.9546,3.2518,27.7243,50.4628,
-5.8717,-17.5765,-26.5924,3.7175,35.3381,-30.7868,4.8327,-17.2341,11.1999,7.8286,-75.3017,2.0925,23.6504,40.6863,
-3.8322,-15.7988,-23.3097,-0.12101,35.8692,-26.2882,5.2659,-16.9231,8.8407,7.1179,-73.435,-0.68416,32.5954,38.4858,
0.013045,-17.9843,-24.0804,-1.3189,36.8504,-24.4701,9.0471,-12.7744,7.5873,2.1114,-66.8596,-3.7765,41.9678,39.3101,
-5.2903,-17.3873,-25.0458,-2.6859,33.6754,-21.5557,13.3249,-11.5259,12.4346,4.395,-58.0276,-5.9604,40.4139,29.2386,
-8.8291,-18.2721,-23.061,-9.2733,32.6191,-15.9237,13.9716,-8.9062,14.5809,7.0237,-51.1714,-8.4949,37.5071,23.1458,
-1.7918,-21.7552,-24.3285,-16.671,31.3849,-11.8352,8.0717,-8.1308,6.2341,2.0226,-48.3422,-7.7441,37.9078,27.3008,
1.6899,-15.1475,-18.5305,-12.2963,29.0197,-9.1969,11.9259,-4.7506,8.2704,-0.026932,-43.5135,-1.4949,42.8644,27.5912,
-10.2217,-12.0693,-19.1058,-12.2818,26.5553,-8.404,16.7541,-2.2966,15.2459,-0.2664,-40.6618,-0.20027,41.0156,28.1045,
-23.7084,-19.2991,-32.0594,-25.6449,25.2034,-3.8024,8.759,-4.8099,15.0543,-4.3478,-43.2836,-6.2138,29.1547,33.8901,
-24.3344,-18.1411,-38.9333,-34.3497,19.3527,2.2105,-1.8896,-4.0392,11.7408,-9.8716,-50.3276,-9.2153,25.4771,36.6772,
-16.6076,-7.8936,-35.1511,-30.3603,14.8173,4.9701,1.1161,3.9161,10.5544,-12.1716,-58.8771,0.49664,34.0716,44.1178,
-13.9242,-7.6609,-36.1753,-31.19,10.3127,7.3232,1.7723,4.4041,6.7876,-14.0926,-69.4445,1.6719,31.3041,47.0141,
-9.7143,-8.6475,-34.4869,-33.6571,2.4631,8.812,-2.6726,2.2116,1.5599,-15.1753,-76.9675,-8.5513,21.7131,41.7831,
-1.4188,-3.7902,-32.4178,-32.6019,-2.0232,7.3191,-3.9584,4.9711,-0.94394,-13.3005,-81.5086,-13.341,22.8206,39.7582,
-3.2618,-4.5269,-36.7393,-34.9841,-5.2762,8.8082,-6.1313,6.1191,-5.2259,-14.4307,-84.3308,-14.9507,28.6822,47.0137,
-6.9224,-8.1116,-35.4989,-38.1876,-6.4056,13.1005,-6.7274,7.6803,-9.2507,-17.4213,-82.1632,-13.0894,25.0332,46.6031,
-5.3019,-5.4558,-31.6818,-38.5478,-7.2264,11.1091,-2.7084,10.8348,-7.9724,-16.135,-79.8848,-14.4733,12.6848,29.7069,
-8.5992,-7.2977,-41.1094,-45.6349,-15.2287,7.7912,-5.1972,8.9796,-7.7353,-12.5156,-78.7071,-21.5589,8.7905,17.44,
-11.4577,-9.7521,-44.9093,-51.5737,-20.5817,9.2521,-5.3673,7.9589,-5.343,-10.3186,-69.6462,-20.7475,21.2785,22.6601,
-7.8779,-10.1311,-44.1429,-55.2279,-15.4905,7.2508,-3.1171,8.4455,-1.648,-11.6277,-61.1288,-17.0923,24.3403,16.962,
-1.8616,-9.7642,-48.0021,-54.0834,-10.9456,7.0567,0.20318,10.1079,1.1022,-11.171,-55.292,-15.8258,21.1927,12.3293,
-4.6422,-11.1065,-54.7629,-54.6948,-13.6633,9.0436,3.5654,9.0193,-0.89208,-12.4289,-50.0462,-15.3582,25.7054,18.8202,
-7.0151,-9.7173,-57.503,-58.4031,-12.6024,8.7419,5.0386,8.237,-3.49,-11.9243,-46.8026,-11.3036,31.6348,24.1983,
-6.353,-7.929,-59.1143,-61.4064,-12.5694,7.0123,1.1209,7.0197,-5.9317,-10.4857,-49.0557,-13.2764,30.9422,23.47,
-8.864,-3.1148,-57.0136,-59.1682,-9.887,8.0377,-1.3566,10.4552,-6.54,-10.8207,-55.2715,-15.8542,27.6393,27.8463,
-12.6707,-2.9279,-56.4851,-58.5104,-5.4374,7.5554,-1.2752,13.2021,-5.1835,-10.6534,-60.6321,-11.5287,21.1605,28.5859,
-10.2235,-6.8496,-59.6037,-58.1332,-3.4239,3.9689,-0.47556,12.169,-3.6674,-6.881,-56.2712,-7.7037,21.5781,27.5936,
-4.3072,-4.9924,-56.5094,-56.0913,-2.7363,3.7307,-1.4111,11.9208,-1.5192,-6.4681,-47.1102,-5.3131,29.4424,35.097,
-1.3976,-0.59559,-48.5394,-59.2336,-0.885,4.7121,-1.0854,14.3387,0.25907,-7.2852,-46.4528,-7.1636,32.7372,34.6781,
1.3376,-1.7649,-49.2425,-63.1514,-1.0729,2.7421,1.6311,14.6837,0.0025622,-5.1609,-46.7989,-12.7593,29.5682,28.9824,
4.3905,-3.8283,-48.4572,-64.4239,-0.76764,1.3724,5.6304,12.5975,3.1358,-3.646,-41.3398,-16.0912,30.9272,28.9304,
2.6809,-6.0088,-38.319,-67.307,5.545,1.7721,7.7029,9.4316,8.7323,-3.9093,-41.7518,-15.1259,32.9281,22.374,
4.6893,-3.9612,-32.4044,-67.3661,7.8638,0.94277,7.9639,9.1066,7.0032,-2.9517,-43.8261,-11.0849,34.0858,16.934,
5.613,-0.59027,-38.4141,-68.3858,4.7404,-1.7651,10.6194,7.3549,5.8599,-0.12332,-40.9556,-9.2148,32.2816,17.1233,
-0.026156,-2.965,-39.0013,-72.9595,3.4921,-1.6592,11.4285,2.0933,7.4365,-0.11592,-41.3905,-9.626,25.5242,13.2036,
-0.9888,-2.7872,-33.2871,-70.0281,5.2107,1.8147,6.4041,2.4496,3.1338,-3.4833,-37.4609,-6.6382,28.8129,16.2677,
4.6143,-0.45046,-31.0486,-63.6571,7.0673,2.911,4.8149,7.3644,0.29479,-4.4795,-34.49,-5.9988,34.0741,29.3916,
7.7117,-3.3158,-31.114,-63.212,2.3048,2.7362,6.4541,8.8506,1.2411,-4.2106,-35.313,-9.4954,28.6556,35.9435,
7.9721,-1.9119,-31.4164,-65.9271,-3.3772,3.2953,1.4874,11.4527,-1.4848,-4.6812,-31.9891,-11.0949,20.4282,26.315,
7.7348,5.6747,-34.1108,-68.4791,-5.3436,3.8206,-4.1453,14.8632,-8.3853,-7.0515,-30.3108,-11.152,23.3002,27.3875,
7.9937,6.5394,-35.6797,-68.4678,-4.7821,4.7965,-6.548,16.1405,-10.5336,-2.531,-31.6255,-10.2421,26.4813,34.6622,
2.2116,-3.4941,-38.3595,-74.4828,-6.4233,-1.7579,-13.3859,8.9054,-9.4195,0.51305,-33.5845,-12.5199,17.662,27.2802,
0.39177,-5.9356,-39.1911,-77.0036,-5.3149,-0.92942,-15.2339,4.756,-6.6851,-0.24075,-26.5076,-11.5277,18.7713,29.2587,
-3.2473,-6.7847,-40.9371,-78.409,-7.1653,3.7058,-17.9354,6.1578,-8.9352,-2.3956,-20.8199,-11.559,25.5991,32.0823,
-9.078,-9.5108,-37.2758,-79.73,-6.4941,1.3142,-20.4745,6.5114,-9.1222,-1.5287,-28.0066,-10.1423,24.3039,23.6501,
-10.4616,-7.494,-34.075,-78.8027,-6.1046,-1.1748,-19.2461,3.7105,-6.1646,0.0091536,-38.3775,-10.9799,19.4715,21.7491,
-10.798,-6.5625,-36.851,-78.4129,-12.9689,-1.1044,-18.5733,1.0775,-5.7947,0.0086049,-40.8953,-20.4443,15.8929,23.3364,
-10.8733,-5.9277,-37.7734,-78.2876,-13.878,0.16697,-18.182,3.664,-3.2779,0.24906,-40.611,-23.7971,16.1446,17.8384,
-9.2568,-4.1258,-36.9531,-79.8571,-11.1172,2.0851,-16.127,4.8902,-4.0453,-1.6941,-44.4408,-21.4052,12.7656,12.912,
-8.2192,-4.3604,-32.8077,-76.9939,-10.9323,2.4422,-10.8211,3.6329,-5.7308,-1.1103,-39.8462,-20.1209,3.3225,13.5835,
-4.3518,-3.6166,-24.5727,-72.3742,-12.2045,2.7776,-9.6897,4.379,-2.0125,0.88454,-32.153,-17.9496,3.1234,16.1427,
9.6478,6.0004,-16.1085,-68.2727,-9.7851,8.1546,-6.9391,8.6956,4.1338,-0.85576,-25.1621,-17.5957,17.036,19.2715,
12.6843,5.3992,-18.2753,-69.2379,-7.5108,9.3524,-3.8716,9.8612,1.2346,-2.4915,-16.1807,-24.9758,22.6417,13.5356,
5.1747,0.25469,-18.625,-70.8684,-6.5781,7.8273,-3.6391,8.7872,-5.1061,-2.8241,-10.8714,-27.3337,15.4987,14.1698,
9.2025,4.578,-11.241,-65.1702,-5.7013,11.696,-5.349,7.2961,-6.246,-1.6905,-14.5575,-21.8373,14.0869,25.8531,
17.0862,7.9187,-10.3253,-60.0547,-8.0105,15.0918,-4.3049,8.0636,-4.184,-0.38405,-11.9968,-14.5013,14.447,28.3993,
16.0611,6.4795,-9.706,-59.344,-6.5658,12.74,2.2199,14.328,-2.0048,-1.3251,1.7382,-9.7748,15.99,26.6951,
16.0616,7.5369,-8.1594,-59.1577,-4.2438,12.4577,-0.80571,14.4326,-4.2948,-5.1021,6.4545,-11.5986,14.5486,24.1294,
18.9543,9.0128,-12.4904,-58.0183,-5.4352,16.0487,-5.5779,8.7464,-5.9653,-5.2779,5.1031,-13.313,11.2655,24.1279,
15.1656,7.2669,-11.982,-53.8142,-4.868,16.7729,-2.5917,8.4627,-1.5099,-3.7561,12.2686,-12.2732,16.1333,25.8134,
6.3021,9.0002,-10.0579,-50.8262,-3.8529,14.5614,-13.2824,8.6777,-0.69627,-5.218,14.6659,-12.2598,19.7445,16.7927,
10.0213,16.4141,-5.3569,-45.1255,5.7783,22.1236,-20.9213,14.183,4.407,2.5669,15.9553,-5.4986,22.6577,14.0983,
14.2404,14.4651,-4.5536,-44.8283,7.3597,21.7604,-20.1483,15.2599,7.0349,3.3771,21.7466,-5.1688,20.334,17.1085,
15.7964,13.5973,-2.834,-44.0666,2.5796,20.4547,-17.0111,14.8264,10.4693,-0.1999,31.5291,-5.3405,22.9704,20.4204,
14.3666,13.2635,-4.5923,-43.8329,0.49679,21.6379,-16.4725,11.5265,9.8411,1.2582,27.2271,-4.0561,22.556,19.1955,
16.8789,13.4317,-5.2807,-41.685,-1.9433,20.3395,-16.4481,8.9071,4.4302,-0.74557,18.3628,-5.7408,12.0439,15.1512,
23.338,13.3489,-3.7588,-38.9429,-6.8883,18.396,-16.1844,7.1671,-0.41509,-11.0649,17.502,-9.494,8.188,11.5908,
26.2762,12.5478,-0.15897,-39.0166,-9.8494,18.7384,-12.3209,5.2912,1.5379,-14.7395,22.2363,-12.7806,19.2658,12.8239,
25.6636,13.7233,-0.63148,-41.9781,-13.1147,20.9884,-7.7254,3.5276,3.3739,-8.5526,32.4714,-13.4599,25.8227,21.2131,
27.4982,17.2384,-0.59359,-35.603,-13.7741,24.5496,-5.8156,8.1362,7.0279,-6.1112,43.0564,-6.3858,24.2734,21.3866,
24.8841,17.6503,0.40601,-28.6465,-13.4297,21.6305,-4.9846,8.6122,5.1601,-13.4572,43.3654,-5.5206,23.7812,6.0034,
22.1861,15.8682,1.5868,-32.4712,-14.311,16.7173,-2.9984,4.4804,2.6812,-14.3369,43.8969,-16.9996,21.1489,-1.2257,
23.9881,16.6033,2.6968,-38.9587,-12.2472,17.4014,-4.0237,3.9703,2.7614,-13.7178,49.2169,-21.5231,15.3008,12.5862,
25.9234,14.6428,1.0888,-38.0673,-11.5125,17.3215,-3.7822,7.1066,-0.77863,-23.0179,45.7818,-13.4829,15.3467,17.1334,
24.8499,10.3898,0.54135,-37.2295,-14.6781,10.9796,-1.627,8.126,-3.6244,-31.2778,38.6964,-10.2638,11.5334,5.9825,
23.1178,10.0075,3.1603,-38.1291,-17.8949,9.5978,-1.2883,10.2901,-4.6119,-26.7499,37.0976,-12.2992,-0.48668,7.3104,
22.4539,10.1302,2.7295,-34.6363,-11.7597,9.7448,-1.9342,10.3956,-6.5046,-21.0476,38.005,-8.9102,-2.1447,15.3079,
15.0811,3.0147,-1.5316,-36.6555,-5.9925,-0.7218,-5.4335,1.336,-9.7295,-24.8462,34.5197,-10.5447,2.5635,7.3998,
14.6583,1.3876,-1.9218,-42.1691,-5.1509,-11.7656,-4.6255,-7.9031,-9.1458,-25.2835,34.8589,-13.7683,5.7843,-0.27492,
12.5736,-0.38272,-5.9039,-49.0388,-2.6725,-25.1597,-6.9992,-21.5289,-11.7305,-24.0076,38.3109,-14.1474,2.7858,-2.9099,
18.0858,5.9069,6.5017,-33.5631,11.5878,-35.8219,1.6156,-20.3577,-1.8675,-11.48,50.1122,-6.0678,14.6698,10.2803,
20.8571,1.6961,12.3781,-19.9802,24.9925,-39.4572,4.411,-21.0644,0.65468,-10.309,57.59,-5.7038,19.5744,7.735,
25.3903,-4.1904,10.1893,-10.5865,29.5185,-44.8026,7.5206,-25.5852,-0.34881,-12.5829,55.0988,-0.54093,19.3637,0.039965,
26.0361,-6.1081,4.9984,-2.9615,35.7014,-50.5504,5.8643,-33.932,-0.086685,-10.1407,62.157,0.69659,15.5508,2.6891,
26.6432,-7.9109,9.7601,6.6161,39.5847,-50.6507,6.7174,-35.9938,6.4261,-3.5066,72.5275,3.306,17.269,8.071,
32.2753,-9.8465,19.7797,13.932,41.5481,-49.5397,16.9196,-37.6905,11.3431,-3.2963,82.2759,9.3743,30.2125,6.1409,
35.6413,-6.8455,21.9672,15.9883,42.4295,-44.1571,21.2069,-37.8393,12.5908,-5.0266,91.4393,11.7042,35.6302,7.2183,
32.5388,-6.4347,20.167,14.0649,40.3659,-36.6872,17.0422,-35.5689,10.8713,-0.86863,94.9914,11.4839,23.3695,12.0879,
32.9968,-7.9768,21.8495,18.5236,42.2825,-32.5578,18.43,-31.5066,12.1472,4.9681,98.451,18.0257,21.4854,12.3269,
33.9092,-6.0521,22.9488,21.2687,42.1558,-30.1223,20.2166,-31.0623,15.2746,4.6701,97.8464,19.3544,25.9807,4.3564,
32.8387,-3.2786,19.1615,14.208,36.252,-26.8687,17.5574,-31.609,10.9839,-0.91276,89.5655,11.9266,18.1554,-3.1359,
33.5198,-3.323,19.6992,10.2222,31.4257,-22.6053,14.8168,-29.4713,1.4069,-6.4015,86.8428,8.5598,12.0045,-6.0806,
30.7854,-3.3647,19.7222,8.8856,27.8528,-18.1159,12.7226,-27.462,-0.36483,-12.0433,84.7654,8.769,12.4894,-4.5111,
28.4563,-3.1628,19.9849,6.9064,24.2534,-14.6186,10.513,-25.8143,-2.7531,-18.0694,82.5717,8.2429,13.1858,-3.7585,
26.0259,-3.2141,19.9909,5.769,21.1111,-10.6081,8.6773,-24.0243,-4.275,-23.0106,80.751,8.4715,13.6001,-2.3276,
23.9822,-3.0213,20.2377,3.9766,17.9163,-7.0793,6.7104,-22.5829,-6.4289,-27.8967,78.7983,8.4452,14.2303,-1.706,
21.5792,-3.3219,19.9876,2.7739,14.9131,-3.7623,4.8617,-21.2279,-7.9713,-32.4897,76.9627,8.4206,14.3404,-0.63928,
19.3202,-3.6049,19.2704,0.67919,11.1259,-1.6082,2.1596,-20.9184,-10.8674,-38.2532,74.7551,7.4334,13.962,-1.0832,
25.633,-0.73704,21.2474,-0.084463,9.7354,-1.2708,2.2712,-20.8684,-9.0103,-34.7527,78.7057,6.7464,6.6166,-1.2589,
20.4796,-0.93378,22.142,-2.2486,8.4282,3.385,0.44769,-24.1958,-4.8542,-28.5702,74.2244,8.0288,-2.2161,-2.3887,
14.4303,-2.8061,21.7774,-5.4882,2.1378,2.6999,-2.4716,-22.262,-8.9014,-20.5894,63.9862,5.1366,-7.8678,-2.2455,
16.9389,-3.1196,21.917,-5.1587,-2.8107,0.60967,0.56924,-18.9981,-10.7775,-17.9077,62.0755,1.9364,-4.9856,-6.931,
18.8149,0.44177,25.4225,-6.2954,3.1425,3.4654,6.8016,-20.7505,-3.8643,-17.3152,69.4379,3.7484,-1.312,-9.8896,
16.2398,0.89731,26.3074,-12.6665,1.0256,5.6677,1.5731,-24.3258,-3.6323,-19.1687,72.5026,2.0773,-5.5715,-6.4041,
18.3987,-1.8079,23.5239,-18.4142,-8.9178,8.4611,-2.1367,-20.6971,-8.4761,-17.7776,71.7676,-0.2167,-8.3707,-3.8507,
14.1615,-3.3864,20.4252,-20.4426,-8.6237,11.0867,1.6069,-16.322,-11.1008,-15.5057,69.631,1.0016,-10.0379,-15.9114,
7.2862,-1.4961,22.815,-20.4212,-5.4551,12.5908,1.2694,-14.6197,-11.1577,-17.2268,65.212,2.6286,-8.7126,-25.8034,
7.3309,-1.4063,28.677,-24.9805,-8.0201,13.7635,1.1933,-15.1885,-9.0422,-16.6751,65.1557,-1.3855,-7.2257,-13.1677,
3.0348,-2.7681,23.582,-29.7483,-8.985,12.9376,-0.32446,-15.2414,-7.5355,-12.7824,70.8874,-1.3025,-10.6482,-6.1112,
-0.28089,-0.43295,16.1412,-28.2045,-7.7231,14.3304,-2.9564,-12.1577,-9.2526,-11.7746,70.2495,7.2115,-7.8405,-10.3242,
5.5207,3.4495,18.0651,-27.9584,-10.1519,13.9528,-6.1534,-9.9821,-14.9643,-15.4066,60.2498,7.743,-0.62128,-7.7762,
8.564,3.7246,22.7659,-31.1013,-10.9889,11.6695,-8.1944,-9.8652,-16.9586,-14.964,60.9735,3.4219,-2.9942,-2.971,
6.363,4.2241,27.9078,-24.1736,-1.8936,14.5847,-4.5694,-9.9963,-7.0232,-3.7019,71.4151,8.7603,-6.4297,-3.0338,
0.43752,2.2836,25.9922,-21.0361,0.3893,10.5764,-5.5002,-16.8682,-4.4325,0.61765,67.4916,8.9577,-8.6951,-13.2158,
5.7138,3.5927,27.807,-17.8456,0.84799,7.0495,-6.6163,-17.3023,-5.6127,6.8472,67.2986,8.9023,-5.2812,-10.495,
14.048,3.8592,32.8874,-10.5083,2.7252,5.1803,-7.6655,-14.3361,-5.758,6.9184,69.0454,11.2606,-6.8924,-2.6343,
18.2664,6.761,36.4577,-6.2627,1.8384,3.1822,-7.9288,-13.717,-8.5459,-5.3071,63.2154,10.3439,-12.0228,-13.8048,
17.6526,9.2476,36.1984,-6.851,2.2103,-0.38298,-12.2735,-17.2325,-8.9972,-13.1837,60.3865,5.3847,-10.3371,-27.0765,
23.1011,15.6827,43.4265,1.514,12.4418,4.7017,-19.973,-10.1728,-0.02149,-10.2232,70.5019,10.1233,0.64696,-15.9312,
31.8383,17.6339,47.0875,6.7257,13.6233,9.7219,-26.4875,-7.1522,-1.4663,-23.7098,77.8408,16.2644,0.12632,-0.99592,
34.0251,17.299,45.9495,10.9017,15.4573,13.7181,-21.7648,-6.964,-1.1374,-36.3873,82.0884,22.2784,0.84187,-5.9976,
19.2094,16.0201,41.9875,9.0425,13.8069,12.1721,-23.1102,-8.2334,0.61807,-48.304,82.7067,22.629,0.55039,-10.217,
15.1646,17.9512,42.8427,3.6795,7.6759,10.9596,-27.5082,-7.7394,0.58099,-43.598,82.0829,20.7891,0.034977,-2.3736,
24.137,17.1149,45.8156,5.1458,6.4923,14.8817,-23.2065,-5.5879,-3.0692,-43.6335,83.1833,20.7469,1.2381,6.2048,
23.8938,12.9548,44.2717,6.0421,5.3796,16.1579,-22.5372,-6.4577,-7.9467,-46.5591,83.254,20.225,-2.4514,6.0737,
17.1577,9.7673,43.5437,0.85924,1.6825,13.7423,-20.703,-11.3728,-6.5057,-46.6577,77.2946,22.3861,-11.4633,-1.5214,
15.4051,6.5299,41.6542,-0.39738,-1.5517,15.0869,-17.7736,-13.8237,-5.8744,-45.0633,72.4159,24.6583,-13.4268,-3.1176,
7.9728,4.4509,33.6114,1.3135,-3.1458,16.3509,-21.7686,-10.3431,-11.0655,-41.6366,73.6146,21.9735,-9.9701,-3.1715,
0.50504,5.3889,30.8716,0.029592,-2.2342,12.7185,-23.596,-9.9635,-13.5349,-44.6821,71.3669,12.7014,-12.023,-9.0068,
9.1516,7.9578,35.7679,2.4379,-1.136,17.258,-16.3956,-8.8838,-9.8305,-46.8216,65.1567,5.1904,-12.7481,-7.5023,
13.9049,5.5524,36.0322,5.6661,-3.9597,19.597,-13.4835,-11.2428,-10.2047,-49.7969,62.2114,-1.3876,-14.3931,-11.3907,
7.2862,4.2551,31.942,5.8082,-3.7225,16.0112,-12.6746,-12.9785,-11.0386,-57.8962,64.7455,-3.7145,-13.5294,-20.3481,
3.7156,2.7946,30.2665,5.2186,-0.36551,17.7017,-11.1911,-10.5127,-9.1711,-68.5224,63.994,-2.2865,-15.851,-21.7787,
10.2415,2.627,33.7531,7.7979,-2.7538,20.9778,-7.1453,-7.4717,-8.621,-71.7624,63.5287,0.74287,-19.2388,-14.2051,
12.76,2.7104,28.1125,6.6069,-6.6864,15.6218,-6.9575,-10.6388,-13.6473,-71.0721,58.5119,1.4214,-19.7713,-12.6299,
12.4768,4.4759,23.0515,5.7286,-4.357,15.1664,-8.4683,-10.0005,-18.1309,-71.1461,47.2884,0.37205,-17.1392,-16.2104,
17.7537,5.8946,29.6222,8.0359,-7.711,19.8,-8.2011,-5.785,-21.6226,-64.2262,42.2817,1.0729,-17.7981,-15.9611,
16.6885,3.1308,28.3268,8.5179,-14.4792,14.2737,-8.6734,-5.4381,-27.0741,-60.3726,40.7089,3.4186,-23.4786,-15.4854,
11.3484,2.9429,22.7708,10.4172,-12.6461,12.453,-6.2248,-6.0759,-29.788,-56.7503,40.6765,7.0699,-23.5162,-16.0025,
8.0167,3.9714,21.1636,7.623,-13.5744,14.3571,-7.0564,-10.7728,-29.6879,-53.1043,39.4414,3.0305,-23.3103,-22.514,
5.8482,1.5638,20.6166,7.8885,-14.4473,10.3624,-4.4636,-12.7778,-22.8452,-46.7848,40.6901,1.6434,-20.7066,-23.3325,
-0.28704,1.9521,19.3799,12.2359,-12.6164,8.2947,-4.678,-9.1186,-17.1359,-42.5314,44.5155,6.3655,-23.3203,-19.5222,
-1.7163,6.6555,21.5913,11.0196,-11.3773,7.3148,-9.2178,-11.464,-19.9642,-42.8718,48.5932,4.0551,-29.6341,-22.6894,
5.1357,2.8818,27.5268,12.2867,-10.6945,4.4659,-5.2904,-15.1144,-19.2484,-36.443,55.8006,3.33,-23.9996,-30.9689,
15.1918,2.4678,34.311,23.3598,-5.9556,13.1159,-4.7319,-6.2537,-9.1755,-20.9999,64.2631,16.3865,-10.7496,-23.0853,
14.2801,3.7659,34.6625,25.3325,-4.6341,20.5235,-18.5479,-2.9863,-9.107,-17.3299,60.8891,17.8135,-11.0686,-7.7206,
9.3254,6.6733,35.7159,24.5356,-1.705,18.0867,-31.5351,-5.9405,-8.3198,-14.603,58.4409,14.5754,-12.0918,-5.5702,
4.9098,3.8627,36.9475,24.9917,-1.6024,12.1812,-43.743,-3.1738,-2.5178,-4.5677,57.8269,19.4856,-10.884,-15.841,
-0.6874,0.73861,34.2488,19.6359,-4.3988,9.5221,-45.8183,-0.091072,-7.6694,-4.2936,49.5366,17.8343,-20.8363,-22.6033,
-0.88735,2.8635,29.5423,17.2524,-7.75,12.084,-51.0231,-2.2548,-20.4656,-13.436,35.7183,11.7028,-31.8784,-22.9346,
7.3608,2.2095,31.1442,18.6276,-10.6592,13.2874,-48.9258,-1.6373,-20.6837,-12.1477,31.6473,16.3033,-29.9655,-19.1481,
9.0885,3.2823,31.4451,18.7151,-14.1174,7.911,-43.3389,-1.7802,-18.7194,-13.5881,32.8816,16.5303,-29.8547,-15.348,
9.2664,8.1469,28.8351,19.2793,-13.9934,8.1591,-41.9437,-0.95034,-20.7296,-18.3163,38.8628,15.2974,-31.6789,-17.0784,
6.0591,3.0786,27.346,17.3995,-14.3588,12.731,-38.222,0.31175,-16.8348,-15.0482,45.4488,19.441,-32.4295,-27.864,
2.8031,1.4478,27.6335,20.6942,-14.4615,14.8598,-29.1799,1.2573,-11.9682,-8.8428,48.9885,19.2387,-28.0735,-28.1202,
4.0811,7.6273,28.3857,23.7909,-12.1477,11.558,-20.1984,-0.26433,-12.6962,-8.7942,52.3156,12.2997,-24.9429,-19.6842,
2.3899,4.7594,30.0567,17.5427,-8.5264,6.5256,-17.0584,-3.1409,-10.9705,-7.7848,50.6228,11.5616,-28.2672,-26.2161,
-3.2967,5.6791,30.9049,18.1776,-6.3276,6.3755,-16.2759,-4.6396,-5.7327,-3.2201,51.2009,16.8937,-29.2222,-35.9713,
-2.858,13.7744,31.7018,29.861,-6.189,7.6801,-14.0941,-4.1202,-4.1836,2.5166,56.0829,16.1209,-25.7818,-35.9823,
2.375,9.3324,31.4868,30.7208,-9.9151,7.4601,-13.9717,0.22449,-7.5481,5.9809,55.3689,12.9844,-19.1733,-33.5825,
-1.624,-0.38669,30.5616,21.6466,-12.2124,6.5305,-15.5437,3.1032,-9.9876,2.2477,47.7083,13.6515,-18.505,-33.0135,
-8.0342,-0.60411,28.487,23.4814,-9.3106,1.5592,-13.8878,0.74796,-10.1112,1.3901,41.7127,15.4841,-28.2406,-29.8275,
-5.6239,0.87794,27.7419,27.3749,-5.3775,-10.5859,-13.0545,-2.6714,-9.5045,9.0194,45.9584,17.4471,-31.8488,-28.0378,
1.9444,0.34333,31.38,28.6247,1.2116,-15.7353,-10.8252,-2.5111,-6.0419,11.3706,49.9498,27.0053,-21.2608,-24.4274,
5.9253,-0.4004,34.5587,33.8971,8.129,-16.9601,-7.5244,-5.9756,-7.3666,9.9652,49.1222,33.339,-18.7801,-14.5258,
9.6667,1.7928,41.8849,44.6375,19.9334,-22.9324,-0.083292,-8.7508,-6.6839,17.803,55.5744,31.5796,-17.4123,-4.2547,
19.4513,9.6393,51.1823,54.7338,32.8374,-25.6539,9.3218,-5.0921,3.5994,26.6171,66.3399,32.8182,-2.2676,-1.3476,
24.3098,9.7838,47.8702,59.4035,37.0133,-29.6583,9.4854,-11.7765,4.5885,22.3687,74.7727,37.3568,7.3886,-1.9901,
23.0923,5.0996,47.1672,67.1674,41.782,-37.7608,13.014,-20.9519,2.1439,24.6419,75.83,44.9974,2.8481,0.29862,
17.85,-1.4733,48.1937,69.8861,40.2395,-46.5823,11.7511,-25.4793,1.5335,27.984,73.6905,39.8874,-7.928,-7.9144,
25.6971,1.2667,47.9534,72.6829,37.5842,-36.3156,13.6974,-20.3351,6.021,27.9922,69.0281,34.8428,-4.3188,-9.6087,
27.0476,0.22613,43.148,68.8038,37.2571,-33.1728,16.2497,-22.9716,2.7672,26.3126,64.4042,34.6804,0.76079,-14.8169,
16.7478,-7.5002,38.6309,65.1575,41.2884,-40.8234,12.8644,-30.2702,0.19081,27.6262,66.3243,34.5278,-7.9617,-26.4612,
11.4044,-10.4244,36.3131,68.4789,52.9111,-36.4458,12.5747,-30.3822,3.0719,28.3787,69.0935,32.4561,-14.2327,-24.8733,
11.6842,-8.3527,36.0625,67.7446,63.8364,-26.546,15.1947,-29.0412,2.4056,27.6403,64.4662,28.5806,-5.6657,-17.1141,
8.3321,-9.5388,34.6219,61.0286,65.7908,-27.1226,15.4881,-29.95,-0.39003,27.6689,59.393,26.1426,-2.1928,-22.1128,
5.4217,-12.8229,33.9907,60.2593,58.951,-27.9055,14.5587,-29.1172,1.5615,27.9371,61.1321,25.0561,-9.2919,-25.1247,
5.0965,-13.9816,33.8793,62.9104,52.522,-18.5183,8.8648,-26.406,-1.9066,27.2248,61.8026,22.1066,-8.2524,-23.6171,
4.3084,-12.6607,35.2209,61.546,51.2985,-14.5148,4.9585,-21.9295,-5.1665,28.0018,58.0946,20.2981,-2.4545,-21.7181,
-2.2165,-12.3831,29.7333,54.4789,43.4005,-21.8387,2.7327,-23.9878,-9.195,21.9833,51.7165,20.5266,-12.9124,-24.2712,
-6.1811,-10.435,26.7443,49.5227,33.3244,-20.2877,0.39937,-27.6104,-12.7408,18.0127,47.408,23.3921,-23.466,-27.8769,
-6.2921,-13.1834,28.5141,48.4798,29.8787,-16.1781,-3.9629,-25.9536,-12.4583,15.9679,41.6715,21.0248,-24.4682,-29.0963,
-5.4327,-11.4281,29.2133,51.8375,33.8705,-16.1715,-2.2791,-19.094,-6.8903,16.938,43.0276,16.8707,-20.59,-24.4585,
-7.999,-9.7783,26.0145,49.2094,29.4284,-15.6832,1.7143,-19.8763,-4.5487,20.2603,48.1589,14.8944,-19.8363,-25.4009,
-9.6882,-12.3251,24.6946,43.6055,26.4574,-10.6446,2.8162,-19.889,-5.963,21.2138,45.028,19.0624,-22.7439,-26.5284,
-11.9994,-17.3702,22.731,41.4714,27.2801,-9.0421,0.71929,-19.6598,-9.4616,19.9412,36.0598,21.7751,-28.1277,-30.2393,
-12.9662,-16.5689,23.0544,45.0089,22.5103,-9.7044,0.91733,-23.5416,-9.1349,21.3961,31.2451,15.4069,-30.0555,-39.2708,
-8.0909,-6.6567,27.2143,51.2262,20.4363,-4.0609,3.0312,-19.4778,-0.63307,24.6916,27.6832,9.4212,-29.9394,-37.6379,
-10.498,-7.7036,25.5814,44.296,16.3176,-6.2274,-1.4892,-15.899,-1.0773,19.3537,17.3451,11.2661,-36.3382,-35.3796,
-15.8936,-13.7493,18.5034,35.6127,7.3848,-7.5409,-4.5329,-19.5246,-12.3406,12.1669,12.207,12.2774,-41.1473,-38.8004,
-19.2786,-10.0316,12.5727,35.4043,-4.6272,-2.7499,-7.1532,-16.9068,-19.3129,10.955,16.2955,7.2022,-41.5708,-41.2929,
-24.1474,-10.635,13.0231,34.4851,-12.7857,-3.3078,-12.7498,-7.4565,-18.3953,11.9847,14.5944,7.9753,-43.6563,-41.9488,
-26.0733,-16.2636,16.5803,29.0416,-15.8752,-5.5197,-16.3233,-4.599,-19.702,7.8911,7.452,9.4248,-45.3754,-37.0215,
-22.8216,-15.5292,16.3084,29.4682,-18.0557,-3.0194,-10.7644,-4.0821,-22.1353,5.2483,10.1379,6.6901,-42.8939,-31.6667,
-20.4882,-15.0792,17.2583,35.8949,-15.5263,-1.8741,-4.334,-4.3193,-20.8072,10.236,19.1709,8.2167,-39.3562,-36.0335,
-15.8843,-12.2465,27.3098,41.4542,-6.3998,-2.2438,-3.1098,-3.578,-12.3279,19.745,26.6975,17.8468,-31.21,-33.3893,
-17.1008,-10.3064,27.3584,38.7257,-6.7392,-4.2784,-7.0206,-6.4966,-8.455,18.8013,22.9265,15.5712,-31.0246,-29.2168,
-14.1463,-6.7957,25.2348,42.187,-5.3703,-2.0932,-2.743,-1.7682,-6.5014,21.0476,21.5511,14.6367,-29.1634,-29.3922,
-14.5029,-12.4135,27.818,44.2353,-6.7353,-3.1729,0.55485,1.4711,-8.7626,21.9539,21.9448,14.9638,-28.1365,-26.4234,
-13.3913,-9.9815,33.6212,48.0889,-3.1982,-6.1161,2.2088,-0.78632,-1.247,26.1803,30.0286,16.717,-25.243,-21.7045,
-2.2239,3.8738,39.5577,58.4599,8.3224,-4.5438,10.0302,1.9122,11.6023,37.8661,42.3269,28.0065,-13.3645,-25.4639,
-1.3671,5.8105,36.9433,61.46,7.0997,-6.4403,10.1515,1.0743,8.2548,37.2814,37.7383,26.0852,-15.2138,-26.1052,
-7.5521,0.15925,37.1368,57.7724,1.3711,-9.9103,4.722,-2.3644,1.4928,30.224,25.8331,18.7355,-26.352,-19.2363,
-2.0373,-0.57321,40.4522,57.9213,6.3505,-7.6289,6.6076,-2.9459,4.5365,33.954,32.7188,24.1188,-23.5661,-17.3592,
6.7621,3.3176,41.3995,66.4973,15.1285,-0.9042,14.4061,0.12341,9.0848,36.2553,38.4684,26.5281,-12.9931,-20.174,
4.9099,4.0826,41.3259,68.2923,11.8104,0.11415,15.4701,1.5623,8.0577,32.6339,27.4839,19.634,-13.1776,-22.8197,
6.0618,6.248,44.1488,62.7485,7.7276,-2.3031,15.9879,1.4683,7.5743,32.1219,24.3884,18.9381,-14.7973,-28.6816,
11.0002,9.7295,42.9456,59.9477,2.9251,-6.0213,13.5826,-2.9583,0.85308,28.2662,27.2634,13.463,-11.4993,-35.6378,
7.9303,7.2173,36.9947,58.7612,-1.5885,-3.7316,7.4653,-5.191,-4.0186,21.75,23.6996,6.389,-13.2193,-35.4275,
-1.9455,-1.1695,34.534,55.9586,2.6042,4.4461,8.2222,-3.1923,1.7664,23.5782,20.5904,14.9232,-19.416,-31.6146,
-9.5418,-2.0634,32.4622,50.6727,1.0019,5.1434,8.6929,-5.4111,0.21412,24.5736,20.3191,22.2228,-23.0715,-23.9334,
-8.4873,1.9168,30.9964,49.5605,-5.3252,0.97841,4.7969,-5.0864,-5.1014,24.0633,18.618,18.4793,-22.1691,-17.1948,
-7.9781,-1.5727,32.5111,50.9255,-3.0775,5.258,4.0272,0.52139,0.50736,29.8506,20.393,18.3344,-20.839,-16.1631,
-9.9093,-2.9243,32.4884,50.7622,0.96379,9.2811,5.7137,2.9005,6.2615,34.8082,27.3644,21.091,-18.1426,-13.7468,
-12.4482,0.86655,30.2981,46.9934,-4.6376,1.2524,3.2015,-4.2634,2.2704,27.6581,25.4815,17.1739,-19.7056,-14.1273,
-9.0502,2.5018,33.5419,45.861,-7.9748,-0.028016,2.2865,-4.7308,2.8573,24.3114,22.2654,18.3131,-20.21,-15.9312,
-7.5431,1.3876,38.2781,45.0375,-4.1221,6.7223,4.0775,0.37357,6.0601,28.1553,18.5191,18.6604,-18.9977,-20.7597,
-15.0441,4.4376,34.7763,44.9866,-3.1516,6.5602,4.556,0.59235,3.0454,27.6711,11.3827,11.033,-20.9911,-26.0218,
-12.9366,6.3405,32.9307,49.7592,-2.7216,8.3357,4.5236,4.6542,2.1395,26.7339,10.9407,11.094,-21.9008,-26.6297,
0.37288,6.9242,43.0062,55.4505,-0.62986,18.4407,10.0368,12.0877,7.3138,32.8427,13.1765,18.1413,-21.5508,-24.0678,
0.83244,9.4012,47.6562,58.3902,-3.9665,23.1188,13.291,16.1829,9.767,33.7644,8.5295,20.4273,-23.1503,-17.8035,
-7.1713,7.6319,40.2175,55.6099,-3.4876,19.0806,9.8424,15.4531,9.4222,30.0513,5.8486,19.9246,-20.556,-11.6736,
-2.4027,4.7638,37.3226,52.7553,-3.2783,16.4895,5.8772,12.1156,5.9644,29.2123,8.3898,17.7648,-16.9125,-13.8657,
3.5263,5.4421,41.3499,54.4107,-6.4558,15.0184,8.8995,8.4964,5.6067,26.9777,8.8505,14.289,-16.8618,-23.6386,
3.5555,6.3206,44.8943,55.2432,-3.4176,13.8757,13.4265,6.7813,10.3315,27.5279,9.0426,16.0825,-17.0552,-27.2819,
7.9219,5.7004,44.3702,54.098,-2.4892,15.6947,11.4161,13.8464,10.435,32.8664,15.0075,21.1436,-15.7909,-18.6552,
6.2417,6.0813,40.0208,52.0571,-7.4011,15.9583,10.9721,21.9335,7.6397,34.5098,17.2405,22.526,-17.4946,-11.5103,
-0.15854,5.9576,37.3783,52.5494,-7.6801,15.242,11.0369,20.8585,9.3505,32.198,13.0728,21.4157,-22.4707,-14.4351,
-2.8003,7.2872,30.0742,50.1191,-8.9068,11.6761,4.8308,15.9915,7.1023,28.5791,10.601,17.4794,-30.0405,-16.2203,
-3.1143,8.7781,26.3416,46.63,-11.7464,10.4936,5.0234,14.5501,5.2301,24.9362,14.3037,19.3232,-26.3096,-8.498,
-1.7223,7.0464,29.3406,46.0016,-11.7652,13.4792,6.409,11.0258,0.81871,21.2706,12.7224,25.6354,-17.2595,-8.7117,
2.9605,3.9723,28.3028,45.8928,-14.1925,11.9473,-2.8934,8.1948,-6.7022,15.8968,4.0051,19.0358,-18.8752,-12.7685,
-3.7246,3.493,19.6152,43.3802,-17.4383,7.1331,-5.3709,10.8366,-7.023,11.81,0.1498,5.6016,-22.322,-10.7971,
-12.1785,4.2475,18.4381,39.8133,-15.4279,7.6692,1.2176,12.5968,-2.7454,13.0293,-1.7876,4.7829,-20.5005,-12.5596,
-7.5914,0.13625,25.0446,41.2809,-12.5741,9.6192,4.519,10.3947,-2.5807,15.1401,-3.6085,7.3884,-21.6811,-18.0726,
-3.5202,-1.077,21.8549,40.0091,-13.5066,8.3189,2.5604,6.1556,-2.6668,14.9544,-2.6694,7.1858,-23.0315,-21.5677,
-7.1654,1.3978,18.1335,35.1984,-15.5883,6.374,0.961,3.3762,2.7958,19.8421,1.3476,12.0578,-25.5058,-21.2375,
-11.556,-1.5784,23.7941,35.9788,-13.207,3.5812,3.3137,3.1736,6.9666,25.4003,5.1229,15.6724,-31.6882,-18.5172,
-8.4522,-6.3042,25.2588,38.6406,-13.8606,2.8842,1.1865,2.9832,1.7281,20.502,-0.48685,11.8402,-33.1612,-23.6727,
-3.1249,-3.9977,16.0305,34.3939,-23.6342,0.30099,4.4897,0.39382,-5.6064,10.5948,-14.5576,3.899,-30.6896,-36.3524,
-10.6501,-4.2398,9.766,27.992,-30.8933,-5.5017,17.7177,-0.11174,-9.1264,3.2107,-19.348,-3.5658,-33.6687,-42.2457,
-20.1343,-11.2165,10.1441,24.866,-26.1474,-5.1718,22.4394,0.37713,-6.1685,5.4279,-5.6539,-0.94195,-33.0948,-29.588,
-16.0339,-8.6151,13.3917,25.3024,-16.3836,1.4053,19.1646,2.7644,3.3605,16.6717,0.95161,7.3095,-19.54,-20.5819,
-14.5899,-4.2418,16.445,27.6407,-15.4006,-2.0535,14.1584,2.5988,1.7126,18.5634,-3.4438,5.4247,-12.583,-23.6855,
-19.0172,-8.3256,15.9402,32.2488,-15.4409,-7.7149,6.078,1.4785,-4.1748,15.5214,3.5117,-0.20345,-21.9511,-26.1208,
-19.3222,-10.2364,15.466,32.2422,-12.586,-8.2161,-7.7838,7.1748,-4.4062,15.0723,9.5678,-3.0831,-28.8288,-21.1791,
-20.8142,-6.9709,14.7788,31.0308,-14.0002,-8.4462,-16.235,14.2159,-5.3471,11.9986,3.4499,0.23517,-23.9658,-16.7751,
-20.2882,-6.3117,17.5079,38.0871,-10.9906,-8.1804,-15.0195,10.2299,-1.4107,12.4839,0.59177,6.729,-18.9122,-20.83,
-14.9736,-8.1021,19.5905,44.2375,-1.8955,-11.787,-16.7699,1.6619,3.2533,17.7605,5.1356,4.1556,-18.0187,-22.2316,
-10.9419,-2.0726,25.4047,50.5011,9.0643,-20.48,-16.0047,2.7673,5.7094,20.3105,10.8532,4.1475,-13.3221,-18.2463,
-6.6698,-1.7071,28.9419,54.4607,9.2435,-31.0611,-13.8393,-0.049837,3.6796,18.8507,8.515,11.8526,-11.7997,-20.2848,
3.3712,-5.9432,27.2056,56.4959,11.5812,-37.8747,-13.9731,-9.688,2.4947,22.0582,7.0396,14.5157,-9.6456,-9.4268,
8.7127,-6.3097,27.7426,60.5777,18.3584,-44.5201,-15.786,-14.6501,4.5144,21.4578,7.8227,11.4754,-9.3079,3.9131,
9.6362,-6.4131,27.5243,64.1739,20.1494,-45.2229,-13.3923,-17.1454,7.1359,20.6523,10.7278,14.6437,-15.4978,2.2325,
10.7451,-14.9461,28.0418,61.0466,23.0376,-46.1252,-3.6712,-24.0708,9.3588,28.331,19.4839,17.3802,-8.5427,-6.8198,
11.5467,-22.2442,30.6977,64.6148,26.4757,-52.9985,0.40557,-28.893,11.2077,30.4876,22.6533,14.4094,4.5033,-13.6411,
18.8076,-12.4738,32.9536,74.8379,26.5747,-46.6852,-2.27,-23.0619,13.6689,24.5609,20.0892,15.2319,5.4383,-6.315,
22.9817,-9.7971,33.8684,70.4677,22.0877,-33.2793,-5.0263,-19.7503,12.8483,21.159,18.4014,15.2819,1.7375,4.669,
