"AF3","AF4","F3","F4","F7","F8","FC5","FC6","O1","O2","P7","P8","T7","T8",
28.7416,-73.5576,64.7894,66.7384,-73.5576,-149.5512,18.0244,22.8955,-136.8859,14.1273,-56.9952,-435.0146,-7.3071,7.3071,
25.8185,-67.7124,74.5325,81.7384,-74.5321,-156.3713,24.8445,20.9465,-149.5516,10.2302,-70.635,-431.1175,-2.436,2.436,
29.2281,-76.9681,81.8392,82.8133,-70.148,-171.3713,27.28,11.6908,-164.5516,1.9485,-85.635,-446.1175,3.8966,-1.9485,
25.8181,-75.5066,83.3003,69.6609,-58.9437,-169.037,28.7411,15.1009,-178.7798,-0.48748,-84.2748,-461.1175,0.48748,4.3846,
38.9704,-67.2254,98.3003,74.0451,-50.663,-154.037,41.8934,22.408,-163.7798,-5.8456,-72.097,-462.7817,13.6398,5.8456,
24.844,-66.7379,99.8636,77.4551,-53.0981,-144.68,44.3294,20.9469,-160.2684,-6.3326,-84.2748,-461.3202,28.6398,6.3326,
24.3565,-71.1225,84.8636,63.3274,-54.5596,-148.0901,29.3294,15.5883,-175.2684,-4.8711,-99.2748,-476.3202,19.4854,4.8711,
31.1771,-75.9936,79.8902,73.071,-51.6371,-142.2445,28.2541,15.5879,-177.3187,-6.8197,-84.2748,-473.4989,6.8197,17.5369,
16.1771,-78.9166,77.9421,88.071,-56.5082,-129.5787,38.9713,13.6398,-173.4216,-5.8456,-78.9166,-462.7817,5.8456,25.331,
15.5883,-88.6594,78.9166,73.071,-64.3023,-132.5018,35.0738,8.7682,-188.4216,-8.7682,-92.5564,-477.7817,20.8456,15.5883,
17.5369,-92.5564,73.0701,58.071,-69.1739,-135.4248,20.0738,13.6398,-188.0359,-13.6398,-90.6079,-492.7817,30.2022,16.5619,
10.2297,-82.3262,63.8149,69.6609,-76.4806,-136.8859,12.1787,13.1528,-173.0359,-10.2297,-92.069,-501.2655,15.2022,17.0499,
20.4599,-80.8652,70.148,77.9421,-85.7363,-145.1675,25.331,6.8197,-186.0869,-6.8197,-107.069,-516.2655,9.7427,13.6398,
25.8181,-74.5321,73.558,67.7119,-79.4037,-138.8344,26.7921,17.0499,-201.0869,-17.0499,-109.6063,-526.5966,21.921,25.8181,
40.8181,-71.122,71.1225,70.1484,-64.4037,-126.6561,22.4085,22.4085,-198.7527,-22.4085,-94.6063,-517.3409,28.2536,31.1767,
38.4834,-77.4551,74.5321,83.3003,-61.8668,-115.4519,32.6382,24.844,-202.1627,-20.9469,-98.8895,-518.8029,25.8181,20.9469,
39.4579,-66.7379,89.5321,94.018,-59.9182,-100.4519,45.3039,23.8695,-211.9054,-23.8695,-97.915,-514.9053,37.5098,27.7666,
44.8165,-56.5086,104.5321,107.1698,-52.6116,-85.4519,48.7135,17.5369,-196.9054,-17.5369,-82.915,-506.6241,41.8934,42.7666,
29.8165,-55.0467,92.0694,115.4519,-57.9697,-70.4519,42.3814,18.0239,-186.5739,-18.0239,-94.0175,-506.1366,26.8934,45.3035,
42.3809,-54.0722,91.0949,113.5034,-53.0981,-74.5321,40.4328,22.8955,-201.1882,-22.8955,-109.0175,-512.9568,41.4069,38.4838,
41.8943,-63.3278,98.4025,102.2996,-47.7395,-67.2249,45.7914,19.4859,-212.3925,-19.4859,-102.2991,-525.135,56.4069,43.8424,
27.28,-70.148,95.4795,94.5045,-59.4308,-63.3283,48.7135,17.5369,-201.6752,-17.5369,-91.5819,-528.0581,43.8424,42.8684,
35.0738,-74.0455,89.6329,97.4271,-68.1999,-77.9426,39.9449,23.3825,-206.5468,-23.3825,-104.2477,-531.9556,34.0997,37.0218,
31.6642,-66.7384,79.4032,108.6318,-65.7639,-69.661,28.7411,28.7411,-221.5468,-28.7411,-118.375,-542.1854,44.3294,41.4064,
45.7914,-53.5851,92.5564,109.1188,-50.7639,-54.661,43.7411,28.2541,-225.0577,-28.2541,-103.375,-543.6464,59.3294,50.6626,
53.5851,-47.74,107.5564,109.1183,-40.9198,-39.661,58.7411,26.3055,-210.0577,-26.3055,-88.375,-537.8013,67.2245,54.5592,
47.74,-47.739,112.0423,115.9394,-53.5851,-50.6621,52.6111,26.3055,-195.0577,-26.3055,-85.7358,-550.4661,63.3283,56.5082,
56.0212,-56.0207,105.7092,110.5803,-49.201,-49.201,49.201,29.7156,-210.0577,-29.7156,-100.7358,-560.6963,63.8153,56.9952,
46.765,-57.4822,96.4531,105.2222,-46.7655,-41.8939,58.4563,33.1257,-225.0577,-33.1257,-98.4021,-554.3636,66.2504,56.5082,
49.201,-47.252,97.915,110.5803,-53.0981,-44.3299,49.201,29.7156,-210.0577,-29.7156,-90.1204,-551.9281,69.6605,53.0981,
54.0722,-42.3809,106.6832,121.2975,-49.201,-33.6127,43.3559,26.7926,-198.2652,-26.7926,-89.1459,-548.0305,71.6095,55.0471,
46.765,-47.739,105.2222,115.9394,-55.5337,-27.2796,47.74,27.2796,-211.4179,-34.0997,-101.3246,-551.4406,63.3283,54.5592,
58.4563,-55.5341,105.2213,109.1183,-57.4827,-31.1776,51.6361,26.3055,-216.29,-26.3055,-104.2481,-556.3126,70.1475,55.5332,
43.8429,-58.4567,98.4021,106.1962,-55.5337,-37.9968,40.9198,21.4344,-211.4179,-21.4344,-107.1703,-555.3377,74.0455,55.5341,
45.7905,-44.8174,97.4276,113.0159,-56.5086,-28.2541,35.0733,28.2541,-214.3415,-31.1771,-108.1452,-543.6469,75.0191,56.5077,
42.3804,-53.0986,91.0944,123.2461,-63.8149,-23.87,25.8181,23.87,-227.4938,-46.1771,-110.5808,-547.0565,62.8408,42.3804,
39.4579,-46.278,95.966,129.0917,-48.8149,-25.8185,29.7156,25.8185,-228.4683,-41.4069,-107.6577,-552.9021,62.8404,50.1751,
54.4579,-37.5098,110.5803,116.4255,-34.5867,-30.6896,44.7156,30.6896,-230.4168,-30.6896,-107.6577,-558.7482,76.4806,64.7894,
59.9178,-49.2015,103.7597,104.7347,-42.3814,-32.6382,46.2775,32.6382,-231.3909,-41.4073,-110.5808,-565.5679,79.4032,61.8659,
68.1994,-47.7395,93.5309,96.4531,-38.9708,-38.9708,38.9708,40.9198,-228.9548,-41.8939,-112.0419,-566.0549,86.7108,65.2764,
69.6605,-53.0981,91.0949,81.4531,-44.3299,-53.0981,29.7156,41.4069,-228.4683,-29.7156,-117.4005,-566.5419,85.2488,72.5835,
54.6605,-56.5077,94.5054,77.9421,-49.688,-38.9708,24.357,40.9203,-213.4683,-24.357,-113.0159,-557.2862,76.9681,71.122,
60.4053,-47.7395,102.2991,92.9421,-38.9708,-28.2536,28.2536,37.9968,-206.5468,-34.0997,-102.2991,-547.5435,78.9166,64.3023,
56.0207,-36.5353,96.9405,103.7607,-43.3554,-41.4069,36.5353,37.5093,-221.5468,-37.5093,-114.4774,-548.031,81.3522,67.7119,
52.1245,-42.3809,94.0184,88.7607,-51.1491,-49.2006,40.4333,36.5353,-236.5468,-36.5353,-129.4774,-558.7473,85.2493,68.6869,
66.2504,-52.6111,105.2222,73.7607,-37.0228,-44.8169,38.9708,37.0228,-232.8524,-39.9453,-121.7846,-560.2093,91.5819,68.1994,
61.3791,-43.8427,106.196,86.7106,-36.0485,-50.6623,36.0485,38.9706,-221.1609,-48.7138,-119.8363,-550.4663,87.6846,74.0453,
64.3028,-36.0483,106.1967,101.7106,-42.8679,-46.765,36.0483,38.9713,-230.9034,-43.8424,-124.7071,-546.569,84.7623,74.0451,
49.3028,-42.3804,91.1967,109.6068,-50.1751,-31.765,23.87,33.6132,-237.236,-45.3035,-134.9373,-545.1079,73.558,62.8408,
39.4583,-35.5612,87.1974,97.9146,-52.1241,-20.9469,20.9469,36.5353,-222.236,-47.2525,-134.9378,-530.1079,72.5831,72.5831,
54.4583,-41.8934,102.1974,90.6074,-49.6881,-29.2281,29.2281,37.9973,-214.341,-47.7395,-127.6302,-525.135,85.7363,83.7882,
53.0981,-50.1755,96.9401,93.043,-54.0726,-26.7926,26.7926,32.6377,-229.341,-56.0212,-138.8349,-540.135,82.3258,68.7882,
68.0981,-35.1755,97.9148,108.043,-53.0983,-39.4586,32.6384,46.2778,-237.2367,-42.3811,-131.0405,-540.2366,94.9918,73.5573,
63.8151,-33.6125,99.8638,108.632,-60.892,-54.4586,33.6125,52.1238,-222.2367,-33.6125,-116.0405,-528.5449,104.7349,85.2495,
59.9182,-38.4838,85.2497,93.632,-56.0207,-39.4586,33.6127,53.0981,-207.2367,-41.4069,-101.0405,-533.4167,97.915,80.3777,
55.0467,-53.4838,70.2497,78.632,-58.9433,-24.4586,18.6127,38.0981,-222.2367,-56.4069,-106.6828,-542.1844,84.2752,65.3777,
49.201,-53.0981,78.4296,63.8153,-53.0981,-21.9214,21.9214,38.4838,-237.2367,-59.9178,-121.6828,-527.1844,98.8891,71.6095,
64.201,-38.0981,93.4296,78.8153,-42.3814,-36.9214,35.5612,51.1496,-232.3654,-44.9178,-125.1946,-512.1844,105.7087,86.6095,
63.8149,-45.3039,79.4032,82.3262,-50.1751,-32.6382,32.6382,42.3814,-224.5707,-52.1236,-119.349,-503.2141,94.9925,78.4292,
48.8149,-57.4822,64.4032,71.122,-65.1751,-17.6382,17.6382,37.9973,-232.8519,-64.3023,-124.7076,-492.0098,87.6853,72.097,
51.15,-56.9947,63.8153,72.5845,-67.7119,-7.3071,7.3071,48.227,-236.262,-57.9692,-128.1172,-477.0098,94.018,82.3267,
54.5596,-45.791,62.3538,78.9162,-59.4308,-16.5628,16.5628,51.6366,-221.262,-45.791,-125.6816,-462.7812,91.5824,91.5824,
69.5596,-30.791,77.3538,76.4804,-52.1238,-25.8183,25.8183,64.7891,-213.8537,-30.791,-117.4002,-469.1146,99.8629,99.8629,
84.5596,-26.3058,84.762,68.1987,-60.4055,-31.1774,19.4857,79.7891,-225.0584,-19.4857,-117.8877,-484.1146,113.0157,112.0416,
76.9679,-25.3313,73.0708,73.0708,-67.2252,-16.1774,15.5886,86.711,-225.058,-34.4857,-117.8877,-471.5501,116.9127,113.9906,
70.635,-40.3313,58.9437,71.609,-68.6869,-9.2557,9.2557,71.711,-231.3909,-49.4857,-116.4264,-456.5501,101.9127,98.9906,
71.1222,-36.048,64.3021,71.1222,-62.3536,-13.64,13.64,69.1732,-236.7492,-34.4857,-111.0676,-441.5501,86.9127,102.2989,
86.1222,-21.434,72.097,69.1739,-57.4822,-13.6398,13.6398,84.1732,-234.8005,-21.434,-113.9904,-441.3473,101.9127,115.9389,
83.3007,-30.6896,74.5325,73.5576,-63.8149,-4.3841,4.3841,74.5325,-222.6222,-29.7151,-116.426,-439.8858,108.6323,103.7602,
72.5838,-31.6639,81.352,83.301,-61.8666,-12.1785,12.1785,63.8156,-214.8278,-30.6894,-115.4517,-439.886,93.6323,104.7345,
87.5838,-24.844,89.1464,87.1974,-49.201,-27.1785,24.844,77.4551,-226.5197,-33.6127,-122.272,-445.7318,94.9915,110.5799,
92.0694,-20.9469,84.2743,93.0435,-53.0981,-19.9729,19.9729,85.2493,-240.1595,-45.3039,-128.1177,-439.8862,109.9915,97.9146,
77.0694,-32.6384,69.2743,78.0435,-63.8151,-8.2814,8.2814,70.2493,-240.1593,-56.0209,-120.3233,-434.0404,102.7864,86.2231,
85.2493,-40.4328,61.8668,63.0435,-48.8151,-17.0499,17.0499,69.661,-225.1593,-42.3814,-105.3233,-419.0404,103.7607,101.2231,
89.1468,-32.6382,65.7643,64.7894,-33.8151,-24.844,22.8955,84.661,-213.8535,-27.3814,-97.9146,-404.0404,107.6582,116.2231,
98.4018,-37.9966,80.7643,70.1482,-26.3053,-25.3313,25.3313,85.7365,-228.8535,-31.1769,-112.9146,-389.0404,107.171,113.9902,
83.4018,-52.9966,87.1976,62.8411,-33.6125,-26.7923,26.7923,76.4804,-233.3392,-45.3037,-117.4002,-386.3009,104.7349,103.7609,
87.1974,-38.4838,94.0175,70.635,-26.7926,-21.921,21.921,84.2752,-218.3392,-43.3554,-102.4002,-376.5579,108.6318,104.7347,
102.1974,-24.844,107.6577,84.2752,-18.9984,-15.1013,15.1013,94.0175,-203.3392,-33.6122,-87.4002,-361.5579,123.2461,119.7347,
92.0696,-30.6894,103.7609,73.5583,-19.9727,-20.9467,19.9727,94.9918,-188.3392,-33.6125,-79.4034,-346.5579,133.9635,127.1434,
88.6591,-44.8167,91.5822,61.3795,-21.4342,-35.9467,21.4342,83.788,-179.267,-41.8936,-85.7361,-361.4568,130.553,112.1434,
85.7361,-43.8422,88.6591,67.2256,-18.5111,-36.048,18.5111,83.788,-176.344,-37.0225,-83.7875,-361.4568,122.7588,104.2475,
90.1211,-36.535,92.0692,59.9185,-19.9727,-34.5865,19.9727,95.9663,-185.5997,-34.5865,-82.3265,-346.4568,127.1429,119.2475,
94.0177,-48.2268,91.0947,52.1238,-23.8698,-34.587,23.8698,87.1976,-197.2914,-40.4326,-88.1721,-331.4568,132.0145,114.4772,
79.0177,-55.0467,80.3777,63.8153,-29.7156,-22.8955,22.8955,72.5835,-200.2137,-46.278,-96.9405,-327.8444,120.3235,101.8121,
77.9419,-54.5594,74.0448,62.3536,-29.2284,-16.5626,16.5626,72.0967,-212.3922,-56.5079,-90.6077,-333.2027,115.9387,102.2994,
64.3016,-58.457,67.2247,49.6883,-32.1514,-11.6915,11.6915,72.0958,-216.2898,-71.5079,-84.7625,-324.4345,118.8617,107.1705,
60.4053,-51.6371,65.2764,54.5592,-32.1512,-10.7172,10.7172,67.2245,-202.6497,-77.9421,-92.5564,-314.6916,113.0164,109.1183,
75.4053,-44.8165,71.1225,66.2513,-21.434,-19.4854,19.4854,74.0455,-187.6497,-63.3278,-86.7103,-304.9484,119.8365,113.9904,
75.0193,-45.7907,72.0963,60.405,-19.4856,-26.3053,19.4856,79.8904,-181.2156,-58.4565,-82.8135,-305.9227,120.8103,108.145,
78.4294,-45.3037,81.3524,63.8151,-18.0241,-18.0241,18.0241,73.5583,-181.7026,-67.7122,-84.275,-303.4871,114.4772,101.8119,
76.9683,-43.8427,79.8904,70.1482,-24.3568,-17.5371,17.5371,62.354,-196.7026,-72.0963,-91.5822,-291.3089,109.119,101.3249,
76.4806,-39.4583,74.5325,59.9182,-28.7411,-19.9724,19.9724,63.8153,-204.1108,-70.635,-89.1464,-299.5898,114.4774,96.941,
75.507,-54.4583,71.609,47.2525,-30.6896,-18.0239,18.0239,55.0467,-191.445,-83.3007,-82.3262,-314.5898,112.5289,88.1723,
60.507,-64.3023,65.2768,62.2525,-35.0738,-12.6658,12.6658,46.7655,-191.9325,-89.6334,-89.6334,-299.5898,98.4016,95.4795,
63.3283,-49.688,71.1225,77.2525,-28.2541,-15.5883,15.5883,53.5851,-201.6752,-82.8133,-88.6593,-284.5898,102.2991,103.2732,
66.7381,-52.1238,72.5833,74.5323,-24.8443,-14.127,14.127,60.892,-186.6752,-82.3265,-73.6593,-269.5898,109.6061,100.8379,
59.4308,-57.4822,62.3538,67.2249,-33.1252,-8.7687,8.7687,58.4567,-173.4212,-83.7878,-74.0451,-255.2604,101.3246,97.4276,
70.6357,-54.0724,63.8156,68.6867,-32.638,-12.1785,12.1785,53.0983,-188.4212,-84.2746,-87.1976,-240.2604,103.7604,96.9403,
63.3281,-45.7912,65.2762,65.2762,-33.1254,-9.7429,9.7429,59.431,-203.4212,-83.788,-89.6336,-236.7492,107.17,104.2479,
72.5835,-49.201,59.9182,55.0471,-34.5867,-8.2812,8.2812,67.7124,-188.4212,-73.558,-74.6336,-233.3394,100.8381,109.6063,
76.9674,-63.3281,50.6628,50.6628,-33.1254,-13.64,13.64,65.2762,-173.4212,-70.1477,-73.0708,-225.058,92.5567,103.2729,
67.2252,-60.405,46.7657,50.6628,-37.9966,-14.6141,14.6141,62.354,-183.1636,-76.9679,-79.8904,-225.058,98.4018,100.3508,
77.4551,-58.9437,56.0207,48.2265,-37.5098,-13.1528,13.1528,57.9697,-179.7543,-81.3522,-71.6095,-220.6736,113.4018,105.7087,
64.7891,-59.918,53.0979,44.3297,-31.6639,-10.23,10.23,54.0719,-168.0628,-83.301,-67.7122,-207.0341,105.709,108.632,
69.1739,-54.5596,45.7914,29.3297,-30.2026,-9.7427,9.7427,55.5337,-175.3697,-82.8137,-65.2764,-202.6497,90.709,99.3766,
83.3003,-65.7634,42.3814,18.9989,-34.5867,-14.1268,14.1268,63.8149,-163.1914,-74.5321,-56.9952,-199.2397,92.0694,91.0954,
75.9938,-62.354,45.7912,32.1509,-28.2543,-16.5626,16.5626,76.9679,-148.1914,-59.5321,-54.5594,-185.1126,103.2734,102.2994,
74.5316,-60.8923,51.1491,33.6127,-18.9984,-15.1013,15.1013,64.7894,-163.1914,-64.7894,-62.8408,-190.4715,101.8121,101.8121,
59.5316,-69.661,40.4328,19.9724,-23.87,-15.1013,15.1013,49.7894,-178.1914,-79.7894,-77.4551,-205.4715,86.8121,86.8121,
58.9437,-63.8149,45.3044,25.8181,-29.7151,-17.0499,17.0499,51.1496,-181.7023,-94.0175,-80.3777,-203.1368,86.2233,75.507,
71.609,-62.8408,53.0976,30.6892,-35.5612,-19.9729,19.9729,57.9697,-169.037,-85.2493,-72.5835,-188.1368,93.0435,82.3262,
56.609,-75.9931,38.0976,18.5118,-46.765,-17.5369,17.5369,42.9697,-170.4981,-95.479,-74.0446,-175.3697,84.7623,81.8392,
46.765,-77.9421,31.1767,16.5624,-40.9198,-11.6913,11.6913,31.1767,-161.7299,-100.3506,-75.0196,-169.5241,79.8907,72.0965,
39.4579,-69.661,33.6127,31.5624,-33.6127,-4.3841,4.3841,37.5098,-146.7299,-89.1464,-66.7379,-155.3973,78.4296,75.5066,
38.4838,-74.5321,29.7156,39.4579,-38.4838,-3.4101,3.4101,30.6896,-144.68,-96.9405,-67.7119,-152.4742,71.6095,70.6355,
43.8429,-89.5321,33.1257,27.2796,-46.7655,-4.8711,4.8711,22.4085,-159.68,-111.9405,-72.0965,-167.4742,67.2254,58.4563,
35.0742,-77.9421,36.0483,14.6148,-52.6106,-4.8716,4.8716,32.1512,-161.7299,-111.0673,-64.3019,-180.2408,70.148,67.2249,
50.0742,-62.9421,33.1252,12.6658,-38.9708,-9.7427,9.7427,35.0742,-146.7299,-96.0673,-49.3019,-165.2408,85.148,78.9162,
44.329,-77.9421,22.8955,15.1013,-36.5357,-11.2042,11.2042,21.9205,-131.7299,-94.018,-47.253,-150.2408,83.3007,74.5316,
38.9713,-87.6848,25.331,16.5628,-49.688,-9.7427,9.7427,30.2031,-119.836,-91.5819,-56.5077,-135.2408,68.3007,71.122,
50.1755,-75.5066,34.5872,15.1018,-47.2525,-7.3067,7.3067,41.4064,-128.1172,-87.1978,-60.8923,-120.2408,58.9437,74.5321,
35.1755,-81.8397,25.331,9.7427,-47.74,-2.9226,2.9226,26.4064,-143.1172,-102.1978,-74.0451,-121.785,52.6106,61.3788,
21.9214,-95.9665,18.0244,6.3322,-55.0471,-3.4101,6.3322,11.4064,-154.4232,-117.1978,-77.4551,-127.1432,47.252,46.3788,
36.9214,-80.9665,20.9465,8.2812,-55.0467,-6.3331,6.3331,23.8695,-139.4232,-102.1978,-64.7894,-114.4779,60.8923,54.0722,
51.9214,-65.9665,34.0997,11.6913,-40.0467,-11.6913,15.5883,38.8695,-124.4232,-87.1978,-49.7894,-100.3501,75.8923,69.0722,
66.9214,-55.5337,39.9453,7.7942,-29.2286,-7.7942,26.3051,53.8695,-109.4232,-72.1978,-34.7894,-85.3501,90.8923,84.0722,
51.9214,-70.5337,24.9453,-2.4356,-44.2286,2.4356,11.3051,38.8695,-103.7607,-86.2233,-48.2265,-75.5066,75.8923,69.0722,
40.9198,-73.071,10.7172,3.8971,-59.2286,10.7172,-3.6949,24.3565,-110.0933,-95.4795,-63.2265,-75.0196,60.8923,57.4822,
27.2805,-76.9676,19.4854,11.6913,-62.3533,7.7942,-7.7942,16.5633,-120.8101,-105.2217,-78.2265,-84.7618,45.8923,50.663,
20.9469,-77.4551,17.0499,10.2297,-59.9182,4.3846,-4.3846,18.9979,-113.5034,-99.8636,-64.7894,-71.6095,43.3554,49.2006,
35.9469,-65.7634,19.9734,-4.3841,-46.278,4.3841,10.2302,33.6127,-98.5034,-84.8636,-49.7894,-56.6095,58.3554,64.2006,
45.7914,-73.0706,10.7167,-19.3841,-48.7135,-6.8197,6.8197,35.0742,-83.5034,-72.0965,-34.7894,-41.6095,68.1999,66.2509,
50.1751,-72.5835,19.9724,-25.8185,-39.4583,-4.3841,4.3841,36.5357,-68.5034,-74.5321,-19.7894,-56.6095,69.6605,57.9692,
54.0722,-60.8923,34.9724,-10.8185,-30.6896,2.436,19.3841,44.3299,-53.5034,-79.4037,-5.3581,-61.8668,84.6605,56.9952,
39.0722,-59.9178,42.3809,0.48702,-36.5348,-0.48702,31.6637,49.201,-63.8149,-90.1204,-20.3581,-46.8668,72.5835,51.15,
42.8684,-74.9178,37.0223,-2.9226,-37.9963,2.9226,24.357,34.201,-78.8149,-92.5564,-35.3581,-33.1252,57.5835,38.9713,
27.8684,-88.1723,22.0223,-4.3841,-51.15,4.3841,9.357,19.201,-93.8149,-96.941,-50.3581,-33.6127,50.1751,33.6127,
32.6377,-73.1723,15.1013,-4.3841,-51.15,11.2042,4.3841,21.9205,-80.3782,-93.0439,-35.3581,-24.8445,58.9433,45.3039,
35.0738,-65.2764,10.7172,-7.7942,-46.765,21.4344,7.7942,21.4344,-65.3782,-92.5564,-29.2286,-23.3825,46.765,39.9458,
20.0738,-75.5061,12.1783,-4.3841,-56.9952,22.8955,4.3841,9.2562,-62.8408,-101.8117,-39.4579,-24.8436,39.4588,30.6896,
28.2536,-83.7878,15.5883,-2.923,-63.3283,11.6913,2.923,5.8452,-65.2768,-108.1448,-33.1257,-15.5883,45.791,35.0738,
27.2791,-82.8137,6.8197,-5.8456,-62.3543,6.8197,5.8456,20.8452,-53.5856,-93.1448,-26.306,-5.8456,43.8424,44.8165,
36.5353,-67.8137,9.2557,-14.1268,-55.0467,10.2297,9.2557,33.6122,-49.201,-78.1448,-23.87,-9.2557,54.0726,49.2015,
41.8939,-67.2249,18.5114,-14.6143,-44.8165,18.5114,10.7172,20.4604,-61.3793,-89.6334,-18.5114,-10.7172,55.5341,42.8688,
28.2541,-82.2249,9.7427,-5.8456,-45.7905,28.2541,10.7177,5.8456,-67.2249,-104.6334,-24.3561,-8.7677,40.5341,30.2031,
37.9963,-80.8652,5.8456,-5.8456,-51.6366,25.331,11.6908,15.5879,-56.5077,-102.2991,-34.1002,-13.6398,27.28,27.28,
35.0742,-71.1225,7.7946,-7.7946,-59.4308,18.5109,7.7946,30.2022,-41.5077,-87.2991,-31.1771,-13.6398,42.28,42.28,
43.842,-73.071,10.7172,-7.7942,-60.4053,10.7172,4.8711,36.0478,-36.0483,-72.2991,-16.1771,-4.8711,56.5082,57.28,
53.5851,-82.8137,12.6653,-22.7942,-52.6111,-3.8971,7.7942,34.0997,-32.1516,-68.1999,-1.1771,-7.7942,59.4303,49.688,
45.3035,-72.5835,13.1528,-30.6897,-37.6111,-0.48748,13.1528,36.5353,-20.9469,-69.661,0.48748,-12.1787,54.0726,56.0207,
50.1746,-73.5585,11.2038,-20.9469,-22.8959,9.2557,14.1268,24.844,-35.5617,-84.661,-9.2557,-24.844,46.2775,48.2265,
38.4834,-78.4296,16.0749,-9.2557,-21.9219,9.2557,14.1268,17.0499,-35.5612,-94.9925,-10.2307,-21.9219,44.3294,39.4583,
24.8436,-78.4296,22.8955,-9.2562,-20.9474,4.3841,15.1013,18.9984,-23.8704,-85.2497,-9.2562,-6.9219,44.329,34.5867,
23.382,-93.4296,20.4599,-12.6658,-18.5118,-0.9745,12.6658,12.6658,-12.6658,-92.5564,-7.7946,0.9745,40.9194,28.2541,
10.2297,-108.4296,9.2557,-17.0499,-25.819,-13.1528,2.4356,14.1268,2.3342,-94.9925,-2.4356,-11.2047,36.5353,33.6122,
25.2297,-103.7602,18.9984,-27.7666,-22.8955,-19.9724,-0.48702,26.7926,0.48702,-84.2748,1.4611,-23.8695,44.3299,41.4069,
27.28,-105.2217,18.5118,-37.9968,-16.5628,-15.5879,1.9485,32.1512,-1.9485,-88.6589,3.8975,-27.2791,45.7914,44.8165,
16.0758,-102.7857,3.5118,-37.5093,-17.0499,-18.9979,-1.4615,28.7411,7.3076,-100.8372,1.4615,-33.6122,42.3814,41.4073,
27.28,-88.6593,12.6658,-22.5093,-10.7167,-9.7427,0.9745,35.0742,-0.9745,-90.6079,1.9485,-36.0483,53.5856,43.8424,
12.28,-91.5819,13.6403,-7.5093,-14.6143,3.8971,-3.8971,25.3315,-15.9745,-94.505,-6.8201,-38.9708,45.791,32.1516,
12.6653,-103.2736,17.5364,-12.6653,-16.5633,0,1.9481,17.5364,-6.8201,-99.3766,0,-37.0228,33.1257,25.3315,
9.2557,-113.5034,14.1268,-27.6653,-31.5633,-15,-2.4356,19.972,2.4356,-94.018,11.2038,-32.6382,29.7151,32.6382,
15.5883,-98.5034,14.6143,-12.6653,-29.2286,-7.7942,-0.97404,34.972,0.97404,-79.018,22.4085,-17.6382,44.7151,47.6382,
12.6658,-95.4795,1.9485,-7.7946,-14.2286,-1.9485,-7.7946,21.434,2.9226,-87.6853,12.6658,-23.383,45.7905,33.1252,
-2.3342,-97.915,2.436,-14.1273,-11.2042,5.3581,-2.436,17.0494,17.9226,-100.8376,14.1273,-25.8185,34.5867,27.7666,
7.7937,-90.6079,6.8197,-16.5628,-26.2042,-6.8197,-11.6917,15.5879,10.7167,-98.4021,10.7167,-27.2801,29.2281,24.357,
12.6658,-89.6334,11.6917,-8.7687,-31.1771,-9.7427,-9.7427,13.6398,8.7687,-93.5305,8.7687,-20.4599,31.1771,24.357,
4.8711,-88.6593,2.923,-7.7942,-20.4604,-9.7432,-2.923,15.5883,6.8201,-96.4535,3.8971,-24.3575,27.2796,26.3055,
18.9984,-87.1978,1.4611,-3.4101,-23.8695,-1.4611,-6.3331,26.7926,15.1013,-84.2752,15.1013,-21.9214,33.6127,31.6637,
3.9984,-96.4535,-0.97404,-8.7682,-32.1507,5.8461,-12.6653,27.2796,26.3055,-77.9421,26.3055,-18.5114,34.0997,27.2796,
0,-102.2996,0.97404,-12.6662,-20.4604,-2.923,0,17.5364,33.1247,-77.9426,37.9968,-20.4604,37.9968,27.2796,
5.3586,-102.7866,-4.3846,-3.4105,-18.0248,-1.4615,1.4615,9.2557,29.7151,-79.4037,36.5353,-13.1528,32.6382,27.7671,
-0.48702,-91.0944,-12.1783,0.48702,-25.8185,13.5385,-6.3322,14.1273,24.8445,-81.3517,22.8955,-10.2293,18.9984,28.7416,
5.8456,-98.4016,-12.6648,-14.513,-23.382,22.4089,-5.8456,10.7177,14.6148,-94.5045,7.8955,-25.2293,18.5118,16.5628,
0.9745,-93.5305,-10.7167,-29.513,-15.5888,17.5369,-0.9745,8.7687,13.6398,-91.5819,3.8966,-40.2293,16.5628,11.6908,
14.6143,-78.5305,-10.7172,-14.513,-9.7432,32.5369,-3.8971,9.7422,12.6653,-86.7108,10.7172,-55.2293,3.8971,9.7422,
21.4335,-63.5305,-11.6922,0,0,47.5369,1.9481,3.8971,-0.97497,-98.4025,0,-70.2293,3.8971,0,
15.5879,-48.5305,-6.8197,8.7687,5.8456,62.5369,12.6658,2.9226,-4.8716,-101.3251,-11.6917,-85.2293,5.8456,-2.9226,
30.5879,-39.9449,0.97404,2.923,7.7942,77.5369,9.7432,2.923,-15.5883,-98.4021,-5.8461,-93.5305,-1.9481,-0.97404,
28.7416,-46.278,1.4611,-6.3331,12.1783,92.5369,14.1273,5.3581,-22.8955,-97.9146,-1.4611,-108.5305,-3.4101,9.2552,
26.3051,-38.9713,-2.9235,-11.6917,16.5628,96.4535,19.485,1.9485,-12.6658,-103.2736,-1.9485,-123.5305,1.9485,10.7167,
38.9713,-44.8165,-1.9485,-19.485,10.7177,88.6593,10.7177,1.9485,-18.5109,-100.3501,-5.8456,-120.8101,1.9485,6.8197,
38.4843,-53.0976,10.2297,-28.7411,-2.4356,78.4292,15.1018,13.1528,-33.5109,-92.0689,-18.0239,-123.2456,2.4356,2.4356,
27.7666,-62.8413,19.9724,-33.6127,1.4611,66.7374,30.1018,0.48702,-19.9724,-98.8891,-3.0239,-123.2461,1.4611,-8.2812,
12.7666,-65.2764,4.9724,-19.4854,16.4611,67.2254,26.3055,-8.7682,-4.9724,-98.4021,11.9761,-108.2461,-5.8452,-3.8971,
21.4344,-58.4563,-10.0276,-18.5114,7.7942,52.2254,11.3055,0,0.97404,-89.6334,0,-121.7846,-9.7422,5.8461,
36.4344,-49.201,4.9724,-14.1273,-3.4101,46.278,18.0234,13.1523,-14.026,-77.4551,-14.1273,-131.0403,3.4101,11.2042,
21.4344,-50.1751,14.1273,-3.4101,-9.2552,59.9182,33.0234,8.2812,-0.48702,-82.3262,0.87272,-116.0403,-0.48702,0.48702,
17.0499,-55.0467,5.3586,2.4356,-11.2038,64.7898,18.9989,-2.4356,14.513,-89.1464,15.8727,-101.0403,-7.3067,-4.3836,
9.7427,-58.4567,-5.8456,1.9485,-16.5628,50.6626,3.9989,-1.9485,29.513,-79.8907,15.5888,-89.6334,-3.8966,4.8716,
8.7687,-61.3793,-9.7427,-7.7937,-20.4599,35.6626,-1.9485,7.7946,18.5118,-70.148,9.7427,-101.3246,1.9485,4.8716,
23.7687,-64.7894,-3.4101,-9.2552,-23.8695,27.7675,3.4101,13.1532,15.1013,-69.6605,8.2812,-98.8891,3.4101,-3.4101,
19.9724,-57.9697,-0.48702,-0.48702,-24.8445,28.7406,9.2552,21.9205,30.1013,-63.8153,18.9984,-90.1209,-1.462,0.48702,
12.6658,-64.3023,-6.8197,-11.6917,-27.28,27.28,1.9485,16.5628,45.1013,-60.4053,32.1512,-85.7363,-1.9485,8.7687,
5.3581,-73.558,-11.2042,-14.1273,-30.6896,27.7666,0.48702,6.3331,52.1241,-62.8404,32.6387,-77.4551,-0.48702,13.1532,
6.8201,-66.2509,-13.6403,-4.8711,-33.1257,23.3825,5.8452,7.7942,47.739,-66.2509,21.4344,-81.8392,-4.8711,4.8711,
18.9984,-68.6869,-6.3331,-12.1783,-29.7156,18.9984,14.1263,11.2042,43.3549,-55.0471,27.7666,-92.0694,0.48702,-0.48702,
4.3841,-80.3777,-12.1783,-27.1783,-41.4069,13.1523,12.1783,7.3071,29.7156,-46.278,23.8695,-94.0175,2.436,-2.436,
11.6913,-77.9421,-20.4595,-38.9708,-43.842,11.6913,3.8971,4.8711,15.5883,-55.5332,14.6143,-84.7618,0.97404,-0.97404,
13.1528,-71.6095,-16.0758,-23.9708,-32.6382,15.1018,9.2557,4.3846,16.0758,-62.8408,18.9989,-76.4806,-4.3846,5.3586,
8.2807,-72.584,-9.2557,-24.844,-37.5102,11.2038,17.0499,7.3067,6.3326,-59.9182,19.9729,-91.4806,-6.3326,10.2297,
15.5883,-81.8392,-9.7422,-39.844,-50.6621,8.7682,12.6653,10.7172,2.923,-51.6361,22.4085,-106.4806,-2.923,6.8201,
7.7942,-79.8907,-16.5624,-33.1257,-43.842,12.6653,3.8971,12.6653,17.923,-39.9449,29.2286,-91.4806,-3.8971,3.8971,
17.5373,-77.9421,-16.5624,-25.3315,-39.9449,-0.97404,0.97404,10.7172,24.3575,-37.9968,21.4344,-76.9676,2.923,4.8711,
21.434,-87.6848,-11.6908,-38.9704,-54.9449,-8.7687,8.7687,11.6917,21.434,-39.9453,23.383,-91.9676,8.7687,10.7177,
6.434,-83.7878,-11.6917,-40.9194,-69.1739,6.2313,19.485,10.7167,36.434,-35.0742,38.383,-92.5564,-5.8456,9.7427,
15.5893,-73.0706,-9.7422,-27.2796,-54.1739,21.2313,31.1776,7.7942,51.434,-29.2277,53.383,-77.5564,-7.7942,9.7432,
5.3586,-83.3007,-22.8959,-41.4073,-69.1739,6.2313,16.1776,-2.4356,36.434,-44.2277,38.383,-92.5564,3.4096,9.2557,
20.3586,-68.3007,-7.8959,-26.4073,-84.1739,1.4611,1.1776,12.5644,34.5867,-29.2277,52.1241,-107.5564,18.4096,20.9465,
20.4604,-68.1994,-2.923,-11.4073,-86.7103,15.5883,-0.97404,15.5883,49.5867,-19.4854,67.1241,-92.5564,3.4096,11.6913,
5.4604,-64.7894,-15.1009,-8.2817,-71.7103,30.5883,14.026,21.921,64.5867,-17.0499,82.1241,-77.5564,-4.3846,25.8181,
18.5114,-71.122,-21.4344,-23.2817,-56.7103,15.5883,9.7432,26.3055,79.5867,-16.5624,94.505,-92.5564,10.6154,33.1257,
27.28,-70.148,-9.7427,-38.2817,-60.4053,0.58833,0.9745,40.9194,79.8911,-1.5624,102.2996,-107.5564,25.6154,37.9973,
31.1767,-66.2509,-0.97404,-53.2817,-45.4053,-14.4117,0.97404,37.9968,82.8137,-1.949,95.479,-122.5564,28.2536,32.1507,
29.7156,-79.4032,-4.3841,-66.7379,-30.6896,-29.4117,4.3841,23.8704,68.6864,-14.1263,80.479,-137.5564,13.2536,20.9474,
22.4085,-79.8907,-3.8971,-76.9681,-45.6896,-44.4117,3.8971,20.4595,60.4053,-20.4595,68.1994,-152.5564,18.5114,16.5624,
27.28,-84.7618,4.8716,-84.7618,-60.6896,-59.4117,-0.9745,5.4595,75.4053,-27.2801,75.0191,-167.5564,26.3051,1.5624,
12.28,-94.992,2.4356,-86.2238,-58.9437,-74.4117,-1.4615,1.4615,85.2493,-19.9729,81.3522,-182.5564,15.1009,1.4615,
14.1273,-90.1204,-0.48702,-89.1464,-43.9437,-89.4117,0.48702,16.4615,70.2493,-4.9729,69.6605,-197.5564,28.7416,16.4615,
16.0754,-93.0435,0.48702,-96.9405,-41.4069,-104.4117,-6.3331,24.8436,85.2493,-0.48702,83.3007,-212.5564,35.5608,18.0244,
7.3067,-97.915,-1.4615,-102.7862,-45.3039,-105.7092,-2.4356,14.1268,100.2493,1.4615,98.3007,-227.5564,20.5608,17.0499,
18.9984,-104.7342,0.48702,-114.4774,-56.0207,-120.7092,-7.3071,13.1532,85.2493,-0.48702,84.2757,-242.5564,26.7926,17.0503,
3.9984,-97.9146,15.487,-105.7087,-71.0207,-127.1427,-22.3071,17.0503,70.2493,-0.48702,80.3777,-257.5564,41.7926,13.1532,
-5.8456,-82.9146,30.487,-90.7087,-56.0207,-112.1427,-37.3071,15.5879,85.2493,5.8456,95.3777,-272.5564,26.7926,20.459,
1.9485,-84.7618,19.4859,-85.7358,-41.0207,-97.1427,-52.3071,8.7687,100.2493,-1.9485,110.3777,-287.5564,11.7926,20.4599,
-3.8975,-90.6079,4.4859,-100.7358,-26.0207,-109.1193,-67.3071,18.5109,96.4535,3.8966,95.3777,-302.5564,17.5369,18.5109,
-4.3841,-76.4806,19.4859,-108.6318,-11.0207,-94.1193,-82.3071,12.1783,111.4535,4.3841,107.6573,-317.5564,32.5369,8.2812,
-19.3841,-68.1994,34.4859,-104.2472,3.9793,-79.1193,-97.3071,5.8456,126.4535,-2.9226,109.1188,-332.5564,23.383,2.9226,
-26.3055,-70.148,32.1507,-119.2472,18.9793,-94.1193,-112.3071,17.5373,111.4535,0,94.1188,-347.5564,11.6912,0,
-11.3055,-75.9936,47.1507,-134.2472,23.383,-109.1193,-114.9644,12.6658,96.4535,0.9745,79.8911,-362.5564,25.331,-0.9745,
-26.3055,-72.096,62.1507,-131.5273,38.383,-94.1193,-104.2477,1.9485,111.4535,-1.9485,94.8911,-377.5564,24.357,2.9226,
-41.3055,-68.1999,47.1507,-134.4503,53.383,-79.1193,-119.2477,6.8197,126.4535,-0.9745,109.8911,-377.0454,11.6908,0.9745,
-56.3055,-65.7634,62.1507,-132.0143,68.383,-64.1193,-134.2477,10.2302,141.4535,-0.48702,113.5034,-365.8407,13.1532,0.48702,
-60.4048,-59.4308,77.1507,-125.6816,83.383,-49.1193,-149.2477,6.8197,156.4535,-0.9745,116.913,-350.8407,16.5628,0.9745,
-61.8668,-63.8158,92.1507,-140.6816,98.383,-59.9187,-164.2477,8.2807,158.3198,-1.4615,101.913,-337.5871,10.2297,1.4615,
-76.8668,-65.7639,107.1507,-155.6816,113.383,-67.7119,-179.2477,8.2817,143.3198,-2.4356,86.913,-352.5871,17.0499,2.4356,
-88.6593,-58.4572,122.1507,-170.4986,128.383,-52.7119,-194.2477,6.8201,158.3198,0.97404,91.5819,-353.6629,32.0499,-0.97404,
-82.8133,-60.4048,137.1507,-180.2408,143.383,-62.3538,-203.6238,15.5888,173.3198,1.9485,92.5564,-338.6629,21.434,-1.9485,
-92.0689,-52.1241,152.1507,-195.2408,158.383,-73.558,-207.0338,26.7926,168.0625,-1.4611,80.3777,-328.8184,13.1532,1.4611,
-86.2238,-37.1241,167.1507,-203.1368,173.383,-58.558,-213.854,18.9984,183.0625,-3.4101,95.3777,-313.8184,28.1532,3.4101,
-101.2238,-28.2546,182.1507,-188.1368,188.383,-43.558,-227.0067,9.7422,198.0625,-4.8711,109.1193,-298.8184,37.0228,4.8711,
-107.1707,-26.306,197.1507,-192.907,203.383,-28.558,-229.9298,17.5369,188.0354,-4.8716,103.2727,-293.2576,25.331,4.8716,
-106.6828,-23.8695,212.1507,-207.907,218.383,-31.6637,-214.9298,19.9734,196.3171,-3.4101,97.915,-278.2576,40.331,3.4101,
-121.6828,-20.9469,227.1507,-213.854,233.383,-26.793,-213.854,16.0758,211.3171,-3.4096,100.8376,-263.2576,42.3814,3.4096,
-122.7591,-27.2796,242.1507,-227.0063,248.383,-21.4344,-228.854,18.5114,200.7012,-3.8971,113.0164,-265.9776,27.3814,3.8971,
-137.3729,-30.2022,239.6725,-217.2636,263.383,-6.4344,-241.6206,18.5118,205.5728,-8.7677,120.811,-250.9776,19.4859,1.9485,
-124.2206,-23.8695,244.0561,-205.0853,278.383,-5.3581,-233.3394,21.9214,214.8275,-3.4101,107.6573,-235.9776,34.4859,3.4101,
-112.5289,-38.4838,248.9282,-220.0853,293.383,-20.3581,-248.3394,18.0244,199.8275,-0.48702,92.6573,-249.9018,26.7926,0.48702,
-122.7591,-33.1252,257.2089,-227.0067,308.383,-32.1512,-238.698,17.5369,187.0614,-1.9485,101.3246,-246.4922,29.2281,1.9485,
-122.7591,-25.3315,249.4143,-212.0067,323.383,-17.1512,-223.698,19.4854,202.0614,-2.923,110.0933,-231.4922,44.2281,0.97404,
-126.1687,-28.7411,240.1595,-197.0067,338.383,-5.3586,-213.8535,22.8959,203.1368,-2.4356,101.8117,-216.4922,41.4073,2.4356,
-111.1687,-25.8181,255.1595,-182.0067,353.383,-11.2038,-228.8535,21.921,196.3166,-4.3846,116.8117,-208.0079,26.4073,4.3846,
-113.5034,-30.6901,257.6959,-177.8057,368.383,1.4615,-226.5193,11.2038,211.3166,-13.1528,131.8117,-197.2911,23.87,-1.4615,
-128.5034,-35.0738,242.6959,-184.1379,378.9939,-3.8971,-211.5193,15.5883,206.5473,-3.8971,116.8117,-191.9321,23.3825,3.8971,
-113.5034,-46.2775,227.6959,-199.1379,363.9939,-18.8971,-221.6477,15.1018,191.5473,-1.4615,101.8117,-200.2137,16.0758,1.4615,
-110.5803,-43.3554,230.4163,-187.548,348.9939,-25.8181,-217.7506,18.0239,193.3945,-4.3846,116.8117,-185.2137,25.8181,4.3846,
-109.1193,-36.0487,242.5951,-172.548,345.8683,-17.5373,-202.7506,19.4854,205.5723,-3.8971,131.8117,-174.3957,27.2796,3.8971,
-100.3506,-48.714,230.9038,-187.548,330.8683,-30.2026,-203.6242,12.6653,190.5723,-0.97404,116.8117,-179.2672,16.5624,0.97404,
-113.9904,-45.791,215.9038,-201.6752,315.8683,-27.2796,-202.6497,9.7432,178.2927,-2.923,106.1962,-172.4471,14.6143,2.923,
-101.8117,-41.4069,209.9564,-190.471,319.0757,-18.9984,-195.3426,14.1273,190.471,-6.3331,120.3235,-170.0111,19.9724,6.3331,
-101.8117,-56.4069,200.2137,-193.3941,304.0757,-27.7671,-203.1368,15.1018,175.471,-3.4096,105.3235,-185.0111,17.0499,3.4096,
-100.3501,-46.7655,202.6497,-178.3941,289.0757,-27.2791,-190.958,15.5888,174.3961,0.9745,92.5564,-182.1894,20.4599,-0.9745,
-85.7368,-33.1257,210.4434,-163.3941,274.0757,-21.4344,-175.958,14.6143,172.4466,0,107.5564,-167.1894,19.4854,0,
-98.4021,-43.8424,200.7007,-149.0641,259.0757,-18.5109,-179.2668,10.7167,157.4466,-0.9745,103.2736,-152.9617,4.4854,0.9745,
-91.5824,-46.7655,199.7267,-142.2449,244.0757,-5.8466,-171.4731,12.6648,171.4721,1.9485,102.2987,-138.3479,8.7677,-1.9485,
-87.6853,-34.0997,201.6752,-127.2449,255.2604,0,-156.4731,21.4335,181.2149,0,114.9644,-127.6307,23.3825,-8.7691,
-78.9166,-21.434,195.8296,-113.9904,240.2604,-6.8197,-155.8843,31.1771,166.2149,2.9226,113.9899,-134.4503,13.6398,-2.9226,
-69.1739,-36.434,180.8296,-128.9904,225.2604,-21.8197,-164.6529,16.1771,171.4731,1.9485,104.2477,-138.3474,-0.9745,0.9745,
-82.3267,-51.434,165.8296,-143.9904,210.2604,-16.0763,-153.4487,8.2812,186.4731,0.48702,111.5544,-123.3474,3.4101,-0.48702,
-73.0706,-43.8429,174.3957,-133.4758,216.2895,-2.923,-138.4487,15.5883,178.2927,2.923,114.9644,-108.3474,6.8201,-9.7432,
-71.6095,-39.4583,177.8053,-118.4758,201.2895,2.4356,-132.9888,22.8959,163.2927,9.2557,99.9644,-106.6832,-2.4356,-12.1787,
-73.5576,-33.6127,165.1404,-117.4,186.2895,-3.4101,-142.7315,29.7156,170.9856,12.1783,84.9644,-108.6318,3.4101,-7.3071,
-58.5576,-41.8934,163.6789,-132.4,186.0874,-18.4101,-128.6042,18.5109,155.9856,9.7427,82.8133,-107.1703,18.4101,-9.7427,
-61.3798,-42.8679,164.6525,-123.7331,194.8551,-33.4101,-113.6042,12.6653,148.0901,14.6143,97.8133,-92.1703,16.5624,-12.6653,
-54.5592,-27.8679,159.7814,-108.7331,189.984,-18.4101,-98.6042,12.6653,163.0901,3.8971,112.8133,-77.1703,1.5624,-19.4854,
-43.8424,-12.8679,167.5751,-93.7331,188.0354,-3.4101,-83.6042,19.485,171.4721,-1.9485,101.3246,-62.1703,-13.4376,-8.7687,
-52.1241,2.1321,163.1914,-78.7331,173.0354,11.5899,-83.3007,13.1523,156.4721,-11.2042,86.3246,-66.7384,-25.8185,-10.2302,
-38.9704,17.1321,160.7559,-63.7331,158.0354,26.5899,-97.4276,13.6398,141.4721,-13.6398,89.6334,-73.0701,-27.2791,-16.5619,
-53.5847,28.2541,145.7559,-48.7331,143.0354,41.5899,-112.4276,17.5369,151.9877,-23.382,87.6853,-70.148,-39.9453,-20.4599,
-51.6371,25.3306,130.7559,-37.0228,128.0354,56.5899,-122.7591,15.5883,154.9093,-15.5883,72.6853,-55.148,-41.8939,-17.5373,
-56.5077,10.7167,123.7331,-52.0228,113.0354,71.5899,-118.8615,6.8197,156.8588,-6.8197,72.097,-41.8934,-48.7135,-21.434,
-63.3283,17.5373,128.6047,-37.0228,98.0354,86.5899,-121.7846,10.7172,164.6525,-10.7172,75.0196,-36.0478,-60.4053,-24.3565,
-54.5592,17.5373,125.6816,-22.0228,83.0354,101.5899,-128.6042,6.8201,149.6525,-20.4595,60.0196,-30.2026,-72.0965,-38.9708,
-69.5592,12.1787,118.375,-7.0228,68.0354,116.5899,-120.323,-2.4356,134.6525,-23.87,45.0196,-32.6382,-77.4551,-44.3294,
-68.6864,12.1783,115.4515,3.4101,53.0354,131.5899,-112.5293,-3.4101,136.8859,-16.0754,50.1751,-29.7156,-75.5066,-34.5867,
-58.9442,4.3841,109.6063,-4.3841,38.0354,146.5899,-117.4005,7.3071,144.68,-8.2812,55.0462,-14.7156,-70.6355,-31.6637,
-59.9178,-0.48748,105.7087,-11.2038,23.0354,161.5899,-112.5289,22.3071,139.8085,-3.4096,67.7119,0.28439,-65.7639,-20.9469,
-44.9178,2.923,113.0164,-10.7172,8.0354,173.4207,-101.3251,27.2796,139.321,8.7682,82.7119,-2.923,-57.4822,-7.7942,
-59.9178,-0.97404,98.0164,-9.7432,-6.9646,163.6784,-110.0933,12.2796,132.5018,0.97404,67.7119,9.7422,-65.2764,-19.4854,
-59.4308,4.8716,93.5305,-8.7687,-21.9646,165.627,-99.3761,17.5369,132.5022,-4.8716,63.3278,19.4859,-64.3019,-18.5109,
-44.4308,-8.7687,101.3246,-15.5888,-36.9646,152.9617,-84.3761,23.382,147.5022,8.7687,78.3278,33.1252,-57.4827,-14.6148,
-56.5082,-18.5114,86.3246,-22.4085,-51.9646,137.9617,-83.7878,18.5114,162.5022,23.7687,93.3278,48.1252,-48.714,-19.4854,
-41.5082,-3.5114,77.4551,-14.1268,-49.2006,122.9617,-75.5061,29.7161,177.5022,38.7687,108.3278,33.1252,-33.714,-4.4854,
-29.7156,-5.3581,81.3517,-11.2042,-61.8668,107.9617,-67.7124,31.6637,192.5022,44.3299,123.3278,18.1252,-32.6387,5.3581,
-25.331,-5.8456,94.5045,-2.9226,-75.9936,115.9389,-54.5596,40.9194,207.5022,44.8165,138.3278,3.1252,-33.1252,2.9226,
-24.844,-12.1778,89.1464,5.3586,-82.3262,128.1172,-50.1746,38.4843,205.0858,32.6382,135.9123,-11.8748,-23.87,-5.3586,
-39.844,-19.9724,74.1464,12.1783,-97.3262,128.1177,-62.8413,23.4843,190.0858,23.8695,120.9123,-26.8748,-38.87,-12.1783,
-36.0483,-14.6138,59.1464,10.7167,-107.1707,122.7591,-65.2768,25.331,175.0858,33.1252,105.9123,-41.8748,-53.87,-10.7167,
-31.6637,-18.0244,44.3299,2.436,-118.3745,108.6323,-50.2768,38.4838,175.8567,45.3039,112.5293,-56.8748,-47.252,-2.436,
-37.5098,-26.7926,36.5357,-0.48702,-124.2201,105.7092,-35.2768,38.4838,190.8567,57.9692,118.3745,-71.8748,-43.3549,0.48702,
-23.87,-28.7411,32.6382,0.48748,-127.1432,109.6058,-34.5872,37.5093,198.2656,57.9697,118.375,-86.8748,-46.2784,-0.48748,
-34.0997,-18.5114,21.4335,0,-142.1432,95.479,-41.8939,36.0478,183.2656,44.8169,117.8875,-101.8748,-41.8939,0,
-31.6642,-18.9989,18.0239,2.4356,-140.7834,92.0685,-30.6901,28.7411,168.2656,47.2525,124.2201,-116.8748,-30.6901,-2.4356,
-31.6642,-33.9989,17.0499,1.4615,-142.732,107.0685,-22.8959,27.7671,183.2656,52.1236,127.1432,-131.8748,-37.5102,-1.4615,
-38.9708,-29.2286,4.8711,-0.97404,-156.8588,113.9904,-27.2796,36.0478,186.0869,46.765,130.5528,-146.8748,-51.6371,0.97404,
-23.9708,-18.5109,-5.8456,10.7177,-144.1926,100.3506,-12.2796,44.8174,187.0614,53.5856,145.1675,-148.0896,-39.9453,5.8456,
-31.6642,-30.6892,-20.8456,6.3326,-140.783,97.9146,-6.3326,39.4583,193.3945,56.0207,137.8604,-140.783,-41.4064,6.3326,
-16.6642,-26.7921,-7.3067,2.4356,-146.6286,106.6837,-2.4356,45.3044,200.2146,69.6609,137.8604,-128.1172,-32.6382,18.0248,
-23.383,-35.0742,-1.9485,1.9485,-161.6286,91.6837,-4.8716,34.0993,185.2146,63.3278,127.6302,-143.1172,-42.8684,8.7687,
-27.2796,-29.2286,-2.923,14.6143,-166.6015,76.6837,-2.923,30.2026,178.2927,54.5592,122.7586,-151.9877,-52.6111,2.923,
-12.2796,-24.8445,-0.48702,18.9984,-162.2174,76.4806,-5.3591,29.7156,182.6768,56.9952,123.2456,-137.8604,-46.2784,0.48702,
-27.2796,-31.1767,-0.97404,26.3055,-165.6274,91.4806,0.97404,26.3055,188.035,56.5082,125.6816,-122.8604,-51.6371,-2.923,
-38.4843,-46.1767,-6.3326,30.6901,-171.9596,81.3522,6.3326,18.9989,173.035,41.5082,118.375,-117.4005,-66.6371,-13.1528,
-29.7151,-53.0981,-5.3586,26.7921,-170.9856,66.3522,5.3586,25.8181,171.9601,42.3814,110.5808,-130.0662,-66.7379,-9.2557,
-33.1252,-42.8684,-0.9745,25.331,-172.4471,69.1739,-0.9745,35.0742,186.9601,57.3814,110.0928,-121.7846,-61.3793,0.9745,
-27.2796,-45.791,0,29.2286,-174.3952,64.3023,0,26.3055,179.2677,60.4053,114.9654,-110.0928,-68.199,-3.8971,
-41.8939,-58.4567,-2.923,30.2026,-183.1643,49.3023,2.923,18.5114,164.2677,45.4053,99.9654,-111.0678,-76.9681,-18.8971,
-45.3039,-62.8408,0.48702,22.8955,-194.3681,34.3023,-0.48702,14.1273,149.2677,31.6646,84.9654,-123.2456,-80.3777,-28.7406,
-46.7655,-63.3278,-0.9745,16.5628,-195.8296,33.1252,3.8966,0.9745,140.2955,33.1252,78.9162,-113.9904,-85.7363,-24.357,
-49.201,-53.0981,-4.3841,21.9214,-187.5484,42.3809,15.1013,4.3841,154.4232,31.6637,93.9162,-98.9904,-87.1978,-26.7926,
-37.5093,-61.8668,-7.3067,17.0499,-188.5225,28.7411,16.0758,7.3067,139.4232,23.87,84.2752,-103.7607,-80.3777,-39.4583,
-43.8429,-67.2254,-8.7682,17.5373,-189.01,34.0997,31.0758,8.7682,147.1161,28.2536,91.5819,-93.5305,-69.1739,-36.0487,
-43.3554,-55.0467,-8.2817,18.9989,-185.5999,47.2525,46.0758,8.2817,162.1161,26.793,106.5819,-78.5305,-66.7379,-29.7151,
-35.0738,-56.5082,-7.7942,8.7682,-180.2413,50.6621,45.791,7.7942,149.0641,25.3315,109.1193,-63.5305,-60.4053,-26.3055,
-28.2536,-54.5596,-17.5373,5.8461,-170.4986,56.5082,50.6621,22.7942,150.0382,40.3315,109.1193,-48.5305,-51.6366,-11.3055,
-13.6398,-53.5851,-25.331,8.7687,-173.4212,47.7395,48.7145,32.1512,165.0382,55.3315,124.1193,-33.5305,-58.4563,-8.7687,
-28.6398,-58.4567,-24.357,13.6398,-188.4212,32.7395,42.8684,21.434,171.4731,55.5337,127.6302,-18.5305,-57.4822,-13.6398,
-24.357,-48.714,-26.306,1.9485,-189.01,27.2791,50.6626,30.2022,174.3952,69.173,123.7331,-7.7946,-43.8429,-1.9485,
-9.357,-39.4583,-33.6127,-2.4356,-179.7543,33.6122,56.9947,42.3804,180.7283,66.7379,133.9624,-3.4105,-48.227,2.4356,
-24.357,-47.7395,-48.6127,2.9226,-192.9066,27.28,43.8424,35.0742,166.602,52.6116,129.5792,-4.8716,-63.227,-2.9226,
-28.2546,-55.5341,-62.3538,-12.0774,-192.907,19.4854,45.791,24.3565,155.8843,60.4053,121.7846,3.8971,-57.4827,-3.8971,
-37.0228,-70.5341,-77.3538,-27.0774,-190.9585,14.6143,44.8169,14.6143,144.193,53.5851,108.1443,10.7172,-62.3538,-10.7172,
-37.5098,-65.7639,-84.2752,-34.5872,-187.5484,19.9729,44.3294,20.9469,150.5257,48.2265,113.5029,16.0758,-63.8153,-16.0758,
-30.2022,-57.4822,-80.8647,-19.5872,-199.7267,12.6658,31.1771,21.434,160.7559,40.9203,118.862,13.6398,-70.1475,-21.434,
-40.9198,-56.5082,-90.6079,-13.6398,-200.7012,13.6398,32.1512,18.5109,159.7818,41.8943,117.8879,24.357,-74.0451,-17.5369,
-26.3051,-63.3278,-91.5819,-23.382,-185.7012,19.4859,47.1512,16.5628,162.7049,46.7655,130.5532,39.357,-59.0451,-16.5628,
-21.434,-68.1994,-91.5824,-19.4859,-191.933,12.6658,47.7395,19.485,171.4721,44.8165,133.4753,44.8165,-53.5856,-12.6658,
-32.6382,-56.0207,-92.069,-13.1523,-206.933,11.2042,32.7395,23.8695,162.2174,46.278,121.2975,58.9442,-68.5856,-11.2042,
-36.0487,-64.3023,-94.505,-18.5114,-191.933,14.6143,37.0218,23.3825,150.0382,61.278,121.7846,73.9442,-69.1739,-14.6143,
-42.8679,-75.9936,-101.3246,-31.1767,-176.933,7.7942,45.791,28.2546,165.0382,74.0455,134.4508,88.9442,-56.5077,-7.7942,
-27.8679,-66.7379,-94.018,-35.5612,-168.063,-4.3841,52.1241,28.7416,173.9086,73.5576,134.9369,93.043,-58.9437,4.3841,
-12.8679,-51.7379,-79.018,-20.5612,-173.4212,-3.8971,63.3283,31.1776,164.6534,79.8907,130.5537,95.479,-56.5077,3.8971,
-20.9469,-37.5098,-82.3267,-5.5612,-179.7543,-6.3326,54.0726,28.7411,169.037,67.7119,128.1172,86.2233,-68.6869,-11.1029,
-5.9469,-47.74,-79.8911,-1.9485,-164.7543,1.9485,62.3529,38.9704,179.2663,68.199,143.1172,99.3756,-54.5601,-1.9485,
-9.7429,-44.8167,-84.762,-11.6915,-155.8845,-7.7944,68.1997,40.9201,170.4988,72.0967,140.2962,107.1705,-45.7912,7.7944,
-4.3841,-32.6382,-90.1204,-11.2042,-157.3458,-22.7944,58.9442,37.5098,175.8567,78.4296,130.0657,101.8121,-54.0722,4.3841,
-1.4611,-43.3554,-87.1978,-7.3071,-150.5257,-10.2302,57.9692,34.5867,178.7798,80.3777,138.834,116.8121,-57.9697,1.4611,
-16.4611,-56.0212,-86.2238,-7.3071,-157.3458,4.7698,57.9692,28.7406,163.7798,66.7374,128.1167,131.8121,-64.7898,-8.2812,
-8.7682,-48.714,-80.8652,0.97404,-157.8328,-0.97404,60.4053,31.1767,148.7798,72.0965,119.8356,135.4239,-66.2509,-3.8971,
-20.9469,-50.1751,-94.0175,1.4615,-151.4997,-15.1009,52.1236,27.7671,163.7798,83.3012,120.323,134.9373,-80.3777,-1.4615,
-19.4859,-48.714,-88.6593,6.8197,-136.4997,-6.8197,58.4567,27.28,178.7798,90.6074,132.5013,149.9373,-73.071,-6.8197,
-17.5369,-60.4053,-86.7108,0.9745,-130.5532,-0.9745,65.2768,20.4599,171.4731,77.9421,131.5273,161.7299,-65.2764,-16.5628,
-23.3825,-53.5847,-93.5305,-6.8192,-136.3984,0,63.3283,27.2805,156.8592,73.0715,121.7846,146.7299,-66.2504,-1.5628,
-12.1783,-38.5847,-86.2233,0.48702,-132.9888,-6.3322,63.8153,28.7416,152.4742,70.6355,116.4264,142.732,-67.7119,-0.48702,
-27.1783,-53.5847,-91.5819,3.8971,-147.9888,-3.8971,54.5601,13.7416,139.3219,55.6355,107.1703,147.1161,-82.7119,-15.487,
-33.1252,-68.5847,-104.2477,0.9745,-162.9888,3.8975,41.8943,-0.9745,124.3219,40.6355,97.4276,146.1416,-97.7119,-30.487,
-20.9469,-60.8923,-98.8891,2.4356,-154.4228,-2.4356,52.1236,14.0255,126.1691,49.2006,94.9915,147.6026,-90.1209,-26.793,
-19.4854,-48.7135,-91.5819,2.923,-142.2445,-2.923,67.1236,21.4344,139.3219,55.5341,94.505,148.0901,-84.7618,-21.4335,
-16.0754,-53.0981,-91.0949,0.48702,-142.7315,-0.48702,65.7634,6.4344,124.3219,41.4069,91.0949,148.5771,-93.0435,-29.7156,
-31.0754,-56.5086,-92.5569,11.6913,-145.1675,-3.8971,64.3014,3.8971,109.3219,41.8939,91.5819,161.7294,-88.6598,-35.0747,
-25.8176,-52.1236,-94.9915,7.3071,-139.8085,-7.3071,74.5325,18.8971,109.6063,54.0731,102.7862,169.0375,-84.2748,-32.6382,
-10.8176,-49.201,-94.992,0.48702,-124.8085,-3.4101,75.5066,29.7156,124.6063,57.9692,109.6063,176.8317,-84.2748,-17.6382,
-21.9214,-50.1755,-99.8636,7.3071,-127.1432,-7.3071,69.6605,18.0244,132.9888,49.201,94.6063,181.7028,-88.1723,-8.2812,
-27.7671,-56.0212,-95.9665,13.1528,-132.0148,-6.3326,80.3772,6.3326,125.1942,46.2775,96.9405,191.4455,-91.0954,-23.2812,
-33.1257,-66.2509,-105.2222,1.9481,-130.5532,0.97404,76.9676,-0.97404,118.8615,40.9198,100.3501,201.6752,-105.2222,-38.2812,
-31.1767,-60.4048,-112.0414,0,-127.6297,0,68.1994,2.923,116.9134,37.9968,85.3501,204.5983,-103.2732,-32.1507,
-23.8695,-65.7634,-108.6318,3.4101,-129.0917,-3.4101,68.6864,8.2812,117.4005,46.278,80.3777,206.0593,-88.2732,-26.7926,
-26.7926,-63.8153,-114.4779,-0.48702,-126.1691,0.48702,65.7634,14.1263,132.4005,58.9433,95.3777,221.0593,-86.2238,-18.0244,
-11.7926,-55.0467,-113.5034,-13.1532,-117.4005,4.3841,62.8404,13.1523,134.9369,56.9952,106.6832,215.8025,-89.1464,-17.0503,
-8.7687,-58.4567,-106.1962,-8.7687,-118.862,10.7167,73.071,8.7687,119.9369,47.7395,94.5045,206.5468,-81.8392,-22.408,
-23.3825,-61.3793,-113.0159,2.923,-122.7591,-2.923,77.9426,3.8971,104.9369,44.8169,101.3251,221.1607,-88.6594,-23.3825,
-8.3825,-56.0207,-107.6573,3.4101,-115.4519,-16.0754,91.0949,10.2302,119.9369,59.8169,116.3251,236.1607,-90.1204,-14.1273,
0,-45.7905,-93.5305,0,-110.0928,-11.6913,104.2481,25.2302,134.9369,74.8169,129.5787,246.4922,-75.1204,-8.7682,
-0.48748,-55.0467,-100.8376,0.48748,-111.5548,-17.0499,92.0694,26.793,144.6805,68.6869,124.2201,238.2105,-68.6864,-20.9469,
-6.8197,-60.4053,-114.9649,6.8197,-107.1703,-7.7946,89.6334,15.5888,150.0386,60.4048,123.7331,250.3888,-83.6864,-20.4599,
-21.8197,-56.9957,-129.9649,5.3586,-119.349,-2.4356,80.3772,2.4356,135.0386,45.4048,108.7331,256.7219,-98.6864,-33.6132,
-25.8185,-53.0981,-125.1946,14.1273,-122.2716,-4.3841,77.4547,4.3841,120.0386,40.4328,96.941,260.6194,-94.0175,-36.5357,
-15.5879,-55.5337,-119.836,8.7687,-116.913,-8.7687,79.8911,15.5888,128.6052,55.4328,110.0938,258.1839,-84.7618,-21.5357,
-0.58787,-57.9692,-119.3485,-5.3581,-108.6318,-3.4101,83.3007,14.1273,125.1946,56.0212,116.4264,259.6454,-94.9915,-20.9465,
-3.4101,-55.0467,-120.3235,-5.3591,-102.7862,3.4101,81.3517,11.2042,110.1946,45.3039,101.8121,274.2588,-83.3007,-24.8445,
-11.6908,-43.8424,-122.7586,0.9745,-105.2217,-0.9745,79.8911,14.6148,95.1946,50.6626,95.4795,281.5664,-74.0446,-17.5369,
3.3092,-54.0726,-119.349,-3.4101,-108.6318,-15.9745,83.3007,8.2812,110.1946,59.9182,110.4795,293.7442,-89.0446,-20.9474,
-1.9485,-51.6361,-109.1183,1.9485,-106.1958,-1.9485,91.5824,17.5378,125.1946,71.1229,125.4795,308.7442,-99.3756,-15.5879,
4.8711,-36.6361,-108.1448,-4.8711,-104.2477,-5.8452,89.6339,27.2796,112.0423,74.0455,110.4795,311.7686,-85.7363,-8.7682,
9.7427,-40.9194,-115.9385,-12.6648,-100.3501,-20.8452,82.8142,18.5118,111.0678,70.148,100.3506,309.82,-84.7618,-9.7427,
-5.2573,-42.3809,-124.2201,2.3352,-110.5803,-5.8452,77.4551,13.1528,126.0678,73.558,113.5029,324.82,-99.7618,-18.9979,
-20.2573,-53.5847,-139.2201,-4.8716,-125.5803,9.1548,62.4551,4.8716,111.0678,58.558,98.5029,315.6661,-110.0933,-33.9979,
-19.9729,-46.278,-139.8085,-8.2817,-126.1687,24.1548,53.0986,8.2817,96.0678,52.1236,85.2493,308.359,-97.9146,-25.8181,
-5.8452,-38.9708,-124.8085,-3.8971,-114.9644,9.1548,67.2254,8.7691,84.7627,54.5601,88.6598,315.6656,-94.5045,-21.4335,
-5.8461,-49.6885,-122.7591,-0.97404,-121.785,0.97404,63.3274,6.8201,96.4531,51.6361,85.7358,312.7426,-101.3251,-31.1767,
-20.8461,-51.6371,-137.7591,-4.8711,-129.5792,8.7682,50.6621,4.8711,81.4531,53.5851,77.9417,308.8455,-113.0164,-35.0738,
-15.5888,-47.7395,-128.6047,2.9226,-126.6561,8.7687,52.6106,-2.9226,76.9681,47.7395,74.0451,319.5632,-110.0933,-44.8165,
-23.8695,-51.1491,-119.349,15.1013,-124.2201,5.3581,51.15,-5.3581,78.4296,38.4838,66.7384,326.8699,-112.5289,-46.278,
-8.8695,-40.9189,-113.9899,19.4854,-109.2201,-8.7682,54.5601,7.7942,75.9936,50.663,67.2254,318.5887,-109.1188,-31.278,
-0.9745,-42.8684,-109.1188,17.5369,-108.1448,-23.7682,52.6106,0.9745,76.9681,49.6885,63.3278,303.5887,-108.1448,-34.0993,
-7.7942,-37.0228,-94.1188,32.5369,-104.2477,-8.7682,62.3533,2.923,91.9681,56.5082,76.9676,304.9484,-97.4276,-41.8939,
-0.97404,-43.842,-85.7363,47.5369,-94.505,-0.97404,60.4053,0.97404,106.9681,66.2513,87.6848,319.9484,-95.479,-35.0738,
-3.4101,-40.4324,-87.1978,43.3559,-93.0435,-15.1013,62.8413,3.4101,121.9681,70.6355,87.1978,334.9484,-103.7602,-21.9214,
-5.8456,-32.1512,-91.5819,40.9194,-102.2991,-13.6398,60.4048,5.8456,106.9681,56.5077,76.9681,349.9484,-111.0673,-28.2541,
-5.3591,-44.3299,-96.941,35.5608,-104.7352,0.48702,51.1491,-0.48702,91.9681,48.2261,77.4547,341.4842,-99.8636,-36.5357,
-14.1268,-46.2775,-93.0435,42.3814,-104.7347,-1.4615,45.3044,1.4615,76.9681,47.2525,69.661,332.7155,-91.0949,-30.6892,
-0.48702,-46.278,-84.2748,37.5098,-108.6318,-16.4615,46.278,0.48702,65.7634,33.6127,56.0212,317.7155,-106.0949,-32.6387,
0.9745,-47.7395,-92.5564,22.5098,-109.1188,-19.4859,50.6626,-0.9745,50.7634,26.3051,64.3019,302.7155,-117.8875,-32.1512,
-1.9485,-39.9449,-107.5564,9.7436,-111.0673,-15.5879,35.6626,1.9485,65.7634,41.3051,79.3019,317.7155,-102.8875,-29.2281,
1.9485,-50.6626,-111.0673,5.8456,-115.9389,-29.2281,20.6626,-1.9485,80.7634,56.3051,91.5824,332.7155,-94.505,-30.2022,
-3.4101,-45.3039,-103.7602,18.9984,-100.9389,-23.8695,23.8695,3.4101,65.7634,41.3051,77.4556,330.7669,-103.7602,-26.7926,
-0.97404,-42.8679,-103.2736,10.7172,-100.3506,-38.8695,24.3565,0.97404,50.7634,26.3055,62.4556,315.7669,-102.2991,-37.0228,
-0.9745,-52.6111,-105.2217,0.9745,-115.3506,-53.8695,9.3565,2.9226,65.7634,41.3055,77.4556,330.7669,-103.2732,-37.0228,
-1.4611,-51.1496,-109.6063,9.2562,-123.2461,-51.1496,7.3071,1.4611,80.7634,56.3055,92.4556,330.7669,-113.5034,-34.5867,
13.5389,-36.1496,-94.6063,24.2562,-108.2461,-36.1496,22.3071,10.7172,65.7634,41.3055,77.4556,315.7669,-98.5034,-23.3825,
-1.4611,-45.3039,-109.6063,23.87,-93.2461,-21.921,36.5353,8.2817,50.7634,26.3055,62.4556,314.2041,-83.5034,-38.3825,
1.4615,-53.0981,-124.6063,8.87,-105.7092,-36.921,21.5353,19.9729,65.7634,41.3055,77.4556,329.2041,-98.5034,-33.6127,
2.4356,-48.2265,-126.1687,-2.4356,-100.8376,-50.1751,11.2047,4.9729,80.7634,56.3055,92.4556,344.2041,-108.6318,-21.921,
10.7172,-33.2265,-111.1687,12.5644,-85.8376,-35.1751,26.2047,0,65.7634,41.3055,77.4556,348.7913,-93.6318,-6.921,
24.844,-35.5603,-106.6828,8.2817,-70.8376,-20.1751,41.2047,1.4615,50.7634,35.5612,66.7379,363.7913,-78.6318,-21.921,
9.844,-38.9713,-121.6828,-3.8971,-77.9426,-14.6143,27.2796,3.8971,64.3023,46.765,81.7379,378.7913,-93.6318,-29.2286,
5.3586,-26.793,-125.1946,-5.3586,-91.0949,-10.2297,19.9729,7.3067,79.3023,54.0726,95.9665,393.7913,-101.8121,-14.2286,
17.0503,-32.6382,-127.1432,-12.1783,-85.2493,-8.2812,26.7926,8.2812,90.1209,68.6864,90.1209,402.8635,-88.1719,-14.1273,
12.1792,-38.4838,-129.0912,-3.4101,-70.2493,-12.1783,41.7926,3.4101,105.1209,72.5835,91.0949,402.8635,-89.1459,-24.8436,
4.3841,-40.4328,-120.323,11.2042,-66.7379,-18.9984,44.3299,-4.3841,104.7342,57.5835,94.018,387.8635,-93.0435,-32.6387,
-5.3586,-39.4579,-117.4,20.9469,-77.4547,-16.0749,40.4333,5.3586,90.1213,56.0216,88.1723,379.4814,-90.1204,-25.8181,
-1.4615,-53.0981,-127.1432,5.9469,-83.3007,-25.8181,43.3554,1.4615,75.1213,54.0726,79.4041,369.7383,-97.9146,-33.6122,
12.1787,-51.1496,-112.1432,-3.4096,-70.635,-26.7921,58.3554,3.4096,90.1213,65.7639,92.0694,372.6613,-95.966,-31.6642,
2.4356,-49.2006,-106.6832,-2.4356,-69.6605,-26.7921,57.9697,5.3586,92.0694,73.558,87.1983,373.6353,-88.1719,-29.7151,
3.8966,-54.5596,-117.8875,2.9226,-80.8652,-27.28,42.9697,-2.9226,77.0694,61.3788,74.0451,378.0194,-87.6853,-37.0223,
-1.9485,-55.5341,-116.9134,12.6648,-84.7627,-13.6407,32.1512,1.9485,88.6584,60.4048,73.0701,393.0194,-102.2996,-37.9973,
-4.3846,-58.9437,-108.6318,10.2297,-80.3777,-5.3586,35.5612,4.3846,88.1723,61.8668,62.8408,382.4035,-105.7092,-38.4843,
1.4615,-60.8923,-105.7092,12.1787,-74.5321,-1.4615,50.5612,-3.4096,73.1723,60.8918,56.0207,367.7892,-90.7092,-33.6122,
-3.4096,-51.1496,-110.5803,19.9729,-73.5576,1.4615,62.8408,-1.4615,81.3522,65.7639,54.0726,368.7642,-94.992,-36.5353,
0,-51.6371,-116.9134,24.3565,-70.148,-0.97404,48.714,0,89.6329,61.3793,49.688,366.3277,-105.2222,-41.8939,
-15,-56.5077,-124.7071,26.306,-75.9936,8.7687,39.9453,-8.7687,82.8133,46.7655,37.0223,370.2253,-110.0933,-40.9194,
-19.485,-50.6626,-122.7586,20.4599,-83.7878,12.6658,38.9713,-12.6658,75.9941,41.8943,26.306,377.0454,-119.836,-54.5596,
-5.3586,-51.1496,-124.2201,16.0758,-76.4806,5.3586,39.4583,-7.3067,74.5321,45.3035,21.921,369.7383,-113.5034,-68.6864,
-11.6913,-44.816,-125.6812,20.4604,-73.0706,3.8971,41.8939,-3.8971,71.1225,47.74,16.5633,357.5595,-107.1703,-54.5592,
-3.4096,-40.4324,-112.5289,22.8959,-72.5835,3.4096,43.3554,-11.2038,79.4032,56.0207,22.8959,370.7123,-112.5289,-44.3294,
-8.7682,-44.8169,-109.1188,21.4344,-74.0451,8.7682,37.9968,-9.7422,86.7108,62.3543,29.2286,383.8651,-122.7586,-48.714,
-17.5369,-40.9194,-118.862,19.4859,-75.0196,13.6398,31.1771,-12.6658,71.7108,47.3543,14.2286,368.8651,-129.5787,-63.3278,
-5.8456,-28.2532,-107.1703,26.306,-66.25,17.5378,40.9203,-10.7167,56.7108,32.3543,5.8456,353.8651,-123.7326,-65.2759,
-5.3581,-18.9984,-103.7607,18.9984,-64.7894,15.1013,43.3549,-1.4611,49.201,46.278,1.4611,338.8651,-124.2201,-59.9182,
9.6419,-16.0754,-106.6832,8.2812,-57.9692,30.1013,43.3559,-8.2812,34.201,40.4328,-11.2042,323.8651,-122.2716,-64.7894,
14.1273,-14.1273,-116.4264,14.1273,-55.0471,45.1013,39.4579,-21.9214,19.201,26.7926,-14.1273,326.8699,-125.1946,-76.4811,
-0.48702,-2.4351,-131.4264,10.2302,-66.7374,43.3559,24.4579,-16.0754,34.201,27.7675,0.48702,329.7929,-138.834,-74.5321,
1.9485,-1.9485,-125.6816,2.9226,-75.0196,41.8943,11.6917,-16.5628,49.201,22.408,-6.8197,314.7929,-147.1156,-71.122,
12.6658,13.0515,-110.6816,17.9226,-60.0196,56.8943,26.6917,-18.5109,34.201,17.5369,-15.5888,320.5372,-135.4244,-61.3798,
21.434,24.357,-95.6816,32.9226,-45.0196,71.8943,40.9194,-23.383,19.201,9.7427,-9.7427,335.5372,-132.5018,-71.122,
6.434,9.357,-110.6816,38.9713,-60.0196,65.2768,25.9194,-37.0223,4.201,1.9485,-10.7167,343.9197,-147.5018,-86.122,
-2.4356,18.9989,-118.3745,28.7411,-70.635,72.584,10.9194,-33.6122,2.4356,12.1787,-16.0749,332.7155,-162.5018,-93.0435,
12.5644,21.4349,-107.1703,27.28,-55.635,81.8392,25.9194,-31.1762,-12.5644,13.6398,-15.5879,337.1005,-151.9867,-88.6584,
-1.9485,6.4349,-116.9134,13.6398,-58.4567,66.8392,38.9713,-37.0223,2.4356,11.6908,-4.8716,342.9457,-141.2704,-94.5045,
-0.48702,-3.4101,-131.0403,0.48702,-66.7374,51.8392,30.6896,-28.7406,17.4356,16.0754,1.462,332.716,-134.9373,-94.0175,
3.4101,-11.2042,-132.9888,3.4101,-73.5576,36.8392,31.6646,-26.7926,11.2042,10.2302,-3.4101,317.716,-135.9114,-90.1204,
-5.3586,-6.3326,-123.2461,18.4101,-74.5321,36.5353,26.7921,-30.6901,21.921,15.1009,5.3586,329.7924,-141.7575,-84.2752,
-4.8716,-18.5109,-126.6561,13.6398,-85.7363,21.5353,11.7921,-36.0483,36.921,15.5879,16.5628,344.7924,-151.0132,-92.5564,
-0.9745,-19.485,-119.836,19.4859,-84.7618,6.5353,18.5118,-21.0483,51.921,28.2541,31.5628,347.8168,-136.0132,-77.9421,
9.2557,-9.2557,-108.6318,23.87,-77.4551,-8.4647,29.7151,-21.921,66.7379,38.4843,46.5628,340.5097,-121.0132,-72.5835,
14.6143,-14.6143,-103.2732,18.5114,-70.148,-15.5883,32.1516,-28.2536,78.9166,42.8679,53.5851,348.7913,-117.8875,-78.9162,
8.2812,-22.8955,-110.5808,13.1523,-74.5325,-13.1532,37.5098,-13.2536,68.6864,41.4069,46.278,357.0725,-124.2206,-69.661,
10.7172,-21.4335,-113.9904,11.6913,-78.9162,-17.5364,40.9198,-10.7172,53.6864,38.9708,40.9198,363.4056,-109.2206,-56.5082,
2.923,-11.6913,-111.0673,24.3575,-73.0706,-2.923,39.9458,-12.6653,40.9198,44.8169,46.765,378.4056,-97.4276,-47.739,
0.48748,-23.87,-123.2461,15.1018,-86.2233,-0.48748,24.9458,-9.2557,42.3814,33.6122,47.2525,367.7892,-112.4276,-62.739,
0.48748,-30.6901,-119.349,12.1787,-98.8891,-0.48748,10.2297,-15.1018,27.7671,30.6892,39.4583,356.098,-127.4276,-65.7639,
-2.923,-15.6901,-104.349,27.1787,-98.4021,2.923,21.4335,-21.4344,30.2026,36.0478,24.4583,368.2767,-136.3989,-52.6111,
7.3071,-20.9474,-101.8121,35.5608,-100.8376,-7.3071,20.9465,-28.7416,45.2026,29.7156,22.8955,364.8667,-138.8344,-67.6111,
-1.4615,-22.8959,-102.7862,49.2006,-98.8891,1.4615,16.0758,-28.7411,56.9947,34.5872,36.5353,375.5834,-131.0403,-76.4811,
-4.8716,-14.6138,-101.3246,52.6106,-98.4021,4.8716,9.7427,-27.28,41.9947,33.1252,29.2281,381.9165,-134.4503,-67.2249,
10.1284,-18.9984,-103.7607,37.6106,-94.018,-10.1284,22.8955,-17.0503,26.9947,35.5608,27.7666,369.7378,-132.9893,-60.8923,
12.1787,-18.0239,-113.5034,22.6106,-90.1204,-22.8959,35.5612,-9.2557,31.6642,44.3294,35.5612,359.021,-117.9893,-53.0976,
16.5628,-18.5109,-123.7331,12.6658,-84.7618,-18.5109,31.1771,-12.6658,27.28,53.5856,40.9194,365.3541,-102.9893,-51.6366,
6.8197,-23.382,-128.6042,11.6917,-85.7363,-16.5628,24.357,-6.8197,37.9973,65.2768,44.8165,380.3541,-109.1188,-53.5847,
16.5624,-8.7682,-117.8875,-0.97404,-87.6848,-28.2546,32.1507,0.97404,52.9973,66.2504,50.6621,378.9939,-117.8875,-47.74,
27.7675,-0.48702,-107.6573,0.48702,-80.3777,-28.7406,43.3559,-2.4351,51.15,55.0471,62.8413,364.8667,-103.7602,-38.4838,
12.7675,-10.7172,-113.9904,4.8711,-76.9676,-26.3055,37.0228,-4.8711,50.6621,53.5851,66.2514,369.2508,-93.5305,-41.8939,
23.8695,-12.1783,-106.6832,2.436,-75.5066,-29.7156,31.6637,-2.436,65.6621,62.8404,70.6355,376.5579,-91.0949,-50.1755,
20.4595,-3.8971,-107.1703,0.97404,-70.148,-27.2796,29.2286,-0.97404,53.5851,61.3793,69.1735,373.1479,-90.6079,-45.791,
5.4595,-1.9485,-113.0164,1.9485,-66.2514,-25.332,27.2791,-6.8206,38.5851,54.5587,54.1735,369.2503,-93.5309,-37.9973,
12.6658,-7.7946,-99.3766,4.8716,-61.3798,-25.331,28.2541,-4.8716,53.5847,59.4308,54.5596,377.0454,-87.6848,-38.9713,
-2.3342,-13.1532,-108.6323,4.3841,-76.3798,-28.7416,17.0494,3.4101,68.5847,59.9173,61.8663,369.7378,-96.941,-46.278,
-3.8971,-14.6143,-113.0164,9.7422,-75.0196,-37.0228,14.6143,3.8971,56.5082,58.4563,66.2504,355.6105,-101.3251,-43.8429,
0.97404,-14.6143,-98.0164,24.7422,-61.3793,-36.0478,25.3315,-0.97404,54.5592,53.5851,63.3283,360.4826,-93.5305,-42.8679,
-0.48702,-5.3581,-83.0164,34.5867,-70.635,-29.7156,27.7666,0.48702,62.8404,54.0722,53.0981,364.8667,-95.9665,-45.3039,
3.4101,-11.2042,-90.1209,21.9205,-85.635,-39.4588,18.9984,-3.4101,59.9173,61.8663,44.329,349.8667,-98.8895,-49.2015,
-1.9485,-15.5879,-91.5819,12.6658,-88.6589,-42.8675,15.5888,1.9485,59.4308,52.6116,45.7914,334.8667,-92.556,-54.5592,
-0.48702,-22.8955,-89.1464,4.3841,-94.018,-39.4588,8.2812,0.48702,50.1751,37.6116,42.3809,336.6121,-94.9925,-57.9697,
-1.4615,-16.0758,-83.3007,11.2038,-89.1464,-39.4583,20.9469,1.4615,62.8408,52.6116,45.3035,347.3298,-88.1723,-42.9697,
-2.9226,-1.9485,-77.9421,25.331,-78.9166,-39.9453,30.2022,1.9485,67.2249,67.6116,49.6885,340.0226,-83.7878,-27.9697,
6.3326,-16.9485,-79.4037,25.8181,-86.2238,-37.5102,19.972,-6.3326,53.0976,54.0717,46.2775,328.8184,-91.0954,-42.9697,
-3.4101,-18.0244,-81.3522,31.6637,-96.9405,-33.6127,18.0244,3.4101,68.0976,54.0722,52.1241,334.664,-93.0435,-36.5357,
-4.3841,-11.2042,-78.4296,31.6637,-95.9665,-39.4588,17.0494,4.3841,74.5316,55.0462,52.1231,331.741,-90.1209,-37.5098,
3.8971,-21.4344,-70.148,30.2026,-87.6848,-27.2796,18.5114,-3.8971,59.5316,54.5592,47.74,342.9452,-84.7618,-40.9198,
4.3846,-26.793,-75.5066,17.0499,-87.1978,-23.87,21.921,-4.3846,49.2006,54.0726,44.3294,342.4587,-85.2493,-36.5353,
6.3326,-27.7671,-85.2493,4.3846,-86.2238,-38.87,17.0499,-4.3846,56.0207,50.1755,44.3294,327.4587,-82.3262,-41.4064,
-1.9485,-20.4599,-79.8907,14.6148,-81.8392,-26.3051,14.6148,1.9485,65.2768,52.6116,51.6366,312.4587,-75.9931,-42.8679,
0.9745,-20.4599,-78.9166,9.7427,-89.6339,-24.357,8.7687,-0.9745,59.4308,47.7395,46.7655,306.897,-85.7368,-45.7914,
4.8716,-28.2541,-75.0191,15.5888,-90.6079,-29.2281,13.6398,-4.8716,49.6885,43.8424,40.9194,296.1807,-99.3761,-43.8424,
1.9485,-23.383,-74.0455,30.5888,-90.6084,-14.6148,17.5369,-1.9485,55.5337,42.8675,35.0733,292.2827,-93.5309,-36.0483,
7.7942,-22.4085,-74.0451,29.2286,-87.6848,-9.7432,10.7172,-7.7942,52.6111,37.0228,36.0478,290.3341,-79.8907,-45.791,
2.4356,-24.844,-66.7379,28.7411,-72.6848,-2.4356,24.844,-5.3586,48.2265,42.3814,51.0478,297.6417,-70.635,-43.3554,
1.9485,-33.1261,-73.071,13.7411,-67.2254,-5.8456,37.0223,-1.9485,51.6366,42.8675,48.7135,294.2317,-81.8397,-47.7395,
5.3581,-34.5867,-77.4551,3.4101,-68.6869,-8.2812,33.6127,-3.4101,49.201,41.4069,34.5867,292.7702,-89.1464,-44.3299,
-2.436,-19.5867,-74.5325,18.4101,-63.8153,0.48702,28.7406,-0.48702,38.4838,44.329,45.3039,300.5643,-74.5325,-29.3299,
-0.48748,-28.7411,-88.1719,17.0499,-75.5066,0.48748,13.7406,-5.3586,35.5612,29.329,43.3554,286.9245,-78.4292,-44.3299,
-5.3586,-37.5093,-89.1464,5.3586,-81.3522,11.2047,9.2557,-7.3067,48.2265,29.7151,34.5872,289.8476,-92.069,-55.0467,
-11.6913,-25.3315,-75.0196,11.6913,-75.0196,13.6393,17.5364,-12.6662,42.8679,40.9198,30.2026,304.8476,-97.428,-53.5851,
-5.3586,-25.8181,-73.558,16.0758,-72.584,5.3586,14.1268,-15.1018,42.3814,34.5863,32.6382,319.8476,-99.8636,-51.1496,
-6.8197,-23.382,-80.8647,16.5628,-75.9936,8.7687,6.8197,-6.8197,55.5337,40.9194,32.1512,324.4343,-99.3761,-43.8424,
-0.48702,-25.8185,-78.4292,9.2562,-75.5066,0.48702,6.3331,-16.0754,41.4069,39.4579,30.6896,310.3075,-91.0949,-51.1491,
0.48702,-25.8185,-66.7384,13.1523,-65.7639,-0.48702,21.3331,-12.1783,48.2261,39.4579,42.3809,315.1786,-78.4296,-43.3559,
-1.4615,-16.0758,-65.7639,18.9979,-59.9182,0.48748,25.8181,-0.48748,59.9178,49.2006,42.3814,318.1012,-84.2748,-33.6122,
2.4356,-15.1018,-72.584,20.9469,-59.9178,-3.4105,17.0499,-2.4356,44.9178,52.1236,35.5612,305.4359,-89.1464,-39.4583,
-6.8201,-15.5883,-75.9936,26.3055,-65.2764,-3.8971,11.6913,3.8971,42.8679,44.8169,37.9968,300.0773,-89.6334,-40.9198,
1.4611,-18.0244,-67.7124,22.8955,-68.6864,-6.3331,9.2552,-1.4611,56.9952,37.5098,42.3809,292.7702,-87.1978,-39.4579,
1.4611,-18.0244,-60.8923,23.8695,-67.7124,-1.4611,9.2552,-7.3071,49.201,42.3809,39.4579,289.8471,-84.2748,-38.4838,
2.4356,-14.1268,-71.609,27.7671,-70.635,-8.2807,3.4105,-2.4356,34.201,47.2525,25.819,285.9505,-90.1204,-47.2525,
8.7682,-21.4344,-72.0965,24.3565,-67.2254,-13.6403,4.8711,-4.8711,20.4595,44.8169,31.1767,279.6169,-88.6593,-51.6371,
-4.8711,-24.3565,-65.2764,22.4085,-69.1735,1.3597,5.8461,-2.923,29.2286,35.0738,35.0738,282.54,-85.7363,-39.9449,
0.97404,-19.4854,-62.3533,30.2026,-74.0451,-0.97404,5.8461,-10.7172,14.2286,25.3315,20.0738,267.54,-100.7363,-48.714,
9.7432,-11.6913,-51.6361,45.2026,-61.3793,-8.7682,20.8461,-12.6653,11.6913,37.9968,8.7682,258.1834,-106.1962,-50.6621,
6.3326,-9.2557,-51.1496,36.5353,-51.1496,-6.3326,26.7921,-9.2557,22.895,39.4583,17.0499,272.3102,-91.1962,-38.4843,
10.7172,-18.5114,-61.3798,21.5353,-54.5592,-8.7682,11.7921,-7.7942,26.3055,36.0478,28.2536,283.514,-76.9681,-38.9708,
1.9485,-16.5628,-70.1475,8.7687,-64.3019,-17.5369,7.7946,-1.9485,35.0742,46.7655,36.0483,277.6693,-81.8388,-41.8934,
7.7937,-12.6658,-71.1225,2.9226,-58.4567,-26.306,12.6658,-2.9226,38.9713,52.6106,33.1252,268.9002,-88.6593,-36.0483,
10.2297,-21.921,-69.661,5.3586,-48.2265,-27.7671,10.2297,-5.3586,31.6642,48.2265,23.87,271.3362,-75.5066,-37.5093,
4.8716,-12.6658,-58.4567,20.3586,-37.9973,-14.6138,25.2297,-4.8716,26.3051,41.8934,26.3051,264.029,-69.1739,-46.7655,
10.2297,-10.2297,-50.1755,18.9979,-38.4843,-10.2297,39.4583,-14.1268,18.0239,29.7151,33.6122,249.029,-84.1739,-51.1496,
6.3326,-8.2817,-51.1496,20.9469,-38.4843,-11.2038,39.4583,-6.3326,28.7411,36.5353,37.5093,257.6959,-77.4551,-37.5093,
7.3067,-13.1528,-61.8668,5.9469,-50.1755,-26.2038,24.4583,-5.3586,43.7411,46.2775,29.7151,270.3612,-76.4811,-42.3814,
13.1528,-13.1528,-61.8668,0.48748,-51.1496,-12.1787,12.1787,-0.48748,58.7411,52.1236,39.4583,276.2073,-79.4037,-36.5353,
0.48702,-10.2293,-74.5321,8.2812,-51.1491,-0.48702,11.2042,-1.4611,43.7411,39.4588,27.7675,267.4396,-81.3517,-33.6127,
9.2557,-18.9979,-76.4806,15.1018,-46.2775,-15.487,10.2297,-9.2557,28.7411,33.6132,17.0499,256.7219,-82.3262,-45.3035,
7.7942,-22.4085,-67.2249,19.4854,-44.816,-30.2026,16.5633,-7.7942,26.3055,44.8169,30.2026,266.9526,-91.5815,-40.9189,
-1.9485,-22.408,-82.2249,5.8456,-59.816,-15.2026,1.9485,-18.5109,18.5118,33.1252,19.4859,261.106,-106.5815,-48.7135,
5.8456,-17.5369,-82.8137,11.6908,-65.2768,-0.20263,-5.8456,-12.6658,33.5118,37.9963,23.382,261.106,-91.5815,-44.8174,
2.436,-10.2302,-74.5321,26.6908,-55.0467,-2.436,-2.436,2.3342,48.5118,52.9963,38.382,276.106,-76.5815,-32.6387,
3.8971,-17.5373,-79.8911,20.4595,-64.3028,5.8452,-4.8721,-3.8971,34.0997,52.6111,29.2277,281.5659,-90.6079,-43.8429,
-0.97404,-26.3055,-85.7363,6.8201,-67.2254,10.7172,0.97404,-18.8971,19.0997,37.6111,19.4854,268.9006,-100.3506,-50.6621,
10.7167,-16.5628,-77.9421,2.9226,-57.4827,-2.9226,10.7167,-8.7687,32.1512,44.8165,34.4854,263.055,-85.3506,-37.0223,
12.1787,-15.1018,-77.4551,1.4615,-60.8923,-15.1018,4.3846,-1.4615,39.4583,51.1496,46.2784,254.7738,-72.5835,-36.5353,
8.7687,-8.7687,-78.9162,2.9235,-59.4308,-15.5879,1.9485,-1.9485,54.4583,66.1496,61.2784,256.2349,-69.1735,-37.0223,
23.7687,-9.2557,-78.4292,-5.3586,-55.0462,-18.0239,6.3326,5.3586,69.4583,75.507,72.584,254.7738,-60.8918,-32.6382,
16.5628,-10.7167,-81.8392,-2.9226,-65.2764,-21.434,2.9226,10.7177,71.122,73.071,57.584,256.2349,-62.3533,-35.0738,
5.8456,-5.8456,-77.9421,10.7167,-68.1994,-21.434,-5.8456,7.7946,66.2509,73.071,44.8165,267.9261,-74.0451,-31.1771,
20.4599,-13.6398,-73.0706,3.8975,-62.3538,-14.6138,-3.8975,3.8975,77.9421,72.096,45.7914,279.6174,-71.122,-31.1771,
15.5883,-10.7172,-76.9681,-6.8201,-57.4822,-8.7682,10.7172,6.8201,75.9936,74.0446,40.9198,279.6178,-62.3538,-33.1257,
16.5628,-11.6917,-82.8137,-4.8716,-55.5341,-15.5888,9.7427,4.8716,70.148,75.0191,37.9963,268.9002,-64.3023,-34.1002,
3.4101,-18.0244,-89.1464,1.4611,-60.8923,-12.1783,-1.4611,5.3581,64.7894,67.7124,35.5608,268.4136,-79.3023,-36.5357,
-5.3586,-17.0499,-84.2748,10.2297,-61.8663,-2.4356,2.4356,2.4356,49.7894,52.7124,25.819,260.619,-88.1719,-41.4064,
6.3331,-17.0494,-73.558,19.9724,-57.9692,-6.3331,6.3331,-9.2552,34.7894,44.3299,20.9474,245.619,-80.3777,-52.1241,
4.3846,-7.3067,-69.661,29.7151,-56.0212,-5.3586,2.4356,-2.4356,28.7411,45.3035,17.0499,239.1846,-80.3777,-55.0467,
7.7946,-6.8197,-65.2764,22.4089,-53.5847,-9.7427,5.8456,-5.8456,27.2801,36.0483,6.8197,226.0322,-92.556,-63.3278,
10.7167,-7.7937,-54.5596,26.306,-46.7655,-5.8456,20.4599,-10.7167,19.4859,37.0223,5.8456,213.367,-91.5819,-54.5596,
9.7427,-1.9485,-61.3793,27.28,-55.5337,-4.8716,15.5888,-3.8966,19.4859,39.9453,1.9485,215.315,-90.6079,-50.6626,
15.5883,-3.8971,-64.3023,19.4854,-58.4567,-4.8711,6.8201,-0.97404,20.4595,44.8169,0.97404,222.1347,-86.7108,-57.4827,
2.923,-4.8711,-66.2509,25.3315,-55.5337,0,6.8201,-0.97404,14.6143,48.714,0,216.2895,-89.6334,-51.6361,
11.2042,1.4611,-68.6869,31.6637,-57.9697,-5.3591,-1.462,-0.48702,12.1783,47.252,0.48702,206.0593,-92.0694,-55.0471,
16.5628,-1.9485,-68.1994,22.408,-55.5337,-20.3591,-4.8716,1.9485,23.383,45.7914,11.6917,210.4439,-87.6848,-58.4567,
3.4096,-6.3326,-73.558,7.408,-50.1755,-29.7161,1.4615,-1.4615,29.7151,42.3804,11.2038,211.905,-85.2493,-51.15,
9.7432,-10.7172,-72.0965,7.7942,-37.0228,-29.2286,8.7682,-4.8711,27.2796,43.8429,4.8711,208.4954,-82.8133,-48.714,
2.4356,-15.1009,-67.7119,22.7942,-30.6892,-22.895,7.3076,-2.4356,29.7161,49.2015,4.3846,210.9309,-82.3262,-56.0207,
3.4101,-14.1263,-64.7894,22.8955,-30.6896,-22.8955,3.4101,-3.4101,27.7675,49.201,4.3841,203.1372,-84.2748,-57.9692,
2.923,-11.6913,-62.3538,17.5373,-27.2796,-19.4854,4.8711,-2.923,32.1516,50.6621,10.7172,207.5213,-85.7363,-53.5851,
-3.4101,-9.2552,-57.9697,30.6897,-25.8185,-11.2042,6.3331,3.4101,46.278,57.9692,15.1013,222.5213,-88.1723,-51.1496,
10.7172,-18.5114,-53.5856,33.1257,-26.3055,-14.6143,0,0,49.688,54.5592,8.7682,223.1097,-80.8652,-54.5596,
8.2812,-8.2821,-49.2015,24.8436,-19.9734,-17.0503,3.4101,-3.4101,42.3809,52.1231,13.1523,208.9824,-65.8652,-44.3299,
4.8716,-0.9745,-54.5596,17.5369,-21.434,-26.306,0.9745,-0.9745,27.3809,49.6876,9.7427,200.7007,-67.2254,-41.8943,
10.2302,-10.2302,-52.1236,28.7416,-20.9465,-18.9984,-3.4101,9.2562,12.3809,54.0722,3.4101,210.9314,-75.5061,-43.3554,
1.4615,-8.2817,-43.3554,39.4583,-21.9219,-3.9984,-2.4356,6.3326,27.3809,43.3554,2.4356,210.9309,-81.3522,-49.2015,
5.8456,-7.7946,-37.0223,26.3051,-27.28,-5.8456,5.8456,-5.8456,30.2022,28.3554,5.8456,195.9309,-76.9681,-56.5077,
1.9485,-5.8456,-40.9194,27.28,-26.306,-3.8975,12.6658,-1.9485,15.2022,38.9713,4.8716,193.8806,-68.1994,-42.8684,
-2.436,-0.48702,-49.201,33.6127,-22.8955,0.48702,3.4101,3.4101,0.48702,44.3299,-6.3331,195.3421,-73.558,-36.5357,
-0.48702,-1.4611,-45.3039,35.5617,-29.7156,1.462,2.436,0.48702,15.487,33.6127,-6.3322,196.3171,-69.6605,-40.4319,
0.97404,0,-39.9449,36.0487,-36.0478,0,13.6403,0,30.487,35.0738,-0.97404,205.5723,-63.3278,-38.9708,
10.2302,-6.3331,-36.5357,30.6896,-27.7666,0.48702,8.2812,-7.3071,15.487,35.5608,-0.48702,200.2142,-72.5835,-48.227,
-3.4101,-0.48702,-23.8704,45.6896,-30.6896,9.2552,-2.436,1.4611,0.48702,41.4069,5.3581,205.0853,-73.558,-37.5098,
-6.8192,9.7432,-28.2536,60.6896,-45.6896,-3.8971,-9.7422,7.7942,15.487,39.9458,3.8971,205.5723,-69.1735,-30.2026,
8.1808,-3.4096,-43.2536,45.6896,-30.6896,-5.3586,1.4615,-1.4615,30.487,34.5872,7.3076,190.5723,-59.9178,-40.4324,
-1.9485,-12.6658,-58.2536,30.6896,-15.6896,1.9485,8.7677,-6.8206,22.408,34.0993,6.8197,177.3182,-66.2514,-48.7145,
3.4101,-3.4101,-56.0207,30.6896,-4.3841,-13.0515,7.3071,-4.3841,18.0244,35.5617,3.4101,176.8317,-69.6605,-42.3809,
2.923,-5.8461,-56.5082,29.2277,-18.5114,-28.0515,6.8201,0.97404,15.5883,32.1507,-0.97404,173.4207,-67.2254,-27.3809,
2.9221,-2.923,-56.5086,15.5883,-16.5633,-15.5893,15.5883,7.7942,0.58833,34.0988,0,160.7554,-64.3028,-24.3575,
7.7942,-4.8711,-56.5082,7.7942,-4.8711,-21.4344,15.5883,0,0,27.2796,2.923,148.0901,-66.2509,-39.3575,
-3.4096,-8.2807,-52.1236,11.2047,1.4615,-18.9979,18.9989,-1.4615,15,29.7161,8.2817,163.0901,-61.8663,-39.4583,
0,-14.6143,-44.8169,1.9481,-0.97497,-11.6912,24.3565,0,3.8971,27.2796,1.9481,168.5496,-61.3798,-38.9718,
1.4615,-15.1018,-44.3294,1.4615,6.3326,-15.1018,20.9469,-1.4615,-8.2817,23.87,2.4356,153.5496,-58.9437,-39.4583,
-1.9485,-13.6407,-59.3294,1.9485,2.9226,-20.4599,7.7937,-8.7687,6.7183,27.2791,3.8966,164.652,-56.5086,-38.9713,
13.0515,-9.7427,-60.4053,1.9485,-1.9485,-11.6917,13.6398,-3.8966,21.7183,37.0223,6.8197,179.652,-52.6111,-33.1252,
8.2812,-6.3331,-62.8408,-2.436,-2.436,-16.0754,19.9724,2.436,6.7183,32.6387,5.3581,166.1145,-64.7894,-37.5098,
13.1528,-10.2297,-56.9952,-5.3586,5.3586,-20.9469,19.9729,-6.3326,14.1268,30.6901,7.3067,154.4228,-65.7639,-41.4064,
5.3591,-18.0234,-47.252,6.3331,0.48702,-11.2042,25.8185,-17.0494,29.1268,26.7926,-0.48702,167.0885,-64.7894,-42.3809,
-1.949,-3.8971,-39.9458,21.3331,3.8971,0,35.0738,-8.7682,18.5114,21.4344,0,173.4216,-67.2254,-38.9708,
0,-10.7172,-53.5851,9.7422,0,-15,20.0738,-13.6403,15.5883,13.6403,0,158.4216,-75.0196,-50.6621,
-0.9745,-5.8456,-54.5596,0.9745,1.9485,-21.434,19.4859,-1.9485,30.5883,28.6403,0.9745,153.9357,-70.148,-41.8934,
2.4356,-2.4356,-51.1496,12.1787,9.2557,-18.9979,28.7411,-2.4356,15.5883,28.7411,-4.3836,143.7065,-69.6605,-39.4583,
1.9485,-8.7687,-46.7655,25.331,9.7427,-20.4599,25.331,-15.5888,4.8707,22.408,-1.9485,142.2445,-68.1999,-46.7655,
0.9745,-1.9485,-40.9194,22.408,4.8716,-14.6138,24.357,-8.7687,19.8707,25.331,-0.9745,145.1675,-73.071,-51.6366,
3.8971,-5.8452,-46.765,9.7432,11.6913,-13.6393,24.3575,-7.7942,29.2286,22.4085,-3.8971,130.5537,-77.9421,-58.4563,
-4.3846,0.48748,-43.3554,24.7432,14.1268,-3.4096,27.7671,-11.2038,18.0239,27.7671,-0.48748,145.5537,-73.558,-45.3035,
3.4101,11.2042,-34.5867,39.7432,-0.87319,-7.3071,16.0763,-14.1263,15.1013,24.8445,-12.1783,154.4232,-80.3777,-47.252,
0.9745,1.9485,-43.8424,35.0742,-0.9745,-18.5109,11.6917,-19.485,10.7177,13.6398,-24.357,139.4232,-91.5819,-62.252,
-5.8456,5.8456,-49.6885,25.331,14.0255,-17.5369,26.6917,-19.4859,19.4859,13.6398,-9.357,150.0386,-88.6593,-61.3798,
1.4615,-1.4615,-52.1236,11.2047,10.2307,-23.8691,15.1018,-24.844,15.1018,20.9469,-4.3836,161.2429,-87.1974,-66.7379,
-2.436,-0.48702,-50.1751,19.9724,15.1013,-11.2042,12.1783,-10.2302,23.8695,35.9469,0.48702,165.1395,-83.3007,-56.9952,
-6.8197,2.9226,-53.5856,14.6138,17.5369,-20.4599,16.5628,-18.5109,16.5628,26.3051,-2.9226,152.9617,-94.505,-52.6106,
-0.48702,0.48702,-54.0722,17.0503,11.2042,-30.6896,14.1273,-30.6896,10.2302,15.1013,-7.3071,152.4742,-102.7857,-59.9173,
-5.3586,5.3586,-56.9947,31.6642,18.0239,-19.9729,5.3586,-18.0239,24.844,18.0239,-5.3586,149.5516,-94.0175,-62.8408,
-0.97404,0.97404,-53.5851,19.4854,22.4085,-21.4344,0.97404,-14.6143,37.9968,20.4595,-7.7942,134.5516,-87.6848,-63.3283,
-1.4615,1.4615,-42.3814,8.2807,19.9729,-21.921,7.3067,-18.9989,34.5863,25.8181,-12.1787,127.1432,-91.0949,-56.9957,
-4.3846,4.3846,-44.3294,18.0239,19.9729,-14.1268,6.3326,-18.9989,19.5863,16.0758,-13.1528,134.9373,-103.7607,-66.7379,
-1.9485,1.9485,-51.6366,25.331,18.5118,-10.7167,1.9485,-15.5879,4.5863,13.6398,-7.7937,139.3214,-109.1188,-66.2509,
-1.9485,12.6658,-52.6106,29.2281,21.434,-1.9485,1.9485,-9.7427,16.5628,28.6398,-3.8966,151.9877,-94.5045,-51.2509,
-2.923,3.8971,-58.4563,30.2026,13.6403,2.923,-6.8201,-18.5114,28.2536,23.3825,-6.8201,144.193,-98.4021,-55.5341,
-12.6653,-0.97404,-51.6371,33.1257,18.5114,11.6913,-2.923,-13.6403,35.0738,13.6403,0.97404,133.4758,-109.1188,-62.3533,
-5.8456,8.7687,-51.6366,19.4859,27.28,2.9226,-2.9226,-8.7687,20.0738,19.4859,-10.7167,125.6821,-106.1962,-60.4048,
7.3071,10.2302,-54.0722,17.0503,25.8185,-3.4101,-2.436,-12.1783,5.0738,20.9474,-14.1273,125.1946,-96.9405,-64.7894,
-7.6929,-1.9481,-54.5592,29.2286,13.6403,8.7682,-0.97404,-21.4344,14.6143,10.7172,0.87272,120.8105,-108.1448,-66.2504,
-4.8716,-8.7687,-55.5337,29.2281,20.4599,13.6398,-1.9485,-21.434,4.8716,8.7687,1.9485,112.0419,-116.9134,-65.2768,
0,0.97404,-54.5601,30.2026,35.4599,23.3825,0,-12.6662,-6.8201,14.6143,-7.7942,127.0419,-109.1193,-59.4312,
-5.3581,13.1532,-47.252,37.5098,31.6637,37.5098,-1.4611,-4.3841,1.4611,21.9214,-13.1523,139.8089,-111.5548,-56.0212,
0.97404,0.97404,-47.74,37.0228,25.3306,26.3055,-8.7691,-14.6143,-0.97404,20.4595,-18.5114,124.8089,-122.7591,-62.3543,
-5.8461,6.8201,-51.6371,42.8679,31.1767,11.3055,-3.8971,-17.5373,3.8971,21.4335,-16.5633,112.0414,-121.785,-61.3793,
-5.8461,17.5364,-55.5341,39.9449,27.2796,17.5364,-3.8971,-16.5633,3.8971,15.5883,-18.5114,104.2472,-124.7076,-71.1225,
0.48748,17.0499,-54.0726,40.4324,33.6122,32.5364,-0.48748,-18.0239,-5.3586,14.1268,-22.8959,95.9665,-124.2201,-78.4292,
2.4356,18.9979,-59.9178,37.5093,37.5093,47.5364,-2.4356,-23.87,-18.9989,6.3326,-27.7671,80.9665,-127.1432,-84.2752,
14.6143,31.1767,-50.6621,43.842,37.9968,37.9968,-4.8711,-25.3315,-8.7682,4.8711,-12.7671,68.1994,-127.6302,-89.6339,
1.4615,28.7411,-55.0467,53.0986,31.6642,52.9968,-8.2807,-26.7921,-1.4615,5.3586,-5.3586,75.507,-130.0657,-95.966,
12.1787,16.0758,-62.8408,47.2525,37.5093,67.9968,-12.1787,-27.7671,-10.2297,10.2297,-20.3586,76.4811,-120.323,-89.1464,
26.7921,25.8181,-51.1496,51.1496,51.1496,82.9968,-9.2557,-18.0248,-10.2307,9.2557,-29.7161,61.8659,-114.4779,-74.1464,
22.895,40.8181,-43.3554,66.1496,54.0717,97.9968,-2.4356,-8.2817,-15.1018,2.4356,-18.9989,66.7379,-127.1436,-65.7639,
26.3051,48.7135,-45.7914,81.1496,50.6626,112.9968,0.9745,-15.5888,-30.1018,-0.9745,-23.383,73.071,-126.6561,-74.0451,
14.6143,37.9968,-52.6111,68.1994,48.714,106.1962,-3.8971,-21.4344,-35.0738,3.8971,-30.2026,61.3793,-116.913,-71.1225,
19.9729,46.2784,-57.9697,53.1994,50.1755,91.1962,-5.3586,-18.9979,-36.5353,5.3586,-15.2026,54.0726,-118.3745,-69.661,
26.7926,48.227,-67.7124,46.278,46.278,84.2748,-4.3841,-20.9474,-42.3809,4.3841,-11.2042,64.7894,-126.1687,-72.5835,
15.5888,43.8424,-72.096,48.7145,46.7655,99.2748,-5.8456,-23.382,-41.8934,5.8456,-20.4599,70.148,-123.7326,-70.148,
29.2281,42.8684,-57.096,52.6106,56.5077,111.0678,1.9485,-24.357,-28.2541,-1.9485,-10.7167,68.199,-108.7326,-73.071,
26.3055,45.791,-50.6621,56.5082,45.791,104.2481,2.923,-24.3565,-20.4595,-2.923,-3.8971,71.1225,-112.0419,-76.9676,
18.0244,47.252,-65.6621,42.3809,34.5867,89.2481,-5.3581,-25.8185,-26.7926,5.3581,-6.3331,60.8923,-119.349,-67.7124,
18.5109,32.252,-77.9421,27.3809,37.0223,74.2481,-1.9485,-34.1002,-38.9713,1.9485,-1.9485,48.7135,-115.9389,-65.2768,
3.8966,17.5369,-88.6594,12.3809,24.357,65.2768,-1.9485,-38.9713,-42.8684,1.9485,-8.7687,52.6106,-123.7331,-78.9162,
8.7682,24.3565,-87.6848,25.3315,19.4854,67.2254,-8.7682,-36.0487,-48.714,10.7172,-15.5883,56.5082,-120.8105,-76.9676,
7.7946,36.0483,-73.071,40.3315,30.2031,82.2254,-2.9226,-29.2281,-51.6366,2.9226,-6.8197,50.6626,-109.1188,-61.9676,
9.2557,35.5612,-61.8659,52.1245,34.5872,86.2233,6.3326,-28.7411,-52.1236,-7.3067,-6.3326,35.6626,-113.5029,-64.7889,
12.6653,26.3055,-66.2514,42.8679,23.3825,71.2233,0.97404,-36.0487,-62.3533,-0.97404,-21.3326,20.6626,-113.0164,-75.0196,
0.48702,31.6646,-70.6345,45.3039,20.9474,56.2233,-0.48702,-30.6897,-74.5316,6.3331,-33.6127,9.2562,-98.8891,-69.6605,
15.487,38.4838,-55.6345,58.9442,35.9474,52.1241,14.513,-18.0244,-74.5316,0.48702,-18.9984,-0.48702,-87.1978,-56.9952,
23.3825,37.9968,-43.8429,65.2764,46.765,67.1241,24.3565,-9.7432,-61.3793,2.923,-7.7942,-2.923,-86.7108,-46.765,
8.3825,27.7661,-58.8429,56.9947,34.5863,52.1241,9.3565,-14.1277,-55.0467,6.3326,-18.0248,-1.4615,-82.3267,-52.1245,
11.6917,23.383,-66.2509,58.4567,31.1771,37.1241,-5.6435,-16.5628,-48.7135,8.7687,-22.408,13.5385,-71.122,-57.4818,
2.4356,30.6901,-55.0467,62.8408,33.6132,38.4843,-2.4356,-14.1268,-61.8659,14.1277,-31.6642,15.1018,-74.5321,-46.2775,
10.2297,33.6122,-40.0467,69.661,37.5093,48.2265,8.2817,-8.2817,-70.6355,12.1787,-31.6642,0.10178,-70.6355,-40.4324,
8.7687,32.1512,-33.1252,81.8392,37.0223,50.6626,17.5369,-2.9226,-62.3538,2.9226,-27.2791,-14.8982,-58.4567,-47.7395,
4.3841,28.7406,-33.6127,80.3777,35.5608,46.278,20.9465,-4.3841,-71.6095,8.2812,-40.4328,-10.2302,-47.253,-44.3299,
12.6662,16.5633,-36.0478,65.3777,38.9708,37.9968,18.5114,-8.7682,-80.8647,6.8201,-41.8939,-6.8201,-45.791,-35.0738,
-2.3338,22.8955,-42.3809,66.7374,44.3299,45.3039,24.8436,-8.2812,-65.8647,2.436,-26.8939,8.1799,-46.278,-24.8445,
-6.3331,26.7926,-47.253,68.6864,39.4579,47.252,21.9214,-15.1013,-50.8647,6.3331,-15.1013,17.0494,-43.3559,-27.7666,
0.9745,13.6398,-44.8165,67.2249,28.2541,41.8943,13.6398,-11.6917,-65.8647,17.5369,-30.1013,2.0494,-41.8943,-30.2022,
0.9745,10.7167,-44.8165,66.2509,23.383,33.1252,6.8197,-0.9745,-75.0196,19.4859,-45.1013,-12.9506,-43.8424,-23.383,
11.6908,14.6138,-49.6885,53.5856,23.383,18.1252,6.8197,-6.8197,-73.071,10.7167,-60.1013,-27.9506,-41.8943,-22.408,
7.3071,18.0244,-47.253,52.1241,22.8955,30.6897,21.8197,-7.3071,-58.071,7.3071,-48.227,-41.4069,-29.7156,-18.9984,
2.923,10.7172,-42.8679,49.688,25.3315,42.8679,33.1257,-2.923,-50.6621,6.8201,-42.8679,-26.4069,-14.7156,-19.4854,
2.4356,7.3076,-45.3035,44.3294,24.844,27.8679,19.9729,-2.4356,-59.9178,11.2047,-50.1746,-20.9469,-17.0499,-16.0749,
3.8971,21.4335,-41.8939,59.3294,18.5105,20.4595,16.5624,-3.8971,-60.4057,17.5364,-54.5601,-35.9469,-29.2286,-10.7172,
18.5109,26.3051,-31.1771,74.3294,5.8456,23.383,10.7167,-5.8456,-71.1225,12.6658,-65.2768,-42.8684,-31.1771,-20.4599,
10.7172,20.4604,-25.3315,84.7618,-4.8711,33.1257,9.7432,4.8711,-64.3023,10.7172,-75.9936,-29.2286,-29.2286,-13.6393,
5.8456,13.6398,-34.0992,69.7618,-1.9485,30.2031,18.5118,2.9226,-49.3023,1.9485,-74.0451,-44.2286,-35.0742,-12.6658,
6.8197,16.5628,-42.8684,54.7618,13.0515,30.2031,26.306,-2.9226,-58.4567,2.9226,-62.3538,-43.8424,-20.0742,-17.5369,
-8.1803,9.2552,-50.1751,54.0722,10.2302,29.7156,19.9724,3.4101,-73.4567,17.9226,-70.635,-28.8424,-5.0742,-11.2042,
0,0,-51.6361,51.6371,3.8971,20.4604,17.5373,6.8201,-58.4567,22.4085,-76.9676,-13.8424,-10.7172,-6.8201,
-0.9745,9.7427,-48.7135,54.5596,8.7687,22.408,21.434,0.9745,-43.4567,15.5888,-71.1225,-18.5109,-14.6138,-10.7167,
-3.4096,23.87,-33.7135,69.5596,15.1018,37.408,27.7671,2.4356,-45.3035,18.0239,-63.8153,-9.2557,-2.4356,-5.3586,
3.4105,17.0499,-18.7135,84.5596,2.4356,52.408,21.9219,-2.4356,-42.3804,11.2047,-66.7379,-3.4096,-4.3836,-10.2297,
0.97404,11.6913,-14.6143,82.8137,3.8971,45.791,18.5114,-0.97404,-27.3804,11.6913,-62.3533,-4.8711,-3.8971,-12.6653,
0.48702,0.48702,-22.8955,67.8137,10.2302,32.6387,13.1532,-7.3071,-42.3804,7.3071,-69.6605,-19.8711,-0.48702,-14.1263,
0,9.7432,-18.5114,69.1735,17.5373,40.9198,26.3055,-0.97404,-57.3804,11.6913,-74.0451,-27.2796,0,-3.8971,
1.4615,11.2047,-20.9469,68.6869,12.1787,34.5872,28.7411,-1.4615,-68.686,4.3846,-84.2748,-27.7661,-6.3326,-14.1268,
10.2297,5.3586,-25.8181,64.7898,7.3076,34.5872,21.921,-4.3846,-71.609,0.48748,-95.966,-31.6642,-0.48748,-19.9729,
-1.9485,9.7427,-29.2291,60.4048,1.9485,48.7135,21.434,1.9485,-70.1484,9.7427,-94.505,-37.0232,-1.9485,-4.9729,
10.7167,11.6917,-28.2541,48.7135,-3.8966,39.9453,15.5888,1.9485,-70.148,11.6917,-85.7363,-50.6626,-11.6908,-1.9485,
10.7172,19.4863,-20.4595,61.3802,-3.8971,36.0487,7.7942,3.8971,-66.2504,14.6143,-85.7358,-44.816,-11.6913,-9.7422,
0,32.1507,-6.8201,76.3802,0,51.0487,12.6653,5.8452,-64.3023,20.4595,-96.4535,-37.0228,0,-3.8971,
2.4356,25.8181,-11.2038,73.558,-5.3586,48.2265,18.9989,-1.4615,-79.3023,10.2297,-107.6573,-49.2006,0.48748,-0.48748,
-7.3071,17.0503,-20.9465,62.8413,-0.48702,35.5608,27.7666,0.48702,-85.2493,4.3841,-109.6058,-48.227,-3.4101,5.3591,
0,9.7432,-19.4854,61.3793,6.8201,33.1257,31.1767,-5.8461,-86.7108,0,-113.0159,-57.4822,2.923,-0.97404,
0,9.7432,-18.5114,54.5592,0,41.8939,23.3825,-8.7682,-85.7363,1.949,-119.836,-71.1225,0.97404,-7.7942,
-6.8201,24.3575,-22.4085,58.4572,-2.923,43.8429,23.3825,2.923,-81.8392,12.6662,-122.7586,-59.4303,-3.8971,2.923,
0,25.3315,-23.3825,57.4831,0,30.2026,20.4604,-1.9481,-82.8133,6.8201,-125.6812,-49.688,-8.7682,1.949,
-3.8971,24.3565,-13.6403,64.3023,1.949,34.0997,27.2796,0,-80.8652,0.97404,-120.8105,-45.791,0,-0.97404,
7.3071,20.9474,-10.2293,60.8923,-2.4351,35.5617,23.8704,-0.48702,-95.8652,0.48702,-129.0912,-60.791,3.4101,-10.2293,
4.8711,24.3575,-10.7172,60.4053,-2.923,42.8679,19.4854,-2.923,-110.8652,5.8461,-138.3469,-61.3793,2.923,-2.923,
-10.1289,22.8955,-15.1013,63.8153,-7.3071,46.278,22.8955,-1.4611,-96.9405,3.4101,-134.9373,-52.1241,1.4611,4.3841,
4.8711,21.9205,-12.1792,58.9433,-4.385,32.6377,26.7926,-0.48702,-90.1209,0.48702,-129.0922,-63.8153,3.4101,-5.3591,
7.3071,26.7926,-10.2302,62.8413,-4.3841,42.3809,21.9214,-0.48702,-86.2233,-0.48702,-134.9373,-69.6605,0.48702,2.436,
2.923,24.3565,-7.7942,65.2764,-8.7682,57.3809,18.5114,0,-91.5819,0,-140.2959,-69.1739,-3.8971,8.7682,
8.2817,24.844,-8.2817,62.8408,-11.2038,55.0467,24.844,3.4096,-97.9146,4.3846,-139.8085,-61.8668,-3.4096,-5.3586,
2.9226,28.2541,-9.7427,64.3019,-13.6398,48.7135,26.3051,2.9226,-86.7108,1.9485,-138.3474,-49.6885,-1.9485,-8.7687,
16.5624,20.4595,-10.7172,62.3533,-18.5114,35.0738,18.5114,0.97404,-81.8392,-2.923,-137.3729,-63.3283,4.8711,-0.97404,
4.3841,12.1792,-18.0234,56.0212,-24.8436,21.9214,14.1273,0.48702,-96.8392,-0.48702,-148.5771,-78.3283,2.436,-0.48702,
4.8711,25.3315,-6.8201,69.1735,-18.5114,36.9214,26.3055,0,-101.3246,0,-147.1161,-76.9681,0.97404,-1.949,
9.7427,32.1512,1.9485,84.1735,-22.408,51.9214,30.2022,-4.8716,-93.5305,-5.8456,-141.27,-64.3019,0.9745,-0.9745,
5.3591,23.8695,-4.3841,83.3007,-26.7926,49.201,20.9474,-2.436,-101.8117,-1.4611,-144.68,-74.5321,3.4101,1.4611,
20.3591,22.895,-4.3846,68.686,-22.8959,34.5863,12.1778,-2.4356,-109.6063,2.4356,-146.629,-81.3522,-1.4615,1.4615,
5.3591,26.7926,-1.462,72.5835,-28.7416,39.4579,15.1013,-0.48702,-98.8891,0.48702,-153.4487,-74.5325,-14.1273,4.3841,
-0.48702,25.8185,-3.4101,78.4296,-28.7416,44.3299,23.8695,7.3071,-103.7607,0.48702,-158.3203,-76.4811,-15.1013,2.436,
14.513,22.408,-4.8716,74.0451,-22.4089,40.9194,23.382,7.7937,-118.7607,-1.9485,-153.9362,-78.9166,-12.6658,1.9485,
-0.48702,23.3825,-13.6393,70.1484,-31.1767,42.8688,13.6403,2.923,-125.6816,0.97404,-155.8843,-75.9936,-12.6653,2.923,
4.3841,26.7926,-16.0763,74.5316,-35.5617,50.1751,10.2293,3.4101,-116.4264,0.48702,-154.4232,-70.6355,-0.48702,-5.3591,
4.3841,28.7406,-4.385,89.5316,-26.7926,65.1751,19.9724,11.2042,-101.4264,-0.48702,-139.4232,-55.6355,0.48702,-3.4101,
3.4105,35.5612,4.3846,98.8895,-30.6892,58.9437,12.1787,1.4615,-108.6318,-1.4615,-135.9114,-56.0207,-14.513,-2.4356,
17.0494,50.5612,4.3841,89.1459,-34.5867,43.9437,-0.48702,0.48702,-106.6832,8.2812,-140.783,-62.8413,-12.1783,-0.48702,
2.0494,52.6116,-8.7687,81.8392,-31.1771,40.9194,-0.9745,12.6658,-91.6832,7.7946,-133.4758,-60.4048,2.8217,-0.9745,
12.1783,46.278,-10.2302,66.8392,-24.8445,33.6127,9.2552,5.3581,-88.1723,-4.3841,-127.1432,-75.4048,4.3841,-8.2812,
22.408,53.5847,1.9485,63.3278,-24.357,33.1252,24.2552,2.9226,-92.5564,-2.9235,-122.7591,-84.7623,-1.9485,-11.6917,
18.9989,54.0726,1.4615,78.3278,-24.844,42.3814,30.6901,4.3846,-77.5564,-7.3067,-118.3745,-79.4037,-1.4615,-16.0758,
26.3051,51.6366,-4.8716,92.5564,-16.5628,54.5596,27.2791,1.9485,-80.8652,-1.9485,-122.7591,-75.0191,3.8966,-3.8975,
11.3051,50.1755,-11.2047,79.4032,-28.7411,49.2006,13.1528,5.3586,-95.8652,-1.4615,-137.7591,-78.4296,-5.3586,1.4615,
26.3051,61.3793,0,71.1215,-27.2805,39.9449,12.6653,16.5624,-110.8652,-0.97497,-131.5277,-84.7623,0,-8.7691,
22.4085,51.6371,-5.8452,73.0706,-23.3825,38.9708,22.4085,11.6913,-119.836,-3.8971,-129.5787,-89.6334,3.8971,-14.6143,
10.7172,47.74,-14.6143,73.0706,-26.3055,50.6621,28.2536,10.7172,-134.836,-5.8461,-144.5787,-87.6848,0.97404,-0.97404,
20.9469,50.1755,-11.2047,63.8149,-33.6122,57.9697,18.9979,13.1528,-142.7315,-8.2817,-149.5516,-84.2752,-0.48748,0.48748,
6.3331,53.0981,-10.2302,67.7124,-27.7666,67.7124,20.9474,8.2812,-128.1172,-3.4101,-136.8859,-69.2752,0.48702,-0.48702,
17.0503,63.8153,-9.2552,68.6864,-15.1013,73.5576,28.7416,8.2812,-126.1687,-0.48702,-132.0143,-57.9692,-6.3331,0.48702,
16.0754,61.8663,-10.2302,67.7124,-20.9474,78.4296,20.9465,18.9984,-132.0148,-3.4101,-138.8344,-57.9692,-16.0754,3.4101,
8.7687,58.4567,-12.6658,66.2509,-35.9474,72.096,5.9465,14.6138,-128.6047,-4.8716,-143.2185,-57.4827,-13.6398,4.8716,
23.7687,61.3793,-10.7172,70.1475,-37.0228,57.096,3.8971,6.8201,-117.8879,-3.8971,-131.5277,-61.3793,-8.7691,6.8201,
17.0494,62.8404,-17.0503,68.6864,-31.6646,50.1751,3.4101,16.0754,-112.5293,-3.4101,-123.2461,-60.8923,-11.2042,9.2552,
26.7926,62.8404,-18.0244,53.6864,-25.8185,43.3549,3.4101,14.1273,-125.1946,-3.4101,-132.0148,-56.0212,-8.2812,3.4101,
19.9724,53.0981,-18.9984,38.6864,-24.8436,42.3809,15.1013,1.4611,-132.0143,-1.4611,-141.757,-56.9952,-12.1783,1.4611,
4.9724,50.6621,-22.4085,39.9449,-19.4854,50.6621,20.4595,5.8452,-134.4503,0,-140.2959,-71.1225,-23.3825,0,
19.9724,64.3023,-12.6653,43.842,-4.4854,49.688,17.5373,20.8452,-148.0901,0.97404,-138.3474,-77.9421,-8.3825,-0.97404,
20.4599,62.3538,-4.8716,52.6106,-1.9485,45.7914,13.6398,19.4859,-158.8069,-4.8716,-148.0901,-90.6074,1.9485,-9.7427,
18.5109,64.3019,0.9745,61.3788,-0.9745,52.6106,19.485,7.7937,-154.9102,-17.5369,-143.219,-105.6074,-10.7177,-12.6658,
23.8695,69.6605,-1.4611,60.8923,5.3581,63.8153,16.0754,1.4611,-145.6545,-25.8185,-132.9888,-109.6063,-21.9214,-3.4101,
11.2038,69.661,-5.3586,59.9178,12.1787,69.661,8.2817,4.3846,-135.9118,-24.844,-132.9888,-94.6063,-17.0499,-4.3846,
19.9729,62.8408,-5.3586,48.2265,18.0239,66.7379,7.3076,5.3586,-146.6286,-24.844,-143.7055,-88.1719,-15.1009,-17.0499,
10.7167,64.3019,-2.9226,39.9453,31.1762,78.9162,18.5109,2.9226,-161.6286,-19.4859,-151.0132,-92.5564,-16.5628,-3.8975,
11.6908,66.2509,0.9745,45.7905,36.0483,83.7873,12.6658,-4.8716,-176.6286,-26.306,-159.7818,-107.5564,-21.434,-0.9745,
15.5883,63.3283,8.7682,60.7905,31.1767,96.4531,4.8711,-4.8711,-191.6286,-40.9198,-158.8069,-122.5564,-24.3565,-14.6143,
0.97404,73.0706,21.4344,75.7905,31.1767,111.4531,11.6913,-0.97404,-176.6286,-40.9198,-151.0127,-117.8875,-19.4854,-10.7172,
6.3326,73.558,23.87,90.7905,30.6892,102.7857,6.3326,-6.3326,-173.9086,-45.3044,-160.2688,-116.4264,-18.0239,-18.9989,
1.4615,70.635,21.921,91.0944,32.6382,107.6577,5.3586,-1.4615,-168.063,-41.4073,-157.3458,-121.2975,-19.9729,-18.0248,
1.4611,73.5576,18.0244,79.4037,29.7156,101.8121,14.1273,-1.4611,-168.063,-44.3299,-154.4228,-134.9373,-30.6897,-15.1013,
8.7682,70.1475,23.3825,82.8137,27.2796,98.4021,19.4854,-8.7682,-166.6015,-45.791,-155.8843,-130.5532,-27.2796,-21.4344,
3.8971,73.0706,29.2277,97.8137,32.1507,113.4021,18.5105,-3.8971,-160.7559,-35.0747,-152.9617,-115.5532,-15.5883,-17.5373,
9.7427,75.0191,16.5628,95.4786,28.2541,123.7331,12.6658,-9.7427,-175.7559,-50.0747,-165.6274,-130.5532,-23.383,-25.331,
2.923,83.7878,22.4085,98.4021,36.0487,135.4248,27.6658,-2.923,-190.7559,-60.4053,-166.601,-140.2959,-15.5883,-15.5883,
1.9485,83.7882,25.332,98.4025,29.2291,137.3734,20.4599,-1.9485,-175.7559,-45.7905,-164.6525,-125.2959,-16.5619,-13.6398,
13.6398,81.8392,28.2541,93.5305,26.306,126.6561,5.8456,-5.8456,-160.7559,-43.8424,-151.0127,-110.2959,-23.382,-23.382,
1.9485,89.6334,42.8684,108.5305,41.306,141.6561,20.8456,-1.9485,-145.7559,-54.5596,-137.3729,-117.8875,-13.6398,-24.357,
11.2042,101.8121,51.1491,123.5305,50.1751,156.6561,35.8456,-11.2042,-140.783,-58.9442,-138.8344,-132.8875,-12.1783,-30.6897,
10.7172,112.0414,52.6111,138.5305,49.688,171.6561,46.765,-10.7172,-134.4503,-47.74,-137.3734,-117.8875,-18.5114,-24.3575,
3.8971,109.1183,48.714,151.9872,54.5592,175.3697,31.765,-3.8971,-140.2959,-55.5341,-139.3219,-102.8875,-18.5114,-17.5373,
11.2047,96.9405,39.4583,136.9872,51.1496,169.037,16.765,-10.2297,-153.4483,-62.8408,-149.5512,-116.426,-21.921,-17.0499,
3.8971,109.1193,40.9198,121.9872,43.8429,179.2677,21.4344,-10.7163,-140.2955,-47.8408,-143.2181,-111.0673,-24.3565,-3.8971,
11.2042,109.6063,40.4328,106.9872,37.5098,188.5229,18.0244,-14.1273,-132.9888,-52.1241,-137.8604,-99.8631,-28.7416,-11.2042,
6.8201,94.6063,42.8679,91.9872,45.791,192.907,9.7422,-6.8201,-130.5532,-60.4053,-137.3734,-92.5569,-32.1516,-23.3825,
5.3586,98.8895,52.1245,76.9872,46.2784,177.907,10.2307,-5.3586,-133.9628,-56.0207,-145.6541,-100.8376,-40.4324,-34.5863,
20.3586,110.0933,58.4563,82.8137,43.842,162.907,18.5114,-18.5114,-130.5532,-51.6371,-139.3219,-109.1193,-36.0487,-39.9458,
9.7432,103.2732,43.4563,73.0706,47.74,177.907,26.3055,-9.7432,-124.7076,-54.5592,-129.5787,-97.428,-34.0997,-31.1767,
4.8716,95.4785,28.4563,58.0706,37.9963,192.907,15.5879,-4.8716,-139.7076,-61.3798,-142.2445,-89.6334,-40.9194,-29.2281,
5.8461,108.1443,33.1257,73.0706,33.1257,207.907,14.6143,-5.8461,-133.4758,-52.6111,-141.27,-74.6334,-33.1257,-14.2281,
1.4615,114.4779,34.5872,88.0706,36.5353,222.907,12.1787,-4.3846,-118.4758,-48.2265,-134.9373,-59.6334,-42.3814,-1.4615,
16.4615,105.2213,29.2277,74.0446,43.842,237.907,6.8201,-6.8201,-121.785,-47.74,-131.5277,-70.1484,-47.74,-15.5883,
2.9226,104.2477,35.0742,74.0451,39.9453,252.907,7.7946,-2.9226,-111.0673,-43.8424,-126.6557,-63.3278,-33.1252,-7.7937,
5.3586,102.7857,34.5863,70.635,32.6382,267.907,2.4356,-2.4356,-99.8636,-49.2015,-122.272,-62.8408,-35.5612,-7.3076,
16.5628,95.4795,33.1252,64.3028,36.0483,282.907,1.9485,-1.9485,-103.2727,-39.9453,-123.7331,-67.2249,-41.8934,-11.6908,
6.3326,90.1204,28.7411,57.9697,35.5612,278.1563,4.3846,-4.3846,-114.4774,-35.5612,-132.9888,-66.7379,-34.5872,-8.2817,
11.6922,88.6598,33.1257,71.1225,37.0228,293.1563,0,0,-104.2472,-47.739,-117.9888,-51.7379,-30.2017,-6.8192,
0.48748,94.0175,36.5353,86.1225,35.5612,308.1563,-7.3067,9.2557,-89.2472,-36.5353,-102.9888,-36.7379,-38.4843,-0.48748,
9.2552,100.8372,37.5098,100.8372,31.6637,323.1563,-11.2042,4.3841,-78.4296,-27.7666,-94.992,-41.4069,-34.5867,-4.3841,
18.5114,93.5309,49.688,102.2991,40.9198,338.1563,-4.8711,3.8971,-71.1225,-39.9458,-89.6339,-56.4069,-19.5867,-3.8971,
3.5114,85.7363,47.7395,107.1698,39.9453,353.1563,-9.7427,4.8716,-57.4827,-36.0483,-82.8142,-41.4069,-33.1252,1.9485,
4.3841,85.2497,32.7395,99.8631,28.7416,368.1563,-24.7427,4.3841,-70.6345,-32.6377,-95.966,-26.4069,-48.1252,-4.3841,
0.9745,88.6593,33.1252,107.1707,33.1252,360.4821,-26.3051,6.8197,-71.122,-31.1771,-88.6593,-31.1771,-36.0483,-0.9745,
5.8456,87.6853,48.1252,116.913,41.8943,356.5859,-21.434,0.9745,-60.4048,-31.1762,-75.9931,-32.1512,-34.0993,-0.9745,
18.5114,82.8137,57.4822,116.9134,54.5592,354.6365,-6.434,0,-56.5082,-26.3055,-73.0706,-30.2026,-29.2286,0,
3.5114,72.0965,42.4822,101.9134,53.5851,346.8423,1.949,-6.8201,-66.2504,-26.3055,-71.1225,-45.2026,-21.4335,0.97404,
11.6908,65.2768,30.2022,86.9134,42.8684,331.8423,-2.9226,-4.8716,-69.1739,-19.4859,-65.2768,-57.4827,-14.6138,2.9226,
4.8716,57.4827,20.4599,71.9134,37.9973,316.8423,-1.9485,1.9485,-69.1739,-18.5109,-67.2249,-42.8684,-10.7167,-6.8197,
1.4615,56.9947,18.9979,68.686,52.9973,303.4869,1.4615,-1.4615,-74.5321,-30.6901,-66.7379,-44.3294,-8.2817,-14.1268,
12.1783,68.6864,31.6637,83.686,64.7894,318.4869,-5.3581,-3.4101,-59.5321,-27.7666,-61.8663,-46.278,-13.1523,0.87319,
-1.9485,79.8911,31.1771,98.686,49.7894,333.4869,-20.3581,4.8716,-44.5321,-24.357,-57.4818,-37.9963,-18.5109,1.9485,
13.0515,83.7882,33.1252,93.5305,36.0483,318.4869,-24.357,6.8197,-59.5321,-28.2541,-51.6366,-52.9963,-6.8197,-13.0515,
10.2302,78.4296,33.6127,96.941,51.0483,329.7929,-9.357,0.48702,-74.5321,-30.6896,-59.9182,-67.9963,-8.2812,-4.3841,
-2.923,76.9676,19.4854,82.8137,51.6371,334.177,-10.7172,4.8711,-76.9676,-37.0228,-66.2504,-78.9166,-23.2812,2.923,
10.2297,71.609,7.3067,67.8137,36.6371,319.177,-25.7172,9.2557,-79.4032,-32.6382,-56.0207,-68.6869,-18.0239,-7.3067,
-1.4611,68.6864,1.4611,52.8137,23.8695,304.177,-25.8185,2.436,-66.7384,-18.0244,-52.1241,-53.6869,-15.1013,3.4101,
-0.48702,70.6345,1.4611,56.9952,9.2552,300.5643,-32.6387,0.48702,-51.7384,-8.2812,-37.5098,-38.6869,-19.9734,18.4101,
-1.9485,64.3019,1.9485,54.5596,11.6908,285.5643,-45.7914,13.6398,-36.7384,-2.9235,-22.5098,-23.6869,-4.9734,17.5369,
-0.48702,59.9182,-0.48702,50.1751,18.9984,270.5643,-49.201,14.1273,-21.9214,-2.436,-16.0754,-13.1523,0.48702,4.3841,
2.4351,70.6345,4.3841,65.1751,3.9984,257.6964,-60.8923,-0.87272,-10.2302,-0.48702,-9.2562,-7.3071,-14.513,7.3071,
-12.5649,71.609,3.4096,79.4032,-9.2557,242.6964,-71.61,-11.2047,-2.4356,2.4356,2.4356,-4.3846,-17.0499,14.1268,
0.9745,59.4308,-1.9485,64.4032,5.7443,227.6964,-56.61,-11.6917,-12.6658,0.9745,-2.9226,-7.7946,-2.0499,2.9226,
1.4615,52.1245,-6.3326,49.4032,-7.3067,239.1855,-41.61,-3.4096,-20.9469,-4.3836,-1.4615,7.2054,2.4365,1.4615,
-12.1787,52.1236,-10.2307,34.4032,-13.1528,228.4673,-56.61,8.2807,-27.7671,-1.4615,1.4615,-1.4615,11.2038,9.2557,
-7.3076,37.1236,-14.1268,19.4032,1.8472,225.5452,-71.61,-4.3846,-26.793,-0.48748,1.4615,-16.4615,23.87,0.48748,
-22.3076,52.1236,-19.4854,17.5373,16.8472,240.5452,-56.61,0,-19.4854,-9.7422,11.6913,-31.4615,8.87,0,
-7.3076,67.1236,-11.6912,32.5373,1.8472,255.5452,-45.791,11.6913,-34.0997,-15.5883,14.6143,-35.0738,-5.8461,5.8461,
6.8197,82.1236,1.9485,23.383,10.7167,270.5452,-58.4567,-3.3087,-42.8684,-9.7427,-0.3857,-47.7395,9.1539,-1.9485,
-7.7942,97.1236,16.9485,31.1767,25.7167,285.5452,-43.4567,-10.7172,-27.8684,-4.8711,-8.7682,-32.7395,18.5114,4.8711,
0,112.1236,22.4085,37.9968,11.6913,300.5452,-28.4567,-3.8971,-37.0228,-15.5883,-5.8452,-17.7395,3.5114,9.7432,
-11.2042,127.1236,17.0503,29.7156,15.1013,315.5452,-43.4567,3.4101,-44.329,-13.1523,-13.1523,-14.1273,-3.4101,11.2042,
-15.1018,142.1236,15.1009,17.0499,10.2297,330.5452,-58.4567,-5.3586,-46.2784,-20.9469,-23.87,-27.7671,5.3586,6.3326,
-3.8971,157.1236,7.7942,24.3565,9.7422,345.5452,-73.4567,-6.8201,-47.74,-17.5373,-18.5114,-12.7671,3.8971,14.6143,
0,172.1236,-4.8711,23.3825,24.7422,360.5452,-63.3274,-2.923,-52.6111,-2.5373,-16.5624,-11.6913,0,18.5114,
10.2302,182.6768,0.48702,8.3825,39.7422,375.5452,-48.3274,-7.3071,-44.329,-0.48702,-18.0234,-26.6913,15,9.2562,
-2.4356,181.7023,10.2297,-0.48748,54.7422,390.5452,-40.4324,0.48748,-29.329,-10.2297,-10.2297,-20.9469,30,20.9469,
-12.1783,168.0625,3.4101,9.2562,39.7422,405.5452,-55.4324,-3.4101,-42.3809,-25.2297,-20.9465,-35.9469,15,14.1273,
-7.3071,171.9596,13.1532,24.2562,43.3559,420.5452,-70.4324,4.3841,-57.3809,-23.8695,-26.7926,-50.9469,0,8.2812,
-22.3071,171.4726,-1.8468,25.3315,58.3559,435.5452,-56.5082,10.7172,-44.8169,-17.5364,-29.2286,-54.5592,2.923,9.7432,
-14.1268,164.1659,-16.8468,10.3315,73.3559,450.5452,-41.5082,18.0239,-30.6901,-10.2297,-16.0758,-48.2265,17.923,18.0239,
-7.7942,158.8064,-14.6143,3.8971,76.9676,465.5452,-50.663,23.3825,-35.0747,-3.8971,-5.8461,-57.4822,30.2026,20.4595,
-3.4101,157.3453,-9.2552,3.4101,69.6605,480.5452,-35.663,18.9984,-45.3039,-3.4101,-13.1523,-70.635,15.2026,8.2812,
-2.923,151.0132,-3.8971,6.8201,68.1994,495.5452,-41.8939,23.3825,-49.688,-3.8971,-22.4085,-85.635,22.4085,2.923,
-17.923,147.6031,-8.2812,8.2812,80.3777,510.5452,-56.8939,29.7156,-45.3039,-11.2042,-24.8436,-84.2748,37.4085,11.2042,
-2.923,151.0127,-8.7687,1.9485,95.3777,525.5452,-41.8939,19.4859,-32.1512,-16.5628,-14.6138,-69.2748,38.9713,11.6917,
-16.0754,136.8859,6.2313,2.436,80.3777,540.5452,-56.8939,8.2812,-42.3809,-21.9214,-23.8695,-76.4806,23.9713,-2.436,
-26.306,140.2955,21.2313,17.436,65.3777,555.5452,-71.8939,20.4599,-57.3809,-27.28,-35.0742,-91.4806,8.9713,-5.8456,
-22.4085,143.219,6.2313,30.2026,80.3777,570.5452,-56.8939,25.3306,-70.1484,-37.9968,-29.2286,-102.2991,18.5114,0.97404,
-37.4085,131.5273,-8.7687,15.2026,95.3777,585.5452,-41.8939,18.5109,-69.1739,-40.9194,-38.9713,-88.6593,23.382,-2.9226,
-22.4085,142.244,0,30.2026,110.3777,600.5452,-26.8939,33.1247,-57.4822,-25.9194,-46.7659,-89.6339,29.2277,0,
-18.9979,132.9893,15,30.6901,95.3777,615.5452,-41.8939,19.9729,-67.7119,-36.5353,-59.9178,-98.8886,14.2277,-9.2557,
-33.9979,140.7834,1.4615,28.7411,102.7866,630.5452,-45.3035,17.0499,-65.7639,-34.5863,-45.3035,-83.8886,25.8181,-1.4615,
-27.28,148.0896,-1.9485,39.9453,117.7866,645.5452,-30.3035,20.4599,-61.3798,-24.357,-41.8943,-68.8886,40.8181,1.9485,
-35.5608,137.8599,13.0515,41.4069,102.7866,660.5452,-18.0244,13.1523,-72.5835,-27.7666,-56.8943,-76.4806,25.8181,-9.2552,
-20.5608,129.5783,28.0515,27.28,96.4535,675.5452,-33.0244,14.6138,-77.9421,-32.1512,-68.1999,-91.4806,10.8181,-6.8197,
-35.5608,117.887,13.0515,13.6398,111.4535,690.5452,-25.331,10.7167,-86.7103,-38.9713,-57.4827,-101.3251,25.8181,-2.9226,
-50.5608,124.7071,-1.9485,17.5369,126.4535,705.5452,-10.331,8.7687,-100.3506,-40.9194,-61.3798,-92.5564,33.1252,-5.8456,
-35.5608,124.2206,8.2812,16.0754,113.5034,720.5452,-2.436,8.2812,-90.1209,-39.4579,-62.8413,-94.992,18.1252,-12.1783,
-26.7926,114.4774,23.2812,14.1263,108.6313,735.5452,-17.436,8.2812,-75.1209,-36.5357,-57.9702,-94.018,12.1783,-8.2812,
-20.4595,123.7336,8.2812,26.3055,122.7586,750.5452,-15.5883,21.4344,-75.9936,-32.1507,-64.3023,-96.4535,27.1783,-5.8461,
-30.2022,122.7591,1.9485,23.383,130.5532,765.5452,-1.9485,17.5369,-90.9936,-39.9453,-75.9931,-111.4535,12.1783,-9.7427,
-30.2022,121.785,16.9485,21.434,137.3734,780.5452,-1.9485,5.8456,-105.9936,-42.8684,-62.3538,-111.0673,1.9485,-5.8456,
-15.2022,113.0168,20.4599,18.5118,134.4503,795.5452,-1.9485,1.9485,-112.0414,-49.6876,-62.3538,-118.8615,16.9485,-18.5109,
-30.2022,101.8121,9.2562,12.1783,120.3235,810.5452,13.0515,7.3071,-127.0414,-58.9433,-77.3538,-133.8615,1.9485,-25.8185,
-16.5628,116.8121,24.2562,27.1783,135.3235,825.5452,28.0515,9.7427,-112.0414,-43.9433,-63.3278,-118.8615,-13.0515,-10.8185,
-17.0499,118.374,33.6122,40.4324,150.3235,840.5452,13.0515,6.3326,-97.0414,-30.6901,-48.3278,-103.8615,1.9485,-6.3326,
-32.0499,113.0164,18.6122,43.842,151.9872,855.5452,-1.9485,21.3326,-82.0414,-32.1516,-40.9198,-88.8615,16.9485,-3.8971,
-24.8436,98.0164,5.3591,28.842,159.2943,840.5452,0.48702,14.1273,-97.0414,-44.329,-55.9198,-79.4037,1.9485,-15.1013,
-20.9474,100.8372,20.3591,16.0754,174.2943,837.3906,-3.4101,8.2812,-91.0954,-30.6896,-45.3039,-64.7894,3.4101,-8.2812,
-25.331,98.4016,5.3591,1.0754,179.2672,822.3906,3.8975,9.7427,-76.0954,-34.0992,-34.0992,-76.9681,15.5888,-3.8966,
-16.5628,92.5564,-0.9745,-8.7687,188.0354,807.3906,18.8975,18.5109,-88.6594,-41.8943,-31.1771,-83.7882,18.5109,0.9745,
-30.2026,90.607,9.7422,-6.8201,179.2668,792.3906,3.8975,7.7942,-91.5824,-40.9198,-35.0747,-68.7882,11.6913,-3.8971,
-18.5114,93.53,12.6653,0.97404,184.1379,777.3906,12.6653,-0.97404,-76.5824,-33.1257,-28.2546,-66.2513,16.5624,-8.7682,
-28.7416,82.3267,7.3071,4.3841,178.7798,762.3906,25.8185,-4.3841,-90.1209,-47.252,-42.3809,-81.2513,4.3841,-20.9465,
-28.7406,81.3527,13.1532,4.3841,166.1145,747.3906,10.8185,4.3841,-105.1209,-56.9952,-53.0981,-96.2513,-4.3841,-25.8176,
-14.6143,84.7618,21.4344,-2.923,166.6015,732.3906,10.7172,7.7942,-90.1209,-48.714,-38.0981,-84.7618,2.923,-12.6653,
-22.4085,88.6589,21.4335,-8.7691,166.6006,717.3906,25.7172,3.8971,-75.9936,-39.9458,-23.0981,-88.6598,7.7942,-3.8971,
-14.6138,92.5564,21.434,-5.8456,160.7559,702.3906,12.6658,5.8456,-90.9936,-43.8424,-36.0483,-103.6598,10.7167,-9.7427,
-27.2805,84.7618,21.4335,3.8971,148.0901,687.3906,7.7942,0,-105.9936,-46.7659,-44.8169,-106.1967,0,-15.5883,
-13.1528,91.0944,31.6642,14.1268,146.6286,672.3906,19.9729,-0.48748,-94.992,-40.4324,-29.8169,-100.8376,0.48748,-16.0758,
-6.3331,89.1459,29.7156,17.0494,134.9378,657.3906,4.9729,-0.48702,-102.7862,-48.227,-25.8185,-112.5289,6.3331,-20.9474,
-20.4595,87.6848,22.4085,14.6143,125.6816,642.3906,-3.8971,3.8971,-102.2991,-44.8169,-31.1767,-97.5289,10.7172,-10.7172,
-5.4595,75.9941,21.434,-0.3857,124.7071,627.3906,11.1029,1.9485,-94.505,-34.0993,-34.0993,-84.7623,3.8975,-10.7167,
-7.7937,74.0451,28.2541,-5.8456,123.7331,612.3906,16.5628,6.8206,-89.6334,-28.2541,-24.357,-80.8643,5.8456,-6.8197,
-15.1013,74.5325,27.7666,-2.436,118.3745,597.3906,10.2302,2.436,-100.8376,-35.5608,-17.0503,-75.5066,6.3331,-12.1783,
-0.10132,65.7634,27.7666,-10.2302,119.3485,582.3906,21.9214,-1.4611,-86.2238,-27.7666,-5.3581,-71.6095,8.2812,-10.2302,
-15.1013,66.7384,18.9984,-10.2302,112.5293,567.3906,17.0503,3.4101,-74.5316,-24.8436,-11.2042,-82.3262,9.2562,-3.4101,
-5.8461,78.9166,24.3565,-4.8711,109.1193,552.3906,9.7422,4.8711,-88.6594,-30.2026,-14.6143,-79.8907,13.6393,-5.8461,
-14.6143,71.1225,25.3315,-0.97404,103.2732,537.3906,19.4854,0.97404,-99.3766,-33.1257,-12.6653,-67.2254,4.8711,-12.6653,
-16.0754,68.6864,19.9724,-1.4611,99.8631,522.3906,20.9465,3.4101,-93.0435,-29.7156,-18.0244,-64.7894,1.4611,-10.2302,
-1.0754,66.2509,17.5369,-16.4611,101.3246,507.3906,12.6658,-0.9745,-91.5824,-33.1252,-20.4599,-72.097,8.7687,-5.8456,
-9.7427,59.4308,17.5369,-30.2022,106.1967,492.3906,20.4599,0.9745,-96.4531,-31.1762,-20.4599,-84.7618,10.7177,-0.9745,
1.4615,56.9947,9.2557,-30.6901,100.8376,477.3906,25.8181,-1.4615,-110.5803,-24.844,-32.6382,-99.7618,4.3846,-1.4615,
3.898,60.4053,4.8721,-24.3565,85.8376,462.3906,14.6143,0,-108.1443,-22.4075,-39.9449,-109.1183,0,-3.8971,
0,67.2254,10.7172,-25.3315,80.8647,447.3906,2.923,6.8201,-114.9649,-29.2286,-37.0228,-120.8105,0,-8.7682,
2.923,61.3793,17.5373,-22.4085,90.6079,432.3906,10.7172,-2.923,-129.9649,-43.842,-43.842,-135.8105,2.923,-17.5364,
-6.3326,57.9697,26.7921,-7.4085,94.9915,417.3906,25.7172,-0.48748,-144.9649,-36.5353,-48.2265,-138.8344,1.4615,-12.1787,
7.3067,60.8918,33.6122,2.4356,94.9915,402.3906,40.4324,-2.4356,-129.9649,-30.6901,-37.5093,-123.8344,-4.3846,-9.2557,
3.8966,62.3538,37.9963,-0.9745,91.5815,387.3906,25.4324,-3.8975,-114.9649,-31.1771,-25.331,-108.8344,0.9745,-4.8716,
-8.2817,60.8918,25.8181,-12.1787,78.4292,372.3906,13.1528,1.4615,-129.9649,-31.6642,-32.6382,-108.6323,4.3836,-1.4615,
0.48748,47.2525,10.8181,-27.1787,74.5321,357.3906,19.9729,-0.48748,-128.1177,-34.5872,-34.5872,-119.349,3.4096,-9.2557,
-3.4101,46.2789,16.0763,-25.8176,79.4037,342.3906,12.1792,3.4101,-118.3745,-30.6897,-20.9465,-117.4,3.4101,-5.3581,
7.3076,56.9957,22.8959,-18.9979,78.4292,327.3906,4.3846,-1.4615,-133.3745,-35.5612,-27.7671,-107.6573,1.4615,-4.3846,
9.7427,56.5077,24.357,-19.4859,82.8133,312.3906,19.3846,-4.8716,-123.7336,-27.28,-29.2281,-92.6573,4.8716,-7.7946,
1.9485,60.4057,27.28,-13.6398,81.8392,297.3906,32.1512,-1.9485,-108.7336,-19.485,-14.2281,-90.6074,3.8975,-2.9226,
15.1009,59.9178,23.87,-12.1787,73.558,282.3906,17.1512,-0.48748,-97.915,-29.7151,-11.2047,-96.9405,0.48748,-0.48748,
0.10085,47.2525,8.87,-25.8181,64.7898,267.3906,2.4356,2.4356,-108.6318,-25.8181,-14.1268,-97.9146,2.4356,-3.4096,
-2.923,37.0228,7.7942,-37.9968,61.3793,252.3906,10.7172,2.923,-104.2477,-17.5373,-9.7432,-112.9146,8.7682,-10.7172,
2.4356,36.5353,14.1277,-35.5612,55.0467,237.3906,7.3076,-2.4356,-89.2477,-23.8691,-8.2807,-115.4515,3.4105,-10.2297,
-1.4611,49.201,9.2562,-22.8955,45.3039,222.3906,0.48702,1.462,-74.2477,-21.9205,-1.4611,-100.4515,2.436,-0.48702,
8.2817,47.2525,9.2557,-12.1787,45.3044,207.3906,-1.4615,1.4615,-81.3522,-18.0239,-9.2557,-85.4515,3.4105,-2.4356,
-6.7183,41.8939,18.5114,0.97404,44.8169,192.3906,0.97404,-0.97404,-96.3522,-21.4344,-24.2557,-70.4515,-9.7432,0.97404,
-4.3846,49.2006,22.895,4.3846,48.2265,177.3906,11.2038,5.3586,-111.3522,-18.9989,-18.9989,-73.558,-13.1528,4.3846,
2.436,36.5357,12.1792,-4.3841,42.3818,162.3906,16.0763,1.462,-96.3522,-18.0234,-3.9989,-88.558,-8.2812,-0.48702,
-3.8971,39.9458,14.6143,2.923,37.0228,147.3906,23.3825,8.7691,-92.556,-13.6393,-2.923,-77.9421,-2.923,9.7432,
11.1029,48.2265,21.921,-12.077,34.5872,132.3906,14.1268,15.1018,-106.6832,-10.2297,-11.2038,-74.5321,-6.3326,6.3326,
4.3841,50.1751,21.9214,-19.9724,29.7156,117.3906,8.2812,14.1273,-114.4779,-8.2812,-4.3841,-88.1723,-7.3071,8.2812,
1.9485,55.5337,20.4599,-4.9724,18.5109,102.3906,5.8456,3.8966,-127.6307,-19.4859,-13.6398,-77.9426,-8.7687,8.7687,
11.2042,49.201,21.9214,0.48702,13.1532,87.3906,3.4101,-0.48702,-112.6307,-17.0494,-14.1263,-62.9426,-4.3841,3.4101,
0.97404,38.9708,18.5114,-12.6653,13.6403,72.3906,8.7682,0,-97.6307,-5.8452,0,-55.5332,-0.97404,10.7172,
10.7167,40.9194,17.5369,-20.4599,7.7946,57.3906,-0.9745,0.9745,-97.4276,-4.8716,5.8456,-59.4308,-2.9226,13.6398,
12.1783,51.15,16.0754,-23.8695,-3.4101,42.3906,-15.1013,5.3591,-94.992,3.4101,4.3841,-47.252,-3.4101,22.8955,
18.5114,61.3793,12.6662,-32.1507,-0.97404,27.3906,-0.10131,12.6662,-90.6074,9.7432,-3.8971,-45.791,0,30.2026,
28.7406,55.0462,14.1263,-25.8185,0.48702,12.3906,12.1783,19.9724,-98.8895,-0.48702,-0.48702,-46.278,-0.48702,27.7666,
19.4854,54.5592,11.6913,-19.4854,-6.8201,-2.6094,0,19.4854,-103.2736,0,11.6913,-41.8939,-5.8461,26.3055,
18.9984,52.1241,4.3841,-31.6637,-4.3841,-17.6094,-3.4101,7.3071,-118.2736,0.48702,5.3581,-56.8939,-0.48702,23.8695,
5.3586,37.1241,2.4356,-22.895,0.48748,-32.6094,7.3067,-0.48748,-133.2736,-12.1787,-9.6419,-66.7379,2.4356,15.1018,
11.2042,42.3809,11.2042,-11.2042,4.3841,-47.6094,7.3071,11.2042,-123.2461,-4.3841,-11.2042,-53.0981,-9.2552,12.1783,
23.87,38.4843,10.2297,-25.8181,0.48748,-62.6094,-7.6929,4.3846,-108.2461,7.3067,-0.48748,-63.8153,-20.9469,10.2297,
10.7167,47.7395,24.3561,-10.8181,5.8456,-77.6094,-1.9485,1.9485,-94.5054,11.6908,-4.8716,-50.663,-5.9469,25.2297,
7.7937,47.7395,24.357,3.8966,-6.8197,-92.6094,-4.8716,0.9745,-109.5054,-0.9745,-17.5369,-42.8684,1.9485,18.5109,
13.6403,38.9708,19.4854,-0.97404,-7.7942,-107.6094,0.97404,3.8971,-94.5054,8.7682,-2.5369,-32.1507,-3.8971,14.6143,
6.3326,34.5872,24.844,-4.3846,0.48748,-122.6094,-3.4096,3.4096,-83.3007,11.2038,-0.48748,-32.6382,-8.2817,16.0758,
8.2812,29.7156,29.7156,-2.436,1.4611,-137.6094,-17.0503,1.4611,-98.3007,-1.4611,-3.4101,-35.5608,3.4101,17.0494,
-6.7188,36.5348,14.7156,3.4101,-7.3071,-152.6094,-19.9734,6.3322,-94.018,-3.4101,5.3581,-25.8185,3.4101,23.8695,
-1.4615,47.2525,9.2557,6.3326,-0.48748,-167.6094,-7.3067,12.1787,-100.8376,0.48748,10.2297,-34.5872,-0.48748,26.7921,
6.3326,32.6382,24.2557,-2.4356,5.3586,-182.6094,-0.48748,7.3067,-115.8376,-6.3326,0.48748,-49.5872,-1.4615,21.921,
1.4611,27.7666,29.7156,-5.3581,-5.3581,-197.6094,-0.48702,3.4101,-100.8376,-9.2552,1.4611,-47.252,0.48702,21.9214,
3.4101,29.7156,18.9984,-9.2552,-13.1523,-212.6094,0.48702,-0.48702,-85.8376,-9.2552,11.2042,-38.4838,5.3591,16.0754,
-11.5899,33.1252,24.357,-8.7687,-4.8716,-222.1352,4.8716,4.8716,-70.8376,-10.7167,22.408,-23.4838,6.8197,16.5628,
-4.3841,37.5098,31.6646,-0.48702,-0.48702,-207.1352,0.48702,1.462,-63.8144,-10.2293,27.7675,-15.1013,6.3331,16.0763,
2.436,37.5098,27.7666,14.513,-9.2552,-215.8025,-2.436,-2.436,-67.7124,-2.436,13.1523,-20.9465,3.4101,15.1013,
-10.7167,32.1512,25.331,20.4599,-16.5628,-219.2121,-1.9485,7.7946,-82.7124,-1.9485,4.8716,-18.5109,1.9485,11.6917,
0.97404,17.5373,30.2026,9.7432,-13.6403,-234.2121,-9.7432,-0.97404,-97.7124,-16.5624,19.8716,-23.3825,0.97404,9.7432,
10.7167,28.2541,37.9963,24.7432,-7.7946,-249.2121,-3.8975,-2.9226,-82.7124,-12.6658,34.8716,-24.357,2.9226,24.7432,
5.8452,33.1257,31.1767,22.4085,-21.4344,-246.4922,-3.8971,0.97404,-77.9421,-0.97404,20.4595,-21.4344,-3.8971,15.5883,
0.48702,25.8185,25.8185,7.4085,-34.5867,-243.0821,-1.462,1.4611,-88.1723,6.3322,5.4595,-8.2812,-0.48702,9.2552,
-9.2562,29.7156,19.9724,-2.436,-32.6387,-258.0821,-0.48702,1.4611,-82.3267,0.48702,13.1523,-1.462,2.4351,19.9724,
0.48702,23.8695,20.9465,12.1783,-26.7926,-273.0821,-4.3841,-0.48702,-69.661,-6.3331,26.7926,2.4351,-5.3591,11.2042,
-7.3067,19.9729,22.8959,13.1528,-28.7411,-288.0821,-6.3326,-1.4615,-56.9947,1.4615,26.793,7.3076,-12.1787,4.3846,
-3.4101,28.7416,20.9474,17.0503,-33.6127,-303.0821,-2.436,-5.3581,-70.635,6.3331,19.9724,-0.48702,0.48702,14.1273,
1.4615,21.9219,18.0248,11.2047,-37.5093,-318.0821,-1.4615,-9.2557,-85.635,-8.6669,16.0758,-15.487,7.3076,12.1787,
2.436,24.8445,16.0763,-3.4101,-36.5348,-333.0821,0.48702,-0.48702,-100.635,-12.1783,17.0503,-19.9724,1.462,14.1273,
17.436,35.0742,16.5628,-5.8456,-37.0223,-348.0821,3.8975,-0.9745,-85.635,0.9745,11.6917,-4.9724,-3.8966,15.5888,
6.3326,27.7671,9.2557,-1.4615,-45.3035,-363.0821,-1.4615,-5.3586,-74.5321,1.4615,2.4356,9.2557,-13.1528,6.3326,
8.7687,34.1002,9.7427,0.9745,-43.8424,-378.0821,-1.9485,1.9485,-82.8133,-0.9745,5.8456,-5.7443,-8.7687,14.6148,
23.7687,33.6127,12.1783,1.4611,-47.252,-393.0821,-2.436,-1.4611,-80.3777,-3.4101,12.1783,-20.7443,1.4611,22.8955,
14.6138,22.408,7.7937,-3.8975,-57.4827,-408.0821,-6.8197,-1.9485,-70.148,1.9485,8.7687,-19.4859,1.9485,7.8955,
27.7666,18.0234,7.3071,-16.0763,-54.0726,-423.0821,-5.3591,6.3322,-61.8668,13.1523,4.3841,-8.2812,8.2812,-4.3841,
20.9469,18.0239,5.3586,-10.2297,-56.0212,-438.0821,-3.4105,-1.4615,-68.6869,5.3586,1.4615,-23.2812,6.3326,10.6159,
15.5879,30.2022,12.6658,-0.9745,-53.5856,-453.0821,0.9745,-2.9226,-83.6869,-2.9226,2.9226,-35.0742,3.8966,22.408,
29.2286,28.2546,11.6912,-14.6143,-50.6621,-468.0821,3.8971,0,-79.8902,-6.8192,0.97497,-31.1767,4.8721,7.408,
16.5628,25.331,3.8966,-9.7427,-55.5341,-483.0821,9.7427,1.9485,-64.8902,-3.8975,5.8456,-16.1767,-1.9485,2.9226,
15.1013,23.8695,14.1273,-4.3841,-58.9433,-498.0821,3.4101,-4.3841,-65.7639,-3.4101,7.3071,-1.1767,-5.3581,11.2042,
21.9214,27.7666,23.8695,-3.4101,-56.0212,-513.0821,-1.462,0.48702,-80.7639,3.4101,-1.462,13.8233,9.2552,-0.48702,
19.485,29.2281,8.8695,1.9485,-63.3283,-528.0821,-1.9485,8.7677,-74.0455,3.8966,-13.6407,22.408,-4.8716,1.9485,
24.357,23.383,-6.1305,2.9226,-69.1735,-543.0821,-7.7937,6.8197,-59.0455,0.9745,-0.9745,25.331,-17.5369,16.9485,
11.6912,17.5373,-21.1305,-9.7422,-69.1735,-558.0821,-19.4854,0,-55.5337,0.97497,6.8201,11.6912,-2.5369,13.6403,
19.9729,16.0758,-36.1305,-18.0239,-57.9697,-573.0821,-8.2817,-1.4615,-57.9697,9.2557,9.2557,1.4615,11.2038,3.4096,
19.9729,16.0758,-27.7671,-15.1009,-60.8923,-588.0821,2.4356,-3.4096,-48.2265,17.0499,7.3076,6.3326,-2.4356,11.2047,
16.5624,20.4595,-31.1767,-16.5633,-75.0196,-603.0821,-7.7942,0.97404,-43.8429,14.6143,-0.97404,7.7942,0.97404,12.6653,
31.1771,10.7167,-32.1512,-27.28,-72.0965,-618.0821,-14.6148,0.9745,-50.6626,6.8197,-0.9745,7.7937,11.6908,0.9745,
24.3565,9.7432,-28.2536,-27.2796,-57.4822,-633.0821,-3.8971,-3.8971,-40.9198,9.7432,7.7942,21.4344,4.8711,3.8971,
25.8181,16.0758,-25.8181,-27.7671,-53.0981,-639.6129,-1.4615,-10.2297,-25.9198,17.0499,10.2297,23.87,1.4615,7.3067,
28.2541,8.7687,-31.1771,-29.2281,-53.5851,-649.8426,-5.8456,-7.7946,-18.5109,22.408,5.8456,15.5888,6.8197,6.8197,
27.28,8.7687,-38.9713,-31.1771,-61.3793,-649.8426,-4.8716,0.9745,-33.5109,19.4859,-0.9745,21.434,5.8456,3.8975,
40.4328,9.2552,-43.3554,-36.5357,-68.6864,-634.8426,-10.2302,-0.48702,-48.5109,21.9214,3.4101,31.6637,6.3331,0.48702,
25.4328,7.3067,-51.1496,-34.5872,-73.558,-619.8426,-21.921,-3.4096,-42.3814,26.7921,4.3846,29.7151,3.4096,5.3586,
24.3565,15.5883,-49.6885,-26.3055,-67.2254,-606.9747,-24.3575,-0.97404,-45.7914,26.3055,0.97404,24.3565,4.8711,6.8201,
36.5357,21.9214,-45.3039,-20.9465,-62.8408,-606.4872,-16.0754,0.48702,-39.4583,26.7926,-0.48702,39.3565,2.436,5.3591,
21.5357,18.5114,-45.7914,-28.2546,-62.3538,-591.4872,-17.5373,2.923,-24.4583,30.2026,0,54.3565,0,6.8201,
28.7406,9.2552,-49.2015,-43.2546,-54.0726,-583.1052,-21.9214,3.4101,-29.7156,30.6896,-3.4101,45.3039,10.2293,5.3581,
28.7411,15.1018,-55.0467,-48.2265,-47.2525,-569.4645,-16.0758,4.3846,-44.7156,18.9989,-4.3846,40.4324,8.2817,6.3326,
35.5612,30.1018,-40.0467,-33.2265,-37.5093,-554.4645,-10.2297,1.4615,-33.6122,10.2297,-1.4615,34.5872,5.3586,3.4105,
48.2265,44.3294,-25.0467,-18.2265,-24.844,-539.4645,-5.3586,-0.48748,-21.921,18.0239,-6.3326,32.6382,6.3326,0.48748,
39.9458,49.688,-32.1507,-3.2265,-18.5114,-524.4645,8.7682,4.8711,-36.0478,17.5373,-19.4854,41.8939,-5.8452,0,
54.9458,54.5596,-31.1771,-12.6658,-3.5114,-509.4645,21.434,7.7946,-35.0742,14.6138,-6.8197,56.8939,1.9485,-1.9485,
48.7135,48.7135,-29.2281,-19.4859,-8.7687,-494.4645,6.434,-2.9226,-20.0742,13.6398,7.7946,42.8684,7.7946,-7.7937,
49.201,47.252,-37.5098,-30.6897,-22.8955,-498.3425,-8.2812,1.4611,-5.0742,18.0244,10.2302,27.8684,3.4101,-4.3841,
60.8918,36.5353,-44.3299,-40.4328,-26.793,-513.3425,-6.3326,7.3067,-9.2557,18.0239,10.2297,12.8684,5.3586,-5.3586,
45.8918,28.2541,-47.7395,-37.9963,-37.0223,-516.3668,-7.7937,-1.9485,2.9226,23.383,7.7946,27.8684,1.9485,-15.5888,
38.4838,33.6127,-41.4069,-32.6387,-46.278,-501.3668,-4.3841,-2.436,17.9226,25.8185,6.3331,42.8684,2.436,-17.0494,
35.5612,31.6642,-42.3804,-32.6382,-55.0467,-486.3668,-6.3326,5.3586,11.2047,23.87,-2.4356,41.4073,2.4356,-6.3326,
41.4064,28.7411,-42.3814,-21.921,-56.9952,-476.9085,-10.2297,6.3326,1.4615,38.4843,-9.2557,39.4583,-0.48748,0.48748,
54.0726,23.87,-38.4838,-14.1268,-59.9178,-491.9085,-3.4096,8.2817,9.2557,40.4324,-6.3326,51.1496,3.4096,-5.3586,
39.0726,19.972,-49.2015,-24.844,-72.584,-506.9085,-5.3586,8.2807,21.921,31.6632,-5.3586,55.0467,5.3586,-9.2557,
40.9194,17.5369,-52.6111,-17.5369,-70.148,-493.9584,-6.8197,0.9745,25.331,32.1512,-0.9745,61.3798,2.9226,-4.8716,
42.8675,12.6648,-49.6885,-5.8456,-69.1739,-488.1132,-2.9235,1.9485,10.331,28.2532,-11.6917,50.6616,-1.9485,1.9485,
37.9968,26.3055,-44.8165,-0.97404,-71.122,-499.804,-2.923,16.5633,-4.669,34.0997,-19.4854,56.5082,0.97404,6.8201,
38.9713,24.357,-44.8165,9.7427,-72.096,-503.7006,-5.8456,1.9485,10.331,33.1261,-12.6658,71.5082,-1.9485,-4.8707,
29.2281,26.306,-34.0993,24.7427,-74.0451,-488.7006,4.8716,-8.7687,24.357,21.434,-18.5109,72.097,-4.8716,-9.7427,
37.9968,37.9968,-19.4854,35.0738,-75.9941,-473.7006,11.6912,0,9.357,20.4595,-33.5109,63.3274,-11.6913,-9.7432,
34.5872,31.6642,-26.793,35.5612,-73.558,-471.0629,9.2557,4.3846,-4.3846,35.4595,-41.4064,78.3274,-23.87,-10.2297,
26.306,25.331,-41.793,31.1771,-74.0451,-467.6528,3.8975,1.9485,-1.9485,37.0223,-37.0223,83.7882,-24.357,-9.7427,
41.306,32.6382,-39.4583,28.7411,-80.3782,-457.4231,-4.3846,2.4356,13.0515,23.8691,-26.793,68.7882,-13.1528,-2.4356,
35.5612,34.5872,-30.6901,24.844,-82.3267,-456.4486,-5.3586,4.3846,27.7671,29.7151,-23.87,59.9178,-18.0239,-4.3846,
36.0478,19.5872,-26.3055,9.844,-72.0965,-469.6014,8.7682,-3.8971,12.7671,34.0997,-37.0228,74.0446,-25.3315,-11.6913,
41.8939,13.6393,-26.3055,0,-64.3028,-468.6278,14.6134,2.9221,-2.2329,28.2536,-37.0228,65.2764,-14.6143,0,
40.4324,21.9219,-37.5093,5.3586,-67.7119,-471.0624,-0.38663,12.1787,6.3336,21.9219,-31.6632,50.2764,-13.1528,-5.3586,
48.714,19.4854,-32.1507,17.5373,-58.4567,-456.0624,-9.7432,9.7432,14.6143,33.1257,-19.4854,64.3023,-15.5883,-11.6912,
33.714,8.7687,-27.2791,23.383,-54.5592,-441.0624,-1.9485,1.9485,1.9485,35.0742,-21.434,79.3023,-18.5109,-5.8456,
34.0997,11.6912,-28.2536,8.383,-51.6361,-428.6815,0,2.923,0,25.3315,-25.3306,79.8907,-16.5624,-5.8452,
38.4843,9.2557,-24.844,-1.4615,-43.3554,-439.8862,1.4615,5.3586,15,26.7921,-19.9729,88.1723,-10.2297,-4.3846,
29.2286,3.8971,-26.3055,0.97404,-41.8939,-432.5791,-2.923,4.8711,30,34.0997,-14.6143,88.6589,-16.5624,-0.97404,
43.8424,1.9485,-18.5118,0.9745,-37.9973,-418.9393,-0.9745,4.8716,32.1512,28.2541,-10.7177,73.6589,-16.5628,-9.7427,
28.8424,-0.97404,-11.6913,6.8201,-32.1516,-403.9393,9.7422,3.8971,17.1512,13.2541,-20.4604,60.4053,-16.5633,-13.6403,
23.87,9.2557,-2.4356,21.8201,-20.9469,-388.9393,19.9729,9.2557,2.1512,2.4356,-24.844,75.4053,-17.0499,-11.2038,
28.7416,9.2552,-0.48702,35.5608,-16.0754,-373.9393,14.1273,0.48702,-4.3841,5.3581,-18.0244,87.1978,-16.0754,-18.0244,
21.9214,14.1273,-3.4101,40.4328,-19.9724,-358.9393,8.2812,-8.2812,10.6159,3.4101,-5.3581,85.2497,-18.9984,-18.0234,
36.9214,19.9729,-1.4615,47.2525,-16.0749,-344.4067,15.1018,1.4615,10.2297,-1.4615,-1.4615,80.3782,-16.0749,-11.2038,
25.331,14.6138,-1.9485,49.6885,-15.5879,-329.4067,18.5118,10.7167,-4.7703,1.9485,-13.6398,86.7103,-17.5369,-11.6908,
18.5114,15.5893,-3.8971,45.791,-24.3565,-314.4067,3.8971,5.8461,-15.5883,5.8461,-18.5105,95.4799,-32.5369,-18.5105,
30.2031,14.6148,-2.9226,46.7655,-17.5369,-307.8715,-1.9485,1.9485,-0.58834,6.8197,-3.8966,99.3766,-32.1512,-15.5879,
15.2031,8.7682,-8.7682,44.8169,-10.7172,-292.8715,2.923,-2.923,14.4117,5.8452,-4.8711,94.505,-22.4085,-18.5114,
17.5369,7.7946,-6.8197,38.9713,-9.7427,-277.8715,4.8716,-4.8716,7.7946,6.8206,-11.6908,88.6593,-25.331,-26.3051,
18.0244,9.2562,-9.2552,41.4069,-14.1273,-262.8715,-0.48702,1.4611,16.0754,0.48702,-3.4101,99.8631,-40.331,-18.0244,
21.434,16.5628,-5.8456,56.4069,-10.7167,-247.8715,1.9485,3.8975,22.4089,-6.8197,-1.9485,110.0938,-36.0483,-8.7687,
20.9469,15.1009,7.3067,68.686,-7.3076,-232.8715,4.3836,1.4615,7.4089,-8.2817,-11.2047,95.0938,-21.0483,-15.1018,
18.0239,28.7411,13.1528,74.5321,-5.3586,-217.8715,4.3846,16.4615,-4.3846,-8.2817,-9.2557,85.2493,-21.921,-15.1009,
32.6387,35.5617,2.436,74.5325,-5.3581,-202.8715,-0.48702,14.1273,0.48702,-12.1783,-12.1783,90.1209,-26.7926,-17.0494,
17.6387,32.1512,-0.9745,68.199,0.9745,-187.8715,7.7937,1.9485,-2.9226,-3.8975,-12.6658,102.2987,-28.2541,-13.6398,
2.6387,21.4344,1.9481,53.199,0.97404,-172.8715,6.8201,1.9481,-0.97404,-9.7432,-3.8971,96.4531,-23.3825,-13.6403,
-3.8971,6.4344,0,38.199,-1.9481,-157.8715,2.923,6.8201,14.026,-14.6143,5.8461,96.454,-8.7682,-15.5883,
-3.4101,-2.436,-12.1783,38.4838,-9.2552,-142.8715,3.4101,13.1532,24.8445,0.3857,4.3841,110.5803,-18.0244,-12.1783,
5.8456,-1.9485,-16.5628,23.4838,-14.6148,-134.4503,-11.5899,10.7167,10.7167,3.8966,1.9485,104.2477,-33.0244,-18.5118,
14.1273,-6.3331,-5.3581,27.7666,-6.3331,-121.2975,-14.1273,23.8695,25.7167,5.3581,15.1013,102.7862,-20.9474,-6.3331,
5.8452,-17.5373,-9.7432,27.2796,-16.5624,-115.9389,-8.7682,22.4085,40.7167,3.8971,12.6653,102.2991,-20.4604,-3.8971,
20.4599,-16.5628,-0.9745,23.383,-14.6138,-115.9389,-4.8716,16.5628,29.2281,0.9745,18.5109,110.0938,-11.6908,-4.8716,
13.6393,-16.5633,-0.97404,22.4085,-9.7432,-105.2222,-16.5633,17.5364,18.5114,-6.8201,13.6393,114.9644,-5.8461,0.97404,
10.2297,-18.0239,-15.1009,16.0758,-17.0499,-96.9401,-18.0239,16.0758,16.0758,-6.3326,6.3326,120.323,-20.8461,13.1528,
1.9485,-22.408,-19.4859,14.6138,-30.2031,-106.1962,-18.5109,5.8456,25.331,-1.9485,7.7937,122.7591,-34.1002,8.7687,
4.8716,-13.6398,-4.4859,26.306,-19.485,-104.2477,-22.408,10.7167,40.331,1.9485,15.5888,115.9389,-19.1002,-4.8716,
8.7682,-21.4344,-0.97404,19.4854,-14.6143,-102.2991,-26.3055,10.7172,49.688,0.97404,12.6653,104.2472,-4.8711,-9.7432,
-1.9485,-22.4089,-11.6917,17.5369,-24.357,-90.6079,-24.357,16.5628,45.7905,1.9485,7.7937,118.862,-19.8711,3.8966,
8.2817,-18.9989,-3.4096,20.9469,-17.0499,-75.6079,-19.9729,18.9979,38.4843,3.4096,4.3846,119.349,-34.8711,-3.4096,
5.8456,-28.2541,-1.9485,21.4349,-2.9226,-64.3019,-14.6138,7.7946,37.9973,1.9485,5.8456,109.1197,-22.408,-13.6398,
1.4615,-19.9729,-7.3067,24.844,-4.3846,-60.8923,-17.0499,13.1528,40.4324,5.3586,13.1528,120.323,-7.408,-1.4615,
16.4615,-21.9214,-1.4611,19.9724,-10.2302,-56.9952,-21.9214,19.9724,31.6637,1.4611,6.3331,116.4264,-21.9214,-2.436,
5.3586,-30.6892,6.3326,27.7671,-9.2557,-41.9952,-15.1009,16.0758,31.6642,-1.4615,1.4615,109.6068,-33.6122,-7.3067,
-3.4101,-28.7416,8.2812,33.6127,3.4101,-38.4838,-12.1783,12.1783,33.6127,-9.2562,4.3841,113.5034,-18.6122,-10.2302,
5.8456,-33.1252,1.9485,18.6127,8.7687,-53.4838,-15.5879,11.6917,22.4089,-9.7427,-1.9485,99.3766,-12.6648,-11.6908,
13.1532,-23.8695,6.3331,3.6127,-0.48702,-68.4838,-14.1263,17.0503,34.5867,5.2573,0.48702,92.0699,-17.0494,-0.48702,
