"AF3","AF4","F3","F4","F7","F8","FC5","FC6","O1","O2","P7","P8","T7","T8",
-12.9916,6.9951,48.9677,85.9429,2.9978,17.988,-7.9952,-33.9774,-33.9774,-31.9792,72.9517,29.9801,-16.9889,-2.9978,
-6.4956,13.4911,62.4593,100.9429,-2.4982,32.988,2.4982,-28.4814,-18.9774,-31.4787,87.9517,44.9801,-7.4947,-3.4973,
-17.488,17.489,69.4544,108.4287,-12.4916,47.988,-2.4977,-29.48,-3.9774,-33.4774,91.4403,37.4757,-0.49955,-4.4969,
-14.4907,22.4854,59.4606,107.4296,-11.4925,46.4695,-10.4934,-27.4818,3.4978,-30.4801,104.4314,38.4748,-4.4969,-3.4978,
-24.4841,8.4947,44.4708,97.4353,-16.4894,31.4797,-17.4885,-33.4779,4.4974,-32.4788,101.4327,41.4725,-19.4969,-4.4974,
-9.4841,23.4947,52.965,87.942,-4.9969,31.9792,-5.996,-28.981,-0.99957,-28.981,92.9384,33.9774,-22.9854,-6.9951,
-7.9952,33.9774,60.9597,90.9403,-2.9987,26.9818,-1.9987,-24.9836,-13.9907,-21.9854,94.9376,34.9765,-7.9854,-2.9987,
-16.4894,34.477,63.4584,94.438,-13.4911,17.4885,-16.9987,-20.4867,-9.4938,-16.4894,88.4416,44.4708,-4.4974,4.4974,
-1.4894,43.4712,60.4597,87.442,0.49955,21.4854,-22.4854,-28.4809,-8.4942,-20.4863,73.4518,54.4641,-19.4974,-6.496,
-16.4894,28.4712,46.4695,73.4518,12.4916,27.4818,-12.4916,-43.4712,-23.4942,-35.4863,63.4579,58.4615,-23.4845,-17.488,
-7.4947,43.4712,53.4646,67.4557,2.4982,30.4796,-16.4894,-28.4712,-38.4942,-23.484,75.4504,56.4628,-8.4845,-2.4982,
-1.4991,53.4646,61.4593,69.4539,-9.4938,33.4779,-24.4841,-19.4876,-23.4942,-13.4911,86.4434,71.4628,-8.4947,1.4991,
-16.4991,38.4748,46.4695,62.4588,-0.49955,33.4774,-13.4916,-34.4876,-8.4942,-28.4819,82.4455,86.4628,-23.4947,-9.4943,
-10.4929,44.4708,31.4695,47.4588,5.4965,21.4858,-5.4965,-40.4734,-23.4942,-31.4787,76.4495,91.4398,-27.4814,-15.4893,
-19.4872,40.4739,32.4783,47.4686,9.4943,6.496,-7.4951,-39.4739,-22.4854,-16.4787,85.4438,97.4358,-12.4814,-6.496,
-11.992,49.9673,37.9752,50.9664,0.9991,-2.9982,-21.9859,-33.9779,-7.4854,-15.9894,71.9522,100.9336,-23.9841,-0.9991,
-26.4823,44.4708,25.4832,51.4664,-14.0009,12.0018,-29.4805,-40.4734,5.4965,-30.9894,56.9522,106.4301,-38.9841,-5.4965,
-34.4774,59.4606,25.4827,66.4664,-8.4942,27.0018,-19.4872,-35.4765,8.4942,-24.4836,69.4544,121.4301,-29.481,-8.4942,
-19.4774,74.4606,26.4823,81.4664,-13.4911,42.0018,-34.4872,-33.4779,13.4911,-23.484,58.462,115.4239,-36.4761,-17.4885,
-31.4792,64.458,18.4881,67.4553,-28.4911,57.0018,-49.4872,-41.473,13.4907,-38.484,43.462,100.4239,-51.4761,-13.4907,
-20.9868,67.9548,7.9947,52.9645,-36.9761,60.9592,-50.9664,-31.9787,6.9956,-32.9788,48.9672,96.9363,-47.9681,-6.9956,
-15.9903,76.9486,3.9973,47.9681,-26.9823,49.9663,-45.9699,-25.9832,16.9885,-17.9788,56.9619,111.9363,-42.9717,-3.9973,
-30.9903,75.4509,7.4951,52.4659,-25.4827,58.4615,-46.4695,-34.4774,31.9885,-31.4792,41.9619,121.4199,-50.4668,-7.4951,
-15.9903,90.4402,15.4898,58.4615,-21.4854,73.4518,-43.4712,-33.4783,40.473,-45.4704,42.4721,119.4217,-45.4704,-15.4898,
-19.9867,78.9477,11.992,48.9672,-22.985,59.9601,-38.9743,-29.9805,32.9778,-30.4704,44.9699,118.9212,-42.9717,-11.992,
-14.4907,79.4482,4.4969,33.9672,-26.4827,44.9601,-49.4677,-27.4818,17.9778,-29.48,29.9699,103.9212,-43.4712,-4.4969,
-13.4916,79.4473,7.4951,18.9672,-25.4837,29.9601,-56.4633,-35.4765,11.4925,-42.4721,23.4845,88.9212,-40.4739,-7.4951,
-26.9823,78.9487,7.9947,26.9823,-22.985,36.9761,-52.9645,-37.9743,26.4925,-36.9752,30.9796,102.9328,-46.969,-7.9947,
-13.9917,89.9402,5.996,21.9854,-18.9881,21.9761,-47.9686,-32.9783,41.4925,-31.9792,33.9774,111.9261,-43.9712,-5.996,
-18.9876,91.9389,13.9902,6.9854,-14.9903,6.9761,-46.969,-31.9787,38.9743,-26.9823,32.9778,96.9261,-30.9796,0,
-11.992,106.9389,24.9841,2.9982,-12.9911,12.9921,-49.9673,-24.9832,34.977,-20.9858,18.9876,85.9433,-39.9734,-2.9982,
-12.4916,121.9389,20.4863,10.4934,-19.4872,27.4818,-51.4659,-24.4836,31.4792,-28.4809,8.4942,90.4402,-49.4677,-8.4942,
-27.4916,129.9141,11.992,16.9885,-26.9823,23.9841,-56.9628,-31.9787,23.9841,-35.9761,8.9938,101.9327,-51.9654,-8.9938,
-12.4916,140.4075,21.4854,24.4836,-18.4881,25.4827,-53.465,-33.4783,21.4854,-27.4818,4.4969,116.4234,-48.4677,-4.4969,
-3.9978,140.9066,30.9792,20.9863,-8.9943,34.9765,-41.973,-22.9854,19.9862,-21.9854,-1.9987,110.927,-38.9748,1.9987,
0,147.9026,27.9814,5.9965,-2.9982,33.9779,-39.9734,-11.992,9.9938,-32.9778,0,95.927,-42.9717,-0.9991,
-1.4991,138.4088,23.484,1.4991,-2.4982,32.4788,-44.4708,-22.4849,4.4974,-39.4743,1.4991,85.4433,-51.4664,-8.4947,
-3.9973,138.9088,26.9823,3.9973,-0.9991,32.9778,-39.9734,-19.9867,12.9911,-24.4743,0,100.4433,-37.9752,0,
11.0027,151.4004,27.4818,-11.0027,-4.4969,17.9778,-42.4721,-17.489,17.488,-9.4743,-5.4969,112.4261,-32.4792,4.4969,
0.49955,136.4004,24.4846,-5.496,-0.49955,21.4863,-43.4712,-32.4783,27.4818,-14.4898,0.49955,102.4332,-43.4712,-5.496,
-10.9925,123.9181,15.9898,-1.9987,3.9978,18.9871,-42.9712,-39.9739,26.9828,-29.4898,1.9987,90.9403,-58.4712,-20.496,
4.0075,128.9155,18.9881,-16.9987,11.9925,3.9871,-32.9783,-29.9801,33.9774,-24.9836,16.9889,98.9349,-52.965,-12.9916,
5.996,113.9155,24.9836,-31.9987,14.9898,-11.0129,-27.9819,-25.9827,48.9677,-11.9925,31.9889,99.934,-37.965,-5.996,
17.489,100.4341,22.4854,-34.4774,10.4934,-12.4916,-39.4739,-23.4845,47.4686,-15.4898,34.4774,86.4429,-28.4809,-10.4934,
2.489,88.9416,18.9876,-24.9832,3.9973,0,-47.9681,-32.9778,36.9761,-25.9822,19.4774,89.9407,-43.4809,-17.9876,
0,98.9354,33.9876,-16.9885,11.992,0,-32.9681,-30.9796,34.977,-19.9867,4.9974,94.9381,-58.4809,-15.9894,
2.9982,93.938,42.9717,-18.9876,8.9938,0,-20.9858,-32.9778,19.977,-29.9805,0,79.9381,-43.9708,-24.9832,
-11.9925,82.9456,27.9819,-5.996,6.9951,15,-25.9827,-33.9774,18.9871,-34.9765,5.996,89.9412,-47.9686,-21.9854,
0,89.9407,12.9819,-4.9974,5.9955,27.9814,-38.9743,-30.9796,17.9876,-35.977,0,102.9318,-60.9602,-21.9859,
-4.9964,82.9451,9.9929,-5.9965,5.9955,32.9778,-36.9761,-20.9868,14.9903,-25.9832,4.9964,103.9309,-45.9699,-15.9894,
-8.9943,86.9429,7.9952,-13.9907,8.9943,32.9783,-30.9792,-12.9916,8.9943,-17.988,7.9952,105.9305,-39.9739,-7.9952,
6.0057,94.9381,0,-25.9822,16.9894,21.9859,-30.9796,-15.9894,4.9974,-9.9929,0,111.9265,-47.9681,-4.9964,
-8.9943,79.9381,5.996,-18.9871,11.9925,27.9819,-32.9783,-27.9809,15.9898,-11.9916,7.9952,121.9199,-45.9694,-5.996,
-7.4951,70.4535,10.4924,-7.4951,7.4951,42.9819,-27.4818,-29.481,24.4836,-26.4827,22.4854,122.419,-53.465,-18.4881,
-5.996,74.9509,1.9987,-1.9987,17.988,57.9819,-14.9898,-29.9801,21.9854,-27.9819,22.9845,116.9225,-57.9624,-20.9863,
-15.4898,80.4464,-4.4969,4.4969,8.4942,72.9819,-21.4863,-28.4819,10.4924,-28.4819,7.9845,105.4305,-48.4686,-17.489,
-6.496,92.4394,5.496,18.4881,-0.49955,87.9819,-28.4809,-26.4827,7.4951,-34.4774,0.49955,101.4332,-42.4721,-18.4881,
1.9987,89.9402,18.9871,17.988,14.5005,102.9819,-13.4809,-25.9827,-5.996,-27.9819,-1.9987,88.9411,-48.9677,-14.9907,
16.9987,103.4318,21.4858,2.988,29.5005,105.431,-2.4982,-26.4823,-20.996,-22.4849,-14.4902,73.9411,-60.4602,-22.4849,
3.9973,101.9337,24.9841,17.988,21.9859,116.923,-3.9973,-40.9725,-35.996,-37.4849,-23.9841,58.9411,-67.9548,-37.4849,
-11.0027,99.934,25.9827,32.988,31.9792,131.923,4.9969,-51.9659,-20.996,-52.4849,-23.9845,43.9411,-71.9526,-47.9686,
-0.99957,102.9323,10.9925,26.9818,43.9712,146.923,-1.9987,-51.9659,-5.996,-64.957,-17.988,58.9411,-66.9562,-47.9686,
-1.4986,103.4323,17.489,22.4854,49.4677,138.4093,-5.496,-36.9659,1.4986,-49.957,-2.988,73.9411,-51.9562,-32.9686,
4.4974,109.4283,26.4823,23.485,52.4655,123.4093,-4.4974,-27.4823,-13.5014,-34.957,-17.988,72.4522,-53.4646,-25.4832,
-1.4991,94.4283,24.4841,12.4921,50.4673,112.4256,1.4991,-42.4823,-27.4814,-42.4716,-21.4858,68.4548,-68.4646,-35.4761,
-12.9916,82.9456,25.9827,13.9907,41.9721,106.9296,2.9978,-42.9721,-12.4814,-29.9801,-6.4858,83.4548,-61.9588,-27.9819,
1.4986,97.9456,33.4783,27.4818,36.4756,91.9296,-6.496,-27.9721,-1.4986,-22.4854,-4.4969,70.4535,-46.9588,-14.4907,
0.49955,110.4269,46.4695,41.473,43.4712,96.4367,-0.49955,-12.9721,-2.4987,-13.4907,-3.4978,57.4624,-31.9588,-4.4969,
-2.9978,105.9305,37.9748,26.473,31.9792,83.9447,-6.9951,-27.9721,-6.9951,-20.9863,2.9978,72.4624,-21.9854,-19.4969,
-17.9978,90.9305,22.9748,11.4925,16.9792,68.9447,-21.9951,-42.9721,-4.4969,-35.4765,4.4969,84.4447,-36.9854,-34.4969,
-32.9978,75.9305,21.9854,26.4925,1.9987,61.9598,-22.9845,-50.9659,10.5031,-31.9783,-1.9987,90.9402,-51.9854,-38.9738,
-28.981,90.9305,31.9792,38.9738,13.9907,58.9615,-17.988,-36.9757,17.988,-19.9872,-13.9907,96.9358,-48.9677,-23.9845,
-13.981,102.4327,44.4708,31.4787,17.4885,43.9615,-10.4929,-21.9757,2.988,-4.9872,-7.4956,95.4371,-33.9677,-8.9845,
-20.4867,94.438,41.4725,23.484,9.4938,34.477,-6.4956,-25.4832,-8.4947,-2.4982,1.4991,90.4407,-29.4805,-1.4991,
-18.9876,97.9354,38.9743,24.9832,24.4938,49.477,-0.9991,-36.9761,0.9991,-7.9947,-5.9965,90.9398,-29.9805,-12.9911,
-29.9801,88.9411,34.9765,20.9863,21.9854,46.9685,-2.9978,-35.9766,2.9978,-9.9934,-15.9898,88.9411,-33.9774,-6.9951,
-14.9801,98.9349,40.973,23.9836,6.9854,31.9783,-3.9978,-23.9845,0.99957,-6.9961,-2.9978,87.942,-38.9748,-0.99957,
-13.9902,94.9381,43.9717,25.9832,-0.9991,33.9779,-7.9947,-20.9858,0,-6.9956,0,76.9496,-37.9743,0,
-16.4889,99.434,37.4747,16.4889,6.496,26.4827,-15.4898,-18.4881,-10.4934,-2.4987,-15,63.4579,-27.4818,2.4987,
-5.996,99.934,42.9712,15.9889,5.996,12.9916,-8.9943,-22.9854,-25.4934,-1.9987,-26.9828,62.9579,-14.9907,1.9987,
-19.9872,84.934,48.9677,22.9845,9.9934,21.9854,4.9969,-31.9792,-24.9836,-8.9943,-16.9889,63.958,-16.9889,-4.9969,
-15.9894,87.9425,34.977,7.9845,11.992,17.9885,0,-29.9805,-9.9836,-19.9867,-10.9929,54.9637,-23.9841,-6.9956,
-14.9903,86.9424,31.9787,-7.0155,10.9929,5.9965,3.9973,-24.9832,-7.9947,-11.992,-3.9973,64.9575,-14.9903,7.9947,
-15.4903,74.4504,35.4761,-1.4991,10.4929,13.4911,18.9973,-30.4806,-22.9947,-9.4938,-18.9973,74.4504,-24.4841,1.4991,
-11.992,63.9584,38.9743,8.9938,17.9885,23.9841,20.9868,-34.977,-22.985,-10.9929,-33.9973,72.9522,-35.9761,-8.9938,
-24.4836,54.4641,44.4713,2.4987,11.4925,8.9841,5.9868,-32.4783,-13.4907,-2.4977,-26.4827,67.4553,-21.4854,-0.49955,
-9.4836,69.4641,54.4646,-1.4991,8.4947,-6.0159,8.4947,-17.4783,-27.4814,1.4991,-22.4849,55.4637,-11.492,14.5005,
-23.484,54.4641,43.4717,-2.4982,8.4947,2.4982,21.4858,-32.4783,-31.4787,-13.5009,-30.4796,40.4637,-26.492,2.4982,
-38.484,42.4716,39.4734,5.4965,16.4884,14.4902,25.4832,-47.4783,-16.4787,-28.5009,-24.4841,51.4654,-30.4806,-12.5018,
-39.4734,40.4734,29.4805,1.4991,17.4885,-0.50975,10.4939,-55.4628,-1.4787,-17.4885,-20.4858,60.4602,-15.4806,-16.4884,
-37.9752,27.9814,29.9805,0,16.9894,-3.9973,9.9938,-45.9699,11.992,-2.4885,-13.9902,52.9655,-7.9947,-4.9964,
-22.9752,42.9814,38.9748,2.9978,8.9943,-2.9978,17.988,-30.9792,-3.008,-4.9969,-10.9925,37.9655,-12.9916,3.9978,
-15.9898,52.965,38.9748,9.9934,-0.99957,0.99957,15.9898,-32.9783,-9.9934,-15.9898,-18.9871,34.9775,-18.9871,5.996,
-29.4805,47.4681,41.4725,19.4867,-4.4974,10.4929,11.492,-33.4779,1.4991,-12.4921,-20.4867,49.4672,-18.4876,-1.4991,
-14.4805,52.9655,52.9655,22.985,3.9973,12.9921,14.9903,-28.9805,-8.9938,-14.9893,-5.4867,45.9699,-17.9876,-3.9973,
-29.4805,37.9655,46.469,15.4893,7.4947,2.4982,18.4876,-36.4761,-23.9938,-25.4832,-10.4929,36.4761,-19.4876,-2.4982,
-18.9871,50.9668,48.9677,19.9872,14.9907,-10.9925,26.9828,-23.9836,-14.9898,-10.4832,-12.9916,46.9695,-8.9933,5.996,
-6.9951,51.9659,51.9659,30.9792,8.9943,-16.9889,25.9827,-20.9863,-3.9969,2.9978,-10.9925,54.9642,-11.9925,-2.9978,
-17.988,46.9695,51.9659,42.9721,6.9951,-1.9889,19.9872,-25.9827,-9.9934,-9.9934,-13.9907,48.9677,-20.9863,-4.9969,
-16.9889,48.9677,43.9712,32.9783,6.9951,11.9925,12.9916,-33.9774,-24.9934,-24.9934,-28.9907,33.9677,-16.9889,-6.9951,
-27.4818,35.4765,48.4686,42.4721,3.4978,12.4925,20.4872,-43.4712,-26.4818,-29.48,-24.4836,46.4695,-4.4969,-3.4978,
-16.4889,48.4677,63.4686,57.4721,1.4986,23.4845,31.4792,-36.4756,-15.4898,-21.4854,-13.4907,61.4695,-19.4969,-1.4986,
-12.9916,53.9651,75.95,72.4721,1.9987,19.9872,30.9801,-24.9836,-14.9898,-17.988,-15.9889,53.9651,-23.9836,-1.9987,
-27.9916,38.9651,63.4589,68.4553,-0.49955,4.9872,17.489,-31.4792,-22.4845,-20.4863,-19.4872,51.4659,-9.4933,6.496,
-17.488,31.4792,57.4624,65.4571,3.4978,-3.4978,22.4854,-39.4739,-28.4809,-20.4863,-15.4898,66.4659,-12.4916,7.4951,
-23.4845,28.4819,64.458,68.4553,9.4943,0.49955,37.4854,-37.4747,-25.4827,-11.4925,-9.4933,81.4659,-14.4898,-0.49955,
-8.4845,43.4819,70.454,79.4478,17.4885,-3.4973,43.4717,-22.4747,-13.4911,-3.4973,-3.4973,80.4469,-5.4965,3.4973,
-2.4982,36.4761,61.4602,82.446,10.4929,-11.492,30.4806,-29.4805,-12.4911,-18.4876,-5.4965,72.4522,-9.4938,2.4982,
-17.4982,22.985,56.9628,75.9495,1.9982,-9.9938,30.9796,-38.9743,-6.9956,-25.9832,0,72.9522,-8.9938,0,
-5.9955,37.9752,52.9655,67.9558,0,-10.992,26.9823,-23.9743,-8.9938,-10.992,-2.9973,73.9513,0,3.9973,
-20.9863,22.9752,45.9694,59.9606,-0.99957,-15.9898,14.9898,-17.988,-20.9863,0.99957,-17.9973,73.9508,-6.9951,4.9969,
-20.4863,25.4837,56.4623,68.4553,12.4916,-12.4916,27.4818,-21.4863,-11.4925,-3.4978,-8.4942,81.4464,-1.4986,1.4986,
-9.4938,24.4841,62.4593,72.4522,1.4991,-17.4885,31.4797,-32.4788,-9.4938,-18.4978,4.4974,72.4522,-1.4991,-4.4974,
-13.9912,19.9867,66.9557,79.9468,0,-13.9912,31.9787,-23.9841,-20.9868,-14.9903,0,63.9575,-3.9973,5.9955,
-5.996,31.9792,59.9606,82.9456,6.9951,-15.9898,32.9783,-17.988,-35.9868,-7.9942,-9.9934,50.9668,-9.9934,5.996,
-16.4889,16.9792,54.4641,78.4482,0.49955,-15.4898,35.4765,-30.4801,-40.4739,-22.9942,1.4986,51.4659,-5.4969,-0.49955,
-15.9894,1.9792,49.9673,63.4482,0,-15.9894,24.9841,-31.9787,-39.9734,-31.9787,0.9991,52.9655,-0.9991,2.9982,
-2.9982,-0.9991,47.9681,57.9619,15,-18.9876,23.9841,-23.9841,-46.969,-24.9832,-4.9964,47.9681,0.9991,7.9947,
-17.9982,-13.9912,47.9681,62.9584,12.9911,-18.9876,38.9841,-30.9796,-48.9682,-24.9841,0,44.9699,3.9973,0,
-10.4929,-6.4956,57.4619,67.4557,12.4921,-17.4885,50.4663,-30.4796,-38.4743,-28.4814,6.4956,53.4646,6.4956,-7.4947,
-12.9916,-5.996,59.9606,82.4557,7.9952,-19.9862,42.9721,-30.9792,-23.4743,-24.9836,4.9969,68.4646,1.9987,-1.9987,
-27.9916,0,48.9672,97.4557,-7.0048,-27.9814,27.9814,-37.9752,-22.985,-27.9814,0,70.9531,0.9991,2.9973,
-14.9898,12.9916,47.9686,109.9279,-15.9889,-28.98,30.9801,-37.9748,-28.98,-27.9809,1.9987,63.958,4.9969,-1.9987,
-21.9854,5.996,52.965,116.9225,-0.98889,-22.9854,45.9801,-40.973,-22.9854,-30.9801,7.9942,64.957,-5.996,-8.9943,
-9.9929,18.9876,59.9611,111.9265,9.9938,-21.9849,55.9637,-38.9743,-37.9752,-39.9734,7.9947,56.9628,-10.9929,-7.9947,
-9.4938,8.4947,58.461,96.9265,-1.4991,-36.4761,47.469,-43.4717,-52.9752,-38.4753,1.4991,41.9628,3.4973,-12.4921,
-11.992,3.9973,55.9628,100.9336,-3.9973,-51.4761,40.9735,-37.9752,-39.9734,-23.9841,10.9929,26.9628,10.9929,-13.9902,
2.4982,18.9973,65.4566,115.9336,-2.4982,-51.4664,41.4725,-31.4797,-42.4716,-25.4832,10.4929,21.4858,-2.4982,-14.4902,
-12.5018,14.9898,76.9491,130.9336,4.9969,-36.4664,52.965,-35.9766,-47.9686,-28.981,1.9987,36.4858,-1.9987,-8.9943,
-6.9951,19.9872,72.9517,133.9119,8.9943,-21.9854,57.9624,-34.9765,-48.9677,-30.9792,-0.99957,50.9668,0.99957,-2.9978,
-2.9982,20.9858,64.9575,118.9119,2.9982,-32.9788,52.9655,-37.9752,-54.9637,-36.9761,6.9956,35.9668,-4.9964,-10.9929,
-17.988,11.9925,64.957,108.9288,1.9987,-29.9801,54.9642,-45.9694,-46.9685,-36.9757,14.9907,27.9819,-1.9987,-21.9854,
-5.9965,10.9929,58.961,93.9288,0,-44.9801,49.9673,-52.9655,-47.9681,-37.9752,14.9903,24.9832,0,-24.9832,
-5.996,-2.9978,50.9668,78.9288,2.9978,-59.9801,47.9686,-46.9685,-51.9659,-25.9827,29.9903,14.9898,3.9978,-14.9898,
-1.9987,-2.9987,37.9748,64.9571,1.9987,-74.9801,41.9721,-35.9766,-41.973,-20.9863,38.9738,20.9863,3.9969,-15.9898,
-2.4977,0.49955,31.4792,68.4553,-0.49955,-59.9801,41.473,-35.4765,-26.973,-23.4845,43.4712,35.9863,4.4969,-10.4924,
-17.4977,-0.9991,27.9814,74.9504,0.9991,-44.9801,45.9699,-43.9708,-23.9841,-23.9841,36.9752,47.9681,-4.9964,3.9973,
-7.9947,12.9911,28.9805,80.9459,3.9973,-29.9805,41.9716,-44.9708,-38.9841,-26.9823,21.9752,51.9654,-5.9965,-3.9973,
-16.9889,7.9942,38.9738,92.9384,-1.9987,-22.9854,45.9694,-42.9721,-53.9841,-28.981,10.9925,65.9561,1.9987,-9.9934,
-8.9933,19.9872,50.9668,99.935,1.9987,-15.9889,60.9694,-37.9748,-68.9841,-32.9774,10.9934,63.958,-2.9978,-1.9987,
-6.9956,21.9849,43.9708,91.9389,7.9947,-19.9867,63.9575,-39.9744,-83.9841,-39.9744,3.9973,48.958,-10.9929,-3.9973,
-10.4934,23.4845,46.4695,105.4305,-7.0053,-16.4889,48.9575,-28.4809,-79.4473,-26.4827,11.4925,33.958,-5.496,5.496,
0.9991,29.9805,37.9752,101.9327,-22.0053,-30.9796,33.9575,-29.9805,-64.4473,-27.9814,11.992,24.9832,-16.9885,-0.9991,
-4.4974,30.4796,38.4743,108.4283,-9.4938,-15.9796,48.9575,-29.4805,-49.4473,-25.4832,19.4876,39.9832,-4.4974,4.4974,
-19.4974,23.9836,23.9836,93.4283,4.9969,-1.9987,41.9721,-41.973,-64.4473,-40.4832,4.4876,31.9783,-7.9952,-10.5026,
-6.9961,30.9792,36.9757,95.9367,4.9969,-13.9907,42.9712,-37.9757,-64.957,-36.9757,14.9898,26.9818,-5.996,-4.9969,
-13.4907,15.9792,40.473,96.4367,-0.49955,-25.4827,57.9712,-45.4704,-56.4623,-34.4774,19.4872,12.4916,-11.4925,0.49955,
1.5093,30.9792,43.9708,98.9354,6.9956,-25.9832,63.9584,-35.9761,-71.4623,-34.977,4.4872,-2.5084,-5.9955,0,
0.99957,34.9765,57.9615,96.9358,8.9943,-30.9801,64.957,-25.9827,-86.4623,-32.9783,-10.5128,-6.9951,-0.99957,2.9978,
-1.4991,29.4805,56.4628,87.4425,7.4947,-32.4788,72.4522,-31.4797,-99.4345,-43.4717,4.4872,-7.4947,-6.4956,1.4991,
4.4969,29.481,41.4628,81.4464,0.49955,-21.4854,72.4527,-35.4765,-89.4411,-46.4695,15.4898,-4.4969,-6.4951,-0.49955,
-7.9947,28.9814,29.9805,82.9451,0.9991,-8.9938,62.9584,-20.4765,-104.4411,-31.4695,0.48982,10.5031,-0.9991,14.5005,
-4.4964,35.477,27.4823,75.4504,2.4982,-2.4982,48.4681,-21.4858,-112.4256,-31.4787,-6.4956,11.493,-10.4929,10.4929,
-16.9894,20.477,20.9858,75.9495,-3.9973,6.9956,45.9699,-36.4858,-97.4256,-46.4787,4.9964,3.9973,-19.9867,-4.5071,
-7.4951,24.4836,31.4792,80.4464,0.49955,-0.49955,53.465,-38.4748,-100.4341,-44.4713,-1.4996,5.496,-12.4916,3.4978,
7.5049,39.4836,41.9721,71.9526,1.9987,-14.9898,41.9721,-23.4748,-115.4341,-29.4713,-9.9934,-5.996,-1.9987,17.988,
-7.4951,24.9832,36.9752,70.9531,0.9991,-7.9947,38.9743,-30.9796,-100.4341,-28.9814,4.9964,-4.9964,-0.9991,3.9973,
-14.4907,38.4748,32.4783,73.4518,3.4978,-13.4916,47.4686,-36.4766,-85.4341,-39.4739,10.4934,3.4978,-5.4969,-3.4978,
-14.9898,53.4748,29.9801,60.9597,-0.99957,-24.9836,37.9748,-36.9757,-82.9456,-36.9757,2.9978,0.99957,-0.99957,1.9987,
-7.9947,68.4748,27.9814,55.9628,0.9991,-12.9911,29.9805,-30.9796,-76.9496,-26.9823,1.9991,-6.9956,10.9929,-0.9991,
0.99957,83.4748,25.9827,61.9588,0.99957,-9.9934,24.9836,-26.9828,-75.95,-27.9819,-0.99957,-12.9916,1.9987,-1.9987,
-14.0004,98.4748,33.4783,76.9588,-4.4969,-9.4933,21.4863,-24.4836,-68.4544,-23.4845,6.496,-3.4978,3.4978,8.4942,
-6.9951,113.4748,37.9748,83.9447,-2.9978,-11.9925,20.9863,-19.9872,-67.9553,-23.9845,3.9969,-9.9934,2.9978,5.996,
0,128.4748,45.9699,82.946,4.9974,-4.9964,35.9863,-19.9867,-67.9548,-23.9841,0,-2.9973,0,6.9956,
-15,121.9194,46.969,92.9389,-10.0026,-6.9956,33.9779,-34.9867,-69.954,-31.9787,0,12.0027,0,0,
-12.4921,131.4132,51.4664,107.9389,-25.0026,1.4991,24.4841,-48.4681,-71.4531,-40.4734,2.4982,18.4876,-1.4991,-9.4938,
-17.489,124.4181,56.4623,113.4252,-10.0026,16.4889,39.4841,-42.4721,-78.4482,-46.4695,-6.496,7.4951,-9.4943,-9.4943,
-6.9956,126.9168,59.9611,113.9247,4.9974,3.9973,54.4841,-36.9752,-86.9424,-50.9664,-16.9885,11.992,-3.9973,-10.9929,
-1.9987,126.9163,62.9589,119.9207,19.9974,-11.0027,64.957,-41.9721,-87.942,-48.9677,-13.9907,11.9925,1.9987,-11.9925,
-4.4969,123.419,66.4562,116.4234,34.9974,-21.4854,78.4482,-35.4765,-86.4429,-42.4721,-9.4933,4.4969,-6.496,3.0075,
0,108.9283,51.4562,101.4234,26.9823,-31.9787,63.9584,-36.9752,-96.9353,-54.9637,-16.9885,1,-18.9867,0,
-11.9916,93.9283,52.965,90.9402,25.9827,-28.981,56.9624,-35.9766,-93.9375,-45.9694,-4.9969,16,-3.9867,-5.996,
-7.9947,92.9389,53.9646,82.9451,33.9779,-32.9778,65.9566,-34.977,-108.9375,-36.9752,-12.9911,13.9912,2.9982,-2.9982,
1.4991,95.4371,47.469,83.4451,37.4752,-34.477,72.4522,-35.4761,-113.4252,-39.4734,-21.4858,2.4982,-12.0018,-1.4991,
-6.4956,84.4442,51.4664,98.4451,31.4797,-20.4867,59.4611,-30.4796,-98.4252,-34.477,-6.4858,17.4982,-1.4991,1.4991,
-0.99957,81.9455,53.9641,113.4451,25.9827,-19.9872,44.4611,-33.9774,-83.4252,-38.9748,-1.9987,32.4982,0.99957,-4.9969,
-2.4982,72.4522,53.4646,116.423,39.4734,-28.4814,59.4611,-38.4753,-89.4416,-40.4734,-4.4974,35.4761,2.4982,-3.4983,
-0.49955,65.4571,38.4646,101.423,34.4774,-43.4814,62.4588,-45.4704,-103.4313,-49.4677,-16.4889,20.4761,0.49955,-14.4907,
6.9956,66.9557,23.4646,98.9345,29.9805,-39.9734,52.9655,-32.9788,-92.9389,-50.9664,-9.9938,5.4761,4.9964,-4.9964,
-8.0044,51.9557,28.4814,113.9345,28.4814,-24.9734,61.4602,-33.4779,-82.4451,-54.4637,-1.4991,13.4911,1.4991,-4.4964,
-3.4973,61.4593,22.4849,113.4257,38.4743,-19.4867,73.4513,-37.4752,-79.4478,-46.469,-2.4982,28.4911,2.4982,-10.4929,
-6.496,50.4668,7.4849,98.4257,37.4757,-34.4867,58.4513,-39.4739,-81.4464,-38.4748,-17.4982,18.4881,6.496,-10.4934,
-9.4938,45.4699,13.4911,87.4425,32.4788,-47.469,43.4513,-30.4806,-83.4451,-37.4752,-19.4876,16.4884,5.4965,-5.4965,
-6.4956,43.4707,20.4867,93.438,29.4805,-32.469,52.4655,-35.477,-92.4389,-47.469,-14.4902,31.4884,6.4956,-9.4938,
-21.4956,28.4814,12.4921,87.4425,32.4788,-26.4823,56.4628,-48.4681,-85.4433,-54.4637,-12.4921,23.485,16.4894,-16.4894,
-6.4956,43.4814,16.9885,101.9327,39.9734,-29.9805,41.4628,-38.9743,-80.9469,-47.9681,-13.9912,8.485,12.9911,-12.9911,
-1.9987,45.9694,27.9819,116.9327,33.9774,-18.9871,40.973,-32.9783,-95.9469,-37.9748,-23.9845,12.9916,1.9987,-5.996,
-5.4965,44.4708,22.4849,116.4229,26.4823,-21.4858,49.4672,-34.4779,-110.9469,-44.4708,-37.4752,11.492,5.4965,-10.4929,
2.4982,48.4681,9.4938,104.4309,24.4841,-32.4788,43.4717,-34.477,-108.4283,-58.461,-41.4725,-2.4982,8.4947,-16.4894,
-4.4969,49.4668,13.4907,119.4309,30.4801,-17.4788,40.473,-30.4801,-93.4283,-43.461,-26.4725,12.5018,3.4978,-3.4978,
1.4991,54.4637,3.4973,109.4274,27.4814,-25.4832,28.4814,-30.4806,-88.4416,-38.4753,-26.4832,14.4902,-1.4991,-4.4974,
0,39.4637,0,94.4274,26.9823,-40.4832,34.977,-25.9832,-103.4416,-45.9699,-17.9885,1.9982,13.5009,-2.9982,
-4.9974,27.9814,0,87.9415,25.9822,-39.9744,44.9699,-22.985,-96.9367,-36.9761,-24.9841,9.9929,11.992,0,
10.0026,40.473,0.49955,80.4464,24.4836,-36.4766,39.4739,-23.4845,-93.4389,-31.4792,-39.9841,22.4845,-0.49955,-0.49955,
-4.9974,28.4814,2.4982,72.4522,26.4832,-39.4734,38.4753,-28.4814,-107.4292,-39.4734,-46.469,21.4858,5.4965,-2.4982,
-7.9942,25.9827,4.9969,83.9447,31.9792,-32.9783,40.973,-27.9819,-109.9274,-38.9738,-38.9738,23.9845,6.9951,-4.9969,
-4.4969,27.4818,7.4951,98.9447,29.48,-21.4863,38.4748,-32.4792,-94.9274,-38.4748,-50.4668,29.48,4.4969,-13.4916,
-5.4965,38.4753,18.4876,110.4274,36.4761,-6.4956,51.4664,-26.4823,-83.4451,-36.4761,-55.4628,36.4761,5.4965,-8.4938,
5.496,44.4703,14.4907,107.4296,25.4837,-14.4907,43.4712,-25.4837,-98.4451,-44.4703,-64.458,26.4828,-5.496,-11.4925,
-6.496,35.4765,16.4889,119.4217,14.4907,-18.4881,33.4783,-32.4783,-98.4349,-44.4703,-59.4606,17.489,6.496,-6.496,
-1,40.9725,16.9885,124.9177,26.9823,-17.9885,39.9734,-34.977,-83.4349,-57.9619,-57.9619,4.9964,0,0,
8.4942,25.9725,4.4969,109.9177,33.4783,-20.4863,39.4739,-29.48,-98.4349,-63.4579,-72.9619,3.4978,-15,-3.4978,
4.9969,13.9907,8.9943,94.9177,18.4783,-12.9916,29.9801,-18.9881,-113.4349,-48.4579,-68.9544,11.9916,-5.996,-4.9969,
1.9987,22.9845,4.9969,93.9385,3.4783,-17.988,14.9898,-31.9792,-98.4349,-48.9677,-53.9544,8.9943,9.004,-19.9872,
-3.4973,19.4876,5.4965,108.9385,18.4783,-6.4956,29.9898,-31.4797,-83.4349,-53.4646,-38.9544,23.9943,1.4991,-4.9872,
4.9969,15.9889,-0.99957,93.9385,33.4783,-10.9925,29.9801,-24.9836,-82.9456,-47.9686,-45.9694,38.9943,-13.5009,0.99957,
11.9925,14.9907,1.9987,78.9385,18.4783,-24.9836,16.9889,-21.9854,-97.9456,-38.9738,-60.9694,23.9943,-1.9987,-12.9916,
-2.4982,13.4911,4.4974,93.9385,3.4783,-27.4814,20.4867,-18.4876,-89.4411,-40.4734,-53.4646,27.4823,13.0013,-8.4947,
2.4987,16.4889,4.4969,106.4296,3.4978,-27.4818,27.4818,-26.4827,-74.4411,-51.4659,-41.473,42.4823,-1.9987,-8.4942,
-2.9982,2.9982,16.9885,99.9345,17.9885,-12.4818,37.9752,-27.9814,-59.4411,-36.4659,-37.9752,57.4823,-1.9991,0.9991,
-1.9987,-0.99957,1.9987,84.9345,14.9898,-11.9925,22.9752,-19.9872,-74.4411,-32.9783,-52.9752,42.4823,6.9951,0.99957,
13.0013,8.9938,0,72.9513,7.9947,-26.9925,7.9752,-12.9921,-89.4411,-41.9726,-67.9752,27.4823,0,-4.9974,
5.4965,1.4991,15,87.9513,17.4885,-27.4814,22.9752,-23.484,-74.4411,-38.4743,-52.9752,34.4779,-7.4947,-1.4991,
9.9934,0.99957,2.9978,77.9482,21.9854,-35.9766,15.9889,-23.9845,-59.4411,-31.9792,-49.9677,29.9801,-0.99957,-0.99957,
13.4916,-0.49955,-7.4951,69.4544,15.4898,-43.4712,0.98889,-10.4934,-74.4411,-30.4801,-64.457,30.4801,14.0004,3.4978,
10.4929,3.4983,0.50002,70.454,0.48982,-38.4743,1.4991,-14.4902,-89.4411,-43.4717,-63.4584,20.4867,6.4956,-0.50002,
20.4867,8.4947,5.4965,82.446,-5.4965,-29.4805,5.4965,-10.4929,-88.4416,-40.4734,-57.4619,6.4956,-1.4991,1.4991,
7.4947,-3.4983,2.4982,97.446,-2.4982,-24.4841,5.4965,-4.4974,-73.4416,-29.4805,-55.4637,21.4956,2.4982,7.4947,
15.4898,-3.4978,10.4934,99.435,-3.4978,-26.4827,5.4969,-7.4951,-58.4416,-32.4783,-51.4659,36.4956,3.4978,3.4978,
15.9898,-12.9916,19.9872,96.9358,-4.9969,-26.9818,5.996,-6.9951,-56.9624,-26.9818,-47.9686,51.4956,7.9952,4.9969,
19.4872,-9.4943,18.4871,96.4358,-5.4969,-26.4827,4.4969,-3.4978,-59.4611,-16.4889,-59.4611,62.4588,3.4978,15.4898,
33.4783,-4.4969,18.4881,97.4358,4.4969,-27.4818,12.4916,-5.496,-44.4611,-22.4854,-61.4597,67.4553,-5.496,15.4898,
18.4783,-19.4969,12.9911,91.9389,8.9938,-38.9743,3.9973,-17.9885,-29.4611,-27.9814,-52.9655,81.946,2.9982,0.48982,
20.4867,-20.4867,14.4902,91.4398,23.484,-41.4725,-2.4982,-6.4956,-14.4611,-12.9814,-37.9655,79.4478,17.9982,1.4991,
13.4911,-33.4779,6.4956,79.4478,11.492,-53.4646,-6.4956,-7.4947,-8.4947,-16.4894,-22.9655,64.4478,15.4893,7.4947,
9.9929,-36.9761,7.9947,76.9496,-0.9991,-56.9628,0,0,-8.9938,-8.9938,-33.9779,51.9654,7.9947,15.9894,
24.9929,-27.9814,15.9894,81.946,-0.9991,-49.9673,0,0,-14.9903,-13.9902,-48.9779,65.9566,22.9947,4.9964,
9.9929,-42.4721,26.4828,96.946,14.0009,-34.9673,10.4934,-15,-10.4934,-28.9902,-51.4659,80.9566,36.4756,-2.4987,
13.9907,-32.9783,18.9871,97.9358,15.9898,-24.9836,7.9952,-7.9952,-25.4934,-24.9836,-52.965,86.9429,21.4756,9.9934,
28.9907,-26.9818,14.9898,87.942,0.98985,-35.9766,-2.9978,4.9969,-40.4934,-9.9836,-67.965,74.9509,6.4756,23.9845,
13.9907,-41.9818,23.4845,93.4385,-5.496,-20.9766,5.496,-10.0031,-25.4934,-20.4863,-63.4579,89.9509,21.4756,8.9845,
6.4956,-37.4752,24.4841,97.4363,9.4938,-5.9766,15.4893,-25.0031,-10.4934,-34.477,-48.4681,97.4363,6.4756,-5.4965,
6.496,-32.4783,15.4898,94.4376,14.4907,-12.4916,14.4907,-14.4907,-25.4934,-19.4872,-63.4681,85.4438,-6.496,9.5035,
6.496,-36.4756,9.4933,87.442,4.4969,-27.4916,6.496,-16.4889,-40.4934,-26.4827,-78.4681,78.4482,-3.4978,3.4978,
6.9956,-36.9752,24.4933,102.442,5.9965,-12.4916,14.9903,-22.985,-25.4934,-26.9823,-71.9522,93.4482,0.9991,-1.9982,
-3.9973,-39.9734,39.4933,108.9283,-9.0035,2.5084,7.9947,-19.9867,-12.9911,-32.9778,-58.961,99.9345,3.9973,4.9974,
11.0027,-24.9734,44.9708,103.9318,-21.9859,-2.9982,2.9982,-5.9965,-27.9911,-35.9761,-64.9575,84.9345,11.992,12.9911,
4.9964,-39.9734,41.9726,100.9336,-28.9805,-2.9982,2.9982,-19.9867,-12.9911,-28.9805,-65.9566,95.9372,5.9965,7.9947,
3.4973,-52.4655,38.4743,99.4345,-38.4743,4.4974,-1.4991,-21.4858,2.0089,-25.4832,-54.4646,110.9372,-9.0035,1.4991,
12.9921,-48.9672,41.9726,88.9416,-30.9787,-10.5026,2.9982,-9.9929,0,-25.9822,-60.9592,112.9256,0,3.9983,
9.9934,-63.958,56.9726,78.9482,-15.9787,-25.5026,17.9982,-9.9934,-15,-17.988,-71.9526,97.9256,15,17.988,
14.9898,-78.958,58.9615,63.9482,-3.9978,-40.5026,17.988,-22.9845,-21.9854,-21.9854,-65.9561,95.9367,10.9925,3.9978,
-0.010204,-93.958,47.4686,60.4597,11.0022,-55.4632,19.4872,-27.4818,-6.9854,-22.4854,-50.9561,110.9367,6.496,-6.496,
-13.9902,-108.958,32.4686,53.9646,26.0022,-70.4632,8.9938,-36.9752,8.0146,-30.9796,-43.9708,113.9247,11.992,-8.9938,
1.0098,-123.958,23.9845,38.9646,41.0022,-85.4632,1.9987,-35.9756,-6.9854,-32.9783,-58.9708,98.9247,14.9907,-1.9987,
0,-138.958,38.9845,35.9761,50.9664,-100.4632,16.9987,-33.9779,-21.9854,-30.9796,-46.969,90.9398,12.9911,0,
-4.9969,-153.958,53.9845,44.9703,65.9664,-115.4632,31.9987,-39.9739,-6.9854,-34.9775,-31.9792,105.9398,4.9969,-15,
-8.4942,-168.958,65.4571,35.4765,80.9664,-130.4632,24.4836,-38.4748,8.0146,-24.4836,-44.4703,120.9398,8.4942,-14.4907,
-6.9956,-183.8792,60.9592,30.9787,95.9664,-145.4632,9.4836,-33.9779,23.0146,-21.9859,-44.9708,109.9274,14.9893,-3.9973,
-11.9925,-180.8809,75.9592,22.9845,80.9664,-160.4632,9.9934,-39.9739,8.0146,-36.9859,-41.9721,94.9274,8.9943,-5.996,
-9.4938,-188.3756,90.9592,17.4885,95.9664,-175.4632,24.9934,-24.9739,-6.9854,-22.4849,-40.4734,79.9274,23.9943,9.004,
-9.4933,-195.3712,105.9592,3.4978,110.9664,-188.3756,9.9934,-37.4747,8.0146,-18.4881,-48.4677,86.4429,20.4863,-3.4978,
-24.4836,-195.3716,113.4252,11.4925,125.9664,-173.3756,21.4854,-52.4659,23.0146,-28.4809,-33.4677,101.4429,13.4907,-11.4925,
-20.9858,-182.8796,128.4252,3.9973,140.9664,-161.8933,35.9761,-37.4659,38.0146,-27.9814,-18.4677,116.4429,18.9876,-3.9973,
-6.4956,-170.3875,143.4252,-11.0027,155.9664,-176.8933,20.9761,-22.4659,37.4752,-13.4911,-33.4677,101.4429,25.4832,10.4929,
-15.9898,-165.8907,158.4252,-26.0027,151.8995,-177.8832,5.9761,-8.9943,49.9668,-2.9978,-48.4677,108.9278,40.4832,25.4929,
-13.4911,-166.3907,173.4252,-15.4903,150.4008,-162.8832,20.9761,-20.4867,46.469,-17.9978,-43.4717,123.9278,42.4716,13.4911,
-28.4911,-181.3907,188.4252,-1.4991,160.3937,-147.8832,35.9761,-30.4806,61.469,-30.4806,-28.4717,138.9278,27.4716,1.4991,
-31.9792,-196.3907,203.4252,-7.9952,155.8968,-132.8832,31.9792,-20.9863,76.469,-15.4806,-13.4717,153.9278,12.4716,16.4991,
-16.9792,-211.3907,218.4252,-22.9952,140.8968,-147.8832,16.9792,-7.4947,90.4407,-0.48057,-28.4717,152.4,18.4885,31.4991,
-22.9845,-224.8517,233.4252,-20.9863,125.8968,-137.9088,1.9792,-1.9987,91.9393,-0.99957,-43.4717,158.8951,33.4885,36.9757,
-37.9845,-235.3451,248.4252,-5.9863,110.8968,-122.9088,-1.4991,-16.9987,105.43,-15.9996,-58.4717,173.3858,18.4885,21.9757,
-35.9766,-220.3451,263.4252,9.0137,125.8968,-107.9088,13.5009,-22.9854,120.43,-27.9819,-43.4717,188.3858,3.4885,9.9934,
-50.9766,-223.3526,278.4252,24.0137,125.4177,-92.9088,6.4956,-31.4787,113.4257,-42.9819,-58.4717,194.3726,-6.4956,9.4938,
-53.9646,-228.849,293.4252,31.9787,110.4177,-107.9088,-6.9956,-32.9778,98.4257,-48.9672,-73.4717,179.3726,8.5044,6.9956,
-67.4557,-236.3446,308.4252,23.484,95.4177,-117.423,-2.4982,-34.4779,95.4371,-38.4753,-69.4549,164.3726,18.4876,2.4982,
-56.9624,-221.3446,323.4252,38.484,110.4177,-102.423,0.99957,-26.9828,110.4371,-34.9775,-54.4549,179.3726,10.9925,-0.99957,
-47.9681,-222.853,318.7902,53.484,125.4177,-95.9362,2.9982,-29.9805,125.4371,-41.9726,-67.9548,191.8734,15.9894,-2.9982,
-62.9681,-224.8522,310.7955,68.484,117.9221,-88.9416,-0.9991,-33.9779,129.9141,-41.9726,-65.9566,190.8743,0.9991,6.9956,
-47.9681,-209.8522,315.2929,83.484,104.4319,-103.9416,-9.4938,-18.9779,122.4194,-26.9726,-63.4575,203.3663,9.4938,21.9956,
-56.4628,-200.3686,315.2919,98.484,89.4319,-118.9416,-19.4876,-18.4885,122.4185,-11.9726,-73.4522,208.3628,9.4938,24.4831,
-51.9659,-185.3686,330.2919,113.484,104.4319,-117.9221,-4.4876,-17.988,137.4185,-17.988,-58.4522,208.8623,0.99957,20.9863,
-37.9752,-170.3686,344.7734,128.484,119.4319,-102.9221,-0.9991,-11.992,136.9097,-32.988,-66.9557,194.8716,0.9991,15.9894,
-52.9752,-164.8911,329.7734,143.484,116.9234,-87.9221,-15.9991,-17.988,121.9097,-41.9721,-81.9557,190.8748,0.99957,0.98937,
-50.4668,-149.8911,314.7734,158.484,106.4296,-72.9221,-28.4809,-4.4969,117.4225,-35.4765,-79.4473,205.8748,-13.4907,4.4969,
-47.4686,-134.8911,319.2897,173.484,111.427,-57.9221,-33.4774,-6.496,130.4146,-50.4765,-64.4473,213.3597,-28.4907,6.496,
-33.9779,-119.8911,304.2897,188.484,103.9319,-42.9221,-48.4774,-3.9973,115.4146,-58.961,-79.4473,198.3597,-43.4907,3.9973,
-41.9726,-104.8911,289.2897,203.484,88.9319,-27.9221,-63.4774,0.9991,106.9291,-49.9673,-88.9416,201.8672,-28.9805,-0.9991,
-56.9726,-89.8911,289.8092,218.484,94.9376,-12.9221,-55.9633,1.9987,121.9291,-48.9677,-73.9416,216.8672,-37.9748,-1.9987,
-55.9628,-74.8911,274.8092,233.484,79.9376,2.0779,-70.9633,-0.9991,119.9212,-56.9619,-88.9416,231.8672,-52.9748,0.9991,
-66.4566,-66.4566,259.8092,248.484,64.9376,17.0779,-85.9633,-2.4982,104.9212,-51.4664,-103.9416,216.8672,-67.9748,2.4982,
-71.9522,-59.9601,244.8092,263.484,49.9376,32.0779,-100.9633,6.9956,97.9354,-36.9761,-104.9309,202.8663,-75.9505,-6.9956,
-60.9602,-49.9673,247.8371,278.484,34.9376,47.0779,-103.9319,6.9956,112.9354,-47.9681,-89.9309,217.8663,-66.9557,-6.9956,
-72.4517,-58.4615,232.8371,293.484,26.4827,62.0779,-118.4216,0.49955,125.4172,-62.4588,-85.4438,223.3535,-66.4562,-0.49955,
-64.4575,-49.4672,217.8371,308.484,14.4902,77.0779,-128.415,6.4956,130.4141,-48.4681,-87.4425,226.3513,-70.453,-6.4956,
-71.4531,-61.4593,213.3592,323.484,0.50002,92.0779,-125.4177,11.493,129.415,-33.4681,-87.4425,227.3504,-72.4522,-0.50002,
-70.4535,-76.4593,208.3623,338.484,-0.49955,107.0779,-125.4172,11.4925,114.415,-34.4774,-96.4367,212.3504,-71.4536,0.49955,
-56.4628,-79.4478,193.3623,353.484,10.4929,122.0779,-119.4212,16.4894,108.4283,-49.4774,-83.4451,199.369,-64.4575,-10.4929,
-64.457,-79.4473,178.3623,368.484,3.4978,137.0779,-121.4199,23.4845,123.4283,-36.4756,-70.4535,201.3677,-57.4614,-3.4978,
-49.457,-64.4473,175.3845,383.484,-4.4969,152.0779,-118.4226,27.4818,136.4101,-21.4756,-65.4571,205.3641,-55.4642,4.4969,
-45.9699,-49.9673,181.8795,398.484,0,167.0779,-103.4226,24.9832,151.4101,-11.992,-50.4571,220.3641,-54.9637,0,
-47.9681,-63.9575,166.8795,413.484,0,182.0779,-93.938,32.9788,153.8991,-2.9973,-47.9681,235.3641,-49.9673,0,
-34.4774,-61.4597,151.8795,428.484,-0.49955,197.0779,-108.938,36.4766,138.8991,-5.496,-62.9681,220.3641,-47.4686,0.49955,
-49.4774,-66.4566,136.8795,443.484,2.4982,212.0779,-93.938,21.4858,123.8991,-20.496,-64.4575,205.3641,-57.4619,-2.4982,
-37.9743,-51.9655,134.9115,458.484,3.9973,223.8531,-78.938,17.9885,116.923,-22.985,-59.9601,203.8664,-51.9655,-3.9973,
-23.484,-61.4593,125.4177,473.484,2.4982,208.8531,-74.4513,29.4805,111.4265,-11.492,-69.4539,188.8664,-36.9655,-2.4982,
-30.9796,-70.9531,113.9247,488.484,-4.9964,193.8531,-89.4513,41.9726,110.9265,-2.9982,-65.9566,173.8664,-35.9761,2.9982,
-17.488,-64.457,104.4314,503.484,-19.9964,178.8531,-92.4384,42.4721,125.9265,0.49955,-50.9566,188.8664,-50.9761,-0.49955,
-32.488,-79.457,93.938,518.484,-34.9964,163.8531,-82.9451,28.9805,140.9265,2.9982,-35.9566,203.8664,-46.969,-2.9982,
-42.9717,-86.9424,78.938,533.484,-40.9735,163.892,-93.938,28.9805,140.907,-0.9991,-38.9743,218.8664,-48.9682,0.9991,
-28.981,-71.9424,63.958,548.484,-32.9783,158.8951,-95.9367,40.973,126.9163,-2.9978,-36.9757,203.8664,-59.9606,2.9978,
-15.4893,-57.4619,71.4531,563.484,-19.4867,167.3903,-80.9367,47.469,133.4124,-2.4982,-26.4823,193.3725,-44.9606,2.4982,
-1.4991,-53.4646,64.4575,578.484,-18.4876,166.3902,-65.9367,43.4717,118.4124,-8.4938,-37.4752,191.3743,-29.9606,1.4991,
-16.4991,-68.4646,49.4575,593.484,-33.4876,151.3902,-74.9509,32.9783,103.4124,-0.99957,-35.9766,203.8659,-30.9792,0.99957,
-31.4991,-81.446,34.4575,608.484,-48.4681,136.3902,-89.9509,31.4797,118.4124,10.4929,-26.4823,218.8659,-45.9792,-8.4947,
-28.9805,-71.9522,19.4575,623.484,-33.9779,130.9141,-74.9509,32.9788,133.4124,8.9938,-34.977,233.8659,-51.9654,-8.9938,
-36.4756,-85.4438,16.4889,638.484,-36.4756,145.4039,-64.457,27.4818,134.4119,6.496,-40.473,248.8659,-58.4615,-6.496,
-21.4756,-84.4447,10.4934,653.484,-51.4756,130.4039,-74.4509,34.4774,149.4119,11.4925,-25.4837,233.8659,-59.4606,-10.4934,
-22.4849,-87.4425,10.4929,668.484,-57.4619,115.4039,-71.4531,33.4779,151.3999,17.4885,-22.4849,218.8659,-47.469,-10.4929,
-17.988,-75.95,1.9987,683.484,-47.9686,103.9314,-77.9482,33.9774,136.3999,20.9863,-25.9827,231.8473,-42.9712,-1.9987,
-6.9951,-75.95,-13.0013,698.484,-46.9695,110.927,-79.9473,42.9721,141.9066,25.9827,-10.9827,239.842,-43.9712,1.9987,
-21.9951,-90.95,-28.0013,713.484,-53.9646,95.927,-75.9495,34.977,156.9066,15.9894,4.0173,224.842,-39.9734,-9.9938,
-6.9951,-75.95,-17.489,728.484,-38.9646,80.927,-62.4588,46.4695,141.9066,19.4872,0.49955,213.3597,-24.9734,-2.4987,
0,-83.9442,-7.9947,743.484,-24.9832,95.927,-56.9619,41.9726,126.9066,18.9876,-12.9911,218.8566,-20.9858,0,
-9.4938,-96.4367,-16.4894,758.484,-32.4788,96.4362,-55.4637,36.4761,129.415,17.4885,2.0089,231.3477,-35.9858,-2.4982,
-5.996,-89.9407,-31.4894,773.484,-30.9792,102.9323,-58.9606,39.9739,144.415,23.9845,5.996,242.8402,-50.9858,-8.9943,
-12.9911,-88.9416,-36.9761,788.484,-24.9832,117.9323,-60.9602,44.9708,129.415,38.9845,-5.9965,257.8402,-35.9858,5.9965,
-7.9952,-85.9433,-38.9738,803.484,-39.9832,124.9181,-75.9602,38.9748,144.415,32.9783,-6.9951,270.8216,-40.973,6.9951,
-22.9952,-97.4358,-53.9738,818.484,-54.9832,109.9181,-90.4407,30.4796,159.415,26.4823,2.4982,267.3238,-51.4664,-2.4982,
-26.4823,-82.4358,-68.9738,833.484,-69.9832,94.9181,-79.4478,36.4761,144.415,41.4823,-5.4965,256.3309,-36.4761,5.4965,
-13.4911,-67.4358,-83.9738,848.484,-71.4531,79.9181,-82.446,36.4761,129.415,44.4708,-20.4867,255.3318,-38.4753,13.4911,
-28.4911,-52.4358,-78.9482,863.484,-70.9531,64.9181,-83.9447,37.9752,144.415,34.977,-25.9832,261.8273,-50.9664,3.9973,
-42.4721,-37.4358,-93.9482,878.484,-84.4442,49.9181,-82.4455,40.4739,147.4031,30.4801,-40.9832,247.3376,-52.465,-11.0027,
-39.9744,-22.4358,-108.9482,893.484,-96.9363,34.9181,-85.9438,32.9778,132.4031,38.9743,-44.9708,249.8353,-51.9664,-6.9956,
-47.4686,-7.4358,-121.4199,908.484,-98.4349,23.4845,-95.4367,30.4801,142.4066,34.4774,-32.4783,242.3411,-61.4588,-7.4951,
-43.4707,7.5642,-118.4216,923.484,-91.4398,19.4876,-91.4398,26.4832,157.4066,19.4774,-20.4867,227.3411,-60.4602,-17.4885,
-43.9708,10.9929,-111.9261,938.484,-76.9496,33.9779,-76.4398,26.9823,172.4066,24.9832,-12.9911,242.3411,-45.4602,-10.9929,
-28.9708,3.9973,-108.9283,953.484,-75.95,32.9778,-65.9566,38.9743,157.4066,33.9779,-25.9832,234.845,-36.9761,-3.9973,
-22.985,-3.9973,-113.9252,968.484,-83.9447,17.9778,-72.9522,42.9717,142.4066,43.9708,-25.9832,219.845,-37.9752,3.9973,
-37.985,-9.4938,-128.4155,983.484,-93.4385,11.492,-79.4478,41.4725,157.4066,55.4637,-16.4894,216.3575,-45.4699,9.4938,
-22.985,-10.9929,-136.9097,998.484,-89.9407,23.9841,-85.9433,49.9673,172.4066,54.9637,-18.9876,231.3575,-50.9664,10.9929,
-28.9805,-25.9929,-126.9163,1013.484,-74.9407,38.9841,-79.9473,55.9628,176.8831,52.9655,-12.9911,234.845,-35.9664,12.9911,
-21.4858,-18.4885,-117.423,1028.484,-62.4593,53.9841,-78.4487,53.4646,161.8831,54.4637,-10.4929,240.3415,-25.4832,10.4929,
-11.992,-12.9911,-111.9261,1043.484,-56.9624,60.9602,-72.9517,51.9664,147.9026,61.9593,-20.9858,245.838,-30.9796,11.992,
-26.992,-17.4885,-101.4327,1058.484,-57.4619,71.4531,-59.4606,52.4655,138.4088,58.462,-29.4805,231.3477,-41.4725,17.4885,
-17.489,-10.4934,-102.4327,1073.484,-59.4611,75.45,-64.4575,49.4677,127.4164,43.4712,-25.4837,216.3477,-40.473,10.4934,
-20.9868,-12.9911,-110.927,1088.484,-44.9708,86.9424,-66.9562,47.9681,124.9177,44.9699,-10.4837,223.8521,-25.473,8.9938,
-31.4792,-4.4969,-116.4234,1103.484,-39.4739,95.4367,-66.4566,45.4694,111.426,44.4703,-15.4898,230.3482,-30.4801,4.4969,
-27.4818,0.49955,-115.4243,1118.484,-38.4748,97.4358,-70.454,43.4712,114.4243,41.4721,-29.481,215.3482,-45.4801,-0.49955,
-26.4823,-7.4947,-104.4314,1133.484,-32.4788,95.4371,-69.4544,52.4655,122.4194,49.4672,-33.4779,200.3482,-43.4717,7.4947,
-18.4876,-4.4974,-100.4341,1148.484,-35.477,80.4469,-67.4557,54.4637,107.4194,47.469,-48.4681,185.3482,-39.4743,4.4974,
-23.485,-7.4947,-99.4345,1163.484,-32.4788,89.4407,-52.4655,49.4672,99.4345,45.4699,-33.4779,195.3716,-40.4734,7.4947,
-26.9823,-4.9964,-107.9292,1178.484,-32.9788,99.9345,-55.9628,42.9717,114.4345,35.9761,-18.4779,206.8636,-41.9726,4.9964,
-24.9836,-0.99957,-103.9314,1193.484,-41.9721,95.9367,-70.9628,47.9686,122.919,37.9748,-31.9792,198.8685,-40.973,0.99957,
-29.9801,-6.9951,-95.9367,1208.484,-43.9712,97.9358,-66.9557,56.9624,107.919,46.9695,-38.9739,201.8667,-40.973,6.9951,
-16.4889,-3.4978,-103.4318,1223.484,-45.4704,101.4332,-60.4606,48.4677,102.4323,39.4739,-24.4836,216.8667,-43.4712,3.4978,
-23.9841,-8.9938,-93.938,1238.484,-39.9734,112.9256,-49.9673,40.9735,116.923,43.9708,-19.9867,231.8667,-36.9752,8.9938,
-28.4814,-10.4929,-92.4394,1253.484,-34.4779,97.9256,-46.4699,43.4707,111.4265,50.4663,-34.9867,225.3512,-40.4734,10.4929,
-15.9889,-9.9934,-95.9362,1238.484,-33.9774,82.9256,-61.4699,50.9668,109.9279,47.9686,-24.9836,221.8544,-50.9659,9.9934,
-29.48,-21.4854,-88.4416,1225.693,-25.4827,95.4376,-76.4495,51.4659,113.4252,44.4713,-12.4916,235.3455,-47.4686,12.4916,
-20.4863,-7.4951,-92.4389,1210.693,-17.488,97.4358,-61.4495,45.4704,103.4323,35.4765,-27.4916,220.3455,-43.4712,7.4951,
-22.4854,-6.496,-99.4345,1195.693,-22.4854,91.4393,-46.4495,42.4721,112.4261,35.4765,-22.4854,205.365,-40.473,6.496,
-20.9863,-10.9925,-93.938,1180.693,-24.9836,89.9412,-59.9606,52.965,124.9181,50.4765,-8.9943,220.365,-40.973,8.9943,
-6.9956,-8.9938,-93.938,1165.693,-21.9859,82.9451,-61.9593,55.9628,119.9212,62.9584,-17.9885,231.8478,-44.9699,6.9956,
-21.9956,-15.9889,-106.9296,1150.693,-24.9836,84.9438,-46.9593,42.9721,121.9199,47.9686,-5.996,216.857,-43.9712,5.996,
-27.4818,-7.4951,-112.4256,1135.693,-35.4765,86.4438,-61.9593,40.4739,114.4252,32.9686,-0.49955,213.3597,-47.4686,0.49955,
-14.4907,-7.4951,-105.431,1120.693,-30.4801,75.45,-76.9593,51.4659,105.4305,44.4703,-8.4942,214.3588,-35.4765,7.4951,
-20.4863,-11.4925,-111.4265,1105.693,-31.4792,60.45,-61.9593,53.465,109.4278,59.4703,-16.4889,209.3623,-36.4756,11.4925,
-15.4893,-6.4956,-116.4234,1090.693,-30.4796,67.4557,-52.4655,48.4681,119.4212,55.4637,-19.4876,210.361,-49.4672,6.4956,
-27.9823,-15.9894,-115.9239,1075.693,-28.9814,78.9477,-67.4655,44.9699,114.9238,46.969,-11.992,219.8548,-43.9717,11.992,
-20.9858,-14.9903,-127.9154,1060.693,-43.9814,63.9477,-66.9557,42.9717,99.9238,39.9734,-7.9947,207.8627,-43.9708,7.9947,
-16.4894,-20.4867,-129.4145,1045.693,-39.4743,48.9477,-51.9557,42.4716,114.9238,39.4743,-0.50002,205.3645,-40.4734,0.50002,
-31.4894,-32.4783,-133.4119,1030.693,-27.4818,49.4677,-54.4641,41.473,129.9238,50.4668,2.4987,219.3552,-40.473,-2.4987,
-25.9827,-23.9845,-148.4119,1015.693,-36.9757,34.4677,-69.4641,39.9739,130.9137,56.9624,2.9978,228.849,-51.9659,-2.9978,
-40.9827,-34.4774,-162.3933,1000.693,-51.9757,26.4827,-84.4641,36.4756,115.9137,45.4694,0.49955,220.3543,-54.4641,-0.49955,
-37.9752,-29.9805,-161.8933,985.693,-49.9673,41.4827,-76.9491,49.9673,100.9137,35.9761,-3.9973,205.3543,-44.9699,3.9973,
-27.4818,-28.4809,-160.3942,970.693,-43.4712,52.465,-81.4464,53.465,85.9137,43.4712,-2.4987,204.365,-41.473,2.4987,
-30.9796,-31.9787,-145.3942,955.693,-38.9743,47.9681,-73.9513,42.9717,100.9137,44.9699,0.9991,213.8592,-51.9654,-0.9991,
-15.9796,-16.9787,-130.3942,940.693,-23.9743,55.4632,-58.9513,50.4668,109.4278,39.4739,4.4969,209.3623,-46.4695,-4.4969,
-26.9823,-19.9867,-116.923,925.693,-28.9814,54.9637,-58.9615,55.9628,101.9327,43.9708,3.9973,206.8637,-37.9752,-3.9973,
-41.9721,-24.9836,-131.9132,910.693,-43.9814,39.9637,-73.9615,43.9712,105.9305,45.9694,2.9978,204.865,-52.9752,-2.9978,
-36.9757,-26.9828,-127.9159,895.693,-56.9624,27.9819,-88.9615,32.9783,113.9252,31.9792,4.9969,196.8703,-65.9566,-4.9969,
-41.4725,-32.4788,-125.4177,880.693,-41.9624,42.9819,-73.9615,40.4734,116.4229,18.4876,5.4965,203.3654,-56.4628,-5.4965,
-26.4725,-17.488,-135.4106,865.693,-26.9624,54.4641,-58.9615,51.4659,109.4278,10.4934,7.4951,212.3606,-45.4694,-7.4951,
-41.4725,-25.4832,-135.411,850.693,-40.4734,44.4708,-67.4557,45.4699,96.4362,6.4956,8.4938,201.3672,-49.4672,-6.4956,
-53.9646,-26.9823,-126.9163,835.693,-55.4734,34.977,-82.4557,40.9725,98.9345,7.9947,6.9956,189.8752,-59.9601,-6.9956,
-38.9646,-25.9837,-123.9186,820.693,-65.9571,19.977,-95.9372,42.9712,113.9345,13.9907,13.9907,204.865,-55.9633,-13.9907,
-30.9796,-32.9778,-117.9221,805.693,-50.9571,4.9964,-80.9372,43.9708,116.923,24.9832,15.9894,213.8592,-42.9717,-4.9964,
-19.4876,-20.4867,-110.4274,790.693,-35.9571,-2.4982,-65.9372,49.4672,101.923,23.484,15.4893,198.8592,-43.4717,2.4982,
-28.4809,-23.4845,-109.4278,775.693,-20.9571,5.496,-50.9372,46.4695,116.4234,20.4863,24.4836,188.3756,-40.473,-5.496,
-22.4849,-14.4902,-109.4278,760.693,-18.4876,9.4938,-49.4677,44.4708,115.4239,21.4858,13.4911,201.3672,-33.4779,-9.4938,
-7.4849,-2.4982,-101.4327,745.693,-7.4947,-5.5062,-47.4686,57.4629,100.4239,33.4779,-1.4991,186.3672,-40.473,4.4974,
-11.492,-17.4885,-98.4349,730.693,-5.4965,-20.5062,-41.4725,56.4628,85.4239,37.4752,5.4965,171.3672,-50.4663,13.4911,
-7.4951,-7.4951,-95.4371,715.693,-0.49955,-9.4933,-35.4765,44.4713,100.4239,22.4752,15.4898,181.381,-49.4672,0.49955,
-20.9863,-13.9907,-104.9309,700.693,-0.99957,0.99957,-25.9827,31.9792,85.4239,9.9934,11.9925,182.8801,-46.9685,-14.5005,
-14.4907,-11.4925,-106.4301,685.693,1.4986,-3.4978,-11.4925,46.9792,88.442,24.9934,19.4872,190.3747,-33.4783,-1.4986,
0.50928,-2.9987,-109.9279,670.693,-13.5014,-18.4978,-26.4925,54.9632,95.9367,27.9809,11.9916,185.8774,-36.9757,-0.99957,
-6.496,-0.49955,-101.4332,655.693,-14.4907,-3.4978,-37.4757,54.4641,93.4385,30.4801,17.488,179.3818,-37.4757,0.49955,
-1.4996,0.49955,-113.4257,640.693,-7.4951,-0.49955,-36.4766,46.4695,78.4385,20.4863,5.496,164.3915,-48.4686,-14.5005,
1.9982,-2.9982,-111.9265,625.693,-4.9974,0.9991,-37.9752,49.9673,66.9557,26.9823,-0.9991,179.3915,-38.9743,-3.9973,
-10.4934,-2.4987,-110.4274,610.693,-14.4907,-2.4987,-42.4721,55.4632,81.9557,41.9823,2.4987,194.3915,-37.4752,11.0027,
-7.4951,1.4986,-125.4274,595.693,-18.4881,-12.4916,-44.4703,44.4703,96.9557,37.4757,-1.4986,196.3703,-50.4668,2.4987,
-10.9929,-3.9973,-112.9256,580.693,-3.4881,2.5084,-29.4703,42.9717,82.9451,28.9814,-2.9982,194.8716,-42.9717,-2.9982,
-5.9965,0,-101.9332,565.693,0,5.9955,-19.9877,43.9708,67.9451,18.9867,-12.9921,181.8795,-46.969,-8.9947,
-4.4969,5.4969,-104.4309,550.693,-6.4951,-0.49955,-33.4774,43.4712,82.4455,27.4818,0.49955,186.3774,-47.4686,-8.4942,
-13.4911,1.4991,-99.4345,535.693,-3.4973,9.4938,-38.4743,41.4725,69.4549,32.4788,-1.4991,193.3725,-47.4681,-3.4973,
-1.4991,2.4982,-93.4389,520.693,-1.4991,1.4991,-29.4805,43.4707,54.4549,25.4832,-16.4991,185.3778,-43.4717,-2.4982,
-8.4938,-2.4982,-105.43,505.693,12.4921,-3.4973,-14.4805,50.4673,69.4549,34.4779,-3.4973,198.3699,-28.4717,2.4982,
-4.4969,-5.496,-120.43,490.693,4.4969,-18.4973,-29.4805,40.473,84.4549,31.4792,11.5027,183.3699,-30.4801,-7.4951,
4.4969,-4.4969,-123.4185,475.693,-6.496,-33.4973,-44.4805,40.473,99.4549,38.4748,26.5027,168.3699,-30.4801,-4.4969,
-5.9955,-6.9946,-108.4185,460.693,0,-48.4973,-35.9761,55.473,114.4549,52.9655,38.9743,177.8832,-21.9854,0,
-1.4991,-9.4938,-123.4185,445.693,1.4991,-39.4743,-34.477,50.4663,101.4327,41.4725,23.9743,170.3875,-34.477,-13.4911,
-7.4947,-8.4947,-126.4168,430.693,4.4974,-24.4743,-32.4788,42.4716,111.4265,37.4752,8.9743,178.3822,-32.4788,-4.4974,
-6.496,-0.49955,-127.4159,415.693,0.49955,-38.4748,-47.4788,39.4739,97.4358,32.4783,3.4978,168.3889,-46.4695,-7.4951,
3.4978,-3.4978,-124.4181,400.693,6.496,-36.4756,-42.4721,42.4721,82.4358,34.4774,-11.5022,166.3907,-52.4655,-10.4934,
-1.4991,-8.4947,-109.4181,385.693,17.4885,-21.4756,-27.4721,43.4707,89.4407,42.4716,1.4991,181.3907,-37.4655,-1.4991,
-1.4991,-4.4974,-121.4203,370.693,2.4885,-27.4823,-29.4805,33.4779,76.4495,27.4716,10.4929,180.3804,-41.4725,-15.4903,
-4.4974,-10.4929,-126.4168,355.693,4.4974,-29.4805,-32.4788,43.4717,61.4495,23.484,4.4974,166.3902,-44.4708,-12.4921,
3.4978,-3.4978,-114.4243,340.693,19.4974,-14.4805,-17.4788,46.4695,71.4536,38.484,-4.4969,181.3902,-39.4739,-6.4951,
2.4982,-2.4982,-110.4269,325.693,8.4947,-11.492,-9.4938,31.4695,78.4487,33.4779,-8.4938,190.3752,-45.4699,-12.4921,
-4.4974,-1.4991,-103.4318,310.693,-4.4974,-14.4902,-18.4876,38.4743,82.446,45.4699,6.5062,193.3725,-31.4787,1.4991,
-0.49955,-5.4969,-118.4221,295.693,6.496,-29.4902,-32.4783,38.4748,67.446,40.473,0.49955,181.38,-32.4783,-9.4943,
-7.9947,-8.9947,-118.9221,280.693,21.496,-28.9814,-18.9876,31.9787,71.9522,42.9717,2.9982,195.8707,-27.9814,-2.9982,
-15.4903,-15.4903,-133.9221,265.693,16.4894,-19.4876,-18.4876,24.4841,70.453,40.4734,3.4973,190.3743,-39.4743,-3.4973,
-2.9978,-14.9907,-148.9221,250.693,2.9978,-30.9801,-9.9934,32.9783,70.9535,38.9738,15.9889,184.8783,-38.9748,-10.9925,
-17.9978,-20.4863,-142.4062,235.693,10.4934,-38.4748,-10.4934,29.481,68.4553,28.4809,15.4898,185.3783,-40.473,-16.4889,
-15.9894,-5.4863,-132.9123,220.693,9.9938,-35.9761,-21.9859,26.9823,56.9628,22.985,0.48982,176.8841,-53.9646,-13.9902,
-8.4938,-2.4982,-131.4132,205.693,15.4903,-31.4787,-7.4947,33.4779,64.4575,37.985,2.4982,185.3778,-40.4734,-7.4947,
-14.4907,-14.4907,-138.4088,190.693,19.4872,-46.4787,-7.4951,30.4801,68.4553,40.4739,7.4951,186.3774,-31.4792,-15.4898,
-5.996,-9.9934,-139.9079,175.693,13.9907,-61.4787,-22.4951,25.9827,64.9571,25.4739,5.996,171.3774,-44.9703,-26.9818,
-3.4978,-1.4986,-124.9079,160.693,28.9907,-46.4787,-9.4933,40.9827,79.9571,40.4739,20.996,168.3889,-29.9703,-11.9818,
-4.9969,-1.9987,-131.9132,145.693,36.9757,-54.9637,1.9987,41.9721,76.9491,55.4739,17.988,174.8844,-17.988,-8.9943,
-14.9898,-5.996,-123.9181,130.693,37.9748,-57.9619,5.996,30.9801,86.9429,45.9694,20.9863,186.8774,-30.9792,-15.9898,
-17.488,0.49955,-108.9181,115.693,45.4704,-42.9619,-4.4969,32.4792,91.4403,39.4739,29.481,187.3765,-27.4818,-8.4942,
-9.4938,9.4938,-110.4274,100.693,52.4655,-28.4814,-19.4969,29.4805,76.4403,41.4725,19.4867,173.3858,-24.4841,-13.4911,
-21.9859,4.9964,-95.4274,85.693,63.9575,-22.985,-7.9947,27.9814,86.9424,55.9628,18.9876,188.3858,-21.9859,-10.9929,
-19.4867,-0.50002,-94.4376,70.693,54.4637,-37.4752,2.4982,22.4849,76.4495,40.9628,3.9876,176.384,-36.9859,-25.4832,
-5.996,-1.9987,-109.4376,55.693,65.9561,-40.973,1.9987,25.9827,66.9562,28.981,6.9951,165.8907,-37.9748,-18.9881,
-9.9938,6.9956,-104.9309,40.693,57.9619,-34.977,-13.0013,27.9814,81.946,42.9717,21.9951,180.8907,-25.9832,-6.9956,
-12.9916,12.9916,-89.9412,25.693,42.9619,-49.977,-28.0013,19.9862,76.9491,44.9703,13.9907,187.8765,-40.9832,-20.9863,
-13.4916,4.4969,-84.4447,10.693,57.9619,-61.4597,-13.0013,23.4845,76.4491,59.4606,22.4854,199.3685,-34.4774,-12.4916,
-15.9898,-4.9969,-99.4447,-4.307,72.9619,-76.4597,1.9987,8.4845,62.9589,44.4606,8.9943,184.3685,-29.9801,-17.988,
-11.992,0,-88.9416,-19.307,79.9478,-89.9407,0,2.9982,58.961,37.9752,4.9964,171.8867,-22.985,-19.9867,
-10.9934,-8.9943,-78.9482,-34.307,92.9384,-104.9407,14.9898,8.9943,43.961,42.9712,8.9943,175.8835,-24.9836,-21.9854,
0.49955,-15.4898,-87.4425,-49.307,107.9384,-119.9407,29.9898,0.49955,28.961,29.481,-0.49955,162.3933,-32.4783,-30.4801,
0,-5.9965,-72.4425,-64.307,115.9229,-107.9292,44.9898,11.992,38.9743,33.9769,0,156.8964,-20.9868,-15.4801,
-0.99957,0.99957,-73.9513,-79.307,102.9323,-112.9256,37.9748,13.9907,26.9818,22.9845,-13.9907,141.8964,-34.9765,-18.9871,
6.9951,-9.9934,-70.9535,-94.307,108.9278,-125.9172,41.9721,9.9934,18.9871,22.9845,-6.9951,127.9154,-23.9845,-28.981,
2.4987,-22.4854,-65.4571,-109.307,107.4287,-126.4168,36.4756,11.4925,33.4774,36.4756,-2.4987,130.4136,-8.9845,-24.4836,
11.4925,-11.4925,-80.4571,-124.307,99.435,-136.4097,21.4756,15.4898,30.4801,34.4774,-17.4987,118.4226,-23.4845,-24.4836,
1.9987,-15.9898,-95.4571,-139.307,100.9331,-139.9084,27.9809,14.9898,34.9765,32.9783,-2.4987,128.9145,-34.9775,-18.9881,
-2.9982,-20.9858,-101.9327,-154.307,91.9398,-151.9,24.9832,8.9938,36.9761,26.9823,2.9982,120.9203,-29.9805,-23.9841,
10.9925,-10.9925,-101.9327,-163.892,98.9349,-146.903,10.9925,17.988,21.9854,30.9792,-10.9925,105.9203,-22.9845,-27.9819,
7.4951,-9.4943,-91.4398,-166.3907,113.4252,-133.4124,17.488,25.4827,10.4934,39.4739,-7.4951,111.426,-24.4836,-21.4863,
4.9964,-16.9894,-91.9393,-181.3907,98.4252,-148.4124,10.9929,10.4827,11.992,25.9832,-4.9964,112.9256,-29.9805,-22.985,
-3.9973,-17.9885,-83.9447,-182.8796,99.9345,-141.9066,25.9832,7.9947,26.992,40.9832,3.9973,127.9256,-14.9805,-7.985,
2.4982,-5.4965,-84.4447,-175.3845,114.9345,-126.9066,40.9832,18.4876,41.992,54.4637,-2.4982,142.9256,-13.4911,-8.4947,
11.992,-11.992,-90.9402,-174.8849,104.9309,-111.9066,29.9805,13.9902,26.992,39.4637,-17.4982,150.9009,-28.4911,-22.985,
1.9987,-20.9863,-75.9402,-161.8928,106.9296,-104.9305,31.9792,20.9863,29.981,28.981,-2.4982,149.9013,-15.9889,-10.9925,
0.49955,-19.4872,-71.4531,-176.8928,105.4305,-119.9305,35.4765,16.4889,32.4783,33.4774,-0.49955,134.9013,-13.4916,-22.4854,
2.4982,-29.4805,-73.4513,-191.8928,110.4274,-126.4163,37.4752,10.4929,22.4849,28.4814,-2.4982,119.9013,-21.4858,-29.4805,
8.4942,-26.4827,-77.4491,-205.365,119.4207,-119.4217,32.4783,17.488,7.4849,14.4898,-3.4978,107.4287,-21.4863,-19.4872,
23.4942,-11.4827,-62.4588,-204.3654,129.415,-112.4256,47.4783,24.4841,1.4991,20.4867,-1.4991,117.423,-13.4911,-10.4929,
8.9943,-12.9916,-47.4588,-200.8672,131.9137,-105.93,62.4783,12.9916,11.9925,30.9801,-8.9943,132.423,-14.9898,-19.9862,
23.9943,-2.4982,-49.4677,-199.369,135.4106,-106.4301,57.4619,20.4867,2.4982,33.4779,-10.4929,131.4132,-14.4902,-23.485,
33.9774,4.9969,-63.958,-214.369,127.9154,-112.9256,42.4619,32.9783,-10.9925,39.9739,-4.9969,116.4132,-14.9898,-10.9925,
18.9774,-5.4965,-67.4553,-229.369,115.4239,-118.4221,27.4619,26.4823,4.0075,41.4725,-9.4938,123.4185,-20.4867,-12.4921,
16.9885,-8.9938,-72.9517,-243.8393,121.9194,-123.9181,17.9885,11.4823,16.9885,26.9823,-15.9894,129.9141,-28.9805,-26.9823,
10.4934,-7.4951,-65.4566,-230.3477,135.411,-108.9181,32.9885,7.4951,20.4872,34.4774,-7.4951,135.411,-27.4818,-13.4907,
13.4911,-2.4982,-62.4593,-245.3477,120.411,-103.4323,42.4716,8.4938,5.4872,33.4779,-17.4885,137.4088,-38.4753,-12.4921,
14.4902,-10.4929,-65.4571,-260.3477,105.411,-118.4323,36.4761,12.4921,9.4938,32.4788,-9.4938,145.4044,-28.4814,-13.4911,
-0.50975,-21.4863,-80.4571,-275.3477,103.4313,-133.4323,24.4836,8.4942,24.4938,35.4765,2.4987,131.4137,-16.4889,-19.4872,
8.9943,-10.9925,-88.9411,-290.3477,103.9314,-137.9093,17.988,5.996,24.9836,31.9792,-5.996,122.919,-21.9854,-31.9792,
3.9973,-11.992,-73.9411,-275.3477,108.9283,-122.9093,22.985,10.9929,19.9867,30.9796,-3.9973,137.919,-18.9876,-22.985,
9.9934,-5.996,-75.95,-277.8167,105.9305,-112.9256,9.9934,13.9907,5.996,29.9801,-8.9943,151.9004,-21.9854,-15.9898,
15.9894,-3.9973,-74.9509,-289.8092,108.9283,-116.923,3.9973,16.9885,6.9956,40.9725,-17.9885,136.9097,-16.9894,-20.9868,
11.492,-10.4929,-64.4575,-289.3097,117.422,-110.4274,9.4938,21.4858,20.4867,41.4725,-14.4902,134.4115,-9.4938,-16.4894,
26.492,-1.9987,-74.9509,-302.8003,115.9234,-120.9203,1.9987,24.9836,6.9951,32.9783,-9.9934,119.4115,-22.9845,-9.9934,
29.9801,0.99957,-75.95,-300.8021,113.9252,-106.9296,16.9987,31.9792,-4.9969,45.9694,-2.9978,113.9252,-17.988,-0.99957,
22.9845,1.9987,-67.9558,-298.8035,107.9287,-99.9345,27.9809,32.9783,-11.9925,43.9703,-4.9969,128.9252,-4.9969,-1.9987,
28.981,-4.9969,-68.9544,-302.8003,103.9314,-108.9278,12.9916,20.9863,3.0075,34.9775,-6.9951,137.9093,-11.9916,-15.9889,
13.981,-10.9925,-79.9473,-299.8026,102.9323,-97.9354,6.9951,11.9925,15.9898,37.9748,-6.9951,144.9048,-26.9916,-18.9871,
11.493,-2.4982,-93.4385,-311.2946,98.4354,-89.4411,2.4982,15.4903,5.4965,33.4779,-9.4938,156.3973,-23.484,-12.4921,
11.492,-17.4982,-91.4398,-326.2946,92.4389,-96.4367,-11.493,20.4867,20.4965,37.4752,1.4991,164.392,-8.484,-1.4991,
16.9885,-21.9859,-83.9447,-341.2946,84.9442,-111.4367,-17.9885,14.9903,35.4965,40.9725,8.9938,149.392,-11.992,-8.9938,
12.9911,-22.985,-96.9363,-356.2946,85.9433,-126.4367,-2.9885,0.9991,31.9787,28.9805,1.9982,134.392,-24.9841,-23.9938,
-1.9987,-34.9765,-111.9256,-371.2946,92.9394,-137.9088,11.9925,7.9952,21.9863,32.9783,1.9987,128.9155,-14.9898,-17.988,
13.0013,-24.4841,-105.4305,-383.2477,90.4407,-135.411,-1.4991,20.4867,22.4849,41.4725,1.4991,132.4123,-1.4991,-12.4921,
7.9942,-32.9783,-95.9372,-378.7508,83.9447,-120.411,-1.9987,7.9942,35.9756,35.9756,1.9987,146.903,-2.9987,-14.9907,
-2.4982,-30.4806,-98.4354,-379.2503,82.4451,-109.4283,5.4965,2.4982,41.4725,38.4743,10.4929,152.399,-14.4912,-17.4885,
5.496,-24.4836,-107.4292,-390.2428,74.4509,-124.4283,-2.4987,2.4987,26.4725,34.4774,6.496,137.399,-21.4863,-25.4837,
1.9991,-25.9822,-92.4292,-375.2428,75.9505,-113.9247,0.9991,8.9947,11.4725,32.9788,6.9956,122.399,-7.9947,-18.9876,
16.4894,-15.4893,-81.4464,-363.2605,73.4513,-109.4278,-4.4974,8.4947,24.4841,26.4823,4.4974,107.399,-8.4947,-24.4841,
7.9947,-25.9832,-87.942,-368.757,67.9548,-118.9216,-4.9964,4.9964,39.4841,32.9778,15.9894,120.9203,-7.9947,-21.9859,
1.4991,-32.4788,-96.4367,-380.2494,63.4584,-128.4155,-1.4991,9.4938,48.4681,47.9778,19.4867,127.4159,-7.4956,-12.4921,
16.4991,-23.9845,-94.9376,-390.7428,66.9562,-130.9137,-4.9969,11.9925,33.9774,54.9642,4.9969,119.9207,-16.9889,-14.9898,
7.4951,-36.4761,-86.4429,-396.2388,69.4544,-119.4212,-2.4987,6.496,27.4818,39.9642,2.4987,114.4243,-15.4898,-24.4836,
9.9929,-36.9761,-86.9429,-400.7362,65.9566,-110.927,-4.9964,5.9955,31.9787,24.9642,4.9964,108.9283,-8.9947,-29.9805,
7.4947,-42.4726,-85.4443,-395.2402,62.4584,-111.427,-5.4965,6.4956,46.9787,34.477,5.4965,118.4221,-9.4938,-22.4859,
0,-51.9664,-77.9491,-388.7442,59.9601,-103.9318,7.9947,0,40.9725,44.9699,0,130.9132,-16.9894,-22.985,
10.9925,-42.9721,-83.9447,-394.7402,63.958,-90.9403,16.9889,-0.99957,27.9819,30.9792,0.99957,134.911,-14.9907,-22.9854,
-2.9982,-47.9686,-98.9447,-405.7331,68.9539,-87.9425,3.9973,2.9982,32.9778,35.9761,12.9911,143.9053,-5.9965,-7.9947,
3.9973,-44.9703,-112.9256,-410.7291,65.9566,-85.9433,-6.9956,6.9956,25.9832,46.969,11.992,145.9044,-5.9955,-3.9973,
4.4974,-56.4628,-120.4208,-411.2291,50.9566,-84.4442,-2.4982,2.4982,13.4911,42.4726,7.4956,142.4062,-9.4938,-11.492,
-0.49955,-68.4544,-125.4172,-426.2291,41.473,-99.4442,0.49955,3.4978,17.489,32.4792,9.4943,132.4128,-12.4916,-12.4916,
14.5005,-57.4619,-121.4199,-441.2291,49.4672,-114.4442,-14.4902,10.4929,27.4823,38.4753,15.4903,117.4128,-12.4911,-10.4929,
3.4978,-59.4611,-108.4287,-430.2167,58.4615,-108.4287,-13.4916,9.4933,29.48,51.4659,19.4872,117.4225,-3.4978,-10.4934,
-3.9978,-57.9619,-97.9354,-422.7216,46.9695,-101.9327,1.5084,3.9978,14.48,36.4659,9.9934,114.9243,-15.9898,-23.9845,
-5.496,-57.4624,-84.4442,-417.2251,37.4757,-95.4371,16.5084,5.496,27.4818,21.4659,5.496,125.4172,-22.4854,-24.4836,
-6.9951,-54.9637,-80.9469,-402.2251,46.9695,-80.4371,3.9978,16.9889,42.4818,36.4659,17.988,140.4172,-7.4854,-9.4836,
8.0049,-54.9637,-92.9384,-400.7357,45.9704,-82.9451,-11.0022,7.9952,27.4818,39.9739,6.9961,147.9031,-5.996,-17.988,
0.9991,-64.9575,-81.946,-415.7357,58.961,-85.9438,3.9973,-0.9991,12.4818,27.9814,5.9955,132.9031,-5.9965,-24.9841,
0,-62.9589,-80.9469,-420.7234,62.9584,-88.9421,5.9955,0,27.4818,33.9769,8.9938,117.9031,-11.993,-20.9868,
11.4925,-56.4628,-87.4425,-414.2273,52.465,-98.4354,-6.496,7.4951,28.4809,48.9769,6.496,117.4225,-10.4934,-17.489,
-3.5075,-60.9597,-87.942,-425.7193,50.9664,-100.9336,4.9964,3.9973,13.4809,40.9725,5.9965,116.923,-3.9973,-20.9858,
1.9987,-62.9584,-83.9442,-437.7114,54.9642,-96.9358,3.9978,-1.9987,8.9943,25.9725,7.9952,101.923,-13.9907,-34.9765,
1.9987,-59.9606,-69.954,-422.7114,55.9633,-81.9358,-1.9987,6.9951,4.9969,30.9792,11.9925,101.9332,-13.9907,-23.9845,
0,-44.9606,-65.9566,-407.7114,55.9628,-67.9553,-7.9947,9.9929,0,36.9752,2.9973,110.9265,-1.9991,-8.9845,
0.99957,-29.9606,-79.9473,-415.726,58.9615,-78.9477,-10.9925,0.99957,6.9951,26.9818,-0.99957,99.934,-1.9987,-17.988,
-14.0004,-14.9606,-75.45,-412.2282,59.4606,-64.4575,-0.49955,0.49955,7.4951,26.4827,2.4987,93.4385,-13.4907,-29.48,
-5.4965,0.03939,-60.45,-397.2282,57.4619,-49.4575,3.4973,2.4982,5.4965,26.4823,-2.4982,95.4371,-13.4911,-22.4849,
-8.9947,15.0394,-45.45,-382.2282,57.9619,-63.958,2.9982,-5.9965,20.4965,27.9814,11.992,96.9363,-2.9982,-11.992,
-11.493,28.4805,-60.45,-382.2486,54.4637,-78.958,2.4982,-2.4982,31.4787,31.4787,19.4867,102.4318,-8.4947,-20.4867,
-1.9987,24.9836,-60.9597,-383.7468,52.965,-63.958,-3.9969,1.9987,25.9837,29.981,8.9943,110.927,-16.9889,-23.9836,
-6.4956,21.4858,-45.9597,-368.7468,60.4602,-48.958,-3.4973,3.4973,35.477,32.4788,21.4858,117.423,-4.4974,-12.4921,
-0.49955,23.4845,-49.4677,-383.7468,53.4641,-54.4646,-9.4943,0.49955,20.477,24.4836,17.488,102.423,-10.4934,-19.4872,
-1.9991,16.9885,-46.9695,-386.7455,56.9619,-69.4646,0,8.9938,5.477,31.9787,2.488,87.9415,-10.9929,-13.9912,
-6.9951,13.9907,-31.9792,-371.7455,53.9641,-54.4646,2.9978,3.9969,10.9925,32.9783,-8.9943,95.9367,-2.9978,-15.9898,
-1.9987,16.9889,-43.9712,-357.7645,50.9659,-39.4646,1.9987,-3.9978,25.9925,21.9854,6.0057,105.9296,-1.9987,-21.9854,
-16.9987,3.9973,-57.961,-361.7614,57.9619,-35.9761,4.9974,-6.9946,35.977,22.985,20.9868,118.9221,-3.9973,-15.9894,
-11.492,10.4929,-56.4628,-376.7614,60.4602,-42.4716,4.4974,-4.4974,20.977,25.4832,8.4947,107.4292,-11.492,-21.4858,
-10.4929,7.4947,-48.4681,-383.2477,55.4637,-36.4761,10.4929,-7.4947,22.4849,24.4841,14.4902,103.4318,-14.4902,-23.485,
-10.4934,3.4978,-54.4641,-371.2557,48.4677,-37.4757,12.4916,-3.4978,37.4849,29.481,23.4845,116.4234,-5.496,-11.4925,
0,6.9946,-69.4641,-386.2557,37.9743,-49.9677,-2.5084,0,23.9841,37.9743,12.9911,112.9256,-5.9965,-13.9912,
-15,0.50002,-67.4557,-385.2464,41.4725,-34.9677,-10.4929,1.4991,36.4761,50.4663,20.4867,127.4159,-0.50002,-9.4938,
-10.4934,3.4978,-63.4584,-374.2534,46.4695,-22.4854,4.5071,-3.4978,51.4761,39.4739,22.4854,130.4136,-5.496,-8.4942,
0.50002,-0.50002,-59.4611,-372.2548,56.4628,-32.4788,19.4867,-3.4973,50.4663,35.477,20.4867,125.4177,-6.4956,-14.4902,
-9.4938,-5.4965,-58.462,-378.2512,53.4646,-31.4797,13.4911,5.4965,46.469,43.4707,18.4876,123.4185,-5.4965,-17.4885,
-5.996,4.9969,-61.9593,-380.7495,40.973,-31.9792,-1.5089,1.9987,31.469,29.9801,6.9951,113.9252,-15.9898,-20.9863,
-12.9916,1.9987,-52.9655,-365.7495,55.973,-19.9872,5.996,-1.9987,16.469,25.9827,15.9889,120.9198,-3.9978,-10.9925,
-4.9964,7.9947,-52.965,-363.76,58.961,-21.9849,-1.9982,0,1.469,27.9814,16.9894,109.9283,1.9991,-14.9903,
-0.49955,7.4951,-58.462,-378.76,43.961,-32.4792,0.49955,-2.4987,3.4978,28.4809,5.496,94.9283,-2.4987,-18.4881,
-9.4943,1.4986,-52.4655,-381.249,41.473,-22.4854,15.4995,-1.4986,9.4933,24.4836,5.496,79.9283,-3.4978,-10.4934,
0,-1,-54.9637,-378.7508,39.9734,-24.9841,16.9885,0,2.9973,12.9911,11.992,86.9424,-9.9938,-17.9885,
-2.4982,-13.4911,-52.4655,-382.2481,36.4761,-27.4823,4.4974,2.4982,9.4938,23.484,22.4849,86.4434,-2.4982,-13.4911,
-0.50002,-7.4956,-50.4668,-384.2468,45.4699,-22.4849,10.4929,0.50002,1.4991,28.4814,11.492,78.4487,-2.4982,-13.4911,
1.4991,-2.4982,-52.4659,-383.2477,47.4681,-14.4912,18.4876,-1.4991,12.4911,26.4823,4.4964,84.4442,-2.4982,-16.4894,
-7.4956,-8.4947,-54.4641,-389.2437,35.477,-20.4867,13.4911,-0.50002,27.4911,31.4787,17.4885,86.4434,0.50002,-8.4947,
6.4951,-1.4996,-61.4597,-404.2437,37.4747,-35.4867,-0.49955,0.49955,18.4871,28.4809,9.4933,71.4434,-5.4969,-13.4916,
-2.9982,-12.9911,-69.954,-406.7322,44.9708,-30.9796,1.9991,2.9982,4.9964,25.9832,3.9973,68.9549,-1.9991,-19.9867,
-9.4938,-11.493,-70.4535,-399.2371,37.4752,-15.9796,7.4947,1.4991,9.4938,25.4832,12.4921,83.9549,-1.4991,-17.4885,
-1.9987,1.9987,-58.961,-390.7423,33.9784,-6.9951,13.9907,-5.996,4.9969,23.9845,8.9943,95.9367,-3.9969,-12.9916,
-5.996,1.9987,-44.9703,-375.7423,42.9721,-4.9969,19.9872,-10.9925,9.9934,38.9845,4.9969,104.9314,-1.9987,-5.996,
0.99957,-0.99957,-58.961,-386.745,32.9783,-19.9969,4.9872,-11.9916,15.9898,33.9774,9.9934,89.9314,-13.9907,-18.9871,
-3.9973,-0.9991,-53.9646,-382.7481,31.9787,-5.9965,3.9973,0.9991,27.9814,29.9805,24.9934,95.9362,-2.9982,-19.9867,
-9.9938,0.9991,-50.9668,-375.7526,37.9752,6.9956,-3.9973,-0.9991,13.9902,33.9779,19.9867,109.9274,-1.9991,-21.9859,
5.0062,3.9973,-52.965,-380.749,49.9673,-8.0044,0,-8.9938,0,35.9761,12.9911,94.9274,-7.9947,-14.9903,
1.9987,-2.9987,-45.9699,-373.7539,38.9738,-6.9961,15,-1.9987,15,42.9712,27.9911,91.9393,-5.996,-1.9987,
-6.4956,2.4982,-58.462,-377.2517,23.9738,-6.4956,3.4973,-2.4982,8.4938,28.4814,12.9911,88.4416,-20.996,-16.9987,
-3.4973,5.4965,-63.4584,-377.2517,33.4779,2.4982,-10.4929,-1.4991,8.4947,28.4814,1.4991,94.438,-9.4938,-18.4876,
-4.4974,1.4991,-61.4597,-384.2468,43.4717,0.50002,-0.50002,-7.4956,14.4902,32.4788,8.4947,94.438,-1.4991,-10.4929,
-2.4987,-0.49955,-58.462,-385.2464,28.4717,0.49955,2.4977,-13.4916,18.4871,33.4774,4.4969,86.4429,-16.4991,-19.4872,
-12.9916,-7.9952,-50.9668,-370.2464,27.9809,15.4995,7.9942,-5.996,23.9836,37.9748,5.996,92.9384,-18.9881,-18.9881,
-1.4986,0.49955,-55.4632,-377.2517,29.481,17.488,4.4969,-5.496,8.9836,24.4836,4.4969,88.442,-10.4934,-16.4889,
2.9978,7.9952,-48.9677,-379.7499,25.9827,18.9871,-4.9969,-8.9943,-2.9978,26.9818,14.9898,93.9385,-3.9969,-10.9925,
-9.4933,3.4978,-49.4668,-377.2512,23.4845,14.4907,-3.4978,-9.4933,4.4969,32.4792,11.4925,92.4394,-8.4942,-10.4924,
0.9991,2.9982,-54.9637,-385.7459,21.9859,-0.50928,11.5022,-4.9964,-2.9982,28.9805,8.9938,82.9451,-10.9929,-12.9911,
-3.4978,-5.496,-46.4695,-389.2437,31.4792,3.4978,26.5022,-5.496,3.4978,31.4792,23.9938,91.4393,-6.496,-11.4925,
3.4973,-1.4991,-48.4681,-395.2397,32.4788,1.4991,11.5022,-14.4912,-4.4974,24.4831,15.4893,85.4433,-10.4929,-19.4876,
2.9982,1.9991,-42.9717,-384.7463,27.9814,-0.9991,1.9991,-12.9911,-2.9982,29.9805,0.9991,85.9433,-5.9955,-15.9894,
-12.0018,0.49955,-31.4792,-375.253,26.4827,-0.49955,16.9991,-14.4907,12.0018,32.4783,0.49955,92.4394,-19.4872,-16.4889,
2.9982,4.9974,-31.9787,-390.253,14.9903,-3.9973,3.9973,-18.9867,21.9859,29.9805,-5.9955,90.9407,-34.4872,-29.9796,
4.4969,-0.49955,-25.4837,-405.2331,16.4889,5.496,-11.0027,-9.4943,13.4907,44.9805,0.49955,105.4305,-22.4854,-18.4881,
3.4978,4.4969,-29.48,-408.2308,30.4801,-4.4969,-12.4916,-3.4978,8.4942,45.4704,10.4934,102.4323,-7.4951,-12.4916,
6.4956,1.4991,-40.4734,-409.2304,33.4779,-19.4969,-1.4991,-2.4982,12.4921,38.4743,22.4849,87.4323,-4.4974,-10.4929,
-0.9991,-6.9956,-41.9721,-422.7216,19.9867,-25.9822,0.9991,0.9991,17.9885,40.9735,31.9787,72.4323,-3.9973,-5.9955,
7.4956,-0.50002,-49.4672,-436.2127,8.4947,-29.4805,-14.0009,0.50002,14.4902,33.4779,24.4841,66.4566,-7.4947,-17.4885,
2.4987,-3.4978,-52.465,-422.2215,15.4898,-16.4889,-16.4889,-0.49955,5.4969,36.4766,21.4863,71.4536,0.49955,-11.4925,
8.4947,1.4991,-50.4668,-417.2251,17.4885,-13.4911,-1.4889,-0.50002,-9.5031,32.4788,14.4902,56.4536,-6.4956,-5.4965,
10.4929,2.4982,-45.4699,-417.2251,16.4894,-7.4947,11.493,-2.4982,-18.4876,22.4849,3.4983,41.4536,-14.4902,-14.4902,
-3.9978,-2.9978,-38.9748,-402.7348,24.9836,7.5053,8.9943,-2.9978,-3.4876,33.9774,2.9978,56.4536,-7.9952,-13.9907,
4.9964,3.9973,-44.9708,-393.7406,24.9832,10.9929,-4.9964,-8.9938,-3.9973,33.9779,3.9973,62.9584,-12.9911,-12.9911,
0.49955,-1.4986,-39.4739,-383.2477,24.4836,24.4836,7.4951,-7.4951,-0.49955,33.4783,12.4916,71.4526,-12.4916,-7.4951,
-2.9982,-4.9964,-45.9699,-398.2477,11.992,16.9885,2.9982,-3.9973,8.9938,31.9787,7.9947,86.4526,-14.9903,-16.9885,
1.9982,0,-56.9628,-408.7309,8.9938,1.9885,-12.0018,-10.9929,3.9973,25.9832,12.9911,96.9363,-16.9885,-21.9859,
-5.4965,9.4938,-41.9628,-393.7309,23.484,13.4911,-0.50002,0.50002,-1.4991,31.4787,22.4849,93.438,-6.4956,-6.9859,
0.99957,13.9907,-38.9748,-391.7419,8.9943,14.9898,-0.99957,4.9969,-16.4991,26.9818,7.4849,78.438,-20.9863,-15.9898,
-0.49955,5.496,-40.473,-392.2415,4.4969,28.4809,0.49955,-6.496,-1.4991,38.4748,3.4978,81.4464,-20.4863,-16.4889,
-3.9973,6.9956,-54.9642,-389.7432,3.9973,23.9841,-9.9938,-15.9894,9.9929,34.977,8.9938,96.4464,-21.9859,-14.9903,
11.0027,14.4907,-52.4655,-398.2375,6.496,8.9841,-11.4925,-2.4987,2.4987,27.4818,-3.4978,89.4411,-27.4818,-10.4934,
-0.9991,0,-39.9734,-403.7339,10.9929,5.9965,0,-5.9965,2.9982,33.9779,2.9982,79.9478,-25.9832,-8.9938,
3.4973,4.4974,-44.4708,-404.2335,10.4929,-0.50002,-7.4947,-20.9965,0.50002,25.4832,5.4965,79.4478,-26.4823,-23.9938,
4.9964,4.9964,-43.9717,-392.7415,13.9902,7.9947,-9.9938,-17.9885,0,22.985,0,72.9513,-21.9859,-26.9823,
0.49955,4.4969,-38.4748,-382.2486,15.4898,22.9947,-2.4987,-6.496,2.4977,30.4791,-0.49955,64.457,-16.4899,-13.4916,
11.9925,11.9925,-39.9739,-388.7437,12.9916,32.9783,1.9987,-6.9951,-1.9987,31.9792,-2.9978,76.9491,-14.9898,-9.9934,
-0.99957,3.9978,-41.9721,-386.745,8.9943,27.9819,0.99957,-7.9942,3.9978,30.9801,-2.9978,91.9491,-14.9898,-13.9907,
4.4974,8.4947,-40.4734,-382.2481,5.4965,12.9819,-12.4921,-4.4974,-0.50002,37.4752,0.50002,92.4389,-16.4894,-14.4902,
0.50002,8.4947,-28.4814,-373.2543,9.4938,9.4938,-14.4902,-3.4973,-0.50002,48.4681,12.4921,98.4354,-17.4885,-10.4929,
-9.9934,9.9934,-21.9854,-358.2543,12.9916,24.4938,-12.9916,-10.9925,14.5,35.9766,14.9898,103.9314,-26.9828,-14.9907,
-0.99957,15.9898,-29.9801,-351.768,12.9916,39.4938,-27.9916,-22.9845,7.9952,21.9854,0.99957,88.9314,-34.9765,-29.9801,
-5.996,16.9889,-14.9898,-336.768,24.9836,44.9703,-13.9907,-15.9898,5.996,36.9854,9.9934,91.9393,-19.9765,-18.9871,
-6.4956,22.4849,-18.4876,-333.2804,23.485,37.4752,-0.50002,-15.4893,0.50002,33.4779,4.4974,86.4434,-22.4849,-20.4867,
-2.9978,20.9863,-33.4876,-348.2804,26.9818,22.4752,-3.9978,-14.9907,14.9898,28.981,7.9942,71.4434,-14.9907,-17.988,
-0.99957,21.9854,-38.9743,-360.7623,32.9783,7.4752,-1.9987,-1.9987,29.9898,43.981,16.9889,61.9588,0.0092528,-8.9943,
-0.9991,12.9911,-45.9699,-352.7676,17.9783,17.9885,-12.9911,-13.9902,16.9885,31.9787,1.9889,55.9628,-14.9907,-23.9943,
-15.4893,2.4982,-30.9699,-337.7676,23.485,32.9885,-2.4982,-16.4894,24.4841,25.4832,14.4902,70.9628,-18.4876,-23.484,
-15.4898,7.4951,-30.4801,-350.2694,23.4845,35.4765,-6.496,-15.4898,9.4933,27.4818,6.496,79.4473,-15.4898,-24.4836,
-0.48982,21.4858,-25.4832,-347.2711,18.4876,20.4765,-6.4956,-4.4974,2.4982,42.4716,-2.4982,75.4504,-19.4876,-20.4867,
-3.4973,20.4867,-10.4832,-332.2711,19.4876,35.4765,1.4991,-1.4991,6.4956,42.4726,-3.4973,90.4504,-10.4929,-5.4867,
3.9973,33.9779,-1.9982,-317.2711,27.9814,50.4765,0,0,-5.9955,40.9735,-2.9982,93.938,-6.9956,-0.9991,
0,27.9814,-8.9938,-315.7915,32.9788,62.9584,-2.9973,-2.9973,0,49.9673,6.9956,78.938,-5.9955,-9.9929,
-2.4982,21.4858,-20.4867,-326.2853,17.9788,50.4663,-12.4921,-13.4911,10.4929,34.9673,2.4982,63.938,-14.4902,-24.9929,
-1.4991,20.4867,-20.4867,-325.2857,2.9788,44.4708,-14.4902,-20.4867,9.4938,19.9673,1.4991,69.4539,-21.4858,-27.4823,
-9.4938,16.4894,-18.4876,-317.2911,17.4885,54.4637,-19.4867,-15.4893,5.4965,26.4823,12.4921,84.4539,-22.4849,-12.4823,
-2.9982,19.9867,-28.9814,-323.7866,10.9929,43.9708,-34.4867,-17.9885,2.9982,27.9814,3.9973,75.9495,-28.9814,-16.9885,
-4.4969,23.4845,-13.9814,-308.7866,4.4969,58.9708,-19.4867,-6.496,17.9982,40.473,17.488,90.9495,-13.9814,-11.4925,
-6.9956,28.9805,-7.9947,-293.7866,3.9973,73.9708,-13.9912,-3.9973,32.9982,34.977,25.9823,105.9495,-16.9894,-9.9938,
-2.4982,31.4797,-8.4938,-296.3043,2.4982,67.4557,-28.9912,-8.4938,41.4725,28.4814,20.4867,109.4283,-28.4805,-18.4876,
-17.4982,21.9859,0,-287.8101,0,52.9655,-26.9823,-9.9929,42.9717,42.9717,14.9903,103.9319,-23.9841,-18.9876,
-3.4978,28.4809,-0.49955,-302.8101,0.49955,37.9655,-25.4837,-12.4916,27.9717,34.4774,9.4933,88.9319,-24.4836,-24.4836,
-0.99957,23.9845,0.99957,-311.7946,4.9969,27.9819,-25.9827,-12.9916,12.9717,21.9854,6.9951,73.9319,-24.9836,-26.9828,
-1.9987,26.9828,-3.9969,-298.803,1.9987,31.9792,-15.9889,-9.9934,3.9978,28.981,4.9969,58.9319,-27.9809,-29.9801,
2.9982,26.9823,-18.9969,-303.7999,-2.9982,31.9787,-15.9894,-18.9876,11.992,26.9823,2.9982,62.9584,-30.9796,-32.9788,
-0.9991,20.9858,-17.9885,-293.8066,0.9991,46.9787,-18.9876,-15.9894,5.9955,28.9805,17.9982,73.9513,-16.9894,-17.9788,
14.0009,32.4788,-9.4938,-289.3092,-5.4965,51.4664,-21.4858,-6.4956,5.4965,31.4797,21.4858,58.9513,-15.4893,-9.4938,
5.496,25.4837,-15.4898,-300.3021,-5.496,45.4704,-19.4872,-6.496,19.4872,32.4783,15.4898,46.4695,-21.4854,-21.4854,
-0.99957,22.9854,-15.9889,-295.8052,0.99957,36.9757,-10.9925,-3.9969,24.9836,32.9783,20.9863,54.9642,-20.9863,-16.9889,
7.4951,28.4819,-7.4951,-291.3079,-7.4951,26.4827,-15.4898,-7.4951,15.4898,32.4792,23.4845,47.4686,-16.4889,-14.4898,
-3.9973,29.9805,3.9973,-283.8132,-9.9938,40.9725,-19.9867,-6.9956,25.9822,47.4792,21.9849,60.9592,-3.9973,-6.9956,
2.9978,39.9739,-2.9978,-284.8123,-13.9907,38.9738,-31.9792,-5.996,18.9871,44.9703,6.9849,75.9592,-18.9973,-13.9907,
2.4982,28.4814,-2.4982,-278.3167,-8.4947,34.477,-27.4823,-5.4965,14.4902,32.4788,8.4947,73.4513,-30.4796,-21.4858,
-3.9973,20.9868,3.9973,-285.8114,-6.9956,24.9841,-15.9894,-4.9964,21.9859,32.9788,20.9868,68.9549,-15.4796,-10.9929,
4.9969,28.981,-4.9969,-300.8114,-17.988,20.9863,-30.9894,-15.9898,12.9916,30.9792,10.9925,70.9535,-18.9871,-10.9925,
0,23.9841,0,-300.8017,-10.9929,34.977,-29.9805,-15.9894,21.9859,36.9761,12.9911,74.9504,-23.9841,-13.9902,
12.4921,24.4841,7.4947,-293.307,-11.492,19.977,-25.4832,-11.492,19.4867,36.4761,7.4947,59.9504,-21.4858,-24.4841,
13.4907,27.4818,10.4924,-292.3079,-17.489,4.977,-28.4819,-11.4925,8.4942,45.4694,11.4925,58.4615,-8.4942,-17.489,
-1.4991,38.4743,1.4991,-285.3123,-20.4867,19.977,-30.4806,-7.4956,14.4902,56.4628,24.4831,73.4615,-4.4974,-2.489,
8.9943,49.9668,-8.9943,-277.8172,-35.4867,34.977,-44.9703,-8.9943,10.9925,41.4628,12.9916,88.4615,-19.4974,-8.9943,
-0.99957,34.9668,0.99957,-272.8203,-46.9685,49.977,-42.9712,-13.9907,2.9978,28.981,6.9951,73.4615,-23.9845,-14.9898,
4.9969,29.9801,9.9934,-286.8114,-31.9792,56.9624,-29.9801,-4.9969,-5.996,32.9783,8.9943,58.4615,-10.9925,-15.9898,
7.9947,32.9778,0,-294.8061,-36.9761,56.9619,-31.9787,0,-5.9965,31.9787,7.9947,55.9628,-6.9956,-13.9912,
-3.9973,30.9796,-4.9964,-289.8092,-51.9761,41.9619,-41.9726,-0.9991,3.9973,40.9735,15.9894,70.9628,-2.9982,0.9991,
8.4947,35.477,-9.4938,-302.3008,-50.4668,26.9619,-55.4637,-0.50002,-11.0027,43.4717,17.4885,55.9628,-11.493,0.50002,
0.9991,28.9805,0,-287.811,-35.4668,41.9619,-40.9735,0,-8.9947,44.9699,17.9876,44.9699,-9.9938,-5.9965,
-0.99957,36.9757,6.9951,-272.811,-34.9765,56.9619,-26.9818,-3.9969,0.99957,43.9712,18.9871,58.9615,-5.996,-12.9916,
7.9952,42.9721,-1.9987,-268.8229,-45.9694,54.9642,-33.9774,-3.9969,1.9987,41.9721,21.9854,60.9597,-2.9978,-10.9925,
-2.9982,32.9778,-7.9947,-275.8185,-45.9699,48.9672,-42.9717,-0.9991,2.9982,41.9726,18.9876,61.9593,-2.9982,0.9991,
6.4956,33.4779,-9.4938,-287.3105,-49.4672,34.4779,-50.4668,-1.4991,-1.4991,40.4734,15.4903,47.469,-11.492,1.4991,
1.9987,24.9836,-10.9925,-296.8043,-56.9624,24.9836,-52.965,-1.9987,5.996,41.973,23.9845,33.9784,-8.9933,-2.9978,
-0.49955,38.4748,-13.4907,-281.8043,-53.4646,38.4748,-54.4641,0.49955,12.4916,37.4757,17.489,35.4765,-4.4969,-7.4951,
1.4991,50.4673,-12.4911,-266.8043,-53.4646,53.4748,-56.4628,-1.4991,8.4947,32.4788,6.4956,43.4717,-13.4911,-14.4902,
-5.4969,45.4694,-0.49955,-254.3327,-51.4659,68.4748,-48.4686,0.49955,18.4871,45.4694,21.4956,58.4717,-5.4969,-3.4978,
4.4969,44.4713,-4.4969,-269.3327,-61.4588,53.4748,-55.4632,-6.4951,7.4951,37.4757,12.4916,43.4717,-12.4916,-10.4924,
-0.9991,32.9788,1.9991,-276.8176,-65.9566,38.4748,-48.9672,-8.9938,0.9991,33.9779,8.9938,28.4717,-15.9894,-10.9929,
1.4986,32.4783,8.4942,-282.3141,-67.4557,28.4809,-49.4677,-1.4986,-5.496,38.4748,23.4845,14.4907,-8.4942,-2.4987,
11.992,36.9752,0,-281.8145,-69.9544,38.9743,-61.9598,-5.9965,-20.496,29.9796,14.9893,16.9885,0,-8.9947,
-3.008,29.481,4.4969,-266.8145,-58.4615,53.9743,-46.9598,-13.4907,-14.4907,35.4765,12.4916,31.9885,10.4934,-7.4951,
2.4987,30.4801,0.49955,-281.8145,-63.4579,38.9743,-31.9598,-15.4898,-12.4916,26.4827,16.4899,24.4846,-0.49955,-8.4942,
5.4969,18.4881,-10.4934,-296.8145,-75.45,23.9743,-43.4712,-12.4916,2.5084,27.4818,27.4818,9.4846,-3.4978,-5.496,
2.4982,19.4867,-11.493,-311.8145,-79.4478,8.9743,-54.4641,-9.4938,17.5084,42.4818,40.4734,-5.5154,5.4965,-0.50002,
15.9894,34.4867,-3.9973,-302.8008,-73.9518,11.992,-42.9717,-9.9938,2.5084,33.9769,35.9761,-20.5154,8.9938,3.9973,
0.98937,42.9721,6.9951,-287.8008,-58.9518,26.992,-30.9792,-1.9987,-12.4916,29.9801,20.9761,-20.9863,13.9907,0.99957,
2.9978,43.9712,4.9969,-272.8008,-53.9641,40.973,-45.9792,-2.9978,-27.4916,26.9818,6.9951,-12.9916,9.9934,-9.9934,
5.4965,33.4779,5.4965,-264.3256,-60.4602,51.4664,-47.4681,-12.4911,-27.4814,19.4876,14.4912,-8.4938,13.4911,-5.4965,
0.50002,33.4779,8.4947,-268.3234,-64.4575,50.4663,-34.477,-4.4974,-42.4814,27.4823,18.4876,-5.4965,16.4894,-0.50002,
9.9938,44.9708,0.9991,-266.8243,-61.9593,36.9761,-45.9699,-0.9991,-41.9726,30.9796,11.992,-5.9955,10.9929,-0.9991,
-5.0062,29.9708,3.9973,-260.8287,-64.9575,43.9708,-39.9744,-15.9991,-26.9726,18.9876,6.9946,-3.9973,6.9946,4.9964,
0.50002,28.4814,12.4921,-259.3291,-73.4518,51.4664,-32.4788,-14.4902,-33.4779,19.4876,4.4974,-6.4956,-0.50002,1.4991,
13.9907,39.9739,19.9872,-259.8287,-74.9504,40.973,-43.9712,-0.99957,-46.969,34.4876,7.9952,-16.9889,0.99957,-0.99957,
-1.0093,27.4814,9.4938,-273.3203,-79.4478,31.4787,-50.4673,-6.4965,-59.4611,28.4805,1.4991,-31.9889,2.4982,1.4991,
7.9947,26.9823,-2.9982,-277.8167,-75.95,28.9814,-44.9699,-9.9929,-44.9699,13.4805,7.9947,-40.9725,5.9965,2.9982,
-2.4982,24.4841,2.4982,-262.8167,-68.4548,34.477,-34.477,-6.4956,-29.9699,19.4867,19.4867,-28.4814,15.4893,5.4965,
-1.9987,38.9738,13.9907,-248.8362,-67.9558,41.9721,-30.9801,-1.9987,-44.9699,14.9898,4.4867,-36.9757,9.9934,3.9969,
0.49955,42.4721,14.4907,-239.3419,-67.4553,55.4642,-35.4765,-4.4969,-57.4614,11.4925,-0.49955,-40.473,2.4987,7.4951,
-7.4951,36.4766,13.4916,-224.3521,-72.4522,63.4589,-42.4721,-14.4898,-42.4614,15.4898,9.4943,-29.48,7.4951,8.4942,
7.5049,47.9681,17.9885,-222.8535,-72.9522,56.9628,-37.9752,-9.9938,-42.9717,5.9955,-3.9973,-34.977,9.9929,3.9973,
-1.4991,35.4761,9.4938,-231.3477,-72.4527,58.461,-30.4806,-7.4956,-43.4717,9.4938,1.4991,-40.4734,13.4911,6.4956,
-3.9973,36.9761,3.9973,-235.8441,-71.9522,61.9593,-33.9769,-12.9911,-31.9787,24.4938,16.4991,-30.9796,16.9894,12.9921,
6.496,40.473,16.4889,-241.3411,-70.4535,55.4632,-37.4757,-11.4925,-46.9787,25.4837,1.4991,-37.4757,10.4934,7.4951,
3.4973,38.4743,30.4796,-237.3437,-58.462,60.4602,-29.4805,-1.4991,-61.9787,15.4893,-13.5009,-49.4672,13.4911,1.4991,
6.496,45.4704,30.4801,-246.3375,-53.465,54.4641,-23.4845,-10.4934,-54.4641,12.4916,1.4986,-56.4623,24.4836,-1.4986,
-8.4942,34.4774,26.4827,-239.3424,-64.458,48.4677,-22.4854,-15.4898,-39.4641,17.488,16.4986,-49.4677,37.4747,8.4942,
-8.9943,30.9801,15.9898,-230.8477,-78.9477,33.4677,-37.4854,-10.9925,-31.9792,9.9934,11.9925,-61.9593,24.9836,8.9943,
6.0057,33.4779,26.4823,-235.3451,-63.9477,24.4841,-24.4841,-6.4956,-41.4725,12.4921,-3.0075,-68.4548,26.4823,6.4956,
-3.9973,23.985,41.4823,-234.845,-48.9477,31.9797,-9.4841,-8.9938,-56.4725,12.9921,-6.9946,-73.9508,37.9752,7.9947,
3.4978,38.985,42.4721,-228.3495,-33.9477,17.489,-9.4933,-15.4898,-71.4725,0.49955,-0.49955,-88.9508,33.4783,2.4987,
-2.4982,46.469,39.4734,-213.3495,-43.4717,20.4867,-19.4876,-20.4867,-69.4544,2.4982,3.4973,-94.438,36.4761,5.4965,
1.4991,45.4699,54.4637,-198.3495,-28.4717,35.4867,-4.4876,-8.4947,-65.4571,8.4947,-1.4991,-79.438,42.4716,13.4911,
10.4924,37.4747,56.4623,-195.3716,-30.4801,32.4783,0.49955,-11.4925,-77.4491,-0.49955,-10.4934,-79.4478,31.4792,1.4986,
-4.5076,29.4805,60.4602,-185.3778,-34.477,22.4859,1.4991,-19.4867,-69.4539,2.4982,-1.4991,-75.45,29.4805,7.4956,
-0.9991,38.9743,53.9646,-192.873,-37.9752,20.9858,-11.992,-17.9885,-60.9602,0.9991,1.9982,-78.9482,28.9805,7.9947,
-1.9987,28.981,40.973,-203.8659,-44.9703,17.988,-20.9863,-17.988,-48.9677,1.9987,7.9942,-92.9389,35.9766,5.996,
-7.4947,27.4823,46.469,-199.3685,-33.4779,20.4867,-9.4938,-13.4911,-42.4716,7.4947,8.4947,-90.4402,45.4699,19.4876,
4.4969,31.4792,50.4668,-203.3659,-30.4801,18.4881,-12.4916,-16.4889,-53.465,1.4986,-1.4986,-93.4385,32.4783,14.4907,
-7.4956,18.4876,55.4637,-204.3654,-36.4761,16.4894,-1.4991,-20.4867,-45.4699,1.4991,5.4965,-95.4371,32.4788,13.4911,
-4.9964,21.9859,53.9646,-201.8667,-40.9725,12.9921,11.993,-17.9876,-47.9681,-3.9973,3.9973,-101.9322,40.9735,6.9956,
-0.99957,21.9854,52.965,-187.876,-30.9792,27.9921,11.9925,-15.9889,-49.9668,-0.99957,0.99957,-86.9424,43.9712,4.9969,
-3.4978,22.4854,51.4659,-174.3849,-30.4801,42.9921,-0.49955,-20.4863,-38.4748,4.4969,0.49955,-79.4478,43.4712,11.4925,
11.4925,37.4747,53.465,-168.3893,-37.4757,27.9921,-0.49955,-15.4898,-49.4677,-2.4987,0.49955,-94.4478,43.4712,9.4933,
0.9991,22.985,59.9601,-165.8907,-36.9761,12.9921,6.9956,-10.9929,-64.4677,-5.9965,-0.9991,-109.4478,43.9708,11.992,
5.996,23.9845,64.957,-171.8867,-30.9801,19.9872,1.9987,-9.9934,-77.9487,-1.9987,-10.9925,-124.4478,41.9721,9.9934,
1.4991,29.4805,65.4566,-170.388,-33.4779,17.4885,9.4938,-9.4938,-62.9487,-1.4991,-4.4974,-122.4194,46.469,6.4956,
-10.9929,18.9876,51.9654,-168.8889,-41.9726,14.9903,7.9947,-13.9912,-47.9487,-7.9947,9.9929,-133.9119,51.9654,10.9929,
4.0071,22.985,49.9673,-172.8858,-39.9734,14.9903,0.9991,-13.9902,-62.9487,-7.9947,-0.9991,-142.9057,52.9655,18.9876,
-6.9946,18.9876,64.9673,-163.8915,-31.9787,8.9947,15.9991,-7.9947,-63.9575,3.9973,-3.9973,-128.9145,50.9664,24.9841,
-0.49955,26.4828,71.4526,-162.3929,-38.4748,-2.4987,19.4872,-7.4951,-48.9575,0.49955,11.0027,-130.4141,48.4677,23.4845,
5.4965,22.4849,59.4611,-164.392,-53.4646,1.4991,4.4872,-18.4876,-57.4619,-10.4929,15.4893,-142.4061,55.4637,21.4858,
-0.49955,25.4837,67.4553,-149.392,-46.4695,16.4991,5.496,-9.4933,-60.4597,0.49955,0.48935,-127.4061,65.4571,21.4863,
10.4934,38.4748,63.4589,-138.4083,-41.4721,31.4991,7.4951,-7.4951,-58.4615,-7.4951,-13.4907,-117.422,50.4668,12.4925,
0.50002,27.4814,61.4593,-144.4048,-42.4726,42.4716,6.4956,-21.4858,-68.4548,-13.4911,-0.50002,-112.4261,52.4655,21.4858,
-0.49955,21.4863,60.4606,-154.3982,-45.4694,27.4716,5.4969,-24.4836,-83.4446,-15.4898,0.49955,-127.4159,54.4641,22.4854,
12.9916,17.988,59.9606,-161.8933,-40.973,12.4716,10.9925,-11.9925,-72.9522,-11.9925,-5.996,-135.9106,61.9588,25.9827,
3.4978,3.4978,50.4668,-168.3889,-51.4659,5.496,5.496,-11.4925,-69.4544,-3.4978,-8.4942,-126.4168,66.4562,33.4783,
11.992,11.992,44.9708,-170.8871,-60.9592,0,1,-7.9947,-82.9451,0,-4.9964,-127.9154,57.9619,32.9788,
-0.49955,10.4924,53.4641,-171.3871,-47.4686,9.4933,10.4924,-2.4987,-78.4487,0.49955,-3.4978,-130.4141,63.4579,33.4774,
0,19.9867,51.9654,-173.8858,-46.969,10.9929,7.9947,0,-67.9553,0,-3.9973,-132.9128,66.9557,35.9761,
13.4911,24.4831,45.4699,-169.3889,-61.969,-1.4991,-5.4965,1.4991,-68.4553,2.4982,-2.4982,-142.4066,51.9557,37.4752,
-0.50002,13.4911,48.4681,-165.3911,-71.4531,0.50002,-11.493,0.50002,-83.4553,1.4991,-6.4956,-153.3991,51.4664,43.4717,
14.5,28.4911,51.9654,-166.8902,-56.4531,4.9964,-4.9964,10.9929,-90.9402,-10.9929,-12.9921,-156.8969,66.4664,44.9699,
6.4956,27.4823,47.469,-169.3884,-50.4663,-2.4982,3.4973,2.4982,-77.4491,-20.4867,-19.4876,-156.3968,66.4566,35.477,
7.4951,21.4863,54.4641,-157.3959,-49.4668,3.4978,17.489,-3.4978,-76.4495,-8.4942,-16.4889,-157.3959,59.4606,36.4766,
22.4845,28.4809,52.465,-161.3938,-54.4646,0.49955,7.4951,-0.49955,-91.4495,-6.496,-13.4916,-170.388,60.4597,29.48,
9.9929,22.985,50.9664,-160.8942,-52.9655,-3.9973,3.9973,5.9955,-76.4495,-4.9964,-3.9973,-160.8942,63.9575,29.9796,
12.9911,24.9832,44.9699,-168.8894,-57.9624,-11.993,3.9973,3.9973,-72.9522,-3.9973,-6.9956,-160.8942,65.9557,41.9716,
5.996,18.9871,36.9757,-176.8836,-64.957,-7.9952,-0.99957,0.99957,-75.95,0.99957,-4.9969,-161.8933,68.9544,52.965,
1.4991,17.4885,33.4779,-172.3867,-67.4557,-1.4991,-2.4982,4.4974,-65.4571,0.50002,-0.50002,-152.3995,63.4584,42.4716,
16.4991,24.9832,41.9726,-169.888,-65.9566,-14.9903,4.9964,4.9964,-67.9553,-7.9947,-4.9964,-147.9026,58.961,36.9752,
6.9956,16.9885,47.9681,-166.8902,-65.9566,-22.985,10.9929,4.9964,-71.9526,-4.9964,-5.9955,-143.9053,66.9557,49.9673,
10.4934,25.4827,41.473,-165.3911,-68.4548,-20.4863,6.496,5.496,-70.4535,-5.496,-15.4898,-155.3978,68.4544,44.4703,
15.4893,32.4788,43.4717,-158.3955,-62.4588,-12.4921,21.496,4.4974,-67.4557,-4.4974,-21.4858,-160.3942,79.4478,46.469,
14.4902,27.4814,46.469,-169.3884,-67.4557,-20.4867,23.484,5.4965,-82.4557,-5.4965,-22.4849,-166.3907,73.4513,48.4681,
28.4814,29.4805,44.4708,-184.3884,-73.4513,-35.4761,9.4938,10.4929,-97.4557,-9.4938,-23.484,-181.3805,60.4602,38.4753,
13.4814,23.4845,49.4677,-174.3854,-63.4584,-22.4854,16.4889,8.4942,-85.4438,-10.4934,-8.4942,-176.384,75.4602,42.4721,
12.4916,29.481,49.4677,-171.3871,-67.4557,-28.4809,13.4907,-0.49955,-70.4438,-15.4898,0.49955,-161.384,80.4473,42.4721,
20.4863,23.4845,43.4712,-178.3827,-82.4455,-41.473,2.4987,-2.4987,-55.4438,-4.4969,5.496,-146.384,67.4553,43.4712,
7.4947,8.4845,28.4712,-182.38,-91.4398,-39.4743,-4.4974,2.4982,-62.4588,0.50002,-0.50002,-147.4031,58.461,42.4716,
19.9872,8.9943,20.9863,-172.8862,-80.9464,-30.9792,9.9934,13.9907,-77.4588,-8.9943,-15.5,-158.8951,57.9615,36.9757,
23.9841,-3.9973,35.9863,-157.8862,-65.9464,-16.9885,24.9934,21.9859,-91.9393,3.9973,-21.9859,-143.8951,72.9615,51.9757,
27.4814,-18.9973,33.4779,-151.4004,-72.4522,-18.4876,22.4849,17.4885,-76.9393,4.4974,-6.9859,-138.4088,70.453,66.9757,
34.477,-33.9973,27.4814,-156.3968,-82.4455,-3.4876,16.4894,23.484,-61.9393,-2.4982,-1.4991,-144.4048,73.4513,60.4602,
22.4854,-48.9973,36.4756,-152.3995,-80.4469,2.4987,28.4809,23.4845,-76.9393,-2.4987,-16.4991,-145.4044,77.4491,60.4597,
37.4854,-56.4628,51.4756,-142.4062,-71.4531,-8.4947,37.4752,26.4823,-90.4407,8.4947,-29.4805,-154.3982,78.4487,75.4597,
36.4761,-71.4628,58.461,-147.4031,-86.4531,-0.50002,32.4788,18.4876,-75.4504,0.50002,-14.4805,-169.3884,68.4548,60.4597,
30.9792,-86.4628,57.9615,-157.8964,-99.9345,5.996,37.9748,19.9862,-72.9522,-7.9952,-5.996,-167.8898,63.957,49.9668,
45.9792,-83.9447,70.9531,-160.8942,-88.9416,-9.004,51.9654,26.9823,-59.9606,0,0,-179.8814,78.957,64.9668,
39.4743,-93.4385,67.4557,-167.3898,-103.9416,-24.004,42.4726,15.4903,-53.4646,-8.4947,8.4947,-194.8814,86.4434,59.4611,
44.4708,-84.4442,64.4575,-168.3894,-118.9416,-39.004,30.4796,13.4911,-58.4615,-12.4921,12.4921,-209.8814,76.4495,44.4708,
34.977,-87.9425,71.9522,-171.8871,-131.9132,-49.9673,38.9743,14.9903,-57.9619,-0.9991,0.9991,-194.8814,72.9522,57.9619,
49.977,-72.9425,78.9482,-173.8853,-116.9132,-41.9726,53.9743,29.9903,-48.9677,8.9943,-8.9943,-179.8814,80.9464,72.9619,
64.977,-57.9425,77.4486,-172.3862,-101.9132,-56.9726,62.4593,35.477,-45.4699,5.4965,-5.4965,-167.3898,86.4434,78.4487,
49.977,-69.4544,80.4473,-163.3924,-109.4278,-71.9726,57.4624,20.477,-49.4677,2.4987,-2.4987,-159.3951,86.4429,68.4544,
63.958,-54.4544,85.9438,-158.8955,-94.9376,-75.95,64.957,21.9854,-60.9597,4.9969,-4.9969,-151.9,83.9447,76.9491,
71.9531,-43.9708,84.9442,-151.9,-87.942,-73.9513,69.954,28.9814,-62.9584,3.9973,-3.9973,-148.9017,74.9504,79.9478,
63.4584,-43.4717,83.4451,-138.4088,-82.4455,-81.4464,72.4522,26.4823,-53.465,5.4965,-5.4965,-145.4044,70.453,69.4539,
78.4584,-28.4717,95.4376,-131.4132,-70.453,-87.442,80.4473,35.4765,-55.4632,11.4925,-11.4925,-152.399,75.4509,73.4518,
70.453,-34.4774,100.4336,-134.4115,-75.4504,-102.442,81.446,38.4743,-59.4611,10.4929,-10.4929,-163.3924,82.4451,84.4442,
67.9548,-40.973,86.9424,-144.9044,-81.946,-117.442,68.9549,30.9796,-44.4611,0,0,-168.8889,79.9468,69.4442,
59.4611,-55.973,73.4513,-153.3991,-88.442,-132.442,57.4619,17.4885,-29.4611,0.50002,-0.50002,-169.3884,66.4557,54.4442,
60.9597,-40.973,82.9456,-143.9053,-81.946,-147.442,69.9535,17.988,-39.9739,9.9934,-9.9934,-157.896,63.958,64.957,
71.9526,-25.973,89.9412,-128.915,-74.9504,-154.8977,77.9491,17.988,-44.9703,8.9943,-8.9943,-142.896,78.958,68.9544,
56.9526,-40.973,74.9412,-141.4071,-89.9504,-158.3955,62.9491,12.4921,-34.477,14.4902,-12.4921,-127.896,88.4416,55.4637,
47.9686,-45.9699,59.9412,-156.4071,-104.9504,-172.8862,47.9491,20.9863,-34.9765,20.9863,-20.9863,-124.9177,77.9491,58.9615,
58.4615,-32.4788,59.4606,-157.3964,-89.9504,-165.3911,50.4668,25.4837,-35.4765,15.4898,-15.4898,-131.4132,74.4509,73.4518,
56.9624,-27.9819,61.9588,-142.9057,-78.9482,-150.3911,51.9659,23.9845,-34.977,9.9934,-9.9934,-138.9084,76.9491,68.9544,
70.9531,-15.9894,67.9548,-128.915,-90.9402,-135.3911,49.9673,25.9832,-28.9805,4.9964,-4.9964,-151.9,78.9477,59.9601,
55.9531,-21.4858,75.4504,-121.4199,-76.4495,-147.4031,63.4584,19.4867,-20.4867,-4.4974,4.4974,-150.4008,84.4442,53.4646,
64.457,-6.4858,73.4508,-129.415,-61.4495,-132.4031,75.45,28.4809,-35.4867,-5.4969,-3.4978,-156.3973,92.4384,59.4606,
70.9535,8.5142,71.9526,-137.9093,-46.4495,-117.4031,64.957,31.9792,-50.4867,-10.9925,-18.4978,-171.3973,88.9411,62.9589,
59.4611,10.4929,86.9526,-127.4164,-52.4655,-102.4031,63.4584,31.4787,-65.4867,-10.4929,-20.4867,-179.3818,82.4451,61.4593,
59.9601,11.992,71.9526,-142.4164,-55.9633,-117.4031,48.4584,19.9867,-80.4867,-11.992,-24.9832,-176.8836,69.954,49.9673,
55.4632,2.4987,58.4615,-144.4048,-51.4659,-126.4168,44.4713,20.4863,-88.4416,-2.4987,-31.4792,-162.3929,79.4482,60.4606,
62.4588,7.4951,65.4571,-142.4061,-58.4615,-121.4199,46.4695,25.4837,-79.4478,-7.4951,-29.48,-147.3929,79.4482,62.4588,
59.4606,3.4978,62.4588,-157.4061,-55.4637,-136.4199,39.4739,21.4854,-64.4478,-3.4978,-22.4854,-135.411,84.4447,57.4624,
44.4606,-6.9956,54.9637,-166.8902,-44.9703,-136.9097,41.9726,22.985,-50.9664,6.9956,-13.9912,-135.9106,94.9371,58.961,
51.9659,8.0044,60.9597,-153.8986,-37.9748,-121.9199,47.9686,21.9854,-40.973,-8.0044,-13.9907,-141.9066,79.9473,51.9659,
40.9725,10.9929,69.954,-138.8986,-30.9796,-108.9283,49.9673,8.9938,-30.9796,-18.9876,-8.9938,-126.9066,68.9549,47.9681,
39.4739,14.4907,64.457,-134.4115,-29.481,-118.4221,41.473,11.4925,-45.9796,-14.4907,-11.4925,-134.4115,71.4526,44.4703,
49.9677,13.9907,51.9659,-145.9035,-32.9783,-122.9185,30.9801,14.9907,-60.9796,-16.9889,-13.9907,-149.4115,71.9526,36.9757,
38.4748,11.4925,55.4642,-138.4083,-33.4774,-108.4283,32.4792,12.4925,-45.9796,-16.4889,-11.4925,-148.4017,75.4509,43.4722,
49.4677,26.4827,66.4562,-130.4141,-31.4792,-100.4336,40.4739,16.4889,-30.9796,-16.4889,-22.4854,-133.4017,70.4535,44.4713,
36.4761,15.4903,64.4575,-128.415,-31.4787,-87.442,53.4646,13.4911,-42.4716,-13.4911,-16.4894,-118.4017,66.4566,48.4681,
23.9841,5.9955,49.4575,-130.9137,-33.9779,-82.9456,46.969,3.9973,-30.9796,-10.9929,-3.9973,-103.4017,77.9487,51.9655,
38.9841,13.4911,47.4681,-133.4124,-32.4788,-89.4411,38.4743,5.4965,-24.4841,-10.4929,-5.4965,-103.4318,84.4442,46.469,
39.9734,6.9956,56.9619,-127.9159,-23.9841,-96.9363,44.9699,11.992,-27.9814,-9.9938,-6.9956,-116.923,69.954,48.9672,
49.4677,8.4942,58.4615,-126.4163,-25.4827,-111.9363,46.4695,10.4934,-38.4748,-14.4898,-8.4942,-126.4163,58.4615,46.4695,
45.9699,6.9956,63.9584,-112.9256,-23.9841,-96.9363,50.9664,4.9964,-52.9645,-17.9876,-4.9964,-124.9177,70.9531,44.9708,
44.4708,18.4876,74.4513,-97.9256,-8.9841,-81.9363,53.4646,7.4947,-67.9645,-25.4832,-17.4885,-129.4145,70.454,44.4708,
42.9712,18.9871,68.9544,-82.9456,-1.9987,-66.9363,46.9685,1.9987,-82.9645,-40.4832,-32.4885,-129.9146,55.454,29.4708,
32.4783,10.4934,67.4553,-86.4429,-1.4986,-51.9363,54.4641,1.4986,-91.4398,-35.4765,-38.4748,-116.4234,58.4615,30.4801,
47.4783,22.4849,62.4584,-99.435,-2.4982,-50.4673,53.4646,2.4982,-76.4398,-26.4832,-23.4748,-131.4234,65.4566,38.4743,
53.9646,11.992,58.961,-110.927,-0.9991,-49.9673,49.9673,0.9991,-65.9566,-24.9832,-9.9929,-146.4234,68.9549,39.9734,
45.4699,14.4902,56.4628,-118.4221,-9.4938,-55.4637,49.4672,6.4956,-56.4633,-19.4876,-6.4956,-131.4234,69.4539,43.4707,
48.4681,17.4885,41.4628,-133.4221,-24.4938,-70.4637,34.4672,5.4965,-48.4681,-25.4832,-5.4965,-124.4176,56.4628,42.4726,
33.4681,2.4885,26.4628,-138.9088,-29.9805,-61.9593,19.9867,8.9938,-33.4681,-15.9894,4.9964,-109.4176,64.9566,52.9645,
36.9757,-1.9987,14.9898,-141.9066,-19.9872,-55.9633,24.9836,9.9934,-29.9801,-14.9898,1.9987,-94.4176,70.9535,47.9686,
34.477,1.4991,12.4921,-141.4071,-23.485,-55.4637,23.485,5.4965,-36.4761,-21.4858,-1.4991,-106.4301,65.4566,41.4725,
23.484,2.4982,10.4929,-132.4133,-22.4859,-49.4672,17.4885,9.4938,-26.4832,-19.4876,-2.4982,-99.435,56.4628,45.4699,
35.4765,7.4951,7.4951,-139.4079,-25.4827,-64.4575,7.4951,10.4934,-28.4809,-15.4898,-7.4951,-100.4336,53.465,45.4704,
25.9832,0,9.9938,-140.907,-27.9814,-79.4575,16.9894,0,-38.9743,-17.9876,1.9991,-115.4336,61.9593,41.9726,
33.9769,15,17.9876,-131.9132,-24.9841,-67.9558,25.9823,-3.9973,-41.9726,-32.9876,3.9973,-130.4336,63.9575,30.9796,
42.9717,30,32.9788,-116.9132,-10.9929,-52.9558,36.9761,2.9982,-31.9787,-30.9796,-2.9982,-115.4336,58.961,36.9761,
28.9805,28.9805,32.9778,-101.9132,-7.9947,-40.9735,46.969,7.9947,-28.9814,-18.9876,-7.9947,-100.4336,59.9601,47.9681,
29.4805,21.4858,17.9778,-116.9132,-21.4858,-55.9735,31.969,2.4982,-34.477,-33.9876,-2.4982,-115.4336,56.4628,34.477,
20.4872,6.4858,2.9778,-131.9132,-15.4898,-62.4588,18.4881,-0.49955,-19.477,-23.4845,12.5018,-117.4225,69.4544,40.4739,
26.4823,10.4929,-3.4983,-146.404,-9.4938,-47.4588,19.4867,1.4991,-4.477,-8.4845,7.4947,-102.4225,69.4539,46.469,
33.4779,14.4902,11.5017,-132.4123,-15.4893,-32.4588,21.4858,2.4982,-8.4938,-9.4938,-2.4982,-92.4389,54.4539,40.4734,
23.4845,5.4969,23.4845,-117.4123,-14.4898,-17.4588,20.4872,-3.4978,-6.4951,-19.4872,3.4978,-106.4296,44.4713,41.473,
38.4845,20.4969,19.4872,-107.4292,-4.4969,-14.4898,26.4827,0.49955,-6.4951,-15.4898,-0.49955,-102.4323,49.4677,46.4695,
23.9845,16.9889,22.9854,-108.9283,-1.9987,-4.9969,36.9757,1.9987,-21.4951,-23.9836,-7.9942,-91.9393,56.9624,35.9766,
22.4854,7.4951,20.4872,-109.4274,-7.4951,10.0031,37.4757,-10.4924,-36.4951,-38.9836,-22.4845,-106.9393,51.4669,20.9766,
37.4854,13.9912,13.9912,-113.9247,-6.9956,6.9956,32.9778,-16.9885,-51.4951,-47.9681,-29.9805,-121.9393,41.9726,21.9859,
30.4796,20.4867,21.4858,-114.4248,-2.4982,2.4982,41.4725,-3.4983,-66.4951,-43.4717,-21.4858,-133.4124,41.4725,26.4823,
29.9801,29.9801,25.9827,-105.93,-8.9943,1.9987,44.9703,-1.9987,-81.4951,-56.9624,-29.9801,-128.915,38.9748,14.9907,
28.9805,16.9885,21.9859,-93.938,-14.9903,14.9903,40.9735,-14.9903,-66.9557,-45.9699,-36.9752,-113.915,45.9699,22.985,
33.4783,18.4881,19.4872,-106.4296,-17.488,8.4942,27.4818,-8.4942,-51.9557,-30.9699,-22.4845,-98.915,43.4712,37.985,
42.4721,21.4863,13.4907,-121.4296,-21.4863,-6.5058,24.4836,1.4986,-40.473,-27.4818,-7.4845,-86.4429,35.4765,44.4703,
31.9792,13.9907,5.996,-110.927,-14.9898,-1.9987,33.9774,-0.99957,-34.9765,-29.9801,0.99957,-87.942,39.9739,37.9748,
39.4743,24.4841,6.4956,-109.4278,-9.4938,13.0013,28.4814,-6.4956,-43.4717,-39.4743,-14.0004,-83.4451,40.4734,22.9748,
33.4779,20.4867,9.4938,-117.4225,-9.4938,28.0013,35.477,-10.4929,-32.4788,-39.4743,-24.4841,-74.4504,51.4664,23.485,
41.473,28.4819,0.49955,-114.4243,-5.496,43.0013,45.4704,-0.49955,-17.4788,-31.4792,-9.4841,-70.4535,56.4633,32.4792,
44.9708,29.9805,-14.5005,-122.9185,-3.9973,39.9744,30.4704,-5.9955,-32.4788,-40.9725,3.9973,-85.4535,41.9726,18.9876,
29.9708,14.9903,-11.992,-120.9208,0.9991,36.9752,32.9778,-16.9894,-29.9805,-40.9735,-0.9991,-77.9487,44.9699,22.985,
36.9761,29.9903,-4.9964,-110.927,4.9964,47.9691,47.9778,-5.9955,-14.9805,-28.9805,-4.9964,-62.9487,57.9619,37.9752,
45.4699,32.4788,-9.4938,-124.4181,-1.4991,55.4637,48.4681,-1.4991,-5.4965,-30.4806,1.4991,-60.4602,50.4663,37.4752,
35.477,22.4859,-3.4973,-138.4083,-2.4982,43.4717,36.4761,-6.4956,-13.4911,-26.4823,2.4982,-63.4575,42.4726,35.477,
42.4716,31.4787,2.4982,-139.4084,-2.4982,44.4708,35.4761,-9.4938,-14.4902,-23.485,-3.4983,-50.4673,48.4681,33.4779,
28.9814,19.9877,-6.9946,-146.903,-6.9946,45.9699,36.9761,-10.992,-3.9973,-20.9858,3.9973,-40.9725,59.9611,33.9779,
34.977,4.9877,-14.9903,-151.9,-6.9956,30.9699,31.9787,-6.9956,0.9991,-20.9858,5.9955,-50.9664,55.9628,38.9743,
38.9738,-10.0123,-0.99957,-136.9,0.99957,41.9721,41.9721,-3.9978,-1.9987,-20.9863,0.99957,-57.9615,53.9641,43.9712,
33.9779,-25.0123,4.9964,-130.9137,0.9991,43.9708,45.9699,-8.9938,-16.9987,-25.9832,-0.9991,-72.9615,56.9619,30.9796,
47.4686,-25.4837,0.49955,-145.9137,-0.49955,28.9708,39.4739,-5.4969,-26.4827,-22.4854,0.49955,-87.9615,55.4632,26.4827,
32.4686,-29.481,1.4986,-133.4119,6.496,40.473,45.4704,-1.4986,-11.4827,-19.4872,-5.496,-78.4482,50.4668,33.4783,
33.4783,-19.4872,5.496,-118.4221,12.4916,55.473,53.465,-5.496,-11.4925,-29.481,-14.4907,-75.4504,46.4695,27.4818,
38.4753,-18.4876,5.4965,-131.4132,7.4956,48.4681,49.4672,-12.4911,-22.4849,-31.4787,-5.4965,-80.4469,48.4681,27.4823,
24.4836,-29.481,-2.4987,-143.4057,2.4987,44.4703,42.4721,-5.496,-11.4925,-23.4845,7.4951,-65.4469,51.4659,41.473,
37.4757,-23.4845,-16.4889,-151.4004,0.49955,48.4677,33.4783,-0.49955,-9.4933,-27.4818,8.4942,-55.4632,45.4704,36.4756,
29.4805,-34.477,-16.4894,-153.3991,1.4991,45.4699,30.4796,-14.4902,-1.4991,-25.4832,11.492,-60.4602,48.4681,33.4779,
22.9854,-31.9783,-16.988,-154.8977,-5.996,40.973,21.9863,-22.9845,11.9925,-26.9818,5.996,-69.9535,40.973,24.9836,
27.9819,-21.9854,-17.988,-141.9066,-6.9951,41.9721,15.9898,-14.9898,8.9943,-32.9783,6.9951,-71.9526,32.9783,13.9907,
21.4863,-18.4881,-14.4907,-126.9066,-1.4986,55.4632,21.4863,-12.4916,1.4986,-31.4792,9.4933,-56.9526,38.4748,14.4907,
36.4863,-3.4973,-9.4938,-121.4199,9.4938,70.4632,29.4805,-11.492,-1.4991,-30.4796,1.4991,-49.4672,45.4699,20.4867,
34.4774,-7.4951,-4.4969,-119.4217,17.488,84.4437,37.4747,-5.4969,0.49955,-25.4837,-0.49955,-64.458,45.4694,33.4774,
33.4779,2.4982,-3.4983,-118.4221,7.4947,83.4451,34.477,-2.4982,-12.4921,-26.4832,-7.4956,-76.45,32.4788,33.4779,
38.4753,11.493,-2.4982,-117.4225,2.4982,78.4487,29.4805,-10.4929,-16.4884,-30.4796,-10.4929,-70.4535,28.4814,18.4779,
23.4753,-3.4978,-2.4987,-113.4257,2.4977,67.4553,31.4792,-15.4898,-1.4884,-27.4818,-0.49955,-57.4624,38.4748,11.4925,
28.9805,0,-8.9947,-119.9212,3.9973,67.9548,33.9769,-11.992,-3.9973,-36.9761,0,-45.9699,39.9734,18.9876,
17.489,-4.4969,-15.4898,-122.419,7.4951,82.9548,34.4774,-12.4916,0.49955,-38.4748,-0.49955,-30.9699,36.4766,26.4827,
14.4907,-0.49955,-18.4871,-118.4216,0.49955,97.9548,19.4872,-10.4924,2.4987,-26.4818,-3.4978,-15.9699,25.4837,24.4846,
29.4907,12.4916,-6.496,-110.4274,1.4986,105.4305,21.4863,-3.4978,-7.4951,-19.4872,-1.4986,-22.4854,29.481,31.4792,
18.4885,1.4991,-4.4964,-109.4278,3.4983,110.4274,26.4832,-6.4956,-6.4956,-26.4823,-1.4991,-33.4779,29.4805,30.4806,
17.489,0.49955,-19.4964,-123.4185,1.4996,95.4274,18.4881,-7.4951,-0.49955,-37.4747,-5.496,-38.4748,20.4863,15.4898,
11.492,-7.4956,-23.485,-122.4199,1.4991,87.4425,19.4867,-12.4921,7.4947,-37.4752,-1.4991,-32.4788,22.4849,12.4911,
16.4894,7.5044,-13.4911,-107.4292,2.4982,102.4425,28.4814,-10.4929,-2.4982,-32.4788,-5.4965,-41.4725,19.4867,15.4893,
31.4894,22.5044,-9.9929,-111.9261,6.9956,97.9354,28.9814,-6.9956,-17.4982,-33.9779,-15.9894,-56.4725,12.9921,10.9929,
16.4894,9.9934,-10.9925,-115.9234,16.9889,82.9354,27.9819,-14.9898,-31.9792,-35.9766,-9.9934,-63.958,25.9827,9.9934,
16.4894,16.4894,-18.4876,-116.4234,18.4876,78.4487,22.4849,-19.4876,-16.9792,-32.4788,-5.4965,-61.4593,35.4761,5.4965,
15.4893,10.4929,-28.4814,-117.4225,10.4929,72.4522,13.4911,-21.4858,-1.9792,-29.4805,-13.4911,-67.4557,20.4867,1.4991,
10.4934,-3.4978,-19.4872,-118.4221,21.4863,80.4473,13.4916,-20.4863,4.4969,-23.4845,-9.4933,-52.4557,9.4943,3.4978,
5.9955,-0.9991,-21.9859,-132.9128,20.9858,95.4473,6.9956,-26.9823,18.9876,-19.9867,-10.9929,-37.4557,12.9911,0.9991,
-9.0045,4.9964,-25.9832,-117.9128,22.985,100.9336,12.9911,-24.9832,17.9885,-10.9929,-4.9964,-22.4557,25.9832,13.9912,
2.9982,15.9894,-21.9859,-102.9128,33.9779,85.9336,9.9938,-28.9805,2.9885,-25.9929,-2.9982,-37.4557,15.9894,9.9938,
2.9978,7.9942,-6.9859,-87.9128,48.9677,100.9336,11.9916,-35.9766,-12.0115,-40.9929,-1.9987,-35.9766,12.9916,1.9987,
-4.4974,14.4902,5.4965,-72.9128,63.9677,115.9336,26.9916,-25.4832,-2.4982,-33.4779,-2.4982,-20.9766,27.4823,2.4982,
7.9942,29.4902,1.9987,-57.9128,61.9588,119.9207,23.9836,-21.9854,-13.9907,-40.973,-5.996,-35.9766,16.9889,-1.9987,
-7.0058,21.9849,0,-42.9128,57.961,134.9105,14.9893,-30.9796,-12.9921,-51.9664,3.9973,-50.9766,13.9902,0,
-1.4991,32.4788,0.50002,-37.4752,58.461,149.9105,24.4841,-35.477,-8.4947,-39.4743,3.4973,-43.4717,22.4849,-0.50002,
13.5009,47.4788,2.9978,-45.9694,51.9659,134.9105,22.9845,-33.9774,-7.9942,-24.4743,-5.996,-32.9783,19.9872,-2.9978,
-1.4991,62.4788,1.9987,-30.9694,45.9694,146.903,11.9916,-26.9828,-1.9987,-20.9863,-3.9978,-20.9863,22.9845,4.996,
-6.9956,67.9558,-5.9955,-15.9694,50.9664,161.903,11.992,-29.9805,0.9991,-28.9805,-0.9991,-10.9929,20.9858,4.9964,
-21.4858,52.9558,-7.4956,-12.4921,47.4681,176.903,13.4911,-41.4725,10.4929,-32.4788,2.4982,-22.4849,11.492,-2.4982,
-6.4858,56.9628,-0.9991,-12.9911,48.9682,191.903,-1.5089,-26.9823,23.9841,-28.9805,6.9956,-30.9796,9.9938,0.9991,
8.4938,62.4584,5.4965,-10.4929,57.4619,206.903,-5.4965,-25.4832,13.4911,-26.4832,-8.0044,-31.4797,6.4956,-7.4956,
-6.4956,53.4646,9.4938,-12.4921,58.461,221.903,9.5035,-33.4779,5.4965,-15.4903,-13.4911,-26.4823,8.4947,-5.4965,
-0.50002,63.4584,-5.5062,-21.4858,43.4717,236.903,10.4929,-33.4779,3.4973,-19.4876,-2.4982,-27.4823,13.4911,0.50002,
-6.4956,62.4584,-7.4956,-9.4938,58.4717,251.903,-4.5071,-27.4823,9.4938,-20.4867,3.4973,-12.4823,24.4841,10.4929,
0,62.9584,7.5044,-4.9974,73.4717,266.903,-3.9973,-27.9823,0,-13.9912,-3.9973,-1,11.992,6.9946,
4.4969,61.4597,-0.49955,-9.4933,88.4717,281.903,11.0027,-25.4827,-6.496,-12.4916,-1.4986,-16,14.4907,0.49955,
-10.5031,48.4681,-7.4956,-16.4894,103.4717,296.903,25.4832,-26.4832,1.4991,-23.485,1.4991,-31,23.484,-1.4991,
4.4969,58.461,7.5044,-21.4858,118.4717,311.903,10.4832,-33.4779,-3.4973,-32.4788,-6.4956,-19.4876,8.484,-4.4974,
-0.99957,51.9659,22.5044,-13.9907,133.4717,326.903,-4.5168,-27.9819,-2.9978,-17.4788,0.99957,-7.9952,8.9943,10.5026,
-15.9996,44.9703,7.5044,-23.9845,148.4717,341.903,10.4832,-21.9854,-5.996,-4.9969,4.9969,-15.9898,23.9943,13.9907,
-15.9898,54.9642,-7.4956,-26.9818,163.4717,356.903,25.4832,-26.9818,-7.9952,-18.9871,11.9925,-13.9907,36.9757,7.9952,
-17.9885,41.9726,3.9973,-16.9885,161.8928,371.903,10.4832,-41.9818,-3.9973,-26.9823,0.9991,0.9991,21.9757,-0.9991,
-2.9885,41.4725,6.4956,-16.4884,176.8928,386.903,-4.5168,-41.4725,5.4965,-21.4858,-11.492,12.4921,6.9757,-1.4991,
-17.9885,26.4725,-8.5044,-31.4884,191.8928,401.903,10.4832,-48.4677,4.4969,-36.4756,-4.4969,4.4969,4.4969,-10.4924,
-32.9885,22.9854,-23.5044,-27.9809,206.8928,416.903,7.9952,-52.965,-2.9978,-37.9748,3.9978,2.9978,13.9907,-14.9898,
-29.9805,37.9752,-19.9867,-25.9832,221.8928,431.903,4.9964,-48.9682,-0.9991,-26.9823,0.9991,8.9938,3.9973,-9.9938,
-31.4797,22.9752,-25.4832,-33.4779,236.8928,446.903,19.9964,-53.4646,14.0009,-30.4806,-2.4982,18.4876,2.4982,-10.4929,
-16.4797,37.9752,-10.4832,-25.4832,251.8928,461.903,6.4956,-40.4734,6.4956,-40.4734,-8.4947,11.493,13.4911,-11.492,
-7.9947,43.9708,4.5168,-19.9877,258.8291,476.903,-8.5044,-26.9823,-3.9973,-28.9814,0,8.9938,25.9822,0,
-22.9947,28.9708,-10.4832,-34.9877,273.8291,491.903,6.4956,-41.9823,-14.4907,-35.4765,3.4978,9.4933,13.4907,-3.4978,
-21.4854,43.9708,-25.4832,-25.4827,288.8291,506.903,21.4956,-40.473,-3.4978,-42.4721,3.4978,24.4933,15.4898,-5.496,
-27.9814,50.9664,-40.4832,-10.4827,303.8291,521.903,36.4956,-27.9814,-2.9982,-34.977,-4.9964,23.9841,25.9832,2.9982,
-12.9814,55.9628,-25.4832,-15.9894,288.8291,536.903,25.9822,-26.9823,-17.9982,-34.977,-12.9921,8.9841,19.9867,0,
2.0186,49.9673,-10.4832,-19.9867,275.8185,551.903,28.9814,-38.9743,-32.9982,-44.9699,-8.9938,-6.0159,10.9929,-15,
-7.9942,53.9641,4.5168,-5.996,290.8185,566.903,36.9757,-25.9827,-17.9982,-35.9766,0.99957,-0.99957,13.9907,-6.9951,
-0.50002,68.4548,-0.50002,-5.4965,296.3043,581.903,30.4796,-12.4921,-10.4929,-27.4823,0.50002,-0.50002,11.492,3.4973,
-15.5,53.4548,-15.5,-1.9987,285.8119,596.903,40.973,-27.4921,-11.9916,-37.9748,1.9987,14.5,14.9898,-4.9969,
-30.5,41.4725,-30.5,-10.4929,300.8119,611.903,55.973,-42.4716,1.4991,-48.4681,-1.4991,29.5,16.4894,-15.4893,
-37.4752,37.4752,-45.5,-25.4929,315.8119,626.903,70.973,-37.4752,1.4991,-39.4743,-1.4991,16.4894,13.4911,-13.4911,
-36.9761,42.9717,-30.5,-34.977,330.8119,641.903,55.973,-24.9841,-4.9974,-31.9797,5.9955,13.9902,3.9973,-3.9973,
-21.9761,57.9717,-15.5,-29.9805,322.7875,656.903,40.973,-16.9885,-2.9982,-28.9805,9.9938,24.9832,8.9938,-5.9955,
-29.48,43.4712,-22.4854,-44.9805,324.2862,671.903,30.4801,-23.4845,-4.4969,-20.4863,4.4969,24.4836,15.4898,-8.4942,
-26.9828,34.9765,-20.9863,-59.9805,330.7817,686.903,28.981,-28.981,-1.9987,-18.9881,1.9987,36.9757,4.9969,-6.9951,
-21.4854,38.4748,-19.4872,-64.458,328.2835,701.903,13.981,-33.4783,9.4933,-30.4801,6.496,46.4695,-1.4986,-15.4898,
-36.4854,27.9814,-34.4872,-71.9522,330.7822,716.903,0,-44.9699,6.9956,-33.9779,0,31.4695,0,-21.9849,
-51.4854,36.9757,-49.4872,-83.9447,345.7822,731.903,15,-41.9721,5.996,-23.9845,-5.996,19.9872,9.9934,-15.9898,
-55.4632,22.4854,-54.4641,-84.4447,360.7822,746.903,26.4827,-47.4686,12.4916,-30.4801,-3.4978,34.9872,3.4978,-21.4854,
-46.4695,26.4828,-39.4641,-76.45,362.2614,761.903,11.4827,-47.4686,13.4916,-36.4756,11.4925,49.9872,-10.4934,-23.4845,
-43.4717,25.4832,-46.469,-91.4398,377.2614,776.903,23.485,-47.469,6.4956,-37.4752,10.4929,35.477,-6.4956,-23.484,
-58.4717,13.9902,-61.469,-97.9354,392.2614,791.903,26.9823,-54.9637,5.9955,-32.9788,-3.9973,48.9672,3.9973,-30.9796,
-43.4717,28.9902,-54.4637,-82.9354,407.2614,806.903,11.9823,-47.469,4.4974,-25.4832,2.4982,63.9672,-2.4982,-32.4788,
-56.4633,42.4721,-43.4712,-75.45,422.2614,821.903,8.4942,-32.469,19.4974,-15.4898,17.4982,61.4597,-8.4942,-17.4788,
-50.4668,35.4765,-58.4712,-90.45,437.2614,836.903,23.4942,-25.4837,33.4774,-20.4863,7.4951,52.465,-7.4951,-7.4951,
-35.4668,49.4672,-43.4712,-105.45,452.2614,851.903,29.4805,-38.4743,18.4774,-22.4849,-1.4991,55.4637,1.4991,-16.4894,
-50.4668,53.9641,-28.4712,-93.9385,467.2614,866.903,14.4805,-49.9668,3.4774,-25.9827,10.9925,57.9615,5.996,-18.9871,
-53.9646,68.9549,-43.4712,-86.9424,482.2614,881.903,18.9876,-37.9743,-3.9973,-31.9787,10.9929,53.9646,3.9973,-13.9902,
-38.9646,56.9619,-55.9637,-101.9424,497.2614,896.903,31.9787,-42.9717,-3.9973,-28.9814,3.9973,47.9681,5.9955,-12.9921,
-53.9646,49.4677,-40.9637,-112.4261,501.1702,911.903,16.9787,-57.9717,-7.4951,-30.4801,7.4951,50.4668,7.4951,-25.4827,
-68.9646,55.4632,-55.9637,-105.4305,516.1702,922.8922,10.4934,-72.4517,0.49955,-39.4739,3.4978,57.4624,-0.49955,-39.4739,
-63.958,52.965,-70.9637,-90.4305,531.1702,907.8922,25.4934,-57.4517,15.4995,-24.9836,0.99957,60.9597,-0.99957,-24.4739,
-48.958,66.4566,-55.9637,-91.4398,523.1556,892.8922,40.4934,-42.4517,15.4893,-21.4858,-2.4982,49.4672,2.4982,-15.4903,
-33.958,57.9615,-40.9637,-101.9327,510.664,877.8922,55.4934,-43.9712,10.9925,-30.9792,-5.996,47.9686,5.996,-20.9863,
-48.958,45.4699,-25.9637,-110.4274,525.664,862.8922,40.4934,-43.4717,22.4849,-15.9792,1.4991,57.4619,17.4885,-15.4903,
-63.958,37.9752,-37.9752,-123.9186,540.664,847.8922,25.4934,-43.9708,37.4849,-11.992,11.992,58.961,12.9911,-17.9885,
-78.958,22.9752,-52.9752,-138.9186,531.1503,832.8922,10.4934,-58.9708,46.4699,-26.992,18.4885,55.4637,-1.4991,-32.9885,
-70.4535,14.4907,-67.9752,-153.9186,516.1503,817.8922,25.4934,-67.4553,31.4699,-38.4748,13.4907,40.4637,-13.4907,-46.4695,
-61.9593,29.4907,-82.9752,-163.8925,531.1503,802.8922,10.4934,-52.4553,40.9725,-23.4748,22.985,52.9645,1.5093,-31.4695,
-76.9593,30.4801,-93.4385,-148.8925,546.1503,787.8922,-4.5066,-53.4641,34.4774,-16.4889,21.4863,67.9645,16.4889,-23.4845,
-69.4539,29.4805,-105.43,-152.3995,561.1308,772.8922,10.4934,-63.4584,19.4774,-31.4889,7.4956,58.462,1.4889,-37.4752,
-54.4539,33.9784,-90.43,-144.9044,546.1308,757.8922,25.4934,-48.4584,25.9827,-20.9863,12.9916,71.9526,-12.9916,-22.4752,
-41.9726,48.9784,-75.43,-129.9044,561.1308,742.8922,10.4934,-33.4584,40.9827,-6.9956,27.9916,86.9526,2.0084,-7.9947,
-56.9726,42.9717,-60.43,-114.9044,576.1308,727.8922,-4.5066,-48.4584,25.9827,-21.9956,18.9876,77.9486,7.9947,-22.9947,
-69.4539,32.4788,-47.469,-126.4168,573.1229,712.8922,10.4934,-57.4619,10.9827,-22.4849,5.4965,73.4513,1.4991,-31.4797,
-54.4539,47.4788,-51.9659,-131.9128,575.6206,697.8922,25.4934,-46.9685,10.9925,-10.9925,2.9978,86.9429,-2.9978,-26.9818,
-69.4539,32.4788,-66.9659,-135.4106,590.6206,682.8922,10.4934,-55.4632,15.4898,-25.9925,3.4978,83.4446,-3.4978,-37.4757,
-84.4539,28.4814,-81.9659,-137.4092,588.1122,667.8922,25.4934,-56.4628,0.50002,-33.4779,0.50002,68.4446,-0.50002,-40.4734,
-70.454,37.4752,-85.4443,-129.415,573.1122,652.8922,40.4934,-59.4611,1.4991,-27.4823,1.4991,70.453,-1.4991,-35.477,
-58.961,38.9743,-70.4443,-114.415,559.6308,637.8922,25.4934,-59.9601,16.4991,-22.985,8.9938,85.453,-8.9938,-28.9814,
-46.4695,46.4695,-55.4443,-122.4194,574.6308,622.8922,31.4792,-53.465,31.4991,-15.4898,9.4933,82.4455,-9.4933,-25.4837,
-61.4695,31.4695,-70.4443,-137.4194,589.6308,607.8922,46.4792,-68.465,16.4991,-20.4867,2.4982,67.4557,-2.4982,-38.4743,
-76.4695,24.4841,-85.4443,-148.4022,604.6308,592.8922,61.4792,-68.4548,1.4991,-28.4814,1.4991,66.4566,-0.50002,-44.4708,
-61.4695,39.4841,-70.4443,-133.4022,589.6308,577.8922,46.4792,-53.4548,16.4991,-13.4814,16.4991,81.4566,7.4951,-29.4708,
-75.4509,30.4801,-55.4443,-132.4133,574.6308,562.8922,38.4748,-60.4606,16.4889,-13.4916,11.4925,79.4473,-7.5049,-27.4818,
-72.9522,28.9805,-70.4443,-147.4133,589.6308,547.8922,53.4748,-62.9584,7.9947,-21.9859,11.992,70.9531,-7.9947,-38.9743,
-75.9505,14.9903,-85.4443,-157.896,577.6193,532.8922,38.4748,-67.9548,8.9938,-31.9787,13.9912,55.9531,-8.9938,-46.969,
-65.9566,29.9903,-70.4443,-142.896,562.6193,517.8922,23.4748,-52.9655,23.9938,-16.9787,23.9841,54.9637,-0.9991,-31.969,
-65.4571,37.4757,-68.4553,-142.4062,572.1233,502.8922,38.4748,-59.4606,14.4907,-17.489,8.9841,66.4562,-8.4942,-33.4783,
-80.4571,22.4757,-83.4553,-136.4101,582.1167,487.8922,53.4748,-70.454,4.4974,-27.4814,2.4982,70.454,-2.4982,-40.4734,
-95.4571,16.4889,-98.4553,-142.4066,567.1167,472.8922,42.4721,-76.45,9.4933,-36.4766,0.49955,66.4562,-0.49955,-53.465,
-96.4358,19.4872,-99.434,-132.4123,552.1167,457.8922,57.4721,-71.4526,24.4933,-21.4766,-0.49955,81.4562,0.49955,-50.4668,
-81.4358,34.4872,-84.434,-117.4123,567.1167,442.8922,72.4721,-56.4526,26.4827,-6.4766,-2.4977,93.4385,0.49955,-35.4668,
-66.4358,49.4872,-69.434,-107.9292,582.1167,427.8922,63.9575,-46.969,11.4827,-13.9912,0,78.4385,0,-30.9796,
-81.4358,34.4872,-84.434,-122.9292,597.1167,412.8922,57.9624,-61.969,11.9925,-28.9912,4.9969,63.4385,-4.9969,-45.9796,
-87.942,19.9872,-73.9518,-114.9243,586.6135,397.8922,52.965,-73.9518,26.9925,-24.9836,10.9925,75.95,-10.9925,-46.9695,
-86.4429,18.4881,-58.9518,-115.4239,571.6135,382.8922,67.965,-73.4518,19.4872,-25.4827,15.4898,72.4527,-15.4898,-46.4695,
-95.9362,25.9832,-73.9518,-107.9287,586.6135,367.8922,82.965,-61.9593,28.9814,-24.9832,30.4898,74.9504,-0.48982,-42.9717,
-80.9362,37.9757,-81.9455,-103.9314,601.6135,352.8922,76.95,-49.9668,43.9712,-9.9832,26.9828,77.9491,5.996,-36.9757,
-82.9446,24.9836,-72.9517,-111.9261,616.6135,337.8922,79.9473,-55.9623,50.9668,1.9987,11.9828,90.9403,-1.9987,-28.981,
-82.946,38.9743,-83.9451,-103.9318,601.6135,322.8922,94.9473,-51.9664,54.9637,-3.9973,16.9885,105.93,3.9973,-20.9868,
-81.9465,31.9792,-84.9438,-96.9358,616.6135,307.8922,95.9367,-51.9659,49.9668,-5.996,29.9801,92.9384,5.996,-21.9854,
-76.45,25.4827,-69.9438,-111.9358,621.0905,292.8922,104.4304,-51.4669,61.4588,0.49955,35.4765,81.4464,-0.49955,-20.4872,
-61.45,40.4827,-54.9438,-119.9207,606.0905,277.8922,89.4304,-39.9734,76.4588,-3.9973,43.9708,86.9424,3.9973,-17.9885,
-72.4522,30.4796,-39.9438,-104.9207,591.0905,262.8922,74.4304,-43.4717,61.4588,-14.4902,38.4743,78.4487,6.4956,-26.4823,
-79.4473,45.4796,-54.9438,-89.9207,606.0905,247.8922,74.4509,-42.4721,46.4588,-9.4933,31.4792,64.458,9.4933,-22.4854,
-64.4473,60.4796,-69.9438,-74.9207,621.0905,232.8922,89.4509,-38.4753,45.4699,-2.4982,29.4805,65.4566,2.4982,-8.4947,
-49.4473,75.4796,-54.9438,-59.9207,636.0905,217.8922,104.4509,-29.4805,34.477,0.50002,27.4823,61.4593,-1.4991,-0.50002,
-34.4473,90.4796,-39.9438,-44.9207,626.587,202.8922,94.9366,-27.9819,25.9827,-1.9987,31.9783,50.9659,1.9987,-15.5,
-40.9725,105.4796,-27.9814,-29.9207,617.5937,187.8922,109.9366,-30.9796,40.9827,-4.9964,37.9752,65.9566,4.9964,-28.9805,
-25.9725,115.9234,-12.9814,-14.9207,602.5937,172.8922,94.9366,-36.9757,31.9792,-19.9964,22.9752,57.9624,-10.0036,-31.9783,
-27.9819,110.927,2.0186,0.079256,587.5937,157.8922,79.9366,-47.9686,16.9792,-29.9801,7.9752,65.9561,-25.0036,-30.9801,
-42.9819,105.9305,-5.996,5.996,602.5937,142.8922,94.9366,-41.9721,31.9792,-14.9801,22.9752,80.9561,-13.9907,-17.988,
-45.4699,120.9305,-20.996,-6.4956,602.1034,127.8922,109.9366,-27.4823,46.9792,0.019933,22.4849,84.4442,-2.4982,-18.4876,
-30.9792,108.9288,-32.9783,-14.9898,587.1034,112.8922,94.9366,-26.9818,47.9686,-1.9987,16.9889,69.4442,1.9987,-16.9889,
-17.989,100.9331,-17.9783,-22.9854,572.1034,97.8922,79.9366,-24.9836,57.9615,1.9987,26.9818,77.9482,-3.9978,-4.9969,
-32.989,90.4402,-15.4898,-29.48,571.1242,82.8922,94.9366,-37.4747,58.4615,3.4978,27.4818,75.4509,-3.4978,-15.4898,
-47.989,75.4402,-30.4898,-44.48,556.1242,67.8922,109.9366,-52.4747,51.9664,0.9991,24.9841,60.4509,-0.9991,-30.4898,
-52.4659,62.4588,-45.4898,-59.48,541.1242,52.8922,94.9366,-37.4747,36.9664,7.4951,24.4836,45.4509,-7.4951,-22.4854,
-37.4659,66.4566,-30.4898,-59.4611,526.1242,37.8922,79.9366,-22.4747,42.4716,22.4849,25.4832,60.4509,-5.4965,-7.4854,
-52.4655,56.4628,-15.4898,-47.469,511.1242,22.8922,64.9366,-37.4747,56.4628,7.4849,10.4832,75.4509,-20.4965,-22.4854,
-46.4695,62.4588,-30.4898,-41.473,496.1242,7.8922,79.9366,-50.4668,71.4628,3.4978,25.4827,86.4429,-5.4965,-20.4863,
-61.4695,47.4588,-45.4898,-56.473,492.6751,-7.1078,94.9366,-47.9681,56.4628,0,24.9841,71.4429,0,-23.9841,
-59.9606,42.9712,-57.9624,-71.473,477.6751,-22.1078,79.9366,-42.9721,43.9703,5.996,21.9854,68.9544,-5.996,-22.9854,
-58.461,42.4726,-45.4699,-70.453,462.6751,-37.1078,64.9366,-42.4716,55.4637,10.4929,17.4885,83.9544,-10.4929,-20.4867,
-62.9584,33.9779,-60.4699,-81.946,447.6751,-52.1078,49.9366,-37.9752,54.9637,4.9964,22.985,83.9451,-4.9964,-21.9859,
-47.9691,31.9787,-75.4699,-92.9389,437.7114,-67.1078,43.9708,-39.9734,59.9601,6.9956,30.9796,77.9486,-6.9956,-15.9894,
-62.9691,16.9787,-77.9487,-96.9363,422.7114,-82.1078,58.9708,-46.969,53.9646,16.9885,20.9858,73.9513,-13.9912,-11.992,
-61.4593,25.4832,-71.4531,-92.4394,407.7114,-97.1078,72.4522,-42.4716,38.9646,15.4893,9.4938,68.4548,-9.4938,-15.4903,
-46.4593,35.4761,-56.4531,-79.4482,403.2344,-112.1078,57.4522,-36.4761,30.4796,17.4885,23.484,70.453,1.4991,-5.4965,
-61.4593,20.4761,-71.4531,-94.4482,413.7278,-127.1078,42.4522,-47.9686,45.4796,12.9916,26.9818,56.9624,-12.9916,-16.9889,
-64.457,14.4907,-86.4531,-109.4482,398.7278,-142.1078,57.4522,-44.4703,57.4624,19.4872,25.4837,57.4624,-14.4907,-21.4854,
-68.4544,6.496,-71.4531,-112.4256,383.7278,-157.1078,42.4522,-43.4712,62.4588,24.4836,29.481,71.4526,-6.496,-15.4898,
-57.9615,8.9943,-86.4531,-106.9296,368.757,-172.1078,33.9774,-43.9712,51.9659,18.9871,30.9792,70.9535,-8.9943,-16.9889,
-52.466,7.4951,-97.4363,-105.431,376.2516,-187.1078,48.9774,-36.4766,46.4695,23.4845,34.4765,73.4508,-7.4951,-8.4952,
-58.961,0,-82.4363,-104.9314,361.2516,-202.1078,63.9774,-30.9796,61.4695,26.9823,39.9734,72.9513,0,-2.9982,
-43.961,4.4969,-67.4363,-92.4389,376.2516,-217.1078,48.9774,-28.4809,72.4527,27.4818,43.4712,74.4509,6.496,-4.4969,
-58.961,-10.5031,-82.4363,-92.9389,386.745,-232.1078,33.9774,-37.9752,57.4527,25.9832,39.9734,77.9486,3.9973,-3.9973,
-63.9575,0,-78.9477,-106.9291,371.745,-247.1078,48.9774,-33.9779,42.4527,28.9814,39.9734,63.9584,0,-2.9982,
-57.4619,-5.4965,-73.4513,-113.4252,356.745,-262.1078,33.9774,-35.4761,56.4628,22.4859,42.4726,56.4628,5.4965,-8.4938,
-66.4562,-20.4965,-88.4513,-113.4247,360.2632,-277.1078,18.9774,-38.4738,52.4659,17.489,39.4748,71.4536,13.4916,-7.4951,
-55.4642,-11.4925,-80.4473,-122.4199,345.2632,-292.1078,33.9774,-29.481,43.4712,22.4845,33.4774,77.4481,3.4978,-3.4978,
-60.4606,-18.4881,-65.4473,-122.4194,330.2632,-307.1078,48.9774,-27.4818,58.4712,31.4792,43.4712,81.4464,0.49955,-0.49955,
-55.4637,-24.4841,-80.4473,-123.4185,325.2857,-322.1078,37.4752,-32.4788,49.4672,31.4797,41.4725,75.4504,4.4974,-4.4974,
-57.4624,-24.4836,-95.4473,-129.4145,340.2857,-337.1078,22.4752,-34.4774,34.4672,25.4837,43.4712,62.4588,3.4978,-3.4978,
-72.4527,-28.4814,-98.4354,-127.4164,334.2795,-352.1078,37.4752,-34.4779,41.4725,21.4858,47.469,67.4557,-1.4991,1.4991,
-57.4527,-20.9863,-83.4354,-134.911,319.2795,-367.1078,52.4752,-31.9792,39.9739,22.9854,32.469,72.9517,-1.9987,1.9987,
-55.4632,-34.4774,-68.4354,-144.4053,304.2795,-382.1078,43.4712,-34.4774,24.9739,31.4792,18.4881,60.4597,0.49955,-0.49955,
-46.4695,-24.4846,-83.4354,-135.411,313.2932,-397.1078,40.473,-27.4818,33.4774,35.4765,27.4818,56.4623,-4.4969,4.4969,
-37.4752,-14.4902,-88.4416,-133.4119,303.2999,-412.1078,33.4779,-19.4876,48.4774,24.4841,42.4818,63.4584,-4.4974,4.4974,
-52.4752,-28.9805,-73.4416,-135.9101,288.8096,-427.1078,31.9787,-22.985,38.9743,18.9876,42.9717,53.9646,4.9964,-4.9964,
-59.9601,-20.9858,-88.4416,-137.9093,298.8035,-442.1078,16.9787,-25.9832,23.9743,16.9885,28.9805,42.9717,6.9956,-6.9956,
-44.9601,-9.4938,-103.4416,-126.4163,303.3008,-440.2096,1.9787,-20.4867,38.9743,31.9885,41.4725,57.9717,9.4938,8.0044,
-59.9601,-17.9885,-102.9323,-135.9106,288.3008,-455.2096,15.9894,-28.9814,53.9743,35.9761,48.9672,72.9717,-3.9973,3.9973,
-59.4611,-20.4867,-97.4358,-134.4115,295.3052,-470.2096,30.9894,-28.4814,60.4602,21.4858,63.9672,57.9717,5.4965,-5.4965,
-64.4575,-30.4801,-112.4358,-132.4128,292.3074,-472.1888,15.9894,-28.4809,53.465,17.488,72.4527,50.4668,12.4916,-3.4978,
-49.4575,-15.4801,-97.4358,-137.4092,277.3074,-457.1888,0.98937,-20.4858,50.4673,24.4841,57.4527,59.4611,5.4965,1.4991,
-59.9601,-18.9876,-82.4358,-132.9123,262.3074,-451.7021,15.9894,-26.9823,52.9655,20.9868,42.4527,58.961,0,0,
-58.4615,-15.4898,-95.4371,-119.4212,277.3074,-449.2043,30.9894,-21.4863,38.4748,20.4863,39.4739,56.4623,-2.4987,2.4987,
-43.4615,-0.48982,-80.4371,-112.9252,292.3074,-434.2043,15.9894,-12.9911,31.9797,22.985,49.9673,55.9637,-0.9991,0,
-45.4699,-5.4965,-65.4371,-105.4305,277.3074,-419.2043,0.98937,-20.4867,46.9797,18.4876,53.4646,61.4602,12.4921,5.4965,
-38.4743,-0.50002,-80.4371,-105.4305,262.3074,-424.2207,-0.50002,-25.4832,42.4716,3.4876,38.4646,59.4611,0.50002,0.50002,
-37.9752,-2.9982,-95.4371,-96.9363,277.3074,-423.7211,14.5,-11.992,27.4716,12.9911,23.9841,74.4611,-5.9965,2.9982,
-52.9752,-17.489,-81.4464,-111.427,292.3074,-421.2229,29.5,-17.489,24.4836,12.4916,29.48,64.457,-0.49955,0.49955,
-38.9748,-2.489,-66.4464,-119.9212,277.3074,-417.7251,14.5,-21.9863,35.9756,7.9942,42.9712,49.457,-1.9987,1.9987,
-31.9787,-8.9938,-51.4464,-109.9274,262.3074,-417.7246,7.9947,-17.9885,40.9735,12.9911,53.9646,40.9735,-4.9964,4.9964,
-44.4713,-14.4907,-62.4593,-109.4283,263.326,-431.2163,2.4977,-21.4863,47.4686,9.4933,40.473,48.4677,-0.49955,0.49955,
-37.9752,-6.9956,-58.961,-100.9336,252.8336,-416.7255,-8.9938,-11.992,57.9619,16.9885,41.9726,56.9628,6.9956,7.9947,
-22.9752,-1.4991,-49.4677,-98.4354,246.337,-401.7255,-16.4894,1.4991,44.4708,18.4876,53.4646,49.4672,-4.4974,12.4911,
-17.988,-0.99957,-64.4677,-110.927,252.8331,-416.7255,-1.4894,-3.9978,29.4708,14.9898,46.9695,34.4672,-2.9978,8.9943,
-32.988,-15.9996,-79.4677,-110.4274,250.3344,-423.2216,1.4991,-18.9978,21.4858,4.4964,31.9695,27.4814,3.4973,-1.4991,
-42.4716,-0.99957,-84.4442,-95.4274,253.3336,-408.2216,-4.4974,-19.4867,33.4779,4.4974,28.4814,42.4814,2.4982,-0.50002,
-34.977,3.9973,-76.9496,-80.4274,245.838,-393.2216,-14.9903,-14.9903,31.9787,3.9973,43.4814,54.9637,-3.9973,3.9973,
-49.977,-5.4965,-61.9496,-80.4473,249.3353,-387.245,-15.4903,-11.493,34.477,10.4929,50.4663,56.4628,5.4965,15.4893,
-34.977,5.4965,-46.9496,-85.4438,238.3433,-393.241,-0.49029,-15.4893,23.485,-1.4991,35.4663,47.469,4.4974,0.48934,
-34.4774,2.4987,-31.9496,-75.45,231.3482,-386.2455,-0.49955,-20.4863,25.4837,0.49955,24.4846,48.4686,3.4978,-8.4942,
-37.9752,6.9956,-46.9496,-69.954,231.8478,-377.7512,-15.4995,-17.9876,32.9788,12.9911,29.9805,49.9673,-2.9982,2.9982,
-33.4774,11.4925,-47.4686,-62.4588,231.3482,-372.2543,-30.4995,-21.4854,29.481,6.496,27.4818,51.4669,-0.49955,0.49955,
-48.4774,5.4965,-32.4686,-55.4637,229.3486,-374.2534,-15.4995,-27.4814,24.4841,1.4991,31.4797,52.4655,-1.4991,-13.4911,
-55.4632,19.4872,-42.4721,-66.4562,230.3482,-376.2521,-0.49955,-18.4881,22.4854,9.4933,42.4721,41.473,-9.4933,-9.4933,
