"AF3","AF4","F3","F4","F7","F8","FC5","FC6","O1","O2","P7","P8","T7","T8",
49.2305,25.6411,60,-15.8975,53.333,-9.7437,-4.1025,-12.3076,-25.6411,-8.2051,60.5127,4.1025,39.4873,-4.6157,
45.6411,25.6411,55.3848,-17.436,57.436,-12.8203,-7.6924,-20.5127,-30.2563,-9.7437,53.8462,5.1284,37.436,-5.1284,
36.6667,11.0256,52.5642,-25.8977,55.1282,-21.7952,0.76929,-33.0769,-45.2563,-15.6414,47.4358,-0.76929,29.9998,-12.0515,
43.0769,10.7693,58.9744,-22.0515,52.3074,-23.0769,4.6155,-24.6155,-43.0769,-16.4104,57.9485,-4.6155,38.9744,-9.2307,
47.9487,23.3335,59.231,-12.0513,63.3335,-12.0513,1.7949,-11.5386,-29.4873,-11.0254,63.8462,-2.3076,48.9746,-1.7949,
38.9744,25.6414,53.8464,-12.8206,61.5383,-7.1794,-0.51294,-12.3074,-31.282,-10.2561,58.4617,-1.5383,43.5901,0.51294,
37.1792,19.231,55.1279,-18.2051,54.1025,-15.6411,-2.3076,-20.769,-39.7437,-16.1538,55.1279,-3.3335,37.6924,2.3076,
42.0513,14.3589,51.7949,-25.1284,55.3848,-22.564,-0.5127,-26.667,-40.5127,-20.5127,48.7178,-6.1538,35.3848,0.5127,
43.0771,16.4106,45.1284,-23.0767,51.2822,-13.8462,0,-19.4868,-36.4102,-20.5127,42.0513,-3.0767,30.7695,0,
43.0771,18.9746,47.6924,-20.5127,51.7949,-6.1538,0,-17.436,-41.0254,-19.4873,40,-2.0513,26.1538,0,
51.5386,20.2563,55.1284,-23.3335,60.769,-11.5386,2.8203,-22.8203,-44.3589,-15.6411,38.7178,-3.3335,28.4614,-2.8203,
52.8208,17.9487,51.2822,-25.1279,55.8975,-19.4873,3.5898,-21.5386,-44.1025,-15.8975,35.8975,-3.5898,23.5898,-3.5898,
39.2305,12.564,43.8462,-24.3589,42.3076,-20.2563,3.8462,-19.231,-45.8975,-19.231,35.6411,-4.8721,13.0767,-3.8462,
36.4104,14.8718,50.7693,-18.9744,50.7693,-15.8977,2.5642,-18.4617,-40.5129,-11.7952,39.4871,-2.5642,17.4358,-3.5896,
38.4614,16.4102,53.333,-17.9487,58.4614,-17.436,-8.7183,-18.4614,-29.231,-5.6411,42.564,2.564,25.1279,-2.564,
32.8203,13.8462,48.2051,-20,48.7178,-17.9487,-14.8716,-17.9487,-27.1797,-8.2051,47.6924,1.5386,24.1025,-1.5386,
37.4358,18.4617,55.8972,-15.8972,50.2566,-11.7947,-1.0256,-16.4104,-32.3079,-7.1794,51.282,-4.1028,27.1794,1.0256,
36.6665,16.6665,56.1538,-18.7178,49.4873,-15.1279,3.3335,-23.8462,-37.1792,-14.6152,41.7949,-8.9741,28.4614,-3.3335,
30.2563,18.4614,49.7437,-11.2822,48.7178,-15.3848,3.0771,-21.5386,-32.8203,-20,40.5127,-3.5898,27.6924,-3.0771,
35.6409,19.2307,45.8977,-10.5129,47.949,-18.2048,2.3079,-14.1023,-37.1794,-19.7434,39.2307,-5.3845,22.8206,-2.3079,
39.231,11.5386,44.8721,-21.2817,43.8462,-22.8203,0.25635,-18.7178,-42.8203,-19.2305,28.9746,-6.9229,22.3076,-0.25635,
25.6409,5.1282,42.5642,-27.1794,42.0515,-25.1282,-1.5383,-29.7434,-47.1794,-25.6409,27.1794,-6.1541,21.0256,1.5383,
17.1794,8.4617,41.7947,-24.8718,40.7693,-23.8459,-3.8459,-26.9231,-44.3591,-25.8972,34.6155,-7.9485,19.2307,3.8459,
27.9487,13.0771,43.8462,-17.6924,42.8203,-17.6924,-6.4102,-18.7178,-35.6411,-23.3335,32.0513,-6.9229,22.8203,6.4102,
32.3076,8.2051,45.1284,-19.4873,40,-26.1538,-0.5127,-23.5898,-38.9741,-29.7437,24.6152,-8.7178,21.0259,0.5127,
25.6414,5.1282,47.1794,-26.1536,33.3337,-35.3845,8.2053,-29.7434,-44.1023,-31.7947,24.6155,-14.3586,14.3591,-5.1282,
25.6411,9.7437,46.1538,-19.4873,42.564,-20.3845,1.5386,-23.5898,-41.0259,-24.1025,23.5898,-15.3848,16.9229,-1.5386,
34.3589,13.8462,47.1797,-13.8462,57.436,-5.3845,-4.6152,-15.3848,-30.769,-13.8462,26.6665,-5.1284,29.7437,4.6152,
31.5383,11.5383,46.4104,-22.8206,48.4617,-15.6409,-1.282,-21.282,-36.1541,-12.0515,24.3591,-5.3845,25.8972,1.282,
31.5386,14.1025,49.4873,-21.7949,33.4617,-15.1284,4.3589,-19.7437,-45.8975,-7.436,21.2822,-12.564,18.2051,-4.3589,
37.9487,17.4355,55.3843,-14.8721,29.7437,-12.8208,6.1538,-16.9233,-36.9233,-8.7183,28.2051,-13.3335,23.5898,-6.1538,
34.6155,12.0515,49.4871,-15.6409,37.1794,-27.8208,4.8718,-26.9231,-24.8718,-18.718,40.7693,-9.4871,28.4617,-4.8718,
33.333,8.7178,47.1792,-15.8975,47.1792,-33.3335,3.5898,-29.231,-17.9487,-14.3589,52.8203,-4.6157,31.2817,-3.5898,
37.1797,12.0513,57.1797,-12.564,46.4102,-18.3335,1.7949,-22.3076,-17.1792,-1.7949,55.6411,-2.3076,31.0259,-1.7949,
28.7178,10.2563,55.8975,-15.8975,32.3076,-21.5386,-3.5898,-25.6411,-26.6665,-5.1284,42.0513,0.5127,23.0771,-0.5127,
25.3845,4.3591,47.9485,-24.3591,33.5896,-26.4104,-6.4104,-28.4617,-33.0769,-13.0769,29.9998,-1.282,15.6409,1.282,
34.6152,7.9487,53.0771,-21.7949,40.2563,-19.2305,-2.3076,-21.2817,-27.436,-12.564,30.5127,-6.4102,19.7437,2.3076,
33.3335,14.8721,60,-11.2817,44.6157,-16.9229,-5.6411,-19.4873,-27.6924,-14.3589,30.2563,-5.6411,24.6157,5.6411,
22.3079,9.9998,53.5896,-13.5896,37.1794,-26.4104,-2.8206,-25.3845,-38.718,-20.7693,22.3079,-7.949,15.6409,2.8206,
25.1284,2.564,49.7437,-15.3843,22.1794,-30.2563,12.1794,-26.6665,-33.8462,-20.5127,22.564,-14.8716,13.3335,-2.564,
30.2563,0,48.7183,-11.7949,28.2051,-29.7437,6.1538,-28.7178,-22.564,-23.5894,24.6157,-16.4102,16.4106,0,
32.5642,6.9231,51.0256,-6.9231,43.2051,-29.9998,-8.8462,-23.3333,-22.8206,-23.3333,27.949,-7.9485,13.0769,8.9744,
30.2563,5.1284,50.2563,-9.231,34.8721,-32.3076,-4.6152,-23.5898,-30.2563,-22.564,24.6152,-10.2563,4.6152,5.1284,
28.4614,0.25635,51.5386,-11.0259,20.769,-28.4614,9.4873,-23.8462,-25.8975,-26.4102,19.7437,-14.6152,6.4102,-0.25635,
22.8206,1.282,48.4612,-12.0515,29.9998,-28.9744,1.282,-26.4104,-26.4104,-30.5129,20.7693,-14.1028,7.9485,-1.282,
27.1797,6.6665,51.2822,-14.8716,38.9746,-30.769,-1.5386,-29.7437,-27.6924,-20,30.2563,-7.1792,6.1538,1.5386,
30.5127,3.333,52.0513,-19.231,25.8975,-36.667,0.25635,-32.564,-29.4873,-25.3848,21.7949,-15.1284,0.25635,-0.25635,
27.6924,0,47.6924,-16.9233,17.9487,-38.4619,0,-29.7437,-31.2822,-36.4106,15.8975,-25.1284,3.5894,1.5381,
21.0259,-0.5127,44.1025,-17.9487,25.1284,-38.4614,1.0259,-30.2563,-30.769,-33.8462,23.0771,-23.0767,7.1797,0.5127,
21.5386,4.1025,48.2051,-14.3589,33.3335,-40.5127,0.5127,-29.7437,-23.5898,-25.6411,28.7178,-14.3589,5.1279,-0.5127,
27.4355,5.3843,51.0254,-13.0771,27.4355,-42.3076,-1.7949,-25.8975,-22.8208,-21.7949,25.3843,-12.5645,7.4355,1.7949,
31.7949,0.51269,51.7949,-13.8462,29.231,-32.8203,1.5386,-24.6152,-27.6924,-20,30.7695,-13.8462,15.8975,-0.5127,
38.9744,3.0769,56.9231,-8.718,44.1023,-20.5129,10.7688,-20.0002,-22.5642,-20.0002,41.0256,-7.6926,20.5125,-3.0769,
41.0259,4.1025,58.4619,-6.1538,38.4619,-23.5894,18.9746,-19.4868,-18.9741,-24.6152,36.9233,-4.1025,21.0259,-8.7178,
37.6921,2.8206,59.7434,-2.8206,41.282,-21.282,22.8206,-21.282,-16.1536,-18.2048,38.2053,-2.8206,28.4617,-13.5896,
34.8718,2.5642,62.5642,-5.6414,53.3333,-12.8206,17.4358,-20.0002,-11.282,-13.8464,42.5642,-2.5642,29.2307,-13.8464,
34.8716,2.0513,58.9741,-10.2563,45.1279,-16.4106,9.2305,-22.5645,-17.436,-18.9746,36.4102,-2.0513,22.0513,-18.9746,
35.3845,-0.51294,51.7947,-13.3333,36.4104,-24.1028,3.0769,-32.3079,-26.6667,-19.4871,31.282,0.51294,22.5642,-30.7693,
31.5386,-0.25635,51.0254,-7.9487,44.8716,-21.2822,2.8203,-32.564,-12.564,-6.9229,43.8462,0.25635,36.6665,-31.0259,
23.0769,-2.051,50.7693,-3.5896,49.2307,-26.6667,7.1794,-32.8206,-1.0256,1.0256,50.7693,-5.6409,42.0515,-27.6921,
18.2051,-8.4614,48.9746,-6.4102,41.7949,-32.564,15.1284,-39.7432,-5.8975,-1.7949,43.8462,1.7949,33.0771,-32.564,
14.8721,-12.8203,41.5386,-8.2051,28.7178,-24.1025,8.2051,-45.1279,-14.3589,-9.7437,36.9233,10.2563,22.564,-42.564,
16.4104,-3.0769,37.949,-3.5896,36.4104,-9.2307,3.0769,-38.9744,-13.3333,-9.2307,38.4617,13.3333,23.5896,-36.4104,
11.0259,-5.8975,30.5127,-11.5386,41.7949,-14.1025,5.8975,-46.9229,-17.6924,-15.6411,31.0259,12.0513,18.2051,-32.0513,
10.2563,-10.2563,32.3076,-11.7949,26.7949,-21.0259,13.8462,-52.8208,-18.9746,-23.0771,28.2051,12.8203,12.3076,-33.3335,
11.0259,-8.4614,36.6665,-7.9487,17.6924,-18.7178,8.4614,-46.9229,-17.6924,-23.3335,30.5127,9.4873,7.9487,-37.1797,
13.8464,-2.5642,33.8464,-4.1023,32.6924,-11.7947,2.5642,-45.1282,-10.7693,-11.282,35.3845,15.8977,8.718,-27.6921,
16.4104,-7.1794,30.2561,-4.6155,47.6924,-15.3845,4.6155,-53.3333,-14.8718,-6.1541,34.8718,22.051,5.1282,-22.5642,
16.6665,-12.564,35.1284,-6.9229,32.6924,-12.564,8.4614,-48.4614,-16.1538,-4.8716,34.6152,22.3076,4.8716,-22.3076,
7.6924,-17.9487,31.7949,-9.231,21.5386,-10.2563,9.2305,-47.1797,-13.8462,-6.1538,30.769,18.9741,6.1538,-21.0259,
2.8206,-16.1536,24.3591,-6.9231,36.5386,-16.1536,12.5642,-53.5896,-15.6409,-2.8206,32.5642,22.8206,10.0002,-12.051,
3.8462,-15.1279,23.3335,-9.4873,37.6924,-25.3848,3.8462,-55.6411,-17.6924,-3.8462,32.564,18.2051,8.9746,-6.9229,
10.5129,-13.0769,33.0769,-2.3079,27.4358,-16.1541,2.3079,-43.8464,-13.0769,-9.4871,33.5896,17.6921,14.1023,-2.8206,
7.1794,-17.4358,30.7693,-3.0769,24.1028,-15.3845,3.0769,-45.1282,-17.4358,-21.0256,30.7693,20.0002,11.282,-6.1536,
7.6921,-14.8718,31.7947,-2.5642,28.718,-19.4871,1.5383,-44.1028,-12.8206,-17.4358,33.3333,26.6667,10.7693,-1.5383,
2.0513,-16.4102,30.769,-2.0513,21.5386,-21.5386,-2.0513,-43.5898,-7.1797,-15.8975,28.7178,29.231,12.3076,3.0771,
-1.2822,-17.6924,28.4614,0.76904,18.2051,-23.3335,3.8462,-44.8716,-7.9487,-17.1797,29.4873,25.3848,12.564,-0.76904,
3.8462,-23.3335,25.3848,0.25635,21.2817,-27.9487,-0.25635,-46.9233,-15.1284,-14.6152,34.1025,15.1279,7.436,-13.5898,
8.2048,-29.2307,27.6921,-2.5642,28.2048,-24.1028,2.5642,-46.1541,-13.8464,-10.7693,34.3586,15.8972,7.6921,-9.7439,
2.5642,-32.3079,29.2307,-4.1028,23.0769,-24.1028,14.3591,-47.6921,-13.8459,-18.9744,28.718,17.4358,4.6155,-2.5642,
2.3076,-28.9741,31.5386,-2.8203,16.1538,-26.9229,12.0513,-39.7437,-7.9487,-11.5386,34.1025,22.8203,5.3848,-2.3076,
3.5896,-30.2566,29.2307,-3.5896,20.5129,-27.6921,-1.0256,-34.3591,-6.1541,1.0256,38.9744,28.718,7.1794,-3.5896,
2.3079,-33.0769,28.9744,-2.3079,14.1028,-33.0769,-0.76929,-41.7947,-13.0769,-10.5129,35.6409,24.8718,6.4104,0.76929,
-1.2822,-40.2563,27.9487,-8.4614,1.2822,-46.9229,1.2822,-48.9741,-19.2305,-25.5129,29.4873,11.5386,5.3848,2.8208,
-0.76929,-36.1536,25.8977,-9.4871,16.2822,-39.7434,0.76929,-38.718,-14.6155,-19.7434,25.8977,15.1282,8.4617,7.4358,
2.564,-25.6411,23.5898,-4.1025,31.2822,-24.7434,-2.564,-29.7437,-13.3335,-18.4614,23.0771,20,10.2563,7.6924,
5.3848,-22.3076,25.3848,-3.8462,18.7183,-10.5127,-7.436,-31.0254,-17.1792,-33.4614,23.3335,8.9746,5.3848,3.8462,
14.1023,-16.1541,29.9998,-2.3079,14.6155,0.25659,-4.3591,-23.3333,-17.6921,-37.6921,23.8459,6.9231,-0.25659,9.4871,
12.3079,-14.3591,23.0769,-7.1794,12.8206,6.6667,-6.6667,-19.4871,-24.1023,-33.8459,15.8977,11.282,-5.6409,5.6409,
5.8975,-13.5898,22.3076,-3.3335,0.25635,12.0513,-15.6411,-19.231,-24.8716,-28.4614,15.1284,16.1538,-0.25635,3.3335,
0.5127,-13.3335,24.1025,1.5386,-14.7437,8.2051,-19.4873,-23.5898,-21.5386,-22.564,13.3335,14.3589,-0.51269,6.1538,
4.1025,-8.7183,26.1538,2.0513,-15.3848,1.5386,-4.4873,-18.4614,-13.3335,-11.2822,14.8716,20,-1.5386,10.2563,
3.3337,-6.9231,23.8464,-1.282,-0.38477,-4.8718,-2.3074,-15.1282,-14.615,-9.4871,15.1282,26.9231,1.282,10.0002,
-2.0513,-7.6924,23.0767,-2.0513,14.3589,2.0513,-16.4102,-18.9746,-18.4614,-12.8208,13.8462,27.6924,6.1538,15.8975,
-0.76904,-8.9741,26.4102,0.76904,-0.64111,12.564,-14.6152,-17.1792,-14.6152,-11.0254,17.6924,30,10,15.6411,
-0.5127,-10.2563,24.1025,0.5127,-12.8203,13.3335,-13.3335,-13.3335,-14.8716,-20,18.4614,31.2822,10.2563,5.1284,
-3.8464,-12.0515,22.8206,-2.8206,2.1797,5.8972,-18.718,-16.6667,-16.6667,-30.0002,14.1023,25.8972,9.9998,4.3591,
-3.5896,-13.3333,30.7693,1.0256,13.3333,-1.0256,-11.7947,-18.4617,-11.7947,-29.7434,14.8718,15.8972,11.7947,6.1541,
0,-13.3335,37.9487,5.6406,2.0513,-3.0771,-0.51318,-18.4619,-3.5898,-32.3081,18.4614,9.7432,17.4355,0,
-1.7952,-17.1794,34.1023,2.8206,-1.282,-7.4358,1.7947,-24.3591,0.76929,-37.6921,16.6667,10.5129,23.3333,-0.76929,
-5.1282,-23.0769,27.6921,1.0256,-3.0769,-5.1282,-1.0256,-25.1282,1.0256,-23.0769,15.3845,16.9231,22.5642,7.1794,
-7.6924,-25.1284,27.6924,3.5898,-10.769,-2.0513,-2.0513,-16.9229,-0.5127,-8.0769,16.4102,26.6665,19.4873,11.2822,
-12.3076,-24.6152,25.1284,3.5898,-4.6152,-14.8716,-3.5898,-17.436,-5.1279,5.1284,15.3848,31.2822,16.9233,12.3076,
-12.0513,-25.3848,22.8203,0.25635,6.4102,-17.6924,-2.8208,-23.3335,-5.3848,-0.25635,13.5898,29.4868,12.0513,13.0767,
-9.9998,-21.282,27.949,3.3333,-5.8972,-2.6924,-2.3079,-17.6921,-0.76929,-0.76929,10.0002,30.0002,11.5383,8.9744,
-8.2053,-18.4617,32.3079,9.2307,-10.2566,3.5896,-4.6155,-12.8206,-6.1541,-3.5896,6.6667,25.6409,13.8459,7.1794,
-3.0769,-22.0515,31.282,3.5896,4.7434,-8.718,-1.5383,-22.0515,-13.8464,-17.4358,1.5383,10.6409,6.1536,4.6155,
7.9485,-16.6667,39.2307,6.4104,17.6921,-5.3845,8.4617,-20.7693,-6.4104,-31.0256,-1.7947,1.7947,3.8459,-3.3333,
10.7693,-11.282,46.6667,12.8206,2.6921,-2.5642,8.2053,-9.7434,1.0256,-34.3591,-1.0256,1.0256,10.7693,-9.7434,
3.5898,-12.3076,41.5386,10.7695,-5.6411,-10.2563,0.51269,-11.7949,0,-31.7949,1.5386,0,13.8462,-4.1025,
-2.3076,-13.5898,36.6665,14.6152,9.3589,-15.6411,7.9487,-15.1284,0.25635,-28.9746,1.7949,-3.3335,12.564,-0.25635,
-6.9231,-21.7952,35.6409,14.6155,16.6667,-15.1282,11.5383,-14.1028,5.3845,-26.4104,4.8718,-4.8718,13.0769,-7.4358,
-7.1794,-26.1541,38.4617,11.7947,1.6667,-13.8464,5.6409,-16.9231,8.2048,-22.5642,13.8459,3.0769,18.9744,-9.7439,
-4.3591,-20.2561,38.718,15.1282,-13.3333,-22.3076,11.0256,-17.6921,4.3591,-19.7434,13.0769,11.0256,20.7693,-6.9231,
-4.3591,-21.282,34.6155,12.5642,-4.3591,-31.0256,7.4358,-18.718,4.3591,-16.6667,4.3591,4.3591,15.6409,-13.0769,
0.5127,-21.5386,36.9229,15.3843,8.7178,-25.1284,-0.5127,-18.4614,15.3843,-8.2051,10.2563,-3.0771,16.9229,-15.3848,
3.5896,-22.5642,38.9744,18.9744,-6.2822,-25.1282,3.5896,-19.4871,20.0002,-10.7693,12.3079,-3.5896,14.3591,-16.4104,
0,-28.718,38.4614,14.8716,-16.9229,-31.7949,4.6152,-20.5127,17.436,-16.4102,8.2051,0,9.7437,-19.4873,
-4.8716,-31.5383,35.1284,11.0259,-1.9229,-28.9744,-0.25635,-18.2051,17.6924,-16.1538,12.0513,4.8721,8.9746,-16.1538,
-7.4358,-31.0256,32.051,5.3845,2.8206,-35.6411,-0.25659,-22.8206,12.051,-25.3848,6.4104,0.25659,3.8459,-16.1541,
-2.3076,-22.8203,37.6924,11.0254,-6.9233,-33.0769,2.3076,-18.7178,11.0254,-25.3848,3.8462,2.8203,4.8716,-12.0513,
-3.3333,-19.7434,36.1541,16.6667,-9.9998,-18.0769,3.3333,-9.9998,16.1541,-15.6409,14.6155,12.0515,10.5129,-4.8718,
-10,-23.8462,31.5386,15.1279,-4.3589,-14.1025,3.8462,-7.436,17.6924,-8.4614,20.2563,13.0767,10.5127,-3.8462,
-2.3076,-17.1792,37.6924,20.2563,-0.25635,-16.6665,0.25635,-7.4355,17.6924,-3.333,21.7949,17.6924,19.7437,-0.76904,
-0.25635,-17.1792,37.6924,20.2563,-14.1025,-16.6665,-1.2817,-11.0254,13.5898,-8.4614,22.3081,12.5645,23.3335,0.25635,
-10.0002,-22.3079,27.4358,14.6155,-17.1794,-16.6667,0.76929,-14.1028,8.4617,-16.6667,16.6667,-0.25659,13.0769,0.25659,
-12.5642,-21.282,24.3591,8.9744,-2.1794,-16.1541,-3.3333,-15.1282,7.4358,-13.5896,3.3333,1.7947,3.3333,-1.7947,
-2.8206,-11.0256,32.0515,11.5383,8.4617,-7.9485,0.25659,-5.3845,11.5383,-8.4617,-1.282,12.0515,5.8972,-0.25659,
1.7947,-4.8718,33.5896,13.5896,-4.8718,0.25659,-0.76929,-2.3079,4.3591,-23.3333,-4.8718,1.282,4.8718,-0.25659,
9.7437,0.5127,34.3589,10.769,5.6411,7.6924,-0.5127,-7.1797,-5.6411,-38.3333,-9.231,-11.7949,2.0513,-0.5127,
14.1023,2.8206,32.051,4.8718,12.051,1.282,9.9998,-13.0769,-11.0256,-44.8718,-18.718,-15.1282,-1.282,-8.4617,
18.7178,4.3589,31.5381,3.8462,13.5894,-12.0513,12.564,-11.0259,-0.25635,-33.5898,-15.1284,-12.5645,0.25635,-12.5645,
24.3589,1.7949,32.0513,4.3589,20.7695,-21.2822,-2.436,-15.1279,2.3076,-33.5898,-1.7949,-18.7178,5.8975,-14.6152,
29.2307,4.6155,37.4358,5.1282,12.3079,-19.4871,0.51294,-22.0515,-10.7693,-46.6667,-0.51294,-30.2566,8.718,-16.9231,
34.3589,14.3589,43.0767,6.1538,17.436,-13.3335,15.5129,-14.8716,-10.769,-37.9487,-6.1538,-23.5898,7.1797,-13.3335,
34.6152,17.1792,42.3076,7.9487,32.436,-17.1797,25.8975,-11.5386,-5.3848,-22.9487,-19.7437,-10.5127,5.3848,-7.436,
37.9485,13.3333,45.1282,9.7434,47.436,-27.1794,19.4871,-17.4358,-12.3079,-29.2307,-31.7952,-17.949,2.5642,-2.5642,
40.7693,6.4104,44.3591,6.9231,50.0002,-40.2561,14.6155,-28.9744,-16.1536,-44.2307,-28.4617,-32.949,2.8206,-2.8206,
39.4868,3.5898,40.5127,9.2305,45.1279,-50.7693,17.9487,-34.8721,-3.5898,-48.2053,-17.436,-36.9233,8.2051,-4.1025,
33.3333,-1.0256,40.5125,6.1536,30.1279,-60.5129,23.0769,-33.8464,1.0256,-48.718,-18.9744,-36.4104,9.7434,-10.7693,
31.7947,-2.5642,45.6409,9.7434,32.3074,-64.6155,26.1536,-27.6924,2.5642,-49.7437,-14.8718,-37.9487,17.4358,-12.8206,
26.9233,-11.5386,41.2822,10.5127,47.3074,-76.1538,20.7695,-37.6921,6.4102,-49.4871,-6.4102,-38.7178,22.3076,-22.3076,
24.3589,-19.2305,38.7183,4.3589,54.1025,-90,19.231,-47.9487,7.436,-48.4614,-4.3589,-34.1025,21.2822,-30,
27.9487,-20.2563,43.8462,3.3335,39.1025,-92.564,23.3335,-42.8206,5.8975,-43.8462,-3.3335,-26.9231,19.7437,-25.3845,
18.2051,-25.3848,42.8203,1.7949,54.1025,-93.5898,25.8975,-40.2563,6.9229,-37.6924,-1.7949,-23.8462,19.7437,-24.3591,
6.6667,-33.8462,34.8718,-1.0256,69.1025,-99.4873,24.6155,-43.5898,7.1794,-37.436,1.0256,-30.7693,20.5129,-30.7693,
6.1536,-43.0771,32.3074,-5.1282,54.1025,-108.2053,19.9998,-42.5642,6.1536,-39.4873,5.1282,-33.8462,17.4358,-30.2566,
8.2048,-47.1797,37.4358,-6.6667,39.1025,-113.3335,24.615,-37.949,12.3074,-38.9746,6.6667,-25.1284,16.4099,-22.5642,
2.8206,-49.4871,37.1794,-2.8206,51.0256,-118.2051,31.5388,-40.2563,15.1282,-42.8203,9.4875,-18.7178,18.718,-24.3589,
-1.0256,-50.7693,31.7947,1.0256,63.0769,-119.4873,34.8718,-45.6411,16.4104,-48.2051,15.3845,-17.9487,21.0256,-28.718,
1.7949,-51.0256,32.0513,-1.7949,55.1284,-120.2563,30.5127,-45.8972,18.2051,-55.1282,17.1797,-18.7178,19.231,-34.6152,
2.8206,-52.564,35.6414,-2.8206,60.2566,-119.7434,26.9231,-39.2307,14.6155,-52.564,17.1794,-16.6665,17.6926,-45.3845,
-0.76929,-52.0513,32.5642,0.76929,59.2307,-118.718,26.9231,-33.0769,17.6921,-37.564,16.6667,-13.0769,18.718,-54.1025,
-0.5127,-48.2051,35.8975,0.5127,49.7437,-117.9487,25.1279,-30.7693,23.5898,-22.564,14.3589,-12.8206,14.8716,-62.0513,
2.564,-48.718,41.5386,-2.564,64.6152,-113.8462,27.1797,-32.3076,18.4614,-33.8462,11.7949,-16.4104,10.2563,-70.2563,
-1.0256,-50.2566,37.4358,1.0256,67.1794,-109.7437,26.1536,-34.8721,13.3333,-40.0002,13.3333,-16.4104,11.7947,-77.436,
-3.8459,-44.3589,31.0256,3.8459,52.1794,-108.9744,13.5896,-35.1282,13.5896,-25.0002,13.0769,-6.4104,10.5129,-80.2563,
-0.25635,-35.1282,32.564,-1.2822,51.5386,-97.6924,7.9487,-32.0513,14.6152,-20.2563,8.9741,0.25635,4.8716,-75.6411,
1.0256,-30.2563,33.8459,3.0769,66.5386,-83.5898,22.9487,-29.7437,12.3079,-33.8462,7.6921,-4.1028,-1.0256,-78.9744,
-1.0259,-32.3076,29.231,8.2051,51.5386,-88.2051,31.7949,-33.8462,15.8975,-29.7437,22.0513,-0.5127,0.5127,-88.718,
-15.1284,-47.3076,18.2051,-2.3076,36.5386,-103.2051,16.7949,-48.8462,17.6924,-22.8206,29.4873,2.3076,2.3076,-93.0769,
-22.0515,-54.3591,14.8716,-2.0513,48.2051,-105.6411,3.5894,-55.3848,25.1279,-19.4873,30.2563,2.0513,10.769,-86.1541,
-12.5642,-54.1028,15.6409,1.282,54.1023,-104.3591,11.5383,-54.6155,27.9485,-13.0771,34.1023,-1.282,13.5896,-88.9744,
-10,-57.1794,12.0513,-0.25635,39.1023,-104.3589,13.5898,-57.6921,19.7437,-12.0513,33.5898,0.25635,7.436,-91.0256,
-18.4614,-55.8972,9.7439,-0.51294,33.8464,-92.8203,8.2053,-51.7947,23.0769,-13.3333,33.3333,0.51294,11.282,-77.9487,
-17.1797,-53.5898,12.0513,2.3076,48.8464,-87.9487,14.6152,-46.4104,32.0513,-8.4614,34.1025,-2.3076,15.6411,-71.5386,
-16.6667,-57.6924,8.4614,2.3076,51.0259,-97.1794,18.2051,-52.5642,21.7949,-6.9229,24.8716,-2.3076,4.3589,-78.718,
-25.1282,-58.9744,8.7178,1.0254,36.4102,-95.8975,13.3335,-51.7949,20,-10.769,17.9487,0.5127,-0.5127,-78.4617,
-24.8717,-58.205,14.6154,4.359,38.7179,-92.5641,21.2823,-51.0255,32.5641,-12.5641,24.359,-4.359,5.8976,-71.0255,
-21.7949,-65.8975,14.1025,5.3848,40.2563,-100.2563,28.4614,-57.6924,28.9741,-5.3848,23.3335,-6.9231,5.8975,-70,
-30.5129,-71.0256,5.8975,0.25635,33.5898,-101.282,13.4614,-60.2563,15.1284,-0.25635,11.0259,-5.3848,1.7949,-75.6411,
-28.4617,-57.6924,7.9487,5.3848,42.3076,-86.282,2.3076,-48.4617,20.769,-2.3076,19.231,-2.3076,7.9487,-69.4873,
-26.9231,-56.6667,7.9487,8.4614,29.4873,-76.1538,7.9487,-48.4617,25.3848,-13.5898,24.3589,-4.8716,4.8716,-63.3333,
-28.2053,-61.0256,7.6921,10.2561,14.4873,-84.1025,6.6667,-50.7693,22.5642,-12.8206,15.8972,-0.51294,0.51294,-57.9487,
-22.8206,-55.6411,13.5896,10.5129,29.4873,-81.7949,5.3845,-45.8975,20.7693,-8.4617,13.0769,-3.3333,3.3333,-55.1282,
-14.3589,-47.6924,20.0002,11.282,44.4873,-69.7437,20.3845,-38.4614,23.5896,-9.2307,18.9744,-9.7437,9.2307,-49.2307,
-19.4872,-48.2052,16.4103,10.2565,37.9489,-70.2565,22.5641,-38.4615,25.1281,-15.3846,16.4103,-10.2565,10.2565,-45.641,
-23.5898,-51.2822,13.8462,7.6924,22.9489,-77.436,15.8975,-44.6155,26.6665,-18.4617,11.2817,-7.6924,10.2563,-44.6155,
-15.8973,-49.2308,17.4359,12.3075,21.5385,-77.9486,29.2308,-39.4872,25.641,-15.8973,7.1796,-7.1796,10.2562,-39.9999,
-7.1794,-42.0513,21.5383,20.0002,33.8459,-69.2307,33.8459,-27.6924,23.5896,-12.3076,4.6155,-4.6155,10.2566,-34.3589,
-7.9487,-41.7947,18.7183,15.6411,46.4102,-64.8718,20.7695,-31.0256,25.3848,-8.9744,2.3076,-2.3076,5.8975,-35.6409,
-15.6409,-42.8203,13.5901,10.0002,38.2053,-70.5127,15.1282,-35.6409,23.8464,-8.9744,2.8206,-0.76929,0.76929,-34.1025,
-26.4102,-41.7949,8.4617,4.8718,23.2053,-76.1538,16.6667,-34.6155,18.2053,-11.5383,3.8459,-2.3079,2.3079,-29.4871,
-31.0259,-41.7949,8.4614,10,13.0767,-77.1797,18.7178,-35.1284,23.333,-10.0002,3.8462,-3.8462,4.8716,-28.9746,
-24.6155,-41.5386,15.8972,21.5383,28.0767,-71.7949,22.5642,-35.3848,33.8459,-7.6924,3.0769,-3.0769,7.6921,-26.1538,
-18.2052,-35.641,19.2306,22.3077,25.8976,-65.8973,18.7179,-30.5128,35.1281,-13.077,4.8717,-4.8717,15.6412,-18.2052,
-13.5897,-27.4359,21.7948,23.3334,15.641,-73.5897,23.3334,-22.8204,33.5897,-14.1027,8.4615,-8.4615,15.641,-18.2052,
-14.1027,-28.4615,30.5131,22.8207,26.41,-61.2821,38.3334,-23.8461,35.641,-6.4103,4.8717,-4.359,4.359,-22.8204,
-15.1283,-35.1283,30.5128,19.2306,33.59,-46.2821,34.1027,-28.4615,33.0768,-9.4872,-1.2821,-0.76916,0.76917,-23.3334,
-17.6924,-44.3591,15.5128,13.5894,25.8975,-31.2821,19.1027,-36.1541,25.3843,-21.7952,-0.25635,-7.436,0.25635,-28.9746,
-23.0769,-47.1794,5.6411,8.2051,17.9487,-16.2821,14.8716,-44.1025,22.564,-23.5896,0,-14.3589,0,-32.8206,
-27.1797,-41.0256,11.2817,7.6924,14.3589,-1.2821,29.7437,-41.0256,21.0254,-24.1028,-5.6411,-13.3335,5.6411,-29.231,
-28.9744,-44.8718,6.4104,4.8718,15.6409,13.7179,15.6409,-35.1282,19.7434,-29.4873,-4.8718,-13.0769,7.4358,-29.4873,
-32.3076,-54.8718,2.5642,2.5642,20.5129,28.7179,12.3079,-38.9744,22.5642,-27.1794,-2.5642,-12.8206,4.1028,-33.3333,
-31.7949,-49.7437,8.718,6.1541,23.0769,19.4871,26.6667,-41.0256,21.5383,-27.6924,-3.5896,-12.3076,3.5896,-32.3076,
-34.8718,-46.1538,7.1794,3.5896,20.5129,27.1794,14.3591,-34.3591,13.3333,-35.8975,-2.5642,-14.3591,2.5642,-31.7949,
-42.5642,-52.8206,3.0769,1.5383,13.8459,32.8206,3.5896,-31.7949,13.3333,-31.2822,-1.5383,-11.7949,2.5642,-29.231,
-38.9741,-48.2051,6.6667,3.0769,13.8464,29.7439,18.5896,-36.4102,18.4617,-23.5896,-3.0769,-5.1282,3.0769,-28.2051,
-32.5642,-41.7949,6.4102,5.3848,22.8203,29.4873,20.769,-34.6155,15.6411,-28.9744,-1.7949,-4.3589,1.7949,-31.0256,
-36.6665,-45.3845,1.7949,6.4102,25.3848,36.1538,5.769,-31.0256,12.0513,-28.9741,7.436,-3.8462,1.7949,-28.4614,
-39.4871,-47.6921,1.0256,1.5383,10.7693,31.7952,2.0515,-34.3589,12.3079,-23.0769,9.2307,-4.1023,-1.0256,-28.7178,
-34.8718,-41.5386,3.0769,4.6155,3.5896,24.6155,15.3845,-35.3848,14.3591,-22.0513,9.2307,-3.0769,-3.0769,-31.282,
-40.2563,-42.8206,1.7947,11.5383,9.9998,21.7947,9.4871,-40.7693,18.718,-28.4617,16.1541,-6.4104,-1.7947,-32.0513,
-43.077,-49.7438,3.077,8.7177,8.7177,14.3588,9.7435,-43.59,22.5638,-37.4359,18.4613,-12.3077,-3.077,-29.2308,
-36.6665,-48.9744,4.3589,7.9487,8.4614,18.7183,11.0259,-36.1538,22.8208,-41.282,13.0771,-9.4871,-4.3589,-26.4102,
-37.1794,-50,4.3589,7.436,22.8208,23.8462,11.5386,-35.6409,22.8208,-41.282,10,-7.9487,-4.3589,-25.8975,
-37.1794,-48.9744,8.9741,7.436,26.9229,15.1279,26.5386,-42.3079,22.8203,-40.2566,12.564,-7.436,-7.9487,-22.8206,
-35.1284,-51.0259,7.4355,5.3843,11.9229,8.9741,19.2305,-44.8718,17.1792,-35.1284,6.4102,-3.8462,-16.1541,-24.8718,
-33.5898,-48.4617,4.8718,6.9231,4.8718,17.1794,4.2305,-38.2053,18.2048,-30.0002,7.9485,-2.8206,-13.0771,-25.8975,
-32.8207,-42.0514,6.1537,8.205,19.8718,15.8973,5.1283,-37.4359,24.1024,-22.5643,17.4359,-5.1283,-6.6669,-23.077,
-30,-42.8206,5.8977,4.8718,14.1028,8.4617,3.3333,-42.8206,25.3845,-10.5127,12.0515,-3.3333,-8.9744,-21.7949,
-23.8461,-40.7692,10.5128,7.9489,2.3077,15.1281,10.0001,-37.6923,25.8976,-13.0768,10.5128,-2.3077,-7.4359,-21.7948,
-26.4104,-38.2051,7.9487,7.9487,13.5898,16.6665,19.7437,-31.0256,20.2563,-28.0768,18.7178,-14.6155,-7.9487,-24.8718,
-26.6665,-34.8716,4.1025,5.6411,28.5898,20.5132,15.8975,-24.6152,21.0259,-35.3845,27.1797,-13.3333,-4.1025,-15.3845,
-27.9487,-42.3076,4.3589,4.8716,13.5898,20.2563,12.564,-29.4873,17.6924,-36.6667,15.6411,-15.6411,-4.3589,-14.1025,
-26.1538,-42.051,9.2307,5.6414,3.0769,17.949,27.564,-32.3076,18.4617,-51.282,8.2053,-22.564,-3.0769,-16.4102,
-27.9487,-35.6411,1.7949,4.3589,18.0769,15.6411,21.2822,-27.436,21.2822,-55.6411,10,-18.718,-1.7949,-12.0513,
-28.2051,-30.7693,2.0513,8.7178,31.2822,19.4873,6.2822,-17.9487,23.5898,-42.0513,12.3076,-7.6924,-2.0513,-4.1025,
-34.6155,-36.1538,6.9229,6.9229,16.2822,17.1797,13.5898,-21.7949,16.6665,-41.282,7.9487,-12.0513,-10.5129,-6.9229,
-32.5641,-35.1283,7.9486,7.4359,6.9232,19.7435,21.2821,-24.359,17.6923,-35.1283,9.9999,-10.0001,-12.5641,-6.9232,
-32.0513,-36.6667,0.76904,0.25635,13.5898,17.1797,6.2821,-21.7949,18.7178,-24.3589,5.3848,-0.25635,-14.6155,-5.3848,
-28.4614,-32.0513,4.3591,4.3591,0.76929,15.1282,-1.282,-15.1282,22.8206,-20.769,5.3845,2.3079,-7.4358,-0.76929,
-20.7693,-26.9231,15.6409,13.5896,-6.4102,18.718,13.718,-16.1538,23.3333,-27.9487,7.949,-6.4102,-0.76929,0.76929,
-15.641,-28.9742,20.2565,8.9742,8.5898,17.6925,28.718,-18.7179,19.2311,-29.4872,4.359,-6.923,-4.8717,-4.359,
-18.4617,-28.2053,14.3591,5.1282,23.5896,13.8459,13.718,-16.4104,18.9744,-29.7437,1.0256,-1.0256,-6.6667,-5.1282,
-26.9231,-28.4617,6.9229,6.4102,23.8462,10.5127,4.3589,-20.2563,19.7437,-42.8206,2.8203,-5.3848,-11.0256,-2.8203,
-25.8973,-33.0768,7.9489,7.9489,17.6925,11.0255,19.3589,-22.3077,19.7438,-51.0255,2.8204,-10.5128,-26.0256,-2.8204,
-19.2307,-31.0256,12.564,8.4614,8.9741,14.6152,19.2305,-15.1282,22.3076,-50.5129,3.3335,-10.5129,-41.0256,-3.3335,
-18.9742,-30.7692,12.308,6.6669,7.1796,10.2567,8.2054,-13.3331,25.1283,-51.7948,5.641,-11.2819,-44.1024,-5.641,
-18.205,-28.4615,13.5897,9.9999,13.5897,5.3846,7.9486,-14.1024,24.3593,-44.359,9.4872,-5.8973,-36.1537,-5.3846,
-16.1538,-25.8975,13.0769,10.0002,19.2307,1.282,13.5896,-16.1538,23.3333,-31.5383,17.1794,-1.282,-39.2307,-7.9487,
-13.3335,-23.5898,19.4873,13.8462,15.8975,-3.0769,28.5896,-15.8975,35.8975,-20.5129,32.1794,3.0769,-37.9487,-8.718,
-9.7435,-21.0255,28.205,21.5385,12.3077,-8.2052,34.3588,-12.3077,43.077,-11.7948,41.0258,7.6923,-31.7948,-7.6923,
-7.9489,-20.2565,23.3331,12.5641,14.1027,-13.5897,19.3588,-15.1283,28.077,-11.5385,26.0258,4.359,-39.2308,-4.359,
-10.7693,-17.9487,15.3845,1.5383,18.9744,-10.2561,13.3333,-13.3333,13.077,-18.9744,11.0258,0.51294,-54.2308,-0.51294,
-14.3589,-17.4358,15.8975,1.5386,17.436,0,17.9487,-4.6152,8.7183,-28.2048,1.5386,0,-59.4871,0,
-12.5642,-16.6667,20.2566,3.3333,8.9744,3.8459,11.5383,-5.8972,15.1282,-34.6155,1.282,-2.8206,-48.4614,-1.282,
-5.6409,-10.7693,24.1023,8.2048,18.9744,-0.51294,19.9998,-6.6667,15.8972,-33.3335,3.5896,-3.0769,-40.5129,0.51294,
-5.6411,-9.7437,23.0767,10.2563,33.9744,-0.5127,24.6152,-3.5898,14.8716,-31.2822,8.7178,-3.0771,-40.5129,0.5127,
-9.231,-10.7693,22.564,11.2817,23.5898,2.564,14.3589,-6.1541,18.4614,-32.3079,18.9741,-6.1541,-38.4617,-2.564,
-7.9487,-9.4873,24.3589,12.0513,8.5898,0.76904,22.8203,-11.5386,19.7437,-24.3591,22.3076,-0.76904,-36.6667,-4.8718,
-11.7949,-14.8718,18.9741,5.1279,7.1792,-3.5898,23.0767,-15.3848,17.436,-19.4873,10.2563,3.5898,-44.6155,-10.2566,
-5.6411,-16.9231,24.6155,11.282,21.0256,-2.5642,16.9231,-16.4104,24.6155,-21.5386,12.8206,2.5642,-41.0259,-4.6155,
0.51282,-16.923,32.8207,17.9486,16.9232,-10.7692,26.6669,-19.4872,27.1796,-23.5897,19.4872,-2.0511,-33.3334,-0.51282,
0,-14.3589,31.282,13.3333,13.3333,-20.5127,32.3079,-18.9744,23.5896,-19.4871,13.3333,0,-32.8203,-1.0256,
0.5127,-11.282,30.2563,9.231,7.1797,-15.8975,23.5898,-20.5127,23.5898,-21.5383,6.1538,-0.5127,-36.9231,-3.0769,
3.3335,-7.436,35.1279,15.6411,13.0767,-5.8975,25.8975,-18.2053,25.8975,-31.0256,10.5127,-8.9744,-34.6155,-3.3335,
0.76929,-5.8975,32.0515,18.2053,28.0767,-0.76929,24.8718,-14.1025,23.8459,-33.5896,13.5896,-12.0513,-32.564,-1.7949,
0,-8.718,30.2563,8.2051,29.7437,0,14.8716,-13.3333,19.4873,-30.7693,7.6924,0,-38.4614,-1.0254,
1.7947,-14.6155,33.0769,3.3333,14.7437,-2.3079,20.2566,-16.6667,15.1282,-37.1794,-1.7947,4.3591,-47.4358,-6.4104,
-0.25635,-11.5386,35.6406,14.1025,17.6919,-2.3079,25.3843,-16.1541,20.2563,-34.1028,5.3843,0.25635,-35.1284,-11.5386,
-1.282,-7.4358,36.6665,18.7178,32.0513,-3.8462,23.8462,-13.0769,28.4614,-19.2307,20.3843,1.282,-20.1284,-13.0769,
-0.51282,-8.7179,35.8973,13.8461,19.4872,-4.6154,26.6669,-13.8461,27.6923,-17.9486,21.0258,0.51282,-21.5385,-15.8973,
-1.7948,-5.3846,37.6925,17.1793,17.6925,1.7948,26.4103,-12.5641,33.0768,-16.6666,20.2565,-2.3077,-23.8461,-18.7179,
-4.1027,-3.077,38.9742,23.0768,25.6412,3.077,25.6412,-12.3077,43.0768,-4.6154,24.6154,-6.1539,-8.8461,-28.2052,
0.25635,-5.3848,37.6921,20.2566,28.4617,-0.25635,32.5642,-14.1025,38.718,-4.8718,20.7693,-11.5386,-2.8206,-34.6155,
0.76916,-8.9742,32.5641,15.6412,25.8976,-0.76917,32.0514,-21.2821,30.5128,-19.8718,20.7692,-13.077,-10.0001,-31.5385,
-1.2821,-6.4103,35.1281,24.8717,27.9489,1.2821,36.1539,-24.8719,41.2819,-19.2308,29.4869,-2.3077,-3.8463,-28.9745,
-9.4873,-9.4873,31.0254,22.3076,26.9229,-5.3848,33.0767,-31.0256,45.3848,-13.5898,23.3335,2.8206,-2.8206,-33.0769,
-13.5898,-8.4617,20.7693,17.6921,22.8206,-4.8718,19.2307,-33.5898,37.6921,-15.1282,17.6921,2.3076,-2.3076,-26.9231,
-15.3845,-11.282,16.9231,21.0256,15.3845,-6.6667,16.4104,-40,26.6667,-22.0513,19.4871,-3.0769,3.0769,-25.1282,
-13.3334,-17.9486,18.9742,20.0001,18.9742,-8.7179,27.1793,-45.1281,28.7179,-19.4872,21.5387,-6.1539,6.1539,-29.7435,
-11.2821,-13.8463,15.8973,21.0258,22.0511,-5.641,27.1796,-37.4359,36.41,-9.7438,19.4872,-1.5385,1.5385,-32.3077,
-12.0513,-7.9487,14.1025,24.8716,18.2051,-0.76929,22.3076,-31.0256,39.231,-1.7949,19.7437,0.76929,-4.3589,-30,
-14.8719,-11.795,14.8719,19.9999,17.4359,1.5385,22.5638,-40.0001,35.3846,-1.5385,18.4613,-5.1283,-7.6923,-27.1796,
-20,-14.8718,10.2563,15.8975,14.8721,1.0256,20,-45.1282,30.7695,-1.0256,13.8462,-3.5896,-6.6665,-23.0769,
-32.8206,-20,0,14.3589,6.1538,0,17.9487,-37.9487,31.2822,-1.0256,10.769,0.51269,-3.5898,-21.5386,
-39.7435,-27.9486,-4.359,13.59,8.4615,-3.8461,16.1539,-42.3077,33.59,-2.8204,14.6154,2.8204,4.8717,-13.5897,
-37.9487,-35.3845,-5.1282,7.6924,16.9231,-17.9487,5.6411,-57.3077,32.3079,-9.2307,18.4617,5.1282,10.2566,-7.6921,
-34.6154,-33.077,-2.3077,9.9999,14.1027,-19.7435,6.923,-57.6923,33.59,-13.077,14.6154,2.3077,8.9742,-11.5385,
-33.0769,-22.8206,3.8462,18.2053,12.0515,-6.9231,20.2566,-43.8462,35.1282,-17.1794,11.5383,-3.8462,8.4614,-10.5129,
-31.2819,-14.359,1.5385,15.8976,13.8463,-1.5385,22.5641,-39.9999,29.7438,-24.6154,9.7438,-4.1024,2.5641,-4.6154,
-32.3076,-6.1538,-3.0769,19.4873,16.9233,3.0769,8.7183,-32.8203,29.7437,-17.9487,9.7437,1.0256,-1.0256,-1.5383,
-38.9744,-10.7693,-4.1025,20.5129,6.6665,4.1025,4.1025,-32.8206,31.282,-13.3335,7.1794,1.0256,-1.0256,-2.0513,
-37.9487,-24.6155,0,13.8462,-8.3335,-10.8975,19.1025,-47.8206,28.2051,-11.282,5.1282,3.5896,0,0,
-33.3333,-25.1282,-0.51294,13.8459,0,-20.5129,11.282,-51.7949,21.0256,0,6.1541,5.1282,7.6921,-3.0769,
-33.5897,-16.1539,-2.3077,18.7181,12.5643,-6.4103,-3.718,-36.7949,22.8207,4.8717,6.4105,2.3077,17.1796,-5.8973,
-32.0511,-15.641,1.2821,21.7948,4.8717,-1.2821,2.3077,-28.4615,28.4618,-4.8717,5.3846,-1.2821,9.9999,-1.7948,
-26.9231,-18.718,4.3589,19.231,13.0771,-9.4871,16.6665,-37.6924,26.4102,-9.4871,1.7949,-5.3845,0.76929,-0.76929,
-22.3077,-15.641,5.3849,17.1793,28.0771,-5.3846,13.0768,-35.641,26.923,-1.7948,-0.25647,-4.359,11.0255,0.25647,
-26.4103,-15.641,1.7948,19.2308,17.6923,-2.8204,9.9999,-27.9486,24.8719,-7.9486,0.25647,-4.8717,10.5131,-0.25647,
-31.0256,-14.1025,1.7949,21.282,2.6923,-6.4102,12.0515,-27.9487,26.9231,-15.1282,5.8975,-6.4102,0.76929,2.8206,
-34.8718,-17.4358,-1.0256,12.8206,6.1538,-14.8718,4.1025,-35.3845,27.6921,-17.4358,3.5898,-10.2563,1.0256,5.1282,
-30.2562,-20.5128,-1.5385,9.7435,2.5641,-15.3846,8.7181,-33.8461,22.0511,-23.5897,1.5385,-9.7435,12.308,7.6923,
-25.1282,-16.4104,5.1282,18.4614,-8.2053,-10.7693,15.8975,-28.2053,22.0513,-30.2566,6.6665,-5.1282,21.0254,13.3335,
-31.795,-18.9745,2.5641,19.9999,-1.5385,-20.0001,1.5385,-31.2821,26.1537,-33.3334,5.1281,-10.2565,15.8973,5.641,
-34.359,-23.077,-2.0514,18.9742,13.4615,-22.5641,5.641,-27.1796,31.2819,-18.9742,8.2052,-12.8204,13.8461,2.0514,
-33.8462,-28.2051,-3.0769,19.4871,16.4102,-21.5386,19.4871,-27.6924,29.231,-7.6924,13.8462,-13.3333,16.4102,3.0769,
-32.3077,-29.7438,0.51282,20.0001,1.4102,-27.1796,8.7179,-31.795,30.7692,-0.51282,15.3844,-6.6669,15.8973,2.5641,
-32.0513,-28.4617,0.76929,14.6152,-0.76929,-25.3845,-5.8975,-30,27.436,3.8462,8.9744,1.7949,6.4102,-0.76929,
-34.6152,-24.8718,-0.25635,12.5642,3.3333,-16.1538,0.25635,-27.9487,15.6409,0.76929,0.25635,2.3076,-3.3333,-2.3076,
-33.8461,-13.3334,1.0255,15.8976,-8.7179,-18.9745,7.1793,-22.5641,14.359,-1.0258,0.51282,5.6412,-0.51282,6.6666,
-29.7435,-5.1283,0.51282,13.8463,-9.2308,-21.5385,-0.51282,-19.4872,18.9742,-6.1539,3.0768,8.2052,3.5897,11.2819,
-31.0255,-10.5128,-1.7948,12.0511,0.76917,-13.5897,0.76917,-24.8717,14.6156,-21.1539,0.25647,3.8461,-0.25647,4.3593,
-31.5383,-17.1794,0.76929,18.2051,-0.25635,-13.0769,14.6152,-23.3333,16.6665,-30,0.25635,-1.7949,7.9487,1.282,
-21.5386,-8.718,9.2307,29.7434,-4.6155,-7.1794,11.7949,-8.3333,30.7693,-24.1025,4.1025,-4.1025,22.9487,6.6667,
-15.3846,-5.1283,9.7435,27.6923,-0.51282,5.641,-2.5643,-9.2308,28.205,-32.8207,1.5385,-10.2565,23.077,0.51282,
-21.7948,-8.9742,2.3077,18.205,7.9486,2.8204,4.359,-16.6666,16.1537,-43.8461,-2.3077,-16.1539,13.5897,-14.4872,
-19.7437,-2.8206,4.8718,21.7947,19.2307,-3.8462,19.359,-8.9744,17.6921,-28.8461,2.8206,-8.4614,14.6155,-11.0256,
-16.1538,-5.3845,5.3848,18.7178,4.3589,-5.8975,7.9487,-15.6409,15.6411,-19.2307,4.8721,-6.9231,13.0771,-4.3589,
-19.2307,-8.4614,1.282,18.718,-10.6411,0.25635,-0.25635,-17.6921,13.0769,-18.2051,5.8977,-2.8206,7.4358,1.7952,
-30.2566,-8.718,-3.0771,17.4358,-0.51294,-4.6155,0.51294,-8.718,9.7434,-3.2051,3.5896,2.051,1.0256,3.0769,
-32.0513,-10.5129,-1.2822,13.0767,0.76904,-13.5898,-2.8203,-10,8.9741,7.9487,0.76904,0.76904,3.3335,-0.76904,
-24.6156,-9.2308,1.5385,16.9227,-14.231,-5.1283,-1.0258,-17.4359,10.2562,2.0511,4.6151,-1.0258,12.3075,1.0258,
-22.5641,-4.6154,-1.5385,21.0258,-6.1539,0.51282,3.0768,-11.2821,18.9745,-2.0514,11.2821,-0.51282,16.41,1.5385,
-21.0258,-2.5641,1.5385,24.1027,8.8461,-9.7435,2.5641,-6.1539,28.7179,-3.077,15.3844,-1.5385,17.9489,-7.1796,
-14.8719,-2.5641,13.3334,23.077,6.6666,-16.4103,2.5641,-14.359,22.5638,-7.6923,12.8207,-5.1283,21.0258,-9.7435,
-13.0769,-3.8462,16.6665,18.7178,3.8462,-10,7.9487,-14.6155,16.1538,-7.9487,5.8975,-9.4871,16.6665,-6.4102,
-18.7179,-4.8717,11.0258,20.2562,18.7181,-7.9486,6.4103,-8.4615,18.205,-9.4872,4.8717,-8.4615,7.4359,-5.8973,
-20.5127,-3.5896,13.8462,26.1538,3.7181,-9.7434,3.5898,-5.1282,20.5127,-9.7434,6.6667,-1.0256,8.2051,-1.0256,
-17.1794,-4.3589,17.1794,28.9744,-11.2819,-16.6667,6.4102,-2.3076,18.2053,-8.9744,2.3076,-4.3589,16.1541,4.3589,
-18.7179,-7.9486,10.5128,27.4357,2.8204,-19.2308,7.9486,-3.8461,19.2306,-10.0001,3.3334,-13.5897,21.795,-2.8204,
-26.923,-13.5897,7.4359,22.8207,5.3846,-15.641,16.1539,-9.4872,25.3846,-5.3846,8.4615,-11.5385,23.3334,-6.4103,
-30.5127,-18.718,12.0513,21.282,-9.4871,-20.2563,20.2563,-12.0513,27.9487,0.76929,7.9487,-8.9744,22.8208,-0.76929,
-25.8975,-15.6411,11.0256,22.8203,-1.7949,-23.8462,8.9744,-10.5129,27.9487,1.7949,6.4102,-10.5129,25.8975,-2.3079,
-23.3334,-10.0001,5.8973,24.359,6.4103,-20.7692,0.25647,-11.0258,24.359,-0.25647,9.4872,-8.9745,26.923,-11.0258,
-16.923,-5.641,14.8719,27.1796,-2.5641,-21.5385,9.7435,-8.7179,22.5643,2.5641,10.2565,-4.1024,24.1024,-11.2821,
-10,-3.8462,26.4102,24.3589,-5.3845,-25.8975,13.0771,-10,18.7178,3.3333,4.8718,-5.8975,17.6924,-3.3333,
-13.5896,-3.3333,19.231,19.7437,1.282,-30,0.25635,-13.5896,13.5898,-3.3333,-0.25635,-15.6409,15.1284,0.76929,
-19.2307,-5.3845,8.9746,21.2822,2.3076,-28.9744,-2.8206,-4.8718,18.2051,-2.3076,5.8975,-11.5383,20.2563,3.8462,
-23.3333,-13.0769,6.9231,17.6921,-0.76929,-25.8975,-0.25635,-2.8206,16.6667,0.25635,7.4358,-4.3589,19.7434,2.3076,
-28.4614,-19.2307,6.9233,15.1284,-7.9487,-28.9744,0.25635,-11.0256,10.5127,-0.25635,0.25635,-11.0256,17.1797,1.7949,
-32.8207,-17.9489,3.0768,16.9232,-12.8207,-33.3334,-1.5385,-11.7948,16.41,1.5385,2.0511,-10.7692,19.4872,5.1281,
-30.2565,-13.8461,3.0768,14.3588,-7.1796,-29.7435,-2.5641,-11.2821,15.8973,3.0768,5.1283,-0.51282,13.8461,0.51282,
-24.1025,-13.3333,8.718,9.7434,-5.1282,-25.6411,1.5383,-16.4102,7.6921,7.1794,1.0256,-1.0256,8.718,-5.6411,
-21.282,-8.4614,14.1028,17.1794,-3.8462,-28.4614,1.282,-11.5383,16.1541,14.6155,6.9231,-5.8975,20.7693,-1.282,
-26.923,-11.5385,7.9489,15.6412,1.7948,-35.1283,-6.923,-9.9999,16.1539,4.8717,6.4103,-12.0511,22.3077,-1.7948,
-21.7949,-16.1538,7.9485,8.4617,5.8972,-28.9744,-1.282,-10.5129,5.8972,0.25659,-0.25659,-8.9744,17.6921,1.282,
-22.0513,-16.9231,8.7178,7.6924,-8.718,-28.2051,-2.0513,-11.7949,3.5898,4.1025,2.0513,-3.0767,16.9233,3.0771,
-37.0513,-22.8204,2.3077,7.4362,-12.5641,-37.1793,-13.0768,-17.6923,14.1027,5.8976,16.1539,-2.3077,21.2823,6.4103,
-37.4359,-30.7692,3.5897,6.1537,-4.6154,-40.0001,-5.641,-20.5128,26.1539,11.795,26.1539,-3.5897,27.6925,9.7438,
-26.923,-36.6666,6.923,7.9489,-18.7179,-43.3334,1.2821,-23.3334,23.3331,15.1281,18.2052,-4.359,21.795,-1.2821,
-19.2308,-25.8973,13.5897,13.077,-19.2308,-28.9742,0.25647,-15.1283,22.8207,18.7181,15.641,-0.25647,17.6923,-1.7948,
-17.6923,-13.0768,14.6154,15.1281,-4.2308,-19.2308,-8.9742,-8.9742,19.7438,19.7438,11.0255,-4.8717,17.6925,2.3077,
-11.2821,-7.6923,17.4359,14.8719,1.5385,-31.7948,-7.6923,-13.8461,13.3334,18.9745,-0.51282,-11.2821,13.3334,0.51282,
-9.9999,-9.4872,21.7948,9.4872,-5.3846,-38.2052,6.9232,-19.2308,13.5897,8.4618,-5.3846,-14.6154,11.0258,5.3846,
-17.1796,-16.6666,15.6412,6.923,-5.8973,-29.9999,2.8204,-15.1281,15.6412,-0.25647,0.25647,-14.1024,19.7438,16.1539,
-25.3845,-21.282,5.3845,5.8977,-2.8206,-30,-12.1796,-13.5896,13.0769,2.8206,5.3845,-8.9744,26.9231,22.3079,
-27.9486,-21.7948,0.76917,3.8461,-0.76917,-37.1793,-9.4872,-20.2565,10.5131,2.8207,3.3334,-8.9742,28.4618,24.3593,
-23.8462,-22.3076,2.8206,3.8462,-1.282,-34.6152,0.25635,-19.2307,12.0515,-0.25635,5.3845,-8.9744,27.4358,20.7693,
-22.5641,-28.2052,4.1027,1.5385,-1.5385,-35.3846,-7.6923,-18.4615,10.7692,3.0768,6.6666,-8.7179,16.923,9.2306,
-26.4102,-29.4873,5.8975,1.2822,7.436,-38.2051,-6.9229,-19.7437,3.8462,6.4102,-1.2822,-14.1025,1.923,2.3076,
-18.718,-19.2307,14.6155,6.9231,0.25659,-28.9744,0.25659,-10.5129,3.3333,8.9744,-7.436,-16.6667,-0.25659,4.8718,
-5.3846,-5.8973,25.3844,19.2306,-14.7434,-19.2308,-0.76916,-0.76916,14.1027,18.7179,0.76917,-7.9486,13.59,14.6154,
-9.7437,-4.1025,21.5386,19.4873,-14.8718,-28.2051,-4.6155,-5.6411,14.8716,11.7949,4.1025,-10.7693,18.4614,20.5127,
-17.1793,-9.4872,15.1281,12.5641,0.12817,-36.6666,-0.76917,-9.4872,12.0514,-1.2821,0.76917,-17.1793,16.6666,16.1539,
-20,-13.8462,12.8206,9.2307,-6.1538,-30.7693,0,-10.7693,9.7434,0,1.0256,-18.9744,17.4358,12.3079,
-20,-13.3335,12.3076,5.6411,-9.231,-23.5898,-2.0513,-12.3079,6.1538,2.0513,6.1538,-11.7949,23.0767,25.1279,
-14.1025,-13.5896,12.0513,1.7949,5.769,-31.0254,-1.7949,-12.0513,1.7949,-2.3076,4.8721,-3.333,16.1538,25.3848,
-11.5386,-15.1284,11.5386,2.3076,19.2305,-32.0513,-5.3848,-12.0513,0.25635,4.8716,-0.25635,-4.3589,1.2817,10.3848,
-10.2566,-7.6924,18.9741,8.7178,4.2305,-17.0513,1.0254,-8.2053,8.2051,19.8716,2.564,-1.0259,0.5127,-0.5127,
-0.25659,1.282,28.9744,12.5642,-5.3848,-14.6155,8.9744,-2.8206,9.9998,16.6667,0.25659,-2.8206,-3.3335,-3.8462,
7.9487,-0.25635,28.4614,11.0254,3.8462,-26.4104,3.3335,-1.7949,7.436,1.6667,-5.8975,-17.8206,-8.9744,-18.8462,
0.51282,-2.5641,25.6412,14.359,14.359,-26.6666,-4.1024,-6.6666,11.2823,1.5385,-0.51282,-23.5897,5.6412,-26.1537,
-7.1794,-4.6152,26.6667,16.4104,10.7693,-26.1538,0,-18.9744,11.7952,0,3.0769,-17.4358,20.6412,-26.6665,
-4.8719,-5.3846,25.3846,12.5638,7.4359,-28.4615,6.41,-25.3846,9.9999,-6.4103,4.8719,-16.1539,29.4872,-26.4103,
-9.7435,-2.5641,16.923,13.3331,12.8204,-22.5641,2.5641,-20.0001,9.2306,-2.5641,9.7438,-11.2821,27.6925,-23.5897,
-22.3075,-3.3334,5.8973,13.077,3.3334,-15.1281,-3.3334,-20.2562,7.9486,8.9745,7.4359,-4.8717,24.3593,-20.2562,
-16.6666,0.25647,8.9745,16.6669,-1.2821,-3.8461,-2.8204,-17.6923,17.1796,23.9745,9.4872,-0.25647,23.8461,-13.5897,
-18.718,-0.76904,5.3848,14.1025,4.3589,-8.4614,-10,-27.9487,8.4614,21.7949,0.76904,-10,8.8461,-21.7949,
-14.3589,10.7695,11.7949,17.436,14.3589,-7.6924,-1.5386,-28.7178,4.6152,20.5127,1.5386,-7.6924,-5.6411,-17.4358,
-12.3075,19.4872,15.8973,23.077,1.5385,-1.5385,-2.0511,-17.9486,12.308,19.9999,5.641,-4.6154,-2.0511,-7.1793,
-10.2565,18.9745,15.8973,28.205,-3.077,2.5641,-6.1539,-10.2565,18.4613,19.4872,4.1024,-6.1539,-2.5641,-8.2052,
-4.6152,13.8464,15.3845,27.1794,11.923,-1.5383,1.0256,-15.3845,15.3845,14.8718,-1.0256,-8.7178,-2.564,-15.3845,
-14.1024,2.3077,5.8976,20.7692,10.0001,-9.4872,-2.3077,-25.8973,8.9742,4.8717,-2.3077,-9.9999,6.4103,-14.1024,
-24.1024,-0.51282,-0.51282,21.5387,4.1027,-6.1537,-7.1793,-22.0511,15.3849,8.7179,8.7179,0.51282,18.9742,-3.5897,
-21.282,-1.7949,-1.7949,20.769,9.4873,-6.9231,0.76929,-22.8206,17.1797,12.564,12.0513,-0.76929,16.6665,-3.8462,
-21.7949,-7.949,-1.7949,12.564,2.8203,-12.0515,1.7949,-33.0771,7.4355,5.3843,7.4355,-8.9746,11.0254,-5.8977,
-29.4873,-7.436,-2.3076,8.4614,5.3848,-6.9231,-8.9744,-28.9744,2.3076,10,2.3076,-3.8462,13.0767,2.3076,
-27.1797,-1.5388,-1.0256,16.4099,20.3848,-3.0769,-8.7183,-16.4104,2.051,21.0256,-3.5901,1.0256,4.1023,4.1023,
-14.3591,-0.51294,6.6667,21.5383,26.6667,-8.2053,6.1536,-15.8975,4.1023,22.051,-7.1797,-5.6409,-6.6667,0.51294,
-12.5642,-1.7947,7.4358,17.6921,14.6155,-11.5386,1.7947,-23.3333,2.8206,20.2566,-7.9487,-9.4873,-6.4104,4.3591,
-15.6411,1.7949,3.8462,16.1538,19.2305,-4.3591,-8.4617,-17.1797,2.3076,23.333,-3.3335,-2.8208,-1.7949,10,
-18.9741,0,3.0771,17.436,17.436,0,-3.5894,-10.2563,1.5386,18.9746,-5.1279,-3.5894,0,6.667,
-22.8206,-1.7947,1.7947,19.2307,8.4617,-3.3333,-2.3079,-13.5898,1.7947,17.6921,-8.9744,-8.9744,4.3591,3.8459,
-21.5383,-1.0256,1.0256,15.3845,9.7439,-10.769,-5.1282,-16.9229,4.6155,22.0515,-2.051,-8.7178,11.282,5.6414,
-18.718,-3.8459,2.8206,9.4871,3.8459,-15.1282,-5.3845,-21.282,1.282,13.0769,-1.282,-12.0513,7.9485,3.8459,
-13.3333,-1.0256,4.1028,16.4104,9.2307,-10.7693,-4.1023,-17.9487,3.0769,6.6667,-8.2051,-14.3589,1.0256,2.5642,
-11.5383,5.8977,3.8464,21.282,21.7952,-11.5383,-5.8975,-13.0769,11.5383,10.5129,-8.4614,-13.0769,-1.282,1.282,
-8.2053,8.2048,9.7434,22.5642,15.3845,-12.8206,-5.1284,-13.3335,10.7693,10.7693,-4.6155,-11.7949,-2.5642,2.5642,
-7.6924,2.5642,10.2561,19.4871,0.38452,-10.2566,0.51294,-15.8975,3.0769,10.2561,-9.231,-12.3079,-4.6155,5.1282,
-9.231,2.5637,4.615,13.3333,1.0256,-9.7439,-1.0256,-14.8721,1.0256,13.8459,-12.3079,-9.231,-3.0769,4.615,
-13.0771,2.3076,0.25635,13.5898,14.6152,-14.6155,-11.5386,-15.6411,-0.25635,14.6152,-10.5129,-7.436,2.3076,1.2817,
-15.3845,0.51294,0.51294,17.4358,13.3333,-15.8975,-7.1794,-14.8718,-0.51294,13.8464,-5.1282,-3.5896,6.6667,6.1541,
-16.1538,0.25659,2.3079,15.6409,7.4358,-14.6155,-1.282,-13.5898,-2.3079,10.5129,-0.25659,-0.76929,4.8718,11.5383,
-17.1794,-0.25635,0.25635,14.1025,8.9746,-15.1282,-15.6411,-15.1282,-1.2822,11.5386,1.2822,-2.8203,8.9746,10,
-14.1025,0.25635,0.25635,18.2051,-0.25635,-20.2563,-18.718,-13.5898,3.3335,17.1797,-3.8462,-6.4102,11.5386,3.3335,
-7.9487,2.8203,11.0254,21.2822,-13.5898,-20.7693,-7.436,-8.9744,6.4102,15.1284,-2.8203,-7.9487,6.9229,4.3589,
-11.0259,-0.25635,14.1025,13.0767,-10.0002,-17.1797,-13.5898,-15.6411,2.3076,5.3843,0.25635,-13.5898,1.7949,0.76904,
-15.8975,-1.0256,9.7434,15.8972,4.9998,-15.8975,-9.7437,-15.3845,8.2053,8.718,1.0256,-10.2563,9.2307,-2.5642,
-17.436,-2.5642,6.6667,18.9744,4.1023,-21.5386,-4.1028,-9.7437,11.7947,12.8206,2.5642,-4.6155,17.9485,-2.5642,
-8.9744,-4.3589,11.0259,17.6924,-10.5127,-20.7693,2.3076,-9.4871,11.0259,13.5898,8.4614,-6.9231,21.2822,-2.3076,
-6.9232,-7.9489,11.5382,16.6666,-10.0001,-27.9489,7.9489,-19.7435,6.4103,10.0001,5.8976,-13.5897,19.7438,-5.8976,
-15.8972,-9.7434,8.718,12.3079,4.9999,-41.0254,1.0256,-23.5896,-1.0256,3.5901,1.0256,-17.4358,15.385,-11.7947,
-14.8716,-7.1792,9.7437,13.8462,19.9999,-31.7947,0,-15.8972,0,1.5386,2.5645,-18.4614,13.8462,-13.3333,
-13.5898,-6.4104,6.4104,14.1028,4.9999,-18.2051,0.76929,-16.1538,2.3079,4.3591,-0.25659,-18.2051,12.0515,-11.0256,
-13.5898,0.76904,11.0254,17.6924,-3.3335,-11.0256,-0.76904,-12.5642,7.436,15.6411,4.3589,-8.4617,16.1538,-0.76904,
-18.4617,-1.0256,8.2048,15.8972,1.0256,-13.3335,-12.8206,-9.231,1.0256,9.2307,1.0256,-15.3848,6.1536,-7.6921,
-13.5896,3.8462,7.9487,20.7695,-5.3845,-6.9231,-10,-1.7949,6.4102,8.9746,1.7949,-17.1794,7.436,-5.3845,
-17.1797,5.8972,1.7947,19.7434,-13.5898,-8.9746,-10.0002,-7.436,5.3845,9.9998,0.76929,-19.231,15.1282,-0.76929,
-9.2307,11.282,6.1541,18.9744,-0.51294,-4.6155,-5.1282,-6.6667,-1.0256,12.3079,0.51294,-20.5127,17.4358,0.51294,
-3.3335,12.0513,11.0254,16.1538,4.8716,-4.3589,0.25635,-3.3335,-3.8462,5.8975,-4.3589,-20.2566,12.564,-0.25635,
-8.4614,13.5898,12.5645,19.7437,-3.333,-10.5127,2.3076,-2.8203,-2.3076,4.8721,-8.9741,-17.1794,11.0259,3.8462,
-10.5127,13.0769,10.0002,22.3079,-1.282,-6.4099,-3.8459,-2.3074,1.282,13.5901,-8.4614,-16.6665,10.5129,2.3079,
-13.0769,7.436,2.3076,19.7437,2.3076,-3.3335,-16.6667,-3.3335,1.7949,18.7178,-3.3335,-17.6924,7.9487,-1.7949,
-15.8975,2.5642,3.5896,14.8718,-1.0256,-11.282,-11.7947,-3.5896,-0.51294,16.9231,1.5383,-15.8975,8.718,0.51294,
-13.5898,0.76929,10.5129,13.0769,-3.8464,-14.6155,-0.76929,-5.8977,0.76929,14.6155,-0.76929,-16.6667,8.4612,2.8206,
-19.7437,0.76929,2.3074,12.5642,-0.76929,-12.0515,-14.1028,-11.0259,0.76929,14.1023,-5.8977,-20.7693,2.8206,1.282,
-22.5642,5.6411,-1.5386,14.8716,2.0513,-7.1797,-18.9744,-6.6665,1.5386,18.9741,-1.5386,-15.3848,7.6924,2.564,
-7.5642,12.0513,10.5132,19.231,-0.25635,-5.8975,-3.9744,-1.2817,0.25635,18.7183,-2.3076,-17.1794,13.0771,2.3076,
2.3076,8.9746,11.0259,14.6152,6.4102,-13.0767,-2.3076,-6.9229,-7.436,3.7183,-14.1025,-32.1794,3.3335,-3.8462,
-5.8975,11.5386,10.5127,15.1284,14.1025,-13.0769,-2.8203,-6.4102,-0.25635,0.25635,-10,-40.2563,5.3848,1.2822,
-13.8462,12.3079,11.282,21.0256,2.0515,-12.3076,-0.51294,-4.6155,-0.51294,0.51294,-6.1538,-40,11.7947,0.51294,
-6.1538,15.8975,14.8721,24.6157,2.0513,-6.6665,0,0,-3.0767,2.0513,-4.6152,-36.9229,9.7437,0,
-8.9744,12.5642,10.5129,15.6414,2.3079,-6.4099,2.3079,-2.3074,-1.282,-0.76929,-8.4612,-34.1025,0.76929,2.3079,
-16.4104,6.6665,10.769,14.3589,-7.1797,-6.1541,4.1025,-2.0513,2.0513,-8.2053,-9.7439,-31.2822,6.1538,5.1279,
-9.4873,7.9485,16.6667,20.7693,-3.8462,-2.8206,-2.8206,3.3333,2.8206,-10.5129,-4.3591,-30,14.1023,12.5642,
-5.6414,6.1536,9.7434,17.4358,7.6921,-7.6926,-15.8977,1.0256,-1.0256,-7.1794,-4.1028,-30.2566,7.1794,16.4099,
-8.7178,6.6665,3.0771,12.8208,9.7437,-7.1792,-11.282,-2.564,0,0,-5.6411,-22.564,2.564,18.9746,
-4.1028,11.282,6.6667,12.3079,5.6409,0.51294,-1.0256,-1.0256,-3.5896,-0.51294,-4.1028,-25.1282,2.051,15.8972,
-0.25635,10.5127,10,12.564,0.25635,1.2817,-4.3589,1.7949,-12.0513,-4.3589,-3.8462,-33.0769,-4.8721,12.0513,
-0.76929,11.0256,15.1282,14.6155,4.8718,-0.76929,-0.76929,5.3845,-4.3591,0.76929,-7.4358,-24.8718,-4.3591,19.7434,
-4.3589,7.9487,13.5898,15.1284,1.7949,-7.436,-1.2822,-0.76904,0.76904,2.3076,-14.6155,-24.3589,-6.9229,15.1284,
0.5127,9.7437,11.2822,17.9487,0,-6.1538,-1.0254,-4.6152,0,8.7178,-8.2051,-25.6409,-6.6665,8.7178,
0.5127,11.2822,7.6924,16.9229,-0.5127,-5.1284,-4.1025,-0.5127,-2.564,10.2563,-4.6152,-20,0.5127,16.4102,
-4.3591,11.5383,6.4104,17.1794,-7.9485,-6.4104,-8.4617,0.25659,-0.25659,2.8206,-3.8459,-19.2307,7.9485,23.8459,
-15.6411,0.76904,2.3076,13.0767,-20.7693,-14.1025,-10.5129,-8.4617,4.8716,-0.76904,1.7949,-30.5129,4.3589,8.8459,
-15.3845,1.5386,9.231,17.436,-14.3589,-18.4614,-6.1538,-6.6667,13.8462,4.6152,15.8975,-27.1794,9.7437,-1.5386,
-9.231,3.0767,5.6411,12.3076,-2.564,-26.6667,-15.8975,-7.6924,5.1279,-1.5386,12.3076,-22.0513,11.7949,1.5386,
-3.3333,3.3333,3.3333,10.5129,-4.8718,-22.8203,-11.0256,-2.8206,2.8206,-3.3333,5.3845,-17.6921,10.5129,11.0256,
-5.3848,-1.7949,12.0513,12.564,-19.8718,-16.1538,3.9744,-1.2822,4.8716,-5.3848,1.2822,-19.2307,5.8975,13.5898,
-1.282,-1.282,21.282,13.5896,-24.3589,-10.5127,13.5896,-0.76929,1.7952,-4.8718,0.76929,-20.2563,10.0002,19.7439,
0.51294,5.6409,13.8459,12.3074,-9.3589,-12.3079,-1.4104,-0.51294,-3.5896,-1.0256,-3.0769,-23.0769,11.7947,18.4617,
-3.0769,9.2307,7.6921,9.7434,5.6411,-15.3848,-12.8208,1.0256,-3.0769,-1.0256,-4.1028,-25.1284,9.7434,10.7693,
-4.6152,3.5898,10.769,8.2051,-7.1797,-12.8206,2.1792,0.5127,-0.5127,-3.0771,-2.564,-23.5898,13.3335,12.3076,
-8.7178,2.0513,6.1538,10.2563,-10.7693,-7.6924,0.5127,-0.5127,-1.0259,3.5898,-7.1797,-19.4873,11.7949,16.9229,
-15.1282,6.4102,3.8462,8.9741,-4.8716,-7.9487,-14.4873,0.76904,-0.76904,5.3848,-11.0256,-17.1794,2.3076,15.1284,
-11.7949,10.769,11.7949,9.231,-5.1279,-7.6924,-5.6411,2.564,-0.5127,0.5127,-7.1792,-13.8462,0.5127,15.8975,
-9.7437,7.1792,6.6665,5.6411,-6.6665,-7.6924,1.0254,-0.5127,-4.6152,0.5127,-11.7949,-12.3079,0.5127,15.8975,
-6.9229,1.2822,4.3589,5.8975,-8.4617,-11.0256,-2.8203,-1.2822,1.7949,4.3589,-12.5642,-7.9487,3.8462,16.6665,
-3.8462,0.76904,13.5898,15.1279,-5.8975,-17.6924,-2.8206,-0.76904,6.4102,1.2822,-5.3848,-10,11.5386,19.231,
-6.6667,6.6667,15.3845,18.9744,-0.51294,-18.4617,-2.0515,-0.51294,3.5896,-7.6924,0.51294,-18.9744,14.3586,22.5642,
-6.9231,6.9233,12.0513,13.5898,-15.5129,-15.1282,2.8208,0.25635,-0.25635,-15.1282,-0.25635,-25.8975,9.4873,16.1538,
-3.5898,2.051,15.3845,12.3074,-30.5129,-18.9744,8.718,-1.0256,-0.51294,-12.8206,0.51294,-22.5642,7.6921,10.7693,
-6.1538,0,14.8721,13.3335,-15.5129,-26.6665,1.0259,-2.564,0,-6.6665,1.5386,-14.8716,9.231,14.8721,
-11.7949,1.5383,7.1794,11.282,-0.51294,-24.6155,-13.3335,-0.51294,0.51294,-7.1797,-4.6155,-12.8206,2.5642,15.3845,
-7.436,6.4099,12.051,12.051,-12.5642,-13.5898,-3.8464,4.8718,5.8972,-1.282,-4.3591,-8.9746,1.282,12.5637,
-4.6152,1.0259,16.4106,8.2051,-20.5127,-14.8716,5.1284,0,-0.5127,2.0513,-6.6665,-14.8716,0,1.0259,
-1.5386,3.0771,16.4102,9.7437,-5.5127,-12.8206,0.51269,3.5898,-4.1025,4.6152,-3.0767,-13.8462,5.1284,-0.5127,
-3.3333,6.4104,11.5383,7.9485,0.76929,-6.4104,-4.8718,10.5129,-2.3079,3.8459,-1.7947,-6.4104,10.5129,-0.76929,
-4.6155,6.1536,12.8206,8.2048,-4.6155,1.0256,-5.6414,6.6667,-2.5642,7.6921,-1.0256,-6.6667,8.2048,-9.2307,
-2.0513,5.6411,16.4106,11.2822,-14.8716,2.0513,-3.5894,-4.1025,-2.0513,12.8208,7.1797,-7.6919,6.1538,-15.8972,
-7.6924,3.5898,9.7437,11.2817,-13.8462,-7.1797,-10.2566,-8.2053,1.5386,11.2817,12.3076,-1.5386,12.3076,-16.4104,
-12.0513,2.8206,6.9231,12.5642,-9.4873,-10,-17.6924,-7.436,3.3333,5.3845,9.4871,-2.8206,21.282,-20.2563,
-8.9744,5.8975,13.0767,15.6411,-19.7437,-3.3335,-3.3335,-10.5129,5.8975,3.3335,10.5127,-13.5898,22.3076,-25.8975,
-10.2566,7.6921,9.2307,15.3845,-24.1025,-7.6924,5.1282,-18.9744,3.5896,-3.5896,13.3333,-20.5129,19.4871,-27.1797,
-2.5642,11.282,10.2566,15.8977,-9.1025,-8.2051,1.5383,-18.4614,4.1028,-1.5383,15.8977,-14.3589,30.7693,-21.0256,
-2.8208,3.333,8.9741,8.9741,5.8975,-6.4102,0.25635,-21.2822,-0.25635,-2.8208,10,-17.6924,30,-20.2566,
-9.2307,0.5127,6.6665,12.3076,9.231,-5.1279,7.6924,-24.6152,-0.5127,-1.5386,7.6924,-19.4871,21.5386,-11.282,
-13.3335,1.0254,0,18.4614,1.0254,-6.1541,-1.0259,-27.1797,5.6406,0,8.2051,-21.0259,21.0254,-7.1797,
-12.5641,0.25647,-0.25647,21.7948,7.4359,-2.8204,-4.359,-25.3846,13.077,2.8204,13.5897,-18.7179,27.4359,-11.0255,
-14.8718,-6.6667,-1.0256,12.3079,12.3079,-9.7437,7.1794,-30.2563,8.2053,1.0256,10.7693,-14.3589,22.5642,-15.8975,
-13.3335,-7.1797,-3.5896,7.6921,5.1282,-13.3335,4.1023,-31.2822,4.1023,3.5896,5.6409,-8.2053,18.9744,-7.6924,
-10.5127,-1.282,-4.3586,19.7439,-5.3845,-2.8206,-6.9231,-20.769,5.8977,8.4617,10.0002,1.282,26.4104,5.8977,
-13.5898,-5.3848,-3.3333,20.2566,-2.3079,-2.8206,-0.25659,-20.7693,0.76929,5.8972,11.5383,0.25659,29.4871,7.4358,
-15.1282,-10.5129,-1.7947,13.0769,8.4617,-12.0513,6.9231,-30.5129,-2.8206,1.7947,5.3845,-9.4873,26.4104,2.3079,
-11.2819,-7.1793,-3.5897,16.4105,9.2308,-9.7435,5.1283,-28.7179,4.1029,-3.5897,3.5897,-13.8461,25.641,5.641,
-9.2307,0,-2.0513,19.9998,0,-1.0256,14.3591,-18.9744,8.718,-5.6411,9.2307,-9.2307,28.2053,10.7693,
-15.1282,-1.7947,-3.8462,17.1794,2.8206,-0.76929,10.5129,-17.6921,0.76929,-5.8975,11.0256,-3.8462,26.4104,7.949,
-17.436,-5.6409,-6.6667,14.3591,7.1794,-0.51294,-4.1028,-18.9744,0.51294,-10.7693,11.282,1.0256,22.5642,8.718,
-13.3333,-0.51294,-1.0256,16.4104,-3.0769,2.0515,-2.5642,-16.9231,3.0769,-17.9487,7.6921,0.51294,17.4358,14.3591,
-14.1028,0.25635,1.2817,15.6411,-1.2822,-0.25635,1.7949,-14.6155,-3.3335,-15.6411,5.3843,-2.8208,16.6665,13.5898,
-15.3845,-5.1279,-2.564,11.2822,13.3335,0,-1.0254,-15.3845,-3.0767,-0.64111,9.7437,2.0513,26.6665,16.4102,
-18.4617,-11.7949,-5.1282,8.718,3.0769,-3.5896,-2.0515,-21.0256,-0.51294,4.6155,9.2307,0.51294,26.6667,18.4617,
-19.7437,-10.5129,-0.76929,11.0256,-11.9231,-7.9485,2.8206,-19.2307,0.76929,0.76929,6.4104,-3.8459,19.7434,19.2307,
-17.9487,-8.2053,0,12.3076,-15.8975,-10.2566,0,-16.9231,3.0767,3.0767,5.1279,-3.0771,21.5386,15.8975,
-12.0513,-6.9231,-0.76904,13.5898,-0.89746,-6.4102,0.25635,-16.6665,4.8721,10,6.9233,-1.7949,25.3848,15.1284,
-16.1538,-15.1282,-0.25635,7.9487,4.3589,-7.436,1.7949,-17.6924,-2.3076,0.25635,4.8716,-11.5386,19.231,13.5898,
-16.1541,-12.5642,7.9487,14.1025,-0.25635,-7.949,3.8462,-11.5386,0.25635,-8.9746,10,-10.5129,22.3076,19.2305,
-13.3335,-3.0771,6.6665,21.5386,-0.5127,-6.6667,0.5127,-10.2566,4.6152,-10.7693,7.1792,-6.1541,24.1025,21.0254,
-8.9746,-0.25635,3.333,19.2305,-7.436,-2.3076,2.3076,-11.0259,1.7949,-12.0515,0.25635,-12.0515,18.2051,14.1025,
-0.5127,0.51269,5.1284,16.4102,-10.7693,2.564,6.6665,-6.1538,-4.6152,-15.3845,-1.0254,-13.8462,16.4102,15.3848,
-2.0513,1.5386,-0.5127,14.8721,4.2307,2.564,0,-3.0767,-8.7178,-18.4614,0,-5.6411,17.9487,20.5127,
-8.7178,1.0254,-3.0771,16.9229,11.2822,0,-3.0771,-2.0513,-3.0771,-17.436,2.564,0,20.5127,22.0513,
-9.2305,-4.6152,4.6152,11.7949,0,1.0259,3.5898,-4.1025,-0.51269,-14.3589,0,-3.5898,16.9233,23.0771,
-8.4617,-7.4358,8.4617,7.4358,1.282,3.8459,7.9485,-4.3591,-3.8464,-8.9744,-1.282,-2.3079,11.5383,22.3074,
-13.8457,-2.564,0,12.3081,5.1284,2.5645,-0.51269,0,-7.1792,-2.564,-2.564,2.0513,10.7695,17.436,
-12.3074,1.5383,-2.5642,13.3333,0.51294,-1.0256,-5.1282,1.0256,-6.1536,3.0769,-4.1023,-0.51294,11.7952,11.7952,
-4.1025,0,6.1538,11.7949,8.7178,-3.5898,2.0513,-2.0513,-2.5645,-2.0513,0,-7.6924,14.8716,6.1538,
-8.2051,-6.6665,3.0771,10.2563,9.7437,-5.1279,0.51269,-6.1538,-0.5127,-9.7437,2.0513,-14.8718,17.436,1.0259,
-15.6411,-2.8206,-0.25659,16.1541,-3.8459,-3.3333,4.3591,-5.8975,3.8459,0.25659,2.8206,-10,17.1794,7.4358,
-14.3589,-1.0254,1.5386,19.4873,-18.4614,-6.1538,8.2051,-7.6924,1.0259,-0.51269,0.5127,-9.2307,8.2051,8.7178,
-6.4102,-3.3335,3.3335,17.6924,-17.1794,-2.3076,2.3076,-5.3848,2.3076,-7.9487,4.3589,-8.4617,12.0513,7.436,
-8.718,-1.5383,-1.0256,16.4104,-2.1794,1.0256,-2.5642,-2.5642,2.0515,-1.5383,5.6409,-3.0769,18.4617,10.7693,
-14.3589,-2.051,-1.5383,15.3845,12.8206,-7.6921,0.51294,-5.1282,-4.6155,5.6409,3.0769,-0.51294,13.8464,12.3079,
-10.5125,-4.3586,2.3079,15.6414,2.8206,-8.4612,1.282,-5.3845,-4.3586,0.76929,-0.76929,-0.76929,12.5642,15.1282,
-6.9231,0.76929,5.3845,15.6409,-1.282,5.8972,1.7947,-0.76929,-2.8206,-4.3591,-4.8718,-2.8206,11.5383,17.6921,
-11.5386,-0.25635,1.7949,4.3589,7.9487,0.25635,3.8462,-4.8716,-11.0254,-9.4873,-10.5127,-8.9741,5.3848,9.4873,
-5.8972,1.282,3.8464,8.9744,14.6155,-6.9231,4.8718,-1.282,-10.5129,-12.051,-10.5129,-12.5642,8.9744,6.9231,
-3.0769,6.1536,6.6663,18.4612,3.0769,-3.5901,-1.0256,1.0256,-5.1282,-10.2566,-12.3079,-17.436,9.7434,10.2561,
-6.9229,6.9229,7.9487,17.1797,-2.8203,0.25635,-0.25635,-2.8203,0.76904,-3.3335,-7.436,-15.1282,11.5386,14.6152,
-7.1797,2.0513,4.6152,15.8975,0,-3.5898,0,-2.0513,-3.5898,-1.5386,1.0254,-14.8718,17.9487,11.7949,
-3.5898,-1.0259,2.564,17.9487,0,-13.3335,5.6411,0,-5.1284,-4.1025,1.5386,-19.4873,17.9487,4.1025,
-3.0771,-0.51318,5.1279,18.4614,0,-13.3335,5.1279,-1.5386,-0.51318,1.0254,0,-16.9233,13.333,7.6919,
-10.7688,-1.0256,2.5642,12.3079,1.0256,-4.615,-9.8721,-1.5383,-4.615,5.6414,3.5901,-4.615,13.8464,18.9744,
-13.0769,-5.3845,-0.25659,5.3845,3.3333,-3.3333,-13.5896,-1.282,-10.5129,4.3591,4.8718,0.25659,13.5896,17.6921,
-4.6152,-10.769,2.564,4.1025,6.6665,-5.6411,1.4104,-5.1279,-11.7949,2.0513,-2.0513,-4.1025,8.2051,8.7178,
-3.3333,-9.9998,1.7952,3.8464,7.949,-0.76929,0.76929,-5.8972,-13.0769,0.76929,-4.8718,-7.4358,11.0256,12.5642,
-6.4106,-0.25635,1.7949,8.4614,4.3589,2.8203,-11.5386,-0.76953,-12.5645,0.25635,-2.8208,-10.5132,17.6924,21.7949,
-6.4104,0.76929,2.3074,9.4871,1.7947,-0.76929,-6.9231,1.282,-15.1282,-4.3591,-7.949,-18.2053,11.5383,14.6155,
-4.8716,-5.3848,0.76904,5.3848,9.4873,0.76904,-0.76904,2.8203,-17.1797,-7.9487,-11.5386,-24.3589,6.9229,5.3848,
-0.76929,-4.3591,0.76929,7.9485,20.7693,2.3079,-3.8459,2.8206,-16.1541,-2.3079,-8.4617,-23.3333,12.5642,11.5383,
-1.0256,-3.0769,3.0769,7.1794,12.8206,3.0769,1.0256,-3.0769,-19.4871,-3.0769,-9.2307,-22.5642,12.8206,14.8718,
-5.1284,-3.5898,6.6665,8.2051,-2.1794,8.7178,7.6924,3.5898,-18.4614,-6.1538,-10.2563,-23.0771,9.7437,8.7178,
-2.0513,0.5127,12.3076,14.8716,-3.0771,8.2051,-0.5127,11.7949,-11.2822,-2.0513,-4.6152,-18.4614,14.3589,11.7949,
-2.8206,-2.3079,9.4871,8.9744,11.9229,0.25659,-8.9744,2.8206,-14.6155,-0.25659,-4.8718,-17.1794,15.1282,17.6921,
-6.6665,-8.2051,5.1284,4.1025,2.564,1.0259,0.5127,-3.5898,-19.4873,-0.5127,-9.7437,-17.436,10.2563,13.8462,
-7.1797,-8.7178,5.1284,6.1538,-12.436,3.5898,5.6411,-0.51269,-15.3848,0.5127,-14.3589,-15.8975,7.6924,9.7437,
-7.436,-4.8721,5.3843,7.9487,1.2817,-0.25635,-2.8208,3.333,-12.0513,0.25635,-14.6157,-17.6924,10,14.6152,
-5.6411,-1.0259,11.2822,12.8203,16.2817,-0.5127,0.5127,7.6924,-6.6665,-0.5127,-2.564,-21.0256,19.4873,13.3335,
-7.436,-8.4614,11.0254,10,6.9229,-4.8721,1.7949,2.3076,-2.8208,-4.8721,5.8975,-27.436,24.3589,-1.6665,
-3.3335,-6.9233,13.5898,15.1279,-5.8975,-4.8721,-0.25635,3.8462,4.8716,-0.76953,14.6152,-21.2822,31.5381,0.25635,
-4.8716,-4.8716,11.5386,15.1284,-0.76904,-9.4873,0.25635,-0.25635,1.2822,-4.3589,8.4614,-22.3076,26.4102,4.3589,
-1.0259,-4.1025,12.8203,13.3335,0.5127,-6.1538,15.2563,-0.51269,0.5127,-11.2822,-2.0513,-22.5642,20.5127,8.7178,
2.3076,-4.3589,11.0259,13.5898,-3.8462,-2.3076,18.2051,4.8716,-2.8203,-12.0513,-11.0254,-21.282,15.1284,12.0513,
1.7949,-6.4102,7.9487,9.4873,11.1538,-6.4102,3.2051,2.8208,-10,-10.5127,-16.6665,-23.3333,7.436,9.4873,
7.1794,-1.5383,13.3333,10.2566,21.0256,-1.5383,-3.5896,1.5383,-7.1794,-11.282,-12.8206,-24.6155,11.282,9.2307,
0.76904,-4.3589,8.9741,8.4614,6.0256,0.25635,0.25635,-0.25635,-7.436,-16.6667,-11.0259,-28.4617,12.564,2.8203,
-2.5645,-3.5898,10.769,13.333,-8.9744,0,1.0254,3.0767,0,-8.7183,-3.5898,-21.0259,18.4614,0.5127,
-3.8462,0.25635,13.0771,17.1797,3.3335,-8.9744,-5.3845,-0.25635,5.3848,-0.25635,-2.3076,-15.6409,19.231,4.3589,
-2.8204,2.308,8.9745,17.6923,-0.76917,-14.6154,-3.3334,-2.8204,5.8973,0.76917,-3.8461,-16.6666,18.7181,9.4872,
-3.3333,-2.8206,4.3589,18.2053,-3.3333,-13.0769,4.3589,-0.25635,9.4871,0.25635,-1.282,-17.1794,22.3079,4.3589,
-11.7948,-9.7435,3.0768,17.4359,-5.641,-19.4872,3.5897,-3.077,13.8461,0.51282,-0.51282,-16.9232,21.5385,3.5897,
-7.1793,-5.1281,15.8973,22.5643,-17.9486,-18.4615,8.7179,-0.51282,14.3593,0.51282,-0.51282,-16.923,19.4872,14.8719,
1.0256,-4.1025,18.4614,21.5386,-21.0256,-14.3589,5.6411,-1.0256,4.6157,-11.282,-7.6921,-27.6921,14.8721,6.1538,
3.3336,-3.8461,14.1027,18.2052,-6.0256,-12.5641,-1.2821,-1.2821,5.8976,-17.6923,-8.4615,-29.9999,18.2052,3.3336,
-0.51282,-1.0255,16.923,21.5387,4.6154,-16.923,0.51282,-1.0255,11.795,-12.3077,-3.5897,-24.1024,22.5641,15.3849,
0.76917,-2.3077,20.7692,23.3331,-8.4615,-15.1283,4.8717,-0.76916,8.4615,-16.6666,-4.359,-25.8973,20.7692,12.0514,
8.7183,0,16.4102,17.9487,-5.1282,-10.2563,3.5898,-1.5383,8.7183,-24.1025,-6.6665,-34.8718,16.4102,0,
6.923,3.3336,9.4874,15.1281,-4.8717,-16.1537,0.76917,-5.3846,7.9489,-22.3077,-10.5128,-36.1537,12.0514,-0.76917,
-1.0256,1.5386,6.1538,19.4873,-5.1282,-14.3589,1.0256,-4.1025,9.231,-9.2307,-8.2051,-22.564,16.9233,1.5386,
-3.5897,-0.51282,7.1793,23.0768,0.51282,-10.2565,0.51282,-1.5385,13.3331,1.0255,-5.1283,-14.359,20.0001,-5.1283,
-3.0769,2.0513,8.2053,21.0256,-4.6152,-13.8459,4.6155,-2.0513,10.7693,3.0769,-7.1794,-20,13.8464,-15.8975,
-5.6411,1.5386,7.1797,17.436,-1.5386,-10.7693,4.1025,-4.6152,4.6152,1.5386,-11.7949,-22.564,10.2563,-24.1025,
-3.5898,1.0256,9.7434,24.6155,7.1794,-1.0256,2.0515,-7.1794,5.6409,-1.5383,-11.282,-18.9744,13.3333,-23.0769,
1.5385,6.1539,17.9489,26.6666,-3.5897,-1.5385,14.8717,-4.1024,11.2823,-2.5641,-4.1024,-17.4359,19.4874,-22.5641,
-2.3076,7.9487,15.1284,18.2051,0.25635,-8.4614,18.2051,-0.25635,11.0259,-2.3076,-4.3589,-20.7693,21.2822,-31.0256,
-6.4103,6.4105,8.4618,20.7694,15.2563,0.25647,3.2051,-1.7948,10.5131,-4.359,-8.9742,-20.2565,23.8461,-33.5897,
-5.8975,8.9744,11.0256,24.8718,3.3333,13.5896,-9.4871,-3.3333,13.0769,-12.0513,-8.4614,-19.2307,26.9231,-32.564,
-4.8718,7.9485,10.5129,19.2307,-11.6667,8.9744,4.8718,-6.4104,8.9744,-19.231,-8.4617,-25.3848,21.282,-38.2051,
-1.7949,1.2822,2.3076,16.1538,3.3333,-1.2822,18.2051,-15.1282,8.4614,-18.718,-8.4617,-34.1025,17.1792,-38.2051,
-0.25635,-4.8718,0.25635,17.1797,18.2051,0.76929,12.0513,-23.3333,12.0513,-21.282,-3.8462,-36.1538,20.769,-36.1538,
-1.7949,-3.3333,6.9231,18.718,3.2051,7.4358,11.0256,-18.718,13.5896,-18.718,1.7949,-26.4102,24.3591,-36.1538,
-7.9486,-5.3846,1.2821,14.6154,4.359,0.76917,11.0255,-18.2052,13.0768,-3.718,-2.3077,-18.7179,18.7179,-33.5897,
-12.0513,-6.4102,-5.8975,18.2051,19.359,-0.76929,3.8462,-19.7437,16.1538,11.282,0.76929,-16.1538,20.2563,-23.8462,
-14.3591,-13.8462,-5.1282,18.9741,4.359,1.0256,1.0256,-21.5386,13.3335,18.9741,2.0513,-18.4617,18.9741,-26.1538,
-11.282,-15.8975,2.0513,19.4871,-10.641,-2.0513,13.3333,-21.5383,18.4617,18.4617,2.5642,-13.8462,18.4617,-27.1794,
-12.8203,-17.4358,-1.0256,16.4104,3.5898,-7.1794,11.7952,-28.2051,17.949,14.8718,1.0256,-15.3845,17.949,-25.6409,
-13.3331,-19.9999,-4.6154,9.2308,12.308,0.51282,2.5641,-26.1537,7.6923,2.5641,-0.51282,-22.0511,18.4618,-24.6154,
-7.1796,-8.2052,0.51282,17.4359,14.3588,11.2821,8.205,-12.3077,8.7181,-0.51282,-2.0514,-15.3846,21.5385,-14.359,
-8.9744,-1.282,1.282,20.769,11.0259,0.25635,12.564,-16.6665,8.9746,-0.25635,-8.4614,-15.6409,14.1025,-13.5896,
-2.0513,-1.5386,9.7437,23.5898,11.7949,-1.0256,15.8975,-15.3848,14.8716,1.0256,-2.0513,-17.436,17.436,-13.8462,
-1.7948,-5.8973,6.923,19.7438,6.923,1.7948,6.4103,-12.5641,11.5387,-12.0511,-3.8461,-20.7692,16.6666,-11.0255,
-4.6154,-0.51282,1.0255,17.4357,1.5387,6.1539,0.51282,-11.2821,9.7438,-13.8461,-2.0514,-12.8204,17.9489,-1.5385,
-7.436,2.3079,-2.8206,18.2053,-2.8206,6.9231,2.8206,-8.9744,7.9485,-12.0513,3.8459,-10.5129,18.2053,-2.3079,
-3.3333,-0.76929,0.76929,21.7949,-2.8206,4.8721,14.1025,-2.3076,6.4102,-16.6665,3.3335,-14.1025,15.6411,-4.3589,
-2.5641,-4.6154,4.1024,17.9486,-0.51282,0.51282,15.3846,-5.1283,5.641,-16.4103,3.5897,-12.8204,12.8207,-2.0514,
-5.3845,-0.25635,0.25635,17.1797,8.9746,1.282,0.38464,-8.9744,6.4102,-1.7949,13.5898,-8.4614,15.1284,-1.282,
-7.6924,0,-5.1282,17.9487,12.3076,-0.51294,-5.1282,-7.1794,6.1538,9.7437,17.9487,-11.7949,14.3589,0,
-14.6152,-11.0256,-5.8975,15.1284,1.7949,-9.4871,5.8975,-11.5383,4.3589,9.4873,12.0513,-19.7434,7.9487,-1.7949,
-13.8461,-11.7948,0.51282,18.9745,-1.0258,-6.1539,4.6156,-8.7179,12.3075,17.9486,23.5897,-8.7179,14.8719,-0.51282,
-11.7948,-12.3077,-3.077,13.8461,-0.51282,-5.1283,0.51282,-8.7179,14.3588,17.4359,30.2562,-2.0514,15.8973,3.0768,
-15.641,-16.6666,-6.4103,9.9999,-3.3334,-10.5128,7.9486,-14.6154,5.8973,3.3334,25.8973,-10.5128,7.9486,6.4105,
-17.436,-7.1797,-0.51294,20.5129,0.51294,-4.6155,9.2307,-9.231,8.2048,-1.0259,35.3845,-9.231,10.7693,11.7947,
-16.6666,0.76916,-2.8204,24.3593,3.3334,-2.8204,-0.76917,-2.8204,11.5385,-5.8973,39.2308,-8.4615,12.0511,12.0511,
-8.2051,1.0256,-2.0513,19.4871,2.5642,-5.6409,-1.0256,-4.6152,7.6926,-14.3589,35.8977,-11.282,15.3845,14.8718,
-6.6667,-0.5127,4.6152,12.8203,-1.5386,-3.5898,7.1797,-10.2563,0.5127,-25.1282,32.8203,-11.7949,16.9229,13.8462,
-7.1792,4.6152,0,13.3335,0,-2.0513,6.1538,-6.6665,-4.6152,-32.3076,26.6665,-14.8718,5.6411,6.6665,
1.0256,9.7434,-5.6414,16.9231,9.2307,-4.1028,-4.6155,-1.0256,-2.5642,-27.1797,21.5383,-19.4873,3.5896,10.7693,
-1.0256,4.1023,-2.0515,15.8972,6.1536,-5.6414,-6.6667,-4.1028,1.0256,-16.9233,22.5637,-18.4617,10.2561,15.8972,
-8.4617,1.2822,1.2822,15.1284,-0.25635,-3.3335,-0.76904,-4.8716,0.25635,-7.9487,26.4102,-9.4873,12.564,16.1538,
-2.0513,1.5386,-1.5386,9.231,7.6924,-7.6924,1.5386,-6.6665,-4.6152,-7.1797,26.1538,-7.6924,8.2051,7.6924,
7.4363,1.282,-1.7947,8.9744,16.1541,-7.9485,7.949,-11.0256,-7.9485,-5.3845,24.8718,-11.5383,3.8464,-1.282,
-0.76929,-0.76929,-5.3845,9.4871,9.9998,-3.3333,1.7947,-11.0256,-7.4358,2.3079,23.8459,-13.0769,4.3591,0.76929,
-6.6667,1.5383,-1.5383,11.282,8.2053,-2.0515,-5.1282,-5.6409,-2.0515,11.7947,28.718,-6.6667,12.3079,10.2566,
-7.9487,-1.7949,0.25635,12.0513,14.1025,-10,-0.25635,-12.0513,-3.8462,2.8208,25.3848,-9.4868,6.4102,2.8208,
-6.667,0,0,14.8716,13.333,-6.667,7.6919,-12.3079,-1.0259,-8.2051,25.6406,-14.8721,4.6152,3.5894,
-10,2.3079,-0.25659,14.6155,-1.667,-0.25659,3.8459,-6.4104,0.25659,-16.1538,31.0256,-18.2051,13.0769,14.1028,
-12.564,4.3589,0.25635,14.6157,-6.4102,3.3335,-0.25635,-1.2817,-1.2817,-17.1794,31.5386,-11.0256,15.6411,14.6157,
-11.282,9.231,-4.1025,15.3848,8.5898,0,0,-2.564,-1.0254,-13.3333,29.7437,-8.2051,13.8462,11.7949,
-7.9485,7.949,-6.9231,14.6155,18.718,-0.76929,0.76929,-8.9744,-2.8206,-16.6665,30.5129,-17.1794,16.6667,15.1282,
-7.4358,2.8206,-6.4099,11.0256,7.4363,5.8977,-2.8206,-6.4099,-5.3845,-21.7947,26.4104,-24.3589,14.1028,11.0256,
-8.2048,6.6667,-6.1536,9.7439,5.1282,2.5642,-7.1794,-2.5642,-11.7947,-19.4871,17.4358,-27.1794,5.6414,4.1028,
-2.3076,8.4614,-1.2822,7.436,7.436,-4.8716,1.2822,-10.5127,-17.6924,-14.1025,20.769,-24.8716,1.7949,10,
-0.25635,2.8203,-0.25635,4.8716,4.3589,-5.3848,0.25635,-13.5898,-14.1025,-7.436,29.4868,-16.1538,4.3589,17.6924,
0,4.6152,0,6.1538,0,-7.1797,-4.6152,-5.1284,-7.1797,3.0771,29.231,-10.2563,7.6924,17.9487,
-1.5386,5.1279,0,2.0513,-0.5127,-13.3335,2.0513,-9.7437,-11.7949,5.1279,21.5386,-17.9487,0,14.3589,
-2.8208,7.4355,-0.76953,7.4355,5.8975,0.25635,-0.25635,-12.0513,-11.5386,8.9741,23.8462,-12.5645,-1.2822,23.333,
-2.564,6.1538,-2.0513,10.7695,-5.1279,10.7695,-5.6411,-4.6152,-8.2051,11.2822,21.5386,-8.2051,2.0513,24.6157,
0.76929,3.3333,-2.3079,3.8464,-14.1023,-2.3079,3.3333,-3.8459,-9.4871,-0.76929,11.0256,-20.7693,1.7952,17.1794,
1.7949,11.5381,-2.8208,10,0.89771,-7.9487,-1.7949,-2.3081,-10,-15.1284,9.4868,-23.3335,4.8716,23.333,
-3.3333,15.6409,-2.3079,14.6155,15.8977,0.25659,-13.5896,-0.25659,-10.5129,-23.3333,7.4358,-23.3333,9.4871,27.949,
-3.0771,10.2563,-1.5386,9.7437,1.5386,2.564,-2.564,-2.0513,-12.3076,-31.282,2.564,-34.8718,5.6411,15.8975,
0.76929,7.949,-0.76929,10.5129,-4.8718,-4.8718,5.385,-2.3074,-11.0256,-39.2305,6.9231,-35.6409,1.2825,12.5642,
0.5127,4.6157,-0.5127,11.7949,5.6411,-14.8716,-7.1792,-3.0767,-8.7178,-41.5383,10.2563,-26.6665,4.1025,17.9487,
-0.25635,3.3335,0.25635,10.5132,6.9233,-8.9741,-7.9487,-1.2817,-11.5381,-38.7178,2.3081,-29.9998,4.8721,14.6157,
-1.0256,6.6667,1.5388,7.6926,-4.1023,1.0256,-1.0256,1.0256,-15.3845,-34.3589,-4.6155,-37.4358,2.5642,13.3333,
4.3591,10.5129,6.9231,8.9744,-3.3333,-3.3333,0.25659,-0.25659,-13.5896,-20.7693,-3.3333,-30.5129,0.76929,21.282,
5.6409,6.6667,8.2053,8.2053,4.1028,-10.2566,3.0769,-3.0769,-11.282,-5.7693,-9.2307,-26.1538,-8.718,20.0002,
-0.51294,0.51294,5.1282,5.6409,3.5896,-9.2307,2.5642,-4.6155,-13.8459,2.0515,-17.4358,-27.6924,-11.282,21.0256,
3.3335,5.3848,6.4102,7.436,0.76904,-7.436,-9.4873,-1.7949,-15.6411,5.8975,-13.0771,-21.7949,-0.76904,33.0767,
7.1792,15.3843,10.2563,9.7437,-4.1025,-7.6924,-19.4873,1.5386,-13.3335,2.564,-4.1025,-15.8975,-1.5386,35.8975,
10.2563,24.6157,17.9487,17.436,-9.7437,-2.0513,-10.2563,9.231,-6.6665,-7.1792,2.0513,-20.5127,-9.7437,28.7183,
11.7949,22.0513,15.8975,14.8716,-2.0513,-11.2822,-3.5898,2.0513,-10.2563,-13.3335,4.6152,-35.3845,-8.2051,19.4873,
11.282,7.1794,8.718,2.5642,3.5896,-23.5896,-8.2053,-9.7434,-18.9744,-24.6155,4.6155,-50.3845,-2.5642,11.282,
10.7688,7.1794,15.8972,6.1536,-6.6667,-16.4104,-1.0256,-5.1282,-20.5129,-39.6155,6.1536,-55.3848,1.0256,8.2048,
9.231,11.7949,18.4614,7.6924,-14.3589,-15.8975,4.1025,-10.769,-20.5127,-54.6155,2.0513,-55.3845,-2.0513,8.2051,
10.769,13.8462,14.8716,8.2051,-2.0513,-21.5386,0.5127,-14.3589,-15.3848,-63.0769,1.0259,-55.8975,-0.5127,10.2563,
5.8975,9.4873,9.4873,10,6.9229,-26.4104,-9.4873,-12.0513,-22.8203,-73.0769,-2.8203,-65.3848,2.8203,8.9741,
8.9744,6.4104,15.1282,6.9231,6.4104,-24.8718,-4.3591,-10.0002,-25.3848,-66.9231,-4.8718,-63.8462,4.3591,12.051,
15.1279,10.5127,28.4614,9.4873,-1.7949,-22.8206,10.5127,-6.9233,-13.0771,-51.9231,-2.3076,-48.8462,1.7949,17.6924,
15.3848,11.7949,26.667,13.8462,-8.7178,-28.2051,1.0259,-8.7178,-8.2051,-36.9231,-0.5127,-33.8462,0.51269,18.9746,
13.0771,7.9487,16.6665,10.5127,0.25635,-31.0256,-13.9741,-15.1279,-14.6152,-21.9231,-0.25635,-40.7693,3.3335,18.7178,
8.2051,4.6152,12.3076,4.1025,6.1538,-25.6411,-9.7437,-15.8975,-21.0259,-14.8721,0,-48.718,0,19.4868,
4.3591,5.3845,13.5896,3.8459,-6.4104,-20.7693,2.8206,-12.0515,-18.718,-12.0515,1.7947,-39.2307,-1.7947,24.3591,
8.7178,9.2305,18.9741,10.2563,-8.2051,-15.8975,-0.5127,-8.2051,-14.8721,-14.8721,4.1025,-30.7693,0.5127,31.7949,
14.6155,13.0769,26.4104,11.0256,2.8206,-10.5129,-5.3845,-0.25659,-17.6921,-22.3079,0.25659,-45.3848,-7.4358,25.8972,
20.7693,16.6667,36.6667,13.0769,-4.3591,-11.0256,3.3333,3.3333,-15.6409,-29.4871,-3.3333,-60.3848,-11.5383,18.718,
30.2563,22.0513,42.0513,22.0513,-1.0259,-14.3589,6.1538,0.5127,-16.9229,-39.4873,-0.5127,-67.6924,-10.2563,24.6152,
30.0002,23.8464,37.6926,21.282,13.9741,-19.2307,0.76929,-2.8206,-23.8462,-54.4873,-0.76929,-77.1794,-20.7693,18.2053,
20,15.8975,30.769,12.3076,0.5127,-29.7437,2.564,-13.3335,-22.564,-68.2053,-0.5127,-78.4617,-32.3079,3.2053,
25.8977,18.718,37.6926,18.2053,-7.4358,-25.8972,11.0256,-14.6152,-7.9485,-56.1538,14.4873,-63.4617,-18.7178,7.4358,
24.3589,16.1538,34.1025,14.1025,2.3076,-26.4104,-2.3076,-14.1025,-20.7693,-65.8975,8.9741,-64.8718,-16.6665,6.4102,
28.718,20.0002,40.0002,22.5642,13.8464,-20.5127,-3.5896,-2.5642,-24.6152,-65.6409,11.282,-69.2307,-14.3586,2.5642,
29.4875,18.2053,44.8718,25.3845,8.9744,-17.1794,3.3333,-4.8718,-14.6152,-50.6409,21.282,-54.2307,-7.4358,-3.3333,
21.7949,11.5386,40.769,15.1279,7.9487,-18.2053,4.3589,-12.0513,-11.0259,-35.6409,20.2563,-39.2307,-4.3589,-4.8721,
13.3335,5.6411,37.436,10.2563,6.6665,-22.0513,3.5898,-10.769,-14.8716,-20.6409,15.3848,-34.8718,-8.2051,-3.5898,
14.8718,6.6667,41.5388,18.4617,-1.0256,-19.4871,7.1799,-8.7175,-9.2307,-5.6409,22.0515,-34.3586,-7.1794,1.0256,
16.1541,14.6155,41.7947,26.4104,-1.282,-13.0769,2.3079,-13.0769,-3.3333,1.282,27.9485,-30,-1.7947,-4.8718,
17.6921,20.7693,40.2566,27.4358,10.0002,-11.5383,-0.25659,-19.7437,-6.4104,-7.4358,25.3845,-37.6924,0.25659,-17.6924,
22.0513,12.3076,37.9487,21.5386,10.7695,-17.4355,9.7437,-31.7947,-18.9741,-22.4358,13.8462,-52.6924,-9.7437,-28.7178,
29.2307,16.4104,40.0002,27.6926,7.1794,-11.282,13.8464,-32.3076,-19.4871,-37.4358,14.3591,-67.6924,-7.1794,-27.6921,
27.1797,29.231,41.0254,32.3076,15.3848,-6.1538,-1.1536,-33.8462,-15.8975,-46.6667,22.0513,-82.6924,5.1284,-24.6155,
29.231,29.7437,40,33.3335,25.6411,-10.2563,-9.7437,-46.6667,-18.9744,-57.9487,29.7437,-95.8975,9.7437,-22.0513,
25.1279,14.7437,25.6411,24.1025,10.6411,-25.2563,0,-61.6667,-31.2822,-72.9487,23.0767,-110.8975,0,-33.8462,
18.718,-0.25635,21.2825,20.2566,0.76929,-35.6409,4.3591,-64.3589,-26.9229,-81.7947,24.3591,-114.1023,1.2825,-41.7947,
16.4104,4.6155,28.2053,23.5896,12.3079,-32.8203,-3.0769,-63.0769,-21.5383,-67.6921,30.2566,-108.2051,3.0769,-38.4614,
23.3333,8.9744,33.5896,29.4871,16.1541,-22.3076,-2.8206,-62.3076,-21.282,-52.6921,38.718,-97.6924,2.8206,-23.4614,
28.2053,12.8206,32.8206,31.7952,8.2053,-15.8972,-1.0256,-56.9229,-21.0254,-37.6921,44.6155,-84.6152,1.0256,-8.4614,
25.8977,11.0256,32.0515,29.4875,2.8206,-19.7434,-1.282,-53.5896,-19.7434,-24.3589,41.7952,-74.1023,1.282,-3.8459,
19.2305,4.3589,27.436,31.5386,6.9229,-24.8718,-8.4614,-56.1541,-20.7693,-15.6411,40.769,-69.4873,3.8462,-3.8462,
16.6667,-1.282,25.8977,34.1028,6.9231,-32.564,-12.5637,-63.8459,-20.769,-9.9998,44.3591,-68.4614,4.3591,1.282,
26.1536,-1.5383,33.8459,36.4104,-1.5383,-30.7693,1.5383,-67.1797,-11.2822,-10.7693,50.2561,-67.6924,10.2561,11.282,
23.3333,0.76929,28.9744,33.5896,-5.8972,-25.8975,-0.76929,-66.4102,-18.718,-25.7693,39.7434,-80.2563,8.4617,10.0002,
21.5383,3.5896,19.4871,24.6155,9.1028,-24.1028,-15.7693,-69.2307,-33.718,-40.7693,28.718,-95.2563,-3.5896,4.1023,
36.1538,6.9229,28.4614,26.9229,24.1028,-20.769,-15.6411,-68.9744,-43.3333,-55.7693,37.6924,-103.3333,-6.4102,6.4102,
37.4358,8.2053,32.8206,33.8464,29.2307,-22.051,-11.282,-68.7178,-40.5127,-70.7693,44.6155,-113.3333,-2.5642,2.5642,
29.7434,9.7434,29.2307,31.282,16.4104,-26.6667,-18.4617,-67.6924,-42.5642,-85.7693,48.718,-123.5898,5.1282,-5.1282,
36.6665,10,36.1538,34.6152,15.1284,-28.4614,-12.0513,-63.3333,-35.6409,-100.7693,53.5898,-126.4102,15.1284,-10,
40.7693,3.3333,44.3591,39.7434,15.6409,-31.0256,-3.3333,-70.5127,-34.1025,-100.7693,45.3845,-130,11.0256,-10.5129,
38.9741,1.5386,46.1538,39.4868,19.4868,-34.8718,-8.2051,-76.4104,-39.4873,-88.2053,41.0254,-125.6411,3.5898,-1.5386,
38.718,0.76929,41.7952,33.5901,14.1028,-39.2307,-17.6921,-76.6665,-43.8459,-73.2053,42.8206,-118.2051,-0.76929,1.7952,
37.6924,-0.25635,42.3076,34.6157,10,-37.1794,-7.436,-71.0256,-38.2051,-58.2053,45.8975,-105.8972,0.25635,6.4102,
34.8718,-3.5896,41.5383,40.5129,12.3079,-40.5127,-3.0769,-69.2307,-35.3845,-43.2053,48.718,-91.7949,3.0769,17.9485,
36.1541,-2.8206,40.2566,44.3591,12.0515,-43.3333,-15.6409,-68.9741,-37.1792,-28.2053,54.6155,-80.769,2.8206,23.8464,
33.8462,0.5127,36.9229,36.9229,4.1025,-38.9744,-25.1284,-69.2307,-44.1025,-32.8206,53.8462,-82.0513,-0.5127,22.0513,
27.1797,-1.5386,28.2051,31.7949,3.0771,-38.9741,-30.2563,-72.8203,-56.4102,-47.8206,48.2051,-95.3845,1.5386,18.4614,
32.3079,-5.6409,27.6921,35.3845,18.0771,-44.1025,-27.6921,-70.7693,-60.5129,-55.3845,48.2053,-102.5642,5.6409,16.4104,
45.8972,-2.3079,38.718,35.1282,33.0771,-45.3848,-17.1794,-69.4873,-59.7437,-70.3845,46.9231,-108.9744,2.3079,15.1282,
45.8975,-0.76904,35.1284,26.4102,20.769,-48.9741,-16.1538,-80.2563,-69.4871,-85.3845,42.8203,-123.9744,0.76904,12.564,
38.4614,-4.1025,22.0513,22.564,14.8721,-53.3333,-25.6411,-88.7178,-74.8718,-100.3845,44.1025,-138.9744,4.1025,5.6411,
46.6665,-2.564,30.2563,32.8203,29.8721,-52.8206,-18.4614,-82.5642,-68.2051,-115.3845,50.769,-148.2051,6.6665,2.564,
55.6409,-2.8206,44.8718,36.6663,32.5637,-59.7437,-8.9744,-78.2053,-66.4104,-125.8977,52.051,-145.8977,6.9231,2.8206,
52.8206,1.0256,46.6667,41.0256,17.5637,-65.1284,-15.3845,-80.5129,-66.6667,-114.8718,49.7434,-146.1541,7.1794,-1.0256,
54.1025,11.5386,47.436,51.0259,17.6924,-61.282,-25.8975,-75.6409,-60.2563,-99.8718,46.9233,-142.8206,3.8462,-3.8462,
60.2566,15.1282,51.0256,49.4871,27.4358,-60.7693,-31.0256,-72.0513,-58.2051,-84.8718,46.9231,-131.5383,-0.25659,0.25659,
63.3333,14.1028,51.5383,45.3845,26.4104,-71.0256,-25.3845,-76.6665,-63.3333,-69.8718,53.0769,-121.282,-3.3333,3.3333,
65.3848,11.5386,55.1284,44.8716,32.564,-75.6411,-19.231,-82.3076,-64.8718,-54.8718,59.7437,-118.718,-2.3076,2.3076,
60.5127,6.1538,57.9487,43.5898,25.6411,-76.4104,-22.0513,-85.1282,-63.5898,-55.8975,58.4614,-118.9744,-0.51269,0.5127,
51.2817,3.0767,52.8203,42.0513,10.6411,-77.436,-29.231,-86.1541,-69.231,-58.4617,56.4102,-121.0259,-2.0513,2.0513,
53.3333,4.1028,48.718,41.5383,19.4871,-75.3845,-33.8459,-90.769,-78.9744,-69.7434,51.282,-132.3076,-3.5896,3.5896,
66.4099,6.4099,61.282,47.9485,34.4871,-76.1541,-18.8459,-89.4873,-78.718,-84.7434,44.3586,-144.3591,-2.8206,2.8206,
67.4358,7.9485,65.3845,51.0256,29.4871,-76.6667,-4.3591,-85.3848,-74.1025,-95.6411,47.9485,-151.5386,0.25659,-0.25659,
57.4358,5.6409,54.3591,46.1541,22.5642,-71.7949,-19.3591,-88.2051,-74.8718,-110.6411,55.3845,-156.9231,8.2053,-5.6409,
61.5383,8.2053,54.8718,49.2307,31.7947,-71.282,-34.3591,-84.6155,-72.8206,-125.6411,55.8972,-162.0513,14.8718,-8.2053,
71.5381,10,64.3589,56.6665,38.2051,-78.2053,-19.3591,-77.6926,-66.9233,-130.5129,54.6152,-167.949,19.2305,-10,
73.333,5.6411,67.6924,56.4102,33.8462,-81.0259,-5.6411,-81.0259,-68.718,-120.5129,54.3589,-171.2822,19.4868,-12.8208,
74.6155,5.3845,68.9744,55.6409,34.1023,-77.1797,-16.6667,-79.231,-65.8975,-105.5129,57.6921,-159.231,22.8206,-5.3845,
66.9233,-0.25635,62.3076,54.1025,32.564,-82.8206,-25.8975,-77.6921,-66.9231,-90.5129,57.6924,-150,18.7178,0.25635,
64.8716,-3.8462,61.7949,56.6665,36.6665,-82.8206,-25.8975,-77.1794,-70.5129,-75.6411,62.8203,-144.3591,20.769,3.8462,
70.0002,-4.8718,68.9744,54.1028,39.2307,-80.2563,-18.718,-79.7434,-71.0256,-68.9744,65.3845,-139.2307,23.3333,4.8718,
65.6411,-5.1284,61.5386,51.7949,25.6411,-80.5127,-15.8975,-82.564,-72.3076,-65.6411,61.0259,-136.4102,17.436,5.1284,
53.0771,-7.9487,46.5386,52.564,18.2051,-77.6921,-30.8975,-85.8972,-77.1794,-63.3333,62.8208,-131.5383,20.2563,7.9487,
53.5898,-7.9487,53.0771,54.1025,32.564,-77.6921,-35.1279,-82.8206,-72.0513,-64.3589,71.0259,-128.4614,32.564,7.9487,
66.1538,-2.0513,62.564,57.436,42.0513,-80.5127,-20.1279,-74.8718,-73.3333,-71.282,66.6665,-136.4102,31.7949,2.0513,
73.0771,0.76904,62.8203,54.6152,34.6152,-77.6924,-21.2822,-74.6155,-86.4102,-84.3589,56.6665,-146.9231,23.3335,-0.76904,
76.1541,1.282,67.4358,51.0256,34.1028,-78.2051,-27.9485,-76.6665,-84.3589,-99.3589,55.6414,-155.6409,28.4617,-1.282,
82.3076,4.3589,76.1538,56.6665,46.4102,-83.8462,-20.769,-71.5386,-75.6411,-114.3589,61.7949,-161.7949,34.6152,-4.3589,
85.3845,6.4104,79.7439,63.3333,41.282,-86.4102,-12.051,-67.4358,-80.2563,-120.2563,65.8977,-167.4358,27.4358,-6.4104,
83.5896,6.6667,80.5129,65.1282,33.8459,-88.2053,-17.949,-71.7949,-82.0513,-112.8206,65.6409,-173.3335,26.6667,-6.6667,
80.5127,8.2051,77.9487,63.0767,46.1538,-92.3079,-15.8975,-74.3591,-76.4104,-102.5642,61.0254,-174.3591,32.3076,-8.2051,
78.4617,5.1282,72.8206,60.5129,50.2566,-96.9229,-5.1282,-68.7178,-82.051,-90.2563,55.8977,-164.6152,26.1541,-8.718,
75.8972,3.0769,70.7693,61.0256,35.3845,-92.8206,-14.8718,-65.6411,-86.6667,-75.2563,61.0256,-149.6152,25.6409,-3.0769,
69.4873,0.25635,62.8208,54.6157,24.8721,-94.1025,-29.8718,-74.6152,-84.8716,-68.4614,63.3335,-144.8716,32.5645,-0.25635,
72.8203,-2.0513,60,53.8462,37.4355,-100.5129,-38.9746,-78.9746,-86.1541,-65.1284,63.5898,-137.949,29.2305,2.0513,
82.3076,-3.8462,67.9487,57.6924,44.8716,-102.8206,-24.3589,-71.0256,-88.4617,-58.718,62.8203,-124.8718,23.3335,3.8462,
85.3845,-3.3333,73.5896,57.1794,40.7693,-98.2051,-26.9231,-65.8975,-91.5383,-60.2563,61.282,-126.4102,26.4104,3.3333,
84.3586,-0.76929,74.1023,52.5642,39.2307,-95.6411,-31.5388,-71.5386,-101.7949,-75.1284,54.1023,-141.2822,22.3074,0.76929,
89.7437,3.5898,76.9233,49.7437,44.1025,-93.3333,-25.6411,-71.7949,-107.1794,-90.1284,44.1025,-150.769,13.3335,-3.5898,
93.5898,9.4873,80.2563,55.6411,54.6152,-84.8718,-23.8462,-63.8462,-99.2307,-94.1025,47.9487,-154.1025,20.769,-9.4873,
91.7952,10.7693,81.5383,60.0002,58.9744,-87.1794,-15.3845,-60,-86.1538,-93.3333,62.9487,-155.3845,33.8464,-10.7693,
88.4614,7.9487,80.769,60.769,48.4614,-97.6924,-7.9487,-62.8206,-83.3333,-96.6667,77.6924,-147.9487,33.0771,-9.4873,
83.8459,4.8718,78.7175,60.2561,40.2561,-87.949,-18.2053,-61.7952,-86.9233,-94.1028,68.9744,-137.6924,29.4871,-4.8718,
81.0259,0,75.3848,58.4619,44.1025,-81.0254,-28.2051,-61.5383,-82.564,-79.4871,64.1025,-134.3586,32.8208,0,
83.0769,-3.0769,76.4104,66.1541,51.282,-90.2563,-18.9744,-62.051,-75.8972,-67.6921,67.1794,-132.8203,36.4104,3.0769,
82.3079,-2.8206,80.2561,72.5642,47.4358,-90.5129,-6.9231,-56.1538,-76.6667,-72.5642,62.8206,-131.5386,34.6155,2.8206,
77.1792,-2.3076,79.2305,70,43.8462,-77.1794,-14.6152,-51.5386,-77.6924,-80.7693,57.6924,-133.0769,32.564,2.3076,
79.4871,-3.5896,75.8977,69.7434,52.3079,-76.9231,-20.5129,-55.8975,-78.9744,-81.5383,58.4617,-130.2563,34.8718,3.5896,
87.1792,-4.1025,80.5127,68.7178,60.5127,-85.6411,-10.2563,-60,-81.5386,-81.5386,58.4614,-122.0513,37.436,4.1025,
92.051,-1.282,88.9744,65.3845,54.1023,-85.3848,-5.8977,-57.6924,-82.3079,-87.9487,56.1536,-122.3079,36.6667,1.282,
94.8721,2.0513,89.231,65.6411,47.6924,-81.0256,-4.1025,-58.9744,-82.0513,-94.3589,53.8462,-129.7434,35.3848,-2.0513,
90,3.8462,81.7949,64.8716,51.0259,-77.1794,-9.4873,-61.282,-83.8462,-99.7437,51.5386,-136.6667,35.6411,-3.8462,
85.8975,5.8975,77.6924,63.8462,55.1284,-72.564,-20.2563,-57.1794,-88.4614,-106.9229,49.4873,-140.2563,37.6924,-5.8975,
92.5642,8.4617,80.2566,64.8718,54.6155,-71.0256,-19.7434,-56.1538,-88.9744,-111.0256,50.5129,-142.8206,38.2053,-8.4617,
94.8718,9.2307,84.1028,66.6667,50.7693,-76.9231,-10.2561,-57.4358,-87.1794,-109.7434,47.1794,-145.6409,30.2566,-9.2307,
81.7947,6.4104,82.3079,63.8459,51.5383,-82.8206,-13.5896,-55.1282,-92.564,-105.8975,40.7693,-145.3845,24.3591,-6.4104,
79.4871,1.5383,76.9231,61.0256,59.9998,-77.9487,-17.4358,-52.8206,-92.8206,-96.9231,41.5383,-138.4614,25.6409,-1.5383,
91.7949,0,78.4614,64.6152,57.4355,-73.8464,-7.1797,-49.7437,-82.0515,-83.5898,43.5894,-129.7437,28.2051,0,
90.2566,2.5642,80.5129,66.1541,55.8972,-74.8718,-2.5642,-46.1538,-75.3845,-77.4358,43.5896,-127.6924,35.8972,-3.0769,
82.5642,5.1282,75.385,65.1282,61.0256,-74.3589,-5.1282,-48.7178,-81.0254,-84.6152,39.4875,-133.3333,34.8718,-11.7947,
94.1023,8.9744,75.6409,65.8972,57.6921,-66.4104,-8.9744,-49.4871,-84.3591,-85.3848,35.6409,-133.0769,25.8972,-22.3079,
106.4104,12.5642,81.282,63.8459,62.8206,-60.7693,-12.5642,-45.8977,-82.3079,-77.6924,32.5642,-126.9231,28.9744,-31.5383,
101.7949,14.6152,80.769,61.7949,77.8206,-64.3591,-14.6152,-49.4873,-88.4617,-81.7949,25.8975,-129.4873,27.9487,-42.8208,
103.5896,18.9744,81.0256,61.5383,79.4871,-61.0256,-18.9744,-52.3079,-91.282,-90.7693,22.5642,-133.3333,18.9744,-47.6921,
111.5386,25.3848,82.8208,63.3335,70,-51.5381,-21.7949,-53.0767,-89.4871,-92.564,21.7949,-131.0254,22.3081,-50,
108.4617,23.8459,81.282,61.7947,75.1282,-50.0002,-16.6667,-67.436,-95.6411,-99.7437,16.6667,-137.6924,25.8972,-65,
103.3333,14.6155,76.6667,55.1282,80.7693,-53.0769,-11.5383,-81.2822,-102.3079,-108.4617,11.5383,-148.9744,18.2048,-80,
105.3848,14.1025,75.1284,61.7949,80.2568,-48.9741,-14.1025,-77.1792,-96.6665,-101.2817,14.6157,-142.8203,23.3335,-74.6152,
98.2053,8.9744,69.4871,61.282,77.6921,-50.5129,-8.9744,-82.3076,-91.0256,-99.7434,13.5896,-138.7178,28.4617,-73.5896,
90.5129,0.76929,67.9485,53.5896,72.5642,-52.0515,-0.76929,-91.5386,-92.5642,-99.2307,16.1536,-137.6924,25.8972,-76.1538,
98.4617,9.2307,70.7693,64.6155,84.6155,-37.0515,-9.2307,-76.5386,-86.1538,-84.2307,31.1536,-122.6924,34.8718,-61.1538,
100.7695,14.1025,65.3848,70,99.6155,-24.8716,-14.1025,-64.3589,-78.7178,-69.2307,36.1538,-107.6924,34.6157,-47.4355,
87.4358,4.3591,57.6926,57.6926,84.8718,-38.2048,-4.3591,-78.2051,-84.8718,-75.6409,22.8206,-118.7178,19.6157,-61.7947,
81.7949,4.3589,58.2051,56.667,69.8718,-42.3076,-4.3589,-80.2563,-88.4614,-77.1794,22.3076,-119.2307,7.9487,-63.333,
92.3076,14.3589,64.6152,70.2563,74.8716,-32.3076,-14.3589,-66.1541,-76.4104,-62.1794,34.3589,-104.2307,22.9487,-48.333,
86.6667,10.7693,62.051,67.1794,89.7434,-38.4617,-10.7693,-70.2563,-75.8975,-58.9744,34.8718,-93.8462,33.3333,-45.1282,
71.6667,1.0256,58.4617,58.4617,74.7434,-50.2566,-1.0256,-80.5127,-82.564,-68.718,30.2566,-100,26.1541,-47.1794,
63.5898,2.0513,61.5386,68.7183,68.7183,-48.2051,-2.0513,-71.7947,-72.8206,-57.4358,36.9233,-87.6921,35.8975,-32.1794,
68.7178,5.6411,64.6152,78.9741,81.0254,-37.9487,-5.6411,-56.7947,-58.9744,-42.4358,43.5898,-72.6921,50.2563,-17.1794,
58.2051,2.8203,62.3076,75.6411,76.6665,-31.0254,-2.8203,-45.8975,-55.1282,-41.7949,38.2051,-67.9487,49.4873,-7.436,
49.2307,-3.5896,55.8972,70.2566,61.6665,-38.4617,3.5896,-47.1794,-60,-55.3845,28.718,-70.2563,35.8972,-5.6409,
52.051,-1.282,55.1282,66.4099,46.9231,-48.4617,1.282,-57.1797,-66.9233,-57.6924,24.8718,-68.9746,26.9231,-5.385,
58.9741,6.1538,56.4102,66.6665,61.9231,-41.5386,-13.718,-52.8206,-70.2566,-49.231,24.1025,-66.6667,25.6411,-6.1538,
64.1023,6.6667,53.8459,68.2053,76.9231,-32.3079,-21.0256,-38.4617,-71.282,-44.1028,21.0256,-65.1282,24.6155,-6.6667,
66.6667,5.6409,56.9231,71.7947,73.3333,-37.9485,-6.0256,-38.4617,-67.6924,-40.5129,23.5896,-59.4871,28.2053,-6.1536,
56.1538,2.3076,56.6665,72.564,58.3333,-46.9229,-2.3076,-53.4617,-72.5642,-45.8975,22.8203,-62.3076,25.8975,-9.4873,
47.6921,5.1282,57.949,74.8718,50.7693,-39.4871,-8.718,-59.4871,-69.7437,-39.9998,25.1282,-60,25.6409,-5.1282,
44.6152,1.5386,57.9487,73.3335,60.5127,-41.5386,-11.7949,-52.3076,-64.6152,-35.8975,24.6152,-51.7949,25.1284,-1.5386,
42.8203,-6.4102,59.231,73.0767,59.231,-45.3848,-9.4873,-52.0513,-63.3333,-38.2051,26.4102,-44.8718,26.9229,6.4102,
36.9233,-16.4102,51.7949,70.7695,44.231,-46.1538,-13.3335,-55.8975,-68.2051,-39.4873,22.564,-44.1025,21.0259,13.3335,
33.0769,-26.4099,40.2566,61.282,29.231,-47.9485,-13.0769,-54.615,-71.5383,-37.6921,13.5901,-42.8206,13.0769,18.2053,
32.8208,-30.769,36.4102,55.3848,23.0771,-48.7178,-15.8975,-52.8206,-64.6152,-34.8716,15.8975,-37.436,20.5127,23.5898,
34.8716,-24.6157,44.6152,69.7437,38.0771,-49.7437,-18.4614,-51.2822,-55.3848,-32.3076,18.4614,-39.4873,29.2305,21.0254,
35.8975,-22.5645,50.769,76.9229,53.0771,-52.3079,-8.2051,-47.1797,-54.8718,-32.8208,9.7437,-49.7437,28.2051,8.2051,
33.5898,-37.1797,46.9229,63.3335,51.0254,-53.0769,3.3335,-45.8975,-56.6667,-31.5386,5.8975,-52.0513,29.4873,-3.3335,
37.949,-44.1023,47.1799,64.6155,49.2312,-47.6921,5.1282,-43.0767,-49.7434,-26.6663,13.3337,-45.6409,31.7952,-5.1282,
47.9487,-40.2563,53.5898,71.0259,63.3335,-40.769,2.3076,-34.1025,-45.8972,-27.9487,17.1797,-39.2307,28.9746,-2.3076,
42.5645,-37.4355,49.231,63.5898,56.9233,-36.9229,2.0513,-29.7437,-53.8459,-35.3843,16.4102,-32.8203,29.231,-2.0513,
35.1284,-29.4873,44.3589,62.3076,41.9233,-34.1025,0.25635,-34.1025,-57.6921,-37.1792,17.1797,-29.4873,29.4873,-0.25635,
42.0513,-22.5645,47.6924,68.2051,37.4355,-28.7183,-5.6411,-30.7695,-51.2822,-33.3335,12.8203,-27.6924,22.564,5.6411,
42.3076,-26.9233,49.4873,69.4873,51.5386,-25.3848,-5.3848,-21.2822,-49.4873,-26.9233,7.9487,-21.7949,21.2817,5.3848,
29.4873,-35.6411,44.8716,62.3076,40.769,-30.5127,1.7949,-23.8462,-52.5642,-26.9233,3.8462,-21.2822,22.3076,-1.7949,
30.2563,-33.3335,46.6665,62.0513,38.4614,-29.7437,2.0513,-22.564,-45.1282,-25.6411,4.1025,-24.1025,21.0254,-2.0513,
44.6152,-22.0513,54.3589,72.8203,53.4614,-16.4102,-5.6411,-9.7437,-35.3848,-18.4614,14.3589,-16.9233,27.1792,5.6411,
37.4358,-21.5383,49.7434,68.2053,55.3845,-12.3079,-4.6155,-11.282,-40.5129,-20.5129,14.8718,-12.3079,29.2307,4.6155,
23.0771,-21.5386,39.4873,61.5386,44.1025,-14.8716,0,-16.4102,-45.1282,-26.6665,8.2051,-15.8975,24.6152,0,
32.051,-14.6155,40.7693,69.4871,48.9744,-9.4871,-2.8206,-7.949,-37.6924,-21.7952,11.0256,-14.6155,26.9231,2.8206,
39.9998,-15.385,42.5637,67.6921,45.6409,-11.2825,-1.0256,-8.2053,-35.3848,-19.4875,6.6663,-13.8464,26.1536,1.0256,
32.8208,-20,42.564,63.5898,43.0771,-16.4102,5.6411,-9.7437,-34.3589,-18.4614,0,-14.3589,25.6411,0,
27.436,-21.7949,42.3076,65.3848,50,-10.5127,-0.25635,-6.9229,-27.4355,-18.2051,3.3335,-15.6411,28.9746,0.25635,
30.769,-18.9746,42.564,66.1538,48.2051,-8.7183,2.0513,-6.667,-28.2051,-21.0259,2.0513,-17.436,22.0513,-2.0513,
37.9485,-13.8464,46.6663,64.1023,47.1794,-7.6926,16.4099,-1.5388,-30.2566,-16.9231,-1.0256,-13.8464,19.4871,1.0256,
31.7949,-21.0254,42.5645,60.5132,41.5386,-7.1792,7.6924,-6.1538,-32.3076,-19.4868,-4.1025,-17.4355,22.0513,4.1025,
29.2307,-22.0513,41.0256,67.1794,42.5642,-1.0256,1.0256,-7.1794,-28.718,-19.9998,-5.6409,-13.8459,26.1541,12.3079,
21.7952,-23.3333,35.1282,62.8206,38.718,-7.9485,4.8718,-4.8718,-27.4358,-24.3589,-16.1536,-19.7434,19.2307,5.8977,
19.7434,-23.8462,33.5896,60.7693,38.718,-12.5642,5.3845,0.76929,-28.4617,-29.4873,-18.718,-31.5386,14.1023,-0.76929,
27.1794,-22.051,37.949,61.5383,35.3845,-7.1794,4.1028,-0.51294,-34.3589,-26.1536,-17.4358,-28.718,12.3079,0.51294,
32.3076,-20.5127,36.4102,64.1025,27.1792,-5.6411,11.2817,-3.5898,-30.7693,-14.3589,-18.4614,-19.4873,13.8462,3.5898,
24.3591,-23.8462,24.3591,64.8718,35.6409,-4.3591,2.8206,-2.8206,-24.8718,-11.0256,-16.6667,-19.7434,15.1282,7.949,
18.4617,-24.6155,22.0515,60.0002,47.1794,-4.1023,-1.5383,1.5383,-28.2051,-12.8206,-16.4104,-17.9485,12.8206,16.4104,
8.9746,-34.6152,15.1284,47.9487,32.1794,-17.6924,4.3589,-3.8462,-36.1538,-24.3589,-28.4614,-21.7949,3.8462,7.9487,
14.1025,-34.1025,15.1284,53.0767,19.7437,-10.5127,6.4102,-2.3076,-24.8716,-25.3848,-20.2563,-14.6152,14.1025,2.3076,
16.4099,-31.2822,18.9744,54.3586,34.7437,0.51294,-2.5642,-0.51294,-22.5642,-26.6667,-15.8977,-10.2566,16.4099,1.5383,
7.6924,-28.718,20.5127,51.7949,36.9233,-1.5386,-3.0767,2.0513,-30.2563,-32.8206,-27.6924,-17.436,3.5898,1.5386,
5.3845,-31.0256,16.6667,49.4871,32.051,-4.3591,6.9231,0.25659,-27.436,-36.1538,-33.0769,-22.8206,1.282,-0.25659,
12.3074,-32.3079,19.4871,49.7434,23.5896,-4.1028,9.7434,1.0256,-23.5898,-31.2822,-29.231,-16.4104,6.6667,-1.0256,
11.282,-27.1797,26.6667,53.8459,9.7434,-9.7439,2.5642,7.6921,-27.6924,-23.5896,-31.7949,-12.8206,-0.51294,0.51294,
13.8459,-21.0256,29.7434,56.4099,23.5896,-3.5901,3.0769,14.3586,-23.0771,-21.0256,-32.8206,-11.282,-3.0769,3.5896,
13.8462,-26.1538,21.5386,48.2051,38.5896,2.0513,5.1284,8.2051,-26.1538,-32.3076,-40.5127,-14.3589,-2.0513,-2.0513,
7.9487,-26.9233,14.1025,41.7949,29.4873,2.8203,0.25635,6.9229,-28.9746,-31.0259,-51.5386,-13.0771,-4.3589,-0.25635,
8.4614,-18.7178,12.5645,44.8721,32.0513,9.4873,-8.4614,14.1025,-26.4102,-24.3589,-56.1538,-8.4614,-8.9741,8.9746,
10.7695,-22.564,6.6665,42.564,37.436,0.5127,2.0513,8.7183,-35.3845,-33.8462,-67.6921,-16.4102,-18.9741,-0.5127,
16.1538,-18.7178,14.1025,48.9741,34.6152,-1.7949,17.0513,10.5127,-25.8975,-18.8462,-64.8718,-11.5386,-10.5127,1.7949,
7.9485,-21.282,11.0256,46.4104,26.4104,-2.3079,3.8459,3.3333,-20.2566,-3.8462,-63.3333,-12.5642,-12.0515,2.3079,
10.5129,-19.2307,13.0769,46.4104,37.1794,3.3333,-3.3333,8.4617,-20.2566,-6.9231,-59.7437,-10.5129,-14.1028,3.8459,
3.8459,-23.3335,12.051,42.8206,32.051,-1.7947,11.6667,12.5642,-27.436,-15.1282,-67.436,-14.6155,-14.1028,1.7947,
-0.25635,-27.436,13.5898,42.8203,22.8203,0.25635,17.6924,16.6665,-22.8206,-5.8975,-67.436,-15.6411,-8.4614,5.3848,
2.3076,-32.5642,12.564,37.6924,25.8975,-0.76904,2.6924,17.1792,-19.7437,-9.4873,-64.8718,-18.7178,-12.564,1.2822,
12.564,-23.8462,17.1797,39.7437,30,-0.25635,4.3589,19.7437,-19.7437,-14.6152,-64.8718,-17.1797,-14.6152,0.25635,
8.2048,-22.5642,8.718,34.3586,15,1.0256,3.0769,12.8206,-23.0769,-17.949,-74.8721,-23.5901,-19.4875,-1.0256,
4.6152,-23.5898,1.0254,37.9487,17.4355,4.6152,0,15.3843,-11.7949,-9.231,-66.6667,-23.0771,-11.7949,0,
2.8206,-22.3076,2.3079,45.3845,32.4355,-1.282,9.4871,20.7693,-0.76929,0.25659,-51.6667,-14.1025,-0.25659,-3.8459,
0,-23.5898,5.6406,41.0254,27.1792,-7.1797,24.1025,17.9487,2.0513,0,-38.9746,-7.6924,0,-6.667,
5.3848,-24.3589,4.3589,39.231,12.1792,-2.8203,19.231,17.1797,-2.3076,3.3335,-44.3589,-3.8462,-4.3589,-1.2822,
5.3845,-24.8718,-1.282,35.6409,10.5129,1.282,4.231,16.1541,-12.5642,7.949,-59.3589,-5.3845,-9.4871,2.3079,
0,-22.0513,0,31.7949,23.5898,0.51318,-2.0513,17.436,-12.8203,4.6157,-71.7947,-8.7178,-14.3589,0,
0.51269,-21.0256,6.667,40,12.3076,2.0513,12.9487,25.6411,-5.6411,-0.5127,-71.7947,-9.2305,-17.4358,-1.0254,
2.0513,-25.1284,7.6919,41.0254,4.6152,7.6919,12.3076,29.7437,-8.7183,-4.6157,-74.3591,-8.2051,-17.436,-2.0513,
3.3333,-22.8206,11.5383,36.1536,17.1794,9.4871,11.0256,25.8972,-13.0771,-6.4104,-76.1541,-6.9231,-15.1284,-3.3333,
1.282,-23.8462,11.5383,32.0515,11.0256,4.8718,20.2566,20.2566,-11.5383,-9.9998,-79.7437,-14.6155,-18.2051,-1.282,
-3.5896,-25.6411,4.1028,31.7947,3.5896,4.6155,14.3591,23.0769,-8.718,-15.3845,-87.1794,-23.0769,-23.0769,3.5896,
-1.7947,-16.6667,2.3079,32.5642,14.1028,13.5896,4.8718,25.8977,-9.9998,-17.1794,-93.0769,-21.282,-21.282,1.7947,
2.0513,-13.8462,2.0513,28.2051,2.0513,15.3848,12.8203,18.4614,-10.2563,-12.3076,-91.7949,-15.3848,-21.0256,-2.0513,
3.5896,-9.7434,1.0256,36.9231,-3.5896,17.4358,27.1794,25.6409,-2.5642,-1.0256,-80.5129,-6.6667,-16.4104,7.6921,
-1.282,-2.8206,-3.3333,43.8464,11.4104,24.3591,20.7693,36.1541,1.282,-2.3074,-73.5896,-8.4612,-10,8.4617,
0,-1.5381,-1.5381,36.9233,26.4104,26.667,15.3848,30.2563,0,-8.7178,-72.3076,-14.8716,-13.3333,1.0259,
1.7949,-8.9746,-0.25635,32.0513,14.1025,13.5898,22.3076,21.2817,-1.2822,-11.0259,-77.1797,-16.1541,-28.3333,0.25635,
-1.0256,-13.8462,-1.5383,33.3333,1.0256,5.6409,24.1028,24.6155,2.5642,-6.6667,-78.9744,-11.282,-43.3333,3.5896,
-6.4104,-14.6155,0.76929,26.4104,0.25659,8.4617,15.1282,21.7947,1.7947,-8.4617,-80.7693,-14.6155,-49.4873,-0.25659,
-6.6663,-9.7434,1.0256,25.6414,2.0515,11.7952,17.4363,16.9231,-1.0256,-12.3076,-79.4871,-19.4871,-47.1792,1.0256,
-6.6665,-6.6665,-2.0513,30.769,8.2051,15.8975,21.0259,26.6665,2.0513,-6.6665,-80,-14.3589,-47.1794,2.564,
-9.9998,-6.9231,-0.76929,31.5383,3.3333,28.4617,13.5896,34.6155,3.3333,0.76929,-83.8462,-2.8206,-50.5127,-6.9231,
-12.3079,-6.1541,-0.51294,28.2053,-1.0256,36.9231,22.051,30.7693,0.51294,1.5383,-85.6411,2.5642,-50.7693,-17.9487,
-11.5386,-1.2822,-7.436,27.436,7.9487,37.1797,32.564,29.4873,5.8975,-0.25635,-79.7437,0.25635,-44.8718,-16.6667,
-17.9487,-1.0256,-20.5127,23.5896,7.1794,36.9231,17.564,30.7693,8.2053,1.0256,-80.5127,-1.5383,-45.6409,-18.4614,
-23.0769,-3.0769,-23.5896,21.5388,-3.5896,35.3845,9.2307,27.6926,3.0769,6.1541,-87.1794,3.5901,-49.7434,-22.0513,
-22.5642,0,-17.436,26.6665,-3.0771,29.7437,20.5127,20.5127,0,9.2305,-88.718,5.6411,-49.231,-20.5129,
-30.2563,-0.5127,-17.9487,25.1284,1.0254,31.7949,17.436,12.8203,0.5127,5.1284,-89.7437,-3.0771,-50.2563,-21.0256,
-33.8462,1.5383,-18.9744,28.2048,-2.5642,44.1023,18.9744,13.3333,11.282,6.1536,-87.1794,-1.5383,-46.1538,-20.5129,
-39.2307,-2.8206,-24.8718,28.9744,-17.1794,40.7693,22.3079,10.5129,14.6155,6.9231,-84.3589,2.8206,-42.8206,-25.3845,
-38.7181,-9.4872,-22.3077,27.9486,-19.2308,39.7435,25.8973,9.4872,23.3334,16.1537,-73.077,10.5126,-32.5641,-19.7438,
-28.4617,-10.5129,-14.6155,34.1023,-10.5129,46.9231,40.2561,10.5129,33.0769,25.8972,-68.4617,16.6667,-28.4617,-12.5642,
-33.3335,-10.7693,-26.6667,31.7949,-5.6411,43.0767,40,5.6411,27.1792,23.0767,-77.949,13.333,-34.3591,-14.3591,
-44.359,-11.0255,-41.6667,26.4105,-3.3334,43.8461,25,3.3334,23.3334,26.4105,-79.2308,19.7435,-32.0511,-9.4872,
-41.795,-16.6666,-44.8719,24.8717,-14.1027,46.4103,16.1539,7.9489,24.359,31.5382,-75.641,29.4869,-32.0514,-7.9489,
-36.4103,-18.4615,-39.4874,22.5641,-19.4874,46.6666,31.1539,8.2052,26.6666,29.7433,-71.795,30.2565,-35.8976,-8.2052,
-37.9485,-12.3076,-45.6409,25.1284,-5.1282,49.7437,31.2822,2.0513,25.6411,30.2563,-69.7434,23.5898,-35.3845,-2.0513,
-42.3077,-11.0255,-51.0255,26.4103,0.76917,45.3849,16.2822,-0.76917,22.3077,30.5128,-74.6154,21.2823,-36.6666,-1.7948,
-42.8206,-14.1025,-43.8462,24.3589,-5.3848,40.769,27.436,3.8462,26.4102,28.9741,-77.1794,22.3076,-38.2053,-3.8462,
-46.6666,-20.0001,-44.1027,22.5638,-16.9232,42.0511,35.3846,2.5641,26.6669,24.1024,-81.0258,15.8973,-43.077,-2.5641,
-52.0513,-25.3845,-52.564,19.7434,-28.4614,40.7693,20.3846,-1.282,19.7434,23.8464,-88.9744,16.1541,-45.8975,1.282,
-58.4614,-27.6924,-58.4614,16.4102,-29.7437,34.3589,7.6924,0,13.8462,20,-99.4871,14.3589,-47.1794,0,
-60,-28.2051,-57.9487,15.8972,-17.4358,35.3845,16.4104,2.5642,17.4358,11.282,-104.1025,10.7693,-45.1282,-2.5642,
-59.2307,-28.9744,-58.718,14.1023,-15.1282,43.8459,19.2307,4.8718,16.1536,11.5383,-100.7693,15.1282,-46.4104,-4.8718,
-60.0002,-24.6155,-62.5642,12.3074,-30.1282,44.615,16.9231,7.1794,11.7947,17.4358,-96.9233,21.5383,-52.3079,-7.1794,
-64.8718,-20.7693,-68.4614,12.0513,-41.7949,36.6665,15.6411,7.9487,17.1797,16.6665,-99.7437,18.2051,-50.5129,-7.9487,
-76.6666,-23.8461,-74.6154,12.0514,-26.7949,41.795,10.5128,10.5128,15.1281,16.6666,-100.2565,14.1027,-44.359,-10.5128,
-76.9231,-24.6155,-69.7437,8.718,-18.4617,52.3079,11.282,13.3333,7.6921,21.5383,-96.4104,25.1282,-46.6667,-7.6921,
-70,-21.7949,-62.8206,5.3845,-33.0771,44.8718,18.2048,13.5896,9.9998,18.2048,-102.3079,28.4617,-56.6667,-5.3845,
-80.2563,-20.2563,-71.5383,6.4102,-39.2307,40.769,8.9746,13.5898,8.4614,6.4102,-112.0513,14.6152,-62.3076,-6.4102,
-89.2307,-22.5642,-78.9744,2.0515,-30.2563,45.1282,2.5642,14.8718,5.1282,9.7434,-109.2307,9.7434,-62.5642,-2.0515,
-83.5898,-30.2566,-73.8462,-1.5383,-43.0769,36.4104,16.4104,14.3591,16.4104,21.0256,-108.2053,19.9998,-61.5386,1.5383,
-85.641,-34.8717,-73.3334,1.5385,-52.3077,27.6925,16.923,12.8204,22.5641,22.5641,-118.9745,18.4615,-62.0514,-1.5385,
-94.8718,-32.3076,-77.436,4.1025,-37.436,28.2051,9.231,13.8462,18.4614,17.436,-120,8.2051,-66.6667,-4.1025,
-96.6665,-30.5127,-76.6665,4.3589,-47.4358,28.9746,13.0771,17.6924,20.7695,16.1538,-113.0769,10,-67.9487,-4.3589,
-93.5896,-33.0769,-77.1794,1.282,-62.4358,33.5896,12.0515,21.7952,27.4358,20.2566,-111.0256,19.7434,-63.8462,-1.282,
-91.7948,-35.8973,-80.5128,-0.51282,-58.4613,32.8207,5.641,24.6156,25.641,22.5643,-107.1793,24.6156,-63.5897,0.51282,
-88.4617,-36.6667,-78.2053,-1.7949,-43.4613,25.3843,6.9229,19.7437,19.2305,27.9487,-104.8718,32.0513,-68.4617,1.7949,
-80.0001,-35.3846,-69.2308,-4.1027,-40.5128,29.2306,12.3077,21.5382,22.0514,35.3844,-105.1283,40.5128,-65.6412,4.1027,
-77.9487,-31.282,-63.5898,0,-55.5128,33.8462,10.769,29.231,27.1797,32.8203,-104.1025,36.9229,-59.4873,0,
-80.7694,-24.8719,-63.3334,4.359,-47.9489,34.1027,16.1539,30.5128,26.923,28.9742,-100.7694,32.5641,-56.1539,-4.359,
-73.5898,-19.231,-61.2822,3.8462,-34.1025,37.1792,30,29.4873,28.4614,34.6152,-102.3079,34.6152,-52.5642,-3.8462,
-59.2307,-18.2051,-55.6411,6.9231,-26.9231,39.7434,37.6921,35.1282,35.1282,39.7434,-98.2051,30.5129,-55.1282,-6.9231,
-58.4614,-17.4358,-54.8718,8.2051,-25.1282,42.5642,29.2307,36.9231,39.4871,36.9231,-92.8206,27.1794,-63.0769,-8.2051,
-67.1794,-14.3589,-64.6152,3.0769,-36.4102,44.6152,18.4614,33.8462,32.8208,32.8208,-97.9487,29.231,-71.7947,-3.0769,
-70.7692,-20.5128,-73.3334,0.51282,-48.7179,42.5643,25.641,35.8973,27.1796,28.205,-100.0001,29.2308,-77.9486,-0.51282,
-74.8716,-26.6665,-76.9229,-2.0513,-41.5383,40.5132,25.1284,35.8975,26.1538,29.7437,-92.3076,32.3076,-78.4614,2.0513,
-82.0513,-24.1025,-84.1025,-7.6924,-27.6924,43.5898,10.1284,30.769,22.564,37.436,-86.1541,41.0254,-72.3079,11.2817,
-81.282,-26.4102,-85.3845,-9.4871,-30,43.8464,9.4871,33.0769,25.8977,37.6926,-84.3589,44.3591,-68.4614,14.1028,
-76.4104,-31.2822,-76.4104,-5.6411,-39.4873,39.4873,24.1025,37.436,30.769,33.8462,-83.5898,43.5898,-69.7437,5.6411,
-82.564,-25.6409,-73.8462,-8.7178,-41.0256,41.5386,21.5386,34.8721,26.6665,41.5386,-83.0769,48.2051,-65.1282,8.7178,
-88.9744,-18.718,-78.2051,-14.6155,-47.436,49.9998,16.6667,33.5896,25.8972,47.4358,-84.8718,46.4104,-60.7693,14.6155,
-76.6665,-20.2563,-73.5896,-9.4871,-42.8203,51.0256,23.8464,37.6926,31.0256,40.7693,-84.8718,44.3591,-61.7947,9.4871,
-66.1538,-24.6152,-66.1538,-10.2563,-27.8203,45.6411,25.1284,38.4619,35.8975,39.4873,-84.1023,51.2822,-65.1282,10.2563,
-74.1028,-29.4873,-70.5129,-14.6155,-37.1797,40.2561,21.282,36.1536,33.0769,40.7693,-90.5129,48.9744,-73.5898,14.6155,
-76.9232,-26.6669,-75.8976,-11.2821,-52.1797,37.9486,24.1024,35.8973,29.2308,38.9745,-95.3846,38.4613,-73.8463,11.2821,
-67.4359,-18.7179,-71.5385,-6.9232,-37.1797,38.205,28.4613,40.2562,33.5897,42.3075,-90.0001,36.6664,-63.3334,6.9232,
-62.0513,-16.4102,-66.6667,-7.1794,-28.718,37.949,26.1541,42.0515,29.7434,40.5129,-85.6411,38.9744,-63.0769,7.1794,
-67.9486,-17.6923,-68.4615,-11.0255,-41.7948,37.1798,23.8463,40.2565,26.4103,35.1285,-84.3588,39.7438,-67.4359,11.0255,
-77.4358,-18.4614,-73.8459,-12.3076,-45.1282,37.9487,24.1025,37.436,30.2563,36.9233,-87.1794,42.5645,-65.6409,12.3076,
-73.0769,-21.7947,-71.5383,-11.5383,-48.4614,38.2053,22.8206,40.2566,26.9231,37.6926,-93.0769,43.3333,-64.3589,11.5383,
-63.3331,-21.7948,-69.4872,-13.5897,-51.0255,36.6669,19.2308,43.3334,24.8719,39.7435,-92.5641,44.3593,-63.8461,13.5897,
-66.4103,-17.1796,-72.5643,-15.1283,-38.2052,35.1283,20.2562,43.3334,28.974,49.4872,-87.4359,51.5385,-63.8463,15.1283,
-71.7948,-16.4103,-72.3077,-15.3846,-30.2565,35.8973,26.1537,45.641,26.1537,49.7435,-88.205,50.7694,-63.5897,15.3846,
-70.0001,-17.1796,-67.4362,-16.1539,-42.3077,32.5641,29.9996,43.3331,17.1793,34.7435,-94.6156,40.2565,-63.3334,16.1539,
-67.4359,-13.5897,-62.8204,-14.1024,-53.0768,29.4872,31.0258,41.2821,21.7948,36.1537,-95.641,37.1796,-67.4359,13.5897,
-63.8463,-9.4872,-60.7692,-11.0258,-47.4359,39.7435,27.9486,54.6151,31.5385,51.1537,-92.0514,43.3334,-66.9232,9.4872,
-62.564,-9.7437,-68.7178,-15.3845,-41.0256,48.7183,15.8975,64.1025,25.6411,47.1797,-92.8206,45.1284,-63.5896,9.7437,
-65.1282,-14.3591,-75.3845,-24.6155,-49.2307,39.9998,14.3591,55.3845,18.4617,36.9231,-95.8975,51.282,-65.6411,15.8972,
-65.3846,-18.7179,-72.0511,-23.8461,-55.641,27.4362,26.4103,52.0514,18.7179,42.8204,-99.7435,56.1539,-68.4615,19.2306,
-64.6154,-17.9486,-70.7692,-18.4615,-48.205,29.7435,25.1283,61.5385,21.5385,45.1283,-98.4615,54.3593,-63.5897,17.9486,
-64.6155,-15.8975,-75.3848,-19.4873,-43.5898,38.4614,15.8975,66.1538,27.1792,37.9487,-92.3079,52.3076,-59.4873,16.4102,
-63.5897,-16.4103,-76.923,-21.5385,-50.7692,35.3849,16.923,64.6154,29.2306,32.3077,-93.3334,47.1793,-60.5128,16.4103,
-61.282,-14.1025,-70,-20.769,-48.9744,29.4873,21.2822,68.4614,27.9487,33.5898,-96.1538,42.3076,-60.2563,14.1025,
-62.3079,-10.5129,-66.9231,-20.2566,-51.0256,32.051,22.8206,71.0256,24.8718,31.0256,-94.1028,42.8206,-59.7437,10.5129,
-66.4102,-11.0256,-69.4871,-20.2563,-65.8975,38.2053,27.949,69.4871,22.8206,30.5129,-91.5383,43.8464,-61.7949,11.0256,
-66.1538,-12.3076,-65.6409,-17.4358,-70.2563,37.9487,29.7437,70.2563,28.2051,42.0513,-85.1282,51.7949,-59.4871,12.3076,
-63.3331,-12.5641,-65.3844,-15.1281,-60.2562,31.026,14.7437,64.359,28.4615,48.9742,-79.2306,61.2823,-55.641,12.5641,
-60.7695,-11.0256,-71.0259,-18.7183,-45.2562,33.0769,11.0256,64.8718,24.3586,45.3845,-80.7695,63.3333,-53.5898,22.3074,
-70.7693,-16.4102,-79.4871,-29.2307,-51.7949,30.2563,17.9487,62.564,16.4102,35.8975,-91.7949,51.7949,-60.5127,18.4614,
-66.9231,-13.5898,-73.5896,-23.3333,-66.7949,29.4873,20.2563,62.8203,23.3335,40.769,-89.4871,52.0513,-58.718,13.5898,
-58.9744,-12.8206,-71.7949,-21.5386,-68.2051,28.718,12.8206,67.1794,28.718,48.2048,-85.6411,61.0256,-52.8206,22.051,
-62.5641,-14.359,-74.8719,-26.1539,-53.2051,27.6925,14.359,71.795,26.6666,48.7179,-84.6154,63.0768,-50.7692,26.6666,
-67.6924,-16.4102,-76.4102,-31.282,-54.3589,30.2563,18.9741,66.6665,20.5127,40.5127,-88.718,55.8975,-55.8975,16.4102,
-61.7949,-17.1794,-72.564,-31.0256,-64.3589,33.0769,18.718,63.8464,18.718,34.6155,-92.0513,58.2053,-57.1794,17.1794,
-61.7949,-18.7178,-72.0513,-31.5386,-63.8462,25.8975,18.7178,64.8716,19.7437,32.564,-94.6155,62.3076,-54.6155,18.7178,
-62.0511,-14.359,-69.7435,-31.2819,-62.0511,26.6666,30.2565,67.1793,27.6925,36.923,-91.2819,58.9742,-49.7435,14.359,
-64.3589,-12.5642,-71.0256,-30,-66.4102,30.0002,26.4104,65.8972,25.3845,35.1282,-91.0256,56.6667,-51.0256,12.5642,
-69.4869,-13.5897,-71.0255,-25.8973,-65.3844,26.9232,13.5897,64.8719,25.8973,41.7948,-77.1793,65.3846,-43.8461,14.1029,
-58.9744,-11.7949,-63.0769,-21.0256,-50.3844,21.0259,24.1025,66.1538,40,53.3335,-62.1793,62.0513,-29.7437,11.7949,
-49.7437,-11.7949,-63.0769,-23.0769,-44.1025,16.4102,30.769,65.6411,40.5127,44.6152,-66.6667,47.0513,-34.3589,11.7949,
-60.7692,-14.6154,-71.0255,-31.5382,-59.1025,20.7692,19.7438,60.2565,27.4362,33.0773,-81.6667,39.7438,-47.9486,14.6154,
-64.6152,-14.3589,-71.7947,-32.8203,-74.1025,30.2563,17.436,57.9487,20,37.436,-94.3589,46.1538,-51.7947,14.3589,
-56.9231,-15.3848,-72.3076,-32.8206,-59.1025,29.231,18.9741,63.5898,18.9741,42.564,-94.8718,48.2051,-49.7437,15.3848,
-54.3589,-14.8716,-70.2563,-34.3589,-44.1025,25.1284,14.8716,65.1284,26.1538,40.5127,-95.8975,49.231,-41.5386,20.5127,
-59.4872,-17.9486,-66.1537,-33.3334,-55.8973,22.0511,24.1024,56.9232,23.5897,34.3593,-93.8461,48.2054,-42.0511,17.9486,
-56.4103,-16.923,-61.0255,-28.7179,-62.0511,23.59,36.4103,58.9742,22.0514,36.923,-85.1281,50.2565,-40.5128,16.923,
-58.4614,-14.8718,-62.564,-30.2563,-48.2051,19.4871,21.5383,59.4871,27.1794,43.0769,-83.0769,48.718,-35.8975,14.8718,
-56.9232,-14.8719,-63.077,-28.7181,-42.0514,20.5126,18.4613,55.3846,31.7948,50.2562,-83.5897,53.3334,-31.795,14.8719,
-50.2565,-17.9486,-61.5385,-28.2052,-49.7435,28.7181,32.3075,58.4618,29.2308,50.2562,-84.1024,58.4618,-32.8204,17.9486,
-53.5897,-16.6666,-64.359,-32.0511,-52.5641,31.5387,26.923,62.3077,23.8463,41.2819,-86.923,52.0514,-38.7179,16.6666,
-60,-13.3335,-69.7437,-35.8975,-48.2051,27.6924,15.3848,56.4102,22.564,35.3848,-88.718,47.6924,-43.0769,13.3335,
-54.6155,-12.5642,-70.5129,-33.5898,-56.6667,25.8972,16.6667,55.6409,21.7947,38.718,-88.4617,48.9744,-40.7693,12.5642,
-50.5127,-13.0769,-71.5383,-33.5896,-61.282,24.8718,18.2053,58.718,20.2566,39.2307,-90.5127,48.9744,-38.2051,13.0769,
-58.9744,-12.3076,-73.8462,-39.4873,-47.6924,20.5127,12.3076,54.3589,18.4614,31.7949,-97.436,46.6665,-42.0515,13.333,
-60.5129,-9.2307,-70.7693,-35.8975,-47.6924,22.5642,13.8459,53.3333,19.9998,24.6155,-102.5642,40.5125,-46.1541,9.2307,
-48.4614,-6.9231,-63.8459,-28.9741,-62.6924,27.949,24.8718,58.2053,25.3845,31.0256,-93.5896,43.3333,-41.7947,6.9231,
-47.6921,-7.6924,-67.6921,-31.7947,-68.7178,23.0771,26.667,54.3589,24.6152,39.4873,-84.6152,52.8208,-40.5127,7.6924,
-52.3076,-5.1282,-67.6924,-31.7949,-56.4104,17.9485,17.9485,50.2566,26.6667,38.9744,-84.6155,54.3591,-42.0513,5.1282,
-45.1284,0.5127,-54.8718,-24.6155,-43.0771,25.1279,22.564,57.4355,38.4614,40.5127,-78.4617,56.4102,-35.3848,-0.5127,
-34.6154,5.3846,-47.9486,-16.1539,-37.1796,33.5897,35.641,63.3334,46.9232,47.4359,-65.3846,65.8973,-22.3077,-5.3846,
-28.7179,10.7692,-46.1537,-11.7948,-33.8461,37.9489,40.0001,63.59,50.2565,58.4615,-58.9742,68.2052,-13.3334,-10.7692,
-30.2566,12.3079,-43.0769,-13.8462,-29.231,38.9744,43.5896,61.0256,52.3079,64.6155,-57.436,64.1023,-12.3079,-15.8975,
-35.3846,12.8204,-47.1793,-14.8717,-35.8973,38.9742,37.9489,57.4362,49.7438,59.4874,-54.8717,64.6154,-12.8204,-15.3846,
-38.4618,10.2565,-53.3334,-17.4362,-49.2308,41.0255,29.7433,52.8204,44.6154,53.3331,-56.4103,67.1793,-10.2565,-16.9232,
-40.5129,4.6155,-50.2563,-20,-50.2563,42.5642,42.5642,47.1794,42.5642,54.3591,-58.9744,73.8459,-4.6155,-20,
-42.3076,3.3333,-51.5383,-20.769,-36.6665,43.3333,44.8718,42.3079,40.2566,57.6921,-55.6409,78.2053,-3.3333,-15.6409,
-46.9232,4.8719,-62.8207,-20.2565,-26.4103,44.3588,29.8718,36.6664,41.7948,55.1283,-50.0001,75.1283,-4.8719,-7.4359,
-48.4615,4.8719,-66.4103,-18.2052,-26.9232,44.8719,27.4359,33.5897,45.3846,54.1024,-49.4872,74.1024,-4.8719,-4.8719,
-48.9744,3.8462,-62.8206,-18.2053,-36.6667,49.4873,42.4359,36.1538,45.3848,59.2305,-50.5129,78.2051,-3.8462,-5.3848,
-53.3333,4.6155,-65.1282,-19.4871,-38.4614,49.2307,40.5129,36.9231,45.6409,62.5642,-50.7693,78.4617,-6.1538,-4.6155,
-58.718,1.282,-72.0513,-24.3591,-37.1794,42.8206,25.8972,25.8972,40.7693,58.2053,-55.1282,73.0769,-12.5642,-1.282,
-56.923,-2.5641,-71.2819,-26.1537,-44.1024,45.1285,28.2052,20.5128,42.0514,60.0001,-54.8717,71.795,-17.9486,2.5641,
-55.8975,-3.5898,-70.2563,-24.6152,-49.2307,47.6924,24.1025,23.0771,44.1025,65.1284,-49.7437,72.3076,-21.5383,3.5898,
-59.2307,-4.8718,-76.6667,-28.4614,-48.4614,44.3591,18.718,19.2307,44.8718,66.4104,-46.9231,74.6155,-19.2307,4.8718,
-60.769,-4.8718,-81.282,-31.5383,-49.4871,43.3333,28.9744,18.2053,45.8977,64.8718,-44.8716,76.1541,-18.2051,4.8718,
-63.0768,-4.1027,-81.5385,-30.2565,-45.641,45.1281,30.7692,26.1539,41.5387,58.9742,-45.1283,74.359,-21.0255,4.1027,
-65.8975,-6.9231,-84.8718,-28.4617,-34.6155,39.7434,15.7692,25.8972,39.7434,49.9998,-46.9231,74.6155,-20.2563,6.9231,
-64.8716,-6.9231,-89.9998,-28.9741,-34.6152,35.1282,13.0769,19.7439,38.2053,41.7952,-49.9998,74.1028,-18.2051,6.9231,
-66.6667,-5.1284,-88.2051,-33.8462,-47.6924,37.9487,22.564,23.5898,30.2563,39.4873,-52.3076,71.2822,-20.5129,5.1284,
-68.2051,-6.6665,-85.1282,-35.3845,-51.282,36.9229,17.436,27.1797,24.6152,41.0254,-55.8975,70.769,-27.1794,6.6665,
-70,-8.4614,-87.9487,-31.5386,-49.4873,28.4614,12.0513,22.8203,30.5127,46.9229,-55.1284,73.0767,-26.9231,8.4614,
-74.359,-10.7692,-90.2565,-35.3846,-51.7948,25.1281,13.8463,22.5641,34.359,59.4874,-50.7692,72.8204,-22.5641,10.7692,
-73.8464,-9.2307,-89.231,-36.4104,-60.5129,30.7693,10.7693,28.2048,28.718,70.2561,-51.2822,76.4099,-21.5386,9.2307,
-66.9231,-8.9744,-86.9231,-33.5898,-70,31.0256,20.7693,30.5129,29.4871,70.0002,-51.0256,80.7693,-20.7693,8.9744,
-63.3333,-12.0513,-83.3333,-33.5898,-63.3333,27.436,31.0254,26.4102,33.0771,68.4614,-47.4358,77.6924,-18.2051,12.0513,
-70.7694,-13.3334,-84.6154,-34.359,-48.3333,26.6664,16.9232,24.6151,32.3075,72.3075,-49.7438,68.7177,-18.9745,13.3334,
-72.5645,-10,-84.3591,-33.5901,-43.8464,20.2563,15.1279,23.8457,31.5381,66.4102,-51.0259,61.2817,-19.231,10,
-61.5383,-8.718,-72.8206,-32.8206,-51.282,12.3079,29.2307,22.0515,34.8718,51.4102,-46.6665,57.949,-18.9744,8.718,
-56.6666,-12.0511,-65.3844,-35.641,-46.923,14.1029,25.3846,23.8461,35.641,47.4359,-46.923,61.2821,-19.2306,12.0511,
-61.7948,-12.0514,-71.5385,-35.641,-38.2052,20.2565,18.2052,31.5382,36.6666,48.4615,-51.0258,64.359,-15.641,12.0514,
-60.2563,-12.5642,-75.6411,-32.5642,-41.7949,16.1536,24.8718,31.5383,39.2307,39.2307,-50.5129,60.2566,-13.5898,12.5642,
-55.6409,-13.0769,-67.9487,-32.0513,-45.3845,13.0769,25.3845,26.4104,35.1282,38.718,-50.5127,60.2566,-17.1794,15.1282,
-65.6411,-10.2563,-71.7949,-37.436,-48.2051,16.9229,12.8203,26.6665,24.1025,48.2051,-56.4104,62.564,-25.6411,10.2563,
-71.5386,-8.4614,-79.231,-40.7693,-57.6924,20.769,11.5386,30,26.9229,56.1538,-54.6155,60.769,-30,8.4614,
-63.5896,-12.3076,-76.4102,-38.9744,-72.6924,16.4102,17.436,28.2051,36.4102,58.4614,-47.6921,60.5127,-28.718,12.3076,
-60.5126,-12.8204,-73.3331,-36.41,-68.205,14.359,15.3849,25.6412,37.9489,63.0773,-45.641,64.6154,-23.0768,12.8204,
-66.4103,-11.5385,-77.1796,-36.1539,-53.205,19.7435,13.077,28.9745,41.7948,66.41,-42.8207,65.8973,-16.6666,11.5385,
-69.4869,-18.7179,-78.7179,-32.0511,-47.4357,14.6156,17.6923,31.0258,45.8973,54.1029,-40.2562,59.2308,-13.5897,13.5897,
-65.3845,-23.3333,-72.0513,-27.4358,-62.4357,8.4614,18.718,29.4871,46.9231,45.8972,-34.6155,58.2053,-8.4614,15.1282,
-69.2307,-23.5898,-73.3333,-36.4102,-61.5386,10.769,10.2563,24.1025,43.0771,42.0513,-41.0256,57.436,-10.2563,10.769,
-60.2566,-14.1025,-68.9744,-36.1538,-46.5386,18.2051,23.3335,27.9487,37.1792,37.1792,-47.9487,55.1279,-16.6667,14.1025,
-51.795,-13.3334,-63.077,-31.795,-42.5643,14.8715,34.3588,29.2308,29.2308,28.205,-48.2052,46.6664,-23.077,13.3334,
-50.5128,-12.0511,-58.7179,-26.923,-43.3334,15.1283,28.9745,32.0511,36.1537,25.3846,-44.8717,44.3588,-17.1796,12.0511,
-47.9487,-10.5127,-55.6409,-27.4358,-34.6152,21.2822,28.4614,31.0259,44.8721,25.8975,-48.9744,50.5127,-15.1282,10.5127,
-45.8973,-8.4615,-52.5641,-28.9742,-34.6154,25.3849,33.0768,25.8976,39.2306,31.5387,-52.5641,54.1027,-22.3077,8.4615,
-54.8718,-5.6411,-57.9487,-31.282,-46.6665,23.0771,18.0768,23.5898,26.1538,40,-56.9231,47.6924,-32.8206,5.6411,
-55.1282,-5.8975,-62.3076,-33.5896,-47.9487,22.3076,5.8975,28.9746,22.8208,42.8208,-59.7437,50,-37.6921,6.9233,
-52.8206,-10.2563,-63.5898,-32.8206,-42.0515,20.5127,12.3076,27.1792,24.6152,44.6152,-59.4873,55.3843,-37.436,10.2563,
-66.9231,-12.564,-71.5383,-36.6667,-53.5896,14.1025,13.0771,21.2822,23.8462,47.436,-57.1794,55.1284,-37.6924,12.564,
-70.5127,-11.0256,-73.5896,-42.3076,-61.7947,11.5388,11.0256,23.3333,29.4875,48.4617,-53.5896,55.1282,-35.1282,11.0256,
-55.6409,-9.4871,-66.4102,-36.6665,-48.9744,14.6155,17.6926,26.4104,35.1282,51.5383,-46.9231,56.1541,-25.3845,9.4871,
-56.4103,-10.2565,-66.1537,-36.923,-41.5385,14.8717,21.0255,24.1027,30.2565,49.2306,-46.6666,55.8976,-26.1537,10.2565,
-63.5896,-10.7693,-67.1794,-38.4614,-42.564,18.4617,10.7693,25.6409,29.7439,44.6155,-46.1538,58.4617,-31.282,12.3079,
-58.7179,-9.9999,-62.8204,-30.5128,-41.7948,24.3593,9.9999,31.0258,40.7694,41.7948,-38.205,56.6669,-19.7435,16.6669,
-62.8206,-15.6411,-65.8975,-30.5129,-56.7948,14.6152,20.2563,26.9229,41.2817,26.7948,-37.6924,42.3076,-14.1025,14.1025,
-51.5386,-4.8718,-53.0769,-18.2051,-53.5898,20.2563,31.0254,33.0771,50,11.7948,-25.3845,51.0254,-8.9744,21.7949,
-36.5386,1.2821,-42.3077,-13.5897,-38.5898,28.9742,28.4615,35.6412,54.1027,-3.2052,-14.1027,57.6925,-1.2821,27.9489,
-38.9745,-0.51282,-44.1027,-20.5128,-39.4872,26.1537,30.2562,37.4359,49.2308,-0.51282,-12.8207,52.8207,0.51282,30.7694,
-53.9745,-9.2308,-58.4615,-29.2308,-53.8463,16.41,19.9999,32.3075,38.4613,9.2308,-23.59,49.7435,-12.8207,22.0511,
-59.2308,-11.5385,-61.2821,-28.4615,-41.2821,15.1283,11.5385,27.4359,40.2562,24.2308,-24.359,57.6923,-11.5385,19.7435,
-58.205,-13.0768,-62.8204,-30.5128,-38.7179,12.0511,9.9999,25.8973,39.7435,36.1537,-21.7948,59.2308,-9.9999,22.308,
-59.7435,-15.1281,-64.8717,-34.1024,-45.3846,17.1793,13.0768,27.9489,37.6925,34.6154,-22.3077,61.795,-13.0768,24.8717,
-59.7435,-19.2306,-66.4103,-39.7435,-37.1793,21.795,15.1281,19.7438,36.1539,24.359,-28.4615,64.8717,-15.1281,21.2823,
-57.6923,-16.1539,-66.4103,-39.7435,-38.7179,18.2052,14.1027,18.7179,28.9742,17.6925,-26.923,66.4103,-14.1027,25.3844,
-58.2051,-11.5386,-63.3333,-39.2307,-53.7179,14.1025,13.0771,23.8462,23.8462,11.5386,-22.3076,59.231,-18.2051,26.4102,
-51.0256,-4.3589,-54.1025,-31.0256,-49.4871,20.2563,20.7695,27.436,37.1797,4.3589,-16.6665,50,-12.0513,21.2822,
-46.6666,-0.51282,-47.6923,-21.5385,-34.4871,23.077,22.5638,29.2308,47.6923,0.51282,-13.8463,46.1537,-1.5385,20.5126,
-56.6666,-7.4359,-52.0511,-26.4103,-42.3077,16.6669,12.5643,28.4618,38.205,4.8717,-17.6923,44.3588,-4.8717,23.8461,
-62.8206,-12.0513,-57.1794,-33.0769,-57.3077,12.5642,10.0002,27.4358,32.5642,9.4871,-19.7434,49.4871,-9.4871,25.3845,
-61.7947,-13.0769,-59.2307,-37.1794,-50.5127,14.1028,13.5896,23.3333,36.1541,11.0256,-22.3076,54.1028,-11.0256,28.9744,
-63.8461,-13.5897,-62.8204,-39.2306,-38.205,17.1796,13.5897,18.7181,30.5131,15.641,-28.9742,50.5131,-14.1024,33.077,
-64.3589,-13.5896,-62.3076,-41.7947,-53.205,20.2566,13.0769,22.3079,20.2566,18.2053,-33.0767,50.5129,-13.0769,30.0002,
-56.4104,-9.231,-58.9744,-41.0256,-58.4617,24.6152,9.231,29.7437,24.1025,14.3589,-29.2307,55.8975,-9.231,30.2563,
-47.9487,-7.4358,-55.6411,-39.231,-43.4617,24.3586,7.4358,29.4871,26.9231,14.6155,-24.8718,54.6155,-11.0259,37.6921,
-46.9231,-13.0769,-51.5386,-41.7949,-28.4617,19.7434,17.6921,22.8206,23.8459,13.0769,-26.4102,47.9485,-15.1282,36.1541,
-43.3335,-10.5129,-42.3079,-32.5642,-34.1025,17.6924,32.6921,27.436,35.6411,5.3848,-20.2566,46.9229,-5.3848,25.8975,
-39.9999,-6.6666,-41.5385,-27.1793,-35.3846,11.795,24.1027,30.7692,43.59,-1.5385,-8.7179,48.7179,1.5385,21.0255,
-35.6411,-2.8206,-43.3333,-28.4614,-29.4871,10.0002,15.1282,31.5383,42.3079,2.3076,-2.3076,54.1028,-2.3076,28.9744,
-36.6667,-1.282,-39.7437,-26.9231,-36.6667,16.1538,26.9233,32.564,35.1284,1.282,-13.5896,50.5127,-9.4871,26.9233,
-40,0,-32.3076,-23.0769,-43.5898,22.5642,31.7947,36.9231,35.3845,0,-12.3076,47.1794,-3.0769,26.1536,
-51.5385,-7.4359,-43.8461,-30.5128,-45.3846,11.0255,16.7947,26.923,36.6666,-1.2821,-4.8717,47.4362,1.2821,24.8717,
-61.0258,-16.4103,-57.9486,-37.4359,-47.1796,1.5385,7.6923,18.4613,38.9745,1.0258,-3.077,45.1283,-1.0258,23.077,
-64.8717,-25.8973,-61.2821,-40.2565,-52.0511,-3.3334,9.4872,19.7435,40.7694,-0.76917,0.76917,39.7435,0.76917,21.2821,
-58.7179,-28.9742,-55.641,-37.6923,-53.0768,-3.3334,8.4618,20.7694,40.7694,-1.7948,5.8973,42.8207,1.7948,24.3593,
-43.7179,-21.7949,-48.9744,-38.2051,-38.0768,8.4617,14.1028,24.8718,38.2053,2.8206,-2.8206,47.4358,-2.8206,30.0002,
-28.7179,-11.0256,-37.6924,-34.1025,-26.4104,21.2822,27.9487,35.1279,32.0513,1.7949,-12.0513,47.9487,-1.7949,35.6411,
-21.7948,-4.359,-27.4359,-22.8204,-37.1793,27.9489,35.6412,37.6925,28.4615,0.25647,-12.5641,46.4103,-0.25647,31.5387,
-16.9231,-4.6155,-27.6924,-24.6155,-35.8975,23.5896,25.6409,31.7947,24.6155,4.6155,-20,37.4358,-11.282,16.5387,
-15.1284,-2.8206,-28.4617,-30.5129,-25.8975,13.0769,13.0769,31.0256,14.1023,2.8206,-31.0256,26.4099,-18.718,13.5896,
-20.7693,1.282,-26.9231,-28.4617,-40.7693,14.1023,9.9998,33.5896,15.6409,-1.282,-29.4873,27.9485,-14.6155,20.2561,
-28.2051,-0.51294,-28.718,-27.6924,-49.7437,16.9231,8.2053,33.3333,28.2053,0.51294,-18.9744,36.9231,-8.2051,20.5129,
-33.5896,-5.3845,-32.0513,-25.8975,-34.7437,12.0515,10.5129,33.0769,28.9744,2.8206,-12.564,42.3079,-2.8206,28.4617,
-39.4872,-12.8207,-38.9745,-30.2565,-37.4359,9.7433,11.7946,29.7433,23.5895,4.1027,-15.8976,44.1027,-4.1027,36.4103,
-36.1538,-14.6155,-42.3076,-34.6155,-47.4358,16.6665,10,33.0771,30,16.6665,-15.1282,47.436,-10,37.1797,
-35.6411,-16.6667,-41.7949,-39.7437,-43.3335,15.1279,10.5127,32.564,25.3843,19.2305,-14.6155,48.4614,-10.5127,38.7178,
-37.436,-21.0256,-40.5129,-44.1025,-35.3848,13.8462,12.8203,26.6665,15.8975,11.7949,-16.9231,45.1279,-11.7949,41.0254,
-29.4871,-16.6665,-38.7178,-39.7434,-23.3333,21.7952,15.6414,29.4875,21.7952,13.0769,-16.1538,42.3079,-13.0769,36.1541,
-34.3591,-14.3591,-42.0515,-41.5386,-35.3848,18.4612,13.8459,29.7434,24.1023,11.282,-18.4617,37.9485,-11.282,25.1282,
-36.4102,-9.2307,-40,-39.4871,-50.3848,17.4358,9.2307,30.7693,23.5896,13.8464,-17.9487,40.0002,-9.2307,23.0769,
-24.6152,-7.1794,-36.9231,-35.3845,-41.0256,17.4358,7.1794,28.2053,22.5642,11.7952,-17.9487,34.8718,-16.4102,19.4871,
-17.436,-4.1025,-30.2566,-32.3079,-26.0256,18.4614,15.3843,30.2563,25.1279,4.1025,-15.3848,28.2051,-15.8977,16.4102,
-28.4614,-4.8718,-30,-35.6411,-41.0256,17.6921,16.6667,30.0002,25.3845,4.8718,-14.6155,27.9485,-13.5898,13.5896,
-37.1794,-7.4358,-38.718,-42.3076,-45.8975,14.6155,7.4358,22.8206,23.3333,15.6409,-18.718,33.0769,-17.1794,8.9744,
-31.5386,-3.3335,-40.2563,-38.718,-30.8975,19.231,3.8462,21.2822,17.6924,16.6665,-21.7949,34.6152,-15.6411,3.3335,
-25.1284,-1.0256,-34.8718,-34.3591,-32.3079,23.5896,7.6921,27.1794,13.3333,15.8972,-18.9746,31.7947,-10.2566,1.0256,
-20.7693,-0.76904,-26.4104,-31.0256,-20.2563,25.3848,17.6924,30,22.8203,27.9487,-13.0769,32.0513,-5.8975,0.76904,
-17.4358,2.5642,-18.9744,-25.1282,-12.8206,26.6667,30.7693,24.6155,33.3333,32.8206,-5.1282,33.3333,-2.5642,-3.5898,
-19.7437,-0.25659,-21.7949,-29.4873,-26.9231,22.8206,29.4871,17.6921,28.9744,29.4871,-0.76929,31.5383,0.25659,-11.5386,
-26.4104,-8.4617,-31.0256,-35.1282,-30.5129,20.7693,17.1794,11.0256,19.2307,36.1541,-1.282,33.5896,1.282,-19.7437,
-26.4104,-11.5386,-28.9744,-31.5386,-26.9231,25.8972,12.5642,10.5129,27.4358,45.8972,0.25659,41.7947,-0.25659,-22.3079,
-21.5385,-6.1539,-24.6154,-27.1796,-24.1027,25.1283,14.3588,10.2562,42.4358,45.641,1.5385,39.4872,-1.5385,-26.1539,
-22.3076,-2.3076,-30,-26.4102,-19.7437,20.2566,15.1282,-0.25635,40.2566,39.2307,0.25635,30.5129,0.76929,-32.564,
-28.4614,-7.4358,-32.564,-25.3845,-26.4102,26.4104,17.1794,-3.8462,34.6155,37.6921,3.8462,32.0515,5.3845,-26.4102,
-34.1027,-15.641,-38.2052,-24.359,-35.641,25.3844,19.7438,-2.8204,37.1793,35.1281,4.359,34.1027,2.8204,-15.1283,
-34.8717,-15.3846,-45.641,-24.1024,-22.0511,24.1027,21.5387,-3.5897,41.0255,33.3336,3.5897,34.359,8.2052,-11.2819,
