"AF3","AF4","F3","F4","F7","F8","FC5","FC6","O1","O2","P7","P8","T7","T8",
-19.231,-14.6155,-11.0256,20.7693,33.5896,-8.9744,17.6921,-10.0002,-2.8206,-7.949,24.3586,2.8206,14.6155,5.3845,
-11.0256,-2.8206,-6.4104,20.7693,43.8459,-1.282,2.6921,-5.8977,-4.3591,-1.282,26.9231,5.3845,14.6155,11.0256,
-9.9998,-4.8718,-7.9485,19.7434,47.4358,1.7947,-6.9231,-6.9231,-4.3591,-0.25659,23.3333,0.25659,13.5896,5.8977,
-10.5129,-14.6155,-11.0256,15.1282,47.4358,-5.8972,7.4358,-12.5642,-5.3845,0.76929,17.1794,-0.76929,8.9744,3.8464,
-8.2053,-10.2566,-3.5896,17.4358,36.4104,-7.6921,-4.1028,-12.3079,-3.0769,4.6155,18.4617,3.0769,11.282,12.8206,
-16.1541,-9.4873,-3.8462,16.6665,22.8203,-6.4102,-19.1028,-14.1028,-0.25635,0.25635,19.2305,1.7949,17.6924,16.6665,
-15.6411,-10,-7.436,19.7437,22.3076,-7.436,-4.1028,-15.1282,1.2822,-5.3848,16.6665,-1.2822,17.1797,17.1797,
-6.1538,-3.5896,-1.0256,23.0769,24.1028,-11.282,10.8972,-14.3589,1.0256,-10.769,16.9231,-7.6921,13.3333,12.3079,
-15.8972,-6.6665,-1.0256,20.0002,14.3591,-16.4102,6.6667,-19.9998,1.0256,-19.4871,13.8464,-16.9229,8.2053,2.0515,
-19.9999,-8.2052,-3.5897,24.6156,17.4359,-14.359,3.5897,-16.923,5.641,-14.359,15.8973,-9.7435,8.205,8.7181,
-13.0771,-6.4104,-0.76929,19.7434,11.5383,-14.6155,5.8972,-12.0515,0.76929,-6.4104,18.2048,-4.3591,7.9485,15.1282,
-9.7437,-3.5898,5.6411,14.8716,3.5898,-6.6665,10.2563,-9.231,-5.6411,-4.1025,24.1025,-5.1284,10.2563,11.7949,
-11.282,-2.051,1.5383,15.8977,18.5898,-1.5383,7.1794,-8.718,-5.1282,-2.051,28.718,-2.051,12.8206,10.7693,
-12.8206,-1.0256,-8.2053,11.282,24.1023,-8.2053,-6.6667,-13.3333,-4.1028,1.5383,23.5896,1.0256,10.7693,13.3333,
-17.6924,0.76929,-9.9998,13.0769,9.1023,-7.9485,-9.4871,-16.1536,-4.8718,-0.76929,15.6409,0.76929,5.3845,14.1028,
-19.2307,-1.2822,-3.3335,20.2563,-2.8203,-7.436,-4.3589,-13.0769,3.8462,1.2822,19.231,4.3589,2.3076,18.7178,
-16.9231,-3.0771,-2.5642,18.4617,-13.3335,-17.9487,-15.3848,-14.8718,8.2048,7.6921,24.1023,6.1536,2.5642,18.9744,
-15.8975,1.0256,-8.718,13.8464,-10.7693,-12.3076,-12.3076,-15.8975,-0.51294,0.51294,17.4358,3.5896,2.0515,13.3333,
-17.9487,7.1797,-10.2563,14.3589,-5.6411,2.6924,2.6924,-7.1797,-5.6411,-6.6665,11.2822,9.231,-5.6411,19.4873,
-22.0515,10.769,-7.1797,20,-18.9746,17.4355,2.0513,-2.0513,-3.5898,-3.0771,12.3076,14.8716,-12.3076,27.6924,
-21.7949,12.0515,-4.8718,21.7947,-22.8206,17.1794,-3.3333,-4.3591,-0.25659,0.25659,16.1541,12.0515,-5.8972,27.4358,
-14.1025,16.6665,-2.8203,18.2051,-16.6665,30,-5.3848,-0.76904,-2.3076,0.25635,20.7695,10.5127,-0.25635,27.436,
-16.1541,15.1282,-0.25659,14.1028,-31.5386,32.051,-10.0002,0.25659,-12.0515,-2.8206,15.1282,7.4358,-10.0002,25.3845,
-26.4102,10.5127,-1.2822,14.1025,-35.1282,23.3335,-3.3335,-2.8203,-12.0513,1.2822,12.0513,1.7949,-13.0767,20.2563,
-28.7178,10.2566,-9.7434,15.8977,-21.0256,20.0002,-12.3074,-3.0769,-10.2561,5.6414,17.4358,3.0769,-5.6409,20.0002,
-29.231,12.3074,-15.3845,12.8206,-20.0002,23.0769,-27.3074,-1.5383,-15.3845,1.5383,18.4617,12.8206,-10.7693,30.2561,
-30.2566,15.3843,-9.231,14.8716,-26.1541,28.2051,-22.0513,0,-8.7183,0,16.4102,12.8203,-17.436,37.9487,
-26.4102,14.6152,-2.8203,17.1797,-34.6155,28.4614,-14.1025,-1.2822,-6.4102,1.2822,12.564,6.4102,-13.5898,31.5386,
-20.2563,15.1279,-2.8208,14.6152,-32.5642,31.0254,-28.9746,1.7949,-16.667,-1.7949,8.4614,7.9487,-7.436,28.4614,
-18.4614,16.9229,-3.5898,20.5127,-17.5642,29.7437,-17.436,6.6665,-16.4102,-7.6924,11.7949,2.564,-2.564,28.2051,
-21.282,9.4871,-5.3845,22.8206,-19.2307,20.2566,-2.436,0.76929,-3.8459,-7.4358,24.8718,-8.9744,2.3079,19.7439,
-21.0256,2.0515,-5.6409,15.3845,-31.7949,12.8206,-12.8206,-6.1536,1.0256,-1.0256,35.3845,-6.6667,2.0515,11.7947,
-12.3076,6.6665,-3.0771,11.2822,-34.8718,12.8203,-20,-4.6152,-4.1025,8.2051,29.231,2.564,-2.564,17.9487,
-18.718,4.8718,-12.5642,5.3845,-45.3845,15.1282,-22.8206,-3.8459,-13.5896,10.0002,14.231,3.8459,-8.4617,27.4358,
-33.5898,1.282,-18.2053,6.9231,-41.282,21.282,-27.9485,-1.282,-13.5896,7.9485,4.3591,8.4617,-14.1028,34.6155,
-32.3076,1.0256,-9.7434,8.2053,-28.7178,18.9744,-24.615,-1.0256,-11.282,2.5642,10.2566,6.1541,-13.3333,33.3337,
-17.6924,4.3589,-1.2822,11.0254,-29.4873,18.2051,-14.1025,0.25635,-13.0771,1.7949,16.1538,-0.25635,-4.8721,33.5894,
-18.2048,3.3333,-1.282,18.2053,-39.2307,21.282,-11.0256,1.282,-11.5383,4.8718,15.6409,-1.282,-5.3845,37.6921,
-27.9487,-0.25659,0.25659,15.6409,-39.2307,16.6667,-10.5129,-1.282,-5.3845,5.8977,16.6667,1.7952,-2.8206,37.6921,
-28.4614,0.76929,-0.76929,10.0002,-38.2051,13.5896,-11.5383,-3.8459,-7.9485,1.282,18.718,2.8206,-0.76929,35.1282,
-21.7949,5.3845,0.25659,16.1541,-38.2051,24.3591,-16.1536,1.282,-7.9485,-4.3591,18.718,-0.25659,-7.9485,38.2053,
-15.6411,6.9231,7.9485,21.282,-31.0256,25.3845,-14.1028,0.76929,-2.8206,-5.3845,17.1794,-0.76929,-3.8464,38.2048,
-19.2307,2.8206,1.282,14.6155,-37.1797,15.6409,-13.5901,-9.4875,-16.1541,-12.5642,10.5125,-1.282,1.282,28.4612,
-15.8972,8.718,-1.5383,15.8977,-38.9741,27.1794,-5.6409,1.0256,-14.8718,-8.2048,16.9231,5.6414,-1.0256,38.9744,
-20.2563,6.4102,-4.3589,14.1025,-39.7437,23.3335,-11.5386,4.3589,-7.9487,-5.8975,14.6152,4.3589,-13.0771,45.3848,
-25.8975,12.0515,-2.8206,19.2307,-33.5896,18.2053,-19.2307,2.3079,-4.8718,-2.3079,14.6155,7.4358,-7.9485,44.8718,
-25.1282,16.4102,3.5898,23.0771,-37.9487,20.5127,-8.7178,-2.564,-5.1284,-6.1538,15.3848,2.564,-7.1797,38.4614,
-12.051,12.5642,13.0769,23.8459,-40.7693,17.6921,1.7947,-1.7947,-2.8206,-9.9998,13.0769,-3.3333,-14.1025,33.0769,
-3.5898,11.2817,12.3076,20,-37.949,16.4102,-10.7695,0,-2.0513,-4.1025,11.2817,0,-12.3076,29.7437,
-8.9741,15.6411,7.436,22.8203,-34.1025,23.3335,-21.7949,0.25635,-0.76904,-5.3848,17.1797,-0.25635,-3.3335,18.2051,
-14.6155,14.1028,6.9231,26.9231,-30.5129,19.7434,-11.0256,-0.76929,0.76929,-16.1538,18.718,-8.4617,-2.8206,3.2051,
-13.8462,8.2051,9.7437,22.0513,-34.3589,9.231,2.564,-1.5386,1.5386,-16.4102,15.3848,-11.282,-4.1025,-4.1025,
-10.769,14.3594,11.7949,22.5645,-33.333,14.8721,-6.1538,3.5898,-2.0513,-7.1792,20.5132,-4.6152,2.0513,-4.6152,
-17.6921,21.282,0.76929,20.7693,-30,21.7952,-19.7434,7.4358,-7.4358,-4.3586,20.7693,-0.76929,2.8206,-11.0256,
-18.718,21.7947,-1.282,20.7693,-32.0515,19.7434,-4.7434,12.5637,-4.8718,-1.7952,18.2048,3.8459,1.282,-17.6926,
-17.6924,16.1538,1.7949,16.667,-31.0256,11.5386,7.9487,6.9233,-6.9229,-2.8203,11.5386,-2.8203,-1.7949,-25.8975,
-16.6667,24.3591,-0.25659,17.1794,-18.718,23.3333,-7.0513,10.5129,-3.3333,-1.282,15.6409,0.25659,7.4358,-21.282,
-19.7434,28.9744,-4.8718,21.7952,-32.564,32.0515,-22.0513,17.6926,-4.8718,-4.8718,18.2053,4.8718,12.0515,-23.3333,
-15.1282,19.2307,-0.25659,20.7693,-47.564,19.2307,-7.0513,10.5129,-9.4871,-15.6409,15.6409,-7.4358,4.8718,-38.3333,
-18.2051,12.564,-0.25635,17.6924,-44.8721,10,3.8462,1.7949,-5.3848,-26.4104,14.1025,-17.1797,0.25635,-51.0259,
-29.4871,18.2053,-3.3333,25.3845,-43.3333,20.2566,-11.1538,9.4871,3.3333,-23.8462,17.6921,-3.3333,8.9744,-38.718,
-34.3589,14.8718,-6.1536,26.1541,-49.7434,20.0002,-21.5383,11.282,1.0256,-25.1282,17.949,-1.0256,13.3333,-38.4614,
-26.1538,14.8721,-5.1279,27.1797,-40.5127,14.3589,-6.5383,10.2563,0,-23.5896,17.9487,-5.6411,12.8208,-41.5383,
-22.3076,15.6411,-5.3843,30.5132,-47.9485,17.1797,-4.3589,11.0259,1.7949,-12.564,13.0771,-1.7949,10.5132,-34.1023,
-26.1538,8.718,-9.2307,28.2053,-62.9485,12.8206,-19.3589,2.5642,3.0769,-5.1282,5.1282,-2.5642,5.1282,-32.8206,
-19.2307,14.1025,-9.4868,31.0259,-59.7434,9.4873,-5.3843,2.3076,6.9233,-2.3076,12.0513,-3.8462,8.9746,-33.0767,
-15.8977,16.9231,-11.282,27.1794,-44.7434,10.2561,2.5642,3.5896,-2.5642,-6.6667,13.8459,-4.6155,8.718,-35.8975,
-5.3848,21.7949,-0.25635,34.6152,-29.7434,17.6924,-1.2822,6.9229,0.25635,-4.8716,15.1284,-1.7949,14.6152,-29.4871,
-5.8977,18.718,1.282,32.5642,-26.4104,9.9998,-3.3333,2.3074,-1.282,-16.1541,11.5383,-14.6155,12.051,-27.436,
-6.9231,13.0769,1.7947,27.949,-27.4358,-0.76929,11.6667,0.76929,-3.8459,-23.8462,8.4617,-20.7693,11.5383,-26.9231,
-0.25659,11.0256,4.8718,33.0769,-33.5898,-2.8206,15.1282,-0.76929,0.25659,-24.3589,11.5383,-14.1025,19.2307,-27.9487,
-0.51269,13.8462,3.0771,35.3848,-18.5898,-0.51269,0.5127,-3.0767,4.6152,-25.1282,19.4873,-7.6924,24.6152,-22.564,
-6.1538,14.3591,1.0256,33.8459,-7.6924,-1.0256,1.5383,-3.5896,4.6155,-25.6411,16.4104,-8.2051,22.0515,-15.3845,
-2.3076,7.9487,2.3076,32.564,-22.6924,-7.4358,11.0259,-5.3845,6.9233,-21.282,11.5386,-7.9487,25.3848,-17.6921,
-2.5642,9.2307,1.5383,28.718,-37.6924,-9.7437,4.1028,-8.2048,5.6409,-10.2563,17.949,-1.5383,30.7693,-20,
-9.4873,20.769,-1.2822,32.0513,-22.6924,-4.8716,0.25635,-3.8462,0.25635,-0.25635,21.2822,0.76904,27.9487,-14.1025,
-8.2051,16.9233,-0.5127,30.7695,-10.769,-7.1792,3.0771,-7.1792,2.564,0.5127,13.8462,-3.0767,19.4873,-14.3589,
-1.5383,6.6667,4.6155,27.1794,-25.769,-12.3079,1.5383,-14.3591,5.6409,-2.5642,10.2566,-4.1028,15.3845,-15.8975,
-0.5127,13.3335,5.1284,27.1797,-18.4614,-8.7178,4.1025,-11.2817,-1.0254,-1.5386,15.3848,0.51269,22.0513,-7.1792,
-1.5386,20,0,28.2051,-3.4614,-3.5898,12.8203,-6.1538,-3.0771,-3.5898,16.9229,0,28.2051,0,
-0.76929,11.5383,2.8206,31.5383,-16.6667,-0.76929,21.282,-9.4871,0.76929,-5.3845,9.4871,-4.8718,24.3591,-0.76929,
-6.9229,6.4102,7.436,30.5132,-31.6667,-6.4102,14.6157,-16.6665,1.7949,-1.7949,5.3848,-3.8462,19.231,-3.8462,
-5.1284,12.8203,7.6924,29.2305,-30.7693,-12.3079,3.0767,-13.3335,2.564,-2.564,13.8462,-3.0771,18.9741,-3.0771,
-0.76904,11.0259,7.436,28.4614,-15.7693,-9.4873,0.76904,-11.5386,1.2822,-8.9741,17.6924,-10,16.6665,-3.8462,
-3.5898,5.1279,6.6665,27.6924,-15.8975,-4.6152,3.5898,-14.3591,1.5386,-3.0771,18.9741,-9.231,24.6152,-1.5386,
-13.5898,6.4102,-1.2822,31.0254,-27.436,-8.4617,1.2822,-15.6411,6.9229,4.3589,23.3335,-6.9231,30,-1.2822,
-13.0769,9.4871,2.8206,34.6152,-37.1794,-8.9744,0.25635,-6.9231,19.7437,-1.7949,25.3848,-10.5129,22.8203,-0.25635,
-14.1027,3.3334,4.8717,28.4615,-45.8973,-8.9742,4.359,-3.8461,17.6925,-16.6666,16.1539,-17.1796,13.59,-3.3334,
-16.1537,7.9486,1.2821,27.4359,-30.8973,-8.9742,11.0258,-7.9486,8.4618,-13.0768,14.1024,-13.0768,16.1537,-1.2821,
-14.1027,15.641,1.2821,28.4613,-16.6666,-7.4359,14.6151,-7.9489,6.9232,-4.8719,13.5897,-8.4615,16.1537,-1.2821,
-9.4872,10.5128,4.359,26.923,-27.9489,-4.359,7.9489,-7.4359,9.4869,-8.4615,7.9489,-7.9489,9.4869,-4.8719,
-12.3079,3.5898,1.5386,23.0767,-26.1541,-7.1797,2.564,-13.8462,3.5898,-10.2566,7.1792,-9.231,12.3076,-1.5386,
-14.6155,7.9485,2.8206,22.8206,-20.2563,-11.5386,11.5383,-14.6155,0.25659,-1.282,8.9744,-14.1025,16.6667,-0.25659,
-11.2822,12.3079,5.6409,24.6155,-34.3591,-13.3335,5.6409,-9.7437,-0.51294,0.51294,8.2048,-15.3848,7.6921,-7.1794,
-1.0256,14.8718,5.1282,24.1023,-30.7693,-7.1794,-6.6667,-7.1794,-0.51294,5.6409,15.3845,-0.38477,7.1794,-2.5642,
-3.5894,11.2822,0,20,-22.051,-6.6665,-8.2051,-14.3589,-4.1025,2.5645,17.436,4.6157,14.3594,0,
-10.769,10.2563,2.5645,21.0259,-21.0254,-10.769,2.0513,-14.3589,2.5645,-6.6665,16.9233,-2.0513,14.3594,-2.564,
-13.0769,11.5386,2.3076,20.769,-25.8975,-13.5898,6.4102,-13.5898,4.3589,-6.4104,16.6665,-2.3076,3.3335,-4.3589,
-10.2563,9.231,1.5386,21.0254,-35.3848,-12.8206,0,-17.9487,-0.5127,1.0254,16.9229,0,1.5386,-3.0771,
-11.7949,5.6409,5.1282,24.1023,-30.2566,-10.2566,-0.51294,-17.9487,5.1282,0.51294,19.9998,-4.1028,8.2048,-2.0515,
-14.359,7.1796,3.077,30.2562,-17.4359,-8.2052,5.641,-14.8719,9.7435,-5.6412,24.6151,-10.2565,11.2821,-3.077,
-7.6923,7.6923,1.5385,29.7435,-23.077,-8.2052,13.3334,-14.8717,7.6923,-6.1539,27.1796,-8.2052,13.3334,-1.5385,
-11.2822,0.51294,7.1794,25.6409,-27.6924,-22.0515,11.282,-26.6667,8.2048,-7.6924,22.5642,-8.718,12.3074,-0.51294,
-18.718,0.25659,12.051,25.3845,-20.7693,-29.4873,6.9231,-33.5898,5.8972,-14.1025,17.6921,-14.6155,5.3845,-0.25659,
-21.0256,1.5383,4.1028,17.4358,-26.6665,-17.9487,4.1028,-28.2051,1.0256,-17.9487,14.3591,-15.8975,-0.51294,0.51294,
-20.7693,7.9485,1.282,20.7693,-24.3589,-2.9487,-1.282,-18.2051,6.4104,-4.8718,19.2307,-3.8459,3.8459,13.5896,
-25.8975,6.9231,1.7947,22.8206,-26.9231,-2.8206,-7.4358,-18.2053,0.76929,-0.76929,19.7434,-4.3591,0.76929,15.6409,
-20.7693,7.4358,6.9231,22.3074,-30,-1.7952,0.76929,-10.5129,-0.76929,-1.7952,23.8459,-7.4358,3.3333,13.0769,
-16.4104,10.7693,5.1282,19.9998,-26.6667,-1.0256,1.0256,-10.2566,-4.1028,-7.1794,20.5129,-10.7693,4.1023,9.2307,
-11.2822,16.9229,4.1025,18.9741,-24.1028,0,0,-14.3594,-8.2056,-8.7183,17.9487,-10.7695,1.0254,8.7178,
-5.6411,21.5386,8.2051,24.1025,-25.6409,1.0259,0.5127,-11.2817,-6.6665,-6.6665,20.5127,-9.2305,-0.5127,9.7437,
-7.436,21.2822,11.0259,27.436,-18.718,-3.3335,0.76904,-14.6152,-0.76904,-6.4102,23.8462,-6.9229,2.3076,11.5386,
-11.5383,16.6667,3.8459,23.8459,-20.7693,-7.9485,1.282,-23.3333,-1.282,-15.6411,24.8718,-12.051,1.7947,11.0256,
-3.5896,17.949,1.0256,26.6667,-31.282,-1.0256,2.5642,-19.9998,-2.051,-17.4358,27.1794,-19.4871,1.0256,10.7693,
-3.0769,15.3845,2.5637,25.6409,-25.1284,1.0256,1.5383,-19.4873,-1.5388,-12.8208,26.1536,-25.6411,-1.0256,8.2048,
-1.5383,12.3079,6.1536,22.5642,-22.0513,-0.51294,9.7434,-23.0769,-0.51294,-14.8718,27.6921,-22.0513,0.51294,11.7947,
-0.76904,5.8975,5.3848,18.2051,-37.0513,-7.436,2.3076,-30,-8.4614,-23.3333,23.8462,-20.7693,0.76904,15.6411,
1.7949,13.0771,8.9746,24.8716,-34.1025,-1.7949,-5.8975,-23.3333,-2.3076,-8.3333,28.4614,-11.5386,8.9746,24.8716,
-6.4104,14.6155,0.25659,27.4358,-19.1025,-1.282,1.7947,-23.3333,-0.25659,-0.25659,28.4617,-12.5642,1.7947,21.282,
-0.5127,13.3335,1.5386,27.1797,-22.5642,-1.5386,16.7947,-24.6155,0.5127,-2.0513,28.7178,-13.8462,-4.6152,17.436,
5.8975,9.4873,10,20.769,-31.5386,-8.4614,6.9229,-30.5129,-5.8975,-11.5386,23.3335,-22.3079,-5.8975,11.0254,
5.1279,20,15.8975,29.231,-24.1025,-10.769,-6.6665,-26.6667,-1.5386,-13.3335,27.6924,-26.1538,1.5386,14.3589,
1.0256,21.0256,9.2307,29.2307,-28.7178,-16.9231,0.51294,-30.2563,-2.5642,-17.9487,27.1794,-35.8975,-0.51294,10.7693,
8.9744,14.1023,10.5129,21.282,-30,-22.3079,11.5383,-37.1794,-10.0002,-28.9744,29.4871,-42.3079,-4.3591,4.3591,
8.9744,12.5642,11.5383,20.7693,-28.4617,-22.8206,1.7947,-35.6411,-7.4358,-39.2307,39.2307,-40.2563,-1.7947,5.8972,
0.76929,17.6921,14.1028,28.4617,-32.0513,-22.3076,-0.76929,-31.5386,3.3333,-36.1538,37.1794,-39.7437,-2.3079,10.5129,
3.0769,18.4617,17.4363,28.2053,-24.6152,-26.6665,11.7952,-34.8716,-3.0769,-35.3845,22.1794,-47.6921,-17.3079,3.5901,
18.0769,27.4358,28.9744,29.4871,-20.2566,-18.718,8.9744,-29.4873,-7.4358,-34.1025,20.7693,-44.8718,-11.5383,7.4358,
24.8718,33.5896,36.1541,34.1028,-35.2566,-11.0256,-6.0256,-23.3333,-2.3079,-28.4614,28.9744,-40.7693,2.3079,17.1794,
12.8206,29.2307,33.8459,33.8459,-31.2822,-11.7952,-4.6155,-26.1541,1.0256,-26.1541,28.2048,-45.6411,-1.0256,18.4612,
7.9487,17.1792,23.3335,23.8462,-21.2822,-26.7952,10.3845,-38.2053,-7.9487,-40.7693,22.3076,-57.6924,-11.0259,9.4873,
8.9744,12.0515,17.6921,22.3079,-31.5383,-32.564,10.0002,-45.3845,-6.4104,-48.9744,24.3591,-62.8206,-10.5129,6.4104,
1.282,11.0256,16.6667,19.2307,-38.718,-29.4873,-1.282,-47.436,2.3079,-49.4873,25.8972,-66.4104,-18.2053,5.3845,
2.8206,16.6663,20.2561,21.7947,-26.4104,-30.0002,-2.8206,-43.8464,3.8459,-53.0771,27.9485,-69.4873,-22.8208,4.3586,
15.1282,23.8459,25.8972,23.8459,-19.2307,-32.5642,-1.282,-43.3335,1.282,-56.1541,33.0769,-68.9746,-13.0769,6.4099,
18.9746,24.6152,30.769,20.5127,-31.282,-32.8206,-2.0513,-47.1794,2.0513,-56.9231,33.8462,-65.6411,-12.8203,12.3076,
20.769,30,34.6152,30,-36.1538,-30,-5.3848,-40.7693,5.3848,-55.1282,37.6924,-63.3335,-16.6665,19.2305,
24.8716,33.5898,38.2051,31.0254,-32.0513,-32.0513,-1.2822,-38.718,1.2822,-54.1025,38.7178,-66.4104,-16.6665,17.6924,
22.051,29.2307,35.8972,16.9231,-34.3591,-38.9746,8.718,-49.7437,-8.718,-59.4873,37.4358,-73.8462,-21.0256,11.7947,
25.6411,33.8462,41.0254,20.5127,-27.6924,-32.3079,4.6152,-45.1282,-4.6152,-54.8718,50.769,-65.6411,-13.3335,20,
31.7947,36.9231,47.1794,27.1794,-12.6924,-27.6924,-4.1028,-37.4358,4.1028,-53.3333,55.8972,-63.0769,-9.2307,19.4871,
33.3335,34.3589,43.0771,21.0259,-0.5127,-36.4102,3.5898,-48.2051,-6.6665,-68.3333,40.8972,-78.0769,-24.2307,4.4871,
48.2051,43.5898,47.6924,25.6411,2.564,-34.3589,18.5898,-47.1794,-7.6924,-78.4614,44.1025,-83.0769,-24.1025,-2.564,
56.4102,48.2051,54.8721,33.3335,-1.5386,-33.8459,22.0513,-41.5383,1.5386,-75.3845,55.8975,-76.9229,-11.2817,-10.2563,
47.9487,39.7437,51.0259,24.8721,3.8462,-46.9229,13.5898,-49.4871,-3.8462,-84.8716,47.9487,-85.3845,-14.6152,-25.2563,
44.6152,38.4614,49.7437,22.0513,17.436,-52.8206,8.7178,-50.7693,-8.7178,-89.7437,45.1284,-94.8718,-15.8975,-40.2563,
52.3079,43.0769,55.8972,30.2566,11.7947,-52.3076,6.6667,-46.1538,-6.6667,-87.6924,56.9231,-94.3589,-6.6667,-44.1025,
63.8464,44.3591,66.4104,30.5129,1.282,-53.0769,16.6667,-45.8975,-7.4358,-91.5383,60.2566,-92.0513,-1.282,-49.4871,
63.3333,51.0256,66.4104,27.9485,8.4617,-56.1538,24.3591,-46.4104,-12.0515,-97.6924,52.5642,-100.7693,-8.4617,-57.6924,
61.5386,60,65.6411,30.769,5.6411,-51.7949,20,-45.1284,-5.6411,-96.9231,57.9487,-107.1797,-10.7695,-58.9744,
67.436,61.2822,69.4873,25.8975,2.8203,-48.4617,13.0767,-49.4873,-2.8203,-101.282,68.9741,-108.9744,-4.3589,-58.2051,
62.564,56.9233,61.5386,16.4102,7.6924,-59.4871,8.7183,-60.5127,-17.8203,-116.282,59.4873,-121.5383,-7.6924,-72.3076,
63.3333,64.3586,58.718,20.7693,6.9231,-63.8462,12.5642,-61.2822,-21.7952,-122.3079,55.6409,-125.8975,-6.9231,-75.1284,
73.0767,74.6152,66.9229,33.5894,-1.7949,-58.2053,15.1279,-54.1028,-6.7952,-115.6411,68.9741,-119.231,1.7949,-64.3591,
80,75.8975,75.8975,41.0254,-4.6152,-52.3076,30.1279,-48.2051,-1.5386,-115.8975,80,-116.9231,1.5386,-58.9744,
84.6155,75.8972,80.5129,41.0256,2.5642,-45.6411,37.9485,-47.1794,-2.5642,-110.7693,84.1023,-116.4104,-3.0769,-61.0256,
82.5642,72.3079,74.8718,37.4363,1.0256,-49.7434,22.9485,-53.3333,-1.0256,-110.2563,83.5901,-118.9741,-4.1023,-61.0254,
75.1284,65.3848,64.3589,30.5127,2.3076,-59.2307,18.2051,-62.3076,-10,-123.3333,88.9746,-127.9485,-2.3076,-57.1794,
76.6667,62.3079,65.8972,31.5383,0.76929,-59.7437,33.2051,-65.8975,-13.0769,-133.0769,95.6409,-130,-0.76929,-54.1025,
91.6667,71.7949,80.8972,41.5386,-5.6411,-54.3589,38.4614,-60.5127,-4.1025,-131.7947,97.436,-124.6152,4.1025,-49.7434,
91.7949,73.8462,89.231,36.4102,-4.1025,-59.9998,31.2822,-64.6152,-6.6665,-143.5896,92.3076,-136.4102,4.1025,-51.282,
91.0254,71.0254,80.769,30,1.7949,-62.8206,31.5386,-70.5129,-16.6665,-154.6155,89.4873,-150.5129,-1.7949,-52.5642,
100.2563,76.1538,89.4868,29.4868,4.3589,-58.718,24.3589,-69.4873,-20.7695,-154.1028,89.4868,-150.0002,-4.3589,-50.0002,
102.8203,77.1792,100.769,22.8203,7.9487,-62.3079,21.2817,-76.1541,-23.8462,-157.6926,84.8716,-150.5129,-7.9487,-54.1028,
107.1797,78.9741,104.1025,24.1025,12.3076,-65.1282,30.769,-80,-21.5386,-154.8718,90.769,-152.3076,-12.3076,-56.9231,
117.4363,89.7439,109.2307,31.282,10.7693,-63.0767,35.8977,-73.3333,-17.4358,-146.6665,101.5388,-146.1538,-10.7693,-48.7178,
121.7944,101.7944,116.6665,35.1279,5.8975,-62.3079,38.2051,-68.4617,-21.7952,-150.0002,103.8462,-143.8464,-5.8975,-43.8464,
125.3848,103.3335,118.7178,30.5127,8.4614,-63.3335,45.8975,-67.436,-24.3591,-154.6155,112.564,-146.4104,-8.4614,-48.4617,
127.9487,99.7437,118.2051,24.3589,16.1538,-65.3845,46.4102,-70,-19.7437,-148.4614,122.3076,-142.8203,-16.1538,-48.9744,
134.1025,110,130.5127,32.564,13.5898,-61.7949,39.7437,-69.4873,-13.5898,-140.2563,123.3335,-137.6924,-15.1284,-38.2051,
149.1025,122.051,145.5127,46.1536,3.0769,-51.2822,53.8459,-61.5386,-4.6155,-136.4104,131.7947,-131.7949,-3.0769,-23.2051,
154.6155,115.6409,142.3074,36.6667,6.4104,-57.1797,62.3074,-66.9231,-12.0515,-146.4104,134.1023,-140.7693,-6.4104,-24.8718,
143.0769,110.7693,127.3074,21.6667,21.4104,-68.7178,47.3074,-75.3845,-27.0515,-153.8459,122.0515,-152.3076,-18.9744,-31.7947,
142.051,117.4358,134.8718,21.0256,32.8206,-70.2563,45.1282,-73.3335,-28.2053,-152.3079,120.5129,-152.3079,-21.0256,-28.2053,
156.9232,123.5897,149.8718,35.3846,17.9486,-68.7179,60.1282,-70.2562,-21.0255,-148.205,134.3593,-144.1024,-17.9486,-22.0511,
162.3079,123.3333,156.6667,26.9231,20.7693,-75.6411,56.1536,-75.6411,-25.8975,-146.9231,134.1023,-144.3591,-23.8462,-20.7693,
157.9487,125.1279,153.8462,15.8975,16.9229,-82.0513,46.1538,-75.3848,-28.718,-148.718,125.1279,-149.231,-30.7693,-15.8975,
159.231,123.8462,161.2822,23.3335,7.436,-77.6924,58.7178,-72.0513,-22.8206,-151.0256,130.5127,-144.3589,-31.0256,-7.436,
161.2822,117.1797,163.3335,21.7949,9.4873,-79.2307,60.2563,-79.7437,-28.4614,-151.0256,134.1025,-143.3333,-39.7437,-9.4873,
160.769,113.5898,158.2051,12.0513,12.564,-87.436,47.9487,-87.436,-39.7437,-150.5129,128.4614,-146.9231,-54.1025,-12.0513,
158.718,116.1541,157.1794,6.4104,8.9744,-92.0513,47.4358,-85.8975,-36.6667,-155.1282,124.8718,-147.9487,-58.2051,-6.4104,
157.1794,119.2307,161.7952,6.9231,9.4871,-93.0769,46.4104,-84.3589,-39.2307,-157.6921,123.3333,-151.0256,-61.282,-6.9231,
163.3335,123.3335,165.3848,5.8975,20.2563,-88.9741,48.9746,-82.8203,-45.8972,-149.9998,130.5132,-148.9741,-59.7434,-5.8975,
171.5383,124.3586,171.0256,2.8206,13.5896,-83.3335,63.8459,-80.2566,-38.718,-147.949,139.2307,-147.436,-51.5386,-2.8206,
171.7947,125.1282,181.0256,5.6409,5.6409,-87.6924,64.1023,-80.5129,-35.3848,-155.3845,136.9231,-150.2563,-50.7693,-5.6409,
170.5129,127.4358,181.7947,2.3079,20.6409,-91.0256,52.5642,-80.2563,-43.8462,-155.1282,137.6921,-141.282,-54.6155,-2.3079,
177.4358,128.718,175.8972,-5.1282,32.3074,-86.1541,57.4358,-78.9746,-46.1541,-146.6667,142.051,-129.231,-55.3848,5.1282,
183.3335,135.6411,183.3335,-5.3848,29.4873,-83.8462,65.8975,-81.282,-46.4102,-145.8975,141.7949,-133.0769,-51.5383,5.3848,
186.4102,140.769,198.3335,-5.8975,37.1792,-82.3079,63.8462,-80.2566,-48.9746,-151.5386,144.3589,-135.6411,-51.0259,5.8975,
185.3845,136.6667,196.6667,-7.4358,25.3845,-83.8462,61.282,-77.6924,-50.5129,-149.4873,144.8718,-130.5129,-60.7693,7.4358,
188.4617,140.2566,198.718,-4.3591,10.3845,-80.769,68.9744,-72.0513,-40.769,-134.6152,147.4358,-125.3845,-56.1538,14.6155,
185.8975,138.7178,202.8203,-11.5386,11.5386,-84.3591,62.8203,-78.2051,-45.8975,-140.2563,142.8203,-132.0513,-48.9744,12.0513,
193.5894,142.3076,207.9487,-10,26.5386,-82.8206,63.8462,-78.718,-52.5642,-146.9233,142.3076,-131.5386,-52.0515,10,
200.5129,144.1028,209.7439,-11.282,37.949,-82.051,77.949,-78.4614,-47.1794,-137.4358,142.5642,-126.6665,-56.9229,11.282,
196.1538,138.7178,212.564,-17.6924,22.949,-83.3335,79.7437,-93.0771,-47.949,-136.1541,140.769,-127.436,-51.5386,17.6924,
195.3845,140.5125,225.1282,-9.2307,9.2307,-80.0002,72.8206,-106.1541,-44.1028,-141.5386,144.1023,-125.1284,-54.3591,26.6667,
191.0256,140.7693,220.7693,-11.0256,11.0256,-85.3848,68.9744,-118.2053,-45.8977,-145.3848,138.7175,-130.5129,-68.4617,22.8206,
186.9231,138.2053,205.7693,-24.8718,25.8977,-86.4102,70.5129,-124.3589,-60.7693,-142.3076,132.0515,-131.5383,-62.8206,24.8718,
187.4358,139.7434,207.4358,-29.4871,29.4871,-78.718,64.3591,-121.2822,-68.4617,-132.5642,138.2048,-120.2563,-52.0513,37.6921,
190.7693,144.6155,221.5388,-23.0769,23.0769,-77.9485,59.4875,-114.3589,-61.0254,-129.7434,146.6667,-116.4102,-56.4102,43.0769,
189.2307,140.5129,218.4617,-28.718,28.718,-87.1794,67.6921,-117.436,-65.1282,-140,138.9744,-125.6411,-62.0513,36.9231,
192.8203,144.6152,220,-30.2563,30.2563,-86.6667,71.2822,-118.9744,-70.2563,-140,134.3589,-126.1538,-58.4617,37.9487,
203.8462,151.5381,235,-20.2563,20.2563,-78.718,74.1025,-110.5129,-59.231,-134.6155,139.2305,-122.8206,-58.2053,43.8462,
206.6666,148.7179,245.1281,-22.5641,22.5641,-80.5128,83.59,-111.2819,-52.3075,-139.4872,144.1027,-127.6923,-56.923,43.0768,
198.9741,146.1538,233.8462,-30.2563,30.2563,-88.718,78.4614,-121.0256,-58.9744,-139.4871,143.0771,-129.2307,-58.4614,40,
200.2562,151.5385,239.2308,-25.3846,25.3846,-88.9745,73.5897,-118.2052,-57.1796,-127.9489,144.3588,-124.359,-59.2308,41.2821,
210.2565,154.8717,252.3077,-20.5128,20.5128,-86.6666,88.5897,-112.8204,-47.6923,-122.0511,148.7179,-119.9999,-52.3077,43.59,
207.1797,150.2563,249.7437,-20.5127,20.5127,-93.3333,92.8208,-117.4358,-46.6665,-122.0513,147.1797,-117.4358,-53.3333,44.1025,
198.718,151.0256,246.9231,-18.718,18.718,-97.6924,82.3079,-117.1794,-43.3333,-113.5898,145.8972,-113.5898,-57.6924,48.9744,
199.2308,156.6664,253.0765,-19.2308,19.2308,-95.6412,78.7177,-112.5643,-41.795,-113.59,141.7948,-114.6156,-58.2052,48.4613,
207.692,161.0255,260.5128,-28.2052,28.2052,-92.8207,72.8204,-112.8207,-53.3334,-123.59,136.4103,-113.3334,-61.0258,45.6407,
208.4615,161.795,259.2311,-34.6154,34.6154,-91.5385,73.59,-114.1024,-56.1537,-127.4359,134.1027,-110.5128,-64.8717,56.6666,
198.4615,165.6407,253.3331,-32.3077,32.3077,-93.3334,83.0768,-109.2308,-51.2821,-125.6412,132.8204,-113.8463,-64.1027,69.2306,
201.2817,172.564,256.6665,-32.0513,32.0513,-98.2053,86.9229,-98.2053,-53.0769,-122.8206,132.564,-111.0256,-64.3591,71.5386,
209.2306,165.1281,260.0001,-36.923,36.923,-113.2053,84.1027,-99.9999,-61.0255,-126.6666,128.7179,-112.8204,-76.4103,69.2306,
205.641,159.9999,264.6156,-33.8461,33.8461,-128.2053,83.077,-107.1793,-49.2306,-119.4872,134.3593,-114.8717,-74.3588,71.2821,
208.7178,169.7437,277.9487,-26.1541,25.6411,-124.1028,87.1792,-97.9487,-34.2306,-104.4872,149.3593,-105.1284,-60.0002,74.3589,
213.3335,168.2051,276.9229,-27.6924,24.1025,-122.5642,93.8462,-95.3845,-24.1025,-104.6155,164.3593,-106.1538,-69.7437,69.231,
207.6925,164.6154,270.7692,-32.8204,30.7692,-122.0511,96.9235,-99.4869,-30.7692,-108.205,157.4362,-107.692,-84.7437,72.3077,
197.4362,171.795,270.7692,-34.8717,34.8717,-107.1793,82.0514,-93.8461,-34.8717,-98.4615,144.1027,-99.4872,-96.923,80.0001,
196.1538,173.5898,270,-37.1797,35.6411,-100.2566,76.6665,-87.9487,-35.6411,-100.7693,142.3076,-95.1284,-101.7949,84.3589,
203.59,167.6925,276.4103,-32.8204,26.6666,-103.0768,87.6925,-86.6666,-26.6666,-106.6666,143.0773,-91.7948,-102.5641,92.8204,
204.6155,168.718,284.1023,-27.6924,26.6667,-106.1538,92.8206,-85.1282,-26.6667,-105.1282,136.9231,-88.718,-102.0513,95.3845,
190.0001,161.2819,269.1023,-42.6924,41.6667,-118.7179,87.9489,-93.0768,-41.6667,-120.1282,129.4874,-102.3077,-108.4615,84.359,
181.7947,156.1536,258.2048,-56.1538,42.8206,-121.7949,83.8459,-94.1025,-42.8206,-128.4617,129.4871,-110.5129,-113.0769,84.3591,
187.6921,164.6155,272.8206,-42.5642,28.718,-117.436,80.5129,-85.6411,-28.718,-115.8975,133.8459,-102.0513,-110.7693,94.3591,
188.2053,168.718,279.4871,-44.1025,29.2307,-116.9231,77.949,-83.5896,-29.2307,-117.4358,133.3333,-99.4871,-108.718,94.8718,
187.6924,172.8203,274.8716,-47.6924,31.7949,-104.1025,83.5898,-78.4617,-31.7949,-120,130.769,-100.5129,-107.6924,101.5386,
194.1023,182.8206,279.7434,-40.2566,22.8206,-89.1025,86.9231,-65.8977,-22.8206,-109.4873,133.0769,-95.1284,-108.9746,116.5386,
191.0253,181.2821,279.7435,-42.8207,19.2308,-91.5387,73.5897,-65.8976,-19.2308,-118.7181,134.1024,-98.2052,-111.0258,117.6923,
186.6665,174.3589,272.3076,-51.7949,26.1538,-96.9231,66.6665,-69.2307,-26.1538,-132.8206,130.769,-104.1025,-110.2563,111.2822,
194.3589,176.4102,278.4614,-53.8459,24.1025,-85.6409,81.6665,-58.4614,-24.1025,-118.9741,131.7949,-95.3845,-107.1794,118.9746,
197.4357,176.923,284.1027,-53.3334,12.3077,-83.5897,91.2819,-53.3334,-12.3077,-103.9741,135.8976,-86.6666,-106.6666,121.5387,
182.4357,164.6154,272.8204,-59.4872,12.3077,-94.359,76.2819,-63.0768,-12.3077,-109.7435,132.8204,-94.8717,-107.6923,106.5387,
172.3076,157.436,270.769,-65.6411,20,-93.8462,71.7949,-63.5896,-20,-114.3589,127.6924,-99.4871,-111.282,94.8716,
186.6667,164.6155,281.0256,-66.6665,23.0769,-78.8462,86.7949,-53.3333,-23.0769,-106.6665,132.3079,-88.2051,-111.282,95.8977,
188.2053,167.1794,276.9231,-74.3589,24.6155,-65.6411,77.9485,-49.2307,-24.6155,-108.718,133.8459,-81.5386,-105.6411,91.282,
176.4103,158.9742,272.8204,-76.923,18.9742,-70.7692,69.2306,-48.205,-18.9742,-123.718,127.1793,-85.641,-103.0768,76.282,
175.6411,155.6411,275.6411,-77.1794,14.1025,-76.1538,76.6665,-47.9487,-14.1025,-130,126.4102,-87.436,-104.8718,65.3848,
183.5897,160.5126,269.2308,-82.0514,17.4359,-73.3334,89.2308,-48.7179,-17.4359,-120.0001,132.3075,-86.6666,-102.0514,64.1024,
183.3333,167.4358,266.9231,-77.1794,17.1794,-60.7693,94.1028,-43.8462,-17.1794,-109.4871,134.6155,-82.3076,-96.6667,67.949,
172.8208,164.6152,266.6665,-77.9487,11.7949,-52.3076,82.0513,-47.1794,-11.7949,-104.1025,127.1797,-77.9487,-99.4871,62.0513,
166.9231,163.3333,260.7693,-81.282,11.0256,-54.1025,77.1794,-59.2307,-11.0256,-100.7693,122.8206,-79.2307,-105.3845,51.5383,
177.4363,172.8206,267.1794,-74.8716,7.1794,-50.769,88.718,-61.0254,-7.1794,-102.564,128.718,-81.0254,-103.5896,51.282,
181.5383,168.718,267.6921,-74.8718,4.6155,-46.6667,89.2307,-58.4614,-4.6155,-108.718,124.6155,-89.7437,-103.5898,47.1794,
166.5383,155.8978,252.6921,-79.4869,9.7435,-51.7948,74.2307,-59.9999,-9.7435,-114.8717,112.8207,-98.4613,-109.7435,33.3334,
156.1541,149.4875,243.3333,-82.8203,4.8718,-54.1025,59.2307,-60.769,-4.8718,-116.6665,116.1541,-90.5127,-107.9485,34.1028,
163.8459,145.8972,248.9744,-83.8462,0.76929,-47.4358,74.1028,-60.2563,-0.76929,-118.718,121.7947,-79.7437,-101.282,44.3591,
163.0768,141.5382,243.5895,-78.9745,8.2052,-40.0001,81.5382,-56.9232,-8.2052,-122.5641,115.8976,-83.5897,-103.5897,47.1793,
156.6665,140.769,237.1797,-77.1794,10,-35.6411,76.1538,-48.9744,-10,-124.3589,110.5127,-87.436,-111.5386,47.436,
154.6156,143.3334,240.7694,-76.6666,7.4359,-28.9742,76.6669,-46.923,-7.4359,-124.3588,112.5643,-80.7692,-112.5641,48.9745,
149.4873,139.231,237.6924,-77.6924,5.8975,-33.5898,76.1538,-56.1538,-5.8975,-125.8975,114.1025,-75.6411,-106.9231,46.4102,
143.0767,133.333,230.769,-81.5386,0,-46.6667,67.1792,-61.0256,0,-127.6924,113.333,-75.8975,-108.718,48.2051,
149.2311,136.9235,233.8463,-79.9999,-6.6666,-35.8973,68.2052,-49.2306,6.6666,-125.641,113.3336,-69.7435,-106.1537,53.8463,
156.4102,145.6411,235.8975,-73.8462,-6.1538,-20.8973,72.8203,-37.9487,6.1538,-123.5898,114.8716,-56.9231,-96.4102,58.9746,
147.1797,147.1797,230.769,-70.7693,-5.6411,-15.8975,68.7178,-37.4358,5.6411,-119.4871,116.9229,-44.1025,-97.4358,65.1284,
139.4872,141.0258,230.7689,-78.9745,-9.2308,-20.0001,73.3334,-34.8719,9.2308,-112.8207,118.9745,-33.3334,-106.1539,69.2308,
136.6667,134.1028,231.0256,-86.9229,-17.1794,-5.0001,69.4871,-29.4871,4.8718,-111.5383,116.6667,-27.9487,-108.9744,71.0256,
129.2305,130.2563,221.0254,-89.231,-11.7949,4.1025,54.8716,-30.7693,-4.1025,-111.2822,110.2563,-30.7693,-108.2053,73.8462,
127.9487,133.0771,221.2822,-87.4358,-1.2822,-1.2822,57.6924,-32.0513,1.2822,-101.7949,109.4873,-33.0769,-107.4358,75.1284,
132.564,134.6152,228.4614,-83.3333,-10.5127,-6.4102,64.3589,-32.564,6.4102,-101.7947,107.9487,-36.6665,-106.9231,68.9746,
137.1794,129.4871,225.8972,-83.8462,-19.231,-3.3333,67.9485,-31.5386,3.3333,-111.5386,103.3333,-39.7437,-105.3848,68.4612,
136.1536,125.8972,223.3333,-87.436,-18.2053,3.3333,65.3845,-28.4617,-3.3333,-117.6924,96.6667,-41.7949,-107.949,67.9485,
141.5383,130.2566,229.2307,-85.6411,-15.3845,7.1794,56.4104,-27.1794,-7.1794,-122.564,96.9231,-44.6155,-111.282,62.5642,
146.4104,135.1282,227.9485,-84.8718,-8.9744,6.4104,59.2307,-31.5386,-6.4104,-126.4104,98.2048,-44.3591,-108.4617,62.3079,
142.564,134.3589,219.4868,-85.6411,-7.6924,7.6924,74.2307,-36.4104,-9.231,-125.6411,89.7437,-40.0002,-108.718,64.6152,
139.2308,131.5385,218.7181,-90.5128,-9.4872,9.4872,75.1283,-37.1796,-16.6666,-126.4103,80.7694,-38.2052,-115.641,66.41,
142.3079,129.9998,220.2566,-95.6411,-5.8972,5.8972,60.7693,-40.2563,-22.8206,-126.4102,78.718,-39.2307,-114.6155,67.9485,
142.8204,130.0001,219.7438,-90.0001,-6.4103,6.4103,56.6666,-42.3077,-20.7692,-120.7692,80.2565,-38.7179,-111.0258,69.4869,
136.9227,130.2562,219.4872,-86.6669,-16.4105,11.2821,64.6151,-38.4618,-11.2821,-117.4362,76.9227,-40.0001,-114.8719,66.1537,
135.1284,127.436,216.6665,-92.0513,-24.8718,10.5127,68.9746,-39.7437,-10.5127,-123.3333,70,-46.9231,-122.8206,57.6924,
136.4103,127.6925,214.359,-95.8973,-19.4872,14.359,64.6154,-40.5128,-14.359,-127.1796,66.6666,-45.1281,-126.1539,62.5641,
121.5383,117.949,201.0256,-102.0513,-15.3845,15.3845,49.6154,-44.1025,-23.0769,-131.7949,58.9744,-47.6921,-130.2563,63.0769,
118.9744,117.949,200.5129,-91.7947,-23.5896,19.4871,44.1028,-36.9229,-19.4871,-122.564,58.9744,-47.6921,-124.6152,61.5383,
119.4872,116.41,200.5126,-97.4359,-38.5896,17.4359,54.3588,-32.3077,-17.4359,-123.5897,56.9232,-43.077,-123.5897,61.5385,
111.5386,111.5386,195.1279,-107.436,-34.6155,19.7437,51.5386,-31.5386,-19.7437,-130.5129,52.0513,-32.5642,-124.8718,62.8203,
100.2563,110.5127,191.5381,-102.3079,-22.8206,21.7949,41.2817,-31.0259,-21.7949,-128.4617,47.9487,-29.4873,-122.8206,61.2817,
101.2819,108.4615,190.0001,-100.7692,-23.8461,20.7692,46.923,-26.4103,-20.7692,-123.8461,48.9742,-33.5897,-124.359,61.2819,
97.4362,99.4874,176.923,-114.8717,-25.1281,25.1281,50.2565,-25.641,-30.7692,-130.7692,38.9742,-39.9999,-133.8461,57.4362,
87.1794,90.7693,164.6155,-124.1025,-23.0769,31.7952,40.5129,-28.2051,-39.9998,-131.7947,23.9742,-42.564,-139.9998,52.8206,
86.4105,91.5385,168.9745,-117.1793,-25.3844,31.0258,39.2308,-21.7948,-35.1281,-123.3331,21.7948,-37.1793,-137.6923,57.1796,
80.2567,81.7948,160.7694,-121.2821,-40.3844,23.8461,34.6156,-21.2821,-37.1793,-128.4615,21.2821,-38.7179,-144.359,53.5897,
79.7437,74.6152,156.6665,-124.3591,-48.4617,29.4868,28.4614,-18.2051,-37.1797,-123.8464,18.2051,-34.1028,-146.4104,48.4614,
84.6156,77.9486,166.6669,-115.8973,-36.923,30.7694,28.7181,-15.8973,-32.8204,-116.4103,15.8973,-30.7692,-141.0255,48.2054,
82.0511,76.41,167.1796,-115.3846,-31.7948,26.1537,31.7948,-18.9745,-33.8461,-121.5385,18.9745,-33.3334,-136.9232,47.6923,
72.8203,69.2305,158.4614,-115.8975,-35.8975,29.7437,32.3076,-20,-30.7693,-121.5386,20,-34.3591,-137.436,50.2563,
74.359,69.2306,159.4869,-111.795,-37.4359,36.4103,35.3844,-20.0001,-22.0514,-113.3334,20.0001,-32.8207,-130.7694,55.3844,
84.1025,73.8462,168.2051,-115.8975,-39.4871,33.8462,35.8975,-20.5127,-21.5383,-112.8206,20.5127,-31.7949,-120,58.4614,
85.8975,74.1025,164.8716,-114.6155,-35.6411,34.1025,33.0767,-17.6924,-24.8718,-110.5129,17.6924,-32.0513,-124.3591,60.2563,
81.5383,72.3079,153.8464,-112.3076,-24.6152,43.0769,30.7693,-16.9231,-23.5896,-102.564,16.9231,-31.7947,-136.4102,58.9744,
83.0768,74.359,155.8976,-113.8461,-30.7692,44.6154,30.7692,-16.923,-25.1281,-103.5897,16.923,-32.3077,-132.8204,60.5128,
87.4362,78.2052,163.3336,-109.9999,-32.0511,42.3077,39.7438,-13.0768,-28.4615,-101.2819,13.0768,-28.4615,-123.8461,66.4103,
87.1798,79.4874,158.9747,-105.641,-18.4613,49.7438,53.3336,-10.7692,-25.641,-89.2306,10.7692,-23.0768,-125.1281,68.7179,
88.4617,82.3079,151.5383,-102.3076,-16.1538,54.6155,45.8977,-8.9744,-22.3076,-86.4102,8.9744,-27.4358,-132.564,66.9231,
92.308,86.1542,153.8461,-98.4613,-25.641,45.641,38.9745,-3.5897,-20.5128,-87.1793,3.5897,-33.3331,-127.6923,70.7694,
90.7694,88.7177,158.9745,-94.8719,-32.8207,43.077,51.2821,-1.5385,-13.8463,-82.0514,1.5385,-31.2821,-118.4615,76.9232,
86.4104,88.4617,156.6667,-95.6411,-31.5383,52.5642,48.4617,-3.3333,-13.5896,-80.7693,3.3333,-24.8718,-126.4102,77.6921,
87.1796,89.7435,155.3846,-93.8461,-16.5383,61.5385,36.41,0.51282,-14.8717,-77.9486,-0.51282,-14.8717,-131.2821,84.6156,
87.9486,87.4359,154.6156,-88.4615,-3.3334,58.7181,39.7435,3.3334,-13.077,-83.3334,-9.4872,-15.641,-124.359,83.8461,
86.4102,83.3335,155.6411,-90.5129,-18.3334,57.6924,47.436,4.8718,-4.8718,-84.8718,-8.4617,-18.2051,-122.3076,83.8462,
79.4868,82.0513,149.2305,-98.9746,-21.5386,61.5381,40.5127,3.5898,-4.1028,-71.7949,-3.5898,-9.231,-124.6155,92.8203,
74.8721,79.4873,136.9233,-100.5127,-6.5386,61.0259,40.5127,2.0513,-16.4102,-64.6152,-8.2051,-2.0513,-120,95.8975,
71.5385,69.9999,131.5385,-101.795,-6.9232,57.1796,39.7435,4.8719,-17.6923,-64.359,-11.5385,-4.8719,-121.2821,91.5385,
58.718,62.3079,130.0002,-103.3333,-21.9232,55.1282,24.7435,2.3076,-5.3845,-60.2563,-2.3076,-3.8462,-130.5127,90.0002,
48.2053,62.5642,121.5383,-102.0513,-24.1025,51.7947,25.6409,-4.1025,-2.5642,-59.4871,-2.5642,2.5642,-136.4102,87.6921,
49.2307,62.0515,114.8718,-102.564,-9.1025,51.7947,40.6409,-6.1538,-9.7437,-61.5383,-10.7693,5.1282,-145.6411,83.0769,
43.5898,56.9229,114.8716,-104.1028,-5.1284,55.3843,34.3589,-1.5386,-11.7949,-60,-8.718,1.5386,-160.6411,87.1792,
39.2308,53.077,119.7435,-100.7694,-20.1284,56.6664,21.2821,2.8207,-5.3846,-53.5897,-2.8207,-2.8207,-168.4615,95.1283,
45.6411,51.7949,121.0254,-94.3591,-34.3591,48.7178,34.8716,0,0,-46.6667,-3.5898,-6.6667,-167.6924,89.7437,
42.3075,47.9486,113.5897,-96.1539,-33.5897,36.6669,34.1024,-9.4872,2.8204,-51.0255,-2.8204,-9.4872,-177.1796,77.1796,
37.4362,47.1798,109.7438,-101.0255,-34.8717,43.59,21.0255,-10.7692,2.5641,-49.7435,-2.5641,-7.6923,-186.1537,77.9489,
42.8203,50.5127,108.9741,-97.6924,-41.2822,58.59,22.8203,-1.7949,-3.8464,-39.7437,-17.5641,1.7949,-188.9746,84.3589,
41.5388,45.6414,100.0002,-102.564,-56.2822,54.8718,22.0515,-3.0769,-13.3333,-47.1794,-32.5641,3.0769,-198.9741,76.9231,
41.0254,52.3076,98.9741,-103.5898,-51.7949,54.8716,18.4614,-2.0513,-13.3335,-52.8206,-47.1797,2.0513,-198.4617,77.436,
40.5129,58.9744,94.3591,-102.5642,-36.7949,60.5129,12.8206,3.0769,-18.4617,-48.2051,-43.5898,-3.0769,-188.2051,78.9744,
42.0513,57.9487,90.2563,-103.0771,-29.231,63.0767,14.8716,6.1538,-21.5386,-49.231,-46.6667,-6.1538,-187.1797,77.4355,
44.8718,57.6926,95.1282,-96.6665,-36.1538,65.8977,21.7952,7.4358,-17.6921,-57.1794,-52.0513,-7.4358,-192.564,79.7439,
39.7437,56.6665,97.6924,-96.1538,-31.5386,67.436,20.2563,10,-12.5642,-56.1538,-49.4873,-10,-183.3333,81.2822,
28.2052,52.3077,88.7179,-100.0001,-34.359,59.4869,10.2565,15.8976,-10.7694,-47.6923,-45.1283,-10.2565,-174.8719,78.4615,
21.5383,49.7434,81.5383,-100.0002,-45.1284,49.2307,8.718,12.8206,-17.949,-41.0259,-51.7949,-8.718,-186.1541,74.3586,
17.1792,46.9229,79.7437,-104.3591,-42.8206,49.4873,12.564,3.8462,-22.8206,-36.6667,-55.1282,-3.8462,-190,71.0254,
13.5898,38.2051,77.6924,-105.8975,-40.2566,51.5386,8.4614,1.7949,-20.2566,-37.6924,-48.9744,-1.7949,-180.7693,66.9229,
7.4358,26.4104,71.0256,-108.4614,-52.0513,47.949,5.8977,4.3591,-19.2307,-42.8206,-53.0769,-4.3591,-181.282,59.7434,
1.5383,19.9998,67.1794,-106.6667,-63.5898,41.5383,14.3591,7.1794,-16.4104,-39.4873,-63.5898,-1.5383,-186.6667,53.8459,
-1.0256,15.8972,64.615,-105.6411,-64.1028,38.4612,10.2561,4.615,-14.8721,-32.8208,-65.1284,1.0256,-187.6924,47.6921,
-1.5386,16.4102,63.0771,-105.6409,-53.3333,47.1797,1.5386,6.6665,-15.3845,-30.2563,-54.3589,7.1797,-175.3845,49.7437,
-4.8718,23.3333,62.8206,-98.7178,-40.769,59.7439,4.8718,17.6926,-12.0513,-23.3333,-44.3589,18.2053,-160.3845,59.7439,
-15.8975,17.4358,53.3333,-101.5386,-39.4873,56.4104,5.1282,18.9744,-5.1282,-15.3848,-46.1538,19.4871,-163.0769,54.3591,
-24.1028,5.6409,49.7434,-104.6155,-41.0259,52.8206,-1.0256,12.3074,1.0256,-10.7695,-45.6411,11.7947,-165.6411,39.3591,
-24.3589,5.3845,53.5896,-99.2307,-44.3589,53.0769,-0.25659,13.0769,0.25659,-11.0256,-42.3076,6.4104,-160.7693,24.8718,
-22.3079,7.4358,46.4099,-101.7949,-40.2566,42.8206,3.3333,19.7434,-3.3333,-13.5898,-45.8975,7.4358,-166.9231,19.2307,
-15.6411,9.9998,49.9998,-97.6924,-27.9487,44.8718,-0.25659,32.0515,0.25659,-8.4617,-46.9231,14.1028,-164.3589,18.2053,
-14.6152,7.949,59.2307,-90,-38.2051,51.5383,-0.76929,32.5642,0.76929,-2.8206,-43.8462,15.1282,-152.0513,13.0769,
-23.3333,0.25635,44.2307,-91.5383,-53.2051,38.2051,11.5386,20.2563,1.2822,-4.3589,-48.9744,4.3589,-149.4871,-0.25635,
-25.8973,3.3336,31.5387,-88.4615,-38.2051,32.0514,16.6666,19.2306,8.9742,-2.8204,-54.1024,2.8204,-143.3334,-4.8717,
-21.282,6.4102,39.7437,-88.9744,-23.2051,39.7437,10.5127,26.9229,4.3589,-2.8203,-55.1282,2.8203,-133.5898,-4.3591,
-11.0259,9.9998,45.8972,-86.4104,-36.1541,49.9998,13.5896,35.6409,-0.76929,0.76929,-51.0259,5.8972,-129.4873,-3.8464,
-17.9487,7.6924,31.2822,-88.2051,-47.6924,47.6924,8.2051,29.231,-5.1284,5.1284,-55.3845,10.2563,-139.4873,-8.7178,
-25.6411,5.6409,26.1541,-89.2307,-44.6155,41.5383,9.2307,25.6409,-5.6409,7.6921,-61.0256,13.3333,-142.0513,-8.718,
-24.6155,4.615,29.2307,-82.5642,-48.7183,38.4612,16.9231,32.8206,1.0256,-1.0256,-61.5386,6.1536,-131.7952,-9.7439,
-29.231,1.5383,19.9998,-75.8975,-47.1797,42.5642,8.718,38.9744,8.2048,-1.0256,-58.4617,1.0256,-124.1028,-11.2822,
-38.4615,-3.5897,9.2308,-72.3077,-33.3334,39.4872,3.5897,35.8973,8.7181,7.6923,-57.9486,7.1796,-127.6923,-11.2821,
-38.7179,-6.9232,12.5641,-71.5385,-29.4872,36.1539,6.923,33.5895,6.4103,7.9489,-58.2052,14.1027,-125.3846,-6.4103,
-35.1282,-8.9744,13.5898,-74.1025,-39.7434,42.8208,2.8208,43.3335,2.3076,6.9233,-59.7434,15.1284,-114.6152,-2.3076,
-29.4871,-7.9487,5.3848,-73.0767,-32.564,49.4873,6.4106,50.5132,-2.3076,12.5645,-63.3333,16.667,-108.4614,2.3076,
-28.2051,-7.6921,3.5896,-73.3333,-17.564,54.8718,15.8972,38.9744,-3.5896,10.2566,-63.0769,18.9744,-105.1282,6.6667,
-35.1279,-12.564,6.4106,-76.6665,-20.2563,56.1538,12.0513,23.9744,-5.8975,5.8975,-59.2307,20.7695,-103.3333,10.5132,
-37.9487,-15.3848,2.5642,-74.8718,-31.7949,56.4104,6.6667,21.0256,-2.5642,20.5129,-53.8462,29.7434,-96.4104,21.0256,
-41.282,-22.3076,-2.8203,-75.1282,-34.6155,53.0771,8.4614,21.7949,2.8203,25.3848,-57.6924,32.0513,-93.0769,26.4102,
-46.4104,-31.0256,-0.25635,-72.0515,-37.1797,53.5898,17.6924,15.6411,0.25635,17.1792,-65.8975,25.3843,-100.2566,19.7437,
-44.6155,-29.2307,-0.5127,-68.718,-33.8462,56.9229,14.8716,18.4614,0.5127,22.0513,-67.6924,24.1025,-103.5898,17.9487,
-33.3333,-14.3589,-1.5383,-62.564,-18.8462,68.2053,1.5383,33.4614,10.7693,37.0513,-54.8718,35.3845,-88.5898,32.9487,
-33.0771,-12.5642,-4.8718,-61.7949,-5.3845,72.5637,4.8718,39.2307,6.4099,38.2048,-48.4617,43.3333,-81.2822,39.2307,
-37.6921,-19.2307,-3.8462,-62.8203,-8.4614,67.9487,19.8718,39.7437,3.8462,34.6152,-51.5383,45.3848,-85.3845,35.1284,
-38.7178,-17.6921,-5.8975,-63.3333,-8.9744,66.9233,11.0259,42.3076,5.8975,38.2051,-53.5896,41.2822,-80.2563,38.2051,
-35.3845,-9.7437,-9.7437,-62.564,-7.6924,75.3848,9.7437,47.6924,7.6924,46.6665,-49.7437,45.1284,-67.6921,50.2563,
-40.769,-7.9487,-9.4871,-60.769,-8.4614,82.3076,19.7437,52.0513,7.9487,54.6157,-49.4871,58.7183,-65.3845,55.1284,
-51.2821,-11.795,-7.1796,-58.9745,-12.3077,80.5126,7.1796,49.7435,9.7435,52.8202,-54.8719,58.9745,-68.2052,49.2308,
-52.5641,-18.205,-8.4615,-62.3075,-7.4359,79.7435,7.4359,47.9486,11.0258,47.4359,-56.1537,49.4872,-62.8204,48.4618,
-57.1794,-25.8972,-20.2563,-68.9741,0.76929,77.1794,18.2053,47.4363,-0.76929,41.282,-60.769,43.8464,-65.3845,46.9231,
-57.6924,-25.3848,-21.2822,-69.4873,-1.282,78.718,12.051,47.4358,1.282,43.8459,-60.2566,46.4104,-72.5642,44.3586,
-47.6923,-19.4869,-9.7435,-57.9486,-10.7692,86.6669,9.7435,52.308,16.282,54.8719,-48.7179,53.3334,-66.6666,53.3334,
-52.3076,-24.6155,-16.4102,-54.8718,-11.7949,86.1538,11.7949,57.9487,16.4102,55.8975,-47.6924,56.9229,-60,56.9229,
-64.3591,-34.6155,-30.5129,-65.3848,-1.282,82.8206,3.3333,62.8206,1.4102,51.0256,-54.1028,58.2048,-59.231,52.5642,
-65.1282,-32.8206,-31.282,-61.5383,-3.0769,88.718,3.0769,65.1282,5.1282,54.8718,-58.9744,59.4871,-60.5127,54.3591,
-66.6669,-29.7438,-28.2052,-49.2308,-15.3846,91.7948,15.3846,64.1024,16.41,61.0253,-66.6669,59.9999,-57.9489,55.3846,
-62.8206,-29.4873,-25.3845,-47.4358,-18.2051,90,18.2051,64.8716,20.2563,63.8462,-64.8718,63.3335,-50,54.6152,
-58.4615,-30.7692,-30.7692,-57.9486,-11.7948,88.205,11.7948,65.1283,11.7948,65.641,-60.5128,61.5385,-50.2565,52.8207,
-70,-32.5642,-41.282,-64.8718,-3.3335,84.8716,3.3335,66.4102,4.3589,65.8975,-65.8975,56.1538,-55.6411,50.5127,
-77.6924,-28.4614,-34.1025,-51.5383,0.76929,82.8203,-0.76929,72.0513,13.0771,66.9233,-65.8975,58.2051,-49.4871,55.6411,
-77.4359,-29.7435,-32.3075,-49.2306,-7.6923,79.4872,7.6923,67.1796,10.2567,65.1283,-66.1537,59.9999,-46.6666,55.3846,
-74.3589,-26.6667,-42.564,-53.8462,-6.6667,83.0769,19.4871,67.6921,6.6667,68.718,-66.1538,66.6667,-47.1794,54.3591,
-81.7949,-27.949,-50.5129,-52.5642,-4.3589,81.2817,4.4871,70,6.4102,68.4614,-71.0259,68.4614,-48.9746,50.5127,
-78.2052,-24.8719,-38.2052,-42.3077,-4.359,94.1027,4.359,79.2306,15.6407,79.2306,-61.2821,79.7433,-37.6925,60.2565,
-81.0255,-25.641,-37.9486,-42.0511,-10.7692,101.0255,10.7692,82.0514,16.4103,87.1798,-59.4872,83.59,-35.8973,63.0773,
-85.6411,-24.1028,-43.5898,-43.5898,-5.6411,95.3843,5.6411,80,16.9229,90.769,-63.5898,78.9741,-37.436,62.0513,
-91.2821,-30.7694,-49.7438,-48.2052,-2.0514,86.1539,2.0514,71.2819,13.8458,79.4869,-70.7694,71.2819,-40.0001,54.359,
-102.3075,-41.7948,-59.2306,-47.9486,-5.8973,83.8461,5.8973,71.0258,6.9232,64.4869,-76.1537,67.4359,-39.7435,47.4359,
-106.6665,-43.5896,-65.6409,-50.2563,-0.51294,87.6921,0.51294,78.4617,10.2566,65.6409,-74.3589,72.3079,-31.7949,57.4358,
-102.8206,-42.8206,-67.4358,-53.0769,-1.2822,92.0513,1.2822,79.231,25.2566,75.6411,-74.6155,77.1797,-30,63.3335,
-100.5128,-46.6666,-65.641,-46.1539,-11.7948,93.8461,11.7948,77.4359,38.9745,78.9745,-74.8717,78.9745,-33.8461,59.9999,
-107.9487,-49.4871,-73.0769,-47.4358,-3.3335,90,3.3335,79.7437,39.231,83.3335,-66.4102,81.7949,-26.4102,63.8462,
-108.9744,-47.9487,-79.7437,-51.0256,10.5129,91.0256,-10.5129,80.7693,36.6667,90.5129,-58.2051,85.8972,-15.1282,69.4871,
-101.282,-46.9229,-75.1279,-51.0254,3.8462,91.0259,-3.8462,77.6924,41.2822,90.5132,-60.769,84.3594,-15.1279,65.3848,
-98.718,-48.9746,-71.5386,-48.4617,-2.8206,87.9485,2.8206,79.2307,48.4612,96.6667,-64.8718,82.8206,-14.1028,61.282,
-104.3591,-50.0002,-72.5642,-42.8208,-1.282,85.3845,1.282,82.8206,49.9998,100.2561,-67.436,85.3845,-9.4873,63.3333,
-106.9232,-48.9745,-68.9745,-36.6666,-3.3334,84.3588,3.3334,79.7435,49.9999,94.1024,-67.4359,87.4359,-13.077,65.3846,
-98.2051,-44.3589,-65.8975,-33.0769,-7.4358,84.8718,7.4358,79.7434,45.3845,87.4358,-60.7693,88.9744,-21.282,61.7952,
-87.1794,-39.4871,-62.5642,-32.3076,-10.2563,88.7178,10.2563,87.1797,43.5898,86.6665,-57.4358,93.8462,-16.4102,60.5127,
-87.9487,-37.6924,-59.7437,-25.3845,-5.8975,92.5642,4.3589,87.949,48.4617,95.1282,-62.3076,95.1282,-4.3589,62.8206,
-102.9487,-46.1538,-74.7437,-27.1794,4.1025,80.5129,-10.6411,75.8977,45.6414,95.3845,-69.7434,84.6155,-4.1025,51.7952,
-106.1538,-51.282,-84.6152,-28.7178,-3.0769,74.3589,3.0769,74.3589,47.1797,88.7183,-70.769,82.0513,-5.6409,44.6152,
-100.7692,-55.1283,-81.7948,-33.077,-18.0769,75.1281,14.6154,73.5895,35.6407,78.2052,-83.3334,82.8204,-14.6154,44.359,
-93.8462,-44.1025,-78.4617,-31.282,-3.0769,89.231,1.5386,83.5898,30.769,93.2052,-76.4104,97.436,-9.231,59.359,
-101.282,-45.8972,-88.9741,-37.1792,5.8975,86.9233,-13.4614,83.8462,27.9487,102.8208,-73.5896,96.667,-5.8975,57.1797,
-98.4614,-44.6152,-83.5896,-26.1538,0,91.2822,0,90.769,37.436,99.4873,-75.8975,95.8975,-0.5127,61.0259,
-106.9231,-47.436,-88.4617,-26.9231,0.76929,96.6667,-0.76929,88.4617,34.1023,96.6667,-88.9744,88.4617,-8.9744,57.1794,
-110.5127,-43.8459,-96.1538,-33.0769,12.0513,96.667,-12.0513,85.8975,26.4102,95.1284,-90,84.8721,-13.5898,55.1284,
-102.3079,-42.3079,-92.5642,-34.1028,5.8975,94.1025,-13.0771,89.4868,26.4102,91.5381,-84.8721,90.5127,-5.8975,64.8716,
-105.1284,-48.2053,-94.3591,-33.8464,-2.0513,87.1792,-8.2056,91.7944,30.769,90.2563,-88.7183,93.8457,2.0513,67.1792,
-119.231,-54.6155,-103.3335,-37.6924,5.3845,77.6921,-22.3079,82.8206,21.282,80.7693,-99.231,86.9231,-5.3845,56.6667,
-120.7693,-59.7437,-105.3845,-42.3076,11.0256,78.718,-36.6667,74.1028,9.4871,72.0515,-100.2563,86.4104,-9.4871,57.1794,
-125.3848,-70.5129,-111.5386,-42.3079,2.3076,76.1538,-28.4614,69.4868,7.9487,77.1792,-100.7693,92.0513,-2.3076,59.7437,
-134.6155,-76.6667,-119.2307,-40.2563,-2.3076,71.5386,-13.4614,68.9741,16.1538,84.8716,-101.7949,91.5386,2.3076,56.1538,
-134.6155,-79.7437,-117.1794,-41.282,-1.7949,67.9487,-7.436,67.9487,20.769,83.3335,-93.5898,85.8975,1.7949,51.0254,
-130.2561,-81.5383,-113.3333,-34.8716,-7.1794,61.5388,-15.8972,69.2312,25.6414,88.2053,-78.9741,81.5388,7.1794,48.2053,
-130.2563,-84.1025,-118.9744,-34.3591,-10.2563,56.4102,-22.0513,67.6924,31.7949,95.8975,-72.8206,81.0254,10.2563,44.6152,
-137.1794,-87.9487,-131.5386,-42.3076,-0.25659,59.2307,-35.1282,63.3333,24.3591,94.6155,-86.9231,82.3079,0.25659,42.8206,
-136.9231,-84.1025,-133.3333,-45.1282,8.718,65.6409,-37.9487,63.0769,12.8206,92.3079,-101.9231,87.6921,-8.718,48.718,
-127.6921,-76.4102,-123.5896,-36.9231,5.6409,68.718,-29.2307,71.7952,11.7952,92.8206,-108.2051,94.8718,-5.6409,56.9231,
-124.1025,-74.8718,-119.4873,-30.2566,2.5642,69.7434,-30.7693,77.9485,11.282,91.7947,-107.6924,97.4358,-2.5642,60.5129,
-130.5129,-80.7693,-128.9744,-38.718,6.4102,57.6924,-33.0771,72.564,8.9741,88.4614,-117.6924,95.1279,-6.4102,57.1792,
-138.4617,-84.1025,-135.3845,-41.5386,8.2051,42.6924,-36.9231,66.6665,8.7178,85.1284,-122.5642,85.1284,-8.2051,46.6665,
-140.0002,-85.1284,-133.8464,-34.3591,9.7437,38.4614,-48.2053,68.2051,6.1538,86.1538,-117.436,77.9487,-6.1538,39.4868,
-139.7437,-87.9487,-137.6924,-32.0513,15.6409,41.7947,-39.7437,70.5129,4.8718,88.9744,-115.6411,80.2566,-4.8718,39.7434,
-145.1282,-92.3079,-146.1538,-35.3848,12.3076,31.2822,-24.7437,62.0513,4.6152,78.9741,-117.9487,76.9229,-4.6152,35.3848,
-151.282,-97.4358,-148.2051,-40,12.8203,23.5898,-28.7178,57.9487,2.564,70.769,-118.9744,72.3076,-2.564,28.7178,
-151.0256,-95.6411,-145.3845,-37.1794,21.7949,31.0259,-41.282,64.3589,4.8716,78.7178,-119.7437,80.769,-4.8716,32.564,
-151.282,-94.8716,-146.1536,-34.3589,11.7949,34.3594,-38.9741,62.5645,8.2051,78.9746,-122.051,87.1797,-8.2051,36.4106,
-154.6152,-101.7947,-150.5127,-41.7947,1.7949,30.5132,-43.8459,54.1025,3.8462,67.436,-123.8459,81.7949,-1.7949,36.667,
-152.0513,-101.282,-152.0513,-39.7434,16.7949,29.4871,-49.4873,56.1536,-4.3591,65.3845,-115.1282,81.7947,4.3591,39.7434,
-150.5129,-94.1025,-150,-29.4871,31.7949,32.5642,-37.1797,62.8206,-2.8206,71.0256,-109.4873,86.4104,2.8206,40.7693,
-152.0513,-92.564,-144.3589,-28.9744,24.3591,31.5383,-28.9744,61.282,3.8459,70.5129,-124.4873,83.8459,-3.8459,34.1028,
-151.5386,-93.5898,-140.2566,-27.949,32.5642,30.5129,-34.1028,58.718,7.4358,72.051,-139.231,86.4104,-7.4358,30.5129,
-158.718,-100.2563,-145.8975,-26.9229,45.8975,22.8203,-40.7693,51.0259,6.4102,65.8975,-131.5383,87.436,-6.4102,22.8203,
-168.2051,-107.1794,-155.3845,-27.6921,32.8206,9.7439,-46.6665,42.0515,3.0769,59.4871,-123.5896,76.4104,-3.0769,7.8203,
-163.0769,-104.6155,-157.436,-29.2307,28.718,10.2566,-44.1025,44.1028,4.1028,67.1794,-128.2051,75.3845,2.5642,-2.5642,
-154.3589,-98.9744,-154.3589,-27.6921,43.5896,16.9231,-43.0769,50.7693,3.0769,66.6667,-129.7437,79.9998,5.1282,-3.0769,
-147.6924,-88.718,-148.2051,-13.3335,47.1792,20,-47.1794,62.0513,7.6924,66.1538,-120,80.5127,11.2822,-7.6924,
-145.6411,-87.6926,-150.2566,-13.8462,41.0254,16.9229,-37.949,66.1538,13.8462,73.333,-116.4104,80.5127,17.9487,-17.9487,
-142.3079,-91.0259,-151.5386,-16.1538,53.0767,25.3843,-22.949,72.0513,16.1538,80.2563,-110.0002,84.8716,29.4868,-16.667,
-142.0513,-91.2822,-154.8718,-13.3333,61.5383,31.7947,-24.1028,75.8972,13.3333,77.9485,-103.5898,79.9998,32.3079,-16.9231,
-144.3589,-91.0256,-160.2563,-10,58.2051,24.8721,-39.1028,73.5898,10,77.1797,-106.9229,69.4873,28.4614,-27.9487,
-149.2307,-98.4617,-167.1794,-7.6921,57.9485,14.3591,-32.8206,64.1023,7.6921,73.8459,-111.7949,65.6409,28.2048,-35.8975,
-152.8203,-102.564,-170.2561,-8.2051,50.2568,11.7949,-20.5127,57.9487,8.2051,72.8208,-102.051,66.1538,29.7437,-34.8716,
-156.1541,-101.2822,-176.1541,-8.4614,35.2568,10,-32.0513,57.1792,8.4614,72.0513,-102.3079,62.3076,24.3589,-37.1797,
-155.3848,-104.1025,-180,-8.2053,50.2568,8.2053,-42.5642,57.4358,9.2307,68.718,-110.7693,54.8718,25.6409,-40.5129,
-154.3591,-108.2053,-181.5386,-6.6667,65.2568,6.6667,-43.0771,53.3333,8.2048,66.1536,-110.2566,51.282,31.282,-40.5129,
-151.0256,-106.4104,-186.4104,-1.7949,50.2568,1.7949,-42.3079,49.4873,6.9229,60.2563,-108.4617,54.6152,26.9229,-38.718,
-147.6921,-107.6921,-186.6665,0.51294,35.2568,-0.51294,-41.0256,47.1794,9.7439,54.3591,-115.3845,52.8206,23.0769,-40.5127,
-145.6409,-111.7947,-179.4871,-1.0256,37.4358,1.0256,-41.5383,44.6155,7.1794,53.3333,-124.1025,43.5896,25.6409,-43.5896,
-142.0513,-108.718,-177.436,-0.5127,50.769,1.5386,-46.1541,44.6152,0.5127,50.769,-117.436,44.6152,29.7437,-37.9487,
-145.3848,-104.8721,-184.3591,0.25635,43.8462,0.25635,-47.949,46.9229,-0.25635,45.3843,-109.4873,49.4868,29.4868,-30.5132,
-153.3333,-108.2051,-190.2563,1.0259,42.0513,-0.5127,-44.6155,47.1797,0.5127,46.6665,-112.3076,46.6665,29.231,-29.231,
-159.4873,-113.8464,-191.7952,-1.0256,57.0513,1.0256,-47.6926,46.6663,1.0256,50.7688,-113.3335,46.1536,30.2561,-27.1799,
-156.1536,-114.1023,-189.4871,-0.76929,64.8718,0.76929,-41.282,46.9231,3.8464,51.0256,-107.4358,47.949,30.5129,-23.3333,
-150.5127,-116.1538,-187.9487,0.76929,53.0769,-0.76929,-37.1794,41.7947,5.8977,52.0515,-105.8975,43.8459,33.0769,-25.3845,
-150.769,-118.9744,-188.2051,1.5383,64.6155,-1.5383,-51.282,41.0256,10.7693,53.8464,-107.6921,45.1282,35.3845,-24.1023,
-154.3589,-121.0256,-190.769,1.5386,79.6155,-1.5386,-50.2563,42.564,7.6924,49.7437,-107.1794,46.667,27.1797,-22.564,
-150.2563,-119.4871,-190.2563,0.5127,89.7437,-0.5127,-35.2563,41.5386,3.5898,51.2822,-101.5383,48.2051,24.6157,-24.1025,
-148.718,-120.5129,-188.718,2.5642,82.5642,-2.5642,-34.8718,35.3845,9.7434,60.5129,-100,51.7947,26.6667,-23.0769,
-156.9231,-125.1282,-192.3079,1.5386,78.4614,-1.5386,-49.8718,31.7949,11.7949,61.0254,-101.0256,53.3335,25.6411,-24.1025,
-156.9231,-124.6155,-191.282,-2.0513,81.5386,2.0513,-45.6411,32.3076,6.1538,48.2051,-98.4617,49.231,30.2563,-22.564,
-151.282,-120.5129,-187.1794,2.5642,82.051,-2.5642,-36.4104,26.6667,5.6409,37.9485,-98.9744,41.5383,29.7434,-21.5383,
-147.9487,-119.7437,-186.9231,4.3591,83.8459,-4.3591,-43.3333,26.9231,7.4358,38.718,-105.3845,39.2307,27.4358,-23.3333,
-145.6411,-124.6155,-189.2307,0.5127,88.7178,-0.5127,-43.5898,37.436,4.6152,38.9741,-111.7949,41.5386,33.8462,-23.0771,
-148.7178,-127.1794,-188.2051,2.5642,86.6667,-2.5642,-48.2051,47.1794,5.6409,38.4617,-110.2563,42.0515,34.3591,-19.9998,
-155.1282,-124.8718,-185.3845,6.9231,75.6409,-6.9231,-55.6411,47.9485,11.0256,44.3591,-108.4614,45.8972,25.3845,-19.2307,
-160.2566,-124.8718,-192.0513,6.4104,80.2561,-3.3333,-55.1284,44.3586,3.3333,37.6921,-114.1025,51.0256,21.7947,-25.3845,
-150.769,-119.9998,-191.7947,4.1025,90.7695,2.0513,-47.6921,45.6411,-2.0513,37.436,-113.8459,51.7949,24.1025,-20.5127,
-144.1025,-116.4102,-184.6152,2.0513,80.5127,-2.0513,-44.1025,44.1025,4.6157,48.2051,-105.1282,49.7437,20.5127,-16.4102,
-148.4614,-121.7949,-184.3589,3.8462,87.436,-3.8462,-42.3076,46.9233,8.9746,47.436,-97.1794,53.5898,23.3335,-20.769,
-153.8462,-130.7693,-192.8206,-0.51294,98.9744,0.51294,-57.3076,46.1541,2.051,43.0769,-100,54.8718,29.7434,-25.1282,
-152.5642,-127.436,-191.5386,0.76904,83.9744,-0.25635,-67.9487,40.769,0.25635,47.436,-109.4873,45.8975,32.564,-25.3848,
-154.6155,-125.3848,-187.949,3.8462,68.9744,-3.8462,-52.9487,38.2051,5.8975,46.4102,-117.1797,37.6919,30.5127,-24.3594,
-156.9231,-128.718,-194.8718,1.0256,70.7693,-1.0256,-48.2053,43.0769,4.1023,45.1282,-114.3591,44.1023,30.2561,-23.5901,
-148.9744,-126.9231,-192.0513,2.8206,80.7693,-1.282,-63.2053,42.3079,1.282,48.9744,-112.0513,47.9485,33.5896,-25.3845,
-144.1025,-126.6667,-186.1538,6.1538,65.7693,-6.1538,-52.8206,34.3589,7.1797,45.6411,-116.4104,41.0254,37.436,-27.6924,
-147.6921,-129.2307,-193.3333,4.6157,61.0259,-3.5898,-41.5383,35.8975,3.5898,38.4614,-116.9229,37.9487,32.8208,-29.2305,
-147.4358,-121.7949,-195.1282,3.8462,73.0771,9.4873,-56.5383,45.8975,-3.8462,45.8975,-106.9231,46.9229,36.1538,-24.3589,
-149.4871,-119.2307,-191.0256,2.3076,75.6411,7.9487,-67.9487,40.7695,-2.3076,44.3589,-107.9487,44.3589,40.7695,-23.8462,
-146.9231,-123.3333,-190.5127,7.436,68.4614,-2.8203,-53.0769,32.564,2.8203,36.6665,-114.6152,34.1025,39.7437,-30.5127,
-139.4873,-123.5898,-184.6155,9.7437,66.6665,-4.1025,-54.8718,31.7949,4.1025,35.8975,-111.282,34.8716,42.0513,-32.3076,
-142.3076,-121.282,-179.2307,7.436,75.1284,-0.25635,-62.8206,22.8208,0.25635,34.6152,-113.5896,33.0771,39.7437,-31.5386,
-142.3076,-117.6924,-182.3076,8.4617,79.2307,4.3591,-55.6411,21.282,-4.3591,37.1794,-120.2563,26.9231,31.5383,-34.6155,
-134.3591,-115.3848,-187.1794,8.718,71.282,6.6667,-55.3848,30.2561,-6.6667,39.9998,-120,24.1023,29.2307,-38.4617,
-131.0256,-108.9744,-190,6.9229,68.4614,11.0259,-66.4102,30.5127,-6.9229,32.0513,-114.1025,28.4614,34.1025,-36.1538,
-135.8975,-110.7693,-191.282,6.6667,75.8977,7.6921,-65.1282,22.0515,-6.6667,18.4617,-111.7949,27.6921,37.4358,-33.8459,
-130.5127,-119.2307,-179.7434,12.5642,76.1541,2.3079,-50.5127,23.3333,-2.3079,13.5896,-111.0256,22.8206,43.3333,-32.051,
-122.8206,-118.718,-174.1025,10.5127,66.4102,3.3335,-48.4617,24.3589,-3.3335,9.4873,-110,21.2822,39.7437,-28.4614,
-126.6667,-112.3079,-183.0771,7.1792,75.8975,10.2563,-54.8721,24.1025,-6.1538,6.1538,-110.7695,24.6152,35.8975,-22.0513,
-136.6667,-116.1538,-191.0256,9.4871,88.9744,10.0002,-59.2307,22.8206,-9.4871,10.0002,-113.0769,23.3333,37.1794,-24.3591,
-134.1028,-115.1284,-185.8977,10,90.5127,10,-55.6414,22.8203,-10,20.769,-106.4104,24.8716,35.1279,-24.8721,
-129.4873,-108.9744,-180.7693,8.4614,78.2051,8.9741,-58.718,24.3589,-8.4614,23.333,-101.7949,29.4868,27.4355,-19.7437,
-131.5386,-113.0769,-181.7949,11.5383,68.9744,4.8718,-62.8206,18.718,-4.8718,19.2307,-108.9744,28.9744,28.4617,-20.2566,
-133.3333,-118.9744,-182.5642,13.8459,82.5642,2.5642,-54.3589,12.3079,-2.5642,16.4104,-107.1794,26.1541,42.0515,-25.6409,
-127.4358,-114.1025,-178.7178,14.6152,90.5127,4.3589,-47.4358,14.1025,-4.3589,15.6411,-93.5896,26.9233,47.9487,-27.9487,
-120.2566,-112.5642,-172.0515,11.5381,75.5127,5.8975,-53.0771,10.5127,-5.8975,20.769,-94.1028,26.9229,33.5898,-25.3848,
-116.6667,-114.1025,-173.0769,13.0767,65.8975,4.8716,-62.8206,5.3848,-4.8716,22.8203,-103.8462,24.8716,25.3848,-26.9233,
-119.7437,-109.4873,-176.6667,19.2305,80.8975,3.8462,-64.8718,10.5127,-3.8462,21.7949,-105.8977,23.8462,31.0254,-27.9487,
-123.8462,-108.4617,-176.1538,17.6921,87.4358,4.8718,-64.3589,11.5383,-4.8718,21.282,-104.8718,24.8718,23.3333,-25.3845,
-116.4102,-104.1025,-172.3076,22.5642,73.3333,10.7693,-60.5127,7.1794,-7.1794,19.4871,-102.0513,31.7947,13.3333,-17.9485,
-108.9744,-97.6924,-166.4104,30,76.1538,13.0767,-47.436,8.4614,-8.4614,16.6665,-97.6924,38.2051,21.7949,-10,
-107.4358,-100.2563,-162.8206,30.5129,85.8972,6.9231,-39.7437,10.5129,-6.9231,19.2307,-95.6411,35.6409,26.9231,-13.5896,
-104.8718,-100.7693,-164.8718,30.0002,92.5642,6.4104,-50.5127,10.0002,-6.4104,23.3333,-95.6411,29.4871,22.8206,-21.282,
-104.1025,-97.9487,-168.2051,26.6667,91.7952,10.2566,-56.9231,8.718,-8.718,18.4617,-95.3845,27.1794,29.7439,-21.5383,
-108.718,-102.0513,-164.1025,28.718,81.5383,6.1536,-55.8975,5.6409,-5.6409,11.282,-96.9231,26.1536,34.3591,-20.5129,
-115.6411,-110.5129,-165.8975,31.0254,74.1025,0.76904,-59.2307,3.3335,-0.76904,6.4102,-100.7693,22.3076,24.8716,-24.8716,
-116.9231,-112.8206,-169.7437,26.6665,84.1025,4.6152,-46.1538,2.564,-2.564,6.1538,-102.5642,17.436,23.5898,-25.6411,
-111.7949,-109.2307,-169.7437,28.2053,94.8718,5.1282,-33.8462,0.51294,-0.51294,12.3079,-92.8206,17.4358,31.282,-20.5129,
-106.9231,-106.4102,-165.8975,34.6155,83.3333,-0.25659,-45.8975,0.25659,14.4871,22.8206,-77.8206,29.9998,33.5896,-22.8206,
-106.4102,-102.8203,-159.2307,37.6926,68.9744,-0.76929,-44.3589,0.76929,26.4104,27.949,-62.8206,35.1282,36.1541,-25.3845,
-106.9229,-101.7947,-157.6921,36.1538,76.1538,0.25635,-34.6152,-0.25635,21.2822,26.4106,-54.6152,32.0513,40.7695,-18.7178,
-109.7437,-102.0513,-161.5386,36.4102,84.1025,0,-48.2053,0,15.3843,27.1792,-62.0513,40,40,-10.7695,
-115.8972,-102.0513,-165.1282,42.0515,76.9231,0.51294,-55.8972,-0.51294,14.8718,29.7439,-67.1794,47.6926,34.8718,-8.718,
-114.6152,-101.282,-163.3333,41.282,72.5642,0.76929,-44.3589,-0.76929,12.0515,24.8718,-73.5896,40.7693,33.0769,-9.9998,
-110.5129,-98.718,-161.282,37.1797,78.7178,0.25635,-43.3333,-0.25635,0.25635,14.1025,-80.7693,30.5127,24.8716,-13.0771,
-106.6667,-93.8462,-159.4873,42.5642,89.2307,4.6155,-45.6411,0.51294,-0.51294,17.9485,-75.8975,35.8972,17.9485,-13.3333,
-107.4358,-94.1025,-162.8203,42.8206,85.8977,2.8206,-52.564,-2.8206,8.9744,23.8464,-76.1538,39.7439,13.5901,-16.1536,
-108.4614,-94.1025,-163.8462,39.7434,77.1794,5.8977,-61.7949,-3.3333,3.3333,14.6155,-80.2563,34.6155,10.0002,-20.7693,
-98.2051,-86.9231,-150.5129,45.3845,81.282,16.6667,-46.7949,0.25659,-0.25659,9.9998,-66.9231,36.6667,23.3333,-16.6667,
-91.0256,-82.3076,-144.8716,48.4617,87.949,15.1282,-32.564,-0.76929,0.76929,15.6414,-60.769,38.2053,35.6414,-17.1794,
-94.1025,-81.282,-144.3589,50.0002,92.0515,19.2307,-47.564,-0.76929,0.76929,18.718,-66.9229,35.6414,27.4358,-16.6667,
-99.231,-86.9233,-144.8721,48.4612,88.4612,26.4099,-59.7437,-3.3333,3.8459,13.0769,-71.0259,27.4358,12.4358,-17.1794,
-88.9746,-82.3079,-145.3848,51.0256,94.615,26.4099,-44.7437,-1.282,13.5896,23.8459,-61.2822,37.1794,1.282,-13.0769,
-90.5129,-83.8464,-155.1284,40.2563,89.4868,17.1792,-48.4617,-5.8975,7.4355,34.6152,-59.7439,47.4355,5.8975,-12.0513,
-96.4104,-88.2051,-147.6924,43.0769,79.9998,23.5896,-58.4617,-3.5896,3.5896,33.3333,-57.436,48.718,4.1023,-9.2307,
-101.2822,-92.0513,-142.3079,51.0256,84.8718,25.3845,-50,0.76929,4.3591,28.4617,-58.718,43.8459,-0.76929,-19.231,
-104.1028,-91.7952,-150.7695,47.6919,97.9487,16.9229,-40.0002,-2.0513,2.0513,31.7944,-62.0515,46.6665,6.6665,-28.7183,
-95.8975,-86.1541,-147.1797,47.6924,99.4873,19.4873,-40.5129,-2.564,2.564,34.8716,-58.9744,51.7949,15.3848,-30.2566,
-88.2053,-84.1025,-140,46.1536,92.3074,24.1023,-44.1025,-1.0256,1.0256,31.7947,-55.3848,47.6921,11.282,-42.0513,
-93.3335,-81.5386,-143.0769,47.6924,90.769,25.6411,-41.5386,0,0,30.2563,-54.3591,45.6411,10.769,-53.8462,
-100.0002,-84.1028,-147.6924,49.2305,80,27.1792,-46.1541,4.1025,-4.1025,21.0254,-61.0259,41.5381,13.333,-54.8721,
-96.4104,-89.231,-145.1284,44.1023,70.7693,23.5896,-51.7952,5.1282,-5.1282,15.3845,-69.231,33.3333,15.8972,-57.949,
-93.8462,-85.6411,-146.1538,45.1282,81.0256,21.0256,-50.2566,2.5642,-2.5642,21.0256,-65.1282,32.8206,25.6409,-68.718,
-98.2051,-84.8718,-153.0769,45.3845,86.9231,23.8459,-54.1025,1.282,-1.282,16.6667,-60.2563,33.5896,34.1028,-80.2563,
-95.6411,-88.9744,-151.0256,41.7947,72.5642,22.8206,-45.8975,3.3333,-3.3333,10.5129,-64.3589,26.9231,32.5642,-85.3845,
-86.9231,-86.9231,-145.8972,47.9487,66.4102,18.7183,-38.2051,4.3589,-4.3589,14.6157,-61.282,22.8208,32.0513,-86.9231,
-86.1538,-85.1282,-152.3079,48.2048,81.4102,17.9485,-53.2051,-1.0256,1.0256,18.9744,-53.3335,24.1023,39.4871,-89.7437,
-84.8718,-85.8975,-156.1541,42.8206,95.1282,17.6921,-53.5898,-3.3333,3.3333,21.7947,-50,26.9231,43.3333,-88.9744,
-77.1794,-87.9487,-150,45.8975,95.1284,17.1797,-38.5898,-0.25635,0.25635,27.9487,-44.3589,32.564,43.3335,-83.8462,
-79.2307,-90.5127,-153.0769,51.0256,84.3591,17.6921,-37.6924,0.25659,-0.25659,25.3845,-41.282,35.1282,44.8718,-85.8975,
-87.436,-86.9231,-158.2053,49.4871,77.1794,14.6155,-52.6924,-1.282,1.282,21.282,-41.2822,38.718,46.4099,-86.9231,
-87.6924,-84.6155,-153.3335,48.718,77.4358,11.7947,-44.1025,-3.5896,3.5896,23.0769,-35.8975,43.5896,45.6409,-81.0256,
-85.1284,-87.6926,-154.8721,55.3845,73.3333,19.4871,-31.7952,-5.1282,5.1282,19.4871,-34.8721,43.0769,47.1794,-81.5386,
-81.0256,-81.5386,-158.4617,56.9231,77.9485,27.6921,-30.7693,-2.5642,2.5642,19.4871,-40,39.4871,49.2307,-81.5386,
-70,-68.9744,-150,55.6411,92.9485,30.5127,-30.5129,-1.7949,1.7949,26.4102,-34.6155,40.2563,49.4873,-68.4617,
-69.2307,-73.3333,-146.6667,61.5383,96.9231,28.718,-33.8462,-5.6409,5.6409,28.718,-29.2307,44.6155,51.7947,-63.0769,
-78.2051,-83.8462,-151.5386,63.3333,81.9231,25.8972,-42.3076,-7.4358,7.4358,23.8459,-39.7437,46.9231,50.5129,-72.0513,
-75.3845,-76.4102,-148.718,62.564,66.9231,27.1797,-43.5896,-6.6665,6.6665,21.0259,-48.718,43.5898,48.2051,-68.718,
-63.5898,-61.4102,-137.4358,66.6667,81.9231,37.4358,-28.5896,-5.6409,5.6409,28.2053,-40,41.0256,56.4104,-53.718,
-68.4617,-61.282,-139.2307,62.3079,95.1282,40.7693,-17.6921,-2.8206,2.8206,32.051,-37.6924,43.3333,61.282,-56.6667,
-73.3333,-65.6411,-149.7437,55.3848,80.1282,31.2822,-32.6921,-4.1025,4.1025,24.6152,-46.6667,42.0513,54.3589,-66.1538,
-65.6409,-60,-144.6152,57.436,69.7437,31.2822,-47.6921,-6.6665,6.6665,21.0259,-44.1025,38.9746,54.8721,-55.8975,
-61.0259,-54.3591,-131.7952,63.5896,84.7437,40.5125,-32.6921,-1.0256,1.0256,29.2307,-33.8464,46.1536,63.5896,-48.2053,
-60.5127,-56.9229,-133.8459,63.0769,95.8977,39.4875,-30.2563,3.0769,-3.0769,35.385,-33.8459,48.2053,63.5901,-51.7947,
-58.2051,-60.2563,-136.1538,59.7434,80.8977,34.6155,-37.1794,-1.7947,1.7947,37.6921,-37.6924,45.3845,61.7947,-50.5129,
-56.9229,-57.4358,-127.1794,65.1284,70.2563,38.4619,-24.1025,-6.1538,6.1538,41.5386,-36.4102,52.3076,62.0513,-45.6409,
-59.2307,-58.718,-126.4102,64.8721,74.6152,40.769,-30,-7.9487,7.9487,39.231,-39.2307,52.564,58.7178,-48.4614,
-61.7949,-64.3589,-133.5896,63.3335,76.6665,31.0259,-40.7693,-8.4614,8.4614,35.6411,-42.8206,39.231,53.5898,-53.5896,
-60.2563,-63.8462,-130.5127,64.8721,72.564,25.3848,-25.8975,-8.4614,8.4614,37.1797,-34.1025,37.1797,55.6411,-49.4871,
-58.718,-62.3079,-126.4104,61.2817,71.5386,28.9741,-14.1025,-10.5127,10.5127,39.7437,-24.3591,45.8975,61.7949,-41.7949,
-58.9744,-60,-127.6921,61.5383,74.3591,34.8718,-19.4871,-13.3333,13.3333,39.4871,-24.6152,47.1794,65.6414,-38.4614,
-62.8204,-58.7179,-125.8973,64.8717,68.4615,30.5128,-19.7435,-16.1539,16.1539,34.1027,-31.0255,41.795,64.8717,-41.2821,
-61.795,-59.2308,-119.7438,69.4872,54.6151,28.974,-15.1283,-17.6925,15.1283,27.9486,-32.0514,39.2308,60.7689,-42.8207,
-55.1282,-54.6155,-114.6155,72.5642,66.9231,42.3079,-17.6924,-12.5642,12.5642,37.1794,-22.8206,45.3845,64.8718,-35.1282,
-57.1797,-53.0771,-114.6155,63.3333,77.1794,47.4358,-23.8464,-11.0256,11.0256,44.8718,-19.231,47.4358,68.4612,-31.0259,
-60.2563,-52.0513,-113.5898,64.8716,62.1794,41.2822,-22.3076,-13.5898,13.5898,41.2822,-24.8718,41.7949,65.8975,-34.1025,
-56.6666,-51.0255,-115.641,74.6154,50.5128,37.1798,-18.7179,-14.6154,14.6154,42.8204,-26.41,41.2823,62.3077,-38.7179,
-56.9232,-53.3334,-119.4872,70.2562,59.9999,39.4872,-21.0258,-12.8207,12.8207,45.1283,-21.0258,48.7181,62.0511,-38.4615,
-62.8204,-53.0768,-118.205,63.8463,55.6412,38.2052,-23.8461,-12.5641,12.5641,38.7179,-24.3588,49.4874,64.359,-40.2562,
-64.359,-53.5897,-115.1283,65.8976,43.8463,33.59,-22.8204,-14.6154,14.6154,41.2819,-31.0258,43.3331,65.8976,-43.8461,
-64.359,-57.1796,-114.1027,67.4357,46.4103,34.1027,-30.0001,-14.1027,14.1027,45.3844,-28.4615,43.8463,63.3331,-44.359,
-65.3844,-58.205,-118.7179,65.3846,41.2821,35.1283,-29.4872,-13.5897,13.5897,35.641,-25.3844,46.4105,64.8719,-45.3844,
-62.564,-55.3845,-120.5127,66.1541,31.282,33.3333,-23.0769,-14.8718,14.8718,28.718,-30.2563,40.5129,71.282,-47.1794,
-63.0769,-56.4102,-114.3589,66.1538,39.4873,30.7695,-33.3333,-14.3589,14.3589,34.3589,-28.2051,38.9746,67.6924,-47.1794,
-65.3846,-60.7692,-112.0511,62.3075,48.9745,30.5131,-39.2308,-13.5897,13.5897,39.7435,-22.3077,43.8461,60.7694,-47.4359,
-60.2563,-55.6411,-112.564,65.8975,51.0259,35.1284,-24.2308,-12.0513,12.0513,40.2563,-22.3076,42.3076,66.9233,-44.3589,
-53.3333,-49.7437,-107.6924,68.2053,55.8972,39.4871,-10.2566,-8.2053,8.2053,41.5383,-17.4358,43.5896,74.8718,-35.3845,
-56.4104,-52.3079,-105.6411,63.5896,59.4871,40.5125,-23.5898,-9.7439,8.718,45.1282,-8.718,50.2561,74.8718,-32.3079,
-61.5383,-53.8459,-107.1794,65.6414,52.8206,42.0515,-30.2563,-12.3074,10.7693,52.8206,-10.7693,50.7693,73.3333,-33.8459,
-64.3591,-53.0769,-108.4617,69.9998,42.8206,37.1794,-28.9744,-11.5383,11.5383,56.1536,-17.1797,48.4617,75.1282,-28.9744,
-65.8973,-49.9999,-111.5385,72.0511,44.8719,31.5385,-24.8717,-13.5897,13.5897,57.6923,-16.1539,49.4872,77.1796,-27.9486,
-64.8719,-52.0514,-111.0258,68.4613,50.5126,32.0511,-21.795,-15.6412,13.077,61.2821,-13.077,46.41,76.1537,-36.6669,
-62.3079,-59.231,-108.4617,63.333,35.5126,31.5381,-32.5642,-16.1541,12.0513,60.769,-12.0513,44.8716,77.6919,-39.231,
-62.5641,-61.0258,-111.7948,65.1283,20.5126,22.0511,-36.4103,-19.4872,13.3334,53.3334,-13.3334,46.6664,74.8719,-38.9745,
-69.231,-59.4873,-110.7693,65.1282,28.2048,14.3591,-21.4103,-23.5898,16.9231,48.718,-14.3591,45.6409,70.2561,-43.0769,
-74.3589,-60.5127,-106.6665,62.0515,33.8464,12.8206,-16.9231,-27.1794,12.8206,47.6921,-12.8206,40.0002,71.7952,-44.1025,
-71.5386,-61.7949,-110.5129,61.282,22.8206,18.2048,-31.0256,-28.9744,8.4617,45.3845,-8.4617,33.5896,74.6155,-42.3079,
-75.6411,-66.9231,-114.1025,55.1279,13.5898,18.2051,-37.1794,-29.4873,9.4873,38.2051,-9.4873,24.3589,69.4873,-51.0256,
-72.3079,-64.1028,-106.1541,59.4868,13.333,11.7949,-26.6667,-26.6667,10.2563,41.5381,-10.2563,23.5894,68.7178,-49.7437,
-61.2822,-57.6924,-98.2053,65.8975,13.5898,15.6411,-30.5129,-23.8462,7.9487,53.0767,-7.9487,31.0254,72.564,-36.1541,
-62.3076,-59.7437,-100.2563,61.282,13.5896,20.7693,-40.7693,-20.7693,6.9231,53.5896,-6.9231,29.4871,72.0515,-34.1025,
-71.0256,-61.7949,-104.8718,58.2051,12.0513,17.6924,-25.7693,-19.7437,10,50,-10,28.4614,72.0513,-37.1794,
-76.6667,-58.718,-106.4104,59.7434,8.4617,13.0769,-10.7693,-23.3335,8.9744,50.5129,-13.0769,34.1023,68.9744,-31.0256,
-73.0769,-51.5386,-100.2566,65.3848,12.564,16.6665,-23.8462,-19.7437,6.4102,55.1279,-6.4102,44.8716,69.4873,-20.2566,
-71.5386,-50.5129,-97.6924,60.2563,13.5894,18.7178,-38.8462,-19.7439,5.8975,56.1538,-5.8975,48.4614,71.5381,-19.231,
-70.2563,-50.2563,-96.4102,56.4102,15.8975,16.4102,-38.4617,-23.5898,8.7178,55.3848,-8.7178,46.1538,65.1284,-25.1282,
-68.7178,-53.3333,-94.3589,58.4617,13.8464,13.3333,-28.7178,-27.6921,7.1794,46.1541,-7.1794,38.9744,58.9744,-35.3845,
-63.5898,-52.8206,-90.2563,59.4871,13.3333,15.3845,-28.2051,-26.1538,6.1541,39.4871,-6.1541,30.7693,65.1282,-38.9744,
-55.641,-49.9999,-80.2562,65.3846,11.5385,21.2821,-30.5126,-22.8204,12.0516,46.4105,-11.5385,28.4618,72.5643,-31.0255,
-49.9999,-45.8973,-70.5128,72.0511,5.8973,23.8461,-21.2819,-20.7692,21.7948,55.1283,-5.8973,37.1796,73.077,-19.7435,
-60,-49.7437,-83.5896,65.6411,2.564,15.3848,-19.4871,-28.2051,13.8462,47.1797,-2.564,37.9487,65.6411,-24.1025,
-66.9231,-48.4614,-91.0256,64.8716,4.8716,19.231,-26.4102,-25.8975,3.8462,46.9229,-3.8462,35.1284,73.0771,-24.8718,
-68.4617,-47.436,-87.436,64.3589,0.76904,21.7949,-25.8975,-22.8206,11.5386,53.5898,-0.76904,35.6411,84.3589,-19.7437,
-74.1027,-57.6923,-93.077,59.7435,-5.3846,6.7949,-30.5128,-37.1796,19.2308,47.9486,6.41,31.5385,74.6151,-28.4615,
-62.5643,-55.8976,-84.6156,65.1281,-2.0514,2.0514,-24.6156,-35.8976,26.1539,50.2565,21.41,31.7946,70.2565,-35.8976,
-48.718,-47.1794,-72.3076,66.1541,-7.1794,7.1794,-9.6156,-28.718,21.5383,45.6409,16.9231,28.2053,70.7693,-42.5642,
-44.6155,-38.9744,-70.7693,69.2307,-0.51294,11.282,-7.6924,-25.6411,13.8459,37.4358,1.9231,25.6409,67.6921,-40,
-47.6924,-34.3589,-72.3076,70.2563,2.564,16.4102,-22.6924,-23.0769,6.6665,36.4102,-2.564,29.7437,63.0771,-33.8462,
-42.5641,-23.077,-62.5641,74.8717,-8.2052,25.1281,-31.7948,-11.7948,9.7438,48.2052,8.2052,44.7437,72.3077,-22.5641,
-44.8718,-28.9744,-67.9487,69.4873,-15.1282,16.6665,-16.7948,-13.5896,13.0771,52.564,6.4102,59.231,75.6411,-11.5383,
-52.5642,-43.3335,-80.2566,64.8716,-19.7437,6.4102,-10,-22.3079,17.1792,54.6152,5.8975,58.7178,74.1025,-5.8975,
-54.8718,-43.5898,-82.0513,69.7434,-31.7949,10.7693,-24.6155,-18.4617,21.0256,57.9485,10.7693,56.9231,72.8206,-10.7693,
-49.231,-33.8462,-74.8718,72.8203,-31.7949,21.5386,-12.3079,-10.7693,24.6152,62.564,9.7437,60.5127,74.8716,-9.7437,
-38.4615,-28.2052,-67.1796,70.7692,-39.9999,22.0514,-10.7692,-11.7948,21.0255,64.6154,4.1027,57.4357,67.6925,-4.1027,
-31.7949,-23.5898,-62.5642,71.7949,-53.8462,21.0254,-25.7692,-10.2566,12.8203,62.564,5.6411,53.8462,57.9487,-5.6411,
-38.2051,-24.8718,-69.4871,66.4102,-46.4102,22.8208,-28.9744,-5.8975,5.8975,56.1538,5.8975,53.5898,55.1284,-12.0513,
-35.3845,-21.0256,-65.6409,68.2053,-36.4102,27.1794,-15.3845,-3.0769,7.6926,54.8718,3.0769,55.8977,63.5896,-6.1536,
-28.2053,-18.4617,-58.4617,69.2305,-51.4102,20.5127,-21.0256,-9.231,7.1792,45.6411,0.5127,51.7949,68.7178,-0.5127,
-37.9485,-25.6409,-64.1023,67.6924,-66.4102,10.7695,-31.7947,-14.3589,5.1284,34.8721,4.1025,47.1797,64.6157,-4.1025,
-52.9485,-36.9231,-76.4102,68.7178,-74.3589,6.1538,-23.5896,-16.4102,9.7437,38.4614,6.6665,48.2051,63.0771,-6.1538,
-53.5896,-41.282,-73.5896,73.0771,-77.6921,5.8975,-16.1538,-16.1538,20.7695,52.564,7.436,55.1284,67.9487,-5.8975,
-44.1027,-38.9745,-64.1027,77.4357,-87.1796,10.7692,-26.6666,-10.7692,27.6925,67.1793,11.795,62.0514,69.7438,-12.8204,
-51.7948,-41.0255,-71.2821,68.7179,-89.2308,10.2565,-33.8461,-10.2565,18.4615,72.3077,12.3077,62.0514,61.5387,-26.1537,
-48.718,-33.8462,-72.8206,67.6921,-76.9231,11.282,-18.9744,-9.2307,11.282,77.4358,9.2307,62.051,58.4617,-30.7693,
-33.718,-19.7437,-61.7949,75.6409,-72.5642,17.1794,-15.6411,-4.3591,17.6921,82.3079,4.3591,56.6667,55.1282,-36.1538,
-28.4614,-18.718,-59.7437,71.5386,-85.3845,13.0771,-27.4358,-1.2822,19.7437,77.6924,1.2822,44.3589,47.9487,-51.1538,
-42.0513,-23.0769,-67.1794,64.6157,-87.6921,2.0513,-23.0769,-2.0513,9.231,63.0771,5.6411,33.8462,55.8975,-66.1538,
-44.1028,-25.6411,-69.7437,60.5127,-84.1028,2.0513,-11.7949,-2.0513,7.6924,51.7949,14.3589,27.6924,70.8975,-81.0259,
-40.0002,-30.2566,-69.7439,62.0513,-99.1028,2.0513,-8.2051,-2.0513,16.4102,46.1538,14.8716,29.7432,82.564,-78.9746,
-38.718,-29.4871,-67.9487,73.0771,-107.9487,0.25635,-0.76929,-0.25635,26.4102,42.8208,16.6665,41.2822,89.4873,-73.5896,
-38.2052,-31.0255,-69.4872,74.1024,-92.9487,1.2821,-1.2821,-1.7948,28.4618,41.2821,23.3334,43.8461,93.077,-68.4615,
-39.4873,-36.4104,-75.8975,70.769,-97.436,1.5386,-7.6924,-1.5386,24.6152,38.4614,26.6665,37.4355,92.3076,-68.2053,
-43.8462,-35.6411,-81.7949,68.9744,-112.436,-0.76929,-10.0002,0.76929,15.1282,34.6155,19.7434,36.6667,86.9231,-74.6155,
-44.6155,-31.7949,-89.7437,63.5896,-127.436,-1.0256,-18.4617,1.0256,3.5896,38.4612,7.1794,36.4099,74.3586,-78.9744,
-39.7434,-32.564,-93.0769,60.7695,-112.436,1.7949,-25.8975,4.3589,-1.7949,52.5645,1.7949,35.1284,60.2563,-80.2563,
-39.2307,-34.1025,-88.4617,61.2822,-105.8975,-1.7949,-25.3848,7.9487,3.3335,64.3589,1.7949,35.1284,58.2051,-78.718,
-36.9231,-28.2051,-79.4871,68.7178,-120.8975,-5.1284,-20,5.1284,9.7437,69.7437,5.1284,40.5127,66.1538,-65.6411,
-27.6924,-24.6155,-72.8206,74.3586,-129.7437,-1.0256,-8.2053,1.0256,13.8459,76.4099,13.8459,49.2307,73.8459,-50.6411,
-26.4102,-33.0769,-71.0256,73.0771,-114.7437,0.25635,-3.3335,-0.25635,18.7178,76.1538,19.231,48.9746,80.769,-46.4102,
-33.0768,-41.2821,-67.4359,80.7692,-106.4103,-1.7948,-9.9999,1.7948,31.5387,65.3849,25.3849,42.8204,95.6412,-51.0255,
-32.3077,-46.6666,-65.1283,85.1283,-115.3846,-1.0255,-0.51282,0.51282,41.0258,52.3075,33.3334,37.9486,106.6669,-58.4615,
-36.9229,-53.3333,-74.3589,72.3079,-130.3846,-9.2307,9.2307,-10.769,26.0258,37.3075,22.0515,22.9486,91.6669,-73.4615,
-34.8718,-38.3333,-71.282,72.8203,-121.0256,-4.1025,1.5386,-1.5386,11.2822,28.7178,18.4614,18.4614,81.5386,-67.6924,
-40,-24.1025,-75.3845,73.8464,-125.6409,-1.5383,-13.4614,1.5383,7.6926,15.8977,5.6414,13.3333,73.3333,-68.7178,
-34.1025,-23.8462,-74.6152,77.6924,-135.1282,4.8721,-17.1794,1.7949,7.9487,11.5386,-1.7949,16.6665,67.436,-70.5127,
-26.6665,-25.6409,-70.769,70.7695,-132.3076,6.1538,-10.2563,1.5386,3.5898,22.5645,-1.5386,22.5645,60,-57.4358,
-29.4871,-24.8716,-71.0254,67.9487,-140.769,1.7949,-13.5894,2.8208,4.3594,37.5645,-1.7949,26.4106,51.5386,-46.4102,
-34.3591,-25.6411,-72.3079,71.282,-146.1541,-1.0256,-14.8718,2.5637,9.7434,52.5645,1.0256,33.8459,56.4099,-42.5642,
-28.9741,-25.3845,-65.3845,71.5388,-131.1541,-1.282,-7.4358,1.282,17.1794,67.5645,14.1028,48.4617,71.4099,-33.0769,
-15.3845,-23.5898,-54.3589,76.9231,-116.1541,-1.0256,0.51294,-0.51294,24.1028,82.5645,23.0769,52.3079,85.6409,-27.1794,
-11.7948,-27.6923,-54.8717,74.359,-125.1283,-6.6666,6.6666,-6.6666,22.5641,78.9742,18.4615,37.3079,86.6666,-38.4615,
-20.0001,-29.2308,-57.9489,71.2819,-112.3077,-13.3334,6.1539,-6.1539,22.0514,65.1281,17.9484,22.3079,89.7433,-48.2052,
-20.0001,-17.9489,-51.2821,79.4872,-104.1027,-8.7179,-2.5641,2.5641,30.7694,62.0511,26.6664,24.1024,91.2821,-41.5385,
-14.6152,-14.1025,-54.6152,79.231,-119.1027,-3.8462,-5.8975,3.8462,25.3848,51.0259,23.8462,23.3335,80.769,-40.7693,
-11.282,-18.4614,-59.4871,71.2825,-127.6921,-3.0769,-5.1282,3.0769,13.3337,36.4104,17.949,18.4617,76.4104,-39.9998,
-11.282,-17.9487,-51.7949,71.7949,-114.8718,-2.0513,-6.6665,2.0513,15.3848,31.2822,18.9746,24.6152,78.4614,-33.8462,
-12.3079,-17.436,-52.8206,78.4614,-113.8462,-2.0513,-0.5127,0.5127,18.4614,29.7437,23.0767,28.2051,77.9487,-31.2822,
-16.4102,-21.5383,-62.051,71.2822,-119.4871,-4.1025,0,0,10.2568,30.2568,18.9746,21.5386,75.3848,-32.8203,
-14.8718,-16.9231,-51.7949,68.7178,-116.4104,-2.0513,-2.0513,2.0513,16.9229,45.2568,18.9741,24.6152,80,-32.3079,
-12.5642,-11.5386,-45.8975,76.1541,-113.5898,0.25659,-5.8975,-0.25659,20.7693,60.2568,22.3079,33.0769,84.3591,-37.1794,
-16.1538,-16.1538,-50,75.1282,-128.5898,-0.25659,-3.8459,0.25659,15.6409,75.2568,21.282,33.0769,81.282,-38.718,
-25.6409,-29.2307,-48.718,64.1025,-143.5898,-11.282,5.6411,-5.6411,11.7949,77.436,11.2822,18.4614,66.282,-44.6152,
-24.6155,-30.2566,-48.2053,62.051,-128.5898,-12.8208,12.3074,-9.2307,12.3074,73.3333,9.2307,15.3845,52.3074,-45.1284,
-18.9741,-22.564,-53.8459,66.1541,-113.5898,1.0256,-2.6926,-1.0256,13.8464,74.8718,19.4875,29.2312,63.5901,-33.8459,
-24.6155,-24.6155,-56.4104,64.6152,-128.2053,0,-17.6926,0,12.3076,65.1279,20,28.2051,64.6152,-34.3591,
-22.5642,-24.6155,-53.3335,61.5386,-129.231,-10.7693,-2.6926,-4.6152,15.8975,51.7949,22.564,16.4102,61.0254,-38.4617,
-18.9746,-22.5642,-58.4617,58.9744,-117.436,-13.3335,9.2307,-9.2307,11.282,40.5125,24.1023,12.3074,63.5896,-40.0002,
-13.5898,-16.1538,-51.0256,70,-124.8718,-2.8203,1.7949,-1.7949,9.4873,44.8716,23.8462,20.2563,71.0254,-36.6667,
-18.2051,-22.8203,-49.4871,63.8462,-133.5896,-5.8975,3.8462,-3.8462,5.8975,42.8208,13.5898,17.1797,66.4102,-39.7434,
-16.6667,-18.2053,-54.6155,59.7437,-118.5896,-1.7949,1.7949,-1.7949,7.9487,43.8462,18.2051,21.2817,71.5386,-33.5898,
-20,-12.3076,-57.4358,63.5898,-124.6152,1.5386,-6.1538,-1.5386,10.7695,49.231,18.9746,20,69.231,-35.8972,
-19.4871,-11.7947,-51.2817,65.1282,-137.9485,-3.0769,3.0769,-4.1023,9.7439,61.0256,13.8464,16.9231,64.1028,-36.9229,
-11.7947,-7.6921,-48.7178,64.1028,-122.9485,-3.0769,1.0256,-1.0256,8.718,73.3333,18.9744,29.7439,66.6667,-23.5896,
-14.8716,-9.7437,-56.4102,56.4106,-107.9485,-2.0513,-13.9744,2.0513,5.1284,71.2822,18.9746,34.8721,63.5898,-23.0767,
-19.4871,-11.7947,-55.3845,57.4358,-116.9231,-3.0769,-14.3591,3.0769,4.6155,66.6667,10.7693,25.1282,60.0002,-29.7437,
-23.5898,-12.3079,-53.3335,57.9485,-125.1284,-7.6926,0.64087,-2.5642,6.1536,63.0769,8.2048,22.5642,63.5896,-26.6667,
-19.4871,-11.7947,-47.6921,60.5129,-119.4871,-7.1794,1.5383,-1.5383,12.8206,66.1541,17.4358,27.1794,75.8977,-22.564,
-9.2307,-10.2563,-39.4871,69.7437,-127.1794,-6.1538,-4.1025,4.1025,20.5132,67.1797,23.5898,23.5898,81.5386,-23.0767,
-16.4104,-16.4104,-47.1794,62.5642,-135.3848,-15.3848,3.5896,-3.5896,14.8718,52.1797,15.3845,12.3079,71.7947,-24.6155,
-22.8206,-18.2053,-47.436,56.1536,-120.3848,-17.1797,14.1023,-9.4871,12.5642,40.2561,9.4871,10.5129,63.8459,-22.3079,
-11.282,-12.8206,-35.3848,59.4871,-105.3848,-9.7434,11.7947,-8.2053,13.8459,46.6667,8.2053,10.7693,64.1023,-24.6155,
-4.8718,-8.9744,-35.6411,61.282,-108.9744,-7.4358,3.3333,-3.3333,14.6155,55.6409,8.9744,12.0515,60.7693,-22.3076,
-15.8972,-12.8206,-43.0769,57.949,-123.9744,-13.8459,3.0769,-3.0769,7.6926,45.1282,7.6926,10.7693,54.8718,-18.9744,
-12.0513,-13.0767,-36.6665,56.6665,-125.8975,-10.5127,9.4873,-7.436,7.436,41.7949,15.6411,10.5127,64.3589,-20.7693,
-2.3076,-6.9233,-33.0769,57.1792,-110.8975,-5.3848,2.3076,-12.564,17.6924,53.0767,20.2563,10,67.9487,-25.3848,
-4.3591,0.76929,-32.5642,62.3074,-97.1797,-4.8718,-0.76929,-2.8206,27.9485,61.7947,23.8459,17.6921,67.9485,-14.6155,
-14.6155,-3.3333,-34.6152,58.2053,-112.1797,-11.5383,2.3079,-2.3079,17.1794,57.1794,23.8464,19.7439,66.4104,-10.5129,
-11.282,-7.1794,-34.8718,54.8718,-108.2051,-9.2307,9.2307,-8.2053,7.1794,58.4617,25.6409,16.4104,68.718,-13.8459,
-6.6667,-8.718,-34.8716,54.3591,-93.2051,-5.1282,5.1282,-8.718,7.6926,57.949,26.6667,14.8718,71.7952,-14.3586,
-10.5127,-2.3076,-31.0256,63.8462,-100.7693,-2.3076,-0.25635,0.25635,12.564,60.2563,24.8716,22.3076,70.5127,-5.8975,
-13.3333,-2.5642,-31.282,66.6667,-115.7693,-9.2307,-0.51294,0.51294,11.282,62.0515,15.8977,19.4871,62.0515,-11.7947,
-6.1541,-6.6667,-22.5642,63.5896,-113.8462,-14.3591,3.0769,-3.0769,14.8718,52.8206,16.9231,13.8459,64.1023,-18.9744,
-8.9746,-3.8462,-18.718,63.8462,-109.4873,-11.0259,3.8462,-5.8975,13.0767,45.8975,20.2563,16.1538,67.4355,-15.6411,
-20.2566,-4.8718,-29.4873,57.1794,-102.3079,-11.5383,4.3591,-4.3591,4.8718,47.4358,10.5129,16.1536,55.1282,-16.1541,
-18.9746,-12.8208,-31.7949,51.2817,-100,-24.6155,5.6411,-2.564,2.564,43.5898,2.564,9.2305,49.2305,-22.564,
-8.718,-14.8718,-22.0513,55.3845,-109.7437,-30.2563,3.5896,-3.5896,5.6409,37.9485,8.718,8.718,57.9485,-20,
-6.9231,-8.9744,-20.7693,59.2307,-105.3848,-22.8206,4.8718,-4.8718,12.051,43.8459,12.5642,9.9998,60.7693,-12.0515,
-11.7947,-6.1538,-25.1279,61.0259,-104.1023,-25.1279,8.2051,-8.7178,13.8462,45.6411,8.7183,6.1538,56.4106,-16.9229,
-8.4617,-4.3591,-18.2051,62.3079,-106.4102,-30.5127,4.3591,-8.4617,15.1282,44.3591,17.1794,11.5383,64.3591,-24.8718,
-3.8462,-2.8203,-12.5642,65.8975,-100.2563,-27.9487,2.8203,-3.3335,22.8203,51.5386,32.0513,18.7178,73.5898,-24.3589,
-13.8462,-12.3076,-18.4614,67.6924,-112.8206,-33.3333,7.6924,-7.6924,29.7437,58.4614,31.7949,13.8462,64.1025,-25.6411,
-16.4102,-12.3076,-15.8975,65.6409,-122.0513,-32.3076,9.2307,-9.2307,33.3333,69.7434,28.718,23.0769,63.5896,-19.4873,
-5.8977,-3.8464,-12.0515,66.4102,-107.0513,-23.3335,1.7949,-1.7949,27.4355,71.5381,26.4102,35.1279,66.9229,-10.0002,
-6.6665,-5.6409,-13.8459,67.1794,-101.5383,-23.0767,-3.0769,3.0769,22.0515,57.949,22.5642,26.1541,57.4363,-8.7178,
-8.4617,-7.436,-12.0513,69.4873,-116.5383,-26.9231,-1.7949,1.7949,24.8716,53.0767,17.1792,20.769,53.0767,-11.0256,
-6.9233,-3.3335,-12.5642,71.5383,-122.8208,-27.949,0.76929,-0.76929,22.8206,56.6663,11.0256,25.8972,57.1794,-13.0771,
-10,-3.8462,-17.1794,68.9744,-113.0769,-26.9231,-0.76929,0.76929,22.3079,52.5642,14.1028,23.8464,56.6667,-11.5383,
-10,-4.8718,-19.2307,67.949,-110.5127,-24.3589,-5.8975,4.8718,23.8464,42.3079,17.1794,18.718,51.5383,-10.5127,
-4.3589,-1.7949,-20.769,62.3076,-110.5127,-21.282,-2.8203,1.7949,14.6157,41.7949,12.5645,22.8208,52.5645,-7.9487,
-8.4619,-8.9746,-30.0002,51.0254,-114.1028,-29.4873,5.8975,-5.8975,5.8975,41.7949,7.9487,22.3076,50.5127,-11.5386,
-12.3079,-14.3591,-26.1538,57.436,-113.3335,-34.8718,4.1025,-4.1025,15.3848,40,9.2305,20,45.1279,-17.9487,
-5.1284,-8.2053,-16.4104,64.1025,-108.2053,-29.7439,0,0,20,46.1538,11.2817,25.6406,43.0767,-15.3848,
-4.1023,-2.5642,-19.4871,60.5129,-97.4358,-29.2307,2.5642,-2.5642,11.7952,55.8977,13.3333,29.2307,47.1794,-9.7434,
-3.5896,-2.5637,-16.9229,60.0002,-96.9229,-27.6921,1.0256,-1.0256,11.2825,53.3337,13.3337,26.6667,46.6667,-12.8201,
-3.333,-3.333,-15.1282,59.231,-97.1794,-26.4102,-0.25635,0.25635,10.5132,50.5132,13.5898,23.3335,45.8975,-15.6409,
-2.8206,-3.3333,-13.0769,59.2307,-96.6667,-25.3845,-1.7947,1.7947,10.0002,48.4617,13.5896,20.7693,45.3845,-18.718,
-2.8203,-4.3589,-11.5386,58.2051,-97.1794,-24.3589,-3.3335,2.8203,8.9746,45.3848,13.0771,17.6924,44.3589,-22.3076,
-3.3335,-5.3848,-10,56.6665,-97.6924,-23.8462,-5.8975,3.3335,7.436,41.7949,12.0513,14.1025,42.8203,-26.4104,
-3.5898,-6.667,-9.231,54.8716,-98.4617,-23.5898,-8.7183,3.5898,5.6411,37.9487,11.2817,9.7437,40.5127,-30.7693,
-4.8718,-7.9485,-8.9744,58.2053,-95.6411,-25.8975,-7.9485,7.949,12.5642,31.5383,12.5642,4.8718,40.7693,-44.8718,
-0.76929,-2.3074,-9.4871,65.3845,-84.3589,-23.3333,-2.3074,11.5383,19.7439,32.0515,17.6926,0.76929,46.9231,-59.8718,
-2.564,-1.0254,-9.7437,61.0259,-85.1282,-17.9487,0.51269,16.9233,13.8462,34.3589,21.0259,-0.5127,52.3076,-66.6665,
-10.2563,-3.5898,-11.7949,56.4102,-89.7437,-21.0256,-7.1797,14.8716,6.1538,35.3848,16.4102,3.5898,55.3848,-62.5642,
-12.0513,-5.3848,-22.3076,55.1279,-91.5386,-26.4104,-12.564,10.5127,5.3848,39.231,14.1025,6.4102,52.564,-61.7949,
-14.8716,-13.8462,-27.1794,54.3589,-88.2051,-26.1538,-7.1797,13.3335,10.769,43.0771,16.4102,7.1797,51.2822,-68.718,
-22.5642,-18.9744,-27.1794,53.3333,-90.2563,-25.6411,-6.6667,15.3845,8.718,41.0256,15.8972,6.6667,57.9485,-71.7949,
-16.9229,-15.3848,-33.8462,44.1025,-92.3076,-27.6924,-6.6665,10.769,6.6665,41.5386,13.3335,8.7178,62.564,-68.718,
-8.2051,-17.9487,-34.8718,40,-83.0769,-29.7437,-6.1538,6.6665,7.6924,43.0767,9.7437,6.1538,57.436,-71.7949,
-1.7949,-16.6665,-22.8203,52.0513,-74.1023,-25.3845,-1.7949,13.5898,11.5386,44.3594,12.0513,1.7949,63.8462,-73.5896,
0.51269,-11.7949,-20,56.9233,-82.0513,-26.1538,-2.0513,15.8975,15.8975,36.9233,14.8721,-0.5127,71.7949,-75.3845,
1.0256,-10.2566,-20.5129,56.9231,-79.4873,-27.1794,-1.5383,15.8972,19.4871,27.1794,18.9744,-1.0256,67.1794,-77.9487,
-3.3335,-20.769,-21.7949,48.9741,-72.0513,-30.5129,3.3335,11.5386,7.436,12.1794,12.0513,-12.0513,58.7178,-85.3845,
-0.25635,-19.2305,-18.7178,50.5127,-73.0769,-27.4358,6.9233,17.1797,7.9487,0.25635,18.7183,-12.564,70.5127,-76.6665,
5.8975,-5.8975,-15.1284,64.8716,-69.4873,-18.2053,1.7949,21.7949,22.9487,-1.7949,31.0254,-3.3335,76.1538,-62.8206,
7.1794,-3.5896,-14.3589,63.0769,-61.5383,-15.3845,3.5896,15.8977,22.0515,-6.6667,23.0769,-5.1282,64.6155,-65.1282,
5.8977,-9.9998,-18.2051,55.1282,-64.3589,-24.8716,5.3845,15.1282,8.9744,-5.3845,12.0515,-9.4871,60.7693,-65.3845,
0.76929,-10.0002,-22.8206,56.6667,-72.0513,-25.8975,-0.76929,18.2048,9.9998,9.6155,16.6667,-3.8464,64.3586,-55.1284,
0.25635,-5.8975,-21.2822,60.2563,-79.7437,-16.6667,-2.3076,16.6665,14.6152,24.6155,19.7437,-0.25635,63.8462,-49.4873,
1.0256,-9.7434,-21.0254,57.949,-80.5127,-18.4614,-2.5637,11.7952,9.7439,39.4875,16.9231,-1.0256,57.949,-52.8203,
-7.1794,-13.3333,-26.6665,55.3845,-70.769,-21.0256,-7.6921,10.7693,9.2307,47.1794,22.0515,7.1794,56.4104,-47.6921,
-10,-11.0254,-26.4102,57.1797,-70.5127,-15.6406,-10.5127,10,10.5132,56.1538,22.3081,13.5898,57.6924,-37.6921,
-4.6155,-15.8977,-20.5129,52.8206,-74.8718,-15.8977,-6.6667,7.6921,4.6155,54.8718,13.8459,7.6921,54.3586,-37.436,
-0.25635,-21.7949,-22.3076,44.8716,-62.3079,-23.3335,-6.4102,5.8975,0.25635,43.333,10.5127,1.2817,48.9741,-43.3335,
4.6152,-15.8975,-21.0259,47.6924,-59.4873,-24.6152,-10.2563,6.1538,0,29.2305,8.7178,0,50.769,-46.1541,
7.9487,-15.6411,-15.6411,51.5386,-73.0769,-22.8206,-7.9487,5.3848,6.9229,19.7437,5.8975,-5.3848,57.1792,-47.9487,
6.4104,-22.8206,-16.1538,50.0002,-65.3845,-22.3076,-0.76929,0.76929,12.5642,10.5129,6.9231,-14.1025,57.1794,-46.4102,
8.2053,-18.9744,-12.8206,47.1794,-50.769,-20,2.0515,1.5383,5.6409,-1.5383,10.2566,-12.8206,56.4104,-38.4614,
17.949,-8.718,-2.5642,54.8718,-60.5127,-13.3333,1.0256,10.2566,5.6409,-1.0256,12.3079,-3.5896,63.0769,-29.2307,
13.8462,-11.2817,-11.2817,56.9233,-73.8459,-14.8716,-6.1538,8.2051,6.667,5.6411,9.7437,-5.6411,60,-28.7178,
4.1028,-10.7693,-21.0256,50.2566,-68.718,-16.9231,-4.6155,2.5642,5.1282,15.8972,15.8972,-2.5642,57.9485,-20.5129,
-0.25635,-8.9741,-18.7178,46.9233,-69.4871,-15.6411,-4.3589,0.76953,0.76953,25.3848,17.6924,0.25635,56.1538,-15.6411,
3.8462,-8.9746,-16.6665,48.9741,-73.5898,-12.0513,-13.5898,3.8462,0.76904,40.3848,16.1538,-0.76904,52.564,-17.1797,
1.0256,-8.2048,-21.5383,45.1282,-82.051,-14.3586,-23.5896,-1.0256,2.0515,48.718,15.3845,2.5642,47.6926,-17.4358,
-0.25635,0.25635,-17.6919,50.5132,-80.769,-12.564,-14.6152,-0.25635,4.3594,51.0259,17.6924,12.0513,46.4106,-12.0513,
1.0256,-0.51294,-16.4104,47.6921,-75.8975,-14.8718,-22.5642,2.051,-4.1028,41.0256,8.2048,0.51294,38.9744,-19.4871,
10.5129,6.9231,-14.1028,45.8972,-70,-9.4871,-33.0769,9.4871,-8.4617,36.6667,8.4617,-6.9231,40.2561,-17.6926,
10.0002,7.4358,-16.6667,41.282,-74.6152,-7.9485,-27.9485,7.4358,-11.5383,27.949,7.4358,-7.4358,39.2307,-19.2307,
9.2307,5.1282,-11.2825,43.5896,-67.1797,-5.1282,-14.8718,6.6663,-6.6667,22.5637,10.7693,-5.6414,42.051,-20.5129,
12.8208,10.769,-4.6152,50.769,-66.1538,-5.6411,-22.0513,4.6152,-6.6665,17.9487,16.4102,-8.7178,43.5898,-14.8716,
19.7434,20.2566,-5.8977,53.0769,-71.0256,-5.3845,-27.9487,5.3845,-6.4104,14.1023,16.6667,-6.9231,45.3845,-13.0769,
18.4617,17.4358,-8.718,53.8459,-66.1538,-8.2053,-16.9231,4.6155,-4.6155,10.2566,10.2566,-10.7693,45.1282,-23.0769,
17.1797,7.436,-1.7949,57.1797,-64.3589,-12.564,-15.1279,1.7949,-4.3589,11.5386,8.4619,-18.7178,42.3076,-25.3845,
15.6409,2.8206,2.8206,50.5129,-66.9231,-18.2053,-23.3335,-2.8206,-8.4617,21.282,4.8718,-17.1794,37.1794,-21.2822,
13.8459,8.2048,1.0256,50.7693,-61.0259,-21.0259,-20.5129,-1.0256,-5.1282,36.282,6.1536,-6.6667,38.9744,-18.4617,
5.3848,8.4614,-3.8462,50.5127,-66.9231,-18.718,-21.7949,2.3076,-4.3589,42.8203,13.5898,-2.3076,39.7437,-16.1538,
0.76929,0.76929,-2.8206,45.8977,-75.6409,-14.6155,-28.9744,0.76929,-7.4358,40.2566,14.6155,-0.76929,37.6921,-14.6155,
6.1538,-2.0513,2.0513,46.6665,-68.2051,-18.9744,-22.0513,-3.5898,-3.5898,43.0767,14.3589,4.6152,40.5127,-12.3076,
5.8977,-1.282,1.282,45.3845,-65.8972,-22.8203,-8.4612,-5.8972,-2.3074,34.6155,16.6667,3.3333,45.3845,-12.5637,
5.3845,3.8464,-0.76929,43.8464,-73.5896,-16.6667,-14.6155,0.76929,-11.0256,19.6155,15.1282,-0.76929,46.9231,-15.6409,
9.4871,3.8459,-3.3333,40.7693,-72.0513,-16.6667,-26.9231,3.3333,-20.7693,10.0002,11.0256,-5.8972,42.8206,-12.5642,
13.5896,7.4358,-3.8459,44.3591,-58.718,-15.6409,-20.7693,3.8459,-16.1541,14.1023,11.0256,-8.9744,41.282,-3.8459,
9.9998,14.1023,-6.9231,48.9744,-54.6155,-8.4617,-20.7693,8.4612,-13.0769,12.051,6.9231,-14.1028,34.1023,-8.9744,
7.4355,14.6152,-6.4102,47.4355,-64.3591,-10,-35.7693,7.4355,-16.1538,12.0513,6.4102,-17.6924,27.9487,-14.1025,
10.769,10.2563,0,45.6411,-77.436,-18.9746,-40,0,-18.9746,12.8203,3.5898,-18.9746,28.2051,-9.7437,
15.6414,11.0256,3.3333,47.949,-72.564,-12.5642,-25,-3.3333,-13.5896,19.2307,5.8977,-13.0769,33.5896,-4.3586,
13.8462,12.3076,-0.5127,47.1797,-58.9744,-2.564,-10.2563,0.5127,-11.7949,28.2051,13.8462,-11.7949,36.9233,-2.564,
9.231,10.7695,-3.0767,45.1284,-61.5383,-9.2305,-24.6152,2.0513,-18.9741,29.231,10.2568,-15.3843,33.8462,-2.0513,
12.3079,8.718,-1.0256,44.6155,-63.0769,-18.4617,-21.0256,0.51294,-18.4617,29.7434,4.6155,-10.2566,31.282,-0.51294,
13.3335,5.6411,-0.5127,43.5898,-62.0513,-16.9229,-15.3848,0.5127,-15.8975,27.1797,8.2051,-8.2051,31.2822,-5.1279,
5.6409,3.0769,-1.5383,45.6409,-68.2053,-14.8718,-25.1284,1.5383,-13.8464,24.1023,10.2561,-11.7952,35.3845,-8.2053,
5.8977,1.7947,-3.3333,49.4871,-66.9231,-17.1794,-25.3845,3.8464,-9.4871,23.3333,12.0515,-9.4871,38.2053,-1.7947,
11.2822,0.5127,-1.0254,48.2051,-62.564,-20.5127,-18.4614,0.5127,-9.7437,15.3848,14.8721,-10.2563,31.7949,-0.5127,
11.5388,3.3333,4.8718,46.4104,-66.4102,-21.7947,-18.7178,-3.3333,-5.3845,10.5129,16.1541,-8.4612,30.0002,-3.8459,
11.5388,7.4363,3.3333,46.9231,-71.5383,-24.3589,-18.7178,-3.3333,-4.3586,8.9744,18.2053,-7.9485,35.6414,-3.3333,
15.6411,8.4614,1.7949,43.8462,-66.4104,-22.3076,-17.6924,-2.8208,-15.1284,5.3843,19.7437,-18.7183,35.6411,-1.7949,
18.4617,7.6921,4.6155,39.4871,-62.0513,-20.5129,-20.5129,-6.6667,-21.0256,6.1541,10.2566,-31.282,28.2053,-4.6155,
17.436,12.3076,4.1025,44.6152,-64.6152,-24.1025,-23.5898,-11.2822,-16.4102,12.3076,4.1025,-30.7693,26.1538,-4.1025,
15.8972,16.9231,1.0256,47.6921,-64.6155,-23.0769,-26.1541,-7.6926,-16.4104,17.9485,5.6409,-26.6667,30.2561,-1.0256,
13.8462,16.4106,0,44.6157,-68.2048,-18.9741,-25.6406,0,-18.9741,21.5386,4.6157,-26.6665,27.1797,-2.564,
10.7693,9.7434,-0.51294,44.1023,-77.436,-25.6411,-22.5642,0.51294,-14.8718,23.0769,5.1282,-24.1028,20.5129,-5.1282,
11.7949,3.0767,0,47.1797,-81.0256,-28.718,-21.5386,-3.5898,-7.1797,26.6665,12.3076,-20.5129,25.1284,0,
13.3335,0.5127,-0.5127,49.7437,-79.4873,-21.0256,-21.5386,-4.6152,-4.1025,32.8203,16.9229,-14.3589,31.7949,10.2563,
8.9746,1.7949,-1.7949,43.8462,-73.5896,-19.2307,-20.2563,-3.8462,-6.4102,30,16.667,-10,27.9487,13.0771,
2.3076,-1.2822,1.2822,39.7437,-80.2563,-27.9487,-33.0769,-5.8975,-12.0513,15,6.9233,-22.8206,17.6924,4.3589,
8.2048,-3.0769,4.1023,43.5896,-82.0513,-22.5642,-38.4617,-4.1028,-14.3591,10.2561,3.0769,-27.6924,23.0769,6.6667,
15.3848,0,-0.5127,41.0259,-67.0513,-15.3848,-23.4617,0,-15.3848,14.8721,11.7949,-17.436,36.9233,16.9233,
12.3076,1.5386,-1.5386,42.0513,-60,-25.1282,-9.7437,-2.0513,-13.3335,11.2822,15.3848,-19.4873,36.4102,9.7437,
14.8721,1.5386,12.8208,50.2563,-71.7949,-31.7949,-14.3589,-2.564,-2.564,11.7949,18.4614,-31.7949,37.436,-1.5386,
15.1284,-3.8462,20.7695,52.0513,-79.7434,-33.0769,-15.6409,-5.3843,2.3076,15.6411,30,-34.6152,41.7949,-2.3076,
7.436,-5.8975,11.5386,48.9746,-74.6152,-38.2051,-22.8203,-10.5127,-1.7949,13.5898,35.6411,-26.9229,36.1538,1.7949,
2.5642,-2.5642,4.1028,42.5642,-77.4358,-41.0256,-31.282,-13.8459,-6.6667,13.3333,25.1282,-23.5896,30.7693,5.6414,
2.8203,-2.3076,6.9229,40.2563,-81.282,-37.6924,-26.4104,-15.6411,-14.1025,15.1279,11.0254,-26.4104,27.436,2.3076,
5.8972,-3.3333,6.4099,41.7947,-75.1284,-34.6155,-25.3845,-17.1794,-18.718,14.6155,3.8459,-28.9746,20.7693,3.3333,
7.4358,-3.3333,3.8464,40.7693,-74.6152,-32.0513,-31.0256,-13.5896,-14.6155,15.6414,3.3333,-25.3845,19.2307,12.5642,
6.1538,-3.5898,4.1025,38.9741,-75.8975,-28.718,-28.2053,-10.2563,-13.8462,15.8975,3.5898,-25.6411,23.0767,11.7949,
8.4617,-3.3333,5.3845,38.2048,-67.9487,-25.8975,-25.8975,-11.0256,-13.0769,11.5383,3.3333,-27.9487,22.8206,5.8972,
11.282,-3.0769,4.1028,40.5129,-70.7693,-30.7693,-25.1282,-14.8718,-9.2307,5.6409,3.0769,-30.7693,17.9485,7.1794,
11.5383,-3.3333,6.9231,39.2307,-80.2563,-38.2051,-25.3845,-22.3074,-11.5383,6.9231,3.8464,-34.1025,20.7693,3.3333,
15.8975,0,12.3076,38.9746,-65.2563,-32.8206,-27.1794,-19.4873,-15.8975,12.3076,5.6411,-33.8462,29.231,0,
18.4617,-1.0256,8.718,36.4104,-50.2563,-31.7949,-32.8206,-14.3591,-18.9744,3.5896,3.5896,-36.4104,21.5383,1.0256,
18.718,0.76929,12.051,37.6921,-53.0769,-28.4617,-28.4617,-11.5383,-13.5896,-0.76929,6.4104,-33.0769,17.1794,3.8459,
14.3589,1.5386,15.8975,41.0259,-68.0769,-29.7437,-27.1794,-15.3848,-14.3589,-0.5127,3.5898,-34.3589,18.9746,0.5127,
13.3335,-2.0513,12.3076,37.436,-66.6665,-36.4102,-29.2307,-20,-18.9741,2.0513,4.6157,-31.7947,16.9233,8.7183,
11.0256,-5.3845,5.8972,30.5129,-65.3845,-35.1282,-34.1025,-18.718,-17.6921,5.3845,7.9485,-24.3591,13.5896,15.1282,
8.4614,-4.3589,7.9487,31.5381,-76.1541,-25.8975,-44.8718,-15.1284,-19.231,4.3589,4.8716,-22.3076,12.0513,8.9741,
8.4617,-5.3845,7.4358,32.0515,-72.564,-31.0256,-42.3076,-16.6667,-19.7434,5.8977,5.3845,-21.7947,8.9744,5.8977,
11.5386,-1.7949,1.7949,34.1025,-57.564,-30.5127,-27.4358,-15.6411,-13.5898,15.1284,12.564,-15.1279,14.1025,5.3848,
13.5898,4.3589,6.9233,38.2051,-45.3845,-15.5127,-26.4102,-6.4102,-10,20.2563,10,-12.0513,20.7695,-4.3589,
16.9231,0.51294,12.3079,36.9231,-59.4871,-2.051,-32.3076,-0.51294,-12.8206,11.7947,3.5896,-18.9744,15.3845,-15.8972,
20.7693,-0.25659,8.9744,38.718,-65.8975,-11.5383,-28.9744,0.25659,-14.6155,6.4104,5.3845,-24.3591,15.1282,-24.8718,
16.1538,3.3335,5.8975,39.7437,-61.7949,-17.1797,-27.436,-3.3335,-16.1538,3.3335,3.8462,-30,20.2563,-38.718,
12.0513,4.8721,10.5127,42.8208,-59.2307,-16.1538,-29.4871,-2.3076,-17.6924,2.3076,2.3076,-35.1282,22.3076,-46.4102,
4.1028,0.51294,1.5383,37.949,-66.6665,-19.9998,-33.3333,-0.51294,-22.5642,0.51294,0.51294,-40.5127,22.5642,-53.3333,
4.1025,-1.5386,1.5386,37.9487,-66.6667,-19.4873,-26.1538,2.0513,-18.4614,2.0513,3.0771,-36.9231,35.3848,-57.4358,
11.282,-2.5642,9.2307,43.0769,-54.8718,-15.8975,-23.0769,2.5642,-12.8206,3.0769,10.2566,-33.3333,42.0515,-54.3589,
15.1282,-2.8206,4.8718,39.7434,-53.0769,-12.5642,-27.9487,3.8464,-13.0769,2.8206,12.0515,-32.564,37.6921,-48.4614,
13.0771,-1.7949,1.7949,40.2568,-56.6665,-8.9741,-27.9485,8.9746,-13.0767,3.3335,7.9487,-25.8972,38.2051,-44.8716,
15.8977,-3.0769,3.5901,46.1541,-50.769,-8.2048,-25.1282,12.3079,-13.3333,3.0769,10.2566,-22.564,40.0002,-46.6665,
26.4102,-0.25635,3.8462,42.8203,-40.2566,-4.8721,-24.8721,11.0254,-15.1284,0.25635,17.1792,-25.3848,40.769,-44.8721,
26.9229,4.8716,1.7949,43.8462,-35.1284,-1.7949,-22.8208,9.4868,-10.5132,-3.8462,19.2305,-23.3335,42.3076,-40.7695,
20.5129,5.1282,1.5383,53.3333,-38.9744,-4.1023,-14.3589,10.7693,-1.5383,-3.0769,22.0515,-15.8975,50.2566,-37.4358,
18.7178,3.3335,0.25635,49.4873,-43.3333,-9.4873,-14.6152,7.436,-8.9741,-0.25635,20.2563,-18.7178,51.5386,-35.1282,
18.718,7.9485,-0.25659,43.8459,-38.2051,-5.3845,-24.3591,4.3591,-18.718,0.25659,17.1794,-24.8718,47.4358,-29.9998,
16.1536,6.4099,0.76929,45.3845,-46.4104,-1.282,-28.9746,4.3586,-13.0769,-0.76929,17.1794,-24.3591,49.4871,-26.9233,
17.6921,2.3079,-0.25659,46.4104,-60.2563,-4.3591,-25.3848,7.4358,-8.9744,0.25659,14.6155,-20.2566,46.9231,-28.4617,
17.9487,2.0513,-2.0513,43.0767,-53.3335,-2.0513,-24.6152,10.769,-17.436,2.0513,12.3076,-17.9487,36.4102,-21.5386,
10.769,0,-5.6411,39.4873,-42.564,0,-32.8206,6.6665,-16.4102,0,11.7949,-19.4873,29.7437,-18.4614,
16.9229,4.6152,0,47.1792,-42.0515,-0.51318,-28.2053,7.6924,-5.1284,0,15.3843,-16.4104,39.4868,-13.8464,
23.5896,7.1794,1.5383,49.7434,-42.564,-1.5383,-17.4358,9.2307,-5.6409,-1.5383,20.0002,-14.3589,44.1028,-8.2048,
25.6411,6.1538,0,50.769,-38.9744,0,-20,3.5898,-7.6924,-1.5386,27.6924,-15.3848,42.0513,-6.1538,
27.1797,4.6152,3.0767,47.1797,-40.5129,1.5386,-26.1538,-7.1797,-8.7178,-1.5386,29.7437,-16.9231,42.564,-7.6924,
28.2056,7.1797,9.231,47.1797,-40.5127,2.0513,-23.0767,-3.0767,-9.7432,-2.0513,26.667,-19.4871,35.3848,-8.7178,
22.3076,8.4614,6.4102,47.9487,-40.7693,0.25635,-20.2563,-0.25635,-12.0513,-6.4102,19.7437,-20.7693,24.3589,-14.1025,
19.4871,6.6667,4.1028,42.0515,-43.0769,3.0769,-10.2561,-6.6667,-10.7693,-3.0769,18.9744,-16.4099,30.2566,-13.8459,
17.949,6.1541,7.6926,40.5129,-47.1794,-1.0256,-19.4871,-10.2561,-12.3074,1.0256,24.1028,-17.9485,39.4875,-8.2048,
19.4871,11.7952,9.2307,48.2053,-47.1794,-4.6155,-34.4871,-4.6155,-10.7693,1.5383,23.5901,-19.4871,37.949,-1.5383,
14.6152,12.0513,3.8462,47.9487,-42.3079,-1.2822,-33.5898,-1.7949,-13.5898,-0.25635,15.1279,-18.7178,31.5386,0.25635,
5.1279,9.7437,-5.1284,42.0513,-43.0769,1.0254,-19.4873,-5.6411,-18.9746,0,12.8203,-25.6411,27.1792,0,
9.4871,12.5642,-1.282,42.8206,-51.0256,-2.3079,-25.3848,-5.8977,-10.5129,4.8718,19.2307,-25.3848,27.4358,1.282,
11.5386,5.8975,4.3589,40.769,-55.1282,-8.9746,-25.8975,-12.0513,-11.0259,3.3335,17.6924,-17.6924,21.2822,-3.3335,
3.3333,-0.76929,5.3845,39.7434,-41.2822,-2.3079,-13.0769,-8.4617,-14.1028,5.3845,19.7434,-8.4617,19.2307,0.76929,
-2.3079,-2.3079,2.8206,37.6921,-47.436,0.25659,-24.3591,-0.25659,-12.5642,5.3845,20.7693,-12.5642,20.7693,5.3845,
3.8459,1.282,0.25659,37.6921,-62.436,-4.3591,-36.6667,-6.9231,-15.6409,1.7947,14.1023,-18.2053,18.718,-0.25659,
7.1797,6.6665,2.0513,38.4614,-52.8206,-4.1025,-25.6411,-13.8462,-15.8975,3.0771,12.8203,-16.4102,18.9746,-2.0513,
2.3076,5.3843,4.3589,38.2051,-37.8206,-1.7949,-22.8208,-13.5898,-14.1025,0.25635,9.4868,-17.6924,22.8203,-0.25635,
6.9233,4.8721,9.4873,40.2563,-38.718,-0.76904,-24.3589,-14.1025,-14.6152,-1.2822,3.3335,-16.6667,26.9233,0.76904,
13.3335,8.2051,10.769,35.3848,-40.5129,-1.0259,-17.436,-15.3848,-14.3589,1.0259,3.0771,-17.9487,25.1284,-1.5386,
15.1284,10.5127,11.5386,39.7437,-33.5896,-1.2822,-11.0254,-8.4614,-14.1025,1.2822,4.3589,-22.3076,25.3848,-5.8975,
16.9231,9.7434,15.8972,49.7434,-30.2566,-5.6409,-11.7949,-8.2053,-14.8718,5.6409,9.2307,-21.0256,25.6409,-11.2822,
18.9744,10.7693,15.3845,49.7434,-36.4104,-13.8462,-13.3335,-15.3848,-10.7693,16.4104,16.4104,-14.8718,21.5383,-14.3591,
14.6152,8.4614,10.5127,42.3076,-42.3076,-16.6667,-14.1025,-15.1282,-8.4614,17.1797,16.6665,-12.0513,18.7178,-11.5386,
11.0259,3.8462,11.5386,39.7437,-41.282,-9.4873,-23.3333,-11.0254,-10.5127,13.0771,14.6152,-10,25.3848,-3.8462,
7.4358,2.8206,9.4871,39.2307,-48.9744,-9.4871,-33.0769,-13.5898,-15.6411,7.949,12.0515,-12.051,24.8718,-2.8206,
5.8975,3.8462,5.8975,36.6665,-45.8975,-15.6411,-18.718,-14.1025,-12.564,6.4102,15.1284,-12.0513,21.7949,-3.8462,
11.5386,1.7949,5.3848,36.1538,-30.8975,-9.4868,-5.8975,-11.0254,-10,3.8462,17.6924,-7.9487,23.8462,-1.7949,
14.3591,1.0256,8.2053,39.9998,-37.9487,1.0256,-8.718,-4.6155,-16.4104,-1.0256,15.8972,-10.7693,19.4871,-1.5383,
14.3586,4.1023,13.3333,43.5896,-52.8208,1.0256,-1.0256,-2.0515,-13.8464,-1.5388,12.8206,-17.949,18.4612,-3.0769,
18.718,2.8206,15.1282,42.8206,-37.8208,-4.8718,-2.8206,-8.9744,-9.4871,6.4104,8.9744,-18.2051,25.8977,-6.9231,
26.1541,2.5642,10.2566,38.4617,-22.8208,-2.5642,-17.8206,-7.1794,-11.282,16.9231,16.4104,-9.2307,29.7439,-4.6155,
19.2305,2.3076,3.8462,33.5894,-25.3848,-7.9487,-25.8977,-3.8462,-13.0771,14.1025,21.2817,-9.4873,23.333,-2.3076,
12.3079,1.5383,10.2566,38.9744,-35.8975,-13.8459,-10.8977,-6.6667,-13.3333,9.7439,12.8206,-12.3074,26.6667,-1.5383,
16.9231,0.51294,15.8972,43.5896,-38.9744,-4.6155,-11.7949,-5.6409,-12.3079,12.8206,7.1794,-5.1282,32.3079,-0.51294,
9.7439,-1.0256,2.5642,39.4871,-45.1282,1.0256,-24.6152,-6.1536,-13.8462,12.3079,10.7693,-2.5642,17.3079,-2.5642,
2.0513,1.0259,-3.5898,34.3589,-53.3333,-0.51269,-22.0513,-6.6665,-17.4355,9.231,11.2822,-8.2051,6.667,0.5127,
4.3591,-0.76929,2.8206,31.5383,-63.3333,0.76929,-23.8462,-5.3845,-27.4358,4.3591,-0.76929,-13.5896,4.8718,1.282,
3.5898,1.5386,4.6152,35.3843,-64.1028,5.1279,-38.8462,-7.1797,-27.6924,3.0767,-3.5898,-14.8721,1.5386,-1.5386,
-1.282,7.4358,1.282,33.5896,-53.5898,5.8972,-34.6155,-7.949,-14.6155,4.8718,3.8459,-16.1541,7.4358,-1.7947,
-0.76929,8.4612,0.76929,30.5125,-50.5129,5.8972,-19.6155,-4.3591,-15.1282,-0.76929,7.4358,-15.6414,11.5383,3.3333,
0.25635,-0.25635,0.76953,28.9746,-56.6665,3.3335,-25.8975,-10.5127,-28.9744,-15.1279,3.8462,-15.1279,4.8721,2.3076,
4.3594,-1.7949,6.4106,30.5132,-52.051,1.7949,-28.4614,-12.0513,-21.7947,-13.0767,5.3848,-13.0767,14.6157,2.8208,
2.564,1.5386,7.1792,31.2817,-38.9744,-1.5386,-23.5898,-10.7695,-14.3589,-8.7183,6.1538,-16.4102,22.564,2.564,
5.1284,2.564,13.8462,31.7949,-39.4871,-2.564,-12.8203,-10.2563,-14.3589,-6.1538,11.2822,-15.3848,16.9229,6.6665,
11.0254,0.25635,22.3076,37.1792,-54.4871,-0.25635,-3.3335,-7.9487,-12.0515,-2.8208,14.6152,-14.6155,13.5898,8.4614,
9.7437,-2.0513,17.9487,36.9229,-47.1794,0.5127,-13.3335,-6.6665,-11.2822,-0.5127,7.1797,-16.4104,14.3589,2.0513,
6.9231,-5.3845,11.0256,28.9744,-32.1794,-1.282,-27.436,-12.0515,-14.1028,1.282,4.8718,-15.6409,12.5642,4.3591,
8.7183,-8.2051,11.7949,29.7437,-28.7178,-2.0513,-25.1279,-16.4102,-14.8716,2.0513,9.231,-17.4358,9.7437,10.2568,
9.9998,-5.8977,11.0256,29.4871,-42.8208,-0.76929,-23.8464,-16.6667,-16.6667,0.76929,5.3845,-19.2307,9.4871,5.8972,
10.5125,-1.282,8.4612,27.4358,-30.5129,-2.8206,-25.3848,-14.1028,-21.282,1.282,1.282,-19.7439,10.5125,1.7947,
14.3586,-2.5642,11.7947,27.6921,-33.3335,-6.1541,-21.5383,-15.8977,-22.0515,2.5642,3.5896,-19.4871,7.6921,3.0769,
14.1025,0.25635,14.1025,29.4873,-48.3335,-3.3335,-25.8975,-16.1538,-21.2817,-0.25635,3.3335,-20.769,3.3335,3.8462,
7.4358,6.9231,11.0256,31.5383,-44.3591,0.76929,-31.0259,-12.0515,-26.4104,-3.3333,-0.76929,-21.7952,1.7947,2.3074,
6.1538,8.7178,10.769,27.6924,-41.0256,0.5127,-25.6411,-11.7949,-33.3335,-3.0771,-0.5127,-21.5386,7.1792,5.6411,
9.2305,10.769,19.4873,29.7437,-48.718,1.5386,-31.2822,-15.3848,-29.231,-2.0513,-1.5386,-25.6411,6.6665,9.2305,
14.1025,15.6411,26.9229,38.7178,-47.9487,4.3589,-33.0769,-14.1025,-20.7693,-3.8462,-3.8462,-30.5129,3.8462,12.564,
13.5896,14.1023,21.7947,38.2048,-42.8206,4.3591,-18.0769,-11.5383,-21.7949,-7.949,-4.3591,-32.0513,9.9998,12.051,
8.4614,11.5386,16.6665,34.6152,-43.8462,2.3076,-11.0259,-11.5386,-27.436,-8.9746,-2.3076,-33.5898,15.1279,7.9487,
5.6411,9.231,16.9229,30.769,-48.718,-3.5898,-25.1282,-14.3589,-21.0254,-8.7178,3.5898,-35.3845,9.7437,6.6665,
7.6924,2.0513,20.5127,35.3848,-46.1538,-9.2305,-25.1282,-17.9487,-6.0254,-2.0513,16.4102,-21.5383,13.8462,7.1797,
3.8464,-9.4871,16.1541,34.6155,-41.7947,-16.6665,-23.8459,-19.7434,-2.8206,2.8206,18.718,-12.564,16.6667,2.8206,
4.6152,-6.1538,20,30.7695,-39.4871,-4.6152,-18.4614,-12.3076,-11.2817,8.2051,11.7949,-8.7178,11.2822,14.3589,
2.8206,-2.8206,20.7693,25.8977,-48.4614,8.4617,-15.6409,-11.5383,-18.2048,7.949,-3.2051,-5.3845,3.8464,26.4104,
6.4102,-3.8462,22.8203,27.436,-43.8462,7.436,-18.2051,-10.5127,-18.7178,6.4102,-6.4102,-5.8975,3.8462,25.8975,
11.5386,-1.2822,25.8975,28.9741,-29.4873,2.8203,-24.3591,-6.9233,-21.2822,2.8203,-4.8721,-16.1538,1.2822,19.7437,
11.0256,1.7947,21.7947,32.051,-25.8975,6.4104,-25.8975,-7.949,-23.8459,0.76929,-6.9231,-22.3079,-0.76929,17.6921,
4.1023,-1.5383,15.3845,30.7693,-29.7437,13.3333,-28.718,-8.718,-21.0256,5.1282,-3.5896,-15.8977,1.5383,18.9744,
1.0256,1.0256,16.4099,29.2307,-37.436,12.3074,-33.8464,-10.2566,-26.1541,4.1023,-2.5642,-17.949,-1.0256,18.4612,
9.7437,9.7437,24.1025,33.333,-36.4104,9.7437,-26.1541,-10.2563,-26.1541,1.5386,-7.1797,-24.6155,-1.5386,17.9487,
8.2053,4.1028,15.385,26.6667,-32.8203,5.1282,-29.2307,-12.8206,-27.6921,-1.0256,-5.6409,-24.615,1.0256,15.385,
0.51269,1.5386,6.1538,17.436,-39.4873,2.564,-37.9487,-12.8203,-32.8203,0,-0.5127,-16.9229,0,16.9233,
1.282,11.5383,13.0769,18.2053,-44.8718,5.3845,-37.1794,-11.0256,-28.9744,6.4104,-6.4104,-10.5129,-1.282,22.3079,
0.51294,7.6926,13.3333,22.0515,-40.5127,7.1794,-43.0769,-11.282,-27.6921,-0.51294,-15.3845,-16.4104,1.5383,21.5383,
5.1279,2.0513,9.2305,25.6406,-33.3335,12.3076,-34.8721,-6.667,-25.1284,-5.1284,-2.0513,-10.7695,10.769,30.2563,
3.3335,0.25635,7.436,18.2051,-41.7947,4.8721,-19.8721,-13.5894,-24.3589,-4.8716,-0.25635,-8.9741,3.8462,26.9233,
2.5642,5.6414,16.9231,25.1282,-36.4102,5.6414,-17.4358,-9.7434,-17.9485,1.0256,-7.6921,-9.2307,-1.0256,22.5642,
0.25635,-0.25635,18.7178,31.5386,-32.0513,8.4614,-32.4358,-2.8208,-16.1538,8.4614,-7.9487,-8.9746,3.8462,20.769,
0,-5.1284,17.436,31.2822,-38.4614,1.5386,-28.718,-6.6665,-12.3076,16.4102,0,-6.6665,7.6924,9.231,
0.25635,-0.25635,18.2051,30.5127,-34.1025,3.3335,-19.7437,-5.3848,-6.9229,19.231,3.3335,-0.76904,6.4102,-5.769,
-0.25635,-2.8208,14.1025,25.8975,-23.3335,11.5381,-26.9233,2.3076,-12.0513,17.6919,-0.25635,0.25635,4.8716,-13.5898,
2.0513,-7.1797,14.3589,27.6924,-20,9.7437,-25.6411,3.5898,-14.8721,21.0254,-2.0513,-3.0771,5.6411,-13.8462,
2.564,-5.1284,17.9487,27.6924,-31.7949,6.1538,-20.5127,3.0771,-12.8203,20.5127,-2.564,-4.1025,11.2822,-17.436,
2.8206,-4.8718,13.5896,22.3079,-46.7949,7.4358,-25.3845,4.3591,-15.6409,13.5896,-2.8206,-4.8718,16.6667,-26.9231,
0.25635,-9.4873,4.3589,18.2051,-38.718,4.8716,-26.4102,2.3076,-19.231,12.0513,-0.25635,-9.4873,17.6924,-35.1284,
-0.51294,-6.1541,10.2561,23.0769,-23.718,2.051,-23.0771,3.0769,-11.282,16.9231,0.51294,-7.6926,21.0256,-34.3591,
0.76929,-0.76929,14.6155,27.4363,-23.8459,2.3079,-33.0767,4.8718,-7.4358,11.5388,-5.3845,-3.8459,22.3079,-33.0767,
3.5898,-0.5127,7.6924,26.1538,-33.8462,2.564,-31.2822,0.5127,-9.231,2.564,-8.7183,-9.231,22.0513,-37.9487,
5.3848,0.76953,3.3335,26.4102,-18.8462,3.8462,-16.2822,-0.25635,-13.5898,0.25635,-8.9741,-16.6665,20.2563,-43.3333,
1.0256,1.5383,2.051,24.615,-28.2053,1.5383,-11.2825,1.0256,-20.5129,-1.0256,-13.8464,-24.1028,14.8718,-48.718,
8.2048,-0.51294,7.6921,29.2307,-43.2053,0.51294,-16.9231,2.5642,-9.7439,6.1536,-1.0256,-21.5386,23.0769,-43.0771,
12.3079,-5.6409,5.6409,34.3591,-28.2053,-0.51294,-24.1025,0.51294,-3.5896,9.2307,10.2566,-16.9231,30.7693,-37.436,
3.5896,-6.1541,-1.0256,30.2561,-16.9231,1.5383,-22.0515,1.0256,-11.7952,11.7947,5.1282,-14.3591,31.7947,-40.5129,
0,-8.2051,0.5127,28.2051,-31.9231,1.5386,-17.436,0,-13.3335,16.9229,1.5386,-13.3335,28.7178,-44.1025,
9.7437,-8.2051,7.1797,35.3848,-28.7178,0,-16.9229,0,-2.564,20,9.231,-11.7944,31.7949,-36.4102,
10.7693,-6.6667,5.1282,37.9485,-20.5129,-0.51294,-14.3591,0.51294,-2.0515,10.7693,9.7434,-12.8206,37.9485,-30.2566,
7.6921,-3.0769,5.6409,38.4617,-29.231,2.051,-11.2822,-1.5383,-8.2053,1.5383,5.1282,-14.3591,37.9485,-30.2566,
13.3335,-0.5127,12.3076,39.4873,-23.5896,5.6411,-17.9487,-1.5386,-8.7178,0.51269,4.6152,-13.3333,31.7949,-26.6665,
16.6665,-1.2822,9.4873,38.7178,-13.0769,5.8975,-13.5898,0.25635,-9.4873,-0.25635,3.8462,-15.1282,29.4873,-21.282,
16.4102,-2.564,6.1538,40.5127,-21.5386,7.1797,1.4102,-1.5386,-13.3335,2.564,-2.0513,-14.8716,32.3076,-21.0256,
14.3591,0.51294,10.2566,40.5129,-31.282,8.2053,-4.6155,-0.51294,-10.2566,11.7947,-4.1028,-6.6667,29.2307,-16.4104,
6.1536,0.51294,8.2053,37.9485,-28.2051,2.051,-18.4617,-0.51294,-8.2053,12.8206,-5.1282,-7.6921,19.4871,-14.8718,
10.5127,0.25635,12.564,40.769,-18.718,7.4355,-3.4617,-0.76953,-2.3076,14.6152,-0.25635,-4.8721,26.4102,-14.6155,
10,-1.2822,10,35.1284,-18.2051,12.0513,-0.76904,-1.2822,-2.8203,11.0259,0.76904,-7.9487,33.5898,-18.2051,
0.25659,-0.25659,1.282,31.5383,-21.7949,8.9744,-15.769,-1.7947,-7.9485,4.3591,0.76929,-14.1023,28.9744,-17.1794,
2.5642,-1.0256,2.5642,33.3333,-24.6155,6.6667,-21.0259,-4.6155,-7.1794,8.718,1.0256,-10.7693,22.5642,-10.2566,
8.7178,-3.5898,6.6665,38.9741,-18.9744,9.7437,-6.0259,-0.5127,-3.0771,19.4873,0.5127,-4.6152,28.2051,-4.6152,
1.0256,-6.6667,-1.0256,36.9231,-13.3335,7.6921,-5.1282,2.051,-2.5642,16.4104,3.0769,-5.6409,34.3591,-4.1028,
0.76929,-5.3845,1.282,31.0256,-18.718,7.4358,-5.8972,-0.76929,-1.282,13.5896,9.4871,-4.3591,35.1282,-2.8206,
1.7947,-7.9485,2.3079,31.5383,-26.4102,7.949,-5.8972,-2.8206,-3.8459,10.5129,4.8718,-5.3845,32.0515,-1.7947,
2.0513,-11.7947,0,31.2822,-21.5383,4.1025,-14.8716,-2.0513,-3.5894,4.6157,1.0259,-12.3076,35.8975,0,
13.0769,-12.0513,10.0002,30.5129,-23.8459,1.7952,-16.6665,-5.3845,-6.9231,1.7952,0.76929,-17.1794,36.1541,-0.76929,
15.3848,-12.8203,9.7437,27.1797,-23.0769,1.5386,-6.6665,-9.7437,-18.9741,2.564,-0.5127,-17.436,26.1538,0.5127,
3.5898,-15.8975,1.0259,24.1025,-15.8975,0,0,-13.3335,-19.4873,4.6152,-3.5898,-16.4102,16.4102,2.564,
11.2822,-9.2305,10.7695,31.2822,-9.7432,1.5386,0,-11.7944,-5.6406,8.7183,-3.5894,-13.333,17.436,0,
22.8208,-0.76904,19.231,33.5898,-0.25635,7.9487,-8.4614,-5.8975,-5.3843,13.5898,-0.25635,-11.0254,24.8721,0.25635,
11.5383,-1.282,11.5383,28.9744,-11.5383,9.9998,-12.0515,-6.4104,-12.5642,14.1023,-3.3333,-9.4871,21.282,1.282,
4.8721,-1.7949,8.4614,29.4873,-26.5383,8.4614,-3.8462,-5.3848,-5.3848,17.6924,-5.8975,-7.9487,16.1538,1.7949,
10.2566,-2.051,9.2307,27.1794,-19.4871,8.2053,-12.8206,-1.0256,-4.6155,20.5129,-1.5383,-9.7434,20.0002,1.0256,
7.9487,-6.4106,10,29.4868,-13.5898,5.8975,-24.8721,-1.7949,-11.5386,17.6919,0.25635,-10.5132,19.7437,-0.25635,
1.5383,-7.1794,10.2566,34.8718,-22.564,5.6409,-9.8721,-1.5383,-3.5896,17.4358,-0.51294,-6.1536,23.5896,0.51294,
-1.7947,-3.8459,-0.25659,32.051,-21.7949,8.9744,4.3591,-0.25659,0.25659,18.718,4.3591,-4.3591,28.4617,-2.3079,
1.7952,-0.76929,-0.76929,24.8718,-18.718,12.0515,-9.4871,0.76929,-9.9998,19.2307,9.4871,-6.4104,23.8464,-0.76929,
-0.51294,-4.1028,0.51294,20.5129,-20.5129,12.8206,-13.8464,-2.0515,-16.9231,16.9231,3.5896,-10.7693,18.9744,4.1023,
-0.76929,0.76929,-4.8718,29.4871,-11.5383,21.282,-7.949,1.7947,-12.0515,18.718,-1.282,-10.5129,22.8206,8.9744,
-0.76929,0.76929,-5.385,24.3586,-11.5388,19.2307,-22.3079,0.76929,-13.5901,17.6921,-4.3591,-12.0515,16.6667,2.8206,
-0.51318,0,1.5381,20,-13.3335,15.897,-22.5645,0,-11.2822,18.4614,-2.0513,-6.1543,16.4102,4.1025,
-3.0771,2.0513,-2.564,25.6411,-12.3076,15.3848,-8.2051,0,-7.1797,15.8975,0,-5.1284,25.1284,8.7178,
0.76904,-1.2822,-6.4102,26.9233,-4.3589,9.4873,0.25635,-2.3076,-7.9487,12.564,-0.25635,-11.5386,25.8975,5.8975,
4.1025,-6.1543,-7.1797,22.0513,2.564,3.0767,-7.6924,-8.7183,-14.3594,8.7178,-2.0513,-14.8721,20.5127,2.0513,
5.8972,-4.8718,-3.3333,21.7947,-4.3591,8.4617,-8.4617,-8.9744,-11.0256,13.0769,3.3333,-10.5129,22.8206,6.4104,
4.3594,-10.5127,-4.3589,22.3081,-19.3591,7.9487,-3.8462,-9.4868,-7.4355,16.1538,3.8462,-11.5381,22.8208,5.3848,
6.1536,-12.3079,-5.6414,24.1023,-8.2053,11.282,-10.7693,-4.6155,-9.7439,20.5129,5.6409,-6.1541,21.0256,4.6155,
1.7952,-9.4871,-8.9744,17.6926,-0.76929,13.5901,-25.7693,-4.3586,-16.1536,20.7693,0.76929,-1.282,12.5642,7.4358,
9.9998,-2.8206,-0.76929,21.282,-15.7693,11.5383,-22.3079,-2.8206,-11.0256,22.8206,0.76929,-1.282,16.1536,10.5125,
16.1538,-7.9487,-0.25635,22.3076,-22.8203,6.4102,-11.0254,-5.8975,-13.5898,18.7183,0.25635,-6.9229,18.7183,4.8721,
17.6921,-4.8718,-0.76929,22.3074,-7.8203,14.1023,-10.5129,-3.8464,-11.0256,19.2307,0.76929,-2.3079,16.6667,11.5383,
17.1797,-0.25635,0.25635,19.231,-14.1025,12.5645,-18.7178,-5.8975,-12.0513,20.7695,-4.8716,-3.8462,8.4619,13.5898,
17.9485,0.51294,-0.51294,18.9744,-21.5383,14.3591,-18.4617,-4.1028,-17.949,21.0256,-5.6409,-5.1282,9.7434,12.8206,
13.3333,0.51294,-3.5896,22.051,-6.5383,19.9998,-15.8977,-0.51294,-20.5129,18.9744,-1.0256,-4.1028,13.3333,15.3845,
12.0513,-1.2822,-2.8203,18.2051,1.2822,12.0513,-18.2051,-4.3589,-14.6152,12.564,-4.8716,-6.9229,8.9741,13.0771,
17.6924,-2.3076,2.3076,13.0771,-13.7178,4.3589,-25.8975,-11.5381,-8.4614,9.4873,-9.4868,-10.5127,6.9233,5.3848,
19.4873,-1.5386,1.5386,16.9229,-28.7178,7.1797,-24.1025,-14.3589,-11.2822,13.8462,-6.6665,-11.7949,10.2563,9.7437,
14.8713,1.0256,-1.5388,23.5896,-13.7178,11.282,-13.3337,-7.1799,-10.7693,17.9485,-1.0256,-8.2053,15.3845,19.4871,
6.4102,0.25635,-1.7949,21.2822,-0.25635,7.9487,-19.231,-1.2822,-12.0513,15.6411,-3.3335,-6.4102,17.6924,14.1025,
6.1541,-1.0256,-4.6155,17.949,1.0256,10.2566,-21.0256,-2.5642,-13.3333,20.0002,-2.051,-4.1023,23.5896,16.4104,
8.7178,-3.5898,-2.564,20,-12.8208,14.3589,-6.0256,-4.1025,-9.231,27.6924,2.564,-2.564,24.1025,27.1792,
3.5896,-5.6409,1.0256,22.5642,-19.4871,12.8206,-7.1794,-3.5896,-11.282,21.5383,-1.0256,-7.1794,13.8459,22.051,
6.6665,0,-0.51269,21.5386,-4.4871,12.8208,-20,-3.5898,-11.7949,13.3335,-4.6152,-7.6924,11.7949,14.3589,
6.1538,-0.5127,-6.6665,16.9233,0.51269,6.1538,-24.1025,-13.8462,-17.436,8.7183,-13.333,-14.3589,10.2563,9.7437,
5.8972,0.76929,-0.76929,21.7947,-8.4617,5.3845,-16.6667,-15.1282,-17.1794,14.1023,-8.9744,-16.1541,12.5642,14.1023,
6.1538,-3.5898,-2.0513,18.9741,2.0513,3.5898,-15.8975,-13.3335,-14.8721,11.7949,-7.1797,-13.3335,12.8203,18.4614,
6.4104,-3.3333,-8.4617,21.282,3.3333,3.8464,-15.6409,-11.0256,-11.0256,8.9744,-9.4871,-4.8718,16.1541,21.7952,
4.8721,1.7949,-3.3335,26.9233,-11.6667,5.3848,-10.5127,-10.5127,-7.436,17.6924,-3.3335,-1.7949,22.8208,23.8462,
5.6411,-0.51269,0.5127,24.1025,-26.1538,0.5127,-10.2563,-17.9487,-7.6924,23.5898,-2.0513,-6.1538,17.436,19.4873,
10.2563,0.5127,-2.564,26.1538,-11.1538,3.0771,-7.1797,-16.4102,-4.1025,24.1025,-4.6152,-5.1284,14.3589,20.5127,
7.1794,-1.0256,-2.5642,23.0769,3.8462,1.0256,-11.282,-16.4099,-5.1282,18.9744,-4.6155,-8.718,15.8977,17.4358,
15.3845,1.0256,8.718,27.1794,-6.6667,-1.0256,-16.4104,-17.4358,-4.1028,21.0256,-1.5388,-7.6926,14.8718,17.4358,
22.0513,1.5386,7.1797,31.2822,-10.769,-1.5386,-14.8716,-16.4102,-3.5898,23.5898,-4.1025,-6.1538,10.769,18.9741,
16.4102,0.5127,-3.5898,26.6665,4.231,-5.6411,-10.769,-21.0254,-10.2563,18.4614,-0.5127,-13.8462,13.8462,14.3589,
11.5383,-5.8977,-1.7947,20.2566,1.7947,-17.1794,-8.4617,-32.5642,-9.4871,5.8972,6.9231,-23.8459,14.6155,5.8972,
8.7178,-20,2.564,16.9229,-13.2053,-30.7693,-12.3076,-40,2.564,2.0513,5.6411,-29.2307,6.1538,-2.0513,
9.2307,-21.5383,1.5383,18.4617,-22.0515,-29.7437,-18.4617,-36.4104,3.5896,12.8206,4.6155,-26.1541,6.6667,-1.5383,
13.0771,-8.4614,0.25635,17.1797,-7.0515,-21.7949,-19.7437,-33.5896,-7.4355,18.2051,-0.25635,-17.1792,7.9487,8.9746,
15.8977,-0.51294,0.51294,17.4358,7.9485,-15.8972,-17.4358,-29.7437,-9.7434,11.282,-9.7434,-16.4104,1.5383,15.8977,
25.1282,2.0515,10.7693,25.6409,-2.0515,-8.2053,-12.8206,-22.5642,-3.5896,8.718,-11.282,-19.9998,2.0515,15.3845,
34.1025,5.3848,17.6924,25.8975,-3.8462,-8.4614,-8.4614,-26.4102,-4.3589,8.9746,-11.5381,-22.8203,3.8462,10,
30.7693,7.6921,10.7693,25.6409,2.0515,-16.9231,-5.6409,-32.8206,-7.6921,6.6667,-10.2566,-24.6155,-2.0515,10.2566,
21.5383,2.5642,8.718,24.1023,5.1282,-25.6411,-10.2566,-35.8975,-8.2053,6.1536,-7.6926,-25.1284,-2.5642,9.7434,
22.051,-1.0256,14.8718,22.5642,1.0256,-28.2053,-13.3333,-38.9744,-8.2053,6.1536,-6.6667,-28.2053,4.6155,5.1282,
27.6924,2.564,13.333,27.6924,-7.1797,-25.6411,-7.6924,-37.949,-5.1284,2.0513,-2.0513,-28.2053,4.1025,6.6665,
27.6924,3.5898,7.6924,24.6157,-3.0767,-25.6409,-7.1792,-34.3589,-6.1538,-1.5386,1.5386,-24.6152,3.5898,9.231,
27.4355,4.3589,17.1792,27.4355,-0.25635,-26.4104,-15.1284,-32.0515,-4.3589,-1.7949,0.25635,-28.4617,8.9741,7.4355,
26.9229,4.8716,27.4355,34.1025,-15.2563,-30.0002,-13.5898,-33.0771,1.7949,-10.5129,-1.7949,-38.718,4.3589,2.3076,
29.2307,4.6155,25.1282,31.282,-24.6152,-35.8975,1.4102,-36.9231,1.0256,-18.9744,-1.0256,-43.0769,4.6155,-1.0256,
34.1025,10.5127,22.3076,29.4873,-9.6152,-34.1025,0.76904,-39.7437,-5.8975,-11.0254,-0.76904,-39.2307,11.5386,0.76904,
33.0769,14.1023,22.8206,27.4358,5.3848,-26.4104,-12.0515,-39.7437,-5.8977,-4.8718,-2.8206,-39.231,3.3333,2.8206,
37.6921,16.6667,29.4871,31.5383,-1.282,-20.2566,-3.3333,-34.6155,4.8718,-4.8718,1.282,-35.6411,-2.3079,8.9744,
32.5642,7.949,24.8718,26.4104,-3.8459,-34.6152,1.282,-43.3333,-1.282,-8.4612,1.7952,-40.2563,1.7952,-1.282,
33.0769,5.3845,27.4358,30.5129,0.76929,-36.1538,-2.8206,-42.8206,-0.76929,-0.76929,8.9744,-36.1538,10.5129,-11.5383,
31.2822,2.564,25.1279,33.8462,-2.0513,-35.8975,-7.6924,-41.5386,2.0513,-8.2051,7.1792,-36.4104,3.0767,-24.6155,
27.1792,0.5127,23.5898,28.2051,5.1279,-43.5898,-1.0259,-44.6155,4.1025,-17.436,4.1025,-44.6155,-0.51269,-36.9231,
20.769,-0.25635,24.3589,27.9487,0.25635,-47.9487,-4.3589,-43.8462,3.3335,-14.1025,4.3589,-53.5898,1.7949,-47.4358,
25.1285,8.2052,27.6925,39.4874,-10.2562,-39.9999,-6.6666,-31.2819,6.6666,-11.2819,8.7179,-50.2562,7.6925,-48.7179,
25.1279,10.769,27.1792,36.4102,-13.3335,-43.0769,-4.6152,-30.7693,4.6152,-25.1282,5.1279,-60.5129,5.6411,-61.5386,
26.9231,12.0515,30.0002,33.5901,-1.7947,-48.9744,1.7952,-35.6409,0.76929,-30.5127,-0.76929,-75.5129,3.3333,-76.5386,
32.3076,9.231,29.7437,32.8203,3.5898,-50.7693,3.5898,-38.4617,-3.5898,-32.3079,-6.6665,-86.6667,7.1792,-82.0513,
35.6409,13.0769,33.5896,38.2053,-1.282,-47.436,-1.282,-35.6411,1.282,-35.6411,1.7947,-78.718,18.718,-74.6155,
35.3845,17.4358,36.4104,43.5901,-15.3845,-45.1282,-7.1794,-35.3845,7.1794,-36.4102,8.718,-76.9229,20.0002,-77.9485,
34.3589,8.7178,27.6924,34.8716,-28.2051,-53.3335,3.0767,-44.6155,0.5127,-43.0769,-0.5127,-89.2307,7.6924,-89.7437,
38.4617,7.1794,22.0515,32.3079,-17.9487,-57.9487,10.7693,-48.2051,-5.1282,-49.7434,5.1282,-88.7178,9.2307,-87.6921,
36.1541,13.0769,20.2566,37.1794,-2.9487,-52.0513,-1.282,-44.3589,0.76929,-46.9231,20.1282,-78.2051,17.6921,-79.2307,
21.1541,5.1284,11.2822,36.4102,-2.564,-58.9744,-8.2051,-51.282,2.564,-53.8462,14.3589,-85.1282,8.7178,-85.1282,
23.3335,-1.2822,15.1284,35.6411,-11.5386,-68.4617,5.8975,-58.2051,1.2822,-63.3333,8.4614,-93.5898,9.4873,-90,
35.8977,1.0256,21.0256,32.3079,-12.8201,-67.1792,9.2312,-60.5127,-1.0256,-63.5896,18.4617,-92.8203,20.5129,-84.1023,
34.6152,5.8975,16.6665,34.6152,-2.3076,-62.3079,2.3076,-56.1538,-3.3335,-62.8206,19.7437,-93.5898,17.6924,-79.231,
24.6157,4.6157,14.3589,36.4102,2.564,-66.1538,-2.564,-60,-5.6411,-69.2307,10.7695,-106.6665,7.6924,-85.1282,
31.2822,4.6152,24.1025,38.4614,-1.0259,-70.7693,0,-63.5898,0,-70.2566,11.2822,-111.7949,11.2822,-84.1025,
33.3333,1.0256,18.4617,38.9744,-9.2307,-74.3589,3.5896,-66.6665,-1.0256,-76.9231,8.2053,-116.4102,12.8206,-82.0513,
30,2.8208,14.1025,40.2563,-17.1794,-68.9741,2.3076,-65.8972,-2.3076,-86.9229,7.436,-122.3076,12.0513,-81.7947,
35.6409,11.0256,24.3591,44.8718,-13.5898,-60.7693,-1.282,-61.282,1.282,-85.8975,13.5896,-119.2307,15.6409,-74.6155,
33.5898,6.9229,21.2822,43.3335,-6.4102,-70.5129,1.2822,-63.3333,-1.2822,-80.7693,13.0771,-113.5898,14.1025,-68.9744,
30.769,-0.51269,18.4614,41.0259,-4.1025,-77.9487,16.2822,-68.2051,0.5127,-82.564,15.8975,-115.8975,13.8462,-71.7949,
31.0259,-3.8462,24.3589,36.667,-4.3589,-78.7178,22.3076,-74.6152,3.8462,-90.5127,23.8462,-126.9231,14.1025,-79.2307,
28.9741,-8.4614,20.2563,27.9487,0.76904,-85.8975,7.3076,-78.718,1.2822,-87.9487,28.9741,-127.4358,9.4873,-79.7437,
31.0256,-5.8975,20.7693,32.5642,1.282,-86.9231,-1.282,-76.1538,4.3591,-80.2563,31.5383,-117.6924,9.9998,-75.1282,
36.9233,-2.0513,26.6665,32.8203,-8.2051,-83.0769,7.6924,-77.4358,2.0513,-93.3333,24.1025,-127.6924,8.2051,-84.1025,
