"AF3","AF4","F3","F4","F7","F8","FC5","FC6","O1","O2","P7","P8","T7","T8",
-256.2646,57.0031,8.4263,-8.4263,-84.7608,91.7005,16.3581,-9.4174,-17.3482,29.2453,-18.3393,30.2364,-17.3482,60.9684,
-248.3343,55.0194,5.4525,-5.4525,-83.7701,90.7089,30.236,-23.2973,-31.228,19.3309,-32.2191,37.1756,-17.3487,54.0283,
-233.4638,56.0119,10.4095,-1.4867,-77.8211,92.6916,26.2711,-8.4263,-20.3225,4.3309,-20.3225,46.098,-16.3571,66.9161,
-248.4638,46.0975,10.409,-5.4525,-87.7346,77.6916,11.2711,-9.4179,-15.3665,7.4348,-17.3487,34.2014,-23.2973,51.9161,
-263.4638,39.6539,3.9654,-5.9486,-102.7346,63.4462,8.9219,-18.8358,-3.9654,22.4348,-18.8358,39.6539,-19.8269,37.6717,
-275.5964,35.6885,-11.0346,-7.9308,-115.9888,68.4027,7.9308,-20.819,7.9308,37.4348,-13.8793,54.6539,-15.8616,52.6717,
-273.1177,39.1588,-18.3398,-2.4783,-100.9888,70.8819,2.4783,-10.409,5.4525,41.141,-9.4179,60.968,-19.3309,67.6717,
-270.639,42.6286,-3.9649,-1.9827,-85.9888,73.3606,15.862,-1.9827,1.9827,37.6721,-3.9649,45.968,-5.9481,64.4388,
-268.1612,42.1326,-7.4352,-2.4787,-86.743,70.8814,18.3403,-6.4441,-7.4352,27.2622,-7.4352,30.968,2.4787,57.0031,
-256.7606,41.6371,-2.9743,-0.99111,-81.2909,69.3948,13.8784,0.99111,-12.8873,17.8438,-8.9219,21.8092,-5.9486,62.4551,
-255.2735,36.1845,1.4871,-7.4357,-72.8651,63.9423,9.4179,-1.4871,-19.3319,2.8438,-15.3665,8.4259,-12.3922,51.054,
-250.3165,42.1331,-2.4783,-4.4605,-74.8473,72.8651,10.409,-12.3912,-20.322,2.4783,-11.4001,20.323,2.4783,43.1242,
-249.3254,40.1499,-4.4614,-11.4001,-81.787,71.873,8.4268,-12.3922,-14.3744,14.3744,-5.4525,35.323,4.4614,52.0461,
-255.7685,36.6801,1.9827,-7.9303,-83.2736,56.873,10.9055,-2.9738,-10.9046,12.8878,-1.9827,40.6455,-7.9303,67.0461,
-253.7863,31.7231,2.9743,-2.9743,-86.2474,46.5936,10.9051,-11.8962,-21.8092,10.9051,-3.9654,33.7063,-15.8616,59.4818,
-240.403,31.228,5.4525,-5.4525,-82.7781,60.9689,8.4268,-14.3744,-15.3655,25.9051,-8.4259,37.1756,-14.3744,44.4818,
-247.3422,29.2453,3.4698,-3.4698,-89.7173,59.9773,4.4609,-6.4432,-6.4432,40.9051,-18.3393,31.2276,-22.3047,47.0901,
-248.3338,25.2795,1.4871,-1.4871,-83.7692,57.9946,15.3665,-5.4525,-2.4782,44.1153,-13.3833,42.1331,-16.3566,51.055,
-249.3254,27.2626,-3.4694,-0.49603,-70.8819,62.9511,21.3141,-10.409,0.49603,41.141,-5.4525,43.1242,-6.4436,46.0975,
-263.6998,25.7755,-8.9219,-2.9743,-71.377,53.5332,11.8962,-7.9308,2.9743,26.141,-13.8784,28.1242,-2.9743,51.5501,
-265.1869,18.3398,-8.4268,-13.3833,-64.9334,41.141,11.4001,-3.4694,-2.4782,29.2449,-7.4348,30.236,2.4782,59.9769,
-258.2477,12.3922,-7.4348,-14.3744,-61.9591,42.1321,17.3487,-5.4525,-6.4436,38.1668,-4.4614,45.236,4.4614,45.1064,
-264.6918,12.8873,-3.9654,-12.8882,-65.4294,50.5589,17.8438,-11.8962,-8.9228,23.1668,-14.8704,30.236,3.9654,37.6707,
-269.1523,20.3225,4.4609,-8.4263,-64.9338,48.0802,10.4095,-9.4174,-22.3057,8.1668,-17.3482,15.236,2.4787,44.1148,
-254.1523,15.8616,4.9565,-3.9654,-64.4383,33.0802,3.9654,-7.9308,-21.8101,4.9565,-17.8447,7.9308,-3.9654,34.6974,
-245.8555,6.9397,1.9832,-5.9486,-70.3859,24.7834,4.9565,-14.8704,-6.8101,2.9743,-25.7755,16.8527,-7.9308,26.7666,
-260.8555,7.9313,2.9738,-2.9738,-81.2914,31.7236,2.9738,-14.87,-7.9313,7.9313,-26.7661,24.7839,-7.9313,32.7147,
-275.8555,1.4871,6.4436,-10.409,-82.7781,29.2449,1.4871,-8.4268,-18.3398,19.3319,-15.3655,35.1934,-1.4871,41.141,
-272.1266,-7.4352,0.49556,-13.3828,-78.8122,14.3749,5.4521,-14.3749,-3.3398,4.3319,-12.3917,20.1934,7.4352,44.1148,
-266.1785,-1.4871,-2.4783,1.6172,-67.9076,11.4001,20.4521,-12.3922,11.4001,-2.4783,1.4871,5.1934,16.3566,47.0886,
-275.1004,-9.4174,-17.3482,-5.4521,-76.83,20.3225,11.4006,-10.4095,-3.5999,12.5217,5.4521,10.4095,5.4521,39.1583,
-260.1004,1.4871,-12.3922,-2.4783,-79.8038,35.3225,6.4436,-1.4871,-2.4783,27.5217,-5.4525,25.4095,6.4436,43.1242,
-256.265,0.49556,-0.49556,-3.4698,-76.83,38.1672,10.4086,-6.4441,-4.4609,23.2968,-20.3225,15.366,1.4867,45.1059,
-257.2562,-2.4778,8.4263,0.49556,-66.9161,27.2622,17.3492,-0.49556,-7.4352,8.4263,-5.3225,3.4698,-0.49556,52.0466,
-250.8125,-0.99111,-3.9654,2.9743,-68.4037,19.8269,15.8616,-9.9139,-6.9397,23.4263,0.99111,18.4698,-0.99111,51.5501,
-246.3511,-3.4694,-12.3912,-2.4783,-67.9076,18.3398,19.3319,-16.3566,2.4783,31.228,-11.4001,31.228,10.409,48.0807,
-245.3595,-5.4525,-3.4694,2.4783,-66.9165,15.3665,17.3487,-15.3655,-2.4783,16.228,-9.4179,19.3319,12.3922,41.141,
-242.3857,-1.4867,6.4441,0.49556,-67.9072,17.3492,13.3838,-22.3047,-14.3739,1.4876,-0.49556,8.4263,-2.6078,39.1583,
-252.7952,-3.9654,6.9397,-5.9486,-75.3433,8.9219,17.8438,-17.8447,-2.9743,13.8784,2.9743,15.8616,-12.8873,49.5678,
-267.7952,-12.3917,3.4698,2.4787,-88.7262,-2.4787,9.4174,-8.4263,4.4609,21.3136,-9.4174,26.2711,-6.4441,48.0802,
-258.2477,-11.4001,6.4436,-2.4783,-78.8127,12.5213,2.4783,-3.4694,-10.5391,14.3744,-20.323,23.2973,2.4783,37.1756,
-243.2477,-5.4521,2.4787,0.49556,-63.8127,27.5213,5.453,-2.4778,-25.5391,-0.49556,-11.4006,8.2973,3.4698,32.2196,
-240.899,-10.9046,-0.99158,11.8966,-54.5248,35.689,11.8966,1.9827,-10.5391,-1.9827,-1.9827,0.99158,9.9135,31.7236,
-246.8467,-20.8181,2.9743,2.9743,-63.4462,25.7755,17.8447,0.99111,-11.8962,-3.9654,-11.8962,-0.99111,14.8704,36.6806,
-248.3343,-16.3576,-1.4871,1.4871,-75.8384,19.3309,13.3833,-4.4614,-20.323,3.4694,-17.3487,1.4871,13.3833,51.054,
-236.9332,-19.8269,-5.9476,3.9654,-66.4205,9.9139,3.9654,-3.9654,-8.9219,8.9228,-3.9654,8.9228,15.8616,53.5332,
-222.0632,-24.7844,2.9743,7.9308,-51.5501,11.8962,9.913,-2.9743,-8.9219,-6.0772,-6.9397,14.8704,13.8784,46.5936,
-228.0113,-19.8269,3.9654,10.9051,-61.464,22.8012,21.8101,-5.9476,-5.9476,-3.9654,-12.8873,24.7834,3.9654,51.5501,
-243.0113,-29.2444,-10.4095,2.4787,-76.464,9.4184,16.3571,-11.4006,0.49556,10.4095,-0.49556,15.366,-1.4867,52.0466,
-228.0113,-36.6801,0.99158,-0.99158,-73.3597,-0.99158,9.9135,-5.9481,-4.957,6.9392,0.99158,1.9827,1.9827,48.5763,
-213.0113,-31.2271,15.3665,-2.4783,-64.9334,14.0084,12.3922,-7.4348,-5.4525,6.4436,-3.4694,6.4436,2.4783,48.0807,
-198.0113,-16.8531,5.9481,-1.9827,-66.421,22.8008,1.9827,-10.9046,-3.9649,21.4436,1.9827,9.9135,-3.9649,35.689,
-183.0113,-7.9303,7.9312,-4.957,-67.4121,14.87,-4.957,2.9738,-2.9738,22.8008,3.9659,2.9738,-7.9303,35.689,
-168.0113,-8.4268,19.3309,-10.409,-67.9076,23.2963,0.49603,6.4436,-1.4871,7.8008,5.4525,-0.49603,-1.4871,50.689,
-153.0113,-3.4703,8.4259,-2.4782,-70.8819,30.236,1.4871,-5.4525,-7.4357,11.4001,13.3833,2.4783,-1.4871,53.0372,
-138.0113,0.49556,-4.4609,0.49556,-65.9249,23.2968,11.4006,-0.49556,-6.4432,19.3314,15.366,-3.4698,-2.4778,50.0634,
-123.0113,1.9827,-1.9827,-1.9827,-63.4467,21.8096,11.8966,8.9224,-3.9649,4.3314,7.9312,-7.9303,-4.957,50.5594,
-118.4671,1.4867,1.4867,-3.4698,-68.8992,30.2364,-3.1034,8.4263,-8.4263,-0.49556,0.49556,4.4609,-9.4184,47.0891,
-121.4409,-0.49556,10.4095,-7.4352,-67.9081,28.2533,-9.4184,16.3571,-4.4609,14.5044,0.49556,19.4609,-3.4698,48.0802,
-122.432,-0.49556,7.4352,-6.4432,-68.8992,19.3314,0.49556,15.366,-11.4006,27.2622,-0.49556,21.3146,-10.4086,40.1504,
-107.432,4.956,2.9738,-8.9224,-75.3429,23.7919,-3.9659,8.9214,-19.8274,12.2622,-1.9827,6.9392,-17.8443,33.7058,
-107.066,6.9397,12.8873,-4.9565,-81.2909,26.7666,-15.8616,12.8873,-15.8616,4.9565,-5.9476,18.8358,-9.913,43.6193,
-114.0056,4.9565,22.8012,-4.9565,-71.377,24.7834,-8.9219,13.8793,-10.9051,10.9051,-6.9397,29.7409,-4.9565,52.5421,
-104.5877,0.49556,18.3403,-19.9565,-56.377,22.3057,1.4867,5.4521,-11.4006,-4.0949,-0.49556,14.7409,-6.4441,45.1069,
-101.6135,5.4525,12.3922,-12.3922,-58.9858,16.3576,-6.4436,5.4525,-1.4871,-19.0949,2.4782,-0.25911,1.4871,36.1845,
-114.5012,3.4703,8.4268,-3.4694,-71.873,4.4614,-21.4436,-1.4871,1.4871,-11.4001,4.4614,-15.2591,4.4614,33.2103,
-110.5358,-2.4787,13.3828,-9.4184,-67.9081,4.4609,-6.4441,0.49556,-2.4787,3.5999,8.4263,-0.25911,-0.49556,38.1672,
-101.1184,-4.9565,5.9476,-16.8536,-71.3779,12.8873,2.9743,11.8962,-2.9743,9.913,-4.9565,5.9476,-3.9654,28.7488,
-95.1698,0,0,-19.8269,-74.3513,17.8447,-12.0257,11.8962,4.9574,14.8704,-2.9743,-3.9654,0,17.8447,
-91.7005,4.4609,4.4609,-11.4006,-66.9161,17.3482,-16.3571,-2.4787,-3.4698,18.3403,2.4787,6.4441,-2.4787,16.3571,
-81.2909,-1.9822,6.9397,-9.9139,-60.4729,21.8101,-1.3571,8.9219,-4.9565,25.7755,0,21.4441,-1.9822,21.8101,
-71.3779,0.99111,0,-16.8536,-63.4472,30.732,-1.9832,23.7923,0,22.8012,0,26.7666,-0.99111,20.8181,
-73.8557,13.3828,3.4698,-9.4174,-57.9942,35.1929,-15.366,13.3828,-7.4352,11.4006,-3.4698,20.3225,-8.4263,17.3482,
-77.8216,10.409,13.3833,-9.4179,-42.9942,38.1668,-9.4179,8.4268,-11.4001,14.3744,-8.4268,28.2538,-10.409,18.3398,
-71.873,5.4525,9.4179,-9.4179,-39.1579,30.2369,-5.4525,17.3487,-10.409,17.3487,-11.4001,13.3833,-11.4001,13.3833,
-56.873,8.4263,18.3403,-0.49556,-31.2276,24.2879,-1.4867,24.2879,-4.4609,20.3225,0.49556,-1.6167,-4.4609,11.4006,
-60.4729,-2.9743,22.8012,-9.9139,-33.7063,17.8438,0.99111,9.913,-2.9743,15.8616,3.9654,-0.99111,-2.9743,12.8873,
-74.8468,-6.4441,7.8012,-13.3828,-48.7063,17.3492,-3.4698,6.4441,-0.49556,9.4184,0.49556,5.453,-4.4609,22.3057,
-71.8726,-0.49556,-1.4867,-7.4352,-50.0634,20.3225,1.4876,17.3492,2.4787,13.3838,-0.49556,0.49556,-3.4698,35.1929,
-65.4289,4.957,8.9224,-2.9738,-36.6801,14.87,1.9827,16.8531,-5.9481,12.8878,-8.9224,-1.9827,-8.9224,38.6633,
-65.9249,5.4521,23.9224,-4.4609,-35.1929,20.3225,3.4698,14.3749,-7.4352,-0.49556,-10.4095,0.49556,-10.4095,46.098,
-71.873,0.49603,26.2706,-8.4268,-33.2103,21.3141,9.4179,20.323,0.49603,-2.4783,-1.4871,-0.49603,-5.4525,43.1242,
-76.83,1.4867,24.2879,-1.4867,-29.2453,6.3141,7.4352,29.2444,-4.4609,4.4609,-1.4867,-2.4787,-5.453,29.2444,
-70.8814,0.49556,26.2711,-2.4787,-31.2276,6.4441,7.4352,19.3314,-7.4352,-3.4698,-0.49556,4.4609,-5.4521,33.2107,
-69.8903,-0.49556,23.2968,-0.49556,-35.1929,21.4441,10.4086,10.4086,-2.4787,-11.4006,4.4609,0.49556,-3.4698,40.1494,
-84.8903,0,20.8181,0,-34.6974,25.7746,5.9476,16.8527,-3.9654,-5.9486,0.99111,-4.9574,-2.9743,32.7142,
-98.1441,0,26.7666,-3.9654,-33.7063,13.8784,-0.99111,26.7666,-5.9486,7.9308,-1.9832,10.0426,0,33.7063,
-90.7089,-0.49603,15.3655,0.49603,-43.1242,7.4348,-4.4614,12.3922,-3.4694,-2.4783,0.49603,5.4525,-5.4525,34.2014,
-86.743,0.49556,8.4273,-1.4867,-50.0634,3.4698,2.4787,-0.49556,5.453,-12.3917,8.4273,-9.5475,-1.4867,37.1761,
-88.7257,0.49556,10.4095,-11.4006,-57.0021,4.4619,-8.4263,4.4619,2.4787,-0.49556,3.4698,-15.366,-3.4698,38.1672,
-87.7351,-3.4698,9.4174,-9.4184,-52.0466,8.4263,-17.3492,16.3571,-3.4698,9.4174,3.4698,-0.366,-13.3838,35.1929,
-74.8473,-4.4609,11.4006,-3.4698,-41.1415,8.4263,-2.3492,24.2879,5.4521,-4.4609,14.3749,-11.4006,-3.4698,41.1415,
-67.4121,-0.99158,8.9224,-3.9659,-56.1415,7.9313,7.9313,16.8531,0.99158,-12.8878,8.9224,-26.4006,-0.99158,36.6801,
-65.4299,2.9738,5.9481,-14.8709,-56.507,14.87,-4.957,17.8443,-7.9312,0.99158,-0.99158,-11.4006,-8.9224,28.7493,
-67.4121,3.9649,11.8957,-9.9135,-41.507,14.87,-9.9135,32.8443,-0.99158,-2.9748,3.9649,0.99158,-3.9659,32.7147,
-77.3251,-6.9387,11.8971,0,-53.5323,0,-7.9308,45.6024,6.9397,-11.8962,6.9397,-14.0084,4.9574,37.6717,
-73.3602,-12.8878,8.9224,-2.9738,-63.4467,4.957,-4.957,30.7315,6.9392,-18.8354,4.957,-20.8185,2.9738,40.6455,
-58.3602,0,19.8269,-3.9654,-48.4467,14.8704,4.9565,19.8269,1.9832,-33.8354,0,-31.7231,-0.99111,33.7063,
-43.3602,3.9654,32.7152,-9.913,-33.4467,-0.12955,18.8358,15.8616,-1.9822,-45.6024,0,-41.6361,0,25.7755,
-48.0807,-11.0346,26.2706,-16.3576,-18.4467,-15.1296,10.409,11.4001,-0.49603,-30.6024,3.4694,-28.2538,0.49603,30.236,
-54.5248,-17.8443,25.775,-4.957,-3.4467,-28.7493,1.9827,9.9135,2.9738,-20.8185,5.9481,-21.8096,3.9649,36.6801,
-53.0367,-21.3136,24.2888,-10.4086,4.4619,-27.2622,2.4787,1.4876,0.49556,-35.1929,2.4787,-36.8096,-0.49556,31.2276,
-56.507,-16.8531,16.8531,-11.8966,6.9392,-26.7671,4.957,4.957,0.99158,-21.8096,0.99158,-29.7404,-0.99158,31.7226,
-42.6282,-12.8873,16.8527,-9.9139,0.99111,-25.7755,12.8873,19.8269,-0.99111,-26.7666,0.99111,-14.8704,1.9832,31.7231,
-28.2533,-2.4787,31.8527,0.49556,-0.49556,-20.3225,23.2968,34.2018,-1.4876,-24.2879,2.4787,-0.49556,6.4441,31.2276,
-43.2533,-2.4787,30.2364,2.4787,-5.4521,-15.366,8.2968,31.2276,-3.4698,-9.2879,-3.4698,8.4263,-2.4787,31.2276,
-58.2533,-15.862,25.775,-2.9748,-2.9748,-6.9401,-6.7032,24.7839,4.957,3.9649,2.9738,0.99158,-0.99158,35.688,
-48.5767,-21.8101,31.7231,6.9387,0,-10.9051,1.9822,18.8349,-3.9663,-11.0351,0.99111,-14.0084,0,32.7142,
-40.1499,-13.3833,29.2449,12.3922,2.4783,-20.323,4.4614,26.2706,-12.3922,-9.4179,-3.4694,0.99158,-2.4783,41.141,
-42.6282,-5.9476,18.8358,0,5.9486,-24.7834,-4.9565,22.8012,-4.9565,3.9654,0,15.9916,-2.9733,42.6282,
-50.5589,-5.9486,3.8358,2.9743,9.913,-23.7923,0,9.913,-3.9654,-11.0346,-1.9832,2.9743,0,27.7577,
-51.0545,-7.4352,-11.1642,15.366,13.3838,-23.2968,15,18.3403,-0.49556,-8.4263,0.49556,-4.4609,8.4263,33.2107,
-62.4556,-16.8531,-26.1642,13.8789,-1.6162,-38.2968,9.9135,17.8443,-0.99158,4.957,0.99158,6.9392,-2.9738,33.7058,
-57.0031,-18.3403,-35.1929,12.3917,-3.4698,-42.1326,0.49556,13.3838,-0.49556,11.4006,0.49556,10.4095,-8.4263,26.2711,
-42.0031,-13.8789,-32.7147,11.8966,1.9827,-36.6801,1.9827,15.862,-1.9827,20.8185,-1.9827,4.957,-2.9738,25.775,
-42.6282,-8.9228,-31.7231,19.8269,-3.9654,-37.6717,6.9397,21.8092,0,16.8527,0,3.9654,-2.9743,33.7053,
-55.5164,-22.8012,-35.6894,10.9041,-12.8882,-39.6548,2.9733,14.8695,0,1.8527,0.99111,2.9733,-4.9574,35.6885,
-51.0545,-22.3057,-38.1672,16.3571,-7.4352,-42.1326,1.4867,17.3482,-3.4698,3.4698,-0.49556,7.4352,0.49556,29.2444,
-37.1761,-7.3057,-36.185,28.2533,2.4778,-41.1415,2.4778,25.279,-8.4273,4.4609,-5.453,-0.49556,0.49556,37.1752,
-29.2449,-2.4782,-34.2014,19.3309,7.4348,-26.1415,5.4525,32.2191,-4.4614,-3.4703,-1.4871,1.4871,6.4436,52.1752,
-35.1929,-5.4521,-41.1406,16.3571,4.4609,-20.3225,0.49556,30.2364,-8.4263,-10.4095,-0.49556,2.4787,3.4698,44.1158,
-34.2018,-0.49556,-36.1841,27.2622,11.4006,-33.2107,2.4787,37.1761,-8.4263,-9.4184,2.4787,-6.4441,0.49556,29.1158,
-29.2449,-6.4436,-31.228,27.2617,10.409,-31.228,4.4614,44.1153,-4.4614,5.5816,-0.49603,-2.4783,0.49603,36.1845,
-37.1756,-16.3576,-36.1845,21.3141,0.49603,-26.2706,0.49603,32.2191,-4.4614,9.4179,-3.4694,10.409,-0.49603,38.1668,
-42.6282,-14.8704,-35.6885,24.7834,-0.99111,-37.6717,0.99111,26.7666,-1.9832,-5.5821,4.9565,1.9822,1.9822,31.7231,
-38.6623,-11.8966,-31.7236,31.7236,1.9827,-52.6717,3.9659,30.7315,-1.9827,-19.8274,1.9827,-12.8878,2.9738,31.7236,
-23.6623,-4.4609,-30.2364,24.2879,8.4263,-46.098,11.4006,32.2187,0.49556,-5.453,-0.49556,-0.49556,7.4352,36.1841,
-8.6623,7.9308,-30.732,24.7834,4.9565,-31.098,3.9654,31.7231,-2.9743,-16.8536,0,-4.9574,0,36.6796,
1.4867,22.9308,-19.3314,39.7834,12.3917,-23.2968,15.366,37.1761,-5.453,-29.2453,-1.4867,-19.9574,-3.4698,30.2364,
15.3655,25.2795,-19.3319,25.2795,25.2795,-38.2968,26.2706,25.2795,-7.4357,-24.2884,-9.4179,-28.2538,-6.4436,15.2364,
30.3655,40.2795,-14.8709,25.775,36.6801,-47.5851,22.8008,17.8443,-0.99158,-23.7928,-0.99158,-23.7928,-11.8966,0.99158,
45.3655,55.2795,-4.957,27.7582,37.6712,-38.6623,18.8363,21.8096,-3.9649,-38.7928,1.9827,-33.7058,-23.7919,-1.9827,
60.3655,70.2795,3.4698,28.2533,45.1059,-26.2711,27.2622,34.2009,-6.4441,-28.2542,-3.4698,-18.7058,-28.2542,-4.4619,
75.3655,85.2795,6.9392,31.7236,58.4893,-18.8363,24.7839,31.7236,-13.8789,-30.7325,-12.8877,-15.862,-41.6366,-6.9392,
90.3655,100.2795,10.9051,33.7063,73.4893,-23.7923,22.8012,28.7488,-14.8704,-45.7325,-11.8962,-30.862,-49.5678,-10.9051,
105.3655,115.2795,8.4263,39.1583,70.8824,-24.2879,26.2711,34.2018,-12.3917,-60.7325,-8.4263,-45.862,-49.0713,-17.3482,
120.3655,130.2795,0,36.6806,63.4472,-10.9041,16.8536,38.6628,-22.8012,-54.5243,-21.8092,-34.6974,-58.4897,-2.3482,
135.3655,145.2795,-12.3917,26.2711,62.9507,-19.3314,12.3917,33.2107,-37.8012,-46.098,-36.8092,-38.1672,-73.4897,12.6518,
150.3655,160.2795,-10.9051,35.6885,70.3859,-23.7923,27.3917,40.645,-32.7152,-55.5154,-30.732,-53.1672,-66.4205,10.9051,
165.3655,175.2795,-0.49556,28.2542,79.8043,-8.7923,33.2107,39.1583,-29.2444,-62.9507,-25.279,-51.0545,-57.9942,0.49556,
180.3655,179.9306,2.4783,19.3309,85.7524,-2.4783,20.323,28.2538,-44.1153,-65.9254,-38.1668,-59.9769,-72.9942,-4.4614,
195.3655,180.4261,-0.99158,26.7661,81.2905,-17.4783,13.8789,27.7582,-37.6712,-62.4556,-33.7058,-74.9769,-84.2648,0.99158,
210.3655,174.4781,0,21.8092,66.2905,-28.7498,5.9476,23.7923,-30.732,-72.3691,-30.732,-87.2395,-85.2563,0,
225.3655,176.4608,6.9392,24.7839,63.4467,-21.8096,2.9738,22.8008,-40.6455,-84.2648,-40.6455,-94.1787,-84.2648,-2.9738,
240.3655,190.3392,5.9481,34.6969,67.4121,-20.8185,5.9481,26.7661,-37.6721,-86.2479,-38.6633,-91.2044,-85.2568,-5.9481,
245.3605,205.3392,14.3749,49.6969,52.4121,-9.4174,4.4609,41.7661,-27.2622,-72.8646,-29.2453,-83.7697,-86.743,-4.4609,
256.265,207.6893,24.2884,54.0293,41.141,-2.4782,1.4871,46.0985,-37.1756,-68.8988,-34.2014,-82.7781,-91.7,-1.4871,
270.6395,194.305,25.7746,39.0293,45.6015,0,0,32.7142,-41.6371,-79.3087,-36.6806,-80.2998,-95.1703,-9.9139,
285.0144,201.7402,23.2968,47.0891,41.1415,7.4352,-7.4352,42.1326,-28.2533,-84.7608,-21.6806,-68.8992,-82.7776,-13.3828,
283.0312,197.7748,10.4095,42.1326,26.1415,7.4352,-16.3571,51.0545,-27.2622,-75.8379,-20.3225,-62.9507,-78.8122,-7.4352,
281.049,186.8707,3.4698,27.1326,21.3146,5.453,-8.4263,40.1504,-40.1494,-60.8379,-35.3225,-55.0199,-93.8122,-3.4698,
296.049,179.435,4.957,19.8265,32.7147,6.9392,-7.9312,41.6366,-40.6455,-58.4902,-40.6455,-40.0199,-102.1095,-4.957,
310.2929,180.4261,1.9827,15.8611,18.8354,11.8957,-21.8096,56.507,-25.6455,-56.507,-27.7582,-33.7068,-87.1095,-1.9827,
306.824,183.896,-2.4782,16.3576,21.3141,24.2884,-23.2973,58.9858,-29.2449,-44.1153,-23.2973,-38.1668,-82.7781,2.4782,
303.3542,173.4865,-1.9827,9.9135,36.3141,33.7058,-13.8789,56.507,-44.2449,-53.5328,-30.7325,-43.6198,-91.2044,1.9827,
302.3626,169.5216,0,20.819,40.6459,35.6885,-6.9397,71.507,-43.6193,-68.5328,-26.7666,-49.5678,-79.3078,0,
287.3626,154.5216,0.49556,34.2018,30.2355,30.2355,-13.3838,80.7954,-28.6193,-73.8557,-11.7666,-61.9596,-68.8992,-0.49556,
273.6133,139.5216,-0.99158,21.8096,28.7493,32.7147,-19.8274,69.3943,-15.862,-59.4813,-1.9827,-59.4813,-70.3864,0.99158,
275.1009,124.5216,-4.4614,16.3576,25.2795,36.1845,-16.3576,63.9423,-16.3576,-44.4813,-9.4179,-44.4813,-67.9076,4.4614,
264.6909,116.9795,-7.9308,11.8962,19.8269,26.7666,-6.9397,69.3948,-11.8962,-29.4813,-14.8704,-29.4813,-64.4383,-0.99111,
249.6909,111.5269,-6.4436,10.409,15.3655,28.2538,-11.4011,74.8473,-4.4614,-14.4813,-5.4525,-14.4813,-65.9254,4.4614,
241.3946,105.5793,-8.4268,6.4436,5.4525,33.2103,-26.4011,68.8988,-11.4001,-29.4813,-5.4525,-29.2449,-69.8899,18.3398,
249.3254,97.6485,-5.4525,5.4525,17.3487,31.2271,-20.323,63.9423,-15.3665,-26.2706,-9.4179,-14.2449,-63.9423,23.2963,
234.3254,82.6485,-14.87,0.99158,15.8611,16.2271,-18.8354,50.5585,-25.775,-33.7058,-24.4179,-0.99158,-78.3171,8.2963,
223.0548,82.2821,0.13003,-0.99111,13.8784,23.7923,-15.8616,56.5075,-20.8181,-48.7058,-23.7923,-15.9916,-75.3433,3.9654,
216.6107,77.8211,12.3917,-5.4521,21.3146,27.2622,-22.3057,58.9853,-26.2711,-63.7058,-21.3146,-30.9916,-65.9249,5.4521,
213.1408,74.3522,0,5.9486,21.8101,19.8269,-28.7488,63.4472,-34.6974,-48.7058,-27.7577,-31.7231,-61.464,0,
211.6542,79.8043,-0.49556,11.4006,6.8101,26.2711,-25.2799,73.8557,-31.2276,-33.7058,-18.3403,-20.3225,-56.0119,15,
200.7486,74.8464,1.4871,13.3833,-7.4357,29.2449,-22.3061,67.9076,-18.3408,-41.142,-3.3403,-35.3225,-52.0461,23.2963,
185.7486,59.8464,-13.5129,7.4357,-0.49603,18.3398,-20.323,55.0204,-3.3408,-27.2617,-0.49603,-31.2271,-44.1153,8.2963,
170.7486,44.8464,-28.5129,-5.4521,-15.496,3.3398,-35.323,53.0377,1.4876,-12.2617,-6.4441,-16.2271,-49.0723,0.49556,
155.7486,29.8464,-26.2711,0.49556,-30.496,0.49556,-39.1583,58.9853,-2.4787,-4.4619,-0.49556,-1.2271,-49.0723,15.4956,
146.7203,16.8527,-22.8012,0.99111,-25.7755,11.8962,-26.7666,64.4383,-0.99111,-19.4619,0.99111,-13.8793,-34.0723,30.4956,
133.8326,20.8185,-16.8531,2.9738,-20.8185,16.8531,-17.8443,75.3429,-1.9827,-26.7671,1.9827,-10.9055,-20.8185,18.8354,
125.9018,30.7325,-1.8531,0.99158,-27.7573,9.9135,-25.775,71.3775,-16.9827,-26.7661,-1.9827,1.9827,-30.7315,25.775,
130.8588,24.7834,0.99111,3.9654,-24.7844,5.9476,-25.7755,71.377,-18.8358,-41.7661,-14.8704,-0.99111,-37.6717,29.7399,
135.8153,25.7755,-2.9743,16.8527,-17.8447,16.8527,-10.7755,86.2475,-3.8358,-41.6371,-9.9139,-2.9743,-24.7834,34.6974,
128.8756,13.8793,-11.8962,1.8527,-19.8269,14.8704,-12.8873,71.2475,0.99111,-26.6371,-0.99111,3.9654,-25.7755,30.732,
120.9448,0.99111,-19.8269,-13.1473,-21.8101,4.9565,-25.7755,56.2475,-5.9486,-11.6371,-0.99111,13.8793,-32.7142,16.8527,
110.0398,6.9397,-23.7923,-3.9654,-22.8012,1.9832,-27.7577,62.4551,-5.9486,3.3629,-1.9832,4.9565,-26.7666,18.8358,
95.0398,9.4179,-24.2884,-1.4871,-22.3052,6.4436,-28.2538,65.9254,-12.3922,-8.4268,4.4614,1.4871,-25.2795,28.2538,
80.0398,-0.49556,-30.2364,-5.4521,-30.2364,1.4867,-33.2107,50.9254,-22.3057,0.49556,1.4867,2.4787,-36.1841,13.2538,
65.0398,2.9738,-23.7928,-1.9827,-23.7928,4.957,-21.8096,57.4981,-13.8789,4.957,-4.957,1.9827,-23.7928,2.9738,
67.4121,12.8868,-8.7928,7.9303,-8.9224,18.8354,-6.8096,71.3775,-3.9659,-5.9481,-1.9827,1.9827,-8.7928,17.9738,
52.4121,-2.1132,-16.3571,3.4698,-23.2968,13.3828,-6.4441,62.9507,6.4441,-17.3482,6.4441,-3.4698,-11.4006,28.2533,
37.4121,-17.1132,-27.7577,0.99111,-37.6717,6.9397,-12.8873,58.4897,21.4441,-7.9308,21.4441,-0.99111,-7.9308,27.7577,
22.4121,-16.3576,-30.2369,-2.4783,-32.2191,2.4783,-26.2715,49.0718,23.2963,-15.3665,28.2528,-15.9911,4.4605,32.2191,
9.4179,-16.3576,-24.2884,-15.3665,-17.2191,9.4179,-19.3319,52.0461,25.2795,-9.4179,25.2795,-12.3922,13.3833,40.1499,
-5.5821,-28.7493,-33.7058,-19.8274,-28.7493,-0.99158,-22.8008,59.4813,30.7325,1.9827,16.8531,2.6078,0.99158,37.6712,
0.99111,-27.7577,-36.6796,-4.8274,-43.6193,-10.9051,-27.7577,52.5421,15.7325,2.9743,9.9139,5.9486,-7.9308,30.732,
15.9911,-18.8358,-23.7923,4.9565,-28.7488,-9.913,-12.7577,47.5847,0.73247,6.9397,11.8962,12.8873,-5.9476,21.8101,
13.8798,-18.8354,-18.8354,6.9401,-33.7058,-1.9827,-17.8443,53.5337,-7.9303,11.8966,1.9827,22.8017,-13.8789,15.862,
-1.1202,-33.8354,-26.2706,2.4783,-48.7058,0.49603,-32.8443,55.0204,5.4525,8.4268,-0.49603,20.323,-23.2963,28.2538,
-8.9228,-40.6459,-36.6806,3.9654,-50.5589,-3.9654,-44.6113,56.5066,12.8873,6.9387,14.504,22.8012,-8.2963,43.2538,
-8.9224,-38.6623,-37.6712,0.99158,-39.6544,-0.99158,-33.7058,49.5674,8.9224,-1.9827,14.87,16.8531,1.9827,28.7493,
-16.8527,-34.6974,-25.7755,-3.9654,-37.6717,14.0084,-34.6974,49.5678,19.8269,0.99111,15.8616,1.8531,3.9654,28.7498,
-31.8527,-37.1761,-31.2276,0.49556,-43.1237,-0.49556,-39.1583,42.1326,22.3057,7.4352,18.3393,-13.1469,4.4609,34.2018,
-16.8527,-28.7488,-17.8447,6.9397,-28.1237,-6.9397,-24.1583,51.5501,22.8012,14.8704,24.7834,-10.9051,11.8962,30.732,
-1.8527,-22.3052,-2.8447,1.4871,-20.323,-2.4783,-27.2617,57.9946,16.3576,-0.12955,17.3487,-25.2795,4.4614,19.3319,
-6.9392,-21.8096,4.957,5.9481,-35.323,-4.957,-37.6712,51.5505,17.8443,-8.9224,15.8611,-33.7058,6.9392,23.7928,
-9.913,-24.7834,-5.9476,0,-38.6628,-12.8873,-32.7142,48.5767,17.8447,6.0776,13.8793,-18.7058,16.8536,19.8269,
-14.87,-20.8185,-10.9046,-2.9738,-35.689,-13.8789,-38.6633,41.6366,2.9738,16.8531,2.9738,-3.7058,2.9738,6.9392,
-14.87,-12.8868,-7.9303,1.9827,-37.6712,-9.9135,-41.6366,40.6455,5.9481,3.9659,10.9055,-1.9827,2.9747,16.8531,
-25.2795,-15.3655,-11.4001,-6.4436,-40.1499,-19.3309,-43.1233,38.1677,8.4268,7.4357,12.3922,6.4436,6.4436,14.3754,
-40.2795,-3.9654,-9.913,-4.9565,-31.7231,-14.8704,-44.6104,45.6024,4.9574,12.8882,3.9654,12.8882,5.9486,7.9308,
-46.0975,2.4783,-1.4871,-0.49603,-30.236,-3.4694,-40.1499,49.0718,12.3922,0.49603,13.3833,-2.1118,14.3744,21.3141,
-54.5248,-6.9397,-2.9743,7.9308,-45.236,-18.4694,-39.6539,49.5678,21.8092,2.9743,22.8012,-12.8873,6.9397,25.7755,
-69.5248,-14.3739,-12.3917,0.49556,-56.011,-33.4694,-47.0891,50.0634,16.3571,14.3749,15.366,1.4876,-0.49556,16.3571,
-63.4462,-13.8793,-12.8873,-8.9219,-41.011,-18.4694,-49.5678,37.6717,8.9219,10.9051,9.913,13.8793,10.9051,15.8616,
-68.4037,-20.8181,-11.8962,-3.9654,-56.011,-28.7498,-43.6193,36.6796,9.913,16.8527,10.9051,17.8447,3.9654,21.8101,
-83.4037,-27.7582,-10.9046,-2.9738,-68.4037,-43.7498,-40.6455,46.5931,18.8354,11.8957,14.87,9.9135,2.9738,22.8008,
-68.4037,-14.8709,-0.99158,10.9046,-53.4037,-28.7498,-27.7582,39.6544,28.7493,0.99158,25.775,-0.99158,17.9738,28.7493,
-53.4037,-27.7577,0,-0.99111,-38.4037,-32.7152,-27.7577,24.6544,13.7493,0,11.8962,-12.8873,5.9476,13.7493,
-38.4037,-30.2364,10.4095,-11.4006,-23.4037,-47.7152,-16.3571,25.2799,9.4184,-0.49556,7.4352,-9.4174,0.49556,11.4006,
-32.2191,-20.322,2.4783,-2.4783,-8.4037,-42.1321,-11.4001,36.1845,6.4436,-15.4956,13.3833,-15.3655,15.4956,16.3576,
-32.7147,-24.7839,-2.9738,2.9738,6.5963,-38.6623,-10.9046,36.6801,13.8789,-16.8531,26.7671,-4.957,30.4956,23.7928,
-47.7147,-39.7839,-1.9827,-7.9303,-1.9827,-53.6623,-18.8354,30.7325,13.8789,-1.8531,22.8008,1.9827,19.8274,22.8008,
-62.7147,-40.1499,1.4871,-10.409,-13.3833,-65.9254,-24.2884,30.236,16.3566,4.4605,26.2706,-1.4871,27.2617,28.2538,
-55.0204,-35.1929,0.49556,-5.453,-19.3314,-59.9773,-27.2622,37.1752,26.2701,-0.49556,32.2187,3.4698,33.2098,33.2098,
-66.4205,-35.688,-7.9303,-1.9827,-26.7661,-46.5931,-17.8443,33.7068,19.8274,1.9827,18.8363,10.9055,18.2098,24.7839,
-65.4294,-25.775,-1.9827,-0.99158,-13.8789,-31.5931,-3.9659,29.7404,10.9046,0.99158,12.8877,10.9046,3.2098,29.7404,
-57.0031,-25.2795,9.4179,9.4179,-9.4179,-22.3061,-9.4179,38.1668,12.3913,-14.0084,12.3913,-4.0954,13.3833,33.2103,
-54.0288,-34.2014,13.3833,16.3576,-13.3833,-24.2884,-13.3833,41.141,17.3487,-24.2884,19.3319,-19.0954,18.3398,35.1934,
-64.9334,-44.1153,6.4436,2.4783,-15.3655,-29.2449,-12.3922,31.228,24.2884,-9.2884,31.228,-12.3922,12.3922,39.1588,
-76.334,-44.6109,-0.99111,0.99111,-5.9486,-35.6885,-18.8358,27.7577,32.7142,3.9654,32.7142,-10.9051,14.8704,24.1588,
-70.8814,-46.098,-0.49556,8.4263,1.4876,-34.2018,-19.3314,35.1929,38.1672,-2.4787,31.2276,-9.4174,24.2879,9.1588,
-73.8557,-48.0802,-3.4698,3.4698,-12.3917,-36.1841,-25.279,38.1672,25.2799,3.4698,21.3146,3.4698,16.3571,-5.4521,
-81.2909,-41.6366,-5.9481,-1.9827,-16.8531,-32.7147,-26.7661,32.7147,17.8443,15.862,11.8966,7.9312,11.8966,1.9827,
-77.8211,-41.141,-10.409,-4.4614,-15.3655,-33.2103,-14.3744,21.3141,25.2795,17.3487,12.3922,6.4436,17.3487,4.4614,
-73.8562,-47.0896,-15.3665,-1.4871,-28.2538,-44.1153,-25.2795,6.3141,17.3487,6.4436,6.4436,5.4525,4.4605,1.4871,
-64.9338,-45.1069,-0.49556,-2.4787,-14.3749,-37.1761,-22.3057,1.4867,7.4352,4.4609,2.4778,3.4698,9.4174,0.49556,
-57.4986,-35.689,1.9827,-8.9224,0.62511,-30.7325,-7.3057,2.9738,4.957,1.9827,2.9738,-4.957,24.4174,-7.9312,
-49.5674,-21.8096,-6.9392,-9.9135,6.9392,-29.7404,1.9827,16.8531,-1.9827,5.9481,-2.9738,6.9392,27.7582,4.957,
-49.5678,-19.8269,-3.9654,-15.8616,6.9397,-20.819,0,29.7409,0,9.913,-1.9832,21.9392,20.8181,19.8269,
-60.4724,-21.8101,-3.9654,-13.8784,-0.99111,-16.8527,-15,14.7409,10.9051,13.8793,0.99111,25.7755,17.8447,4.8269,
-55.0204,-19.3319,-1.4871,-9.4179,-3.4703,-15.3665,-30,13.3833,17.3487,17.3487,1.4871,26.2706,26.2706,7.4348,
-46.098,-22.3057,-0.49556,-8.4263,0.49556,-21.3146,-15.366,25.2799,6.4441,2.3487,3.4698,11.4006,24.2879,22.4348,
-45.6024,-14.8704,2.9743,6.5737,-2.9743,-31.7231,-2.9743,24.7844,16.8527,-12.6513,18.4698,-3.5994,23.7923,30.732,
-55.0204,-5.4525,5.4525,5.4525,-9.4179,-29.2449,-17.9743,13.3833,31.228,-6.4436,31.228,-8.4268,27.2626,15.732,
-60.4729,2.9738,-2.9738,-9.5475,-8.9224,-28.7493,-32.9743,8.9224,17.8443,-2.9738,17.8443,2.9738,24.7839,5.9481,
-45.4729,17.9738,-4.4614,-7.4348,-9.4179,-32.2191,-33.2103,12.3922,16.3576,-3.4694,3.4694,17.9738,22.3052,13.3833,
-34.6969,32.9738,-3.9649,-0.99158,-24.4179,-38.6623,-33.7058,5.9481,21.8096,-9.9135,0.99158,22.8017,18.8354,20.8185,
-44.6104,38.6628,-3.9654,4.9565,-39.4179,-51.5501,-36.6796,2.9743,10.9051,-24.9135,8.9219,7.8017,14.8704,9.9139,
-44.1153,46.0975,-0.49603,4.4614,-35.1934,-53.0372,-30.236,7.4348,11.4001,-29.2449,19.3319,-7.1983,9.4179,0.49603,
-35.689,50.5594,-1.9827,2.9738,-46.5931,-44.6109,-34.6969,7.9313,23.7928,-18.8354,16.8531,-22.1983,1.9827,2.9738,
-32.7147,51.5505,-1.9827,4.957,-56.5075,-29.6109,-32.7147,14.87,24.7839,-4.957,14.87,-12.8878,1.9827,1.9827,
-36.1845,61.9591,0.49603,-4.4614,-43.1242,-14.6109,-29.2449,25.2795,14.3744,-0.49603,12.3922,2.1122,-2.4782,6.4436,
-25.7755,76.9591,0.99111,-1.9822,-28.1242,-19.8269,-35.6885,23.7923,16.8527,-13.8784,15.8616,12.8873,-0.99111,21.4436,
-10.7755,91.9591,4.4609,-4.4609,-25.2799,-28.2533,-31.2276,8.7923,23.2968,-28.2533,26.2711,-2.1127,14.0089,22.3057,
-5.4525,106.9591,11.4001,-9.4179,-25.2795,-22.3052,-18.3398,8.4268,17.3487,-16.3576,27.2617,-17.1127,24.2884,7.3057,
-20.4525,113.5101,4.4614,-22.3052,-27.2626,-31.228,-23.2973,18.3398,3.4694,-7.4348,17.3487,-2.4783,14.3744,2.4783,
-25.775,106.0749,4.957,-21.8096,-28.7493,-31.7236,-26.7661,21.8096,13.8789,-6.9392,27.7582,-4.957,24.7839,10.9046,
-28.7488,108.0576,10.9051,-16.8527,-39.6544,-16.8527,-22.8012,7.9308,28.7488,-7.9308,36.6796,-14.8704,29.7409,9.9139,
-37.1752,96.6569,3.4698,-31.8527,-45.1059,-27.2622,-18.3403,3.4698,21.3146,-3.4698,28.2533,-4.4609,14.7409,4.4609,
-35.1934,94.6743,2.4783,-28.2538,-35.1934,-40.1499,-16.3576,18.4698,9.4179,-2.4783,20.322,-2.4783,9.4179,4.4605,
-34.2014,102.605,13.3833,-13.3833,-33.2103,-25.1499,-17.3487,24.2884,17.3487,-14.3744,16.3576,-13.3833,18.3398,16.3576,
-42.1331,97.6476,13.3833,-20.323,-34.2023,-10.1499,-19.3319,9.4179,25.2795,-20.323,14.3744,-15.3665,16.3566,25.2795,
-41.141,102.605,11.4011,-9.4179,-25.2795,-13.3833,-19.3309,10.409,15.3665,-11.4001,17.3487,-21.3141,9.4179,10.409,
-26.141,112.0225,26.4011,-7.9312,-18.8354,-13.8789,-9.9135,22.8008,11.8966,-5.9481,15.862,-9.9135,16.8531,5.9481,
-31.228,97.6476,27.2617,-22.9312,-33.2103,-27.2626,-15.3665,13.3833,9.4179,-20.9481,2.4783,-2.4783,6.4436,9.4179,
-32.2187,98.6392,26.2711,-15.366,-30.2364,-25.2799,-5.4521,13.3828,18.3403,-22.3057,17.4783,-10.4095,5.4521,15.366,
-40.1494,91.7005,23.2968,-19.3314,-30.2364,-23.2968,-0.49556,7.4352,9.4184,-15.366,25.2799,-19.3314,9.4184,0.49556,
-43.6198,91.2044,20.8185,-14.87,-31.7236,-25.775,-7.9303,13.8789,2.9738,-2.9738,10.2799,-4.3314,12.8878,-2.9738,
-55.5159,86.2474,6.9397,-18.8358,-41.6371,-35.6885,-22.9303,23.7923,9.9139,-6.9397,0,0.99111,2.9743,0,
-45.1069,95.6658,14.3749,-16.3571,-26.6371,-20.6885,-17.3492,28.2533,20.3225,-14.3749,15,-12.3917,13.3828,12.3917,
-42.6282,83.2732,9.913,-20.819,-27.7587,-15.8625,-18.8358,13.2533,5.3225,-19.8279,11.8962,-3.9654,12.8873,5.9476,
-54.0288,68.2732,-0.49556,-27.2622,-42.7587,-30.8625,-24.2879,2.4787,12.3917,-4.8279,-0.49556,9.4174,4.4609,0.49556,
-53.5337,74.3513,1.9822,-17.8447,-57.7587,-25.7755,-14.8704,17.4787,27.3917,10.1721,11.8962,-2.9743,0,0,
-49.0723,81.7865,2.4778,-15.366,-49.0723,-10.7755,-17.3492,30.2364,12.3917,-4.8279,14.3739,-13.3838,0.49556,-0.49556,
-50.0629,76.8295,1.4871,-17.3487,-57.9942,4.2245,-27.2626,30.236,-2.6083,-19.8279,13.3833,-1.4871,3.4694,3.4694,
-51.5501,78.3176,1.9832,-13.8784,-72.9942,18.8358,-14.8695,29.7409,6.9397,-18.8358,8.9228,0,-0.99111,0,
-43.1242,80.7949,3.4694,-17.3487,-59.9769,12.3922,-0.49603,37.1756,21.9397,-4.4614,8.4268,-3.4694,0.49603,-2.4783,
-58.1242,67.4126,-6.9397,-21.8101,-62.4551,0,-15.496,35.6885,6.9397,4.9565,0.99111,0,0.99111,-2.9743,
-73.1242,53.0372,-9.4179,-24.2884,-74.8473,2.4783,-30.496,27.2617,-1.4871,1.4871,3.4694,-1.4871,1.4871,1.4871,
-70.3859,48.5767,-2.9743,-19.8269,-72.3686,2.9743,-16.8527,22.8012,13.5129,-5.9476,12.8882,-6.9397,5.9486,11.8962,
-72.8646,38.1672,-9.4184,-17.3492,-80.7954,-12.0257,-16.3581,17.3482,21.3136,1.4867,4.4609,-0.49556,0.49556,9.4174,
-82.7781,30.236,-10.409,-27.2626,-82.7781,-19.3319,-31.3581,18.3398,8.4268,11.4001,5.4525,-1.4871,1.4871,9.4179,
-78.8127,40.1499,-12.3922,-26.2706,-67.7781,-4.3319,-40.1499,25.2795,14.3744,-0.49603,19.3319,-16.4871,13.3833,15.3665,
-81.787,34.2018,-21.3146,-31.2276,-52.7781,0.49556,-38.1672,21.3136,18.3403,-0.49556,9.4174,-21.3146,6.4441,6.4441,
-71.377,27.7587,-11.8962,-39.6539,-37.7781,3.9654,-30.732,26.7666,12.8882,14.5044,0,-6.3146,-1.9822,0,
-57.0031,35.1934,-9.4179,-42.1321,-39.1588,7.4348,-23.2973,39.1588,-2.1118,16.3576,0.49603,8.6854,0.49603,-0.49603,
-55.0204,37.1761,-13.3838,-41.1415,-27.2622,6.4441,-20.3225,36.1841,1.4867,1.3576,7.4352,-1.4867,9.4174,4.4609,
-65.4289,36.6806,-4.9565,-26.1415,-35.6885,7.9308,-27.7577,21.1841,16.4867,-3.9654,4.9574,2.9743,0,0,
-62.4556,39.6539,-0.99111,-13.8793,-50.6885,3.9654,-28.7498,19.8269,21.8101,-3.9654,8.9219,1.9822,-9.9139,0.99111,
-62.9507,37.1756,-2.4782,-17.3487,-46.0975,1.4871,-22.3052,29.2449,23.2973,1.4871,22.3052,-1.4871,-3.4694,9.4179,
-72.8646,33.2107,-0.49556,-9.4174,-52.0456,-3.4698,-30.2364,24.2879,24.2879,8.4263,23.2968,0.49556,-1.4867,3.4698,
-70.3864,28.7488,0,-6.9397,-66.421,-4.9574,-31.7241,18.8349,28.7488,7.9308,19.8269,4.9565,-0.99206,0,
-72.8646,24.2879,-1.4867,-12.3917,-57.0031,-2.4787,-30.2364,12.3917,26.2711,1.4867,16.3571,-7.4352,1.4867,7.4352,
-84.2652,20.8185,1.9827,-14.8709,-43.6198,-1.9827,-32.7147,15.8611,21.8096,-4.957,12.8877,-22.4352,1.9827,1.9827,
-79.8038,20.3225,7.4352,-13.3828,-40.1494,0.49556,-24.2879,30.8611,30.2364,-3.4698,18.3403,-28.2533,11.4006,-0.49556,
-70.3864,26.7661,-0.99158,0.99158,-35.689,-0.99158,-20.8185,37.6712,34.6969,-0.99158,24.7839,-13.2533,17.8443,14.5044,
-74.8473,25.2795,-12.3922,5.4525,-38.1672,-11.4001,-25.2795,36.1845,26.2706,-5.4525,23.2973,-9.4179,13.3833,24.2884,
-82.2825,26.7666,-2.9743,9.913,-49.5678,-12.8882,-30.732,44.6104,26.7666,-13.8793,19.8269,-24.4179,2.9743,9.913,
-87.239,33.7063,2.9743,20.8181,-57.4986,-1.9822,-32.7142,36.6806,28.7498,-16.8527,20.8181,-31.7231,-0.99111,0.99111,
-87.239,33.7063,0,19.8269,-53.5332,0,-23.7923,23.7923,26.7666,-14.8704,27.7577,-20.819,-2.9743,3.9654,
-84.2652,34.6974,7.9308,23.7923,-54.5248,-9.9139,-23.7923,31.7231,28.7488,-12.8882,32.7142,-30.732,-7.9308,7.9308,
-84.7608,27.2617,13.3833,19.3309,-57.9942,-19.3319,-35.1934,33.2103,32.2191,-11.4011,31.2271,-44.1153,-6.4436,6.4436,
-84.2648,16.8527,4.9565,10.9051,-48.5758,-19.8269,-33.7063,26.7666,22.8012,-8.9219,26.7666,-29.1153,-0.99111,0.99111,
-79.3083,14.8704,-2.9743,10.9051,-46.5936,-7.9308,-33.7063,31.7231,15.8616,6.0781,15.8616,-14.1153,-2.9743,0,
-86.2479,12.8873,-10.9051,0.99111,-56.507,-0.99111,-48.7063,33.7063,30.8616,15.8616,17.8447,-14.8704,-0.99111,8.9219,
-90.7084,13.3838,-16.3571,4.4609,-41.507,-4.4609,-46.0975,35.1929,42.1326,0.86156,32.8447,-29.8704,13.3838,16.3581,
-83.2741,6.9392,-12.8878,4.957,-26.507,-4.957,-31.0975,37.6712,27.1326,-14.1384,33.7058,-34.6979,16.8531,11.8957,
-91.7005,1.4871,-17.3487,-8.4268,-26.2706,-0.49603,-22.3052,36.1845,12.1326,0.86156,18.7058,-20.323,5.4525,0.49603,
-102.1095,10.9051,-23.7923,-3.9654,-41.2706,6.9397,-32.7142,35.6885,8.9219,-4.9565,13.8793,-22.8012,3.9654,3.9654,
-94.6743,10.4095,-20.3225,3.4698,-41.1415,-3.4698,-27.2622,35.1929,23.2968,-15.366,22.3057,-21.3146,6.4441,11.4006,
-82.7781,9.4179,-15.3665,13.3833,-33.2103,-10.409,-15.3665,44.1153,22.3052,-9.4179,22.3052,-23.2973,13.3833,18.3398,
-87.239,2.9743,-10.9051,1.9832,-41.6371,-1.9832,-20.8181,45.6024,12.8873,-19.8269,17.8447,-29.7409,13.8793,8.9219,
-79.8043,5.4525,-1.4871,0.49603,-34.2014,-0.49603,-17.3487,42.1321,27.8873,-14.3744,24.2884,-14.7409,13.3833,6.4436,
-86.7435,4.4614,-14.3744,3.4694,-43.1242,-15.496,-26.2706,34.2014,25.2795,-15.3665,13.3833,-2.4783,2.4783,5.4525,
-86.743,6.4441,-7.4352,3.4698,-47.0891,-3.4698,-28.2533,44.1158,22.3057,-25.279,19.3314,-17.4783,14.3749,14.3749,
-78.3171,5.9476,0,-2.9743,-46.5936,9.913,-33.7063,37.6717,17.8438,-26.7666,4.3314,-23.7923,2.9743,0,
-63.3171,20.9476,10.409,6.4436,-31.5936,0.49603,-18.7063,51.055,16.3576,-11.7666,-0.49603,-8.7923,-1.4871,6.4436,
-48.3171,20.323,5.4525,5.4525,-20.323,-4.4605,-15.3655,55.0204,1.4871,-5.4525,4.4614,-7.4348,-1.4871,11.4011,
-55.5159,13.8793,0,7.9308,-27.7577,3.9654,-30.3655,40.0204,-1.9822,3.9654,-0.99111,0,-2.9743,1.9832,
-66.421,3.9654,-6.9397,3.9654,-33.7063,-4.9565,-39.6539,32.7142,4.9565,-2.9743,0.99111,1.9822,-0.99111,2.9743,
-68.8988,1.4871,-1.4871,10.409,-41.141,-12.3922,-27.2617,47.0896,15.3665,-15.3655,15.9911,-13.0178,12.3922,17.3487,
-65.4294,-2.9743,2.9743,12.8873,-38.6628,-5.9486,-19.8269,44.6104,18.8358,-11.8962,12.8873,-11.8962,7.9308,5.9476,
-70.3864,-2.9748,-6.9401,7.9303,-31.7236,-1.9827,-18.8363,31.7226,15.8611,-10.9055,7.9303,1.9827,6.9392,1.9827,
-81.7865,2.4783,-2.4783,20.323,-38.1672,-4.4614,-19.3309,37.1756,23.2973,-24.2884,22.9303,-5.4525,21.9392,16.9827,
-80.2998,-2.9743,0,10.9051,-44.6109,0,-20.8181,37.6717,24.7834,-28.7488,21.8101,-20.4525,14.8704,7.9308,
-69.3948,9.9135,-5.9481,6.9392,-36.6801,15,-14.87,43.6198,17.8443,-13.7488,12.8878,-19.8274,5.9481,-7.0692,
-73.3602,19.8269,-12.8873,16.8527,-38.6628,17.8447,-14.8704,53.5332,15.8616,-16.8527,15.8616,-22.8012,12.8873,-13.8793,
-87.239,4.8269,-19.8269,10.9051,-49.5678,4.9565,-23.7923,48.5767,14.8704,-13.8793,13.8793,-11.8962,11.8962,-2.9743,
-87.2386,-6.9392,-14.87,7.9313,-47.5842,9.9135,-29.7404,38.6633,3.9659,1.1207,1.9827,3.1038,-1.9827,-9.9135,
-72.2386,0.49556,-3.4698,11.4006,-46.098,18.3403,-24.2879,44.1148,7.4352,-0.49556,5.4521,0.49556,-0.49556,-14.3749,
-57.2386,3.9659,-5.9481,17.8443,-56.507,10.9046,-21.8096,48.5763,17.8443,-15.4956,17.8443,-14.5044,11.8966,-3.9659,
-61.464,-1.9827,-13.8789,15.8611,-42.6286,14.87,-24.7839,41.6366,7.9303,-17.8443,9.9135,-6.9401,9.9135,1.9827,
-56.0115,0.49556,-3.4698,4.4609,-27.6286,28.2533,-19.3314,47.0891,-0.49556,-6.4441,2.4787,8.0599,7.4352,-2.4787,
-51.055,2.4783,-2.4783,10.409,-42.6286,19.3309,-30.236,49.0718,6.4436,-21.4441,5.4525,-6.9401,5.4525,-9.4179,
-50.5589,-3.9654,-2.9743,23.7923,-57.6286,13.8793,-38.6628,47.5847,21.4436,-33.7063,20.4525,-14.8704,15.8616,2.9743,
-62.9511,-9.4184,-4.4609,26.2711,-66.9165,7.4352,-37.1761,43.1237,26.2711,-18.7063,24.2879,-7.4352,18.3403,-4.4609,
-75.3424,-3.9654,0,25.7755,-63.4462,0,-36.6796,37.6717,25.7755,-3.7063,17.8447,-12.8873,12.8882,-19.4609,
-74.3518,-9.9139,3.9654,12.8873,-70.3864,-3.9654,-45.6024,32.7142,26.7666,6.9397,17.8438,-16.8536,11.8962,-15.8616,
-59.3518,-4.9565,3.9654,13.8793,-63.4462,4.9565,-44.6109,44.6113,22.8012,-3.9654,19.8269,-14.8704,15.8616,-6.9397,
-48.0802,-0.49556,0.49556,15.366,-66.9161,6.4441,-46.0975,43.1237,19.3314,-10.4086,22.3057,-29.8704,13.3838,-15.366,
-56.5075,-2.9743,7.9308,11.8962,-69.3948,7.9308,-51.5505,33.7053,17.8438,-23.7923,19.8269,-42.6286,2.9743,-14.8704,
-47.5851,2.9738,6.9392,9.9135,-59.4813,8.9224,-51.5505,44.6109,5.9481,-18.8354,6.9392,-33.7058,-3.9649,-2.9738,
-32.5851,10.9041,0,8.9219,-56.5075,3.9654,-53.5337,49.5669,0,-3.8354,0,-18.7058,-3.9654,1.9822,
-29.7399,12.8882,0,12.8882,-66.4205,10.9051,-60.4724,35.6894,0,4.9574,-1.9822,-3.7058,-7.9308,0,
-22.3057,14.3739,0.49556,7.4352,-62.9511,25.279,-59.9773,32.2187,-0.49556,-3.4698,0.49556,7.4352,-8.4263,-1.4876,
-10.9051,13.8784,0.99111,5.9476,-53.5332,26.7666,-50.5594,38.6628,5.9476,-0.99111,1.9822,-7.5648,-1.9832,-1.9832,
-21.8101,9.9139,0,15.8616,-54.5243,19.8269,-47.5847,40.6459,2.9743,-3.9654,-1.9822,-22.5648,0,1.9832,
-36.185,5.4521,-1.4876,12.3917,-58.9858,16.3571,-57.0031,43.1237,0.49556,-16.3581,9.4174,-7.5648,-0.49556,4.4609,
-31.2276,8.4263,0.49556,19.3314,-58.9858,5.4521,-64.9338,42.1326,15.366,-24.2879,24.4174,-8.4263,-1.4867,-0.49556,
-26.7666,10.9051,2.9743,34.3314,-56.507,-0.99111,-60.4724,27.1326,22.8012,-24.7834,24.7834,-23.4263,0.99111,-0.99111,
-28.2538,10.409,1.4871,27.2626,-61.9596,12.3922,-58.9853,12.1326,7.8012,-32.2191,19.3319,-38.4263,-1.4871,-1.4871,
-24.7834,19.8269,2.9743,25.7755,-59.4813,27.3922,-61.464,11.8962,11.8962,-29.7409,25.7755,-39.6539,-2.9743,-2.9743,
-26.2706,18.3398,-0.49603,22.3052,-54.0288,30.236,-57.0031,23.2963,26.8962,-14.7409,31.228,-24.6539,-2.4783,0.49603,
-25.7755,6.9397,-8.9219,12.8873,-69.0288,24.7844,-68.4032,8.9219,20.8181,0.25911,16.8527,-9.6539,-7.9308,-4.9565,
-10.7755,14.87,6.0781,18.8354,-68.4037,27.7582,-62.4556,2.9738,5.9481,-7.9312,16.8531,-11.8966,-2.9738,-2.9738,
-15.366,13.3828,16.3571,9.4174,-53.4037,14.3749,-47.4556,6.4441,0.49556,-22.3057,24.2879,-26.8966,-1.4867,-0.49556,
-26.7666,5.9476,3.9654,4.9565,-38.4037,12.8873,-37.6717,4.9565,0,-10.9051,22.8012,-11.8966,-4.9565,0,
-27.2622,4.4609,-0.49556,12.3917,-44.1148,26.2711,-45.1069,-6.4441,13.3828,-2.4787,15.366,-3.4698,0.49556,6.4441,
-31.228,1.4871,-1.4871,14.3744,-52.0461,19.3309,-54.0288,-19.3319,13.3833,-17.4787,9.4179,-18.4698,10.409,8.4268,
-28.2538,-0.49603,0.49603,3.4694,-39.1588,18.3398,-45.1069,-13.3833,3.4694,-28.2538,8.4268,-24.2884,16.3576,3.4694,
-16.3581,0.49556,6.4432,-1.4876,-24.1588,31.2276,-30.1069,-0.49556,8.4263,-19.3314,9.4174,-13.3838,16.3571,5.4521,
-17.8443,-1.9827,1.9827,9.9135,-27.7582,18.8354,-27.7582,-6.9401,13.8789,-30.7325,9.9135,-28.3838,9.9135,8.9224,
-10.9041,0,0,14.8704,-33.7058,16.8536,-37.6712,-0.99111,23.7933,-33.7058,23.7933,-43.3838,18.8358,20.819,
-11.8966,-0.99158,-8.9224,4.957,-42.6282,24.7839,-44.6109,0.99158,13.8789,-19.8274,17.8443,-28.3838,15.862,15.862,
-22.3052,-1.4871,-16.3576,5.4525,-50.0634,22.3052,-45.1069,-5.4525,8.4268,-4.8274,12.3922,-13.3838,5.4525,9.4179,
-16.8531,-1.9827,-10.9046,8.9224,-43.6198,22.8008,-45.6024,-6.9392,19.8274,1.9827,21.8096,-12.8878,4.957,18.8354,
-10.9051,2.9743,-0.99111,13.8793,-38.6628,22.8012,-46.5936,-4.9565,21.8101,-13.0173,23.7923,-27.8878,0.99111,19.8269,
-12.8882,0,-4.9574,8.9219,-41.6371,13.8784,-41.6371,0,18.8358,-24.7844,20.8181,-41.6371,2.9733,12.8873,
-16.3571,-4.4609,-7.4352,11.4006,-29.2453,18.3403,-34.2018,4.4609,20.3225,-9.7844,20.3225,-28.2533,10.4095,15.366,
-26.7666,2.9743,-2.9743,17.8447,-14.2453,28.7498,-38.6628,-5.9476,10.9051,-13.8784,12.8882,-27.7577,3.9654,10.9051,
-27.7582,8.9224,5.9481,6.9392,0.75467,36.6801,-34.6979,-13.8789,0.99158,-28.8784,4.957,-27.7582,-5.9481,-0.99158,
-24.7839,10.9046,9.9135,10.9046,11.8966,44.6109,-19.6979,-0.99158,0.99158,-24.7839,5.9481,-25.775,-1.9827,-2.9738,
-39.6539,-0.99111,3.9654,8.9219,11.8962,33.7063,-34.6979,-7.9308,1.9832,-32.7142,5.9486,-38.6628,0.99111,-2.9743,
-39.6548,-9.9139,0,4.9565,6.9387,23.7923,-49.6979,-19.8279,3.9654,-29.7409,6.9387,-33.7063,0.99111,0,
-24.6548,-9.9135,-1.9827,5.9481,3.9659,36.6801,-53.5332,-18.8354,4.957,-14.7409,7.9313,-18.7063,1.9827,4.957,
-18.8354,-12.8878,3.9659,-3.9659,11.8966,41.6366,-49.5678,-16.8531,8.9224,-3.9659,11.8966,-6.9392,6.9392,8.9224,
-26.7661,-12.8878,7.9312,-1.9827,10.9055,26.6366,-48.5763,-17.8443,7.9312,-18.9659,5.9481,-21.9392,1.9827,2.9747,
-11.7661,-3.9659,5.9481,8.9224,6.9392,25.775,-33.5763,-5.9481,3.9649,-24.7839,3.9649,-36.9392,-0.99158,0.99158,
-6.4436,-5.4525,2.4783,0.49603,4.4614,38.1668,-35.1934,6.4436,-0.49603,-9.7839,3.4694,-28.2538,-1.4871,1.4871,
-17.8447,-6.9397,6.9397,3.9654,12.8873,39.6539,-42.6282,6.9397,-0.99111,-24.7839,0.99111,-23.7923,-1.9832,1.9822,
-14.8704,-7.9308,7.9308,7.9308,19.8269,45.6015,-30.732,-5.9486,0,-33.7063,0,-28.7498,0,3.9654,
-16.3571,-11.4006,0.49556,6.4441,11.4006,44.1148,-39.1583,-16.3571,-0.49556,-30.2364,2.4787,-35.1929,2.4787,2.4787,
-21.3136,-13.3828,10.4095,11.4006,2.4787,29.1148,-54.0288,-10.4095,11.4006,-24.2879,12.3917,-30.2364,-2.4787,11.4006,
-18.3398,-11.4001,22.3052,13.3833,1.4871,15.3665,-43.1237,-1.4871,21.3141,-9.2879,18.3398,-15.2364,-5.4525,20.323,
-9.4179,-7.4357,12.3922,8.4268,7.4348,30.3665,-42.1326,-6.4436,6.3141,-12.3922,5.4525,-16.3576,-5.4525,5.4525,
5.5821,3.9654,17.8447,2.9743,22.4348,45.3665,-35.6885,-3.9654,-6.9397,-27.3922,-3.9654,-31.3576,4.9565,-2.9743,
20.5821,18.9654,27.7577,-2.9743,37.4348,60.3665,-24.7834,3.9654,-11.8962,-26.7666,-10.9051,-18.8358,0,0,
26.2706,33.2103,25.2795,-2.4783,22.4348,61.9591,-39.7834,12.3913,-7.4357,-11.7666,-8.4268,-11.4011,-15,3.4694,
34.2018,42.1326,30.2364,12.5217,7.4348,63.9427,-54.7834,14.3749,-0.49556,-4.4609,0.49556,-26.4011,-15.366,-0.49556,
45.1069,50.0634,38.1672,27.5217,-1.4867,59.9764,-46.098,13.3828,-0.49556,-6.4441,0.49556,-38.1672,-0.49556,-1.4867,
30.1069,35.0634,23.1672,24.7844,-16.4867,44.9764,-38.6628,9.9139,-0.99111,-5.9476,-1.9822,-36.6796,-6.9397,0.99111,
15.1069,20.0634,8.1672,17.3487,-31.4867,31.228,-53.6628,1.4871,5.4525,-20.323,2.4783,-46.0975,-19.3319,-4.4614,
9.4174,11.4006,21.3136,17.3482,-27.2622,27.2622,-62.9511,-3.4698,5.4521,-27.2622,2.4787,-36.1841,-9.4174,-2.4787,
14.8704,11.8962,33.7063,13.8793,-12.2622,40.6459,-47.9511,-0.99111,0,-13.8784,-2.9733,-21.1841,0,7.9308,
4.4614,8.4268,20.323,19.3319,-7.4348,38.1677,-40.1499,-1.4871,-5.4525,1.1216,-10.409,-12.3913,-14.3744,8.4268,
14.3744,6.4436,25.2795,16.3576,-4.4605,31.228,-43.1233,2.4783,-2.4783,-9.4179,-4.4605,-23.2963,-8.4259,10.409,
11.8962,0,24.7844,8.9219,-10.9051,25.7755,-32.7142,0.99111,-7.9308,-24.4179,0,-38.2963,-2.9743,1.9832,
-0.49603,0.49603,9.7844,23.9219,-24.2884,33.2103,-32.2191,5.4525,-7.4357,-27.2626,8.4268,-53.2963,-0.49603,1.4871,
0,-2.9743,-0.99111,18.8358,-27.7577,36.6796,-47.2191,4.9565,-2.9743,-12.2626,6.9397,-38.2963,0,4.9565,
4.4609,-0.49556,1.4876,12.3917,-27.2622,31.2276,-62.2191,-1.4867,4.4609,2.7374,0.49556,-23.2963,-8.4263,-0.49556,
-3.9654,0.99111,0,18.8358,-38.6628,26.7666,-64.4378,-2.9743,4.9565,17.7374,0,-8.2963,-15.8616,-5.9476,
0,0,0,33.8358,-31.7231,36.6806,-54.5243,6.9397,5.9486,2.7374,3.9654,-15.8616,-5.9476,4.9565,
0,-3.9654,0,43.6193,-26.7666,28.7498,-58.4897,6.9397,16.8527,-12.2626,10.9051,-30.8616,-3.9654,3.9654,
-13.8793,-3.9654,6.9387,46.5936,-41.7666,13.7498,-58.4902,3.9654,31.8527,-3.9654,25.9051,-38.6628,-3.9654,3.9654,
-28.8793,-8.9224,6.9392,53.5328,-56.7666,1.9827,-62.4556,-1.9827,32.7138,8.9214,35.688,-27.7582,-4.957,6.9392,
-14.8704,-10.9051,12.8873,59.4808,-46.594,9.913,-50.5594,2.9743,30.732,-6.0786,34.6974,-34.6974,-2.9743,13.8784,
-2.4787,-17.3492,5.4521,46.098,-33.2107,3.4698,-54.0288,2.4787,28.2533,-21.0786,22.3057,-46.098,-14.3749,7.4352,
-1.4867,-10.4095,8.4263,47.0891,-20.3225,18.4698,-57.0031,11.4006,21.3136,-11.4006,13.3828,-40.1494,-8.4263,1.4867,
0,-16.8536,10.9051,38.6628,-16.8536,29.7409,-48.5767,10.9051,6.3136,-26.4006,1.9822,-50.5589,1.9822,-4.9565,
-2.9738,-24.7839,4.957,35.689,-31.8536,14.7409,-43.6188,6.9401,1.9827,-34.6969,4.957,-51.5501,-1.9827,4.957,
-7.9312,-22.8008,-1.9827,33.7058,-44.6109,15.862,-55.5159,16.8531,16.9827,-19.6969,19.957,-36.5501,-6.9392,19.957,
-14.3744,-25.2795,-15.3655,28.2538,-48.0802,21.3141,-70.5159,19.3319,11.4011,-4.6969,17.3487,-21.5501,-5.4525,18.3408,
-11.8966,-14.8709,-6.9401,41.6366,-45.6024,20.8185,-55.5159,19.8265,3.9649,0.99158,11.8957,-8.9224,-0.99158,8.9224,
-18.3403,-21.3136,-8.4263,31.2276,-48.0807,13.3838,-40.5159,12.3917,14.3749,7.4352,12.3917,-12.3917,-7.4352,11.4006,
-16.3571,-21.3136,-14.3739,28.2542,-33.0807,18.3403,-44.1148,21.3146,18.3403,-3.4698,13.3838,-27.2622,3.4698,18.3403,
-15.8611,-21.8096,-4.957,29.7404,-18.0807,24.7839,-45.602,31.7236,4.957,-18.4698,4.957,-41.6366,8.9224,8.9224,
-21.3146,-29.2453,-3.4698,30.2364,-18.3403,26.2711,-42.1326,22.3057,7.4352,-16.3571,7.4352,-28.2533,3.4698,4.4609,
-26.7666,-36.6806,-18.4698,24.7834,-26.7666,14.8695,-51.551,12.8873,5.9476,-1.3571,5.9476,-14.8704,-3.9654,7.9308,
-17.8438,-27.7577,-13.8784,19.8269,-13.8784,19.8269,-51.5501,27.8873,8.9228,-6.9397,8.9228,-17.8438,6.9397,10.9051,
-4.4609,-15.366,1.1216,33.2107,-6.4432,34.8269,-37.1756,41.1415,16.3581,-11.4006,19.3314,-19.3314,14.3749,-4.0949,
-2.9743,-27.7577,-9.913,37.6717,-14.8704,41.6371,-25.7746,28.7498,7.9308,2.9743,11.8962,-12.8873,5.9486,-19.0949,
-8.9219,-35.6885,-8.9219,28.7488,-20.8181,26.6371,-34.6974,26.7666,4.9565,13.8793,3.9654,-2.9743,2.9743,-7.9308,
-15.366,-30.2364,1.4867,20.3225,-22.3057,11.6371,-49.6974,33.2107,4.4609,5.4521,12.3917,-17.3492,-1.4867,-10.4095,
-2.4787,-26.2711,2.4787,17.3482,-7.3057,26.2711,-52.0461,28.2533,5.4521,-5.4521,20.3225,-27.2622,2.4787,-13.3838,
1.9832,-31.7231,-0.99111,21.8101,0.99111,34.6974,-46.5936,18.8358,-0.99111,-20.4521,5.3225,-26.7666,-0.99111,1.6162,
2.4787,-28.2533,4.4609,25.279,-2.4787,23.2968,-47.0891,33.8358,0.49556,-28.2533,-0.49556,-28.2533,-0.49556,16.6162,
2.4787,-22.3057,3.4698,10.279,-5.4521,25.2799,-37.1761,43.1237,-0.49556,-17.3482,0.49556,-29.2453,-5.4521,12.3917,
3.9654,-11.8962,2.9743,22.8012,1.9822,40.2799,-28.7498,37.6717,0,-4.9565,-0.99111,-14.2453,-2.9743,0,
-0.49603,-19.3319,0.49603,32.2191,-13.0178,25.2799,-41.141,29.2449,3.4694,-0.49603,2.4783,-3.4694,-4.4614,6.4436,
7.4352,-24.2888,5.4521,25.279,-28.0178,10.2799,-35.1929,35.1929,-0.49556,-4.4609,0.49556,-12.3927,-19.4614,4.4609,
22.4352,-13.8793,13.8784,23.7923,-32.7152,25.2799,-28.7498,50.1929,0.99111,-16.8536,-0.99111,-27.3927,-23.7923,0.99111,
30.236,-25.2795,-0.49603,10.409,-17.7152,34.2014,-43.7498,46.0975,0.49603,-28.2538,-0.49603,-42.3927,-8.7923,0.49603,
21.3141,-27.2626,-0.49603,15.3655,-16.3576,19.2014,-53.0377,36.1845,0.49603,-14.3744,0.49603,-28.2538,-15.3665,2.4782,
32.7152,-14.8704,12.8873,24.7834,-31.3576,23.7923,-42.6282,39.6539,1.9832,-8.9219,-0.99111,-13.2538,-28.7488,0.99111,
17.7152,-16.8531,4.957,10.9046,-46.3576,22.8008,-57.6282,54.6539,0.99158,-23.9219,-0.99158,-19.8274,-19.8274,2.9738,
27.2617,-11.4011,14.3744,9.4179,-56.0115,13.3833,-56.0115,69.6539,-2.4783,-29.2449,2.4783,-34.8274,-10.409,2.4783,
42.2617,-3.4698,29.3744,20.3225,-41.0115,28.3833,-41.0115,57.0031,-1.4867,-18.3403,5.4521,-24.2879,-1.4867,1.4867,
27.2617,-13.8789,21.8096,17.8443,-26.0115,36.6801,-26.0115,42.0031,-0.99158,-17.8443,2.9738,-9.2879,-3.9649,0.99158,
12.2617,-14.87,25.775,7.9312,-41.0115,21.6801,-41.0115,57.0031,7.9312,-20.8185,10.9046,-12.8878,-17.8443,8.9224,
6.4436,-6.4436,33.2103,19.3319,-56.0115,6.6801,-56.0115,72.0031,11.4011,-9.4179,13.3833,-24.2884,-25.2795,10.409,
0,-19.8279,18.2103,27.7577,-71.0115,-4.9574,-71.0115,63.4462,1.9822,0,0.99111,-19.8279,-25.7755,0,
14.8695,-17.8447,3.2103,16.8527,-56.0115,1.9822,-65.4299,67.4116,7.9308,-15,3.9654,-22.8012,-14.8704,0,
29.8695,-2.8447,18.2103,29.2444,-41.0115,-13.0178,-80.4299,82.4116,14.3749,-29.2453,13.3828,-37.8012,-23.2968,-8.4263,
44.8695,-0.49603,33.2103,44.2444,-56.0115,-28.0178,-95.4299,97.4116,27.2626,-14.2453,26.2706,-37.1756,-24.2884,-4.4614,
59.8695,-15.496,26.2711,42.1326,-41.0115,-43.0178,-92.6916,104.5877,25.2799,-8.4263,27.2622,-39.1583,-10.4095,2.4787,
74.8695,-18.8354,11.2711,37.6712,-26.0115,-58.0178,-77.6916,118.9621,10.2799,-23.4263,12.2622,-54.1583,-5.9481,-12.5213,
89.8695,-10.409,26.2711,51.054,-30.2364,-43.0178,-85.7524,133.9621,25.2799,-30.2364,27.2622,-39.1583,1.4871,-1.4871,
74.8695,-25.409,41.2711,51.0547,-45.2364,-28.0178,-100.7524,148.9621,40.2799,-15.2364,42.2622,-26.2708,-9.4182,7.4355,
59.8695,-20.8185,41.6366,49.5674,-30.2364,-43.0178,-115.7524,161.5903,27.7582,-25.7755,30.7315,-41.2708,-1.9827,1.9827,
57.4986,-19.8274,26.6366,48.5758,-26.7666,-58.0178,-122.928,176.5903,21.8092,-27.7582,30.732,-41.6371,0,0,
48.0807,-30.236,11.6366,57.9946,-41.7666,-65.9249,-119.4582,191.5903,36.8092,-12.7582,44.1153,-33.2103,-15,6.4436,
39.6539,-20.8185,26.6366,55.5154,-56.7666,-80.9249,-108.0576,206.5903,36.6806,2.2418,31.7231,-40.6455,-23.7923,-4.9565,
54.6539,-5.8185,41.6366,69.3948,-50.5585,-65.9249,-97.152,212.1497,26.7666,-3.9654,24.7844,-30.7315,-8.7923,-3.9654,
67.4111,-15.862,45.602,74.3508,-65.5585,-50.9249,-93.1876,227.1497,41.7666,-3.9659,38.6623,-26.7671,-1.9827,1.9827,
52.4111,-30.862,30.602,60.9682,-80.5585,-65.9249,-102.6048,232.472,53.0374,1.4869,46.0978,-35.1932,-16.9827,-1.4869,
59.9771,-19.3316,37.1759,68.899,-70.8817,-80.9249,-109.5445,246.3513,47.0889,-2.4785,46.0978,-35.1932,-16.3573,2.4785,
63.4467,-8.9224,52.1759,67.4121,-55.8817,-68.4032,-102.1095,255.7695,39.6544,-13.8789,43.6198,-35.6885,-1.9827,1.9827,
48.4467,-23.9224,37.1759,59.9769,-64.9334,-58.9853,-100.6223,243.3778,45.1064,-12.3917,41.141,-33.2103,-0.49556,0.49556,
33.4467,-38.9224,22.1759,59.4815,-79.9334,-73.9853,-115.6223,244.8647,51.5508,-4.9567,33.706,-28.7491,-15.4956,4.9567,
23.7928,-41.6366,7.1759,59.4813,-94.9334,-86.2474,-116.9795,245.8555,50.5594,-3.9654,35.689,-29.7404,-15.8616,3.9654,
19.8272,-41.6368,6.9394,59.4811,-108.0573,-84.265,-114.0054,246.8474,49.5681,-2.974,36.6798,-31.7233,-14.8702,2.974,
14.3747,-42.1324,5.4523,58.986,-114.5014,-82.7779,-111.5272,247.3424,48.0809,-2.4785,38.167,-33.2105,-13.3831,2.4785,
8.9221,-43.6195,4.9567,59.4811,-121.9367,-81.2912,-110.0405,248.8296,46.5938,-0.99135,39.6541,-35.6887,-12.8875,0.99135,
3.9654,-43.6198,3.9654,59.4808,-127.8845,-79.3083,-107.0665,249.8205,45.6024,0,41.6371,-36.6801,-10.9051,0,
0,-42.6282,4.9565,59.4808,-134.8242,-76.3344,-104.0922,251.8036,44.6104,0.99111,43.6193,-37.6717,-8.9224,0,
15,-32.7147,19.8269,71.377,-121.9364,-83.2736,-119.0922,265.683,48.5758,-5.9481,42.6282,-41.6371,-23.9224,5.9481,
30,-31.2276,28.2533,71.873,-113.5101,-72.8646,-124.4151,278.0742,60.968,-20.323,45.1064,-56.0115,-19.3314,19.3314,
24.2884,-45.1064,13.2533,57.0031,-128.5101,-87.8646,-109.4151,263.0742,54.0288,-19.3314,42.1326,-61.9596,-11.4006,13.3833,
16.8529,-36.6799,11.8964,65.4292,-113.5101,-96.1612,-99.1354,253.7866,41.6368,-4.3314,37.6714,-46.9596,-7.9305,0.99135,
30.236,-31.2276,10.409,62.9507,-98.5101,-81.1612,-105.5793,268.7866,51.0545,-7.4352,37.1761,-47.0896,-10.4095,7.4352,
30.7318,-36.6803,12.8875,63.4465,-89.222,-77.3258,-103.1008,272.6219,63.4465,-17.8445,41.6368,-62.0896,-12.8875,22.4352,
15.7318,-51.6803,4.9567,64.4376,-104.222,-92.3258,-118.1008,257.6219,55.5157,-4.9567,40.6452,-68.4034,-12.8875,23.7926,
6.4439,-57.0028,-2.4785,56.0117,-106.5702,-85.7521,-133.1008,244.3691,53.0374,2.4785,36.1843,-60.9682,-6.4439,12.392,
21.4439,-42.0028,9.4179,45.1064,-91.5702,-75.8384,-133.337,249.3254,46.0975,-10.4095,29.2449,-65.9249,-6.4436,6.4436,
29.2449,-42.1326,11.4006,42.1321,-76.5702,-69.8903,-118.337,253.2908,39.1588,-15.366,24.2884,-52.0461,-6.4436,6.4436,
14.2449,-45.6024,5.9481,57.1321,-77.3256,-70.3864,-118.9626,259.7344,51.5501,-14.8704,31.7231,-50.5594,-5.9481,16.8527,
3.4696,-34.2016,14.3747,71.8733,-90.7091,-85.3864,-126.3976,259.2386,66.5501,-16.3573,46.7231,-65.5594,-3.4696,31.8527,
6.9394,-41.6368,12.8875,57.4989,-82.2823,-96.1612,-133.8328,244.2386,57.4989,-27.758,43.6195,-80.2996,-6.9394,21.8099,
14.8704,-50.5589,10.9051,58.4897,-72.3686,-81.1612,-142.755,236.9332,53.5332,-25.775,34.6974,-65.4294,-9.9135,9.9135,
11.4006,-46.098,11.4006,64.9338,-77.8211,-84.7608,-133.337,251.9332,68.5332,-17.3487,49.6974,-52.0461,-11.4006,24.9135,
18.8356,-36.6798,2.974,65.4292,-67.4119,-91.2047,-128.8759,246.8469,68.4034,-17.8445,57.4984,-64.438,-2.974,39.9135,
25.2797,-50.0632,-1.4869,50.4292,-52.4119,-76.2047,-142.2592,231.8469,53.4034,-18.34,42.4984,-71.8733,1.4869,24.9135,
10.2797,-59.4811,10.9048,44.6111,-56.5073,-65.4292,-148.7028,240.8993,48.5765,-22.801,27.758,-56.8733,-8.9221,14.8702,
8.9221,-44.4811,10.9048,59.6111,-46.5938,-72.3688,-133.7028,252.795,57.4989,-34.6976,42.758,-55.5157,-8.9221,29.8702,
23.7928,-30.732,-1.9827,67.4121,-31.5938,-58.4897,-118.9621,237.9248,42.4989,-31.7231,41.6371,-63.4462,1.9827,32.7147,
29.2446,-41.1413,-1.4869,52.4121,-20.3227,-47.0893,-133.9621,222.9248,39.1581,-18.34,27.2619,-48.4462,1.4869,19.3312,
31.7231,-31.7231,9.9135,57.4981,-20.8185,-62.0893,-138.7896,220.08,45.602,-26.7666,24.7839,-41.6371,-9.9135,21.8096,
39.1588,-34.2018,19.3314,51.055,-19.3314,-63.9423,-123.7896,228.5073,30.602,-31.2276,19.3314,-56.6371,-22.3057,19.3314,
37.1754,-41.1413,10.4093,38.1675,-22.3054,-48.9423,-123.4233,226.5239,15.602,-16.2276,12.392,-43.124,-24.2881,9.4177,
30.7315,-35.689,1.9827,45.6024,-29.7409,-63.9423,-138.4233,212.1497,30.602,-4.957,27.392,-40.6455,-9.2881,18.8354,
15.7315,-45.6024,1.9827,56.5075,-44.7409,-78.9423,-153.4233,204.219,45.602,-19.957,31.7231,-55.6455,-1.9827,15.8616,
1.9827,-50.5589,1.9827,61.464,-59.7409,-63.9423,-155.6427,213.1408,56.5075,-34.957,46.7231,-70.6455,-1.9827,15.8616,
11.4008,-40.1497,-0.49579,62.9509,-44.7409,-48.9423,-142.2592,212.6455,57.9944,-24.2881,57.9944,-60.9682,0.49579,18.34,
14.3744,-43.1237,6.4436,66.9161,-29.7409,-63.9423,-145.2332,200.7491,42.9944,-35.1929,42.9944,-72.8646,-13.3833,10.409,
24.2886,-48.0805,16.3573,64.9336,-25.2797,-55.0201,-145.2334,199.7578,33.2105,-30.2362,27.9944,-68.899,-14.3747,14.3747,
39.2886,-33.0805,21.3141,67.9076,-28.2538,-45.1064,-148.2075,197.7753,41.141,-18.3403,36.1845,-53.899,-5.4525,5.4525,
40.6455,-26.7666,27.7582,69.3953,-13.2538,-56.507,-151.6768,196.2877,38.6633,-16.8527,36.6801,-49.5674,-3.9654,-4.9565,
25.6455,-41.7666,12.7582,55.5154,-3.9654,-51.5501,-166.6768,193.3139,35.6885,-15.8616,24.7844,-61.464,-12.8873,3.9654,
22.801,-26.7666,3.9656,70.5154,-13.8791,-36.5501,-164.5648,196.2884,50.6885,-3.9656,36.6799,-56.5073,-11.8964,18.8356,
37.801,-13.8789,17.8443,72.3686,1.1209,-38.6628,-149.5648,189.348,35.6885,-18.9656,24.7839,-57.4986,-11.8962,3.8356,
28.2533,-26.2706,14.3749,57.3686,4.4609,-39.1583,-139.2851,190.8361,20.6885,-25.2795,9.7839,-46.0975,-4.4609,-11.1644,
13.2533,-27.2622,6.4436,63.9423,-10.5391,-44.1153,-154.2851,187.8614,22.3052,-10.2795,12.3922,-36.1845,-10.409,3.8356,
23.2973,-20.3225,20.323,78.8127,-15.366,-45.1064,-158.121,181.9138,31.228,-9.4179,24.2884,-40.1499,-12.3917,9.4179,
30.2362,-22.3054,15.3658,70.8812,-0.366,-36.1843,-143.121,176.9566,18.34,-24.2881,18.34,-45.1067,-12.392,-5.5821,
26.2713,-23.297,16.3573,71.8728,-6.4439,-30.2362,-137.3022,191.8265,33.34,-11.4004,22.3059,-39.1586,-6.4439,6.4439,
11.2713,-31.7233,25.7753,69.3945,-21.4439,-45.2362,-152.3022,188.3572,44.6111,-10.9048,27.758,-54.1586,-6.9394,21.4439,
1.4869,-33.2105,24.2881,70.8817,-12.392,-60.2362,-154.1553,178.9392,38.1675,-13.3831,32.2189,-62.9509,-1.4869,13.3831,
14.8702,-45.6022,10.9048,59.4815,0.99135,-45.2362,-160.599,170.5124,35.6892,-24.7837,34.6972,-56.5068,-0.99135,-0.99135,
29.8702,-39.6541,23.7926,64.4385,2.974,-30.2362,-145.599,167.5386,35.6887,-24.7837,34.6976,-50.5587,-2.974,-3.9652,
42.1328,-24.6541,38.7926,67.9074,-12.026,-30.2362,-130.599,171.0085,35.1932,-9.7837,35.1932,-38.167,-0.49579,-9.4177,
27.1328,-25.2797,29.2446,73.856,-27.026,-26.2708,-136.3111,169.0253,49.0716,5.2163,49.0716,-45.1067,-4.4612,-11.4008,
15.3662,-28.2535,16.3573,88.856,-12.026,-24.2881,-142.2592,170.0169,60.9682,-9.7837,58.986,-53.0374,2.4785,-2.4785,
30.3662,-43.2535,1.3573,73.856,2.974,-39.2881,-136.8069,155.0169,45.9682,-24.7837,43.986,-61.464,1.9827,-17.4785,
44.1153,-54.0288,-4.4614,58.856,17.974,-54.2881,-121.8069,147.2164,30.9682,-38.1672,28.986,-63.9423,5.4525,-32.4785,
40.1502,-56.0112,-1.4869,43.856,32.974,-58.9855,-114.5014,146.2245,17.3489,-29.2446,19.3312,-65.9247,1.4869,-32.2189,
41.141,-57.9942,-1.4871,44.1153,47.974,-62.9511,-118.4666,137.3024,32.3489,-27.2622,30.236,-51.055,1.4871,-19.3314,
33.7065,-61.4638,-10.9048,43.6195,49.5681,-76.3342,-130.8585,137.7987,34.6976,-32.7145,29.7411,-48.576,10.9048,-18.8356,
27.758,-64.4376,-8.9221,31.7233,47.5849,-80.2996,-137.7977,135.8155,28.7491,-33.706,28.7491,-60.4722,8.9221,-28.7491,
42.1324,-50.0632,3.4696,44.1155,54.0285,-76.8298,-122.7977,150.8155,35.1927,-18.706,34.2016,-55.0201,-3.4696,-36.1843,
47.5847,-49.5678,1.9827,55.5154,58.4897,-81.2909,-109.0491,156.6333,38.6628,-10.9051,28.7488,-60.4729,-1.9827,-26.7666,
42.1321,-57.0026,-1.4871,42.1321,54.0293,-69.8903,-121.4409,141.6333,30.236,-25.9051,14.3744,-72.8646,1.4871,-11.7666,
43.62,-54.5246,-0.99135,32.7149,39.0293,-54.8903,-136.4409,126.6333,19.8267,-27.758,4.9572,-62.4554,-7.931,0.99135,
54.525,-54.5241,0.99135,35.6892,36.6803,-41.6368,-124.9105,136.8071,24.7842,-12.758,10.9048,-47.4554,-8.9221,-8.9221,
51.5503,-56.5068,-2.974,44.6106,51.6803,-56.6368,-121.9362,141.7641,25.7757,2.242,14.8707,-43.6195,-3.9652,-13.8786,
47.0891,-57.0026,0.49556,44.1148,56.0119,-71.6368,-124.4147,137.3029,26.2711,-9.4179,22.3057,-39.1583,-2.4783,-0.49556,
52.5412,-61.464,0.99111,29.1148,44.6104,-63.4467,-116.9799,133.8321,20.8181,-5.9486,20.8181,-31.7236,-12.8878,-0.99111,
49.0723,-51.0545,-4.4609,31.2276,39.1583,-57.0026,-123.4231,138.294,17.3492,4.4609,15.366,-31.2276,-22.3052,-14.3744,
34.6976,-42.6279,-4.9567,46.2276,28.7491,-54.5241,-138.4231,147.7117,27.758,4.9567,23.7926,-27.7575,-14.8702,-4.9567,
25.2792,-48.0805,-5.4523,46.0982,18.3405,-58.9855,-141.2676,132.7117,33.21,-4.4612,27.2624,-32.2189,-4.4612,4.4612,
39.1583,-42.1326,-0.49556,39.1583,33.3405,-49.0718,-126.2676,119.4582,36.1841,-4.4609,22.3057,-26.2706,0.49556,-3.4698,
43.6202,-38.6628,-3.9654,39.6539,48.3405,-40.6455,-113.0141,134.4582,33.7063,0,23.7923,-21.8096,0,-11.8962,
38.1672,-42.1326,-4.4609,48.0812,49.0723,-46.098,-126.3974,130.3632,18.7063,4.4609,20.3225,-34.2014,-6.4436,-6.4436,
45.6024,-45.602,8.9219,33.0812,34.0723,-46.5936,-130.8588,115.3632,4.9565,-4.9565,5.9486,-46.5936,-21.4436,-8.9224,
60.6024,-32.7145,15.8618,29.7402,46.5938,-37.6714,-126.8932,127.8847,11.8964,-8.9221,8.9221,-41.6368,-16.8529,-10.9048,
48.0802,-35.1929,0.86179,44.1148,52.0456,-52.6714,-129.3716,132.3455,10.4095,0.49556,5.4521,-29.2449,-14.3749,-19.3314,
41.141,-43.1237,-0.49603,38.1668,37.0456,-60.9684,-121.4409,117.3455,5.4525,9.4179,0.49603,-14.3749,-29.2449,-18.3403,
48.5767,-37.6712,5.9486,36.6806,49.5678,-45.9684,-116.9795,102.3455,6.9397,-5.5821,4.9565,-29.3749,-29.7404,-4.9565,
47.0898,-32.2189,-2.4785,50.0632,64.5678,-30.9684,-112.5183,117.3455,16.3578,-14.3747,18.34,-43.124,-14.7404,2.4785,
38.1672,-41.141,-12.3917,44.1158,49.5678,-36.1841,-108.5531,121.4413,14.3749,0.62535,13.3838,-28.124,-17.3487,-7.4352,
38.1677,-40.1494,-5.4525,34.2023,48.0807,-44.1148,-104.5877,106.4413,7.4357,9.4179,5.4525,-17.3487,-31.2276,-7.4348,
31.7236,-28.7493,1.9827,30.7325,63.0807,-35.6885,-99.1352,98.1441,4.957,-5.5821,3.9659,-27.7577,-33.7058,-1.9827,
20.8176,-28.7498,1.9827,40.6455,61.4635,-25.7755,-97.153,113.1441,9.9135,-2.9747,9.9135,-21.8101,-35.689,-1.9827,
12.8875,-43.7498,-13.0173,30.7322,46.4635,-40.7755,-112.153,100.127,8.9221,8.9221,9.9132,-22.801,-50.5592,-8.9221,
25.775,-51.551,-24.7844,37.6712,55.515,-54.5248,-121.9369,101.1174,13.8789,1.9827,10.9046,-26.7671,-47.5856,-1.9827,
40.775,-36.551,-9.7844,52.6712,70.515,-39.5248,-106.9369,116.1174,22.8005,-9.9137,19.8272,-18.8361,-33.706,7.931,
49.5678,-34.6969,0,39.6548,82.283,-24.5248,-91.9369,104.0922,17.8447,0,20.819,-5.9481,-37.6712,-2.9733,
44.1148,-49.0718,-14.3749,34.2018,67.283,-39.5248,-100.6223,89.0922,9.4174,3.4698,9.4174,-3.4698,-52.6712,-13.3833,
49.0713,-34.0718,-16.3576,42.1326,52.283,-53.0377,-110.5363,103.5957,19.3314,-3.4698,10.4086,-11.4011,-51.055,1.6167,
54.0293,-35.1929,-9.4179,36.1845,54.0293,-41.141,-95.5363,97.6485,24.2884,-11.4006,22.3052,-26.4011,-36.055,9.4179,
48.0807,-50.1929,-11.4006,43.1242,62.9511,-39.1583,-80.5363,82.6485,23.2973,-0.49556,24.2884,-18.3398,-37.1756,0.49556,
33.0807,-63.4472,-26.4006,29.7399,47.9511,-54.1583,-95.5363,86.2475,16.8527,0,11.8962,-3.3398,-52.1756,-2.9747,
18.0807,-51.0545,-34.2014,21.3146,32.9511,-41.141,-110.5363,93.6827,15.366,-3.4698,13.3838,-15.366,-56.0115,3.4698,
33.0807,-36.0545,-19.2014,34.2018,47.9511,-26.141,-95.5363,81.7865,18.3403,-4.4609,24.2879,-25.2795,-41.0115,4.4609,
45.6024,-34.6974,-4.2014,37.6717,62.9511,-22.8012,-80.5363,80.2998,22.8012,-2.9743,26.7666,-10.2795,-45.6024,0,
30.6024,-41.1413,-2.4785,36.1843,47.9511,-37.8012,-95.5363,84.761,23.297,-4.4612,22.3059,-2.4785,-60.6024,2.4785,
17.8447,-39.6544,-7.9308,28.7488,37.6717,-38.6628,-99.1352,72.3691,18.8358,-16.8531,13.8793,-17.4785,-58.4897,7.9308,
28.253,-26.2708,-15.3662,34.2016,52.6717,-37.1759,-84.1352,81.7863,18.34,-10.4093,13.3835,-31.2278,-49.072,10.4093,
24.2879,-32.2187,-30.3662,35.1929,55.0199,-43.1237,-70.8814,94.6747,15.366,-9.4179,14.3749,-16.2278,-60.968,3.4698,
23.7923,-40.6455,-28.7488,30.732,45.6024,-28.1237,-72.3686,80.2998,24.7844,-9.9135,29.3749,-7.9308,-56.507,7.9308,
33.7058,-34.6974,-13.8789,31.7236,58.4902,-13.1237,-69.3948,70.3864,28.7493,-3.9654,33.7058,-22.9308,-41.507,3.9654,
43.1237,-32.2187,-13.3833,30.2364,69.8903,-28.1237,-70.8814,85.3864,27.2622,-0.49556,28.2533,-18.3398,-38.1672,0.49556,
39.6539,-30.732,-25.775,37.6717,58.4897,-31.7236,-66.4205,97.1525,30.732,-3.9654,29.7409,-9.9135,-48.5763,3.9654,
24.6539,-33.2105,-23.2965,36.1843,43.4897,-16.7236,-67.9074,82.1525,26.2713,0.49579,30.2367,-11.4004,-53.0374,-0.49579,
9.6539,-48.2105,-30.2364,21.1843,36.1845,-29.2449,-82.9074,67.1525,11.2713,3.4694,16.3576,-15.366,-55.0204,-3.4694,
5.4525,-61.9596,-45.2364,6.1843,42.1321,-41.141,-91.7004,69.8908,9.4179,-5.4525,8.4268,-30.2364,-58.9858,5.4525,
11.8964,-46.9596,-38.6625,21.1843,36.6799,-26.141,-76.7004,68.403,20.8183,-4.9567,15.8618,-40.6452,-53.533,4.9567,
19.3319,-31.9596,-23.6625,24.2884,51.055,-11.141,-61.9596,64.9334,22.3052,2.4783,17.3487,-25.6452,-44.1148,-2.4783,
16.3576,-39.1583,-20.323,17.3487,66.055,-16.3576,-76.9596,65.9254,10.409,-12.3922,10.409,-10.6452,-49.0718,1.4871,
28.2535,-42.1324,-24.2881,20.3227,80.7956,-12.392,-61.9596,70.8817,12.392,-24.2881,17.3485,-25.2792,-46.0978,14.3751,
43.2535,-27.1324,-9.2881,35.3227,70.8817,-11.4004,-46.9596,69.8906,14.3751,-18.34,17.3485,-40.2792,-44.1151,4.4612,
41.1415,-20.323,5.7119,39.1583,57.0031,-19.3314,-48.0807,65.9249,12.3917,-12.3922,6.4441,-38.1672,-51.055,-6.4441,
26.1415,-35.323,-1.9827,24.1583,42.0031,-26.7666,-52.5416,57.4981,11.8966,-15.8616,1.9827,-23.1672,-57.4986,3.9659,
14.3744,-48.0807,-14.3744,24.2884,37.1756,-29.2449,-47.0891,52.0461,14.3744,-20.3225,15.3665,-23.2968,-47.0891,17.3487,
15.366,-33.0807,-14.3749,31.2276,52.1756,-21.3141,-53.0377,55.0199,22.3057,-21.3141,24.2879,-33.2103,-40.1499,14.3749,
18.3403,-28.2533,-14.3744,31.2276,67.1756,-14.3744,-54.0288,55.0199,34.2018,-8.4263,16.3571,-18.2103,-44.1153,8.4263,
3.3403,-43.2533,-23.2968,18.3403,52.1756,-20.3225,-50.0629,40.0199,29.2453,-0.49556,9.4184,-8.4263,-50.0629,5.453,
0.49579,-37.1759,-8.2968,32.2189,48.0805,-6.4439,-35.0629,50.0636,28.2535,-0.49579,24.4184,-3.4696,-35.0629,20.453,
3.9654,-25.775,-7.9308,35.6885,51.5501,-3.9654,-33.7058,65.0636,13.2535,-15.4958,15.8616,-13.8789,-31.7231,11.8962,
16.8527,-29.7409,-22.9308,26.7666,66.5501,-0.99111,-40.6455,60.4719,6.9397,-13.8793,6.9397,-14.8704,-25.7755,0.99111,
15.3655,-40.1499,-37.1756,23.2963,68.8988,-6.4436,-38.1672,45.4719,13.3833,-8.4268,13.3833,-10.4095,-26.2711,6.4436,
19.8269,-44.6109,-27.7577,22.8012,58.4897,-14.8704,-23.1672,53.5332,17.8447,-22.8012,16.8527,-15.8616,-30.732,14.8704,
29.7404,-33.7058,-15.8616,24.7839,46.594,-10.9046,-9.9135,54.5248,18.8363,-23.7923,15.862,-27.7577,-33.7058,9.9135,
33.21,-28.2535,-15.3662,29.2446,61.594,-5.4528,-11.4008,39.5248,18.3396,-8.7923,14.3742,-20.3227,-35.1932,4.4612,
34.6979,-36.6796,-15.8616,26.7671,76.594,-13.8789,-12.8873,46.594,15.862,-9.9135,13.8789,-19.8269,-30.7315,9.9135,
36.6803,-26.7668,-11.8964,35.6883,61.594,-9.9137,-20.8188,61.594,9.9137,-22.8015,10.9048,-33.706,-27.758,11.8959,
30.732,-17.8443,-20.8181,29.7409,46.594,4.9574,-24.7834,46.594,4.9574,-7.8015,3.9654,-32.7142,-41.6366,-3.1041,
25.775,-29.7409,-25.7755,21.8096,45.602,0.99158,-25.7755,31.594,12.8878,-0.99158,10.9046,-22.8012,-42.6282,-3.9659,
34.2018,-32.2191,-16.3576,32.2187,51.0545,-5.4521,-28.2538,35.1929,14.3749,-9.4179,12.3917,-11.4006,-34.2018,5.4521,
31.7231,-37.6717,-23.7928,18.8358,54.5243,-8.9219,-30.732,31.7231,2.9743,0,-2.6083,0,-42.6282,0,
22.8003,-39.6544,-33.7063,15.8616,58.4897,-12.8882,-35.689,21.8092,8.9219,-3.9654,3.9654,-14.8709,-37.6717,4.9565,
24.2879,-30.2364,-18.7063,25.279,53.0377,-10.4095,-34.2018,24.2879,12.3917,-18.9654,15.366,-29.8709,-22.6717,10.4095,
36.6806,-25.775,-3.7063,19.8269,56.5075,-4.9565,-19.2018,28.7498,0.99111,-33.9654,4.9565,-33.7058,-23.7923,1.9832,
43.1242,-23.2968,-14.3744,21.3141,68.8997,-2.4783,-4.2018,26.2715,-1.4871,-18.9654,3.4703,-18.7058,-29.2449,1.4871,
34.6979,-31.7231,-22.8012,17.8443,63.4467,-2.9738,-3.9649,21.8096,2.9738,-21.8096,11.8966,-29.7404,-22.8012,6.9392,
33.7063,-32.7147,-8.9219,17.8447,49.5678,-3.9654,0.99111,30.732,0,-28.7493,2.9743,-39.6539,-24.7839,0,
42.6282,-22.8012,4.9565,21.8092,50.5589,3.9654,8.9219,43.6193,-3.9654,-17.8447,-7.9308,-29.7409,-34.6979,-9.9139,
55.0204,-15.3655,1.4871,22.3052,65.5589,18.9654,6.4436,41.141,-2.4782,-4.4614,-1.4871,-29.2449,-33.2103,-5.4525,
40.0204,-21.8096,-13.5129,24.7844,50.5589,3.9654,-8.5564,37.6717,0,4.9565,4.9565,-36.6801,-35.6885,0,
25.0204,-36.8096,-26.7671,14.8695,35.5589,-11.0346,-23.5564,46.5936,0.99111,0.99111,0,-30.7325,-42.6286,0,
40.0204,-21.8096,-15.862,26.7661,26.7661,3.9654,-20.8185,48.5763,4.957,-4.957,-0.99158,-19.8274,-31.7236,0.99158,
55.0204,-6.8096,-15.8616,39.6539,36.6796,18.9654,-16.8527,37.6717,2.9743,-10.9051,-2.9743,-25.7755,-30.732,-5.9486,
47.0896,2.4783,-19.3309,24.6539,21.6796,33.9654,-13.3833,52.6717,4.4614,-13.3833,-2.4783,-17.3487,-35.1929,-2.4783,
50.5589,10.9041,-4.3309,26.7666,6.6796,48.9654,-14.8704,67.6717,0.99111,-11.8962,0,-8.9228,-30.7325,-1.9832,
60.968,15.3655,0.49603,35.1934,-7.4348,59.9769,-28.2538,64.9334,-0.49603,-11.4001,2.4783,-21.3141,-20.323,-16.9832,
45.968,2.4783,-14.504,21.3141,-2.4783,54.0283,-37.1761,52.0461,3.4694,-17.3492,2.4783,-21.3146,-25.2799,-31.9832,
37.6712,3.9649,-25.7755,20.8185,-1.9827,62.4546,-22.1761,64.4378,1.9827,-15.862,8.9214,-6.3146,-30.7325,-16.9832,
52.6712,7.4357,-10.7755,21.3141,0.49603,58.9858,-7.4348,73.8562,-1.4871,-0.86203,10.409,-3.4694,-16.3576,-12.3922,
47.0901,5.453,-3.4698,25.2799,-7.4352,60.9684,-13.3828,58.9862,-0.49556,14.138,0.49556,-9.4174,-12.3917,-27.3922,
41.6371,9.913,-8.9219,28.7488,-0.99111,64.4383,-3.9654,43.9862,0.99111,23.7923,-5.9486,-13.8793,-27.3917,-23.7928,
48.0807,7.4348,-6.4436,21.3141,-1.4871,52.0461,-7.4357,46.0975,1.4871,25.2795,-12.3922,-14.3744,-36.1845,-23.2972,
49.5674,1.9827,-1.9827,18.8354,-14.87,59.4813,-22.4357,44.6109,2.9738,22.8008,-10.9046,-8.9224,-22.8008,-37.6717,
52.5412,-3.9654,3.9654,24.7834,-17.8447,62.4551,-28.7498,29.6109,4.9565,11.8962,-5.9486,-6.9397,-11.8962,-37.6717,
59.4808,0,-1.9832,34.6974,-2.8447,47.4551,-13.7498,41.6361,12.8873,4.9565,-0.99206,-0.99206,-11.8962,-23.7928,
54.0288,-0.49556,-12.3917,20.3225,0.49556,38.1672,-5.4521,51.0545,16.3571,-10.0435,7.4352,-10.4095,-13.3828,-17.3482,
47.0891,-3.4698,-0.49556,16.3571,-0.49556,53.1672,-17.3492,36.0545,20.3225,-25.0435,19.3314,-25.2799,0.49556,-7.4352,
33.7058,-1.9827,0.99158,30.7315,-0.99158,61.4635,-9.9135,28.7493,13.8789,-22.8012,6.9392,-21.8101,-5.9481,-8.9224,
34.6974,0,0,25.7755,-6.9397,46.4635,-9.9139,38.6628,0.99111,-7.8012,-0.99111,-6.8101,-20.9481,-18.8358,
43.1242,-0.49603,1.4871,10.7755,-8.4268,55.0204,-21.3141,25.2795,-9.4179,7.1988,0.49603,-8.4268,-30.236,-26.2706,
37.1756,-5.4525,-2.4783,11.4001,1.4871,61.96,-7.4348,32.2191,0.49603,22.1988,-0.49603,-9.4179,-15.236,-23.2963,
28.7493,-2.9738,-13.8789,22.8008,-5.9481,46.96,1.9827,47.2191,0.99158,21.8096,-3.9659,-0.99158,-9.9135,-28.7493,
38.1677,10.409,1.1211,32.2191,-13.3833,43.1242,-12.3913,33.2103,-4.4605,21.3141,-9.4179,-1.4871,-24.9135,-34.2014,
38.6633,-4.591,7.9312,17.2191,-16.8531,58.1242,-15.8611,18.2103,4.957,11.8966,-21.8096,-16.4871,-32.7147,-22.8008,
41.141,-2.4782,-5.4525,9.4179,-7.4357,49.0718,-0.86108,33.2103,14.3744,1.4871,-19.3319,-17.3487,-22.3052,-7.8008,
51.0545,12.5218,-14.3749,21.3136,3.4698,51.0545,12.3917,48.2103,-0.62558,-8.4273,-16.3581,-19.3314,-18.3403,-3.4698,
57.0031,21.3146,-2.4787,24.2879,3.4698,66.0545,2.4787,36.1841,-3.4698,-15.366,-10.4095,-29.2444,-7.4352,-7.4352,
50.0629,6.3146,1.4871,30.236,-11.5302,63.9423,-12.5213,21.1841,8.4268,-14.3744,-1.4871,-43.1237,-5.4525,-3.4694,
44.6109,-8.6854,-13.5129,16.8531,-12.8878,53.5337,-1.9827,23.7928,5.9481,0.62558,3.9659,-32.7147,-9.9135,-0.99158,
42.1321,-2.4782,-28.5129,7.4348,2.1122,55.0204,2.4782,38.7928,-9.0519,9.4179,-9.4179,-19.3319,-9.4179,-15.9916,
52.5412,12.5218,-17.8447,22.4348,-0.99111,66.4205,-0.99111,45.6024,-7.9308,24.4179,-8.9228,-4.3319,0.99111,-21.8101,
49.5678,0,-13.8784,17.8447,-15.9911,51.4205,-6.9397,30.6024,6.9397,38.6628,-9.913,0,-8.9219,-6.9397,
52.0466,-4.4609,-12.3917,21.3146,-8.4263,36.4205,-0.49556,18.3403,15.366,28.2533,0.49556,-5.4521,-9.4174,8.0603,
48.5767,-2.9743,-14.8704,26.7666,-1.9832,21.4205,0.99111,33.3403,5.9486,14.8704,-0.99111,-20.4521,-10.9051,0.99111,
52.0461,1.4871,-11.4001,30.236,-16.9832,6.4205,15.9911,36.1845,15.3665,26.2706,-1.4871,-35.1929,-7.4348,-4.4614,
51.5501,0,-16.8527,21.8101,-19.8269,-8.5795,21.8101,21.1845,17.8447,11.2706,-8.9219,-36.6801,-22.4348,0,
53.5332,2.9743,-10.9051,16.8536,-4.8269,-23.5795,6.8101,18.8358,11.8962,-3.7294,-6.9397,-36.6801,-29.7404,-0.99111,
49.0723,6.4441,-0.49556,27.2622,-8.4263,-38.5795,0.49556,22.3057,5.4521,11.2706,-0.49556,-41.141,-17.3482,-10.4095,
40.6455,1.9827,-1.9827,25.775,-23.4263,-53.5795,15.4956,17.8443,9.9135,26.2706,-1.9827,-28.7498,-11.8966,-6.9401,
29.2453,0.49556,-14.3749,24.2879,-12.3917,-68.5795,24.2879,27.2622,12.3917,20.3225,-1.4867,-13.7498,-16.3571,-0.49556,
22.3057,-3.4698,-23.2968,19.3314,-3.4698,-83.5795,12.3917,23.2968,7.4352,24.2879,-3.4698,1.2502,-12.3917,-5.453,
31.7231,-11.8962,-13.8784,4.9565,-18.4698,-98.5795,16.8536,15.8616,7.9308,36.6806,-0.99111,-3.9654,-9.913,0.99111,
33.2103,-17.3487,-16.3576,5.4525,-22.3052,-106.5704,19.3319,30.8616,8.4268,24.2884,-4.4614,-5.4525,-23.2963,4.4614,
18.8358,-23.7923,-31.3576,11.8962,-15.8616,-107.0665,4.3319,35.6885,3.9654,11.8962,-6.9397,-2.9743,-19.8269,2.9743,
15.3655,-17.3487,-37.1756,22.3052,-18.3398,-100.6223,-4.4614,23.2973,7.4348,18.3398,0.49603,-2.4782,-4.8269,7.4348,
30.3655,-3.4698,-22.1756,32.2187,-16.3571,-90.7089,10.4086,20.3225,15.366,21.3136,3.4698,-5.453,-5.453,-3.4698,
45.3655,-8.9224,-7.1756,23.7928,-5.9481,-85.2563,22.8008,27.7582,14.87,14.87,1.9827,-9.9135,-12.8878,-18.4698,
38.1668,-10.409,-19.3319,27.2617,-6.4436,-76.83,17.3487,30.236,7.4348,10.409,5.4525,-10.409,-8.4268,-5.4525,
23.1668,-6.9397,-34.3319,30.732,-16.8527,-81.2909,13.8793,28.7498,0,11.8962,0,-8.9219,-13.8784,5.9486,
25.7755,-11.8962,-30.732,31.7231,-7.9308,-94.1782,26.7666,31.7231,10.9051,18.8358,-2.9743,0.99111,-13.8784,-0.99111,
28.2538,-18.3398,-18.3398,30.236,-3.4694,-91.7,28.2538,16.7231,16.3576,3.8358,0.49603,-4.4614,-5.4525,-0.49603,
19.3314,-15.366,-28.2538,17.3492,-5.4521,-76.7,22.3057,17.3492,8.4263,-11.1642,1.4867,-15.366,-1.4867,8.4263,
10.409,-14.3744,-32.2187,18.3408,-5.4525,-81.7865,26.2715,28.2538,10.409,3.4703,-2.4783,-9.4179,-5.4525,2.4783,
2.4783,-29.3744,-25.2799,22.3052,-14.3744,-96.7865,26.2706,13.2538,22.3052,8.4259,5.4525,-1.4871,-11.4011,-9.4179,
9.913,-37.6717,-22.8012,21.8101,-14.8704,-82.2825,30.732,-1.7462,31.7231,0.99111,20.4525,-5.9486,-0.99111,0.99111,
19.3319,-22.6717,-31.2276,25.2795,-20.322,-73.8557,29.2449,11.4011,16.7231,-1.4871,13.3833,-20.9486,-3.4694,1.4871,
24.7839,-7.6717,-29.7409,23.7928,-27.7582,-87.239,23.7928,21.8096,6.9392,-2.9738,2.9738,-28.7493,-9.9135,-10.9046,
39.7839,7.3283,-14.7409,26.2711,-16.3571,-80.7954,26.2711,10.4095,12.3917,-6.4441,6.4441,-17.3482,-11.4006,-10.4095,
54.7839,22.3283,-0.99111,22.8012,-1.3571,-65.7954,31.7231,4.9565,-0.99111,8.5559,-8.5559,-4.9565,-17.8447,-9.9139,
52.0456,29.2453,-15.9911,20.3225,-6.4441,-55.0204,29.2453,8.4263,-3.4698,23.5559,-16.3571,3.4698,-24.2879,-10.4095,
37.0456,15.366,-19.3314,30.2364,-21.4441,-70.0204,22.3057,2.4787,8.4263,18.3403,-14.3749,-3.4698,-24.2879,-2.4787,
37.6717,2.9743,-4.3314,18.8358,-13.8793,-55.0204,30.732,8.9219,0,3.3403,-19.8269,-7.9308,-18.8358,-4.9574,
36.6806,8.9228,-3.9654,15.8616,1.1207,-40.0204,37.6717,20.819,-12.8873,-5.9476,-10.9041,-4.9565,-20.8181,-19.9574,
21.6806,4.4609,-18.9654,24.2879,-13.8793,-25.0204,26.2711,7.4352,-8.4263,7.4352,-13.3828,-4.4609,-18.3403,-21.3136,
19.8274,-3.9649,-27.7582,14.87,-22.8008,-10.0204,30.7315,-2.9738,1.9827,2.9738,-22.8008,2.9738,-3.3403,-9.9135,
32.2187,-3.4698,-24.2888,7.4352,-7.8008,4.9796,33.2098,4.4609,-9.4184,16.3571,-14.3749,-7.4352,-3.4698,-23.2968,
24.7839,0.99158,-28.7493,9.9135,-0.99158,19.9796,28.7493,9.9135,-13.8789,26.7671,-3.9649,-22.4352,-15.862,-30.7315,
22.8012,3.9654,-24.7834,20.819,-15.9916,34.9796,37.6717,3.9654,-3.9654,11.7671,-17.8438,-34.6974,-21.8092,-20.8181,
29.7409,3.9654,-18.8358,25.7755,-0.99158,49.9796,39.6548,-0.99111,0,4.9574,-24.7834,-25.7746,-14.8704,-22.8012,
18.8354,6.9392,-15.862,23.7919,13.8789,64.9796,30.7315,-2.9738,-1.9827,1.9827,-9.9135,-32.7147,-8.9224,-29.7404,
3.8354,21.9392,-16.3576,38.1668,-1.1211,79.9796,34.2014,3.4694,1.4871,-10.409,-1.4871,-26.2706,-11.4011,-17.3487,
8.4263,13.3828,-21.3146,33.2098,-9.4184,94.9796,43.1237,1.4867,-0.49556,0.49556,-3.4698,-11.2706,-13.3838,-9.4184,
23.4263,0,-14.8704,18.8358,0,109.9796,31.7231,-6.9397,-9.913,8.9219,-18.4698,3.7294,-9.913,-13.8784,
32.7147,3.9659,-1.9827,25.775,1.9827,124.9796,26.7671,8.0603,-15.862,-6.0781,-32.7147,-7.9303,-3.9649,-10.9046,
26.7661,7.9303,-4.957,33.7058,-2.9748,139.9796,41.7671,23.0603,-15.862,-10.9055,-17.7147,-1.9827,1.9827,-9.9144,
31.7231,3.9654,-11.8962,25.7755,-7.9308,154.9796,44.6113,8.0603,-22.8012,0.99111,-9.913,-0.99111,-5.9476,-24.9144,
40.6455,4.957,-1.9827,21.8096,7.0692,169.9796,31.7236,-3.9659,-12.8877,0.99158,-17.8443,-12.8877,-0.99158,-23.7928,
30.236,-2.4783,-16.9827,15.3665,18.3398,175.9652,29.2449,6.4436,-7.4348,-3.4694,-18.3398,-27.8877,2.4783,-23.2963,
38.6628,0.99111,-23.7923,18.8358,3.3398,171.5038,33.7063,7.9308,-9.9139,4.9565,-13.8793,-13.8793,-0.99111,-33.7063,
53.6628,9.4179,-9.4179,19.3309,-2.4782,171.0087,26.2706,12.3922,-13.3833,0.49603,-6.4436,-0.49603,-1.4871,-34.2014,
66.9165,15.3655,-6.4436,24.2884,5.4525,176.9563,23.2963,27.3922,-18.3408,-12.3922,-8.4268,-15.496,-5.4525,-26.2715,
81.7865,22.3057,-4.4609,28.2533,2.4787,180.9222,34.2018,37.1761,-7.4352,-2.4787,-13.3838,-16.3571,-3.4698,-16.3571,
76.3344,15.8616,-14.8704,13.2533,-0.99111,170.5127,25.7755,22.1761,-5.9476,-0.99111,-20.8181,-1.3571,-4.9565,-24.7834,
66.9161,16.3571,-21.3136,5.4521,7.4352,169.026,24.2879,14.3749,-16.3571,-9.4174,-18.3403,-5.4521,-8.4263,-38.1672,
77.326,17.8443,-11.8957,16.8531,1.9827,172.4954,23.7928,25.775,-6.9392,-1.9827,-10.9046,-1.9827,-7.9303,-34.6969,
75.8384,9.4179,-14.3754,23.2963,-7.4357,157.4954,14.3744,13.3833,-7.4357,5.4525,-18.3408,-7.4357,-5.4525,-38.1677,
73.8557,8.4263,-16.3571,18.3403,7.4352,142.4954,28.2533,0.49556,-13.3828,-0.49556,-19.3314,-20.3225,-0.49556,-37.1761,
77.3256,10.9051,-4.9565,4.9565,13.8784,153.66,26.7666,5.9476,-7.9308,-14.8704,-17.8447,-15.8616,-4.9565,-29.7409,
78.8122,6.4432,-4.4609,4.4609,4.4609,145.2327,20.3225,11.4006,-10.4095,-20.3234,-27.2622,-10.4095,-13.3838,-38.1672,
90.7089,5.4525,-5.4525,6.4436,9.4179,140.2767,35.3225,10.409,-10.409,-7.4347,-23.2963,-8.4259,-5.4525,-43.1233,
94.6743,13.3833,-6.4436,1.4871,15.3655,152.1729,48.0807,12.3913,-13.3833,-15.3665,-16.3576,-10.409,-1.4871,-38.1677,
84.2648,14.87,-7.9313,1.9827,15.8611,153.6595,33.0807,25.775,-8.9224,-30.3665,-10.9055,-23.7928,-1.9827,-33.7068,
82.2825,0.99158,-5.9481,1.9827,12.8877,144.7376,23.7919,11.8957,-3.9659,-26.7671,-2.9738,-23.7928,-0.99158,-35.689,
90.2133,3.9649,-0.99158,8.9224,8.9224,146.7199,36.6801,-3.1043,-4.957,-11.7671,-2.9738,-8.7928,0.99158,-35.689,
82.7776,2.4787,-3.4698,-0.49556,13.3828,144.2416,35.1929,-5.4521,-7.4352,-2.4787,-9.4174,5.4521,0.49556,-32.2187,
68.8992,-7.4352,-0.49556,0.49556,14.3749,129.2416,36.1841,9.5479,-6.4441,-4.4609,-11.4006,3.4698,-1.4867,-24.2879,
57.4986,-3.9654,0,10.9051,-0.62511,118.9626,41.6371,8.9219,-0.99111,0,-2.9743,4.9565,0,-24.7834,
69.8903,5.4521,-3.4698,8.4263,4.4609,131.3543,52.0456,-1.4876,0.49556,-2.4787,-0.49556,-0.49556,-0.49556,-32.2196,
80.2998,0.99111,-5.9476,4.9565,19.4609,143.7461,47.5847,-0.99111,-13.8784,-4.9565,-10.9051,-0.99111,1.9832,-41.6371,
73.3597,-4.957,-5.9481,-1.9827,23.7919,142.7545,42.6277,1.9827,-20.8185,-15.862,-17.8443,6.9392,10.9046,-44.6109,
76.334,3.9659,-1.9827,1.9827,15.862,142.7554,43.6198,-3.9649,-12.8878,-30.7315,-18.8354,-2.9738,7.9312,-39.6544,
89.7173,6.4441,1.4867,8.4263,27.2622,151.1813,46.098,-7.4352,-12.3917,-16.3571,-19.3314,-17.9738,-1.4867,-36.1841,
88.2306,-0.99111,0.99111,1.9822,28.7488,136.8064,53.5332,-3.9654,-17.8447,-2.9743,-19.8269,-24.7844,0.99111,-37.6717,
81.2909,8.9219,-0.99111,13.8793,21.8101,125.9023,47.5847,-6.9397,-13.8784,-9.913,-22.8012,-17.8438,0.99111,-35.6885,
87.7351,17.3482,-0.49556,19.3314,30.2364,140.9023,47.0891,-10.4095,-2.4787,-0.49556,-17.3492,-2.8438,0.49556,-27.2622,
86.2474,14.8704,0.99111,8.9219,26.7666,151.6768,58.4897,-12.8873,-11.8962,-7.9308,-17.8447,-5.9486,-0.99111,-33.7063,
74.3518,11.8966,9.9135,8.9224,18.8363,136.6768,48.5763,-8.9224,-25.775,-22.9308,-24.7839,-20.9486,-12.8878,-44.6109,
69.3943,2.9738,15.862,10.9046,25.775,124.9107,39.6544,-2.9738,-20.8185,-32.7147,-27.7582,-35.9486,-11.8966,-43.6198,
64.4383,0,6.9397,12.8873,20.8181,127.8845,50.5589,-12.8873,-18.8358,-17.7147,-31.7231,-34.6974,0,-37.6717,
54.0283,-0.49603,0.49603,11.4001,8.4268,116.4844,42.1321,-27.2626,-23.2973,-26.2706,-28.2538,-26.2706,2.4782,-32.2191,
39.6539,-2.9743,3.9654,15.8616,2.9743,121.936,27.7577,-16.8536,-8.2973,-27.7577,-13.2538,-23.7923,3.9654,-26.7666,
27.2622,-6.4441,2.4787,10.4095,-6.4441,123.4236,42.1326,-6.4441,3.4698,-17.3492,-2.4787,-30.2364,6.4441,-27.2622,
40.1499,-2.4783,3.4703,2.4783,3.4703,112.519,51.055,-15.3655,-5.4525,-20.323,-14.3744,-38.1668,6.4436,-28.2538,
55.1499,0.99158,-0.99158,17.4783,18.4703,114.9968,36.6801,-19.8274,-5.9481,-20.8185,-11.8966,-30.7325,3.9649,-27.7582,
56.507,-1.9827,1.9827,25.775,29.7404,124.9107,38.6623,-15.862,-1.9827,-5.8185,-3.9659,-15.7325,10.9046,-21.8096,
42.6277,-10.9046,3.9649,10.775,14.7404,116.9799,45.602,-25.775,-16.9827,-6.9392,-18.9659,-2.9738,9.9135,-26.7661,
49.5674,-1.9827,1.9827,16.8531,19.8274,112.0234,57.4991,-13.8789,-16.8531,-15.8611,-21.8096,-11.8957,20.8185,-27.7582,
44.1148,-0.49556,-13.0173,18.3403,23.2968,107.562,53.0367,-14.3749,-12.3917,-5.453,-19.3314,0.49556,16.3571,-29.2453,
29.2453,-8.4263,-19.3314,3.4698,8.2968,107.562,42.1326,-29.3749,-22.3057,6.4441,-24.2879,11.4006,1.3571,-27.2622,
35.1929,-18.3403,-4.3314,2.4778,5.4521,109.5442,39.1583,-26.2711,-21.3146,-5.453,-23.2968,0.49556,1.4867,-19.3314,
39.6548,-9.913,7.9308,15.8616,19.8279,107.0665,51.551,-16.8527,-10.9041,-14.8695,-15.8616,-7.9308,16.4867,-14.8695,
30.2364,1.4867,-1.4867,13.3838,28.2533,107.562,58.9853,-31.8527,-18.3403,-20.3225,-20.3225,-14.3749,15.366,-29.8695,
45.2364,-1.4871,8.4268,1.4871,43.2533,115.4923,64.9334,-28.2538,-19.3309,-11.4001,-16.3576,-13.3833,8.4268,-36.1845,
60.2364,-2.9743,10.9051,2.9743,42.6282,109.0487,65.4294,-13.8793,-27.7577,-17.8447,-26.7666,-13.8793,5.9476,-37.6717,
65.9245,2.4783,1.4871,7.4348,33.2103,105.5793,57.0026,-28.8793,-42.7577,-32.8447,-41.7666,-12.3922,-1.4871,-49.0718,
55.5164,0,0.99205,10.9051,34.6974,109.0487,47.5856,-37.6707,-31.7231,-30.732,-33.7053,-8.9219,0,-44.6104,
53.5328,1.9827,-1.9827,22.8008,31.7236,101.1184,56.507,-22.6707,-16.7231,-15.732,-18.7053,-8.9224,10.9046,-29.6104,
67.4126,0,-5.9476,21.8101,42.6282,106.0753,71.3779,-13.8784,-13.8784,-10.9051,-10.9051,0,17.8447,-14.8704,
61.9596,-15,-7.4352,7.4352,44.1148,109.5442,56.3779,-28.8784,-28.2533,-21.3146,-25.9051,8.4263,8.4263,-27.2622,
46.9596,-23.2968,-16.3571,9.4184,29.1148,94.5442,41.3779,-43.8784,-25.279,-6.3146,-25.279,8.4263,5.4521,-23.2968,
31.9596,-22.8008,-26.7671,4.957,14.1148,79.5442,28.7493,-28.8784,-19.8274,7.9303,-22.8008,1.9827,7.9303,-17.8443,
29.2449,-16.3576,-11.7671,8.4268,21.3141,94.5442,43.7493,-21.3141,-31.228,-0.49603,-33.2103,3.4694,0.49603,-30.236,
39.6544,-11.8957,3.2329,19.8274,35.689,109.5442,58.7493,-31.7226,-24.7839,-8.9224,-29.7404,-1.9827,1.9827,-23.7919,
29.2449,-9.4179,2.4783,26.2715,27.2626,111.5279,60.968,-25.2795,-9.7839,-19.3309,-14.7404,-16.9827,15.3665,-9.4179,
38.6628,-0.99111,0,31.7231,27.7577,111.0318,45.968,-13.8793,0,-24.7844,-10.9051,-31.7231,22.8012,-10.9051,
42.1326,-0.49556,0.49556,22.3057,19.3314,96.0318,49.0723,-19.3314,-15,-27.2622,-25.9051,-22.3057,10.4095,-25.9051,
27.7577,-3.9654,-2.9743,23.7923,13.8793,89.2217,56.5075,-21.8092,-22.8012,-12.2622,-26.7666,-7.3057,8.9228,-24.7834,
12.7577,-18.9654,-17.9743,8.7923,15.3655,95.6654,41.5075,-35.1934,-24.2884,-2.4783,-27.2626,7.6943,2.4783,-28.2538,
25.7755,-21.8092,-7.9308,6.9397,30.3655,93.1871,45.6024,-27.7577,-27.7577,0,-26.7666,9.9139,0,-36.6796,
25.775,-8.9224,0.99158,15.8611,27.7582,89.2213,47.5851,-32.7147,-32.7147,-0.99158,-32.7147,7.9303,-1.9827,-41.6366,
10.775,-22.8008,-10.9046,8.9224,12.7582,89.2222,34.6969,-39.6544,-25.775,1.9827,-30.7315,-1.9827,2.9738,-29.7404,
0.49556,-16.3571,-3.4698,23.9224,10.4095,81.7865,43.1237,-24.6544,-11.4006,16.9827,-15.7315,-0.49556,17.3482,-14.7404,
-0.49556,-18.3403,0.49556,16.3571,4.4609,66.7865,44.1148,-24.2879,-26.4006,1.9827,-30.2364,-10.4095,4.4609,-29.2453,
9.4179,-6.4436,6.4436,13.3833,19.4609,76.8295,36.1845,-39.2879,-27.2626,-7.4357,-27.2626,-21.3141,7.4348,-30.236,
7.9308,-3.9654,0,28.3833,23.7923,91.8295,35.6894,-41.6361,-12.2626,0,-12.2626,-33.7053,22.4348,-15.236,
5.4525,-18.9654,-3.4703,27.2617,15.3655,89.7168,50.6894,-26.6361,-1.4871,1.4871,-4.4614,-18.7053,34.2014,-14.3754,
13.3828,-13.3838,-0.49556,25.279,24.2879,97.6481,65.6894,-30.2364,-4.4609,-10.4095,-7.4352,-3.7053,27.2622,-17.3492,
2.4783,-5.4525,-15.4956,24.2874,22.3052,84.7603,50.6894,-35.1934,4.4605,-25.4095,-2.4783,-18.7053,17.3487,-4.4614,
-5.9481,-19.8274,-30.4956,20.8185,7.3052,69.7603,35.6894,-32.7147,5.9481,-25.775,1.9827,-33.7053,24.7839,-0.99158,
4.9565,-23.7923,-15.4956,30.732,-2.9743,72.3691,40.6459,-33.7063,0.99111,-10.775,-0.99111,-18.7053,34.6974,-8.9219,
4.9565,-23.7923,-3.9654,25.7755,12.0257,72.3691,55.6459,-35.6885,-6.9397,3.9654,-5.9486,-8.9219,26.7666,-15.8616,
3.4694,-21.3141,-9.4179,27.2617,27.0257,66.9165,64.9334,-33.2103,-4.4614,-1.4871,1.4871,-23.9219,28.2538,-17.3487,
-0.99158,-25.775,-9.9135,28.7493,13.8789,73.3597,49.9334,-30.7315,-0.99158,9.9135,0.99158,-13.8789,34.6969,-15.862,
-4.9565,-31.7231,-6.9397,25.7746,4.9565,75.3424,45.6024,-35.6885,-5.9486,10.9051,-13.8793,1.1211,26.7666,-6.9397,
9.9135,-21.8096,4.957,31.7236,15.862,62.4556,60.6024,-47.5851,-14.87,-4.0949,-18.8354,-4.957,11.7666,-9.9135,
11.4006,-15.366,11.4006,32.2187,20.3225,53.0367,56.011,-41.1415,-12.3917,-19.0949,-11.4006,-19.957,11.4006,-21.3146,
0.99158,-7.9312,1.9827,40.6455,22.8008,61.4635,48.5763,-26.1415,-0.99158,-24.7839,-5.9481,-32.7147,25.775,-17.8443,
14.8704,0,-3.9654,44.6104,23.7923,67.4116,63.5763,-22.8012,0,-11.8962,-9.9139,-17.7147,29.7409,-3.9654,
27.2626,-6.4436,-2.4782,30.2369,8.7923,66.9165,54.0293,-37.8012,-1.4871,1.4871,-5.4525,-4.4605,24.2884,-3.4694,
16.3571,-10.4095,-7.4352,34.2018,0.49556,64.9338,39.0293,-31.2276,-0.49556,15.366,-3.4698,-15.366,23.2968,-18.4694,
9.9139,-12.8873,-17.8438,26.7666,0,69.3948,32.7152,-24.7834,-11.8962,21.8101,-15.8616,-0.366,15.8616,-28.7488,
17.3482,-7.4352,-14.3749,21.3136,-11.4006,74.8468,42.1326,-21.3146,-17.3492,21.3136,-22.3057,14.634,7.4352,-20.3225,
14.8704,-8.9219,-12.8873,27.7577,-18.8358,59.8468,34.6974,-21.8092,-10.9051,12.8882,-14.8704,10.9051,8.9219,-14.8704,
13.3833,-14.3744,-12.3922,26.2706,-18.3398,44.8468,35.1925,-19.3319,-9.4179,17.3487,-11.4011,9.4179,15.3655,-19.3319,
13.8793,-10.9051,-15.8616,19.8269,-20.8181,59.4818,23.7923,-10.9051,-18.8358,30.732,-20.8181,24.4179,10.9051,-19.8269,
26.2706,-8.4268,-15.3655,12.3922,-10.409,74.4818,17.3487,-9.4179,-15.3655,23.2973,-17.3487,26.2706,8.4268,-10.409,
41.2706,-1.4871,-1.4871,24.2884,2.4782,68.8988,28.2538,-22.3052,-5.4525,8.2973,-5.4525,11.2706,12.3922,-15.3665,
44.6104,-0.99111,0,35.6885,-0.99111,56.5066,26.7666,-22.8012,-3.9654,3.9654,-2.9743,0,19.8269,-21.8101,
32.2182,-15.9911,-15,20.6885,-9.4179,61.9591,16.3566,-33.2112,-18.9654,10.409,-17.9743,15,9.4179,-35.1934,
38.6628,-29.7409,-30,5.6885,-0.99111,52.5421,31.3566,-40.6459,-25.7755,7.9308,-26.7666,0.99111,3.9654,-50.1934,
52.0456,-14.7409,-22.3057,11.4006,3.4698,44.1148,34.2018,-25.6459,-13.3838,8.4263,-12.3917,-3.4698,15.366,-58.9853,
41.6366,-4.957,-19.8274,22.8017,-1.9827,57.4981,19.2018,-13.8789,-6.9392,1.9827,-4.957,11.5302,21.8096,-43.9853,
29.2449,-9.4179,-17.3487,25.2795,-1.4871,62.9511,33.2103,-28.2538,-6.4436,1.4871,-7.4348,23.2973,22.3052,-32.2191,
31.228,-24.2884,-10.409,10.2795,-6.4436,47.9511,43.1242,-35.1925,-13.3833,16.4871,-16.3566,14.3744,18.3408,-47.2191,
45.6024,-23.7923,-14.8704,5.9486,-2.9743,46.5936,28.1242,-31.7231,-20.8181,17.8447,-21.8092,2.9743,10.9051,-58.4897,
58.4902,-11.8957,-15.8611,12.8878,12.0257,61.5936,29.7414,-31.7226,-17.8443,2.8447,-16.8522,-1.9827,12.8878,-48.5763,
47.5851,-10.9046,-14.87,3.9659,3.9659,53.5337,25.775,-32.7147,-16.8531,-0.99158,-19.8265,0.99158,10.9055,-46.5931,
49.5674,-4.957,-11.8966,7.9303,-11.0341,54.5248,14.87,-32.7147,-12.8878,14.0084,-20.8185,4.957,10.9046,-45.602,
63.4467,1.9827,-8.9214,14.8709,-1.9827,64.4388,18.8363,-34.6969,-10.9046,12.8878,-16.8522,-2.9738,15.862,-48.5763,
62.9511,-1.4871,-7.4348,19.3319,13.0173,67.9076,23.2973,-19.6969,-12.3913,1.4871,-11.4001,-12.3913,22.3061,-45.1064,
58.4897,-8.9219,-7.9308,15.8616,4.9565,62.4551,14.8704,-4.9565,-6.9397,11.8962,-12.8873,-9.9139,20.8181,-37.6717,
67.9081,-2.4787,-10.4095,8.4263,0.49556,52.0466,17.3492,-19.9565,-7.4352,15.366,-21.3136,-0.49556,13.3838,-46.098,
61.4645,-0.99158,-12.8877,11.8966,7.9313,37.0466,21.8096,-31.7226,-20.8185,0.99158,-26.7661,-6.9392,5.9481,-61.098,
54.5239,-3.9659,-0.99158,20.8185,0.99158,48.5763,27.7582,-18.8363,-9.9135,15.9916,-11.7661,-9.9135,20.8185,-46.098,
59.4808,0,0,21.8092,-4.9565,63.5763,25.7746,-22.8012,-4.9565,25.7746,-4.9565,0,27.7577,-31.098,
67.9076,-1.4871,4.4605,15.3655,1.4871,51.055,20.323,-29.2449,-18.3398,10.7746,-17.3487,-4.4614,17.3487,-16.098,
71.377,-2.9743,13.8784,18.8358,2.9743,46.5936,30.732,-14.2449,-7.9308,-4.2254,-2.9743,-15.8616,23.7923,-12.8873,
60.4729,-3.9654,-1.1216,18.8358,0,59.4818,27.7587,-14.8695,-7.9308,4.9574,-6.9387,-0.86156,24.7844,-5.9476,
45.4729,-16.8527,-16.1216,3.8358,4.9565,55.5154,15.8616,-29.8695,-22.9308,-0.99111,-21.9387,1.9832,9.7844,-20.9476,
56.507,-1.8527,-1.1216,18.8358,19.9565,54.5248,30.8616,-14.8695,-16.8531,-5.9481,-12.8878,-11.8957,15.862,-15.8611,
51.055,-1.4871,-10.409,19.3319,14.3744,55.0204,28.2538,-7.4348,-9.4179,1.4871,-9.4179,-16.3566,18.3408,-13.3833,
36.055,-16.4871,-25.409,4.3319,5.9481,65.4289,13.2538,-22.4348,-17.8443,2.9738,-24.4179,-1.3566,9.9135,-23.7928,
43.6198,-24.7839,-14.87,6.9392,10.9046,57.4981,12.8878,-32.7147,-23.7928,-6.9392,-28.7493,11.8966,8.9224,-28.7493,
58.6198,-16.8531,-7.9303,16.8531,14.8709,42.6286,27.8878,-22.8008,-18.8354,-2.9738,-17.8443,2.9738,16.8531,-22.8008,
53.5328,-21.8096,-14.87,17.8443,5.9481,52.5416,29.7404,-7.8008,-8.9224,4.957,-5.9481,-8.9224,23.7928,-11.8957,
45.602,-27.7582,-8.9224,15.862,-6.9392,67.5416,26.7671,-5.9481,-3.9649,-0.99158,-1.9827,0.99158,26.7671,0.99158,
52.5416,-15.862,-0.99158,15.8611,-3.9659,55.5159,34.6969,-5.9481,-3.9659,0.99158,-4.957,15.9916,29.7404,-0.99158,
49.5674,-4.957,-6.9392,28.7493,-0.99158,42.6277,27.7582,-3.9659,-8.9224,3.9649,-8.9224,0.99158,24.7839,-10.9046,
45.1064,-14.3744,-8.4268,28.2538,4.4614,57.6277,29.2449,-12.3922,-6.4436,10.409,-5.4525,-4.4614,21.3141,-9.4179,
34.2014,-29.3744,-22.3052,13.2538,0.49603,54.0283,21.3141,-27.3922,-21.4436,-0.49603,-20.4525,5.4525,6.3141,-24.4179,
49.0718,-22.3052,-15.3665,15.3655,15.496,50.0629,22.3052,-22.3052,-20.323,-8.4268,-22.3052,8.4268,12.3922,-21.3141,
62.9507,-11.4006,-0.36647,26.2711,30.496,52.0456,32.2187,-7.3052,-5.323,-10.4095,-7.3052,-6.5732,27.3922,-6.3141,
68.4037,-5.9486,0.99111,33.7063,24.7834,53.5332,32.7142,-1.9832,-5.9486,-2.9743,-0.99111,-8.9219,26.7666,-1.9832,
62.4551,-14.8704,-14.0089,18.7063,12.8873,38.6628,17.8447,-14.8704,-17.8447,-0.99111,-14.8704,0.99111,14.8704,-16.9832,
50.0639,-28.2528,-18.3398,3.7063,1.4871,37.1756,27.2626,-26.2706,-20.322,-1.4871,-21.3141,7.4357,5.4525,-24.2874,
43.6202,-31.7231,-16.8527,10.9051,-3.9654,50.5589,39.6539,-27.7577,-13.8784,9.9139,-18.8358,14.8704,3.9654,-19.8269,
41.6375,-46.7231,-24.783,7.9313,-1.9827,41.6375,24.6539,-40.6455,-15.8611,12.8878,-23.7919,6.9401,1.9827,-21.8096,
41.6366,-56.507,-26.7661,10.9055,3.9659,36.6801,9.6539,-36.6801,-22.8008,5.9481,-28.7493,6.9401,0.99158,-21.8096,
34.2018,-66.917,-30.2364,4.4609,3.4698,32.2187,24.2879,-33.2107,-34.2018,-0.49556,-31.2276,16.3571,0.49556,-24.2888,
34.2014,-68.8988,-28.2538,0.49603,3.4694,34.2014,33.2103,-48.0807,-29.2449,3.4694,-24.2884,6.4436,-0.49603,-19.3319,
47.0896,-53.8988,-13.2538,15.496,13.3833,49.0718,30.236,-34.2014,-14.2449,7.4348,-13.3833,-3.4694,3.4694,-4.3319,
52.0466,-38.8988,-0.49556,21.3146,26.2711,34.2018,35.1929,-19.2014,-18.3403,-7.5652,-21.3136,0.49556,6.4441,-12.3917,
56.011,-38.1672,-8.4263,26.2711,40.1494,19.2018,50.1929,-7.4352,-28.2533,-20.3225,-21.3146,8.4263,13.3828,-22.3057,
61.464,-28.7488,-6.9397,41.2711,42.6282,16.8527,62.4551,-12.8873,-13.2533,-5.3225,-6.3146,-0.99111,21.8101,-7.3057,
50.0634,-30.2364,-16.3571,31.2276,27.6282,11.4006,47.4551,-27.8873,-13.3838,7.4352,-12.3917,-10.4095,11.4006,-7.4352,
41.6371,-32.7152,-13.8793,28.7488,12.6282,-3.5994,32.4551,-42.8873,-12.8873,15.8616,-15.8616,4.5905,14.8704,-9.9139,
36.6801,-34.6979,-3.9659,34.6969,-0.99158,-9.9135,31.7236,-27.8873,0.99158,11.8957,-0.99158,19.5905,24.7839,-3.9659,
29.2453,-35.1929,-6.4432,36.185,-7.4352,0.49556,25.2799,-18.3403,-0.49556,1.4876,-2.4778,13.3838,19.3314,-0.49556,
28.2538,-42.1331,-15.3665,21.185,-1.4871,-9.4179,29.2449,-30.2369,-10.409,9.4179,-16.3576,12.3922,15.3655,1.4871,
22.3052,-51.055,-22.3052,12.3922,10.409,-19.3319,44.1153,-18.3398,-15.3665,16.3576,-19.3319,16.3576,15.3655,-10.409,
23.2973,-49.0718,-11.4001,25.2795,25.2795,-4.4614,47.0896,-25.2795,-17.3487,4.4614,-16.3576,9.4179,15.3665,-18.3398,
22.8008,-61.4645,-3.9659,10.2795,24.783,1.9827,39.6534,-40.2795,-20.8185,-1.9827,-31.3576,3.9649,13.8789,-13.8798,
27.2626,-62.9511,-2.4783,1.4871,24.2884,-1.4871,44.1153,-55.2795,-17.3487,13.0173,-28.2538,18.9649,20.323,-3.4694,
24.7834,-58.4897,-6.9397,16.4871,15.8616,-10.9051,34.6974,-40.2795,-28.7488,17.8447,-16.8527,23.7923,6.9397,-12.8873,
23.2973,-48.0807,0.49603,19.3319,18.3398,-0.49603,27.2626,-40.1499,-31.2271,2.8447,-22.3052,8.7923,3.4703,-7.4348,
14.8704,-45.6024,-0.99111,9.913,20.8181,6.9397,23.7923,-55.1499,-30.732,-10.9051,-37.3052,-6.2077,6.9397,0.99111,
9.9139,-59.4808,-6.9397,11.8962,9.9139,-8.0603,29.7409,-53.5332,-21.8092,4.0949,-25.7746,7.9308,7.9308,-13.8784,
17.8443,-57.4986,0.99158,26.8962,-0.99158,-21.8096,44.6109,-46.594,-6.8092,19.0949,-10.7746,20.8185,21.8096,-9.9135,
8.4268,-58.9848,-12.3912,16.3576,-2.4783,-23.2963,40.1499,-61.594,-9.4179,6.4436,-13.3833,7.4357,22.3061,2.4783,
-0.99158,-61.4635,-22.8008,1.3576,9.9135,-22.8008,40.6455,-59.4813,-18.8354,4.957,-19.8265,14.8709,15.862,6.9401,
1.4871,-46.4635,-7.8008,16.3576,7.4348,-26.2715,51.054,-44.4813,-3.8354,19.957,-4.8265,24.2884,24.2884,-1.4871,
-2.9743,-40.6459,0,31.3576,0,-23.7923,43.6193,-32.7152,0,26.7666,-4.9565,9.2884,26.7666,-1.9832,
1.4867,-40.1494,-2.4787,27.2622,15,-8.7923,49.0723,-30.2364,-4.4609,11.7666,-6.4441,-5.7116,28.2533,13.0168,
3.9654,-55.1494,0,26.7666,23.7923,-4.9565,56.5066,-34.6974,-2.9743,0,-4.9565,-10.9051,25.7755,3.9654,
8.9219,-65.4294,6.9397,15.8616,12.8873,-19.9565,43.6193,-49.6974,-6.9397,12.8873,-10.9051,-8.9219,18.8358,-11.0346,
14.3744,-53.0372,3.4694,16.3576,9.4179,-25.2795,31.2271,-50.0639,-21.9397,1.4871,-25.2795,-1.4871,6.4436,-16.3576,
9.4179,-49.0718,-2.4783,21.3141,8.4268,-16.3576,38.1668,-39.1588,-30.236,-6.4436,-25.2795,10.409,5.4525,-1.3576,
3.9654,-51.551,-2.9743,22.8012,13.8784,-12.8882,41.6371,-37.6717,-16.8536,0.99111,-23.7923,9.913,8.9219,-0.99111,
5.9481,-48.5763,-2.9738,24.7839,17.8443,-7.9313,38.6633,-34.6969,-11.8966,3.9659,-26.7661,2.9738,4.957,-15.862,
9.4179,-47.0896,-4.4614,19.3319,23.2973,-2.4783,46.0985,-38.1668,-18.3398,2.4783,-20.323,4.4614,11.4011,-9.4179,
0.49556,-44.1148,-2.4787,30.2364,12.3917,-8.4263,46.098,-43.1237,-19.3314,3.4698,-15.366,15.366,24.2879,-0.49556,
-12.8878,-39.6544,6.9392,45.2364,-2.6083,-20.8185,43.6198,-28.1237,-4.3314,14.87,-3.9649,21.8096,30.7325,1.9827,
-10.4095,-43.1237,-3.4698,40.1494,-12.3917,-27.2622,46.098,-17.3492,3.4698,18.3403,1.4867,6.8096,25.279,5.4521,
4.5905,-46.5936,-7.9308,25.1494,2.6083,-19.8269,56.5075,-32.3492,-10.9051,12.8873,-13.5133,-6.9397,16.8527,10.9051,
9.9135,-55.5159,1.9827,10.1494,17.6083,-26.7661,56.507,-47.3492,-23.7919,-1.9827,-28.5133,2.9747,5.9481,-3.9649,
16.3576,-52.0461,3.4694,25.1494,32.6083,-41.7661,53.0372,-41.141,-12.3922,1.4871,-13.5133,-1.4871,14.3744,-10.409,
28.2542,-49.0713,-0.49556,37.1761,47.6083,-42.1326,57.9942,-32.2187,0.49556,8.4263,-0.49556,-8.4263,25.2799,-0.49556,
33.2103,-45.1064,14.5044,30.236,62.6083,-27.1326,63.9423,-47.2187,-1.4871,-6.4436,-1.4871,-11.4011,27.2617,1.4871,
40.6455,-30.1064,23.7928,39.6544,61.4635,-33.7058,63.4467,-38.6633,-5.9481,-13.8789,4.957,-10.9046,29.7404,-4.957,
48.5758,-34.6974,10.9051,27.7577,55.5154,-41.6371,53.5332,-24.7844,-8.9219,-11.8962,-0.99111,0.99111,25.7755,-19.957,
37.1756,-49.6974,5.4525,13.3833,40.5154,-29.2449,39.1579,-39.7844,-20.323,-5.4525,-15.9911,15.3655,10.7755,-34.957,
22.3057,-49.0723,-0.49556,14.3749,26.2711,-25.279,30.2364,-54.7844,-33.2098,0.49556,-30.9911,6.4441,0.49556,-40.1494,
32.7142,-38.6628,0.99111,19.8269,39.6539,-29.7409,45.2364,-39.7844,-18.2098,0,-24.7844,0,6.9387,-36.6806,
34.6979,-42.6277,13.8798,20.8185,37.6721,-37.6712,53.5337,-40.6455,-3.2098,-4.956,-16.8522,5.949,1.9827,-37.6712,
19.6979,-53.5332,3.9654,13.8784,22.6721,-47.5856,38.5337,-55.6455,-9.9139,3.9654,-15.8616,5.9476,-3.9654,-34.6974,
11.4011,-47.0886,-6.4436,23.2973,13.3833,-49.0718,23.5337,-48.0807,-13.3833,18.9654,-11.4001,13.3833,8.4268,-37.1756,
26.4011,-52.5421,-3.9654,9.9139,21.8101,-54.5243,12.8873,-34.6974,-19.8269,17.8447,-22.8012,13.8793,3.9654,-52.1756,
30.732,-47.5847,1.9832,1.9832,15.8625,-52.5412,26.7666,-40.645,-21.8092,2.8447,-21.8092,0,3.9654,-41.6361,
41.141,-32.5847,14.3744,16.9832,27.2626,-37.5412,41.7666,-29.2449,-9.4179,2.4782,-6.8092,-8.4268,18.9654,-26.6361,
43.6193,-17.5847,12.8873,26.7666,36.6796,-28.7488,48.5767,-26.7666,-12.8873,6.9397,-15.8616,-6.9397,7.9308,-37.6717,
30.732,-32.5847,1.9832,11.7666,23.7923,-43.7488,33.5767,-38.6628,-18.8358,7.9308,-22.8012,8.0603,-1.9832,-33.7063,
15.732,-32.7147,-0.99158,11.8957,8.9224,-38.6633,21.8096,-53.6628,-10.9046,1.9827,-10.9046,18.8354,0.99158,-18.7063,
14.8704,-25.7746,3.9654,16.8536,18.8358,-32.7142,23.7933,-46.5936,-4.9565,14.8704,-5.9476,24.7844,-3.9654,-6.9387,
26.7666,-22.8012,0.99111,20.819,23.7923,-46.5936,22.8012,-31.5936,-7.9308,29.8704,-7.9308,28.7498,-0.99111,-8.9219,
16.3576,-37.8012,-7.4348,7.4348,9.4179,-55.0204,18.3398,-37.1756,-15.3655,14.8704,-10.409,14.3744,7.4348,-10.409,
13.8784,-37.6717,0,8.9219,8.9219,-42.6282,24.7834,-44.6113,-19.8269,14.8704,-11.8962,15.8616,0,-10.9051,
28.2542,-26.2711,-0.49556,16.3581,23.9219,-37.1752,29.2453,-34.2018,-15.366,28.2542,-9.4174,30.2364,-4.4609,0.49556,
18.3398,-41.141,-15.4956,1.3581,19.3319,-49.0718,16.3576,-41.141,-13.3833,13.3833,-12.3922,18.3398,5.4525,2.4783,
13.3833,-34.2014,-3.4694,3.4694,4.4614,-47.0896,19.3319,-42.1321,-9.4179,9.4179,-14.3744,17.3487,6.4436,-8.4268,
26.7671,-26.7661,6.9392,11.8966,8.9224,-45.602,20.8185,-44.6109,-6.9392,13.8789,-16.8531,21.8096,-8.5564,-20.8185,
41.141,-25.2795,1.4871,12.3922,23.9224,-42.1321,12.3922,-36.1845,-1.4871,8.4268,-16.3576,16.3576,-1.4871,-19.3309,
34.2014,-25.2795,-2.4783,4.4614,22.3052,-41.141,10.409,-29.2449,-4.4614,3.4694,-17.3487,18.3398,2.4783,-20.323,
37.1756,-23.2963,11.4001,4.4614,7.3052,-46.0975,17.3487,-34.2014,-6.4436,16.3576,-10.409,32.2191,-3.4694,-12.3922,
42.6277,-19.8274,14.87,13.8789,20.8185,-47.5851,8.9224,-42.6286,-19.8274,8.9224,-20.8185,17.2191,-8.9224,-15.862,
30.7315,-17.8443,7.9312,13.8789,35.8185,-32.5851,17.8443,-29.7404,-26.7661,-0.99158,-27.7582,2.2191,1.9827,-25.775,
15.7315,-26.7661,5.9481,2.9738,20.8185,-27.7582,32.8443,-23.7928,-22.8008,-0.99158,-20.8185,11.8966,0.99158,-21.8096,
4.4609,-23.2968,12.3927,10.4095,19.3314,-24.2879,45.1069,-32.2187,-12.3917,-0.49556,-12.3917,26.8966,0.49556,-6.8096,
13.3833,-25.2795,12.3922,1.4871,34.3314,-28.2538,30.236,-41.141,-18.3398,-1.4871,-20.323,33.2103,5.4525,-6.4436,
6.4441,-35.1929,2.4787,-0.49556,19.3314,-43.2538,15.236,-34.2018,-21.3136,5.453,-21.3136,21.3146,0.49556,-21.4436,
1.9832,-36.6796,0,14.5044,18.8358,-51.5505,12.8873,-19.2018,-6.3136,17.8447,-6.3136,29.7409,-0.99111,-6.9397,
-1.4867,-34.2018,1.4867,10.4095,28.2533,-36.5505,27.8873,-30.2364,-3.4698,16.3571,-4.4609,25.2799,-1.4867,2.4787,
0.49603,-25.2795,13.3833,7.4348,23.2973,-37.1756,23.2973,-41.141,-17.3487,2.4783,-10.409,10.2799,3.4694,-6.4436,
7.9308,-28.7498,14.8704,5.9476,20.8181,-37.6717,18.8358,-26.7666,-2.3487,-4.9565,-0.99111,0.99111,8.9219,-7.9308,
-6.4436,-43.7498,-0.12955,2.4783,16.3576,-38.1668,22.3052,-33.2103,5.4525,3.4694,-2.4783,15.9911,2.4783,-5.4525,
-9.4174,-41.1415,2.4787,3.4698,17.3492,-36.1841,29.2453,-35.1929,-2.4787,14.3749,-3.4698,30.9911,12.3917,-5.4521,
-2.4787,-32.2187,5.4521,8.4263,24.2879,-34.2018,30.2364,-20.1929,-10.4095,2.4787,-4.4609,15.9911,24.2879,-12.3917,
0,-30.732,-4.9565,21.8101,16.8527,-38.6628,15.2364,-5.1929,-5.9476,7.9308,-8.9219,11.8962,12.8873,0,
4.9565,-35.6894,0,9.913,13.8784,-44.6113,0.23645,-20.1929,-5.9486,21.8092,-12.8882,26.8962,-2.1127,14.8704,
11.4006,-36.185,14.3749,0.49556,26.2711,-34.2018,13.3828,-35.1929,-14.3749,6.8092,-15.366,27.2622,-5.453,-0.12955,
19.8265,-30.7325,24.7839,15.4956,35.688,-20.8185,28.3828,-32.7147,-5.9481,-7.9312,-5.9481,12.2622,9.547,-5.9481,
21.8096,-31.7236,22.8008,21.8096,29.7404,-30.7325,33.7058,-27.7582,-0.99158,-2.9738,0.99158,-2.7378,24.547,-0.99158,
18.3398,-32.2191,11.4011,9.4179,17.3487,-37.1756,36.1845,-37.1756,-15.9916,0.49603,-9.4179,-0.49603,9.547,-3.4694,
16.8531,-25.775,1.9827,3.9659,26.7671,-35.688,42.6286,-38.6623,-22.8008,-1.9827,-18.8354,14.504,5.949,-7.9303,
21.3146,-17.3482,2.4787,18.9659,41.7671,-38.1672,42.1326,-23.6623,-7.8008,-2.4787,-5.4521,22.3057,14.3749,-4.4609,
22.3057,-29.2444,0.49556,15.366,35.1929,-35.1929,34.2018,-22.3057,-10.4095,-0.49556,2.4787,7.3057,6.4441,-2.4787,
34.6974,-36.6796,5.9486,2.9743,31.7231,-30.732,31.7231,-37.3057,-25.4095,0.99111,-7.9308,-7.6943,-0.99111,2.9743,
45.602,-21.8096,20.8185,17.8443,46.7231,-28.7493,46.594,-35.689,-19.8274,-0.99158,-11.8966,-12.8878,9.9135,0.99158,
33.7063,-22.8012,24.7844,21.8101,38.6628,-27.7577,49.5678,-20.689,-4.9565,-0.99111,-3.9654,-3.9654,23.7923,0.99111,
18.7063,-37.1761,9.7844,7.4352,23.6628,-36.185,34.5678,-34.2018,-12.3917,-10.4095,-7.4352,-18.9654,11.4006,9.4174,
12.3927,-32.2187,5.453,4.4609,26.2711,-29.2444,26.2711,-44.1148,-19.3314,-7.4352,-14.3739,-4.4609,7.4352,7.4352,
10.409,-33.2103,6.4436,-1.4871,40.1499,-37.1756,30.236,-39.1588,-21.3141,1.4871,-20.323,10.409,4.4614,-6.4436,
10.9051,-28.7498,4.9565,10.9051,36.6796,-46.5936,16.8527,-27.7577,-18.8358,6.9397,-20.819,-2.9743,0,0,
13.8793,-28.7488,8.9228,11.8962,44.6113,-35.6885,28.7498,-31.7231,-22.8012,0.99111,-7.9308,-6.9397,-0.99111,3.9654,
7.9308,-38.6628,11.8962,2.9733,40.645,-26.7666,43.7498,-46.7231,-26.7666,-10.9051,0,7.9308,0,-0.99205,
1.4867,-45.1069,4.4609,1.4867,25.645,-37.1761,28.7498,-46.098,-23.2968,-12.3917,-14.3749,7.4352,0.49556,-0.49556,
-1.4871,-41.141,4.4614,0.49603,17.3487,-44.1153,13.7498,-31.098,-21.3141,-0.49603,-22.3052,1.4871,2.4783,4.4614,
-10.4095,-41.1415,3.4698,7.4352,19.3314,-40.1504,22.3057,-39.1583,-27.2622,8.4263,-23.2968,6.4441,0.49556,-0.49556,
0.49603,-50.0639,6.4436,9.4179,7.4348,-34.2014,34.2014,-52.0461,-20.323,3.4694,-24.2884,5.4525,-0.49603,-3.4703,
15.496,-35.0639,21.4436,14.8709,21.8096,-27.7573,42.6286,-37.0461,-7.9303,-6.9392,-13.8789,-9.5475,9.9135,6.9392,
6.9392,-20.0639,25.775,26.7661,36.8096,-37.6712,32.7147,-22.0461,-12.8878,-14.87,-6.9392,-23.7928,13.8789,12.8878,
5.4525,-28.2538,21.3141,33.2103,36.1845,-46.0985,31.2271,-26.2715,-9.4179,-6.4436,-5.4525,-15.3665,18.3398,17.3487,
4.4614,-33.2103,22.3052,27.2626,21.1845,-43.1242,32.2191,-41.2715,-9.4179,-4.4614,-8.4268,-16.3576,12.3922,12.3922,
-7.9308,-29.7409,22.8012,18.8358,16.8536,-35.6885,25.7755,-36.6796,-10.9051,5.9486,-3.9654,-18.8358,3.9654,12.8873,
-11.4001,-36.1845,7.8012,23.2973,18.3398,-33.2103,25.2795,-21.6796,-5.4525,20.9486,-4.4614,-7.4348,4.4614,20.323,
0.49556,-39.1583,-0.49556,31.2276,16.3571,-32.2187,33.2107,-24.2879,-4.4609,14.3749,-8.4263,-2.4787,5.4521,20.3225,
1.4871,-29.2449,12.3922,23.2972,23.2972,-28.2538,26.2715,-24.2884,-6.4436,-0.62511,-1.4871,-8.4259,6.4436,15.3665,
-9.9135,-14.87,17.8443,34.6969,23.7928,-20.8185,20.8185,-9.2884,-5.9481,-0.99158,0.99158,-9.9135,10.9046,19.8265,
-4.4609,-19.3314,2.8443,33.2107,20.3225,-21.3136,35.8185,-9.4174,-18.3403,14.0084,-14.0084,-2.4787,5.453,19.3314,
4.4609,-29.2444,-3.4698,18.2107,27.2622,-29.2444,36.185,-24.4174,-33.2098,7.4352,-29.0084,4.4609,-6.4432,4.3314,
-1.9827,-17.8443,11.5302,25.775,41.6366,-26.7661,21.185,-22.8008,-26.7661,-7.5648,-20.8185,3.9659,1.9827,2.9738,
-3.9654,-15.8616,18.8358,24.7844,42.6282,-19.8269,31.7241,-9.913,-19.8269,3.9654,-12.8873,-5.9476,14.8704,16.8536,
-2.4787,-22.3057,11.4006,19.3314,38.1672,-19.3314,46.7241,-17.3482,-31.2276,10.4095,-25.279,-18.3403,2.4787,8.4263,
-2.9743,-16.8527,16.8527,34.3314,49.5678,-12.8873,45.6024,-8.9219,-18.8358,2.9743,-12.8873,-15.8616,7.9308,11.8962,
-11.4006,-24.2879,23.2968,36.1841,34.5678,-19.3314,30.6024,-13.3828,-3.8358,-7.4352,-1.4867,-12.3917,21.3136,24.2879,
-22.3052,-29.2449,19.3319,36.1845,19.5678,-29.2449,18.3408,-28.3828,-2.4783,2.4783,-9.4179,-12.3913,14.3744,20.323,
-37.1756,-31.2271,5.4525,33.2103,13.3833,-24.2884,30.2369,-22.3052,-5.4525,9.4179,-5.4525,-23.2963,12.3922,18.3408,
-41.6366,-33.7058,-2.9738,28.7493,26.7671,-28.7493,30.7325,-26.7661,-0.99158,5.9481,0.99158,-23.7928,13.8789,24.7839,
-26.6366,-32.2191,6.4436,30.2369,22.3061,-39.1579,22.3061,-37.1756,-8.4259,15.3665,-12.3913,-8.7928,12.3922,19.3319,
-28.2538,-28.2538,6.4436,27.2617,9.4179,-28.2538,29.2449,-24.2884,-20.323,15.3655,-21.3141,-6.4436,11.4001,12.3922,
-35.689,-20.8185,7.9313,31.7236,7.9313,-20.8185,32.7147,-9.2884,-14.87,6.9392,-9.9135,-9.9135,5.9481,18.8363,
-34.6974,-25.7755,13.8784,32.7142,12.8873,-35.8185,24.7834,-10.9051,-4.9574,11.8962,-3.9654,-5.9486,3.9654,21.8092,
-41.141,-27.2626,5.4525,40.1499,9.4179,-41.141,31.2271,-18.3408,-5.4525,10.409,-6.4436,-11.4011,18.9654,22.3052,
-50.5594,-23.7933,1.9822,44.6104,0,-26.141,43.6193,-24.7844,0,-0.99205,2.9733,-21.8101,31.7231,27.7577,
-57.4986,-32.7147,5.9481,29.6104,-4.957,-35.689,29.7404,-39.7844,7.9303,-4.957,4.957,-27.7582,19.8265,23.7919,
-57.0031,-29.2453,3.4698,33.2098,0.49556,-49.0723,24.2879,-38.1672,8.4263,-4.4609,-0.49556,-20.3234,17.3482,23.2968,
-62.9511,-25.2799,-2.4787,36.1841,2.4787,-38.1672,31.2276,-23.1672,1.4867,1.4867,-3.4698,-5.3234,31.2276,26.2711,
-57.9942,-27.2622,3.4698,30.2364,5.453,-25.279,23.2968,-24.2879,-10.4086,16.4867,-3.4698,-6.4432,24.2888,23.2968,
-42.9942,-30.236,2.4783,33.2103,18.3398,-27.2617,35.1934,-16.3566,-10.409,28.2538,-2.4783,-14.3744,9.4179,21.3141,
-34.2018,-28.2542,-9.4184,29.2444,29.2444,-27.2622,50.0634,-11.4006,-9.4184,28.2533,-7.4352,0.62558,10.4086,18.3403,
-35.1925,-20.322,-5.4525,24.2884,23.2973,-17.3487,42.1331,-26.4006,-18.3398,19.3319,-21.3141,13.3833,11.4011,5.4525,
-23.2973,-21.3141,9.4179,28.2538,23.2963,-12.3922,44.1153,-29.2449,-9.4179,10.409,-15.3665,-1.6167,16.3576,12.3922,
-32.7142,-31.7231,0,36.6806,14.8704,-27.3922,33.7063,-24.7834,2.9743,0,-0.99111,-16.6167,22.8012,27.3922,
-47.5851,-31.7236,-12.8877,40.6455,-0.12955,-42.3922,28.7493,-29.7404,2.9738,0.99158,1.9827,-30.7325,30.7315,27.7573,
-32.5851,-25.279,-1.4867,33.2107,10.4095,-36.1841,43.7493,-22.3057,0.49556,-0.49556,2.4787,-24.2879,30.2364,25.2799,
-24.2884,-26.2706,4.4614,36.1845,25.4095,-27.2617,56.0115,-10.409,-1.4871,-1.4871,1.4871,-17.3487,23.2973,26.2715,
-37.1756,-29.2449,-0.49603,41.141,28.2538,-35.1934,41.0115,-18.3398,-2.4782,13.5129,0.49603,-5.4525,25.2795,27.2626,
-37.1761,-26.2711,0.49556,39.1583,18.3403,-40.1494,48.0802,-30.2364,-5.4521,16.3571,-0.49556,-2.4787,30.2364,24.2879,
-23.7928,-22.8017,-0.99158,41.6366,20.8185,-25.1494,56.507,-25.775,-7.9312,6.9392,0.99158,-4.957,25.775,23.7928,
-17.8443,-32.7147,-5.9481,34.6979,19.8274,-14.87,41.507,-21.8096,-7.9303,17.8443,-1.9827,1.9827,14.87,25.775,
-16.8531,-25.776,-1.9827,41.6366,20.8185,-29.7414,26.507,-23.7928,-9.9135,10.9046,-6.9401,1.9827,17.8443,25.775,
-1.8531,-10.776,6.9397,51.5501,35.8185,-14.7414,41.507,-11.8962,-0.99111,-4.0954,0,-8.9219,32.8443,31.7231,
3.9659,-8.9214,1.9827,37.6721,37.6721,-1.9827,56.507,-3.9649,-3.9649,-1.9827,-2.9738,-12.8868,30.7325,23.7928,
-11.0341,-23.9214,0.49556,29.2444,22.6721,-16.9827,41.507,-10.4095,-11.4006,13.0173,-9.4184,-0.49556,15.7325,15.366,
-24.7834,-36.6806,-4.9565,19.8269,7.6721,-31.9827,26.507,-25.4095,-17.8447,9.9139,-14.8704,4.9565,7.9308,13.8793,
-9.7834,-23.7923,-10.9051,25.7755,22.6721,-18.8358,27.7577,-12.8873,-19.8269,2.9743,-19.8269,-2.9743,9.9139,13.8793,
5.2166,-16.3566,-1.4871,32.2191,25.2795,-9.4179,14.3754,1.4871,-20.322,-3.4694,-24.2874,-17.3487,9.4179,9.4179,
12.8878,-18.8354,2.9738,27.7582,12.8878,-20.8185,22.8017,-9.9135,-16.8531,-2.9738,-18.8354,-10.9046,11.8966,13.8789,
6.4436,-20.323,-11.4001,21.3141,-0.49603,-27.2617,17.3487,-16.3576,-27.2617,0.49603,-24.2884,4.0954,3.4703,11.4011,
17.3482,-12.3917,-4.4609,20.3225,-3.4698,-12.2617,2.3487,-1.3576,-21.3146,14.3749,-20.3225,19.0954,-0.49556,20.3225,
24.7834,-13.8793,0,28.7488,-9.9139,-5.9486,3.9654,-1.9832,-7.9308,11.8962,-6.9397,8.9219,0,29.7409,
30.7315,-10.9055,-1.9827,36.6801,-0.99158,-18.8363,15.8611,-2.9738,-0.99158,0.99158,1.9827,-0.99158,3.9649,31.7236,
27.7582,-9.9135,2.9738,27.7582,1.9827,-33.8363,0.86109,8.9224,-4.957,-3.9659,-5.9481,-7.9313,1.9827,19.8274,
36.6796,-4.9565,7.9308,34.6974,-2.9743,-37.6717,0.99111,3.9654,-3.9654,6.9397,-3.9654,-7.9308,-0.99111,13.8784,
51.5501,-2.9743,0.99111,29.7399,-4.9574,-22.6717,15.9911,-9.9139,-4.9574,1.9822,0,-5.9486,0,0,
54.0288,7.4352,3.4698,28.2533,0.49556,-7.6717,27.2622,-3.4698,-3.4698,-10.4095,-0.49556,-7.4352,15,-9.4174,
44.1148,4.4609,8.4263,27.2622,10.4086,-22.6717,15.366,-5.453,-9.4184,-5.453,-6.4441,-5.453,20.3225,-4.4609,
38.1672,-5.4521,10.4095,18.3403,12.3917,-36.1841,12.3917,-4.4609,-7.4352,-5.4521,-0.49556,-1.4867,5.4521,0.49556,
30.732,-0.99111,4.9565,23.7923,-0.99111,-23.7923,14.8704,1.9832,0,-16.8527,5.9486,-9.9139,0,0,
33.7063,-1.9832,8.9219,23.7923,6.9397,-20.819,23.7923,-4.9565,-2.9743,-9.9139,0,-10.9051,0,3.9654,
48.7063,0.49556,23.2968,23.2968,21.9397,-15.366,28.2542,-7.4352,-8.4263,1.4876,-7.4352,-5.4521,-9.4174,-0.49556,
57.0031,6.4441,16.3571,23.2968,6.9397,-0.366,16.3571,1.4876,-10.4086,-6.4432,-9.4174,-9.4174,-12.3917,-9.4174,
45.1069,2.4787,5.4521,15.366,-8.0603,-4.4609,14.3749,1.4867,-10.4095,-7.4352,-12.3917,5.5826,-8.4263,-1.4867,
43.1237,0.49556,6.4441,15.366,5.4521,-19.4609,16.3571,-0.49556,-14.3749,-0.49556,-17.3482,17.3492,-18.3403,-5.4521,
50.0639,6.4436,14.3744,11.4011,18.3398,-23.2963,18.3398,3.4694,-12.3922,-6.4436,-4.4614,2.3492,-18.3398,-16.3576,
49.0723,8.4263,22.3057,5.4521,17.3492,-9.4174,17.3492,-3.4698,-10.4095,-19.3314,3.4698,-12.6508,-9.4174,-10.4095,
57.4986,5.9486,26.7666,16.8527,19.8269,-19.8269,20.8181,0.99111,-7.9308,-8.9219,-3.9654,-14.8704,-8.9219,-0.99111,
59.9769,-2.4783,24.2884,9.4179,19.3309,-34.8269,31.2271,2.4783,-15.3665,6.0781,-17.3487,-8.4268,-19.3319,-15.9911,
53.0372,7.4357,30.236,4.4614,7.4357,-19.8269,34.2014,-10.409,-25.2795,13.3833,-22.3052,-4.4614,-27.2617,-27.2617,
53.5328,16.8522,39.6534,14.87,-1.9827,-4.8269,23.7919,-14.8709,-10.2795,12.8868,-7.3052,1.9827,-15.862,-12.2617,
52.5416,8.9224,30.7315,20.8185,-4.957,-17.8443,16.8531,-3.9659,-0.99158,6.9392,0.99158,-3.9659,-10.9055,-0.99158,
61.96,13.3833,21.3141,15.3665,10.043,-13.3833,31.228,6.4436,-15.3655,-6.4436,-14.0084,-6.4436,-21.3141,-6.4436,
53.0372,14.3744,16.3566,1.4871,18.3398,-1.4871,32.2182,-3.4703,-18.3408,-19.3319,-17.3487,1.4871,-26.2715,-4.4614,
38.0372,7.9308,13.8793,11.8962,3.3398,-12.8873,17.2182,-4.9565,-5.9476,-17.8438,-2.3487,15.8616,-16.8527,0,
25.775,7.9303,9.9135,16.8531,-4.957,-27.8873,2.2182,2.9738,-7.9313,-4.957,-5.9481,17.8443,-10.9046,-0.99158,
32.2191,6.4436,7.4357,8.4268,8.4268,-31.2271,6.4436,-0.49603,-18.3398,-5.4525,-20.9481,2.8443,-25.9046,-10.409,
18.8354,5.9481,18.8354,19.8274,-2.9738,-16.2271,21.4436,0.99158,-7.9312,-0.99158,-8.9224,9.9135,-29.7404,-7.9312,
13.8784,0,18.8358,19.8269,-14.8704,-11.8962,29.7409,-0.99111,-2.9743,0,-2.9743,17.8438,-19.8269,7.0688,
28.8784,5.949,8.9224,8.9224,0.12955,-21.8096,15.862,-1.9827,-17.9743,-15,-17.9743,2.8438,-23.7919,9.9144,
43.8784,10.4086,13.3828,4.4609,10.4086,-20.3234,10.4086,0.49556,-28.2542,-27.2622,-22.3057,-12.1562,-31.2276,-0.49556,
45.1069,8.4263,24.2879,13.3828,-0.49556,-15.366,25.4086,-3.4698,-13.2542,-12.2622,-7.3057,-3.4698,-16.2276,11.4006,
30.1069,0,19.8269,14.8704,-3.9654,-30.366,19.8269,-12.8873,-5.9486,0,3.9654,-8.9219,-3.9654,14.8704,
15.1069,-7.9313,10.9046,8.9224,-1.9827,-29.7404,4.8269,1.9827,-17.8443,-8.9224,7.9303,-14.87,-9.9135,6.9392,
19.8269,-0.99111,-2.9743,18.8358,-9.9139,-14.7404,18.8358,4.9565,-4.9565,-5.9486,1.9822,0.13003,-7.9308,4.9565,
19.8269,10.9041,-0.99206,27.7577,-3.9654,-2.9743,23.7923,-6.9397,0,7.9308,-9.9139,0,-5.9486,5.9476,
24.7839,8.9224,8.9224,12.7577,-1.9827,-11.8966,8.7923,-1.9827,-15,3.9649,-21.8096,-7.9312,-16.8531,1.9827,
38.6628,10.9051,12.8873,4.9565,-5.9486,-11.8962,14.8704,6.9397,-30,-7.9308,-19.8269,0.99111,-22.8012,-0.99111,
41.1415,8.4263,11.4006,12.3917,2.4787,-8.4263,29.8704,-8.0603,-23.2968,-5.453,-10.4095,5.4521,-22.3057,-2.4787,
30.7315,0.99158,11.8957,9.9135,5.9481,-21.8096,14.8704,-15.862,-24.7839,2.9738,-17.8443,-0.99158,-23.7928,-1.9827,
28.7493,4.957,16.8531,4.957,-2.9738,-34.6969,4.957,-9.9135,-31.7236,2.9738,-23.7928,3.9659,-28.7493,-5.9481,
40.6459,10.9051,18.8358,6.9397,0.99111,-19.6969,14.8704,-7.9308,-16.8527,-0.99111,-8.9219,1.9832,-30.732,-9.9139,
38.6628,14.8704,14.8704,21.9397,0,-4.6969,-0.12956,-6.9397,-7.9308,2.9743,3.9654,-9.9139,-21.8101,0,
23.6628,7.4352,2.4787,20.3225,-15,-19.6969,-8.4263,-9.4174,-8.4263,9.4184,-2.4787,4.4609,-16.3571,6.4441,
8.6628,-0.99111,0.99205,10.9051,-23.7923,-24.7834,6.5737,-16.8527,0,2.9743,-3.9654,6.9397,-21.8092,0,
22.8012,-0.99111,11.8962,17.8447,-8.7923,-12.8873,5.9476,-17.8447,2.9743,-12.0257,0,-8.0603,-19.8269,2.9743,
31.2276,6.4441,14.3749,25.2799,4.4609,-8.4263,10.4095,-4.4609,-5.4521,-5.4521,-15,-23.0603,-14.3749,17.9743,
16.8531,6.9392,1.9827,21.8096,-10.5391,-9.9135,12.8868,-1.9827,-12.8877,6.9392,-30,-8.0603,-29.3749,12.8868,
18.3398,11.4001,11.4001,21.3141,-12.3922,-2.4783,-0.49603,3.4694,0.49603,-1.4871,-45,-3.4694,-31.228,13.3833,
17.8438,9.913,19.8269,28.7488,-0.99111,-17.4783,-10.9051,2.9743,-0.99111,0.99111,-60,-13.8793,-16.228,9.913,
18.3398,5.4525,13.3833,37.1756,-8.4268,-30.236,4.0949,-7.4348,-6.4436,15.9911,-75,1.1207,-18.3398,-5.087,
12.8873,-0.99111,19.8269,25.7755,-10.9051,-15.236,19.0949,-7.9308,-7.9308,14.8704,-90,8.9219,-33.3398,0.99111,
5.9486,9.9139,34.6974,34.6974,0.99111,-9.913,16.8527,-8.9219,-0.99111,-0.12956,-99.1352,-6.0781,-31.7231,15.9911,
13.8793,14.8704,31.7231,39.6539,3.9654,-24.913,18.8358,-20.8181,-3.9654,-6.9397,-98.1441,-12.8873,-34.6974,20.8181,
15.366,5.4521,21.3136,25.279,-9.4184,-27.2622,22.3057,-21.3146,-18.3403,3.4698,-113.1441,0.49556,-36.185,5.8181,
0.49556,-0.49556,21.3146,24.2888,-14.3739,-15.366,8.4273,-9.4174,-6.4432,18.4698,-113.5096,15.366,-29.2444,2.4787,
-7.9308,0,20.8181,26.7666,-5.9486,-21.8101,0,-10.9051,8.5568,26.7666,-102.1095,3.9654,-30.732,12.8873,
-2.4787,10.4095,15.366,32.2187,-7.4352,-33.2107,13.3828,-23.2968,5.4521,11.7666,-98.6396,-11.0346,-34.2018,2.4787,
9.9135,14.87,23.7919,34.6969,-3.9659,-18.8363,28.3828,-8.2968,1.9827,13.8789,-87.239,-4.957,-19.2018,-1.9827,
4.9565,0.99111,30.732,27.7577,-2.9743,-16.8527,13.3828,-6.9397,5.9486,13.8793,-87.239,-0.99111,-12.8873,-2.9743,
0.49603,1.4871,27.2626,35.1934,-8.4268,-28.2538,3.4694,-21.9397,-0.49603,2.4783,-97.6485,-9.4179,-27.8873,2.4783,
0.99111,5.9476,25.7755,35.6885,-2.9743,-26.7666,18.4694,-20.819,-0.99111,10.9051,-94.1787,-1.9832,-26.7666,5.9476,
-6.9397,1.9832,30.732,33.7063,-0.99111,-22.8012,27.7577,-5.819,0.99111,11.8962,-86.2475,-1.9822,-11.7666,2.9743,
-7.4352,3.4698,34.2018,34.2018,-2.4787,-24.2879,31.2276,0.49556,-4.4609,5.4521,-87.7346,-1.4867,-0.49556,15.366,
-8.9214,-1.9827,24.7839,30.7325,-5.9481,-26.7661,19.8274,-14.5044,3.9659,1.9827,-96.1609,3.9659,-9.9135,26.7671,
-16.8536,0,25.7746,43.6193,-1.9832,-21.8101,4.8274,-15.8616,18.9659,15.8616,-81.1609,0,-13.8793,22.8012,
-25.2799,3.4698,38.1663,44.1148,-3.4698,-24.2888,9.4174,-9.4184,23.2968,25.279,-66.1609,-3.4698,-7.4352,9.4174,
-28.7488,0,33.7063,35.6894,-12.8873,-29.7399,24.4174,-14.8704,8.2968,11.8962,-74.3513,0,-11.8962,0.99205,
-15.3665,5.4525,35.1925,38.1668,-5.4525,-14.7399,31.2271,-12.3922,12.3912,2.4783,-78.8127,-2.4783,-9.4179,15.3655,
-11.8966,1.9827,42.6277,36.6801,-1.9827,-11.8966,23.7919,-8.9224,23.7919,4.957,-69.3948,-17.4783,-4.957,20.8185,
-17.8443,0.99158,43.6198,38.6633,-2.9738,-11.8957,33.7058,-1.9827,16.8531,14.8709,-63.4462,-5.9481,-0.99158,16.8531,
-29.7409,-9.913,28.6198,31.7231,-3.9654,-14.8704,38.6628,-16.8527,3.9654,22.8012,-78.4462,9.0519,-4.9565,9.9139,
-25.2795,-6.4436,24.2884,35.1934,1.4871,-25.2795,31.228,-20.323,-1.4871,32.2191,-93.4462,15.3655,-5.4525,20.323,
-12.8873,0.99111,38.6628,40.6459,-0.99111,-22.8012,28.7498,-5.323,-3.9654,21.8101,-88.2301,2.9743,-4.9565,24.7834,
-13.8784,-1.9822,39.6548,35.6894,-8.9219,-10.9041,33.7063,0,4.9574,13.8793,-78.3167,0,-7.9308,9.7834,
-23.2968,-2.4787,30.2364,44.1148,-18.3403,-12.3917,24.2879,-8.4263,18.3403,20.3225,-73.8557,5.4521,-4.4609,2.4787,
-32.7152,-9.9139,25.7746,41.6371,-31.7231,-27.3917,16.8527,-10.9051,20.8181,7.9308,-78.3171,0.99111,-0.99111,17.4787,
-26.2706,-3.4694,36.1845,42.1321,-18.3398,-31.228,28.2538,4.0949,24.2884,-3.4694,-79.8038,-2.4783,2.4783,30.236,
-18.8358,0,34.6974,39.6539,-3.3398,-18.8358,25.7755,2.9743,22.8012,5.9486,-82.2821,0,-3.9654,15.236,
-14.8709,-1.9827,29.7404,31.7226,4.956,-10.9055,23.7919,-12.0257,13.8789,18.8354,-76.3344,1.9827,-1.9827,0.23597,
-23.2968,1.4876,28.2542,39.1583,-6.4432,-25.9055,20.3225,-15.366,0.49556,10.4095,-78.8122,-13.0173,0.49556,-0.49556,
-24.2884,3.4694,35.1934,41.141,-10.409,-33.2103,24.2884,-0.366,-0.49603,7.4348,-74.8473,-25.2795,7.4348,-3.4694,
-23.2968,-4.4609,30.2364,26.2711,-8.4263,-19.3314,24.2879,-10.4095,4.4609,19.3314,-72.8641,-10.2795,4.4609,7.4352,
-28.7498,-10.9051,19.8269,25.7746,-4.9565,-17.8447,26.7666,-24.7844,19.4609,32.7142,-75.3429,-2.9743,2.9743,22.4352,
-27.2622,-12.3927,24.2879,29.2444,-3.4698,-31.2276,27.2622,-9.7844,19.3314,20.3225,-75.8389,-14.3749,3.4698,15.366,
-12.2622,-1.9827,32.7147,43.6188,-5.9481,-20.8185,30.7315,5.2156,4.3314,5.9481,-80.2998,-10.9055,-3.9659,7.9303,
-11.8962,0.99111,29.7409,42.6282,-0.99111,-5.9476,30.732,-8.9219,4.9565,15.8616,-88.2301,-8.9219,-9.913,14.8704,
-26.8962,-7.4357,22.3052,34.2014,5.4525,-6.4436,25.2795,-16.3576,16.3566,19.3309,-84.7608,-9.4179,-5.4525,15.3655,
-39.6534,-8.9214,16.8531,34.6979,1.9827,-9.9135,26.7671,-6.9392,3.9659,4.3309,-83.2732,-1.9827,-1.9827,4.957,
-29.2449,3.4694,25.2795,37.1756,-3.4694,-3.4694,30.236,-11.4001,-5.4525,14.3744,-81.7865,4.4614,-4.4614,15.3655,
-29.7404,5.9481,33.7068,46.594,-3.9649,1.9827,26.7671,-20.8185,-1.9827,29.3744,-78.3167,-1.9827,-4.956,24.7839,
-39.1583,-8.4263,27.2622,41.1415,11.0351,-4.4609,23.2968,-13.3828,-3.4698,18.3403,-82.7781,-4.4609,3.4698,16.3571,
-31.2276,-5.4521,32.2187,37.1761,14.3749,-11.4006,28.2533,1.6172,-4.4609,3.3403,-83.7692,-3.4698,10.4095,20.3225,
-27.7587,6.9387,37.6707,48.5758,-0.62511,-14.8704,28.7488,0,-6.9397,0,-79.3087,-3.9654,3.9654,25.7746,
-34.2018,-0.49556,31.2276,46.098,-7.4352,-7.4352,28.2533,-15,0.49556,15,-77.8216,2.4778,-1.4876,17.3482,
-38.6628,-6.9397,27.7577,39.6539,5.9486,0,28.7498,-24.7834,0,25.7755,-79.3083,-2.9743,-2.9743,2.3482,
-34.6974,0,30.732,39.6539,4.9565,0,32.7142,-11.8962,-1.9832,23.7923,-75.3429,-1.9832,0,11.8962,
-45.1069,-7.4352,24.2879,31.2276,-5.453,-12.3917,28.2533,-6.4441,0.49556,19.3314,-77.8216,-0.49556,7.4352,16.3571,
-58.4902,-6.9397,27.7577,35.6885,0.99111,-10.9051,21.8092,-19.8269,-0.99111,5.9476,-75.3429,-14.8704,22.4352,11.8962,
-55.5159,-2.9743,33.7063,41.6371,0.99111,-5.9486,29.7409,-25.7755,0,0,-66.421,-25.7755,26.7666,6.9397,
-46.098,-3.4694,25.2795,44.1153,-8.4268,-11.4011,31.2271,-14.3744,10.409,3.4694,-62.9511,-25.2795,11.7666,6.4436,
