"AF3","AF4","F3","F4","F7","F8","FC5","FC6","O1","O2","P7","P8","T7","T8",
73.5762,142.8876,-189.8056,-1.0666,-8.5311,24.5251,-14.9285,-17.0616,-5.3318,67.1788,-6.3979,83.1728,38.388,1.0666,
88.5762,137.0232,-174.8056,-15.4615,-14.3954,9.5251,-7.997,-13.3294,-6.9309,69.8439,-6.9309,89.0382,34.6557,16.0666,
73.5762,141.2875,-159.8056,-11.1962,-29.3954,-5.4749,-22.997,1.6706,-14.3954,59.1813,-9.0641,99.7009,25.0581,27.1912,
82.6398,156.2875,-144.8056,-0.53354,-44.3954,0.53354,-30.3904,-0.53354,-10.1301,62.3795,-11.1962,86.905,23.992,12.1912,
97.6398,171.2875,-129.8056,4.7983,-59.3954,-0.53303,-15.3904,-15.5335,-10.1307,61.3129,0.53303,71.905,38.992,-2.8088,
110.364,156.2875,-114.8056,-0.53303,-52.7834,-15.533,-22.9265,-23.9925,-25.1307,50.6502,0.53303,86.905,33.5891,1.5991,
95.364,142.8876,-129.8056,12.7963,-67.7834,-30.533,-13.8624,-8.9925,-19.1937,57.5812,-8.53,101.905,18.5891,1.0666,
105.0327,157.8876,-114.8056,7.9975,-82.7834,-15.533,1.1376,-5.8644,-11.1967,65.5792,-2.6662,86.905,23.9925,-13.9334,
90.0327,151.9507,-106.0998,-7.0025,-97.7834,-0.53303,4.7983,-20.8644,-26.1967,55.9816,-4.7983,71.905,38.9205,-28.9334,
75.0327,136.9507,-121.0998,-22.0025,-112.7834,14.467,15.9945,-15.9945,-41.1967,40.9816,-19.7983,86.905,24.5251,-31.9895,
60.0327,121.9507,-136.0998,-7.0025,-127.7834,-0.53303,24.5251,-2.1326,-26.1967,52.2498,-21.3269,71.905,12.7953,-16.9895,
45.0327,123.6939,-121.0998,7.9975,-142.7834,-15.533,29.8569,3.1992,-11.1967,52.2503,-6.3269,56.905,-2.2047,-12.7958,
35.7213,108.6939,-136.0998,-7.0025,-157.7834,-0.53303,44.8569,18.1992,-23.9925,37.2503,-21.3269,65.5792,-17.2047,-20.7933,
20.7213,93.6939,-151.0998,-22.0025,-172.7834,14.467,59.8569,33.1992,-18.6602,22.2503,-14.3949,50.5792,-2.2047,-10.1296,
5.7213,78.6939,-166.0998,-25.5916,-187.7834,-0.53303,74.8569,44.7859,-25.5916,20.2603,0.60509,35.5792,12.7953,-20.2603,
20.7213,63.6939,-155.1504,-10.5916,-202.7834,11.1962,89.8569,48.5176,-15.4615,5.2603,-1.5996,20.5792,27.7953,-25.0591,
5.7213,48.6939,-170.1504,-25.5916,-217.7834,2.6657,104.8569,45.3184,-0.46148,-9.7397,-2.6657,5.5792,42.7953,-19.7268,
-9.2787,35.1887,-185.1504,-26.6582,-232.7834,-12.3343,119.8569,54.383,14.5385,5.2603,12.3343,-9.4208,57.7953,-5.3318,
-24.2787,29.8574,-170.1504,-13.8624,-247.7834,-19.1937,134.8569,69.383,13.8624,20.2603,14.9285,-24.4208,72.7953,-15.9945,
-28.2573,32.5226,-185.1504,-6.9309,-262.7834,-4.1937,149.8569,84.383,-1.1376,9.0641,-0.071548,-9.4208,82.6398,-6.9309,
-43.2573,36.2553,-200.1504,-21.9309,-277.7834,4.2653,164.8569,99.383,-1.0661,-5.9359,1.0661,-2.1321,82.1072,1.0661,
-58.2573,50.1172,-206.8672,-36.2553,-292.7834,-10.7347,179.8569,88.5046,13.9339,9.0641,12.7958,-17.1321,87.4386,-9.5966,
-43.2573,61.3139,-193.5378,-21.2553,-307.7834,-2.6662,194.8569,99.7014,25.0586,24.0641,2.6662,-20.7933,87.9716,-11.1967,
-41.0536,46.3139,-181.8081,-18.6602,-322.7834,-1.5991,179.8569,101.8345,10.0586,9.0641,1.5991,-5.7933,79.4411,-4.7983,
-26.0536,55.449,-166.8081,-3.6602,-337.7834,-7.464,171.6785,98.1018,21.3269,-5.9359,16.5991,-20.7933,94.4411,-8.53,
-11.0536,70.449,-151.8081,1.5996,-352.7834,7.536,160.4817,83.1018,6.3269,-16.5286,1.5991,-35.7933,79.4411,-23.53,
3.9464,85.449,-136.8081,11.1962,-342.8234,22.536,156.2165,98.1018,-8.6731,-11.1962,-13.4009,-50.7933,76.2424,-38.53,
18.9464,100.449,-121.8081,26.1962,-357.2188,37.536,141.2165,113.1018,-23.6731,-26.1962,-28.4009,-35.7933,61.2424,-50.1172,
33.9464,115.449,-106.8081,26.1252,-353.4865,52.536,126.2165,122.0943,-38.6731,-41.1962,-43.4009,-20.7933,46.2424,-65.1172,
48.9464,130.449,-91.8081,31.457,-338.4865,67.536,111.2165,133.8235,-53.6731,-31.456,-58.4009,-5.7933,31.2424,-80.1172,
63.9464,145.449,-95.4366,36.7878,-323.4865,82.536,96.2165,148.8235,-68.6731,-16.456,-71.9771,-5.8649,16.2424,-84.7729,
78.9464,160.449,-87.4386,47.9841,-308.4865,97.536,81.2165,162.0813,-73.5767,-10.6637,-56.9771,-4.2653,15.995,-76.7759,
93.9464,175.449,-72.4386,62.9841,-293.4865,112.536,66.2165,165.2795,-67.1783,-4.2653,-46.919,10.7347,4.2653,-61.7759,
108.9464,190.449,-57.4386,77.9841,-278.4865,127.536,51.2165,150.2795,-52.1783,-5.3318,-43.7193,5.3318,-6.3979,-46.7759,
123.9464,205.449,-72.4386,78.375,-263.4865,142.536,36.2165,135.2795,-39.9876,-9.0636,-32.5231,-9.6682,8.6021,-61.7759,
138.9464,220.449,-57.4386,93.375,-248.4865,157.536,21.2165,123.1609,-54.9876,-13.3288,-47.451,-24.6682,13.3288,-76.7759,
153.9464,235.449,-49.0511,83.1733,-233.4865,172.536,6.2165,108.1609,-69.9876,-28.3288,-62.451,-9.6682,-1.6712,-91.7759,
168.9464,250.449,-62.913,85.3064,-218.4865,187.536,-8.7835,93.1609,-84.9876,-41.5867,-77.451,5.3318,-16.6712,-106.7759,
183.9464,265.449,-57.5812,100.3064,-203.4865,202.536,-23.7835,78.1609,-99.9876,-43.7193,-92.451,20.3318,-31.6712,-100.2339,
198.9464,280.449,-72.5812,113.0307,-188.4865,217.536,-38.7835,75.7093,-114.9876,-43.7193,-107.451,35.3318,-46.6712,-85.2339,
213.9464,295.449,-87.5812,108.7654,-173.4865,232.536,-53.7835,60.7093,-129.9876,-45.8524,-122.451,45.8524,-61.6712,-84.2399,
228.9464,310.449,-98.1023,123.6929,-158.4865,247.536,-68.7835,45.7093,-114.9876,-30.8524,-107.451,36.2543,-71.4446,-83.1733,
243.9464,325.449,-110.8976,138.6929,-143.4865,262.536,-69.3109,30.7093,-99.9876,-15.8524,-92.451,21.2543,-59.7143,-68.1733,
258.9464,340.449,-115.6964,153.6929,-128.4865,277.536,-82.6403,15.7093,-84.9876,-0.85243,-77.451,6.2543,-68.7774,-53.1733,
273.9464,355.449,-112.4972,163.6804,-113.4865,292.536,-68.7784,0.70933,-69.9876,1.5991,-62.451,-8.7457,-57.0486,-38.1733,
288.9464,370.449,-104.5002,177.0093,-98.4865,307.536,-53.7784,8.5305,-54.9876,3.1992,-47.451,-23.7457,-42.0486,-23.1733,
303.9464,385.449,-89.5002,162.0093,-83.4865,322.536,-38.7784,14.9279,-49.0511,-1.0661,-34.1222,-8.7457,-27.0486,-8.1733,
318.9464,400.449,-74.5002,147.0093,-68.4865,337.536,-34.6557,-0.072056,-64.0511,-1.5996,-49.1222,6.2543,-42.0486,1.5996,
333.9464,415.449,-59.5002,140.2219,-53.4865,352.536,-49.5842,-15.0721,-58.1147,-9.0636,-63.446,13.3288,-57.0486,-7.9975,
348.9464,430.449,-44.5002,155.2219,-38.4865,337.536,-61.8469,-0.072056,-43.1147,0,-54.3825,-1.6712,-72.0486,1.0661,
363.9464,445.449,-29.5002,170.2219,-23.4865,322.536,-62.38,-7.9975,-44.2528,7.9975,-53.8494,10.1296,-87.0486,-12.2628,
378.9464,460.449,-20.7933,155.2219,-8.4865,319.3634,-47.38,-22.9975,-58.1147,20.7933,-55.9826,25.1296,-78.375,-27.1917,
393.9464,475.449,-35.7933,140.2219,6.5135,334.3634,-32.38,-37.9975,-50.1177,12.7953,-56.5151,10.1296,-63.375,-15.9955,
408.9464,490.449,-50.7933,125.2219,21.5135,327.8944,-17.38,-22.9975,-48.5176,2.6657,-51.7168,-2.6657,-48.375,-14.3954,
423.9464,505.449,-65.7933,110.2219,36.5135,312.8944,-2.38,-26.1247,-63.5176,-6.9314,-66.6452,6.9314,-63.375,-29.3954,
438.9464,520.449,-57.0481,125.2219,51.5135,297.8944,-1.5996,-11.1247,-48.5176,8.0686,-51.6452,-8.0686,-78.375,-18.6607,
453.9464,535.449,-72.0481,127.9587,36.5135,282.8944,6.3979,-6.3979,-33.5176,-6.9314,-36.6452,-23.0686,-93.375,-3.6607,
438.9464,550.449,-87.0481,117.2952,21.5135,267.8944,21.3979,-21.3979,-18.5176,-21.9314,-21.6452,-38.0686,-106.6326,11.3393,
423.9464,535.449,-102.0481,110.8973,6.5135,252.8944,36.3979,-9.5969,-3.5176,-36.9314,-34.1224,-53.0686,-121.6326,26.3393,
408.9464,520.449,-117.0481,95.8973,-8.4865,237.8944,42.6532,-4.2653,4.2653,-51.9314,-49.1224,-68.0686,-136.6326,11.3393,
393.9464,505.449,-132.0481,86.372,-23.4865,222.8944,27.6532,-14.9285,19.2653,-66.9314,-50.1172,-83.0686,-145.0203,26.3393,
378.9464,490.449,-147.0481,88.5051,-38.4865,207.8944,12.6532,-2.1326,31.9895,-81.9314,-52.2498,-98.0686,-140.755,38.3874,
363.9464,475.449,-162.0481,73.5051,-53.4865,192.8944,1.0663,10.6634,16.9895,-96.9314,-67.2498,-113.0686,-143.9539,23.3874,
348.9464,460.449,-177.0481,69.8445,-68.4865,177.8944,6.9309,12.2628,1.9895,-111.9314,-82.2498,-128.0686,-128.9539,9.0641,
333.9464,445.449,-192.0481,84.8445,-83.4865,162.8944,-8.0691,8.5305,16.9895,-126.9314,-67.2498,-143.0686,-113.9539,24.0641,
318.9464,430.449,-207.0481,99.8445,-98.4865,147.8944,-12.2628,23.5305,31.9895,-111.9314,-52.2498,-158.0686,-98.9539,39.0641,
303.9464,415.449,-222.0481,114.8445,-113.4865,132.8944,-7.4642,38.5305,46.9895,-96.9314,-37.2498,-173.0686,-83.9539,54.0641,
288.9464,400.449,-237.0481,129.8445,-128.4865,117.8944,-22.4642,53.5305,61.9895,-81.9314,-22.2498,-188.0686,-68.9539,69.0641,
273.9464,385.449,-252.0481,142.3541,-143.4865,102.8944,-37.4642,50.6502,76.9895,-78.375,-7.2498,-203.0686,-53.9539,84.0641,
258.9464,370.449,-258.5835,155.1504,-158.4865,87.8944,-52.4642,58.1147,91.9895,-93.375,-12.2628,-218.0686,-38.9539,99.0641,
243.9464,355.449,-243.5835,170.1504,-173.4865,84.2396,-67.4642,61.8467,106.9895,-78.375,-12.7961,-233.0686,-23.9539,114.0641,
228.9464,340.449,-228.5835,157.283,-188.4865,99.2396,-82.4642,46.8467,100.7679,-63.375,-17.5941,-248.0686,-8.9539,115.6964,
213.9464,325.449,-213.5835,142.283,-203.4865,91.1708,-97.4642,31.8467,85.7679,-77.3084,-32.5941,-263.0686,5.8649,100.6964,
198.9464,310.449,-198.5835,127.283,-218.4865,78.9078,-112.4642,16.8467,70.7679,-92.3084,-47.5941,-278.0686,-5.3316,85.6964,
183.9464,311.3664,-183.5835,112.283,-233.4865,93.9078,-127.4642,27.7243,55.7679,-77.3084,-62.5941,-263.0686,-8.5305,70.6964,
168.9464,326.3664,-168.5835,98.102,-218.4865,108.9078,-125.8263,36.2551,40.7679,-62.3084,-55.4488,-248.0686,-15.9948,55.6964,
153.9464,311.3664,-173.8108,91.7041,-203.4865,97.0354,-140.8263,21.2551,25.7679,-47.3084,-56.5154,-242.0557,-30.9948,40.6964,
138.9464,296.3664,-186.6069,83.1728,-188.4865,91.7033,-155.8263,6.2551,10.7679,-62.3084,-66.1122,-248.4538,-45.9948,25.6964,
123.9464,281.3664,-171.6069,90.104,-173.4865,103.9669,-170.8263,6.9312,-4.2321,-75.176,-64.5124,-233.4538,-60.9948,20.7936,
108.9464,272.4464,-156.6069,103.9666,-158.4865,90.1048,-175.4102,18.6612,3.7322,-60.176,-49.5124,-218.4538,-75.9948,23.9925,
93.9464,280.9764,-141.6069,88.9666,-143.4865,105.1048,-181.8086,3.7317,-3.7317,-45.176,-48.5176,-203.4538,-90.9948,8.9925,
93.837,295.9764,-134.3571,73.9666,-128.4865,120.1048,-168.4792,7.4645,-7.4645,-30.176,-46.9185,-188.4538,-90.6378,8.5305,
106.0998,310.9764,-124.2264,71.9766,-113.4865,135.1048,-158.3491,15.462,-7.9975,-15.176,-44.2518,-173.4538,-80.5071,7.9975,
106.0993,315.0986,-109.2264,77.3084,-98.4865,140.2214,-151.9517,16.5275,-6.9309,-0.17605,-42.1202,-158.4538,-73.0437,-5.8649,
121.0993,303.9029,-94.2264,66.1127,-83.4865,153.5513,-148.219,9.5971,-9.5971,14.824,-41.5861,-143.4538,-60.7804,-13.8624,
119.4286,306.0355,-99.1678,68.2454,-68.4865,154.6179,-150.3511,4.2653,-14.9279,25.5926,-42.6527,-128.4538,-52.2493,-4.2653,
104.4286,291.1071,-92.7699,72.5101,-53.4865,154.6174,-147.1524,-3.1987,-19.1937,17.0616,-28.7903,-113.4538,-43.7193,3.1987,
92.7699,292.1726,-77.7699,76.7749,-38.4865,169.6174,-132.1524,1.0661,-20.2603,32.0616,-22.3924,-98.4538,-33.0561,-1.0661,
107.7699,288.4404,-80.5081,61.7749,-23.4865,164.7465,-127.4261,-13.9339,-35.2603,25.0586,-37.3924,-83.4538,-48.0561,-16.0661,
122.7699,303.4404,-65.5081,49.5842,-8.4865,179.7465,-112.4261,-27.1917,-49.5842,23.9925,-52.3924,-68.4538,-39.9876,-23.9925,
107.7699,295.3718,-50.5081,63.9801,6.5135,184.4748,-97.4261,-41.5867,-50.1172,15.995,-44.7848,-53.4538,-24.9876,-33.0561,
122.7699,310.3718,-35.5081,72.5096,21.5135,174.8772,-82.4261,-35.1893,-49.0511,21.3264,-42.6527,-38.4538,-9.9876,-35.1893,
137.7699,322.5631,-50.5081,57.5096,36.5135,185.0073,-67.4261,-46.3855,-54.916,21.8599,-57.6527,-23.4538,-21.8599,-30.3904,
152.7699,309.7667,-35.5081,46.385,51.5135,187.1399,-52.4261,-61.3855,-69.8445,17.5941,-69.8445,-8.4538,-20.7933,-45.3189,
167.7699,312.4334,-20.5081,41.5872,66.5135,172.1399,-55.449,-76.3855,-84.8445,3.1987,-70.377,-1.0666,-28.7903,-60.3189,
152.7699,308.7012,-35.5081,26.5872,81.5135,175.4097,-70.449,-75.1763,-87.9721,17.5946,-76.2424,13.9334,-17.5946,-50.6507,
143.9532,293.7012,-20.5081,11.5872,96.5135,180.2085,-85.449,-90.1763,-102.9721,2.5946,-91.2424,28.9334,-32.5946,-65.6507,
158.9532,308.7012,-5.5081,26.5872,111.5135,165.2085,-89.0377,-105.1763,-117.9721,-12.4054,-106.2424,20.7933,-47.5946,-80.6507,
173.9532,323.7012,9.4919,41.5872,126.5135,155.1504,-74.0377,-90.1763,-122.0943,-14.3954,-113.5637,14.3954,-62.5946,-81.5737,
188.9532,338.7012,4.7983,26.5872,141.5135,170.1504,-59.0377,-75.1763,-107.0943,-4.7983,-98.5637,29.3954,-47.5946,-66.5737,
203.9532,353.7012,19.7262,16.5281,156.5135,155.1504,-44.0377,-90.1763,-122.0943,-16.5281,-113.5637,36.7883,-62.5946,-81.5737,
218.9532,368.7012,34.7262,31.5281,171.5135,140.1504,-29.0377,-105.1763,-137.0943,-29.8574,-128.5637,21.7883,-77.5946,-96.5737,
233.9532,359.3509,49.7262,40.5206,186.5135,137.5558,-14.0377,-105.5667,-122.0943,-39.4545,-113.5637,6.7883,-62.5946,-81.5737,
248.9532,344.3509,64.7262,41.5861,201.5135,122.5558,0.96233,-99.1688,-107.0943,-54.4545,-98.5637,-8.2117,-47.5946,-78.9085,
263.9532,359.3509,79.7262,56.5861,216.5135,107.5558,15.9623,-84.1688,-92.0943,-39.4545,-83.5637,-23.2117,-62.5946,-74.1097,
278.9532,374.3509,67.1783,47.9851,201.5135,92.5558,30.9623,-99.1688,-77.0943,-24.4545,-78.908,-38.2117,-77.5946,-59.1097,
293.9532,359.3509,52.1783,55.4495,186.5135,77.5558,45.9623,-111.9636,-62.0943,-39.4545,-72.5096,-53.2117,-92.5946,-44.1097,
308.9532,344.3509,67.1783,70.4495,171.5135,62.5558,60.9623,-96.9636,-47.0943,-54.4545,-57.5096,-68.2117,-91.1706,-29.1097,
323.9532,329.3509,52.1783,85.4495,156.5135,47.5558,75.9623,-81.9636,-32.0943,-69.4545,-42.5096,-83.2117,-106.1706,-14.1097,
338.9532,314.3509,37.1783,100.4495,141.5135,32.5558,90.9623,-66.9636,-17.0943,-84.4545,-27.5096,-98.2117,-91.1706,0.89027,
353.9532,299.3509,22.1783,86.3723,126.5135,17.5558,105.9623,-51.9636,-2.0943,-99.4545,-12.5096,-113.2117,-76.1706,15.8903,
368.9532,284.3509,7.1783,85.3057,111.5135,2.5558,120.9623,-62.9133,12.9057,-114.4545,-27.5096,-128.2117,-61.1706,30.8903,
383.9532,269.3509,-7.8217,75.176,96.5135,-12.4442,135.9623,-48.5178,27.9057,-129.4545,-42.5096,-143.2117,-46.1706,17.5944,
398.9532,254.3509,-22.8217,90.176,81.5135,-27.4442,150.9623,-47.4515,42.9057,-144.4545,-54.9155,-158.2117,-31.1706,32.5944,
383.9532,239.3509,-7.8217,105.176,66.5135,-42.4442,165.9623,-62.4515,57.9057,-159.4545,-59.7141,-173.2117,-16.1706,47.5944,
369.4811,224.3509,7.1783,90.176,51.5135,-57.4442,180.9623,-77.4515,70.9105,-174.4545,-74.7141,-188.2117,-1.1706,62.5944,
384.4811,209.3509,5.8646,75.176,36.5135,-72.4442,195.9623,-92.4515,55.9105,-189.4545,-89.7141,-203.2117,13.8294,47.5944,
399.4811,194.3509,20.8646,60.176,21.5135,-87.4442,210.9623,-107.4515,40.9105,-204.4545,-104.7141,-218.2117,28.8294,32.5944,
414.4811,179.3509,35.8646,45.176,6.5135,-102.4442,225.9623,-107.6986,25.9105,-219.4545,-119.7141,-233.2117,43.8294,17.5944,
429.4811,164.3509,50.8646,45.3189,-8.4865,-117.4442,240.9623,-92.6986,10.9105,-234.4545,-125.293,-248.2117,58.8294,2.5944,
444.4811,179.3509,65.8646,43.1863,-23.4865,-132.4442,255.9623,-77.6986,5.8649,-219.4545,-111.4311,-263.2117,73.8294,-5.8649,
459.4811,191.9382,80.8646,28.1863,-38.4865,-147.4442,270.9623,-62.6986,4.2653,-208.9993,-126.4311,-278.2117,88.8294,-4.2653,
474.4811,176.9382,95.8646,13.1863,-53.4865,-162.4442,285.9623,-68.7781,1.5993,-223.9993,-141.4311,-293.2117,103.8294,1.5993,
489.4811,161.9382,110.8646,16.5281,-68.4865,-177.4442,270.9623,-68.7779,-1.5996,-238.9993,-143.4206,-308.2117,118.8294,1.5996,
504.4811,146.9382,125.8646,23.459,-83.4865,-192.4442,255.9623,-83.7779,0,-253.9993,-132.2244,-323.2117,133.8294,0,
519.4811,131.9382,140.8646,8.459,-98.4865,-207.4442,240.9623,-98.7779,15,-268.9993,-122.6273,-338.2117,148.8294,10.6632,
534.4811,116.9382,155.8646,23.459,-113.4865,-222.4442,225.9623,-100.2344,30,-283.9993,-107.6273,-353.2117,163.8294,25.6632,
549.4811,101.9382,170.8646,26.1249,-128.4865,-237.4442,210.9623,-96.5024,28.2576,-291.6393,-122.6273,-368.2117,178.8294,27.1915,
564.4811,86.9382,185.8646,25.5916,-143.4865,-252.4442,195.9623,-97.0357,35.1887,-292.1726,-137.6273,-383.2117,193.8294,34.1222,
579.4811,71.9382,200.8646,40.5916,-158.4865,-267.4442,180.9623,-85.3062,45.8517,-306.0353,-126.8928,-398.2117,208.8294,45.8517,
594.4811,56.9382,215.8646,55.5916,-173.4865,-273.5124,165.9623,-70.3062,34.6557,-308.7007,-116.7624,-413.2117,223.8294,59.1808,
609.4811,41.9382,230.8646,44.7854,-188.4865,-258.5124,150.9623,-68.2449,28.7908,-293.7007,-129.0252,-428.2117,238.8294,71.4436,
624.4811,26.9382,245.8646,59.181,-203.4865,-243.5124,135.9623,-53.2449,43.7908,-278.7007,-114.0252,-443.2117,253.8294,86.4436,
609.4811,11.9382,260.8646,74.181,-218.4865,-228.5124,120.9623,-38.2449,58.7908,-263.7007,-99.0252,-458.2117,268.8294,101.4436,
594.4811,-3.0618,275.8646,89.181,-233.4865,-213.5124,105.9623,-23.2449,73.7908,-248.7007,-84.0252,-473.2117,283.8294,116.4436,
579.4811,-18.0618,290.8646,77.3084,-248.4865,-198.5124,90.9623,-8.2449,88.7908,-233.7007,-69.0252,-468.6494,298.8294,131.4436,
564.4811,-33.0618,305.8646,62.3084,-263.4865,-210.0659,75.9623,-19.1937,103.7908,-218.7007,-54.0252,-483.6494,313.8294,146.4436,
549.4811,-48.0618,320.8646,48.5176,-278.4865,-213.7981,60.9623,-12.2628,118.7908,-203.7007,-39.0252,-498.6494,328.8294,161.4436,
534.4811,-63.0618,335.8646,62.9135,-293.4865,-198.7981,45.9623,2.7372,133.7908,-214.3312,-24.0252,-513.6494,343.8294,176.4436,
519.4811,-78.0618,350.8646,77.9135,-308.4865,-185.5406,30.9623,17.0613,148.7908,-221.7954,-17.0613,-528.6494,328.8294,191.4436,
504.4811,-93.0618,365.8646,92.9135,-323.4865,-170.5406,15.9623,12.7958,163.7908,-206.7954,-12.7958,-543.6494,327.3614,204.7341,
489.4811,-108.0618,380.8646,107.9135,-338.4865,-155.5406,0.96233,7.9975,170.0788,-191.7954,-7.9975,-528.6494,342.3614,205.2676,
474.4811,-123.0618,395.8646,122.9135,-353.4865,-162.0813,-14.0377,22.9975,155.0788,-178.0764,-15.995,-513.6494,339.0911,197.2701,
459.4811,-138.0618,410.8646,137.9135,-368.4865,-147.0813,-29.0377,37.9975,170.0788,-163.0764,-0.99502,-498.6494,336.4255,212.2701,
444.4811,-153.0618,425.8646,152.9135,-383.4865,-132.0813,-44.0377,52.9975,185.0788,-148.0764,14.005,-483.6494,350.8209,227.2701,
429.4811,-168.0618,440.8646,167.9135,-398.4865,-117.0813,-59.0377,67.9975,192.4715,-133.0764,29.005,-468.6494,365.8209,242.2701,
414.4811,-183.0618,455.8646,182.9135,-413.4865,-102.0813,-74.0377,82.9975,206.3339,-118.0764,44.005,-453.6494,380.1445,257.2701,
399.4811,-198.0618,470.8646,197.9135,-428.4865,-106.6323,-89.0377,93.8365,221.3339,-103.0764,59.005,-438.6494,365.1445,272.2701,
384.4811,-213.0618,485.8646,212.9135,-443.4865,-91.6323,-104.0377,82.6403,236.3339,-93.3035,74.005,-423.6494,350.1445,287.2701,
369.4811,-228.0618,500.8646,227.9135,-458.4865,-79.9744,-119.0377,79.9744,232.4591,-92.7702,89.005,-408.6494,335.1445,301.77,
354.4811,-243.0618,515.8646,242.9135,-473.4865,-93.3032,-134.0377,87.9719,246.854,-87.9719,104.005,-393.6494,320.1445,307.6344,
339.4811,-258.0618,530.8646,257.9135,-488.4865,-79.4411,-149.0377,79.4411,244.7216,-90.1042,108.2319,-378.6494,316.1652,307.6346,
324.4811,-273.0618,545.8646,255.385,-503.4865,-67.7116,-164.0377,67.7116,229.7216,-75.1042,93.2319,-363.6494,301.1652,292.6346,
309.4811,-288.0618,560.8646,248.4533,-518.4865,-77.8415,-179.0377,72.5101,214.7216,-60.1042,78.2319,-348.6494,286.1652,277.6346,
294.4811,-303.0618,575.8646,263.4533,-533.4865,-62.8415,-194.0377,87.5101,199.7216,-73.5762,63.2319,-333.6494,278.3107,278.3107,
279.4811,-318.0618,590.8646,258.0507,-548.4865,-58.648,-209.0377,74.6425,184.7216,-88.5762,58.648,-318.6494,270.8465,291.1063,
264.4811,-333.0618,605.8646,267.6476,-563.4865,-66.1122,-224.0377,62.913,185.5403,-73.5762,73.648,-303.6494,285.8465,306.1063,
249.4811,-348.0618,620.8646,252.6476,-578.4865,-81.1122,-239.0377,55.9821,179.676,-58.5762,87.9721,-288.6494,277.7777,304.4359,
234.4811,-363.0618,635.8646,237.6476,-593.4865,-96.1122,-254.0377,69.8442,194.676,-69.8442,102.9721,-293.772,267.1143,319.4359,
219.4811,-378.0618,650.8646,235.1247,-608.4865,-102.9003,-269.0377,65.5789,209.676,-65.5789,117.9721,-292.7059,271.3796,325.762,
204.4811,-393.0618,665.8646,220.1247,-623.4865,-111.9641,-284.0377,52.2498,205.8006,-52.2498,116.2294,-281.5094,264.4484,310.762,
189.4811,-408.0618,652.5901,208.9998,-638.4865,-126.9641,-299.0377,61.8469,212.1985,-61.8469,110.8976,-287.9074,249.4484,310.3003,
174.4811,-423.0618,637.5901,223.9998,-653.4865,-130.0918,-309.2342,68.2449,227.1985,-68.2449,125.8976,-281.51,234.4484,325.3003,
159.4811,-438.0618,632.3303,220.7291,-660.0546,-124.76,-301.7697,55.449,220.7291,-55.449,126.8926,-266.51,229.2596,326.2953,
144.4811,-453.0618,617.3303,205.7291,-675.0546,-139.76,-316.7697,40.449,205.7291,-40.449,111.8926,-251.51,214.2596,311.2953,
129.4811,-468.0618,602.3303,190.7291,-690.0546,-154.76,-331.7697,25.449,198.3364,-25.449,96.8926,-246.321,199.2596,296.2953,
114.4811,-483.0618,587.3303,175.7291,-675.0546,-169.76,-346.7697,10.449,196.737,-10.449,93.3035,-243.655,184.2596,289.507,
99.4811,-498.0618,572.3303,164.214,-660.0546,-167.4132,-334.8259,23.459,181.737,-23.459,86.3725,-228.655,169.2596,295.3718,
84.4811,-513.0618,557.3303,164.747,-645.0546,-172.2115,-342.8234,10.1301,196.737,-10.1301,101.3725,-213.655,154.2596,310.3718,
69.4811,-528.0618,542.3303,179.747,-630.0546,-172.7445,-336.9585,3.1992,211.737,-3.1992,116.3725,-206.8667,139.2596,325.3718,
54.4811,-543.0618,527.3303,194.747,-615.0546,-180.209,-321.9585,18.1277,226.737,-18.1277,131.3725,-221.8667,124.2596,334.8259,
39.4811,-558.0618,512.3303,179.747,-600.0546,-187.6732,-306.9585,10.6634,227.1272,-10.6634,146.3725,-216.4641,109.2596,319.8259,
24.4811,-573.0618,497.3303,164.747,-585.0546,-173.2775,-321.9585,1.5996,226.594,-1.5996,141.288,-201.4641,94.2596,318.2978,
9.4811,-588.0618,482.3303,159.9487,-570.0546,-164.214,-330.5606,13.8624,224.9943,-13.8624,149.2855,-186.4641,79.2596,324.1627,
-5.5189,-603.0618,467.3303,174.9487,-555.0546,-164.747,-315.5606,-0.53303,224.4613,0.53303,158.3491,-171.4641,64.2596,323.6296,
-20.5189,-618.0618,452.3303,159.9487,-540.0546,-173.8108,-300.5606,-15.533,219.6628,15.533,143.3491,-156.4641,49.2596,318.8311,
-35.5189,-622.7332,437.3303,144.9487,-525.0546,-188.8108,-311.3669,-0.53303,204.6628,18.1277,128.3491,-151.4182,34.2596,303.9024,
-50.5189,-629.6647,422.3303,129.9487,-510.0546,-203.8108,-326.3669,4.7983,189.6628,15.4615,116.7624,-141.288,19.2596,288.9024,
-65.5189,-624.3328,407.3303,123.1604,-495.0546,-188.8108,-311.8999,-5.8649,182.8747,5.8649,131.6909,-131.6914,7.9975,294.8388,
-80.5189,-609.3328,392.3303,129.0252,-480.0546,-173.8108,-296.8999,-11.7298,197.8747,12.7958,146.6909,-116.6914,11.7298,303.9024,
-95.5189,-594.3328,377.3303,139.1551,-465.0546,-165.8133,-309.7675,-9.0638,212.8747,27.7958,161.6909,-101.6914,9.0638,305.5017,
-110.5189,-582.7462,362.3303,137.0227,-450.0546,-178.6094,-312.966,0.53303,220.196,42.7958,167.9462,-86.6914,-0.53303,314.0325,
-125.5189,-582.7462,347.3303,128.4922,-435.0546,-163.6094,-297.966,9.0636,222.3287,27.7958,171.1449,-101.6914,-9.0636,325.7623,
-140.5189,-575.2817,332.3303,131.6909,-420.0546,-148.6094,-282.966,5.8649,220.196,41.0536,174.3441,-86.6914,-5.8649,321.497,
-155.5189,-560.2817,317.3303,146.6909,-405.0546,-141.2878,-267.966,4.7986,226.5942,56.0536,178.6091,-71.6914,-4.7986,323.6294,
-170.5189,-545.2817,302.3303,144.487,-390.0546,-144.487,-272.4461,13.3291,221.2619,71.0536,169.012,-56.6914,-13.3291,325.762,
-185.5189,-543.2924,287.3303,129.487,-375.0546,-150.8849,-287.4461,15.4617,206.2619,56.0536,154.012,-47.4513,-15.4617,310.762,
-200.5189,-552.356,272.3303,114.487,-360.0546,-159.9484,-302.4461,11.7295,191.2619,57.5814,149.2858,-32.4513,-11.7295,304.9687,
-215.5189,-544.3585,257.3303,117.8288,-345.0546,-144.9484,-287.4461,2.6659,206.2619,72.5814,162.6146,-19.727,-2.6659,319.3641,
-230.5189,-529.3585,242.3303,124.2264,-330.0546,-129.9484,-272.4461,-7.9975,211.6655,71.9766,169.0123,-4.727,3.7322,324.6957,
-245.5189,-519.2999,227.3303,109.2264,-315.0546,-144.9484,-287.4461,-17.0613,196.6655,72.5099,158.8824,3.199,-3.199,309.6957,
-260.5189,-521.4328,212.3303,94.2264,-300.0546,-159.9484,-302.4461,-6.3979,205.8006,75.7088,168.4792,-2.1326,2.1326,304.969,
-275.5189,-506.4328,197.3303,86.9053,-285.0546,-145.5535,-287.4461,-1.5993,204.2013,60.7088,161.5481,-17.1326,1.5993,305.5017,
-290.5189,-491.4328,182.3303,94.3695,-270.0546,-141.288,-272.4461,-1.5996,197.8031,45.7088,160.4817,-32.1326,1.5996,305.502,
-305.5189,-476.4328,179.6757,105.0329,-255.0546,-126.288,-257.5172,0.53329,201.0021,60.7088,164.7473,-18.6609,-0.53329,304.4357,
-320.5189,-461.4328,166.8799,98.635,-240.0546,-111.288,-258.5837,11.1965,186.0021,67.7116,149.7473,-11.1965,-12.2625,289.4357,
-335.5189,-446.4328,170.6121,95.9694,-225.0546,-96.288,-246.321,25.5919,175.9435,62.9133,137.556,-26.1965,-25.5919,280.4431,
-350.5189,-431.4328,165.8136,110.9694,-210.0546,-81.288,-250.0529,25.0586,173.2781,53.8494,132.7575,-25.0586,-29.3239,285.2417,
-365.5189,-416.4328,150.8136,107.6989,-195.0546,-66.288,-263.3823,10.0586,159.9487,38.8494,121.5607,-10.0586,-39.454,272.9789,
-368.415,-401.4328,160.4817,114.6298,-180.0546,-66.6453,-248.3823,25.0586,174.9487,53.8494,136.5607,-25.0586,-41.0536,284.1756,
-353.415,-386.4328,166.8799,117.8288,-165.0546,-65.5789,-233.3823,40.0586,181.8083,58.1145,151.5607,-40.0586,-42.1199,284.1754,
-338.415,-371.4328,154.0841,116.7627,-150.0546,-50.5789,-236.1908,46.3852,166.8083,43.1145,151.9514,-35.722,-27.1199,286.308,
-323.415,-356.4328,139.0841,117.296,-135.0546,-35.5789,-231.3923,53.3164,168.4792,28.1145,146.0868,-39.454,-14.9285,282.576,
-308.415,-341.4328,124.0841,102.296,-120.0546,-50.5789,-229.7932,38.3164,153.4792,18.6607,131.0868,-54.454,-29.9285,267.576,
-293.415,-326.4328,109.0841,87.296,-105.0546,-65.5789,-222.3287,23.3164,138.4792,33.5891,116.0868,-39.454,-44.9285,252.576,
-278.415,-311.4328,102.3673,94.9028,-90.0546,-80.5789,-223.928,19.194,134.3568,29.8572,118.3618,-39.4543,-54.3827,254.8515,
-280.9764,-296.4328,87.3673,79.9028,-75.0546,-95.5789,-216.9968,16.5281,149.3568,44.8572,121.0277,-33.5891,-51.7168,250.0529,
-288.4409,-281.4328,73.0432,78.375,-60.0546,-110.5789,-218.0634,1.5281,160.4817,59.8572,126.3596,-18.5891,-55.9821,241.5224,
-291.1066,-266.4328,88.0432,88.5051,-45.0546,-125.5789,-203.0634,-13.4719,150.3521,74.8572,133.2905,-3.5891,-43.7193,246.3212,
-306.1066,-281.4328,77.3087,73.5051,-30.0546,-130.6246,-195.6702,-26.1249,135.3521,59.8572,118.2905,-11.1965,-33.5894,236.1908,
-321.1066,-296.4328,62.3087,69.8442,-15.0546,-119.9614,-210.6702,-11.1249,143.4209,44.8572,129.5585,-18.6604,-25.0583,245.7879,
-336.1066,-311.4328,59.7141,82.107,-21.3266,-120.4944,-217.5301,3.8751,152.4845,38.3877,144.5585,-5.3316,-20.26,260.7879,
-351.1066,-310.3005,65.0459,83.1731,-21.3266,-127.9589,-208.9996,-11.1249,137.4845,37.3211,130.0915,9.6684,-26.6579,248.4536,
-366.1066,-309.2337,54.3825,85.3059,-15.9945,-116.2294,-205.8006,-10.6632,140.755,41.5867,139.6884,10.6632,-22.3924,246.3212,
-381.1066,-324.2337,50.6502,91.1708,-30.9945,-121.0277,-207.4002,4.3368,155.755,56.5867,154.6884,-4.3368,-12.2628,261.3212,
-396.1066,-339.2337,44.2523,84.7729,-45.9945,-125.293,-207.4002,10.1301,159.4157,70.9105,146.6199,-10.1301,-16.5281,258.5835,
-411.1066,-337.4915,35.7218,78.375,-35.7218,-126.3596,-192.4002,1.5996,147.6859,55.9105,131.6199,-5.8649,-1.5996,243.5835,
-426.1066,-352.4915,20.7218,67.1785,-50.7218,-141.3596,-207.4002,-13.4004,145.02,68.2446,133.2908,3.199,-3.199,228.5835,
-441.1066,-367.4915,5.7218,69.3114,-65.7218,-136.4892,-222.4002,-14.9285,156.75,74.6428,148.2908,18.199,-2.1326,236.7241,
-456.1066,-366.8156,-5.3316,76.7751,-59.7141,-121.4892,-219.6628,0.071549,149.2853,59.6428,149.2853,33.199,-7.4642,247.387,
-467.05,-351.8156,-2.1324,88.5049,-44.7141,-117.2957,-204.6628,1.0663,159.9484,44.6428,134.3568,47.9848,-1.0663,243.1218,
-472.3814,-358.2846,-3.199,87.4388,-59.7141,-131.1576,-196.2033,3.199,174.9484,59.6428,145.0205,60.7806,-3.199,249.5202,
-482.512,-370.5479,-9.0638,91.1706,-74.7141,-146.1576,-196.7368,9.0638,183.941,66.6455,149.8188,45.7806,-13.3291,254.3185,
-473.981,-360.9508,-0.53329,92.2371,-59.7141,-132.7572,-181.7368,0.53329,174.3439,71.9768,140.2217,42.1199,-3.732,256.4511,
-480.3791,-359.8845,-5.8649,93.3035,-49.5842,-117.7572,-187.1399,-5.8649,170.0788,86.9768,141.288,57.1199,5.8649,252.1856,
-482.5118,-366.2824,-16.5281,82.6403,-64.5842,-119.9611,-202.1399,-7.9975,155.0788,90.1048,151.9512,72.1199,7.9975,237.1856,
-480.9124,-377.4788,-31.5281,67.6403,-63.9793,-134.3568,-208.9996,-9.5969,140.0788,87.4388,153.551,87.1199,9.5969,226.0607,
-495.9124,-379.6115,-46.5281,52.6403,-73.5764,-133.2908,-218.5967,-1.0663,155.0788,102.4388,158.8824,93.8367,1.0663,239.9231,
-510.9124,-375.3464,-59.7143,67.6403,-83.1733,-132.2244,-217.5304,6.3979,169.5453,113.0302,165.28,107.6989,-6.3979,247.3873,
-502.2385,-375.3459,-70.3775,52.6403,-68.1733,-117.2244,-204.7341,-8.5305,154.5453,103.4336,153.5508,115.1628,8.5305,232.4588,
-502.2385,-374.2799,-71.4436,37.6403,-76.7754,-117.2955,-204.7341,-6.3979,139.5453,88.4336,138.5508,113.0307,6.3979,228.1936,
-504.3717,-372.1472,-74.6428,39.454,-87.4386,-132.2955,-200.4693,4.2653,127.9587,90.6373,129.0252,128.0307,-4.2653,235.6575,
-492.6419,-357.2188,-89.6428,46.918,-72.4386,-117.2955,-196.204,-2.1326,134.3566,102.367,133.2905,143.0307,2.1326,233.5249,
-477.6419,-342.8231,-104.6428,46.3852,-57.4386,-102.2955,-195.6707,2.6659,138.0891,107.1656,135.9564,130.6246,-2.6659,234.0587,
-462.6419,-338.5578,-89.6428,49.5839,-62.3802,-107.1656,-182.8744,12.2625,139.1551,102.9003,139.1551,134.8898,-12.2625,231.9255,
-470.249,-344.4225,-104.6428,63.9796,-47.9846,-122.1656,-172.7445,0,141.821,87.9003,141.821,134.3571,0,231.3923,
-479.8459,-359.4225,-119.6428,48.9796,-32.9846,-108.7652,-179.1422,-9.5969,137.556,75.7091,139.6887,121.561,9.5969,237.7904,
-464.8459,-354.5529,-127.4259,33.9796,-17.9846,-93.7652,-177.5431,3.732,129.5585,86.9053,135.9564,129.5585,-5.4031,234.0582,
-449.8459,-339.5529,-112.4259,48.9796,-9.5971,-78.7652,-163.1479,4.2653,144.5585,101.9053,150.9564,144.5585,-4.2653,230.3262,
-434.8459,-324.5529,-124.2269,58.1147,-24.5971,-65.5792,-170.0788,-2.6657,159.5585,116.9053,165.9564,159.5585,2.6657,235.1245,
-449.8459,-319.3644,-139.2269,43.1147,-23.9925,-80.5792,-185.0788,12.3343,158.3491,109.2985,160.4817,148.752,-12.3343,242.5885,
-443.0583,-328.9615,-153.0178,28.1147,-20.7933,-95.5792,-191.4057,27.3343,147.6859,107.1653,147.6859,145.5533,-27.3343,237.2566,
-428.0583,-313.9615,-138.0178,43.1147,-35.7933,-80.5792,-176.4057,26.1252,157.283,122.1653,157.283,160.5533,-26.1252,234.0584,
-413.0583,-298.9615,-123.0178,58.1147,-20.7933,-65.5792,-161.4057,16.5281,166.8801,137.1653,172.283,175.5533,-17.5941,243.655,
-412.1343,-305.502,-138.0178,43.1147,-5.7933,-61.3134,-147.6859,1.5281,151.8801,122.1653,157.283,172.2115,-32.5941,228.655,
-416.9326,-313.4995,-153.0178,28.1147,9.2067,-76.3134,-157.8161,-8.5305,136.8801,107.1653,142.283,161.0153,-35.1887,221.7956,
-401.9326,-298.4995,-168.0178,25.0589,-4.7986,-71.9768,-145.553,4.7986,149.8188,99.7016,154.0841,171.1452,-20.1887,231.926,
-386.9326,-283.4995,-183.0178,15.995,-12.7958,-72.5101,-141.821,12.7958,148.219,99.1683,148.219,159.9487,-15.995,221.7956,
-387.0759,-281.5097,-198.0178,14.9282,-5.3316,-86.3723,-151.4184,5.3316,136.4895,104.4994,135.4229,161.015,-27.7245,206.7956,
-372.0759,-272.9792,-213.0178,22.3927,9.6684,-77.8417,-153.5505,-9.6684,139.6887,99.1681,132.2242,170.6121,-24.5253,197.2698,
-357.0759,-263.382,-226.0612,29.8572,7.4642,-62.8417,-141.8213,-7.4642,134.3568,101.3007,129.025,177.0095,-30.9237,208.9996,
-357.7518,-254.3182,-218.0634,14.8572,-4.7983,-54.9155,-138.0888,4.7983,119.9617,116.3007,128.4922,185.0078,-45.9237,199.9357,
-356.1522,-252.7191,-230.3262,-0.14285,8.5305,-56.5151,-153.0888,4.2653,111.9641,125.8265,120.4947,189.8061,-55.449,186.6069,
-343.3564,-253.7852,-245.3262,2.1326,23.5305,-62.913,-159.9487,-2.1326,103.4336,110.8265,109.8315,194.0709,-56.5151,186.6064,
-341.2238,-254.8518,-253.7852,4.2653,20.2603,-67.1783,-148.2189,-4.2653,104.4997,95.8265,118.362,179.0709,-54.3825,189.8056,
-346.5554,-249.5202,-238.7852,12.7956,5.2603,-62.9133,-142.8874,-1.0663,119.4997,94.9028,133.362,164.0709,-51.1835,197.2698,
-332.1599,-250.0532,-235.1247,21.8596,5.8646,-69.8442,-134.8898,-5.8646,129.5585,103.9664,143.4204,179.0709,-44.2526,208.4665,
-317.1599,-236.7238,-250.1247,13.8621,20.8646,-68.2446,-123.6936,-13.8621,114.5585,89.571,129.025,190.8719,-50.1175,199.4025,
-302.1599,-221.7238,-255.9181,3.199,35.8646,-57.5819,-126.8928,-3.199,102.3668,81.0404,118.3618,175.8719,-65.1175,184.4025,
-287.1599,-213.2651,-249.5199,-6.3979,44.7854,-72.5819,-126.8926,6.3979,97.0352,77.8415,107.6984,160.8719,-80.1175,173.8106,
-272.1599,-207.9333,-238.8567,0,36.2553,-73.5762,-111.8926,0,86.3725,77.842,97.0357,152.4842,-91.7038,163.1479,
-257.1599,-192.9333,-239.9231,7.4642,51.2553,-58.5762,-96.8926,-7.4642,92.7702,92.842,102.3673,167.4842,-87.4383,159.9484,
-242.589,-185.0073,-238.3237,3.7322,66.2553,-47.4515,-81.8926,-3.7322,107.7702,107.842,117.3673,182.4842,-82.6403,172.2115,
-237.7902,-187.673,-233.5249,6.3979,81.2553,-58.6477,-72.5101,-6.3979,105.5662,122.842,123.6939,197.4842,-73.5762,173.8106,
-222.7902,-187.6732,-234.5912,3.199,96.2553,-54.3827,-57.5101,-3.199,90.5662,107.842,108.6939,207.9335,-63.9793,170.6121,
-207.7902,-182.3416,-232.4588,-10.6632,111.2553,-39.3827,-42.5101,10.6632,75.5662,92.842,106.6323,204.7346,-62.9135,164.214,
-197.8031,-172.2115,-217.4588,-17.5941,126.2553,-29.3239,-28.2578,17.5941,71.9771,77.842,114.6298,189.7346,-57.0481,156.2165,
-187.6732,-163.1477,-217.5301,-7.4642,141.2553,-43.7195,-14.9287,7.4642,77.8417,92.842,105.566,180.2087,-58.648,146.0866,
-185.0073,-167.9462,-232.5301,-2.6657,156.2553,-51.7168,-7.9975,2.6657,62.8417,100.7674,90.566,192.4713,-61.3139,131.0866,
-183.941,-178.6091,-228.7268,-17.6657,171.2553,-36.7168,-3.732,3.732,53.8492,91.1706,87.9714,207.4713,-48.5178,119.9614,
-182.8749,-164.7473,-222.3289,-22.9262,186.2553,-30.3902,4.7986,-4.7986,65.5789,106.1706,92.2371,222.4713,-45.3186,124.2272,
-186.0739,-161.5483,-237.3289,-23.9925,201.2553,-42.1202,12.2628,-12.2628,50.5789,101.8335,77.2371,230.8587,-60.3186,112.4972,
-181.8083,-176.5483,-252.3289,-38.9925,216.2553,-34.6555,18.6604,-15.4617,35.5789,86.8335,62.2371,215.8587,-66.6455,100.7672,
-170.6116,-163.1477,-258.0502,-43.719,231.2553,-39.4538,30.9237,-23.4592,23.4592,101.8335,56.5154,230.8587,-57.5814,100.2341,
-156.2167,-148.1477,-248.9866,-33.5894,246.2553,-34.6555,45.9237,-16.5278,16.5278,116.8335,63.4463,245.8587,-45.3186,94.3693,
-144.487,-146.6196,-251.1193,-41.0534,261.2553,-27.191,60.9237,-2.6659,2.6659,111.4309,57.0484,252.1858,-43.186,83.7071,
-130.0913,-140.7545,-243.1215,-35.1882,276.2553,-28.7903,75.9237,-14.9285,14.9285,121.5613,49.0516,253.7857,-47.9846,81.0407,
-116.7624,-127.4261,-228.1215,-27.1912,291.2553,-17.5946,90.9237,-22.926,17.5946,111.4306,58.1142,263.9153,-36.7883,78.3745,
-117.2957,-117.2957,-218.5967,-18.1274,306.2553,-2.5946,105.9237,-11.7295,2.5946,96.4306,52.2501,248.9153,-24.5253,72.5104,
-123.1609,-114.6303,-233.5967,-18.6612,321.2553,2.6657,120.9237,-5.8649,-2.6657,93.3035,42.1192,252.1856,-23.9925,78.3745,
-119.9611,-121.0277,-242.5885,-33.5891,336.2553,0.53303,135.9237,-13.3288,-0.53303,100.7674,43.1868,263.9158,-23.992,71.9776,
-104.9611,-117.2955,-236.7236,-36.2548,351.2553,10.6632,141.8216,-19.1937,-10.6632,95.9696,47.9846,272.9789,-14.9285,57.5822,
-89.9611,-107.1653,-235.124,-32.5226,366.2553,14.3954,151.9512,-23.992,-19.7268,110.9696,45.3194,287.9789,-14.3954,66.6458,
-75.7093,-104.5002,-239.9233,-29.8569,381.2553,17.0611,166.9512,-29.8569,-17.0611,113.0302,39.4535,302.8363,-17.0611,75.7088,
-63.4465,-113.5637,-251.1195,-44.2528,396.2553,15.462,176.4762,-42.1197,-17.5941,98.0302,25.0586,287.8363,-15.462,60.7088,
-48.4465,-99.7014,-259.6501,-46.385,411.2553,16.5281,176.4762,-43.1868,-22.9265,107.1658,16.5281,302.8363,-16.5281,45.7088,
-33.4465,-84.7014,-253.7852,-31.385,426.2553,22.3929,191.4762,-28.1868,-22.3929,122.1658,22.3929,317.8363,-25.5921,53.3159,
-18.6607,-89.0382,-255.3848,-28.2573,441.2553,20.7938,205.2676,-42.1202,-37.3929,107.1658,18.6607,302.8363,-31.4565,38.921,
-6.3979,-91.7033,-261.2492,-43.2573,456.2553,8.5311,197.2701,-57.1202,-52.3929,92.1658,6.3979,287.8363,-25.5921,23.921,
5.8649,-77.3084,-260.7161,-55.9821,471.2553,-3.7317,203.1345,-64.5126,-61.3134,77.1658,3.7317,282.0425,-17.5946,8.921,
4.2648,-79.9746,-263.3823,-66.1117,486.2553,3.1987,215.3972,-79.5126,-66.1117,65.0456,-3.1987,286.8408,-28.7903,6.3979,
5.8649,-79.4406,-259.6496,-57.0481,501.2553,18.1987,220.1966,-94.5126,-68.7779,64.5126,-5.8649,286.3088,-27.1912,14.3954,
13.8624,-78.9075,-263.3818,-68.2449,516.2553,17.0616,214.3312,-109.5126,-73.5762,75.7093,-13.8624,285.7757,-18.1277,18.1277,
20.7933,-65.5792,-259.6501,-65.5792,531.2553,25.0586,227.6605,-109.298,-85.8395,78.375,-15.462,282.043,-17.5941,15.462,
29.8574,-50.5792,-245.2546,-52.2498,546.2553,40.0586,242.6605,-108.7654,-86.372,75.7093,-9.5971,296.4384,-12.7953,9.5971,
44.8574,-44.2528,-247.9203,-54.9155,557.1545,55.0586,234.0579,-123.7654,-75.1758,71.9766,-22.9255,309.7678,0.53303,-0.53303,
59.8574,-47.9846,-254.8512,-51.1838,542.1545,60.7804,231.3923,-138.7654,-77.8415,69.3109,-29.8564,307.1021,2.1326,-2.1326,
52.7829,-48.5186,-255.3853,-66.1838,541.159,71.9761,243.655,-139.1554,-92.2374,61.3134,-20.7938,295.9044,-5.8649,5.8649,
51.7168,-33.5886,-256.4509,-65.5787,548.6245,86.9761,251.1195,-129.5578,-89.0382,68.7779,-13.3283,302.3038,-5.8649,5.8649,
66.7168,-21.8599,-262.8493,-50.6507,537.9608,99.7009,248.9864,-123.1604,-76.2424,83.7779,-15.4615,317.3038,-5.8649,5.8649,
70.3775,-31.99,-267.6476,-65.0462,527.8307,90.6378,237.7902,-132.2244,-91.2424,78.908,-24.5256,322.0295,-8.5305,8.5305,
65.0456,-27.7243,-264.4484,-62.9135,532.0954,87.4381,228.193,-143.9537,-106.2424,63.908,-34.1227,307.0295,-5.3318,5.3318,
80.0456,-12.7243,-261.2492,-58.6482,539.5599,94.9025,235.6575,-142.8876,-99.1678,48.908,-34.1227,292.0295,-1.0666,1.0666,
95.0456,1.0666,-254.8518,-61.8475,543.8252,95.9686,248.4533,-134.3571,-101.301,63.908,-31.9895,292.1731,-1.0666,-3.1987,
110.0456,11.7298,-248.4533,-65.0451,550.2231,94.9031,251.6531,-141.821,-115.1623,62.913,-44.7859,307.1731,-11.7298,-12.7958,
125.0456,21.3269,-255.9178,-74.6423,541.693,92.7704,248.4533,-154.6174,-122.6273,47.913,-54.383,292.1731,-21.3269,-24.5251,
140.0456,36.3269,-262.8488,-82.6398,526.693,81.5737,238.3237,-161.5478,-137.6273,32.913,-69.383,277.1731,-29.3244,-39.5251,
155.0456,51.3269,-252.1856,-90.1042,531.5624,76.2424,246.8542,-165.8131,-152.6273,46.3855,-84.383,290.573,-44.3244,-52.7829,
170.0456,66.3269,-237.1856,-76.7749,546.5624,91.2424,261.8542,-163.1474,-164.2135,36.2553,-95.9691,295.3718,-57.5817,-37.7829,
185.0456,81.3269,-222.1856,-61.7749,556.0885,106.2424,258.5835,-158.3491,-149.2135,21.2553,-80.9691,280.3718,-44.2518,-22.7829,
200.0456,96.3269,-214.3312,-69.3109,541.0885,110.8976,253.7857,-165.28,-140.7545,21.3269,-75.7093,265.3718,-42.6532,-21.3269,
215.0456,111.3269,-218.5964,-76.7754,541.693,95.9696,259.117,-175.9437,-153.5503,29.8574,-89.5712,250.3718,-57.6532,-29.8574,
230.0456,126.3269,-207.9328,-65.0456,541.6931,110.9696,265.5144,-160.9437,-142.8876,14.9285,-77.8415,239.9228,-68.2449,-14.9285,
245.0456,141.3269,-192.9328,-50.1177,526.6931,125.9696,280.5144,-145.9437,-127.8876,3.1987,-62.8415,224.9228,-61.8475,-3.1987,
260.0456,156.3269,-191.4047,-42.1192,531.5634,134.8901,295.5144,-138.0883,-141.2875,10.1301,-77.8415,239.9228,-71.9771,-10.1301,
275.0456,171.3269,-198.8702,-50.6507,539.0269,128.4917,282.0425,-153.0883,-150.8851,17.5946,-85.839,254.9228,-70.911,-17.5946,
290.0456,186.3269,-196.2035,-54.3825,524.0269,118.3615,274.0455,-153.5508,-152.4847,21.3264,-81.0412,239.9228,-63.9791,-21.3264,
305.0456,190.8717,-201.5354,-69.3825,509.0269,103.3615,282.5755,-154.6174,-165.28,22.3929,-96.0412,224.9228,-72.5101,-22.3929,
320.0456,175.8717,-216.4633,-84.3825,494.0269,88.5051,267.5755,-166.3461,-159.9487,27.7243,-101.301,239.9228,-82.1067,-27.7243,
305.0456,160.8717,-231.4633,-83.1733,479.0269,89.5717,252.5755,-173.8111,-153.5508,24.5256,-86.301,243.1225,-74.6428,-24.5256,
290.0456,145.8717,-241.5224,-98.1733,464.0269,74.5717,237.5755,-185.0078,-164.7475,17.5941,-77.3089,228.1225,-70.9105,-17.5941,
275.0456,130.8717,-230.3262,-97.0357,449.0269,59.5717,231.3923,-185.5403,-164.214,13.8624,-87.4391,213.1225,-81.0407,-13.8624,
260.0456,119.4286,-224.9943,-84.2394,434.0269,70.3775,216.3923,-174.8772,-157.8161,7.4645,-72.4391,202.6019,-73.5757,-7.4645,
253.7847,105.5662,-234.5915,-92.7704,419.0269,73.5762,216.4633,-175.9437,-164.214,5.3318,-67.1788,207.9328,-58.5757,-5.3318,
244.1881,104.5002,-219.5915,-83.1738,404.0269,58.5762,202.6014,-173.8106,-161.0148,15.9945,-82.1788,222.9328,-55.449,-15.9945,
229.1881,94.3695,-204.5915,-91.1713,389.0269,43.5762,187.6014,-171.1454,-154.0843,28.2573,-91.1713,237.9328,-70.449,-28.2573,
214.1881,79.3695,-218.0634,-106.1713,374.0269,38.921,172.6014,-186.0734,-161.5478,23.992,-87.9721,242.589,-85.449,-23.992,
213.2646,73.5767,-203.668,-94.9031,359.0269,23.921,157.6014,-193.0053,-156.75,36.2553,-82.1072,240.9894,-79.9741,-22.3924,
198.2646,74.1092,-218.668,-79.9031,344.0269,19.7268,142.6014,-178.0053,-147.6859,51.2553,-78.3745,253.2516,-64.9741,-19.7268,
213.2646,69.3104,-233.668,-67.1783,329.0269,34.7268,142.8871,-163.0053,-142.8881,43.7188,-69.3114,259.1165,-49.9741,-12.7958,
228.2646,84.3104,-218.668,-52.1783,314.0269,49.7268,157.8871,-148.0053,-127.8881,58.7188,-54.3114,274.1165,-34.9741,2.2042,
213.2646,71.9776,-203.668,-37.1783,299.0269,46.385,172.8871,-133.0053,-112.8881,73.7188,-39.3114,289.1165,-32.5231,17.2042,
198.2646,62.3795,-218.668,-28.2583,284.0269,31.385,187.8871,-131.6909,-102.9011,79.4406,-39.987,274.1165,-17.5231,17.5936,
202.6019,72.5096,-203.668,-43.2583,269.0269,36.2553,202.8871,-116.6909,-93.837,73.5767,-31.99,259.1165,-10.6637,10.6637,
187.6019,57.5096,-218.668,-58.2583,254.0269,39.9876,217.8871,-123.1598,-100.7674,58.5767,-36.7873,244.1165,-7.9975,7.9975,
172.6019,42.5096,-233.668,-43.2583,239.0269,24.9876,232.8871,-108.1598,-85.7674,43.5767,-21.7873,229.1165,7.0025,22.9975,
157.6019,27.5096,-248.668,-30.3899,224.0269,9.9876,218.0639,-93.1598,-70.7674,50.6502,-6.7873,214.1165,22.0025,37.9975,
142.6019,12.5096,-233.668,-45.3899,209.0269,-5.0124,211.666,-78.1598,-55.7674,55.9821,8.2127,199.1165,37.0025,50.6507,
127.6019,-2.4904,-248.668,-43.1863,194.0269,-20.0124,226.666,-63.1598,-40.7674,55.9821,19.7268,184.1165,52.0025,42.1202,
112.6019,-6.9309,-244.7216,-28.1863,179.0269,-35.0124,241.666,-48.1598,-29.3244,52.7829,6.9309,169.1165,67.0025,33.5886,
97.6019,-21.9309,-259.7216,-43.1863,164.0269,-50.0124,256.666,-33.1598,-31.456,37.7829,0.53303,154.1165,82.0025,39.9876,
82.6019,-36.9309,-274.7216,-58.1863,149.0269,-61.3139,271.666,-18.1598,-30.3899,22.7829,-2.6662,139.1165,97.0025,33.5891,
83.7068,-35.7218,-270.3132,-43.1863,134.0269,-64.5126,286.666,-3.1598,-36.7878,28.2573,-5.8649,124.1165,112.0025,22.926,
98.7068,-29.3239,-277.7772,-33.5891,119.0269,-53.8494,301.666,-2.6662,-32.5231,33.5891,2.6662,109.1165,127.0025,35.7223,
103.4336,-26.6577,-269.7797,-25.5916,104.0269,-68.8494,316.666,7.4645,-30.923,18.5891,1.0661,94.1165,142.0025,40.5206,
109.8315,-23.459,-254.7797,-34.1227,89.0269,-83.1728,331.666,9.5971,-36.2548,21.3269,-9.5971,79.1165,157.0025,25.5206,
114.6298,-34.6557,-243.655,-43.1863,74.0269,-68.1728,346.666,5.8649,-29.3234,36.3269,-5.8649,94.1165,172.0025,11.1962,
99.6298,-49.5837,-258.655,-42.1192,59.0269,-60.2473,361.666,11.1962,-43.1863,21.3269,-11.1962,84.7729,187.0025,17.5946,
103.9661,-34.5837,-243.655,-27.1192,44.0269,-45.2473,376.666,26.1252,-28.1863,6.3269,3.8038,69.7729,202.0025,32.5946,
88.9661,-19.5837,-228.655,-20.2603,29.0269,-49.0511,391.666,11.1252,-18.1271,-5.3313,17.0611,54.7729,217.0025,28.7908,
73.9661,-34.5837,-235.1245,-28.2578,14.0269,-64.0511,406.666,-3.7322,-14.3959,9.6687,13.3288,47.451,232.0025,13.7908,
60.2473,-27.1912,-235.1245,-27.1912,-0.97312,-64.5126,421.666,-6.9309,-16.5275,14.3954,13.3294,48.5176,247.0025,6.9309,
75.2473,-12.1912,-234.591,-23.459,-15.9731,-49.5126,406.666,-13.8624,-29.8564,8.5311,-1.0666,62.9135,262.0025,21.3269,
68.7774,-14.3959,-246.8542,-27.1917,-30.9731,-46.385,391.666,1.1376,-35.7223,20.7933,-4.7983,77.9135,277.0025,28.2578,
60.7804,-24.5261,-251.6531,-23.459,-45.9731,-60.7804,376.666,2.1326,-34.1227,27.7243,-2.1326,63.9796,292.0025,13.2578,
73.5757,-9.5261,-238.8567,-14.929,-60.9731,-45.7804,361.666,-12.8674,-27.7248,28.7908,3.1992,67.1783,277.0025,3.1992,
83.1733,5.4739,-245.2546,-27.7248,-75.9731,-30.7804,346.666,-14.929,-37.3214,27.7238,-7.4645,82.1783,262.0025,18.1992,
95.4361,9.0636,-256.4509,-39.9865,-90.9731,-15.7804,331.666,-9.0636,-51.7163,42.7238,-17.5941,97.1783,247.0025,18.6612,
100.7679,2.6657,-259.6496,-52.7829,-75.9731,-15.4615,316.666,-24.0636,-58.1142,43.1863,-18.6607,112.1783,232.0025,3.6612,
105.5662,10.6632,-249.5199,-46.9185,-60.9731,-0.46148,301.666,-34.1227,-49.0506,29.8574,-11.7292,119.4281,217.0025,-6.3979,
120.5662,19.7273,-250.0529,-60.2479,-45.9731,14.5385,286.666,-30.3899,-59.1808,31.457,-17.5941,132.7575,202.0025,-17.5941,
135.5662,21.3264,-254.8518,-75.2479,-30.9731,26.6577,271.666,-37.3214,-74.1808,46.457,-29.8569,147.7575,187.0025,-21.3264,
143.4201,20.7933,-263.9158,-85.8395,-15.9731,32.5221,256.666,-52.3214,-89.1808,47.451,-44.8569,162.7575,172.0025,-20.7933,
156.75,23.4595,-260.1831,-89.5707,-0.97312,36.2553,241.666,-63.9791,-87.4386,53.3164,-41.5867,177.7575,157.0025,-23.4595,
161.5478,19.7268,-260.7161,-104.5707,14.0269,26.1252,226.666,-70.911,-97.5687,50.6507,-41.0531,192.7575,142.0025,-19.7268,
146.5478,9.5971,-275.1115,-119.5707,29.0269,22.3929,211.666,-81.0407,-112.5687,35.6507,-49.0506,207.7575,127.0025,-9.5971,
148.7525,12.2628,-277.7772,-119.9617,44.0269,36.7883,196.666,-93.3029,-111.4301,42.1197,-51.7163,210.5994,112.0025,-12.2628,
163.7525,27.2628,-274.0455,-111.9641,59.0269,44.7859,181.666,-102.3675,-107.6989,49.0511,-62.913,225.5994,97.0025,-27.2628,
175.9432,33.0561,-268.7136,-126.9641,74.0269,54.3825,166.666,-105.5657,-122.6989,46.918,-77.913,240.5994,82.0025,-33.0561,
178.0759,35.1887,-264.4484,-133.29,89.0269,67.1788,166.3471,-116.2289,-130.0918,50.1177,-79.9746,231.3923,67.0025,-35.1887,
180.2085,37.3214,-267.6476,-133.2905,104.0269,63.9791,181.3471,-131.2289,-126.8931,43.7188,-78.908,216.3923,52.0025,-37.3214,
187.6735,33.0566,-271.9123,-148.2905,119.0269,61.8475,190.8727,-139.6884,-141.8931,31.9895,-91.7033,201.3923,37.0025,-31.9895,
196.2035,29.8569,-277.2442,-151.4177,134.0269,68.2443,203.668,-135.4236,-156.8931,30.923,-97.0352,203.668,22.0025,-29.8569,
195.1374,26.6577,-278.3108,-150.3516,149.0269,61.8469,214.3307,-134.3566,-145.0203,39.4535,-82.1072,207.9333,7.0025,-26.6577,
188.739,25.5916,-282.5765,-155.6839,164.0269,46.8469,217.5299,-146.0863,-139.6889,40.5196,-81.0412,201.5348,-7.9975,-25.5916,
195.1374,24.5256,-284.7087,-153.5508,179.0269,37.3214,230.3257,-154.6169,-142.8871,34.1222,-88.5046,198.3367,-22.9975,-24.5256,
198.3356,25.5916,-286.8418,-163.1484,194.0269,34.1222,239.9223,-145.0203,-145.0203,39.4535,-82.1072,213.3367,-37.9975,-25.5916,
193.0043,28.7908,-290.04,-171.6779,209.0269,36.2553,236.7241,-139.6889,-160.0203,35.1882,-89.5717,228.3367,-52.9975,-28.7908,
201.5348,21.3264,-286.8413,-186.6779,224.0269,45.8519,239.9233,-151.4187,-173.8111,21.3264,-104.5717,221.7951,-67.9975,-21.3264,
213.7976,16.5281,-285.2417,-201.6779,239.0269,51.7163,237.2571,-158.3491,-175.4102,26.1247,-118.8956,221.2621,-82.9975,-16.5281,
214.8637,28.2578,-294.8388,-211.6655,254.0269,50.6502,246.8537,-143.4212,-185.0078,41.1247,-125.293,236.2621,-81.5742,-28.2578,
215.9308,30.3899,-286.3083,-197.8036,269.0269,35.6502,246.8537,-147.6854,-180.7415,37.8544,-118.8956,246.8537,-93.3029,-30.3899,
224.9943,40.5206,-271.3083,-182.8036,284.0269,24.5256,254.8523,-143.9532,-167.4127,37.3214,-104.4997,239.9233,-97.0352,-24.5256,
235.658,53.3164,-256.3083,-167.8036,299.0269,17.0611,264.4489,-137.5558,-153.5508,38.3885,-89.5707,234.592,-99.1683,-17.0611,
245.7882,64.5126,-241.3083,-152.8036,314.0269,9.0641,273.5119,-132.758,-140.2214,39.987,-74.5707,228.7261,-101.834,-9.0641,
256.4509,76.2424,-226.3083,-137.8036,329.0269,1.5996,283.1085,-127.4256,-126.3596,41.0531,-59.5707,223.3947,-103.9671,-1.5996,
267.6476,90.6373,-211.3083,-122.8036,344.0269,-6.3979,293.2392,-121.5613,-111.3596,42.6522,-44.5707,217.5294,-106.6323,6.3979,
282.6476,105.6373,-196.3083,-107.8036,341.7563,8.6021,278.2392,-112.4977,-108.2324,52.7829,-37.8549,226.594,-105.0332,-8.6021,
297.6476,93.836,-181.3083,-92.8036,326.7563,15.995,263.2392,-122.6278,-113.0302,61.8469,-50.1172,241.594,-113.0302,-23.6021,
282.6476,88.5051,-196.3083,-77.8036,311.7563,14.9285,248.2392,-107.6278,-98.0302,62.9135,-35.1172,226.594,-106.6323,-14.9285,
267.6476,103.5051,-211.3083,-62.8036,296.7563,3.7322,233.2392,-93.3029,-90.1037,47.9135,-25.0586,211.594,-108.2319,-23.9915,
282.6476,118.5051,-196.3083,-47.8036,281.7563,15.462,218.2392,-92.2369,-78.375,49.5842,-15.462,196.594,-121.0277,-17.5941,
297.6476,106.0993,-181.3083,-32.8036,266.7563,0.46199,203.2392,-89.0382,-63.375,53.8499,-0.46199,181.594,-136.0277,-12.2623,
282.6476,91.0993,-196.3083,-17.8036,251.7563,-14.538,188.2392,-74.0382,-48.375,42.6527,14.538,166.594,-151.0277,-15.995,
269.2467,106.0993,-196.737,-2.8036,236.7563,-10.1301,173.2392,-59.0382,-42.1202,33.5886,5.8649,151.594,-136.0277,-5.8649,
254.2467,91.0993,-211.737,12.1964,221.7563,-12.7953,158.2392,-60.7804,-55.449,18.5886,-9.1351,136.594,-121.0277,9.1351,
239.2467,76.0993,-226.737,-2.8036,206.7563,-7.4645,143.2392,-45.7804,-41.5867,26.6587,5.8649,121.594,-106.0277,24.1351,
224.2467,61.0993,-241.737,-11.1962,191.7563,-19.7278,128.4917,-30.7804,-42.1202,27.1912,2.6657,106.594,-91.0277,18.6607,
209.2467,46.0993,-255.3848,-22.926,176.7563,-34.7278,143.4917,-15.7804,-57.1202,12.1912,-12.3343,91.594,-76.0277,3.7317,
194.2467,31.0993,-270.3848,-37.926,161.7563,-49.7278,158.4917,-0.78037,-72.1202,1.5996,-27.3343,76.594,-61.0277,-1.5996,
209.2467,16.0993,-270.3127,-22.926,146.7563,-63.446,173.4917,14.2196,-57.1202,16.5996,-23.9915,70.9105,-46.0277,4.7983,
224.2467,1.0993,-255.3127,-34.1222,131.7563,-53.3164,188.4917,29.2196,-42.6527,23.4595,-17.0611,55.9105,-31.0277,17.0611,
209.2467,2.6657,-251.1195,-30.3904,116.7563,-38.921,203.4917,44.2196,-34.6557,8.4595,-7.998,40.9105,-16.0277,31.4565,
224.2467,17.6657,-236.1195,-15.9945,101.7563,-52.2498,218.4917,59.2196,-42.6532,-1.0666,-22.998,34.1227,-1.0277,16.4565,
237.2576,6.9309,-221.1195,-30.3904,86.7563,-67.2498,233.4917,74.2196,-48.5176,2.6657,-28.2573,20.7938,13.9723,1.4565,
222.2576,0.53303,-209.5324,-21.8594,71.7563,-62.38,248.4917,89.2196,-33.5176,7.9975,-13.2573,5.7938,28.9723,16.4565,
207.2576,-3.7322,-221.2621,-26.1247,56.7563,-77.38,263.4917,96.5022,-35.7213,3.7322,-11.1967,3.7322,43.9723,28.2578,
192.2576,-8.5305,-236.2621,-20.2603,41.7563,-79.9741,278.4917,90.6378,-30.924,17.0611,-10.6637,18.7322,58.9723,13.2578,
188.2055,-23.5305,-251.2621,-18.6607,26.7563,-64.9741,293.4917,96.5016,-32.5236,32.0611,-5.8649,32.5226,73.9723,5.8649,
203.2055,-38.5305,-243.655,-17.5941,11.7563,-64.5121,308.4917,98.6353,-36.7883,47.0611,-13.3288,47.5226,88.9723,13.3288,
218.2055,-36.7878,-248.9869,-10.1301,-3.2437,-79.5121,323.4917,99.7009,-41.0531,32.0611,-16.5286,32.5226,103.9723,10.1301,
233.2055,-21.7878,-233.9869,-15.462,-18.2437,-64.5121,338.4917,111.4311,-28.2578,17.0611,-1.5286,17.5226,118.9723,11.1967,
248.2055,-6.7878,-218.9869,-30.462,-33.2437,-49.5121,353.4917,98.1018,-28.7903,12.7963,-12.7953,20.2598,133.9723,-1.0666,
263.2055,-0.53303,-203.9869,-15.462,-48.2437,-64.5121,368.4917,98.6353,-23.9925,27.7963,-21.8594,33.5891,148.9723,0.53303,
278.2055,-7.9975,-218.9869,-3.7322,-63.2437,-76.2419,383.4917,102.9006,-22.9255,27.1917,-19.7262,32.5231,163.9723,3.7322,
288.4409,-0.53354,-213.7981,-18.6607,-78.2437,-61.2419,375.8795,95.4366,-37.8539,20.7938,-28.2573,35.7218,178.9723,0.53354,
290.573,-5.8649,-199.9363,-26.1252,-93.2437,-46.2419,360.8795,87.9711,-33.5896,23.992,-32.5236,34.6547,193.9723,5.8649,
300.1701,-6.9314,-196.7371,-16.5281,-108.2437,-38.9205,345.8795,101.8335,-27.1917,33.5891,-27.1917,41.0536,208.9723,6.9314,
309.7673,7.997,-181.7371,-27.1912,-123.2437,-23.9205,330.8795,101.834,-42.1917,44.2523,-29.3244,56.0536,223.9723,-7.997,
299.1036,2.6657,-195.6705,-42.1912,-138.2437,-33.5896,315.8795,86.834,-47.4515,42.1202,-31.4565,63.4466,238.9723,-2.6657,
284.1036,-12.3343,-210.6705,-44.2528,-153.2437,-48.5896,300.8795,97.5682,-38.9215,43.1857,-30.3909,48.4466,253.9723,12.3343,
282.0435,-27.1912,-225.6705,-44.2523,-168.2437,-57.0481,285.8795,101.834,-38.921,46.3855,-22.926,57.0481,268.9723,22.926,
297.0435,-22.3924,-231.3923,-59.2523,-183.2437,-42.0481,270.8795,86.834,-52.2493,49.0511,-15.995,72.0481,283.9723,15.995,
312.0435,-22.9265,-237.2576,-74.2523,-198.2437,-27.0481,255.8795,78.374,-54.9165,44.2518,-27.1917,81.5732,298.9723,20.7933,
327.0435,-23.459,-228.1936,-89.2523,-183.2437,-25.5921,240.8795,84.2399,-46.9185,50.1167,-42.1917,88.5051,283.9723,23.459,
342.0435,-29.8569,-243.1936,-104.2523,-168.2437,-11.7298,225.8795,69.2399,-61.8469,46.918,-56.5146,86.3725,268.9723,11.7298,
344.4225,-37.3219,-258.1936,-119.2523,-153.2437,-7.464,210.8795,54.2399,-76.7754,35.1887,-59.7143,84.2399,253.9723,10.6632,
354.5526,-22.3219,-253.2522,-125.293,-138.2437,7.536,195.8795,65.5792,-61.7754,50.1887,-44.7143,99.2399,238.9723,25.6632,
339.5526,-7.3219,-238.2522,-110.293,-123.2437,-0.53303,180.8795,77.3079,-46.7754,58.1147,-29.7143,109.298,223.9723,20.7933,
329.495,7.6781,-223.2522,-95.293,-108.2437,-6.3974,165.8795,62.3079,-31.7754,62.913,-14.7143,94.298,208.9723,31.99,
314.495,21.8594,-220.196,-80.293,-93.2437,-21.3974,150.8795,47.3079,-16.7754,47.913,0.28569,79.298,193.9723,17.5941,
299.495,9.5976,-235.196,-65.293,-78.2437,-36.3974,135.8795,32.3079,-20.2603,32.913,3.1992,64.298,178.9723,2.5941,
284.495,-3.7322,-229.7927,-50.293,-63.2437,-51.3974,120.8795,17.3079,-9.0636,45.3189,11.1967,49.298,163.9723,3.7322,
269.495,-7.464,-228.1936,-35.293,-48.2437,-63.9796,105.8795,2.3079,-10.6632,41.5861,6.3979,46.9185,148.9723,13.8624,
254.495,-5.8649,-231.9253,-20.293,-33.2437,-71.9766,90.8795,5.8649,-16.5275,36.7889,15.4615,35.7218,133.9723,19.7278,
239.495,-20.8649,-243.122,-13.8624,-18.2437,-75.7093,75.8795,3.1987,-3.1987,26.6582,25.5921,20.7218,118.9723,17.0606,
224.495,-35.8649,-250.0535,-9.0636,-3.2437,-80.5076,60.8795,-11.8013,9.0636,19.7273,18.6602,13.3288,103.9723,11.1957,
209.495,-46.918,-238.8567,-9.5966,11.7563,-67.1783,45.8795,-15.995,11.7298,34.7273,18.1272,28.3288,88.9723,9.5966,
205.2676,-31.918,-232.9919,-9.0641,26.7563,-52.1783,30.8795,-0.99502,0.53354,43.1863,19.7268,39.987,73.9723,-0.53354,
220.2676,-16.918,-217.9919,-2.6657,41.7563,-37.1783,15.8795,-4.7988,1.5996,52.7829,34.7268,54.987,58.9723,14.4665,
230.8592,-1.918,-214.8647,-7.998,56.7563,-22.1783,0.87947,-19.7988,-13.4004,55.9821,22.926,69.987,43.9723,23.992,
215.8592,13.082,-229.8647,-17.0616,71.7563,-7.1783,-14.1205,-7.464,-28.4004,55.449,7.926,84.987,28.9723,9.5971,
208.4663,28.082,-244.7216,-31.457,86.7563,0.53303,-29.1205,-6.9314,-27.1917,60.2468,0.53303,90.1037,13.9723,-0.53303,
223.4663,43.082,-236.1906,-23.992,101.7563,-4.7988,-44.1205,-21.9314,-27.1912,71.9771,4.7988,91.1703,-1.0277,4.7988,
221.7956,58.082,-236.7241,-26.6582,116.7563,-2.1326,-59.1205,-36.9314,-33.0556,68.2449,9.5971,106.1703,-16.0277,2.1326,
208.9993,73.082,-246.3207,-31.99,131.7563,12.7958,-53.3164,-50.1172,-23.4595,62.913,13.8619,121.1703,-31.0277,-12.7958,
216.9973,88.082,-247.9203,-25.0591,146.7563,23.992,-38.3164,-42.1202,-18.6607,77.913,13.3294,136.1703,-46.0277,-13.3294,
217.5299,89.5707,-249.5199,-31.99,161.7563,19.1942,-23.3164,-49.0511,-33.6607,90.6378,3.1992,151.1703,-61.0277,-3.1992,
206.8667,97.0357,-249.5199,-28.7903,176.7563,19.1937,-8.3164,-55.449,-42.6532,87.4381,-1.0666,152.4842,-76.0277,1.0666,
191.8667,87.9721,-253.2522,-35.7218,191.7563,22.926,5.8649,-61.3134,-41.0531,77.3084,-5.8649,137.4842,-91.0277,-12.2623,
177.5428,72.9721,-267.1145,-50.6507,206.7563,19.7268,9.0641,-68.7779,-48.5176,82.6398,-9.0641,137.0222,-106.0277,-14.3954,
180.7425,69.8445,-274.578,-47.451,221.7563,16.5281,12.2628,-77.3079,-58.1147,84.7734,-16.5281,145.5533,-121.0277,-12.2628,
195.7425,79.4416,-263.9148,-51.7158,236.7563,25.0591,22.926,-87.9711,-59.1803,77.3094,-22.926,141.2885,-136.0277,-22.926,
208.4663,82.6403,-258.5835,-61.3139,251.7563,25.0586,29.3239,-102.9006,-71.9766,62.3094,-25.0586,135.9567,-151.0277,-32.5231,
212.7316,80.5071,-259.6501,-63.446,266.7563,26.1247,34.6552,-103.9666,-84.7724,58.1147,-30.3899,145.5533,-166.0277,-26.1247,
227.6605,87.9716,-259.6501,-68.7774,281.7563,28.2578,32.5231,-103.9666,-93.3029,67.7113,-44.2518,135.9567,-181.0277,-28.2578,
233.5249,102.9716,-253.7852,-63.9791,296.7563,30.923,34.1222,-100.2344,-91.7038,72.5096,-39.4535,137.5558,-166.0277,-30.923,
224.9949,93.8365,-250.586,-71.4441,311.7563,26.6582,49.1222,-103.4331,-89.5712,67.1788,-26.6582,152.5558,-151.0277,-26.6582,
239.9949,88.5051,-244.1886,-71.4441,326.7563,22.3929,64.1222,-109.8315,-92.7704,69.3109,-30.9235,167.5558,-155.6834,-22.3929,
254.9949,103.5051,-241.5224,-62.38,341.7563,19.7273,64.5121,-115.6964,-91.1708,76.2419,-36.7883,180.7415,-158.3491,-19.7273,
269.9949,118.5051,-242.5885,-67.7113,356.7563,23.9925,57.0486,-119.9617,-85.8385,73.0437,-32.5231,180.7425,-151.9507,-23.9925,
284.9949,133.5051,-237.7902,-70.377,371.7563,23.459,72.0486,-123.6934,-98.1018,58.0437,-38.3869,165.7425,-138.6213,-23.459,
299.9949,139.6879,-242.0559,-83.1733,386.7563,15.995,78.908,-126.8931,-113.1018,44.7848,-51.1843,161.0143,-140.755,-15.995,
314.9949,154.6879,-243.655,-79.4406,401.7563,18.6607,65.5797,-118.8951,-111.4306,52.7839,-51.7168,176.0143,-151.9512,-18.6607,
329.9949,164.747,-235.1245,-71.9771,416.7563,26.1252,71.9771,-115.6969,-96.4306,54.916,-48.5176,177.5428,-147.6859,-26.1252,
344.9949,162.0808,-239.9228,-86.9771,431.7563,25.5921,75.7093,-129.0257,-92.7704,41.5861,-52.2498,166.3461,-146.0868,-25.5921,
359.9949,164.2145,-237.7902,-84.2394,446.7563,21.3264,73.5767,-135.4226,-105.5657,49.0511,-45.8519,152.4847,-153.5508,-21.3264,
374.9949,165.28,-222.8617,-69.3109,461.7563,13.8624,86.372,-126.8926,-95.9686,64.0511,-30.8519,158.8826,-148.2189,-13.8624,
389.9949,162.6144,-235.1245,-64.5121,469.716,14.3949,87.9716,-116.7624,-89.0377,79.0511,-27.1917,173.8826,-143.4201,-14.3949,
404.9949,162.6144,-250.1245,-71.9766,466.5168,21.8594,75.1758,-126.3601,-96.5022,69.8445,-28.2578,188.8826,-145.5533,-21.8594,
419.9949,170.6119,-235.1245,-74.6428,451.5168,15.995,63.9801,-130.0913,-98.1012,73.5767,-39.4535,203.8826,-155.6829,-15.995,
434.9949,185.0073,-220.1245,-59.6428,436.5168,10.1301,70.911,-116.763,-93.3035,81.5737,-47.4515,205.2676,-156.2165,-10.1301,
449.9949,181.2756,-205.1245,-53.3164,421.5168,13.8619,85.3054,-122.6278,-88.5046,74.6428,-32.4515,190.2676,-141.2165,-13.8619,
464.9949,180.2085,-190.1245,-61.8469,432.9276,17.0611,94.9031,-135.4236,-86.3725,70.3775,-17.4515,175.2676,-126.2165,-20.2603,
479.9949,190.3386,-175.1245,-46.8469,417.9276,11.1962,100.7679,-120.4236,-89.0382,83.7068,-25.0581,190.2676,-141.2165,-11.1962,
494.9949,186.6064,-160.1245,-36.2548,402.9276,-3.8038,86.372,-105.4236,-85.3059,89.5712,-20.2598,205.2676,-138.6223,3.8038,
509.9949,189.2726,-175.1245,-51.2548,387.9276,-2.6657,71.372,-119.9611,-83.7068,80.5076,-15.4615,190.2676,-123.6223,2.6657,
524.9949,179.1424,-190.1245,-63.9791,372.9276,11.7298,56.372,-127.9592,-79.9741,89.5717,-17.0611,187.673,-108.6223,-11.7298,
539.9949,186.6069,-175.1245,-48.9791,357.9276,-3.1992,71.372,-112.9592,-64.9741,104.5717,-2.0611,202.673,-123.6223,3.1992,
554.9949,201.6069,-160.1245,-33.9791,342.9276,-7.4645,78.908,-97.9592,-62.913,111.9641,9.5976,207.9333,-124.76,7.4645,
569.9949,198.3367,-149.2855,-40.5196,327.9276,7.5355,63.908,-88.5046,-62.913,96.9641,-3.1992,192.9333,-109.76,3.1992,
584.9949,183.3367,-146.0868,-34.1227,312.9276,22.5355,48.908,-73.5046,-52.2498,85.3059,-3.1987,180.209,-106.6323,11.7292,
599.9949,168.3367,-161.0868,-34.6552,297.9276,33.5891,42.1197,-58.5046,-62.38,78.375,-7.9975,169.0128,-121.6323,7.9975,
590.7442,153.3367,-176.0868,-49.6552,282.9276,46.9185,57.1197,-43.5046,-72.5101,69.3119,-2.1326,154.0128,-106.6323,2.1326,
593.4088,138.3367,-191.0868,-55.9826,267.9276,31.9185,72.1197,-28.5046,-66.6452,62.38,-3.7322,139.0128,-91.6323,0.53303,
600.3403,123.6939,-206.0868,-40.9826,252.9276,16.9185,87.1197,-13.5046,-51.6452,58.6477,-4.2653,124.0128,-76.6323,4.2653,
585.3403,108.6939,-221.0868,-42.1192,237.9276,1.9185,102.1197,1.4954,-38.921,43.6477,-1.5996,109.0128,-61.6323,1.5996,
570.3403,93.6939,-236.0868,-57.1192,222.9276,-13.0815,117.1197,16.4954,-53.8494,28.6477,-13.3288,94.0128,-46.6323,-7.9975,
564.086,78.6939,-221.0868,-72.1192,207.9276,-28.0815,132.1197,29.8569,-68.8494,25.5916,-28.3288,79.0128,-31.6323,-22.9975,
549.086,69.3109,-206.0868,-57.1192,192.9276,-43.0815,147.1197,35.1887,-60.7804,31.9895,-33.0556,64.0128,-16.6323,-22.3929,
534.086,54.3109,-221.0868,-42.1192,177.9276,-58.0815,162.1197,50.1887,-45.7804,27.7243,-18.0556,49.0128,-1.6323,-7.3929,
549.086,41.0536,-236.0868,-27.1192,162.9276,-66.6452,177.1197,61.3139,-30.7804,21.8594,-6.9314,34.0128,13.3677,4.7983,
564.086,56.0536,-245.2546,-33.0556,147.9276,-51.6452,192.1197,55.449,-44.7854,26.6582,-19.1937,19.0128,28.3677,-9.5971,
579.086,57.5817,-230.2546,-37.3214,132.9276,-43.7188,207.1197,70.449,-29.7854,36.2553,-7.4645,4.0128,43.3677,5.4029,
564.086,54.916,-244.7216,-22.3214,117.9276,-58.7188,222.1197,85.449,-14.7854,30.3904,-7.998,-10.9872,58.3677,3.7317,
549.6906,54.916,-243.655,-20.7928,102.9276,-70.91,237.1197,70.449,-19.7268,38.921,-2.6657,2.6657,73.3677,-11.2683,
552.3562,43.7198,-233.5249,-26.6577,87.9276,-76.7749,222.1197,57.5817,-24.5256,36.2553,-6.3974,5.3313,88.3677,-5.3313,
537.3562,33.5886,-240.4563,-30.3904,72.9276,-69.845,207.1197,72.5817,-10.1301,34.6557,-14.3954,-9.6687,103.3677,9.6687,
540.6265,43.7188,-225.4563,-34.1222,57.9276,-57.5817,222.1197,87.5817,-20.2603,43.7188,-15.995,5.3313,118.3677,-5.3313,
555.6265,58.7188,-210.4563,-19.1222,42.9276,-58.1147,237.1197,94.37,-31.456,32.5231,-16.5281,16.5281,133.3677,-20.3313,
540.6265,49.0506,-207.9333,-8.5311,27.9276,-51.1838,222.1197,79.37,-16.456,18.1277,-2.1326,1.5281,148.3677,-5.3313,
525.6265,34.0506,-222.9333,-23.5311,12.9276,-53.3159,207.1197,70.378,-6.3979,13.8624,-2.1326,-13.4719,163.3677,2.1326,
540.6265,49.0506,-207.9333,-9.0636,-2.0724,-44.2528,192.4713,85.378,-1.6001,14.3949,0.53303,-28.4719,178.3677,-0.53303,
540.6265,64.0506,-202.6009,0,-17.0724,-54.3825,177.4713,98.1023,-4.2653,-0.60509,0,-43.4719,193.3677,1.0671,
525.6265,57.5807,-215.3982,-7.4645,-32.0724,-45.8529,162.4713,83.1023,-2.1331,12.7958,0,-29.8579,208.3677,0,
510.6265,61.3134,-200.3982,-11.1962,-47.0724,-33.5886,147.4713,86.9061,-4.7988,27.7958,4.7988,-15.4615,223.3677,-9.0641,
495.6265,67.7113,-195.671,3.7322,-62.0724,-48.5886,132.4713,101.8335,-19.7988,12.7958,-3.7322,-30.4615,238.3677,-12.2628,
480.6265,71.9776,-210.671,18.6612,-77.0724,-62.38,117.4713,86.8335,-20.7933,-2.2042,-0.53303,-33.5891,253.3677,0.53303,
465.6265,65.5792,-219.1295,3.6612,-92.0724,-47.38,102.4713,71.8335,-16.5281,7.9975,4.7983,-34.6552,268.3677,6.9314,
450.6265,74.6433,-204.1295,-3.1987,-107.0724,-32.38,87.4713,67.1788,-17.0606,21.3269,3.1987,-35.1887,253.3677,4.2658,
435.6265,83.1733,-205.8001,10.6637,-122.0724,-30.923,72.4713,82.1788,-5.3313,35.1893,0,-20.1887,238.3677,0,
420.6265,69.3114,-217.5299,0,-137.0724,-45.923,57.4713,67.1788,0,37.3214,0,-5.1887,223.3677,-3.1982,
405.6265,58.1142,-225.5279,-10.1301,-152.0724,-35.7218,42.4713,52.1788,-5.8649,29.3234,5.8649,-10.1301,208.3677,5.8649,
390.6265,73.1142,-212.7321,-10.1307,-167.0724,-20.7218,27.4713,44.2518,-5.8654,33.5891,-0.53303,4.8699,193.3677,0.53303,
375.6265,88.1142,-201.5348,2.1326,-182.0724,-5.7218,12.4713,59.2518,-8.53,35.1887,-8.53,19.8699,178.3677,-11.7292,
360.6265,84.2394,-216.5348,-4.2653,-167.0724,-11.7297,-2.5287,56.5156,-12.7958,20.1887,2.1331,4.8699,163.3677,1.0661,
345.6265,69.2394,-231.5348,-3.1992,-154.6169,-22.3924,-17.5287,41.5156,2.2042,5.1887,17.1331,-10.1301,148.3677,14.929,
330.6265,55.9816,-228.7266,3.7322,-139.6169,-31.457,-32.5287,26.5156,13.3288,15.462,6.9304,-25.1301,133.3677,-0.071043,
315.6265,65.5792,-213.7266,4.7983,-124.6169,-22.9255,-47.5287,41.5156,7.9975,30.462,4.7983,-10.1301,118.3677,-4.7983,
300.6265,59.7143,-208.9993,11.7303,-117.2955,-20.2598,-62.5287,40.5201,-2.1326,24.5261,8.5311,-2.1326,103.3677,2.1326,
285.6265,64.5131,-219.1295,16.5281,-102.2955,-10.1296,-77.5287,26.1257,-7.9975,12.2628,12.2628,-14.3949,88.3677,7.9975,
270.6265,78.9075,-204.1295,8.53,-87.2955,-6.3979,-92.5287,35.1887,-14.9285,12.7953,7.464,-11.7303,73.3677,6.3979,
270.3127,86.905,-189.1295,15.4615,-72.2955,-13.3294,-107.5287,45.3184,-11.1962,16.5275,-0.53354,2.6657,58.3677,0.53354,
261.7827,84.7724,-182.8752,12.2628,-57.2955,-0.53303,-122.5287,33.5891,-0.53303,25.0586,0.53303,15.461,43.3677,-3.7322,
246.7827,81.5737,-191.4052,3.7317,-42.2955,2.6657,-137.5287,20.7928,-13.3294,23.992,-2.6657,11.1962,28.3677,-18.6607,
244.7221,82.6408,-197.8031,6.9309,-27.2955,-6.9309,-152.5287,19.7268,-19.7268,16.5286,-9.0631,16.5286,13.3677,-26.1252,
235.657,83.1733,-199.4032,0,-12.2955,0,-167.5287,23.4585,-15.995,20.2593,-6.3984,31.5286,-1.6323,-20.2603,
220.657,86.3725,-196.2035,-14.929,2.7045,7.4645,-182.5287,19.1942,-30.995,21.3264,-7.4645,27.7248,-16.6323,-31.99,
205.657,77.842,-198.3361,-18.1272,17.7045,-4.2653,-197.5287,19.1942,-33.0561,23.4595,4.2653,12.7248,-31.6323,-30.923,
190.657,62.842,-213.3361,-12.2628,32.7045,-19.2653,-212.5287,15.461,-18.0561,36.7883,12.2628,13.3288,-46.6323,-17.5941,
175.657,77.3089,-223.3947,-6.9314,47.7045,-23.9925,-227.5287,23.9925,-22.9255,41.0536,6.9314,28.3288,-61.6323,-16.5281,
160.657,92.3089,-208.3947,-16.5281,62.7045,-8.9925,-242.5287,28.2578,-37.9255,26.0536,-8.0686,43.3288,-76.6323,-31.5281,
145.657,107.3089,-193.3947,-8.5311,77.7045,6.0075,-257.5287,38.388,-42.6532,11.0536,-5.3318,28.3288,-91.6323,-39.454,
130.657,122.3089,-201.0023,-12.2628,62.7045,21.0075,-272.5287,41.0536,-47.452,12.2628,-17.5951,18.6602,-106.6323,-42.1197,
115.657,137.3089,-196.737,-3.7317,47.7045,36.0075,-287.5287,51.7168,-52.7829,14.3954,-25.0591,33.6602,-121.6323,-51.7168,
115.6969,152.3089,-191.4052,-1.5996,32.7045,51.0075,-292.7057,64.5126,-53.8489,13.3294,-21.8599,38.921,-136.6323,-50.6497,
108.7644,167.3089,-193.0053,-6.3979,17.7045,66.0075,-286.8418,60.7804,-46.9185,28.3294,-23.46,53.921,-151.6323,-35.6497,
95.9691,182.3089,-199.4027,3.1992,2.7045,81.0075,-284.7087,45.7804,-41.5867,28.7908,-26.6577,68.921,-166.6323,-28.7908,
84.7724,197.3089,-195.6705,-3.7322,3.7322,96.0075,-269.7087,60.7804,-44.2528,20.7933,-19.7273,83.921,-181.6323,-41.0536,
83.7068,201.0023,-192.4713,-18.7322,18.7322,111.0075,-254.7087,75.7804,-59.2528,21.8599,-32.5226,83.7068,-196.6323,-56.0536,
89.0377,205.2671,-191.4052,-16.5281,33.7322,126.0075,-248.9869,60.7804,-74.2528,16.5281,-47.452,78.375,-211.6323,-69.8445,
78.908,190.8722,-193.0053,-25.5916,48.7322,111.0075,-237.7907,45.7804,-74.6428,25.5916,-45.8519,93.375,-226.6323,-81.0412,
63.908,175.8722,-200.4688,-37.3214,59.7138,96.0075,-233.5254,42.6527,-89.6428,37.3214,-57.5817,105.5657,-241.6323,-94.9031,
73.0432,183.9402,-193.5378,-31.4565,74.7138,111.0075,-218.5254,44.2523,-98.6358,31.4565,-62.3805,90.5657,-256.6323,-81.5737,
84.2394,198.9402,-184.4738,-19.1942,89.7138,126.0075,-203.5254,45.8519,-84.2394,19.1942,-51.1833,79.9741,-244.1881,-66.5737,
69.2394,193.0043,-190.8722,-28.7908,104.7138,115.1633,-195.1374,30.924,-99.2394,28.7908,-65.0462,88.5046,-259.1165,-81.5737,
75.7093,182.3411,-175.8722,-31.9895,119.7138,117.296,-180.209,31.9895,-93.8365,43.7908,-70.378,103.5046,-244.1886,-83.1738,
68.2449,183.4082,-181.2751,-31.9895,134.7138,126.8926,-169.5453,31.9895,-78.8365,49.0506,-68.2449,118.362,-234.5915,-71.4441,
60.2468,189.2721,-188.207,-29.3239,149.7138,126.3591,-158.3491,29.3239,-63.8365,34.6552,-53.2449,123.1598,-227.6605,-63.4471,
63.9796,184.4743,-173.207,-30.9235,164.7138,118.362,-154.6174,28.7903,-67.1788,31.9895,-38.2449,123.6934,-229.2596,-70.377,
70.3775,183.4077,-167.4127,-33.0561,179.7138,119.4286,-153.5508,38.3874,-81.0402,33.0561,-47.9841,113.0302,-236.7241,-75.7088,
82.6403,197.8036,-177.5433,-35.7223,194.7138,133.8235,-138.5508,35.7223,-76.2419,45.3189,-47.451,124.2269,-221.7241,-73.0437,
87.4391,205.8006,-179.1419,-29.8574,209.7138,133.291,-123.5508,29.8574,-81.0407,45.8524,-45.8514,127.9587,-206.7241,-82.1067,
76.2419,193.5384,-176.4762,-37.8544,224.7138,121.0277,-113.5632,37.8544,-95.4361,44.2528,-60.8514,139.1559,-221.7241,-83.7063,
80.5076,198.8702,-166.8791,-34.6557,239.7138,136.0277,-98.6348,34.6557,-87.9711,57.0492,-53.8489,154.1559,-218.0634,-69.8439,
92.7699,211.1325,-161.0153,-21.3264,254.7138,151.0277,-84.2394,21.3264,-88.5046,52.2503,-45.8519,168.4787,-203.0634,-77.842,
100.2344,213.2646,-156.75,-24.5256,269.7138,162.0813,-77.842,24.5256,-95.9691,56.5146,-58.6477,154.6169,-193.0053,-76.7759,
96.5022,227.6605,-145.5533,-21.8594,284.7138,167.9467,-70.9105,21.8594,-94.37,71.5146,-54.9155,169.6169,-198.8697,-61.7759,
99.7009,238.3237,-130.5533,-14.3954,299.7138,181.8081,-55.9105,14.3954,-91.1713,66.6447,-39.9155,180.742,-195.671,-62.3805,
109.8315,233.5254,-127.9587,-14.9284,314.7138,180.209,-40.9105,14.9284,-90.6373,51.6447,-41.5872,165.742,-183.4082,-65.0456,
101.834,224.4618,-142.3546,-13.3294,329.7138,174.3446,-30.3904,13.3294,-97.5687,44.2523,-55.9821,150.742,-187.1394,-62.3795,
95.9691,217.5299,-136.4897,-12.7958,344.7138,184.4738,-36.2553,12.7958,-95.9691,59.2523,-40.9821,165.742,-190.8722,-62.913,
94.37,223.3953,-127.4261,-12.2628,359.7138,180.7425,-34.6552,12.2628,-96.5022,71.9766,-32.5231,175.4102,-188.206,-63.446,
97.0357,234.5915,-131.1579,-11.7292,368.948,173.8106,-23.459,11.7292,-93.8365,76.7754,-36.2548,190.4102,-184.4743,-53.3159,
108.7649,234.591,-125.827,-18.1282,378.5451,179.1424,-17.0611,17.0611,-78.8365,91.7754,-24.5256,204.7341,-172.745,-43.7198,
99.1683,229.2596,-126.8921,-15.995,368.9485,170.6119,-30.923,15.995,-71.4436,90.6378,-35.1882,190.8722,-174.8772,-58.7198,
91.1708,235.124,-132.7575,-12.2628,362.0171,179.6755,-25.0586,12.2628,-86.4436,89.0377,-44.2528,205.8722,-174.3441,-73.7198,
86.9055,231.9248,-135.9567,-17.5951,368.4145,194.6034,-10.0586,7.9975,-97.5692,85.8385,-42.1197,220.8722,-172.212,-75.1758,
91.1708,221.2621,-123.1609,-19.7273,372.6798,189.2721,-7.9975,7.9975,-87.9716,84.7724,-43.1868,207.4002,-172.212,-65.5792,
105.5667,223.9283,-116.2294,-21.3264,368.9485,179.1424,-8.5305,8.5305,-78.908,88.5057,-41.5867,193.0053,-163.1474,-74.6428,
116.2299,227.127,-119.4281,-19.1937,372.1472,181.2751,2.1326,-2.1326,-86.372,73.5057,-41.5861,189.8056,-150.3511,-70.377,
108.7654,216.4633,-115.1628,-33.0566,377.4786,178.0759,9.5971,-9.5971,-90.6373,58.5057,-45.8524,191.9387,-147.1529,-55.377,
93.7654,203.135,-122.0938,-45.3189,362.4786,163.0759,5.8644,-5.8644,-87.9716,63.446,-49.5842,187.1399,-154.0838,-67.7113,
78.7654,205.2681,-129.5583,-34.6552,347.4786,155.1499,12.2628,-12.2628,-74.1097,78.446,-37.8544,189.2731,-142.3541,-71.9766,
84.7734,211.6655,-119.9617,-33.5891,351.3544,161.5483,20.7933,-20.7933,-69.8445,83.7063,-32.5231,204.2731,-127.4251,-56.9766,
80.5076,213.7981,-118.8951,-33.5896,353.486,146.6199,14.3954,-14.3954,-84.8445,70.91,-47.5231,204.2005,-142.4251,-52.7829,
70.3775,211.1315,-129.0252,-31.99,338.486,143.9532,8.5305,-8.5305,-99.8445,73.5757,-58.6477,203.668,-157.4251,-67.7829,
74.6423,210.0659,-123.6934,-29.8574,323.486,157.8156,14.9285,-14.9285,-90.6373,82.1067,-45.8524,218.668,-142.4251,-52.7829,
89.6423,213.2641,-110.8976,-28.7913,331.6266,147.1529,22.3929,-22.3929,-99.1688,74.6423,-54.383,220.7286,-136.4902,-47.9846,
104.6423,210.5989,-106.0993,-43.1863,346.6266,132.1529,28.2573,-28.2573,-112.4977,59.6423,-69.383,205.7286,-151.4902,-62.9846,
119.6423,215.9303,-97.5687,-44.2523,361.6266,117.1529,43.2573,-36.7878,-112.4977,44.6423,-68.7779,190.7286,-166.4902,-77.9846,
134.6423,223.9278,-88.5051,-42.6532,376.6266,102.1529,58.2573,-46.9185,-109.8315,42.6532,-66.1117,175.7286,-156.7495,-70.377,
149.6423,228.7266,-82.6403,-39.9876,374.8129,87.1529,58.1147,-59.1808,-106.0988,39.9876,-69.8445,160.7286,-147.6854,-69.8445,
164.6423,223.3953,-83.7063,-41.0536,359.8129,72.1529,46.385,-69.8445,-108.2319,41.0536,-60.2468,145.7286,-148.7525,-80.5071,
175.4102,208.3953,-89.0387,-56.0536,344.8129,57.1529,49.5842,-70.9105,-110.365,53.8494,-45.2468,132.7575,-144.4872,-80.5071,
160.4102,198.8687,-101.8345,-60.2479,330.027,54.9155,49.5842,-69.8445,-111.4311,51.7163,-49.5842,143.4201,-142.3551,-80.5081,
153.0178,204.201,-95.4361,-45.3189,315.027,62.38,48.5181,-57.0476,-106.0988,45.3189,-49.5842,148.7525,-133.8235,-78.374,
149.285,205.8006,-85.3059,-50.1177,300.027,47.38,46.9185,-49.0516,-113.0307,49.0506,-46.9185,143.9537,-139.6884,-79.9746,
143.9537,205.8006,-81.0407,-46.9185,296.4384,58.6482,46.9185,-55.449,-118.362,60.7804,-53.3159,152.4842,-148.2189,-82.1067,
143.9537,197.2701,-87.4391,-49.0506,306.035,73.6482,49.0506,-56.5151,-115.1628,62.9125,-68.3159,167.4842,-143.9537,-81.0407,
130.0918,200.4693,-102.367,-54.383,291.035,61.8464,46.9185,-46.9185,-117.296,55.449,-77.8415,172.7445,-145.0197,-81.0407,
121.0272,201.0013,-101.834,-51.7168,276.035,46.8464,48.5176,-44.2523,-111.4316,53.8489,-62.8415,157.7445,-141.2885,-71.9771,
116.2299,186.0013,-94.9025,-47.9846,269.7807,49.0516,47.9846,-50.1167,-105.5662,57.5822,-61.8464,148.219,-132.2239,-74.6423,
126.3601,181.8086,-95.4361,-42.1197,261.7827,52.7834,42.1197,-52.7834,-110.364,52.7834,-63.446,149.8186,-125.293,-83.7063,
141.3601,196.2035,-88.5057,-45.8519,270.8463,53.3154,45.8519,-49.0511,-111.9641,50.1172,-56.5156,151.4177,-114.0973,-74.6428,
126.3601,184.4743,-81.0407,-46.9185,276.1781,46.9185,49.0506,-47.9846,-111.9636,50.1177,-63.9796,146.0868,-113.0307,-74.6423,
111.3601,180.7415,-81.5742,-42.1197,262.8488,42.1197,54.9155,-46.385,-109.298,49.5842,-60.2479,138.0888,-114.6303,-84.7724,
96.3601,185.0068,-93.304,-48.5181,247.8488,52.7834,46.385,-48.5181,-109.298,48.5181,-46.385,144.4872,-110.365,-81.5742,
81.3601,191.4052,-98.6353,-33.5181,236.1911,66.6452,32.5231,-36.7883,-101.8335,62.38,-41.0536,157.283,-113.5632,-66.5742,
66.3601,176.4762,-100.7684,-33.5891,221.1911,51.6452,33.5891,-36.7883,-107.1658,58.1147,-52.7834,142.283,-128.5632,-69.8445,
51.3601,174.8777,-85.7684,-31.9895,208.9998,38.388,48.5891,-41.5861,-111.9636,46.9185,-54.383,131.1579,-137.5563,-82.1067,
44.2523,181.8081,-87.9711,-35.7218,206.3337,41.0541,35.7218,-44.2523,-126.9636,43.1863,-69.383,139.1554,-130.6248,-93.3035,
50.6507,190.3386,-92.2374,-30.3904,203.1344,44.2523,30.3904,-33.5896,-123.1604,50.6507,-63.4466,150.8851,-128.4917,-86.905,
35.6507,180.209,-98.1018,-26.6582,188.1344,29.2523,30.9235,-42.6522,-125.8255,42.6532,-69.3109,149.286,-143.4917,-98.1018,
28.7908,178.0764,-83.1733,-28.7908,189.8061,34.1222,37.3214,-39.4545,-124.76,46.918,-70.3775,156.75,-130.0913,-92.7699,
40.5206,172.744,-77.842,-33.0561,196.2035,38.3874,33.0561,-40.5206,-121.5607,52.2493,-61.8469,143.9532,-118.3626,-85.3064,
39.4545,169.5458,-83.1733,-28.7908,193.0053,38.3885,28.7908,-47.9841,-118.3615,56.5156,-61.8469,141.821,-122.6268,-90.6368,
51.1833,183.4077,-76.7759,-33.0561,203.668,53.3885,33.0561,-39.4545,-121.5607,53.3164,-62.913,156.821,-115.1634,-78.908,
61.8469,198.3367,-81.0402,-39.4535,200.4688,68.3885,29.8569,-29.8569,-136.4897,38.3164,-71.4436,164.2145,-109.831,-73.5757,
46.8469,193.5378,-87.9721,-37.8549,185.4688,68.7779,35.7218,-29.3244,-124.2264,29.3244,-62.3795,149.2145,-102.9001,-83.7068,
31.8469,190.8722,-79.9741,-28.7908,170.4688,66.1122,46.919,-29.8569,-109.2264,44.3244,-47.3795,134.2145,-100.2344,-85.3054,
27.1912,191.4047,-84.7729,-27.1912,155.4688,60.2473,36.7878,-30.3904,-110.3645,42.1202,-52.7829,119.2145,-110.3645,-80.5076,
26.6582,181.2751,-89.5712,-30.9235,149.285,53.3159,29.8574,-26.6582,-116.2299,46.9185,-56.5151,134.2145,-108.7654,-78.9085,
14.3954,177.5438,-77.3084,-21.8589,134.285,53.8499,39.9881,-14.3954,-102.9001,59.1813,-45.3184,148.753,-103.9661,-75.1753,
9.5971,179.1429,-73.5762,-22.3929,119.285,68.8499,41.5872,-9.5971,-97.0357,54.383,-41.5861,147.1529,-103.4331,-60.1753,
21.8594,181.8086,-76.2419,-22.9265,134.285,75.1758,26.5872,-21.8594,-103.9666,54.9155,-43.1857,154.0838,-105.0327,-53.8494,
17.5941,175.4102,-76.2419,-17.5941,132.7575,60.1758,22.9255,-26.1247,-105.0327,51.7163,-41.0536,139.0838,-105.0327,-68.8494,
6.9314,170.0788,-74.1097,-21.8594,128.4922,57.0486,37.9255,-11.1247,-96.5022,61.3139,-30.3899,138.0888,-93.3029,-64.5121,
5.3313,179.1424,-73.5767,-11.7298,124.76,70.3775,52.9255,-5.3313,-88.5046,72.5096,-31.99,153.0888,-88.5046,-53.3164,
11.1967,175.4102,-76.2419,-11.1967,109.76,57.0486,37.9255,-20.3313,-85.8395,61.3139,-43.1857,142.3541,-103.5046,-66.6453,
14.3954,171.1454,-74.1092,-25.0591,102.9001,42.1202,22.9255,-14.3954,-76.2424,53.8489,-42.1202,127.3541,-113.5637,-78.3745,
-0.60458,175.4107,-74.1092,-25.0581,93.3035,48.5176,21.8599,0.60458,-74.1092,58.1152,-35.7218,127.4256,-112.4967,-63.4465,
2.6657,186.0734,-60.2473,-10.0581,78.3035,63.5176,36.8599,-2.6657,-68.7779,73.1152,-20.7928,142.4256,-97.4967,-48.4465,
1.5996,180.742,-63.4465,-1.5996,69.844,69.844,51.8599,-17.6657,-77.3084,73.0432,-28.2573,157.4256,-98.6348,-43.1863,
2.1326,172.7445,-66.1117,-2.1326,84.844,69.3109,36.8599,-9.5971,-83.1728,76.7754,-27.7243,151.4182,-99.1678,-57.5812,
-1.0666,168.4792,-66.1117,-12.7963,70.377,54.3109,31.9895,1.0666,-88.5051,70.377,-28.7903,136.4182,-105.5662,-60.7804,
4.2653,180.2095,-53.3164,-4.2653,55.377,39.3109,46.9895,-4.2653,-97.0352,62.913,-35.1882,127.9592,-118.3615,-62.913,
19.2653,171.1454,-44.2523,-19.2653,40.377,44.2523,31.9895,-19.2653,-110.3645,53.8489,-49.5837,135.9562,-129.5588,-74.1092,
34.2653,179.1429,-44.7854,-23.459,49.0516,59.2523,16.9895,-10.6632,-95.3645,59.7143,-41.5861,143.9537,-114.5588,-62.9125,
19.2653,174.3436,-50.6507,-20.7938,34.0516,44.2523,31.9895,4.3368,-84.7729,53.8489,-42.1202,128.9537,-122.0943,-70.911,
4.2653,173.277,-35.6507,-5.7938,19.0516,39.9865,46.9895,19.3368,-81.5742,68.8489,-27.1917,127.4251,-123.1609,-59.1808,
-0.53303,163.6804,-36.7883,9.2062,4.0516,28.2578,31.9895,4.3368,-82.6403,82.6403,-27.1917,142.4251,-124.2269,-51.7163,
-11.1967,170.0788,-51.7883,12.2628,-4.7983,30.3899,22.9255,4.7983,-67.6403,71.9766,-12.2628,131.6914,-109.2269,-39.9876,
-8.5305,178.0764,-36.7883,8.5305,-19.7983,41.5867,37.9255,19.7983,-66.1122,57.5817,-8.5305,120.4947,-99.1683,-42.6527,
6.4695,163.0764,-40.5206,5.3313,-34.7983,26.5867,22.9255,7.4645,-81.1122,42.5817,-23.5305,105.4947,-114.1683,-57.6527,
21.4695,148.0764,-42.6527,20.3313,-49.7983,17.0611,7.9255,12.7958,-69.3104,53.3164,-12.7958,100.2344,-129.1683,-42.6527,
6.4695,137.5558,-27.6527,5.3313,-64.7983,29.8569,-7.0745,13.8619,-83.1733,56.5156,-23.4595,93.837,-138.6218,-45.8519,
-7.9975,152.5558,-12.6527,-2.6662,-79.7983,44.8569,7.9255,28.8619,-93.3029,64.5131,-31.456,108.837,-123.6218,-58.1147,
-7.9975,158.3491,-27.6527,7.9975,-94.7983,53.8494,22.9255,43.8619,-78.3029,57.0476,-30.3909,123.837,-109.299,-48.5181,
-10.1296,143.3491,-42.6527,10.1296,-109.7983,58.1147,16.5281,58.8619,-63.3029,58.1147,-21.8594,108.837,-98.6353,-33.5181,
-25.1296,128.3491,-36.2553,11.7298,-124.7983,56.5146,31.5281,73.8619,-48.3029,62.913,-11.7298,101.3005,-91.7038,-18.5181,
-40.1296,114.0968,-45.8514,18.1277,-139.7983,41.5146,46.5281,60.7804,-58.6472,47.913,-18.1277,86.3005,-106.7038,-33.5181,
-36.7873,105.0337,-46.385,16.5281,-154.7983,29.3249,61.5281,75.7804,-44.2518,54.9165,-16.5281,71.3005,-99.7014,-39.9865,
-33.5891,115.6964,-61.385,9.0636,-169.7983,34.6552,76.5281,90.7804,-33.5891,58.1147,-9.0636,56.3005,-84.7014,-24.9865,
-48.5891,109.2985,-76.385,14.3954,-184.7983,20.7938,91.5281,105.0332,-46.3844,43.1147,-14.3954,41.3005,-83.7058,-17.5936,
-63.5891,94.2985,-85.839,29.3234,-199.7983,14.3954,106.5281,100.7669,-33.5897,28.1147,-11.1962,26.3005,-71.9771,-25.0591,
-78.5891,90.6373,-75.7093,39.454,-214.7983,15.9945,91.5281,102.367,-18.5897,33.0556,-6.3979,11.3005,-75.7093,-13.8624,
-93.5891,79.4416,-85.839,28.2583,-229.7983,0.99452,90.1042,99.7019,-4.7978,26.1252,1.5996,-3.6995,-78.3745,1.1376,
-108.5891,65.5787,-100.839,29.3244,-244.7983,-14.0055,103.9671,114.7019,-9.0641,18.6607,16.5996,-18.6995,-63.3745,9.0641,
-93.5891,80.5787,-90.1042,44.3244,-259.7983,0.99452,107.1653,126.3596,-6.9309,32.5226,18.6607,-10.1301,-48.3745,-2.6657,
-78.5891,89.5707,-75.1042,37.3214,-274.7983,11.7298,92.1653,117.2955,-3.1992,34.1222,3.6607,-3.1992,-55.4485,-10.6637,
-93.5891,74.5707,-83.1728,22.3214,-289.7983,-3.2702,77.1653,132.2239,1.0666,19.1222,-1.0666,-18.1992,-56.5151,1.0666,
-108.5891,59.5707,-98.1728,34.6557,-304.7983,-18.2702,64.5126,143.4206,6.9309,4.1222,6.9309,-33.1992,-47.4515,10.1301,
-123.5891,44.5707,-99.1678,35.1887,-319.7983,-31.9895,61.8475,128.4206,1.0666,5.3318,-1.0666,-48.1992,-53.3159,2.1326,
-135.9567,54.9155,-84.7734,30.3899,-334.7983,-18.6612,46.8475,113.4206,0.53303,13.3288,1.5991,-60.2478,-47.452,-0.53303,
-120.9567,41.0541,-99.7734,23.993,-349.7983,-32.5226,55.9821,128.4206,11.1962,11.1962,15.4615,-75.2478,-44.2523,-11.1962,
-130.0918,47.9846,-114.7734,38.993,-364.7983,-47.5226,70.9821,124.7594,22.3929,14.9285,21.3259,-83.1738,-50.1177,-14.9285,
-145.0918,38.388,-99.7734,46.9185,-379.7983,-57.5812,55.9821,109.7594,12.7963,9.5971,12.7963,-78.9075,-45.8514,-9.5971,
-130.0918,23.388,-91.1708,33.5891,-394.7983,-42.5812,40.9821,123.1598,18.6602,9.0636,17.5941,-64.5131,-30.8514,0.53303,
-115.0918,38.388,-87.9721,48.5891,-409.7983,-27.5812,36.7878,137.0222,20.7928,2.6657,23.992,-63.4466,-27.1912,-2.6657,
-100.0918,53.388,-78.9075,54.383,-424.7983,-42.5812,51.7878,138.6223,23.459,-2.1326,29.8574,-70.377,-38.388,2.1326,
-115.0918,44.7859,-93.9075,39.4545,-439.7983,-37.3214,36.7878,126.8931,22.3924,0,19.1942,-69.3114,-53.388,0,
-122.6273,38.3874,-108.9075,51.1833,-454.7983,-34.1222,21.7878,111.8931,15.995,11.7298,9.5966,-56.5156,-68.388,-9.5966,
-116.2294,45.8524,-97.0357,59.7143,-469.7983,-46.9185,6.7878,105.5662,26.6582,13.8624,22.3929,-68.2449,-53.388,-4.2658,
-104.4997,56.5156,-82.0357,51.1833,-457.4532,-31.9185,-7.4645,120.5662,41.5867,7.4645,37.3929,-81.0407,-38.388,9.5966,
-99.7014,54.916,-67.0357,43.1863,-442.4532,-16.9185,1.5996,135.5662,41.0531,-1.5996,38.921,-85.839,-23.388,15.4615,
-112.4972,44.2523,-82.0357,58.1863,-444.1243,-31.9185,16.5996,130.6248,37.8549,-7.997,28.2573,-100.839,-23.992,7.997,
-127.4256,29.2523,-97.0357,59.1808,-450.5222,-44.2528,21.8594,127.4261,27.1917,-0.53303,20.7933,-110.3645,-28.2578,0.53303,
-112.4256,42.1197,-84.7724,55.9826,-448.3891,-29.2528,6.8594,112.4261,31.457,14.467,29.3239,-95.3645,-37.8544,4.7983,
-97.4256,57.1197,-69.7724,70.9826,-457.4532,-22.3929,-7.464,110.8976,46.457,29.467,33.0556,-80.3645,-40.5201,7.464,
-82.4256,56.5146,-81.0412,61.8469,-445.7239,-23.4595,-4.2653,125.8976,50.1172,19.1932,24.5256,-87.4391,-33.0561,4.2653,
-97.4256,41.5146,-95.9691,51.1833,-430.7239,-22.3924,-11.7298,125.826,55.4485,26.6577,34.1222,-77.8415,-22.3924,11.7298,
-82.4256,30.9235,-86.372,66.1127,-422.2644,-37.3924,-9.5971,121.5613,53.3169,28.7913,42.6532,-73.5762,-23.459,9.5971,
-67.4256,45.9235,-71.372,71.9771,-437.2644,-52.3924,4.7988,126.3596,41.0531,19.7268,38.921,-82.6403,-38.459,-4.7988,
-82.4256,40.5196,-56.372,71.4436,-452.2644,-51.1843,4.2653,113.0302,45.8519,34.7268,30.923,-67.6403,-53.3164,-4.2653,
-92.7704,40.5201,-71.372,63.9796,-437.2644,-36.1843,-9.5971,115.1628,53.3159,49.7268,30.9235,-52.6403,-49.0506,9.5971,
-77.7704,49.5847,-86.372,65.5787,-422.2644,-21.1843,-18.6607,130.1628,38.3159,34.7268,37.8549,-51.7168,-42.1192,18.6607,
-72.5101,39.4535,-74.6433,76.7749,-407.2644,-35.1893,-4.2653,135.4226,52.2493,19.7268,49.0501,-66.7168,-27.7248,20.2603,
-86.9055,24.4535,-76.2424,61.7749,-392.2644,-50.1893,-0.53303,120.4226,66.6453,4.7268,41.0536,-81.7168,-28.2578,6.9314,
-101.9055,9.4535,-91.2424,60.7799,-377.2644,-65.1893,0,105.4226,55.4485,8.5305,40.5196,-96.7168,-23.4595,12.7958,
-96.5022,-0.53303,-98.6348,60.2478,-362.2644,-61.3134,0.53303,93.304,41.0536,6.9314,46.385,-111.7168,-18.6602,13.3288,
-81.5022,-2.6657,-83.6348,46.3844,-347.2644,-54.916,3.7317,108.304,44.2523,12.2623,43.1863,-96.7168,-26.1252,2.6657,
-96.5022,1.0661,-85.3064,58.6477,-332.2644,-52.2503,0,113.0302,52.2493,27.2623,37.3214,-81.7168,-31.99,0,
-111.5022,-7.4645,-90.6378,66.1122,-317.2644,-49.0511,7.4645,98.0302,67.2493,42.2623,43.7188,-66.7168,-16.99,9.5966,
-96.5022,-3.7322,-85.839,61.3139,-302.2644,-45.3189,5.8654,99.7014,59.1808,44.2528,41.0536,-51.7168,-5.8644,3.7322,
-81.5022,11.2678,-70.839,76.3139,-287.2644,-53.8494,-5.8649,114.7014,44.1808,51.7168,45.3184,-36.7168,-14.3954,5.8649,
-96.5022,11.1967,-57.0481,85.8395,-272.2644,-67.7113,-11.1967,99.7014,47.452,57.0486,49.5842,-51.7168,-16.5281,15.462,
-94.9031,-2.1326,-72.0481,73.5762,-257.2644,-52.7113,2.1326,104.4992,62.452,42.0486,57.5812,-66.7168,-13.8624,26.6582,
-84.2399,-3.1987,-74.6428,58.5762,-242.2644,-37.7113,3.1987,116.2289,63.9796,30.9235,62.9135,-51.7168,-6.3979,29.8574,
-87.4386,-3.1992,-68.2449,66.1122,-227.2644,-29.8569,-11.8013,108.7649,63.9791,45.9235,55.4485,-36.7168,3.1992,18.1272,
-94.3695,-0.53303,-79.4411,81.1122,-212.2644,-44.8569,-26.8013,98.6353,78.9791,60.9235,50.6502,-30.3899,0.53303,17.5951,
-79.4411,6.9314,-71.9771,75.1758,-197.2644,-50.6507,-27.1917,94.37,74.1097,68.7774,49.5842,-28.2578,-6.9314,9.0636,
-64.4411,16.5275,-56.9771,71.9771,-182.2644,-35.6507,-33.5896,109.37,60.2473,65.5787,55.9821,-13.2578,-2.6657,2.6657,
-69.3109,4.2653,-52.2498,66.1122,-167.2644,-34.1222,-46.9185,110.8981,62.913,50.5787,58.6477,-28.2578,-4.2653,14.929,
-84.3109,11.1962,-63.446,65.5787,-161.5483,-39.987,-31.9185,98.6348,74.1092,39.987,59.1813,-43.2578,-11.1962,26.1252,
-69.3109,22.3929,-58.6477,66.1117,-146.5483,-24.987,-18.1277,105.5662,73.5762,49.0506,57.5812,-28.2578,-14.9284,14.9284,
-66.1122,7.4645,-67.1783,65.0462,-131.5483,-20.2603,-33.0561,118.3615,58.5762,45.8519,51.1833,-13.2578,-14.929,5.3313,
-81.1122,13.3294,-63.4466,80.0462,-116.5483,-35.2603,-35.7223,112.4967,45.3184,49.5837,53.8489,-23.992,-13.3294,16.5275,
-82.1072,28.3294,-48.4466,84.2399,-101.5483,-37.3209,-44.7859,116.2289,53.3159,50.1177,45.8524,-34.1227,-10.6632,10.6632,
-67.1072,43.3294,-40.5206,82.1072,-86.5483,-22.3209,-37.3214,131.1574,50.1172,41.5867,40.5206,-19.1227,1.0661,-1.0661,
-82.1072,35.1887,-55.5206,78.9075,-71.5483,-12.7963,-22.3214,116.1574,41.5861,31.9895,44.7854,-23.459,-5.3318,5.3318,
-97.1072,20.1887,-54.3825,70.3775,-81.0407,-14.929,-27.7248,101.1574,56.5861,31.99,59.7138,-34.1227,-11.7298,20.3318,
-104.4997,15.9945,-44.7859,76.7754,-87.4386,-13.8624,-42.7248,116.1574,58.6482,35.1887,53.3159,-41.5867,-14.9284,13.8624,
-90.6378,30.9945,-41.5867,84.2394,-72.4386,-9.5966,-42.6532,120.4947,56.5156,46.918,52.2503,-33.0561,-18.1272,9.5966,
-105.5662,28.7913,-49.0506,84.2399,-73.5762,-24.5966,-33.0561,105.5662,69.3109,42.6532,65.0456,-35.1887,-27.7243,24.5966,
-110.8976,15.995,-51.1833,74.6428,-69.3109,-36.2548,-48.0561,120.5662,61.8469,28.7908,65.0462,-38.3874,-15.995,19.1942,
-104.4997,17.0611,-45.8519,59.6428,-54.3109,-21.2548,-63.0561,111.9641,50.1172,37.3214,53.3164,-24.5256,-5.3313,5.3313,
-109.2985,32.0611,-33.5896,74.6428,-41.0536,-15.4615,-54.916,96.9641,61.3134,52.3214,55.9821,-14.3954,-19.7268,14.3954,
-103.4336,36.2548,-19.1942,89.6428,-51.1838,-24.5256,-63.9796,111.9641,76.3134,62.9125,68.2449,-18.1277,-29.8574,18.1277,
-111.4311,21.2548,-34.1942,74.6428,-44.2523,-10.1301,-78.9796,105.0332,66.6458,47.9125,65.5787,-33.1277,-38.921,10.1301,
-126.4311,14.3954,-49.1942,60.2473,-57.0481,-5.8649,-93.9796,90.0332,51.6458,32.9125,50.5787,-45.3189,-48.5176,5.8649,
-132.7575,16.5281,-50.6507,61.3139,-50.6507,-20.8649,-102.9006,103.9666,49.5842,35.7213,45.3189,-30.3189,-47.4515,13.3288,
-145.5533,6.9314,-65.6507,62.38,-35.6507,-31.456,-117.9006,112.4972,51.7173,35.7223,46.385,-15.3189,-48.5176,12.2628,
-143.4206,6.9314,-57.0486,66.6453,-20.7933,-16.456,-127.4261,97.4972,58.1147,29.3239,50.6502,-30.3189,-35.7223,7.9975,
-128.4206,14.3954,-42.0486,69.844,-26.1252,-1.456,-112.4261,82.6398,67.7118,44.2523,47.4515,-31.4565,-30.3904,-1.5996,
-127.9587,17.0611,-35.1882,68.2454,-41.1252,-4.2653,-110.8976,95.9691,69.3114,42.6537,49.0511,-16.4565,-41.5867,4.2653,
-142.9587,9.0641,-50.1882,58.1152,-38.921,-9.0641,-125.8976,80.9691,61.3134,28.2573,59.1813,-18.6607,-41.0536,14.3954,
-148.2195,11.7292,-52.2503,70.377,-23.921,-17.0616,-129.0257,77.8415,52.2498,33.0556,57.5812,-33.6607,-33.0566,9.5971,
-147.6859,15.4615,-51.7168,77.3084,-9.0641,-21.8599,-114.0257,92.8415,51.7168,41.0531,52.7829,-22.926,-30.3904,9.0641,
-134.3566,18.1282,-42.6527,70.3775,-15.995,-19.1932,-110.8976,86.3725,63.9801,27.7248,65.0462,-12.7958,-33.0561,12.7958,
-125.826,18.1277,-37.3209,61.8475,-0.99502,-19.1937,-124.7594,74.6433,57.5822,12.7248,62.9135,-27.7958,-48.0561,-2.1326,
-127.9587,19.1937,-31.9895,52.2498,6.3979,-15.9945,-133.29,89.5712,43.7193,7.465,50.1177,-29.8564,-60.7804,-6.3979,
-124.2264,29.3244,-35.7218,66.6458,-8.6021,-6.9309,-127.4256,89.0382,48.5176,21.8599,48.5176,-21.8599,-52.7829,6.9309,
-131.6914,22.9255,-50.7218,74.1097,-11.1967,-14.3959,-131.6914,76.2419,50.6502,15.462,49.5842,-36.8599,-61.3139,11.1967,
-142.3541,19.7273,-44.2523,63.446,-12.2628,-17.5941,-146.6193,91.2419,52.7834,25.0586,55.9826,-21.8599,-75.1758,12.2628,
-153.5508,20.2598,-46.9185,51.1838,-27.2628,-14.9285,-161.0148,102.367,45.8524,23.459,49.0506,-6.8599,-83.1733,1.0666,
-157.8156,14.9284,-61.9185,50.1177,-14.9284,-2.1326,-155.6829,87.367,47.9846,8.459,41.5872,-15.9945,-77.8415,2.1326,
-161.5483,15.462,-61.3139,50.6502,0.07155,-1.5991,-157.283,72.367,49.5842,0.53303,46.385,-30.9945,-86.9055,-0.53303,
-148.2195,28.7903,-46.3139,53.3159,1.0666,-1.0666,-154.6174,87.367,57.5812,10.6632,58.6472,-26.6582,-101.9055,-6.3979,
-149.8191,19.7268,-41.0541,45.3184,-13.9334,1.5996,-145.5538,74.1092,58.1142,7.997,49.5837,-22.926,-111.4311,-1.5996,
-164.8191,10.6637,-50.1172,56.5156,-28.9334,-8.5305,-160.5538,74.6428,50.1172,10.6637,40.5206,-20.2603,-107.6989,8.5305,
-165.28,15.9955,-44.7854,66.1127,-34.1222,-22.3929,-175.5538,89.6428,55.449,25.6637,54.383,-13.8624,-120.4947,13.8624,
-150.28,20.2603,-39.454,67.1783,-19.1222,-11.7298,-160.5538,90.6378,56.5156,22.3934,59.7148,-26.6577,-115.1628,11.7298,
-161.0148,6.3984,-42.6527,52.1783,-4.1222,-4.2653,-145.5538,75.6378,41.5156,10.6637,44.7148,-24.5256,-106.6323,-1.0661,
-169.5453,10.6632,-44.7854,40.5201,-2.1326,-6.3979,-151.4182,62.9135,38.388,25.5921,34.1227,-9.5256,-111.9641,-2.1326,
-158.3496,25.6632,-43.1863,50.6497,1.5996,-10.1301,-147.6864,77.3084,39.987,29.3234,39.987,-1.5996,-110.365,-2.6657,
-154.6174,14.9279,-42.6537,43.7188,12.7958,-17.0611,-132.6864,69.3104,30.923,14.3234,39.4535,-16.5996,-99.1683,-8.5305,
-167.9462,6.9309,-48.5181,49.5837,-2.2042,-13.3294,-143.4206,84.3104,39.987,6.9309,45.3184,-21.8599,-107.1658,4.7988,
-171.6785,11.7292,-39.454,64.5837,-17.2042,-11.7292,-158.4206,84.2399,54.987,20.2598,51.1838,-27.7243,-120.4947,15.9945,
-158.8821,5.3318,-29.8574,52.2498,-5.3318,-24.5251,-164.214,69.2399,43.7193,14.9284,47.9846,-19.1937,-118.362,6.3979,
-173.8821,-0.53354,-44.8574,50.6507,1.5996,-27.1912,-174.3441,61.3134,29.3244,7.997,32.9846,-4.7988,-128.4922,0.53354,
-183.4077,1.0666,-55.449,55.449,-2.1326,-12.1912,-165.28,69.3109,44.3244,20.2598,33.0566,-1.0666,-123.6934,2.1326,
-168.4077,9.5971,-40.449,42.6532,12.8674,-19.1937,-150.28,79.9746,59.3244,19.1937,42.6532,-9.5971,-108.7649,-12.8674,
-158.3491,23.992,-35.7218,47.4515,27.8674,-10.1301,-135.28,83.7068,58.1152,10.1301,48.5176,-16.5275,-102.9001,-12.2623,
-173.3491,8.992,-50.7218,32.5231,12.8674,-5.8644,-150.28,68.7068,47.451,-2.6662,37.8544,-31.5275,-112.4972,2.6662,
-187.1399,13.3294,-46.385,47.5231,-2.1326,-16.5275,-165.28,76.2424,62.451,12.3338,52.8544,-16.5275,-103.9666,14.3954,
-175.9437,17.0606,-46.9185,49.0506,-6.3979,-24.5261,-167.4132,84.2399,52.2498,23.459,54.382,-10.6632,-106.6328,6.3979,
-190.8722,2.0606,-58.6482,34.0506,8.6021,-9.5261,-159.9487,69.2399,37.3214,8.459,49.0511,-17.0611,-102.3675,-2.1331,
-179.6755,10.1301,-43.6482,32.5226,23.6021,-0.53354,-144.9487,61.3134,44.2523,0.53354,52.7829,-9.0641,-97.5687,-14.3954,
-174.8777,11.7298,-42.6537,26.6577,29.8569,-15.5335,-156.75,76.3134,40.5196,8.5305,41.5867,-8.5305,-111.9641,-21.3264,
-173.2781,5.8649,-48.5176,33.5886,27.1912,-9.0641,-170.0788,66.6447,27.1912,19.7268,30.3904,-5.8649,-114.6303,-11.1962,
-159.9482,4.2653,-37.3214,33.0561,18.1282,-4.2653,-155.0788,51.6447,12.1912,10.6637,19.1942,-11.7287,-102.3665,-22.3924,
-144.9482,19.2653,-22.3214,41.5861,26.6582,-12.7963,-140.0788,66.6447,27.1912,9.5971,28.7903,-9.5971,-87.3665,-13.8624,
-147.1529,18.1277,-23.459,46.9185,41.6582,-9.5971,-138.6223,75.7093,31.9895,6.3979,38.388,-8.5311,-97.0357,-6.3979,
-151.4176,3.1277,-29.8574,38.388,47.9846,-18.1277,-153.6223,60.7093,16.9895,2.1326,35.1887,-2.1326,-112.0357,-18.1277,
-148.2189,5.3313,-21.3264,46.918,35.1893,-29.8569,-154.6169,45.7093,31.9895,-4.2653,30.924,4.2653,-114.0968,-21.3264,
-140.2219,14.3949,-25.0586,46.385,50.1893,-14.8569,-146.6199,30.7093,29.3239,-7.9975,26.1247,7.9975,-111.4311,-26.1257,
-151.9512,-0.60509,-34.6552,31.385,59.1808,-4.7983,-139.1554,23.9925,19.7273,7.0025,34.6552,2.6662,-112.4972,-25.0586,
-166.9512,-12.2633,-19.6552,45.3184,44.1808,-19.7983,-141.2885,25.0581,34.7273,22.0025,49.6552,-1.5996,-103.9671,-10.0586,
-169.5458,-5.3318,-22.3929,43.7193,29.1808,-20.2608,-152.4847,29.8574,46.9185,15.9945,53.3159,2.1326,-97.0357,-2.1326,
-181.2751,6.3984,-37.3929,31.99,34.1232,-6.3974,-167.4127,41.5867,31.9185,0.99451,38.3159,0,-99.1678,-17.1326,
-185.5403,6.3979,-52.3929,38.388,19.1232,-3.1987,-163.1474,40.5201,16.9185,2.1326,23.3159,2.1326,-98.1018,-30.9235,
-170.5403,-1.5996,-37.8549,30.3904,4.1232,11.8013,-161.5483,25.5201,16.5286,4.7988,38.3159,1.5996,-103.9666,-15.9235,
-163.1474,5.3313,-38.3874,20.2603,5.3313,26.8013,-165.28,12.7958,6.3984,-5.3313,23.3159,-5.3313,-113.0302,-30.9235,
-154.0838,20.3313,-38.921,28.2583,20.3313,11.8013,-150.28,16.5286,16.5286,-1.5996,13.3294,1.5996,-105.0327,-44.2523,
-155.6829,14.929,-38.3874,30.924,15.995,0,-135.28,12.7958,20.2603,0,21.3264,-12.7958,-117.2955,-29.2523,
-158.3486,6.9314,-44.2518,27.1917,0.99502,9.0646,-149.818,16.5281,10.1307,0.53303,16.5281,-15.461,-117.8285,-23.9915,
-157.8156,3.1992,-35.1882,24.5256,15.995,-5.9354,-134.818,18.1282,13.8629,7.4645,11.7298,-3.1992,-102.8285,-38.3874,
-163.1474,0,-22.3924,33.0561,22.3934,0,-123.6934,19.1942,23.4595,14.929,13.8629,-15.995,-97.0352,-23.3874,
-153.5508,-2.1326,-23.459,35.1887,7.3934,9.5971,-138.6934,18.1277,38.388,10.6632,26.6582,-30.995,-112.0352,-12.7963,
-138.5508,12.8674,-21.3264,39.4535,4.2653,-3.1992,-132.2244,13.8619,39.4535,3.1992,33.0561,-17.0611,-105.5662,-27.7963,
-153.5508,7.9975,-28.2578,26.1247,5.8644,0.53303,-129.5583,4.7983,24.4535,-0.53303,18.0561,-7.9975,-107.1658,-33.5891,
-166.8801,-7.0025,-28.2578,19.7273,9.0636,0.53303,-127.4261,19.7983,9.4535,14.467,5.8644,-0.53303,-110.3645,-18.5891,
-156.7495,-5.3313,-20.2603,34.7273,5.3313,-14.467,-120.4947,34.7983,24.4535,29.467,20.8644,14.467,-105.5657,-7.4645,
-160.4817,-5.8649,-28.2573,32.5226,4.7988,-4.7988,-122.0943,19.7983,31.4565,30.3904,18.6607,17.5946,-106.0993,-22.4645,
-162.6149,-10.1301,-41.0541,17.5226,14.3954,10.2012,-123.1609,4.7983,23.992,27.1912,20.7928,13.3283,-110.365,-31.4565,
-155.6834,-6.3979,-42.6532,23.459,3.1987,1.0666,-138.1609,4.2658,21.3269,28.7903,27.7243,-1.0666,-123.6934,-33.0556,
-142.8876,1.0661,-34.1222,33.0561,-1.0661,-10.6637,-142.8876,19.2658,29.8569,26.6577,22.3924,1.0661,-116.2294,-31.99,
-142.8876,1.0666,-45.8524,20.2598,13.9339,4.3363,-137.5558,8.53,14.8569,11.6577,7.3924,11.7292,-111.9641,-34.1227,
-133.2905,5.3313,-39.4535,20.2603,28.9339,15.995,-122.5558,4.2653,-0.1431,-3.3423,8.5305,23.4595,-108.7649,-28.7908,
-130.6248,4.7988,-28.2573,31.4565,14.3954,7.997,-107.5558,17.5946,-0.53354,-2.6657,23.5305,8.4595,-106.0993,-20.7938,
-130.6243,5.8649,-31.4565,35.7218,20.7938,9.0641,-100.7674,14.3954,11.1962,-5.8649,25.0591,-6.5405,-101.834,-13.3294,
-123.6934,4.2653,-38.3874,24.5256,35.7938,1.0661,-115.1628,11.7298,5.3313,-15.995,10.0591,-1.0661,-106.6323,-27.7248,
-108.6934,14.3954,-23.3874,39.5256,42.1202,2.6657,-109.2985,26.7298,5.8649,-11.1962,11.1962,-2.6657,-106.0993,-32.5226,
-106.0993,10.1307,-15.462,42.1197,29.3239,10.1307,-101.834,25.0586,3.7322,-3.7322,17.5941,-3.7322,-106.0993,-29.3239,
-121.0277,-2.6652,-30.3899,33.5891,17.5941,0.53303,-115.6959,22.9265,1.6001,11.2678,2.5941,11.2678,-108.2319,-32.5231,
-107.6989,1.0666,-22.3929,48.5891,9.5971,-14.467,-104.5002,37.9265,16.6001,26.2678,-1.0666,26.2678,-99.1683,-31.9895,
-92.6989,7.9975,-7.9975,58.1147,19.7273,-13.3288,-89.5002,33.5891,31.457,11.2678,13.9334,11.2678,-95.4361,-26.1247,
-105.0332,16.5281,-22.9975,46.385,27.1907,1.6712,-103.9671,28.2568,26.1247,-3.7322,28.9334,-3.7322,-103.9671,-34.6562,
-119.9611,5.8649,-37.8539,41.0541,12.1907,-2.6657,-118.9671,20.7938,14.3954,-1.5996,13.9334,2.6657,-108.2319,-38.921,
-104.9611,4.7983,-22.8539,47.451,13.3288,-0.53303,-103.9671,18.6602,25.0586,0.53303,4.7983,-6.9314,-96.5027,-23.921,
-95.4361,12.2623,-13.3294,55.9821,28.2573,1.5996,-91.1703,27.1912,10.0586,-1.5996,5.8649,-6.9309,-101.834,-16.5286,
-108.2324,11.1957,-28.3294,47.451,13.3288,-3.7322,-106.1703,29.3239,-4.9414,3.7322,5.8644,4.7983,-103.9666,-31.5286,
-93.2324,17.0611,-23.4595,37.3214,23.4595,3.1992,-97.0352,14.3239,-2.1331,0,4.2653,0,-95.9691,-46.5286,
-78.908,23.4595,-8.4595,40.5206,37.3214,8.5305,-82.0352,26.6587,7.4645,-6.3974,4.2653,-4.2653,-94.9031,-34.1222,
-91.7038,20.2603,-23.4595,51.1833,22.3214,0,-86.3725,41.6587,20.2603,0,19.2653,-15.995,-92.7704,-19.1222,
-100.7674,12.2633,-38.4595,50.6507,17.5946,-1.5996,-99.7009,39.987,20.7938,1.5996,25.0591,-30.995,-96.5022,-31.4565,
-91.7044,2.1326,-33.0566,35.6507,32.5946,13.4004,-93.8365,24.987,10.6632,-2.1326,10.0591,-17.0616,-103.4331,-43.7193,
-81.5737,15.4615,-21.8599,34.6557,41.0531,7.997,-89.0382,27.1912,7.997,-4.7988,-1.5996,-2.0616,-91.1713,-37.8549,
-73.0432,30.4615,-25.0591,49.6557,33.5886,-4.7988,-89.0382,42.1192,7.997,-2.6657,7.997,2.6657,-81.5737,-38.921,
-63.4466,32.5226,-25.0581,46.3855,37.8549,10.2012,-93.3035,32.5226,-2.6657,-4.7988,3.7317,2.6657,-94.3695,-44.2523,
-54.3825,43.7188,-10.0581,47.9851,52.2503,25.2012,-83.1733,47.5226,-1.0661,1.0661,-1.0661,6.3984,-86.3725,-31.99,
-69.3825,30.3899,-13.3288,47.451,37.2503,14.3959,-89.0377,42.1197,-1.5991,3.7322,1.5991,-6.9314,-87.9716,-31.457,
-84.3825,22.926,-19.7268,46.3855,22.2503,7.997,-89.0382,27.1197,-2.6657,3.7317,11.1962,-6.9309,-100.7679,-36.7878,
-97.5682,30.3899,-16.5281,53.8494,16.5281,4.7983,-83.7063,41.0536,0.53303,-7.9975,4.7983,-0.53303,-98.6353,-41.0536,
-84.2399,21.3269,-25.5921,46.9185,31.5281,5.3318,-89.5712,56.0536,4.2648,-12.7963,1.0666,-1.0666,-91.7044,-38.388,
-89.5707,17.0611,-30.923,41.5867,36.2553,18.1282,-91.7038,52.2503,-5.3313,2.2037,-1.0661,1.0661,-99.1683,-34.1222,
-94.9025,28.7903,-15.923,37.3209,25.5921,11.7292,-76.7038,37.2503,-10.6632,15.9945,-7.464,7.464,-98.1018,-38.388,
-93.836,27.7248,-5.3313,37.3214,27.7248,-3.1992,-72.5096,47.9851,1.0661,13.8629,-1.0661,14.929,-91.7038,-45.8519,
-95.9686,17.0616,-14.9285,36.2548,34.1227,11.8008,-87.5096,49.0516,-4.2648,7.465,-1.0666,1.0666,-95.9686,-52.2498,
-80.9686,32.0616,0.071549,40.5196,49.1227,26.8008,-72.5096,38.3874,-5.3324,13.8619,-3.1992,-4.2653,-82.1072,-44.7859,
-69.8439,37.8549,5.8649,48.5176,60.2473,11.8008,-57.5096,42.1202,-9.0641,7.998,-13.3294,-1.5996,-83.7058,-52.7829,
-76.2424,35.7218,-0.53354,46.3855,45.2473,11.1962,-72.5096,57.1202,-5.8649,0.53354,1.6706,-1.5996,-90.1042,-45.3184,
-89.5712,24.5251,-8.5311,33.0556,30.9235,26.1962,-86.372,51.1838,-5.3318,5.3318,10.6632,-11.7292,-98.1018,-31.9895,
-97.0357,19.1937,-17.0616,34.1227,41.5861,23.459,-71.372,42.6532,-13.8624,20.3318,-4.3368,3.2708,-94.9025,-41.5872,
-82.0357,30.3904,-10.1301,39.987,56.5861,8.459,-56.372,51.7168,-9.0641,22.926,-6.9309,18.2708,-79.9025,-47.4515,
-69.8439,33.5896,-4.7978,31.4565,66.6458,23.459,-53.8489,49.5847,-10.1301,7.926,-1.5996,12.2633,-67.7108,-43.1863,
-83.1733,31.99,0,29.8579,67.1793,38.459,-68.8489,49.0511,0,0,4.2653,-1.0661,-60.7799,-31.989,
-92.2369,29.3239,-0.53303,34.6562,52.1793,23.459,-54.9155,35.7223,0.53303,1.6001,-1.5991,3.7322,-75.7799,-36.7883,
-82.6403,34.6552,3.7322,44.2528,38.9205,8.459,-39.9155,35.7223,-4.7983,2.6662,-2.6662,5.8654,-83.7063,-41.0536,
-81.5737,21.8599,-0.53354,30.3904,53.9205,23.459,-54.9155,50.7223,-4.7988,1.5996,-2.6657,0.53354,-76.2424,-41.0531,
-94.37,11.1967,-5.8644,30.3899,61.3139,26.1247,-69.9155,58.1147,-0.53303,2.6662,0.53303,-6.9314,-77.3089,-34.6552,
-89.5712,19.1937,-3.1987,39.454,46.3139,11.1247,-54.9155,43.1147,3.1987,8.5311,6.3979,-4.2648,-74.6423,-35.1887,
-76.2419,34.1937,-6.9314,24.454,61.3139,17.5941,-39.9155,43.1857,-11.8013,12.2628,-6.9314,6.9314,-68.7784,-50.1887,
-74.6428,49.1937,-11.7298,20.2603,61.8469,32.5941,-51.1833,58.1857,-22.3924,14.929,-18.1272,11.7298,-72.5096,-55.4485,
-83.1728,49.0506,-12.7963,23.459,46.8469,47.5941,-57.5812,43.1857,-18.1277,13.8624,-12.7963,17.0616,-82.1067,-52.2498,
-77.3084,60.2473,-10.1301,30.3904,31.8469,62.5941,-50.6507,44.2523,-20.7938,10.1301,-13.3294,32.0616,-77.3084,-51.7168,
-68.7779,70.911,-7.997,41.0531,22.926,77.5941,-42.1202,59.2523,-20.7938,7.997,-17.5946,34.6557,-75.1763,-47.4515,
-74.6428,58.6477,-3.1992,40.5206,7.926,62.5941,-41.5867,74.2523,-7.4645,6.3974,-7.4645,21.3264,-73.5767,-37.3214,
-82.6398,50.6507,-5.8649,39.987,19.7268,60.2473,-52.7829,59.2523,-10.1301,5.8649,-7.998,23.992,-79.4416,-41.0531,
-82.1072,56.5146,-13.8619,34.1222,34.7268,75.2473,-56.5156,63.9791,-21.3264,13.8619,-20.2603,33.0561,-87.4386,-49.0511,
-81.0407,67.1788,-14.9285,35.1887,24.5251,76.7754,-51.1838,78.9075,-20.2608,14.9285,-21.3269,19.1937,-83.1738,-49.0506,
-84.2394,62.913,-9.5966,41.5867,15.995,69.3114,-50.1172,63.9075,-15.995,12.7958,-15.995,9.5966,-75.7088,-45.8519,
-85.839,48.5176,-10.1301,30.3904,29.3234,74.1092,-48.5176,48.9075,-17.5946,11.1962,-18.6607,10.1301,-69.8439,-48.5176,
-92.7699,46.919,-8.5305,25.5926,14.3234,67.1793,-47.9841,56.5156,-17.0611,15.995,-18.1271,8.5305,-65.0451,-63.5176,
-106.0993,39.987,2.6657,23.992,-0.67664,64.5126,-49.5837,65.5787,-11.1962,30.995,-6.9309,23.5305,-63.4466,-64.5126,
-119.9622,24.987,-9.0641,23.992,5.8649,54.915,-53.8499,51.7168,-13.3294,30.3904,-5.8649,38.5305,-69.845,-49.5126,
-119.4281,21.3259,-20.2608,34.1217,10.6632,46.9185,-50.1177,57.5812,-14.9284,15.3904,-10.6632,39.454,-59.7143,-39.454,
-115.6964,25.0586,-9.0636,20.7933,17.5941,61.3129,-41.0536,60.2468,-19.7273,9.0636,-17.5951,42.1197,-51.7173,-51.7173,
-109.831,23.4595,-3.1992,5.7933,25.5916,73.5767,-33.0561,45.2468,-34.7273,3.1992,-22.3924,47.9851,-66.7173,-66.7173,
-94.831,27.1907,-3.7322,17.5941,35.7213,67.7113,-31.457,30.3899,-25.0586,3.7322,-7.3924,32.9851,-64.5131,-60.2479,
-87.4386,20.2603,-13.8619,27.7248,20.7213,52.7113,-44.7859,45.3899,-13.8619,9.5966,-9.5966,17.9851,-51.1833,-52.2493,
-95.4356,26.1252,-3.7317,29.3244,5.7213,67.7113,-35.7218,60.3899,-19.7268,13.3294,-22.926,32.9851,-52.7829,-37.2493,
-94.9031,25.5916,0,15.995,9.5966,74.6428,-25.5916,59.7148,-25.5916,0,-22.3924,26.6587,-58.6477,-42.6527,
-105.5657,19.1942,-4.2653,22.3924,24.5966,59.6428,-30.923,46.918,-18.1272,5.3313,-18.1272,11.6587,-51.1833,-57.6527,
-116.2289,6.3979,-5.3318,17.0616,39.5966,50.1177,-28.7903,46.9185,-19.1937,11.7292,-19.1937,5.3318,-54.382,-51.1838,
-115.6964,7.9975,-3.7322,12.2628,27.1907,65.1177,-28.2578,49.5842,-34.1937,3.7322,-7.9975,18.6602,-49.5842,-36.1838,
-104.4997,22.9975,-8.5305,21.3264,23.4595,70.3775,-39.4535,53.3164,-44.7859,7.4645,-7.4645,31.99,-38.3874,-41.5867,
-89.4997,28.7903,-9.5971,9.5971,38.4595,71.4441,-28.7903,40.5201,-33.0556,22.4645,-22.3929,46.99,-38.388,-56.5867,
-96.5027,17.5946,-9.0641,9.0641,37.8539,67.7118,-17.5946,35.7218,-21.8599,37.4645,-21.8599,61.99,-49.5847,-46.3855,
-111.5027,9.5971,-24.0641,15.9955,22.8539,52.7118,-32.5946,50.7218,-28.7903,22.4645,-6.8599,46.99,-46.9185,-33.0556,
-118.8951,1.5996,-36.7878,5.8649,19.7268,37.7118,-41.0531,52.7829,-34.6557,10.1301,-1.5996,31.99,-33.5896,-48.0556,
-105.5662,7.464,-21.7878,8.531,34.1227,52.7118,-28.7903,39.454,-19.6557,25.1301,-7.464,46.99,-45.8514,-59.7143,
-114.0968,2.1326,-15.9945,2.1326,19.1227,61.8464,-31.9895,43.7193,-4.6557,31.9895,-13.8624,46.9185,-60.8514,-44.7143,
-117.296,8.53,-28.7913,8.53,22.3929,59.7143,-26.6582,51.1838,-10.6632,16.9895,-3.1987,31.9185,-45.8514,-50.1177,
-118.8951,7.997,-33.5896,16.5275,18.6607,59.1813,-20.7928,36.1838,-25.6632,3.7317,-3.7317,20.7938,-36.7878,-52.7829,
-109.299,4.7983,-18.5896,16.5281,5.8644,48.5171,-12.2628,31.456,-15.462,18.7317,-4.7983,35.7938,-49.5842,-37.7829,
-101.834,5.8649,-11.1962,10.1301,20.8644,33.5171,-16.5275,34.6557,-5.8649,30.3904,-5.8649,36.7889,-46.3844,-51.7168,
-112.4977,4.7988,-25.0581,6.9309,35.8644,38.921,-16.5275,35.7218,-20.8649,15.3904,-4.7988,21.7889,-36.7878,-54.916,
-123.1604,6.9309,-31.4565,20.7928,20.8644,46.3844,-18.6607,46.3844,-25.0591,17.5936,-6.9309,28.2573,-51.7878,-39.916,
-109.831,8.5305,-16.4565,23.4595,11.7298,49.0511,-25.5916,34.1222,-15.995,23.4595,-8.5305,43.2573,-63.9791,-33.0561,
-107.1658,3.7322,-7.9975,10.1296,26.7298,51.7163,-29.3239,29.3239,-21.8594,8.4595,-3.7322,34.6552,-63.446,-48.0561,
-116.7624,4.7983,-22.9975,12.2628,11.7298,46.385,-30.3899,37.8544,-30.3899,4.7983,-4.7983,19.6552,-69.8445,-33.0561,
-119.4281,3.1987,-24.5261,13.8624,1.0666,42.6532,-15.3899,39.454,-24.5261,19.7983,-1.0666,23.459,-54.8445,-33.0566,
-124.2264,0.53354,-17.5946,14.3954,4.7988,36.7878,-5.8649,31.4565,-16.5275,16.5286,-0.53354,38.459,-39.8445,-48.0566,
-116.2294,9.5966,-12.7958,22.3934,5.3313,34.1222,-5.3313,31.99,-8.5305,8.5305,-5.3313,46.918,-39.4535,-46.918,
-105.0332,5.8649,-10.1301,10.1301,3.7317,31.4565,-3.7317,30.3904,-9.0641,23.5305,-4.7988,53.8499,-45.3184,-48.5176,
-101.301,-1.0666,-1.0666,13.8624,8.53,31.9895,1.0666,28.7903,-8.531,15.9945,-1.0666,43.7193,-36.2548,-56.5151,
-93.836,-1.0661,0,24.5256,15.995,43.7198,4.2653,40.5206,-4.2653,0.99452,-4.2653,28.7193,-31.99,-43.7188,
-83.1733,-4.2653,-11.7298,14.929,26.6577,49.0511,4.2653,28.7908,-17.0611,8.5305,-19.1942,21.3264,-44.7859,-40.5206,
-83.7063,-0.53303,-4.7983,0.53303,41.6577,42.1197,6.9314,13.7908,-31.457,7.9975,-27.1917,25.0586,-49.5842,-55.5206,
-94.9036,9.5961,-2.1326,-9.5971,39.454,39.454,2.1326,22.3919,-30.9235,5.3308,-26.6582,37.3209,-49.0516,-65.0467,
-89.5712,17.0616,-17.0616,5.4029,26.6582,29.8574,-6.3979,31.9895,-35.1887,9.5971,-29.8574,31.9895,-47.9846,-58.6482,
-74.5712,19.1942,-2.1321,11.7298,41.6582,31.99,0,22.3934,-40.5206,0,-33.0561,33.0561,-42.6527,-69.3114,
-59.5712,21.3269,12.8679,-3.2702,56.6582,46.99,6.3979,22.3929,-47.9846,-6.3979,-38.388,48.0561,-39.454,-79.9746,
-74.5712,15.9945,2.1326,-15.9945,41.6582,61.99,3.1987,34.1227,-46.9185,-2.1326,-40.5201,41.5861,-46.9185,-75.7093,
-89.5712,3.1987,-4.2648,-3.1987,26.6582,46.99,8.5311,20.2598,-31.9185,6.3979,-26.6582,31.9895,-47.9846,-60.7093,
-74.5712,-0.53303,7.9975,0.53303,30.3899,31.99,2.6652,6.9304,-36.7883,-3.7322,-31.457,23.9915,-51.7173,-66.6452,
-66.1122,9.5966,4.2653,-4.2653,27.7248,24.5256,4.2653,21.9304,-49.0511,-13.8619,-42.6527,18.1282,-45.8519,-77.842,
-76.2424,16.5275,-0.53354,0.53354,42.7248,18.6607,14.3954,23.992,-38.921,-7.997,-32.5226,23.992,-31.4565,-69.844,
-79.4411,3.7322,3.7322,2.6662,45.3189,29.3239,4.7983,8.992,-37.8544,-9.0636,-31.457,25.0586,-36.7883,-68.7784,
-66.6453,0.53303,7.9975,-10.1307,35.7213,44.3239,14.3949,15.461,-37.8544,-0.53303,-30.3909,40.0586,-33.5891,-66.6453,
-65.0462,15.533,-1.0661,-13.8619,50.7213,59.3239,17.0611,30.461,-45.8519,1.0661,-27.7248,44.7859,-36.2553,-75.7088,
-67.7113,27.1907,-4.7983,0.53303,61.3139,47.451,3.7322,27.1907,-46.385,-0.53303,-23.9925,33.5891,-38.9215,-76.2429,
-82.7113,12.1907,-3.1987,10.6632,46.3139,34.1227,-10.6632,23.459,-35.1887,3.1987,-23.459,35.1887,-27.7243,-61.2429,
-96.5022,6.9314,3.7322,19.7273,31.3139,38.9205,-6.9314,29.3239,-27.1917,9.0636,-17.5941,43.1857,-21.8594,-51.7173,
-81.5022,7.464,7.464,4.7273,25.5921,30.9235,-3.1987,23.459,-40.5201,-2.1326,-31.9895,29.8574,-36.8594,-66.7173,
-73.5757,17.0621,0,2.1331,40.5921,21.3274,0,29.8579,-47.9841,-10.6627,-40.5196,31.99,-42.6527,-81.0402,
-88.5757,14.3954,-10.1301,2.6657,55.5921,36.3274,7.997,33.5886,-37.8549,-2.6657,-25.5196,43.1863,-27.6527,-69.845,
-97.5687,1.5996,-1.5996,-7.997,57.0481,51.3274,10.1301,29.3244,-30.3904,6.9309,-10.5196,30.3904,-19.7268,-64.5126,
-97.0352,0,1.0671,-3.1982,42.0481,42.6537,3.1992,27.7248,-43.7188,0,-25.5196,25.5926,-34.7268,-74.6428,
-99.1683,5.3313,-3.1992,3.1992,28.7908,28.7908,6.3974,31.99,-41.5867,-4.2653,-28.7908,39.4535,-31.99,-63.9801,
-95.4356,1.5996,-1.5996,4.7988,41.0541,43.7908,6.9309,20.7938,-32.5226,-2.6657,-13.7908,31.4565,-16.99,-59.1813,
-101.834,-5.8649,-2.6657,3.7327,27.1912,36.7889,2.6657,11.1962,-37.8539,9.0641,-14.3954,23.993,-20.7928,-70.91,
-109.831,-3.1992,-9.5966,3.1992,17.0611,21.7889,11.7298,26.1962,-43.7188,7.4645,-29.3954,15.995,-35.7928,-72.5096,
-101.3005,1.0661,-7.4645,11.7298,24.5256,11.7298,17.0611,41.1962,-38.3874,-1.0661,-24.5256,2.1321,-42.6527,-70.3775,
-94.37,-10.1307,-3.7322,3.7322,31.456,26.7298,4.7983,26.1962,-35.7223,7.9975,-25.0586,12.2628,-32.5231,-76.2429,
-99.1678,-6.3979,1.0666,8.5311,23.459,39.454,3.1987,11.1962,-31.9895,11.7292,-24.5251,27.2628,-22.3929,-71.4441,
-103.4336,-1.0661,-4.2653,9.5966,13.8619,27.7248,4.2653,26.1962,-35.1893,1.0661,-15.995,25.5916,-25.5916,-68.2454,
-91.7033,-5.3318,-3.1987,3.1987,25.5921,24.5261,4.2658,38.388,-36.2548,14.9285,-4.2648,27.7243,-19.1937,-66.1117,
-92.7699,-4.2653,0,9.5966,10.6637,25.5916,0,23.388,-33.0561,29.9285,-8.5305,42.7243,-17.0611,-60.7799,
-86.9055,-3.7322,1.5991,11.1967,-4.3363,10.5916,2.6662,21.8594,-23.9925,44.2528,-1.5991,49.5842,-18.6612,-53.8494,
-71.9055,-6.9309,-1.5996,9.0641,10.6637,-0.53354,2.6657,36.8594,-25.0591,39.987,0.53354,37.8549,-26.1252,-62.3805,
-69.8439,-6.9309,-2.6657,9.0641,25.6637,14.4665,2.6657,29.3244,-40.0591,30.3904,-14.4665,31.4565,-34.6557,-77.3805,
-79.9741,-4.2653,4.2653,-4.2653,12.7958,29.4665,4.2653,14.3244,-55.0591,15.995,-29.4665,45.8519,-33.0561,-84.2394,
-80.5076,-2.6657,12.2633,0.53354,9.0641,18.6607,13.3294,12.2633,-54.916,0.99502,-22.926,46.3855,-19.7268,-84.7729,
-79.4416,-5.8649,16.5275,5.8649,24.0641,18.6607,20.7928,25.0581,-42.1202,-14.005,-17.5946,31.3855,-16.5286,-81.5737,
-83.1738,2.1326,10.6632,-2.1326,33.0556,24.5251,19.1937,15.9945,-44.7854,-9.5971,-23.459,19.1937,-20.2598,-81.0407,
-83.1728,4.2658,-4.2658,-11.7292,27.7243,21.3269,8.5311,13.8624,-56.5151,5.4029,-28.7903,34.1937,-23.459,-88.5051,
-72.5101,-1.0666,1.0666,-1.0666,26.6582,30.9235,20.2608,28.8624,-41.5151,20.4029,-13.7903,49.1937,-8.459,-74.6423,
-87.5101,-4.7983,-10.1296,4.7983,13.3288,15.9235,20.7933,32.5231,-43.1857,5.8644,-16.5281,36.7883,-15.462,-78.375,
-89.0382,9.0641,-12.2633,-1.5996,27.1912,21.8599,15.4615,17.5231,-58.1857,1.5996,-28.2573,25.0581,-20.7938,-84.7729,
-84.7729,9.0641,-9.0641,-6.9309,42.1912,36.8599,7.997,27.1912,-64.5126,6.9309,-33.5896,36.7878,-20.7938,-85.839,
-89.0382,-1.5996,-13.3294,1.5996,28.2573,38.921,10.1301,33.5886,-63.4466,2.6657,-36.7878,38.921,-25.0591,-87.9721,
-90.1048,0.53303,-14.3949,-0.53303,23.9925,23.921,22.9265,29.3239,-49.5842,9.0636,-21.8594,36.7883,-13.3288,-78.375,
-100.2339,2.1326,-7.464,-2.1326,30.9235,24.5261,20.2608,23.46,-40.5201,18.1277,-8.53,29.8574,-6.3979,-69.3109,
-110.8976,-2.1326,1.0666,-1.0666,29.8574,31.9895,17.0616,23.459,-39.454,24.5261,-12.7953,40.5201,-10.6632,-66.1117,
-106.6328,-3.1992,3.1992,-5.3313,23.4595,29.8569,25.5916,25.5916,-38.3874,24.5256,-12.7958,55.5201,-8.5305,-68.2443,
-99.7009,1.5996,-3.7317,-1.5996,26.1252,30.3904,28.2583,27.1912,-38.921,17.5946,-4.7978,40.5201,-13.3283,-73.0432,
-105.0332,1.5996,-1.5996,-3.7317,19.7268,29.3244,27.1912,27.1912,-32.5226,32.5946,-5.8649,25.5201,-15.4615,-63.4465,
-114.0968,-5.3318,5.3318,-5.3318,17.0616,17.0616,18.1277,19.1937,-39.454,47.5946,-20.8649,40.5201,-17.0606,-68.2449,
-99.0968,-10.6632,13.8624,-10.6632,32.0616,25.5921,27.7243,10.6632,-54.383,39.454,-30.9235,53.3159,-17.0616,-83.2449,
-84.0968,-10.1301,21.8599,-14.3954,47.0616,32.5226,42.7243,12.2633,-50.6507,24.454,-15.9235,38.3159,-13.3294,-81.5737,
-99.0968,-10.1296,6.8599,-4.7983,32.0616,17.5226,33.5891,13.3299,-44.2518,12.2628,-15.461,23.3159,-17.5941,-74.1097,
-114.0968,-4.2648,-2.1326,2.1326,34.1227,13.8624,18.5891,23.459,-37.3209,27.2628,-12.7953,29.8574,-5.3318,-65.0456,
-114.6303,-12.2628,2.6662,-6.9314,45.3189,20.7933,33.5891,9.0636,-42.1197,12.2628,-12.2628,23.9925,-2.6662,-68.7784,
-115.6964,-10.1296,11.1967,-3.7322,36.7883,16.5281,48.5891,1.5991,-34.6552,-1.5991,-1.5991,8.9925,2.6662,-61.3139,
-126.8931,-9.5966,-3.8033,-6.3984,27.7248,4.2653,56.5146,-1.0661,-30.924,4.2653,1.0661,4.2653,1.0661,-58.6477,
-119.4286,-4.2653,-4.2653,3.1982,25.5916,19.2653,45.8519,-4.2653,-28.7908,19.1932,0,19.2653,0,-58.6488,
-106.6328,-5.3324,6.3974,0,21.3264,31.989,55.4485,-5.3324,-30.924,20.2593,0,34.2653,-5.3324,-65.0462,
-105.5657,3.1992,0,2.1331,31.99,27.7248,56.5156,-3.1982,-38.3874,5.2593,-4.2653,23.4595,-5.3313,-66.1122,
-114.0968,5.3308,-2.1326,4.2648,33.0556,26.6582,42.6522,-8.5311,-49.0516,2.1326,-17.0616,24.5251,-10.6632,-61.8475,
-115.1628,-1.0666,11.7292,1.0666,27.7243,26.6582,36.2548,-8.531,-40.5201,17.1326,-14.9284,35.1887,-22.3929,-58.6482,
-120.4942,-7.464,3.1987,8.5311,26.6582,11.6582,36.2548,-3.1987,-33.0556,12.7963,-6.3979,26.6582,-22.3929,-66.1117,
-123.1604,-10.1301,-10.1301,5.8649,21.8589,9.0631,39.987,6.9309,-32.5236,6.9309,-5.8649,36.7878,-7.3929,-60.2473,
-124.7594,-3.1987,-2.1326,6.3979,6.8589,17.0616,42.6532,14.9285,-28.7903,21.9309,-3.1987,44.7854,-5.3318,-51.1838,
-137.5558,-4.2653,6.3974,12.7958,-1.0661,11.7298,36.2553,1.0661,-30.924,10.6627,-1.0661,29.7854,-20.3318,-56.5156,
-132.758,-9.0641,7.997,9.0641,13.9339,22.926,43.1863,1.5996,-21.8599,4.7988,-1.5996,14.7854,-15.4615,-52.7829,
-129.5583,-10.1296,3.7322,-1.5991,12.2628,14.3949,46.385,3.7322,-32.5231,4.7983,-16.5281,1.5991,-13.3288,-62.38,
-119.4276,-2.1321,18.7322,4.2653,10.6637,8.5305,61.385,0,-41.5867,0,-12.7958,16.5991,-5.3313,-57.5807,
-104.4276,-0.53303,33.7322,11.1967,25.6637,21.8604,65.5792,-7.9975,-39.9865,-4.7983,-6.9304,25.0586,0.53303,-42.5807,
-101.834,-0.53354,21.8599,0.53354,40.6637,31.4565,51.7168,4.7988,-47.4515,-4.7988,-16.5275,19.7268,-9.0641,-43.1863,
-113.0307,-3.1987,11.7292,-8.5311,41.5861,21.3269,61.8464,13.8624,-45.8524,2.1326,-15.9945,26.6582,-2.1326,-49.0506,
-126.8926,-7.464,6.3979,2.1326,26.6582,6.3269,60.7804,-1.0666,-40.5201,1.0666,-12.7963,11.6582,-1.0666,-53.3159,
-111.8926,-0.53303,18.6602,12.2628,30.3899,13.3288,53.8494,7.9975,-32.5231,-0.53303,-5.8654,0.53303,-2.6662,-42.1197,
-101.3005,-1.0661,25.5916,-2.1331,38.3874,28.3288,52.2493,4.2653,-36.2553,1.0661,-3.1992,12.7958,-1.0661,-35.1893,
-113.5632,-3.7322,16.5281,-2.6662,31.457,25.0586,50.6502,-7.9975,-32.5231,9.0636,-0.53303,20.7933,0.53303,-38.9205,
-122.0948,-10.1307,4.7983,-3.7322,17.5941,10.0586,51.7163,0.53303,-27.1917,-0.53303,3.7322,5.7933,-4.7983,-52.7834,
-109.298,-1.5991,11.1967,0.53303,22.9265,12.2628,66.7163,13.3288,-26.1247,-15.462,9.0636,-0.53303,-1.5991,-55.9816,
-112.4972,-3.7322,7.9975,-0.53303,20.7933,10.1307,69.8445,-1.6712,-31.456,-18.6602,0.53303,0.53303,3.7322,-42.1197,
-123.1609,-5.8654,6.9304,2.6652,12.2628,4.7983,54.8445,-11.1967,-29.3239,-3.6602,-3.7322,6.9304,-0.53303,-34.6562,
-125.293,-5.8644,11.1967,12.2628,3.7322,7.9975,39.8445,-3.7322,-31.456,11.1967,-13.3288,20.7933,-15.533,-41.0536,
-110.293,-2.1331,19.1932,17.0611,11.7287,17.0611,54.8445,0,-18.1282,0,-10.6637,17.0611,-14.929,-26.6587,
-100.7679,1.5996,19.7268,19.7268,21.8599,18.6607,65.5787,-4.7988,-10.1301,-3.7317,3.7317,2.0611,-1.5996,-25.0581,
-115.6959,-3.7317,5.8649,9.0641,19.7268,11.1962,50.5787,-17.5946,-25.1301,9.0641,3.7317,-12.9389,-12.2633,-40.0581,
-117.296,-4.2658,7.464,4.2648,9.5971,11.7292,42.6532,-19.1937,-30.9235,-3.1987,3.1987,2.0611,-22.3929,-28.7913,
-102.296,1.0666,13.8624,12.7963,7.464,8.531,47.9846,-17.0616,-26.6582,-18.1987,2.1326,-1.0666,-10.6632,-27.7243,
-87.296,5.8649,16.5286,1.5996,21.8599,15.4615,52.7829,-13.3294,-25.0581,-4.7978,-1.5996,-11.1962,4.3368,-31.4565,
-102.296,3.7322,13.3288,1.5991,6.8599,12.2628,45.3189,-7.9975,-23.9925,0.53303,-0.53303,3.8038,-5.8644,-22.9265,
-117.296,2.6662,15.462,16.5991,-8.1401,6.9314,42.1197,-6.9314,-19.7273,-2.6662,14.467,18.8038,-11.1967,-27.1917,
-103.9671,-12.3338,9.0641,1.5996,6.8599,-1.5996,51.7168,-17.5946,-27.1912,2.6657,7.997,3.8038,-3.7317,-42.1917,
-88.9671,-4.7983,19.7273,3.7322,21.8599,-10.1296,66.7168,-3.7322,-15.462,10.1307,-7.003,18.8038,6.9314,-28.2578,
-73.9671,8.53,31.9895,7.464,36.8599,-25.1296,81.7168,-7.464,-17.0616,-2.1326,-4.2658,18.1277,2.1326,-17.0616,
-58.9671,-1.0666,37.3209,11.7292,51.8599,-38.388,92.7704,-22.464,-24.5261,1.0666,7.464,3.1277,3.1987,-29.8574,
-43.9671,-9.5966,41.5867,19.1942,66.8599,-52.2493,105.5667,-22.3924,-9.5261,16.0666,8.5305,-11.8723,18.1987,-23.4595,
-31.9895,-14.9284,38.388,4.1942,81.8599,-67.2493,110.8976,-34.1227,-11.7292,1.0666,1.0666,3.1277,23.459,-22.3929,
-36.7883,-18.6612,32.5231,0.53303,96.8599,-73.0437,102.9006,-36.7883,-14.3959,1.5991,-0.53303,6.9304,17.5941,-22.9265,
-40.5206,-20.2603,26.6577,1.0661,111.8599,-76.7759,95.9691,-37.3214,-15.995,5.3313,-1.0661,5.3313,13.8619,-21.3264,
-44.7854,-22.3919,22.3929,2.1326,126.8599,-78.9075,89.5712,-37.3209,-17.0606,9.5971,-2.1326,4.2658,9.5971,-20.2598,
-48.5181,-23.9925,16.5281,2.6662,119.9617,-82.6403,82.6403,-37.8544,-18.6602,13.3288,-2.6662,2.6662,5.8644,-18.6602,
-51.1828,-25.5911,12.7963,3.1997,106.6333,-84.2389,76.7754,-38.3869,-19.1937,18.1277,-2.1326,2.1326,2.1326,-17.0606,
-51.7163,-25.0586,10.1307,7.9975,94.37,-85.8385,71.9776,-35.7213,-18.6602,26.1257,-0.53303,1.6001,0.53303,-11.1957,
-66.7163,-37.8544,1.5991,3.7322,79.37,-91.1708,86.9776,-50.7213,-3.6602,17.5941,0.53303,-13.3999,2.6662,-13.3288,
-55.4485,-33.0561,16.5991,5.3313,84.2394,-83.1733,101.9776,-63.9791,-5.3313,13.8619,11.7298,-14.9279,8.5305,-9.5966,
-40.4485,-19.7273,31.5991,11.1967,99.2394,-76.2419,101.8335,-48.9791,-20.3313,9.0636,9.0636,-9.0636,9.0636,-20.7933,
-43.1863,-19.7268,37.8549,9.0641,103.9661,-80.5076,106.0993,-37.8549,-9.0641,12.2623,13.3294,-14.3954,15.4615,-19.7268,
-58.1863,-34.7268,22.8549,-0.53303,88.9661,-95.5076,91.0993,-52.8549,1.5991,13.3288,9.0636,-16.5281,0.53303,-15.462,
-73.1863,-34.6562,11.1957,0.53303,76.2419,-85.8395,86.9055,-60.2478,13.3288,23.9915,14.3949,-1.5281,-5.8654,-21.8604,
-58.1863,-21.8599,23.992,1.5996,90.1042,-75.1763,101.9055,-57.0492,21.8589,27.1912,20.7928,-16.5281,-1.5996,-36.8604,
-63.446,-29.3239,14.3949,2.6662,75.1042,-90.1763,95.4361,-63.446,6.9314,16.5281,15.462,-31.5281,-2.6662,-44.2528,
-66.6452,-38.9215,6.9304,-3.7322,73.0426,-96.5022,80.4361,-66.6452,5.8644,3.7322,10.1296,-26.1257,7.9975,-29.2528,
-53.3164,-30.924,15.994,-4.2653,76.7749,-82.1072,84.2394,-62.914,9.5966,7.4635,10.6627,-21.3274,4.2653,-24.5256,
-46.3844,-17.5946,25.0591,9.0641,69.844,-78.3745,86.9061,-57.0481,9.0641,22.4635,18.6607,-17.5946,-9.0641,-25.0581,
-48.5171,-13.3288,15.462,14.3959,74.1097,-87.9716,90.1048,-54.9155,4.7983,31.457,16.5281,-4.7983,-7.9975,-17.5941,
-57.0481,-15.4615,18.6607,13.3283,78.3745,-87.9721,101.834,-48.5176,-1.5996,27.1912,3.7317,-15.4615,1.5996,-27.1912,
-54.383,-15.9945,33.6607,11.7292,78.9075,-72.9721,106.6323,-41.5872,-7.464,33.0556,7.464,-20.2608,11.7292,-28.7913,
-53.8494,-10.1296,20.7933,17.5941,70.9105,-62.38,99.7014,-39.9876,-18.6612,27.1917,10.1296,-5.8644,5.8644,-26.1247,
-57.5817,-4.2653,13.8619,17.0611,75.7088,-73.5767,100.2344,-37.3214,-17.0611,23.4595,4.2653,-5.3313,5.3313,-31.99,
-59.1813,-5.8649,27.1912,12.2623,90.1042,-62.3805,106.0993,-42.1202,-5.8649,25.0581,5.8649,-20.3313,14.3954,-26.1252,
-65.0462,-4.2653,15.994,18.1272,81.0402,-53.3164,101.3005,-49.0511,-20.2603,20.2603,4.2653,-13.8629,8.5305,-28.7908,
-68.7774,-0.53303,6.9314,16.5281,66.6452,-68.3164,93.3029,-46.385,-28.2578,22.9265,-1.5991,1.1371,0.53303,-39.9876,
-60.2468,-2.6662,18.6602,22.9265,75.1758,-77.3089,82.6403,-42.1197,-13.2578,23.9925,2.6662,-7.9975,6.9314,-32.5231,
-59.7143,-6.3979,13.8624,22.3929,76.7754,-62.3089,81.0407,-46.9185,-5.3318,10.6632,5.3318,-22.9975,10.6632,-23.459,
