"AF3","AF4","F3","F4","F7","F8","FC5","FC6","O1","O2","P7","P8","T7","T8",
-192.396,-133.7712,98.5958,1.5987,35.7075,-86.8712,-49.5644,39.9711,49.565,101.7938,-2.6649,11.1921,-12.2577,-1.5987,
-196.1267,-141.7656,92.7337,-3.1977,27.7131,-71.8712,-52.2296,24.9711,46.8998,116.184,3.1977,14.9223,-17.0546,-8.5274,
-211.1267,-148.6938,77.7337,-7.9941,32.5101,-79.4096,-44.2352,9.9711,39.9716,118.8487,9.0603,2.6649,-7.9941,-2.6649,
-226.1267,-152.9574,67.685,-19.7193,28.2465,-94.4096,-54.8942,2.6649,41.0378,108.1897,5.8623,-2.6649,-15.4557,2.6649,
-211.1267,-150.2928,82.685,-7.4613,23.45,-79.4096,-55.427,14.9228,43.7024,111.9199,4.2638,3.1977,-28.7793,-3.1977,
-196.1267,-139.6336,97.685,-3.1974,38.45,-64.4096,-40.427,29.9228,39.439,112.9858,8.5272,0,-23.4498,0,
-182.8031,-129.5077,104.9917,-11.1921,52.7619,-67.685,-38.9054,32.5101,35.7075,108.1897,6.9285,-6.9285,-27.1808,6.9285,
-197.8031,-136.9687,98.5958,-10.1259,37.7619,-82.685,-52.7624,17.5101,38.9055,109.2553,-2.6649,3.7305,-31.4444,2.6649,
-190.2642,-143.3646,110.3215,-10.1259,50.6301,-67.685,-42.1034,16.5213,48.4988,102.8599,0.53308,6.9285,-16.4444,-0.53308,
-180.1382,-134.3043,114.052,0,62.8878,-57.5591,-31.9775,31.5213,46.9001,87.8599,9.5928,-8.0715,-6.3959,0,
-191.8634,-140.6997,99.052,0,47.8878,-72.5591,-44.7683,24.5154,41.5698,79.9422,5.3292,-12.7913,-21.3185,0,
-191.8631,-139.6338,92.7332,-5.3295,39.4388,-57.5591,-51.1634,19.1859,38.3721,94.9422,-8.5274,2.2087,-19.1864,5.3295,
-180.6711,-127.3756,97.5304,-6.9282,47.4329,-45.3011,-52.7621,34.1859,30.3785,108.1899,-18.6534,17.2087,-20.7852,6.9282,
-171.078,-132.7051,110.321,-7.9941,32.4329,-60.3011,-45.3008,39.9711,39.9711,112.4533,-4.7967,4.7967,-16.5213,10.1259,
-161.4849,-144.4305,124.1776,-5.8626,36.7734,-64.4873,-48.4985,24.9711,48.4985,120.9807,4.7964,-4.7964,-12.258,6.9282,
-155.0892,-135.903,133.7712,-6.9285,51.7734,-53.8285,-43.169,9.9711,43.169,109.2553,5.8623,-0.53308,-9.0603,0.53308,
-170.0892,-133.2384,122.5794,-10.6592,36.7734,-53.2952,-45.8342,17.0541,35.1752,105.524,1.0659,5.3295,-14.9228,-1.0659,
-185.0892,-136.4359,116.1835,-1.0659,21.7734,-58.625,-60.8342,18.1203,41.5701,120.4471,1.0659,-2.1315,-15.9885,8.5274,
-176.4077,-132.7056,129.5077,-0.53308,15.4557,-69.8168,-52.7624,17.5875,52.7619,113.5189,7.9941,-17.1315,-11.1921,0.53308,
-175.8747,-127.9084,132.1725,5.3298,22.3841,-74.6135,-37.7624,25.5816,56.4934,100.195,11.7251,-5.3298,-9.5933,-9.5933,
-190.8747,-137.502,123.6451,-1.0659,14.9223,-62.8886,-46.8998,17.0541,44.768,109.7876,1.0659,9.6702,-18.1208,-1.0659,
-196.127,-133.2382,126.8428,-11.7251,8.5272,-47.9657,-54.3611,8.5272,36.2406,118.3156,-6.3954,6.3954,-23.4503,9.5928,
-181.127,-118.2382,137.5023,2.1318,21.318,-47.9657,-42.636,23.5272,39.4385,118.3156,-3.1974,-2.1318,-14.9226,4.2636,
-166.127,-110.8543,134.3041,3.1977,35.1747,-50.0978,-42.6362,35.1747,31.9767,120.4476,-4.2638,3.1977,-7.4613,-3.1977,
-181.127,-117.7828,122.0464,0.53282,20.1747,-46.3667,-51.6965,20.1747,16.9767,120.9807,-15.4554,-0.53282,-12.258,0.53282,
-196.127,-110.854,119.3817,0,5.1747,-39.4385,-53.2955,19.1867,20.2523,122.5787,-22.3841,0,-12.7908,6.3959,
-182.2698,-110.8538,128.9743,-5.3295,9.5931,-34.109,-55.427,34.1867,34.1095,124.7107,-15.9885,5.3295,-15.9885,6.3957,
-167.2698,-112.453,143.9743,0.53282,20.7852,-46.3667,-48.4985,26.1144,41.037,122.0464,-0.98849,-0.53282,-17.5877,6.9282,
-171.6111,-118.3156,155.6218,-8.5272,21.318,-61.3667,-33.4985,23.4498,40.5047,116.1838,8.5272,-7.4615,-2.5877,0,
-179.6052,-125.2441,146.562,-12.2582,17.5875,-66.6193,-30.3783,23.9829,35.7075,108.1897,0.53308,-11.1921,12.2577,-0.53308,
-184.4016,-123.6451,140.6995,-2.1315,17.0546,-51.6193,-41.5701,8.9829,43.7024,112.9866,1.0659,-8.5269,-1.0659,9.5931,
-198.2585,-126.843,138.5677,-11.7249,7.4613,-66.6193,-43.7024,1.0659,50.0978,111.9204,1.0659,-1.0659,-16.0659,6.3951,
-196.1267,-119.3815,144.9636,-15.9885,5.3295,-75.6794,-29.8454,16.0659,35.0978,110.8548,-11.7249,13.8567,-5.3295,8.5274,
-181.1267,-106.0576,156.1551,-18.6534,16.5221,-60.6794,-34.6416,26.1149,20.0978,119.9141,-26.1144,26.1149,-6.9282,11.1918,
-170.5452,-94.8655,160.9518,-7.4613,27.7136,-45.6794,-44.768,13.8572,23.45,125.7764,-18.1203,29.8449,-10.6592,7.4613,
-180.6711,-109.8655,152.9572,-14.3898,18.6534,-60.6794,-41.0375,13.3236,35.7078,117.7828,-12.258,14.8449,0.53282,-0.53282,
-180.6711,-124.8655,146.5618,-29.3124,7.9944,-75.6794,-35.7078,15.4559,23.9831,116.7166,-18.6534,-0.15507,3.7308,6.9282,
-171.6111,-109.8655,152.4249,-14.9226,8.5272,-60.6794,-36.2411,14.9231,23.4503,114.0515,-19.1862,2.1318,-2.1318,5.3292,
-164.1493,-94.8655,162.0175,-6.3951,11.7249,-53.2952,-33.0429,15.9885,36.2408,104.4594,-11.7249,8.5274,3.1977,-3.1977,
-170.0121,-97.5304,151.892,-17.5872,-0.53282,-68.2952,-35.7078,6.9282,22.9175,99.6622,-15.4554,0.53282,2.6646,7.9944,
-176.4075,-98.5961,148.6941,-20.7852,-0.53282,-69.8165,-27.1806,4.7964,22.9175,102.8602,-14.3898,0.53282,4.7964,22.9175,
-184.4018,-94.8658,151.3582,-19.1862,2.1318,-66.0863,-22.3841,5.3292,37.9175,91.6678,-4.2636,-2.1318,7.461,9.5928,
-177.4731,-95.3986,158.2869,-4.1862,-0.53282,-66.6191,-18.6534,9.06,34.6416,99.6622,-0.53282,0.53282,5.8626,6.9282,
-168.4131,-104.4591,159.8859,-14.9231,1.0662,-70.3499,-13.8569,4.2631,19.6416,114.052,-15.5328,12.7903,-1.0662,17.0539,
-170.0121,-98.5966,167.8803,-27.1806,7.9939,-71.9488,-9.0605,3.7303,13.3241,100.7284,-29.3124,5.8626,-3.7303,11.1918,
-164.6823,-83.5966,172.1439,-12.1806,4.7964,-61.2893,-3.7308,14.3898,28.3241,87.9376,-22.917,0.53282,-0.53282,10.1262,
-167.3475,-87.4042,157.1439,-8.5272,-2.1318,-60.7565,-6.3954,9.5933,24.5154,94.8653,-26.6477,15.5328,2.1318,25.1262,
-174.8085,-95.9314,142.1439,-18.1205,0,-75.7565,-18.1205,0,10.6585,89.5355,-35.1749,9.5928,4.2636,18.12,
-160.4187,-92.2012,144.4305,-15.4559,15,-79.4099,-3.1205,1.5985,17.5872,79.4099,-20.1749,-5.4072,18.6529,6.9287,
-160.4187,-107.1233,143.3643,-27.1806,6.9282,-90.0689,11.8795,-13.3236,22.917,78.3447,-17.5872,1.599,11.1918,-1.599,
-164.1495,-103.393,158.3643,-21.3185,-7.461,-95.932,14.9226,-21.3185,37.3062,79.9432,-20.2523,16.599,7.461,13.401,
-160.4187,-96.4643,173.3643,-6.3185,-6.9282,-90.0689,29.9226,-12.258,41.037,66.6196,-5.2523,1.599,22.461,28.401,
-163.0834,-107.6566,182.2695,0,0,-100.195,44.9226,-22.3841,26.037,51.6196,-6.3954,-13.401,24.5154,13.401,
-164.6828,-111.3874,180.6706,-15,3.7308,-112.4535,58.0919,-37.3841,15.4549,59.1575,-21.3954,-0.53282,9.5154,1.5985,
-156.1551,-96.3874,195.6706,-12.258,-9.06,-97.5299,67.6857,-33.576,21.8518,68.7514,-15.4549,9.06,11.1923,16.5985,
-149.2274,-88.4704,191.8624,2.1318,-23.4503,-89.5366,76.7453,-20.2528,14.9226,53.7514,-14.9226,-2.1318,26.1923,31.5985,
-134.3043,-88.4704,191.8629,3.198,-8.4503,-91.6678,91.7453,-12.7908,19.1857,42.636,-14.9231,-3.198,34.1088,16.5985,
-125.7771,-79.9432,198.2588,0,0,-86.3386,101.2607,-23.4503,17.0544,46.8996,-29.8457,-3.198,27.7139,11.7251,
-123.1125,-76.2124,192.3957,-0.53282,-9.06,-71.9488,103.9258,-33.5765,14.3893,48.498,-44.2355,0.53282,26.1144,25.0488,
-128.4418,-85.8058,186.0003,-5.8626,-14.3898,-74.0806,118.9258,-29.3129,25.0483,54.8944,-29.2355,5.8626,27.1806,29.3119,
-135.37,-87.4042,191.8629,-8.5272,-25.5816,-89.0806,122.5787,-31.9775,24.5159,65.0206,-14.2355,8.5272,25.5816,19.1867,
-124.711,-81.0089,202.5224,-12.7908,-24.5159,-85.2725,123.6453,-38.3729,17.0544,71.4155,-18.12,14.9231,37.3067,12.7908,
-122.0464,-74.0806,211.5824,-11.1923,-27.1811,-78.3442,138.6453,-33.576,21.8508,62.3555,-20.7852,11.1923,46.3667,27.7908,
-122.5787,-69.2837,220.6424,-4.2636,-38.3724,-79.9427,153.6453,-25.5816,29.8462,56.4934,-7.4605,4.2636,54.3611,42.7908,
-107.5787,-71.4155,221.7086,-6.3954,-26.6477,-78.8771,154.5567,-35.1749,28.78,65.0201,-5.3298,5.3298,59.6909,33.0436,
-107.1238,-82.6078,222.2409,-3.7308,-17.5872,-90.0694,143.3638,-50.1749,30.378,55.9596,-15.4559,3.7308,57.0262,18.0436,
-120.9802,-95.3986,221.1752,-6.9287,-32.5872,-103.9258,143.3648,-57.0257,34.6416,41.0375,-23.9831,6.9287,60.2242,29.3124,
-106.5904,-90.6017,224.9065,-6.3954,-43.7021,-99.1289,141.7659,-53.295,25.5821,56.0375,-31.977,6.3954,65.0201,34.1093,
-91.5904,-81.0089,239.9065,1.0662,-28.7021,-86.3381,135.37,-43.7021,23.4498,69.2837,-31.977,-1.0662,62.8888,27.7134,
-103.9258,-91.135,245.6917,-7.9939,-29.3129,-96.4643,135.9028,-50.6308,23.9826,54.2837,-34.6421,7.9939,51.6965,21.8513,
-105.5243,-100.195,232.3681,-9.5933,-44.3129,-111.4643,139.6336,-65.6308,9.5933,39.2837,-35.1749,11.7246,49.0314,17.0549,
-90.5243,-88.4704,244.0922,-5.3298,-29.8457,-99.1294,154.5567,-51.1637,17.0539,54.2837,-20.1749,5.3298,62.8888,26.6477,
-75.5243,-75.6796,253.685,-6.3954,-14.9226,-84.1294,144.9628,-37.3072,19.1862,57.5586,-22.3841,6.3954,54.3606,18.1205,
-71.9488,-81.5422,246.7563,-5.8626,-29.9226,-80.4765,129.9628,-52.3072,5.8626,42.5586,-32.5108,15.4554,53.8278,18.6534,
-66.6191,-96.5422,243.5599,-11.1923,-44.9226,-95.4765,127.3761,-63.4211,11.1923,31.4447,-21.8508,11.1923,68.8278,30.378,
-62.8888,-88.4704,249.4214,-6.3954,-43.7021,-101.2612,139.6336,-50.098,18.1205,42.6355,-20.2528,6.3954,78.8765,28.779,
-58.0914,-79.4099,259.5481,-10.1262,-29.3118,-86.2612,133.7715,-46.3662,12.2585,42.1037,-28.2462,10.1262,68.7509,27.1806,
-54.3611,-94.4099,267.542,-11.7251,-34.1088,-98.0637,130.0402,-54.3611,12.7908,36.2401,-23.4503,11.7251,79.9427,26.6472,
-62.355,-108.1894,261.6804,-5.8626,-48.4985,-113.0637,134.8371,-54.8944,12.2585,33.5765,-25.0483,5.8626,82.6073,17.5877,
-62.356,-95.3986,263.8117,-5.8626,-49.5652,-125.2443,126.31,-47.4329,9.0605,32.5098,-30.3785,5.8626,76.2124,22.917,
-50.098,-90.6022,275.004,1.0662,-51.1637,-110.2443,111.31,-51.1637,-1.0662,26.6477,-39.4385,11.7246,68.2181,28.779,
-45.3011,-94.3325,277.6687,0.53282,-57.0262,-114.5848,103.9258,-54.8939,-0.53282,35.7083,-39.9708,26.1144,66.6191,21.8508,
-55.4268,-94.8658,270.7399,-8.5272,-68.2176,-125.7771,102.3273,-57.5591,8.5272,36.2411,-33.0431,20.2523,68.2176,30.9108,
-60.7565,-100.195,260.0809,-6.3954,-71.416,-133.2382,99.1289,-58.6252,6.3954,25.5821,-36.2406,7.461,66.0858,31.977,
-56.4934,-103.393,260.0804,-3.198,-72.4822,-127.9089,93.7991,-52.2298,3.198,34.1088,-35.1754,22.461,77.8104,28.7795,
-54.8939,-106.0576,256.3507,-5.8621,-87.4822,-126.31,79.4099,-46.3667,5.8621,33.576,-29.3124,34.6416,86.8714,28.2467,
-55.4273,-121.0576,251.5538,-14.9226,-101.2612,-140.6997,73.5473,-55.4273,14.9226,23.4498,-25.5821,19.6416,82.0745,19.1862,
-50.0975,-133.2382,255.8179,-14.9231,-94.8658,-144.9633,76.7458,-70.4273,22.3836,24.5159,-23.4503,14.9231,87.4042,19.1867,
-44.7683,-124.711,260.0815,-9.5928,-93.7996,-133.2382,66.0863,-74.6135,9.5928,13.8564,-22.3836,17.0544,89.5366,21.318,
-29.7683,-121.5135,268.6081,-7.461,-81.0089,-118.2382,58.6242,-59.6135,7.461,11.7246,-17.0549,21.3175,90.6017,26.6477,
-30.9113,-127.9084,261.1466,-5.3298,-86.3381,-122.5792,45.8344,-45.8334,5.3298,13.8569,-32.0549,11.7246,81.0089,13.8569,
-38.3724,-130.0407,259.0148,-3.198,-101.3381,-123.6453,40.5047,-60.8334,3.198,9.5928,-47.0549,7.4615,74.6135,9.5928,
-31.4447,-129.5074,265.9435,-0.53282,-116.3381,-110.3207,37.8396,-62.3555,0.53282,4.7964,-47.4324,14.3903,70.8827,24.5928,
-44.7678,-136.4356,252.6194,-2.1318,-131.3381,-121.513,22.8396,-55.4273,2.1318,5.3298,-32.4324,6.3954,57.5596,39.5928,
-48.4985,-144.4305,253.1522,-7.9939,-138.0346,-132.7053,7.9939,-58.0924,17.1318,19.719,-29.3129,13.3241,69.8165,30.3785,
-42.636,-159.4305,260.0804,-8.5272,-149.2269,-147.7053,11.7251,-69.2842,8.5272,9.5928,-43.7026,14.9221,73.5478,18.12,
-33.0431,-167.3469,263.2794,4.2636,-156.688,-162.7053,6.3959,-67.1519,-4.2636,8.5272,-29.8452,11.7251,68.2186,33.12,
-31.9765,-166.2813,268.6086,2.1323,-162.0172,-160.9516,1.0656,-62.8883,10.7364,23.5272,-14.8452,-1.0656,73.5478,40.5047,
-37.3072,-163.0839,281.3989,2.1318,-165.2157,-149.2274,-2.1318,-59.6909,24.5154,30.9103,-21.3185,4.2631,87.4037,25.5047,
-27.7134,-158.8203,285.6625,3.1974,-164.1495,-156.6885,-3.1974,-50.098,19.1862,22.3841,-17.0549,19.2631,89.536,19.1862,
-12.7134,-156.6885,287.7948,10.659,-159.8859,-159.8859,-13.8569,-45.8344,18.1205,22.3841,-10.659,26.6477,82.0745,24.5154,
-6.3954,-160.9521,296.321,6.3954,-159.8864,-146.0295,-28.78,-50.098,19.1862,23.4498,-19.1872,14.9226,82.0745,39.5154,
-0.53333,-159.3531,302.1841,0.53333,-152.9577,-140.1669,-30.3785,-49.5642,25.0483,18.6534,-11.1918,29.9226,91.1345,54.5154,
0.53282,-172.1439,294.7231,0.53282,-164.6828,-155.1669,-44.2355,-62.3555,10.1257,3.6534,-20.7852,17.5872,84.7391,39.9708,
15.5328,-181.2039,306.981,-3.198,-168.4131,-170.1669,-47.9662,-62.8883,12.7908,5.3292,-21.318,3.198,92.7335,40.5047,
13.3236,-194.5275,294.7231,-12.258,-181.7367,-178.5388,-62.3555,-68.7504,14.3903,18.6539,-26.1144,12.258,87.9371,43.1698,
4.7964,-195.5937,286.1959,-4.7964,-194.528,-184.9347,-68.7514,-64.4878,15.4559,16.5216,-23.9831,23.9831,87.9371,33.576,
11.1918,-188.1326,301.1959,-4.7969,-192.3962,-193.4619,-55.9601,-52.7621,25.0483,4.7969,-8.9831,21.8513,102.9371,46.3673,
10.1262,-181.7372,305.382,-7.9949,-203.0552,-193.4619,-55.9601,-55.9601,23.9826,4.7969,-4.7969,18.6534,103.9253,61.2893,
10.1262,-177.4731,293.6569,-10.1262,-214.7798,-184.9347,-70.8822,-54.8934,15.4554,13.3241,-15.4554,23.9826,92.2012,53.8288,
7.461,-171.6105,285.6625,-7.461,-216.3788,-181.2039,-83.1401,-47.9657,8.5277,12.7913,-24.5154,23.4498,86.3381,38.8288,
-0.53282,-164.6823,291.5251,0.53282,-214.7798,-182.8029,-80.4755,-47.4324,9.06,14.3893,-29.3124,16.5216,95.3986,23.8288,
-0.53282,-166.8141,300.0523,0.53282,-210.5163,-184.9342,-84.7391,-47.4324,13.3236,11.1923,-26.1144,12.258,102.8602,15.4559,
1.0656,-158.8198,297.3882,10.6595,-219.5763,-185.4675,-95.9314,-39.438,18.12,-1.0656,-12.7908,21.318,101.2607,19.1867,
-4.7964,-161.4849,287.2615,7.9944,-234.5763,-187.0665,-101.794,-36.7739,26.1144,4.7964,-6.9287,33.576,96.4643,34.1867,
-1.599,-171.0777,278.7348,1.599,-243.5589,-184.9342,-109.2551,-31.4442,31.4442,19.72,-3.7303,33.5765,103.9263,49.1867,
-5.3298,-169.4793,271.8061,3.1974,-244.0922,-191.8629,-124.2551,-28.779,28.779,11.7246,-3.1974,31.977,108.7227,61.8222,
-20.3298,-159.3526,276.6025,1.599,-249.9548,-192.3957,-131.6392,-23.9826,31.4442,10.1262,-1.599,41.038,106.0576,65.5539,
-26.1149,-163.6167,278.7338,4.7969,-252.0871,-196.6598,-127.3761,-28.2462,28.2462,9.0605,-4.7969,38.9057,100.7284,71.9488,
-17.0539,-171.6105,268.6081,7.4621,-248.3558,-196.1265,-134.3038,-31.977,28.78,-2.1318,2.1318,37.3072,105.5248,56.9488,
-32.0539,-184.4013,253.6081,0,-263.3558,-209.9829,-149.3038,-37.3057,34.1098,0,4.2646,36.2411,104.4597,41.9488,
-47.0539,-194.5275,245.6912,2.6651,-278.3558,-224.9829,-164.3038,-44.2355,34.6416,11.1923,-2.6651,37.8396,106.0581,45.3011,
-40.5042,-191.8629,259.0153,1.0662,-263.3558,-220.6424,-162.0177,-41.5708,31.977,12.7913,-1.0662,37.3062,116.1833,60.3011,
-25.5042,-191.3301,261.6804,-2.6646,-248.3558,-220.1096,-152.9572,-38.9057,30.3785,9.0605,2.6646,22.3062,109.2556,48.4985,
-18.6529,-206.3301,256.3507,-2.6651,-233.3558,-235.1096,-163.6167,-49.5647,36.7739,4.7964,2.6651,10.1267,112.453,35.7083,
-19.1862,-221.3301,259.0153,-2.1318,-218.3558,-250.1096,-172.6762,-58.6242,42.6365,2.1318,3.1985,25.1267,126.8428,46.9001,
-22.3841,-227.0378,259.0153,-1.0662,-203.3558,-265.1096,-174.8085,-58.6252,34.1093,7.461,1.0662,40.1267,111.9197,46.9001,
-17.0544,-218.5106,263.2784,-6.3959,-209.9834,-270.7399,-164.1495,-50.0975,37.3067,7.4615,6.3959,38.3724,111.9202,44.7683,
-2.0544,-209.9834,278.2784,0,-198.2583,-262.2127,-156.688,-39.438,46.8996,-5.3292,10.6595,45.8339,126.9202,54.3611,
0,-218.5106,275.0035,0,-197.1926,-263.2789,-171.688,-49.0319,38.3724,-9.5928,2.1313,43.7016,141.9202,65.0206,
-4.7959,-228.6363,263.8117,-2.6646,-212.1926,-268.0748,-186.688,-58.0914,37.8401,2.6646,6.9292,44.2349,132.7059,69.8175,
-19.7959,-238.2301,265.9435,2.6651,-227.1926,-280.8661,-201.688,-59.1575,33.576,-2.6651,2.6651,41.0375,123.1115,54.8175,
-27.7139,-240.8948,262.2127,5.3292,-238.763,-276.0697,-211.0496,-51.1632,38.3724,-3.198,3.198,44.7683,135.3705,43.7016,
-27.7134,-238.7625,249.4225,-1.0662,-237.6968,-261.1466,-222.7742,-53.295,41.5708,1.0662,6.3954,59.7683,135.37,58.7016,
-34.1093,-239.8286,251.5538,-4.2641,-252.6968,-264.3445,-237.7742,-44.7678,36.2406,4.2641,4.2641,74.7683,120.37,73.7016,
-34.6416,-243.5594,249.9548,-3.7308,-255.2845,-270.2071,-243.5594,-36.7739,36.7739,3.7308,4.7964,65.5534,105.37,65.5534,
-28.2462,-244.6255,239.2958,1.599,-240.2845,-271.2733,-239.2958,-49.5652,43.1693,-1.599,3.7303,50.5534,117.7828,50.6309,
-17.5877,-236.0978,254.2958,-2.6646,-225.4388,-263.8117,-232.9004,-47.4329,53.8288,2.6646,13.3241,39.9713,132.7828,46.3673,
-17.0544,-230.2358,266.4763,0,-232.3676,-259.0153,-244.0927,-36.2411,49.0319,0,18.12,54.9713,126.8423,51.1632,
-14.3898,-230.7691,251.4763,14.3898,-229.7029,-256.3507,-248.8891,-32.5108,46.3662,-14.3898,18.6534,51.6965,117.7828,66.1632,
-1.599,-236.0978,237.1645,1.599,-219.0434,-262.7456,-240.3614,-39.9713,43.1693,-15.4554,9.0605,49.5652,131.6392,76.2124,
13.3236,-230.7686,244.6255,0.53282,-229.7024,-265.9435,-252.0866,-39.9708,35.7083,-12.258,-0.53282,63.4211,132.7053,66.6191,
0,-243.0266,241.9604,3.198,-244.7024,-268.6086,-267.0866,-43.7026,31.9765,-24.5159,0,51.1632,117.7053,61.8227,
-10.1262,-242.4937,251.0209,13.3241,-238.2296,-267.0092,-256.3502,-36.7734,42.1037,-16.5211,10.1262,49.5642,116.7171,73.0145,
-15.9892,-238.763,253.685,12.7903,-235.5655,-262.2133,-259.0153,-31.977,33.0426,-1.5211,-1.0662,64.5642,128.9741,70.3494,
-23.9831,-252.0866,249.9548,2.6651,-250.5655,-254.2184,-274.0153,-31.4436,31.4447,5.8631,-2.6651,79.5642,117.7823,71.9483,
-38.9831,-267.0866,239.2958,10.1262,-265.5655,-269.141,-289.0153,-37.8401,42.1037,-9.1369,12.3349,64.5642,110.3212,76.2124,
-52.2298,-277.1353,224.2958,12.7908,-270.7399,-284.141,-304.0153,-49.0319,47.9652,-12.7908,19.1867,49.5642,116.1838,70.3499,
-51.1637,-264.3445,218.5106,11.7246,-268.6081,-278.2015,-317.64,-45.8344,49.0314,-11.7246,15.9882,61.8222,115.1176,83.1401,
-39.9719,-253.1527,220.1096,21.8508,-272.3389,-263.2015,-318.1728,-37.8396,49.5647,-19.7195,19.7195,63.4211,116.7166,86.8714,
-39.9713,-258.482,214.7798,17.5877,-278.7343,-256.3502,-317.1072,-34.6421,50.6308,-17.5877,25.0493,52.7621,124.1776,71.8714,
-50.6309,-265.9435,205.187,15.4554,-289.3933,-271.3502,-328.8318,-39.9714,45.3006,-15.4554,15.4554,51.6965,112.4535,56.8714,
-47.4329,-268.0753,209.4506,19.719,-292.5913,-286.3502,-341.6226,-45.3006,47.4329,-15.4554,15.4554,62.356,107.1233,71.8714,
-46.3673,-265.9435,215.8455,22.917,-279.8005,-271.3502,-342.6888,-43.1693,57.0257,-22.917,30.4554,69.8165,122.1233,86.8714,
-54.8934,-269.141,212.6486,23.9826,-282.9979,-271.2728,-346.9519,-44.2349,59.158,-23.9826,33.5765,67.6852,125.2443,92.2012,
-61.8227,-271.8061,209.9839,24.5159,-285.6625,-271.8061,-351.7488,-44.7683,60.757,-24.5159,36.2411,65.0206,125.7766,89.5366,
-69.817,-274.4712,206.2521,25.0488,-289.3938,-274.4712,-356.5457,-45.3011,62.3555,-25.0488,37.8396,62.3555,125.2438,85.8048,
-77.2781,-277.6682,203.0552,26.1144,-293.6569,-275.5364,-361.875,-46.3667,63.4211,-26.1144,39.9719,59.1575,125.2438,82.6078,
-85.8053,-280.8661,199.8578,27.1806,-296.8543,-276.6025,-366.1386,-47.4329,65.5529,-27.1806,42.1037,57.0257,125.2443,80.476,
-93.7996,-284.5969,197.1921,27.7139,-300.5856,-277.1353,-370.935,-49.0319,67.1519,-27.7139,43.7026,54.3611,124.711,77.8114,
-92.734,-282.4651,195.0603,27.7134,-285.5856,-268.6086,-369.8693,-41.5708,52.1519,-27.7134,38.3729,69.3611,120.4469,76.7453,
-100.7284,-282.9979,180.0603,36.7739,-278.7343,-261.6799,-384.8693,-31.4447,37.1519,-33.576,31.4447,66.6191,111.3874,77.2786,
-97.5304,-280.8661,175.3413,39.9719,-289.3933,-255.2845,-393.8524,-30.378,52.1519,-31.4447,30.378,65.5534,112.453,85.8058,
-87.4042,-277.1353,188.6649,26.6472,-284.5969,-248.3558,-397.5827,-35.1744,63.954,-26.6472,35.1754,80.5534,124.711,84.2063,
-88.4704,-271.8061,197.1921,34.1088,-285.663,-257.9492,-408.2422,-34.1088,57.5591,-36.2411,36.2411,77.8114,127.9089,70.3499,
-78.8771,-270.7399,199.3249,36.2406,-270.663,-259.0148,-406.1099,-30.9113,57.5586,-47.9657,30.9113,62.8114,123.6448,79.9432,
-66.6196,-265.944,203.0552,31.4436,-255.663,-245.6917,-405.5776,-29.3124,55.9596,-36.7739,29.3124,64.4868,123.1115,94.9432,
-79.4099,-268.0753,194.5285,26.1149,-269.141,-243.5594,-415.1699,-36.7734,57.0257,-26.1149,29.3129,78.3447,122.0464,91.1355,
-91.6678,-273.9379,190.7972,30.9108,-263.2789,-241.9604,-405.0443,-30.9108,67.1519,-30.9108,35.1754,77.8114,124.711,92.7335,
-93.2663,-279.8,189.1988,34.6426,-248.2789,-246.7568,-411.9725,-29.3124,52.1519,-45.3011,29.3124,62.8114,119.9146,94.333,
-81.5417,-269.1415,189.1978,30.378,-244.6255,-241.4276,-426.9725,-30.378,41.0375,-34.6416,33.576,76.2119,124.1782,96.4643,
-89.5355,-265.4102,178.007,30.9113,-259.6255,-248.3558,-434.8894,-30.9113,56.0375,-36.2406,38.3729,86.3391,127.9094,85.2725,
-102.3268,-280.4102,174.809,33.0426,-262.2127,-261.1471,-430.6258,-33.0426,71.0375,-45.8339,37.3062,71.416,131.1064,78.8765,
-88.4704,-282.4651,189.809,34.1088,-247.2127,-261.1471,-419.9674,-34.1088,74.6135,-36.2411,45.8339,74.6135,137.5018,93.8765,
-85.2724,-269.6743,184.4013,39.438,-248.3563,-259.0153,-413.5715,-38.3724,59.6135,-39.439,38.3724,84.2063,133.2382,83.1407,
-100.2724,-279.2676,173.7429,37.3067,-262.2133,-274.0153,-410.374,-37.3067,46.8996,-46.9001,42.636,79.9427,133.2382,71.4155,
-115.2724,-294.2676,184.4016,38.3726,-277.2133,-289.0153,-417.8348,-38.3726,61.8996,-38.3726,57.636,83.1409,131.1061,86.4155,
-130.2724,-294.7231,177.4736,33.576,-292.2133,-274.0153,-432.8348,-41.0375,74.0806,-33.576,45.3011,83.6735,116.1061,101.4155,
-124.7105,-279.7231,165.2157,28.7795,-289.9261,-259.0153,-428.494,-28.7795,62.8883,-28.7795,36.2411,83.1407,110.8545,103.393,
-135.9033,-264.7231,152.9572,28.2462,-289.3933,-244.0153,-435.4228,-34.6421,51.6965,-28.2462,36.7734,73.0145,107.1233,88.393,
-150.9033,-264.3445,149.2264,25.5821,-303.7831,-244.0922,-450.4228,-49.6421,65.0201,-25.5821,39.4385,74.6129,102.3268,73.5473,
-163.6167,-268.0753,152.9572,30.3785,-304.3164,-239.2958,-462.0705,-44.2355,79.4094,-30.3785,45.3006,85.8053,112.4525,88.5473,
-171.6111,-275.0035,142.831,34.1088,-304.8492,-240.8948,-447.0705,-34.1088,64.4094,-42.636,40.5047,84.2063,105.5243,103.5473,
-171.0777,-268.0753,139.1007,31.4442,-293.6569,-226.505,-432.0705,-31.4442,49.4094,-34.6421,45.3006,95.3981,101.794,100.7284,
-174.809,-263.2789,148.1608,35.1749,-290.9923,-219.5768,-435.9556,-35.1749,49.0314,-36.2406,50.097,94.8653,108.7217,104.4581,
-186.5336,-270.7399,151.3582,34.1088,-294.1902,-234.4994,-442.351,-34.1088,50.0975,-49.0319,53.2955,79.8653,116.1838,101.2607,
-184.4018,-269.6743,144.9628,31.977,-282.4651,-236.6312,-427.351,-31.977,65.0975,-37.3072,60.7565,73.5473,120.4469,86.2607,
-177.4736,-270.2071,142.2982,28.2467,-278.7343,-235.0322,-429.0274,-38.9052,66.6191,-28.2467,45.7565,79.4099,106.0571,71.2607,
-168.9459,-267.0092,156.1551,26.1149,-270.2071,-220.1096,-430.093,-31.4442,54.8944,-26.1149,35.7078,94.4099,106.0576,86.2607,
-180.6711,-267.0092,148.6936,32.5098,-268.0753,-217.9778,-427.9612,-37.839,59.158,-32.5098,50.7078,100.7284,114.5848,101.2607,
-189.1983,-274.4707,133.6936,34.6421,-267.0092,-232.9778,-425.8294,-44.2349,74.158,-34.6421,65.7078,85.8053,115.6505,106.0576,
-184.9352,-275.5369,129.5069,22.917,-256.3507,-237.1645,-422.632,-37.8401,68.7509,-22.917,50.7078,84.7396,107.1233,97.5304,
-187.5998,-271.8061,136.4361,25.5816,-252.6199,-237.6973,-423.1648,-44.7683,61.8227,-25.5816,58.6247,76.7447,104.4586,89.5355,
-186.0003,-268.0748,146.5628,37.8396,-246.7568,-242.4932,-410.9063,-41.037,76.8227,-37.8396,73.6247,80.4765,115.651,91.135,
-192.3962,-267.0097,135.9023,36.7739,-256.3507,-245.6917,-414.1048,-38.9057,86.8714,-36.7739,67.6847,95.4765,107.1238,92.2007,
-195.0608,-270.7399,126.8433,26.6472,-266.4763,-245.1584,-424.2305,-42.6365,71.8714,-26.6472,62.8883,94.8658,101.2607,99.1294,
-180.6716,-267.0097,141.8433,29.3124,-251.4763,-239.2963,-419.4345,-30.379,78.3432,-29.3124,77.8883,84.7391,116.2607,114.1294,
-180.6711,-258.482,143.3648,33.576,-236.4763,-240.3614,-426.8951,-33.576,67.6847,-44.3124,70.8827,75.1463,113.5187,104.9915,
-180.6716,-251.0209,140.1664,31.4442,-230.7691,-228.6373,-415.1704,-37.8401,67.6842,-31.4442,64.4873,90.0689,109.2545,97.5304,
-187.5993,-260.0809,136.4366,23.4498,-231.3014,-225.9717,-400.1704,-31.977,71.416,-23.4498,69.2837,96.9976,110.854,102.3268,
-188.1326,-256.3507,141.2325,23.9831,-221.1758,-223.3075,-392.7863,-23.9831,70.8827,-27.1811,70.8827,102.8602,116.7166,100.7279,
-189.1983,-256.3507,141.232,19.719,-228.6368,-232.9004,-398.116,-36.7734,68.7509,-19.719,75.1458,103.9253,113.5192,85.7279,
-195.0608,-264.3445,126.8433,24.5159,-234.4994,-247.9004,-392.2535,-38.3724,73.5478,-24.5159,75.6791,94.8658,107.6566,75.6791,
-201.4567,-265.4107,125.7761,26.6477,-224.9065,-246.2245,-377.2535,-26.6477,87.4037,-39.5159,84.2058,85.2725,120.4469,90.6791,
-209.9832,-257.9489,131.1066,28.7793,-239.8289,-243.0263,-375.1988,-28.7793,91.6676,-41.5701,91.6676,84.2071,124.7107,94.8655,
-218.5106,-246.2245,120.4474,31.9775,-254.8289,-256.8835,-379.4627,-31.9775,82.075,-38.3729,85.2719,90.6022,109.7107,79.9427,
-218.5111,-240.8953,114.0515,28.7795,-249.4225,-256.8835,-378.397,-28.7795,81.0083,-36.2411,82.074,88.4699,94.7107,87.4042,
-213.7147,-240.3624,124.1776,27.1806,-234.4225,-249.9553,-376.7981,-27.1806,87.9366,-37.8401,83.673,79.4094,107.1233,90.0689,
-208.3845,-229.7029,133.7715,22.917,-229.7029,-243.5594,-367.2047,-22.917,96.4648,-31.4442,97.5304,90.0689,114.5848,91.1345,
-200.9229,-214.7029,127.3756,22.917,-222.2414,-235.0322,-359.7432,-22.917,101.794,-22.917,103.9263,105.0689,109.2556,100.7284,
-204.1206,-222.2411,119.9148,22.9167,-211.5821,-237.1637,-369.3363,-27.1803,96.4645,-22.9167,92.2009,113.5189,110.322,103.9261,
-203.5875,-231.3014,128.9751,19.1862,-201.4557,-234.4989,-376.2642,-20.2518,93.7996,-19.1862,90.6027,105.5248,122.5792,103.3935,
-196.127,-216.3793,127.9084,22.3841,-202.5224,-227.0383,-382.6606,-22.3841,87.4037,-27.7134,88.4694,94.8653,110.854,90.6017,
-191.3303,-205.1873,118.8482,25.049,-199.8575,-219.0437,-373.6004,-25.049,91.1343,-30.3788,87.9373,99.6615,102.8594,92.2009,
-206.3303,-216.3783,110.8545,21.318,-214.8575,-231.3014,-369.8688,-26.6472,102.3273,-21.318,93.8002,107.6566,108.7222,103.393,
-221.3303,-221.7086,106.5904,22.3841,-229.8575,-239.8291,-373.0673,-37.3067,103.3925,-22.3841,98.0632,107.6561,107.6561,101.2612,
-208.3847,-206.7086,115.6507,22.9172,-214.8575,-224.8291,-358.0673,-27.1808,97.5307,-22.9172,109.2548,115.6507,115.6507,104.9912,
-198.2585,-205.7196,110.8538,18.1203,-199.8575,-228.1037,-343.0673,-18.1203,82.5307,-29.8454,102.3266,112.9861,111.9204,100.1953,
-204.6534,-213.1806,109.7886,24.5157,-184.8575,-235.5648,-335.7598,-24.5157,85.2727,-26.6475,98.0635,122.5794,114.0522,98.0635,
-201.9893,-210.5165,113.5189,25.049,-169.8575,-224.3734,-332.0295,-27.1808,100.2727,-25.049,101.7938,131.6389,122.0461,101.7938,
-201.456,-209.9832,114.0522,20.2521,-154.8575,-223.8401,-325.1013,-20.2521,98.0635,-27.7136,102.3271,118.3158,132.1723,105.525,
-204.1206,-223.3073,119.9143,16.5213,-139.8575,-230.7683,-319.2387,-26.1147,110.3215,-16.5213,104.9922,118.8487,141.2323,109.2558,
-217.9778,-229.7024,116.7166,16.5216,-138.0346,-231.8342,-321.3703,-41.1147,112.453,-16.5216,106.0581,119.9146,129.5074,107.1238,
-217.4452,-220.6427,111.9199,14.9228,-132.1728,-219.577,-311.2449,-39.4388,97.453,-14.9228,98.0635,118.3148,121.5128,111.9199,
-209.9834,-219.5763,107.6566,8.5272,-127.9084,-225.9722,-306.981,-27.7134,82.453,-8.5272,83.0635,127.9089,112.9858,104.4586,
-207.8516,-208.9173,112.9863,18.1205,-140.6992,-231.3014,-310.1785,-26.6477,95.932,-18.1205,73.5473,132.172,106.5904,96.9976,
-192.8516,-193.9173,127.9863,23.9826,-128.4412,-216.3014,-296.8543,-23.9826,94.3325,-25.0488,84.7396,119.9151,114.5848,108.1899,
-191.8631,-200.3903,118.3153,22.3839,-122.5789,-201.456,-295.2556,-31.9772,79.3325,-22.3839,77.8117,110.8538,109.7881,108.7225,
-206.8631,-214.7798,108.1899,27.1806,-137.5789,-216.456,-297.9205,-38.9052,78.3447,-27.1806,79.4104,122.0464,110.3212,111.3869,
-220.6424,-207.8516,117.2494,29.8452,-138.5674,-218.5106,-282.9205,-30.9113,93.3447,-29.8452,94.4104,120.4474,125.3212,116.1838,
-219.0437,-212.6483,102.2494,20.7854,-141.2328,-223.3073,-289.3936,-43.1696,108.3447,-20.7854,100.7281,105.4474,120.9805,101.1838,
-224.3732,-225.4388,87.2494,7.9944,-156.2328,-236.0978,-298.9861,-50.6303,110.3217,-7.9944,89.0037,115.651,108.1894,106.0581,
-224.3732,-216.9116,89.0037,16.5216,-158.2869,-228.6368,-292.5913,-38.9057,118.8489,-16.5216,92.2007,128.4418,115.651,118.8489,
-221.7081,-211.0491,95.932,23.4498,-150.2926,-220.6424,-290.9918,-36.2406,106.5904,-23.4498,87.4048,117.2499,109.7884,103.8489,
-209.4501,-212.648,100.7284,15.4554,-155.089,-220.1096,-284.0636,-37.8396,92.2012,-15.4554,82.6083,118.8484,102.8597,92.2012,
-194.4501,-203.0552,110.3212,18.6534,-140.089,-222.2414,-270.2071,-34.6421,84.7396,-18.6534,74.0801,118.8484,103.9253,106.0576,
-183.3357,-191.8629,116.1843,23.4498,-125.089,-211.0491,-257.9491,-29.8452,83.1412,-23.4498,76.7453,112.9863,109.7884,106.5904,
-193.9949,-193.9949,104.4584,27.7136,-110.8543,-196.0491,-261.1474,-28.7798,78.8768,-27.7136,82.0748,117.2492,112.9856,107.6563,
-194.5275,-195.5937,89.4584,27.1806,-125.8543,-184.9347,-263.8117,-27.1806,78.3447,-27.1806,79.4104,124.1787,104.992,113.5192,
-191.8629,-195.0608,84.2063,20.2523,-130.0407,-193.9947,-256.8835,-23.4498,82.075,-20.2523,82.075,125.7766,95.9314,115.1181,
-200.9232,-192.396,91.1353,21.8511,-125.2441,-198.7914,-253.1525,-27.1803,84.7394,-21.8511,87.9373,120.9805,95.3989,100.7281,
-197.1931,-187.5998,95.9314,24.5159,-111.9207,-189.7316,-247.2907,-33.0436,95.9314,-24.5159,95.9314,124.711,103.393,91.6678,
-183.3362,-183.3362,98.0627,28.7795,-103.393,-184.4018,-232.3676,-28.7795,95.9314,-28.7795,92.7335,128.9746,98.0627,106.5899,
-182.8029,-182.8029,100.7284,22.917,-110.3212,-188.1321,-223.307,-22.917,80.9314,-43.7795,77.7335,118.8484,87.9376,111.3869,
-180.1382,-174.809,102.3268,13.8569,-105.5248,-180.1382,-221.7086,-13.8569,75.6786,-39.4385,78.8765,124.7105,94.8653,112.9853,
-180.1382,-170.5454,90.6017,18.1205,-103.393,-179.0726,-227.0383,-18.1205,85.2724,-29.8457,85.2724,124.7105,91.6673,117.2489,
-178.5395,-174.2759,90.0691,22.9172,-101.7943,-179.6052,-212.6483,-32.5101,95.3984,-22.9172,92.2004,115.6507,97.5307,113.5184,
-175.8747,-173.7429,95.9314,20.2523,-93.8002,-182.27,-198.2588,-39.439,103.393,-20.2523,103.393,115.1171,111.9202,101.2607,
-178.0064,-171.6111,86.3376,20.2523,-89.5366,-193.9952,-205.7203,-34.1093,104.4586,-20.2523,103.393,127.9079,105.5243,96.9971,
-178.5393,-180.6711,74.0801,19.719,-97.5304,-206.2527,-208.3845,-37.8396,102.8597,-19.719,96.4648,133.7715,98.5961,97.5304,
-190.2639,-188.1321,68.7509,28.2462,-112.5304,-200.9234,-208.3845,-49.5647,97.5304,-28.2462,91.1345,123.112,97.5304,91.1345,
-205.2639,-183.3354,71.4163,28.7793,-123.6451,-188.6652,-206.7857,-39.4383,100.1958,-28.7793,95.9312,132.1723,89.5363,101.2614,
-198.7914,-168.9457,76.2122,21.8511,-110.321,-188.1324,-197.7252,-24.4383,109.2553,-21.8511,108.1897,139.1005,96.4645,116.2614,
-190.2639,-165.748,67.6852,31.4442,-99.6622,-190.2639,-195.5937,-36.7734,111.3869,-31.4442,110.3212,124.1005,110.3212,111.3869,
-193.9947,-174.8085,65.0206,28.7795,-94.8653,-176.9403,-187.5993,-41.5703,104.4586,-28.7795,102.3273,123.6453,105.5253,105.5253,
-190.2642,-168.9462,71.9491,23.9829,-90.0691,-165.7482,-176.4072,-30.3783,97.5307,-23.9829,92.2004,124.1779,94.3327,101.7943,
-188.1324,-159.3533,67.685,29.3126,-92.2009,-168.9462,-177.4734,-29.3126,95.3989,-38.9829,89.003,119.9138,98.5958,95.3989,
-199.3242,-164.1493,65.0209,30.9111,-92.7337,-169.479,-182.2698,-30.9111,93.7994,-49.0316,91.6681,124.7112,95.9317,95.9317,
-205.7201,-169.4795,68.2173,31.9772,-95.9317,-173.7431,-181.2041,-31.9772,87.404,-38.3731,87.404,114.0512,80.9317,94.8655,
-198.2585,-160.9518,71.4163,33.0429,-91.6676,-176.94,-173.7426,-33.0429,93.7999,-49.0316,95.9312,103.3927,73.5476,99.1291,
-197.1924,-156.6882,65.0209,35.1747,-98.063,-181.2036,-180.138,-35.1747,94.8661,-54.3609,94.8661,118.3927,88.4701,96.9973,
-192.929,-159.8859,61.8227,33.0431,-96.9976,-181.2044,-173.7429,-33.0431,87.4042,-39.3609,87.4042,133.3927,81.0083,99.1294,
-189.1978,-150.8254,61.2903,31.4442,-81.9976,-171.0777,-158.7429,-31.4442,98.5961,-34.6416,99.6627,122.0464,79.4104,109.2556,
-198.7914,-144.4297,53.828,36.7737,-76.2122,-177.4729,-143.7429,-36.7737,100.7286,-45.3008,99.662,111.3871,82.6076,98.5963,
-193.4616,-147.6277,54.8947,29.3121,-69.8168,-175.3416,-138.0348,-29.3121,90.0691,-35.708,86.8712,126.3871,81.5419,91.1348,
-180.1382,-143.8972,58.6252,26.6477,-68.2181,-160.3416,-144.9633,-26.6477,88.4704,-35.1749,91.6684,128.9741,77.8109,96.9976,
-179.0718,-133.2379,65.0204,33.0429,-68.2178,-153.4903,-137.5015,-33.0429,101.2614,-43.7019,87.404,113.9741,78.8768,105.525,
-185.4672,-137.5015,61.8224,27.7136,-66.086,-160.9518,-131.1061,-27.7136,99.1291,-43.7019,76.7455,107.6563,76.7455,101.2614,
-194.5278,-146.562,48.4988,25.0485,-66.6188,-161.4846,-132.7051,-25.0485,85.8055,-45.3008,85.8055,103.9256,68.7511,91.1348,
-189.1983,-142.2982,53.8283,29.3124,-61.2893,-150.8254,-118.8484,-29.3124,96.4643,-38.9057,92.2007,99.6622,71.9483,97.5309,
-181.7372,-134.8371,65.5534,32.5103,-62.3555,-154.0238,-111.3874,-36.7739,99.6622,-32.5103,78.3442,104.9915,69.817,97.5299,
-186.0003,-138.0346,57.0262,33.576,-67.6847,-163.6167,-120.9802,-38.9057,89.0027,-33.576,75.1463,108.1894,63.4211,87.9371,
-182.8026,-144.4302,47.4326,30.3783,-64.487,-160.419,-119.9143,-30.3783,96.4645,-30.3783,80.4758,109.2553,70.8829,94.3322,
-175.3413,-138.0346,50.6308,31.4442,-70.8827,-164.6823,-111.3874,-31.4442,86.8709,-42.1031,67.6852,102.8597,67.6852,96.4648,
-163.6164,-126.3097,60.2239,35.708,-64.487,-154.0231,-99.662,-35.708,74.0804,-57.026,67.6855,101.7943,64.4875,91.1348,
-156.1551,-128.4418,62.3555,37.8396,-49.487,-148.6936,-100.7279,-37.8396,83.6735,-57.0257,70.8827,95.3986,65.5534,89.0027,
-162.5505,-131.6397,60.2232,32.5103,-41.0375,-163.6936,-106.0576,-32.5103,86.8714,-52.7626,58.0919,87.9371,57.0262,83.6735,
-161.4844,-116.7166,67.6852,22.917,-47.4324,-178.6936,-91.135,-22.917,73.0145,-45.3006,57.0257,102.9371,51.6965,85.8053,
-162.0175,-104.4589,65.0204,28.7793,-44.768,-193.6936,-79.943,-28.7793,72.4819,-44.768,57.5588,114.0522,53.2952,89.5363,
-160.419,-115.6512,55.9598,29.3126,-36.7742,-208.6936,-80.4763,-29.3126,87.4819,-47.4332,64.487,99.0522,60.2234,89.003,
-152.4246,-118.3153,57.5593,21.3182,-24.5157,-193.6936,-75.6794,-21.3182,86.3389,-49.0316,75.6794,85.2722,57.5593,82.0742,
-157.2208,-111.3869,50.6303,20.7852,-26.1144,-178.6936,-81.5417,-20.7852,71.3389,-51.696,66.6191,94.333,46.3667,76.2129,
-165.2154,-109.7881,51.1634,26.6475,-35.1747,-163.6936,-77.8112,-26.6475,74.6137,-46.8998,60.7563,99.1296,54.3614,86.3389,
-159.3528,-111.3871,59.1578,30.3783,-30.3783,-148.6936,-62.8112,-34.6419,81.5414,-55.9598,59.1578,84.7394,55.9598,85.805,
-156.688,-119.3812,62.8883,17.0544,-17.0544,-133.6936,-53.295,-41.5703,66.5414,-70.9598,50.0975,75.6791,41.5703,71.4155,
-150.2923,-116.1835,66.0865,18.1203,-18.1203,-118.6936,-54.3609,-28.7793,68.2178,-60.7563,52.2301,84.2066,42.6362,74.6137,
-151.8913,-110.321,60.2234,21.8511,-21.8511,-103.6936,-55.9598,-25.0485,66.6193,-53.828,45.3014,80.4758,38.9055,69.8173,
-152.9572,-114.5848,59.158,6.9282,-6.9282,-103.9253,-67.6847,-34.6416,58.0924,-65.5529,33.5765,71.9488,31.4442,62.356,
-145.4956,-112.453,63.4216,6.9282,-6.9282,-99.6617,-67.6847,-43.1688,55.9601,-79.4099,31.4442,66.6196,31.4442,63.4216,
-135.37,-110.854,63.954,1.0656,-1.0656,-94.8658,-52.6847,-56.4929,45.8339,-83.1407,26.6472,66.0863,23.4503,50.0975,
-134.8371,-113.5187,62.3555,-13.9344,13.9344,-83.6735,-38.9052,-53.8283,35.7083,-79.4099,19.7195,71.9483,16.5216,39.9719,
-144.9633,-110.854,54.3616,-7.461,7.461,-87.4042,-53.9052,-41.5703,40.5042,-77.8109,21.3185,63.9545,22.3841,54.3616,
-141.2325,-100.7279,63.4216,6.9282,-6.9282,-91.1345,-48.4985,-32.5098,55.5042,-62.8109,36.3185,68.7509,37.3841,65.5529,
-145.4961,-102.8602,67.6852,0.53333,-0.53333,-101.794,-33.4985,-45.3011,64.4873,-52.7621,43.1693,71.9488,36.7734,50.5529,
-151.8915,-113.5187,52.6852,-11.1923,11.1923,-111.3869,-39.9708,-60.2237,49.4873,-67.7621,28.1693,57.0262,21.7734,35.5529,
-154.0233,-112.453,37.8401,-11.1918,12.2585,-108.1894,-43.1693,-51.6965,35.7078,-79.4099,13.1693,50.6309,12.2585,43.1693,
-164.1495,-103.393,47.9657,-1.0662,1.0662,-106.5904,-38.3729,-36.6965,50.7078,-64.4099,22.3841,61.8222,22.3841,53.295,
-158.2869,-89.0027,62.9657,-2.6646,2.6646,-94.3325,-29.3124,-21.6965,53.8288,-49.4099,37.3841,73.0145,33.5765,61.2893,
-147.6279,-81.5417,51.6965,-7.9939,7.9939,-87.9371,-29.3124,-17.5877,50.6308,-36.7739,35.7078,66.6196,32.5098,46.3673,
-149.2264,-86.3381,39.439,-8.5272,8.5272,-93.7996,-36.2406,-24.5159,43.7026,-51.7739,20.7078,60.757,23.4503,35.1754,
-142.8315,-87.4042,52.2293,-15.9882,15.9882,-95.9314,-42.6365,-38.3729,41.5698,-66.0863,15.9882,61.8222,21.3185,47.9657,
-138.5679,-82.075,57.5591,-15.9887,19.1857,-99.1294,-47.9662,-53.3729,36.2401,-73.5478,19.1857,51.1632,15.9887,32.9657,
-143.8972,-75.6791,54.3616,-14.9226,21.3185,-90.6017,-44.7678,-42.636,36.2406,-75.6791,25.5821,51.1637,14.9226,28.78,
-148.6936,-71.9483,55.9601,-17.5877,19.719,-91.135,-44.2349,-31.4442,33.5765,-80.476,28.2462,53.8288,17.5877,43.78,
-144.4305,-70.8827,65.5534,-20.7852,21.8508,-102.8602,-37.8401,-42.1037,29.3124,-75.1468,25.0488,55.9596,20.7852,43.1688,
-143.3638,-74.0801,70.8832,-22.917,23.9836,-92.2007,-22.8401,-43.1688,32.5108,-71.9483,20.7857,62.356,18.6534,28.1688,
-136.4361,-65.0206,72.4817,-10.659,21.3175,-77.2007,-14.9226,-31.977,34.1083,-81.0094,17.0539,58.6242,10.659,40.5042,
-121.4361,-50.6303,77.2786,-13.3236,36.3175,-73.0145,-15.4559,-33.576,39.9719,-73.0145,14.3903,50.6303,13.3236,47.4334,
-123.112,-57.0262,70.8827,-27.1811,44.2355,-76.2124,-12.258,-48.576,42.1031,-61.2898,12.258,47.4324,16.5216,32.4334,
-138.112,-70.3499,63.9545,-29.8457,29.2355,-91.2124,-13.8569,-57.5591,45.8334,-71.416,15.9882,49.0314,13.8569,18.1205,
-151.8915,-77.2786,66.6191,-36.7739,15.4559,-106.2124,-15.4559,-51.6965,43.1688,-84.7396,20.7852,45.3011,15.4559,27.1801,
-136.8915,-74.6129,66.0868,-33.0426,22.3841,-96.9971,-14.9226,-60.7565,28.1688,-85.2724,15.9893,40.5042,14.9226,21.3185,
-121.8915,-75.6791,66.0863,-30.9108,28.7795,-88.4699,-12.7908,-62.8883,35.1754,-77.8109,12.7908,42.637,12.7908,15.9887,
-132.7048,-68.7504,76.2124,-33.5754,28.2472,-98.5961,-14.3898,-49.5642,48.4996,-73.014,18.6534,47.4329,14.3898,16.5221,
-141.2325,-62.3555,81.5417,-31.4442,16.5221,-97.5304,-15.4554,-47.4329,39.9714,-71.9483,21.8513,50.6308,15.4554,18.6534,
-136.9695,-69.817,69.816,-46.4442,18.6529,-93.2673,-4.7964,-62.356,24.9714,-86.9483,6.9277,41.0375,4.7964,10.1257,
-125.2438,-66.6191,60.2237,-48.4985,33.6529,-92.2007,7.9939,-58.0919,11.1918,-87.9371,-1.599,33.5765,1.599,6.9282,
-129.5079,-70.8832,53.8278,-43.1693,43.1693,-99.6627,-2.6646,-58.0924,7.9939,-79.4104,3.7303,29.3119,2.6646,14.3898,
-132.1725,-69.2837,62.8888,-46.9001,34.1093,-98.0632,-4.2641,-55.4273,14.9226,-78.8771,12.7913,30.9113,4.2641,18.1205,
-131.1059,-54.3611,73.5473,-45.8334,47.9657,-83.0632,4.2641,-53.295,12.7913,-91.6678,2.1318,17.0549,-2.1318,6.3954,
-132.7053,-53.8283,74.0801,-44.2349,62.9657,-68.0632,10.1262,-59.158,14.3898,-101.794,1.599,4.7969,-1.599,6.9282,
-144.43,-66.6191,63.4216,-42.1026,59.158,-83.0632,2.6646,-71.9483,9.0605,-110.3212,4.7969,2.6646,-2.6646,4.7969,
-136.9689,-59.1575,65.5529,-46.3667,54.8944,-80.4755,3.7313,-67.6847,2.6646,-104.9915,5.8626,16.5221,5.8626,-2.6646,
-129.5074,-58.0919,60.2242,-58.0919,58.0919,-65.4755,1.5995,-65.5529,11.1923,-91.1345,-0.53282,28.2467,0.53282,3.7308,
-126.8428,-49.0319,56.4929,-43.0919,63.9545,-60.757,10.659,-50.5529,26.1923,-76.1345,6.3954,42.6365,-6.3954,18.7308,
-141.8428,-51.6965,43.1693,-49.5647,61.2893,-66.6191,10.1262,-45.3006,31.4442,-61.1345,4.7969,41.037,-4.7969,33.7308,
-152.4244,-61.8227,39.4385,-59.6909,57.5586,-56.4929,4.2641,-58.6247,28.779,-66.0863,3.1974,38.3729,-3.1974,18.7308,
-141.7659,-60.757,51.1637,-51.1637,52.2293,-52.2298,9.5933,-61.8227,37.3062,-65.0206,5.3298,49.0314,-5.3298,13.8569,
-139.6341,-63.9545,61.8227,-54.3616,45.8339,-60.757,8.5272,-60.757,34.1088,-59.6909,3.198,43.7016,-3.198,28.8569,
-141.2331,-64.4878,73.0145,-52.7626,55.9601,-65.5534,9.0595,-57.0262,32.5098,-67.6852,5.8626,31.4442,-5.8626,16.5211,
-128.9741,-56.4924,79.9432,-43.7016,70.9601,-55.4268,24.0595,-47.9652,47.5098,-76.7447,17.0549,37.3072,-6.3954,6.3954,
-127.9089,-52.2293,82.075,-41.5703,82.075,-46.9001,25.5816,-59.6909,42.636,-73.5473,12.7908,34.1088,-12.7908,12.7908,
-132.7053,-43.1693,87.9371,-30.378,79.4099,-37.8396,19.7195,-51.6965,43.1688,-58.5473,12.258,23.9831,-12.258,23.9831,
-135.9033,-41.0375,72.9371,-38.9057,75.1463,-39.9719,25.0488,-36.6965,46.3667,-48.4991,12.258,16.5216,-12.258,18.6529,
-128.9751,-40.5047,57.9371,-44.7683,76.7447,-43.7026,40.0488,-38.3724,38.3724,-57.5591,11.7251,29.8452,-11.7251,12.7908,
-122.0464,-48.4991,62.3555,-46.3673,91.7447,-33.576,47.4324,-51.6965,30.378,-58.0919,9.06,38.9052,-9.06,10.1257,
-118.3151,-37.3062,72.4817,-44.7678,106.7447,-18.576,37.3072,-41.5698,30.9113,-52.2293,2.1318,33.0436,-10.659,7.4621,
-118.3156,-28.78,67.1524,-47.9657,109.7884,-3.576,27.7134,-30.9113,22.3841,-58.6252,-6.3954,31.977,-21.3185,6.3954,
-117.2494,-34.1088,73.5478,-41.5703,107.6566,-7.4615,42.7134,-28.7795,10.6595,-73.6252,7.4615,39.438,-18.12,21.3954,
-125.7771,-38.3729,76.7447,-29.8452,112.9858,-18.12,49.0319,-36.2411,13.8564,-88.6252,11.7251,26.6472,-11.7251,15.9887,
-135.9033,-38.9057,70.8822,-44.8452,110.3212,-3.12,42.1026,-48.4985,28.8564,-73.6252,2.6646,26.1139,-15.4564,0.98874,
-138.5674,-43.7021,60.7565,-56.4929,100.1955,10.659,37.3072,-45.8334,25.5821,-62.8883,-2.1318,37.3072,-27.7134,2.1318,
-135.9033,-49.5647,58.0919,-41.4929,110.3207,0.53282,46.3667,-32.5103,13.3236,-77.8883,-0.53282,25.0488,-29.3124,9.06,
-127.3756,-49.5647,55.9606,-38.9052,125.3207,-0.53282,59.1575,-30.378,18.6539,-67.6847,0.53282,20.7852,-18.6529,6.9287,
-124.1782,-38.9052,48.4991,-39.9719,136.9689,2.6651,61.2898,-34.6416,17.5872,-52.6847,-2.6651,33.576,-21.8508,3.7308,
-120.4474,-37.3067,50.0975,-33.0431,130.0402,0,58.6247,-33.0431,18.12,-59.6909,0,37.3067,-26.6482,5.3292,
-111.9202,-36.2411,58.6247,-21.318,134.3038,-12.7908,58.6247,-25.5816,30.9108,-63.9545,12.7908,43.7016,-17.0544,14.9231,
-114.0515,-31.977,63.9545,-23.4498,142.8315,-13.8569,58.6252,-19.1862,25.5821,-51.1632,13.8569,54.3616,-14.9226,18.1205,
-122.0458,-35.7078,66.6196,-38.4498,144.43,-5.8626,57.0257,-26.1149,10.5821,-66.1632,5.8626,39.3616,-25.0483,10.1262,
-115.1181,-36.2411,66.0863,-24.5159,144.9633,-12.7908,58.6247,-33.0431,15.9887,-81.1632,13.8564,24.3616,-17.0544,12.7908,
-115.1176,-41.5703,51.1637,-23.4498,146.0295,-11.7246,65.0201,-40.5047,19.1862,-95.9314,14.9226,12.7913,-14.9226,11.7246,
-112.9863,-46.9001,54.3606,-37.3072,161.0295,-5.3298,80.0201,-39.4385,17.0539,-80.9314,7.461,11.7246,-22.3841,5.3298,
-97.9863,-35.1749,69.3606,-22.3072,176.0295,-20.3298,94.8658,-27.7129,23.4503,-65.9314,15.9887,26.7246,-11.7251,11.7251,
-91.6678,-26.6472,74.6135,-17.0544,183.3357,-31.9775,93.8002,-25.5816,13.8564,-66.0863,10.6595,38.3724,-10.6595,11.7251,
-95.932,-11.6472,71.4155,-25.5816,168.3357,-16.9775,88.4699,-21.318,4.2636,-70.3499,-4.3405,23.3724,-25.5816,4.2636,
-84.2068,3.3528,69.2837,-18.1205,157.7536,-1.9775,76.7453,-19.1862,5.3297,-71.416,-7.461,8.3724,-35.1749,-1.0662,
-71.9488,18.3528,63.4216,-18.6534,158.2874,13.0225,68.7509,-19.719,3.7303,-84.7396,-3.7303,6.9282,-34.6421,-3.7303,
-66.6191,31.4447,70.8827,-16.5216,160.4192,28.0225,75.1463,-15.4559,3.7308,-86.8714,-4.7964,13.3236,-41.0375,-3.7308,
-78.8771,25.5816,71.4155,-20.2523,145.4192,35.1744,79.9427,-19.1867,7.4615,-71.8714,-5.3292,5.3292,-45.8339,-5.3292,
-93.8771,10.5816,56.4155,-25.5821,130.4192,20.1744,69.2837,-21.3185,3.1974,-71.416,-4.2641,12.7903,-42.6365,-3.1974,
-97.5309,17.5867,60.2237,-23.9836,141.232,17.5867,78.3437,-7.9949,-1.599,-84.7396,-5.8626,19.719,-36.7744,1.599,
-82.5309,24.5159,75.2237,-28.7795,156.232,15.9877,93.3437,-4.2636,6.3949,-88.4704,-5.3303,4.719,-30.9118,-5.3303,
-78.8771,19.1862,85.2724,-17.0549,165.2152,5.3297,94.8653,-4.2641,18.1205,-86.3386,1.0662,-1.0662,-24.5164,-8.5277,
-86.8714,18.6534,70.2724,-14.3898,159.3531,2.6646,82.6073,-2.6646,14.3898,-78.3442,-2.6646,12.2585,-28.2462,-5.8626,
-71.8714,26.6477,75.6796,-17.0549,174.3531,13.8569,96.9976,-1.0662,1.0662,-63.3442,-10.659,25.5811,-39.4385,-6.3954,
-68.2181,25.5821,87.4048,-18.1205,184.4018,13.8569,94.8653,1.0662,-3.1974,-56.4929,-8.5267,24.5164,-38.3729,-1.0662,
-83.2181,16.5216,76.2119,-26.1144,179.6049,3.7308,79.8653,-7.9944,0.53282,-59.158,-6.9287,15.4559,-28.2467,-0.53282,
-84.7396,29.3118,73.0145,-11.1918,178.5388,-0.53333,67.6852,-5.8626,9.0605,-48.4991,-14.3898,12.2575,-34.6421,0.53333,
-91.6678,19.1862,68.2181,-12.7913,167.3475,-13.8569,67.1524,-3.1974,10.659,-50.0975,-24.5154,17.0549,-49.6421,3.1974,
-93.2668,5.8626,60.2237,-17.5877,166.8136,-15.4554,55.9601,-10.1262,9.0605,-63.4216,-9.5154,16.5211,-58.0919,6.9282,
-88.4704,11.7251,52.2298,-13.8564,178.0064,-11.7251,51.1632,-23.4503,10.6595,-78.4216,4.2636,4.2636,-47.9657,-4.2636,
-85.8053,17.5877,57.0268,-7.9939,189.1983,-13.3231,60.2237,-8.4503,22.917,-77.2781,2.6646,19.2636,-39.9713,-2.6646,
-86.3386,2.5877,56.4929,-14.9226,178.0059,-21.3185,49.0314,5.3298,10.659,-81.0089,-12.3354,21.3185,-54.9713,-1.0662,
-71.3386,-1.0656,57.5591,-24.5159,180.1388,-17.0544,47.9662,1.0656,9.5939,-78.8765,-10.6585,13.8575,-60.7565,2.1323,
-56.3386,13.9344,61.2898,-16.5216,195.1388,-26.1144,54.8939,4.7964,19.7195,-77.2781,-7.9944,5.8621,-47.4329,-4.7964,
-41.3386,28.9344,76.2898,-1.5216,210.1388,-40.5042,66.0868,4.2641,13.8569,-83.1407,-8.5267,-1.0662,-42.636,-10.659,
-26.3386,43.9344,91.2898,-3.1974,225.1388,-27.7139,69.2837,2.1318,1.0662,-87.4042,-4.2641,-1.0662,-51.1637,-2.1318,
-11.3386,58.9344,90.0694,-5.8621,240.1388,-12.7139,54.2837,14.3893,-4.7964,-97.5304,-11.1923,-4.7964,-65.5529,-3.7308,
3.6614,73.9344,84.2063,-10.6595,239.8291,2.2861,39.2837,10.6595,-15.9887,-112.5304,-26.1923,-19.7964,-80.5529,-18.7308,
18.6614,88.9344,99.2063,-11.1918,254.8291,11.1918,34.6421,15.4554,-27.1806,-125.2438,-32.5098,-30.3785,-93.2668,-33.5765,
33.6614,103.9344,110.3212,2.6646,269.8291,-2.6646,48.4985,30.4554,-30.3785,-110.2438,-37.8401,-16.5221,-93.2668,-35.7078,
48.6614,118.9344,102.3263,0,272.8712,0,41.5703,45.4554,-29.8452,-96.9976,-44.7683,-13.8575,-105.5248,-29.8452,
63.6614,133.9344,98.5966,-13.3236,257.8712,13.3236,30.379,33.576,-37.8396,-111.9976,-52.7616,-28.8575,-116.7166,-33.576,
78.6614,148.9344,105.5248,-9.5933,263.2789,9.5933,45.379,48.576,-34.1093,-126.9976,-49.0319,-40.5042,-101.7166,-44.7678,
93.6614,163.9344,99.6617,-1.599,278.2789,1.599,60.379,63.576,-25.0493,-113.5192,-49.5652,-27.1806,-97.5309,-49.5652,
108.6614,178.9344,84.6617,-7.461,263.2789,7.461,45.379,48.576,-38.3729,-128.5192,-64.5652,-42.1806,-112.5309,-64.5652,
123.6614,180.6716,69.6617,-16.5216,254.2194,16.5216,30.379,50.6314,-39.9708,-143.5192,-57.0257,-57.1806,-127.5309,-77.2776,
138.6614,190.7967,84.6617,-6.3954,239.2194,6.3954,29.8457,65.6314,-29.8457,-128.5192,-42.0257,-42.1806,-120.4474,-62.2776,
153.6614,196.6593,74.0806,-7.9944,224.3732,12.258,14.8457,71.9483,-33.576,-122.0464,-45.3011,-37.8396,-126.31,-50.6303,
168.6614,206.2532,61.2898,-12.258,239.3732,27.258,12.258,77.2786,-29.3124,-117.7823,-42.1031,-46.3667,-125.2438,-60.2232,
183.6614,206.2532,57.0262,-9.06,228.6368,42.258,9.06,86.8714,-32.5103,-122.0464,-46.3667,-39.9714,-138.0346,-68.7509,
198.6614,214.7793,72.0262,-3.7308,221.1752,57.258,3.7308,101.8714,-25.0493,-118.8489,-33.5765,-27.1811,-133.7715,-53.7509,
213.6614,221.7086,76.7453,-2.1318,225.9722,42.258,2.1318,116.8714,-24.5154,-107.6561,-25.5816,-36.2406,-122.5787,-54.3606,
215.3127,219.5763,74.6129,1.0662,240.9722,27.258,-1.0662,106.5904,-21.3185,-95.932,-25.5821,-28.7795,-111.9202,-53.2955,
219.5768,214.2465,85.2719,1.0656,243.0261,42.258,-1.0656,107.6566,-20.2523,-106.5909,-34.1093,-26.6477,-116.1838,-42.6365,
215.846,213.7147,85.8058,3.7308,228.0261,46.3667,-3.7308,120.9802,-35.2523,-120.9802,-47.4324,-41.6477,-131.1838,-53.8278,
207.8519,221.7083,75.6794,8.5274,224.9063,40.5049,-8.5274,135.9802,-30.9111,-105.9802,-32.4324,-31.9772,-127.9087,-45.8342,
198.2583,220.6429,66.0858,13.8569,239.9063,50.097,-23.5274,135.37,-15.9111,-90.9802,-18.1205,-25.5816,-116.1838,-36.2411,
202.5216,220.6427,81.0858,12.791,237.6971,55.427,-38.5274,120.37,-12.791,-99.1291,-28.7793,-36.2408,-121.5133,-46.8998,
214.7801,226.5052,94.3327,10.1264,222.6971,64.4875,-31.4444,128.4415,-10.1264,-86.8717,-27.1808,-21.2408,-116.7169,-37.8398,
199.7801,218.5106,79.3327,10.659,207.6971,49.4875,-46.4444,128.9751,-25.1264,-90.6022,-29.8452,-10.659,-131.7169,-41.5703,
200.9234,224.3727,74.0801,18.6534,206.2527,34.4875,-51.6965,123.112,-26.1149,-101.794,-18.6534,-25.659,-141.2325,-54.8944,
212.648,225.4388,85.8048,12.258,221.2527,38.9052,-39.9719,125.2438,-19.7195,-115.651,-12.258,-39.9719,-126.2325,-57.0262,
197.648,210.4388,70.8048,8.5272,215.3132,35.1744,-54.9719,126.8423,-22.3841,-124.711,-8.5272,-39.4385,-124.711,-50.0975,
182.648,202.5224,60.757,8.5272,200.3132,20.1744,-69.9719,128.9746,-21.318,-119.3812,-8.5272,-38.3724,-139.711,-52.2293,
172.1441,217.5224,75.757,16.5213,189.1985,35.1744,-84.9719,133.7707,-21.8511,-107.1235,-16.5213,-37.8398,-134.8369,-51.6962,
182.8026,221.175,79.4096,13.3239,204.1985,50.1744,-91.1348,140.1666,-23.9829,-102.8599,-13.3239,-30.3783,-119.9143,-37.8398,
173.21,207.3188,75.1463,7.9944,204.1209,50.6303,-106.1348,136.9689,-19.719,-90.0689,-7.9944,-17.5872,-128.4418,-41.0375,
158.21,192.3188,63.9542,5.3295,189.1209,35.6303,-121.1348,122.5789,-5.3295,-87.4045,-20.2521,-28.7793,-137.502,-55.427,
159.3528,188.1324,53.8285,0.53308,187.0667,37.8398,-106.1348,118.8482,-0.53308,-102.4045,-14.3895,-42.1034,-124.1779,-43.169,
165.2154,198.2585,53.2952,9.5931,202.0667,50.0973,-106.5907,124.7107,-15.5331,-116.1835,-9.5931,-41.5701,-133.2379,-44.768,
150.2154,205.1865,61.2898,13.3236,205.1865,43.1688,-113.5192,129.5074,-30.5331,-101.1835,-13.3236,-27.1806,-143.3643,-53.8283,
140.1661,205.1868,47.4326,4.7967,190.2647,49.565,-104.9917,114.5074,-15.5331,-104.9917,-4.7967,-20.7854,-130.5733,-38.9055,
137.502,205.7196,32.4326,3.1977,189.7318,58.625,-107.6563,110.8548,-21.3182,-119.9917,-3.1977,-35.1747,-130.0405,-40.5044,
135.9033,213.7137,38.9052,7.9944,193.4624,60.2232,-104.992,125.8548,-27.1806,-129.5074,-7.9944,-42.1031,-136.9689,-55.5044,
120.9033,198.7137,38.906,11.1921,178.4624,45.2232,-107.1235,124.1779,-12.1806,-116.7164,-12.2577,-53.828,-139.1005,-69.8168,
117.7823,183.7137,28.2462,11.1918,163.4624,30.2232,-122.1235,109.1779,-2.6646,-114.5848,-2.6646,-47.4329,-131.6392,-54.8168,
132.7823,196.6593,41.0375,6.9282,178.4624,45.2232,-124.1782,111.3874,-17.6646,-122.0464,-6.9282,-42.1031,-128.4418,-44.2349,
147.7823,211.6593,56.0375,12.7908,193.4624,60.2232,-109.1782,114.0525,-32.6646,-136.4356,-12.7908,-47.9657,-133.2382,-55.4268,
143.8974,205.7201,62.8881,11.7249,201.4565,45.2232,-118.3158,109.7886,-35.1752,-132.1723,-11.7249,-32.9657,-138.5677,-49.0316,
128.8974,203.5885,47.8881,12.7908,186.4565,30.2232,-133.3158,107.6571,-37.3067,-118.3156,-14.9226,-17.9657,-137.5018,-36.2406,
120.98,198.7914,32.8881,6.9285,181.737,30.3783,-125.2441,93.2671,-22.3067,-117.7825,-6.9285,-32.9657,-138.0348,-36.7737,
119.381,183.7914,23.45,-3.1977,169.4795,19.1864,-121.5133,84.2066,-7.3067,-121.5133,3.1977,-47.9657,-146.0292,-51.7737,
109.7879,176.9398,31.977,4.2636,154.5562,6.3954,-131.1064,85.2719,-15.9887,-123.6453,-4.2636,-44.7683,-140.6997,-66.0863,
123.112,187.067,46.977,10.1262,169.5562,21.3954,-116.1064,93.2668,-29.3124,-127.3756,-10.1262,-32.5098,-127.3756,-51.0863,
136.9684,196.6598,42.1037,12.258,184.5562,36.3954,-103.9258,108.2668,-31.4442,-130.5736,-12.258,-28.2467,-142.3756,-44.2349,
132.7053,195.5937,30.378,13.3236,199.5562,39.9719,-118.8484,119.9146,-30.3785,-125.2438,-13.3236,-20.7852,-151.8915,-47.4329,
128.9746,184.4013,37.3067,5.3298,200.3901,35.1749,-115.1176,104.9146,-39.4385,-140.2438,-5.3298,-34.1088,-136.8915,-40.5042,
122.5792,180.1382,36.2406,4.2636,199.3239,25.5816,-103.393,89.9146,-49.0319,-155.2438,-4.2636,-46.9001,-127.9089,-44.7683,
107.5792,176.4072,30.3783,6.9285,184.3239,10.5816,-114.5846,95.3989,-36.7737,-140.2438,-0.53308,-31.9001,-139.1005,-49.5644,
92.5792,161.4072,22.3841,6.3954,169.3239,-4.2636,-129.5846,81.0083,-21.7737,-125.2438,4.2636,-33.0431,-141.7654,-45.8339,
77.5792,146.4072,10.6592,-3.1977,155.6226,6.3956,-128.9743,66.0083,-13.8567,-132.1723,3.1977,-48.0431,-144.9631,-43.7019,
92.5792,153.4905,20.2523,-7.461,170.6226,4.2636,-113.9743,61.8227,-4.2636,-132.172,8.5272,-55.4268,-135.37,-46.8996,
96.464,166.8139,31.4439,5.8623,160.419,-0.53308,-111.3871,71.9481,-14.39,-117.172,0.53308,-40.4268,-130.5738,-57.026,
102.8597,172.1439,33.576,7.9944,155.0895,14.4669,-103.9258,86.9481,-29.39,-123.112,-7.9944,-37.8396,-136.9689,-46.3667,
102.3268,171.6111,27.7134,2.1318,160.9516,29.4669,-105.5248,92.734,-20.2523,-135.37,-2.1318,-37.3067,-148.1608,-31.3667,
98.5963,174.2754,28.2465,5.8623,163.6169,21.8511,-101.7943,81.5419,-16.5218,-135.903,-5.8623,-39.9716,-147.6282,-39.9716,
113.5963,180.6716,43.2465,12.258,178.6169,28.2467,-86.7943,79.4099,-31.4442,-146.5618,-12.258,-47.4324,-135.9028,-45.3006,
110.3212,178.5398,39.9714,12.258,193.6169,26.1149,-71.7943,75.1468,-45.3006,-156.1551,-12.258,-47.4324,-134.8371,-39.9714,
95.3212,166.281,24.9714,6.3956,189.7313,11.7249,-69.284,61.8224,-37.3065,-141.1551,-6.3956,-32.4324,-136.4359,-28.7793,
80.3212,151.281,9.9714,1.0662,187.5998,0,-74.6135,49.0314,-34.1088,-126.8428,0,-34.1088,-133.2382,-26.6477,
72.4819,139.6338,14.9228,3.1977,187.6,-3.1977,-59.6135,44.768,-23.4495,-141.8428,15,-49.1088,-118.2382,-36.2408,
76.7458,143.8977,24.5159,0,191.8629,-5.3292,-44.6135,36.2411,-8.4495,-126.8428,26.6477,-45.8339,-103.2382,-37.3067,
70.3504,135.37,19.1867,4.2636,176.8629,-6.3954,-44.7678,26.6477,-4.2636,-111.8428,17.0549,-30.8339,-118.2382,-27.7134,
67.6847,125.2438,19.7195,7.9944,163.6162,-7.9944,-52.7621,41.0375,-15.4554,-104.9915,12.258,-34.6416,-133.2382,-36.7734,
82.6847,136.4364,34.7195,6.3956,178.6162,-6.3956,-37.7621,44.7685,-17.0546,-118.3153,9.5931,-49.0316,-125.7769,-51.7734,
97.6847,143.3638,49.7195,6.9282,193.6162,8.6044,-22.7621,29.7685,-32.0546,-118.8484,-5.4069,-47.4329,-126.31,-48.4985,
86.8714,129.5074,51.696,11.1918,190.2644,17.5872,-15.4554,26.1144,-36.7739,-110.3212,-11.1918,-41.0375,-132.7053,-33.4985,
79.9427,132.1725,59.6904,19.1862,175.2644,2.5872,-21.318,41.1144,-24.5159,-102.3268,2.1318,-26.0375,-130.0402,-23.4498,
89.0035,138.0343,66.6188,10.1259,190.2644,1.5987,-7.9941,37.8393,-39.5159,-112.4533,-1.5987,-19.7193,-140.1666,-31.4444,
92.2012,130.5736,61.2893,-4.8741,192.3962,16.5987,5.8626,22.8393,-54.5159,-127.4533,-16.5987,-34.7193,-155.1666,-46.4444,
92.2012,127.3756,57.0257,-1.599,184.9347,22.917,1.599,12.2575,-68.7509,-142.4533,-31.5987,-49.7193,-155.0895,-48.4991,
92.2007,119.9146,65.5534,2.6646,198.7916,7.917,12.258,22.9175,-53.7509,-146.5623,-16.5987,-54.8939,-140.0895,-35.7078,
77.8114,104.9146,69.2842,-4.2636,183.7916,-7.083,10.659,9.5933,-38.7509,-131.5623,-1.5987,-52.2293,-127.9084,-44.7678,
89.0027,114.5853,78.3442,-1.599,192.3957,7.917,-2.6646,6.9282,-23.7509,-116.5623,1.599,-37.2293,-131.6392,-29.7678,
104.0027,126.8423,76.7447,-6.3954,207.3957,22.917,-11.7251,10.659,-10.659,-101.5623,6.3954,-22.2293,-124.711,-14.7678,
109.7879,122.5787,79.9427,0,211.0496,7.917,3.2749,15.9882,-14.9226,-86.5623,0,-19.1862,-115.1181,-21.318,
102.3268,111.9197,90.6017,2.1318,213.1814,-2.1318,18.2749,17.0549,-21.318,-71.5623,-5.3298,-18.1205,-110.8545,-26.6477,
94.333,96.9197,75.6017,-3.7308,224.3732,3.7308,33.2749,4.7964,-31.4442,-85.8053,-10.1262,-33.1205,-115.6505,-34.6421,
104.4589,95.9317,67.1522,3.1977,239.3732,-3.1977,44.7675,15.989,-39.4388,-94.8655,-8.5274,-35.1747,-100.6505,-28.7793,
103.3925,99.1289,82.1522,-3.1974,254.3732,3.1974,39.4385,20.2518,-47.9662,-95.9319,-12.7913,-24.5159,-102.3273,-20.2523,
88.4704,95.9309,92.734,-1.0662,241.9609,18.1974,52.2293,5.2518,-40.5047,-105.5248,-17.0549,-34.1093,-115.1181,-29.8457,
83.1409,80.9309,77.734,-4.2639,247.2899,22.3839,57.5593,4.2639,-37.3065,-118.3153,-17.0546,-49.1093,-104.4589,-35.1747,
88.4699,71.4155,75.6791,4.2636,262.2899,7.3839,54.3611,19.2639,-35.1749,-109.7884,-7.4615,-44.7683,-89.4589,-20.1747,
73.4699,62.8888,76.7453,5.3298,277.2899,-7.6161,60.7565,20.2518,-25.5816,-99.1294,-5.3298,-35.1749,-82.0745,-25.5816,
58.4699,47.8888,78.344,-9.6702,265.9433,-11.1921,66.6188,5.2518,-10.5816,-84.1294,1.5987,-27.1803,-71.9486,-36.7737,
48.4983,32.8888,73.0142,-14.3895,255.2843,-15.4557,53.8285,0.53308,1.5987,-75.1465,-0.53308,-20.7849,-75.1465,-28.2465,
47.9655,25.5818,81.0086,-4.2639,261.1474,-30.4557,55.427,5.3295,-1.0659,-60.1465,1.0659,-22.3839,-77.8112,-17.0546,
36.7737,18.6536,82.6076,1.5987,257.4161,-45.4557,42.1029,4.7967,-9.0603,-57.026,-1.5987,-34.6419,-69.8168,-32.0546,
37.3067,17.0544,86.3386,2.1318,242.4161,-38.3724,28.7795,15.9887,-13.8564,-53.295,-2.1318,-19.6419,-62.8883,-28.7795,
43.7021,9.5933,100.1945,-9.5933,236.6307,-23.3724,43.7795,13.8569,-19.1867,-44.7683,-12.7913,-4.6419,-75.6796,-15.9887,
52.2298,19.1867,115.1945,0,251.6307,-38.3724,58.7795,15.9887,-20.2523,-43.7021,-7.4615,0,-69.2837,-9.5933,
40.5042,18.12,112.9863,-6.3954,266.6307,-51.1637,43.7795,23.4498,-17.0544,-58.7021,6.3954,-15,-55.4273,-18.1205,
25.5042,7.4613,97.9863,-10.6592,251.6307,-61.8224,28.7795,24.5157,-3.1977,-73.7021,7.4613,-30,-61.8224,-30.9116,
10.5042,2.6649,82.9863,4.3408,236.6307,-67.685,13.7795,33.5762,5.8623,-88.7021,9.0603,-29.3126,-57.026,-23.9829,
-4.4958,5.8626,86.8714,0.53282,251.6307,-52.685,-0.53282,46.3667,5.8626,-83.6735,21.8508,-14.3126,-42.026,-8.9829,
-13.3239,9.0603,79.4101,0.53308,254.2186,-37.685,-1.5987,45.3008,20.7854,-68.6735,31.4444,-7.9941,-41.0372,-0.53308,
-28.3239,-3.7308,64.4101,12.258,239.2186,-52.685,-14.3898,53.8283,35.7854,-53.6735,33.576,0.53282,-54.8939,-0.53282,
-43.3239,-18.7308,51.1632,0,224.2186,-67.685,-28.7795,68.8283,26.6477,-38.6735,22.3841,14.9226,-54.3611,0,
-58.3239,-26.1147,36.7737,-15,225.4391,-52.685,-31.4439,73.0142,11.6477,-23.6735,17.5875,12.2582,-46.367,-0.53308,
-73.3239,-36.7737,34.6419,-20.7854,240.3617,-67.685,-33.5762,64.4875,15.4557,-8.6735,16.5213,14.3895,-57.026,-4.7967,
-88.3239,-45.8339,49.0319,-9.5933,238.7625,-82.685,-35.1749,71.4155,9.5933,6.3265,7.4615,23.4498,-72.026,-7.4615,
-103.3239,-57.5591,50.0975,-4.2636,244.0922,-97.685,-25.5821,76.7453,5.3292,-8.6735,14.9226,10.659,-60.7565,4.2636,
-118.3239,-67.685,49.565,2.6649,254.2191,-100.7281,-12.2577,85.8055,20.3292,-23.6735,29.9226,-2.6649,-45.7565,19.2636,
-133.3239,-75.1463,43.1693,0.53282,242.4932,-115.651,-26.1149,92.2007,35.3292,-38.6735,44.2349,-0.53282,-30.7565,12.258,
-140.1666,-61.2896,42.1034,-5.8623,249.9545,-111.3871,-21.8511,104.9912,42.1034,-50.6306,41.0372,14.4672,-30.3783,5.8623,
-155.0895,-63.4216,30.3785,-7.9944,241.4276,-98.5961,-26.1149,103.9258,44.2349,-65.6306,39.9714,22.917,-39.9713,7.9944,
-170.0895,-78.4216,27.1806,-6.9282,226.4276,-113.5961,-41.1149,113.5187,45.3011,-50.6306,25.0488,10.1262,-38.9057,6.9282,
-185.0895,-93.4216,25.0488,-11.1918,211.4276,-128.5961,-56.1149,128.4418,31.4442,-35.6306,10.0488,21.8508,-42.1031,3.7308,
-200.0895,-108.4216,12.7908,-17.0544,196.4276,-143.5961,-66.0863,117.2499,16.4442,-20.6306,0,35.1749,-57.1031,3.1974,
-215.0895,-115.6507,7.9941,-19.7193,193.4621,-150.8256,-73.0147,109.2558,15.4557,-5.6306,10.1259,28.2465,-54.8942,4.7967,
-230.0895,-125.7766,2.1318,-17.0544,196.127,-160.9516,-70.3499,118.3156,29.8457,8.5272,18.1205,14.9226,-44.7678,-2.1318,
-225.4388,-128.4418,-1.599,-7.9944,181.127,-148.6941,-58.0919,128.4418,23.9826,4.7964,14.3898,26.1149,-41.0375,1.599,
-229.7027,-113.5189,-0.53308,0.53308,176.4072,-133.6941,-73.0919,138.0348,27.1803,-9.0603,18.6531,39.9716,-38.9055,16.5213,
-243.0263,-107.6563,-1.0659,1.0659,185.4677,-144.9631,-88.0919,137.5015,31.9772,-7.4613,25.5818,27.7136,-41.5701,8.5274,
-236.0978,-120.9802,5.8626,-11.1918,170.4677,-138.0346,-73.0919,132.7053,33.576,-5.8626,33.576,31.4442,-34.6416,11.1923,
-251.0978,-126.3097,2.6649,-2.6649,155.4677,-123.0346,-71.9486,143.3646,48.4988,-20.8626,41.0372,46.4442,-22.9172,26.1923,
-266.0978,-122.5789,-12.3351,12.3351,148.161,-138.0346,-86.9486,158.3646,63.4988,-28.7793,50.0978,47.966,-15.9885,41.1923,
-260.0809,-125.7771,-26.6477,10.659,140.6997,-153.0346,-101.9486,166.2813,72.4817,-13.7793,54.3611,57.5586,-17.0544,26.6477,
-266.4763,-133.2382,-41.6477,-2.1318,125.6997,-142.8315,-115.1176,151.2813,57.4817,1.2207,39.3611,72.5586,-32.0544,26.6477,
-281.4763,-148.2382,-56.6477,-17.1318,110.6997,-157.8315,-130.1176,136.2813,52.7621,16.2207,27.1806,58.0919,-47.0544,32.5098,
-296.4763,-163.2382,-61.2898,-20.7852,95.6997,-172.8315,-145.1176,133.771,62.3555,31.2207,39.9714,43.1688,-57.0262,20.7852,
-311.4763,-161.4849,-46.2898,-12.258,80.6997,-187.8315,-130.1176,130.5735,47.3555,16.2207,33.576,46.3667,-47.4329,12.258,
-296.4763,-146.4849,-46.9001,-8.5272,95.6997,-172.8315,-115.1176,145.5735,33.0431,8.5272,31.977,61.3667,-40.5047,27.258,
-311.4763,-161.4849,-61.9001,-14.9228,89.5363,-165.2154,-108.7225,156.6882,36.2408,14.9228,34.109,47.966,-51.1634,24.5157,
-306.981,-167.3475,-59.6909,-12.7908,82.0745,-179.0721,-93.7225,156.688,51.2408,19.1862,49.109,40.5042,-36.1634,12.7908,
-291.981,-157.2213,-58.0919,-10.1262,97.0745,-176.4075,-82.6078,142.2982,66.2408,10.1262,50.6303,33.576,-21.1634,12.258,
-306.981,-160.9518,-69.284,-7.4613,108.7225,-187.5995,-97.6078,143.8969,67.1522,7.4613,47.9655,27.7136,-34.109,7.4613,
-321.9034,-164.1493,-58.625,-14.9228,93.7225,-186.5334,-104.4589,157.7544,82.1522,22.3839,62.8886,42.7136,-28.7793,14.9228,
-306.9034,-159.8857,-66.086,-20.2521,78.8773,-171.5334,-89.4589,147.0954,82.0748,25.5818,62.8886,57.7136,-30.9111,20.2521,
-315.508,-174.8082,-81.086,-18.1203,74.6137,-186.5334,-74.4589,132.1728,70.3501,18.1203,57.5588,46.8998,-39.4383,20.2521,
-330.508,-188.1326,-94.333,-18.6534,60.2237,-201.5334,-70.8827,132.7048,82.6078,20.7852,64.4873,46.3667,-34.6421,18.6534,
-329.8975,-175.3413,-79.333,-16.5216,66.6191,-207.3183,-59.1575,147.6284,90.0694,25.0488,65.5534,60.2237,-33.576,16.5216,
-317.64,-160.3413,-69.2837,-19.1862,76.7453,-192.3183,-44.1575,156.6885,76.7453,23.4498,61.8227,49.0319,-37.3067,19.1862,
-312.8431,-151.8915,-75.1463,-12.258,71.9488,-205.1865,-49.5642,156.1551,67.6852,19.7195,55.9601,38.9057,-30.378,12.258,
-304.3161,-149.7595,-60.1463,-6.9285,73.0147,-190.1865,-52.7624,160.419,81.5419,28.2465,58.0921,53.9057,-19.7193,6.9285,
-308.0469,-143.8974,-45.1463,-10.6592,81.0091,-175.1865,-37.7624,159.8857,81.0091,31.9772,63.9542,68.9057,-21.3182,10.6592,
-323.0469,-147.0954,-60.1463,-11.7249,66.086,-190.1865,-24.5162,144.8857,66.0091,19.1859,51.1634,53.9057,-36.3182,11.7249,
-338.0469,-154.0231,-75.1463,-15.4557,59.1578,-201.9888,-17.5875,134.8374,76.2122,29.3126,55.9603,38.906,-35.7075,15.4557,
-323.0469,-143.3641,-60.1463,-6.9285,65.5532,-186.9888,-22.9167,143.3646,85.8055,38.9054,65.5532,49.565,-30.3783,6.9285,
-308.0469,-133.2382,-45.8339,-3.198,58.6247,-188.6654,-14.9226,144.9628,78.8771,27.7134,59.6909,53.2955,-38.3724,3.198,
-310.1787,-148.2382,-60.8339,-18.198,51.1634,-182.2698,-7.4613,129.9628,70.3496,12.791,50.0978,42.6362,-40.5044,7.4613,
-306.4479,-146.562,-61.2896,-19.7193,66.1634,-172.1436,-11.1921,114.9628,66.6188,14.3895,57.026,35.708,-36.7737,11.1921,
-291.4479,-131.562,-46.2896,-7.4613,81.1634,-176.9405,-18.1208,127.9082,68.2178,29.3895,63.9542,50.0973,-26.648,7.4613,
-276.4479,-134.8371,-38.9057,-4.7964,91.135,-168.9459,-31.4442,130.5736,65.5529,32.5103,59.1575,63.4211,-12.258,4.7964,
-271.2733,-142.2982,-53.8283,-12.258,76.135,-153.9459,-34.6421,115.5736,67.6852,17.5872,54.8939,64.4873,-13.3236,12.258,
-256.2733,-127.3756,-38.8283,-17.5872,91.135,-148.6936,-19.6421,100.5736,73.0145,19.7195,57.0257,52.7621,-23.9826,15.4554,
-253.1525,-116.7169,-23.8283,-11.1921,106.135,-155.0892,-9.0603,98.5968,70.8829,29.3126,54.8942,39.9716,-18.6531,9.0603,
-252.6197,-124.7107,-24.5157,-14.9223,117.2497,-142.8313,-10.6587,92.7337,66.0865,26.648,59.6911,44.768,-7.4613,7.4613,
-244.6253,-127.3759,-29.3121,-21.8511,112.4528,-148.6938,0.53308,77.7337,52.7624,13.3239,47.4332,45.3014,-20.7849,-0.53308,
-257.4163,-130.5736,-43.1693,-30.3785,113.5187,-155.0895,2.6646,62.7337,45.3011,4.7964,32.4332,31.4442,-31.4442,-2.6646,
-269.141,-135.9028,-58.0919,-38.9057,108.1894,-142.2982,-5.8626,48.4985,48.4985,5.8626,30.3785,32.5103,-29.3124,9.0605,
-255.2848,-133.7712,-53.8285,-31.4444,108.1892,-139.101,6.9285,36.7737,37.8393,10.1259,38.9055,31.4439,-23.9829,-5.9395,
-243.5596,-131.6394,-38.8285,-37.8398,123.1892,-130.5733,21.9285,33.5762,38.9055,10.1259,26.1147,21.8511,-10.1259,-20.9395,
-248.3561,-124.7112,-41.5706,-36.2408,127.9082,-124.7112,14.9223,42.6362,53.9055,-3.1977,27.7131,26.6475,-8.5274,-5.9395,
-253.153,-119.9143,-50.6306,-21.2408,112.9082,-138.0348,18.6531,30.3783,61.2896,-13.3239,36.7737,34.6419,-18.6536,9.0605,
-241.9604,-125.7766,-38.3724,-26.6477,124.7115,-123.0348,33.6531,15.3783,47.9657,-6.3954,38.3724,42.6365,-12.7908,11.7251,
-239.2958,-130.5735,-39.9714,-30.3785,135.9033,-108.0348,48.4985,9.06,42.1031,-9.06,31.4442,35.7078,-15.4559,16.5216,
-249.955,-126.3097,-48.4988,-25.049,120.9033,-117.7825,33.5762,19.7193,43.169,-13.3239,31.4444,23.9829,-25.049,13.3239,
-251.0204,-123.112,-37.8396,-23.9826,123.112,-117.7823,48.5762,12.258,44.2355,-12.258,33.576,25.0488,-21.8508,13.3241,
-238.763,-122.5792,-23.4498,-22.3841,136.4361,-103.393,63.5762,14.9226,45.8339,-14.9226,33.0431,33.0431,-18.1205,21.318,
-236.6309,-124.7107,-35.1747,-25.5818,130.0405,-114.0517,61.8224,15.9885,43.7024,-11.7249,29.8454,25.5818,-25.5818,11.7249,
-239.8289,-117.2497,-30.9116,-12.791,125.7764,-119.3815,67.1517,0.98849,47.9655,3.1977,33.0429,21.3177,-12.791,3.1977,
-237.1642,-112.4533,-19.7193,-17.5875,131.6389,-104.3815,66.6188,-11.1921,43.169,1.5987,26.1147,20.7849,-1.5987,14.3895,
-224.3729,-107.1235,-20.7849,-22.9172,135.903,-100.7281,63.4219,3.8079,33.5762,-7.9941,14.3895,18.6531,-14.3895,25.049,
-219.0437,-115.6507,-16.5218,-14.3895,120.903,-115.7281,78.4219,5.8623,36.7737,-5.8623,22.9167,23.9829,-27.1808,19.7193,
-225.9724,-121.5133,-4.2639,-15.989,105.903,-109.7886,93.4219,-1.0659,50.0973,1.0659,37.9167,31.9767,-12.791,13.8567,
-227.5711,-106.5133,-3.7308,-12.258,101.794,-94.7886,95.3981,3.7308,52.7621,-3.7308,35.7078,17.5872,-9.0605,13.3236,
-224.3734,-91.5133,-16.5218,-4.7967,93.2671,-83.6737,82.6076,4.7967,46.367,-12.2582,23.9829,29.3121,-20.7854,22.9167,
-224.3734,-94.3327,-19.7193,-9.0603,94.3327,-87.9373,94.3327,9.0603,39.9716,-14.39,20.7849,44.3121,-17.5875,30.3783,
-219.5765,-96.9973,-5.3295,-21.3182,101.2614,-89.5363,98.0635,5.3295,24.9716,-19.1864,11.7249,29.3121,-18.1203,15.3783,
-204.5765,-93.2668,0.53282,-29.3124,109.2556,-78.3442,101.794,-0.53282,23.9831,-11.1918,10.1262,15.4559,-20.7852,6.9282,
-204.6542,-94.8658,-14.4672,-18.1205,102.3268,-82.075,103.3925,9.5928,27.7134,-6.3954,6.3954,30.4559,-20.2523,14.9226,
-203.055,-87.9373,-21.8511,-11.1921,104.9922,-75.146,108.1892,17.5875,32.5101,-3.7305,3.7305,44.2352,-11.1921,9.0603,
-188.1321,-86.8714,-6.8511,-26.1144,110.3217,-60.146,104.9915,2.5875,36.7739,3.7308,3.7308,29.2352,-11.1918,-3.7308,
-182.8029,-91.135,8.1489,-29.3124,101.7945,-69.8165,94.333,-11.1918,27.1806,-0.53282,1.599,14.2352,-26.1918,0.53282,
-181.7367,-85.8053,10.1262,-32.5098,111.3874,-76.2119,103.9258,-0.53282,17.5877,-15.5328,1.599,5.8626,-28.2462,0.53282,
-173.2098,-70.8053,20.7854,-30.3783,119.9148,-61.2119,118.9258,0.53308,27.1808,-17.5875,2.6649,20.8626,-13.2462,-0.53308,
-179.6052,-60.2239,20.7849,-30.3783,110.3215,-46.2119,132.7051,-4.7967,32.5101,-2.5875,-1.5992,35.8626,0.53308,14.4669,
-190.7967,-63.954,12.7913,-34.1088,118.3156,-42.636,124.7115,0,17.5101,-11.7246,0,27.7139,-5.3292,29.4669,
-192.9293,-61.8229,8.5269,-29.8454,124.7107,-37.307,124.7107,3.1977,4.2633,-23.45,-3.1977,23.4495,-10.6592,14.4669,
-194.5278,-60.2239,7.9941,-28.2465,113.5184,-36.7737,131.6395,3.7305,19.2633,-8.45,-3.7305,30.3783,-3.7305,4.7967,
-204.1209,-57.0257,3.7308,-28.2462,102.8597,-51.7737,129.5079,1.599,33.576,-2.6646,-0.53282,15.4559,-2.6646,0.53282,
-203.588,-46.9001,7.461,-27.7139,116.1838,-41.5703,127.9089,2.1318,19.1862,-2.1318,-4.2636,9.5928,-8.5277,3.1974,
-195.5937,-48.4985,6.9282,-42.1031,116.7166,-31.4442,134.8366,-0.53282,4.7964,3.7308,-17.5872,17.5872,-22.917,0.53282,
-182.27,-35.1749,7.4615,-31.977,118.3156,-43.7021,149.8366,6.3954,17.0544,4.2636,-4.2636,15.9887,-15.9887,-4.2636,
-196.6596,-35.7075,6.9285,-22.9167,125.2435,-34.6419,164.8366,0.53308,29.3126,-9.0603,10.7364,0.98874,-0.98874,-6.9285,
-211.6596,-46.367,1.5987,-29.3126,125.2441,-28.2465,162.5508,-14.4669,23.9829,-6.9285,9.0603,9.0603,2.6649,-1.5987,
-217.445,-31.367,-4.2636,-25.5816,132.1725,-23.4498,177.5508,-12.7908,24.5159,8.0715,2.1318,24.0603,-2.1318,8.5272,
-206.7855,-18.1205,-14.9226,-23.4498,124.7115,-11.7251,192.5508,2.2092,18.1205,-2.1318,3.198,24.5159,-2.1318,2.1318,
-200.3901,-14.9226,0,-9.5928,128.9746,-10.659,206.786,6.3954,12.7908,-10.659,0,13.8569,9.5933,0,
-200.3901,-23.4498,7.4615,-17.0544,143.9746,-15.9882,191.786,-8.6046,15.9887,0,-4.2636,26.6482,13.8569,0,
-203.055,-25.049,-7.5385,-30.3783,140.1661,-0.98823,187.0667,-14.3895,18.6531,1.5987,-1.5987,20.7849,11.1921,-2.6649,
-195.5937,-13.3236,-16.5216,-25.0488,135.9033,14.0118,202.0667,-6.9282,16.5216,1.599,-3.7308,20.7852,9.06,-1.599,
-200.9234,-19.719,-4.7964,-39.9714,138.0346,6.9282,217.0667,-6.9282,12.258,1.599,-10.1262,35.7852,5.8626,-1.599,
-211.0493,-24.5162,-11.7249,-36.2408,137.5015,2.1315,229.1694,-13.8567,22.3839,-4.2639,-1.0659,27.7136,14.9223,1.0659,
-202.5221,-20.2526,-20.2526,-27.7136,142.8308,12.7905,230.235,-28.8567,19.1859,-4.2639,1.0659,12.7136,9.5931,-1.0659,
-206.7855,-11.7246,-5.2526,-37.3067,157.8308,14.9226,243.0266,-31.977,4.1859,8.5272,-6.3954,17.0549,3.198,-4.2636,
-197.7255,-9.06,-0.53282,-38.9052,163.6162,18.6539,245.6912,-16.977,2.6651,0.53282,-11.1918,31.4447,17.5872,-6.9282,
-192.3957,-3.7308,-7.9944,-30.378,158.2869,26.1144,253.1527,-12.258,17.6651,-9.06,-4.7964,26.1144,32.5103,3.7308,
-207.3957,3.1977,-3.1977,-26.6475,152.4246,24.5157,252.6197,-22.3839,26.648,-4.2633,-5.3295,21.3187,20.2521,-4.2633,
-222.3957,-1.0662,-8.5267,-41.6475,158.8203,22.3841,252.6194,-26.6477,11.648,5.3297,-20.3295,23.4498,13.8569,-19.2633,
-237.3957,6.3954,-6.3954,-49.0314,166.2818,37.3841,257.9497,-24.5154,-3.352,14.9236,-30.9108,21.3185,20.2528,-17.0539,
-252.3957,14.3898,-2.6646,-34.6416,154.0238,48.4985,252.0866,-21.8503,-13.3231,2.6646,-39.9713,12.2585,7.9949,-5.8626,
-267.3957,11.7246,-6.3954,-37.3067,166.2808,36.2406,264.3445,-17.0549,-3.1974,3.1974,-28.7795,17.0539,20.2518,-3.1974,
-282.3957,11.1918,-7.9939,-45.3011,181.2808,33.5765,258.4825,-28.2467,2.6646,-2.6646,-23.9826,10.1262,33.5765,-7.9939,
-297.3957,26.1918,7.0061,-30.3785,191.3301,48.5765,259.5476,-13.2467,-4.7964,-13.3236,-19.7195,4.7964,29.3124,-10.1267,
-312.3957,37.8401,17.5877,-37.839,187.067,63.5765,274.5476,1.599,-19.7964,-11.1918,-32.5098,-1.599,16.5221,-21.8503,
-327.3957,38.9057,2.5877,-47.4329,202.067,61.2893,289.5476,-13.401,-19.719,2.6646,-43.1693,11.1918,16.5211,-11.1918,
-342.3957,33.0426,6.3954,-52.2293,217.067,61.8222,293.1241,-28.401,-15.9882,-6.3954,-45.8344,15.9882,22.3841,-9.5933,
-357.3957,40.5047,21.3954,-37.2293,214.2475,69.2842,282.4651,-31.9765,-18.12,-4.2636,-39.438,4.2636,34.1098,-21.318,
-372.3957,47.4329,35.7078,-28.2462,211.5829,77.2781,297.4651,-25.0483,-10.1262,6.9282,-37.839,-6.9282,35.7078,-17.5877,
-387.3957,38.9057,20.7078,-43.2462,226.5829,76.2124,312.4651,-29.3118,-15.4554,-5.8626,-48.4985,5.8626,35.7078,-17.5877,
-402.3957,39.9719,29.3124,-55.9596,227.5711,77.2786,301.119,-19.7195,-30.4554,-16.5216,-59.1575,16.5216,33.576,-29.3124,
-417.3957,54.3616,43.7021,-51.1637,212.5711,92.2786,299.52,-14.9226,-31.977,-6.3954,-56.4929,6.3954,33.0436,-23.4498,
-432.3957,60.757,33.0431,-52.2298,217.4445,107.2786,314.4426,-22.3836,-26.6472,-3.198,-62.8883,3.198,28.7795,-18.12,
-447.3957,57.0262,29.3124,-58.0919,223.3076,97.5309,322.4369,-30.378,-41.6472,-4.7964,-77.2776,4.7964,22.9175,-31.4436,
-462.3957,56.4934,40.5047,-58.6247,209.9829,82.5309,314.4426,-33.0431,-29.8452,1.0656,-63.954,-1.0656,26.6472,-24.5159,
-477.3957,60.7565,36.2406,-43.6247,201.4562,67.5309,311.2441,-30.9113,-14.8452,2.1318,-48.954,-2.1318,24.5154,-13.8569,
-492.3957,45.8339,21.2406,-45.8339,204.6537,67.1519,303.7831,-37.3067,-24.5159,-4.2636,-55.4268,4.2636,18.12,-28.8569,
-507.3957,35.1754,6.3959,-53.2955,189.6537,74.6135,292.0579,-40.5047,-39.5159,-3.198,-70.4268,3.198,18.12,-38.3724,
-516.9645,50.1754,17.0539,-38.2955,186.5331,81.0089,307.0579,-25.5821,-24.5159,2.1318,-55.4268,-2.1318,27.7134,-23.3724,
-501.9645,65.1754,32.0539,-29.8452,201.5331,92.7335,322.0579,-17.0544,-9.5159,-8.5272,-40.4268,0,42.7134,-8.3724,
-486.9645,61.8232,38.3729,-28.779,216.5331,98.0632,337.0579,-27.7134,-5.3287,-2.1318,-38.3719,2.1318,57.7134,-6.3954,
-494.0475,46.8232,23.3729,-43.779,201.9891,83.0632,341.6231,-38.9057,-16.5211,10.1262,-52.7621,-10.1262,43.1693,-21.3954,
-487.1188,54.3616,21.3185,-40.5042,200.3906,82.0745,347.4852,-23.9057,-9.5933,5.3298,-43.7021,-5.3298,28.1693,-17.0539,
-472.1188,69.3616,32.5098,-30.3785,215.3906,97.0745,353.3473,-8.9057,-9.0605,-0.53333,-37.8401,0.53333,27.1806,-2.0539,
-457.1188,75.6796,28.779,-36.2406,220.6419,100.1945,356.0124,-21.3185,-11.7246,5.3298,-43.7021,-5.3298,30.9113,-6.3954,
-446.0818,81.5422,28.2467,-26.1144,205.6419,89.0027,355.4791,-25.0488,-1.5985,1.5985,-36.7739,-7.9944,39.9719,-7.9944,
-431.0818,89.5366,40.5047,-18.12,204.6547,104.0027,353.8806,-11.7251,0,0,-30.9108,-2.1313,47.9662,-1.0656,
-417.8356,82.074,41.5703,-27.7139,204.6537,109.7879,349.617,-11.7251,-15,4.2636,-45.9108,-4.2636,32.9662,-16.0656,
-415.1699,86.8714,35.7083,-17.5872,200.9229,100.7279,349.0842,-2.6651,-30,2.6651,-60.9108,-13.3236,17.9662,-28.2467,
-401.8458,94.8663,41.5708,-19.1862,204.6542,110.855,364.0842,2.1318,-22.3831,-2.1318,-55.4263,-21.3175,25.5821,-22.3831,
-386.8458,103.3935,54.3616,-17.0539,206.7865,125.855,379.0842,-6.3954,-11.7246,6.3954,-42.6355,-6.3954,34.1093,-7.461,
-391.7207,90.0684,41.0375,-21.8518,191.7865,110.855,364.0842,-14.3903,-6.9287,-0.53282,-42.1031,0.53282,29.3124,-0.53282,
-396.5171,75.6791,26.6472,-24.5159,197.1921,95.855,356.0129,-5.3292,-1.0656,-1.0656,-33.0431,-1.0656,38.3724,1.0656,
-383.1935,80.476,36.7734,-19.719,212.1921,95.3981,371.0129,-17.5877,-13.3241,10.1262,-41.038,-10.1262,34.6421,-12.2585,
-368.1935,90.6022,51.7734,-23.4493,227.1921,110.3981,381.5945,-22.3836,-14.9221,12.7908,-47.9652,-14.9221,26.6482,-12.7908,
-353.1935,105.6022,59.6909,-13.8569,219.5763,123.6448,377.3304,-7.3836,-7.461,-1.0662,-40.5042,-12.7903,29.8457,-3.1974,
-338.1935,120.6022,71.4155,-4.2636,234.5763,117.2494,389.056,4.2636,-11.7251,-7.4615,-44.7683,-12.7908,34.1088,-8.5272,
-323.1935,135.6022,86.4155,-4.7964,249.5763,122.0469,402.3796,-10.7364,-6.9277,4.7964,-43.1688,-19.7195,36.7739,-10.1257,
-308.1935,150.6022,101.4155,-1.0656,264.5763,124.711,395.4509,-14.9231,-7.4615,1.0656,-33.0431,-34.1088,31.9775,-3.198,
-293.1935,165.6022,86.4155,-1.5985,271.2728,133.771,380.4509,0.076902,-22.4615,-13.3236,-48.0431,-41.0375,21.8508,-12.258,
-278.1935,180.6022,91.1345,-1.599,286.2728,146.5613,365.4509,1.599,-37.4615,-20.7857,-63.0431,-48.4996,7.9939,-27.258,
-263.1935,195.6022,106.1345,0.53282,284.0646,147.6284,364.0073,-0.53282,-33.576,-21.8508,-69.816,-50.6303,0.53282,-25.0488,
-248.1935,210.6022,96.9971,0,269.0646,151.3582,377.3299,0,-30.9118,-12.7908,-54.816,-43.7026,0,-17.0544,
-233.1935,225.6022,83.1401,11.7246,257.9486,162.0172,368.8032,6.3954,-39.4385,-6.3954,-55.4273,-40.5052,-6.3954,-20.2528,
-218.1935,240.6022,98.1401,12.2575,256.3502,160.4187,353.8032,11.1918,-37.8401,-11.1918,-59.158,-36.7744,-11.1918,-16.5221,
-203.1935,255.6022,113.1401,13.3241,269.142,156.1551,345.8867,6.9282,-33.5754,-18.6534,-44.2349,-39.9714,-6.9282,-18.6534,
-188.1935,270.6022,102.8602,7.9944,272.3394,159.3526,333.0954,13.3236,-48.4991,-28.2467,-59.1575,-54.9714,-7.9944,-33.6534,
-173.1935,285.6022,94.8653,4.2641,257.9497,174.3526,326.1672,28.3236,-49.0314,-28.779,-71.416,-56.4929,-4.2641,-37.3062,
-158.1935,300.6022,90.6012,18.12,242.9497,181.2034,320.8375,13.3236,-35.1754,-20.2523,-62.8883,-50.0975,-12.7908,-22.3846,
-143.1935,298.9867,87.9371,12.258,246.7568,170.0121,322.4369,2.6651,-33.576,-7.9944,-60.2232,-52.7626,-11.1923,-28.2467,
-128.1935,289.9266,88.4699,-2.742,248.3563,157.7541,321.9041,17.6651,-48.576,-17.0544,-75.2232,-58.6247,-10.6585,-43.2467,
-113.1935,293.1246,95.9314,-1.0656,247.2907,164.15,306.9041,18.121,-63.576,-28.7795,-90.2232,-55.4268,-24.5159,-58.2467,
-98.1935,301.1185,100.7274,2.6646,254.2179,179.15,291.9041,16.5211,-53.8288,-15.4554,-85.8053,-48.4985,-19.719,-59.158,
-83.1935,289.3928,98.5956,7.9944,239.2179,174.2757,289.3928,31.5211,-39.9719,-13.3246,-70.8053,-57.0262,-7.9944,-44.158,
-68.1935,274.3928,87.9366,6.9282,224.2179,159.2757,280.8661,16.5211,-49.5652,-28.3246,-62.356,-55.9601,-6.9282,-30.3785,
-53.1935,259.3928,86.8714,12.258,229.7024,164.6828,276.603,6.9287,-47.4324,-23.9831,-54.8939,-40.9601,-6.9287,-41.0375,
-58.6252,255.8174,95.9309,13.8569,225.9722,159.8859,279.2666,21.9287,-32.4324,-13.8569,-52.2293,-38.3729,-15.9893,-49.0324,
-73.6252,241.4281,102.8597,5.8626,210.9722,144.8859,270.2076,36.9287,-28.2462,-10.1262,-55.9601,-53.3729,-5.8626,-41.037,
-88.6252,226.4281,87.8597,2.1323,206.786,129.8859,255.2076,38.3724,-43.2462,-21.318,-70.9601,-52.2298,-2.1323,-55.4268,
-103.6252,211.4281,72.8597,8.5272,196.1265,144.8859,240.2076,38.3724,-39.439,-19.1867,-67.1519,-38.3724,-8.5272,-56.4934,
-118.6252,196.4281,61.8227,9.5928,181.1265,159.8859,225.2076,37.3067,-24.439,-9.5928,-52.1519,-43.7016,-15.9887,-41.4934,
-133.6252,181.4281,56.4929,5.3298,181.2039,144.8859,210.2076,36.2406,-28.779,-5.3298,-52.2293,-34.1093,-10.659,-31.977,
-148.6252,166.4281,53.2955,4.2636,189.7316,129.8859,195.2076,46.8996,-33.0431,-5.3292,-50.0975,-19.1093,-4.2636,-38.3724,
-163.6252,151.4281,39.9714,10.1262,177.4731,114.8859,187.066,42.1026,-27.1806,-19.719,-47.4329,-34.1093,-10.1262,-45.3016,
-178.6252,136.4281,36.7739,1.5985,179.6049,99.8859,180.6706,50.6303,-30.378,-10.1257,-47.4324,-42.1031,-1.5985,-44.2355,
-193.6252,121.5135,38.3729,-7.461,164.6049,84.8859,165.6706,44.7678,-35.1749,4.8743,-50.097,-27.1031,-5.3298,-46.9001,
-208.6252,112.4535,37.8401,3.7303,149.6049,69.8859,150.6706,29.7678,-33.5765,-3.7303,-50.6308,-29.3129,-14.3898,-47.4329,
-223.6252,111.9207,44.7688,-6.3954,157.7546,84.8859,159.8859,34.1093,-21.3175,-13.8559,-43.7021,-44.3129,0.61023,-36.2406,
-238.6252,114.5848,38.9057,-19.719,163.6167,95.3981,162.551,49.1093,-25.0493,-20.7847,-45.3006,-48.4985,15.6102,-35.7078,
-250.4881,114.0515,31.9775,-14.9231,148.6167,87.4042,147.551,46.8996,-40.0493,-26.6472,-55.4268,-36.2411,14.9231,-43.7026,
-246.7573,108.1894,34.6416,-12.258,144.4305,74.0806,149.7597,42.1031,-47.4334,-13.3236,-52.7626,-25.0488,12.258,-45.3011,
-260.6138,93.1894,19.6416,-16.5211,129.4305,59.0806,148.6936,46.3673,-36.7734,1.6764,-61.2893,-25.0483,-2.742,-55.9601,
-275.6138,78.1894,8.5272,-23.4503,114.4305,52.2298,137.5018,31.3673,-33.0431,12.7908,-65.0206,-25.5816,-8.5272,-53.2955,
-286.7287,69.2837,7.461,-19.1862,99.4305,67.2298,133.2387,30.9113,-31.977,3.1974,-55.4273,-37.3062,-3.1974,-44.7678,
-281.9323,74.0801,6.9282,-4.1862,86.8709,63.4206,148.2387,45.9113,-16.977,1.599,-40.4273,-36.7744,-1.599,-34.6421,
-287.7943,61.8227,7.4616,-6.3949,89.5366,50.0975,156.6885,60.9113,-4.2636,-4.2636,-33.0431,-23.4503,4.2636,-41.5703,
-290.9923,55.4268,15.9887,-12.7908,74.5366,65.0975,147.0946,45.9113,-19.2636,-7.4615,-46.8996,-12.7908,7.4615,-45.8339,
-300.0528,54.8934,5.8626,-11.1928,59.5366,66.6186,135.9028,49.5642,-29.3129,7.5385,-49.5652,-15.4564,-5.8626,-35.7078,
-302.7169,51.1642,0,0,59.6914,60.757,130.0412,52.2298,-14.3129,22.5385,-34.5652,-22.3836,-2.1313,-34.1088,
-294.7225,36.1642,-0.53282,-15,73.015,50.6303,134.8377,37.2298,-6.9277,7.5385,-27.1801,-31.4436,2.6651,-49.1088,
-279.7225,47.4324,14.3893,-21.8508,88.015,55.9596,149.8377,43.1688,-14.3903,3.7308,-36.7739,-16.4436,-3.7308,-39.9719,
-279.8005,50.6303,6.9287,-7.9944,75.1463,70.9596,134.8377,58.1688,-18.6529,18.7308,-50.6303,-6.9287,-14.3893,-36.7739,
-281.3989,45.8344,-1.0662,-2.1318,62.8888,85.9596,119.8377,68.2181,-5.3297,33.7308,-37.3062,-8.5267,0.61074,-34.1093,
-281.9323,33.576,-2.6651,-17.1318,54.8939,85.8058,134.8366,55.9596,-4.7964,18.7308,-37.8396,-6.9287,2.6651,-36.7739,
-284.5969,28.7795,0,-32.1318,56.4934,73.5478,127.9089,51.1632,-19.7964,3.7308,-52.8396,-8.5272,3.198,-45.8339,
-273.9379,23.4498,-2.1318,-39.4385,71.4934,78.8765,112.9863,55.4273,-28.779,6.3954,-60.7565,-23.5272,2.1318,-52.2293,
-265.9435,22.917,2.6646,-24.4385,76.2124,70.8822,110.3212,59.157,-13.779,15.4554,-45.7565,-32.5108,-2.6646,-46.3673,
-269.1415,15.4559,-3.7308,-28.2467,62.3555,64.4868,106.0571,47.4324,-12.258,5.8621,-43.1688,-36.7739,3.7308,-48.4991,
-260.0809,24.5164,-5.3298,-36.2406,72.4817,74.614,118.3156,60.7565,-26.6477,5.3298,-58.1688,-34.1093,12.7913,-45.8334,
-267.542,29.8457,1.0662,-28.779,71.416,77.8109,108.7227,75.7565,-17.0539,6.3954,-52.2293,-27.7134,-1.0662,-36.2406,
-269.6738,19.1862,-2.1318,-27.7134,72.4817,92.8109,93.7227,66.0868,-6.3954,2.1318,-38.3719,-12.7134,11.7257,-23.4498,
-254.6738,18.121,-17.1318,-33.0431,83.1407,96.9981,94.8658,51.0868,-21.3954,4.2636,-53.3719,-4.2636,26.7257,-34.1088,
-248.8886,20.7857,-30.3785,-42.1026,68.1407,87.9376,97.5304,50.6309,-32.5098,10.1262,-63.4206,-10.1262,12.2585,-42.1026,
-251.5532,24.5164,-17.0539,-36.2406,66.0868,102.9376,96.9976,65.6309,-21.3175,19.1862,-52.2293,-2.1318,2.1318,-27.1026,
-261.1471,15.9882,-30.9113,-43.7021,66.0858,108.7217,81.9976,60.7565,-36.3175,10.659,-67.2293,-10.659,10.659,-18.1205,
-253.1527,14.3893,-30.378,-49.5647,62.3555,93.7217,66.9976,75.7565,-43.1688,10.1257,-74.0806,-10.1257,14.3893,-19.7195,
-246.2245,22.3836,-20.2523,-41.5703,61.8227,98.0627,81.9976,79.9427,-28.1688,22.3836,-59.0806,1.0656,-0.61074,-26.6482,
-251.5538,17.0549,-22.3841,-55.4273,68.2181,96.9976,83.1412,64.9427,-39.4385,20.2518,-70.3499,-6.3954,6.3954,-35.1749,
-242.4937,12.258,-14.3903,-57.0262,73.014,100.7279,71.9483,65.5524,-33.576,12.258,-62.356,-12.258,21.3954,-20.1749,
-230.7686,10.1262,-17.5877,-55.9601,65.5529,98.5961,86.9483,80.5524,-28.2462,10.1262,-62.3555,-11.1918,33.5754,-10.1262,
-224.9065,3.198,-32.5877,-70.9601,80.5529,96.9971,98.0627,65.5524,-43.2462,22.3836,-77.3555,-3.198,18.5754,-22.3846,
-219.0434,3.7308,-34.6416,-85.9601,95.5529,111.9971,83.0627,50.5524,-58.2462,16.5216,-92.3555,-3.7308,19.7195,-18.6529,
-211.5819,11.1923,-29.3124,-98.5961,101.7945,117.7833,78.3442,65.5524,-43.2462,4.7964,-107.1233,-5.8621,28.2467,-4.7964,
-218.5106,4.2636,-39.439,-113.5961,102.3263,107.6566,70.3499,72.4812,-58.2462,6.3949,-119.3817,-4.2636,25.5816,-15.9887,
-215.846,-0.53282,-48.4991,-128.5961,108.1894,122.6566,55.3499,57.4812,-73.2462,7.9944,-129.5074,0.53282,23.9831,-21.8508,
-209.9834,8.5272,-40.5047,-113.5961,93.1894,132.1725,52.2288,47.9652,-58.2462,3.198,-114.5074,-3.198,21.318,-8.5272,
-215.3132,23.5272,-25.5047,-98.5961,78.1894,117.1725,58.6252,62.9652,-43.2462,5.3298,-99.5074,-14.9226,15.9882,-5.3298,
-228.104,27.7129,-10.5047,-83.5961,63.1894,102.1725,43.6252,47.9652,-28.2462,0,-84.5074,-27.7139,4.2636,-20.3298,
-213.104,17.0539,3.1974,-68.5961,48.1894,87.1725,42.6365,42.6365,-19.1862,-3.1974,-69.5074,-21.3185,10.659,-30.9113,
-199.3244,19.1867,-11.7251,-53.5961,33.1894,72.1725,40.5047,54.3611,-4.1862,-11.7251,-56.4929,-28.7795,8.5272,-17.0544,
-194.528,23.9831,-13.3236,-38.5961,18.1894,60.2242,25.5047,55.9596,5.8621,-7.9944,-41.4929,-29.3124,10.1257,-15.4559,
-198.2583,14.9231,-9.5928,-23.5961,3.1894,75.2242,10.6595,54.3611,-9.1379,0,-40.5047,-20.2523,9.5928,-22.3836,
-207.8516,8.5272,-17.0544,-8.5961,5.3292,72.4822,4.2636,50.0975,-24.1379,6.3959,-55.5047,-18.12,3.198,-20.2523,
-199.8573,18.6539,-7.9944,5.8621,-5.8621,57.4822,3.7308,55.9606,-9.1379,19.7195,-42.1031,-18.6529,11.1923,-5.2523,
-189.7316,19.1862,-2.1318,2.1318,-9.5933,49.0314,3.1974,57.5586,-6.3954,7.461,-30.9118,-31.9775,10.659,-19.1862,
-192.929,17.0544,4.2636,-6.3959,0,51.1632,7.4615,54.3611,-14.9231,0,-44.7683,-25.5816,4.2636,-23.4503,
-207.929,18.1205,5.3297,8.6041,-15,36.1632,-5.3298,49.0314,-1.0662,12.7913,-40.5047,-15.9882,1.0662,-8.4503,
-197.1931,21.3175,5.3287,20.2518,-14.9226,37.3062,-7.4621,59.6909,-2.1318,13.8559,-37.3072,-26.6482,2.1318,-18.1205,
-182.1931,14.9231,5.3292,5.2518,0.07741,51.1632,7.5379,62.8883,-17.1318,-1.1441,-50.0975,-41.6482,3.198,-33.1205,
-167.1931,9.06,17.5872,-9.06,15.0774,36.1632,22.5379,47.8883,-19.7195,-16.1441,-43.1688,-50.6303,15.4559,-35.7072,
-165.2157,4.2636,23.4503,5.94,30.0774,21.1632,7.5379,32.8883,-4.7195,-17.0544,-35.1749,-35.6303,17.0544,-20.7072,
-160.4187,-1.5985,12.258,16.5216,36.7739,6.1632,0.53282,29.3124,-3.7308,-2.0544,-41.0375,-20.6303,3.7308,-10.1257,
-173.2095,-16.5211,0.53333,7.9939,23.9826,13.3241,3.7303,43.1693,-0.53333,6.9282,-35.7078,-21.8513,-0.53333,-10.1262,
-172.6767,-12.7913,7.461,-7.0061,23.4498,6.3954,9.5933,56.4929,3.1974,-3.1974,-26.6477,-36.2411,8.5267,-9.5933,
-166.8141,-0.53282,15.4559,0.53282,17.5872,0.53282,-0.53282,44.2355,-4.7964,1.5995,-34.6416,-22.917,6.9287,-24.5933,
-179.0721,-11.7246,9.5933,11.7246,2.5872,1.0662,-12.7903,29.2355,-1.0662,4.2641,-36.2406,-7.917,3.1974,-31.977,
-174.808,-18.12,10.6595,6.3959,4.2636,0,-13.8564,39.439,-1.0656,0,-41.5698,7.083,4.2636,-16.977,
-172.6767,-3.12,15.9882,10.659,7.461,-1.0662,-12.7903,54.439,1.0662,10.659,-42.636,-7.917,-1.0662,-1.977,
-183.3359,1.0659,15.989,21.3182,-7.539,-5.3295,-1.0659,51.1634,16.0662,20.2526,-27.636,-22.917,5.3295,-2.1321,
-171.0777,-5.8626,15.4554,35.7078,-15.4554,-9.06,-0.53282,43.1693,14.3898,11.1918,-12.636,-7.917,10.1262,-0.53282,
-158.2869,-6.9282,14.3903,35.7083,-0.45541,-11.1918,-6.9282,52.7626,1.5995,6.9287,-27.636,-2.6646,-0.53282,5.8631,
-165.2154,-3.1977,14.9223,29.8454,-3.1977,-1.0659,-7.4613,57.5593,16.5995,12.791,-18.1203,-4.2639,9.5931,1.0659,
-163.0836,-4.2639,1.0659,28.7793,-15.9885,1.0659,-22.4613,50.0973,27.7136,9.5931,-6.3956,-1.0659,24.5157,-10.6592,
-148.0836,-5.3292,0,27.7139,-0.98849,0,-37.4613,53.2955,28.7795,20.2523,-11.7246,-2.1318,30.9118,-2.1318,
-143.3646,-3.731,3.731,23.9824,3.731,-10.1264,-34.6419,51.6962,17.5875,35.2523,-26.7246,-14.39,16.5218,-3.731,
-149.7595,-0.53308,3.7305,17.588,-5.8623,0.53308,-22.9167,48.4988,19.7193,50.2523,-23.9829,-5.8623,12.2577,-4.7967,
-147.0946,-6.3954,-7.461,6.3954,-20.8623,4.2636,-33.0431,38.3729,26.6477,36.2406,-14.9226,0,6.3954,0,
-133.771,8.6046,3.7308,21.3954,-11.1918,-10.7364,-32.5098,45.3011,22.9175,27.1811,-16.5216,-2.6646,-2.6646,2.6646,
-133.771,23.6046,15.4554,30.3785,1.599,-2.6646,-23.9826,55.9601,11.1918,37.8401,-21.8508,-3.7308,-1.599,-12.258,
-148.771,14.9231,0.45541,15.3785,-13.401,12.3354,-38.9826,56.4934,7.4615,34.1088,-26.6472,-6.3954,2.1318,-13.8564,
-163.771,2.6649,-11.1921,15.4562,-28.401,9.0603,-53.9826,61.2901,1.5987,19.7198,-19.7193,-1.5987,-2.6649,1.1436,
-173.2095,13.3236,-0.53282,23.9826,-16.5216,-5.9397,-48.4985,61.2893,4.7964,20.7857,-11.1918,-2.6646,1.599,0.53282,
-158.2869,6.9282,0.53333,10.1262,-5.8626,-0.53333,-39.9714,46.2893,7.9939,7.9939,-26.1918,-17.5877,15.4554,-14.4672,
-157.2208,1.5995,0.53282,-4.7964,-0.53282,14.4667,-41.037,32.5103,3.7308,4.7964,-36.7734,-2.5877,22.9175,-19.719,
-162.0177,10.659,-3.1974,8.5267,2.1318,-0.53333,-49.0319,47.5103,-2.1318,19.7964,-29.8457,12.4123,7.9175,-11.7251,
-163.0834,18.12,-6.3954,22.3836,0,0,-37.3067,62.5103,3.198,21.318,-25.5816,-2.5877,0,-12.7908,
-170.5449,21.3175,-3.1974,7.461,-15,15,-24.5159,55.4273,6.3954,8.5267,-31.9775,-17.5877,3.1974,-12.7913,
-171.6108,30.9111,1.0659,13.8567,-20.2521,14.9223,-28.7793,54.3614,8.5274,19.1859,-23.45,-3.1977,-1.0659,-13.8567,
-167.88,26.1147,-3.7305,22.9167,-12.2577,-0.077663,-32.5101,59.1578,12.2577,34.1859,-11.1921,5.8623,1.5987,-15.4557,
-167.3472,13.8567,-5.3295,15.989,-22.3839,7.4613,-31.9772,58.625,6.3956,26.6475,-19.1859,-5.3295,5.3295,-8.5269,
-161.4849,28.8567,-0.53282,20.7857,-23.9826,-5.8626,-22.917,62.356,12.258,21.8513,-20.7852,0.53282,3.7308,-4.7964,
-152.9574,43.8567,-5.8623,19.7198,-8.9826,-20.8626,-14.3895,47.4326,18.6531,31.4439,-19.7193,6.9285,5.8623,-16.5213,
-146.5618,37.8401,-2.6646,13.3241,3.7313,-9.06,-12.258,36.7744,3.6531,16.5221,-30.378,-8.0715,14.3898,-28.2462,
-148.1613,28.779,11.7246,10.659,-11.2687,5.94,-15.9887,51.7744,-5.3298,5.3298,-34.1093,-23.0715,11.7246,-24.5159,
-163.1613,28.2465,4.7972,7.9941,-26.2687,3.7305,-27.1803,57.026,4.7972,18.6536,-30.3783,-8.0715,-3.2754,-14.3895,
-153.49,40.5042,-2.1318,11.7257,-34.1088,5.3297,-33.0426,61.8232,15.9892,25.5821,-26.6472,2.1318,-3.1974,-4.2636,
-138.49,27.7139,2.1323,0,-19.1088,11.7251,-27.7134,62.8883,0.98925,10.5821,-31.977,-12.8682,3.198,-19.1862,
-132.1725,24.5159,17.1323,14.9221,-6.3959,0,-12.7134,72.4812,0,19.1857,-16.977,-13.8569,15.9887,-14.9231,
-143.3641,17.588,11.1921,10.1264,-17.5875,-10.1259,-11.1921,57.4812,7.9941,34.1857,-12.2577,-7.9941,13.3244,-14.3895,
-130.0402,25.5821,6.3954,-2.1318,-11.7251,4.8741,-11.7251,42.4812,2.1318,22.3841,-27.2577,-5.3298,7.461,-21.318,
-123.1125,30.378,6.9277,6.9277,-18.6539,9.06,-0.53282,57.4812,-12.8682,7.3841,-42.2577,-5.8631,0.53282,-18.6539,
-126.3094,25.0488,11.1923,18.6539,-23.9826,0.53282,-0.53282,71.9483,-4.7964,22.3841,-37.8396,-6.9277,11.1923,-6.9277,
-126.31,27.1811,11.1923,19.7195,-10.1262,-3.7308,-12.258,56.9483,3.7308,37.3841,-25.0488,-19.719,15.4559,-16.5216,
-126.8423,31.977,9.5933,12.7913,-12.7908,4.2641,-8.5272,47.9657,2.1318,22.3841,-19.1862,-13.8564,0.45592,-12.7908,
-139.6338,23.45,3.1977,8.5269,-27.7908,12.7905,-9.5931,56.4932,2.1321,11.7249,-25.5818,-2.1321,-11.7249,-2.1321,
-139.1007,28.2462,-3.7303,18.6534,-36.7739,15.4554,-21.8513,55.9601,3.7303,26.7249,-36.7739,-3.7303,3.2751,-11.1923,
-124.1007,29.8452,5.3292,13.8564,-21.7739,0.45541,-11.7251,53.2955,7.4615,24.5159,-39.4385,-17.0544,15.9887,-26.1923,
-123.6448,25.5816,8.5272,9.5928,-18.1205,-14.5446,1.0656,49.0319,2.1323,11.7251,-44.7678,-27.7134,0.98874,-26.6477,
-114.052,38.3729,2.1318,14.9226,-19.1862,0.45541,1.0662,44.7678,-6.3954,24.5164,-44.7678,-23.4498,-1.0662,-11.6477,
-104.4586,30.9113,3.1974,8.5267,-9.5933,3.1974,-3.1974,38.3729,-11.7246,34.1093,-38.3729,-20.2518,10.659,-22.3841,
-114.5853,15.9113,12.2575,13.3231,-24.5933,-11.8026,2.6646,37.839,-2.6646,36.7734,-28.2467,-5.2518,12.2575,-37.3841,
-120.9802,20.7852,3.7308,4.7964,-39.5933,-26.8026,3.7308,43.1698,-4.7964,28.2467,-33.576,0.53282,-0.53282,-31.4442,
-110.854,35.7852,4.2641,11.7246,-34.1088,-11.8026,1.0662,58.1698,-8.5267,27.7134,-36.2406,-4.2631,-3.1974,-16.4442,
-119.9146,50.7852,6.9277,19.7195,-49.1088,3.1974,-0.53282,73.1698,-10.1267,28.2467,-39.9719,0.53282,-2.6651,-9.06,
-132.172,65.7852,-4.2636,13.8564,-64.1088,18.1974,0,76.7458,-5.3292,35.1754,-38.3724,2.1323,0,-14.9221,
-147.172,73.015,-14.3898,21.8508,-79.1088,33.1974,-7.9944,82.6078,3.7308,43.1688,-29.3124,-9.06,9.06,-3.7308,
-162.172,61.2888,-14.3903,15.4549,-94.1088,48.1974,-19.7195,89.0027,-4.7964,39.9708,-37.8401,5.8621,3.7308,-3.7308,
-171.0777,61.2893,-9.0605,18.6534,-109.1088,63.1974,-4.7969,93.2668,-13.3241,39.9713,-43.1693,20.8621,-1.599,1.599,
-158.8198,56.4929,-20.2523,25.5821,-124.1088,78.1974,7.461,81.0089,-11.7246,40.5042,-34.1088,5.8621,1.0662,-1.0662,
-173.8198,41.4929,-33.5765,12.258,-127.3761,93.1974,0.53282,69.816,-0.53282,33.576,-28.2467,-9.1379,4.7964,-6.9287,
-176.9403,30.9113,-29.8452,13.8569,-127.9084,89.536,1.0662,71.416,-1.0662,21.3185,-35.1749,-21.318,1.0662,-2.1318,
-163.0834,39.4385,-27.7134,21.3185,-125.7766,104.536,16.0662,65.0201,-1.0662,25.5821,-33.0431,-26.6477,1.0662,-2.1318,
-172.1434,35.7083,-42.7134,16.5216,-136.9684,117.7833,19.7195,66.6191,3.7308,38.9062,-30.378,-15.4549,-3.7308,-3.7308,
-176.9403,39.439,-50.0975,13.8575,-148.1608,112.9858,10.6595,81.6191,-4.2636,44.7683,-42.636,-0.45491,-14.9221,-8.5272,
-161.9403,54.439,-35.0975,28.2467,-133.1608,125.2438,25.6595,91.135,-6.9287,48.4991,-35.7078,2.6651,-2.6651,-5.8621,
-146.9403,68.2181,-20.0975,31.977,-118.1608,137.5023,40.6595,76.135,-18.1205,42.6365,-39.4385,3.1974,-7.461,-3.1974,
-161.9403,53.2181,-30.3785,16.977,-133.1608,128.4412,33.5765,64.4873,-33.1205,27.6365,-54.4385,4.7969,-22.461,-2.6646,
-153.4905,49.0314,-15.3785,19.1862,-132.1725,130.0397,48.5765,79.4873,-18.1205,25.5811,-45.8344,-2.1318,-14.9226,2.1318,
-138.4905,46.3673,-0.37851,25.0493,-117.1725,115.0397,63.5765,64.4873,-3.7303,25.0493,-33.576,-17.1318,-2.6646,-12.8682,
-132.172,42.636,-6.3949,10.0493,-107.6566,110.8545,78.5765,50.0975,-3.198,30.9108,-43.7016,-2.1318,-6.3949,-14.9231,
-142.2982,45.3006,-10.1262,3.7303,-110.3212,125.8545,83.674,65.0975,-12.2575,26.1149,-53.8278,3.7303,-13.3241,-3.7303,
-127.2982,59.158,1.599,14.3898,-95.3986,140.8545,98.674,63.4216,-2.6646,38.9057,-38.8278,-5.8626,-1.599,-12.2575,
-118.3156,61.8227,-7.4615,3.198,-102.3268,135.3705,113.674,48.4216,-6.3949,47.9662,-41.5703,-3.198,3.198,-22.3836,
-123.1125,67.6852,-9.0605,4.7959,-103.9258,134.8371,123.112,58.0914,-21.3949,37.839,-56.5703,-2.6646,2.6646,-7.9949,
-108.1125,68.217,-2.1318,3.1974,-88.9258,148.1608,138.112,55.4263,-36.2416,28.779,-68.2181,-17.0549,2.1318,-9.5933,
-93.1125,68.7514,0.53282,7.9944,-73.9258,142.2982,153.112,40.4263,-36.7739,36.7739,-68.7504,-12.258,-0.53282,-20.7852,
-95.3986,65.5534,-0.53282,9.06,-76.2119,132.7053,162.5505,39.9719,-43.1688,32.5103,-75.1463,0.53282,-7.9944,-13.3236,
-80.476,73.0145,14.3898,-1.599,-63.4216,147.7053,175.3408,45.3006,-46.3673,29.3118,-75.1468,-3.7313,1.599,-7.9949,
-65.476,70.3504,17.0549,-5.3298,-49.0314,148.1608,181.2039,30.3006,-58.6242,20.2528,-86.3381,-18.7313,5.3298,-22.9949,
-54.8944,55.3504,9.0605,-5.8626,-50.6309,133.1608,183.869,15.3006,-62.355,6.9282,-94.3325,-32.5098,5.8626,-36.7734,
-51.6965,55.9601,12.2585,-2.6646,-52.7621,132.7059,198.7921,2.6646,-59.157,11.1918,-81.5417,-21.8503,2.6646,-23.9826,
-53.295,62.8888,22.3841,-3.1974,-47.9657,140.6992,203.5875,5.3297,-62.8888,22.3841,-74.614,-19.1862,3.1974,-25.5821,
-57.5591,52.2298,21.318,-3.198,-53.2955,127.9089,202.5224,12.7908,-61.8227,21.318,-82.075,-26.6472,3.198,-28.7795,
-59.6904,43.7016,17.0544,4.2636,-68.2955,115.1181,201.4557,6.3949,-53.2955,17.0544,-84.2063,-37.3067,-4.2636,-19.1867,
-44.6904,53.8288,23.9836,-1.599,-71.9488,123.112,213.7142,1.599,-54.8934,19.72,-79.4094,-28.2462,1.599,-17.5867,
-38.3729,59.6909,19.1862,-6.3954,-67.1524,128.9741,222.7742,11.7246,-63.9545,7.461,-86.3391,-24.5164,6.3954,-32.5867,
-49.0319,55.4268,7.4615,-3.198,-79.9427,126.8423,217.4445,8.5272,-59.6904,10.6595,-90.6022,-27.7139,3.198,-30.9108,
-46.8996,59.6904,20.2523,3.198,-72.4822,134.3038,220.6424,-3.198,-50.0975,25.6595,-78.8771,-18.12,5.3292,-15.9108,
-38.3724,65.0206,28.7795,7.4615,-63.954,127.9089,219.5768,-7.4615,-57.5591,33.0431,-70.3499,-14.9231,11.7251,-17.0544,
-38.9052,59.1575,18.6539,0.53282,-75.1463,116.7166,219.044,-0.53282,-55.9596,18.0431,-68.7514,-19.7195,11.1923,-19.7195,
-44.7673,58.6247,22.3846,9.5939,-84.2063,114.0525,217.4455,0,-40.9596,24.5159,-63.954,-22.3836,-1.0656,-4.7195,
-34.1088,58.6247,27.7139,13.8564,-77.8114,111.9202,218.5111,-11.7251,-41.5703,30.9108,-66.0863,-36.2411,-1.0656,1.0656,
-19.1088,55.9601,19.719,6.9282,-66.6186,115.6515,233.5111,-17.5877,-41.037,22.917,-66.6186,-44.2349,13.9344,-10.1262,
-14.9221,63.955,12.7908,17.0544,-81.6186,116.1838,240.8948,-24.5159,-40.5037,25.5816,-62.8883,-29.8452,23.4503,-12.7908,
-29.9221,61.8222,13.8569,7.461,-96.6186,102.3268,225.9722,-37.3072,-46.9001,30.9113,-61.8232,-21.3185,8.4503,-5.3298,
-14.9221,55.4268,24.5149,-2.1323,-81.6186,93.7991,240.9722,-43.7026,-42.637,30.9108,-54.3621,-35.1754,18.12,0,
0.077917,40.4268,17.5872,-7.9944,-66.6186,78.7991,255.9722,-58.7026,-57.637,15.9108,-69.3621,-50.1754,13.3236,-15,
15.0779,39.9714,26.1149,-6.9282,-51.6186,64.4873,255.2845,-73.7026,-66.6196,6.9282,-69.8165,-35.1754,7.9939,-30,
7.9944,37.8396,14.3903,-3.7308,-41.0375,65.5534,240.2845,-75.1463,-68.7504,10.1267,-71.9483,-29.3124,3.7308,-25.0488,
2.1318,35.1749,-0.60973,2.1318,-55.4273,68.2181,232.3671,-78.8776,-67.1524,9.5933,-81.0089,-44.3124,3.1974,-19.1862,
13.3236,38.9052,12.258,5.8621,-41.0375,69.817,240.3619,-93.8776,-61.2898,-4.7964,-81.5422,-59.3124,4.7964,-15.4559,
24.5159,45.8339,21.318,10.6585,-26.0375,60.757,249.422,-92.7335,-59.6904,-9.5928,-79.9427,-59.6904,9.5928,-19.1867,
17.5872,36.7739,10.1257,0.53282,-34.6416,49.5647,246.7568,-87.9371,-54.8939,-0.53282,-79.4099,-51.696,16.5216,-19.7195,
15.9892,29.8457,15.9892,2.1318,-49.6416,54.3616,245.1589,-96.9966,-51.1627,-2.1318,-74.6129,-50.097,8.5277,-15.9882,
27.7139,39.439,24.5159,10.6595,-44.7683,65.0206,252.6199,-99.1294,-40.5047,-5.3292,-59.6129,-53.2955,5.3292,-5.3292,
12.7913,38.3729,9.5159,6.3954,-55.4273,50.0206,237.6199,-100.195,-40.5042,-5.3297,-57.5586,-58.6252,2.1318,-2.1318,
2.6651,33.576,4.7964,16.5216,-70.4273,35.0206,222.6199,-109.2556,-43.1688,-1.5985,-70.8827,-67.6847,1.5985,-3.7308,
17.6651,34.6416,19.7964,14.3893,-60.2242,41.0375,226.5045,-110.3212,-42.1031,-4.7964,-65.5534,-61.2898,4.7964,-7.9944,
32.5103,43.1688,30.378,12.258,-49.5647,56.0375,228.6368,-96.4648,-46.3667,-3.7308,-65.5534,-46.2898,3.7308,-3.7308,
17.5103,31.4442,15.378,12.2585,-64.5647,41.0375,215.8465,-101.794,-48.4985,-3.7303,-70.8822,-61.2898,-1.599,1.599,
2.5103,16.4442,0.378,15.9887,-79.5647,26.0375,208.9173,-116.794,-36.2411,3.198,-56.4924,-76.2898,-4.2636,0,
11.7251,18.12,5.3292,17.0544,-89.536,15.9887,204.6537,-130.0407,-40.5047,6.3949,-53.2955,-63.954,-11.7251,-5.3292,
11.1918,32.5098,3.7303,13.3241,-82.6073,30.9887,206.2527,-126.31,-54.8944,-2.6646,-62.356,-54.8944,-17.5877,2.6646,
19.1862,44.7678,10.659,28.3241,-84.2068,34.1093,214.247,-122.5792,-51.1637,-10.659,-56.4929,-54.3616,-15.9882,13.8569,
34.1862,44.2349,13.3241,36.7734,-80.476,20.7847,207.3183,-129.5079,-51.6965,-6.9282,-57.0257,-65.5529,-18.6534,6.9282,
33.0431,35.1754,5.3303,23.4503,-87.4042,10.6595,202.5224,-141.7654,-55.4268,-1.0656,-59.6904,-80.5529,-20.2523,1.0656,
18.0431,38.9057,2.6646,34.6421,-99.6622,15.4554,199.8568,-148.6941,-48.4985,-2.6646,-52.7621,-65.5529,-20.7857,14.3898,
18.1205,37.3072,-2.1318,39.4385,-92.7335,28.78,201.4562,-143.8972,-35.1749,2.1318,-43.7021,-50.5529,-10.659,29.3898,
4.7964,22.3072,-17.1318,34.6416,-102.8602,14.3893,203.0542,-149.7602,-27.1811,3.7308,-38.9062,-58.0924,-3.7308,27.1801,
-3.1974,18.1205,-15.9882,49.0314,-103.393,3.1974,213.1814,-152.4244,-12.1811,12.7913,-23.9062,-59.6904,2.1318,29.8457,
-6.3959,12.7908,-21.318,40.5047,-99.1294,3.198,198.1814,-162.0177,-1.0656,17.0544,-19.1867,-44.6904,1.0656,34.1088,
-7.4615,12.7908,-36.318,36.2411,-102.3268,14.9231,183.1814,-167.3475,-15.9887,19.1867,-30.9108,-45.8339,7.4615,41.5703,
-0.53282,12.258,-35.7083,34.6416,-108.1899,16.5216,182.8029,-167.8803,-20.7852,12.258,-32.5103,-48.4991,0.53282,45.3011,
14.4672,21.3185,-20.7083,34.1093,-105.5248,12.7913,188.6654,-168.4131,-13.8569,10.659,-25.5821,-50.0975,-10.659,33.0426,
21.3175,13.8559,-26.6477,24.5154,-118.3161,10.659,173.6654,-183.4131,-18.1205,6.3954,-34.1093,-65.0975,-6.3954,18.0426,
26.6472,13.8564,-35.1754,24.5159,-121.5135,25.5816,175.8741,-188.6654,-28.7795,-4.2636,-43.7026,-74.6135,4.2636,27.7129,
41.6472,28.8564,-20.1754,36.7739,-106.5135,37.8396,190.8741,-173.6654,-36.7739,-0.53282,-38.9062,-66.6196,0.53282,36.7739,
40.5042,42.6355,-6.3954,21.7739,-99.1299,24.5154,202.5219,-176.9408,-33.0436,6.3954,-41.5708,-59.6914,-14.4672,22.3831,
28.2467,38.9052,-3.7308,20.7852,-108.1894,25.0488,194.528,-172.1439,-18.0436,3.7308,-30.378,-51.6965,-14.3903,37.3831,
38.3729,53.9052,-6.3954,35.7852,-107.6566,29.8457,196.127,-159.8859,-5.3298,-1.0662,-15.9882,-66.6965,0.60973,52.2293,
42.6365,49.0324,-21.3954,22.3841,-110.854,14.8457,188.6654,-167.3469,-20.3298,5.3298,-27.7134,-76.7447,-5.3298,37.2293,
32.5098,35.7078,-27.1806,28.2462,-103.9258,5.8626,187.066,-165.7485,-15.4554,20.3298,-26.1149,-61.7447,-5.8626,25.0483,
19.7195,20.7078,-27.1801,26.1144,-99.6622,5.8621,177.4736,-177.4731,-11.1923,5.8621,-16.5216,-54.8939,-5.8621,40.0483,
21.318,34.1088,-23.4503,29.8452,-92.734,12.7908,170.5449,-180.1382,-6.3959,-1.0656,-9.5928,-69.8939,1.0656,41.5703,
9.0605,49.1088,-29.3124,36.7734,-104.9915,4.7969,163.6167,-171.0777,-12.2575,13.9344,-18.6534,-71.9488,-4.7969,26.5703,
4.2636,50.0975,-17.0544,29.8452,-101.2612,12.7908,170.5449,-165.2157,-8.5272,24.5159,-12.7908,-65.0206,-4.2636,28.7795,
6.9282,45.3006,-15.4554,19.719,-89.0032,21.8513,161.4844,-172.1439,-12.2575,9.5159,-19.719,-70.8827,-6.9282,30.3785,
10.1262,51.6965,-16.5211,23.9826,-87.9371,9.0605,155.0895,-172.1439,-11.1918,6.9282,-26.1149,-67.6847,-6.9282,29.3129,
20.2518,50.098,-1.5211,36.2406,-96.9971,-5.9395,169.4787,-170.5449,-5.3298,10.659,-11.1149,-63.9545,-1.0662,35.1749,
35.2518,57.5591,1.0656,45.8339,-88.4704,9.0605,168.4126,-164.1495,-9.5928,-3.198,-7.4615,-69.2842,-1.0656,30.9108,
50.2518,72.5591,2.1318,45.8334,-73.4704,24.0605,160.9516,-149.1495,-7.4621,-3.1985,-19.1862,-55.4273,-2.1318,40.5042,
65.2518,87.5591,9.0605,46.3673,-88.4704,39.0605,157.2208,-144.43,-22.4621,-9.0605,-34.1862,-55.9601,-17.1318,34.6421,
80.2518,102.5591,19.7195,55.9596,-103.4704,54.0605,158.2869,-138.0351,-37.4621,-19.7195,-45.3011,-66.6191,-32.1318,26.1144,
95.2518,117.5591,23.9831,52.7626,-118.4704,69.0605,143.3638,-123.0351,-44.2355,-21.8508,-46.3667,-81.6191,-37.8396,21.8508,
110.2518,132.5591,35.7072,55.9596,-133.4704,84.0605,130.573,-108.0351,-39.9719,-12.258,-54.8939,-96.6191,-44.2355,12.258,
125.2518,147.5591,40.5047,60.757,-148.4704,99.0605,128.9746,-95.9314,-47.9662,-9.5928,-61.8227,-87.4042,-50.0975,9.5928,
140.2518,162.5591,41.038,75.1468,-163.4704,114.0605,122.0464,-80.9314,-45.3006,-22.917,-59.157,-72.4042,-61.2893,22.917,
155.2518,177.5591,55.9601,89.0032,-178.4704,129.0605,114.5848,-66.6191,-36.7734,-30.3785,-51.6965,-77.2781,-67.6852,30.3785,
170.2518,192.5591,60.2242,99.6622,-193.4704,144.0605,114.5853,-65.5534,-42.1031,-16.5216,-49.5647,-83.6735,-68.7509,16.5216,
185.2518,207.5591,45.2242,107.6561,-208.4704,159.0605,108.7217,-57.5596,-47.9657,-6.3954,-56.4929,-71.416,-74.614,6.3954,
200.2518,222.5591,43.7021,95.932,-223.4704,174.0605,106.5904,-53.295,-42.6365,-17.0549,-54.3616,-71.416,-67.1524,17.0549,
215.2518,237.5591,58.7021,98.5961,-238.4704,189.0605,111.3869,-57.0257,-48.4985,-21.8513,-50.6309,-86.416,-52.1524,21.8513,
200.2518,252.5591,55.4268,107.6566,-253.4704,204.0605,109.7879,-51.1632,-50.0975,-7.4615,-56.4934,-79.9432,-49.0319,7.4615,
185.2518,267.5591,40.4268,92.6566,-268.4704,219.0605,94.7879,-58.0914,-36.7734,2.6646,-65.5529,-68.7509,-64.0319,-2.6646,
170.2518,282.5591,25.4268,77.6566,-283.4704,234.0605,79.7879,-73.0914,-38.9052,-1.5985,-66.6191,-68.7514,-73.015,12.3354,
155.2518,267.5591,10.4268,62.6566,-298.4704,249.0605,64.7879,-79.4099,-50.6303,-2.6651,-61.2898,-61.2898,-63.4211,27.3354,
140.2518,252.5591,-4.5732,55.9601,-313.4704,264.0605,49.7879,-71.9478,-45.3006,5.8626,-64.4873,-70.8822,-63.4206,14.3898,
125.2518,237.5591,10.4268,60.7565,-328.4704,279.0605,41.5708,-61.8222,-39.4385,14.9226,-59.6909,-85.8822,-66.0858,-0.61023,
110.2518,222.5591,25.4268,75.7565,-338.4252,294.0605,56.5708,-53.8278,-27.1806,20.7857,-44.6909,-75.1463,-51.0858,14.3898,
95.2518,207.5591,18.1205,89.536,-331.497,309.0605,71.5708,-67.1524,-25.5821,5.7857,-52.2293,-90.1463,-45.8344,7.461,
80.2518,222.5591,3.7308,84.7391,-316.497,324.0605,83.6735,-52.1524,-22.9175,-3.7308,-41.0375,-75.1463,-38.9052,21.8508,
65.2518,237.5591,12.258,83.6735,-305.3815,339.0605,85.8058,-37.1524,-37.9175,-13.3236,-47.4324,-60.1463,-52.7616,36.8508,
50.2518,252.5591,27.258,98.6735,-294.7231,354.0605,100.8058,-22.1524,-22.9175,1.6764,-34.6421,-49.5652,-37.7616,51.8508,
35.2518,267.5591,36.2411,84.2063,-301.6513,348.5514,88.4699,-37.1524,-11.7251,11.7251,-43.7026,-64.5652,-44.7683,36.8508,
20.2518,269.141,29.3129,92.2012,-308.5795,342.6888,86.8719,-26.1149,-22.917,23.9826,-33.5754,-74.0801,-44.2349,22.917,
5.2518,254.141,44.3129,107.2012,-311.2446,340.0242,96.9971,-30.9108,-17.0544,36.2411,-24.5159,-83.1407,-30.9108,17.0544,
-9.7482,266.4769,51.1637,95.932,-298.4533,355.0242,91.6684,-42.6355,-10.659,27.7144,-37.3062,-98.1407,-35.1749,10.659,
-24.7482,281.4769,44.2349,80.932,-283.4533,370.0242,92.2002,-27.6355,-23.9826,17.5877,-36.7744,-94.333,-47.4329,25.0483,
-39.7482,296.4769,36.2406,84.2068,-280.3328,356.0124,101.2612,-19.1862,-22.3841,19.1862,-36.2406,-81.0089,-45.8334,30.9113,
-54.7482,311.4769,51.2406,99.2068,-285.1297,341.0124,89.0032,-34.1862,-15.4554,21.8513,-51.2406,-87.9376,-46.3673,15.9113,
-69.7482,326.4769,66.2406,103.3925,-270.1297,326.0124,77.8109,-19.1862,-30.4554,18.1205,-60.7565,-79.9432,-51.1637,9.5933,
-84.7482,341.4769,67.1519,88.3925,-255.1297,341.0124,84.2063,-4.1862,-45.4554,3.1205,-68.2176,-92.7335,-55.4268,-1.0656,
-99.7482,356.4769,52.1519,73.3925,-240.1297,329.8975,99.2063,9.06,-59.1575,10.1257,-79.4099,-104.9915,-40.4268,-9.06,
-114.7482,371.4769,58.0924,88.3925,-225.1297,314.8975,109.2556,6.9282,-44.1575,25.0493,-73.0145,-99.6617,-29.3118,-6.9282,
-129.7482,386.4769,53.295,82.0745,-210.1297,325.1016,94.2556,8.5277,-39.4385,10.0493,-67.1524,-100.1955,-39.4385,-3.1974,
-144.7482,401.4769,68.295,90.6022,-214.247,330.4313,81.0094,22.3846,-39.438,-4.9507,-63.954,-96.9971,-31.9765,8.5272,
-159.7482,386.4769,83.295,105.6022,-206.786,315.4313,96.0094,7.3846,-34.1093,8.5267,-63.9545,-111.9971,-28.78,-2.1318,
-174.7482,371.4769,98.295,95.9314,-191.786,300.4313,111.0094,1.0656,-22.3836,23.5267,-48.9545,-122.5792,-22.3836,-1.0656,
-189.7482,386.4769,83.295,80.9314,-176.786,306.981,126.0094,16.0656,-37.3836,26.6472,-59.6904,-137.5792,-25.5816,-13.8564,
-204.7482,401.4769,89.0037,80.4765,-161.786,318.1733,126.3105,31.0656,-46.3667,15.4559,-63.4211,-130.573,-18.6529,-15.4559,
-219.7482,416.4769,104.0037,95.4765,-146.786,333.1733,141.3105,46.0656,-48.4991,16.5216,-58.0919,-122.0469,-16.5216,-18.6539,
-234.7482,431.4769,119.0037,94.8648,-131.786,348.1733,155.6218,61.0656,-41.5703,12.7908,-59.6914,-110.8545,-12.7908,-17.0554,
-249.7482,446.4769,134.0037,93.7996,-116.786,363.1733,150.2931,76.0656,-43.7021,6.3954,-74.6914,-95.8545,-27.7908,-6.3954,
-264.7482,434.8905,119.0037,101.2612,-102.3268,363.4739,157.7546,91.0656,-35.1749,2.1318,-81.0089,-108.7217,-42.7908,-2.1318,
-249.7482,449.8905,134.0037,101.2607,-87.3268,348.4739,170.5449,106.0656,-20.1749,3.198,-66.0089,-123.7217,-30.9118,-3.198,
-234.7482,463.1362,149.0037,100.7284,-72.3268,333.4739,164.6823,121.0656,-9.0595,5.8626,-51.0089,-138.7217,-15.9118,-12.2575,
-219.7482,448.1362,164.0037,87.9371,-78.3442,319.239,152.9577,136.0656,-16.5216,16.5216,-57.0262,-132.7053,-30.9118,-27.2575,
-204.7482,433.1362,179.0037,85.8053,-71.9488,326.7,147.6279,142.2987,-17.5877,17.5877,-54.8944,-138.0351,-45.9118,-32.5098,
-189.7482,418.1362,194.0037,86.3386,-56.9488,332.5626,159.8864,157.2987,-32.5877,4.2636,-57.5591,-153.0351,-46.8996,-29.8452,
-174.7482,403.1362,209.0037,75.1463,-41.9488,319.238,154.0233,147.6274,-47.5877,-10.7364,-72.5591,-168.0351,-61.8996,-44.8452,
-159.7482,388.1362,224.0037,60.1463,-48.4985,304.238,139.0233,132.6274,-62.5877,-25.7364,-87.5591,-183.0351,-76.8996,-59.8452,
-144.7482,373.1362,239.0037,45.1463,-33.4985,308.5795,154.0233,117.6274,-77.5877,-40.7364,-102.5591,-198.0351,-91.8996,-74.8452,
-129.7482,358.1362,254.0037,30.1463,-18.4985,293.5795,167.8808,102.6274,-92.5877,-55.7364,-117.5591,-213.0351,-106.8996,-89.8452,
-114.7482,343.1362,269.0037,15.1463,-3.4985,278.5795,155.6228,87.6274,-107.5877,-70.7364,-132.5591,-228.0351,-121.8996,-104.8452,
-99.7482,328.1362,284.0037,0.14628,9.06,265.9435,143.3648,72.6274,-122.5877,-79.4099,-147.5591,-243.0351,-120.9802,-119.8452,
-84.7482,313.1362,299.0037,-14.8537,24.06,250.9435,142.831,57.6274,-137.5877,-94.4099,-162.5591,-258.0351,-135.9802,-134.8452,
-69.7482,298.1362,314.0037,-29.8537,39.06,235.9435,137.5013,42.6274,-152.5877,-103.3935,-177.5591,-273.0351,-150.2931,-149.8452,
-54.7482,283.1362,299.0037,-14.8537,24.06,220.9435,122.5013,57.6274,-137.5877,-88.3935,-162.5591,-258.0351,-151.3587,-134.8452,
-69.7482,268.1362,284.0037,0.14628,9.06,205.9435,107.5013,72.6274,-122.5877,-73.3935,-147.5591,-243.0351,-158.2867,-119.8452,
-84.7482,253.1362,269.0037,15.1463,-5.94,190.9435,92.5013,87.6274,-107.5877,-58.3935,-132.5591,-228.0351,-173.2867,-104.8452,
-99.7482,238.1362,254.0037,30.1463,-20.94,175.9435,77.5013,102.6274,-92.5877,-43.3935,-117.5591,-213.0351,-180.6713,-89.8452,
-114.7482,223.1362,239.0037,45.1463,-35.94,160.9435,62.5013,117.6274,-77.5877,-28.3935,-102.5591,-198.0351,-182.2698,-74.8452,
-129.7482,208.1362,224.0037,60.1463,-50.94,145.9435,47.5013,132.6274,-62.5877,-13.3935,-87.5591,-183.0351,-196.1267,-59.8452,
-144.7482,193.1362,209.0037,75.1463,-65.94,130.9435,32.5013,147.6274,-47.5877,1.6065,-72.5591,-168.0351,-191.8631,-44.8452,
-159.7482,178.1362,194.0037,90.1463,-80.94,115.9435,17.5013,162.6274,-32.5877,16.6065,-57.5591,-153.0351,-194.5278,-29.8452,
-174.7482,163.1362,179.0037,105.1463,-95.94,100.9435,2.5013,177.4734,-17.5877,31.6065,-42.5591,-138.0351,-209.5278,-14.8452,
-189.7482,148.1362,164.0037,120.1463,-110.94,85.9435,-12.4987,162.4734,-2.5877,46.6065,-27.5591,-123.0351,-216.3786,0.15482,
-204.7482,133.1362,149.0037,135.1463,-125.94,70.9435,-27.4987,147.4734,12.4123,61.6065,-12.5591,-108.0351,-217.445,15.1548,
-219.7482,118.1362,134.0037,150.1463,-140.94,55.9435,-42.4987,132.4734,27.4123,76.6065,2.4409,-93.0351,-232.445,30.1548,
-234.7482,103.1362,119.0037,165.1463,-155.94,40.9435,-57.4987,117.4734,42.4123,91.6065,17.4409,-78.0351,-247.445,45.1548,
-249.7482,88.1362,104.0037,180.1463,-170.94,25.9435,-72.4987,102.4734,57.4123,106.6065,32.4409,-63.0351,-251.0209,60.1548,
-264.7482,73.1362,89.0037,195.1463,-185.94,10.9435,-87.4987,111.9199,72.4123,121.6065,47.4409,-48.0351,-263.2786,75.1548,
-279.7482,58.1362,74.0037,210.1463,-200.94,-4.0565,-102.4987,126.9199,87.4123,136.6065,62.4409,-33.0351,-257.4163,90.1548,
-294.7482,43.1362,59.0037,225.1463,-215.94,-19.0565,-117.4987,141.9199,102.4123,151.6065,77.4409,-18.0351,-242.4163,105.1548,
-309.7482,28.1362,44.0037,240.1463,-230.94,-34.0565,-132.4987,156.9199,117.4123,166.6065,92.4409,-3.0351,-227.4163,120.1548,
-324.7482,13.1362,29.0037,255.1463,-245.94,-49.0565,-147.4987,141.9199,132.4123,181.6065,107.4409,11.9649,-213.1811,135.1548,
-339.7482,-1.8638,14.0037,270.1463,-260.94,-64.0565,-162.4987,126.9199,147.4123,196.6065,122.4409,26.9649,-228.1811,150.1548,
-354.7482,-16.8638,-0.99627,285.1463,-275.94,-79.0565,-177.4987,111.9199,162.4123,211.6065,137.4409,41.9649,-243.1811,165.1548,
-369.7482,-31.8638,-15.9963,300.1463,-290.94,-94.0565,-192.4987,96.9199,177.4123,218.5109,152.4409,56.9649,-258.1811,180.1548,
-384.7482,-46.8638,-16.5216,315.1463,-305.94,-109.0565,-207.4987,81.9199,192.4123,203.5109,167.4409,71.9649,-273.1811,195.1548,
-399.7482,-61.8638,-8.5272,330.1463,-320.94,-124.0565,-222.4987,66.9199,207.4123,188.5109,182.4409,86.9649,-269.6743,210.1548,
-414.7482,-76.8638,-9.5931,345.1463,-335.94,-139.0565,-235.5648,51.9199,222.4123,173.5109,197.4409,101.9649,-257.9489,225.1548,
-429.7482,-91.8638,-12.258,360.1463,-350.94,-154.0565,-246.7573,36.9199,237.4123,158.5109,212.4409,106.0576,-258.4825,240.1548,
-444.7482,-106.8638,-16.5216,375.1463,-365.94,-169.0565,-261.7573,21.9199,252.4123,168.9459,227.4409,117.7828,-246.7573,255.1548,
-459.7482,-121.8638,-20.2521,390.1463,-380.94,-184.0565,-276.7573,20.2521,267.4123,183.9459,242.4409,132.7828,-231.7573,270.1548,
-474.7482,-136.8638,-15.9887,405.1463,-395.94,-199.0565,-291.7573,15.9887,282.4123,198.9459,257.4409,147.7828,-225.9722,285.1548,
-489.7482,-151.8638,-17.0546,420.1463,-410.94,-214.0565,-306.7573,17.0546,297.4123,213.9459,272.4409,162.7828,-234.4991,300.1548,
-504.7482,-166.8638,-17.5875,435.1463,-425.94,-229.0565,-316.0413,17.5875,312.4123,228.9459,287.4409,177.7828,-223.3073,315.1548,
-519.7482,-181.8638,-2.5875,420.1463,-440.94,-244.0565,-301.0413,2.5875,327.4123,213.9459,302.4409,162.7828,-230.7683,330.1548,
-504.7482,-196.8638,12.4125,405.1463,-425.94,-259.0565,-286.0413,-12.4125,342.4123,198.9459,317.4409,147.7828,-235.5653,315.1548,
-489.7482,-211.8638,27.4125,390.1463,-410.94,-244.0565,-271.0413,-10.1262,327.4123,183.9459,302.4409,132.7828,-220.5653,300.1548,
-474.7482,-226.8638,42.4125,375.1463,-395.94,-229.0565,-256.0413,-25.1262,312.4123,168.9459,287.4409,117.7828,-205.5653,285.1548,
-459.7482,-241.8638,57.4125,360.1463,-380.94,-214.0565,-241.0413,-10.1262,297.4123,153.9459,272.4409,102.7828,-190.5653,270.1548,
-444.7482,-256.8638,72.4125,345.1463,-365.94,-199.0565,-226.0413,4.8738,282.4123,138.9459,257.4409,87.7828,-175.5653,255.1548,
-429.7482,-271.8638,87.4125,330.1463,-350.94,-184.0565,-211.0413,19.8738,267.4123,123.9459,242.4409,72.7828,-160.5653,240.1548,
-414.7482,-286.8638,102.4125,315.1463,-335.94,-169.0565,-196.0413,34.8738,252.4123,108.9459,227.4409,57.7828,-145.5653,225.1548,
-399.7482,-301.8638,117.4125,300.1463,-320.94,-154.0565,-181.0413,49.8738,237.4123,93.9459,212.4409,42.7828,-130.5653,210.1548,
-384.7482,-316.8638,132.4125,285.1463,-305.94,-139.0565,-166.0413,64.8738,222.4123,78.9459,197.4409,27.7828,-115.5653,195.1548,
-369.7482,-331.8638,147.4125,270.1463,-290.94,-124.0565,-151.0413,79.8738,207.4123,63.9459,182.4409,12.7828,-100.5653,180.1548,
-354.7482,-346.8638,162.4125,255.1463,-275.94,-109.0565,-136.0413,94.8738,192.4123,48.9459,167.4409,-2.2172,-85.5653,165.1548,
-339.7482,-361.8638,177.4125,240.1463,-260.94,-94.0565,-121.0413,98.0632,177.4123,33.9459,152.4409,-17.2172,-70.5653,150.1548,
-324.7482,-376.8638,192.4125,225.1463,-245.94,-79.0565,-106.0413,110.3217,162.4123,18.9459,137.4409,-32.2172,-55.5653,135.1548,
-309.7482,-391.8638,207.4125,210.1463,-230.94,-64.0565,-91.0413,124.1776,147.4123,3.9459,122.4409,-47.2172,-40.5653,120.1548,
-294.7482,-406.8638,222.4125,195.1463,-215.94,-49.0565,-76.0413,123.6448,132.4123,-11.0541,107.4409,-62.2172,-25.5653,105.1548,
-279.7482,-421.8638,237.4125,180.1463,-200.94,-34.0565,-61.0413,129.5079,117.4123,-26.0541,92.4409,-77.2172,-10.5653,90.1548,
-264.7482,-436.8638,252.4125,165.1463,-185.94,-19.0565,-46.0413,142.831,102.4123,-41.0541,77.4409,-92.2172,4.4347,75.1548,
-249.7482,-451.8638,267.4125,150.1463,-170.94,-4.0565,-31.0413,138.0346,87.4123,-56.0541,62.4409,-107.2172,19.4347,60.1548,
-234.7482,-466.8638,282.4125,135.1463,-155.94,10.9435,-16.0413,131.1064,72.4123,-71.0541,47.4409,-122.2172,34.4347,45.1548,
-219.7482,-481.8638,297.4125,120.1463,-140.94,25.9435,-1.0413,146.1064,57.4123,-86.0541,32.4409,-137.2172,49.4347,30.1548,
-204.7482,-496.8638,312.4125,105.1463,-125.94,40.9435,13.9587,160.4187,42.4123,-101.0541,17.4409,-152.2172,64.4347,15.1548,
-189.7482,-511.8638,327.4125,90.1463,-110.94,55.9435,28.9587,154.0233,27.4123,-116.0541,2.4409,-167.2172,79.4347,0.15482,
-174.7482,-526.8638,342.4125,75.1463,-95.94,70.9435,43.9587,145.4961,12.4123,-131.0541,-12.5591,-182.2172,94.4347,-14.8452,
-159.7482,-541.8638,357.4125,60.1463,-80.94,85.9435,58.9587,145.4961,-2.5877,-145.4961,-27.5591,-197.2172,109.4347,-29.8452,
-144.7482,-556.8638,372.4125,45.1463,-65.94,100.9435,73.9587,159.8859,-17.5877,-159.8859,-42.5591,-212.2172,124.4347,-44.8452,
-129.7482,-571.8638,387.4125,30.1463,-50.94,115.9435,88.9587,172.6767,-32.5877,-172.6767,-57.5591,-227.2172,139.4347,-59.8452,
-114.7482,-586.8638,402.4125,15.1463,-35.94,130.9435,103.9587,175.8747,-47.5877,-175.8747,-72.5591,-242.2172,154.4347,-74.8452,
-99.7482,-601.8638,417.4125,0.14628,-20.94,145.9435,118.9587,181.7367,-62.5877,-181.7367,-87.5591,-257.2172,169.4347,-89.8452,
-84.7482,-616.8638,432.4125,-14.8537,-5.94,160.9435,133.9587,183.3357,-77.5877,-183.3357,-102.5591,-272.2172,184.4347,-104.8452,
-69.7482,-631.8638,447.4125,-29.8537,9.06,175.9435,148.9587,173.7423,-92.5877,-173.7423,-117.5591,-287.2172,199.4347,-119.8452,
-54.7482,-646.8638,462.4125,-44.8537,24.06,190.9435,163.9587,174.8085,-107.5877,-174.8085,-132.5591,-302.2172,214.4347,-134.8452,
-39.7482,-661.8638,477.4125,-59.8537,39.06,205.9435,178.9587,185.468,-122.5877,-185.468,-147.5591,-317.2172,229.4347,-149.8452,
-24.7482,-676.8638,492.4125,-74.8537,54.06,220.9435,193.9587,179.0721,-137.5877,-179.0721,-162.5591,-332.2172,244.4347,-164.8452,
-9.7482,-691.8638,507.4125,-89.8537,69.06,235.9435,208.9587,166.2813,-152.5877,-166.2813,-177.5591,-347.2172,259.4347,-179.8452,
5.2518,-706.8638,522.4125,-104.8537,84.06,250.9435,223.9587,166.8141,-167.5877,-166.8141,-192.5591,-362.2172,273.4051,-194.8452,
20.2518,-721.8638,537.4125,-119.8537,99.06,265.9435,238.9587,172.6767,-182.5877,-172.6767,-207.5591,-377.2172,285.6625,-209.8452,
35.2518,-736.8638,552.4125,-134.8537,114.06,280.9435,253.9587,175.8747,-197.5877,-175.8747,-222.5591,-392.2172,270.7404,-224.8452,
50.2518,-751.8638,567.4125,-149.8537,129.06,295.9435,268.9587,174.2752,-212.5877,-174.2752,-237.5591,-407.2172,264.8774,-239.8452,
65.2518,-766.8638,582.4125,-164.8537,144.06,310.9435,283.9587,170.0121,-227.5877,-170.0121,-252.5591,-422.2172,277.6677,-254.8452,
80.2518,-781.8638,597.4125,-179.8537,159.06,325.9435,298.9587,175.3413,-242.5877,-175.3413,-267.5591,-437.2172,270.2071,-269.8452,
95.2518,-796.8638,612.4125,-194.8537,174.06,340.9435,313.9587,178.0059,-257.5877,-178.0059,-282.5591,-452.2172,255.2071,-284.8452,
110.2518,-811.8638,627.4125,-209.8537,189.06,355.9435,328.9587,163.6162,-272.5877,-163.6162,-297.5591,-467.2172,257.4163,-299.8452,
125.2518,-826.8638,642.4125,-224.8537,204.06,370.9435,343.9587,155.089,-287.5877,-155.089,-312.5591,-482.2172,265.9435,-314.8452,
140.2518,-841.8638,657.4125,-239.8537,219.06,385.9435,358.9587,158.8198,-302.5877,-158.8198,-327.5591,-497.2172,260.0815,-329.8452,
155.2518,-856.8638,672.4125,-254.8537,234.06,400.9435,373.9587,155.089,-317.5877,-155.089,-342.5591,-512.2172,248.8891,-344.8452,
170.2518,-871.8638,687.4125,-269.8537,249.06,415.9435,388.9587,145.4961,-332.5877,-145.4961,-357.5591,-527.2172,253.1527,-359.8452,
185.2518,-886.8638,702.4125,-284.8537,264.06,430.9435,403.9587,139.6336,-347.5877,-139.6336,-372.5591,-542.2172,257.9497,-374.8452,
200.2518,-901.8638,717.4125,-283.5307,279.06,445.9435,418.9587,137.5018,-362.5877,-137.5018,-387.5591,-527.6234,248.3563,-389.8452,
215.2518,-916.8638,732.4125,-278.7343,294.06,460.9435,433.9587,129.5074,-377.5877,-129.5074,-402.5591,-512.6234,235.0327,-403.4453,
230.2518,-901.8638,728.0135,-275.0035,309.06,473.2623,448.9587,116.1838,-392.5877,-116.1838,-417.5591,-497.6234,222.7747,-403.9781,
245.2518,-886.8638,713.0135,-290.0035,324.06,458.2623,433.9587,101.1838,-407.5877,-131.1838,-432.5591,-512.6234,207.7747,-418.9781,
260.2518,-871.8638,698.0135,-305.0035,339.06,443.2623,418.9587,86.1838,-422.5877,-146.1838,-447.5591,-527.6234,192.7747,-433.9781,
256.3497,-856.8638,683.0135,-320.0035,354.06,428.2623,403.9587,71.1838,-437.5877,-161.1838,-462.5591,-542.6234,177.7747,-448.9781,
241.3497,-841.8638,668.0135,-335.0035,369.06,413.2623,388.9587,56.1838,-452.5877,-176.1838,-477.5591,-557.6234,162.7747,-463.9781,
226.3497,-826.8638,653.0135,-320.0035,384.06,398.2623,373.9587,41.1838,-467.5877,-191.1838,-492.5591,-572.6234,147.7747,-448.9781,
211.3497,-811.8638,638.0135,-305.0035,399.06,383.2623,358.9587,26.1838,-452.5877,-206.1838,-479.1244,-587.6234,132.7747,-433.9781,
196.3497,-796.8638,623.0135,-290.0035,414.06,368.2623,343.9587,11.1838,-437.5877,-213.7137,-464.1244,-572.6234,117.7747,-418.9781,
181.3497,-781.8638,608.0135,-275.0035,429.06,353.2623,328.9587,1.599,-422.5877,-209.4506,-449.1244,-569.7261,102.7747,-403.9781,
166.3497,-766.8638,593.0135,-260.0035,444.06,338.2623,313.9587,-0.53282,-407.5877,-224.4506,-442.8833,-579.3194,87.7747,-388.9781,
168.9464,-751.8638,578.0135,-255.284,459.06,323.2623,298.9587,-12.258,-408.7745,-236.0983,-454.6085,-569.7266,72.7747,-388.5222,
183.9464,-736.8638,563.0135,-249.9548,474.06,308.2623,283.9587,-16.5216,-421.5653,-221.0983,-461.0044,-562.265,57.7747,-383.1929,
168.9464,-721.8638,548.0135,-237.164,489.06,293.2623,278.7343,-20.7852,-421.5653,-236.0973,-450.3449,-569.7266,42.7747,-368.2699,
