"AF3","AF4","F3","F4","F7","F8","FC5","FC6","O1","O2","P7","P8","T7","T8",
62.5511,104.2516,71.9335,165.76,-103.2098,-90.6992,-42.7432,-6.2551,81.3158,-14.5952,66.7212,-136.5702,-34.4031,6.2551,
54.2116,92.7842,56.9335,150.76,-88.2098,-102.1666,-51.0828,-11.4679,66.3158,-8.3401,51.7212,-121.5702,-47.956,8.3401,
39.2116,77.7842,41.9335,135.76,-93.827,-113.6344,-59.4239,-14.5956,51.3158,-1.0423,36.7212,-121.9745,-62.956,1.0423,
33.3603,62.7842,30.2326,120.76,-87.5714,-108.4216,-54.2106,-20.8502,44.8282,13.9577,34.4026,-126.1445,-56.2961,-13.9577,
39.0948,51.6049,28.6692,105.76,-72.5714,-113.1128,-42.2216,-29.7114,35.967,16.159,30.7547,-115.1978,-66.1996,-16.159,
40.6577,48.9988,29.1908,90.76,-57.5714,-112.5917,-28.1475,-23.9775,33.3608,2.085,15.7547,-100.1978,-81.1996,-2.085,
41.7009,39.6154,22.9352,75.76,-42.5714,-97.5917,-27.1053,-18.7652,27.1053,1.0428,0.75469,-85.1978,-66.1996,3.1273,
32.3181,31.2758,7.9352,60.76,-27.5714,-86.5286,-21.8925,-19.808,12.1053,6.2556,0,-72.9763,-51.1996,0,
39.6149,31.2748,-1.0433,45.76,-12.5714,-76.104,-6.8925,-6.2556,0,3.1278,-3.1278,-57.9763,-37.5304,2.0845,
54.6149,43.2643,9.904,30.76,2.4286,-61.104,4.6917,3.6494,-6.7762,-2.6062,-9.904,-42.9763,-31.7965,-3.6484,
61.5084,51.0838,16.6802,15.76,17.4286,-60.4661,9.3823,4.17,-19.808,12.3938,-15.6379,-27.9763,-33.3603,-6.2546,
46.5084,40.6577,7.2973,0.75996,31.2753,-69.849,15.6374,-1.0428,-21.893,17.7229,-25.0208,-15.6384,-43.7855,1.0428,
31.5084,33.8815,0.52113,-14.24,39.0948,-56.8172,7.819,-0.52113,-13.0313,8.8612,-25.5414,-19.2868,-52.6472,7.819,
25.0198,25.0198,-2.085,-29.24,47.9555,-41.8172,12.5096,3.1273,-18.7652,20.8497,-31.2753,-12.5106,-37.6472,2.085,
32.3181,23.978,-9.3823,-44.24,62.9555,-40.6582,27.5096,6.2546,-33.7652,18.7647,-45.8705,-1.0423,-22.6472,-2.0855,
28.148,14.5956,-18.7657,-59.24,64.6362,-45.8705,21.8925,0,-41.7004,11.4679,-48.9983,5.2123,-7.6472,0,
20.8497,4.1695,-15.6384,-72.9767,49.6362,-53.1688,7.2973,-2.085,-27.1053,26.4679,-33.9983,2.085,-21.893,4.1695,
28.1485,13.5529,-4.1695,-57.9767,34.6362,-65.6779,18.7662,-2.085,-12.1053,25.0208,-18.9983,-12.915,-11.4674,9.3828,
32.3181,16.6802,4.17,-42.9767,36.4881,-80.6779,20.8512,-15.6369,2.8947,10.0208,-13.5524,-27.915,-22.9347,21.8935,
18.7657,11.4679,10.4256,-27.9767,21.4881,-95.6779,5.8512,-30.6369,17.8947,-4.9792,-6.2546,-42.915,-37.9347,6.8935,
31.7965,26.4679,25.4256,-12.9767,6.4881,-110.6779,0.52163,-33.882,24.4996,-19.9792,8.7454,-57.915,-38.052,-1.5639,
20.8502,36.4881,40.4256,2.0233,-8.5119,-125.6779,-5.2123,-41.7004,39.4996,-34.9792,23.7454,-72.915,-27.1058,5.2123,
9.3823,51.4881,53.1683,17.0233,-23.5119,-129.2723,-9.3823,-26.7004,54.4996,-26.0625,38.7454,-87.915,-39.6159,20.2123,
9.3828,66.4881,63.5934,32.0233,-38.5119,-128.2296,-18.7652,-11.7004,69.4996,-16.6797,53.7454,-102.915,-45.8705,13.5529,
10.4256,68.8062,76.104,47.0233,-53.5119,-129.2723,-20.8502,-10.4256,81.3163,-29.1903,68.7454,-117.915,-35.4459,14.5956,
7.819,81.8375,81.8375,62.0233,-39.0948,-114.2723,-10.9467,-7.819,87.0498,-14.1903,79.752,-113.1133,-29.7124,29.5956,
4.17,68.8062,66.8375,77.0233,-36.4881,-105.2938,-10.4246,-9.3823,89.6564,-4.17,87.5719,-103.2088,-44.7124,26.0635,
5.2123,61.5084,61.5084,92.0233,-31.2758,-104.2521,-5.2123,-5.2123,89.6564,-7.2978,92.7842,-117.8045,-45.871,31.2758,
-9.7877,54.7317,62.0295,107.0233,-23.4569,-103.7304,-2.6066,-7.819,88.093,2.6066,77.7842,-107.9005,-30.871,42.2216,
-21.893,39.7317,47.0295,92.0233,-17.7229,-108.4216,-13.5529,-14.5952,75.0613,13.5529,62.7842,-94.8692,-18.7652,42.7432,
-22.4146,24.7317,32.0295,77.0233,-2.7229,-115.1983,-18.2446,-26.5846,60.0613,0.52113,47.7842,-101.6454,-33.7652,35.967,
-26.5842,9.7317,17.0295,62.0233,12.2771,-119.3679,-3.2446,-29.7119,45.0613,-5.7339,44.3076,-86.6454,-26.5842,32.8397,
-28.1475,-2.085,2.0295,47.0233,4.1705,-118.8467,7.2983,-22.9352,31.2753,2.085,29.3076,-71.6454,-20.8497,31.2753,
-25.0208,-3.1273,-9.3828,32.0233,16.6807,-109.4644,3.1273,-22.9352,28.1475,10.4251,14.3076,-56.6454,-25.0208,34.4031,
-21.8925,0,-5.2123,17.0233,31.6807,-94.8692,2.0855,-25.0203,29.1903,20.8502,5.2123,-41.6454,-17.7224,34.4036,
-19.8075,9.3828,-4.1695,2.0233,46.6807,-79.8692,16.6807,-12.5096,20.8507,35.8502,-2.085,-26.6454,-16.6797,28.1485,
-29.7119,4.6917,-6.7762,-12.9767,61.6807,-68.2851,31.6807,-2.6062,9.904,50.8502,-2.6062,-11.6454,-21.3718,28.6697,
-32.8392,0.52113,-13.0313,-20.3291,75.5829,-72.4546,29.7114,-0.52113,10.9467,42.2226,0.52113,-13.0313,-24.4991,40.137,
-17.8392,5.7339,-17.2018,-28.6697,90.5829,-62.03,33.882,4.6917,17.2018,31.7965,-4.6917,-14.074,-20.3296,46.3921,
-23.978,0,-18.7657,-43.6697,105.5829,-55.2533,41.7004,0,7.2978,38.5736,-8.3401,-6.2556,-5.3296,38.5736,
-32.3181,-4.17,-22.9347,-56.2956,106.3366,-46.9127,43.7859,0,0,48.9983,-8.3401,8.7444,9.6704,35.4459,
-17.7234,-3.1278,-28.148,-53.1688,115.7189,-42.7437,40.6582,3.1278,-5.2133,36.4881,-21.8935,22.9347,24.6704,41.7004,
-15.6369,11.8722,-13.148,-38.1688,106.3376,-42.7427,40.6582,8.3401,9.7867,28.148,-14.5947,7.9347,9.6704,55.2538,
-30.6369,9.9045,-8.8612,-23.1688,91.3376,-57.7427,25.6582,-0.52113,24.7867,15.1168,0.40535,-7.0653,-5.3296,40.2538,
-42.7432,2.085,-2.085,-8.1688,76.3376,-72.7427,10.6582,-14.5952,35.4454,0.11678,14.5952,-22.0653,-9.3828,25.2538,
-46.3916,6.7767,2.6066,6.8312,61.3376,-87.7427,-2.6066,-25.5414,28.6692,-14.8832,24.4991,-37.0653,-24.3828,25.5414,
-40.6582,21.7767,17.6066,21.8312,46.3376,-91.7414,3.1278,-10.5414,43.6692,-4.17,39.4991,-52.0653,-19.808,40.5414,
-55.6582,36.7767,32.6066,36.8312,31.3376,-93.3053,-5.7339,-8.8617,58.6692,-6.7762,54.4991,-67.0653,-4.808,38.052,
-70.6582,45.3493,47.4349,51.8312,16.3376,-107.9005,0.52113,-11.989,73.6692,-15.1168,69.4991,-82.0653,-0.52113,46.3916,
-56.8172,50.5626,60.9873,66.8312,1.3376,-104.7727,-0.52113,0.52113,88.6692,-0.52113,84.4991,-97.0653,-6.7762,56.8172,
-62.0298,55.7742,54.7319,81.8312,-13.6624,-100.6029,-15.1165,3.6492,103.6692,-3.6492,99.4991,-112.0653,-16.1593,63.072,
-69.3273,47.4349,52.6472,96.8312,-28.6624,-92.2626,-7.819,7.819,118.6692,-7.819,103.7309,-121.4534,-26.5841,78.072,
-54.3273,32.4349,40.1365,111.8312,-15.1163,-95.3904,-17.2013,-5.7339,120.4106,5.7339,88.7309,-121.4534,-16.159,63.072,
-39.3273,17.4349,25.1365,107.9005,-0.11628,-110.3904,-32.2013,-20.7339,105.4106,-9.2661,73.7309,-112.0705,-5.7339,48.072,
-24.3273,17.7229,13.5529,92.9005,14.8837,-112.5917,-19.8075,-17.7229,90.4106,-24.2661,58.7309,-109.4644,-16.6807,33.072,
-12.5101,27.1058,4.17,91.7419,18.7657,-99.0388,-33.3603,-4.17,75.4106,-35.4454,43.7309,-115.7194,-31.6807,19.808,
-5.7339,20.3296,1.5639,86.008,27.6274,-94.3476,-33.8815,-2.6062,60.9877,-20.4454,33.882,-100.7194,-16.6807,34.808,
1.0423,5.3296,-8.3401,72.9763,17.7224,-104.2521,-29.1908,0,50.0405,-17.7234,34.4026,-85.7194,-13.5534,45.8705,
16.0423,-7.2973,-11.4674,57.9763,29.1908,-105.2943,-26.063,7.2973,35.0405,-32.7234,30.2331,-97.9965,-28.5534,30.8705,
31.0423,-6.2546,-4.17,42.9763,44.1908,-92.7837,-16.6802,4.17,20.0405,-21.8925,21.8935,-82.9965,-30.2326,26.0635,
46.0423,-2.6062,-15.1163,28.6687,43.2643,-84.9652,-20.3296,-7.8195,11.9885,-7.8195,6.8935,-67.9965,-15.2326,38.052,
61.0423,0,-27.1058,15.6369,44.8282,-77.1468,-28.148,-5.2133,6.2546,-6.2556,0,-52.9965,-0.23257,32.3181,
76.0423,0,-21.8925,0.63692,50.0405,-62.5511,-29.1903,3.1278,1.0423,-1.0423,0,-39.6159,5.2123,26.0625,
91.0423,4.6917,-20.3296,-3.6484,65.0405,-47.5511,-23.4564,9.904,-6.7762,9.904,-15,-24.6159,3.6484,25.5419,
102.6872,6.7762,-28.6697,-14.074,80.0405,-32.5511,-9.904,14.074,-10.9462,11.9885,-30,-9.6159,18.6484,31.7965,
91.7414,2.085,-34.4031,-29.074,95.0405,-28.1475,-2.085,12.5106,-17.7229,9.3828,-39.6154,-7.2973,11.4674,22.9352,
94.8682,-2.085,-33.3608,-37.5309,92.7837,-19.8084,-6.2551,13.5519,-13.5529,15.6374,-36.4886,2.085,5.2118,19.8075,
89.6559,2.085,-36.4886,-22.5309,77.7837,-29.1908,-17.7229,7.2973,-5.2128,11.4674,-26.063,4.1695,-2.085,28.1475,
74.6559,7.819,-31.797,-7.5309,62.7837,-39.0948,-28.6692,3.6489,7.819,-3.5326,-11.063,-10.8305,-17.085,29.7114,
67.2418,13.0313,-16.797,7.4691,47.7837,-38.0515,-31.797,14.0735,22.819,-2.6066,-0.52113,-25.8305,-30.7547,25.5414,
66.7212,21.893,-1.797,22.4691,32.7837,-53.0515,-46.797,2.085,21.893,-2.085,-2.085,-40.8305,-15.7547,16.6807,
63.0728,31.797,13.203,37.4691,17.7837,-68.0515,-61.797,-12.915,17.2013,-13.0313,12.915,-55.8305,-24.4991,13.0313,
57.86,35.9665,23.4564,52.4691,2.7837,-77.6674,-76.6252,-8.8617,32.2013,-28.0313,27.915,-70.8305,-39.4991,8.8617,
48.9983,43.7859,34.4026,67.4691,-12.2163,-82.3586,-83.4014,-5.2123,47.2013,-43.0313,42.7437,-85.8305,-54.4991,5.2123,
40.137,44.3071,42.2216,82.4691,-27.2163,-91.2203,-84.9653,-13.0313,62.2013,-51.6049,56.8172,-100.8305,-69.4991,13.0313,
37.0093,42.2216,43.2648,97.4691,-42.2163,-97.4754,-79.7524,-16.159,77.2013,-39.0943,62.0295,-115.8305,-66.1996,16.159,
42.7427,39.6159,43.786,112.4691,-57.2163,-92.7842,-64.7524,-14.5956,79.2308,-33.3608,60.4661,-130.8305,-51.1996,14.5956,
45.87,31.2753,32.3176,127.4691,-72.2163,-77.7842,-59.4239,-14.5952,64.6357,-47.956,52.1255,-139.6974,-36.1996,14.5952,
37.0088,28.6687,17.3176,129.793,-70.3701,-64.115,-67.2428,-14.074,49.6357,-62.956,37.1255,-124.6974,-24.4996,17.2008,
31.797,19.2868,14.0735,114.793,-60.9873,-75.5824,-65.1573,-14.0735,34.6357,-54.7317,25.5414,-116.2406,-24.4991,22.4146,
33.882,9.904,16.1585,100.6027,-62.03,-72.4551,-57.86,-9.904,33.882,-39.7317,29.7119,-111.0283,-39.4991,25.5409,
31.7965,6.7762,5.7339,90.1781,-52.6472,-63.0723,-46.3921,-5.7339,27.6264,-29.7119,18.2441,-98.5181,-52.6472,40.5409,
29.7119,6.7762,4.6917,75.1781,-37.6472,-60.9873,-33.882,-4.6917,12.6264,-30.7542,6.7762,-84.9653,-60.9873,55.5409,
39.6154,10.4251,1.0428,60.1781,-22.6472,-45.9873,-29.1908,1.0428,3.1273,-29.1908,-1.0428,-81.3163,-67.7639,70.5409,
54.6154,16.6802,0,45.1781,-7.6472,-30.9873,-14.5956,15.6379,0,-23.978,-5.2123,-66.3163,-52.7639,66.7207,
50.0405,16.6802,-3.1278,30.1781,7.3528,-15.9873,-7.2978,12.5101,-3.1278,-20.8502,-6.2546,-51.3163,-37.7639,70.8917,
35.4454,6.2551,-13.5529,19.8075,18.7652,-26.063,-13.5529,8.3406,8.3406,-22.9352,-6.2551,-45.871,-22.7639,66.7212,
43.7859,5.2123,-17.7224,16.6802,33.7652,-11.063,-15.6379,21.8925,8.3401,-17.7224,-15.6379,-36.4881,-27.1058,51.7212,
43.2638,9.9035,-27.6269,4.6912,48.4771,3.937,-8.8612,19.2858,-6.6599,-4.6912,-30.6379,-21.4881,-31.797,39.0938,
28.2638,0.52113,-39.0948,-10.3088,47.4349,10.9467,-0.52113,14.0735,-15.1168,6.7767,-37.0093,-6.7767,-23.4569,44.3071,
23.978,-7.2978,-36.4881,-25.3088,58.3806,6.2556,0,27.1058,-11.4679,0,-33.3603,8.2233,-8.4569,32.3181,
31.797,-10.9457,-33.8815,-40.3088,73.3806,-0.52113,4.6912,22.4146,-26.4679,0.52113,-46.3916,23.2233,-6.7757,35.967,
34.9242,-16.1585,-32.8387,-52.6467,86.008,-4.6917,14.074,7.4146,-41.4679,4.6917,-61.3916,8.2233,-9.904,42.2221,
47.4344,-1.1585,-17.8387,-37.6467,71.008,-3.6484,18.2441,19.2863,-27.6264,-5.7339,-46.3916,-6.7767,5.096,27.2221,
35.4454,13.8415,-2.8387,-22.6467,56.008,-15.6374,3.2441,16.6807,-12.6264,-20.7339,-31.3916,-21.7767,-6.2551,12.5106,
20.4454,20.8502,4.17,-7.6467,41.008,-20.8502,-11.7559,5.2123,2.3736,-35.7339,-16.3916,-36.7767,-21.2551,27.5106,
5.4454,24.4991,11.989,7.3533,26.008,-26.5846,-26.7559,2.6066,17.3736,-31.797,-1.3916,-51.7767,-36.2551,35.967,
-2.6062,25.5419,26.5841,22.3533,11.008,-34.9242,-41.7559,2.6062,32.3736,-23.4564,13.6084,-66.7767,-47.4344,31.7965,
-4.17,40.5419,33.3603,37.3533,-3.992,-36.4886,-43.7859,4.17,47.3736,-14.5956,28.6084,-81.7767,-42.7437,46.7965,
-5.7334,55.5419,38.0515,52.3533,-18.992,-35.967,-42.2221,5.7334,62.3736,-6.7767,43.6084,-96.7767,-56.8172,56.8172,
-2.6066,59.945,40.137,67.3533,-33.992,-37.0093,-43.2643,2.6066,77.3736,-9.9035,58.6084,-107.9005,-71.8172,49.5194,
-6.2551,50.04,39.6154,82.3533,-48.992,-40.6587,-44.8287,6.2551,81.3158,-16.6807,73.6084,-122.9005,-66.7212,52.1255,
-7.2978,35.04,39.6159,97.3533,-50.0405,-43.7855,-34.4031,7.2978,70.8917,-11.4679,71.934,-126.1446,-51.7212,58.3816,
-2.6066,37.0093,35.967,112.3533,-35.967,-37.0093,-19.4031,2.6066,58.9027,-4.6912,56.934,-111.1446,-36.7212,53.6894,
-9.9035,31.797,20.967,127.3533,-33.882,-27.6269,-13.0313,7.819,57.8595,-7.819,51.6049,-96.1446,-35.967,49.5194,
-21.8925,16.797,6.2556,112.3533,-27.1058,-34.4026,-28.0313,7.2978,42.8595,-6.2556,42.7437,-96.9542,-50.967,38.5736,
-9.9035,17.2013,15.1168,97.3533,-12.1058,-28.6692,-23.4569,-3.6489,27.8595,3.6489,27.7437,-81.9542,-47.4349,37.0093,
0,16.6802,18.7657,82.3533,2.8942,-18.7647,-8.4569,-5.2123,12.8595,-10.4246,12.7437,-66.9542,-32.4349,42.7437,
-8.3401,1.6802,6.2556,67.3533,17.8942,-30.2326,2.0855,-3.1268,11.4679,-25.4246,0,-81.9542,-29.1903,33.3613,
2.085,-2.085,3.1273,52.3533,32.8942,-20.8507,10.4251,-4.1695,4.1705,-15.6374,-4.1695,-74.0185,-34.4031,27.1053,
15.1163,1.5639,2.6062,37.3533,47.8942,-11.9885,20.3286,-2.6062,-10.8295,-1.5639,-19.1695,-59.0185,-39.0943,25.5419,
8.8612,-1.5634,-0.52113,22.3533,62.8942,-20.3291,20.3291,9.9045,-10.9457,0.52113,-18.2436,-44.0185,-24.0943,37.0093,
-2.6057,0.52113,-3.6489,7.3533,76.6252,-11.989,29.7114,18.2446,3.6489,4.6912,-10.9467,-29.0185,-10.9467,51.6049,
-17.6057,1.5634,-13.0313,-6.7767,78.7097,-1.5634,32.8392,3.6489,-2.6067,2.6066,-25.9467,-14.0185,-25.9467,46.3916,
-13.0323,-0.52113,-10.9467,-3.6489,71.4119,0.52113,33.8815,7.819,-6.7767,17.2013,-30.7547,0.98149,-16.159,48.4771,
-17.7224,-10.4246,-23.978,-18.6489,67.7639,7.2978,27.1058,16.6802,-18.7647,14.5956,-34.4026,15.9815,-7.2978,53.1683,
-22.4146,-0.52113,-26.5846,-33.6489,82.7639,22.2978,27.6269,23.4569,-29.7124,0.52113,-46.3926,24.4991,-3.6489,56.8172,
-26.5846,4.6912,-14.0745,-37.0093,97.7639,37.2978,29.7114,23.4559,-34.9247,-4.6912,-48.4771,21.3713,-4.6912,50.5616,
-31.2758,10.4256,-10.4246,-22.0093,82.7639,34.4036,36.4881,29.1903,-29.1903,-3.1278,-42.7427,6.3713,-19.6912,52.126,
-40.6587,20.8497,-11.4674,-7.0093,67.7639,39.6154,31.2753,35.4454,-14.1903,-9.3828,-31.2753,-8.6287,-34.6912,60.4656,
-55.6587,6.7767,-18.2446,7.9907,52.7639,24.6154,16.2753,20.4454,0.8097,-24.3828,-25.5414,-23.6287,-46.3916,48.4771,
-70.6587,19.8075,-3.2446,22.9907,37.7639,9.6154,1.2753,5.4454,15.8097,-16.6807,-10.5414,-38.6287,-31.3916,52.1255,
-85.6587,18.2446,0.52113,37.9907,22.7639,-5.3846,2.6066,-0.52113,30.8097,-17.2013,4.4586,-53.6287,-42.2221,50.5626,
-100.6587,20.8512,12.5101,52.9907,7.7639,-11.4669,-2.0845,0,45.8097,-2.2013,19.4586,-68.6287,-51.0828,62.5516,
-115.6587,28.6692,20.3291,67.9907,-7.2361,-26.4669,-17.0845,-8.8612,60.8097,8.8612,34.4586,-83.6287,-54.7317,60.9873,
-100.6587,43.6692,35.3291,82.9907,-22.2361,-23.4566,-14.0738,6.1388,75.8097,-6.1388,49.4586,-98.6287,-39.7317,74.5399,
-88.093,37.0093,46.3916,97.9907,-37.2361,-28.6697,-4.6912,4.6912,90.8097,-21.1388,64.4586,-104.7732,-24.7317,59.5399,
-102.6877,22.4146,38.0525,112.9907,-52.2361,-42.2216,-19.2858,3.6489,80.7952,-6.1388,62.0305,-89.7732,-39.7317,53.6904,
-106.3366,21.8935,30.2336,127.9907,-67.2361,-34.4031,-31.2753,3.1278,65.7952,-3.1278,60.4661,-74.7732,-53.1683,59.4239,
-91.3366,30.2331,26.063,127.1873,-52.2361,-19.4031,-16.2753,7.2973,51.0833,-18.1278,48.9978,-87.5714,-38.1683,57.3388,
-90.6992,16.6802,23.978,112.1873,-37.2361,-16.6802,-4.17,0,50.0405,-33.1278,40.6582,-86.5291,-35.4459,51.0828,
-92.2626,19.2868,29.7124,97.4754,-22.2361,-15.1158,-17.2013,-0.52113,48.4771,-18.1278,38.0525,-71.5291,-38.0515,56.8172,
-102.6882,19.2868,14.7124,82.4754,-31.797,-2.6066,-27.6269,-6.7767,33.4771,-3.1278,23.0525,-56.5291,-53.0515,41.8172,
-97.9965,25.0208,1.0428,67.4754,-16.797,4.1705,-21.893,4.1705,30.2331,-2.085,8.0525,-41.5291,-64.6362,31.2753,
-82.9965,21.3718,-0.52163,52.4754,-1.797,0.52163,-20.3296,5.7339,17.2018,-7.8185,-6.9475,-28.6697,-77.6674,46.2753,
-67.9965,34.4031,2.085,37.4754,13.203,14.5952,-5.3296,-2.085,2.2018,-8.3396,-19.8075,-35.4454,-81.3163,39.6154,
-52.9965,49.4031,2.0845,22.4754,28.203,17.7224,-11.4679,-14.5956,-12.7982,-1.0423,-34.8075,-20.4454,-96.3163,24.6154,
-37.9965,64.4031,11.4684,7.4754,43.203,29.1908,-26.4679,-5.2118,-27.7982,-2.085,-49.8075,-5.4454,-111.3163,9.6154,
-22.9965,79.4031,3.6494,-2.6062,58.203,44.1908,-35.9665,2.6062,-42.7982,-17.085,-47.4344,-18.2441,-97.4754,17.2018,
-7.9965,94.4031,4.6912,2.6066,73.203,51.6049,-21.3713,-2.6066,-43.2648,-25.5414,-45.3493,-30.7547,-82.4754,14.0735,
7.0035,109.4031,19.6912,0.52163,88.203,65.1578,-20.3286,4.6917,-54.7322,-40.5414,-54.7322,-44.3066,-74.5401,-0.52163,
22.0035,124.4031,30.7542,13.0318,103.203,80.1578,-35.3286,19.2863,-57.86,-55.5414,-69.7322,-54.7322,-89.5401,-13.0318,
37.0035,139.4031,32.3176,22.9352,118.203,84.4436,-46.9132,14.5952,-42.86,-50.041,-70.8912,-44.8287,-96.9538,-14.5952,
52.0035,154.4031,45.8705,30.2326,121.9745,78.1886,-43.7859,11.4679,-27.86,-39.6159,-55.8912,-55.2538,-81.9538,-11.4679,
67.0035,169.4031,59.4239,45.2326,107.3789,86.5286,-43.786,17.7224,-29.1903,-54.6159,-53.1683,-70.2538,-85.4864,-17.7224,
82.0035,184.4031,69.3278,60.2326,103.7304,83.9225,-58.786,14.074,-22.4141,-62.03,-50.5621,-79.7524,-100.4864,-14.074,
97.0035,199.4031,70.8912,75.2326,96.9538,68.9225,-73.786,10.4251,-14.5952,-57.3388,-42.7432,-87.5714,-115.4864,-10.4251,
112.0035,214.4031,67.2423,90.2326,81.9538,60.9877,-76.6247,16.1585,-16.1585,-55.7745,-46.3921,-99.5604,-130.4864,-23.4564,
127.0035,229.4031,62.0295,98.5176,66.9538,57.8595,-91.6247,1.1585,-1.1585,-59.945,-47.4349,-102.6877,-139.1763,-29.7124,
142.0035,244.4031,67.7635,113.5176,51.9538,56.2956,-103.2093,-7.2973,7.2973,-66.7212,-32.4349,-103.2093,-132.3996,-18.7652,
157.0035,253.3314,70.8907,126.1445,53.1683,68.8062,-99.0398,7.7027,-7.7027,-81.7212,-17.4349,-118.2093,-120.9322,-12.5101,
172.0035,242.9058,59.4229,111.5489,47.955,53.8062,-114.0398,4.17,-4.17,-96.7212,-22.9357,-133.2093,-135.9322,-17.7234,
187.0035,238.2156,55.7749,103.7309,53.6894,44.3071,-126.6657,-3.6489,3.6489,-98.5176,-22.4136,-141.2608,-129.793,-22.4136,
202.0035,253.2156,70.7749,105.8155,68.6894,59.3071,-111.6657,11.3511,-11.3511,-83.5176,-17.2013,-126.2608,-114.793,-20.3291,
217.0035,257.5024,64.6362,96.9542,83.6894,74.3071,-116.7617,25.0203,-26.3511,-68.5176,-32.2013,-111.2608,-102.1666,-25.0203,
209.5459,242.5024,49.6362,83.4014,98.6894,75.0613,-131.7617,21.893,-23.9775,-72.9758,-47.2013,-96.2608,-117.1666,-21.893,
207.4609,237.6944,34.6362,78.1886,113.6894,90.0613,-135.5269,22.9357,-18.7647,-67.7639,-51.0828,-81.2608,-129.2718,-16.6802,
216.8437,242.9063,19.6362,63.1886,128.6894,105.0613,-135.5274,26.063,-25.0208,-52.7639,-61.5089,-66.2608,-114.2718,-20.8507,
228.3116,241.864,10.4251,48.1886,143.6894,105.2948,-120.5274,40.6587,-30.2331,-37.7639,-76.5089,-51.2608,-119.889,-20.8497,
240.3001,249.6834,8.8612,43.2648,158.6894,120.2948,-106.8577,55.6587,-45.2331,-52.7639,-84.9652,-62.0295,-123.5379,-8.8612,
237.1728,236.1306,2.6062,28.2648,172.5367,132.9207,-117.2828,49.5199,-59.9445,-67.7639,-81.837,-69.3268,-116.2406,-2.6062,
249.6825,237.1723,6.7767,34.9247,184.004,117.9207,-108.9432,56.8172,-47.4349,-67.2428,-73.4974,-54.3268,-102.6882,-6.7767,
257.5019,252.1723,5.2128,49.9247,191.8225,132.3996,-94.8692,69.848,-34.4031,-53.1688,-68.8067,-39.6154,-107.3794,-5.2128,
247.0768,248.1191,-1.0423,50.0405,198.0785,147.3996,-101.1243,67.7639,-26.0625,-51.0838,-63.5939,-43.7859,-103.2093,1.0423,
262.0768,240.3001,4.6912,45.3493,213.0785,152.7292,-106.8582,71.4129,-41.0625,-36.0838,-71.4129,-28.7859,-88.2093,-4.6912,
277.0768,228.8322,2.6066,30.3493,228.0785,147.5159,-106.8577,74.5396,-56.0625,-26.5846,-86.4129,-13.7859,-87.0508,-17.2013,
292.0768,218.4071,-1.5639,21.3709,222.5772,152.7287,-101.6459,79.7524,-71.0625,-27.6274,-101.4129,1.2141,-102.0508,-6.7772,
277.0768,203.4071,-4.6907,20.3296,224.6627,152.7287,-91.2203,77.6679,-62.029,-24.4986,-95.3904,2.6062,-87.0508,-2.6062,
262.0768,188.4071,-11.4679,5.3296,239.6627,148.037,-90.6987,62.6679,-74.0185,-26.0625,-94.8687,16.6802,-72.0508,-3.1278,
247.0768,173.4071,-22.4146,-4.6912,253.8525,140.2181,-104.7732,52.6472,-77.6674,-21.3713,-95.3909,30.7537,-87.0508,4.6912,
232.0768,158.4071,-27.1058,-18.7657,260.6292,132.3991,-102.1666,51.0828,-64.6362,-6.3713,-97.9965,45.7537,-83.4019,4.17,
217.0768,143.4071,-38.5731,-33.7657,256.4596,127.1873,-94.8692,44.8277,-64.6357,-1.0428,-103.2093,60.7537,-68.4019,1.0428,
202.0768,128.4071,-41.1798,-18.7657,241.4596,116.2406,-100.6027,41.1798,-60.9868,-16.0428,-93.3048,53.6899,-68.2846,10.9462,
187.0768,113.4071,-38.5731,-3.7657,226.4596,101.2406,-115.6027,26.1798,-47.9555,-31.0428,-83.4014,38.6899,-79.2313,1.0428,
172.0768,98.4071,-23.5731,11.2343,211.4596,86.2406,-127.1868,26.0635,-32.9555,-37.5304,-68.4014,23.6899,-64.2313,13.5524,
157.0768,83.4071,-16.6802,26.2343,196.4596,71.2406,-138.6547,16.6802,-17.9555,-52.5304,-53.4014,8.6899,-51.0828,15.6379,
142.0768,70.3696,-7.819,41.2343,181.4596,56.2406,-140.2191,24.4991,-7.819,-67.5304,-43.2648,-6.3101,-60.9873,7.819,
127.0768,64.6362,4.17,56.2343,166.4596,41.2406,-129.2718,26.0635,-4.17,-52.5304,-40.6582,-21.3101,-75.9873,-7.181,
112.0768,58.3806,-3.1278,71.2343,151.4596,45.8705,-114.2718,17.7224,-6.2556,-37.5304,-29.1903,-36.3101,-89.6564,3.1278,
97.0768,51.6054,-18.1278,86.008,166.4596,46.3921,-100.6027,15.1173,-9.904,-27.6264,-33.881,-31.7965,-74.6564,9.904,
82.0768,36.6054,-28.148,82.3586,181.4596,31.3921,-115.6027,18.7647,0,-12.6264,-36.4881,-29.1903,-59.6564,0,
67.0768,21.6054,-39.6159,71.933,166.4596,16.3921,-130.6027,3.7647,0,-9.3833,-37.5304,-44.1903,-68.8062,0,
52.0768,22.4141,-35.9665,86.933,151.4596,20.3296,-116.2406,11.9895,2.6062,-11.9885,-30.7542,-29.1903,-69.3268,15,
37.0768,15.1168,-43.2648,71.933,142.3036,13.0313,-129.7935,8.8612,-6.7767,-13.0313,-42.2216,-14.1903,-56.8172,23.4569,
22.0768,12.5096,-41.7009,63.5934,157.3036,19.8075,-130.3151,6.2551,-11.4684,-6.2551,-48.9988,0.8097,-52.1265,16.6797,
7.0768,27.5096,-26.7009,78.5934,172.3036,34.8075,-115.3151,20.3291,-22.4146,-21.2551,-41.1793,4.6912,-60.9873,29.7114,
7.2978,22.9357,-11.7009,78.1886,187.3036,49.8075,-100.3151,32.3181,-22.9357,-36.2551,-33.3603,-7.2978,-65.6784,26.0625,
-5.2118,16.6807,-2.085,85.4869,202.2491,46.9132,-85.3151,33.3608,-7.9357,-39.6154,-18.3603,-13.5519,-50.6784,29.1908,
-20.2118,8.3401,-17.085,82.3586,187.2491,41.7004,-70.3151,18.3608,7.0643,-24.6154,-8.3401,-10.4256,-35.6784,44.1908,
-35.2118,1.5639,-29.7119,86.007,193.3869,41.1788,-66.2001,14.074,16.1585,-9.6154,-3.6494,-2.6062,-43.2643,58.9022,
-50.2118,-13.4361,-31.7965,76.6247,193.3869,26.5841,-81.2001,4.6917,28.6697,4.6917,-4.6917,-6.7762,-58.2643,43.9022,
-65.2118,-28.4361,-35.4449,61.6247,182.4406,21.8935,-79.2308,-6.2546,32.3181,18.7657,-4.17,4.17,-52.125,28.9022,
-80.2118,-31.2753,-41.7009,59.4234,169.93,14.5952,-80.2736,-10.4251,17.3181,10.4251,-19.17,17.7229,-41.7009,23.9785,
-94.8692,-27.1058,-26.7009,60.4661,182.4406,12.5101,-82.3591,0,10.4246,0,-22.9357,31.2748,-46.9137,38.9785,
-83.9225,-24.4991,-22.4136,58.9027,189.2173,26.5846,-81.8375,1.5634,18.2446,-1.5634,-7.9357,22.4146,-49.5194,53.9785,
-80.2736,-21.893,-36.4876,65.6789,180.3556,31.2753,-79.2313,3.1273,18.7652,-3.1273,-4.1695,7.4146,-40.6577,48.9988,
-84.4436,-25.0203,-36.4881,65.6784,181.3984,25.0203,-79.2313,9.3823,19.808,-9.3823,-10.4246,14.5956,-46.9127,47.956,
-86.5291,-22.9357,-29.1903,59.4239,176.1851,25.0203,-74.019,8.3401,11.4679,-7.2978,-17.7224,7.2978,-54.2106,45.8705,
-91.7419,-26.0635,-29.1903,51.0828,164.7172,20.8502,-60.4661,2.0845,4.17,0,-21.8935,0,-39.2106,33.3603,
-104.7732,-33.882,-35.9675,54.7322,171.4944,15.1163,-60.9877,-6.7762,13.0318,6.7762,-19.2863,15,-24.2106,37.0088,
-107.3794,-44.8287,-45.871,46.9132,156.4944,14.5952,-75.9877,-11.4674,17.7229,10.4251,-18.7652,30,-10.4251,41.7009,
-96.4326,-50.5617,-44.3071,31.9132,141.4944,10.9467,-90.9877,-5.7334,13.0313,5.7334,-18.2436,15,-24.4991,26.7009,
-95.3904,-37.0093,-38.0515,45.3493,156.4944,8.8612,-86.0075,7.819,9.9035,-7.819,-15.1168,9.9035,-29.7114,17.2013,
-108.9432,-42.2221,-33.882,47.4344,171.4944,10.9462,-80.7952,2.6062,15.1163,-2.6062,-14.074,24.9035,-44.7114,32.2013,
-112.5922,-56.2966,-31.2753,32.4344,156.4944,12.5096,-93.827,-10.4251,12.5096,10.4251,-25.0208,26.063,-59.7114,43.7855,
-97.5922,-41.2966,-16.6802,36.4881,141.4944,22.9357,-82.3586,4.17,-2.4904,3.1278,-28.148,30.2326,-44.7114,28.7855,
-82.5922,-26.2966,-14.0745,41.1793,156.4944,31.797,-67.3586,19.17,-5.7344,-4.6912,-18.2446,44.3071,-29.7114,23.4559,
-97.5922,-39.6154,-29.0745,40.6587,141.4944,17.7229,-69.848,4.17,9.2656,-3.1273,-12.5096,29.3071,-23.9775,38.4559,
-112.5922,-46.3916,-28.6692,46.3926,126.4944,14.0745,-83.9225,0.52113,24.2656,-0.52113,-0.52113,14.3071,-38.9775,53.4559,
-99.5604,-40.1365,-13.6692,47.4344,135.0063,17.2018,-73.4974,5.7339,19.2863,-10.9462,-5.7339,11.9885,-23.9775,42.2221,
-85.4869,-29.1903,-4.17,55.2528,150.0063,18.7647,-64.6362,4.17,7.2968,-8.3401,-14.5956,26.9885,-14.5956,38.5727,
-100.4869,-32.3186,-17.7229,53.1678,165.0063,20.8497,-78.1891,2.085,22.2968,-2.085,-7.2983,23.9775,-22.9362,45.87,
-111.0283,-31.797,-15.1168,52.6472,156.8992,22.4146,-76.6252,7.819,24.4991,-7.819,-9.9035,18.2436,-15.1168,37.0093,
-96.0283,-32.3181,-4.17,48.9983,148.037,17.7224,-61.6252,4.17,12.5101,-7.2978,-17.7234,21.8925,-27.1058,36.4881,
-101.6454,-33.8815,-8.8612,45.3493,154.8137,17.2013,-46.6252,0.52113,23.4569,-0.52113,-5.7334,6.8925,-41.1793,49.5194,
-116.6454,-24.4991,-13.0323,54.7317,146.4736,19.2858,-61.6252,11.989,28.6692,-8.8622,4.6912,-4.6912,-41.1793,57.8595,
-117.2828,-30.7537,-18.2436,48.4771,137.0913,13.0313,-75.5824,5.7344,24.4991,-19.2868,-3.6489,3.6489,-50.5616,48.4771,
-109.9855,-30.7542,-15.1163,52.6467,152.0913,16.1585,-60.9873,1.5639,37.0098,-10.9462,4.6917,-1.5639,-35.5616,45.3498,
-121.9745,-28.148,-21.8925,58.3806,167.0913,12.5101,-63.5934,0,32.3181,-20.8502,9.3824,-16.5639,-20.5616,46.9137,
-119.89,-23.978,-10.4256,64.6362,152.0913,10.4246,-55.2538,11.4679,28.148,-13.5534,8.3401,-11.4679,-8.3401,54.2106,
-125.6229,-28.6692,-4.6912,56.8172,153.7715,6.7767,-57.8595,0.52113,19.2868,-0.52113,-6.6599,3.5321,-23.3401,41.1793,
-138.6547,-16.6802,0,52.126,168.7715,21.7767,-57.3383,-6.2546,21.8925,0,-6.2546,18.5321,-33.3603,53.1683,
-153.6547,-6.7767,0.52113,56.8172,183.7715,27.6269,-48.4771,-0.52113,20.3291,-15,-2.6066,3.5321,-31.797,57.8595,
-168.6547,-17.7234,4.17,61.5084,177.2273,13.5524,-55.2538,5.2123,18.7647,-30,-4.17,-11.4679,-29.1903,42.8595,
-183.6547,-32.7234,1.5639,55.7745,162.2273,9.904,-70.2538,3.6484,28.6687,-26.5841,-1.5639,-24.4996,-35.9675,38.052,
-198.6547,-25.0203,0,65.6794,147.2273,17.7234,-59.4229,0,41.7014,-11.5841,13.4361,-9.4996,-29.1903,53.052,
-213.6547,-33.8815,-2.6062,55.7745,162.112,2.7234,-44.4229,-10.9462,34.9242,-22.4141,25.5419,-21.3709,-14.1903,59.9455,
-228.6547,-32.8392,1.5639,59.9445,177.112,-1.5639,-32.8392,-1.5639,40.1365,-33.882,30.7542,-29.7119,0.8097,56.8167,
-243.6547,-29.7114,-6.7757,62.0305,162.112,-0.52113,-47.8392,0.52113,52.6472,-28.6692,20.3291,-14.7119,2.6066,62.0305,
-258.6547,-28.148,-4.17,53.1683,147.112,2.0845,-52.126,0,59.4229,-20.8507,35.3291,-8.3401,0,71.934,
-273.6547,-29.7119,-9.9045,51.6039,132.112,-0.52113,-53.6899,0.52113,44.4229,-32.8397,28.6692,-23.3401,2.6057,65.1573,
-288.6547,-30.7542,-20.3296,54.7322,119.3684,6.7762,-68.6899,4.6917,29.4229,-25.5419,13.6692,-8.3401,-12.3943,60.9868,
-303.6547,-32.3176,-21.893,51.0833,112.5917,12.5106,-77.1463,-2.085,25.0208,-17.7229,2.085,6.6599,-27.3943,62.5511,
-311.1908,-24.4991,-7.819,53.6894,127.5917,20.3291,-62.1463,3.6489,33.8825,-24.4991,15.1168,-3.6489,-15.1158,60.9873,
-317.968,-29.1908,-7.2978,52.126,124.059,13.5524,-47.1463,7.2978,32.3181,-39.4991,16.6802,-16.6802,-20.8502,59.4239,
-317.968,-32.3181,-6.2551,64.6357,112.5917,9.3828,-39.6159,6.2551,43.7855,-48.9983,21.893,-23.978,-35.8502,72.9758,
-313.798,-44.8287,-4.17,65.6784,115.7189,6.2546,-29.1908,4.17,47.955,-34.4036,21.8925,-18.7657,-20.8507,69.8485,
-319.0103,-55.2533,-12.5106,57.3378,114.6772,-3.1273,-35.4459,3.1273,42.7432,-37.5309,17.7229,-5.2128,-5.8507,59.4234,
-334.0103,-59.4234,-21.893,55.2533,104.2516,-3.1273,-50.4459,3.1273,38.5731,-52.5309,16.6807,-11.4674,6.2551,58.3811,
-340.9033,-57.3383,-9.3824,57.3383,101.1243,11.8727,-56.2961,8.3401,36.4881,-56.2961,20.8502,-15.6379,-8.3401,66.7207,
-334.1266,-51.6044,-4.6912,54.7317,86.1243,4.6912,-50.5621,14.0735,29.7114,-45.3493,20.3291,-9.9035,-23.3401,64.115,
-327.3509,-50.041,-13.5534,45.8705,71.1243,0,-41.7009,17.7224,28.148,-45.871,26.0625,0,-9.3833,61.5084,
-341.9455,-60.4656,-23.9775,36.4886,67.7634,5.2128,-52.1255,2.7224,26.063,-57.3383,11.0625,-15,5.6167,46.5084,
-350.2856,-46.9132,-20.8497,51.4886,82.7634,9.3828,-59.4234,-9.3828,41.063,-54.2106,11.4684,-30,9.3828,52.1265,
-349.2429,-45.8705,-14.5947,55.2538,85.4864,4.17,-53.1678,5.2133,38.5736,-54.2106,21.8935,-20.8502,-4.17,67.1265,
-336.7327,-53.1683,-3.1268,41.7014,86.5296,13.5534,-38.5727,8.3401,23.5736,-56.2956,6.8935,-5.8502,-13.5524,66.7217,
-321.7327,-38.1683,0.52113,49.5194,94.3476,24.4991,-31.797,5.7334,8.5736,-51.6049,-8.1065,9.1498,-24.4991,51.7217,
-314.3186,-23.4569,-11.989,57.8595,96.4331,11.989,-46.797,7.819,23.5736,-57.8595,6.8935,-5.8502,-17.2013,55.7749,
-308.0636,-18.2441,-10.9462,57.86,99.5604,5.7339,-61.797,10.9462,23.4564,-69.3273,4.6917,-17.2018,-4.6917,60.9878,
-293.0636,-3.6489,3.6489,50.5626,103.7309,20.7339,-54.7322,8.8612,10.9467,-69.3273,-10.3083,-17.2013,-10.9467,47.4349,
-278.0636,11.3511,-2.6062,51.6044,101.6449,35.7339,-58.9022,10.9462,2.6062,-74.5401,-16.1595,-30.7542,-21.3718,32.4349,
-263.0636,26.3511,1.0428,59.4234,112.5917,46.9132,-56.2961,19.8075,-1.0428,-76.104,-14.5952,-32.3186,-23.9785,30.2331,
-248.0636,41.3511,15.1158,44.4234,123.5379,39.0938,-43.2648,7.819,-7.819,-89.1353,-29.5952,-46.3926,-38.9785,19.2868,
-233.0636,56.3511,23.9775,45.871,138.5379,44.8277,-47.9555,1.0428,-1.0428,-102.1666,-34.4031,-61.3926,-50.041,9.3828,
-218.0636,71.3511,17.7229,45.871,140.7397,46.9132,-59.4234,1.0428,7.2983,-99.0388,-34.4031,-70.8912,-50.041,-1.0428,
-203.0636,86.3511,21.3718,48.4776,146.4741,53.6899,-44.4234,13.0318,-4.6917,-90.1776,-48.4766,-55.8912,-58.9022,4.6917,
-188.0636,101.3511,36.3718,54.2111,161.4741,68.6899,-29.4234,23.9775,-19.6917,-105.1776,-50.041,-40.8912,-53.1688,19.6917,
-173.0636,116.3511,39.6154,54.2111,176.4741,83.6899,-21.893,21.893,-21.893,-120.1776,-41.7009,-45.871,-38.1688,23.9775,
-158.0636,111.0283,24.6154,60.9868,167.3234,68.6899,-28.6697,10.9462,-10.9462,-105.1776,-45.3498,-60.871,-45.3498,22.4141,
-153.7715,96.0283,13.0308,59.9445,152.3234,53.6899,-33.882,2.6062,-2.6062,-94.3481,-34.9242,-75.871,-60.3498,23.4564,
-163.1538,81.0283,8.8617,54.7322,137.3234,38.6899,-47.4344,-1.5639,1.5639,-109.3481,-32.8397,-89.1353,-71.4124,15.1163,
-178.1538,66.0283,9.9035,55.7749,127.7079,23.6899,-38.0515,-2.6066,2.6066,-117.2833,-37.0093,-92.2626,-56.4124,18.2436,
-193.1538,51.0283,10.4251,59.4234,117.804,8.6899,-23.0515,1.0428,10.4251,-102.2833,-22.0093,-86.5291,-41.4124,33.2436,
-208.1538,36.0283,-3.1273,74.019,102.804,3.1273,-38.0515,12.5106,25.4251,-93.8265,-7.0093,-71.5291,-26.4124,48.2436,
-223.1538,21.0283,-14.0735,73.4974,87.804,-8.8612,-52.6467,16.159,34.9247,-88.0925,-0.52113,-56.5291,-11.4124,49.5194,
-237.1723,10.9467,-0.52113,74.5406,74.5406,-4.6912,-37.6467,18.2446,33.8825,-81.8375,0.52113,-41.5291,-17.2013,48.4771,
-227.79,4.6912,-4.6912,71.4119,64.115,10.3088,-38.052,18.2436,21.3713,-83.923,-14.0745,-26.5291,-32.2013,44.3071,
-215.2798,-1.5639,-11.9885,65.1578,73.4979,6.7762,-31.797,24.4996,22.4141,-69.3273,-10.9462,-11.5291,-17.2013,45.3498,
-212.6737,0,0,80.1578,88.4979,-8.2238,-16.797,20.8502,37.4141,-58.3811,4.0538,-23.978,-9.3824,55.2528,
-221.0133,-11.4674,4.17,94.8697,86.5296,-4.17,-28.1475,10.4256,52.4141,-66.7207,19.0538,-38.978,-24.3824,61.5084,
-211.6307,-11.4676,-3.1275,90.6994,83.4016,3.1275,-25.02,17.7232,47.9557,-69.8482,18.7654,-53.978,-11.4676,56.2958,
-204.3331,-3.1278,-13.5529,88.6142,89.6564,-8.3401,-10.02,26.0625,39.6159,-66.7212,14.5956,-38.978,3.1278,51.0838,
-215.2798,-3.6489,-6.7762,95.3904,90.1781,-8.8612,-14.074,30.7542,54.6159,-56.8172,28.6697,-25.5414,3.6489,66.0838,
-230.2798,-17.2018,-7.819,94.3476,75.1781,-6.7767,-26.5841,22.4136,48.4771,-64.115,23.4569,-40.5414,6.7767,72.4551,
-245.2798,-23.4569,-18.2441,79.3476,67.2423,-4.6917,-28.6692,15.1163,33.4771,-63.0723,8.4569,-35.967,4.6917,57.4551,
-237.694,-18.7657,-23.978,80.2741,60.4661,1.0423,-31.2758,17.7224,41.7004,-48.0723,11.4679,-20.967,-1.0423,62.5506,
-248.6407,-21.3718,-16.1595,92.2621,45.4661,-3.6489,-26.5846,22.4136,56.7004,-42.2221,23.4559,-27.6269,3.6489,64.114,
-259.0658,-32.8397,-4.6912,83.922,40.137,-18.6489,-23.4569,17.2013,45.3493,-57.2221,22.4136,-37.0098,4.6912,58.9017,
-244.0658,-17.8397,4.6912,98.922,55.137,-14.0745,-35.967,20.3291,47.4339,-57.86,26.5837,-22.0098,-4.6912,67.2418,
-241.8637,-3.1275,3.1275,113.922,46.9135,-5.2126,-44.828,25.021,62.4339,-42.86,41.5837,-21.8927,-14.5949,66.7214,
-256.8637,-5.7337,2.6064,128.922,31.9135,-8.8615,-35.9667,22.4139,77.4339,-43.2646,56.5837,-36.8927,-2.6064,59.9452,
-266.8843,-7.2978,5.2128,143.922,16.9135,-17.7229,-41.7009,21.893,79.2313,-47.956,55.2533,-21.893,-5.2128,67.7634,
-251.8843,-8.8612,13.0313,158.922,8.8612,-21.3713,-42.2216,27.6269,68.2851,-39.0943,45.3493,-18.2441,-20.2128,73.4974,
-236.8843,-2.085,28.0313,155.3349,2.085,-10.4251,-35.4454,30.2336,80.2741,-39.6154,55.2538,-33.2441,-33.3603,72.9763,
-238.2153,0.52138,22.4139,160.0263,-9.9037,-3.6487,-47.4346,21.3716,90.1778,-46.3919,63.072,-42.2218,-18.3603,80.7955,
-244.9915,-1.0425,7.4139,170.973,-18.7649,-10.4249,-48.998,21.8927,95.9122,-36.4879,75.061,-30.2328,-3.3603,82.3588,
-251.2468,2.085,3.1273,185.973,-26.063,-25.0203,-44.8282,28.1475,93.827,-34.4031,84.4436,-45.2328,-2.085,67.3588,
-248.1193,5.2126,18.1273,200.973,-25.0205,-26.0633,-38.5734,25.0205,103.2091,-43.7857,94.869,-60.2328,-5.2126,67.7632,
-243.9488,3.1275,33.1273,212.6739,-23.9777,-29.1906,-27.1055,19.8077,113.6342,-44.828,101.124,-69.8487,-3.1275,82.7632,
-247.0765,-1.0425,28.1483,197.6739,-21.8927,-29.1905,-18.7654,26.0628,98.6342,-38.5734,92.7835,-61.5086,1.0425,97.7632,
-243.4276,-2.6064,20.3288,182.6739,-6.8927,-14.1905,-26.5844,40.1368,84.965,-34.9245,77.7835,-46.5086,2.6064,112.7632,
-241.3426,-6.7764,5.7337,167.6739,8.1073,-5.7337,-41.5844,29.7117,76.6254,-29.7117,62.7835,-31.5086,-6.7764,108.9435,
-252.2891,-21.7764,-8.3401,152.6739,10.4256,-18.7652,-36.4881,14.7117,61.6254,-28.148,47.956,-23.978,8.2236,93.9435,
-261.1506,-25.5416,-17.2016,137.6739,14.0743,-14.0743,-21.4881,14.0743,46.6254,-34.9245,40.1368,-20.3293,23.2236,78.9435,
-267.927,-28.148,-30.2331,122.6739,29.0743,-4.17,-27.1053,18.7657,39.6159,-42.7432,25.1368,-18.7647,8.2236,63.9435,
-263.757,-37.5304,-28.148,107.6739,44.0743,2.085,-23.978,33.3608,44.8287,-29.1903,33.3608,-3.7647,-2.085,50.041,
-271.5754,-45.3493,-29.7119,92.6739,55.7745,4.6917,-9.904,23.4564,29.8287,-33.882,18.3608,-4.6917,-4.6917,56.8177,
-282.5222,-40.6582,-32.3181,77.6739,60.4661,10.4256,-10.4256,9.3823,17.7224,-43.786,3.3608,-11.4679,1.0423,46.9127,
-287.2138,-41.1798,-35.967,62.6739,48.4771,3.6489,-20.3291,13.0313,31.797,-34.9247,0.52113,-10.9467,-0.52113,47.4339,
-272.2138,-50.041,-40.6582,47.6739,42.7427,5.2123,-5.3291,23.978,25.0203,-22.9357,0,0,-4.17,60.4661,
-257.2138,-65.041,-55.6582,32.6739,57.7427,9.9035,0.52113,10.9457,10.0203,-27.6269,-15,11.989,9.9035,54.7317,
-242.2138,-67.2423,-59.9445,17.6739,72.7427,23.4569,6.7767,14.0735,-4.9797,-19.2868,-22.4141,26.989,24.9035,57.8595,
-247.5979,-80.7952,-71.4124,2.6739,87.7427,26.5837,19.2868,19.2868,-19.2868,-23.4569,-37.4141,34.9237,29.7114,46.3916,
-240.2996,-95.7952,-80.7947,-12.3261,102.7427,35.967,22.4146,20.3291,-34.2868,-20.3291,-52.4141,49.9237,23.4569,34.9247,
-229.3534,-92.7837,-92.7837,-27.3261,117.7427,41.7009,7.4146,20.8507,-49.2868,-6.2551,-67.4141,64.9237,9.3828,35.4464,
-244.3534,-95.3904,-96.4331,-42.3261,115.1983,26.7009,3.6484,8.8617,-52.6467,-3.6484,-81.8375,68.2846,10.9462,30.7542,
-259.3534,-92.2626,-81.8375,-57.3261,100.1983,11.7009,10.9467,11.989,-37.6467,-7.819,-69.3273,53.6894,25.9462,27.6269,
-246.5557,-77.2626,-66.8375,-43.2648,85.1983,23.4559,7.819,26.5837,-23.4569,-7.819,-54.3273,58.9017,20.3291,42.2216,
-231.5557,-62.2626,-51.8375,-28.2648,70.1983,38.4559,13.0313,32.8392,-8.4569,-9.9035,-39.3273,50.5626,5.3291,51.6049,
-217.886,-47.2626,-36.8375,-13.2648,55.1983,40.6582,1.0423,17.8392,-7.2978,-24.9035,-36.4881,35.5626,9.3823,36.6049,
-223.6204,-32.2626,-28.6697,1.7352,65.1568,26.5841,1.5639,18.2441,-1.5639,-16.1595,-31.7974,20.5626,24.3823,28.6687,
-230.9178,-27.6269,-24.4991,16.7352,50.1568,11.989,0.52113,22.4136,-0.52113,-31.1595,-31.797,5.5626,13.0313,26.5837,
-235.0878,-17.2013,-18.2446,31.7352,35.1568,16.159,-2.6066,17.2013,5.7334,-45.3493,-23.4569,-9.4374,13.0313,20.3291,
-241.864,-15.6379,-12.5101,46.7352,20.1568,30.2326,-16.6802,17.7224,15.6379,-31.2758,-8.4569,-24.4374,27.1058,33.3603,
-238.7362,-14.5952,-6.2551,61.7352,5.1568,35.4464,-14.5952,20.8507,20.8507,-22.9352,-2.085,-11.4674,16.6807,48.3603,
-229.3539,-13.5524,-4.17,76.7352,19.808,37.5304,0.40485,28.148,35.8507,-16.6802,-1.0423,-9.3823,1.6807,58.3806,
-238.7362,-28.5524,-19.17,61.7352,16.6802,28.148,-14.5947,17.7234,31.2758,-18.7647,3.1278,-3.1278,-13.3193,44.8282,
-250.2041,-35.4459,-28.1475,52.1255,1.6802,26.063,-17.7229,11.4674,21.893,-17.7229,11.4674,11.8722,-11.4674,46.9132,
-258.5447,-41.7009,-31.2758,55.2528,-13.3198,30.2326,-11.4679,14.5947,30.2326,-12.5101,11.4679,17.7224,-14.5956,52.126,
-247.0768,-47.956,-38.5736,52.126,0,17.7224,-9.3833,15.6379,28.148,-10.4256,0,4.17,-9.3833,39.6159,
-232.4811,-48.9978,-25.0208,38.5731,6.2551,2.7224,-9.3828,12.5106,13.148,-18.7652,-11.4674,2.085,2.085,24.6159,
-236.6512,-35.4454,-10.0208,53.5731,4.1705,16.6807,-8.3406,18.7652,19.8075,-12.5106,-4.1705,-7.2973,17.085,36.4876,
-251.6512,-34.9242,-8.8612,67.2428,-10.8295,28.6692,-8.8612,27.6269,34.8075,-16.159,8.8612,-18.2436,23.4569,51.4876,
-256.4596,-37.5309,-7.2978,66.7207,-25.8295,18.7647,-4.17,37.5304,46.9127,-22.9357,12.5101,-10.4256,8.4569,51.0828,
-249.6829,-22.5309,2.6066,79.7529,-35.967,22.4146,-2.6066,35.967,40.137,-11.989,16.159,-2.6066,-4.6912,49.5194,
-242.9068,-8.3406,-5.2128,78.1881,-23.9785,30.2331,-8.3406,22.9352,32.3176,-2.085,22.9352,2.085,-4.1705,51.0833,
-227.9068,-14.074,-6.7762,81.838,-21.3709,24.4996,-7.8185,21.3718,28.6697,-1.5639,16.1595,1.5639,-13.0308,49.5199,
-222.056,-9.3828,7.2973,96.838,-35.4454,14.5952,-7.2973,29.1908,42.7432,-7.2973,17.7229,-13.4361,-28.0308,44.8287,
-237.056,-4.6912,11.989,111.838,-50.4454,4.6912,-7.819,37.0093,57.7432,-10.9467,32.7229,-28.4361,-35.967,43.2638,
-240.3006,-0.52113,4.6912,123.5379,-65.4454,0.52113,-10.9467,38.0515,55.774,-20.3296,33.8815,-37.0098,-20.967,46.3916,
-241.3429,-8.8612,8.8612,117.2833,-66.1996,11.989,-8.8612,23.0515,53.6894,-15.1168,18.8815,-28.6692,-9.9035,50.5626,
-256.3429,-17.7229,7.2973,114.6772,-81.1996,6.2551,-5.2128,8.0515,57.3388,-6.2551,27.1053,-43.6692,-24.9035,41.7009,
-251.2463,-2.7229,13.5534,129.6772,-92.7837,0,0,23.0515,72.3388,-3.1268,42.1053,-58.6692,-35.4454,45.8715,
-236.2463,4.17,15.6379,144.6772,-89.6564,-4.17,-6.2551,34.4036,80.2741,-18.1268,57.1053,-65.6784,-38.5727,46.9137,
-235.6089,5.2128,14.5952,159.6772,-77.1463,-5.2128,-10.4251,19.4036,65.2741,-33.1268,60.4656,-58.3811,-42.7432,50.041,
-242.9063,7.2978,18.7657,164.7182,-83.4014,-9.3823,-7.2978,16.6802,56.2961,-31.2753,47.956,-70.8912,-57.3383,41.7004,
-240.3006,9.904,15.1163,158.9833,-98.4014,-16.1595,-9.904,18.2441,56.8167,-39.0948,47.4344,-85.8912,-64.115,26.7004,
-234.5667,11.4679,12.5101,162.6327,-96.9542,-13.5524,-11.4679,20.8502,63.5939,-24.0948,58.3806,-70.8912,-49.115,39.6159,
-248.1186,-3.5321,9.3828,154.2931,-88.6137,-20.8502,-19.8075,20.8507,70.8912,-9.0948,68.8067,-55.8912,-34.115,54.6159,
-253.3319,-7.2973,14.5952,149.0798,-94.8692,-13.5529,-27.1058,21.893,75.0613,5.9052,71.9335,-52.126,-41.7009,53.1678,
-238.3319,0,18.7647,139.6969,-79.8692,0,-12.5106,20.8502,80.2741,-9.0948,68.8062,-43.7859,-29.1908,44.8282,
-223.3319,-13.0313,8.8617,127.7084,-64.8692,-11.989,2.4894,13.0318,79.7524,-17.2013,70.3701,-55.7745,-14.1908,52.6477,
-216.844,-18.7654,6.2553,132.3999,-59.4236,-12.5104,17.4894,18.7654,80.2738,-11.4681,78.1883,-67.7637,-6.2553,50.0403,
-219.9715,-23.978,0,117.3999,-74.4236,0,5.2123,15.6379,65.2738,-22.9357,63.1883,-54.2111,-21.2553,41.7004,
-210.5882,-18.7647,-1.0423,102.3999,-59.4236,7.2978,1.0423,14.5956,50.2738,-22.9347,48.1883,-39.2111,-36.2553,54.2106,
-204.3336,-20.8507,-3.1273,87.3999,-44.4236,3.1273,16.0423,11.4674,35.2738,-12.5106,33.1883,-24.2111,-31.2758,52.1255,
-202.7697,-28.6692,-18.1273,72.3999,-45.3493,3.6489,20.3291,17.2013,20.2738,-14.0735,22.4146,-9.2111,-16.2758,43.2648,
-192.3446,-30.7542,-33.1273,57.3999,-53.6899,5.7339,5.3291,16.1585,5.2738,-29.0735,7.4146,-1.5639,-19.2863,43.2643,
-177.3446,-16.6797,-19.8075,42.3999,-38.6899,20.7339,20.3291,15.6384,16.6807,-14.5952,9.3828,-13.5529,-10.4251,45.871,
-162.3446,-17.7224,-22.9357,27.3999,-23.6899,5.7339,35.3291,5.2123,5.2123,-17.7224,-4.17,-28.5529,-14.5956,30.871,
-147.3446,-2.7224,-20.8502,20.8502,-8.6899,8.3401,30.2336,20.2123,-4.17,-22.9357,-16.6802,-21.8925,-18.7657,15.871,
-132.3446,12.2776,-12.5101,12.5101,6.3101,23.3401,28.148,19.808,-15.6379,-26.0625,-31.6802,-25.0203,-33.7657,17.7224,
-117.3446,27.2776,-6.7762,3.6484,21.3101,38.3401,43.148,4.808,-30.6379,-40.1365,-46.6802,-40.0203,-48.7657,2.7224,
-102.3446,42.2776,0,0,36.3101,42.7427,55.2528,-1.0433,-38.5736,-48.9983,-47.956,-52.126,-33.7657,0,
-87.3446,57.2776,-4.17,4.17,51.3101,45.8705,40.2528,8.3401,-28.148,-47.956,-43.7859,-51.0828,-22.9347,-5.2123,
-72.3446,72.2776,-3.6489,3.6489,54.7327,60.8705,25.2528,6.7767,-37.0093,-50.5616,-47.4339,-42.2216,-37.9347,-6.7757,
-57.3446,87.2776,-0.52113,-9.9035,67.2428,66.1996,31.797,8.8612,-46.3916,-53.6894,-53.6894,-27.6269,-28.6692,0.52113,
-42.3446,102.2776,-6.7762,-0.52163,69.3278,51.1996,26.5841,14.074,-35.9665,-45.3498,-55.7745,-25.5419,-18.2441,0.52163,
-27.3446,117.2776,-10.4251,3.1273,54.3278,51.0833,18.7652,4.1695,-32.3186,-45.871,-47.9555,-36.4886,-33.2441,-3.1273,
-12.3446,106.8577,-2.6066,4.6912,39.3278,54.7317,23.4569,2.6066,-40.137,-60.871,-44.3071,-51.4886,-48.2441,-3.6489,
2.6554,109.4639,-6.2551,6.2551,32.3176,51.0833,20.8497,12.5096,-46.9132,-64.6367,-57.3388,-66.4886,-42.7432,-17.7229,
17.6554,124.4639,-7.819,7.819,47.3176,66.0833,19.2868,27.5096,-31.9132,-49.6367,-48.4771,-51.4886,-28.6692,-9.9035,
32.6554,117.805,-15.6374,3.1273,32.3176,78.1891,9.3828,27.1053,-39.6154,-51.0833,-46.9132,-40.6577,-21.893,-3.1273,
47.6554,102.805,-9.904,1.5639,33.882,82.8802,17.2018,26.5841,-49.5199,-45.3498,-46.3921,-29.7119,-6.893,-1.5639,
62.6554,91.741,-8.3401,-10.4256,48.882,68.8062,29.1903,31.2758,-46.9137,-47.956,-51.0838,-22.9357,1.0423,-1.0423,
77.6554,83.4019,-23.3401,-25.4256,55.2538,61.5084,36.4881,33.3603,-42.7427,-52.126,-63.5934,-29.1903,-3.1278,3.1278,
92.6554,68.4019,-33.8815,-30.7537,40.2538,66.1996,43.2648,30.7547,-52.6472,-37.126,-71.4124,-30.7537,-4.6912,4.6912,
107.6554,54.2111,-18.8815,-15.7537,32.3176,59.4234,39.6154,35.4454,-55.2538,-23.9785,-62.5511,-15.7537,-9.3828,9.3828,
100.0815,43.7864,-20.8497,-5.2128,17.3176,44.4234,24.6154,31.2753,-40.6577,-38.9785,-51.0833,-14.5952,-21.893,9.3828,
85.0815,28.7864,-28.6692,9.7872,2.3176,33.8815,13.0313,16.2753,-25.6577,-35.967,-39.0948,-29.5952,-22.4146,15.1168,
70.0815,14.074,-26.5841,24.7872,-12.6824,24.4996,4.6917,1.2753,-10.6577,-27.6264,-24.0948,-44.5952,-9.904,18.2441,
55.0815,18.2436,-20.3291,39.7872,-27.6824,9.4996,-10.3083,0.52113,4.3423,-42.2221,-9.0948,-59.5952,-2.6066,5.7334,
40.0815,33.2436,-5.3291,54.7872,-42.6824,0.52113,-25.3083,3.6489,19.3423,-46.3916,5.9052,-74.5952,-13.0313,3.6489,
25.0815,24.4991,0.52113,69.7872,-57.6824,4.6912,-40.3083,-0.52113,34.3423,-52.6472,20.9052,-89.5952,-28.0313,17.2013,
10.0815,26.5841,-0.52113,84.7872,-72.6824,0.52113,-42.2221,14.4789,49.3423,-43.2643,35.9052,-84.9653,-38.0515,32.2013,
-4.9185,36.4884,7.2976,99.7872,-87.6824,-7.2976,-39.6157,29.4789,64.3423,-28.2643,50.9052,-69.9653,-43.7857,37.5306,
-19.9185,21.4884,7.819,114.7872,-102.6824,-7.819,-35.967,38.052,79.3423,-20.3291,65.9052,-57.86,-28.7857,47.4344,
-34.9185,13.0313,4.6912,129.7872,-117.6824,-4.6912,-27.6269,32.8392,88.0925,-35.3291,80.9052,-72.86,-13.7857,62.03,
-46.9132,11.4674,6.2551,144.7872,-132.6824,-6.2551,-19.808,31.2758,73.0925,-37.5309,72.9763,-77.1463,-15.6379,63.5939,
-59.9445,-0.52113,5.7339,159.7872,-147.6824,0.52113,-17.2013,46.2758,70.3701,-22.5309,62.03,-62.1463,-26.5841,58.9022,
-70.8912,0,0,158.4626,-142.8247,9.3828,-11.4679,59.4239,76.104,-8.3401,54.2106,-47.1463,-19.808,50.0405,
-75.5827,-6.7764,-9.9042,143.4626,-127.8247,15.1165,-9.9042,55.7747,71.4126,6.6599,51.6047,-32.1463,-9.9042,56.817,
-90.5827,-21.7764,-24.9042,128.4626,-128.751,17.2016,-24.9042,49.5191,63.0725,11.9887,54.7324,-17.1463,-18.2443,71.817,
-105.5827,-36.7764,-39.9042,113.4626,-124.5812,13.0313,-14.074,57.8595,65.1573,5.7339,58.9017,-8.8617,-5.7339,81.8375,
-113.6342,-51.7764,-31.2756,98.4626,-109.5812,-1.9687,0.92598,52.1263,62.5509,-9.2661,48.9985,-23.8617,9.2661,67.7632,
-110.5069,-66.7764,-40.6579,83.4626,-96.954,-4.1703,4.1703,40.6579,58.3813,-4.1703,41.7012,-29.1905,24.2661,67.7637,
-125.5069,-81.7764,-55.6579,68.4626,-111.954,-3.1275,-9.3826,36.4879,56.2963,10.8297,35.4456,-14.1905,9.2661,72.9765,
-138.1335,-89.1353,-70.6579,53.4626,-126.954,-17.2013,-11.989,44.3071,49.5194,10.9467,27.6269,0.80945,-5.7339,66.1996,
-127.7082,-102.6879,-64.1148,38.4626,-111.954,-27.6267,-0.52138,42.2218,34.5194,0.52138,12.6269,-5.7337,1.5636,58.902,
-131.3569,-113.6344,-63.5934,23.4626,-107.3794,-15.6379,8.3401,33.3608,19.5194,4.17,2.085,-2.085,-7.2973,61.5089,
-146.3569,-98.6344,-74.0185,8.4626,-122.3794,-0.63791,-2.085,43.7855,4.5194,19.17,-5.2123,12.915,-5.2123,63.5934,
-144.3886,-86.0075,-76.6252,-6.5374,-107.3794,14.3621,1.5639,56.8177,-1.5639,27.6264,-2.6062,27.915,9.7877,66.2001,
-147.5161,-101.0075,-87.05,-21.5374,-92.3794,7.8187,9.9037,41.8177,-7.8187,21.3721,-9.9037,31.7967,14.0738,64.1148,
-138.6549,-113.6342,-85.4861,-36.5374,-77.3794,7.2976,20.8505,48.9985,-7.2976,36.3721,-22.9355,46.7967,29.0738,69.8487,
-123.6549,-117.2833,-87.0503,-51.5374,-62.3794,20.3291,23.4569,54.7317,-20.3291,35.967,-37.9355,61.7967,44.0738,64.115,
-108.6549,-123.5381,-92.2628,-66.5374,-47.3794,33.8817,27.6262,45.3496,-32.8395,24.4994,-52.9355,75.5822,34.924,54.7319,
-108.9428,-118.3256,-87.0503,-81.5374,-32.8392,27.6269,38.0515,38.0515,-24.4991,24.4991,-56.8172,60.5822,27.6269,51.6049,
-121.4531,-104.773,-72.4549,-66.5374,-47.8392,12.6269,39.0945,35.9667,-9.4991,22.4144,-41.8172,45.5822,30.7544,52.6469,
-136.4531,-99.0393,-62.5511,-51.5374,-62.8392,-2.3731,24.0945,20.9667,5.5009,7.4144,-26.8172,30.5822,15.7544,51.0828,
-137.6122,-84.0393,-47.5511,-36.5374,-77.8392,-17.3731,19.8077,32.3178,20.5009,5.2126,-11.8172,15.5822,0.75444,66.0828,
-152.6122,-69.0393,-32.5511,-21.5374,-92.8392,-28.1478,11.4676,41.7007,35.5009,3.1275,3.1828,0.58216,-3.1275,78.1888,
-167.6122,-54.0393,-17.5511,-6.5374,-107.8392,-43.1478,6.2551,33.3608,50.5009,-10.4251,18.1828,-14.4178,-6.2551,76.104,
-165.7602,-39.0393,-2.5511,8.4626,-122.8392,-58.1478,1.0425,30.2328,65.5009,-20.8505,33.1828,-29.4178,-1.0425,91.104,
-174.1005,-24.0393,12.4489,23.4626,-137.8392,-67.7634,-8.3401,37.5304,80.5009,-31.2753,48.1828,-44.4178,3.1278,99.0393,
-173.058,-9.0393,27.4489,38.4626,-152.8392,-63.5937,-3.1275,44.8285,95.5009,-22.9355,63.1828,-59.4178,1.0425,96.9545,
-158.058,-0.52113,42.4489,53.4626,-167.8392,-57.8595,0.52113,44.3071,110.5009,-17.2013,78.1828,-74.4178,-13.9575,103.7309,
-157.9413,-0.52138,44.3068,68.4626,-182.8392,-44.3068,0.52138,49.5196,125.5009,-8.8615,93.1828,-89.4178,-21.3716,104.7735,
-169.4091,-15.5214,29.3068,83.4626,-197.8392,-41.1795,-0.52138,39.0945,137.0905,0.52138,108.1828,-95.3906,-6.3716,91.2201,
-160.5479,-22.9355,20.85,98.4626,-212.8392,-51.0835,3.1275,28.1478,122.0905,-3.1275,118.847,-80.3906,-8.3403,88.6134,
-149.08,-31.2756,11.4676,113.4626,-223.099,-42.7434,14.5949,43.1478,120.932,-11.4676,111.5496,-65.3906,-22.9355,86.5284,
-143.3461,-46.2756,-3.5324,128.4626,-208.099,-33.8817,25.5416,42.2218,105.932,-6.7764,96.5496,-50.3906,-7.9355,77.6672,
-142.3038,-61.2756,-18.5324,113.4626,-195.4721,-42.2218,23.4566,27.2218,90.932,-10.9465,81.5496,-43.2646,7.0645,70.3699,
-136.5697,-75.0613,-23.978,98.4626,-180.4721,-27.2218,29.1903,25.0203,75.932,-10.4251,66.5496,-28.2646,10.4251,78.1886,
-150.6439,-81.8377,-38.978,83.4626,-165.4721,-32.8395,29.7117,29.7117,60.932,-4.6914,51.5496,-13.2646,-4.5749,72.4554,
-164.1966,-96.8377,-53.978,68.4626,-164.1966,-47.8395,26.5841,14.7117,45.932,-2.6062,36.5496,-1.5639,1.5639,57.4554,
-153.771,-97.4754,-67.2423,53.4626,-160.0265,-32.8395,28.6697,29.7117,30.932,-7.819,21.5496,2.6062,9.904,50.5621,
-144.3889,-82.4754,-64.1148,38.4626,-146.4739,-17.8395,30.7539,30.7539,15.932,-8.8615,6.5496,17.6062,10.946,45.3496,
-145.4314,-90.1781,-71.4124,23.4626,-135.0063,-2.8395,42.2221,15.7539,0.932,1.5639,-8.4504,32.6062,25.946,43.2643,
-130.4314,-83.4014,-67.7639,8.4626,-120.0063,5.2123,54.2106,23.978,-5.2123,16.5639,-20.8507,47.6062,40.946,57.3383,
-119.8895,-89.6564,-69.849,-6.5374,-105.0063,20.2123,51.0828,31.2758,-20.2123,26.0625,-35.8507,62.6062,28.148,54.2106,
-115.1983,-93.3053,-71.4124,-21.5374,-90.0063,35.2123,66.0828,37.0093,-28.6692,39.0948,-37.0093,77.6062,28.6692,50.5616,
-106.8582,-92.2626,-78.7102,-36.5374,-75.5824,31.797,72.4551,40.137,-31.797,40.137,-34.9242,92.6062,37.0093,58.9017,
-91.8582,-100.6029,-74.5399,-51.5374,-60.5824,37.0095,67.2421,38.0518,-37.0095,37.0095,-48.4769,107.6062,48.4774,63.072,
-88.6139,-105.2941,-68.8065,-66.5374,-45.5824,40.6584,79.2311,41.7007,-45.8707,37.5306,-63.4769,122.6062,57.3386,48.072,
-94.3476,-96.4326,-62.03,-73.4974,-44.3071,38.052,94.2311,48.4766,-38.052,40.1365,-48.4771,112.0705,70.3701,48.4766,
-109.3476,-90.1773,-55.7747,-58.4974,-59.3071,24.4989,79.2311,37.01,-23.052,25.1365,-33.4771,97.0705,55.3701,51.6047,
-124.3476,-81.8375,-44.3071,-43.4974,-74.3071,9.4989,64.2311,22.4141,-8.052,10.1365,-19.2863,82.0705,40.3701,36.6047,
-139.3476,-71.934,-30.2331,-28.4974,-89.3071,-5.5011,49.2311,7.4141,6.948,-1.0423,-4.2863,67.0705,25.3701,27.1058,
-154.3476,-56.934,-15.2331,-13.4974,-104.3071,-20.5011,34.2311,4.6914,21.948,-4.6914,10.7137,52.0705,14.0738,42.1058,
-165.2391,-41.934,-0.23306,1.5026,-119.3071,-35.5011,25.5416,14.0738,36.948,-19.6914,25.7137,37.0705,-0.92623,57.1058,
-164.7179,-26.934,14.7669,16.5026,-134.3071,-41.7007,19.8082,12.5104,51.948,-19.8077,40.7137,22.0705,-15.9262,55.2531,
-169.9303,-11.934,29.7669,31.5026,-149.3071,-43.7857,4.8082,6.2548,66.948,-4.8077,55.7137,7.0705,-13.5526,59.4231,
-175.6639,-9.904,41.1798,46.5026,-164.3071,-46.3921,-9.904,11.989,81.948,9.904,70.7137,-7.9295,-13.0313,70.3701,
-179.3128,-6.2551,26.1798,61.5026,-179.3071,-59.4234,-20.8502,11.4674,96.948,6.2551,85.7137,-22.9295,-28.0313,61.5084,
-164.3128,0,23.9785,76.5026,-194.3071,-52.1255,-5.8502,14.5952,107.3794,0,100.7137,-37.5304,-28.1475,57.3388,
-156.8985,-10.9465,24.4989,91.5026,-209.3071,-44.3068,9.1498,10.9465,92.3794,-11.9888,85.7137,-45.3496,-13.1475,51.6047,
-155.3353,-22.9357,9.4989,106.5026,-224.1411,-37.5309,5.2128,2.085,77.3794,-17.7229,70.7137,-42.7432,-2.085,36.6047,
-140.3353,-23.978,1.0423,121.5026,-223.0988,-22.9357,7.2978,12.5101,62.3794,-6.2556,69.8485,-27.7432,-1.0423,31.2758,
-125.3353,-29.1908,-5.2128,117.804,-208.0988,-25.0208,19.8075,19.8075,54.2111,-9.3828,62.5511,-12.7432,-8.3406,46.2758,
-118.3261,-43.2648,-10.9467,102.804,-193.0988,-21.3718,28.6692,15.1158,39.2111,-11.989,47.5511,2.2568,-4.6912,42.2216,
-118.3261,-58.2648,-24.4991,87.804,-178.0988,-11.989,22.4136,6.7767,24.2111,-6.7767,32.5511,17.2568,-11.989,27.2216,
-115.7194,-62.5506,-37.5304,72.804,-163.0988,-10.4246,18.7657,8.3401,9.2111,1.0423,17.5511,32.2568,-1.0423,23.978,
-105.2943,-77.1463,-39.6159,57.804,-148.0988,-16.6802,29.1903,8.3401,-5.7889,3.1278,2.5511,47.2568,13.9577,35.4459,
-90.2943,-71.4124,-24.6159,42.804,-133.0988,-2.6066,44.1903,21.3713,-4.6912,18.1278,-3.6489,62.0295,28.9577,34.9247,
-79.2313,-74.019,-36.4881,27.804,-118.0988,3.1273,59.1903,19.8075,-4.1705,26.063,-3.1273,69.849,28.1475,42.7432,
-79.2313,-84.4436,-51.4881,12.804,-103.0988,8.3401,52.126,14.5956,-8.3401,27.1058,-15.6379,84.849,32.3181,51.0838,
-81.8375,-81.8375,-47.4344,-2.196,-88.0988,7.8185,50.5621,14.074,-7.8185,24.4996,-14.074,79.7524,31.7965,48.4766,
-84.9653,-78.7102,-44.3071,-17.196,-78.7102,6.7767,48.4771,13.0313,-6.7767,21.3713,-13.0313,74.5396,31.797,46.3916,
-87.5714,-76.104,-39.6159,-32.196,-83.4014,6.2551,46.9132,12.5106,-6.2551,19.8075,-11.4674,68.8057,31.2753,43.7855,
-89.6564,-72.9763,-35.4454,-27.1053,-86.5286,5.2128,45.871,12.5106,-5.2128,17.7229,-9.3828,63.5934,32.3186,42.7432,
-92.2626,-70.3696,-30.7537,-19.2868,-91.2203,4.6912,44.3071,11.989,-4.6912,15.1168,-7.819,58.9027,31.797,40.137,
-95.3904,-67.2423,-27.6264,-13.0318,-95.3904,3.6484,42.2221,10.9462,-3.6484,11.9895,-6.7762,52.6477,30.7542,38.052,
-97.9965,-63.5934,-22.9357,-5.2123,-101.1243,3.1278,41.7004,11.4679,-3.1278,8.3401,-4.17,45.8705,32.3181,34.4026,
-97.996,-53.1678,-13.5524,9.7877,-116.1243,-11.8722,26.7004,6.2556,11.8722,0,10.83,30.8705,17.3181,28.148,
-94.8687,-38.1678,1.4476,24.7877,-131.1243,-26.8722,12.5101,4.17,26.8722,-7.2968,25.83,15.8705,2.3181,36.4881,
-92.7842,-23.1678,16.4476,39.7877,-146.1243,-40.6582,1.0423,-1.0423,41.8722,-15.6379,40.83,0.87048,17.3181,43.7859,
-80.2741,-8.1678,31.4476,54.7877,-161.1243,-44.8287,-13.5529,3.1278,56.8722,-6.2556,55.83,-14.1295,27.1048,40.6582,
-68.2848,2.6064,46.3924,69.7877,-176.1243,-58.902,-20.3288,15.1165,71.8722,-2.6064,70.83,-29.1295,12.1048,40.1368,
-56.817,17.2016,61.3924,84.7877,-191.1243,-56.817,-23.4566,22.4144,86.8722,-17.2016,85.83,-44.1295,-2.8952,55.1368,
-41.817,29.7119,68.2846,99.7877,-206.1243,-48.4771,-23.4564,16.159,101.8722,-22.4141,100.83,-59.1295,-16.159,70.1368,
-26.817,14.7119,53.2846,114.7877,-221.1243,-54.7322,-23.4569,6.7762,101.6449,-23.4569,115.83,-74.1295,-6.7762,59.9445,
-21.3716,-0.28807,38.2846,129.7877,-236.1243,-55.7747,-20.3288,7.8187,93.3051,-29.7117,102.6884,-82.88,8.2238,49.5191,
-10.4251,-7.2973,39.6159,144.7877,-221.1243,-40.7747,-5.3288,9.3828,92.7842,-17.7224,103.2098,-67.88,0,64.5191,
-0.52138,-9.9037,28.6694,159.7877,-206.1243,-31.7967,0.52138,10.9465,77.7842,-5.7337,103.7302,-52.88,-15,62.0298,
-2.6062,-24.9037,13.6694,144.7877,-191.1243,-29.7119,-11.989,18.2441,63.0723,-11.989,88.7302,-44.3071,0,49.5199,
1.5636,-39.9037,-1.3306,129.7877,-176.1243,-24.4989,-1.5636,11.9888,52.6469,-20.3288,73.7302,-29.7117,15,46.3923,
7.2978,-51.0833,-16.3306,114.7877,-161.1243,-26.063,1.0423,-1.0423,37.6469,-26.063,58.7302,-23.978,2.0855,31.3923,
22.2978,-44.8277,-31.2748,99.7877,-146.1243,-11.4669,1.0433,10.4256,22.6469,-15.6369,43.7302,-8.978,0,16.3923,
36.4876,-59.8277,-45.871,84.7877,-131.1243,-2.085,2.085,10.4251,7.6469,-16.6807,28.7302,6.022,10.4251,5.2128,
41.1798,-65.1573,-53.6894,69.7877,-116.1243,-2.6062,11.9895,6.7762,-7.3531,-23.4564,13.7302,9.904,11.9895,6.7762,
55.2533,-51.0833,-42.7432,54.7877,-101.1243,9.3828,25.0208,21.7762,-22.3531,-16.6797,-1.2698,24.904,21.893,21.7762,
58.3811,-61.5089,-56.2956,39.7877,-86.1243,16.6807,20.8507,16.6807,-37.3531,-16.6807,-16.2698,39.904,19.8075,20.8507,
65.6789,-69.848,-60.4656,24.7877,-71.1243,17.7229,29.1908,2.085,-52.3531,-2.085,-31.2698,54.904,19.8084,5.8507,
65.6784,-75.0613,-64.6362,9.7877,-56.1243,9.3833,34.4036,5.2123,-67.3531,-3.1278,-46.2698,69.904,11.4679,3.1278,
66.7212,-84.4441,-79.6362,-5.2123,-41.1243,15.6374,33.3608,6.2551,-82.3531,-12.5106,-61.2698,80.2736,4.1705,4.1705,
69.8485,-93.8265,-94.6362,-20.2123,-26.1243,29.1903,38.5727,0,-97.3531,0,-76.2698,78.1886,19.1705,-2.0855,
55.7745,-98.5176,-95.3904,-35.2123,-16.1585,20.3296,35.9665,1.5639,-95.3904,5.7339,-91.2698,76.6247,17.2018,-1.5639,
40.7745,-97.9965,-80.3904,-50.2123,-31.1585,6.2556,20.9665,3.1278,-80.3904,-3.1278,-76.2698,76.104,6.2556,3.1278,
49.5199,-82.9965,-65.3904,-35.2123,-46.1585,2.6062,23.4564,6.7762,-65.3904,-2.6062,-61.2698,61.104,21.2556,11.9885,
55.7745,-67.9965,-50.3904,-20.2123,-61.1585,-12.3938,22.4141,2.6062,-50.3904,-7.8195,-46.2698,46.104,16.1585,3.6484,
40.7745,-52.9965,-35.3904,-5.2123,-76.1585,-27.3938,7.4141,-6.2551,-35.3904,-20.8507,-31.2698,31.104,1.1585,18.6484,
25.7745,-37.9965,-20.3904,9.7877,-91.1585,-36.4881,4.17,-4.17,-20.3904,-27.1058,-16.2698,16.104,-13.8415,33.6484,
10.7745,-22.9965,-5.3904,24.7877,-106.1585,-51.4881,-6.2551,-7.2973,-5.3904,-42.1058,-1.2698,1.104,-16.6807,48.6484,
3.1273,-7.9965,9.6096,39.7877,-121.1585,-66.4881,-11.4674,-3.1273,9.6096,-48.9983,13.7302,-13.896,-17.7229,63.6484,
-0.52138,7.0035,24.6096,54.7877,-136.1585,-58.902,-20.3288,0.52138,24.6096,-34.9245,28.7302,-28.896,-32.7229,78.6484,
-2.6062,22.0035,39.6096,69.7877,-151.1585,-54.7322,-23.4569,2.6062,39.6096,-31.797,43.7302,-43.896,-30.7542,63.6484,
-4.17,29.1903,54.6096,84.7877,-166.1585,-55.2533,-17.7229,4.17,54.6096,-38.5731,58.7302,-58.896,-15.7542,48.6484,
-7.8187,21.3716,41.1791,99.7877,-181.1585,-45.3496,-19.2866,7.8187,69.6096,-42.2218,73.7302,-73.896,-27.6267,51.6047,
-5.2128,7.2973,26.1791,114.7877,-196.1585,-36.4881,-26.063,5.2128,84.6096,-33.3603,83.4014,-58.896,-29.1903,53.1688,
9.3823,-5.2123,12.5101,129.7877,-181.1585,-36.4881,-23.978,-9.7872,69.6096,-32.3181,68.4014,-43.896,-14.1903,38.1688,
24.3823,-14.0735,13.0313,114.7877,-166.1585,-29.7119,-8.978,-10.9467,54.6096,-29.7119,58.9027,-28.896,0.8097,23.1688,
25.5419,-21.3708,-1.9687,99.7877,-151.1585,-18.2441,-7.8185,2.6062,39.6096,-14.7119,43.9027,-13.896,-14.1903,22.4141,
28.6697,-29.7119,-9.904,84.7877,-136.1585,-3.6484,-7.8185,9.904,24.6096,0.28807,28.9027,1.104,-29.1903,15.1163,
33.3603,-38.5727,-11.4679,69.7877,-121.1585,-1.0423,1.0423,5.2123,9.6096,-6.2546,13.9027,16.104,-14.1903,3.1278,
35.967,-38.0515,-22.4136,54.7877,-106.1585,-4.6912,5.7344,4.6912,-5.3904,-21.2546,-1.0973,24.4991,0.8097,6.7767,
50.967,-40.137,-27.6269,39.7877,-91.1585,3.6489,20.7344,9.9045,-20.3904,-31.797,-8.8612,35.967,15.8097,21.7767,
65.967,-41.7004,-23.9775,24.7877,-76.1585,18.6489,35.7344,14.5952,-30.2331,-16.797,-18.7652,50.967,30.8097,36.7767,
50.967,-56.7004,-38.9775,9.7877,-61.1585,10.9462,35.9665,7.8185,-45.2331,-7.8185,-33.7652,65.1578,38.052,24.4996,
44.3076,-65.1573,-48.4766,-5.2123,-46.1585,18.2441,27.6264,11.9895,-58.9022,-4.6907,-44.3066,62.03,34.9242,9.4996,
53.1678,-77.1468,-63.4766,-20.2123,-31.1585,26.063,32.3176,2.085,-73.9022,-2.085,-59.3066,77.03,19.9242,-5.5004,
44.8282,-92.1468,-78.4766,-35.2123,-16.1585,17.7224,39.6159,-8.3401,-88.9022,8.3401,-74.3066,92.03,29.1903,-20.5004,
36.4881,-103.2088,-91.741,-50.2123,-1.1585,7.2978,41.7014,-18.7647,-103.9022,4.17,-89.3066,90.6997,44.1903,-5.5004,
49.5199,-88.2088,-76.741,-65.2123,13.8415,20.3296,46.3921,-18.2441,-94.3476,-3.6484,-87.0503,77.6679,44.3066,3.6484,
46.9132,-74.019,-61.741,-80.2123,8.3396,21.893,38.5731,-9.3828,-79.3476,1.0428,-72.0503,65.6789,47.9555,-1.0428,
31.9132,-59.019,-46.741,-65.2123,-6.6604,6.893,26.5837,3.6489,-64.3476,7.819,-57.0503,50.6789,62.9555,11.989,
16.9132,-44.019,-31.741,-50.2123,-21.6604,-8.107,11.5837,-7.819,-49.3476,-7.181,-42.0503,35.6789,47.9555,7.819,
10.4246,-29.019,-16.741,-35.2123,-36.6604,-23.107,3.1278,-11.4679,-34.3476,-22.181,-27.0503,20.6789,32.9555,0,
3.1278,-14.019,-1.741,-20.2123,-51.6604,-29.1903,-8.3401,-14.5956,-19.3476,-27.1058,-12.0503,5.6789,17.9555,3.1278,
-6.7762,0.98099,13.259,-5.2123,-66.6604,-41.1793,-15.1163,-13.0308,-4.3476,-22.4141,2.9497,-9.3211,20.3296,18.1278,
-21.7762,13.5529,28.259,9.7877,-81.6604,-56.1793,-30.1163,-13.5529,10.6524,-37.4141,17.9497,-24.3211,15.6374,20.8497,
-18.7657,28.5529,43.259,24.7877,-96.6604,-58.3816,-36.4886,-4.17,25.6524,-48.9988,32.9497,-39.3211,4.17,35.8497,
-3.7657,34.9247,58.259,39.7877,-111.6604,-52.6472,-21.4886,-1.5639,40.6524,-33.9988,47.9497,-54.3211,1.5639,45.3493,
-6.2551,19.9247,51.0833,54.7877,-126.6604,-67.6472,-15.6379,-16.5639,55.6524,-46.9132,62.9497,-69.3211,6.2551,30.3493,
-3.1273,4.9247,36.0833,69.7877,-141.6604,-71.934,-21.893,-25.0208,70.6524,-61.5089,77.9497,-84.3211,14.5952,23.9775,
-3.6487,0.52138,26.5844,84.7877,-145.4311,-58.902,-6.893,-15.1165,85.6524,-46.5089,84.965,-99.3211,1.5636,38.9775,
-3.1275,-8.3398,22.9355,99.7877,-130.4311,-44.828,8.107,-14.5949,70.6524,-31.5089,85.4871,-84.3211,3.1275,36.4879,
-1.0428,-23.3398,7.9355,99.0393,-115.4311,-45.8705,23.107,-27.1053,55.6524,-39.6154,70.4871,-69.3211,18.1275,23.9785,
7.2973,-34.4031,-7.0645,84.0393,-100.4311,-47.956,38.107,-19.8075,40.6524,-54.6154,55.4871,-54.3211,33.1275,26.063,
10.9467,-40.1365,-8.8612,69.0393,-85.4311,-49.5194,53.107,-16.159,25.6524,-50.5616,40.4871,-50.5616,21.3723,22.4146,
25.9467,-26.063,1.0423,54.0393,-70.4311,-34.5194,68.107,-5.2123,10.6524,-35.5616,27.1048,-35.5616,33.3603,35.4459,
40.9467,-38.052,-9.904,39.0393,-55.4311,-19.5194,65.1578,-15.1163,-4.3476,-20.5616,12.1048,-20.5616,48.3603,21.3718,
45.3493,-41.1798,-4.6912,24.0393,-40.4311,-18.2446,80.1578,-2.6066,-7.819,-5.5616,-0.52113,-5.5616,63.3603,24.4991,
43.7859,-43.7855,-17.7224,9.0393,-25.4311,-18.7647,95.1578,0,-22.819,0,-15.5211,3.1278,50.0415,27.1058,
53.6894,-53.6894,-22.4141,-5.9607,-10.4311,-3.7647,101.6454,-1.5634,-37.0093,1.5634,-24.4991,18.1278,65.0415,33.8815,
50.041,-68.6894,-34.4031,-20.9607,4.5689,-9.3828,105.2938,-5.2128,-44.8282,5.2128,-23.978,33.1278,80.0415,33.3608,
35.041,-79.7529,-49.4031,-35.9607,19.5689,-19.2863,103.7304,-5.7339,-52.6472,5.7339,-38.978,39.0943,93.3048,31.7965,
26.5841,-90.1781,-64.4031,-50.9607,34.5689,-9.904,97.4749,-9.904,-56.8172,9.904,-53.978,40.1365,78.3048,37.0088,
28.6692,-100.6032,-79.4031,-65.9607,49.5689,-7.819,106.8577,-20.3291,-71.8172,7.819,-68.2851,55.1365,89.1353,25.5414,
34.4031,-99.0388,-67.7634,-80.9607,64.5689,-7.2973,121.8577,-12.5096,-71.9335,7.2973,-57.3383,61.5089,104.1353,31.2753,
36.4884,-84.0388,-52.7634,-70.891,79.5689,-3.1275,130.3148,-4.1698,-56.9335,3.1275,-42.3383,46.5089,115.7192,46.2753,
21.4884,-69.0388,-37.7634,-55.891,64.5689,-18.1275,115.3148,-19.1698,-41.9335,-11.8725,-27.3383,31.5089,100.7192,51.6044,
6.4884,-54.0388,-22.7634,-40.891,49.5689,-33.1275,100.3148,-31.2753,-26.9335,-9.3823,-12.3383,16.5089,85.7192,54.2106,
-8.5116,-39.0388,-7.7634,-25.891,34.5689,-48.1275,85.3148,-37.0095,-11.9335,-19.2866,2.6617,1.5089,70.7192,53.6892,
-10.4251,-37.5304,7.2366,-10.891,19.5689,-63.1275,70.3148,-52.0095,3.0665,-34.2866,17.6617,-13.4911,55.7192,52.126,
-20.3291,-33.882,20.3291,4.109,4.5689,-78.1275,55.7745,-49.5194,18.0665,-34.9242,32.6617,-28.4911,54.7322,50.5621,
-35.3291,-27.1053,27.1053,19.109,-10.4311,-91.7414,43.786,-41.7004,33.0665,-35.4454,47.6617,-43.4911,46.9137,50.0405,
-32.8392,-20.3291,41.1793,34.109,-25.4311,-102.6877,41.1793,-55.7745,48.0665,-50.4454,62.6617,-58.4911,31.9137,50.5626,
-17.8392,-20.8505,38.5734,49.109,-40.4311,-117.6877,30.2333,-70.7745,61.5081,-65.4454,77.6617,-73.4911,16.9137,35.5626,
-2.8392,-29.1905,23.5734,64.109,-55.4311,-132.6877,25.02,-85.7745,48.998,-80.2738,67.7637,-88.4911,1.9137,22.9355,
12.1608,-34.4031,17.7229,79.109,-70.4311,-147.6877,27.1053,-87.5714,53.1688,-78.1886,54.2111,-103.4911,-13.0863,18.7652,
27.1608,-37.0093,11.9885,94.109,-85.4311,-161.0688,20.3286,-91.2203,38.1688,-92.2626,42.2221,-118.4911,-7.8185,7.8185,
23.4564,-49.5199,-1.5639,79.109,-84.9653,-155.8565,24.4986,-88.093,23.1688,-92.2631,33.882,-133.4911,1.5639,1.5639,
15.1168,-50.5621,-5.7334,64.109,-69.9653,-147.5164,34.9247,-81.8375,8.1688,-77.2631,32.8392,-141.2613,9.9035,6.7767,
23.4569,-54.7322,-7.819,49.109,-54.9653,-139.1763,35.967,-75.5824,7.819,-62.2631,29.7114,-126.2613,17.2013,14.0735,
38.4569,-65.1573,-16.159,34.109,-52.6472,-124.1763,43.2648,-65.1573,16.159,-50.5621,23.4569,-111.2613,21.3713,22.4146,
53.4569,-50.1573,-17.2018,30.7542,-37.6472,-109.1763,58.2648,-50.1573,17.2018,-35.5621,21.3718,-96.2613,36.3713,33.882,
68.4569,-46.9132,-19.808,15.7542,-22.6472,-94.1763,61.5084,-41.7004,2.2018,-27.1053,6.3718,-81.2613,50.0405,34.4036,
83.4569,-49.5199,-4.808,6.7762,-7.6472,-79.1763,76.5084,-26.7004,-6.7762,-12.1053,2.6062,-66.2613,53.6889,45.3488,
98.4569,-57.3383,-3.1273,-8.2238,7.3528,-64.1763,81.3168,-18.7652,-13.5529,2.8947,-11.4679,-51.2613,53.1688,40.6587,
113.4569,-53.6897,-14.0738,-16.1588,22.3528,-58.902,78.7099,-24.4989,-24.4989,14.0738,-20.3288,-36.2613,60.9875,39.095,
128.4569,-52.6467,-23.4564,-9.904,23.4564,-58.9022,81.838,-25.5414,-31.7965,9.904,-22.4141,-21.2613,59.9445,38.052,
143.4569,-61.5086,-15.6377,-15.6377,14.5954,-53.1685,87.5717,-14.5954,-21.8927,20.85,-18.7654,-6.2613,62.5514,44.828,
158.4569,-61.5089,-16.6807,-10.4256,7.2978,-56.2961,78.1886,-13.5529,-7.2978,8.3401,-13.5529,8.7387,59.4229,46.9127,
166.2813,-46.5089,-13.0315,4.5744,-6.7764,-56.8175,75.5827,-22.4144,6.7764,-6.6599,1.4471,-6.2613,51.6047,44.3068,
174.6212,-32.8392,-3.6484,19.5744,-21.7764,-60.9873,60.5827,-37.4144,3.6484,-21.6599,6.7762,-21.2613,36.6047,29.7119,
189.6212,-17.8392,5.2128,34.5744,-36.7764,-67.7634,45.5827,-34.4031,5.2128,-21.893,-5.2128,-13.5529,21.6047,32.3186,
204.6212,-3.1278,-9.3823,49.5744,-51.7764,-82.7634,30.5827,-44.8282,13.5524,-36.4881,7.2978,-28.5529,6.6047,17.3186,
219.6212,11.8722,-6.7767,64.5744,-51.6044,-80.7952,18.2446,-51.6044,8.8612,-43.2643,22.2978,-43.5529,6.7767,2.3186,
234.6212,26.8722,8.2233,79.5744,-41.1793,-65.7952,22.4146,-48.4766,-6.1388,-40.1365,7.2978,-58.5529,7.819,-3.6489,
249.6212,41.8722,23.2233,81.3168,-26.1793,-50.7952,28.1475,-33.4766,-19.8075,-48.9983,-2.085,-73.5529,15.6374,2.085,
264.6212,56.8722,38.2233,96.3168,-19.2868,-35.7952,22.4146,-18.4766,-7.819,-54.7322,4.6912,-88.0925,9.9045,-4.6912,
279.6212,71.8722,53.2233,111.3168,-4.2868,-20.7952,32.3186,-13.5519,-5.2118,-40.6577,9.3828,-73.0925,-5.0955,-2.085,
294.6212,86.8722,47.4344,100.6027,4.6917,-5.7952,33.882,-28.5519,-15.1163,-52.6472,-4.6917,-64.115,-20.0955,-5.7339,
309.6212,101.8722,58.3811,109.4639,-7.2983,9.2048,39.6154,-13.5519,-6.2551,-44.8287,-8.3406,-61.5089,-12.5106,6.2551,
324.6212,116.8722,67.2423,115.1973,-22.2983,23.4564,29.7109,-1.5639,-1.5639,-33.882,-16.1595,-52.6477,-11.9895,1.5639,
339.6212,131.8722,67.2428,117.2833,-7.2983,31.797,30.7547,-0.52113,-3.6489,-30.7537,-1.1595,-40.137,-9.9035,-2.6066,
354.6212,146.8722,55.7749,102.2833,4.6912,21.3713,22.4136,-15.5211,-18.6489,-43.2648,-5.7334,-37.0093,-4.6912,-16.159,
369.6212,158.9833,60.9868,87.2833,-2.6062,18.2441,17.2008,-23.4574,-24.4996,-40.1375,-20.7334,-39.0943,2.6062,-14.074,
384.6212,161.5899,62.5511,96.9538,-10.4251,20.8507,22.9352,-8.4574,-9.4996,-26.063,-17.7229,-45.871,-12.3938,0.92598,
369.6212,148.5592,47.5511,87.0508,-19.2858,13.0323,9.9045,-7.819,-9.9035,-41.063,-4.6912,-58.9017,-15.1158,4.6912,
354.6212,141.783,44.8287,78.1891,-26.063,17.7229,-2.085,-16.6797,-24.9035,-44.8282,-8.3396,-61.5084,-0.11579,2.085,
339.6212,133.4424,52.126,87.5719,-39.6159,22.9357,3.1278,-15.6379,-11.4679,-29.8282,-9.3824,-51.0833,-3.1278,9.3823,
324.6212,118.4424,37.126,85.4864,-53.1683,14.5956,1.0423,-15.6379,-5.2123,-27.1048,-1.0423,-41.7004,-18.1278,13.5534,
309.6212,103.7309,22.126,78.7097,-38.1683,7.819,-0.52113,-11.989,-2.6066,-35.967,0.52113,-27.6269,-3.1278,8.8612,
294.6212,88.7309,7.126,64.6362,-26.0625,-1.0423,-11.4679,-17.7224,1.0423,-32.3181,-8.3401,-25.0203,11.8722,2.0855,
279.6212,74.0185,0,69.8485,-41.0625,3.1278,-23.978,-22.9347,0,-26.0625,-8.3401,-37.5304,5.2133,9.3833,
264.6212,65.6789,5.2128,76.1035,-56.0625,12.5096,-20.8507,-25.0208,-1.0428,-19.8075,1.0428,-33.3608,-9.7867,18.7652,
249.6212,50.6789,0.52163,68.2846,-71.0625,-0.52163,-21.3718,-23.4564,-6.7762,-13.0318,0.52163,-25.5419,5.2133,14.074,
234.6212,35.6789,0.52113,76.6252,-76.6247,-7.819,-27.6269,-11.989,-0.52113,-16.159,4.6912,-27.6269,20.2133,11.989,
219.6212,24.4996,-1.5639,65.1578,-91.6247,-19.2863,-32.8387,-26.5842,10.9462,-21.3718,1.5639,-32.8387,13.0318,13.0318,
204.6212,26.0625,0,68.8062,-106.6247,-18.7657,-20.8502,-26.0625,12.5101,-8.3401,8.3401,-17.8387,0,15.6379,
189.6212,20.3296,0.52163,73.4979,-94.3476,-9.904,-24.4986,-14.074,-2.4899,-23.3401,14.074,-2.8387,14.074,17.2018,
174.6212,10.9462,1.5639,73.4979,-104.7732,-19.2868,-26.5841,-14.074,-1.5639,-31.797,21.3718,-8.8617,29.074,30.7542,
159.6212,-1.5639,1.5639,79.7524,-119.7732,-34.2868,-14.0745,-21.3718,13.4361,-16.797,29.7109,-23.8617,44.074,32.8387,
144.6212,-1.5636,1.5636,86.0083,-117.2831,-28.6689,-4.6914,-8.8615,27.6267,-3.6487,39.0945,-28.6689,35.9667,37.009,
129.6212,3.1278,-7.2978,82.3586,-123.0173,-13.6689,-14.5956,-3.1278,15.6379,-16.6807,32.3181,-15.6379,25.0203,41.7004,
114.6212,-1.0428,-10.4251,76.1035,-127.1868,-6.2551,-11.4679,-2.085,13.5529,-1.6807,29.1908,-3.1273,40.0203,45.871,
99.6212,-16.0428,-17.2018,66.1996,-138.134,-17.2018,-26.4679,-0.52113,10.9457,-3.6489,19.2858,0.52113,46.3916,38.0515,
84.6212,-31.0428,-32.2018,63.5929,-153.134,-17.7234,-41.4679,-4.17,17.7224,-18.6489,14.5947,5.2123,31.3916,32.3181,
69.6212,-32.8397,-37.0098,57.859,-166.2816,-17.2018,-47.4349,-7.8195,32.7224,-3.6489,29.5947,2.6062,41.1788,25.5419,
54.6212,-23.4569,-23.4569,59.9445,-158.9843,-24.4996,-32.4349,-15.1168,37.0088,11.3511,38.052,-9.904,56.1788,11.9885,
39.6212,-11.4679,-16.6807,74.0185,-172.0155,-20.8507,-44.8282,-10.4256,36.4881,12.5101,25.0203,-5.2123,41.1788,26.9885,
24.6212,-14.5956,-20.8507,72.9763,-184.5257,-19.808,-54.2111,0,45.8705,13.5524,39.6159,0,26.1788,41.9885,
9.6212,-21.8925,-15.6374,74.019,-174.1,-26.0625,-42.7427,2.085,33.3608,6.2551,42.7432,-6.2551,16.6807,32.3186,
3.1278,-30.2331,-13.5529,65.6784,-166.8032,-33.3608,-35.4459,-3.1278,18.7647,10.4246,27.7432,-4.1705,31.6807,27.1048,
-6.7762,-30.7542,-19.2863,68.2846,-179.834,-32.8392,-29.7114,-0.52113,29.7119,16.1595,29.7119,0.52113,41.1798,42.1048,
-9.3824,-28.1475,-18.7652,80.2736,-187.6529,-29.1903,-23.9775,10.4251,37.5309,1.1595,40.6587,2.085,32.3186,57.1048,
-11.4679,-30.2331,-14.5952,72.9763,-184.5257,-21.893,-23.978,14.5956,39.6159,-11.4679,35.4459,11.4679,36.4881,47.956,
-26.4679,-39.6157,-20.8505,63.5932,-191.8232,-25.0205,-26.0628,5.2126,35.4451,-5.2126,30.2328,11.4681,35.4451,56.2963,
-40.6582,-51.0833,-25.0208,67.7634,-189.7385,-32.3181,-22.9357,4.17,45.871,9.7874,42.7432,-3.5319,31.2753,53.1678,
-25.6582,-42.2218,-11.9887,76.6249,-174.7385,-27.6267,-16.1593,11.9887,60.871,24.7874,57.7432,-15.1165,46.2753,47.4346,
-15.1165,-30.7544,-0.52138,64.1153,-159.7385,-30.7544,-5.7337,0.52138,53.6897,21.3716,63.072,-8.8615,61.2753,57.8597,
-29.7117,-31.7967,-6.7764,52.6474,-163.1541,-28.6694,1.5636,-4.6914,38.6897,6.3716,49.5196,5.7337,51.6042,67.2421,
-39.0943,-32.8392,-21.7764,67.2423,-178.1541,-14.074,-13.0313,10.3086,46.3921,4.6912,39.0943,-4.6912,36.6042,53.6899,
-35.967,-25.5419,-20.3291,72.4551,-182.9618,-10.9462,-18.2441,21.3713,53.6894,10.9462,41.1793,-16.159,21.6042,47.4349,
-28.148,-14.5952,-11.4674,67.7639,-167.9618,-25.9462,-4.17,14.5952,38.6894,2.085,44.8282,-2.085,27.1058,51.0838,
-32.3176,-20.8502,-21.8925,64.6367,-167.845,-29.1903,-11.4674,8.3406,23.6894,0,33.3608,0,28.1485,47.9565,
-42.2221,-33.882,-24.4991,62.0295,-182.845,-16.159,-22.4141,17.2013,28.6692,3.6489,27.6269,-3.6489,22.4136,49.5194,
-44.8282,-29.1903,-20.8502,68.8062,-175.1428,-28.1475,-20.8502,17.7234,32.3181,2.085,26.0635,-2.085,18.7657,50.0405,
-37.0093,-24.4991,-17.2013,66.2001,-164.1966,-40.137,-15.1163,9.904,39.0943,8.8612,35.9665,-8.8612,33.7657,55.7745,
-33.3603,-22.9352,-8.3401,66.7212,-173.0578,-32.3181,-12.5101,9.3828,43.7855,8.3401,43.7855,-15.6374,37.5309,61.5089,
-32.3183,-11.4676,-5.2126,81.3166,-166.803,-21.8932,-5.2126,19.8077,47.9552,5.2126,46.913,-9.3826,22.5309,54.2108,
-36.4879,-15.6377,-11.4676,72.9765,-158.4624,-17.7227,-6.2553,23.9777,55.2531,6.2553,56.2963,-7.2976,10.4254,57.3386,
-44.3071,-17.2018,-10.9462,67.2418,-166.2816,-13.0318,-17.2018,24.4991,52.6472,5.7339,51.6049,-5.7339,25.4254,72.3386,
-40.6582,-11.4679,-12.5101,69.849,-164.7177,-16.6802,-19.808,34.4031,44.8277,8.3401,43.7855,-8.3401,40.4254,74.019,
-44.828,-22.9355,-21.8927,68.806,-157.4201,-29.1906,-9.3826,32.3178,46.9135,9.3826,56.2958,-15.6377,55.2536,64.6359,
-59.828,-33.8815,-24.4991,73.4979,-169.4089,-30.7542,-7.819,22.4141,55.7745,7.819,65.1578,-7.819,54.7322,68.2846,
-66.7214,-37.5306,-23.9782,60.4654,-181.3981,-35.4456,-14.5954,15.6377,54.2108,5.2126,54.2108,-5.2126,39.7322,61.5086,
-51.7214,-34.9242,-17.2013,60.9877,-172.5367,-40.1365,-9.904,23.4569,58.9022,11.989,52.6477,-13.0313,24.7322,55.7745,
-62.0298,-44.3068,-21.3716,68.2853,-160.0263,-40.1368,-8.8615,17.2016,58.902,8.8615,53.6897,-13.0315,39.7322,66.1998,
-65.6789,-40.6582,-23.978,61.5084,-156.3776,-28.148,-9.3828,6.2551,47.956,6.2551,52.126,-6.2551,54.7322,69.8485,
-50.6789,-25.6582,-19.2866,54.7324,-156.899,-23.4566,-5.7337,14.0743,32.956,5.7337,45.3491,-9.9037,39.7322,54.8485,
-35.6789,-10.6582,-13.5526,54.2113,-154.2923,-19.8077,-1.0425,26.0633,25.021,1.0425,39.6157,-15.6377,26.0633,54.2113,
-35.967,-3.6489,-7.819,69.2113,-151.6864,-13.0318,-3.6489,20.3291,40.021,3.6489,44.3071,-20.3291,41.0633,69.2113,
-43.7855,-9.3823,-12.5101,72.9763,-143.8675,-16.6802,-4.17,7.2978,47.956,4.17,47.956,-22.9352,52.126,64.6362,
-51.0833,-23.978,-21.893,60.4656,-138.6547,-31.6802,8.3401,11.4674,35.4454,-8.3401,41.7009,-26.063,37.126,52.1255,
-53.1683,-18.7652,-15.6374,75.4656,-142.8247,-34.4031,17.7229,19.808,38.5736,-8.3401,45.8705,-35.4454,22.126,67.1255,
-62.5509,-26.0628,-22.9355,72.976,-148.0373,-32.3178,3.1275,9.3826,50.0413,-3.1275,52.1258,-50.4454,7.126,64.6359,
-66.7214,-23.9782,-26.0633,67.7637,-134.4849,-27.1055,-3.1275,17.7227,52.1258,3.1275,55.2536,-35.4454,11.4676,51.0835,
-80.2738,-27.1055,-30.2333,60.4659,-138.6549,-29.1905,-15.6377,21.8932,37.1258,3.1275,46.9135,-20.4454,18.7654,52.1258,
-95.2738,-42.1055,-45.2333,45.4659,-152.7287,-38.052,-30.6377,6.8932,27.6269,6.7767,39.0948,-5.4454,29.7114,47.4349,
-91.7417,-48.9985,-48.9985,52.1258,-137.7287,-29.1906,-26.0633,3.1275,40.6579,18.7649,44.828,-3.1275,31.2756,53.1681,
-79.7527,-53.6897,-52.6469,44.3068,-122.7287,-34.9245,-17.2016,3.6487,34.9245,14.0738,40.1368,4.6914,16.2756,59.9447,
-86.0078,-55.7747,-56.817,35.9667,-107.7287,-29.7117,-32.2016,0.52138,30.7544,3.6487,43.2646,4.6914,1.2756,59.9447,
-71.0078,-40.7747,-41.817,50.9667,-92.7287,-14.7117,-38.5731,15.5214,45.7544,0,58.2646,0,16.2756,74.0185,
-56.0078,-28.1478,-26.817,65.9667,-77.7287,-6.2553,-23.5731,30.5214,60.7544,-7.2976,68.806,-9.3826,31.2756,80.2738,
-41.0078,-20.8502,-26.063,62.5511,-62.7287,-9.3823,-21.893,33.3608,45.7544,-12.5101,53.806,-16.6802,16.2756,72.9767,
-26.0078,-19.2868,-30.7542,63.0723,-47.7287,-9.904,-36.893,28.6692,42.2221,-9.904,47.4344,-23.4569,3.6489,65.1568,
-11.0078,-34.2868,-45.7542,51.0833,-32.7287,-24.904,-44.8282,13.6692,30.2331,-24.904,33.3608,-38.4569,14.5952,50.1568,
3.9922,-49.2868,-59.9447,49.5201,-17.7287,-39.904,-33.8817,4.6914,15.2331,-28.6689,21.3721,-53.4569,-0.40485,35.1568,
18.9922,-34.2868,-44.9447,48.4774,-2.7287,-31.7967,-35.9667,16.1593,14.0738,-17.2016,20.3293,-40.1368,-14.0738,44.3073,
33.9922,-46.3921,-44.3071,43.2648,12.2713,-46.7967,-50.9667,2.6066,5.7334,-25.5419,5.3293,-42.2221,-2.6066,29.3073,
48.9922,-45.3493,-49.5194,53.6894,27.2713,-47.4344,-48.4771,-0.52113,0.52113,-24.4991,5.7334,-34.9242,7.819,18.2436,
63.9922,-30.3493,-44.3071,66.2001,42.2713,-32.4344,-35.967,14.4789,8.8617,-23.4569,16.1585,-19.9242,-7.181,33.2436,
78.9922,-26.5839,-35.9667,69.3271,57.2713,-20.3288,-37.0095,23.4566,21.3721,-38.4569,16.1588,-16.1588,-22.181,48.2436,
83.4019,-41.5839,-36.4881,56.2961,72.2713,-29.1903,-41.7004,8.4566,20.8502,-53.1683,17.7234,-31.1588,-8.3401,33.2436,
81.3166,-43.7857,-43.7857,57.3386,87.2713,-38.5734,-50.0408,5.2126,13.5526,-50.0408,11.4681,-46.1588,-5.2126,28.1483,
71.933,-48.9988,-58.7857,47.956,102.2713,-41.7009,-56.2961,2.0845,10.4246,-50.041,-1.0423,-39.6159,1.0423,22.9347,
79.2313,-51.0833,-65.6789,41.7009,117.2713,-34.4031,-53.1683,-3.1273,7.2973,-56.2961,4.1695,-47.956,3.1273,14.5952,
94.2313,-36.0833,-50.6789,56.7009,132.2713,-23.4566,-40.1373,11.8727,19.2866,-42.2223,9.9042,-38.0523,-9.9042,29.5952,
93.826,-29.1908,-38.5731,71.7009,147.2713,-19.808,-38.5731,26.8727,34.2866,-27.2223,10.4251,-23.0523,-10.4251,43.7855,
90.1778,-37.0095,-44.3073,66.1998,162.2713,-24.4994,-45.3496,13.0315,28.6694,-39.0945,15.116,-20.3293,-13.0315,33.8817,
99.5602,-29.7117,-40.1368,69.3276,177.2713,-28.6689,-32.839,13.0315,16.1593,-53.6897,22.4139,-32.839,-13.0315,44.3073,
84.5602,-41.7007,-51.083,56.2958,162.2713,-42.7429,-47.839,12.5109,16.6809,-47.9557,11.4676,-41.7007,-11.4676,59.3073,
73.4974,-42.2221,-59.9445,62.0295,147.2713,-29.7114,-60.9873,8.8612,18.2446,-41.1793,13.0313,-35.967,-8.8612,74.3073,
81.3166,-33.3606,-52.1258,60.4664,136.5704,-15.6377,-45.9873,3.1275,9.3826,-56.1793,18.7659,-29.1901,-3.1275,89.3073,
82.3591,-38.5731,-46.9132,45.871,124.0595,-29.1908,-44.8282,-2.085,2.085,-71.1793,5.2128,-44.1901,10.4251,74.3073,
74.5396,-53.5731,-55.7745,46.3916,109.0595,-39.0943,-59.8282,-1.5634,7.819,-70.3701,1.5634,-58.9022,16.159,59.3073,
73.4979,-45.3493,-58.9022,54.7322,94.0595,-24.4991,-57.86,-0.52163,2.6062,-55.3701,4.6917,-43.9022,1.159,44.3073,
83.923,-30.3493,-43.9022,69.7322,79.0595,-9.4991,-46.3921,7.819,9.9035,-44.3071,13.0313,-28.9022,-11.989,29.3073,
79.7524,-23.4569,-40.137,59.9445,64.0595,-13.0318,-56.8172,13.0318,24.9035,-44.3071,23.4564,-43.2648,-20.3291,21.3718,
64.7524,-34.9242,-55.137,44.9445,49.0595,-21.3718,-70.3701,9.9035,9.9035,-50.5621,8.4564,-28.2648,-8.8612,26.5837,
68.8062,-21.8935,-52.126,44.8282,34.4026,-19.808,-63.5939,8.3401,-5.0965,-57.3388,-6.5436,-13.2648,6.1388,32.3181,
69.8485,-32.3181,-37.126,52.126,25.0203,-34.4031,-53.1683,3.1278,9.9035,-54.2111,8.4564,-11.4679,-3.1278,23.978,
59.4231,-40.6584,-27.1055,58.3809,11.4681,-45.8707,-54.2108,1.0425,24.9035,-54.2108,23.4564,-26.4679,-1.0425,13.5526,
56.2966,-31.2753,-33.3603,47.9565,4.1705,-36.4876,-64.6357,2.085,9.9035,-66.7207,13.5529,-41.4679,13.5529,6.2551,
58.9017,-16.2753,-18.3603,53.6894,3.6489,-21.4876,-53.6899,17.085,-3.6489,-52.6472,4.6912,-26.4679,3.6489,7.819,
52.1258,-13.5526,-11.4676,59.4236,-7.2976,-10.4249,-41.7002,27.1055,11.3511,-38.5729,19.6912,-28.1478,7.2976,11.4676,
37.1258,-23.4569,-26.4676,44.4236,-22.2976,-14.074,-56.7002,24.4986,14.074,-45.3493,19.2863,-29.7119,22.2976,14.074,
28.148,-15.6379,-35.4454,36.4881,-37.2976,-8.3401,-71.7002,30.2336,-0.92598,-45.8705,4.2863,-14.7119,16.6802,12.5101,
39.0938,-6.7767,-22.4146,41.1793,-52.2976,-0.52113,-76.6252,38.0515,0.52113,-30.8705,0.52113,0.28807,1.6802,13.0313,
41.1798,-6.7762,-30.7542,43.2643,-53.6894,6.7762,-68.2846,29.7119,-1.5639,-35.967,1.5639,15.2881,-8.8617,15.1163,
45.3498,0.52163,-31.7965,57.86,-59.9445,20.3296,-69.3273,29.7119,-5.7339,-46.3921,-0.52163,23.4564,-6.7762,18.2441,
42.7432,-7.2973,-20.8497,55.2533,-74.9445,11.4684,-70.8907,35.4454,1.0428,-50.0405,-1.0428,8.4564,-6.2551,11.4684,
31.2758,-16.6802,-21.8925,51.0838,-89.9445,-3.5316,-66.7212,32.3181,4.17,-55.2533,6.2546,-6.5436,8.7449,12.5101,
28.6687,-14.074,-26.5846,53.6889,-90.1781,-4.6917,-58.9022,27.6264,2.6062,-49.5199,14.074,-2.6062,16.1585,27.5101,
26.063,-26.063,-32.3181,51.0833,-95.9115,-13.5529,-59.4234,16.6807,-1.0428,-47.9555,7.2973,4.1705,1.1585,22.9352,
23.4569,-24.4991,-24.4991,62.0295,-100.6032,-16.159,-46.3921,24.4991,13.9572,-42.2221,18.2436,-1.5634,1.5634,21.3713,
14.5959,-18.7649,-27.105,58.3809,-89.6562,-13.5526,-38.5729,33.3606,26.0628,-39.6157,27.106,-1.0425,1.0425,36.3713,
8.8612,-25.5419,-42.105,46.3916,-91.2203,-19.2868,-53.5729,21.3713,11.0628,-49.5194,12.106,-4.6912,4.6912,35.967,
15.117,-33.8817,-38.0518,43.2651,-90.1778,-26.5839,-47.4341,11.9892,9.9037,-49.5196,15.117,-9.9037,19.6912,31.7972,
16.6804,-36.4884,-23.0518,45.8707,-76.1038,-34.4034,-32.4341,17.7227,22.935,-41.7012,27.105,-16.6804,29.1905,27.105,
8.8612,-27.6264,-27.6264,55.7749,-88.0925,-26.5841,-22.4141,28.6692,11.989,-39.0943,15.1168,-8.8612,16.159,31.797,
3.6487,-28.6689,-35.9667,54.7324,-103.0925,-11.5841,-34.9245,28.6689,22.4144,-41.1795,17.202,1.5636,1.159,45.3491,
10.4254,-30.2328,-20.9667,65.6787,-99.039,-15.6377,-19.9245,22.9355,37.4144,-37.5306,32.202,1.0425,-1.0425,57.3386,
0.52113,-32.8392,-9.904,64.1145,-96.4331,-30.6377,-4.9245,14.074,47.4344,-40.137,47.202,-13.0318,13.9575,55.7745,
1.0425,-18.7654,-10.4254,77.1465,-106.3368,-17.7227,-1.0425,29.074,61.5086,-25.137,59.4231,-13.5526,28.9575,67.7632,
1.5636,-3.7654,-1.5636,92.1465,-114.1558,-6.7764,-3.6487,44.074,71.4126,-17.2016,62.0303,-6.7764,26.5844,73.4971,
-13.0315,-14.0738,-1.5636,77.6677,-119.3681,-15.1165,1.5636,43.2646,62.0298,-32.2016,54.7319,-8.8615,28.6694,63.072,
-13.5526,-17.7227,-4.1703,72.976,-124.0598,-15.6377,-2.0853,31.2756,56.2958,-29.1905,58.3813,2.0853,28.1478,66.7214,
-6.2551,-23.978,-14.5952,68.8067,-133.4419,-23.978,-17.0853,32.3186,41.2958,-19.808,43.3813,8.3401,13.1478,56.2956,
2.085,-13.5529,-9.3828,76.103,-130.3151,-14.5956,-12.5106,47.3186,39.6159,-32.3181,40.6582,-2.085,14.5952,66.7207,
-3.1275,-3.1275,-4.1703,91.103,-126.1448,-7.2976,2.4894,45.8707,54.6159,-47.3181,55.6582,-17.085,21.8927,78.1883,
-0.52113,-13.0313,-1.5639,86.0075,-125.6234,-14.074,0.52113,31.797,58.9027,-48.4771,63.0728,-22.4141,18.2441,70.3696,
-5.7337,-13.0315,5.7337,89.135,-140.6234,-14.0738,-7.8187,40.1368,51.6047,-33.4771,50.5624,-15.1165,15.1165,71.4126,
-20.7337,-7.819,7.819,96.4326,-146.4736,-17.2013,-8.8612,41.1793,58.9022,-30.7542,63.0723,-30.1165,10.9462,82.8802,
-21.8932,-11.4676,7.2976,81.4326,-131.4736,-22.9355,-7.2976,26.1793,56.2958,-27.1055,76.1038,-32.3183,25.9462,80.2738,
-10.4249,-11.4676,3.1275,79.2311,-116.4736,-22.935,-3.1275,27.1055,50.0408,-21.8927,64.6364,-17.3183,40.9462,66.7209,
-16.1588,-14.0738,3.6487,88.0928,-131.4736,-23.4566,-3.6487,31.7967,64.1148,-17.2016,56.817,-4.6914,25.9462,73.4971,
-18.2441,-6.7762,18.6487,97.4749,-130.8357,-22.4141,4.6912,29.7119,71.4124,-14.074,66.1996,-4.6912,10.9462,88.4971,
-26.5841,-16.159,16.159,87.0503,-120.4106,-35.967,1.5639,20.3291,56.4124,-29.074,55.7745,-19.6912,-1.5639,73.4979,
-37.0095,-29.7117,2.6064,72.0503,-133.9638,-37.0095,-2.6064,13.0315,41.4124,-44.074,51.6042,-34.6912,13.4361,58.4979,
-43.2646,-28.6694,-0.52138,72.4549,-146.4739,-30.7544,0.52138,4.6914,48.4769,-55.7747,49.5191,-49.6912,23.4566,62.0293,
-38.5731,-19.808,10.4251,85.4864,-131.4739,-28.148,10.4251,8.3401,59.4234,-40.7747,54.2106,-42.7432,8.4566,77.0293,
-47.9557,-20.8505,10.4249,82.3584,-128.2298,-34.4034,-1.0425,3.1275,57.3381,-43.7857,58.3809,-54.2108,1.0425,69.8482,
-32.9557,-15.6379,19.808,83.4014,-138.6547,-28.148,-2.085,2.085,67.7634,-36.4881,60.4656,-39.2108,16.0425,64.6357,
-17.9557,-30.6379,13.0313,70.3701,-139.1763,-39.0943,-3.6489,3.6489,56.8167,-26.5841,45.4656,-24.2108,9.904,52.6467,
-22.4141,-21.3718,6.7762,72.4546,-130.8357,-34.9242,-6.7762,9.904,41.8167,-33.882,30.7542,-27.6269,9.904,54.7322,
-33.882,-6.3718,17.2013,73.4974,-135.0063,-19.9242,-5.7339,2.6062,26.8167,-45.3498,35.9665,-38.052,18.2441,69.3273,
-30.7542,-10.9467,22.4141,72.4546,-137.0913,-10.9467,-1.5639,1.5639,38.0515,-47.4349,35.9665,-37.0093,3.2441,71.4124,
-30.7539,-16.1588,26.5844,86.0078,-132.921,-19.2866,-4.6914,10.9465,50.5619,-45.3496,38.0518,-35.9667,4.6914,71.4121,
-45.7539,-19.2866,24.4994,78.7104,-143.3461,-31.7967,-6.7764,6.7764,51.6047,-46.3919,48.4769,-45.3496,6.7764,75.5827,
-60.7539,-13.5529,16.6802,74.0185,-152.2076,-22.9352,0,11.4674,53.1683,-31.3919,52.1255,-35.4459,0,75.0608,
-65.1573,-11.989,8.8612,73.4979,-151.6859,-7.9352,-3.6489,20.3291,53.6899,-23.4564,46.3921,-20.4459,3.6489,70.3701,
-52.6472,-11.989,16.159,82.8797,-138.1335,-3.6489,-8.8612,22.4141,56.8172,-20.3291,56.8172,-5.4459,2.6062,85.3701,
-37.6472,-7.8192,26.5839,97.8797,-123.1335,-10.9465,-1.5636,26.5839,63.072,-5.3291,67.2421,1.5636,-12.3938,100.3701,
-41.7007,-14.5954,15.6377,88.6134,-127.1871,-1.0425,1.0425,18.7649,56.2958,-13.5526,55.2531,-8.3403,-26.0633,85.3701,
-56.7007,-20.3291,0.63766,73.6134,-142.1871,1.5639,-13.9575,3.7649,41.2958,-28.5526,40.2531,-23.3403,-11.0633,70.3701,
-41.7007,-6.7762,15.1168,78.7102,-131.8785,-3.6489,-11.989,18.2441,45.3493,-43.5526,40.137,-19.2863,3.6489,74.5401,
-29.1908,0,30.1168,85.4859,-125.1023,-3.1278,0,31.2753,48.9983,-36.4881,44.8282,-18.7652,-3.1278,79.2313,
-44.1908,-0.52138,20.3293,79.7522,-137.091,0.52138,-5.7337,16.2753,35.9667,-43.2646,39.0945,-21.3716,-1.5636,64.2313,
-59.1908,-1.0425,14.5954,77.146,-144.91,1.0425,-8.3403,11.4676,50.9667,-37.5306,51.083,-10.4254,-7.2976,69.8482,
-56.8172,-1.5639,18.2441,77.6679,-146.4736,1.5639,-6.7762,15.1168,56.8177,-39.0943,54.7322,-15.1163,-11.989,70.3701,
-45.3493,-11.989,11.989,63.0723,-138.1335,3.6489,-14.074,7.819,41.8177,-44.3071,40.1365,-20.3291,-3.6489,55.3701,
-43.2643,-20.3291,9.904,57.8595,-132.9207,-2.6062,-15.1168,4.6912,48.4771,-29.3071,47.4349,-5.3291,-5.7339,51.6049,
-28.2643,-8.3403,19.8077,72.8595,-121.9748,-10.4254,-11.4676,6.2553,62.5514,-14.3071,51.0835,4.1703,-4.1703,60.4659,
-13.2643,-5.2123,17.7229,59.4239,-106.9748,-4.17,-16.6802,2.085,47.5514,-29.3071,36.0835,-10.8297,10.8297,45.4659,
-1.5639,-18.2441,2.7229,49.5199,-99.5604,-0.52113,-30.7542,0.52113,32.5514,-44.3071,21.0835,-23.4564,9.904,30.4659,
2.085,-15.6374,-2.085,64.5199,-114.5604,-4.17,-26.063,6.2551,35.4459,-52.1255,34.4036,-19.8075,3.1278,40.6582,
17.085,-9.9037,1.5636,69.3271,-123.5381,-6.7764,-23.4566,0.52138,42.2223,-37.1255,27.6267,-13.0315,-0.52138,35.9667,
32.085,-9.9037,-0.52138,64.1153,-131.8782,-6.7764,-38.4566,5.7337,27.2223,-35.9667,12.6267,0.52138,-15.5214,27.6272,
44.8287,-14.5952,-4.17,62.5511,-135.5269,-4.17,-46.9132,14.5952,17.7229,-32.3181,12.5106,4.17,-30.5214,42.6272,
59.8287,-7.2978,-2.085,65.6789,-123.0173,0,-35.4459,8.3401,25.0208,-33.3608,25.0208,0,-15.5214,52.1255,
63.0723,-3.6489,0.52163,60.9868,-130.8362,-7.819,-38.052,2.6062,10.9462,-42.2221,10.9462,-0.52163,-6.7767,37.1255,
62.03,-7.819,5.7339,57.86,-136.0485,-11.989,-42.2221,6.7762,13.0318,-39.0948,11.9885,-5.7339,-11.989,27.6264,
67.7634,-5.2123,7.2978,68.8067,-121.0485,-11.4674,-29.1903,2.085,23.9785,-30.2326,20.8507,-11.4674,-2.085,26.063,
74.5399,-5.7337,9.9037,69.3276,-106.858,-10.9465,-20.3288,1.5636,29.7117,-30.7544,27.6272,-2.6064,-1.5636,34.924,
76.1035,-6.2551,6.2551,65.6789,-121.858,-9.3823,-35.3288,7.2978,34.4031,-39.6154,30.2331,-12.5101,-16.5636,40.6587,
74.0193,1.0425,-1.0425,69.8492,-119.8892,-7.2976,-43.7857,7.2976,21.8932,-43.7857,17.7232,-22.935,-31.5636,26.0633,
72.4551,3.6489,-3.6489,72.4551,-115.1983,-4.6912,-29.7114,5.7339,10.9467,-46.3921,14.0745,-8.8612,-28.6692,24.4991,
69.8485,2.085,-3.1273,83.4019,-123.0168,-2.085,-28.148,10.4251,25.9467,-42.7432,29.0745,-8.3401,-25.0203,39.4991,
66.1996,-2.6062,-1.5639,78.7097,-117.2833,1.5639,-37.0093,6.7762,39.0948,-35.967,32.8392,-21.3718,-10.0203,46.3916,
64.6359,-1.0425,-3.1275,71.9337,-115.7192,-3.1275,-35.4456,1.0425,24.0948,-37.5306,18.7654,-9.3826,4.9797,31.3916,
57.3391,1.0425,-8.3398,71.9337,-130.7192,-9.3826,-33.3601,-1.0425,9.0948,-36.4879,12.5109,5.6174,-10.0203,35.4456,
57.8602,-2.6064,-3.6487,64.1148,-123.5382,-5.7337,-29.7117,2.6064,23.4566,-25.5416,20.3288,17.202,-25.0203,50.4456,
62.5511,-2.085,0,65.6789,-109.4644,0,-28.148,2.085,20.8507,-34.4031,14.5952,2.202,-10.0203,45.871,
68.2851,-1.5639,-3.6489,71.4129,-108.9432,0.52113,-28.6692,1.5639,24.4991,-49.4031,17.2013,-12.798,-0.52113,35.967,
56.817,-4.6914,4.6914,72.4549,-104.773,-14.4789,-26.5844,4.6914,30.7544,-46.3919,27.6267,-20.3293,-15.1165,38.0523,
53.1685,-5.2126,9.3826,71.9332,-90.6989,-27.1055,-25.0205,5.2126,15.7544,-38.5734,16.6804,-19.8077,-6.2553,33.3606,
59.4239,-2.085,0,63.5939,-96.9542,-12.1055,-30.2331,3.1273,16.6802,-42.7432,13.5524,-26.063,-21.2553,31.2758,
44.4239,-1.0425,-8.3398,66.7209,-111.9542,2.8945,-44.828,1.0425,31.6802,-40.6579,28.5524,-21.8927,-36.2553,40.6584,
29.4239,-6.7764,-14.0743,75.5827,-126.9542,16.1588,-43.2646,7.8187,41.1791,-25.6579,42.2223,-7.8192,-28.6694,55.6584,
14.4239,-11.4679,-23.978,68.8062,-121.9745,11.4674,-38.5731,5.2123,31.2758,-10.6579,27.2223,-6.2551,-16.6807,56.2961,
6.2551,-9.3824,-19.8075,57.3388,-109.4639,11.4684,-46.9132,-2.085,16.2758,-18.7652,12.2223,8.7449,-19.8075,41.2961,
0,-8.3401,-7.2973,54.2116,-120.9317,14.5956,-37.5304,0,17.7234,-23.9775,15.6379,23.7449,-4.8075,40.6582,
-1.5639,-5.7339,-8.8612,68.2851,-117.2833,17.2013,-22.5304,1.5639,30.7547,-31.797,30.6379,8.7449,-2.6062,54.7317,
-1.0425,1.0425,-3.1275,80.2733,-102.2833,19.8077,-15.6377,10.4254,43.7862,-37.5306,45.6379,-6.2551,-6.2553,61.5086,
-9.9042,-2.6064,-3.6492,70.3694,-99.5606,18.2438,-23.4566,17.2016,53.6892,-27.6267,52.6469,-15.1165,2.6064,58.9025,
-7.2976,3.1275,-6.2548,68.8065,-104.2518,16.6804,-25.0205,13.5526,46.913,-17.7227,40.6584,-18.7654,-3.1275,57.3386,
2.0848,-1.0425,-4.1703,59.4231,-90.6989,10.4249,-22.9355,1.0425,31.913,-21.8932,25.6584,-29.1906,-16.6804,43.7852,
3.1275,-3.1275,-3.1275,61.5086,-75.6989,15.6377,-22.9355,7.2976,23.9782,-6.8932,20.8505,-14.1906,-9.3826,38.5729,
-10.9462,-5.7339,-13.0313,55.7745,-83.9225,6.7762,-30.7542,0.52113,33.882,1.5639,29.7119,-0.52113,-1.5639,45.3498,
-5.7339,-2.6062,-5.7339,55.7749,-84.9652,6.7762,-28.6692,2.6062,46.3916,-5.7339,44.7119,-2.6062,13.4361,58.9017,
1.0425,-3.1275,-5.2126,59.4231,-79.2316,12.5099,-36.4884,8.3398,32.3183,-7.2976,29.7119,-5.2126,-1.0425,44.8285,
2.6064,-5.7337,-3.6487,52.6469,-69.3271,13.032,-39.0945,4.6914,27.6267,-5.7337,17.202,-2.6064,-16.0425,34.9245,
3.1275,-5.2126,-1.0425,58.3813,-68.806,2.0853,-32.3178,1.0425,39.6157,-20.7337,25.021,-12.5099,-27.1055,45.8712,
4.6914,-10.9465,0.52138,70.3699,-76.6249,-0.52138,-22.4144,5.7337,42.2218,-29.7117,30.7539,-13.0315,-12.1055,49.5196,
1.0423,-22.9357,0,55.3699,-76.104,0,-27.1058,2.085,28.1475,-14.7117,22.9352,-3.1278,-27.1055,34.5196,
0,-9.3828,-5.2128,40.6582,-65.6789,0,-40.6582,2.0845,15.6379,-3.1278,11.4679,5.2123,-12.1055,28.148,
-5.7334,-6.7767,-17.2018,40.137,-66.2001,-1.5634,-41.1793,4.6912,14.0735,-16.159,7.819,1.5634,2.8945,41.1793,
-10.4254,-16.6804,-8.3403,50.0413,-62.5509,3.1275,-26.1793,8.3398,23.9777,-14.5954,17.7232,-3.1275,17.8945,40.6579,
-12.5099,-7.2976,3.1275,55.2541,-52.1258,9.3826,-28.1478,11.4676,32.3183,-21.8927,27.106,-3.1275,2.8945,32.3183,
-14.074,-3.6489,-2.6062,44.3071,-57.8595,10.9467,-40.137,10.9467,26.5846,-19.2863,27.6269,2.6062,-6.7762,42.2216,
-7.819,-6.7762,-6.7762,53.6899,-62.0295,7.8195,-30.7542,9.904,23.4564,-14.074,20.3296,6.7762,-9.904,57.2216,
0,-7.2978,-2.085,63.5934,-47.0295,7.2973,-19.808,10.4251,35.4454,-22.9357,19.8075,0,-9.3828,63.5934,
-2.6062,-9.904,-0.52113,60.9873,-34.9242,5.7339,-25.5419,5.7339,32.8392,-13.0313,25.5414,-3.6489,0.52113,49.5194,
-15.1163,-17.2013,-4.6912,52.6477,-49.9242,-2.6062,-28.6692,8.8617,17.8392,1.9687,19.2863,7.8195,-5.7339,41.1798,
-15.6374,-15.6374,0,47.956,-41.7004,0,-13.6692,13.5534,19.808,-13.0313,9.3833,12.5101,-2.085,45.8715,
-15.6374,-7.2973,4.17,60.4661,-39.6154,2.085,-6.2551,6.2551,27.1058,-28.0313,13.5529,-2.4899,-2.085,47.956,
-22.4144,-15.1165,2.6064,67.2421,-54.6154,1.5636,-21.2551,10.9465,33.8817,-13.0313,28.5529,-1.5636,-10.9465,49.5196,
-24.4991,-19.2863,-7.819,52.6467,-63.0723,2.6062,-28.6692,17.2018,30.7542,-8.8612,22.4141,10.9462,-2.6062,50.5621,
-17.2013,-9.904,-9.904,55.7749,-48.0723,9.904,-19.2863,13.0313,23.4569,-23.8612,11.989,-4.0538,12.3938,58.9027,
-15.6379,-13.5529,-8.3401,58.3811,-35.4454,9.3828,-11.4679,20.8502,38.4569,-38.8612,26.989,-19.0538,8.3401,67.7634,
-19.2868,-6.7762,-9.904,57.86,-30.7542,5.7339,-16.159,29.7114,47.4344,-24.4991,40.1365,-5.7339,8.8612,58.9022,
-20.3291,-4.6912,-9.904,53.6894,-24.4991,4.6912,-17.2013,14.7114,32.4344,-34.9242,29.7114,-9.904,23.4569,43.9022,
-20.8505,-15.6382,-3.1275,57.3386,-37.5306,6.2548,-13.5531,13.5526,29.1901,-28.1483,34.4029,-23.9782,8.4569,54.2108,
-31.797,-10.9467,1.5639,60.9868,-51.6049,10.9462,-18.2441,18.2441,44.1901,-13.1483,37.0098,-8.9782,-6.5431,59.9445,
-39.6157,-8.3403,-4.1703,45.9868,-41.7007,4.1698,-18.7654,3.2441,29.1906,-25.0205,22.0098,-3.1275,8.4569,45.8707,
-38.052,-4.6912,0.52113,48.4766,-26.7007,-0.52113,-7.819,10.9462,33.882,-17.2013,28.6697,-18.1275,23.4569,51.6044,
-42.7432,0,3.1273,59.4234,-34.4031,0,-8.3401,25.9462,48.882,-8.3401,43.6697,-7.2978,8.4569,66.6044,
-55.7747,-11.9887,-2.6064,57.8597,-49.4031,2.6064,-14.0738,21.3716,60.9875,-23.3401,58.6697,2.6064,-6.5431,80.7955,
-54.7319,-22.4139,-2.6064,68.2848,-47.4346,-7.8187,-19.2866,8.8615,56.817,-24.4989,52.6469,2.6064,8.4569,79.7527,
-39.7319,-13.5524,-2.085,66.7212,-32.4346,-13.5524,-31.2753,16.6807,53.1688,-9.4989,43.7859,2.085,13.5529,64.7527,
-24.7319,-1.5636,-0.52138,55.7747,-17.4346,0.52138,-33.8817,17.2016,39.0945,-24.4989,38.0523,-12.915,6.7764,49.7527,
-31.7967,-13.0315,-0.52138,45.3491,-2.4346,6.7764,-34.9245,2.2016,24.0945,-39.4989,28.6689,-27.915,21.7764,56.817,
-32.3176,-15.6374,-6.2551,36.4881,6.2551,9.3833,-36.4881,-7.2973,18.7657,-54.4989,20.8502,-12.915,13.5534,55.2538,
-19.2866,-5.7337,-13.0315,47.4346,21.2551,14.0738,-30.7544,5.7337,18.2443,-45.3496,10.9465,-8.8615,-1.4466,47.4346,
-22.4144,-15.1165,-6.7764,47.4341,36.2551,6.7764,-28.6694,7.8187,20.3288,-52.6469,16.1588,-14.0738,-8.8615,59.9442,
-34.4029,-23.9777,-8.3398,32.4341,44.8285,1.0425,-43.6694,1.0425,5.3288,-52.1258,11.4681,-8.3398,-1.0425,50.0408,
-20.8507,-12.5101,-18.7657,28.148,47.956,15.6379,-58.3811,6.2546,-3.1278,-54.2111,0,0,13.9575,35.0408,
-21.3713,-16.159,-24.4991,18.2446,47.4349,3.6489,-55.7745,0.52113,-0.52113,-59.9445,-4.6912,7.819,13.0313,20.0408,
-36.3713,-15.6377,-14.5954,32.3183,40.6584,-5.2126,-52.1258,5.2126,10.4249,-44.9445,9.3826,18.7649,-1.9687,31.2751,
-45.3493,-22.4141,-24.4991,25.5414,43.2648,2.6066,-67.1258,4.6912,-0.52113,-33.882,5.7334,3.7649,-16.9687,30.7537,
-30.3493,-7.4141,-9.904,37.0098,58.2648,17.6066,-67.2423,19.6912,0.52163,-39.0943,10.9462,-0.52163,-3.6484,42.2221,
-38.052,-7.819,-8.8617,40.137,43.2648,24.4991,-72.4551,18.2436,-2.6066,-45.3498,5.7334,-7.819,2.6066,35.967,
-43.2648,-11.989,-13.0318,40.1365,28.2648,19.2863,-57.4551,21.3718,7.8185,-41.1798,4.6917,-6.7767,-4.6917,38.052,
-28.2648,-3.6484,-18.2441,37.0098,43.2648,20.3286,-49.5194,11.9885,4.6917,-44.3071,-4.6917,-5.7339,3.6484,37.0098,
-18.7657,-16.6802,-12.5101,22.0098,58.2648,15.6369,-54.2111,-1.0433,2.0845,-39.6159,0,0,12.5101,32.3181,
-30.2326,-31.6802,-10.4246,8.3401,73.2648,0.63692,-53.1678,-4.17,6.2556,-39.6154,5.2133,4.17,6.2556,23.978,
-22.9357,-39.6159,-18.7657,23.3401,88.2648,-14.3631,-44.8287,-2.085,8.3396,-45.871,4.1695,9.3819,2.085,20.8497,
-29.7117,-50.5619,-23.4566,24.4994,81.8377,-24.4989,-46.3919,-8.8615,14.0738,-44.3068,9.9037,8.8615,9.9037,23.4571,
-32.3176,-52.1255,-17.7224,28.1485,74.019,-19.8075,-51.0833,-6.2551,15.6384,-39.6154,12.5106,6.2551,14.5952,21.893,
-17.3176,-39.0948,-11.9895,30.7537,79.752,-19.2868,-51.6049,-0.52113,0.63841,-48.4771,6.7757,2.6057,1.5634,17.2013,
-2.3176,-33.882,-3.6489,28.6692,77.6674,-11.989,-50.5621,-0.52113,-10.9467,-52.6472,0.52113,5.7334,0.52113,24.4991,
12.6824,-39.6154,-8.3401,26.0635,76.104,-1.0423,-56.2956,1.0423,-20.8502,-45.8705,-9.3823,9.3833,11.4679,17.7234,
27.6824,-41.1793,-13.0313,18.2446,83.923,-0.52113,-57.8595,1.5634,-27.6269,-35.967,-16.159,9.9045,0.52113,3.6489,
42.6824,-26.1793,-3.6489,26.5846,76.6252,3.6489,-46.3916,5.7344,-24.4991,-38.0515,-17.2013,18.2446,-14.4789,9.9045,
56.2961,-27.1048,-6.2546,25.0203,61.6252,10.4256,-45.8705,3.1278,-18.7647,-42.7432,-15.6379,18.7657,-3.1278,12.5101,
51.6049,-41.1793,-16.159,21.3713,60.9873,5.7334,-57.8595,-0.52113,-8.8612,-27.7432,-7.819,19.2868,10.9467,0.52113,
66.6049,-37.0093,-11.989,31.797,70.3696,0.52113,-59.9445,1.5634,-9.9035,-12.7432,-8.8612,24.4991,1.5634,-1.5634,
81.6049,-26.062,-8.3396,32.3186,64.6367,8.3406,-48.9978,6.2551,-10.4251,-15.6374,-11.4674,25.0208,-6.2551,6.2551,
85.4869,-21.893,-8.3396,33.3608,54.2111,2.085,-47.9555,-2.085,2.085,-18.7652,-9.3828,26.063,-7.2973,8.3406,
82.3586,-27.1058,1.0423,32.3181,52.126,-12.915,-40.6582,-9.3824,5.2123,-8.3401,-13.5524,25.0203,0,0,
92.7842,-30.2326,10.4256,31.2758,60.4661,-19.808,-27.1058,-4.17,-9.7877,-17.7224,-12.5101,21.8925,15,4.17,
94.3476,-23.4569,13.0313,39.0948,59.945,-5.7334,-23.4569,-1.5634,-18.2436,-30.7537,-8.8612,19.2868,25.5414,1.5634,
93.3053,-16.159,22.4146,34.9247,53.6904,-4.6912,-15.1158,-0.52113,-6.7757,-15.7537,-3.6489,24.4991,11.989,0.52113,
89.1358,-11.9885,27.6274,33.882,53.6899,-8.8607,-15.1163,-6.7762,-6.7762,-9.904,-5.7339,18.2441,5.7339,9.904,
88.6132,-14.5956,19.808,39.6149,62.5506,-4.17,-25.0203,-11.4679,-13.5534,-21.8935,-10.4256,9.3823,11.4679,4.17,
97.4749,-19.2863,22.4141,31.7965,60.9868,2.6062,-20.3296,-2.6062,-13.0318,-19.2863,-2.6062,16.1585,19.2863,-10.83,
97.9965,-11.4679,23.978,27.1048,53.1683,-2.0855,-9.3833,0,-13.5534,-10.4256,0,20.8502,16.6802,-1.0433,
88.093,-16.159,16.159,26.5837,55.7749,-15.1168,-18.2446,-7.819,-11.989,-13.0313,-4.6912,16.159,4.6912,13.9567,
92.7837,-11.4674,23.9775,41.5837,58.3811,-11.4674,-26.063,1.0428,-7.2973,-10.4251,-1.0428,9.3828,-10.3088,14.5952,
102.1666,-8.3401,21.8935,40.6582,43.7859,2.0855,-28.148,7.2978,-15.6379,-11.4679,-12.5101,0,-25.3088,0,
92.2631,-17.2013,15.1168,25.6582,38.0515,1.5634,-25.5414,-1.5634,-11.989,-17.2013,-11.989,8.8612,-15.1168,15,
77.2631,-27.1058,8.3401,28.148,39.6159,-13.4366,-30.2336,-8.3401,-16.6802,-23.978,-8.3401,10.4246,-0.11678,30,
87.5719,-23.978,6.2556,27.1058,42.7437,-9.3823,-28.148,-3.1278,-25.0203,-23.978,-17.7224,3.1278,9.3823,32.3181,
85.4859,-18.7652,-2.085,19.8075,31.2753,-2.085,-27.1053,2.085,-21.893,-25.0208,-19.8084,6.2551,4.1695,17.3181,
70.4859,-18.7657,-1.0423,26.0625,29.1903,-6.2556,-29.1903,1.0423,-12.5101,-25.0203,-4.8084,16.6802,5.2123,2.3181,
75.0613,-17.7219,2.085,31.2763,38.5731,-11.4674,-28.1475,-5.2118,-2.085,-16.6797,6.2551,17.7229,-7.2973,13.5529,
90.0613,-5.2133,7.2968,38.5727,38.5727,-4.17,-22.9357,4.17,-4.17,-7.2978,-8.3401,25.0203,-12.5101,21.8925,
78.1886,-10.4246,13.5534,32.3181,41.7004,-4.17,-17.7224,4.17,-14.5947,-13.5524,-13.5524,22.9357,-6.2546,11.4679,
64.6362,-15.6379,20.8502,32.3181,51.0828,0,-12.5101,-6.2556,-9.3833,-27.1058,1.4476,7.9357,-4.17,8.3401,
59.4234,-14.5952,22.9352,38.5731,39.6154,-5.2128,-19.8075,-11.4674,-9.3828,-36.4881,8.3406,-6.2551,5.2128,12.5106,
45.3493,-28.6692,7.9352,28.6692,24.6154,-15.1158,-23.4559,-11.989,-7.819,-40.1365,-3.6489,3.6489,17.2023,13.0323,
42.7427,-28.148,2.0845,28.148,32.3181,-11.4679,-11.4679,-11.4679,3.1268,-36.4886,0,-5.2133,19.808,0,
50.5621,-13.148,16.1595,31.7965,47.3181,-6.7762,-2.6062,-5.7339,2.6062,-21.4886,15,-2.6062,29.7119,-2.6062,
35.5621,-26.5837,3.6489,17.2023,33.8825,-21.7762,-17.6062,-7.819,-12.3938,-20.3291,10.9467,8.8622,21.3723,-3.6489,
33.3603,-35.4459,-1.0423,23.978,21.8925,-25.0203,-16.6802,-5.2123,-17.7224,-21.8925,1.0423,13.5524,8.3401,5.2123,
48.3603,-33.882,13.9577,24.4991,25.5414,-17.2013,-1.6802,-5.7334,-2.7224,-26.5841,6.7767,-0.52113,-0.52113,15.1168,
56.8172,-19.2868,24.4991,30.7537,38.0515,-7.819,3.6489,-6.7767,-5.7344,-29.7119,15.1158,-3.6489,-5.7344,20.3291,
46.3916,-16.159,14.0745,28.6692,37.0093,-13.0313,-5.7334,-13.0313,-13.0313,-23.4569,16.159,2.6066,-2.6066,10.9467,
37.5299,-27.1063,13.5519,15.6374,33.3598,-27.1063,-15.6384,-19.8085,-21.893,-31.2763,3.1273,2.085,7.2973,-2.085,
48.4776,-23.4564,20.3296,22.4141,48.3598,-18.2441,-9.904,-15.1163,-23.4564,-44.3071,-2.6062,7.8195,2.6062,6.7762,
50.041,-19.8075,9.3828,22.9352,43.7855,-8.3406,-2.085,-7.2973,-13.5529,-43.786,5.2128,2.085,-12.3938,16.6807,
41.7004,-13.5534,10.4246,32.3181,33.3603,-8.3401,0,0,-6.2556,-29.1908,11.4669,-4.17,-4.17,18.7647,
26.7004,-21.3718,8.8617,30.7542,30.7542,-14.074,-7.8185,-10.9462,-6.7762,-19.2863,21.3718,-3.6484,3.6484,11.9885,
21.8925,-27.1058,1.0423,25.0203,32.3181,-18.7657,-7.2978,-11.4679,3.1278,-10.4256,28.148,-1.0423,3.1278,-1.0423,
23.978,-13.5524,5.2123,35.4459,26.0635,-19.808,-4.17,0,0,-9.3823,13.148,0,4.17,-4.17,
21.8925,-14.5956,10.4246,32.3181,19.808,-14.5956,-10.4256,-4.17,-9.3833,-12.5101,4.17,6.2546,-10.83,9.3823,
21.3713,-22.4136,9.9045,23.4569,22.4146,-7.819,-13.0313,-17.2013,-5.7334,-7.819,18.2446,5.7334,-7.819,20.3291,
15.6384,-26.063,3.1283,15.6384,18.7652,-17.7229,-15.6374,-20.8497,-14.5952,-22.819,3.2446,-1.0428,6.2551,8.3406,
27.1058,-11.063,10.4246,30.6384,31.2758,-10.4256,-7.2978,-5.8497,-11.4679,-35.4459,-3.1278,11.4679,3.1278,18.7657,
28.6692,-4.6912,2.6066,37.0093,38.0515,-2.6066,-7.819,-9.9035,-14.0735,-28.6692,8.8612,5.7334,-4.6912,20.3291,
21.893,-19.6912,-7.2973,22.0093,44.8287,-1.0428,-8.3406,-24.9035,-18.7652,-33.3608,6.2551,1.0428,10.3088,9.3828,
20.8507,-15.6374,-5.2128,17.7229,50.041,-1.0428,-12.5106,-17.7229,-12.5106,-35.4459,1.0428,6.2551,4.1695,9.3828,
29.1903,-8.3401,0,28.148,52.126,0,-5.2123,-11.4679,-6.2556,-20.4459,16.0428,5.2123,-10.8305,12.5101,
29.1903,-18.7657,4.17,13.148,46.9127,-4.17,5.2123,-21.8935,-14.5956,-14.5956,14.5947,-4.17,-11.4679,6.2546,
21.893,-13.5529,12.5096,18.7652,34.4031,-2.085,2.085,-13.5529,-20.8507,-29.5956,6.2551,-8.3406,-14.5952,3.1273,
14.0735,-11.989,8.8612,25.5414,30.7537,0.52113,-0.52113,-10.9467,-16.159,-37.0093,8.8612,-16.159,-27.6269,0.52113,
13.5529,-15.6374,5.2128,16.6807,40.6587,-10.4251,8.3406,-25.9467,-5.2128,-27.1053,6.2551,-15.6374,-17.7229,5.2128,
17.7229,-11.4674,6.2551,16.6807,41.7009,-18.7652,4.1705,-27.1053,-2.085,-29.1908,2.085,-13.5529,-22.9352,11.4674,
20.3291,-5.7344,13.0313,17.2013,35.967,-3.7652,-0.52113,-16.159,-1.5644,-31.797,8.8612,-7.819,-30.7547,7.819,
5.3291,-6.2556,6.2546,13.5524,27.1048,4.17,0,-20.8502,-12.5101,-28.148,0,1.0423,-27.1058,-4.17,
11.9885,-3.6494,2.6062,9.904,39.0943,2.6062,2.6062,-17.2018,-22.4141,-18.2441,-2.6062,13.0308,-37.0098,-2.6062,
26.0625,-7.2978,6.2556,12.5101,43.786,0,2.0855,-17.7224,-30.2326,-30.2326,-1.0423,0,-52.0098,1.0423,
22.9357,-13.5524,14.5956,27.1058,38.5727,-11.4679,8.3401,-13.5524,-16.6802,-35.4459,8.3401,-8.3401,-59.4234,9.3824,
8.3401,-16.6802,13.5524,22.9357,37.5304,-12.5101,6.2556,-6.2556,-10.4256,-29.1903,13.5524,-9.3823,-44.4234,11.4679,
7.2973,-1.6802,8.3406,17.7229,34.4031,2.4899,-1.0428,-8.3406,-25.4256,-38.5731,1.0428,-11.4674,-59.4234,-1.0428,
3.1278,12.5101,8.3401,19.808,19.4031,17.4899,-10.4256,-6.2546,-31.2758,-38.5727,-3.1278,1.0423,-74.4234,-1.0423,
-11.8722,1.5639,4.6917,23.4574,4.4031,32.4899,-18.2441,4.6917,-16.2758,-23.5727,11.8722,-1.5639,-86.0075,13.9577,
-24.4996,2.6062,5.7339,28.6687,-10.5969,42.2221,-13.0318,16.1585,-2.6062,-8.5727,19.2863,-10.9462,-78.7102,23.4564,
-23.4569,6.7767,1.5634,19.2868,-21.3713,46.3916,-20.3291,8.8612,-17.2013,-13.0313,4.2863,-1.5634,-63.7102,8.4564,
-19.2868,21.7767,5.7344,30.7547,-8.8612,61.3916,-21.3713,14.0745,-16.159,-3.6489,0.52113,13.4366,-48.7102,-0.52113,
-34.2868,15.6379,0,23.978,-23.8612,70.8917,-18.7657,8.3401,-25.0203,-2.0845,0,21.8925,-62.5511,1.0423,
-32.3186,6.2551,-2.085,16.6797,-29.1908,57.3378,-20.8507,7.2973,-27.1063,-11.4684,2.085,20.8497,-77.5511,4.1695,
-18.2441,19.2863,2.6062,31.6797,-19.2863,50.5621,-23.4564,14.074,-16.1585,-10.9462,-2.6062,30.7542,-88.0925,2.6062,
-18.7662,17.7219,6.2551,28.1475,-22.9362,47.9555,-8.4564,6.2551,-2.085,-2.085,-2.085,15.7542,-88.6147,2.085,
-17.7229,8.3406,6.2551,19.8075,-22.9352,40.6587,5.2128,-2.085,-12.5106,-2.085,2.085,0.75419,-101.1243,3.1273,
-11.4679,14.5947,10.4246,26.0625,-13.5534,46.9127,-9.3833,0,-27.5106,-1.0423,0,15.7542,-86.1243,6.2546,
-25.5419,7.8185,2.6062,19.2863,-25.5419,50.5621,-9.904,-2.6062,-26.5841,-9.904,4.6917,30.7542,-71.1243,3.6484,
-27.6274,5.7339,-8.8617,20.3286,-25.5419,49.5189,1.5639,-1.5639,-11.5841,-23.4574,19.2863,16.1585,-56.1243,5.7339,
-21.3713,11.989,-7.819,26.5846,-17.2013,42.2216,-4.6912,1.5634,-1.5634,-8.8612,27.6269,7.819,-41.1243,15.1168,
-36.3713,4.6912,-11.989,23.4569,-32.2013,27.6269,-19.2858,-6.7757,-4.6912,6.1388,15.1168,16.159,-56.1243,7.819,
-37.5304,-1.0423,-4.17,21.8935,-44.8282,36.4881,-9.3823,-1.0423,1.0423,17.7234,12.5101,31.159,-68.8057,7.2978,
-27.6269,-5.7334,-0.52113,14.0735,-30.7547,35.967,-10.9467,0.52113,-7.819,7.819,5.7334,42.2216,-54.7322,5.7334,
-33.8815,-0.52113,-2.6057,20.3291,-32.8392,22.4146,-18.2436,0.52113,-13.0313,18.2446,3.6489,46.3926,-69.7322,6.7767,
-23.9785,-2.085,-5.2128,17.7219,-32.3186,21.892,-19.8085,7.2973,-11.4684,14.5952,4.1695,38.5731,-84.7322,2.085,
-8.9785,0,0,22.9357,-25.0203,35.4459,-23.978,11.4679,-18.7657,1.0423,-4.17,38.5736,-69.7322,-6.2546,
6.0215,1.5639,1.5639,27.6264,-18.2441,34.9242,-28.6697,-0.52163,-22.4141,0.52163,-8.8617,41.1798,-54.7322,-9.904,
21.0215,-1.0433,-6.2556,26.0625,-11.4679,32.3181,-27.1058,0,-12.5111,1.0423,2.0845,36.4881,-64.6367,0,
35.4464,-2.085,-11.4674,32.3186,-26.4679,29.1908,-27.1053,6.2551,-10.4251,-8.3396,2.085,34.4031,-70.8907,2.085,
38.052,-8.8617,-11.9895,27.6264,-41.4679,25.5409,-25.5419,2.6062,-7.8195,1.5639,2.6062,33.882,-76.6252,-1.5639,
38.5736,-13.5524,-19.808,25.0203,-34.4026,27.1058,-29.1903,1.0423,-21.8925,1.0423,3.1278,19.808,-91.6252,-1.0423,
53.5736,-3.6489,-13.0313,37.0093,-27.6269,37.0093,-18.2436,9.9045,-27.6269,-11.989,3.6489,22.4146,-98.5176,3.6489,
68.5736,0,1.0423,33.3603,-23.978,33.3603,-3.2436,3.1268,-26.0635,-16.6812,0,28.147,-83.5176,0,
83.5736,2.085,6.2551,35.4454,-8.978,23.9775,-1.0428,1.0428,-39.6154,-14.5952,-5.2128,21.893,-68.5176,-3.1273,
98.5176,-0.52113,1.5644,39.0948,-0.52113,24.4991,-4.6912,10.9467,-30.7537,-11.989,0.52113,24.4991,-53.5176,-0.52113,
101.1243,0,1.0433,35.4459,-11.4669,31.2758,-8.3401,7.2978,-15.7537,-5.2123,0,26.0635,-54.2106,-4.17,
100.6027,6.7762,7.8185,37.0088,-4.6917,37.0088,-11.9895,-2.6062,-16.1595,2.6062,-4.6917,11.0635,-57.86,-5.7339,
86.5291,1.0428,3.1273,38.5731,-16.6807,28.1475,-23.9785,-1.0428,-21.893,-6.2551,5.2128,-3.9365,-72.86,1.0428,
86.0075,5.7344,-4.6912,50.5626,-17.2013,28.6692,-29.7114,0.52113,-6.893,-14.0735,10.9467,11.0635,-80.7947,-0.52113,
101.0075,14.5956,4.17,48.9983,-2.2013,39.6159,-15.6379,-6.2546,-12.5101,-8.3401,-4.0533,26.0635,-65.7947,-7.2978,
116.0075,10.9462,15.1163,37.0098,12.7987,25.5419,-10.9462,-8.8617,-24.4996,-14.074,-6.7762,11.0635,-54.7322,-10.9462,
101.0075,2.085,7.2973,41.7009,-2.085,10.5419,-25.9462,3.1273,-14.5952,-23.9785,7.2973,-3.9365,-67.7639,-13.5529,
91.7409,-1.0423,1.0423,43.786,-6.2556,25.0203,-26.0635,12.5101,-23.978,-17.7234,7.2978,8.3401,-65.6789,-8.3401,
95.3909,3.6489,5.7344,39.0948,-3.6489,38.0525,-11.0635,8.8612,-38.978,-14.0735,-7.7022,23.3401,-80.6789,-3.6489,
85.4864,3.1278,-3.1278,24.0948,8.3401,35.4459,-18.7647,9.3823,-39.6159,-29.0735,-11.4679,8.3401,-77.1463,-9.3823,
86.5286,5.2123,-9.3823,25.0203,10.4246,38.5727,-33.7647,16.6802,-33.3603,-37.5304,-4.17,4.17,-62.1463,-11.4679,
88.093,8.8612,-0.52113,38.0525,0.52113,38.0525,-28.6692,16.159,-44.3071,-22.5304,-15.1158,19.17,-54.7317,-14.0735,
76.104,2.0845,5.2123,23.0525,0,32.3181,-17.7224,1.159,-45.8705,-15.6379,-28.148,17.7224,-69.7317,-26.0625,
83.9225,14.074,14.074,31.7965,-0.52163,43.2643,-13.0318,0.52163,-30.8705,-22.4141,-13.148,14.074,-54.7317,-14.074,
90.6992,8.3406,9.3828,44.8287,-15.5216,29.1908,-27.1053,6.2551,-15.8705,-15.6374,1.852,-0.92598,-57.3383,-6.2551,
88.6142,5.2123,8.3401,33.3603,-15.6379,20.8502,-16.6802,12.5101,-15.6379,-1.0423,1.0423,-7.2978,-72.3383,-10.4246,
74.019,12.5096,10.4251,30.2331,-2.085,29.1908,-1.6802,10.4251,-27.1053,-16.0423,-2.085,1.0428,-64.6362,-11.4674,
60.4661,3.1278,6.2556,32.3181,-12.5101,30.2336,-16.6802,0,-18.7657,-31.0423,1.0423,0,-62.5511,-4.17,
62.5506,7.2978,4.17,36.4881,-8.3401,30.2326,-23.978,7.2978,-7.2978,-26.0635,0,0,-63.5939,-5.2123,
64.6367,13.5529,1.0428,29.1908,-1.0428,23.9785,-8.978,15.6374,-22.2978,-11.4674,-10.4251,14.5952,-48.5939,-13.5529,
58.3811,8.3406,2.085,27.1063,-10.4251,34.4031,-9.3819,18.7652,-27.1053,-8.3396,-3.1273,28.1485,-33.5939,-2.085,
44.8277,1.0428,2.085,26.063,-25.4251,41.7009,-24.3819,12.5096,-20.8507,-4.1705,-1.0428,19.8075,-48.5939,-1.0428,
40.6582,3.1278,9.3823,15.6379,-28.148,26.7009,-21.8925,9.3823,-11.4679,-11.4679,-3.1278,8.3401,-63.5939,-8.3401,
34.9242,15.1163,17.2018,23.4564,-13.148,20.3296,-10.9462,13.0318,-26.4679,-24.4996,-7.8185,7.8185,-70.3701,-13.0318,
27.6274,21.3718,13.0318,30.7542,-10.9462,35.3296,-25.9462,16.1595,-41.4679,-29.7119,-16.1585,10.9462,-80.7947,-14.074,
25.0208,12.5096,10.4251,27.1053,-20.8507,50.3296,-40.9462,13.5529,-35.4454,-34.4031,-14.5952,11.4674,-76.104,-10.4251,
29.7119,10.9462,15.1163,37.0088,-29.7119,35.3296,-26.5842,9.904,-32.8397,-30.7542,-11.9895,13.0308,-62.03,-9.904,
35.4459,21.8935,16.6802,34.4036,-25.0203,35.4459,-18.7647,11.4679,-41.7004,-18.7647,-12.5101,15.6379,-65.6784,-11.4679,
34.4031,30.2331,17.7229,28.1485,-11.4674,38.5731,-27.1053,11.4674,-29.1908,-17.7229,-12.5096,12.5106,-74.0185,-13.5529,
27.6274,26.5841,20.3296,32.8397,-5.7339,38.052,-21.3709,5.7339,-17.2008,-15.1163,-9.904,8.8617,-59.0185,-14.074,
25.5419,17.2018,9.904,26.5841,-9.904,42.2221,-11.9885,5.7339,-24.4986,-7.8185,-5.7339,14.074,-44.0185,-7.8185,
23.978,15.6369,4.17,29.1903,-24.904,41.7004,-14.5956,12.5101,-25.0213,-16.6802,-8.3401,25.0203,-50.0415,-4.17,
10.4256,11.4679,9.3823,28.148,-28.148,43.7859,-15.6379,14.5956,-20.8502,-22.9357,-13.5524,25.0203,-65.0415,-9.3823,
2.6062,3.6484,8.8617,28.6697,-17.2018,40.1365,-13.0318,15.1163,-7.8185,-10.9462,-2.6062,10.0203,-57.86,-3.6484,
0,0,0,27.1058,-20.8502,25.1365,-14.5956,7.2978,7.1815,-10.4256,12.3938,-4.9797,-42.86,11.3516,
1.5639,-1.5639,3.6494,17.2018,-18.2441,23.4564,-14.074,-2.6062,-1.5639,-11.9885,10.9462,7.8195,-34.9242,6.7762,
1.5634,2.6067,5.7334,20.3291,-3.2441,37.0093,-16.159,-1.5634,-16.5639,-3.6489,-4.0538,22.8195,-49.9242,-7.819,
-2.085,1.0428,-2.085,20.8507,4.1705,36.4886,-21.893,1.0428,-19.8075,4.1705,-3.1273,11.4674,-50.041,-1.0428,
2.085,2.085,-1.0428,15.6374,-10.8295,31.2753,-18.7652,1.0428,-11.4674,-10.8295,6.2551,-3.5326,-61.5084,5.2128,
17.085,17.085,6.7757,29.7114,-4.6912,43.2638,-3.7652,11.989,-16.159,-25.8295,0.52113,-0.52113,-48.4771,-1.5644,
4.6917,8.8617,-0.52163,31.7965,0.52163,45.3498,-2.6062,4.6917,-15.1163,-21.3718,-4.6917,8.8617,-33.4771,-8.8617,
4.6917,21.3718,14.4784,42.2221,-8.8617,43.2643,-1.5639,4.6917,-6.7762,-6.3718,0.52163,-2.6062,-35.9665,-0.52163,
19.6917,33.8815,29.4784,43.2638,-15.1168,35.967,-2.6067,14.0735,-14.0745,-3.6489,-3.6489,-0.52113,-45.3493,0.52113,
23.4559,18.8815,22.4136,35.967,-17.2023,30.7537,-3.6489,9.9035,-14.0745,-6.7767,-7.819,3.6489,-33.8825,-4.6912,
8.4559,13.5529,9.3828,37.5309,-6.2551,39.6164,-2.085,7.2983,-10.4251,-8.3396,-2.085,2.085,-43.7855,-4.1695,
-4.6912,23.4569,13.0313,29.7124,-0.52113,50.5626,-8.8612,14.0745,-11.989,-4.6912,-1.5634,17.085,-57.8595,0.52113,
-1.5639,19.2873,3.6494,23.4574,-15.5211,44.3076,-20.3286,5.7339,-19.2863,1.5639,-8.8607,27.6274,-42.8595,-2.6062,
1.5634,10.9467,-2.6066,23.4569,-10.9467,33.8815,-18.2446,1.5634,-5.7334,-10.9467,-0.52113,12.6274,-27.8595,0.52113,
-13.4366,2.6062,-1.5639,21.3718,1.5639,29.7119,-15.1163,-0.52163,0.52163,-25.9467,5.7339,-2.3726,-42.8595,3.6484,
-20.3291,9.9045,5.7344,27.6269,-0.52113,40.137,-11.989,0.52113,-11.989,-22.4136,-1.5634,6.7767,-42.2216,1.5644,
-5.3291,13.5529,5.2128,19.8085,4.1705,39.6154,-9.3828,-2.085,-13.5529,-7.4136,-9.3828,18.7652,-27.2216,-10.4251,
5.7339,21.3718,4.6917,18.2441,19.1705,31.7965,-9.904,-4.6917,-15.1163,-6.7762,-9.904,21.3718,-19.2863,-22.4141,
-5.7334,22.4146,9.9035,20.3291,24.4991,40.137,-4.6912,1.5634,-20.3291,-5.7334,-8.8612,28.6692,-34.2863,-7.4141,
-14.074,7.4146,1.5639,6.7762,9.4991,39.0943,-10.9462,1.5639,-24.4996,-6.7762,-14.074,14.074,-49.2863,7.5859,
-5.2128,9.3828,1.0428,17.7229,-1.0428,40.6577,-8.3406,12.5096,-9.4996,-1.0428,-5.2128,12.5096,-42.7432,5.2128,
-2.6066,21.3713,-3.6489,23.4569,1.5634,35.967,-3.6489,9.9035,-21.3713,-5.7334,-1.5634,9.9035,-28.6692,5.7334,
-2.085,20.8507,-1.0428,23.9785,1.0428,38.5731,-9.3828,2.085,-36.3713,-14.5952,-9.3828,4.1705,-43.6692,20.7334,
-2.0845,16.6812,7.2978,15.6379,0,45.8715,-19.807,0,-34.4026,-17.7224,-22.9347,19.1705,-47.955,35.7334,
-8.8617,9.904,6.7762,7.8195,-2.6062,34.9242,-14.074,2.6062,-29.7119,-13.0318,-22.4141,34.1705,-32.955,35.9665,
-8.8612,11.989,2.6066,22.4146,-1.5634,26.5846,-11.989,1.5634,-30.7547,-9.9035,-16.159,19.1705,-44.3071,25.5414,
-2.6062,17.2018,11.9885,19.2863,10.9462,41.5846,-14.074,1.5639,-22.4141,-11.9885,-17.2018,4.1705,-57.86,10.9462,
-15.6374,17.7229,12.5106,9.3828,15.6384,56.5846,-12.5096,15.6384,-19.8075,-18.7652,-19.8075,10.4251,-42.86,-4.0538,
-30.6374,17.2018,10.9462,23.4564,4.6917,70.3701,-7.8185,26.5841,-14.074,-8.8617,-7.8185,23.4564,-27.86,-4.6917,
-45.6374,7.8185,15.1163,24.4986,-6.7762,76.6247,-9.904,24.4986,-11.9885,0.52163,-0.52163,23.4564,-42.2221,-3.6484,
-60.6374,2.6062,9.904,23.4574,1.5639,90.1781,-3.6484,28.6697,-16.1585,-4.6907,-2.6062,30.7542,-27.2221,-1.5639,
-75.6374,-12.3938,-5.096,23.4564,0.52163,89.1348,-0.52163,28.6697,-7.8185,-0.52163,-4.6917,38.052,-12.2221,13.4361,
-90.6374,-14.0745,-10.9467,33.8815,-8.8612,90.1776,-10.9467,32.8392,2.6066,14.4784,-2.6066,43.2648,-7.819,28.4361,
-88.0925,-9.904,1.5639,31.7974,-5.7339,88.0925,-10.9462,34.9242,-12.3934,14.074,-4.6907,44.3076,-1.5639,17.2018,
-95.3909,-21.3723,-2.6067,17.2013,-2.6067,76.6252,0.52113,23.4559,-21.3723,3.6489,-0.52113,38.0515,-3.6489,10.9457,
-103.2093,-19.8075,-8.3406,29.1908,-13.5529,67.7634,-7.2973,15.6374,-7.2973,8.3406,7.2973,25.0208,-18.6489,13.5529,
-99.5604,-20.3291,-3.6489,26.5846,-25.5414,66.1996,-22.2973,16.159,-15.1168,3.6489,6.7767,15.1168,-33.6489,6.7767,
-95.912,-23.9785,-1.0428,13.5529,-20.8507,66.7212,-14.5952,18.7652,-11.4684,1.0428,9.3828,22.9352,-22.9352,8.3396,
-110.912,-35.967,-16.0428,13.0313,-31.797,51.7212,-20.3291,4.6912,-0.52113,0.52113,1.5634,7.9352,-29.7124,7.819,
-125.912,-37.0098,-13.0318,15.1163,-37.0098,50.5621,-21.3718,7.8185,1.5639,15.5211,-0.52163,0.52163,-38.052,2.6062,
-110.912,-22.0098,1.9682,23.4569,-22.0098,65.5621,-6.3718,22.8185,-9.9035,30.5211,-3.6489,15.5216,-23.052,0.52113,
-95.912,-19.2863,-9.904,17.2018,-13.0318,64.1145,-2.6062,23.4564,-20.3286,21.3718,-17.2018,30.5216,-8.052,2.6062,
-83.9225,-21.3713,-18.2446,24.4991,-28.0318,66.1996,-14.0735,29.7114,-5.3286,26.5846,-3.6489,27.6269,3.6489,17.6062,
-85.4864,-25.0208,-19.8084,28.1475,-42.7432,69.848,-29.0735,31.2753,-1.0428,41.5846,1.0428,42.6269,-11.3511,18.7652,
-71.934,-28.148,-14.5956,22.9347,-34.4036,58.3806,-23.978,25.0203,-1.0423,38.5727,1.0423,57.6269,-11.4679,16.6802,
-60.4661,-22.9357,-15.6379,31.2748,-40.6582,47.956,-19.808,19.808,-3.1278,23.5727,3.1278,61.5084,-21.8935,16.6802,
-50.5621,-19.2868,-15.1168,34.9247,-47.4349,54.7317,-29.7114,19.2868,-0.52113,10.9467,0.52113,46.5084,-21.3713,6.7767,
-35.5621,-19.2868,-13.0313,29.7124,-34.9237,50.5626,-30.7537,23.4569,-1.5634,19.2868,-0.52113,32.8392,-6.3713,5.7344,
-20.5621,-13.0318,-14.074,38.052,-26.5841,40.1365,-27.6264,25.5419,-13.0318,14.074,-1.5639,32.8397,1.5639,5.7339,
-5.5621,-13.0323,-11.989,40.137,-24.4991,49.5194,-27.6269,19.2858,-8.8612,20.3291,-0.52113,27.6259,-7.819,0.52113,
9.4379,-17.2013,-9.9035,34.9247,-27.6269,50.5626,-31.797,8.8612,-5.7334,24.4991,-0.52113,12.6259,-15.1168,0.52113,
24.4379,-15.1173,-9.904,33.882,-23.4574,41.1788,-29.7119,13.0308,-13.0318,17.2008,-1.5639,4.6907,-9.904,1.5639,
31.7974,-4.6907,-5.7339,37.0098,-15.1163,48.4776,-25.5419,22.4141,-9.904,19.2863,-2.6062,19.6907,-3.6484,2.6062,
36.4886,1.0428,-2.085,39.6154,-13.5529,55.2533,-25.0208,19.8075,-17.7229,29.1908,-10.4251,34.6907,-18.6484,-1.0428,
51.4886,-1.0423,-2.0855,35.4459,-12.5101,54.2106,-18.7657,23.978,-29.1903,32.3181,-4.17,42.7427,-33.6484,1.0423,
37.5309,-11.4674,-13.5529,32.3186,-27.5101,44.8287,-29.1898,17.7229,-20.8497,17.3181,-2.085,29.1908,-33.3598,2.085,
22.5309,-24.4996,-22.4141,25.5419,-42.5101,40.1365,-32.8397,3.6484,-5.8497,4.6917,-5.7339,14.1908,-38.052,1.5639,
37.5309,-27.6269,-14.0735,17.2013,-27.5101,42.2226,-17.8397,6.7767,-8.8612,16.159,3.6489,10.9467,-23.052,-3.6489,
48.4766,-28.6697,-17.2018,9.904,-12.5101,29.7109,-17.2018,1.5639,-23.8612,6.7762,-1.5639,17.2008,-8.052,-18.6489,
46.3916,-20.3291,-15.1168,18.2436,-13.0313,33.8815,-24.4991,3.6489,-17.2013,3.6489,-3.6489,14.0735,6.948,-15.1168,
50.5626,-15.1168,-10.9467,33.2436,-11.989,39.0948,-27.6269,8.8612,-2.6057,14.0745,-0.52113,0.52113,-8.052,-0.11678,
53.6894,-14.0735,-10.9467,34.9247,-10.9467,37.0093,-23.4569,8.8612,-13.0313,20.3291,-0.52113,8.8612,-17.2013,0.52113,
50.5617,-10.9467,-4.6912,24.4991,-13.0313,37.0093,-20.3291,8.8612,-13.0313,19.2868,-2.6066,23.8612,-2.2013,-0.52113,
52.126,-4.17,0,29.1903,-26.0635,41.7004,-31.2758,6.2546,-16.6802,19.808,-15.6379,21.8925,-17.2013,0,
56.2956,-5.2128,-3.1273,34.4031,-34.4031,39.6154,-35.4454,6.2551,-16.6807,26.063,-7.2973,8.3396,-32.2013,3.1273,
45.871,-14.5952,-7.2973,37.5309,-26.063,35.4454,-32.3176,6.2551,-9.3828,20.8507,2.085,19.8075,-20.8507,-2.085,
37.5309,-13.5529,-3.1273,29.1908,-11.4674,39.6154,-27.1053,3.1273,-20.8497,6.2551,-12.915,23.9785,-5.8507,-10.4251,
37.5309,-12.5096,3.1283,14.5961,-2.085,42.7432,-15.6374,2.085,-30.2321,8.3406,-23.9775,15.6384,-12.5096,-7.2973,
33.3603,-11.4679,-1.0423,25.0203,-2.0845,39.6159,-14.5947,3.1278,-16.6802,14.5956,-15.6379,15.6379,-19.808,1.0423,
30.2336,-12.5101,-3.1278,34.4036,0,40.6582,-16.6802,-5.2123,-6.2546,19.808,-4.17,26.0625,-4.808,1.0423,
28.148,-14.5947,-5.2123,25.0203,0,39.6159,-11.4679,-10.4246,-20.8502,19.808,-12.5101,28.148,0,1.0423,
30.7542,-2.6062,-7.8195,27.6264,2.6062,34.9242,-6.7762,-3.6494,-23.4564,6.7762,-18.2441,21.3718,-2.6062,10.9462,
29.1903,-5.2123,-5.2123,31.2758,-1.0423,32.3181,-13.5534,1.0423,-8.4564,-1.0423,-3.2441,6.3718,5.2123,16.6802,
20.3291,-16.159,-3.6489,26.5846,-16.0423,22.4146,-22.4136,-4.6912,3.6489,6.7767,5.7344,-8.6282,-5.7334,7.819,
21.893,-13.5529,-3.1273,18.7652,-14.5952,18.7652,-18.7652,-6.2551,-1.0428,17.7229,1.0428,6.3718,-3.1273,3.1273,
23.9775,-2.085,-3.1273,20.8497,-5.2128,30.2331,-22.9352,-1.0428,-8.3406,15.6374,-1.0428,21.3718,9.3828,1.0428,
9.904,-3.6494,-4.6917,22.4141,-20.2128,37.0088,-32.8397,-1.5639,-14.074,18.2441,-3.6494,35.9665,10.9462,1.5639,
4.6912,-18.2436,-14.0735,7.819,-35.2128,31.797,-29.7114,-2.6066,-18.2436,16.159,-10.9467,42.2216,19.2868,2.6066,
19.2868,-8.8612,-10.9467,16.159,-20.2128,32.8392,-21.3713,0.52113,-20.3291,2.6057,-7.819,27.2216,19.2868,-0.52113,
27.1053,2.085,4.0533,31.159,-5.2128,26.063,-14.5952,-2.085,-20.8507,-9.3828,2.085,12.2216,4.2868,-9.3828,
28.6692,2.6066,19.0533,29.7114,9.7872,21.3713,-7.819,-6.7767,-26.5846,-8.8612,-6.7767,-0.52113,0.52113,-8.8612,
21.8925,-8.3401,4.0533,21.8925,11.4679,32.3181,-17.7234,-12.5101,-34.4036,0,-21.7767,14.4789,15.5211,0,
9.3823,-21.8935,0,12.5101,-3.5321,37.5304,-26.0635,-10.4256,-27.1058,2.0845,-31.2758,6.2546,0.52113,3.1278,
15.1163,-6.8935,15,27.5101,-5.7339,39.0943,-11.0635,-0.52163,-12.1058,4.6917,-16.2758,15.1163,-13.0318,0.52163,
15.1168,1.5634,4.6912,31.797,-1.5634,38.0515,-11.989,-3.6489,-13.0313,4.6912,-6.7767,26.5846,-2.6066,-8.8612,
15.1168,-11.989,-10.3088,22.4146,-5.7334,46.3916,-25.5414,3.6489,-13.0313,16.159,-6.7767,24.4991,12.3934,-3.6489,
6.2556,-8.3401,-15.6379,21.8935,-11.4679,34.4036,-34.4026,6.2556,-12.5101,4.17,-7.2978,9.4991,12.5101,-3.1278,
3.1278,-1.0423,-9.3833,23.978,-15.6379,28.148,-28.148,3.1278,0,-7.2978,1.0423,-2.0855,3.1278,0,
0,-4.17,-2.0845,23.978,-28.148,32.3181,-30.2326,0,0,0,1.0423,2.0855,-1.0423,3.1278,
8.8612,-0.52113,-1.5634,21.3713,-19.2868,38.0515,-34.9247,5.7334,-10.9467,3.6489,-6.7767,0.52113,-2.6066,10.9467,
11.989,2.6066,-3.6489,16.159,-13.0313,39.0948,-32.8392,4.6912,-11.989,-2.6066,-8.8612,-2.6066,9.9035,13.0313,
3.6484,3.6484,-1.5639,21.3718,-16.1585,37.0098,-30.7542,-2.6062,-15.1163,-4.6917,-7.8185,2.6062,24.9035,1.5639,
8.3401,4.17,-3.1278,20.8502,-10.4246,37.5304,-33.3603,-5.2123,-17.7224,3.1278,-6.2546,12.5101,20.8502,-3.1278,
23.3401,10.4246,-1.0423,25.0203,-15.6379,38.5727,-33.3603,0,-14.5956,10.4246,-6.2556,14.5947,5.8502,0,
28.148,5.2133,0,25.0213,-23.978,37.5314,-37.5304,-5.2123,-15.6369,4.17,-12.5101,10.4256,-9.1498,0,
16.6797,1.0428,-4.1705,21.893,-10.4251,46.9132,-34.4031,-7.2973,-7.2973,4.1695,-7.2973,13.5529,-1.0428,12.5096,
1.6797,-3.6489,-11.989,26.5837,-17.2023,35.967,-33.8825,-3.6489,-6.7767,-0.52113,0.52113,1.5634,13.9572,14.0735,
4.1695,-7.2983,-2.085,29.1898,-26.063,26.062,-28.1485,2.085,-6.2561,-8.3406,5.2118,-13.4366,10.4251,6.2551,
10.4256,3.1278,10.4256,36.4881,-16.6802,39.6159,-23.978,0,-3.1278,-17.7224,0,-19.808,-4.5749,7.2978,
8.8612,8.8612,10.9467,42.2216,-20.3291,43.2648,-27.6269,1.5634,-1.5634,-25.5414,-4.6912,-8.8612,-16.159,7.819,
11.9885,0.52163,6.7762,27.2216,-22.4141,28.2648,-28.6697,3.6484,-8.8617,-19.2863,-3.6484,-7.8185,-1.159,-0.52163,
18.7662,6.2551,7.2983,12.2216,-7.4141,35.4464,-19.8075,-2.085,-20.8497,-4.2863,-10.4251,2.085,13.841,-5.2118,
