"AF3","AF4","F3","F4","F7","F8","FC5","FC6","O1","O2","P7","P8","T7","T8",
-107.6659,-0.98799,-173.8456,7.9025,-119.5189,0.98799,15.8045,25.6816,11.8535,30.6211,-183.7232,-24.6941,-3.9505,61.2407,
-115.034,-9.8183,-175.2679,5.4524,-119.2618,-5.9858,10.9052,18.2147,8.1788,23.8453,-183.5648,-30.126,10.3865,69.4203,
-107.6382,-1.8209,-164.2581,1.668,-107.6614,-2.1694,17.6592,23.5425,1.2673,19.9448,-177.9837,-32.7642,23.8633,62.7853,
-96.7356,2.7331,-162.7989,-2.8769,-112.5614,7.3441,2.4996,29.5373,-12.9087,4.6481,-180.64,-42.1576,9.0471,54.5725,
-84.017,8.4957,-157.9695,7.1733,-108.7708,21.0034,-3.7996,41.8651,-12.3565,3.1585,-170.7891,-36.6651,-1.3733,65.3981,
-90.829,5.0224,-158.3689,2.7919,-108.1706,24.4113,-6.5352,35.1307,-17.5412,7.9084,-171.4073,-33.4768,3.6486,75.5743,
-88.3423,11.6361,-144.9152,0.64884,-97.7293,22.9471,-4.1675,28.0848,-10.5622,10.397,-172.9754,-30.4802,9.3562,70.4979,
-80.5725,13.4067,-139.6781,-1.8598,-98.2863,23.0515,-1.4477,27.881,-14.3742,2.3649,-170.9931,-34.0846,4.3501,52.168,
-75.2444,11.121,-132.7791,-3.2295,-96.8344,18.2112,0.12039,32.6279,-17.9565,3.7043,-161.2278,-31.5458,-0.35665,60.1744,
-66.7782,15.3928,-113.9464,-5.0113,-77.1948,18.1065,2.0887,36.5977,-12.9276,12.372,-163.4067,-25.7015,4.6038,70.6639,
-59.3147,16.9385,-114.5183,-7.1798,-60.2168,17.5134,4.4326,39.8337,-7.7076,17.0625,-161.011,-17.7391,18.4275,79.4875,
-66.1272,3.5749,-121.7472,-5.2673,-56.1096,4.1153,2.6849,32.0118,-3.7875,17.5205,-140.9786,-11.242,26.928,81.1385,
-60.6783,0.89065,-111.2079,4.432,-38.643,-10.2316,8.9446,18.7309,0.88456,23.8766,-134.0021,-2.1717,19.8791,75.7764,
-47.6533,1.3314,-99.1022,7.6238,-22.2244,-23.7177,10.8772,3.5071,-0.65026,21.9507,-140.062,-1.5472,23.1325,57.1298,
-30.6941,-6.1567,-88.7113,21.2664,-6.7909,-36.3947,13.6818,-10.8034,6.797,27.0544,-142.2519,2.0029,35.8445,39.602,
-14.7525,-12.2076,-75.9808,34.0904,7.7165,-48.311,11.3791,-15.0446,13.797,37.7775,-121.3695,11.2656,40.336,51.1031,
-13.9164,-17.8954,-71.9157,40.8854,21.3535,-59.5123,9.2146,-15.6236,13.4634,35.0175,-112.6056,14.0474,33.4715,62.137,
-6.1674,-13.8582,-59.6988,52.5323,34.1723,-70.0416,22.7618,-19.6248,26.4846,35.88,-97.9477,18.1431,45.5632,72.5087,
8.3026,-4.6314,-46.7331,63.4804,46.222,-79.9391,35.4961,-18.9415,20.4503,37.184,-85.6505,17.5487,56.9295,82.2582,
19.3865,-8.7983,-40.4718,73.7715,57.5487,-89.2427,35.7874,-18.2988,11.815,36.4351,-81.9928,16.9895,67.6137,72.0641,
19.7051,-18.6417,-38.5373,71.9882,59.8267,-97.9882,34.1339,-28.5601,20.4894,38.6938,-73.616,20.4149,51.3832,53.6402,
8.1506,-25.9194,-41.6583,61.2486,58.7063,-96.0871,28.6281,-33.2673,13.8273,35.878,-65.7422,16.7208,52.7446,40.8153,
2.2292,-26.8335,-41.6276,61.0309,55.6777,-79.9501,27.4051,-18.924,6.5778,32.244,-68.218,15.2238,57.9766,52.4663,
-0.86802,-32.138,-52.9589,55.3931,46.411,-77.1286,22.7973,-14.825,5.1947,26.3574,-66.1004,15.2979,42.645,57.4432,
-4.767,-25.2712,-52.7449,43.1795,46.5894,-66.5748,25.38,-21.838,12.7855,28.7274,-48.0344,16.3555,45.0243,59.9231,
-7.444,-15.8525,-42.6657,31.6996,48.733,-48.4804,26.8203,-28.4298,15.969,34.9054,-35.5462,10.4352,56.4229,66.2053,
0.41094,-16.3826,-33.685,31.2799,50.2538,-33.4952,32.6203,-27.2173,12.542,34.2933,-36.8702,5.3643,61.1628,48.1329,
3.3493,-11.4491,-32.6519,34.3412,48.2266,-39.3875,35.6011,-27.5602,14.7525,28.2842,-20.558,4.0544,51.5665,31.145,
2.6551,-7.3044,-34.1496,26.8484,42.8632,-29.616,28.0328,-24.4244,19.3006,30.0453,-6.2612,6.2809,52.9173,26.8561,
7.9276,-11.3119,-28.6438,23.7553,39.7977,-13.7391,26.8445,-8.8589,20.6114,32.6864,-15.2698,6.3978,52.211,28.7011,
16.8362,-10.1389,-29.3944,20.8482,29.0136,-3.3086,17.8251,1.2787,9.9909,20.354,-23.7369,-3.3698,34.9784,22.5347,
29.926,2.8167,-22.198,24.0426,27.767,-3.6039,16.2623,0.70775,10.8732,17.6519,-20.8309,-4.6485,24.262,19.7009,
42.2304,-10.1933,-26.7927,13.7109,24.1255,-10.3021,9.3601,-9.2123,6.2703,16.5923,-28.4706,-5.3575,28.7328,7.6538,
53.7966,-11.064,-28.6428,10.4181,20.2077,1.6748,4.3532,-3.2268,4.4114,18.0661,-19.355,4.3468,35.4042,21.2945,
41.8529,2.4414,-28.8993,10.781,17.0207,14.4158,4.0925,1.9059,3.1596,13.0315,-16.2178,5.0739,25.3784,34.1169,
35.884,5.7517,-30.6226,8.6524,18.4687,20.9587,6.3162,2.2848,-0.48674,13.7305,-3.8854,4.2762,21.3864,25.6004,
25.3352,-8.6934,-36.1935,-2.2381,4.0258,14.2684,-2.459,1.6544,-4.9028,8.4623,2.768,4.5129,22.5725,11.7171,
17.8886,-15.3082,-35.0094,-4.0793,-1.1548,11.4372,-6.262,4.5182,-6.5841,16.8446,-11.4981,5.2301,19.2426,25.1141,
30.1496,-1.0549,-26.4886,2.5857,1.3838,24.851,-13.295,2.7653,-7.6708,23.2417,-10.043,6.3981,16.6063,29.7561,
40.6883,4.4407,-22.4295,-7.9412,-10.0581,35.9295,-18.9172,7.0451,-7.7043,7.7472,4.6596,6.508,16.1037,18.5874,
29.8508,4.6685,-20.59,-21.5647,-14.8873,41.1816,-20.2514,19.9563,-5.7603,0.63932,9.0476,3.6482,14.6442,25.8684,
13.9597,3.8942,-15.8973,-23.9499,-4.6103,40.1924,-24.4691,22.2166,-6.8965,5.0462,4.0599,-6.942,14.2588,24.8106,
17.8384,11.563,-5.0664,-12.6354,9.4944,40.7439,-32.8794,32.7362,-0.55614,7.7065,5.7919,-2.5749,20.3173,16.407,
11.8291,12.8447,-13.652,-11.8777,-4.9038,39.2873,-45.0066,38.6745,-11.3878,3.2926,-8.3842,7.4571,9.2208,24.3126,
4.2053,5.1595,-26.6614,-22.0306,-18.7096,40.881,-56.4062,29.4396,-21.5701,9.022,-12.8202,13.9242,-4.173,36.9538,
18.053,6.3312,-11.7274,-15.2755,-7.9318,36.9469,-59.8873,23.2284,-17.8071,13.913,-5.6307,12.595,2.4971,31.9959,
31.0698,18.7929,3.0762,-2.5059,6.6441,25.8396,-42.194,25.7857,-5.8731,10.1157,-5.2924,6.9008,16.4473,19.2106,
40.5162,21.1221,12.0045,-10.7519,15.3583,18.8574,-32.5251,17.8183,-4.039,-0.86257,1.4455,-0.92203,29.5605,13.6136,
41.542,14.422,9.8025,-3.6855,10.98,23.1587,-26.1283,17.2434,-7.2534,1.6584,15.4587,1.6035,39.0979,18.2296,
43.9885,8.6177,3.2878,8.3882,19.2103,19.7927,-15.6715,16.2083,-8.7937,5.5095,17.717,4.4703,39.7151,21.0864,
35.9164,13.5334,4.5718,5.4147,23.4904,12.1849,-19.1765,10.7906,-9.7479,2.7097,20.1108,1.7319,23.9974,17.351,
33.2672,20.1301,12.6937,2.6215,21.5868,11.948,-21.4827,13.6009,-11.6323,4.0288,33.0041,4.0982,10.2103,16.8041,
30.7779,16.453,13.4139,1.97,17.8223,8.7619,-22.663,11.3031,-18.3421,7.2439,22.8509,4.3456,5.1534,13.3266,
28.9308,5.5874,13.5966,-0.12374,11.8139,4.2847,-23.2787,1.7349,-22.1806,1.8702,7.3798,4.0853,16.6967,6.6005,
23.7381,7.7214,14.2625,-1.5981,13.5744,9.4604,-18.4252,5.0876,-16.4055,6.2033,12.6408,7.297,16.1892,10.6497,
18.3624,8.2461,13.4068,-3.4777,14.7364,12.8442,-14.3557,6.7578,-12.4572,9.7826,17.8089,9.8222,14.2298,11.9862,
10.8408,7.2576,11.1211,-7.7138,14.3459,15.5308,-13.0006,7.8346,-10.2285,10.6769,22.1731,9.7276,10.9072,11.7608,
4.2643,5.8346,8.4783,-11.202,13.4852,16.574,-11.2321,7.3645,-8.6263,12.0122,24.7942,10.1314,8.2778,11.0552,
-3.4003,4.0028,5.5003,-15.9626,11.1943,17.0613,-11.0524,6.4284,-7.6154,11.7848,27.7513,9.0293,4.3234,10.8861,
-11.0983,1.7871,1.2188,-19.9429,9.5347,18.0132,-10.3898,5.0557,-7.158,12.0657,30.0373,8.488,0.11248,10.2325,
-14.3834,2.6679,2.1337,-8.8688,14.8891,15.9444,-3.8399,6.7278,-5.7415,10.3538,36.137,22.0787,9.9842,11.594,
-12.0391,3.0016,-6.3906,-18.7085,1.649,14.494,-12.9928,6.817,-13.7928,8.2513,34.4626,20.9763,9.878,-0.46091,
1.0305,3.3157,-0.57439,-20.0552,-3.8827,26.9591,-12.7074,20.508,-11.4835,-4.5911,37.8276,5.6178,10.767,4.9995,
8.3765,2.6225,6.8683,-14.4076,1.783,29.7868,1.3898,22.9575,-11.2887,-16.662,44.9417,-8.8193,9.6277,2.2303,
9.3561,5.9224,1.0235,-22.9265,-3.7563,20.5913,-2.1508,9.2333,-15.0562,-17.1445,35.8249,-16.1431,6.5803,-12.0035,
12.2515,15.9384,-0.51921,-25.9961,-11.9272,20.8376,-4.4911,7.1975,-22.5481,-13.6465,25.2792,-10.7302,3.7162,-10.0244,
5.0957,12.5123,-4.9338,-24.9301,-15.6573,19.0926,-8.6673,6.2719,-27.6169,-10.3589,30.1827,-6.6291,-10.6067,-8.9291,
2.3211,8.3053,-3.1555,-22.9405,-8.2961,19.4293,-13.5786,4.4143,-14.5997,-0.35315,35.7805,-6.7251,-24.0703,-14.8132,
8.1079,10.7695,0.98482,-18.6006,-6.8108,25.1781,-5.8503,7.112,-10.7611,-0.33196,36.5967,-9.2851,-10.2302,-14.9129,
1.2007,4.6911,-2.532,-23.9053,-15.7864,24.1602,0.92144,3.228,-21.4748,-5.7453,28.9676,-2.3072,-6.16,-28.1181,
-0.8464,1.4461,7.4979,-26.422,-16.8143,23.699,-5.0608,1.0593,-19.1978,0.52644,14.389,1.7822,-11.7165,-40.4819,
11.5512,4.8166,15.4443,-16.44,-11.3607,26.7219,-2.2875,7.4165,-8.6626,0.00109,17.9709,-9.684,0.34579,-23.953,
6.4129,-0.90517,2.1704,-26.8133,-10.1857,19.6858,11.1846,5.4898,-13.5756,-14.099,30.9927,-21.4503,4.7703,-13.8977,
-1.8735,4.0881,7.9667,-30.1435,-4.6356,26.4072,15.4525,8.1234,-11.7731,-16.4384,36.2699,-16.2118,-9.6159,-27.1638,
-0.77306,14.7079,12.4272,-22.4084,-10.284,35.6878,5.6353,16.526,-9.0912,-12.489,27.1792,-14.252,-22.597,-29.2131,
6.1874,14.8134,9.7065,-19.0884,-9.6665,34.5345,3.3217,29.6345,-8.5453,-0.87371,36.414,-5.4944,-7.1412,-13.3603,
4.8281,13.9242,4.1851,-18.9311,-6.1234,35.4255,-1.8166,36.474,-12.9716,6.0918,37.1922,6.6888,7.3873,-3.9401,
0.093201,12.5954,1.4643,-26.1905,-8.2253,41.6962,2.7377,23.9143,-16.6385,7.2081,24.5889,6.7808,1.9568,-17.8037,
4.0396,2.9501,3.3524,-31.5336,-15.6338,29.3164,7.5119,12.6024,-10.7017,-2.114,25.0895,1.4354,-9.0261,-16.9578,
14.6618,6.7232,7.1018,-26.679,-17.6593,23.6064,3.1102,15.7963,-7.0961,-5.9382,37.6842,5.3003,3.3685,-4.0882,
16.2523,15.7045,4.2064,-21.6206,-17.094,36.29,4.4053,15.3427,-6.1761,-2.1251,38.6089,3.5005,-0.29039,-16.1893,
11.8199,15.256,3.4603,-23.7806,-16.5621,40.7557,7.5983,11.9534,-5.3118,-7.4299,27.8961,-0.16677,-14.373,-14.7242,
16.543,15.8219,8.6859,-23.835,-12.1111,35.8416,3.6851,15.681,-5.4868,-8.4654,27.7046,-5.5891,-27.6106,-5.4449,
13.5754,19.8112,7.1763,-25.3684,-13.3595,32.7026,5.439,11.7766,-3.1826,-5.9824,29.9929,-18.0952,-21.46,-19.2182,
5.8463,12.6964,10.6972,-22.8588,-14.5339,29.7529,12.0272,6.1315,-0.028111,-13.5255,36.0953,-16.0211,-8.3194,-32.1651,
12.9034,3.5384,11.5367,-20.0055,-16.1311,24.51,3.8978,6.2569,-8.4227,-26.814,39.3624,-16.5415,-2.3875,-25.2471,
20.5254,11.7223,-0.51436,-32.14,-25.5345,17.6076,-4.7323,9.3392,-22.0173,-27.8967,32.5558,-29.649,-16.3442,-37.8323,
11.8856,15.4638,0.010259,-34.6564,-29.4348,10.1304,2.9599,18.1631,-27.3384,-15.8511,21.2187,-31.5497,-29.4636,-49.6623,
-0.68056,9.5965,14.1096,-18.477,-14.8291,17.4246,14.6353,27.9379,-13.846,-8.974,24.8841,-15.5567,-25.1783,-35.2756,
2.3238,14.9477,15.9546,-12.7008,-9.9874,26.2562,10.7937,28.2376,-9.0642,-3.497,37.4911,-0.52329,-9.5676,-19.059,
11.0739,27.8798,13.0223,-15.8898,-16.3026,22.7058,1.2565,21.6048,-9.5079,-3.2872,37.9341,-1.0348,-23.0935,-3.8155,
15.8422,21.7618,18.6613,-16.4181,-19.7688,28.7522,-4.2516,18.8268,-17.3327,-12.4728,31.2133,-4.4295,-35.8079,-11.5363,
16.8672,7.616,15.5666,-24.3221,-28.4602,30.9776,-5.972,12.7582,-30.1213,-20.6145,34.279,-15.0288,-27.9543,-20.7217,
10.4224,18.5169,14.1379,-18.4194,-22.3092,27.6372,-0.18095,20.388,-17.9437,-16.9093,46.3223,-14.6222,-12.177,-13.059,
1.4008,31.5059,18.7224,-3.2143,-6.8707,35.3627,8.2262,33.2647,-2.7671,-7.4985,57.643,0.35512,-19.6204,1.0602,
-2.6338,15.5156,15.6235,-11.6882,-11.1742,31.2655,11.6831,21.6145,-1.3898,-6.0606,48.7025,2.5326,-22.3946,-7.8934,
4.4383,3.2258,6.7841,-25.0869,-24.6037,15.561,4.0681,6.2177,-13.1599,-19.5255,39.8538,-11.7194,-12.1609,-21.5198,
14.5437,9.453,5.8833,-27.755,-30.2643,18.0846,-6.5477,10.5608,-20.7661,-28.7257,41.9078,-21.1165,-17.852,-21.4394,
7.7441,4.9348,7.5058,-25.1022,-26.4725,31.0995,-0.22788,18.8167,-23.4712,-26.0137,38.4058,-5.7495,-30.8809,-23.1156,
0.36544,6.6142,0.14139,-15.6936,-25.8721,43.3335,6.6998,5.8351,-24.0384,-19.5139,28.199,8.6954,-43.1281,-28.6427,
4.7883,17.5767,0.62666,-7.3437,-18.8866,54.8335,1.8531,6.9663,-18.1513,-19.8253,33.9153,4.174,-34.5638,-16.5533,
6.477,12.571,9.4786,-17.7686,-18.7418,64.0644,-0.23409,20.6483,-17.0623,-21.5993,45.9804,0.96008,-30.5149,-11.6091,
0.16135,11.8168,14.8364,-25.593,-24.5318,61.2081,5.7069,22.101,-11.1,-14.3772,53.8152,5.841,-27.6965,-25.0125,
1.1397,18.0218,9.0077,-22.0809,-26.0229,56.5476,4.3765,9.9099,-11.421,-21.4162,50.5868,0.55155,-34.9247,-37.6118,
11.9363,14.965,9.4548,-10.8795,-24.462,46.2407,-1.8126,5.3638,-24.8358,-34.2312,49.5271,-8.3706,-42.7068,-36.7882,
8.7509,4.6833,17.2833,-13.6835,-23.4876,34.0825,-4.1731,-4.3418,-22.5809,-26.4731,57.9143,-7.3751,-38.6626,-35.0742,
-1.6522,1.4388,21.1853,-17.801,-7.9784,32.0375,5.9553,-3.0928,-7.126,-10.7847,68.5394,6.8964,-24.4898,-40.8717,
-9.4546,-6.5491,5.8142,-16.7334,6.6003,16.0153,6.585,-10.8098,-7.9574,-9.4216,73.0451,7.4706,-14.1304,-35.4564,
-6.4181,-8.6263,5.2425,-1.6294,19.9842,0.95438,7.6717,-24.2612,-6.9867,-6.387,77.0587,5.5406,-7.8498,-22.9577,
-3.0695,-15.0223,17.769,9.5562,30.6382,-13.2029,4.2479,-31.9183,-3.604,0.91072,77.3746,5.2082,-14.2933,-33.4333,
6.9922,-23.011,14.7274,-0.89472,37.689,-26.5107,-1.9335,-44.1032,-11.2903,-7.0464,71.7442,2.9202,-18.3748,-30.4403,
20.6727,-7.5303,27.1785,13.259,49.5277,-39.0201,3.6153,-55.557,-7.1551,-5.141,71.8838,9.1653,-16.778,-14.5138,
32.9899,-19.203,30.981,26.5634,47.273,-50.7789,-2.0339,-66.3236,-16.1091,-14.2167,56.2125,-0.76795,-29.8714,-22.8031,
38.4188,-30.3976,36.53,37.7625,54.8084,-61.8321,2.5329,-66.9626,-13.6613,-14.845,61.2355,3.7229,-13.9791,-28.8432,
33.1506,-39.4388,26.4366,38.4597,46.5809,-72.2222,-3.5456,-77.0448,-19.7557,-20.8684,64.4754,-3.4145,-0.29929,-41.2126,
27.7039,-39.5418,18.4297,42.5724,46.2553,-81.9889,4.0749,-86.5222,-24.0031,-27.025,62.0886,-10.6184,-14.3813,-52.8398,
13.2001,-42.1087,9.4214,28.165,47.431,-91.1695,2.8429,-95.4308,-25.5264,-26.391,63.3019,-13.9323,-27.6185,-46.6577,
8.9509,-40.076,8.3623,25.9814,36.1894,-99.7994,-2.76,-84.9392,-16.5865,-23.3263,73.6037,-6.6756,-17.5169,-46.328,
15.8226,-47.0552,13.2934,34.7938,37.4748,-103.1733,2.8384,-76.386,-7.1951,-26.371,83.2875,-3.8058,-15.9717,-57.6483,
0.77321,-50.6517,5.0875,22.3344,39.672,-99.4526,4.1494,-81.1862,-8.2456,-23.3075,87.1312,-2.0962,-29.1134,-55.893,
-6.41,-33.5126,11.6968,17.0438,29.3892,-79.3854,5.8759,-72.3645,-2.8119,-7.809,81.9038,7.9071,-25.6138,-38.4394,
8.0746,-17.4018,24.3297,30.1212,23.1811,-60.5223,-1.8849,-54.6873,-3.1369,2.7598,87.3613,5.9514,-13.7052,-36.8983,
17.1971,-13.9376,30.2782,31.0064,22.284,-51.5064,-1.2771,-53.8758,-15.2955,-11.5057,91.5029,13.9901,-8.4381,-48.7844,
7.2753,-15.0768,30.437,15.046,14.0329,-45.453,4.726,-60.5208,-18.3293,-17.9522,84.0372,17.1022,-20.7729,-51.0191,
9.8013,-15.1598,26.6348,12.4387,18.1294,-30.8728,5.429,-49.975,-5.3765,-8.9731,87.8846,4.2221,-27.4285,-33.858,
0.32324,-20.1776,32.9388,17.618,22.9682,-23.0948,11.0298,-47.9645,-0.11486,-17.3247,94.4641,-2.9453,-11.9543,-35.0614,
-7.1044,-6.6192,45.0625,29.8962,34.9244,-8.3739,24.468,-42.6179,9.2753,-5.9135,102.8962,11.3314,2.863,-47.0577,
-9.1474,-0.78931,43.0753,20.6946,27.3971,-8.3647,18.7784,-34.628,8.2255,2.8367,97.4395,13.3436,-2.5188,-41.9869,
-8.5986,-8.644,34.5642,11.5509,18.8388,-16.7533,3.5517,-28.5984,7.732,-7.2106,84.6786,4.641,-16.4677,-33.5407,
6.0173,1.7522,46.5904,24.9578,22.6465,-5.8706,11.5112,-28.8589,3.3166,-14.6805,86.5119,2.387,-8.2946,-45.6282,
12.2994,3.6221,37.597,23.1889,10.4232,-1.5673,-2.0201,-41.2274,-8.7355,-18.7382,83.2972,-6.6458,-14.7105,-56.9905,
7.6099,0.44175,28.4271,10.9316,5.8463,1.4897,-8.8129,-37.4948,-4.2598,-12.6758,76.3238,7.853,-13.8283,-44.1396,
7.648,-8.9681,29.1912,-3.8243,-0.92431,3.8701,-7.7904,-37.7139,-14.376,-18.3351,61.3736,14.5186,-20.4069,-28.1559,
21.2891,1.4471,38.3043,-9.7437,-2.8448,17.7379,2.5551,-34.4636,-9.5624,-10.3205,65.5932,3.7695,-29.0595,-20.5396,
16.2826,5.805,43.4143,4.9409,-5.1439,30.7736,7.834,-25.975,-3.5564,-9.2075,67.0899,7.9881,-32.7492,-25.728,
5.9223,0.02444,45.2552,10.3005,-1.377,25.4217,3.9077,-11.0812,-7.7869,-11.1238,70.4728,10.9661,-20.4125,-27.6416,
14.9508,-0.47126,42.0457,2.2737,-6.7281,20.4387,3.179,0.94247,-13.7409,-6.9996,77.6032,5.8629,-11.779,-24.5013,
-0.04626,1.0392,30.1387,-10.2095,-20.4244,19.7061,3.482,-10.4734,-15.3852,-6.0859,70.4782,6.9933,-19.469,-37.1312,
-9.1558,-4.9501,31.2938,-2.6834,-10.5313,14.5728,5.2481,-23.945,-1.6215,-0.78218,74.1506,18.4268,-19.2884,-49.0034,
-11.57,-14.5302,31.3922,-5.4849,-3.9724,-0.12969,-1.9803,-31.1268,3.4152,-3.6978,76.617,9.4191,-13.1916,-60.1632,
-13.8393,0.44164,40.3733,2.7462,2.192,8.7676,12.2385,-15.1592,17.0384,-1.5009,82.8846,7.8665,-1.5355,-51.2947,
-25.3552,1.625,38.4451,13.9403,5.5182,12.6868,18.641,-20.9409,17.4979,-0.91662,79.3933,6.9002,-14.7772,-45.7468,
-11.4871,1.0337,50.2384,25.4516,13.5829,19.3339,19.9913,-15.2397,23.8563,13.2384,85.0015,20.5862,-14.3853,-31.6427,
-11.7859,-2.9789,53.3734,10.095,11.7799,12.2473,15.8288,-7.4113,17.4859,-1.1626,74.9624,25.5004,-11.5467,-23.8177,
-12.0663,-0.82508,53.1335,9.4893,16.0117,7.5605,14.8791,-4.004,6.5587,-12.9459,66.5136,21.0068,-5.9153,-34.2426,
-3.934,-7.1963,44.5132,23.0199,6.6552,0.68709,6.5781,-11.1711,3.6964,1.9308,58.078,18.2642,-13.9562,-45.5224,
2.2286,-4.789,41.8429,28.7756,-0.65817,-5.2807,-0.73158,-15.4399,7.4252,9.9393,57.5564,10.2543,-24.9714,-28.691,
6.0463,4.3883,45.2589,16.184,-1.6067,-11.8779,-3.6498,-22.415,-0.92192,-4.757,62.0055,10.628,-28.4121,-12.8695,
10.1274,7.5823,50.9391,15.7067,0.95853,-9.6839,0.025533,-20.5773,-3.3363,-12.596,56.8029,24.0903,-20.2876,-7.208,
4.0874,-4.2319,51.34,23.1601,4.3583,-6.6341,-3.4333,-14.897,2.2961,-0.48091,39.2948,16.446,-22.5267,-15.1713,
4.8297,-5.9531,45.2961,20.783,6.0728,-4.2601,-6.1898,-13.0156,0.18333,2.5114,39.6787,3.6062,-28.0896,-8.334,
-5.3376,2.3057,29.7373,8.67,-8.3916,-6.9675,-10.7584,-15.1987,-1.8032,-6.5293,51.398,3.3893,-30.3557,-21.934,
-12.9194,9.0818,29.9291,20.0038,-10.5802,4.3161,-4.1859,-8.3597,12.405,1.7645,62.4141,13.064,-18.6563,-34.7179,
-19.0587,0.63491,36.0354,24.7296,3.8827,15.9092,-0.97123,-1.9321,25.7607,15.7587,63.0644,21.1697,-3.4369,-18.5349,
-31.2491,-3.8484,34.3675,16.8255,4.144,27.3029,1.5563,7.5685,27.1299,24.9135,67.6768,33.9995,0.9426,-3.3228,
-28.3866,4.2845,29.3419,14.8285,3.8954,33.5668,10.3534,6.1269,20.5626,21.4427,74.4818,46.0595,-6.0285,8.2359,
-12.5834,-0.41734,37.9532,7.519,14.0334,17.4528,13.1895,-8.3407,17.8476,13.7363,58.6536,42.7535,-4.1845,1.321,
-4.6916,-0.39183,49.5036,8.0549,10.2284,11.2438,9.4341,-11.027,17.7647,8.9606,49.2078,34.2618,0.017077,-4.6848,
4.4795,-2.3443,50.4844,13.4976,-3.2268,20.4462,9.8556,0.50013,11.7594,6.447,60.3554,35.1696,-5.91,-18.5037,
6.1862,-10.1052,49.4318,10.7132,4.8693,21.1959,6.3012,-4.4679,12.0418,1.1221,61.4011,26.1454,-15.4329,-26.0116,
-3.5692,-0.11558,44.9837,8.5882,12.9729,18.4419,-5.4361,-9.6331,10.8255,-4.3784,53.2723,20.1309,-15.0017,-10.3509,
-2.3666,7.7934,43.2722,8.0729,4.2925,13.3844,-13.012,-15.9696,0.29799,-8.0667,50.0759,10.0335,-14.1016,-2.5935,
11.8754,2.8805,48.0846,9.0703,-8.3114,9.1246,-13.713,-11.5537,-5.1517,-14.003,41.6386,-4.6685,-20.6633,-16.5379,
22.2502,6.6592,49.15,15.4401,-13.7402,22.4056,-16.8408,3.2395,-4.8431,-15.1383,36.1773,-1.6477,-28.3135,-15.7675,
28.8173,14.1617,42.25,14.5137,-6.0012,33.9019,-15.8303,9.6873,0.38604,-8.3031,40.9212,12.5512,-25.6272,-8.8954,
27.0887,10.3489,36.752,-0.45712,-2.6781,22.9777,-12.905,-4.994,-2.6001,-7.8053,36.4904,10.5392,-21.1256,-22.4616,
11.3634,3.3073,38.0041,-7.5665,-8.9373,24.0688,-10.6494,-3.9291,-0.96286,-10.7943,30.8437,4.4736,-29.2423,-22.3247,
7.9895,7.5541,34.2421,-2.6673,-13.8338,34.972,-11.4922,10.4066,4.5277,-6.6889,39.3644,18.3052,-34.8956,-7.6495,
18.3757,6.1133,30.2126,-4.4823,-12.0162,27.9351,-11.7902,10.0055,5.2445,-5.3,37.99,14.4666,-22.9238,-5.2155,
3.1731,-1.6622,32.8441,-5.6951,-15.7396,21.8138,-8.6135,-4.6949,6.4106,-11.4023,22.3758,-0.50138,-16.1156,-19.0026,
-4.6483,7.8213,32.3552,-5.8476,-24.1799,27.9127,-10.566,-7.1057,-0.39431,-16.1509,10.662,-6.1264,-29.2487,-31.9624,
9.7306,18.2171,31.4019,-4.5088,-14.8266,26.2384,-10.92,6.1617,-6.2972,-12.2189,13.9738,6.0947,-32.6551,-30.4898,
15.2956,6.7527,30.9995,-9.671,-20.3573,21.2064,-11.7465,11.2248,-10.3646,-18.8935,16.5921,-1.6797,-23.288,-14.5604,
5.9825,2.8908,28.6453,-7.609,-26.5437,29.3178,-10.5475,24.6513,-7.2725,-20.2292,18.0659,-6.0242,-17.4454,-20.8722,
-3.2664,3.7044,28.9021,-2.2144,-21.988,24.5957,-11.8902,29.321,-4.8616,-14.0774,13.0304,-0.72371,-20.3502,-33.7199,
-9.4912,-2.9377,41.268,3.3517,-14.2489,14.7242,-4.756,15.215,1.8509,-5.8245,17.6818,6.728,-13.6969,-34.8825,
-8.9213,-2.7619,39.0142,5.1261,-12.406,16.8037,1.4559,10.3515,7.6663,-1.5235,27.486,11.2633,-10.8996,-18.6896,
-10.361,1.3548,28.7723,0.86752,-15.6127,15.7955,-5.546,17.6325,-0.69474,-0.44457,20.8983,2.6855,-23.0862,-31.6677,
-8.2581,-1.1953,36.4293,4.2727,-14.1821,13.3665,-3.732,16.0808,-0.15929,-7.8262,10.2611,-10.81,-27.1333,-43.8677,
-3.3178,-6.5568,43.6268,5.4976,-15.8,13.0583,6.8637,5.7317,3.3075,-20.6909,3.2247,-16.5821,-27.975,-55.3356,
-9.539,0.25692,35.5764,3.686,-19.2973,8.8171,-1.9444,-0.045005,-9.2382,-15.9927,-0.42561,-11.1429,-24.8148,-54.9303,
-1.0647,13.0821,40.3564,6.4284,-17.1519,10.264,-9.7297,14.0577,-1.7703,-10.0946,9.477,-0.59631,-9.2259,-37.5345,
3.9382,2.4205,37.9345,1.1037,-21.0618,6.6851,-10.1339,26.7718,7.2259,-23.3175,10.8839,-3.5236,-9.9313,-34.5663,
-2.7188,1.7815,23.3126,-2.4189,-23.2544,10.7288,-7.0562,25.6593,3.336,-13.5217,12.7006,-1.8309,-23.4354,-32.9861,
-2.0615,15.7747,24.3821,-3.7564,-17.4148,7.6158,-11.078,20.6629,-6.2489,0.62347,6.5058,2.7242,-30.6483,-23.5982,
7.4455,11.5923,28.3525,-9.9518,-19.8272,-4.2014,-22.7602,16.9534,-13.2822,-13.5139,-7.9846,-3.86,-41.1563,-25.6405,
11.9378,5.9587,27.6393,-14.2928,-28.5142,10.1507,-20.4066,17.9117,-1.6193,-15.888,-4.7643,-1.6529,-44.6125,-10.0021,
4.307,5.6012,21.0415,-12.4477,-31.7428,21.1242,-11.2801,9.9225,-4.4856,-9.0086,-5.4669,-4.5172,-43.9117,2.1806,
7.5059,10.6974,24.2247,-0.34152,-28.3569,5.7568,-10.1096,12.7844,-16.5633,-18.8399,-11.5587,-9.6785,-39.7957,-12.0502,
6.5617,4.6233,28.2035,3.1372,-24.1858,-4.1947,-9.9968,11.5236,-3.2227,-11.2887,0.49411,-1.6895,-23.308,-25.4272,
-6.673,0.39438,21.5723,1.96,-20.7591,10.157,0.48059,2.9297,11.0707,3.4886,14.2921,12.5119,-8.8466,-9.8016,
-12.6929,3.8284,20.7722,2.3366,-17.0443,14.7089,6.872,0.28556,14.5802,-8.351,-0.66545,14.9465,-14.7352,-5.4853,
-10.45,3.105,29.8976,4.6662,-7.6249,2.467,4.9784,1.7497,2.3461,-17.2332,-14.7255,3.6789,-19.2843,-19.2562,
-8.3413,-5.4776,28.597,11.794,-6.6741,-0.15026,3.198,1.1505,0.72363,-2.0993,-7.8659,6.9149,-20.5965,-32.2008,
-6.8528,-6.1369,25.8932,13.0619,-12.2002,5.7853,6.9566,-0.89405,6.6067,-3.7274,-4.4309,8.4756,-29.2382,-24.7873,
-6.9359,2.6276,32.7359,12.7724,-21.8395,2.9689,2.0949,3.6048,7.6921,-17.6038,-16.5114,-2.4043,-29.9532,-31.6954,
-6.0255,4.9392,42.1306,18.4263,-11.1454,7.2351,1.475,17.4886,7.7238,-16.2756,-1.4207,4.1603,-14.056,-19.4224,
-11.5905,-3.2597,31.7012,8.4307,-9.4896,4.8255,-2.564,27.5266,-0.64115,-1.1991,12.7646,12.8007,0.83821,-4.157,
-3.4868,8.2961,27.3294,5.4551,-21.267,-0.89636,-6.855,22.4178,-0.10892,1.0711,8.4923,7.5879,-13.3121,4.2167,
8.0812,15.2062,31.1224,0.68354,-30.3623,2.6142,-14.8399,9.7139,-2.5717,-13.0931,-6.1172,-6.2032,-26.6134,-4.4325,
13.0291,10.8361,23.8223,-10.7172,-26.0713,12.8287,-20.3708,6.6618,-10.8136,-26.4075,-19.8502,-9.2877,-20.0289,-9.5993,
5.8271,9.6926,17.9486,-13.531,-18.0867,-0.28741,-13.7148,9.7189,-2.7561,-24.7744,-4.5592,-4.2852,-26.235,-23.1234,
1.5264,14.0496,22.7978,-2.8421,-19.9641,-14.0992,-3.0148,12.0992,6.2989,-10.4474,5.3691,-4.0281,-36.5149,-35.836,
5.8796,10.7369,20.9361,1.7742,-27.163,-3.8699,-7.2787,5.94,-2.4749,-15.2529,-1.3738,-10.2072,-27.9032,-44.9955,
13.4294,5.1546,18.6929,0.67974,-22.5692,-0.67376,-8.8175,3.6091,-2.3259,-17.3007,-12.1555,-8.6068,-20.3015,-28.1958,
6.6966,7.8079,19.5464,6.565,-22.2035,-14.7333,-8.2885,4.38,2.7522,-21.2021,-12.4146,-6.1153,-23.0354,-12.404,
4.3193,13.2669,25.2876,8.1476,-23.8343,-11.6029,-5.8156,6.0927,2.5866,-17.9545,2.4303,-2.7844,-14.7383,-21.0922,
8.9991,6.5443,20.8074,-2.2188,-21.4163,-12.8822,-8.4297,0.78817,-7.4462,-17.8643,3.001,-6.5689,-16.818,-31.6802,
4.014,4.6699,15.1137,-0.6049,-13.711,-25.4441,-5.4547,2.2226,-1.5666,-15.3107,-5.5753,-3.7045,-14.3271,-26.3217,
-9.5617,15.7485,23.5906,13.5314,-11.4066,-18.4846,0.30536,16.1893,12.6274,-5.0092,8.8592,10.6178,-0.13272,-25.2366,
-23.088,16.7791,27.1142,18.8693,-7.7592,-17.3751,-0.70095,24.3303,16.0435,-2.7331,19.416,15.1411,-10.9898,-11.8698,
-30.8146,22.1932,26.9686,18.2309,6.8064,-23.7409,-1.1527,23.3642,13.5987,5.8266,20.7198,15.7148,-13.7877,2.9424,
-14.8657,26.7881,32.2645,31.237,20.498,-36.4164,-1.084,17.0233,20.6853,7.4526,26.3906,18.7225,0.86813,16.8658,
0.12625,20.736,44.4287,43.4628,33.3681,-48.3314,11.3288,8.5937,25.8649,8.4876,24.3135,26.9834,8.2243,29.9539,
0.5633,5.3919,39.5165,36.3602,45.466,-59.5315,14.1059,-6.022,21.8428,10.4476,11.4958,19.9307,1.3096,14.0566,
-8.8543,-5.5262,38.6272,48.2786,56.838,-70.0596,14.7413,-19.7606,27.941,16.2411,9.3243,20.2175,11.6033,-0.88676,
-6.3475,-1.2431,32.3591,59.4337,58.9855,-79.9561,7.9303,-32.675,17.3745,4.4015,-4.0762,16.0414,2.0171,13.2664,
-1.0277,-15.2686,20.539,45.0026,62.3604,-89.2587,8.4415,-44.8145,5.466,-3.7651,-3.8311,7.1765,-5.0189,16.8666,
13.134,-28.4524,31.654,52.6737,71.9536,-98.0032,16.3313,-56.2256,17.4854,6.8321,10.4987,14.1537,9.3822,1.7546,
15.038,-28.1784,27.285,51.9821,58.2531,-105.5346,13.8701,-66.9521,15.9425,2.965,23.4255,10.8347,19.4134,-1.0427,
9.6905,-24.0184,21.2036,46.3939,54.2637,-100.6833,10.5686,-76.6166,10.5416,-5.6083,27.4527,0.80179,5.9022,13.1198,
11.0846,-21.5893,26.8454,53.4878,60.8854,-94.6428,8.9465,-64.118,15.8347,-1.3212,35.6831,9.6428,16.4131,7.6159,
12.3955,-25.2325,24.2472,48.3035,52.2937,-89.9517,13.3483,-56.319,13.898,2.71,23.665,7.0892,25.3064,-6.941,
5.7248,-22.731,24.7674,47.3803,41.2531,-91.4696,20.4494,-65.7818,10.0997,5.51,15.3306,-7.4362,9.688,-19.0932,
1.4302,-17.4161,28.2208,48.4895,38.7789,-88.944,12.3089,-74.675,6.5312,1.2293,7.4972,-13.6326,-4.9933,-22.8862,
10.7277,-10.9389,19.1193,31.4801,24.1053,-76.1996,0.21106,-73.6523,-1.269,-12.9445,-7.0526,-8.3699,-10.5716,-35.613,
17.4928,-5.8373,14.5144,30.8493,18.2138,-57.5276,6.6187,-55.8978,-3.6621,-15.8483,5.4941,-4.4109,3.3975,-42.0952,
4.5902,-17.3401,17.5955,41.8399,31.221,-47.9266,7.2091,-44.6419,-3.4424,-0.79741,8.1279,-14.0233,5.1697,-25.4695,
3.3273,-19.2632,24.4409,37.3544,38.9538,-43.075,7.7641,-43.9389,9.6047,10.8325,-6.4598,-5.2799,3.871,-9.8414,
9.5479,-12.6747,31.3707,27.7044,22.5166,-37.0338,19.6455,-40.8088,19.4007,8.7008,3.5835,9.1369,0.18197,4.8491,
4.5303,-8.4569,28.9947,29.4994,17.486,-20.7117,15.997,-31.94,12.8034,9.66,17.4685,22.1453,-12.1758,18.6582,
1.7887,-11.4068,21.8227,25.2607,21.8701,-8.8745,1.7029,-30.5174,8.578,7.5992,13.185,6.7166,-14.9025,7.0701,
4.644,-11.7099,34.6133,23.7441,15.6184,-22.442,15.4288,-31.6498,22.1633,8.1307,11.4064,-7.7864,-2.1562,-7.4541,
-9.7347,-12.4886,40.6604,20.8382,10.2365,-29.2203,19.9363,-34.1956,26.9823,9.1251,21.0938,-12.7024,1.4314,-21.1069,
-13.3239,-4.8261,33.2818,21.5634,22.4624,-13.3671,7.8741,-26.2178,26.3514,16.4792,10.9372,-5.0271,9.247,-16.8293,
-9.561,-5.5232,41.1629,27.1841,19.1396,1.5349,8.3901,-24.6443,23.7828,11.5394,-3.8191,-5.7121,8.6922,-1.7195,
-2.5666,1.2281,46.1014,24.0718,4.6569,-3.5453,12.3315,-14.7694,17.911,4.4263,9.0298,-6.8516,1.7509,-0.40509,
-0.93132,12.5137,37.903,15.2192,-0.067259,10.7674,6.1593,0.21679,13.3791,-0.28408,15.8953,-10.8852,-0.82392,-6.8015,
-8.2832,16.2081,38.0981,18.7503,-1.545,24.2214,9.2465,9.8103,19.9842,1.2147,0.84158,-7.7629,0.70726,7.7066,
-6.305,11.7783,43.2205,16.144,-15.5523,23.707,2.271,13.6665,17.3038,-1.3279,-10.7905,-7.7909,-3.7799,6.9727,
8.1733,17.9862,49.5168,12.2119,-21.7564,30.1866,-7.7423,21.7361,11.3261,-2.2357,3.9569,-12.2619,2.3729,-4.3112,
6.4244,11.9675,41.6073,3.5772,-34.2791,36.2774,-15.1798,17.4684,-2.194,-7.0401,1.4725,-11.5262,-1.7205,0.88603,
0.11198,8.286,41.0859,8.3011,-36.1734,32.1257,-12.294,20.3713,2.8762,-0.69168,-1.5793,3.2653,-3.5932,14.9329,
8.9953,14.7038,52.7207,12.742,-19.903,24.2717,-5.6298,19.1495,8.6301,5.2763,-4.4476,6.749,1.5614,15.7414,
11.9123,16.2908,61.6333,11.4833,-11.5725,21.3336,-3.8103,3.9005,2.6796,2.4905,-16.528,-7.7559,0.97345,0.69694,
5.7653,14.8196,58.4291,16.2275,-9.3968,19.5598,-4.0754,0.97445,11.903,5.7983,-10.1031,-5.0441,-2.5413,-1.0494,
-4.4577,8.9919,47.0213,12.2903,-7.8446,10.4842,-11.7329,2.892,19.0909,1.4994,-7.5209,-0.7895,-10.2908,8.8916,
-5.6729,7.9582,57.5348,13.0347,-5.8931,9.3609,-9.5472,3.2117,16.4637,5.8547,-12.5034,-1.2373,-0.29054,14.7784,
-9.2835,3.5297,57.0462,12.2526,-11.4656,2.8723,-6.0109,1.043,18.4394,6.4909,-5.8262,4.7639,8.6174,19.8186,
-13.1713,4.7992,48.1902,12.0112,-10.2839,-7.6709,-1.2055,2.4627,19.8027,5.6077,8.6234,11.8864,10.5701,16.1598,
-7.9358,1.0544,53.6951,13.7598,-4.2341,-10.6674,-5.5784,-0.15434,22.0714,9.7165,9.8105,4.7529,8.4541,3.8314,
-9.9289,-6.4166,59.8571,20.3429,-6.4493,-5.5831,-10.6764,-1.6268,31.1184,17.5288,3.7891,3.9735,8.4402,11.9968,
-23.4332,-10.4769,48.8579,17.6406,-10.5066,-12.6559,-4.6031,-3.011,24.807,14.9963,4.0551,9.1679,8.428,25.377,
-19.7812,-7.379,47.4072,13.1245,-5.4319,-4.4887,0.1174,4.5775,19.8608,10.6388,-0.63348,9.112,2.4895,35.4365,
-4.4943,4.9168,57.4043,16.288,1.8085,9.8806,-5.8157,12.2049,18.6692,8.0245,-5.534,4.6143,-3.5868,27.3833,
-12.3981,6.5973,53.9596,11.3602,-4.2265,23.3878,-5.4663,5.5461,13.5975,7.5435,-8.165,6.3129,-2.3836,16.8503,
-25.7542,-7.8986,38.3752,10.1839,-17.3082,7.8845,-4.6445,-8.121,12.2879,11.5356,-21.0104,-0.4866,4.1801,8.431,
-26.4063,-11.598,39.0357,17.4753,-6.3912,2.6957,-1.4028,-4.6707,20.4407,19.7335,-22.7128,-2.4329,4.9173,-4.915,
-23.3407,-2.5063,50.7936,11.982,-4.5265,0.064196,-8.7269,4.0053,17.733,14.1047,-16.9043,-5.7442,-8.713,-18.7201,
-17.495,5.0528,61.846,17.6834,-9.6877,14.1603,-7.7091,14.1372,20.1258,12.7642,-13.4208,-5.8928,-7.696,-31.6969,
-18.4208,-2.1653,45.7402,12.6719,-11.0819,18.472,-4.2835,7.3625,14.9677,9.0353,-26.4441,-7.5148,-20.0752,-15.6951,
-16.328,-2.0354,42.9948,7.9605,-14.368,20.3272,-6.0025,7.9082,11.1061,6.5172,-27.8209,-6.0764,-17.8832,-0.65336,
-14.3608,-0.92577,41.4027,4.5194,-17.4569,21.0826,-7.6174,9.4088,8.4638,4.1512,-28.1276,-4.7243,-15.8227,13.4858,
-12.5112,-0.86976,38.919,0.29675,-20.361,21.7932,-9.1358,10.8198,4.9929,1.9266,-29.403,-3.4528,-13.8854,18.3313,
-10.2788,0.66418,38.0656,-2.1903,-22.5961,22.9548,-10.0694,12.6398,2.2241,0.32925,-30.1081,-1.7639,-10.582,20.6892,
-6.2048,3.0941,38.2514,-3.5402,-22.7216,27.0108,-8.9706,15.3396,1.5969,0.80326,-28.7954,1.7992,-6.4898,24.881,
-2.8695,5.8714,38.9193,-4.3158,-23.3348,29.3407,-8.4328,18.3698,1.5006,0.75553,-27.0681,4.6543,-3.1374,28.3262,
1.7484,8.9764,40.0414,-5.5381,-23.416,33.0135,-6.4456,21.7124,0.91679,1.204,-24.9503,7.8323,2.4831,33.0474,
-4.2835,7.4494,33.6879,-5.2058,-27.9371,30.0442,-0.13184,14.4836,-3.0892,4.0952,-27.4043,-6.7377,1.3466,22.175,
-9.953,7.0029,19.8131,-3.9055,-28.2364,24.291,-2.0994,11.6391,-8.8304,8.7876,-23.7836,-7.0495,-1.6972,19.8565,
-10.8371,10.04,16.1556,-11.0794,-27.0359,26.2908,-1.4797,17.3605,-0.8923,1.8405,-12.9732,1.7693,0.87341,23.1099,
-22.5346,7.9553,12.7165,-10.9093,-26.896,26.1946,-3.8607,17.8002,1.631,-0.73966,-16.6396,-3.7701,-4.6113,7.6233,
-31.5534,3.0333,4.5452,-13.712,-28.7395,16.2272,-9.0613,9.3248,-5.8752,7.7005,-25.0255,-7.0012,-13.7189,-6.9341,
-24.2279,3.345,8.7173,-21.2851,-25.5339,12.7838,0.86567,4.3196,-4.0414,5.7572,-30.9322,-4.1114,-14.377,-12.3959,
-9.4394,7.5896,10.6635,-13.5877,-25.4836,17.4495,2.2955,10.4807,-3.3047,-4.9605,-42.4111,1.5681,-19.9347,2.4479,
5.227,20.4685,12.4934,1.3275,-20.4973,30.5026,1.664,23.9519,-2.6126,4.7214,-38.3842,10.8573,-16.2698,7.9556,
0.69088,9.8576,6.3111,-3.9621,-32.6013,21.4874,-1.8926,19.2808,-7.8886,7.8949,-39.5389,-3.128,-11.8359,-6.6217,
-13.4506,-4.0692,0.50011,-17.0587,-37.066,9.8264,-1.2853,7.7522,0.98048,1.0014,-30.7458,-9.3611,-7.6685,-12.8666,
-26.7435,-9.7515,-8.4199,-18.0107,-34.8416,2.3228,-2.1962,4.324,2.8981,-6.9602,-20.011,-11.7624,-9.1839,-10.1191,
-21.1393,0.71063,-4.9512,-15.9425,-31.7635,7.1219,0.89908,11.9666,-4.1912,5.3095,-14.8594,3.0433,-1.7193,-11.4879,
-19.8709,3.6315,-0.70313,-22.888,-27.8827,12.6207,-3.1059,12.2361,-9.8658,8.9419,-27.7968,10.4908,-5.5671,-6.8476,
-21.6417,-6.4639,-7.5759,-21.5152,-16.3322,9.8879,3.9945,6.563,-11.2494,1.4914,-35.019,-3.9672,-19.0617,-1.4977,
-20.8374,-13.4839,-14.5292,-20.7176,-11.8945,-1.0767,16.1021,5.6759,-12.0562,3.8712,-32.4237,-10.1494,-8.5342,-13.7552,
-30.9455,-22.0582,-9.2127,-21.9433,-21.5526,-1.5058,11.6787,2.8665,-3.9245,13.0231,-31.9595,-3.1197,6.0779,-25.2762,
-32.546,-17.2784,-13.1047,-26.0599,-26.6802,9.9438,3.5697,1.2123,-3.1953,8.7845,-28.5607,-2.4388,5.4422,-9.6596,
-19.2349,-4.8824,-19.7267,-25.9786,-20.6346,12.8044,13.7264,6.5719,-11.3994,-3.1019,-29.3168,-10.6892,1.6584,5.02,
-16.5981,-0.1442,-26.9384,-23.9256,-16.9264,8.5794,17.349,20.2776,-10.2212,-7.361,-31.0145,0.32443,-1.8979,17.5111,
-24.986,-1.6173,-39.4221,-27.9219,-23.3186,5.5954,6.9243,25.7045,-8.1262,-5.4376,-41.5,14.405,-11.1678,21.8932,
-28.9201,-1.0265,-42.7123,-25.7538,-30.3162,-3.1371,4.0391,12.8029,-14.0593,-1.6541,-53.11,6.3547,-19.8819,12.1829,
-27.1844,2.9866,-41.1376,-20.2571,-28.4968,-5.9119,2.8087,7.0957,-16.1788,1.4082,-55.0852,-3.9041,-28.5661,-2.6481,
-26.0476,-3.6138,-52.7693,-24.4744,-30.2447,-1.1129,1.1585,13.0903,-16.6898,-1.1456,-49.3108,1.7629,-40.9521,-16.5892,
-15.1014,5.9872,-52.2952,-21.5247,-22.9968,2.4112,8.4972,24.6517,-10.2561,-6.5091,-51.7845,9.0654,-24.395,-1.4938,
-10.2434,19.728,-47.1815,-9.3677,-24.5804,1.279,4.0364,22.185,-7.6648,-4.1435,-54.6044,4.5705,-8.8313,12.6958,
-20.989,14.8161,-58.4506,-16.2139,-37.2056,-5.2185,-2.6266,7.5196,-9.6746,2.5258,-51.8219,-0.14855,-22.4014,-2.1659,
-20.223,8.4944,-62.5742,-20.6738,-33.7143,-2.4352,10.8658,21.1684,-7.6124,-1.0835,-43.2798,6.2806,-28.9598,4.1624,
-16.5398,10.4544,-63.2645,-18.9387,-27.2457,-0.80781,10.7086,32.4674,-10.6129,-5.4623,-39.2008,0.47152,-17.838,15.272,
-20.9802,-4.2728,-66.8774,-18.2966,-28.0812,-6.1921,4.6333,16.4194,-7.5069,3.2608,-36.3555,-4.9895,-27.1395,0.25567,
-20.7094,-6.2152,-62.8652,-10.2847,-28.3718,-4.8326,6.3299,7.3094,-8.0445,2.0771,-35.1621,2.2239,-33.4136,-13.8597,
-21.4428,8.2577,-66.0069,-9.6677,-30.6206,-1.5791,4.9626,20.9709,-13.4878,-12.1475,-34.0399,0.11446,-17.3088,-11.9924,
-29.5395,3.0465,-73.4057,-18.4709,-30.2646,-3.9541,5.1586,31.7884,-12.1848,-18.555,-36.4423,-13.9924,-2.1703,2.8272,
-20.8527,1.8752,-58.1368,-12.4241,-21.5351,1.2217,12.7511,24.9426,-1.5767,-5.5886,-32.2807,-17.3257,-14.9293,4.8563,
-15.1563,10.159,-62.0564,-15.1355,-26.6624,-2.3084,0.6272,26.9028,-9.8774,-13.6496,-39.7267,-2.1862,-14.5268,3.0832,
-10.2968,12.5129,-68.2101,-9.2888,-27.0386,4.7446,-6.3249,28.2522,-16.1993,-16.7816,-42.2826,-1.8327,-3.7781,8.8242,
-12.642,3.8597,-60.1669,-5.7684,-25.4168,3.4719,3.9321,17.667,-18.1903,-5.8972,-42.7087,-9.6252,-17.6515,-0.5943,
-8.4258,14.0003,-45.1972,-2.9531,-18.459,-3.1567,17.7962,22.0397,-5.7401,4.8279,-29.7748,5.0523,-11.8757,4.8741,
-1.4999,14.6411,-56.5853,-4.2576,-16.8577,-6.425,16.4574,25.1626,3.9881,2.069,-19.5921,16.3312,2.9369,17.9155,
-1.4099,6.8491,-60.327,-7.9532,-19.7973,-3.076,9.543,20.6894,3.7488,4.9084,-22.3676,3.4983,10.885,17.8291,
-15.4254,4.9554,-54.2391,-8.9577,-32.7094,-2.3972,6.5011,18.9538,-4.8724,-0.81891,-26.4592,-3.1328,-3.8681,6.3871,
-16.2039,2.1898,-65.0847,-2.9875,-40.3529,-0.77163,12.5314,16.3348,-14.9513,-14.1046,-28.3285,-4.4257,-13.2421,-5.355,
-1.1317,-0.90557,-75.2797,-10.7108,-36.9443,7.1762,9.804,8.4407,-18.0057,-16.2223,-28.6043,-13.0501,-5.5345,-14.9112,
6.5664,10.0138,-56.6629,-17.9697,-26.8256,18.5992,5.2652,14.8483,-4.0844,-3.3954,-25.9,-19.1812,-7.177,-15.992,
-5.6811,15.3395,-44.5954,-13.9285,-21.265,4.6422,5.9363,21.8599,-2.8513,-13.0692,-34.2236,-25.9328,-20.8464,-29.1325,
-12.7476,8.9869,-56.0197,-6.672,-29.3724,-6.9956,9.0383,17.091,-10.0876,-22.6559,-33.6514,-20.9196,-21.7939,-41.4846,
-4.0812,2.5211,-60.7838,-15.1617,-36.5006,-0.64937,3.5561,10.139,-4.5442,-9.444,-25.7068,-7.8118,-15.5482,-33.0203,
7.0292,2.3699,-49.2338,-12.277,-27.396,-0.61041,1.3677,9.5307,1.6545,0.012217,-25.1519,-4.3796,-14.6153,-16.9391,
9.0763,8.6484,-42.8225,-0.18013,-20.3195,-6.9945,2.7669,15.3796,-5.8521,-1.4698,-21.173,-2.6346,-2.3781,-1.8227,
8.5326,12.0805,-36.3021,-5.1079,-15.1488,-10.5259,2.6018,18.4078,-2.5375,4.5454,-7.0621,4.438,6.6541,2.1894,
5.5505,11.849,-32.6423,-12.2101,-0.90558,-23.9943,3.9265,16.8091,-0.90445,7.7294,-14.0461,10.591,-7.0799,4.5264,
3.7361,11.6327,-30.19,2.6225,13.2488,-35.1238,7.1482,19.2579,-0.35548,3.8084,-24.5627,14.4013,-11.0999,15.615,
1.0427,-0.42498,-29.8603,16.5651,26.5538,-47.1164,15.1156,4.0024,13.7658,11.9762,-14.6926,5.1409,-3.0257,3.3184,
-13.1198,-14.4995,-41.403,17.4976,39.0606,-58.3894,14.7024,-10.3378,14.6435,11.7514,-15.2933,-8.5018,4.5637,-10.9807,
-12.0617,-17.3096,-36.45,22.8685,50.817,-68.986,15.3015,-23.8175,14.2586,10.5525,-11.906,4.3551,17.6251,-24.4219,
2.762,-22.6908,-24.8788,35.5964,61.8679,-78.9469,17.8407,-36.4884,16.8604,16.3392,-6.7468,11.502,14.0979,-8.8566,
16.6963,-23.7986,-14.0023,47.5606,72.2559,-88.31,30.8702,-43.5851,18.318,27.7061,0.078258,9.3302,9.7948,5.7748,
29.7945,-21.8769,-5.7548,51.5728,82.0205,-97.1114,37.6371,-55.07,15.7377,33.452,-0.4202,10.2516,23.3071,-0.0044227,
35.5892,-20.5643,-9.3605,49.466,78.6569,-105.3848,29.4519,-65.8658,15.7809,25.5179,-3.3585,11.6125,32.009,-9.8812,
25.0572,-25.7512,-17.1947,56.8688,80.3582,-113.1617,34.1046,-65.3229,16.3153,9.8868,-6.6142,3.5066,15.9884,-11.7586,
32.4437,-24.2057,-14.1875,60.3717,84.4268,-95.8051,45.8878,-58.4396,7.4349,4.1328,-2.2659,3.2966,11.8433,-14.0161,
44.5971,-22.7538,-7.4097,48.8469,70.4711,-87.0938,37.208,-61.8477,2.0498,11.7873,-6.0814,4.0868,25.2327,-8.2356,
46.5889,-13.487,1.9249,52.8301,65.2549,-75.9416,32.0115,-57.1493,6.8658,3.1776,-14.6066,0.87765,25.4228,6.3585,
29.6935,-10.7013,-1.1536,49.6608,68.2546,-64.4706,39.9693,-45.8179,9.4169,-4.9156,-5.8277,4.7765,9.7974,12.6196,
13.8119,-24.1593,-15.1844,32.5811,60.7016,-63.0721,37.0769,-55.4161,9.3461,3.7756,-0.045239,3.0081,5.0358,-2.2376,
0.68599,-29.3523,-19.9284,20.0327,54.5902,-55.8301,29.4196,-66.1911,11.2546,9.9703,-10.4138,-9.5187,12.1424,-16.2033,
11.5099,-23.6406,-4.6327,24.7572,50.3268,-46.5537,33.5809,-53.552,11.5673,9.3716,-13.7405,-5.9845,3.5118,-20.6148,
7.3616,-21.728,-5.1204,26.7286,50.7649,-45.2422,35.0238,-36.2388,7.4155,12.2661,-13.4093,8.4745,-10.7989,-5.2779,
0.49959,-22.8935,-18.9132,19.693,48.2123,-42.0335,25.5136,-32.3604,6.4773,11.0368,-16.0616,14.6096,-18.7695,-9.1837,
4.4206,-23.4959,-17.0132,17.523,36.43,-30.6224,26.9463,-32.3948,14.9782,8.3987,-4.2333,5.8301,-3.5434,0.25643,
6.6247,-20.6044,-7.5962,19.9293,33.75,-20.3888,25.8237,-26.0059,14.5738,21.9947,10.1207,12.889,10.7692,14.341,
9.1902,-8.5031,-7.1409,21.6966,35.6765,-9.2879,18.3469,-12.5925,9.7478,30.7749,9.7363,21.9932,9.086,15.6793,
5.6758,-1.0789,-12.6389,13.4798,28.5969,-8.7306,21.1975,-7.8859,5.2124,14.8284,5.2006,6.845,17.4308,12.7631,
2.3722,2.9374,-11.8801,8.7205,22.9296,-6.2318,26.8397,-11.3642,0.9482,0.3816,-1.038,0.50688,24.2865,14.9603,
9.6381,2.2674,-11.6611,9.6785,17.109,8.2421,17.8211,-12.1637,1.3851,13.694,-15.0757,6.8972,8.7294,10.6054,
7.0839,-4.7832,-11.9499,4.1593,10.1564,13.8969,15.7643,-9.4579,9.204,-0.9567,-16.369,-0.43113,-5.8944,10.9566,
10.1161,2.9121,-3.8246,10.3305,15.9669,8.6183,28.9184,0.49292,19.0235,-8.3076,-1.2868,0.089441,6.8557,21.6585,
19.3862,-1.2137,-4.5827,4.7712,8.0943,14.0273,25.4301,-2.5001,4.0531,-3.8581,-10.8648,-2.8794,8.4198,9.4935,
26.6198,0.34043,-3.8139,11.8932,5.1399,27.2856,25.3865,9.0091,1.3411,0.81816,-18.6087,6.6767,10.3844,15.3446,
10.9226,-1.1613,-13.9569,-0.17969,1.3742,39.7485,17.4426,9.9508,3.7294,-3.6757,-12.0599,5.7823,5.3161,14.9177,
-3.8328,-0.59784,-6.6987,-14.2689,-8.0925,43.2415,12.9388,1.9446,2.0244,-3.9489,-14.7936,-0.9854,-8.3382,10.5654,
0.39639,3.8828,1.1115,-7.2148,-15.0152,44.1042,14.6322,13.1872,-2.5418,-3.2182,-19.3383,0.55594,-4.3806,14.3762,
-3.0832,1.1806,-5.3755,-1.3482,-13.6191,38.9896,19.187,22.7682,0.079931,-4.5059,-9.7817,2.0043,4.279,12.0329,
-6.3555,0.61598,-4.5592,-6.7006,-7.3697,32.2046,21.4931,15.9698,3.5324,-4.7303,4.9052,0.4028,3.528,8.8412,
-3.9991,0.57902,-0.33463,-11.238,-5.94,30.2723,11.313,5.1336,0.35695,-2.4714,1.8692,2.3537,-3.5982,4.3597,
-6.228,1.038,0.18015,-16.9835,-11.0159,28.9506,8.1654,7.2953,-0.15823,0.14753,-12.3429,3.6947,-6.8391,-2.3217,
-4.373,0.48199,-0.32536,-21.3968,-5.9101,27.7074,14.0962,7.3514,0.34503,-1.3435,-16.269,-2.9478,-1.984,3.2499,
1.3217,-3.0042,0.18886,-16.6557,8.5445,24.5627,20.6587,3.453,3.7816,1.2068,-7.8846,1.6739,3.5678,17.1549,
0.74859,-3.3177,-9.2067,-17.1386,6.7724,15.6807,16.9485,5.7146,4.0484,2.6157,-10.8687,15.6734,1.8715,30.2256,
0.20945,2.3141,-9.1485,-21.5431,-3.0178,15.2341,8.5238,4.8785,-1.6272,-0.010524,-16.6369,10.5106,11.1435,36.2654,
-0.79111,0.19978,-7.6116,-15.3115,1.1148,15.3071,7.0244,-2.3292,0.44592,-1.9854,-14.6516,-0.98606,24.5749,24.211,
-1.7307,-4.7512,-15.0574,-12.4173,-0.9276,9.4506,10.5544,-4.164,13.2602,1.0967,-5.87,1.0496,22.8294,8.6584,
-5.0841,-3.9724,-10.6967,-13.1545,0.60933,5.4253,11.4024,-2.4329,10.9824,0.53719,-0.085542,0.49188,7.3597,-2.949,
-0.33428,0.71074,-10.5487,-11.8714,8.9686,9.5455,3.31,1.1703,-1.0349,-1.9648,-1.5617,-2.0064,3.2376,0.68521,
-0.31423,0.66809,-15.8418,-11.1582,-5.6695,10.9488,-4.7906,5.0511,-0.97283,-3.8219,-14.3086,0.088993,4.0313,6.5711,
-5.7281,-5.7923,-7.4835,-3.0809,-7.5277,19.6747,7.8441,14.1309,7.4809,2.8277,-13.9443,4.5289,-1.6433,8.6461,
-17.7313,-5.9385,-4.5648,-3.3898,4.2833,23.9274,15.7692,10.8142,5.5507,3.1518,-6.6869,0.79991,0.92499,1.7066,
-15.1866,-3.1129,-4.7851,-8.6192,-5.3575,19.0341,9.3903,7.6961,2.7484,0.49339,-7.7683,0.25769,2.3508,3.0859,
-0.17538,-4.4074,-0.05323,-7.6083,-8.4924,19.3743,7.3456,21.3343,4.0648,3.921,-10.7586,4.6879,0.72845,17.0008,
7.4667,-0.68619,-2.5193,-4.6825,5.352,22.6561,19.2522,28.6724,0.36412,5.1675,-7.6438,4.9,6.117,27.5623,
2.0797,6.269,-6.3196,-7.3646,-0.89567,19.3212,22.0476,17.0745,-4.5967,-4.0325,-10.1482,-6.2591,9.7015,11.8086,
6.8934,9.8439,2.95,-3.9592,-5.7814,23.1014,10.8477,22.9646,-3.3334,-4.7781,-9.5393,-2.9201,16.0339,-2.9999,
13.3948,-0.62428,5.7361,-9.6482,6.419,22.7033,7.2338,24.5506,-0.16944,1.4351,-3.0404,1.2057,17.0474,11.2801,
9.1339,-2.0681,-0.040396,-11.539,10.4786,17.8839,13.2196,8.9776,4.2855,-1.1207,-1.3767,-5.2865,7.6283,5.4429,
3.1531,-3.4258,-6.4583,-9.3649,-3.4849,24.2186,10.9446,4.7584,2.5466,0.42825,-2.7758,2.4385,1.7378,0.67107,
3.9519,-15.0728,-10.0222,-18.6806,-5.2513,32.6431,11.2759,18.5729,0.41832,9.2926,-1.6213,14.1457,2.6215,14.7308,
2.2325,-12.6871,-10.9022,-19.042,-2.4665,31.1782,9.1181,23.6079,-0.10054,5.2778,-4.9813,6.8762,1.97,17.0328,
-0.37068,1.4079,-7.7797,-14.4417,-12.6907,30.7893,3.1373,12.8076,-0.58874,-4.4227,-8.1401,-3.9086,10.2481,3.6635,
0.63954,4.2874,-7.3125,-16.5392,-19.8308,30.9174,1.962,22.9042,-3.5164,-7.1213,-9.6272,-4.6611,21.4858,9.3702,
6.5277,1.0672,-8.8492,-11.5954,-13.702,34.0014,7.7708,31.4084,-5.281,-2.7425,-11.0242,-0.42996,7.3565,10.7835,
1.1975,2.9782,-8.3183,-3.9851,-4.9778,37.8874,9.2796,29.523,-3.9766,-4.553,-13.3262,-7.3187,-2.9629,8.1605,
-1.8378,4.7755,-7.8192,0.205,1.2478,38.5776,0.82175,37.6296,-3.738,-8.2308,-13.5142,-13.7941,10.0564,18.5374,
0.24746,-0.45055,-14.2645,-12.6488,6.1105,42.189,-4.167,38.3353,-3.5137,-5.762,-12.7042,-7.0404,7.477,11.4981,
-4.2126,-2.8928,-17.8539,-25.9899,6.2381,46.078,-3.4237,28.6265,-1.8211,-3.9345,-16.3863,-0.19766,-7.0716,-1.539,
-0.99591,5.1833,-8.8802,-18.7263,-4.0137,45.2897,-1.2418,27.8969,-4.6749,-5.6739,-18.3661,3.7657,-9.8336,12.6533,
-0.44286,3.3905,-8.8416,-8.2189,-8.2181,41.0906,-0.67405,30.6683,-10.8156,-9.7787,-12.8199,2.058,-2.8233,19.0305,
-14.5163,-7.1847,-9.7924,-19.0851,-0.31675,41.0949,5.7872,31.298,-2.7584,-5.7348,-3.654,-6.4613,-3.1472,11.4688,
-27.7453,-20.5821,-14.1438,-32.04,-2.2733,24.7997,12.354,15.3201,1.3586,-4.4027,-13.3132,-18.9146,-0.98329,-3.3193,
-26.5248,-20.8285,-10.8255,-21.4503,-8.5567,9.2117,9.1439,4.3005,-2.1802,-0.68127,-23.8727,-18.2735,11.4235,-17.2201,
-11.1047,-5.4788,-8.2004,-19.1753,-11.9948,14.3637,3.6563,18.1425,-3.0374,0.3476,-22.4409,-21.1277,9.7501,-14.1628,
-6.4874,0.5055,-10.671,-29.8779,-14.2376,26.3425,9.3639,25.6721,-0.87915,-4.6118,-14.1799,-19.86,3.239,0.787,
-6.5919,0.96893,-12.5004,-20.6769,-25.7311,29.2067,5.3439,28.5765,-7.2472,-6.8048,-5.9208,-4.5684,5.5135,13.8031,
-18.5442,2.3921,-23.1097,-17.955,-38.2872,22.022,-9.0768,33.2827,-18.1716,-17.7558,-19.6656,-5.5537,1.7254,10.5052,
-15.9498,8.6688,-19.2539,-22.3105,-26.829,29.0969,-16.1627,43.633,-11.6486,-15.2087,-30.0672,-10.6533,-0.8474,23.9749,
-9.0663,1.2347,-14.1481,-33.8119,-21.2678,25.3756,-6.303,34.1,-11.9376,-13.3092,-21.3492,-11.9896,-3.7596,14.8572,
-1.6073,0.17259,-2.4332,-25.8567,-19.9922,20.8891,5.9287,34.0295,-8.2574,-8.5591,-19.0802,-5.3437,10.2945,2.1131,
1.4522,5.1012,-0.3117,-18.3788,-16.8162,28.5267,5.5735,36.9268,-2.823,-1.1306,-22.8744,-2.0591,15.6034,13.8399,
-7.0312,7.2644,-14.393,-27.6474,-24.2035,21.3814,-4.1456,24.3399,-10.0623,-5.508,-23.9712,-9.3443,2.3199,5.6007,
-12.5354,17.6941,-19.6787,-27.9645,-34.6043,5.9985,-10.8105,13.9899,-16.3731,-15.0555,-24.5089,-13.7222,-3.7453,-8.5643,
-1.9057,16.6329,-16.5225,-26.2862,-38.4546,12.8246,-15.1009,16.1136,-16.3778,-14.1517,-26.0014,-5.9848,-5.4961,-11.0135,
12.3086,9.7079,-10.5926,-24.7099,-25.2827,26.1551,-7.2812,26.0123,-17.3711,-10.3401,-24.4413,-1.6747,-4.1788,3.7473,
-2.5299,15.0525,-10.9446,-29.1534,-24.7533,18.3878,-7.8319,17.537,-22.2558,-18.6092,-21.9873,-14.4148,-3.9281,17.0796,
-16.4781,6.7406,-24.3879,-31.8494,-36.6029,3.1846,-17.7333,8.0885,-16.4752,-14.0359,-6.5681,-17.9951,-2.2107,1.9548,
-12.7492,-2.5544,-19.1959,-15.8385,-21.5662,13.6358,-2.8412,21.7032,-1.3867,0.90628,7.926,-2.8154,2.8605,-8.2628,
-4.5755,-4.8694,-12.6114,-19.6044,-21.753,10.3483,-1.188,23.5868,-2.0687,-9.7904,-6.6496,-10.3262,-1.7564,0.62923,
-3.313,9.5227,-0.0021435,-13.4891,-24.3993,17.6299,1.8463,25.1347,-7.8711,-3.2764,-17.3866,-14.6456,12.449,7.5055,
-0.15164,20.533,-9.8791,-14.6548,-29.8494,29.4127,-3.203,30.5411,-10.3623,-2.0923,-21.2829,-8.8274,6.4921,-2.8219,
13.9575,19.3015,-6.3233,-12.7875,-25.0949,33.5754,-3.0113,42.8086,-14.6787,-8.8808,-23.9565,3.5557,-0.81148,11.4474,
23.2208,19.6242,2.4523,-13.503,-18.1565,26.1272,-5.2999,40.4629,-19.2316,-10.8172,-27.9519,-3.0788,2.694,24.8606,
18.3703,24.8675,3.7865,-4.296,-6.6953,30.9803,0.45133,41.4924,-7.706,-0.7849,-13.9279,-11.2899,13.8916,12.949,
5.4146,27.326,-8.2933,-3.0512,-12.2211,26.1585,7.3383,42.9534,3.6224,-3.7008,-4.2022,-19.5025,8.1191,3.282,
0.64445,26.1807,-12.2409,-7.3125,-17.9081,19.1562,4.4278,37.9069,4.8858,-2.9855,-6.4194,-15.8631,2.1992,5.5544,
2.088,19.1775,-12.0002,-10.331,-17.3273,24.4276,-1.2702,31.1877,0.14792,-0.33662,-12.455,-2.5645,4.537,0.77634,
-0.50655,14.5692,-13.7495,-11.1929,-14.806,26.4187,2.2638,31.7857,2.6093,-1.7982,-9.2384,7.9616,6.7341,-4.703,
4.9561,16.1647,-13.4183,-2.1255,-10.4608,27.3033,13.4863,35.3118,8.8725,5.718,-8.1903,6.9892,9.7873,9.6792,
8.6103,12.2318,-12.6137,-5.9485,-11.8082,16.7751,15.6411,22.3281,4.3896,6.3629,-20.539,-7.5302,8.213,14.2593,
3.1542,14.4605,-9.8809,-9.5426,-12.0877,1.6686,13.7142,14.0729,8.0763,6.9686,-12.3931,-12.733,11.6703,-0.69628,
3.4587,17.0501,-11.7577,1.4008,-9.8812,2.3332,13.3851,27.3285,5.1229,3.0933,-5.2288,-10.4877,11.4638,-14.7545,
17.3512,28.8686,-1.1743,8.2322,-1.3853,16.2932,22.4609,39.7888,4.8156,0.93263,-9.8536,-6.8949,19.6665,-10.8566,
18.5084,28.6173,0.37794,-4.609,-6.7354,21.4649,20.619,39.8226,7.9834,4.3335,-10.7441,-9.938,17.9923,-17.614,
8.0141,14.553,-13.7447,-6.8027,-15.7151,13.7568,12.9607,29.037,2.0716,8.5187,-2.6917,-7.8609,4.5655,-19.0264,
12.9665,23.0641,-11.6611,4.9647,-8.3519,21.3271,10.7017,32.728,-6.4484,3.5628,-2.0364,-7.883,3.7978,-3.7848,
10.7072,35.7802,-2.5656,5.1616,-8.3441,20.5422,6.6024,41.1361,-3.5918,-2.0842,-7.3465,-4.9403,10.9791,10.5423,
-0.80122,37.8067,-6.3632,-9.2481,-18.709,20.2967,2.2557,49.533,2.5502,1.0048,-5.9177,9.1847,10.3199,24.0097,
-5.6921,21.4383,-17.834,-14.3493,-20.5499,26.9814,2.1199,49.524,-0.56581,-0.04346,-7.5382,14.5601,2.7867,36.6692,
-10.2892,6.052,-30.8639,-15.4633,-14.3784,11.2625,-9.8604,39.6381,-3.4954,-4.9803,-7.0859,9.7355,6.5695,44.2488,
-13.1286,1.787,-31.2104,-8.1153,-3.1439,-3.5132,-13.713,33.803,6.0981,0.7522,4.6981,10.6331,20.2754,27.4938,
-0.48783,10.5693,-18.4722,1.2612,9.8858,-17.4024,-4.0007,22.8843,0.79278,5.6456,1.4527,15.9212,28.1716,11.7442,
13.6414,10.9227,-9.4619,9.0876,23.3926,-30.4583,10.3393,7.4113,-4.1933,11.2329,-6.5365,21.8804,17.5918,25.1396,
2.1793,-2.0795,-14.3274,8.0486,36.0891,-42.7308,23.819,-7.1334,9.3935,15.9912,1.264,14.1478,12.0915,21.9276,
-12.0515,-16.0547,-27.5677,0.65113,48.0237,-54.2669,8.2898,-20.8054,10.805,13.0567,5.1392,-0.8011,6.4266,6.5119,
-6.1175,-24.697,-18.7277,14.7121,59.2423,-65.1109,14.9293,-33.6571,22.0102,26.3733,17.6718,7.4204,20.141,-7.9788,
-1.3061,-31.6115,-13.1588,27.8802,69.7878,-75.3043,19.4653,-45.7377,19.2078,20.0742,15.1298,8.456,31.9959,-17.3289,
7.6627,-32.6773,-3.4797,27.1959,72.1458,-84.886,17.3108,-57.0934,29.9084,20.8458,20.149,8.9371,25.1376,-30.3892,
20.5378,-31.2109,-5.7402,37.9114,70.2863,-93.8928,12.8145,-67.7678,28.6081,21.0768,17.4583,10.8702,21.16,-33.7272,
28.1951,-38.2288,-14.2854,39.5877,75.9471,-102.3593,10.0696,-75.1369,12.7916,5.7122,5.5453,5.2794,16.9269,-17.6035,
38.3573,-35.9341,-7.5012,42.151,78.3048,-99.1593,16.3809,-74.5787,0.44207,0.70187,2.25,-0.9634,8.0102,-10.8918,
27.1654,-29.827,-9.0271,39.6219,65.7045,-93.2097,8.4835,-68.129,1.4031,2.6357,1.1265,-5.8451,0.61511,-12.2142,
11.4355,-21.1234,-5.5225,47.1221,75.8622,-74.7761,10.9375,-49.9412,15.4189,6.4281,15.1589,8.6056,14.6782,-4.5664,
0.15574,-25.7825,-10.1301,45.2828,78.9406,-62.3875,15.2203,-32.8448,24.1008,10.9814,28.3494,18.6839,27.3546,-1.3294,
13.4807,-21.7668,-11.9911,35.1576,60.1042,-54.2,17.7634,-33.8867,10.307,13.7798,15.7347,5.2151,16.3291,12.8504,
26.7719,-18.979,-9.7899,18.9481,46.8923,-56.3803,14.2283,-45.1874,-4.4114,2.5817,0.69065,4.4089,14.8561,24.6485,
30.3269,-20.8033,-9.203,12.6499,44.0783,-47.0709,5.4731,-43.4641,-1.406,-2.5122,-7.4756,13.0334,12.9767,9.0696,
23.5683,-12.641,-14.5773,18.805,45.3841,-30.1467,12.0587,-29.0037,5.5924,8.5036,-11.9661,7.3124,7.2591,15.7109,
19.1911,-9.9071,-3.8252,20.6397,54.5146,-22.6833,25.4352,-25.288,12.1718,22.0934,-8.2851,5.8866,3.8605,11.8052,
6.1862,-18.2027,-3.5961,11.4997,49.2682,-30.2118,17.7111,-35.6233,15.3921,13.5823,3.078,10.4724,0.66587,-3.0031,
-5.5438,-13.6528,-13.7516,7.353,39.8918,-14.2991,9.2406,-32.9916,20.8898,4.3711,6.3501,9.3499,4.0827,-4.0332,
6.1476,-3.4498,-12.4323,17.2831,38.9801,0.65885,14.119,-16.9121,19.1421,12.5051,-6.3782,4.3436,2.356,6.5801,
16.1505,-1.7616,-10.2051,15.7523,28.2445,3.5342,14.7531,-9.2553,4.6583,5.334,-17.3548,-2.3368,-11.8854,2.728,
15.6753,-2.1496,-8.1106,8.3865,23.0926,13.6929,11.3982,-4.2552,3.8851,-8.3203,-2.9782,-2.6913,-22.7543,0.09458,
15.7223,-3.0082,-18.4895,1.9563,16.7685,6.9453,1.8247,-12.8894,1.6769,-11.7721,5.1025,-6.4808,-7.2891,-5.8371,
28.8789,11.0004,-19.3561,9.7409,10.8239,9.4921,2.7028,-12.1161,-0.39965,-7.1148,-6.0692,-8.067,7.2483,-10.4255,
35.7652,16.2678,-9.3047,5.2059,7.2114,23.0226,6.4921,0.46442,3.5758,-8.6634,-3.7295,-6.595,-7.2866,-10.7879,
19.5193,2.944,-10.2277,-8.4417,-3.593,20.8751,2.6453,-4.9967,7.806,-11.6009,7.8536,-4.718,-20.9494,-7.6718,
10.7171,5.2371,-16.0348,-1.5144,-8.8097,19.1297,0.016861,-2.2271,1.9054,-6.46,-1.0135,-0.9777,-16.729,6.8885,
16.4944,11.3432,-14.5785,-7.8439,-10.7514,32.082,-5.4169,7.2903,-11.5447,-7.5542,-15.0526,-6.3518,-4.3659,20.5752,
20.9379,3.2543,0.39624,-13.794,-10.6,35.8116,0.34133,2.4081,-4.4312,-9.5707,-17.8291,-8.4404,-10.5247,5.2406,
16.7177,10.9606,9.4843,1.1337,-2.0615,23.7854,13.161,-6.6264,8.6757,-5.0449,-6.8827,0.95601,-18.7833,-0.778,
10.7761,15.2425,-0.9618,-1.1808,-1.9379,17.4197,-0.46927,2.6607,6.1801,-4.7422,-2.5178,-2.0648,-15.6803,-8.6324,
4.203,0.22791,-11.7701,-15.21,-11.6991,13.4115,-14.5411,16.3296,-3.0807,-9.3967,-3.3547,-15.7695,-5.8495,-22.2145,
2.9628,-8.4043,-9.0874,-10.0754,-9.0217,25.4469,-8.4582,18.3138,0.067134,-3.8939,-2.1654,-7.9084,5.3666,-9.7451,
-0.67219,-4.4428,-11.0129,-17.8667,-2.0606,28.3649,-9.4329,3.8797,5.4954,-5.1425,-4.5053,-1.014,8.5018,-3.7281,
0.35613,3.7253,-7.3881,-16.7942,5.9656,15.7979,-1.952,0.68391,8.1296,3.0686,-3.247,1.0223,8.9797,-10.4185,
3.792,0.045469,-12.3771,-12.3293,-1.7997,0.75007,4.5859,1.1366,0.23359,6.3417,-17.1521,-5.4588,1.0327,-13.2497,
16.8993,-4.4025,-12.1287,-19.9858,3.7401,2.9515,0.85302,3.5377,0.71287,-3.4226,-24.7421,-8.589,2.4524,-4.0594,
17.3671,-1.6691,-5.9682,-22.2434,8.9485,6.2322,-4.6309,5.7947,-2.7867,-7.6615,-17.8238,-6.5919,6.7505,-0.35901,
12.8673,2.8763,-2.1534,-6.8088,1.0038,3.389,3.0557,15.8193,-6.0763,-1.77,-11.3226,-1.7512,5.8513,12.0098,
18.5165,8.1365,-7.4569,6.1684,-1.5267,2.6914,5.3416,18.3269,-2.2549,-5.1206,-13.1125,-4.1154,7.9695,18.697,
11.9728,1.2271,-12.4423,-7.5365,8.9372,3.0242,0.57586,5.8675,-2.6138,-10.2461,-11.8315,-12.2647,1.071,3.4752,
-2.5746,-6.7486,-3.7937,-9.0594,16.303,2.8427,14.6413,-1.3981,9.396,0.24665,1.719,-9.5538,-8.8712,-10.8333,
-1.9259,-10.788,-2.0834,-7.0341,10.8795,4.1539,24.8507,-1.8084,16.241,3.6886,8.037,-5.5228,5.761,-13.591,
3.1282,-7.1781,-7.8854,-7.6005,9.2393,7.8557,10.5191,-3.6759,7.3645,3.4673,3.6029,-12.106,19.5154,-15.7395,
-2.4923,-1.3147,-3.9555,-9.6137,5.2272,7.8776,5.4427,-4.9362,6.4284,3.7535,5.856,-13.8489,7.9245,-23.1909,
-1.3548,-4.1988,3.1959,-9.0364,0.963,7.4054,10.0551,-0.68945,9.0057,-1.4107,5.5051,-7.0914,-6.651,-7.6994,
2.1838,-7.4042,-2.4282,-8.9889,3.374,10.4184,8.9581,-0.15433,2.0456,0.15522,-8.9252,-10.1232,3.4028,-3.0637,
-1.4045,0.44837,-13.6418,-18.8204,-2.2607,11.2745,-2.9387,1.3362,-6.4739,-5.2864,-17.0083,-10.0096,7.6434,-16.9799,
1.149,10.7928,-4.4279,-15.2219,-0.64333,8.1288,-9.1836,15.356,-3.6162,-5.4634,-5.6165,-1.0137,-5.1624,-5.8126,
-0.89541,-1.7083,-0.21077,-9.3696,5.3218,9.6166,-7.6446,2.8044,-5.3747,-6.1236,-11.206,-11.8179,-18.6813,8.6362,
0.1463,1.3581,-2.1736,-10.783,7.9655,23.1396,-1.2594,3.6241,0.87523,-1.8047,-10.5332,-15.0594,-4.7193,2.9085,
-3.3202,7.6969,-4.5125,-16.5563,2.0548,31.8511,1.2864,17.5067,6.2555,0.77283,1.4576,-11.6866,9.6638,-11.366,
-12.5043,-2.1482,-10.6625,-10.1306,1.4378,15.84,0.71448,8.2828,6.3739,1.2202,1.8639,-11.4791,17.703,-24.784,
-8.2973,-4.4886,-17.4305,-7.0535,-2.1053,18.1245,-2.7852,-3.573,13.3993,-0.33474,-5.6557,-2.3951,11.2081,-11.3953,
-15.701,-2.2437,-13.4217,-12.5568,-11.8565,27.9021,-1.6301,10.7414,12.5958,-2.2902,0.61014,2.6877,14.4861,3.3884,
-25.6245,-2.1091,-18.5424,-14.7669,-21.0231,21.2895,-0.54475,24.1969,0.97451,-1.1643,5.5121,-10.3142,12.6295,0.93817,
-12.7277,9.3758,-23.8506,-11.4111,-13.341,22.4809,0.96921,18.7445,3.3848,0.38684,-1.2394,-9.2016,-2.2283,-6.5264,
-11.9645,18.6917,-21.4316,-13.6895,-9.5775,24.096,-2.052,15.6443,6.1457,-5.5629,-10.0541,-2.7229,-16.1946,7.9652,
-20.1362,8.6797,-18.1697,-17.8067,-9.9904,24.6262,2.0222,19.6451,9.728,-3.2531,2.4022,-5.5231,-13.1983,12.1553,
-13.9895,-3.6941,-25.97,-21.6777,-16.3055,21.1727,-6.9887,17.4789,4.2058,-0.095395,2.258,-7.1667,1.6936,-2.674,
-4.2596,2.4545,-25.3994,-18.4011,-27.1802,18.9148,-13.4839,17.4177,-6.9121,-4.0407,-10.718,3.1404,2.3085,9.6105,
-5.4858,8.7275,-13.5041,-21.7423,-28.0186,20.2492,1.4251,14.8909,-4.0281,-6.2675,-12.5451,12.3357,-3.2627,23.1338,
-6.6379,0.79562,-12.2001,-27.846,-24.8562,17.5529,5.0192,7.5767,-0.32916,-6.3852,-6.3592,5.1758,-12.4503,11.5973,
-3.2771,-4.1907,-16.4066,-18.2732,-17.4379,21.4383,-6.1475,15.0241,-2.2854,-1.0636,-4.0026,-0.074263,-7.7532,-3.1986,
-12.4642,-5.421,-15.9165,-20.6336,-17.8733,21.6338,-3.3084,19.5554,0.321,0.48199,-11.1703,-6.4901,1.1083,0.72112,
-20.1127,-6.5775,-11.5037,-26.8043,-21.2462,22.805,6.2729,16.9003,5.7345,1.9348,-4.0798,-6.5949,-6.3665,14.7779,
-25.8195,-6.1828,-16.7405,-26.1836,-19.9714,30.3262,-2.993,21.8133,-1.5241,1.8187,-0.87147,-5.2108,-20.0845,17.077,
-10.1703,8.2882,-16.7241,-23.6246,-15.8101,39.3717,-7.7524,33.3446,-2.4197,-1.2534,-9.7092,-4.8986,-6.755,18.0279,
4.5399,20.8547,-9.2999,-24.6769,-13.3793,39.4792,1.1094,32.8262,6.1213,-1.672,-16.5349,-4.1109,7.7503,19.4159,
-1.2144,17.1337,-11.2107,-24.6775,-14.0578,33.6532,5.4877,32.3379,4.2727,-1.0779,-19.9876,-4.358,3.0629,4.9167,
6.2668,25.489,-5.1057,-9.8625,-9.758,42.0057,5.6522,42.7444,6.4852,0.46805,-13.3561,-5.5778,-11.2209,2.1519,
18.2376,35.3189,0.6329,-4.826,-19.5434,36.0281,-8.0222,34.7474,8.5658,-4.9923,-20.9505,-16.6024,-8.3007,-4.3979,
17.6375,39.6201,2.0767,-0.091209,-21.8285,28.4337,-9.0227,27.2298,3.6066,-8.1505,-22.1627,-13.137,2.5686,-9.5668,
9.171,35.7616,-11.3823,-5.518,-19.0366,27.2214,-1.0721,32.0168,-2.0421,-10.1303,-13.4247,-4.9405,-11.6855,-0.59609,
2.6947,31.6408,-11.6873,-10.1255,-14.9309,34.4777,13.0922,36.0228,11.9085,-0.63291,-0.76615,-0.69308,-14.1697,11.2927,
-9.8147,24.3092,-7.5293,-11.9877,-16.5048,32.9028,3.639,21.5137,13.6637,2.8623,-4.1774,-4.1087,-4.9242,-1.7326,
-1.8176,31.2464,-0.65677,-2.8726,-12.0572,27.4714,-6.9511,22.6926,10.3742,2.1968,2.494,-3.3685,-3.147,9.7307,
7.182,27.3966,2.3461,-6.6513,-6.3952,25.824,3.344,35.431,11.7277,1.0775,15.1849,-4.1539,-5.9207,23.2468,
0.32983,17.3565,-3.2274,-20.3522,-13.4193,29.7073,5.6126,35.5035,7.5663,1.5061,8.841,-2.4229,-1.1212,10.2213,
-4.6285,15.3276,-8.9598,-17.3774,-19.5287,32.8634,-0.65021,31.3973,0.19877,-2.5352,4.3596,1.6735,6.8491,-1.2566,
-5.3383,13.4204,-10.3982,-18.3108,-16.381,34.8426,-6.5382,35.4404,-4.7517,-6.3342,2.1229,5.5241,2.4871,12.9188,
-11.9325,10.6392,-15.7013,-31.0411,-20.3376,30.7761,-15.0355,28.3745,-4.4666,-9.9051,-12.1044,4.2051,-11.7621,23.7248,
-2.8203,17.4087,-7.3505,-18.8074,-14.6721,26.4603,-3.762,25.1903,4.1967,-4.8656,-25.4782,4.4461,-20.1697,8.2013,
9.2015,20.3156,-0.98293,-6.8129,-7.8653,27.8366,7.3288,35.5324,-1.9816,2.3404,-19.9503,-3.7222,-6.1185,9.4624,
8.6499,25.0232,-0.92442,-6.4046,-4.4303,36.043,4.9135,43.278,-4.8257,5.163,-9.8632,-9.4254,8.3487,22.9947,
3.1914,33.3989,-1.8565,-5.0328,-4.1645,38.8199,-3.2833,37.7178,7.3169,7.8167,-14.21,-7.8724,21.9477,17.3925,
3.0009,25.4689,-3.7201,-4.7299,-10.8291,34.5147,-7.0373,30.5162,2.9268,4.3842,-23.2354,-4.4365,6.5309,3.5084,
0.84483,17.0263,-9.4239,-10.3731,-19.0694,27.5053,-6.6151,23.7467,-11.0778,4.1212,-21.8413,-4.1703,-7.961,8.2365,
-3.6506,21.4379,-16.2667,-11.232,-19.4065,25.3612,-6.712,23.8032,-2.0164,6.3436,-15.0976,-6.3898,-7.9771,12.188,
6.9397,23.6084,-9.8585,-4.1387,-4.1421,29.2714,-0.87741,26.8193,12.2046,4.4813,-14.6859,-4.5247,-7.0052,1.0845,
11.4623,16.2654,-7.291,-5.865,-1.6953,28.504,-2.7993,23.2356,6.7556,-2.7016,-17.7553,-5.2412,-20.6849,-13.0806,
6.8236,15.2895,-7.8415,-6.5006,-6.5321,28.7688,-1.6439,25.7925,-1.5518,3.3865,-10.7639,-2.9508,-10.2818,-8.0733,
1.9694,16.8419,-2.9258,-11.5438,-18.4875,17.6594,-0.063004,18.8126,-3.9284,5.6531,-15.5504,-5.2435,-5.2201,6.5111,
6.7893,16.8193,-0.77471,-11.8392,-27.2562,8.6973,-1.0472,13.7324,-9.6192,0.37487,-18.5689,-1.9658,-5.8949,20.2204,
8.3579,14.8217,-5.6677,-12.1163,-20.6823,15.09,0.99066,22.7855,-1.14,0.35238,-6.5892,-6.7864,0.38529,4.9072,
5.3867,16.4021,-5.8209,-10.8956,-14.9961,24.5564,1.425,24.8756,9.3001,2.801,-1.7491,-20.4792,-2.1071,-9.4872,
6.0515,17.3935,3.4188,-8.2664,-12.1204,21.1075,3.3159,16.469,-0.14788,1.6449,-3.6196,-28.3623,-10.8702,-5.9545,
6.6759,18.325,3.2127,-0.85586,-7.4426,15.89,11.0181,18.4444,-2.114,0.55871,-2.4149,-12.5606,-1.3285,1.3173,
-7.8246,14.7562,-11.08,-6.2373,-8.4773,21.3569,4.9252,19.807,-1.4939,-0.95656,-5.7268,2.293,5.172,4.695,
-17.4546,16.8343,-2.7355,-17.7161,0.92085,26.0015,8.5797,22.5696,1.5592,11.9414,1.5313,-7.7712,4.8617,4.4133,
-3.073,16.318,11.5286,-18.1344,3.3353,10.3414,13.4982,19.7341,0.97191,10.7312,1.9332,-10.7622,0.12521,-4.2473,
11.2114,10.8946,6.6145,-7.6626,-6.2486,-4.379,5.2805,13.1173,4.3704,-4.0127,-6.5791,-4.6837,-3.3396,-4.4867,
-3.5613,6.2895,-5.635,-5.2273,-7.8496,-1.5974,-3.9264,13.3173,9.0472,6.8708,-7.1723,-2.4272,-1.1641,-6.193,
-17.4476,-0.50819,-19.3969,-16.2734,-10.8354,-15.6016,-13.0746,8.074,-2.8545,15.8423,-7.2353,-7.7143,-1.5876,-13.2292,
-24.5251,-1.9599,-17.9621,-19.7418,3.9147,-28.7655,-1.9193,6.1073,9.6636,9.4595,1.5946,-2.8067,1.9645,0.89889,
-10.7072,-5.2991,-7.5006,-13.1245,17.7798,-41.1396,2.6411,-6.6054,23.1838,4.4467,8.9068,-1.1565,6.2914,14.945,
-5.62,-5.4749,-0.63028,1.763,30.813,-52.7712,0.01293,-20.3091,11.6433,12.5757,4.9151,0.39415,16.2852,11.8018,
-7.2579,-5.1464,1.3835,14.7205,43.0642,-63.7049,5.9391,-32.1539,8.9697,14.7846,-5.2569,3.334,12.3455,1.2166,
-2.3776,-8.2949,-1.1692,17.2946,52.2361,-73.9826,4.1006,-44.3247,9.9128,3.5258,-7.4112,-2.2983,-2.4952,-0.33861,
11.865,-19.6502,-7.0256,20.2079,56.0155,-83.6437,-5.035,-55.7652,-4.782,-5.5753,0.9355,-14.0135,-1.5808,-0.3183,
25.2531,-18.965,6.7303,27.3912,64.0139,-92.725,2.6754,-66.5193,-8.6689,1.18,5.3241,-11.6914,12.6141,-7.7075,
35.0486,-10.4193,11.7592,29.2045,69.5568,-101.2615,4.9841,-68.1346,2.2235,1.6024,-9.0953,-4.5696,21.4633,-19.5923,
35.4149,-7.3249,9.5719,39.7995,76.7432,-106.5728,6.1668,-65.5282,-2.3552,2.988,-16.1802,-1.8262,9.8042,-12.984,
33.7843,-17.2567,18.3818,45.8078,72.6319,-91.7822,15.1806,-67.0293,-7.6466,9.229,-2.8616,-7.1494,15.6363,-1.8337,
29.7812,-22.1483,30.1195,34.1689,74.2009,-82.3247,22.1718,-63.0075,5.6527,7.6878,-2.6909,-6.7204,18.6491,7.1659,
29.9703,-17.8549,18.4353,26.1927,71.7249,-69.4822,9.9769,-58.2386,8.278,3.2755,-11.4185,-2.3652,10.6166,19.5775,
19.2826,-17.7721,3.2291,24.6211,62.4819,-55.4362,-4.4508,-56.7203,4.8178,6.0425,-7.7704,-3.2118,8.9916,12.4768,
4.0256,-22.1385,-1.1384,23.6381,66.1417,-45.6898,1.2491,-47.8843,13.9116,14.0762,6.7959,4.3897,20.7989,-2.3718,
-6.8105,-30.194,-8.4784,14.8111,60.6915,-35.5401,2.6559,-42.542,6.6566,14.7134,9.0802,11.5341,21.0327,-4.9221,
3.9694,-29.8632,-3.5244,7.5021,49.6422,-25.011,2.0023,-43.4462,-3.1256,5.4343,-2.8239,0.47075,15.326,9.4733,
17.8313,-13.9714,9.0338,10.5097,50.1204,-18.0785,8.3024,-36.3952,0.51871,-3.288,-5.1238,-6.9653,24.7782,18.511,
7.1066,-11.9233,-4.3492,1.9771,35.2602,-19.9564,-4.0488,-34.2115,-8.402,-3.0907,-11.7308,-11.4869,19.3405,3.5722,
3.7172,-24.0489,-5.0763,-1.1055,19.0446,-18.7594,-4.7938,-36.1103,-6.9108,9.9357,-17.9415,-9.8097,4.3506,-4.5446,
13.865,-21.1238,6.5876,1.4306,17.6786,-18.1276,3.8896,-36.4124,7.6039,2.9188,-13.4078,-7.7398,-2.3308,3.1363,
15.5029,-15.4116,-0.22793,-1.125,9.2096,-8.6442,-1.7761,-29.7829,4.9007,-1.7011,-6.183,-10.7327,-2.6847,7.3929,
0.47268,-26.3404,-9.1043,-8.96,-5.4429,-3.1865,-12.5355,-36.886,-8.2344,-6.538,-11.7386,-17.9903,-12.4016,-7.1506,
4.6663,-13.8949,5.542,-5.4584,6.0201,3.9187,1.0577,-37.6358,2.1372,-13.0598,-3.1317,-14.9353,-7.7065,-6.4506,
18.4863,1.0388,14.8165,4.7471,14.5494,3.6836,7.9087,-24.5122,3.9849,-12.2762,1.9947,-20.9537,-4.2801,4.8029,
11.1792,-10.16,4.0495,-4.4282,-0.42354,-1.476,-6.6658,-17.1154,-10.3542,-18.4541,-12.225,-33.7965,-16.8644,-9.5853,
-3.5916,-4.6114,2.8185,-8.1131,-14.4981,10.4652,-11.9205,-8.1859,-16.376,-18.3349,-14.1835,-22.6077,-11.9015,-16.6417,
-7.5489,-2.853,-1.7958,-9.1081,-10.6166,7.368,-8.736,-13.1276,-6.0096,-14.7655,-13.8263,-10.88,-4.7671,-1.5432,
-6.1085,-12.5598,-3.6631,-14.4886,-18.8691,0.012339,-21.0524,-8.3889,-10.5876,-13.8786,-21.8863,-24.0553,-8.4321,12.6494,
3.1481,-0.94118,7.4217,-12.6313,-13.7855,14.1116,-11.8877,6.2144,-12.9163,-9.0954,-13.659,-16.6854,-4.9631,18.7558,
0.98366,5.0418,7.9644,-6.9344,-7.0318,27.3649,-1.2969,14.4602,-18.0678,-4.5982,-8.8885,-6.7943,-4.6654,4.7894,
-11.4231,4.2456,3.0413,-4.0495,-15.9942,30.6124,-1.7128,13.0988,-10.563,3.086,-8.8489,-8.8563,-1.9157,3.0208,
-15.182,5.4726,8.2921,-13.1903,-14.5403,32.2325,-0.12831,24.6592,4.1708,7.3451,-5.8487,-15.7328,2.644,13.2108,
-17.7284,-8.9558,3.3493,-24.7457,-9.2231,29.8057,1.3607,15.7723,7.6001,2.4597,-10.9301,-22.1971,-1.9594,8.9619,
-24.5667,-16.5423,-5.7412,-17.334,-9.6572,18.1393,6.2185,0.99695,6.1566,3.2996,-1.3847,-22.8408,4.0847,-3.4289,
-34.452,-9.13,-10.8295,-13.8251,-11.5475,4.7042,0.41216,0.44338,14.183,5.5714,5.1186,-21.9645,6.3089,-1.7419,
-18.5563,-14.5087,-12.1552,-12.0076,-11.8427,2.4464,-11.4651,0.4163,10.369,3.2616,1.849,-9.7807,-4.9347,12.4626,
-3.3429,-24.9975,-5.0061,-6.8424,-14.5894,7.7319,-10.2844,-1.09,-4.3532,-4.3424,3.2193,-0.79898,-6.1209,25.8149,
0.53722,-10.1628,-5.199,-10.8762,-18.1583,8.7498,-3.2461,8.3592,-18.192,-15.4407,0.55687,-3.2194,5.6062,27.6741,
7.9133,4.547,-6.3688,-13.6809,-8.673,5.755,1.3934,17.2419,-13.1008,-5.1309,-6.8848,-4.5084,4.776,11.9137,
-0.46357,-9.8259,-4.0117,-9.8975,-11.1161,-8.6903,-7.5807,2.1074,-11.3272,4.0665,-14.3747,-16.091,-9.34,-2.9012,
-4.3868,-11.7051,10.329,4.7964,-9.4607,-9.8729,4.7281,0.27596,3.1814,10.737,0.58778,-10.1865,5.3204,9.1751,
-8.0741,-5.0763,9.4383,9.1766,-0.9915,0.597,14.322,1.2474,10.893,0.21525,11.1471,-5.6243,-1.1959,-1.253,
-13.5171,-8.7232,-5.228,-5.474,0.055975,-4.3778,4.5727,-4.754,10.239,-0.78565,18.3803,-16.1524,-15.2241,-15.2778,
-12.2119,-9.6815,-4.1496,-2.4057,-4.3926,-7.5719,-8.049,-5.9505,14.069,11.6088,28.6363,-7.7754,-1.6929,-0.26111,
-21.8505,-18.4844,-8.3449,-6.7057,-14.5004,-9.5869,-17.9373,-11.0262,5.817,-3.1878,16.5468,6.7911,8.7809,13.8546,
-24.9847,-16.8811,-10.3135,-0.8706,-8.1976,-4.5664,-17.3544,-4.9319,4.9747,-3.713,18.0242,14.0152,-1.1302,27.1233,
-28.4241,-20.8068,-8.7072,-8.7204,-12.6452,-8.2444,-23.2276,-3.6485,-1.2508,1.4483,6.0772,8.2348,-9.9524,34.3363,
-21.2869,-20.0526,-4.7279,-15.6059,-20.2828,-5.2805,-20.3532,-6.8873,-3.6459,1.8556,-7.6231,11.1975,-5.8985,25.8558,
-14.0822,-13.9105,-2.4683,-13.6816,-15.1143,-2.9872,-23.0825,-8.4486,-2.4382,3.7198,-8.1528,6.5751,-6.5316,11.4635,
-18.6705,-13.5696,-8.7409,-17.3055,-16.6762,-10.2162,-27.1299,-12.3865,-4.7617,-2.9242,-16.0599,-7.1537,-17.499,12.2579,
-12.6108,-10.7804,-9.204,-16.2671,-13.7006,-4.6647,-11.4021,-9.6682,0.46255,-1.7603,-16.0838,-1.786,-7.5595,10.5339,
-3.4588,-3.7133,1.7195,-10.8459,-1.5188,9.7152,1.3574,-0.69188,5.8676,7.7291,-1.0188,2.7664,6.9941,-0.4694,
-3.2513,-0.52698,10.5064,-9.2076,-8.3422,23.2322,-4.651,10.2152,3.5405,3.3144,12.1057,-2.339,19.6382,4.4973,
-7.5005,-6.9156,3.4557,-15.0754,-21.9417,19.3204,-12.7673,14.0475,2.8338,-5.2807,8.9101,-1.7045,8.0886,12.6237,
-12.977,-10.4513,-2.6781,-16.1464,-23.8105,14.2097,-11.0133,9.2532,2.6643,-2.0009,6.4,-4.5652,-0.29917,8.9033,
-15.6561,-7.3549,-3.9992,-19.6229,-25.8396,15.8264,-13.8102,7.2162,-2.9284,-3.3626,10.4612,-11.7001,2.188,9.8508,
-4.3445,6.4212,1.6735,-9.0617,-10.1892,27.2241,-3.5978,20.8832,8.6062,4.2479,22.1799,3.1019,16.1568,1.851,
-7.542,6.5287,-3.8601,-6.0483,-4.9108,23.1209,-0.91314,21.3338,6.6076,8.4378,9.4898,17.0158,8.0014,-12.36,
-10.5458,-0.28281,-2.1468,-10.1301,-18.7161,21.2399,-4.3147,15.609,1.7663,7.4378,-0.4629,11.0077,-6.5787,-1.4694,
-11.8886,-2.2413,-3.9935,-14.4613,-28.681,17.99,-7.0198,10.722,3.6359,-0.91097,4.5039,-0.51877,7.4227,6.5212,
-2.2852,6.7832,-1.7779,-11.6182,-18.0701,23.8255,-3.6346,21.9322,5.3942,3.0952,17.0747,8.4024,21.0774,2.1785,
-10.0511,-6.4653,-3.6472,-19.8116,-26.8639,17.4565,-12.307,17.6518,-9.0295,-3.0175,2.2212,4.9347,5.7127,7.9748,
-15.3746,-10.028,-5.4039,-16.6464,-27.2267,12.4586,-13.5441,11.6546,-8.2172,-4.812,-12.0121,-0.29942,-8.73,15.3978,
-10.5006,4.6737,-4.0917,-12.6846,-13.7405,20.6011,-7.7925,17.8694,4.1293,5.3543,-3.1174,3.6691,2.9303,0.37396,
1.4883,14.4931,10.2538,-9.4543,-6.4958,33.465,3.0464,26.181,17.2164,12.4418,11.1696,9.8692,14.1138,-2.8338,
-0.082323,8.1913,5.4162,-14.3193,-15.4893,32.1732,-1.5812,14.2393,3.8366,0.33596,6.277,-0.10623,-0.067871,2.7685,
3.8736,18.5644,3.1157,-17.4112,-8.6339,35.1814,0.48968,17.335,0.64289,1.3033,-8.1996,2.8636,-5.0028,6.5534,
9.0744,18.9327,14.288,-14.8852,-6.6337,44.4298,7.8686,21.7282,7.0251,5.6699,-2.0039,2.1981,0.7306,4.6789,
10.9988,12.3645,9.974,-11.5224,-17.5949,39.2952,4.9267,16.9672,4.1338,-2.0786,-0.40194,-7.3176,2.1685,3.9044,
15.2779,15.5731,2.461,-14.7825,-16.5392,27.0599,7.5951,19.9007,13.7633,1.0101,-5.3168,2.011,3.0259,-2.2564,
11.3977,17.6023,5.2768,-10.9321,-14.5589,28.3989,12.0779,20.6817,19.8521,13.7901,-4.0098,15.9903,4.8199,-4.096,
-3.3862,14.5701,-7.8813,-13.2396,-21.5879,34.597,0.48771,16.4773,4.8319,9.9992,-10.6842,6.857,-1.3963,6.0268,
-1.4303,22.0922,-16.7917,-21.829,-20.7864,34.0029,-5.9618,26.8484,-1.8783,2.9789,-15.4755,0.025275,-2.7938,19.7652,
12.7555,18.7912,-8.8702,-20.5198,-23.4907,27.0237,-4.6171,33.139,-4.7286,-6.0898,-3.6814,0.024229,-5.5897,12.8751,
19.127,13.2189,-0.93015,-6.9408,-28.5015,23.921,-0.88279,26.7059,-4.9396,-9.1817,-0.99172,-7.3855,-12.6626,-1.9974,
13.0409,11.4383,-5.8124,-7.5119,-31.7299,18.5348,-2.8049,23.1285,-7.6058,-5.6673,-14.7603,-8.9174,-6.9638,-12.9649,
10.2834,8.776,-9.4151,-13.9757,-24.8876,24.3372,-8.5636,35.8408,-11.1005,-3.3522,-10.9117,2.4822,4.3195,1.9129,
13.1232,8.7437,0.53401,-15.6064,-20.9251,36.977,-13.4825,44.7773,-5.0017,-6.6079,3.843,6.7785,-6.3114,15.8982,
14.3113,10.1936,1.489,-17.634,-24.6086,34.9802,-13.6616,29.2496,-0.75102,-8.1869,10.7493,2.4203,-20.0327,26.7473,
13.4526,6.6194,-2.5509,-23.4895,-21.1561,18.7814,-6.9149,13.6665,-2.681,-7.6957,-3.9957,2.2751,-8.6818,11.0424,
10.6699,2.2708,5.5042,-25.0441,-18.8992,16.9384,-5.512,15.8096,-5.4841,-5.2584,-17.8559,-1.8119,0.72916,4.7253,
8.0542,12.013,7.1495,-16.6265,-20.7278,30.0221,-6.1693,24.7395,-8.1171,-2.9674,-17.2292,-10.5932,-4.2531,3.4547,
10.5345,25.3922,2.7695,-7.7269,-14.5461,35.8514,-5.7991,34.1197,-7.6311,-5.7529,-4.3424,-8.9701,10.1021,17.3474,
11.3837,36.932,3.0971,-6.7695,-12.1911,27.2805,-10.8834,39.4808,-5.691,-13.8035,3.3264,-4.9747,19.5963,30.4066,
10.2069,24.3444,8.3435,-5.8696,-16.8929,27.1249,-3.8106,37.6057,-5.8442,-9.518,-6.2574,-2.2064,4.3205,20.1363,
6.1372,27.3285,-1.5404,-4.0352,-20.3236,31.9182,4.8147,38.8066,-6.9748,-1.5387,-17.2408,2.3707,-10.0387,5.5938,
5.2752,33.097,-12.8068,-12.1898,-19.5979,30.4968,-1.8949,38.948,-3.0991,-0.95259,-15.7126,3.7107,-9.3878,19.3582,
2.4895,19.7524,-7.5936,-14.9152,-10.0263,30.1488,-0.29946,36.1168,5.4831,1.5738,-11.3126,2.9938,-8.3307,32.2967,
-3.0931,16.0975,-9.6077,-14.514,-4.9799,32.7846,6.1383,31.481,5.6479,6.9126,-11.1281,11.21,-9.3126,16.2589,
-3.4013,27.4785,-11.5005,-19.0764,-15.0529,30.3229,-0.64979,31.0735,2.8393,6.9916,-9.9666,13.9946,5.3461,6.1224,
-5.6665,28.299,-6.3652,-10.5231,-19.582,22.0841,-9.0071,30.6908,2.1756,9.0414,-9.8619,2.7837,-0.18462,3.2858,
4.0573,28.0828,3.4,1.4671,-9.0233,23.2284,5.6334,30.3311,12.4164,10.9682,-3.8379,3.1099,-10.5453,-6.2952,
8.2586,22.9406,-1.2493,-11.9562,-15.8907,20.3524,7.9874,23.078,7.2257,-3.7899,-12.0039,-2.509,-13.3699,6.4293,
14.1838,19.0954,2.2834,-17.6586,-22.345,27.528,-6.5918,30.0901,-7.3078,-12.1811,-14.7404,-8.7792,-8.1224,20.1436,
26.1739,15.9732,11.0364,-4.7456,-18.0413,34.7654,-0.49258,40.1372,-16.9688,-5.5237,-13.856,-6.2769,-9.6111,16.1947,
37.9377,28.3501,8.892,-0.016092,-18.4406,36.1368,4.9693,50.0758,-14.4694,-7.662,-14.5064,-5.4065,-11.5037,29.323,
36.1557,37.0204,13.7913,-0.50936,-19.8029,33.4753,-0.76071,61.1713,-13.107,-10.6591,-12.1543,-6.563,-6.3682,41.6637,
26.0843,20.6991,18.8908,1.4972,-13.6762,17.3667,-2.691,52.7848,-14.2965,-10.0195,-21.3025,-9.1327,-15.8641,53.2638,
28.4703,5.3572,16.7689,-0.56863,-1.0031,2.2247,6.36,35.5177,-11.4628,-9.4184,-27.9269,-3.6462,-12.9368,35.968,
22.8111,11.5047,9.8367,-5.473,13.1571,-12.0087,11.9054,19.2866,-10.775,-4.9022,-14.3978,1.5111,1.9395,35.2426,
7.3424,10.8154,-4.5816,-12.0592,22.9622,-25.3882,0.32551,4.0294,-10.1285,-4.6081,-1.6804,-4.5056,-5.3624,19.028,
-5.6677,-3.9336,-10.2342,-4.4211,31.4616,-37.9649,-7.5961,-10.3124,0.35629,-0.38061,-0.59251,-4.2353,-7.0162,3.7863,
-6.3152,-17.7975,-11.5956,8.6847,43.6739,-49.787,-8.1278,-23.7936,4.2859,0.62975,2.4065,-0.030128,7.5048,7.0646,
-1.9857,-30.0163,-19.7899,1.2496,55.1534,-60.8998,-9.6156,-36.466,-6.8363,-7.3096,8.1882,-1.0163,20.6116,9.6037,
8.5052,-30.6851,-19.0963,-4.2586,62.6611,-71.3458,-4.5939,-48.378,-6.9199,-6.3773,5.2281,3.4894,10.9791,6.5587,
1.5746,-42.944,-9.5542,10.0969,63.3467,-81.1651,-5.8,-59.5754,-5.0229,-5.5004,-6.4449,-1.1642,-0.050909,-1.2426,
-0.4954,-42.5651,1.8841,23.5911,61.5214,-90.3952,-8.4151,-70.1008,-1.7585,0.75615,-1.1196,2.8562,0.93966,2.7825,
-5.4047,-40.0108,-9.0945,28.053,54.8661,-99.0715,-10.8741,-78.2688,-1.6535,-1.2657,-5.9915,9.5988,-7.0192,-0.34843,
0.84612,-39.5856,-4.5978,17.4808,57.5007,-107.2272,-4.2952,-71.5972,4.3722,1.7742,0.29455,10.9984,-2.647,-0.32705,
14.8954,-37.2105,6.5436,25.3215,58.0017,-103.4646,-10.951,-70.2648,-0.82862,2.6553,14.3769,0.46051,2.4508,0.68009,
27.0655,-32.5086,10.5962,34.1744,52.0523,-91.824,-9.7997,-66.5422,-3.2482,0.026719,13.7375,-1.0479,4.7735,2.121,
26.429,-29.5706,10.948,30.148,44.9782,-72.2145,-1.3107,-62.5497,1.8853,-2.9384,-1.1867,0.0024618,13.3766,1.0063,
23.3616,-27.3021,11.7728,16.9803,48.7007,-57.7813,-9.6273,-59.2909,3.2548,-2.2678,10.5152,2.4716,21.9578,2.4276,
8.6251,-27.1457,7.6097,15.4672,43.3094,-56.7837,-20.4095,-54.2517,0.58933,-0.65003,22.2306,16.4233,17.1835,5.7397,
-5.9924,-30.9497,-4.2067,17.996,27.3751,-46.9564,-17.7031,-48.5274,4.9992,-1.1053,16.4525,28.0075,12.6948,13.7906,
-13.7582,-25.1417,-4.9422,10.0017,24.7451,-30.039,-9.7264,-40.6772,7.6618,1.9246,15.4644,20.4,21.8111,27.0632,
-13.9202,-21.6573,-5.6332,-4.6984,21.2853,-22.5816,-11.1179,-41.1991,-6.8979,-0.1669,9.598,5.076,16.5514,27.1435,
-22.9621,-21.3463,-6.2828,-4.1446,17.0447,-22.2142,-4.5248,-38.7272,-8.1871,0.83158,-0.85495,-3.8462,3.7053,13.6618,
-25.5354,-22.0405,-4.9183,2.0302,12.071,-17.9179,-8.2043,-26.5265,2.1812,2.7567,2.1598,-3.6154,3.483,6.9161,
-13.1377,-20.7181,-2.6477,-1.0542,11.3467,-14.8678,-16.6016,-11.1059,2.0503,-0.37218,12.8948,-0.43591,17.374,9.4636,
-3.9537,-19.9688,4.9195,-5.4367,8.1962,-16.4454,-3.2587,-20.8113,1.4335,-2.8186,4.7129,-13.7441,16.5534,-4.4385,
-3.7164,-16.7956,6.6003,-4.122,7.7044,-14.4703,9.7774,-33.6626,0.35998,1.3015,-9.6699,-23.785,1.4602,-18.2722,
-5.4685,-16.7754,0.27774,-4.8622,6.2546,-0.76147,0.30121,-26.4324,-2.6251,-0.75164,-9.8053,-12.4799,-0.331,-30.733,
-4.6471,-9.3486,-6.1602,-8.0282,-5.4804,12.619,-11.0766,-10.7464,-8.8879,-10.0913,-11.6872,-7.2868,-3.7684,-24.4447,
2.5458,5.3123,-6.7781,-9.522,-19.2516,13.8374,-12.3866,-5.9279,-10.3301,-11.4613,-19.8755,-15.7386,-16.3833,-8.878,
-0.56999,-0.21686,-7.3594,-10.9262,-24.7391,7.0806,-14.6074,-9.5237,-6.7473,-11.7616,-14.732,-19.7333,-11.4488,-1.7018,
-5.9686,-5.6366,0.49094,-2.8628,-10.9084,19.9906,-7.3106,5.1477,2.0529,-2.6596,-1.5008,-5.2155,3.3381,-15.6997,
-5.1167,8.8016,7.8698,-5.1599,-12.7227,23.2359,0.53627,8.5185,4.3994,2.9322,0.070552,-2.4328,4.8414,-19.4257,
-2.3404,17.8801,8.8793,-7.3195,-19.3671,31.2255,-0.97765,16.4036,5.6172,1.2755,14.1663,-1.7926,-9.5491,-4.1602,
-10.5953,12.3629,7.8523,-4.4111,-18.6993,43.452,0.56369,29.5194,4.7869,4.6557,27.4163,7.6987,4.1363,10.1894,
-24.0596,6.6817,8.3696,-10.0734,-19.5524,36.1287,0.52987,26.983,5.4872,10.3034,13.3764,4.2733,17.9882,6.0726,
-22.8388,7.763,4.4097,-11.9378,-13.9345,23.5892,1.9794,12.0288,11.5787,12.154,3.1895,-0.42786,21.0827,-6.6385,
-11.5909,7.2968,3.1572,-13.198,-0.25832,26.1253,7.7862,15.2585,14.8345,12.4127,13.8632,5.5243,5.7177,3.6364,
-9.908,11.7984,15.8088,-12.4052,0.74564,21.5943,8.3075,18.294,9.9935,10.6805,14.0199,5.1929,8.6091,3.4191,
-3.8812,17.5103,18.3175,-2.2776,-9.6709,10.9153,7.3153,14.7267,6.9241,2.6314,9.7214,1.424,14.5129,-10.886,
3.7604,4.1124,3.1185,-6.5861,-10.5724,-2.0878,-1.5199,2.4833,5.0269,-2.9593,3.7044,-2.1191,6.2333,-11.9374,
3.041,-2.5551,-0.74822,-20.291,-9.4443,-6.4073,-15.5287,-10.0125,-6.634,-2.288,-7.8766,-9.3993,4.3781,2.8788,
-3.5617,4.0195,11.643,-13.8635,-4.4324,3.3609,-4.4485,-3.979,-4.7542,4.2696,5.9312,-2.4151,16.4627,14.2877,
-13.7198,-2.6425,8.4756,-0.68398,3.2419,-7.2116,2.2401,1.693,2.9403,3.5197,14.9587,5.1381,14.9811,7.9982,
-5.4883,-1.9892,2.5343,-0.14918,5.5171,-20.8789,-10.242,1.0976,5.2326,2.8147,5.6653,4.3361,17.5395,15.9141,
3.7305,0.10424,-3.5443,-8.0423,-7.6555,-24.7875,-14.567,-7.8587,0.96767,-1.3052,-1.5891,-6.7896,15.4987,7.0572,
1.0379,0.59269,-0.86186,-3.115,0.21215,-14.9044,0.40703,-7.8809,4.3669,0.2544,12.6063,1.026,15.0635,1.2005,
-2.4816,-0.92415,5.6097,1.5167,14.2994,-7.5894,9.0021,2.9637,11.5131,1.7214,25.9499,13.3113,22.5555,11.5003,
2.112,-5.3144,4.7789,0.93196,9.2185,-6.6403,3.0288,5.2547,7.3651,-0.85166,14.4667,8.0678,17.7449,11.304,
-0.9777,-3.02,-1.4339,-1.0995,-3.1872,-4.2664,2.8475,-2.9622,1.9842,2.1625,11.6232,1.6572,9.7661,2.7242,
-12.2788,4.5699,1.1218,0.44825,-2.5017,8.3369,4.1584,-1.3027,4.3353,2.5269,18.3345,6.003,15.6005,5.03,
-13.5176,-0.6433,5.0051,4.3728,0.61142,14.7507,-4.9811,6.678,5.0623,-1.5762,16.2465,3.6673,13.6764,10.6547,
-2.3348,-14.7047,0.26047,3.6158,-0.90654,4.4814,-14.0665,1.8316,1.3013,-0.98689,7.8634,-4.9494,0.50904,7.5457,
3.7314,-12.0692,-2.7187,-0.55219,1.1229,1.25,-2.357,-9.1429,-1.7403,-0.92767,5.4156,7.2006,12.3315,-0.80906,
2.52,2.7549,-0.5805,-2.4941,3.0315,6.1135,7.6624,-1.6808,4.2911,-1.8605,13.9802,16.6466,25.6917,-0.76051,
4.3443,9.2327,6.3693,-0.36895,-3.0769,5.7472,-1.6873,12.5201,12.9237,-1.7484,14.1294,1.5478,16.9642,3.2366,
8.0346,4.7277,5.9872,-6.2738,-16.7213,5.4024,-6.5246,17.4244,2.2702,-5.5945,3.4046,-7.1632,1.8463,6.9934,
4.5891,9.3826,0.68845,-18.7379,-15.7181,13.9678,-2.1821,16.379,-5.768,-2.2953,5.1753,3.1437,5.9585,4.5978,
-2.1066,12.2764,-0.83461,-17.1204,-5.3912,19.55,5.3566,17.8655,1.9859,4.2627,7.3341,3.4493,15.9723,-9.778,
6.9099,1.6632,-4.7351,-10.1657,-16.9203,18.3774,-3.8539,15.8056,-6.0348,-4.8831,-3.971,2.2543,5.1364,-14.3527,
15.3858,1.5634,-1.4875,-13.5068,-23.8071,23.2009,-15.4757,20.7842,-8.6363,-10.5162,-5.7078,11.9971,-2.0863,0.60849,
6.5601,7.3962,7.4918,-12.6968,-15.4646,28.7228,-3.6821,26.4512,1.7595,-4.9471,3.5238,10.2893,1.9904,14.672,
2.7092,6.4577,-0.36599,-11.4413,-7.1285,28.4817,7.8981,20.4194,4.1236,-1.193,6.7696,1.2761,2.3647,-0.30834,
4.028,5.5765,-12.6913,-14.212,-9.1705,26.279,3.967,13.7619,-1.5561,-2.6027,4.8821,-9.1722,0.74061,-14.3898,
3.7868,4.2548,-7.9788,-10.3953,-22.7203,21.7383,-3.1851,19.8502,-2.4507,-2.447,2.6137,-7.6339,9.5862,-1.6725,
5.0408,0.54135,1.8832,-8.2904,-27.5064,17.9643,-5.4637,30.0185,-1.8099,-3.7815,1.9622,6.9241,7.5297,-9.9688,
1.7754,1.4969,2.7582,-11.7444,-13.015,19.8504,-5.1364,35.1314,-4.6653,-0.59159,1.8449,16.6081,4.114,4.7293,
-5.7394,7.8278,0.12299,-8.57,-14.7038,31.0062,-2.3584,35.4933,-2.9031,6.8522,3.2155,17.0938,16.2149,18.5455,
-3.9133,9.8274,-4.3292,-1.6355,-20.2419,36.5536,4.2033,33.857,3.6913,4.9593,3.5168,13.5989,13.7593,11.9514,
-1.2093,11.707,-0.61263,-5.9826,-6.6801,37.8181,4.4444,41.2093,2.9756,2.1925,5.7751,0.4357,-1.1662,-1.113,
-5.0877,11.9921,13.5241,-11.5497,-5.2917,27.647,1.2152,42.6878,-2.1414,6.0119,6.4161,-0.57796,-2.3061,10.8068,
2.1321,6.3341,10.4662,-9.8692,-19.0742,15.1227,-3.7962,31.237,-3.988,-1.2633,2.081,8.3463,3.7593,-2.6821,
16.1041,4.9665,2.9247,-8.2886,-19.6338,22.1173,-0.60496,22.4483,-7.6997,-10.077,-2.9833,7.8455,8.4722,-12.3983,
25.2377,0.22373,11.145,-15.1996,-13.0226,31.1621,0.91261,21.5951,-10.695,-7.9911,-4.2856,6.881,15.3722,-10.1731,
17.3037,1.6916,6.0315,-18.7324,-20.637,28.7986,-3.5869,20.7941,-8.572,-4.0544,-1.5587,-2.9152,13.9561,-21.9095,
18.7347,14.9249,-1.7391,-10.2006,-20.8805,24.6014,6.9996,16.0887,-6.576,-7.2679,-0.9719,-16.8403,7.686,-16.1497,
27.4872,24.8944,11.2062,-11.5641,-8.7627,24.1124,14.4812,15.1229,-8.1569,-9.7958,-1.9016,-9.1391,12.1638,-7.2792,
23.8634,16.4867,8.5584,-22.7238,-14.1634,23.6536,-0.21624,18.1671,-11.618,-8.2201,-5.738,1.2878,15.3845,-20.671,
14.0358,1.3975,-3.3144,-16.9146,-26.6484,22.7281,-1.6845,17.5708,-9.4397,-1.3061,-13.7895,1.7043,11.0051,-13.01,
-0.90632,-4.3414,-6.5728,-13.431,-34.4333,19.8832,3.8498,13.0602,-5.416,-0.734,-19.3829,1.1082,-3.7552,-3.8336,
-11.4465,10.0191,-1.7327,-12.1304,-21.008,27.086,2.1366,26.3766,9.0089,6.7183,-4.1199,5.4865,-7.2099,-17.7036,
-1.3764,10.1345,-8.0495,-11.8973,-12.3397,28.9181,-3.4239,38.894,5.2339,0.88292,5.7333,2.6876,-9.247,-19.3339,
12.5357,17.428,-4.6035,-9.2079,-17.5259,23.2315,-4.2065,40.9555,-6.9336,-6.085,-8.7107,10.4288,-5.7292,-4.0738,
0.42379,21.8151,2.093,-13.1007,-26.8456,19.3683,-7.4118,35.0414,-4.0484,-5.2257,-10.3858,0.41933,-3.9037,-11.5086,
-6.0219,21.0004,13.3262,-5.8934,-14.8636,28.5775,7.1329,42.3227,10.2945,8.4226,4.3373,-13.7058,7.6903,-24.1529,
-5.6601,5.9118,0.67406,-9.4913,-12.9838,22.9123,7.9162,25.6834,5.9486,2.9783,2.3239,-11.1303,5.2534,-17.7647,
-5.321,5.5576,-6.2809,-10.8973,-18.1313,18.5746,1.5147,10.0424,-2.3098,0.82406,-11.6441,-4.5359,4.9377,-12.7474,
-7.4715,13.619,-0.47128,-12.7132,-20.5006,19.9289,-0.058434,23.5398,-0.68997,3.2444,-13.4152,-2.7825,4.1477,-8.5262,
-4.5535,15.2716,4.0018,-10.4682,-15.8138,13.3009,-0.54869,25.3619,-5.0943,0.57996,-14.0916,6.7678,-5.4854,-12.4594,
1.1525,15.837,-0.68264,-5.3949,-2.5168,8.0585,-1.0091,14.4573,-13.1839,2.0269,-18.6784,9.8194,-11.5757,-9.2416,
1.5771,20.3191,-11.0139,-12.4795,-1.8729,21.675,0.53277,22.9732,-15.8502,5.3626,-21.0154,-0.154,-2.4853,4.6472,
4.446,25.0269,-4.4266,-17.6577,-12.6256,34.4745,1.4883,29.4969,-9.9606,0.10226,-23.7055,-6.0708,-4.3122,8.3194,
16.0318,35.3788,4.7291,-6.7207,-9.8926,46.1855,-0.57649,33.6536,-6.399,-2.8678,-17.3441,8.122,-11.955,21.9202,
20.9969,42.1457,-4.4442,-3.354,-4.36,38.4758,4.3966,35.5854,-7.9911,-0.71979,-14.328,13.5617,2.8623,34.705,
7.8836,39.6165,-12.0801,-14.0178,-11.0129,31.2282,6.1083,24.5602,-8.4996,0.31139,-20.3828,8.7965,15.2597,22.2018,
-6.4175,31.3134,-11.3553,-15.1527,-16.2787,30.3421,-2.1602,19.1356,-7.0011,-0.69576,-22.1229,9.2562,0.24409,8.0291,
-8.0085,25.4836,-1.7844,-4.3665,-6.4124,21.607,-2.0306,32.0875,2.3085,1.322,-10.9184,10.6768,-2.4631,9.5224,
-0.11968,18.5213,-3.1586,-11.5127,-6.5219,6.2106,-7.342,25.4455,-0.29977,-6.1656,-10.7566,3.6155,7.069,-5.1489,
11.2473,18.8928,-4.4499,-10.3268,0.29111,-8.262,-9.3698,12.56,-3.7386,-3.3264,-9.617,4.8803,8.1266,-4.5676,
2.6699,11.8317,-4.1834,-1.8056,14.3736,-21.8663,-2.882,4.8914,-5.4898,-1.1513,-4.1019,0.63597,-6.461,9.8064,
-8.3558,-2.9782,1.0061,3.2412,27.6112,-34.6543,9.144,-9.2302,1.7532,1.8813,-4.8438,-7.3042,-15.6799,-2.9074,
-12.793,-16.8995,2.9218,1.0717,40.0546,-46.6751,2.6693,-22.7764,4.6115,6.7069,-10.4792,-6.866,-0.63914,-16.8329,
-11.0379,-19.2936,-1.2046,7.921,51.7513,-57.9746,-7.3689,-35.5098,-7.5182,6.3045,-5.8994,-11.3925,13.4992,-25.4291,
-0.99184,-26.5323,4.2995,21.5457,62.7462,-68.5961,-0.50648,-47.4792,-10.5239,3.457,-2.0887,-3.3012,2.7626,-19.4581,
-3.8958,-39.0404,5.03,24.4273,73.0814,-78.5803,-8.3781,-58.7304,-1.9905,0.28604,-6.9019,7.7624,-7.2802,-14.3396,
-6.6251,-50.2546,-3.1738,22.9621,75.4641,-87.9655,-12.8135,-69.3066,8.0065,6.1963,7.3412,15.1992,7.2566,-6.5642,
-0.30154,-49.2153,-6.9349,24.5469,73.8988,-96.7876,-7.1062,-79.2482,1.5991,3.8486,21.0008,10.3362,20.9212,-15.0608,
8.6066,-50.2129,2.3712,26.0371,78.3549,-105.0803,-9.6428,-84.2244,-5.4109,-2.3089,18.4818,1.8135,18.1355,-7.2432,
10.5599,-51.6458,10.6248,28.9197,73.1599,-112.8755,-11.534,-79.6647,0.34702,3.262,13.9156,3.1869,6.6756,7.2914,
1.5301,-51.0164,6.5305,25.7037,62.35,-110.2548,-13.3112,-88.9848,1.8079,5.5355,24.4395,12.3795,9.7328,14.4845,
1.933,-43.5097,-6.2086,16.7532,64.0413,-103.1453,-16.9573,-96.2149,-3.7338,0.75862,21.4918,17.069,17.5446,7.1957,
15.917,-36.9485,-7.8116,16.7351,74.2988,-88.0671,-5.0748,-78.5894,-1.5342,1.7011,6.1023,14.0694,17.4799,16.6415,
25.0623,-43.1274,-2.8977,18.2007,68.0882,-78.3378,-0.32461,-60.5388,-5.887,2.0928,-5.3517,13.7199,11.9864,14.1617,
19.6066,-36.5888,0.23969,17.1087,52.1498,-61.7849,-4.2571,-58.8824,-5.5337,0.9797,5.835,14.8718,13.2422,14.2995,
15.4672,-20.2934,-2.7387,17.0701,50.0088,-46.2243,-3.0137,-60.2885,5.6633,0.92044,17.3374,10.028,11.4597,17.3921,
17.0084,-21.8165,-9.9826,15.5517,47.5016,-44.9326,-1.3511,-54.2019,3.8418,0.37099,10.8644,4.981,13.2414,4.9888,
16.9754,-25.4461,-5.4326,15.6061,35.7619,-42.2367,-5.2211,-48.9738,-3.3023,0.34967,-3.8874,-6.1824,12.4469,-9.4105,
16.4511,-16.5115,2.3016,16.1515,33.122,-28.3436,-9.353,-43.5661,-5.5734,-2.1406,-14.742,-14.2077,-2.3999,-15.9818,
11.513,-16.5083,0.18846,11.2314,35.0857,-14.79,-6.8159,-35.0261,-4.2515,-3.0006,-6.9435,-19.2823,-13.3438,-14.0354,
9.8343,-16.5058,0.17762,11.5455,30.0175,-7.9751,-1.4679,-30.9481,-2.0209,1.1309,-2.5749,-14.1738,1.5569,-16.1563,
11.2197,-16.5035,5.105,9.8648,22.2899,-13.4231,-6.3189,-23.1647,-6.8386,-1.9,-15.2619,0.77659,12.058,-16.1749,
14.9918,-14.0315,13.195,5.8161,22.4343,-8.1734,-8.409,-12.3919,-8.8976,-4.2562,-10.8889,14.7809,3.9258,-1.1044,
12.6101,-12.6959,8.9451,9.9119,11.704,-4.2258,-4.4481,-20.0442,-11.821,-1.5311,1.1237,-0.20598,3.1965,13.0619,
0.49464,-10.4524,1.0006,8.823,7.545,-6.4415,-8.6255,-32.1764,-8.6425,3.006,-0.42549,-8.8117,13.376,12.229,
-13.635,-12.2945,-0.5412,-5.8064,17.4636,-3.5857,-17.4918,-24.813,-1.7036,2.3315,-3.8577,5.817,3.1896,11.0011,
-20.448,-15.0136,-4.953,-10.1256,5.0569,-2.8764,-14.9605,-18.879,-4.0707,1.6973,-1.156,15.074,-11.1017,11.8237,
-22.1841,-11.1498,-9.5949,-7.5416,-9.3465,4.2103,-12.0874,-22.6853,-5.802,4.5595,-3.0622,0.069606,-24.4865,5.1877,
-12.9506,-8.5053,-9.0192,-14.0041,-13.4533,17.7862,-16.3012,-13.4216,-9.4044,0.33441,-14.732,-14.0346,-14.1273,-1.051,
0.66654,-5.0319,-0.57598,-10.2008,-6.7195,21.658,-13.3476,0.22469,-13.7791,-2.6487,-20.7621,-9.6866,-12.2917,-6.9145,
-3.3245,-1.7665,-1.5289,-7.6128,-7.3039,20.3585,0.29384,6.1373,-8.0138,2.4488,-14.5778,-7.1294,2.2739,-20.3277,
-16.4593,-2.1543,-15.5372,-19.5028,-17.2374,25.5578,3.7344,6.2637,0.86372,3.7841,-7.2824,-17.0734,9.5467,-21.5768,
-21.8916,-7.4573,-18.2845,-22.7774,-14.721,18.5911,3.0156,5.3932,2.2932,1.0873,-7.3392,-20.4938,-5.1261,-16.8259,
-19.0973,0.39792,-6.8166,-12.028,-3.4673,6.1159,8.2675,10.5024,0.67384,6.4548,-4.4301,-9.8804,-10.475,-27.1761,
-17.4572,11.7329,-3.9379,-6.861,-8.6911,16.1212,1.3511,17.28,0.13918,9.5243,3.244,-4.8432,-0.46274,-29.9898,
-25.2998,7.0783,-5.6771,-9.4124,-13.1087,23.0554,1.2705,11.3052,3.0948,7.9658,1.0743,-6.5272,-12.2876,-14.3619,
-37.1166,3.1959,-16.6958,-14.2804,-6.8894,7.5721,4.6511,-1.7204,9.3294,9.9571,-4.4229,-2.6788,-12.0445,-18.9329,
-32.9136,9.9187,-16.6816,-7.4966,-1.5375,-1.9941,-4.5175,4.3098,11.7331,10.3472,-2.182,1.4329,2.7781,-29.65,
-16.8388,2.9033,-12.2239,-4.5775,-10.829,-2.3687,-18.3465,7.508,-0.33062,3.3061,-7.4839,-6.0618,-8.0308,-13.771,
-4.7411,-5.1725,-4.5759,-8.2544,-13.1423,-10.1281,-9.5664,-1.8325,-9.2008,3.1073,-8.0223,-5.6976,-12.488,1.1553,
-1.4936,-2.8876,1.6247,-6.7711,-5.4397,-13.4719,5.1075,-11.6001,-3.7098,3.9088,-4.5784,-1.4052,-0.87364,-13.0141,
-5.8483,0.74341,-2.9176,-4.8831,5.258,-10.1943,6.0114,-16.3368,-2.9939,1.205,-10.724,-3.7902,1.648,-26.3332,
-4.5099,-0.28965,-6.6936,-6.5661,4.9425,-10.5702,-7.1908,-11.4056,-7.7528,4.0953,-16.0071,-7.5138,-2.4019,-10.6532,
-0.78157,-1.7531,-5.7977,-7.6529,-7.7004,-12.4052,-7.2526,-13.1906,-6.7934,0.39277,-23.442,-8.5437,-9.6655,4.086,
-6.1679,0.8209,-5.9441,-3.7374,-1.8061,-7.2161,-4.3487,-15.8564,-0.95349,0.86296,-27.4687,-7.5383,-9.5794,-10.2592,
-6.7858,-3.1789,-7.5625,1.4258,10.1558,-2.8317,-8.0383,-5.0275,-0.89581,7.7262,-28.7836,-15.9751,-3.0781,-23.7436,
-2.4272,0.96238,-6.1212,1.3407,-2.3071,0.30124,-16.446,9.1028,-4.7935,1.3361,-31.0076,-18.9681,-4.8689,-28.2455,
-4.7508,15.0046,-9.2112,-4.1725,-8.5889,2.7524,-15.9526,12.0143,-2.0367,-1.2143,-25.6899,-6.4702,-5.071,-12.4508,
-7.9235,14.8209,-16.0663,-6.3914,5.2612,1.1055,-4.6241,-1.0538,1.5433,6.2673,-23.6547,-2.6252,-6.2485,-9.9997,
-1.0273,-0.16835,-12.6331,-9.4652,6.4268,7.46,2.0732,-15.0906,-4.9701,2.434,-33.5947,-14.8145,-5.3798,-23.4997,
8.9118,-2.3565,-8.9121,-10.8728,1.1022,13.9264,5.9003,-11.4449,-5.6599,-0.67506,-36.5181,-28.0256,3.833,-36.1897,
9.3646,5.6878,-16.2789,-8.2454,-6.865,8.1523,2.5827,3.3418,-2.3568,-3.5981,-36.302,-40.4441,-10.497,-48.1183,
20.6558,17.1987,-12.3391,-1.8236,-6.4541,18.5277,0.45274,13.7358,-2.2154,-3.3822,-38.0754,-46.3646,-23.9672,-59.3312,
33.5165,29.0082,0.25426,-3.6902,5.7862,31.5161,-1.5504,12.9117,-5.0459,-0.21574,-39.7419,-29.4827,-14.0842,-69.8714,
45.6055,41.3678,5.1775,-3.4688,12.3536,43.7251,0.51766,26.237,-9.6817,4.7357,-36.3698,-16.1326,0.86083,-51.5791,
56.9692,52.9857,10.2997,6.1226,7.1676,55.2016,10.8584,38.7628,-8.6071,3.9578,-36.6569,-14.6704,2.0195,-34.3843,
57.1824,55.6849,8.6942,14.6462,-1.164,47.6189,9.2198,36.3883,-6.1151,1.7449,-38.4081,-18.7287,-4.0282,-45.3355,
54.2443,48.8856,8.6658,9.3218,1.3746,46.243,8.1719,39.6373,-6.242,2.1339,-37.5858,-14.1482,5.5968,-48.0486,
55.4348,50.3977,14.5666,-2.5964,-0.18962,52.8522,12.1269,36.7649,-3.3982,-0.46338,-42.7389,-16.7566,9.7062,-31.0657,
38.2802,38.4838,8.7536,-6.3921,-4.1288,42.767,8.4362,20.459,-5.1698,1.5399,-44.1256,-29.5798,6.1608,-20.0894,
21.8834,22.0748,-2.1429,-12.4293,-3.3873,26.101,0.52177,15.0581,-5.3534,1.9413,-41.9718,-35.2132,1.3455,-32.9841,
16.8908,11.1447,-3.4956,-16.1278,-7.6293,21.8429,-0.0037609,28.2546,0.40058,-3.6079,-50.8123,-35.5692,-0.21607,-24.8066,
14.3961,18.8718,-7.7307,-7.7519,-13.5914,34.6323,4.4422,38.1409,5.8098,-1.9102,-47.2698,-27.0148,6.2176,-9.2182,
-0.56768,15.2697,-16.6506,-9.7561,-18.2091,44.1365,0.71839,38.3222,4.9665,6.6012,-35.0499,-11.2939,14.2404,5.4349,
-14.6336,17.3171,-19.603,-20.0362,-22.0551,28.6468,-4.2642,29.1084,3.681,9.1676,-33.9349,-0.51643,18.3245,4.5659,
-27.8556,23.1921,-13.4883,-14.8835,-10.8543,27.9159,6.8567,23.4104,17.5601,19.4826,-28.9357,2.4776,19.2005,4.2915,
-31.2969,7.7005,-19.0988,-13.4963,-6.7457,24.7597,5.9516,21.5129,24.6309,23.7469,-29.6689,-0.13987,14.5912,17.3693,
-31.3946,3.0652,-22.8919,-13.674,-19.182,19.3226,-6.2581,18.2467,9.053,14.4196,-36.7783,-3.095,20.6298,24.2296,
-24.5724,11.7708,-18.5549,-7.915,-22.9697,19.1517,-7.8586,18.1394,5.8178,14.5429,-41.4861,-2.9093,16.4295,13.8854,
-16.6773,13.5343,-8.0578,-1.0194,-9.2447,31.337,6.7129,31.151,19.5687,27.7703,-35.5397,8.6246,5.0719,18.485,
-20.6157,10.7467,-3.6233,-5.8972,-9.678,39.3343,19.374,43.382,32.4946,39.167,-29.4563,7.1191,12.6696,26.2659,
-33.4787,3.681,-12.79,-19.6434,-16.5053,25.6147,6.852,26.679,24.0762,22.717,-40.0359,-7.408,24.2565,10.59,
-36.6313,9.3873,-19.9244,-30.5406,-10.5758,23.0905,-4.4244,22.8309,11.7663,7.2539,-45.5356,-21.0636,17.8619,5.7808,
-29.0007,12.2809,-16.2596,-22.2874,-15.3745,28.1254,6.2124,35.561,20.4441,9.3371,-43.2977,-15.3058,9.3824,19.5339,
-40.1017,-2.556,-29.3841,-35.0502,-28.552,13.5968,-4.0379,29.6991,5.388,2.8503,-54.7998,-18.3385,11.7824,19.5727,
-44.1159,-2.6249,-41.721,-47.0472,-37.9267,12.2873,-14.1665,19.5214,-9.0353,-3.7405,-61.6117,-23.6585,25.1755,19.8796,
-40.4809,4.4471,-46.0831,-57.0162,-37.6262,6.6115,-23.1945,17.3626,-11.6785,-12.4065,-72.015,-34.092,9.565,31.5283,
-34.101,-0.75923,-36.4041,-42.7302,-34.3811,5.2273,-19.8269,26.1979,-2.0882,1.1784,-81.7941,-19.2059,-1.3798,43.7366,
-46.155,-14.8137,-48.3199,-48.5617,-30.8365,11.3344,-23.082,22.1572,-3.4442,6.5409,-90.9864,-6.6938,0.18431,41.3352,
-57.4857,-7.7269,-59.5207,-54.0443,-32.4435,24.7543,-33.0564,17.3705,-3.7313,-0.27227,-84.7134,-13.7009,0.66701,40.3364,
-49.5426,6.8367,-55.4061,-45.8626,-36.4234,28.4295,-36.0115,19.2918,0.44356,-8.158,-80.6181,-18.8049,-0.36053,52.0162,
-53.4846,-1.747,-48.1312,-45.0868,-32.2625,20.7972,-27.9253,19.1213,-0.57104,-10.6315,-89.881,-25.5791,2.6241,57.5133,
-64.3755,-7.5682,-55.1208,-45.3451,-28.3513,26.4638,-17.3593,20.9376,4.4018,1.8594,-98.5882,-31.9464,4.4427,39.9625,
-69.6253,-0.69381,-56.2588,-40.1551,-29.1199,35.2473,-11.8734,26.1016,13.5214,13.1067,-98.5507,-26.5724,-3.2326,23.4648,
-71.8683,-1.1457,-50.4133,-42.1904,-30.8297,23.7494,-10.667,27.993,11.2291,3.9247,-106.7377,-28.4351,-12.4222,34.4526,
-75.4585,-6.0162,-52.3278,-47.5612,-27.9922,10.4707,-8.0517,26.3127,11.5431,-0.26154,-114.4334,-36.6067,-7.7261,18.2854,
-74.3882,-6.149,-52.6454,-43.2258,-20.8804,15.2747,-6.0864,27.2037,16.2828,13.0885,-121.6674,-27.0025,0.14572,4.1252,
-75.3572,-12.2008,-58.8699,-47.0525,-26.0474,10.9019,-14.117,24.0902,3.9466,9.8344,-128.4674,-22.9126,-9.2463,17.9777,
-67.3788,-10.9748,-61.7583,-53.6134,-24.9785,5.8023,-17.7155,22.1503,-0.73477,0.84781,-134.8593,-26.9704,-4.247,30.999,
-68.7686,-8.8343,-68.4243,-64.4966,-21.9983,-3.9293,-18.134,14.4012,-10.0742,-5.6231,-130.8438,-32.7607,5.3914,15.0391,
-64.6429,-4.3532,-62.3438,-65.7884,-16.7274,-12.5841,-18.0345,18.4757,-12.4333,-8.2492,-130.8952,-39.6851,8.0314,14.3586,
-56.8129,0.84698,-55.6392,-55.9141,-8.8092,-24.6691,-15.9635,19.3427,-8.7243,-10.7173,-137.1415,-48.1685,4.5865,27.5971,
-63.2816,-7.1063,-63.1664,-60.4612,1.5969,-37.289,-15.0061,4.0821,-11.1638,-7.1112,-135.5561,-40.3399,7.2743,40.0412,
-73.5847,-20.78,-67.2787,-58.8088,15.6011,-49.1516,-16.081,-10.2628,-7.5307,7.4154,-125.4469,-25.0787,15.7281,45.9861,
-81.7393,-33.6332,-67.1932,-46.391,28.765,-60.3025,-16.1039,-23.7471,2.7989,2.7481,-130.7609,-29.5007,15.7717,42.2392,
-62.7349,-45.7152,-63.6549,-35.2113,41.1391,-70.7844,-2.7909,-36.4222,9.0517,-2.8496,-127.3601,-31.1875,28.9254,35.2601,
-56.7727,-46.6029,-70.7014,-31.1233,52.7707,-80.6373,1.3274,-48.3369,4.5569,2.2602,-125.6452,-27.341,41.2899,32.1567,
-60.7747,-47.264,-66.953,-15.1559,63.7045,-89.8991,3.7179,-59.5367,16.6312,12.4968,-124.5268,-13.3532,52.9125,43.5621,
-54.6587,-53.8117,-55.5278,-0.14657,73.9822,-98.6051,14.8534,-46.928,29.7333,18.1666,-131.1552,1.548,63.8377,45.3934,
-42.4894,-48.6077,-53.1834,12.1608,83.6433,-106.7888,26.803,-46.0876,42.0493,30.9054,-137.3859,14.5184,69.2942,44.6451,
-31.544,-37.2953,-51.4739,21.8027,92.7247,-96.2349,23.7138,-51.7184,41.9463,38.435,-143.2427,16.1168,65.6305,56.0664,
-15.5513,-40.4903,-44.9287,20.0003,101.2612,-87.992,22.7847,-43.1825,39.9237,25.7572,-148.7481,11.6921,67.125,66.8024,
-6.9874,-45.4689,-48.6535,13.3678,94.7192,-83.206,18.9477,-33.1835,30.1198,12.8527,-153.9233,6.546,57.6649,76.8942,
-12.4949,-36.8145,-54.6241,7.6269,78.1698,-70.3114,9.909,-37.1188,23.3738,16.0323,-158.1474,4.1775,49.2658,86.3806,
-8.288,-33.1239,-47.8894,-0.23895,78.9124,-60.6599,10.7962,-36.3734,18.5142,14.5766,-154.0913,-1.5054,60.4099,82.0877,
-0.38268,-37.557,-49.461,-2.6941,80.5982,-56.5268,18.544,-27.7705,15.9218,4.3185,-140.4008,-7.8356,70.8853,83.583,
-11.225,-36.2913,-51.4321,-5.4957,73.787,-50.172,27.3091,-25.1165,25.8318,8.9981,-122.0995,-12.3047,80.7322,64.468,
-18.4533,-38.0646,-47.3585,-18.9943,71.3355,-38.2714,28.6339,-19.6587,30.2086,14.385,-107.8588,-17.4927,79.0251,50.0058,
-4.0115,-45.1643,-49.9495,-31.9546,68.5369,-29.555,16.5443,-17.9852,14.2961,4.1379,-101.8812,-15.9492,79.7162,58.365,
3.1432,-31.5894,-38.063,-25.3214,63.4367,-23.8307,24.4417,-10.9796,17.1668,-0.0614,-91.8174,-3.1392,89.0332,58.8146,
-11.1454,-25.249,-39.2362,-25.2841,58.1485,-21.9069,34.3347,-5.8763,30.2368,-0.55171,-85.8148,-0.48178,85.8897,59.7298,
-24.5767,-37.834,-50.982,-37.867,55.1543,-12.1967,18.1746,-10.956,31.1144,-8.9144,-91.0372,-12.7997,66.6363,70.246,
-37.2021,-37.7621,-62.0231,-49.695,42.9553,0.3884,2.9841,-9.3109,24.3088,-20.2328,-99.675,-18.946,53.5256,77.1193,
-37.1186,-21.3963,-72.4017,-60.8133,33.4639,6.2916,1.866,5.3478,21.8627,-24.9454,-107.7945,-3.7092,64.4141,86.5922,
-31.4347,-15.9388,-76.1331,-66.2275,24.0473,11.3469,3.2358,8.2127,14.1302,-28.8814,-115.4268,3.6502,65.7105,95.4966,
-22.6341,-17.9459,-72.5531,-71.1439,8.5045,14.6171,-5.8484,3.7689,3.4049,-31.0995,-122.6012,-10.6688,47.6679,87.7427,
-7.1761,-7.9794,-68.2001,-68.851,-1.6121,11.7643,-8.4608,9.4691,-1.7382,-27.2578,-129.3451,-24.1287,48.0425,83.4659,
-8.9927,-9.4761,-76.9487,-73.6095,-8.4299,15.0095,-12.8921,11.8644,-10.5239,-29.5734,-135.6844,-31.0279,59.26,92.5579,
-16.355,-16.8094,-74.307,-80.0582,-10.8869,23.9872,-14.0939,15.1038,-18.7823,-35.7012,-141.6433,-27.1905,52.4701,97.5983,
-12.9042,-11.3563,-66.3916,-80.6877,-12.7032,20.078,-5.8402,21.6056,-16.1734,-33.0652,-147.2447,-30.0041,35.2219,77.6424,
-19.5382,-15.1197,-76.5081,-89.9464,-26.041,13.4405,-10.9225,17.84,-15.6972,-25.6485,-152.5101,-42.3038,19.0086,58.8838,
-25.2804,-20.139,-86.0176,-98.6496,-38.5785,16.5856,-11.2547,15.7821,-10.8043,-21.1466,-157.2152,-42.9519,31.9681,46.0159,
-17.837,-20.9062,-92.6609,-106.8307,-30.2886,12.6269,-6.6284,16.8107,-3.2416,-23.8288,-138.8923,-35.4357,44.15,34.3649,
-5.4075,-20.1456,-100.4361,-113.435,-21.063,12.3631,0.18958,20.2468,2.3857,-22.8928,-126.114,-32.8158,44.958,24.8957,
-11.0096,-22.8878,-108.5099,-114.531,-26.7138,16.5603,7.0927,18.044,-1.7085,-25.4703,-114.5961,-31.8344,54.1131,37.502,
-15.782,-20.0335,-116.0993,-121.7591,-24.617,16.0602,10.1242,16.4674,-7.039,-24.436,-107.2268,-23.5043,64.9663,49.302,
-14.3409,-16.3618,-123.2334,-128.0109,-24.6217,12.6273,2.1084,13.9976,-12.0489,-21.4881,-111.164,-27.5263,64.7486,47.8266,
-19.4067,-6.4903,-118.9765,-123.2935,-19.1931,14.8329,-2.9568,21.0605,-13.3017,-22.1746,-118.5942,-32.789,57.9,56.8098,
-27.1323,-6.1009,-117.7644,-121.8224,-10.1395,13.943,-2.7794,26.7109,-10.5281,-21.8316,-125.5786,-23.9077,44.5485,58.3402,
-22.0476,-14.1306,-124.0334,-120.9338,-6.0739,6.6861,-1.1309,24.6145,-7.4272,-14.1014,-124.9099,-16.0529,45.3328,56.3211,
-9.8588,-10.3193,-117.5789,-116.6408,-4.7215,6.2849,-3.0386,24.1251,-3.0305,-13.2554,-105.5618,-11.1382,56.7128,67.0418,
-3.8347,-1.3046,-101.1406,-122.9774,-0.98115,8.3773,-2.3622,29.0977,0.60834,-14.9295,-103.6731,-14.915,67.4101,71.1434,
1.8281,-3.6956,-102.4804,-129.6988,-1.416,4.4175,3.2122,29.8215,0.078082,-10.5765,-103.873,-26.3669,61.8353,59.4675,
8.1385,-7.9188,-100.7766,-133.4987,-0.83756,1.6829,11.4151,25.5628,6.4939,-7.4724,-92.2081,-33.1809,64.5452,59.356,
4.6869,-12.3825,-80.63,-139.3171,12.0535,2.5697,15.6689,19.0907,17.9576,-8.0118,-92.6024,-31.1903,68.5748,45.9169,
8.8507,-8.1825,-67.6674,-139.3541,16.7633,0.93399,16.2108,18.4388,14.4106,-6.0496,-96.4298,-22.8983,70.8808,34.7658,
10.789,-1.2713,-77.7074,-141.3646,10.3243,-4.5548,21.6584,14.8627,12.0642,-0.25386,-90.1502,-19.0552,67.1217,35.1496,
-0.72344,-6.1335,-81.1693,-146.9827,7.7298,-4.2815,23.3224,4.0939,15.2914,-0.23863,-90.6677,-19.8874,53.2169,27.1141,
-2.6558,-5.7658,-69.3853,-144.8066,11.2168,2.8896,13.0328,4.8355,6.4716,-7.1386,-82.2644,-13.7554,59.9007,33.3891,
8.8631,-0.97433,-64.7277,-131.6732,14.9888,5.1858,9.7818,14.9174,0.65128,-9.1798,-75.8466,-12.436,70.4067,45.4857,
15.2456,-6.8426,-64.7953,-130.6871,5.1997,4.8744,13.1457,17.9731,2.5875,-8.6288,-77.2225,-19.5921,59.4915,56.8566,
15.8124,-3.963,-65.3526,-136.1809,-6.4718,6.0639,2.9734,23.3148,-3.0008,-9.593,-70.1197,-22.8616,42.5865,55.8655,
15.3576,10.3747,-70.815,-141.3446,-10.5281,7.1816,-8.5641,30.3124,-16.9207,-14.45,-66.4065,-22.971,48.4278,57.9466,
15.9177,13.4323,-73.9746,-141.2599,-9.4029,9.2202,-13.4832,32.9382,-21.5606,-5.1869,-68.8426,-21.0992,54.9052,68.5698,
4.0973,-1.4736,-79.4139,-146.8843,-12.7895,-4.1738,-26.7742,18.1211,-19.2792,1.0506,-72.6143,-25.76,37.5109,57.7644,
0.39446,-12.4731,-81.0691,-152.1713,-10.5406,-2.4419,-31.3166,9.6263,-13.6774,-0.49398,-57.8855,-23.7204,38.9889,61.7065,
-7.0377,-14.1942,-84.601,-157.141,-14.3532,7.0882,-36.8461,12.5057,-18.2893,-4.9094,-46.0168,-23.7787,50.7496,67.3872,
-18.9623,-19.7628,-77.0557,-161.8125,-12.9978,2.2181,-42.0432,13.2371,-18.6737,-3.133,-57.3558,-20.8702,50.3964,50.0101,
-21.7758,-15.6138,-70.4566,-163.3653,-12.2181,-2.8537,-39.5208,7.5041,-12.6145,0.0182,-68.0144,-22.5813,40.4588,46.0218,
-22.4447,-13.6894,-76.1067,-162.4529,-25.585,-2.6825,-38.1371,2.1149,-11.8576,0.017109,-78.0336,-35.3264,33.0923,49.187,
-22.5798,-12.3743,-77.9611,-162.0895,-28.2233,-0.052301,-37.3306,7.4203,-6.7014,0.50984,-87.354,-47.3068,33.5765,37.839,
-19.2495,-8.6684,-76.2464,-165.2052,-22.5789,3.9019,-33.1153,9.9381,-8.2748,-3.4718,-94.9533,-44.4197,26.6229,27.6671,
-17.1065,-9.1362,-67.7206,-159.2439,-22.2121,4.6557,-22.2388,7.3668,-11.7293,-2.2755,-85.3051,-41.7546,10.9255,28.9706,
-9.1661,-7.6001,-50.8168,-149.6893,-24.8304,5.3639,-19.9165,8.9003,-4.1111,1.8121,-69.3217,-37.2738,6.5904,34.1464,
5.4839,6.9559,-33.6678,-141.2017,-19.8833,16.4014,-14.2767,17.7496,8.4824,-1.7539,-54.7907,-36.5191,20.295,40.4934,
19.2548,11.2059,-37.8455,-143.1011,-15.2333,18.8743,-7.9876,20.1421,2.5409,-5.1057,-37.4032,-48.4279,33.1773,28.6798,
11.6306,0.65577,-38.538,-146.3683,-13.3315,15.7666,-7.5081,17.9453,-10.4523,-5.7871,-25.0592,-56.6101,33.6068,29.9227,
19.8223,9.5064,-23.3852,-134.6232,-11.5437,23.7101,-11.0086,14.8936,-12.7887,-3.4644,-32.4452,-45.3115,30.6029,42.2274,
32.733,16.3443,-21.4878,-124.0761,-16.2838,30.6838,-8.8664,16.4697,-8.5641,-0.78724,-27.0412,-30.2455,31.2364,53.7937,
33.9548,13.3882,-20.199,-122.5585,-13.3313,25.8793,4.5062,29.3091,-4.0992,-2.7155,-11.3187,-20.5287,34.3003,56.4435,
33.8933,15.5481,-17.0113,-122.1193,-8.5806,25.3143,-1.6909,29.5263,-8.7921,-10.4549,3.4604,-24.2358,31.2545,51.0816,
39.7617,18.5663,-25.8682,-119.7306,-11.0288,32.6854,-11.467,17.8777,-12.2156,-10.8151,9.6241,-27.7207,24.4407,50.9802,
31.943,14.9828,-24.8101,-111.0653,-9.8731,34.1813,-5.346,17.299,-3.0866,-7.6967,23.1467,-25.5634,34.3338,54.3415,
15.9264,18.5288,-20.852,-104.8949,-7.7992,29.6609,-19.1252,17.7421,-1.4199,-10.6924,29.3885,-25.5111,41.6569,36.981,
21.169,31.5171,-11.2046,-93.1689,6.7688,41.9813,-32.0777,29.0253,9.0366,4.0492,32.0704,-11.6337,47.5542,30.0953,
29.7762,29.8486,-9.5451,-92.5175,15.4747,44.624,-42.4517,31.2341,14.4212,6.9923,43.9745,-10.9359,42.7252,36.1909,
32.9289,28.0579,-6.0086,-90.9173,5.6565,41.9463,-35.9533,30.3478,21.4582,-0.34154,55.436,-11.267,48.0639,42.9092,
29.9654,27.3622,-9.5994,-90.401,1.3663,44.3687,-34.7839,23.5882,20.1704,2.6422,55.7899,-8.6157,47.1549,40.3354,
35.0817,27.6958,-10.9987,-85.9647,-3.6544,41.7064,-34.6721,18.2226,9.0829,-1.4676,38.3425,-12.0495,30.2256,31.988,
47.0768,27.5158,-7.8695,-80.3131,-13.8069,37.7223,-34.0735,14.659,-0.84585,-15.4795,35.8194,-19.7228,17.3249,24.636,
54.3523,25.8646,-0.48303,-80.433,-19.8928,38.4222,-26.1024,10.8167,3.1557,-28.6507,45.5231,-26.4413,30.3854,27.1095,
53.0664,28.264,-1.4418,-86.4724,-26.601,43.0311,-16.6344,7.2044,6.9176,-17.993,56.8917,-27.818,42.6623,39.583,
56.797,35.4581,-1.3553,-73.382,-27.9685,50.3268,-12.6729,16.6492,14.4046,-12.9624,67.5782,-13.3084,51.4127,44.8383,
51.4134,36.2939,0.70129,-59.1018,-27.2781,44.3439,-10.9247,17.626,10.577,-26.2847,77.6235,-11.5221,50.3037,28.048,
45.8596,32.6348,3.1287,-66.9147,-29.0985,34.2753,-6.8122,9.1609,5.4974,-29.8684,87.0661,-24.9308,44.8155,12.2651,
49.528,34.1337,5.4105,-76.9998,-24.883,35.6758,-8.873,8.1168,5.6616,-28.5703,95.9421,-37.535,32.7435,24.9134,
53.4711,30.1099,2.1226,-78.5287,-23.3903,35.511,-8.3404,14.5445,-1.5924,-40.9561,96.7311,-28.8132,32.7542,34.2834,
51.2504,21.3888,1.0073,-76.7804,-29.8889,22.5148,-3.889,16.6344,-7.4239,-52.5987,82.0372,-22.1459,24.8619,18.1264,
47.6813,20.5995,6.3798,-78.5941,-36.4916,19.6824,-3.1616,21.0698,-9.4475,-56.3087,78.5965,-26.2497,9.2702,13.8528,
46.3022,20.8453,5.5028,-71.4092,-23.9308,19.9827,-4.4537,21.2869,-13.3259,-44.5344,80.301,-19.2424,-3.8554,27.1216,
31.1773,6.2598,-3.2232,-75.5205,-12.1232,4.6837,-11.5947,5.9097,-19.9341,-52.2336,73.0137,-22.5326,5.7597,14.3583,
30.2944,2.9209,-4.0175,-85.0892,-10.408,-9.6973,-9.9113,-8.5449,-18.7383,-53.0504,73.5721,-29.0825,12.3289,-0.60321,
26.0072,-0.71137,-12.1725,-94.0839,-5.3385,-23.2154,-14.7491,-22.1322,-24.0345,-50.3613,80.5168,-29.807,6.1562,-6.7163,
37.2876,12.1721,2.6579,-74.3388,9.0818,-35.9225,0.23581,-34.9043,-8.4925,-33.2397,89.7858,-13.9186,19.8868,7.7867,
42.9524,3.5398,16.5984,-55.7785,22.6369,-47.8672,8.84,-45.553,1.6234,-21.6389,98.4987,-12.3672,32.7936,15.9378,
52.2285,-8.5259,21.9741,-38.3318,35.3786,-59.0951,15.2239,-54.6731,-0.44972,-26.2674,106.6887,-1.7474,41.1482,0.88152,
53.5396,-12.4591,11.2719,-21.9319,47.3559,-69.6494,11.8412,-65.4927,0.07149,-21.2341,114.3874,0.82674,33.247,5.5451,
54.7722,-16.1566,20.9671,-6.516,58.6146,-79.5705,13.5997,-75.6632,13.4018,-7.613,121.6242,6.2097,36.6847,16.571,
65.5859,-20.126,33.8091,7.975,69.1977,-88.8962,26.8838,-79.4705,23.4629,-7.1564,128.4267,18.6779,48.5836,12.6139,
73.2323,-13.9796,45.8805,21.5965,79.1458,-97.6625,39.3707,-79.6411,26.0064,-10.6778,134.8211,23.484,59.7686,14.8199,
66.8629,-13.1409,42.5848,34.254,88.4971,-88.101,35.4781,-74.8626,22.4705,-2.1351,140.8318,23.0625,50.701,24.7962,
67.7901,-16.3034,45.9567,43.0643,94.845,-78.8639,38.2884,-66.4198,25.0733,9.846,146.4819,35.7787,46.6715,25.2844,
69.649,-12.362,48.1381,48.3827,94.093,-73.1443,41.9179,-65.3979,31.4707,9.2555,151.793,39.2873,55.724,9.6674,
67.4456,-6.6812,40.3108,33.6267,81.5329,-65.7922,36.4393,-66.413,22.6684,-2.1654,156.7854,24.0895,39.54,-5.0127,
68.8318,-6.7744,41.3496,25.1886,71.2084,-56.4121,30.7959,-61.9342,7.2083,-13.3945,161.4783,17.2116,26.796,-12.5648,
63.2199,-6.8619,41.3377,22.1953,63.4784,-46.6073,26.4787,-57.7242,-0.85524,-24.9383,165.8896,17.6599,27.6578,-9.3424,
58.4392,-6.4502,41.8205,17.9005,55.7187,-38.8719,21.9264,-54.2607,-5.7425,-37.2706,170.0362,16.6003,28.9609,-7.7943,
53.4514,-6.5572,41.7807,15.345,48.9186,-30.1191,18.1418,-50.5111,-8.8549,-47.3809,173.9341,17.0863,29.6932,-4.8567,
49.2563,-6.1637,42.2374,11.4608,42.0324,-22.3854,14.0898,-47.4804,-13.2626,-57.3791,177.598,17.0487,30.8751,-3.5778,
44.3254,-6.7814,41.6786,8.7976,35.5595,-15.1157,10.2814,-44.6316,-16.4179,-66.7774,180.874,17.0137,30.9976,-1.3871,
39.6901,-7.3628,40.1657,4.3185,27.4992,-10.2575,4.7253,-43.9295,-22.3471,-76.8708,174.9603,15.0051,30.1255,-2.2921,
51.4087,-1.4878,44.176,2.5781,24.3679,-9.1483,4.936,-43.763,-18.537,-71.4931,178.5627,13.6111,14.9832,-2.6479,
42.1267,-1.8923,45.9707,-2.0213,21.4241,0.78435,1.1826,-50.521,-10.0165,-58.8077,171.5285,16.2517,-0.01579,-4.9587,
29.7213,-5.73,45.1877,-8.8148,8.2854,-0.25047,-4.8151,-46.502,-18.3053,-42.4384,149.3835,10.3373,-14.1148,-4.6615,
34.8526,-6.3737,45.44,-8.2854,-2.0888,-4.1865,1.4008,-39.7608,-22.1455,-36.9286,144.372,3.791,-9.268,-14.2588,
38.6879,0.92277,52.5911,-10.7518,9.8896,1.9913,14.1573,-43.3017,-7.9762,-35.7004,149.8097,7.5146,-1.7974,-20.3178,
33.4034,1.8552,54.3744,-23.9355,5.3449,6.8106,3.4305,-50.5809,-7.4974,-39.4852,154.9211,4.1005,-10.5789,-13.1725,
37.8195,-3.6889,48.6427,-35.8342,-9.0758,12.8227,-4.1836,-43.1013,-17.4193,-36.6223,159.7258,-0.59082,-16.3649,-7.9373,
29.13,-6.9244,42.2669,-40.1044,-15.1738,18.4736,3.4757,-34.0949,-22.7945,-31.9552,157.2302,1.9144,-19.8283,-21.5611,
15.0352,-3.0519,47.1389,-40.1676,-8.8309,21.8102,2.7732,-30.5677,-22.9083,-35.4709,147.3024,5.2565,-17.1571,-34.3674,
15.1206,-2.8688,58.4106,-49.6106,-14.2275,24.4526,2.6068,-31.6967,-18.5708,-34.3302,146.3663,-2.9609,-14.1521,-28.7988,
6.3116,-5.6599,48.7082,-59.4748,-16.3371,22.9852,-0.51288,-31.7706,-15.4808,-26.3441,151.6843,-2.7835,-21.2043,-14.2305,
-0.48813,-0.87577,33.4382,-56.4003,-13.8759,26.0506,-5.9151,-25.4194,-18.997,-24.2699,155.6466,11.4835,-15.488,-22.7607,
11.3944,7.079,37.3587,-55.9795,-18.9696,25.4758,-12.4745,-20.9309,-30.6984,-31.7035,134.4545,15.9558,-0.72994,-17.4433,
17.6255,7.6421,46.9704,-62.4981,-20.7947,20.984,-16.6648,-20.6628,-34.7828,-30.7886,135.2775,7.0962,-5.6249,-7.5065,
13.111,8.665,57.4872,-48.3766,-5.447,27.133,-9.2444,-20.9046,-18.5958,-14.8413,141.2609,18.03,-12.695,-7.5501,
0.96479,4.6881,53.544,-42.017,2.5109,19.085,-11.1587,-33.7503,-8.8615,0.14922,146.8852,18.4297,-17.3658,-21.1971,
11.7722,7.3701,57.2456,-35.5448,3.348,12.0131,-13.4525,-35.8986,-11.2931,14.2403,147.407,18.3117,-10.3976,-23.1115,
25.1659,7.9156,67.6397,-20.5713,7.0979,8.3291,-15.6086,-29.7939,-11.6032,14.5475,150.4158,23.1397,-13.7245,-7.6248,
37.7068,13.8612,74.9404,-11.9294,5.19,4.3718,-16.1541,-28.5003,-17.3276,-0.42535,137.9334,21.2573,-24.261,-21.2674,
36.4324,18.9561,74.395,-13.1892,5.8666,-2.8045,-25.0624,-35.6803,-18.2634,-14.4998,131.6329,11.0919,-20.8294,-34.0913,
47.5812,31.9187,84.0313,1.7022,19.6146,7.7355,-37.6586,-21.1922,-3.0676,-21.9772,137.8349,20.7981,-5.4796,-35.7254,
58.8263,36.1527,93.0894,14.6636,29.5253,18.1362,-49.4991,-14.9819,-2.661,-34.7586,143.6648,33.3786,0.99823,-19.4819,
69.3968,35.4652,94.8634,23.1676,33.1866,26.4318,-44.9985,-14.5767,-2.0076,-46.7731,149.1449,45.4759,2.4201,-14.1394,
51.133,32.8436,86.7023,19.3083,29.7141,23.3646,-47.7314,-17.1594,1.5701,-58.0667,154.2963,46.4273,1.7811,-22.6743,
33.965,36.7995,88.4147,8.2722,17.0657,20.9748,-56.7205,-16.1298,1.4759,-68.6827,159.1385,42.6537,0.68579,-7.2139,
46.0271,35.085,94.4689,11.2329,14.5603,29.1003,-47.8848,-11.705,-6.0207,-78.6617,163.6902,42.564,3.1141,7.3189,
48.921,26.5597,91.27,13.0282,12.2049,31.7991,-46.4934,-13.472,-16.0312,-88.042,167.9688,41.4914,-4.4805,11.2757,
35.1205,20.0273,89.7451,2.3692,4.5583,26.9278,-42.7161,-23.529,-13.0936,-96.8595,170.3135,45.9167,-18.3117,-3.5008,
31.5315,13.3929,85.8421,-0.2422,-2.1354,29.757,-36.6959,-28.5375,-11.8142,-100.5073,159.601,50.57,-27.3131,-7.4648,
16.3043,9.1321,69.3323,3.2291,-5.4646,32.4163,-44.8654,-21.393,-22.4647,-92.9956,161.3842,45.066,-20.242,-7.5107,
1.2261,11.0534,63.6906,0.5661,-3.6554,25.0386,-48.5942,-20.6031,-27.5371,-98.7752,156.1459,28.2621,-24.4598,-19.4069,
15.2525,16.3167,73.6977,5.4707,-1.4606,34.4018,-33.8255,-18.3794,-19.9583,-102.7262,142.8261,12.4663,-25.9561,-16.2669,
28.4373,11.3872,74.2149,12.0569,-7.2985,39.2522,-27.8445,-23.2027,-20.7363,-108.4157,136.2321,-2.3816,-29.3368,-24.181,
15.1011,8.7282,65.8107,12.3213,-6.8613,31.9588,-26.1741,-26.7493,-22.4554,-116.0107,140.8994,-7.8449,-27.5764,-36.8301,
7.7745,5.735,62.3561,11.088,-0.02866,35.4738,-23.1221,-21.6873,-18.6386,-123.1501,138.8655,-4.9047,-32.3423,-45.7081,
21.1368,5.3911,69.48,16.3495,-4.9657,42.2347,-14.8205,-15.4473,-17.5205,-129.8611,137.4479,1.3158,-39.2925,-30.1244,
26.2884,5.5614,57.9029,13.8868,-13.0645,31.3048,-14.425,-21.9288,-27.8286,-136.1694,126.7317,2.7186,-40.3913,-26.8356,
25.6996,9.1788,47.5147,12.066,-8.3296,30.414,-17.5106,-20.613,-37.0239,-142.0993,105.0278,0.58002,-35.0052,-34.115,
36.5044,12.0853,58.7638,16.7744,-15.2381,39.9485,-16.9537,-11.968,-44.1862,-140.6126,92.5768,2.027,-36.3622,-33.5504,
34.3141,6.4216,58.4233,17.7434,-28.4238,28.662,-17.9124,-11.2504,-55.3641,-132.1758,88.9977,6.8439,-48.0085,-32.5249,
23.3648,6.0363,47.0159,21.6178,-25.459,24.9663,-12.8867,-12.5509,-60.9318,-124.2453,88.5964,14.3353,-48.0915,-33.5369,
16.5311,8.1434,43.7012,15.876,-27.3882,28.9011,-14.5827,-22.1691,-60.7331,-116.2968,85.7508,6.0674,-47.6753,-45.6247,
12.0815,3.2096,42.5604,16.4047,-29.2026,20.7467,-9.2625,-26.2717,-46.7179,-102.8987,88.0136,3.2336,-42.3455,-48.5423,
-0.49597,4.005,40.0072,25.2984,-25.475,16.5389,-9.6948,-18.7684,-35.0248,-93.7613,95.5738,12.9176,-47.7063,-40.6907,
-3.4302,13.6422,44.5209,22.7925,-22.9585,14.5586,-18.9906,-23.5693,-40.8253,-94.0621,103.6679,8.191,-58.944,-47.1393,
10.6049,5.9094,55.9496,25.3762,-21.5807,8.7468,-10.9369,-31.0445,-39.3635,-80.5161,111.5479,6.7123,-49.2096,-58.4109,
24.0686,5.0609,66.6926,37.9537,-11.8903,22.322,-9.7867,-15.0818,-22.9017,-61.5852,118.955,20.4096,-32.157,-48.2145,
29.7613,7.7205,71.5322,49.7764,-9.2012,35.0826,-23.2995,-6.0526,-18.3418,-43.7901,125.9177,33.285,-22.1032,-31.2217,
19.5787,13.6778,73.6603,51.1857,-3.217,37.3726,-36.0015,-12.1099,-16.7478,-33.8037,124.4628,30.7448,-24.2345,-15.2484,
10.5026,7.9183,76.1554,52.0658,-3.0233,25.253,-47.9414,-6.4446,-4.8772,-17.6755,122.9218,40.7534,-21.7923,-28.4335,
-0.99306,1.5167,70.5986,41.0399,-8.7689,19.7868,-59.1649,-0.13135,-15.4501,-11.9472,105.6685,37.3202,-34.5847,-40.8275,
-1.4277,5.8705,60.9294,36.1077,-15.6506,25.0198,-69.7151,-4.5682,-28.6231,-25.3304,85.2284,24.7097,-46.6096,-47.2676,
12.758,4.5303,64.1882,38.8803,-21.6256,27.4701,-79.6321,-3.3062,-41.0057,-27.9839,68.0398,34.0926,-57.9131,-39.4925,
19.1295,6.7284,64.7824,39.017,-28.7246,16.4389,-88.9542,-3.6018,-38.9897,-30.7498,70.3774,34.5165,-62.5137,-31.6905,
19.4637,16.6962,59.4135,40.133,-28.4826,16.9336,-96.5336,-1.9042,-43.0709,-40.2639,80.2548,31.9516,-66.1714,-35.2216,
12.8632,6.3107,56.3424,36.2432,-29.2429,26.2889,-88.2723,0.67935,-35.0543,-33.4033,89.5395,40.4058,-67.6339,-47.2083,
6.1646,2.9688,56.9131,42.9589,-29.4641,30.6388,-69.1472,2.6143,-25.0488,-20.5338,98.2671,39.9572,-58.6371,-58.4269,
8.758,15.631,58.4371,49.2711,-24.733,23.8617,-50.8984,-0.50579,-26.5091,-20.2895,106.4711,25.7065,-52.1556,-41.0925,
5.2688,9.7544,61.8447,36.4366,-17.3222,13.5392,-43.1774,-6.4022,-22.9433,-18.0849,106.8991,24.1638,-58.9045,-52.7269,
-6.4057,11.6388,63.5672,37.7082,-12.8256,13.2216,-41.0805,-9.4753,-12.1829,-8.6035,107.8934,35.0613,-60.8025,-63.6633,
-5.5278,25.0405,65.1857,49.5457,-12.5501,15.8853,-36.1462,-8.4128,-8.9824,3.2717,115.5198,33.4511,-53.6974,-73.9435,
5.1754,19.3156,64.7316,60.6729,-20.1931,15.4257,-35.4594,0.48798,-15.852,10.4835,116.2192,26.999,-40.104,-70.175,
-3.0374,4.0567,62.823,45.6239,-24.9078,13.5124,-38.2706,6.385,-20.8276,2.9402,100.3563,28.3424,-38.6855,-68.9273,
-16.1897,-1.3476,58.5601,49.3075,-18.9688,3.3181,-34.4924,1.5574,-21.059,1.2827,87.9148,32.0753,-50.4644,-62.3222,
-11.2673,1.6958,57.022,57.2141,-10.9162,-10.981,-32.4228,-5.4506,-19.7955,15.3058,96.468,36.0768,-61.5365,-58.5828,
3.5087,0.60657,64.4662,59.7077,2.5794,-24.4221,-27.5144,-5.1236,-12.6812,22.018,104.509,48.0122,-44.9539,-51.1169,
12.411,-0.91157,70.9695,70.2253,16.5246,-35.7487,-20.4308,-12.224,-15.3776,19.2152,102.6837,59.2315,-39.7874,-33.9498,
20.0612,3.5879,80.8113,80.1118,29.6331,-47.7038,-5.105,-17.9117,-13.9617,32.1623,110.6227,66.0002,-36.9064,-17.8129,
32.9575,17.4726,90.0627,89.4051,41.9551,-53.4603,9.3013,-10.416,0.97603,44.3325,118.0853,68.4607,-20.592,-2.9639,
45.0801,20.1041,98.7589,98.1408,53.5378,-61.612,15.6084,-23.8911,9.5363,45.5747,125.1002,77.6879,-5.2565,-4.2683,
48.2541,10.5023,97.9456,106.3523,64.4256,-72.0153,23.0684,-36.5576,4.5191,50.2483,131.6942,87.1266,6.8628,0.43278,
37.4561,-2.9691,99.9711,114.0712,74.66,-81.7944,20.6965,-48.4642,3.2607,57.1111,137.8925,83.1093,-7.649,-13.6932,
49.3087,2.6422,99.4056,121.3269,82.3815,-76.3438,24.8875,-42.2727,12.4488,57.1417,143.719,72.69,-8.4001,-20.0087,
56.4505,0.50726,89.4902,128.1473,81.3891,-69.7882,30.3083,-47.6388,5.7749,53.7132,138.9002,72.2796,1.9815,-30.6617,
38.9635,-13.6232,80.1698,134.5585,89.3468,-79.7009,23.5508,-58.8805,0.48938,56.417,142.4187,71.8939,-12.2374,-42.922,
24.0561,-21.4239,75.3596,140.5849,98.086,-76.6229,23.1257,-62.9783,6.387,57.9705,147.7022,67.5802,-25.6032,-51.9278,
24.5882,-17.175,74.7891,146.2498,106.3009,-57.9255,28.6527,-60.1871,5.0163,56.4682,137.853,59.5744,-11.6706,-35.9711,
17.6806,-19.6017,71.7835,134.9839,114.0228,-57.1907,29.4028,-62.0086,-0.71747,56.5369,127.1121,54.5182,-4.5505,-46.1596,
11.6806,-26.3279,70.4397,132.8116,121.2814,-58.698,27.6384,-60.2639,3.2764,57.0959,130.3511,52.2348,-18.3775,-52.2803,
10.98,-28.699,70.1641,137.6837,115.389,-41.0761,16.1028,-54.6723,-3.8345,55.6455,131.4198,46.1375,-17.0034,-49.1432,
9.3329,-25.9893,72.8685,134.3615,112.416,-30.9805,8.2224,-45.4657,-10.5187,57.246,123.5349,42.3815,-5.1174,-45.2069,
-4.0674,-25.4177,61.5822,119.3855,95.7942,-43.2217,3.7778,-49.6515,-18.7774,44.9214,110.196,42.8023,-18.9104,-50.3963,
-12.2196,-21.4234,55.418,108.7647,75.9465,-42.8269,-0.89415,-57.0447,-26.047,36.7929,101.1141,48.6295,-31.8758,-57.7447,
-12.4739,-27.0525,59.0074,106.1903,67.2155,-34.3308,-9.73,-53.6215,-25.4717,32.6098,89.1212,43.7367,-44.0632,-60.2061,
-10.738,-23.4533,60.4055,112.6594,75.0356,-34.2464,-6.1832,-39.5392,-14.0658,34.6043,91.6759,35.1855,-44.0631,-50.6677,
-16.0202,-20.0706,53.8181,106.8878,65.5954,-33.1792,2.0903,-41.1174,-9.2709,41.418,100.2754,31.0989,-42.4063,-52.5657,
-19.5038,-25.2872,51.0828,95.0418,59.1899,-22.7922,4.4337,-41.1201,-12.1719,43.3777,95.4687,39.6047,-48.2587,-54.845,
-24.2605,-35.623,47.0303,90.3273,60.5771,-19.4496,0.21709,-40.6284,-19.3436,40.7755,76.9,45.1305,-59.1912,-62.4198,
-26.2612,-33.9794,47.6658,97.2549,50.5226,-20.7514,0.6983,-48.562,-18.6767,43.7618,66.8537,32.0509,-63.048,-72.7746,
-16.2898,-17.8406,56.1642,105.5196,46.009,-9.1355,5.1007,-40.2155,-3.4561,50.5194,59.3852,19.757,-62.7224,-78.0142,
-21.2394,-15.5599,52.7943,95.4593,37.3215,-13.5259,-4.0954,-32.864,-2.0389,39.5862,41.7221,23.5101,-73.0591,-73.3334,
-32.3118,-27.9615,38.2683,77.3849,20.9822,-16.1716,-10.2695,-40.276,-16.0166,24.8642,27.1429,25.5567,-82.7755,-80.2927,
-39.2631,-20.3564,26.0947,76.6933,5.6233,-6.3113,-15.5798,-34.8959,-29.1556,22.3848,35.3928,15.1333,-86.6499,-85.3527,
-49.2541,-21.6047,26.9978,74.561,-8.8141,-7.4139,-26.9923,-18.7022,-38.7164,24.4985,31.7871,16.6951,-90.8351,-86.6522,
-53.2139,-33.1495,34.2679,63.1728,-22.3853,-11.9081,-34.2628,-9.4557,-41.3324,16.1141,17.0388,19.6439,-94.2751,-76.5141,
-46.5638,-31.6552,33.6931,63.8272,-35.1422,-6.7488,-22.8232,-8.3946,-46.2608,10.702,22.4363,14.0205,-89.1123,-65.5025,
-41.7945,-30.7429,35.623,74.0976,-31.1826,-4.3684,-9.6008,-8.8789,-43.4851,20.9254,35.1901,17.1298,-81.7901,-74.4134,
-32.3718,-24.9478,47.5857,83.7517,-15.2117,-5.0943,-7.0492,-7.3582,-26.776,33.7699,47.1787,30.202,-65.0291,-68.9606,
-34.8752,-20.9812,56.8059,82.6285,-13.0891,-9.2334,-15.0221,-13.337,-18.0326,38.8805,49.2383,32.5642,-64.5847,-60.3782,
-28.8312,-13.7958,52.4095,89.5243,-10.3273,-4.7279,-6.2187,-3.6467,-13.9872,43.4622,46.2845,30.6098,-60.71,-60.707,
-29.5711,-25.3149,57.6608,93.5366,-13.165,-6.9139,0.57469,2.9924,-18.5807,45.2992,46.9637,31.243,-58.5487,-54.5948,
-27.3021,-20.3387,68.3011,101.2592,-5.9553,-12.9199,3.9975,-1.632,-3.3659,53.9406,58.2459,34.8007,-52.5661,-44.8984,
-11.564,-5.0184,78.303,109.2837,8.5021,-9.6749,17.8576,3.8987,10.9361,64.8041,68.8512,46.8127,-35.3121,-52.5762,
-2.2516,9.3827,76.5202,116.8267,15.623,-13.5392,20.4662,2.1831,17.1458,75.0159,78.8201,54.5985,-31.4893,-53.8665,
-14.958,1.3623,76.8675,122.1152,3.8201,-20.6289,9.3607,-4.862,3.276,63.0585,59.9909,39.4695,-43.6999,-39.7689,
-3.6887,-0.20068,83.6147,122.1961,13.9627,-15.9348,13.2434,-6.0525,9.4997,70.6338,69.6776,50.4357,-49.2028,-35.9015,
10.6326,7.7134,85.5124,128.9643,27.2249,-2.1372,26.5488,0.23767,18.8073,75.2858,79.5969,55.3116,-32.1506,-41.6495,
10.7107,9.2261,85.3206,135.3265,25.32,-0.033503,31.5994,3.1869,16.6913,67.8056,60.7211,41.1278,-27.5295,-47.0521,
13.032,13.6115,91.0664,132.591,16.8867,-4.9705,32.6664,2.9952,15.6898,66.7003,52.1393,39.6481,-30.8167,-58.3289,
23.1147,20.6969,88.565,126.611,6.983,-12.5743,27.7434,-6.0745,1.9074,58.7468,57.9005,28.3787,-24.0292,-68.9292,
16.7898,15.5036,76.3371,123.9534,-2.325,-7.8684,15.2138,-10.6486,-8.0846,45.3449,50.4759,13.8359,-27.5255,-73.141,
1.6824,0.47336,71.2631,117.9979,6.2103,6.7037,16.7697,-6.5524,3.7603,49.0445,43.9901,27.1058,-39.974,-65.2953,
-12.5186,-3.7284,66.9878,106.9666,2.8746,10.4749,17.739,-11.0983,0.57114,51.0404,43.3262,39.5794,-47.6759,-49.525,
-17.6458,4.3974,63.956,104.4996,-10.1394,1.9443,9.7602,-10.4324,-10.3287,49.9535,39.7391,39.131,-45.8028,-35.688,
-16.587,-2.781,67.0332,107.1196,-5.58,10.7172,8.1871,1.0591,1.1566,61.0562,43.2808,38.7582,-43.0547,-33.5467,
-20.5299,-5.5772,66.9617,106.619,2.6573,18.9642,11.6469,5.9346,12.9402,71.4929,54.784,44.3352,-37.5084,-28.5699,
-25.7189,2.1657,62.4503,98.7401,-8.8614,3.7264,6.5028,-8.5215,4.7556,57.2771,53.6952,36.2419,-40.6911,-29.3255,
-18.7434,5.4931,69.075,96.2729,-15.738,-0.17727,4.6314,-9.7148,5.952,50.3832,47.0163,38.5131,-41.7059,-32.9992,
-15.6433,3.188,78.7591,94.4476,-7.8797,13.6619,8.3045,0.74567,12.5089,58.2258,39.2563,39.1653,-39.2041,-42.8718,
-28.8047,9.417,71.5643,94.2135,-5.9252,13.3364,9.288,1.1952,6.3261,57.2015,24.5546,23.4806,-43.2721,-53.6343,
-26.805,13.2967,67.7642,102.6607,-5.0759,16.981,9.2244,9.5192,4.4648,55.2511,23.5751,23.553,-45.1205,-54.861,
-11.0967,14.4744,77.7983,110.601,-0.81985,30.0622,20.524,23.0481,15.0624,66.0361,28.0871,36.2399,-44.3888,-49.5939,
2.1382,19.533,87.2304,118.065,-7.6852,42.3584,27.1946,33.2468,20.0847,69.7045,18.4998,42.6845,-47.6525,-36.7412,
-12.0901,15.8912,83.923,116.0937,-6.7303,39.7683,20.1306,31.7462,19.3739,62.065,12.9451,41.6047,-42.3236,-24.1649,
-4.6729,9.9992,77.9001,110.1156,-6.3265,34.4187,12.0078,24.9024,12.2844,60.3166,18.0944,37.1325,-34.8457,-28.642,
7.461,11.3748,86.0671,113.3867,-12.8609,31.3665,18.2028,17.4818,11.5478,55.7101,18.9842,29.9665,-34.7304,-41.0235,
7.5066,13.1616,93.2494,114.9788,-6.6575,28.9893,27.481,13.9631,21.2258,56.8118,19.3269,33.6003,-35.1159,-52.6621,
16.4405,11.8781,92.1002,112.5253,-4.7758,32.6832,23.3633,27.2253,21.4345,67.5031,31.5016,43.932,-32.5151,-39.0815,
12.9852,12.6467,83.1169,108.2431,-14.8601,33.192,22.4553,39.6918,15.7036,71.0844,36.0323,46.7284,-35.9965,-24.3898,
-0.14116,12.3821,77.6357,109.1572,-15.4502,31.6947,22.5897,43.1882,19.2062,66.3251,27.4501,44.4189,-46.184,-30.3347,
-5.5655,15.096,62.6062,104.0886,-17.9809,24.3602,9.8746,33.1886,14.5966,58.8888,22.3453,36.321,-57.513,-33.9473,
