"AF3","AF4","F3","F4","F7","F8","FC5","FC6","O1","O2","P7","P8","T7","T8",
31.7292,13.1801,-211.3613,-67.8501,19.0372,-6.3451,23.9182,-61.9925,-4.393,0.48801,-7.3221,2.441,-0.48801,39.5393,
31.2895,7.9953,-201.1206,-77.8791,7.6439,1.3567,12.2321,-58.7615,-16.3326,6.8048,-11.2758,-3.0755,-0.94675,23.0669,
18.1846,-2.735,-194.4225,-81.5605,8.6497,-12.8247,11.0106,-68.4149,-8.031,20.4965,-3.2767,2.4786,1.5506,7.5829,
2.9935,-5.4995,-185.6861,-75.6909,10.0833,-26.1552,13.2785,-66.263,6.1184,21.2748,-0.15157,-0.59866,0.48106,9.9448,
-3.5868,-4.1935,-175.521,-74.078,-1.2599,-10.5411,3.6957,-51.5482,0.87028,17.0703,1.8096,-0.56274,1.4292,23.0162,
-4.8366,-8.3349,-174.2643,-76.9553,-2.6493,2.2945,0.056931,-46.9908,-3.575,14.5811,4.142,2.888,0.85446,7.5352,
-9.4284,-0.024749,-165.7614,-67.457,4.3437,2.1569,8.8396,-45.1478,9.3306,7.8482,7.7985,-1.1903,4.7082,-6.6411,
-22.9627,4.8587,-157.7678,-58.528,-2.7509,3.0035,1.4761,-38.5334,1.9377,-1.4088,7.3306,-15.2189,2.4737,-10.1477,
-18.2231,-0.31479,-145.3732,-48.1828,3.2712,9.6573,2.3636,-22.1214,-9.8946,1.6048,7.8668,-25.5889,2.3253,-5.6338,
-3.0297,-3.7129,-129.3287,-42.8513,8.445,7.6129,11.4959,-6.6941,-8.8129,0.043498,0.072731,-12.8265,1.6977,0.073316,
2.0888,0.41535,-124.4975,-42.2327,1.1047,1.2986,7.8776,5.0454,-7.3076,-4.8397,-3.8362,-4.2473,-0.35665,-0.90665,
-0.96509,2.3429,-118.0042,-36.7697,3.9669,0.2451,7.4045,-4.043,-10.7747,-3.5738,0.29854,-5.944,-1.3117,-4.7577,
2.0218,-1.7027,-107.9949,-36.5161,10.563,1.2064,5.9842,-1.8483,-5.2462,-3.3593,1.2567,-0.70634,-0.25701,6.2668,
-1.5165,-7.9465,-99.0752,-43.6001,4.5592,-5.212,-1.6969,-0.27339,3.3666,-4.6218,-0.28279,3.7291,-0.7296,18.0939,
-12.1637,-7.4697,-93.1297,-40.9832,6.2386,-2.9463,-0.61817,-3.1851,3.1646,8.3476,-0.26582,4.4823,-0.68583,16.0322,
-20.7093,-8.4861,-93.8884,-38.0367,16.1149,6.5051,8.6926,-9.3395,7.3683,21.9467,-4.6434,11.535,-6.9902,11.6528,
-9.2162,-7.4884,-79.9566,-29.4084,20.5175,-1.2078,19.3986,-7.3151,21.0262,30.9361,2.9577,22.0695,-4.1303,18.2762,
-2.8057,-10.9446,-84.9218,-27.6439,7.5709,-15.2353,8.4721,-5.9002,5.6646,19.3164,5.7088,7.0777,-2.906,3.0796,
2.7322,0.93962,-89.101,-22.5683,0.7711,-8.5193,-2.2869,0.7994,-7.3669,9.8598,3.9018,-3.5976,1.661,-7.9003,
4.0328,6.2519,-77.4094,-18.7736,-0.73967,2.2425,-2.6381,0.26388,-2.5323,6.8277,-2.6779,1.9878,-3.8082,6.6737,
8.1839,3.4367,-66.4188,-15.2067,-4.1123,-3.2611,3.8662,5.6171,-1.8914,7.8821,-2.0292,8.2137,-2.1148,20.3733,
4.7648,6.1595,-65.3627,-15.2703,-5.8176,-5.0184,2.6573,8.2091,-1.7779,-0.4009,-1.9074,-2.0413,1.9171,11.4525,
-1.8667,8.2304,-63.881,-16.7946,-1.0751,0.65313,-8.7288,2.347,1.7453,-10.6274,-0.3285,-14.1224,3.2666,2.4678,
-0.29065,1.3906,-59.5601,-16.275,2.4065,2.078,-11.6221,0.74216,2.1286,0.26127,5.0612,-6.929,5.5116,16.4197,
2.1669,-1.1338,-54.5225,-10.9059,1.7731,5.3694,-7.5077,8.9957,-2.3921,14.3456,-6.4705,5.6898,-0.18908,15.0017,
-0.8917,4.7917,-52.2276,-3.4175,-1.2618,10.9048,-6.0808,22.1236,-6.1541,13.5405,-14.8688,10.23,-2.1303,0.0015631,
0.62677,0.11119,-51.5345,-5.653,2.2309,3.9054,-4.2519,22.2602,-10.1779,-1.3719,-8.6067,4.2462,-3.4665,-11.7693,
14.6892,1.5695,-44.0489,-0.92074,7.4662,4.1591,-0.57977,19.4606,-7.1262,-10.6198,-1.7442,-0.40165,-6.6755,-11.5511,
24.1145,9.7739,-31.1554,10.3621,6.5306,18.0095,-4.9376,24.6385,-3.2812,-11.4471,-3.1041,-3.7941,-8.7155,-9.3936,
18.2737,2.8405,-29.7745,7.2993,5.6499,25.2827,-6.1063,26.5772,-3.5733,-9.2963,-7.3118,-5.0314,-5.7525,-11.2709,
5.9506,0.23044,-37.2622,-2.4132,8.7284,17.4202,6.4637,20.5891,2.0107,0.53607,-0.52662,3.569,-0.037827,-20.8453,
-8.5064,4.1212,-36.979,-2.2684,9.1811,7.5893,7.0524,11.5441,2.8665,5.3854,2.4335,5.3074,-8.8221,-33.6946,
-16.3498,10.708,-24.9976,6.6543,11.5593,11.039,-2.1578,18.6615,3.6706,7.0153,-0.6415,8.894,-11.2209,-28.3115,
-11.9522,1.7679,-25.9383,-1.067,10.3772,15.7462,-1.5399,16.0773,7.8438,2.2009,-10.8536,2.0148,-0.29702,-25.1483,
-5.3775,2.6374,-20.4765,-5.8841,21.4702,14.801,12.6525,4.3741,19.0888,6.9503,-3.3679,-10.7968,13.8208,-37.7394,
-4.0784,0.52659,-23.1534,-15.2941,15.3004,1.2213,11.4605,-3.6989,9.1569,1.6518,0.73876,-16.9835,12.5587,-46.7587,
1.0474,-0.48103,-26.6457,-11.4479,5.5954,7.0051,1.9868,10.623,-0.17955,-6.2574,-2.2346,-1.8645,2.0431,-32.2376,
-1.9445,-0.45217,-22.118,-4.903,2.3316,20.6848,0.89157,20.2928,-3.0969,-1.9769,-3.0765,2.6965,-0.032498,-31.2794,
-2.8034,-0.42457,-15.9094,-2.6563,2.1912,19.0123,-2.0905,24.9328,0.99353,5.9522,-1.9154,-5.2749,0.94594,-38.1892,
9.0795,0.57646,-19.8363,-0.54442,-0.86879,11.037,-0.98948,35.1515,-1.9946,-5.1444,-8.6341,-0.077767,-4.9684,-21.7978,
20.2498,2.4939,-21.5752,0.46427,-4.7217,24.4748,-0.93011,43.7815,-5.78,-12.6458,-3.235,3.8319,-3.6942,-6.39,
16.5943,-4.9773,-16.8636,-1.0276,-3.9499,33.802,-7.2199,40.667,-7.8737,-9.4466,3.3047,5.0665,-1.0311,1.4268,
14.6226,-1.7497,-16.8283,1.9621,-0.78484,22.9868,-6.7867,47.9891,-6.4253,0.88236,-1.7756,18.8625,-2.9222,-1.5878,
6.4227,1.7719,-17.2827,-5.4772,-10.9884,23.0721,-8.82,46.5743,-12.3853,-6.4922,-9.9667,13.8814,-9.0925,-1.0041,
0.18028,-0.28648,-9.4121,-1.2435,-4.472,35.3549,-9.2668,36.9458,-6.7611,-6.1026,2.3464,-1.0515,4.1442,-3.8729,
-7.1531,-1.7338,-13.2409,11.0342,7.9999,33.7221,-7.2472,30.3355,3.8951,4.5141,14.4083,-1.044,17.0752,-15.8441,
-15.5095,-4.5583,-16.351,-2.319,-1.2666,17.5988,-5.8359,22.6578,-4.1482,-5.5193,3.7821,0.97111,3.3591,-28.9934,
-0.47893,8.8939,-1.27,-2.6683,-4.6072,17.4628,-5.9742,35.3984,-11.2218,-8.6047,3.0667,-1.5286,0.71699,-23.4049,
9.8565,14.7063,4.2314,11.5918,-1.8898,30.515,-11.9609,43.5812,-9.0835,5.0916,1.4187,-0.94796,1.162,-18.5826,
-0.4984,7.9663,3.001,13.8814,5.0572,25.8117,-10.2667,31.2037,-1.7049,12.5957,-6.477,5.9425,-2.8123,-20.3972,
-5.3491,8.4648,9.655,8.167,7.6823,14.5004,-4.7692,19.5689,4.2549,3.0534,-1.2068,9.4915,1.261,-22.1019,
-7.4691,1.6109,-1.1749,-2.5737,-3.0288,9.2373,-7.9001,14.9777,-0.39344,-7.3799,3.2586,-1.3291,1.6734,-29.0738,
-7.021,-0.43778,-3.0569,-2.4192,-4.8,16.4932,-8.4021,28.1791,3.5352,-3.0321,4.0391,-6.1304,1.573,-32.2105,
-7.0878,-0.90046,-2.3859,4.071,-3.048,5.2525,-14.244,31.4255,4.7871,-7.2441,6.2378,-5.2746,0.014535,-40.5294,
-6.1749,0.61807,-0.77828,8.2203,1.5284,-1.4082,-14.8539,18.3133,5.9644,-10.226,7.328,-5.4466,2.4542,-44.4432,
-11.173,0.093442,0.73292,-0.57103,-1.0038,5.0218,-10.5461,21.6071,6.095,-7.1719,1.5188,-3.6553,2.7954,-37.3831,
-7.5746,0.087835,-1.2636,-2.4893,-4.8486,13.5076,-10.8893,34.4107,4.7524,-1.8606,2.4037,-2.4599,-0.30131,-26.354,
-5.6551,3.4996,1.2532,10.8397,0.8123,24.9002,-2.9139,40.2122,3.0032,1.669,8.6055,-0.84737,0.20478,-17.4502,
-9.7093,9.6352,0.68956,10.6773,2.2271,29.7518,-1.2746,50.0031,-1.5705,1.0804,0.76666,0.66797,0.68097,-13.9627,
4.9732,19.3081,0.16018,6.6197,-0.34749,26.5017,2.2189,52.372,-2.9403,-4.3544,-11.4825,-2.7891,-0.82486,-10.6849,
17.9101,18.6377,6.4961,11.592,-0.81465,18.5665,7.4548,35.1296,-7.157,-12.3912,-11.2815,-10.9208,5.5707,-13.4608,
17.3235,10.1973,15.3809,16.2656,6.5563,10.1304,2.6145,18.9219,-16.0026,-8.2307,-10.1166,-13.6816,5.7244,-17.0462,
26.0471,10.5615,14.4581,17.2426,11.0449,-3.1685,-1.4474,17.6753,-15.0424,-2.8558,-12.4386,-5.0507,1.4759,-11.1414,
38.5843,24.0278,13.5906,15.2316,13.3107,-11.765,6.4491,2.5148,-17.0684,-9.5181,-6.8108,-3.7721,3.3399,-7.5444,
50.3692,36.6862,26.4428,22.1282,26.1797,-18.8696,17.7777,-11.7361,-17.9968,-13.8285,-6.4017,-9.4033,8.021,-15.8783,
59.1739,30.6917,35.5953,34.9005,36.3236,-26.524,23.5446,-25.132,-6.1784,-7.1412,-17.7331,-7.8626,5.5873,-14.9251,
65.3856,25.9212,39.3167,45.0652,43.9072,-30.7896,24.084,-37.724,6.8834,6.9544,-10.8121,3.3482,9.1561,-9.149,
47.3625,25.8309,33.5416,28.2613,43.7138,-42.1214,19.2228,-49.5606,10.8644,7.0261,3.0167,-7.1028,10.0727,-22.7001,
30.4207,24.7695,25.1835,23.093,37.6744,-45.9397,16.605,-60.687,7.772,2.2119,5.2763,-20.7766,9.9558,-19.9287,
37.7592,29.6289,35.8756,35.8074,41.7595,-35.8617,24.8832,-63.7265,4.8652,13.3058,6.4242,-5.43,19.6091,-4.633,
40.3743,21.0167,22.0075,36.6431,30.4664,-37.6155,12.6507,-71.6185,-7.1423,3.7209,-3.7239,8.9958,4.7649,-4.2999,
42.8334,25.6132,13.8535,20.7769,35.473,-23.643,18.7262,-68.2974,-1.8323,0.56912,2.3571,8.0232,11.3126,-0.13685,
50.514,20.6599,18.3918,21.9718,30.9041,-18.8079,20.0431,-61.759,-7.0919,-2.8825,6.6092,-0.75676,24.7338,10.1229,
56.7577,19.9078,20.7049,29.9271,21.7273,-20.1199,14.447,-61.4705,-13.0119,-2.2211,2.7952,6.6112,26.7229,2.193,
43.5896,20.6659,9.7,21.2979,27.2582,-17.9362,21.3907,-59.7348,-10.2787,-3.0643,-10.0641,11.0951,18.2851,-4.7722,
29.7467,18.9374,13.511,17.5795,29.0392,-14.4195,19.6188,-42.0507,-16.9845,-5.321,-18.7349,3.1078,15.7234,1.8597,
32.8444,19.7546,26.8004,30.6247,13.1969,-11.6018,15.5131,-28.733,-20.846,-4.0252,-14.6813,1.9448,12.8285,10.5347,
25.9917,12.7113,24.7604,40.07,-0.82972,-15.7868,20.4404,-38.7241,-17.6432,-1.8317,-16.7294,-1.0999,5.2247,5.9976,
10.7651,5.1155,13.5122,36.6898,7.0301,-13.8636,10.4279,-44.2102,-11.7026,-1.7208,-21.5827,0.91812,6.8642,-0.21935,
0.35563,7.7372,18.5586,32.5358,11.4889,-8.1502,-4.2978,-36.677,-0.26278,-4.5471,-14.4312,2.8155,6.4519,0.76938,
-11.3808,5.3199,24.2791,26.6787,5.9185,-16.4482,9.0826,-36.4289,4.635,0.60682,-0.87323,6.5516,4.1118,1.6992,
-23.3891,-9.0992,15.9888,17.2679,4.5874,-22.2945,22.6377,-42.0528,0.45185,11.3095,-5.7019,13.9686,6.7941,2.5738,
-36.0858,-22.6533,4.7789,8.9097,-2.033,-11.6827,7.1794,-45.8752,-2.0153,6.2379,-18.5389,9.7144,-1.9116,3.8839,
-36.9048,-16.0363,0.58662,19.1142,-9.722,-0.24264,-7.3513,-29.0227,3.9627,1.9586,-13.5225,20.8457,-11.56,17.7508,
-36.1555,-13.6091,-2.8651,16.5033,-10.6027,-7.5501,-18.1925,-13.1813,4.2129,-1.576,-9.2941,27.894,-8.4254,30.7858,
-38.8672,-17.6746,-0.74117,6.7261,-8.9905,-3.1921,-12.2199,-6.9101,0.05512,-0.50538,-12.6415,12.1204,-2.0628,14.8938,
-31.1661,-9.2921,-0.20869,9.7396,-12.8451,11.0994,-16.8558,-6.9835,3.4688,5.871,-12.371,-2.3311,-7.3081,8.6311,
-24.4141,2.0045,1.7568,15.9892,-14.0264,21.2286,-20.7255,2.2225,7.1657,7.4717,-1.8657,1.7138,-2.9646,15.9233,
-21.4848,5.3018,6.0445,18.4464,-12.6963,21.4194,-13.1364,16.1892,7.2243,2.6299,9.4729,-3.7585,11.3133,23.2664,
-25.0772,-4.7799,-0.17576,6.601,-23.6501,24.0388,-15.2777,21.131,6.7904,-5.3384,2.0709,-2.5565,12.6427,26.752,
-26.0136,-7.9101,0.32279,4.74,-19.7901,21.1325,-13.8721,17.4222,9.8,6.2089,-3.4234,11.6969,7.4911,28.5639,
-25.4288,-8.4115,-1.6491,7.3846,-17.6267,9.1245,-11.0877,14.4248,4.33,12.6705,-8.099,11.0502,5.0886,14.158,
-21.9506,-7.9073,-0.57412,-0.86899,-22.4266,4.6725,-5.5409,12.5828,1.1416,-0.78137,-15.4236,-3.7128,-2.0503,6.4749,
-22.098,-7.9204,0.92483,-13.0195,-20.5926,7.8096,-5.697,9.3873,-2.3434,-7.08,-18.8908,4.2649,-11.2018,12.432,
-20.2841,-14.7672,-1.5712,-2.9642,-15.94,8.8051,-10.7242,16.1461,-9.5249,-1.2862,-16.2933,18.109,-10.0408,19.9842,
-21.0196,-17.7858,-6.358,11.3136,-19.8651,5.3482,-12.0333,17.1299,-12.8589,-2.1846,-18.2442,20.0071,-7.4858,21.7146,
-19.7584,-9.8855,-3.048,8.2504,-13.7922,6.0034,-6.4302,12.197,-3.3003,-4.9825,-3.0496,18.8067,-1.1796,22.3638,
-21.5019,-18.0785,-0.91256,-6.3446,-4.1785,-2.1669,-3.1154,8.5362,1.7788,7.0316,11.2334,18.6543,5.7252,20.0459,
-18.2588,-16.9938,1.0947,-1.627,-0.99881,-9.847,-2.9285,10.953,0.696,16.3718,14.5757,18.5111,13.1918,18.8432,
-9.8417,-3.7706,3.47,12.5706,0.52563,-14.6257,-8.1223,7.8553,0.16576,1.2895,10.2846,15.9368,8.0068,19.1771,
-1.4407,-8.4258,9.1194,18.7065,0.49455,-14.7246,-6.6585,5.4315,6.0134,-5.6771,10.644,14.9801,-1.2593,15.0979,
-6.7242,-19.1474,7.1072,10.2621,-4.9051,-11.4002,-3.8189,7.5457,3.2116,7.8427,11.4694,9.6883,1.2563,10.7741,
-16.0829,-13.1175,1.7997,6.7173,-5.5868,-9.7401,-4.5658,6.1169,-3.8142,2.491,9.8052,-2.6081,9.968,7.1996,
-10.2369,-8.4254,9.5018,10.2193,-0.37057,-8.1797,-7.2209,1.8449,3.2487,-7.4205,7.2639,-9.2857,11.322,12.6247,
-8.1582,-14.2654,8.4437,5.2136,-3.7649,-12.0815,-4.3461,-9.4925,4.5182,-2.5827,-6.3515,-6.288,3.3211,12.3557,
-12.0617,-8.0395,9.4016,7.3418,-5.98,-9.8926,-4.5734,-13.316,-0.1459,7.8233,-11.3395,8.1893,-1.2713,11.1263,
-10.85,-6.0931,12.2545,10.3183,-1.2272,-5.882,-6.74,-9.1,6.208,8.8189,-7.2421,18.9811,-4.612,14.8518,
-12.64,-15.0016,6.1497,2.3762,-2.6186,-6.9931,-4.8715,-16.853,10.2285,-3.9143,-4.3675,3.7423,-1.8952,13.4727,
-10.9046,-13.1255,3.8282,-1.6714,-1.4854,2.2126,-4.5792,-13.8888,4.7338,-5.6315,3.7055,3.4616,7.9816,21.4504,
-12.2029,-8.4334,3.5985,4.2864,-8.2299,12.8184,-9.186,1.0445,1.5212,-0.41301,8.3638,15.9455,-0.30788,34.2634,
-15.3757,-8.9034,7.2876,13.7923,-9.6891,13.0263,-8.6349,12.2646,4.358,0.58872,6.8859,13.0367,-12.0045,32.7522,
-12.5011,-11.2982,12.7079,15.8938,-12.0358,10.2917,-10.0688,6.6476,3.1205,-0.42356,5.4968,8.3495,-9.3313,16.687,
-9.3105,-10.1319,21.22,14.4517,-17.6601,5.2807,-5.0721,9.6653,4.3978,5.9474,6.6315,5.4071,-4.3788,9.7721,
-13.633,-7.571,17.9948,11.6325,-13.6706,-8.7033,-2.8148,11.0384,8.0389,2.6625,-1.5765,-7.6085,-10.9492,1.3758,
-7.9339,-6.1407,17.8907,12.8866,0.8168,-0.37103,-3.6219,11.3521,7.5566,3.4788,-4.4109,-6.176,-3.4591,-4.5648,
-4.0409,-10.1662,23.1628,15.5304,-3.6262,10.8774,-8.7746,11.159,-2.1718,0.82905,-7.5633,-5.3174,-1.7875,-9.6609,
-4.7744,-3.6982,19.821,19.4797,-16.0988,4.3686,-8.2472,19.2755,-7.8986,-8.0068,-19.8006,-11.8315,-12.4184,-11.0324,
-4.976,5.7987,18.1437,17.8229,-2.9298,1.6655,-4.3363,29.3461,-7.9127,-3.1333,-25.9346,-12.5865,-16.0664,-0.12032,
-3.7014,-2.3602,29.7457,12.8485,10.9132,12.3037,-5.0521,24.6563,-4.5099,-1.9693,-18.5215,-12.8074,-14.1264,-2.0661,
-7.3844,-8.0757,29.9135,8.1725,4.4004,19.3756,-3.773,14.3909,1.6187,-3.8032,-7.6481,-8.1339,-5.4687,-13.6572,
-21.0413,-1.2451,14.0187,-5.497,1.6963,8.9389,-0.12959,4.2533,7.8676,1.795,2.0859,-6.1809,4.1344,-16.2539,
-30.0851,-2.6354,-0.057205,-8.5842,5.0115,2.0565,-4.5149,0.58108,13.7416,3.1513,11.2357,-7.275,0.46936,-6.9806,
-31.6974,-8.8228,4.3388,-0.74753,2.2694,10.2317,-18.344,6.8918,10.4757,5.4028,8.1201,7.2615,-5.9053,2.7119,
-25.4025,-4.8764,7.496,0.76229,-0.30686,17.9159,-13.8819,9.8953,3.502,10.4477,-0.66515,18.1085,-1.157,7.9192,
-23.8779,-7.5124,3.1412,-6.118,-5.17,11.9603,-3.2864,7.3491,3.2914,5.9163,-6.4828,7.2594,0.86494,10.3726,
-26.3508,-13.8962,6.8573,0.10667,-9.7413,8.3132,-4.0657,13.7417,7.9755,2.6318,-13.9044,5.8474,-10.9025,11.7028,
-13.5426,-4.7634,15.7209,8.3984,-0.85781,18.0655,-6.2628,27.0172,5.0559,7.8439,-11.6051,17.7006,-10.7364,15.3936,
1.3699,-3.502,19.6587,3.9899,4.0743,15.0291,-5.8866,31.3098,-0.128,-1.4133,-7.9803,2.5385,-6.1876,4.7074,
10.6184,-5.2439,29.2182,8.6316,-0.075234,10.2223,-0.65231,30.4072,-0.12032,-13.0436,-7.5015,-11.7138,-3.8634,0.51995,
10.4693,9.1707,30.8817,15.4357,-8.3688,18.8831,-0.12515,33.9519,-0.60205,-8.844,-7.5394,-13.5637,-7.0486,4.8818,
22.5323,15.5097,33.9103,21.3436,-6.8906,21.6551,-1.0937,33.8678,-0.56592,-4.4083,-12.9441,-17.6309,-13.4597,-5.1732,
21.1808,0.91147,45.9757,28.8496,4.2623,11.5702,-1.0276,33.7882,3.3735,-6.0963,-7.2859,-14.6205,-11.6757,-13.6494,
5.81,-7.4413,52.0594,25.6536,-0.38738,6.482,-0.47885,29.3199,2.6831,-5.2425,0.47235,-7.3982,-6.5821,-21.1285,
0.52375,-2.1133,49.9123,10.0144,-8.1737,4.1405,2.4794,17.7981,1.5456,-5.9045,-11.2706,-9.8829,-5.2107,-25.7184,
0.98127,0.45449,61.0176,1.5478,-3.2893,6.3331,-1.0864,20.1482,2.9179,-1.1562,-11.0824,-5.8729,-4.41,-10.0753,
-13.1776,-5.4308,67.1752,2.4319,-8.95,8.8821,-12.7363,21.8674,-9.9493,2.8182,-8.4645,-1.6155,-10.9785,4.6293,
-26.487,-5.1049,65.0967,6.1901,-12.319,12.2533,-9.0441,21.5314,-22.0444,-2.2329,-22.0566,1.4095,-9.3447,10.8088,
-30.8675,-5.7751,69.9775,-7.8489,-5.7213,11.5186,-5.572,25.121,-21.6973,-6.0035,-34.8332,4.2544,-0.9735,11.1368,
-24.6219,-4.9402,79.8788,-15.6765,0.9675,16.197,-3.7731,31.9123,-9.1688,-2.2267,-18.6432,0.58262,0.54942,9.9801,
-13.382,-1.7152,89.1861,-2.0443,3.838,22.0588,2.3108,27.0681,0.16788,0.83543,-3.4246,-7.2629,2.469,-4.7187,
-11.6026,-3.5648,97.9349,-4.8502,0.67917,13.9017,0.21963,14.7054,-3.7468,0.78577,1.1739,-9.7556,5.2494,-18.5356,
-15.2995,-3.8389,106.1588,-13.8333,-1.8016,5.7464,-2.2336,9.43,-4.01,3.1796,-6.2186,-8.6823,0.54136,-20.9518,
-1.6909,0.29597,113.8893,-0.31266,0.25804,12.2343,-1.124,14.7218,4.0402,2.0124,3.9162,-9.1378,-2.4197,-15.7901,
11.5907,-4.1148,121.156,11.9101,-3.1745,11.9892,-5.4496,23.1126,3.3098,2.3796,0.26511,-14.9347,-4.7155,-22.1647,
8.9427,-1.9154,127.9866,9.243,-12.7466,0.53028,-8.0512,24.6553,-2.7463,12.9755,-13.8508,-12.0861,-11.2661,-9.1193,
0.10806,0.6405,134.4074,1.3664,-16.3748,-13.6015,-4.1511,9.076,-5.0216,-0.98221,-24.7905,-2.0868,-24.6902,5.5279,
4.4946,-2.815,140.443,-1.1566,-7.0933,-14.3056,2.4431,1.1533,2.6017,-8.2453,-9.2031,12.1384,-25.7049,15.5034,
-1.1451,-8.0151,146.1164,-0.59919,2.6064,-19.7933,-1.1205,-1.3569,-1.9484,4.4525,-0.29762,23.6693,-15.8655,16.0372,
-11.815,-3.6297,151.4494,13.5368,8.3075,-32.7057,0.8992,-15.3755,-4.76,10.0429,3.6257,17.3676,-12.961,13.1225,
1.0975,1.9577,156.4624,25.4718,4.3925,-44.8433,1.3337,-25.2472,4.8002,-0.81027,5.8487,13.885,-8.7659,11.8466,
15.1317,-3.5289,161.1747,25.4085,5.593,-48.122,-0.21127,-28.1254,-3.7859,-6.1317,-0.84823,10.6109,-7.7519,11.6239,
25.507,-1.8531,165.6042,21.443,2.8174,-56.4609,3.2194,-40.5379,-17.6588,-1.3698,-10.0714,6.5582,-10.7029,9.4624,
21.5351,1.6756,169.768,14.7868,-5.6502,-67.1732,3.5137,-52.2056,-24.9539,-9.5861,-17.7657,1.7712,-16.4072,11.3352,
15.3614,-2.3305,173.6819,16.8282,-0.4306,-72.962,-0.60258,-63.1733,-21.5041,-7.0585,-17.6763,-1.2646,-20.3043,12.6076,
15.4163,-5.1192,177.361,20.7,5.4528,-64.6788,2.3631,-70.7778,-18.2614,7.0327,-2.9481,11.5029,-15.1805,10.8746,
4.2402,-9.2051,180.8193,17.994,5.6146,-66.1676,5.6383,-77.7583,-14.7247,-0.71134,-1.3062,12.2777,-9.8767,8.7581,
-10.1142,-1.3312,184.0701,22.2839,15.5283,-56.828,4.8115,-70.6518,-3.5906,-6.0373,4.1417,7.1475,0.96747,6.7681,
-15.909,0.21273,187.1259,21.4348,13.1316,-39.3183,1.1058,-64.9486,6.8759,-3.235,17.9932,10.1357,6.2785,7.8261,
-3.2389,-4.6806,189.9984,20.1492,9.4152,-28.117,5.921,-62.0277,13.2969,5.7457,31.0136,16.3621,3.9493,21.4565,
-4.0206,-3.4238,192.6985,9.1772,4.9452,-38.1451,6.5417,-65.1401,-1.6009,0.51896,15.0528,2.6883,-8.9798,19.7377,
3.0542,4.5922,195.2366,5.698,2.696,-37.8089,8.1018,-67.0888,-5.9535,-3.4168,9.3247,-10.1646,-3.5594,4.4534,
7.264,1.8757,197.6224,14.6303,3.9983,-35.0524,13.9617,-71.362,8.5037,-7.6048,10.2283,-11.0188,5.9282,-9.9138,
-1.9579,-1.1659,199.865,16.6805,12.5445,-27.0921,19.9571,-72.9383,13.9067,1.6376,3.7575,-6.4526,2.6435,-21.6348,
-6.234,2.3206,201.9731,9.3351,13.2572,-11.3666,27.0582,-54.462,9.6557,13.7429,10.8546,2.2331,3.9504,-18.8722,
0.97412,1.2054,203.9547,16.5841,8.5558,0.11011,17.6247,-37.0943,8.0994,9.0133,16.0604,3.0751,4.6894,-7.9768,
5.3092,-0.33146,205.8175,20.9595,5.602,-9.1701,2.4672,-20.7686,-1.6611,2.1269,0.99677,-3.4549,-8.7716,-3.1056,
17.6818,-1.2876,207.5684,16.7729,1.3617,-2.7628,10.0736,-25.7002,-15.6615,-7.7637,-13.163,-5.2006,-13.1264,-5.8473,
28.8249,-1.6984,209.2143,22.1126,-7.995,1.7969,11.9102,-11.9551,-23.563,-16.572,-18.3421,5.3625,-2.0877,7.6827,
20.2609,1.3321,210.7614,21.7614,-18.2548,2.6647,-2.9044,2.4298,-8.0493,-12.6491,-10.408,14.8033,-7.8209,19.9133,
15.6278,5.6447,212.2158,18.9912,-21.5521,15.6844,-8.6443,10.5816,-9.4641,-5.5446,-19.059,12.4497,-17.6023,21.159,
16.1551,1.89,213.5828,14.4356,-12.937,11.3263,-6.6607,13.3647,-17.1934,-12.534,-4.7345,3.4055,-8.2471,16.4734,
11.7692,5.1931,214.8678,7.223,-7.7672,-0.57991,-8.7016,7.1933,-5.9112,-19.1036,9.6496,-5.0973,-2.3837,13.0435,
9.1101,5.8585,216.0758,4.8376,-16.0882,11.17,-8.1795,4.8087,-3.6045,-7.2192,5.2212,-4.7915,-9.0747,12.2609,
5.1464,-3.7681,217.2112,-1.7987,-18.5399,16.8449,-12.0827,5.0082,-13.6393,-2.3921,-3.3911,1.842,-9.9943,5.1792,
6.7906,-0.61296,218.2786,-8.5248,-6.6885,10.9531,-10.3808,6.6607,0.84715,-4.2015,6.5755,8.5656,1.3445,5.8454,
3.9422,-3.9932,207.7363,-6.5484,-11.6562,10.784,-6.3409,9.6781,12.0234,-1.5084,10.574,0.72956,1.7518,6.9587,
-9.4735,-14.9807,207.4752,-4.6914,-15.3499,17.459,2.3376,11.5384,4.956,5.9041,12.3805,-8.5893,-0.7943,0.19519,
-16.7151,-16.0339,198.9317,-7.338,-6.6188,21.2934,3.1734,3.036,7.5876,4.5738,15.5427,-1.2399,5.1114,-1.7686,
-13.7602,-15.0719,179.1858,-9.8277,-0.36463,10.2528,-2.8741,-10.8142,14.9424,6.2515,14.6102,10.5496,9.6858,3.2186,
-8.0535,-10.2625,179.1737,-3.38,4.5392,1.8275,3.1555,-9.1894,14.0459,19.5445,18.6146,15.7747,7.1526,2.0495,
-7.0818,-4.2782,181.602,-0.73667,0.8494,8.0635,17.0661,1.6126,13.6916,15.9303,23.8433,18.2448,10.14,-12.1735,
-17.884,-11.3435,173.1468,-13.8716,-2.6186,7.0916,16.5858,-3.8532,14.3342,0.87452,16.0676,5.923,10.9956,-22.7258,
-9.0009,-10.6629,176.858,-11.0873,6.3246,3.7371,8.7575,-1.67,15.4271,4.6719,6.3165,1.6626,6.4308,-7.2623,
2.7663,-1.7241,178.0177,3.678,-0.39995,1.0728,8.7201,2.8242,12.0605,18.4916,7.4025,4.9798,-6.1581,2.0157,
0.64777,-0.6442,169.2892,10.347,-6.2335,1.984,11.1254,-1.2508,13.2894,19.3907,12.8159,13.4676,-7.7412,-0.057799,
-1.3436,-7.4401,160.1083,-1.0125,-7.812,-3.0165,2.6474,-1.1762,3.7054,4.5587,-1.6216,9.7301,-5.3242,6.7792,
8.012,-13.3387,143.1798,-9.2498,-13.6893,-13.0857,-3.8566,-1.5927,-10.6169,-4.9889,-15.6243,-4.9537,-12.3259,8.8135,
6.0663,-13.0264,125.3149,5.4052,-9.4509,-13.7646,-4.1132,-1.9851,-19.3101,-5.1776,-22.0641,-9.1047,-13.0513,2.9147,
1.7973,1.4223,131.4631,19.1809,4.7842,0.72845,-2.8904,4.9671,-10.3414,1.9671,-10.9772,5.1087,1.3999,4.6928,
-0.26256,5.242,124.5514,16.6773,0.59212,1.6608,-1.7409,-0.21201,-4.8399,-6.9379,-15.2005,-2.0318,5.2209,1.4822,
-0.24774,2.9745,103.4111,6.8896,-1.3964,2.5371,6.1736,0.77674,0.33159,-7.4977,-3.5494,-5.815,10.7648,3.3453,
-8.042,-3.0611,91.3485,8.4292,0.64037,2.3858,9.7082,0.73014,-0.66433,-4.1188,-0.40745,-8.3942,10.1189,1.1925,
-3.1664,3.4686,87.3325,9.3875,4.018,4.6828,16.4478,1.1743,4.7455,-2.4077,-0.87101,-10.3315,9.9998,0.63298,
4.3456,4.7246,72.8175,2.4791,9.147,4.8898,19.854,-0.36016,7.8778,-8.6083,1.6213,-7.2706,8.9118,0.10699,
3.5964,0.047571,62.1029,7.6999,11.0387,6.0609,12.3172,7.9591,6.9167,-11.5093,-0.9165,2.4393,3.0075,10.3512,
-6.8705,-2.3953,44.2767,2.8449,-3.7236,2.2802,-1.601,16.7566,0.15658,-0.56766,-12.0886,5.7109,-3.518,19.0042,
-6.4582,-4.2046,33.754,-1.2318,-11.3664,0.19138,-1.5049,19.6562,8.9333,13.5664,-7.4582,5.3673,-3.3079,19.8169,
2.2278,-9.3209,25.3832,5.1886,-13.1249,0.66837,-4.8312,13.1073,7.9088,1.0929,2.2648,-4.2284,-10.431,6.4253,
10.3922,-0.46361,18.4911,6.3414,-12.8255,7.9503,-2.1013,14.7619,-5.7449,-11.1757,-2.2651,-12.2728,-13.2222,-2.2593,
3.4227,5.9093,10.0596,0.59087,-12.5439,7.9604,-2.4632,26.0793,-16.6273,-6.1122,-11.4033,-17.8824,-13.8929,0.31729,
-3.1283,6.0432,3.1095,3.9729,-17.1608,8.9473,-6.7089,32.8121,-13.1891,-6.2339,-1.4455,-14.369,-7.6907,3.7148,
1.941,0.79911,5.8524,3.735,-17.1077,12.3159,-5.3299,27.9158,-4.5872,-19.9599,4.4997,-7.6493,-2.3468,1.5394,
7.1945,-10.4759,7.9423,-3.8112,-14.6163,8.16,-5.4981,24.7759,-9.682,-32.4851,-9.8702,-13.5363,-9.528,-1.97,
5.7863,-8.8709,9.4182,-1.63,-9.8347,10.5989,-2.2397,28.1708,-8.1246,-16.8683,-15.1917,-23.4628,-9.9329,-0.87529,
2.0217,-0.041008,11.2937,-1.0446,-8.7562,19.2375,5.2163,25.9921,-0.31552,-7.5586,-12.8157,-17.6624,-1.0393,1.6178,
-0.05168,-7.8486,2.806,-15.082,-11.1598,12.2262,-3.8828,17.5985,-7.1306,-21.2051,-13.9997,-9.7686,-3.905,0.54466,
3.368,-18.6043,-9.566,-17.1617,-7.0736,2.2181,-7.0664,19.9601,-10.1193,-15.1074,0.94026,-7.718,-4.1592,6.8576,
-0.25066,-16.9996,-23.092,-10.7624,-6.1607,5.5015,-4.2019,22.1791,-9.0237,-0.10093,7.286,-1.8854,1.4599,9.8636,
-8.0462,-5.241,-35.8065,-2.3062,-3.8386,19.2714,-5.9023,25.7298,-4.5777,-7.8488,-2.9147,6.0383,8.2059,13.1763,
-14.885,-0.53303,-47.7581,0.27274,-6.0488,23.0523,-8.9647,37.3657,-2.8385,-16.6525,-6.1564,-1.6466,13.0831,9.9452,
-6.6694,-0.012569,-58.9926,1.7209,-7.1504,24.1106,-5.9863,49.2237,7.5833,-1.5533,8.313,5.7748,13.7626,11.789,
-4.3176,-4.8933,-69.553,-1.3109,-1.8398,23.6396,-8.5556,36.5633,12.9849,0.54801,14.7044,13.2379,5.1272,12.0582,
-14.7976,-3.6246,-79.4799,-5.1382,-0.75341,19.2922,-6.0903,20.2695,0.49072,-13.5849,11.8691,-1.6564,-2.0154,1.5717,
-3.1707,5.3799,-88.8111,-3.853,-3.6372,19.1107,3.0613,16.5572,-4.4198,-12.3369,16.038,-11.8632,4.9396,0.50132,
10.6881,-1.7765,-97.5824,-1.6693,-5.3715,8.2024,-1.027,20.4453,-1.2261,-13.5492,6.2901,-14.08,3.6677,-2.4573,
15.9039,3.2111,-105.8275,4.288,-3.0962,15.5203,-4.8704,33.3186,-3.1045,-13.7123,3.9597,-10.3071,3.4476,4.5242,
9.5806,8.3875,-113.5778,-2.3144,-6.3275,26.7922,-7.0192,33.3276,-13.1693,-13.3785,4.2102,-8.2237,-0.17627,5.7168,
1.6832,1.5387,-120.8631,-3.641,2.3498,17.8621,-1.2285,18.1474,-2.1286,-6.2302,0.54007,-9.1957,-0.65417,-4.8778,
1.5822,-1.4826,-127.7114,0.48251,10.0189,8.9803,10.5603,19.0116,12.0991,1.9536,12.2237,-7.667,10.1242,-8.4901,
0.51128,-1.3936,-134.1487,-5.4035,1.6077,6.4885,10.9027,21.7759,3.1312,-5.9736,17.3474,-15.0171,10.4927,-20.6719,
0.96815,0.15448,-140.1998,-2.6388,-1.9053,6.5877,1.951,15.0998,-1.4502,-7.0788,16.795,-17.5326,9.3756,-33.5315,
-3.4825,-7.1764,-145.8878,0.9361,-0.32652,4.7279,0.36939,15.6583,9.8635,3.5965,22.1329,-15.9931,14.1817,-41.8259,
-17.3736,-15.5324,-151.2345,-10.8347,0.66956,7.3737,5.2288,13.7433,12.2011,2.4042,21.7814,-16.0091,9.4262,-35.4108,
-30.4312,-12.6479,-156.2604,-15.0662,0.62892,6.9309,1.0095,16.8232,11.4686,1.2835,21.451,-5.2869,7.8842,-23.5245,
-27.253,-8.4715,-160.9848,-7.8157,-10.6354,2.1224,-13.151,27.0405,14.198,7.5521,21.6284,8.2109,3.9946,-8.0131,
-18.7833,-9.9158,-165.4257,-9.2993,-16.8309,12.7337,-26.462,29.3235,8.4646,11.9805,11.5442,7.7178,-4.0557,6.5677,
-9.3591,-1.0237,-169.6002,-6.3012,-6.5469,26.0697,-14.2474,40.7433,4.5397,10.7736,8.4105,8.7187,0.58073,20.2737,
5.3024,13.1378,-173.5242,2.8634,-7.1297,28.4662,-5.582,46.1092,-1.5903,-3.5404,4.9774,10.1491,-2.3817,23.6191,
7.9694,10.4535,-177.2127,-2.6779,-20.8019,12.6582,-19.3471,29.2427,-15.5949,-17.428,-9.4213,-4.5599,-16.3388,12.9264,
7.9797,9.3378,-180.68,-1.0528,-5.4538,22.0937,-7.0153,25.968,-10.3213,-9.1164,-15.2572,1.0267,-5.1645,9.7103,
1.6434,0.96797,-183.9392,-0.98914,-0.24596,16.8635,6.0972,31.2435,-0.91637,-2.7118,-0.24178,1.9416,5.885,-0.63491,
5.4493,3.8384,-187.0028,1.9988,0.74529,8.0411,6.7079,27.4163,9.8782,4.2854,5.1979,0.84858,10.4125,-3.5254,
4.1468,4.5846,-189.8826,-1.0506,5.5821,-5.1329,2.3999,11.6714,9.285,6.9568,2.9335,-2.1309,13.6932,-9.1714,
4.874,2.3575,-192.5897,-0.010648,8.1762,-18.925,9.09,-3.1289,9.7049,7.5154,15.4486,2.878,18.7296,-7.6451,
-1.2764,-9.5,-195.1343,-5.868,1.8276,-31.8895,6.5925,-17.0412,12.0506,2.1834,18.4267,8.5634,13.6999,-8.1624,
-3.6404,-14.2995,-197.5262,-5.0275,5.1345,-37.4099,-1.1255,-30.1187,15.7211,8.398,18.7856,21.2292,8.4853,-3.2791,
2.9241,-11.0006,-199.7747,2.5962,12.1485,-49.2653,2.359,-42.4116,13.3129,11.3111,17.1705,25.3245,2.6062,-2.5944,
3.2371,1.8631,-201.8882,16.5405,16.7891,-60.4094,12.4681,-49.9081,19.8366,20.8831,14.6758,18.4355,3.9143,0.0018104,
-1.3506,2.2397,-203.8749,20.9732,5.5312,-65.1942,1.4694,-51.3072,20.1109,23.0476,12.3307,8.0548,-5.5942,8.3002,
12.8304,-5.2172,-205.7424,21.1793,0.80578,-69.5811,-1.0593,-55.5503,7.6767,13.3662,9.1503,20.7511,-17.4621,21.9022,
24.8073,6.811,-207.4435,32.5997,1.7344,-65.4062,5.8383,-59.0513,-5.475,6.7062,-5.4987,27.3161,-20.3194,23.5718,
15.9973,17.6289,-204.2714,37.9653,0.16489,-61.9703,2.0705,-63.8068,-12.469,-1.0178,-19.2688,11.5771,-14.7077,11.9069,
24.8001,14.6187,-199.8257,33.7358,8.9416,-56.2991,4.8757,-65.836,-2.9343,-2.9092,-5.0448,-3.2175,-1.1336,4.3589,
26.7291,8.3725,-194.1822,28.2937,16.7032,-54.3861,18.6832,-70.1843,7.4928,0.68142,9.3579,11.0756,10.1615,-2.2487,
11.0253,7.8701,-192.2938,32.4541,22.535,-61.8616,26.4035,-78.6649,3.1382,5.5225,1.0415,12.7959,9.5518,-12.8528,
-2.8719,8.3744,-190.5188,29.5304,22.1594,-62.0549,17.0097,-84.6836,10.7595,13.9777,0.003494,1.2896,5.0732,-16.9632,
11.4004,2.0139,-191.7792,13.6585,6.7298,-51.498,1.8891,-86.4366,13.0429,6.305,5.8604,-2.6928,-2.0652,-16.9214,
11.749,3.3576,-173.9265,19.6174,-4.4687,-35.2276,3.6722,-70.9994,12.7488,0.55719,9.9023,5.7673,4.4052,-1.8061,
-3.056,2.1801,-169.3484,17.4634,5.5616,-31.1624,9.3098,-66.7394,9.0549,0.52376,6.3791,9.3253,5.1169,5.1919,
-6.8337,1.5613,-173.2875,2.3156,14.5029,-26.8516,14.1203,-60.294,13.8816,4.8854,7.4613,11.2068,-0.5592,8.2974,
-6.4237,-2.4383,-176.614,-9.5936,13.6327,-18.407,6.4391,-45.9383,8.1667,5.5683,5.0607,7.6054,-3.4547,21.4677,
-11.8958,0.63744,-165.0407,-1.2074,6.9572,-4.6109,4.1011,-37.3239,1.8192,9.1397,8.6625,8.1256,6.5152,22.1321,
-11.1821,1.5752,-156.1147,0.81706,5.5638,-3.3583,8.7361,-44.8471,0.734,9.5673,7.1658,9.591,7.1003,6.7042,
-1.2371,5.8738,-148.2119,9.0661,12.552,-3.6448,13.581,-37.7632,4.107,9.4813,4.2958,7.5506,5.2103,-7.7981,
0.30167,3.0808,-142.7366,8.0337,4.4764,-0.98556,12.2777,-28.1758,2.3961,8.4239,5.5016,-2.177,4.4092,-5.4899,
-7.0385,-0.52107,-139.5415,-2.6985,1.7677,0.53854,13.006,-28.9253,3.7163,2.5494,9.5655,1.3706,6.5856,-7.6005,
-9.5447,2.4397,-136.0501,-1.5601,3.6142,-1.4463,13.2021,-25.2373,1.5408,-0.53207,10.9441,10.0749,7.167,-10.073,
-8.4845,-0.14818,-129.3521,-0.97893,-0.020174,4.0091,8.9925,-19.3305,1.9369,9.7505,4.9179,6.053,5.2715,-1.171,
-7.975,-4.0439,-131.3531,-3.8487,-7.8286,10.6031,-2.2856,-18.1702,0.84416,9.1659,6.5754,7.6432,3.9797,11.5908,
-2.6154,-5.7542,-132.2584,-8.4989,-10.2879,8.0148,-11.9116,-9.2694,-6.0405,-3.0992,16.9199,10.1127,7.6459,11.8714,
4.376,-10.2895,-117.4889,-15.7995,-10.6471,4.6045,-12.1724,0.072351,-6.6537,-3.8897,11.9992,-4.5941,5.2346,3.3495,
8.995,-1.8626,-106.5345,-7.041,-10.0078,13.1148,-10.4665,3.9735,-1.3738,-1.7038,-2.8207,-15.6007,1.992,4.125,
8.9429,10.4528,-108.441,3.6321,-3.0618,18.6734,-9.3501,3.2466,-8.613,-12.8291,-15.3987,-13.2011,8.2181,-3.445,
7.9183,11.2896,-97.541,-0.97889,9.3251,21.947,5.311,11.3508,-3.7032,-11.5704,-0.37479,-11.92,16.9991,-12.5124,
-3.2959,-0.12682,-89.7365,-9.7072,5.8366,22.5822,7.9765,13.5979,5.3051,-2.0901,8.4899,-4.3717,9.1451,-3.9525,
-7.0027,2.8103,-85.3283,-4.2432,-0.37119,24.1558,0.66431,15.7105,4.0112,-1.9652,0.17089,5.6541,3.7158,3.1191,
-0.72547,1.6647,-82.1612,0.89243,2.5801,26.6115,-1.3276,16.7209,-4.0395,-6.7283,2.1127,2.3858,4.4689,-0.97304,
-4.5874,-6.2448,-86.018,-5.9947,2.4248,23.0623,-1.2484,6.9311,-2.8216,-6.3251,6.8675,-2.6388,4.2003,0.060901,
-11.1458,-10.7516,-89.6435,-16.3736,-7.4833,8.011,-7.0311,-4.2234,1.2532,3.817,1.5739,-3.457,1.9957,4.9388,
-8.5236,-10.1061,-88.1695,-11.4857,-8.0098,3.6257,-9.5377,-1.0415,4.1066,9.4465,1.4799,-2.2731,7.7345,9.5249,
-5.5716,-4.1302,-86.2963,-1.5229,0.76838,5.8487,-0.66693,4.3906,-2.4854,0.58112,4.8077,-1.6482,13.616,9.441,
-6.2143,-2.9063,-80.1425,-6.3126,-5.1348,6.4738,-0.62784,1.1981,-9.1703,-2.3828,7.4482,1.3787,11.8221,8.8745,
-4.3769,-10.0535,-71.9165,-11.3034,-9.2202,0.71585,-8.8878,-5.2193,-1.2976,4.1067,11.3948,0.80847,6.7202,5.9015,
-3.6258,-7.9858,-72.971,-8.1837,-7.2025,-0.79067,-9.819,-12.2278,-3.6602,3.3718,13.1517,-3.6326,5.8294,6.0359,
4.8893,-1.162,-77.8674,4.51,-14.092,12.4354,-6.7894,-6.1246,-13.6922,-1.224,4.064,-4.8801,0.10917,19.7737,
18.696,5.2532,-66.8497,18.3394,-3.9728,25.7893,-4.9175,8.3429,-9.4531,-5.5441,-4.4784,-1.1698,-6.2429,30.8456,
31.6742,11.2841,-58.4457,11.9256,6.5166,26.7386,-9.0155,21.9423,-22.986,-19.3114,-18.3097,-7.4456,-9.2854,14.8949,
43.8738,23.2982,-51.0339,-1.482,4.1727,17.3242,0.31154,10.9745,-35.7068,-31.876,-31.3111,-17.738,-11.6573,1.2539,
55.3413,36.0003,-39.6738,9.834,12.2213,27.5118,3.7099,19.5901,-41.4867,-24.5944,-38.3307,-24.9718,-13.3988,5.5718,
66.1209,44.1474,-27.0419,21.448,25.588,39.9611,7.8803,29.6427,-25.8174,-10.9147,-30.6609,-24.9375,-8.2009,-3.0606,
76.2536,49.7962,-18.0978,22.6007,36.3115,51.6635,20.5871,23.4707,-19.8758,-4.8902,-25.4047,-13.1907,-3.3163,-8.2465,
82.7531,44.3684,-28.239,16.8525,30.7167,35.4963,18.8639,11.8114,-21.1233,-8.9899,-26.3204,-10.9352,-6.5334,-9.2158,
63.6879,37.8008,-28.4972,11.9359,29.8493,36.295,22.6136,15.9842,-9.1173,2.2881,-14.0026,-14.1836,1.6682,-13.5444,
45.7667,22.8416,-23.8583,3.4097,28.0583,37.0463,22.2328,8.1911,1.1928,2.1508,-10.2334,-21.1427,1.5681,-26.8317,
37.0509,21.4711,-20.4748,8.0861,31.2559,30.9176,19.9228,4.7706,8.9313,2.0218,-8.6434,-14.9931,1.474,-22.8369,
31.4104,20.6713,-23.6393,3.2075,21.0829,21.7409,8.4759,15.711,4.0019,1.412,-11.5423,-11.653,1.8741,-10.2401,
30.5027,15.526,-25.1495,3.992,7.1268,23.3655,4.0632,27.4604,1.8098,-2.5777,-4.9917,-10.9538,1.7616,-6.6967,
35.9946,13.1295,-21.2005,14.0026,8.1632,26.3566,9.1885,25.3248,2.1883,-2.9111,9.4078,-10.7846,3.12,-8.7358,
36.7639,7.4606,-23.833,5.3524,1.8154,18.9172,2.7801,23.8053,-7.7052,-10.5465,4.9944,-18.9236,1.9567,-6.2587,
21.866,-2.7491,-36.503,-7.6599,-12.3935,14.8541,-11.4867,31.1631,-13.0999,-21.6288,-8.9734,-18.7651,-2.0657,-0.025176,
6.8869,-5.5132,-41.691,-2.3193,-18.0511,20.796,-21.1047,31.2463,-11.3379,-25.2121,-6.482,-5.9241,-4.8708,10.7145,
3.0571,-0.78889,-27.962,-1.6916,-22.3376,24.9177,-15.4449,30.836,-15.0512,-20.2829,-2.6765,-1.1752,-5.0661,24.1716,
-3.9608,-1.719,-30.1898,-8.4246,-19.0448,22.4462,-19.3997,33.8664,-14.1485,-17.1134,-5.4445,-3.0572,-8.6676,30.5875,
-12.9977,-9.9135,-39.6055,-9.3827,-18.3906,15.7299,-22.6292,25.4889,-11.8351,-20.4801,-13.4163,-2.3853,-17.4221,18.5016,
-14.1704,-7.3661,-34.3006,-4.9152,-20.2157,20.6436,-16.39,27.8641,-4.2914,-11.4407,0.080229,5.5675,-3.6861,22.2721,
-27.4201,-11.8057,-37.1232,-13.4059,-24.8603,13.5484,-23.2162,24.2407,-4.0335,-9.7778,8.862,0.35282,2.3935,19.9602,
-30.7121,-6.7038,-32.4552,-8.209,-17.0231,4.4369,-16.4546,23.2738,-4.279,-4.7986,2.9607,0.8192,-2.1436,20.2271,
-26.9169,-12.1592,-29.5319,-9.669,-10.1442,-3.6398,-15.4668,21.8778,-14.7618,-7.4392,-8.9325,0.77051,-2.9915,25.8471,
-27.2539,-25.5296,-30.6885,-14.9459,-11.4876,-2.4445,-19.4199,14.7071,-19.7332,-14.8029,-12.3016,-0.25268,2.07,12.5812,
-19.7611,-20.6364,-24.9417,-6.2386,-11.7748,6.4888,-10.4442,16.7542,-9.7627,-4.1512,-1.8,1.7159,0.96931,-1.8404,
-22.9685,-13.0532,-18.0761,-7.3293,-8.6273,7.5635,-2.4964,25.9991,-2.8318,5.372,3.6771,-3.757,-1.5289,0.71009,
-33.7944,-18.6151,-21.3846,-18.1166,-2.7406,14.4317,-1.8586,26.8801,4.6602,-5.2014,5.8975,-4.0196,6.8609,1.1555,
-26.8852,-21.4037,-27.9116,-18.9821,-8.4337,24.3044,-5.6516,18.4337,5.357,-11.7229,5.5432,3.0551,6.4488,-4.7714,
-11.1721,-12.7974,-25.7489,-12.4741,-9.3917,19.4291,-4.8245,27.5779,0.64258,-2.7214,2.7696,7.2649,-0.28417,9.6149,
-12.3987,-12.0295,-29.0855,-12.7017,-11.7573,14.3584,-7.4641,36.6623,-5.254,0.37085,1.6274,9.758,2.6619,23.138,
-18.0008,-11.7958,-21.9708,-5.5936,-9.5878,18.8659,-0.67019,37.8795,-0.54571,5.7177,7.8758,12.5895,10.8003,7.6497,
-15.4553,-4.7425,-15.283,-3.7935,-3.643,9.4364,3.7635,37.0713,4.8575,8.7921,5.9387,5.4886,-3.9478,-6.9093,
-9.6469,-1.5289,-9.485,-7.4709,-6.3534,6.9172,1.5847,43.6331,-0.31594,3.3826,1.6774,4.1823,-12.5526,-20.5947,
-7.6036,-8.7597,-6.4749,-7.5111,-10.3648,20.6022,3.9302,45.4086,-3.7135,-0.23693,4.0172,7.3489,2.3005,-33.459,
-9.5889,-3.8406,-11.4559,-7.5489,-8.2784,22.8392,-0.69914,41.2196,-3.0032,-0.71119,7.1928,8.3724,9.5397,-45.5515,
-5.1076,6.152,-12.7211,-9.048,-6.8057,16.5877,-4.5622,41.6754,1.082,-1.6445,5.7852,7.8701,0.18125,-56.9184,
7.4016,-2.5148,-3.6598,1.7454,-11.7669,17.0561,1.081,36.7334,2.4816,-0.081373,8.8546,-0.90066,4.5639,-67.6033,
9.398,-9.6864,0.95288,8.9623,-11.5493,20.4262,2.4807,38.923,8.6783,4.3161,13.6929,-4.2632,15.5167,-75.5418,
1.024,0.65782,-4.9618,0.61451,-4.0223,18.2246,-6.4543,50.6876,9.1346,0.15209,8.9663,-0.10235,4.8236,-56.9093,
0.47458,12.8215,-6.1286,-1.8634,-0.36396,22.5002,-5.579,61.7463,6.1455,3.56,9.8923,10.1539,-5.7169,-46.605,
-4.923,2.7781,-6.2485,1.6664,-5.7112,22.6152,-0.8512,47.4147,5.2887,8.7164,6.8587,10.0336,-1.9569,-55.0354,
-12.4381,-5.1991,-5.874,-1.3631,-5.369,21.2578,0.17637,30.4698,8.876,7.2169,2.5426,1.6211,6.9471,-51.7337,
-6.8103,-0.0056734,-6.4976,-12.0199,-3.0943,16.0778,-3.7388,22.2404,-2.3952,1.9024,-2.4914,-5.3098,10.4348,-50.5817,
-2.4962,10.7333,-10.0128,-15.2033,-7.7902,5.3505,-4.4909,35.006,-14.9431,-5.0453,-8.1995,-4.0156,6.8802,-59.2624,
-3.3234,10.0893,-13.3175,-9.41,-13.1799,6.9815,-2.2694,43.2114,-6.2364,-4.7426,-7.7075,1.1073,-1.3427,-53.7541,
-8.4935,2.1623,-8.125,-3.4759,-6.0435,16.8132,3.2363,30.3681,8.2378,7.7446,-1.8755,4.4574,-5.6556,-40.2783,
-19.699,-3.8254,0.17214,-6.1973,0.17618,10.9234,6.9471,21.712,11.7042,13.1379,2.1411,6.142,-2.3873,-37.8616,
-17.5401,-3.5959,-0.81375,-3.8724,-0.81042,-3.832,7.5063,19.4332,10.0259,11.3736,9.8236,14.5605,5.566,-35.5894,
-15.0237,-12.6543,-8.087,-2.1751,-0.27285,-17.7021,1.6869,4.1672,14.7943,6.2982,8.7462,15.1519,-2.09,-43.7047,
-13.1462,-8.966,3.1369,1.8604,12.4347,-30.74,9.3957,-10.1828,22.6928,15.6824,12.1265,5.4557,-2.9406,-49.8689,
-12.3574,-3.547,5.8777,4.6778,14.6176,-42.9956,12.737,-23.6718,15.4741,17.6705,13.3509,-8.9716,3.0938,-51.7583,
-11.616,-5.2871,1.62,9.2782,13.7396,-54.5158,15.8778,-36.3515,6.7347,8.8002,13.5259,-0.19132,5.8363,-44.7478,
-6.0375,-8.8745,2.4992,14.5791,9.9867,-65.3449,11.0206,-48.2704,7.3071,3.3906,22.4779,13.9202,5.4866,-27.9629,
-3.2347,-6.8775,0.88479,19.0739,5.9709,-75.5242,4.0138,-59.4742,8.3332,0.74666,26.4987,9.2369,5.6459,-16.4665,
-7.9222,-1.5843,-2.0973,29.6441,7.5652,-85.0927,4.7485,-70.0058,7.8327,5.5834,14.1693,-2.0568,3.3537,-29.5785,
-7.4468,-0.51317,1.9331,22.0074,15.8974,-90.1967,10.3207,-79.9054,4.4337,10.1294,5.509,-0.95739,2.1764,-38.1109,
0.81004,0.49457,8.6516,10.9248,14.9435,-86.737,8.7254,-89.2111,4.1686,8.5456,6.1545,7.8862,1.0698,-28.9898,
-0.21459,1.4409,7.156,21.0084,7.2129,-87.3908,2.3448,-90.7066,5.8706,11.9379,5.7852,13.271,-2.8994,-22.3693,
-8.9878,1.3545,8.6792,19.7479,11.6621,-84.0998,7.0852,-85.2642,6.4953,14.1507,4.4621,9.5457,0.20355,-18.0982,
-0.15093,1.7617,4.7414,9.2885,9.4969,-64.9538,8.1246,-73.8028,8.5452,5.9791,3.7059,3.6035,0.67888,-10.6672,
13.9581,6.5375,3.4809,12.6367,5.0225,-47.3329,8.6136,-62.5405,1.1989,3.6679,3.484,11.1978,-2.2904,-0.26408,
20.0108,8.5858,10.5941,17.248,10.0907,-44.0044,11.5133,-67.0862,-9.1236,4.9123,-6.9756,9.0614,-3.6175,2.1928,
21.2507,8.5582,8.494,6.9385,11.9258,-43.8052,12.287,-73.3121,-5.1597,1.201,-20.6571,-5.5823,0.016131,-3.3088,
10.7006,9.5097,6.5198,0.1762,8.7693,-37.7603,11.0618,-73.3069,6.377,1.6169,-17.0332,-10.673,2.4562,-4.5748,
-1.1681,7.4746,4.6641,7.4872,6.7786,-33.0542,6.0046,-59.6339,7.4589,4.9365,-1.9112,-9.5441,-4.0368,-5.7648,
-0.60904,0.68101,-6.8423,9.479,2.9558,-28.6294,0.27524,-41.9559,8.4763,4.1523,8.5101,0.30356,-8.1876,-2.0014,
-4.478,-2.2893,-11.3133,1.1006,2.778,-23.0066,-0.71777,-34.5009,13.8253,2.9267,6.047,12.976,3.0423,8.8573,
-13.4839,-1.6635,-3.3125,-3.3589,4.0758,-16.2567,0.7898,-27.0618,11.5313,4.2156,19.7842,19.52,15.0633,22.4258,
-12.6749,-0.58766,-2.1377,-0.2293,-3.9788,-8.4482,2.6945,-11.77,11.8154,2.9866,32.6971,16.3958,7.3255,25.041,
-8.9858,-0.55286,-2.9855,-7.0491,-3.7396,-5.9888,0.58028,-16.9213,11.107,-2.0741,16.6353,1.312,-6.7817,9.4385,
-8.9352,2.8978,9.3968,-7.1147,8.6874,1.6931,2.01,-26.1571,6.047,3.4199,1.5372,-12.8667,0.9468,-5.2278,
-8.8866,2.2355,12.25,0.63475,6.7026,3.056,13.1169,-23.1232,4.2197,6.6322,1.933,-17.0875,5.2835,-15.764,
-5.9129,0.63682,1.2639,-7.7019,5.812,0.43117,13.7935,-19.2952,-2.379,1.8407,-6.4816,-9.7167,3.502,-4.5681,
-3.6051,0.59861,2.1646,-9.1918,14.2493,2.3583,4.1798,-15.2085,-9.0703,1.7303,-3.1637,-6.2047,10.1259,4.4926,
-8.2708,-0.41333,10.8208,-5.7113,7.5364,11.0029,0.023958,-3.5574,-3.6451,1.6265,3.8602,2.9537,8.5414,8.1281,
-10.7036,0.58749,11.148,-9.2737,-3.654,23.0348,2.9515,1.5371,4.3837,1.5289,5.5807,14.4916,6.0769,12.5214,
-6.1563,-0.42378,0.71611,-5.7892,-1.4827,20.6757,-5.0356,1.4449,-0.76037,2.4132,3.2938,2.883,2.7832,7.8651,
-4.8104,1.5542,-2.2554,0.41574,-0.41722,16.5066,-14.4961,7.2157,-1.6912,7.1499,1.1436,-6.0765,-2.2653,2.5122,
-8.9144,1.9494,5.2024,-0.096753,-2.8327,21.8627,-11.1858,7.2713,11.5908,5.2564,-1.3655,-3.2705,-6.5219,10.6604,
-11.3085,-0.12056,3.9138,-1.067,-0.70978,23.4791,-15.3957,3.9069,12.8474,1.036,2.6214,-6.9793,-4.1776,15.8779,
-6.237,2.3277,-1.6906,-2.4679,-3.1082,20.6063,-19.842,6.1126,8.6595,2.4379,7.8332,-14.8595,-0.51089,9.5552,
2.4349,1.6995,0.85141,-8.6654,-3.4102,17.9054,-7.4239,5.2573,13.5095,-0.14894,1.0177,-16.4085,-1.9447,8.4944,
6.6823,-0.84297,12.0269,-8.634,0.211,15.3666,1.3192,1.5253,16.1155,-0.62848,2.4211,-14.9355,0.61247,16.2823,
0.42472,-3.7209,14.2348,-7.1385,-3.7062,9.564,-4.6166,-3.4468,8.315,-0.59031,5.2053,-15.0149,0.57619,11.4008,
7.7208,-0.081121,17.7738,-4.2697,-0.066373,12.4067,-0.92305,0.17659,2.4465,0.90962,-3.4056,-5.8164,-4.8279,9.2523,
19.4607,1.3887,11.3383,-0.59647,-2.5034,15.0793,2.5493,8.4641,-3.0693,1.3431,-10.5233,1.8546,-5.0263,22.7971,
7.066,1.7934,2.3594,0.90336,-2.8412,12.7096,-5.9017,9.4203,-9.2312,0.77446,-5.4988,3.2074,-4.2367,35.5293,
-5.5611,3.1498,3.6819,2.3132,2.6984,1.6959,-7.0126,6.4141,-5.2603,0.23998,0.20017,0.57395,-3.4945,30.0927,
3.5586,-0.94418,2.4845,-6.6126,2.5364,-11.0969,2.1943,2.1242,-4.9447,1.2016,1.1642,-2.3895,9.4063,15.5951,
-0.5599,-10.6506,1.3594,-17.931,0.43128,-14.3362,-2.8184,-10.6944,-11.4821,1.1295,3.0473,-5.1742,17.6281,9.7783,
-14.6263,-12.4521,7.6239,-9.5326,7.7279,-2.2484,-1.1848,-7.6117,1.4104,10.3363,15.0681,5.3868,14.1308,17.4902,
-27.8487,-21.956,1.7969,-18.2357,3.8472,-4.5545,1.3273,-12.525,2.7899,10.2041,6.8419,-3.2344,-0.81707,9.1187,
-13.1099,-15.2691,6.0821,-24.4631,5.0809,-3.7937,0.75915,-18.1191,4.087,10.0794,6.919,-5.4809,2.5924,10.0352,
-6.4658,-12.3995,4.7412,-23.9709,4.7765,-7.4707,-10.025,-25.8181,8.7233,1.6651,8.4573,-3.1995,1.4613,8.4575,
-20.1778,-18.4901,1.5277,-14.723,1.5604,-6.0459,-5.5189,-23.2929,16.9864,-0.38735,9.9014,-8.8651,-0.57889,5.9975,
-23.9048,-5.1775,1.924,-8.4706,1.9548,8.4168,-3.7228,-7.7954,13.5263,9.887,9.7953,-10.7742,-0.056146,11.9828,
-23.9345,6.3611,-2.584,-12.3554,-0.60252,20.171,-17.5995,6.7724,6.3696,7.8297,-0.066484,-7.6868,-7.3748,12.7288,
-23.4745,1.0975,-3.4054,-0.87499,-7.4004,19.9368,-13.6706,19.1689,8.9155,2.4779,-3.9675,-1.3685,-3.0273,16.8461,
-18.6495,0.54315,-2.7131,10.4041,-10.3739,19.2281,1.2496,28.2693,3.011,0.86475,-4.218,-5.6789,1.5469,12.4188,
-14.6015,9.2976,-7.4314,2.9468,-3.8934,16.1224,-6.5798,32.4312,-6.9318,-0.16316,8.7272,-11.1962,-4.403,5.8156,
-7.8679,3.8582,-11.8675,-4.0645,-5.6123,13.2025,-13.9955,30.4849,-5.5403,-0.15384,22.3036,-1.7379,-3.1632,13.2763,
0.41429,-4.1834,-5.2979,3.0134,-13.0857,12.4104,-3.3927,25.7277,-0.32681,-1.1206,29.3191,1.2945,1.9085,10.5277,
14.0575,-1.9794,9.12,5.7616,-9.3715,12.6418,-1.2362,25.1601,-4.2113,-3.0054,13.8928,-9.5214,-4.0631,-4.204,
27.3141,3.5085,22.6728,3.9518,-1.4872,13.3483,-4.579,28.0444,-1.5176,-1.3611,7.6892,-9.4381,-4.3073,-5.9599,
30.6124,3.298,32.6513,0.78573,-5.3039,10.5944,3.5048,21.4798,-1.4275,-5.1845,14.0619,-11.8008,0.83128,-3.6503,
24.8706,0.17107,26.7876,-2.1904,-7.9138,16.7928,7.2005,21.1679,-4.2699,-8.7784,20.0522,-15.9738,0.78233,3.4037,
15.5674,-1.7922,16.3938,-2.059,-6.4629,29.4523,-3.9706,26.731,0.86732,-4.3467,23.7301,-4.2772,0.73446,17.2995,
0.53333,-5.1007,6.1361,-2.4235,-9.4912,32.0792,-12.0304,23.6631,5.2083,-3.5969,20.8423,1.3494,1.1793,28.0327,
-13.5987,-7.2357,5.2794,-4.7191,-0.62366,28.6895,-11.7966,23.7073,4.4078,-1.9171,23.0088,1.7564,4.5256,20.0048,
-26.8828,-8.7545,7.8912,-13.222,-2.5392,19.158,-12.0658,19.3559,3.1673,1.126,19.6753,4.5801,2.3011,10.9935,
-39.3698,-10.6693,1.0726,-14.8688,-12.6379,10.6874,-6.9479,7.9444,7.3703,3.4995,7.2677,-0.087784,2.652,-1.8683,
-46.9932,-12.4697,-2.4092,-18.3711,2.2203,12.4858,-2.1384,-0.83081,10.3447,10.6111,-7.2684,-12.2861,10.7905,-13.9603,
-30.0736,-4.3995,11.8353,-15.8038,16.1871,19.0596,6.2889,8.4941,12.165,18.2734,-20.9323,-8.1319,17.4651,-12.6342,
-14.1692,-5.112,16.0628,-12.9031,2.637,12.0585,1.0301,19.6991,2.6485,9.3665,-25.6456,-4.7155,5.6786,-10.9001,
-6.8613,-8.7108,9.241,-0.41334,-7.2848,13.2866,-3.9133,29.2557,0.53709,7.828,-27.0355,0.449,-6.3777,3.422,
-10.3542,-0.37758,14.5446,11.3261,-5.8712,17.3709,-4.655,41.1689,2.4574,11.2638,-31.2709,5.3036,-7.9476,12.0032,
-6.8048,4.5261,22.458,9.6705,-3.5659,8.5186,-3.3996,39.6748,10.12,11.564,-17.6795,1.0803,-11.3758,3.472,
0.4375,-8.4366,18.182,-5.0097,-5.305,8.0075,-4.1717,25.5792,17.3229,5.0131,-2.5187,-13.0845,-17.5272,-8.4505,
12.6144,-10.3714,13.6736,-10.6223,-11.3327,21.627,-7.3384,26.4846,7.9854,-2.6097,4.5216,-20.1656,-11.1065,-5.5034,
25.9575,1.4785,13.3417,4.115,-11.1403,27.7071,-9.3386,38.9955,3.1128,-6.8467,-0.14229,-9.6811,-3.1176,8.9268,
34.7068,6.7588,10.1006,9.2928,-8.0318,34.3427,-12.1953,50.7558,10.2481,-3.9949,6.2113,-2.7542,-5.3716,22.4912,
31.6483,6.3533,15.3521,1.9021,-16.336,41.0692,-5.6056,59.5372,3.7761,-6.6842,-0.018419,-5.5179,-9.9303,29.0636,
34.1429,12.3177,28.531,10.0856,-9.9863,32.2595,4.9813,62.3106,-7.678,-6.7716,-10.2679,1.1587,-3.965,25.8552,
41.3689,11.0911,25.4107,7.04,-0.11254,27.8834,-7.5211,55.1554,-12.5859,-6.8529,-10.1403,2.5537,-5.1916,22.8394,
45.7199,8.4726,18.0281,1.7365,-3.0348,40.3104,-13.9039,58.6801,-9.8787,-9.3707,-8.5559,-10.2916,-5.8561,27.3261,
35.6542,11.3808,26.2205,10.906,-5.2932,34.0414,-0.86609,58.5759,-1.9644,-4.4159,-11.4591,-22.8537,-3.0642,25.199,
19.4149,10.2104,37.8274,10.7401,-6.4402,17.8989,2.6024,40.9613,1.5709,6.1006,-7.355,-20.994,-4.3449,9.5871,
7.4558,3.7402,42.3918,-4.0043,-1.1722,15.7938,3.4228,30.6384,-1.4528,7.6871,-9.8422,-7.0428,-6.0367,-1.7824,
2.1279,-7.2228,31.0617,-13.0943,1.8267,18.7508,1.2649,24.8946,2.5399,7.2254,-22.9193,-4.6677,-10.556,4.1821,
2.4877,-10.2069,19.9239,-14.7492,-1.6995,14.2092,-0.2755,19.0074,16.4875,15.0904,-7.4442,-4.8752,-6.5052,11.2528,
-9.3766,-10.5705,12.8704,-23.6273,-2.5736,7.4986,-6.1161,12.9859,16.5299,11.256,6.7262,-5.5596,-1.2338,3.7436,
-19.5531,-5.0552,12.0987,-19.2806,5.3909,15.8357,-2.8201,20.9928,7.729,11.5576,-1.4874,-0.34405,1.7692,9.377,
-12.0344,-4.2634,23.5754,-4.9442,5.555,23.1832,4.6707,30.9608,6.7758,11.3517,-14.5778,-1.7888,-7.6115,16.1359,
1.3798,-4.0076,26.0664,-5.6235,-3.5644,15.9351,1.4615,34.9612,0.5131,1.8845,-17.6082,-9.4907,-17.8939,7.3577,
15.397,7.9479,24.5024,-11.1432,-3.3505,11.074,1.3738,36.7676,-4.3997,-0.18157,-14.5996,-11.8502,-14.8673,2.0352,
25.755,11.3756,24.9843,-4.618,-6.079,14.3141,2.2678,35.5381,-1.2071,-1.1472,-11.7711,-16.0207,-9.0946,10.6987,
26.6507,5.324,24.9493,2.9811,-12.0602,15.8953,4.5718,33.8938,-4.5517,-6.4474,-10.5768,-18.4765,-0.25087,21.2839,
23.0996,5.0046,16.6192,-8.9128,-8.4067,10.0615,2.3455,29.9081,-13.0647,-11.9177,-18.7283,-21.273,2.6932,16.1027,
24.1546,12.0264,17.0866,-13.7471,-2.5332,8.9698,1.7167,31.5306,-7.8878,-5.8335,-12.2346,-18.5316,0.091534,16.6006,
21.7284,4.4707,25.8235,-5.1122,-5.3102,12.3357,10.3998,35.4959,-0.58049,-1.5785,-1.7384,-12.5387,-0.89091,10.7235,
23.3537,1.2735,30.1321,1.0516,-6.9437,8.6675,16.6099,34.3422,0.43037,3.3973,-6.5152,-11.7863,1.1155,-3.588,
18.5354,6.5671,28.8122,-5.3566,-5.063,-5.9526,9.2673,19.1025,-6.9175,-1.1996,-9.5413,-22.3062,-8.2264,-5.8137,
8.1496,4.7085,26.5959,-2.5947,3.5393,-19.6954,7.2476,5.7537,-3.085,-6.4972,-7.5043,-26.3374,-15.0545,-2.0474,
-5.5194,-9.674,12.7966,-3.903,4.7919,-31.8055,0.46675,-8.6915,3.4462,-1.7133,-7.5421,-18.4111,-16.5913,-12.1756,
-0.30718,-7.1966,24.7199,5.1172,16.2195,-36.7303,0.43875,-22.27,15.9305,12.4895,6.5776,-3.2065,-1.4958,2.6549,
-3.2173,-2.8603,31.0472,2.8577,12.3169,-48.6265,2.3649,-35.0338,6.1881,15.2127,4.2304,-8.3275,8.8997,3.0402,
-6.4413,-3.1767,26.7434,-2.6829,12.0659,-59.8089,11.4972,-47.0318,1.4238,0.19998,4.4646,-20.0319,8.8538,-11.2422,
-4.1018,-3.9621,26.1153,-2.5219,12.3189,-70.3204,12.7603,-58.3099,1.3384,0.13188,4.1968,-14.925,7.3465,-12.5768,
-1.4156,-4.2124,26.0124,-1.8826,14.0198,-76.52,14.4348,-68.9113,1.7461,1.588,3.4569,-9.6364,6.4177,-6.4521,
-0.35468,-4.9366,25.4282,-1.7696,14.1546,-75.8339,15.5217,-78.8766,1.6413,2.4688,3.2495,-5.1532,5.0566,-2.16,
2.1076,-5.1284,25.3665,-2.1524,15.7464,-74.7009,17.0304,-84.7864,2.0308,3.7856,2.5665,-0.45096,5.2412,2.3627,
4.4217,-5.3083,25.3095,-1.5348,16.2661,-73.6354,18.4501,-86.0448,2.3975,5.023,2.901,3.9696,4.4383,6.6144,
7.0854,-5.9667,25.743,-1.4427,18.2191,-71.1702,21.2481,-86.7401,3.2296,6.6736,2.727,9.5895,3.196,12.0746,
8.1252,-2.1908,17.8533,4.0139,11.7569,-59.5775,15.5802,-75.1892,-8.1912,-4.9539,3.0514,5.5971,8.3742,23.5542,
5.1963,10.1433,13.3646,-0.62045,4.705,-43.7997,4.3938,-57.4987,-17.9503,-7.0972,-8.3593,-8.8388,0.54924,28.4856,
8.302,14.9043,22.8138,3.8103,11.7452,-38.7307,14.3817,-54.5368,-9.5517,2.6032,-15.1793,-8.8525,-9.7343,21.4078,
9.7564,2.2944,28.2786,10.4153,16.8981,-46.17,16.4474,-65.3646,2.7369,8.3046,-8.411,-2.4638,-8.1738,11.3368,
9.659,-4.1883,33.9039,11.2544,13.4432,-43.8878,13.9965,-70.2849,8.9178,15.1284,-0.58429,-4.7565,2.5668,7.2396,
7.6145,1.4321,44.0728,11.0671,13.1246,-37.8379,18.5258,-75.3429,12.7758,7.8746,3.8438,-6.9121,4.8538,-1.4938,
1.7885,-1.0949,37.0354,8.9391,4.039,-38.0082,14.9732,-71.3103,23.2363,-6.6978,17.7132,-8.9379,1.1455,-9.7023,
-0.7593,-9.3268,21.6336,1.0802,2.3322,-32.3107,9.6813,-53.8521,19.4016,-10.7447,25.9811,-17.6762,3.5173,-8.6316,
11.9774,-2.9101,24.2407,-5.8177,8.0503,-20.6095,13.0064,-47.6919,4.1375,-12.053,16.6121,-20.5207,15.9984,4.5774,
19.0688,0.19352,29.6198,-6.4456,5.6143,-25.2309,13.2011,-58.4985,-5.4409,-23.0449,4.8763,-23.195,18.9426,10.1608,
13.5316,-4.2111,18.568,-8.499,2.8364,-23.2286,7.04,-48.6426,-2.6735,-22.1502,7.0238,-27.1723,9.5079,7.1101,
4.9097,2.8756,7.6914,-14.8231,0.71419,-7.7349,-3.1446,-31.624,-8.3711,-6.7212,7.5793,-17.7315,7.9614,20.3516,
-9.4849,10.0251,4.7893,-15.3977,2.1354,6.8292,-6.3729,-21.8609,-12.2619,-4.3098,0.77855,-3.4884,5.0427,33.2305,
-14.8295,4.5421,-1.3551,-13.4974,2.9837,10.9247,-6.967,-13.7152,-7.6207,-8.9318,2.6844,2.5784,1.8116,37.1503,
0.1603,0.3645,4.5838,-14.6405,-5.0053,22.9604,-11.4301,1.2077,-1.3063,-5.4669,4.4763,-0.50436,8.537,45.6604,
11.9219,5.7117,11.6303,-12.298,-10.0741,27.9288,-7.3272,11.9304,-3.668,-3.6748,-0.18535,-1.9391,14.3708,56.0999,
-2.8934,5.369,7.0275,-13.5122,-7.5176,19.419,-2.0065,5.3566,-7.353,0.45071,-13.8423,4.0353,9.6035,39.0658,
-16.8198,6.9998,10.5109,-19.5355,-4.1375,21.1829,2.0189,11.8693,-1.0547,6.2808,-22.7748,2.8162,1.2172,22.6219,
-14.9459,5.6038,10.8567,-18.3634,-11.6994,24.793,-2.0073,17.0142,-0.99142,-4.8342,-10.6693,-9.0679,-3.7378,7.1646,
-5.263,-0.59042,11.1813,-11.4036,-8.0684,22.3294,2.0182,13.0653,1.9971,-3.5682,4.0709,-15.3569,1.3685,16.3855,
-7.3882,-2.019,7.0934,-18.0423,-11.9783,20.5016,-2.4959,6.9113,5.2943,2.991,-4.9043,-20.782,-3.1076,17.8434,
-3.039,5.9122,8.6208,-16.9589,-12.2356,27.0816,-3.3222,12.3547,4.9766,-4.9976,-1.681,-21.4871,-4.8732,5.0577,
-6.2737,-3.7176,10.5441,-15.4533,-4.1794,19.1106,-2.6349,13.0774,-0.69106,-18.7977,6.7189,-25.5674,-3.1159,-9.3458,
-3.9447,-4.471,20.65,-12.5736,3.8819,14.0585,6.3098,13.2693,11.065,-3.5699,5.3392,-23.0574,10.7378,1.8984,
-9.0776,-8.5953,12.0895,-23.0467,-3.6735,2.9644,1.5377,6.1276,12.8417,5.4304,-2.3036,-28.0195,3.748,2.2721,
-13.9029,-12.4727,7.9471,-28.009,-6.8701,-2.5825,-7.8287,4.2949,3.7731,1.6876,5.1566,-17.0637,-5.751,-3.2333,
-13.0683,-13.6768,9.4228,-23.4,-4.5054,-0.47508,-14.1935,0.13267,0.61816,-0.36618,7.7767,-4.3243,-0.52445,10.6283,
-12.7727,-13.3447,8.3689,-21.5084,-1.7946,-1.9111,-12.8534,-13.9753,5.9497,0.14333,3.8926,-9.4354,1.9466,18.2882,
-12.9823,-20.3541,4.9378,-28.028,-4.6159,-7.6544,-12.0822,-27.2368,1.6877,-0.84129,7.5641,-20.5843,-0.12223,3.0909,
-6.3463,-18.1568,10.4991,-27.3223,-0.43391,-1.3371,-7.4522,-20.3452,0.61038,-4.6958,11.9913,-13.4917,6.7191,-2.5197,
-3.0365,-3.3993,15.7271,-16.896,12.2842,4.6011,-4.0761,-8.3854,7.4078,-3.4381,4.4387,-0.96665,15.1021,5.4425,
2.0272,4.6152,16.7365,-14.9057,20.3337,9.2066,4.955,-3.0008,10.8688,1.6497,-0.70913,-3.8372,15.1725,12.9255,
-1.999,-9.7617,6.9457,-25.7269,10.3271,1.8197,1.7292,-11.6068,2.4062,-1.3778,2.262,-17.707,2.5475,5.3164,
-9.6896,-7.7681,2.624,-26.1358,-1.0311,-1.2181,-5.2091,-12.8629,2.2623,-6.1766,9.9368,-20.1172,0.44211,-0.86012,
-0.81014,6.798,4.9066,-19.1986,-4.3863,8.1291,-3.4325,-2.8175,2.6136,-7.271,3.9706,-12.5651,0.90267,-2.2735,
13.3385,2.0527,16.8158,-11.7011,1.2464,18.8689,-0.786,11.4515,0.016263,-3.4173,-1.6372,-17.1802,-3.5441,2.2564,
18.9398,-12.1705,20.2003,-14.4152,-0.29239,15.2958,-8.06,18.1431,-3.4008,-1.7473,0.90202,-16.6374,-4.7955,1.633,
11.9459,-9.5438,9.2253,-19.4087,-2.2283,11.4495,-6.6008,11.196,-2.2212,-3.5959,4.7525,-5.8771,-0.60317,2.5106,
16.1107,4.6964,10.6247,-14.3387,0.83488,13.6911,1.6058,6.6197,-5.0165,-6.3087,4.4678,-7.4765,2.3616,15.0516,
16.6081,1.9746,18.2853,-16.8954,-7.5133,13.3576,-0.93156,11.5925,-2.2745,0.41588,-0.19333,-6.5399,-0.2202,24.3995,
11.219,-1.5604,14.7477,-28.0853,-9.504,13.0447,2.5418,14.3135,-2.6265,-0.097548,-5.5513,7.9525,-4.6005,26.3531,
13.9624,7.8068,7.5168,-21.0306,1.3169,15.6785,3.8529,12.9662,-4.9094,-4.4843,1.1274,15.8295,2.9971,29.1645,
10.6837,-0.95967,7.5538,-11.4707,-0.22617,10.3448,-6.6294,16.5813,-4.1269,-7.6332,2.5238,0.77976,3.3053,19.1165,
7.1146,-13.5932,12.9586,-15.6635,-4.1176,19.4871,-7.2067,27.3024,-2.9032,-10.1033,-0.55573,-13.367,-4.7022,10.1595,
5.2227,-4.4795,5.835,-28.8237,1.4985,32.4179,-6.2872,29.0804,-10.0511,-12.9141,0.94165,-9.7482,-6.861,11.0139,
10.7669,9.8892,4.5089,-33.984,9.2191,32.4805,-1.0284,26.36,-12.3766,-10.1867,-5.9484,-9.1633,6.2422,9.3775,
24.2209,7.887,11.072,-26.0874,9.6425,36.3892,4.8908,26.7309,-16.5155,-13.481,-19.2591,-15.4471,10.7483,3.9333,
36.8676,5.9497,20.6587,-17.2001,16.386,46.4099,1.1813,26.5911,-22.8466,-23.8983,-28.3547,-26.7234,1.8053,2.2333,
48.7556,9.9863,25.7652,-18.6086,12.9623,44.1129,-4.2591,23.5311,-19.0344,-26.8579,-34.9519,-39.22,-7.5776,-11.0812,
50.8791,20.6137,19.8258,-18.9566,0.95699,40.0016,0.38899,33.3468,-7.6417,-21.8299,-23.5802,-41.3159,-9.5634,-18.714,
43.4334,24.7469,11.3142,-16.3551,6.2696,41.0185,-5.0034,44.5252,-11.5762,-22.9602,-12.8904,-31.5149,-9.4777,-13.1981,
43.2679,28.6316,13.0759,-12.9324,15.168,45.8799,-5.1917,55.9536,-11.3701,-21.095,-10.6525,-20.3494,-8.4205,-0.20262,
42.6243,29.8413,12.2908,-16.0619,4.4944,41.1737,3.9064,57.5336,-8.7354,-19.8298,-24.1133,-21.0815,-18.6548,-4.096,
45.4359,28.5398,16.9234,-12.6582,5.6897,40.1682,6.113,49.6885,-10.6523,-15.223,-33.4622,-19.3286,-20.9526,-5.3142,
52.9613,25.3629,24.2065,-3.6001,17.551,43.1277,0.37666,51.0998,-7.5726,-0.20959,-17.3544,-4.9892,-11.3969,9.1046,
39.0441,20.9126,20.8016,-11.1937,2.3979,37.6115,-1.5985,49.0103,-8.0938,3.7641,-2.2132,-3.7134,-8.7605,12.5185,
22.6014,13.7998,8.814,-24.6221,-11.846,27.5438,-5.4076,39.2356,-12.4902,-6.2239,-4.4092,-13.2532,-4.3299,-0.9237,
7.1454,-0.20731,1.9396,-37.2448,-0.99589,23.4511,-10.4531,33.4654,-4.4187,-3.4094,-2.6796,-7.0884,10.0299,2.5487,
-7.3834,-14.2949,-0.61732,-36.0983,-2.3997,20.5795,-9.3375,34.874,2.1929,-1.7404,11.5811,-2.2701,13.8777,10.6944,
-21.0404,-18.8633,0.88376,-38.3259,-16.3557,18.8563,-6.3367,28.3881,-4.2852,-8.9585,24.1215,-11.4085,9.6276,6.6352,
-25.858,-13.338,3.2717,-36.5139,-7.1324,7.4743,-4.492,15.4582,-5.4916,-13.7905,9.4946,-10.2355,7.5854,-4.9895,
-24.307,-7.6562,0.14642,-23.5845,0.12912,4.0973,-2.2699,22.3403,1.6714,-8.0815,6.9724,-2.7878,1.2728,0.19137,
-31.1467,-10.6138,0.62611,-24.6099,-13.0578,12.1496,-4.5747,35.0999,2.0592,2.6544,20.6541,-5.061,-5.1487,14.2799,
-43.3779,-12.4171,4.9821,-36.3125,-14.7153,17.7666,-9.6693,35.491,12.1867,5.9122,31.674,3.5412,-3.3757,27.5231,
-43.2723,-9.232,1.2656,-31.6937,-2.6053,13.2836,-6.6482,27.0155,20.7296,6.0455,29.2856,17.4287,-1.7092,26.471,
-40.6755,-15.5116,-0.76235,-26.863,-4.4015,-0.20502,-2.3447,29.3001,9.7232,3.7302,24.5999,27.1772,-6.4872,22.9302,
-35.7944,-13.1174,8.557,-29.6448,-9.5069,3.2238,-4.6446,29.0056,2.7933,7.899,29.4686,18.2241,5.1286,26.9239,
-34.6233,-8.4248,4.139,-37.6287,-11.8651,10.8409,-9.2474,13.1653,5.5552,6.4486,27.7009,10.2971,18.4886,30.19,
-37.9154,-17.1939,-10.2093,-41.7165,-9.6887,-0.060116,-6.252,10.3672,5.7104,-2.236,17.7403,8.2157,9.0807,15.199,
-39.0575,-13.7213,-13.0694,-39.7015,-11.5483,-4.4496,-3.4359,23.8452,2.9268,-7.4718,17.1648,7.2338,4.1428,3.06,
-27.927,-6.064,-5.4512,-33.4144,-14.7605,6.5565,-0.30076,30.2806,3.7272,-14.8336,19.0639,-3.9389,17.9942,4.8294,
-14.5363,-11.5581,-2.1956,-26.528,-14.8509,7.1391,-0.28272,23.5827,-0.40149,-14.9196,12.0621,-10.5361,19.4117,-0.34238,
-13.1766,-10.3762,5.2582,-23.4723,-9.5672,2.3173,-2.7063,25.5843,-4.77,0.075584,2.0638,4.1961,14.8295,-5.6914,
-24.1006,-4.8721,15.6818,-18.1585,-11.9217,1.2027,-2.5444,28.9308,3.3258,10.8662,-0.98858,18.0443,14.9162,1.4846,
-27.0476,-3.1157,12.2999,-10.7238,-12.6705,0.64157,2.0013,24.754,16.3054,3.8682,7.3688,15.1209,3.7702,4.8116,
-22.0078,-10.2508,6.1928,-13.497,-6.5412,-1.837,3.3462,19.8526,17.7681,8.0292,7.4147,11.7726,-9.6352,-4.7512,
-18.2472,-9.1478,7.2853,-19.0332,-9.5657,2.6663,-4.1766,24.0305,9.3799,10.9644,-0.35224,8.6253,-5.64,0.90297,
-16.6639,-4.2063,11.2412,-19.3557,-7.5273,7.8749,-4.4145,30.8863,8.3287,3.9601,0.15645,9.5722,-1.8851,14.9488,
-18.5931,-2.0009,20.3293,-12.3363,-5.1227,4.4743,-3.1736,30.0101,12.7109,5.6755,1.124,12.9029,-7.6291,27.7756,
-16.013,5.4416,26.4321,0.60742,-11.1609,4.6944,-2.4947,42.3095,15.3658,13.6335,1.5451,26.2288,-5.7068,33.4316,
-13.5877,-1.2314,14.5946,0.082032,-8.0516,3.9242,-4.7855,44.2191,7.1213,11.351,6.821,28.1282,-1.9479,29.9612,
-16.6775,-9.9436,5.9094,-9.685,-1.7105,-0.21627,-9.3795,27.466,0.83694,3.8368,17.1508,12.3405,5.9791,21.3295,
-16.1648,-2.0249,9.9483,-11.5444,-2.0959,1.2617,-3.4476,23.8108,1.2747,7.9996,20.5157,5.6869,15.8714,16.6327,
-22.0285,-4.832,5.4459,-15.7333,-3.9226,0.20948,-1.2883,22.3817,3.1508,5.5671,5.1848,8.2742,5.1565,7.8251,
-18.2663,-7.9595,6.5837,-16.2538,-1.2468,2.6374,-3.6515,20.5503,13.2123,5.7207,-2.9925,16.0763,-1.4994,14.6772,
-11.8017,-1.1364,12.5337,-16.7435,-5.5655,4.9188,-0.99187,33.4173,15.8361,10.747,-0.37334,17.5513,-0.92092,22.0942,
-20.8553,-6.9248,4.9486,-21.596,-7.1831,0.7191,0.044133,34.3974,0.78597,9.1257,-4.2555,14.5466,-1.8422,16.864,
-30.832,-11.8793,-0.71831,-16.8837,-4.3121,1.164,-9.2336,19.1535,1.6592,11.0191,-0.58316,21.9719,0.70937,21.2212,
-29.4696,-1.892,5.6713,-10.5007,-5.5179,2.5586,-10.1431,13.6117,13.7632,12.7985,-2.0117,26.0232,-5.6788,29.2234,
-16.4743,4.5675,9.7241,-6.4536,3.1122,-11.6949,3.6446,5.4729,5.6154,17.4006,-10.19,22.9977,-19.438,25.029,
-4.2588,6.7345,23.2406,5.1607,17.0255,-25.0932,14.653,-8.9555,10.6485,17.8206,-6.1616,21.1298,-11.9818,10.3481,
-11.3253,1.9364,24.3423,9.2436,20.4522,-37.6876,10.3568,-22.5181,13.4257,2.6514,-1.3989,5.7621,-2.9648,-4.3727,
-3.8122,9.6308,25.8108,13.5705,19.2255,-49.5263,21.451,-35.267,21.4067,7.3177,12.7851,-2.4503,2.0946,-18.2104,
-4.5595,6.1239,21.3332,12.7563,21.977,-60.6548,22.116,-47.251,17.1933,7.8547,20.3717,-1.3273,0.015931,-26.5045,
-3.3099,8.6855,19.0771,26.0909,26.5155,-71.1155,17.86,-58.516,12.2566,6.4074,14.2683,10.4679,12.707,-19.0562,
-1.6468,2.7948,18.4201,33.3677,22.484,-80.9485,14.3479,-69.105,4.1996,4.5584,9.0187,10.3274,19.2662,-17.4253,
-1.548,-4.2069,26.1014,21.603,29.9211,-79.8995,19.3441,-79.0587,6.8757,4.2849,10.4306,3.8502,15.1812,-12.4748,
-1.4551,-2.0015,32.3454,13.4733,36.9128,-70.224,21.1125,-88.4152,10.3692,4.0278,13.7098,11.4297,18.1754,-7.8212,
-2.3438,4.9526,35.2867,21.4514,27.864,-69.9156,21.7987,-97.2103,4.865,4.7622,15.8162,14.649,21.9669,-5.399,
-0.73917,10.0245,33.6575,24.5569,19.8462,-66.2091,16.0977,-94.3212,0.18007,-0.89263,9.4972,3.519,14.3028,-2.635,
3.2102,5.518,31.638,19.1785,16.7033,-53.45,6.3448,-84.7569,0.16927,-10.6021,-0.83475,0.3793,1.7295,2.4051,
10.8277,3.234,30.7158,19.9808,9.8431,-46.3375,4.9881,-87.4811,-3.7459,-13.871,-5.6657,2.3095,-6.1843,0.30782,
2.3675,6.9454,18.1333,13.8999,2.419,-45.5103,4.6884,-90.0432,-7.4267,-16.9443,-9.2313,-10.5211,-5.8137,-13.8107,
-4.6077,11.4098,20.9513,13.0668,16.3738,-28.6796,14.171,-70.9721,7.1189,-1.8276,4.9907,-6.9604,8.6351,-15.4777,
-2.3787,-0.013429,27.5038,14.2349,28.6262,-21.5337,19.1774,-60.8567,14.0704,6.6367,11.5248,1.2669,16.4707,-8.6924,
-1.748,6.3334,25.3665,19.7268,18.6114,-26.5868,16.5627,-57.6928,8.8331,5.7505,4.4882,3.6318,12.0664,4.0332,
-7.0126,12.299,16.522,15.1262,7.2432,-26.4561,10.1994,-55.6958,0.98064,1.0119,-6.0326,-3.9081,4.0199,-1.5784,
2.1947,3.7505,13.5781,13.2421,6.8091,-21.9402,12.516,-45.5204,-1.0307,-1.9773,0.18691,-2.6976,5.7312,-13.1992,
1.5745,4.0139,12.275,10.9831,8.8411,-23.0643,14.2056,-46.2062,2.4486,-7.2282,5.5452,-4.0003,5.8758,-17.7768,
-10.7231,8.1662,14.9555,6.9076,11.7276,-19.2394,15.7942,-47.8269,12.5528,4.4326,6.6775,-2.2953,5.0353,-15.2452,
-0.8051,-0.62236,10.6407,10.8857,3.7015,-14.669,14.3581,-30.8573,10.3342,5.6311,5.7884,5.1636,0.33962,-14.819,
13.3432,-6.9301,10.4912,15.6026,-1.8897,-17.2054,9.1036,-19.6756,0.44,-3.0048,-0.90497,5.3422,-7.0028,-13.4419,
4.7882,2.2713,20.6003,12.7139,-3.7288,-14.2205,6.6048,-29.2337,-2.5149,1.08,-6.7082,9.9032,-10.4872,1.0323,
2.5488,1.159,17.4113,3.1645,-10.3392,-8.4863,10.1136,-29.4327,-2.364,3.9442,-3.3767,12.238,-12.787,4.8754,
4.3484,-3.7921,4.652,1.0221,-12.6473,-3.0956,5.6022,-13.5667,-2.2227,1.7551,-0.24557,1.7412,-10.0673,-5.1797,
2.1345,2.2935,12.1829,5.8418,-0.1734,8.8053,1.361,1.3473,-1.1133,0.67373,-1.2069,2.6127,-3.6061,-0.96391,
0.054408,4.1079,22.191,5.4918,10.5761,15.111,12.0184,3.3312,0.9065,-0.34272,-1.1345,13.195,1.4922,6.904,
-2.8779,1.9094,12.0726,-0.69573,6.0365,16.1564,10.3204,8.0124,2.8042,5.5349,2.8386,6.5453,2.3787,-1.3203,
-14.9092,6.1879,4.0261,-4.071,3.2333,23.486,-1.5259,7.0436,-4.6861,4.7148,-1.7247,-7.9474,-2.157,-9.5392,
-15.9667,8.7447,8.6656,0.078283,-1.8427,23.0529,-3.3874,5.644,-12.215,-9.6681,-12.3603,-14.3607,-10.8147,-10.9198,
-0.90874,4.3159,14.9807,9.8366,-4.6602,21.6697,5.6029,19.4054,-13.4342,-16.4652,-10.6417,-7.6401,-5.2838,-4.4066,
5.5479,5.033,12.1289,8.2699,-2.4276,20.3695,4.2907,30.5012,-16.5332,-11.5732,-16.8373,-11.0877,-3.0147,-2.1892,
-5.525,16.4461,4.5671,4.8447,0.64612,21.0994,0.1273,22.8131,-11.6362,-9.9028,-23.638,-3.5888,-2.8338,2.8223,
-1.2875,12.5303,7.2221,7.4831,3.5364,17.8814,4.0256,14.6103,3.162,4.7914,-15.3857,10.7265,1.2412,15.345,
-2.1867,3.9689,14.5993,9.9631,7.2297,13.88,6.7126,10.8051,10.35,16.7636,-8.605,24.1829,6.0483,20.2818,
-1.079,9.5883,16.6519,9.3653,6.7954,14.9997,6.3103,16.0144,-1.9857,5.9952,-7.1122,19.9156,9.5909,18.0884,
-0.52676,4.6195,5.4021,1.4813,-4.8389,0.9201,-3.3429,19.447,-10.1651,-6.5681,-11.079,4.6207,-5.0846,8.7055,
2.9223,0.92578,0.68451,12.6191,-10.8951,-6.4576,-9.4888,23.6488,-3.2096,-0.80448,-5.0447,5.7514,-16.0627,2.8136,
-1.6465,0.38176,-1.7971,16.2554,-8.7769,-8.5107,-4.5259,10.0263,-0.57649,10.4704,3.5565,9.7998,-9.7294,-2.7247,
-7.4053,-1.5937,-1.6897,6.4936,-3.3687,-7.9996,-1.3258,-4.6753,-1.5184,8.8666,2.3666,9.2113,-4.2641,7.2014,
-3.5435,-0.033542,2.8052,4.6399,0.25088,1.755,-7.5909,4.3371,0.038148,6.8701,4.6661,21.8392,-3.5198,20.8693,
2.5262,-0.031529,4.5889,4.361,-4.6462,-0.30332,-10.0654,10.91,-7.7751,1.5769,4.3852,18.5759,-5.2616,20.6488,
3.8387,2.4114,12.6126,11.4214,-2.9024,-7.6072,0.78958,2.9333,-10.7257,-5.8398,-0.27097,11.1153,0.42321,15.9928,
-6.1538,3.2427,20.6419,19.5232,4.1048,-4.2217,6.6002,4.7103,-2.272,-7.4424,-2.2068,13.3774,4.3029,22.8433,
-10.6661,1.0956,21.3559,15.4223,6.788,3.8412,5.2277,4.4272,1.7698,-1.1383,0.85419,17.4563,3.0682,11.7101,
-3.1925,2.9824,15.193,12.5449,9.3093,6.5402,9.7956,3.186,4.5921,3.8115,8.6135,17.3854,11.6707,2.2219,
-4.9535,-0.12508,14.2819,9.8397,14.6083,3.2192,11.1604,0.065396,13.1032,6.5114,14.9302,14.3897,16.828,5.0171,
-13.4424,-5.9756,5.6149,6.3203,9.8267,5.9541,1.7046,-0.91455,12.317,11.9787,13.0584,9.6213,8.0082,0.81107,
-12.6363,0.24049,-8.822,7.8941,-3.4545,13.4074,-7.1842,4.9979,-2.522,5.4024,3.4883,1.2335,-5.1639,-6.0712,
-15.2951,4.6191,-11.2782,5.9555,-12.5222,11.138,-9.1941,15.9251,-8.2844,-8.1018,-6.972,-2.2575,-14.1281,-8.1479,
-13.8889,1.9014,-4.255,2.1816,-19.0925,9.9822,-11.083,19.3622,-1.4417,-3.2222,-7.0422,0.31845,-11.816,-6.1945,
-6.2216,0.81132,-4.9757,9.8608,-20.875,11.3353,-13.347,12.3434,-3.3073,0.8762,-4.6667,3.2284,-8.178,-3.8708,
0.0092769,-0.21385,-0.77263,13.1746,-16.694,10.6557,-11.5697,12.5792,-2.1324,-5.0339,-5.3632,4.9872,-8.6638,-6.5671,
1.4737,2.24,9.5248,7.9902,-14.2283,11.4804,-5.5065,18.1705,3.3647,1.6141,-5.5294,7.1289,-13.513,-6.6611,
-9.3543,1.1291,7.9768,0.67717,-12.3981,11.768,-6.1516,15.1278,-6.5998,5.4228,-19.2976,-2.0854,-23.4418,-11.142,
-0.005993,3.9904,7.4982,10.3996,-4.8202,17.896,-2.8545,25.9352,-7.1798,1.1915,-16.7314,-0.0081897,-13.2483,-7.5454,
4.3874,-2.5951,-2.2258,10.2636,-13.806,11.4522,-5.1233,21.9381,-7.2371,-10.1071,-1.6275,-2.4478,-9.0373,-16.3668,
1.6836,-2.9269,0.34828,5.2543,-14.4412,11.2536,-7.2564,16.2283,-6.3153,-5.1072,12.5702,-3.7654,-8.0066,-16.8493,
-2.8114,-7.1453,1.7914,1.522,-7.2296,12.0424,-11.215,20.6237,-6.4244,-0.4077,25.1068,3.7816,-8.0142,-9.4932,
-5.0827,-3.2996,-0.75706,8.7528,-6.3079,20.5949,-7.1251,33.4863,-5.5509,2.0578,20.1843,17.6548,-8.0213,-5.5066,
-14.5404,0.80391,-0.71117,7.2511,-15.692,28.1458,-7.6731,30.5576,-7.1704,-1.9712,18.9728,17.6281,-11.4456,-0.2947,
-18.5495,0.75521,3.237,7.7925,-14.75,31.3385,-11.1182,27.7477,-3.8107,-3.8055,20.7639,17.5469,-4.9013,13.823,
-18.9015,-1.7302,0.60179,6.837,-13.377,27.9933,-16.7972,27.5469,-6.9991,-2.1122,19.0291,12.101,-3.1422,15.9783,
-13.3739,1.7902,7.8882,2.0332,-7.2048,28.7542,-10.4198,24.4305,-7.0676,-4.426,18.3759,1.1243,-5.3942,0.91956,
0.60864,0.21875,18.6411,-0.52883,-5.3085,23.6119,-10.2826,18.5707,-12.9896,-17.3405,7.9983,-0.40809,-8.4876,-13.2356,
14.2397,3.1342,11.666,7.3125,-9.8706,26.1007,-18.4513,22.3379,-14.1618,-10.4425,-4.1963,13.7164,-4.0738,1.6585,
8.9918,5.3866,8.5246,2.4812,-7.8148,30.8802,-13.9277,25.3912,-5.9905,4.2841,-16.1481,17.8306,0.56417,15.659,
-5.6477,-1.2817,14.3591,-2.0607,-5.8809,21.7054,-10.651,20.4507,-3.1901,4.5716,-15.6672,2.6607,-1.9107,0.61947,
-19.4088,-3.1577,4.7115,-4.8661,-10.41,13.569,-13.9179,16.2946,-2.9996,5.2733,-7.8931,6.35,-0.82001,-12.6534,
-22.7491,-1.9927,-2.4057,-11.4087,-15.643,17.6364,-12.1064,19.2215,-0.8671,8.8615,-9.3721,5.9695,0.20568,-4.0837,
-20.4076,0.080299,8.4782,-2.9136,-13.7279,23.4118,-6.4984,22.9498,-0.81461,3.4483,-7.8332,-4.1513,-0.78315,-3.8391,
-11.8611,-3.3415,16.2676,6.5353,-9.4872,18.591,-8.5495,19.1327,-4.1828,0.80131,-3.9462,-12.2003,-4.1523,-14.8359,
2.9506,-7.5341,21.6375,2.7271,-8.43,14.0585,-1.6905,24.3308,3.3903,0.26522,-10.0555,-10.0042,-5.3681,-18.3388,
13.0798,-1.713,27.6604,7.9326,-8.4122,16.632,3.78,36.9709,11.4849,-0.2387,-10.9162,-4.034,-12.3681,-12.8445,
4.4844,4.2474,29.9063,18.1952,-11.813,21.4907,-7.1854,46.5234,2.0093,3.6802,-10.2617,-7.6974,-25.2936,-8.1692,
-1.6422,9.8501,36.8975,20.0321,-11.1037,24.1068,-8.7068,43.7315,-4.9449,11.269,-7.6935,4.4791,-17.9184,-1.8215,
-12.7703,0.96052,31.2671,4.7301,-12.878,11.4328,-9.6489,39.6432,-6.1127,5.2242,-5.7674,18.3103,-6.5927,3.6573,
-18.3496,-4.4657,20.1165,-9.6537,-6.7358,12.2123,-8.5815,34.824,-4.2814,4.4223,-2.9808,20.6848,1.1254,17.5379,
-22.6187,-7.6148,14.5165,-12.6028,-1.9386,13.9196,-13.4366,30.2936,-12.3226,2.6929,-4.266,8.2166,3.4979,15.0772,
-18.3321,-7.1584,24.385,-0.13102,-1.8228,8.2029,-11.6539,42.1445,-10.6068,0.57883,3.7996,8.7001,6.2175,9.291,
-9.9105,1.5697,29.2675,10.1274,-7.082,17.9623,-4.6091,53.7159,-5.5778,2.0086,12.8462,14.5237,12.19,16.0552,
-13.2214,5.3801,18.7249,8.5433,-10.5626,30.9845,-13.1191,50.5481,-9.1477,0.9116,14.0279,8.7707,12.4342,19.9734,
-11.9396,-0.31228,21.018,3.6372,-13.3463,27.2276,-14.7725,46.0507,-2.2532,4.2735,9.7697,10.685,3.3905,13.4054,
1.4688,0.68341,26.5909,12.206,-17.4257,13.8798,-9.0042,40.3596,-2.118,12.8041,-3.5076,15.9019,-9.5041,15.5301,
12.1188,14.7424,26.9485,25.5736,-9.547,23.7852,-8.4639,36.961,-8.825,22.774,-9.1552,14.9478,-16.7439,28.6983,
14.3207,21.2351,31.1886,20.6783,-6.0452,31.1451,-16.7422,45.4825,-2.4375,28.2416,-7.6298,13.0749,-26.4783,39.2356,
11.0214,10.6869,21.9962,5.3376,-19.7825,17.0733,-18.1787,52.0285,-4.7322,20.202,-15.4701,16.6835,-37.0927,26.6314,
5.9671,6.6286,20.1875,16.1883,-20.1157,12.6318,-11.7189,48.4188,-7.8653,14.5968,-16.982,29.7825,-29.4981,30.4026,
-7.5715,5.7424,16.5357,20.5866,-14.5161,19.1955,-17.3613,35.2622,-8.8579,15.1846,-12.5465,23.6581,-26.2637,30.042,
-14.4393,5.8859,12.1265,5.2514,-8.2752,19.5078,-7.0455,34.6114,-5.8854,18.6666,-7.4007,11.0115,-14.4378,14.1395,
-20.4065,1.6282,4.5644,0.97469,-3.8741,6.6227,7.4772,30.5813,-9.4378,4.855,-7.9331,3.5173,0.52851,-0.80891,
-15.7651,2.0185,-0.10156,7.2622,-8.0347,3.7844,3.1801,21.4253,-17.1696,-9.5363,-3.0641,-2.0628,8.3634,-4.7762,
-0.71918,10.6844,14.0045,8.7795,-7.5517,15.2733,1.0363,25.9978,-10.2814,-8.0433,4.9308,-10.7252,8.8377,-11.3237,
11.5837,3.2088,22.4949,8.2523,-7.099,0.68931,2.9267,22.4854,-11.6171,-6.5842,-1.2226,-18.8682,6.3549,-24.7443,
11.3762,0.57579,24.5618,18.0077,1.6245,-11.5566,2.2626,14.7898,-6.5275,-3.7486,-3.5907,-3.6361,7.4381,-26.2447,
24.7936,6.8873,18.695,15.4632,-6.771,-2.5642,-2.2662,14.3904,-9.5519,-0.10668,-10.6974,2.9828,-0.33025,-15.395,
37.0297,12.3316,12.6918,12.5829,-20.4648,6.3753,-7.9878,27.627,-17.7653,3.8043,-12.008,2.8043,-13.9781,-0.37129,
20.7079,-2.5083,-2.1697,10.3634,-33.3369,-7.1859,-21.6085,30.9065,-23.045,-1.7926,-16.6571,14.8396,-27.2394,13.751,
9.1592,-1.9259,-3.5597,15.1112,-24.6144,3.4959,-19.8792,43.1521,-7.5623,9.5416,-3.4541,28.0492,-39.705,27.0259,
6.6567,1.1187,-9.2041,4.4424,-20.2085,10.1202,-15.7574,41.5956,1.7332,7.0171,-6.1758,34.232,-25.7189,34.8463,
-1.0643,6.4211,-5.2344,7.5924,-8.7454,13.9055,-5.5383,28.8493,-3.7404,9.0366,-8.2458,18.0781,-14.9012,18.6555,
-11.74,4.0833,-1.9918,12.0184,1.5419,15.0237,3.5805,27.1178,-1.5634,10.446,-3.8456,5.2222,-10.1025,3.4362,
-14.4521,-2.5082,1.5443,13.7378,1.9379,8.7528,3.8542,23.0502,1.9469,1.5216,0.77774,-2.4137,-5.1038,-10.87,
-13.0975,3.0118,3.8922,15.3541,6.2142,-2.023,0.20544,11.4166,4.2716,-1.9872,4.1486,-3.7334,-0.40406,-20.1482,
-21.0973,3.8076,-1.2229,5.6463,5.8418,-16.0016,1.1696,-3.3684,-0.86623,3.0136,2.9232,-6.4379,-1.3563,-23.8208,
-31.547,-5.2069,-7.0066,-1.5266,8.4203,-29.1415,6.9574,-17.2663,0.16177,4.7857,11.5339,-8.0037,0.67806,-36.4916,
-30.6302,-5.8705,-7.5622,2.471,9.8671,-41.493,9.469,-30.3303,6.9861,5.4746,11.8188,1.2626,-1.3147,-30.9402,
-16.1013,-1.6137,-2.227,14.0374,6.3466,-52.35,7.9244,-39.9049,0.70939,13.9327,-2.9903,8.9974,-7.0934,-14.9838,
-3.9081,0.92408,7.1808,22.4692,1.5727,-56.532,0.12686,-46.7857,-3.7272,20.4179,-7.7485,15.7787,-12.0378,-7.196,
-4.1621,-4.5009,2.3564,18.6806,0.013861,-67.24,-2.3213,-58.0785,2.843,16.7532,-0.93806,28.0125,-25.4155,-15.0619,
5.8507,-4.2309,-2.666,22.4408,3.9181,-77.3056,-0.22995,-68.6938,8.5295,16.724,-0.88178,33.1649,-35.6618,-19.0392,
19.5997,-2.0245,-2.5065,29.8809,3.6825,-86.7673,-1.1926,-78.6722,-2.7209,11.8151,-2.7814,17.075,-23.759,-28.6364,
17.5033,-2.391,-3.8202,25.647,9.8076,-95.6613,5.2249,-88.0519,-11.8327,3.7841,-2.1265,1.9505,-23.7984,-26.4302,
2.3531,-0.78306,-12.8656,23.6207,13.6127,-93.5611,2.4709,-96.8688,-15.5153,8.9266,-4.4394,-1.2068,-21.8821,-10.7444,
-5.1658,1.704,-20.3917,28.5495,10.3549,-75.7444,-4.0234,-103.5389,-16.0484,9.856,3.149,8.1406,-6.4691,-6.6262,
-16.5719,-0.35123,-22.0972,23.9066,14.6147,-66.3186,3.0521,-103.1845,-15.0865,-4.4035,6.8651,-2.1109,6.6663,-20.3286,
-22.4102,-3.2582,-13.9373,22.4731,20.5728,-59.41,16.969,-107.7316,-4.4173,4.6478,5.4772,-7.8413,11.1483,-33.2089,
-23.5071,-6.4798,-9.6841,23.5648,14.9444,-51.4529,21.864,-106.6377,0.23987,8.761,5.6365,-11.7648,14.8715,-30.8405,
-14.7746,-1.6979,-11.544,22.6398,7.7017,-49.8297,13.2301,-99.751,-8.0726,-5.8646,1.8813,-21.3091,5.6811,-34.3592,
0.2119,12.5039,-5.9699,33.9721,18.9552,-38.0538,20.2468,-79.6659,-4.6597,-4.5924,-9.9471,-5.9305,6.3167,-24.488,
-0.23273,-0.39331,-11.4692,24.1242,8.0553,-37.7231,17.0795,-65.5562,-15.1187,-4.3164,-23.4503,0.82652,-5.7778,-17.1612,
3.6853,0.60632,-1.0189,22.6758,-3.1671,-30.5787,13.1257,-67.4804,-10.3066,3.7527,-14.7769,10.5391,-8.3602,-2.0315,
10.2983,0.56994,0.018222,20.3392,-7.8591,-32.649,2.5751,-72.2181,1.0509,15.2426,-3.1512,19.6698,-8.8346,7.4206,
4.7993,0.53574,-12.674,13.2618,1.3995,-28.7375,10.2307,-63.9796,12.7029,21.1621,-1.9861,32.1577,-3.4225,8.9283,
-9.5887,0.50406,-12.8891,11.4896,-5.5181,-18.2267,16.4514,-54.2832,10.9643,15.9878,2.0386,25.3467,-4.1937,5.4641,
-11.021,-5.8722,-6.7467,23.9803,-17.3901,-17.6207,12.0473,-45.6567,0.056287,9.6585,3.3803,14.5518,-6.3821,-1.2098,
-5.4787,-1.6148,-10.2469,22.5415,-12.4426,-22.4219,8.3954,-45.8463,2.981,11.0311,9.0346,15.6307,2.786,-5.0422,
-9.0555,-4.4474,-8.6556,7.089,-10.7195,-22.0526,16.6782,-55.7871,11.5887,9.3927,22.1601,5.9063,14.3344,-17.4313,
-8.5121,-12.9667,-2.2792,11.0011,-7.1474,-8.0379,26.4166,-53.4159,12.8464,-1.909,30.5936,-4.2102,21.2844,-30.4854,
-8.4894,-13.6527,-14.3456,8.876,-9.1595,5.624,11.6516,-36.111,9.6346,-15.8944,27.2939,-4.4465,22.4483,-21.8784,
-7.9805,-5.024,-17.3903,2.4859,-11.5385,8.2151,2.1659,-19.8443,11.009,-9.1393,25.6558,8.5119,19.1489,-6.4657,
-5.0602,-1.305,-10.0004,12.5874,-13.2867,16.0208,9.3585,-5.8503,8.884,5.509,26.557,21.1808,18.4875,8.0223,
0.61245,-4.6437,-10.8654,16.2252,-14.9305,29.1595,8.309,-4.0353,7.8629,13.5331,25.4525,26.2559,18.8432,21.3203,
-1.8648,-4.8536,-16.559,5.978,-12.5702,31.8586,-0.48813,5.4814,7.8796,7.3516,18.5558,21.264,15.2721,31.2686,
-2.2405,6.6652,-12.148,9.0359,-14.2565,23.6015,-5.8284,16.3801,2.0373,4.47,10.12,16.5707,10.9392,29.8801,
10.5846,15.0509,-3.6095,17.2803,-20.2347,22.1859,-9.3833,19.3019,-2.9665,0.29629,4.6312,12.6479,6.3774,13.9873,
15.3191,9.7553,-0.95239,5.0168,-21.4611,19.3903,-14.1898,17.6562,-6.205,-5.091,7.7709,4.5675,-0.35082,9.1878,
13.9119,2.8239,-2.3593,4.2269,-9.9233,16.7619,-8.9454,15.1319,-4.3687,-5.2736,10.7216,1.8524,2.1103,20.8397,
8.1961,-1.2506,-3.1938,6.9023,-10.3039,10.8751,-7.4326,4.4618,-5.0826,-7.8862,3.2443,-3.1407,2.9606,5.4893,
13.5619,7.611,-4.9547,6.4886,-11.6382,12.1751,-5.0341,4.1937,-3.8011,-7.4125,6.9551,-2.9518,4.7355,-8.9401,
14.2122,8.6184,-4.1694,8.5394,0.28716,12.9096,1.6139,8.3351,-0.15698,-13.3138,9.9548,-4.2387,8.8444,-11.9324,
12.3839,-1.6613,-2.9427,10.9565,4.1754,8.2295,8.3507,5.8825,6.6869,-13.4915,7.4041,-5.9369,9.2903,-5.3589,
19.4505,-4.4901,-4.7187,13.2276,-1.9336,2.8542,12.7312,0.64799,9.2143,0.98563,9.8893,3.2049,8.7324,-4.0609,
10.9614,0.17231,-4.9236,11.946,-6.2106,2.1949,7.5743,-6.712,4.2684,9.2255,10.76,15.2167,5.7684,-4.3053,
-3.7963,-2.7666,-5.6046,8.3007,-9.7425,0.11072,2.2383,-11.1908,6.9408,6.7195,7.1859,20.1612,-4.3403,0.83459,
-16.8037,-9.4342,-13.0789,3.8971,-9.1585,-10.6345,-0.82457,-17.3539,13.3579,11.1969,6.7542,15.046,-12.8674,0.78405,
-10.426,-6.4276,-12.7817,5.1278,-6.1675,-12.437,-5.1686,-19.7292,13.0449,14.9186,8.7905,8.7737,-14.535,-13.363,
-13.7054,-5.0659,-4.2047,7.7491,-11.6555,-9.7387,-4.8585,-18.5455,8.3572,-0.076528,6.31,4.3423,-19.5209,-26.6612,
-20.2052,-5.25,2.3927,10.7003,-17.3022,-11.5954,-6.031,-17.9207,3.4627,-11.8431,2.5144,1.6407,-23.7196,-17.3632,
-6.3017,-1.0299,10.0592,13.9633,-13.335,-4.0656,-8.5982,-8.0594,-1.627,2.9674,2.3636,10.3293,-14.4864,-2.2214,
-2.5061,-3.4087,15.8012,10.685,-3.2603,4.4769,-5.6417,-2.2063,-4.946,7.727,-6.0768,18.9841,-7.2707,11.6356,
-14.5589,1.1889,9.484,12.4849,-2.5767,2.7442,-2.8622,-7.443,-8.0653,-2.9877,-18.8913,10.523,-4.3935,6.5444,
0.41464,12.8331,9.8915,22.4744,-4.3746,7.4611,-6.596,0.81412,-11.4869,-0.85588,-16.7814,-3.776,5.6327,12.0093,
10.208,10.5987,11.7385,21.6144,-3.6237,15.311,-11.5698,14.8653,-15.1912,-13.9841,-10.4049,-1.1089,0.90126,16.6583,
-4.5045,11.4263,7.6167,14.948,-0.96572,16.8329,-10.3871,25.2556,-8.9102,-19.4907,-6.3641,12.1373,-2.5703,20.0514,
-18.3342,5.3717,-0.1614,2.824,-0.41976,10.4539,-8.2999,9.6403,-4.9585,-4.2212,-4.5173,6.04,2.9539,12.5032,
-31.3342,-6.1773,2.2888,-5.643,-2.8351,8.3621,-2.4323,-5.0381,-7.1016,-10.2574,0.14634,-8.4224,10.0983,-2.347,
-38.408,0.050918,7.033,4.4581,0.26354,17.623,5.5241,9.3642,5.0392,-16.4765,10.8771,-4.0682,13.3979,-14.9534,
-46.8426,-3.8572,-2.176,2.2377,-7.5623,9.7316,-4.5704,9.2342,1.8078,-9.6299,2.4135,-7.7291,4.7839,-18.9382,
-37.1985,-2.6497,-2.0454,-3.7546,-5.1565,6.2187,-5.2722,4.7751,-8.0628,-3.195,0.31662,-7.2654,5.4729,-13.8969,
-38.3836,-2.9787,-0.45867,-9.8744,-7.2872,7.3105,-4.4678,12.7867,-10.02,-8.3724,0.78563,-6.3414,5.6326,-18.4321,
-33.1516,-7.6815,0.54534,-12.2105,-14.6605,4.9194,-5.1762,17.878,-4.5373,-5.9175,-0.238,-9.8655,4.3181,-21.2308,
-17.0625,-2.3391,5.3941,-6.5964,-11.8274,6.5767,-3.8892,15.8288,-4.2646,-4.586,2.7058,-7.3211,6.9885,-14.0994,
-20.3757,-0.24626,7.023,-6.201,-8.1902,5.2056,0.24875,13.9026,-5.9621,-18.4108,-2.3381,-9.8113,-0.26532,-19.1119,
-33.2532,-3.1605,2.6966,-7.782,-6.7218,11.7273,-2.6943,23.8075,-2.6754,-21.7558,0.73025,-6.2936,-1.2254,-16.0122,
-33.2666,-10.2929,-4.7873,-10.7311,-9.7355,23.2268,-12.7837,24.8201,-5.931,-7.2703,2.1514,-0.54597,1.2891,-0.95147,
-24.925,-12.1163,-4.988,-15.4573,-17.4504,19.3922,-20.3147,23.8179,-7.0401,-6.3461,-6.2767,-1.9782,-9.0393,8.4358,
-16.1075,-2.1143,-1.2717,-12.0888,-13.9624,20.6697,-13.7268,36.4889,1.6804,-9.3824,-6.3872,0.58151,-8.985,19.1568,
-18.07,-1.9875,-1.1954,-6.4824,-7.2666,23.3345,-17.7842,43.1417,-4.2784,-12.7245,-3.0759,-5.3114,-5.5178,18.0074,
-28.2129,-10.1668,-3.5642,-3.653,-6.3422,25.351,-30.8172,35.1846,-10.3673,-5.6154,-5.3318,-5.4812,-8.6033,10.5814,
-28.4722,-9.5563,-1.3979,-9.2913,-14.7482,18.9493,-29.0233,37.9551,-9.7448,-3.3251,-14.7745,-3.1989,-10.0387,11.899,
-12.6639,5.1171,4.0556,-9.2214,-10.4467,19.2769,-15.0793,41.0473,-11.6006,-14.3531,-16.3286,-6.4244,-4.0677,8.7445,
-0.13329,0.96066,1.8592,-3.788,-10.796,23.0013,-16.1275,32.7264,-13.8336,-17.3979,-11.4438,-8.968,-5.7767,1.3858,
-3.5423,-11.3001,-2.6454,-7.9538,-19.4232,18.2042,-19.5529,26.3698,-13.4916,-4.15,-9.2932,-9.8939,-11.7752,-0.16231,
-11.1398,-5.741,-2.4866,-17.2387,-18.2578,11.254,-22.2847,27.7157,-10.7301,-1.9489,-9.7116,-12.2293,-13.0216,-7.9626,
2.2206,1.4375,-2.3374,-11.3233,-8.3753,11.5557,-12.1606,29.9587,-2.2753,-5.737,-3.2709,-2.7085,-2.4773,-14.318,
7.9445,-8.4118,-3.1732,-1.8569,-4.9438,12.8144,2.2362,17.4221,3.7183,-2.4638,3.7594,-3.523,8.4104,-17.364,
-2.2953,-12.7882,0.9222,0.20661,-5.6241,15.9506,8.936,8.5667,9.3523,-3.292,4.5089,-16.0027,1.0718,-16.323,
-5.5741,-7.6278,-0.59717,-1.2698,1.0593,20.3635,2.0548,22.1527,12.2091,-3.5825,2.7744,-9.6735,-11.1957,-1.2437,
0.61836,-9.1227,-4.4668,-2.1701,0.99624,18.1652,-9.7841,33.5703,3.6661,-0.43899,1.6323,3.5985,-5.6424,12.931,
10.3434,-5.6463,3.6112,0.88909,0.93646,19.0283,-1.387,36.4381,0.51709,-8.2227,-3.3476,2.4066,7.3873,16.6608,
9.7232,5.4311,2.4181,2.7883,0.87981,30.5773,7.4828,42.0614,-0.4895,-5.7768,-15.8374,-0.66635,-0.86556,11.7557,
5.2348,4.1292,-2.6081,5.549,-8.936,33.6237,-5.6582,47.3478,-8.2711,3.3559,-11.9591,4.2547,-9.6007,12.0263,
-0.44928,1.4404,-0.01059,1.7991,-13.7689,17.5063,-16.5458,39.1379,-13.1439,-10.9455,-2.9434,-2.3466,-7.5606,2.0307,
-5.3038,5.2595,-2.9394,-10.0235,-11.9663,14.4482,-8.7186,24.098,-10.4028,-17.1784,-7.6474,-10.0154,-6.1304,-6.8777,
0.87286,2.9914,-11.5487,-10.3977,-10.2718,21.3919,-1.3619,30.4626,-5.8731,-2.0477,-2.3071,-4.533,-2.8331,6.2265,
11.5586,-1.0931,1.8354,4.3262,2.0586,17.1784,1.6489,38.397,0.33636,-3.3333,10.5225,5.5011,3.1939,12.687,
10.3776,-4.445,7.0948,8.0264,11.2097,13.7072,3.0144,25.8426,4.7097,-14.3599,-1.3364,9.5646,7.3958,-2.1742,
-0.98369,-3.2018,-1.1414,-6.5552,9.5616,20.6953,3.81,15.5055,9.3086,0.16932,-7.1138,7.0382,14.7617,-2.0999,
-8.7352,-3.0097,-4.978,-8.6576,2.1538,18.4775,-2.2766,21.4092,10.7022,4.0642,6.9811,5.6389,15.8289,12.1261,
-7.2351,-0.87613,-3.7024,5.529,4.9536,17.3689,-1.164,27.9347,12.989,1.8674,16.3253,15.0636,13.9032,17.8007,
-8.7535,-3.7526,-11.2903,-0.65982,4.6564,14.3738,-4.0222,18.4486,8.3047,5.6604,4.6067,10.2548,2.3299,2.6326,
-3.3467,-9.385,-16.4714,-7.4547,-7.3386,4.7248,-14.5204,13.4361,5.8539,7.2732,-1.5282,-1.0991,-1.7154,-11.6253,
7.1051,-8.3339,-10.1131,4.2206,-8.3623,2.0012,-4.3741,21.905,5.9907,6.3488,3.9335,2.3839,6.6866,-11.5276,
13.0244,4.3698,-1.2077,6.4079,-2.491,2.3696,9.9883,32.7943,2.2147,-0.37765,3.21,1.7524,4.8209,-18.1584,
16.6355,10.4531,-4.5528,-5.2042,-7.7111,-0.21401,-2.7589,33.2662,-4.2647,-12.5586,-2.3531,-7.6274,-3.7669,-19.5095,
12.7088,12.7545,-7.2081,0.96564,-3.3439,5.6564,-11.38,33.2228,-0.10333,-11.8046,0.71756,-3.2652,2.3166,-8.5763,
6.5768,13.4537,-9.2171,4.3243,0.27333,13.6155,-1.4226,28.7889,2.3434,-8.6558,6.0431,1.3243,3.6412,-6.5972,
14.9692,7.7654,-9.6392,-1.7923,-3.6472,15.7276,6.4728,29.0145,1.2268,-10.0885,12.5155,1.2448,3.4237,-12.0585,
23.3451,3.8825,0.21328,4.6604,1.9407,11.3669,9.5015,28.7377,3.5932,-8.0191,13.2286,3.6111,7.6113,-11.8239,
10.2289,-0.25596,5.082,8.2862,5.7298,4.8274,7.9549,13.3458,2.4021,-2.6565,5.6004,7.299,5.2021,-6.2329,
4.2461,-7.5617,3.3121,1.444,1.969,0.14468,8.9426,4.247,-1.1591,-0.057019,3.8003,5.397,0.49692,-3.418,
18.0913,-1.2509,3.1134,-1.5717,-1.0782,1.112,8.406,18.0922,-2.0665,-3.9586,-0.33273,-7.6188,3.3952,-1.2608,
24.3835,12.4917,8.7841,6.3322,3.868,8.8549,6.9252,31.1066,-1.942,-1.7686,-10.0754,-14.9713,10.026,4.6724,
10.2289,1.9797,8.2576,9.8578,7.5405,7.3481,-1.3009,19.5894,-3.778,1.2661,-7.5183,-12.1205,8.4479,3.4155,
5.2226,-5.4607,2.3926,7.8018,13.4337,-7.1928,-1.7104,7.1874,1.8182,1.6786,7.0328,-4.0717,11.3576,5.6521,
12.7188,1.7005,1.2725,8.3102,19.4622,-20.8613,6.2019,-4.9594,9.5187,-1.3507,15.453,2.0302,16.5337,7.2655,
16.3488,2.0865,1.6842,11.2286,15.8534,-24.6028,-0.51535,-18.7619,6.5075,-0.78163,10.1328,12.1594,14.0776,10.2465,
20.2494,3.9138,4.5117,11.5305,23.6888,-22.1502,0.49113,-22.5738,5.1406,1.2178,17.3344,21.1924,10.3044,21.3464,
16.1054,12.4651,-0.64009,13.7676,26.1725,-34.9212,4.3676,-28.0525,4.8321,4.0737,15.3183,13.0878,9.6862,13.2316,
18.0685,17.5747,-5.4823,22.7042,18.7446,-43.1326,5.0811,-40.4693,4.5427,15.5439,6.5896,14.255,6.1765,4.6281,
23.818,2.4202,1.6802,20.3654,16.6434,-45.4262,6.7288,-52.1412,5.2457,16.5638,0.33577,22.1854,-8.2941,7.2789,
26.7824,-3.6382,1.0909,19.632,17.1093,-55.8802,12.6715,-63.1127,9.3245,14.1064,2.7571,24.2717,-7.8526,8.3067,
32.0091,7.3187,-13.0745,22.3586,8.2722,-65.219,8.9818,-73.4259,2.9074,7.4016,-0.33782,14.0289,0.42818,1.9507,
44.1885,14.2017,-1.6066,23.4581,11.1929,-53.9838,8.9309,-77.0539,-1.6601,-3.2927,-0.80556,9.7701,0.8905,13.0608,
37.1998,-0.75042,1.9064,12.776,5.1527,-56.1143,7.9075,-79.7532,-11.8111,-17.1951,-1.2448,-1.0667,-5.5085,11.7887,
39.3613,4.6085,-4.5536,16.403,3.3791,-57.14,16.7076,-78.3846,-8.6619,-13.7785,2.2465,-2.4672,4.0966,6.6888,
43.3452,8.7255,-6.7209,23.7174,-2.1932,-49.319,12.2877,-69.288,-13.5117,-19.2974,-6.1859,-8.6647,-4.4468,-2.0111,
38.792,-0.58458,0.51593,26.1989,-1.0851,-34.6443,9.5979,-60.2501,-13.6775,-23.9971,-10.6963,-12.0504,-11.9905,-11.653,
37.929,3.844,5.8545,26.0915,5.3255,-28.1722,19.2735,-60.0517,-7.4873,-10.3546,-18.3531,-7.9098,-5.9016,-14.3704,
33.2127,10.935,4.0387,21.1094,11.3516,-26.9703,12.7476,-56.9361,-5.5736,-5.3398,-15.7874,-1.0897,-1.154,-9.1156,
17.1199,4.4208,3.7964,19.8419,15.5515,-17.542,6.1247,-43.7578,0.61795,-4.0434,-3.125,6.7858,2.8203,-3.6876,
9.2021,-4.142,2.1041,19.1399,15.1069,-10.1439,16.9839,-35.7628,11.8084,10.2992,2.432,12.7242,8.9967,3.8562,
12.556,-2.9175,-5.8313,16.0394,11.2715,-2.7013,14.0128,-31.6641,12.0759,23.7813,6.1911,12.9377,9.4329,15.3399,
9.3616,8.4847,-2.0653,15.5642,8.1542,8.6879,1.9449,-16.5851,5.9814,12.7031,8.2597,9.7195,6.4259,18.8126,
7.823,7.9756,0.98763,5.8442,-3.0741,5.2376,0.85127,-11.6849,0.74144,3.1548,-1.998,-0.62579,-2.7457,5.9687,
9.7946,-0.80104,-4.4407,5.0055,-6.3058,-0.4457,8.1232,-19.2819,-1.7431,9.3115,-1.3901,-6.9333,-3.069,-1.7115,
2.8613,2.6636,-7.5917,11.0517,2.3711,2.9976,8.1233,-19.5895,4.707,10.2173,9.9209,7.5827,1.5086,6.6898,
-1.7034,8.8498,-7.6243,6.9707,-4.1172,11.1158,-3.5912,-12.069,11.7467,7.1633,5.9086,21.2277,-1.9989,17.5155,
1.3274,2.4613,-10.0953,8.5059,-8.7517,15.3304,-2.3992,-2.5583,10.0654,13.568,1.6486,16.1603,-1.8794,19.3931,
-1.1928,-4.032,-11.9302,12.3881,-0.90497,17.8271,7.0193,0.035702,3.1159,6.4074,5.9432,1.0907,4.5789,14.812,
-4.0503,1.091,-10.2383,4.8108,4.0313,21.6395,4.6452,0.033559,-2.9291,-8.077,2.6576,-3.9124,6.2572,5.1372,
-6.7353,3.9545,-15.482,-3.288,-3.0446,22.2932,-6.3717,5.8896,-11.5394,-18.8747,-6.288,-6.6057,10.7628,-0.052098,
-6.8197,-4.5813,-23.8268,-1.6252,-16.0415,17.539,-7.4539,16.7637,-14.2636,-12.3726,-5.4222,-14.5079,11.5815,2.3916,
-7.387,-10.164,-15.5636,-6.4102,-10.1984,19.4152,2.7559,12.8284,-2.6692,-6.7497,6.6178,-7.7799,6.0051,-3.6095,
-11.3368,-6.1371,-10.2367,-11.3946,-3.2405,23.6194,6.9836,4.7367,-0.068041,-5.8567,6.7087,-1.944,3.2047,-17.4929,
-6.752,-7.7214,-14.504,-4.8534,-11.8326,15.3687,4.6121,7.381,-9.8275,-3.5528,-5.4094,-7.685,-0.89305,-20.404,
3.4166,-11.1627,0.46621,4.2244,-10.1462,16.399,9.2169,16.7017,-5.3323,-3.3391,-2.1554,-3.3184,-0.839,-8.4412,
1.2586,-10.4938,5.8639,2.0179,-3.6794,21.2731,-0.12314,22.5327,-4.0364,-7.0438,-3.979,-1.1672,-1.7656,-2.0767,
1.6716,-0.58964,-1.8105,9.2194,3.863,26.3423,-2.5563,27.5263,-4.2817,-1.2517,-14.9669,0.36733,-0.19518,6.3455,
8.8929,2.8632,-2.1894,12.0828,5.0957,25.2502,3.9427,30.2682,-3.5373,-0.689,-22.3674,4.7388,-4.576,16.2154,
14.2169,-2.1901,-5.9635,-2.7422,-1.0676,9.6352,-2.1515,22.5946,-14.0637,-12.3623,-30.788,-4.3321,-12.112,17.195,
25.5674,6.2399,3.6689,1.2713,-0.51508,3.143,-2.5099,15.8694,-15.6604,-10.1561,-28.4522,-2.6077,-6.9918,16.6518,
22.0804,8.7935,7.3538,7.053,0.49185,0.025407,-1.3833,8.0832,-5.9346,-6.6186,-19.912,7.3109,-1.6912,10.7707,
6.6556,5.8259,-0.40953,-0.69224,6.8084,-8.2742,0.16375,4.1812,5.6485,-2.8045,-4.6173,8.3372,8.6613,7.6844,
-7.467,-3.3107,-6.242,-1.6267,6.3999,-13.6348,1.1309,-4.8558,5.3096,-0.68323,1.5739,-2.9021,12.0467,0.38927,
0.30306,-4.5761,2.4306,10.674,13.337,-2.5666,12.2892,-7.9815,9.3841,6.6798,1.9675,5.5701,17.669,-3.0511,
6.6304,-1.861,-1.1328,7.593,14.0013,-6.8052,16.9214,-9.9431,9.3095,4.8145,-2.5441,7.6765,15.1443,-5.3086,
9.1616,5.0847,-5.9459,0.30339,7.3041,-12.2549,7.12,-13.2516,2.8939,-0.3554,-6.2965,2.3348,10.3316,-0.10806,
15.4455,8.6851,6.1265,10.0478,9.7944,-1.7561,8.6453,-9.527,0.76771,3.5705,-7.8712,8.0523,9.7112,-1.0781,
15.9833,2.7935,5.2704,14.8144,9.6943,6.6469,12.5192,-6.5158,3.1612,4.8208,-5.9344,9.0336,4.735,-0.52584,
7.7022,-3.7192,-2.3679,5.6275,0.81456,1.855,1.5179,-1.7309,6.3886,2.0905,-0.20929,4.0986,2.9869,12.6858,
6.2641,-2.52,1.6792,6.2659,-3.1384,2.7198,-1.5013,12.473,6.9822,2.942,-0.1958,4.8287,1.8316,21.6877,
9.3052,-2.8568,-3.7906,4.4259,-6.3671,5.9736,-3.8522,20.5668,-0.75875,-4.5565,-13.3641,1.1219,-8.5293,12.0874,
15.581,0.24361,-7.4682,-5.6027,-5.0091,16.3543,-9.4791,10.5467,-4.6183,-10.1412,-19.3963,-2.8504,-11.9226,7.4571,
14.1581,3.646,-2.6271,-11.6117,-7.1495,16.837,-16.2324,6.4969,-7.7582,-11.9728,-9.9345,-5.1195,-10.7192,8.4747,
2.0811,-0.96626,-2.9579,-9.4514,-15.9951,8.5052,-10.8649,20.2071,-7.7812,-13.6958,4.7616,0.55633,-9.5876,14.3118,
-11.2234,-7.2539,-5.221,-11.3248,-14.5469,8.4825,0.037572,27.3479,-6.8258,-2.6235,12.8301,11.7505,-4.6198,19.7986,
-10.5505,-11.7001,-6.8602,-11.6218,-3.9115,12.855,-6.7983,12.0394,-5.4407,9.2495,8.1557,15.9261,-0.43707,12.7532,
1.7981,-5.1406,-2.544,-0.18498,10.4231,22.8224,-4.4378,15.2225,3.6723,6.742,12.547,11.0659,5.4467,6.1304,
-6.6074,-3.3676,-5.808,-9.4485,9.8539,21.9415,-1.731,14.7977,1.0114,-5.8652,0.56753,-3.698,3.6554,-8.3374,
-7.6764,-1.7011,-5.948,-14.2511,7.7981,22.0895,3.7424,11.4683,6.3203,3.7604,-4.8361,-5.9732,8.8056,-21.0733,
-2.8218,-7.945,-7.0551,-9.003,-0.96784,15.3951,0.10079,18.1023,4.477,0.11866,-0.15285,-7.0789,4.8603,-16.391,
6.6216,-2.0983,-2.2378,-0.16378,-6.2788,13.0073,-4.2983,31.1162,-5.0657,-13.9885,1.3213,-11.0463,-2.7534,-14.9195,
15.4993,0.46762,-3.5685,-8.453,-9.3191,12.7149,-9.4095,21.9832,-8.1788,-14.6693,-5.104,-22.5875,-7.9573,-28.1243,
22.8675,-2.0005,-0.91343,-6.4808,2.4662,18.2971,-1.5238,14.3182,5.4911,-1.586,-2.3568,-25.6253,3.7472,-23.076,
20.5185,-0.90444,-1.8356,-8.045,0.36615,15.2472,2.4727,8.5781,2.2326,-2.4678,-8.0734,-19.2068,3.5224,-20.7154,
10.0137,3.5433,-2.213,-21.6623,-13.7558,0.23238,-4.9973,-0.23517,-11.081,-16.4197,-16.8636,-16.5898,-7.9165,-24.842,
9.4124,0.40126,-4.0327,-16.5136,-12.9866,-1.7906,-5.6739,7.5895,-7.4876,-16.4667,-4.1362,-12.6659,-6.465,-10.6599,
4.9426,-13.7228,-9.6488,-9.6648,-8.3023,0.26978,-6.3095,16.8962,-3.1333,-1.3787,6.8511,-5.0719,-8.0301,2.6708,
-4.6285,-14.9071,-6.6293,-12.5014,-1.4586,9.5282,-2.5144,18.3239,-0.50381,10.4757,6.9276,4.507,-6.0838,11.7852,
-9.2318,-0.34555,-3.3026,-4.9173,-2.3471,11.8855,-0.41055,21.1295,3.4315,-1.8679,13.3459,5.2135,2.0922,11.079,
-5.2614,-3.7414,3.2412,9.4777,-5.6238,9.7079,3.0306,33.9617,6.6421,4.5897,17.9147,6.3643,2.4543,10.9018,
-9.8272,-9.3754,-1.8348,3.1062,-10.167,15.959,-7.8898,44.6703,1.3621,15.0529,6.1003,5.0059,-10.3846,22.9393,
-12.6537,1.4382,-3.1888,-9.2833,-12.974,21.3475,-10.8334,42.4791,-0.1837,8.7807,6.2232,3.2415,-8.2965,24.9799,
-8.9664,-1.5762,-0.068448,-10.6783,-6.3384,19.0896,2.5077,37.9773,2.7563,2.3958,10.7309,0.11804,0.98734,11.766,
3.2867,-9.2917,-1.0404,-8.0856,-0.10012,25.7543,-0.57084,39.6037,0.63797,4.2051,9.111,1.0879,2.8802,19.8462,
7.9715,-1.901,-8.788,-3.6954,-10.8332,23.2331,-14.6366,33.3225,-9.1624,-5.8103,0.75428,6.8797,-5.1027,27.4415,
4.5637,2.1185,-13.1432,-4.4502,-23.8508,9.1475,-26.9941,21.5605,-15.4472,-19.5617,-7.1015,2.5614,-12.6071,17.0085,
8.1949,1.9914,-2.5915,-7.1112,-11.6807,13.4797,-20.4934,24.1719,-10.6153,-16.0035,-6.6754,-8.3304,-9.8977,12.0829,
16.0023,10.17,6.839,-10.1016,2.2002,23.8989,-5.1638,27.1156,-2.6563,-7.7203,-14.573,-11.2476,-6.8628,7.9418,
12.1136,2.7262,-7.239,-23.5955,1.0917,15.6305,2.0357,25.4882,-4.4495,-8.2336,-19.5562,-8.6202,-5.4746,-6.2023,
0.64723,-11.5373,-14.6152,-24.6769,2.9778,18.5972,2.8901,22.9824,2.6511,0.070004,-4.2828,-6.1514,3.6395,-5.8306,
2.0729,-6.9962,-6.4157,-9.0962,1.3356,27.7329,1.2522,31.8541,14.6956,9.3404,10.0742,5.4452,3.9096,8.6192,
-0.49247,-0.23037,-11.4008,-7.0299,-11.9247,19.7238,-9.0731,44.0428,2.5868,11.221,14.463,15.3696,-9.5041,20.3618,
-4.856,-3.6336,-7.2997,-6.1201,-8.7682,16.0985,-4.1366,50.7305,5.8486,14.9407,10.1782,12.9824,-5.5177,10.841,
-6.0287,-13.6666,1.4363,0.59317,-10.6831,10.7395,-3.3995,40.3655,12.8197,10.6273,10.0555,8.7874,-2.7457,-3.9094,
2.6311,-6.5015,-2.0669,2.9977,-18.3402,7.6542,-9.5415,36.4786,-2.0495,6.5726,-1.7749,11.6762,-13.808,-0.31394,
6.8663,7.0686,-11.217,1.3538,-14.7997,9.6359,-17.2671,39.659,-14.1857,3.7373,-9.9665,15.3696,-19.3256,13.8049,
-5.7488,5.1805,-11.032,-2.1445,-11.4707,13.4517,-20.6241,41.6734,-5.0365,5.954,-3.0225,13.9595,-11.82,19.3787,
-10.7729,1.4526,1.8331,-0.55086,-7.3655,9.2276,-16.9457,38.685,0.6357,9.0138,5.457,4.8238,-4.7648,8.9419,
-7.198,3.318,14.4147,3.3868,4.792,3.7924,-3.2383,29.5294,4.5021,6.5205,10.0101,5.5099,-1.5504,-3.3102,
-9.6961,0.18991,17.4539,3.1836,9.3856,1.6119,7.6951,19.9476,14.9711,5.1523,14.2906,2.2503,-9.2674,-13.8507,
-13.5069,-4.2141,13.9671,-0.42401,8.334,-1.9014,-0.088211,15.3341,12.6083,7.2846,18.8036,-11.9847,-7.2469,-23.2702,
-3.4214,2.3839,6.783,0.089442,10.2749,12.3127,-1.5479,19.7832,11.3638,6.3595,30.8545,-11.8093,7.288,-10.6469,
0.20042,1.7533,-1.9225,0.57255,7.2179,20.9046,0.98552,15.1796,14.0985,0.6084,34.3728,2.9993,11.2994,4.0919,
-13.9116,-9.091,-5.7122,-8.2488,-7.3152,5.5503,-7.8597,12.3159,7.3955,9.358,18.6424,-1.0301,-3.4786,2.926,
-21.4311,-6.5935,-9.2745,-17.516,-12.3014,-1.1848,-16.1742,21.34,0.11775,14.6545,3.4238,-1.9443,-12.6001,7.6315,
-7.9421,4.0532,-12.135,-14.025,-9.1233,9.1373,-16.6687,23.4757,-12.0934,3.5242,-10.8816,11.3515,-5.499,18.3998,
6.6344,8.6915,1.2847,-1.4679,-8.5754,12.4946,-8.8341,24.0206,-15.2723,-1.5688,-17.6625,4.8129,-17.8597,14.3682,
20.3364,3.7765,11.4582,-3.8204,-6.5964,-2.3551,3.8986,21.1148,-6.0574,2.9189,-27.8294,-9.5759,-25.0867,-0.59392,
14.8353,-8.1652,1.9846,-17.6912,-0.3426,-16.3138,5.6177,5.7479,0.16402,7.6248,-18.3496,-6.128,-11.8654,-7.448,
3.2061,-16.4614,-3.9916,-22.0549,2.607,-28.6268,-0.57649,-8.6969,2.1062,11.0733,-3.1486,6.9318,-5.2964,6.667,
4.9663,-12.5451,1.1285,-7.0639,5.3782,-37.6478,2.3857,-22.2751,11.7424,14.3134,5.3941,10.4204,-12.7892,20.367,
1.7393,-15.6975,-13.0392,-17.3792,-3.7306,-49.4889,-9.4725,-35.0386,14.9429,2.7156,9.9524,4.9132,-26.1218,11.8776,
0.65844,-17.6842,-12.8005,-19.265,-4.4823,-55.8502,-15.7378,-47.0363,16.9758,4.5051,23.4553,11.4529,-18.2641,11.1654,
0.61893,-14.671,-8.1274,-4.0091,-3.2374,-65.1904,-8.9355,-58.3141,13.0283,5.2109,27.4736,11.7418,-7.4052,19.2816,
6.4403,-11.8383,-7.6393,3.6092,3.7904,-73.9705,-3.5178,-62.9606,8.3411,1.9697,17.0386,7.1327,-15.7475,13.2441,
20.1539,-3.317,6.919,10.2266,16.2551,-67.5793,9.3844,-73.2829,11.7456,15.5196,16.9923,20.3719,-13.8266,21.2356,
24.3689,1.7622,12.9051,16.4462,18.2079,-69.383,13.7024,-82.9859,6.1598,20.4455,4.2577,26.9597,-8.1159,21.9135,
15.0971,-3.2242,4.3212,14.4838,22.9729,-73.0297,14.8328,-92.1068,3.8377,15.3142,-3.8083,23.3896,-9.5815,6.4987,
12.2388,-14.7463,4.0615,9.7093,17.69,-70.6004,14.9193,-100.6804,2.631,11.4659,-9.4374,11.2476,-14.8642,-7.1265,
19.8025,-6.5394,12.1158,18.4018,21.0216,-63.9238,25.2512,-108.0422,5.8901,14.1949,-13.2642,4.2267,0.12769,-8.163,
12.7573,0.68697,10.4129,16.3207,29.5225,-62.0409,28.6172,-102.5361,4.5607,-0.75677,-20.2784,-4.813,5.0572,-21.7732,
15.8964,7.4793,15.6457,18.271,29.7036,-51.4844,22.9956,-87.5974,4.2866,-6.1361,-12.2281,-6.4767,1.8252,-25.8924,
20.8007,3.1255,15.6829,31.2747,18.1593,-45.4668,16.7339,-84.2941,5.0064,-3.8159,-7.5894,-10.9692,6.5968,-21.4099,
11.7421,7.8195,3.0273,27.0129,8.2832,-38.8333,15.7303,-78.2599,11.5396,-1.6344,-15.9197,-12.2636,5.2254,-20.1248,
4.2035,11.2554,-4.9644,11.2921,0.95214,-26.7407,8.9285,-63.8022,4.0131,3.3447,-19.8465,-6.6467,-9.1881,-9.1552,
10.2978,2.2815,1.679,9.5829,2.3595,-20.7437,4.0002,-52.6516,3.2839,5.5855,-4.5557,-8.6884,-12.5984,-0.30734,
1.3814,-1.2719,-2.8152,7.5434,-0.22259,-23.8917,0.34268,-52.91,6.5043,-0.12009,2.1198,-16.4657,-7.449,-10.5404,
-3.0945,6.1264,-0.20531,10.5078,-2.6502,-13.1841,9.5972,-48.2704,7.5781,8.1861,-12.1074,-1.3777,-9.4431,-3.562,
2.4597,7.2234,11.0336,12.3179,-2.0027,-4.0945,9.5089,-40.9816,5.6589,12.0875,-16.8066,12.8049,-13.27,1.0453,
9.1471,8.742,6.4666,9.6258,-7.7397,-10.6828,4.0573,-25.8306,3.3673,6.4812,-11.8932,17.0294,-7.5918,-0.96951,
7.6218,13.099,5.1021,11.9778,-10.2048,-13.9464,5.7664,-22.3283,-3.6683,3.1638,-13.1321,1.9077,-7.1368,-1.8878,
6.188,6.4555,13.5825,18.0927,-0.80591,-9.2051,9.3259,-32.7041,-5.4007,-2.8836,-15.2727,-12.3068,-5.7321,-12.5141,
10.6973,5.0917,19.6012,20.9117,10.9571,-1.8192,16.5759,-27.8134,5.6619,-6.6161,-6.5467,-0.94104,8.7119,-17.6208,
3.7104,7.2272,19.8901,9.4068,8.8356,-5.1271,14.1173,-18.8225,-0.047771,-6.7071,-9.571,-2.3486,16.0548,-18.0276,
1.0468,4.3526,23.0897,10.3065,4.8885,-0.42639,12.7814,-10.3711,-5.414,-3.8637,-17.2948,-15.3878,3.8645,-21.3399,
-2.4331,6.5324,22.1923,18.9622,8.0122,6.9212,15.4315,-7.3078,-3.6251,-6.0729,-23.5792,-21.7866,3.1446,-34.1595,
-5.2161,6.1405,21.8368,23.6825,13.3885,3.577,13.5296,-0.036246,-3.4076,-2.7795,-25.0934,-20.4794,1.9799,-42.9042,
0.95536,0.89051,18.5741,14.451,8.6807,9.2208,6.8603,8.7525,3.6314,0.31584,-12.8483,-20.2262,0.8846,-37.4014,
-1.0549,2.7901,9.6496,-0.51606,6.2078,20.3827,8.4016,-0.55876,7.3185,-0.67914,-6.2194,-21.9416,8.6416,-36.1334,
-9.7777,5.5507,8.0946,-12.7443,8.7634,17.2067,9.8496,-10.2883,2.9744,1.3137,-11.7042,-16.7201,12.0281,-33.9654,
-11.1441,3.2656,16.395,-6.1216,14.0956,16.1743,17.0687,4.429,4.748,4.1639,-6.1209,-8.8828,18.1405,-20.2123,
-9.9865,3.5577,3.2082,-9.1714,3.9748,24.4789,7.7465,18.2633,1.0461,-4.3841,-2.3366,-14.6959,24.3741,-6.7965,
-4.9942,6.7613,-8.2114,-13.9902,0.32023,25.4502,-6.8183,22.1607,-12.1958,-9.4901,-7.5655,-18.2072,22.4237,-0.042649,
-1.7665,4.4026,3.0204,-13.1507,9.0871,16.1132,-3.5363,21.8071,-19.2751,-8.9216,-7.1125,-16.1387,20.1013,-3.9451,
2.7335,6.5795,10.1612,-12.8497,-2.6852,14.6584,1.0689,12.2006,-14.7006,-9.8504,-8.1498,-19.5635,17.4312,-5.1725,
8.427,10.0902,5.646,-11.1022,-6.4296,12.8033,3.9343,3.659,-9.914,-7.3068,-20.3524,-8.6271,9.5517,3.9245,
2.0634,2.6507,7.2602,-8.4841,4.6953,1.296,6.6263,5.3915,-9.3192,-3.9394,-18.1543,5.9906,7.0266,3.689,
-5.8705,-0.43732,13.6577,-4.07,5.3896,-5.6158,9.1577,1.163,4.9081,3.131,-2.965,7.1513,9.533,3.4667,
-8.9348,-1.8756,7.4697,-5.2903,-4.2084,-10.6484,2.2627,-11.1104,9.0062,1.4786,2.1496,-5.4814,1.6395,-4.0629,
-6.4462,1.1655,8.974,-2.0443,-0.050372,-9.033,5.0555,0.29577,6.5133,0.41343,4.9491,-7.105,6.4217,-8.7006,
-9.4769,-1.345,5.0181,-6.3142,-4.4409,-8.9795,-1.5934,5.6476,7.587,-4.004,10.0217,-8.1423,4.5728,-13.5481,
-5.0033,-0.28731,2.7649,-3.9833,-1.2454,-4.5357,-10.2839,3.3557,12.9898,-0.83564,3.5633,-5.7017,-3.5116,-4.9252,
-4.7031,-1.247,8.4561,-5.6964,12.4974,-3.2875,-6.7388,5.1074,0.49528,0.19052,-10.7505,-7.3126,-4.2779,1.2284,
1.4367,2.7333,16.7353,-1.45,11.7471,-1.1377,6.3571,12.6105,-13.6344,-5.6785,-24.2054,-13.7074,3.7893,0.17816,
15.4505,2.5688,17.6837,6.4475,-0.67237,4.7881,6.9522,6.9733,-26.9164,-9.2423,-34.5804,-12.8845,3.5615,0.16794,
28.2476,3.8792,22.9692,2.6441,10.5946,3.0372,5.0705,0.20933,-22.9721,-3.3182,-36.8982,-8.6949,0.90729,2.5984,
17.7657,3.6465,16.7091,-7.2776,15.8169,-0.074027,-0.11475,3.1249,-15.7367,-1.1671,-39.5663,-14.0303,-0.12318,0.4895,
2.5998,1.4751,3.9909,-9.7704,2.1763,12.622,-6.9414,11.7239,-10.8879,-1.0966,-28.4057,-12.2129,1.8367,-0.51543,
-11.6562,5.7802,4.24,-8.6957,-0.39571,20.1623,-11.8945,14.437,-1.9361,0.43369,-12.6014,-7.0866,0.26202,4.8841,
-25.0568,0.55182,-3.824,-20.8646,3.5335,9.19,-11.1804,10.6423,10.8716,2.3602,-4.9552,-6.6609,-0.72926,2.6395,
-22.2563,-10.7084,-8.9646,-26.9357,7.7146,4.2455,3.5905,5.6107,24.3193,12.4687,4.6163,3.0128,13.4145,-5.8179,
-27.755,-13.9709,-4.5217,-24.3436,13.1097,3.9908,12.2163,-8.8259,27.7974,17.5786,8.2443,3.8081,16.5698,-16.2079,
-29.9942,-14.1092,-6.2029,-26.7875,15.2517,7.6569,-2.6167,-12.7451,15.3909,6.7613,-1.0369,-7.159,1.4756,-22.069,
-20.873,-16.6792,-2.4132,-27.6208,11.896,18.4241,3.3422,2.1196,15.9319,1.9621,-5.3673,-8.194,4.26,-15.3753,
-14.2511,-16.1669,-3.733,-26.452,0.93168,17.8071,4.6062,9.3697,9.6065,-0.59614,-2.6047,-8.1908,18.1044,-2.2492,
-4.6094,-4.4573,-3.5094,-23.8884,-4.0057,10.8811,-4.4567,12.713,4.1486,-2.5129,-5.3779,-7.6989,20.9793,3.7433,
0.54819,-1.2609,4.5112,-22.4551,-5.7175,17.0623,-4.1893,21.7123,-0.9814,-7.2432,-18.7224,-7.237,10.9344,0.58967,
-2.9017,-1.6742,8.6336,-14.7618,-6.8394,30.1386,4.3601,34.5096,-6.2925,-6.3206,-19.0631,-3.3857,12.7184,14.6543,
-6.1437,1.8433,8.6045,-13.3881,-6.917,25.9454,-4.1996,43.7222,-7.379,-7.4054,-15.4792,-6.5996,15.3723,27.875,
-0.40648,6.1262,7.5998,-18.9303,-3.0854,19.0191,-14.1982,39.6344,-2.5428,-7.4495,-20.896,-7.6681,14.9385,18.9922,
-2.3341,5.7586,2.2618,-19.7475,4.9097,19.83,-12.3703,23.1563,-1.4142,-6.0265,-20.6183,-4.279,15.0182,6.1376,
-9.0286,1.5076,3.1026,-20.5152,4.6156,13.7587,-2.8415,7.6669,0.6232,-0.78342,-8.6426,-4.9988,14.1166,4.7928,
-7.0219,-2.9759,5.3574,-24.6533,1.8977,11.4691,1.722,2.7021,4.0028,0.72763,-4.707,-7.1399,22.5447,10.8513,
4.6265,-4.2614,6.5,-21.7101,7.1538,24.881,-2.7743,16.64,2.2977,-6.6372,-10.7706,-14.0326,27.538,7.7592,
8.7419,5.2684,6.5989,-14.0615,8.1886,33.6953,-7.9769,25.9488,1.6718,-8.6799,-12.5645,-20.5127,19.5397,-3.9325,
0.40736,10.8094,10.1071,-17.1228,6.7213,21.9096,-9.4513,22.4389,3.5236,0.62697,-9.8585,-23.1879,14.4623,-3.6975,
-12.7972,-3.0183,8.0366,-26.3465,8.7581,11.3209,-6.4432,28.4146,5.7531,4.9824,-20.4941,-19.3556,16.0346,5.7994,
-26.1293,-11.1353,-3.6717,-30.1348,6.7686,16.0116,-4.5926,26.2217,3.9439,6.1484,-30.4911,-8.9192,19.4665,10.8214,
-38.6616,-9.9792,-7.8454,-34.6727,7.8265,18.467,-3.829,19.2784,4.1953,8.2196,-29.1501,-7.897,19.7626,6.7542,
-30.1071,-9.8684,-9.8147,-39.9135,8.8219,14.9189,-4.0873,17.6337,6.3846,5.2863,-22.0311,-9.8633,14.1838,4.8849,
-14.2007,-4.8828,-7.7623,-36.0551,1.947,20.3694,-0.42458,15.1112,9.4181,-0.40038,-13.3876,-2.9259,6.0112,10.9374,
0.75136,2.2433,0.51353,-29.0107,-5.9799,24.0283,-2.3521,22.0146,3.9719,-3.3054,-16.4894,-2.7503,6.6265,20.0433,
-6.016,1.6207,2.9237,-31.6631,-4.1571,24.0515,-3.675,34.7937,2.2686,-0.66605,-24.7746,-11.8594,11.598,19.3296,
-12.4896,-10.1912,-2.1332,-34.6449,-0.0021417,25.537,-3.455,42.5247,8.967,-1.6026,-27.1932,-15.0534,6.0206,14.2643,
-10.2757,-7.1392,-2.4928,-26.2197,1.4625,33.2794,-4.7122,52.1768,9.8935,-0.041916,-18.2395,-7.8046,4.1958,25.6121,
-12.5877,3.0517,0.58532,-26.599,-3.5068,32.2591,-7.358,63.1462,7.3474,2.8891,-9.3351,-11.2409,8.8246,23.0988,
-13.2965,2.3806,5.9193,-31.3491,1.0967,29.8355,-7.4045,49.65,11.2996,3.2038,-11.216,-18.8645,12.6882,7.6129,
-10.0582,-3.1318,7.0286,-24.0986,4.4474,30.4859,-4.5197,32.571,11.1092,0.57105,-13.96,-16.2691,11.4394,5.6355,
1.772,1.4497,9.0474,-17.2832,-3.141,28.1683,4.05,36.9067,4.097,-5.8088,-18.4915,-14.8045,5.3835,19.3974,
12.4047,2.3387,11.4336,-22.1042,-8.8106,21.5971,-2.051,45.4314,-1.0298,-16.1993,-27.1446,-24.6553,-1.7736,17.3141,
14.101,3.6629,13.1881,-20.2895,2.9456,30.5519,-13.1546,50.028,7.3305,-5.9528,-25.0279,-20.7345,5.6553,14.8107,
3.9808,3.9311,7.0268,-21.5131,2.2799,38.9689,-15.7832,46.5374,1.5207,2.7025,-32.8008,-11.1933,3.8511,20.2672,
9.1115,9.0648,8.0697,-15.8288,-2.2494,41.0243,-13.3718,57.8452,-2.9641,1.0758,-35.2258,3.5783,8.0135,21.4917,
2.2188,7.0559,5.1455,-18.2961,1.3026,33.1938,-15.9855,59.8001,-2.2973,0.52324,-32.6243,10.7423,21.6327,15.8092,
-12.0144,1.7515,-5.9023,-31.2983,-3.6567,30.2261,-14.0504,42.1121,2.7216,14.5918,-21.8802,1.3116,22.3429,21.6946,
-25.3935,-4.2111,-5.5477,-43.5204,-8.3188,29.3881,-6.3738,26.3496,10.3679,25.976,-7.8763,6.1135,22.9548,34.493,
-24.4696,-18.0585,-4.7269,-55.0092,-9.2846,13.5248,-13.3134,12.5655,7.3058,10.3175,-13.7493,5.2587,20.1135,22.7169,
-14.2154,-12.1491,6.2958,-56.7575,1.0355,19.4922,-4.7045,10.8356,20.9674,2.8083,-6.0903,3.9671,31.5978,21.3539,
-12.3859,-2.6345,-2.8685,-63.1151,-11.7182,27.1083,-0.51676,14.09,21.229,0.68725,-5.7253,-7.0104,17.9864,22.0252,
2.4572,2.8936,0.72065,-45.2282,-5.6451,28.8988,3.9073,27.3446,19.4673,-3.747,-6.8459,-3.1718,15.4432,34.8037,
16.4098,2.2315,9.9511,-28.4145,-0.91384,25.7004,-3.6487,39.8039,10.0007,-11.8208,-20.5351,-8.352,15.005,39.1162,
14.5609,6.0026,15.212,-13.9063,-2.8111,27.0874,-2.4538,51.5157,7.4486,-9.1585,-29.1217,-7.8509,2.3887,34.8172,
10.2698,9.059,16.7398,-13.5604,-3.1309,17.1636,3.063,62.5248,17.2523,-2.2635,-20.0523,-2.9863,-11.8546,29.3106,
0.379,9.004,12.3189,-15.1873,6.3316,2.0338,2.3907,44.6733,19.6337,-0.66314,-13.4796,-4.2716,-14.6155,23.1594,
-12.3349,6.5117,4.7457,-16.2282,10.8327,-12.1883,2.2473,27.8929,14.5516,-2.5763,-11.6944,6.7237,-3.9755,24.6989,
-14.5233,-7.979,-0.42057,-23.065,3.3492,-24.7483,-6.6741,12.1193,9.773,-2.4213,-11.9692,12.1779,1.1436,30.0505,
-9.2589,-13.4139,3.9977,-21.1926,13.3993,-37.3634,-8.7137,-2.7078,8.6986,6.0221,-11.7391,1.1961,8.397,22.8784,
-22.8033,-13.5851,-2.0992,-19.9211,16.5004,-49.2216,-2.3338,-16.6454,-3.5384,4.6847,-17.8688,-11.5668,6.9172,7.4057,
-29.3013,-10.3295,7.3013,-14.3328,21.8559,-57.1182,7.0808,-29.7467,3.9955,9.7732,-10.4506,0.35479,6.9906,2.0237,
-13.4432,-6.7807,20.9632,-6.6383,34.6446,-52.7141,9.5849,-42.0619,15.4718,18.9498,-7.8711,5.2146,10.4762,16.0023,
1.4634,-3.9338,20.7375,-2.8239,36.5261,-59.8033,13.4029,-53.6381,7.2205,13.4189,-16.6738,-5.3494,7.4067,13.1453,
11.7379,-3.6973,17.5408,-4.6065,28.4779,-66.9537,20.4093,-64.5199,4.8357,1.8751,-17.6255,-4.0519,3.0577,3.5709,
17.3797,-0.058443,25.7624,-4.8186,19.4472,-51.7094,16.7437,-74.7487,8.9386,-4.5834,-8.2698,-3.3208,2.3853,11.6548,
16.8254,8.2427,31.5392,-4.041,22.6729,-34.5068,16.2276,-84.3637,12.7948,-12.607,0.5249,-12.3961,9.5647,10.467,
12.8868,10.6771,31.5989,-12.5851,31.0756,-18.7127,22.087,-86.5263,13.9801,-9.8976,-4.3886,-18.4864,11.9189,3.0049,
2.3506,-0.70258,17.9879,-25.93,27.2581,-28.329,11.9757,-93.0499,5.3313,4.7963,-18.2253,-14.4482,3.3937,1.8486,
-11.8905,-8.959,19.3491,-25.4068,19.277,-27.1177,12.7217,-89.9079,4.5229,16.2793,-16.2114,-1.3777,4.6546,6.1303,
-25.277,-17.2075,20.1412,-20.9529,6.4053,-24.5137,15.8634,-81.5844,9.1326,8.4685,-1.1387,2.61,2.4232,3.8104,
-32.1702,-23.0082,5.2646,-22.6247,6.021,-21.0909,4.1725,-74.7368,12.4897,9.9133,4.3553,5.3824,4.2299,1.6297,
-44.34,-20.6521,2.0197,-23.2198,11.5177,-18.8494,1.9701,-67.3236,7.8353,19.0807,1.165,7.0115,18.0761,-10.1832,
-48.5693,-12.091,11.1731,-20.3625,7.4092,-22.111,4.2924,-66.7012,2.9726,15.4953,4.5121,4.1503,29.7392,-15.9187,
-31.5551,0.35008,12.4552,-16.2118,10.8701,-15.9037,3.0584,-59.7706,8.6518,12.6131,6.1939,4.8777,13.8549,-0.86354,
-15.5618,-0.64695,3.8979,-23.0491,8.265,-3.2335,-3.9591,-44.4688,-1.6304,3.0702,-8.2778,0.68005,-0.21212,9.4959,
-21.3504,-10.3712,0.73498,-27.5238,-2.97,1.8416,-5.6737,-30.0855,-15.6326,-3.9481,-16.1353,-1.3137,-4.1044,18.6883,
-28.3675,-11.2139,-0.77316,-20.5033,-4.2559,4.1712,-8.7503,-32.6735,-12.7977,-0.29417,-12.7266,-1.7229,-10.2042,27.8171,
-16.4144,-5.1706,0.73774,-19.7606,0.393,5.3863,-8.7137,-32.1776,-6.6603,-3.6931,-17.3321,-6.0121,-10.0795,20.7795,
-1.3295,-12.1829,10.9441,-23.9445,-0.11906,2.6217,2.0606,-16.1469,-7.7252,-17.5715,-20.6852,-11.0209,-6.0582,12.2102,
3.1994,-9.0109,7.8474,-23.9723,-7.434,5.8814,0.47203,-6.8244,-15.5598,-17.0618,-22.8611,-13.7767,-13.9928,6.1085,
3.4945,5.6297,1.0305,-17.1649,-7.4759,19.6285,-10.7834,-6.9029,-12.1861,-2.8589,-28.812,-14.4151,-17.5462,-1.5801,
2.3088,11.2052,-0.98432,-14.1821,-3.1224,21.435,-15.0174,-3.5597,-8.526,-11.4735,-26.1068,-22.3363,-7.7074,-10.2723,
-4.1753,0.28224,0.53924,-19.6772,-1.4705,18.6853,-5.8178,0.070403,-9.4789,-18.1067,-13.3133,-25.3896,6.8551,-12.0965,
-15.1514,-3.1512,-2.9097,-32.5965,-6.7518,21.9577,-2.0522,-2.3734,-11.3498,-5.7927,-13.002,-27.2828,14.7989,-17.7153,
-24.0053,-7.8442,-9.5691,-39.4829,-7.3227,22.5923,-13.6442,-3.208,-8.7167,-2.5171,-8.3173,-24.6698,10.981,-16.6533,
-27.4461,-9.326,-6.0664,-38.09,-7.8599,25.1413,-18.6831,5.7711,0.59283,-1.3896,6.2817,-15.3791,9.3466,-3.9386,
-26.7758,-8.7665,0.15556,-39.7096,-8.3643,24.6098,-10.729,3.4718,2.5093,-0.33016,1.5674,-18.3614,-4.8823,-6.6313,
-25.1693,-7.2645,5.0273,-38.3035,-6.8864,22.1563,-11.0613,3.2635,3.3348,-1.2864,0.49685,-13.3556,-16.3045,-8.1864,
-22.1941,-5.3641,10.0952,-41.3744,-10.8667,24.2444,-10.8852,6.4852,5.5762,3.1843,14.567,1.5458,-7.0276,-1.3487,
-6.7625,-1.6252,17.7876,-43.2854,-7.7737,18.3957,-4.863,-2.2029,3.7766,0.55226,15.2136,2.9736,7.494,-5.6617,
7.7433,7.2584,21.6014,-32.8782,1.4788,9.4828,-2.6182,-1.0938,-3.284,-11.196,14.3008,-11.3048,10.0286,-6.2981,
15.6885,15.6099,25.1873,-21.1425,-1.538,6.9609,-4.4141,13.0718,-10.8971,-16.3813,20.2768,-9.2176,3.5697,5.7958,
28.8472,18.0899,35.8796,-9.6233,-1.9342,8.9847,-2.6847,24.0583,-12.6838,-10.0289,19.5482,-1.3421,7.7491,12.7697,
37.9106,13.0999,34.7024,-14.9035,-0.84168,5.5161,0.40488,16.7572,-16.8043,-9.4276,10.5652,-8.096,12.1647,7.122,
21.536,10.8494,33.1087,-23.2839,1.6494,4.6976,-0.10696,10.3822,-6.5214,-11.3025,10.4193,-10.0508,8.0183,5.2302,
6.1438,6.7814,26.7292,-23.3513,3.0144,3.9268,-6.4466,8.2953,-0.76014,-10.1363,8.3297,-4.0787,2.1672,10.2864,
8.5929,3.446,26.1019,-21.9498,1.858,0.76268,-5.0833,6.8211,-4.62,-3.6706,8.8064,-2.8575,3.0136,7.7167,
9.5418,-2.1303,25.0243,-19.1683,-1.671,0.22937,-5.2658,9.8293,-1.9014,-1.0098,11.695,-8.0546,-2.5367,2.8601,
2.6233,-2.4914,17.1759,-16.5546,2.8223,-3.2023,-14.2249,5.8216,-0.32418,-5.3423,8.5523,-1.2263,-5.8015,3.1765,
-7.7847,-0.87651,16.6338,-26.788,-3.6926,-10.3318,-18.741,-8.6277,-7.6263,1.3238,-0.25889,7.1459,-8.87,0.54542,
-2.9241,4.5456,21.9823,-26.6447,-5.9115,-0.43731,-11.2709,-10.6062,-4.7273,15.3444,6.1027,20.8171,-2.9683,6.8583,
-2.2611,1.8314,14.3168,-21.6295,-3.1163,2.0295,-15.9642,-6.5524,-7.8611,3.2527,5.248,17.1832,-2.3026,7.9113,
8.1256,12.9486,20.7799,-12.0332,1.4637,5.3247,-2.8023,-5.6712,-7.8775,-2.3115,8.3502,6.8772,5.1576,6.9486,
3.7321,5.3377,20.5091,-20.0982,-3.5052,5.9813,3.2229,-11.189,-5.4528,0.75526,8.8252,-7.6355,7.7772,-7.5683,
-10.5918,-9.0826,10.492,-29.6309,-1.3423,7.5749,-0.87597,-2.7071,-3.1731,-1.2426,20.9877,-8.697,9.263,-14.4919,
-13.4285,-5.1762,7.9104,-21.0195,1.6672,14.9305,3.0816,11.1225,-1.0297,-4.097,33.8285,3.5399,16.5173,0.47759,
-14.5753,-2.9132,5.4833,-15.8528,4.4957,17.9401,3.8732,3.6216,-2.9205,-7.7558,28.4374,2.351,16.5028,0.99258,
-13.2128,3.6072,3.6898,-19.2952,10.5715,16.3753,1.2003,-0.98924,-3.2337,-1.9209,22.3376,0.74546,16.9771,-4.4365,
-17.3011,4.3673,2.4928,-23.0185,-3.7304,7.5831,-8.6343,0.046607,-5.9682,2.0999,17.0928,-0.27483,3.2669,-6.1219,
-14.7985,-1.2639,10.6413,-11.3868,-7.8996,9.5682,0.18183,8.3419,-1.2171,8.319,12.6502,7.0628,-7.1802,-10.1486,
-15.3756,-8.5105,4.6324,-12.1681,-4.9851,11.4347,-0.31756,-4.3622,-3.5846,2.4503,10.4262,6.1505,-7.2378,-20.7672,
-16.4055,3.7152,3.3784,-17.2956,-0.78095,4.8915,-8.1086,-10.9336,-3.3695,-0.62573,18.5872,-6.9096,4.9125,-17.5682,
-10.0517,10.8148,17.2757,-9.9118,0.73041,-0.77154,-12.0146,3.8224,-5.6079,0.87632,24.7945,-8.9356,9.0103,-9.1916,
1.7785,7.7249,24.5929,-6.877,-2.7304,13.3747,-10.8067,17.6931,-4.7834,5.2168,26.7229,5.7006,7.0056,-0.34294,
6.5538,11.1665,21.1653,-4.5114,-6.4716,26.6723,-11.1334,18.6953,-4.4964,0.022718,20.2385,19.4585,4.6332,9.4407,
12.5057,16.8425,25.2654,6.9863,-1.6903,32.9933,-4.1203,30.7536,-4.7146,-3.3957,15.6072,4.191,8.7483,11.3152,
14.1963,12.4149,21.3084,1.1976,0.85211,27.5967,-1.4321,43.0084,-6.8727,-3.6799,19.0638,-9.6724,5.7824,-1.5668,
10.9031,11.1816,13.6844,-12.9742,3.2415,31.3104,0.11743,39.9946,-5.9719,-6.8766,22.3135,-5.6755,6.9,-5.8663,
-1.9542,10.9987,10.4223,-23.479,6.464,35.7778,2.5514,23.4949,-6.1016,-17.6911,11.7005,0.035006,11.855,-4.0503,
-9.1586,5.9457,14.19,-21.5818,3.6352,28.2621,5.8153,14.708,-1.3424,-16.1407,7.581,1.4969,12.6087,-1.3663,
-5.192,5.101,12.8515,-15.8933,-0.97595,28.0304,1.0734,14.3145,2.1551,-1.0723,21.2262,4.8251,8.4352,-0.79628,
-4.3925,1.3783,3.7819,-21.2858,-2.3819,16.0979,-9.2416,9.0621,-3.3437,6.3698,20.4967,0.14206,2.5595,-11.9751,
-8.0344,-3.5864,9.4121,-16.104,-1.263,1.464,-5.7591,9.4944,-2.1671,2.0825,5.1669,-0.84342,-4.4281,-12.2336,
-15.8505,1.9984,16.1689,-1.0378,-0.6987,9.6747,-4.925,15.2703,-4.4776,8.3032,-5.9378,3.6007,-9.532,-5.154,
-14.8994,7.7365,15.1988,-3.8484,-3.5858,21.7853,-9.5106,12.4011,-16.901,8.781,-2.653,0.45565,-18.7231,-12.6548,
0.094541,10.6893,20.6329,-5.0816,-3.8587,20.9672,-2.5939,20.9321,-9.5409,2.8851,-0.052834,-2.0118,-17.1108,-13.3596,
14.1889,2.2379,27.205,-5.7532,-1.6742,14.8271,0.48978,27.4862,1.7706,0.75897,8.7369,-2.868,-13.156,-11.582,
12.9617,0.15063,29.4777,-6.384,-2.5507,16.8665,-3.4446,34.6231,-0.28766,2.6664,17.9748,-0.74294,-13.3427,-11.8631,
26.284,14.2416,37.9597,8.099,-2.8852,22.2001,1.1555,46.6458,-3.6879,2.018,26.1709,-0.21082,-4.2436,-2.8527,
38.807,26.1343,45.4456,18.4078,-6.6176,26.7256,4.0157,57.947,-10.3002,-7.8657,18.7431,-3.1267,-0.083475,5.129,
32.6853,20.1737,50.0405,21.6968,-0.85097,39.2221,7.1913,56.5349,-2.3597,0.90478,19.083,11.1609,5.2911,18.9212,
16.6241,13.1052,38.2519,10.632,1.1531,28.1383,0.90181,57.0478,-2.219,-2.0785,19.891,15.4289,1.0676,14.9126,
1.5267,9.8784,27.6583,2.672,7.4295,16.1994,-0.6168,43.3734,-8.4314,-10.2524,17.233,0.40313,-3.3899,-0.082186,
-0.14114,3.4281,26.9753,2.5122,5.0312,23.0371,0.3967,27.1034,-2.068,-1.8267,16.1986,-13.7211,-1.2331,-14.1773,
-7.9427,1.2699,23.4042,0.40891,-9.3707,21.6553,0.37336,22.5487,7.8196,1.2115,19.1322,-4.7114,-5.0646,-14.9024,
-11.3712,6.0748,19.071,-5.4732,-12.2811,8.6409,-7.4591,19.2437,6.3735,-3.7423,19.9372,-0.52372,-11.5938,-12.0562,
3.4111,7.6628,23.7843,-2.2162,-2.7577,18.861,-2.131,28.8277,-0.84252,3.3158,20.6926,-0.49184,-0.15959,-2.5463,
17.3064,5.739,24.7982,8.1673,-6.9862,31.8294,7.2719,41.198,-7.138,6.5339,16.034,2.9538,13.0291,2.9756,
30.368,16.6213,23.7979,14.9993,-9.9836,38.2743,3.4191,48.0568,-12.0793,-0.2037,9.7034,14.0041,4.9258,14.0246,
30.6658,21.9701,30.669,16.5404,-8.8966,24.7507,-8.9901,34.9223,-23.5576,-1.6555,-4.0589,21.4619,-9.4698,16.6002,
24.4328,20.1638,41.032,14.0835,-2.9928,25.7057,-8.9387,34.291,-28.4902,4.7889,-5.2794,18.7102,-4.5646,6.3291,
21.5023,18.4655,35.1526,18.6075,-1.3496,35.3909,4.7772,46.3336,-15.5532,4.014,7.24,9.289,1.0788,-2.3492,
11.4256,12.4761,25.2338,23.3491,2.6369,24.4809,10.3481,35.7996,-5.8335,-4.0373,10.7111,0.92207,1.0145,-10.0178,
7.3226,7.334,29.0884,17.5546,7.8482,10.8085,4.3577,19.5516,-8.9009,-12.0937,21.2951,4.2833,10.2273,-7.9523,
12.7408,0.060382,25.3906,6.7388,-1.4093,5.2785,-1.7613,8.5603,-10.3194,-14.2966,31.7329,-1.8312,4.7321,-5.5226,
8.0723,-1.8953,12.153,7.3109,-4.2537,-4.8004,2.2494,9.9987,-3.8422,-5.6287,34.71,-4.6504,-8.2429,-3.2392,
-4.1281,-5.6866,10.4468,5.8958,-3.0225,-18.6124,0.16144,1.5887,-4.5886,2.5191,32.6274,-2.4193,-9.7004,-14.76,
-14.1306,-4.8574,6.403,7.9826,-3.3291,-31.2198,-1.3123,-8.7576,-11.6354,1.8799,25.3007,-5.6912,-8.6304,-25.1015,
-17.6762,4.7082,-6.1843,12.8732,2.2406,-38.6207,2.1835,-21.4113,-12.4013,2.2551,18.4126,-2.9087,-8.6006,-21.1544,
-16.1272,-2.8959,-9.2298,6.7317,5.5227,-50.4035,-3.3171,-34.2267,-23.8599,-0.3207,5.1052,-1.2697,-9.549,-25.2546,
-1.0596,-6.1392,3.5271,18.5309,17.3945,-52.804,1.275,-46.2731,-28.7748,3.1156,7.239,1.2475,-2.6301,-21.2984,
13.104,-2.3538,1.8505,28.6461,14.8868,-55.0057,-1.2416,-57.5967,-32.4178,-0.48839,9.2456,-6.1494,-6.8662,-20.5085,
26.4178,11.8874,7.598,40.5955,23.7562,-54.6339,12.5006,-68.2409,-16.3728,1.4934,16.5014,5.9351,-0.59577,-7.5624,
38.9327,17.5749,7.1412,39.1353,28.1879,-64.048,19.5606,-78.2464,-5.0837,-6.4062,6.7243,8.5071,2.3681,-11.0146,
38.7723,11.6393,1.8316,35.8107,23.5676,-72.8962,18.387,-87.6516,-13.5648,-10.9039,9.2499,-6.1033,4.178,-24.4537,
22.3459,7.0364,-9.0169,26.8285,9.4629,-82.6224,10.4502,-96.4925,-17.6324,-12.2012,22.7949,-19.8371,-3.8823,-37.0865,
6.9052,10.5193,-9.4519,28.1478,13.7771,-73.3272,11.7752,-104.803,-2.4745,0.24596,35.5272,-7.0431,6.1137,-31.0671,
-7.6091,-4.2119,-17.6713,25.4824,20.7601,-66.9755,10.0922,-112.6148,10.9097,1.2077,34.4838,-5.6445,8.6754,-30.1796,
-5.367,-7.9199,-28.8142,23.4655,11.2164,-67.3501,9.9747,-107.825,-0.97196,3.5753,25.0927,-7.7459,-5.0242,-37.6438,
2.2766,-5.0041,-36.3599,17.6645,-3.5566,-71.6071,4.9836,-112.5821,-5.3072,4.8253,22.1226,-4.8406,-15.9503,-46.6118,
6.0455,-6.6564,-20.0783,25.3912,8.3158,-60.4767,10.5421,-114.6133,6.7268,13.3223,24.7008,-1.6216,-2.3017,-47.7206,
1.7773,-3.3285,-16.3774,27.7723,15.6274,-48.062,19.6722,-108.7135,12.1808,23.2616,26.1473,-4.4533,7.599,-51.691,
-4.6749,-1.6643,-29.4948,19.7604,0.58975,-48.5953,12.1463,-96.8206,9.9854,13.5683,16.2799,-7.6027,-6.957,-48.101,
9.7056,5.7577,-28.2688,26.8733,-2.9183,-31.5796,1.1665,-76.9114,-0.86383,2.5031,17.7441,3.1041,-10.9882,-31.115,
23.2233,10.2937,-33.4062,30.142,-6.6487,-15.5848,-0.85604,-58.1967,-14.912,-11.7471,11.7979,5.8464,-6.4244,-15.1481,
35.9299,16.0221,-26.0328,29.7984,-5.7618,-14.538,7.4934,-40.6049,-28.1173,-15.9789,-0.13705,0.12654,0.30713,-12.1754,
47.8741,18.4774,-11.2912,27.522,-1.9995,-15.1302,11.4373,-27.2626,-40.5302,-22.3427,-3.5454,-10.1317,2.7292,-13.8854,
42.2966,3.2687,-24.7137,15.6201,-9.2011,-15.6859,3.4295,-39.7269,-42.1713,-30.2767,3.9889,-19.7744,-7.6851,-13.5398,
25.6588,-0.40053,-37.3309,14.194,-7.1846,-6.4472,-0.19377,-38.8639,-25.541,-14.3601,17.8496,-4.4879,-0.87845,-2.4778,
10.0192,-4.2815,-43.9893,13.3428,-6.7535,-5.0843,-11.8973,-34.5791,-9.9086,0.60148,30.8786,9.8814,6.9843,3.5289,
-1.4332,-4.5131,-46.7195,14.9827,-7.8128,-4.2908,-12.6479,-27.1352,4.786,6.5347,31.0902,23.3885,-1.7333,4.7817,
1.0938,1.1277,-46.3573,19.4529,-7.832,0.35972,-7.496,-16.2321,18.5988,3.7016,32.6418,24.1046,-11.8803,5.9588,
-1.4133,-2.3575,-40.1584,19.7502,-4.9216,-5.0314,-8.5107,-20.6282,17.7059,8.849,32.1478,12.4077,-14.5841,-4.6493,
3.553,-1.2395,-34.8204,15.6366,-2.6738,-3.753,-4.0946,-28.1766,2.5435,6.3656,28.2664,-1.0283,-10.7805,-18.4703,
12.6149,-2.6292,-35.1712,10.3054,-7.8824,7.6992,-6.2899,-19.1639,-8.4038,-1.3384,18.2723,-10.2407,-14.5267,-28.1568,
22.5966,1.4331,-31.1094,13.5916,-8.386,18.9519,-6.889,-3.9141,-6.924,3.6234,13.2705,1.1123,-13.6546,-17.6818,
22.7058,8.6701,-33.6349,15.2176,-10.3229,16.3508,-5.0107,1.2584,-10.9007,2.918,12.9623,13.2496,-12.3474,-18.084,
26.224,13.0305,-32.5942,15.2801,-8.7279,14.3932,-2.7575,8.9925,-10.2471,-0.18655,15.1131,8.5482,-9.654,-21.8814,
29.0441,11.7602,-32.1022,22.6623,-7.7158,20.8522,0.82447,22.5529,-8.1678,1.2901,13.7187,2.6667,-12.4913,-9.341,
22.9079,6.662,-37.4985,24.7191,-12.6224,20.0886,-2.6416,34.435,-7.1902,-0.25183,12.4071,2.9943,-19.0644,-0.48197,
15.6764,9.1913,-34.2717,17.3789,-11.865,15.9552,-10.2931,23.5828,-6.7578,-4.1418,21.4258,10.6256,-7.1814,-0.45305,
6.9257,-2.0993,-42.9545,5.5971,-13.1061,7.1869,-23.7755,11.4288,-19.0444,-14.6323,27.9503,9.0111,0.083512,-6.2839,
3.5807,-6.8548,-40.3777,2.3318,-7.4382,4.8031,-14.1066,4.8855,-20.8303,-16.6829,34.0829,8.4709,2.031,-3.9543,
1.9018,-1.0745,-24.7749,10.49,-7.4799,1.0979,-1.0571,-4.6827,-14.2114,-10.3129,26.6688,8.4507,9.2312,-2.253,
-5.0463,-1.01,-24.2654,17.6716,-0.19709,-6.778,-1.9697,-10.2588,-7.5007,1.045,18.2347,14.7777,16.4874,2.7641,
-18.8435,-7.2945,-29.1546,8.3123,7.1359,-8.8114,-1.3635,-11.1073,-2.6576,6.3513,20.5576,11.45,3.2941,-5.7007,
-21.6741,-8.8098,-25.4532,0.0034492,2.8027,-4.3777,0.6704,-6.5358,2.3829,4.9942,24.2052,5.881,-10.5707,-18.0498,
-15.9796,-4.8642,-26.3661,9.2783,6.0525,-3.627,-8.6439,-6.6317,5.657,2.2536,18.3598,4.0641,-7.4954,-14.5258,
-9.6513,-1.1549,-21.3676,22.8216,13.0109,-2.9209,-11.5419,-4.7693,5.806,6.5119,6.0316,5.2848,-11.4392,-16.0948,
-1.2622,4.7715,-18.1335,23.46,-1.4378,-7.6276,-6.9452,-0.57904,-1.3764,7.0972,-1.1643,6.9197,-24.8529,-20.9871,
12.9136,15.2238,-18.021,27.9109,-0.37507,-10.0985,2.259,1.4092,0.65871,6.6718,3.7871,14.3151,-18.0483,-6.0603,
25.3744,15.2874,-15.9637,34.0463,4.5285,-8.5166,0.17044,-1.6044,1.5952,-1.5385,6.4889,15.4092,-10.1313,5.0424,
37.5191,17.2982,-9.1479,43.7186,-3.5533,-2.1476,6.0173,12.5919,-2.4055,-0.47021,8.0516,14.4846,-12.4525,6.6928,
46.4955,16.7488,-6.1585,41.584,-1.8756,-6.4122,9.0738,25.5601,-5.6778,-1.9065,5.1279,9.222,-14.1458,-3.9593,
34.9183,16.7204,-3.8365,33.2304,11.9046,-4.075,3.6478,15.2399,5.4015,0.16041,17.5109,9.6452,-10.3685,-14.4613,
18.7232,10.3471,-8.9754,21.9625,-1.9888,0.56256,-1.9401,0.22551,7.5184,4.5438,29.6404,10.5305,-13.1625,-18.9627,
11.6876,7.7742,-18.1999,21.6208,-15.9695,1.5058,-5.7288,-2.7722,10.9724,3.2952,34.696,12.8277,-10.4207,-3.7249,
15.8674,3.4028,-18.0839,22.2756,-14.5794,-1.5136,0.47205,-1.6308,11.29,-3.7366,28.7092,13.0341,-6.8665,3.8758,
23.2134,5.6396,-5.7718,18.499,-2.4776,-4.8398,7.7658,-4.949,-0.61446,-2.0474,21.6176,15.669,-5.9665,-8.5599,
22.3082,9.6938,-1.0329,11.0435,0.11161,-6.0139,6.8114,-4.1645,-8.8761,1.492,12.022,14.2404,-3.1679,-21.2259,
6.8697,2.7661,-10.246,8.9159,-0.3831,-2.2361,9.8197,-1.4737,-1.9975,-4.9436,2.0256,6.0639,-3.4659,-32.1555,
-7.6425,-5.2099,-9.6303,16.191,6.4739,2.7792,18.9936,1.5438,6.9084,-3.6709,4.8331,2.772,-6.1869,-36.0842,
-10.2242,-11.2424,-7.5884,15.7085,4.6215,6.0294,15.413,-0.98985,3.0778,-8.8197,8.9361,2.1177,-14.1138,-30.5021,
-3.2648,-7.1508,-12.5022,18.1821,1.9032,17.8708,6.1901,9.3206,2.4042,-12.6836,9.8649,6.3837,-14.7319,-14.572,
6.2062,2.5523,-16.1451,18.5561,-1.628,22.1686,-3.4554,22.8614,-3.1091,-4.6005,4.88,6.4887,-16.2881,-11.2005,
14.1314,10.6977,-6.8788,18.9073,-1.0419,17.4209,0.16846,31.7964,0.49398,1.045,10.9328,5.6109,-12.8703,-10.041,
14.26,4.1983,-16.2286,15.8203,-11.718,10.5191,-5.6992,22.0781,-3.4402,-13.1177,11.2533,5.2747,-13.0736,-3.58,
19.7495,-3.3756,-26.482,10.478,-17.3609,13.304,-18.5364,15.3843,-11.5319,-16.2913,2.2791,14.2323,-17.6592,5.9089,
7.8259,-6.1016,-20.9876,2.0388,-21.2008,7.6243,-21.3297,10.5558,-9.8644,-11.4092,-4.6912,13.3788,-29.2913,3.6018,
-6.7436,-3.7835,-26.5624,3.8686,-18.9527,7.1668,-14.1928,16.7564,0.4905,-11.7007,7.3053,12.5752,-31.4388,3.3857,
2.3919,-1.1155,-36.1957,10.9594,-10.4935,18.9408,-13.8283,26.9782,-4.908,-6.6056,9.308,17.1907,-26.1355,10.5046,
12.011,-7.8821,-28.1664,8.3493,-18.6505,12.9229,-21.7852,21.4549,-18.7135,-18.9009,-5.3505,5.4206,-38.6673,4.0168,
23.4935,-0.088087,-15.2494,15.1695,-24.8535,4.8245,-12.1809,28.4648,-31.6907,-26.0649,-19.1294,12.4165,-50.4473,11.0969,
29.8939,-1.0588,-21.1684,13.2833,-29.2194,-6.2031,-11.4492,25.7808,-43.8893,-30.359,-32.0817,10.6955,-42.1631,12.3841,
37.8629,1.9332,-17.9458,9.5578,-20.6326,3.9317,-12.7147,22.2815,-40.4473,-25.608,-25.4431,-2.6369,-29.8707,4.8075,
29.7335,4.7467,-12.9636,10.9368,-11.5841,8.5773,-10.9754,24.8501,-40.949,-16.2619,-26.845,-3.4552,-31.007,-8.1726,
13.8495,-1.8846,-20.4843,7.8401,-12.3536,5.6221,-10.8053,23.8466,-33.1234,-8.9406,-23.7708,7.9788,-24.7531,-10.1228,
