"AF3","AF4","F3","F4","F7","F8","FC5","FC6","O1","O2","P7","P8","T7","T8",
8.6771,4.3383,-36.6361,-19.2819,35.6718,-96.8923,23.1383,-4.3383,-9.641,-24.1026,27.959,32.2974,5.7846,-24.1026,
11.0483,2.1501,-28.1712,-21.9816,19.4315,-105.1788,7.65,-2.1501,-7.6165,-18.7999,26.7632,27.4672,7.3655,-22.6563,
4.842,-0.14834,-36.3627,-25.7242,4.1656,-99.4704,-2.0883,-4.6719,4.6509,-17.4307,33.5938,37.6295,0.89822,-23.9482,
15.3978,6.3685,-23.817,-10.9243,8.4954,-92.2972,-5.0965,4.0441,-4.5463,-11.8056,27.4808,35.6127,12.6545,-19.3778,
8.2072,0.20158,-19.4957,-13.1612,6.0573,-87.7237,-2.3803,1.873,-5.7195,-10.6155,26.3136,34.922,12.3774,-18.6978,
-1.2029,-0.051478,-27.726,-19.3609,-5.1524,-77.8805,5.7167,-1.8543,5.4699,-6.8446,31.2428,46.9267,0.30652,-16.3702,
12.6076,6.4595,-11.9624,-7.3535,-7.4944,-80.6795,1.7578,11.0309,-2.812,1.0374,25.2708,37.7243,14.0264,-6.9523,
2.9331,-0.9179,-18.1138,-15.3479,-3.9117,-65.4748,-4.3732,0.0051945,1.4541,-9.8711,22.0674,26.0604,3.7849,-17.3814,
16.0135,10.9473,-9.5552,-4.5451,-0.5435,-57.9309,-5.798,7.9586,-1.7667,0.60354,22.4301,30.5228,12.9578,-8.3848,
11.9197,7.6394,-1.992,-5.4777,-2.68,-63.3729,-9.0651,10.6146,-12.5069,5.1466,13.6129,35.1989,13.3856,-7.1583,
-0.60611,3.0832,-14.6469,-13.1028,-1.7963,-54.5091,-2.0137,2.9878,-5.731,-5.526,14.4829,35.2561,-1.5175,-16.1288,
13.5303,11.8165,-2.9221,0.45761,-3.8575,-53.8899,0.27603,12.6907,-5.6278,0.83083,19.1578,19.0408,12.6735,-7.2076,
2.4746,1.7071,-13.593,-8.006,-2.9031,-44.149,-0.46343,3.0108,1.2173,1.5039,17.285,22.839,3.9591,-9.4267,
1.3623,2.0866,-11.8136,-8.0076,-0.80076,-38.6078,-6.2207,6.2046,-9.943,3.8242,4.6787,35.4484,-1.0991,-5.9686,
8.0292,5.3361,-2.9094,-3.1886,-5.0913,-42.0756,-7.7754,12.099,-11.7567,7.9333,6.3264,31.8755,12.9463,-1.2719,
-3.7803,-1.0097,-16.8348,-14.325,-16.1135,-49.433,-10.4419,0.5273,3.0487,2.3957,18.2393,26.3476,5.1801,-11.0775,
4.641,1.9432,-1.7247,-6.7168,-20.9315,-60.5671,-22.3486,11.5827,0.094169,8.5187,12.8064,15.6079,14.5105,-1.2536,
0.98832,-0.10134,-7.6468,-6.314,-10.0349,-42.833,-10.8846,8.4778,0.57068,7.5254,9.6277,27.2047,9.3013,2.1958,
4.7852,4.7252,-11.0446,-5.453,-14.7352,-26.163,-1.0727,7.0046,0.054278,7.556,7.1216,34.7312,7.2968,-0.82821,
5.4622,1.067,0.70508,-5.1261,-27.9511,-38.2113,-10.1676,9.959,-0.91308,8.0668,8.1403,19.1502,11.6795,-4.6351,
-4.2656,-1.6481,-10.6654,-8.4339,-23.0201,-22.6623,-2.5677,0.92531,12.3981,0.59287,18.9806,20.6523,-0.83144,-10.8645,
10.0904,10.02,1.5441,6.0519,-9.5878,-13.5895,0.4789,10.5108,-2.4458,6.3419,10.129,22.7876,9.8237,0.87459,
10.3288,11.3467,2.4151,7.6167,-8.0484,-8.918,-1.4783,12.2905,-9.8913,7.8898,4.2184,24.3126,9.716,3.7139,
10.6729,12.5946,-0.62185,6.1958,-13.832,-5.9726,0.0567,11.553,-0.13882,5.9701,10.2322,18.0332,5.2771,-0.84721,
14.1301,8.7052,6.8875,5.101,-15.6534,-13.5679,-2.1161,12.5473,-4.2281,7.7813,6.0026,8.0333,12.4321,1.373,
4.3643,6.978,-5.8183,-1.713,-6.7605,-10.1028,-2.2301,5.7685,-0.8409,6.1092,2.9909,21.6513,7.1064,3.9417,
7.2361,4.8724,-3.2998,-0.40473,-18.6469,-23.5966,-16.1963,10.0023,-1.5136,6.4657,1.6069,15.4115,9.8137,0.090032,
-5.7315,-9.3997,-10.8146,-9.5395,-23.3129,-25.6755,-13.8987,-0.23923,11.1107,2.7033,12.5977,12.5586,-0.89798,-10.5202,
-9.7264,-6.4256,-15.9507,-11.8596,-14.2014,-10.035,-6.7983,-6.0095,3.6952,0.13101,5.5749,21.928,-10.0036,-9.8895,
4.9572,6.011,-0.89369,1.8674,-10.4568,2.4977,-8.3186,8.4511,-5.6856,9.2822,3.3122,21.5762,4.6966,4.6837,
-6.7887,-6.1598,-14.9401,-10.5367,-17.3012,4.9994,-7.0961,-0.61234,7.9124,-0.67475,9.6214,25.3433,-4.1411,-4.9974,
2.7772,0.47632,-6.5719,-2.6742,-17.7096,-1.5675,-8.1171,8.101,-0.7575,3.7041,0.84893,24.7866,3.3377,1.569,
7.9134,4.3044,3.946,1.8248,-13.2723,1.419,-5.2192,11.954,-7.4607,5.8922,-0.64804,19.4432,13.2606,8.2235,
-0.99728,0.91284,-9.0654,-4.7924,-19.4659,12.1799,-3.701,2.8004,0.45849,2.4054,6.8624,24.7843,3.0652,0.74048,
-1.4194,-4.9265,-7.5574,-7.3969,-32.3979,-2.6509,-17.579,3.5967,1.8772,4.6712,3.0767,14.6202,5.7733,-2.6784,
-10.9754,-5.595,-15.7808,-13.2198,-22.1386,-3.8171,-11.583,0.0066646,15.8646,1.9806,9.1588,14.7075,-3.7319,-3.9637,
2.9395,6.5508,-3.5058,-0.61649,-15.2667,2.4372,-6.3087,9.4063,0.81273,4.0309,-1.755,12.6198,3.9639,4.2278,
9.994,4.7115,4.4174,5.687,-14.3507,12.4141,0.33629,12.2159,-13.336,7.6454,-6.4704,22.9498,10.4745,4.9385,
-1.4517,-0.63218,-9.9477,-3.572,-15.1769,16.7309,5.378,0.6369,-0.846,2.1252,0.90789,30.0087,-4.254,-6.2038,
8.7581,8.0822,4.7492,6.2835,-15.7125,2.2295,-6.5143,10.7218,-6.58,5.8543,-2.5213,15.1926,7.4502,6.2192,
4.8586,5.6695,0.36687,2.532,-7.5387,11.7369,-5.1589,8.1503,-8.5954,4.0568,-1.4057,16.2097,6.0393,7.2924,
10.3517,5.8113,0.34486,4.3083,-7.5685,11.0327,-0.51101,11.9996,-7.5977,5.7416,-1.8033,14.7547,6.6408,4.9266,
5.151,-0.081255,4.4213,1.8804,-13.6224,1.9346,-1.6859,9.5926,-3.0443,4.674,-6.275,10.2538,9.8575,2.9436,
-8.6558,-5.379,-9.944,-8.8377,-14.2513,4.2287,-3.9949,-5.0829,2.923,-1.391,-5.4166,12.0487,-4.8339,-7.8379,
5.9635,4.8256,3.0657,3.9851,-14.1191,-1.0865,-6.8886,6.1886,-7.1343,7.6105,-4.3682,2.4081,4.0125,-3.2703,
6.6907,1.644,-0.97467,0.8539,-8.4512,9.102,0.27358,4.8534,-2.368,3.7794,-3.1418,7.0844,-0.084636,-3.074,
6.5303,7.089,0.28887,1.0436,-2.8827,10.7251,0.98006,6.2494,-1.0206,2.3474,-6.0868,10.2747,0.6438,5.5465,
9.9948,6.1817,8.9484,2.4273,-5.6023,4.2968,-6.3094,6.3564,-4.8157,2.2065,-7.6498,1.945,8.3179,7.1419,
2.1645,1.9542,-5.6885,-3.0212,-7.6763,16.0905,0.33573,0.19019,2.7038,-1.3001,-2.3703,11.9514,-2.7862,-4.856,
10.2294,6.6577,5.8605,3.9089,-20.713,1.0251,2.2438,9.3378,-4.6893,5.5268,-6.5664,8.8242,5.5757,-0.70823,
4.072,1.6785,4.3041,-0.90488,-18.7471,5.1814,4.7607,1.3057,-1.2744,2.5436,-5.4495,6.6075,1.6257,0.53956,
6.9609,8.0855,3.8046,3.7285,-3.5223,18.9705,7.1264,4.8426,-0.95721,-0.2603,-2.4712,16.5752,-0.15882,1.7123,
6.5435,8.0825,5.9867,4.4689,-7.0471,31.9323,0.91399,8.8906,-0.89955,2.1657,-2.8051,17.5086,2.2606,-1.7652,
-5.9004,-0.11498,-8.4725,-6.4043,-16.7472,34.3549,-5.4071,-5.14,5.9031,-4.7129,-5.0467,13.5663,-11.975,-13.2282,
8.5536,9.2917,2.5204,8.0799,-5.8602,39.2833,-7.2521,9.2684,-8.5511,1.5956,-15.5904,0.94195,1.6386,1.6655,
5.7503,6.806,1.8868,5.3055,-0.20638,44.1569,0.41341,8.8323,-13.4612,1.9818,-8.3885,6.1876,1.0579,7.4706,
-2.0661,1.8183,-8.1079,-1.5203,-14.294,31.1436,-3.2264,-1.0971,1.4465,-3.1988,3.9254,12.3243,-7.9232,-1.8957,
10.3502,5.8064,6.4786,7.9707,-13.3154,25.6596,-3.7559,7.4046,0.27538,1.0907,2.4848,3.1489,6.6522,3.7619,
-1.1173,3.771,-7.0463,-1.4254,-6.009,38.22,10.5695,0.4526,-9.1414,-5.4824,-8.9927,8.9858,-4.9548,1.3668,
4.0114,7.1602,-1.5618,3.2394,-13.1203,37.7345,8.8505,5.9691,-19.4387,-1.5381,-16.8888,13.5083,-5.3804,5.8645,
4.0119,2.1506,2.1471,7.1426,-4.8613,40.0499,-0.11646,7.2979,-6.9444,1.6875,-4.5475,16.313,0.48576,7.1997,
2.084,3.2268,-4.4892,6.4731,6.2765,48.0108,3.9879,5.1728,2.3903,1.8272,2.2333,24.7342,-3.1583,6.0448,
2.9233,0.62309,2.0467,2.2283,-8.2001,31.0302,-4.928,5.8268,-11.8531,2.6819,-10.4342,14.0911,-2.4869,5.1997,
-1.8317,1.3088,-5.0658,-1.0386,-6.8643,43.2684,3.3216,2.8258,2.7169,3.2441,2.4842,21.1996,-8.8454,5.6109,
3.5807,8.4609,-3.7977,7.7006,-3.0782,44.7696,3.604,3.6204,-2.749,-0.32522,-2.0034,14.6248,-3.0123,6.2383,
-3.3829,4.0971,-1.6419,6.2744,-6.2677,29.0682,0.97743,-1.4173,-0.65563,0.65839,-7.6676,10.8555,-0.42117,3.4541,
-12.5799,-5.0668,-12.8716,-3.502,-13.8456,24.6731,-5.1068,-6.8759,8.7837,-0.58595,-2.6282,10.4451,-13.6523,-2.7791,
2.2749,-0.18327,-0.28917,5.6259,-17.1125,18.6129,-6.0054,5.3466,-1.1435,1.1362,0.6627,-4.2816,-0.058927,2.4491,
-0.63363,1.7559,-6.0562,1.9139,-6.4445,25.2092,7.8523,-0.75836,5.674,-1.3421,5.9256,-4.6276,-1.9836,-2.0362,
4.4661,4.7841,0.81514,5.4145,-5.3347,11.8862,-0.090684,1.9382,-5.0303,0.90759,-4.7938,-12.7856,0.78698,0.25512,
6.3673,-1.0466,7.2735,8.705,-3.8096,5.6295,3.0482,5.9193,-17.503,-2.7623,-12.9423,-17.0801,6.2829,3.8552,
-0.76367,-0.98381,-5.6962,4.8083,-3.0991,19.3917,16.3627,-0.70237,-16.9347,-12.7194,-14.5759,-5.45,-4.217,-3.6069,
7.9595,4.3776,7.1788,10.3046,-14.9642,10.3949,4.2939,5.6065,-23.6316,-2.3155,-19.4862,-9.4616,5.6773,2.3943,
-5.2928,-8.1773,-1.6878,-2.124,-10.9333,15.7968,5.2414,-6.0583,-8.1137,0.47472,-7.9529,3.8803,-5.5099,-1.365,
0.08647,-3.1074,-4.2376,-1.7556,-4.2516,14.1256,5.1679,-5.4538,1.4116,0.20527,-2.414,13.0475,-6.8665,-4.8985,
7.5533,0.69471,2.0422,5.3394,-14.8425,2.4323,-3.0962,2.8274,-11.4475,0.43415,-5.8844,0.45476,1.4995,-1.9528,
-1.095,-0.3113,-7.7213,2.6089,-17.8083,13.3733,4.3204,0.24759,0.32633,0.89003,-3.6031,10.0684,-6.7852,1.5383,
0.89908,-1.7387,-3.4016,1.4882,-17.7039,1.9659,-4.1337,1.6788,-1.6212,3.247,-6.7616,9.946,-3.0039,4.3383,
-1.3245,0.53483,-4.8848,1.6399,-3.8675,14.1404,-0.27029,-1.0735,7.3941,2.3288,5.4542,7.1801,-3.0646,2.3908,
0.20147,2.9131,-4.5917,5.3981,-6.0456,18.5944,0.71002,-1.4908,-2.2088,-0.70321,-1.1393,-2.4095,-1.9166,-2.5731,
0.43035,-1.8414,0.74527,3.869,-15.565,6.6325,-2.4661,3.1779,-6.1736,0.54427,-4.2045,-0.095762,3.26,-1.6958,
-5.1391,-0.043726,-12.0737,-2.3887,-13.426,15.6346,0.33345,-1.592,8.2968,-0.69368,8.3403,13.1664,-7.7818,1.0575,
4.81,5.7437,1.6659,5.9495,-13.1024,11.8042,-9.8097,3.324,-6.301,-1.6162,-6.2601,-1.7236,-0.084305,6.2964,
-0.29862,1.0605,3.0122,3.6641,1.1813,25.1959,3.3122,0.23225,-14.3586,-4.8934,-15.4052,-5.8383,-3.9354,-1.312,
-2.9323,0.27354,-4.6403,-2.0993,-0.095072,31.0355,10.5852,-2.4332,0.24122,-5.3232,-6.0452,7.7684,-13.0993,-6.2949,
1.8234,-1.4296,5.0381,1.6421,-13.3455,15.0734,-0.41375,2.7744,2.8778,2.9504,-0.13843,-4.0259,0.94306,1.5546,
-7.686,-6.8875,-9.3642,-3.5177,-7.0012,17.1822,5.6366,-5.3458,7.2849,-0.36008,3.9672,4.6518,-6.5853,-4.0819,
2.6571,-1.8949,-1.9332,2.7189,-7.7864,7.7151,1.2011,-0.44574,-3.9984,1.8307,-3.7426,7.5057,-2.5748,-3.5964,
-1.8409,-4.6735,6.3778,0.14543,-17.9243,-6.8478,-10.9223,-2.347,5.4003,4.1312,-0.14383,-0.65716,-1.4562,-1.9342,
-5.1051,-3.429,-4.6102,-2.756,-23.1156,-13.0653,-14.1236,-4.1346,10.8611,0.99103,4.6853,-5.9206,-7.6356,-3.2646,
5.3248,2.0796,0.9693,3.6765,-16.426,1.8186,-10.3839,6.2366,-2.8058,0.44941,-0.41632,-7.0114,0.53556,0.78789,
-5.3588,-0.6965,-6.0787,-4.0161,-1.3404,15.8095,-1.325,-4.0197,1.9421,-5.1209,-2.0783,7.5093,-8.8968,-3.3565,
3.3982,6.8169,6.0963,4.1788,-0.89855,21.3684,-5.825,1.7648,-5.1646,0.24777,-7.0155,6.4561,-1.8553,1.9059,
-0.17993,-1.3052,0.42769,0.071481,-12.896,33.1019,-10.296,0.21292,-5.8188,-4.5876,-2.738,-7.9108,-8.4926,-4.9572,
5.1337,5.5223,-0.56161,5.852,-5.8552,45.2158,4.4218,5.503,8.0279,-3.3482,10.4419,-0.68702,-8.9472,-1.285,
4.1026,1.0934,6.9437,6.224,-19.6039,41.6593,0.90275,1.5572,-6.5537,-7.7269,-4.2846,-12.4562,-4.3128,-0.9672,
-2.4105,2.956,-1.6677,4.4043,-14.2098,53.2597,2.2948,-1.9107,7.9395,-1.9606,2.6005,2.3912,-8.8747,-0.42678,
0.86735,5.4299,0.11939,3.8989,-25.1676,64.1641,-11.9428,1.8196,8.427,-2.5661,12.3266,-0.04236,-7.6191,-4.4988,
2.0204,2.9347,8.0662,3.4242,-23.4166,74.4143,-10.6241,1.9512,-6.1786,-8.9198,-2.513,-6.5475,-4.0287,-0.13125,
3.1047,15.0509,1.0745,10.2084,-7.9116,84.0494,4.1134,1.5934,-6.1691,-2.3589,-15.2574,7.9453,-9.3304,9.2764,
0.9902,10.7734,-1.4005,5.7395,-21.5369,83.104,-10.2334,0.051493,-8.2096,0.19279,-14.8239,13.8561,-11.6631,4.3815,
0.20766,11.3326,0.85288,2.2619,-26.9934,84.6255,-15.404,3.1817,4.5753,0.90435,0.16555,10.3734,-8.312,5.3237,
5.2566,13.7859,2.0068,6.7057,-22.7224,75.9323,-6.5258,5.1601,-4.6171,-5.6576,-8.1598,-3.9876,-6.6082,2.8349,
3.736,5.4869,3.0917,5.098,-28.3487,57.2764,-7.3391,2.1994,2.1679,-1.7027,-6.4649,-7.8457,-5.4883,2.4238,
-2.2726,4.1936,-2.8782,-0.9922,-27.6119,51.7911,-10.2734,-3.7173,12.6429,-0.15455,8.023,6.7251,-10.4619,1.3143,
6.0587,7.3162,5.007,3.4054,-29.8116,41.935,-23.757,0.36233,-2.2157,-4.0014,-6.5584,-2.4758,-2.6031,0.75372,
5.4542,10.4926,1.0912,3.9245,-14.2843,53.5189,-8.2316,0.58155,2.6175,-0.62832,-4.4777,2.7344,-6.0623,1.9133,
3.4398,9.6221,-1.6254,2.4837,-16.0786,46.3311,1.9035,-0.17624,9.9318,0.61468,-1.5579,-2.0094,-8.3502,0.59369,
-0.38204,-1.8015,2.0876,-0.79881,-25.4782,29.4512,-12.3107,-0.88902,2.8284,0.33683,-4.1155,-4.5399,-4.2337,-1.1292,
-9.5182,-4.5854,-11.535,-7.9813,-20.5751,36.2406,-19.8875,-8.0665,11.8177,-0.64771,-3.3867,9.8325,-17.959,-4.9178,
3.5862,5.3304,3.2571,2.6203,-14.5201,38.8866,-4.5942,4.9507,-0.46073,2.7658,-10.8965,0.44495,-2.9019,7.4281,
-2.8957,-3.1843,-0.91545,-2.8394,-14.613,34.1431,1.3457,0.31559,13.5464,-4.1492,3.8573,-7.7767,-3.21,6.0184,
-8.2651,-10.9466,-13.1526,-11.5866,-27.8362,20.2843,-12.835,-11.5135,16.831,-7.0333,8.0851,-7.0687,-17.1174,-6.1529,
3.3175,-2.0955,1.7366,0.19537,-19.5378,19.5492,-9.2936,0.74604,1.7211,3.0296,-5.4154,-6.645,-3.6776,1.4471,
1.6725,4.297,-0.89869,1.1477,-4.2656,32.4763,5.3641,3.5936,0.77449,1.4018,-5.0907,4.8412,-2.0109,5.6989,
7.1155,0.90588,4.2167,-2.0544,-7.7453,16.4277,-2.0679,2.6553,-4.3334,-2.2979,-6.9542,-9.5493,1.7254,5.1157,
0.18086,-2.7637,2.2767,-2.1719,-19.0909,4.837,-16.0438,-0.15536,-3.8327,-1.4369,-2.4398,-15.6045,0.89876,2.6399,
-3.9273,1.9814,-3.8859,2.5377,-8.5457,16.3569,-10.6224,0.57686,-6.2538,2.2647,-7.3551,-0.56827,-4.2168,0.79378,
1.8521,0.17556,3.3373,1.1804,-2.9713,16.0986,-6.3694,2.7116,-10.94,3.8158,-9.5647,-4.511,-0.83057,3.3979,
2.2229,0.64696,-4.0937,-2.7468,5.8839,29.2327,6.5462,-3.2356,3.8164,0.69482,5.1092,-0.384,-8.0116,3.1936,
11.2484,4.9467,3.3825,6.0949,3.1207,18.6811,2.7788,5.1534,-7.1384,-1.7572,-4.9588,-7.592,-1.2641,1.556,
6.7171,4.168,7.0359,2.8367,11.6103,17.0783,5.0226,7.2544,-10.5665,1.7227,-15.2665,-2.7977,3.1505,0.98066,
1.2526,6.5692,-1.8221,-1.913,17.4214,26.4177,4.4801,0.79332,4.1675,2.3424,-3.5045,3.3955,-2.5824,3.0912,
5.0336,1.3541,3.1077,3.9865,2.2761,10.7327,-5.9118,0.26356,-6.5671,-0.6904,-3.7764,-10.9083,0.46485,3.8698,
2.3217,0.79116,-1.8993,2.7833,3.2241,19.8499,8.5429,0.24797,-1.3526,0.79705,-0.17561,2.8824,-5.8298,0.26296,
9.413,9.9025,7.374,5.0266,6.4049,19.1411,7.4276,10.3562,-14.769,2.1953,-10.2877,-0.66526,0.78674,3.6219,
3.0636,4.0057,7.4134,3.2788,0.23605,6.4235,1.1974,8.2886,-11.4728,-0.34658,-9.6705,-11.7126,4.5959,3.8865,
-2.9048,-1.5373,-4.1186,0.18952,-7.0087,3.6279,2.5718,0.56044,3.3156,2.5667,1.5146,-3.2966,-3.3926,1.7251,
7.3927,0.0014362,7.216,1.6246,-0.32146,-3.8204,-3.3668,3.901,-5.1985,4.8226,-9.1814,-8.4017,2.5958,1.1394,
3.3334,3.1346,-0.20708,-1.6066,13.7978,10.5089,10.9352,1.98,-0.78903,2.3643,-4.051,-0.90793,-2.1395,-0.61592,
3.3746,0.7776,-4.7737,-3.1972,23.4545,-0.36528,6.302,3.0662,-0.018562,1.9813,-2.6024,-8.325,-2.7343,-0.82017,
1.244,-8.4285,-1.1133,-6.3798,9.5138,-14.4434,2.0675,-3.8666,-0.017449,-0.065791,-2.9286,-15.0564,-0.64201,-7.0375,
1.4103,0.031364,-4.6619,-2.3816,23.043,-7.431,16.0434,-5.3214,6.0091,-1.7491,5.6828,-2.3429,-5.6652,-9.7487,
6.3876,0.75261,2.1255,0.41264,12.863,-19.7593,1.463,1.0232,-4.2336,-0.43906,-0.68352,-14.4941,0.21858,-5.5481,
-0.7448,-7.0055,-2.8225,-6.8427,7.2708,-25.8044,-0.0713,-7.2331,10.1204,0.069444,7.07,-13.1428,-0.27669,-2.8054,
5.0845,2.5738,1.2032,-1.1295,10.6909,-16.5433,14.033,-5.3529,-1.6945,-3.3092,-0.10261,-17.1745,3.1144,-0.22644,
10.8052,7.9628,8.6031,6.4098,17.5213,-4.7047,16.204,7.7425,-15.6928,-2.8694,-9.4967,-19.7596,9.4352,4.3662,
8.2289,5.557,-3.0006,2.1691,23.7008,2.3262,11.8575,7.2782,-3.3023,-3.1794,-5.0703,-4.4741,4.0486,4.5864,
16.1706,9.3207,7.0616,6.1361,16.7349,-11.9133,5.1203,6.6003,-15.3967,-2.7475,-10.7918,-12.762,10.7953,6.4806,
4.3546,6.5923,-1.7977,1.1886,19.8284,-0.95468,18.9131,-5.1239,-11.3397,-5.2342,-6.047,-7.8989,0.26569,-0.89811,
5.7803,6.9199,-6.2694,2.8043,15.9876,2.2359,17.6578,-1.6828,-6.0798,-2.2688,-3.9967,-0.43489,-1.9196,-2.0493,
6.8795,1.2023,0.37328,3.1182,2.0127,-11.9983,2.4984,6.1307,-7.6432,-1.1686,-4.721,-11.0139,5.9085,3.3761,
0.68216,3.0584,-9.2903,0.52098,8.6406,-10.194,5.361,1.4246,6.9154,0.82974,6.1671,-2.6403,-2.6411,7.5123,
5.9441,0.94645,-3.43,2.4177,-2.4829,-16.3311,-2.6732,-1.0712,-0.8506,1.2621,-4.808,-9.231,-0.55425,1.2768,
0.28458,-4.4128,-6.1165,-1.5835,-0.40571,-10.5307,-6.3694,-2.9354,4.5029,-0.25964,4.6398,1.446,-0.52123,-3.6203,
1.955,-0.05041,-7.9189,-0.28346,4.1981,-14.4779,-11.5306,1.8207,8.8122,0.961,11.833,3.0467,-1.695,0.69447,
4.9712,-7.5192,-1.4182,-1.4717,-7.3819,-27.7093,-13.0082,1.9524,-4.491,-2.2301,-1.1691,-11.2361,1.5402,-1.9988,
5.155,1.1269,-6.6355,2.4732,7.161,-11.9467,1.8723,-1.057,9.8785,0.31402,9.9881,3.5381,-1.9265,-0.91427,
5.8096,5.3976,-4.3094,2.8067,4.6826,-13.8812,-12.34,-1.476,-4.8142,-4.0431,-2.6628,-0.28986,1.0812,-1.8237,
2.0866,-0.2289,-2.6046,1.1921,7.294,-22.6893,-23.1688,1.5051,-11.2741,-1.8724,-4.9131,-7.5029,4.8727,2.1421,
3.8896,0.7487,-5.8226,4.9769,16.4973,-7.228,-7.6787,2.3787,-2.8848,-1.2781,-5.1003,0.65964,-4.0968,2.0135,
10.8868,4.078,6.0957,10.945,15.9894,-0.16633,-1.0719,3.682,-16.8118,-2.1655,-12.5073,-6.1286,1.9339,3.8207,
2.2799,4.0747,-3.1879,1.8527,22.5021,4.9053,2.1259,-0.15391,-9.1746,-2.2765,-0.42864,3.6396,0.61253,2.8686,
6.4816,0.45558,-2.0325,0.29502,13.4389,-6.4764,-6.1966,5.6397,-11.5167,0.75235,-5.7053,-0.91783,3.95,5.5887,
5.1286,-1.9817,-1.9105,1.7238,7.8121,-8.9801,-6.7889,0.96275,-4.0768,0.70698,-7.7734,-1.3445,0.82117,4.2893,
2.4108,5.3681,-4.688,3.5486,16.5024,-0.24617,7.7184,-2.469,10.2678,-1.2636,6.793,7.8952,-4.5307,-0.7883,
3.23,-0.73858,1.8598,0.44314,13.1022,-14.3314,1.8324,-0.39268,0.37249,-6.0081,7.2295,-6.5578,1.5257,-2.1873,
3.5181,2.1978,-3.0725,-0.54777,20.0286,-8.0486,2.2044,-0.85151,11.4369,-1.3093,8.2415,5.4044,1.4341,2.2823,
8.6097,6.8866,0.48632,2.3776,14.4885,-13.8327,-9.497,-0.31849,-1.3004,1.6614,-6.3529,0.25989,-0.5801,-1.711,
0.13937,-0.99836,1.6624,0.54773,18.1987,-9.8692,-4.8298,-0.54034,1.4287,2.285,-3.6819,-3.8531,-2.2325,-4.2599,
-2.7613,3.882,-4.7041,0.51509,22.8916,3.2562,7.5113,-0.02576,15.3225,1.6658,10.0361,6.9832,-2.5807,0.81661,
5.1174,4.1313,4.7374,0.48396,7.4181,-11.0392,-6.437,1.9042,0.30316,-3.7366,-4.0632,-7.5358,9.1435,2.2136,
-0.010356,-0.45539,-2.2957,-3.4015,17.6986,3.7232,6.9647,-3.0308,-3.4509,-4.9587,3.8934,-0.6962,4.7385,-1.2936,
3.1235,1.2594,-3.363,1.3821,15.4316,1.813,2.4496,-3.5716,-3.9665,-3.4556,-1.4016,2.9608,-0.12532,-2.4211,
4.1412,-1.4675,2.3821,2.0223,0.40571,-12.3958,-5.6513,-2.6346,-6.8623,0.84884,-7.8253,0.13179,1.5692,1.8218,
-1.1685,0.78971,-5.2321,-0.26816,1.9481,-2.8544,8.7878,-1.7532,7.6495,2.9671,4.4544,12.8983,-4.0681,1.9534,
1.0708,-0.9449,-1.7854,1.9171,4.0002,11.4168,-5.8395,0.038778,0.80327,-0.82637,-2.3208,-0.16808,-0.691,-3.7074,
-3.573,-1.1294,-5.7756,1.0789,1.591,24.8318,-19.5891,-2.1325,10.6372,1.3926,5.7724,9.7242,-4.7471,-0.83362,
-6.7329,5.6875,-6.3927,1.9783,-11.5197,35.152,-15.642,1.8521,12.4094,0.34495,5.9082,14.4436,-8.3185,2.5906,
-8.9804,5.5868,1.4622,3.5468,-18.7827,40.5143,-19.2832,4.874,11.9058,-1.363,5.7947,9.4792,-2.2762,0.74796,
-13.744,-3.9073,-12.6051,-3.8966,-22.4762,34.7092,-27.7672,-6.9878,18.422,-2.7272,11.2318,13.249,-13.7086,-6.5275,
-0.14493,-1.5032,-0.52012,0.91649,-23.7787,18.5266,-22.9677,-0.060631,3.2167,1.5338,-0.77028,1.6078,-4.9318,1.3359,
-6.4027,2.4434,1.4393,0.8615,-8.252,31.515,-7.4896,-2.9491,14.4726,-0.48646,6.0248,9.2245,-7.0465,3.6659,
-11.5622,3.0197,-8.0471,0.56884,-9.0824,25.2858,-15.5964,-8.7977,13.8452,-4.0727,3.9761,13.7323,-14.0955,-3.5435,
3.2315,2.5978,4.728,7.0424,-8.2965,18.7072,-21.1685,5.8302,-1.0855,1.2331,-10.001,3.5086,0.8502,4.1407,
1.4704,3.6467,-0.13539,1.5582,6.3013,31.6848,-5.7984,6.8057,-13.9153,-2.9382,-5.3036,9.8055,-2.2138,7.5077,
-0.78649,4.1513,3.9701,0.7418,2.9104,28.6991,3.1061,2.7819,-12.357,-3.4848,-5.7083,6.0837,-0.87569,7.7801,
-5.319,-1.6419,1.5627,-1.4719,-0.87962,12.8772,-11.1803,-1.4823,0.67646,1.3035,-3.1966,3.5495,2.7923,6.1085,
-4.0358,-0.096863,-4.7978,-0.90185,4.9577,18.7325,3.3494,1.9808,7.3845,1.7075,-1.5588,0.44428,-1.7138,6.2237,
-3.5527,-1.7783,3.4438,-1.5706,6.3475,13.9931,8.692,5.4774,3.8084,1.3641,2.1502,-3.1978,1.0406,6.0912,
-12.9805,-5.528,-9.2958,-13.0456,10.305,13.1535,-3.8811,-4.4922,14.1848,-0.16402,10.2159,9.0452,-5.2888,-1.0227,
-3.0424,-2.7859,-4.8817,-9.3705,-2.3644,-1.7357,-14.7352,-2.2942,7.0674,2.7381,-0.037826,-5.5975,1.2952,0.4847,
-10.5731,-9.8501,-5.071,-8.8083,0.18757,-6.3313,-1.8,-7.4597,12.9099,-0.3187,1.8922,-9.9615,-5.5314,-1.4726,
-6.3231,-3.2333,-4.5255,-2.254,14.2763,8.1486,10.1184,-0.98634,13.3403,-1.5046,13.1071,2.9285,-6.4046,-1.143,
4.179,-4.0034,4.9048,-0.19082,-0.68026,-6.4403,-4.5887,5.3396,-1.5601,-2.8604,7.5002,-11.3472,6.9954,-0.59274,
-10.1717,-11.2352,-9.128,-9.0972,-14.6192,-2.1978,-6.8443,-9.0808,12.6335,-3.8938,11.1473,-0.66372,-7.5244,-5.1367,
-3.174,-3.5708,1.3021,2.7768,0.35796,10.2266,-6.1922,-3.1128,-0.65797,2.3653,-0.84929,6.366,-7.4344,1.6795,
3.5239,0.74082,10.1415,7.6719,10.8213,15.6386,-0.27749,2.1356,-14.7185,-1.392,-8.2701,-1.9702,3.8575,3.7478,
1.3845,8.4089,-0.59007,6.7294,8.2438,20.967,5.042,-3.2949,-3.3506,-2.7545,-0.54332,2.969,0.25183,0.14875,
5.8808,5.7352,5.9533,7.5305,-4.0612,5.609,-6.107,0.99967,-14.4777,3.4363,-12.8032,-0.34265,1.924,0.38079,
3.1176,2.9807,4.632,3.2225,6.7878,8.5264,8.3594,2.8681,-3.4864,7.0867,-8.1784,11.7292,-1.0838,2.2859,
1.7257,3.0429,2.6668,2.7882,6.1393,-2.8314,10.8707,1.0088,1.3025,0.1536,-5.0366,-3.0745,2.1143,0.46153,
-3.9215,-2.2009,4.194,2.3799,6.0122,-8.2052,-3.8816,-0.73896,2.9116,-2.9891,-0.15469,-14.8209,3.1927,-2.6992,
-3.9274,2.9926,-1.6014,1.0316,11.6768,6.3872,5.6308,0.51044,11.6547,0.8059,9.7363,0.16836,-5.4348,-1.3322,
2.5748,1.3668,5.7255,1.4521,1.8173,-2.5527,2.8828,0.96175,-0.6137,0.75754,0.47548,-0.20365,2.1222,6.4605,
-11.6797,-11.4897,-5.9462,-8.5174,10.6261,0.73395,3.4328,-8.496,12.6795,-0.97514,5.9906,1.0139,-5.9589,2.9394,
-12.3045,-11.0413,-8.7229,-8.7293,8.7835,-0.99731,0.093782,-5.3346,9.2676,1.7345,2.9796,4.0865,-10.663,-2.7806,
-0.23779,-4.353,2.1645,-1.2159,6.5695,-5.517,7.5597,2.9394,-2.6168,3.3179,-0.81439,1.19,2.269,1.9658,
-1.9105,-0.47619,-5.9189,-5.24,16.0575,3.2499,16.9883,-4.2266,9.3505,0.94939,6.2241,10.5188,-1.0004,0.64277,
-3.0014,-5.9915,0.46159,-9.0232,7.1401,-11.0451,1.869,-5.1785,7.5844,2.0975,-0.65704,-4.2123,-0.69915,-0.60086,
-10.0519,-9.4886,-2.4584,-7.9997,13.4603,-0.37971,0.67229,-5.8315,10.5036,-1.4026,-0.13545,-6.4904,-4.0319,2.8099,
-2.2182,1.2039,-1.3468,3.5673,17.9551,7.3561,14.732,-0.66108,-4.2266,-3.7288,-3.0196,-0.79856,2.4768,6.0155,
1.5303,-4.412,8.134,1.1841,8.9241,-7.1853,6.7377,0.58341,-17.5909,-2.7817,-6.4539,-8.2225,7.3898,3.9674,
-2.1767,-3.9061,2.5845,-2.9845,20.6809,3.0073,9.4667,-0.65665,-2.4354,0.51846,0.92302,6.3709,-1.9714,5.4163,
2.7744,5.0052,4.8398,5.3895,18.476,-2.476,9.8628,4.2032,-10.8457,2.4153,-8.7731,2.7349,2.0031,3.1634,
-3.4179,-0.83853,-0.99396,3.3791,14.7161,-4.4964,11.4404,-2.0743,-0.79516,1.0653,2.5993,3.7759,-1.2504,-4.0161,
0.88479,-3.4395,1.2346,2.4532,11.1823,-4.4674,-1.5383,-3.1549,4.3145,1.7245,4.6127,1.3804,-2.8624,1.2863,
5.411,-3.4741,8.6323,0.13689,0.14701,-17.9381,-15.1846,0.16743,-7.2731,1.862,-9.764,-9.0668,3.3349,6.7528,
-3.1084,-1.338,-5.383,-3.2458,1.1021,-8.1852,-0.17349,-3.2171,7.2633,-0.65981,1.7883,4.4922,-6.5066,2.9731,
3.827,-0.77529,4.0991,4.6617,-2.8202,-18.2989,7.4297,2.761,-4.38,-0.62022,-2.1754,-8.3104,1.1151,1.3485,
-2.9105,-5.7904,5.0579,-0.67964,-2.8922,-16.96,2.8861,-0.53861,-3.8762,1.1042,-2.7682,-12.8734,4.1812,-1.3835,
-14.5463,-11.9507,-9.3455,-11.9668,-12.1184,-17.1475,-11.3871,-7.9779,10.4564,-1.6134,3.4237,-2.2188,-10.1696,-7.8082,
-2.8272,-7.6183,1.459,-1.8488,-11.1504,-22.6261,-13.9576,-0.99126,6.3341,2.5808,4.9055,-3.2905,0.20244,2.5422,
-4.827,-3.064,-1.2798,-2.461,3.6187,-7.1685,0.97985,-5.5118,6.1948,1.2209,6.7801,1.004,0.43103,3.5948,
1.9706,-1.6745,2.4124,-1.59,15.8145,-5.4131,10.9237,-1.0832,-2.1302,1.8705,1.7945,-1.2254,3.5387,2.6562,
-0.075845,-6.3947,3.7139,-3.4233,5.2242,-14.7293,6.4114,-1.9826,1.854,1.7583,7.4709,1.7402,3.3263,1.0505,
-7.5431,-3.8419,-5.427,-5.387,9.0086,-2.9993,9.6426,-6.9248,7.7683,1.4118,6.7821,6.6975,-3.3812,-2.146,
-3.2346,-4.0937,3.0933,-0.72547,10.8777,-16.9193,4.7253,-2.1715,-2.8212,3.2553,-5.6763,-3.3454,2.1243,-0.57096,
-5.4502,-6.7402,-2.8769,-2.6101,14.0819,-18.194,16.4929,-7.8253,8.4353,0.16794,4.7871,4.5681,-3.3058,-2.4649,
1.8665,-2.7201,3.8035,3.5722,6.7293,-8.6665,10.4423,-1.33,0.45764,0.3986,5.7054,-1.7313,4.3646,2.2625,
-2.3431,-4.7263,4.7808,2.6352,8.013,5.9535,0.41554,1.4011,1.1533,0.61588,2.7118,-9.5814,3.8615,2.8499,
-6.7818,-2.2736,-9.6061,-4.9951,11.6291,16.0811,-0.81469,-7.601,12.4123,-4.4828,0.37946,-6.3554,-10.4702,-7.203,
7.7251,5.8171,5.0698,3.2588,2.4957,1.0162,-8.2376,3.2189,-0.62495,1.8118,-7.1151,-12.4815,1.366,-1.2272,
0.87415,0.88806,-1.2601,2.822,7.8893,15.055,3.1027,1.3388,4.9559,1.9443,-0.1805,-1.8509,-2.3316,1.4973,
4.4373,4.9324,-0.94332,4.8221,3.8008,11.5004,5.0859,1.4992,3.4535,-0.34179,0.07153,-3.9088,-3.3968,1.6486,
5.8579,3.4311,7.549,3.3275,-6.7916,-3.2896,-6.0655,1.6502,2.0415,0.88401,1.2721,-9.7003,3.7964,-1.1019,
-4.3753,-1.8362,-2.7857,-1.4517,-4.2147,-8.7563,-0.63967,-5.9204,8.4267,-1.8204,5.2933,3.1745,-4.8668,-6.0972,
3.6002,1.6487,7.5046,4.9022,-8.7823,-16.9078,-0.60152,2.6298,-6.1789,-5.0854,-7.5575,-10.9955,4.584,0.53538,
1.2146,7.0934,4.4028,1.9565,3.0728,-5.529,10.7628,5.6055,-7.8569,-3.5754,-0.1142,-10.0948,4.5499,5.083,
4.9981,8.1136,4.621,4.2497,7.2268,-5.1973,9.1531,7.1973,-11.2418,-0.95029,-1.5536,-13.3455,3.3131,3.8137,
6.1445,-2.4962,8.682,5.9229,-5.7399,-15.0088,-0.073156,3.391,-18.2801,-2.3395,-10.6194,-24.1139,6.9707,1.6567,
-5.5522,-3.5515,-5.9389,-3.3508,-9.9752,-0.0082764,2.1006,-5.2483,-3.0833,-0.029774,3.2744,-8.5671,-4.294,-1.576,
-1.6038,0.75876,-0.15965,-4.8367,-18.2945,-12.1796,-10.3177,1.5743,5.1757,4.5515,-1.5016,-11.5482,-0.42076,-0.75828,
-1.5078,-1.6967,3.2246,-1.6542,-5.1455,-10.4847,2.3522,2.9259,7.2755,1.8681,-5.7501,-14.7115,2.0148,0.73324,
-7.9248,-6.6565,-8.2975,-3.2422,-4.5961,-12.9891,2.4521,-7.614,11.9007,-1.8594,-5.1641,-9.2495,-7.9884,-5.3363,
-13.9573,-17.5853,-10.9327,-9.5556,-18.4203,-26.3098,-11.7951,-12.2189,7.5712,1.3852,-4.1314,-10.3818,-10.6426,-12.4879,
-16.0119,-16.5302,-15.0974,-13.8025,-20.3276,-14.2461,-5.905,-10.039,11.4553,0.33819,0.4553,-3.9743,-14.3424,-11.2567,
-0.95121,-2.523,-0.091595,1.1256,-5.6104,-21.5865,1.1982,4.6633,-3.2114,2.2461,-1.9821,-17.8358,0.61816,3.3984,
-1.4965,-7.1921,-2.1343,-1.4725,2.9209,-23.6656,-3.2122,-2.4859,6.1401,0.6653,1.511,-20.0192,-0.50328,-1.626,
-10.807,-10.8582,-15.2629,-8.3738,-5.2081,-17.6661,-7.599,-14.1471,14.2076,-3.9541,-2.1953,-12.3108,-14.5731,-14.3031,
3.9414,0.39863,-0.2471,6.1079,6.1914,-9.8572,5.8724,0.68151,2.2679,0.1395,-0.61732,-10.6078,0.4013,0.53485,
0.69217,2.3029,2.5395,2.367,19.9199,4.8342,19.62,-2.2519,-0.27826,-4.2077,4.7224,1.5978,2.5462,2.431,
4.507,3.6105,5.7612,4.1531,19.0862,1.5309,19.7684,1.2577,-8.9387,1.3475,-6.6482,4.8764,1.4295,1.8027,
2.3086,1.4659,7.8258,2.4579,23.7258,0.47541,15.69,0.21811,1.7208,3.195,-1.9108,0.72765,-1.5485,3.141,
1.6882,5.7168,0.60784,0.86465,18.4459,5.7491,6.5539,-3.6514,6.9202,-0.85306,3.9885,-4.1367,-5.7939,0.060506,
7.371,4.4094,7.3198,6.115,3.2391,-8.6959,-3.9627,1.388,-4.5823,-0.31994,-5.8918,-12.5656,3.2303,-0.90745,
-4.1585,-1.6397,-5.1705,-2.929,1.7188,-0.82303,8.8085,-5.4438,9.7927,-4.1571,-1.2,-3.617,-7.5688,-7.12,
9.3477,9.7866,5.9858,4.2368,15.7157,2.3601,12.8591,2.8364,4.5054,1.1537,-3.7793,-8.9433,-1.0889,-5.0053,
6.6176,5.5845,5.8676,4.7055,28.8727,-6.2177,16.1853,-4.3232,-9.865,-2.5309,-14.3983,-21.6631,-5.1209,-11.2125,
-0.046163,2.3567,-6.0534,1.0489,41.2404,-7.2906,29.3142,-13.705,-5.5372,-9.6097,-14.0166,-20.3631,-17.8288,-14.8783,
13.454,4.6254,8.4098,1.4679,52.8659,-20.9532,26.4706,-6.6162,-11.4719,-6.141,-16.5501,-33.2413,-3.7441,-14.468,
13.611,4.8302,9.7127,-0.54833,63.794,-32.1088,38.9823,-7.1831,-3.0708,-4.8082,-9.2905,-33.5367,0.81928,-17.9382,
14.9635,4.2995,11.7815,2.6181,74.0663,-33.3157,47.3694,-8.9213,-16.9866,-15.8479,-21.0252,-44.7809,-2.8453,-17.5848,
25.3942,8.1391,22.8845,7.5224,83.7224,-36.3782,57.7834,-5.2527,-29.8262,-13.2096,-19.5225,-40.407,4.3151,-10.022,
29.8958,14.158,15.4861,6.3479,92.799,-33.4724,68.4164,-6.1426,-17.1906,-8.3199,-11.8439,-23.8826,1.4048,-11.5901,
31.9585,11.3803,22.7517,5.4851,101.3311,-45.5641,68.2883,-2.882,-30.2591,-9.7489,-23.6667,-34.8627,6.6232,-11.859,
24.0156,7.5647,22.1097,2.5047,109.3512,-47.289,67.3247,-1.9855,-14.3436,-4.5844,-9.954,-30.6011,8.8771,-8.0138,
21.3692,5.4234,16.6855,3.0776,107.6109,-58.5517,51.4744,-1.1437,-6.7341,-3.1043,-6.2235,-27.5604,7.6214,-12.5948,
16.2309,-1.6507,19.0591,1.9288,87.0542,-69.1386,34.8888,-3.0031,-14.0426,-1.4716,-10.1886,-29.7629,8.1282,-11.357,
9.7132,-1.7929,14.2999,1.0899,87.4953,-79.0903,39.7851,-4.5103,0.89998,6.5702,2.2331,-13.8772,5.4711,-4.1679,
7.9258,-10.6031,14.6474,-1.6268,68.1456,-88.4449,23.298,-5.4448,-12.7721,0.63264,-9.2289,-27.1445,10.6867,-8.0149,
4.3165,-13.1007,12.0811,-0.80604,59.8388,-97.2382,23.9486,-8.7337,-4.5342,-1.5747,-4.0961,-22.3826,9.3223,-8.7395,
4.5395,-6.5296,12.8025,3.5806,61.5511,-98.0323,22.9941,-8.2092,4.8969,2.8581,-0.47588,-13.8088,4.4247,-5.8046,
3.544,-9.2715,17.5777,2.1607,46.5296,-92.3916,10.286,-6.0297,6.772,2.4454,1.7216,-16.114,4.8819,-4.2517,
-1.0065,-9.6791,6.4002,-2.3072,32.1687,-73.8324,12.0794,-11.4525,14.5609,-1.5572,10.7778,-5.5057,-6.0159,-8.3345,
2.669,-7.4109,15.4159,2.8927,16.1385,-80.2485,2.9187,-6.6678,-0.41279,-2.1869,-3.9689,-19.2754,-0.11107,-10.4857,
-7.1323,-8.8947,14.9731,2.2369,21.3165,-61.3336,11.9024,-4.8217,-11.5955,-9.2863,-6.7435,-24.5061,1.8236,-6.9643,
-1.4019,0.79828,11.1825,4.995,29.6787,-43.5536,17.455,-4.0502,-19.0947,-11.1395,-8.2673,-10.9844,1.7144,2.6124,
-1.5586,-5.7573,15.091,1.5621,13.798,-39.9763,2.3077,-7.4224,-32.049,-6.8559,-21.8713,-24.4253,3.7804,1.2506,
-9.4188,-5.6533,11.534,2.6736,13.5725,-26.2495,9.5206,-3.844,-16.0261,1.9915,-6.459,-8.8598,0.90252,0.93457,
-9.818,-10.1344,13.2526,0.10262,8.9018,-37.6902,3.1648,-7.9517,-5.9057,-6.805,0.67721,-11.2205,-1.0798,-3.9422,
-4.8906,-7.1162,26.4367,0.096465,19.4549,-25.7876,5.8669,-7.957,-5.5514,-2.5404,3.0467,-5.2446,4.2876,4.0071,
-14.4789,-11.2687,26.538,-9.791,4.1876,-33.1584,-5.813,-11.0948,5.6277,-1.1829,8.8897,1.5778,-2.9597,-1.7767,
-15.0566,-18.3051,35.0688,-10.1677,-10.1637,-45.2689,-18.4799,-7.0548,10.111,5.1548,10.7667,-1.4092,4.4489,-5.0443,
-19.2144,-19.3765,20.1902,-13.173,-9.7948,-44.6014,-5.5605,-13.621,21.3145,3.6403,12.7717,2.2908,-2.8079,-5.947,
-7.9387,-11.465,29.1017,-4.1879,-10.6534,-46.7458,-13.904,-5.0909,5.9356,2.9399,-2.0946,-11.9467,5.0733,0.19443,
-10.3544,-13.1872,33.6226,-2.9723,-13.3886,-43.9411,-15.9618,-6.2317,4.7359,7.1023,2.0082,-12.5554,4.7689,0.18276,
-17.4459,-13.3603,17.5052,-8.0966,-4.8725,-27.2046,-9.2195,-16.4631,18.5517,1.8554,11.0468,2.2979,-9.0145,-7.059,
-4.3483,-7.7382,20.9133,-0.86216,-6.9905,-29.5494,-13.4873,-5.3522,3.3386,-5.0046,-3.716,-11.94,5.5058,-3.7432,
-5.0515,-1.9715,20.1406,1.1175,-6.0889,-22.956,-0.62673,-2.6207,-4.0925,-4.2226,-3.8548,-22.7932,7.1035,0.33754,
-1.374,-3.2995,26.163,4.4249,-12.9544,-29.7733,-9.7482,-3.4278,-11.0778,-1.0767,-9.8905,-21.9075,3.7852,1.7635,
-1.0506,-8.1627,27.2448,2.9541,-2.7772,-18.5869,-5.0655,-1.5349,-3.4233,3.0852,-2.7891,-7.8186,3.799,0.4529,
-10.6285,-4.7804,11.5101,-3.0077,5.5846,-3.3717,7.7715,-4.3349,10.8821,6.7565,4.1272,6.7505,-6.5518,-4.8769,
-6.1346,-5.9401,19.1347,-0.8988,-8.8505,-17.2694,-6.7948,-4.5569,-3.8708,6.8333,-10.2205,-7.7545,-2.3025,-1.692,
-3.5974,-5.3427,19.6738,3.2525,-4.584,-14.546,-1.2049,-5.4888,5.2793,6.1823,-6.3537,-5.1203,-1.4415,4.4351,
-2.4172,-1.1653,15.6013,3.0573,-4.7909,-8.3706,3.6881,-2.267,2.5524,0.99068,-4.0438,-10.1153,-2.3189,2.7231,
-2.7541,-3.506,19.4855,1.4281,-12.2162,-15.5811,-10.5125,-2.131,-3.3853,4.3057,-6.2118,-10.9546,3.1229,0.63157,
-5.9633,-5.7057,10.6036,-0.10385,0.085929,-1.1489,-8.436,-6.8238,10.9178,6.4579,3.3199,3.8026,-2.3671,-2.7808,
0.17929,-5.8456,13.3416,2.7947,-2.8115,-6.3826,-8.8939,-0.62957,1.9471,4.142,-7.9663,-1.8487,1.6315,0.27835,
-3.2062,-5.0127,9.1669,0.69856,-2.1607,1.7131,1.2809,-0.10964,1.3485,3.4113,-7.4885,-6.5582,2.9797,6.046,
-2.5316,-5.1941,6.6885,0.17449,-0.58499,1.6103,-2.1706,-2.5134,-8.856,4.1708,-10.4134,-6.6469,3.2826,4.2372,
-2.1385,-6.5694,11.831,3.7797,4.5116,5.1291,-0.35291,-2.6038,-3.7451,8.5,-7.6197,-3.1148,3.3268,2.2955,
-10.6875,-6.1755,1.9619,-1.2676,1.831,11.57,0.14997,-7.2681,10.5796,4.6158,4.4069,5.267,-8.4422,-1.2164,
-2.3331,-4.3587,9.075,-2.1559,-11.7767,-3.2242,-13.959,0.8808,4.5222,3.3745,-3.5703,-9.149,4.1159,2.7129,
-4.1215,-4.5793,4.6743,-3.9545,1.9455,5.7666,-2.3957,-1.1,2.8043,6.5463,-6.7303,-2.695,3.3868,7.3706,
-2.4277,-0.92989,2.4659,3.5134,7.1317,18.9182,3.5328,-4.4082,-7.0047,2.2974,-20.306,4.6978,-5.0109,6.9286,
0.60978,-3.2845,12.9226,7.1588,-4.8656,3.6831,-10.7791,-1.7338,-20.6844,-4.1072,-28.2467,-9.6841,1.0741,3.1382,
-5.4524,0.045639,2.2653,-0.26019,5.7902,17.5621,-0.6119,-1.8708,-5.3433,3.1291,-12.4519,4.9969,-3.5701,1.7451,
-4.884,-3.5723,4.7807,-1.4501,-2.9931,2.4084,0.14749,-2.9636,9.0773,9.449,-3.1484,6.6249,-4.079,-0.52899,
-7.0009,-9.1423,9.3148,2.0116,-9.0798,-11.8361,0.13933,-7.1239,16.6069,3.0977,-3.4412,-5.8235,-0.94151,-1.4609,
-2.2425,0.082875,3.9352,5.7473,-11.4275,1.6485,-1.3158,-3.3224,10.3078,-1.4269,-0.82458,-6.9203,-1.8493,4.4109,
-2.1082,-1.8505,4.6627,2.9921,-21.347,15.6496,-15.3368,-0.71274,-3.3258,0.58668,-7.0419,-10.3617,-1.7382,8.4848,
-8.7306,-5.1139,-1.4016,2.3306,-10.9076,28.8106,-7.0653,-5.9731,10.9737,3.9259,1.093,4.36,-7.9008,9.4215,
-4.5911,-4.5659,1.3343,4.3602,-24.3531,41.182,-20.7414,-3.4449,16.7023,5.3778,-4.0336,7.1114,-5.7393,9.5798,
-7.9308,-2.6045,-0.43326,1.9292,-36.9919,52.8111,-30.9453,0.37703,29.8001,13.4911,5.6082,14.6387,-3.708,11.6563,
-13.7222,-0.52027,-9.0841,0.3674,-40.7977,63.7424,-21.858,-4.948,21.8659,4.9686,-2.9232,12.7958,-11.1985,6.136,
-1.8116,7.2237,5.5609,12.3965,-27.2626,74.0179,-13.3157,2.0973,6.4539,-1.596,-16.7271,2.3871,-1.3676,12.5168,
-8.4512,5.8267,-1.6417,7.3146,-33.8218,83.6768,-11.5526,-0.92035,6.6696,-0.054238,-6.0823,16.3438,-9.48,14.1761,
-9.6315,2.3433,-1.3024,4.7063,-45.8925,70.8229,-24.9595,-0.62439,-2.1665,1.1541,-19.8174,1.9866,-6.7422,10.1923,
-9.2944,0.99768,2.8733,8.0391,-46.8746,52.835,-37.5619,0.61813,-13.3649,-0.12023,-20.4363,-12.2326,-1.7582,6.4475,
-7.2907,4.312,-3.5658,7.0746,-29.9621,61.7162,-23.9798,-1.3469,1.537,0.36915,-5.1101,-1.0141,-11.7758,7.0247,
-0.10457,1.161,6.7712,4.2402,-41.3006,43.9133,-22.0593,1.1438,-12.6553,-0.6171,-18.9035,-8.6662,-2.3924,10.9413,
-3.9549,3.0198,1.544,3.9856,-27.7355,55.3785,-7.7205,-0.37086,-16.2345,0.86596,-23.0719,2.9412,-2.2486,10.2851,
-2.5123,5.0078,-4.5742,7.3619,-21.4916,54.2249,-21.3573,-2.5178,-5.378,2.9832,-11.8054,8.7903,-9.5855,3.6424,
-2.8437,-2.0414,1.0032,5.4741,-34.3021,36.8714,-29.8369,-0.92067,1.2114,5.2145,-11.0969,7.2988,-4.1899,5.3519,
-11.8322,-3.8471,-5.324,-1.6032,-41.7645,28.995,-18.4057,-1.8298,15.2387,6.8299,-3.6826,10.2353,-6.3486,5.5127,
-10.6403,-5.0625,0.29808,-1.507,-39.7408,13.1553,-29.8348,1.6545,20.4702,6.4201,-0.087216,-3.3943,-1.6294,3.2542,
-10.7248,-6.446,-3.8172,-1.6576,-23.2563,25.7427,-21.5373,0.83231,16.1089,0.97318,5.9436,4.2812,-1.7726,5.2281,
-4.2965,-4.1308,0.26849,1.8166,-19.3301,17.4499,-24.5831,3.1927,7.4294,-0.53125,2.2127,-3.2063,4.1186,8.2886,
-5.244,-6.0526,5.3136,1.4661,-28.0527,2.3029,-23.8315,-0.13232,18.7938,6.9724,7.1412,-16.7527,7.0045,9.4785,
-7.8219,-3.2788,-4.6462,-0.55002,-12.2695,16.2647,-8.3016,-3.9808,14.7741,5.5898,0.92813,-4.6603,-4.985,6.4992,
0.36045,-1.6361,7.6839,4.7854,1.3616,5.8886,-9.8522,5.4169,-0.21236,-1.4943,-13.2276,-14.0219,3.991,4.6633,
-8.5788,-3.7071,3.1255,1.3652,-9.084,9.6326,-14.3223,0.51258,-3.6946,-0.68128,-4.8412,-4.7444,3.993,7.5169,
-9.9925,-3.0025,-5.2569,0.31924,-10.9493,16.2853,-9.1248,-7.2312,-0.098661,-0.64063,-0.69453,0.36072,-2.0314,8.512,
-0.71606,-1.3763,2.2891,6.0849,-0.16923,14.8265,-6.167,-2.9407,-14.1927,1.3262,-12.7042,-8.8197,1.4647,6.5552,
-9.8324,-2.7398,-8.9353,-0.5474,1.7689,20.2032,-2.9047,-9.5129,0.75882,-0.19984,-5.1933,-4.4344,-11.6388,-2.9974,
1.3631,0.79885,5.7009,5.7526,-2.1934,8.3859,-8.9971,-0.26528,-3.1429,3.1868,-12.1123,-11.8809,0.62888,4.4135,
-1.8522,-1.9006,0.65858,3.7198,12.0382,17.2828,-2.4318,-1.9366,-9.4622,-2.548,-14.0371,-9.4812,1.7964,6.3179,
-8.4897,-2.2683,-8.5397,-1.3239,2.7593,14.3178,-4.2138,-6.1589,5.2055,-1.9129,-3.5537,-5.5377,-8.9164,0.63641,
-1.714,-1.6505,6.0726,2.6122,-11.5063,-0.64124,-5.8894,2.4055,18.9932,9.2888,5.3364,-10.9902,-0.66888,5.4187,
-9.5649,-6.1308,-8.3917,-3.5701,3.2841,12.7741,2.4177,-5.2106,7.7307,-2.1148,-0.045437,-9.6079,-10.0287,0.99577,
-1.7598,-1.9065,-1.3805,6.2851,16.8256,11.5257,-4.9578,0.40467,-6.8332,-1.9879,-10.6475,-12.4054,-1.2319,8.1673,
-12.0185,-9.7459,-2.9849,0.36435,7.8623,5.7725,-5.3836,-5.6452,7.6768,3.1931,-0.12676,-5.1536,-3.8095,3.0975,
-8.4051,-0.48425,-7.6263,-0.6216,13.1754,13.6211,4.5806,-2.8961,5.0468,0.1092,1.3269,-1.4697,-4.545,1.9476,
1.499,0.26793,5.6055,3.9947,13.1076,7.26,-5.0945,2.8211,-9.356,-8.8156,-12.8527,-15.4815,4.6455,7.8561,
-8.4729,-5.2918,-0.75637,1.5864,13.0445,17.6711,3.6473,-2.8918,5.3054,0.63182,2.0184,-0.45266,-4.5508,3.7697,
-7.7235,-2.3232,-3.8445,0.76782,-0.99459,2.5108,-5.0077,-2.4773,12.941,5.1732,5.0306,1.7434,-5.965,-4.4102,
-5.8141,-0.25534,-0.72151,0.72198,3.8856,1.7573,-6.1532,-1.3646,0.59518,-1.4039,-2.5019,-7.52,-2.2329,-0.28943,
-6.6701,-0.48145,-3.8117,2.3654,8.7137,14.4259,1.6878,-4.4162,4.1749,0.36753,-2.1108,0.40257,-4.7505,2.379,
2.1658,2.6814,7.7456,9.6958,-0.72677,4.1608,-1.0646,0.91044,-10.1756,7.3353,-10.902,-13.7216,4.935,3.4416,
-3.0254,2.761,2.2192,4.5343,9.6807,14.275,7.435,-3.2415,-17.6395,-2.0228,-12.8992,-16.152,-5.2435,2.9941,
1.4947,4.0418,2.5682,9.0832,13.4384,18.2394,3.1327,-0.63669,-18.5091,-6.24,-15.9814,-16.6285,-5.4106,7.6354,
-2.4516,-1.0212,0.48572,7.5736,5.4015,26.3034,-3.8039,-3.9732,-3.4191,-1.0451,-3.9355,-13.7028,-0.74784,5.2489,
-7.366,2.1734,-3.641,-0.35237,0.97982,38.8252,-4.2988,-5.9037,6.6678,-0.74123,4.7365,-5.4091,-5.7644,-0.12797,
0.30684,7.3456,8.629,8.8278,-5.8279,35.6523,-7.4154,5.5377,-5.7834,1.2314,-9.6477,-14.2435,-0.11591,1.326,
-7.9065,0.63813,-5.3863,8.7803,-5.478,47.6132,-1.1856,0.38499,8.6636,2.6036,-2.1994,0.71106,-10.714,1.7286,
-3.5757,-2.7746,-2.1706,5.361,-18.1647,40.7795,-15.2145,0.84382,3.685,4.3756,-2.0675,3.9224,-9.1073,7.4094,
0.49543,-2.126,7.6008,4.0752,-15.1464,28.2101,-14.6633,5.6137,-10.6361,0.25687,-11.5844,-10.413,0.5984,11.7858,
-5.5603,-0.31118,-6.9552,2.6254,-0.13763,40.6175,0.3165,0.69711,-7.7083,-4.8202,-6.7922,-3.6422,-5.9454,7.9447,
-3.0573,-8.7284,-2.561,0.29895,-11.8195,24.0804,-12.3562,0.89648,-3.6306,1.4943,-5.1796,-0.29038,-0.044878,5.781,
-9.6225,-7.7225,-5.2997,-2.1293,-7.2537,11.066,-19.3279,-0.60334,10.6872,4.2974,4.2904,6.9581,-1.9706,4.9525,
-4.4659,5.0329,-5.2231,6.4341,5.956,24.502,-5.8761,3.0483,-4.054,-4.3966,-5.367,-7.5594,-0.64708,4.8958,
-0.10059,0.63354,5.4546,7.2533,0.53695,18.5729,-1.9081,6.4808,-17.9108,-5.3381,-8.1784,-21.2058,8.3098,8.6994,
-11.1818,-7.1172,-5.9599,-1.859,-8.1724,18.4228,1.0989,-0.17502,-2.7361,2.213,3.8814,-5.8335,1.5443,8.1779,
-2.3159,-1.8697,3.0746,5.0012,-11.5382,6.23,-6.6801,6.1022,7.5514,7.8651,-7.4387,-8.7374,8.2003,10.5795,
-3.1408,-3.6857,-0.48391,0.84525,3.2541,12.1232,1.9159,-0.048486,8.0622,3.0548,-4.582,-10.1414,-1.9327,6.5703,
-4.8806,-2.9827,-2.3835,0.31214,0.046089,11.8777,2.7648,-5.3482,11.4349,2.8711,2.4414,0.10808,-9.5295,2.3197,
-5.3109,-5.937,4.2677,3.4271,-14.0567,-2.5735,-7.7647,-0.92975,10.0261,8.2427,4.4647,0.82472,3.3345,4.8319,
-9.3308,-5.5805,-8.0397,-2.5633,-14.2979,6.7397,-4.407,-3.2843,22.4397,8.7122,12.3913,12.8266,-1.686,5.506,
-2.0223,-5.2459,-0.80913,-1.9278,-13.4402,-7.7647,-15.2298,-2.6051,8.0777,4.8153,3.4529,-2.043,-1.1027,1.801,
-5.5163,-6.6184,3.8192,-0.12445,-1.7875,2.7041,-1.5413,-3.6536,20.3675,8.1418,13.6101,1.8155,3.5432,0.4881,
-9.0415,-5.2572,-5.0869,-3.4917,0.73007,12.665,0.47911,-7.291,17.2175,6.6892,8.4549,7.4913,-4.8643,0.45858,
-1.5094,-4.7006,4.6186,1.2973,-13.0523,-2.1949,-13.6496,0.13608,11.123,9.4211,4.8143,-2.3584,1.9353,3.0824,
-5.5164,-4.1773,-1.6843,2.4246,-6.2434,-8.2095,-5.4791,1.333,24.5556,8.6146,18.6255,6.219,0.13168,-0.71774,
2.7688,3.0627,3.4784,6.3769,2.085,3.1293,6.1778,4.3865,8.9823,3.5184,3.408,-6.4462,2.2929,4.8689,
1.6383,2.879,6.1618,4.0661,5.8163,15.957,8.6992,1.7132,-5.6567,2.8254,-10.8965,-9.4339,2.6378,10.8433,
1.2988,3.4294,0.73017,5.0267,0.88777,12.8302,4.5616,3.2974,-8.8124,4.3429,-4.0969,-4.2888,4.1665,9.9515,
4.5954,-0.15086,8.3996,5.6895,-5.9139,-2.0396,-9.8121,6.474,-22.3837,-1.7023,-15.42,-18.1314,8.7372,7.4267,
-0.50085,0.34036,3.0751,2.4558,8.5409,5.4341,0.056625,1.747,-15.1352,0.32828,-11.6023,-8.7274,0.98191,8.4271,
7.7239,1.7662,3.3726,5.2005,-1.2515,-3.0871,-0.9111,4.0523,-0.73015,7.539,-3.6758,-1.4553,3.3331,6.9572,
4.3682,-4.6065,1.7242,2.4786,-9.8533,-13.0246,-0.37427,-0.046989,5.5804,5.6406,-0.080798,-6.1885,0.72324,0.27299,
-3.3655,-1.6788,-3.9231,-0.32145,4.8379,-3.3253,4.7096,-3.1779,5.0044,1.6865,0.64695,-0.27382,-6.3103,0.49781,
1.8977,-1.819,1.8559,1.3846,6.3553,-17.2257,-9.6729,1.1106,-5.1778,2.3087,-5.8993,-7.7292,2.9864,4.5653,
-4.2415,-6.2894,-10.5478,-2.3137,6.6971,-4.9845,-4.1514,-7.3919,9.2329,1.447,3.8544,-4.6141,-4.6648,0.1938,
5.4127,4.452,3.8237,6.2611,-0.21241,-8.3011,4.5336,2.4513,1.3278,7.8679,3.8643,-18.4373,5.9792,6.2079,
1.9552,2.0155,10.5843,1.3063,0.52347,-17.2028,8.3592,4.4737,-12.8519,3.2987,-5.7673,-29.2616,9.2361,6.0767,
-5.1525,0.68931,-4.1507,-4.3161,13.2665,-2.0706,14.3651,-3.749,2.0192,-0.033149,3.4963,-13.4059,-5.0569,1.6143,
-0.022597,-4.6547,-4.5048,-1.1651,-1.6295,-16.0464,-0.59679,0.81475,9.1287,1.4151,6.661,-5.7327,2.9593,1.0355,
-3.1545,-8.4725,-0.61885,-1.8179,-2.1341,-26.653,-2.1277,3.8991,11.7147,3.4996,9.3951,-12.3783,5.4335,2.6608,
-2.0014,-1.2153,0.86454,2.1476,3.7785,-14.4485,4.2664,3.6652,-3.0882,0.39709,-5.2686,-8.7431,1.2511,5.3932,
-1.1579,0.06247,2.0175,4.1879,8.613,0.5184,10.036,1.758,-17.0029,-4.206,-9.8939,-9.9058,5.2734,9.167,
-2.2937,3.1922,-3.1648,2.7318,11.7117,14.5873,13.5317,2.8579,-1.8827,-0.33824,4.7997,1.0524,7.1262,9.3403,
1.4595,-0.13258,0.15838,1.8448,-0.80141,-0.38794,-1.3802,2.4452,-8.6392,0.88712,0.53484,-9.8567,10.7962,5.1642,
-4.6538,-5.1865,-6.3588,-2.3635,13.3467,-12.5365,11.8382,-4.6912,5.9792,-0.85357,9.9025,-5.6501,2.1945,2.2031,
-4.3746,-5.8392,-9.3518,-4.6318,26.6459,-22.3896,1.0051,-6.3379,9.1154,-1.7658,12.2009,-11.0952,-3.2394,-1.785,
3.3597,-1.8734,2.5375,-0.25656,25.2883,-35.1462,-6.0451,1.5142,-0.832,3.8833,8.3353,-17.9018,11.055,2.4189,
-4.3139,-3.448,-9.4251,-7.2308,37.871,-30.5064,8.4176,-5.5663,6.208,-3.3393,11.4509,-8.3918,2.558,-1.8233,
2.4526,-3.4823,-0.42366,-4.628,32.586,-42.776,21.7716,-0.65281,-3.5647,-3.8621,1.846,-17.2883,3.6095,-2.437,
2.7879,-3.2734,3.9405,-1.9398,18.0978,-54.3094,14.6807,0.83262,3.3981,2.6366,6.0738,-8.5377,8.2137,0.11976,
1.4151,-2.8363,-1.8397,-3.5108,13.8782,-49.3639,21.7538,-1.3867,-4.7598,-2.5835,1.1296,-6.8207,6.5158,0.83525,
2.7764,-6.5225,2.127,-3.3002,17.8658,-45.4382,20.4481,1.1066,-18.5742,-6.7668,-11.9536,-20.5114,6.6068,-2.5893,
0.68164,-0.34608,-3.3032,-2.1378,24.5071,-28.6119,21.1499,0.55827,-7.698,-2.5044,-0.14915,-9.0371,-0.056139,-4.8441,
5.9436,4.0128,5.0899,0.40078,12.9135,-30.8718,9.2758,3.899,-15.4311,-2.3539,-5.9248,-14.2795,7.1778,0.74943,
-0.92094,-2.7355,-0.27672,-5.6488,22.503,-27.3323,12.8166,1.4959,-16.192,-6.31,-4.364,-13.6637,4.0961,1.4274,
-0.86568,-1.607,-8.9372,-4.346,28.8656,-22.3179,12.0476,1.4061,-12.8104,-4.9676,-2.1737,-8.0234,-2.8986,-2.0327,
4.7301,-1.2699,5.699,0.97619,13.0337,-35.0788,-0.0036399,3.4912,-17.5856,-0.57192,-8.5513,-14.0497,6.6751,1.7049,
-3.5079,-0.47077,-1.5123,-4.626,8.0334,-26.1051,14.0966,-0.81612,-2.4304,2.1135,6.0618,-0.91463,2.6592,1.3612,
-2.0921,-2.1293,-2.6264,-6.5176,0.56195,-35.8668,9.2741,2.3663,0.0052594,-2.5926,0.27498,-14.9598,1.7767,-5.228,
-2.4485,-7.7861,1.3876,-2.7521,-2.3643,-43.8379,3.415,2.7063,10.6098,0.93694,9.4173,-12.7362,6.4908,0.38834,
-4.471,-6.5963,-3.2752,-0.41803,-1.0174,-34.218,8.2716,0.85691,24.0732,4.014,21.1448,2.128,3.932,3.4983,
-0.58734,-8.3692,5.357,-3.044,-13.2484,-38.1905,-5.963,2.9747,8.5288,-5.6264,6.1375,-12.0997,5.8652,-2.7371,
-1.9984,-3.0468,0.21531,-3.3433,1.6465,-21.799,7.8921,0.86799,6.571,-0.46856,18.3025,-13.3019,3.5851,3.2117,
-0.67339,-0.69506,-3.8952,0.95439,8.4167,-13.6219,6.6955,1.539,-5.6336,1.2466,6.3584,1.5962,5.5394,7.1161,
-1.8383,-5.2326,0.43587,-0.3077,1.4042,-12.5637,7.499,2.1696,-19.3956,-7.2639,-7.2798,-4.4048,5.9299,3.0737,
-1.7278,1.3481,0.40995,0.67485,5.1761,2.2902,19.1004,2.0396,-8.229,-5.3821,5.2086,5.5006,1.2356,1.9252,
-0.65999,1.7489,3.2772,4.4905,-0.4369,-5.6805,3.8544,1.4351,-11.1099,0.24329,1.0392,-1.0964,5.0181,0.36364,
-4.4768,3.5721,0.18849,4.703,12.1228,1.8912,12.9022,0.38513,3.6567,5.5313,12.5463,12.9489,2.7888,3.2343,
-3.2438,-0.01618,-0.78669,-1.8457,1.7545,-5.9351,7.3078,-2.0486,10.0655,2.3074,12.2754,14.1002,-2.1992,0.14776,
0.56597,-3.6309,1.9118,-0.047475,6.7106,-13.051,-1.5666,-0.23819,11.149,4.8203,11.7801,7.7108,3.9585,-1.0662,
0.050083,2.3716,-4.4698,3.3294,20.408,1.2294,8.1684,-1.1882,5.6594,-2.6998,6.735,0.49924,-1.5817,-3.4123,
5.8317,3.1936,6.8856,5.0578,30.632,-9.9316,3.34,4.1857,-8.7802,-8.8048,-7.7691,-13.6307,4.2978,0.16641,
-0.78498,0.59163,2.1339,0.41624,28.7943,3.198,8.442,1.0423,-5.2404,-2.9736,6.797,1.2871,4.0402,1.6029,
0.46718,1.2793,-1.6093,3.0426,22.4871,-0.12711,3.3559,-0.22532,-9.5055,-4.0003,5.6663,-1.4412,0.6645,0.30168,
3.3317,-1.2076,8.6101,6.234,12.9432,-9.2787,0.74446,4.1265,-22.9147,-6.1708,-4.3149,-15.4547,4.481,2.2118,
-1.6887,1.7571,0.38097,2.9677,12.1664,5.378,14.6793,1.4686,-7.4398,-0.4977,10.044,-0.42744,-1.0907,-1.2956,
1.3047,0.20544,-0.12428,2.3077,-2.6636,-9.0447,2.7113,-1.0297,4.9374,-1.9141,5.4643,5.8645,0.90292,-6.5205,
0.021094,-2.9404,-0.35779,-0.48231,1.2319,-8.2611,7.1279,1.2013,1.9896,-5.8966,9.2338,2.3796,2.536,-0.10329,
-2.1491,-3.969,-2.5057,-3.1042,-3.4211,-5.1141,6.4595,1.8523,7.4141,-1.4457,12.7773,6.8163,1.1787,0.62604,
-2.7433,-5.4179,2.2241,-2.1953,-12.1341,-18.9072,-5.2565,-2.3564,18.7792,7.077,19.9647,3.2741,2.3131,-4.4734,
-4.5067,-1.7186,-6.1038,-1.099,2.6939,-3.6728,1.8076,-5.5892,11.8681,-1.0602,15.8745,6.4519,-6.5026,-2.7585,
6.3686,1.2771,6.3135,6.1973,2.8942,4.9837,0.73527,5.3514,-2.944,-11.6019,0.82201,-8.0352,3.5286,4.1554,
-0.28005,-3.6203,2.5603,1.0052,0.79189,7.0948,10.8141,1.1739,-16.8674,-5.1212,-5.3738,-5.0225,1.8706,1.014,
-3.1558,-0.028607,-5.788,-2.4296,-1.6658,-1.526,10.6471,-3.2353,-1.7553,5.309,9.0486,9.3788,-2.098,-2.9032,
0.16707,-1.2317,2.513,0.36776,-13.3759,-14.6904,-4.0917,0.092326,-15.75,-1.5166,-5.5943,-0.70414,5.5001,-3.9338,
-0.56609,0.046784,-3.1816,0.10403,-4.1375,0.29102,8.3254,0.80992,-9.2616,-4.5593,2.4541,13.4381,0.10819,-0.083075,
2.1192,0.76711,-5.1597,-1.1068,-11.3608,-5.6317,6.1393,0.038192,-1.7158,-3.5626,7.8507,9.6188,-2.5496,-0.80076,
-2.5877,1.9264,-0.27081,0.64682,-8.0281,-7.4632,4.5657,0.27687,9.7153,3.1586,13.8872,10.7289,3.147,1.8984,
-6.7705,0.84669,-5.5565,0.60824,-10.9206,-0.26652,-0.046813,-4.5598,12.5066,-1.8509,13.0542,5.7471,-3.7901,-3.036,
4.4817,2.001,5.1405,6.5971,-10.0246,-4.3481,-1.2491,1.7391,-1.9823,-4.8736,4.7993,-7.3724,1.9807,-0.20252,
-1.3308,3.5681,-4.5679,1.6215,4.6768,10.0128,12.9259,-0.53437,10.4291,-2.8939,11.9827,7.1699,-5.6099,3.425,
0.91823,3.1131,-1.6423,1.2832,-9.7038,2.0609,-0.021483,-0.26134,6.188,-1.515,8.1307,10.9578,-2.1398,2.0143,
2.0684,-1.1715,3.5175,3.3754,-15.629,-2.1606,-6.0462,-0.004697,2.2013,-1.6655,4.9913,-1.9922,4.978,-1.2401,
0.25709,4.9248,-3.683,4.8606,-0.59128,12.0691,8.4166,0.23655,2.7925,0.12209,5.8972,10.9018,-1.3463,-2.3705,
1.2058,3.6652,2.3223,2.6405,-8.6305,-2.7551,1.7655,-0.74174,-6.0523,0.59646,-4.0979,6.873,-1.2657,-4.1567,
-1.036,2.7221,0.496,1.7589,-8.8353,4.1591,8.1673,-5.7587,7.5674,-1.1263,6.5121,10.5582,-1.4305,-1.7379,
3.8467,5.933,0.46601,6.4739,-8.3054,1.9816,2.3749,-2.0389,-4.456,-2.0228,2.7472,0.28398,2.5115,1.7406,
0.48261,1.4799,2.1255,2.9522,-15.2787,-9.4657,-0.41895,0.25279,5.2116,2.1961,4.2698,2.4363,2.12,2.3593,
-2.1977,1.1499,-3.5459,-5.6608,-15.0851,0.50202,9.9703,-1.4498,16.2268,-0.10504,4.7363,11.6899,-4.5149,-2.8437,
4.9238,-1.5704,5.1028,-1.706,-18.2776,-13.6281,-0.51009,1.2885,1.1532,-2.2681,-9.6479,-3.1115,4.1919,-3.8782,
-0.19185,1.4159,0.94023,5.1453,-5.1298,-12.9307,8.1976,-1.199,4.8199,7.027,5.031,9.9701,2.4942,2.1391,
-3.3138,1.5724,-6.588,-0.70705,-11.3295,-9.9857,-3.6224,-4.26,13.9307,0.57983,10.5139,7.2028,-5.6092,-6.9073,
3.8747,0.75491,1.2789,-1.8697,-15.2293,4.7135,-10.8771,2.5028,3.6951,-2.1063,4.8216,-2.1477,5.0914,-5.2878,
-5.2757,-1.9417,-6.7514,-4.8912,-13.5924,18.5307,0.1396,-4.637,11.4269,-2.703,7.6656,5.9351,-1.2398,-2.3192,
-1.5844,3.9591,5.705,2.6333,-18.5616,16.2135,1.0958,2.3899,9.2953,3.7259,6.7235,-2.1335,3.1731,8.425,
-7.9973,-1.3396,-2.591,-3.0683,-20.581,27.5332,-4.0317,2.0055,14.2812,1.3332,8.9716,-0.80066,-4.971,4.7865,
-2.2148,-1.7412,-3.8818,0.97219,-25.1307,25.3993,-9.0924,3.3315,7.1578,1.7351,4.0946,10.3346,-4.1908,2.5711,
-0.15398,-2.1189,4.0636,3.3242,-19.7667,9.7754,-2.2801,4.5776,-1.4666,2.1132,1.9209,9.2324,4.2556,3.3809,
-14.1238,-4.4021,-10.2802,-10.8548,-7.0113,16.5399,2.1952,-4.8559,6.3344,-3.7984,5.6618,13.017,-8.533,-5.9807,
0.82363,3.0926,1.5446,1.8474,-12.3754,11.6909,-12.0365,7.0044,-5.1331,4.142,0.019694,10.7899,3.5479,1.1263,
-2.2388,-0.94931,-0.47629,1.737,-12.5968,13.4,-11.6762,0.31764,2.4057,1.0014,1.9467,13.0346,-2.4496,0.094877,
-5.9608,3.4464,-12.4993,-4.6337,-11.359,15.4881,-1.8166,-2.1115,5.6358,-2.4331,-1.5445,8.8785,-9.5334,-3.7672,
3.7966,4.4447,2.3507,1.1877,-22.0055,10.9436,-6.769,8.3792,-7.477,1.3285,-6.5133,-3.9465,4.7771,2.0022,
-0.76954,-0.1603,-1.5258,0.63449,-20.2032,24.387,-1.5422,1.1276,5.0232,-1.6437,7.3748,6.8951,-2.258,3.8107,
2.4101,5.3925,-1.6757,3.7294,-19.232,23.0445,-6.5113,1.3009,0.62441,-1.3041,-0.057078,3.8303,-3.3278,3.3407,
-2.5552,1.6945,-8.324,-0.83264,-19.5243,18.7693,-5.1568,0.25898,7.3354,3.1129,-1.018,7.9388,-3.1281,-2.6444,
-3.8482,-0.81732,-11.6805,-5.6029,-30.4039,13.3048,-4.365,-0.72089,14.608,4.3724,7.2378,11.3189,-4.8686,-3.9315,
3.3726,2.8471,1.7943,-3.0981,-32.6775,-1.2322,-11.5749,3.9021,3.3677,3.3867,3.1881,1.2398,3.3772,-0.56258,
-6.4707,1.2301,-10.8464,-9.1787,-16.6169,12.9417,0.68876,-3.0809,7.9859,-0.67289,6.3713,11.2887,-6.4664,-8.2416,
0.90717,3.3256,-3.206,-0.19207,-15.0174,11.8037,1.3706,4.0936,-2.8574,2.0188,3.8196,4.1032,0.42933,-1.7218,
2.299,3.608,0.36039,4.1578,-13.634,13.9876,-0.15793,6.7405,-3.1679,3.3435,5.0367,4.8214,4.7419,8.0225,
-2.1773,3.3916,-13.6405,-4.7683,-12.334,11.2206,-0.63039,1.0334,2.3249,0.25081,3.7706,16.1013,-4.2193,1.757,
2.0505,0.0548,-4.3862,-6.1692,-21.4759,-3.5526,-9.9928,3.1408,-5.7686,1.9232,1.375,5.7354,4.9517,-0.51779,
-8.6776,-5.2509,-15.21,-7.2456,-6.69,10.7605,-0.23396,-3.7963,3.2548,0.3618,10.4518,17.4426,-4.9866,0.95977,
-1.8904,-1.5614,-8.0309,-1.0262,-1.9503,13.2479,-2.1481,2.698,-1.7612,5.1603,3.0758,22.1806,-0.83099,5.2405,
-1.0534,-2.6728,0.88686,-8.4363,-15.5716,-1.647,-8.045,3.7411,4.8522,7.0201,1.6861,16.7522,5.7266,2.7567,
-4.8468,3.7543,-10.2533,-9.858,-9.3347,12.5519,0.63263,0.62439,12.756,4.6705,8.8156,25.3883,-2.8115,1.6272,
0.74641,0.63632,-6.2639,-3.0003,-10.2206,2.399,-11.9386,4.4435,-2.1093,0.051702,-2.3184,9.765,3.6235,4.9038,
-5.8061,-5.9096,-10.9495,-9.328,-9.8486,2.9782,-6.1608,2.0075,4.645,1.2537,7.7029,7.6121,2.6829,4.3688,
-3.7705,-3.3854,-5.2309,-7.563,-17.2116,-7.5649,-2.1758,1.6461,4.6077,5.7582,6.0354,14.6272,-1.5754,0.49126,
-2.5802,-6.5569,0.38538,-6.1451,-14.7327,-15.3059,-2.5274,2.5114,-1.4536,6.8587,5.1911,14.2317,-0.034834,-0.50231,
-3.3892,-0.86087,-7.3505,-5.2945,-3.7253,-1.8541,-2.3757,3.807,12.7336,5.4833,18.8594,12.8959,2.8598,3.3842,
4.0445,0.15511,1.7676,2.254,-17.4816,-13.7939,-16.2127,6.9531,-2.1304,-0.63024,3.6278,-1.9779,9.919,1.253,
2.1148,0.86847,1.9023,1.8776,-9.443,0.77228,-1.1399,4.3665,-6.1001,1.0946,2.3253,4.7688,4.7444,0.45466,
-0.66314,2.0217,-6.6475,-4.7425,-5.743,-3.8538,-0.22793,2.4173,-2.1187,2.2337,4.355,12.9188,-2.0482,1.1503,
-3.998,-2.9201,-6.2489,-3.012,-6.3625,-15.1915,-5.0347,-0.62006,-1.5094,3.5462,2.1657,5.8769,0.96741,-0.8467,
-7.6145,-1.7806,-11.1766,0.061276,-2.6063,-0.78266,9.3673,-5.4036,9.6684,-0.041031,6.3741,11.7908,-2.4651,-6.5805,
4.4115,3.1465,0.58122,0.0576,-16.4296,-14.8357,-4.3308,-1.223,-5.0117,-5.3412,-5.0956,-3.0166,4.4313,-7.15,
4.8702,6.0912,-1.6228,-4.5256,-2.6694,0.15444,0.9907,-0.90862,-10.6163,-5.7436,1.2357,-0.063842,0.54997,-5.9981,
3.3727,7.4125,-9.4792,-4.977,8.337,9.7861,9.3674,-1.577,-9.7384,-8.5325,-5.3459,4.5197,-7.4368,-8.2893,
10.6423,11.0653,0.48933,-0.098832,5.1855,1.245,-1.5587,5.0253,-23.2541,-6.8155,-15.8712,-6.1155,3.8555,-2.7305,
10.0036,13.7761,-9.1808,-4.4315,17.4076,15.2703,0.46274,1.8315,-11.8562,-8.8169,-2.8676,3.4102,-2.1602,-4.4946,
13.9829,11.2621,-5.9786,-2.4786,22.3889,28.4541,-0.77009,1.9628,-14.2781,-9.493,-8.7213,-0.40961,-4.2,-9.7688,
4.9494,6.7302,-7.5483,-3.7759,24.9022,35.4237,5.5429,-2.4935,-9.5648,-9.4051,-11.5723,2.0253,-8.7685,-10.6287,
7.0624,14.5213,-11.4335,-3.0672,23.4078,47.3983,8.1026,-0.8974,-14.7752,-13.1793,-10.8777,-7.2555,-10.6523,-7.5806,
16.0386,13.4091,-3.7581,-1.1959,24.1725,46.1211,4.001,6.6278,-27.9887,-18.4141,-18.6612,-20.9201,-4.47,-8.813,
11.943,13.3272,-8.594,0.080907,36.8222,57.4539,17.8609,4.0607,-13.174,-15.6223,-13.4444,-9.9035,-10.2275,-9.0073,
12.9137,13.7329,-4.463,-0.16491,22.9232,45.209,7.9917,-0.28026,-26.4835,-18.7823,-26.7377,-18.7093,-9.8549,-11.118,
11.8977,11.2219,-2.9901,-2.3244,26.6093,49.9685,19.3226,1.9059,-32.4868,-16.9322,-21.6385,-26.5045,-8.0585,-8.282,
7.3274,9.5842,-9.5592,-0.73868,39.1127,58.0577,28.7685,2.7559,-16.4376,-13.0238,-11.6631,-14.7909,-11.4309,-6.3388,
6.8878,3.7065,-3.6834,0.2695,22.6659,40.4742,12.9424,0.6619,-29.5513,-14.171,-20.6043,-23.0625,-4.4786,-4.9942,
4.3056,6.1359,-8.0415,-3.3619,11.4243,30.6944,1.4405,-2.5106,-13.6783,-11.1514,-5.268,-7.5787,-5.8968,-3.0075,
6.9395,6.7314,-4.6672,-1.2317,5.9179,17.7653,-3.4668,1.9781,-13.7012,-6.1437,-4.3493,2.1553,-2.1688,-6.2013,
1.2203,-0.90308,-1.9768,-1.64,7.4908,2.5994,-5.6692,3.3055,-9.9868,0.0092515,-1.1965,5.4002,3.7457,-3.9012,
-4.3963,-2.5364,-8.8478,-4.6748,2.9442,-11.6566,0.2148,0.45627,4.7124,-1.1964,12.1319,11.5839,-2.9868,-1.4978,
5.9904,1.4722,4.6985,3.8004,-10.2479,-23.0083,-11.8496,7.6593,-2.6807,-1.6065,6.1013,-0.68032,4.9052,5.3405,
0.32829,-1.9901,0.077786,-0.76599,-8.1867,-18.2533,-11.1387,1.4151,3.7471,0.9,8.1458,3.6988,4.129,2.128,
2.237,-2.3529,2.0015,-0.23786,-18.7825,-31.2581,-7.0957,3.7406,4.0044,6.1489,7.6569,0.10267,7.7378,-1.8558,
0.1746,-1.7298,6.2198,3.6323,-22.9585,-34.0829,-2.3316,5.9263,0.38973,3.3694,4.7873,-9.5445,7.7555,-0.78058,
1.6102,8.4972,2.4724,7.271,-9.5294,-17.9379,-2.6739,2.6784,-5.4185,-1.6533,1.1259,-4.6332,3.434,4.5687,
9.2266,6.5413,10.519,6.353,-20.0449,-30.9616,-16.6134,5.8924,-19.1934,-1.0719,-12.4393,-16.4066,12.3868,1.4023,
1.4421,1.3281,3.1389,-0.29511,-22.6988,-35.3704,-12.6036,6.0208,-3.9418,4.295,2.4071,-4.3349,9.233,-3.9845,
1.3554,3.1768,-0.90558,0.6867,-23.265,-34.6945,-16.6681,6.1417,6.4181,1.627,12.7475,-3.5927,5.7867,-1.3351,
0.79211,0.57564,3.4871,2.5737,-16.5667,-35.0232,-14.7039,5.2908,-7.9467,-0.39884,1.3773,-4.8234,8.814,4.5296,
-6.0041,2.4695,-5.399,0.0089098,-2.0751,-18.8218,0.2783,-1.2934,2.1708,2.9993,9.0072,9.566,-0.87368,2.3294,
1.1048,-1.5353,0.70927,-1.4377,-10.6275,-24.5616,-0.34104,-1.6979,-10.9746,1.3733,2.2001,3.5687,0.14284,-1.6665,
-0.64869,-4.0942,-0.53812,-0.6285,-4.9286,-18.5086,-0.079615,2.5017,3.4222,4.9063,9.0579,6.4881,4.2316,0.60262,
-5.6712,0.73093,-7.4955,-0.83152,-8.73,-21.9772,-0.31557,5.003,4.9043,5.817,7.3094,1.5193,5.1828,-1.6025,
-4.1259,-0.036052,-1.0204,-3.433,-12.7858,-34.7586,-8.7325,5.9078,-0.45164,5.2268,8.0759,-4.5977,9.4513,-0.30125,
-6.2887,-0.99799,-3.8515,-3.7091,0.51465,-22.6708,-4.3524,2.6611,13.6755,4.9134,18.1964,9.7782,4.0638,4.0549,
-1.8138,-3.5894,5.2979,-0.83527,-12.7726,-35.4106,-14.9373,4.1884,-1.2451,1.9673,3.8485,-4.9085,9.3638,0.19643,
-3.1512,-4.3379,2.5694,-4.1596,-13.9345,-30.9959,-4.4001,2.0089,2.9272,1.8493,10.8484,-1.4805,8.802,1.149,
-1.5159,-2.1495,-1.9231,-1.4999,-13.5805,-18.0491,-1.726,3.3346,2.2697,-0.67182,12.6076,8.2493,2.4888,4.9364,
3.3953,-3.4668,10.7254,4.3747,-20.9607,-30.4637,-11.2634,8.4372,-11.9665,-0.14957,6.5485,-6.3457,12.4628,5.6041,
-0.42381,-1.5715,-1.7283,-1.4314,-12.2312,-20.2,2.6688,1.905,1.1642,-2.3102,10.7349,-1.2649,2.797,0.68857,
8.5201,5.9946,3.9195,3.2342,-13.1841,-24.0492,3.232,6.8528,-13.0056,-1.9302,-4.0092,-5.2864,4.7983,0.40629,
1.0191,0.091288,3.9248,0.38906,-16.0087,-21.4012,2.3148,3.7901,-15.4792,-1.0915,-8.4682,-8.1027,8.6078,-1.3053,
-4.5859,-2.0836,-7.6386,-3.7319,-20.5916,-22.7685,-6.742,-1.0168,-0.45049,0.66148,6.1399,5.6401,3.0299,-1.4682,
-0.69535,-2.6815,-0.67284,-1.8207,-28.7563,-35.5024,-20.4375,0.73141,-1.508,2.3086,-5.4362,-2.6521,3.571,-2.5854,
-3.064,0.85365,0.33163,-1.7117,-12.9309,-25.7799,-13.0649,1.6516,0.51086,2.1703,-1.7358,-0.083035,0.94683,-3.8763,
2.6637,3.4538,2.9631,-0.40395,-9.1421,-17.7254,-4.8092,8.0602,-11.3301,-1.0932,-2.8367,-6.1034,5.4695,-0.9924,
2.7448,2.0417,0.61611,-0.13828,-7.3885,-8.226,-0.90527,6.3713,-5.1067,-0.78664,-2.9075,0.28838,4.4185,0.75437,
0.65196,5.2932,-1.349,-0.12999,3.178,-7.2505,10.2363,1.6507,7.2508,0.22488,3.5335,4.6094,-0.18542,-3.6292,
2.541,2.5655,8.3729,0.35975,-5.2077,-20.9155,8.1758,3.9618,0.54921,0.21139,2.3576,-8.2002,9.4667,-2.9295,
-5.0835,-1.686,-2.9755,-6.6519,-4.6542,-16.4066,8.8904,-2.3017,6.5416,-2.4531,5.3494,3.1378,1.4271,-2.5126,
6.0678,4.9231,6.1211,-0.22682,4.5429,-7.9504,2.3314,4.3444,-7.9509,-1.1006,-4.3716,-3.076,6.8851,4.6276,
4.7394,1.7352,5.7533,0.26872,8.6086,-10.3659,4.1197,5.5295,-10.4866,-2.9628,0.22905,-10.1225,10.3279,4.8319,
-1.8112,1.6308,-8.089,-3.1216,2.7899,2.3076,7.2467,-0.10469,4.2426,-5.1953,10.8204,-0.83803,-0.89684,-1.2424,
6.0102,4.4259,6.3761,1.404,-2.6799,-5.5436,-4.7568,1.3483,-8.1833,-1.9911,-2.3619,-8.9825,5.9063,0.76036,
-4.9557,-0.66078,-4.6122,-2.5366,7.6036,-4.7293,1.7947,-3.0714,4.3585,1.9847,2.1177,4.5715,2.177,-1.2135,
-2.0068,2.0304,-6.9866,-0.69721,-4.1806,-13.3634,-7.2306,5.0667,2.41,3.071,2.2321,2.128,1.8055,-1.8635,
4.6213,3.1137,5.243,1.0321,-8.0271,-8.9459,-6.5558,6.4501,-4.2421,-1.2109,0.89307,-8.8455,3.8665,-0.06474,
-2.4046,2.9271,-5.1947,-2.8865,3.5415,5.6908,7.9376,-3.0962,10.1125,-2.5843,4.6956,5.7853,-4.5604,-1.5069,
-0.81456,1.3052,-1.5086,-2.2313,-9.6864,-8.2689,4.4481,0.946,-0.2562,1.9091,-9.5654,0.97864,1.0159,0.029328,
-0.52426,3.396,-3.5872,-2.8204,-1.6334,6.3272,0.08429,4.5047,9.1592,2.5175,1.3724,8.3922,-0.25038,3.1611,
2.6402,6.3258,-5.0592,0.96428,2.08,16.9146,6.1048,3.9934,1.1378,-5.5873,1.0491,4.7552,-1.9226,0.3203,
0.55361,0.64356,-0.8993,1.8703,-7.6858,5.7763,6.2204,1.3437,-7.6073,-5.734,-7.6905,-2.761,-0.36097,-3.0734,
-3.577,1.8102,-7.8352,-2.3393,-5.0555,8.5632,4.16,-0.42416,6.9491,4.01,4.0991,11.5047,-6.3649,-1.2017,
2.6634,3.3886,1.0708,-0.51192,-6.9213,-6.0505,-10.1896,4.1808,1.109,0.63617,-3.6189,-3.2856,3.4168,0.55736,
-1.594,3.426,-0.68044,-2.1682,7.594,8.4125,4.5218,2.2425,-0.64473,-6.3921,1.6597,2.4551,3.9349,3.6572,
-1.2573,4.4258,-7.6295,-2.2791,13.2846,18.754,18.3504,1.385,10.7221,-0.46451,5.1756,15.0823,-2.8087,3.1968,
1.9513,-1.3832,-4.0385,-0.93727,-1.6125,3.5288,3.1494,5.3995,4.5354,7.5169,0.28552,0.43881,5.7958,0.83604,
-5.1554,0.86922,-10.7858,-4.9786,4.8715,-4.7574,-4.5114,1.4599,4.9864,2.0044,8.2224,6.4383,3.2786,0.54468,
-0.26654,4.4323,-3.149,-2.0286,0.48163,-8.0874,-3.0356,3.0598,-6.159,-0.76718,4.5958,4.8469,5.7332,3.1633,
-5.071,-4.0286,-6.8162,-3.8348,-7.742,-13.3865,0.039279,-0.016108,6.744,2.1711,6.2484,5.0382,1.5331,2.0094,
-0.66941,1.7567,-10.0227,-0.95364,6.8225,1.5167,4.1343,3.6003,6.0984,1.7999,2.2581,12.2078,2.164,6.4686,
5.3963,5.2667,-1.4676,1.2727,12.0773,11.4281,2.6809,8.4455,-8.3675,-4.3336,-7.7598,9.7881,12.398,9.2135,
-2.3991,3.2633,-7.4053,-3.3831,6.7727,16.2858,13.848,1.431,-3.8886,-8.1712,-0.30454,13.2979,3.2182,4.5631,
2.3242,-0.065548,0.0289,-1.4929,-7.7337,1.2087,4.5815,0.62228,-10.6451,-5.0298,-7.2757,-0.75636,2.3023,2.6021,
-2.8767,-3.6768,-2.6242,-5.0185,-1.3641,-2.5995,3.1015,-0.62012,4.0936,0.33387,4.4888,13.389,0.95905,3.1696,
-4.6323,1.846,-10.6614,-4.2355,0.6459,11.6564,3.3974,3.7554,15.0557,1.2777,11.4503,26.6857,-2.9549,2.497,
2.6353,-1.398,-0.14003,0.59815,-13.4929,-3.143,-8.6168,6.6633,0.052331,1.9242,1.3631,10.9845,4.694,3.5522,
-9.5742,-6.1346,-12.1829,-7.1507,-11.358,-2.7136,-1.8331,-5.3059,14.1492,6.1473,15.3813,15.0252,-4.2645,-0.5175,
-8.7583,-5.5256,-12.1744,-8.4085,-19.1119,-15.807,-15.8231,-6.1923,27.4002,6.5018,10.723,13.8832,-3.7672,-5.5477,
-1.0022,-2.3018,-4.2133,-1.6377,-3.8652,-2.3253,-5.3532,0.92788,11.6562,5.6295,-4.0204,9.1936,3.2075,-1.3582,
-3.5934,1.4515,-13.8427,-1.7806,10.4667,11.9142,9.068,1.1129,6.8595,1.6761,2.8486,13.7034,-5.9033,-2.4822,
-0.72668,-0.80426,-4.0941,-2.8786,-4.2613,-2.9006,-2.6838,3.6977,-1.0239,-1.0756,5.8116,-1.2188,2.8871,-1.128,
-0.92405,-1.4794,-3.1255,-4.3931,-10.634,2.817,-2.2818,-0.13956,2.653,-0.77006,5.7039,1.3852,2.9548,3.5194,
3.7107,3.1887,-3.6614,1.896,-4.4526,13.0119,1.4705,0.59172,-10.7628,0.96337,-8.7384,10.2202,-0.35596,1.6206,
1.0784,1.5516,-3.9231,0.81839,-7.5595,0.18005,-1.0279,2.9668,-1.9221,1.8694,-1.5859,12.4995,2.5579,-3.7788,
-2.12,0.73534,-8.2673,-4.7746,-2.0444,-0.55388,-1.2074,3.0295,12.2932,0.070273,11.2835,13.9184,0.23505,-4.2752,
4.2737,1.6551,4.2799,0.33263,-1.4398,-7.7515,-8.3658,8.1504,-2.5444,2.4762,-3.4935,2.96,6.0055,1.2835,
-4.1772,0.10975,-6.1001,-4.9902,4.4311,6.6931,6.2362,-1.4974,-6.971,1.8454,-6.5379,16.2799,-2.5497,-2.6497,
-0.070666,0.5851,-6.2165,-7.1009,1.7549,-3.8316,7.1878,-1.89,-1.2506,-2.1217,2.531,6.6261,-4.3249,-4.9009,
2.103,-4.5115,4.0387,-3.0597,-1.0017,-14.448,-5.5358,3.7673,2.9221,0.17503,5.9948,-1.725,-0.93219,-2.9198,
-6.7001,-2.3123,-7.2906,-2.8759,4.8432,0.51892,0.58118,1.1309,16.8467,5.4669,13.8301,12.4785,-4.2505,-4.1906,
-2.2003,-0.96877,-2.2734,-4.8725,-3.4011,-13.3708,-6.9255,0.82206,3.9053,6.3442,0.22582,4.1375,4.9226,-4.1802,
-4.4788,-3.3208,-2.1375,-6.5083,6.4437,-9.6765,3.131,-0.67353,8.0093,4.5173,2.1405,1.4786,-0.19346,-1.0373,
-2.5229,-2.3986,-1.7678,-1.5385,6.2982,-6.4446,0.77398,1.0541,-0.42498,1.1132,-0.15712,7.8979,-4.2792,-0.73364,
-0.44331,-4.1829,3.6404,-2.892,-5.1669,-14.2528,-9.8778,2.4371,-8.5944,0.082119,-0.1477,2.6033,2.2441,-1.172,
-6.6832,-0.075538,-7.1828,-5.1291,6.2304,0.70234,4.8149,-3.4937,6.0212,0.55913,13.3585,16.5471,-8.0135,-3.5118,
-0.015721,0.41093,-0.0034051,3.3738,5.8565,8.2525,5.8516,-1.3559,2.647,0.52558,6.7724,6.7569,-5.1225,-5.2293,
-4.1121,-5.6393,-1.6904,-0.44402,1.8897,2.2137,5.2595,-1.9979,15.7445,3.1456,16.7304,10.4488,-3.128,-3.2283,
-4.3473,-1.9265,-4.963,-3.3099,-4.0082,2.0809,-2.7688,-0.91368,19.6206,2.9569,13.7984,21.3915,-5.3504,-0.14256,
3.3849,3.2508,6.1806,2.9142,-0.15255,7.0177,-4.7719,3.2385,4.3433,-0.35404,-1.1295,11.19,4.3706,2.9995,
-5.7358,1.8505,-6.4823,0.088291,10.7026,20.6967,4.9144,-2.4994,4.6854,-0.091829,5.807,17.0261,-3.3634,-1.7602,
-5.8736,1.7394,1.1375,-0.88087,-2.9545,10.4165,-3.0932,3.9175,7.7787,5.6983,2.5665,14.5587,-2.1978,-1.6542,
-10.1012,-2.4625,1.31,-7.3362,-3.5006,10.9966,4.082,-1.8614,12.3734,0.29492,2.6537,10.0695,-3.7529,1.096,
-9.9766,-2.7967,-12.7479,-6.4136,2.4943,17.5677,9.1398,-11.3907,13.0773,-3.0972,8.279,11.8759,-11.2405,0.54826,
-2.8705,-1.4236,-1.6187,1.9249,-8.0193,2.4136,-5.5086,-1.7892,1.9283,6.0067,3.203,7.066,1.2445,-0.20753,
-11.3756,-3.2666,-8.2707,-5.9036,-8.9846,7.9324,-10.6012,-3.6102,12.4177,-0.62048,9.7591,6.1594,0.68723,-3.0874,
-4.4259,3.6785,-4.882,-1.2103,-3.6248,8.903,-5.6266,-0.018935,8.7803,-3.9575,15.4407,-1.4407,7.3951,4.3289,
-13.0786,-3.5323,-9.1683,-3.7895,0.69004,0.89721,2.665,-6.5255,7.5304,-0.58677,10.4167,4.1896,-0.03868,-2.9209,
-8.4375,0.53603,-5.7262,0.77664,9.3257,14.9434,16.6051,-6.134,2.2583,1.3766,0.15072,16.4712,-4.3747,-6.1201,
1.2278,0.021937,3.7764,3.6221,-0.39307,28.1468,16.9343,-2.8739,-11.9772,-12.6853,-13.9583,1.3829,2.6367,-0.93218,
-10.1739,-0.70251,-9.7063,-4.5487,10.4768,25.4939,20.0158,-7.281,2.1183,-11.201,0.97917,6.4821,-5.9574,1.7751,
-5.707,1.7498,-4.3037,-3.3119,2.1354,9.8642,4.7149,-3.9516,15.4886,3.5711,14.6585,9.4676,-3.6718,-0.74202,
-2.4726,-4.6217,3.6673,-2.1494,-11.0084,3.1261,-4.6068,-2.2687,14.0773,6.1281,13.2971,7.4533,4.2613,-1.6614,
-9.0729,-5.7905,-8.1221,-7.3228,-5.5274,12.0974,9.7696,-4.0605,22.3915,-0.50629,12.0171,13.2729,-2.2611,-1.08,
-6.8413,-5.2021,-2.0912,-7.6063,-14.1134,-2.7285,-4.9166,-2.1297,13.5762,5.0682,1.4141,-1.6235,2.4538,-0.29182,
-7.8768,-3.9258,-4.858,-6.1859,-5.0718,-12.3265,-3.4167,-6.8224,24.331,10.0665,15.4293,8.4763,-1.0676,0.20785,
-2.8249,-0.074872,-3.8432,-3.6456,2.2223,2.5131,10.8883,-5.2082,8.7712,-0.90183,8.8394,5.7986,-6.0652,-1.9738,
-3.1374,-0.070381,1.6901,-3.4268,3.5353,12.6062,12.2839,-0.55693,-5.8551,-3.7398,-3.742,-0.81584,-0.8806,-2.8197,
-10.9029,1.6211,-9.74,-5.3904,0.18965,25.9498,1.6649,-6.0671,3.4138,-1.3462,-0.86642,11.0432,-5.4075,-6.7479,
-2.7769,2.2467,-1.2014,-2.4159,-4.8834,10.7748,-5.9068,-5.4621,0.55788,-1.0245,1.8367,3.8727,-0.50331,-5.6201,
-8.8773,-3.6727,-8.3601,-8.5374,8.425,22.1794,1.6785,-7.0626,10.6473,0.48324,13.778,11.8355,-8.1859,-7.2111,
-3.2829,2.0913,-2.3149,-1.5177,-3.4087,27.3565,0.37246,2.2788,-0.83734,6.4798,1.1407,9.4381,-3.1154,-1.7167,
-0.67561,1.0017,6.0189,0.98372,-16.2196,11.6152,6.6169,0.69601,-14.8871,1.7525,-13.0277,-5.2281,5.2664,1.2786,
-8.3481,-1.9507,-8.4422,-7.2702,-1.1464,16.3411,19.7174,-7.0583,0.10613,-1.7269,-0.073771,9.1855,-7.1009,-1.6904,
-2.0626,-1.3517,-2.995,-3.4596,9.8894,13.9149,4.4344,2.0418,7.3306,3.1974,3.787,9.1163,-2.8185,-2.5529,
-6.5181,-1.9935,-0.64563,-3.493,-4.804,12.3566,1.1555,-1.2137,7.6137,-1.5742,2.3545,-5.5306,-4.3366,-5.0513,
2.3091,7.5261,2.0442,5.1527,-0.53889,17.1588,15.1862,1.9926,-6.9432,-4.1308,-5.7405,-19.2988,-0.94289,0.79543,
5.3036,2.9767,4.0907,3.1559,7.9289,20.2267,11.7437,0.18537,-13.1548,-1.2319,-9.0115,-17.177,2.7291,-1.4219,
-7.0657,-1.0578,-10.134,-8.1202,5.043,31.5465,10.0752,-10.4306,1.7345,0.77022,5.6292,-2.0464,-10.932,-14.3516,
4.445,5.2722,2.5251,2.008,-5.3825,15.5538,-2.0984,2.7283,-1.8643,0.72401,3.7245,-14.5773,-0.63511,-6.2596,
2.0091,-2.034,-0.75988,-0.76407,2.4121,25.1051,4.053,2.3236,-10.6705,-5.8274,-1.5602,-24.5485,0.1259,1.5878,
-3.8958,-3.358,-8.4268,-5.5383,4.6779,37.6988,15.8616,-6.0103,4.0698,-3.0669,4.8002,-8.9756,-5.1841,1.0103,
-1.0107,-3.3977,0.51468,-3.037,-6.449,21.3369,0.80993,-2.0345,-0.87442,2.6605,0.89649,-3.4961,1.1527,0.22658,
-4.8067,-3.1936,-5.7829,-3.8189,0.20445,25.6005,-4.1801,-3.3584,13.1576,3.9469,11.9302,2.498,-5.6651,-2.6793,
-1.3848,-4.2073,-2.3025,-5.277,-4.8693,22.3772,4.0245,-5.8085,2.4862,1.059,0.85002,-7.0514,-4.6023,-6.6159,
0.62648,-2.5086,0.2458,-4.4784,2.1716,35.1346,17.883,0.807,-7.3044,0.031117,-4.9856,-7.5926,1.4584,-1.3982,
3.7221,5.1135,-1.9383,1.3341,1.3181,47.1265,21.7512,6.7839,-5.6606,0.75238,-1.0712,-5.932,0.16586,-1.0736,
7.114,3.1197,7.0958,3.9054,-6.2325,30.1989,6.3461,5.1718,-1.2239,1.9123,-1.2477,-19.6761,2.8072,-7.035,
-2.2307,-3.5752,-5.1399,-4.2829,8.2414,17.4203,-4.0373,-4.5383,12.9496,0.11056,8.2269,-7.77,-3.8689,-4.9254,
5.8574,-1.6735,-0.73411,-1.8568,9.0727,16.616,8.9794,2.7239,-1.9274,-3.0296,-5.5231,-15.7395,1.9068,1.8776,
8.157,2.0424,8.7099,2.352,-0.87188,24.0547,22.5406,9.5499,-8.8014,-1.1606,-8.8071,-20.8206,3.9616,-2.3324,
-6.4324,-1.2137,-5.9127,-5.2609,-10.7017,20.4423,7.0882,-0.90505,5.8267,-1.8138,5.8213,-9.6895,-10.3761,-10.1462,
1.0639,0.30564,-0.37573,2.2858,-18.2543,10.0569,-7.4371,10.2362,16.6848,4.5617,13.7877,-17.785,1.6951,2.9958,
-0.92836,-1.1592,-1.3177,-0.26172,-3.0591,15.7203,5.6629,9.6223,1.7042,-0.050505,-1.1396,-21.0564,1.1113,-0.55815,
7.8042,10.9617,7.4382,6.5027,11.2245,6.0997,14.9643,11.9373,-7.0749,7.6651,-15.1712,-7.7417,0.56242,2.3676,
-2.3048,-0.30108,-1.6845,-3.0463,10.31,-6.7991,-0.033558,1.0979,6.8471,5.2772,-1.0043,-5.8312,-8.6301,-0.18479,
-0.72046,-3.1753,-9.7784,-2.8638,-4.4086,7.7089,-4.2496,1.5142,18.0052,-1.3062,10.1429,-10.3018,-12.9328,-4.0299,
13.4228,6.4152,4.9083,10.0825,-6.1927,18.936,10.1054,15.1616,2.8249,0.94136,-4.5656,-22.9401,1.9432,-0.1731,
5.9892,4.1021,1.3596,3.693,4.7837,31.8998,15.4039,9.4312,-9.0344,3.7769,-10.197,-7.4637,-2.8734,1.2835,
1.7735,-0.96473,-3.5422,-1.3493,-8.5185,15.8858,0.37964,5.4914,-2.2254,1.1402,-4.7645,-6.1722,-11.3781,-3.1318,
5.7644,-1.1478,5.5879,2.829,-2.9462,0.8327,-13.7431,8.7768,0.55921,1.7947,-3.7557,-11.3455,-5.6338,-2.7034,
-4.4634,-3.2481,-8.8473,-4.8121,11.3306,12.4726,1.1815,1.7428,14.6257,-1.928,2.9776,1.1453,-15.1777,-8.5663,
9.9044,2.7314,5.7835,0.77884,-0.79794,4.9753,15.2106,13.2073,-0.35188,-1.3303,-7.3244,-13.0234,-2.2159,-2.7501,
16.6615,9.0752,14.1138,5.794,-14.8501,-4.241,1.5242,16.0306,-10.9358,-2.4556,-8.09,-24.4135,2.979,4.8869,
11.3232,10.4591,5.554,8.8206,-2.028,-8.3251,-12.6673,11.694,-3.531,-1.8261,-3.2661,-8.8487,-0.57446,5.0759,
2.9311,-1.2557,7.1489,2.5063,12.1937,-0.11282,-14.1973,7.136,2.9474,-0.75266,-3.5525,-4.5819,-0.058061,-2.9419,
-4.4759,-5.5189,-7.38,-8.7311,25.5621,12.9091,0.75449,0.44111,10.0016,-4.5641,1.9635,-6.7174,-12.1059,-10.9599,
9.8927,5.6585,0.65509,4.0853,24.0283,-1.9654,0.82971,10.779,-4.6985,0.28948,-3.6979,-20.0526,-4.3897,0.0616,
10.3839,3.3906,4.4724,6.2501,8.4866,-15.9475,14.8799,12.5426,-2.6089,4.1287,-0.1018,-15.9572,-1.7159,2.9502,
-0.84393,-5.0076,-4.955,-7.1399,-6.1226,-24.1494,-0.11287,5.5235,8.6349,0.98848,1.8325,-4.8768,-6.4332,-4.4572,
5.7144,-3.502,1.3681,-4.5421,-3.3448,-34.5108,-14.2061,9.7716,10.2862,5.0268,7.7483,-0.0047225,2.8706,3.2818,
0.068673,-2.3278,-12.2116,-3.3055,-5.0724,-18.3402,-4.7971,2.4362,10.6331,-3.9517,11.14,1.4421,-11.4016,-4.1457,
14.1646,8.4169,2.6211,10.39,-6.6964,-16.8781,-6.4377,16.39,-4.1049,-2.2686,-1.5797,-11.1782,2.4181,1.4055,
16.3277,5.7427,10.779,5.1873,5.5157,-25.2654,-19.7898,17.9377,-17.9586,0.036688,-7.5109,-5.4458,9.7449,11.2031,
3.7789,3.47,-2.8827,-0.42658,10.4872,-17.483,-4.5024,2.7614,-9.1685,-4.3038,-11.3986,7.8964,-4.9398,6.1926,
10.5418,3.503,9.1007,8.5169,-4.242,-14.7465,-7.9681,7.2955,-14.1618,-0.91235,-12.4017,-3.9054,-4.7639,2.2058,
1.2322,-3.938,-3.4969,-1.6351,-0.25162,-7.1133,-21.5901,1.5551,0.78791,-2.3039,-0.088394,-2.2253,-12.6728,-6.1217,
5.9785,2.0828,3.9433,3.2832,13.8635,-19.7019,-14.8718,8.6927,9.779,5.0652,-5.8677,-0.16356,-8.056,-4.7905,
6.1022,-0.45274,10.4556,5.0144,7.1264,-25.2687,-7.2305,12.5094,7.746,5.7252,-4.5517,-2.0819,-3.2344,-4.985,
7.6642,0.53875,1.6335,0.85718,7.1812,-17.0037,-14.5095,10.3126,13.0658,1.5253,9.8214,-2.439,-3.5222,-2.2758,
15.8813,5.8093,10.2124,3.6985,20.8503,-29.4806,-6.4078,13.5509,13.7283,8.1829,20.1988,-11.9334,6.8122,5.0918,
0.82838,-2.0113,-2.6926,-6.4056,16.3456,-13.6117,8.0766,-1.3621,21.3401,4.0763,13.4435,-2.3,-7.6965,-5.5778,
1.1404,1.4836,6.1458,2.6556,1.2648,1.305,-6.267,5.8297,5.9597,-0.5064,-1.4631,-3.608,-5.9092,-4.761,
9.0257,4.5281,11.3207,8.5218,15.2889,15.3267,-9.5069,15.3619,-8.4979,-4.5738,-6.7984,-3.6325,-0.011006,2.0322,
-4.5313,-3.4564,-3.4586,-6.0895,28.1101,15.0097,3.1151,0.34016,-14.7363,-11.0479,-7.8368,2.8524,-14.1103,-6.7664,
6.8278,3.9814,10.8489,4.0371,12.3235,15.5549,-5.267,2.3682,-15.2988,-0.26208,-6.8847,-1.1756,-0.60998,1.8343,
-3.705,0.36828,-0.40707,1.8669,16.5249,28.7216,-2.0587,2.7083,-8.1141,-6.995,-3.0974,4.1978,-12.6247,-8.8808,
-3.2417,-3.7512,-7.3725,0.068146,8.0616,13.1395,-3.14,4.233,6.1115,-2.9599,7.4528,9.4896,-13.0721,-9.5533,
-1.119,-8.8287,-0.18126,-3.7928,-5.4375,-1.7488,-17.0516,3.979,15.3858,3.9666,15.6827,3.1356,1.8123,3.5534,
-6.5955,-3.7193,-8.6065,-4.2881,8.9887,12.4561,-17.5955,1.0892,5.5446,-2.2974,6.7876,9.9369,-5.889,2.1349,
3.9236,0.8422,2.5152,5.1282,22.5494,25.8087,-2.4397,3.434,-8.8881,-2.6415,-7.7197,2.5922,-2.1612,-0.40331,
-3.3017,-4.7519,-2.6974,-1.205,14.207,29.9245,2.6481,-4.7258,-8.4751,-2.724,-1.5922,3.1596,-5.6469,-1.102,
2.922,4.4512,-0.84835,3.9285,8.7748,32.7083,-1.1262,9.2961,-0.97716,-0.87331,2.6007,-4.0198,-2.657,1.6152,
5.6392,1.774,4.5052,7.0672,22.3483,16.6458,7.618,16.4511,-15.0185,-2.2672,-9.1245,-13.4196,0.87684,-2.3381,
-8.7992,-10.8657,-9.8651,-5.4081,27.6359,14.8032,5.2329,1.364,-0.017421,-5.0234,1.0642,1.4856,-11.709,-7.0183,
-1.4023,-5.8754,-2.4043,-1.2273,11.8777,6.2023,-9.181,3.3308,8.1786,1.5445,9.195,4.6504,-0.88359,0.63319,
-1.7999,-4.0768,-3.7061,-2.5996,8.393,1.0097,-10.9198,2.6493,9.6163,0.48772,12.9819,-6.2337,-3.2405,-4.2248,
-0.0051142,-1.6631,-2.2784,0.20742,21.9894,-4.5945,3.8354,1.285,-5.0607,-3.157,-0.08955,-6.583,-5.2157,-4.2128,
5.2978,1.3292,10.3918,8.3901,13.078,3.3939,3.7255,9.885,-18.3751,-2.4852,-11.1714,-6.188,6.6669,4.7171,
-4.902,-2.8483,-4.3317,-2.4776,13.0162,14.5185,3.7429,-0.10853,-3.1726,-7.3977,-0.13679,-2.6833,-4.5798,-1.5915,
9.4922,3.5895,9.7872,4.9019,19.948,-0.45264,-0.81995,4.7187,-9.6105,0.75892,-1.5748,-9.7531,8.7108,3.3247,
8.8021,-6.1549e-05,7.2716,1.7155,14.8945,-10.4279,0.67528,2.9895,-12.4081,-0.73265,-6.3008,-5.3113,7.2241,0.71489,
-3.7773,-3.8567,-7.2647,-8.5106,11.591,4.2978,1.5989,-2.0103,-8.2893,-8.8836,-7.3688,0.79171,-7.3094,-5.1128,
5.6081,-0.73298,6.3068,-1.7332,18.1261,6.8117,5.3595,6.3048,-6.8279,-1.6019,-1.1423,-5.0401,3.3724,1.9426,
-2.2002,-7.1965,-7.328,-7.6547,5.7104,-6.3714,17.8124,-2.5092,7.6818,-4.6393,11.2187,-3.0505,-4.3013,-10.466,
2.5114,-2.6676,-1.8268,-2.134,-8.7323,-15.8713,5.8972,4.1491,4.6898,-2.1916,5.4841,-1.6624,-0.42806,-8.151,
-3.1827,-3.7126,-1.476,-5.1392,5.8917,-6.0007,8.6771,1.2488,-4.027,-0.855,-3.2808,6.3913,0.32075,3.1845,
-5.884,-3.0077,-9.5824,-5.313,19.6382,8.4593,22.2564,-1.2365,0.070753,-1.7678,4.1467,13.7204,-3.5546,3.4752,
-3.3618,-4.9968,-4.4282,-2.3432,4.6006,5.6616,6.8211,1.9712,-0.17446,-2.867,6.067,-0.35924,-1.1727,-3.2413,
-13.2832,-7.5893,-15.2495,-9.4332,0.46842,4.3578,-2.0243,-6.8239,13.936,1.1616,8.1134,13.7623,-13.1536,-1.6003,
-5.4966,-7.8566,-7.8268,-8.1441,8.3943,-3.3752,12.1971,-5.6914,-1.0002,3.2613,-6.4735,8.2366,-8.7488,2.1109,
2.0638,-2.5647,4.6941,-0.4248,14.1569,0.68347,16.4063,0.43446,-2.1452,3.0654,-3.7956,-4.7909,1.8993,1.9845,
-7.46,-1.688,-8.8439,-3.5328,8.7282,4.7398,15.6629,-6.5815,7.8654,-2.6621,1.9757,-2.8162,-10.9891,-5.1245,
4.075,1.3056,4.22,2.9459,-4.3287,-9.6446,23.4,4.4189,-1.7653,2.3181,-5.8554,-9.3959,2.2035,2.4136,
-2.1953,-4.798,-6.3973,-5.1844,-1.8996,-8.7042,16.9345,-5.7284,4.3664,-6.2569,-1.4065,-1.3606,-5.4003,-6.1667,
-2.7862,-0.89497,-10.1106,-4.1502,12.3144,-8.4227,1.8184,-8.036,-1.4394,-6.6042,-2.0452,-1.0377,-9.1739,-7.4841,
1.2369,-0.35933,0.61894,-1.0091,13.1418,-5.5072,1.5888,2.0871,-4.7275,1.9868,-5.2969,-9.1706,-2.3569,1.1596,
1.1631,-1.3016,-1.8283,-4.8049,11.8713,5.4285,15.5935,0.033715,-0.58747,-2.9531,-7.3893,-11.9944,-8.0001,-6.1403,
15.1934,12.8765,12.3814,9.5834,25.2591,8.9587,24.6606,10.637,-13.5676,1.0804,-10.8023,-23.3263,6.5799,-3.3618,
7.4126,11.5012,-1.9796,7.4418,37.8435,22.5212,12.0937,-0.12413,-5.0404,-0.43018,-5.3339,-15.6597,1.7265,-5.0883,
16.8495,16.8369,1.7549,8.2004,46.6604,35.2699,15.9476,1.0884,-6.9073,-1.6094,-6.2189,-9.1768,0.41789,0.76087,
25.9619,19.6831,13.7007,10.1185,53.0198,39.4209,29.0907,2.9513,-20.5929,-13.0825,-19.9458,-22.7262,3.7668,-4.5874,
23.4401,26.697,8.5401,13.8499,63.9386,51.1557,41.4453,4.2202,-10.0778,-10.3691,-12.3616,-14.9751,0.64897,-6.7225,
25.167,23.8902,8.7508,12.2958,63.597,42.9044,46.6718,6.1364,-20.3192,-9.0238,-23.4302,-26.3689,0.85077,-9.4524,
25.3437,28.4818,6.5385,11.799,49.8988,47.3196,47.4865,4.5629,-5,-0.52867,-8.768,-10.6868,-0.40557,-0.44962,
13.2183,15.2038,-3.9767,0.003865,39.1921,39.1777,30.5373,-8.2443,4.5793,-5.3177,-3.9036,-3.6588,-10.5041,-4.761,
17.9685,10.194,10,6.0294,32.261,22.7271,15.5691,2.1325,2.6171,-2.3473,-2.9463,-17.5393,3.8642,-6.1628,
9.1777,16.8132,-0.7229,9.524,27.4333,29.4377,14.635,3.4503,-3.3245,-7.0272,-6.6259,-18.5356,-3.1161,-9.1674,
11.0374,17.2509,3.1771,11.8449,24.3413,20.4408,0.74169,5.6541,-17.2251,-2.2665,-17.3153,-10.6748,2.3737,4.3982,
4.3496,2.9594,2.2631,3.6624,26.0138,19.4553,14.7972,-0.71112,-2.0916,1.9664,-3.9844,-2.0806,0.061704,4.8573,
-0.73189,0.85344,-4.6214,1.5147,10.353,4.188,19.8144,-5.007,7.4339,-5.3822,-6.6376,-5.8119,-10.5471,-8.4494,
1.481,4.8998,2.6456,8.8954,-4.3682,-10.1633,4.5256,2.7655,-7.1121,0.96649,-10.8189,-3.7762,0.93179,-1.9171,
-12.7079,-9.1327,-11.6132,-4.4126,2.884,-15.5788,-9.846,-9.6928,6.9327,0.6673,0.67631,6.8145,-9.0058,-3.971,
2.1546,0.57427,2.461,5.4931,0.78278,-0.54407,-7.0861,0.047833,0.25021,4.0017,-2.2563,0.13911,2.1398,2.5342,
4.9176,3.6733,5.4463,7.3327,2.905,2.9833,7.0774,2.6961,-1.934,-1.782,-3.8082,4.7101,3.2163,3.1051,
-8.3927,-4.742,-8.86,-5.1586,15.2639,-9.247,14.3658,-6.1426,2.5202,-7.4599,1.2408,8.2841,-4.6897,-0.45591,
1.2699,-1.5655,5.169,-0.99267,5.671,-22.7922,-0.59616,0.49249,-2.9332,0.219,4.5408,-6.313,9.6917,6.8023,
-12.9063,-10.6306,-9.2412,-10.5741,-8.7693,-35.5247,-11.5274,-13.0344,5.9194,-6.0611,5.2322,-18.347,-4.9898,-7.7058,
-2.1295,-2.5207,4.2082,4.1604,-18.9684,-41.1062,-4.8099,-2.3702,-0.94347,5.631,-2.5533,-4.4719,7.6019,-2.0613,
-2.9658,-4.7798,12.1507,4.5134,-3.7303,-24.5398,-16.0907,-2.2282,-12.9382,2.4004,-12.5232,-4.2038,9.5561,7.2211,
-4.4751,1.5325,1.0578,2.0734,10.5935,-8.9674,-1.0253,-2.3355,1.9381,1.0515,1.9665,0.1462,-0.8992,9.4394,
-2.0372,1.1998,3.6456,6.0461,3.9319,-19.7576,-0.60187,1.4203,-12.2782,3.1578,-4.6592,-13.9626,7.5907,5.2574,
-6.4945,-2.9697,1.7394,2.5501,-9.5602,-11.1001,2.0856,-3.2444,-0.21284,1.7633,1.1642,-15.8966,7.8583,8.0757,
-1.0429,-2.0684,6.697,-1.7,-23.0866,-17.9057,9.432,-3.291,5.8253,-3.404,0.37121,-16.1479,4.2536,5.9037,
-4.5957,-1.221,3.6436,0.089218,-11.4575,-30.0877,-4.3903,-1.8882,5.2348,0.41569,0.5899,-13.974,5.2032,-0.47608,
-15.4074,-1.6299,-10.675,-1.8446,3.3299,-16.2316,-18.2269,-7.5593,13.5976,6.1751,5.8574,0.96448,1.0349,1.4809,
-8.2163,-3.4605,3.5831,-0.76979,-10.9699,-26.3447,-31.2333,-3.7319,8.4432,7.7326,-1.2432,-6.4447,7.239,6.6945,
-13.5081,-9.5196,-2.4162,-3.6159,-11.7582,-27.6563,-15.2593,-9.7743,22.0366,3.4124,10.4008,-5.0939,-0.90784,-1.4202,
-9.0822,-4.8506,-3.4761,2.1447,1.7218,-32.0225,-15.4281,-5.5724,9.2662,5.3769,3.2693,-7.4394,2.7621,0.35224,
-2.0295,0.50141,5.6498,4.6673,-4.4073,-16.845,-27.2771,1.7516,-5.3898,4.3311,-11.0269,-14.4651,10.0679,8.767,
-2.6309,2.1588,0.24987,3.1822,-1.9735,-1.7343,-11.5404,-1.4868,-1.5717,1.9019,-5.9067,0.50284,1.5103,7.9998,
2.3472,-2.7915,9.3934,7.8115,-2.3375,-15.7302,2.2879,-1.88,-3.4061,2.7521,-1.6959,-10.4941,6.24,2.6995,
-5.5062,-8.4083,3.0455,2.5224,6.962,-25.1503,-6.0439,-8.5154,2.5831,3.551,-0.62961,-13.7206,-1.3651,-1.801,
-5.4165,-4.2882,-0.75243,1.6479,10.6419,-9.5412,-15.0815,-7.7637,2.6693,1.651,-8.0639,-7.354,-5.3807,0.95841,
-2.1993,-4.9954,7.9696,3.4774,9.0393,-21.8639,-8.3918,-2.9594,0.098797,0.58783,-12.4005,-8.8409,2.6551,7.1676,
-6.647,-4.9367,3.876,-0.82856,19.3427,-26.0957,-1.3808,-4.951,14.1929,5.6138,-2.7384,3.018,-1.1196,6.9786,
-1.6685,-2.9532,11.1152,1.3903,4.0822,-34.8938,-15.3979,-2.4847,-0.7587,6.9642,-12.9384,-11.2631,4.9731,7.2827,
-9.0404,-4.4631,3.4582,0.58377,-10.2628,-18.7002,-8.0871,-6.4332,10.1329,3.895,-2.7619,-9.0206,2.9877,4.1945,
-9.9438,-7.0878,-2.5334,1.0307,-20.975,-17.9396,-1.3349,-6.5292,23.6249,6.5538,3.6703,-2.2128,-1.5299,-4.7339,
0.53455,-8.3495,9.9104,2.1739,-16.1013,-30.9633,-15.3548,-3.0042,9.3124,9.2939,-7.8783,-11.9622,6.9974,-0.83463,
-6.246,-1.582,-0.80708,1.5615,-1.0352,-15.7286,-6.8412,-9.0904,3.4515,1.5054,-7.4052,2.8555,-0.65284,7.4106,
-4.6664,0.20012,1.8924,6.5295,13.1269,-0.68489,-15.3488,-7.8221,-10.8556,-5.5748,-20.6996,-9.7286,0.59116,5.7607,
-2.9404,-5.5967,7.0818,3.2455,4.1444,-5.826,-12.4999,-6.8706,-12.2529,-1.8656,-15.601,-11.5552,2.4841,-2.7799,
-0.59478,-2.1274,4.0053,0.39918,0.28028,-17.2865,-3.3138,-8.1456,2.5823,2.3437,-12.0139,-1.9439,-2.2447,-0.92587,
-1.282,-3.687,7.3804,5.4369,-3.8339,-23.2392,-17.2149,-3.5595,-10.7088,2.444,-19.2468,-15.9272,4.8799,7.0834,
-11.3282,-5.3937,-2.7032,6.5567,6.5193,-7.7449,-12.9281,-7.2021,4.0337,0.36894,-3.992,-6.415,-0.71533,0.87406,
-1.2485,-0.97276,7.341,9.2968,2.5127,-14.8725,1.9476,-6.0471,0.53772,-2.3043,-7.9708,-14.9484,0.050486,-7.1326,
0.27266,-4.2888,7.3824,2.9544,16.4619,-21.6929,-3.8336,-10.505,0.023528,0.24409,-12.3128,-14.0512,0.047457,-3.3302,
-2.877,-3.3084,-1.9783,3.9822,29.5742,-12.9193,-14.4496,-13.9718,14.1221,5.7733,0.71829,0.89183,-0.67852,5.3055,
3.8031,-2.387,9.9505,12.6613,23.2203,-26.2441,-3.7007,-6.626,-0.82521,-1.563,-10.653,-13.2617,4.9058,2.818,
-0.28121,-3.6898,5.0149,9.0094,35.927,-21.8979,10.6214,-11.0489,0.67056,-8.2179,-2.3008,-18.2508,-3.5835,-1.2077,
0.45879,-5.1554,5.9191,5.3351,40.1586,-29.0199,-4.1159,-13.5193,7.138,-0.73516,2.8987,-13.5403,1.211,-0.41206,
-0.77403,-6.0514,6.7692,5.7384,23.6491,-20.7712,-16.8844,-10.057,6.4688,5.3345,-3.7832,-10.5585,5.7181,-1.1102,
0.47771,2.7478,4.6758,8.0456,24.2791,-5.425,-1.7713,-5.3558,-4.2837,0.43514,-11.9919,-8.7199,-1.6148,1.1255,
5.2691,0.65455,13.5541,6.1164,21.8578,-19.1995,-2.9908,-5.0347,-18.1266,-3.9295,-22.8417,-22.2967,5.2303,0.093907,
1.3375,-2.0363,2.377,5.9904,24.1617,-7.9244,11.2886,-11.7224,-2.939,3.7781,-8.6968,-6.8589,4.1936,3.2213,
4.3912,0.25552,2.4753,12.1389,16.6869,-1.9053,13.3836,-7.8856,-16.8627,-0.54598,-22.275,-8.3756,0.80892,7.1258,
0.75328,-3.1343,7.6295,9.4824,27.2549,-5.165,-1.5194,-4.52,-29.9509,-5.8159,-34.0744,-17.0321,-0.68588,3.3238,
-5.0767,-5.3566,-3.9158,1.6823,39.7196,9.2449,-3.2364,-11.4798,-14.0539,2.728,-17.9299,-1.9102,-4.9833,1.6779,
-1.1565,-7.2041,3.7912,1.8226,23.2364,-5.4098,-7.1394,-9.1036,0.88935,1.8412,-9.5028,-8.9057,4.234,7.6035,
-6.39,-3.3976,5.4917,4.1231,10.5138,-11.1114,7.389,-2.773,3.0051,-0.67962,-9.4148,-12.228,4.4617,11.9673,
-4.8013,-4.3991,-0.86288,3.1529,9.642,-23.7009,-7.1544,-4.7758,9.3328,3.9409,-5.2345,-2.5762,1.5429,4.7418,
-4.2722,-7.7505,4.2501,1.2765,-0.33651,-36.3788,-20.8251,-7.1408,13.3521,7.8018,-1.3052,-7.9655,7.4759,4.6982,
-12.452,-4.152,1.344,0.47697,11.4938,-20.0961,-5.4756,-4.0608,17.6127,2.272,0.46054,-6.7642,0.51937,8.0318,
-2.3047,-4.626,9.2169,6.9561,19.7225,-13.3467,-4.1832,-0.20196,2.4559,0.93063,-13.6671,-18.6506,7.4783,8.7549,
-5.7816,-5.0716,3.6024,6.2975,25.0464,-2.1818,-11.4038,-8.1434,16.4085,8.8288,-0.67526,-9.0959,5.8245,6.0607,
-11.4605,-2.116,2.1812,3.7503,9.4436,3.4925,-3.248,-7.414,16.6291,2.7552,-4.2504,-14.5759,-3.9252,1.5995,
-1.3728,-1.7481,16.1503,10.9971,10.9257,-10.4554,3.9368,-1.9075,1.5313,-1.0255,-18.0954,-21.6551,3.2998,9.4572,
-8.0391,-3.0892,2.2864,6.9635,24.3701,-7.8997,1.7726,-15.7726,2.2833,1.4464,-15.6836,-6.2558,-4.1284,7.9262,
-2.0132,3.1217,10.1029,10.643,15.798,-11.523,-11.1082,-8.8007,-3.8797,3.5287,-17.3939,-13.4725,-0.74764,8.6554,
-4.5439,-3.5735,6.8457,7.3529,7.3783,3.2684,-0.077839,-5.6215,-12.565,-0.78035,-25.7505,-14.8336,-4.8001,10.3053,
-5.7173,-2.877,-0.79568,6.9119,21.0356,17.1722,-3.9293,-8.6585,-4.0981,0.7125,-25.6515,-0.44597,-4.03,9.6872,
-1.5179,0.18817,8.8926,10.8355,15.7962,4.5725,-17.7936,-4.7645,-2.4059,2.116,-23.1486,-9.5785,4.4065,7.6592,
-6.9705,-2.9566,1.3696,4.6418,17.9819,-4.138,-5.2775,-10.9861,11.8384,1.2662,-8.0211,-2.978,-3.8116,7.923,
-2.6958,-3.2611,5.6257,3.3994,13.529,-2.9254,9.1391,-11.7732,6.91,1.6721,-13.3242,-10.5121,-1.1728,12.7503,
-9.5237,-7.1631,3.6012,0.061735,9.5835,11.3502,1.9628,-11.7899,7.7005,-3.0077,-13.73,-10.6045,-4.7176,7.8877,
-7.7472,-2.1538,4.1083,7.5301,6.8396,-1.9846,-12.2549,-5.0568,21.3385,6.091,-3.0241,0.87804,-2.7475,5.2455,
-3.9082,-5.3988,10.6104,8.5243,-7.6708,-15.9655,-16.943,-1.3791,6.1991,10.5456,-16.3402,-13.2746,2.2378,3.0024,
-9.458,-6.5209,1.7789,0.78223,2.5511,-2.8358,-1.8264,-9.9733,11.1301,4.1285,-11.9851,-9.4652,-7.5372,7.6432,
0.99137,-2.0323,11.5541,10.6172,9.3875,11.0727,-9.3091,-7.2057,-1.3483,1.2292,-11.9894,-8.1744,2.3146,15.6202,
0.20876,-3.1158,11.584,13.5954,3.7628,0.044236,-22.8506,-2.6758,7.1685,6.6993,-6.6907,-9.3711,7.2371,10.5854,
-8.2397,-5.0978,-1.4034,1.9336,-5.8632,10.4057,-7.3795,-6.6128,16.6205,3.6461,-5.084,-8.0857,-6.4532,5.8527,
4.306,-1.8997,12.7808,7.6024,-8.4037,-4.3187,-8.3828,-0.43124,1.5233,1.9813,-12.9737,-21.7006,7.9135,15.1428,
-0.77258,-1.7857,6.1089,9.5564,6.2005,-10.6877,-8.3618,-2.3336,15.5319,5.7188,1.9048,-6.7805,7.9206,12.7879,
-5.065,-3.6067,2.3679,7.0548,-3.9327,-5.7079,-16.5372,0.21658,11.7077,3.9294,-3.6326,-10.7122,-0.74935,5.2718,
3.9158,0.46628,16.3259,12.4163,-17.7968,2.3471,-17.4731,5.506,-3.0948,4.1758,-17.5147,-19.7104,7.4905,14.1147,
-0.17511,2.8484,8.9593,10.2251,-7.4495,1.7243,-5.8192,-3.0191,-8.5732,5.8534,-12.9689,-4.4278,5.5949,15.6784,
0.79903,1.2315,9.3858,9.6114,4.5664,-10.4304,-5.9522,-0.90949,-7.0947,5.0201,-11.7088,-7.1751,8.6334,14.7375,
-5.2745,-5.8323,0.86896,5.9017,8.8722,4.2954,-9.6929,-4.9527,3.2129,-3.2349,-9.3191,-3.6111,-1.2846,14.5761,
1.5497,-4.7592,7.3245,8.1989,-5.7601,3.4352,-19.9571,-2.4862,-2.0408,1.0568,-12.3751,-5.0815,2.4081,15.389,
1.6977,-6.1609,11.9463,5.0554,-14.4531,-10.8709,-20.4472,-4.0242,2.1785,9.4291,-6.5714,-15.6231,8.2892,11.3322,
-0.57332,0.23433,3.2758,6.4393,0.51411,1.9532,-5.1203,-2.0956,16.1478,13.925,7.9229,-0.94714,3.2125,12.8214,
0.42495,-7.9744,8.3819,2.1966,-10.0013,-12.264,-15.2977,0.4403,1.0789,0.074076,-6.6525,-14.9903,5.9118,4.8213,
-4.1798,-10.6295,8.1199,-1.5507,-18.8012,-21.2898,-4.4979,-1.7553,6.3168,0.79253,-4.3251,-16.6217,5.3162,2.3629,
-1.0368,-2.2787,6.6686,5.2911,-9.4782,-22.4226,-1.3353,-0.68586,12.2046,7.4937,5.5756,-5.9832,4.0331,5.5953,
-1.9386,-9.3726,8.6789,2.5632,0.24927,-27.344,-13.7886,-1.6088,-2.6277,0.77775,-7.2922,-17.6756,4.7552,5.7418,
-7.6067,-10.7386,-0.036804,-2.893,14.3343,-11.6033,1.1387,-6.3328,11.63,-2.6436,2.7863,-4.0818,-6.1352,7.8076,
1.0442,-5.2738,8.1603,5.9575,9.9795,3.1929,-6.281,-5.953,-3.1678,-2.4848,-5.0939,-14.4419,-0.94657,12.1596,
0.017682,-3.9935,6.7064,7.5282,19.5037,3.7244,8.1959,-5.5958,-5.7493,-1.3718,-1.896,-10.6831,2.9666,13.8402,
-4.3217,-9.0561,-1.4088,-0.63625,4.8361,-7.5863,7.5834,-3.8138,1.3441,-3.6996,-4.1923,-13.8985,-1.5497,3.8507,
-0.20601,-8.0311,7.8348,3.7402,-7.5056,-16.2901,-6.9716,0.27138,8.0123,2.7889,-5.869,-21.2595,4.3279,3.6197,
-0.43508,-0.55954,3.7493,8.5775,7.0447,-1.2127,5.3776,-2.396,21.6316,9.6114,8.5831,-5.884,3.3448,12.8025,
0.31439,-6.5511,2.8014,4.9298,4.5736,-1.7424,11.5628,-0.083075,6.2337,-0.8472,-6.0318,-12.882,4.3494,9.3833,
-5.7303,-8.3274,0.94589,5.3567,-0.28034,7.2798,-3.2309,2.5732,-5.4688,1.3726,-7.8393,-19.0992,1.4371,8.0971,
-9.9655,-6.6227,-1.2798,5.2765,13.8365,20.0996,-9.1833,-6.0171,6.1878,6.3521,-3.7533,-3.8533,-5.1568,8.3344,
2.4423,-3.5742,12.897,9.057,11.4393,4.7936,0.76744,0.85167,-8.2835,9.1038,-14.3746,-4.7066,8.8912,11.9315,
-4.2117,-7.9393,2.3613,-0.40399,4.7274,1.7344,-0.48344,-0.40472,-6.2202,0.12188,-0.73767,-16.2344,4.2603,11.457,
-3.7182,-9.6321,2.9427,-0.13901,-2.0635,-4.8776,-9.3725,-1.5855,-8.4978,-5.9112,-2.3804,-29.3603,5.2098,13.4209,
-3.7361,-6.8848,8.7922,4.4491,4.5678,2.8871,3.4821,-3.6595,6.112,1.9157,5.7162,-13.9806,7.0664,11.8923,
-2.5474,-0.68688,8.7468,8.0387,2.3658,8.0163,2.3091,-2.4759,19.8453,10.4777,16.4606,0.95821,5.6783,11.179,
-2.8772,-10.2871,12.5601,2.7355,-11.8762,-6.5647,-11.9294,-3.7733,4.5546,2.136,1.373,-13.1993,6.7836,9.0618,
-8.4891,-9.6699,3.1294,-1.767,-5.2585,7.9292,2.8863,-1.6187,18.3813,5.8642,13.9441,-3.7305,2.5202,10.4463,
-4.1234,-7.1615,2.9416,1.2311,-16.0307,-6.6465,-10.7844,0.8885,6.6731,3.5842,3.9485,-16.0401,1.8871,5.9631,
3.8372,-7.2137,11.4422,8.8705,-23.7455,-11.9118,-2.9065,0.83519,-7.8272,-2.8974,-10.3885,-29.1777,8.0403,5.1234,
-3.3831,-8.9501,-1.5366,2.3125,-8.2208,2.9029,11.3679,-3.7944,-5.5499,-8.7493,-4.583,-18.8707,-0.87798,-0.7274,
1.3992,-6.2441,4.5811,2.4147,-6.4022,-11.3713,-3.4142,0.04865,-8.3504,-6.0552,-5.5133,-19.9076,2.3082,2.9312,
6.3771,1.6028,10.332,8.7775,-9.1509,3.411,-0.075867,-2.6056,6.2506,3.2259,7.592,-10.7592,3.3748,15.0481,
1.415,-5.0013,7.5427,4.6357,-22.7018,16.1013,-6.0971,-7.0288,-8.2244,-3.9573,-6.9636,-24.2136,3.4135,7.6375,
-5.6598,-6.3885,7.3311,4.1161,-13.9889,7.181,-10.3108,0.86476,-12.3102,-1.5507,-4.9792,-33.7278,8.7518,4.0458,
-10.6224,-2.6305,-6.6061,1.459,-9.7751,20.8501,-1.0153,-5.4536,2.5284,-1.4576,-0.82364,-17.6041,-5.8733,4.2849,
1.3429,-3.6779,3.6724,2.577,-23.2886,26.9509,-15.0544,-3.9214,-5.2156,-2.5752,-6.3178,-12.5705,-1.7845,3.7871,
-9.3425,-11.17,-1.8506,-4.3265,-24.4219,25.8158,-8.4865,-5.6143,9.1973,-0.49252,8.1612,-9.4062,-3.1237,-5.1172,
-4.4436,-2.3049,1.6349,5.0921,-9.9411,32.9439,6.1227,-1.903,8.0428,-4.3194,12.3716,-19.929,-3.9002,-1.9177,
5.4637,1.6896,11.66,10.089,-8.8625,34.8234,3.7062,1.5854,-6.5397,-6.4705,-2.4707,-19.2154,3.5645,9.7663,
-8.9641,-6.1246,-3.1396,-4.6164,-0.61843,34.6622,6.8582,-12.007,-8.9194,-4.6361,-3.1663,-3.9625,-10.6292,7.7341,
-3.967,-3.8287,3.4362,0.60183,-7.8115,22.4594,5.4827,-10.3225,-7.4197,-3.3938,5.2188,-11.0759,-5.1705,8.2346,
1.3325,1.4625,7.3272,6.1091,-2.7637,35.2118,14.0715,-4.6417,-11.0721,-4.8772,5.1467,-17.8831,3.5752,9.9094,
-4.7732,1.1335,0.86175,0.19917,4.8741,34.4246,4.7913,-4.122,-5.3463,-3.3795,2.1865,-13.1947,1.6737,2.8072,
-11.7172,-6.1649,4.1845,-3.1872,6.0279,18.2592,-7.0653,-9.1773,3.6516,-0.28418,4.9476,-20.1158,-0.35492,0.71055,
-13.9067,-7.2412,-2.3331,-3.4779,7.1121,24.9971,1.0714,-14.4113,17.5325,0.69673,15.2558,-8.7859,-6.1182,6.9349,
-4.6364,-6.0841,1.4221,-4.9567,-7.4147,9.3973,-13.0929,-8.9671,2.3805,-1.5145,0.24049,-22.3588,2.6848,2.9031,
-8.2146,-5.7188,-0.5912,-10.4437,-4.1975,-5.2666,1.7927,-10.357,15.0122,4.3612,12.6391,-15.3529,3.9697,-1.6091,
-17.8449,-13.5704,-12.1249,-15.6016,-6.8382,7.5829,6.7468,-18.4127,8.8088,-4.5776,9.9523,-12.9857,-10.3684,-8.7434,
-2.6742,-5.5256,2.7026,-0.56552,-8.8382,-4.9234,-7.758,-3.2079,-5.8197,-0.92868,1.1602,-20.8835,4.3537,5.8812,
-1.6701,-0.85547,-1.4367,1.7583,5.6716,-5.1101,-6.6899,-4.1,8.6294,5.3942,15.1906,-5.5304,4.0924,8.782,
-0.60603,-2.7326,5.398,-1.7221,-6.7203,-4.3216,6.7265,-7.7109,15.3421,6.5164,16.5688,-7.7297,3.365,5.3626,
-13.3441,-14.379,-2.3977,-10.0545,-18.1272,9.1941,12.8308,-18.5764,0.32153,-7.131,1.4747,-17.1478,-10.9369,-3.8772,
-14.7126,-9.4184,-10.6895,-7.282,-6.1933,8.4015,11.82,-17.7028,-8.7361,-8.8723,-1.3851,-7.2009,-13.5345,-2.9212,
0.27012,-0.41764,4.0519,1.5908,-4.1342,-5.8412,-2.9892,-3.866,5.5266,2.9885,11.9541,-10.8662,1.3776,8.1001,
-10.2302,-5.6948,-7.1578,-8.6273,-3.404,8.6093,3.8184,-17.1316,15.3182,-2.4937,11.2371,-2.9834,-8.7077,1.3478,
-0.21662,2.1185,1.7076,1.2901,-14.5282,5.3209,12.989,-11.0422,0.29908,-2.5853,-3.5371,-13.1687,-1.6775,0.061401,
0.27808,-0.4192,5.9432,3.1406,-18.9594,-8.9778,4.4971,-4.5949,-11.8907,-0.019807,-6.3381,-16.7171,5.6537,0.057488,
-6.9692,-5.2143,-8.5133,-6.6885,-10.5908,5.6608,-1.0751,-11.0679,2.9228,1.4274,8.1422,-1.6141,-6.7368,-0.9096,
5.5005,0.4012,6.0975,0.46168,-18.15,-2.994,1.8815,-5.5833,1.1807,6.1625,8.0155,-3.0838,2.3445,3.9652,
-3.7474,-1.7923,0.67038,-6.0737,-25.4969,-13.1785,9.7225,-8.8637,4.2435,3.1414,11.1498,-6.032,0.034437,1.5584,
2.9852,3.377,7.1379,-1.1303,-15.0493,-7.3263,1.1852,0.58592,9.5323,7.0505,13.1321,-9.2855,7.9863,8.9365,
-0.32742,-3.8155,4.5404,-2.7497,-2.8181,-0.86118,-1.0551,-5.9569,4.3806,-1.3263,5.8365,-16.6823,1.4816,3.3386,
-7.0567,-5.0326,-5.3734,-6.4411,-9.8799,2.5649,5.2748,-11.8663,0.2614,-6.5493,5.9685,-9.8968,-8.2487,1.692,
7.4667,6.1151,9.049,8.0454,-19.1692,-10.3632,3.2713,2.9457,-13.8543,5.6535,1.0306,-15.8107,6.3462,14.3647,
-4.9117,-3.8925,0.91399,-4.3677,-5.0034,-11.6693,17.0545,-6.7513,-2.0561,-2.3982,3.3794,-13.8978,2.2298,-0.59716,
-1.9661,4.2948,3.0285,-2.9006,-2.0524,-9.7646,15.3081,-7.5513,3.6107,1.8432,4.8636,-3.182,-2.4835,-2.6098,
1.0444,3.0732,9.1133,-0.79836,-16.0292,-2.9117,0.28963,-3.242,3.394,5.1071,6.5,0.38341,5.3782,6.7058,
-7.6954,-4.8239,-5.5335,-7.0174,-9.6441,6.422,1.8388,-11.7244,16.6878,-5.8046,15.7509,-2.5319,-4.5854,-2.8555,
6.8663,5.8296,8.8985,4.732,-10.7529,-6.2556,1.9696,-1.6209,1.5865,-3.7693,3.9599,-16.48,4.1256,-0.99676,
-3.3075,-3.9206,-2.7228,-9.6519,-24.2077,5.9299,4.0206,-15.6237,-6.101,-7.6405,-7.1242,-22.6018,-10.2219,-8.4092,
-3.3496,-1.5158,-5.2105,-9.4344,-13.9575,3.4049,0.16396,-19.3863,-2.1195,-3.5667,-3.0811,-7.1457,-6.5958,-3.8069,
8.9025,7.7337,9.2021,3.6646,0.97998,-10.8994,-6.1124,-4.1231,-0.54608,4.3601,10.6011,-10.4528,7.8999,6.0625,
-5.7317,-5.0224,-5.45,-10.6552,15.0212,-1.2071,8.3544,-17.9757,3.1021,-5.3015,11.6527,-13.4406,-6.6741,-8.4012,
8.7122,0.8226,4.5179,-4.1106,16.771,-4.7501,21.9531,-12.0767,-10.8228,-1.368,-0.3751,-17.2139,2.4035,-5.3663,
3.8509,1.7373,3.2828,-4.8281,27.3337,0.35539,18.4665,-11.8342,-7.2811,-6.1064,1.5754,-18.1095,1.7771,-2.6344,
0.72759,0.66901,-6.5554,-6.4664,22.3194,3.7083,10.6098,-11.6063,-8.2903,-8.6323,3.8912,-19.4331,-6.0425,-4.8863,
8.6379,1.352,4.6844,-1.4989,8.688,-10.6142,14.5528,-3.9199,-8.5156,-1.1247,5.3452,-24.2924,3.7202,-2.4237,
-5.3775,-3.0677,-2.8273,-9.1219,2.3823,-8.1694,10.3054,-14.2897,6.0954,3.7632,19.1245,-8.8553,-2.7697,-4.2067,
-0.23436,-3.3655,3.1267,-6.1643,-11.2582,-17.32,-1.8823,-11.9863,3.6807,4.9839,11.1079,-15.5549,3.6632,-1.5439,
0.74357,-4.6101,-2.3635,-5.7944,3.5173,-2.1808,12.3306,-11.2674,-8.5916,-5.4385,2.2462,-15.5859,1.5152,0.95882,
9.3758,8.6822,1.6349,1.3019,17.4063,12.0501,25.6908,-4.3244,-11.4504,-4.1481,0.66541,-6.9377,2.3884,5.7218,
10.7412,6.7152,10.6956,0.74165,2.2619,3.3729,19.0876,-4.5471,-24.8634,-3.417,-13.4745,-20.0191,5.6193,-0.88828,
-2.1953,0.28673,-3.2025,-6.2923,5.6213,11.6066,24.4503,-14.6383,-10.4766,-2.4891,-3.6275,-4.7179,-7.4918,-2.0398,
6.1314,0.75123,3.2564,-1.0942,6.2477,4.6435,12.3782,-10.8677,-9.8482,-2.3395,-2.4457,-3.8322,-1.258,0.49247,
7.9324,-3.391,6.1943,-3.6799,-8.2272,-5.0354,2.2353,-11.4207,-4.1954,-0.51215,-1.0939,-17.7023,3.397,-7.973,
2.8772,0.42745,-3.5774,-5.1463,-18.2179,-7.3843,8.1267,-15.315,9.3127,3.6159,7.4074,-16.5196,-3.7967,-10.6276,
4.8739,0.16107,0.25289,-3.1501,-10.1352,-21.0413,2.0958,-13.1908,-0.64632,2.1939,3.8301,-21.0718,0.52872,-4.9285,
-4.5778,-7.0792,-10.3673,-13.0847,-2.296,-5.6788,6.3086,-15.2919,7.1055,-3.2401,11.7948,-21.736,-4.8054,-11.8634,
0.035453,-5.6908,-3.961,-8.443,-16.2582,5.9899,-8.1699,-7.1438,-7.4209,-3.046,3.3741,-33.9294,-0.66094,-16.4545,
2.9256,-1.4927,2.5434,-2.634,-16.1268,-7.8671,-1.293,-5.2689,-5.891,0.99342,6.5463,-20.3245,2.271,-6.7903,
-3.2752,1.2481,-10.8658,-9.4656,-1.0592,1.0413,11.0773,-12.9065,2.4164,-2.6818,10.7331,-5.005,-8.7113,-2.2853,
1.7413,2.6193,0.39123,-4.5591,-7.1414,4.3531,-3.6873,-4.4193,-9.7799,-1.5568,2.858,-13.743,2.8984,1.7079,
-10.8964,-9.5892,-9.7549,-10.5523,0.51765,12.2868,2.4388,-14.2773,4.9069,-4.8376,16.6661,-2.7953,-4.5061,-4.1789,
3.8574,-1.3008,0.47112,-3.1705,5.3071,-1.948,10.9693,-8.118,8.3481,-0.20884,13.7381,-3.5917,2.5129,0.89232,
11.4594,2.3924,7.9144,0.63493,-5.3754,-3.5186,10.07,-0.15935,-6.2527,-0.91944,-1.1862,-14.7046,10.798,4.454,
-3.3282,-0.64344,-6.6604,-3.7413,1.2138,10.7925,14.2867,-5.9344,-7.4441,-3.2746,7.4414,0.27767,-0.4549,1.2944,
1.3306,0.35927,2.0551,0.33937,-4.1614,-1.0625,-0.67049,-4.614,-7.9615,2.2247,2.1744,-2.2696,2.4647,1.6989,
-6.7032,-6.6519,-9.3967,-11.009,-8.0093,3.5808,0.21335,-17.1116,1.9159,-2.9707,7.1054,1.482,-11.4217,-7.8028,
-3.1678,-1.6733,-11.4842,-8.6614,-6.8061,8.4274,-0.52258,-12.9516,1.0778,-4.4794,10.7762,3.5622,-9.0494,-6.1295,
4.9762,3.9709,2.9434,1.7404,-2.2997,-3.4062,3.1244,-2.2924,-2.602,0.36886,9.8889,-5.5693,4.7501,-1.1822,
-6.6508,-1.8112,-8.0792,-4.8717,-9.6337,-1.5149,12.8187,-11.0729,11.2926,-0.85834,15.8033,2.7186,-8.3091,-11.4754,
4.3536,0.2257,3.0104,0.24085,-23.1557,-14.9213,-2.0505,-2.6958,4.3481,2.0852,12.9269,-5.1573,3.2767,-7.4129,
2.1644,2.6225,3.3119,-2.1835,-9.1124,-0.046518,-14.8224,-2.5338,8.9082,3.4066,16.4898,3.8292,6.4543,-2.6296,
-3.7503,1.5011,-5.5637,-6.391,-3.7452,11.0437,0.16697,-10.5767,-4.1596,-5.9571,6.8236,3.5995,-5.9843,-8.7381,
4.6699,1.8929,2.4829,-1.1869,-5.4487,4.5965,14.257,-3.6753,-6.3206,-4.1534,5.9322,-9.6319,-0.80451,-4.8393,
-3.8057,-3.5231,-5.3791,-8.8287,-4.64,4.3205,10.2681,-9.7218,1.2893,-2.4581,2.2016,-3.2697,-10.8794,-6.9598,
10.4024,4.883,9.0437,2.3059,-6.7718,2.1331,-4.448,-1.4255,-12.8881,4.4383,-11.4278,1.2651,1.8245,-0.75763,
-0.5856,-0.95356,-3.4293,-4.8219,2.5526,16.1051,3.4114,-8.8118,-6.4505,-2.8179,3.3578,10.5894,-4.7925,-6.7377,
-5.6121,-2.5836,-13.1059,-8.148,7.9431,9.2335,4.8939,-11.8985,4.7828,-6.2643,14.1229,9.7128,-12.941,-10.4308,
8.8246,6.9714,1.7804,6.4409,0.47661,-5.4205,-4.3178,2.9154,-9.6042,1.1015,-0.8245,-1.716,1.9354,2.4876,
3.5949,-0.19552,-10.257,-3.466,-6.3007,9.0047,10.0413,-7.2619,-0.47176,-9.5697,8.7455,6.0998,-2.8805,-4.4104,
-1.4411,-2.112,-11.5698,-9.525,-20.0226,19.7929,-4.179,-7.7905,8.2336,-9.9598,14.4877,3.3234,-1.7438,-8.0026,
-2.0775,-1.7443,-4.3677,-6.302,-25.6904,10.1692,-13.3283,-7.0819,5.5705,-0.44417,8.5568,11.078,-1.8801,-5.3528,
-1.2302,-2.3623,-6.275,-6.1651,-19.5695,4.9795,1.5714,-8.8261,-5.6098,-1.6226,2.0176,12.5825,-6.8288,-5.7548,
7.5207,3.0816,8.0808,1.9176,-4.2953,-3.9959,6.4183,4.7186,-10.0939,-0.56136,9.1274,7.007,7.681,4.2315,
-7.0305,-5.539,-6.5041,-9.5256,2.3496,6.6077,-0.47472,-8.3387,2.3218,-9.9277,16.0515,19.3611,-4.2288,-4.4581,
5.081,1.783,-3.5832,-1.4821,-11.8913,2.596,-8.8821,-0.84876,-5.289,-3.3062,9.0627,20.3683,2.5326,-2.986,
0.19658,-4.3497,-5.5371,-5.9727,-25.2779,6.5374,-10.0362,-1.521,-1.3565,-4.7953,9.242,24.2079,-1.2345,-6.422,
-3.6718,-0.71452,-15.81,-5.6145,-9.6612,18.1965,4.666,-1.9116,4.0273,-4.9893,14.4723,36.8554,-5.0171,-0.73429,
10.6485,5.8363,-0.76138,7.0149,5.0185,3.0047,14.1475,11.4594,-10.3143,0.85366,4.204,22.7135,9.384,6.782,
-4.0904,-6.0833,-12.1644,-7.506,13.153,-5.4908,-0.80139,-3.3281,2.7175,-5.4643,10.2185,30.5095,-4.5559,-7.7249,
-3.6038,2.4769,-9.5063,-5.9713,-1.7361,7.3722,-14.6121,-4.4542,0.62628,-3.2082,9.123,40.2481,-2.3544,-7.1409,
4.5662,5.9437,-0.018332,-1.9976,-11.8756,2.832,0.36461,5.213,-6.8831,-0.84659,7.8527,33.2537,5.2587,2.2052,
-2.9386,-0.19797,-12.5503,-6.2161,-1.5221,15.6775,10.104,2.9721,7.6299,2.5787,19.4326,45.3585,-3.7339,-0.81922,
3.0223,-0.66803,-4.5669,-5.8431,-15.5308,0.63686,-4.6023,1.8296,-5.964,2.9059,8.6257,40.1061,2.2747,-5.5908,
-2.9434,1.7824,-6.2208,-8.8668,-14.9604,-7.9575,1.097,-0.69026,-0.30333,1.7674,13.893,35.2896,2.1384,-0.91678,
-5.6591,-0.73489,-9.2218,-9.2993,-13.5806,0.23249,-4.2712,5.1355,-0.28536,0.69728,9.6847,28.3518,1.528,1.0662,
-0.25766,0.032334,-1.1964,-5.6076,-13.9708,2.3879,-14.861,9.4074,-4.3654,2.8248,9.3448,31.7123,7.4621,-2.1306,
-0.96579,5.5742,-7.1504,-7.4406,-10.9636,-0.8886,0.13066,2.8171,-0.97018,-0.96031,15.2918,42.5838,0.98855,-6.5827,
5.8411,5.2398,-1.4188,-3.1377,-24.2851,-14.3326,5.0636,9.8789,-6.6965,1.026,4.7334,27.9777,9.6063,-1.849,
-4.3916,-1.1004,-8.3237,-7.529,-23.5511,0.62732,-9.3403,6.1525,7.8052,1.2051,15.2954,34.7347,3.4861,-1.0154,
4.0669,10.0526,-0.59371,0.15336,-25.0303,12.2791,-12.2746,10.1219,-0.73752,2.0969,17.27,41.3275,4.241,7.2405,
6.2332,7.0391,1.8523,3.5188,-31.7235,-2.5577,-7.6819,12.8893,-14.7933,0.52508,2.1338,34.5095,8.8075,6.3244,
-1.6126,1.5556,-8.6227,-2.7178,-22.3482,1.3322,-6.9796,8.0186,0.19432,1.2165,12.0086,41.839,3.2174,-0.56305,
9.0892,4.8364,5.9946,0.81946,-25.3459,-12.8478,-20.6608,10.9114,-3.4328,3.5538,7.4315,25.2286,10.255,-1.0114,
0.83087,0.68964,-5.0911,-2.122,-9.8456,0.57685,-5.3212,3.5083,-6.1191,0.44833,3.6114,27.6918,1.4447,-5.2888,
4.3964,10.0483,-9.8468,1.6207,-1.7831,12.8343,9.0981,10.2872,-10.3317,2.5906,1.2251,38.3226,3.5272,-2.3204,
11.6047,10.6504,4.844,4.6568,-15.7761,-2.0358,-5.5478,20.516,-14.7732,6.5327,2.3571,25.6591,17.0541,5.7728,
-3.0713,2.781,-5.4495,-2.8535,-26.0372,-8.3006,-17.2662,15.9111,0.21316,11.4434,16.3157,38.2196,6.3899,5.4264,
-1.4408,5.0243,-8.0146,-1.236,-19.1724,-7.3206,-8.0355,14.9564,0.56205,4.9722,7.0213,32.9136,1.6682,-5.9864,
7.3228,13.8819,2.1072,3.1765,-10.7912,7.2186,6.5466,12.6128,-12.0047,-2.075,1.7793,27.5646,0.60423,-3.699,
7.8473,13.5309,3.4271,2.5039,-11.59,20.8855,3.141,8.9639,-9.8386,-0.50425,2.6369,30.7312,1.5318,8.0921,
2.315,0.90868,-0.39421,-1.7439,-4.3869,5.5324,-8.8578,7.703,-12.8635,-0.71519,-2.1009,22.8615,6.0195,4.9552,
-3.1266,2.7824,-10.9754,-3.5674,8.4098,15.9262,5.7737,7.2403,2.0083,0.29205,12.1252,35.5898,-2.0545,-2.5729,
8.8714,11.0518,2.9393,5.5649,-6.1948,7.4986,-8.6728,18.6163,-10.5252,0.033329,1.3953,19.3545,6.9866,2.161,
5.4468,9.9065,4.6914,4.2669,-18.9592,0.78192,-7.9114,19.4277,-14.2322,0.51349,-2.0631,16.024,12.8342,6.8518,
-1.8699,5.2148,-6.4364,-3.4609,-6.0111,5.3148,6.6633,7.8977,-2.532,-0.24068,3.6043,29.1626,-1.6742,-1.995,
8.8476,7.312,7.9295,3.4952,-19.7504,-9.1041,-6.6312,11.7626,-14.9131,1.7024,-4.3248,26.0873,6.139,-1.8753,
-0.84228,6.8733,-6.0436,-2.4991,-30.0143,1.6857,2.4437,7.2005,-0.039058,-2.7385,3.1656,31.2707,2.8782,0.64736,
3.0646,7.9071,-4.2352,-3.313,-19.5363,3.9947,1.8147,11.1068,-7.2676,-0.16407,1.0474,29.3945,2.7055,3.0186,
2.8808,1.6477,2.7678,-1.186,-24.6311,-4.4397,-9.3814,14.7787,-4.9033,7.0766,9.1793,27.6306,7.3639,1.8737,
-7.415,-3.2714,-7.5216,-4.9713,-24.1171,-5.1376,-4.4797,7.6255,9.4909,2.3137,20.6801,36.5778,1.1374,-1.6132,
5.5629,2.7094,5.4632,1.1116,-17.3674,-8.6858,9.7683,11.0243,-4.6966,-1.6815,5.3393,26.1884,7.8176,3.7862,
3.7834,2.5469,-2.095,-2.3296,-5.2382,5.9354,18.8237,6.5065,-2.9686,-1.0987,5.6216,28.4735,3.0103,-0.77927,
1.6277,2.876,-6.3081,-1.7079,-19.0239,1.1202,3.5942,8.5262,-9.5394,-1.0328,6.2482,20.9805,3.7935,-4.5894,
-1.8439,5.114,0.81934,-2.0873,-24.5106,-5.2135,-3.732,8.979,-3.6639,-0.9708,8.7658,24.0605,6.4584,-2.3853,
-4.1439,8.1812,-4.0505,-5.3365,-8.94,-2.9725,10.5919,2.1733,6.6788,-0.91255,12.0958,36.7168,0.28634,-4.1709,
6.9512,4.557,6.0742,0.045109,-13.5858,-16.8941,-4.1436,8.5506,-7.8219,0.34726,0.52399,22.5828,12.0791,-2.7151,
-2.6249,-0.53664,-2.485,-3.3316,-13.2526,-1.7805,-7.9926,9.0019,2.1679,0.32643,13.9904,32.797,6.0521,-0.14207,
-4.6365,4.5568,-4.505,-2.4088,-19.4473,8.4495,-13.5386,8.2208,9.9916,0.065876,15.3201,29.1419,1.5916,1.0717,
5.2826,7.6578,7.3344,4.9666,-22.619,-6.1575,-18.0289,11.5839,-3.1414,4.8826,10.544,24.0189,10.6547,7.274,
-1.3013,2.3776,-6.121,-3.5266,-15.4775,8.3119,-2.8472,3.1757,-6.3274,-0.71297,6.5374,36.6778,-2.0357,2.9811,
1.1871,3.1995,-2.8615,-1.8685,-21.2973,6.8491,-6.1713,6.3598,-17.9986,-3.5625,-7.9548,34.839,2.907,-1.0543,
-2.9817,-0.60808,-6.7869,-3.4438,-24.117,-5.3722,-12.7906,5.737,-2.8187,0.26646,6.6225,33.4714,4.9019,-2.1962,
3.7052,-0.81256,-5.6568,-3.4782,-26.2852,-9.1472,-8.4078,9.4906,11.4504,3.384,15.8661,33.6327,1.4743,-1.823,
6.6161,-1.005,3.6004,-0.61817,-21.5748,-2.5726,-9.1084,11.0901,-3.3366,0.047663,5.5143,25.589,3.5553,-0.99091,
-2.2168,4.5991,-6.0154,-1.3042,-11.3625,11.6818,1.8022,2.9531,-10.0058,-4.0528,8.7987,34.8997,0.20869,-0.20832,
5.1473,5.7692,-0.83396,0.22007,-24.7808,2.9064,-0.71626,6.6321,-20.4924,-3.3274,-5.8292,18.7057,5.4986,-4.052,
-3.3567,-4.6998,-7.5328,-9.4341,-19.3168,2.732,1.7373,0.44958,-5.1629,-0.23574,4.282,25.899,-3.026,-9.1115,
-4.8423,-0.80265,-6.3577,-7.1806,-4.0578,-1.0475,-7.7672,0.6638,9.2469,2.4297,16.7993,33.7448,-1.6394,-3.0214,
6.7762,5.2713,8.1237,4.0963,-5.863,-13.277,-13.3269,11.47,4.1123,4.4533,9.766,18.464,12.559,2.7037,
-4.2352,-5.1684,-6.4637,-9.6469,-13.224,1.6196,1.5727,-2.7155,17.8449,0.32975,13.0364,27.479,-2.2946,-8.0638,
4.6958,-3.4118,-1.4961,-8.5863,-18.6973,-12.5775,-12.6217,0.33967,10.9898,2.2379,9.8439,17.6354,-0.95207,-6.134,
6.8242,4.5057,5.3421,0.124,-3.4755,-19.5354,-9.9359,9.4783,6.4741,1.1398,10.6995,10.7927,8.7465,-1.4271,
1.3533,7.3686,-5.3425,0.83969,6.0126,-4.2633,4.7602,2.8839,-7.6529,-3.9901,-2.2348,20.5092,-0.69661,-3.029,
7.2974,5.2391,2.4496,0.06618,-8.4482,-10.8771,-8.1796,1.5058,-21.2938,-0.13546,-12.9472,18.5555,4.4066,1.2503,
-0.61181,3.2379,-4.2049,-2.107,-8.7849,-3.2346,-9.3756,1.6564,-5.9161,0.11363,1.9297,24.4321,1.0092,-2.922,
4.2452,5.9357,1.3501,1.8759,2.8292,1.2982,-5.4391,7.3416,0.70557,-5.1958,9.6474,11.8789,2.3949,-9.4956,
6.883,3.6514,3.1973,-4.9856,-4.5714,-0.22592,-1.7383,0.15217,-6.0857,-6.8123,1.8377,11.6481,-0.15936,-7.962,
5.0237,6.3248,-2.7791,-6.1323,-14.902,7.5004,-0.1877,-3.2309,-11.0227,-5.9211,-1.6466,18.1801,-1.5956,-1.6992,
6.4098,5.7041,4.8596,1.7072,-15.2129,6.8092,-7.1661,3.9526,-24.4614,-8.2172,-10.4661,4.797,6.936,-3.7667,
1.4454,5.6029,-4.35,-1.5287,-0.20013,20.5006,7.3639,2.0282,-8.8937,-0.73475,4.2619,18.6091,2.904,-3.7816,
4.492,5.5079,-4.3302,-5.0521,-10.9141,5.1706,-2.8399,0.21902,-6.1913,-2.3777,0.029314,18.8184,1.5247,-1.3858,
3.9815,5.4184,0.026964,-1.6155,-11.9463,2.6914,-4.3562,1.4112,-12.3273,-4.4042,-5.0341,10.2175,4.0848,3.2771,
-0.355,4.3701,-10.3388,-4.1704,-4.7218,14.8218,3.8586,-2.2887,2.5123,-0.52473,9.3679,23.7044,-4.5962,-2.4634,
9.0665,4.8311,1.61,-1.2684,-18.5385,-0.16753,-10.4729,2.4282,-3.5433,1.6761,0.49089,16.3769,1.7053,-10.2691,
2.4968,7.1925,-4.5124,-5.7718,-10.5568,-1.965,1.3634,1.0774,-0.67936,-1.5577,4.5586,21.902,-3.4584,-7.966,
3.552,9.4123,-9.3031,-5.1847,4.1766,7.5532,0.07657,1.7354,-3.2904,-3.1517,8.8646,24.203,-3.4921,0.46597,
5.2673,0.65262,-3.9244,-2.9452,-9.933,-0.61303,1.518,1.1496,-9.8412,-3.9262,0.62014,8.6508,3.4661,-2.4543,
2.7819,3.2648,-3.9301,-2.5278,-3.3115,13.5238,15.5269,1.8038,2.0773,-0.55738,6.6083,17.1706,1.0887,-4.4764,
3.3381,4.274,-3.4531,-6.4737,-5.7641,-1.3877,0.49531,0.49,-12.1474,-9.4422,-7.8882,2.4018,-0.18167,-4.931,
4.5841,7.392,-4.6922,-1.2646,6.6333,-1.3044,-3.8727,0.46106,-14.4313,-2.6087,0.65973,16.3577,4.6499,4.5239,
4.3088,5.02,-4.4105,-2.1528,-2.442,-2.6722,-3.1587,-1.977,-11.1553,-5.3445,-6.6109,11.3994,-0.44999,-4.4244,
4.0505,3.7547,-1.2535,-7.326,-3.2592,-1.0658,-2.487,-2.8224,-12.4139,-7.4342,-7.1784,-2.7822,-5.7254,-13.3177,
1.1559,8.5911,-13.4708,-10.02,11.0364,13.0981,11.7622,-4.3403,2.4309,-2.8908,4.0986,6.7847,-12.8537,-13.242,
11.6916,10.0036,-2.0575,-3.634,24.474,21.1098,11.177,3.1507,-11.815,-5.6096,-10.2473,-7.7223,-3.8875,-11.4834,
9.7853,10.6087,-0.72878,-4.6212,15.0518,30.2071,11.2297,2.2388,-6.2856,-7.9241,-0.11199,-21.359,-3.8953,-8.6252,
17.1519,19.8541,-0.92602,2.164,5.2306,42.4947,24.2943,5.7199,8.1916,-3.8333,11.7049,-16.9442,-3.4206,-4.9742,
16.364,11.6732,0.81653,2.7568,5.6399,44.1628,17.2928,5.6174,-6.3999,-8.6652,-3.0974,-22.9172,-4.9023,-11.1835,
5.2586,10.9726,-9.8375,-2.711,19.4015,55.6131,19.1475,-0.98638,-9.3904,-9.5913,-9.7808,-7.4422,-12.8036,-10.0303,
15.5486,17.5453,-1.0523,2.2721,21.4912,44.4433,12.6962,4.3757,-20.8783,-7.5698,-11.6043,-15.3111,-3.84,-4.1261,
12.9282,13.3589,-3.6405,-0.033571,23.335,32.8584,21.8166,4.3539,-14.0822,-9.285,-10.6668,-14.1512,-7.2252,-6.5298,
7.5737,11.8349,-9.4476,-4.6104,30.8529,44.9869,22.6772,-3.3787,-13.4778,-12.8248,-12.6779,0.79788,-14.2631,-10.7173,
12.9034,12.5706,0.76019,-2.888,22.7348,39.5158,7.3364,-2.2121,-23.2746,-11.5738,-12.8815,-7.8064,-2.3205,-6.6998,
8.9957,13.9855,-4.829,0.41834,25.9504,34.0119,20.9962,2.018,-7.7782,-6.7816,1.9913,-2.7587,-3.8685,-6.5388,
14.2405,14.1107,2.2092,2.8038,12.8243,17.8712,16.4827,8.1634,-12.0112,-4.4465,-5.2383,-11.2698,-1.7082,-9.039,
8.3251,10.6128,-0.092323,-4.354,-0.23749,11.8581,9.4684,4.5408,-9.1212,-6.3491,-3.237,-7.9423,0.56368,-3.9171,
7.8252,11.9042,-3.4612,-0.23687,3.6331,4.3973,14.2025,5.7142,5.5261,-4.5219,11.0572,0.72893,2.4581,2.5844,
7.838,-0.37922,2.0491,-1.6685,9.6817,-9.9665,3.2275,3.4431,-8.9055,-10.0352,1.5965,-13.4148,1.3467,-9.6218,
3.7521,1.8129,-4.5816,-5.1835,23.2008,-9.0066,17.1338,1.0676,2.9568,-3.8892,11.8648,1.4901,-3.796,-7.8394,
4.0094,1.2222,-5.2705,-8.247,7.9499,-22.5662,16.2267,1.9674,-10.236,-5.584,-2.8264,4.052,-0.1938,-3.5122,
4.7327,-0.29784,6.1325,-2.9319,-4.0962,-35.3123,2.7196,6.6701,-6.7296,-0.91068,-0.72909,-2.94,11.8689,2.4827,
-3.2641,1.1668,-4.8403,-3.2379,4.3442,-44.5217,0.14633,3.8597,7.7742,3.4823,13.4147,11.3364,5.3727,1.3698,
-3.7911,-2.0367,-7.6834,-5.6947,-10.0164,-55.9504,-7.8167,6.7612,0.1974,1.5861,8.8741,8.8487,9.1477,-3.774,
-5.4921,-2.3967,-3.3658,-6.7996,2.5152,-58.4987,6.7523,9.2478,4.0422,1.0088,10.752,18.4409,9.5629,-6.4399,
1.3452,0.39843,3.8258,-2.7759,7.9081,-60.05,19.4833,7.9698,-10.3004,-4.1132,3.1173,7.9342,6.8197,-8.7048,
1.9874,-3.7233,-0.019151,-2.3689,7.1922,-65.8474,5.0575,1.4656,-9.5621,-1.6972,10.8835,3.3608,7.6154,-3.1213,
-8.0138,-8.5611,-12.3101,-11.6263,10.3766,-55.3884,13.1902,-3.2012,5.1116,2.5024,23.0054,17.2592,2.0972,-1.7283,
-3.4354,-6.8424,1.6847,-5.8672,-4.346,-64.8398,1.5527,7.3546,-1.0999,4.5212,10.2967,14.1749,8.9611,-0.9019,
-6.3628,-5.7089,-1.5499,-2.8641,-17.9445,-52.9957,-5.5303,7.6366,13.0661,5.9371,17.6326,17.4218,6.7362,3.7315,
-1.1605,-3.438,-0.97471,-2.2101,-18.7958,-61.8668,-8.0908,4.7681,12.4026,2.6886,11.2722,2.2765,8.2604,2.062,
3.4889,-3.9546,7.0375,-1.3541,-10.6782,-60.8061,6.4947,6.1692,-1.5979,1.322,-1.2142,-8.1035,13.3084,-4.5696,
-2.0229,0.62122,-3.9893,-2.237,-0.39632,-43.0578,20.205,6.7632,11.5136,5.0993,3.1972,6.4827,4.315,-5.2595,
-1.42,-3.2729,0.58788,-1.1389,-14.4725,-54.5743,4.8927,6.3574,-3.2772,2.3828,-9.5282,-0.77562,5.0199,-2.5338,
-0.61148,-5.7276,0.79357,-0.8296,-12.7613,-53.4694,-1.3059,5.735,4.9934,8.7477,5.1435,13.3709,8.3342,2.1975,
-1.0567,-6.3483,-9.3769,-5.6001,-26.0956,-45.4406,-2.6738,5.8728,9.5141,9.1872,18.453,22.3303,4.942,-3.7185,
0.6939,-6.6903,-2.3064,-2.613,-38.6299,-53.5602,-16.6134,11.546,6.7741,7.9126,13.7304,11.5905,10.6711,-3.2544,
-7.5429,-7.2527,-10.3632,-2.9381,-27.635,-38.7774,-6.0959,6.033,20.4676,6.9559,27.0066,24.8744,3.2819,-2.0953,
-1.0645,-4.1667,-0.82309,-1.0749,-32.4843,-50.5508,-18.0224,8.8042,5.3808,6.7798,12.4912,13.4998,8.6288,0.68175,
-6.3033,-4.8806,-4.1482,-4.8667,-36.3201,-37.0331,-11.1565,4.9015,-0.72667,2.0342,6.4391,9.7977,7.6287,1.1228,
-4.4791,-4.588,-11.1303,-1.2005,-24.0178,-21.3138,3.6129,4.6077,11.3683,1.9124,15.694,15.9585,4.7611,1.0556,
0.1282,-8.6508,-6.124,-1.6102,-16.31,-34.135,0.38334,6.2592,2.0093,4.6899,8.9675,13.073,8.814,0.99254,
-5.1821,-1.8652,-11.5411,-4.4061,-4.7263,-18.951,-3.496,2.9916,9.1196,3.9266,13.7321,24.8217,2.9825,-0.99567,
1.6365,-1.9945,-1.9308,-0.044152,-18.5427,-30.5884,-6.9019,5.4629,-5.1662,-0.88898,2.5441,9.2324,3.5262,-6.9612,
-0.87181,-9.1057,-1.815,-1.9697,-29.602,-31.6451,-6.9697,4.1713,9.2438,4.9494,13.4787,12.8963,3.3151,-1.7233,
-5.64,-2.7745,-9.4186,-3.7799,-13.7258,-15.6464,-10.4082,2.475,19.1735,2.724,17.4904,24.1738,-0.25804,6.575,
-2.4093,-1.162,-0.65901,-1.1428,-19.7717,-16.2744,-15.568,4.7364,3.9231,-10.4546,2.341,8.6234,1.203,1.842,
-3.2288,-4.4665,-3.0294,-3.4846,-4.6056,-1.1979,-0.53396,4.9344,-1.9761,-3.0787,0.875,2.9241,-2.2434,0.76735,
0.33935,-9.0192,-2.3657,-6.1676,-5.7756,-15.226,-4.9612,5.6026,7.301,3.3726,3.2326,8.5332,0.78374,-0.72495,
2.9701,-3.8983,-0.054569,-0.25389,-11.4546,-26.6048,-10.6891,8.8819,10.4788,3.8936,11.4748,7.7802,7.7266,1.4882,
0.14055,-2.4594,-7.5229,-0.47986,-24.8673,-10.9085,-1.6118,2.3232,4.3063,-2.3658,7.1707,11.8929,-1.1729,-2.6987,
5.1936,-3.5169,2.3283,0.27207,-37.4753,-7.0002,-5.6127,3.8708,-9.6907,-2.4651,-7.3596,5.6355,0.58446,-3.2599,
-5,-3.5468,-7.2114,-4.8059,-21.1267,-0.07227,3.6421,0.50553,4.9908,0.33439,1.8796,18.0718,-4.5118,-3.3053,
1.8077,0.28117,0.2109,1.5082,-12.0259,-14.1679,-10.6764,6.9829,8.4272,5.3758,-0.88451,16.2644,5.1587,2.9188,
7.0021,-0.6998,6.4655,2.8642,-16.1248,-23.5615,-21.7252,10.4206,0.69099,6.0173,1.5789,12.8786,10.1515,6.6003,
-3.7821,-1.8629,-8.0225,-8.1541,-15.3983,-8.0478,-6.3217,1.8413,1.8546,-4.7078,3.1712,8.0083,-4.5575,-4.6422,
-2.1091,-0.30507,-1.3953,-3.3263,-12.5464,-21.6649,-5.3402,5.1051,-12.3567,-7.3176,-11.1191,-6.5722,4.7542,-5.8097,
-5.839,-0.28677,-1.7935,-2.6448,2.3064,-12.8934,-3.0916,0.46001,2.4847,-2.0583,3.6478,5.9937,-0.83367,-4.0153,
4.3935,3.828,-3.8553,-4.6555,7.1092,-3.6839,-1.2187,1.1555,4.0229,-4.1037,5.5983,4.911,-6.809,-6.4253,
12.0834,0.94702,0.47359,-4.135,12.2262,-17.5629,12.9545,4.7019,-5.6183,-6.9908,-2.6915,-9.4837,4.4456,-6.281,
8.7071,5.9516,-3.1705,-0.75365,25.5927,-12.5323,26.2772,2.2504,5.5648,-2.4742,0.12129,5.1854,1.5275,-7.1092,
10.595,8.0049,2.8046,-0.7082,9.9571,-15.6367,10.6006,4.5257,-7.3023,-6.1819,-9.5267,5.8383,-1.9383,-14.8775,
5.6208,2.7041,-5.0767,-9.825,1.8879,-8.4318,-3.1716,1.3619,7.2358,-9.6676,3.0962,-6.0809,-6.6425,-17.3591,
13.4785,10.7364,4.3871,-2.9687,15.8746,-16.603,11.1187,2.7262,-3.4424,-2.3389,-4.3206,6.3348,0.98664,-7.1588,
10.2596,4.79,7.016,-2.7906,29.0221,-27.1757,15.1518,-0.32946,-17.3358,-5.0906,-18.1614,12.7036,0.92744,-6.7292,
4.5826,4.2614,-6.6611,-3.8282,15.2297,-11.4452,8.6989,1.3773,-7.7391,-3.5801,-7.5512,16.039,-3.7077,-3.6742,
10.8154,3.2826,4.5846,-1.4291,0.21592,-24.8585,-1.7052,2.0178,-20.5311,-7.4629,-15.5341,0.97666,1.5762,-5.6231,
9.4435,3.327,7.9249,-0.6205,11.4107,-15.8951,12.4971,-1.7187,-6.5246,-1.9534,-4.7196,-2.8178,0.75872,-6.4905,
6.4661,3.6091,-1.7098,-0.10157,20.3668,-2.8903,14.2779,-0.65147,7.9669,2.5019,6.6505,11.4512,0.71297,-8.0295,
9.935,5.3212,6.5879,3.7614,5.6474,-16.8169,-0.67881,6.1365,8.3323,1.8703,0.46693,3.8952,10.3116,-3.209,
3.5541,6.9299,1.3722,-0.80286,2.4163,-13.759,7.1956,1.4298,11.2066,-2.5805,0.43869,12.3384,-2.3584,-5.4268,
6.7151,1.6932,2.2539,-0.75492,-11.7084,-27.0335,3.3892,2.79,-3.5658,-5.8003,-13.0852,-2.5019,-5.5916,-12.8142,
3.902,0.14579,2.1187,1.701,3.0941,-30.5936,-5.9727,3.5865,6.4096,-0.63161,-2.6587,-3.1957,2.4567,-6.7427,
1.9807,3.7525,-1.6239,1.3579,17.0084,-14.658,-7.7835,-1.6899,12.5329,2.0574,3.5264,10.2525,2.5507,1.6156,
4.0312,3.2861,4.9813,0.55333,5.624,-18.7195,-7.0758,-0.38346,-1.9576,0.72887,-6.5674,4.0939,1.6745,-1.6146,
-6.8159,-2.6956,-5.441,-7.1931,-8.8134,-17.1144,4.9179,-4.2168,12.2599,-2.2074,7.9267,12.043,-9.5132,-9.7129,
1.788,-3.9799,0.18838,-3.3868,-17.3231,-27.6567,-9.4771,-2.5178,13.8139,-5.4492,4.4385,-2.7796,-2.1937,-7.2017,
7.7062,3.2488,6.2026,3.3243,-2.5452,-15.151,-11.9211,-1.1614,3.1031,-5.3632,-1.8533,-7.0716,5.8917,-2.6722,
6.521,10.5256,4.1432,3.8478,11.7075,-0.14196,2.8942,0.59548,-2.1447,-2.8722,-3.4293,7.4527,-0.48738,-2.7529,
5.6478,-0.22927,5.3409,0.72437,3.4128,-6.7616,2.3589,-0.88651,-10.6927,-0.7717,-12.3826,8.572,-4.7965,-5.4798,
0.72915,-2.8666,-1.487,-1.0063,11.1617,7.7441,11.1354,-4.4487,4.0489,7.2288,2.4603,22.1577,-8.1241,-1.0536,
3.8187,0.92058,4.6275,-1.6686,1.5742,2.3385,1.0675,-0.084234,3.2031,3.1794,-0.70029,7.6924,-0.647,-2.1955,
1.1796,-2.5089,2.9038,-5.907,-5.2689,-8.4069,-1.8888,1.3669,-2.2915,0.57876,-1.6224,2.8923,3.7304,-1.0996,
-5.1581,-0.43015,-11.3704,-9.409,-5.9171,6.1975,-1.776,-5.946,11.946,5.8462,8.5979,16.8187,-6.1344,-3.4442,
5.0335,5.139,3.4118,-0.89095,-10.6235,-8.2744,-15.7694,1.8828,12.7959,8.1468,-0.83583,7.253,2.6695,-4.9246,
-2.4993,-1.4358,-2.3363,-4.2115,0.61893,-17.1781,-9.6411,-3.0509,12.0282,-3.9112,1.6244,1.9976,-3.2752,-8.0036,
4.8817,4.4351,2.1425,4.2361,5.4025,-2.0474,-0.38574,1.9527,6.486,-1.2662,2.9735,6.6982,1.2599,0.18965,
-1.4372,-1.3746,-0.15571,-0.59778,-2.8756,1.5703,-9.7626,-0.8156,8.7479,2.9072,3.036,7.5016,-0.50296,-5.3653,
-10.0281,-3.7027,-14.1257,-3.9364,-2.2211,10.153,-9.6588,-2.6949,22.3231,3.6966,12.0129,18.6207,-8.6679,-7.4535,
3.3483,0.61706,0.82188,4.7357,-12.9339,-2.7485,-13.6588,6.3847,7.6068,4.6799,4.7844,9.0675,4.6264,5.7679,
-4.3246,-3.9995,-5.6147,-4.9482,-6.6143,7.7805,-6.3315,-2.9162,16.0682,3.194,7.1487,14.5492,-5.051,-0.12203,
-1.8955,1.7846,-5.0368,-1.5178,-12.2429,15.7498,-11.9772,-0.090179,12.9354,4.2077,-0.27012,12.9534,-6.4352,-4.694,
8.823,7.4616,7.7989,6.768,-20.6674,9.502,-11.2585,8.5923,2.9998,3.9552,-4.1103,4.4629,6.4844,5.7105,
2.0274,2.6758,-4.7204,-3.7612,-5.3274,15.6808,3.517,-3.9745,7.1584,-4.959,-0.489,10.9443,-4.5097,1.9937,
8.1722,4.9254,5.2038,2.7309,4.0306,9.4373,-0.67092,0.60226,-3.8764,0.15881,-8.1729,5.4669,2.0274,1.3921,
-6.4181,-4.7701,-7.4009,-4.9047,2.5837,4.2915,-9.5487,-1.603,7.6848,-0.091224,-3.1028,2.0054,-5.5661,-4.7169,
-5.6713,-4.002,-9.367,-4.61,13.034,-7.053,-10.904,4.2777,11.5621,2.8063,0.93978,-3.4171,-2.8215,-1.0595,
6.4791,1.2998,4.9333,4.5842,17.7953,-8.7992,-7.5987,9.5647,-0.45986,7.2172,-1.2858,-10.2024,10.1218,5.0296,
-4.5152,1.7035,-6.4497,-0.029377,9.9792,5.8288,2.9804,-1.1323,2.46,0.99983,0.71934,0.050952,-4.5855,-3.4671,
8.5304,10.0372,5.2653,7.9264,4.3187,10.42,-5.152,8.8178,-11.7876,1.1806,-12.098,-12.2444,-0.092329,2.7663,
1.5109,2.9273,-3.4865,0.46113,12.0133,6.6615,-7.0122,0.33473,-13.8521,-3.4698,-15.4697,-11.2685,-2.7381,4.7697,
-1.713,3.9572,-3.0361,1.1566,1.4106,-1.21,3.7726,-0.40848,-2.6569,-0.12787,-5.1413,3.5076,-2.815,2.7965,
-2.0927,-2.0648,4.8588,0.12287,-12.774,-4.9937,-4.1665,2.9905,-6.8358,-1.5665,-7.7254,-2.8494,-2.1637,-7.9766,
-7.5102,2.1564,-7.2429,-0.6074,-22.7331,9.4059,-0.78305,-0.80437,7.6743,1.1786,6.4765,11.4216,-10.952,-2.9182,
-0.070217,3.2318,-1.7471,4.9722,-27.8771,22.9415,-14.8361,2.8593,7.5751,1.3489,1.5086,10.616,-2.823,3.2824,
-2.2352,-1.0594,-0.43695,2.5047,-27.8917,17.7084,-9.9693,4.8569,8.3259,-0.90122,7.4436,8.7738,0.9613,-0.048025,
-7.8856,1.4147,-10.5336,-2.4658,-20.9153,30.7459,-5.9967,-0.73669,4.4519,-5.1855,1.6948,19.817,-7.773,-1.009,
-3.7968,0.60672,-0.98378,0.81538,-20.3835,43.0012,-18.8935,1.9584,-9.9152,-4.1512,-12.5069,9.2277,-4.6553,2.6667,
-9.836,-0.39401,-6.7093,-1.1617,-16.7502,54.5211,-7.1546,4.7334,4.7797,2.8468,2.3435,22.7741,-13.0526,2.5067,
-7.0769,-0.61157,-8.4762,-1.8152,-29.8451,55.2269,-20.8253,6.6183,13.1695,4.3625,1.7205,24.9021,-13.9569,1.6332,
-8.3395,-1.2978,-6.7623,-0.019029,-42.1544,47.8155,-31.0245,3.0882,3.4618,1.4497,-4.8906,21.2388,-5.6477,7.0788,
-13.3828,-2.4252,-14.7927,-2.6694,-28.5384,59.0466,-15.063,-0.23058,7.3514,-4.1809,0.46449,15.3852,-6.9961,6.4131,
-6.554,-2.5204,-7.8794,-1.7861,-39.1182,59.2401,-19.5823,3.3989,-1.0436,-1.7607,-7.5174,0.36209,-4.4069,3.8589,
-7.3656,-0.68197,-10.0577,-2.8838,-39.9043,61.2293,-26.3611,0.54342,11.3115,2.9247,-4.8967,13.9587,-10.6504,1.4582,
-0.89814,7.7946,-2.4644,4.2791,-23.4101,45.2631,-10.6795,7.9826,0.26848,1.5439,-9.6646,9.5053,-3.0215,3.058,
-6.1469,4.9168,-7.6191,0.16596,-7.9055,46.4037,4.0613,3.1653,-1.6758,-3.8514,-8.1208,2.6684,-7.1786,-2.4282,
-1.6805,6.7912,-10.2952,0.39674,-13.9391,57.7194,-0.76189,-1.1222,12.5247,3.8518,3.2129,16.6083,-12.2917,-1.5593,
4.928,3.25,1.6504,3.0243,-27.2027,40.1563,-14.8162,2.5608,-2.3268,1.9332,-11.0799,1.9938,0.25616,1.1855,
-6.4549,-2.7296,-11.9459,-5.8343,-11.4706,35.8187,-1.9966,0.47897,6.008,-0.59292,-4.269,-0.53599,-5.5438,1.1144,
0.9223,-3.2887,-10.0244,-5.2428,-18.0129,25.2339,-5.4922,2.137,18.422,4.0219,3.4589,8.4142,-9.3085,-1.604,
7.1337,-5.5017,1.1826,1.3385,-20.7886,18.8994,0.62212,2.9733,21.1728,8.1192,6.6261,17.5506,-2.0013,-0.54321,
-7.3943,-6.8586,-12.9883,-7.6601,-5.4412,31.8654,4.2,-3.7128,17.2511,-1.2858,5.5049,17.7026,-11.7634,-5.0901,
4.7388,3.4351,-6.3042,-1.6567,-12.9483,16.3354,-10.152,10.2481,2.1161,1.4427,-3.2613,2.5404,1.7166,4.615,
-1.5709,0.095236,-10.9874,-3.7266,-26.2714,18.0066,-19.0631,4.0898,7.4125,2.5612,1.032,3.4726,-3.4478,1.2049,
-3.646,-0.63361,-12.0151,-2.7799,-19.7539,20.0595,-3.8194,-2.1814,-1.9506,-4.1002,-8.9121,5.9156,-8.7843,-7.7852,
1.393,-1.0775,-2.1357,-1.1673,-4.4686,13.0713,8.5814,2.2879,-5.6899,-0.96214,-9.3413,5.0782,-0.062579,-3.4617,
-5.6802,-1.736,-15.2637,-7.1226,9.8992,26.3871,-0.85134,1.4275,8.7515,4.1575,5.3192,18.8735,-6.5665,0.36115,
3.8198,3.671,-2.7785,3.4279,-4.7947,21.0682,-14.9003,8.5729,-4.1864,1.9796,-0.18187,4.3645,1.5405,2.7498,
-4.8455,-2.0928,-7.6734,0.088725,-18.607,29.2036,0.093755,-4.234,2.0903,-8.0211,1.9982,1.4511,-3.6136,-3.4407,
-6.2417,-4.1367,-13.7207,-5.9424,-5.6802,28.1745,13.1035,-9.0414,9.9189,-6.3348,2.6014,14.6206,-8.4583,-4.4393,
1.6046,-4.1294,-3.4975,-3.4162,8.7606,12.3841,-1.7827,0.90106,0.40568,1.0352,-4.5445,15.4306,-1.4433,-0.075606,
-7.1686,-6.774,-13.8927,-6.1035,1.1248,17.7875,6.8809,-5.9017,11.4688,-2.4011,2.9592,21.2535,-12.4437,-3.9272,
0.25095,-1.3063,-4.6235,-0.19416,-13.0427,14.5506,8.6368,-3.8604,-3.3193,-5.3906,-6.1369,5.8782,-4.2253,-4.8973,
-1.6921,-0.26382,-2.9,-1.6285,-9.0064,14.6417,3.2981,-0.73644,-4.205,-5.0674,-2.8764,-4.7183,2.295,-1.7112,
-4.0009,-1.694,-8.9928,-3.9412,-4.6098,8.9427,-1.2384,-0.69249,5.6881,-2.8353,0.67045,5.206,-3.6275,1.7661,
5.3982,1.3001,4.0807,4.4904,-12.0458,5.0322,6.5492,6.098,-7.6682,0.22775,-8.5284,0.073387,0.44652,4.0703,
-3.6026,1.2219,-8.6978,0.36441,1.2102,18.8302,12.4225,-0.052719,-7.6903,-7.4989,-6.5706,0.068755,-9.7034,-4.8508,
