"AF3","AF4","F3","F4","F7","F8","FC5","FC6","O1","O2","P7","P8","T7","T8",
-28.1998,-29.1641,-1.2051,-1.687,80.2619,30.6104,88.9385,-8.9178,32.5385,-36.8769,67.2465,20.4875,-26.2716,1.2051,
-25.363,-26.2694,0.012062,-0.44096,61.3462,14.6737,69.5022,-7.2379,16.4862,-39.1835,49.1117,5.1582,-23.5505,-0.012062,
-18.2978,-19.1499,5.5547,5.1289,43.5654,-0.30669,51.2321,-1.2603,1.3971,-31.2891,32.065,-9.2513,-16.594,5.532,
-3.0999,-3.9009,14.4409,18.9212,26.8515,-14.3883,34.0582,8.5168,-12.7868,-23.2051,16.0411,-22.7962,-6.3789,5.622,
-2.251,-6.3784,17.1897,22.7871,11.1404,-27.625,17.9147,12.1029,-26.1196,-24.4643,0.97863,-35.5284,-5.7554,6.0079,
-2.116,-5.9957,16.1583,21.4199,23.2462,-13.1933,29.614,11.3767,-11.7782,-22.9964,13.6941,-20.6225,-5.4101,5.6474,
2.1083,-12.143,14.4659,19.8942,7.7514,-26.5017,13.7372,9.4893,-25.1715,-29.0882,-1.2275,-33.4852,-0.50575,1.2112,
0.053519,0.033936,22.2745,25.4484,-6.8137,-39.0116,-1.187,19.0427,-37.7612,-15.8946,-15.2539,-45.576,9.6474,12.5868,
7.7634,7.3833,23.8304,19.1016,-20.5048,-50.7709,-15.2158,13.5622,-49.5955,-3.2509,-28.4386,-56.9415,3.2838,15.8091,
21.3976,13.93,36.5006,32.0555,-32.0488,-60.4988,-27.0771,26.8484,-59.394,5.38,-39.5065,-66.2992,17.1868,24.7422,
11.783,0.78657,22.1234,21.319,-16.0258,-42.7689,-11.3525,15.9425,-41.7304,-7.2504,-23.0361,-48.2213,7.3429,14.4453,
10.3682,-0.45037,18.1605,21.7427,-0.96429,-54.3028,-24.7713,12.3499,-53.3265,-20.0564,-10.0848,-58.8256,8.1227,9.376,
1.7922,4.6381,16.3477,16.8229,-4.1604,-65.1446,-20.0311,14.2602,-64.2269,-4.7531,-18.3976,-69.396,10.7691,22.9135,
9.0508,14.1361,17.9123,22.2154,-18.0108,-75.3359,-32.9292,21.2527,-74.4733,7.3573,-31.3937,-79.3323,15.5605,21.3121,
14.6392,14.5987,21.5227,28.4597,-31.0301,-84.9158,-45.0535,28.0372,-84.1049,3.8883,-43.6101,-88.6723,22.6864,21.8264,
1.2878,4.9856,7.7583,14.2791,-15.0683,-65.7208,-28.2502,13.8819,-64.9586,13.2355,-26.8935,-69.252,8.8522,27.2053,
13.6836,7.398,19.7659,25.8953,-11.3926,-75.8776,-40.6552,13.23,-71.3047,0.20952,-32.6314,-64.3737,14.2866,16.2334,
3.1613,-1.9037,8.8787,14.6404,3.3909,-60.4187,-24.1159,8.881,-52.9264,-0.46594,-16.5735,-46.4113,7.9461,11.2219,
-0.82449,2.0067,7.9243,6.1095,17.2875,-44.3203,-12.9075,12.6262,-35.6509,6.2507,-1.4791,-29.5266,8.8553,14.3447,
0.12866,0.98262,8.3525,6.6466,2.1502,-55.7611,-26.2331,12.7723,-47.6118,-0.33092,-15.4904,-41.855,9.2277,9.2061,
-2.0785,7.7624,5.6519,6.4589,-11.4461,-65.8827,-38.1264,7.8784,-58.2224,13.7889,-28.0283,-52.8111,3.1001,19.8311,
11.5135,12.4489,18.7801,19.5387,-24.8594,-76.0298,-49.9388,17.3782,-68.8291,1.6936,-40.4466,-63.7424,16.2611,9.8137,
4.2699,5.1491,11.1005,11.8135,-9.3733,-57.4734,-32.948,9.7826,-50.7048,-2.6711,-24.0252,-45.9233,8.7325,7.3719,
-1.6053,0.30594,4.4538,5.1241,4.7619,-40.4523,-17.3983,3.215,-34.0897,-0.17606,-9.011,-29.5951,2.228,9.7466,
2.1668,3.9634,7.8624,8.4924,-8.2381,-47.365,-24.7302,6.6979,-17.9443,3.5103,4.8462,-21.7338,5.7701,12.8375,
-2.3621,13.3064,5.2816,8.284,-21.8438,-58.6231,-37.3464,7.6823,-30.9677,12.8805,-9.5446,-34.5297,6.3277,18.2737,
11.1565,12.0256,11.2317,15.5002,-34.6332,-69.2057,-49.2056,15.898,-43.2096,-0.90775,-23.0719,-46.5579,12.2146,9.4645,
4.5218,5.3388,4.5925,8.6049,-18.4552,-50.9534,-32.1532,9.8226,-26.517,5.112,-7.5876,-29.6645,6.3602,11.4875,
0.0025714,0.77053,0.068983,3.8406,-3.2479,-33.7962,-16.124,4.9854,-10.826,2.606,6.9677,-13.7846,1.7307,6.5503,
-1.5343,-0.81247,-1.4719,2.0734,-0.40147,-20.5607,-3.9489,3.1492,3.9235,-6.4384,11.1289,-1.7498,0.090092,0.28195,
0.69712,13.3363,2.5631,0.59304,-12.5792,-31.5288,-15.9137,3.6537,-6.8868,8.0479,-1.7406,-13.8466,5.1162,14.365,
7.0123,7.2939,3.9455,5.4682,-25.9244,-43.7371,-29.0589,2.0782,-20.5736,1.4792,-15.7362,-27.1158,4.4172,-0.59687,
6.5915,6.8563,9.0114,10.4427,-11.0825,-27.8264,-14.5714,5.3279,-15.7542,1.3905,-1.5055,-23.8319,10.9011,4.0787,
-3.445,-3.1962,-1.1703,0.17507,3.6825,-12.0568,0.40286,-4.6328,-0.70898,-8.334,12.6848,-8.302,0.60597,-5.8071,
-2.9971,-8.5478,-7.6074,-5.8607,10.1497,0.77817,11.3455,-6.5238,10.3004,-18.1979,14.7558,3.163,-3.0456,-19.1968,
0.13521,6.0651,3.5144,7.0844,-0.64262,-9.4519,0.48144,7.9676,-0.50098,-3.006,3.6871,-7.2102,9.2483,-3.945,
5.6105,1.0009,5.8944,2.0198,-14.7041,-22.9848,-13.6474,0.37923,-14.5709,8.864,-10.6342,-20.8776,2.1256,3.1611,
5.5148,1.1819,5.2997,3.1034,-9.7845,-35.7057,-26.9286,7.3463,-24.8439,8.0912,-16.5638,-33.7249,9.4699,9.4789,
-0.14873,-4.2217,-0.35089,-2.4154,4.9026,-19.4634,-11.2129,1.5729,-9.2533,2.2731,-1.47,-17.6014,3.5691,3.5776,
-1.3451,-9.0301,-2.0171,-0.10132,18.7084,-5.9733,1.7822,-1.6554,5.4019,-11.6018,12.7182,-2.4453,1.6677,-10.3757,
-5.392,1.3639,-2.1672,-6.151,4.3898,-19.7149,-12.4247,-0.38057,-8.1183,-5.0307,-1.241,-16.3986,2.2608,-3.8781,
0.53539,5.9216,-3.1823,-4.9988,-9.9736,-32.632,-25.7793,-0.056523,-21.7312,8.7083,-15.2666,-29.5147,-1.4301,2.079,
5.3237,6.0484,3.7578,7.3529,-23.4752,-44.7741,-38.3325,8.6237,-34.5274,3.3653,-28.4506,-41.4221,8.2969,-4.3125,
-1.8047,-1.1235,-3.2767,0.10268,-7.9667,-29.5241,-23.4691,1.2973,-18.3557,9.9724,-12.6436,-24.8368,0.99008,-1.1011,
2.2955,-5.2589,-3.4265,-0.25033,6.6113,-13.6527,-7.9609,0.87306,-3.1544,-0.734,2.2151,-9.2466,0.58383,-4.3942,
-11.9422,-0.66514,-11.4762,-10.4183,13.1593,0.43794,5.7882,-3.0958,10.728,8.4085,16.1822,5.4082,-4.814,1.5939,
-3.2264,5.3853,-5.7415,-0.89069,-1.7302,-13.6883,-8.6591,1.6541,-4.0157,11.0224,1.1112,-9.0163,3.8955,2.2061,
9.9826,3.1339,7.6189,11.6962,-15.7264,-26.967,-22.2396,15.5342,-17.8747,4.0945,-13.0554,-22.5753,17.7617,1.5918,
-1.523,-0.12722,-3.7448,0.087848,-0.81837,-11.3846,-6.9407,3.6955,-2.8378,8.0066,1.8279,-7.1208,5.7894,6.6179,
9.475,7.7741,7.3865,2.7944,-8.0002,-19.7399,1.0681,1.3653,-15.2009,-1.4521,-8.9472,7.4065,9.9618,4.4736,
-2.9038,-4.5026,-4.867,-9.1836,6.5798,-4.4555,15.104,-8.9607,-0.18883,-5.3419,5.6896,21.0621,-2.4462,-0.73634,
-8.906,4.0529,-3.0386,-4.6855,3.0215,9.9118,25.9779,1.1882,13.9225,4.5894,19.4482,33.8984,0.20135,5.0627,
4.6438,7.9676,10.1591,8.611,-11.2598,-2.945,10.3192,8.6491,0.8251,1.7232,6.0193,19.6024,12.0599,6.0242,
-8.3188,8.0015,-4.5505,-6.0056,-24.5937,-16.8683,-4.3999,-2.445,-13.3244,14.3037,-8.4419,4.3263,-2.131,12.9237,
5.738,5.6535,3.4655,2.5795,-37.218,-29.9562,-18.2359,4.9928,-26.6249,-0.11218,-22.0354,-10.0333,5.288,-1.9517,
1.1155,3.326,-1.0207,-1.8534,-20.885,-14.1492,-4.0359,0.41505,-11.0179,4.1727,-6.7037,4.5783,0.6925,-4.1243,
-6.2425,6.5607,-8.2503,-9.0333,-5.5319,0.79974,10.3062,-4.973,3.7432,11.2135,7.7986,18.4036,-6.6401,-2.3704,
-1.9512,8.5171,-3.8386,-4.5746,-13.2744,4.8492,4.3852,-0.75791,9.5443,6.624,-0.6232,26.5786,-2.325,-6.627,
-10.7521,4.5113,-9.152,-9.3617,-26.5779,-9.5417,-9.9779,-5.2918,-5.1284,15.1445,-14.6858,10.8839,-0.49865,2.6886,
1.4021,0.80614,0.013702,1.7447,-39.0833,-23.0692,-23.4792,-1.178,-18.9207,2.7267,-27.9047,-3.8691,4.7738,-1.7508,
1.318,2.2036,-0.95145,0.1938,-23.0601,-8.0069,-8.3923,6.1231,-4.1073,2.5631,-12.5522,10.0412,3.5231,0.28202,
-2.3163,1.7702,-4.4495,-3.373,-7.5765,6.5735,6.2112,2.2005,10.2391,5.9645,2.3009,23.5387,-0.24347,-2.4462,
2.7487,-0.52043,-4.0768,-1.6191,-4.787,20.2791,19.9385,-4.0923,23.7248,-4.7727,16.2628,36.2264,1.8046,-8.8222,
-4.2704,10.9751,-3.4556,-5.0012,-18.5998,4.9623,4.6422,1.8325,8.2013,7.8212,1.1871,19.9528,4.0016,4.0147,
5.1448,2.9653,3.3802,-1.4476,-31.5838,-9.4354,-9.7363,-1.7724,-6.3908,-1.8071,-12.9842,4.6556,-0.21579,-4.4211,
3.0884,3.0884,1.5502,0.38693,-22.9851,-0.79483,-2.0419,0.081219,2.0671,0.049012,-4.1307,-1.0467,3.955,-2.8906,
1.6378,1.6378,0.19185,-0.90159,-7.506,13.3529,12.1806,-1.189,16.0431,1.3114,10.2172,13.1161,2.4524,-3.9824,
-2.2563,-8.0415,-9.8825,-9.9465,7.0443,26.6517,25.5498,-2.9853,29.1805,-12.8673,23.7042,26.4291,-5.3475,-16.6984,
0.83151,6.541,-1.0345,-3.0228,-1.5133,18.7255,17.6897,8.8229,21.1026,0.85962,15.9549,18.5163,5.1566,-1.5965,
3.6135,6.0281,-3.9251,-3.3836,-15.5225,3.502,2.5284,1.4844,5.7365,-0.03528,0.89757,3.3053,-1.4795,1.7528,
3.3969,4.7023,-0.31492,0.19369,-25.7383,1.0624,-11.7233,6.6982,-8.7077,-0.033393,-13.2563,-10.993,3.4298,5.9862,
0.11997,1.347,-3.3692,-2.8911,-10.094,15.0987,1.8751,3.2232,4.7097,3.0417,0.43409,2.5616,0.15088,2.5539,
3.7735,-4.2321,-3.3632,-0.50317,4.6116,28.2928,15.8626,0.90593,18.5272,-1.5545,14.508,16.5079,5.7307,-9.6658,
-5.4163,5.7382,-8.2679,-2.6874,-5.6074,16.6529,0.8108,2.9755,3.3155,8.2552,-0.10099,9.3713,3.6544,0.44973,
-2.9823,1.3571,-11.9293,-9.5757,-19.3709,1.5537,-13.3378,-2.3244,-10.9834,5.6508,-14.1949,-5.291,-4.5788,-4.096,
2.2581,-2.3399,-6.634,-4.4221,-32.3087,-12.6395,-26.6376,0.46592,-24.4244,0.25031,-27.4432,-19.0735,-2.617,-10.8403,
-4.9274,-1.8984,-13.286,-11.2068,-16.2702,2.2189,-10.9996,-6.612,-8.9192,7.2853,-11.6966,-3.8291,-9.51,-8.4425,
6.7568,5.145,1.3099,1.3361,-1.194,16.1857,3.7604,1.7988,5.716,-4.0584,3.1052,10.5006,-4.2998,-9.2012,
-4.1935,3.8121,-1.7216,-7.9634,12.9777,29.3146,17.6348,0.18424,8.4458,6.2481,17.0188,23.9706,-0.24575,-0.51475,
-4.2432,5.3309,-2.7628,-4.7737,-1.901,13.4557,2.4767,-3.8638,-6.1609,6.1745,1.8977,8.4324,-1.3755,-7.4129,
0.5911,2.8414,-2.356,2.0202,-15.8869,-1.4516,-11.7719,-1.9448,-19.8913,1.2243,-12.3161,-6.1736,0.39381,-8.6558,
-8.1215,8.0939,-10.8918,-6.7781,-5.2326,12.7355,1.9496,-3.636,-9.4787,15.2508,2.5228,8.2968,-6.258,5.9635,
1.3593,4.1891,-1.9679,-4.8496,-19.0187,-2.1287,-12.2674,5.2142,-14.8601,0.23578,-8.3391,-2.791,0.33935,-6.4905,
-2.1721,6.0313,-5.0585,-7.7672,-3.7775,12.0991,2.5687,1.6927,0.13151,3.3551,6.2613,11.4764,-1.9258,-0.63306,
-5.5064,3.6511,-9.1839,-7.8737,10.5491,25.4731,16.5145,-6.2123,14.2236,2.5813,19.9856,24.8879,-6.2392,0.27866,
2.6874,2.9798,-0.7695,0.46207,-4.1838,10.9292,1.4237,2.0238,1.3037,-1.3999,6.72,11.3281,1.9986,-5.4925,
-9.1035,9.6104,-7.5323,-6.8565,-7.1863,-3.8266,-12.7617,3.2887,-12.8745,10.4343,-7.7832,-3.4516,4.7107,6.5871,
1.0839,2.767,-2.2598,-2.589,-20.8551,-17.697,-26.096,3.0911,-26.202,0.046518,-21.4162,-17.3445,0.5719,-4.5336,
-2.1747,4.8303,-3.7513,-2.6145,-5.5038,-2.5351,-10.4303,2.2429,-10.5299,3.2373,-6.0312,-2.2038,-1.5714,4.2347,
-7.5275,4.7215,-5.7558,-5.651,8.9264,11.717,4.2955,-4.8212,4.2019,9.9726,8.4306,12.0284,-6.5992,2.233,
-4.726,4.4985,-3.0605,-2.962,3.5099,15.8344,-3.494,-2.1821,16.483,5.5781,10.3349,25.4067,-3.8534,-4.5897,
-7.7564,10.917,-6.1909,-7.5446,-10.8007,0.78437,-17.3844,1.745,1.3941,13.0167,-4.3852,9.7823,0.77664,3.459,
2.3497,1.1032,-0.51657,-1.789,-24.2527,-13.3627,-30.4413,3.5687,-12.7896,-1.8643,-18.2221,-4.9046,-1.6799,-5.5459,
0.76271,-1.8553,2.4067,0.72823,-8.9985,1.2381,-14.8158,5.283,1.7768,-0.30644,-3.3297,9.4897,-1.0969,2.4998,
-4.1639,-3.1301,-2.6185,-4.1963,5.6414,15.2638,0.17314,0.085211,15.7702,4.5928,10.9701,23.0203,-5.9119,0.48178,
-1.1423,-3.4245,-1.859,-1.8954,-1.6268,26.3389,12.1537,-7.5122,26.815,-9.7828,22.3028,35.7391,-2.7854,-13.6471,
-2.0376,10.3988,2.3501,-3.4691,-15.6292,10.6586,-2.6755,-2.9643,11.1061,3.0962,6.8647,20.5794,-2.1363,0.42809,
8.1474,8.3892,6.4873,-0.91097,-28.7915,-4.0809,-16.615,-2.8466,-3.6603,-7.1523,-7.6472,5.2446,-2.5507,-6.2859,
3.561,4.7522,-0.89203,-3.9896,-16.8807,6.3472,-5.4348,-2.4351,-7.2369,-2.6256,-4.7181,-9.17,0.25368,-7.5962,
-1.4129,-0.29321,-5.5987,-8.5104,-1.7679,20.0664,8.9913,-7.0492,7.2973,2.2922,9.665,5.4802,-4.5218,-8.1648,
1.5039,-1.7814,-0.02019,-0.34705,12.3179,32.9624,22.5518,-3.3118,20.9594,-11.2824,23.1851,19.2514,0.027829,-16.2915,
-1.0568,11.401,3.2951,3.4693,-2.5211,24.7783,14.9923,5.9856,13.4955,2.47,15.5876,8.4553,10.0887,-2.2385,
0.51301,9.2103,-4.0728,-6.3192,-16.4699,9.1916,-0.0072391,-4.9183,-1.4142,0.81546,0.55231,-6.152,-2.5071,-9.8768,
0.96416,4.3194,-4.3109,-4.0119,-29.5817,-5.4599,-14.1068,1.6433,-15.4294,0.2846,-13.5808,-19.8829,1.0173,-8.8023,
-4.1551,-1.0012,-9.1137,-8.8326,-13.7068,8.9677,0.8396,-3.5167,-0.40363,7.3779,1.334,-4.5899,-4.1052,-3.5744,
6.4583,3.6379,3.2435,-1.313,1.2156,22.5296,14.8892,-5.4751,13.7206,0.78872,15.354,9.7855,1.6845,-11.4342,
-5.0766,8.3005,-2.7963,-6.597,-8.4381,7.0778,-0.10413,-7.1349,-1.2026,5.6222,2.02,12.2111,-5.7075,-5.8673,
-0.85524,7.2602,-4.9783,-5.6589,-22.0319,-7.4468,-14.1979,-8.5751,-15.2305,10.0453,-12.2012,-2.6215,-10.6074,-7.5038,
5.4626,5.3787,0.62308,-0.98103,-34.8099,-21.1,-27.446,-3.7218,-28.4167,-4.5372,-25.5692,-16.5643,-0.32996,-5.6073,
-2.8189,6.8637,-7.368,-8.8759,-18.6213,-7.4814,-11.6992,-11.4523,-13.6357,5.7379,-9.935,-1.4704,-8.2639,1.8395,
6.2681,3.6799,1.5097,-1.3535,-3.4041,1.8853,-0.69355,-2.8114,-3.8997,-4.1269,4.7611,12.7178,-0.29626,-5.8636,
-7.7559,-0.54806,-7.8906,-12.0283,-0.88009,15.8722,13.4481,-7.6142,10.4343,2.7185,18.5754,26.0548,-9.1059,1.0864,
-1.3554,2.0459,-1.9636,-10.6737,-11.7635,0.81988,-1.4588,-8.9345,-4.2918,2.7063,3.3609,10.3915,-8.409,-1.7204,
11.2594,-0.0050198,4.9027,1.5359,-20.6989,-13.3293,-15.4713,-2.6139,-18.1342,0.61575,-10.9407,-4.332,1.2546,-10.2942,
-3.1547,8.4312,-5.2736,-7.4741,-5.357,0.60635,-1.4071,-4.1445,-3.9103,12.3887,3.1529,9.3651,-6.7747,-6.5433,
11.1345,16.6022,9.1428,7.0743,-10.2177,-11.2404,-2.7689,10.2042,-16.6913,-2.3337,-11.1363,-5.2968,7.7318,-7.1148,
-0.86172,4.2779,-2.734,-4.6783,4.4953,3.534,11.4972,-1.7363,-1.5898,-1.1093,3.6319,9.121,-3.3374,-0.30094,
-4.4706,2.4093,-7.1944,-5.6481,18.3256,17.422,24.9074,-13.1259,12.6055,9.5174,17.514,22.6738,-8.0026,1.1182,
4.5197,10.1434,1.9593,3.4128,3.1261,2.2767,9.3129,-3.6163,-2.2508,0.43512,2.3632,7.2133,1.1996,-9.8702,
-3.3438,10.4986,-3.3404,-10.1688,-11.1615,-11.9599,-5.3459,-0.74781,-16.2157,13.9064,-11.8786,-7.3195,-4.0541,1.3273,
9.1489,2.8788,3.3675,-0.6406,-24.5918,-25.3423,-19.1251,-4.8008,-29.3428,1.7438,-25.2659,-20.9803,-0.67779,-11.5268,
1.6103,0.53719,-1.4136,-1.8072,-9.0163,-9.7218,-3.8776,-4.7534,-13.4822,4.7724,-9.65,-5.6215,-4.7347,-10.594,
1.0921,3.9393,-3.679,-4.6512,5.6247,4.9615,10.4551,-3.926,1.4267,1.5337,5.029,8.8158,-7.403,-7.006,
1.9907,4.667,-2.4942,-3.408,17.8808,18.7638,23.9278,-2.7263,10.0783,-2.8969,0.087659,20.519,-5.9948,-5.6215,
-4.4559,4.8093,-0.95841,-8.4461,2.708,3.538,8.3921,-3.1048,-4.6264,9.991,-14.0176,5.1879,-3.6468,3.8147,
0.39101,-1.9874,0.78609,-2.3959,-11.5545,-10.7743,-6.2114,-4.6059,-18.4488,0.35322,-27.2765,-9.2234,-4.633,-8.2245,
-3.7298,-3.073,-4.8047,-6.8315,1.8529,3.9722,8.2612,-4.5706,-4.6278,-0.39133,-12.9259,4.0441,-4.596,-1.7055,
-3.506,-2.8886,-4.5164,-6.4216,15.8417,17.8338,21.8656,-4.2963,9.7499,8.4295,1.9497,17.9015,-4.3202,-1.0005,
-0.0418,-8.8617,-4.6068,-3.9875,19.3501,30.8638,31.2793,-7.2924,23.2649,-1.7169,15.9327,30.9274,-0.80717,-13.4741,
-5.5225,3.9022,-2.824,-0.31366,4.0891,16.298,15.3025,3.8106,9.155,10.6183,2.2628,16.3578,4.3633,-0.4335,
1.3765,1.4386,-3.3176,-6.2601,-10.2562,1.2201,0.28439,-1.4195,-5.4943,-0.44338,-11.973,1.2763,-3.7925,-6.9752,
3.4633,-2.7453,-2.8774,-5.6438,-3.9767,-12.9531,-12.3865,-0.12928,7.5494,0.30635,1.4594,-8.502,4.3891,-7.2798,
0.90552,-4.9306,-5.0547,-7.6552,10.3619,1.9241,2.4567,-2.4715,21.1964,5.53,15.4718,6.1082,1.7757,-4.493,
8.9558,-1.8327,1.425,-1.9833,20.6768,15.6375,16.1381,-3.3776,33.7535,-8.9018,28.3724,19.5705,-1.3134,-9.9779,
-2.458,5.3572,-0.85986,-5.028,5.6073,0.8704,2.4859,-1.5175,19.0444,-2.1012,13.9861,5.7124,1.3868,-2.2992,
3.2935,2.8062,-5.8096,-5.3893,-8.8291,-13.2818,-11.7632,-2.0894,3.8017,3.5086,-0.95307,-8.7304,1.1225,-4.8727,
5.265,-1.4595,-5.702,-5.3069,-22.3994,-26.5849,-25.1574,-2.2055,-10.5264,-0.3173,-14.9959,-22.3065,0.33223,-4.3394,
2.5388,-3.7823,-7.7702,-7.3988,-6.9554,-10.8898,-9.548,-4.4835,4.2052,4.1605,0.0038631,-6.8682,-2.0981,-0.5841,
12.7508,3.1936,3.0603,3.1685,7.5619,3.8636,5.1249,-0.35765,18.0529,-2.9583,14.1036,7.6439,-0.043982,-3.0799,
0.17537,6.8586,-1.7033,-8.1091,-3.3766,-1.008,-9.2225,1.1098,2.8697,3.3653,-0.84259,0.85843,-4.8618,3.2509,
1.8521,3.3136,-1.3601,-7.3816,-17.274,-15.0475,-22.7691,-3.536,-11.4025,-0.33135,-14.892,-13.2931,-4.8111,1.9713,
5.3561,2.3916,-0.55538,1.9796,-29.1323,-28.2447,-35.503,-1.1549,-24.8183,-4.891,-28.0985,-26.5955,0.057098,-1.2802,
-1.7743,10.5034,-6.7284,-4.3456,-13.2843,-12.45,-19.2728,-5.8458,-9.2292,9.5025,-12.3126,-10.8998,-6.7554,11.8721,
3.3787,-0.62652,-1.2782,0.9617,-0.14978,0.63451,-5.7789,-0.4485,2.5171,-3.5557,-0.38128,2.0917,-1.3035,-2.9402,
-2.5331,-0.99582,-7.0313,-5.8901,13.9592,14.6964,8.6678,0.49753,16.4661,8.7842,13.7416,16.0662,-3.0784,-0.051888,
2.1984,4.6078,-2.9942,-4.3316,0.78416,2.9232,-4.1898,-2.1841,3.1406,10.9085,0.5796,10.4775,-6.027,-1.7362,
5.6817,-1.6945,3.6931,3.3998,-13.3629,-11.3522,-18.0384,-2.7762,-11.1478,-3.0026,-13.5552,-4.2511,0.3604,-4.7653,
-5.7462,8.5303,-3.7591,-3.5528,1.5389,3.4289,-2.8561,0.28313,3.621,11.2775,1.3581,10.1039,6.1231,9.6206,
2.0699,-3.3097,-5.7027,-5.5088,-12.6535,-10.8768,-16.7847,-0.93915,-10.6962,-3.4991,-12.8234,-4.6023,3.1046,-2.4053,
-2.6335,-0.46001,-4.1552,-5.9012,2.2058,3.8758,-1.6776,2.2507,4.0455,10.8108,2.046,9.7738,-0.69705,7.139,
-2.4755,1.4958,-3.9059,-5.5471,16.1734,17.7433,12.523,0.18745,17.9028,9.0778,16.0233,23.2874,-2.5834,8.6389,
2.207,-5.2675,-2.1504,-0.68034,1.103,2.5787,-2.3284,0.73307,2.7286,-5.5669,0.96189,7.7902,2.1055,-3.8556,
-5.3517,6.5426,-2.0965,-2.2812,-13.0632,-11.6761,-16.2887,1.0959,-11.5351,5.613,-13.1958,-6.7772,2.2657,10.4757,
0.27204,-7.95,-5.8271,-3.1086,-26.3794,-25.0755,-29.4113,-4.7545,-24.943,-0.14695,-26.5041,-20.4706,-5.1011,0.010324,
-1.1903,-0.60359,-7.4059,0.93449,-10.6966,-9.471,-13.5467,0.35174,-9.3464,7.0929,-10.8138,-5.1424,-0.45644,8.6866,
-1.1189,1.2403,-6.9615,0.87842,4.0452,5.1973,1.3661,0.33063,5.3144,6.6674,3.935,9.2662,-0.42905,8.1654,
-1.0518,1.1659,-6.5439,0.82572,-6.9231,18.9855,15.3842,0.3108,4.2724,-3.3736,4.4218,14.2538,-0.40331,-2.4474,
-4.1221,5.7957,-1.0895,-2.8392,-20.6077,3.7463,0.36112,0.050722,-10.084,7.5543,-9.9435,-0.70142,2.272,8.425,
3.838,-4.193,-4.3986,-3.1508,-33.4712,-10.5785,-13.7605,-5.255,-23.5789,2.4011,-23.4469,-14.7593,-4.1308,-3.5295,
5.0539,0.39738,-4.6166,-2.4798,-20.7374,4.1563,1.1651,1.3273,-11.4386,11.416,-11.3145,-3.1482,-0.50854,-2.3534,
4.7507,0.37353,-4.3396,-2.3311,-5.3932,18.0069,15.1952,1.2477,3.3477,10.7311,3.4643,11.1407,-0.47803,-2.2122,
2.4169,-7.4823,-2.0305,-0.86553,9.0304,31.0265,16.9349,-9.0707,17.2468,-4.0128,17.3565,24.5722,-2.9801,-6.0564,
-3.1512,5.0179,-0.34201,-3.8265,-5.6114,15.0649,1.8188,-2.3803,2.112,6.833,2.2151,8.9979,0.45281,6.3582,
6.1967,0.25779,-2.2499,-1.6685,-19.3747,0.060984,-12.3903,-2.7197,-12.1147,-7.6769,-12.0178,-5.642,-5.3592,-1.3744,
4.1377,-1.4449,-1.874,0.60034,-4.1122,-14.0427,-25.7469,-3.7618,-18.7391,-8.9036,-12.8633,-19.4035,-4.3147,-0.56904,
3.4075,-1.8401,-2.2435,0.082384,10.2345,0.89989,-10.1021,-4.018,-3.5148,1.8745,2.0085,-4.1393,-4.5378,1.9962,
5.131,-3.6582,2.4704,3.4521,23.7204,14.9459,4.604,-2.3309,10.7961,-6.5538,15.988,10.2091,-4.7477,-4.0289,
-4.3354,5.7204,3.5277,0.35294,8.1972,-0.050861,-9.7722,-1.7086,-3.9517,3.842,0.92874,-4.5034,-3.9809,6.2155,
3.3965,3.6904,3.0751,1.0547,-6.3946,-14.1478,-23.2859,-2.8114,-17.8146,-0.84707,-13.227,-18.3332,-5.9112,-2.4729,
0.30042,-7.1366,-0.48362,-1.419,-9.2647,-18.2397,-30.3245,-2.6425,-30.8457,-5.6167,-26.5334,-31.3332,-4.5924,-3.2886,
0.2824,-6.7084,-0.45461,-1.3338,5.3912,-3.0453,-14.405,-2.4839,-14.895,8.5789,-10.8414,-15.3532,-4.3169,2.0907,
3.3988,-3.1725,2.706,1.8796,19.1677,11.2374,0.55927,-4.9863,0.09874,-0.73312,3.9091,-0.33205,-0.92448,-6.3501,
-4.0361,5.6948,1.0973,-0.64345,18.9818,3.8145,-2.3666,-1.3126,-5.3299,10.2775,3.5543,6.3165,-3.2793,4.9976,
0.54466,1.4965,1.9956,0.35925,3.7428,-10.5144,-16.3246,-3.1623,-19.1101,11.7095,-10.7589,-8.1625,-5.4929,11.0847,
3.6603,-6.5317,5.0241,1.5578,-10.5817,-23.9835,-29.4451,-7.537,-30.1202,-1.7522,-24.2134,-21.7727,-3.4608,-3.6804,
2.4615,7.9602,2.7792,-1.9249,4.1532,-8.4445,-13.5784,-4.6895,-14.213,12.4529,-8.6606,-6.3664,-2.7865,7.9893,
6.7125,-0.4261,5.9266,2.5892,15.2923,3.4505,-1.3754,-0.0094271,-2.4691,-2.3943,-3.9835,-10.504,-0.26906,-6.59,
-2.1865,0.38249,-0.87639,1.6504,28.4748,17.3435,12.8071,-2.2386,11.779,-0.096499,10.3555,4.2262,-4.7721,4.2902,
4.6936,7.5904,4.4788,-0.85875,15.378,26.1244,9.327,-5.4787,-0.31603,2.8014,-1.6541,8.0099,-3.5219,5.4786,
9.9709,-0.32155,6.3946,0.89483,0.35529,10.457,-5.3326,-3.4475,-14.3971,-11.4667,-15.6549,-6.5707,0.32014,-3.7529,
-3.9594,6.2503,0.030408,-0.80102,14.2531,13.8668,-6.278,-3.4366,0.38591,3.1404,-0.79643,2.1991,-3.2694,10.5723,
6.2207,-2.6205,4.5477,7.1407,-0.52122,-0.88439,-19.8205,-6.9059,-13.5564,0.96392,-14.6678,-11.852,-2.4105,-1.2846,
1.2681,-0.29414,2.1057,1.1691,13.6101,13.2687,-4.5313,-6.2506,1.357,5.9678,0.31227,2.9591,-2.5068,7.2286,
5.5302,2.6158,2.4615,0.13482,26.8935,26.5726,9.8406,-2.9833,15.3756,2.235,14.3935,16.8816,-4.2848,3.9021,
13.0316,-1.1566,8.3389,7.96,11.1798,10.8782,-4.8499,1.2931,0.35303,-5.3709,-0.57008,1.7687,0.552,-7.6602,
-1.3679,7.3487,3.2595,2.0595,-3.5909,-3.8745,-18.6589,-3.8459,-13.7682,9.0514,-14.6359,-12.4375,-4.0606,6.8994,
7.632,-2.492,6.1972,6.5154,-17.4755,-17.742,-31.6393,-2.8921,-27.0421,3.5673,-27.8577,-25.7912,-4.5401,-2.3119,
-1.5028,-5.7171,0.52297,-1.5885,-2.327,-2.5775,-15.641,1.1381,-11.3195,-2.9135,-12.0863,-10.1437,-2.8217,-1.691,
-1.4126,-5.0124,0.4916,-1.4932,11.9127,11.6771,-0.60251,1.0698,3.4596,0.033144,2.7389,4.5649,-2.6524,4.0743,
0.96201,-2.4218,2.752,0.88628,20.2364,25.0765,13.5336,3.2955,10.8443,-9.8508,-2.8485,5.3758,-0.20337,2.625,
-3.555,4.4722,1.502,-0.73364,4.9223,9.4719,-1.3784,-2.8078,-3.9063,2.5504,-16.7776,-9.0467,-3.2042,14.2776,
5.3352,-6.4017,4.7861,-0.20792,-9.4731,-5.1964,-15.3957,-4.0853,-17.7719,-3.5079,-29.871,-22.6039,-2.5298,-0.67902,
-2.6979,-6.4993,-0.32151,-1.6415,2.9054,7.5282,-1.6975,-2.8761,-4.8955,-4.7435,-16.2686,-9.4376,-1.8958,0.32582,
-2.536,-4.3018,-0.30222,-1.543,16.8311,21.1765,12.5044,-2.7036,9.4982,1.2055,-1.1925,5.2287,-1.7821,1.6318,
-1.5403,-6.6948,0.55953,-0.60679,29.9212,32.9213,25.8541,-3.8669,23.0283,-2.4823,12.9791,19.015,-0.83153,-5.9379,
-5.9067,3.9507,0.88787,-0.20847,14.026,16.846,10.2029,0.342,7.5466,10.923,-1.8997,3.7741,-0.42018,7.6748,
3.1246,0.33898,2.2806,0.76767,-0.91559,1.7353,-4.5093,-2.5708,-7.0062,-3.8323,-15.8857,-10.5524,-2.8053,0.82705,
-4.7756,-6.9122,-1.7131,-0.24226,12.0341,-12.4688,-11.5901,-3.3809,-16.3472,-6.0125,-19.3914,-24.0192,-1.1907,1.2598,
-4.4891,-6.4975,-1.6103,-0.22772,25.412,2.3793,3.2053,-3.178,-1.2664,5.3147,-4.1279,-8.4781,-1.1193,4.9199,
-3.2555,-5.1434,-0.54945,0.75015,23.2848,16.3365,17.113,-2.0231,12.9096,-8.3811,10.2198,6.1306,-0.087935,-2.9677,
-3.7835,1.1909,1.6528,-0.0181,7.7877,1.2563,1.9862,-1.1787,-1.965,5.2575,-4.4934,-8.3372,-1.2878,9.5028,
-1.628,-1.2909,-1.3387,1.429,-6.7796,-12.919,-12.2329,-1.5902,-15.9471,1.6883,-18.3238,-21.937,-2.6566,-0.70859,
-2.4947,-6.5161,-5.1147,-0.10298,-12.6394,-26.2439,-25.599,-1.0124,-29.0903,-6.1257,-31.3244,-34.7208,-0.087074,-1.148,
-2.345,-6.1252,-4.8078,-0.096805,2.2189,-10.5693,-9.963,-0.95163,-13.2449,5.6905,-15.3449,-18.5375,-0.08185,4.103,
-0.39658,-3.9499,-2.7117,1.7167,16.1858,4.1649,4.7348,0.91318,1.6498,-6.4611,-0.3242,-3.3253,1.7308,-8.9176,
-3.3856,-0.45921,0.70478,0.52913,21.9635,3.7945,2.8842,1.702,-7.7287,2.7239,-5.2457,-14.3335,-0.90391,3.7893,
0.1918,-1.3953,4.0372,0.49761,6.5457,-10.5332,-11.3889,-1.7748,-21.3649,4.9709,-19.031,-27.5735,-2.2957,10.3106,
-2.4708,-13.1222,-0.7848,-4.112,-7.947,-24.0012,-24.8056,-3.8375,-31.2908,-4.2455,-31.9891,-40.0191,1.4575,-4.4081,
-8.5893,1.7652,-1.2194,-1.4549,6.6298,-8.4611,-9.2172,5.0696,-15.3133,10.1093,-15.9698,-23.5179,5.7086,5.8593,
-1.8978,-9.1569,0.69112,3.3623,5.0566,0.99429,-4.537,2.2645,-3.5184,-4.5973,-4.1354,-11.2307,1.4188,-8.5923,
-5.3087,-2.4913,-1.9113,1.082,18.8532,15.0346,9.8353,1.0139,10.7927,9.7786,10.2127,3.5432,1.6653,3.9744,
-0.41071,-0.17246,-1.5554,0.29392,13.3538,15.0668,16.928,-2.6621,21.2023,10.9995,2.339,10.0493,-2.0498,5.3024,
1.0149,-7.9202,1.3851,3.6054,-1.5474,0.062758,1.8123,-2.5477,5.8301,-3.7604,-11.9014,-4.6536,1.4023,-9.1157,
-4.3033,4.1695,1.3473,1.0243,2.5225,-6.569,-12.3964,-1.8671,-8.6197,10.0833,-4.3179,-14.3768,0.88107,5.5312,
8.8496,-2.1067,6.8096,8.4342,-11.7288,-20.2748,-25.7526,-0.55024,-22.2025,-4.6217,-18.1588,-27.6142,-3.2691,-4.6826,
-0.59936,1.5148,-0.22681,0.81788,3.0749,-4.9583,-10.1075,0.085302,-6.7703,-2.4163,-2.9693,-11.8574,-2.9524,2.9498,
-5.2633,3.2317,-2.2622,-2.2436,16.9904,9.4392,4.599,-2.9327,7.7359,1.9466,11.3089,2.9541,1.9246,5.5445,
5.0552,-5.1569,3.6586,7.8936,1.871,-5.2272,-9.7769,1.582,-6.8283,-12.1495,-3.4697,-11.3232,2.2911,-4.9111,
1.0159,9.2525,3.9207,8.5044,-1.375,-19.0136,-23.2903,8.7177,-20.5186,2.6795,-17.3615,-24.7438,-4.5951,9.4836,
11.8008,1.1046,6.819,7.2712,-15.3925,-31.9727,-35.9929,6.9894,-33.3875,-3.6278,-30.4198,-37.3591,-5.5242,-0.60635,
3.9826,-1.8537,0.62527,0.086034,-0.36894,-15.9544,-19.7333,3.196,-17.2842,-1.4815,-14.4946,-21.0176,-4.7108,-1.5338,
3.0205,4.1626,-0.13538,1.1657,13.7532,-0.89712,-4.4493,2.2811,-2.1472,8.3689,0.47507,-5.6565,-5.1513,7.8377,
2.8393,0.65906,-0.12726,1.0957,18.1102,10.9668,7.3868,2.1443,12.0817,-0.20771,14.5466,8.7829,-4.8422,1.7031,
-0.5848,8.4528,7.7136,8.1401,2.9236,-3.7912,-7.1564,9.8489,-2.7432,7.638,-0.42623,-5.8441,-2.8644,9.4342,
3.5476,3.0044,5.2021,4.5182,-11.3519,-17.6637,-20.827,1.9066,-16.6786,-0.65353,-14.5007,-19.5935,-5.8261,-1.8572,
-3.6549,0.65522,2.2387,4.4883,-1.3912,-7.3244,-10.2979,-0.37673,-1.5779,-1.8194,0.46938,-10.5846,0.54927,4.28,
-3.4356,0.61591,2.1044,4.219,12.7922,7.2151,4.42,-0.35412,12.6168,-1.7102,14.5412,4.1505,0.51632,5.5897,
-3.2294,0.57895,1.9781,3.9659,26.1247,20.8822,18.2548,-0.33287,25.9598,-7.1512,27.7687,18.0014,0.48534,4.8927,
-0.62531,4.4004,2.8235,5.6559,10.4572,5.5293,3.0595,6.9177,10.3022,5.9316,12.0026,2.8214,-1.9541,17.2529,
2.0633,-2.3711,0.96688,7.4857,-4.2702,-8.9025,-11.2241,2.8872,-4.416,-0.81176,-2.8175,-11.4479,-4.488,2.1177,
2.1807,-1.5057,3.0783,6.3139,8.6397,-22.4683,-4.8865,7.2935,-14.997,-1.0038,-11.8075,-24.861,0.36081,-9.3376,
1.7485,-1.7167,2.5922,5.6337,22.2214,-7.0202,9.5067,6.5546,0.0027862,3.2141,3.0009,-9.2694,0.037839,-8.476,
1.975,-1.2823,2.7681,5.6271,33.8131,6.0848,21.8613,6.4927,12.9276,-11.0787,15.7459,3.9706,0.36696,-10.6488,
-6.3685,-1.7176,-3.2129,-2.4536,29.1029,-7.2053,7.6246,1.2521,-0.77304,-4.3283,1.8761,-9.1927,-4.988,-1.3631,
1.9676,1.0368,2.0418,-0.13699,13.2567,-20.873,-6.9329,0.45432,-14.8267,0.51091,-12.3364,-22.7411,-0.59114,-6.3427,
-0.078891,-4.8102,0.95521,4.6917,-1.6387,-33.7206,-20.6169,5.2475,-28.0371,-2.894,-25.6963,-35.4766,1.3728,-7.8906,
-2.4242,1.2028,-1.4521,2.0602,12.5597,-17.5974,-5.2799,3.4263,-12.2548,11.3797,-10.0545,-19.248,0.26593,6.6828,
-0.66678,-7.7418,0.24695,3.5485,15.768,-4.3847,7.3745,-0.83144,0.81804,-3.4031,2.8864,-5.9363,1.8619,-7.8181,
-4.9502,-0.51364,0.72901,0.94043,2.4843,4.6909,10.9843,1.6437,13.9801,8.0088,12.0679,8.5199,2.8497,1.5692,
-3.4481,-4.0985,-0.5198,-1.2854,-11.7647,-9.6905,-3.7748,2.2682,-0.95875,2.1051,-2.7562,-5.3532,1.4737,0.27003,
0.61519,-11.0834,3.3678,3.6125,-25.1588,-23.2091,-17.6483,1.1678,-15.0012,-12.0005,-16.6908,-19.132,6.2055,-9.3876,
-3.7603,3.6816,2.2016,2.4311,-9.5493,-7.7165,-2.4894,3.5081,-0.0011539,2.8196,-1.5894,-3.8841,1.4951,5.2757,
6.9502,1.1711,8.0951,11.2033,-3.252,-2.7947,-6.5581,6.913,-10.9678,-10.2445,-4.748,-4.6152,2.6102,-8.8997,
-3.2285,-4.2016,1.3426,2.3367,11.0431,11.4729,7.9354,-0.73234,3.7902,2.4214,9.6369,9.7617,0.52563,-2.5809,
1.5449,-1.298,2.4674,-0.45509,10.0191,24.8846,21.5593,-0.92937,17.6628,1.0709,14.4821,23.276,-2.6394,-3.6313,
11.093,-1.7023,8.5861,5.357,-4.6821,9.2915,6.1657,7.8028,2.5031,-11.0447,-0.48687,7.7795,3.7857,-6.3057,
-2.1056,7.0765,2.2859,-2.1952,-13.9216,-5.366,-6.617,0.10379,-11.7471,3.718,-9.9784,-6.7873,-1.2621,8.1726,
11.6988,1.8915,10.4041,9.0835,-27.1863,-19.144,-20.32,1.1222,-25.1423,-2.8321,-23.4797,-20.4801,0.32012,-6.4178,
4.3084,-1.1746,5.863,4.1397,-11.4552,-3.8954,-5.0008,1.9587,-9.5338,5.9545,-7.9709,-5.1512,-2.6516,-3.1404,
-2.2168,-1.3448,3.8242,-2.6159,3.3322,10.4383,9.3993,0.63608,5.1383,5.8384,6.6074,9.2578,-1.7694,-2.7108,
2.9174,-0.9627,8.596,2.5422,-8.9793,-2.2995,-3.2763,5.5991,0.19044,-6.262,-5.9006,-3.4092,3.338,-8.5137,
-4.91,4.3372,-1.0183,0.039573,-22.5406,-16.2616,-17.1797,0.98487,-13.921,6.2253,-19.6466,-17.3047,0.78756,4.1087,
8.8818,-0.26155,5.3095,4.8577,-35.2881,-29.3859,-30.2489,2.3723,-27.1857,-7.7663,-32.5678,-30.3664,1.7044,-6.8634,
-0.81018,-3.1384,-0.79411,-1.2184,-21.0593,-15.5112,-16.3224,4.6401,-13.443,-8.2642,-18.5022,-16.4328,1.1202,-5.9696,
-3.1115,-4.4561,-3.0963,-3.4951,-5.6957,-0.48049,-1.2431,2.0118,1.4636,1.3304,-3.292,-1.3469,-1.2969,-3.2616,
-0.45428,-5.2134,-0.44008,-0.81495,8.746,13.6483,12.9315,-2.6286,15.4757,-3.6305,11.0055,12.834,1.2514,-5.5363,
-5.1269,3.1742,-1.2572,-4.984,-5.8788,-1.2706,-1.9444,-5.0013,0.4472,10.5668,-3.7548,-2.0361,0.81476,8.7752,
-0.57102,-3.3733,-3.2,-1.883,-19.626,-15.2943,-15.9277,-1.4173,-13.6796,-4.1672,-17.6296,-16.0139,1.6397,-5.8513,
-2.3749,-7.4192,-1.9536,-1.1975,-4.3485,-8.4714,-0.87204,0.20449,1.2411,-4.8808,-2.4718,-0.95308,2.1137,-6.4643,
-4.1606,-5.4073,-3.7646,-3.0539,10.0124,6.1369,13.2803,-1.736,15.2667,4.2091,11.7765,13.2041,0.058732,-0.17092,
-1.0187,-2.1906,-0.64642,0.021647,23.5117,19.8687,26.5835,1.2605,28.4507,-10.1434,25.1699,26.5119,2.9475,-6.066,
-5.5368,2.8816,-2.2949,-1.6669,8.001,4.5766,10.8885,2.8716,12.6436,3.6011,9.5597,10.8211,1.5654,5.6262,
-1.348,-4.5219,-0.22921,0.84349,-6.5791,-9.798,-3.8648,-2.6031,-2.215,-3.2432,-5.1138,-3.9281,-1.4209,-2.9063,
2.1071,-1.8402,5.0874,6.0953,-14.8614,-15.2359,-13.2739,-0.036556,-16.1821,-4.0127,-18.907,-17.7924,-1.3354,-2.7322,
1.3179,-2.3926,4.1194,5.0668,0.13027,-0.22176,1.6225,-0.69714,-1.1112,5.568,-3.6726,-2.6249,-1.918,-1.9055,
5.0348,-2.7918,4.2938,6.6306,14.2224,13.8915,15.6252,3.1407,13.0555,-2.419,10.6478,11.6326,1.9931,-5.5872,
-4.4263,3.1608,-0.30213,-1.4795,-0.7309,-1.0419,0.58765,2.4703,-1.8278,8.6929,-4.0911,-3.1654,0.42724,5.7148,
3.3113,5.1401,4.7774,0.29625,-14.787,-15.0794,-13.5476,1.1171,-15.8181,-3.5181,-17.9456,-17.0754,-3.696,-0.050979,
10.1023,3.6266,4.2496,4.858,-27.9998,-25.0207,-26.8348,4.6652,-28.9691,-12.7072,-30.9689,-30.1509,5.926,-1.253,
0.27688,2.9873,-5.2247,-4.6528,-12.2198,-9.4195,-11.1247,-4.2315,-13.1309,-2.7255,-15.0108,-14.2419,-3.6488,6.1128,
9.2383,3.471,4.3081,4.8457,2.3724,5.2457,3.6428,5.2416,1.7569,-10.0938,-0.010121,0.71266,5.7894,-4.6783,
-3.8492,3.7444,-2.9403,-3.3993,16.33,19.031,17.5242,1.1912,9.846,4.6118,14.0905,14.7699,-1.5479,6.6894,
0.96126,0.86841,-4.4508,-4.4004,1.2502,3.7891,2.3728,-5.8699,-4.8448,-0.36536,-0.85494,-0.21629,-4.1063,-0.21921,
3.7956,-3.522,5.4572,3.0945,-12.9248,-10.5382,-11.8696,1.7131,-18.6541,-4.6818,-14.9036,-14.3033,5.781,-9.847,
-7.2781,5.1257,2.4789,-3.1165,1.9507,4.1941,2.9426,2.8154,-3.4348,9.6991,0.090572,0.65488,1.819,4.8438,
5.2097,-4.8233,3.776,0.44449,-12.2663,-10.1576,-8.4419,3.6104,-4.0721,0.56058,4.9056,1.8207,1.7098,-5.9316,
-7.395,-7.185,-3.9224,-8.5002,2.5697,4.5519,6.1646,1.7065,10.2722,12.3375,18.7113,15.8114,1.8482,0.93174,
-5.2641,-5.5486,-2.9637,-7.7488,14.5873,18.3788,19.8947,-3.939,23.7559,10.8744,31.6886,28.9627,0.050102,2.5635,
1.0771,-10.2776,-0.61695,-4.1511,-0.38796,3.176,4.6011,-3.462,8.2305,-3.8781,15.6873,13.125,0.77023,-5.0623,
-6.4589,1.1853,-7.0874,-10.8914,-8.4391,-11.1145,1.7944,-1.0851,-6.3633,8.5262,0.64605,-1.7625,1.4469,9.3414,
2.8012,-7.8489,-7.4306,-5.2213,-22.0328,-24.5477,-12.4133,-6.6082,-20.0815,-6.0854,-13.4927,-15.7568,1.0741,-5.3191,
-2.5037,-0.10186,-4.0474,-3.417,-6.6108,-8.9748,2.4315,-8.0951,-4.7766,-4.8764,1.4169,-0.71137,-2.3195,5.1232,
-2.233,12.6782,6.5598,1.3674,7.8858,5.6637,16.3856,-1.1019,9.61,9.1545,15.4318,13.4313,-2.4213,10.8414,
-2.099,7.4587,6.1662,1.2853,2.8334,5.2034,16.1256,-1.0358,-0.36662,-5.4948,6.5522,6.5999,-2.2761,-1.4988,
-4.3835,9.5421,-3.845,-4.0942,-7.3393,-8.1845,2.0824,-0.97339,-13.4203,2.7886,-6.9166,-6.8718,0.27087,8.9553,
4.5566,3.185,-0.72177,0.0078145,-20.9989,-21.7934,-12.1425,0.53128,-26.7151,-8.1045,-20.6016,-20.5595,0.25462,1.0666,
-4.3936,-1.3447,-2.6069,-0.95675,-5.639,-11.146,-2.0742,0.49917,-15.7724,-1.3514,-10.0258,-9.9861,0.23911,0.52046,
-4.13,-1.264,-2.4505,-0.89935,8.7994,3.6227,12.1502,0.46922,-0.72606,4.8759,4.6758,4.713,0.22476,2.7791,
-2.3155,-1.7906,-3.3878,-0.0015427,22.3714,17.5054,25.5212,-1.1252,13.4175,-9.3962,18.4952,18.5302,1.778,-4.1363,
-5.4305,6.3911,-8.6077,-4.4607,6.9291,2.355,9.8899,-0.21432,-1.4875,3.7009,3.2855,3.3184,1.7918,8.6451,
-1.2481,-7.49,-7.1271,-5.1572,-7.5866,-11.8863,-4.8034,-4.54,-15.4983,-1.4619,-11.0116,-10.9807,-2.1723,-2.117,
-4.7886,-7.7635,-6.9404,-6.0526,6.9686,2.9269,9.5848,-2.5804,-0.4684,-2.0976,3.7491,-2.4886,1.5735,-1.2671,
-4.5013,-2.5977,-6.524,-5.6894,20.6505,16.8513,23.1097,-2.4256,13.6597,6.1027,17.6241,11.7607,1.479,3.509,
-4.2312,-5.2136,-8.0608,-5.3481,30.2577,29.9402,35.8231,-2.28,26.9401,-8.3634,30.6667,25.1551,1.3903,-6.7042,
-4.2185,4.0175,-9.7465,-5.7503,14.3422,14.0438,19.5737,7.7389,11.2237,5.5155,14.7267,9.5458,6.8507,7.798,
3.1448,-2.1292,-4.4617,-4.0797,-0.6183,-0.89883,4.2993,-1.0408,-3.5497,-8.9155,-0.2569,-5.127,1.0164,0.58153,
4.523,-0.43457,1.7113,3.5161,-2.0275,-0.122,-9.2151,0.10621,-16.1112,-9.1037,-14.3415,-15.6656,1.558,1.6312,
-0.3279,-4.6266,-2.9709,-1.2743,12.1942,13.9853,5.4378,-4.4797,-1.0445,0.23992,0.619,-0.62567,-3.115,0.20775,
7.4046,-2.3003,-0.38254,1.2122,25.5625,27.2462,19.2116,3.5019,13.1182,-8.813,14.6819,13.5119,4.3027,-7.397,
-4.8501,4.3454,-4.9391,-7.7783,9.9288,17.1755,14.9254,-0.32389,-1.7689,0.031174,-0.29905,12.9424,0.91131,1.3622,
3.1539,5.5312,-2.7143,-5.3832,-4.7669,2.045,-0.070131,-3.1963,-15.7628,-6.5989,-14.3811,-1.9342,-0.10746,-0.045048,
8.0264,3.5121,0.58201,1.4477,-17.7371,-12.1777,-14.1659,4.9492,-28.917,-9.8184,-25.4489,-15.9181,4.4787,-5.104,
1.2778,4.3855,-5.7199,-4.9061,-2.5729,2.653,0.78403,-1.6147,-13.082,4.8707,-9.8219,-0.86304,-2.057,2.5533,
10.6014,7.8585,4.0235,4.7885,11.6815,16.5938,14.837,3.3029,1.8029,-8.5572,4.8674,13.2887,2.4048,-3.0228,
-0.15806,8.1101,-2.4848,-3.2121,25.0806,29.6982,26.48,-1.9567,15.7947,-3.9466,18.6754,26.5914,-1.8366,7.5227,
5.8772,15.5775,0.7975,1.5602,9.4758,28.037,10.7912,2.7402,0.74706,-4.9149,3.4548,10.8959,-0.52138,6.3482,
16.1294,15.1248,8.9448,12.5538,-5.1928,29.247,4.2387,11.7348,-13.3978,-11.3685,-10.8525,-3.8578,6.7407,-2.7098,
3.8936,10.0593,-2.8599,0.53251,9.2188,41.5922,18.0844,-0.23734,1.5061,0.099327,3.8987,10.4736,-4.9318,6.3107,
14.928,16.2648,8.5797,10.5633,13.9679,31.9863,13.2634,8.3934,-3.5252,-10.4513,-7.4227,0.20403,5.9088,5.0283,
9.6339,14.6266,3.6665,5.5311,27.2298,44.1672,26.5676,3.4913,10.7863,-10.0047,7.1227,14.2918,1.1558,1.1718,
6.2237,12.7243,-1.7962,-3.1766,39.696,55.6171,39.0735,-4.612,24.2391,-9.4652,20.7953,27.5343,-6.8073,-3.2976,
14.4068,17.5044,6.868,5.5705,23.9375,38.9033,23.3524,4.2213,9.408,-8.656,6.1708,12.5055,2.1576,3.89,
3.2986,17.4185,0.551,-3.5612,14.9088,22.4691,7.8512,0.47316,-5.2565,4.3965,-8.2994,-2.3449,-5.323,11.3695,
16.9595,15.6498,7.0252,10.5113,-0.085697,7.021,-6.7198,8.3983,-19.0411,-9.1239,-21.9014,-16.3042,6.8067,-3.4127,
12.2662,11.0351,2.9279,6.2049,14.0194,20.6997,7.7833,4.2186,-3.7986,-4.9007,-6.4874,-1.2259,2.7225,-1.0994,
1.1062,6.3362,-8.5154,-7.1223,27.2783,33.5578,21.4163,-8.9893,10.5293,-3.9438,8.0019,12.9476,-10.3957,0.11176,
9.5359,13.1265,0.49158,1.8011,18.4711,45.6443,34.2314,0.04605,14.5373,0.088818,10.2333,26.2708,-1.2759,5.8293,
-0.97834,6.6145,-7.5518,-2.3442,3.2628,28.8056,18.0775,-2.9089,-0.43494,8.4593,-4.4807,10.5945,-1.2599,8.4322,
11.9151,8.3268,5.1334,4.7263,-11.0329,12.9773,2.8928,5.6413,-14.5088,-6.1483,-18.3118,-4.1411,4.7812,-4.9082,
6.078,7.164,2.716,-0.5587,3.729,26.2987,16.8193,1.2652,0.46168,-4.3331,-3.1131,10.2073,2.8673,0.50773,
3.966,4.9868,0.80568,-2.2725,17.6053,38.8207,29.9101,-0.55802,14.534,-2.3258,11.1737,23.6949,0.94795,-1.1494,
2.4023,1.4338,-0.56833,-3.4618,7.2693,48.0005,40.1065,-1.8502,24.9903,-11.3454,21.8316,36.3732,-0.43459,-7.8294,
-9.3712,0.80557,-8.7892,-8.1351,-7.2668,31.0205,23.6001,0.12876,9.3908,0.4828,6.4217,20.0908,-0.46876,3.7878,
-1.3371,-2.8582,-4.1645,-2.5853,-20.9308,15.0593,8.0841,-4.9402,-5.2726,1.5386,-8.0636,4.7854,-2.1279,-0.17491,
-5.8364,-4.8561,-6.5659,-0.26125,-10.8171,0.055707,-6.501,-4.403,6.1912,2.1695,3.5677,17.875,-1.759,-0.88801,
-5.4862,-4.5647,-6.172,-0.24558,3.9319,14.1524,7.9891,-4.1389,19.9197,2.0393,17.4536,30.9025,-1.6535,-0.83472,
3.2786,-1.1574,5.5263,3.3846,0.92395,27.4032,21.6097,4.5456,32.8246,-9.4113,30.5064,43.1483,9.7737,-1.5075,
-9.391,4.6365,-0.52949,-3.0249,-13.2315,11.659,6.2132,0.47661,19.7075,-3.1221,17.5284,29.4119,2.4987,4.3074,
-0.69273,-0.88394,-2.4858,-1.4575,-26.5376,-3.1405,-8.2596,-3.9507,4.425,1.4639,2.3767,13.5471,-2.0499,3.145,
-1.3741,-3.9639,0.31443,0.31765,-39.0453,-17.0521,-21.8641,0.38419,-9.9405,-1.7574,-5.78,-1.3657,1.2066,0.30516,
-3.1596,-5.594,-1.5724,-1.5694,-24.1691,-1.929,-6.4522,-1.5068,4.756,0.21595,8.6668,12.8163,-0.73373,-1.5811,
1.549,-9.8984,2.5591,1.5976,-8.619,12.2868,8.0349,0.21012,18.5706,-7.6905,22.2468,26.1473,10.0963,-2.7518,
-11.017,-5.8701,-6.2112,-5.1868,-22.2019,-2.5504,-0.52174,-0.22452,10.587,-1.5049,35.012,13.8529,7.1403,3.1376,
-9.2113,-8.7111,-7.5859,-8.0692,-34.9697,-16.4974,-14.5904,-3.4042,-4.1482,6.5998,18.8113,-1.0783,-1.302,3.2509,
-7.935,-15.1781,-6.8895,-6.8619,-46.9716,-29.6076,-27.815,-1.513,-11.0696,-1.2683,3.5826,-15.1136,4.32,-2.0056,
-8.423,-4.5062,-7.4403,-7.4143,-30.0533,-13.7311,-12.0461,-2.3863,3.6946,12.9078,17.4676,-0.10676,6.5912,12.2147,
-6.9535,-6.5254,-6.7529,-6.0054,-15.9578,-1.7598,1.0293,-1.279,17.5729,-1.2435,29.6757,12.2523,7.1598,-2.6182,
-7.9828,1.8198,-8.0349,-3.2347,-0.90031,12.0839,15.0675,1.69,30.6185,12.9311,41.9952,25.6172,9.0201,8.144,
-9.6732,-0.45874,-5.3835,-5.6919,-14.9463,-2.7411,0.063494,0.38356,16.6094,15.4088,29.2321,22.9955,7.7557,7.8961,
-6.2006,-12.0002,-5.5426,-6.3145,-28.1495,-16.6767,-14.0403,3.2528,1.5128,0.38423,13.3782,7.5158,7.2902,-5.5929,
-6.3105,1.2529,-5.2101,-5.9356,-12.3605,-8.9272,0.9021,4.022,15.5221,14.4612,26.6755,21.1649,7.3352,8.8427,
-1.5933,-12.9223,-5.8615,-4.6154,-25.7189,-22.4915,-13.252,-5.3786,0.49073,-0.5065,10.975,5.795,2.0746,-5.3057,
-7.7644,-3.3491,-4.5458,-4.3383,-10.0758,-7.042,1.6431,3.6215,14.5613,13.6239,24.4165,19.5473,7.7349,9.1126,
-6.5754,-2.9075,-4.9961,-6.2473,4.6288,7.4805,15.6445,1.7167,27.7876,22.2065,37.0515,32.4744,4.1371,12.5425,
-3.0476,-15.5072,-3.4913,-5.1494,-9.749,-7.0683,0.60584,-2.9658,12.0204,6.7741,20.7284,16.426,3.6477,-2.31,
-8.6494,-0.4768,-1.3536,-2.4303,-10.61,-20.7442,-13.5305,5.4068,-2.6804,14.0806,14.1818,2.425,11.1416,6.5059,
-3.5509,-5.6304,-6.3339,-1.0794,-24.0734,-33.5996,-26.8187,-1.4253,-16.6196,-0.86421,-0.76911,-11.8205,3.9658,2.8616,
-3.3378,-3.8463,-5.9538,0.91401,-8.529,-17.4836,-11.1096,2.999,-1.5224,8.5879,13.377,2.9887,7.1023,6.5463,
-3.2881,-2.9222,-5.7472,0.70862,6.0827,-2.3346,3.657,2.6685,12.669,11.176,26.6744,16.9094,6.5256,6.0029,
-2.9403,-3.6811,-5.2518,0.57569,-3.8025,-6.5328,-1.3824,2.659,23.8399,-3.5945,15.5537,24.9336,6.2847,-4.5706,
-6.1381,6.06,-1.5624,-2.5926,-17.6744,-20.2409,-15.3995,3.4635,8.3095,5.8098,0.52048,9.3376,9.7637,5.2239,
2.6659,-3.3422,-3.6379,-2.678,-30.7139,-33.1264,-28.5755,-3.2522,-6.2891,3.6535,-13.6108,-5.3227,4.5982,-4.1281,
1.3009,-3.8643,-1.2502,-4.6867,-14.7711,-18.2441,-13.9663,0.076169,6.983,4.6398,0.1006,7.8914,3.5996,-4.1211,
1.2228,-3.6324,-1.1752,-4.4055,0.2152,-3.0495,0.9717,0.071599,20.664,10.2662,14.1946,21.5179,3.3836,1.0671,
1.6916,-8.1747,-0.56247,-3.599,14.242,4.4246,14.9531,-4.2105,33.4639,-4.3892,27.3826,34.2666,3.7228,-13.0969,
-3.0496,2.4991,-1.7941,-3.2021,-0.65223,-9.8806,0.016211,-0.88513,17.4163,6.0575,11.6999,18.1709,9.4645,-2.5496,
5.8107,0.54146,-0.72232,-3.9741,-14.7131,-23.3878,-14.0848,-3.7239,2.2713,7.7427,-3.1021,2.9806,6.0048,-1.3119,
3.5336,-5.7578,-1.1611,-3.2535,-21.1819,-36.0845,-2.7553,-1.0905,12.8606,2.9396,7.8096,-11.2982,9.9826,-0.75143,
3.3216,-5.4123,-1.0915,-3.0583,-5.811,-19.8194,11.51,-1.0251,26.189,8.1863,21.441,3.4797,9.3836,-0.70635,
4.3276,-7.2567,-2.7132,-4.08,-6.3059,-4.5904,24.9194,-1.2046,38.7176,-2.3073,34.2546,17.3709,3.7594,-11.0278,
-0.27085,-2.1216,-0.13983,-3.3533,-20.0276,-18.415,9.3242,3.206,22.2946,2.5309,18.0993,2.2286,5.462,-5.6664,
6.2533,1.7416,-1.3367,-1.9468,-32.9259,-31.4101,-5.3352,-0.60174,6.8569,2.7405,2.9133,-12.0051,2.0008,3.2302,
3.9499,-5.1113,-2.7028,-0.38375,-44.4477,-43.6255,7.0362,2.3269,-1.0263,7.3968,-8.3485,-15.1412,9.5935,4.9646,
3.7129,-4.8046,-2.5406,-0.36073,-27.6808,-26.908,20.714,2.1873,13.1353,21.053,6.2524,-0.1327,9.0179,5.9923,
6.533,-6.7762,-0.30922,-4.5271,-11.92,-11.1935,33.5712,-3.0958,26.4471,5.8405,19.9773,13.9753,1.3968,-8.3769,
-0.51746,1.3129,-0.68218,-1.7549,2.8952,-24.6219,17.4569,2.4825,13.7733,8.8339,17.8148,27.2367,7.188,-4.2288,
0.23672,4.4881,-0.88244,-1.4084,-11.3785,-37.2446,2.3095,-0.79969,-1.1531,21.1988,2.6459,11.5025,3.1411,5.0635,
-2.4286,-6.627,-1.0705,-1.083,-24.7958,-49.1099,-11.9291,-2.9209,-15.1839,5.8269,-11.6128,-3.2876,-2.1086,-6.0866,
-3.8496,7.8706,0.19883,-2.223,-9.208,-32.0633,2.8867,-0.094292,-0.17286,19.5772,3.1839,11.0096,0.18682,8.3786,
-2.0519,-3.5686,-0.29527,-1.6075,-16.1274,-18.269,15.2467,-5.8734,13.9375,4.3026,14.4416,24.4491,-2.7167,-6.2241,
-5.7854,2.1889,-1.9645,-5.1267,-1.0597,-3.0729,28.4319,-4.316,27.2013,6.937,27.6751,37.0821,-3.2768,3.7901,
1.7923,5.9142,1.0456,-2.4087,-15.0961,-11.0837,12.867,-5.0211,11.4692,3.0256,11.9146,21.6008,-2.598,5.0092,
4.8181,-5.2871,-0.22218,-1.0591,-28.2904,-24.5187,-2.005,-8.335,-3.319,-11.2559,-2.9003,6.2048,-5.0935,-8.066,
-3.4245,9.1301,0.51428,-1.7187,-12.493,-8.9475,7.395,-4.7017,1.339,3.5194,4.3838,19.9325,-5.9929,6.5179,
1.6017,-0.45581,-0.96284,-0.16934,-25.8434,-22.5107,-7.1487,-8.276,-12.8414,-10.7918,-9.9792,4.6365,-7.0792,-7.9732,
3.1923,5.5971,-0.18217,-0.88208,-10.1928,-7.06,7.3802,-1.7539,2.0291,2.7509,4.7196,18.4583,1.2993,3.5927,
1.5246,4.267,-3.5756,-7.608,4.5188,7.4636,21.0374,-5.053,16.0074,0.62772,18.5364,31.4508,-7.4857,-4.3656,
10.8029,1.9323,6.0087,2.2183,-8.5869,-5.5776,6.9406,3.7768,2.2123,-5.8274,4.5896,16.7292,1.0077,-13.4136,
0.81533,8.2638,0.6471,-1.4701,-21.8704,-19.343,-7.5758,1.3205,-12.0204,7.3569,-9.7858,1.6255,2.092,0.22581,
8.4792,-3.3193,-0.35605,-0.41757,-34.6582,-32.2824,-21.2213,1.7232,-25.3992,-5.7383,-23.2986,-12.5721,3.4127,-4.7287,
5.6808,1.9413,0.38844,-1.1156,-18.4787,-16.2455,-5.848,10.5381,-9.7752,8.706,-7.8007,2.2822,6.3412,6.4015,
5.3399,8.2121,0.36514,-1.0487,-3.2699,-1.1707,8.6029,9.9058,4.9113,21.9222,6.7673,16.2453,5.9607,12.8866,
0.92208,3.6219,-3.7542,-5.0833,11.0263,12.9995,21.5238,5.214,18.7166,6.5069,19.3165,21.4769,1.5056,4.0386,
1.6501,9.9725,-1.902,1.7897,-3.7353,-1.8805,6.1324,10.3845,3.4936,7.6228,4.0575,6.0883,5.4524,10.3642,
11.4934,-2.1346,-1.0046,0.89906,-17.6112,-15.8676,-8.3356,0.42134,-10.816,0.11548,-10.286,-8.377,-1.8043,-2.1279,
6.7062,-1.7654,-0.22122,0.12198,-7.034,-0.81557,0.96204,-1.2909,3.933,1.7955,-0.87133,0.92305,3.3659,-2.241,
6.3038,-1.6595,-0.20794,0.11466,7.488,13.3334,15.0043,-1.2135,17.797,1.6878,13.281,14.9677,3.164,-2.1065,
7.854,-5.8984,0.2867,-1.3382,21.1387,26.6334,28.2041,-1.1404,30.8292,-6.6084,26.5841,28.1696,1.5276,-12.5856,
3.4053,0.72181,2.077,-2.8249,5.7704,10.9354,12.4118,3.1456,14.8794,0.054452,10.889,12.3794,4.2078,-5.5641,
7.6606,1.6428,1.109,-1.0887,-8.6758,-3.8208,-2.4329,-2.2249,-0.11335,-6.2149,-3.8643,-2.4633,-1.2264,-6.1938,
4.3085,-2.7941,-0.40383,0.42289,2.4498,-12.8107,4.8234,-2.0914,-3.2999,-7.2883,-4.717,-15.4512,-2.1171,-8.2323,
4.05,-2.6265,-0.3796,0.39752,16.4028,2.058,18.634,-1.9659,10.9981,-4.0794,9.666,-0.42414,-1.9901,-7.7383,
5.253,-5.3616,1.0892,-3.001,29.2777,15.7935,31.375,-11.0072,24.1972,-17.9347,22.9451,13.4603,-10.0656,-18.8439,
2.0453,7.614,2.4701,-2.3386,13.662,0.98687,15.6335,-3.1164,8.8863,-4.9275,7.7093,-1.2063,-0.30313,-5.0593,
1.1997,4.3856,0.15275,-0.029088,-1.2577,-13.1723,0.59548,-2.688,-5.7468,1.7551,-6.8532,-15.2339,-2.4536,-2.2247,
2.3328,-0.45703,1.3486,2.624,-15.2823,-20.0952,-13.5403,0.60656,-19.502,-3.4121,-20.542,-28.4199,-2.0657,-9.5632,
1.8916,-0.73082,0.96652,2.1653,-0.26535,-4.7895,1.3722,0.26896,-4.2319,-1.4594,-5.2095,-12.6147,-2.243,-8.6882,
8.1049,3.2294,6.2712,0.16723,13.8506,9.5979,15.3898,-8.8462,10.122,-11.0733,9.2031,2.2422,0.36222,-6.2987,
2.0752,8.5793,0.3513,-1.0476,27.1195,10.2273,3.2585,-3.2537,1.6812,-2.3344,9.9762,16.2077,-0.38241,2.1536,
5.5656,4.4491,1.5355,-2.1901,11.3924,-4.4864,-11.037,-5.2277,-12.5197,-3.5204,-4.7224,1.1352,-6.3855,-0.74784,
10.2938,0.0848,6.987,1.5568,-3.3912,-18.3172,-24.4748,-2.2625,-25.8685,-9.8166,-18.539,-13.0329,0.023661,-7.2105,
5.0967,5.9848,1.9883,-3.1162,10.9123,-3.1181,-8.9063,-2.9706,-10.2164,4.8724,-3.3267,1.8491,-2.7498,7.3222,
5.3632,-3.3222,5.8157,1.7407,12.2761,8.608,-5.0278,-0.1711,4.2254,-1.4756,3.1098,15.5669,1.4827,-7.2172,
-6.9798,-3.9364,-5.9516,-10.0233,25.6396,22.1915,9.3739,-5.3127,18.0719,5.0302,17.0232,28.7329,-4.2405,-2.4458,
4.6467,4.0125,1.154,-1.7091,12.5621,34.8696,18.9647,-0.17366,16.6563,10.513,3.9804,22.5799,-2.0579,-0.3704,
10.3932,-5.1461,7.5925,3.9368,-2.2916,18.6775,3.7268,1.5242,1.557,-2.892,-10.3585,7.1251,4.5733,-8.3021,
-1.0764,5.5268,2.5574,-3.771,-1.5517,5.385,1.2133,-2.1829,1.5838,11.3815,4.363,6.8178,3.5758,6.296,
10.9489,2.0916,4.603,3.957,-15.5586,-9.0381,-12.9595,-1.781,-12.6112,1.449,-9.9987,-7.6912,-0.70621,-8.1818,
5.0799,2.6593,-0.76452,-0.88984,-0.52507,5.6042,1.9181,-0.49902,2.2454,6.3936,4.7012,6.8702,-2.3808,-1.6653,
-2.6967,2.7407,-4.816,-6.862,13.6064,19.3679,15.903,-6.9766,16.2107,1.9126,18.5191,20.558,-1.515,-0.36057,
5.9613,6.6136,3.8486,2.0459,3.4505,4.7688,1.5117,0.37144,1.801,-6.6983,5.899,5.8874,4.5414,-5.4606,
3.6151,15.918,-0.17845,-1.0296,-9.2295,-9.6174,-12.679,1.3737,-12.4071,5.2126,-8.5549,-8.5658,-6.2761,6.3759,
9.183,3.876,2.2426,-0.0037709,-22.7758,-23.1403,-26.0183,0.3272,-25.7627,-7.513,-22.1416,-22.1519,-3.9711,-3.5269,
2.968,7.4998,-2.2307,0.96078,-7.3092,-7.6519,-10.3572,0.7895,-10.1169,-1.2776,-6.7131,-6.7227,3.9799,2.4693,
2.7899,7.0498,-2.0969,0.90313,7.2293,6.9072,4.3643,0.74213,4.5901,3.74,7.7897,7.7806,3.7411,2.3212,
1.1765,-1.5681,-3.4171,-0.59708,20.8956,20.5928,15.9732,-0.74843,18.4147,2.0696,20.1572,21.4138,2.0706,-4.5668,
1.9493,5.6361,1.1263,-2.0075,5.5418,5.2572,0.91484,4.1167,3.2098,9.0555,4.8478,6.029,3.3922,2.8173,
4.7248,1.0799,1.5411,-1.4051,-8.8907,-9.1582,-13.24,2.9059,-11.0828,5.6197,-9.5431,-8.4328,-0.66773,-2.0517,
-1.5842,-5.0105,-1.6849,0.84833,5.2608,5.4913,-1.9611,1.5262,3.6822,7.4521,1.5141,6.1732,0.095695,0.72295,
-4.8636,-8.0843,-4.9582,-2.577,19.0452,19.2618,12.2566,-1.9398,17.5613,4.7151,15.5232,19.9028,-3.2845,-2.6949,
-1.3333,-11.5912,-6.7245,-6.8962,18.2487,32.2061,25.6212,-7.7435,30.6076,-6.4293,28.6918,32.8086,-5.6335,-10.8639,
-2.9853,-4.0715,-2.7508,-4.3585,3.0537,16.1737,9.9839,-0.45473,14.6711,0.78063,12.8703,16.7401,1.5287,-3.3879,
7.4972,4.187,1.4516,-0.54205,-11.2295,1.1033,-4.7151,-0.12646,-0.30913,1.0352,-2.0019,1.6357,1.256,0.49085,
2.2274,-0.8847,2.3286,-1.4736,-4.1534,-7.5795,-6.4809,2.7739,-14.3906,1.4553,-15.9818,-12.5624,0.69892,1.9079,
2.0937,-0.83162,2.1889,-1.3852,10.1958,6.9752,8.008,2.6074,0.57285,1.368,-0.92286,2.2913,0.65699,1.7934,
4.619,-4.3973,3.2622,-2.9895,23.684,20.6567,21.6275,-6.4673,14.6385,-4.2579,13.2325,16.2538,-2.9981,-11.4501,
2.7151,6.6527,5.7785,1.83,8.163,8.752,9.6645,1.9349,0.50378,6.7838,-1.1193,2.0222,4.7141,-2.5081,
2.4917,4.3854,1.033,-0.75036,-6.4268,-5.8731,-5.0153,-1.1337,-13.6264,17.042,-15.1521,-12.1991,-5.2702,8.3077,
2.5834,-3.3493,0.72978,-0.46414,-20.1412,-19.6207,-18.8144,1.1037,-25.5231,6.6193,-27.0777,-25.5672,-0.85641,0.33762,
2.4284,-3.1484,0.686,-0.4363,-5.7969,-4.3435,-3.5855,1.0375,-9.8917,6.2221,-11.353,-9.9331,-0.80502,0.31736,
12.4056,8.1278,9.8039,7.3027,8.6509,10.0171,10.7296,0.97525,4.8018,-2.3459,3.4282,4.7628,7.438,-8.3788,
-1.6553,8.3029,1.6837,-4.0419,12.2897,-4.6839,-0.76056,-0.34868,2.0435,2.9167,10.8751,7.2492,-4.8785,-2.7542,
5.4943,8.588,1.884,-2.5342,-2.5477,-18.5029,-14.8149,1.4194,-12.1792,5.3324,-3.8774,-7.2857,-0.91052,7.715,
9.7439,2.5291,3.9401,3.1615,-16.4949,-27.4556,-28.026,-0.83496,-25.5484,0.43317,-17.7447,-20.9486,4.6877,-4.0761,
5.3029,7.8004,-0.15267,-0.8846,-1.4052,-11.7082,-12.2445,-3.5564,-9.9155,14.5072,-2.5801,-5.5917,0.55008,9.3044,
4.5028,-0.50083,1.3028,3.0249,-4.5142,-8.7159,-20.9699,0.51334,0.98317,0.98301,9.5657,6.7348,-2.8569,-4.3898,
-5.77,0.49308,-7.4525,-5.8337,9.8566,5.9071,-5.6117,-4.9406,15.0242,8.6363,23.0918,20.4307,-4.1322,0.69383,
0.7222,4.802,-2.1849,-2.591,23.3652,19.6527,8.825,-4.162,26.0536,8.6008,8.8116,28.4842,-2.9197,-3.204,
9.115,0.41657,2.526,6.4821,7.8633,4.3735,-5.8045,4.5234,10.3904,-2.7615,-5.8171,12.6751,2.7991,-7.1091,
-0.3502,13.1658,0.68695,-1.3784,-3.3343,-0.34795,-11.3615,2.565,-4.3331,11.5042,-0.04544,2.876,4.3181,7.4175,
8.5891,0.083562,1.3689,-1.5369,-17.2342,-14.4271,-24.7799,-4.0966,-18.1731,-3.2861,-14.1427,-11.3965,2.854,1.5491,
7.8328,0.1988,1.0458,-1.6856,-2.1002,0.53855,-9.1931,-0.83804,-2.9827,5.7084,0.80585,3.3873,2.8034,9.7715,
-4.9745,3.8779,-8.4621,-6.2089,12.1258,14.6062,5.4585,-1.9174,11.2963,12.9134,14.8575,17.284,-3.7971,8.0556,
2.3584,4.052,-0.91962,1.1984,5.3725,7.7041,-0.89477,5.2323,3.6286,6.2784,7.9403,15.7651,3.4655,3.1583,
-1.3985,9.8347,-3.5155,3.7776,7.822,-6.8582,-14.9411,7.57,-10.6891,11.9274,-6.6361,0.71916,6.873,8.9946,
10.4958,3.0981,-0.65328,0.8996,-6.7473,-20.5467,-28.1446,3.982,-24.1478,-2.6475,-20.338,-13.424,5.7375,3.7551,
7.3354,0.98402,1.3141,-1.0826,7.7575,-5.2139,-12.3559,1.2125,-8.5989,1.3678,-5.0177,1.4814,5.8751,7.3862,
3.3403,-2.63,-2.3197,-4.5726,21.392,9.199,2.4854,-2.4152,6.017,0.98465,9.3834,15.4926,1.9676,3.388,
0.9703,-7.2929,-4.3501,-6.4678,22.4584,20.5176,14.2069,-4.4399,17.5266,-6.6671,20.691,26.4336,-0.31999,-9.8311,
1.9367,1.3999,1.1533,0.12697,7.0109,5.1866,-0.74552,4.0817,2.375,1.9881,5.3495,10.7476,7.9544,-0.98603,
3.5074,-4.5892,-1.0853,2.2887,-7.5097,-9.2246,-14.8008,-3.1526,-11.8675,-4.0363,-9.0715,-3.9973,3.7412,-3.9394,
-2.0054,-5.2779,-3.9125,5.0437,3.3652,1.7532,-3.4884,1.3746,-0.73109,-0.41986,1.8972,3.5334,4.4808,1.117,
-5.9824,-9.0586,-7.7751,0.64373,17.2633,15.748,10.8209,-2.8052,13.4128,-4.492,15.8833,17.4214,0.11464,-3.0474,
0.88421,-5.8638,-4.6572,-3.0105,10.2021,28.9031,24.2716,-5.7702,26.708,-2.535,29.0303,30.4761,-4.9537,-16.6026,
-2.7242,3.3457,0.74388,0.36359,-4.51,13.0689,8.7153,0.17968,11.0055,6.4747,13.1885,14.5476,-0.016709,-6.7489,
-0.69307,-1.1334,-0.32509,2.21,-18.3394,-1.8152,-5.9076,-1.8193,-3.7548,5.6643,-1.7028,-0.42529,-4.4145,-2.4276,
-0.41006,3.032,-0.064618,2.8003,-7.9595,-8.9371,-12.784,2.3872,-17.6295,-0.21922,-15.7006,-14.4998,-0.53421,-3.4867,
-0.38546,2.85,-0.060741,2.6322,6.6181,5.6991,2.0831,2.244,-2.4717,-0.20606,-0.65859,0.47021,-0.50216,-3.2775,
8.7967,-2.1412,-1.021,1.9924,20.321,19.4571,16.0581,-2.7109,11.7766,-10.7985,13.4809,14.542,2.9024,-4.0452,
1.279,2.4461,-0.71874,2.1138,10.5451,4.1897,0.99461,1.9105,-3.03,-5.6918,-1.4279,-0.43052,4.4155,0.65631,
2.8893,7.4812,2.9396,0.29998,-4.1876,-10.1617,-13.1651,-2.1812,-16.9482,2.2418,-15.4423,-14.5047,-6.2135,-0.94958,
3.4393,1.0068,3.4866,1.0049,-18.0363,-23.652,-26.4752,-3.7371,-30.0313,-1.5077,-28.6157,-27.7344,-4.1535,-1.6155,
3.0521,0.76556,3.0965,0.76375,-2.8542,-8.1328,-10.7867,-3.6937,-14.1295,9.8504,-12.7988,-11.9703,-4.0851,-1.3377,
10.2804,4.7566,7.4297,5.2373,11.4171,6.4551,3.9605,7.7958,0.81831,2.3298,2.0691,2.8479,4.5353,-5.7769,
-4.4364,2.3625,-2.8376,-4.8988,24.8321,11.3102,17.8229,-4.904,9.2654,5.263,15.1418,16.777,-4.5939,-2.3572,
3.7837,7.4632,-0.31744,0.63749,9.2421,-3.4684,2.6535,-1.2956,-5.3906,14.167,0.13332,1.6704,1.406,8.2085,
7.2924,-0.93834,3.799,1.8045,-5.4124,-17.3603,-11.6057,6.7359,-19.1671,1.5064,-13.9747,-12.5298,3.9728,-2.4071,
3.0587,7.7344,2.0645,-2.0999,9.0124,-2.2187,3.1907,2.5356,-3.9171,15.516,0.9638,2.322,-0.061747,11.8373,
4.9841,-1.5875,0.7956,2.0632,5.3381,-2.9896,-10.8598,-8.0411,-17.7821,0.48505,-13.194,-1.1916,-6.1443,-2.9729,
1.0699,2.6053,-1.4211,1.2163,19.1178,11.2897,3.8918,0.39532,-2.6152,5.7584,1.6976,12.9799,-0.71372,5.8823,
-12.2507,-11.2898,-9.7719,-12.1131,29.4197,24.4714,17.5173,-7.5821,7.9661,0.35164,12.1401,26.0601,-10.0709,-4.3525,
1.8162,-8.3673,3.1824,2.7137,13.8708,9.2194,2.6825,2.3483,-6.2956,0.64704,-2.372,10.7128,3.8653,-3.293,
2.3551,5.9185,0.7468,0.020052,11.8789,-5.4338,-3.2174,3.8191,-15.5134,14.3919,-0.014664,-4.03,2.353,10.6883,
13.783,2.5504,4.0764,1.947,-2.9339,-19.2078,-17.1243,3.1076,-28.6826,-0.57157,-14.1138,-17.8882,-1.1631,-3.0889,
8.7381,0.22799,2.1444,-1.785,11.3422,-4.0005,-1.9969,0.75219,-12.8617,6.9341,0.83304,-2.7601,-1.3341,5.0504,
1.4652,-6.5344,-4.7329,-8.4265,24.7616,10.3396,12.223,-6.0416,2.01,1.3366,14.8831,11.5055,-8.0027,-2.0013,
5.2338,-2.2858,-0.59246,-4.0645,16.1659,9.328,4.3796,-1.8226,5.8664,-0.79243,8.3256,8.4958,-3.666,1.9753,
-0.50396,4.9614,3.0586,-1.6518,1.096,-5.3317,-9.9832,2.3838,-8.5856,6.3651,-6.2739,-6.114,3.5435,8.9668,
7.4805,-1.0004,5.5262,3.509,-13.0698,-19.1118,-23.4842,-5.713,-22.1704,-4.0194,-19.9975,-19.8471,2.6075,-4.4661,
0.28251,-1.9045,0.85607,-0.07575,0.36779,-5.3117,-9.4218,-1.996,-8.1868,0.077895,-6.1442,-6.0029,2.9332,1.1043,
-1.2404,-3.2962,-0.70122,-1.5771,14.4457,9.107,5.2435,-3.3822,6.4044,-1.4327,8.3244,8.4573,1.2513,-0.46793,
-2.3715,-13.2217,-1.8647,-2.688,9.6622,19.9491,16.3175,-5.1079,17.4087,-15.3265,18.3701,19.3384,-5.5727,-13.9377,
-0.30064,0.46661,4.0321,0.3652,-5.0175,4.6522,1.2384,1.7066,2.2642,-1.5118,3.1679,4.0781,-3.5514,-0.20636,
5.321,-1.3091,4.0912,2.5729,-18.8164,-9.727,-12.9359,0.45895,-11.9717,-3.6508,-11.1222,-10.2666,-2.0731,-2.4236,
-3.9163,-2.4358,0.2303,0.24938,-4.2502,4.2939,-9.5688,-0.29149,2.1838,3.5581,2.9824,-2.7211,-0.26145,0.8553,
-7.5377,-6.1461,-3.6399,-3.622,10.1048,18.1363,5.1054,-4.1304,16.1528,-0.51173,16.9035,11.5422,-4.1021,-3.0524,
-4.4341,-9.3925,-2.6984,-7.5022,22.3934,29.943,17.694,-7.0158,28.0786,-14.581,28.7842,23.7446,-6.9893,-11.7876,
-7.1205,0.39045,-3.5607,-2.7737,6.9498,14.0464,2.5323,2.5038,12.2939,-6.5359,12.9571,8.2199,-3.2554,-1.8609,
1.8028,0.54763,-0.15368,2.0324,-7.5672,-0.89635,-11.7196,-0.71955,-2.5438,5.1241,-1.9203,-6.3733,-5.6517,1.3239,
3.3816,-0.69075,2.0249,-0.25894,-14.7057,-14.9426,-25.1164,0.046753,-12.2733,1.6834,-15.9051,-20.0909,0.23125,4.8596,
3.1787,-0.64931,1.9034,-0.24341,0.27669,0.053983,-9.5094,0.043947,2.5631,1.5824,-0.85077,-4.7854,0.21737,4.568,
0.81904,-8.5639,1.0661,0.49433,14.3601,14.1507,5.1611,-1.6461,16.5093,-5.9841,13.3003,9.6017,-0.5188,-8.4803,
-1.8212,-0.1563,1.7855,1.73,4.1587,-0.73806,-9.1883,3.5743,2.4431,2.2686,-1.2968,-5.0142,5.5983,-0.077714,
0.63775,3.2875,1.136,0.1199,-10.1908,-14.7938,-22.737,0.88972,-11.8035,5.5665,-15.319,-18.8133,1.8275,4.3253,
0.35897,-1.9709,2.2731,2.7638,-23.6794,-28.0061,-34.5689,4.9337,-25.1953,0.6537,-28.4998,-31.7845,4.8514,-1.4774,
-1.5908,-3.4194,0.20853,0.66978,-8.1586,-12.2258,-18.3948,2.7095,-9.5836,12.5451,-12.6898,-15.7774,2.6321,5.7216,
7.1813,-3.0938,3.5705,3.5221,6.4309,2.6078,-3.1911,5.4394,5.0914,3.7182,2.1716,-0.7308,6.8129,-2.6964,
-7.3496,-7.4881,-7.9722,-10.7892,11.2875,15.1653,11.1004,-2.8409,15.2103,10.6052,16.1413,13.413,-0.58594,1.563,
0.62358,4.109,4.0152,-2.4894,-3.4898,0.15537,-3.6053,4.1386,0.19768,15.2112,1.0728,-1.4917,9.6327,11.6527,
4.5029,-3.4288,3.3522,-0.95417,-17.3804,-13.954,-17.489,-0.026482,-13.9142,0.19851,-13.0916,-15.5022,5.6199,1.7342,
0.22586,10.877,3.6035,-2.8551,-2.2376,0.98328,-2.3396,-0.53683,1.0207,14.2866,1.7939,-0.4721,1.2759,15.7301,
2.7881,1.9244,5.3605,-0.10799,2.3709,-13.1757,3.058,-1.9059,-13.1406,-0.6706,-12.4137,-14.5438,0.4009,0.6863,
2.38,3.978,2.9903,-2.15,16.3287,1.7148,16.9745,2.3062,1.7479,4.0247,2.4311,0.42886,3.5103,6.686,
-6.9372,-1.5787,-6.0018,-11.9183,29.4489,15.7119,30.056,-5.5603,15.743,0.87528,16.3852,14.5031,-6.3567,2.4131,
3.6623,-2.3875,4.0596,-0.65829,15.5554,0.66922,16.126,2.5464,0.69841,-6.8297,1.3021,-0.46706,2.7622,0.88243,
1.2131,10.9518,4.961,-3.21,12.513,-9.3733,1.0585,4.9844,-13.4435,7.1378,-12.876,-13.5149,6.6334,14.3872,
8.4616,0.26178,7.1639,0.44751,-2.3378,-22.9109,-13.105,3.3295,-26.7369,4.5101,-26.2034,-26.804,7.2898,-0.57604,
5.0314,-0.86872,3.8116,-2.5018,11.9025,-7.4363,1.7813,1.533,-11.0327,9.3913,-10.5312,-11.0958,3.9299,2.0496,
2.5303,-3.0158,1.3837,-4.5509,25.2883,7.1099,15.7744,-0.75813,3.7293,6.6286,4.2006,3.67,1.4949,-0.27254,
1.7456,-3.4677,0.66779,-4.9107,18.3479,14.2756,7.8982,-1.3455,13.7491,5.598,6.6604,17.5498,0.77233,-0.88907,
-2.336,4.8148,0.025305,1.53,3.147,-0.68095,-6.6757,6.8097,-1.1758,13.3366,-7.8392,2.3968,6.8725,7.2387,
4.7941,0.067355,1.2286,0.71525,-11.1418,-14.7401,-20.3752,-1.4319,-15.2053,1.3289,-21.4689,-11.847,-1.4936,-1.0291,
0.16786,1.5093,2.119,-0.29176,1.9396,-1.4428,-6.7398,-1.3463,-1.8801,2.6952,-7.7679,2.9638,-1.4042,3.3712,
-1.6499,-0.3889,0.18418,-2.0819,15.9232,12.7438,7.7646,-3.0732,12.3328,0.72582,6.7982,16.886,-3.1276,1.3613,
-6.7329,-5.5478,-5.0088,-7.139,27.7424,23.4279,18.7475,-8.0707,19.5466,-11.7303,14.8261,26.2371,-8.122,-11.1334,
-1.2674,7.1979,3.7276,-0.20293,11.9779,7.9223,3.5227,-0.11491,4.2738,1.3863,-0.16345,10.5629,4.7781,1.9473,
7.4855,6.1636,7.8425,1.2553,-2.8408,-6.6531,-10.7887,-1.554,-10.0826,0.2183,-14.2536,-4.1709,0.51481,6.5307,
4.867,0.73233,6.6488,-1.9533,9.9834,3.5076,2.5124,4.565,3.1761,-0.035994,-0.74469,-17.6592,0.72466,2.0413,
-4.5236,-8.4101,-2.8486,-10.9346,23.4844,17.3971,16.4616,-4.8074,17.0855,-9.1323,13.4,-2.4996,-8.4173,-7.1797,
-3.1076,-12.5456,0.87696,-7.6877,33.8854,30.4533,29.5739,-7.2308,30.1604,-9.3676,26.696,11.7504,-2.4294,-12.8352,
-6.822,-4.7273,-0.18439,-4.8612,17.7523,14.5261,13.6995,-0.092949,14.2508,-1.7401,10.9942,-3.0547,3.9384,-4.9996,
7.3706,4.6397,5.4152,1.0189,2.5872,-0.44548,-1.2225,0.68039,-0.70426,11.3042,-3.7654,-16.9714,2.5422,8.7226,
1.6257,-2.8695,3.162,-0.48845,-11.0656,-13.9163,-15.2491,2.0858,-14.0389,2.4307,-17.6395,-27.5225,-2.9135,5.7886,
1.5281,-2.6973,2.9723,-0.45915,3.6983,1.0186,-0.23417,1.9607,0.90346,2.2849,-2.4811,-11.7711,-2.7387,5.4413,
5.9559,-3.8006,2.0108,-0.73235,17.5764,15.0575,13.8799,-1.8326,14.9492,-6.83,11.7677,3.0351,-1.9112,-7.2375,
2.706,3.2965,4.7821,2.2035,17.426,2.645,1.2971,4.5437,2.5433,0.4488,-0.68832,-4.9199,3.024,0.06582,
1.1579,8.3408,2.1452,0.20326,2.2805,-11.6137,-12.8807,1.4392,-11.7093,-1.5664,-14.747,-18.7247,-4.81,3.3762,
4.9446,3.0199,5.8731,2.6014,-11.9564,-25.0168,-26.2079,5.209,-25.1068,-6.2934,-27.9622,-31.7012,4.1554,-0.68299,
1.2737,-0.53556,2.1465,-0.92889,2.861,-9.4158,-10.5354,1.5222,-9.5004,5.5333,-12.1845,-15.6991,0.53188,4.0582,
6.2587,2.1479,6.1148,5.1522,13.2343,5.2491,3.2932,0.22582,5.1697,-1.6681,2.6466,-0.65719,-2.6333,-3.5366,
-8.2168,-2.1994,-5.2185,-9.0159,19.7914,17.5279,5.6261,-8.344,17.4532,9.6396,15.0815,11.976,-7.6576,1.1343,
2.0377,5.0428,4.615,-1.3647,4.504,2.3762,-8.8115,2.6413,2.306,22.0766,0.076639,0.89297,5.8172,11.5509,
3.3617,-2.9721,4.8205,1.6097,-9.8663,-11.8663,-22.3828,6.3392,-11.9324,6.652,-14.028,-13.2606,8.2402,-0.22936,
-0.033645,10.5223,1.9399,-1.6805,4.8257,2.9456,-6.9398,3.8499,2.8836,8.9643,0.91372,1.635,4.5522,13.8844,
3.162,1.154,2.7274,1.3728,-7.7565,-11.3311,-20.6234,-0.77981,-11.3894,-5.6736,-13.2411,-12.5631,5.3033,4.0128,
2.6711,5.2428,2.2626,0.98919,6.8089,3.4488,-5.286,-0.43181,3.3939,5.6337,1.6534,2.2907,4.6839,8.8944,
-11.0168,3.934,-4.0496,-11.0312,20.0488,17.3418,9.1311,-9.1129,17.2903,-1.0012,15.6542,16.2533,-8.0401,-2.7569,
1.9366,4.7223,8.6062,2.0435,4.7458,4.8224,-2.4135,3.8467,4.774,-6.6652,3.236,4.8839,4.8551,-1.5671,
-6.5251,7.4819,-1.702,1.7705,8.6486,-9.5669,-16.3687,2.0192,-9.6125,4.1289,-11.0582,-7.0687,2.0028,8.9212,
1.5792,0.28404,1.7746,2.1462,-5.9703,-23.0929,-29.4865,-0.030128,-23.1357,3.2783,-24.4947,-20.7446,-2.4556,-2.3399,
-1.7696,8.7029,3.3551,0.8124,8.4879,-7.6073,-13.6174,0.21242,-7.6476,8.6254,-8.925,-5.3999,-4.4777,5.7545,
-7.8094,2.0348,-2.9922,-5.3823,22.0786,6.9491,1.2997,-5.9463,6.9113,1.9619,5.7105,9.0241,-10.355,-0.73677,
-7.2203,2.0332,-2.6921,-4.9388,11.4745,2.9472,15.2916,-5.469,7.7319,-3.3381,14.3159,6.4341,-9.6132,-2.9824,
-3.5332,9.8651,6.7488,0.90076,-3.314,-11.3296,0.27409,1.3668,-6.832,6.1416,-0.64301,-8.052,0.24303,6.476,
6.3198,0.59607,7.4285,4.7031,-17.2151,-24.7499,-13.8424,-2.5716,-20.5221,-7.1218,-14.7044,-21.6688,1.313,-2.9511,
0.75842,2.0063,2.6442,1.5286,-2.0822,-9.1649,1.0882,0.47495,-5.1908,-0.42779,0.27784,-6.2687,1.7159,1.0821,
-5.6742,-4.5011,-3.9015,-4.9502,12.1427,5.485,15.1229,-5.9406,9.2207,-6.7892,14.3612,8.2074,-4.7741,-5.3699,
-5.2734,-5.1348,-3.6071,-4.5928,23.2846,17.0264,27.2309,-6.006,20.5379,-17.4085,19.9471,19.5854,-4.4273,-17.5207,
3.8404,9.0323,7.9375,4.1184,7.7876,1.9048,11.4971,3.7546,5.2056,-2.505,4.6503,4.3103,1.8643,-2.6104,
9.455,6.5017,6.0755,4.8956,-6.7797,-12.3095,-3.2927,-2.1953,-9.2067,-2.4152,-9.7288,-10.0483,-2.5258,0.37829,
1.8978,2.9786,4.0237,5.3253,5.136,-1.2673,-3.6376,-2.3045,2.8546,-3.4755,0.31521,-10.7109,-1.6514,-4.2242,
-1.982,-0.96612,0.01634,1.2398,18.9278,12.9088,10.6807,-5.9322,16.7834,-7.033,14.3963,4.0317,-5.3183,-7.7367,
-1.2304,-10.3988,-3.6903,-3.0226,31.8922,26.2342,24.1398,-8.318,29.8764,-15.6192,27.6325,17.8898,-9.6691,-9.0499,
-2.4826,-6.4006,-0.094613,0.17152,15.8786,10.5602,8.5914,-4.4447,13.9838,-11.3079,11.8746,2.7164,-5.7147,-5.1327,
3.5717,6.2757,2.08,4.6203,0.82592,-3.4503,-5.3009,-1.0448,-0.23213,-3.1578,-2.9379,-10.8234,-2.2386,-2.1734,
5.0448,-0.60857,2.6783,5.0662,-13.3236,-17.3433,-19.0829,-1.7052,-14.3182,-13.332,-16.8616,-24.274,0.065104,-2.7661,
4.7421,-0.57206,2.5176,4.7622,1.5758,-2.2027,-3.8379,-1.6029,0.64089,-12.5321,-1.7499,-8.7176,0.061197,-2.6001,
4.9995,-3.3699,0.016339,5.9826,15.5812,12.0295,10.4924,-5.3028,14.7024,-17.5048,12.4551,5.9055,-1.8108,-4.312,
-6.6886,1.2314,-1.2494,4.8404,11.3926,7.0899,-4.2372,-1.9115,-0.27971,-12.0554,-2.3922,-6.3795,2.697,0.34588,
1.6664,5.8575,2.4405,4.309,-3.3909,-7.4355,-18.0829,-1.5558,-14.3629,2.7679,-16.3487,-20.0967,0.0043502,11.2912,
5.6636,-0.51968,1.571,2.8454,-17.2875,-21.0894,-31.098,-0.25741,-27.6011,-8.968,-29.4678,-32.9909,-3.1292,1.2139,
5.3238,-0.4885,1.4767,2.6747,-2.1502,-5.724,-15.1321,-0.24196,-11.8451,-0.35524,-13.5997,-16.9114,-2.9414,2.4669,
7.4145,1.9509,3.7983,4.9243,12.0788,8.7194,-0.12415,-2.6376,2.9656,-5.5161,1.3163,-1.7968,-0.35481,-2.3814,
-7.1304,-7.8071,-5.1063,-6.9403,23.4054,22.2963,13.2602,-12.1203,13.8749,-4.7032,15.2168,11.3262,-9.9745,1.136,
2.3362,3.0257,1.708,2.3942,7.9011,6.8585,-1.6354,0.89899,-1.0576,-1.2875,0.2038,-3.4533,-1.9042,10.4678,
9.1857,-7.52,0.40003,3.9375,-6.673,-7.653,-15.6373,-0.84194,-15.0941,-15.3103,-13.9084,-17.3461,-5.4051,-4.2603,
2.368,7.0312,4.7148,1.7731,7.8274,6.9061,-0.59908,1.1368,-0.088479,-0.29165,-5.1204,-2.2054,-3.635,10.0954,
10.8125,2.662,5.426,3.6251,8.4723,3.1473,-12.1023,3.5089,-14.1832,-13.5006,-18.9132,-16.173,-2.9048,-4.6104,
0.61309,-0.66072,-4.3295,-1.684,22.0639,17.0584,2.7238,-1.3114,0.76782,-4.7668,-4.6425,-1.1027,-11.1962,-0.83857,
6.1199,4.6816,5.0893,6.6117,34.8401,30.1349,16.6604,-4.1247,14.8218,-1.5882,9.7361,13.0635,-10.5244,1.1395,
10.4527,-1.3839,5.2658,8.6256,19.1017,14.6788,2.0127,-5.3235,-0.16755,-15.5929,-4.9481,-1.8203,-5.5546,-9.0518,
6.3309,12.7991,-2.04,3.0464,32.0556,4.5188,-12.208,-3.7988,-14.2575,-3.8111,-18.7512,-15.8111,-6.4266,5.5913,
17.038,4.9208,5.7954,8.166,16.0322,-9.8523,-25.5755,-4.053,-27.5021,-17.6824,-31.7261,-28.9624,-6.0408,-7.6391,
9.1468,5.8306,7.1347,4.0609,29.1703,4.8388,-9.941,-3.0867,-11.7519,-10.8369,-15.7226,-13.1247,-5.9195,-2.1188,
8.598,5.4808,6.7066,3.8172,41.5201,18.6485,4.7554,-2.9015,3.0532,-8.8609,-0.67922,1.7628,-5.5644,-1.9917,
8.0821,5.152,6.3042,3.5882,53.1289,31.6296,18.5701,-2.7274,-4.963,-16.1628,-12.5689,-6.7786,-5.2305,-3.5592,
0.96898,7.4944,-1.5458,2.1676,35.8411,15.6318,3.3559,-1.8409,-18.7652,-7.36,-25.9147,-20.4719,-5.6396,4.4874,
10.3106,-0.42731,3.6088,7.0994,19.5907,0.5939,-10.9454,-8.2381,-31.7393,-16.4386,-38.4598,-33.3436,-7.4706,-3.3744,
5.3534,-1.3658,2.4277,3.7807,28.1767,14.6583,2.1243,-7.2617,-22.0019,-8.7036,-28.3192,-23.7509,-5.0939,-4.136,
5.0322,-1.2838,2.2821,3.5539,40.5861,27.8788,16.0968,-6.826,-6.5818,-8.1814,-12.5201,-8.2259,-4.7883,-3.8879,
6.1761,-10.8482,4.7962,5.9917,37.4278,40.306,29.231,-3.7653,7.9131,-14.9214,2.3311,6.3677,-1.8499,-7.511,
-4.5583,-3.6894,-0.79373,1.2939,21.0821,23.7877,13.3772,-2.0932,-6.6617,-4.0234,-11.9087,-8.1144,-2.7028,2.9423,
1.5002,-7.3244,2.1464,2.6625,5.7172,8.2604,-1.5255,-4.3777,-20.362,1.3999,-25.2942,-21.7275,-3.9869,6.0195,
-7.5079,-13.8748,-0.63392,0.81556,-2.0976,-6.3352,-15.5339,-1.4639,-10.8251,-6.1559,-20.1611,-34.5239,-2.0604,3.9711,
-7.0574,-13.0423,-0.59589,0.76663,12.1282,8.1449,-0.50191,-1.3761,3.9244,-5.7865,-4.8515,-18.3524,-1.9368,3.7329,
-5.5493,-11.4158,0.52456,1.8053,25.5005,20.551,13.6282,-6.7166,17.7889,-13.2725,9.5396,-3.1513,-0.7359,-5.7705,
-10.6396,-3.3794,-3.0015,0.61254,9.8705,5.218,-1.2895,-3.3004,2.6216,-2.1119,-5.1328,-17.0622,-1.7767,4.9399,
-3.9759,-8.2386,0.31138,3.709,-4.8217,-9.1951,-15.3121,-1.4154,-11.6357,-11.0242,-18.9248,-30.1385,-4.8033,3.7997,
0.1193,-10.1542,4.1493,11.6814,-18.6324,-22.7434,-28.4934,0.11554,-25.0375,-12.7727,-31.8893,-42.4302,-0.65851,-1.7307,
-5.7328,-15.3899,-1.9446,5.1356,-3.4145,-7.2788,-12.6838,-5.7363,-9.4353,-6.6433,-15.8759,-25.7844,-6.4639,-2.5308,
-1.4721,-12.4784,4.017,4.8874,10.8904,6.1732,1.5746,-2.4397,5.2308,-11.6077,-0.82339,-10.1373,-3.1237,-4.3675,
-14.6401,-9.0781,0.16059,0.97917,4.8143,-8.2972,-12.4994,-4.4625,-9.183,3.1888,-14.874,-23.6291,-2.6953,7.2227,
-8.9408,-11.4257,-2.2589,2.3665,-9.5746,-21.8993,-25.8494,-3.2302,-22.732,2.154,-28.0815,-36.3113,-3.9796,2.9332,
-5.2715,-16.766,-0.9188,1.0194,-23.1001,-34.6854,-38.3985,1.0607,-35.4681,-7.3754,-40.4967,-48.2326,0.35675,-0.85845,
-8.3898,-2.6845,1.607,-2.4763,-7.6141,-18.5042,-21.9946,-1.8348,-19.24,7.1671,-23.9669,-31.2387,0.8774,13.2931,
-5.8979,-13.9117,2.6558,-0.58041,2.122,-26.794,-8.0209,-3.9545,-5.4317,-7.3629,-9.8749,-17.0721,-0.92259,-1.6045,
-12.2927,-10.9078,-5.9397,-0.30462,14.7692,-11.0864,4.2707,-0.58375,8.9942,4.1661,4.8176,-1.9477,-1.1082,6.5664,
-5.7703,-10.7351,-1.2448,0.67776,-0.21698,-22.8337,-10.0855,-6.3331,-4.1994,3.4339,-8.1254,-14.4849,-2.0058,8.2213,
2.5596,-13.6765,7.296,7.175,-14.304,-35.5637,-23.5804,-0.86195,-18.0474,-9.0342,-21.7379,-27.7158,5.1343,1.732,
-11.483,-7.1015,-5.7054,-0.51653,0.65428,-19.3299,-8.0656,0.12395,-2.8646,5.6078,-6.3336,-26.414,-1.4704,11.7213,
-2.2376,-14.3884,-0.060678,9.1557,-9.1464,-32.2701,-21.6817,-1.3295,-16.7927,-8.7985,-20.0536,-38.9292,-3.3106,-3.082,
-10.0573,-12.3195,-0.29778,2.5805,5.5024,-16.2339,-6.2808,-6.7931,-1.6851,-6.1617,-4.7504,-22.4934,-4.799,7.1056,
-7.7667,-7.965,1.8893,0.25655,19.2722,-1.1598,8.1961,-8.0728,12.516,-0.73034,9.6346,-7.0438,-2.3419,7.4021,
2.461,-13.5131,7.3195,9.1592,4.4979,-15.1903,-6.3957,0.36534,-2.335,-14.7865,-5.0434,-20.7212,3.3423,-3.8878,
-7.4483,-7.1587,-0.59147,0.17353,-7.7027,-28.3788,-20.1119,-0.86188,-16.2949,0.20067,-18.8408,-33.5779,-2.8838,10.4455,
-2.1812,-11.0679,4.7462,6.9116,-21.3405,-40.7761,-33.0052,0.63609,-29.4172,-5.5964,-31.8104,-45.6633,1.6275,3.1901,
-14.8243,-14.0188,-3.4923,1.9176,-5.9601,-24.2295,-16.9249,-4.4638,-13.5522,-5.9835,-15.8018,-28.8235,-2.0855,0.82952,
-10.3797,-10.1044,-2.6196,1.0194,8.4975,-8.6758,-1.8094,-6.3048,1.361,-3.9975,-0.75365,-12.9941,-4.0693,7.2274,
-5.5993,-8.8355,1.6951,5.1158,17.3874,5.9448,12.3992,-1.769,-1.0101,-10.3254,-12.7598,-16.9144,0.33243,2.1538,
-10.0836,-2.4003,4.4859,0.47055,2.2442,-8.5119,-2.4448,0.62728,-15.0495,-0.78781,-26.0942,-29.9995,-3.6644,10.9427,
-0.28987,-6.0826,12.4416,9.6315,-11.9905,-22.1012,-16.3981,2.548,-28.2465,-3.2415,-38.6285,-42.2996,-0.039947,4.8931,
-4.3999,-6.4706,6.1214,8.7825,0.7803,-7.5187,-1.3142,1.1597,-14.5004,-9.5846,-24.2595,-27.7103,0.65523,0.95396,
-6.7269,-8.6734,3.1631,5.6646,14.8335,7.0324,12.8646,-1.5009,0.46961,-6.4186,-8.7039,-11.9477,-1.9751,1.0776,
-3.7323,-9.9008,5.5643,7.9157,28.0435,20.7104,26.1928,1.1801,14.5414,-8.6244,5.9183,2.8692,0.73442,3.6039,
-10.0161,-4.7272,-0.31339,1.8969,12.2609,5.3678,10.5212,-2.9883,-0.43105,-0.51466,-8.5368,-11.403,-6.7812,10.9799,
4.6849,-0.34576,9.1059,10.7011,-2.5748,-9.0543,-4.2101,2.7347,-14.5052,-5.1838,-22.1246,-24.8188,-3.7233,1.4035,
-1.2603,-10.9305,8.5593,4.2743,11.6797,-18.0317,-10.8269,2.5708,-4.3556,-5.8368,-8.0226,-37.4296,2.2849,3.2473,
-2.1488,-11.2388,7.0816,3.0537,25.0789,-2.8498,3.9227,1.4525,10.0057,-0.063736,6.5587,-21.0839,1.1838,4.137,
0.39048,-8.1541,9.0671,5.2808,37.6742,11.4212,17.7874,2.8113,23.5054,-8.8573,20.2652,-5.7188,1.5949,-2.016,
-9.5149,-5.9776,2.4975,1.3486,21.3137,-3.3641,2.6201,-0.49082,7.9951,2.1588,4.9493,-19.4757,-3.0805,8.5895,
-4.8469,-8.2703,1.6245,2.9551,5.9349,-17.2622,-11.6371,1.708,-6.5846,-5.5631,-9.4477,-32.4072,2.1657,7.7122,
-5.0378,-9.2201,-0.40136,7.1164,-8.5212,-26.8316,-25.0388,4.9798,-20.2896,-9.0854,-22.9808,-44.5627,3.9642,5.8035,
-9.8574,-6.4375,-5.4992,1.5675,6.0901,-11.1217,-9.4365,-0.44095,-4.9722,4.2939,-7.502,-27.789,-1.3956,10.5772,
-4.144,-7.7987,-0.047323,6.5953,19.5837,3.6456,5.2297,4.2255,9.4262,-10.0637,7.0481,-12.0216,3.8101,-3.3741,
-10.1621,-5.8848,-1.0086,5.7174,23.3494,3.6679,-2.4354,2.5259,-5.2394,-4.8199,1.2021,-23.7133,1.1711,10.8074,
-4.491,-4.8086,3.6315,6.5795,7.8485,-10.6522,-16.3893,-1.7232,-19.0251,-5.2538,-12.97,-36.3905,1.3416,7.0257,
4.6968,-5.7251,11.8499,11.2461,-6.7224,-24.1131,-29.5059,2.9597,-31.9835,-7.1075,-26.2918,-48.3071,7.7693,-2.7956,
-7.8778,-2.7303,0.77437,-0.27465,7.7809,-8.5663,-13.6356,-0.35113,-15.9645,-0.17383,-10.6143,-31.3087,-4.0253,6.7724,
6.4537,-8.8332,11.8149,12.757,20.6911,6.0477,1.2825,6.4186,-0.90666,-14.2634,-0.45695,-15.3302,5.375,1.5451,
-4.1767,-9.9904,5.0805,4.0379,33.5497,19.7848,15.3056,0.97182,13.2477,-0.9946,13.6705,-0.31035,6.7397,15.5524,
-2.2393,-6.2575,5.499,2.5903,17.4367,4.4977,9.6873,1.6369,-1.4062,-1.6583,0.67866,-1.1353,1.2741,10.6426,
2.1732,-7.2682,9.0856,6.713,2.2905,-9.8721,-4.994,5.8168,-15.4218,-15.6588,-13.4621,-15.1672,2.2217,-0.54107,
-2.7777,-2.6139,3.72,2.936,12.3363,0.18049,4.525,0.6473,-2.3849,-0.61926,-1.507,-14.1969,-2.732,13.3505,
1.7879,-6.2533,7.293,13.4253,5.8722,-13.388,-9.3042,5.007,-15.7994,-5.8845,-14.9743,-26.9027,3.1563,-0.88766,
-9.6475,-3.7089,3.24,6.5943,19.6198,1.5153,5.3541,3.9836,-0.75146,-1.916,0.024189,-11.1886,-1.1305,2.781,
-3.7663,-0.11214,3.5273,5.2345,32.5426,15.5244,19.1328,-0.11199,13.3936,-3.7295,14.1227,3.5828,-0.58047,8.3985,
8.6315,-6.3719,11.5108,13.1151,16.4901,0.49291,3.8849,5.1974,-1.51,-15.5568,-0.82463,-10.7322,10.5416,5.4845,
-4.5403,-2.1332,0.2149,-0.32574,2.8467,-12.1906,-9.0022,1.0291,-14.0734,-0.5234,-13.4291,-22.7423,0.26767,17.2065,
-5.714,-7.3079,5.9866,7.0451,-11.4241,-25.5592,-22.5621,4.3419,-27.329,-3.0228,-26.7234,-35.4777,2.1798,2.0741,
-3.6841,-5.6643,4.9043,6.8636,1.9153,-11.3717,-8.5544,4.8045,-13.0352,-12.6029,-12.466,-20.6951,4.7003,4.2398,
-5.0899,-3.6976,2.9831,4.8249,15.9004,3.4106,6.0589,2.8893,1.8469,-13.4736,2.382,-5.3534,2.7914,3.2017,
-2.4347,-5.8256,5.154,6.8853,24.2255,17.306,19.4338,5.0659,-0.43322,-13.81,4.8905,7.7422,4.9738,-1.7504,
-12.5772,-4.6777,-3.5156,0.52193,8.9885,3.2071,4.4842,1.7037,-14.1908,1.1186,-9.1865,-6.5059,-0.31053,12.4546,
-9.0658,-4.8939,-0.54796,3.2473,-5.6508,-11.0853,-9.8848,4.3582,-27.4393,-13.0485,-22.7353,-20.2155,2.4648,4.1753,
-3.3999,-8.3965,1.2324,3.8357,4.2541,-10.134,3.7688,5.8442,-12.7324,-2.6247,-8.3107,-5.9421,8.4028,2.6594,
-3.7384,-8.4352,0.61604,3.0631,18.0989,4.574,17.6427,4.9511,2.1315,-1.9247,6.288,8.5144,7.3561,1.9574,
-1.9473,-6.3623,2.1459,4.4461,18.1574,18.3996,30.6841,6.2208,16.1036,-12.1735,20.0107,22.1036,3.4202,-0.20877,
-7.9163,-0.85895,1.2339,0.021626,2.968,3.1956,14.7431,4.1005,1.0374,0.90944,4.7101,6.6773,-2.6298,8.4206,
0.75359,-4.1816,4.5341,8.2153,-11.3101,-11.0961,-0.24153,3.8542,-13.1248,-2.8813,-9.6725,-7.8233,2.8304,-0.76196,
0.22632,-5.3769,6.6725,13.9892,-6.5943,-24.5304,-14.327,5.0691,-10.7707,-5.6006,-6.5617,-21.4539,4.1067,1.6942,
0.21274,-5.0543,6.2721,13.1499,7.9014,-8.9585,0.63259,4.765,3.9755,-4.6622,7.932,-6.0667,3.8603,1.5926,
3.8155,-5.474,5.6545,7.2993,21.5273,5.679,14.6946,5.2021,17.837,-18.4825,21.5561,8.3973,5.798,-6.939,
-10.5134,-3.2174,-6.7359,-1.3338,6.1357,-8.7618,-0.28705,5.8543,2.6668,-15.3244,6.1627,-6.2065,0.14746,-2.3046,
-6.9904,-5.6757,-1.7522,4.4102,-8.3325,-22.3361,-14.3698,5.2618,-11.5932,-8.741,-8.307,-19.9341,3.7543,3.4977,
-1.389,-9.6737,2.2093,6.9175,-21.9325,-35.0959,-27.6076,4.9461,-24.9976,-0.50361,-19.3777,-32.8381,9.7955,8.5906,
-6.1864,-9.515,-2.804,1.6217,-11.9998,-19.3118,-12.2729,-0.23138,-9.8195,4.4073,-4.115,-17.1895,4.3271,5.2431,
2.9219,-6.112,5.1371,7.3695,2.8202,-4.0531,2.5635,8.5196,4.8697,-9.5354,10.2319,-2.0581,3.6455,-7.665,
-11.3534,-6.3931,-4.4956,-2.8795,-6.1313,3.4357,-10.2294,3.9862,-1.5537,3.0429,8.2471,-8.7889,0.36889,5.524,
-7.4187,-8.013,-3.3373,-1.3358,-19.2759,-10.2829,-23.1281,1.7435,-14.973,1.8211,-5.7602,-21.774,-0.211,5.2377,
7.1265,2.4703,10.9629,12.8443,-31.5565,-23.1032,-27.2239,15.7389,-27.5118,3.5192,-18.8518,-33.9048,13.9017,10.1055,
-7.4011,-4.7728,-3.418,0.76061,-19.2838,-11.3376,-15.2111,0.69455,-15.4818,1.9978,-7.3414,-21.4912,-0.17368,9.6349,
1.238,-5.4658,3.6414,6.1231,-4.0268,3.4426,-0.19844,8.366,-0.95006,-8.3809,7.1991,-30.4605,3.3166,1.8112,
-10.8874,-4.6559,-0.91586,0.93498,10.3148,17.3361,13.9135,5.9354,13.2069,3.3296,20.8672,-14.5328,2.6357,7.9685,
-7.3422,-1.4844,0.1033,1.3607,6.6678,30.3959,19.4507,-1.1693,13.258,2.648,6.9461,-16.9148,0.06733,2.1881,
-3.3464,-2.54,3.6523,4.8343,-7.8323,15.9634,4.1837,2.4561,-1.6375,-9.743,-7.5706,-29.9999,3.6185,-2.9444,
-9.8341,-3.1707,-3.2553,-2.1443,-13.5086,0.90558,-8.962,-2.2104,-11.5416,4.0376,-4.1035,-42.2999,-3.0459,11.3322,
4.8559,1.7797,11.04,12.0844,-26.1352,-13.2488,-21.8615,10.3951,-24.2863,-5.9058,-17.2945,-53.8619,8.1635,5.3498,
-6.7635,-0.79766,-0.22733,2.2006,-10.4671,1.6462,-6.4498,2.4806,-8.7291,-5.6117,-2.1568,-36.8916,0.86479,3.5226,
-10.3347,-0.14727,-2.5037,1.2249,4.2609,15.6474,8.0372,0.5237,5.8946,5.4507,12.0726,-20.5781,0.9335,9.6983,
-1.9414,-4.5372,5.4198,8.9246,-8.4077,0.60856,-4.858,8.2655,-5.9079,-4.5778,-1.0647,-33.4434,8.6507,6.1637,
-10.3213,4.2314,-1.4736,0.8571,-21.4608,-13.1061,-18.1241,3.1301,-19.111,0.33686,-14.5584,-45.4164,-3.2572,13.3261,
2.7108,13.8595,11.0277,13.2185,-34.2732,-26.4198,-31.1367,15.3551,-32.0644,-2.3348,-27.7849,-56.7914,9.3511,6.983,
-5.2849,-0.34901,-3.0109,4.5919,-19.0809,-11.6987,-16.1325,5.6364,-17.0046,-2.6767,-12.9819,-40.248,1.9208,3.1895,
-5.5102,-0.87047,-3.3727,3.7739,-3.836,3.1032,-1.0646,4.7558,-1.8843,-3.0585,1.897,-23.7332,1.2631,2.4557,
-2.95,-3.0478,-0.94074,5.7771,7.7224,12.799,13.0993,4.7717,11.9671,-16.975,15.5213,-16.7657,2.9349,-9.9238,
-10.4857,4.8478,-1.6074,4.4662,-6.841,-2.0689,-0.58161,9.3058,-2.8509,-6.7374,0.49006,-29.8598,2.7589,4.2895,
-3.2885,3.5328,4.2139,7.9948,-20.5305,-16.0448,-14.6467,6.2771,-16.7799,-2.1752,-13.6393,-42.1682,6.3895,9.1541,
-4.839,-0.47532,1.1288,5.1648,-5.6808,-1.4642,0.33209,1.14,-2.1552,-8.6127,0.79691,-26.0202,5.5845,2.0368,
-4.5487,-0.4468,1.061,4.8549,8.7601,12.7237,14.4122,1.0716,12.0741,2.9911,14.8491,-10.359,5.2494,1.9146,
-1.986,-2.7098,3.2871,6.8534,16.0679,26.0602,27.6474,3.2971,25.4497,-2.4909,28.0582,4.3625,7.2242,0.35373,
-10.4231,6.0091,1.764,3.1881,1.0039,10.3966,11.8886,6.1121,9.8227,9.2279,12.2747,-9.9992,3.5367,11.9018,
-5.158,1.0089,4.7312,7.6365,-13.1564,-4.3272,-2.9247,3.9982,-4.8667,-4.2809,-2.5618,-23.4993,0.13103,1.6068,
-3.7038,-0.19644,6.1951,9.2876,-16.585,-8.2854,1.5892,8.8801,0.84848,0.13358,6.8716,-25.825,9.1013,2.2938,
-3.4816,-0.18465,5.8234,8.7304,-1.4899,6.3117,15.5938,8.3473,14.8976,2.6563,20.5593,-10.1755,8.5552,5.6512,
0.58396,-4.0302,3.5454,4.3502,12.6995,20.033,28.7582,4.9539,28.1037,-10.6391,33.4258,4.5351,3.7031,-3.9675,
-9.3332,6.0938,0.19961,3.8482,-2.1625,4.7311,12.9327,5.38,12.3175,0.0017692,17.3202,-9.8371,3.2404,6.2731,
-4.4347,1.3896,3.0797,4.0992,-16.1328,-9.6528,-1.9432,-0.24586,-2.5216,4.7018,2.181,-23.3468,1.1174,6.258,
9.9314,7.332,15.6696,17.1099,-23.8417,-12.4481,-15.9267,13.5074,-7.6729,6.5888,-12.0498,-21.4641,15.1503,16.7291,
0.29695,-4.1951,3.6422,4.9961,-8.3112,2.3988,-0.87105,1.6098,6.8875,-3.0861,2.7731,-6.0762,5.2028,4.6381,
-3.0952,-0.56909,2.9414,4.214,6.2875,16.3549,13.2812,1.5133,20.5742,-16.2776,16.7068,8.3883,-0.89388,-9.7402,
-10.1401,6.6957,-1.5736,-2.3056,8.0793,13.2043,13.81,-0.50547,5.2398,-1.8036,8.3529,11.9825,-3.7325,3.6183,
-6.6998,3.462,-3.8292,-2.589,-6.5055,-1.688,-1.1186,-4.7533,-9.1746,-9.348,-6.2483,-2.8364,-6.3405,-0.99746,
4.6388,5.4539,7.3371,8.5029,-20.2151,-15.6867,-11.2045,6.4685,-22.7241,-8.0335,-19.9734,-16.7663,4.9765,-0.18424,
-2.8402,-0.80887,-4.0397,-1.7383,-11.2291,-6.9724,3.5678,-3.1692,-9.6106,5.3132,-11.0018,-7.9872,-6.2587,5.9428,
-3.4532,0.023038,-0.00094642,2.4031,-2.6614,4.232,-0.47268,1.058,5.0661,-2.7788,3.7583,6.5921,1.2872,-1.3431,
-8.5486,5.3243,-0.00089057,0.81262,11.5983,18.0781,13.6557,4.369,18.8621,8.8365,17.6328,20.2965,-0.23582,9.3427,
-5.3843,2.3534,-6.0263,-0.92325,11.0228,31.0934,26.9363,1.4559,31.8304,6.6192,21.5761,33.1788,-7.2114,1.31,
-0.060001,-2.789,-1.5071,4.1334,-3.7386,15.1278,11.2202,6.3697,15.8205,-0.22562,6.1816,17.088,-1.7775,-3.2876,
-6.9859,-0.51286,-8.3462,-3.0442,-5.804,7.1095,16.9339,-0.94197,3.0006,12.5022,3.5207,6.3613,-8.6004,9.6235,
6.1625,4.6549,4.8839,9.8678,-19.5558,-7.417,1.8179,8.5897,-11.2794,-2.3479,-10.7906,-8.1204,4.6449,0.68575,
-4.7672,1.8901,-2.7154,2.5721,-4.2825,7.128,15.8088,5.5887,3.4973,2.9748,3.9569,6.4669,4.411,3.9436,
-5.8672,3.1627,-3.9385,1.0317,10.0745,20.8003,28.9603,3.8674,17.3875,3.7004,17.8195,20.1788,2.7604,6.5388,
-3.2856,0.74333,-1.4726,3.1994,-1.8581,8.2242,15.8945,5.8649,5.0161,-10.6216,5.4222,7.64,4.8243,-0.90357,
-7.6831,9.3604,-0.19432,-2.0696,-15.8466,-6.3693,0.84088,1.4003,-9.3849,3.1963,-9.0032,-6.9184,3.7966,12.5122,
6.7728,9.8986,9.1121,12.0495,-28.9958,-20.0871,-13.3096,13.0212,-22.9218,4.2252,-22.563,-20.6033,11.8993,7.1976,
1.0487,-0.47197,0.23499,5.0449,-13.1561,-4.7819,1.589,8.7302,-7.4465,6.7283,-7.1092,-5.2671,6.2294,8.5582,
-1.0479,-2.4773,-1.8128,2.7085,1.7333,9.605,15.5937,6.1727,7.1003,4.2909,7.4174,9.1489,3.8219,6.011,
-0.98506,-2.3287,-1.704,2.546,15.7293,23.1287,25.6247,3.392,20.7743,-8.0176,21.0723,22.7,1.1827,-8.4496,
-7.9157,4.8008,-2.807,-2.6683,0.68553,7.641,9.9872,5.3575,5.4278,4.8763,5.708,7.238,2.3165,3.6268,
0.88955,0.91245,4.3662,-0.32414,-13.4556,-6.9175,-4.712,2.8818,-8.9978,-0.10137,-8.7345,-7.2963,5.3259,4.9909,
-1.7096,-1.3266,1.4378,-5.8632,0.60818,6.754,8.2246,-0.43947,4.7985,-1.7976,5.046,6.3979,1.376,-3.2777,
-1.607,-1.247,1.3515,-5.5114,14.6717,20.4488,21.8311,-0.4131,18.6106,1.8051,18.8432,20.114,1.2934,-3.081,
3.7918,-6.4746,-1.1399,0.60408,27.8914,33.3219,34.6212,1.0582,31.5939,-4.2082,31.8127,33.0072,1.698,-10.1268,
-5.0523,2.5305,-0.52912,-2.2642,14.1063,19.211,20.4324,2.019,17.5867,4.6609,17.7923,18.9152,3.1024,-0.90254,
-2.1581,-1.6582,-1.2807,-2.4298,-0.84004,3.9583,5.1065,-5.6339,2.4315,8.0569,2.6248,3.6803,-2.6874,-6.8135,
1.8278,-3.9693,1.6886,3.5006,-7.3578,-10.3792,-4.7809,0.0062889,-8.3798,0.82481,9.3969,-4.7957,3.2584,-4.9589,
1.7181,-3.7311,1.5873,3.2905,7.1837,4.3436,9.606,0.0059116,6.223,1.1368,22.9331,9.592,3.0629,-4.2996,
2.579,-4.4713,-3.3285,-1.727,16.2735,18.183,23.1296,-5.297,19.9496,-12.67,35.6571,23.1165,-5.7978,-14.0442,
-6.1923,4.4137,-3.5507,-1.0815,1.1971,4.6791,11.3174,2.7941,8.3282,-6.7877,23.0933,13.8359,-1.5336,-4.5849,
-2.0245,0.35257,-4.3621,-3.4873,-12.9748,-9.7017,-3.4617,-0.3262,-6.2715,3.3208,7.6077,-1.0942,-2.9479,-0.39308,
8.9431,2.5007,4.818,6.1223,-26.2963,-23.2196,-17.354,7.1655,0.31153,11.5574,-6.9488,7.9497,5.665,-0.12864,
-2.4397,-7.1701,-6.3172,-5.0912,-16.5236,-8.1481,-2.6344,-4.1106,14.3928,10.0201,7.1464,21.5727,-5.5211,-8.1951,
-0.36508,-3.2448,-3.5281,3.409,-2.7578,5.1151,10.298,-3.3824,27.6293,5.2012,19.492,34.3784,1.0767,-14.8137,
-10.2251,0.5653,-9.3419,-7.1594,9.5795,5.7726,16.5495,-1.9742,30.5509,12.3609,30.4943,46.4157,-0.67467,-1.7531,
-2.8629,1.9774,-10.7098,-7.694,-5.0953,-8.6738,1.4565,-6.1938,14.6179,-2.3603,14.5646,29.5307,-4.9727,-0.56306,
10.8665,6.3779,2.6466,6.3253,-18.8896,-22.2534,-10.3811,6.4092,-0.35921,3.2646,-0.40926,13.6589,8.8832,4.4713,
-3.8855,-8.1048,-11.6122,-7.3258,-7.5879,-10.7498,1.6756,-8.0753,9.8307,7.8743,9.7836,23.0077,-5.7498,-4.0066,
3.3977,-2.6171,1.3167,-5.0034,-8.3831,-6.7758,1.771,-2.5895,8.2313,-2.7665,10.5974,21.7024,-2.2111,-11.8856,
-3.8563,2.6618,-5.8124,-8.7403,6.2199,7.7307,15.7647,-5.5069,21.8374,5.5342,24.0616,34.5002,0.63294,0.21599,
-11.2774,2.4419,-13.1157,-7.3118,19.9467,21.3669,28.9188,-7.1649,34.6272,8.9983,36.7179,46.5302,-2.3573,2.071,
-1.7431,1.1505,-3.4711,1.9846,4.6499,5.9849,13.0837,2.1227,18.4495,0.082894,20.4148,29.6384,6.6418,-3.5367,
-15.7385,-1.3591,-15.7059,-12.2345,-9.7291,-8.4742,-1.8013,-12.1047,3.2426,12.0388,5.0899,13.7601,-6.1998,1.948,
-0.69423,4.477,-0.66355,-1.1966,-23.2454,-22.0658,-15.7932,2.7216,-11.052,5.5619,-9.3155,-1.1655,6.1935,-3.0194,
0.070495,0.1713,-4.3294,-5.1619,-7.7506,-6.6418,-0.74564,-1.4186,3.7111,2.7576,5.3435,13.0044,1.7848,-4.8267,
-7.8272,-1.5865,-8.7094,-12.3845,6.8144,7.8567,13.3991,-6.9372,17.5885,10.8473,19.1229,26.3242,-4.4083,2.7538,
-4.405,1.4613,-5.2343,-8.6888,-5.5855,-4.6057,10.9681,-3.5683,19.2447,7.2439,17.7947,38.5435,-1.1913,3.9745,
-11.673,7.3391,-9.0781,-11.3611,-17.7237,-18.4294,-3.79,-0.28128,3.99,18.8003,2.627,22.1308,0.024989,12.7144,
1.8619,3.2231,-2.0862,-2.3036,-30.7602,-31.4236,-17.6626,4.7365,-10.3494,3.5723,-11.6306,6.703,7.435,-2.1485,
1.2079,1.6439,-2.3825,0.78724,-14.8146,-15.4382,-2.5028,3.5485,4.3716,4.5629,3.1672,20.4008,5.1208,2.6802,
-0.55156,-0.14169,-3.9265,-0.94699,0.17425,-0.41192,11.7473,1.6486,18.2093,2.6021,17.0772,33.2768,3.1265,0.83241,
0.32515,0.469,-2.8473,-0.046557,12.2153,13.7128,25.1425,-0.25777,31.2167,-4.1822,30.1526,45.3802,3.0597,-5.3638,
-9.7574,4.1166,-9.8474,-8.1786,-2.6176,-1.21,9.534,-6.208,15.2437,1.793,14.2434,28.5574,-6.946,0.68226,
4.1448,5.6168,-3.1707,2.2544,-16.5605,-15.2374,-5.1381,-3.606,0.22908,-0.061749,-0.71119,12.7439,1.9668,-2.5521,
-4.0576,0.70047,-9.006,-5.3526,-6.649,-2.3321,6.1975,-2.6662,12.2064,4.5212,11.3225,23.9703,4.9823,-3.6042,
-4.8385,-0.3659,-9.4899,-6.0558,7.8499,11.9078,19.9256,-3.5306,25.574,5.2743,24.7432,36.6321,3.659,-4.4123,
-5.452,-14.2632,-15.1271,-9.0069,19.6712,25.2934,32.8301,-10.0077,38.1395,-9.142,36.1536,48.5342,-10.6604,-18.2475,
0.71988,0.2105,-1.1438,4.1272,7.5846,17.9309,25.0154,4.2107,30.0063,2.4936,23.0781,39.7773,3.2958,-6.0655,
-2.9992,2.2467,-5.7149,-7.5091,-6.9705,2.755,9.4145,-8.4548,14.1059,3.6093,7.5934,23.2906,-4.9765,-9.6184,
4.8938,3.5579,2.8229,2.5827,-20.6522,-11.5103,-5.2504,1.2113,-0.84042,1.9467,-6.9622,7.7932,3.0351,-0.84639,
1.4669,0.21118,-0.4797,-0.70554,-6.5182,2.0752,7.9595,-1.9946,12.1049,0.98651,6.3504,20.2204,-0.28024,-3.9289,
2.5839,-1.0066,-6.4767,-4.2789,7.9728,16.0507,21.5819,-4.0439,25.4786,-4.4963,20.0694,33.1072,-1.4689,-12.611,
-2.994,4.3565,-3.3163,-3.1785,-6.6055,0.98766,6.187,1.5014,9.8499,1.0762,4.7652,18.2861,2.8373,-6.5517,
0.19842,3.1308,-5.8891,-4.3129,-20.3092,-11.9062,-8.2842,-1.4807,-4.8411,2.4578,-8.5965,4.4147,-2.0325,-2.3022,
5.2479,4.6303,0.97183,3.4173,-33.1906,-25.2918,-21.8871,5.5976,-18.6507,0.1411,-22.1807,-8.2631,3.1508,-3.8516,
-1.8759,2.4844,-5.8953,-3.5966,-17.0992,-9.6743,-6.4739,-1.5471,-3.4316,14.2326,-6.7499,6.3327,-3.8471,1.2608,
1.0084,-2.2443,-4.2161,-0.60902,-1.9733,5.0062,7.5324,-3.0213,10.8743,0.42373,7.7551,20.0528,-0.36263,-12.9148,
-11.6455,-1.6876,-13.1821,-9.3099,9.6537,18.444,4.6097,-3.8642,14.0182,5.2789,20.6665,32.9496,-0.88316,-3.6443,
-3.1435,6.6992,-6.5162,-6.7323,-5.0255,3.2374,-9.7669,0.31488,-0.92291,2.1605,5.3265,16.8726,-2.6679,1.486,
6.8366,7.4117,1.2557,3.9451,-18.824,-11.0569,-21.8348,7.195,-14.9675,-4.5675,-9.0931,1.7603,4.8735,-0.38131,
-6.0465,2.0861,-11.2925,-8.7645,-5.1007,2.2004,-6.4247,-5.7096,-1.4756,3.8416,4.0463,15.7546,-7.8918,-0.90049,
6.7892,6.1187,1.8579,2.5473,-18.8947,-12.0317,-15.5595,2.5263,-13.74,-3.8008,-10.2965,9.5068,4.8134,-8.7403,
0.29592,-0.33434,-4.3394,-3.6915,-3.661,2.7902,-0.52595,-3.7111,1.1844,2.5132,4.4213,23.0364,-1.5613,-4.0582,
-13.8218,-3.3874,-11.7313,-11.3638,10.6587,16.7228,13.6056,-8.0079,15.2134,6.3994,18.2561,35.7542,-7.4328,-5.0799,
-1.8749,1.8473,-1.1757,0.73672,-4.0808,1.6195,0.10533,3.8913,1.6166,2.8522,3.0607,20.925,3.3473,-10.8308,
-5.2274,10.4433,-8.7877,-7.5927,-17.936,-12.5777,-6.9814,-1.7353,-12.4899,15.365,-11.223,8.733,-2.6084,2.503,
4.2754,-0.27606,-3.8915,-3.7326,-30.9598,-25.923,-20.6625,-1.1187,-25.8405,0.3431,-24.6496,-5.891,1.4351,-4.4863,
0.19251,0.13219,-7.4844,-6.4914,-15.0022,-10.2677,-5.3227,2.2322,-10.1901,14.4225,-9.0706,8.5625,3.6684,6.2975,
-5.1971,1.3744,-12.4134,-11.4799,-0.002102,4.4484,9.0966,-3.2798,4.5213,11.252,5.5736,22.1487,-1.9297,1.3852,
-2.4599,3.7173,-9.2432,-8.3657,-8.6189,18.2815,22.6508,-0.65761,18.35,2.7589,16.3866,34.9198,0.61143,3.7275,
-6.8918,8.3148,-4.1091,-6.0561,-22.2018,3.0846,7.1918,2.6358,3.149,9.5833,1.3034,18.7246,-1.9559,10.4937,
0.51159,0.34409,-2.6577,-4.0055,-34.9697,-11.2005,-7.3397,-3.5479,-11.1399,-0.99439,-12.8748,3.5011,-3.0438,-4.2359,
2.1681,-1.8457,-2.7392,-4.0061,-19.8561,3.5716,7.2007,0.76234,2.6039,-1.1757,0.91308,17.3911,2.2005,-10.3692,
1.6162,-1.3132,-2.9967,-4.1876,-4.5647,17.4573,20.8686,0.2948,16.5477,3.655,14.9583,30.4476,1.6467,-0.16621,
0.073226,-2.6804,-4.2629,-5.3823,7.9413,30.5098,29.8,-2.133,27.787,-10.6643,26.293,42.7207,0.10184,-12.0871,
-1.739,8.8087,-4.3687,-1.5646,-6.6352,14.5792,13.912,0.52569,12.0198,1.5448,10.6154,27.9255,2.1443,0.44839,
2.0408,-1.5417,-7.1796,-3.0979,-20.3371,-0.39552,-1.0227,0.31319,-2.8014,-1.2594,-4.1215,12.1499,0.38888,-11.4486,
-0.0098608,-0.0029566,-4.8206,-5.3222,-9.1745,8.6063,4.04,1.2587,7.3089,-0.21955,6.068,10.1556,6.1501,-7.8697,
-2.2988,-1.9309,-6.8209,-7.2924,5.4759,22.1899,17.8976,-1.1063,20.9704,7.5065,19.804,23.6463,3.4916,-7.8793,
1.4545,-11.3357,-7.3757,-9.7471,11.8966,34.9585,30.9237,-8.271,33.8122,-7.0439,32.7157,36.3275,-9.2512,-21.5065,
-2.1277,3.2032,-2.9566,-4.2213,-2.7969,20.2072,16.4144,1.0226,19.1296,0.1272,18.0989,21.494,2.5114,-7.0807,
-0.071921,1.3239,-2.7793,-2.5219,-16.7291,4.8947,1.3296,-2.8953,3.8818,-0.00080086,2.913,6.1044,-3.424,-6.8967,
4.0302,-2.3709,-1.4072,-1.6477,-27.7766,-9.499,-12.8502,0.41194,-10.4511,0.24021,-11.3618,-8.3619,-0.567,-5.2776,
1.3179,-0.72252,-3.7933,-4.0193,-12.01,5.171,2.0208,-2.0833,4.276,1.732,3.4199,6.2398,-3.0035,-2.0086,
5.0198,0.57139,-5.0869,0.48518,2.8106,18.9607,15.9996,2.3051,18.1194,-10.9805,17.3147,19.9654,2.8859,-13.6529,
-0.38824,10.3739,-4.104,1.1338,2.943,3.7834,0.99993,8.1472,2.9926,0.23831,11.8769,32.2045,8.6931,-2.1533,
0.77987,-0.67242,-8.0156,-9.8405,-11.3336,-10.5436,-13.1601,-5.1761,-11.2869,7.2744,-2.9357,16.1722,-3.6991,-2.6868,
7.9637,3.2241,0.17838,1.355,-24.7536,-21.1789,-26.4705,3.8113,-24.7097,-5.6958,-16.8595,1.1019,5.1997,-10.2386,
0.014064,1.2229,-7.3041,-6.1981,-9.1684,-5.8082,-10.7822,-3.8892,-9.1271,8.2638,-1.748,15.1358,-2.584,-4.6835,
7.726,0.30571,-0.11743,3.8148,5.4817,8.6403,3.9647,1.1644,5.5205,-3.1983,12.4569,28.3276,1.9093,-11.0305,
-6.8376,-0.19457,-10.2333,-10.5141,11.8415,22.2219,8.0049,-5.6543,17.7828,1.8138,24.303,37.655,-4.4718,-4.1021,
-0.76299,2.9506,-5.5219,-8.5577,-2.969,6.7886,-6.5754,-5.0737,2.6158,4.3565,8.7448,21.2957,-1.07,-3.615,
5.5493,-4.4573,-1.8162,-2.2597,-16.8909,-7.7187,-20.2809,1.4973,-11.6412,1.2026,-5.8799,5.9179,4.2964,-7.2545,
-1.7733,8.5844,-4.3585,-6.2212,-1.7774,6.8444,-4.964,3.5768,3.1573,15.2305,8.5729,19.6628,1.8697,7.2807,
3.515,-2.2946,-5.3023,-3.1969,-15.7708,-7.6663,-18.7662,-6.0378,-11.1321,0.21664,-6.0415,4.3831,-4.268,-7.2561,
0.77352,1.6993,-6.4302,-1.0771,-0.72452,6.8937,-3.5402,-2.7837,3.6358,6.9521,8.421,18.2201,-3.5302,-8.267,
-0.47818,-1.5357,-7.2497,-5.1098,12.937,20.5801,10.7722,-2.8576,17.5177,5.3301,22.0158,31.2269,-7.4158,0.18322,
11.8429,0.24355,2.5856,3.6328,-1.9392,5.2453,-3.9741,7.678,2.3666,-5.3539,6.5948,15.2533,6.7678,-0.068852,
-0.6779,12.5209,-5.0414,-6.4672,-15.9229,-9.1694,-17.8357,1.6736,-11.8754,9.0673,-7.9009,0.23808,5.6388,14.0353,
4.9366,0.47165,-2.5395,-4.3617,-29.0675,-22.7193,-30.8655,-3.4578,-25.2629,-5.5767,-21.5268,-13.8762,0.7509,-0.90684,
-2.8013,3.0043,-2.7187,-3.9497,-13.2234,-7.2561,-14.9136,0.75645,-9.6471,3.6157,-6.1352,1.0564,-1.5539,-8.5048,
-0.52438,12.2844,-4.6644,-4.3757,1.67,7.2793,0.081211,-2.3621,5.0317,7.0746,8.3329,15.093,-2.1232,-3.7167,
-0.31219,4.6177,-4.2038,-3.9324,-9.8189,20.9425,-1.189,-2.0396,12.985,-3.654,4.037,28.2874,-1.8151,-7.0484,
-1.6793,14.8855,-2.9272,-0.74347,-23.3298,5.5859,-15.2176,5.3741,-1.8941,9.8819,-10.3052,12.4902,5.1027,6.6911,
1.5548,3.1463,-5.8849,-3.3502,-36.03,-8.8492,-28.4046,-1.4561,-15.8805,3.3839,-23.7869,-2.3592,-2.1931,-0.09781,
0.015445,7.2961,-4.0857,-1.2208,-19.7682,5.7817,-12.6003,0.077774,-0.82763,3.1811,-8.2597,11.8823,2.759,1.3545,
0.25549,9.9918,-4.0816,-2.4733,-4.4821,19.5348,2.2557,-0.65025,13.322,16.2466,6.3359,25.2694,1.2677,5.8526,
-3.5559,-1.2729,-7.6328,-6.121,9.164,32.2217,15.9794,-4.4073,26.3817,1.1718,19.8147,37.6122,-2.6045,-8.5986,
-0.028421,9.5892,-2.8968,-1.3552,-5.2448,16.4294,1.1616,1.5814,10.9398,7.1268,4.7669,21.4965,0.98644,0.35323,
2.9857,4.1929,-3.5665,-5.4919,-19.0301,1.3437,-13.0081,-7.5522,-3.8166,1.3964,-9.6191,6.1067,-7.1476,-13.768,
2.2043,-1.4816,-4.9191,-3.3545,-22.1667,-7.896,-2.0445,-2.8811,9.729,7.4593,4.2746,15.5017,-0.57208,-11.4959,
-2.0253,-5.4901,-8.7213,-7.2506,-6.7367,6.6778,12.1782,-6.8056,23.2453,5.445,18.1182,28.6716,-4.6351,-6.1059,
4.0613,-2.0876,-4.1611,-2.2967,7.2251,19.8348,25.0052,-1.8784,35.4082,-8.9817,30.5887,40.509,4.2594,-11.464,
-2.0873,5.9916,-3.0679,-4.6893,-7.0071,4.8459,9.7061,-0.4397,19.485,-5.6108,14.9547,24.2797,4.6067,-2.8223,
4.2445,0.38946,-2.4619,-6.3966,-20.4456,-9.3037,-4.7352,-7.2222,4.457,7.8013,0.19846,8.964,-0.068951,-5.9674,
3.2667,1.0892,-1.591,-2.8796,-20.6651,-22.8455,-14.5739,-3.1737,-9.9104,1.3079,-13.9134,-5.6738,0.17638,-11.1527,
1.3835,-0.66336,-3.1828,-4.394,-5.3252,-7.3748,0.40049,-4.6705,4.7842,7.3755,1.0214,8.7666,-1.5214,-0.96308,
0.57755,-6.1667,-4.6791,-3.8894,9.0943,7.1677,14.4765,-8.0052,18.5971,-6.9259,15.0601,22.3406,-6.4914,-11.872,
-0.66217,7.098,-0.30073,-6.7893,-2.5384,-7.3624,3.9669,-1.4996,3.3813,6.3844,8.7333,17.7464,4.2622,0.16871,
4.9207,5.8283,-1.006,-5.6586,-16.4861,-21.0206,-10.3711,-2.1325,-10.9216,4.1936,-5.8907,2.5816,-2.0191,-8.2775,
5.3486,0.89906,-2.6327,-1.222,-29.5969,-30.4851,-23.8488,0.16435,-24.3663,-4.4939,-19.6372,-11.6733,-2.6215,-6.5758,
3.8226,7.4738,-3.6798,-2.3537,-13.7211,-14.556,-8.3179,-1.0506,-8.8043,9.8757,-4.359,3.1271,-3.6693,5.75,
7.9616,3.8014,-0.77787,-3.3877,0.38848,-0.39637,5.4675,-0.71608,5.0103,-2.3764,9.1889,16.2258,0.91923,-8.695,
-4.3562,5.4715,-9.9203,-4.6603,14.4652,12.7336,19.2394,-2.6313,18.8097,8.8234,22.7375,29.3523,-3.7448,-1.1836,
0.84633,8.6381,-5.3477,-0.88575,0.19047,4.3775,4.6783,0.53954,4.2743,10.3426,7.9665,23.5846,-0.5071,6.2387,
7.1825,-0.91871,-2.0143,-2.1584,-13.8608,-9.925,-9.6423,0.14526,-10.022,-4.3178,-6.5514,8.1296,3.4997,-6.0667,
3.1364,13.2364,0.75787,-4.6802,1.0708,4.7705,5.0362,1.3416,4.6793,10.0413,7.9417,21.7418,4.9772,8.3973,
6.0815,-0.6939,0.4712,-4.1582,-13.0331,-9.3144,-9.3056,-3.3184,-9.6411,-4.3599,-6.5744,6.6387,-1.8296,-5.0012,
5.7166,4.5301,0.44293,-3.9087,1.8489,5.3445,5.3528,5.919,5.0373,10.0017,7.92,20.3403,2.9806,4.5781,
-0.41099,8.7174,-7.7784,-8.4949,15.838,19.1238,19.1316,0.38194,18.8351,13.017,21.5448,33.2199,-1.8982,4.9061,
4.1329,5.8442,-2.7924,-3.4659,3.2583,6.347,6.3543,4.8783,6.0756,0.72732,8.6227,19.5973,2.735,-2.5586,
0.088826,15.7972,-1.6007,-0.30521,-11.0372,-8.1338,-8.127,8.5022,-8.3889,12.3131,-3.0421,4.3215,7.4514,9.2243,
10.4474,4.4855,-2.7095,0.91794,-24.475,-21.7458,-21.7393,0.52029,-21.9856,-0.11581,-16.9596,-10.0378,6.7633,-5.4292,
9.8205,7.9522,-2.5469,0.86286,-8.9065,-6.3411,-6.335,2.7787,-6.5665,9.4116,-1.842,4.6645,8.1652,2.971,
1.4282,4.613,-8.7512,-6.992,5.7279,8.1394,8.1451,-3.1422,7.9275,11.2875,12.3685,18.4846,-0.12776,-1.5156,
0.64957,3.6433,-8.9191,-7.2654,-6.3055,-4.0387,3.3177,-3.6466,6.4877,-3.4596,15.9048,19.3036,-0.81305,-7.2998,
1.876,12.6438,0.59405,-0.26143,-20.0272,-17.8964,-10.9813,1.6938,-8.0016,5.9671,0.85054,4.0454,7.3701,2.3574,
6.343,2.7262,-0.64666,0.95932,-32.9256,-30.9226,-24.4224,-0.094851,-21.6215,-5.5986,-13.3005,-10.2973,-1.0256,-5.1349,
8.3727,10.2756,-0.60763,0.90153,-16.85,-14.9673,-8.8571,11.4802,-6.2242,5.8248,1.5975,4.4205,4.3383,6.2601,
-1.5296,1.1024,-9.9712,-8.5526,-1.739,0.030778,5.7743,1.3914,8.2492,0.77505,15.6017,18.2553,-5.322,0.22044,
3.5034,1.0363,-4.4317,-3.0982,12.4653,14.1289,19.5279,-1.7051,21.8543,-12.2869,28.7656,31.26,-0.061459,-8.4699,
-1.7085,4.5291,-2.901,-6.4673,-2.3826,-0.8188,4.2562,-1.5428,6.443,-7.9947,12.9397,15.2844,3.1357,-4.4067,
10.5056,9.0176,1.19,1.2116,-16.3396,-14.8697,-10.0992,3.9129,-8.0436,5.9223,-1.9367,0.26729,0.59747,-0.8279,
3.1268,7.0307,-3.2198,5.4772,-6.1401,-13.0738,-0.27407,6.5702,1.6582,7.4952,-3.9296,5.3731,2.0079,-1.2602,
-6.2199,-2.5502,-12.1856,-4.0104,8.3283,1.8107,13.8424,-2.983,15.6587,-2.1136,10.4062,19.1507,-7.2716,-6.6079,
0.63058,-6.5247,-6.9054,-8.8613,21.9286,15.802,27.1118,-7.4136,28.8192,-9.9707,23.8818,32.1016,-5.1783,-5.88,
-4.2577,-2.6686,-7.9671,-4.8649,6.5129,0.75391,11.3851,-3.5041,12.99,-5.9078,8.3489,16.0755,-1.4029,-2.0625,
7.3859,11.5916,1.007,3.8027,-7.9779,-13.3913,-3.398,10.8062,-1.8894,8.5467,-6.252,1.011,8.9851,12.1613,
5.7379,9.2691,2.6338,1.8873,-17.5019,-21.0238,-17.2941,6.1207,-15.876,8.8175,-19.9769,-13.1497,12.5433,10.7689,
5.3937,8.7129,2.4758,1.7741,-2.3517,-5.6623,-2.1565,5.7535,-0.82343,8.2884,-4.6783,1.7393,11.7907,10.1228,
2.5994,-5.8496,-6.8918,-4.6594,10.1419,7.0299,10.3255,-4.7751,11.5785,-5.7667,7.955,13.9875,-3.0167,-4.5846,
-1.8346,1.672,-3.526,-6.2478,2.3628,17.2732,4.5842,2.682,3.3517,1.7499,9.3456,16.462,0.05682,-4.3095,
5.988,15.6717,1.988,3.2864,-11.879,2.1368,-9.7908,6.4982,-10.9494,15.7449,-5.3151,1.3743,6.9226,6.6746,
9.0032,5.0904,1.3868,5.0174,-25.2662,-12.0914,-23.3034,2.2519,-24.3924,7.0874,-19.0962,-12.8082,3.1328,-5.295,
7.7399,4.0618,0.58045,3.9932,-9.6503,2.7341,-7.8052,1.3936,-8.8289,20.7622,-3.8504,2.0603,2.2217,9.1227,
8.9629,1.6487,0.78682,-6.1286,5.0287,16.6701,6.7631,3.9614,5.8009,5.4165,9.9984,16.0367,2.8115,-4.0784,
-5.6748,-1.4026,-13.3,-14.9802,18.7669,29.7097,20.3972,-8.8702,19.4927,4.0668,21.5102,29.1144,-8.9867,-9.6787,
-0.80056,7.0118,-3.2079,-4.3049,3.5409,13.8271,5.0734,-4.8279,4.2231,13.1174,6.1196,26.4185,-7.3481,0.19621,
6.8857,1.2135,4.6224,2.1449,-10.7114,-1.0424,-9.2709,3.0995,-10.0701,9.3628,-8.2875,10.8991,1.213,-2.7826,
-7.6274,-0.1851,-9.755,-12.0838,-18.5047,10.8305,-8.4737,-8.0536,4.5136,22.7806,6.1893,24.2247,-8.8627,-0.0855,
6.9302,2.5675,4.9002,2.7413,-31.1631,-3.588,-21.7339,0.95607,-9.5259,7.6451,-7.9507,9.0026,0.19514,-5.5332,
-5.8081,-3.0095,-7.0837,-9.1428,-15.1933,10.7273,-6.3299,-10.3088,5.1457,5.3788,6.6263,22.5624,-10.5417,0.94503,
-9.5272,0.21421,-8.9182,-15.1925,-0.27204,24.0933,8.0596,-10.9859,18.8466,10.0275,20.2384,35.2183,-12.1691,-3.2993,
-0.27848,5.6245,0.29402,-5.6038,-14.3557,8.5477,-6.524,-1.6497,3.6158,2.7974,4.9241,19.0052,-2.7619,-5.8734,
6.9691,17.2176,7.0248,2.9271,-27.5944,-6.0651,-17.0991,8.0903,-10.7012,16.7296,-9.4714,3.7649,5.1166,8.579,
10.889,3.6513,5.6392,3.7156,-40.0387,-19.8012,-30.1731,-1.5544,-24.1591,2.4694,-23.0031,-10.561,0.95299,-4.7102,
7.9458,10.4217,4.578,4.2155,-23.5364,-4.5132,-14.2628,5.5288,-8.6096,8.8287,-7.5229,4.1727,6.9214,0.1517,
-1.5993,0.72803,-4.765,-5.1057,-8.0242,9.8576,0.69301,-3.8713,6.007,-0.76933,7.0285,18.0223,-2.5623,-8.9257,
1.6599,3.8476,-1.3159,-1.6361,6.5572,21.3175,14.7514,-0.47576,18.421,-6.478,12.1501,13.5667,0.75474,-5.9498,
1.3194,11.8117,6.1142,2.9211,-7.9362,5.9384,-0.23366,4.0118,3.2158,2.1056,-2.6789,-1.3473,7.5786,2.6021,
10.3995,8.3312,5.2652,5.6381,-21.56,-8.5179,-14.3196,2.807,-11.0772,5.7154,-16.6181,-15.3664,3.2677,-6.3514,
7.8473,8.7956,4.4673,3.3716,-6.1664,6.0932,0.63954,7.4593,3.6875,8.747,-1.521,-0.34445,4.036,1.2605,
1.3507,2.2421,-1.8265,-2.8564,8.3036,19.8276,14.7012,0.98597,17.5662,2.1964,12.6702,13.7762,-2.2319,-4.8409,
0.54665,-8.2564,-1.4758,-2.444,21.9054,27.074,27.1961,-8.4733,24.9483,-12.0354,20.346,21.3857,-5.2312,-18.6504,
-1.5951,4.471,2.2886,2.3424,6.491,11.3495,11.4643,4.2671,9.3514,-3.5399,5.0253,6.0025,2.1324,-8.3122,
8.0812,10.0477,4.983,2.6239,-7.9984,-3.4314,-3.3235,5.9997,-5.3097,3.9632,-9.3763,-8.4576,0.49827,5.2623,
6.8735,6.3114,5.8893,1.2612,6.461,-5.2743,-0.35244,2.0243,-4.1476,0.10999,-6.042,-12.8915,1.6732,-3.4896,
4.5329,4.0045,3.6078,-0.74268,20.1733,9.1421,13.7687,-0.025384,10.2012,-1.8248,8.4205,1.982,-0.35538,-5.2084,
10.5274,-3.4666,0.98118,0.26575,33.0629,22.6936,27.0426,-6.2904,23.6892,-4.1254,22.0153,15.9631,-1.7803,-5.8598,
1.1588,-2.7163,1.4646,-0.29248,16.9792,7.232,11.32,-5.3707,8.1678,-3.3356,6.5944,0.9053,-1.1312,-4.9659,
6.2106,7.7504,4.4496,1.9548,1.8604,-7.3019,-3.4592,1.8809,-6.4223,7.1683,-7.9013,-13.249,4.4202,-2.077,
6.3201,2.9473,2.7366,3.2836,-12.3512,-20.9638,-17.3516,1.2859,-20.1369,4.8097,-18.2732,-26.5541,3.1908,2.3862,
5.9409,2.7704,2.5724,3.0865,2.4899,-5.606,-2.2105,1.2087,-4.8287,4.5212,-3.0768,-10.8608,2.9994,2.243,
13.0565,3.3273,4.1051,1.2144,16.4405,8.8304,12.0221,3.3056,9.561,-2.2578,11.2078,3.8908,-0.31383,-7.2918,
-1.8269,8.1889,-4.095,-3.4383,3.8849,10.3492,-2.7992,-1.4725,5.7336,3.7827,5.956,14.8653,-8.7311,-0.94921,
-0.15054,11.3132,3.1404,2.3119,-10.4482,-4.3717,-16.7313,-1.143,-8.7104,10.1844,-8.5013,-0.12661,-6.0379,11.5205,
6.366,3.1626,2.229,2.8961,-23.9213,-18.2094,-29.8274,0.13091,-22.2878,-4.5267,-22.0913,-14.219,-3.9884,-1.4628,
5.984,17.0726,2.0953,2.7223,-8.386,-3.0169,-13.9377,1.2074,-6.8505,9.8449,-6.6658,0.73413,-3.6286,8.3864,
5.625,1.9485,1.9696,0.63077,5.253,10.3001,0.034422,-5.734,2.3581,-4.8458,5.4238,13.826,-4.0133,-6.2167,
-7.8484,-5.8812,-11.2845,-12.543,19.0378,23.782,14.1324,-13.5851,16.3166,-5.6401,19.1984,25.0475,-11.9677,-3.4334,
1.1787,6.8845,-2.0512,-0.34166,4.5186,11.8706,9.3074,-3.8519,1.2376,6.0266,3.9465,14.1447,-6.1879,0.87003,
12.1956,6.3507,6.7489,7.8739,-9.1293,-1.2545,-3.6639,2.1638,-12.9366,-3.0117,-10.3903,0.88321,1.4142,-6.895,
1.0995,12.9595,2.7286,-1.0346,5.5185,9.5464,10.6559,2.7568,1.9396,11.269,4.3331,9.6276,-0.83982,7.6187,
5.1309,3.7458,3.7701,3.1248,-8.9126,-5.1264,-4.0834,0.42227,-12.2768,-3.5071,-10.0269,-5.0501,-2.959,-4.5283,
-1.2628,3.0993,-2.1805,-3.1485,5.7221,9.2812,10.2616,-2.9169,2.5598,1.1018,4.6747,9.3529,-3.6852,3.0344,
-11.4906,-4.3777,-10.7869,-16.1557,19.4788,22.8243,23.7459,-10.9972,16.5062,-2.3985,18.4942,22.8917,-15.0934,-4.9206,
2.2745,4.9838,2.9359,-2.1107,5.837,8.9818,9.8481,2.7383,3.0428,-4.7254,4.9116,9.0452,-1.1122,-2.7574,
3.5238,16.3144,1.7355,4.7044,-2.6479,-5.6571,-4.8428,1.0677,-11.2398,8.0311,-9.4831,-5.5975,2.7505,9.881,
7.1686,3.7661,2.5954,3.458,-16.589,-19.4177,-18.6522,-2.371,-24.6654,-1.9714,-23.0141,-19.3616,3.5496,-0.23253,
6.7384,3.5402,2.4397,3.2505,-1.4937,-4.1526,-3.4331,5.3637,-9.0854,8.6319,-7.5333,-4.0999,6.5908,7.3739,
-3.563,-6.5693,-7.6038,-6.8416,12.696,10.1965,10.8729,-4.8552,5.5597,-1.6627,7.0187,10.2461,-3.7018,-2.9656,
-3.6957,-6.5217,-7.4941,-6.7776,11.8137,20.2503,7.8707,-4.9104,18.3015,-1.9094,9.068,13.5479,-3.8262,-5.3033,
0.50303,4.5953,2.7171,4.3547,-2.9951,4.9353,-6.7016,6.1099,3.1034,8.9308,-5.5761,-1.365,0.98303,5.7405,
9.8732,6.9712,3.7593,2.8882,-16.9154,-9.4608,-20.3995,2.2487,-11.1828,4.2975,-19.3416,-15.3831,-4.1377,-3.6421,
5.183,5.8296,3.2928,2.9559,-1.8005,-12.9905,-5.0755,1.8724,3.5882,6.2088,-4.0811,-0.36007,2.1361,-0.29055,
-0.91257,-0.30476,-2.6894,-3.006,12.4076,1.8889,9.329,-4.0246,17.4729,0.051704,10.2638,13.7615,-3.7767,-6.0577,
-0.37588,-7.5173,-0.59983,-2.8257,12.6272,12.7423,19.736,-6.1932,27.3913,-9.5924,20.6147,23.9026,-6.9245,-15.8176,
0.069049,4.5634,3.2325,-0.306,-2.2304,-2.1222,4.4519,1.3492,11.6478,2.6128,5.2778,8.3684,0.66177,-3.2389,
2.776,3.5062,2.8576,3.3878,-16.1966,-16.0949,-9.9153,1.0873,-3.1511,3.6009,-9.1388,-6.2337,4.7794,0.51083,
-4.3807,-0.31984,2.445,3.4257,-14.5019,-16.8169,-3.1745,1.7447,-13.2058,2.1793,-14.978,-19.9597,4.7339,4.0954,
-4.1478,-0.3306,2.2683,3.1902,0.46821,-1.7079,11.1159,1.6101,1.6865,2.0186,0.020719,-4.6621,4.4199,3.8197,
2.9701,1.4968,-0.88092,3.3601,14.5401,12.4946,24.549,0.91094,15.6853,-8.8285,14.1195,9.7176,-1.2686,-8.5817,
2.2196,8.6679,3.1791,1.8631,-0.43229,-2.3551,8.976,6.3093,0.6442,-1.0378,-0.82769,-4.9654,6.0685,-0.80583,
3.2919,8.9917,3.7115,1.0281,-14.5064,-16.3138,-5.6625,-3.951,-13.4945,3.7247,-14.878,-18.7675,2.6913,7.7991,
5.0224,4.1136,2.0428,2.8949,-25.4461,-29.435,-19.4228,-1.786,-26.7848,-2.2831,-28.0853,-29.9337,-4.7007,-2.31,
4.721,3.8668,1.9202,2.7212,-9.8193,-13.5689,-4.1574,-1.6788,-11.0777,-1.544,-12.3002,-14.0377,-4.4187,-2.1714,
11.1867,1.2242,5.6614,-1.7809,4.8698,1.3453,10.192,0.35012,3.687,-5.9104,2.5378,0.90456,3.5592,-2.0411,
-3.5845,6.8151,-8.1759,-5.0482,18.6776,14.4007,8.255,-0.15259,1.1761,0.10858,11.6653,3.5014,-0.028577,3.7457,
8.5612,14.9628,-0.69544,5.1366,3.457,-0.56335,-6.3403,6.364,-12.9945,13.9613,-3.1347,-10.8087,2.1423,10.1489,
4.4323,1.7728,2.4795,1.6951,-10.8504,-14.6296,-20.0599,0.92075,-26.3148,0.34897,-17.0466,-24.2602,2.7369,-2.2699,
4.1664,11.6688,2.3308,1.5934,3.9006,0.34822,-4.7563,1.227,-10.6359,14.428,-1.9238,-8.7046,4.3804,11.9663,
4.1575,0.24324,1.9498,1.7389,9.9334,3.0993,5.0499,-0.41306,-6.2617,-0.53765,1.4455,5.9177,1.1049,1.2455,
-6.7725,-8.6442,-8.8477,-9.046,23.4374,17.0133,18.8469,-11.0688,8.214,-0.46027,15.4588,19.6626,-9.6419,2.4213,
-0.506,2.3139,-1.0106,-5.5356,7.9312,17.3182,25.3083,-4.0628,20.616,7.4764,4.7697,19.5677,0.65291,2.4719,
4.5856,4.7055,4.5936,4.6785,-6.6447,2.1791,9.6898,3.6528,5.279,-1.4083,-9.6165,4.2936,10.0133,-6.1126,
-4.7578,14.6368,1.9982,1.596,7.854,1.5362,9.5604,3.042,-8.0831,12.7762,5.0605,4.9699,6.6107,8.3542,
7.488,-0.3414,2.7519,1.41,-6.7173,-12.656,-5.1133,-1.0877,-21.6981,-2.0904,-9.3431,-9.4283,-0.14319,0.019456,
5.472,0.19125,1.0201,-0.24131,7.7858,2.2034,9.2935,2.8342,-6.2962,8.1582,5.3174,5.2374,2.2763,6.2851,
-8.9563,-5.1229,-13.1411,-14.3268,21.4186,15.7192,22.3839,-10.3513,7.7295,3.3299,19.0984,18.5712,-9.43,-6.1432,
-1.1274,5.2473,-1.2053,-2.3198,10.5527,4.8337,11.0985,1.6582,-2.6766,3.0701,8.6127,7.5145,2.5243,-0.5324,
7.5566,14.2723,7.4839,-1.7589,-4.1805,-9.5564,-3.6674,10.1756,-16.616,12.2257,-6.004,-7.0363,2.3126,8.8393,
10.2365,2.6901,5.3479,0.033603,-18.0297,-23.083,-17.5474,-1.281,-29.7191,-2.6079,-19.7438,-20.7142,1.4507,0.95762,
3.9582,1.8056,1.8933,3.1653,-2.8479,-7.598,-2.3945,-1.4453,-13.8359,0.19968,-4.4592,-5.3713,1.6048,1.6233,
-1.5518,-3.5753,-3.4928,-2.2971,11.423,6.9579,11.8491,-6.6311,1.0942,-5.0848,9.9084,9.051,-3.764,-3.7466,
-3.8991,-5.8011,-5.7236,-4.5997,3.3259,16.6032,5.6547,-8.6736,8.0783,-13.9688,8.4099,15.5581,-5.9785,-5.9622,
1.7581,7.9239,6.1893,-0.46742,-10.9736,1.507,-8.7846,0.041845,-6.5064,0.24634,-6.1947,0.52465,7.3955,7.7725,
6.4733,1.3027,5.8179,-0.43938,-24.4152,-12.6834,-22.3575,1.0032,-20.216,0.83397,-19.923,-13.6068,4.0597,-5.1066,
5.844,1.4655,4.2636,0.79228,-8.8503,2.1776,-6.916,3.1122,-4.903,6.8099,-4.6276,1.3096,2.1289,0.26147,
-1.3761,-5.4918,-2.8617,-6.1247,5.7807,16.1469,7.5989,-3.944,9.4912,-0.46807,9.75,15.331,-4.8682,-6.6236,
0.75517,-5.5237,-2.0871,-4.6724,19.5339,29.2781,21.243,-5.0326,23.0217,-9.4781,23.265,28.5111,-4.4552,-9.9621,
-5.3159,4.5694,2.1357,-3.6689,4.2618,13.4214,5.8684,2.259,7.5404,0.85231,7.7691,12.7005,4.2476,0.39731,
4.4035,5.621,4.6587,1.1305,-10.0939,-1.4839,-8.5837,-4.384,-7.012,0.68023,-6.797,-2.1616,-0.58657,3.6274,
2.9335,6.0062,2.21,3.2319,-15.1524,-15.4948,-11.3225,0.94022,-20.6913,1.3623,-17.838,-16.1319,-1.7567,-2.1343,
2.7575,5.6458,2.0774,3.038,-0.1433,-0.46515,3.4568,0.8838,-5.3498,1.2806,-2.6677,-1.0639,-1.6513,-2.0062,
4.3397,-5.9607,2.7361,1.2289,13.9653,13.6628,17.3494,-4.6524,9.0712,-1.3874,11.5924,13.0999,-2.697,-5.4408,
-4.1756,1.929,2.5117,2.0588,3.0045,-1.257,2.2084,2.7974,-5.5731,6.228,-3.2032,-1.7861,2.7072,2.4177,
3.0644,6.5135,1.6377,2.6586,-11.2758,-15.2816,-12.0241,1.9066,-19.3387,9.1082,-17.111,-15.7789,-0.5887,6.0085,
5.0501,-3.2773,2.2628,1.7758,-24.6992,-28.4647,-25.4026,-2.7875,-32.2784,-1.8021,-30.1843,-28.9322,-2.7225,-3.752,
4.7471,-3.0807,2.127,1.6692,-9.1173,-12.6568,-9.7785,-2.6203,-16.2417,1.0776,-14.2733,-13.0963,-2.5592,-0.75527,
9.2826,-0.48571,4.8914,0.6052,5.5298,2.2026,4.9082,-1.0168,-1.1672,-7.0613,0.68312,1.7895,-0.47744,-4.9278,
0.77187,5.2075,2.4288,-2.5646,15.0799,-0.3398,-3.2195,-0.71481,8.1825,-0.97352,9.6809,6.1408,-3.0999,1.032,
10.1256,8.39,3.4884,-0.24156,0.075106,-14.4194,-17.1263,-1.3948,-6.4085,6.4362,-4.9999,-8.3276,-6.0474,3.0192,
16.7489,5.9584,3.2791,-0.22707,-3.4243,-27.6542,-30.1988,0.6166,-20.124,-6.4834,-18.7999,-21.928,-1.3462,-3.4289,
13.7556,19.7009,5.0706,-2.2018,10.8811,-11.895,-14.2868,-1.4087,-4.8165,8.0056,-3.5719,-6.5123,-3.1331,6.9603,
18.5641,18.6695,10.4003,3.5642,24.1173,2.7077,0.45942,3.3456,0.44355,-4.8577,0.16743,-5.4888,1.122,-7.5573,
11.6351,8.3599,0.46684,-2.9467,36.7703,16.6453,14.5319,-6.526,13.2815,-5.5604,13.022,7.7051,-11.991,-4.8746,
21.3016,13.8841,6.4646,-5.9027,48.664,24.1729,27.7599,-6.8576,21.5234,-7.3957,5.3715,-1.0724,-8.1379,-5.7872,
34.1235,19.3178,20.1767,8.5514,31.8552,8.6226,12.2053,4.1589,6.132,-14.665,-9.0508,-15.108,6.4504,-12.1886,
17.9761,20.0871,9.2044,-4.1335,44.0439,-5.9948,-1.4217,-9.1058,-8.3359,0.31492,-22.6078,-28.3015,-6.1084,-2.2985,
30.9975,19.8456,20.2211,10.2145,27.3012,-19.7351,-15.4364,-1.3288,-21.9358,-7.0551,-35.3513,-40.7035,3.8988,-9.3912,
21.0632,10.5804,10.9334,1.5272,39.7631,-4.451,-0.41023,-7.7568,-6.5196,-9.2835,-19.1302,-24.1612,-4.4096,-12.4434,
20.0404,11.7537,7.7468,0.23029,51.4774,9.9161,13.7144,-6.0861,7.9716,-3.1825,-3.8824,-8.6116,-8.1219,-6.6351,
18.838,1.7687,7.282,0.21647,62.4887,-2.7302,12.1686,-5.7209,-4.5581,-17.0915,-15.7008,-20.1462,-7.6346,-16.9625,
18.807,10.1135,7.4624,-2.5536,54.7775,-14.2411,-0.23617,-5.2422,-15.9592,-1.966,-26.4334,-30.6121,0.67175,-1.8448,
21.0378,4.31,10.3739,0.11573,37.3908,-27.4866,-14.322,-4.8222,-29.1017,-10.2842,-38.9474,-42.8754,-1.1908,-12.5804,
19.4745,4.8344,10.6557,-0.19231,48.208,-12.7768,-0.4021,-4.2318,-14.295,-8.8837,-23.55,-27.2423,-1.4204,-12.1266,
18.306,4.5444,10.0164,-0.18077,59.4155,2.0898,13.722,-3.9779,0.66269,-8.3506,-8.037,-11.5077,-1.3352,-11.399,
17.2076,3.3078,9.4154,-0.16992,69.9506,12.8106,26.9987,-3.7392,14.7229,-7.8496,6.5452,3.2827,-1.2551,-10.7151,
13.1024,10.4,5.0543,-2.3894,51.6535,-2.058,11.2788,-2.0083,-0.26045,2.2021,-7.9475,-11.0142,5.7492,-0.49147,
16.4738,5.8596,8.9086,1.9116,34.4543,-16.0345,-3.4979,-5.3223,-14.3448,-6.5467,-21.5706,-24.4534,4.3803,-10.8865,
14.8226,4.3633,12.0501,2.0985,46.4871,-4.5277,10.8119,-5.3045,-9.0855,-3.5629,-6.1764,-8.8862,4.2979,-4.7499,
13.9333,4.1015,11.3271,1.9725,57.7978,9.8439,24.2632,-4.9862,5.5597,-3.3491,8.2942,5.747,4.04,-4.4649,
9.4818,-10.2446,1.9703,-4.4124,67.4056,19.7378,35.8831,-11.9176,15.7106,-17.2482,20.8722,18.4778,-3.4329,-18.297,
5.7795,0.13155,9.565,1.1546,49.8638,5.056,20.2326,-3.0077,1.2705,-6.3311,6.1224,3.8717,4.9679,-10.2095,
14.11,5.3056,9.4732,1.5675,32.772,-9.3473,4.9187,-3.3094,-12.9058,0.67695,-8.3449,-10.4606,-0.15064,-2.0044,
10.6119,-5.2564,4.3251,2.1964,16.7057,-22.8865,-9.2357,-3.8337,-26.2314,-2.4972,-21.9442,-23.933,2.5095,-1.6432,
9.9752,-4.941,4.0656,2.0646,29.8033,-7.4133,5.4184,-3.6037,-10.5575,-2.3473,-6.5276,-8.397,2.3589,-1.5446,
7.6894,-4.5238,6.9551,2.6641,42.1151,7.1315,19.1933,-4.1108,4.1759,-10.1602,7.9641,6.2068,4.8689,-13.2621,
-4.823,-0.39599,-0.21062,-2.7984,25.4882,-7.3964,6.3521,1.4385,-10.1746,-2.9222,-6.6138,-8.2656,6.505,-5.8379,
3.4199,-4.4698,1.489,-2.3898,9.8589,-21.0526,-8.129,0.14708,-23.6642,3.8809,-20.317,-21.8696,7.3193,4.5146,
2.4918,-9.2633,2.605,-1.523,-4.8326,-33.8895,-21.7413,0.37923,-36.3443,-7.6802,-29.703,-34.6575,6.1572,-1.7819,
2.3423,-8.7075,2.4487,-1.4317,9.5574,-17.7561,-6.3368,0.35647,-20.0637,1.8192,-13.8208,-18.478,5.7878,-1.675,
7.7456,-7.9439,3.9887,1.7875,23.0839,-4.6392,8.1434,-2.7982,-4.7598,-2.2666,1.1084,-3.2693,5.1998,-2.2976,
-6.6387,-4.9969,-2.9392,-4.0441,13.3232,-12.9775,21.5738,-2.57,9.445,5.6424,15.1419,10.2434,3.9837,7.421,
-3.1671,-0.17754,1.2747,-0.7282,-1.5762,-26.2988,6.1794,-0.78885,-5.2217,5.9665,3.2669,-4.4712,5.8541,5.3487,
-0.084785,-7.398,-0.73022,0.76152,-15.5816,-38.8209,-8.2914,-1.2237,-19.0084,-1.1401,-11.0291,-18.3029,7.9127,-3.649,
-5.2316,-5.4778,-5.8383,-4.436,-0.54671,-22.3916,6.3061,-6.3021,-3.7679,13.0283,3.7326,-3.1047,2.2861,10.6699,
-2.1764,-10.4818,2.074,1.4639,-14.6139,-35.1481,-8.1723,-1.2541,-15.7738,-1.8534,-10.5913,0.63675,1.0343,2.1962,
-3.3112,-10.9976,0.68415,0.11067,0.36292,-18.9392,6.4181,-2.4442,-0.72742,3.3796,4.1442,14.6985,-0.17293,6.2224,
-11.2469,-3.6492,-6.045,-7.0665,10.5245,-3.7029,20.133,-3.6835,13.4162,6.009,17.9955,27.9166,-1.6687,7.7169,
-7.258,-3.8523,-2.3682,-3.3284,-4.207,-16.6167,4.8251,-0.14839,2.428,-2.004,6.2504,16.0584,1.7455,3.9398,
-18.2859,-1.7074,-7.9053,-8.8075,-18.0545,-29.7197,-9.5644,-0.99801,-11.8177,4.4886,-8.2247,0.99487,4.1567,10.0757,
-3.0887,-0.20437,2.6467,4.2088,-31.0713,-36.7943,-23.0905,6.2475,-25.2086,2.6071,-20.325,-13.1648,12.5387,1.5925,
-3.1296,-5.9164,-3.2365,-1.7681,-19.7467,-20.4866,-7.6051,0.14831,-9.5961,11.0673,-5.0055,1.7251,6.0621,7.2215,
-5.3523,-7.9719,-5.4528,-4.0724,-4.4619,-5.1574,6.9512,-2.2711,5.0797,7.9928,9.3948,15.7216,3.2879,4.3777,
-2.6207,-5.0831,-2.7151,-1.4176,-18.2942,-10.5723,-1.4197,0.27567,17.0673,7.7543,14.9171,18.3938,5.5011,6.5255,
-14.6957,0.94618,-3.8173,-1.1518,-31.2966,-24.038,-15.4345,2.85,1.9433,13.0134,-0.077895,3.1902,7.2799,11.8583,
-2.9675,-2.4848,0.50887,3.4968,-43.5188,-36.6957,-28.6085,4.3664,-12.2733,4.8815,-14.1732,-11.1012,7.5663,0.66202,
-5.9231,-6.9157,-2.173,-1.2925,-26.8076,-20.3939,-12.7919,9.1654,2.5631,8.2038,0.77717,3.6648,8.7993,5.2018,
-8.957,-9.89,-5.4319,-4.6043,-11.0992,-5.0703,2.0756,5.2262,16.5093,4.3223,14.8305,17.545,4.882,1.5004,
-8.1031,-8.9801,-4.7895,-4.0115,-12.9638,7.2852,11.2308,4.9882,27.57,2.6922,25.992,28.5436,4.9056,1.4855,
-9.8463,-0.66832,-1.4293,-5.0364,-26.286,-7.2519,-3.5431,7.0388,11.8158,10.3037,10.3325,12.731,6.7202,9.1694,
0.86736,-1.4716,3.9591,1.5323,-38.8089,-20.9168,-17.4305,5.1702,-2.9931,-0.075994,-4.3874,-2.1329,7.7632,2.2322,
-8.5851,-5.4811,0.10612,1.1994,-28.7073,-11.8887,-13.5528,2.2089,4.9595,4.5079,3.6488,-8.6936,4.6459,2.3392,
-8.07,-5.1523,0.099754,1.1275,-12.8849,2.9246,1.3603,2.0764,18.7619,4.2374,17.5299,5.928,4.3671,2.1989,
-5.4167,-15.4484,-7.619,-3.279,-4.1578,16.8491,15.3787,-0.94074,31.7362,-2.7658,30.5781,19.6723,5.5514,-7.0921,
-7.9833,-2.5907,-5.4746,-0.43067,-18.0083,1.7382,0.356,6.1056,15.732,9.331,14.6434,4.392,5.4597,5.2643,
-4.371,-4.2425,-0.56664,0.3183,-31.0278,-12.4661,-13.7654,2.606,0.68811,3.1075,-0.33519,-9.9715,-3.3038,3.1407,
-6.5193,-8.8086,0.43122,-0.66513,-43.2662,-25.8182,-27.0394,4.8598,-13.4532,4.8488,-14.4151,-15.1578,2.1966,3.9166,
-6.1282,-8.2801,0.40535,-0.62522,-26.5702,-10.1691,-11.3171,4.5682,1.454,4.5579,0.54982,-0.14834,2.0648,3.6816,
0.26528,-1.7575,0.62222,5.4381,-10.876,4.5411,3.4619,-0.76737,15.4668,-6.0792,14.6168,13.9606,6.0385,-2.5651,
-8.1263,1.9029,-0.55993,1.5568,-20.1658,-2.2993,-7.8932,2.8336,3.3913,-2.1595,2.5924,1.9755,7.9054,1.1438,
-6.4939,-3.2125,-2.274,-2.6944,-33.0559,-16.2614,-21.5196,2.4831,-10.9122,9.1175,-11.6632,-12.2431,3.7556,5.233,
-4.8992,-4.7072,5.3344,3.975,-45.1725,-29.3857,-34.3285,4.0211,-13.5717,6.1599,-21.0263,-25.6085,8.5918,-1.5887,
-5.3885,-5.208,4.2311,2.9532,-28.3622,-13.5226,-18.1688,2.9966,1.3426,14.2868,-5.6647,-9.972,7.293,-0.71013,
-5.9689,-5.3169,-4.6393,2.8362,-13.3436,0.60565,-3.7618,-0.979,15.3621,4.6923,8.7752,3.9432,-1.2792,-0.72765,
-12.7062,-3.5369,-10.6127,-1.6571,1.557,14.6693,1.7816,5.361,28.5404,18.5108,22.3487,17.8066,-1.1872,13.416,
-14.9716,-3.8216,-5.6526,-0.12688,-12.6364,-0.31084,-12.4253,-2.6884,12.7279,13.4233,6.9077,4.4457,-3.5415,2.3672,
-7.5653,-5.7615,-1.2161,4.9424,-25.9782,-6.7999,-25.7798,-1.3218,-2.1357,2.2536,-7.6067,-9.921,1.2507,-3.8004,
-9.5222,8.6842,-4.5173,-1.1389,-13.3924,7.7081,-14.0647,3.5775,12.0924,16.2183,6.9497,4.7742,0.2111,10.5276,
-2.4427,-3.7677,-2.5588,1.5807,-26.6889,21.3456,-27.3209,1.1939,-2.7331,1.1452,-7.5673,4.0061,-3.4163,-1.0705,
-4.6464,-1.6738,-4.7555,-0.50267,-10.9875,34.1649,-11.5816,3.4721,11.5308,10.4162,6.9867,17.8657,-3.2721,12.9126,
-15.3946,-5.0686,-14.3527,-5.4141,-20.9938,46.215,3.2133,-3.6055,24.939,8.7065,20.6675,30.8938,-11.3913,11.0532,
-14.1089,-8.0783,-6.0795,2.3228,-33.8342,30.4269,-11.0795,1.0098,10.4275,-2.8424,6.4123,16.0249,-4.8626,0.32779,
-19.5296,5.4216,-5.7147,2.1834,-45.9041,17.2729,-24.5147,5.8904,-4.2982,10.3433,-8.0724,6.1449,-1.5583,13.3233,
-11.3681,-4.1832,-5.6131,2.2936,-57.2499,2.1365,-37.1439,2.8852,-18.1403,4.2996,-21.6881,-8.3238,-5.08,1.3157,
-11.1077,-3.51,-4.8546,1.7343,-43.1494,16.1083,-21.7192,5.0625,-2.9519,16.5149,-6.2868,6.2756,-1.9429,12.2642,
-10.4413,-0.28666,-4.5633,1.6303,-26.4604,29.2418,-6.316,4.7587,11.3252,23.8394,8.1904,19.9991,-1.8263,17.9156,
-11.0802,-1.5349,-5.5549,0.26703,-31.8022,41.5873,-11.9625,3.2078,14.502,8.309,4.9271,30.3687,-2.9822,8.9468,
-10.837,1.0277,-2.7511,0.31136,-43.9941,24.992,-25.3448,5.4858,-0.46812,7.8105,-9.4686,14.4465,-0.33275,10.8805,
-8.56,-0.78144,-3.7309,1.4375,-55.4544,9.3925,-37.9241,-0.32651,-14.54,-5.1314,-23.0005,-0.52025,-4.3501,-2.2451,
-15.518,-2.422,-5.194,3.0383,-47.0658,22.929,-30.5873,-1.9944,-8.6063,3.6124,-16.5591,4.5723,-4.8123,3.433,
-14.5869,-2.2767,-4.8824,2.856,-30.1419,35.6532,-14.6521,-1.8747,6.0101,3.3957,-1.4655,18.398,-4.5235,3.227,
-13.2295,-6.9606,-4.1073,0.75663,-14.2333,47.614,0.32707,-1.2801,19.7495,-10.9081,12.7224,31.3941,-3.7699,-6.6078,
-9.0613,3.7007,-1.4507,-0.25309,-27.4793,30.6572,-13.7926,4.0994,4.4645,-1.8177,-2.141,15.4104,-3.0618,4.0323,
-7.3128,-6.0416,-3.5328,1.9313,-39.9306,14.7178,-27.065,-2.6545,-9.9034,6.1249,-16.1125,0.38582,-5.0473,1.9829,
-7.115,-8.3307,-3.0799,1.5744,-26.809,21.9089,-37.6129,1.6021,1.4166,2.6239,-4.42,-7.9528,-0.64707,1.6225,
-6.6881,-7.8308,-2.8951,1.4799,-11.1004,34.6944,-21.2561,1.506,15.4316,2.4664,9.9452,6.6244,-0.60825,1.5251,
-4.1779,-11.0362,-3.0227,-0.83831,-0.73349,46.7127,-5.8808,-3.7059,28.6057,-11.5404,23.4485,20.3269,-5.6933,-6.58,
-7.7234,1.1349,-0.37089,-0.72771,-14.7895,29.81,-19.6279,4.2895,12.7894,-0.72502,7.9416,5.0073,-0.95306,5.3238,
-3.6448,-1.946,1.3384,-2.371,-28.0021,13.9214,-32.5502,1.8628,-2.078,8.3568,-6.6349,-9.3931,-3.0653,1.9916,
-3.6673,-6.8911,-0.42893,-0.54178,-30.3593,-1.0139,-35.6589,-1.3823,-16.0533,0.38381,-20.3368,-21.1218,-2.6406,-2.7079,
-3.4472,-6.4776,-0.4032,-0.50928,-14.4377,13.1469,-19.4194,-1.2993,-0.99011,3.6145,-5.0166,-5.7545,-2.4822,-2.1837,
-3.7223,-9.9454,0.10293,0.0032131,0.52855,26.4581,-4.1542,-4.1139,13.1693,-7.5689,9.3844,8.6908,-7.1535,-5.7884,
-9.7655,2.1003,1.543,-2.4071,4.5944,10.7706,-8.4842,1.4356,-1.7206,4.3342,7.6163,8.4103,4.3629,6.0078,
-1.9487,0.64869,1.9324,-2.2627,-9.7812,-3.9756,-22.0752,-2.9889,-15.7174,4.6763,-6.9407,-6.1943,0.72671,10.1059,
-6.1704,-11.4416,-0.11154,-0.68089,-23.2944,-17.8371,-34.8507,-1.3635,-28.8743,-9.7043,-20.6243,-19.9227,-2.6911,-2.0693,
-5.8001,-0.029282,-0.10485,-0.64004,-7.7967,-2.6669,-18.6596,-0.19688,-13.0419,4.978,-5.2868,-4.6273,0.00095997,12.1548,
-4.8495,-9.4278,-0.70121,0.0010129,6.5301,11.3522,-3.681,-3.8003,1.5997,-9.4207,8.8894,9.5094,-0.23983,-2.6745,
-11.8491,-3.8606,-5.2987,-1.5051,20.2383,24.7711,10.6398,-1.4633,15.6037,1.5691,22.4561,23.0388,-2.4548,3.813,
-5.8965,-1.2794,0.26143,-0.51139,5.165,9.4258,-3.8576,-1.9179,0.80843,9.489,7.2497,7.7974,-1.4042,5.4519,
-0.24004,-9.8792,0.24575,-0.48071,-9.2449,-5.2398,-17.7261,-2.2848,-13.3401,-5.1804,-7.2853,-6.7704,-1.8018,-1.6241,
-4.8052,4.8135,-0.49213,0.27127,5.4098,9.1746,-2.5626,3.8776,1.5603,9.2304,7.2518,7.7358,1.4395,12.5733,
2.2321,-5.4777,-2.3908,4.5938,-9.0148,-5.4759,-16.5088,-5.996,-12.6333,-5.4234,-7.2833,-6.8283,-1.5389,-2.2811,
-0.25198,-1.8355,-2.3078,1.968,5.6261,8.9527,-1.4183,-3.2861,2.2247,2.9162,7.2537,7.6814,-2.9533,7.1956,
-9.275,-3.8941,-2.4099,-7.1887,19.3885,22.5155,12.7668,-5.2582,16.1912,-1.3562,20.9185,21.3205,-12.1757,7.9691,
-3.2957,-9.3249,-0.69886,0.95538,4.1252,7.0646,-2.0992,-4.3401,1.1197,-15.1339,5.5634,5.9413,-6.5043,-6.6091,
-5.8094,5.3346,-2.8864,3.1276,-10.2223,-7.4593,-16.0732,2.3679,-13.0474,-0.12584,-8.8704,-8.5152,-0.63074,3.8502,
1.2879,-2.6381,-3.1954,3.4221,-23.709,-21.1117,-29.2088,-1.6308,-26.3646,-9.6991,-22.4382,-22.1043,-4.9314,-3.6117,
-1.9229,-4.1666,0.12979,0.083267,-8.1864,-5.745,-13.3563,-1.7739,-10.6827,-0.68105,-6.9919,-6.678,-1.984,1.1848,
-1.8075,-3.9166,0.122,0.078271,6.4048,8.6997,1.5451,-1.6675,4.0582,6.4697,7.5276,7.8226,-1.865,1.9571,
-1.6991,-4.405,0.11468,0.073575,-2.4154,22.2777,15.5524,-1.5674,1.1634,-8.0185,-3.7701,2.2921,-1.7531,-2.6192,
-4.4894,6.3439,-0.8563,1.0333,-16.0088,6.841,0.51922,2.8652,-13.0064,2.4655,-17.6439,-11.9455,4.1365,8.0226,
2.0465,-4.7625,-0.32299,0.48933,-29.1483,-7.6694,-13.6119,-3.5737,-26.326,2.1971,-30.6852,-25.3287,-1.8963,-3.6665,
-4.1019,-7.1278,-0.062639,0.219,-13.2994,4.3599,1.3048,-0.22581,-13.5387,-1.5501,-17.6364,-12.6013,1.8329,5.9535,
-3.8558,-6.7002,-0.058881,0.20586,1.5986,18.1983,15.3265,-0.21226,1.3736,-1.4571,-2.4782,2.2548,1.7229,5.5963,
0.71414,-1.9596,-1.0192,1.1574,15.6027,31.2064,28.5069,4.139,15.3912,-4.7442,11.7705,16.2195,4.994,-2.9342,
-2.9439,7.1963,-0.23516,0.36503,0.56649,15.234,12.6965,8.4702,0.36771,4.5788,-3.0358,1.1463,2.0433,6.2802,
6.6325,0.13632,-0.94418,1.0663,-13.5675,0.21998,-2.1653,-0.95631,-13.7544,-1.842,-16.9536,-13.0225,-3.1412,1.2036,
8.4042,-1.5586,-1.1285,1.2433,1.3466,-7.6262,12.0646,2.7169,0.44778,-3.9006,-11.2364,-15.2539,5.4834,3.3005,
7.8999,-1.4651,-1.0608,1.1687,15.3658,6.9313,25.4407,2.5539,14.5209,-3.6666,3.5378,-0.23865,5.1544,3.1025,
4.051,-6.1979,-0.99714,1.0985,28.5438,20.6154,38.0143,-0.49182,27.7497,-5.8572,17.4255,13.8757,-1.4219,-6.7251,
0.67493,3.2125,-1.6602,1.7555,12.7312,5.2785,21.6334,4.117,11.9847,3.5328,2.28,-1.0569,3.7251,2.717,
4.0087,5.7911,0.36736,-0.27777,-2.1327,-9.1382,6.2354,1.4596,-2.8344,2.7182,-11.9568,-15.0935,1.0913,9.1822,
-1.0526,0.62338,-0.13661,0.22083,3.4182,-22.6899,-8.2387,4.2645,-16.7643,-8.0497,-25.3394,-24.0702,1.9901,-1.4917,
-0.98942,0.58598,-0.12841,0.20758,17.3131,-7.2285,6.3556,4.0087,-1.6585,-7.5667,-9.719,-8.526,1.8707,-1.4022,
3.6492,-2.8236,-1.567,1.6414,30.3743,7.3052,20.0743,-4.427,12.541,-12.8973,4.9641,6.0855,-3.5442,-4.6925,
-1.3895,6.8665,0.21428,-0.14432,22.2853,2.4079,12.8443,0.41835,-0.38324,-2.6028,9.366,9.0949,5.5865,5.1098,
-0.58302,6.0931,-0.52171,0.58747,6.8482,-11.8366,-2.0264,0.15251,-14.4602,11.6534,-5.2959,-5.5508,5.0101,9.7444,
1.8619,-5.36,-1.4545,1.5163,-7.6627,-25.2264,-16.0048,2.5533,-26.2466,2.2771,-19.0782,-19.3178,2.7816,-4.9403,
1.7501,1.8312,-1.3672,1.4253,6.8971,-9.6128,-0.9445,2.4001,-10.5718,16.2405,-3.8335,-4.0587,2.6147,9.0947,
1.7657,-6.2327,-1.1646,1.2192,20.5833,5.0639,13.2122,-0.7566,4.1625,1.166,10.4965,10.2848,-0.55486,-5.551,
-2.1967,4.3845,-0.73316,0.7845,32.6046,18.8601,26.5194,6.1581,18.0128,11.2188,23.9667,23.7677,3.9371,8.8821,
1.671,6.5318,-0.20701,0.25527,16.5484,3.6285,10.8283,4.3426,2.832,11.9921,10.1159,21.0161,0.8086,6.3002,
1.089,-3.9828,-2.123,2.1684,1.4555,-10.6892,-3.9214,-3.1491,-11.4379,-2.8274,-4.591,5.6551,-2.6141,-6.1291,
-4.7611,10.3562,-1.0315,1.0742,7.7554,4.0521,6.5572,-2.478,3.3483,11.4422,9.7845,19.4158,-2.4575,8.3386,
4.9243,0.69603,-2.1747,2.2148,-6.81,-10.291,-7.9362,-1.1242,-10.9526,-3.3443,-4.9026,4.1509,-3.0332,-6.0207,
4.6289,3.908,-2.0442,2.0819,7.6986,4.4265,6.64,2.6794,3.8046,5.7742,9.4915,18.0018,-0.0794,5.789,
-2.744,1.5199,-6.1241,-8.9945,21.3367,18.2609,20.3416,-4.4562,17.6763,3.756,23.022,31.0217,-6.0852,4.2518,
4.9977,-4.8536,1.8203,-0.8778,5.9565,4.8727,6.5876,0.61613,4.3232,-10.5694,7.6612,16.8679,-1.397,-9.9983,
