"AF3","AF4","F3","F4","F7","F8","FC5","FC6","O1","O2","P7","P8","T7","T8",
-7.8824,-18.721,9.8526,0,0.98507,-12.8096,-29.5595,-7.8824,28.5735,-0.98601,11.8236,0,3.9412,0.98507,
7.1176,-33.721,-5.1474,-15,-6.8974,-27.8096,-44.5595,7.1176,13.5735,7.8824,6.8974,13.7947,7.8824,12.8096,
-7.8824,-30.5451,4.9267,0,1.9706,-15.7653,-29.5595,-7.8824,28.5735,-5.9118,21.8974,-1.2053,14.7793,5.9118,
7.1176,-28.0815,0.493,-15,7.3894,-30.7653,-29.0665,1.4781,13.5735,-1.4781,6.8974,8.3754,-0.2207,9.3605,
1.9706,-43.0815,-7.882,-30,2.9557,-45.7653,-25.6179,9.853,-1.4265,-1.9706,13.7942,15.7653,6.8978,9.853,
-13.0294,-28.0815,7.118,-15,0.49253,-30.7653,-10.6179,-5.147,13.5735,-16.9706,22.1687,0.76531,6.4039,-1.4785,
1.9706,-32.5152,-7.882,-30,3.9417,-45.7653,-25.6179,9.853,-1.4265,-1.9706,7.1687,15.7653,-1.9706,13.5215,
-3.9412,-22.6622,7.118,-16.7508,0,-54.1923,-15.7648,0,12.8087,2.9561,9.8526,9.8526,-2.9561,11.8236,
3.9412,-7.8824,7.8824,-1.7508,-3.9412,-39.1923,-0.98507,-6.8974,15.7648,-6.8974,3.9412,-5.1474,0.98507,9.8535,
8.3754,-22.8824,-7.1176,-16.7508,9.3605,-54.1923,-15.9851,1.4781,0.76484,-1.4781,5.4193,7.3904,8.3754,12.3166,
-6.6246,-13.7947,7.8824,-1.7508,24.3605,-45.3244,-0.98507,-13.5219,15.7648,-16.4781,20.4193,-7.6096,8.8675,-2.6834,
8.3754,-28.7947,-0.49253,-16.7508,32.0222,-60.3244,-15.9851,1.4781,0.76484,-4.4337,5.4193,5.4197,3.4487,11.3311,
4.4337,-40.8897,14.2872,-31.7508,42.8608,-75.3244,-0.98507,-13.3012,5.4197,-11.3311,0.49253,-8.375,10.346,-0.49253,
16.7504,-25.8897,23.6468,-16.7508,57.8608,-90.3244,14.0149,-16.7504,2.9557,-20.6916,2.9557,-16.7504,1.9706,-13.7942,
28.0815,-40.8897,8.6468,-31.7508,56.655,-105.3244,1.4781,-1.7504,-12.0443,-5.6916,-4.4342,-1.7504,-1.4781,1.2058,
23.1547,-38.9196,10.346,-30.0511,58.6265,-120.3244,8.3759,0.49253,-27.0443,-6.4039,-0.49253,1.4785,0.49253,-0.49253,
18.721,-35.4709,14.7798,-18.721,63.0593,-135.3244,16.7499,-3.9412,-20.6921,-8.8684,3.9412,0.98507,3.9412,-0.98507,
13.7942,-32.5152,18.7205,-7.8829,67.001,-139.9139,24.6328,-7.8829,-10.839,-10.839,8.868,0.98554,6.8969,-0.98554,
7.3894,-31.0376,21.1841,1.4781,69.4637,-131.5389,30.0516,-14.2868,-3.4491,-15.2728,11.3306,-1.4781,7.3894,-3.4491,
-1.4776,-33.0082,20.1986,6.4048,67.494,-126.6122,33.0082,-23.1547,1.4776,-22.1697,11.3311,-6.4048,5.4188,-9.36,
-7.3899,-30.0521,24.1398,16.2574,70.4492,-117.7447,40.8897,-28.081,9.36,-25.1258,14.2872,-7.3899,7.3899,-10.346,
7.6101,-42.3682,9.8535,1.2574,75.869,-132.7447,25.8897,-13.081,-5.64,-10.1258,1.9711,0.98507,0.98507,-0.98507,
13.3022,-57.3682,11.3311,-13.7426,60.869,-147.7447,28.081,-15.2723,-20.64,-5.4188,8.375,-0.49253,3.4487,0.49253,
2.9557,-42.3682,23.6477,1.2574,64.0449,-132.7447,43.081,-26.6029,-5.64,-20.4188,8.868,-15.4925,-2.9557,-5.9118,
17.9557,-57.3682,8.6477,-13.7426,55.6695,-147.7447,28.081,-11.6029,-20.64,-5.4188,-4.4337,-0.49253,4.4337,9.0882,
2.9557,-52.7138,4.4342,-1.4781,56.655,-132.7447,18.228,-25.1253,-5.64,-5.4193,10.5663,1.4781,19.4337,-3.4482,
17.7359,-61.0887,-10.5658,-16.4781,60.1041,-147.7447,3.228,-10.1253,-15.7648,2.9561,11.8236,16.4781,22.6622,7.8824,
2.7359,-71.4348,-18.228,-31.4781,63.5524,-162.7447,13.3017,-7.3894,-7.3894,-1.4781,15.2728,17.2429,12.3166,2.4631,
2.9561,-56.4348,-3.228,-25.6183,60.1041,-147.7447,28.3017,-22.3894,7.6106,-16.4781,17.7359,2.2429,7.8824,-2.9561,
17.9561,-71.4348,-18.228,-40.6183,45.1041,-162.7447,13.3017,-7.3894,-7.3894,-1.4781,5.9118,17.2429,12.8082,12.0439,
2.9561,-56.4348,-3.228,-25.6183,39.4126,-147.7447,25.6188,-22.3894,1.9706,-13.7942,9.854,2.2429,14.7802,-2.9561,
17.9561,-41.4348,3.9417,-13.7942,43.3538,-155.6787,10.6188,-7.3894,-13.0294,1.2058,-3.9417,11.8241,-0.21976,1.9706,
13.7947,-56.4348,3.9412,-28.7942,45.3244,-170.6787,-4.3812,-7.8824,-28.0294,0,5.9113,10.8386,0,3.9412,
-1.2053,-41.4348,18.9412,-13.7942,41.3827,-155.6787,10.6188,-22.8824,-13.0294,-15,8.868,-4.1614,5.9118,-11.0588,
13.7947,-52.7138,3.9412,-28.7942,33.9933,-170.6787,-4.3812,-7.8824,-28.0294,0,0.49253,10.8386,-0.49253,3.9412,
-1.2053,-52.2213,9.853,-13.7942,32.5152,-155.6787,10.6188,-19.7065,-13.0294,-2.9566,13.7942,1.9706,-15.4925,-5.9118,
13.7947,-45.8169,2.4627,1.2058,35.9634,-150.2599,7.3899,-18.2284,-11.3311,-15.2723,1.4776,-9.361,-0.49253,-0.49253,
20.6911,-60.8169,-12.5373,-13.7942,27.5885,-165.2599,-7.6101,-3.2284,-26.3311,-0.2723,-2.9561,5.639,14.5075,13.7947,
5.6911,-45.8169,0.98507,1.2058,30.5446,-150.2599,0,-18.2284,-11.3311,-5.9113,11.8236,0,5.9123,-1.2053,
20.6911,-60.1041,-14.0149,-13.7942,27.5889,-165.2599,-15,-3.2284,-26.3311,9.0887,0.98554,15,-0.98554,13.7947,
7.8824,-45.1041,-0.98507,-28.7942,30.5446,-150.2599,0,-17.7359,-11.3311,-3.9412,10.8386,4.9263,13.7938,-1.2053,
22.8824,-30.1041,-2.9561,-13.7942,42.3682,-135.2599,-4.9263,-13.7947,3.6689,-0.98507,3.9412,5.9123,13.7947,0.98507,
25.6179,-45.1041,-14.7798,-28.7942,41.3827,-150.2599,-19.9263,-2.9557,-11.3311,12.8092,2.9557,20.9123,13.7942,12.8092,
10.6179,-30.1041,0.22023,-13.7942,43.8463,-135.2599,-4.9263,-17.9557,3.6689,-2.1908,12.3166,5.9123,0.493,-2.1908,
25.6179,-45.1041,-14.7798,-28.7942,43.3538,-150.2599,-16.7494,-2.9557,-11.3311,4.9267,1.9706,12.8092,-1.9706,1.9706,
10.6179,-43.8463,0.22023,-43.7942,57.6401,-135.2599,-1.7494,-17.9557,3.6689,-0.493,16.9706,-0.493,13.0294,-4.4342,
5.9123,-28.8463,9.8535,-28.7942,53.2068,-120.2599,13.2506,-23.6473,13.7947,-15.493,7.8824,-15.493,-1.9706,-12.8087,
20.9123,-43.8463,-5.1465,-38.427,57.1475,-135.2599,-1.7494,-8.6473,-1.2053,-0.493,1.9706,-0.493,-1.9706,1.9706,
7.8824,-41.3832,4.9263,-23.427,58.1331,-134.0016,13.2506,-23.6473,13.7947,-7.8824,14.7798,-4.9263,10.8386,-13.0294,
22.8824,-56.3832,-10.0737,-38.427,43.3538,-149.0016,-1.7494,-8.6473,-1.2053,7.1176,-0.22023,10.0737,7.8829,1.9706,
7.8824,-69.4642,-4.4342,-53.427,46.8024,-164.0016,2.4631,-20.199,-0.493,0.493,14.7798,10.3456,4.4342,1.4781,
4.4342,-54.4642,3.4482,-38.427,52.7138,-149.0016,17.2429,-26.1104,14.507,-8.3754,19.214,-1.4781,-0.493,-10.3456,
19.4342,-69.4642,-11.5518,-41.8757,43.8458,-164.0016,2.2429,-11.1104,-0.493,6.6246,4.214,13.5219,14.507,1.4776,
4.4342,-54.4642,3.4482,-26.8757,58.6256,-149.0016,17.2429,-26.1104,14.507,-8.3754,9.361,-1.4781,21.1846,-9.36,
19.4342,-49.7576,-7.3894,-41.8757,64.5384,-139.4209,3.4491,-11.1104,-0.493,1.4781,15.2728,9.3605,6.1846,5.4193,
7.3899,-46.802,0.49253,-44.8318,56.6545,-124.4209,18.4491,-15.2723,14.507,-0.49253,30.2728,-0.49253,2.4627,-5.4197,
9.853,-32.5152,-4.9267,-29.8318,41.6545,-114.296,13.7942,-27.5889,17.7354,-11.8241,15.2728,-15.4925,4.9267,-16.7504,
24.853,-47.5152,-19.9267,-44.8318,35.4709,-129.296,-1.2058,-12.5889,2.7354,3.1759,0.27277,-0.49253,13.7947,-1.7504,
9.853,-40.3972,-4.9267,-29.8318,49.2656,-114.296,5.9123,-27.5889,17.7354,-11.8241,14.7798,-3.9412,11.8246,-16.7504,
24.853,-44.8314,-11.3306,-44.8318,45.8174,-118.7297,-9.0877,-12.5889,2.7354,-0.493,25.1253,11.0588,23.1552,-1.7504,
9.853,-59.8314,-26.3306,-59.8318,31.5297,-133.7297,-24.0877,-11.8236,0.98507,5.9113,19.706,17.7359,17.7359,10.8386,
-5.147,-44.8314,-11.3306,-44.8318,46.5297,-118.7297,-9.0877,-26.8236,15.9851,-9.0887,19.2135,2.7359,11.3311,-4.1614,
9.853,-56.6555,-11.3316,-59.8318,49.7576,-132.524,-20.1991,-11.8236,0.98507,1.4781,4.2135,12.3157,13.3017,10.3456,
-5.147,-44.8318,0.49253,-44.8318,49.7581,-117.524,-5.1991,-19.2135,14.2863,-13.5219,9.36,-2.6843,10.3451,-0.49253,
9.853,-42.3687,-10.839,-29.8318,52.2213,-102.524,-9.853,-4.2135,-0.7137,1.4781,13.7942,4.9267,10.8381,4.9267,
1.4776,-54.6849,-12.3162,-43.8463,37.2213,-106.9061,-16.2574,-6.4048,2.4636,-0.49253,15.2723,5.4188,20.1986,0.49253,
-9.3605,-39.6849,2.6838,-28.8463,36.949,-91.9061,-1.2574,-21.4048,17.4636,-15.4925,9.3605,-9.5812,5.4193,-5.4193,
5.6395,-49.7581,-12.3162,-43.8463,39.9046,-106.9061,-16.2574,-6.4048,2.4636,-0.49253,1.4776,5.4188,0.49253,9.5807,
-9.3605,-34.9788,2.4631,-28.8463,43.8463,-91.9061,-1.2574,-21.4048,17.4636,-10.3456,16.4776,-6.4043,15.4925,-2.4631,
5.6395,-30.5441,-12.5369,-13.8463,38.4275,-76.9061,-16.2574,-6.8969,2.4636,1.9706,9.853,2.9566,27.5889,6.8978,
10.8376,-45.5441,-27.5369,-28.8463,38.427,-91.9061,-31.2574,-3.9412,-12.5364,3.9412,3.9412,6.8964,14.7798,6.8964,
-4.1624,-30.5441,-12.5369,-13.8463,47.787,-76.9061,-16.2574,-18.9412,2.4636,-11.0588,4.4337,-8.1036,10.346,-8.1036,
10.8376,-21.1836,-19.2135,-28.8463,41.8757,-91.9061,-30.0521,-3.9412,-12.5364,3.9412,-4.4337,6.8964,13.3022,5.4188,
6.4048,-18.2284,-4.2135,-13.8463,40.8906,-76.9061,-15.0521,-9.36,2.4636,-3.4487,10.5663,-1.4776,13.3012,-1.4776,
17.2429,-10.3456,-2.4631,1.1537,37.934,-61.9061,-0.052073,-5.4193,4.4333,-15.2728,8.3745,-13.3017,-1.6988,2.4631,
16.2574,-25.3456,-14.2872,-13.8463,33.9933,-76.9061,-15.0521,2.4636,-10.5667,-0.27277,4.4337,1.6983,-1.4776,13.3022,
1.2574,-20.6916,0.71277,1.1537,27.588,-61.9061,-0.052073,-12.5364,4.4333,-12.8092,19.4337,-13.3017,13.5224,-1.6978,
9.8535,-35.6916,-14.2872,-13.8463,12.8096,-76.9061,-15.0521,-0.98507,-9.8526,2.1908,10.8386,0.98507,17.7359,2.9561,
-5.1465,-21.6767,0.71277,-28.8463,27.8096,-61.9061,-0.052073,-10.8381,5.1474,0.98554,24.6328,-0.98554,14.7793,-2.9557,
9.8535,-20.6916,-0.98554,-13.8463,25.6179,-65.0304,-15.0521,-11.8241,7.882,-1.9706,15.7644,0.98554,4.9267,-2.9557,
12.8092,-35.6916,-15.9855,-28.8463,11.8241,-80.0304,-30.0521,-2.9557,-7.118,4.9267,2.9557,15.9855,3.9417,5.9118,
-2.1908,-20.6916,-0.98554,-13.8463,23.6473,-65.0304,-15.0521,-17.9557,7.882,-10.0733,15.7648,0.98554,2.9561,-9.0882,
12.8092,-20.1986,-11.3311,-28.8463,19.2135,-80.0304,-30.0521,-2.9557,-7.118,2.4627,2.4627,1.4776,0.49253,3.4487,
10.8386,-15.7648,3.6689,-43.8463,29.5586,-79.8102,-15.0521,-7.8824,7.882,-0.98507,12.8087,0.98507,10.8386,-1.9711,
6.8969,-0.76484,18.6689,-28.8463,26.6029,-64.8102,-0.052073,-22.8824,16.7504,-15.9851,-2.1913,-14.0149,-4.1614,-16.7504,
21.8969,-15.7648,3.6689,-13.8463,24.1407,-79.8102,-15.0521,-7.8824,1.7504,-0.98507,-1.4776,0.98507,-2.4627,-1.7504,
6.8969,-0.76484,18.6689,1.1537,22.6617,-64.8102,-2.9557,-22.8824,16.7504,-15.9851,10.8381,-14.0149,2.9557,-16.7504,
21.8969,2.4636,13.3012,-13.8463,37.6617,-63.5523,-17.9557,-7.8824,1.7504,-5.4188,4.4337,-1.4776,17.9557,-4.4337,
16.7504,-12.5364,15.7644,-28.8463,31.5301,-72.9128,-12.8092,-10.839,-0.98554,-3.9417,8.868,3.9407,13.7942,0.98554,
6.8974,-3.9412,27.5885,-13.8463,19.706,-57.9128,2.1908,-25.839,14.0145,-18.9417,9.8526,-11.0593,-1.2058,-14.0145,
21.8974,-18.9412,12.5885,-28.8463,15.7653,-72.9128,-12.8092,-10.839,-0.98554,-3.9417,7.882,3.9407,-1.9706,0.98554,
6.8974,-26.1104,25.1253,-13.8463,26.1104,-57.9128,1.4781,-25.839,14.0145,-16.2578,21.1841,-11.0593,13.0294,-9.3605,
21.8974,-11.1104,17.2434,-19.2135,25.1258,-59.6111,-11.3311,-10.839,-0.98554,-1.2578,6.4048,3.9407,4.4337,-0.49253,
8.3754,-4.4342,22.1692,-5.4193,15.2718,-44.6111,-0.493,-16.2578,14.0145,-9.3605,11.3306,3.4482,0.493,-12.3166,
-2.4627,10.5658,19.2135,9.5807,16.2574,-29.6111,0.49253,-30.0521,29.0145,-24.3605,3.4487,-11.5518,-0.49253,-19.2135,
12.5373,-4.4342,4.2135,-5.4193,30.5446,-44.6111,-14.5075,-15.0521,14.0145,-9.3605,-2.9561,3.4482,2.9561,-4.2135,
-2.4627,0.98507,19.2135,9.5807,15.5446,-29.6111,0.49253,-30.0521,29.0145,-24.3605,-0.98507,-11.5518,-12.0439,-19.2135,
12.5373,15.9851,25.6174,24.5807,14.7798,-14.6111,-5.9123,-15.0521,14.0145,-16.7508,-2.9561,-16.7508,-7.8824,-4.2135,
19.7065,0.98507,14.7793,9.5807,23.6477,-29.6111,-12.8092,-0.052072,-0.98554,-8.868,3.9417,-1.7508,-1.9706,7.8829,
4.7065,-3.4482,13.3017,22.1692,16.2578,-14.6111,2.1908,-15.0521,14.0145,-23.868,3.4482,-16.7508,-16.9706,-7.1171,
19.7065,-15.7648,0.98507,7.1692,25.6174,-29.6111,-11.8236,-0.052072,-0.98554,-12.8096,11.8236,-1.7508,-1.9706,0,
4.7065,-11.3311,15.2723,17.2424,21.1836,-14.6111,3.1764,-15.0521,14.0145,-27.8096,4.4337,-16.7508,10.3451,-15,
18.721,-2.9561,11.8236,22.6622,24.6323,-20.6911,0.98507,-8.8675,-0.98507,-17.7359,1.9701,-7.8824,1.9701,-1.9711,
6.8969,-17.9561,3.9417,7.6622,9.6323,-35.6911,-14.0149,-0.98554,-1.9706,-5.9118,11.8241,4.9267,0.98554,2.9557,
-8.1031,-2.9561,18.9417,14.2868,4.4342,-20.6911,-2.4631,-15.9855,13.0294,-20.9118,5.4193,-10.0733,-7.3894,-12.0443,
6.8969,-17.9561,3.9417,-0.71323,19.4342,-35.6911,-17.4631,-0.98554,-1.9706,-5.9118,6.4048,4.9267,-6.4048,2.9557,
-8.1031,-12.3162,15.2723,14.2868,20.1986,-20.6911,-2.4631,-15.9855,13.0294,-17.2434,21.4048,-8.375,-8.375,-3.4487,
6.8969,2.6838,11.8236,29.2868,10.8386,-5.6911,-5.9123,-17.7359,0.98507,-14.7798,6.4048,-8.8675,-12.8087,6.8974,
21.8969,-12.3162,3.9412,14.2868,12.8087,-20.6911,-20.9123,-2.7359,-14.0149,0.22023,-0.98507,6.1325,-4.9263,12.8087,
6.8969,-5.4193,18.9412,29.2868,5.4193,-5.6911,-5.9123,-17.7359,0.98507,-14.7798,11.3306,-8.8675,-19.9263,-2.1913,
21.8969,-9.3605,5.4193,14.2868,14.2868,-20.6911,-15.2728,-2.7359,-13.3017,-3.4482,9.3605,6.1325,-11.3316,12.3166,
6.8969,-4.9263,12.8087,-0.71323,16.7499,-5.6911,-1.9711,-9.8535,1.6983,-10.8386,8.8675,-1.9711,0,10.8386,
3.4487,6.4048,8.375,14.2868,12.3162,9.3089,-12.3162,-20.1986,16.6983,-24.1398,-3.4487,-16.9711,-15,-4.1614,
18.4487,-8.5952,0.49253,4.4337,9.36,-5.6911,-27.3162,-5.1986,1.6983,-9.1398,-0.49253,-1.9711,-12.3171,-1.4785,
3.4487,0.49253,14.2872,19.4337,7.3899,9.3089,-12.3162,-20.1986,16.6983,-24.1398,-0.49253,-16.9711,-24.1398,-16.4785,
18.4487,0.49253,-0.71277,4.4337,22.3899,-5.6911,-25.1249,-5.1986,1.6983,-9.1398,5.4197,-1.9711,-14.2863,-1.4785,
3.4487,9.853,10.8381,-10.5663,21.6767,9.3089,-10.1249,-12.8092,16.6983,-7.8829,19.7056,-6.8978,-2.9566,-1.9706,
-11.5513,24.853,12.8096,4.4337,6.6767,24.3089,2.9561,-27.8092,31.6983,-22.8829,4.7056,-21.8978,-16.7499,-14.7798,
3.4487,11.8236,-2.1904,19.4337,15.7648,9.3089,-12.0439,-12.8092,16.6983,-12.8087,2.9561,-6.8978,-12.8087,0.22023,
-11.5513,17.7354,-1.9706,34.4337,1.9706,24.3089,2.9561,-27.8092,28.574,-27.8087,1.9706,-21.8978,-27.8087,-14.7798,
3.4487,13.3012,-7.3899,19.4337,16.9706,9.3089,-12.0439,-12.8092,13.574,-12.8087,1.4776,-6.8978,-12.8087,0.22023,
13.7938,-1.6988,0.98507,4.4337,25.6183,-3.9412,-0.98507,-2.9561,23.6473,-6.8974,9.8526,-1.9711,2.1913,1.9701,
-1.2062,0.49253,-0.49253,19.4337,19.2135,11.0588,9.36,-17.9561,30.0521,-21.8974,13.3012,-16.9711,-7.3899,-13.0299,
13.7938,-14.5075,-8.868,4.4337,23.6477,-3.9412,-5.64,-2.9561,15.0521,-6.8974,22.6617,-1.9711,-5.9118,1.9701,
-1.2062,-1.4776,6.132,19.4337,8.6477,11.0588,9.36,-17.9561,30.0521,-21.8974,7.6617,-16.9711,-20.9118,-13.0299,
13.7938,1.9711,-6.8974,6.8974,19.706,-3.9412,4.9263,-9.8526,15.0521,-7.8824,0.98507,-1.9711,-5.9118,-4.9263,
11.3316,-13.0289,-21.8974,-8.1026,8.3754,-18.9412,-10.0737,-2.4631,0.052072,2.4631,12.3166,13.0289,9.0882,10.0737,
-3.6684,-3.4482,-6.8974,6.8974,7.3894,-3.9412,4.9263,-17.4631,15.0521,-12.5369,11.3306,-1.9711,-5.9118,-4.9263,
11.3316,-4.4337,-3.4487,-6.4039,19.2135,-15.2723,-10.0737,-2.4631,0.052072,2.4631,10.346,7.3899,-8.375,3.4487,
-3.6684,3.4487,-0.49253,8.5961,4.2135,-0.2723,4.9263,-17.4631,15.0521,-12.5369,0.49253,-7.6101,-21.1846,-11.5513,
11.3316,-0.98507,-4.9263,-4.9263,10.8386,10.8386,-9.8526,-2.4631,0.98507,-7.8824,-8.8675,1.9711,-6.8974,3.4487,
10.3456,-15.9851,-1.4781,-19.9263,18.228,6.4043,-8.3745,-2.4631,15.9851,-2.4631,1.4781,1.4781,-2.4631,7.3904,
0,-0.98507,3.9412,-4.9263,3.228,21.4043,0,-17.4631,29.5595,-17.4631,2.9561,-13.5219,-17.4631,-7.6096,
15,-8.375,-8.375,-19.9263,6.4043,6.4043,-15,-2.4631,14.5595,-2.4631,16.2578,1.4781,-6.4043,7.3904,
0,-2.9557,6.625,-4.9263,8.868,21.4043,0,-17.4631,29.5595,-17.4631,16.7504,-6.8969,-9.853,-0.98554,
5.9118,-0.98554,1.9706,10.0737,5.9118,17.7354,-15,-22.6617,16.7504,-26.6029,1.7504,-16.7504,-19.7065,-3.9407,
18.7205,-15.9855,-2.9557,-4.9263,0.98554,2.7354,-30,-7.6617,1.7504,-11.6029,12.8092,-1.7504,-4.7065,11.0593,
3.7205,-0.98554,12.0443,10.0737,1.4781,17.7354,-15,-22.6617,16.7504,-26.6029,13.3017,-16.7504,-5.4193,-3.9407,
18.7205,-4.4337,0.49253,-4.9263,7.3899,2.7354,-30,-7.6617,1.7504,-11.6029,-0.49253,-1.7504,-9.361,11.0593,
5.9118,-2.9557,15.4925,5.9118,0.98554,-1.9706,-15,-18.7205,16.7504,-15.7644,6.8978,-5.9118,-10.8381,-0.98554,
14.7802,-1.9706,14.7802,20.9118,1.9706,-5.9118,-6.8969,-8.867,23.6477,-10.8381,4.9267,-9.853,-15.7644,1.9706,
3.4487,-16.2574,0.49253,8.375,2.4636,-20.9118,-21.8969,-1.4776,8.6477,-5.4188,3.4487,-0.49253,-12.3162,4.4337,
-10.3456,-1.2574,15.4925,23.375,-2.4631,-5.9118,-6.8969,-16.4776,23.6477,-20.4188,2.4631,-15.4925,-12.3166,-10.5663,
4.6544,-7.8829,0.98554,8.375,0.98554,-20.9118,-21.8969,-1.4776,8.6477,-5.4188,-0.98554,-0.49253,-8.868,4.4337,
-4.9263,-7.8824,15.7648,-6.625,11.8236,-5.9118,-6.8969,-15.7648,23.6477,0,14.0145,0,-0.98507,3.9412,
10.0737,-3.4482,0.76484,8.375,2.4631,-20.9118,-11.3306,-12.3166,12.3166,-11.3306,12.3166,1.4781,1.4781,-1.4781,
25.0737,-18.4482,-14.2352,-6.625,-5.9118,-35.9118,-26.3306,2.6834,-2.6834,3.6694,11.8232,16.4781,5.9118,11.8232,
10.0737,-6.8969,0.76484,8.375,6.8969,-20.9118,-11.3306,-12.3166,12.3166,-11.3306,18.7205,1.4781,-0.98554,0.98554,
25.0737,-19.2135,-14.2352,-6.625,4.4337,-35.9118,-26.3306,2.6834,-1.4785,3.6694,3.7205,16.4781,0.49253,15.9855,
10.0737,-15.7648,-4.9263,-21.625,3.9412,-20.9118,-11.3306,-7.8824,13.5215,0,18.7205,8.8675,9.8526,0.98554,
0,-0.76484,0.98507,-6.625,-2.9561,-5.9118,0,-18.721,28.5215,-15,6.8973,-6.1325,-5.1474,-8.8675,
15,-15.7648,-14.0149,0.49253,-0.49253,-20.9118,-15,-3.721,13.5215,0,6.4039,8.8675,-2.4636,6.1325,
0,-0.76484,0.98507,15.4925,0.98507,-5.9118,-0.98507,-18.721,28.5215,-15,13.7938,-6.1325,-8.8675,-8.8675,
15,7.3904,-11.3306,0.49253,-1.4781,-14.2868,-15.9851,-3.721,13.5215,0,1.4781,7.3904,-11.3306,6.1325,
11.3306,-7.6096,-12.3166,-14.5075,-9.3605,-29.2868,-30.9851,6.4043,16.2578,6.4043,9.3605,17.2429,-6.4043,15.2718,
-1.4785,5.4188,2.6834,0.49253,-0.49253,-14.2868,-15.9851,-8.5957,26.1109,-8.5957,12.3162,2.2429,-10.346,0.49253,
7.8829,-9.5812,-12.3166,15.4925,-3.9417,0.71323,-30.9851,6.4043,11.1109,2.9557,-1.9706,11.8241,-10.8381,8.868,
-7.1171,5.4188,2.6834,30.4925,-0.493,15.7132,-15.9851,-8.5957,26.1109,-12.0443,13.0294,-3.1759,-5.4193,-3.4482,
7.8829,1.9706,-12.3166,15.4925,-1.9706,0.71323,-30.9851,6.4043,11.1109,2.9557,7.8829,11.8241,-8.867,11.5518,
-7.1171,0,-6.8964,3.9412,-0.98507,6.8973,-38.427,0,12.8096,-6.8964,14.7798,0.986,-10.8376,5.9123,
-5.9123,15,8.1036,18.9412,0,21.8973,-23.427,-10.8386,27.8096,-20.6921,12.8087,-14.014,-14.7798,-1.9711,
9.0877,0,-6.8964,3.9412,1.9708,6.8973,-38.427,4.1614,12.8096,-5.6921,13.7945,0.986,-1.9708,13.0289,
-5.9123,6.8974,-6.8974,18.9412,5.9113,21.8973,-23.427,-10.8386,27.8096,-19.706,24.6323,-12.8096,-4.9263,-1.9711,
0,13.7938,-13.7947,29.5586,0.98507,18.721,-19.706,-6.8974,12.8096,-18.721,9.6323,-11.8236,-13.7947,0,
14.7793,-1.2062,-13.7942,14.5586,0.98554,3.721,-34.706,8.1026,-2.1904,-3.721,6.8969,3.1764,-0.98554,15,
-0.2207,7.882,-1.9706,29.5586,1.9706,18.721,-19.706,-6.8974,12.8096,-17.7354,7.882,-7.8829,-9.853,13.7942,
14.7793,-7.118,-16.9706,14.5586,8.868,3.721,-33.5003,8.1026,0.98554,-2.7354,12.8092,7.1171,-3.9407,22.6627,
-0.2207,0.98507,-1.9706,29.5586,1.9711,18.721,-18.5003,-6.8974,15.9855,-17.7354,17.7359,-7.8829,-3.9412,7.6627,
14.7793,-2.4636,-9.361,14.5586,15.2723,9.36,-30.0521,-0.49253,0.98554,-2.7354,8.375,-5.4197,-0.49253,6.4039,
-0.2207,-17.4636,-15.7653,-0.4414,19.7056,-1.9706,-26.6039,1.9706,11.8232,1.9706,16.7504,9.5803,-4.9267,19.7056,
-15.2207,-3.4487,-0.76531,14.5586,4.7056,13.0294,-11.6039,-13.0294,26.8232,-13.0294,9.361,-5.4197,-19.9267,4.7056,
-0.2207,-18.4487,-15.7653,-0.4414,9.3605,-1.9706,-26.6039,1.9706,11.8232,1.9706,6.4043,9.5803,-6.4043,11.3316,
-15.2207,-3.4487,-0.98507,14.5586,13.7947,13.0294,-11.6039,-4.9263,26.8232,-9.8535,21.4043,-3.9412,8.5957,0.98507,
-11.3306,11.5513,-12.3166,29.5586,4.4342,28.0294,-15.2718,-8.3754,17.2429,-15.2718,6.4043,-17.2429,-2.4631,3.4491,
2.4636,-3.4487,-23.1547,14.5586,13.3012,13.0294,-30.2718,6.6246,2.2429,-0.27183,14.2872,-2.2429,-2.4636,18.4491,
-12.5364,11.5513,-8.1547,16.7504,17.7354,28.0294,-15.2718,-8.3754,17.2429,-15.2718,29.2872,-9.853,-3.9407,3.4491,
2.4636,-3.4487,-18.228,1.7504,11.3316,13.0294,-30.2718,6.6246,2.2429,-0.27183,14.2872,5.147,-8.3745,18.4491,
-12.5364,7.8834,-3.228,0,10.8386,28.0294,-15.2718,-1.9701,17.2429,-15.2718,20.6921,-9.853,-10.8376,3.4491,
1.9711,18.721,-6.8973,15,6.8974,34.4858,-24.6323,-2.9561,13.7947,-24.6323,21.6771,-16.7499,-14.7798,-1.9711,
7.8829,3.721,-16.7504,0,1.9706,19.4858,-39.6323,7.8829,-1.2053,-9.6323,16.7504,-1.7499,-14.7793,13.0289,
-7.1171,18.721,-1.7504,15,4.9267,34.4858,-24.6323,-7.1171,13.7947,-24.6323,12.8092,-16.7499,-29.7793,-1.9711,
-1.4776,8.375,-2.4636,0,3.4487,19.4858,-37.9345,2.4636,4.4337,-15.2723,5.4188,-3.4487,-27.0959,1.4776,
-10.3456,2.4631,11.3316,-15,15.2728,20.199,-22.9345,-10.3456,19.4337,-16.2569,20.4188,-6.4043,-12.0959,2.4631,
4.6544,6.4043,1.4781,0,7.3894,5.199,-31.0376,-11.3306,12.3166,-20.199,14.2868,-13.3017,-10.3456,-1.4781,
19.6544,-8.5957,-13.5219,-15,0.98507,-9.801,-46.0376,3.6694,-2.6834,-5.199,20.6921,1.6983,-0.98507,13.5219,
4.6544,6.4043,1.4781,0,1.9706,5.199,-31.0376,-11.3306,12.3166,-20.199,23.6477,-13.3017,-2.9557,-1.4781,
17.2429,-4.4342,-13.5219,-15,4.4342,-9.801,-46.0376,3.6694,-2.6834,-5.199,8.6477,1.6983,-9.3605,13.5219,
2.2429,-10.346,-5.4197,-30,4.4337,0.49253,-51.7292,2.4627,11.3311,-0.49253,23.6477,3.4487,-13.3022,17.2424,
-12.7571,4.654,8.3745,-15,-1.4781,15.4925,-36.7292,-12.5373,25.1253,-15.4925,15.2718,-11.5513,-28.3022,2.2424,
2.2429,-10.346,-6.6255,-3.4487,4.4337,0.49253,-51.7292,2.4627,10.1253,-0.49253,3.4487,3.4487,-13.3022,17.2424,
10.3456,-17.2429,-18.2289,1.4781,-1.4781,-14.5075,-55.6704,5.4193,-4.8747,1.4781,1.4781,11.3306,-15.2728,14.2868,
2.9561,-10.8386,-12.8096,16.4781,3.9412,-0.98507,-41.3832,0.98507,-1.9711,-2.9561,8.8675,4.9263,-14.7798,12.8087,
-2.4636,-2.4636,-5.4188,31.4781,10.346,14.0149,-26.3832,-1.4776,13.0289,-5.4188,19.2135,1.4776,-12.3162,12.3162,
-11.3311,1.4776,-1.4776,46.4781,14.2872,29.0149,-13.3012,-7.3899,28.0289,-11.3311,26.1109,-6.4048,-13.3012,8.375,
-24.1398,2.4636,-0.49253,57.6405,13.3022,44.0149,-4.4337,-17.2424,40.8906,-21.1836,29.067,-17.2424,-18.2284,0.49253,
-37.934,1.4781,-1.4781,66.5085,11.3316,59.0149,3.4491,-28.0815,49.7586,-33.0077,30.0525,-30.0516,-25.1253,-8.3745,
-22.934,0.49253,-16.4781,51.5085,10.346,44.0149,-11.5509,-13.0815,34.7586,-18.0077,15.0525,-15.0516,-23.1547,6.6255,
-7.934,-14.5075,-31.4781,36.5085,0,29.0149,-26.5509,1.9185,19.7586,-3.0077,1.9711,-0.051603,-8.1547,20.6921,
-22.934,-1.9706,-17.7354,21.5085,7.8819,39.4126,-27.5889,-13.0815,34.7586,-18.0077,10.8381,-15.0516,1.9706,5.6921,
-7.934,-9.8535,-22.6622,6.5085,14.7798,24.4126,-42.3682,1.9185,19.7586,-6.8973,21.6771,-0.051603,-6.8973,20.6921,
-22.934,2.9557,-7.6622,21.5085,7.8829,39.4126,-27.3682,-13.0815,34.7586,-21.8973,30.5451,-15.0516,-12.8092,5.6921,
-7.934,5.9123,-8.8675,11.8236,10.8386,34.4858,-20.6911,-8.8675,19.7586,-22.6622,18.721,-9.8535,-0.98507,6.8974,
0,-9.0877,-8.8675,-3.1764,21.6762,24.6323,-14.7798,1.9701,4.7586,-7.6622,17.735,0,11.8236,13.7938,
-15,-0.98554,0.98554,11.8236,17.7354,39.6323,0.22023,-13.0299,19.7586,-22.6622,11.8241,-15,-3.1764,-1.2062,
0,-15.9855,-14.0145,-3.1764,20.6911,24.6323,-14.7798,1.9701,4.7586,-7.6622,21.6762,0,-7.8824,13.7938,
-15,-11.8232,0.98554,11.8236,20.6916,35.4714,-7.882,-12.8092,19.7586,-9.853,25.6179,-1.9706,-5.9118,5.9118,
-2.4627,2.4636,-4.4337,26.8236,15.2723,24.1407,0.49253,-0.49253,13.3022,-12.3162,10.6179,-8.375,-9.36,5.4197,
0.98507,-12.5364,-19.4337,11.8236,8.8684,9.1407,-14.5075,11.8236,0,2.6838,-4.3821,6.625,0,18.721,
-11.3306,2.4636,-4.4337,26.8236,16.2578,24.1407,-10.3456,-3.1764,15,-12.3162,1.4781,-8.375,-4.4333,3.721,
3.6694,-0.49253,0.49253,11.8236,21.1846,9.1407,-25.3456,11.8236,0,2.6838,-3.4487,6.625,-8.375,15.2723,
-6.8974,2.9561,7.8824,7.8824,14.7798,17.7359,-10.3456,-3.1764,15,-12.3162,2.9561,-8.375,-17.735,0.2723,
8.1026,4.4342,-2.4631,22.8824,4.4342,24.1403,-20.199,-12.3166,9.3605,-27.3162,-11.3316,-10.3456,-27.0964,2.4631,
17.2434,-10.5658,-14.2872,7.8824,5.4188,9.1403,-35.199,2.6834,-5.6395,-12.3162,-3.4487,4.6544,-12.0964,17.4631,
2.2434,-1.4776,0.71277,22.8824,1.4776,24.1403,-20.199,-12.3166,9.3605,-27.3162,2.4636,-10.3456,-6.4048,2.4631,
17.2434,-9.3605,-14.2872,7.8824,16.4776,9.1403,-35.199,2.6834,-2.4631,-12.3162,-1.4781,4.6544,1.4781,17.4631,
2.2434,-14.7798,-7.8824,-7.1176,11.8236,0,-33.4998,0.98601,12.5369,-6.8964,0,1.9711,-4.9263,2.4631,
2.9561,0.22023,2.9561,7.8824,10.8386,15,-18.4998,-9.8535,27.5369,-16.7499,-2.9561,-13.0289,-13.7947,-3.9412,
17.9561,-14.7798,-9.8535,3.9412,13.7947,0,-32.5152,5.1465,12.5369,-1.7499,-3.9412,1.9711,-5.9123,11.0588,
2.9561,-0.49253,5.1465,18.9412,18.2284,15,-17.5152,-9.8535,27.5369,-15.2723,0.49253,-9.36,-9.36,-3.9412,
17.9561,0,15.7648,3.9412,16.7499,0,-2.5152,3.9412,12.5369,-0.2723,-14.5075,5.64,-17.7359,5.9113,
2.9561,8.3754,22.1692,18.9412,11.3306,15,-4.4342,-8.3754,27.5369,-11.3316,-13.3017,-9.36,-8.3754,2.4631,
-1.9706,23.3754,15.7644,33.9412,0.98554,30,-10.839,-0.98554,41.3827,-15.7653,-11.8241,-11.8241,-7.8829,1.9706,
12.3166,8.3754,0.76437,37.934,-8.3754,45,-25.839,14.0145,26.3827,-0.7653,-13.3017,3.1759,-11.3316,14.2868,
-2.6834,23.3754,15.7644,52.934,-11.3311,60,-10.839,-0.98554,41.3827,-15.7653,1.6983,-11.8241,-14.2872,-0.71323,
11.3306,29.0665,0.76437,37.934,-26.3311,75,-25.839,14.0145,26.3827,-1.4781,-13.3017,1.4781,-19.214,14.2868,
-3.6694,14.0665,-14.2356,22.934,-28.574,90,-40.839,22.6627,11.3827,1.9706,-1.9706,13.7942,-22.6617,17.7354,
-18.6694,29.0665,0.76437,37.934,-14.2872,105,-25.839,7.6627,26.3827,-13.0294,-1.4776,-1.2058,-37.6617,2.7354,
-3.6694,14.0665,-14.2356,22.934,-29.2872,90,-40.839,22.6627,11.3827,-3.4487,-16.4776,11.3311,-33.0073,17.7354,
-10.8386,18.721,0,37.934,-22.6622,105,-25.839,7.8824,19.706,-12.8087,-2.9561,0,-18.0073,12.8087,
4.1614,24.1403,-7.3904,40.8902,-23.1552,120,-40.839,22.1692,4.706,-7.3904,-16.2578,6.4043,-6.4043,20.1981,
-7.8829,19.7056,-1.9706,55.8902,-29.56,131.0454,-35.4714,14.7793,13.7942,-8.868,-13.7942,1.9706,-10.839,15.7644,
0,26.6025,1.9701,70.8902,-27.5894,129.0748,-20.4714,0,28.7942,-15.7658,0,-13.0294,-8.8684,3.9412,
15,11.6025,-13.0299,55.8902,-23.6473,114.0748,-35.4714,15,13.7942,-0.76577,5.9118,1.9706,-5.9118,18.9412,
0,13.7938,1.9701,70.8902,-26.6034,127.1047,-20.6921,0,28.7942,-14.7798,9.8526,-6.8974,-15.7648,3.9412,
15,15.7653,0.98554,57.1475,-41.6034,112.1047,-35.6921,10.8381,13.7942,-1.9706,-5.1474,-9.853,-29.5591,-0.98554,
11.3311,0.76531,-14.0145,42.1475,-43.8458,97.1047,-50.6921,25.8381,-1.2058,13.0294,3.4487,5.147,-14.5591,14.0145,
-3.6689,15.7653,0.98554,57.1475,-39.413,112.1047,-35.6921,10.8381,13.7942,-1.9706,8.8675,-6.8974,-10.8386,3.9412,
10.8386,0.76531,-14.0145,42.1475,-47.295,97.1047,-50.6921,24.6323,-1.2058,0,-6.1325,8.1026,-25.8386,6.8974,
-4.1614,-0.98507,0.98507,57.1475,-32.295,90.6488,-35.6921,9.8535,13.7942,-2.9561,0.98507,-2.9561,-29.5595,1.9711,
0,0.98507,-13.7947,49.2646,-22.6622,89.6627,-49.2656,21.6762,0,0,-7.8824,4.9263,-22.6622,16.9711,
3.9412,-14.0149,-17.7359,34.2646,-31.5301,74.6627,-62.0747,36.6762,-8.8675,15,0.98507,19.9263,-7.6622,31.9711,
-11.0588,0.98507,-2.7359,35.9629,-23.1552,89.6627,-47.0747,21.6762,6.1325,0,6.4043,4.9263,-5.4193,16.9711,
3.9412,-9.8535,-17.7359,20.9629,-8.1552,74.6627,-60.1041,36.6762,-8.8675,15,-1.9706,19.9263,1.9706,31.9711,
-11.0588,-3.9412,-12.8087,5.9629,-19.706,89.6627,-45.1041,21.6762,6.1325,0.98507,2.9561,9.8535,-1.9701,18.721,
-18.2284,11.0588,-10.346,20.9629,-33.0082,104.6627,-30.1041,8.375,21.1325,-5.4197,4.4337,-4.4337,-11.3311,15.2723,
-4.9267,-3.9412,-20.6916,16.7504,-29.5591,89.6627,-45.1041,23.375,6.1325,9.5803,1.9706,10.5663,-6.8969,21.6767,
-19.9267,11.0588,-5.6916,31.7504,-20.6911,104.6627,-30.1041,8.375,21.1325,-5.4197,4.9263,-4.4337,-2.9561,6.6767,
-4.9267,-3.9412,-20.6916,16.7504,-25.6183,89.6627,-45.1041,23.375,6.1325,9.5803,5.9118,10.5663,-6.8969,21.6767,
-14.2872,-10.346,-7.3899,1.7504,-32.0222,74.6627,-47.787,13.3012,21.1325,7.3899,9.36,12.3162,-21.8969,21.1836,
-6.8973,4.654,0,16.7504,-25.6183,89.6627,-32.787,5.9123,30.5446,-7.6101,0,-2.6838,-19.706,10.8386,
-4.9263,-10.346,-15,7.8824,-36.4564,74.6627,-47.787,20.9123,15.5446,7.3899,4.9263,12.3162,-10.8386,21.6771,
-19.9263,4.654,0,22.8824,-34.4858,89.6627,-32.787,5.9123,30.5446,-6.8974,19.706,-2.6838,-14.7798,6.6771,
-4.9263,6.8974,-14.7798,7.8824,-30.5446,74.6627,-47.787,20.9123,15.5446,8.1026,4.706,12.3162,-13.7938,21.6771,
-10.8381,9.853,-5.9118,-2.9557,-24.6328,89.6627,-37.4415,6.8969,30.5446,-2.9557,7.8819,2.9557,-2.9557,14.7793,
-12.8082,24.853,1.9706,12.0443,-23.6468,104.6627,-22.6617,-1.9706,45.5446,-13.7942,20.6916,-6.8969,-16.7504,6.8978,
1.9711,9.853,-13.0294,27.0443,-35.4709,89.6627,-37.6617,13.0294,30.5446,1.2058,5.6916,8.1031,-28.5735,17.7359,
-13.0289,10.8386,0.98507,42.0443,-22.6622,104.6627,-22.6617,-0.98507,45.5446,-7.8824,15.7648,-6.8969,-13.5735,10.8386,
1.9711,-0.98507,-12.8087,27.0443,-18.721,89.6627,-37.6617,14.0149,30.5446,0.98507,4.9263,2.9561,-25.6183,18.721,
-11.3306,-0.493,0.493,12.0443,-3.721,102.9644,-22.6617,8.3754,23.1552,-5.4193,19.9263,1.4781,-25.1253,15.2718,
-11.8232,14.507,-5.9118,27.0443,-6.8969,110.3543,-7.6617,-1.9706,31.5301,-20.4193,16.7504,-13.5219,-20.6916,1.9706,
3.1768,-0.493,-20.9118,12.0443,-21.8969,95.3543,-22.6617,13.0294,16.5301,-5.4193,1.7504,1.4781,-5.6916,16.9706,
-11.8232,9.3605,-7.3894,27.0443,-24.1403,110.3543,-21.1841,-1.9706,31.5301,-19.213,16.7504,-2.4631,4.4342,2.4631,
-0.98554,13.7942,-19.7056,12.0443,-26.6029,95.3543,-36.1841,5.9118,16.5301,-11.8232,1.7504,-0.98554,-10.5658,10.839,
-7.8819,1.9706,-9.853,-2.9557,-27.5889,80.3543,-50.2507,16.7504,8.868,-1.9706,5.9118,11.8241,-8.868,20.6916,
-22.8819,16.9706,5.147,12.0443,-26.6034,95.3543,-35.2507,1.7504,23.868,-16.9706,18.721,-3.1759,-15.7648,5.6916,
-7.8819,8.375,-9.853,-2.9557,-31.0371,80.3543,-50.2507,12.3162,8.868,-5.4188,15.2723,4.4337,-19.2135,17.2424,
-7.8824,18.721,3.9412,12.0443,-16.0371,95.3543,-35.2507,-2.6838,23.868,-19.706,27.5885,-6.8974,-5.9113,7.8824,
7.1176,5.4188,-11.0588,4.4337,-20.1995,80.3543,-39.9056,12.3162,8.868,-7.3899,12.5885,6.4039,-20.9113,15.2723,
-7.8824,1.9701,-24.6333,0,-23.6473,65.3543,-54.1919,12.8087,4.9263,-10.8386,0,0.98507,-22.6622,12.8087,
-12.8096,16.9701,-9.6333,15,-8.6473,80.3543,-39.1919,-2.1913,19.9263,-25.6183,15,-14.0149,-15.7648,3.9412,
2.1904,3.4482,-23.1543,0,-23.6473,65.3543,-54.1919,12.8087,4.9263,-10.6183,0,0.98507,-29.0665,18.9412,
-12.8096,18.4482,-8.1543,15,-23.6473,80.3543,-39.1919,0,19.9263,-18.721,15,0,-20.6911,9.8535,
2.1904,26.1109,-22.1697,30,-25.1249,82.2738,-34.9783,2.4636,4.9263,-24.1398,1.4776,-14.2872,-29.0661,7.3899,
8.375,11.1109,-30.0521,15,-31.0371,67.2738,-49.9783,13.3022,-10.0737,-9.1398,-0.49253,0.71277,-29.0661,16.2574,
-6.625,26.1109,-15.0521,30,-25.1253,82.2738,-34.9783,-1.6978,4.9263,-24.1398,6.4043,-14.2868,-25.1253,1.4781,
7.8829,19.7065,-23.6468,15,-13.7942,67.2738,-49.9783,13.3022,-10.0737,-9.1398,-1.9706,0.71323,-13.7942,16.4781,
-7.1171,22.1687,-8.6468,24.1398,-3.4487,82.2738,-34.9783,3.4487,4.9263,-13.3022,13.0294,-8.3759,-10.346,5.4188,
-2.4631,30.0516,-10.3456,39.1398,-17.2429,97.2738,-19.9783,-3.4482,19.9263,-24.1403,28.0294,-15.2718,-15.2718,2.4631,
9.361,15.0516,-25.1249,24.1398,-24.1398,82.2738,-34.9783,11.5518,4.9263,-9.1403,20.1986,-0.27183,-2.4627,17.4631,
-5.639,30.0516,-10.1249,39.1398,-9.1398,97.2738,-19.9783,-3.4482,19.9263,-16.7504,13.7942,-5.9118,-12.8082,5.9118,
9.361,15.0516,-25.1249,24.1398,-14.7798,82.2738,-34.9783,11.5518,4.9263,-1.7504,9.8526,9.0882,-20.6921,20.9118,
-5.639,6.8974,-10.8386,9.1398,-16.7499,67.2738,-22.6622,2.9561,19.9263,-6.8974,24.8526,4.9263,-5.6921,22.6622,
-7.3899,21.8974,3.4487,24.1398,-13.3022,82.2738,-7.6622,-2.4636,34.9263,-20.1986,9.8526,-10.0737,-16.2574,15.2723,
0.98507,6.8974,-11.5513,16.7499,-11.8236,67.2738,-22.6622,12.5364,19.9263,-5.1986,-1.9711,4.9263,-14.7798,21.6762,
-13.7947,20.6911,0,31.7499,-7.8834,75.868,-7.6622,0,34.9263,-11.8246,13.0289,-10.0737,-4.9272,6.8964,
1.2053,6.8974,-12.8087,16.7499,-7.8824,60.868,-22.6622,15,19.9263,3.1754,24.6323,4.9263,-6.8974,21.8964,
-13.7947,13.3022,2.1913,1.7499,-7.3899,48.7731,-7.6622,0,34.9263,-7.3899,25.1258,3.4487,-14.2872,13.3022,
-0.493,28.3022,5.4193,16.7499,-2.4631,63.7731,-4.4342,-5.4193,44.8314,-13.3017,13.3017,-11.5513,-19.213,0.493,
14.507,13.3022,-9.5807,19.213,-2.4631,48.7731,-19.4342,9.5807,29.8314,1.6983,2.4631,3.4487,-13.3017,15.493,
-0.493,9.8526,0,34.213,-16.7499,63.7731,-4.4342,-5.4193,44.8314,-13.3017,6.8973,-11.5513,-23.6473,10.8386,
-0.49253,2.4636,-15,19.213,-27.0959,48.7731,-19.4342,9.36,29.8314,-5.4188,6.4048,3.4487,-16.2574,17.2424,
-9.8535,-2.9561,-23.6473,4.213,-12.0959,33.7731,-34.4342,14.7798,14.8314,5.9113,20.6911,7.8824,-9.8535,20.6911,
-24.1393,12.0439,-8.6473,19.213,-14.2868,48.7731,-19.4342,-0.22023,4.4342,-9.0887,5.6911,-7.1176,-24.8535,5.6911,
-9.1393,-2.9561,-11.8241,17.7354,-16.7504,33.7731,-34.4342,14.7798,-10.5658,-1.9706,1.9706,7.8824,-13.7952,20.6911,
-16.7504,12.0439,-2.9557,32.7354,-10.8381,48.7731,-19.4342,-0.22023,4.4342,-16.9706,16.9706,-3.9407,1.2048,5.6911,
-1.7504,-2.4636,-17.9557,17.7354,-6.4048,33.7731,-34.4342,14.7798,-10.5658,-1.9706,21.1836,11.0593,1.4776,20.6911,
5.4188,-17.4636,-28.0815,2.7354,-16.2574,18.7731,-49.4342,28.081,-25.5658,9.36,20.1986,26.0593,-5.4188,33.9933,
-9.5812,-2.4636,-13.0815,17.7354,-15.2723,33.7731,-34.4342,13.081,-10.5658,-5.64,16.2574,11.0593,-20.4188,18.9933,
5.4188,-2.4634,-9.3603,2.7354,-0.2723,18.7731,-34.9786,28.081,-25.5658,9.36,19.2133,26.0593,-7.3897,33.9933,
-9.5812,-8.868,-9.853,17.7354,-15.2723,33.7731,-19.9786,13.081,-10.5658,-1.9706,11.8232,11.0593,-7.8829,18.9933,
-0.493,-9.3605,-24.853,2.7354,-20.199,36.949,-27.0964,18.228,-2.4631,0.493,7.3894,3.4482,-13.3017,16.2578,
-0.493,-24.3605,-20.199,-12.2646,-10.3456,21.949,-31.0367,21.1841,11.3316,12.3166,22.3894,18.4482,-4.4342,24.1403,
-13.3022,-9.3605,-5.199,2.7354,-5.4197,36.949,-16.0367,6.1841,26.3316,-2.6834,27.0959,3.4487,-3.4487,13.3012,
1.6978,-16.7504,-20.199,-12.2646,-8.868,21.949,-31.0367,21.1841,11.3316,12.3166,13.7942,18.4487,-1.9706,28.3012,
-13.3022,-1.7504,-5.199,2.7354,-12.3166,36.949,-16.0367,6.1841,26.3316,-2.6834,28.7942,6.4043,1.4781,13.3012,
-6.4048,-3.4487,-13.3022,17.7354,-19.2135,44.8318,-27.0959,3.4487,33.0073,-6.4048,28.081,5.4188,-13.3022,3.4487,
-2.4636,-18.4487,-28.3022,2.7354,-9.36,29.8318,-42.0959,18.2284,18.0073,3.4487,15.2723,17.2434,-18.2284,18.4487,
-17.4636,-3.4487,-13.3022,17.7354,-3.4487,44.8318,-27.0959,3.2284,33.0073,-11.5513,27.0959,2.2434,-18.2284,11.3311,
-2.4636,-18.4487,-28.3022,2.7354,-18.4487,29.8318,-37.9345,18.2284,18.0073,3.4487,28.081,17.2434,-8.375,24.1398,
-17.4636,-6.8969,-16.7504,4.9267,-20.6916,44.8318,-22.9345,3.2284,33.0073,-4.9267,35.4714,9.853,-0.98554,9.1398,
-5.9118,-4.9267,-31.7504,18.7205,-28.574,29.8318,-37.9345,4.9267,18.0073,-9.853,20.4714,4.9267,-15.9855,10.8381,
9.0882,-19.9267,-40.8906,3.7205,-23.1552,14.8318,-52.9345,19.9267,3.0073,5.147,25.1253,19.9267,-8.3754,25.8381,
-5.9118,-4.9267,-25.8906,18.7205,-8.8675,29.8318,-37.9345,4.9267,18.0073,-0.98507,31.5297,4.9267,-4.9263,10.8381,
9.0882,-8.867,-35.4709,3.7205,-1.9706,14.8318,-46.309,19.9267,3.0073,14.0149,16.5297,19.9267,1.9706,25.8381,
-5.9118,-6.8969,-20.4709,-11.2795,-12.8092,29.8318,-31.309,6.8969,18.0073,-0.98507,26.6029,14.7793,0.98554,15.7644,
0.98507,8.1031,-5.4709,3.7205,-11.8236,44.8318,-16.309,-1.9701,33.0073,-12.8087,22.6622,-0.2207,-14.0145,2.9561,
15.9851,-6.8969,-20.4709,-9.361,-0.49253,29.8318,-31.309,13.0299,18.0073,2.1913,17.2424,14.7793,-12.3162,17.9561,
0.98507,-7.3899,-12.3162,5.639,-12.3162,44.8318,-43.8458,-0.49253,33.0073,-4.4337,32.2424,8.375,0.49253,15.2723,
9.36,-21.1846,-27.0959,-9.361,-27.3162,29.8318,-58.8458,14.5075,18.0073,6.4048,26.1109,18.2284,0.49253,22.1697,
-5.64,-9.853,-12.0959,-24.361,-15.7653,37.4415,-43.8458,8.868,33.0073,1.9706,24.6328,12.8092,-1.9706,18.7205,
-8.868,-15.7644,-19.7056,-9.361,-12.8092,23.6477,-44.3388,1.9706,29.5591,-1.9706,14.7802,7.8829,-13.7942,15.7653,
6.132,-30.7644,-34.7056,-24.1398,-6.4043,8.6477,-59.3388,16.9706,14.5591,13.0294,29.7802,22.8829,1.2058,30.7653,
-8.868,-15.7644,-19.7056,-9.1398,-9.8526,23.6477,-45.3244,1.9706,29.5591,-1.9706,28.5745,7.8829,-7.8824,15.7653,
6.132,-0.76437,-13.3017,-24.1398,-12.3157,8.6477,-60.3244,16.9706,14.5591,13.0294,19.214,22.8829,-2.4631,30.7653,
-6.4053,-15.7644,-12.3166,-36.949,-21.1841,1.4781,-51.7292,14.2868,17.2429,8.3745,30.0516,24.1393,-1.4781,18.228,
-10.8381,-0.76437,2.6834,-21.949,-14.7793,16.4781,-36.7292,-0.71323,32.2429,-6.6255,23.6477,9.1393,-16.4781,3.228,
4.1619,-10.3458,-12.3166,-6.949,-15.2725,1.4781,-51.7292,14.2868,17.2429,8.3745,23.1545,24.1393,-12.3164,18.228,
-10.8381,-10.346,-7.3899,8.051,-30.2725,16.4781,-36.7292,0.49253,32.2429,-0.49253,37.9345,15.2723,-0.49253,15.2723,
4.1619,-8.8675,-22.3899,-3.9412,-39.4121,20.6911,-51.7292,14.7798,17.2429,-5.9123,22.9345,16.7499,-15.4925,18.721,
5.4193,-15.2718,-22.1692,-18.9412,-33.9928,8.3754,-66.7292,19.214,2.2429,5.4193,13.3017,21.1841,-26.1104,24.1403,
-6.8978,-0.27183,-8.868,-3.9412,-32.5152,23.3754,-51.7292,4.214,17.2429,-0.98554,16.7504,6.1841,-29.5591,9.1403,
8.1022,-5.4197,-23.1547,3.4487,-31.0376,8.3754,-66.7292,19.214,2.2429,14.0145,12.3162,21.1841,-20.1986,23.1547,
-6.8978,9.5803,-8.1547,18.4487,-22.6627,23.3754,-51.7292,4.214,17.2429,-0.98554,22.6617,6.1841,-19.7065,8.1547,
8.1022,-0.49253,-23.1547,3.4487,-36.9494,19.2135,-66.7292,17.2424,2.2429,0.49253,7.6617,8.375,-34.7065,12.3162,
9.3605,-15.4925,-19.214,-11.5513,-32.0227,4.2135,-54.6849,25.1253,-1.4781,14.2868,18.228,23.375,-34.9788,27.0955,
-5.6395,-0.49253,-4.214,3.4487,-34.9783,19.2135,-39.6849,10.1253,13.5219,-0.71323,19.2135,8.375,-22.1697,12.0955,
9.3605,-6.8971,-19.214,-11.5513,-30.5444,4.2135,-54.6849,25.1253,-1.4781,14.2868,23.647,23.375,-7.1697,27.0955,
-5.6395,-12.3157,-25.1253,3.4487,-43.8463,19.2135,-62.5668,10.1253,13.5219,-0.71323,29.0665,15.2728,-5.4193,24.1403,
-9.8526,-3.9412,-29.5586,18.4487,-47.2945,34.2135,-66.0155,3.9412,19.707,-7.8824,17.7359,5.9123,-15.7648,17.7359,
-7.3894,-18.228,-19.214,3.4487,-42.8612,19.2135,-56.6555,6.4043,22.1692,1.4781,29.0665,14.2868,-5.4193,20.199,
-22.3894,-3.228,-4.214,18.4487,-37.442,34.2135,-41.6555,-8.5957,37.1692,-13.5219,42.3682,-0.71323,-7.8824,7.8824,
-7.3894,-5.9118,-19.214,3.4487,-29.5591,19.2135,-56.6555,6.4043,22.1692,1.4781,32.5152,14.2868,0.98554,22.8824,
-22.3894,-16.7494,-26.6029,10.839,-41.3827,4.9267,-67.9861,7.8829,32.5152,-1.9706,22.6627,1.9706,-14.0145,8.868,
-7.3894,-11.3311,-32.0222,9.36,-48.7731,-10.0733,-63.5524,17.2424,17.5152,5.4188,16.2574,10.346,-28.081,10.346,
5.4193,-26.3311,-40.8902,-5.64,-54.6849,-25.0733,-74.3909,28.0815,5.4193,20.4188,30.0516,25.346,-13.081,25.346,
-9.5807,-16.7504,-25.8902,1.9706,-50.2511,-10.0733,-59.3909,13.0815,20.4193,5.4188,32.5152,10.346,0.98554,19.7065,
5.4193,-29.5595,-31.5301,-13.0294,-42.3687,-25.0733,-72.9133,26.6034,5.4193,18.721,23.6473,25.346,-3.9412,33.4998,
-9.5807,-14.5595,-16.5301,-28.0294,-32.5152,-10.0733,-57.9133,11.6034,20.4193,3.721,38.6473,16.7504,-1.9706,19.7065,
1.9706,-5.9118,-29.5591,-13.0294,-42.3687,4.9267,-46.3099,9.853,11.8232,-2.9557,23.6473,10.8381,-14.7793,28.574,
14.2875,-19.2133,-41.8755,-28.0294,-37.9343,-9.3603,-61.3099,24.853,-3.1768,12.0443,29.0663,25.8381,0.2207,43.574,
-0.71253,-4.2133,-26.8755,-13.0294,-33.0082,5.6397,-46.3099,9.853,11.8232,-2.9557,44.0663,10.8381,-7.3899,28.574,
5.4193,1.4781,-30.0516,-28.0294,-38.9191,19.214,-50.7427,15.2728,-1.4781,-5.4193,29.0663,10.3456,-22.3899,15.2728,
-9.5807,0,-18.721,-33.5007,-35.4709,34.214,-40.3981,6.8973,13.5219,0,29.5595,9.8526,-15.7648,17.7359,
-8.8684,12.8087,-15.7648,-18.5007,-40.3981,49.214,-45.3244,0.98507,28.5219,-9.8535,34.4858,-0.98507,-9.8535,5.9113,
1.9706,-2.1913,-30.7648,-3.5007,-49.2656,34.214,-60.3244,15.9851,13.5219,5.1465,25.6179,14.0149,-7.8829,20.9113,
-13.0294,12.8087,-15.7648,11.4993,-34.2656,49.214,-45.3244,0.98507,28.5219,-8.8675,37.442,-0.98507,-9.8535,6.8974,
1.9706,17.7354,-22.6627,-3.5007,-49.2656,34.214,-49.2661,6.8969,17.7354,-6.8978,22.442,-1.9706,-24.8535,2.9557,
-13.0294,6.8964,-21.6771,-18.5007,-51.2367,30.5446,-47.2954,3.9412,32.7354,-3.9412,30.5446,7.8824,-34.4858,9.8526,
-5.9118,21.6766,-7.8829,-3.5007,-36.2367,45.5446,-32.2954,0.98554,47.7354,-2.9557,34.4853,-0.98554,-19.7065,16.7504,
3.4487,6.6766,-22.8829,-2.4636,-40.8906,30.5446,-47.2954,7.3899,32.7354,4.4337,19.4853,8.375,-29.067,16.2574,
-11.5513,21.6766,-7.8829,12.5364,-31.0371,45.5446,-32.2954,-3.4487,47.7354,-10.5663,34.4853,-4.4337,-22.1697,5.4197,
3.4487,6.6766,-22.8829,-2.4636,-40.3976,30.5446,-47.2954,11.5513,32.7354,2.9566,19.4853,10.5663,-20.6916,13.7942,
1.4781,-8.3234,-26.1104,-17.4636,-33.0077,15.5446,-48.7726,8.3754,17.7354,6.4043,32.0227,15.2728,-5.6916,9.3605,
-10.346,6.6766,-11.1104,-2.4636,-26.1109,30.5446,-33.7726,-6.6246,32.7354,-8.5957,45.8169,0.27277,-18.2284,-4.4337,
4.654,3.9412,-22.6617,-17.4636,-11.1109,15.5446,-24.6323,8.3754,17.7354,6.4043,54.1919,15.2728,-7.8824,10.5663,
-10.346,-11.0588,-27.0959,-2.4636,-26.1109,30.0521,-39.6323,7.3899,25.1258,-4.4337,40.8906,3.4487,-3.4487,13.3012,
2.9561,-12.8087,-42.0959,-17.4636,-41.1109,15.0521,-54.6323,13.7947,10.1258,6.8974,26.6034,11.8236,-2.9561,22.6622,
-7.8824,-11.8236,-43.3538,-32.4636,-43.3538,11.8236,-60.1037,19.706,4.9263,10.8386,40.3972,26.6034,-4.9263,29.5595,
-19.2135,3.1764,-28.3538,-17.4636,-28.3538,26.8236,-45.1037,4.706,19.9263,-4.1614,39.9056,11.6034,-12.3162,14.5595,
-4.2135,-5.9118,-37.442,-32.4636,-25.6179,11.8236,-60.1037,19.706,4.9263,10.8386,39.4126,26.6034,2.6838,29.5595,
-19.2135,4.4337,-22.442,-17.4636,-40.6179,26.8236,-45.1037,4.706,19.9263,-4.1614,33.9933,11.6034,-9.361,14.5595,
-11.3306,8.3754,-32.0227,-2.4636,-31.0367,41.8236,-34.9779,3.4491,4.9263,-11.3306,26.1113,2.4631,-19.213,14.2877,
3.6694,-6.6246,-33.5007,-17.4636,-16.0367,26.8236,-46.3099,18.4491,-7.8824,3.6694,41.1113,17.4631,-7.8824,29.2877,
-9.3605,6.4043,-24.1403,-14.2868,-31.0367,41.8236,-31.3099,7.3894,7.1176,-5.4193,44.8314,5.4193,-6.4043,22.1692,
5.6395,-8.5957,-39.1403,-29.2868,-29.0668,26.8236,-46.3099,22.3894,-7.8824,9.5807,41.8759,20.4193,8.5957,37.1692,
-9.3605,-14.2872,-42.8608,-33.9933,-31.0371,27.0959,-51.7283,7.3894,7.1176,0.49253,38.9196,15.2723,0.49253,22.1692,
0,-2.9561,-47.2954,-19.707,-24.6333,22.6612,-45.3244,8.8675,0,5.9113,35.4709,17.735,0,21.6762,
2.4636,-17.9561,-49.7581,-34.707,-28.0815,7.6612,-60.3244,23.8675,-2.4636,20.9113,45.8169,32.735,7.3899,36.6762,
-12.5364,-2.9561,-34.7581,-19.707,-34.4863,22.6612,-45.3244,8.8675,12.5364,5.9113,44.3388,17.735,-7.6101,21.6762,
2.4636,4.4337,-26.1104,-34.707,-23.1547,7.6612,-54.6844,23.8675,-2.4636,20.9113,38.9196,32.735,-4.4337,36.6762,
-8.868,-10.5663,-24.6328,-49.707,-35.4714,-4.9267,-39.6844,15.7653,12.5364,14.7793,41.3827,20.6916,4.9267,30.5441,
-14.7793,-0.98554,-22.6617,-34.707,-36.4564,10.0733,-37.4415,0.98554,27.5364,-0.2207,28.574,5.9118,-10.0733,15.5441,
0.2207,-7.8829,-22.6622,-19.707,-21.4564,-4.9267,-51.2362,15.9855,14.7793,14.7793,43.574,20.9118,-11.8241,30.5441,
-14.7793,2.9561,-14.7798,-4.707,-20.6921,10.0733,-36.2362,0.98554,29.7793,-0.2207,42.3682,5.9118,0,15.5441,
0.2207,-12.0439,-29.7798,-19.707,-28.0812,-4.9267,-51.2362,15.9855,14.7793,14.7793,30.0514,20.9118,12.3164,30.5441,
-14.7793,-8.8684,-20.6921,-34.707,-28.5745,10.0733,-42.3682,15.7648,19.706,2.9561,41.3832,17.735,-2.6836,15.7648,
-18.7205,3.9417,-25.6179,-19.707,-28.574,25.0733,-42.3678,0.76484,14.7802,-12.0439,26.3832,2.735,-17.6836,11.8241,
-3.7205,-10.8383,-39.4123,-15.7651,-18.7207,10.0733,-57.3678,15.7648,-0.21976,2.9561,31.5294,17.735,-5.912,26.8241,
-18.7205,4.1617,-24.4123,-0.76507,-32.0222,25.0733,-42.3678,0.76484,14.7802,-6.4048,46.5294,2.735,-18.2284,11.8241,
-3.7205,-2.4631,-31.0371,-15.7651,-34.9783,10.0733,-57.3678,15.7648,-0.21976,8.5952,38.92,17.735,-10.3456,26.8241,
-14.2868,-17.2429,-25.1253,-30.7651,-40.8902,13.3017,-59.6111,4.4342,14.7802,7.3894,32.0227,10.3456,-4.4342,16.2578,
-9.8535,-2.2429,-10.1253,-15.7651,-25.8902,28.3017,-44.6111,-1.9711,29.7802,-0.986,43.3533,0,-10.8386,8.8675,
5.1465,-6.8969,-25.1253,-0.76507,-35.4709,13.3017,-59.6111,13.0289,14.7802,10.839,28.3533,15,-25.8386,14.7802,
-9.8535,8.1031,-10.1253,14.2349,-22.6622,23.6473,-44.6111,-1.9711,29.7802,-4.161,14.7798,2.9561,-10.8386,5.9113,
5.1465,3.9412,-7.8824,-0.76507,-28.5735,8.6473,-35.4709,8.8684,14.7802,-3.9412,5.9123,10.8386,-14.7798,15.7648,
-9.3605,4.4342,4.4342,14.2349,-33.9928,16.2578,-20.4709,-6.1316,29.7802,-7.3894,20.9123,-1.4781,-25.1253,1.4781,
-13.7942,19.4342,10.8381,29.2349,-27.5889,31.2578,-5.4709,-21.1316,44.7802,-17.7354,34.4853,-16.4781,-28.574,-9.853,
1.2058,4.4342,-4.1619,14.2349,-19.2135,16.2578,-20.4709,-6.1316,29.7802,-2.7354,36.949,-1.4781,-13.574,5.147,
-13.7942,10.8376,7.8824,29.2349,-26.6034,31.2578,-5.4709,-11.8236,44.7802,-17.7354,33.4998,-7.8824,-7.8824,-9.853,
1.2058,16.7508,-7.1176,27.5894,-26.6034,16.2578,-20.4709,3.1764,29.7802,-7.8824,18.4998,0,-15.7648,0,
-7.3899,1.7508,-22.1176,12.5894,-20.1986,1.2578,-35.4709,18.1764,14.7802,7.1176,16.2574,15,-0.76484,15,
-22.1692,16.7508,-7.1176,27.5894,-19.214,16.2578,-20.4709,3.1764,29.7802,-2.4631,28.0815,1.4781,-1.4781,5.4193,
-7.1692,1.7508,-22.1176,12.5894,-27.5885,1.2578,-35.4709,18.1764,14.7802,12.5369,29.5595,16.4781,0,20.4193,
-22.1692,-1.9711,-7.1176,27.5894,-28.5745,16.2578,-20.4709,3.1764,29.7802,-2.4631,41.3832,1.9701,0,5.4193,
-7.1692,5.9118,-10.8381,23.6477,-13.7942,29.5591,-5.4709,-0.98554,36.4564,-5.9118,26.3832,2.9557,-6.8969,-1.9706,
7.3899,-9.0882,-11.3311,8.6477,-12.3162,14.5591,-20.1986,14.0145,21.4564,9.0882,28.081,17.9557,-7.3899,13.0294,
-7.6101,5.9118,2.4631,18.228,-27.3162,29.5591,-5.1986,-0.98554,36.4564,-5.9118,35.9639,2.9557,-22.3899,-1.9706,
7.3899,-0.49253,-11.3311,3.228,-28.081,14.5591,-20.1986,14.0145,21.4564,9.0882,40.8906,17.9557,-7.3899,13.0294,
-7.6101,-0.98554,1.9706,18.228,-32.5152,-0.44093,-7.8829,-0.98554,36.4564,0.98554,34.4853,8.868,-0.98554,0.98554,
-0.98554,0.98554,-13.0294,25.6179,-29.5591,-14.7793,-22.8829,5.9118,21.4564,0.98554,19.7065,5.9118,-14.7793,-1.9706,
3.4487,-14.0145,-25.1253,10.6179,-16.2574,-29.7793,-37.8829,20.1986,6.4564,15.9855,31.0371,20.9118,-3.4487,13.0294,
-11.5513,0.98554,-10.1253,25.6179,-17.2424,-14.7793,-22.8829,5.1986,21.4564,0.98554,26.1109,5.9118,-16.2574,-1.9706,
3.4487,1.4781,-5.4193,10.6179,-12.3166,-29.7793,-15.2728,20.1986,6.4564,15.9855,14.2868,20.9118,-23.1552,13.0294,
-9.853,-5.9118,0.98554,-4.3821,-6.8969,-14.7793,-7.8829,13.7942,21.4564,5.9118,26.6029,13.7942,-17.7354,4.9267,
-3.4487,-3.4487,-14.0145,10.6179,-10.3451,0.2207,-15.2723,5.4197,23.1547,-5.4188,22.1697,3.4487,-13.3012,3.4487,
5.4193,-18.4487,-27.0964,-4.3821,-11.3316,-14.7793,-26.1109,20.4197,8.1547,9.5812,36.949,18.4487,-2.4631,18.4487,
-9.5807,-3.4487,-12.0964,10.6179,-8.868,0.2207,-11.1109,5.4197,23.1547,-5.4188,42.3678,3.4487,-13.7942,3.4487,
2.9566,-18.4487,-17.7354,-4.3821,-0.98554,-14.7793,-9.853,17.7354,8.1547,9.5812,27.3678,18.4487,-6.8969,13.7942,
-12.0434,-33.4487,-22.6622,-19.3821,0,-29.7793,-10.8386,3.9412,23.1547,1.9711,34.4858,27.5885,0,12.8087,
2.9561,-18.4487,-15.7648,-7.8824,-2.9561,-14.7793,-11.8236,16.7499,15.7648,9.8526,31.5297,22.6622,-13.7947,22.6622,
17.735,-8.8684,-8.8684,3.9412,-3.9412,-29.7793,-21.6771,31.7499,0.76484,24.8526,30.5446,36.4559,-18.7214,33.4998,
2.735,6.1316,6.1316,18.9412,-10.8386,-14.7793,-6.6771,16.7499,15.7648,9.8526,30.5446,21.4559,-33.7214,18.4998,
17.735,-2.4636,-0.49253,3.9412,0.49253,-29.7793,-20.1986,22.1697,0.76484,16.2574,26.1109,25.1258,-19.2135,25.1258,
2.735,-12.3166,-1.4781,-11.0588,1.4781,-31.0376,-9.3605,7.1697,10.3456,2.4631,25.1253,10.1258,-15.2728,10.1258,
-12.265,2.6834,11.3306,3.9412,-11.3306,-16.0376,5.6395,-7.8303,25.1253,-12.5369,11.3306,-4.8742,-30.2728,-4.8742,
2.735,-4.9267,-3.6694,18.7214,-22.6617,-28.574,-9.3605,7.1697,10.1253,2.4631,5.9118,10.1258,-26.6029,6.8978,
-12.265,10.0733,11.3306,33.7214,-14.7798,-13.574,5.6395,-7.8303,25.1253,-12.5369,17.7359,-4.8742,-26.6034,-8.1022,
2.735,20.1986,-1.4776,25.1258,-0.49253,1.426,-9.3605,4.4337,10.1253,-12.3162,9.36,-12.3162,-30.0521,0.49253,
0.98507,5.1986,0,10.1258,0,-13.574,-9.8535,4.9263,3.9412,-3.9412,24.36,2.6838,-15.0521,0,
-9.853,20.1986,9.853,25.1258,-10.839,1.426,5.1465,-10.0737,18.9412,-18.9412,14.7793,-12.3162,-27.5889,-10.839,
5.147,11.8241,-5.147,10.1258,-1.9706,-13.574,-9.8535,4.9263,3.9412,-3.9412,3.9407,2.6838,-29.5591,4.161,
-9.853,12.8092,4.9267,25.1258,-4.9267,1.426,5.1465,-7.8829,18.9412,-18.9412,18.9407,-12.3162,-27.5889,-9.853,
5.147,2.4631,-10.0733,10.1258,-11.3306,-13.574,-9.8535,6.4043,3.9412,-3.9412,19.214,2.6838,-26.1104,5.147,
0,-7.8824,-11.8236,-4.8742,0,-26.6034,-24.8535,6.8974,4.9263,9.8535,24.6323,16.7499,-30.5446,15.7648,
-15,7.1176,0,10.1258,0,-11.6034,-9.8535,-8.1026,19.9263,-5.1465,25.6183,1.7499,-38.427,0.76484,
0,-1.9706,-14.7802,1.9706,-2.9566,-26.6034,-19.7065,6.8974,4.9263,9.8535,28.574,16.7499,-23.427,15.7648,
-15,5.4197,0.21976,16.9706,-13.3012,-11.6034,-4.7065,-8.1026,19.9263,-5.1465,34.9783,1.7499,-8.427,0.76484,
0,-0.49253,-14.7802,1.9706,-16.2574,-26.6034,-19.7065,0.49253,4.9263,2.4627,21.1836,0.49253,-22.1697,5.4188,
6.8969,-7.8819,-19.7056,-13.0294,-6.8969,-40.3976,-33.5003,15.4925,16.7504,17.4627,36.1836,15.4925,-7.1697,20.4188,
-8.1031,5.4193,-4.7056,1.9706,-21.8969,-25.3976,-18.5003,0.49253,31.7504,2.4627,30.0516,0.49253,-22.1697,5.4188,
6.8969,-8.3754,-19.7056,-13.0294,-16.2578,-40.3976,-23.1552,15.4925,16.7504,14.2868,33.0077,15.4925,-23.1552,20.4188,
-8.1031,6.6246,-4.7056,1.9706,-11.3306,-25.3976,-8.1552,0.49253,31.7504,1.4781,31.0376,0.49253,-23.1543,5.4188,
5.9128,16.7504,-8.867,16.9706,-18.7205,-10.3976,-15.7644,1.9706,16.7504,-3.9407,16.0376,-7.8819,-31.5292,-1.9706,
18.7205,1.7504,-9.853,1.9706,-16.7504,-25.3976,-30.7644,16.9706,1.7504,11.0593,31.0376,7.1181,-16.5292,13.0294,
3.7205,14.2868,5.147,16.9706,-17.2429,-10.3976,-15.7644,1.9706,16.7504,-3.9407,38.92,-7.8819,-10.3456,0.493,
18.7205,3.9412,-9.853,1.9706,-3.9412,-25.3976,-29.5591,16.9706,1.7504,11.0593,23.92,7.1181,-19.706,15.493,
3.7205,0,0,-5.9113,-10.8386,-11.8236,-14.5591,10.8386,16.7504,0,23.6473,10.8386,-16.7499,17.7359,
0,0.98507,-1.9711,9.0887,-18.721,-17.7359,-10.8386,10.8386,10.8386,-6.8974,30.5446,0,-13.7947,13.7938,
15,-14.0149,-5.419,-5.9113,-3.721,-32.7359,-19.2133,25.8386,-4.1614,8.1026,39.9049,15,0.49277,28.7938,
0.49253,-0.49253,6.4048,9.0887,-10.3451,-18.2275,-4.2133,10.8386,10.8386,-6.8974,24.9049,0,-14.5072,13.7938,
15.4925,2.9559,-2.9559,-5.9113,-5.9116,-33.2275,-19.2133,25.8386,-4.1614,8.1026,31.5299,15,-3.941,28.7938,
0.49253,-0.98507,4.9263,-20.9113,-15.7648,-18.2275,-21.6771,10.8386,10.8386,0.98507,39.4121,4.9263,-18.941,15.7648,
-1.9706,14.0149,6.8969,-5.9113,-18.7214,-3.2275,-6.6771,-4.1614,25.8386,-14.0149,24.4121,-10.0737,-33.941,0.76484,
13.0294,0,-5.9123,-20.9113,-3.9417,-18.2275,-13.7947,10.8386,10.8386,0.98507,36.456,4.9263,-18.941,15.7648,
-1.9706,1.9706,-1.9706,-5.9113,-9.853,-3.2275,1.2053,-4.1614,25.8386,-10.839,40.3976,-10.0737,-9.853,6.8969,
8.375,2.4627,-16.9706,-20.9113,-12.3171,-18.2275,-13.7947,10.8386,10.8386,-0.49253,27.0959,1.4776,-14.2872,18.2275,
-2.4636,2.4636,-9.36,-35.9113,-16.2574,-25.1249,-21.1836,11.3311,10.346,7.3899,40.8906,9.361,-8.375,12.3162,
-7.8829,15.7644,-4.9267,-20.9113,-21.6767,-10.1249,-6.1836,-3.6689,21.6767,-1.9706,35.4704,-5.639,-23.375,1.9706,
1.4781,0.76437,-19.9267,-5.9113,-23.1543,-25.1249,-21.1836,11.3311,6.6767,4.4342,20.4704,9.3605,-20.1991,16.9706,
-13.5219,15.7644,-4.9267,9.0887,-19.214,-10.1249,-6.1836,-3.6689,21.6767,-10.5658,21.1841,-5.6395,-11.3306,7.3894,
1.4781,5.9118,-17.7354,-5.9113,-20.6916,-25.1249,-21.1836,11.3311,6.6767,4.4342,22.6617,9.3605,-15.7653,22.3894,
2.9557,-2.9557,-3.9407,-20.6916,-13.7942,-15.7644,-12.8092,26.3311,21.6766,12.8092,35.4714,21.6766,-10.8381,31.5301,
-12.0443,5.9118,-6.8978,-5.6916,-11.8241,-0.76437,2.1908,11.3311,31.5292,-2.1908,21.6767,6.6766,-17.7354,16.5301,
2.9557,-9.0882,-21.8978,-20.6916,-5.912,-15.7644,-12.8092,26.3311,16.5292,12.8092,36.6767,21.6766,-2.7354,31.5301,
-12.0443,-1.9706,-6.8978,-5.6916,-19.7056,-0.76437,-3.9407,11.3311,31.5292,-0.98554,41.3827,6.6766,-1.9706,18.7214,
2.9557,1.9706,-9.853,-1.9706,-18.7205,-15.7644,-18.9407,11.8241,16.5292,-2.9557,26.3827,3.9417,-14.7793,8.868,
2.4631,-8.3754,-11.3306,-16.9706,-8.3754,-30.7644,-12.3166,18.228,24.1403,12.0443,39.9051,18.9417,-2.4631,23.868,
-12.5369,6.6246,-1.4776,-1.9706,-23.3754,-15.7644,1.4776,3.228,39.1403,-2.9557,37.9345,3.9417,-17.4631,8.868,
2.4631,3.4487,-7.3899,-16.9706,-18.2284,-30.7644,-13.5224,18.228,24.1403,12.0443,33.0073,18.9417,-10.346,23.868,
-9.36,11.3311,4.4337,-1.9706,-16.2574,-15.7644,-2.4636,3.228,39.1403,-2.9557,28.081,3.9417,-10.346,9.36,
5.64,12.8082,-10.5663,13.0294,-23.6477,-26.6039,-17.4636,1.9706,24.1403,-10.839,22.6617,-1.9706,-25.346,14.7793,
11.8236,-2.1918,-21.6771,-1.9706,-16.7499,-41.6039,-32.4636,14.7798,18.721,4.161,34.4858,13.0294,-18.721,29.5595,
-3.1764,12.8082,-6.6771,13.0294,-18.228,-26.6039,-17.4636,-0.22023,33.721,-10.3456,19.4858,-1.9706,-17.2429,14.5595,
8.868,11.8241,-0.98554,-1.9706,-20.6916,-41.6039,-17.7354,14.7798,18.721,0.98554,4.9267,10.839,-13.7942,22.6627,
-6.132,26.1104,14.0145,13.0294,-5.6916,-26.6039,-2.7354,-0.22023,33.721,-14.0145,19.9267,-4.161,-4.4342,7.6627,
8.868,11.1104,-0.98554,0,-5.9123,-41.6039,-0.98601,2.9552,18.721,-4.9272,10.8376,0,-19.4342,14.7788,
16.7501,-3.8896,-14.7795,-15,-5.912,-56.6039,-9.8533,17.9552,3.9414,10.0728,25.8376,15,-4.4342,29.7788,
1.7501,11.1104,0.22047,0,-10.3456,-41.6039,5.1467,2.9552,18.9414,-4.9272,33.0077,0,-8.3754,14.7788,
16.7501,-3.8896,-14.7795,-15,-6.4043,-56.6039,-9.8533,17.9552,3.9414,10.0728,29.0665,15,0.493,28.0815,
1.7501,-17.7359,-17.7359,-30,-14.7798,-41.6039,0.98507,6.8974,18.9414,3.9412,30.5446,11.8236,-0.98507,19.706,
-11.8241,-2.7359,-8.868,-15,-19.7065,-26.6039,8.868,-1.9706,26.6029,-11.0588,15.5446,-3.1764,-15.9851,4.706,
3.1759,-5.9118,-21.6767,0,-9.853,-41.6039,-6.132,13.0294,11.6029,3.9412,5.9118,11.8236,-20.6916,19.706,
-11.8241,9.0882,-6.6767,15,-13.7942,-26.6039,2.9566,-1.9706,26.6029,-6.8969,15.7653,-3.1764,-23.6468,4.706,
3.1759,-4.4337,-17.2434,0,-20.1995,-27.0959,-12.0434,10.3451,21.1836,6.4039,7.3899,6.4039,-13.3022,8.375,
-11.8241,4.9263,-2.2434,9.8535,-9.8535,-12.0959,0,-2.9561,36.1836,-0.98507,22.3899,-0.98507,0,5.9113,
-1.9706,18.7205,-5.9118,24.8535,-15.7653,2.9041,-8.868,1.9706,25.6179,-2.9566,7.3899,-7.8829,-15,8.868,
4.4333,3.7205,-13.3017,15.2718,-18.228,-12.0959,-23.868,16.9706,10.6179,12.0434,2.4631,7.1171,-10.3456,18.228,
-10.5667,18.7205,1.6983,30.2718,-12.8087,2.9041,-8.868,1.9706,25.6179,-2.9566,11.8236,-7.8829,-11.8236,3.228,
4.4333,6.8974,-8.8675,15.2718,-6.8974,-12.0959,-21.6767,16.9706,10.6179,12.0434,6.8974,7.1171,-9.8526,18.228,
-7.3899,-6.4048,-5.4188,0.27183,-12.3162,-27.0959,-6.6767,19.2135,20.1986,14.2872,14.2872,21.1846,1.4776,18.2284,
-20.199,8.5952,1.4781,15.2718,-17.2429,-12.0959,8.3233,4.2135,35.1986,-0.71277,4.4333,6.1846,-5.4193,3.2284,
-5.199,-6.4048,-13.5219,0.27183,-2.2429,-27.0959,-6.6767,19.2135,20.1986,14.2872,1.9706,21.1846,-0.98554,18.2284,
-20.199,-2.9566,1.4781,15.2718,6.8969,-12.0959,8.3233,4.2135,35.1986,-0.71277,3.9407,6.1846,-11.8241,3.2284,
-5.199,-10.346,-12.3162,13.3012,-2.4636,-16.2574,-6.6767,19.2135,20.1986,2.4636,-3.4487,3.4487,-8.375,10.346,
7.8824,-25.346,-12.8087,-1.6988,-16.7499,-31.2574,-13.7947,15.7648,8.8675,11.8236,3.9412,13.7947,-3.9412,15.7648,
-6.8978,-10.346,2.1913,13.3012,-13.7942,-16.2574,1.2053,0.76484,23.8675,-3.1764,1.9706,-1.2053,-18.9412,1.9706,
8.1022,-22.1697,-12.8087,-1.6988,-1.4776,-25.1253,-13.7947,15.7648,8.8675,11.8236,10.346,13.7947,-12.3162,16.9706,
-6.8978,-15.2723,-0.49253,13.3012,-4.4337,-10.1253,1.2053,0.76484,23.8675,-3.1764,21.1846,-1.2053,-2.4627,1.9706,
0.98554,-19.7065,-15.4925,9.853,-3.9417,-10.8381,-0.98554,15.7648,18.7205,-2.9557,6.1846,9.853,6.8969,7.882,
-14.0145,-28.5745,-13.7947,0.98507,-0.98507,-16.7499,3.9412,0.98507,26.6034,-3.9412,-5.9123,5.9113,12.8087,1.9701,
-18.721,-13.5745,1.2053,15.9851,0,-1.7499,18.9412,-14.0149,41.6034,-15.7648,-1.9711,-9.0887,0,-13.0299,
-3.721,-20.199,-13.7947,0.98507,0.493,-16.7499,3.9412,0.98507,26.6034,-0.76484,4.4342,5.9113,-0.493,1.9701,
-13.7942,-5.199,1.2053,15.9851,-3.9407,-1.7499,18.9412,-1.9706,41.6034,-6.8969,16.7504,-5.9118,-4.9258,-8.867,
1.2058,4.9263,-9.8526,30.9851,-11.8236,2.9561,10.8386,5.9123,26.6034,-4.9263,1.7504,-6.8974,-8.8675,-2.9561,
2.4631,-10.0737,-14.2868,15.9851,-2.4631,-12.0439,-4.1614,16.2578,11.6034,10.0737,-8.3745,8.1026,5.4193,11.3316,
-12.5369,-0.98554,0.71323,30.9851,6.8969,2.9561,10.8386,1.2578,26.6034,-4.9263,-2.9557,-6.8974,0.98554,-3.6684,
2.4631,-15.9855,-14.2868,15.9851,-1.4781,-12.0439,-4.1614,16.2578,11.6034,4.4342,1.4781,8.1026,9.3605,7.3904,
-12.5369,-16.7504,0.71323,2.9557,-11.8241,-14.7793,10.8386,1.2578,26.6034,-10.5658,14.7793,-5.9118,14.7793,-0.98554,
-1.9706,-17.7354,-6.8978,17.9557,-7.8829,-4.9267,1.9706,3.9407,30.5441,-3.9417,10.8381,-1.9706,9.853,5.9118,
-5.4193,-32.7354,-21.8978,2.9557,-2.4631,-19.213,-13.0294,2.4631,33.9928,7.3904,14.2868,13.0294,11.3316,9.3605,
-20.4193,-17.7354,-6.8978,17.9557,-2.9561,-4.213,1.9706,-12.5369,48.9928,-7.6096,7.8824,-1.9706,2.9561,-5.6395,
-5.4193,-20.6911,-8.8675,2.9557,0,-19.213,-0.98507,2.4631,33.9928,7.3904,3.9412,13.0294,0,9.3605,
-20.4193,-26.6034,0,-12.0443,0,-16.7499,14.0149,-12.5369,48.9928,0,18.9412,-1.9706,1.9711,1.9711,
-5.4193,-15.7648,-1.9711,2.9557,-5.9123,-1.9711,9.8526,-2.9561,44.3384,0,3.9412,-3.9412,5.9113,4.9263,
9.5807,-30.7648,-10.8386,-12.0443,-7.8824,-16.9711,-5.1474,12.0439,29.3384,15,-2.9557,11.0588,12.8092,18.7205,
-5.4193,-15.7648,4.1614,2.9557,-3.4487,-1.9711,9.8526,-2.9561,44.3384,0,12.0443,-3.9412,3.4487,3.7205,
3.9412,-26.6034,-10.8386,-12.0443,-3.9412,-16.9711,-5.1474,8.8684,29.3384,0,6.8973,0,6.8973,3.9412,
-10.839,-25.6179,-5.9118,-27.0443,-3.9417,-25.6179,-1.9706,1.9706,35.4714,6.8969,6.8969,13.7942,13.7942,10.8381,
-8.375,-10.6179,-2.4636,-12.0443,-6.4048,-10.6179,13.0294,-7.3899,50.4714,-3.4487,2.4636,-1.2058,3.4487,2.4636,
-3.4487,-25.6179,-17.4636,-17.2424,-9.36,-25.6179,-1.9706,7.6101,35.4714,10.346,4.4337,8.375,7.3899,3.4487,
-18.4487,-10.6179,-5.4193,-2.2424,-2.4631,-10.6179,13.0294,-7.3899,50.4714,-4.654,12.3157,-6.625,5.4193,-11.5513,
-3.4487,-1.4781,-10.3456,-17.2424,-6.4043,-20.1991,-1.9706,7.6101,35.4714,4.4333,-2.6843,6.4043,1.4781,3.4487,
-17.2429,-0.493,1.4781,-2.2424,-7.3904,-5.1991,13.0294,-7.3899,41.8752,-9.3605,0.493,-8.5957,7.3894,-3.4491,
-2.2429,14.507,-6.8969,12.7576,-0.98554,9.8009,20.6916,-2.9557,40.3976,-14.7802,2.9557,-14.7802,0.98554,-7.8829,
12.7571,-0.493,-21.8969,-2.2424,-3.4482,-5.1991,5.6916,12.0443,25.3976,0.21976,3.4482,0.21976,10.3456,7.1171,
-2.2429,-1.4781,-6.8969,12.7576,-5.4193,9.8009,20.6916,-2.9557,40.3976,-14.7802,9.3605,-14.7802,1.4781,-7.8829,
12.7571,-2.4636,-10.346,-2.2424,5.4188,7.3899,10.346,12.0443,25.3976,-4.4337,-4.4337,-6.4048,-9.36,2.4636,
-2.2429,-16.7504,-10.8381,-17.2424,2.9557,-3.9407,13.7942,5.9118,17.7354,2.9557,-1.9706,7.8829,-5.9118,1.9706,
-17.2429,-1.7504,4.1619,-2.2424,3.9412,11.0593,28.7942,-9.0882,32.7354,-12.0443,-3.9412,-7.1171,-3.9412,-13.0294,
-2.2429,-6.8974,-4.9272,-17.2424,9.8526,-3.9407,13.7942,5.9118,17.7354,2.9557,-6.8974,7.8824,6.8974,0.98507,
-17.2429,7.3899,4.4337,-2.2424,4.4337,11.0593,28.7942,-9.0882,32.7354,-12.0443,-4.4337,-7.1176,-8.1026,-14.0149,
-2.2429,18.7205,-0.98554,12.7576,15.7653,25.6179,34.4853,0.98554,17.7354,-6.8969,-9.853,-10.8381,-16.7504,-3.9417,
3.4487,3.7205,0.49253,-2.2424,18.2275,10.6179,20.1986,4.4337,2.7354,-9.361,-5.4197,-7.3899,-6.4048,-0.49253,
-9.3605,18.7205,9.3605,12.7576,11.3316,25.6179,32.0227,-10.5663,17.7354,-24.361,-17.2429,-22.3899,-11.3306,-15.4925,
5.6395,23.6473,-3.9412,-2.2424,24.6323,10.6179,17.0227,4.4337,2.7354,-9.361,-10.8386,-7.3899,-2.9561,-1.9701,
-9.3605,35.9639,10.3456,12.7576,14.2868,25.6179,32.0227,-10.5663,17.7354,-24.361,-10.3456,-22.3899,-17.9561,-16.9701,
5.6395,50.7432,4.4337,27.7576,9.361,40.6179,25.1258,-10.3451,2.7354,-29.0661,-22.1697,-35.9634,-32.9561,-24.1398,
17.2429,35.7432,2.4631,26.1104,15.2728,38.92,18.228,-2.4631,-5.4193,-14.0661,-7.3894,-20.9634,-17.9561,-14.2868,
2.2429,38.4266,5.9118,41.1104,8.868,53.92,33.228,-17.4631,9.5807,-29.0661,-5.9118,-35.9634,-13.7942,-29.2868,
17.2429,33.9923,-5.4197,26.1104,23.868,38.92,18.228,-2.4631,-5.4193,-14.0661,1.4776,-20.9634,-10.346,-14.2868,
2.2429,29.5595,6.8974,41.1104,8.868,52.2217,21.6771,-17.4631,9.5807,-29.0661,-6.8974,-34.4858,-25.346,-29.2868,
10.346,39.9046,4.4337,56.1104,3.4487,37.2217,24.1398,-22.1697,-3.4487,-33.0082,-10.346,-33.0082,-40.346,-31.0371,
21.1836,24.9046,-6.4048,41.1104,11.3311,22.2217,9.1398,-7.1697,-18.4487,-18.0082,4.654,-18.0082,-25.346,-16.0371,
6.1836,26.6034,6.8974,41.3832,-3.6689,37.2217,24.1398,-22.1697,-3.4487,-33.0082,3.9412,-33.0082,-10.346,-31.0371,
21.1836,15.2718,-4.4342,26.3832,1.4781,22.2217,9.1398,-7.1697,-16.2578,-18.0082,7.3894,-18.0082,-7.3894,-16.0371,
6.4043,8.3754,-6.4043,11.3832,4.4342,7.2217,1.4781,-2.4631,-1.2578,-6.4043,22.3894,-3.0082,0.493,-1.0371,
7.8829,7.8829,-15.7644,2.9557,8.868,1.9706,-4.9267,-1.9706,-7.8819,-15.7644,9.853,-7.8819,2.9557,-4.9267,
2.4631,-7.1171,-14.2868,-12.0443,5.4193,-13.0294,-2.4631,10.3456,-7.3894,-0.76437,2.4631,7.1181,-3.4482,5.4193,
-12.5369,7.8829,0.71323,2.9557,-8.868,1.9706,12.5369,-4.6544,7.6106,-15.7644,8.868,-7.8819,-18.4482,-9.5807,
2.4631,-3.9407,-14.2868,-12.0443,2.9557,-13.0294,-2.4631,10.3456,-7.3894,-0.76437,11.8241,7.1181,-3.4482,5.4193,
-3.9412,0.98507,-2.9561,-27.0443,10.8386,-8.8675,12.5369,-1.9701,7.6106,-4.9263,21.6771,-0.98507,11.5518,9.8535,
0.49253,15.2723,-5.4188,-12.0443,-4.1614,6.1325,16.2574,-7.3899,13.3012,-16.2574,6.6771,-15.9851,-3.4482,0.49253,
15.4925,0.2723,-13.3017,-24.1403,4.4342,-8.8675,1.2574,7.6101,-1.6988,-1.2574,8.3754,-0.98507,-4.4342,15.4925,
0.49253,7.8824,1.6983,-9.1403,-7.8824,6.1325,16.2574,-7.3899,13.3012,-16.2574,9.8535,-15.9851,-18.721,0.49253,
15.4925,14.2868,-2.4631,-24.1403,-2.4631,-8.8675,1.2574,7.6101,-1.6988,-1.2574,10.3456,-0.98507,-11.3306,15.2728,
6.4043,2.4631,-6.4043,-18.228,-2.4631,-19.214,-8.3754,17.2429,-3.4491,11.3306,4.4342,7.3894,-4.4342,17.2429,
2.4627,17.4631,0.49253,-3.228,-0.49253,-4.214,6.4039,2.2429,11.5509,-3.6694,-10.346,-7.6106,-10.346,2.2429,
17.4627,5.4197,-10.3451,-1.4776,-0.49253,-19.214,-8.5961,17.2429,-3.4491,9.361,-1.4776,7.3894,0.49253,17.2429,
2.4627,3.9412,4.6549,13.5224,-3.9412,-4.214,6.4039,2.2429,11.5509,-5.639,4.9263,-7.6106,-13.7947,2.2429,
17.2424,9.36,-8.3759,-1.4776,1.4776,-19.214,9.36,14.2863,-3.4491,0.49253,-3.4487,-0.49253,-16.2583,9.36,
2.2424,6.8974,-12.8087,-1.9701,-1.9701,-7.8824,-0.98507,2.9561,1.9711,0.98507,4.9263,1.9711,-4.9263,11.8236,
-12.7576,21.8974,2.1913,13.0299,-3.4487,7.1176,14.0149,-12.0439,16.9711,-14.0149,3.4487,-13.0289,-17.2434,-3.1764,
0.98554,6.8974,-0.98554,-1.9701,-5.9118,-7.8824,8.868,2.9561,14.7793,-9.853,0.98554,-6.8969,-20.6916,3.9407,
-14.0145,21.8974,14.0145,13.0299,-13.3017,7.1176,23.868,-12.0439,29.7793,-24.853,13.3017,-21.8969,-16.2578,-11.0593,
-24.6323,26.6034,4.9263,28.0299,-14.7798,22.1176,19.706,-24.6323,44.7793,-34.4858,4.9263,-36.8969,-15.7648,-4.9263,
-29.067,11.6034,1.4776,21.1836,-8.375,18.2284,22.1697,-9.6323,29.7793,-19.4858,7.3899,-21.8969,-10.346,2.4636,
-20.199,10.3456,12.3166,24.1403,-8.3754,28.0815,16.2578,-11.3306,26.1104,-20.199,4.4342,-18.228,-4.4342,-5.4193,
-5.199,-4.6544,-2.6834,9.1403,-6.4043,13.0815,1.2578,3.6694,11.1104,-5.199,6.4043,-3.228,10.5658,9.5807,
-20.199,4.9267,6.8969,24.1403,-4.9267,15.7653,16.2578,-10.8381,26.1104,-15.7653,5.9118,-13.7942,-4.4342,-5.4193,
-5.199,2.9561,0.98507,9.1403,-3.9412,0.76531,16.7499,4.1619,11.1104,-7.8824,-0.98507,-3.9412,-17.7359,0.98507,
9.801,-12.0439,-12.8092,-5.8597,-6.8969,-14.2347,1.7499,19.1619,-3.8896,7.1176,14.0149,11.0588,-2.7359,15.9851,
-5.199,2.9561,-0.49253,9.1403,-5.4188,-2.4636,-3.4487,4.1619,11.1104,-5.4188,14.2872,0.49253,5.4197,17.2434,
9.801,-8.375,-15.4925,-5.8597,1.4776,-17.4636,-18.2284,8.375,-1.4776,9.36,-0.71276,10.346,2.4636,18.2284,
-2.4631,-7.3894,-3.4482,-11.3306,7.3904,-28.0805,-3.2284,-3.4482,13.5224,2.4631,12.3166,-3.4482,9.3605,10.3465,
12.5369,-7.3894,-9.3605,-1.4781,-1.4781,-36.949,-3.4482,11.5518,3.4482,1.4781,4.4342,1.4781,-5.4193,19.213,
9.8535,-22.3894,-16.7499,-14.7798,-2.9561,-48.28,-3.9412,10.8386,11.8236,2.9561,3.9412,10.8386,-9.8535,13.7947,
-5.1465,-7.3894,-1.7499,0.22023,1.9706,-33.28,11.0588,-4.1614,26.8236,-8.868,2.9557,-4.1614,-1.9706,-1.2053,
9.8535,-16.2574,-4.4333,-14.7798,2.4631,-48.28,-3.9412,10.8386,11.8236,6.132,-2.4631,10.8386,5.4193,13.7947,
-0.49253,-15.2723,4.4337,-28.081,0.49253,-33.28,7.3899,6.4048,18.2284,-4.4337,12.5369,-3.4487,-9.5807,8.375,
11.8241,-0.2723,-6.8969,-13.081,-0.98554,-18.28,0.98554,6.8969,13.7942,-5.9118,-2.4631,-1.9706,-24.5807,4.9267,
26.8241,-15.2723,-12.8089,-28.081,-0.9853,-33.28,-14.0145,21.8969,-1.2058,9.0882,0.9853,13.0294,-9.5807,19.9267,
11.8241,-18.228,2.1911,-13.081,-13.3017,-18.28,0.98554,6.8969,13.7942,-5.9118,10.3456,-0.493,5.4193,9.3605,
21.1846,-29.0661,-11.3311,-28.081,-7.3899,-33.28,0.49253,16.2583,0.49253,9.0882,-0.49253,14.2872,-9.5807,23.1547,
6.1846,-33.0077,-2.4631,-43.081,-15.2728,-48.28,2.4631,6.4043,6.4043,5.4193,-14.2877,10.3456,-21.1841,8.3745,
21.1846,-18.0077,0,-28.081,-3.9412,-54.1919,-7.8824,12.8096,0,11.8236,-14.7798,25.3456,-6.1841,21.6771,
29.5593,-33.0077,-15,-43.081,6.8971,-69.1919,-22.8824,27.8096,-15,26.8236,-6.8971,40.3456,8.8159,36.6771,
14.5593,-18.0077,-2.9557,-28.081,-1.9706,-54.1919,-7.8824,12.8096,0,11.8236,0.98554,25.3456,-6.1841,21.6771,
29.5593,-17.2429,-12.3166,-43.081,-1.4781,-69.1919,-22.8824,27.8096,-15,26.1104,15.9855,29.0665,1.4781,29.0665,
14.5593,-32.2429,-17.2429,-58.081,-9.3605,-67.4936,-14.2868,18.228,0,11.1104,12.3166,15.2728,1.4781,19.214,
6.8974,-17.2429,-2.9561,-43.081,0,-52.4936,0.71323,8.8675,15,-1.9711,-2.6834,0.27277,-10.8386,15.7648,
21.8974,-29.0665,-17.9561,-45.8169,3.4487,-67.4936,-14.2868,23.8675,0,13.0289,0.49253,15.2728,-0.49253,30.7648,
6.8974,-14.7798,-2.9561,-30.8169,0.98507,-52.4936,0.71323,8.8675,15,-1.9711,11.8236,0.27277,-8.8684,15.7648,
21.8974,-3.4482,-4.4342,-15.8169,12.3166,-37.4936,0.493,23.8675,0,13.0289,-3.1764,15.2728,-4.4342,30.7648,
6.8974,-15.7653,-6.8969,-0.81691,-2.6834,-28.574,-8.868,27.5889,5.9118,12.8092,-14.7793,20.6916,-1.9706,22.6617,
-5.4193,-0.76531,8.1031,14.1831,2.4631,-13.574,6.132,12.5889,20.9118,-2.1908,-12.3166,5.6916,-6.4053,7.6617,
9.5807,-15.7653,-6.8969,-0.81691,15.7653,-28.574,-8.868,27.5889,5.9118,12.8092,-1.9706,20.6916,1.9706,22.6617,
-5.4193,-13.3017,3.4491,14.1831,0.76531,-23.1543,6.132,12.5889,20.9118,-2.1908,4.4342,5.6916,-2.4631,7.6617,
9.5807,-3.9417,0.98554,5.9118,-14.2347,-38.1543,-0.98554,21.6767,5.9118,8.868,-8.868,2.9557,-4.9267,12.8092,
7.8829,-18.9417,-4.9267,-9.0882,-1.9706,-45.3239,14.0145,7.8829,1.9706,1.9706,-8.868,8.868,-11.8232,5.9118,
-3.4487,-3.9417,7.3899,5.9118,13.0294,-30.3239,29.0145,-3.4487,16.9706,-13.0294,-0.49253,-6.132,-15.2723,0.49253,
11.5513,-15.2721,-7.6101,-9.0882,14.287,-45.3239,14.0145,11.5513,1.9706,1.9706,-0.49277,8.868,-0.2723,15.4925,
-2.9557,-1.9706,7.3899,5.9118,-0.713,-30.3239,29.0145,-0.98554,16.9706,-0.98554,2.9557,-5.9118,0.98554,4.9267,
12.0443,4.4337,9.361,20.9118,-13.3012,-41.8757,22.1697,0.49253,7.3899,-12.3162,-12.0443,-9.36,-13.3012,-0.49253,
19.7065,-10.5663,-0.98554,14.7802,-2.9557,-56.8757,7.1697,15.4925,-7.6101,2.6838,-9.853,5.64,-6.8969,14.5075,
4.7065,1.4781,6.4043,29.7802,-5.4193,-41.8757,22.1697,0.49253,7.3899,-12.3162,-8.3754,-9.36,-8.3754,-0.49253,
19.7065,-3.4482,-7.3894,14.7802,-4.4342,-26.8757,9.3605,15.4925,-7.6101,2.6838,-6.4043,5.64,3.4482,14.5075,
4.7065,10.8381,1.9706,24.6328,-11.8241,-11.8757,24.3605,1.9706,7.3899,-12.3162,-4.9267,-9.36,-11.5518,-0.49253,
-5.9118,19.7056,-6.8969,39.6328,-5.9118,3.1243,13.7942,12.8092,16.7504,-23.6477,-9.853,-20.6916,-16.7504,5.9118,
8.8675,4.7056,-16.7508,24.6328,-18.721,18.1243,-1.2058,19.706,1.7504,-8.6477,-9.8535,-5.6916,-1.7504,14.7798,
-6.1325,19.7056,-1.7508,39.6328,-27.0959,33.1243,13.7942,4.706,16.7504,-18.2284,-1.4785,-16.2583,0.49253,-0.22023,
8.8675,8.868,-16.7508,24.6328,-27.5885,18.1243,-1.2058,19.706,1.7504,-3.2284,-4.9267,-1.2583,4.9267,14.7798,
-6.1325,7.3894,-17.2429,9.6328,-21.1841,33.1243,-7.3894,10.3456,11.3316,-13.3017,-0.493,-6.4043,16.2578,10.3456,
-2.9561,22.3894,-2.2429,24.6328,-29.5595,48.1243,6.8974,9.8535,-3.6684,-24.6323,-14.7798,-19.706,1.2578,1.9711,
0.49253,7.3894,-17.2429,29.0661,-41.8757,48.7731,-8.1026,24.8535,-18.6684,-9.6323,-10.346,-4.706,-5.4197,16.2574,
-14.5075,22.3894,-2.2429,44.0661,-26.8757,63.7731,6.8974,9.8535,-3.6684,-23.6473,2.9561,-19.706,-2.9561,1.2574,
0.49253,15.2718,-7.3904,29.0661,-11.8757,48.7731,-3.4482,24.8535,-18.6684,-8.6473,-12.0439,-4.706,4.4342,16.2574,
-14.5075,10.3456,-1.4781,14.0661,-22.1692,43.8463,3.4482,9.8535,-3.6684,-11.3316,-6.4043,-10.3456,1.4781,2.4631,
-6.4048,25.3456,7.3899,29.0661,-33.0082,58.8463,2.4636,-0.49253,11.3316,-17.2424,0.49253,-18.2284,-1.4776,-1.4776,
8.5952,10.3456,-7.6101,14.0661,-27.5885,43.8463,-12.5364,14.5075,-3.6684,-2.2424,-2.9561,-3.2284,6.8974,13.5224,
-6.4048,8.868,7.3899,29.0661,-16.7504,58.8463,2.4636,-0.49253,11.3316,-17.2424,-1.9706,-18.2284,0.98554,-0.98554,
8.5952,8.3754,1.4781,14.0661,-21.1841,43.8463,5.4193,14.5075,-3.6684,-3.4482,-10.3456,-3.2284,-3.4482,12.3166,
2.9557,-6.6246,-5.9118,-0.93393,-29.5591,28.8463,1.9706,6.8969,-12.8092,-1.9706,4.6544,-2.9557,8.868,12.8092,
-3.4487,-13.3012,-14.2872,14.0661,-24.1398,43.8463,-3.4487,3.4487,2.1908,-4.4337,10.346,-11.3311,13.3022,12.3162,
7.3899,-28.3012,-29.2872,-0.93393,-18.2284,28.8463,-18.4487,18.4487,-12.8092,10.5663,9.36,3.6689,20.1986,27.3162,
-7.6101,-17.2429,-14.2872,3.4491,-29.0665,43.8463,-3.4487,3.4487,2.1908,-4.4337,10.3456,-7.3894,8.3754,12.3162,
-0.98554,-22.6627,-29.2872,-11.5509,-37.4415,28.8463,-18.4487,18.4487,-12.8092,0.98554,0.98554,5.9118,14.7793,20.6916,
-15.9855,-19.213,-33.0077,-12.3166,-29.0665,29.0665,-33.4487,17.2429,-5.4193,5.4193,15.9855,11.3316,29.7793,17.2429,
-17.7359,-4.213,-24.6333,2.6834,-25.6183,44.0665,-18.4487,2.2429,1.9701,-9.5807,14.7798,-3.6684,14.7793,2.2429,
-2.7359,-19.213,-38.427,-12.3166,-25.6179,29.0665,-27.5885,17.2429,-13.0299,5.4193,13.7942,11.3316,20.6916,17.2429,
-17.7359,-4.4337,-23.427,2.6834,-22.1697,44.0665,-12.5885,2.2429,1.9701,-9.5807,17.2424,-3.6684,32.0222,4.4337,
-2.7359,-0.98554,-17.7354,10.8381,-12.8092,38.4266,-21.6767,7.882,-9.853,-3.9417,2.2424,-11.8241,22.6617,10.8381,
-14.7798,-5.9113,-18.721,1.9711,-19.706,45.3244,-16.7499,20.6921,-14.7798,0,7.8824,0,17.7359,12.8096,
-29.7798,9.0887,-3.721,16.9711,-34.706,60.3244,-1.7499,5.6921,0.22023,-15,1.9706,-15,9.853,-2.1904,
-14.7798,-5.4188,-18.2284,1.9711,-29.0661,45.3244,-13.3012,20.6921,-14.7798,-1.4776,5.4197,0,24.853,12.8096,
-29.5591,-12.8092,-9.853,-0.98554,-27.5889,36.4564,1.6988,5.6921,0.22023,-7.8829,10.8381,-8.868,28.574,1.9706,
-14.5591,2.1908,-8.3745,14.0145,-25.1253,51.4564,1.4781,12.3166,-14.7798,-15.2718,-1.4781,-19.213,16.2578,1.4781,
-1.4776,0.49253,-4.4337,24.1398,-10.1253,57.6405,-7.3899,23.1547,-9.36,-0.49253,8.375,-4.4337,31.2578,16.4781,
-16.4776,1.4776,-10.346,9.1398,-11.3311,54.6844,-3.4487,8.1547,5.64,-11.3311,0.49253,-19.4337,34.9783,5.4188,
-1.4776,-13.5224,-25.346,-5.8602,-12.3166,39.6844,-18.4487,23.1547,-9.36,3.6689,14.2868,-4.4337,46.8024,20.4188,
-16.4776,-5.4193,-11.3306,-20.8602,-17.2429,51.7287,-3.4487,8.1547,5.64,-11.3311,29.2868,-18.228,40.8902,12.3166,
-1.4776,0.98554,-26.3306,-5.8602,-20.6916,63.0598,-15.7653,11.8241,-9.36,-8.868,14.2868,-14.7793,28.574,13.7942,
0,-14.0145,-41.3306,-20.8602,-15.7648,48.0598,-30.7653,26.8241,-24.36,6.132,0,0.2207,36.456,28.7942,
-15,-0.98507,-26.3306,-5.8602,-9.8526,63.0598,-15.7653,11.8241,-9.36,-8.868,15,-14.7793,28.5745,13.7942,
0,-15.9851,-27.5885,-20.8602,-7.8824,48.0598,-2.9561,26.8241,-24.36,2.9561,7.8824,0.2207,32.5147,17.735,
-5.9113,-13.7938,-12.5885,-35.8602,0,35.4718,5.9123,11.8241,-9.36,0,9.8535,-9.8526,46.3094,11.8236,
-7.3899,0.49253,-19.2135,-20.8602,-13.3012,50.4718,-9.0877,2.4636,-0.49253,-15,4.4337,-24.8526,31.3094,6.4048,
0.98507,-14.5075,-34.2135,-35.8602,-28.3012,35.4718,-24.0877,17.4636,-15.4925,0,6.8974,-9.8526,29.5595,21.4048,
-14.0149,-6.4043,-19.2135,-20.8602,-19.213,50.4718,-9.0877,2.4636,-0.49253,-4.4342,19.214,-12.3166,44.5595,9.3605,
0.98507,-7.8829,-19.7065,-35.8602,-13.7942,35.4718,-14.7802,17.4636,-15.4925,10.5658,14.7793,2.6834,48.28,24.3605,
-12.3162,-7.3899,-8.375,-39.9046,-4.4337,40.8906,0.21976,15.2723,-0.49253,-1.4776,29.7793,-9.36,60.5967,17.2424,
2.6838,-3.4482,-17.2429,-24.9046,-2.4631,43.8463,-14.7802,26.1104,-14.2868,1.4781,44.7793,-1.4781,71.4348,29.0665,
17.6838,-18.4482,-32.2429,-39.9046,-17.4631,28.8463,-29.7802,41.1104,-29.2868,16.4781,42.3678,13.5219,74.8834,44.0665,
2.6838,-17.7359,-17.2429,-24.9046,-31.5297,38.427,-14.7802,26.1104,-14.2868,1.4781,33.4998,-1.4781,59.8834,29.0665,
7.8824,-14.7788,-26.6025,-39.9046,-16.5297,23.427,-23.6473,29.5595,-29.2868,16.4781,48.4998,9.8535,59.1191,28.5745,
-7.1176,-22.6622,-23.6473,-54.9046,-15.7648,8.427,-20.6921,14.5595,-14.2868,10.8386,63.4998,0.98507,63.0593,29.5586,
-22.1176,-7.6622,-17.2429,-39.9046,-24.1403,23.427,-5.6921,-0.44046,0.71323,-4.1614,48.4998,-14.0149,48.0593,16.2578,
-7.1176,-22.6622,-31.5301,-37.442,-9.1403,8.427,-20.6921,14.5595,-14.2868,10.8386,58.1335,0.98507,63.0593,31.2578,
-22.1176,-11.3316,-16.5301,-22.442,-4.4342,23.427,-5.6921,-0.44046,0.71323,-4.1614,73.1335,-14.0149,62.5673,16.2578,
-7.1176,-14.7798,-21.6771,-27.5885,-11.8236,37.442,-20.6921,14.5595,0.98507,-0.98507,73.8979,-15.7648,48.2805,11.8236,
-14.7793,-29.7798,-33.5003,-32.5152,-11.8241,22.442,-20.6916,24.6328,-7.8829,8.868,70.9422,-0.76484,63.2805,24.6328,
-22.6622,-15.7648,-20.6911,-17.5152,-12.8087,37.442,-5.6916,9.6328,7.1171,0,85.9422,-6.8974,74.8839,18.721,
-7.6622,-30.7648,-35.4714,-32.5152,-11.8236,22.442,-20.6916,24.6328,-7.8829,15,81.7803,8.1026,67.9856,33.721,
-17.2434,-45.7648,-29.067,-43.8458,-9.361,7.442,-5.6916,9.6328,6.4048,0.49253,66.7803,0.49253,58.6256,25.1249,
-2.2434,-39.4121,-37.4415,-50.2502,-7.8824,-7.558,-13.7938,24.6328,-8.5952,15.4925,54.1919,15.4925,73.6256,40.1249,
-17.2434,-41.3832,-28.5745,-35.2502,-17.7359,-0.98507,-26.6034,20.6911,6.4048,8.8675,60.1032,0.98507,77.8391,25.1249,
-20.1991,-26.3832,-13.5745,-20.2502,-12.3166,14.0149,-11.6034,5.6911,21.4048,-6.1325,65.5225,-14.0149,68.4786,10.1249,
-5.1991,-41.3832,-28.5745,-35.2502,-23.1543,-0.98507,-10.3456,16.2578,6.4048,8.8675,75.376,0.98507,80.3032,25.1249,
-20.1991,-35.9639,-13.5745,-20.2502,-13.3017,14.0149,4.6544,1.4781,21.4048,-1.4781,90.376,-11.3316,94.097,16.2578,
-5.1991,-34.9783,-26.1109,-5.2502,-13.3022,16.2574,-0.49253,16.4781,26.1109,0.49253,75.376,-1.4785,79.097,26.1109,
8.8677,-49.9783,-41.1109,-20.2502,-8.8677,1.2574,-15.4925,31.4781,11.1109,15.4925,65.0307,13.5215,85.7218,41.1109,
-6.1323,-34.9783,-26.1109,-21.6762,-0.98507,-0.98507,-0.49253,16.4781,26.1109,1.9711,80.0307,-1.4785,94.59,26.1109,
8.8677,-42.8612,-25.1258,-36.6762,-11.3311,-15.9851,-15.4925,20.1986,11.1109,9.36,65.0307,3.4487,79.59,15.2723,
-2.4631,-56.655,-26.1104,-51.6762,-13.3017,-30.9851,-30.4925,15.2728,2.4631,18.2289,60.5971,12.3166,76.362,25.1253,
3.9407,-47.295,-28.574,-36.6762,-8.868,-45.9851,-21.6766,14.7793,-2.9557,15.7653,62.0747,2.9557,73.8984,12.8092,
-3.4482,-48.7726,-23.1543,-21.6762,-6.4043,-57.6405,-21.1841,11.3316,3.4482,14.2868,68.4786,4.4342,77.3471,8.3754,
-6.8969,-33.7726,-8.1543,-6.6762,-9.853,-42.6405,-6.1841,-3.6684,18.4482,-0.71323,72.9133,-10.5658,71.9282,8.868,
8.1031,-48.7726,-23.1543,-21.6762,-23.6475,-57.6405,-21.1841,11.3316,3.4482,14.2868,57.9133,4.4342,67.9859,23.868,
1.4781,-63.7726,-20.199,-36.6762,-8.6475,-72.6405,-16.2578,25.1253,-11.5518,19.213,62.5673,19.4342,82.9859,18.228,
1.4781,-48.7726,-12.3166,-21.6762,-1.4781,-57.6405,-1.2578,10.1253,-10.3456,4.213,47.5673,4.4342,68.4786,15.2718,
7.3899,-63.7726,-27.3166,-36.6762,-7.3899,-68.4791,-16.2578,25.1253,-25.3456,19.213,49.7581,19.4342,77.3466,30.2718,
-7.6101,-48.7726,-12.3166,-21.6771,0.98507,-53.4791,-1.2578,10.1253,-10.3456,4.213,64.7581,4.4342,85.7215,15.2718,
2.4636,-50.7437,-27.0959,-36.6771,-2.4636,-68.4791,-16.2578,14.2872,-16.2574,2.4636,49.7581,6.4048,76.3615,10.346,
-12.5364,-55.6699,-13.3017,-51.6771,11.3306,-75.376,-1.2578,1.4781,-1.2574,-1.4781,52.7138,-3.4482,86.2145,10.3456,
-18.228,-40.6699,-15.2718,-36.6771,2.4631,-60.376,11.3316,-13.5219,13.7426,-16.4781,40.8902,-18.4482,71.2145,-2.4631,
-4.4342,-50.7437,-30.2718,-21.6771,-6.4043,-45.376,-3.6684,1.4781,-1.2574,-1.4781,32.0227,-3.4482,75.376,12.5369,
-19.4342,-35.7437,-15.2718,-6.6771,4.9263,-30.376,11.3316,-13.5219,13.7426,-15.7658,34.4858,-18.4482,81.7803,0,
-4.4342,-33.9928,-11.3306,-21.6771,11.3306,-45.376,-3.6684,1.4781,-1.2574,-0.76577,21.1841,-3.4482,76.361,13.3017,
-17.7359,-41.3832,-8.8675,-36.6771,4.9263,-54.1919,6.8974,0,13.7426,-4.9263,34.4858,0,74.883,12.8087,
-26.6029,-28.574,-7.882,-21.6771,-0.98554,-39.1919,7.8829,-15,28.7426,-19.9263,30.5451,-15,68.9721,0.98554,
-11.6029,-43.574,-22.882,-25.6179,-0.98554,-54.1919,-7.1171,0,13.7426,-4.9263,23.6477,0,81.7808,11.8241,
-26.6029,-37.442,-7.882,-10.6179,0.98507,-39.1919,7.8829,-15,28.7426,-14.7798,35.4709,-15,80.7953,-3.1759,
-11.6029,-41.3832,-16.7508,-25.6179,2.9552,-51.2367,0,0,13.7426,0,21.6762,-7.8824,71.9268,11.8236,
-4.4342,-48.7726,-8.3754,-22.1692,1.4781,-47.7875,2.4631,6.4043,-1.2574,9.3605,6.6762,-1.4781,68.4786,18.228,
-13.7942,-33.7726,0.98554,-7.1692,0.98554,-32.7875,17.4631,-8.5957,13.7426,-5.6395,8.868,-16.4781,69.9572,3.228,
0,-48.7726,-14.0145,-22.1692,0,-47.7875,2.4631,6.4043,-1.2574,9.3605,23.868,-1.4781,84.9572,18.228,
-15,-33.7726,-4.4337,-7.1692,0.49253,-32.7875,12.3162,-8.5957,13.7426,-5.6395,37.9345,-16.4781,81.2878,3.228,
0,-18.7726,-7.3894,7.8308,-3.4482,-17.7875,2.4631,-1.4781,18.228,-10.3456,22.9345,-25.1253,66.2878,3.4491,
-3.4482,-33.7726,-22.3894,-7.1692,5.4193,-32.7875,-12.5369,13.5219,3.228,4.6544,7.9345,-10.1253,81.2878,12.3166,
-17.7354,-21.6767,-7.3894,-22.1692,9.853,-28.574,2.4631,-0.98554,18.228,2.9557,22.9345,-9.853,87.6921,0.98554,
-2.7354,-36.6767,-22.3894,-37.1692,-4.9267,-43.574,-12.5369,13.7942,3.228,13.7942,13.7942,4.9267,76.8536,12.8092,
-11.3306,-28.0815,-7.3894,-52.1692,8.3754,-58.574,2.4631,-1.2058,18.228,1.4781,19.213,-1.4781,90.1557,15.2718,
3.6694,-43.0815,-22.3894,-39.4121,0.98507,-64.0449,-12.5369,13.7942,3.228,13.7947,4.213,12.8087,79.8102,23.6473,
2.4631,-58.0815,-31.0371,-54.4121,-2.4631,-79.0449,-20.1986,28.7942,-11.772,28.7947,9.3605,23.1552,82.2733,27.0964,
-10.8386,-43.0815,-16.0371,-69.4121,0.98507,-68.9716,-5.1986,13.7942,3.228,13.7947,6.8974,8.1552,68.9716,12.0964,
4.1614,-58.0815,-31.0371,-84.4121,2.9559,-83.9716,-20.1986,28.7942,-11.772,28.7947,-2.9559,23.1552,77.8398,27.0964,
-10.8386,-64.0449,-27.5885,-99.4121,-3.9412,-79.8097,-5.1986,13.7942,3.228,13.7947,12.0441,8.1552,88.6777,12.0964,
-23.6477,-49.0449,-14.7793,-84.4121,-3.9417,-64.8097,3.9417,-1.2058,18.228,-1.2053,9.853,-6.8448,83.7509,7.8829,
-18.2275,-60.5962,-29.7793,-69.4121,-3.4487,-56.655,-11.0583,8.3759,3.4487,12.3171,8.3759,7.3899,87.2001,22.8829,
-33.2275,-45.5962,-14.7793,-54.4121,11.5513,-41.655,3.9417,-6.6241,18.4487,-2.6829,23.3759,-7.6101,89.6637,13.7947,
-18.2275,-30.5962,-14.7793,-69.4121,3.9407,-56.655,-5.9118,6.8969,15.7644,2.9557,8.3759,-0.98554,74.6637,15.7644,
-32.5152,-15.5962,0.2207,-54.4121,9.853,-41.655,9.0882,-5.9118,30.7644,-4.9267,15.7653,-11.8241,80.7957,4.9267,
-19.7065,-10.839,-4.9267,-39.4121,-1.9706,-26.655,17.7354,-0.98554,35.4704,-3.9417,5.9118,-19.7065,68.9712,3.9407,
-4.7065,-25.839,-16.7499,-24.4121,-2.9561,-41.3827,2.7354,7.8824,20.4704,8.8684,0.98507,-4.7065,69.9567,15.7648,
-19.7065,-10.839,-1.7499,-9.4121,-0.49253,-26.3827,17.7354,-7.1176,35.4704,-6.1316,0.49253,-19.7065,54.9567,0.76484,
-5.9123,-9.8535,6.8974,-24.4121,7.8824,-41.3827,32.7354,-2.9561,25.6183,-2.9561,2.9561,-13.7947,67.0006,6.8974,
-20.9123,-24.8535,3.9412,-39.4121,14.7798,-56.3827,21.6771,0,17.7359,-1.9701,4.9263,-7.8824,69.9567,0,
-35.9123,-13.3017,14.2868,-24.4121,13.3017,-41.3827,36.6771,-15,32.7359,-16.9701,-10.0737,-22.8824,54.9567,-15,
-20.9123,-28.3017,-0.71323,-9.4121,13.3012,-26.3827,21.6771,0,17.7359,-4.4337,1.4776,-8.375,57.6405,0,
-35.9123,-13.3017,14.2868,-6.4043,2.4631,-11.3827,36.6771,-14.2868,32.7359,-15.2718,7.3894,-23.375,72.6405,-1.4781,
-20.9123,-26.1113,-0.71323,-21.4043,17.4631,-26.3827,23.1543,0.71323,17.7359,-0.27183,-7.6106,-8.375,86.2145,13.5219,
-20.1991,-41.1113,-7.3894,-36.4043,18.228,-41.3827,33.0077,1.4781,12.3166,-1.4781,-2.4631,2.4631,81.2883,23.1552,
-17.7354,-26.1113,1.9706,-21.4043,3.228,-26.3827,33.5003,-11.8232,25.6179,-16.4781,-1.9706,-12.5369,66.2883,8.868,
-2.7354,-41.1113,-13.0294,-36.4043,2.4636,-41.3827,18.5003,3.1768,10.6179,-1.4781,-2.4636,2.4631,68.4791,20.1986,
-15.7648,-26.1113,1.9706,-22.6622,17.4636,-32.5147,30.5446,-4.9263,25.6179,-6.8974,12.5364,-8.8675,71.9278,5.1986,
-0.76484,-41.1113,0.98507,-37.6622,2.4636,-47.5147,15.5446,10.0737,10.6179,5.9113,-2.4636,-0.98507,56.9278,8.8675,
1.9706,-56.1113,-1.9706,-52.6622,2.9557,-62.5147,0.54461,12.8082,-4.3821,13.7942,-2.9566,13.7942,63.0598,17.7354,
-13.0294,-41.1113,13.0294,-37.6622,14.7802,-47.5147,15.5446,-2.1918,10.6179,-1.2058,12.0434,-1.2058,66.016,5.9118,
1.9706,-26.1113,4.9263,-52.6622,0,-62.5147,0.54461,5.9113,-0.98601,0,-2.9566,0,57.1471,13.7938,
-11.8236,-11.1113,19.9263,-37.6622,15,-47.5147,15.5446,-7.8824,14.014,-2.9561,7.8824,-12.8087,61.0892,2.9561,
1.4781,-26.1113,4.9263,-22.6622,22.1692,-32.5147,28.0815,2.4631,3.4491,-3.4482,-1.4781,-6.4043,48.7726,5.4193,
-13.5219,-33.5003,-9.853,-7.6622,16.7504,-17.5147,13.0815,-12.5369,18.4491,-13.7942,1.9706,-14.7793,53.2073,0.98554,
-28.5219,-18.5003,5.147,-16.2574,7.3899,-2.5147,28.0815,-27.5369,33.4491,-28.7942,1.4785,-29.7793,49.7581,-14.0145,
-13.5219,-33.5003,-9.853,-31.2574,0.49253,-17.5147,13.0815,-12.5369,18.4491,-13.7942,-0.49253,-14.7793,56.6555,0.98554,
-26.6034,-18.5003,5.147,-46.2574,15.4925,-20.6911,28.0815,-13.7947,33.4491,-12.8087,14.5075,-8.8675,71.6555,7.8824,
-19.706,-4.9263,4.9263,-31.2574,10.8386,-5.6911,35.4709,-27.5885,27.5885,-27.8087,-0.49253,-23.8675,56.6555,-7.1176,
-9.3605,-19.9263,-2.4631,-16.2574,12.3166,7.3894,20.4709,-12.5885,12.5885,-12.8087,-9.3605,-10.3456,46.8024,7.8824,
-24.3605,-4.9263,12.5369,-31.2574,11.3306,-2.4631,35.4709,-27.5885,27.5885,-27.8087,2.4631,-25.3456,52.7138,-7.1176,
-9.3605,-15.2723,7.3899,-46.2574,15.2723,-17.4631,21.1836,-12.5885,12.5885,-12.8087,-2.4636,-11.3311,53.6993,7.8824,
-24.3605,-16.7504,10.8381,-61.2574,15.7644,-32.4631,36.1836,-25.6188,27.5885,-5.9118,10.8381,-19.7065,42.3678,5.9118,
-17.2429,-18.228,-4.1619,-46.2574,2.4631,-17.4631,21.1836,-25.1253,41.8762,-12.3157,-2.4631,-24.1403,29.0665,3.4491,
-18.72,-33.228,-8.8675,-31.2574,6.8974,-2.4631,6.1836,-10.8376,49.2656,-3.9412,3.9412,-10.8376,44.0665,7.8824,
-33.72,-18.228,6.1325,-16.2574,8.868,-1.9706,21.1836,-25.8376,64.2656,-18.9412,8.868,-25.8376,33.5003,-7.1176,
-18.72,-20.199,-7.3894,-31.2574,3.4482,-16.9706,6.1836,-10.8376,49.2656,-3.9412,1.4781,-10.8376,31.0376,7.8824,
-33.72,-10.839,7.6106,-46.2574,6.8969,-31.9706,21.1836,-21.6767,64.2656,-2.9557,16.4781,-24.6328,42.3678,2.9557,
-43.8458,-1.4776,1.4776,-31.2574,-0.49253,-16.9706,16.2574,-36.6767,74.3904,-17.9557,1.4781,-39.6328,27.3678,-12.0443,
-28.8458,-16.4776,-13.5224,-16.2574,-1.4781,-6.4043,1.2574,-21.6767,59.3904,-2.9557,1.4781,-24.6328,23.1543,2.9557,
-35.4704,-1.4776,1.4776,-8.868,-1.9706,8.5957,16.2574,-26.6029,74.3904,-17.9557,4.9267,-36.4564,22.6627,-6.8969,
-20.4704,-0.49253,9.361,-23.868,5.4197,-6.4043,10.346,-11.6029,59.3904,-2.9557,-9.36,-21.4564,19.2135,8.1031,
-16.2578,-15.4925,10.3456,-38.868,15.2728,-21.4043,25.346,-1.4781,44.3904,0.493,-0.493,-6.4564,21.1841,17.2429,
-17.2429,-6.4043,17.2429,-23.868,0.27277,-6.4043,40.346,-16.4781,36.949,-14.507,-15.2718,-21.4564,6.4043,2.2429,
-2.2429,-21.4043,2.2429,-8.868,-3.9417,-11.8241,25.346,-1.4781,21.949,0.493,-3.9417,-6.4564,21.4043,17.2429,
-17.2429,-10.8386,17.2429,-23.868,9.8535,-26.8241,36.4569,-14.7798,36.949,-3.9412,11.0583,-16.7499,36.4043,3.9412,
-2.2429,-25.8386,2.2429,-38.868,10.8381,-41.8241,21.4569,-0.98554,21.949,2.9557,-3.9417,-10.8381,30.5451,8.868,
-15.2718,-35.9639,1.4781,-53.868,14.2868,-56.8241,29.0665,-11.3306,25.1253,-1.4781,5.4193,-16.2578,31.0376,8.3754,
-8.3754,-20.9639,6.4043,-38.868,13.3017,-41.8241,44.0665,-15.2728,40.1253,-6.4043,11.3306,-20.199,24.1393,8.3745,
6.6246,-35.9639,-8.5957,-53.868,3.9412,-56.8241,29.0665,-0.27277,25.1253,8.5957,-3.6694,-5.199,31.5297,19.706,
-8.3754,-20.9639,6.4043,-38.868,17.7354,-41.8241,44.0665,-15.2728,40.1253,-6.4043,1.9706,-20.199,33.5003,4.706,
0.49253,-5.9639,1.4785,-53.868,7.3899,-56.8241,29.0665,-3.4487,25.1253,-5.4188,-13.0294,-16.2574,18.5003,9.361,
-14.5075,-20.9639,-4.4342,-68.868,4.4333,-51.7287,14.0665,-2.4631,33.9928,5.4193,1.9706,-4.4342,25.1253,15.2718,
-22.6617,-5.9639,10.5658,-53.868,8.868,-36.7287,29.0665,-17.4631,48.9928,-9.5807,12.8092,-19.4342,27.5889,0.27183,
-7.6617,-20.9639,-4.4342,-68.868,-1.4781,-51.7287,14.0665,-2.4631,33.9928,5.4193,-2.1908,-4.4342,12.5889,15.2718,
-22.6617,-5.9639,5.9118,-63.0598,6.8969,-38.4275,29.0665,-15.7653,35.4714,-9.5807,7.8819,-19.4342,21.6766,1.9706,
-7.6617,-7.882,-1.9706,-48.0598,5.9118,-23.4275,19.7065,-8.868,20.4714,-7.882,-2.9557,-19.7056,25.6179,1.9706,
-15.2718,-22.882,-4.4342,-33.0598,2.4631,-8.4275,17.2429,-12.3166,35.4714,1.4781,6.4043,-9.3605,23.1552,4.4342,
-19.213,-7.882,10.5658,-48.0598,13.3017,-23.4275,32.2429,-24.1393,33.0077,-13.5219,5.4193,-24.3605,16.2578,-5.4193,
-4.213,-20.1986,-4.4342,-63.0598,16.2574,-38.4275,17.2429,-9.1393,18.0077,1.4781,-9.5807,-9.3605,23.1547,9.5807,
-14.2872,-5.1986,10.5658,-48.0598,25.1249,-41.8757,32.2429,-13.3022,28.081,-12.3162,5.4188,-10.346,23.1547,0.49253,
0.71277,-6.4043,2.4631,-33.0598,11.3306,-26.8757,34.9779,-6.4043,13.081,-9.3605,-9.5812,-14.2868,8.1547,5.4193,
0,-21.4043,-4.9272,-19.706,15.7648,-27.5885,19.9779,7.8824,-1.919,5.6395,-7.8824,0.71323,23.1547,20.4193,
-15,-6.4043,10.0728,-14.2868,24.1403,-19.213,34.9779,-7.1176,13.081,-9.3605,5.4193,-14.2868,29.0665,5.4193,
0,-5.4193,-4.9272,-29.2868,9.1403,-34.213,19.9779,5.4193,-1.919,5.6395,-9.5807,0.493,14.0665,8.3754,
-13.3017,3.4482,10.0728,-44.2868,10.3456,-49.213,33.9928,-9.3605,4.4342,-7.3894,-1.4781,-14.507,9.3605,1.4781,
-8.868,18.4482,22.6627,-29.2868,8.868,-34.213,45.3239,-24.3605,19.4342,-22.3894,-16.4781,-29.507,-5.6395,-13.5219,
6.132,3.4482,11.8241,-14.2868,13.7942,-19.213,30.3239,-9.3605,4.4342,-7.3894,-17.7354,-14.507,-17.7354,1.4781,
3.4482,14.2868,26.8241,-29.2868,28.7942,-34.213,45.3239,-12.3166,8.3745,-11.3316,-2.7354,-9.3605,-2.7354,1.4781,
3.9412,20.6911,25.6183,-44.2868,25.6183,-49.213,38.427,-3.9412,-6.6255,-15.7648,-9.8535,-12.8087,5.9123,5.9123,
-11.0588,23.1547,20.1995,-59.2868,15.2723,-64.213,24.1407,-5.4188,5.4197,-7.3899,-3.4487,-16.2574,5.4197,3.4487,
3.9412,8.1547,5.1995,-44.2868,0.2723,-49.2656,9.1407,9.5812,-9.5803,7.6101,-15.7653,-1.2574,0.98554,17.7354,
18.9412,-6.8453,-9.8005,-29.2868,-5.9118,-34.2656,-5.8593,18.7214,-24.5803,17.7354,-18.7205,13.7426,5.9118,20.6916,
3.9412,8.1547,5.1995,-14.2868,9.0882,-19.2656,9.1407,3.7214,-9.5803,2.7354,-7.3899,-1.2574,-2.4636,5.6916,
18.9412,3.4482,-3.4482,-29.2868,24.0882,-34.2656,-5.8593,18.7214,-24.5803,17.7354,-9.3605,13.7426,-7.3894,20.6916,
3.9412,3.9412,6.8974,-44.2868,13.7938,-48.2805,9.1407,3.7214,-9.5803,2.7354,0,-1.2574,-14.7798,5.6916,
-11.0588,18.9412,21.8974,-29.2868,3.4487,-33.2805,24.1407,-11.2786,5.4197,-12.2646,-3.4487,-16.2574,-29.7798,-9.3084,
-26.0588,33.9412,36.8974,-14.2868,0.98554,-18.2805,39.1407,-26.2786,20.4197,-27.2646,-0.98554,-31.2574,-40.3976,-24.3084,
-41.0588,48.9412,51.8974,0.71323,-7.3899,-3.2805,54.1407,-41.2786,35.4197,-42.2646,7.3899,-46.2574,-51.7283,-39.3084,
-56.0588,63.9412,59.1177,15.7132,-1.9706,11.7195,69.1407,-56.2786,50.4197,-57.2646,1.9706,-61.2574,-41.3836,-54.3084,
-71.0588,48.9412,44.1177,28.081,-0.49253,26.7195,84.1407,-71.2786,65.4197,-72.2646,0.49253,-76.2574,-26.3836,-63.5528,
-86.0588,63.9412,47.788,43.081,-3.4487,41.7195,99.1407,-86.2786,80.4197,-87.2646,3.4487,-91.2574,-29.0661,-76.3606,
-71.0588,65.0304,43.3533,54.1919,-8.8675,55.1769,99.5162,-82.7663,95.4197,-72.2646,8.8675,-97.5452,-31.5297,-61.3606,
-86.0588,80.0304,58.3533,69.1919,-9.3605,70.1769,114.5162,-97.7663,110.4197,-87.2646,9.3605,-112.5452,-39.9051,-59.6111,
-101.0588,95.0304,73.3533,84.1919,-4.4337,85.1769,129.5162,-112.7663,125.4197,-102.2646,4.4337,-127.5452,-48.7721,-74.6111,
-116.0588,80.0304,66.5076,99.1919,-13.3017,100.1769,144.5162,-127.7663,140.4197,-117.2646,13.3017,-142.5452,-44.8323,-89.6111,
-101.0588,65.0304,51.5076,84.1919,-7.3899,85.1769,129.5162,-112.7663,153.2156,-102.2646,7.3899,-127.5452,-29.8323,-74.6111,
-86.0588,50.0304,36.5076,69.1919,0.98554,70.1769,114.5162,-97.7663,138.2156,-87.2646,-3.9407,-112.5452,-14.8323,-59.6111,
-71.0588,35.0304,21.5076,54.1919,0.986,55.1769,99.5162,-82.7663,123.2156,-72.2646,11.0593,-97.5452,-4.9263,-44.6111,
-56.0588,20.0304,6.5076,39.1919,1.4781,40.1769,84.5162,-67.7663,108.2156,-57.2646,18.228,-82.5452,-1.4781,-29.6111,
-41.0588,5.0304,-8.4924,24.1919,2.4631,25.1769,69.5162,-52.7663,93.2156,-42.2646,3.228,-67.5452,12.3162,-14.6111,
-26.0588,-9.9696,-23.4924,9.1919,7.3896,10.1769,54.5162,-37.7663,78.2156,-27.2646,-7.3896,-52.5452,10.3458,0.38886,
-11.0588,-24.9696,-38.4924,-5.8081,1.9708,-4.8231,39.5162,-22.7663,63.2156,-12.2646,-0.9853,-37.5452,0.9853,15.3889,
3.9412,-39.9696,-23.4924,-20.8081,15.2723,-19.8231,24.5162,-7.7663,48.2156,2.7354,6.4043,-22.5452,-6.4043,30.3889,
18.9412,-24.9696,-8.4924,-35.8081,30.0521,-34.8231,9.5162,7.2337,33.2156,17.7354,0.49253,-7.5452,-2.4631,45.3889,
9.8535,-39.9696,-13.7942,-34.4858,15.0521,-49.8231,-5.4838,22.2337,18.2156,32.7354,-0.98507,7.4548,-6.8974,36.4569,
-5.1465,-24.9696,1.2058,-49.4858,14.2872,-56.6555,9.5162,7.2337,33.2156,17.7354,14.0149,-7.5452,-0.49253,21.4569,
9.8535,-9.9696,-13.7942,-64.4858,13.3015,-71.6555,-5.4838,22.2337,18.2156,32.7354,3.4484,7.4548,-3.4484,36.4569,
-5.1465,0.49253,-0.49253,-79.4858,3.4487,-86.6555,-1.4776,7.2337,3.2156,17.7354,6.4048,15.2723,-16.2574,32.0222,
-5.9113,12.8096,0,-64.4858,0,-71.6555,3.9412,0,9.8535,2.7354,-8.5952,0.2723,-31.2574,17.0222,
9.0887,-2.1904,-11.3311,-49.4858,11.3311,-56.6555,-11.0588,15,-5.1465,17.7354,-3.4487,15.2723,-16.2574,32.0222,
-5.9113,12.8096,3.6689,-34.4858,2.4631,-41.6555,3.9412,0,9.8535,2.7354,6.4043,0.2723,-19.214,17.0222,
9.0887,24.6328,4.9267,-49.4858,-4.9267,-56.6555,-11.0588,12.8092,-5.1465,14.7793,-8.5957,4.9267,-34.214,22.6617,
7.8829,9.6328,0.98554,-64.4858,10.0733,-71.6555,-6.8969,16.7504,-20.1465,22.6627,-0.98554,18.7214,-19.214,30.5451,
-7.1171,8.8675,12.8087,-49.4858,2.9552,-56.6555,8.1031,1.7504,-5.1465,7.6627,-8.8684,3.7214,-21.6771,15.5451,
7.8829,0.493,-2.1913,-34.4858,-0.493,-41.6555,-6.8969,5.4193,-0.493,16.2578,-14.2868,13.3017,-16.2578,18.228,
-3.9412,15.493,1.9711,-49.4858,7.8824,-56.6555,0.98507,-6.8974,14.507,6.8974,-0.98507,-0.98507,-26.6034,12.8087,
11.0588,5.9118,-7.8819,-64.4858,5.9118,-71.6555,-13.7942,8.1026,-0.493,14.7802,-4.9267,4.9267,-30.5441,27.8087,
6.4039,-9.0882,-3.4487,-79.4858,5.4188,-86.6555,-8.375,20.1986,-15.493,25.1249,3.4487,18.2284,-15.5441,38.9196,
-4.9263,4.9263,0,-64.4858,1.9701,-71.6555,-2.9561,5.1986,-0.493,10.1249,3.9412,3.2284,-11.8236,23.9196,
-2.9557,-5.9118,-3.9417,-49.4858,11.8232,-56.6555,-7.8829,7.8819,14.507,17.7354,14.7793,2.9557,-9.853,24.6328,
-1.9706,-20.9118,-15.7653,-64.4858,8.867,-71.6555,-10.839,11.8232,1.9706,29.5591,5.9118,17.9557,-16.7504,38.4266,
12.3162,-28.0815,-15.2723,-79.4858,9.36,-86.6555,-9.36,19.2135,-13.0294,27.0959,12.3162,20.1986,-11.3311,37.9345,
-2.6838,-13.0815,-0.2723,-64.4858,10.3456,-71.6555,5.64,4.2135,1.9706,12.0959,27.3162,5.1986,-14.2868,22.9345,
-13.3017,1.9185,14.7277,-49.4858,13.3017,-56.6555,20.64,-10.7865,16.9706,-2.9041,12.3162,-9.8014,-29.2868,7.9345,
1.6983,-13.0815,-0.2723,-64.4858,15.2723,-71.6555,5.64,4.2135,1.9706,12.0959,8.375,5.1986,-17.2434,22.9345,
-13.3017,1.9185,0.98507,-76.854,3.9412,-56.6555,2.9561,-10.7865,16.9706,-0.98507,11.8236,-9.8014,-26.6034,9.8526,
1.6983,16.9185,0.49253,-61.854,6.4048,-41.6555,-12.0439,-0.49253,17.2424,4.4337,-0.49253,-8.375,-35.9644,14.2872,
10.3456,1.9185,-14.5075,-76.854,-1.4781,-46.8024,-27.0439,10.3456,2.2424,13.3017,3.4482,6.625,-31.0376,28.0815,
0.98507,14.7798,-0.98507,-91.854,2.9561,-57.148,-12.0439,-3.9412,17.2424,-1.6983,14.7798,-8.375,-20.6911,23.6473,
5.4193,-0.22023,-15.9851,-106.854,2.4631,-72.148,-18.228,6.4043,2.2424,10.3456,3.4482,1.4781,-27.0964,24.1403,
-9.5807,14.7798,-0.98507,-99.5158,17.4631,-64.0449,-3.228,-8.5957,17.2424,-1.9706,9.853,-13.5219,-25.6179,12.8092,
5.4193,19.706,0,-84.5158,12.8087,-49.0449,-11.8236,0,2.2424,-1.9701,-5.147,-10.8386,-20.6911,24.6333,
3.4487,4.706,-12.3162,-69.5158,2.4636,-34.0449,-19.2135,0.49253,-1.4776,9.361,5.4197,-0.49253,-18.2284,28.081,
-5.4193,19.706,2.6838,-84.5158,17.4636,-49.0449,-4.2135,-14.2868,13.5224,-5.639,10.3456,-15.4925,-33.2284,13.081,
9.5807,15.7648,-12.3162,-99.5158,18.721,-64.0449,-19.2135,0.71323,-1.4776,9.361,-4.6544,-0.49253,-28.574,28.081,
-5.4193,3.4482,-2.4631,-114.5158,9.3605,-79.0449,-13.3017,2.4631,-16.4776,6.4043,6.4043,14.5075,-13.574,22.1692,
-1.4781,12.3157,-12.3166,-99.5158,1.4781,-64.0449,-10.3465,-12.3166,-1.4776,-2.4631,8.3745,-0.49253,-28.574,13.3017,
13.5219,-2.6843,-25.1253,-84.5158,13.3012,-49.0449,-25.3465,2.6834,-2.4636,12.5369,1.4776,14.5075,-17.2429,28.3017,
-1.4781,12.3157,-10.1253,-99.5158,11.3316,-64.0449,-10.3465,-5.4193,11.3316,2.4631,-3.4482,8.3754,-23.1543,13.3017,
13.5219,17.7354,-8.868,-114.5158,6.8969,-79.0449,-25.3465,9.5807,-3.6684,17.4631,-6.8969,23.3754,-38.1543,22.6617,
-0.49253,16.2574,-5.4188,-129.5158,8.375,-94.0449,-10.3465,6.4048,-18.6684,20.1986,-2.4636,16.2574,-39.9046,19.2135,
3.4487,1.2574,-18.2284,-114.5158,2.4636,-79.0449,-11.3311,-0.49253,-3.6684,9.36,-6.4048,10.346,-30.0521,13.3012,
14.2872,-13.7426,-21.1841,-99.5158,6.4048,-64.0449,-26.3311,14.5075,-12.3166,24.36,8.5952,25.346,-15.0521,28.3012,
-0.71277,1.2574,-6.1841,-84.5158,8.3754,-49.0449,-11.3311,0.493,2.6834,9.36,-0.493,10.346,-21.1841,13.3012,
14.2872,15.7648,-11.8236,-99.5158,11.8236,-64.0449,-25.6183,15.493,-12.3166,24.36,-15.493,25.346,-16.7504,28.3012,
7.8829,1.9706,-1.9706,-114.5158,6.8978,-79.0449,-15.7644,3.9417,-20.6906,25.6188,-7.8819,27.5889,-16.7494,23.6477,
8.375,16.9706,0.49253,-99.5158,-1.4785,-64.0449,-0.76437,-3.4487,-5.6906,10.6188,-22.8819,12.5889,-31.7494,8.6477,
23.375,1.9706,-13.3017,-84.5158,13.5215,-49.0449,-15.7644,11.5513,-20.6906,25.6188,-7.8819,27.5889,-19.2135,23.6477,
8.375,1.4785,-0.49253,-79.3172,12.3162,-63.5523,-1.4776,-3.4487,-5.6906,10.6188,-7.3899,12.5889,-34.2135,8.6477,
23.375,10.3456,-5.4193,-94.3172,5.4193,-78.5523,-16.4776,11.5513,-20.6906,25.6188,-22.3899,27.5889,-43.8463,23.6477,
25.6181,2.9559,-8.8677,-109.3172,15.7646,-93.5523,-25.6181,23.647,-32.515,40.6188,-7.3899,42.5889,-29.5593,38.6477,
10.6181,17.9559,-5.4193,-94.3172,8.3754,-78.5523,-10.6181,8.647,-17.515,25.6188,-11.3306,27.5889,-36.949,23.6477,
25.6181,2.9559,-7.3897,-96.0673,11.3309,-92.1261,-23.155,23.647,-32.515,40.6188,-0.49277,42.5889,-21.949,34.9781,
10.6181,4.4342,-1.4781,-106.9061,-3.6691,-81.2878,-8.3754,8.647,-17.515,25.6188,-11.3306,27.5889,-36.949,19.9781,
25.6181,10.8383,-11.8234,-121.9061,11.3309,-96.2878,-23.3754,23.647,-19.7058,40.6188,-10.8383,41.3829,-24.6326,34.9781,
34.9781,-1.4778,-8.3752,-136.465,24.1405,-111.2878,-26.1106,35.9641,-19.2133,50.743,1.4778,39.9053,-9.6326,35.9641,
19.9781,13.5222,6.6248,-121.465,9.1405,-96.2878,-11.1106,20.9641,-4.2133,35.743,-8.868,24.9053,-24.6326,20.9641,
34.9781,17.2434,-3.4487,-106.465,3.4487,-111.2878,-26.1106,35.9641,-19.2133,50.743,-6.4043,39.9053,-38.9196,35.9641,
19.9781,11.8236,-0.98507,-91.465,-11.5513,-101.4868,-31.5297,20.9641,-4.2133,35.743,-21.4043,24.9053,-45.3244,20.9641,
29.5591,14.7793,2.9557,-76.465,-2.9557,-86.4868,-37.4415,24.6328,-19.2133,33.5003,-27.5885,25.6179,-35.4709,18.7214,
14.5591,3.9412,-3.9412,-61.465,0.98507,-71.4868,-26.6034,22.6622,-4.2133,36.4569,-12.5885,38.427,-26.6034,23.6473,
7.3899,18.9412,6.4048,-46.465,-0.49253,-56.4868,-11.6034,7.6622,10.7867,21.4569,-5.4197,23.427,-35.9634,8.6473,
22.3899,7.8824,-8.5952,-61.465,5.9118,-71.4868,-26.6034,22.6622,-4.2133,36.4569,-5.9118,38.427,-20.9634,23.6473,
7.3899,4.9272,0,-76.465,0,-86.4868,-11.6034,7.6622,3.9412,21.4569,-12.8087,23.427,-30.5446,8.6473,
14.7788,19.9272,-3.9412,-61.465,0,-71.4868,-3.9412,-0.98601,8.8675,6.4569,-24.6333,8.427,-45.5446,0,
29.7788,11.8236,-16.7508,-46.465,-3.9412,-56.4868,-18.9412,14.014,-6.1325,21.4569,-11.8241,23.427,-30.5446,15,
14.7788,26.8236,-1.7508,-61.465,-6.4043,-67.4936,-15.2718,-0.98601,8.8675,12.3166,-3.4482,8.427,-26.1104,2.4631,
25.1258,25.1258,0.49253,-76.465,-0.49253,-82.4936,-30.0516,14.014,-6.1325,27.3166,-5.4188,23.427,-19.2135,17.4631,
10.1258,38.427,15.4925,-73.8984,-8.8675,-67.4936,-15.0516,-0.98601,8.8675,12.3166,-1.9711,8.427,-30.5446,2.4631,
24.1403,44.8314,16.2578,-58.8984,-15.2718,-52.4936,-3.4482,1.4781,-2.4631,2.4631,-16.2569,-4.4333,-41.8752,-1.4781,
25.1253,29.8314,1.2578,-43.8984,-9.3605,-37.4936,-18.4482,16.4781,-17.4631,17.4631,-5.4193,10.5667,-26.8752,13.5219,
15.2718,14.8314,-6.4043,-28.8984,-14.2872,-37.9345,-33.4482,18.228,-17.2429,30.0516,-11.3306,25.5667,-26.1109,21.1841,
8.3754,11.3316,-3.4482,-13.8984,-16.2578,-39.9051,-27.0955,10.3456,-13.3017,19.214,-13.3017,18.228,-33.0077,13.3017,
5.4188,19.2135,3.4487,-3.4487,-14.2872,-36.9494,-14.2872,6.4039,-4.4347,13.3012,-12.3171,13.3012,-35.9644,9.36,
0,25.6183,8.8684,-11.8236,-13.7938,-36.456,-2.9552,0,0.986,3.9412,-12.8087,5.9123,-42.3682,2.9561,
-0.49253,35.9634,18.2284,-16.2574,-9.361,-31.0371,12.0448,-2.4636,11.3311,0.49253,-9.361,3.4487,-42.8608,2.4627,
0.49253,49.7581,29.0661,-18.2284,-2.4636,-24.1398,27.0448,-1.4785,24.1398,-0.49253,-2.4636,3.4487,-40.8906,3.4487,
15.4925,34.7581,14.0661,-33.2284,-7.3894,-39.1398,12.0448,13.5215,9.1398,14.5075,-2.4631,18.4487,-25.8906,18.4487,
0.49253,19.7581,1.9711,-48.2284,0.98507,-54.1398,-2.9552,12.8096,-5.8602,24.6333,-2.9561,20.6921,-10.8906,23.6473,
5.4193,26.1104,-1.4781,-33.2284,-7.3904,-39.1398,5.4193,-2.1904,9.1398,9.6333,-17.9561,5.6921,-25.8906,8.6473,
20.4193,11.1104,-9.8535,-18.2284,-7.8829,-24.1398,-9.5807,12.8096,-5.8602,24.6333,-2.9561,20.6921,-19.7065,23.6473,
5.4193,21.6767,5.1465,-33.2284,-1.9706,-39.1398,5.4193,-2.1904,9.1398,9.6333,4.9267,5.6921,-20.6916,8.6473,
20.4193,20.1986,0.49253,-48.2284,-0.49253,-54.1398,-8.375,12.8096,-5.8602,16.2574,-10.0733,7.3899,-28.081,8.375,
8.868,20.6916,1.9706,-63.2284,-7.8819,-69.1398,-6.8969,15.7653,-13.7942,23.6477,-1.9706,14.7802,-23.6468,11.8241,
4.9263,35.6916,16.9706,-48.2284,-11.8236,-54.1398,8.1031,0.76531,1.2058,8.6477,-6.8973,-0.21976,-38.427,0,
19.9263,20.6916,1.9706,-63.2284,3.1764,-69.1398,-6.8969,15.7653,-4.434,23.6477,0.49277,14.7802,-23.427,15,
4.9263,13.3012,10.346,-78.2284,-1.4776,-72.4203,8.1031,0.76531,10.566,8.6477,-0.49253,3.4487,-31.0371,0.49253,
19.9263,17.7359,9.8535,-93.2284,-6.8974,-87.4203,-3.9412,3.9412,-4.434,9.8535,-14.7798,5.9123,-33.5007,6.8974,
9.853,11.8241,14.7802,-91.6333,-5.9118,-78.8242,-6.8969,5.9118,-9.853,16.7504,-15.7644,13.7942,-24.6328,16.7504,
12.8096,26.8241,29.7802,-76.6333,0,-63.8242,8.1031,-4.9263,5.147,1.7504,-15.7648,0,-34.4858,4.9272,
27.8096,11.8241,14.7802,-91.6333,1.9706,-78.8242,-6.8969,10.0737,-9.853,16.7504,-4.9258,15,-27.5885,17.7354,
12.8096,24.1403,27.0964,-76.6333,13.3017,-63.8242,8.1031,-4.9263,5.147,1.7504,-0.493,0,-23.1543,2.7354,
24.6323,24.6323,12.0964,-91.6333,0.98507,-74.8834,1.9701,6.8974,-9.853,1.9701,-15.493,-0.98507,-38.1543,8.8675,
27.5889,9.6323,-2.9036,-102.4719,12.8092,-81.7808,-1.9706,21.8974,-24.853,16.9701,-14.7798,14.0149,-23.1543,23.8675,
12.5889,24.6323,12.0964,-87.4719,16.2578,-66.7808,13.0294,6.8974,-9.853,1.9701,0.22023,-0.98507,-22.1692,8.8675,
27.5889,9.6323,-2.9036,-102.4719,2.9557,-81.7808,-1.9706,19.7065,-24.853,16.9701,-13.7942,14.0149,-17.7354,18.7205,
12.5889,24.6323,12.0964,-87.4719,-2.4636,-66.7808,13.0294,4.7065,-9.853,1.9701,-4.4337,0.49253,-17.2434,6.4039,
27.5889,25.6179,0.98554,-72.4719,-13.7942,-51.7808,-1.9706,13.7942,-9.853,12.8092,-13.7942,-0.98554,-32.2434,12.8092,
36.949,10.6179,-3.4487,-57.4719,1.2058,-38.9196,-16.9706,28.7942,-6.4043,27.8092,1.2058,14.0145,-17.2434,27.8092,
21.949,25.6179,11.5513,-64.0454,0,-49.2656,-1.9706,13.7942,8.5957,12.8092,16.2058,-0.98554,-18.721,12.8092,
36.949,10.6179,-2.9557,-79.0454,-0.98554,-64.2656,-13.7942,25.6179,-6.4043,27.5889,1.2058,14.0145,-13.7942,23.6477,
21.949,-2.4631,3.4482,-94.0454,-9.3605,-79.2656,1.2058,10.6179,6.4043,12.5889,8.3754,4.4342,-25.1253,8.6477,
6.949,12.5369,1.9711,-79.0454,-14.7798,-64.2656,0,-4.3821,8.8684,-2.4111,0,-10.5658,-38.427,-6.3523,
21.949,9.853,-8.868,-64.0454,-6.8969,-49.2656,-15,10.6179,-6.1316,12.5889,-6.8969,4.4342,-23.427,8.6477,
12.3166,24.853,6.132,-74.3909,0.493,-54.6849,0,-4.3821,-0.493,-2.4111,-7.3894,2.4631,-26.1104,7.3894,
27.3166,15.2718,-3.4491,-89.3909,1.4781,-69.6849,-15,10.6179,-15.493,12.5889,-1.4781,17.4631,-13.3017,22.3894,
12.3166,17.7354,5.9118,-104.3909,1.9706,-84.6849,-8.868,-2.9557,-2.9557,12.8092,13.5219,15.7653,-1.9706,10.839,
6.8964,20.6911,-6.8974,-89.3909,-1.9711,-69.6849,-3.9412,-5.9123,0,0,0.98507,4.9263,-16.9706,9.8526,
20.6916,5.6911,-19.706,-74.3909,5.9118,-54.6849,-16.7504,9.0877,-15,15,9.853,19.9263,-12.8092,24.8526,
5.6916,20.6911,-4.706,-74.3909,-2.4636,-40.8906,-1.7504,-3.4487,0,8.375,2.4627,4.9263,-23.1547,9.8526,
16.2578,18.228,-1.4781,-89.3909,1.4781,-55.8906,-16.7504,11.5513,-15,22.1692,-5.4193,17.2429,-25.1253,24.8526,
21.6769,3.228,-9.8533,-104.3909,9.8528,-70.8906,-19.7063,26.5513,-30,37.1692,4.9265,32.2429,-11.8239,39.8526,
27.0959,14.2872,-14.2872,-89.3909,0.49253,-55.8906,-16.2574,22.1697,-15,28.081,-0.49253,32.0222,-13.3012,28.081,
14.7798,0,-21.6766,-74.3909,-8.8675,-40.8906,-31.2574,22.6622,-19.706,29.5595,0,32.5157,-4.9263,26.6034,
-0.22023,15,-6.6766,-59.3909,0.98507,-35.4709,-16.2574,7.6622,-4.706,14.5595,-0.98507,17.5157,-11.8236,11.6034,
12.3162,28.081,0.49253,-74.3909,-0.49253,-50.4709,-2.4636,5.4188,-19.706,11.3311,-12.3162,4.4337,-26.8236,2.4636,
-2.6838,13.081,-1.9706,-89.3909,4.9267,-65.4709,-10.8381,1.9706,-4.706,16.7504,2.6838,11.8241,-24.6328,13.7942,
-6.8969,28.081,5.9118,-74.3909,-3.9407,-50.4709,-17.7354,-1.9706,10.294,1.9706,4.9267,1.9706,-30.5441,3.9417,
8.1031,13.081,-5.4188,-84.2439,-3.4487,-53.6993,-32.7354,13.0294,-4.706,16.9706,3.4487,16.9706,-15.5441,18.9417,
-6.8969,19.2135,9.5812,-77.3466,-0.49253,-43.8458,-17.7354,-1.9706,10.294,1.9706,18.4487,1.9706,-6.4039,3.9417,
6.8974,10.8386,-5.4188,-92.3466,-6.8974,-58.8458,-31.5297,11.8236,-4.706,16.9706,6.8974,14.7798,-17.7359,17.7359,
-3.4487,10.346,3.4487,-107.3466,-9.361,-73.8458,-16.5297,5.4188,-7.3899,22.1697,4.4337,24.1398,-17.2434,12.3162,
-1.9701,25.346,18.4487,-92.3466,1.9711,-58.8458,-1.5297,-9.5812,7.6101,7.1697,7.8824,9.1398,-27.5885,-0.98507,
9.3605,10.346,3.4487,-107.3466,-2.4631,-73.8458,-16.5297,5.4188,-7.3899,22.1697,-4.4342,18.228,-21.1841,14.0149,
-5.6395,25.346,18.4487,-92.3466,1.9706,-58.8458,-1.5297,-9.5812,7.6101,7.1697,10.5658,3.228,-6.1841,-0.98507,
2.9557,34.4853,3.9407,-77.3466,-10.839,-52.2213,2.9557,-8.868,22.6101,9.853,-4.4342,-1.9706,-15.7653,1.9706,
-0.49253,19.4853,-9.361,-66.5085,0.49253,-57.6405,-12.0443,6.132,18.2284,24.1398,-3.4487,13.0294,-13.3022,16.2574,
0.49253,34.4853,5.639,-51.5085,15.4925,-42.6405,2.9557,-8.868,33.2284,9.1398,11.5513,-1.9706,-0.49253,1.2574,
15.4925,19.4853,-9.361,-66.5085,0.49253,-57.6405,-12.0443,6.132,18.2284,24.1398,3.9412,13.0294,-3.9412,16.2574,
0.49253,8.868,-7.882,-81.5085,-14.5075,-72.6405,-0.98554,0.98554,3.2284,17.7354,6.8969,8.868,-12.8092,3.9417,
6.4048,22.1697,-14.2872,-66.5085,-4.4337,-57.6405,-15.9855,10.346,-11.3311,21.1836,-8.1031,23.1547,-15.2723,6.4048,
-1.4776,7.1697,-20.1986,-51.5085,-5.4188,-42.6405,-25.1253,9.36,1.4776,29.067,1.4776,27.0959,-9.36,10.346,
0,22.1697,-5.1986,-64.0454,0,-57.148,-10.1253,-4.9272,16.4776,14.067,15.7648,12.0959,-14.7798,-1.9711,
15,7.1697,-20.1986,-79.0454,5.912,-72.148,-25.1253,10.0728,1.4776,29.067,0.76484,27.0959,-10.8383,13.0289,
0,22.1697,-5.1986,-94.0454,-1.4781,-87.148,-10.1253,2.4631,8.3745,15.2718,1.4781,12.3157,-22.1701,-1.9711,
6.4043,28.0815,-11.3306,-79.0454,-16.4781,-72.148,-9.3605,2.4631,-6.4043,10.3456,-5.4193,5.4193,-35.9639,-1.4781,
21.4043,13.0815,-20.6916,-64.0454,-1.4781,-57.148,-24.3605,17.4631,-21.4043,25.3456,9.5807,20.4193,-20.9639,13.5219,
6.4043,28.0815,-5.6916,-51.2362,-5.9118,-42.148,-9.3605,2.4631,-6.4043,10.3456,-0.98554,5.4193,-15.7644,2.9557,
21.4043,16.2576,-20.6916,-66.2362,-7.3896,-57.148,-24.3605,17.4631,-21.4043,25.3456,3.4484,20.4193,-3.4484,17.9557,
6.4043,5.9118,-31.5301,-81.2362,-5.9118,-72.148,-38.427,16.7504,-6.4043,22.6617,18.4484,35.4193,2.9557,20.6916,
-5.4188,20.9118,-21.1846,-66.2362,-8.375,-57.148,-23.427,7.3899,-9.36,9.36,3.4484,20.4193,-12.0443,10.346,
9.5812,7.8827,-13.7945,-51.2362,-8.8677,-42.148,-16.7501,22.3899,-24.36,24.36,-7.8827,35.4193,-12.8089,25.346,
-5.4188,22.8827,1.2055,-36.2362,-3.9412,-27.148,-1.7501,7.3899,-9.36,9.36,7.1173,20.4193,-10.8386,10.346,
9.5812,7.8827,-13.7945,-51.2362,3.9412,-42.148,-16.7501,22.3899,-24.36,24.36,-3.9412,32.5147,-5.9123,25.346,
-5.4188,7.8824,1.2055,-66.2362,0,-57.148,-1.7501,7.3899,-9.36,9.36,-2.9561,17.5147,-20.6911,10.346,
-2.4631,22.8824,11.3306,-51.2362,-0.493,-42.148,13.2499,-7.6101,5.64,-5.64,0.493,2.5147,-30.0516,-4.654,
-1.4776,7.8824,-3.6694,-36.2362,-15.2723,-27.148,-1.7501,7.3899,-9.36,7.3899,-14.507,13.3022,-28.0815,6.4048,
-12.3166,22.8824,11.3306,-21.2362,-0.2723,-12.148,13.2499,-7.3904,5.64,-5.4193,0.493,-1.6978,-13.3017,-2.4631,
2.6834,15.2723,-3.6694,-36.2362,0.49253,-27.148,-1.7501,7.6096,-9.36,9.5807,-0.49253,13.3022,-18.2284,12.5369,
-2.4631,16.2578,-6.4043,-51.2362,-2.4631,-42.148,-4.4342,2.4631,4.4342,21.1841,8.3754,15.2718,-24.1403,8.3754,
-5.4193,31.2578,2.4631,-36.2362,-9.3605,-27.148,10.5658,-4.4342,19.4342,6.1841,-2.4631,0.27183,-32.0227,-6.6246,
9.5807,16.2578,-12.5369,-21.2362,-5.9118,-37.442,-4.4342,10.5658,4.4342,21.1841,12.5369,15.2718,-17.0227,8.3754,
-5.4193,31.2578,2.4631,-6.2362,-11.8236,-22.442,10.5658,-4.4342,19.4342,6.1841,17.7359,0.27183,-31.5297,-6.6246,
9.5807,29.5595,-2.9561,-21.2362,-14.7798,-37.442,-4.4342,9.8535,4.4342,5.9123,2.9561,5.9123,-33.5007,3.9412,
7.882,14.5595,-6.8969,-36.2362,-15.7653,-52.442,-19.4342,20.6916,-10.5658,20.9123,6.8969,20.9123,-18.5007,17.7354,
1.4785,29.5595,-0.49253,-21.2362,-20.1986,-37.442,-25.1249,5.6916,4.4337,12.3162,-8.1031,5.9123,-24.1398,2.7354,
16.4785,14.5595,-15.4925,-36.2362,-5.1986,-52.442,-40.1249,20.6916,-10.5663,27.3162,6.8969,20.9123,-10.3458,17.7354,
21.1846,5.4193,-8.375,-51.2362,-5.4193,-67.442,-28.0815,30.0521,-12.3162,38.9196,21.1846,35.9123,-13.3017,28.081,
36.1846,-4.9267,-22.6622,-66.2362,0,-82.442,-43.0815,45.0521,-27.3162,53.9196,6.8969,50.9123,0,41.3827,
49.7579,-19.9267,-20.1988,-81.2362,-0.49277,-97.442,-58.0815,60.0521,-42.3162,68.4789,7.3897,65.9123,0.49277,42.861,
48.2805,-4.9267,-5.1988,-86.7071,-3.9412,-91.6333,-43.0815,46.3094,-40.3976,53.4789,0,50.9123,-14.5072,36.4569,
63.2805,-19.9267,-20.1988,-101.7071,-0.49277,-106.6333,-58.0815,61.3094,-55.3976,68.4789,0.49277,65.9123,0.49277,51.4569,
48.2805,-4.9267,-5.1988,-86.7071,-1.4776,-91.6333,-43.0815,46.3094,-40.3976,53.4789,14.2872,50.9123,-9.36,36.4569,
33.2805,10.0733,-7.8824,-71.7071,0,-76.6333,-28.0815,31.3094,-25.3976,38.4789,0,35.9123,-24.36,21.4569,
26.6032,-2.9559,-10.8383,-56.7071,3.9414,-61.6333,-31.5299,31.5304,-40.3976,38.4268,2.9559,44.3391,-10.8383,36.4569,
11.6032,12.0441,1.4776,-54.6849,-5.4197,-46.6333,-16.5299,16.5304,-25.3976,23.4268,0.49253,29.3391,-25.1258,21.4569,
26.6032,-0.9853,-13.5224,-69.6849,1.9708,-61.6333,-31.5299,31.5304,-40.3976,38.4268,0.9853,44.3391,-17.7357,23.6475,
11.6032,7.8824,0.98507,-56.1625,-13.0292,-61.0892,-17.7359,16.5304,-25.3976,23.4268,-0.98507,29.3391,-25.6183,8.6475,
8.8684,12.8096,-11.8236,-41.1625,-21.6762,-49.2651,-28.5735,11.8246,-22.6612,8.8684,0,14.3391,-31.5297,0,
0.493,11.3306,-6.4043,-26.1625,-6.6762,-39.9051,-30.0521,19.213,-7.6612,23.8684,15,22.1692,-26.1109,-0.493,
-11.8236,26.3306,8.5957,-11.1625,-3.9412,-24.9051,-15.0521,4.213,7.3388,8.8684,3.9412,7.1692,-38.427,-15.493,
3.1764,19.2135,-6.4043,-26.1625,-10.346,-39.9051,-23.1547,19.213,-7.6612,23.8684,6.4048,22.1692,-23.427,-0.493,
-11.8236,14.2872,0.49253,-38.9196,-14.2872,-33.9933,-8.1547,4.213,7.3388,17.2424,21.4048,7.1692,-20.1986,0.49253,
-1.9706,29.2872,10.839,-23.9196,-9.853,-18.9933,-11.8232,-6.8969,19.7065,6.8978,6.4048,-7.8308,-34.4853,-4.9267,
5.9113,14.2872,0,-8.9196,-16.7508,-26.6039,-26.8232,8.1031,4.7065,21.8978,0,7.1692,-20.6921,9.8526,
-9.0887,29.2872,15,6.0804,-12.8092,-11.6039,-11.8232,-6.8969,19.7065,6.8978,12.8092,-7.8308,-23.6468,-5.1474,
5.4197,24.1398,0,-8.9196,-3.4487,-26.6039,-26.8232,7.3899,4.7065,14.2872,7.3899,6.4048,-18.2284,3.4487,
-9.5803,29.067,4.4337,-23.9196,1.4776,-30.0521,-11.8232,-3.4487,19.7065,8.375,15.2723,-1.4776,-10.346,2.4636,
-8.3754,29.0665,2.4631,-8.9196,-7.3904,-15.0521,3.1768,-10.3456,17.2429,-1.4781,1.4781,-9.3605,-25.346,-10.3456,
6.6246,14.0665,-10.8381,-0.98554,-2.9557,-30.0521,-11.8232,4.6544,2.2429,13.5219,14.7793,5.6395,-18.721,4.6544,
-8.3754,29.0665,4.1619,14.0145,-10.3456,-15.0521,3.1768,-10.3456,17.2429,-1.4781,15.2728,-9.3605,-26.1104,-10.3456,
6.6246,30.0525,-2.4631,-0.98554,-5.4193,-30.0521,-11.8232,4.6544,2.2429,13.3017,2.4631,5.6395,-18.228,4.6544,
-8.3754,15.0525,4.9263,-15.9855,2.9561,-45.0521,-6.8974,-2.9561,17.2429,2.9561,13.7947,2.9561,-17.7359,-2.9561,
-16.2578,30.0525,10.3456,-0.98554,-2.4631,-30.0521,2.4631,-17.9561,31.0376,-12.0439,2.4631,-12.0439,-32.7359,-11.3306,
-1.2578,15.0525,-4.6544,13.7938,-3.9412,-44.3393,-12.5369,-2.9561,16.0376,2.9561,0,2.9561,-31.5297,3.6694,
-16.2578,30.0525,10.3456,28.7938,4.9267,-29.3393,2.4631,-17.9561,31.0376,-5.9118,15,-11.8241,-16.5297,-10.839,
-1.2578,15.0525,-4.6544,13.7938,-10.0733,-44.3393,-10.346,-2.9561,16.0376,7.3899,6.4048,-0.49253,-26.1109,4.161,
-16.2578,18.2284,10.3456,-1.2062,-3.4487,-38.9196,4.654,-7.3899,31.0376,5.4188,13.3012,-4.4337,-27.0959,3.4487,
-21.6771,33.2284,21.6771,13.7938,0.98507,-23.9196,11.8236,-16.7499,40.3981,-9.5812,-0.98507,-19.4337,-27.5885,-11.5513,
-6.6771,18.2284,6.6771,-1.2062,2.4631,-30.0521,-3.1764,-1.7499,25.3981,5.4188,-2.4631,-4.4337,-12.5885,3.4487,
-21.6771,29.0665,8.3754,13.7938,1.4781,-15.0521,11.8236,-16.7499,40.3981,-9.5812,-1.4781,-19.4337,-24.1393,-11.5513,
-6.6771,37.4415,8.868,-1.2062,13.7942,-0.98554,4.9267,-4.9267,25.3981,-3.9407,0.98554,-6.8969,-18.7205,-6.8969,
-10.3456,22.4415,3.4482,-16.2062,-0.493,-11.3306,-10.0733,0.493,18.228,11.0593,11.3306,7.3894,-15.2728,-1.4781,
-25.3456,37.4415,4.9267,-1.2062,-4.9267,3.6694,4.9267,-14.507,33.228,-3.9407,6.8969,-7.6106,-25.6179,-13.7942,
-10.3456,22.4415,-10.0733,-16.2062,6.4048,-11.3306,-7.3899,-0.49253,18.228,11.0593,5.4197,0.49253,-15.2723,1.2058,
-25.3456,34.4853,2.9557,-1.2062,-2.9557,3.6694,7.6101,-15.4925,33.228,-3.9407,2.9557,-14.5075,-27.5889,-13.7942,
-10.3456,38.9196,3.4487,13.7938,0.49253,-11.3306,-7.3899,-0.49253,18.228,1.4776,3.4487,-8.375,-23.1547,-3.4487,
-23.1547,24.1398,12.3162,28.7938,-3.4487,-3.4487,5.4188,-6.4048,6.4048,-0.49253,13.3012,0.49253,-17.2424,-0.49253,
-24.6323,39.1398,27.3162,43.7938,-0.98507,11.5513,20.4188,-21.4048,21.4048,-15.4925,0.98507,-14.5075,-32.2424,-15.4925,
-9.6323,24.1398,12.3162,28.7938,6.4043,-3.4487,5.4188,-6.4048,6.4048,-0.49253,-6.4043,0.49253,-18.228,-0.49253,
-24.6323,25.1253,-0.493,13.7938,5.4193,0.493,1.4781,-13.3017,21.4048,2.4631,8.5957,-1.4781,-3.228,-3.4482,
-9.6323,38.4266,-2.9566,28.7938,-2.9566,15.493,-2.9566,-5.9118,35.4704,12.8092,14.7793,0.98554,-18.228,-0.98554,
-7.3894,23.4266,-12.3166,13.7938,2.4631,0.493,-17.9566,-5.4193,20.4704,16.2578,5.4193,10.3456,-24.1403,1.4781,
-22.3894,24.6328,2.6834,-0.98554,0.98554,3.9407,-2.9566,-20.4193,35.4704,1.2578,6.8969,-4.6544,-27.5889,-13.5219,
-7.3894,14.2868,-11.3316,-15.9855,-1.4781,-11.0593,-8.3754,-5.4193,20.4704,11.3306,10.3456,10.3456,-12.5889,1.4781,
-19.2135,29.2868,3.6684,-10.346,7.3899,0.49253,6.6246,-12.3171,35.4704,-0.49253,21.1836,-4.6544,-3.4487,-13.5219,
-4.2135,40.3981,2.9561,4.654,2.9561,5.9123,-5.9123,-14.7798,20.4704,-11.8236,6.1836,-19.6544,-18.4487,-13.7947,
-3.4487,25.3981,-12.0439,1.4776,-1.4776,-9.0877,-20.9123,0.22023,5.4704,3.1764,14.2872,-4.6544,-11.3311,1.2053,
-18.4487,36.4569,2.9561,0.98507,-0.98507,-14.7798,-5.9123,-14.7798,20.4704,0.98507,18.721,-9.8526,-16.7499,-13.7947,
-3.4487,25.1258,-9.36,-14.0149,0.49253,-29.7798,-20.9123,0.22023,5.4704,15.9851,3.721,5.1474,-19.2135,1.2053,
-17.2434,40.1258,5.64,-22.1697,8.375,-14.7798,-5.9123,-11.3311,20.4704,3.4487,17.2424,-8.3759,-7.3899,-3.4487,
-13.3017,49.7576,-1.4781,-7.1697,2.4631,0.22023,1.4781,-15.2728,35.4704,-1.4781,17.2429,-12.3166,-20.1991,-12.3166,
-1.4781,34.7576,-16.4781,7.8303,-0.493,-14.7798,-13.5219,-0.27277,20.4704,13.5219,16.2578,2.6834,-22.1692,-3.4482,
-16.4781,36.9494,-1.4781,22.8303,-4.4337,0.22023,1.4781,-15.2728,35.4704,-1.4781,4.4337,-12.3166,-32.0222,-18.4482,
-1.4781,23.1547,-10.3451,7.8303,2.4636,-14.7798,-13.5219,-0.49253,20.4704,3.4487,0.49253,2.4636,-22.1697,-3.4482,
-16.4781,22.6627,1.9706,-7.1697,6.8978,-29.7798,1.4781,-15.4925,35.4704,2.9566,14.7802,-1.9706,-21.6767,-11.8232,
-17.2429,37.6627,0.493,7.8303,-0.493,-14.7798,16.2578,-30.4925,47.7875,-12.0434,2.4631,-16.9706,-34.9788,-26.8232,
-2.2429,22.6627,-14.507,4.9263,8.8675,-29.7798,1.2578,-15.4925,32.7875,2.9566,8.8675,-1.9706,-19.9788,-11.8232,
-17.2429,24.6328,0.493,14.7793,16.7504,-14.7798,15.7644,-29.5591,47.7875,-12.0434,16.7504,-16.9706,-22.6627,-26.6039,
-2.2429,28.5735,-3.9412,-0.2207,11.8236,-29.7798,0.76437,-14.5591,32.7875,2.9566,6.8973,-1.9706,-22.6622,-11.6039,
-10.346,27.0959,-1.4785,-15.2207,6.4039,-33.0082,-0.49253,-10.346,24.1398,8.375,12.3162,8.375,-13.3022,0.49253,
-24.1398,42.0959,-0.49253,-0.2207,2.4636,-18.0082,14.5075,-24.1398,30.0521,-6.625,0.49253,-6.625,-26.1109,-14.5075,
-9.1398,27.0959,-15.4925,13.7947,2.9561,-31.5297,-0.49253,-9.1398,15.0521,8.375,10.8386,8.375,-11.1109,-3.9412,
-24.1398,35.9634,-0.49253,28.7947,-4.4337,-16.5297,14.5075,-24.1398,30.0521,-6.625,19.2135,-6.625,-11.3311,-18.9412,
-9.1398,33.9928,-11.3316,13.7947,0.493,-31.5297,-0.49253,-9.1398,15.0521,8.375,4.2135,8.375,-18.228,-3.9412,
-17.7359,18.9928,-3.9412,-1.2053,2.9561,-26.6034,11.8236,-3.9412,25.6183,11.8236,2.9561,13.7947,-15.7648,-2.9561,
-25.6183,33.9928,8.8675,13.7947,-3.9412,-11.6034,26.8236,-18.9412,40.6183,-3.1764,3.9412,-1.2053,-24.6323,-17.9561,
-10.6183,20.199,-6.1325,-1.2053,-2.4631,-26.6034,11.8236,-3.9412,25.6183,11.8236,6.4043,13.7947,-16.2578,-2.9561,
-25.6183,33.5012,1.9706,13.7947,-1.9706,-11.6034,16.7504,-18.9412,40.6183,-3.1764,10.839,-1.2053,-22.6617,-17.9561,
-10.6183,40.8906,-10.3451,28.7947,12.3171,3.3966,1.7504,-8.375,26.1109,-1.4776,3.4487,-1.4776,-20.1986,-7.3899,
2.4636,25.8906,-6.4048,19.2135,7.3899,-2.4636,-7.3899,-3.4487,11.1109,8.375,-5.4188,13.3012,-29.067,7.6101,
-4.9263,40.8906,8.5952,28.5745,10.8386,12.5364,7.6101,-18.4487,3.9412,-6.625,-3.9412,-1.6988,-42.3682,-7.3899,
1.9706,25.8906,-4.9267,13.5745,9.853,-2.4636,1.9706,-3.4487,-11.0588,2.9557,0.98554,11.8232,-27.3682,-7.8829,
-13.0294,40.8906,4.9267,28.5745,-1.9706,12.5364,16.9706,-18.4487,3.9412,-12.0443,1.9706,-3.1768,-14.7802,-22.8829,
1.9706,55.1769,-2.9561,43.5745,6.8964,27.5364,1.9706,-3.4487,-5.9123,2.9557,-7.8824,-1.9711,-10.8386,-7.8829,
-7.3894,40.1769,-17.9561,28.5745,3.4482,12.5364,-13.0294,1.4781,-2.4631,10.3456,-0.493,13.0289,-16.2578,0.493,
-22.3894,40.3972,-2.9561,43.5745,-3.9412,27.5364,1.9706,-13.5219,12.5369,-4.6544,3.9412,-1.9711,-27.5885,-14.507,
-7.3894,25.3972,-5.4188,28.5745,0.49253,12.5364,-5.4188,1.4781,-2.4631,10.3456,3.4487,13.0289,-12.5885,-0.49253,
-22.3894,36.456,9.5812,13.5745,-0.98507,0.98507,9.5812,-13.5219,12.5369,-4.6544,4.9263,-1.9711,-19.706,-15.4925,
-7.3894,51.456,8.375,28.5745,3.4487,15.9851,-0.49253,-14.2872,26.1099,-9.361,-4.4337,-5.4197,-24.1407,-12.3171,
7.6106,36.456,-6.625,13.5745,0,0.98507,-15.4925,0.71276,11.1099,5.639,0,9.5803,-15.7648,0.98507,
-7.3894,26.6034,0,2.9561,7.8824,0,-0.49253,-14.2872,26.1099,-5.9123,12.8087,-4.9263,-19.706,-14.0149,
7.6106,11.6034,-12.8092,-12.0439,4.9267,-15,-15.4925,0.71276,11.1099,9.0877,-0.98554,10.0737,-22.6617,0.98507,
-7.3894,11.8241,2.1908,-27.0439,7.8829,-20.6916,-0.49253,-14.2872,21.6766,-1.9706,7.8829,1.9706,-8.868,-11.8232,
4.9263,19.706,0.98507,-12.0439,9.8535,-5.6916,14.5075,-17.7359,6.6766,-3.9412,-0.98507,-5.9123,-14.7798,-13.7947,
-1.4781,4.706,-13.3017,2.9561,12.3166,-16.2578,-0.49253,-2.7359,-8.3234,6.4043,2.4631,9.0877,-12.3166,1.2053,
-16.4781,19.706,1.6983,17.9561,0.98554,-1.2578,14.5075,-17.7359,6.6766,-8.5957,-0.98554,-5.9123,-24.6328,-13.7947,
-1.4781,34.706,14.2868,2.9561,12.3166,-16.2578,23.1543,-16.2578,14.2868,-6.4043,6.4043,-5.4193,-9.6328,-9.3605,
-16.4781,33.5007,20.6921,17.9561,-2.6834,-1.2578,38.1543,-31.2578,29.2868,-21.4043,8.8675,-20.4193,-24.6323,-24.3605,
-31.4781,48.5007,35.6921,32.9561,-11.8236,13.7422,53.1543,-46.2578,44.2868,-36.4043,11.8236,-35.4193,-39.6323,-39.3605,
-46.4781,63.5007,50.6921,47.9561,-0.98507,28.7422,68.1543,-61.2578,59.2868,-51.4043,0.98507,-50.4193,-45.3244,-54.3605,
-61.4781,78.5007,61.5817,62.9561,7.3899,43.7422,83.1543,-76.2578,74.2868,-66.4043,-7.3899,-65.4193,-34.9783,-69.3605,
-46.4781,63.5007,46.5817,47.9561,9.36,28.7422,68.1543,-61.2578,59.2868,-51.4043,-2.4636,-50.4193,-20.1986,-54.3605,
-31.4781,48.5007,31.5817,32.9561,6.8969,13.7422,53.1543,-46.2578,44.2868,-36.4043,11.8232,-35.4193,-22.6627,-39.3605,
-16.4781,56.6555,16.5817,47.9561,9.36,28.7422,38.1543,-31.2578,29.2868,-21.4043,-3.1768,-22.1697,-32.0222,-24.3605,
-1.4781,41.6555,1.5817,32.9561,9.853,13.7422,23.1543,-16.2578,14.2868,-6.4043,-5.9118,-7.1697,-17.0222,-9.3605,
1.4781,26.6555,-13.4183,17.9561,19.213,-1.2578,8.1543,-7.3904,-0.71323,8.5957,9.0882,7.8303,-2.4631,5.6395,
16.4781,11.6555,-28.4183,2.9561,20.1991,-16.2578,-6.8457,7.6096,-15.7132,12.3166,1.4781,22.8303,-3.4482,18.228,
1.4781,-1.4781,-13.4183,-12.0439,9.3605,-13.3017,7.3894,-7.3894,-0.71323,5.4193,0.493,8.3754,-9.3605,4.4342,
4.4347,12.3171,-2.4627,-18.2275,5.4197,1.6983,16.2583,-6.4039,0.49253,-0.49253,-3.4487,-1.4776,-23.1547,0.49253,
19.4347,-2.6829,-17.4627,-33.2275,13.3015,-13.3017,1.2583,8.5961,-14.5075,14.5075,2.4634,13.5224,-8.1547,15.4925,
4.4347,-7.3899,-18.2275,-46.802,17.2434,-10.3451,1.4785,-6.4039,0.49253,-0.49253,11.3311,9.361,0.49253,4.4337,
19.4347,7.6101,-25.6183,-40.3972,7.8824,-25.3451,-13.5215,4.9263,-14.5075,9.8535,-3.6689,13.7947,-14.5075,5.9123,
10.839,-7.3899,-27.5885,-55.3972,5.9118,-40.3451,-28.5215,16.7504,-29.5075,22.6627,10.839,28.7947,-5.9118,19.7065,
-4.161,7.6101,-12.5885,-40.3972,5.4197,-25.3451,-13.5215,1.7504,-14.5075,7.6627,10.346,13.7947,-10.346,4.7065,
10.839,14.2872,-23.1547,-55.3972,0.49253,-40.3451,-28.5215,16.7504,-29.5075,22.6627,-0.49253,28.7947,-5.4188,17.2424,
-3.4487,29.2872,-8.1547,-40.3972,-0.49253,-25.3451,-13.5215,3.4487,-14.5075,13.3012,12.3162,15.2723,-7.3899,2.2424,
7.3899,25.1258,-14.2872,-25.3972,-0.49253,-11.3311,-27.0959,3.4487,-29.5075,3.4487,-2.6838,6.4048,-22.3899,0.49253,
3.4482,12.3166,-18.228,-11.3306,14.5075,-16.2578,-29.0665,13.3017,-40.8902,8.3754,-3.4482,21.4048,-10.3456,14.2868,
-5.4193,27.3166,-3.228,2.4631,17.2429,-1.2578,-14.0665,-1.6983,-25.8902,-6.6246,4.4342,6.4048,-9.3605,-0.71323,
9.5807,12.3166,-18.228,-12.5369,6.4048,-16.2578,-29.0665,13.3012,-32.0222,8.3754,-6.4048,20.1986,-19.2135,8.375,
-5.4193,22.6622,-3.228,-16.7499,10.8386,-1.2578,-14.0665,-1.6988,-17.0222,-6.6246,3.9412,5.1986,-21.6771,-6.625,
5.4193,22.1692,-11.3306,-1.7499,11.3306,-15.2718,0.493,-4.4342,-19.213,-9.3605,-0.493,6.4043,-19.213,0.493,
4.4342,7.1692,-26.3306,-16.2578,4.4342,-30.2718,-14.507,9.3605,-23.1543,5.6395,3.4482,20.199,-4.213,15.493,
-10.5658,22.1692,-11.3306,-1.2578,9.853,-15.2718,0.493,-5.6395,-8.1543,-9.3605,6.8969,5.199,-7.8829,0.493,
4.4342,7.1692,-26.3306,-16.2578,18.228,-30.2718,-14.507,9.3605,-23.1543,4.4342,-2.4631,18.228,-9.3605,13.3017,
