"AF3","AF4","F3","F4","F7","F8","FC5","FC6","O1","O2","P7","P8","T7","T8",
-11.6685,6.1115,37.2263,-387.2717,38.3384,-385.0492,-149.4635,0.55549,-297.2605,-9.4455,5.0005,-0.55549,19.4464,17.2244,
3.3315,-8.8885,22.2263,-402.2717,26.6699,-400.0492,-164.4635,15.5555,-312.2605,5.5545,3.334,14.4445,4.4464,32.2244,
-8.3339,-23.8885,7.2263,-417.2717,20.559,-415.0492,-179.4635,9.446,-327.2605,12.78,2.778,19.4469,8.335,17.2244,
3.3335,-8.8885,18.8914,-402.2717,16.6684,-400.0492,-164.4635,4.4445,-312.2605,-2.22,-10.0015,4.4469,-1.1115,5.5565,
18.3335,-7.223,3.8914,-387.2717,13.8899,-385.0492,-149.4635,19.4445,-297.2605,12.78,4.9985,19.4469,-13.891,20.5565,
3.3335,7.777,18.8914,-372.2717,28.8899,-370.0492,-162.799,4.4445,-287.259,-2.22,-2.778,7.223,1.109,10.557,
18.3335,-7.223,3.8914,-387.2717,30.0039,-385.0492,-177.799,19.4445,-302.259,12.224,-1.111,20.0019,1.111,15.5569,
3.3335,-22.223,-5.556,-402.2717,30.0039,-400.0492,-192.799,10.0009,-317.259,0,2.223,14.4459,8.89,8.89,
7.2235,-7.223,9.444,-395.0501,45.0039,-385.0492,-177.799,0.55549,-302.259,-15,-8.3345,-0.55407,20.5584,6.1125,
14.4465,-22.223,-5.556,-380.0501,30.0039,-370.0492,-162.799,15.5555,-287.259,0,3.3335,14.4459,5.5584,4.4445,
-0.55354,-7.223,9.444,-365.0501,45.0039,-355.0492,-147.799,2.2225,-272.259,-3.3335,15.5574,8.8905,20.5584,4.4455,
14.4465,-22.223,-5.556,-380.0501,30.0039,-370.0492,-162.799,17.2225,-287.259,11.6665,0.55744,21.1139,5.5584,17.7799,
-0.55354,-37.223,-20.556,-395.0501,15.0039,-385.0492,-177.799,18.8914,-302.259,11.1125,11.1125,20.0024,6.6675,14.4465,
-2.2225,-22.223,-5.556,-410.0501,26.6704,-400.0492,-162.799,3.8914,-287.259,-2.2225,6.6675,5.0024,21.1134,4.4445,
12.7775,-37.223,-20.556,-395.0501,11.6704,-385.0492,-177.799,18.8914,-272.259,12.7775,16.1135,20.0024,6.1134,19.4445,
-2.2225,-22.223,-5.556,-380.0501,26.6704,-370.0492,-162.799,3.8914,-257.259,1.6665,3.8895,9.4455,21.1134,11.6685,
12.7775,-7.223,-4.4455,-395.0501,17.7794,-385.0492,-177.799,15.5574,-272.259,7.7785,-1.1115,15.5574,6.1134,14.4465,
2.223,-22.223,-18.8909,-410.0501,12.224,-400.0492,-192.799,13.335,-287.259,11.113,11.113,30.0039,-2.223,7.779,
5.0005,-7.223,-3.8909,-425.0501,26.1144,-415.0492,-177.799,-1.665,-277.2576,-3.887,0.55549,15.0039,12.777,6.1115,
20.0005,-22.223,-18.8909,-422.2761,11.1144,-402.2731,-192.799,13.335,-287.8145,11.113,15.5555,30.0039,3.334,21.1115,
5.0005,-17.225,-3.8909,-407.2761,21.6689,-387.2731,-177.799,-1.665,-272.8145,6.112,25.0029,15.0039,18.334,6.1115,
17.7805,-8.8894,-15.5574,-422.2761,6.6689,-402.2731,-167.7989,10.0015,-287.8145,7.7785,10.0029,16.6684,3.334,11.1125,
3.8895,-23.8894,-30.5574,-437.2761,-3.8895,-417.2731,-182.7989,25.0015,-302.8145,22.7785,5.0005,31.6684,3.8895,21.6694,
-1.6665,-8.8894,-15.5574,-452.2761,11.1105,-432.2731,-176.1334,10.0015,-317.8145,7.7785,0.55549,16.6684,18.8895,11.6685,
13.3335,-23.8894,-19.4472,-467.2761,12.7797,-447.2731,-191.1334,25.0015,-332.8145,22.7785,12.7797,31.6684,3.8895,26.6685,
-0.55549,-25.0024,-4.4472,-452.2761,27.7797,-432.2731,-176.1334,10.0015,-317.8145,7.7785,18.3365,16.6684,15.0025,11.6685,
14.4445,-10.0024,8.3345,-438.389,13.8904,-435.0555,-161.1334,7.2235,-302.8145,-1.6665,3.3365,7.2235,0.0024816,-1.6665,
15.558,-25.0024,-4.445,-453.389,4.445,-450.0555,-146.1334,22.2235,-317.8145,13.3335,13.3349,22.2235,-14.9975,8.89,
7.779,-10.0024,10.555,-466.7259,19.445,-462.2809,-154.464,7.2235,-332.8145,-1.6665,3.334,7.2235,0.0024816,3.334,
22.779,-25.0024,-4.445,-481.7259,15.5574,-477.2809,-169.464,22.2235,-347.8145,13.3335,15.5574,22.2235,-14.9975,18.334,
7.779,-40.0024,-0.55602,-496.7259,27.2259,-492.2809,-184.464,7.2235,-332.8145,0.55602,17.225,17.225,0.0024816,3.334,
18.336,-25.0024,14.444,-481.7259,27.2259,-477.2809,-169.464,1.667,-317.8145,-0.55602,2.225,2.225,-5.001,0.55602,
22.2252,-40.0024,-0.55602,-466.7259,13.3352,-462.2809,-154.464,16.667,-302.8145,14.444,14.4462,17.225,-16.6687,15.556,
7.2252,-25.0024,14.444,-451.7259,28.3352,-447.2809,-169.464,1.667,-317.8145,3.8895,9.4455,18.3354,-1.6687,13.8904,
22.2252,-40.0024,-0.55602,-466.7259,18.8909,-462.2809,-184.464,16.667,-332.8145,18.8895,16.669,33.3354,-16.6687,28.8904,
7.2252,-55.0024,6.6675,-481.7259,23.3364,-477.2809,-199.464,13.3344,-347.8145,10.0004,6.6675,22.2244,-6.6675,13.8904,
2.223,-40.0024,18.8909,-466.7259,18.8909,-462.2809,-184.464,-1.111,-332.8145,1.111,-1.111,7.2244,-1.111,13.3349,
17.223,-33.8929,3.8909,-451.7259,3.8909,-447.2809,-169.464,13.889,-317.8145,16.111,13.889,22.2244,-1.667,28.3349,
2.223,-18.8929,18.8909,-436.7259,18.8909,-432.2809,-167.7994,-1.111,-302.8145,1.111,15.5569,11.1119,13.333,15.5569,
17.223,-33.8929,3.8909,-451.7259,8.3339,-447.2809,-182.7994,13.889,-317.8145,16.111,8.3339,26.1119,-1.667,30.5569,
2.223,-48.8929,-6.112,-466.7259,6.112,-462.2809,-197.7994,9.446,-332.8145,23.8919,13.891,30.5599,9.446,17.225,
0.55549,-33.8929,8.888,-451.7259,10.5564,-447.2809,-182.7994,-5.554,-317.8145,8.8919,3.8895,15.5599,11.6674,5.0005,
15.5555,-47.2283,-6.112,-436.7259,5.001,-432.2809,-167.7994,9.446,-302.8145,23.8919,18.8895,30.5599,-3.3326,20.0005,
0.55549,-32.2283,8.888,-421.7259,20.001,-417.2809,-152.7994,-5.554,-287.8145,8.8919,12.2234,16.6684,11.6674,8.8894,
15.5555,-47.2283,-6.112,-436.7259,5.001,-432.2809,-167.7994,9.446,-302.8145,21.67,10.557,31.6684,-2.778,17.225,
0.55549,-62.2283,-10.5564,-451.7259,0.55549,-447.2809,-182.7994,16.1135,-317.8145,13.8904,9.4455,25.0034,2.7785,6.1125,
2.778,-47.2283,4.4436,-436.7259,15.5555,-432.2809,-167.7994,1.1135,-302.8145,-0.55602,-5.5545,10.0034,17.7785,0.55602,
17.778,-51.6739,-8.335,-421.7259,1.667,-417.2809,-182.7994,16.1135,-287.8145,14.444,9.4455,25.0034,2.7785,15.556,
2.778,-36.6739,6.665,-406.7259,16.667,-402.2809,-167.7994,1.1135,-272.8145,1.111,22.2249,12.224,17.7785,10.0009,
17.778,-28.8929,0,-421.7259,1.667,-417.2809,-182.7994,7.7779,-287.8145,7.7779,7.2249,12.2229,3.3329,13.335,
2.778,-36.1154,-5.0005,-436.7259,5.0005,-432.2809,-197.7994,12.7795,-302.8145,17.2244,12.7795,27.2229,9.4455,6.1115,
4.4445,-21.1154,9.9995,-421.7259,20.0005,-431.166,-182.7994,-2.2205,-287.8145,2.2244,6.6675,12.2229,24.4455,1.1115,
19.4445,-32.2264,-5.0005,-406.7259,5.0005,-416.166,-197.7994,12.7795,-272.8145,17.2244,1.1115,27.2229,9.4455,16.1115,
4.4445,-17.2264,9.9995,-391.7259,20.0005,-401.166,-182.7994,5.0005,-257.8145,2.2244,-0.55549,12.2229,22.7804,1.1115,
11.1119,-2.2264,-5.0005,-406.7259,16.669,-416.166,-180.0229,13.335,-272.8145,5.556,-5.556,11.1119,7.7804,0,
-3.8881,-17.2264,-20.0005,-421.7259,8.3345,-431.166,-195.0229,15.0025,-287.8145,16.1135,9.444,21.6694,21.6694,6.1115,
-7.7785,-7.7785,-5.0005,-436.7259,23.3345,-446.166,-180.0229,1.1115,-294.482,1.1135,14.4465,13.3355,36.6694,11.1125,
7.2215,-22.7785,-20.0005,-451.7259,8.3345,-461.166,-195.0229,16.1115,-309.482,16.1135,6.6675,28.3355,21.6694,15.5574,
-7.7785,-27.2254,-5.0005,-440.6115,20.5584,-446.166,-180.0229,1.1115,-294.482,5.0005,8.3345,13.8904,36.6694,0.55744,
7.2215,-12.2254,-14.4459,-455.6115,7.779,-461.166,-165.0229,7.779,-303.372,4.445,0,20.003,21.6694,-2.223,
-1.111,-27.2254,-29.4459,-470.6115,1.111,-476.166,-150.0229,22.779,-318.372,19.445,15,35.003,17.7799,11.1119,
-13.891,-12.2254,-14.4459,-455.6115,16.111,-461.166,-163.91,7.779,-322.8189,4.445,7.223,20.003,32.7799,9.4449,
1.109,-27.2254,-29.4459,-470.6115,1.111,-476.166,-178.91,22.779,-337.8189,19.445,4.445,31.1159,17.7799,11.113,
-8.8894,-41.1164,-14.4459,-485.6115,16.111,-461.166,-165.5764,12.2234,-322.8189,16.6684,19.445,20.0024,32.7799,-3.3335,
6.1106,-26.1164,0.55407,-470.6115,5.0005,-446.166,-150.5764,-1.6665,-307.8189,7.2235,6.1115,5.0024,27.2254,-2.7785,
10.002,-41.1164,-14.4459,-455.6115,-8.89,-431.166,-135.5764,13.3335,-292.8189,22.2235,10.002,20.0024,12.2254,12.2215,
-1.1115,-26.1164,0.55407,-440.6115,6.11,-416.166,-146.6855,2.2225,-307.8189,7.2235,1.1115,10.0015,27.2254,-2.7785,
13.8885,-41.1164,-14.4459,-455.6115,1.111,-431.166,-161.6855,17.2225,-322.8189,22.2235,-1.111,25.0015,13.3349,2.223,
-1.1115,-56.1164,0.55407,-470.6115,6.6669,-446.166,-176.6855,2.2225,-337.8189,7.2235,2.222,14.4459,26.6699,1.111,
13.8885,-41.1164,15.5541,-455.6115,3.89,-431.166,-161.6855,-0.55602,-322.8189,0.55602,-7.223,3.89,23.8919,-0.55602,
11.1125,-30.0034,0.55407,-440.6115,-6.6675,-416.166,-146.6855,14.444,-307.8189,15.556,7.777,18.89,15.5574,6.6675,
-3.8875,-15.0034,15.5541,-425.6115,8.3325,-401.166,-135.5731,0,-306.706,0.55602,4.445,3.89,30.5574,1.111,
11.1125,-30.0034,0.55407,-440.6115,-1.111,-416.166,-150.5731,15,-321.706,15.556,1.111,18.89,15.5574,16.111,
-3.8875,-45.0034,-10.0015,-455.6115,4.4455,-431.166,-165.5731,27.7814,-336.706,25.5584,16.111,33.89,30.5574,10.0015,
-12.224,-30.0034,4.9985,-440.6115,8.89,-416.166,-150.5731,12.7814,-321.706,10.5584,1.111,18.89,25.5579,0,
2.776,-39.4494,-10.0015,-425.6115,-2.778,-401.166,-135.5731,27.7814,-306.706,25.5584,2.778,33.89,10.5579,13.891,
-12.224,-24.4494,4.9985,-410.6115,12.222,-386.166,-120.5731,12.7814,-291.706,10.5584,4.445,18.89,25.5579,0,
2.776,-39.4494,-10.0015,-425.6115,-2.778,-401.166,-135.5731,27.7814,-306.706,25.5584,7.7785,33.89,15.5574,15,
2.778,-49.4508,-3.89,-440.6115,-2.778,-416.166,-150.5731,31.6709,-321.706,40.5584,22.7785,45.0059,30.5574,28.3369,
-0.55549,-34.4508,11.11,-425.6115,0.55549,-401.166,-135.5731,16.6709,-306.706,25.5584,7.7785,30.0059,27.2254,13.3369,
14.4445,-42.7831,-3.89,-410.6115,-10.5572,-386.166,-150.5731,31.6709,-291.706,40.5584,18.3352,43.8941,12.2254,20.5582,
-0.55549,-27.7831,11.11,-395.6115,4.4428,-371.166,-150.575,16.6709,-276.706,25.5584,8.3345,28.8941,27.2254,5.5582,
14.4445,-37.2269,2.778,-410.6115,-2.778,-386.166,-165.575,18.336,-291.706,11.6679,-6.6655,13.8941,12.2254,3.889,
1.1115,-35.5593,5.5565,-425.6115,-2.2225,-401.166,-180.575,16.6695,-306.706,22.2254,-1.1115,18.8914,16.6695,1.1115,
5.0005,-20.5593,20.5565,-419.4981,12.7775,-416.166,-165.575,1.6695,-291.706,7.2254,-6.1115,3.8914,31.6695,3.8895,
20.0005,-35.5593,5.5565,-404.4981,-0.55549,-401.166,-180.575,16.6695,-276.706,22.2254,0.55549,18.8914,16.6695,15.0014,
5.0005,-20.5593,20.5565,-389.4981,14.4445,-386.166,-165.575,2.7785,-261.706,7.2254,10.5564,11.6685,31.6695,0.001422,
20.0005,-5.5593,5.5565,-404.4981,0.55602,-401.166,-176.1334,8.3339,-276.706,0.55602,-0.55602,6.112,27.2259,-3.889,
5.0005,-18.3354,-9.4435,-419.4981,-2.7785,-416.166,-190.5799,16.1135,-291.706,15.0025,9.4455,21.112,29.4484,3.8895,
4.445,-3.3354,5.5565,-434.4981,12.2215,-431.166,-175.5799,1.1135,-306.706,5.556,-4.445,6.112,41.1169,-6.6669,
19.445,-18.3354,-9.4435,-449.4981,-2.7785,-446.166,-190.5799,16.1135,-321.706,20.556,4.445,21.112,26.1169,8.3331,
4.445,-3.3354,5.5565,-434.4981,12.2215,-431.166,-175.5799,1.1135,-306.706,5.556,12.7789,13.8899,41.1169,1.667,
13.3349,7.779,17.7799,-449.4981,1.111,-446.166,-160.5799,-5.557,-321.706,2.222,-2.2211,5.556,27.7809,-1.111,
6.6675,-7.221,2.7799,-464.4981,-6.6675,-461.166,-145.5799,9.443,-336.706,17.222,8.8905,20.556,27.7814,6.6675,
-2.2225,3.3335,17.7799,-473.3934,8.3325,-475.6159,-154.464,-5.557,-321.706,2.2225,6.6675,5.556,42.7814,-5.5565,
12.7775,-11.6665,2.7799,-488.3934,6.668,-490.6159,-169.464,9.443,-336.706,17.2225,1.111,20.556,27.7814,-1.111,
-2.2225,-26.6665,11.113,-485.6173,15.558,-480.0609,-184.464,-1.111,-321.706,15.558,5.556,16.669,41.1169,1.111,
12.7775,-11.6665,-1.667,-470.6173,0.55797,-465.0609,-169.464,0.55602,-306.706,8.3339,-9.444,12.78,27.2259,6.112,
15.0014,-25.0034,-16.667,-473.9494,-5.0005,-472.8379,-154.464,15.556,-321.706,23.3339,5.0005,27.78,23.8914,11.6685,
7.7785,-10.0034,-1.667,-458.9494,9.9995,-457.8379,-164.466,0.55602,-336.706,8.3339,2.2225,12.78,38.8914,-3.3315,
22.7785,-25.0034,-2.7785,-473.9494,-5.0005,-472.8379,-179.466,15.556,-351.706,23.3339,2.7785,26.1144,23.8914,8.3345,
7.7785,-25.0024,12.2215,-488.9494,8.3345,-487.8379,-194.466,0.55602,-340.5988,10.5575,2.7785,11.1144,37.2274,-0.55549,
14.4459,-10.0024,27.2215,-473.9494,7.779,-472.8379,-179.466,-3.334,-325.5988,0,-12.2215,1.111,27.7809,0,
22.2244,-6.6675,12.2215,-458.9494,-1.1115,-457.8379,-164.466,11.666,-310.5988,15,-4.4455,16.111,20.0024,11.1125,
7.2244,0,27.2215,-443.9494,13.8885,-442.8379,-160.0205,8.89,-318.9294,5.556,0,1.111,35.0024,5.556,
22.2244,-15,12.2215,-458.9494,-1.1115,-457.8379,-175.0205,23.89,-333.9294,20.556,5.556,16.111,24.4479,20.556,
7.2244,-30,-2.7785,-473.9494,4.445,-472.8379,-190.0205,16.669,-348.9294,30.0039,20.556,31.111,39.4479,20.003,
3.334,-15,8.89,-458.9494,7.779,-457.8379,-175.0205,4.445,-333.9294,15.0039,5.556,16.111,43.3389,5.003,
18.334,-30,-6.11,-443.9494,-6.112,-442.8379,-160.0205,19.445,-318.9294,30.0039,6.112,31.111,28.3389,20.003,
3.334,-15,8.89,-428.9494,8.888,-427.8379,-169.4659,4.445,-303.9294,15.0039,5.001,16.111,43.3389,5.003,
18.334,-30,-6.11,-443.9494,-5.5565,-442.8379,-184.4659,19.445,-318.9294,26.6694,17.7794,24.4474,35.5593,5.5565,
3.334,-43.3389,-7.779,-458.9494,4.445,-457.8379,-199.4659,18.8909,-333.9294,28.8929,25.5589,30.0039,50.0069,10.0009,
-3.334,-28.3389,7.221,-443.9494,13.3349,-442.8379,-184.4659,3.8909,-318.9294,13.8929,10.5589,15.0039,53.3398,1.111,
11.666,-21.1139,-7.779,-428.9494,-1.6651,-427.8379,-169.4659,18.8909,-303.9294,28.8929,17.7799,30.0039,38.3398,5.556,
3.3335,-6.1139,7.221,-413.9494,13.3349,-412.8379,-154.4659,3.8909,-288.9294,13.8929,18.8914,15.0039,53.3398,-3.3335,
18.3335,-21.1139,-3.334,-428.9494,2.222,-427.8379,-169.4659,12.224,-303.9294,13.3349,3.8914,7.779,38.3398,0,
3.3335,-36.1139,-9.4455,-443.9494,5.0005,-442.8379,-184.4659,20.5584,-318.9294,28.3349,18.8914,22.779,43.8943,5.0005,
-1.667,-21.1139,5.5545,-458.9494,20.0005,-457.8379,-169.4659,5.5584,-303.9294,13.3349,3.8914,7.779,55.0068,-6.112,
13.333,-36.1139,-9.4455,-443.9494,5.0005,-442.8379,-184.4659,20.5584,-288.9294,28.3349,-2.2225,22.779,40.0068,8.888,
-1.667,-21.1139,5.5545,-428.9494,12.224,-427.8379,-196.6918,5.5584,-273.9294,13.3349,7.779,11.113,55.0068,-3.334,
13.333,-6.1139,-3.334,-443.9494,-1.111,-442.8379,-211.6918,16.669,-288.9294,18.8909,13.3349,17.7799,40.0068,1.111,
7.2224,-11.6685,-1.6675,-458.9494,0.55549,-457.8379,-226.6918,19.4464,-303.9294,33.8909,15.0014,23.8914,27.2254,-0.55549,
13.891,3.3315,13.3325,-473.9494,15.5555,-472.8379,-211.6918,4.4464,-318.9294,18.8909,0.0014231,8.8914,42.2254,-3.889,
15.558,-11.6685,-1.6675,-488.9494,1.111,-487.8379,-226.6918,19.4464,-333.9294,25.5589,-1.111,16.669,27.2254,4.445,
0.55797,-26.6685,13.3325,-473.9494,16.111,-472.8379,-226.1402,4.4464,-318.9294,17.2244,13.889,5.0005,42.2254,0.55549,
9.446,-11.6685,8.335,-488.9494,7.223,-487.8379,-211.1402,-2.778,-333.9294,20.5579,1.667,-1.667,33.8929,-2.778,
-1.1115,-11.1125,-5.5565,-503.9494,5.5565,-502.8379,-226.1402,12.222,-348.9294,31.1154,7.7785,13.333,31.1154,1.1115,
0,-17.7799,9.4435,-518.9494,20.5565,-517.8379,-236.6967,2.223,-363.9294,16.1154,13.335,0,46.1154,1.112,
14.4462,-32.7799,-5.5565,-533.9494,5.5565,-532.8379,-251.6967,17.223,-378.9294,31.1154,20.0032,15,31.1154,16.112,
-0.5538,-47.7799,-20.5565,-548.9494,17.2239,-547.8379,-266.6967,6.112,-363.9294,25.0029,22.7809,19.4469,43.8949,11.6679,
13.891,-32.7799,-5.5565,-563.9494,6.112,-539.5132,-251.6967,1.667,-351.7118,10.557,7.7809,9.446,28.8949,-3.3321,
10.5564,-25.0034,-7.2235,-578.9494,-8.888,-554.5132,-236.6967,16.667,-366.7118,25.557,22.7809,24.446,13.8949,11.6679,
-4.4436,-40.0034,-3.8895,-593.9494,6.112,-569.5132,-251.6967,3.8895,-381.7118,10.557,11.6685,10.5564,28.8949,8.3345,
10.5564,-55.0034,-18.8895,-608.9494,-0.55549,-584.5132,-266.6967,18.8895,-396.7118,25.557,5.0005,25.5564,13.8949,21.6694,
-4.4436,-70.0034,-33.8895,-623.9494,12.2234,-599.5132,-281.6967,11.1125,-411.7118,23.3364,20.0005,36.6714,24.4474,15.5574,
1.6675,-55.0034,-18.8895,-608.9494,-2.7766,-584.5132,-266.6967,2.7785,-396.7118,8.3364,5.0005,21.6714,9.4474,0.55744,
10.557,-40.0034,-19.4469,-593.9494,-1.667,-569.5132,-251.6967,17.7785,-381.7118,23.3364,20.0005,33.8929,15.002,1.667,
-2.2225,-33.3374,-4.4469,-578.9494,13.333,-554.5132,-266.6967,2.7785,-396.7118,11.1125,18.8914,18.8929,30.002,2.2225,
12.7775,-48.3374,-19.4469,-593.9494,1.111,-569.5132,-281.6967,17.7785,-411.7118,26.1125,5.556,33.8929,15.002,17.2225,
1.667,-63.3374,-6.112,-608.9494,16.111,-584.5132,-296.6967,25.0029,-426.7118,28.3369,15.002,18.8929,30.002,2.2225,
2.778,-48.3374,8.888,-593.9494,2.778,-569.5132,-281.6967,10.0029,-411.7118,15.0019,0.0019518,3.8929,15.002,-9.446,
17.778,-33.3374,-6.112,-578.9494,-12.222,-554.5132,-266.6967,25.0029,-396.7118,30.0019,15.002,18.8929,0.0019518,5.554,
2.778,-18.3374,8.888,-563.9494,2.778,-539.5132,-251.6967,10.0029,-381.7118,15.0019,18.3365,3.8929,15.002,-9.446,
17.778,-33.3374,-6.112,-578.9494,6.6675,-554.5132,-266.6967,25.0029,-396.7118,30.0019,16.669,18.8929,10.002,-6.6675,
2.778,-48.3374,-0.55549,-593.9494,5.0005,-569.5132,-281.6967,10.0029,-411.7118,15.0019,11.6685,7.2235,25.002,-21.6675,
8.89,-33.3374,14.4445,-578.9494,10.0009,-554.5132,-266.6967,0,-396.7118,0.0019496,2.222,-2.223,40.002,-21.1139,
23.89,-18.3374,-0.55549,-563.9494,-4.9991,-539.5132,-251.6967,15,-381.7118,15.0019,17.222,12.777,25.002,-6.1139,
8.89,-3.3374,14.4445,-548.9494,10.0009,-524.5132,-236.6967,0,-366.7118,3.889,18.3349,-1.667,40.002,-21.1139,
23.89,-8.8905,6.6675,-563.9494,-1.1115,-539.5132,-251.6967,15,-381.7118,18.889,3.3349,13.333,25.002,-6.1139,
15.0014,-17.2244,6.1115,-578.9494,0.55549,-554.5132,-266.6967,8.3345,-396.7118,10.5564,-0.55549,15.0014,10.002,-21.1139,
27.2254,-2.2244,21.1115,-563.9494,15.5555,-539.5132,-251.6967,0.55549,-381.7118,-0.55549,6.1115,0.001422,25.002,-19.4475,
42.2254,-2.778,6.1115,-548.9494,5.0005,-524.5132,-236.6967,15.5555,-366.7118,14.4445,10.557,15.0014,10.002,-4.4475,
27.2254,12.222,21.1115,-533.9494,20.0005,-509.5132,-221.6967,0.55549,-351.7118,-0.55549,-3.3335,0.001422,25.002,-19.4475,
42.2254,27.222,22.7809,-518.9494,15.002,-494.5132,-226.1397,15.5555,-366.7118,14.4445,-12.78,6.112,10.002,-8.3339,
27.2254,15.5574,7.7809,-533.9494,2.2225,-509.5132,-241.1397,8.8894,-381.7118,10.0004,-11.1135,5.5554,-2.2225,-23.3339,
42.2254,30.5574,22.7809,-518.9494,17.2225,-494.5132,-226.1397,-1.111,-366.7118,1.111,-6.668,-4.445,12.7775,-10.0009,
57.2254,22.7807,13.8907,-503.9494,16.1137,-479.5132,-211.1397,13.889,-351.7118,16.111,-17.2242,10.555,-2.2225,-13.8907,
42.2254,37.7807,28.8907,-488.9494,10.0015,-464.5132,-196.1397,-1.111,-336.7118,1.111,-32.2242,-4.445,6.6675,-28.8907,
57.2254,52.7807,35.5593,-473.9494,14.4454,-449.5132,-181.1397,13.889,-321.7118,16.111,-17.2242,2.2225,-2.2225,-20.0035,
44.4504,37.7807,20.5593,-471.1709,16.6684,-464.5132,-196.1397,5.5565,-336.7118,4.4455,-16.6684,7.7785,-4.4455,-25.5584,
56.6738,52.7807,35.5593,-456.1709,31.6684,-449.5132,-181.1397,3.334,-321.7118,-8.89,-3.334,-7.2215,10.5545,-10.5584,
71.6738,37.7807,20.5593,-441.1709,16.6684,-434.5132,-166.1397,18.334,-306.7118,6.11,-3.3337,7.7785,-4.4455,-8.8902,
56.6738,52.7807,35.5593,-426.1709,23.8924,-419.5132,-151.1397,3.334,-291.7118,-8.89,-6.1115,-7.2215,10.5545,-23.8902,
60.0078,60.0078,32.2269,-411.1709,17.7799,-404.5132,-136.1397,10.002,-276.7118,6.11,-13.335,0,0,-15.5569,
45.0078,45.0078,17.2269,-396.1709,8.3345,-389.5132,-151.1397,15.0025,-265.0336,8.3345,-11.6685,3.8895,-3.8895,-29.4484,
32.7824,60.0078,32.2269,-381.1709,23.3345,-374.5132,-136.1397,0.0024805,-250.0336,-6.6655,3.3315,-11.1105,11.1105,-15.0014,
47.7824,45.0078,17.2269,-366.1709,8.3345,-359.5132,-121.1397,15.0025,-235.0336,8.3345,0,3.8895,0,-6.6675,
32.7824,60.0078,32.2269,-351.1709,23.3345,-344.5132,-106.1397,0.0024805,-220.0336,-6.6655,-15,-10.0009,15,-21.6675,
42.7834,75.0078,47.2269,-336.1709,25.0024,-329.5132,-91.1397,3.8895,-205.0336,-6.1125,-21.6694,-3.8895,11.6674,-21.6694,
27.7834,60.0078,32.2269,-321.1709,10.0024,-314.5132,-106.1397,18.8895,-190.0336,8.8875,-6.6694,11.1105,0.55549,-15.0014,
12.7834,75.0078,47.2269,-306.1709,25.0024,-299.5132,-91.1397,3.8895,-175.0336,-6.1125,-11.1125,-3.8895,15.5555,-30.0014,
27.7834,60.0078,32.2269,-291.1709,23.3364,-284.5132,-106.1397,18.8895,-190.0336,8.8875,-1.1115,11.1105,0.55549,-15.0014,
14.447,74.4537,40.0048,-276.1709,38.3364,-269.5132,-91.1397,3.8895,-175.0336,-1.111,-2.222,1.112,15.5555,-23.3359,
29.447,83.3437,25.5589,-261.1709,27.7819,-254.5132,-76.1397,-7.779,-160.0336,-16.111,-17.222,-13.888,8.89,-36.6708,
31.1149,68.3437,10.5589,-246.1709,12.7819,-239.5132,-61.1397,4.445,-145.0336,-7.779,-27.7819,-2.223,-6.11,-36.6719,
16.1149,83.3437,25.5589,-231.1709,10.557,-224.5132,-46.1397,-10.555,-130.0336,-22.779,-42.7819,-17.223,8.89,-51.6719,
31.1149,68.3437,10.5589,-246.1709,18.3354,-239.5132,-61.1397,4.445,-145.0336,-7.779,-27.7819,-2.223,-3.8895,-36.6719,
27.2259,83.3437,25.5589,-235.0302,33.3354,-224.5132,-47.2289,5.001,-160.0336,-6.112,-12.7819,2.778,11.1105,-21.6719,
12.2259,81.1207,26.6699,-220.0302,18.3354,-209.5132,-32.2289,-9.999,-145.0336,-21.112,-27.7819,-12.222,-3.8895,-36.6719,
27.2259,66.1207,11.6699,-205.0302,3.3354,-194.5132,-17.2289,5.001,-130.0336,-7.779,-20.003,-7.779,-18.8895,-46.6729,
12.2259,57.2298,26.6699,-190.0302,6.112,-179.5132,-2.2289,-9.999,-115.0336,-22.779,-35.003,-22.779,-6.112,-61.6729,
27.2259,46.1168,11.6699,-205.0302,21.112,-194.5132,-17.2289,5.001,-130.0336,-7.779,-23.8919,-7.779,-5.001,-46.6729,
32.7824,53.8963,26.6699,-220.0302,33.8934,-209.5132,-32.2289,11.6685,-145.0336,-9.4455,-8.8919,5.0005,9.999,-31.6729,
20.559,59.4518,19.4469,-205.0302,18.8934,-194.5132,-17.2289,-3.3315,-130.0336,-24.4455,-23.8919,-9.9995,-5.001,-36.1159,
33.8934,44.4518,4.4469,-190.0302,3.8934,-179.5132,-2.2289,9.4455,-115.0336,-9.4455,-38.8919,-0.55549,-20.001,-29.4479,
18.8934,59.4518,19.4469,-175.0302,6.1115,-164.5132,12.7711,-5.5545,-100.0336,-24.4455,-53.8919,-15.5555,-6.1115,-44.4479,
33.8934,61.6748,18.336,-190.0302,17.2239,-179.5132,-2.2289,9.4455,-115.0336,-9.4455,-38.8919,-0.55549,-15.002,-29.4479,
34.4489,65.5638,33.336,-205.0302,21.1139,-194.5132,-17.2289,17.7799,-130.0336,1.111,-23.8919,-1.111,-0.0019507,-17.7799,
21.1139,80.5638,36.6719,-190.0302,6.668,-179.5132,-2.2289,2.7799,-115.0336,-13.889,-36.6708,-16.111,-4.445,-32.7799,
36.1139,65.5638,21.6719,-175.0302,-8.332,-164.5132,12.7711,5.001,-100.0336,-11.6679,-36.1159,-5.001,-19.445,-47.7799,
21.1139,69.4533,36.6719,-160.0302,3.8895,-149.5132,27.7711,-9.999,-85.0336,-26.6679,-43.8943,-20.001,-4.445,-62.7799,
36.1139,72.7867,32.7819,-175.0302,18.8895,-164.5132,12.7711,5.001,-100.0336,-11.6679,-28.8943,-5.001,-2.778,-47.7799,
32.7824,57.7867,29.4484,-190.0302,15.0014,-179.5132,-2.2289,10.5564,-115.0336,-0.55549,-16.1135,0.55549,8.3345,-32.7799,
17.7824,72.7867,44.4484,-175.0302,7.2235,-164.5132,12.7711,-4.4436,-100.0336,-15.5555,-31.1135,-14.4445,5.0005,-43.8943,
31.1149,57.7867,29.4484,-160.0302,-7.7765,-149.5132,27.7711,5.556,-85.0336,-16.669,-44.4498,-5.556,-9.9995,-41.1158,
16.1149,72.7867,44.4484,-145.0302,2.2225,-134.5132,42.7711,-9.444,-70.0336,-31.669,-40.0054,-20.556,-2.2225,-47.7844,
31.1149,87.7867,48.3404,-152.797,17.2225,-149.5132,27.7711,5.556,-85.0336,-16.669,-25.0054,-5.556,12.7775,-32.7844,
21.67,72.7867,33.3404,-167.797,8.3339,-164.5132,12.7711,1.667,-100.0336,-1.669,-10.0054,-12.7789,3.889,-23.8919,
6.67,87.7867,43.8943,-152.797,9.4455,-149.5132,-0.55549,-13.333,-85.0336,-16.669,-17.2244,-27.7789,0.55549,-38.8919,
21.67,72.7867,28.8943,-137.797,-5.5545,-134.5132,14.4445,1.667,-70.0336,-1.669,-12.2234,-12.7789,-14.4445,-24.4474,
6.67,77.7872,31.1144,-122.797,4.4445,-119.5132,29.4445,-13.333,-55.0336,-16.669,-8.8905,-27.7789,0.55549,-39.4474,
21.67,92.7872,39.4494,-107.797,13.8904,-104.5132,14.4445,1.667,-70.0336,-1.669,6.1095,-12.7789,-0.55549,-24.4474,
36.67,77.7872,31.1154,-95.5671,-1.1096,-90.0112,-0.55549,16.667,-85.0336,8.8905,11.1135,2.2211,-15.5555,-12.2234,
27.7819,92.7872,46.1154,-80.5671,13.8904,-75.0112,-15.5555,1.667,-70.0336,-6.1095,-3.8865,-12.7789,-0.55549,-27.2234,
42.7819,77.7872,31.1154,-95.5671,-1.1096,-90.0112,-30.5555,16.667,-85.0336,8.8905,7.779,2.2211,-12.224,-16.669,
27.7819,77.2317,42.7828,-110.5671,10.557,-75.0112,-15.5555,1.667,-70.0336,-6.1095,15.002,-9.446,2.776,-31.669,
39.4488,62.2317,27.7828,-95.5671,1.667,-60.0112,-0.55549,13.891,-55.0336,-7.223,8.3339,-1.667,-3.89,-16.669,
24.4488,47.2317,12.7828,-80.5671,-13.333,-45.0112,-15.5555,21.6694,-40.0336,7.777,17.2244,9.4465,-13.8904,-5.0005,
9.4488,38.8939,23.337,-65.5671,-23.3359,-30.0112,-30.5555,6.6694,-25.0336,-7.223,13.335,-5.5535,1.1096,-14.4459,
24.4488,23.8939,8.337,-80.5671,-18.8909,-45.0112,-45.5555,21.6694,-40.0336,7.777,28.335,9.4465,13.335,0.55407,
9.4488,8.8939,23.3364,-95.5671,-5.5565,-60.0112,-60.5555,12.2234,-55.0336,17.7805,43.335,16.6684,28.335,1.1115,
1.111,-1.111,8.3364,-80.5671,-20.5565,-45.0112,-45.5555,2.222,-40.0336,2.7805,28.335,1.6684,13.335,-13.8885,
-2.778,-16.111,-6.6636,-65.5671,-35.5565,-30.0112,-30.5555,7.224,-25.0336,-4.9999,17.225,2.778,-1.665,-22.7799,
-17.778,-1.111,8.3364,-50.5671,-34.4489,-15.0112,-15.5555,-7.776,-10.0336,-19.9999,20.003,-12.222,13.335,-31.1149,
-2.778,-16.111,-6.6636,-65.5671,-34.4489,-30.0112,-30.5555,7.224,-25.0336,-4.9999,35.003,2.778,28.335,-16.1149,
-8.8905,-5.5565,5.5565,-80.5671,-23.3364,-45.0112,-45.5555,14.4465,-40.0336,10.0001,50.003,17.778,43.335,-1.1149,
-20.003,-7.779,-9.4435,-65.5671,-38.3364,-30.0112,-30.5555,-0.55354,-25.0336,-4.445,35.003,4.445,28.8929,-16.1149,
-35.003,-22.779,-24.4435,-50.5671,-53.3364,-15.0112,-15.5555,-3.334,-10.0336,6.6669,20.003,3.334,13.8929,-31.1149,
-46.1168,-12.78,-9.4435,-35.5671,-38.3364,-0.011177,-0.55549,-18.334,4.9664,-1.667,29.4479,-10.557,28.8929,-31.6709,
-31.1168,-25.5587,-23.3362,-50.5671,-33.3371,-15.0112,-15.5555,-3.334,-10.0336,13.333,44.4479,4.443,27.7811,-16.6709,
-16.1168,-35.5604,-8.3362,-65.5671,-18.3371,-30.0112,-30.5555,11.666,-25.0336,28.333,59.4479,19.443,42.7811,-1.6709,
-9.4449,-40.5609,-23.3362,-52.7838,-33.3371,-45.0112,-15.5555,2.778,-10.0336,25.004,44.4479,20.559,39.4499,-2.778,
-24.4449,-55.5609,-38.3362,-37.7838,-48.3371,-30.0112,-0.55549,-7.223,4.9664,18.336,29.4479,26.1139,24.4499,-17.778,
-39.4449,-66.1193,-23.8914,-22.7838,-52.7843,-15.0112,14.4445,-22.223,19.9664,3.336,14.4479,11.1139,39.4499,-22.7804,
-24.4449,-51.1193,-21.1137,-37.7838,-37.7843,-30.0112,-0.55549,-7.223,4.9664,18.336,29.4479,26.1139,51.1176,-7.7804,
-9.4449,-48.8953,-6.6675,-52.7838,-22.7843,-45.0112,-15.5555,7.777,-10.0336,33.336,44.4479,41.1139,51.1173,7.2196,
-10.557,-33.8953,-1.667,-37.7838,-26.1139,-59.4518,-0.55549,1.667,4.9664,25.0029,37.2269,27.2259,41.6719,-1.667,
-25.557,-48.8953,-16.667,-22.7838,-41.1139,-44.4518,14.4445,1.667,19.9664,17.2239,22.2269,18.3349,26.6719,-16.667,
-40.557,-63.8953,-31.667,-7.7838,-56.1139,-29.4518,29.4445,-13.333,34.9664,2.2239,15.0014,3.3349,17.2244,-19.4475,
-25.557,-54.4516,-28.8927,-22.7838,-41.1139,-44.4518,14.4445,1.667,19.9664,17.2239,30.0014,18.3349,32.2244,-4.4475,
-10.557,-53.3398,-13.8927,-37.7838,-26.1139,-59.4518,-0.55549,16.667,4.9664,32.2239,45.0014,33.3349,43.3394,10.5525,
-12.2234,-38.3398,1.1073,-22.7838,-17.7794,-44.4518,-8.8894,1.667,19.9664,30.0044,30.0014,18.8914,38.8944,8.8905,
-3.8892,-53.3398,-13.8927,-15.0017,-32.7794,-38.3381,6.1106,16.667,34.9664,43.8951,20.5582,33.8914,23.8944,3.8892,
-18.8892,-58.8968,-25.5589,-0.0016853,-47.7794,-23.3381,21.1106,1.667,49.9664,28.8951,21.1129,18.8914,14.4459,-11.1108,
-3.8892,-43.8968,-21.6694,-15.0017,-32.7794,-38.3381,6.1106,16.667,34.9664,43.8951,36.1129,33.8914,29.4459,3.8892,
11.1108,-58.8968,-27.2257,-30.0017,-17.7794,-53.3381,-8.8894,31.667,19.9664,58.8951,51.1129,48.8914,39.4491,18.8892,
-3.8892,-43.8968,-12.2257,-15.0017,-18.336,-38.3381,-23.8894,16.667,17.225,43.8951,36.1129,33.8914,36.1159,3.8892,
11.1108,-54.4513,-27.2257,-30.0017,-20.0024,-53.3381,-38.8894,31.667,2.225,58.8951,51.1129,48.8914,21.1159,18.8892,
-3.8892,-39.4513,-12.2257,-45.0017,-21.1145,-68.3381,-23.8894,16.667,17.225,43.8951,36.1129,33.8914,36.1159,3.8892,
-1.667,-32.7819,-21.6689,-60.0017,-36.1145,-83.3381,-8.8894,7.223,2.225,28.8951,21.1129,18.8914,21.1159,2.778,
5.0007,-47.7819,-36.6689,-45.0017,-29.4481,-68.3381,-23.8894,22.223,-5.0007,37.2266,36.1129,33.8914,20.5577,17.778,
-9.9993,-32.7819,-21.6689,-30.0017,-21.1139,-53.3381,-31.1149,7.223,9.9993,22.2266,21.1129,18.8914,35.5577,2.778,
5.0007,-47.2286,-27.2257,-45.0017,-30.5597,-68.3381,-46.1149,22.223,-5.0007,37.2266,36.1129,33.8914,27.2257,17.778,
-9.9993,-32.2286,-12.2257,-60.0017,-21.6689,-83.3381,-31.1149,7.223,-20.0007,22.2266,38.3389,18.8914,42.2257,8.335,
-3.889,-29.4479,-15.002,-45.0017,-36.6689,-68.3381,-16.1149,1.667,-5.0007,9.446,23.3389,3.8914,27.2257,3.889,
-18.889,-44.4479,-30.002,-30.0017,-51.6689,-53.3381,-1.1149,0.55602,9.9993,3.889,8.3389,8.3339,12.2257,-11.111,
-33.889,-29.4479,-15.002,-15.0017,-36.6689,-38.3381,13.8851,-14.444,24.9993,-7.2235,10.5575,-1.6665,27.2257,-5.0005,
-18.889,-40.0049,-26.6699,-30.0017,-27.7814,-53.3381,-1.1149,0.55602,9.9993,7.7765,25.5575,13.3335,31.1149,9.9995,
-21.1139,-25.0049,-11.6699,-45.0017,-12.7814,-68.3381,-16.1149,12.224,-5.0007,22.7765,40.5575,28.3335,46.1149,22.2249,
-24.4469,-18.8909,-23.3359,-30.0017,-27.7814,-53.3381,-1.1149,-2.776,9.9993,8.891,25.5575,13.3335,31.1149,7.2249,
-16.6684,-33.8909,-38.3359,-15.0017,-42.7814,-38.3381,13.8851,2.2225,24.9993,18.8914,10.5575,16.6684,16.1149,-2.2225,
-31.6684,-18.8909,-23.3359,-0.0016853,-27.7814,-23.3381,28.8851,-12.7775,39.9993,3.8914,16.669,1.6684,31.1149,-7.779,
-16.6684,-28.8927,-30.0036,-15.0017,-26.6702,-38.3381,13.8851,2.2225,24.9993,18.8914,31.669,16.6684,27.7811,7.221,
-1.6684,-19.4464,-15.0036,-30.0017,-17.2244,-53.3381,-1.1149,17.2225,9.9993,33.8914,46.669,31.6684,42.7811,18.3354,
-2.778,-10.557,-0.0036382,-15.0017,-23.8919,-38.3381,13.8851,2.2225,24.9993,18.8914,31.669,16.6684,27.7811,3.3354,
-17.778,-25.557,-15.0036,-0.0016853,-38.8919,-23.3381,28.8851,0,39.9993,8.89,16.669,12.224,12.7811,-11.6646,
-32.778,-10.557,-0.0036382,14.9983,-34.4489,-8.3381,43.8851,-15,54.9993,-6.11,1.669,-2.776,24.4479,-26.6646,
-17.778,-11.1125,-15.0036,-0.0016853,-26.6704,-23.3381,28.8851,0,39.9993,8.89,16.6684,12.224,11.1125,-11.6646,
-2.778,-20.003,-5.556,-15.0017,-11.6704,-38.3381,13.8851,15,24.9993,23.89,31.6684,27.224,26.1125,3.3354,
-17.778,-5.003,-8.89,-30.0017,-25.5589,-38.8939,4.445,0,31.1149,11.113,16.6684,12.224,18.8909,-4.445,
-20.003,-20.003,-23.89,-15.0017,-40.5589,-23.8939,19.445,1.111,46.1149,18.8909,1.6684,10.0009,3.8909,-19.445,
-35.003,-25.0034,-17.2244,-0.0016853,-39.4494,-8.8939,34.445,-13.889,61.1149,3.8909,10.5575,0.55549,18.8909,-20.5584,
-20.003,-15.5577,-32.2244,-15.0017,-30.0042,-23.8939,19.445,1.111,46.1149,18.8909,25.5575,15.5555,15.5577,-5.5584,
-5.003,-12.2237,-17.2244,-30.0017,-15.0042,-38.8939,4.445,16.111,31.1149,33.8909,40.5575,30.5555,30.5577,9.4416,
-13.335,2.7763,-2.2244,-21.1139,-17.7799,-28.8929,0,1.111,16.1149,18.8909,25.5575,15.5555,40.0049,-3.334,
-4.445,-12.2237,-17.2244,-6.1139,-32.7799,-14.4459,15,8.89,31.1149,24.4479,10.5575,13.3349,25.0049,-10.0009,
-19.445,-10.0004,-2.2244,8.8861,-23.3364,0.55407,30,-6.11,46.1149,9.4479,23.3364,-1.6651,27.7814,-16.6684,
-4.445,-3.8895,-10.5575,-6.1139,-23.8924,-14.4459,15,8.89,31.1149,24.4479,27.2254,13.3349,29.4484,-1.6684,
10.555,-7.7785,-7.7785,-21.1139,-8.8924,-29.4459,0,23.89,16.1149,38.8933,40.0054,28.3349,43.3383,7.7785,
-4.445,7.2215,7.2215,-6.1139,-5.001,-14.4459,-12.78,8.89,2.778,23.8933,25.0054,13.3349,41.6719,-5.001,
10.555,-7.7785,-7.7785,-21.1139,-20.001,-29.4459,-14.4462,23.89,-12.222,38.8933,40.0054,28.3349,26.6719,9.999,
-4.445,-2.2225,7.2215,-32.2264,-24.4474,-36.6714,0.5538,8.89,2.778,23.8933,25.0054,13.3349,32.2264,-5.001,
4.445,7.779,-7.7785,-47.2264,-18.892,-51.6714,-14.4462,14.4459,-12.222,18.8909,12.224,7.779,17.2264,-4.445,
15.002,-7.221,-15.002,-62.2264,-20.5579,-66.6714,-29.4462,29.4459,-27.222,33.8909,27.224,22.779,22.7809,10.555,
0.0019518,7.779,-0.0019518,-47.2264,-26.6699,-51.6714,-30.0039,14.4459,-12.222,18.8909,16.669,7.779,21.1139,-4.445,
15.002,-7.221,-15.002,-62.2264,-11.6699,-66.6714,-45.0039,29.4459,-27.222,33.8909,31.669,22.779,10.557,10.555,
0.0019518,7.779,-0.0019518,-77.2264,-11.113,-81.6714,-30.0039,14.4459,-42.222,18.8909,34.4489,15.558,25.557,-1.111,
-6.6675,5.5554,-15.002,-62.2264,-26.113,-66.6714,-15.0039,-0.55407,-27.222,3.8909,19.4489,2.2225,10.557,-2.2225,
-12.224,-9.4446,-30.002,-47.2264,-41.113,-51.6714,-23.337,4.445,-12.222,11.1119,4.4489,16.669,-4.443,-4.445,
-27.224,5.5554,-15.002,-32.2264,-30.5594,-36.6714,-12.7795,-9.4455,2.778,0.55549,15.0014,1.669,10.557,-9.4455,
-12.224,-0.55602,-30.002,-47.2264,-38.3384,-51.6714,-27.7795,5.5545,-12.222,15.5555,30.0014,16.669,0.55602,5.5545,
-27.224,14.444,-15.002,-62.2264,-30.5594,-66.6714,-42.7795,6.1115,-27.222,17.2244,23.8924,1.669,15.556,-0.55549,
-15.002,29.444,-17.225,-47.2264,-42.7828,-51.6714,-27.7795,-0.55602,-12.222,10.557,8.8924,-8.335,0.55602,0.55602,
-25.0029,14.444,-32.225,-32.2264,-57.7828,-36.6714,-12.7795,2.778,2.778,13.891,-2.778,6.665,-14.444,-11.668,
-40.0029,17.2244,-17.225,-17.2264,-42.7828,-21.6714,2.2205,-12.222,17.778,-1.109,-2.7785,-8.335,0.55602,-26.668,
-25.0029,2.2244,-26.6704,-32.2264,-27.7828,-36.6714,-12.7795,2.778,2.778,13.891,12.2215,6.665,0,-11.668,
-19.4469,3.89,-11.6704,-47.2264,-15.002,-51.6714,-27.7795,2.778,-12.222,26.1149,27.2215,12.78,15,3.332,
-21.1134,18.89,2.2225,-32.2264,-30.002,-36.6714,-12.7795,-12.222,2.778,11.1149,12.2215,-2.22,7.7795,-6.6675,
-13.3349,3.89,-12.7775,-17.2264,-45.002,-21.6714,2.2205,2.778,17.778,14.447,-2.7785,5.556,-7.2205,-7.779,
-28.3349,18.89,0.55549,-2.2264,-30.002,-6.6714,17.2205,-12.222,32.778,-0.55301,2.7785,-9.444,-0.55549,-13.8904,
-13.3349,17.2244,-14.4445,-17.2264,-29.4484,-21.6714,2.2205,2.778,17.778,14.447,17.7785,5.556,-11.6685,1.1096,
-24.4479,8.89,-8.89,-32.2264,-25.5589,-36.6714,-12.7795,15.5569,2.778,20.0019,32.7785,11.1119,3.3315,16.1096,
-27.2259,23.89,-11.669,-43.8949,-25.004,-21.6714,2.2205,0.55691,17.778,5.0019,27.2249,-3.8881,11.6679,6.112,
-25.5584,8.89,-26.669,-28.8949,-40.004,-6.6714,17.2205,3.3335,32.778,16.6684,12.2249,-3.3335,-3.3321,-8.888,
-40.5584,18.8914,-11.669,-13.8949,-42.2273,8.3286,32.2205,-11.6665,47.778,1.6684,7.7795,-18.3335,1.1115,-22.2244,
-25.5584,13.8904,-20.5584,-28.8949,-31.6704,-6.6714,17.2205,3.3335,32.778,16.6684,22.7795,-3.3335,-9.4455,-7.2244,
-10.5584,5.0005,-7.2224,-43.8949,-16.6704,-21.6714,2.2205,18.3335,17.778,31.6684,37.7795,11.6665,5.5545,7.7756,
-23.3364,20.0005,7.7776,-28.8949,-23.3364,-20.0024,6.6675,3.3335,12.2234,16.6684,22.7795,-3.3335,11.1125,-3.3335,
-12.2234,5.0005,-7.2224,-13.8949,-38.3364,-5.0024,21.6675,-2.2225,27.2234,10.0015,15.5574,2.2225,-3.8875,-10.0015,
-27.2234,9.446,-7.223,1.1051,-39.4499,9.9976,36.6675,-17.2225,42.2234,-4.9985,20.5579,-12.7775,7.223,-16.1129,
-12.2234,4.445,-21.1129,-13.8949,-31.1149,-5.0024,21.6675,-2.2225,27.2234,10.0015,30.0039,2.2225,-4.445,-1.1129,
2.7766,-10.555,-11.1127,-28.8949,-18.8912,-20.0024,6.6675,12.7775,12.2234,25.0015,45.0039,17.2225,10.555,13.8871,
-12.2234,4.445,0.55549,-16.1135,-33.8912,-16.1135,-8.3325,-2.2225,18.3354,10.0015,30.0039,2.7785,11.6685,-0.55549,
2.7766,-10.555,-14.4445,-31.1135,-48.8912,-31.1135,-17.7797,12.7775,15.5577,25.0015,35.5607,17.7785,-3.3315,14.4445,
-12.2234,-17.225,-6.112,-46.1135,-33.8912,-46.1135,-2.7797,-2.2225,30.5577,28.3369,22.7809,19.4469,11.6685,2.778,
2.2225,-2.225,-21.112,-61.1135,-20.0024,-61.1135,-17.7797,12.7775,15.5577,37.7824,22.2254,34.4469,2.2225,17.778,
12.2237,-17.225,-15.5577,-76.1135,-12.2237,-76.1135,-32.7797,27.7775,0.55771,52.7824,37.2254,49.4469,17.2225,32.778,
-2.7763,-2.225,-0.55771,-61.1135,-20.5584,-61.1135,-17.7797,12.7775,-1.6665,37.7824,22.2254,34.4469,25.0034,17.778,
12.2237,0.55549,-15.002,-76.1135,-10.557,-76.1135,-32.7797,27.7775,-16.6665,52.7824,18.3354,49.4469,10.0034,30.5594,
-2.7763,3.8895,-0.0019507,-91.1135,-13.8904,-91.1135,-17.7797,12.7775,-1.6665,37.7824,3.3354,34.4469,5.0005,15.5594,
0.55549,12.7795,-2.7785,-76.1135,-28.3364,-76.1135,-2.7797,2.7785,13.3335,22.7824,2.7785,19.4469,-7.2235,0.55939,
-14.4445,-2.2205,-17.7785,-61.1135,-43.3364,-61.1135,6.6669,3.334,26.6699,10.0009,-3.334,4.4469,-22.2235,-14.4406,
-29.4445,12.7795,-2.7785,-46.1135,-28.3364,-46.1135,21.6669,-11.666,34.4489,-4.9991,-7.779,-10.5531,-7.2235,-20.0019,
-14.4445,1.6667,-1.6667,-61.1135,-13.3364,-61.1135,6.6669,3.334,19.4489,10.0009,7.221,4.4469,-3.8892,-5.0019,
-23.8924,5.0005,13.3333,-76.1135,-5.0005,-76.1135,-8.3331,6.1115,4.4489,20.5584,20.5584,15.0014,10.5564,-7.2235,
-8.8924,2.2225,-1.6667,-61.1135,-15.5574,-61.1135,6.6669,4.4445,19.4489,10.0015,5.5584,1.1115,-1.1115,-12.2234,
-13.891,-12.7775,-16.6667,-46.1135,-30.5574,-46.1135,21.6669,-2.778,34.4489,20.5579,2.778,12.7789,-16.1115,-13.891,
-28.891,2.2225,-1.6667,-31.1135,-15.5574,-31.1135,36.6669,-17.778,49.4489,5.5579,-5.5565,-2.2211,-1.1115,-26.6704,
-13.891,0,-7.779,-46.1135,-0.55744,-46.1135,21.6669,-2.778,34.4489,20.5579,9.4435,12.7789,-4.445,-11.6704,
-21.6689,1.667,7.221,-61.1135,3.889,-61.1135,6.6669,-1.667,19.4489,8.3339,24.4435,3.889,10.555,-11.6679,
-16.1129,12.7789,13.891,-46.1135,-8.3339,-46.1135,21.6669,-16.667,34.4489,1.667,9.4435,-11.111,-4.445,-19.4469,
-12.7789,-2.2211,-1.109,-31.1135,-23.3339,-31.1135,36.6669,-1.667,49.4489,16.667,-5.5565,3.889,-19.445,-15.002,
-27.7789,11.6674,13.891,-16.1135,-8.3339,-16.1135,51.6669,-15.0025,64.4489,1.667,-1.6675,-9.4455,-4.445,-19.4475,
-12.7789,-3.3326,3.3335,-31.1135,-3.3335,-31.1135,36.6669,-0.0024795,49.4489,16.667,13.3325,5.5545,-16.6684,-4.4475,
-10.0009,-1.111,16.669,-46.1135,0,-46.1135,21.6669,14.9975,34.4489,26.6699,18.892,14.447,-1.6684,0,
-6.1115,13.889,21.6694,-31.1135,1.6665,-31.1135,36.6669,-0.0024795,49.4489,11.6699,3.892,-0.55301,0.55549,-13.8904,
-2.7785,-1.111,6.6694,-16.1135,-13.3335,-16.1135,51.6669,3.8895,64.4489,12.7795,-11.108,2.7785,-14.4445,-18.3354,
-17.7785,13.889,21.6694,-1.1135,-10.557,-1.1135,66.6669,-11.1105,79.4489,-2.2205,3.892,-11.668,-7.223,-12.7789,
-2.7785,5.0005,6.6694,-16.1135,-25.557,-16.1135,51.6669,3.8895,64.4489,12.7795,6.1115,3.332,-22.223,2.2211,
4.4445,2.2225,16.6684,-31.1135,-11.1125,-31.1135,36.6669,12.2234,49.4489,26.6694,13.3344,11.1125,-10.0015,-2.2225,
1.667,17.2225,31.6684,-16.1135,3.8875,-17.2239,51.6669,-2.7766,34.4489,11.6694,-1.6656,-3.8875,-9.446,-9.446,
2.7785,2.2225,16.6684,-1.1135,-11.1125,-2.2239,66.6669,6.1125,49.4489,11.6685,-6.1115,-2.7785,-24.446,-18.3354,
-12.2215,17.2225,31.6684,13.8865,-15.002,12.7761,81.6669,-8.8875,64.4489,-3.3315,3.889,-15.002,-9.446,-25.0029,
2.7785,32.2225,16.6684,-1.1135,-20.5584,-2.2239,66.6669,6.1125,49.4489,11.6685,0.55549,-0.0019507,-24.446,-10.0029,
3.8895,17.2225,16.1135,-16.1135,-13.8904,-17.2239,51.6669,20.5584,34.4489,26.1144,7.2235,14.998,-20.5574,-3.8895,
-8.89,32.2225,31.1135,-1.1135,0,-26.6699,36.6669,5.5584,19.4489,11.1144,0,-0.0019507,-5.5574,-18.8895,
6.11,17.2225,16.1135,-16.1135,-15,-41.6699,37.2274,20.5584,5.0005,26.1144,11.6685,14.998,-20.5574,-6.1115,
-8.89,30.5599,31.1135,-1.1135,-4.9999,-26.6699,52.2274,5.5584,20.0005,11.1144,7.223,-0.0019507,-8.3339,-18.336,
6.11,25.5589,16.1135,-16.1135,-15.558,-41.6699,37.2274,13.3349,5.0005,13.3349,2.222,-1.111,-23.3339,-12.224,
4.445,10.5589,6.6669,-31.1135,-5.557,-56.6699,22.2274,27.7809,-9.9995,28.3349,17.222,13.889,-16.669,-4.445,
-10.555,25.5589,21.6669,-16.1135,4.445,-41.6699,13.3349,12.7809,-16.669,13.3349,6.6669,-1.111,-1.669,-18.892,
4.445,10.5589,6.6669,-31.1135,-3.3337,-56.6699,-1.6651,27.7809,-31.669,28.3349,21.1142,13.889,-15.5572,-3.892,
-10.555,22.7809,21.6669,-46.1135,2.778,-71.6699,13.3349,12.7809,-33.8929,13.3349,15.002,-1.111,-0.55718,-17.225,
4.445,37.7809,18.3365,-48.3393,-12.222,-75.0092,28.3349,5.0005,-18.8929,3.8895,3.8895,-16.111,-15.5572,-23.8914,
3.334,22.7809,3.3365,-33.3393,-27.222,-60.0092,17.7799,6.6669,-3.8929,8.89,5.556,-1.111,-28.8929,-17.7799,
-11.666,37.7809,18.3365,-18.3393,-12.222,-45.0092,27.2254,-8.3331,-7.2235,-6.11,0.55549,-16.111,-13.8929,-13.8904,
3.334,22.7809,3.3365,-33.3393,-8.335,-60.0092,12.2254,6.6669,-22.2235,8.89,11.668,-1.111,-28.8929,1.1096,
-1.1115,23.3364,18.3365,-48.3393,5.5565,-75.0092,-2.7746,1.1115,-37.2235,2.2225,13.3344,-4.4455,-13.8929,-13.3355,
8.89,36.6708,31.1149,-33.3393,0,-60.0092,12.2254,-8.891,-22.2235,-12.224,-1.6656,-15.558,-13.336,-17.781,
6.112,21.6708,16.1149,-18.3393,-6.112,-45.0092,27.2254,6.109,-7.2235,1.667,-13.891,-1.667,-21.67,-20.559,
-8.888,36.6708,31.1149,-3.3393,1.667,-30.0092,42.2254,-8.891,7.7765,-13.333,-19.4469,-16.667,-6.67,-35.559,
6.112,21.6708,16.1149,-18.3393,-3.89,-45.0092,27.2254,6.109,-7.2235,1.667,-4.4469,-1.667,-21.67,-20.559,
-6.1115,23.8924,31.1149,-33.3393,11.11,-60.0092,12.2254,6.1115,-22.2235,7.2235,0.55549,8.3345,-7.2235,-5.559,
1.6665,26.1144,19.4464,-18.3393,-1.6665,-45.0092,27.2254,-1.6665,-7.2235,-7.7765,-14.4445,-6.6655,-18.3354,-11.6685,
4.4455,11.1144,4.4464,-3.3393,-16.6665,-30.0092,42.2254,13.3335,7.7765,3.3335,-10.0015,-3.3335,-33.3354,-17.7794,
-10.5545,18.3354,19.4464,11.6607,-1.6665,-15.0092,57.2254,-1.6665,22.7765,-11.6665,-22.7815,-18.3335,-18.3354,-32.7794,
4.4455,3.3354,4.4464,-3.3393,1.111,-30.0092,42.2254,13.3335,7.7765,3.3335,-7.7815,-3.3335,-22.2249,-17.7794,
-0.55602,0.55602,16.1129,-18.3393,0.55602,-45.0092,27.2254,18.336,-7.2235,18.3335,7.2185,11.6665,-7.2249,-2.7794,
-0.55549,15.556,29.4484,-19.4475,1.6665,-30.0092,42.2254,3.336,7.7765,3.3335,3.8895,-3.3335,-0.55549,-13.8904,
-1.667,0.55602,14.4484,-4.4475,-13.3335,-15.0092,57.2254,4.9999,22.7765,1.667,-6.112,1.667,-15.5555,-13.891,
-16.667,15.556,29.4484,10.5525,-6.1125,-0.009226,72.2254,-10.0001,37.7765,-12.7795,-3.8895,-13.333,-0.55549,-13.8904,
-1.667,12.224,14.4484,-4.4475,0,-15.0092,57.2254,4.9999,22.7765,2.2205,0,1.667,-15.5555,1.1096,
2.778,-2.776,12.7789,-19.4475,11.6679,-30.0092,42.2254,15.002,7.7765,17.2205,10.557,7.223,-7.223,-3.89,
8.3345,12.224,27.7789,-11.6674,20.5584,-23.8914,50.5623,0.0019507,22.7765,2.2205,-1.6665,-7.777,0.55549,-8.3345,
6.6675,-2.776,12.7789,3.3326,5.5584,-8.8914,52.2283,10.0015,37.7765,6.6675,-16.6665,-6.6675,-14.4445,-22.2254,
-8.3325,12.224,27.7789,18.3326,6.6675,6.1086,67.2283,-4.9985,52.7765,-8.3325,-6.6675,-21.6675,-10.0015,-22.2254,
6.6675,23.3359,15.5569,3.3326,1.111,-8.8914,52.2283,10.0015,37.7765,6.6675,-1.111,-6.6675,-25.0015,-7.2254,
6.6675,8.3359,1.1115,-11.6674,3.3335,-23.8914,37.2283,15.5574,22.7765,21.6675,13.889,8.3325,-12.2234,-1.1115,
-0.55549,23.3359,16.1115,-20.5584,9.4455,-30.5594,22.2283,0.55744,7.7765,6.6675,8.3345,-6.6675,0.55549,-6.1115,
14.4445,8.3359,1.1115,-28.8924,-5.5545,-40.0049,7.2283,15.5574,2.223,21.6675,1.111,8.3325,-14.4445,-1.111,
-0.55549,21.1145,16.1115,-13.8924,1.1115,-25.0049,22.2283,0.55744,17.223,12.2245,14.4465,-5.5565,-3.3335,-1.1115,
14.4445,6.1145,1.1115,-28.8924,-13.8885,-40.0049,7.2283,11.6679,2.223,27.2245,10.557,1.667,-18.3335,5.001,
22.2254,-5.5565,-5.5565,-43.8924,-1.1115,-55.0049,-7.7717,26.6679,-12.777,42.2245,25.557,16.667,-3.3335,20.001,
7.2254,9.4435,9.4435,-28.8924,5.0005,-40.0049,-15.0025,11.6679,-2.7785,27.2245,23.8914,1.667,7.2235,5.001,
22.2254,-1.667,-5.5565,-43.8924,1.667,-55.0049,-20.5579,26.6679,-17.7785,42.2245,38.8914,16.667,-1.667,20.001,
7.2254,2.778,9.4435,-58.8924,-2.778,-70.0049,-5.5579,11.6679,-2.7785,27.2245,23.8914,1.667,2.778,5.001,
16.1129,-2.778,-1.667,-67.2308,-15.002,-78.3432,9.4421,15.0019,11.6679,26.1149,11.6679,1.667,-12.222,-9.999,
28.3374,-17.778,-9.4455,-52.2308,-17.2244,-63.3432,-5.5579,30.0019,9.4455,41.1149,26.6679,16.667,-18.3354,5.001,
13.3374,-2.778,5.5545,-37.2308,-2.2244,-48.3432,5.001,15.0019,8.335,26.1149,11.6679,1.667,-3.889,-9.999,
28.3374,0,-1.1115,-52.2308,0,-63.3432,-9.999,30.0019,-6.665,41.1149,26.6679,16.667,-7.779,5.001,
13.3374,11.113,13.8885,-67.2308,-11.113,-78.3432,-24.4479,15.0019,-21.665,26.6699,24.4479,21.1139,5.556,-7.779,
14.4465,26.113,16.6695,-52.2308,-23.3364,-63.3432,-9.4479,3.3335,-6.665,11.6699,9.4479,6.1139,-9.444,-13.3344,
1.667,11.113,1.6695,-37.2308,-33.8934,-48.3432,5.5521,10.557,8.335,10.557,-5.5521,-1.667,-24.444,-20.5579,
-13.333,26.113,16.6695,-22.2308,-18.8934,-33.3432,20.5521,-4.443,23.335,-4.443,1.667,-16.667,-9.444,-29.4489,
1.667,11.113,1.6695,-37.2308,-6.112,-48.3432,5.5521,10.557,8.335,10.557,16.667,-1.667,-10.557,-14.4489,
-2.2225,3.3335,16.6695,-52.2308,3.3335,-63.3432,-9.4479,6.6675,-6.665,5.5565,8.8894,2.2225,-5.5565,-4.4455,
5.0005,18.3335,23.8914,-37.2308,-5.0005,-48.3432,5.5521,-8.3325,8.335,-9.4435,-6.1106,-12.7775,-20.5565,-19.4455,
2.2225,3.3335,8.8914,-22.2308,-20.0005,-33.3432,20.5521,1.1115,23.335,4.4445,-14.4465,-1.1115,-35.5565,-31.1154,
-12.7775,14.447,20.003,-7.2308,-5.0005,-18.3432,35.5521,-13.8885,38.335,-10.5555,-13.3349,-16.1115,-20.5565,-41.1158,
2.2225,-0.55301,5.003,-22.2308,2.778,-33.3432,20.5521,1.1115,23.335,4.4445,1.6651,-1.1115,-5.5565,-26.1158,
-3.3335,-15.553,11.1125,-37.2308,1.1115,-48.3432,5.5521,16.1115,8.335,19.4445,14.4465,13.8885,9.4435,-11.1158,
0,-0.55301,15.558,-22.2308,0,-35.5599,20.5521,1.1115,23.335,4.4445,-0.55354,-1.1115,16.669,-18.8909,
3.334,-15.553,0.55797,-7.2308,-15,-20.5599,35.5521,3.334,38.335,11.113,-13.335,-3.334,1.669,-28.8919,
-11.666,-0.55301,15.558,7.7692,-2.2225,-5.5599,50.5521,-11.666,53.335,-3.887,-6.6675,-18.334,16.669,-23.3364,
3.334,-13.3355,0.55797,-7.2308,-2.2225,-20.5599,35.5521,3.334,38.335,11.113,2.2225,-3.334,6.6675,-8.3364,
1.1115,-5.5565,6.6675,-22.2308,-1.1115,-35.5599,20.5521,18.334,23.335,26.113,15.5574,11.666,14.4465,-4.4455,
-4.4455,9.4435,21.6675,-21.1145,4.4445,-36.6714,35.5521,3.334,38.335,11.113,0.55744,-3.334,20.0024,-15.5574,
2.778,-5.5565,6.6675,-6.1145,-10.5555,-21.6714,50.5521,8.3339,53.335,12.78,-14.4426,-2.778,5.0024,-26.1139,
-12.222,-0.55549,21.6675,8.8855,0.55549,-6.6714,65.5521,-6.6661,68.335,-2.22,-1.6665,-17.778,20.0024,-30.5594,
2.778,-2.2225,7.7785,-6.1145,-5.5565,-21.6714,50.5521,8.3339,53.335,12.78,10.0015,-2.778,5.0024,-15.5594,
5.556,-8.89,7.779,-21.1145,-5.556,-36.6714,35.5521,20.003,38.335,27.78,6.668,12.222,5.556,-13.335,
5.0005,6.11,22.779,-21.6694,9.444,-21.6714,50.5521,5.003,23.335,12.78,-8.332,-2.778,20.556,-12.7795,
20.0005,-8.89,7.779,-12.224,-5.556,-15.558,43.3383,20.003,38.335,27.78,-1.1115,12.222,5.556,1.1115,
5.0005,6.11,16.669,2.776,-17.7799,-0.55797,58.3383,5.003,53.335,12.78,-13.335,-2.778,8.89,-13.8885,
20.0005,21.11,13.3344,-12.224,-2.7799,-15.558,43.3383,7.7785,38.335,10.0015,-8.8905,-5.5565,7.7785,-22.2254,
9.446,6.11,3.89,-27.224,-2.778,-30.558,28.3383,10.557,23.335,16.1129,1.667,2.778,-1.667,-23.8919,
0.55549,21.11,18.89,-12.224,12.222,-18.3354,13.3383,-4.443,8.335,9.4455,-5.0005,-11.6674,13.333,-19.4464,
15.5555,18.336,3.89,-27.224,-2.778,-33.3354,-1.6617,10.557,-6.665,24.4455,-1.667,3.3326,-1.667,-4.4464,
0.55549,33.336,18.89,-42.224,6.1115,-48.3354,13.3383,-0.55549,8.335,9.4455,-5.0015,-5.0015,13.333,-11.6685,
15.5555,38.3384,12.7795,-57.224,-8.3345,-63.3354,28.3383,14.4445,-6.665,16.1135,-10.5564,6.1115,-1.667,-6.1115,
16.1135,23.3384,-0.55549,-42.224,-6.1115,-48.3354,13.3383,25.0034,-12.7795,31.1135,4.4436,21.1115,2.7785,-0.55549,
1.1135,38.3384,14.4445,-27.224,8.8885,-33.3354,-1.112,10.0034,0,16.1135,-1.112,6.1115,17.7785,-15.5555,
16.1135,23.3384,-0.55549,-42.224,-6.1115,-48.3354,-16.112,25.0034,-15,31.1135,5.0005,21.1115,2.7785,-0.55549,
1.1135,20.5579,11.668,-57.224,0.55602,-63.3354,-1.112,10.0034,-30,16.1135,-3.889,6.1115,17.7785,-8.3339,
8.8905,17.7805,-3.332,-42.224,-8.8894,-48.3354,13.888,2.2225,-15,7.7795,-15.5574,-8.8885,2.7785,-10.0004,
-6.1095,2.7805,-18.332,-27.224,-23.8894,-33.3354,28.888,11.669,0,22.7795,-10.557,6.1115,-12.2215,-15.0019,
-21.1095,17.7805,-3.332,-12.224,-13.3355,-18.3354,35.5604,-3.331,15,7.7795,-22.2254,-8.8885,2.2225,-24.4474,
-6.1095,2.7805,-18.332,-27.224,-10.0012,-33.3354,20.5604,11.669,0,22.7795,-7.2254,6.1115,10.0012,-9.4474,
-7.7795,-12.2195,-3.332,-42.224,2.2225,-48.3354,5.5604,16.6684,-15,24.4474,7.7746,11.1125,18.8904,-2.2225,
1.6665,1.6665,6.1125,-27.224,-2.7785,-33.3354,20.5604,2.7785,0,9.4474,-7.2254,-3.8875,3.8904,-17.2225,
0,-13.3335,-8.8875,-12.224,-17.7785,-18.3354,35.5604,10.0009,15,18.892,-22.2254,0,-11.1096,-18.8909,
-15,1.6665,6.1125,2.776,-12.224,-3.3354,50.5604,-4.9991,30,3.892,-15.5569,-15,3.8904,-18.8909,
0,-10.0015,-8.8875,-12.224,2.2225,-18.3354,35.5604,10.0009,15,18.892,-0.55691,0,-2.2225,-3.8909,
-7.7785,-7.7785,2.2225,-27.224,-2.2225,-33.3354,20.5604,12.2234,0,21.1134,11.1125,15,8.8905,6.6675,
-1.1115,7.2215,17.2225,-12.224,-5.5565,-18.3354,35.5604,-1.1115,15,6.1134,-3.8875,0,6.6675,-2.2225,
1.111,-7.7785,2.2225,2.776,-20.5565,-3.3354,50.5604,13.335,30,8.89,-17.7799,-1.111,-8.3325,-11.1119,
-11.6685,7.2215,17.2225,17.776,-5.5565,11.6646,65.5604,-1.665,45,-6.11,-3.8895,-13.8904,-10.5564,-8.3345,
3.3315,10.0015,2.2225,2.776,-14.4465,-3.3354,50.5604,13.335,30,8.89,3.3335,1.1096,-25.5564,6.6655,
3.3335,-3.3335,3.3335,-12.224,-10.0015,-18.3354,35.5604,21.1145,15,23.89,18.3335,16.1096,-28.8924,20.0024,
6.112,11.6665,18.3335,-27.224,-8.335,-33.3354,28.3369,6.1145,27.2249,8.89,3.3335,1.1096,-32.7819,5.0024,
7.223,-3.3335,3.3335,-12.224,-23.335,-18.3354,43.3369,3.889,42.2249,0.55602,-11.6665,-0.55602,-47.7819,-9.9976,
-7.777,8.8894,18.3335,2.776,-8.335,-3.3354,58.3369,-11.111,57.2249,-11.1125,-2.2225,-15.556,-37.7824,-24.4474,
7.223,1.112,6.668,-12.224,-4.445,-18.3354,43.3369,3.889,42.2249,3.8875,0,-0.55602,-50.0058,-9.4474,
7.7785,-11.1125,16.6684,-27.224,2.2225,-33.3354,28.3369,15.5574,27.2249,18.8875,3.3335,13.3355,-35.0058,-2.2225,
2.223,3.8875,31.6684,-37.7829,17.2225,-48.3354,22.2249,0.55744,12.2249,4.445,0,-1.6645,-20.0058,-3.334,
10.0009,-11.1125,16.6684,-22.7829,2.2225,-33.3354,18.8909,3.334,27.2249,12.224,-11.113,0,-35.0058,-15.558,
-4.9991,3.8875,31.6684,-7.7829,11.1125,-18.3354,33.8909,-11.666,42.2249,-2.776,-10.0015,-15,-22.2254,-25.5584,
10.0009,18.8875,16.6684,-22.7829,11.6679,-33.3354,18.8909,3.334,27.2249,12.224,-7.223,-8.3339,-31.6709,-10.5584,
1.6675,3.8875,1.6684,-37.7829,-0.55549,-48.3354,3.8909,18.334,12.2249,22.7815,7.777,6.6661,-31.6704,4.4416,
-11.1125,18.8875,16.6684,-22.7829,14.4445,-33.3354,18.8909,3.334,13.3355,7.7815,11.1125,-8.3339,-16.6704,1.1115,
3.8875,3.8875,1.6684,-37.7829,2.2225,-48.3354,3.8909,18.334,-1.6645,22.7815,6.6675,1.1115,-28.8924,6.6675,
-11.1125,18.8875,16.6684,-52.7829,13.891,-42.7828,18.8909,3.334,13.3355,7.7815,2.778,-13.8885,-13.8924,-8.3325,
0.55549,33.8875,20.5584,-49.4503,7.2235,-57.7828,33.8909,-10.5564,28.3355,2.7785,-0.55549,-26.1144,-22.7804,-12.7795,
-2.2225,18.8914,15.5574,-64.4503,7.7785,-72.7828,18.8909,3.3335,13.3355,16.6684,13.3344,-11.1144,-24.4474,2.2205,
-6.1115,33.8914,30.5574,-49.4503,22.7785,-57.7828,10.5575,-3.8895,-1.6645,1.6684,0.55549,-22.7804,-9.4474,5.0005,
8.8885,18.8914,15.5574,-64.4503,7.7785,-72.7828,-4.4425,11.1105,-16.6645,16.6684,8.3345,-7.7804,-24.4474,18.3354,
-6.1115,12.2234,20.0024,-79.4503,10.0015,-87.7828,-19.4425,-1.1115,-31.6645,20.0024,16.6684,3.3335,-12.2234,3.3354,
8.8885,20.5584,5.0024,-65.0083,-4.9985,-72.7828,-4.4425,7.2235,-16.6645,11.6685,3.8895,-5.0005,-27.2234,-6.1115,
0,5.5584,-9.9976,-50.0083,-19.9985,-57.7828,-10.0009,10.0009,-1.6645,11.113,5.556,0,-42.2234,-13.335,
-15,20.5584,5.0024,-35.0083,-4.9985,-42.7828,-7.779,-4.9991,12.224,-3.887,8.89,-15,-27.2234,-4.445,
0,5.5584,-9.9976,-50.0083,3.8895,-57.7828,-22.779,10.0009,-2.776,11.113,23.89,0,-41.6719,10.555,
-10.0015,6.6675,5.0024,-65.0083,6.6675,-72.7828,-37.779,12.2234,-17.776,10.0015,20.0024,-1.1115,-32.2264,1.1115,
-1.1115,21.6675,-4.4445,-50.0083,-5.5565,-57.7828,-22.779,-1.1115,-2.776,-4.9985,5.5565,-16.1115,-47.2264,1.1115,
-0.55549,6.6675,-19.4445,-35.0083,-20.5565,-42.7828,-7.779,0.55549,12.224,10.0015,0.55549,-9.4455,-62.2264,-0.55549,
-15.5555,15.002,-4.4445,-20.0083,-5.5565,-27.7828,7.221,-14.4445,27.224,-4.9985,1.667,-23.8919,-47.2264,-8.3339,
-0.55549,0.0019518,-12.7789,-35.0083,1.667,-42.7828,-7.779,0.55549,12.224,10.0015,16.667,-8.8919,-57.2293,6.6661,
-2.778,-7.223,2.2211,-50.0083,2.778,-57.7828,-22.779,2.778,-2.776,23.8919,13.891,5.001,-42.2293,12.78,
3.3335,7.777,11.1125,-35.0083,-12.222,-42.7828,-7.779,-2.2225,12.224,8.8919,-1.109,-7.7785,-48.8953,11.1125,
-1.1115,-7.223,-3.8875,-20.0083,-27.222,-27.7828,7.221,10.0015,27.224,1.1115,-16.109,5.5565,-63.8953,-3.8875,
-13.3355,7.777,11.1125,-5.0083,-12.222,-12.7828,22.221,-4.9985,42.224,-5.5565,-11.1125,-9.4435,-48.8953,-7.7785,
1.6645,-5.556,1.111,-20.0083,2.778,-27.7828,7.221,10.0015,27.224,9.4435,-1.111,5.5565,-34.4489,7.2215,
6.6675,-7.7785,4.4445,-35.0083,1.1115,-42.7828,-7.779,11.1125,12.224,24.4435,-1.1115,20.0024,-33.3374,22.2215,
11.1119,7.2215,19.4445,-50.0083,8.89,-57.7828,7.221,-3.8875,11.1119,9.4435,-15.558,5.0024,-25.5589,7.2215,
4.445,-7.7785,4.4445,-35.0083,-6.11,-42.7828,22.221,4.445,26.1119,6.668,-30.0034,-4.445,-40.5589,-7.7785,
-10.555,7.2215,19.4445,-20.0083,1.667,-27.7828,37.221,-10.555,41.1119,-1.667,-15.0034,-19.445,-27.2259,-7.223,
4.445,3.3335,4.4445,-35.0083,-4.4445,-42.7828,22.221,4.445,26.1119,13.333,-3.3335,-4.445,-42.2259,7.777,
19.445,-11.6665,3.8895,-50.0083,-3.8895,-57.7828,7.221,19.445,11.1119,28.333,8.3345,10.555,-32.7824,20.5574,
4.445,3.3335,18.8895,-47.7838,1.111,-71.1197,8.89,4.445,-3.8881,13.333,-6.6655,-3.334,-17.7824,5.5574,
12.224,-11.6665,3.8895,-32.7838,-13.889,-56.1197,22.2249,19.445,11.1119,21.1139,-13.335,11.1119,-32.7824,-3.334,
-2.776,2.2225,12.2245,-17.7838,-8.8894,-41.1197,37.2249,4.445,26.1119,12.2245,-2.2225,-3.3335,-25.5584,-2.2225,
12.224,8.8894,3.3335,-32.7838,-13.3355,-56.1197,22.2249,19.445,11.1119,27.2245,-3.3335,11.6665,-34.4489,12.7775,
16.1129,-6.1106,6.112,-47.7838,-6.112,-71.1197,7.2249,23.8919,-3.8881,41.6719,8.3339,23.8919,-21.6694,10.557,
7.2235,8.8894,21.112,-35.0044,8.888,-56.1197,6.1115,8.8919,-18.8881,26.6719,-6.6661,8.8919,-9.4455,1.6665,
22.2235,-6.1106,6.112,-50.0044,5.5562,-71.1197,-8.8885,23.8919,-33.8881,41.6719,8.3339,23.8919,-23.3362,16.6665,
7.2235,8.8894,21.112,-65.0044,1.111,-86.1197,6.1115,8.8919,-18.8881,26.6719,-1.111,8.8919,-8.3362,7.779,
22.2235,-0.55549,6.112,-80.0044,-11.6685,-101.1197,9.4455,10.5564,-33.8881,26.1144,-12.7795,1.6665,-23.3362,8.3345,
29.4481,-15.5555,-1.6673,-95.0044,1.6673,-116.1197,-5.5545,25.5564,-48.8881,41.1144,2.2205,16.6665,-23.8922,20.5582,
14.4481,-0.55549,13.3327,-80.0044,16.6673,-101.1197,1.111,10.5564,-33.8881,26.1144,3.334,1.6665,-8.8922,5.5582,
29.4481,-13.3349,-1.6673,-95.0044,12.2234,-116.1197,-13.889,25.5564,-48.8881,41.1144,11.1125,16.6665,-22.2249,20.5582,
14.4481,1.6651,13.3327,-110.0044,12.224,-131.1197,1.111,10.5564,-33.8881,26.1144,-3.8875,1.6665,-13.3349,5.5582,
20.5584,5.0005,5.0005,-95.0044,-2.776,-116.1197,16.111,6.1115,-18.8881,11.1144,-17.2244,-13.3335,-28.3349,-5.0005,
5.5584,-9.9995,-9.9995,-80.0044,-17.776,-101.1197,2.2225,5.5565,-3.8881,13.3355,-16.6684,-2.2225,-43.3349,-10.0015,
-9.4416,5.0005,5.0005,-65.0044,-2.776,-86.1197,17.2225,-9.4435,11.1119,-1.6645,-23.8924,-17.2225,-28.3349,-19.4475,
5.5584,-2.2225,-9.9995,-80.0044,2.2225,-101.1197,2.2225,5.5565,-3.8881,13.3355,-8.8924,-2.2225,-42.2273,-4.4475,
3.3335,7.7785,5.0005,-95.0044,6.6675,-116.1197,-12.7775,2.2225,-18.8881,11.1125,6.1076,-6.6675,-27.2273,-2.2225,
14.4459,-1.111,4.445,-80.0044,-8.3325,-101.1197,2.2225,-12.7775,-3.8881,1.111,-8.8924,-21.6675,-30.0039,-17.2225,
2.2225,-16.111,-10.555,-65.0044,-23.3325,-86.1197,17.2225,2.2225,11.1119,10.0004,-16.6695,-6.6675,-45.0039,-20.0024,
-12.7775,-1.111,4.445,-50.0044,-8.3325,-71.1197,32.2225,-12.7775,26.1119,-4.9996,-17.7794,-21.6675,-30.0039,-16.6684,
2.2225,-3.3329,3.334,-65.0044,0,-86.1197,17.2225,2.2225,11.1119,10.0004,-2.7794,-6.6675,-38.8933,-1.6684,
1.6665,-8.3345,18.334,-80.0044,-0.55549,-101.1197,2.2225,7.2235,-3.8881,18.3354,6.1115,0.55549,-26.1144,0.55549,
0,6.6655,15.5569,-65.0044,-1.111,-86.1197,17.2225,0,11.1119,3.3354,-8.8885,-14.4445,-34.4489,-7.779,
6.112,-8.3345,0.55691,-50.0044,-16.111,-71.1197,32.2225,8.335,26.1119,9.446,-23.8885,-6.112,-49.4489,-16.1129,
-8.888,6.6655,15.5569,-35.0044,-1.111,-56.1197,47.2225,-6.665,41.1119,-5.554,-16.1135,-21.112,-34.4489,-22.7804,
6.112,18.3354,0.55691,-50.0044,11.6685,-71.1197,32.2225,8.335,26.1119,9.446,-5.0005,-6.112,-41.6719,-7.7804,
12.7789,16.1129,15.5569,-65.0044,15.002,-86.1197,17.2225,1.667,11.1119,7.223,1.667,-1.667,-30.5599,-9.446,
27.7789,31.1129,30.5569,-50.0044,27.7819,-71.1197,32.2225,-3.334,26.1119,3.334,-8.89,-16.667,-22.2249,-12.224,
38.8939,16.1129,15.5569,-35.0044,12.7819,-56.1197,47.2225,8.89,41.1119,16.669,-23.89,-8.89,-37.2249,-27.224,
23.8939,31.1129,25.0029,-20.0044,10.557,-41.1197,62.2225,-6.11,56.1119,1.669,-36.1159,-23.89,-46.1179,-41.6729,
38.8939,26.671,23.337,-35.0044,22.226,-56.1197,47.2225,8.89,41.1119,16.669,-21.1159,-8.89,-51.1173,-26.6729,
37.7829,21.1139,35.5599,-50.0044,28.8929,-71.1197,32.2225,7.779,26.1119,16.669,-6.1159,-1.111,-36.1173,-17.7799,
40.0054,36.1139,50.5599,-35.0044,43.8929,-56.1197,47.2225,-1.1115,11.1119,1.669,-4.4445,-12.2234,-21.1173,-3.3335,
30.0034,21.1139,35.5599,-20.0044,28.8929,-41.1197,40.0054,6.6675,26.1119,6.6675,-19.4445,-6.6675,-36.1173,-18.3335,
15.0034,33.8923,30.5594,-5.0044,13.8929,-26.1197,55.0054,-8.3325,41.1119,-8.3325,-34.4445,-21.6675,-42.7834,-33.3335,
30.0034,41.1164,20.0024,-20.0044,26.6704,-41.1197,40.0054,6.6675,26.1119,6.6675,-19.4445,-6.6675,-41.1164,-18.3335,
28.8919,26.1164,8.89,-35.0044,18.8909,-56.1197,25.0054,13.3349,11.1119,15.5569,-5.557,4.445,-43.3394,-4.445,
31.6704,41.1164,23.89,-20.0044,33.8909,-41.1197,40.0054,3.8895,-3.8881,3.8895,-3.8895,-10.555,-28.3394,-5.0005,
46.6704,26.1164,8.89,-35.0044,18.8909,-56.1197,26.1139,18.8895,-18.8881,10.557,-17.225,-7.223,-43.3394,-8.335,
31.6704,41.1164,23.89,-20.0044,26.6699,-41.1197,41.1139,3.8895,-3.8881,-4.443,-15.558,-22.223,-28.3394,-22.226,
46.6704,48.8953,23.3364,-35.0044,18.8914,-56.1197,26.1139,17.7805,-18.8881,6.6675,-20.0024,-11.1125,-43.3394,-7.226,
31.6704,33.8953,8.3364,-50.0044,3.8914,-71.1197,11.1139,18.3354,-33.8881,20.5584,-5.0024,3.8875,-48.3393,3.8895,
20.0024,48.8953,23.3364,-35.0044,18.8914,-56.1197,-2.2225,3.3354,-28.8924,5.5584,-1.1115,-11.1125,-33.3393,6.6675,
35.0024,33.8953,8.3364,-50.0044,20.5584,-71.1197,-17.2225,18.3354,-43.8924,20.5584,8.3345,3.8875,-43.8943,21.6675,
20.0024,27.7814,15.5585,-65.0044,31.1154,-86.1197,-2.2225,3.3354,-42.2273,5.5584,3.3345,-11.1125,-28.8943,6.6675,
18.8914,35.5604,5.5565,-52.2283,16.1154,-71.1197,12.7775,2.2225,-27.2273,-2.2225,-11.6655,-26.1125,-41.1164,5.5565,
8.8905,20.5604,-9.4435,-37.2283,1.1154,-56.1197,7.7795,10.0015,-14.4454,8.8905,-6.6675,-11.1125,-51.1173,7.7795,
-6.1095,35.5604,5.5565,-22.2283,16.1154,-41.1197,21.6694,-4.9985,-3.8895,-6.1095,-9.4455,-26.1125,-36.1173,3.8895,
8.8905,20.5604,-9.4435,-37.2283,2.7785,-56.1197,6.6694,10.0015,-18.8895,8.8905,-1.6665,-11.1125,-37.2269,18.8895,
1.111,25.5589,5.5565,-52.2283,17.7785,-71.1197,-8.3306,-1.111,-33.8895,12.224,2.223,-5.556,-22.2269,14.447,
0.55549,22.7804,0.55549,-37.2283,2.7785,-56.1197,6.6694,-16.111,-18.8895,-2.776,-12.777,-20.556,-37.2269,-0.55301,
12.224,7.7804,-14.4445,-22.2283,-12.2215,-41.1197,21.6694,-1.111,-3.8895,-3.334,-7.779,-20.003,-52.2269,3.334,
-2.776,22.7804,0.55549,-7.2283,2.7785,-26.1197,34.4489,-16.111,11.1105,-18.334,-13.3349,-35.003,-37.2269,-4.445,
12.224,21.1145,-10.0015,-22.2283,-1.1115,-41.1197,19.4489,-1.111,-3.8895,-3.334,1.1115,-20.003,-38.8939,10.555,
-1.1115,35.5604,4.9985,-37.2283,1.1115,-56.1197,4.4489,4.4455,-18.8895,7.7785,6.6675,-11.1125,-23.8939,18.8914,
4.445,33.3379,5.556,-22.2283,-10.0009,-41.1197,19.4489,-8.89,-3.8895,-7.2215,-4.445,-26.1125,-26.6699,12.224,
0,18.3379,-9.444,-7.2283,-25.0009,-26.1197,34.4489,-1.111,11.1105,7.7785,0,-11.1125,-41.6699,1.112,
-15,33.3379,5.556,7.7717,-10.0009,-11.1197,49.4489,-16.111,26.1105,-7.2215,0,-26.1125,-26.6699,-4.445,
0,18.3379,-9.444,-7.2283,-6.6675,-26.1197,34.4489,-1.111,11.1105,7.7785,15,-11.1125,-30.0034,10.555,
3.8895,3.3379,-3.8895,-22.2283,8.3325,-41.1197,19.4489,13.889,-3.8895,22.7785,30,3.8875,-15.0034,25.555,
-0.55549,12.7795,8.3345,-30.5594,-2.7785,-40.5614,34.4489,-1.111,11.1105,7.7785,15,-11.1125,-16.1135,10.555,
1.667,-2.2205,-6.6655,-15.5594,-17.7785,-25.5614,49.4489,2.778,26.1105,11.668,0,-1.667,-31.1135,-2.778,
-13.333,-1.6675,8.3345,-0.55939,-2.7785,-10.5614,64.4489,-12.222,41.1105,-3.332,-5.0005,-16.667,-16.1135,-0.55549,
1.667,-16.6675,7.223,-15.5594,7.223,-25.5614,49.4489,2.778,26.1105,11.668,-7.223,-1.667,-29.4479,14.4445,
-2.778,-27.2259,8.3339,-30.5594,5.001,-40.5614,34.4489,8.3339,11.1105,10.557,7.777,2.778,-15.002,12.7789,
-0.55549,-12.2259,23.3339,-36.1154,15.0014,-55.5614,49.4489,-3.8895,-3.8895,-4.443,0.55549,-12.222,-0.0019507,8.3345,
6.6675,-27.2259,8.3339,-21.1154,0.0014231,-40.5614,64.4489,6.6675,11.1105,5.5565,-14.4445,-7.7785,-15.002,-5.5565,
-8.3325,-12.2259,22.2249,-6.1154,15.0014,-25.5614,79.4489,-8.3325,26.1105,-9.4435,-6.668,-22.7785,-1.111,-4.445,
6.6675,0,7.2249,-21.1154,7.7779,-40.5614,64.4489,6.6675,11.1105,5.5565,0,-7.7785,-15.558,10.555,
4.4455,-15,1.1115,-36.1154,2.2225,-55.5614,49.4489,4.4455,-3.8895,8.8905,3.3335,-1.1115,-4.4455,13.3355,
2.2225,0,16.1115,-21.1154,17.2225,-40.5614,41.1164,-6.6675,-18.8895,-3.3335,-2.2225,-16.1115,10.5545,11.1125,
17.2225,-15,1.1115,-27.7814,2.2225,-45.5613,41.1164,8.3325,-3.8895,11.6665,-2.2225,-1.1115,-4.4455,18.8914,
2.2225,0,16.1115,-12.7814,17.2225,-30.5613,56.1164,-6.6675,11.1105,-3.3335,-11.113,-16.1115,6.6669,3.8914,
17.2225,0.55549,8.3345,-27.7814,2.7775,-45.5613,41.1164,8.3325,-3.8895,10.5564,-3.8895,-6.1125,-5.0005,16.1124,
5.0005,-14.4445,-6.6655,-42.7814,-5.0005,-60.5613,26.1164,19.4464,-18.8895,25.5564,11.1105,8.8875,6.1115,18.3354,
-7.2224,0.55549,8.3345,-27.7814,9.9995,-45.5613,12.7795,4.4464,-15.0014,10.5564,0.55549,-6.1125,21.1115,10.5575,
7.7776,-14.4445,-6.6655,-42.7814,9.4455,-60.5613,-2.2205,19.4464,-30.0014,25.5564,8.3345,8.8875,6.1115,25.5575,
-7.2224,-26.1144,8.3345,-57.7814,7.2224,-75.5613,12.7795,4.4464,-15.0014,10.5564,-0.55549,-6.1125,9.4455,10.5575,
7.7776,-16.6684,-2.2225,-72.7814,3.3335,-86.6777,27.7795,-1.1115,-0.0014231,12.2234,-4.4455,-14.4465,7.7785,7.7785,
7.2235,-31.6684,-17.2225,-57.7814,-6.1115,-71.6777,12.7795,13.8885,-12.7795,22.7804,7.2235,0.55354,6.1115,19.4475,
-7.7765,-16.6684,-2.2225,-42.7814,5.001,-56.6777,8.3339,-1.1115,-6.112,7.7804,-5.001,-14.4465,20.5579,7.223,
7.2235,-27.7809,-5.556,-57.7814,0,-71.6777,-6.6661,13.8885,-21.112,22.7804,9.999,0.55354,5.5579,22.223,
0,-15.5569,9.444,-72.7814,11.113,-86.6777,-14.4459,0,-36.112,12.224,6.668,-1.111,20.5579,20.003,
13.8904,-6.1115,15.0025,-57.7814,-3.887,-71.6777,0.55407,0.55549,-21.112,-0.55549,-8.332,-12.7795,5.5579,5.003,
3.334,-21.1115,0.0024795,-42.7814,-18.887,-56.6777,15.5541,8.89,-6.112,6.668,-7.779,-3.334,-9.4421,-6.6669,
-11.666,-6.1115,15.0025,-27.7814,-16.6695,-41.6777,30.5541,-6.11,8.888,-8.332,-15.5574,-18.334,5.5579,-10.0015,
3.334,-21.1115,0.0024795,-42.7814,-14.4454,-56.6777,15.5541,8.89,-6.112,6.668,-0.55744,-3.334,6.6675,4.9985,
-2.7775,-16.1124,15.0025,-57.7814,0.5546,-71.6777,0.55407,-0.55549,-21.112,15.0025,14.4426,0.55549,21.6675,19.4475,
-1.1115,-6.6675,5.5565,-42.7814,-8.8894,-56.6777,15.5541,-15.5555,-6.112,0.0024805,-0.55744,-14.4445,6.6675,4.4475,
-3.334,-21.6675,-9.4435,-27.7814,-23.8894,-41.6777,30.5541,-0.55549,8.888,6.668,-13.335,-7.779,-8.3325,3.334,
-18.334,-6.6675,5.5565,-12.7814,-8.8894,-26.6777,45.5541,-15.5555,23.888,-8.332,-5.5565,-22.779,6.6675,-8.8905,
-3.334,-21.6675,-9.4435,-27.7814,-1.667,-41.6777,30.5541,-0.55549,8.888,6.668,8.335,-7.779,1.667,6.1095,
-12.7795,-36.6675,-1.6665,-42.7814,2.7785,-56.6777,15.5541,1.6665,-6.112,21.668,7.2235,7.221,16.667,20.5584,
0,-21.6675,13.3335,-27.7814,10.002,-41.6777,30.5541,-7.7779,8.888,6.668,-2.222,-7.779,23.337,20.003,
1.6665,-36.6675,-1.6665,-12.7814,-4.998,-26.6777,45.5541,5.0005,23.888,6.1115,-11.6685,-9.4455,8.337,5.003,
-13.3335,-21.6675,13.3335,2.2186,-0.55549,-11.6777,60.5541,-9.9995,38.888,-8.8885,0.55549,-24.4455,23.337,-7.2235,
1.6665,-14.447,-1.6665,-12.7814,0,-26.6777,45.5541,5.0005,23.888,6.1115,11.1119,-9.4455,8.337,7.7765,
-0.55549,-15.0025,5.0005,-27.7814,0.55549,-41.6777,30.5541,5.0005,8.888,5.0005,8.3345,-0.55549,2.7775,17.2244,
-2.7785,-0.0024795,20.0005,-37.2274,2.7785,-56.6777,45.5541,-9.9995,19.4475,-9.9995,-6.6655,-15.5555,13.8904,5.0005,
6.668,-15.0025,5.0005,-22.2274,-12.2215,-41.6777,60.5541,0,34.4475,0,-21.6655,-16.6679,-1.1096,4.445,
-8.332,-0.0024795,10.0015,-7.2274,-2.2225,-26.6777,75.5541,-15,49.4475,-15,-13.3344,-31.6679,13.3355,-8.8894,
6.668,-5.0005,0.55549,-22.2274,5.0005,-41.6777,60.5541,0,34.4475,0,-0.55549,-16.6679,6.1125,6.1106,
3.3329,-20.0005,0,-37.2274,0,-56.6777,45.5541,8.89,19.4475,15,3.3329,-4.445,10.0009,5.556,
-0.55549,-5.0005,15,-40.5603,15,-58.3413,45.0053,-5.0005,4.4475,0,0.55549,-19.445,25.0009,10.5564,
11.6679,-20.0005,0,-26.1144,0,-43.3413,56.1178,9.9995,19.4475,15,-6.112,-4.445,10.0009,20.5579,
-3.3321,-26.6694,2.2225,-11.1144,-2.2225,-28.3413,71.1178,-5.0005,34.4475,0,-10.0004,-19.445,25.0009,5.5579,
11.6679,-14.4465,-8.8894,-26.1144,2.2225,-43.3413,56.1178,8.8905,19.4475,15,4.9996,-4.445,14.4465,20.5579,
1.667,-29.4465,-23.8894,-41.1144,-1.667,-58.3413,41.1178,2.778,4.4475,22.7809,13.891,7.223,15.0019,18.336,
-13.333,-14.4465,-8.8894,-36.6719,13.333,-52.2288,26.1178,-11.113,-10.5525,7.7809,5.556,-7.777,30.0019,16.669,
1.667,-29.4465,-23.8894,-51.6719,-1.667,-67.2288,11.1178,3.887,-25.5525,22.7809,17.7802,7.223,15.0019,31.669,
-13.333,-20.559,-8.8894,-66.6719,3.889,-82.2288,26.1178,-11.113,-10.5525,7.7809,10.557,-7.777,29.4479,16.669,
1.667,-5.559,-1.6665,-81.6719,-5.0005,-97.2288,36.1154,2.7785,-18.3354,11.6685,-4.443,1.6665,14.4479,29.4484,
8.3345,-20.559,-15.0014,-66.6719,-8.3345,-82.2288,21.1154,17.7785,-8.3345,26.6685,10.557,16.6665,11.6685,39.4494,
-6.6655,-5.559,-0.001422,-51.6719,0.55549,-67.2288,6.1154,2.7785,6.1125,11.6685,-0.55549,1.6665,26.6685,24.4494,
8.3345,-20.559,-15.0014,-66.6719,-10.557,-82.2288,-8.8846,17.7785,-8.8875,26.6685,14.4445,16.6665,11.6685,39.4494,
-6.6655,-20.5579,-0.001422,-81.6719,-1.667,-97.2288,6.112,2.7785,-23.8875,15.002,15.002,1.6665,26.6685,24.4494,
7.2235,-9.4455,-3.8895,-66.6719,-6.1115,-82.2288,21.112,3.8895,-8.8875,15.0014,0.0019518,-8.3345,20.5584,29.4484,
-7.7765,-24.4455,-18.8895,-51.6719,-21.1115,-67.2288,21.6689,6.112,6.1125,10.557,-13.891,-6.112,5.5584,18.336,
-22.7765,-9.4455,-3.8895,-36.6719,-10.0015,-52.2288,23.3364,-8.888,21.1125,-4.443,-7.7785,-21.112,20.5584,3.336,
-7.7765,-24.4455,-18.8895,-51.6719,-11.1127,-67.2288,8.3364,6.112,6.1125,10.557,7.2215,-6.112,11.1127,18.336,
-7.2235,-31.6704,-3.8895,-66.6719,-0.55549,-82.2288,-6.6636,0.55549,-8.8875,15.0014,22.2215,0.55549,26.1127,30.5594,
1.6665,-16.6704,-9.4455,-51.6719,-10.5564,-67.2288,8.3364,-1.6665,6.1125,2.7785,7.2215,-14.4445,11.6685,22.7804,
-13.3335,-31.6704,-24.4455,-36.6719,-25.5564,-52.2288,23.3364,7.223,21.1125,17.7785,-6.112,-6.112,-3.3315,7.7804,
-28.3335,-16.6704,-9.4455,-21.6719,-17.2244,-37.2288,38.3364,-7.777,36.1125,2.7785,-8.3345,-21.112,11.6685,0.55549,
-13.3335,-31.1149,-24.4455,-36.6719,-4.445,-52.2288,23.3364,7.223,21.1125,17.7785,6.6655,-6.112,4.445,15.5555,
-4.445,-26.6699,-9.4455,-51.6719,10.555,-67.2288,8.3364,6.6669,6.1125,11.1119,20.0019,1.111,19.445,30.5555,
-3.8895,-11.6699,5.5545,-36.6719,-2.7785,-52.2288,23.3364,-3.8895,21.1125,-3.8881,5.0019,-13.889,19.4464,25.0034,
-1.667,-26.6699,-9.4455,-21.6719,-17.7785,-37.2288,38.3364,1.667,36.1125,10.557,-9.9981,-12.7789,4.4464,10.0034,
-16.667,-11.6699,3.889,-6.6719,-6.112,-22.2288,53.3364,-13.333,51.1125,-4.443,-11.6679,-27.7789,19.4464,-2.778,
-1.667,-17.2239,-11.111,-21.6719,-2.778,-37.2288,38.3364,1.667,36.1125,10.557,2.778,-12.7789,6.112,12.222,
-2.222,-25.5579,0,-36.6719,0,-52.2288,23.3364,16.667,21.1125,16.669,15.558,2.2211,21.112,27.222,
-10.557,-10.5579,9.446,-51.6719,-3.889,-67.2288,35.0038,1.667,36.1125,1.669,0.55797,-12.7789,26.1139,20.5579,
-2.2225,-25.5579,-5.554,-36.6719,-18.889,-52.2288,50.0038,2.2225,51.1125,16.6684,-8.8905,-11.1125,11.1139,13.3344,
-17.2225,-18.336,9.446,-21.6719,-3.889,-37.2288,65.0038,-12.7775,66.1125,1.6684,-3.89,-26.1125,22.7809,2.778,
-2.2225,-3.336,-0.55602,-36.6719,-2.778,-52.2288,50.0038,2.2225,51.1125,16.6684,0.55602,-11.1125,9.446,17.778,
-0.55549,-12.7795,2.7785,-51.6719,-5.0005,-67.2288,35.0038,15.0025,36.1125,22.7815,15.0025,0.55549,20.5584,32.778,
-7.2224,2.2205,17.7785,-36.6719,3.8895,-52.2288,20.0038,0.0024816,21.1125,7.7815,10.5575,-14.4445,30.5594,23.8924,
-5.557,-12.7795,2.7785,-21.6719,-11.1105,-37.2288,6.6669,14.4459,36.1125,13.335,0,0,15.5594,21.1129,
-20.557,-11.1125,-1.1115,-6.6719,-13.3355,-22.2288,21.6669,-0.55407,51.1125,-1.665,6.6675,-15,21.1134,11.1125,
-5.557,-11.6685,-7.2235,-21.6719,-3.8895,-37.2288,6.6669,14.4459,36.1125,13.335,17.2244,0,7.2224,26.1125,
3.3335,-26.6685,-14.4465,-36.6719,-3.3335,-52.2288,-8.3331,23.3364,21.1125,21.1145,23.3364,8.8905,18.8914,21.1145,
-11.6665,-11.6685,0.55354,-21.6719,11.6665,-37.2288,6.6669,8.3364,6.1125,6.1145,8.3364,-6.1095,32.2264,15.5574,
3.3335,-26.6685,-14.4465,-36.6719,-1.6667,-52.2288,3.8892,23.3364,-8.8875,21.1145,1.6667,8.8905,17.2264,30.5574,
-11.6665,-11.6685,0.55354,-31.6709,-0.55602,-51.6728,18.8892,8.3364,6.1125,6.1145,-13.3333,-6.1095,3.89,15.5574,
3.3335,3.3315,1.1115,-46.6709,-6.6675,-66.6728,3.8892,18.8914,-8.8875,16.6684,-10.0015,-1.1115,2.2225,21.1134,
18.3335,-11.6685,-4.4455,-61.6709,-2.2225,-80.0108,-11.1108,26.6694,-23.8875,31.6684,4.9985,13.8885,2.2225,24.4474,
3.3335,3.3315,10.5545,-46.6709,3.334,-65.0108,-8.89,11.6694,-8.8875,16.6684,-10.0015,-1.1115,7.779,9.4474,
18.3335,-1.1115,-4.4455,-61.6709,1.1115,-80.0108,-23.89,26.6694,-23.8875,31.6684,1.1115,13.8885,-5.5565,24.4474,
3.3335,13.8885,10.5545,-76.6709,14.4465,-95.0108,-8.89,11.6694,-38.8875,16.6684,-6.6675,-1.1115,9.4435,17.7794,
18.3335,28.3369,25.0029,-61.6709,-0.55354,-80.0108,6.11,-3.3306,-23.8875,1.6684,-21.6675,-16.1115,-3.889,9.446,
3.889,13.3369,10.0029,-46.6709,-15.5535,-65.0108,21.11,-2.778,-8.8875,3.889,-27.2259,-17.225,-17.225,2.778,
-11.111,5.001,19.4469,-31.6709,-5.001,-50.0108,19.4469,-17.778,6.1125,-11.111,-35.0049,-32.225,-2.225,-12.222,
3.889,-9.999,4.4469,-46.6709,-1.667,-65.0108,4.4469,-2.778,-8.8875,3.889,-20.0049,-17.225,3.89,2.778,
-8.3345,5.001,18.3354,-61.6709,9.4455,-80.0108,-10.5531,-6.1115,-23.8875,6.1115,-5.0049,-7.2235,18.89,17.778,
-11.1119,16.669,3.3354,-46.6709,-5.5545,-65.0108,4.4469,-14.4459,-8.8875,-1.111,-18.8909,-22.2235,15.558,2.778,
-15.0025,1.669,-11.6646,-31.6709,-20.5545,-50.0108,19.4469,-0.55549,6.1125,13.889,-16.1135,-19.4475,0.55797,0.55549,
-30.0025,16.669,3.3354,-16.6709,-13.891,-35.0108,34.4469,-15.5555,21.1125,-1.111,-30.5589,-34.4475,13.891,-14.4445,
-15.0025,1.669,-5.556,-31.6709,0,-50.0108,19.4469,-0.55549,6.1125,13.889,-15.5589,-19.4475,0,0.55549,
-8.8905,2.2225,9.444,-46.6709,11.1125,-65.0108,4.4469,-2.2225,-8.8875,20.0024,-0.55886,-8.8905,15,7.7785,
-5.556,17.2225,16.669,-31.6709,-1.111,-50.0108,19.4469,-13.3349,6.1125,5.0024,-15.5589,-23.8905,21.1139,-3.334,
1.667,2.2225,1.669,-16.6709,-16.111,-35.0108,34.4469,1.6651,21.1125,7.224,-26.1139,-16.1129,6.1139,-1.667,
-13.333,12.224,15.558,-1.6709,-8.89,-20.0108,49.4469,-13.3349,36.1125,-7.776,-33.3379,-31.1129,8.89,-16.667,
1.667,0,0.55797,-16.6709,6.11,-35.0108,34.4469,1.6651,21.1125,7.224,-18.3379,-16.1129,15.558,-1.667,
-0.55549,-15,10.5564,-31.6709,7.2224,-50.0108,19.4469,1.6665,6.1125,15.0014,-3.3379,-8.3345,27.2254,6.1115,
0.55549,0,25.5564,-16.6709,11.6685,-35.0108,34.4469,-11.6685,21.1125,0.0014209,-15.0014,-23.3345,28.3374,-0.55549,
9.4465,-15,10.5564,-1.6709,-3.3315,-20.0108,49.4469,3.3315,36.1125,15.0014,-22.7804,-8.3345,13.3374,-3.8895,
-5.5535,0,16.669,13.3291,-4.445,-5.0108,64.4469,-11.6685,51.1125,0.0014209,-34.4489,-23.3345,4.445,-18.8895,
9.4465,9.446,1.669,-1.6709,1.667,-20.0108,49.4469,3.3315,36.1125,15.0014,-19.4489,-12.78,0.55602,-3.8895,
6.1115,-5.554,7.2235,-16.6709,7.2235,-35.0108,34.4469,5.0005,21.1125,9.4455,-5.0005,-9.4455,15.556,9.4455,
-3.889,9.446,22.2235,-2.778,18.336,-42.7828,49.4469,-9.9995,6.1125,-5.5545,-17.2239,-24.4455,27.2259,5.001,
9.4455,-5.554,7.2235,12.222,3.336,-27.7828,64.4469,0.55549,21.1125,1.6665,-25.0034,-18.3354,12.2259,-0.55549,
-5.5545,9.4455,22.2235,27.222,-9.4455,-12.7828,79.4469,-14.4445,36.1125,-13.3335,-38.3384,-33.3354,16.1135,-15.5555,
9.4455,6.112,7.2235,12.222,0.55602,-27.7828,64.4469,-0.55602,21.1125,1.6665,-35.0049,-18.3354,5.001,-0.55549,
8.3339,-8.888,-6.112,-2.778,6.112,-42.7828,49.4469,6.112,6.1125,16.6665,-20.0049,-3.3354,9.446,12.7789,
-6.6661,6.112,8.888,-17.778,16.6679,-44.4509,34.4469,-8.888,0,1.6665,-14.447,-17.7799,21.1129,2.222,
8.3339,-8.888,-6.112,-32.778,1.6679,-59.4509,21.6694,6.112,-1.6665,16.6665,-0.55549,-2.7799,6.1129,17.222,
-6.6661,-9.4465,8.888,-47.778,16.6679,-58.3413,36.6694,-8.888,13.3335,1.6665,-0.55549,-15.0025,21.1129,6.1115,
8.3339,-5.556,1.111,-62.778,7.779,-73.3413,21.6694,6.112,-1.6665,16.6665,-4.445,-2.222,10.0009,21.1115,
1.667,-20.556,-3.89,-77.778,1.667,-88.3413,6.6694,18.336,-16.6665,28.3369,-1.667,3.889,7.223,22.7809,
-13.333,-5.556,11.11,-62.778,10.0009,-73.3413,4.445,3.336,-1.6665,13.3369,-16.667,-11.111,22.223,7.7809,
1.667,-20.556,-3.89,-77.778,-2.2225,-88.3413,-10.555,18.336,-16.6665,28.3369,-1.667,3.889,7.223,22.7809,
-13.333,-7.2235,11.11,-92.778,12.7775,-103.3413,4.445,3.336,-1.6665,13.3369,-5.0005,-10.5564,22.223,7.7809,
1.667,-1.667,-1.667,-77.778,3.889,-88.3413,19.445,-10.557,13.3335,1.667,-20.0005,-22.7809,8.3339,1.667,
0,-16.667,-16.667,-62.778,-11.111,-73.3413,4.445,4.443,28.3335,16.667,-5.0005,-7.7809,-1.112,11.1119,
-15,-1.667,-1.667,-47.778,-2.2225,-58.3413,19.445,-10.557,43.3335,1.667,-4.4445,-22.7809,13.888,-3.8881,
0,-16.667,-16.667,-62.778,-3.3337,-73.3413,4.445,4.443,28.3335,16.667,10.5555,-7.7809,3.3337,11.1119,
-9.4455,-8.3345,-1.667,-77.778,2.7785,-88.3413,-10.555,0.55549,13.3335,12.7795,3.8895,-0.55549,18.3337,16.1135,
5.5545,-8.89,3.334,-62.778,-10.0009,-73.3413,4.445,-11.1119,28.3335,1.111,-11.1105,-15.5555,6.668,10.002,
3.889,-23.89,-11.666,-47.778,-25.0009,-58.3413,19.445,-2.778,43.3335,16.111,-18.336,-7.223,-8.332,2.778,
-11.111,-8.89,3.334,-32.778,-10.0009,-43.3413,34.445,-17.778,58.3335,1.111,-28.8924,-22.223,6.668,-11.1125,
3.889,-21.1134,-11.666,-47.778,0,-58.3413,19.445,-2.778,43.3335,16.111,-13.8924,-7.223,3.334,3.8875,
-1.667,-7.223,3.334,-62.778,13.891,-73.3413,4.445,1.667,28.3335,5.001,1.1076,-4.9999,18.334,10.557,
-5.001,7.777,-1.667,-47.778,1.667,-58.3413,19.445,-13.333,43.3335,-9.999,-13.8924,-19.9999,5.001,-4.443,
9.999,-7.223,-16.667,-32.778,-13.333,-43.3413,34.445,-2.778,58.3335,2.778,-17.225,-10.557,-9.999,9.4449,
-5.001,4.445,-1.667,-17.778,-4.445,-28.3413,49.445,-17.778,73.3335,-12.222,-32.225,-25.557,5.001,-5.5551,
9.999,-4.445,-7.779,-32.778,10.555,-43.3413,34.445,-2.778,58.3335,2.778,-17.225,-10.557,4.445,9.4449,
2.2225,-8.8894,7.221,-47.778,18.8914,-58.3413,19.445,-2.2225,43.3335,6.6675,-2.225,-13.3344,19.445,16.6695,
-1.111,6.1106,22.221,-32.778,8.89,-43.3413,34.445,-17.2225,58.3335,-8.3325,-17.225,-28.3344,16.669,1.6695,
0,-8.8894,7.221,-17.778,-6.11,-28.3413,49.445,-2.2225,73.3335,3.334,-32.225,-15.558,1.669,1.111,
-15,-8.89,6.6669,-2.778,3.334,-13.3413,64.445,-17.2225,88.3335,-11.666,-22.2249,-30.558,16.669,-3.334,
0,-17.7799,-8.3331,-17.778,1.111,-28.3413,49.445,-2.2225,73.3335,3.334,-7.2249,-15.558,5.556,11.666,
-1.111,-24.4479,-2.223,-32.778,15.5569,-43.3413,34.445,6.6669,58.3335,18.334,5.556,-0.55797,20.556,17.7799,
-11.1119,-9.4479,12.777,-17.778,26.671,-31.1149,49.445,-8.3331,43.3335,3.334,-8.89,-15.558,35.556,8.89,
3.8881,-24.4479,-2.223,-2.778,11.671,-16.1149,64.445,1.111,58.3335,2.222,-15.558,-17.7799,20.556,-1.111,
-11.1119,-9.4479,6.112,12.222,2.778,-1.1149,79.445,-13.889,73.3335,-12.778,-20.5579,-32.7799,7.224,-16.111,
3.8881,-1.667,-6.112,-2.778,15.002,-16.1149,64.445,1.111,58.3335,2.222,-5.5579,-17.7799,17.225,-1.111,
0.55549,-16.667,-19.4475,-17.778,3.8895,-31.1149,49.445,9.4455,43.3335,0.55549,9.4421,-2.7799,17.2244,13.889,
-5.001,-1.667,-4.4475,-2.778,18.8895,-32.7819,34.445,-3.89,28.3335,-9.446,2.778,-17.7799,29.4479,20.5579,
9.999,-16.667,-19.4475,-17.778,3.8895,-47.7819,21.1134,11.11,13.3335,5.554,-3.3335,-2.7799,14.4479,18.8914,
-5.001,-2.2225,-4.4475,-2.778,3.3335,-32.7819,36.1134,-3.89,28.3335,-9.446,-17.7794,-17.7799,17.7805,3.8914,
9.999,11.6679,-3.889,-17.778,18.3335,-47.7819,21.1134,11.11,13.3335,2.778,-2.7794,-6.112,10.557,18.8914,
4.4455,-3.3321,-18.889,-32.778,8.8905,-62.7819,6.1134,10.0015,-1.6665,3.3335,-1.1115,3.3335,1.1115,23.3364,
-6.6675,11.6679,-3.889,-17.778,23.8905,-47.7819,-8.8866,-4.9985,-14.4465,-11.6665,-16.1115,-11.6665,16.1115,8.3364,
8.3325,4.4445,-8.8905,-32.778,18.8914,-62.7819,-23.8866,10.0015,-29.4465,3.3335,-6.6675,-1.1115,1.1115,23.3364,
-5.5565,19.4445,6.1095,-47.778,33.8914,-77.7819,-8.8866,-4.9985,-14.4465,-7.7785,5.5565,-16.1115,16.1115,10.0015,
9.4435,22.2249,-5.556,-62.778,20.003,-78.8987,6.1134,3.334,-5.556,-3.334,-9.4435,-21.1139,5.556,15.558,
3.889,7.2249,-20.556,-47.778,5.003,-63.8987,-8.8866,13.891,-0.55602,7.223,-1.667,-6.1139,3.889,25.0029,
-11.111,11.6685,-5.556,-32.778,17.2244,-48.8987,-13.8904,-1.109,1.6665,-7.777,-16.667,-21.1139,17.2244,10.0029,
3.889,-3.3315,-20.556,-47.778,16.1132,-63.8987,-28.8904,13.891,-13.3335,7.223,-1.667,-6.1139,2.2244,25.0029,
-2.778,11.6685,-5.556,-62.778,30.5589,-78.8987,-13.891,-1.109,-28.3335,1.667,9.4449,-5.001,17.2244,26.1139,
6.6675,8.8894,-12.2234,-47.778,15.5589,-63.8987,1.109,-3.3335,-13.3335,-5.5565,-5.5551,-16.6684,13.3355,13.3355,
-1.1115,-6.1106,-27.2234,-32.778,0.55886,-48.8987,16.109,1.1115,1.6665,3.3335,-11.1125,-10.0015,-1.6645,1.1115,
-16.1115,-1.667,-12.2234,-17.778,15.5589,-33.8987,31.109,-13.8885,16.6665,-11.6665,-22.7799,-25.0015,1.667,-4.9999,
-1.1115,-16.667,-27.2234,-32.778,11.1127,-48.8987,16.109,1.1115,1.6665,3.3335,-7.7799,-10.0015,-2.2228,10.0001,
-5.5565,-5.5565,-12.2234,-47.778,15.5574,-63.8987,1.109,3.3335,-13.3335,18.3335,5.5565,4.9985,12.7772,18.8914,
9.4435,-3.89,-3.89,-32.778,6.112,-48.8987,16.109,-11.6665,1.6665,3.3335,-9.4435,-10.0015,8.3339,3.8914,
7.7785,-18.89,-18.89,-17.778,-8.888,-33.8987,31.109,3.3335,16.6665,-1.1115,-24.4435,-1.1115,-6.6661,1.1115,
-7.2215,-4.445,-3.89,-2.778,4.445,-18.8987,46.109,-11.6665,31.6665,-16.1115,-36.6708,-16.1115,8.3339,-13.3349,
7.7785,-7.223,-12.7789,-17.778,16.1129,-33.8987,31.109,3.3335,16.6665,-1.1115,-21.6708,-1.1115,6.112,1.6651,
-5.556,-4.445,2.2211,-32.778,24.4479,-48.8987,16.109,6.668,1.6665,7.779,-6.6708,4.445,17.7799,15.558,
-6.668,10.555,13.3349,-17.778,13.3349,-33.8987,31.109,-8.332,16.6665,-7.221,-21.6708,-10.555,6.6669,0.55797,
6.6669,-4.445,-1.6651,-2.778,-1.6651,-18.8987,46.109,0,31.6665,7.7779,-27.7819,0,-8.3331,-5.557,
-8.3331,-4.445,4.445,12.222,7.779,-3.8987,61.109,-15,46.6665,-7.2221,-32.2269,-15,6.6669,-20.557,
6.6669,-3.889,-10.555,-2.778,17.225,-18.8987,46.109,0,31.6665,7.7779,-17.2269,0,3.889,-5.557,
0,-16.669,-10.0009,-17.778,11.113,-33.8987,31.109,6.668,16.6665,5.556,-2.2269,7.779,17.7799,3.334,
-3.8895,-1.669,4.9991,-27.2254,12.7795,-38.3384,46.109,-8.332,31.6665,-2.7785,-13.8904,-7.221,20.5584,2.7785,
0,-16.669,-10.0009,-12.2254,-2.2205,-23.3384,61.109,-1.111,46.6665,8.89,-25.5589,0,5.5584,2.223,
-15,-12.7795,4.9991,2.7746,12.7795,-8.3384,76.109,-16.111,61.6665,-6.11,-20.5584,-15,20.5584,-7.2235,
0,-16.1124,-10.0009,-12.2254,8.3345,-23.3384,61.109,-1.111,46.6665,8.89,-8.3345,0,15.0025,7.7765,
11.6674,-31.1124,-11.6685,-27.2254,3.8895,-38.3384,46.109,13.889,31.6665,19.4464,-3.8895,15,19.4464,15.0014,
-2.778,-16.1124,3.3315,-12.2254,18.8895,-23.8919,35.0049,-1.111,16.6665,4.4464,-13.8899,0,32.7819,12.78,
11.1125,-31.1124,-11.6685,-5.5565,3.8895,-8.8919,42.2273,8.8905,31.6665,16.6684,-22.2244,5.5565,17.7819,6.6675,
-3.8875,-16.1124,2.778,9.4435,-2.778,6.1081,57.2273,-6.1095,46.6665,1.6684,-20.5579,-9.4435,18.336,-8.3325,
11.1125,-1.1124,-8.335,-5.5565,-1.667,-8.8919,42.2273,8.8905,31.6665,16.1129,-9.446,5.5565,5.001,6.6675,
7.223,-16.1124,-20.5579,-20.5565,-3.889,-23.8919,27.2273,15.002,16.6665,25.0029,3.889,18.336,7.223,21.6675,
-7.777,-1.1124,-5.5579,-5.5565,6.1115,-8.8919,12.2273,0.0019507,16.1135,10.0029,-11.111,3.336,21.6694,6.6675,
7.223,-10.557,-20.5579,-20.5565,3.8895,-23.8919,-2.7727,15.002,1.1135,25.0029,3.889,18.336,6.6694,21.6675,
-7.777,4.443,-5.5579,-35.5565,15.5574,-38.8919,12.2273,0.0019507,16.1135,10.0029,-11.111,3.336,6.6675,6.6675,
7.223,1.111,-17.7799,-50.5565,10.0009,-53.8919,27.2273,1.111,1.1135,-1.111,-17.7799,1.111,-8.3325,13.3349,
20.0019,-13.889,-32.7799,-42.2279,1.111,-51.1178,12.2273,16.111,-7.779,13.889,-2.7799,16.111,-1.111,27.7809,
5.0019,1.111,-17.7799,-27.2279,0.55602,-36.1178,-0.55602,1.111,7.221,-1.111,-17.7799,1.111,13.889,12.7809,
20.0019,-13.889,-30.5597,-42.2279,1.6673,-51.1178,-15.556,16.111,-7.779,13.889,-2.7799,16.111,-1.111,27.7809,
5.0019,1.111,-15.5597,-57.2279,16.114,-66.1178,-0.55602,1.111,-22.779,-1.111,8.335,1.111,13.889,12.7809,
16.669,16.111,-0.55966,-42.2279,2.223,-51.1178,14.444,0,-7.779,-5.556,-6.665,-10.0009,-1.111,8.891,
7.7785,1.111,-15.5597,-27.2279,-12.777,-36.1178,29.444,-3.3335,7.221,4.4445,-21.665,-1.1115,-16.111,1.1115,
-7.2215,11.6679,-0.55966,-12.2279,2.223,-21.1178,44.444,-18.3335,22.221,-10.5555,-30.5599,-16.1115,-2.778,-13.8885,
7.7785,0,-15.5597,-27.2279,0,-36.1178,29.444,-3.3335,7.221,4.4445,-15.5599,-1.1115,-16.669,1.1115,
9.4455,15,-0.55966,-42.2279,7.2235,-51.1178,14.444,-3.8895,-7.779,-8.3345,-0.55992,-8.3345,-1.669,11.6685,
16.1129,25.0029,-1.667,-27.2279,-7.7765,-36.1178,29.444,-18.8895,7.221,-19.4469,-15.5599,-23.3345,-8.3339,1.667,
13.3349,10.0029,-16.667,-12.2279,-22.7765,-21.1178,44.444,-3.8895,22.221,-4.4469,-14.4459,-8.3345,-23.3339,-1.111,
-1.6651,25.0029,-1.667,2.7721,-7.7765,-6.1178,59.444,-18.8895,37.221,-19.4469,-27.7814,-23.3345,-8.3339,-16.111,
13.3349,26.1139,-5.001,-12.2279,2.778,-21.1178,44.444,-3.8895,22.221,-4.4469,-12.7814,-8.3345,-6.112,-1.111,
4.445,17.7799,4.445,-27.2279,-2.222,-36.1178,29.444,0,7.221,4.445,-2.222,3.334,0,13.889,
0.55549,32.7799,-0.55549,-12.2279,-3.8895,-21.1178,44.444,-15,22.221,-10.555,-17.222,-11.666,-5.0005,2.7785,
6.668,17.7799,-15.5555,2.7721,-18.8895,-6.1178,59.444,0,37.221,-3.3329,-18.8909,0,-20.0005,0,
-8.332,26.6699,-0.55549,17.7721,-7.779,8.8822,74.444,-15,52.221,-18.3329,-21.1139,-15,-5.0005,-11.113,
6.668,21.67,-1.667,2.7721,-11.6679,-6.1178,59.444,0,37.221,-3.3329,-6.1139,0,-1.667,3.887,
2.778,8.3339,0.55602,-12.2279,-16.1129,-21.1178,44.444,-0.55602,22.221,8.3339,0.55602,1.667,-6.112,18.336,
7.7785,23.3339,15.556,-10.0015,-1.1129,-6.1178,56.6733,-12.2234,37.221,-6.6661,-2.2225,-13.333,-2.2225,6.6675,
11.1125,8.3339,0.55602,4.9985,-16.1129,8.8822,71.6733,2.7766,52.221,2.2225,-16.6684,-4.4455,-17.2225,-2.2225,
-3.8875,20.5584,15.556,19.9985,-9.4455,23.8822,86.6733,-12.2234,67.221,-12.7775,-21.6694,-19.4455,-2.2225,-11.6685,
11.1125,21.1139,0.55602,4.9985,0,8.8822,71.6733,2.7766,52.221,2.2225,-6.6694,-4.4455,-10.0009,3.3315,
8.335,6.1139,-7.223,-10.0015,-7.223,-6.1178,56.6733,17.7766,37.221,8.335,7.223,10.5545,-0.55602,18.3315,
1.111,21.1139,7.777,-7.779,7.777,-1.111,41.6733,2.7766,22.221,-6.665,-7.777,-4.4455,14.444,8.89,
16.111,6.1139,-7.223,4.9999,-7.223,-2.778,43.8938,2.778,37.221,3.889,-21.67,-3.89,-0.55602,2.778,
1.111,14.4465,1.1115,19.9999,-20.0024,12.222,58.8938,-12.222,52.221,-11.111,-21.1134,-18.89,3.3335,-1.1115,
16.111,27.2254,0.55549,4.9999,-7.2235,-2.778,43.8938,2.778,37.221,3.889,-9.4455,-3.89,-0.55549,13.8885,
10.5575,12.2254,-3.8895,-10.0001,7.2235,-17.778,28.8938,17.778,22.221,15.0025,2.7785,8.3345,-5.0005,15.0025,
-4.4425,27.2254,11.1105,4.9999,15.002,-2.778,13.8938,2.778,7.221,0.0024795,-12.2215,-6.6655,2.778,0.0024795,
10.5575,12.2254,-3.8895,-10.0001,0.0019507,-17.778,-1.1062,17.778,-7.779,15.0025,2.7785,8.3345,-12.222,15.0025,
0.55549,27.2254,11.1105,-25.0001,-0.55549,-32.778,13.8938,2.778,7.221,0.0024795,0.55549,-6.6655,2.778,0.0024795,
15.5555,40.0059,5.557,-40.0001,6.668,-47.778,0,8.89,-7.779,0,-14.4445,-3.3329,-8.89,3.334,
27.2259,25.0059,-6.112,-55.0001,9.4449,-62.778,-15,11.6679,-22.779,1.667,-1.667,8.3339,-3.89,6.112,
12.2259,40.0059,8.888,-40.0001,18.8914,-47.778,0,-3.3321,-7.779,-13.333,-16.667,-6.6661,11.11,-8.888,
27.2259,25.0059,-5.556,-55.0001,5.556,-62.778,-15,11.6679,-22.779,1.667,-7.779,8.3339,-3.89,6.112,
12.2259,40.0054,9.444,-70.0001,20.0024,-77.778,0,-3.3321,-37.779,-7.7785,-6.6675,-6.6661,11.11,5.5565,
26.6699,35.5599,5.556,-55.0001,12.224,-62.778,15,-5.556,-22.779,-17.7799,-6.6669,-21.6661,-3.89,11.113,
13.3355,20.5599,-9.444,-40.0001,-2.776,-47.778,26.6704,2.2225,-7.779,-2.7799,-3.3335,-6.6661,-18.89,4.4455,
-1.6645,35.0049,5.556,-25.0001,-2.778,-32.778,13.891,-12.7775,7.221,-17.7799,-18.3335,-21.6661,-3.89,-10.5545,
13.3355,20.0049,-9.444,-40.0001,4.445,-47.778,-1.109,2.2225,-7.779,-2.7799,-3.334,-6.6661,-4.445,4.4455,
0,28.8929,5.556,-55.0001,19.445,-62.778,-16.109,0,-22.779,-6.6669,11.666,-7.7779,10.555,18.892,
9.446,31.6709,-2.778,-40.0001,4.445,-47.778,-1.109,-2.778,-7.779,-21.6669,-3.334,-22.7779,-4.445,3.892,
20.5584,16.6709,-17.778,-25.0001,-10.555,-32.778,13.891,12.222,7.221,-6.6669,-11.6685,-7.7779,-19.445,-0.55549,
5.5584,31.6709,-2.778,-10.0001,0.55549,-17.778,28.891,-2.778,22.221,-21.6669,-21.6694,-22.7779,-4.445,-15.5555,
20.5584,16.6709,-17.778,-25.0001,9.4455,-32.778,13.891,12.222,7.221,-6.6669,-6.6694,-7.7779,-9.4455,-0.55549,
5.5584,11.6679,-2.778,-40.0001,20.5579,-47.778,-1.109,-2.778,-7.779,-18.336,3.889,-22.7779,5.5545,2.778,
-6.6675,26.6679,12.222,-25.0001,5.5579,-32.778,13.891,-17.778,7.221,-33.336,-11.111,-37.7779,1.1115,-12.222,
4.445,11.6679,-2.778,-10.0001,-9.4421,-17.778,28.891,-2.778,22.221,-18.336,0,-22.7779,-8.89,0,
-10.555,26.6679,4.445,4.9999,-4.445,-2.778,43.891,-17.778,37.221,-33.336,-15,-37.7779,6.11,-15,
4.445,34.4489,-8.89,-10.0001,5.556,-17.778,28.891,-2.778,22.221,-18.336,0,-22.7779,6.6669,0,
-6.1115,37.2274,6.11,-25.0001,10.5575,-32.778,13.891,0.55549,7.221,-3.336,15,-7.7779,21.6669,15,
-14.4459,52.2274,0,-22.2249,0,-35.5599,28.891,-14.4445,22.221,-18.336,5.556,-22.7779,12.224,4.445,
0.55407,37.2274,-15,-7.2249,-15,-20.5599,43.891,0.55549,37.221,-3.336,-1.1115,-7.7779,-2.776,1.1115,
-14.4459,22.2274,-3.889,7.7751,0,-5.5599,58.891,-14.4445,52.221,-18.336,-15.002,-22.7779,11.6679,-13.8885,
0.55407,20.5584,-18.889,-7.2249,7.2235,-20.5599,43.891,0.55549,37.221,-3.336,-0.0019518,-7.7779,2.7785,1.1115,
-0.55549,17.2244,-6.1125,-22.2249,10.5564,-35.5599,28.891,15.5555,22.221,0.55549,14.998,-7.2235,17.7785,16.1115,
-15.002,32.2244,3.889,-7.2249,1.667,-20.5599,13.891,0.55549,7.221,-14.4445,-0.0019518,-22.2235,8.3339,1.1115,
-0.0019518,17.2244,-11.111,7.7751,-13.333,-5.5599,28.891,0.55549,22.221,-0.55549,0.55549,-15.0014,-6.6661,-2.7775,
-15.002,9.4455,-3.8895,22.7751,-10.5564,9.4401,43.891,-14.4445,37.221,-15.5555,3.8895,-30.0014,8.3339,-17.7775,
-0.0019518,23.8919,-12.7789,7.7751,-2.778,-5.5599,28.891,0.55549,22.221,-0.55549,17.225,-15.0014,7.223,-2.7775,
3.334,8.8919,-17.7799,-7.2249,-12.224,-20.5599,13.891,10.0009,7.221,8.89,12.224,-0.001422,3.334,12.2225,
-6.6675,23.8919,-2.7799,-6.6675,2.776,-5.5599,-1.109,-4.9991,-7.779,-6.11,2.2225,-15.0014,18.334,3.3335,
8.3325,8.8919,-17.7799,-21.6675,-7.7785,-20.5599,13.891,10.0009,-10.0015,8.89,7.7785,-0.001422,3.334,18.3335,
-6.6675,23.8919,-2.7799,-6.6675,7.2215,-5.5599,28.891,-4.9991,4.9985,-6.11,-3.3345,-15.0014,7.7785,3.3335,
8.3325,38.8919,-8.3339,-21.6675,13.891,-20.5599,13.891,10.0009,-10.0015,3.889,2.778,-5.001,-2.778,16.1129,
10.5575,23.8919,-23.3339,-36.6675,6.1125,-35.5599,-1.109,20.5584,-25.0015,-0.55549,9.4455,0.55549,-11.6674,2.7785,
-4.4425,38.8919,-8.3339,-21.6675,18.892,-20.5599,3.334,5.5584,-10.0015,-15.5555,-5.5545,-14.4445,3.3326,-12.2215,
10.5575,23.8919,-23.3339,-36.6675,8.3339,-35.5599,-11.666,20.5584,-25.0015,-0.55549,-1.667,0.55549,-2.778,2.7785,
-4.4425,22.7799,-8.3339,-51.6675,20.5579,-50.5599,3.334,5.5584,-36.1159,-15.5555,1.667,-13.891,12.222,11.668,
10.5575,20.003,-13.3349,-66.6675,8.89,-40.0049,18.334,1.111,-21.1159,-16.669,-12.224,-17.7799,1.111,2.222,
15.5574,5.003,-28.3349,-51.6675,-2.2225,-25.0049,3.334,15.5574,-6.1159,-1.669,-2.2225,-3.3345,-3.3345,2.2225,
0.55744,20.003,-13.3349,-36.6675,6.112,-10.0049,2.778,0.55744,8.8841,-16.669,-17.2225,-18.3345,9.446,-12.7775,
15.5574,5.003,-28.3349,-51.6675,5.0005,-25.0049,-12.222,15.5574,-6.1159,-1.669,-3.8895,-3.3345,-5.554,2.2225,
0.55744,20.003,-13.3349,-66.6675,20.0005,-40.0049,-27.222,7.779,-21.1159,-6.6669,3.334,-3.334,9.446,12.224,
2.778,22.7809,-19.4469,-51.6675,5.0005,-25.0049,-12.222,-4.9999,-6.1159,-17.2239,-11.666,-18.334,3.89,-2.776,
-6.6669,7.7809,-34.4469,-36.6675,-9.9995,-10.0049,2.778,2.223,8.8841,-2.2239,-12.2229,-3.334,-11.11,0,
-21.6669,22.7809,-19.4469,-21.6675,5.0005,4.9951,17.778,-12.777,23.8841,-17.2239,-21.1134,-18.334,3.89,-8.8894,
-6.6669,7.7809,-29.4484,-36.6675,3.8895,-10.0049,2.778,2.223,8.8841,-2.2239,-6.1134,-3.334,0.55549,6.1106,
-10.557,7.223,-14.4484,-51.6675,10.557,-25.0049,-12.222,8.335,-6.1159,-3.889,2.778,-2.778,15.5555,5.001,
-13.3349,16.669,-11.113,-36.6675,3.334,-10.0049,2.778,-6.665,8.8841,-18.889,-10.0009,-17.778,7.779,-3.334,
-8.89,1.669,-26.113,-21.6675,-11.666,4.9951,17.778,6.6669,23.8841,-3.889,-12.224,-3.334,-7.221,5.556,
-23.89,16.669,-11.113,-6.6675,2.2225,19.9951,32.778,-8.3331,38.8841,-18.889,-14.4454,-18.334,7.779,-2.2225,
-8.89,1.669,-26.113,-21.6675,-3.8895,4.9951,17.778,6.6669,23.8841,-3.889,0.5546,-3.334,3.8895,12.7775,
-14.4465,-7.7785,-11.113,-36.6675,8.8894,-10.0049,2.778,14.4465,8.8841,7.7785,15.5546,7.7785,18.8895,16.6684,
-11.1125,7.2215,-1.1115,-21.6675,6.6675,4.9951,17.778,-0.55354,23.8841,-7.2215,0.5546,-7.2215,25.5584,1.6684,
2.2225,-7.7785,-16.1115,-6.6675,-8.3325,19.9951,32.778,14.4465,38.8841,-2.2225,-14.4454,-2.2225,10.5584,5.5565,
-12.7775,7.2215,-1.1115,8.3325,-1.1115,34.9951,47.778,-0.55354,53.8841,-17.2225,-14.4465,-17.2225,25.5584,-9.4435,
2.2225,3.334,-16.1115,-6.6675,-3.334,19.9951,32.778,14.4465,38.8841,-2.2225,-10.0009,-2.2225,15.558,5.5565,
0.55549,-8.3345,-15.0025,-21.6675,10.5564,4.9951,17.778,9.4455,23.8841,-0.55549,4.9991,8.3345,26.1144,18.3354,
-14.4445,6.6655,-0.0024805,-6.6675,-1.6665,12.7795,32.778,-5.5545,22.7804,-15.5555,-3.8895,-6.6655,23.8924,3.3354,
-3.334,-8.3345,-15.0025,8.3325,-16.6665,27.7795,47.778,9.4455,37.7804,-0.55549,-3.334,0,8.8924,2.222,
-18.334,6.6655,-3.8895,23.3325,-1.6665,42.7795,62.778,-5.5545,52.7804,-15.5555,-11.6685,-15,23.8924,-3.8895,
-3.334,-3.8895,-18.8895,8.3325,3.8895,27.7795,47.778,9.4455,37.7804,-0.55549,-11.6685,0,9.4455,11.1105,
-3.334,-18.8895,-28.8929,-6.6675,3.334,12.7795,32.778,18.8909,22.7804,12.224,3.3315,15,24.4455,16.669,
-18.334,-3.8895,-13.8929,8.3325,1.667,21.67,17.778,3.8909,15.002,-2.776,-9.4449,0,27.2259,1.669,
-3.334,-18.8895,-28.8929,-3.889,-13.333,13.891,30.5599,18.8909,30.002,1.667,-17.2239,-1.667,12.2259,1.667,
-18.334,-3.8895,-13.8929,-10.5564,1.667,16.1135,45.5599,3.8909,45.002,-13.333,-13.8904,-16.667,27.2254,-9.4455,
-3.334,11.1105,-15.558,-25.5564,15.5569,1.1135,30.5599,17.7799,30.002,1.667,-4.445,-7.779,21.1139,5.5545,
7.779,-3.8895,-28.8929,-40.5564,0.55691,-13.8865,15.5599,17.7799,15.002,11.113,0,7.221,10.0009,11.113,
-7.221,11.1105,-13.8929,-25.5564,9.446,1.1135,0.55992,2.7799,29.4479,-3.887,-15,-7.779,25.0009,-3.887,
7.779,-3.8895,-28.8929,-40.5564,-3.334,-13.8865,-14.4401,16.669,14.4479,11.113,0,7.221,10.0009,11.113,
-7.221,10.5564,-13.8929,-55.5564,11.666,-28.8865,0.55992,1.669,29.4479,-3.887,-0.55549,-7.779,25.0009,0.55549,
7.779,4.9999,-5.001,-70.5564,18.336,-43.8865,15.5599,2.778,14.4479,-6.112,-11.6679,-8.335,10.557,9.4449,
6.1125,-10.0001,-20.001,-55.5564,3.336,-28.8865,0.55992,2.7785,8.3345,-0.55549,-6.1115,6.1125,0.55549,8.3345,
-8.8875,0.55549,-5.001,-40.5564,9.4455,-13.8865,15.5599,-12.2215,23.3345,-15.5555,-21.1115,-8.8875,15.5555,-6.6655,
6.1125,-14.4445,-20.001,-55.5564,1.667,-28.8865,0.55992,2.7785,8.3345,-0.55549,-6.1115,6.1125,3.889,8.3345,
-7.779,0.55549,-5.001,-70.5564,16.667,-43.8865,-14.4401,-4.445,-6.6655,4.445,8.8885,-5.556,18.889,7.779,
7.221,15.5555,-5.5565,-55.5564,6.6675,-28.8865,0.55992,-2.2225,8.3345,-7.7795,-6.1115,-18.8914,21.1134,2.2225,
6.6669,0.55549,-20.5565,-40.5564,-8.3325,-13.8865,15.5599,7.779,23.3345,-1.111,-5.556,-3.8914,6.1134,-1.111,
-8.3331,12.7795,-5.5565,-25.5564,-8.3345,1.1135,30.5599,-7.221,38.3345,-16.111,-20.556,-18.8914,18.3354,-16.111,
6.6669,-2.2205,-20.5565,-40.5564,-0.55549,-13.8865,15.5599,7.779,23.3345,-1.111,-5.556,-3.8914,13.8904,-1.111,
1.667,5.001,-5.5565,-55.5564,14.4445,-28.8865,0.55992,-1.667,8.3345,-7.223,9.444,-2.778,28.8904,8.335,
-1.667,12.7789,-7.223,-40.5564,1.667,-13.8865,15.5599,-16.667,23.3345,-22.223,-5.556,-17.778,13.8904,-6.665,
3.3335,-2.2211,-22.223,-25.5564,-13.333,1.1135,30.5599,-1.667,38.3345,-7.223,-20.0024,-2.778,-1.1096,-2.2225,
-11.6665,5.556,-7.223,-10.5564,1.667,16.1135,45.5599,-16.667,53.3345,-22.223,-25.5589,-17.778,13.8904,-12.224,
3.3335,-9.444,-22.223,-25.5564,10.0009,1.1135,30.5599,-1.667,38.3345,-7.223,-10.5589,-2.778,14.4459,2.776,
-11.1119,0,-7.223,-40.5564,21.1139,-13.8865,15.5599,12.224,23.3345,0,4.4411,12.222,29.4459,12.224,
-10.557,15,-7.223,-25.5564,10.557,1.1135,30.5599,-2.776,38.3345,-15,-10.5589,-2.778,36.1159,1.667,
-8.8905,0,-22.223,-10.5564,-4.443,16.1135,45.5599,4.4445,53.3345,-1.1115,-7.7785,-4.4455,21.1159,3.3335,
-23.8905,-0.55549,-7.223,4.4436,10.557,31.1135,60.5599,-10.5555,68.3345,-16.1115,0.55549,-19.4455,36.1159,-7.2224,
-8.8905,-15.5555,-22.223,-10.5564,1.6665,16.1135,45.5599,4.4445,53.3345,-1.1115,-1.6665,-4.4455,26.1144,7.7776,
-2.778,-0.55602,-10.557,-25.5564,16.6665,1.1135,30.5599,13.891,38.3345,0.55602,13.3335,9.446,41.1144,8.3339,
-16.6684,14.444,-1.1115,-11.1125,17.7794,10.0015,45.5599,-1.109,46.6723,-14.444,-1.6665,-5.554,51.1173,1.1115,
-1.6684,-0.55602,-16.1115,3.8875,2.7794,25.0015,60.5599,3.334,61.6723,0.55602,-16.6665,-3.334,36.1173,14.4459,
-16.6684,14.444,-8.89,18.8875,4.445,40.0015,75.5599,-11.666,76.6723,-14.444,-26.6699,-18.334,32.2259,-0.55407,
-1.6684,9.4449,-23.89,3.8875,11.6679,25.0015,60.5599,3.334,61.6723,-1.667,-11.6699,-3.334,23.8919,14.4459,
2.2225,-5.5551,-13.3355,-11.1125,10.0015,10.0015,45.5599,-1.1115,46.6723,1.1115,3.3301,6.6675,37.7824,21.1134,
-12.7775,9.4449,1.6645,3.8875,3.334,-4.9985,30.5599,-16.1115,31.6723,-13.8885,-11.6699,-8.3325,35.5599,6.1134,
2.2225,-5.5551,-13.3355,18.8875,-11.666,1.1115,44.4504,-1.1115,41.1164,-1.1115,-15.5574,4.4445,20.5599,-1.1115,
-12.7775,9.4449,-7.223,33.8875,3.334,16.1115,59.4504,-16.1115,56.1164,-16.1115,-12.7789,-10.5555,35.5599,-16.1115,
2.2225,8.3345,-22.223,18.8875,15.0014,1.1115,44.4504,-1.1115,41.1164,-1.1115,-3.8895,-0.55549,29.4474,-1.1115,
-1.667,-6.6655,-37.223,3.8875,8.335,-13.8885,29.4504,1.667,26.1164,1.667,6.112,6.112,28.3369,11.6679,
-16.667,8.3345,-22.223,18.8875,20.5584,1.1115,14.4504,-13.333,18.3354,-13.333,-8.888,-8.888,36.1154,0.55549,
-1.667,-6.6655,-30.0044,3.8875,10.0004,-13.8885,-0.54964,1.667,3.3354,1.667,-2.2225,6.112,21.1154,15.5555,
-16.667,8.3345,-15.0044,-11.1125,25.0004,-28.8885,14.4504,-13.333,18.3354,-13.333,-3.3335,-8.888,36.1154,3.3335,
-1.667,23.3345,-8.3345,-26.1125,22.7815,-43.8885,17.2244,1.667,3.3354,-5.0005,-9.4455,-7.2224,26.1144,16.1135,
2.778,8.3345,-23.3345,-26.1139,7.7815,-28.8885,2.2244,16.667,-11.6646,2.778,-2.778,6.112,16.1129,17.225,
-12.222,14.4465,-8.3345,-11.1139,3.3335,-13.8885,-3.3335,1.667,3.3354,-12.222,-17.778,-8.888,18.8914,2.225,
2.778,-0.55354,-23.3345,-26.1139,13.8904,-28.8885,-18.3335,16.667,-11.6646,2.778,-2.778,-1.6665,13.8904,17.225,
-4.445,8.89,-8.3345,-41.1139,28.8904,-43.8885,-3.3335,1.667,-26.6646,-12.222,5.556,-16.6665,28.8904,4.445,
2.2225,8.8905,-11.1125,-31.1154,25.5584,-28.8885,11.6665,-2.2225,-11.6646,-17.7805,-9.444,-25.5584,26.6704,4.4445,
-12.7775,-6.1095,-26.1125,-16.1154,10.5584,-13.8885,26.6665,9.446,3.3354,-2.7805,-0.55602,-10.5584,11.6704,9.446,
-27.7775,5.001,-25.0029,-1.1154,13.891,1.1115,40.5609,-5.554,18.3354,-17.7805,-15.556,-25.5584,26.1139,-5.001,
-12.7775,-9.999,-40.0029,-16.1154,0.55602,-13.8885,25.5609,9.446,3.3354,-2.7805,-0.55602,-10.5584,11.1139,9.999,
-19.4464,5.001,-25.0029,-31.1154,15.556,-28.8885,10.5609,12.7795,-11.6646,0.55549,14.444,-0.55549,26.1139,24.999,
-31.1154,3.3335,-35.5604,-16.1154,12.2234,-13.8885,25.5609,-2.2205,3.3354,-14.4445,-0.55602,-15.5555,13.3344,11.1125,
-16.1154,-11.6665,-50.5604,-1.1154,-2.7766,1.1115,40.5609,10.5575,18.3354,-8.3345,-13.8904,-3.8895,3.8895,17.2244,
-31.1154,3.3335,-35.5604,13.8846,7.223,16.1115,55.5609,-4.4425,33.3354,-23.3345,-15.002,-18.8895,18.8895,2.2244,
-16.1154,-11.6665,-47.7838,-1.1154,8.8905,1.1115,40.5609,10.5575,18.3354,-8.3345,-0.0019518,-3.8895,15.5574,17.2244,
-11.6679,3.3335,-32.7838,-16.1154,23.8905,-13.8885,25.5609,7.223,3.3354,-3.889,14.998,10.557,30.5574,32.2244,
-21.6694,11.6685,-17.7838,-1.1154,8.8905,1.1115,40.5609,-7.777,18.3354,-18.889,-0.0019518,-4.443,26.1144,17.2244,
-6.6694,-3.3315,-32.7838,13.8846,-6.1095,16.1115,55.5609,7.223,33.3354,-8.89,-13.3349,-11.113,11.1144,3.334,
-21.6694,5.0005,-17.7838,28.8846,8.8905,31.1115,70.5609,-7.777,48.3354,-23.89,-12.7795,-26.113,26.1144,-5.0005,
-6.6694,-1.667,-32.7838,13.8846,1.667,16.1115,55.5609,7.223,33.3354,-8.89,2.2205,-11.113,23.8919,9.9995,
1.6665,-1.6665,-17.7838,-1.1154,13.8904,1.1115,40.5609,10.5564,18.3354,-7.2235,15.0014,3.887,38.8919,18.3354,
0.55549,13.3335,-2.7838,-2.7785,10.5564,-0.55549,55.5609,-4.4436,33.3354,-22.2235,0.0014209,-11.113,33.8934,6.1115,
7.2235,-1.6665,-17.7838,12.2215,-4.4436,14.4445,70.5609,0.55549,48.3354,-16.1135,-6.1115,-0.55549,18.8934,0.55549,
-7.7765,0.55549,-9.4455,27.2215,7.2235,29.4445,85.5609,-14.4445,63.3354,-31.1135,-0.55549,-15.5555,33.8934,-14.4445,
7.2235,0,-24.4455,12.2215,10.0009,14.4445,70.5609,0.55549,48.3354,-16.1135,0,-0.55549,34.4478,0.55549,
2.2225,-2.2225,-9.4455,-2.7785,17.7794,-0.55549,55.5609,7.7785,33.3354,-2.2225,12.2234,6.6675,40.0054,15.5555,
-12.7775,12.7775,2.778,8.3339,2.7794,14.4445,45.0059,-7.2215,18.3354,-17.2225,-2.7766,-8.3325,25.0054,0.55549,
2.2225,-2.2225,-12.222,23.3339,-12.2206,29.4445,60.0059,7.223,33.3354,-6.112,-15.002,-2.778,10.0054,2.778,
-12.7775,12.7775,-8.89,23.337,1.111,44.4445,75.0059,-7.777,48.3354,-21.112,-7.779,-17.778,25.0054,-1.111,
2.2225,1.667,-23.89,8.337,3.889,29.4445,60.0059,7.223,33.3354,-7.223,0.55602,-2.778,19.4469,13.889,
0,-13.333,-33.3379,-6.663,8.89,14.4445,45.0059,15.5569,18.3354,0,7.779,5.556,21.1139,13.335,
-15,1.667,-18.3379,8.337,3.889,29.4445,30.0059,0.55691,3.3354,-15,-7.221,-9.444,31.6709,-1.665,
0,-13.333,-33.3379,-6.663,-11.111,14.4445,16.1135,15.5569,-11.6646,-0.55549,0.55549,5.556,21.6694,13.335,
-15,1.667,-18.3379,-17.2244,3.889,-0.55549,31.1135,0.55691,3.3354,-15.5555,5.0005,-9.444,36.6694,12.7795,
0,6.668,-17.7799,-32.2244,0,-15.5555,16.1135,5.556,-11.6646,-0.55549,0,-8.89,21.6694,22.2249,
6.112,-8.332,-30.5599,-47.2244,-6.112,-30.5555,1.1135,16.1129,-26.6646,10.557,12.7789,6.11,15.002,21.6689,
-8.888,6.668,-15.5599,-32.2244,6.6669,-15.5555,-5.557,1.1129,-11.6646,-4.443,-2.2211,-8.89,30.002,6.6689,
6.112,-8.332,-30.5599,-47.2244,0,-30.5555,-20.557,16.1129,-26.6646,1.111,0,6.11,21.1139,21.6689,
-8.888,6.668,-15.5599,-62.2244,15,-45.5555,-5.557,1.1129,-41.6646,-13.889,10.0009,-7.779,36.1139,7.779,
6.112,21.668,-12.2245,-51.1184,8.8894,-31.1154,9.443,-1.1115,-26.6646,-18.8914,-4.9991,-16.6695,21.1139,1.1115,
-7.7785,6.668,-27.2245,-36.1184,-6.1106,-16.1154,24.443,5.5565,-11.6646,-12.2234,-14.4465,-3.3335,8.8905,3.3335,
-22.7785,21.668,-12.2245,-21.1184,6.6675,-1.1154,31.1154,-9.4435,3.3354,-27.2234,-27.7814,-18.3335,23.8905,-11.1125,
-7.7785,6.668,-27.2245,-36.1184,3.8895,-16.1154,16.1154,5.5565,-11.6646,-12.2234,-12.7814,-3.3335,16.1135,3.8875,
-8.89,21.1139,-12.2245,-51.1184,18.8895,-31.1154,1.1154,8.89,-26.6646,-10.0009,2.2186,-4.445,31.1135,18.8875,
-17.2239,6.1139,-27.2245,-36.1184,3.8895,-16.1154,16.1154,-6.11,-11.6646,-25.0009,-12.7814,-19.445,16.1135,5.001,
-11.6679,-8.8861,-42.2245,-21.1184,-11.1105,-1.1154,31.1154,8.89,3.3354,-10.0009,-13.891,-4.445,2.778,11.6679,
-26.6679,6.1139,-27.2245,-6.1184,3.8895,13.8846,46.1154,-6.11,18.3354,-25.0009,-26.6699,-19.445,17.778,-3.3321,
-11.6679,-8.8861,-42.2245,-21.1184,10.0015,-1.1154,31.1154,8.89,3.3354,-10.0009,-11.6699,-4.445,10.0015,11.6679,
-4.9999,6.1139,-27.2245,-36.1184,25.0015,-16.1154,16.1154,17.225,-11.6646,2.778,3.3301,-2.778,25.0015,26.6679,
-19.4464,13.8904,-28.3364,-21.1184,10.0015,-1.1154,31.1154,2.225,3.3354,-12.222,-11.6699,-17.778,28.3374,11.6679,
-4.4464,-1.1096,-43.3364,-6.1184,-4.9985,13.8846,46.1154,10.0009,18.3354,-5.556,-12.224,-2.778,13.3374,11.113,
-19.4464,13.8904,-28.3364,8.8816,7.779,28.8846,61.1154,-4.9991,33.3354,-20.556,-16.669,-17.778,28.3374,-3.887,
-4.4464,-1.1096,-39.4488,-6.1184,9.446,13.8846,46.1154,10.0009,18.3354,-5.556,-1.669,-2.778,18.336,11.113,
-11.6679,2.778,-24.4488,-21.1184,23.8919,-1.1154,31.1154,1.667,3.3354,-1.667,13.331,3.889,33.336,26.113,
-26.6679,17.778,-9.4488,-6.1184,15.5574,11.1125,46.1154,-13.333,18.3354,-16.667,-1.669,-11.111,33.3374,11.113,
-11.6679,2.778,-24.4488,8.8816,0.55744,26.1125,61.1154,1.667,33.3354,-16.669,-12.224,-12.224,18.3374,12.224,
-26.6679,11.1125,-9.4488,23.8816,3.3335,41.1125,76.1154,-13.333,48.3354,-31.669,-16.6695,-27.224,32.2264,-2.776,
-11.6679,-1.111,-24.4488,8.8816,-2.222,26.1125,61.1154,1.667,33.3354,-16.669,-1.6695,-12.224,17.2264,12.224,
-8.89,-13.3349,-21.1139,-6.1184,8.89,11.1125,46.1154,16.667,18.3354,-1.669,13.3305,2.776,32.2264,27.224,
-23.89,1.6651,-10.5575,0.55549,-0.55549,5.0005,45.0053,1.667,21.6694,-16.669,-1.6695,-12.224,28.3364,12.224,
-8.89,-13.3349,-25.5575,15.5555,-15.5555,20.0005,60.0053,7.7785,36.6694,-1.669,-14.4465,-4.4455,13.3364,5.5565,
-23.89,0.55549,-10.5575,30.5555,-1.6675,35.0005,75.0053,-7.2215,51.6694,-16.669,-6.1125,-19.4455,28.3364,1.6665,
-8.89,-11.113,-25.5575,15.5555,-4.445,20.0005,60.0053,7.7785,36.6694,-1.669,8.8875,-4.4455,15.5569,16.6665,
-4.445,-26.113,-34.4494,0.55549,4.445,5.0005,45.0053,21.1139,21.6694,13.331,23.8875,10.5545,26.6699,28.8919,
-19.445,-11.113,-19.4494,6.112,2.778,13.891,30.0053,6.1139,26.1139,-1.669,8.8875,-4.4455,22.7809,13.8919,
-4.445,-26.113,-34.4494,-8.888,-12.222,-1.109,15.0053,7.223,19.4469,2.778,-1.667,1.667,7.7809,16.1129,
-19.445,-11.113,-19.4494,-23.888,2.778,-16.109,30.0053,-7.777,34.4469,-8.3345,13.333,-5.0005,22.7809,27.2254,
-4.445,-7.223,-31.6709,-38.888,8.3339,-31.109,15.0053,7.223,19.4469,0.55602,-0.55602,1.667,7.7809,36.1159,
-7.2235,-16.1135,-32.7814,-53.888,10.5575,-46.109,0.0053256,22.223,4.4469,7.2235,12.7795,8.3345,11.6685,33.8934,
-22.2235,-1.1135,-17.7814,-38.888,2.2225,-31.109,3.3335,7.223,16.6684,-7.7765,-2.2205,-6.6655,15.5574,18.8934,
-7.2235,-16.1135,-32.7814,-53.888,-2.2225,-46.109,-11.6665,22.223,1.6684,7.2235,12.7795,8.3345,2.2225,33.8934,
-22.2235,-1.1135,-17.7814,-68.888,12.7775,-61.109,3.3335,7.223,16.6684,-7.7765,18.892,-4.445,17.2225,28.8929,
-7.2235,-0.55602,-28.3369,-53.888,1.667,-46.109,18.3335,-7.777,31.6684,-13.891,3.892,-19.445,6.112,15.002,
-19.4469,-15.556,-43.3369,-38.888,-13.333,-31.109,3.3335,-5.001,46.6684,0.55602,0.55602,-4.445,-8.3339,11.6679,
-34.4469,-16.6695,-28.3369,-23.888,1.667,-16.109,18.3335,-20.001,61.6684,-14.444,-11.1125,-19.445,6.6661,6.6675,
-19.4469,-31.6695,-40.0051,-38.888,5.5562,-31.109,3.3335,-5.001,46.6684,0.55602,3.8875,-4.445,-5.5562,21.6675,
-18.8909,-16.6695,-25.0051,-53.888,14.4459,-46.109,-11.6665,1.111,31.6684,3.334,18.8875,6.668,9.4438,30.0039,
-3.8909,-10.002,-15.558,-38.888,1.111,-31.109,3.3335,-1.112,46.6684,-6.668,7.7779,0,14.4459,26.6699,
-11.6685,-25.002,-30.558,-23.888,-13.889,-16.109,18.3335,-0.55549,61.6684,0.55549,8.3345,-0.55549,-0.55407,13.8904,
-26.6685,-10.002,-15.558,-8.888,1.111,-1.109,33.3335,-15.5555,76.6684,-14.4445,-6.6655,-15.5555,6.112,-1.1096,
-11.6685,-21.1139,-28.8929,-23.888,10.0009,-16.109,18.3335,-0.55549,61.6684,0.55549,8.3345,-0.55549,-5.556,13.8904,
-11.668,-18.336,-13.8929,-38.888,23.8919,-31.109,3.3335,3.889,46.6684,1.667,23.3345,1.667,9.444,18.3349,
-18.8909,-3.336,-26.6699,-23.888,8.8919,-16.109,18.3335,-11.111,61.6684,-13.333,8.3345,-13.333,1.111,3.3349,
-10.0009,-18.336,-41.6699,-8.888,-6.1081,-1.109,33.3335,3.334,76.6684,-3.334,-6.6655,1.667,-13.889,18.3349,
-25.0009,-3.336,-26.6699,6.112,2.778,13.891,48.3335,-11.666,91.6684,-18.334,-12.78,-13.333,1.111,7.223,
-10.0009,-18.336,-38.8944,-8.888,6.6675,-1.109,33.3335,3.334,76.6684,-3.334,2.22,1.667,-6.6675,22.223,
-5.001,-11.668,-23.8944,-23.888,21.6675,-16.109,18.3335,11.6679,61.6684,5.001,15.002,13.891,8.3325,33.8929,
-4.4445,3.332,-8.8944,-13.3344,16.6695,-1.109,33.3335,-3.3321,76.6684,-9.999,0.0019518,-1.109,8.8905,27.7814,
-8.335,-11.668,-23.8944,1.6656,1.6695,13.891,48.3335,11.6679,91.6684,2.778,-2.778,-3.89,-6.1095,16.1129,
-23.335,-9.446,-11.6679,16.6656,-1.667,28.891,63.3335,-3.3321,106.6684,-12.222,2.778,-18.89,8.8905,1.667,
-8.335,-24.446,-26.6679,1.6656,0,13.891,48.3335,11.6679,91.6684,2.778,14.4459,-3.89,0,16.667,
-2.778,-35.0049,-23.8919,-13.3344,9.446,-1.109,33.3335,7.223,76.6684,3.889,27.2259,2.778,15,26.1139,
-16.1129,-20.0049,-8.8919,-10.557,8.3339,-16.109,48.3335,-7.777,61.6684,-11.111,12.2259,-12.222,11.6679,11.1139,
-1.1129,-35.0049,-23.8919,4.443,-6.6661,-1.109,63.3335,7.223,76.6684,-1.111,-2.7741,-2.223,-3.3321,8.89,
-16.1129,-20.0049,-8.8919,19.443,8.3339,13.891,78.3335,-7.777,91.6684,-16.111,-17.7741,-17.223,2.7785,-5.0005,
-1.1129,-5.0049,-19.4469,4.443,17.2239,-1.109,63.3335,5.001,76.6684,-1.667,-2.7741,-2.778,9.446,9.9995,
-8.3345,-16.1124,-21.6694,-10.557,18.3365,-16.109,48.3335,13.8915,61.6684,8.3345,12.2259,8.3345,21.6694,24.9995,
-23.3345,-1.1124,-7.2235,-7.2235,21.6694,-1.109,33.3335,-1.1085,46.6684,-6.6655,-2.7741,-6.6655,13.8904,10.5564,
-8.3345,-16.1124,-22.2235,-22.2235,6.6694,-15.5574,32.2264,12.2234,41.1164,6.6675,-2.2225,2.2225,-1.1096,25.5564,
-23.3345,-1.1124,-8.89,-7.2235,3.334,-0.55744,47.2264,-2.7766,56.1164,-8.3325,-15.558,-12.7775,1.111,10.5564,
-8.3345,13.8876,-12.2234,-22.2235,12.2234,-15.5574,32.2264,12.2234,41.1164,-5.5565,-0.55797,-3.3335,-5.5565,18.8914,
1.667,-1.1124,-27.2234,-37.2235,8.3339,-30.5574,17.2264,18.336,26.1164,7.223,14.442,11.6665,-1.667,23.8919,
-13.333,13.8876,-12.2234,-22.2235,8.3339,-15.5574,2.2264,3.336,21.6689,-7.777,-0.55797,-3.3335,6.112,9.4449,
1.667,-1.1124,-27.2234,-37.2235,6.6675,-30.5574,-12.7736,18.336,6.6689,7.223,14.442,11.6665,-6.6675,24.4449,
-13.333,-1.111,-12.2234,-52.2235,21.6675,-45.5574,2.2264,3.336,21.6689,-5.556,29.442,1.111,8.3325,35.5599,
1.667,-1.667,-27.2234,-67.2235,7.223,-60.5574,17.2264,0.55602,6.6689,-1.667,14.442,-1.667,1.667,30.5599,
-3.8895,-16.667,-42.2234,-52.2235,-5.0005,-45.5574,2.2264,8.3345,16.1135,5.0005,18.3365,10.5575,-8.3345,17.2244,
-18.8895,-1.667,-27.2234,-37.2235,6.6675,-30.5574,11.1125,-6.6655,31.1135,-9.9995,3.3365,-4.4425,6.6655,2.2244,
-3.8895,-16.667,-42.2234,-52.2235,3.8895,-45.5574,-3.8875,8.3345,16.1135,5.0005,13.8904,10.5575,-3.8895,17.2244,
-9.446,-1.667,-27.2234,-67.2235,18.8895,-60.5574,-1.667,1.667,1.1135,3.889,28.3369,-1.667,11.1105,32.2244,
-3.889,9.446,-23.8919,-52.2235,10.557,-45.5574,13.333,-13.333,16.1135,-11.111,13.3369,-16.667,-3.8895,17.2244,
0,-5.554,-38.8919,-37.2235,0,-30.5574,28.333,1.667,31.1135,-5.556,-1.6631,-3.334,-18.8895,12.224,
-15,9.446,-23.8919,-22.2235,15,-15.5574,43.333,-13.333,46.1135,-20.556,-13.891,-18.334,-3.8895,-2.776,
0,-5.554,-38.8919,-37.2235,6.6675,-30.5574,28.333,1.667,31.1135,-5.556,1.109,-3.334,-6.6675,12.224,
-13.8904,9.446,-23.8919,-52.2235,21.6675,-45.5574,13.333,-0.55549,16.1135,6.1115,16.109,0.55549,8.3325,27.224,
-17.7799,11.113,-17.7799,-37.2235,15.558,-30.5574,28.333,-15.5555,31.1135,-8.8885,1.109,-14.4445,-6.6675,12.224,
-4.9999,-3.887,-32.7799,-22.2235,0.55797,-15.5574,43.333,-0.55549,46.1135,-3.889,-1.667,0.55549,-17.2239,6.112,
-19.9999,11.113,-17.7799,-7.2235,-2.7785,-0.55744,58.333,-15.5555,61.1135,-18.889,-7.2235,-14.4445,-2.2239,-8.888,
-4.9999,0.55549,-32.7799,-22.2235,1.6665,-15.5574,43.333,-0.55549,46.1135,-3.889,-0.55549,0.55549,-15.0025,6.112,
-19.9999,8.89,-17.7799,-37.2235,16.6665,-30.5574,28.333,3.334,31.1135,0,10.0009,0,-0.0024795,21.112,
-22.7804,15.0014,-16.1135,-22.2235,8.3345,-15.5574,43.333,-11.666,46.1135,-15,-4.9991,-15,3.8895,6.112,
-7.7804,0.001422,-31.1135,-7.2235,-6.6655,-0.55744,58.333,3.334,61.1135,-1.667,0.55602,-3.889,-11.1105,2.778,
-22.7804,15.0014,-16.1135,7.7765,8.3345,14.4426,73.333,-11.666,76.1135,-16.667,-14.444,-18.889,3.8895,-12.222,
-7.7804,0.55602,-31.1135,-7.2235,2.778,-0.55744,58.333,3.334,61.1135,-1.667,-0.55602,-3.889,-1.667,2.778,
-1.667,-1.667,-16.1135,-22.2235,17.778,-15.5574,43.333,8.3339,46.1135,1.667,14.444,8.3339,13.333,17.778,
-13.891,13.333,-1.1135,-23.8919,25.0029,-1.667,58.333,-6.6661,49.4508,-13.333,-0.55602,-6.6661,9.446,10.557,
0,-1.667,-16.1135,-8.8919,10.0029,13.333,73.333,3.334,64.4508,0,-7.7779,-7.7779,-5.554,6.668,
-15,-3.3345,-2.2225,6.1081,12.2234,28.333,88.333,-11.666,79.4508,-15,2.2225,-22.7779,9.446,-8.332,
0,-14.4465,-17.2225,-8.8919,15.5574,13.333,73.333,3.334,64.4508,0,12.2234,-7.7779,-1.1115,6.668,
-6.112,-29.4465,-17.225,-23.8919,15.002,-1.667,58.333,10.557,49.4508,8.3339,25.0029,6.112,10.557,21.668,
-21.112,-14.4465,-2.225,-8.8919,0.55602,-0.55602,43.333,-4.443,34.4508,-6.6661,10.0029,-8.888,10.557,6.668,
-6.112,-29.4465,-17.225,6.1081,-14.444,14.444,58.333,4.445,49.4508,0,-4.9971,-1.111,-4.443,0,
-21.112,-14.4465,-2.225,14.4465,-2.2225,21.1134,73.333,-10.555,64.4508,-15,3.3335,-16.111,10.557,-14.4465,
-6.112,-6.112,-17.225,-0.55354,11.6679,6.1134,58.333,4.445,49.4508,0,18.3335,-5.001,5.001,0.55354,
0.55549,-19.4464,-32.225,-15.5535,8.3345,-8.8866,43.333,9.4455,34.4508,9.4455,26.1144,-0.55549,10.5575,15.0025,
-14.4445,-4.4464,-17.225,-0.55354,9.446,6.1134,28.333,-5.5545,19.4508,-5.5545,11.1144,-15.5555,7.223,0.0024795,
0.55549,-16.6684,-32.225,-15.5535,0,-8.8866,13.333,9.4455,4.4508,9.4455,26.1144,-0.55549,-7.777,11.113,
-14.4445,-1.6684,-17.225,-30.5535,5.0005,-23.8866,28.333,-5.5545,19.4508,-5.5545,16.1135,-15.5555,7.223,-3.887,
0.55549,7.7785,-15.5574,-45.5535,1.1115,-38.8866,38.8944,9.4455,4.4508,-2.2225,6.6675,-7.7785,-1.1115,11.113,
6.668,-7.2215,-30.5574,-30.5535,1.111,-23.8866,23.8944,21.1139,-3.334,12.7775,21.6675,7.2215,-1.111,26.113,
-8.332,7.7785,-15.5574,-15.5535,-2.222,-8.8866,18.8909,6.1139,11.666,-2.2225,6.6675,-7.7785,3.334,11.113,
6.668,-7.2215,-30.5574,-30.5535,2.2225,-23.8866,3.8909,21.1139,-3.334,12.7775,21.6675,7.2215,-2.2225,26.113,
-8.332,-6.668,-15.5574,-45.5535,17.2225,-38.8866,18.8909,6.1139,-18.334,5.556,34.4489,0,12.7775,30.0039,
-7.223,7.223,-28.3369,-40.5609,2.2225,-23.8866,33.8909,-1.667,-3.334,-6.112,19.4489,-9.446,-0.55602,19.4469,
-22.223,-7.777,-43.3369,-25.5609,-12.7775,-8.8866,48.8909,1.1115,11.666,-3.3335,4.4489,-1.1115,-15.556,11.1125,
-37.223,7.223,-28.3369,-10.5609,-0.55549,6.1134,41.6713,-13.8885,26.666,-18.3335,0.55549,-16.1115,-0.55602,-0.55549,
-22.223,-7.777,-43.3369,-25.5609,2.2225,-8.8866,26.6713,1.1115,11.666,-3.3335,15.5555,-1.1115,-2.2225,14.4445,
-20.5579,1.667,-28.3369,-40.5609,17.2225,-23.8866,11.6713,3.889,-3.334,-1.667,29.4479,2.778,12.7775,26.1139,
-10.557,13.891,-19.4469,-25.5609,2.778,-8.8866,26.6713,-11.111,11.666,-16.667,14.4479,-12.222,-2.2225,16.1129,
-9.4455,-1.109,-34.4469,-10.5609,-12.222,6.1134,41.6713,3.889,26.666,-3.8895,7.2235,-5.0005,-17.2225,7.2235,
-24.4455,5.0005,-19.4469,4.4391,0.55549,21.1134,56.6713,-11.111,41.666,-18.8895,-7.2235,-20.0005,-2.2225,-7.7765,
-9.4455,-9.9995,-22.7799,-10.5609,1.667,6.1134,41.6713,3.889,26.666,-3.8895,7.7765,-5.0005,-1.667,7.2235,
-11.1119,0,-7.7799,-25.5609,16.667,-8.8866,26.6713,-4.445,11.666,2.223,22.7765,0,13.333,22.2235,
-20.5584,1.6665,-0.55549,-10.5609,1.667,6.1134,41.6713,-19.445,26.666,-12.777,7.7765,-15,1.6665,7.2235,
-5.5584,-13.3335,-15.5555,4.4391,-13.333,21.1134,56.6713,-4.445,41.666,-5.001,5.001,-2.778,-13.3335,11.6679,
-20.5584,-5.5565,-0.55549,19.4391,1.667,36.1134,71.6713,-19.445,56.666,-20.001,-7.7785,-17.778,1.6665,-3.3321,
-5.5584,-20.0019,-15.5555,4.4391,14.447,21.1134,56.6713,-4.445,41.666,-5.001,7.2215,-2.778,0,11.6679,
-2.222,-12.224,-1.111,-10.5609,22.2249,6.1134,41.6713,1.111,26.666,9.999,22.2215,7.779,15,25.5589,
-17.222,2.776,-4.4455,-14.4465,7.7785,3.3335,56.6713,-13.889,41.666,-5.001,7.2215,-7.221,4.4445,10.5589,
-3.3335,-12.224,-19.4455,0.55354,-7.2215,18.3335,71.6713,-2.2225,56.666,1.1115,14.4465,-1.1115,-10.5555,13.3355,
-18.3335,-27.224,-19.4475,15.5535,6.1115,33.3335,86.6713,-17.2225,71.666,-13.8885,6.1115,-16.1115,4.4445,-1.6645,
-3.3335,-19.4475,-23.8924,0.55354,8.3345,18.3335,71.6713,-2.2225,56.666,1.1115,21.1115,-5.0005,9.4455,13.3355,
-1.667,-12.7789,-15.002,-14.4465,7.223,3.3335,56.6713,7.223,41.666,1.667,32.7819,1.667,23.8919,17.2239,
-16.667,2.2211,-0.0019518,-5.001,5.001,-11.6665,45.0059,-7.777,26.666,-13.333,17.7819,-13.333,22.7809,2.2239,
-11.113,-12.7789,-15.002,9.999,-9.999,3.3335,60.0059,-4.445,41.666,1.667,8.89,-12.224,7.7809,16.669,
-26.113,-23.8924,-0.0019518,24.999,-7.2235,18.3335,75.0059,-19.445,56.666,-13.333,3.8895,-27.224,17.2244,1.669,
-11.113,-8.8924,1.111,9.999,0,3.3335,60.0059,-4.445,41.666,0,18.8895,-12.224,4.445,16.669,
2.222,-23.8924,-8.89,-5.001,2.222,-11.6665,45.0059,1.111,26.666,1.111,33.8895,-1.111,7.779,20.0019,
-12.778,-8.8924,6.11,9.999,-0.55602,3.3335,30.0059,-13.889,11.6679,-13.889,18.8895,-16.111,2.778,5.0019,
2.222,-23.8924,-8.89,-5.001,-5.5565,-11.6665,15.0059,1.111,-3.3321,1.111,25.5594,-1.111,-7.7785,20.0019,
-12.778,-8.8924,-4.445,-20.001,9.4435,-23.3359,30.0059,-13.889,11.6679,-13.889,24.4479,-16.111,7.2215,12.224,
2.222,6.1076,-19.445,-35.001,10.0015,-38.3359,15.0059,1.111,-3.3321,-2.2225,22.2254,-7.7785,16.6695,27.224,
1.111,-8.8924,-30.0039,-50.001,-1.111,-37.7829,0.0058533,10.0009,-18.3321,10.0009,26.6699,7.2215,8.89,36.6708,
-13.889,6.1076,-15.0039,-35.001,1.1115,-22.7829,-1.1115,-4.9991,-3.3321,-4.9991,11.6699,-7.7785,14.4465,21.6708,
1.111,-8.8924,-29.4484,-50.001,2.778,-37.7829,-16.1115,10.0009,-18.3321,8.3339,10.557,2.778,-0.55354,31.6709,
-13.889,6.1076,-14.4484,-65.001,17.778,-52.7829,-1.1115,-4.9991,-19.4475,-6.6661,13.8904,-12.222,14.4465,21.6694,
1.111,9.4455,-6.1125,-52.7854,5.0005,-37.7829,13.8885,-18.3365,-4.4475,-6.1125,-1.1096,-17.2244,10.5564,26.1144,
-5.557,-5.5545,-21.1125,-37.7854,-9.9995,-22.7829,21.1129,-5.557,10.5525,4.445,0,-3.334,0,23.3359,
-20.557,8.3345,-6.1125,-22.7854,-8.3345,-7.7829,16.1135,-20.557,25.5525,-10.555,-15,-18.334,10.5564,8.3359,
-5.557,-4.445,-2.223,-37.7854,1.111,-22.7829,1.1135,-5.557,10.5525,4.445,0,-3.334,-1.111,23.3359,
-5.0005,10.555,12.777,-52.7854,16.111,-37.7829,-13.8865,-10.5575,-4.4475,5.0005,15,-8.3345,13.889,22.7804,
-13.8904,9.4455,2.7785,-37.7854,3.8895,-22.7829,1.1135,-25.5575,10.5525,-9.9995,0,-23.3345,1.6665,7.7804,
-5.556,-5.5545,-12.2215,-22.7854,-11.1105,-7.7829,16.1135,-10.5575,25.5525,1.112,0,-8.3345,-13.3335,15.558,
-20.556,2.778,2.7785,-7.7854,-2.778,7.2171,31.1135,-25.5575,40.5525,-13.888,-15,-23.3345,1.6665,0.55797,
-5.556,-12.222,-12.2215,-22.7854,4.445,-7.7829,16.1135,-10.5575,25.5525,1.112,0,-8.3345,7.779,15.558,
-18.336,2.778,2.7785,-37.7854,19.445,-22.7829,1.1135,-1.667,10.5525,1.667,13.891,-2.778,22.779,30.558,
-15.5569,17.778,-1.111,-22.7854,4.445,-7.7829,16.1135,-16.667,25.5525,-13.333,-1.109,-17.778,7.779,15.558,
-0.55691,2.778,-16.111,-7.7854,-10.555,7.2171,31.1135,-1.667,40.5525,0.55602,-12.78,-11.6679,-7.221,11.6679,
-15.5569,13.8904,-1.111,7.2146,-0.55549,22.2171,46.1135,-16.667,55.5525,-14.444,-26.1144,-26.6679,6.1115,-3.3321,
-0.55691,7.7779,-16.111,-7.7854,0,7.2171,31.1135,-1.667,40.5525,0.55602,-11.1144,-11.6679,0,11.6679,
-4.4445,14.4465,-1.111,-22.7854,15,-7.7829,16.1135,-3.3335,25.5525,7.7795,3.8856,-2.2225,15,26.6679,
-11.1125,25.5594,2.2225,-22.2244,5.5565,-2.2225,31.1135,-18.3335,40.5525,-7.2205,-11.1144,-17.2225,20.0035,16.6695,
3.8875,10.5594,-12.7775,-7.2244,-9.4435,12.7775,46.1135,-3.3335,55.5525,-1.6665,-7.2235,-7.2235,5.0035,20.5584,
-11.1125,2.2225,2.2225,7.7756,-2.2225,27.7775,61.1135,-18.3335,70.5525,-16.6665,-22.2235,-22.2235,5.5565,5.5584,
3.8875,2.2225,-12.7775,-7.2244,2.2225,12.7775,46.1135,-3.3335,55.5525,-1.6665,-7.2235,-7.2235,4.4455,20.5584,
0,-1.111,0,-22.2244,5.556,-2.2225,31.1135,-1.111,40.5525,13.3335,5.556,1.111,18.8909,35.5584,
-15,13.889,15,-7.2244,1.667,11.6679,37.2269,-16.111,25.5525,-1.6665,-9.444,-13.889,3.8909,20.5584,
0,-1.111,0,7.7756,-13.333,26.6679,52.2269,-1.111,40.5525,-5.0005,-23.8924,-10.5575,-11.1091,21.6694,
-15,3.8895,9.4455,22.7756,-15.0025,41.6679,67.2269,-16.111,55.5525,-20.0005,-35.0044,-25.5575,3.8909,6.6694,
0,3.3335,2.2225,7.7756,-0.0024805,26.6679,52.2269,-1.111,40.5525,-5.0005,-20.0044,-13.3355,7.7785,21.6694,
0.55549,-11.6665,9.4455,-7.2244,8.3345,11.6679,37.2269,1.6665,25.5525,9.9995,-5.0044,-3.8895,13.8904,26.1144,
-14.4445,3.3335,24.4455,-0.55549,0.55549,15.0014,22.2269,-13.3335,10.5525,-5.0005,-20.0044,-18.8895,20.5584,11.1144,
0.55549,-11.6665,9.4455,-15.5555,-14.4445,0.0014231,12.7795,1.6665,12.7795,9.4455,-12.7795,-3.8895,5.5584,26.1144,
-14.4445,3.3335,24.4455,-2.2225,0.55549,15.0014,27.7795,-13.3335,27.7795,-5.5545,-26.6704,-18.8895,15.5574,11.1144,
0.55549,18.3335,17.225,-17.2225,15.002,0.0014231,12.7795,-5.001,12.7795,-7.223,-12.7789,-22.7809,5.001,26.1144,
2.222,3.3335,2.225,-32.2225,7.779,-14.9986,-2.2205,0,-2.2205,3.334,2.2211,-7.7809,0,31.1149,
-12.778,18.3335,8.89,-17.2225,0,0.0014231,-17.2205,-15,2.223,-11.666,-12.7789,-22.7809,5.557,16.1149,
2.222,3.3335,-6.11,-32.2225,-4.445,-14.9986,-32.2205,0,-12.777,3.334,2.2211,-7.7809,4.445,31.1149,
-12.778,18.3335,8.89,-47.2225,10.555,-29.9986,-17.2205,-15,-16.6695,-3.3335,3.3335,-18.8914,19.445,24.4474,
2.222,19.4469,-6.11,-62.2225,15.002,-41.6719,-2.2205,-13.8899,-1.6695,-1.667,-11.6665,-15.002,4.445,17.225,
8.3345,4.4469,-21.11,-47.2225,0.55549,-26.6719,-10.5564,-8.3345,13.3305,5.0005,-8.3345,-6.1115,-0.55549,2.7785,
-6.6655,1.1115,-6.11,-32.2225,-1.1115,-11.6719,2.2225,-23.3345,28.3305,-9.9995,-23.3345,-21.1115,14.4445,-12.2215,
8.3345,-13.8885,-21.11,-47.2225,1.667,-26.6719,-12.7775,-8.3345,13.3305,5.0005,-8.3345,-6.1115,-0.55549,2.7785,
-6.6655,1.1115,-6.11,-62.2225,16.667,-41.6719,-20.0019,-11.1119,-1.6695,3.334,5.557,-3.334,14.4445,13.335,
0,16.1115,-1.111,-47.2225,1.667,-26.6719,-5.0019,-26.1119,13.3305,-11.666,-9.443,-18.334,4.445,1.111,
1.1115,1.1115,-16.111,-32.2225,-13.333,-11.6719,9.9981,-11.1119,28.3305,3.334,-13.3355,-3.334,-2.2225,2.2225,
-13.8885,6.6675,-1.111,-17.2225,-3.3335,3.3281,24.9981,-26.1119,43.3305,-11.666,-26.6704,-18.334,12.7775,-12.7775,
1.1115,-8.3325,-16.111,-32.2225,-2.778,-11.6719,9.9981,-11.1119,28.3305,3.334,-11.6704,-3.334,2.778,2.2225,
-3.889,6.6675,-1.111,-47.2225,12.222,-26.6719,-5.0019,-5.001,13.3305,11.6679,3.3296,-9.446,17.778,16.1129,
-17.7805,20.0024,2.2225,-32.2225,-1.1115,-11.6719,9.9981,-20.001,28.3305,-3.3321,-11.6704,-24.446,2.778,1.1129,
-2.7805,5.0024,-12.7775,-17.2225,-16.1115,3.3281,24.9981,-12.2245,43.3305,4.4445,-17.7805,-9.446,-12.222,14.4465,
-17.7805,0.55549,2.2225,-2.2225,-1.1115,18.3281,39.9981,-27.2245,58.3305,-10.5555,-30.5594,-24.446,2.778,-0.55354,
-2.7805,-14.4445,-11.1125,-17.2225,13.8885,3.3281,24.9981,-12.2245,43.3305,4.4445,-15.5594,-9.446,14.4465,14.4465,
-3.8895,-10.5564,3.8875,-32.2225,28.8885,-11.6719,9.9981,-20.5584,28.3305,6.1125,-0.55939,5.554,29.4465,22.7804,
-17.7799,4.4436,4.445,-35.5599,13.8885,3.3281,24.9981,-35.5584,43.3305,-8.8875,-15.5594,-9.446,14.4465,7.7804,
-2.7799,-10.5564,-10.555,-20.5599,-1.1115,18.3281,39.9981,-20.5584,58.3305,1.111,-23.3359,0,-0.55354,0,
-17.7799,-8.89,4.445,-5.5599,8.89,33.3281,54.9981,-35.5584,73.3305,-13.889,-38.3359,-15,14.4465,-15,
-2.7799,-1.111,3.334,-20.5599,23.89,18.3281,39.9981,-20.5584,58.3305,1.111,-23.3359,-4.445,16.669,0,
1.1115,-13.3344,16.6684,-35.5599,30.0044,3.3281,24.9981,-12.2234,43.3305,2.2225,-8.3359,-1.1115,31.669,15,
-13.8885,1.6656,21.67,-20.5599,15.0044,18.3281,39.9981,-27.2234,28.3305,-12.7775,-23.3359,-16.1115,20.5579,0,
1.1115,-13.3344,6.67,-5.5599,0.0044313,33.3281,54.9981,-12.2234,43.3305,0,-21.1129,-4.445,5.5579,5.557,
-13.8885,1.6656,4.445,9.4401,-4.445,48.3281,69.9981,-27.2234,58.3305,-15,-36.1129,-19.445,7.779,-9.443,
1.1115,10.557,3.889,-5.5599,10.555,33.3281,54.9981,-12.2234,43.3305,0,-23.8919,-9.446,6.112,5.557,
16.1115,-4.443,2.7775,-20.5599,17.2244,18.3281,39.9981,0.55549,28.3305,8.3345,-8.8919,-0.55549,18.3354,16.1124,
1.1115,10.557,10.0015,-5.5599,4.4455,33.3281,24.9981,-14.4445,23.3364,-6.6655,-18.8914,-15.5555,24.4474,1.1124,
16.1115,-4.443,-4.9985,-16.1129,-10.5545,33.8929,23.8919,0.55549,38.3364,1.667,-11.668,-1.667,9.4474,16.1124,
