"AF3","AF4","F3","F4","F7","F8","FC5","FC6","O1","O2","P7","P8","T7","T8",
-56.8349,30.3772,-4.8993,215.5797,4.8993,183.2431,154.8252,-33.3172,278.2945,-42.1361,-42.1361,41.1564,-33.3172,-75.4533,
-41.8349,15.3772,-8.3291,200.5797,19.8993,168.2431,139.8252,-18.3172,263.2945,-27.1361,-27.1361,56.1564,-23.0279,-60.4533,
-26.8349,30.3772,4.8998,185.5797,34.8993,153.2431,124.8252,-3.3172,248.2945,-12.1361,-12.1361,71.1564,-8.0279,-45.4533,
-22.538,23.5177,-10.1002,170.5797,19.8993,138.2431,109.8252,-8.8189,259.6761,-23.5177,-27.1361,56.1564,-23.0279,-60.4533,
-8.8194,8.5177,-25.1002,185.5797,4.8993,153.2431,124.8252,6.1811,274.6761,-8.5177,-23.5172,71.1564,-38.0279,-51.9351,
-23.8194,23.5177,-10.1002,200.5797,5.8794,168.2431,139.8252,-8.8189,289.6761,-23.5177,-36.2567,56.1564,-34.2964,-66.9351,
-8.8194,38.5177,-0.48983,185.5797,20.8794,153.2431,124.8252,6.1811,274.6761,-8.5177,-21.2567,71.1564,-19.2964,-51.9351,
0,52.9153,14.5102,170.5797,35.2775,138.2431,109.8252,17.6387,259.6761,6.4823,-6.2567,86.1564,-4.2964,-36.9351,
-15,50.9559,-0.48983,155.5797,20.2775,123.2431,94.8252,2.6387,244.6761,-8.5177,-21.2567,71.1564,-19.2964,-51.9351,
-5.8794,35.9559,-15.4898,170.5797,5.2775,138.2431,109.8252,8.8184,259.6761,5.8794,-36.2567,76.4325,-34.2964,-51.9356,
-20.8794,41.6463,-15.1886,185.5797,15.1886,153.2431,124.8252,-6.1816,274.6761,-9.1206,-27.9281,61.4325,-32.8274,-64.1843,
-5.8794,42.6259,-4.4094,170.5797,30.1886,138.2431,109.8252,8.8184,259.6761,5.8794,-12.9281,76.4325,-17.8274,-49.1843,
5.8799,34.2969,0.97967,155.5797,36.2571,123.2431,94.8252,23.5177,244.6761,15.6785,-0.97967,89.1715,-7.8392,-34.1843,
-9.1201,41.156,-14.0203,140.5797,21.2571,110.7303,79.8252,8.5177,229.6761,0.67846,-15.9797,74.1715,-22.8392,-49.1843,
-7.8388,26.156,-29.0203,155.5797,6.2571,125.7303,94.8252,15.6789,244.6761,1.9598,-30.9797,74.4731,-37.8392,-56.8344,
-22.8388,41.156,-17.6383,170.5797,17.6383,140.7303,109.8252,0.67893,259.6761,-13.0402,-24.4978,59.4731,-27.4368,-66.6339,
-7.8388,26.156,-21.5579,155.5797,32.3371,125.7303,94.8252,15.6789,244.6761,1.9598,-9.4978,74.4731,-24.4978,-51.6339,
7.1612,16.1688,-16.1688,140.5797,37.7262,110.7303,79.8252,20.0884,229.6761,16.9598,5.5022,89.4731,-9.4978,-36.6339,
-7.8388,31.1688,-15.6785,125.5797,22.7262,125.7303,64.8252,5.0884,214.6761,1.9598,-9.4978,74.4731,-18.6184,-51.6339,
-18.6184,16.1688,-30.6785,110.5797,7.7262,110.7303,76.433,9.7995,199.6761,6.8596,-24.4978,73.493,-33.6184,-39.1961,
-33.6184,31.1688,-19.1078,95.5797,17.1484,97.501,91.433,-5.2005,214.6761,-8.1404,-17.1484,58.493,-21.068,-54.1961,
-18.6184,33.8066,-24.9877,80.5797,23.0283,82.501,76.433,9.7995,199.6761,5.3896,-7.3489,73.493,-23.0274,-39.1961,
-17.1489,18.8066,-21.0685,65.5797,15.1886,67.501,61.433,6.3688,184.6761,11.269,-3.4298,75.9431,-28.9077,-38.7063,
-32.1489,31.3569,-10.7792,80.5797,10.7792,82.501,64.6741,-8.6312,185.2034,-3.731,-18.4298,60.9431,-30.3772,-53.7063,
-17.1489,16.3569,-25.7792,65.5797,6.3693,67.501,49.6741,6.3688,170.2034,11.269,-5.3896,75.9431,-38.7063,-38.7063,
-31.8468,25.9678,-10.7792,50.5797,21.3693,52.501,64.6741,-8.6312,155.2034,-3.731,-4.4094,60.9431,-23.7063,-43.6056,
-16.8468,12.7385,-23.5177,35.5797,7.8392,37.501,49.6741,-9.7995,140.2034,-7.8392,-19.4094,55.8552,-36.2562,-45.076,
-27.4373,-2.2615,-38.5177,50.5797,0.97967,52.501,34.6741,2.9399,146.9869,-0.97967,-18.6184,68.5937,-38.2165,-44.0954,
-42.4373,12.7385,-23.5177,65.5797,12.739,67.501,49.6741,-12.0601,161.9869,-15.9797,-12.739,53.5937,-23.5182,-53.8954,
-27.4373,-2.2615,-15.1884,50.5797,27.739,52.501,34.6741,2.9399,146.9869,-0.97967,2.261,68.5937,-18.1283,-38.8954,
-42.1361,12.7385,-0.97967,35.5797,23.5177,37.501,19.6741,0.97967,131.9869,-8.8189,0.97967,64.6741,-18.6184,-37.2368,
-27.1361,14.6983,-15.9797,50.5797,8.5177,52.501,34.6741,-5.8794,146.9869,-14.6983,-14.0203,55.8547,-33.6184,-51.9351,
-12.1361,-0.30168,-30.9797,65.5797,-2.9395,67.501,49.6741,4.8998,161.9869,0.30168,-18.6179,69.5739,-47.0358,-50.9555,
-27.1361,14.6983,-15.9797,80.5797,8.3295,82.501,64.6741,-10.1002,176.9869,-14.6983,-33.6179,54.5739,-36.7465,-64.1838,
-12.1361,15.1886,-0.97967,65.5797,23.3295,67.501,49.6741,4.8998,161.9869,0.30168,-18.6179,69.5739,-36.7465,-49.1838,
2.8639,28.9077,14.0203,50.5797,38.3295,52.501,34.6741,-0.48983,146.9869,0.48983,-3.6179,59.285,-21.7465,-34.1838,
-11.7584,13.9077,-0.97967,65.5797,23.3295,67.501,49.6741,-15.4898,161.9869,-14.5102,-18.6179,44.285,-36.7465,-49.1838,
0,-1.0923,-15.9797,80.5797,8.3295,82.501,64.6741,-0.48983,176.9869,0.48983,-13.7182,57.8145,-51.7465,-40.1763,
-15,-1.4695,-0.97967,95.5797,5.3891,97.501,79.6741,-15.4898,191.9869,-14.5102,-18.1286,42.8145,-54.3848,-55.1763,
0,-15.6785,1.9598,80.5797,20.3891,82.501,64.6741,-0.48983,176.9869,0.48983,-3.1286,57.8145,-39.3848,-40.1763,
3.9196,-3.9196,8.8189,65.5797,27.4373,67.501,49.6741,8.8189,161.9869,15.4898,11.8714,72.8145,-24.3848,-25.1763,
-11.0804,5.3896,-6.1811,80.5797,12.4373,82.501,44.5857,-6.1811,176.9869,0.48983,-3.1286,57.8145,-39.3848,-40.1763,
-1.9598,-9.6104,-21.1811,95.5797,-2.5627,97.501,59.5857,1.9598,191.9869,7.8397,-14.6983,67.6136,-54.3848,-40.1763,
-16.9598,5.3896,-16.6581,110.5797,3.9196,112.501,74.5857,-13.0402,206.9869,-7.1603,-3.9196,52.6136,-44.0964,-52.9153,
-1.9598,1.9598,-8.8184,95.5797,18.9196,97.501,59.5857,1.9598,191.9869,7.8397,11.0804,67.6136,-29.0964,-37.9153,
7.3494,0.48983,-0.48983,80.5797,33.807,82.501,44.5857,10.2884,176.9869,22.8397,26.0804,71.0429,-24.9881,-22.9153,
-7.6506,7.3489,-7.3489,95.5797,18.807,81.8225,29.5857,-4.7116,168.055,7.8397,11.0804,56.0429,-39.9881,-37.9153,
-1.47,-7.6511,-22.3489,110.5797,3.807,96.8225,44.5857,1.47,183.055,4.409,-3.9196,41.0429,-54.9881,-52.4254,
-16.47,6.8591,-7.3489,125.5797,11.7593,111.8225,59.5857,-13.53,198.055,-10.591,-15.678,26.0429,-60.754,-67.4254,
-1.47,-0.48983,0.48983,110.5797,26.7593,96.8225,44.5857,1.47,183.055,4.409,-0.67799,41.0429,-45.754,-52.4254,
10.7787,-10.7787,15.4898,95.5797,41.7593,81.8225,29.5857,16.47,168.055,19.409,14.322,56.0429,-30.754,-37.4254,
-4.2213,-1.47,1.47,109.2598,26.7593,91.6211,16.1678,1.47,153.055,4.409,-0.67799,41.0429,-45.754,-52.4254,
4.9002,-16.47,-13.53,123.4693,11.7593,106.6211,31.1678,-3.9196,168.055,3.9196,-9.7986,40.1767,-60.754,-39.1961,
-10.0998,-13.7182,0,125.4286,12.7394,114.6494,46.1678,-18.9196,183.055,-11.0804,0,25.1767,-55.8543,-54.1961,
4.9002,-28.7182,3.4298,110.4286,27.7394,99.6494,31.1678,-3.9196,168.055,3.9196,15,40.1767,-45.5659,-39.1961,
10.2889,-43.7182,7.3489,95.4286,37.7262,84.6494,16.1678,11.0804,153.055,18.9196,25.9673,55.1767,-30.5659,-24.1961,
-4.7111,-28.7182,7.8392,110.4286,22.7262,99.6494,31.1678,-3.9196,138.1671,3.9196,10.9673,40.1767,-41.1564,-39.1961,
10.2889,-43.7182,-7.1608,95.4286,17.148,84.6494,16.1678,10.2884,123.1671,14.208,-0.48983,55.1767,-52.4254,-28.9077,
-4.7111,-28.7182,1.47,80.4286,32.148,69.6494,31.1678,-4.7116,108.1671,-0.79198,12.2482,40.1767,-37.4254,-43.9077,
10.2889,-14.6983,-13.53,65.4286,24.4978,54.6494,16.1678,0.98014,93.1671,1.9598,6.8591,43.1162,-35.277,-28.9077,
-4.7111,-29.6983,-28.53,79.8627,13.2283,69.6494,1.1678,0.48983,88.6816,-0.48983,5.3891,44.5853,-36.747,-21.0685,
-19.7111,-14.6983,-13.53,94.8627,28.2283,84.6494,16.1678,-14.5102,103.6816,-15.4898,3.4293,29.5853,-29.8879,-36.0685,
-4.7111,-29.6983,-10.2891,79.8627,43.2283,69.6494,1.1678,0.48983,88.6816,-0.48983,18.4293,44.5853,-20.0881,-21.0685,
-15.1882,-28.9073,4.7109,64.8627,40.6661,54.6494,-1.47,-8.3295,73.6816,6.3693,33.4293,53.4056,-5.0881,-14.2085,
-10.7796,-43.9073,-9.799,49.8627,25.6661,39.6494,13.53,-16.6586,88.6816,-4.8998,18.4293,38.4056,-20.0881,-29.2085,
-11.2695,-58.9073,-24.799,64.8627,10.6661,54.6494,28.53,-17.1484,103.6816,-2.4496,12.2491,25.9673,-35.0881,-44.2085,
-26.2695,-53.8954,-9.799,79.8627,13.7187,69.6494,43.53,-32.1484,118.6816,-17.4496,11.7584,10.9673,-32.3371,-59.2085,
-11.2695,-68.8954,-3.9196,64.8627,28.7187,54.6494,28.53,-17.1484,103.6816,-2.4496,26.7584,25.9673,-23.5177,-44.2085,
-1.47,-53.8954,11.0804,49.8627,43.7187,39.6494,13.53,-2.1484,88.6816,12.5504,41.7584,40.9673,-8.5177,-29.2085,
-16.47,-68.8954,-3.9196,64.8627,28.7187,54.6494,9.799,-17.1484,103.6816,-2.4496,26.7584,25.9673,-23.5177,-37.2363,
-14.6988,-83.8954,-18.9196,79.8627,13.7187,69.6494,24.799,-12.7385,118.6816,5.879,11.7584,38.2165,-38.5177,-35.277,
-29.6988,-68.8954,-6.8596,94.8627,20.5777,84.6494,39.799,-27.7385,133.6816,-9.121,6.8596,23.2165,-39.1961,-44.0964,
-14.6988,-62.2242,-5.3898,79.8627,35.5777,69.6494,24.799,-12.7385,118.6816,5.879,21.8596,38.2165,-32.8271,-29.0964,
0.30121,-47.2242,9.6102,64.8627,50.5777,54.6494,9.799,2.2615,103.6816,20.879,36.8596,53.2165,-17.8271,-14.0964,
-14.6988,-32.2242,2.4496,79.8627,35.5777,69.6494,24.799,-12.7385,118.6816,5.879,21.8596,38.2165,-32.8271,-29.0964,
0.30121,-47.2242,-12.5504,94.8627,20.5777,84.6494,39.799,-23.0283,133.6816,4.4099,6.8596,24.008,-47.8271,-42.6264,
-14.6988,-32.2242,2.4496,109.8627,28.417,99.6494,54.799,-38.0283,148.6816,-10.5901,4.8993,9.008,-36.2562,-48.016,
0.30121,-47.2242,13.2293,94.8627,37.7266,84.6494,39.799,-23.0283,133.6816,4.4099,17.1489,24.008,-46.5455,-33.016,
15.3012,-50.9555,28.2293,79.8627,49.9753,69.6494,24.799,-8.0283,118.6816,19.4099,32.1489,39.008,-31.5455,-18.016,
0.30121,-59.2841,13.2293,88.6816,34.9753,71.0438,23.0279,-23.0283,125.9184,4.4099,17.1489,24.008,-46.5455,-33.016,
0.98014,-74.2841,-1.7707,103.6816,19.9753,86.0438,38.0279,-10.7787,140.9184,14.6983,2.1489,32.3371,-61.5455,-40.1763,
-14.0199,-59.2841,13.2293,118.6816,18.1286,101.0438,53.0279,-25.7787,155.9184,-0.30168,-2.4501,17.3371,-47.5261,-50.4652,
0.98014,-54.3848,22.0477,103.6816,33.1286,86.0438,38.0279,-10.7787,140.9184,14.6983,12.5499,32.3371,-32.5261,-35.4652,
15.9801,-69.3848,35.2761,88.6816,48.1286,71.0438,23.0279,4.2213,125.9184,29.6983,27.5499,47.3371,-17.5261,-20.4652,
0.98014,-54.3848,20.2761,103.6816,33.1286,86.0438,18.6179,-10.7787,130.3284,14.6983,12.5499,32.3371,-32.5261,-35.4652,
0.48984,-69.3848,5.2761,118.6816,18.1286,101.0438,33.6179,-13.2293,145.3284,9.3087,-0.48984,22.0482,-47.5261,-34.7872,
-14.5102,-54.3848,15.6785,133.6816,14.6988,116.0438,48.6179,-28.2293,160.3284,-5.6913,6.8596,7.0482,-36.2562,-48.016,
0.48984,-39.3848,15.1886,118.6816,29.6988,101.0438,33.6179,-13.2293,145.3284,9.3087,21.8596,22.0482,-23.0279,-33.016,
15.4898,-48.0155,22.538,103.6816,33.3172,86.0438,18.6179,1.7707,130.3284,24.3087,36.8596,37.0482,-11.7588,-18.016,
0.48984,-33.0155,32.3366,118.6816,18.3172,101.0438,17.6378,-13.2293,115.3284,9.3087,21.8596,22.0482,-26.7588,-33.016,
11.7588,-48.0155,17.3366,103.6816,3.3172,86.0438,12.7385,-23.5186,100.3284,3.9196,6.8596,7.0482,-41.7588,-48.016,
-3.2412,-41.6463,32.3366,88.6816,17.148,71.0438,27.7385,-38.5186,115.3284,-11.0804,12.2487,-7.9518,-32.8274,-60.2647,
10.2889,-56.6463,17.3366,73.6816,7.3489,56.0438,12.7385,-23.5186,100.3284,-2.4496,9.3092,7.0482,-45.5654,-48.5053,
-2.4496,-71.6463,2.3366,58.6816,2.4496,41.0438,-2.2615,-21.068,85.3284,4.409,18.1281,18.1281,-57.3252,-44.5857,
-17.4496,-56.6463,17.3366,73.6816,17.4496,56.0438,12.7385,-36.068,100.3284,-10.591,14.2085,3.1281,-42.3252,-47.5257,
-2.4496,-71.6463,9.799,58.6816,21.5579,41.0438,-2.2615,-21.068,85.3284,4.409,26.4572,18.1281,-34.2969,-32.5257,
-7.3494,-56.6463,24.799,43.6816,30.8671,26.0438,12.7385,-16.1692,70.3284,7.3494,35.7664,19.1082,-19.2969,-27.9281,
-6.3697,-71.6463,9.799,53.4051,15.8671,17.1489,27.7385,-31.1692,78.8831,-5.3891,20.7664,4.1082,-34.2969,-42.9281,
-0.48983,-86.6463,-5.201,68.4051,0.86708,32.1489,29.8874,-23.0279,93.8831,0.48983,12.2487,3.4298,-49.2969,-48.5053,
-15.4898,-71.6463,9.799,83.4051,15.8671,47.1489,44.8874,-38.0279,108.8831,-14.5102,18.6184,-11.5702,-34.2969,-54.8755,
-0.48983,-86.6463,14.2087,68.4051,30.8671,32.1489,29.8874,-23.0279,93.8831,0.48983,33.6184,3.4298,-29.8872,-39.8755,
4.8993,-71.6463,29.2087,53.4051,43.1158,17.1489,14.8874,-8.0279,78.8831,15.4898,48.6184,18.4298,-14.8872,-24.8755,
-3.4298,-72.0235,22.0482,68.4051,28.1158,32.1489,14.209,-23.0279,93.8831,0.48983,33.6184,3.4298,-29.8872,-38.7063,
6.8591,-87.0235,7.0482,83.4051,13.1158,47.1489,29.209,-24.4978,108.8831,-1.9598,18.6184,1.9598,-44.8872,-48.9956,
-8.1409,-72.0235,22.0482,98.4051,18.1281,62.1489,44.209,-39.4978,123.8831,-16.9598,16.1688,-13.0402,-29.8872,-52.425,
6.8591,-78.8824,13.2286,83.4051,26.9477,47.1489,29.209,-24.4978,108.8831,-1.9598,31.1688,1.9598,-32.8267,-37.425,
11.269,-63.8824,28.2286,68.4051,41.9477,32.1489,14.209,-9.4978,93.8831,13.0402,46.1688,16.9598,-17.8267,-22.425,
-3.731,-53.4046,13.2286,83.4051,26.9477,47.1489,18.129,-24.4978,108.8831,-1.9598,31.1688,1.9598,-32.8267,-37.425,
7.3489,-68.4046,-1.7714,98.4051,11.9477,62.1489,33.129,-24.9877,123.8831,-5.3896,16.1688,5.3896,-47.8267,-47.5261,
-7.6511,-53.4046,13.2286,113.4051,23.5182,77.1489,48.129,-39.9877,138.8831,-20.3896,16.6586,-9.6104,-32.8267,-55.8547,
7.3489,-68.4046,23.5172,98.4051,30.3768,62.1489,33.129,-24.9877,123.8831,-5.3896,31.6586,5.3896,-38.2169,-40.8547,
17.6387,-55.8547,38.5172,83.4051,45.3768,47.1489,18.129,-9.9877,108.8831,9.6104,46.6586,20.3896,-23.2169,-25.8547,
2.6387,-70.8547,23.5172,98.4051,30.3768,62.1489,23.0279,-24.9877,123.8831,-5.3896,31.6586,5.3896,-38.2169,-40.8547,
-2.4496,-85.8547,8.5172,113.4051,15.3768,77.1489,38.0279,-22.0486,138.8831,2.4496,16.6586,9.3092,-53.2169,-35.7668,
-17.4496,-70.8547,23.5172,128.4051,15.6785,92.1489,53.0279,-37.0486,153.8831,-12.5504,20.5777,-5.6908,-38.2169,-38.2165,
-2.4496,-77.4131,32.3371,113.4051,30.6785,77.1489,38.0279,-22.0486,138.8831,2.4496,35.5777,9.3092,-30.3777,-23.2165,
12.5504,-66.1436,47.3371,98.4051,45.6785,62.1489,23.0279,-7.0486,123.8831,17.4496,50.5777,24.3092,-15.3777,-8.2165,
-2.4496,-56.3446,34.7862,113.4051,30.6785,77.1489,38.0279,-22.0486,108.8831,2.4496,35.5777,9.3092,-30.3777,-23.2165,
12.2487,-71.3446,19.7862,128.4051,15.6785,92.1489,53.0279,-17.148,123.8831,0.48984,20.5777,-0.48984,-45.3777,-38.2165,
-2.7513,-56.3446,34.7862,143.4051,17.1484,107.1489,68.0279,-32.148,138.8831,-14.5102,24.9877,-15.4898,-43.6061,-45.5654,
12.2487,-61.2443,39.6864,128.4051,30.8666,92.1489,53.0279,-17.148,123.8831,0.48984,39.9877,-0.48984,-40.6666,-30.5654,
25.9678,-76.2443,32.8274,113.4051,38.7063,77.1489,38.0279,-2.148,108.8831,15.4898,54.9877,14.5102,-28.9073,-15.5654,
10.9678,-61.2443,31.3569,128.4051,23.7063,92.1489,23.0279,-17.148,114.6494,0.48984,39.9877,-0.48984,-43.1158,-30.5654,
-1.47,-76.2443,16.3569,113.4051,8.7063,77.1489,16.1688,-15.1882,99.6494,1.47,24.9877,1.47,-58.1158,-39.686,
-16.47,-77.9029,22.0486,98.4051,14.2085,62.1489,31.1688,-30.1882,113.1795,-13.53,34.7872,-13.53,-48.5053,-40.6661,
-1.47,-85.7417,7.0486,83.4051,18.129,47.1489,16.1688,-15.1882,98.1795,1.47,33.8075,1.47,-50.4652,-25.6661,
4.8998,-100.7417,-7.8397,68.4051,9.799,32.1489,1.1688,-4.8998,83.1795,16.47,32.3371,16.47,-61.7342,-20.5782,
-10.1002,-85.7417,7.1603,83.4051,11.7588,47.1489,16.1688,-19.8998,98.1795,1.47,21.5583,1.47,-60.7545,-34.2969,
4.8998,-100.7417,-6.8593,68.4051,26.7588,32.1489,1.1688,-4.8998,83.1795,16.47,36.5583,16.47,-46.0559,-19.2969,
-10.1002,-85.7417,8.1407,53.4051,41.1564,17.1489,16.1688,-19.8998,68.1795,6.8596,51.5583,6.8596,-31.0559,-17.6378,
-1.4704,-100.4409,-6.3697,38.4051,26.1564,14.209,31.1688,-14.209,58.3044,-0.48984,36.5583,0.48984,-46.0559,-22.0482,
-9.799,-115.4409,-21.3697,53.4051,11.1564,29.209,17.6383,-14.6993,73.3044,5.8794,32.3371,11.7584,-61.0559,-31.3574,
-24.799,-100.4409,-6.3697,68.4051,17.6383,44.209,32.6383,-29.6993,88.3044,-9.1206,34.2973,-3.2416,-46.0559,-46.0552,
-9.799,-115.4409,2.4501,53.4051,20.0879,29.209,17.6383,-14.6993,73.3044,5.8794,49.2973,11.7584,-45.5659,-31.0552,
1.9603,-100.4409,17.4501,38.4051,35.0879,14.209,2.6383,0,58.3044,20.8794,64.2973,26.7584,-30.5659,-16.0552,
-13.0397,-100.4409,2.4501,53.4051,20.0879,29.209,17.6383,-15,73.3044,5.8794,49.2973,11.7584,-45.5659,-31.0552,
-9.799,-115.4409,-12.5499,68.4051,5.0879,44.209,32.6383,-19.5985,88.3044,9.799,39.1966,10.7787,-60.5659,-34.2969,
-24.799,-100.4409,2.4501,83.4051,11.7593,59.209,47.6383,-34.5985,103.3044,-5.201,43.1162,-4.2213,-45.5659,-35.277,
-9.799,-99.9506,1.9598,68.4051,9.799,44.209,32.6383,-19.5985,88.3044,9.799,42.1366,10.7787,-43.1158,-20.277,
5.201,-84.9506,16.9598,53.4051,24.799,29.209,17.6383,-4.8998,73.3044,24.799,57.1366,25.7787,-28.1158,-5.277,
-9.799,-69.9506,19.1082,68.4051,12.2487,44.209,26.9475,-19.8998,88.3044,9.799,42.1366,10.7787,-43.1158,-20.277,
0,-84.9506,4.1082,83.4051,-2.7513,59.209,41.9475,-17.6378,103.3044,0,33.3172,5.8799,-58.1158,-32.3366,
-15,-69.9506,19.1082,98.4051,12.2487,74.209,56.9475,-32.6378,118.3044,-15,42.1361,-9.1201,-43.1158,-38.2165,
0,-78.3928,10.7792,83.4051,11.7588,59.209,41.9475,-17.6378,103.3044,0,57.1361,5.8799,-28.1158,-23.2165,
1.4695,-63.3928,25.7792,68.4051,22.0472,44.209,26.9475,-6.3697,88.3044,15,72.1361,20.8799,-13.1158,-8.2165,
-13.5305,-55.3649,20.0884,83.4051,7.0472,59.209,20.0884,-21.3697,103.3044,0,57.1361,5.8799,-24.9877,-16.1688,
0,-70.3649,5.0884,98.4051,-7.9528,74.209,35.0884,-18.6184,118.3044,0,42.1361,9.7986,-39.9877,-31.1688,
-15,-55.3649,14.2085,113.4051,4.4099,89.209,50.0884,-33.6184,133.3044,-15,57.1361,-5.2014,-24.9877,-36.7465,
0,-70.3649,3.9201,98.4051,15.6789,74.209,35.0884,-18.6184,118.3044,0,67.6136,9.7986,-16.6586,-21.7465,
9.3092,-85.3649,16.1688,83.4051,29.8869,59.209,20.0884,-3.6184,103.3044,15,73.0036,24.7986,-1.6586,-7.3489,
-5.6908,-70.3649,8.8189,98.4051,14.8869,74.209,10.7792,-18.6184,100.9312,0,58.0036,9.7986,-13.7182,-22.3489,
-2.4496,-85.3649,-6.1811,113.4051,-0.11306,89.209,25.7792,-15.1891,115.9312,2.4496,43.0036,11.2685,-28.7182,-24.9877,
-17.4496,-70.3649,8.8189,128.4051,10.7792,104.209,40.7792,-30.1891,130.9312,-12.5504,51.9356,-3.7315,-13.7182,-27.4373,
-2.4496,-59.7744,1.9598,113.4051,1.9598,89.209,25.7792,-15.1891,115.9312,2.4496,59.7744,11.2685,-16.6586,-12.4373,
11.7584,-71.5337,7.8388,98.4051,12.739,74.209,10.7792,-0.18909,100.9312,17.4496,74.4731,24.4978,-5.8794,-7.8397,
-3.2416,-56.5337,17.6387,113.4051,15.6785,89.209,19.5981,-15.1891,99.9506,2.4496,59.4731,9.4978,-15.6785,-22.8397,
-1.9598,-71.5337,2.6387,98.4051,0.67846,74.209,26.4572,-21.5579,84.9506,1.9598,44.4731,1.9598,-30.6785,-37.8397,
-16.9598,-56.5337,8.8189,109.7501,13.7191,86.2325,41.4572,-36.5579,99.9506,-13.0402,48.016,-8.8189,-15.6785,-37.2368,
-1.9598,-51.9356,9.799,94.7501,28.7191,71.2325,26.4572,-21.5579,84.9506,1.9598,58.7947,6.1811,-12.739,-22.2368,
2.4501,-66.9356,4.4095,79.7501,26.9475,56.2325,11.4572,-8.3291,69.9506,16.9598,62.224,21.1811,-11.269,-18.1286,
-12.5499,-51.9356,19.4095,94.7501,11.9475,71.2325,26.4572,-23.3291,84.9506,1.9598,49.486,6.1811,-8.3295,-33.1286,
2.4501,-66.9356,4.4095,79.7501,4.4099,56.2325,11.4572,-8.3291,69.9506,16.9598,64.1838,21.1811,-13.2288,-18.1286,
-12.5499,-51.9356,16.6581,64.7501,12.7385,41.2325,26.4572,-23.3291,54.9506,1.9598,58.7942,6.1811,1.7712,-33.1286,
-10.2889,-37.7262,8.3295,53.4056,2.4496,34.7872,34.7872,-17.1484,46.546,-5.3896,44.5857,-2.4496,-13.2288,-32.8269,
-7.3494,-52.7262,-6.6705,68.4056,-4.4095,49.7872,22.0482,-12.2487,61.546,4.4095,49.4855,12.5504,-17.148,-20.0879,
-22.3494,-37.7262,6.8596,83.4056,2.9399,64.7872,37.0482,-27.2487,76.546,-10.5905,43.1158,-2.4496,-2.9399,-31.3569,
-7.3494,-52.7262,-8.1404,68.4056,12.738,49.7872,22.0482,-12.2487,61.546,4.4095,58.1158,12.5504,-5.8794,-16.3569,
-8.8189,-37.7262,6.8596,53.4056,27.738,34.7872,35.2765,-10.7792,46.546,4.8993,73.1158,23.5177,9.1206,-4.8993,
-14.209,-52.7262,0.48983,68.4056,12.738,49.7872,50.2765,-25.7792,61.546,-9.3097,58.1158,8.5177,-5.8794,-19.8993,
-11.7593,-67.7262,-14.5102,83.4056,-2.262,64.7872,65.2765,-10.7792,76.546,5.6903,44.0959,17.6383,-20.8794,-24.4978,
-26.7593,-52.7262,0.48983,98.4056,0,79.7872,80.2765,-25.7792,91.546,-9.3097,51.9347,2.6383,-5.8794,-34.2969,
-11.7593,-67.7262,-4.9002,83.4056,10.7782,64.7872,65.2765,-10.7792,76.546,5.6903,66.9347,17.6383,-3.9196,-19.2969,
-9.799,-52.7262,10.0998,68.4056,25.7782,49.7872,50.2765,-1.9598,61.546,20.6903,81.9347,32.6383,11.0804,-4.2969,
-23.5182,-49.9758,-3.9201,83.4056,10.7782,64.7872,35.2765,-16.9598,76.546,5.6903,66.9347,17.6383,-3.9196,-19.2969,
-17.6383,-64.9758,-18.9201,98.4056,-4.2218,79.7872,50.2765,-9.799,91.546,9.799,51.9347,18.6189,-18.9196,-29.3971,
-32.6383,-49.9758,-3.9201,113.4056,0.97967,94.7872,65.2765,-24.799,106.546,-5.201,46.0557,3.6189,-3.9196,-35.2765,
-17.6383,-58.3044,-2.4501,98.4056,10.2893,79.7872,50.2765,-9.799,91.546,9.799,61.0557,18.6189,-8.3291,-20.2765,
-2.9395,-43.3044,12.5499,83.4056,25.2893,64.7872,35.2765,1.9598,76.546,24.799,76.0557,33.6189,6.6709,-5.2765,
-17.9395,-30.3772,5.8799,98.4056,10.2893,79.7872,50.2765,-13.0402,91.546,9.799,61.0557,18.6189,-5.8799,-20.2765,
-7.8392,-45.3772,-9.1201,113.4056,-4.7107,94.7872,65.2765,-10.7792,106.546,7.8392,48.015,13.7182,-20.5787,-15.6785,
-22.8392,-30.3772,5.8799,128.4056,-2.9404,109.7872,80.2765,-25.7792,121.546,-7.1608,44.0959,-1.2818,-5.5787,-30.6785,
-7.8392,-30.8671,-0.48983,113.4056,12.0596,94.7872,65.2765,-10.7792,106.546,7.8392,51.4458,13.7182,0.48983,-15.6785,
-11.2685,-34.7872,14.5102,98.4056,18.1281,79.7872,50.2765,-1.47,91.546,19.1078,65.1644,24.9877,15.4898,-0.67846,
-26.2685,-19.7872,14.2085,113.4056,3.1281,87.7015,48.5053,-16.47,98.4807,4.1078,50.1644,9.9877,8.3295,-15.6785,
-11.2685,-34.7872,-0.79151,128.4056,-11.8719,102.7015,63.5053,-10.2893,113.4807,3.4298,41.6463,19.1082,-6.6705,-27.9271,
-26.2685,-19.7872,4.4095,143.4056,-4.4095,117.7015,78.5053,-25.2893,128.4807,-11.5702,29.8874,4.1082,8.3295,-42.9271,
-11.2685,-33.3172,-0.97967,128.4056,0.97967,102.7015,63.5053,-10.2893,113.4807,3.4298,44.8874,19.1082,5.879,-27.9271,
2.9399,-48.016,2.9399,113.4056,7.8392,87.7015,48.5053,-2.9399,98.4807,18.4298,59.8874,34.1082,20.879,-12.9271,
-12.0601,-33.016,4.4094,128.4056,-4.4094,90.641,33.5053,-17.9399,94.5606,3.4298,44.8874,19.1082,17.148,-27.9271,
-3.9196,-48.016,-10.5906,114.6494,-19.4094,90.1521,48.5053,-13.7191,109.5606,3.9196,31.3569,19.5981,2.148,-31.3569,
-18.9196,-34.7872,4.4094,99.6494,-6.3693,85.7422,63.5053,-28.7191,123.9586,-11.0804,31.8472,4.5981,11.2685,-38.7068,
-3.9196,-27.4373,-1.9603,84.6494,6.8596,70.7422,48.5053,-13.7191,108.9586,3.9196,46.8472,19.5981,26.2685,-23.7068,
-4.8998,-42.4373,6.8591,69.6494,1.9598,55.7422,33.5053,1.2809,93.9586,13.7187,56.8344,32.3361,33.3167,-8.7068,
-19.8998,-27.4373,13.7182,84.6494,-12.7385,70.7422,47.0354,-13.7191,95.0514,-1.2813,41.8344,17.3361,18.3167,-23.7068,
-4.8998,-42.4373,-1.2818,69.6494,-21.5574,55.7422,32.0354,1.2809,80.0514,13.7187,38.2165,31.3569,3.3167,-9.7986,
-19.8998,-27.4373,5.3896,54.6494,-17.1484,40.7422,47.0354,-13.7191,77.9029,-1.2813,40.6661,16.3569,18.3167,-24.7986,
-11.269,-24.0075,3.4298,39.6494,-16.1683,25.7422,32.0354,-18.1286,62.9029,-3.4298,39.6869,12.2487,9.3097,-18.1286,
-24.9881,-39.0075,-11.5702,54.6494,-26.9475,40.7422,17.0354,-18.1286,57.3247,4.4094,37.7266,9.3087,-4.4094,-33.1286,
-39.9881,-24.0075,3.4298,69.6494,-13.2283,55.7422,32.0354,-33.1286,72.3247,-10.5906,27.9281,-5.6913,7.3494,-48.1286,
-24.9881,-39.0075,-1.47,54.6494,-5.3896,40.7422,17.0354,-18.1286,57.3247,4.4094,42.9281,9.3087,1.47,-33.1286,
-39.6864,-24.0075,13.53,39.6494,9.6104,25.7422,29.8869,-19.1087,42.3247,-9.3092,52.425,13.2288,16.47,-18.1286,
-27.9271,-9.0075,17.148,54.6494,-5.3891,40.7422,44.8869,-23.0279,57.3247,-12.2487,40.6666,-1.7712,4.4094,-24.9881,
-17.6383,-24.0075,2.148,69.6494,-15.6789,55.7422,59.8869,-8.8194,72.3247,2.7513,45.0756,13.2288,-2.9395,-19.5985,
-32.6383,-9.0075,7.3499,84.6494,-17.1484,70.7422,74.8869,-23.8194,87.3247,-12.2487,30.0756,-1.7712,-2.4496,-34.5985,
-17.6383,-24.0075,0,69.6494,-2.1484,55.7422,59.8869,-8.8194,72.3247,2.7513,39.1971,13.2288,0,-19.5985,
-31.8463,-9.0075,15,54.6494,12.8516,40.7422,44.8869,-12.2482,57.3247,5.3896,54.1971,18.129,15,-5.3896,
-32.3371,0.98014,5.8794,69.6494,-2.1484,55.7422,59.8869,-27.2482,72.3247,-9.6104,39.1971,3.129,0,-19.5985,
-17.3371,-14.0199,-9.1206,84.6494,-9.3092,70.7422,74.8869,-12.2482,87.3247,3.4293,36.7465,16.1688,-15,-19.1087,
-32.3371,0.98014,5.8794,99.6494,-7.8397,85.7422,89.8869,-27.2482,102.3247,-11.5707,21.7465,1.1688,-7.8397,-34.1087,
-17.3371,-0.98014,1.9598,84.6494,0.98014,70.7422,74.8869,-12.2482,87.3247,1.9598,36.7465,9.799,-3.9191,-19.1087,
-4.4099,14.0199,16.9598,69.6494,15.9801,55.7422,59.8869,-9.3092,72.3247,2.4496,51.7465,13.2288,11.0809,-4.1087,
-19.4099,6.8596,8.8189,84.6494,0.98014,70.7422,44.8869,-24.3092,85.2518,-12.5504,36.7465,-1.7712,-3.9191,-19.1087,
-4.4099,-8.1404,-6.1811,99.6494,-14.0199,85.7422,59.8869,-11.7598,100.2518,2.4496,21.7465,3.9196,-18.9191,-19.599,
-19.4099,6.8596,6.8591,114.6494,-6.8591,100.7422,74.8869,-26.7598,115.2518,-12.5504,22.5376,-11.0804,-18.6179,-34.599,
-4.4099,-5.8794,7.8397,99.6494,8.1409,85.7422,59.8869,-11.7598,100.2518,2.4496,37.5376,3.9196,-5.8794,-19.599,
-5.3896,-14.2085,22.8397,84.6494,13.2288,70.7422,44.8869,-8.3286,85.2518,13.2288,52.5376,18.9196,8.3295,-4.599,
-20.3896,0.79151,24.9881,99.6494,-1.4695,85.7422,33.807,-23.3286,100.2518,-1.7712,48.5058,3.9196,-6.6705,-10.2893,
-5.3896,-14.2085,9.9881,114.6494,-16.4695,100.7422,48.807,-11.7593,115.2518,3.9201,36.2567,4.8998,-21.6705,-13.7187,
-20.3896,0.79151,14.208,129.6494,-8.3291,115.7422,63.807,-26.7593,130.2518,-11.0799,38.7063,-10.1002,-15.1886,-28.7187,
-5.3896,-14.2085,2.9399,114.6494,-2.9399,100.7422,48.807,-11.7593,115.2518,3.9201,53.7063,4.8998,-15.6785,-13.7187,
-6.86,-21.5579,15.678,99.6494,6.8591,85.7422,33.807,2.9395,100.2518,18.9201,68.7063,19.8998,-2.9395,1.2813,
-21.86,-6.5579,12.2491,114.6494,-5.3896,100.7422,18.807,-12.0605,86.7228,3.9201,53.7063,4.8998,-17.9395,-13.2288,
-6.86,-21.5579,-2.7509,129.6494,-20.3896,115.7422,33.807,-10.7792,101.7228,7.8392,45.076,2.9399,-32.9395,-5.879,
-21.86,-6.5579,12.2491,144.6494,-7.3494,130.7422,48.807,-25.7792,116.7228,-7.1608,48.5058,-12.0601,-25.9678,-20.879,
-6.86,-3.9196,20.5777,129.6494,7.6506,115.7422,33.807,-10.7792,101.7228,7.8392,63.5058,2.9399,-16.6591,-5.879,
2.9399,-18.9196,17.6387,114.6494,10.7792,100.7422,18.807,-2.9399,86.7228,16.6591,75.4533,15.6785,-15.6785,9.121,
-12.0601,-3.9196,27.4378,129.6494,-4.2208,115.7422,4.8998,-17.9399,71.7228,1.6591,60.4533,0.67846,-30.3768,-5.879,
2.9399,-18.9196,12.4378,114.6494,-5.3891,100.7422,-1.4695,-2.9399,56.7228,16.6591,52.4254,0.48983,-45.3768,3.4298,
-12.0601,-3.9196,27.4378,99.6494,2.4496,85.7422,13.5305,-17.9399,41.7228,1.6591,42.6264,-14.5102,-43.6061,-11.5702,
2.9399,-0.97967,30.3772,84.6494,8.8189,70.7422,-1.4695,-8.8189,26.7228,0.97967,47.0354,-8.8189,-48.016,3.4298,
-2.4501,-15.9797,15.3772,95.5412,-6.1811,64.1843,-16.4695,-10.2893,11.7228,10.2893,59.2841,-2.4501,-52.4254,5.3891,
-17.4501,-0.97967,26.9479,110.5412,-10.2889,79.1843,-1.4695,-25.2893,26.7228,-4.7107,53.4056,-17.4501,-46.5451,-9.6109,
-2.4501,-15.9797,11.9479,95.5412,-0.98014,64.1843,-16.4695,-10.2893,11.7228,10.2893,58.7947,-2.4501,-57.8145,5.3891,
-9.799,-0.97967,26.9479,80.5412,14.0199,49.1843,-1.4695,-19.5985,-3.2772,9.799,73.7947,-14.6983,-42.8145,16.6586,
-6.3697,-11.269,11.9479,95.5412,-0.98014,48.5058,6.3697,-27.9271,11.7228,-5.201,58.7947,-29.6983,-57.8145,7.3494,
-1.9598,-26.269,1.9598,110.5412,-10.7796,63.5058,10.7787,-21.5579,26.7228,-1.9598,59.7744,-23.5182,-72.8145,9.799,
-16.9598,-11.269,16.9598,125.5412,-4.4099,78.5058,25.7787,-36.5579,41.7228,-16.9598,44.7744,-38.5182,-71.0434,-5.201,
-1.9598,-26.269,14.209,110.5412,3.4298,63.5058,10.7787,-21.5579,26.7228,-1.9598,59.7744,-23.5182,-69.0836,9.799,
7.3494,-11.269,29.209,95.5412,18.4298,48.5058,-4.2213,-7.3494,11.7228,13.0402,74.7744,-9.3097,-54.0836,24.799,
-5.8794,-4.8998,26.4581,110.5412,7.8397,63.5058,-7.8388,-22.3494,26.7228,-1.9598,59.7744,-24.3097,-69.0836,9.799,
-5.3896,-19.8998,11.4581,125.5412,-7.1603,78.5058,7.1612,-25.9683,41.7228,5.3896,54.3843,-29.8879,-84.0836,6.3693,
-20.3896,-4.8998,26.4581,140.5412,0.98014,93.5058,22.1612,-40.9683,56.7228,-9.6104,49.9758,-44.8879,-87.2117,-6.8591,
-5.3896,-17.1489,34.7867,125.5412,15.9801,78.5058,7.1612,-25.9683,41.7228,5.3896,64.9758,-29.8879,-84.7625,8.1409,
9.6104,-13.7187,43.1162,110.5412,27.4378,63.5058,-7.8388,-10.9683,26.7228,20.3896,79.9758,-14.8879,-80.3526,23.1409,
24.6104,-10.7787,50.9555,95.5412,34.2964,48.5058,-22.8388,4.0317,11.7228,35.3896,91.1313,-4.8998,-75.4533,38.1409,
28.9073,-8.3295,59.2845,80.5412,39.6864,33.5058,-37.8388,5.3896,-3.2772,44.5857,98.4807,-5.3896,-71.0438,53.1409,
25.9678,-5.3891,67.1242,65.5412,45.5659,18.5058,-52.8388,5.3891,-18.2772,46.5455,105.3407,-5.3891,-66.1441,67.1242,
20.5787,-3.9196,73.4939,50.5412,48.9956,3.5058,-67.8388,3.9196,-33.2772,47.0363,110.7298,-7.8392,-63.694,68.5937,
16.1688,-1.47,79.8623,35.5412,54.3852,-11.4942,-82.8388,1.47,-48.2772,48.5053,117.0991,-10.2889,-59.2845,72.023,
1.1688,-11.7584,64.8623,50.5412,39.3852,3.5058,-67.8388,-13.53,-33.2772,33.5053,102.0991,-25.2889,-74.2845,57.023,
-2.4496,-26.7584,49.8623,65.5412,24.3852,18.5058,-52.8388,-28.53,-18.2772,18.5053,87.0991,-40.2889,-89.2845,42.023,
-17.4496,-11.7584,43.6061,80.5412,9.3852,33.5058,-37.8388,-43.53,-3.2772,3.5053,72.0991,-55.2889,-104.2845,27.023,
-2.4496,-0.48983,58.6061,65.5412,24.3852,18.5058,-52.8388,-28.53,-18.2772,18.5053,87.0991,-40.2889,-90.6419,42.023,
12.5504,5.8794,73.6061,50.5412,39.3852,3.5058,-67.8388,-13.53,-33.2772,33.5053,102.0991,-25.2889,-80.3526,57.023,
-2.4496,14.2085,72.023,65.5412,24.3852,18.5058,-52.8388,-28.53,-18.2772,18.5053,87.0991,-40.2889,-95.3526,42.023,
1.47,-0.79151,57.023,80.5412,9.3852,33.5058,-37.8388,-43.53,-3.2772,3.5053,72.0991,-55.2889,-110.3526,27.023,
-13.53,-6.86,62.7143,95.5412,-1.9598,48.5058,-22.8388,-58.53,11.7228,-11.4947,57.0991,-70.2889,-117.5889,12.023,
1.47,-14.2085,60.2642,80.5412,13.0402,33.5058,-37.8388,-43.53,-3.2772,3.5053,72.0991,-55.2889,-108.2802,27.023,
16.47,-26.4581,64.6741,65.5412,21.5574,18.5058,-52.8388,-28.53,-18.2772,18.5053,87.0991,-43.1162,-98.9714,42.023,
1.47,-11.4581,72.5129,80.5412,6.5574,33.5058,-37.8388,-43.53,-18.6179,3.5053,72.0991,-58.1162,-113.9714,27.023,
16.47,-26.4581,57.5129,95.5412,-8.4426,18.5058,-22.8388,-44.0959,-33.6179,12.739,57.0991,-65.6538,-128.9714,25.4775,
1.47,-11.4581,72.0235,110.5412,6.5574,33.5058,-7.8388,-59.0959,-18.6179,-2.261,72.0991,-80.6538,-116.1194,17.148,
16.47,-16.6586,76.4325,95.5412,16.6586,18.5058,-22.8388,-44.0959,-33.6179,12.739,87.0991,-65.6538,-107.7903,32.148,
31.47,-31.6586,61.4325,110.5412,7.8392,3.5058,-37.8388,-29.0959,-48.6179,27.739,93.092,-50.955,-114.649,47.148,
16.47,-16.6586,76.4325,125.5412,0.98014,18.5058,-22.8388,-44.0959,-33.6179,12.739,78.092,-65.955,-117.5894,32.148,
31.47,-31.6586,73.4928,110.5412,13.7189,3.5058,-37.8388,-29.0959,-48.6179,27.739,93.092,-50.955,-112.6899,47.148,
16.47,-16.6586,88.4928,95.5412,19.1078,-11.4942,-22.8388,-44.0959,-63.6179,12.739,95.5407,-65.955,-101.4206,41.6458,
12.7385,-31.6586,73.4928,110.5412,8.8189,-7.8392,-7.8388,-52.9153,-78.6179,-0.97967,80.5407,-80.955,-116.4206,37.2368,
9.3092,-46.6586,58.4928,125.5412,-6.1811,7.1608,-22.0477,-49.485,-63.6179,9.3092,72.024,-85.7417,-131.4206,35.7668,
-5.6908,-31.6586,73.4928,140.5412,-7.8392,22.1608,-7.0477,-64.485,-48.6179,-5.6908,74.4727,-100.7417,-120.5288,25.478,
9.3092,-21.068,88.4928,125.5412,7.1608,7.1608,-22.0477,-49.485,-63.6179,9.3092,89.4727,-85.7417,-105.5288,40.478,
24.3092,-6.068,103.4928,110.5412,22.1608,-7.8392,-33.8066,-34.485,-78.6179,24.3092,104.4727,-70.7417,-90.5288,55.478,
16.1688,-21.068,88.4928,125.5412,7.1608,7.1608,-21.068,-49.485,-63.6179,9.3092,89.4727,-85.7417,-105.5288,48.5053,
1.1688,-36.068,73.4928,140.5412,-7.8392,22.1608,-6.068,-64.485,-48.6179,-5.6908,74.4727,-100.7417,-120.5288,33.5053,
-13.8312,-30.3772,69.5734,155.5412,-12.7385,37.1608,8.932,-79.485,-33.6179,-20.6908,78.3932,-115.7417,-135.5288,18.5053,
1.1688,-19.5981,84.5734,140.5412,2.2615,22.1608,-6.068,-64.485,-48.6179,-5.6908,93.3932,-100.7417,-120.5288,33.5053,
16.1688,-4.5981,99.5734,125.5412,17.2615,7.1608,-21.068,-49.485,-63.6179,9.3092,108.3932,-85.7417,-105.5288,48.5053,
9.7995,-19.5981,84.5734,140.5412,6.8596,22.1608,-24.4974,-64.485,-71.5327,-5.6908,93.3932,-100.7417,-120.5288,37.2368,
-3.9196,-34.5981,69.5734,155.5412,-8.1404,37.1608,-9.4974,-79.485,-56.5327,-12.7385,78.3932,-114.6494,-135.5288,22.2368,
-18.9196,-22.5376,73.4935,170.5412,-17.6383,52.1608,5.5026,-94.485,-41.5327,-27.7385,83.292,-129.6494,-135.2276,17.6383,
-3.9196,-7.5376,88.4935,155.5412,-2.6383,37.1608,-9.4974,-79.485,-56.5327,-12.7385,98.292,-114.6494,-120.2276,32.6383,
11.0804,7.4624,103.4935,140.5412,12.3617,22.1608,-24.4974,-64.485,-71.5327,2.2615,113.292,-99.6494,-105.2276,47.6383,
15.1886,-7.5376,88.4935,155.5412,0.48983,37.1608,-16.1683,-69.0836,-86.5327,-0.48983,98.292,-112.1998,-120.2276,49.4855,
0.18862,-22.5376,73.4935,170.5412,-14.5102,52.1608,-1.1683,-84.0836,-71.5327,-15.4898,83.292,-127.1998,-135.2276,34.4855,
-14.8114,-8.8189,79.3729,185.5412,-20.5777,67.1608,13.8317,-99.0836,-56.5327,-30.4898,77.4126,-142.1998,-138.1671,19.4855,
0.18862,6.1811,94.3729,170.5412,-5.5777,52.1608,-1.1683,-84.0836,-71.5327,-15.4898,92.4126,-127.1998,-123.1671,34.4855,
15.1886,12.739,109.3729,155.5412,9.4223,37.1608,-16.1683,-69.0836,-86.5327,-0.48983,107.4126,-112.1998,-108.1671,49.4855,
6.3693,6.3693,94.3729,170.5412,-5.5777,52.1608,-27.9276,-80.8429,-101.5327,-14.2085,94.5611,-126.8986,-123.1671,42.6255,
5.3896,-8.6307,79.3729,185.5412,-20.5777,67.1608,-12.9276,-77.9029,-86.5327,-5.3896,79.5611,-123.9586,-138.1671,29.8869,
-9.6104,-4.8988,93.0915,200.5412,-5.5777,82.1608,2.0724,-92.9029,-71.5327,-5.8794,94.5611,-134.247,-131.3076,39.1966,
5.3896,-13.229,96.5206,185.5412,9.4223,67.1608,-12.9276,-77.9029,-86.5327,9.1206,109.5611,-119.247,-127.8785,54.1966,
20.3896,-20.578,100.9305,170.5412,20.578,52.1608,-27.9276,-62.9029,-101.5327,24.1206,124.5611,-104.247,-116.609,69.1966,
5.3896,-5.578,90.6419,185.5412,5.578,67.1608,-30.8671,-77.9029,-116.5327,9.1206,112.1993,-119.247,-131.609,54.1966,
20.3896,-20.578,75.6419,200.5412,-9.422,52.1608,-20.578,-62.9029,-131.5327,23.5179,99.9509,-114.6492,-146.609,52.9155,
5.3896,-5.578,90.6419,215.5412,-3.9201,37.1608,-5.578,-75.4528,-116.5327,8.5179,113.6693,-129.6492,-141.1071,45.0756,
20.3896,-2.4496,88.6821,200.5412,2.4496,22.1608,-20.578,-60.4528,-131.5327,23.5179,119.0593,-114.6492,-147.4763,60.0756,
35.3896,-17.4496,100.9308,185.5412,17.4496,7.1608,-35.578,-45.4528,-146.5327,38.5179,134.0593,-99.6492,-132.4763,75.0756,
20.3896,-2.4496,103.3804,200.5412,2.4496,22.1608,-20.578,-60.4528,-131.5327,23.5179,119.0593,-114.6492,-141.5969,60.0756,
35.3896,-17.4496,95.5417,185.5412,15.1886,7.1608,-35.578,-45.4528,-146.5327,38.5179,134.0593,-99.6492,-143.5567,75.0756,
20.3896,-2.4496,108.2797,170.5412,0.18862,-7.8392,-20.578,-60.4528,-161.5327,23.5179,119.0593,-114.6492,-146.4966,60.0756,
35.3896,3.4298,104.3601,185.5412,-3.4298,-17.148,-14.209,-45.4528,-176.5327,38.5179,134.0593,-113.1795,-142.5766,70.0632,
20.3896,-11.5702,89.3601,200.5412,-18.4298,-2.148,-29.209,-43.6058,-161.5327,36.7472,127.878,-108.2799,-157.5766,59.2843,
5.3896,-20.0884,76.9233,215.5412,-3.4298,12.852,-14.209,-58.6058,-146.5327,21.7472,112.878,-123.2799,-142.5766,44.2843,
20.3896,-31.3567,81.3325,200.5412,11.5702,-2.148,-29.209,-43.6058,-161.5327,36.7472,127.878,-108.2799,-129.348,59.2843,
22.0477,-16.3567,95.5407,185.5412,1.47,-17.148,-44.209,-54.3852,-176.5327,24.0071,135.7175,-107.3005,-140.6172,57.3242,
30.3777,-8.8194,80.5407,200.5412,-13.53,-2.148,-29.209,-55.8547,-168.5444,9.0071,120.7175,-119.5487,-155.6172,53.8954,
15.3777,-23.8194,65.5407,215.5412,-28.53,12.852,-14.209,-48.9952,-153.5444,23.5177,105.7175,-121.5085,-170.6172,55.8552,
0.37771,-8.8194,79.3729,230.5412,-23.5177,27.852,0.79105,-63.9952,-138.5444,8.5177,97.9904,-136.5085,-167.5647,40.8552,
15.3777,3.4298,93.5814,215.5412,-8.5177,12.852,-14.209,-48.9952,-153.5444,23.5177,112.9904,-121.5085,-152.5647,55.8552,
30.3777,18.4298,108.5814,200.5412,6.4823,-2.148,-29.209,-33.9952,-168.5444,38.5177,127.9904,-106.5085,-137.5647,70.8552,
15.3777,3.4298,93.5814,215.5412,-8.5177,12.852,-44.0964,-48.9952,-153.5444,23.5177,112.9904,-121.5085,-152.5647,55.8552,
0.37771,-11.5702,78.5814,230.5412,-23.5177,27.852,-29.0964,-63.9952,-138.5444,8.5177,97.9904,-135.2276,-167.5647,40.8552,
-14.6223,3.4298,86.7223,245.5412,-33.807,42.852,-14.0964,-77.9025,-123.5444,-6.4823,107.3,-138.657,-158.2555,46.5455,
0.37771,-8.3293,91.6218,230.5412,-18.807,27.852,-29.0964,-62.9025,-138.5444,8.5177,122.3,-123.657,-143.2555,61.5455,
15.3777,4.4094,106.6218,215.5412,-3.807,12.852,-44.0964,-47.9025,-153.5444,23.5177,137.3,-108.657,-128.2555,76.5455,
10.7787,-10.5906,91.6218,226.3594,-10.7787,27.852,-29.0964,-49.9749,-138.5444,17.6383,122.3,-116.6092,-143.2555,72.5138,
-4.2213,-25.5906,76.6218,241.3594,-25.7787,42.852,-14.0964,-64.9749,-123.5444,2.6383,107.3,-131.6092,-158.2555,57.5138,
-19.2213,-10.5906,61.6218,256.3594,-40.7787,57.852,0.90364,-79.9749,-108.5444,-12.3617,92.3,-146.6092,-173.2555,42.5138,
-4.2213,4.4094,76.6218,241.3594,-25.7787,42.852,-14.0964,-64.9749,-123.5444,2.6383,107.3,-131.6092,-158.2555,57.5138,
10.7787,8.8194,91.6218,226.3594,-10.7787,27.852,-29.0964,-49.9749,-138.5444,17.6383,122.3,-116.6092,-143.2555,72.5138,
-3.9196,13.7182,79.3729,235.1778,-25.7787,42.852,-44.0964,-64.9749,-123.5444,3.9196,107.3,-131.6092,-158.2555,57.5138,
3.4298,-1.2818,64.3729,250.1778,-40.7787,57.852,-29.0964,-73.0036,-108.5444,-3.4298,92.3,-136.6976,-173.2555,42.5138,
-11.5702,13.7182,74.4727,265.1778,-38.2165,72.852,-14.0964,-88.0036,-93.5444,-18.4298,87.2121,-151.6976,-177.3637,27.5138,
3.4298,28.7182,89.4727,250.1778,-23.2165,57.852,-29.0964,-73.0036,-108.5444,-3.4298,102.2121,-136.6976,-162.3637,42.5138,
18.4298,18.1281,102.4003,235.1778,-8.2165,42.852,-44.0964,-58.0036,-123.5444,11.5702,117.2121,-121.6976,-149.4361,57.5138,
3.4298,33.1281,94.5611,250.1778,-13.2288,57.852,-29.0964,-62.2245,-108.5444,5.3896,112.1998,-125.918,-158.255,68.1044,
0.48983,18.1281,79.5611,235.1778,-28.2288,72.852,-14.0964,-60.2642,-109.2594,5.3901,97.1998,-126.8981,-173.255,53.1044,
-14.5102,19.5981,64.5611,237.1381,-34.2969,87.852,0.90364,-75.2642,-94.2594,-9.6099,93.0911,-141.8981,-159.7255,39.1961,
0.48983,16.1688,68.1034,222.1381,-19.2969,72.852,-14.0964,-60.2642,-109.2594,5.3901,108.0911,-126.8981,-148.4565,54.1961,
15.4898,1.1688,78.8828,207.1381,-4.2969,57.852,-29.0964,-45.2642,-124.2594,20.3901,123.0911,-111.8981,-133.4565,69.1961,
0.48983,16.1688,80.3521,222.1381,-16.6586,72.852,-14.0964,-58.7947,-109.2594,5.3901,108.0911,-126.8981,-127.3884,67.6136,
15.4898,1.1688,65.3521,207.1381,-12.2487,57.852,-29.0964,-43.7947,-124.2594,20.3901,122.979,-111.8981,-133.7577,82.6136,
0.48983,9.799,67.6136,192.1381,-9.799,42.852,-14.0964,-56.8353,-139.2594,14.6983,112.6896,-116.6097,-120.5293,68.5933,
15.4898,4.8993,64.6741,177.1381,-12.7385,27.852,-4.8993,-41.8353,-154.2594,29.6983,105.8305,-101.6097,-129.3482,83.2925,
20.578,-10.1007,49.6741,192.1381,-27.7385,42.852,-19.8993,-27.4371,-139.2594,26.4579,97.9915,-100.9305,-135.2274,68.2925,
5.578,4.8993,64.6741,207.1381,-20.0884,57.852,-4.8993,-42.4371,-124.2594,11.4579,90.6414,-115.9305,-120.2274,53.2925,
20.578,-10.1007,65.6542,192.1381,-5.0884,42.852,-19.8993,-27.4371,-139.2594,26.4579,105.6414,-100.9305,-110.7298,68.2925,
5.578,4.8993,80.6542,177.1381,-0.97967,27.852,-19.5981,-39.1961,-154.2594,13.7191,108.7705,-105.8301,-96.031,71.5337,
-4.8998,-1.9598,65.6542,175.4035,-15.9797,42.852,-4.5981,-43.1162,-139.2594,1.9598,93.7705,-120.8301,-111.031,56.5337,
-11.7588,-16.9598,50.6542,190.4035,-30.9797,57.852,10.4019,-48.0155,-124.2594,7.8392,78.7705,-116.6092,-126.031,41.5337,
-26.7588,-1.9598,36.747,205.4035,-45.9797,72.852,25.4019,-63.0155,-109.2594,-7.1608,63.7705,-131.6092,-132.7771,26.5337,
-11.7588,10.2891,51.747,190.4035,-30.9797,57.852,10.4019,-48.0155,-124.2594,7.8392,78.7705,-116.6092,-117.7771,41.5337,
3.2412,25.2891,66.747,175.4035,-15.9797,42.852,-4.5981,-33.0155,-139.2594,22.8392,93.7705,-101.6092,-102.7771,56.5337,
-11.7588,11.269,51.747,190.4035,-30.9797,57.852,10.4019,-48.0155,-124.2594,7.8392,78.7705,-116.6092,-114.1591,41.5337,
-11.269,-3.731,36.747,205.4035,-45.9797,72.852,25.4019,-54.3852,-109.2594,-3.4298,63.7705,-122.9785,-129.1591,34.7867,
-26.269,0,29.3976,220.4035,-60.9797,87.852,40.4019,-69.3852,-94.2594,-18.4298,48.7705,-137.9785,-130.3279,19.7867,
-11.269,7.8392,44.3976,205.4035,-45.9797,72.852,25.4019,-54.3852,-109.2594,-3.4298,63.7705,-122.9785,-115.3279,34.7867,
3.731,22.8392,59.3976,190.4035,-30.9797,57.852,10.4019,-39.3852,-124.2594,11.5702,78.7705,-107.9785,-100.3279,49.7867,
-11.269,19.1082,51.4458,205.4035,-27.9271,72.852,25.4019,-54.3848,-109.2594,-3.4298,63.7705,-122.9785,-100.4405,37.7266,
-8.8194,4.1082,36.4458,220.4035,-42.9271,87.852,40.4019,-39.3848,-94.2594,4.8998,49.9758,-110.7298,-115.4405,35.277,
-23.8194,-0.98014,21.4458,235.4035,-57.9271,102.852,55.4019,-54.3848,-79.2594,-10.1002,34.9758,-125.7298,-124.4485,20.277,
-8.8194,5.3891,36.4458,220.4035,-42.9271,87.852,40.4019,-39.3848,-94.2594,4.8998,49.9758,-110.7298,-109.4485,35.277,
6.1806,19.1087,51.4458,205.4035,-27.9271,72.852,25.4019,-24.3848,-109.2594,19.8998,64.9758,-95.7298,-94.4485,50.277,
-8.8194,18.1286,51.4458,203.3311,-36.747,87.852,40.4019,-39.3848,-94.2594,4.8998,49.9758,-110.7298,-101.4201,35.277,
1.9598,3.1286,36.4458,218.3311,-51.747,102.852,55.4019,-36.2567,-79.2594,-9.8,34.9758,-125.7298,-116.4201,31.3564,
-13.0402,7.8392,22.538,233.3311,-65.6538,117.852,70.4019,-51.2567,-64.2594,-24.8,19.9758,-140.7298,-120.5284,16.3564,
1.9598,22.8392,37.538,218.3311,-50.6538,102.852,55.4019,-36.2567,-79.2594,-9.8,34.9758,-125.7298,-105.5284,31.3564,
16.9598,26.4572,52.538,203.3311,-35.6538,87.852,40.4019,-21.2567,-94.2594,5.2,49.9758,-110.7298,-90.5284,46.3564,
1.9598,27.9276,37.538,204.3112,-49.486,102.852,25.4019,-36.2567,-79.2594,-9.8,34.9758,-125.7298,-96.5213,31.3564,
-2.4496,12.9276,22.538,219.3112,-64.486,117.852,40.4019,-24.008,-64.2594,2.4496,29.8869,-115.1397,-111.5213,33.8066,
-17.4496,-1.9598,7.538,204.3112,-79.486,111.7099,55.4019,-39.008,-49.2594,-12.5504,17.6383,-130.1397,-108.77,18.8066,
-2.4496,13.0402,22.538,189.3112,-64.486,96.7099,40.4019,-24.008,-64.2594,2.4496,32.6383,-115.1397,-93.77,33.8066,
2.9399,-1.9598,25.478,174.3112,-49.486,81.7099,25.4019,-9.008,-79.2594,17.4496,47.6383,-100.1397,-78.77,48.8066,
-12.0601,10.7787,19.5985,189.3112,-48.9952,96.7099,23.5182,-24.008,-64.2594,2.4496,40.1763,-115.1397,-80.353,33.8066,
2.9399,-4.2213,4.5985,174.3112,-62.7143,81.7099,23.5177,-11.7588,-58.7947,11.7588,39.1961,-100.1397,-95.353,47.0354,
-12.0601,8.8194,17.6383,159.3112,-51.9351,66.7099,38.5177,-26.7588,-43.7947,-3.2412,42.1356,-115.1397,-80.353,32.0354,
2.9399,0.97967,11.7588,144.3112,-36.9351,51.7099,23.5177,-11.7588,-58.7947,11.7588,56.8349,-100.1397,-65.353,47.0354,
3.4298,-14.0203,12.2487,129.3112,-36.747,43.6056,8.5177,-8.3291,-73.7947,25.9678,55.3644,-85.1397,-55.3649,60.2647,
-11.5702,-4.8998,11.7593,144.3112,-51.747,58.6056,23.5177,-23.3291,-58.7947,10.9678,40.3644,-100.1397,-70.3649,45.2647,
3.4298,-1.47,26.7593,129.3112,-36.747,43.6056,8.5177,-8.3291,-73.7947,25.9678,55.3644,-85.1397,-55.3649,60.2647,
-1.9598,13.53,41.7593,114.3112,-21.747,28.6056,23.5177,-4.8998,-74.4736,31.3565,70.3644,-70.1397,-40.3649,74.4731,
-8.8194,-1.47,26.7593,99.3112,-36.747,43.6056,38.5177,-19.8998,-59.4736,16.3565,55.3644,-85.1397,-55.3649,59.4731,
-2.4501,-16.47,11.7593,114.3112,-51.747,58.6056,53.5177,-10.2893,-44.4736,2.4501,40.3644,-90.6414,-70.3649,44.4731,
-17.4501,-1.47,-3.2407,129.3112,-65.6538,73.6056,68.5177,-25.2893,-29.4736,-12.5499,25.3644,-105.6414,-69.5734,29.4731,
-2.4501,9.799,11.7593,114.3112,-50.6538,58.6056,53.5177,-10.2893,-44.4736,2.4501,40.3644,-90.6414,-54.5734,44.4731,
5.3891,24.799,26.7593,99.3112,-35.6538,43.6056,38.5177,4.7107,-59.4736,17.4501,55.3644,-75.6414,-39.5734,59.4731,
-9.6109,27.9276,11.7593,114.3112,-50.6538,58.6056,48.5053,-10.2893,-44.4736,2.4501,40.3644,-90.6414,-54.5734,44.4731,
-11.7584,12.9276,-3.2407,129.3112,-62.7138,73.6056,63.5053,-9.799,-29.4736,9.799,32.3371,-75.6414,-46.0557,38.2169,
-26.7584,16.1683,-16.1683,144.3112,-63.2046,88.6056,78.5053,-24.799,-14.4736,-5.201,19.1082,-90.6414,-37.7266,23.2169,
-11.7584,26.947,-1.1683,129.3112,-48.2046,73.6056,63.5053,-9.799,-29.4736,9.799,34.1082,-75.6414,-22.7266,38.2169,
-0.48984,40.6666,13.8317,114.3112,-33.2046,58.6056,48.5053,4.4094,-44.4736,15.1886,49.1082,-60.6414,-7.7266,53.2169,
-15.4898,25.6666,-1.1683,129.3112,-48.2046,73.6056,63.5053,-10.5906,-29.4736,0.18862,34.1082,-75.6414,-22.7266,38.2169,
-4.8998,10.6666,-16.1683,144.3112,-60.7545,88.6056,78.5053,-11.7593,-14.4736,4.8998,20.5782,-70.5535,-37.7266,32.3371,
-19.8998,25.6666,-8.8194,159.3112,-45.7545,103.6056,93.5053,-26.7593,0.52639,-10.1002,13.7187,-85.5535,-24.4978,17.3371,
-4.8998,21.0676,5.3891,144.3112,-30.7545,88.6056,78.5053,-11.7593,-14.4736,4.8998,28.7187,-70.5535,-9.4978,32.3371,
-0.48983,23.0279,20.3891,129.3112,-15.7545,73.6056,63.5053,3.2407,-29.4736,19.8998,43.7187,-55.5535,0.48983,47.3371,
-15.4898,16.1688,5.3891,115.1397,-30.7545,88.6056,51.4453,-11.7593,-14.4736,4.8998,28.7187,-70.5535,-14.5102,32.3371,
-4.4094,1.1688,-9.6109,130.1397,-45.7545,103.6056,66.4453,-2.4501,0.52639,2.4501,13.7187,-55.5535,-29.5102,39.686,
-19.4094,16.1688,-9.7995,145.1397,-39.1961,118.6056,81.4453,-17.4501,15.5264,-12.5499,9.7995,-70.5535,-19.5981,24.686,
-4.4094,11.7588,-3.9196,130.1397,-24.1961,103.6056,66.4453,-2.4501,0.52639,2.4501,24.7995,-55.5535,-4.5981,39.686,
0.98014,7.8397,-0.98014,115.1397,-9.1961,88.6056,51.4453,12.5499,-14.4736,17.4501,39.7995,-40.5535,10.4019,54.686,
-14.0199,22.8397,-12.739,130.1397,-21.5579,103.6056,66.4453,-2.4501,0.52639,2.4501,24.7995,-55.5535,-4.5981,39.686,
-3.9196,7.8397,-27.739,145.1397,-36.5579,118.6056,81.4453,8.8189,15.5264,-4.9002,9.7995,-47.0358,-19.5981,26.4576,
-18.9196,22.8397,-16.6591,160.1397,-39.1961,133.6056,96.4453,-6.1811,30.5264,-19.9002,10.7792,-62.0358,-10.7792,13.7182,
-3.9196,36.7465,-9.3092,145.1397,-24.1961,118.6056,81.4453,8.8189,15.5264,-4.9002,25.7792,-47.0358,4.2208,28.7182,
8.3291,21.7465,-17.148,130.1397,-9.1961,103.6056,66.4453,23.8189,0.52639,10.0998,40.7792,-32.0358,19.1082,43.7182,
-6.6709,36.7465,-15.6785,145.1397,-24.1961,118.6056,51.9356,8.8189,15.5264,-4.9002,25.7792,-47.0358,4.1082,28.7182,
-3.9196,21.7465,-30.6785,130.1397,-39.1961,103.6056,48.9956,6.8596,30.5264,3.9196,10.7792,-32.0358,-10.8918,36.2562,
-18.9196,32.8269,-20.0874,115.1397,-41.6458,94.562,63.9956,-8.1404,45.5264,-11.0804,-4.2208,-47.0358,4.1082,24.9877,
-3.9201,18.6179,-35.0874,100.1397,-43.1162,79.562,48.9956,6.8596,30.5264,1.9598,-1.9598,-32.0358,1.9598,39.9877,
-8.8194,3.6179,-50.0874,85.1397,-42.1361,64.562,33.9956,10.7787,15.5264,5.8794,-2.9395,-18.6179,6.8591,46.0562,
-23.8194,18.6179,-35.0874,100.1397,-36.2567,79.562,48.9956,-4.2213,30.5264,-9.1206,-17.9395,-33.6179,16.6586,31.0562,
-8.8194,3.6179,-47.5257,85.1397,-38.7063,64.562,33.9956,10.7787,15.5264,5.8794,-5.3896,-18.6179,1.6586,46.0562,
-23.8194,18.6179,-32.5257,70.1397,-23.7063,49.562,48.9956,-2.4496,30.5264,-9.1206,2.4496,-26.9479,16.6586,38.7058,
-25.9678,9.3097,-47.5257,55.1397,-38.7063,64.562,54.3848,-0.48984,45.5264,-14.209,-12.5504,-28.9068,9.3097,31.8468,
-28.4179,-5.6903,-62.5257,70.1397,-47.0358,79.562,58.7942,14.5102,60.5264,-2.9399,-27.5504,-13.9068,2.9399,31.3569,
-43.4179,9.3097,-47.5257,85.1397,-32.0358,94.562,73.7942,-0.48984,75.5264,-17.9399,-39.6864,-28.9068,17.1484,18.1281,
-28.4179,-2.4499,-44.586,70.1397,-17.0358,79.562,58.7942,14.5102,60.5264,-2.9399,-24.6864,-13.9068,32.1484,33.1281,
-21.0676,12.5501,-29.586,55.1397,-4.4094,64.562,43.7942,8.3291,45.5264,11.269,-9.6864,1.0932,47.1484,46.5455,
-25.4775,1.9598,-44.586,40.1763,-19.4094,79.562,58.7942,-1.9598,60.5264,-3.731,-24.6864,-13.9068,32.1484,31.5455,
-24.9881,-13.0402,-59.586,55.1763,-34.4094,94.562,73.7942,13.0402,75.5264,0.48983,-39.6864,-0.48983,17.1484,25.9678,
-39.9881,1.9598,-44.586,70.1763,-32.3375,109.562,88.7942,-1.9598,90.5264,-14.5102,-54.6864,-15.4898,30.3772,16.6581,
-24.9881,1.47,-29.586,55.1763,-17.3375,94.562,73.7942,13.0402,75.5264,0.48983,-39.6864,-0.48983,45.3772,31.6581,
-9.9881,16.47,-14.586,40.1763,-2.3375,79.562,58.7942,28.0402,60.5264,15.4898,-24.6864,14.5102,56.8344,46.6581,
-24.9881,1.47,-29.586,55.1763,-17.3375,94.562,44.5857,13.0402,75.5264,0.48983,-39.6864,-0.48983,41.8344,31.6581,
-25.9673,-13.53,-44.586,70.1763,-32.3375,109.562,59.5857,16.1688,90.5264,-4.409,-54.6864,1.47,26.8344,16.6581,
-40.9673,1.47,-30.8675,85.1763,-17.3375,124.562,74.5857,1.1688,105.5264,-19.409,-42.6264,-13.53,41.8344,14.2085,
-25.9673,14.2085,-45.8675,70.1763,-14.2085,109.562,59.5857,16.1688,90.5264,-4.409,-27.6264,1.47,50.4656,29.2085,
-10.9673,29.2085,-30.8675,55.1763,0.79151,94.562,44.5857,31.1688,75.5264,10.591,-12.6264,16.47,65.4656,44.2085,
-25.9673,26.9475,-45.8675,70.1763,-14.2085,109.562,59.5857,16.1688,90.5264,-4.409,-27.6264,1.47,50.4656,29.2085,
-40.9673,11.9475,-60.8675,85.1763,-29.2085,124.562,74.5857,1.47,105.5264,-19.409,-42.6264,3.4293,35.4656,14.2085,
-55.9673,26.9475,-57.8145,100.1763,-44.2085,139.562,89.5857,-13.53,120.5264,-34.409,-57.6264,-4.8993,49.9753,4.8993,
-40.9673,30.3772,-55.8547,85.1763,-29.2085,124.562,74.5857,1.47,105.5264,-19.409,-43.1158,10.1007,57.8145,19.8993,
-25.9673,45.3772,-40.8547,70.1763,-14.2085,109.562,59.5857,16.47,90.5264,-4.409,-28.1158,25.1007,72.8145,34.8993,
-40.9673,52.4254,-55.8547,83.7823,-29.2085,124.562,51.4448,1.47,105.5264,-19.409,-43.1158,10.1007,57.8145,19.8993,
-49.4855,37.4254,-70.8547,98.7823,-44.2085,139.562,66.4448,9.3087,120.5264,-21.0685,-58.1158,10.2884,42.8145,4.8993,
-64.4855,44.0959,-59.7744,113.7823,-37.2363,154.562,81.4448,-5.6913,135.5264,-34.2964,-73.1158,-0.98014,57.8145,0.98014,
-49.4855,57.815,-44.7744,98.7823,-22.2363,139.562,66.4448,9.3087,120.5264,-19.2964,-58.1158,14.0199,72.8145,15.9801,
-34.4855,43.1162,-33.3172,83.7823,-7.2363,124.562,51.4448,24.3087,105.5264,-4.2964,-43.1158,29.0199,87.8145,30.9801,
-49.4855,51.9351,-48.3172,98.7823,-22.2363,139.562,66.4448,9.3087,120.5264,-19.2964,-58.1158,14.0199,72.8145,15.9801,
-50.4647,36.9351,-63.3172,83.7823,-37.2363,125.9189,81.4448,10.2889,135.5264,-24.9877,-73.1158,15.1891,57.8145,0.98014,
-65.4647,49.485,-65.1644,68.7823,-29.8869,140.9189,96.4448,-4.7111,150.5264,-39.9877,-87.7024,4.4099,56.3446,-4.4099,
-50.4647,34.485,-76.433,53.7823,-31.3569,125.9189,81.4448,10.2889,135.5264,-24.9877,-79.3724,19.4099,45.076,10.5901,
-35.4647,19.485,-68.1034,38.7823,-29.8869,110.9189,66.4448,25.2889,120.5264,-9.9877,-64.3724,34.4099,60.076,23.0283,
-50.4647,34.485,-54.8751,53.7823,-39.1966,125.9189,81.4448,10.2889,135.5264,-24.9877,-79.3724,19.4099,65.6542,8.0283,
-35.4647,19.485,-69.8751,38.7823,-48.9956,110.9189,66.4448,25.2889,120.5264,-9.9877,-78.3928,34.4099,50.6542,16.6586,
-50.4647,13.2283,-64.1843,23.7823,-33.9956,95.9189,81.4448,10.2889,108.2797,-24.9877,-67.1242,22.0482,63.2046,1.6586,
-39.6864,-1.7717,-79.1843,8.7823,-39.6864,80.9189,66.4448,20.0884,109.2598,-16.1688,-82.1242,24.9877,49.4859,2.4496,
-54.6864,-16.7717,-94.1843,23.7823,-54.6864,95.9189,51.4448,11.7588,124.2598,-16.6581,-93.0911,32.3375,38.2165,-11.7588,
-69.6864,-1.7717,-79.1843,38.7823,-48.5053,110.9189,66.4448,-3.2412,139.2598,-31.6581,-87.7024,17.3375,53.2165,-21.068,
-54.6864,13.2283,-66.6339,23.7823,-33.5053,95.9189,51.4448,11.7588,124.2598,-16.6581,-72.7024,32.3375,61.7346,-6.068,
-51.9351,28.2283,-51.6339,8.7823,-18.5053,80.9189,50.9555,15.6789,109.2598,-17.6383,-57.7024,32.3371,76.7346,8.932,
-62.224,34.7867,-66.6339,12.2487,-33.5053,95.9189,65.9555,0.67892,124.2598,-32.6383,-72.7024,17.3371,61.7346,-6.068,
-54.3848,19.7867,-81.6339,27.2487,-48.5053,110.9189,80.9555,11.269,139.2598,-25.9678,-87.7024,30.8671,46.7346,-17.148,
-69.3848,34.7867,-66.6339,42.2487,-33.5053,125.9189,95.9555,-3.731,154.2598,-40.9678,-78.8826,15.8671,61.7346,-13.2288,
-54.3848,39.6867,-51.6339,27.2487,-18.5053,110.9189,80.9555,11.269,139.2598,-25.9678,-63.8826,30.8671,72.0233,1.7712,
-39.3848,54.6867,-36.6339,12.2487,-3.5053,95.9189,65.9555,26.269,124.2598,-10.9678,-48.8826,45.8671,87.0233,16.7712,
-54.3848,41.6463,-51.6339,27.2487,-18.5053,110.9189,80.9555,11.269,139.2598,-25.9678,-63.8826,30.8671,72.0233,1.7712,
-39.3848,26.6463,-66.6339,42.2487,-33.5053,125.9189,95.9555,14.6988,154.2598,-19.5981,-78.8826,35.2765,57.0233,-13.2288,
-54.3848,41.6463,-55.3649,57.2487,-32.8269,140.9189,110.9555,-0.30121,169.2598,-34.5981,-83.7828,20.2765,64.1838,-26.9479,
-39.3848,46.0557,-65.6542,42.2487,-17.8269,125.9189,95.9555,14.6988,154.2598,-19.5981,-68.7828,35.2765,69.5734,-11.9479,
-24.3848,61.0557,-50.6542,27.2487,-2.8269,110.9189,80.9555,29.6988,139.2598,-4.5981,-53.7828,50.2765,84.5734,3.0521,
-39.3848,46.0557,-65.6542,12.2487,-17.8269,122.4882,76.4325,14.6988,154.2598,-19.5981,-68.7828,35.2765,69.5734,-11.9479,
-40.1763,31.0557,-80.6542,27.2487,-32.8269,137.4882,91.4325,13.7187,169.2598,-13.7187,-83.7828,45.0765,54.5734,-18.6179,
-55.1763,46.0557,-80.353,42.2487,-47.8269,152.4882,106.4325,-1.2813,184.2598,-28.7187,-85.2523,30.0765,58.7947,-32.3371,
-40.1763,61.0557,-65.353,27.2487,-32.8269,137.4882,91.4325,13.7187,169.2598,-13.7187,-70.2523,45.0765,73.7947,-17.3371,
-25.1763,75.9431,-50.353,12.2487,-17.8269,122.4882,76.4325,28.7187,154.2598,1.2813,-55.2523,60.0765,88.7947,-2.3371,
-40.1763,60.9431,-65.353,27.2487,-32.8269,116.6092,79.3724,13.7187,169.2598,-13.7187,-70.2523,45.0765,73.7947,-17.3371,
-33.3172,45.9431,-80.353,42.2487,-47.8269,131.6092,94.3724,18.6184,184.2598,-21.5583,-85.2523,48.015,58.7947,-30.3772,
-48.3172,60.9431,-76.9233,57.2487,-52.4259,146.6092,109.3724,3.6184,199.2598,-36.5583,-87.7024,33.015,73.7947,-31.8472,
-33.3172,48.0155,-72.5133,42.2487,-37.4259,131.6092,94.3724,18.6184,184.2598,-21.5583,-72.7024,48.015,84.2726,-16.8472,
-18.3172,42.6259,-57.5133,27.2487,-22.4259,116.6092,79.3724,33.6184,169.2598,-6.5583,-57.7024,63.015,99.2726,-1.8472,
-33.3172,44.0954,-72.5133,42.2487,-37.4259,131.6092,64.3724,18.6184,184.2598,-21.5583,-72.7024,48.015,84.2726,-16.8472,
-26.4572,29.0954,-87.5133,57.2487,-52.4259,146.6092,79.3724,17.6383,199.2598,-19.5976,-87.2117,51.9351,69.2726,-17.6383,
-41.4572,38.2165,-76.4329,42.2487,-57.8145,131.6092,94.3724,2.6383,214.2598,-34.5976,-82.3128,36.9351,66.6334,-32.6383,
-26.4572,45.5659,-78.8826,27.2487,-46.5455,116.6092,79.3724,17.6383,199.2598,-19.5976,-67.3128,51.9351,75.9431,-17.6383,
-11.4572,35.7668,-71.0434,12.2487,-32.8269,101.6092,64.3724,32.6383,184.2598,-4.5976,-52.3128,66.9351,85.7422,-2.6383,
-26.4572,50.7668,-71.5332,27.2487,-46.0552,116.6092,79.3724,17.6383,197.9424,-19.5976,-67.3128,51.9351,70.7422,-17.6383,
-11.4572,35.7668,-86.5332,12.2487,-54.3852,101.6092,64.3724,32.6383,182.9424,-13.2283,-82.3128,66.1436,55.7422,-23.0279,
-26.4572,50.7668,-71.5332,-2.7513,-39.3852,92.6012,79.3724,17.6383,197.9424,-25.9678,-68.1039,53.4051,70.7422,-18.1286,
-23.0283,56.3446,-71.0434,-17.7513,-35.7668,77.6012,64.3724,21.068,182.9424,-23.0283,-83.1039,44.5857,68.1034,-21.068,
-27.9276,41.3446,-86.0434,-9.3092,-46.546,92.6012,49.3724,23.0274,167.9424,-18.1281,-87.702,52.425,61.2439,-24.9877,
-42.9276,56.3446,-71.0434,5.6908,-42.6259,107.6012,64.3724,8.0274,182.9424,-33.1281,-97.5005,37.425,75.9431,-39.9877,
-27.9276,41.3446,-76.433,-9.3092,-30.3772,92.6012,49.3724,23.0274,167.9424,-18.1281,-82.5005,52.425,79.3724,-24.9877,
-21.0676,56.3446,-61.433,-24.3092,-15.3772,77.6012,64.3724,38.0274,152.9424,-12.2487,-67.5005,67.425,94.3724,-9.9877,
-30.8671,47.5252,-71.0438,-24.9881,-30.3772,79.8627,79.3724,23.0274,167.9424,-27.2487,-82.5005,52.425,79.3724,-18.1286,
-45.8671,32.5252,-86.0438,-9.9881,-45.3772,94.8627,94.3724,14.6988,182.9424,-25.478,-85.2523,55.8552,67.6141,-29.3976,
-60.8671,47.5252,-73.493,5.0119,-48.015,109.8627,109.3724,-0.30121,197.9424,-40.478,-88.1918,40.8552,82.6141,-44.3976,
-45.8671,32.5252,-70.0637,-9.9881,-33.015,94.8627,94.3724,14.6988,182.9424,-25.478,-73.1918,55.8552,96.5209,-29.3976,
-30.8671,47.5252,-55.0637,-24.9881,-18.015,79.8627,79.3724,29.6988,167.9424,-10.478,-58.1918,70.5531,111.5209,-14.3976,
-45.8671,32.5252,-70.0637,-9.9881,-33.015,94.8627,86.7218,14.6988,182.9424,-25.478,-73.1918,55.5531,96.5209,-29.3976,
-43.6056,17.5252,-85.0637,5.0119,-48.015,109.8627,101.7218,20.0879,197.9424,-27.9271,-83.7823,58.3044,81.5209,-33.807,
-58.6056,32.5252,-70.0637,20.0119,-37.2363,124.8627,116.7218,5.0879,212.9424,-42.9271,-84.2726,43.3044,96.0315,-48.807,
-43.6056,47.5252,-55.0637,5.0119,-22.2363,109.8627,101.7218,20.0879,197.9424,-27.9271,-69.2726,58.3044,111.0315,-33.807,
-28.6056,62.5252,-40.0637,-9.9881,-7.2363,94.8627,86.7218,35.0879,182.9424,-12.9271,-54.2726,73.3044,126.0315,-18.807,
-43.1162,47.5252,-55.0637,-1.9598,-22.2363,109.7497,101.7218,20.0879,197.9424,-27.9271,-69.2726,58.3044,111.0315,-33.807,
-28.1162,32.5252,-70.0637,13.0402,-37.2363,124.7497,116.7218,19.5981,212.9424,-19.5981,-83.292,60.7545,96.0315,-35.2765,
-43.1162,47.5252,-67.6141,28.0402,-37.2368,139.7497,131.7218,4.5981,227.9424,-34.5981,-82.3128,45.7545,102.8906,-50.2765,
-28.1162,38.2165,-60.7545,13.0402,-22.2368,124.7497,116.7218,19.5981,212.9424,-19.5981,-67.3128,60.7545,117.8906,-35.2765,
-13.1162,43.6056,-45.7545,-1.9598,-7.2368,109.7497,101.7218,34.5981,197.9424,-4.5981,-52.3128,75.7545,132.8906,-20.2765,
-28.1162,28.6056,-60.7545,13.0402,-22.2368,97.0107,86.7218,19.5981,212.9424,-19.5981,-67.3128,60.7545,117.8906,-35.2765,
-30.8671,13.6056,-75.7545,28.0402,-37.2368,112.0107,101.7218,16.1683,227.9424,-16.1683,-82.3128,73.0032,102.8906,-41.6463,
-45.8671,28.6056,-82.8027,43.0402,-52.2368,127.0107,116.7218,1.1683,242.9424,-31.1683,-83.7823,58.0032,90.6419,-56.6463,
-30.8671,43.6056,-67.8027,28.0402,-37.2368,112.0107,101.7218,16.1683,227.9424,-16.1683,-68.7823,73.0032,105.6419,-41.6463,
-15.8671,50.9555,-52.8027,13.0402,-22.2368,97.0107,86.7218,31.1683,212.9424,-1.1683,-53.7823,88.0032,120.6419,-26.6463,
-30.8671,52.9148,-67.8027,24.4978,-37.2368,108.77,71.7218,16.1683,205.7807,-16.1683,-68.7823,73.0032,105.6419,-41.6463,
-27.4373,37.9148,-82.8027,39.4978,-52.2368,123.4683,86.7218,12.7385,220.7807,-31.1683,-83.7823,59.7748,90.6419,-48.9957,
-42.4373,52.9148,-78.8826,54.4978,-37.7262,138.4683,101.7218,-2.2615,235.7807,-46.1683,-88.6821,44.7748,86.7218,-62.2245,
-27.4373,63.694,-63.8826,39.4978,-22.7262,123.4683,86.7218,12.7385,220.7807,-31.1683,-73.6821,59.7748,101.7218,-47.2245,
-12.4373,48.694,-58.7947,24.4978,-11.7588,108.4683,71.7218,27.7385,205.7807,-16.1683,-58.6821,74.7748,116.7218,-32.2245,
-27.4373,34.7872,-73.7947,39.4978,-26.7588,115.1397,56.7218,12.7385,199.4119,-31.1683,-73.6821,59.7748,101.7218,-47.2245,
-12.4373,19.7872,-88.7947,24.4978,-41.7588,100.1397,49.9749,27.7385,184.4119,-16.1683,-75.4533,74.7748,86.7218,-32.2245,
-27.4373,34.7872,-73.7947,9.4978,-26.7588,85.1397,64.9749,12.7385,199.4119,-22.0482,-60.4533,74.9625,101.7218,-22.0482,
-12.4373,47.0354,-60.7545,-5.5022,-30.3772,70.1397,49.9749,27.7385,184.4119,-7.8392,-61.7342,88.1918,106.8102,-17.6387,
-14.6983,32.0354,-72.5133,-20.5022,-45.3772,56.8344,34.9749,26.4572,169.4119,-6.8591,-64.6741,80.3521,94.0712,-32.3371,
-29.6983,47.0354,-64.6736,-5.5022,-56.8344,71.8344,49.9749,11.4572,184.4119,-21.8591,-79.6741,65.3521,79.3734,-47.3371,
-14.6983,32.0354,-69.0836,-20.5022,-41.8344,56.8344,34.9749,26.4572,169.4119,-6.8591,-64.6741,80.3521,93.5814,-32.3371,
-6.8596,47.0354,-54.0836,-35.5022,-26.8344,41.8344,49.9749,32.3375,154.8262,-6.8596,-49.6741,95.3521,108.5814,-17.3371,
-15.6785,49.9753,-59.7748,-21.5583,-35.2775,56.8344,64.9749,17.3375,169.8262,-18.6184,-64.6741,80.3521,93.5814,-32.3371,
-30.6785,34.9753,-74.7748,-6.5583,-50.2775,71.8344,77.9025,8.3291,184.8262,-24.9881,-79.6741,65.3521,78.5814,-47.3371,
-45.6785,49.9753,-59.7748,8.4417,-47.0358,86.8344,92.9025,-6.6709,199.8262,-39.9881,-94.6741,50.3521,86.232,-62.3371,
-30.6785,38.7063,-51.4448,-6.5583,-32.0358,71.8344,77.9025,8.3291,184.8262,-24.9881,-79.6741,65.3521,101.232,-47.3371,
-23.5172,53.7063,-38.216,-21.5583,-17.0358,56.8344,62.9025,23.3291,169.8262,-9.9881,-64.6741,80.3521,116.232,-32.3371,
-38.5172,38.7063,-53.216,-6.5583,-32.0358,70.0632,77.9025,8.3291,184.8262,-24.9881,-79.6741,65.3521,101.232,-47.3371,
-27.4373,23.7063,-68.216,8.4417,-47.0358,85.0632,92.9025,19.5981,199.8262,-19.5981,-76.4334,71.5327,86.232,-54.8755,
-42.4373,38.7063,-59.285,23.4417,-49.4855,100.0632,107.9025,4.5981,214.8262,-34.5981,-82.8027,56.5327,91.6216,-69.8755,
-27.4373,53.7063,-44.285,8.4417,-34.4855,85.0632,92.9025,19.5981,199.8262,-19.5981,-67.8027,71.5327,106.6216,-54.8755,
-12.4373,68.7063,-29.285,-6.5583,-19.4855,70.0632,77.9025,34.5981,184.8262,-4.5981,-52.8027,86.5327,121.6216,-39.8755,
-27.4373,53.7063,-44.285,8.4417,-34.4855,85.0632,73.4935,19.5981,199.8262,-19.5981,-67.8027,71.5327,106.6216,-54.8755,
-35.2765,38.7063,-59.285,23.4417,-49.4855,100.0632,88.4935,16.6581,214.8262,-27.4373,-82.8027,68.5937,91.6216,-63.6944,
-50.2765,53.7063,-59.2841,38.4417,-52.4245,115.0632,103.4935,1.6581,229.8262,-42.4373,-97.8027,53.5937,80.8433,-78.6944,
-35.2765,68.7063,-44.2841,23.4417,-37.4245,100.0632,88.4935,16.6581,214.8262,-27.4373,-82.8027,68.5937,95.8433,-63.6944,
-20.2765,83.7063,-29.2841,8.4417,-22.4245,85.0632,73.4935,31.6581,199.8262,-12.4373,-67.8027,83.5937,110.8433,-48.6944,
-35.2765,68.7063,-44.2841,23.4417,-37.4245,75.4528,82.3124,16.6581,186.1826,-27.4373,-82.8027,68.5937,95.8433,-63.6944,
-43.1162,53.7063,-59.2841,38.4417,-52.4245,90.4528,97.3124,1.6581,201.1826,-42.4373,-97.0112,53.5937,80.8433,-78.6944,
-58.1162,68.7063,-44.2841,53.4417,-37.4245,105.4528,112.3124,-13.3419,216.1826,-57.4373,-82.0112,38.5937,95.0514,-75.4523,
-43.1162,73.0036,-29.2841,38.4417,-22.4245,90.4528,97.3124,1.6581,201.1826,-42.4373,-67.0112,53.5937,110.0514,-60.4523,
-28.1162,58.0036,-24.0071,23.4417,-7.4245,75.4528,82.3124,16.6581,186.1826,-27.4373,-52.0112,68.5937,125.0514,-45.4523,
-43.1162,43.0036,-39.0071,24.9877,-22.4245,90.4528,67.3124,1.6581,196.472,-42.4373,-67.0112,53.5937,110.0514,-60.4523,
-33.3172,28.0036,-54.0071,39.9877,-37.4245,105.4528,82.3124,16.6581,211.472,-37.2368,-82.0112,64.6741,95.0514,-66.6334,
-48.3172,43.0036,-53.8954,54.9877,-42.1356,120.4528,97.3124,1.6581,224.3991,-52.2368,-97.0112,49.6741,80.0514,-81.6334,
-33.3172,58.0036,-40.6661,39.9877,-27.1356,105.4528,82.3124,16.6581,209.3991,-37.2368,-82.0112,64.6741,95.0514,-66.6334,
-18.3172,43.0036,-51.4453,24.9877,-12.1356,90.4528,67.3124,31.6581,194.3991,-22.2368,-67.0112,79.6741,108.2797,-51.6334,
-33.3172,28.4179,-66.4453,37.2368,-27.1356,88.1918,52.3124,16.6581,179.3991,-37.2368,-82.0112,64.6741,93.2797,-66.6334,
-18.3172,13.4179,-81.4453,22.2368,-36.7465,73.1918,67.3124,31.6581,175.8942,-22.2368,-77.9029,79.6741,78.2797,-51.6334,
-33.3172,28.4179,-66.4453,17.6383,-26.4572,76.4325,82.3124,16.6581,190.8942,-37.2368,-73.4935,64.6741,73.4935,-66.6334,
-18.3172,43.4179,-51.4453,2.6383,-11.4572,61.4325,75.9431,31.6581,175.8942,-22.2368,-58.4935,79.6741,88.4935,-51.6334,
-19.5981,28.4179,-65.6542,-12.3617,-24.4983,46.4325,60.9431,41.1564,160.8942,-7.2368,-52.9153,89.1715,92.1114,-36.6334,
-34.5981,43.4179,-68.1039,2.6383,-39.4983,61.4325,70.0642,26.1564,175.8942,-22.2368,-67.9153,74.1715,77.1114,-51.6334,
-19.5981,28.4179,-77.4131,-12.3617,-24.4983,46.4325,55.0642,41.1564,160.8942,-7.2368,-55.8552,89.1715,62.7143,-36.6334,
-24.9872,43.4179,-62.4131,-27.3617,-9.4983,31.4325,70.0642,30.8671,145.8942,-16.1683,-40.8552,89.6622,77.7143,-25.9678,
-22.5376,58.4179,-49.9758,-23.5182,-24.4978,46.4325,81.3327,19.5985,159.725,-19.5985,-55.8552,77.4131,79.3724,-40.1763,
-37.5376,43.4179,-64.9758,-8.5182,-39.4978,61.4325,66.3327,16.1688,174.725,-22.0477,-70.0637,70.0637,64.3724,-52.425,
-52.5376,37.2368,-72.5133,6.4818,-50.955,76.4325,81.3327,1.1688,189.725,-37.0477,-82.3119,55.0637,57.8145,-67.425,
-37.5376,51.9347,-57.5133,-8.5182,-35.955,61.4325,66.3327,16.1688,174.725,-22.0477,-67.3119,70.0637,72.8145,-52.425,
-29.8869,66.9347,-42.5133,-23.5182,-20.955,46.4325,51.3327,30.8675,159.725,-7.0477,-52.3119,85.0637,87.8145,-37.425,
-44.8869,51.9347,-57.5133,-8.5182,-35.955,55.3649,60.2642,15.8675,174.725,-22.0477,-67.3119,70.0637,72.8145,-52.425,
-37.2368,36.9347,-72.5133,6.4818,-50.955,70.3649,75.2642,19.5981,189.725,-27.4373,-69.5739,67.6131,57.8145,-58.7952,
-52.2368,51.9347,-59.7744,21.4818,-56.8344,85.3649,90.2642,4.5981,204.725,-42.4373,-78.3928,52.6131,49.9758,-73.7952,
-37.2368,63.6944,-44.7744,6.4818,-41.8344,70.3649,75.2642,19.5981,189.725,-27.4373,-63.3928,67.6131,64.9758,-58.7952,
-22.2368,78.6944,-29.7744,-8.5182,-26.8344,55.3649,60.2642,34.5981,174.725,-12.4373,-48.3928,82.6131,79.9758,-43.7952,
-37.2368,63.6944,-44.7744,6.4818,-41.8344,69.5734,56.8349,19.5981,189.725,-27.4373,-63.3928,67.6131,64.9758,-58.7952,
-22.2368,48.6944,-59.7744,21.4818,-56.8344,84.5734,71.8349,17.1484,204.725,-27.9267,-78.3928,70.0637,49.9758,-65.1635,
-37.2368,51.9356,-48.9956,36.4818,-52.9153,99.5734,86.8349,2.1484,219.725,-42.9267,-87.2121,55.0637,49.9753,-80.1635,
-22.2368,58.3039,-33.9956,21.4818,-37.9153,84.5734,71.8349,17.1484,204.725,-27.9267,-72.2121,70.0637,64.9753,-65.1635,
-7.2368,70.5531,-18.9956,6.4818,-22.9153,69.5734,56.8349,32.1484,189.725,-12.9267,-57.2121,85.0637,79.9753,-50.1635,
-22.2368,55.5531,-33.9956,21.4818,-37.9153,54.5734,58.7947,17.1484,187.1623,-27.9267,-72.2121,70.0637,64.9753,-65.1635,
-28.417,40.5531,-48.9956,36.4818,-52.9153,69.5734,73.7947,22.538,202.1623,-22.538,-62.7143,65.6538,49.9753,-61.7342,
-43.417,47.0354,-53.8949,51.4818,-57.8145,84.5734,88.7947,7.538,217.1623,-37.538,-69.5734,50.6538,53.8949,-76.7342,
-28.417,62.0354,-38.8949,36.4818,-42.8145,69.5734,73.7947,22.538,202.1623,-22.538,-54.5734,65.6538,68.8949,-61.7342,
-13.417,61.7337,-23.8949,21.4818,-27.8145,54.5734,58.7947,37.538,187.1623,-7.538,-39.5734,80.6538,83.8949,-46.7342,
-28.417,47.0358,-38.8949,36.4818,-42.8145,69.5734,69.5739,22.538,172.1623,-22.538,-54.5734,65.6538,68.8949,-61.7342,
-34.2969,32.0358,-53.8949,51.4818,-57.8145,84.5734,84.5739,16.6581,187.1623,-25.478,-69.5734,55.8552,53.8949,-71.5337,
-49.2969,47.0358,-48.5053,66.4818,-45.5663,99.5734,99.5739,1.6581,202.1623,-40.478,-72.023,40.8552,44.5857,-83.7828,
-34.2969,57.3252,-33.5053,51.4818,-30.5663,84.5734,84.5739,16.6581,187.1623,-25.478,-57.023,55.8552,59.5857,-68.7828,
-19.2969,42.3252,-20.5777,36.4818,-15.5663,69.5734,69.5739,31.6581,172.1623,-10.478,-42.023,70.8552,74.5857,-53.7828,
-34.2969,33.3167,-35.5777,51.4818,-30.5663,84.5734,54.5739,16.6581,170.5042,-25.478,-57.023,55.8552,59.5857,-68.7828,
-19.2969,18.3167,-50.5777,36.4818,-45.5663,69.5734,69.5739,22.5385,158.7453,-17.6383,-71.5332,68.5942,44.5857,-61.7342,
-34.2969,33.3167,-40.6661,21.4818,-40.6661,54.5734,84.5739,7.5385,173.7453,-32.6383,-62.2235,53.5942,51.4453,-75.9426,
-19.2969,48.3167,-39.1966,6.4818,-25.6661,39.5734,69.5739,22.5385,158.7453,-17.6383,-47.2235,68.5942,66.4453,-60.9426,
-21.068,33.3167,-44.5857,-8.5182,-10.6661,24.5734,54.5739,33.8066,143.7453,-2.6383,-32.2235,83.5942,72.023,-45.9426,
-36.068,35.7664,-39.686,6.4818,-25.6661,39.5734,69.5739,18.8066,158.7453,-17.6383,-47.2235,68.5942,57.023,-60.9426,
-21.068,20.7664,-54.686,-8.5182,-26.947,24.5734,54.5739,33.8066,143.7453,-2.6383,-41.6463,83.5942,42.023,-45.9426,
-31.3569,35.7664,-39.686,-23.5182,-11.947,9.5734,69.5739,21.5583,154.8262,-0.97967,-26.6463,80.3526,57.023,-30.9426,
-26.947,33.8075,-39.6864,-20.0884,-26.947,13.2288,64.1838,25.9673,139.8262,-13.2288,-34.7862,68.1044,62.2245,-42.6255,
-33.807,18.8075,-54.6864,-5.0884,-41.947,28.2288,49.1838,24.0075,154.8262,-24.0075,-49.4855,69.0836,47.2245,-57.6255,
-48.807,17.6387,-58.7942,9.9116,-38.2165,43.2288,64.1838,9.0075,169.8262,-39.0075,-61.7342,54.0836,45.076,-71.5337,
-33.807,3.4293,-43.7942,-5.0884,-23.2165,28.2288,49.1838,24.0075,154.8262,-24.0075,-46.7342,69.0836,60.076,-56.5337,
-23.5172,18.4293,-28.7942,-20.0884,-8.2165,13.2288,34.1838,26.4581,139.8262,-9.0075,-31.7342,81.3327,75.076,-41.5337,
-28.9077,11.269,-43.7942,-11.269,-23.2165,28.2288,49.1838,12.2487,154.8262,-21.0685,-38.7063,66.3327,60.076,-52.4254,
-40.6666,-3.731,-58.7942,3.731,-38.2165,43.2288,64.1838,12.2487,169.8262,-12.2487,-50.4652,58.3044,45.076,-58.3044,
-55.6666,11.269,-43.7942,18.731,-32.3371,58.2288,79.1838,-2.7513,184.8262,-27.2487,-60.754,43.3044,60.076,-73.3044,
-40.6666,26.269,-28.7942,3.731,-17.3371,43.2288,64.1838,12.2487,169.8262,-12.2487,-45.754,58.3044,75.076,-58.3044,
-25.6666,41.269,-13.7942,-11.269,-2.3371,28.2288,49.1838,27.2487,154.8262,0.48983,-30.754,73.3044,90.076,-43.3044,
-40.6666,26.269,-28.7942,3.731,-17.3371,43.2288,49.4855,12.2487,169.8262,-14.5102,-45.754,58.3044,75.076,-58.3044,
-35.277,11.269,-43.7942,18.731,-32.3371,58.2288,64.4855,22.5385,184.8262,-21.5579,-57.8141,63.694,60.076,-51.9351,
-50.277,26.269,-38.7058,33.731,-44.5857,73.2288,79.4855,7.5385,199.8262,-36.5579,-60.2642,48.694,45.076,-66.9351,
-35.277,29.8879,-31.8468,18.731,-29.5857,58.2288,64.4855,22.5385,184.8262,-21.5579,-45.2642,63.694,60.076,-51.9351,
-20.277,44.5853,-16.8468,3.731,-14.5857,43.2288,49.4855,37.5385,169.8262,-6.5579,-30.2642,78.694,75.076,-36.9351,
-35.277,29.5853,-31.8468,18.731,-29.5857,48.016,57.8155,22.5385,184.8262,-21.5579,-45.2642,63.694,60.076,-51.9351,
-27.4378,14.5853,-46.8468,33.731,-44.5857,63.016,72.8155,16.6586,199.8262,-16.6586,-56.8353,61.7337,45.076,-55.8547,
-42.4378,29.5853,-31.8468,48.731,-29.5857,78.016,87.8155,1.6586,214.8262,-31.6586,-46.5455,46.7337,47.5261,-70.8547,
-27.4378,44.5853,-16.8468,33.731,-14.5857,63.016,72.8155,16.6586,199.8262,-16.6586,-31.5455,61.7337,58.7942,-55.8547,
-12.4378,42.6259,-1.8468,18.731,0.41427,48.016,57.8155,31.6586,184.8262,-1.6586,-16.5455,76.7337,68.1039,-40.8547,
-27.4378,37.2368,-16.8468,33.731,-14.5857,63.016,42.8155,16.6586,169.8262,-16.6586,-31.5455,61.7337,53.1039,-55.8547,
-22.0477,22.2368,-31.8468,48.731,-29.5857,78.016,57.8155,16.1688,184.8262,-16.1688,-46.5455,53.4056,38.1039,-58.3049,
-37.0477,27.4378,-20.5782,63.731,-14.6983,93.016,72.8155,1.1688,199.8262,-31.1688,-43.1162,38.4056,53.1039,-73.3049,
-22.0477,33.807,-12.2496,48.731,0.30168,78.016,57.8155,16.1688,184.8262,-16.1688,-28.1162,53.4056,68.103,-58.3049,
-7.0477,25.9678,-0.48983,33.731,11.269,63.016,42.8155,31.1688,169.8262,-1.1688,-13.1162,68.4056,77.9025,-43.3049,
-22.0477,24.9881,-15.4898,48.731,-3.731,78.016,38.7063,16.1688,154.8262,-16.1688,-28.1162,53.4056,62.9025,-58.3049,
-15.6785,9.9881,-30.4898,52.9153,-18.731,68.5937,53.7063,24.4974,163.6451,-7.8392,-43.1162,52.9153,47.9025,-52.9153,
-30.6785,24.9881,-15.6785,67.9153,-29.3966,82.3128,68.7063,9.4974,178.6451,-22.8392,-49.9753,37.9153,38.2165,-67.9153,
-15.6785,39.9881,-4.8993,52.9153,-14.3966,67.3128,53.7063,24.4974,163.6451,-7.8392,-34.9753,52.9153,53.2165,-52.9153,
-0.67846,24.9881,-15.1882,37.9153,-4.4099,52.3128,38.7063,33.8066,148.6451,4.4099,-19.9753,67.9153,53.4046,-37.9153,
-15.6785,39.9881,-21.068,52.9153,-19.4099,67.3128,33.8066,18.8066,163.6451,-10.5901,-34.9753,52.9153,38.4046,-52.9153,
-0.67846,24.9881,-36.068,37.9153,-22.5376,52.3128,18.8066,33.8066,148.6451,4.4099,-21.5579,67.9153,32.3371,-37.9153,
-15.6785,39.9881,-21.068,22.9153,-7.5376,37.3128,33.8066,18.8066,133.6451,-10.5901,-16.1688,58.3049,47.3371,-39.6864,
-9.3097,46.5455,-12.2487,7.9153,-5.3901,22.3128,37.7266,33.8066,118.6451,-1.4695,-27.9271,71.0429,51.4448,-29.8874,
-24.3097,31.5455,-27.2487,22.9153,-20.3901,37.3128,22.7266,21.5583,133.6451,-13.7191,-38.2165,58.7942,40.1758,-44.8874,
-39.3097,41.6467,-23.0274,37.9153,-22.0477,52.3128,37.7266,6.5583,148.6451,-28.7191,-44.5857,43.7942,55.1758,-59.8874,
-24.3097,26.6467,-24.9877,22.9153,-7.0477,37.3128,22.7266,21.5583,133.6451,-13.7191,-29.5857,58.7942,70.1758,-44.8874,
-39.3097,41.6467,-9.9877,7.9153,1.47,22.3128,24.9877,8.3295,118.6451,-17.1484,-20.0884,52.425,82.8022,-41.6458,
-35.7668,26.6467,-24.9877,22.9153,-13.53,37.3128,39.9877,-6.6705,133.6451,-32.1484,-35.0884,37.425,67.8022,-56.6458,
-20.7668,11.6467,-39.9877,37.9153,-28.53,52.3128,54.9877,8.3295,148.6451,-17.1484,-45.0751,52.425,52.8022,-56.8339,
-35.7668,21.5583,-24.9877,52.9153,-18.6184,67.3128,69.9877,-6.6705,163.6451,-32.1484,-57.8145,37.425,58.7942,-71.8339,
-20.7668,6.5583,-11.269,37.9153,-3.6184,52.3128,54.9877,8.3295,148.6451,-17.1484,-42.8145,52.425,73.7942,-56.8339,
-17.6387,21.5583,3.731,22.9153,11.3816,37.3128,39.9877,23.3295,133.6451,-2.1484,-27.8145,67.425,88.7942,-41.8339,
-32.6387,7.8392,-11.269,37.9153,-3.6184,52.3128,54.9877,8.3295,148.6451,-17.1484,-42.8145,52.425,73.7942,-56.8339,
-34.2973,-7.1608,-26.269,52.9153,-18.6184,67.3128,69.9877,12.739,163.6451,-12.739,-50.9555,51.9351,58.7942,-52.9157,
-49.2973,7.8392,-20.5777,67.9153,-21.5583,82.3128,84.9877,-2.261,178.6451,-27.739,-42.1361,36.9351,72.5133,-64.6741,
-34.2973,22.8392,-20.5777,52.9153,-6.5583,67.3128,69.9877,12.739,163.6451,-12.739,-27.1361,51.9351,87.5133,-49.6741,
-19.2973,35.7664,-5.5777,37.9153,8.4417,52.3128,54.9877,27.739,148.6451,2.261,-12.1361,66.9351,102.5133,-34.6741,
-34.2973,20.7664,-20.5777,52.9153,-6.5583,67.3128,64.1843,12.739,163.6451,-12.739,-27.1361,51.9351,87.5133,-49.6741,
-19.2973,5.7664,-35.5777,67.9153,-21.5583,82.3128,79.1843,15.1886,178.6451,-15.1886,-42.1361,42.6259,72.5133,-61.2443,
-34.2973,20.7664,-20.5777,82.9153,-15.1886,97.3128,94.1843,0.18862,193.6451,-30.1886,-49.4855,27.6259,74.9634,-76.2443,
-19.2973,16.1678,-6.3693,67.9153,-0.18862,82.3128,79.1843,15.1886,178.6451,-15.1886,-34.4855,42.6259,87.7015,-61.2443,
-4.2973,24.4974,8.6307,52.9153,14.8114,67.3128,64.1843,23.5177,163.6451,-0.97967,-19.4855,57.6259,102.7015,-46.2443,
-19.2973,14.209,-6.3693,67.9153,-0.18862,66.1436,79.1843,8.5177,148.6451,-15.9797,-34.4855,42.6259,87.7015,-61.2443,
-4.2973,-0.79105,-21.3693,82.9153,-15.1886,81.1436,94.1843,3.9196,163.6451,-22.538,-48.9956,38.2165,72.7015,-65.6538,
-19.2973,14.209,-26.4572,97.9153,-9.799,96.1436,109.1843,-11.0804,178.6451,-37.538,-45.0756,23.2165,74.4731,-78.3928,
-4.2973,13.2293,-12.2487,82.9153,5.201,81.1436,94.1843,3.9196,163.6451,-22.538,-30.0756,38.2165,89.4731,-63.3928,
0.48983,-1.7707,-0.48983,67.9153,12.2487,66.1436,79.1843,18.9196,148.6451,-7.538,-15.0756,53.2165,104.4731,-48.3928,
-14.5102,13.2293,-15.4898,82.9153,-2.7513,81.1436,64.1843,3.9196,141.1071,-22.538,-30.0756,38.2165,89.4731,-63.3928,
-11.269,-1.7707,-30.4898,97.9153,-17.7513,96.1436,79.1843,11.269,156.1071,-12.2487,-45.0756,41.6463,74.4731,-66.1436,
-26.269,11.7588,-20.5787,83.2925,-11.7588,94.0707,94.1843,-3.731,171.1071,-27.2487,-30.0756,26.6463,85.2519,-68.5937,
-11.269,13.7182,-13.7191,68.2925,3.2412,79.0707,79.1843,11.269,156.1071,-12.2487,-15.0756,41.6463,93.0911,-53.5937,
3.731,4.4095,-8.3291,53.2925,4.4095,64.0707,64.1843,26.269,141.1071,2.7513,-11.269,56.6463,89.6622,-38.5937,
-11.269,19.4095,-15.1886,68.2925,-10.5905,79.0707,49.4855,11.269,126.1071,-12.2487,-26.269,41.6463,74.6622,-53.5937,
3.731,4.4095,-30.1886,53.2925,-23.0283,64.0707,34.4855,26.269,111.1071,2.4496,-24.008,56.6463,59.6622,-40.6661,
-11.269,19.4095,-15.1886,38.2925,-15.1886,49.0707,49.4855,11.269,121.0182,-12.5504,-35.7673,41.6463,74.6622,-55.6661,
1.47,22.0486,-13.2288,23.2925,-7.3489,34.0707,53.4056,16.1688,106.0182,-19.1078,-35.7668,38.7068,69.084,-52.425,
-7.8392,7.0486,-28.2288,38.2925,-14.6988,40.1767,38.4056,19.5981,91.0182,-16.6581,-35.2765,44.0964,63.6944,-51.9347,
-22.8392,22.0486,-13.2288,53.2925,-5.8794,55.1767,53.4056,4.5981,106.0182,-31.6581,-44.0959,29.0964,78.6944,-66.633,
-7.8392,16.1688,-18.1281,38.2925,8.3295,40.1767,38.4056,19.5981,91.0182,-16.6581,-29.0959,44.0964,82.8022,-51.633,
-22.8392,31.1688,-3.1281,23.2925,4.4099,25.1767,23.4056,4.5981,76.0182,-21.068,-14.2085,35.7668,87.7024,-45.5654,
-17.148,16.1688,-18.1281,24.0085,-10.5901,35.7673,38.4056,0.48983,91.0182,-30.8671,-29.2085,28.9077,72.7024,-56.3441,
-9.799,1.1688,-33.1281,39.0085,-25.5901,50.7673,53.4056,9.799,106.0182,-15.8671,-41.1569,43.9077,57.7024,-56.8353,
-24.799,16.1688,-18.1281,54.0085,-14.2085,65.7673,68.4056,-5.201,121.0182,-30.8671,-41.6458,28.9077,69.084,-64.1838,
-9.799,12.2487,-18.1286,39.0085,-0.48984,50.7673,53.4056,9.799,106.0182,-15.8671,-26.6458,43.9077,68.1039,-49.1838,
-17.1484,19.1078,-3.1286,24.0085,-0.4903,35.7673,38.4056,15.1882,91.0182,-0.86708,-11.6458,49.485,83.1039,-34.1838,
-19.1078,4.1078,-18.1286,39.0085,-15.4903,50.7673,43.6061,0.18816,106.0182,-15.8671,-26.6458,34.485,68.1039,-49.1838,
-14.209,-10.8922,-33.1286,54.0085,-30.4903,65.7673,58.6061,14.209,121.0182,-14.209,-40.6666,43.6056,53.1039,-52.4254,
-29.209,4.1078,-18.1286,69.0085,-20.0884,80.7673,73.6061,-0.79105,136.0182,-29.209,-28.9073,28.6056,68.1039,-65.1635,
-14.209,8.3291,-16.1683,54.0085,-5.0884,65.7673,58.6061,14.209,121.0182,-14.209,-13.9073,43.6056,76.9228,-50.1635,
-6.3693,23.3291,-1.1683,39.0085,6.3693,50.7673,43.6061,24.008,106.0182,-2.4496,1.0927,51.4453,91.9228,-35.1635,
-21.3693,25.478,-16.1683,54.0085,-8.6307,65.7673,39.1961,9.008,121.0182,-17.4496,-13.9073,36.4453,76.9228,-50.1635,
-17.6383,10.478,-31.1683,69.0085,-23.6307,80.7673,54.1961,12.739,136.0182,-12.739,-28.9073,33.3167,61.9228,-58.7947,
-32.6383,25.478,-16.1683,84.0085,-8.6307,95.7673,69.1961,-2.261,151.0182,-27.739,-37.7266,18.3167,73.9838,-71.0429,
-17.6383,17.6383,-8.8194,69.0085,6.3693,80.7673,54.1961,12.739,136.0182,-12.739,-22.7266,33.3167,78.3928,-56.0429,
-2.6383,32.6383,5.3896,54.0085,11.2695,65.7673,39.1961,25.9673,121.0182,-0.4903,-7.7266,48.3167,93.3928,-41.0429,
-17.6383,47.5261,-9.3087,69.0085,-3.7305,80.7673,45.5659,10.9673,136.0182,-15.4903,-22.7266,33.3167,78.3928,-56.0429,
-11.7588,32.5261,-24.3087,84.0085,-18.7305,95.7673,60.5659,11.7588,151.0182,-18.6184,-37.7266,32.3375,63.3928,-62.7138,
-26.7588,35.7664,-9.3087,99.0085,-15.1886,110.7673,75.5659,-3.2412,166.0182,-33.6184,-43.6065,17.3375,70.0632,-71.0438,
-11.7588,20.7664,-4.4099,84.0085,-0.18862,95.7673,60.5659,11.7588,151.0182,-18.6184,-28.6065,32.3375,84.7625,-56.0438,
-1.9598,5.7664,-0.98014,69.0085,3.9191,80.7673,45.5659,26.7588,136.0182,-3.6184,-13.6065,47.3375,95.0509,-41.0438,
-16.9598,20.7664,-15.1886,84.0085,-10.2893,95.7673,30.5659,11.7588,128.8584,-18.6184,-28.6065,32.3375,80.0509,-48.5058,
-17.1484,5.7664,-30.1886,99.0085,-25.2893,110.7673,45.5659,10.2889,143.8584,-10.2889,-43.6065,33.8066,65.0509,-43.6061,
-32.1484,20.7664,-15.1886,114.0085,-16.6581,125.7673,60.5659,-4.7111,158.8584,-25.2889,-31.3569,18.8066,71.5337,-50.955,
-17.1484,24.4983,-8.8189,99.0085,-1.6581,110.7673,45.5659,10.2889,143.8584,-10.2889,-16.3569,33.8066,86.5337,-35.955,
-2.1484,9.4983,-16.6586,84.0085,6.8591,95.7673,30.5659,25.2889,128.8584,4.7111,-1.3569,48.8066,101.5337,-20.955,
-17.1484,20.5777,-19.5981,99.0085,-8.1409,110.7673,30.3772,10.2889,123.4683,-10.2889,-16.3569,33.8066,86.5337,-35.955,
-3.4293,5.5777,-34.5981,84.0085,-23.1409,95.7673,15.3772,11.2685,108.4683,-11.2685,-31.3569,46.546,71.5337,-49.485,
-18.4293,2.9395,-19.5981,69.0085,-8.1409,80.7673,30.3772,-3.7315,110.7303,-26.2685,-21.5579,31.546,75.4528,-49.9749,
-3.4293,3.9196,-10.7792,54.0085,-3.9196,65.7673,15.3772,11.2685,95.7303,-16.6581,-25.478,31.3569,65.6538,-34.9749,
3.4298,-11.0804,-12.2487,51.4448,-3.4298,50.7673,0.37725,26.2685,80.7303,-8.3291,-12.2487,46.3569,62.224,-30.8671,
-11.5702,3.9196,-0.48983,66.4448,-12.2487,65.7673,15.3772,11.2685,95.7303,-23.3291,-27.2487,31.3569,52.4254,-45.8671,
3.4298,2.4496,-7.3489,51.4448,2.7513,50.7673,0.37725,26.2685,80.7303,-8.3291,-12.2487,46.3569,67.4254,-30.8671,
-11.5702,17.4496,3.4298,36.4448,3.4298,35.7673,15.3772,11.2685,65.7303,-23.3291,-20.0879,31.3569,82.4254,-45.8671,
-20.0884,11.2685,-11.5702,36.7465,-11.5702,20.7673,30.3772,-3.7315,56.3446,-34.7872,-35.0879,16.3569,67.4254,-60.8671,
-8.8194,-3.7315,-25.4775,51.7465,-26.4572,35.7673,45.0756,8.8194,71.3446,-19.7872,-25.4775,31.3569,52.4254,-56.8344,
-23.8194,11.2685,-10.4775,66.7465,-11.4572,50.7673,60.0756,-6.1806,86.3446,-34.7872,-33.8066,16.3569,62.2245,-71.8344,
-8.8194,-1.9598,-10.7787,51.7465,3.5428,35.7673,45.0756,8.8194,71.3446,-19.7872,-18.8066,31.3569,59.7753,-56.8344,
-4.8998,13.0402,4.2213,36.7465,13.7187,20.7673,30.0756,9.799,56.3446,-16.6586,-3.8066,33.3167,74.7753,-41.8344,
-16.1688,9.3092,-9.3092,51.7465,-1.2813,35.7673,25.9673,-5.201,71.3446,-31.6586,-18.8066,18.3167,59.7753,-56.8344,
-14.209,-5.6908,-24.3092,66.7465,-16.2813,50.7673,40.9673,9.799,86.3446,-16.6586,-24.0075,31.8468,44.7753,-48.5058,
-29.209,9.3092,-9.3092,81.7465,-12.2491,65.7673,55.9673,-5.201,101.3446,-31.6586,-9.0075,16.8468,59.7753,-45.5663,
-14.209,-5.6908,-17.1484,66.7465,2.7509,50.7673,40.9673,9.799,86.3446,-16.6586,5.9925,31.8468,74.7753,-30.5663,
-13.7187,9.3092,-2.1484,51.7465,12.739,35.7673,25.9673,12.739,71.3446,-1.6586,11.7584,46.0552,89.7753,-28.4174,
-28.7187,16.1678,-17.1484,66.7465,-2.261,50.7673,19.1078,-2.261,86.3446,-16.6586,-3.2416,31.0552,74.7753,-43.4174,
-13.7187,1.1678,-32.1484,81.7465,-17.261,65.7673,34.1078,9.799,101.3446,-9.799,-16.6577,33.3177,59.7753,-41.156,
-28.7187,9.3092,-17.1484,96.7465,-10.2889,80.7673,49.1078,-5.201,116.3446,-24.799,-12.2491,18.3177,72.023,-56.156,
-13.7187,-5.6908,-9.3092,81.7465,4.7111,65.7673,34.1078,9.799,101.3446,-9.799,2.7509,33.3177,71.0434,-41.156,
1.2813,-1.47,4.409,66.7465,11.2685,50.7673,19.1078,20.0884,86.3446,-1.47,15.1882,48.3177,73.9833,-28.9073,
-13.7187,7.3494,-7.3494,81.7465,-3.7315,65.7673,23.0279,5.0884,101.3446,-16.47,0.18816,33.3177,58.9833,-43.9073,
-3.4298,-7.6506,-22.3494,96.7465,-18.7315,80.7673,38.0279,3.4298,116.3446,-17.1489,-14.8118,25.9678,43.9833,-58.3044,
-18.4298,4.4095,-11.269,111.7465,-3.7315,95.7673,53.0279,-11.5702,131.3446,-32.1489,-23.0279,10.9678,58.9833,-69.0836,
-3.4298,-4.8993,-7.8392,96.7465,9.7986,80.7673,38.0279,3.4298,116.3446,-17.1489,-8.0279,25.9678,64.6741,-54.0836,
4.4099,-15.1882,2.4496,81.7465,8.3295,65.7673,23.0279,14.2085,101.3446,-2.1489,0.4903,40.9678,73.0036,-39.0836,
-10.5901,-0.18816,0,96.7465,0,80.7673,38.0279,-0.79151,94.0717,-17.1489,-14.5097,25.9678,59.7748,-54.0836,
-1.47,-15.1882,-15,111.7465,-15,95.7673,53.0279,1.47,109.0717,-21.068,-29.5097,26.9479,44.7748,-58.3039,
-16.47,-0.18816,-5.8794,126.7465,-11.7593,110.7673,68.0279,-13.53,124.0717,-36.068,-15.6789,16.6586,59.7748,-55.8547,
-1.47,-0.48983,-9.3097,111.7465,3.2407,95.7673,53.0279,1.47,109.0717,-21.068,-0.67892,31.6586,67.1233,-40.8547,
4.8993,-15.4898,-2.9399,96.7465,5.879,80.7673,38.0279,16.47,94.0717,-6.068,5.879,46.6586,73.493,-33.3172,
-10.1007,-0.48983,-0.97967,111.7465,-9.121,95.7673,37.2368,1.47,97.0116,-21.068,-9.121,31.6586,59.7748,-48.3172,
-4.4099,-15.4898,-15.9797,96.7465,-24.121,80.7673,35.7668,4.4099,82.0116,-18.1281,-24.121,29.8869,44.7748,-59.2845,
-19.4099,-0.48983,-8.3286,88.6821,-9.121,73.0036,50.7668,-10.5901,97.0116,-33.1281,-31.8472,14.8869,56.3455,-67.1237,
-4.4099,12.2487,-8.3291,73.6821,4.4094,58.0036,35.7668,4.4099,82.0116,-18.1281,-16.8472,28.9077,54.3848,-52.1237,
9.3097,-2.7513,-21.0676,58.6821,-2.4492,43.0036,20.7668,17.1489,67.0116,-4.4094,-1.8472,43.9077,52.4254,-37.1237,
-5.6903,12.2487,-6.0676,73.6821,-2.4501,58.0036,35.7668,2.1489,82.0116,-19.4094,-16.8472,28.9077,51.4448,-52.1237,
9.3097,-2.7513,-2.9399,58.6821,12.5499,43.0036,20.7668,17.1489,67.0116,-4.4094,-1.8472,43.9077,62.7148,-37.1237,
-5.6903,12.2487,12.0601,43.6821,15.6789,28.0036,35.7668,2.1489,52.0116,-19.4094,-8.8194,28.9077,62.7143,-52.1237,
-5.3896,1.47,-2.9399,39.6864,0.67892,14.2085,50.7668,-4.4099,44.5857,-33.8066,-23.8194,18.1281,47.7143,-59.2845,
-2.9399,-13.53,-17.9399,54.6864,-0.97967,29.2085,61.7342,0.97967,59.5857,-21.5583,-28.417,31.3569,38.2165,-51.9356,
-17.9399,-6.8596,-2.9399,69.6864,4.8993,44.2085,76.7342,-14.0203,74.5857,-36.5583,-33.3172,16.3569,53.2165,-63.6944,
-2.9399,-21.8596,-4.4094,54.6864,16.1692,29.2085,61.7342,0.97967,59.5857,-21.5583,-18.3172,31.3569,66.1445,-48.6944,
-17.1484,-6.8596,10.5906,39.6864,20.0884,14.2085,46.7342,2.4496,44.5857,-19.1078,-3.3172,39.6864,77.9029,-38.7068,
-7.3494,-21.8596,-0.48983,54.6864,5.0884,29.2085,61.7342,-12.2487,59.5857,-28.9077,-18.3172,24.6864,62.9029,-47.5261,
3.4298,-36.8596,-15.4898,69.6864,-9.9116,44.2085,76.7342,-3.4298,74.5857,-13.9077,-24.0075,31.8468,47.9029,-49.4855,
-11.5702,-21.8596,-0.48983,84.6864,-1.9598,59.2085,91.7342,-18.4298,89.5857,-28.9077,-22.5385,16.8468,62.9029,-64.4855,
3.4298,-24.4978,-5.8794,69.6864,13.0402,44.2085,76.7342,-3.4298,74.5857,-13.9077,-7.5385,31.8468,62.7143,-49.4855,
2.9399,-9.4978,9.1206,54.6864,19.5981,29.2085,61.7342,11.5702,59.5857,-6.8596,6.8596,46.8468,68.5937,-34.4855,
-12.0601,-1.47,1.47,69.6864,4.5981,44.2085,56.3446,-3.4298,74.5857,-21.8596,-8.1404,31.8468,53.5937,-49.4855,
-4.4094,-16.47,-13.53,84.6864,-10.4019,59.2085,71.3446,4.4094,89.5857,-23.0279,-23.1404,39.6869,38.5937,-50.4652,
-19.4094,-1.47,0.4903,99.6864,-4.4099,74.2085,86.3446,-10.5906,104.5857,-38.0279,-24.008,24.6869,53.5937,-60.2642,
-4.4094,-16.47,-9.7986,84.6864,10.5901,59.2085,71.3446,4.4094,89.5857,-23.0279,-9.008,39.6869,68.5937,-45.2642,
-3.4298,-15.1886,4.4094,69.6864,19.1082,44.2085,56.3446,19.4094,74.5857,-8.0279,5.992,54.6869,83.5937,-30.2642,
-14.2085,-11.2695,-4.4099,84.6864,4.1082,59.2085,47.5257,4.4094,89.5857,-16.1688,2.4496,39.6869,71.0434,-41.6467,
-1.47,-26.2695,-19.4099,99.6864,-10.8918,74.2085,62.5257,1.47,104.5857,-9.3092,-12.5504,37.7271,56.0434,-49.485,
-16.47,-11.2695,-4.4099,114.6864,2.4492,89.2085,77.5257,-13.53,119.5857,-24.3092,-19.1082,22.7271,57.3247,-62.224,
-1.47,-13.2283,-2.4501,99.6864,17.4492,74.2085,62.5257,1.47,104.5857,-9.3092,-4.1082,37.7271,70.0632,-47.224,
5.8794,-21.5579,1.9598,84.6864,8.8194,59.2085,47.5257,15.6789,89.5857,-1.9598,7.8397,49.9758,78.3928,-34.2964,
-9.1206,-6.5579,4.8993,99.6864,-4.8993,74.2085,55.8552,0.67892,74.5857,-16.9598,-7.1603,34.9758,63.3928,-49.2964,
-2.4496,-21.5579,-10.1007,114.6864,-15.1882,89.2085,70.8552,2.4496,89.5857,-22.0477,-22.1603,25.9683,48.3928,-51.4453,
-17.4496,-6.5579,-16.1688,129.6864,-5.3896,104.2085,85.8552,-12.5504,104.5857,-37.0477,-22.0477,10.9683,61.2448,-56.3446,
-2.4496,3.4298,-7.3494,114.6864,2.4501,89.2085,70.8552,2.4496,89.5857,-22.0477,-7.0477,25.9683,61.2443,-41.3446,
6.3697,-11.5702,2.4501,99.6864,11.269,74.2085,55.8552,16.1683,74.5857,-7.0477,7.3494,40.9683,65.1639,-27.9271,
-8.6303,3.4298,-4.8993,114.6864,-1.9603,89.2085,40.8552,1.1683,76.433,-22.0477,-7.6506,25.9683,50.1639,-42.9271,
-8.3295,-11.5702,-19.8993,99.6864,-16.9603,74.2085,37.7262,8.3295,61.433,-23.0274,-22.6506,36.7465,35.1639,-48.5053,
-23.3295,0,-4.8993,84.6864,-11.7588,80.3526,52.7262,-6.6705,76.433,-38.0274,-18.6184,21.7465,45.076,-57.8145,
-8.3295,6.3693,-6.3693,69.6864,3.2412,65.3526,37.7262,8.3295,61.433,-23.0274,-3.6184,36.7465,46.546,-42.8145,
-0.98014,-8.6307,-20.5782,54.6864,0.98014,50.3526,22.7262,9.799,46.433,-9.799,0.98014,47.0358,34.2964,-31.3574,
-15.9801,6.3693,-5.5782,69.6864,-5.3891,65.3526,37.7262,-5.201,61.433,-24.799,-14.0199,32.0358,28.9077,-46.3574,
-0.98014,-8.6307,-6.8596,54.6864,3.9196,50.3526,22.7262,9.799,46.433,-9.799,0.98014,47.0358,41.1564,-31.3574,
-15.9801,-9.3092,8.1404,39.6864,-0.4903,35.3526,37.7262,-5.201,49.485,-24.799,1.47,32.0358,45.5654,-46.3574,
-9.799,-16.6586,4.8998,39.1966,-4.8998,38.2169,52.7262,-4.8998,35.277,-21.5579,-11.7584,21.5579,30.5654,-47.0358,
-9.3092,-31.6586,-6.3693,54.1966,-16.1688,53.2169,50.4656,6.3693,50.277,-13.2288,-15.1891,36.5579,15.5654,-41.6467,
-24.3092,-16.6586,8.6307,69.1966,-14.209,68.2169,65.4656,-8.6307,65.277,-28.2288,-28.9077,21.5579,18.1286,-56.6467,
-9.3092,-28.9068,-3.4298,54.1966,0.79105,53.2169,50.4656,6.3693,50.277,-13.2288,-13.9077,36.5579,19.1082,-41.6467,
-9.3092,-13.9068,11.5702,39.1966,13.2288,38.2169,35.4656,-6.3693,35.277,-21.068,1.0923,24.008,32.8269,-42.6264,
-3.4302,-1.47,1.47,54.1966,-1.7712,53.2169,50.4656,-9.3092,50.277,-30.8675,-13.9077,17.1484,17.8269,-43.6061,
4.8998,-16.47,-13.53,69.1966,-15.6789,68.2169,65.4656,5.6908,65.277,-15.8675,-14.6983,32.1484,2.8269,-33.3167,
-10.1002,-1.47,1.47,84.1966,-6.3693,83.2169,80.4656,-9.3092,80.277,-30.8675,-23.0274,17.1484,6.3693,-48.3167,
4.8998,-9.799,-2.9395,69.1966,7.8397,68.2169,65.4656,5.6908,65.277,-15.8675,-8.0274,32.1484,11.7593,-33.3167,
-3.9196,5.201,12.0605,54.1966,22.538,53.2169,50.4656,3.9196,50.277,-14.6988,6.9726,37.2368,26.7593,-27.4373,
-8.3295,20.201,-1.47,69.1966,7.538,68.2169,64.1838,-11.0804,65.277,-29.6988,-8.0274,22.2368,11.7593,-42.4373,
3.9196,5.201,-16.47,84.1966,-7.462,83.2169,79.1838,3.9196,80.277,-14.6988,-3.9196,19.5981,-3.2407,-36.2571,
-11.0804,6.8596,-1.47,99.1966,0,98.2169,94.1838,-11.0804,95.277,-29.6988,-12.7385,4.5981,11.7593,-51.2571,
3.9196,-8.1404,-3.4298,84.1966,11.269,83.2169,79.1838,3.9196,80.277,-14.6988,2.2615,19.5981,11.269,-36.2571,
-3.4293,3.4293,11.5702,69.1966,26.269,68.2169,64.1838,8.3295,65.277,-6.3693,17.2615,34.5981,26.269,-22.0477,
-18.4293,4.4095,14.208,84.1966,11.269,75.9431,57.3247,-6.6705,80.277,-21.3693,2.2615,19.5981,11.269,-37.0477,
-3.4293,-10.5905,-0.79198,99.1966,-3.731,90.9431,72.3247,8.3295,95.277,-11.269,-11.269,34.5981,-3.731,-41.6463,
-18.4293,0,10.7792,114.1966,0,105.9431,87.3247,-6.6705,110.277,-26.269,-5.8799,19.5981,11.269,-56.6463,
-3.4293,-15,-4.2208,99.1966,7.3494,90.9431,72.3247,8.3295,95.277,-11.269,9.1201,34.5981,24.0075,-41.6463,
-3.4298,-30,3.4298,84.1966,14.208,75.9431,57.3247,22.0472,80.277,3.731,24.1201,49.5981,27.9271,-26.6463,
-18.4298,-24.9881,-3.4298,99.1966,-0.79198,74.9634,42.3247,7.0472,87.702,-11.269,9.1201,34.5981,16.1683,-39.686,
-3.4298,-39.9881,-18.4298,114.1966,-15.792,89.9634,57.3247,13.2293,102.702,-2.4492,0.48984,33.807,1.1683,-25.9678,
-18.4298,-24.9881,-4.4095,129.1966,-0.79198,104.9634,72.3247,-1.7707,117.702,-17.4492,-0.48983,18.807,12.2487,-40.9678,
-3.4298,-21.5583,-9.7986,114.1966,14.208,89.9634,57.3247,13.2293,102.702,-2.4492,14.5102,33.807,9.7995,-25.9678,
3.4293,-27.9276,-3.4293,99.1966,15.1882,74.9634,42.3247,18.1281,87.702,6.3693,29.5102,48.5053,24.7995,-10.9678,
-11.5707,-12.9276,-7.8397,108.77,0.18816,89.9634,27.3247,3.1281,80.3521,-8.6307,14.5102,33.5053,9.7995,-25.9678,
-2.4501,-27.9276,-22.8397,93.77,-14.8118,74.9634,42.3247,8.3291,95.3521,-2.4501,2.4501,37.7266,-5.2005,-38.7063,
-17.4501,-12.9276,-13.2293,108.77,-7.3494,89.6613,57.3247,-6.6709,110.3521,-17.4501,11.269,22.7266,9.7995,-40.6666,
-2.4501,-15.1886,-12.2487,93.77,7.6506,74.6613,42.3247,8.3291,95.3521,-2.4501,22.0482,37.7266,12.2487,-25.6666,
4.4095,-30.1886,-4.4095,78.77,13.2283,59.6613,27.3247,17.148,80.3521,11.269,36.746,45.5659,25.9678,-20.0888,
-10.5905,-15.1886,5.3896,93.77,-1.7717,74.6613,34.7872,2.148,95.3521,-3.731,21.746,30.5659,10.9678,-35.0888,
4.4095,-30.1886,-9.6104,78.77,2.9399,59.6613,19.7872,17.148,80.3521,2.9399,26.4576,45.5659,0,-20.0888,
-10.5905,-15.1886,5.3896,63.77,12.7385,44.6613,34.7872,2.148,65.3521,-12.0601,22.538,30.5659,15,-28.4179,
1.9598,-30.1886,-9.6104,48.77,-2.2615,29.6613,19.7872,-4.8998,50.3521,-11.7584,12.739,16.6586,7.8397,-36.2567,
-13.0402,-45.1886,-24.6104,63.77,-14.208,44.6613,4.7872,0.48983,65.3521,-9.3087,26.9475,27.9281,7.3494,-34.7867,
-28.0402,-30.1886,-9.6104,78.77,-5.879,59.6613,19.7872,-14.5102,80.3521,-24.3087,18.6184,12.9281,21.5583,-40.1758,
-13.0402,-38.7063,-23.0279,63.77,2.4496,44.6613,4.7872,0.48983,65.3521,-9.3087,33.6184,27.9281,15.1882,-25.1758,
-12.2491,-23.7063,-8.0279,48.77,17.4496,29.6613,-1.47,1.47,50.3521,-9.3092,46.546,38.7068,30.1882,-20.0884,
-7.3494,-19.1082,-10.2893,63.77,2.4496,44.6613,13.53,-2.4501,65.3521,-17.1489,31.546,24.0075,15.1882,-27.9271,
-3.4293,-34.1082,-25.2893,78.77,-12.5504,59.6613,28.53,3.4293,80.3521,-4.4099,16.546,30.8675,0.18816,-33.8066,
-18.4293,-19.1082,-10.2893,93.77,0.48983,74.6613,43.53,-11.5707,95.3521,-19.4099,6.3697,15.8675,14.209,-42.6259,
-3.4293,-34.1082,-18.1286,78.77,2.4501,59.6613,28.53,3.4293,80.3521,-4.4099,17.148,30.8675,0.48983,-27.6259,
-14.6983,-19.1082,-3.1286,63.77,12.739,44.6613,13.53,6.8591,65.3521,8.8194,31.3574,45.0756,15.4898,-12.739,
-27.9276,-22.0477,-11.2685,78.77,-2.261,59.6613,28.53,-8.1409,80.3521,-6.1806,16.3574,30.0756,9.3092,-27.739,
-12.9276,-37.0477,-26.2685,93.77,-17.261,74.6613,43.53,1.47,95.3521,-1.47,13.2288,26.9479,-3.4293,-33.8066,
-27.9276,-22.0477,-11.2685,108.77,-8.3286,89.6613,58.53,-13.53,110.3521,-16.47,2.4496,11.9479,11.5707,-46.5451,
-12.9276,-37.0477,-5.8794,93.77,4.8998,74.6613,43.53,1.47,95.3521,-1.47,17.4496,26.9479,11.7593,-31.5451,
-1.9598,-35.277,1.9598,78.77,11.7584,59.6613,28.53,7.8388,80.3521,4.8988,32.4496,41.9479,26.7593,-16.5451,
-16.9598,-20.5782,-8.8194,93.77,-3.2416,74.6613,13.53,-7.1612,95.3521,-10.1012,20.5782,26.9479,15.678,-31.5451,
-16.6586,-35.5782,-23.8194,108.77,-18.2416,89.6613,28.53,-0.98014,110.3521,0.98014,12.739,24.4978,0.67799,-46.0562,
-31.6586,-20.5782,-8.8194,123.77,-7.3494,104.6613,43.53,-15.9801,125.3521,-14.0199,27.739,9.4978,15.678,-41.6463,
-16.6586,-28.4174,-20.5782,108.77,7.6506,89.6613,28.53,-0.98014,110.3521,0.98014,38.2169,24.4978,5.8794,-26.6463,
-1.6586,-26.9475,-5.5782,93.77,12.2487,74.6613,13.53,14.0199,95.3521,13.2283,41.6463,39.4978,20.8794,-16.1683,
-12.7394,-11.9475,0,108.77,-2.7513,89.6613,-1.47,0,87.2112,-1.7717,29.3966,25.477,14.6979,-24.4983,
-11.2695,-26.9475,-15,123.77,-17.7513,104.6613,13.53,3.4293,102.2112,-3.4293,18.1281,29.8869,-0.30214,-31.8472,
-26.2695,-11.9475,-9.799,138.77,-6.8591,119.6613,28.53,-11.5707,117.2112,-18.4293,29.3971,14.8869,12.739,-43.1162,
-11.2695,-26.9475,-9.799,123.77,4.8998,104.6613,13.53,3.4293,102.2112,-3.4293,42.1356,29.8869,18.6179,-28.1162,
-4.8993,-40.1758,-2.9399,108.77,17.6387,89.6613,-1.47,18.4293,87.2112,10.7792,55.8552,44.8869,33.6179,-13.1162,
-19.8993,-25.1758,-9.799,110.7293,2.6387,97.9908,4.8998,3.4293,91.1313,-4.2208,40.8552,29.8869,18.6179,-24.4978,
-16.1688,-40.1758,-24.799,108.2802,-12.3613,96.5213,19.8998,2.4496,106.1313,-2.4496,25.8552,28.9073,3.6179,-29.8869,
-31.1688,-25.1758,-9.799,112.1998,-5.3896,101.4206,34.8998,-12.5504,121.1313,-17.4496,31.8472,13.9073,18.6179,-44.5857,
-16.1688,-22.0477,-9.3092,97.1998,7.3489,86.4206,19.8998,2.4496,106.1313,-2.4496,46.8472,28.9073,21.068,-29.5857,
-1.1688,-37.0477,-2.9399,82.1998,2.9399,71.4206,4.8998,17.4496,91.1313,12.5504,58.7942,43.9073,26.4576,-14.5857,
-16.1688,-22.538,0.97967,97.1998,-12.0601,86.4206,-0.97967,2.4496,83.2925,-2.4496,43.7942,28.9073,15.6785,-29.5857,
-1.1688,-37.538,-14.0203,82.1998,-17.1484,71.4206,-9.3092,17.4496,68.2925,12.5504,48.5053,43.9073,4.4099,-14.5857,
-16.1688,-25.9673,-1.47,67.1998,-12.2491,56.4206,5.6908,2.4496,83.2925,-2.4496,36.7465,28.9073,17.1484,-29.5857,
-3.4293,-32.8269,-9.3092,52.1998,-7.3499,41.4206,6.3693,2.4496,68.2925,-2.4496,21.7465,13.9073,8.3295,-29.8869,
-1.9598,-47.8269,-20.5782,67.1998,-17.6383,48.0155,-8.6307,6.86,53.2925,-2.9395,18.6189,23.5182,1.9598,-39.1957,
-16.9598,-32.8269,-5.5782,82.1998,-8.8189,63.0155,6.3693,-8.14,68.2925,-17.9395,11.7588,8.5182,10.7792,-52.9153,
-1.9598,-47.8269,-20.5782,67.1998,6.1811,48.0155,-8.6307,6.86,53.2925,-2.9395,26.7588,23.5182,8.8194,-37.9153,
-11.269,-32.8269,-5.5782,52.1998,21.1811,33.0155,3.4298,6.3697,38.2925,-3.4298,41.7588,28.9077,23.8194,-22.9153,
-20.0879,-39.686,-11.269,67.1998,6.1811,48.0155,15.1886,-8.6303,53.2925,-18.4298,26.7588,13.9077,8.8194,-36.746,
-14.6988,-54.686,-26.269,82.1998,-7.8392,63.0155,30.1886,0,68.2925,-3.4298,23.5177,25.478,-2.9399,-32.3375,
-29.6988,-50.4656,-11.269,97.1998,3.4293,78.0155,45.1886,-15,83.2925,-18.4298,19.1087,10.478,10.2889,-47.3375,
-14.6988,-65.4656,-15.678,82.1998,1.9598,63.0155,30.1886,0,68.2925,-3.4298,34.1087,25.478,16.6586,-32.3375,
-6.3697,-50.4656,-0.67799,67.1998,12.2487,48.0155,15.1886,6.3697,53.2925,11.5702,49.1087,37.7266,31.6586,-17.3375,
-17.6378,-52.9153,-15.678,82.1998,-2.7513,63.0155,4.8993,-8.6303,68.2925,-3.4298,34.1087,22.7266,16.6586,-28.417,
-5.3891,-67.9153,-30.678,97.1998,-17.7513,78.0155,19.8993,-0.48984,83.2925,0.48984,25.9678,20.0879,1.6586,-29.8874,
-20.3891,-52.9153,-15.678,112.1998,-3.9196,93.0155,34.8993,-15.4898,98.2925,-14.5102,32.3375,5.0879,16.6586,-39.1961,
-5.3891,-61.7346,-12.7394,97.1998,3.9196,78.0155,19.8993,-0.48984,83.2925,0.48984,42.1361,20.0879,18.6184,-24.1961,
-8.8194,-46.7346,2.2606,82.1998,18.6189,63.0155,4.8993,10.7796,68.2925,8.8194,42.1366,23.5182,32.3371,-19.5976,
-16.1688,-31.7346,4.4099,97.1998,3.6189,78.0155,19.8993,-4.2204,83.2925,-6.1806,27.1366,8.5182,17.3371,-34.5976,
-1.1688,-46.7346,-10.5901,112.1998,-11.3811,93.0155,34.8993,0,98.2925,-12.7394,12.1366,10.7782,2.3371,-38.2165,
-16.1688,-31.7346,4.4099,127.1998,-2.9399,108.0155,49.8993,-15,113.2925,-27.7394,7.8392,-4.2218,2.9399,-52.9153,
-1.1688,-30.3772,0,112.1998,6.8596,93.0155,34.8993,0,98.2925,-12.7394,22.8392,10.7782,0,-37.9153,
-4.4095,-24.0075,15,97.1998,21.8596,78.0155,19.8993,4.4095,83.2925,2.2606,37.8392,25.7782,15,-24.0075,
-19.4095,-32.3371,3.9191,87.2117,6.8596,63.694,4.8993,-10.5905,77.4122,-12.7394,22.8392,10.7782,2.9395,-39.0075,
-4.4095,-47.3371,-11.0809,102.2117,-8.1404,78.694,19.8993,0,92.4122,-6.8596,18.6184,12.7385,-12.0605,-33.3172,
-19.4095,-32.3371,1.9598,117.2117,-1.9598,93.694,34.8993,-15,107.4122,-21.8596,10.7796,-2.2615,2.9395,-48.3172,
-4.4095,-28.9073,-1.47,102.2117,4.4099,78.694,19.8993,0,92.4122,-6.8596,21.068,12.7385,3.4293,-33.3172,
-5.8794,-39.1966,10.7787,87.2117,15.678,63.694,4.8993,5.8794,77.4122,8.1404,36.068,27.7385,18.4293,-18.3172,
-20.8794,-24.1966,8.8189,102.2117,0.67799,78.694,3.9196,-9.1206,79.3729,-6.8596,21.068,12.7385,5.879,-33.3172,
-5.8794,-39.1966,-6.1811,117.2117,-14.322,93.694,18.9196,2.4496,94.3729,-5.3896,17.1484,6.3693,-9.121,-28.9073,
-20.8794,-24.1966,6.8596,132.2117,0,108.694,33.9196,-12.5504,109.3729,-20.3896,11.7588,-8.6307,0,-43.9073,
-5.8794,-31.3569,-7.8392,117.2117,7.8392,93.694,18.9196,2.4496,94.3729,-5.3896,26.4576,6.3693,8.8189,-28.9073,
0,-46.3569,-7.8392,102.2117,9.7986,78.694,3.9196,14.6988,79.3729,9.6104,41.4576,21.3693,19.5981,-13.9073,
-15,-31.3569,2.9399,117.2117,0,93.694,18.6184,-0.30121,65.6538,-5.3896,26.4576,6.3693,4.5981,-28.9073,
0,-46.3569,-12.0601,102.2117,-14.208,78.694,3.6184,8.3291,50.6538,-9.3087,11.4576,7.3494,-10.4019,-32.8264,
-15,-31.3569,2.9399,87.2117,0.79198,63.694,18.6184,-6.6709,54.3852,-24.3087,8.3295,-7.6506,-1.47,-43.6061,
0,-28.9073,-1.47,72.2117,15.1891,48.694,3.6184,2.4496,39.3852,-9.3087,23.3295,7.3494,-4.409,-28.6061,
-1.9593,-43.9073,-16.47,63.6944,0.18909,33.694,-11.3816,10.7792,24.3852,3.9196,32.3366,20.5777,-10.7792,-28.417,
-16.9593,-28.9073,-1.47,78.6944,-0.48983,48.694,3.6184,-4.2208,39.3852,-11.0804,17.3366,5.5777,0.48983,-43.417,
-1.9593,-41.6458,-2.4492,63.6944,14.5102,33.694,-11.3816,10.7792,24.3852,3.9196,32.3366,20.5777,-0.48984,-28.417,
-16.1683,-26.6458,12.5508,48.6944,22.0482,18.694,3.6184,-4.2208,13.2283,-11.0804,47.3366,8.3291,14.5102,-18.1286,
-3.4302,-25.9683,-2.4492,63.6944,7.0482,33.694,15.1882,-7.3499,28.2283,-6.3693,33.8066,1.47,6.3693,-16.1688,
-2.9399,-40.9683,-17.4492,78.6944,-7.9518,48.694,19.5981,0.97967,43.2283,-0.97967,30.3772,11.7588,-5.879,-23.5177,
-17.9399,-25.9683,-2.4492,93.6944,0,63.694,34.5981,-14.0203,58.2283,-15.9797,18.6184,-3.2412,3.9196,-38.5177,
-2.9399,-40.9683,-17.4492,78.6944,1.9598,48.694,19.5981,0.97967,43.2283,-0.97967,33.6184,11.7588,-1.9598,-23.5177,
-10.7792,-25.9683,-2.4492,63.6944,16.9598,33.694,4.5981,0.97967,28.2283,4.8993,48.6184,26.4576,13.0402,-8.5177,
-8.3291,-10.9683,6.3697,78.6944,9.3087,48.694,19.5981,-14.0203,43.2283,-10.1007,33.6184,11.4576,-1.9598,-23.5177,
3.4293,-25.9683,-8.6303,93.6944,-5.6913,63.694,34.5981,-3.4293,58.2283,-8.3295,18.6184,9.3092,-16.9598,-33.8066,
-11.5707,-10.9683,6.3697,108.6944,-4.8998,78.694,49.5981,-18.4293,73.2283,-23.3295,12.739,-5.6908,-1.9598,-48.8066,
3.4293,-25.9683,0.97967,93.6944,10.1002,63.694,34.5981,-3.4293,58.2283,-8.3295,27.4373,9.3092,-0.97967,-33.8066,
0.97967,-10.9683,15.9797,78.6944,25.1002,48.694,19.5981,0,43.2283,-5.8799,42.4373,12.7385,14.0203,-18.8066,
-14.0203,0,6.8596,93.6944,12.7385,63.694,4.5981,-15,58.2283,-20.8799,27.4373,-2.2615,-0.97967,-30.3772,
-1.9598,-15,-8.1404,108.6944,-2.2615,78.694,19.5981,0,73.2283,-5.8799,12.4373,8.8184,-15.9797,-25.4784,
-16.9598,0,5.3896,123.6944,-2.4496,93.694,34.5981,-15,88.2283,-20.8799,4.4099,-6.1816,-11.2695,-40.4784,
-1.9598,-13.7187,-6.8591,108.6944,12.5504,78.694,19.5981,0,73.2283,-5.8799,19.4099,8.8184,3.7305,-25.4784,
2.9399,-25.478,1.9603,93.6944,27.5504,63.694,4.5981,2.9399,58.2283,-1.9603,34.4099,14.6988,18.7305,-12.7385,
-12.0601,-17.148,-0.48984,105.3407,12.5504,78.694,0.48984,-12.0601,73.2283,-16.9603,19.4099,-0.30121,5.3901,-25.9678,
0.98014,-32.148,-15.4898,120.3407,-2.4496,93.694,15.4898,-1.9598,88.2283,-1.9603,27.4378,6.8591,-9.6099,-20.5782,
-14.0199,-17.148,-0.48984,135.3407,12.5504,108.694,30.4898,-16.9598,103.2283,-16.9603,24.4974,-8.1409,-2.9399,-35.5782,
0.98014,-28.4165,-1.9598,120.3407,27.5504,93.694,15.4898,-1.9598,88.2283,-1.9603,31.3574,6.8591,1.9598,-20.5782,
1.9598,-40.1763,10.7796,105.3407,30.3777,78.694,0.48984,8.8194,73.2283,-1.9598,40.1763,15.6789,16.9598,-12.738,
-13.0402,-25.1763,7.8392,114.6494,15.3777,93.694,-9.7986,-6.1806,71.5337,-16.9598,25.1763,0.67892,7.8392,-27.738,
1.9598,-40.1763,-7.1608,129.6494,0.37771,108.694,5.2014,-3.4298,86.5337,-13.2284,13.2283,3.4298,-7.1608,-26.9475,
-13.0402,-39.1966,-1.9598,144.6494,1.9598,123.694,20.2014,-18.4298,101.5337,-28.2284,17.6383,-11.5702,3.9191,-41.9475,
1.9598,-50.955,-2.9399,129.6494,11.7588,108.694,5.2014,-3.4298,86.5337,-13.2284,32.6383,3.4298,13.7191,-26.9475,
6.3697,-63.2041,0.48984,114.6494,14.209,93.694,-9.7986,-0.48984,71.5337,1.7716,40.6666,12.2487,14.209,-11.9475,
-8.6303,-48.2041,7.8392,99.6494,3.9196,81.3322,0.97967,-15.4898,56.5337,-13.2284,25.6666,-2.7513,-0.79105,-26.9475,
6.3697,-63.2041,-7.1608,84.6494,-11.0804,66.3322,8.8189,-6.8596,49.9753,-7.8392,14.6988,6.8596,-15.6785,-22.538,
-8.6303,-48.2041,7.8392,99.6494,-9.799,77.4131,23.8189,-21.8596,64.9753,-22.8392,20.5782,-8.1404,-0.67846,-37.2363,
6.3697,-40.1763,0.98014,84.6494,3.9201,62.4131,8.8189,-6.8596,49.9753,-7.8392,22.5385,6.8596,1.9598,-22.2363,
-5.8794,-55.1763,-7.8397,69.6494,13.7187,47.4131,-6.1811,-7.8397,34.9753,5.8794,29.3971,21.8596,7.8388,-11.7593,
-20.8794,-40.1763,2.4501,84.6494,2.4501,62.4131,8.8189,-22.8397,49.9753,-9.1206,14.3971,6.8596,3.4298,-26.7593,
-5.8794,-55.1763,-9.3097,69.6494,10.2893,47.4131,-6.1811,-7.8397,34.9753,5.8794,24.0075,16.1683,7.3494,-11.7593,
-3.4298,-40.1763,5.6903,54.6494,25.2893,32.4131,8.8189,-12.2487,23.0279,-6.3688,39.0075,3.4298,22.3494,-14.208,
-6.8591,-37.2363,2.9404,40.1763,10.2893,24.4978,1.9598,-16.6577,38.0279,-21.3688,24.0075,-3.9191,7.3494,-29.208,
-2.9399,-52.2363,-12.0596,55.1763,-3.9196,39.4978,-7.8392,-1.6577,53.0279,-6.3688,22.538,11.0809,9.7995,-18.6184,
-17.9399,-37.2363,0.48983,70.1763,-0.48983,54.4978,7.1608,-16.6577,68.0279,-21.3688,8.3291,-3.9191,17.1489,-33.6184,
-2.9399,-52.2363,-14.5102,55.1763,4.4095,39.4978,-7.8392,-1.6577,53.0279,-6.3688,22.0482,11.0809,5.3891,-18.6184,
-0.48983,-37.2363,0.48983,40.1763,19.4095,24.4978,-22.8392,2.4501,38.0279,0.48983,37.0482,21.0676,20.3891,-6.3697,
-7.8392,-34.2969,0,55.1763,4.4095,39.4978,-7.8392,-12.5499,53.0279,-14.5102,22.0482,6.0676,5.3891,-20.5777,
-2.9395,-49.2969,-15,70.1763,-4.8998,54.4978,7.1608,-2.9395,68.0279,0.48983,19.5985,12.739,-6.8591,-18.6179,
-17.9395,-34.2969,0,85.1763,-3.9196,69.4978,22.1608,-17.9395,83.0279,-14.5102,4.5985,-2.261,8.1409,-33.6179,
-2.9395,-49.2969,-15,70.1763,3.9196,54.4978,7.1608,-2.9395,68.0279,0.48983,19.5985,12.739,5.8799,-18.6179,
-5.3901,-34.2969,0,55.1763,18.9196,39.4978,-7.8392,-2.4501,53.0279,11.269,34.5985,27.739,20.8799,-3.6179,
-20.0888,-19.2969,0.48984,70.1763,6.3688,54.4978,7.1608,-17.4501,68.0279,-3.731,19.5985,12.739,5.8799,-18.6179,
-5.0888,-34.2969,-14.5102,85.1763,-2.9399,69.4978,22.1608,-6.8596,83.0279,-5.8799,4.5985,8.8189,-9.1201,-29.3976,
-20.0888,-20.0884,0.48984,100.1763,2.4496,84.4978,37.1608,-21.8596,98.0279,-20.8799,-2.4496,-6.1811,5.8799,-44.3976,
-5.0888,-35.0884,-5.3896,85.1763,9.3092,69.4978,22.1608,-6.8596,83.0279,-5.8799,12.5504,8.8189,5.3896,-29.3976,
-2.9399,-29.3976,9.6104,70.1763,24.3092,54.4978,7.1608,2.9399,68.0279,8.8189,27.5504,23.8189,20.3896,-14.3976,
-17.9399,-26.947,2.4496,85.1763,9.3092,69.4978,1.47,-12.0601,83.0279,-6.1811,12.5504,8.8189,7.3499,-29.3976,
-2.9399,-41.947,-12.5504,100.1763,-5.6908,84.4978,16.47,-9.3092,98.0279,-2.4496,2.4496,6.3693,-7.6501,-30.8675,
-17.9399,-46.0562,1.9598,115.1763,-1.9598,99.4978,31.47,-24.3092,113.0279,-17.4496,15.678,-8.6307,7.3499,-45.8675,
-2.9399,-53.8954,-4.8998,100.1763,4.8998,84.4978,16.47,-9.3092,98.0279,-2.4496,27.4368,6.3693,8.8194,-30.8675,
-1.47,-38.8954,10.1002,85.1763,8.3295,69.4978,1.47,1.47,83.0279,5.3896,32.8269,16.1688,23.8194,-15.8675,
-16.47,-23.8954,20.5777,100.1763,0,84.4978,3.9196,-13.53,68.0279,-9.6104,17.8269,1.1688,8.8194,-30.8675,
-1.47,-38.8954,5.5777,115.1763,-11.269,99.4978,18.9196,-0.48983,83.0279,-13.2283,2.8269,7.3494,-6.1806,-33.807,
-16.47,-23.8954,1.4695,130.1763,2.4501,114.4978,33.9196,-15.4898,98.0279,-28.2283,17.8269,-7.6506,-1.4695,-35.7664,
-1.47,-37.7262,-9.3092,115.1763,4.4099,99.4978,18.9196,-0.48983,83.0279,-13.2283,29.8869,7.3494,11.2685,-20.7664,
0.48984,-52.7262,-0.48984,100.1763,8.3291,84.4978,3.9196,3.4298,68.0279,1.7717,30.8671,22.3494,17.148,-21.0685,
-14.5102,-37.7262,12.7385,115.1763,6.8596,98.971,-5.8799,-11.5702,80.3526,-13.2283,15.8671,7.3494,5.8799,-28.417,
0.48984,-52.7262,-2.2615,100.1763,-8.1404,83.971,-19.5985,0.98014,65.3526,0.98014,0.86708,3.9191,-9.1201,-24.4978,
-14.5102,-37.7262,2.4496,87.7024,-2.4496,71.0434,-4.5985,-14.0199,80.3526,-14.0199,10.2889,-11.0809,5.8799,-36.7465,
0.48984,-36.2571,9.7986,72.7024,12.5504,56.0434,-19.5985,0.97967,65.3526,-0.97967,22.538,3.9191,8.8189,-21.7465,
11.7593,-51.2571,-1.9598,57.7024,5.8794,41.0434,-34.5985,-4.8988,50.3526,1.9598,24.4978,16.6586,3.9201,-19.5976,
-3.2407,-36.2571,8.8194,72.7024,-0.98014,56.0434,-19.5985,-19.8988,63.694,-13.0402,9.4978,1.6586,5.8794,-34.5976,
11.7593,-47.0354,-6.1806,57.7024,2.9395,41.0434,-30.3772,-4.8988,48.694,1.9598,24.4978,16.6586,5.8794,-19.5976,
-3.2407,-32.0354,8.8194,42.7024,3.4298,26.0434,-15.3772,-19.8988,50.4661,-13.0402,11.269,1.6586,14.209,-33.807,
11.7593,-20.0884,1.47,57.7024,4.409,24.0071,-0.37725,-4.8988,35.4661,-9.3092,-1.47,-4.4099,-0.79105,-25.9683,
7.3494,-35.0884,-13.53,72.7024,-8.3291,39.0071,-14.209,3.4298,50.4661,-3.4298,6.3697,10.5901,-9.3087,-22.0482,
-7.6506,-21.0685,0.48983,87.7024,-0.48983,54.0071,0.79105,-11.5702,65.4661,-18.4298,8.3291,-4.4099,5.6913,-37.0482,
7.3494,-36.0685,-14.5102,72.7024,11.2685,39.0071,-14.209,3.4298,50.4661,-3.4298,23.3291,10.5901,6.3693,-22.0482,
-7.3499,-21.0685,0.48983,57.7024,26.2685,24.0071,-1.47,1.47,35.4661,4.4099,38.3291,20.0884,21.3693,-8.3295,
-1.9598,-36.0685,-5.8794,72.7024,11.2685,39.0071,13.53,-4.8998,50.4661,-4.8998,23.3291,5.0884,6.3693,-22.5376,
-1.47,-51.0685,-20.8794,87.7024,-3.7315,54.0071,28.53,-0.4903,65.4661,0.4903,18.1281,14.2085,-8.3295,-24.008,
-16.47,-36.2567,-5.8794,102.7024,-2.9395,69.0071,43.53,-15.4903,80.4661,-14.5097,20.5782,-0.79151,6.6705,-39.008,
-1.47,-51.2567,-14.209,87.7024,-0.48983,54.0071,28.53,-0.4903,65.4661,0.4903,35.5782,14.2085,15.1886,-24.008,
-3.9201,-48.0155,0.79105,72.7024,14.5102,39.0071,13.53,-2.9395,50.4661,8.8194,50.5782,19.5985,30.1886,-9.008,
-14.209,-51.4458,-14.209,87.7024,3.4298,54.0071,-1.47,-16.1683,65.4661,-6.1806,35.5782,4.5985,15.1886,-12.2487,
-4.4095,-66.4458,-29.209,102.7024,-11.5702,69.0071,13.53,-4.4095,80.4661,4.4095,20.5782,19.5985,0.18862,-21.0685,
-19.4095,-51.4458,-14.209,117.7024,3.4298,84.0071,28.53,-19.4095,95.4661,-10.5905,16.1683,4.5985,15.1886,-36.0685,
-4.4095,-66.4458,-22.538,102.7024,5.879,69.0071,13.53,-4.4095,80.4661,4.4095,23.5177,12.7385,5.879,-21.0685,
-2.4496,-51.4458,-7.538,87.7024,20.879,54.0071,-1.47,-0.4903,65.4661,0.4903,38.5177,27.7385,20.879,-6.0685,
-9.3087,-36.4458,-7.3494,92.6022,8.3291,69.0071,-10.2884,-15.4903,80.4661,-14.5097,23.5177,12.7385,17.1489,-11.269,
2.9399,-51.4458,-22.3494,107.6022,-6.6709,84.0071,4.7116,-2.9399,95.4661,-4.8993,16.6581,14.6988,2.1489,-15.6785,
-12.0601,-36.7465,-14.2094,122.6022,8.3291,99.0071,19.7116,-17.9399,110.4661,-19.8993,27.9276,-0.30121,17.1489,-26.9479,
0.4903,-51.7465,-29.2094,107.6022,-0.4903,84.0071,4.7116,-2.9399,95.4661,-4.8993,36.7465,14.6988,11.2685,-11.9479,
-12.7385,-56.8349,-14.2094,92.6022,14.5097,69.0071,-10.2884,8.8189,80.4661,10.1007,51.7465,29.6988,26.2685,3.0521,
-27.7385,-41.8349,-8.8194,99.9511,12.739,81.3327,4.7116,-6.1811,95.4661,-4.8993,36.7465,14.6988,11.2685,-11.9479,
-12.7385,-56.8349,-23.8194,114.9511,-2.261,96.3327,19.7116,-7.3494,110.4661,5.3891,23.0279,15.1886,-3.7315,-20.0879,
-27.7385,-41.8349,-8.8194,129.9511,-5.3896,111.3327,34.7116,-22.3494,125.4661,-9.6109,25.9673,0.18862,11.2685,-29.8879,
-12.7385,-42.6264,2.4496,114.9511,6.3693,96.3327,19.7116,-7.3494,110.4661,-3.4302,27.9276,12.2482,10.2889,-14.8879,
2.2615,-57.6264,0.98014,99.9511,11.7584,81.3327,4.7116,-0.98014,95.4661,5.8794,40.1763,20.5782,20.5782,-5.8794,
-12.7385,-49.9749,0.98014,97.0112,-0.98014,66.3327,-10.2884,-15.9801,80.4661,-3.9191,30.3777,5.5782,15.6789,-15.678,
-1.4695,-64.9749,-14.0199,82.0112,-15.9801,65.1639,-23.0279,-0.98014,80.8424,11.0809,18.1286,17.1489,0.67893,-16.1683,
-16.4695,-49.9749,0.97967,97.0112,-0.98014,80.1639,-8.0279,-15.9801,95.8424,-3.9191,33.1286,2.1489,15.6789,-22.538,
-1.4695,-50.4652,-7.3494,82.0112,2.4501,65.1639,-23.0279,-0.98014,80.8424,11.0809,48.1286,17.1489,25.9678,-7.538,
7.3489,-65.4652,-8.3295,67.0112,2.4496,50.1639,-38.0279,6.3693,65.8424,20.0884,63.1286,32.1489,30.8666,-2.4496,
-7.6511,-50.4652,4.4099,82.0112,-4.4099,65.1639,-23.0279,-8.6307,80.8424,5.0884,48.1286,17.1489,20.0884,-17.4496,
7.3489,-65.4652,-10.5901,67.0112,-5.3896,50.1639,-38.0279,6.3693,65.8424,20.0884,38.7068,32.1489,10.2889,-2.4496,
-7.6511,-50.4652,-2.4501,52.0112,5.3891,35.1639,-23.0279,-8.6307,74.9625,5.0884,53.7068,17.1489,25.2889,-0.48984,
-7.8397,-58.7947,-17.4501,37.0112,-1.9598,38.216,-8.0279,-4.8998,60.754,0.98014,48.0155,15.678,21.5579,-0.98014,
-16.1683,-73.7947,-28.9077,52.0112,3.4298,53.216,-9.3087,-10.2893,75.754,-3.4298,45.5659,15.1886,24.9881,-5.3891,
-31.1683,-58.7947,-13.9077,67.0112,4.4095,68.216,5.6913,-25.2893,90.754,-18.4298,39.686,0.18862,39.9881,-20.3891,
-16.1683,-73.7947,-28.9077,52.0112,-1.9598,53.216,-9.3087,-10.2893,75.754,-3.4298,54.686,15.1886,24.9881,-5.3891,
-24.9872,-58.7947,-13.9077,37.0112,13.0402,38.216,5.6913,-13.2283,60.754,-10.2884,60.2647,5.3901,36.747,-3.4298,
-16.1688,-43.7947,-0.4903,52.0112,0.4903,53.216,5.3896,-15.1882,75.754,-24.9877,45.2647,-9.6099,21.747,-16.1688,
-6.8591,-58.7947,-15.4903,67.0112,-6.8591,68.216,20.3896,-0.98014,90.754,-10.7787,39.1966,0.98014,7.8397,-12.739,
-21.8591,-43.7947,-0.4903,82.0112,-9.3092,83.216,35.3896,-15.9801,105.754,-25.7787,24.1966,-14.0199,9.3092,-27.739,
-6.8591,-28.7947,14.5097,67.0112,5.6908,68.216,20.3896,-3.4302,90.754,-16.1688,39.1966,0.98014,24.3092,-12.739,
-21.0676,-13.7947,29.5097,52.0112,20.6908,53.216,33.807,-14.209,75.754,-16.1683,54.1966,-3.4298,39.3092,2.261,
-36.0676,-14.2085,14.5097,67.0112,5.6908,68.216,30.8666,-29.209,90.754,-31.1683,39.1966,-18.4298,24.3092,-12.739,
-21.0676,-29.2085,-0.4903,82.0112,-1.9598,83.216,45.8666,-14.209,105.754,-16.1683,47.0358,-3.4298,12.739,-11.7593,
-36.0676,-17.6378,8.8189,97.0112,-3.9196,98.216,60.8666,-29.209,120.754,-31.1683,32.0358,-18.4298,3.9196,-26.7593,
-21.0676,-32.6378,-6.1811,82.0112,11.0804,83.216,45.8666,-14.209,105.754,-16.1683,46.5455,-3.4298,-3.4298,-11.7593,
-6.0676,-47.6378,-2.9399,67.0112,24.4974,68.216,30.8666,0.79105,90.754,-1.1683,61.5455,11.5702,11.5702,2.9399,
-8.33,-55.3654,-17.9399,82.0112,13.2284,83.216,15.8666,-7.3494,75.754,-16.1683,52.4245,4.4095,3.4298,-3.4298,
-1.47,-70.3654,-32.9399,97.0112,-1.7716,98.216,4.4099,1.47,90.754,-11.2685,37.4245,18.1281,-11.5702,-5.3896,
-16.47,-61.2439,-20.0884,112.0112,-1.47,113.216,19.4099,-13.53,105.754,-22.0477,33.8066,3.1281,3.4298,-9.3092,
-1.47,-76.2439,-23.0283,97.0112,-1.47,98.216,4.4099,1.47,90.754,-7.0477,48.8066,18.1281,1.47,5.6908,
3.9196,-90.1521,-8.0283,82.0112,-2.9399,83.216,-10.5901,10.7792,75.754,6.8596,63.8066,33.1281,2.9399,7.8392,
-11.0804,-75.1521,5.3891,72.0235,-4.4094,68.216,4.4094,-4.2208,60.754,-8.1404,48.8066,18.1281,-4.4094,-4.4094,
-10.2889,-90.1521,-9.6109,87.0235,-19.4094,83.216,10.2889,6.3693,75.754,-6.3693,33.8066,9.3092,-19.4094,-19.4094,
-25.2889,-75.1521,5.3891,102.0235,-13.7191,98.216,25.2889,-8.6307,90.754,-21.3693,48.8066,-2.9399,-4.4094,-20.5777,
-10.2889,-86.7218,-0.48983,87.0235,-13.2283,83.216,10.2889,6.3693,75.754,-6.3693,63.8066,12.0601,0.48983,-5.5777,
-4.409,-85.7417,1.47,72.0235,-1.47,68.216,-4.7111,21.3693,60.754,8.6307,77.9029,27.0601,15.1891,9.4223,
-19.409,-70.7417,5.3896,87.0235,-6.3693,83.216,1.47,6.3693,52.425,-6.3693,62.9029,12.0601,2.4496,-5.5777,
-4.409,-85.7417,-9.6104,97.9908,-21.3693,86.232,-2.9395,1.9598,67.425,-1.9598,47.9029,21.5579,-12.5504,-4.8998,
-19.409,-70.7417,5.3896,112.9908,-20.5777,101.232,12.0605,-13.0402,82.425,-16.9598,48.016,6.5579,2.4496,-18.6184,
-4.409,-55.7417,-9.6104,97.9908,-12.7385,86.232,-2.9395,1.9598,67.425,-1.9598,56.8349,21.5579,1.9593,-3.6184,
1.47,-59.285,-2.4496,82.9908,-1.47,71.232,-17.9395,16.9598,52.425,13.0402,71.8349,36.5579,11.2685,11.3816,
-13.53,-44.285,10.2889,97.9908,-7.3499,86.232,-2.9395,1.9598,47.5257,-1.9598,56.8349,21.5579,-1.47,-3.6184,
1.47,-59.285,-4.7111,82.9908,-9.7995,71.232,-14.6988,16.9598,32.5257,13.0402,60.7545,33.3163,-16.47,6.8596,
-13.53,-44.285,10.2889,73.9828,-5.3901,63.2037,0.30121,1.9598,47.5257,-1.9598,65.1639,18.3163,-1.47,-8.1404,
1.47,-59.285,-0.97967,70.554,-11.7588,48.2037,-4.8993,-5.879,40.1767,-1.9593,60.7545,13.7191,0.97967,-7.8392,
-5.8799,-74.285,-15.9797,85.554,-21.5583,58.7942,-19.8993,0.97967,45.076,13.0407,63.6944,28.7191,-1.9603,-0.97967,
-20.8799,-59.285,-0.97967,100.554,-20.5782,73.7942,-4.8993,-14.0203,60.076,-1.9593,54.8751,13.7191,1.9598,-14.6983,
-5.8799,-74.285,-2.9395,85.554,-8.8194,58.7942,-19.8993,0.97967,45.076,13.0407,69.8751,28.7191,2.9395,0.30168,
-16.1678,-67.1237,12.0605,70.554,6.1806,43.7942,-4.8993,-4.409,30.076,6.3693,84.8751,28.9073,17.9395,-1.47,
-4.8993,-68.5937,0,85.554,-8.8194,58.7942,-19.8993,0,45.076,-3.9196,69.8751,18.6184,4.8993,-3.9196,
-2.4496,-83.5937,-15,100.554,-23.0274,73.7942,-14.2085,12.2491,60.076,2.4496,69.084,28.9073,-3.4293,-2.4496,
-17.4496,-68.5937,0,115.554,-11.269,88.7942,0.79151,-2.7509,75.076,-12.5504,56.345,13.9073,3.4298,-17.4496,
-2.4496,-66.1441,-1.4704,100.554,0.48984,73.7942,-14.2085,12.2491,60.076,2.4496,71.345,28.9073,-0.48984,-2.4496,
-17.4496,-51.1441,13.5296,85.554,2.939,58.7942,-29.2085,0.97967,45.076,0,79.372,29.3966,11.7588,0,
-3.4293,-40.6661,13.2288,100.554,-4.4099,73.7942,-14.2085,1.47,60.076,-8.3295,68.1034,20.0884,-3.2412,-4.4099,
1.47,-55.6661,-1.7712,115.554,-19.4099,88.7942,-1.47,1.47,75.076,-5.3896,53.4046,16.1688,-18.2412,-19.1087,
-13.53,-40.6661,13.2288,130.554,-4.8993,103.7942,13.53,-13.53,90.076,-20.3896,61.7342,1.1688,-3.2412,-19.5981,
1.47,-55.6661,5.8794,115.554,-5.8794,88.7942,-1.47,1.47,75.076,-5.3896,64.6746,16.1688,-16.6581,-4.5981,
13.2283,-40.6661,20.8794,100.554,0.48983,73.7942,-16.47,-0.48983,60.076,1.4695,76.9228,30.8671,-1.6581,-1.4695,
-1.7717,-25.6661,12.739,115.554,-11.7584,88.7942,-1.47,-15.4898,75.076,-13.5305,61.9228,15.8671,1.9598,-16.4695,
1.47,-40.6661,-2.261,130.554,-26.7584,103.7942,7.3499,-1.47,90.076,-1.47,47.5257,21.068,-13.0402,-22.0477,
-13.53,-55.6661,6.3693,145.554,-14.2085,118.7942,22.3499,-16.47,105.076,-16.47,62.5257,9.3092,-6.3693,-17.1484,
1.47,-70.6661,-8.6307,130.554,-1.96,103.7942,7.3499,-1.47,90.076,-1.47,77.5257,24.3092,1.96,-2.1484,
7.8392,-85.2519,-10.7792,115.554,-7.8392,88.7942,-7.6501,13.53,75.076,13.53,90.1521,39.3092,13.7191,12.8516,
-3.4298,-70.2519,4.2208,100.554,-8.33,86.7214,-1.4704,-1.47,75.9431,-0.48983,75.1521,24.3092,0.48983,-1.4704,
0.4903,-85.2519,-10.7792,115.554,-23.33,101.7214,1.47,-0.4903,90.9431,-1.47,60.1521,19.1078,-14.5102,-10.2889,
-14.5097,-70.2519,-1.47,130.554,-8.33,116.7214,16.47,-15.4903,105.9431,-16.47,69.084,4.1078,0.48983,-10.2889,
0.4903,-55.2519,1.47,115.554,-1.47,101.7214,1.47,-0.4903,90.9431,-1.47,69.0831,19.1078,-6.3693,4.7111,
3.4298,-57.3247,6.3697,100.554,-3.4298,86.7214,-13.53,4.4094,75.9431,6.3697,70.0632,34.1078,-3.4298,5.3891,
-8.3295,-42.3247,21.3697,115.1388,-5.3896,78.8826,1.47,-10.5906,60.9431,-8.6303,56.3446,19.1078,-1.47,-8.3295,
2.9395,-57.3247,6.3697,130.1388,-20.3896,93.8826,14.6983,-1.9598,75.9431,-19.5985,41.3446,4.1078,-16.47,-23.3295,
-12.0605,-42.3247,20.5782,145.1388,-5.3896,108.8826,29.6983,-16.9598,90.9431,-28.4174,56.3446,-1.9598,-13.7187,-21.5579,
2.9395,-39.1961,9.7986,130.1388,1.9593,93.8826,14.6983,-1.9598,75.9431,-13.4174,63.6944,13.0402,-16.6581,-6.5579,
0,-51.9347,20.5787,115.1388,3.9196,78.8826,-0.30168,2.9399,60.9431,1.5826,78.3932,26.4576,-1.6581,0,
-15,-36.9347,35.5787,130.1388,3.4293,93.8826,14.6983,-12.0601,58.3049,-13.4174,63.3932,11.4576,-3.4293,-15,
0,-51.9347,20.5787,115.1388,-6.8591,78.8826,0.98014,2.9399,43.3049,1.5826,72.5129,26.4576,-18.4293,-2.9395,
-15,-44.5857,10.2889,100.1388,-8.3286,63.8826,15.9801,-12.0601,58.3049,-13.4174,66.1441,11.4576,-3.4293,-17.9395,
-1.47,-58.3048,-2.4496,85.1388,-7.3489,48.8826,0.98014,-2.4496,43.3049,1.47,62.2245,16.1688,-18.1281,-2.9395,
-2.9399,-73.3048,-9.7995,70.1388,0,34.2969,-14.0199,0,28.3049,9.7995,73.493,27.4373,-28.417,1.9603,
-17.9399,-58.3048,5.2005,85.1388,1.9598,49.2969,0.98014,-15,43.3049,-5.2005,59.7744,12.4373,-13.417,-13.0397,
-2.9399,-73.3048,-8.3291,70.1388,1.47,34.2969,-14.0199,0,28.3049,9.7995,74.7744,27.4373,-1.47,1.9603,
-3.4298,-74.9634,6.6709,55.1388,4.4094,19.2969,-0.48984,0.48984,13.3049,12.2487,77.9025,34.7867,4.4094,-0.48984,
11.5702,-88.6816,-8.3291,64.1843,-10.5906,28.9077,-15.4898,-3.4298,28.3049,3.4298,62.9025,19.7867,-10.5906,-12.2487,
3.9196,-103.6816,-23.3291,79.1843,-25.5906,43.9077,-30.4898,-3.9196,43.3049,11.7588,57.8145,26.4576,-25.5906,-9.7995,
-11.0804,-88.6816,-8.3291,94.1843,-10.5906,58.9077,-15.4898,-18.9196,58.3049,-3.2412,53.8954,11.4576,-17.6383,-14.6983,
3.9196,-73.6816,-4.8998,79.1843,4.4094,43.9077,-30.4898,-3.9196,43.3049,11.7588,65.6533,26.4576,-17.6387,0.30168,
14.209,-62.2245,10.1002,64.1843,1.4695,28.9077,-45.4898,-6.3697,28.3049,3.4298,62.224,24.9881,-2.6387,-1.4695,
24.008,-61.2448,14.2085,79.1843,-9.3092,43.9077,-32.8269,-15.1891,43.3049,-8.3295,47.224,9.9881,-17.6387,-11.2695,
19.1082,-76.2448,-0.79151,94.1843,-24.3092,58.9077,-27.9276,-3.4298,58.3049,3.4298,34.7867,24.9881,-32.6387,-7.3494,
4.1082,-61.2448,10.7792,109.1843,-11.7588,73.9077,-12.9276,-18.4298,73.3049,-11.5702,39.1961,15.6785,-17.6387,-12.7385,
19.1082,-75.4528,0,94.1843,0,58.9077,-27.9276,-3.4298,58.3049,3.4298,54.1961,30.6785,-19.5981,2.2615,
10.2889,-71.0434,6.3693,79.1843,1.47,43.9077,-42.9276,-1.47,43.3049,11.2685,56.3446,28.9073,-13.2288,8.3295,
5.3901,-56.0434,-5.3891,94.1843,-13.2283,58.9077,-31.8468,-7.3494,58.3049,-3.4298,41.6463,22.0482,-16.1683,3.4298,
3.9196,-71.0434,-20.3891,109.1843,-28.2283,73.9077,-29.3966,-3.9196,73.3049,6.8596,32.3375,31.3578,-31.1683,-11.5702,
-11.0804,-56.0434,-5.3891,124.1843,-13.2283,88.9077,-14.3966,-18.9196,88.3049,-8.1404,44.5857,16.3578,-16.1683,-11.2695,
3.9196,-48.9957,0,109.1843,0,73.9077,-29.3966,-3.9196,73.3049,6.8596,54.8746,31.3578,-6.8596,3.7305,
4.4095,-39.6869,12.2487,94.1843,-4.4095,58.9077,-44.3966,3.4298,58.3049,12.2487,55.3644,36.746,-3.4298,13.2283,
-10.5905,-24.6869,15.6785,109.1843,-5.8799,73.9077,-29.3966,-11.5702,73.3049,-2.7513,40.3644,21.746,-9.7995,0.97967,
4.4094,-39.6869,0.67846,124.1843,-20.8799,88.9077,-14.3966,-10.2893,88.3049,2.4501,25.3644,20.0879,-24.7995,-2.4501,
-10.5906,-24.6869,15.1886,139.1843,-5.8799,103.9077,0.60336,-25.2893,103.3049,-12.5499,28.9068,5.0879,-9.7995,-17.4501,
4.4094,-21.5583,4.8993,124.1843,-4.8993,88.9077,-14.3966,-10.2893,88.3049,2.4501,41.1564,20.0879,-15.6785,-2.4501,
0.98014,-30.3768,4.8998,109.1843,-12.739,73.9077,-29.3966,3.9201,73.3049,14.6983,44.0959,34.2973,-0.98014,9.799,
-14.0199,-15.3768,17.6387,109.7501,-12.7385,87.2121,-14.3966,-11.0799,63.6944,-0.30168,29.0959,19.2973,-4.8993,-5.201,
0.98014,-28.9073,2.6387,124.7501,-14.2094,102.2121,0.60336,-16.1688,78.6944,-6.3693,25.9673,6.3693,-19.8993,-14.2094,
-14.0199,-24.0075,1.4695,139.7501,-12.2487,111.2196,15.6034,-22.0482,93.6944,-1.4695,34.7867,10.2893,-5.3891,-8.3291,
0.98014,-39.0075,-13.5305,124.7501,-2.4496,96.2196,0.60336,-7.0482,78.6944,13.5305,49.7867,25.2893,2.4496,6.6709,
