"AF3","AF4","F3","F4","F7","F8","FC5","FC6","O1","O2","P7","P8","T7","T8",
2.0513,-2.0513,48.7183,-20.5127,109.7437,-257.9485,-90.769,13.3335,-128.2051,20.5132,-56.4102,-156.4102,82.5645,76.9233,
17.0513,-17.0513,44.8717,-35.5127,94.7437,-250.5128,-105.769,28.3335,-143.2051,35.5132,-71.4102,-171.4102,70.5128,62.3077,
32.0513,-32.0513,46.6667,-46.6667,86.1536,-235.5128,-120.769,43.3335,-158.2051,50.5132,-86.4102,-186.4102,85.5128,74.8718,
47.0513,-43.0769,43.0769,-60,101.1536,-220.5128,-135.769,58.3335,-173.2051,65.5132,-101.4102,-171.4102,100.5128,89.8718,
62.0513,-58.0769,58.0769,-63.8462,100.769,-235.5128,-141.282,73.3335,-188.2051,80.5132,-96.1538,-186.4102,115.5128,95.6411,
47.0513,-43.0769,73.0769,-48.8462,107.9485,-250.5128,-126.282,58.3335,-173.2051,65.5132,-81.1538,-183.8462,100.7693,95.6409,
62.0513,-58.0769,58.0769,-49.7435,92.9485,-248.7179,-141.282,68.205,-188.2051,73.8461,-96.1538,-198.8462,85.7693,80.6409,
77.0513,-62.0513,62.0513,-64.7435,107.9485,-233.7179,-156.282,83.205,-203.2051,88.8461,-111.1538,-201.0256,100.7693,95.6409,
92.0513,-75.8975,75.8975,-79.7435,122.9485,-230.2563,-171.282,98.205,-218.2051,103.8461,-126.1538,-211.7947,115.7693,110.6409,
107.0513,-90.8975,90.8975,-94.7435,107.9485,-245.2563,-163.5897,113.205,-233.2051,114.359,-130.2565,-211.7948,130.7693,95.6409,
92.0513,-75.8975,75.8975,-79.7435,95.3843,-260.2563,-148.5897,98.205,-218.2051,99.359,-115.2565,-205.6411,115.7693,93.8462,
107.0513,-82.8204,69.4872,-69.4872,104.8719,-275.2563,-163.5897,104.8719,-233.2051,111.5385,-130.2565,-220.6411,109.9999,100.2565,
120.5127,-97.8204,81.0256,-81.0256,119.8719,-260.2563,-178.5897,119.4873,-248.2051,122.0513,-145.2565,-205.6411,124.9999,112.8203,
135.5127,-82.8204,66.0256,-66.0256,134.8719,-245.2563,-163.5897,134.4873,-233.2051,137.0513,-130.2565,-190.6411,139.9999,127.8203,
126.1536,-67.8204,51.0256,-51.0256,119.8719,-244.6155,-148.5897,119.4873,-218.2051,122.0513,-115.2565,-198.4617,124.9999,112.8203,
111.1536,-59.7435,59.7435,-61.7948,104.8719,-259.6155,-136.1539,104.4873,-203.2051,107.0513,-100.2565,-213.4617,115.1283,107.9486,
126.1536,-74.7435,74.7435,-76.1538,108.4614,-274.6155,-151.1539,119.4873,-218.2051,122.0513,-115.2565,-216.6667,130.1283,117.1794,
111.1536,-71.0258,59.7435,-61.1538,93.4614,-267.9489,-166.1539,104.4873,-233.2051,107.0513,-130.2565,-231.6667,115.1283,102.1794,
96.1536,-56.0258,44.7435,-46.1538,108.4614,-252.9489,-151.1539,89.4873,-218.2051,92.0513,-115.2565,-246.6667,101.2819,98.7179,
111.1536,-71.0258,54.1025,-54.1025,107.4358,-237.9489,-142.3076,104.4873,-203.2051,107.0513,-111.0256,-231.6667,116.2819,93.5896,
96.1536,-86.0258,69.1025,-69.1025,103.3335,-222.9489,-157.3076,99.231,-199.2307,98.2051,-126.0256,-216.6667,131.0259,97.6924,
108.7179,-101.0258,84.1025,-84.1025,88.7179,-237.9489,-172.3076,93.3331,-214.2307,101.5382,-141.0256,-230.2565,120.5128,98.9742,
93.7179,-86.0258,69.1025,-69.1025,88.9746,-252.9489,-158.7178,78.3331,-216.1538,86.5382,-137.6921,-245.2565,105.5128,83.9742,
78.7179,-71.0258,54.1025,-54.1025,103.9746,-254.8718,-143.7178,63.3331,-201.1538,71.5382,-122.6921,-230.2565,106.1541,98.9742,
93.7179,-81.795,51.5385,-51.5385,96.6664,-239.8718,-158.7178,78.3331,-213.077,86.5382,-132.0514,-215.2565,101.2821,83.9742,
94.6152,-96.795,59.7437,-59.7437,90,-224.8718,-173.7178,93.3331,-228.077,101.5382,-147.0514,-200.2565,116.2821,94.1025,
109.6152,-109.2307,62.0513,-62.0513,105,-239.8718,-188.7178,108.3331,-243.077,116.5382,-162.0514,-215.2565,131.2821,109.1025,
104.1025,-117.4358,71.282,-71.282,100.5127,-254.8718,-181.0256,99.4873,-228.077,101.5382,-147.6924,-230.2565,116.2821,94.1025,
89.1025,-102.4358,56.282,-82.5641,115.5127,-251.2821,-166.0256,105.641,-213.077,94.8719,-132.6924,-219.9999,119.4872,105.1283,
104.1025,-87.4358,68.718,-74.8718,106.6667,-236.2821,-168.2051,120.641,-220.5127,109.8719,-117.6924,-204.9999,120.5129,101.5386,
109.2307,-92.3076,67.1794,-67.1794,97.4358,-221.2821,-183.2051,121.0256,-235.5127,124.1028,-132.6924,-189.9999,122.0515,104.6155,
124.2307,-97.4358,65.6411,-65.6411,112.4358,-231.282,-198.2051,136.0256,-250.5127,139.1028,-147.6924,-204.6152,137.0515,119.6155,
109.7434,-89.2307,62.5642,-62.5642,105.1282,-246.282,-183.2051,121.0256,-235.5127,124.1028,-132.6924,-219.6152,122.0515,105.6409,
94.7434,-74.2307,77.5642,-66.4103,119.7435,-258.2052,-168.2051,106.0256,-220.5127,109.1028,-117.6924,-204.6152,107.0515,94.6151,
103.0769,-68.718,92.5642,-81.4103,106.6667,-266.6665,-181.5383,91.0256,-235.5127,94.1028,-132.6924,-219.6152,95.8977,79.6151,
118.0769,-70.7693,77.5642,-71.7949,121.6667,-251.6665,-170.7693,106.0256,-250.5127,109.1028,-147.6924,-210.2563,110.8977,94.6151,
133.0769,-61.5386,62.5642,-56.7949,136.6667,-236.6665,-164.6155,121.0256,-254.3589,124.1028,-154.3589,-208.718,125.8977,109.6151,
118.0769,-76.5386,71.5386,-71.5386,121.6667,-251.6665,-170.5129,106.0256,-239.3589,109.1028,-141.7949,-223.718,110.8977,94.6151,
103.0769,-61.5386,65.8975,-56.5386,111.0254,-252.5642,-155.5129,91.0256,-224.3589,94.1028,-126.7949,-208.718,95.8977,79.6151,
88.0769,-69.4871,50.8975,-41.5386,96.0254,-267.5642,-170.5129,76.0256,-235.1282,79.1028,-141.7949,-223.718,80.8977,64.6151,
73.0769,-63.077,41.0258,-41.0258,89.7435,-252.5642,-185.5129,65.1283,-250.1282,64.6156,-156.7949,-238.718,86.6669,64.1024,
88.0769,-48.077,37.6924,-53.0769,104.7435,-237.5642,-170.5129,80.1283,-244.8718,79.6156,-142.8206,-223.718,101.6669,79.1024,
103.0769,-63.077,52.6924,-64.359,113.59,-252.5642,-159.2308,95.1283,-229.8718,94.6156,-127.8206,-234.6154,116.6669,91.5385,
88.0769,-48.077,67.6924,-49.359,112.5642,-267.5642,-144.2308,80.1283,-214.8718,79.6156,-112.8206,-239.7437,101.6669,91.5383,
73.0769,-63.077,64.6154,-34.359,105.6412,-275.8973,-159.2308,65.1283,-229.8718,64.6156,-127.8206,-254.7437,86.6669,89.2306,
64.3588,-59.2308,55.641,-49.359,111.5385,-260.8973,-174.2308,65.3846,-214.8718,69.9999,-139.2308,-239.7437,99.2308,103.8461,
79.3588,-66.9231,66.9231,-64.359,122.3079,-245.8973,-189.2308,80.3846,-229.8718,84.9999,-149.4871,-224.7437,114.2308,118.8461,
94.3588,-81.9231,81.9231,-79.359,107.3079,-260.8973,-178.4614,95.3846,-244.1025,99.9999,-135.3845,-239.7437,129.2308,103.8461,
79.3588,-66.9231,66.9231,-64.359,94.8718,-275.8973,-163.4614,80.3846,-229.1025,84.9999,-120.3845,-254.7437,114.2308,90.7693,
94.3588,-81.9231,68.2051,-68.2051,96.4102,-290.8973,-178.4614,95.3846,-244.1025,99.9999,-135.3845,-269.7437,104.6152,105.7693,
106.6664,-96.9231,81.5385,-81.5385,109.2308,-275.8973,-193.4614,100.5126,-259.1025,112.3075,-150.3845,-254.7437,116.9232,106.6664,
112.0515,-81.9231,66.5385,-66.5385,124.2308,-260.8973,-178.4614,115.5126,-244.1025,124.3591,-135.3845,-239.7437,131.9232,121.6664,
108.7178,-66.9231,51.5385,-51.5385,109.2308,-254.8718,-163.4614,100.5126,-229.1025,109.3591,-127.1794,-224.7437,116.9232,106.6664,
93.7178,-80.5128,45.1283,-45.1283,94.2308,-250.7692,-178.4614,85.5126,-244.1025,94.3591,-142.1794,-229.2308,101.9232,91.6664,
108.7178,-94.8718,60.1283,-60.1283,107.1794,-265.7692,-193.4614,100.5126,-259.1025,109.3591,-157.1794,-244.2308,116.9232,106.6664,
93.7178,-79.8718,63.8461,-57.1796,92.1794,-280.7692,-178.4614,85.5126,-244.1025,94.3591,-142.1794,-259.2308,101.9232,91.6664,
78.7178,-64.8718,48.8461,-42.1796,107.1794,-295.7692,-163.4614,70.5126,-229.1025,79.3591,-127.1794,-244.2308,86.9232,88.4617,
71.2819,-55.3846,34.359,-34.359,101.5387,-280.7692,-148.4614,55.5126,-214.1025,64.6154,-117.4359,-229.2308,79.4874,93.3336,
86.2819,-70.3846,49.359,-49.359,116.5387,-265.7692,-163.4614,70.5126,-223.0768,79.6154,-132.4359,-214.2308,94.4874,108.3336,
101.2819,-85.3846,64.359,-64.359,112.564,-254.1025,-178.4614,85.5126,-238.0768,94.6154,-147.4359,-229.2308,109.4874,114.1025,
86.2819,-100.3846,63.8462,-62.3076,97.564,-269.1025,-171.5386,70.5126,-229.4873,79.6154,-148.9744,-244.2308,111.5386,99.1025,
71.2819,-85.3846,48.8462,-51.0255,112.564,-272.0511,-156.5386,69.4872,-214.4873,78.7181,-133.9744,-229.2308,126.5386,114.1025,
86.2819,-96.4103,63.8462,-66.0255,111.7948,-257.0511,-168.2052,84.4872,-199.4873,93.7181,-126.6666,-214.2308,128.205,107.1796,
101.2819,-111.4103,78.7179,-78.7179,123.3334,-242.0511,-157.1793,99.4872,-184.4873,108.7181,-111.6666,-199.2308,143.205,122.1796,
116.2819,-105.8973,80.7692,-80.7692,138.3334,-227.0511,-172.1793,114.4872,-199.4873,123.7181,-126.6666,-188.9742,158.205,137.1796,
131.2819,-102.5641,80.5128,-80.5128,123.3334,-242.0511,-185.1283,125.1283,-214.4873,138.4618,-141.6666,-203.9742,143.5897,122.1796,
116.2819,-87.5641,65.5128,-65.5128,122.5641,-257.0511,-170.1283,110.1283,-199.4873,123.4618,-126.6666,-214.8719,128.5897,107.1796,
101.2819,-76.1538,53.0769,-53.0769,107.5641,-242.0511,-155.1283,95.1283,-190,108.4618,-111.6666,-205.8975,113.5897,92.1796,
102.8208,-80.769,51.0256,-51.0256,93.5898,-227.0511,-170.1283,103.8462,-205,112.5645,-126.6666,-190.8975,124.8721,105.3848,
117.8208,-78.205,62.3077,-62.3077,108.5898,-212.0511,-185.1283,118.8462,-220,127.5645,-141.6666,-175.8975,139.8721,120.3848,
115.3846,-90.2562,59.4872,-59.4872,103.5897,-227.0511,-170.1283,106.1542,-205,118.9745,-126.6666,-190.8975,124.8721,105.3848,
100.3846,-75.2562,74.4872,-61.5385,115.3849,-242.0511,-155.1283,91.1542,-190,103.9745,-111.6666,-202.0511,111.795,104.1027,
115.3846,-83.0769,89.4872,-76.5385,110.2566,-257.0511,-170.1283,101.0256,-205,108.718,-126.6666,-217.0511,119.9998,89.1027,
124.3588,-77.6923,74.4872,-67.9486,125.2566,-242.0511,-182.8204,116.0256,-220,123.718,-141.6666,-202.3077,134.9998,104.1027,
139.3588,-63.0769,59.4872,-52.9486,140.2566,-227.0511,-167.8204,131.0256,-221.0256,138.718,-129.7437,-187.3077,149.9998,119.1027,
125.1283,-78.0769,64.1027,-64.1027,125.2566,-242.0511,-159.4872,116.0256,-206.0256,123.718,-115.8973,-202.3077,134.9998,104.1027,
110.1283,-63.0769,62.0514,-55.8976,110.2566,-257.0511,-144.4872,101.0256,-191.0256,108.718,-100.8973,-198.9745,119.9998,89.1027,
99.7437,-78.0769,58.2051,-58.2051,95.2566,-272.0511,-159.4872,86.0256,-206.0256,95.1284,-115.8973,-213.9745,104.9998,86.9233,
84.7437,-78.9745,46.6664,-43.2051,80.2566,-257.0511,-174.4872,71.0256,-221.0256,80.1284,-130.8973,-228.9745,89.9998,71.9233,
99.7437,-63.9745,34.359,-39.4872,95.2566,-242.0511,-159.4872,86.0256,-215.3846,95.1284,-115.8973,-213.9745,104.9998,86.9233,
114.7437,-77.4359,49.359,-54.4872,110.2566,-227.0511,-144.4872,101.0256,-200.3846,110.1284,-100.8973,-198.9745,119.9998,101.9233,
99.7437,-88.718,64.359,-69.4872,113.8459,-242.0511,-146.6667,98.4617,-197.436,113.3333,-108.718,-213.9745,134.9998,109.2307,
84.7437,-83.8461,74.1027,-54.4872,104.359,-257.0511,-161.6667,83.4617,-212.436,98.3333,-123.718,-228.9745,119.9998,94.2307,
69.7437,-68.8461,59.1027,-45.3845,112.5642,-242.0511,-149.4871,68.4617,-197.436,83.3333,-108.718,-213.9745,104.9998,92.5642,
84.7437,-57.1796,57.1796,-60.3845,123.3331,-227.0511,-164.4871,83.4617,-195.1283,98.3333,-93.718,-198.9745,119.9998,107.5642,
99.7437,-72.1796,72.1796,-75.3845,108.3331,-242.0511,-177.4359,98.4617,-210.1283,113.3333,-108.718,-213.9745,134.9998,95.3846,
97.9485,-80,63.0769,-63.0769,95.8972,-244.6155,-162.4359,104.1028,-225.1283,116.4104,-112.3076,-228.9745,127.1794,103.5896,
112.9485,-95,68.7179,-68.7179,97.4359,-231.7948,-177.4359,119.1028,-240.1283,131.4104,-127.3076,-230.7692,139.9999,118.5896,
104.1024,-85.1283,75.8973,-75.8973,85.1283,-246.7948,-173.8461,104.1028,-225.1283,116.4104,-114.359,-223.5897,124.9999,103.5896,
89.1024,-70.1283,60.8973,-60.8973,100.1283,-261.7948,-158.8461,89.1028,-210.1283,101.4104,-99.359,-219.4872,113.3334,93.8461,
104.1024,-63.8461,45.8973,-45.8973,95.641,-246.7948,-159.2308,97.1796,-206.4103,109.9999,-114.359,-204.4872,105.3846,82.8204,
101.282,-78.8461,58.718,-58.718,92.051,-231.7948,-174.2308,102.3079,-221.4103,106.9231,-129.359,-189.4872,112.5642,77.1794,
116.282,-93.8461,73.718,-73.718,107.051,-246.7948,-189.2308,117.3079,-236.4103,121.9231,-144.359,-204.4872,127.5642,92.1794,
101.282,-78.8461,64.1027,-64.1027,92.051,-261.7948,-174.2308,102.3079,-221.4103,106.9231,-129.359,-219.4872,112.5642,77.4357,
86.282,-63.8461,49.1027,-49.1027,107.051,-271.282,-159.2308,87.3079,-206.4103,91.9231,-114.359,-207.1794,97.5642,85.6411,
71.282,-51.0256,34.1027,-34.1027,101.2822,-256.282,-145.3845,72.3079,-191.4103,76.9231,-113.5898,-192.1794,82.5642,76.6665,
86.282,-66.0256,49.1027,-49.1027,116.2822,-241.282,-160.3845,87.3079,-176.4103,91.9231,-98.5898,-177.1794,97.5642,91.6665,
101.282,-81.0256,64.1027,-64.1027,125.8975,-256.282,-175.3845,102.3079,-191.4103,106.9231,-113.5898,-192.1794,112.5642,106.6665,
116.282,-76.9231,79.1027,-79.1027,110.8975,-271.282,-174.8718,110.7693,-206.4103,118.4617,-128.5898,-207.1794,126.1541,91.6665,
101.282,-61.9231,64.1027,-64.1027,114.8718,-261.5386,-159.8718,95.7693,-191.4103,103.4617,-113.5898,-213.3333,111.1541,92.8206,
93.5898,-75.6411,49.1027,-49.1027,99.8718,-246.5386,-158.2051,80.7693,-196.6667,88.4617,-118.2051,-212.5642,96.1541,77.8206,
108.5898,-84.8719,64.1027,-64.1027,104.8719,-231.5386,-173.2051,95.7693,-211.6667,103.4617,-133.2051,-197.5642,111.1541,92.8206,
123.5898,-81.5385,67.6923,-67.6923,119.8719,-216.5386,-188.2051,110.7693,-226.6667,118.4617,-148.2051,-189.2308,126.1541,107.8206,
108.5898,-71.0254,63.3333,-52.6923,104.8719,-231.5386,-173.2051,95.7693,-211.6667,103.4617,-133.2051,-204.2308,111.1541,92.8206,
93.5898,-56.0254,57.6921,-37.6923,98.718,-246.5386,-158.2051,80.7693,-196.6667,88.4617,-118.2051,-214.6155,96.1541,77.8206,
86.6666,-55.8973,48.2052,-48.2052,84.1027,-245.1281,-145.641,65.7693,-211.2821,74.8717,-115.3846,-211.7948,81.1541,68.7179,
85.1283,-44.6154,44.6154,-47.6923,92.3075,-230.1281,-160.641,79.4872,-226.2821,89.8717,-130.3846,-205.1283,96.1541,83.7179,
100.1283,-41.2821,41.2821,-45.8973,107.3075,-218.2052,-172.0514,94.4872,-234.1027,104.8717,-140.7692,-194.6154,111.1541,98.7179,
115.1283,-56.2821,56.2821,-56.4103,102.5641,-230.2562,-157.0514,109.4872,-219.1027,119.8717,-125.7692,-183.0768,126.1541,106.6666,
100.1283,-41.2821,71.2821,-61.2822,100.7693,-245.2562,-142.0514,94.4872,-204.1027,104.8717,-110.7692,-198.0768,111.1541,96.6667,
115.1283,-56.2821,86.2821,-76.2822,110,-260.2562,-157.0514,109.4872,-219.1027,119.8717,-125.7692,-213.0768,126.1541,90,
130.1283,-71.2821,100.2563,-91.2822,125,-245.2562,-172.0514,124.4872,-230,134.8717,-140.7692,-198.0768,141.1541,105,
129.7437,-66.6665,85.2563,-76.2822,140,-230.2562,-157.0514,127.6924,-215,136.4102,-125.7692,-183.0768,156.1541,120,
120.7694,-71.5385,70.2563,-61.7948,125,-245.2562,-142.0514,112.6924,-200,121.4102,-110.7692,-198.0768,141.1541,107.9486,
105.7694,-67.6924,67.6924,-76.7948,114.3589,-260.2562,-150.7693,97.6924,-185,106.4102,-100,-213.0768,144.1025,101.0254,
120.7694,-82.6924,80.2565,-80.2565,113.077,-272.0511,-165.7693,112.6924,-200,121.4102,-115,-228.0768,154.1024,108.9745,
105.7694,-97.6924,69.4872,-69.4872,101.7948,-257.0511,-180.7693,97.6924,-215,106.4102,-130,-214.6154,139.1024,93.9745,
96.4103,-82.6924,54.4872,-54.4872,116.7948,-242.0511,-165.7693,92.3077,-200,105.1281,-115,-199.6154,129.7438,108.9745,
111.4103,-67.6924,48.9744,-48.9744,105.3845,-227.0511,-150.7693,107.3077,-185,120.1281,-100,-184.6154,127.9485,117.6921,
104.8719,-69.4872,63.9744,-63.9744,104.8719,-212.0511,-149.4872,106.9232,-196.1537,121.7948,-113.0768,-199.6154,142.9485,122.8207,
119.8719,-84.4872,78.9744,-78.9744,117.4358,-227.0511,-164.4872,99.4871,-211.1537,123.0769,-128.0768,-214.6154,138.9744,115.3845,
104.8719,-99.4872,78.7179,-63.9744,112.5641,-242.0511,-178.2052,84.4871,-208.4615,108.0769,-129.4872,-207.4359,123.9744,100.3845,
119.8719,-84.4872,65.8975,-78.9744,127.5641,-227.0511,-163.2052,99.4871,-193.4615,123.0769,-114.4872,-192.4359,138.9744,115.3845,
134.8719,-80.7692,80.7692,-93.9744,112.5641,-215.641,-166.9232,114.4871,-197.1796,138.0769,-115.1283,-207.4359,145.3846,100.3845,
119.8719,-73.8463,65.7692,-78.9744,100.5128,-215.8976,-151.9232,110.7692,-212.1796,123.0769,-130.1283,-215.8976,135.8971,104.6154,
134.8719,-88.8463,67.9487,-67.9487,109.4871,-230.8976,-166.9232,125.7692,-227.1796,138.0769,-145.1283,-227.436,150.8971,119.6154,
119.8719,-73.8463,55.3846,-55.3846,94.4871,-245.8976,-151.9232,110.7692,-212.1796,123.0769,-130.1283,-236.4103,135.8971,104.6154,
104.8719,-58.8463,40.3846,-47.436,92.5642,-260.8976,-136.9232,95.7692,-197.1796,108.0769,-115.1283,-221.4103,120.8971,89.6154,
119.8719,-48.2051,47.1794,-47.1794,98.4614,-245.8976,-139.4873,93.3333,-185.6411,101.5383,-109.7437,-206.4103,120.5127,90.7693,
128.7178,-63.2051,62.1794,-62.1794,102.0513,-230.8976,-154.4873,108.3333,-200.6411,116.5383,-124.7437,-191.4103,135.5127,105.7693,
143.7178,-78.2051,77.1794,-77.1794,117.0513,-232.0514,-169.4873,123.3333,-215.6411,131.5383,-139.7437,-197.1796,150.5127,120.7693,
128.7178,-75.3846,73.3334,-73.3334,102.0513,-247.0514,-164.6154,108.3333,-200.6411,116.5383,-124.7437,-212.1796,135.5127,105.7693,
113.7178,-60.3846,58.3334,-58.3334,87.9487,-259.2305,-149.6154,93.3333,-185.6411,101.5383,-109.7437,-202.8203,120.5127,90.7693,
98.7178,-59.2307,43.3334,-43.3334,80.7693,-244.2305,-157.1794,78.3333,-177.1794,86.5383,-124.7437,-187.8203,105.5127,75.7693,
113.7178,-71.5385,58.3334,-58.3334,95.7693,-229.2305,-172.1794,93.3333,-190.5128,101.5383,-123.8461,-172.8203,120.5127,90.7693,
128.7178,-86.5385,73.3334,-73.3334,110.7693,-221.0258,-187.1794,108.3333,-205.5128,116.5383,-138.8461,-181.5385,135.5127,105.7693,
141.0256,-82.5642,82.5642,-88.3334,95.7693,-236.0258,-172.1794,123.3333,-218.9744,131.5383,-138.4614,-196.5385,134.3591,93.8462,
126.0256,-67.5642,67.5642,-73.3334,97.6921,-251.0258,-157.1794,108.3333,-203.9744,116.5383,-123.4614,-181.5385,119.3591,86.9231,
111.0256,-69.2307,52.5642,-58.3334,82.6921,-236.0258,-170.2563,93.3333,-202.5642,101.5383,-137.4358,-194.8718,104.3591,71.9231,
126.0256,-61.0256,61.0256,-65.6411,97.6921,-221.0258,-185.2563,108.3333,-217.5642,116.5383,-152.3076,-179.8718,119.3591,86.9231,
141.0256,-50.7692,50.7692,-78.9745,112.6921,-206.0258,-180.0001,123.3333,-224.1027,131.5383,-144.1027,-164.8718,134.3591,101.9231,
126.0256,-65.7692,51.7949,-63.9745,97.6921,-221.0258,-177.9487,108.3333,-209.1027,116.5383,-129.1027,-179.8718,119.3591,86.9231,
111.0256,-50.7692,66.7949,-48.9745,100.2563,-236.0258,-162.9487,93.3333,-194.1027,101.5383,-114.1027,-194.8718,104.3591,75.6411,
115.3845,-65.7692,67.1794,-63.9745,104.1028,-251.0258,-159.4871,88.718,-209.1027,101.5383,-129.1027,-209.8718,111.7947,90.6411,
130.3845,-80.7692,82.1794,-78.9745,119.1028,-236.0258,-174.4871,103.718,-203.8462,116.5383,-132.5642,-194.8718,126.7947,105.6411,
125.6411,-65.7692,67.1794,-63.9745,134.1028,-221.0258,-171.7949,118.718,-188.8462,131.5383,-117.5642,-179.8718,141.7947,120.6411,
110.6411,-50.7692,52.1794,-48.9745,119.1028,-236.0258,-156.7949,103.718,-173.8462,116.5383,-102.5642,-194.8718,126.7947,105.6411,
95.6411,-59.2308,59.2308,-63.9745,104.1028,-251.0258,-141.7949,88.718,-168.9745,101.5383,-87.5642,-209.8718,111.7947,94.1024,
110.6411,-74.2308,74.2308,-78.9745,97.6923,-266.0258,-156.7949,103.718,-183.9745,116.5383,-102.5642,-211.5385,126.7947,101.2821,
95.6411,-59.2308,80.5127,-64.1025,95.8975,-251.0258,-171.7949,88.718,-198.9745,101.5383,-117.5642,-226.5385,111.7947,86.2821,
110.6411,-44.2308,65.5127,-49.1025,110.8975,-236.0258,-156.7949,103.718,-195.3845,116.5383,-114.3589,-211.7949,126.7947,101.2821,
125.6411,-59.2308,56.1538,-56.1538,106.4102,-221.0258,-142.3079,118.718,-180.3845,131.5383,-106.4104,-196.7949,121.7949,90,
110.6411,-56.6667,56.6667,-71.0256,96.1541,-231.5386,-156.6667,103.718,-165.3845,116.5383,-115.1282,-181.7949,107.4358,85.3845,
125.6411,-71.6667,71.6667,-73.8461,111.1541,-246.5386,-171.6667,118.718,-180.3845,131.5383,-130.1282,-196.7949,122.4358,100.3845,
126.6664,-86.6667,77.4359,-77.4359,116.41,-231.5386,-180.5128,107.1796,-195.3845,117.9486,-145.1282,-211.7949,131.7948,98.4613,
111.6664,-71.6667,62.4359,-62.4359,131.41,-216.5386,-165.5128,92.1796,-180.3845,102.9486,-130.1282,-196.7949,133.8464,113.4613,
96.6664,-57.9486,47.4359,-47.4359,116.41,-201.5386,-150.5128,77.1796,-165.3845,87.9486,-115.1282,-181.7949,118.8464,98.4613,
99.2306,-72.9486,54.6154,-54.6154,105.3844,-213.077,-165.5128,92.1796,-180.3845,102.9486,-130.1282,-166.7949,122.8204,103.3331,
114.2306,-87.9486,69.6154,-69.6154,112.3076,-228.077,-180.5128,107.1796,-195.3845,117.9486,-145.1282,-181.7949,137.8204,118.3331,
99.2306,-72.9486,54.6154,-54.6154,97.3076,-243.077,-165.5128,92.1796,-180.3845,102.9486,-130.1282,-196.7949,122.8204,103.3331,
84.2306,-57.9486,39.6154,-42.8206,105.8975,-258.077,-150.5128,77.1796,-165.3845,87.9486,-115.1282,-205.8975,107.8204,90,
99.2306,-54.1025,54.1025,-57.8206,112.5642,-243.077,-135.5128,92.1796,-180.3845,102.9486,-113.5898,-190.8975,122.8204,98.718,
114.2306,-69.1025,65.1282,-65.1282,110.7695,-228.077,-150.5128,107.1796,-195.3845,117.9486,-128.5898,-175.8975,137.8204,113.718,
129.2306,-84.1025,73.5897,-73.5897,125.7695,-223.3334,-165.5128,122.1796,-210.3845,132.9486,-143.5898,-190.8975,152.8204,128.718,
114.2306,-99.1025,73.5897,-73.5897,122.8207,-238.3334,-156.6666,107.1796,-195.3845,117.9486,-128.5898,-205.8975,137.8204,113.718,
99.2306,-84.1025,58.5897,-60.2563,131.0259,-253.3334,-141.6666,92.1796,-180.3845,102.9486,-113.5898,-198.2051,122.8204,105.8975,
114.2306,-69.1025,48.9744,-48.9744,116.0259,-238.3334,-156.6666,91.5386,-195.3845,108.9746,-128.5898,-183.2051,107.8204,93.0769,
122.3076,-84.1025,63.9744,-63.9744,101.0259,-223.3334,-171.6666,106.5386,-180.3845,123.9746,-113.5898,-168.2051,122.8204,108.0769,
137.3076,-85.3846,78.7179,-78.9744,116.0259,-208.3334,-176.6666,121.5386,-178.7179,138.9746,-98.5898,-153.2051,137.8204,123.0769,
122.3076,-72.0514,66.4103,-66.4103,101.0259,-223.3334,-161.6666,106.5386,-193.7179,123.9746,-113.5898,-168.2051,122.8204,108.0769,
107.3076,-57.0514,51.4103,-51.4103,94.6155,-238.3334,-146.6666,91.5386,-178.7179,108.9746,-109.4873,-183.2051,107.8204,93.0769,
92.3076,-58.2051,43.8462,-43.8462,85.8972,-223.3334,-161.6666,76.5386,-164.8718,93.9746,-124.4873,-177.1794,92.8204,83.3333,
107.3076,-63.3334,58.8462,-58.8462,100.8972,-208.3334,-176.6666,91.5386,-179.8718,108.9746,-139.4873,-177.1796,107.8204,98.3333,
122.3076,-74.8717,73.8462,-73.8462,115.8972,-193.3334,-191.6666,106.5386,-194.8718,123.9746,-154.4873,-192.1796,122.8204,113.3333,
137.3076,-75.8975,81.5383,-88.8462,106.1538,-208.3334,-176.6666,121.5386,-197.9487,138.9746,-139.4873,-207.1796,121.5383,98.3333,
122.3076,-60.8975,66.5383,-73.8462,114.6152,-223.3334,-161.6666,106.5386,-182.9487,123.9746,-124.4873,-222.1796,106.5383,83.3333,
107.3076,-59.7435,71.0258,-58.8462,122.3075,-238.3334,-159.7435,91.5386,-197.9487,108.9746,-139.4873,-228.9742,91.5383,86.9232,
122.3076,-74.7435,83.8462,-73.8462,137.3075,-223.3334,-174.7435,106.5386,-197.1794,123.9746,-147.4358,-213.9742,106.5383,101.9232,
137.3076,-59.7435,68.8462,-88.8462,152.3075,-208.3334,-159.7435,121.5386,-184.1025,138.9746,-132.4358,-198.9742,121.5383,116.9232,
122.3076,-44.7435,53.8462,-73.8462,137.3075,-223.3334,-144.7435,106.5386,-199.1025,123.9746,-130.2563,-213.9742,106.5383,101.9232,
107.3076,-29.7435,64.8721,-58.8462,122.3075,-238.3334,-129.7435,91.5386,-184.1025,108.9746,-115.2563,-228.9742,91.5383,86.9232,
119.7433,-44.7435,66.4103,-73.8462,107.3075,-245.8976,-144.7435,87.9489,-199.1025,95.1281,-130.2563,-217.6923,94.6154,80.2562,
104.7433,-50.5128,51.4103,-65.8973,100.7694,-235.641,-159.7435,80.7694,-214.1025,85.3846,-145.2563,-232.6923,101.2821,78.205,
111.2821,-35.5128,36.4103,-50.8973,110.2562,-229.7435,-157.9486,95.7694,-211.7948,100.3846,-147.6923,-238.9742,116.2821,93.205,
126.2821,-41.282,41.282,-54.1025,95.2562,-214.7435,-142.9486,110.7694,-196.7948,115.3846,-132.6923,-223.9742,126.4102,94.1025,
115.1283,-50.5128,50.5128,-69.1025,89.4872,-229.7435,-127.9486,113.5897,-184.359,116.6664,-117.6923,-208.9742,127.4359,93.5897,
130.1283,-65.5128,65.5128,-84.1025,96.1538,-244.7435,-142.9486,128.5897,-199.359,131.6664,-132.6923,-223.9742,142.4359,91.0256,
115.1283,-59.4873,63.0767,-69.1025,81.1538,-259.7435,-157.9486,113.5897,-214.359,116.6664,-147.6923,-238.9742,127.4359,76.0256,
100.1283,-44.4873,48.0767,-54.1025,96.1538,-244.7435,-142.9486,98.5897,-199.359,101.6664,-132.6923,-244.6155,112.4359,84.6152,
115.1283,-59.4873,59.4872,-59.4872,100.0001,-229.7435,-157.4359,113.5897,-184.359,116.6664,-120.5128,-229.6155,126.1539,92.3077,
130.1283,-74.4873,74.4872,-74.4872,115.0001,-214.7435,-172.4359,128.5897,-191.7949,131.6664,-125.6411,-214.6155,141.1539,107.3077,
145.1283,-89.4873,71.282,-71.282,100.0001,-229.2307,-187.4359,143.5897,-206.7949,146.6664,-140.6411,-223.0769,151.7949,122.3077,
130.1283,-74.4873,56.282,-56.282,85.0001,-244.2307,-202.4359,128.5897,-221.7949,131.6664,-155.6411,-238.0769,136.7949,107.3077,
115.1283,-59.4873,41.282,-41.282,72.0513,-259.2307,-187.4359,113.5897,-206.7949,116.6664,-140.6411,-253.0769,121.7949,92.3077,
128.718,-54.3589,52.8206,-52.8206,87.0513,-244.2307,-172.4359,112.8206,-191.7949,113.8464,-125.6411,-238.0769,116.9231,96.4104,
121.0258,-69.3589,61.5385,-61.5385,83.077,-229.2307,-187.4359,127.1796,-206.7949,126.6664,-140.6411,-223.0769,125.641,101.5385,
136.0258,-83.0769,57.9487,-57.9487,86.1538,-214.2307,-202.4359,142.1796,-221.7949,141.6664,-155.6411,-208.0769,139.4871,115.3845,
121.0258,-68.0769,48.2051,-48.2051,78.4617,-229.2307,-187.4359,127.1796,-206.7949,126.6664,-140.6411,-223.0769,124.4871,100.3845,
106.0258,-53.0769,46.1541,-62.564,93.4617,-238.9741,-172.4359,112.1796,-191.7949,111.6664,-125.6411,-213.3333,109.4871,101.5388,
103.0768,-68.0769,61.1541,-77.564,88.7179,-223.9741,-157.4359,97.1796,-206.7949,96.6664,-114.8719,-198.3333,124.4871,93.3331,
118.0768,-66.1538,66.1538,-84.6152,103.7179,-208.9741,-172.4359,112.1796,-191.7949,111.6664,-125.6409,-183.3333,139.4871,108.3331,
133.0768,-66.6667,60,-69.6152,118.4614,-193.9741,-186.1538,127.1796,-206.7949,126.6664,-140.6409,-168.3333,154.4871,123.3331,
118.0768,-75.1282,61.282,-61.282,103.4614,-208.9741,-171.1538,112.1796,-191.7949,111.6664,-126.9231,-183.3333,139.4871,108.3331,
103.0768,-60.1282,46.282,-62.8204,88.4614,-223.9741,-156.1538,97.1796,-176.7949,96.6664,-111.9231,-193.5897,124.4871,94.1024,
104.3588,-55.1283,44.8717,-47.8204,81.7948,-225.3846,-171.1538,86.4103,-178.7179,93.5897,-118.2052,-182.3077,109.4871,82.8204,
89.3588,-70.1283,42.0514,-42.0514,66.7948,-210.3846,-186.1538,75.8976,-193.7179,78.9742,-133.2052,-180.0001,94.4871,67.8204,
104.3588,-55.1283,49.9999,-57.0514,81.7948,-195.3846,-177.6923,90.8976,-208.7179,93.9742,-148.2052,-168.9742,109.4871,82.8204,
119.3588,-63.3334,63.3334,-72.0514,82.3077,-210.3846,-162.6923,105.8976,-193.7179,108.9742,-133.2052,-183.9742,124.4871,97.1796,
104.3588,-48.3334,65.8975,-57.0514,79.7437,-225.3846,-147.6923,90.8976,-178.7179,93.9742,-118.2052,-198.9742,109.4871,82.1796,
89.3588,-33.3334,70.7692,-42.0514,87.6925,-240.3846,-162.6923,75.8976,-193.7179,78.9742,-133.2052,-202.0511,94.4871,90.2565,
104.3588,-48.3334,55.7692,-57.0514,102.6925,-225.3846,-165.8975,90.8976,-204.8718,93.9742,-141.2822,-187.0511,109.4871,105.2565,
119.3588,-61.0256,61.0256,-72.0514,117.6925,-210.3846,-172.8203,105.8976,-218.9744,108.9742,-140,-172.0511,124.4871,120.2565,
134.3588,-76.0256,76.0256,-87.0514,102.6925,-225.3846,-163.5897,120.8976,-212.8204,123.9742,-145.641,-187.0511,136.923,105.2565,
119.3588,-61.0256,61.0256,-72.0514,87.6925,-240.3846,-148.5897,105.8976,-197.8204,108.9742,-130.641,-202.0511,121.923,90.2565,
134.3588,-76.0256,63.8462,-63.8462,72.6925,-253.0769,-163.5897,114.1025,-212.8204,123.9742,-145.641,-217.0511,122.8203,94.6155,
149.3588,-91.0256,78.8462,-78.8462,87.6925,-238.0769,-178.5897,129.1025,-214.6154,138.9742,-151.5385,-202.0511,137.8203,109.6155,
164.3588,-76.0256,63.8462,-65.8973,102.6925,-223.0769,-163.5897,144.1025,-199.6154,153.9742,-136.5385,-187.0511,152.8203,124.6155,
179.3588,-61.0256,48.8462,-75.3848,90.7693,-215.8975,-148.5897,159.1025,-184.6154,168.9742,-121.5385,-197.436,143.5896,127.6924,
164.3588,-61.5385,61.5385,-89.7438,81.5382,-230.8975,-133.5897,144.1025,-199.6154,153.9742,-110.2565,-212.436,140.0001,130.2565,
149.3588,-76.5385,73.3334,-74.7438,85.1281,-245.8975,-148.5897,129.1025,-214.6154,138.9742,-125.2565,-227.436,129.7438,120.0001,
134.3588,-61.5385,58.3334,-59.7438,75.641,-230.8975,-163.5897,114.1025,-203.3334,123.9742,-140.2565,-234.1024,114.7438,105.0001,
119.3588,-46.5385,43.3334,-46.4103,90.641,-215.8975,-148.5897,112.0514,-188.3334,118.7179,-125.2565,-220.7692,129.7438,118.2052,
134.3588,-45.1282,45.1282,-61.4103,87.1794,-200.8975,-133.5897,127.0514,-177.9487,133.7179,-110.2565,-205.7692,143.5896,116.9231,
119.3588,-60.1282,60.1282,-61.5385,84.1024,-185.8975,-147.1796,112.0514,-192.9487,118.7179,-123.5897,-190.7692,134.3588,116.41,
111.5383,-75.1282,67.9487,-67.9487,81.282,-200.8975,-162.1796,98.2048,-207.9487,104.3586,-138.5897,-205.7692,124.8718,115.1282,
96.5383,-63.5896,57.9487,-52.9487,70.2563,-215.8975,-172.8203,83.2048,-202.564,89.3586,-149.2307,-220.7692,109.8718,100.1282,
81.5383,-48.5896,42.9487,-42.8206,81.7947,-230.8975,-157.8203,68.2048,-187.564,74.3586,-134.2307,-230.5129,105.8972,85.1282,
96.5383,-63.5896,43.3334,-43.3334,74.6154,-215.8975,-157.1796,83.2048,-176.6666,89.3586,-128.4615,-215.5129,114.6156,95.1283,
111.5383,-78.5896,58.3334,-58.3334,88.7178,-200.8975,-172.1796,98.2048,-187.6924,104.3586,-122.0513,-200.5129,129.6156,110.1283,
126.5383,-81.0258,73.3334,-73.3334,103.7178,-206.6666,-187.1796,113.2048,-202.6924,119.3586,-137.0513,-190.7692,144.6156,125.1283,
111.5383,-89.9998,58.3334,-58.3334,88.7178,-221.6666,-194.1023,98.2048,-203.3333,104.3586,-151.0254,-205.7692,129.6156,110.1283,
96.5383,-74.9998,43.3334,-43.3334,85.8975,-236.6666,-179.1023,83.2048,-188.3333,89.3586,-136.0254,-220.7692,114.6156,95.1283,
111.5383,-60.2566,48.9744,-48.9744,95.6409,-221.6666,-164.1023,98.2048,-192.5642,104.3586,-124.3591,-205.7692,120.2563,105.3845,
126.5383,-75.2566,63.9744,-63.9744,98.9744,-206.6666,-179.1023,113.2048,-177.5642,119.3586,-117.9487,-190.7692,135.2563,120.3845,
141.5383,-64.6154,64.6154,-67.6923,112.3077,-191.6666,-193.3334,128.2048,-192.5642,134.3586,-132.9487,-175.7692,150.2563,135.3845,
126.5383,-63.3334,54.6154,-54.6154,97.3077,-206.6666,-178.3334,113.2048,-195.641,119.3586,-128.9745,-190.7692,135.2563,120.3845,
111.5383,-48.3334,44.359,-69.6154,91.0255,-219.2308,-163.3334,98.2048,-180.641,104.3586,-113.9745,-205.7692,120.2563,105.3845,
126.5383,-63.3334,59.359,-84.6154,81.2822,-204.2308,-168.9744,113.2048,-195.641,119.3586,-128.9745,-206.9231,132.0513,97.6924,
141.5383,-57.4358,56.4102,-69.6154,96.2822,-189.2308,-183.9744,128.2048,-210.641,134.3586,-143.9745,-191.9231,136.9231,112.6924,
156.5383,-58.718,42.8206,-54.6154,111.2822,-174.2308,-198.9744,143.2048,-225.641,149.3586,-158.9745,-176.9231,151.9231,127.6924,
171.5383,-73.718,57.8206,-69.6154,104.8718,-189.2308,-183.9744,158.2048,-210.641,164.3586,-143.9745,-191.9231,163.8459,123.8462,
156.5383,-61.282,57.6924,-84.6154,105.8975,-204.2308,-168.9744,143.2048,-195.641,149.3586,-128.9745,-192.0513,148.8459,110,
141.5383,-67.6924,51.282,-69.6154,90.8975,-219.2308,-183.9744,128.2048,-210.641,134.3586,-143.9745,-202.0513,133.8459,96.4102,
126.5383,-81.7949,36.282,-54.6154,75.8975,-204.2308,-198.9744,113.2048,-225.641,119.3586,-158.9745,-187.0513,118.8459,81.4102,
141.5383,-66.7949,39.4872,-39.6154,90.8975,-189.2308,-188.7179,128.2048,-235.3846,134.3586,-143.9745,-172.0513,133.8459,96.4102,
156.5383,-56.9231,54.4872,-54.6154,104.6152,-193.3335,-173.7179,143.2048,-220.3846,149.3586,-128.9745,-187.0513,148.8459,111.4102,
141.5383,-41.9231,62.564,-51.2822,89.6152,-208.3335,-158.7179,128.2048,-205.3846,134.3586,-113.9745,-202.0513,133.8459,96.4102,
126.5383,-51.2821,72.8207,-43.5897,85.641,-223.3335,-173.7179,113.2048,-212.3077,119.3586,-128.9745,-205.1283,118.8459,96.41,
111.5383,-66.1537,57.8207,-52.8204,100.641,-208.3335,-168.7179,98.2048,-227.3077,104.3586,-143.9745,-196.41,133.8459,111.41,
126.5383,-60.5128,60.5128,-67.8204,115.641,-193.3335,-156.923,113.2048,-235.3846,119.3586,-139.9999,-181.41,148.8459,126.41,
141.5383,-73.8462,73.8462,-82.8204,100.641,-194.8718,-163.5898,128.2048,-220.3846,134.3586,-126.1538,-189.7437,145.1282,111.41,
126.5383,-58.8462,58.8462,-82.8203,85.641,-209.8718,-148.5898,113.2048,-205.3846,119.3586,-111.1538,-204.7437,130.1282,96.6667,
141.5383,-73.8462,56.9231,-67.8203,94.8718,-224.8718,-163.5898,128.2048,-220.3846,134.3586,-126.1538,-219.7437,138.4614,111.6667,
129.2308,-88.8462,71.9231,-81.5385,104.1024,-209.8718,-178.5898,122.0511,-235.3846,119.4872,-141.1538,-204.7437,152.308,119.9999,
144.2308,-73.8462,56.9231,-79.9999,119.1024,-194.8718,-163.5898,137.0511,-220.3846,134.4872,-126.1538,-189.7437,167.308,134.9999,
145.1284,-58.8462,43.0769,-64.9999,104.1024,-209.8718,-148.5898,130.2563,-205.3846,135.3848,-111.1538,-204.7437,152.308,119.9999,
130.1284,-73.8462,45.8973,-49.9999,89.1024,-224.8718,-163.5898,115.2563,-220.3846,120.3848,-126.1538,-219.7437,137.308,104.9999,
145.1284,-88.8462,60.8973,-64.9999,88.4614,-237.1794,-178.5898,130.2563,-235.3846,135.3848,-141.1538,-234.7437,139.7437,118.2051,
130.1284,-73.8462,55.3846,-57.4359,83.59,-252.1794,-163.5898,115.2563,-220.3846,120.3848,-126.1538,-219.7437,124.7437,103.2051,
115.1284,-58.8462,40.3846,-42.4359,95.1281,-267.1794,-148.5898,100.2563,-205.3846,105.3848,-111.1538,-234.7437,121.2819,118.2051,
130.1284,-58.2051,55.3846,-57.1794,106.9231,-252.1794,-141.7949,115.2563,-190.3846,120.3848,-96.1538,-219.7437,136.2819,130.5129,
136.4103,-73.2051,41.5385,-72.1794,91.9231,-237.1794,-156.7949,130.2563,-175.3846,135.3848,-111.1538,-204.7437,132.8204,115.5129,
151.4103,-88.2051,56.5385,-87.1794,106.9231,-222.1794,-171.7949,145.2563,-190.3846,150.3848,-123.0769,-189.7437,147.8204,130.5129,
136.4103,-73.2051,46.6667,-85.6411,91.9231,-237.1794,-160.5127,130.2563,-205.3846,135.3848,-125.6411,-204.7437,132.8204,115.5129,
121.4103,-58.2051,31.6667,-70.6411,97.1792,-232.5642,-145.5127,115.2563,-190.3846,120.3848,-110.6411,-189.7437,117.8204,100.5129,
119.231,-58.718,40.2563,-55.6411,90.5127,-217.5642,-156.1538,102.3076,-175.3846,105.3848,-109.4871,-174.7437,115.1284,108.9741,
134.231,-65.1281,55.2563,-70.6411,105.5127,-202.5642,-171.1538,117.3076,-190.3846,120.3848,-124.4871,-159.7437,130.1284,123.9741,
149.231,-69.2307,69.2307,-85.6411,120.5127,-187.5642,-186.1538,132.3076,-205.3846,135.3848,-130.2566,-174.7437,145.1284,138.9741,
134.231,-84.2307,54.2307,-70.6411,105.5127,-202.5642,-191.5385,117.3076,-220.3846,120.3848,-145.2566,-189.7437,130.1284,123.9741,
119.231,-69.2307,39.2307,-55.6411,90.5127,-217.5642,-176.5385,102.3076,-205.3846,105.3848,-130.2566,-204.7437,115.1284,108.9741,
104.231,-54.2307,33.0769,-40.6411,92.0513,-202.5642,-161.5385,91.0254,-190.3846,94.6152,-115.2566,-189.7437,100.2563,103.8462,
97.4359,-39.2307,33.3334,-51.7948,81.5385,-187.5642,-176.5385,96.9232,-205.3846,99.4872,-130.2566,-174.7437,115.2563,109.7435,
112.4359,-53.0769,48.3334,-51.0256,96.5385,-186.4104,-191.5385,111.9232,-218.2051,114.4872,-145.2566,-176.1538,130.2563,124.7435,
97.4359,-68.0769,63.3334,-63.5897,100.5126,-201.4104,-176.5385,96.9232,-203.2051,99.4872,-130.2566,-191.1538,119.9999,112.3075,
82.4359,-53.0769,48.3334,-78.5897,95.1282,-216.4104,-161.5385,81.9232,-188.2051,84.4872,-115.2566,-201.282,112.5642,105.8972,
97.4359,-68.0769,63.3334,-78.4614,82.5642,-210.7693,-173.3333,96.9232,-203.2051,99.4872,-120,-206.1538,127.1797,106.6667,
112.4359,-71.2821,62.5641,-63.4614,97.5642,-195.7693,-188.3333,111.9232,-194.359,114.4872,-135,-191.1538,142.1797,121.6667,
127.4359,-56.2821,47.5641,-62.5642,112.5642,-180.7693,-178.4614,126.9232,-200.5127,129.4872,-127.6924,-176.1538,157.1797,136.6667,
142.4359,-57.6924,57.6924,-68.4614,111.0256,-195.7693,-163.4614,141.9232,-185.5127,144.4872,-112.6924,-173.0769,150,137.6924,
127.4359,-55.641,42.6924,-81.7948,96.0256,-210.7693,-148.4614,126.9232,-170.5127,129.4872,-97.6924,-188.0769,135,122.6924,
121.0258,-70.641,57.6924,-66.7948,102.5643,-206.6666,-163.4614,111.9232,-185.5127,114.4872,-112.6924,-183.5897,127.6923,119.4872,
106.0258,-85.641,42.6924,-51.7948,87.5643,-221.6666,-178.4614,96.9232,-200.5127,99.4872,-127.6924,-198.5897,112.6923,104.4872,
109.2306,-70.641,27.6924,-36.7948,102.5643,-206.6666,-171.7948,111.9232,-215.5127,114.4872,-134.359,-183.5897,127.6923,119.4872,
124.2306,-55.641,42.6924,-51.7948,116.6666,-191.6666,-156.7948,126.9232,-200.5127,129.4872,-119.359,-168.5897,142.6923,134.4872,
109.2306,-55.641,55.641,-66.7948,101.6666,-206.6666,-147.4357,111.9232,-185.5127,114.4872,-104.359,-183.5897,134.6156,125.8973,
94.2306,-70.641,66.9232,-61.7948,91.0258,-221.6666,-162.4357,96.9232,-200.5127,99.4872,-119.359,-198.5897,119.6156,110.8973,
79.2306,-71.0256,51.9232,-51.5383,106.0258,-206.6666,-169.4871,81.9232,-215.5127,84.4872,-134.359,-187.4358,113.5896,106.4104,
94.2306,-56.0256,47.9486,-66.5383,121.0258,-191.6666,-154.4871,96.9232,-204.359,99.4872,-119.359,-172.4358,128.5896,121.4104,
109.2306,-71.0256,62.9486,-81.5383,106.0258,-199.4873,-149.7437,111.9232,-191.2822,114.4872,-105.1282,-173.3335,143.5896,128.7178,
106.6665,-56.0256,52.3076,-71.282,104.1025,-210.2563,-159.4873,126.6665,-200.5129,122.0513,-120.1282,-188.3335,131.2822,125.1284,
121.6665,-71.0256,57.1794,-57.1794,108.9744,-216.6667,-174.4873,141.6665,-215.5129,137.0513,-135.1282,-203.3335,141.2822,133.0769,
106.6665,-78.4617,50.7693,-50.7693,93.9744,-231.6667,-159.4873,126.6665,-200.5129,122.0513,-123.0769,-218.3335,126.2822,118.0769,
95.3849,-63.4617,35.7693,-54.359,108.9744,-246.6667,-144.4873,111.6665,-185.5129,107.0513,-108.0769,-209.2308,141.2822,133.0769,
110.3849,-64.6155,49.2307,-49.2307,120.5129,-231.6667,-130.2563,126.6665,-175.8975,122.0513,-94.3589,-194.2308,134.3589,134.8718,
95.3849,-79.6155,49.2308,-49.2308,105.5129,-216.6667,-145.2563,111.6665,-190.8975,109.7435,-109.3589,-179.2308,119.3589,120.5131,
110.3849,-91.7949,60,-60,120.5129,-226.6667,-160.2563,126.6665,-205.8975,124.7435,-124.3589,-178.4614,134.3589,135.5131,
107.6924,-76.7949,55.3845,-56.9231,115.3848,-241.6667,-145.2563,111.6665,-190.8975,109.7435,-109.3589,-193.4614,144.1025,126.6665,
92.6924,-61.7949,40.3845,-45.1282,121.5383,-228.7178,-130.2563,96.6665,-175.8975,94.7435,-94.3589,-178.4614,131.282,137.4358,
107.6924,-61.2821,46.4103,-46.4103,115.1283,-213.7178,-140.7692,110.5131,-173.077,109.7435,-85.3846,-163.4614,121.7948,122.8207,
122.6924,-76.2821,61.4103,-61.4103,127.9487,-198.7178,-155.7692,125.5131,-178.2051,124.7435,-100.3846,-148.4614,136.7948,137.8207,
137.6924,-91.2821,76.4103,-76.4103,142.9487,-184.6154,-170.7692,140.5131,-193.2051,139.7435,-115.3846,-163.4614,151.7948,152.8207,
145.1282,-76.2821,66.6667,-76.9231,127.9487,-199.6154,-155.7692,146.1541,-178.2051,153.3333,-100.3846,-178.4614,151.282,137.8207,
130.1282,-61.2821,51.6667,-61.9231,112.9487,-214.6154,-140.7692,131.1541,-163.2051,138.3333,-91.0256,-193.4614,136.282,122.8207,
135.3846,-71.7948,51.2821,-51.2821,127.9487,-199.6154,-152.8204,116.1541,-162.5641,125.1283,-106.0256,-178.4614,124.6156,125.641,
150.3846,-86.7948,57.1794,-66.2821,138.718,-184.6154,-137.8204,131.1541,-155.1282,140.1283,-91.0256,-163.4614,139.6156,135.1282,
165.3846,-83.3334,69.4872,-81.2821,153.718,-172.5641,-122.8204,146.1541,-170.1282,155.1283,-76.0256,-148.4614,154.6156,150.1282,
150.3846,-68.3334,54.4872,-66.2821,138.718,-187.5641,-137.8204,131.1541,-185.1282,140.1283,-91.0256,-163.4614,139.6156,135.1282,
135.3846,-53.3334,43.5901,-51.2821,123.718,-202.5641,-135.8972,116.1541,-178.4614,125.1283,-106.0256,-178.4614,124.6156,120.1282,
120.3846,-45.1283,44.6154,-44.6154,108.718,-196.9232,-146.6669,101.1541,-187.6925,110.1283,-121.0256,-177.4359,109.6156,105.1282,
134.8716,-36.9231,36.9231,-55.8975,123.718,-181.9232,-161.6669,116.1541,-202.6925,125.1283,-136.0256,-169.7437,124.6156,120.1282,
149.8716,-41.2821,40.7692,-40.8975,138.718,-166.9232,-176.6669,131.1541,-217.6925,140.1283,-150.0001,-165.3846,139.6156,135.1282,
134.8716,-53.3334,53.3334,-55.3846,123.718,-181.9232,-161.6669,116.1541,-202.6925,125.1283,-135.0001,-180.3846,124.6156,120.1282,
119.8716,-38.3334,40.2566,-43.8462,108.718,-196.9232,-146.6669,101.1541,-193.5898,110.1283,-120.0001,-195.3846,109.6156,105.1282,
104.8716,-53.3334,55.2566,-56.1539,108.9742,-205.8976,-161.6669,86.1541,-208.5898,95.1283,-135.0001,-205.8976,102.3077,120.1282,
119.8716,-68.3334,57.1794,-62.3076,123.9742,-190.8976,-148.4614,101.1541,-193.5898,110.1283,-120.0001,-190.8976,117.3077,135.1282,
134.8716,-53.3334,42.1794,-60.5129,138.9742,-175.8976,-133.4614,116.1541,-178.5898,125.1283,-105.0001,-175.8976,132.3077,150.1282,
149.8716,-50,50,-74.6155,123.9742,-184.3591,-148.4614,131.1541,-189.4873,140.1283,-108.9744,-161.282,141.282,135.1282,
134.8716,-55.6411,55.6411,-89.6155,108.9742,-199.3591,-133.4614,116.1541,-188.4617,125.1283,-93.9744,-176.282,128.9741,120.1282,
149.8716,-70.6411,70.6411,-95.3848,123.9742,-188.718,-148.4614,131.1541,-203.4617,140.1283,-108.9744,-191.282,143.9741,135.1282,
148.2053,-73.3333,58.9744,-80.3848,122.051,-173.718,-163.4614,146.1541,-209.7437,153.3333,-123.9744,-176.282,149.7434,150.1282,
163.2053,-58.3333,43.9744,-65.3848,137.051,-158.718,-166.4102,161.1541,-194.7437,168.3333,-108.9744,-161.282,164.7434,165.1282,
156.9232,-45.1283,40.5128,-50.3848,122.051,-159.4872,-151.4102,146.1541,-179.7437,153.3333,-95.3846,-176.282,149.7434,150.1282,
141.9232,-47.4359,47.4359,-61.2821,107.051,-174.4872,-144.359,131.1541,-177.6923,138.3333,-84.8717,-191.282,134.7434,135.641,
156.9232,-62.4359,62.4359,-68.7179,113.8461,-189.4872,-159.359,146.1541,-192.6923,153.3333,-99.8717,-176.282,149.7434,150.641,
141.9232,-63.3331,47.4359,-53.7179,98.8461,-204.4872,-174.359,131.1541,-207.6923,138.3333,-114.8717,-191.282,134.7434,135.641,
126.9232,-48.3331,33.8462,-68.2051,96.4102,-189.4872,-159.359,116.1541,-212.3076,123.3333,-106.1538,-206.282,133.3335,124.1025,
141.9232,-63.3331,48.8462,-83.2051,89.2308,-174.4872,-151.7948,131.1541,-197.3076,138.3333,-91.1538,-191.282,148.3335,135.3846,
151.0256,-61.282,48.9744,-98.2051,93.0769,-159.4872,-166.7948,146.1541,-198.2051,153.0769,-106.1538,-176.282,142.8206,138.2053,
166.0256,-62.0513,56.9231,-83.2051,103.5896,-174.4872,-181.7948,161.1541,-212.3076,168.0769,-121.1538,-161.282,143.0769,153.2053,
151.0256,-61.2821,42.3077,-68.2051,88.5896,-189.4872,-166.7948,146.1541,-197.3076,153.0769,-120.2565,-176.282,128.0769,138.2053,
136.0256,-46.2821,27.3077,-53.2051,103.5896,-174.4872,-151.7948,131.1541,-182.3076,138.0769,-105.2565,-170.7692,113.0769,123.2053,
140.2566,-48.9744,42.3077,-58.2051,103.3335,-159.4872,-136.7948,132.0515,-167.3076,130.0002,-90.2565,-155.7692,111.0256,131.5383,
125.2566,-63.9744,53.8461,-53.8461,88.3335,-144.4872,-151.7948,130.7694,-182.3076,128.7181,-105.2565,-140.7692,119.9999,142.5638,
140.2566,-78.9744,52.8204,-52.8204,91.7948,-159.4872,-166.7948,145.7694,-197.3076,143.7181,-120.2565,-155.7692,134.9999,157.5638,
125.2566,-63.9744,50.5128,-50.5128,83.3334,-174.4872,-151.7948,130.7694,-182.3076,128.7181,-105.2565,-170.7692,137.1798,142.5638,
110.2566,-48.9744,35.5128,-35.5128,98.3334,-163.3333,-136.7948,115.7694,-167.3076,113.7181,-90.2565,-176.1536,122.1798,145.8977,
95.2566,-63.9744,26.923,-26.923,83.3334,-148.3333,-151.7948,100.7694,-169.4872,98.7181,-105.2565,-161.1536,107.1798,130.8977,
110.2566,-78.9744,41.923,-41.923,90.0002,-133.3333,-147.9487,115.7694,-154.4872,113.7181,-90.2565,-146.1536,122.1798,145.8977,
125.2566,-82.0513,56.923,-56.923,105.0002,-134.3591,-151.2822,130.7694,-169.4872,128.7181,-86.1541,-131.1536,137.1798,160.8977,
140.2566,-70.7692,70.7692,-71.923,92.3077,-149.3591,-146.6666,145.7694,-184.4872,143.7181,-101.1541,-146.1536,152.1798,145.8977,
125.2566,-55.7692,55.7692,-56.923,78.9744,-164.3591,-141.5383,130.7694,-169.4872,128.7181,-88.7178,-161.1536,137.1798,130.8977,
140.2566,-70.7692,55.641,-55.641,93.9744,-149.3591,-156.5383,133.077,-162.3077,131.5385,-102.8207,-146.1536,122.1798,140.2562,
155.2566,-85.7692,70.641,-70.641,108.9744,-134.3591,-141.5383,148.077,-158.9744,146.5385,-87.8207,-131.1536,137.1798,144.1025,
170.2566,-82.0514,67.6923,-85.641,123.9744,-119.3591,-126.5383,163.077,-171.2821,161.5385,-72.8207,-116.1536,152.1798,159.1025,
185.2566,-67.0514,60.5128,-88.2052,108.9744,-134.3591,-141.5383,173.8461,-186.2821,176.5385,-87.8207,-131.1536,153.3334,155.3846,
170.2566,-52.0514,48.4618,-73.2052,93.9744,-149.3591,-148.9742,158.8461,-171.2821,161.5385,-102.8207,-146.1536,138.3334,140.3846,
155.2566,-63.0769,61.0256,-61.0256,92.8206,-164.3591,-152.3076,143.8461,-186.2821,146.5385,-113.3333,-160.5127,123.3334,125.3846,
140.2566,-63.3333,46.0256,-46.0256,107.8206,-149.3591,-167.3076,128.8461,-201.2821,131.5385,-128.3333,-145.5127,138.2053,140.3846,
155.2566,-52.3077,33.3334,-33.3334,122.8206,-134.3591,-164.6154,143.8461,-188.7179,146.5385,-113.3333,-130.5127,153.2053,155.3846,
140.2566,-67.3077,45.3846,-45.3846,107.8206,-149.3591,-149.6154,128.8461,-173.7179,131.5385,-107.4359,-145.5127,138.2053,140.3846,
125.2566,-52.3077,60.3846,-34.6152,96.6667,-164.3591,-134.6154,113.8461,-188.7179,116.5385,-92.4359,-160.5127,123.2053,125.3846,
110.2566,-67.3077,64.8718,-49.6152,91.0256,-179.3591,-149.6154,98.8461,-203.7179,101.5385,-107.4359,-175.5127,114.6155,131.0256,
95.2566,-68.205,54.359,-54.359,106.0256,-164.3591,-164.6154,103.0768,-198.4615,100.5128,-122.4359,-160.5127,129.6155,145.6412,
110.2566,-53.205,39.359,-55.8975,121.0256,-149.3591,-149.6154,118.0768,-183.4615,115.5128,-107.4359,-145.5127,144.6155,160.6412,
125.2566,-46.6666,46.6666,-52.8204,109.2308,-164.3591,-134.6154,133.0768,-168.4615,130.5128,-92.4359,-160.5127,129.7435,145.6412,
110.2566,-52.5641,52.5641,-64.359,94.6154,-179.3591,-119.6154,118.0768,-183.4615,115.5128,-87.4359,-175.5127,114.7435,130.6412,
125.2566,-67.5641,67.5641,-79.359,105.8973,-194.3591,-134.6154,133.0768,-198.4615,130.5128,-102.4359,-186.923,129.7435,145.6412,
110.2566,-60.769,57.1794,-64.359,90.8973,-179.3591,-149.6154,118.0768,-183.4615,115.5128,-94.1025,-201.923,114.7435,130.6412,
95.2566,-45.769,42.1794,-49.359,97.4359,-164.3591,-134.6154,103.0768,-168.4615,100.5128,-79.1025,-212.3075,109.2308,131.7948,
110.2566,-48.4617,37.1794,-37.1794,91.5383,-149.3591,-126.9231,118.0768,-161.7949,115.5128,-91.0256,-197.3075,113.0769,126.9229,
125.2566,-63.4617,52.1794,-52.1794,96.4102,-136.4102,-141.9231,133.0768,-176.7949,130.5128,-94.8718,-182.3075,128.0769,140,
140.2566,-70.7692,67.1794,-67.1794,111.4102,-151.4102,-156.9231,148.0768,-191.7949,145.5128,-109.8718,-167.3075,143.0769,155,
125.2566,-55.7692,52.1794,-52.1794,96.4102,-166.4102,-171.0255,133.0768,-203.3331,130.5128,-124.8718,-182.3075,128.0769,140,
110.2566,-40.7692,37.1794,-48.2052,81.4102,-181.4102,-161.5385,118.0768,-211.2821,115.5128,-120.5128,-197.3075,113.0769,125,
125.2566,-55.7692,52.1794,-63.2052,78.205,-166.4102,-176.5385,133.0768,-197.1796,130.5128,-117.1796,-182.3075,128.0769,123.8461,
123.3333,-70.7692,37.1794,-78.2052,70,-151.4102,-191.5385,147.4358,-196.6665,144.8718,-131.5383,-167.3075,116.1541,127.4358,
138.3333,-77.6923,52.1794,-71.5385,85,-145.8976,-200.7692,162.4358,-211.6665,159.8718,-146.5383,-161.2821,131.1541,142.4358,
146.9231,-84.3589,67.1794,-71.0256,87.9487,-160.8976,-185.7692,150.5129,-205.8975,153.0769,-131.5383,-176.2821,146.1541,133.5896,
131.9231,-69.3589,52.1794,-62.3077,102.9487,-175.8976,-170.7692,135.5129,-190.8975,138.0769,-116.5383,-181.7948,131.5385,141.2821,
123.8459,-59.7437,48.9744,-48.9744,102.8203,-160.8976,-155.7692,120.7693,-175.8975,123.0769,-101.5383,-166.7948,116.5385,126.2821,
129.7435,-74.7437,56.4103,-56.4103,87.8203,-145.8976,-170.7692,135.7693,-190.8975,138.0769,-99.4872,-151.7948,121.5385,141.2821,
144.7435,-74.1025,56.1538,-56.1538,102.8203,-145.3845,-183.8462,150.7693,-205.8975,153.0769,-114.4872,-151.5383,136.5385,156.2821,
129.7435,-59.1025,41.1538,-41.1538,87.8203,-160.3845,-168.8462,135.7693,-191.2821,138.0769,-129.4872,-166.5383,121.5385,141.2821,
114.7435,-44.1025,56.1538,-26.1538,102.8203,-162.3079,-153.8462,120.7693,-176.2821,123.0769,-114.4872,-168.4617,106.5385,126.2821,
99.7435,-59.1025,41.1538,-33.5896,87.8203,-167.4358,-160.2563,105.7693,-185.3845,108.0769,-118.2051,-174.6152,91.5385,119.7439,
114.7435,-62.8206,52.0513,-48.5896,102.8203,-152.4358,-175.2563,120.7693,-170.3845,123.0769,-133.2051,-159.6152,106.5385,134.7439,
129.7435,-53.5898,53.5898,-54.1025,117.8203,-152.0513,-190.2563,135.7693,-185.3845,138.0769,-148.2051,-144.6152,121.5385,149.7439,
134.8719,-68.5898,54.359,-54.359,102.8203,-167.0513,-175.2563,131.7948,-170.3845,137.9486,-133.2051,-159.6152,124.6151,134.7439,
119.8719,-53.5898,39.359,-69.359,87.8203,-182.0513,-160.2563,116.7948,-157.436,122.9486,-118.2051,-174.6152,109.6151,119.7439,
134.8719,-67.9486,54.359,-84.359,102.3077,-197.0513,-175.2563,131.7948,-172.436,137.9486,-112.0514,-171.0255,124.6151,115.641,
149.8719,-82.9486,65.1282,-96.4102,110.2566,-182.0513,-160.2563,146.7948,-167.1794,152.9486,-97.0514,-156.0255,139.6151,130.641,
164.8719,-75.6411,50.1282,-81.4102,125.2566,-167.0513,-145.2563,161.7948,-161.282,167.9486,-82.0514,-141.0255,154.6151,145.641,
172.3076,-60.6411,60,-96.4102,110.2566,-182.0513,-160.2563,169.7437,-176.282,168.2051,-97.0514,-156.0255,141.0256,130.7693,
157.3076,-45.6411,45.3845,-102.3076,95.2566,-197.0513,-161.282,154.7437,-164.8718,153.2051,-112.0514,-171.0255,126.0256,115.7693,
142.3076,-60.6411,59.2308,-87.3076,88.9742,-207.4359,-176.282,139.7437,-179.8718,138.2051,-126.4103,-186.0255,116.6666,123.8463,
127.3076,-73.5897,44.2308,-72.3076,93.077,-192.4359,-191.282,124.7437,-194.8718,123.2051,-141.4103,-201.0255,114.1024,116.6669,
142.3076,-58.5897,35.1282,-63.8462,108.077,-177.4359,-176.282,139.7437,-209.8718,138.2051,-126.4103,-186.0255,129.1024,131.6669,
157.3076,-57.6923,50.1282,-78.8462,120.7692,-166.9232,-161.282,154.7437,-194.8718,153.2051,-111.4103,-171.0255,143.8461,140.2565,
142.3076,-52.3077,52.3077,-93.8462,105.7692,-181.9232,-148.2052,139.7437,-198.4615,138.2051,-109.2308,-186.0255,133.3331,125.6407,
157.3076,-67.3077,67.3077,-99.4872,90.7692,-196.9232,-163.2052,154.7437,-213.4615,153.2051,-124.2308,-201.0255,145.6412,122.5641,
142.3076,-52.3077,52.3077,-84.4872,98.9744,-181.9232,-149.7437,139.7437,-198.4615,138.2051,-113.3333,-186.0255,130.6412,113.8464,
128.7178,-37.3077,37.3077,-69.4872,113.9744,-166.9232,-134.7437,135.3848,-183.4615,139.4873,-98.3333,-171.0255,145.1279,128.8464,
143.7178,-42.3076,42.3076,-67.4358,108.4614,-157.6924,-119.7437,132.564,-191.5386,132.0513,-83.3333,-169.4873,130.1279,113.8464,
128.7178,-40.5128,40.5128,-73.8461,93.4614,-172.6924,-134.7437,117.564,-206.5386,117.0513,-98.3333,-184.4873,115.1279,98.8464,
143.7178,-55.5128,55.5128,-79.231,100.2563,-187.6924,-149.7437,132.564,-221.5386,132.0513,-113.3333,-199.4873,125.8975,113.8464,
128.7178,-70.5128,65.1282,-65.1282,88.718,-198.9744,-164.7437,123.0769,-219.4871,117.0513,-128.3333,-214.4873,115.8972,106.6667,
113.7178,-55.5128,50.1282,-50.1282,103.718,-183.9744,-149.7437,111.0255,-204.4871,102.3077,-113.3333,-199.4873,118.7179,121.6667,
128.7178,-40.5128,35.1282,-60.7693,102.3076,-168.9744,-134.7437,126.0255,-189.4871,117.3077,-98.3333,-184.4873,103.7179,112.0515,
119.4873,-55.5128,50.1282,-75.7693,108.2051,-153.9744,-149.7437,124.1025,-191.282,121.0254,-113.3333,-169.4873,118.7179,127.0515,
134.4873,-70.5128,65.1282,-65.3846,108.9742,-163.8463,-164.7437,129.4869,-206.282,125.8976,-128.3333,-184.4873,133.7179,136.6666,
119.4873,-55.5128,50.1282,-50.3846,93.9742,-178.8463,-154.359,114.4869,-191.282,110.8976,-118.4615,-199.4873,118.7179,121.6666,
104.4873,-40.5128,35.1282,-65.3846,78.9742,-193.8463,-148.718,99.4869,-201.0256,95.8976,-114.8718,-214.4873,103.7179,106.6666,
119.4873,-55.5128,50.1282,-80.3846,92.5641,-186.923,-163.718,97.1793,-216.0256,89.4874,-129.8718,-199.4873,112.5641,91.6666,
134.4873,-70.5128,54.3589,-94.8718,107.5641,-171.923,-148.718,112.1793,-201.0256,104.4874,-114.8718,-184.4873,127.5641,106.6666,
149.4873,-58.4615,58.4615,-106.6666,122.5641,-159.4872,-150.7692,127.1793,-216.0256,119.4874,-108.7179,-169.4873,142.5641,121.6666,
153.3335,-65.1282,65.1282,-100,109.7434,-174.4872,-143.0769,129.2305,-222.5642,132.3076,-123.7179,-184.4873,127.5641,106.6666,
138.3335,-50.1282,50.1282,-85,124.7434,-189.4872,-128.0769,114.2305,-207.5642,117.3076,-108.7179,-199.4873,112.5641,91.6666,
127.4358,-65.1282,53.0769,-70,137.6921,-177.6924,-125.8975,99.2305,-194.6155,102.3079,-108.4617,-184.4873,106.9231,81.7949,
142.4358,-80.1282,68.0769,-76.6667,152.6921,-162.6924,-132.564,114.2305,-179.6155,117.3079,-95.1282,-169.4873,121.9231,96.7949,
157.4358,-65.1282,61.5385,-63.5897,167.6921,-177.6924,-129.2308,129.2305,-178.4615,132.3079,-102.5641,-154.4873,136.9231,111.7949,
142.4358,-50.1282,49.7435,-66.1539,152.6921,-192.6924,-130.7692,114.2305,-183.077,117.3079,-109.2308,-169.4873,124.1027,96.7949,
127.4358,-35.1282,64.7435,-51.1539,145.1279,-207.6924,-115.7692,99.2305,-168.077,102.3079,-94.2308,-184.4873,113.8462,92.3076,
112.4358,-50.1282,56.6669,-37.6923,134.1029,-222.3075,-129.4872,84.2305,-183.077,87.3079,-109.2308,-199.4873,98.8462,97.6923,
116.923,-62.0514,49.2308,-49.2308,141.0255,-207.3075,-144.4872,99.2305,-175.3846,102.3079,-124.2308,-184.4873,113.8462,112.6923,
131.923,-57.6923,57.6923,-64.2308,145.8973,-192.3075,-159.4872,114.2305,-190.3846,117.3079,-139.2308,-169.4873,128.8462,127.6923,
136.9232,-72.6923,72.6923,-79.2308,130.8973,-207.3075,-144.4872,104.1024,-205.3846,110.7694,-124.2308,-184.4873,143.077,112.6923,
121.9232,-57.6923,57.6923,-71.0256,129.4871,-222.3075,-129.4872,89.1024,-190.3846,95.7694,-109.2308,-199.4873,128.077,106.9231,
131.0258,-66.4103,66.4103,-74.6154,131.0258,-235.1283,-134.6154,103.8461,-197.6923,106.9232,-103.3334,-184.4873,127.4359,100.2562,
116.0258,-60,59.4873,-59.6154,124.6152,-220.1283,-149.6154,88.8461,-212.6923,91.9232,-118.3334,-169.4873,131.7949,85.2562,
131.0258,-45,44.4873,-44.6154,139.6152,-205.1283,-134.6154,103.8461,-223.0769,106.9232,-113.8462,-154.4873,146.7949,100.2562,
146.0258,-60,57.1796,-57.1796,140.2562,-220.1283,-131.0258,118.8461,-208.0769,121.9232,-98.8462,-169.4873,143.3334,115.2562,
131.0258,-59.9999,60.5131,-68.7179,125.2562,-235.1283,-129.2306,103.8461,-193.0769,106.9232,-92.8204,-184.4873,128.3334,109.2308,
139.7434,-63.8462,63.8462,-68.9744,126.9231,-250.1283,-144.2306,108.9744,-206.9231,121.9232,-107.8204,-199.4873,129.4871,114.6155,
124.7434,-67.1796,53.3334,-53.9744,124.6156,-235.1283,-147.1796,93.9744,-219.4872,106.9232,-122.8204,-187.1796,114.4871,99.6155,
116.9231,-52.1796,38.3334,-48.2051,139.6156,-220.1283,-132.1796,108.9744,-204.4872,119.9998,-107.8204,-172.1796,129.4871,114.6155,
131.9231,-40.7692,40.7692,-54.6154,134.6154,-205.1283,-117.1796,123.9744,-189.4872,134.9998,-92.8204,-164.359,141.2819,116.1539,
116.9231,-46.1537,46.1537,-69.6154,119.6154,-220.1283,-132.1796,108.9744,-199.4872,119.9998,-107.8204,-179.359,126.2819,101.1539,
119.231,-61.1537,61.1537,-84.6154,114.6152,-235.1283,-147.1796,93.9744,-214.4872,108.4614,-122.8204,-194.359,135.6411,101.2822,
104.231,-66.4104,63.3333,-69.6154,126.9231,-250.1283,-134.1025,78.9744,-199.4872,93.4614,-107.8204,-187.9487,129.4871,107.4358,
103.3333,-51.4104,48.3333,-54.6154,141.9231,-265.1283,-119.1025,93.5896,-184.4872,108.4614,-92.8204,-189.4873,140.7693,122.4358,
118.3333,-57.9486,54.8717,-69.6154,147.1796,-250.1283,-104.1025,108.5896,-169.4872,123.4614,-77.8204,-174.4873,155.7693,133.3334,
131.2819,-72.9486,39.8717,-84.6154,132.1796,-235.1283,-119.1025,123.5896,-154.4872,138.4614,-62.8204,-159.4873,146.1539,118.3334,
146.2819,-87.9486,54.8717,-80.2563,147.1796,-220.1283,-134.1025,138.5896,-169.4872,153.4614,-77.8204,-152.5642,161.1539,133.3334,
131.2819,-102.9486,67.4359,-67.4359,132.1796,-235.1283,-149.1025,123.5896,-184.4872,138.4614,-92.8204,-167.5642,146.1539,118.3334,
116.2819,-87.9486,52.4359,-52.4359,147.1796,-250.1283,-134.1025,108.5896,-169.4872,123.4614,-77.8204,-182.5642,144.1024,133.3334,
131.2819,-72.9486,42.5641,-57.4359,136.923,-235.1283,-119.1025,119.9999,-154.4872,137.9489,-62.8204,-167.5642,149.7438,121.0255,
132.0513,-87.9486,57.5641,-68.9744,135.6411,-220.1283,-134.1025,125.3848,-169.4872,140.769,-77.8204,-152.5642,164.7438,130.5127,
147.0513,-102.9486,72.5641,-80.2563,144.3589,-212.5642,-149.1025,140.3848,-184.4872,155.769,-92.8204,-164.8718,179.7438,145.5127,
132.0513,-87.9486,62.5641,-65.2563,129.3589,-227.5642,-134.1025,125.3848,-169.4872,140.769,-77.8204,-179.8718,164.7438,130.5127,
117.0513,-72.9486,47.5641,-56.4104,114.3589,-242.5642,-119.1025,110.3848,-154.4872,125.769,-69.7437,-194.8718,149.7438,115.5127,
128.7178,-57.9486,47.1794,-49.2307,119.4873,-227.5642,-134.1025,102.0513,-147.1794,123.5898,-84.7437,-179.8718,134.7438,111.7949,
143.7178,-72.9486,50.7692,-64.2307,128.2052,-212.5642,-126.1539,117.0513,-149.7435,138.5898,-77.4359,-164.8718,149.7438,126.7949,
158.7178,-69.7435,65.7692,-79.2307,143.2052,-197.5642,-138.4615,132.0513,-164.7435,153.5898,-88.2052,-149.8718,164.7438,141.7949,
173.7178,-77.6924,77.6924,-94.2307,128.2052,-212.5642,-153.4615,147.0513,-179.7435,168.5898,-103.2052,-164.8718,153.5898,128.9744,
158.7178,-62.6924,62.6924,-79.2307,113.2052,-227.5642,-138.4615,132.0513,-174.359,153.5898,-88.2052,-179.8718,138.5898,113.9744,
143.7178,-55.1283,48.4615,-64.2307,111.5385,-216.1539,-134.6154,117.0513,-178.2052,138.5898,-103.2052,-164.8718,123.5898,103.8461,
158.7178,-62.5642,56.9231,-56.9231,126.5385,-201.1539,-149.6154,132.0513,-163.2052,153.5898,-88.2052,-149.8718,138.5898,118.8461,
173.7178,-49.2308,49.2308,-71.9231,141.5385,-186.1539,-148.2052,147.0513,-168.7179,168.5898,-73.2052,-134.8718,153.5898,133.8461,
158.7178,-61.282,61.282,-66.4104,126.5385,-201.1539,-133.2052,132.0513,-180.2563,153.5898,-75.1282,-149.8718,141.7947,118.8461,
143.7178,-46.282,59.7433,-61.2821,111.5385,-216.1539,-118.2052,117.0513,-167.4359,138.5898,-60.1282,-164.8718,126.7947,103.8461,
128.7178,-61.282,67.1794,-67.1794,117.436,-231.1539,-132.3076,102.0513,-182.4359,123.5898,-75.1282,-179.8718,112.3076,104.1025,
132.0513,-71.0256,61.7949,-61.7949,128.4614,-216.1539,-147.3076,117.0513,-197.4359,133.5898,-90.1282,-164.8718,127.3076,111.5386,
147.0513,-61.5385,61.5385,-76.7949,142.5641,-201.1539,-162.3076,132.0513,-212.4359,148.5898,-105.1282,-149.8718,142.3076,126.5386,
162.0513,-76.5385,76.5385,-91.7949,127.5641,-216.1539,-147.3076,145.3848,-208.9744,153.0771,-120.1282,-164.8718,147.436,111.5386,
147.0513,-61.5385,61.5385,-81.0256,115.8972,-231.1539,-132.3076,130.3848,-193.9744,138.0771,-105.1282,-179.8718,132.436,113.3333,
132.0513,-76.5385,74.6154,-74.6154,124.359,-246.1539,-144.359,115.3848,-208.9744,123.0771,-120.1282,-194.8718,128.4615,104.359,
117.0513,-70.0001,63.8463,-63.8463,110.5128,-240.2565,-159.359,100.3848,-223.9744,108.0771,-135.1282,-209.8718,119.7438,89.359,
132.0513,-55.0001,48.8463,-48.8463,125.5128,-225.2565,-144.359,115.3848,-208.9744,123.0771,-120.1282,-194.8718,134.7438,104.359,
147.0513,-70.0001,49.4872,-49.4872,124.8717,-210.2565,-142.3077,130.3848,-193.9744,138.0771,-120.7692,-179.8718,129.9999,119.359,
132.0513,-78.2052,63.8461,-63.8461,124.3588,-225.2565,-140.7692,115.3848,-178.9744,123.0771,-105.7692,-164.8718,115.1283,104.359,
147.0513,-85.6411,71.282,-71.282,131.7949,-240.2565,-155.7692,130.3848,-193.9744,138.0771,-120.7692,-179.8718,130.1283,119.359,
139.7438,-99.7435,65.3846,-65.3846,116.7949,-225.2565,-170.7692,123.8463,-208.9744,139.2306,-135.7692,-194.8718,145.1283,118.7179,
124.7438,-84.7435,50.3846,-50.3846,131.7949,-210.2565,-155.7692,108.8463,-193.9744,124.2306,-120.7692,-186.1539,136.4103,132.3077,
109.7438,-69.7435,35.3846,-35.3846,128.9745,-198.2052,-140.7692,93.8463,-178.9744,109.2306,-105.7692,-171.1539,121.4103,117.3077,
112.0513,-65.3845,50.3846,-50.3846,120.769,-183.2052,-155.7692,108.8463,-178.2051,124.2306,-98.2051,-156.1539,136.4103,132.3077,
127.0513,-80.3845,65.3846,-65.3846,111.5386,-198.2052,-170.7692,123.8463,-193.2051,139.2306,-113.2051,-171.1539,151.4103,132.0513,
112.0513,-73.8462,72.3079,-61.0256,105.6409,-213.2052,-155.7692,108.8463,-178.2051,124.2306,-98.2051,-186.1539,136.4103,117.0513,
97.0513,-58.8462,57.3079,-46.0256,120.6409,-228.2052,-140.7692,93.8463,-177.1796,109.2306,-83.2051,-201.1539,121.4103,102.0513,
112.0513,-67.6924,67.6924,-61.0256,135.6409,-213.2052,-125.7692,108.8463,-162.1796,124.2306,-71.7949,-186.1539,136.4103,105.6411,
127.0513,-82.6924,52.6924,-76.0256,120.6409,-198.2052,-135.3848,123.8463,-147.1796,139.2306,-64.1025,-171.1539,151.4103,102.564,
142.0513,-96.1538,67.6924,-70,135.6409,-183.3333,-144.3589,138.8463,-162.1796,154.2306,-79.1025,-160.7693,166.4103,117.564,
127.0513,-81.1538,52.6924,-55,120.6409,-198.3333,-155.8973,123.8463,-177.1796,139.2306,-94.1025,-175.7693,151.4103,102.564,
112.0513,-66.1538,37.6924,-51.0255,124.359,-213.3333,-140.8973,108.8463,-162.1796,124.2306,-79.1025,-173.5897,136.4103,114.1027,
113.5897,-51.1538,33.5897,-37.6923,120.2567,-198.3333,-125.8973,99.2308,-148.4615,113.5897,-64.1025,-158.5897,121.4103,109.9999,
98.5897,-66.1538,40.2565,-40.2565,105.2567,-200.2565,-140.8973,84.2308,-163.4615,98.5897,-79.1025,-173.5897,106.4103,94.9999,
113.5897,-80.2563,55.2565,-55.2565,120.2567,-214.1025,-155.8973,99.2308,-178.4615,113.5897,-94.1025,-188.5897,121.4103,109.9999,
98.5897,-84.8717,51.5385,-70.2565,109.4874,-229.1025,-140.8973,92.5641,-163.4615,98.5897,-79.1025,-178.7179,124.8717,123.8463,
83.5897,-69.8717,48.9744,-55.2565,124.4874,-244.1025,-125.8973,77.5641,-148.4615,83.5897,-64.1025,-193.7179,109.8717,108.8463,
68.5897,-57.4359,52.8207,-40.2565,113.3334,-229.2308,-140.8973,62.5641,-163.4615,68.5897,-79.1025,-208.7179,94.8717,93.8463,
83.5897,-72.4359,50.7692,-55.2565,128.3334,-214.2308,-155.8973,77.5641,-175.3846,83.5897,-94.1025,-193.7179,109.8717,108.8463,
98.5897,-66.6667,65.7692,-70.2565,143.3334,-199.2308,-140.8973,92.5641,-182.5642,98.5897,-79.1025,-178.7179,124.8717,123.8463,
113.5897,-67.6924,67.6924,-81.0256,128.3334,-214.2308,-126.1538,107.5641,-197.5642,113.5897,-94.1025,-193.7179,111.7949,108.8463,
98.5897,-52.6924,52.6924,-66.0256,114.6155,-229.2308,-111.1538,92.5641,-182.5642,98.5897,-79.1025,-201.7949,96.7949,93.8463,
105.8976,-67.6924,55.641,-55.641,116.6666,-244.2308,-126.1538,79.7435,-197.5642,94.1027,-94.1025,-187.9486,100.7692,89.9999,
117.9485,-72.3076,64.6155,-64.6155,131.6666,-229.2308,-141.1538,94.7435,-212.5642,109.1027,-109.1025,-195.3845,115.7692,104.9999,
132.9485,-57.3076,49.6155,-74.359,146.6666,-214.2308,-126.1538,109.7435,-220.5128,124.1027,-94.1025,-180.3845,130.7692,119.9999,
143.5897,-47.6923,47.6923,-70.7692,134.8719,-229.2308,-111.1538,119.9999,-205.5128,124.1024,-79.1025,-195.3845,121.5385,104.9999,
128.5897,-43.5897,59.9999,-68.2052,119.8719,-244.2308,-101.5385,104.9999,-207.6923,109.1024,-83.0768,-210.3845,106.5385,89.9999,
120.0002,-58.5897,64.1025,-68.7178,121.0256,-257.9487,-116.5385,98.4617,-222.6923,106.1541,-98.0768,-225.3845,112.8206,102.5642,
105.0002,-52.0513,52.0513,-67.9487,134.6155,-242.9487,-131.5385,96.6667,-207.6923,103.3333,-104.8718,-210.3845,121.282,99.7434,
120.0002,-49.2308,49.2308,-82.9487,145.1281,-227.9487,-146.5385,111.6667,-222.6923,118.3333,-89.8718,-195.3845,136.282,102.0514,
135.0002,-64.2308,64.2308,-97.9487,130.1281,-242.9487,-143.3334,124.8719,-230.0001,127.9486,-88.4615,-207.4359,133.5897,91.0255,
120.0002,-49.2308,49.2308,-82.9487,127.6924,-257.9487,-128.3334,109.8719,-215.0001,112.9486,-73.4615,-222.4359,121.0259,106.0255,
135.0002,-64.2308,64.2308,-79.4872,142.6924,-269.2308,-142.0511,124.8719,-230.0001,127.9486,-88.4615,-237.4359,136.0259,117.4359,
131.7947,-79.2308,79.2308,-80,147.1794,-254.2308,-157.0511,124.6155,-227.6924,127.1794,-103.4615,-222.4359,145.6409,113.3333,
126.1539,-64.2308,64.2308,-65,162.1794,-239.2308,-142.0511,132.3077,-212.6924,131.2823,-88.4615,-207.4359,160.5128,128.3333,
141.1539,-55.6409,50,-50,147.1794,-224.2308,-127.0511,132.0513,-197.6924,137.1797,-93.5896,-192.4359,145.5128,113.3333,
126.1539,-70.6409,65,-65,149.7434,-209.2308,-121.5386,129.7434,-182.6924,135.3845,-88.2053,-177.4359,142.051,112.3074,
141.1539,-78.4615,78.4615,-80,156.923,-209.2308,-136.5386,144.7434,-197.6924,150.3845,-103.2053,-180.0001,155.3844,127.3074,
126.1539,-63.4615,63.4615,-65,141.923,-224.2308,-151.5386,129.7434,-212.6924,135.3845,-118.2053,-195.0001,140.3844,112.3074,
111.1539,-48.4615,48.4615,-50,126.923,-239.2308,-136.5386,114.7434,-197.6924,120.3845,-103.2053,-210.0001,125.3844,97.3074,
96.1539,-46.4103,39.2308,-39.2308,130.5128,-224.2308,-121.5386,99.7434,-182.6924,105.3845,-88.2053,-195.0001,110.3844,100.2565,
110.7694,-61.4103,54.2308,-54.2308,121.5385,-209.2308,-136.5386,114.7434,-197.6924,120.3845,-103.2053,-180.0001,125.3844,115.2565,
125.7694,-76.4103,69.2308,-69.2308,121.7948,-221.2821,-151.5386,129.7434,-212.6924,135.3845,-118.2053,-185.3846,140.3844,130.2565,
110.7694,-73.0769,76.667,-65.8975,106.7948,-236.2821,-136.5386,114.7434,-197.6924,120.3845,-103.2053,-200.3846,125.3844,115.2565,
95.7694,-58.0769,61.667,-50.8975,121.7948,-238.9744,-121.5386,99.7434,-186.1541,105.3845,-88.2053,-203.0769,110.3844,100.2565,
110.7694,-71.2821,67.6923,-65.8975,136.7948,-223.9744,-131.2821,114.7434,-190.2565,120.3845,-84.1027,-188.0769,125.3844,115.2565,
125.7694,-86.2821,64.1027,-80.8975,128.2052,-208.9744,-140.0001,129.7434,-175.2565,135.3845,-69.1027,-173.0769,140.3844,130.2565,
140.7694,-78.205,67.4359,-67.4359,143.2052,-193.9744,-133.5897,144.7434,-185.8973,150.3845,-78.205,-158.0769,155.3844,145.2565,
155.6409,-79.2307,78.2051,-78.2051,130.0002,-208.9744,-148.5897,144.3591,-200.8973,153.0769,-93.205,-173.0769,140.3844,130.2565,
140.6409,-64.2307,67.436,-63.2051,145.0002,-220.2563,-133.5897,129.3591,-185.8973,138.0769,-78.205,-188.0769,125.3844,119.7437,
125.6409,-71.0254,52.436,-48.2051,130.0002,-205.2563,-125.8972,114.3591,-170.8973,123.0769,-70.5127,-173.0769,110.3844,108.9746,
110.6409,-57.4359,40.5128,-40.5128,126.6666,-190.2563,-140.8972,103.5895,-185.8973,109.2306,-85.5127,-158.0769,125.3844,123.9746,
125.6409,-58.2052,55.5128,-55.5128,141.6666,-194.1027,-155.8972,118.5895,-200.8973,124.2306,-100.5127,-143.0769,140.3844,138.9746,
110.6409,-68.4614,53.0769,-68.4614,126.6666,-209.1027,-140.8972,103.5895,-185.8973,109.2306,-85.5127,-158.0769,125.3844,123.9746,
95.6409,-53.4614,50.2566,-53.4614,132.8206,-224.1027,-125.8972,88.5895,-170.8973,94.2306,-70.5127,-173.0769,110.3844,120.0002,
83.5896,-68.4614,58.9744,-58.9744,117.9485,-239.1027,-140.8972,73.5895,-185.8973,79.2306,-85.5127,-188.0769,95.3844,115.3845,
98.5896,-83.4614,59.4872,-73.9744,132.9485,-224.1027,-144.1027,88.5895,-170.8973,94.2306,-70.5127,-173.0769,110.3844,130.3845,
113.5896,-94.8718,44.4872,-88.9744,147.9485,-209.1027,-129.1027,103.5895,-155.8973,109.2306,-55.5127,-158.0769,125.3844,145.3845,
128.5896,-79.8718,59.4872,-74.6156,141.2819,-224.1027,-141.2821,118.5895,-170.8973,124.2306,-70.5127,-173.0769,140.3844,130.3845,
113.5896,-64.8718,48.718,-75.8975,126.2819,-239.1027,-126.2821,103.5895,-155.8975,109.2306,-85.5127,-181.5386,125.3844,115.3845,
128.5896,-79.8718,63.3333,-63.3333,113.5898,-237.6924,-141.2821,118.5895,-170.8975,124.2306,-100.5127,-174.1025,120.769,122.8203,
113.5896,-94.8718,60.7692,-60.7692,119.7435,-222.6924,-156.2821,104.3588,-185.8975,116.6669,-115.5127,-189.1025,131.0258,116.1537,
128.5896,-79.8718,45.7692,-71.0256,134.7435,-207.6924,-141.2821,119.3588,-200.8975,131.6669,-100.5127,-174.1025,146.0258,131.1537,
143.5896,-64.8718,47.4359,-67.4359,121.7948,-218.7179,-126.2821,134.3588,-185.8975,146.6669,-85.5127,-166.4103,132.5641,116.1537,
128.5896,-50.2565,62.4359,-52.4359,109.2306,-233.7179,-117.4359,119.3588,-200.8975,131.6669,-86.1539,-181.4103,117.5641,106.6666,
113.5896,-65.2565,58.9744,-58.9744,114.3591,-248.7179,-132.4359,104.3588,-215.8975,116.6669,-101.1539,-196.4103,108.718,118.4617,
98.5896,-55.3844,46.6666,-46.6666,120.5128,-233.7179,-137.9486,89.3588,-206.1537,101.6669,-95.8973,-194.8717,123.59,121.026,
99.7435,-40.7692,40.7692,-61.6666,122.8207,-218.7179,-128.9742,104.3588,-204.8717,108.9745,-80.8973,-185.3846,138.59,130.5131,
114.7435,-55.7692,55.7692,-76.6666,112.5641,-233.7179,-143.9742,115.6412,-219.8717,119.7438,-83.8461,-171.0255,146.923,115.5131,
99.7435,-63.8461,60.2565,-61.6666,126.4105,-218.7179,-128.9742,121.2821,-229.9999,126.9232,-85.8973,-156.0255,148.4618,130.5131,
114.7435,-78.8461,67.4359,-67.4359,128.4615,-203.7179,-143.9742,136.2821,-244.9999,141.9232,-100.8973,-171.0255,154.1027,139.7435,
99.7435,-63.8461,58.9742,-58.9742,113.4615,-218.7179,-146.6666,121.2821,-229.9999,126.9232,-90.7692,-186.0255,139.1027,124.7435,
84.7435,-48.8461,43.9742,-43.9742,118.7179,-233.7179,-131.6666,106.2821,-214.9999,111.9232,-75.7692,-188.9742,124.1027,109.7435,
99.7435,-50.5128,50.5128,-52.5641,126.41,-218.7179,-127.9489,121.2821,-199.9999,126.9232,-80.7694,-173.9742,137.1793,120.7692,
114.7435,-65.5128,63.0769,-67.5641,120.5129,-203.7179,-142.9489,136.2821,-206.6667,141.9232,-95.7694,-158.9742,150.7693,134.8718,
129.7435,-80.5128,73.5897,-73.5897,135.5129,-188.7179,-157.9489,151.2821,-221.6667,156.9232,-110.7694,-173.9742,165.7693,149.8718,
114.7435,-65.5128,58.5897,-58.5897,120.5129,-203.7179,-153.5896,136.2821,-206.6667,141.9232,-113.0769,-188.9742,150.7693,134.8718,
99.7435,-50.5128,43.5897,-43.5897,126.6665,-218.7179,-138.5896,121.2821,-191.6667,126.9232,-98.0769,-182.0513,135.7693,119.8718,
84.7435,-35.5128,31.0256,-43.3335,115.1279,-203.7179,-125.3848,106.2821,-196.1538,111.9232,-97.6924,-167.0513,120.7693,104.8718,
99.7435,-50.5128,46.0256,-58.3335,130.1279,-188.7179,-140.3848,121.2821,-187.6923,126.9232,-110.2565,-152.0513,135.7693,119.8718,
114.7435,-65.5128,61.0256,-71.2821,131.7948,-173.7179,-155.3848,136.2821,-202.6923,141.9232,-125.2565,-167.0513,150.7693,134.8718,
99.7435,-69.2308,57.9486,-56.2821,116.7948,-188.7179,-143.0768,121.2821,-205.1283,126.9232,-119.9999,-182.0513,135.7693,119.8718,
84.7435,-54.2308,42.9486,-41.2821,119.4871,-203.7179,-128.0768,106.2821,-193.8462,111.9232,-104.9999,-197.0513,120.7693,104.8718,
99.7435,-52.8206,50.2563,-50.2563,111.7949,-188.7179,-143.0768,107.1797,-206.6667,107.6924,-98.4614,-186.6667,108.2051,100,
114.7435,-53.8462,53.8462,-62.0513,118.4617,-173.7179,-158.0768,122.1797,-191.6667,122.6924,-113.4614,-171.6667,123.2051,115,
129.7435,-52.5641,52.5641,-77.0513,133.4617,-158.7179,-173.0768,137.1797,-206.6667,137.6924,-128.4614,-156.6667,138.2051,130,
126.6664,-67.5641,67.5641,-67.6923,118.4617,-173.7179,-158.0768,122.1797,-221.6667,122.6924,-126.1539,-171.6667,123.2051,115,
111.6664,-52.5641,62.0513,-52.6923,116.9233,-188.7179,-143.0768,107.1797,-206.6667,107.6924,-111.1539,-186.6667,108.2051,100,
96.6664,-37.5641,47.0513,-39.2308,101.9233,-180.7692,-128.0768,92.1797,-191.6667,92.6924,-96.1539,-186.4103,93.2051,93.0768,
81.6664,-22.5641,32.0513,-28.205,99.9999,-195.7692,-138.4613,77.1797,-206.6667,77.6924,-101.0255,-173.3331,100.5131,96.9232,
96.6664,-29.4872,29.4872,-43.205,114.9999,-210.7692,-153.4613,92.1797,-221.6667,92.6924,-116.0255,-174.1024,115.5131,111.9232,
111.6664,-44.4872,44.4872,-58.205,125.1283,-195.7692,-144.1024,107.1797,-206.6667,107.6924,-101.0255,-162.5641,130.5131,126.9232,
96.6664,-59.4872,34.3589,-73.205,110.1283,-210.7692,-129.1024,92.1797,-191.6667,92.6924,-86.0255,-177.5641,115.5131,111.9232,
111.6664,-71.282,49.3589,-81.5386,115.8972,-225.7692,-144.1024,107.1797,-206.6667,107.6924,-75.3848,-192.5641,124.1023,102.564,
96.6664,-71.282,47.1794,-66.5386,101.5383,-210.7692,-159.1024,92.1797,-221.6667,92.6924,-90.3848,-177.5641,111.7947,88.2053,
111.6664,-56.282,33.8461,-51.5386,116.5383,-195.7692,-154.359,107.1797,-226.6666,107.6924,-105.3848,-162.5641,126.7947,103.2053,
126.6664,-71.282,48.8461,-66.5386,131.5383,-185.3846,-139.359,122.1797,-211.6666,122.6924,-90.3848,-157.1796,141.7947,118.2053,
111.6664,-72.5641,57.6923,-81.5386,116.5383,-200.3846,-139.2308,108.9745,-196.6666,114.1024,-75.3848,-172.1796,127.4359,112.5638,
126.6664,-77.1794,72.6923,-76.6667,113.5898,-215.3846,-154.2308,123.9745,-211.6666,129.1024,-90.3848,-187.1796,134.6155,121.7949,
111.6664,-92.1794,57.6923,-61.6667,98.5898,-200.3846,-169.2308,108.9745,-226.6666,114.1024,-105.3848,-202.1796,119.6155,106.7949,
126.6664,-77.1794,44.359,-48.4615,113.5898,-185.3846,-154.2308,123.9745,-211.6666,129.1024,-97.1796,-187.1796,134.6155,121.7949,
141.6664,-62.1794,49.4872,-60.2565,124.8719,-200.3846,-139.2308,138.9745,-196.6666,144.1024,-82.1796,-193.0768,142.3077,119.7435,
126.6664,-47.1794,45.3846,-48.4615,109.8719,-215.3846,-146.4103,123.9745,-210.5128,129.1024,-83.3334,-208.0768,127.3077,105.3846,
111.6664,-62.1794,60.3846,-63.4615,99.7433,-230.3846,-161.4103,108.9745,-225.5128,114.1024,-98.3334,-223.0768,112.3077,101.2819,
96.6664,-69.2308,62.5641,-56.923,114.7433,-245.3846,-146.4103,93.9745,-210.5128,99.1024,-92.8204,-208.0768,122.5641,96.4103,
96.4103,-54.2308,47.5641,-52.3077,129.7433,-247.6923,-131.4103,103.0768,-195.5128,106.1539,-77.8204,-211.2821,137.5641,111.4103,
111.4103,-45.6411,45.6411,-67.3077,116.4104,-232.6923,-116.4103,118.0768,-180.5128,121.1539,-71.7949,-196.2821,141.0259,117.436,
109.7435,-60.6411,48.2052,-82.3077,105.1283,-217.6923,-131.4103,115.3846,-195.5128,119.9999,-86.7949,-181.2821,132.3075,117.4359,
124.7435,-75.6411,63.2052,-80,120.1283,-215.8975,-146.4103,130.3846,-210.5128,134.9999,-101.7949,-168.718,147.3075,132.4359,
115.1283,-83.3334,63.8461,-82.3077,105.1283,-230.8975,-148.4615,115.3846,-195.5128,119.9999,-86.7949,-183.718,132.3075,117.4359,
100.1283,-68.3334,48.8461,-70.5128,120.1283,-232.5641,-133.4615,100.3846,-180.5128,104.9999,-71.7949,-184.359,137.6923,120.2562,
115.1283,-53.3334,49.7437,-55.5128,112.8203,-217.5641,-145.6411,113.8462,-181.5386,116.4102,-85.1282,-169.359,127.1797,120,
114.8721,-68.3334,64.7437,-67.1794,103.5898,-202.5641,-160.6411,128.8462,-190.7693,127.1797,-82.564,-154.359,135.8975,105,
129.8721,-83.3334,79.7437,-82.1794,118.5898,-215.641,-165.3846,143.8462,-205.7693,142.1797,-97.564,-169.359,150.8975,120,
114.8721,-68.3334,64.7437,-78.718,112.564,-230.641,-150.3846,128.8462,-217.1794,127.1797,-112.564,-184.359,135.8975,108.9741,
99.8721,-53.3334,49.7437,-63.718,103.333,-245.641,-135.3846,113.8462,-202.1794,112.1797,-97.564,-199.359,120.8975,93.9741,
114.8721,-47.1796,42.5641,-48.718,111.7948,-230.641,-137.9489,106.1537,-187.1794,111.7948,-82.564,-184.359,125.1283,108.9741,
129.8721,-62.1796,57.5641,-63.718,126.7948,-215.641,-133.3334,121.1537,-195.3846,126.7948,-97.564,-169.359,140.1283,123.9741,
144.8721,-77.1796,72.5641,-78.718,141.7948,-207.6921,-148.3334,136.1537,-210.3846,141.7948,-112.564,-184.359,155.1283,138.9741,
129.8721,-69.2308,69.2308,-93.718,126.7948,-222.6921,-147.6923,121.1537,-214.359,126.7948,-99.9999,-199.359,140.1283,123.9741,
114.8721,-54.2308,54.2308,-78.718,111.7948,-237.6921,-132.6923,106.1537,-199.359,111.7948,-84.9999,-212.0513,125.1283,108.9741,
108.4614,-64.8718,45.8975,-63.718,96.7948,-222.6921,-147.6923,91.5386,-205.8975,97.1797,-99.9999,-197.0513,110.1283,97.1797,
123.4614,-65.1282,60,-60,111.7948,-207.6921,-162.6923,106.5386,-190.8975,112.1797,-104.1025,-182.0513,125.1283,112.1797,
138.4614,-50.1282,45.1282,-75,126.7948,-192.6921,-151.282,121.5386,-180,127.1797,-89.1025,-167.0513,140.1283,127.1797,
153.4614,-65.1282,60.1282,-90,119.7438,-207.6921,-136.282,136.5386,-194.1024,142.1797,-74.6154,-182.0513,151.5385,136.6669,
138.4614,-50.5129,50.5129,-94.1025,104.7438,-222.6921,-121.282,121.5386,-179.1024,127.1797,-59.6154,-197.0513,136.5385,121.6669,
124.1025,-55.3845,55.3845,-79.1025,100,-219.4871,-136.282,107.1797,-194.1024,120.5127,-74.6154,-212.0513,121.5385,109.7437,
109.1025,-42.8204,42.8204,-64.1025,95.6412,-204.4871,-151.282,92.1797,-209.1024,105.5127,-89.6154,-197.0513,120.2565,118.7179,
122.5642,-31.282,31.282,-50.2563,110.6412,-189.4871,-154.8718,107.1797,-204.6155,120.5127,-102.5642,-182.0513,135.2565,133.7179,
124.8718,-46.282,46.282,-65.2563,125.6412,-204.4871,-139.8718,104.3591,-189.6155,111.5383,-89.4873,-197.0513,123.3333,118.7179,
109.8718,-55.8975,61.282,-63.0769,120.5129,-219.4871,-124.8718,89.3591,-174.6155,96.5383,-74.4873,-212.0513,116.4104,103.7179,
94.8718,-70.8975,66.1539,-61.5385,105.5129,-234.4871,-139.8718,74.3591,-189.6155,81.5383,-89.4873,-227.0513,113.8463,96.923,
79.8718,-85.8975,54.1027,-48.4615,101.795,-219.4871,-154.8718,59.3591,-204.6155,66.5383,-104.4873,-212.0513,106.4103,87.4362,
94.8718,-70.8975,39.1027,-55.3846,116.795,-204.4871,-144.1024,74.3591,-214.3588,81.5383,-102.5641,-197.0513,121.4103,102.4362,
96.4104,-55.8975,44.1025,-51.2822,101.795,-219.4871,-129.2307,73.3333,-199.3588,90.7693,-87.5641,-191.2822,106.4103,99.4871,
81.4104,-47.4359,47.4359,-52.5641,98.205,-234.4871,-135.1283,78.205,-184.3588,85.3846,-72.5641,-206.2822,100.7694,113.077,
96.4104,-62.4359,62.4359,-67.5641,113.205,-249.4871,-150.1283,93.205,-199.3588,100.3846,-87.5641,-221.2822,115.7694,128.077,
111.4104,-77.4359,68.7179,-68.7179,108.2052,-234.4871,-165.1283,108.205,-214.3588,115.3846,-102.5641,-206.2822,130.7694,123.077,
119.7437,-62.4359,53.7179,-53.7179,123.2052,-219.4871,-150.1283,123.205,-199.3588,130.3846,-87.5641,-191.2822,145.7694,138.077,
134.7437,-47.4359,42.5641,-42.5641,108.2052,-204.4871,-135.1283,138.205,-184.3588,145.3846,-76.4103,-177.4359,130.7694,123.077,
119.7437,-62.4359,57.5641,-57.5641,93.2052,-195.8976,-150.1283,123.205,-194.359,130.3846,-91.4103,-192.4359,125.1281,115.3844,
125.8977,-77.4359,72.5641,-72.5641,94.6155,-210.8976,-165.1283,115.6409,-209.359,122.3079,-106.4103,-207.4359,130.5129,122.3079,
110.8977,-62.4359,57.5641,-57.5641,87.1798,-225.8976,-150.1283,100.6409,-194.359,107.3079,-111.7948,-222.4359,115.5129,107.3079,
95.8977,-47.4359,42.5641,-69.2306,102.1798,-240.8976,-135.1283,85.6409,-203.5897,92.3079,-96.7948,-237.4359,111.2821,109.7435,
110.8977,-62.4359,57.5641,-84.2306,102.5641,-225.8976,-138.9742,99.4874,-188.5897,107.3079,-81.7948,-222.4359,126.2821,110.7692,
106.41,-77.4359,42.5641,-91.5385,87.5641,-210.8976,-152.0514,114.4874,-173.5897,122.3079,-96.7948,-207.4359,111.2821,99.7435,
121.41,-79.4872,57.5641,-76.5385,102.5641,-195.8976,-167.0514,129.4874,-188.5897,137.3079,-111.7948,-192.4359,126.2821,114.7435,
113.5898,-76.6667,54.1025,-61.5385,87.5641,-210.8976,-152.0514,114.4874,-178.2053,122.3079,-96.7948,-207.4359,123.333,111.0254,
98.5898,-61.6667,39.1025,-46.5385,102.5641,-225.8976,-137.0514,99.4874,-163.2053,107.3079,-81.7948,-206.6667,108.333,117.4358,
113.5898,-53.3334,53.3334,-55.8973,117.5641,-210.8976,-122.0514,114.4874,-157.9486,122.3079,-68.7179,-191.6667,123.333,132.4358,
128.5898,-68.3334,53.5898,-70.8973,102.5641,-195.8976,-107.0514,129.4874,-157.1794,137.3079,-53.7179,-176.6667,138.333,140.2566,
143.5898,-83.3334,68.5898,-79.7435,117.5641,-180.8976,-110.0001,144.4874,-172.1794,152.3079,-68.7179,-161.6667,153.333,155.2566,
128.5898,-68.3334,54.359,-64.7435,102.5641,-195.8976,-125.0001,129.4874,-187.1794,137.3079,-83.7179,-176.6667,138.333,140.2566,
113.5898,-53.3334,39.359,-49.7435,87.5641,-210.8976,-117.436,114.4874,-172.1794,122.3079,-68.7179,-191.6667,123.333,125.2566,
126.6667,-59.4873,49.2307,-49.2307,102.564,-195.8976,-132.436,109.2307,-157.1794,127.6921,-71.282,-176.6667,118.4617,110.7693,
130.5127,-74.4873,53.0769,-53.0769,116.6665,-180.8976,-147.436,124.2307,-172.1794,142.6921,-86.282,-161.6667,133.4617,125.7693,
145.5127,-72.0513,58.718,-58.718,131.6665,-165.8976,-162.436,139.2307,-187.1794,157.6921,-101.282,-146.6667,148.4617,140.7693,
130.5127,-87.0513,49.7437,-73.718,116.6665,-180.8976,-147.436,124.2307,-172.1794,142.6921,-86.282,-161.6667,133.4617,125.7693,
115.5127,-72.0513,34.7437,-58.718,101.6665,-195.8976,-147.1794,109.2307,-176.4102,127.6921,-92.8206,-176.6667,118.4617,110.7693,
130.5127,-76.923,49.7437,-59.4872,98.9742,-210.8976,-162.1794,124.2307,-191.4102,134.8717,-107.8206,-191.6667,117.4359,103.077,
137.4358,-91.923,53.8462,-74.4872,113.9742,-195.8976,-147.1794,139.2307,-176.4102,149.8717,-92.8206,-176.6667,132.4359,118.077,
152.4358,-105.6411,38.8462,-89.4872,128.9742,-180.8976,-132.1794,154.2307,-161.4102,164.8717,-77.8206,-161.6667,147.4359,133.077,
167.4358,-90.6411,51.0256,-88.9744,121.7949,-195.8976,-140.2563,169.2307,-176.4102,179.8717,-92.8206,-174.6152,160.7693,127.9487,
152.4358,-75.6411,43.3334,-89.4872,106.7949,-210.8976,-133.0768,154.2307,-190.5128,164.8717,-89.9999,-189.6152,145.7693,112.9487,
144.6155,-73.8462,58.3334,-81.5386,115.8975,-225.8976,-138.9744,141.5383,-189.2307,152.3079,-90.7693,-187.1794,144.6155,127.9487,
129.6155,-69.9999,57.6923,-66.5386,123.8463,-210.8976,-153.9744,126.5383,-204.2307,137.3079,-105.7693,-172.1794,131.0255,124.359,
114.6155,-54.9999,42.6923,-51.5386,138.8463,-195.8976,-154.6156,122.8204,-191.0258,133.5895,-90.7693,-157.1794,146.0255,139.359,
122.564,-49.7437,49.7437,-50.7693,123.8463,-180.8976,-139.6156,119.4873,-176.0258,127.1797,-75.7693,-142.1794,131.0255,124.359,
107.564,-50.0001,50.0001,-62.3077,110.5128,-195.8976,-124.6156,104.4873,-191.0258,112.1797,-83.3334,-157.1794,121.7946,116.1539,
118.9742,-65.0001,65.0001,-72.3077,112.3077,-210.8976,-139.6156,109.7438,-206.0258,126.6666,-98.3334,-172.1794,135.3844,131.1539,
103.9742,-80.0001,64.1025,-64.1025,114.3589,-195.8976,-154.6156,106.1538,-191.0258,117.9487,-113.3334,-157.1794,141.5386,125.6411,
118.9742,-65.0001,49.1025,-64.1024,129.3589,-180.8976,-139.6156,121.1538,-176.0258,132.9487,-98.3334,-142.1794,156.5386,140.6411,
133.9742,-50.0001,41.2821,-54.1024,114.3589,-194.6154,-124.6156,136.1538,-171.5385,147.9487,-83.3334,-157.1794,141.5386,125.6411,
118.9742,-60.7693,56.2821,-64.8718,111.5383,-209.6154,-139.6156,121.1538,-186.5385,132.9487,-68.4614,-172.1794,137.6921,134.6155,
133.9742,-75.7693,71.2821,-79.8718,126.5383,-224.6154,-154.6156,136.1538,-201.5385,147.9487,-83.4614,-174.1025,152.6921,149.6155,
147.4357,-70.5128,69.4872,-69.4872,119.2306,-209.6154,-153.077,141.795,-190.5128,157.1793,-98.4614,-189.1025,150.5128,134.6155,
132.4357,-55.5128,54.4872,-54.4872,123.5898,-194.6154,-138.077,126.795,-205.5128,142.1793,-98.4614,-204.1025,135.5128,119.6155,
147.4357,-48.4614,48.4614,-49.4871,118.2051,-179.6154,-130.5127,135.1284,-190.5128,144.8716,-83.8462,-189.1025,131.0259,125.3845,
136.6669,-63.4614,56.6666,-64.4871,115.1283,-164.6154,-131.0258,146.9232,-175.5128,152.5638,-68.8462,-174.1025,141.7948,140.3845,
151.6669,-73.3334,71.6666,-79.4871,130.1283,-158.4615,-146.0258,161.9232,-190.5128,167.5638,-83.8462,-184.6154,156.7948,155.3845,
151.7948,-61.5385,61.5385,-67.6923,115.3846,-173.4615,-161.0258,146.9232,-205.5128,152.5638,-98.8462,-199.6154,141.7948,140.3845,
136.7948,-46.5385,46.5385,-82.6923,123.8459,-188.4615,-146.0258,131.9232,-219.2307,137.5638,-99.2307,-214.6154,131.0256,125.3845,
121.7948,-58.4615,58.4615,-94.8717,119.4872,-173.4615,-139.9999,116.9232,-204.2307,122.5638,-99.9999,-199.6154,123.5897,110.3845,
136.7948,-54.1025,54.1025,-80.2563,121.2822,-158.4615,-148.4614,131.9232,-189.2307,137.5638,-84.9999,-184.6154,136.1538,117.1797,
151.7948,-54.6154,54.6154,-88.9742,136.2822,-166.4103,-163.4614,146.9232,-204.2307,152.5638,-99.9999,-169.6154,151.1538,132.1797,
136.7948,-56.9231,56.9231,-73.9742,121.2822,-181.4103,-148.4614,131.9232,-193.8462,137.5638,-108.2051,-184.6154,136.1538,117.1797,
121.7948,-41.9231,41.9231,-61.7947,125.3848,-196.4103,-133.4614,116.9232,-178.8462,122.5638,-93.2051,-199.6154,121.1538,102.1797,
136.7948,-56.9231,56.9231,-68.2051,132.8206,-181.4103,-137.4358,115.3845,-187.6924,123.5896,-93.3333,-184.6154,115.3845,111.7949,
145.8973,-71.9231,56.6666,-56.6666,122.3075,-166.4103,-152.4358,130.3845,-191.5385,138.5896,-108.3333,-169.6154,130.3845,115.641,
160.8973,-58.2051,45.8975,-45.8975,137.3075,-151.4103,-141.7949,145.3845,-204.3589,153.5896,-113.0769,-154.6154,145.3845,130.641,
154.1025,-52.0513,52.0513,-60.8975,122.3075,-166.4103,-150.5127,133.0771,-189.3589,145.8975,-98.0769,-169.6154,133.0771,115.641,
139.1025,-37.0513,55.6409,-49.4871,116.1541,-181.4103,-135.5127,118.0771,-174.3589,130.8975,-83.0769,-184.6154,118.0771,107.949,
124.1025,-52.0513,58.4618,-35.8973,121.5385,-196.4103,-146.6666,103.0771,-189.3589,115.8975,-98.0769,-194.359,103.0771,106.6669,
122.8204,-64.359,58.7179,-50.8973,136.5385,-181.4103,-161.6666,114.6154,-203.8461,121.2819,-113.0769,-179.359,118.0771,121.6669,
137.8204,-68.7179,68.7179,-65.8973,151.5385,-166.4103,-176.6666,129.6154,-205.1283,136.2819,-106.6666,-164.359,133.0771,136.6669,
144.1025,-77.4358,77.4358,-80.8973,136.5385,-181.4103,-161.6666,134.3589,-198.4614,150.2563,-111.282,-179.359,148.0771,121.6669,
129.1025,-62.4358,62.4358,-95.641,121.5385,-196.4103,-146.6666,119.3589,-183.4614,135.2563,-105.3846,-194.359,133.0771,106.6669,
144.1025,-65.3845,65.3845,-110.641,126.9231,-211.4103,-161.6666,134.3589,-198.4614,150.2563,-119.2307,-187.9487,145.3845,115.6411,
146.4102,-73.0769,72.0513,-95.641,141.9231,-196.4103,-152.0513,142.3076,-213.4614,157.6924,-125.8975,-202.9487,160.3845,130.6411,
161.0259,-58.0769,57.0513,-80.641,156.9231,-181.4103,-137.0513,157.3076,-198.4614,172.6924,-110.8975,-187.9487,175.3845,145.6411,
176.0259,-55.1282,55.1282,-95.641,141.9231,-171.5383,-122.3076,172.3076,-183.4614,187.6924,-95.8975,-172.9487,161.282,136.1538,
161.0259,-48.2051,48.2051,-99.4871,126.9231,-186.5383,-122.564,157.3076,-179.4871,172.6924,-91.282,-187.9487,148.718,127.6921,
146.0259,-63.2051,55.8973,-84.4871,118.4615,-201.5383,-137.564,142.3076,-194.4871,157.6924,-106.282,-202.9487,138.9742,126.1539,
131.0259,-68.7179,49.2308,-69.4871,109.7438,-186.5383,-152.564,127.3076,-208.2052,142.6924,-121.282,-187.9487,124.6154,112.3077,
116.0259,-53.7179,34.2308,-54.4871,124.7438,-171.5383,-137.564,112.3076,-193.2052,127.6924,-106.282,-172.9487,139.6154,127.3077,
112.0513,-62.8206,40.2563,-40.2563,119.231,-180.7693,-124.8718,99.7437,-178.2052,112.6924,-91.282,-163.3333,124.6154,112.3077,
97.0513,-66.1538,55.2563,-55.2563,120,-195.7693,-125.6409,97.9487,-186.6665,111.7949,-106.282,-178.3333,131.2822,118.9746,
112.0513,-81.1538,70.2563,-70.2563,120.5129,-210.7693,-140.6409,112.9487,-201.6665,126.7949,-121.282,-193.3333,146.2822,133.9746,
97.0513,-79.2307,59.2307,-59.2307,105.5129,-225.7693,-154.1025,97.9487,-186.6665,111.7949,-107.9487,-208.3333,131.2822,118.9746,
88.7179,-64.2307,44.2307,-44.2307,120.5129,-215.3846,-139.1025,92.3077,-171.6665,107.692,-92.9487,-216.4103,126.6666,123.0768,
103.7179,-59.7437,51.0256,-51.0256,114.6155,-200.3846,-135.6411,107.3077,-168.4617,122.692,-103.8462,-201.4103,138.7178,122.3076,
110.5129,-74.7437,54.1025,-66.0256,103.8459,-185.3846,-150.6411,114.6155,-183.4617,120.7693,-118.8462,-186.4103,136.6667,119.7434,
125.5129,-89.7437,69.1025,-81.0256,118.8459,-200.3846,-165.6411,129.6155,-198.4617,135.7693,-127.4358,-171.4103,151.6667,134.7434,
110.5129,-104.7437,65.3846,-66.0256,103.8459,-215.3846,-180.6411,114.6155,-206.9232,120.7693,-133.5897,-186.4103,136.6667,119.7434,
95.5129,-89.7437,50.3846,-51.0256,104.1027,-230.3846,-165.6411,99.6155,-191.9232,105.7693,-118.5897,-201.4103,121.6667,104.7434,
110.5129,-74.7437,38.7179,-38.7179,102.3077,-215.3846,-150.6411,102.3077,-176.9232,115.1281,-113.5897,-186.4103,109.4874,103.3334,
125.5129,-83.5897,53.7179,-53.7179,117.3077,-200.3846,-135.6411,117.3077,-161.9232,130.1281,-98.5897,-171.4103,124.4874,118.3334,
140.5129,-83.0768,68.7179,-68.7179,132.3077,-202.5641,-150.6411,132.3077,-176.9232,145.1281,-83.5897,-156.4103,139.4874,133.3334,
125.5129,-68.0768,67.1796,-67.6923,117.3077,-217.5641,-157.4359,117.3077,-191.9232,130.1281,-98.5897,-171.4103,129.7438,118.3334,
110.5129,-53.0768,61.2823,-52.6923,108.9742,-232.5641,-142.4359,102.3077,-176.9232,115.1281,-83.5897,-186.4103,114.7438,103.3334,
102.5642,-68.0768,72.8206,-67.6923,111.282,-217.5641,-144.1025,87.3077,-186.6667,106.1536,-98.5897,-171.4103,129.7438,109.7434,
117.5642,-58.4615,58.4615,-77.9486,126.282,-202.5641,-159.1025,102.3077,-199.9999,121.1536,-90.7692,-156.4103,144.7438,124.7434,
132.5642,-57.6924,57.6924,-92.9486,141.282,-187.9487,-174.1025,117.3077,-214.9999,136.1536,-105.7692,-161.282,159.7438,139.7434,
147.5642,-72.6924,72.6924,-106.923,126.282,-202.9487,-159.1025,132.3077,-199.9999,151.1536,-107.4359,-176.282,166.4103,124.7434,
132.5642,-57.6924,57.6924,-91.923,111.282,-217.9487,-144.1025,117.3077,-184.9999,136.1536,-92.4359,-191.282,151.4103,109.7434,
119.4871,-72.3079,61.0256,-76.923,111.282,-212.8206,-154.3591,102.3077,-199.9999,121.1536,-107.4359,-186.6667,136.4103,118.9744,
133.8459,-87.3079,55.8975,-61.923,108.718,-197.8206,-164.6155,117.3077,-188.718,136.1536,-122.4359,-171.6667,139.9998,129.2307,
148.8459,-72.3079,46.4103,-46.923,123.718,-182.8206,-149.6155,132.3077,-173.718,151.1536,-107.4359,-156.6667,154.9998,144.2307,
148.4614,-57.3079,54.1025,-61.923,111.5383,-197.8206,-134.6155,133.5898,-165.3848,154.1025,-92.4359,-171.6667,139.9998,129.2307,
133.4614,-47.1794,48.2053,-75.3845,99.4871,-212.8206,-119.6155,118.5898,-150.3848,139.1025,-77.4359,-186.6667,124.9998,114.2307,
118.4614,-62.1794,63.2053,-70.7693,103.0771,-227.8206,-134.6155,103.5898,-165.3848,124.1025,-92.4359,-186.6665,129.7437,116.4102,
110.5129,-71.0256,57.1794,-57.1794,105.8972,-212.8206,-149.6155,99.7434,-180.3848,115.1282,-107.4359,-171.6665,127.949,106.4104,
125.5129,-56.0256,45.3845,-46.4104,120.8972,-197.8206,-159.2307,114.7434,-195.3848,130.1282,-122.4359,-156.6665,142.949,121.4104,
140.5129,-67.4358,60.3845,-61.4104,105.8972,-199.7437,-144.2307,129.7434,-180.3848,145.1282,-107.4359,-171.6665,137.6924,121.7949,
125.5129,-52.4358,45.3845,-76.4104,90.8972,-214.7437,-135.8976,114.7434,-165.3848,130.1282,-92.4359,-186.6665,126.1537,106.7949,
140.5129,-67.4358,60.3845,-91.4104,105.8972,-229.7437,-150.8976,129.7434,-180.3848,145.1282,-107.4359,-201.6665,141.1537,115.6411,
155.5129,-82.4358,75.3845,-84.8717,120.8972,-214.7437,-165.8976,144.7434,-195.3848,160.1282,-122.4359,-186.6665,156.1537,130.6411,
163.0769,-67.4358,60.3845,-69.8717,135.8972,-199.7437,-150.8976,159.7434,-180.3848,174.8718,-107.4359,-171.6665,171.1537,145.6411,
160.5127,-52.4358,51.282,-68.718,126.6667,-207.6924,-135.8976,144.7434,-165.3848,159.8718,-92.4359,-171.282,156.1537,130.6411,
145.5127,-52.8207,52.8207,-59.4872,111.6667,-217.4359,-149.2308,129.7434,-180.3848,144.8718,-107.4359,-186.282,141.1537,115.6411,
157.6925,-67.8207,66.923,-66.923,101.7948,-232.4359,-164.2308,139.7438,-195.3848,159.8718,-122.4359,-201.282,128.4615,127.4359,
142.6925,-74.359,63.077,-63.077,110.2562,-247.4359,-149.2308,124.7438,-180.3848,144.8718,-107.4359,-186.282,127.1796,114.8719,
127.6925,-59.359,48.077,-48.077,125.2562,-244.3589,-134.2308,109.7438,-165.3848,129.8718,-92.4359,-201.282,142.1796,129.8719,
112.6925,-74.359,33.5897,-33.5897,111.5387,-229.3589,-139.2308,94.7438,-150.3848,114.8718,-96.1539,-186.282,127.1796,114.8719,
97.6925,-89.359,29.4872,-48.5897,96.5387,-214.3589,-154.2308,102.8207,-165.3848,117.1796,-111.1539,-171.282,114.1024,108.9745,
112.6925,-85.1282,44.4872,-63.5897,111.5387,-202.0513,-166.1538,117.8207,-180.3848,132.1796,-126.1539,-164.1025,129.1024,123.9745,
103.077,-70.1282,59.4872,-59.4872,114.3588,-217.0513,-151.1538,102.8207,-165.3848,117.1796,-111.1539,-179.1025,128.7181,111.7948,
88.077,-55.1282,44.4872,-49.4872,129.3588,-232.0513,-136.1538,87.8207,-150.3848,102.1796,-96.1539,-171.5385,130.0001,126.7948,
103.077,-57.9486,57.4359,-57.4359,132.3077,-217.0513,-128.7179,102.8207,-158.4615,117.1796,-81.1539,-156.5385,145.0001,135.8976,
118.077,-72.9486,72.4359,-72.4359,133.0771,-202.0513,-135.6411,117.8207,-173.4615,132.1796,-96.1539,-141.5385,160.0001,142.8203,
133.077,-87.9486,87.4359,-87.4359,148.0771,-217.0513,-150.6411,132.8207,-188.4615,147.1796,-111.1539,-156.5385,175.0001,157.8203,
141.282,-102.9486,78.718,-78.718,133.0771,-232.0513,-165.6411,122.8206,-203.4615,142.8206,-126.1539,-171.5385,160.0001,142.8203,
126.282,-87.9486,63.718,-63.718,118.0771,-247.0513,-150.6411,107.8206,-188.4615,127.8206,-111.1539,-186.5385,145.0001,127.8203,
126.6666,-72.9486,48.718,-48.718,119.4869,-232.0513,-135.6411,106.1537,-173.4615,130.7692,-113.8463,-171.5385,132.8204,115.8976,
130.2566,-79.4873,63.718,-63.718,124.1028,-217.0513,-150.6411,121.1537,-188.4615,145.6409,-120.5129,-156.5385,147.8204,130.8976,
145.2566,-94.4873,65.3846,-65.3846,137.6923,-202.0513,-165.6411,136.1537,-202.8207,160.6409,-123.8463,-141.5385,162.8204,145.8976,
130.2566,-86.4104,58.718,-58.718,122.6923,-217.0513,-150.6411,121.1537,-187.8207,145.6409,-108.8463,-156.5385,147.8204,130.8976,
115.2566,-71.4104,65.3846,-54.6154,108.9745,-232.0513,-135.6411,106.1537,-177.6923,130.6409,-93.8463,-171.5385,132.8204,115.8976,
100.2566,-75.3846,80.3846,-69.6154,101.0255,-234.8717,-150.6411,91.1537,-192.6923,115.6409,-108.8463,-181.0258,117.8204,100.8976,
115.2566,-62.3076,65.3846,-64.8718,116.0255,-219.8717,-158.2051,106.1537,-177.6923,130.6409,-105.3845,-166.0258,132.8204,115.8976,
130.2566,-47.3076,50.3846,-72.0513,131.0255,-204.8717,-147.9487,121.1537,-173.0769,145.6409,-96.6667,-151.0258,147.8204,130.8976,
145.2566,-62.3076,65.3846,-87.0513,127.1796,-219.8717,-132.9487,136.1537,-182.0514,160.6409,-83.077,-158.9742,162.8204,145.8976,
130.2566,-47.3076,50.3846,-87.6924,112.1796,-234.8717,-117.9487,121.1537,-196.9231,145.6409,-88.2053,-173.9742,147.8204,130.8976,
133.3336,-62.3076,65.3846,-81.0255,125.1281,-223.5897,-132.9487,110.7692,-211.9231,130.6409,-103.2053,-188.9742,132.8204,118.4615,
148.3336,-77.3076,69.7435,-69.7435,140.1281,-208.5897,-140.0001,125.7692,-196.9231,145.6409,-89.2308,-173.9742,147.8204,133.4615,
163.3336,-62.3076,54.7435,-54.7435,155.1281,-193.5897,-125.0001,140.7692,-181.9231,160.6409,-74.2308,-158.9742,162.8204,148.4615,
148.3336,-47.3076,39.7435,-51.5386,140.1281,-208.5897,-131.0256,125.7692,-188.4614,145.6409,-89.2308,-173.9742,147.8204,133.4615,
133.3336,-32.3076,54.7435,-41.2822,125.1281,-223.5897,-116.0256,110.7692,-173.4614,130.6409,-98.2053,-188.9742,132.8204,118.4615,
118.3336,-47.3076,68.9747,-56.2822,122.8204,-225.8973,-131.0256,95.7692,-188.4614,115.6409,-113.2053,-203.9742,117.8204,127.4362,
103.3336,-54.6151,53.9747,-42.8204,112.0514,-210.8973,-146.0256,80.7692,-203.4614,100.6409,-128.2053,-217.6923,102.8204,112.4362,
88.3336,-39.6151,38.9747,-54.1027,127.0514,-195.8973,-140.7694,65.7692,-218.4614,85.6409,-143.2053,-221.2821,92.5638,97.4362,
103.3336,-45.1283,45.1283,-69.1027,140.0001,-187.1796,-125.7694,80.7692,-203.4614,97.4357,-128.2053,-206.2821,106.1539,98.9742,
118.3336,-57.6923,57.6923,-84.1027,155.0001,-174.6154,-124.359,95.7692,-188.4614,112.4357,-113.2053,-191.2821,121.1539,113.9742,
133.3336,-71.0256,71.0256,-78.2053,146.4102,-189.6154,-139.359,110.7692,-203.4614,127.4357,-128.2053,-176.2821,136.1539,128.9742,
118.3336,-56.0256,56.0256,-63.2053,131.4102,-204.6154,-153.3334,95.7692,-218.4614,112.4357,-143.2053,-191.2821,121.1539,113.9742,
103.3336,-41.0256,41.0256,-48.2053,139.4869,-219.6154,-138.3334,80.7692,-203.4614,97.4357,-128.2053,-206.2821,106.1539,103.59,
118.3336,-56.0256,55.3846,-55.3846,144.1024,-204.6154,-134.8717,95.7692,-188.4614,112.4357,-119.4872,-191.2821,121.1539,100.0001,
122.8207,-71.0256,50.5128,-68.9745,129.1024,-189.6154,-149.8717,110.7692,-203.4614,119.2308,-134.4872,-176.2821,122.3075,101.7948,
137.8207,-73.3333,50.7693,-53.9745,124.6152,-204.6154,-164.8717,125.7692,-218.4614,134.2308,-149.4872,-191.2821,123.0769,116.7948,
122.8207,-58.3333,39.4872,-40.5128,109.6152,-219.6154,-149.8717,110.7692,-203.4614,119.2308,-134.4872,-206.2821,108.0769,101.7948,
107.8207,-43.3333,24.4872,-55.5128,124.6152,-213.3333,-134.8717,95.7692,-188.4614,104.2308,-119.4872,-221.2821,116.4104,105.1282,
122.8207,-44.8717,39.4872,-53.077,130.5128,-198.3333,-119.8717,110.7692,-184.8717,116.6666,-118.2052,-206.2821,125.3844,110.5128,
135.8972,-59.8717,54.4872,-68.077,115.5128,-183.3333,-134.8717,125.7692,-199.8717,131.6666,-127.6924,-191.2821,133.3333,116.9231,
150.8972,-74.8717,69.4872,-83.077,122.0511,-198.3333,-149.8717,140.7692,-214.8717,146.6666,-142.6924,-206.2821,148.3333,128.7179,
135.8972,-65.3845,65.3845,-68.077,107.0511,-213.3333,-136.6667,125.7692,-199.8717,131.6666,-127.6924,-221.2821,136.1538,113.7179,
120.8972,-50.3845,50.3845,-53.077,118.9741,-227.6924,-121.6667,110.7692,-184.8717,116.6666,-112.6924,-208.718,121.1538,122.564,
135.8972,-65.3845,65.3845,-68.077,127.6924,-212.6924,-136.6667,125.7692,-196.4102,131.6666,-122.0513,-193.718,136.1538,137.564,
150.8972,-80.3845,80.3845,-83.077,133.3334,-197.6924,-151.6667,140.7692,-204.1027,146.6666,-123.077,-178.718,151.1538,149.7438,
165.8972,-83.5896,83.0769,-83.0769,148.3334,-182.6924,-152.3076,155.7692,-202.0513,161.6666,-114.3589,-163.718,166.1538,164.7438,
166.9231,-82.8206,82.8206,-88.9744,133.3334,-197.6924,-151.0256,153.5896,-197.1794,157.6921,-129.3589,-178.718,151.1538,149.7438,
151.9231,-67.8206,67.8206,-77.9486,118.3334,-212.6924,-136.0256,138.5896,-182.1794,142.6921,-114.3589,-193.718,136.1538,134.7438,
136.9231,-59.7435,52.8206,-62.9486,103.3334,-197.6924,-151.0255,123.5896,-167.1794,127.6921,-100.7692,-178.718,121.1538,119.7438,
121.9231,-65.8973,51.5385,-51.5385,117.6923,-182.6924,-160.7692,131.5385,-182.1794,135.641,-115.7692,-167.4359,136.1538,125.8973,
136.9231,-61.5385,61.5385,-66.5385,132.6923,-167.6924,-157.4359,146.5385,-197.1794,150.641,-130.7692,-167.1796,151.1538,140.8973,
134.6155,-76.5385,67.9487,-67.9487,117.6923,-182.6924,-151.5383,131.5385,-185.3845,135.641,-115.7692,-182.1796,136.1538,125.8973,
119.6155,-61.5385,70.5129,-52.9487,102.6923,-197.6924,-136.5383,116.5385,-170.3845,120.641,-100.7692,-197.1796,121.1538,110.8973,
104.6155,-46.5385,69.4872,-37.9487,97.6923,-212.6924,-151.5383,101.5385,-185.3845,105.641,-115.7692,-212.1796,106.1538,95.8973,
99.7435,-53.077,54.4872,-52.9487,112.5638,-197.6924,-166.5383,103.8461,-200.3845,108.974,-130.7692,-197.1796,121.1538,110.8973,
114.7435,-42.0513,42.0513,-67.9487,127.5638,-182.6924,-157.4358,118.8461,-211.282,123.974,-118.9744,-182.1796,136.1538,125.8973,
129.7435,-57.0513,57.0513,-72.5641,112.5638,-197.6924,-142.4358,133.8461,-196.282,138.974,-116.1537,-197.1796,132.5641,120.2565,
114.7435,-61.2821,61.2821,-72.5643,97.5638,-212.6924,-127.4358,118.8461,-185.3846,123.974,-101.1537,-212.1796,117.5641,105.3846,
127.1796,-76.2821,72.8204,-72.8204,98.4618,-227.6924,-142.4358,112.8207,-200.3846,125.1283,-116.1537,-227.1796,124.1024,120.3846,
122.5642,-91.2821,68.718,-68.718,113.4618,-212.6924,-157.4358,121.0256,-215.3846,131.7947,-131.1537,-212.1796,135.8972,135.3846,
137.5642,-76.2821,53.718,-53.718,128.4618,-197.6924,-159.7437,136.0256,-200.3846,146.7947,-116.1537,-197.1796,150.8972,150.3846,
127.6921,-61.2821,38.718,-38.718,113.4618,-212.6924,-144.7437,121.0256,-185.3846,131.7947,-101.1537,-212.1796,135.8972,135.3846,
112.6921,-46.2821,49.4869,-44.359,98.4618,-227.6924,-129.7437,106.0256,-191.0258,116.7947,-86.9232,-227.1796,120.8972,120.3846,
127.6921,-61.2821,64.4869,-59.359,98.7179,-233.5897,-144.7437,121.0256,-206.0258,131.7947,-101.9232,-223.8461,117.1796,134.1024,
112.6921,-60.2563,49.4869,-48.9744,83.7179,-248.5897,-159.7437,106.0256,-221.0258,116.7947,-116.9232,-238.2051,102.1796,119.1024,
97.6921,-45.2563,34.4869,-33.9744,81.5383,-263.5897,-144.7437,91.0256,-206.0258,101.7947,-131.9232,-253.2051,87.1796,104.1024,
82.6921,-58.2052,42.3077,-42.3077,87.9486,-248.5897,-142.3077,76.0256,-191.0258,86.7947,-139.2308,-238.2051,83.3334,89.1024,
97.6921,-73.2052,57.3077,-57.3077,102.9486,-233.5897,-157.3077,91.0256,-198.4615,101.7947,-127.6923,-223.2051,98.3334,104.1024,
112.6921,-88.2052,72.3077,-72.3077,107.1794,-218.5897,-172.3077,106.0256,-213.4615,116.7947,-142.6923,-215.3848,113.3334,119.1024,
97.6921,-73.2052,57.3077,-57.3077,92.1794,-233.5897,-172.0511,91.0256,-221.7948,101.7947,-138.7179,-230.3848,98.3334,104.1024,
82.6921,-58.2052,42.3077,-42.3077,90.0002,-230,-157.0511,76.0256,-206.7948,86.7947,-123.7179,-228.4614,83.3334,89.1024,
97.6921,-73.2052,44.6154,-44.6154,78.9745,-215,-172.0511,91.0256,-221.7948,101.7947,-138.7179,-213.4614,90.2565,99.9999,
112.6921,-88.2052,59.6154,-59.6154,79.7438,-200,-187.0511,106.0256,-236.7948,116.7947,-153.7179,-198.4614,105.2565,114.1027,
127.6921,-96.9231,62.0513,-62.0513,94.7438,-215,-202.0511,121.0256,-251.7948,131.7947,-168.7179,-213.4614,120.2565,122.0513,
112.6921,-81.9231,48.4617,-48.4617,79.7438,-230,-187.0511,106.0256,-236.7948,116.7947,-153.7179,-228.4614,105.2565,107.0513,
97.6921,-66.9231,33.4617,-33.4617,91.0254,-215,-172.0511,91.0256,-221.7948,101.7947,-138.7179,-213.4614,90.2565,102.8203,
110.2562,-51.9231,29.2308,-29.2308,91.7948,-200,-157.0511,93.8461,-206.7948,92.8207,-123.7179,-198.4614,85.641,114.3588,
115.641,-66.9231,44.2308,-44.2308,97.6923,-185,-172.0511,108.8461,-221.7948,107.8207,-138.7179,-183.4614,100.641,120.7694,
130.641,-81.9231,59.2308,-59.2308,112.6923,-200,-187.0511,123.8461,-236.7948,122.8207,-153.7179,-194.6155,115.641,135.7694,
115.641,-66.9231,61.0258,-61.0258,107.1796,-215,-172.0511,108.8461,-221.7948,107.8207,-138.7179,-209.6155,111.7948,120.7694,
100.641,-51.9231,46.0258,-46.0258,105.6411,-221.5386,-157.0511,93.8461,-206.7948,92.8207,-123.7179,-194.6155,96.7948,105.7694,
115.641,-51.0256,51.0256,-54.6152,106.9231,-233.0769,-148.4614,104.3591,-216.1538,107.8207,-119.2307,-179.6155,92.0513,114.1028,
109.231,-64.6155,53.3333,-53.3333,108.2051,-218.0769,-163.4614,119.3591,-231.1538,116.4102,-134.2307,-194.6155,107.0513,100,
124.231,-49.6155,49.2307,-53.8462,123.2051,-203.0769,-155.8975,134.3591,-246.1538,131.4102,-149.2307,-184.6152,122.0513,115,
139.231,-64.6155,64.2307,-68.8462,133.3333,-218.0769,-163.0769,149.3591,-231.1538,146.4102,-134.2307,-199.6152,137.0513,127.6924,
124.231,-49.6155,79.2307,-53.8462,146.6665,-203.0769,-148.0769,134.3591,-216.1538,131.4102,-119.2307,-184.6152,122.0513,135.8975,
109.231,-34.6155,64.2307,-38.8462,131.6665,-188.0769,-133.0769,119.3591,-201.1538,116.4102,-104.2307,-169.6152,107.0513,120.8975,
124.231,-49.6155,49.2307,-42.5641,116.6665,-188.2052,-148.0769,104.3591,-216.1538,101.4102,-119.2307,-184.6152,92.0513,105.8975,
109.231,-34.6155,34.2307,-57.5641,101.6665,-173.2052,-133.0769,89.3591,-201.1538,86.4102,-104.2307,-169.6152,77.0513,90.8975,
94.231,-19.6155,19.2307,-72.5641,86.6665,-158.2052,-118.0769,74.3591,-186.1538,71.4102,-89.2307,-154.6152,62.0513,75.8975,
79.231,-4.6155,4.2307,-70,71.6665,-143.2052,-103.0769,59.3591,-171.1538,56.4102,-74.2307,-139.6152,47.0513,60.8975,
64.231,-11.2822,-10.7693,-85,56.6665,-128.2052,-88.0769,44.3591,-156.1538,41.4102,-59.2307,-124.6152,32.0513,45.8975,
49.231,3.7178,-25.7693,-100,71.6665,-113.2052,-73.0769,29.3591,-141.1538,26.4102,-44.2307,-109.6152,47.0513,44.8718,
34.231,2.8208,-40.7693,-115,56.6665,-98.2052,-58.0769,14.3591,-126.1538,11.4102,-29.2307,-94.6152,48.4619,42.8208,
19.231,10.5129,-55.7693,-130,41.6665,-83.2052,-43.0769,-0.64087,-111.1538,-3.5898,-14.2307,-79.6152,33.4619,32.051,
4.231,-0.76929,-70.7693,-145,26.6665,-68.2052,-28.0769,-7.9485,-101.282,0.76929,0.76929,-64.6152,18.4619,28.4617,
19.231,3.0769,-66.1538,-160,41.6665,-53.2052,-35.3845,7.0515,-116.282,15.7693,-3.0769,-49.6152,33.4619,43.4617,
4.231,18.0769,-51.1538,-145,56.6665,-38.2052,-20.3845,-7.9485,-101.282,0.76929,11.9231,-34.6152,48.4619,58.4617,
-10.769,33.0769,-66.1538,-130,41.6665,-23.2052,-5.3845,-22.9485,-86.282,-14.2307,26.9231,-19.6152,33.4619,43.4617,
0.25659,24.3591,-81.1538,-131.0256,26.6665,-8.2052,-0.25659,-20.7693,-87.9487,-12.0515,41.9231,-4.6152,23.3333,28.4617,
-14.7434,9.3591,-78.4614,-146.0256,29.2307,6.7948,-15.2566,-8.718,-87.6921,-10.2561,36.4104,10.3848,27.1794,13.4617,
0.25659,-5.6409,-81.0256,-156.4102,30.2566,-3.0769,-30.2566,6.282,-102.6921,4.7439,21.4104,-4.6152,32.8206,28.4617,
-1.5386,9.3591,-66.0256,-141.4102,45.2566,-6.6665,-15.2566,-8.7178,-87.6921,-10.2561,36.4104,10.3848,47.8206,43.4617,
-16.5386,24.3591,-81.0256,-126.4102,40.0002,-3.5896,-0.25659,-23.7178,-84.1023,-25.2561,51.4104,3.5896,32.8206,28.4617,
-25.1282,17.9485,-66.0256,-131.7949,41.0256,11.4104,4.6155,-38.7178,-86.6667,-40.2561,55.8972,-4.6155,31.282,43.4617,
-25.3848,2.9485,-81.0256,-146.7949,26.0256,26.4104,-10.3845,-23.7178,-101.6667,-25.2561,40.8972,10.3845,16.282,49.4873,
-10.3848,-12.0515,-96.0256,-161.7949,11.0256,23.3335,-25.3845,-8.7178,-116.6667,-10.2561,25.8972,-4.6155,25.3848,34.4873,
4.6152,-10,-81.0256,-161.282,26.0256,8.3335,-32.0513,6.2822,-116.6667,4.7439,33.0767,-19.6155,38.2051,19.4873,
-10.3848,5,-89.7434,-146.282,41.0256,-2.0515,-17.0513,-8.7178,-101.6667,-10.2561,48.0767,-4.6155,38.9744,34.4873,
0.25635,-0.25635,-84.8718,-159.7437,40.2563,12.9485,-24.3589,-23.7178,-86.6667,-21.2822,43.8462,10.3845,25.8975,37.6924,
-2.3076,-15.2563,-99.8718,-174.7437,25.2563,27.9485,-39.3589,-8.7178,-101.6667,-6.2822,50,25.3845,10.8975,22.6924,
12.6924,-30.2563,-114.8718,-189.7437,10.2563,22.0516,-54.3589,6.2822,-116.6667,8.7178,36.9232,10.3845,5.641,7.6924,
-2.3076,-15.2563,-99.8718,-174.7437,24.1025,27.1797,-39.3589,-8.7178,-101.6667,-6.2822,51.9232,5.1284,4.1025,15.3848,
-17.3076,-0.25635,-84.8718,-159.7437,39.1025,12.1797,-24.3589,-23.7178,-86.6667,-21.2822,66.9232,9.7437,19.1025,30.3848,
-2.3076,-5.641,-69.8718,-144.7437,54.1025,-2.8203,-39.3589,-8.7178,-101.6667,-6.2822,51.9232,-5.2563,34.1025,45.3848,
11.0259,-4.3589,-54.8718,-129.7437,62.8208,4.3589,-54.3589,6.2822,-116.6667,8.7178,36.9232,-20.2563,49.1025,59.231,
26.0259,-19.3589,-64.1025,-144.7437,72.8206,19.3589,-69.3589,21.2822,-131.6667,23.7178,21.9232,-35.2563,64.1025,74.231,
41.0259,-34.3589,-49.1025,-139.7437,65.3848,4.3589,-61.7949,36.2822,-116.6667,38.7178,6.9232,-50.2563,79.1025,79.2305,
26.0259,-19.3589,-34.1025,-127.6924,54.3589,-10.6411,-46.7949,21.2822,-101.6667,23.7178,21.9232,-49.231,64.1025,64.2305,
41.0259,-13.5897,-19.1025,-116.6666,69.3589,-25.6411,-61.7949,36.2822,-116.6667,38.7178,6.9232,-64.231,79.1025,79.2305,
56.0259,-28.5897,-4.1025,-107.436,84.3589,-20.7693,-76.7949,51.2822,-131.6667,53.7178,-8.0768,-49.231,94.1025,94.2305,
71.0259,-13.5897,-16.6666,-100.7692,99.3589,-5.7693,-75.641,66.2822,-138.2052,68.7178,-6.4103,-34.231,109.1025,109.2305,
86.0259,-28.5897,-1.6666,-110.0001,88.9742,-20.7693,-90.641,81.2822,-153.2052,83.7178,-21.4103,-49.231,98.205,94.2305,
71.0259,-13.5897,13.3334,-116.6665,81.7949,-35.7693,-75.641,66.2822,-138.2052,68.7178,-14.6152,-64.231,83.205,79.2305,
86.0259,-27.4359,27.4359,-101.6665,83.8461,-50.7693,-90.641,65.3846,-153.2052,76.1537,-29.6152,-79.231,77.1796,86.9232,
71.0259,-15.1282,15.1282,-86.6665,83.3333,-65.7693,-105.641,50.3846,-168.2052,61.1537,-44.6152,-94.231,72.051,75.1282,
79.2307,-0.12817,0.12817,-92.0513,98.3333,-80.7693,-90.641,65.3846,-171.0256,76.1537,-29.6152,-109.231,87.051,90.1282,
94.2307,-15.1282,15.1282,-92.0514,83.8461,-95.7693,-83.8461,80.3846,-156.0256,91.1537,-36.1539,-124.231,81.7948,75.1282,
79.2307,-4.8716,30.1282,-77.0514,76.1538,-110.7693,-68.8461,65.3846,-150,76.1537,-30,-139.231,70.5127,78.7178,
64.2307,-19.8716,45.1282,-80.7692,91.0255,-125.7693,-83.8461,50.3846,-165,61.1537,-45,-154.231,76.6666,83.8463,
49.2307,-30.2563,30.2563,-78.4617,86.1538,-140.7693,-98.8461,42.564,-180,46.1537,-60,-165.1282,77.9487,68.8463,
34.2307,-15.2563,15.2563,-93.4617,71.1538,-155.7693,-83.8461,38.4617,-165,39.9998,-45,-155.8975,72.8206,61.5383,
49.2307,-21.2821,21.2821,-100.7692,86.1538,-140.7693,-98.8461,53.4617,-180,54.9998,-41.7948,-140.8975,87.8206,76.5383,
64.2307,-36.2821,36.2821,-115.7692,71.1538,-125.7693,-113.8461,68.4617,-195,69.9998,-56.7948,-125.8975,72.8206,61.5383,
49.2307,-21.2821,21.2821,-130.7692,56.1538,-110.7693,-98.8461,53.4617,-180,54.9998,-41.7948,-110.8975,57.8206,46.5383,
34.2307,-6.2821,6.2821,-115.7692,71.1538,-95.7693,-83.8461,38.4617,-165,39.9998,-26.7948,-95.8975,72.8206,61.5383,
19.2307,8.7179,-8.7179,-100.7692,80.769,-80.7693,-68.8461,23.4617,-150,24.9998,-11.7948,-80.8975,75.1279,76.5383,
4.2307,23.7179,-23.7179,-85.7692,65.769,-65.7693,-53.8461,8.4617,-135,9.9998,3.2052,-65.8975,60.1279,61.5383,
-10.7693,38.7179,-38.7179,-73.0771,50.769,-50.7693,-38.8461,-6.5383,-120,-5.0002,18.2052,-50.8975,45.1279,46.5383,
4.2307,23.7179,-23.7179,-88.0771,56.6669,-65.7693,-53.8461,8.4617,-105,9.9998,3.2052,-63.8461,60.1279,55.641,
-10.7693,22.5642,-38.7179,-103.0769,44.1028,-50.7693,-38.8461,-6.5383,-90,-5.0002,18.2052,-48.8461,45.1279,40.641,
-25.7693,37.5642,-53.7179,-113.0771,29.1028,-35.7693,-23.8461,-21.5383,-75,-20.0002,33.2052,-33.8461,30.1279,25.641,
-18.4614,37.9487,-68.7179,-127.6921,44.1028,-20.7693,-8.8461,-36.5383,-90,-24.1025,48.2052,-18.8461,43.0771,34.8721,
-15.1279,22.9487,-83.7179,-142.6921,29.1028,-5.7693,-23.8461,-21.5383,-105,-9.1025,33.2052,-3.8461,33.0771,32.5645,
-0.12793,7.9487,-98.7179,-157.6921,14.1028,9.2307,-38.8461,-6.5383,-120,5.8975,18.2052,11.1539,18.0771,38.4618,
-15.1279,8.9744,-83.7179,-142.6921,6.9231,14.1023,-23.8461,-21.5383,-105,-9.1025,33.2052,9.9998,3.3333,23.4618,
-30.1279,23.9744,-90.7693,-127.6921,21.9231,18.4617,-8.8461,-36.5383,-90,-24.1025,48.2052,-5.0002,9.7439,8.4618,
-15.1279,27.6921,-75.7693,-124.1025,36.9231,16.4104,-23.5898,-23.0769,-91.282,-9.1025,33.2052,-20.0002,24.7439,23.4618,
-6.6667,12.6921,-90.7693,-139.1025,21.9231,31.4104,-38.5898,-8.0769,-106.282,5.8975,18.2052,-5.0002,12.8206,18.9744,
8.3333,-2.3079,-105.7693,-154.1025,6.9231,46.4104,-50.0002,6.9231,-121.282,20.8975,33.2052,9.9998,6.9231,3.9744,
4.1025,12.6921,-90.7693,-139.1025,21.9231,48.2051,-35.0002,-8.0769,-106.282,5.8975,48.2052,-5.0002,21.9231,9.7437,
-10.8975,27.6921,-75.7693,-124.1025,35.6409,33.2051,-20.0002,-23.0769,-91.282,-9.1025,63.2052,-8.9744,20.2561,24.7437,
-7.436,42.6921,-60.7693,-109.1025,50.6409,23.8462,-7.436,-27.9487,-76.282,-18.2051,63.8462,6.0256,35.2561,39.7437,
-9.4873,29.4873,-63.8462,-97.1794,59.231,8.8462,-22.436,-12.9487,-91.282,-3.2051,48.8462,-8.9744,50.2561,26.9233,
-22.564,14.4873,-78.8462,-112.1794,44.231,23.8462,-37.436,-12.8203,-106.282,-8.2051,33.8462,6.0256,35.2561,27.6924,
-23.5898,13.8462,-81.0256,-127.1794,36.9233,38.8462,-22.436,-27.8203,-91.282,-23.2051,48.8462,7.6924,20.2561,28.2051,
-38.5898,28.8462,-93.3335,-142.1794,21.9233,23.8462,-7.436,-42.8203,-76.282,-38.2051,63.8462,6.6665,5.2561,13.2051,
-23.5898,24.1028,-94.3589,-157.1794,9.2307,8.8462,-22.436,-27.8203,-91.282,-23.2051,48.8462,-8.3335,2.5642,21.0256,
-8.5898,39.1028,-79.3589,-142.1794,24.2307,23.8462,-7.436,-12.8203,-81.5383,-8.2051,63.8462,0.51294,17.5642,36.0256,
-23.5898,54.1028,-81.0256,-127.1794,39.2307,38.8462,7.564,-27.8203,-92.3076,-23.2051,78.8462,-14.4871,32.5642,51.0256,
-8.5898,39.1028,-66.0256,-126.9231,50.5127,23.8462,-1.7949,-12.8203,-79.2307,-8.2051,63.8462,-19.7437,46.4102,53.0771,
-23.5898,24.1028,-81.0256,-141.9231,35.5127,38.8462,-16.7949,-4.1025,-79.4873,-8.7183,48.8462,-4.7437,31.4102,41.5381,
-8.5898,18.2051,-87.436,-132.5642,26.9229,33.0767,-31.7949,-2.8203,-94.4873,4.3589,33.8462,-19.7437,16.4102,26.5381,
-23.5898,33.2051,-72.436,-117.5642,41.9229,48.0767,-16.7949,-17.8203,-79.4873,-10.6411,48.8462,-34.7437,31.4102,41.5381,
-8.5898,48.2051,-87.436,-132.5642,56.9229,63.0767,-1.7949,-10.2566,-81.0259,-18.9744,63.8462,-19.7437,46.4102,56.5381,
6.4102,33.2051,-102.436,-147.5642,41.9229,78.0767,-16.7949,-2.8208,-95.1284,-8.4619,48.8462,-4.7437,31.4102,41.5381,
-8.5898,48.2051,-87.436,-132.5642,56.9229,79.231,-4.3589,2.3076,-80.1284,-3.333,50,-2.3076,46.4102,56.5381,
6.4102,33.2051,-72.436,-121.2821,71.9229,64.231,-19.3589,17.3076,-95.1284,11.667,35,-17.3076,61.4102,71.5381,
21.4102,18.2051,-57.436,-108.4615,69.4869,49.231,-34.3589,32.3076,-110.1284,26.667,20,-32.3076,70.0001,56.5381,
6.4102,33.2051,-48.718,-93.4615,84.4869,34.231,-40.5129,17.3076,-114.8718,11.667,31.282,-47.3076,85.0001,71.5381,
21.4102,18.2051,-33.718,-78.4615,99.4869,19.231,-55.5129,32.3076,-129.8718,26.667,16.282,-62.3076,100.0001,86.5381,
36.4102,3.2051,-20,-93.4615,84.4869,34.231,-70.5129,47.3076,-143.0769,41.667,1.282,-52.3079,85.0001,71.5381,
51.4102,-11.7949,-5,-108.4615,94.8718,19.231,-85.5129,62.3076,-158.0769,56.667,-13.718,-67.3079,100.0001,86.5381,
66.4102,-26.7949,10,-93.4615,101.5385,4.231,-100.5129,77.3076,-173.0769,71.667,-28.718,-82.3079,115.0001,101.5381,
51.4102,-11.7949,4.3591,-78.4615,113.5896,-10.769,-98.718,62.3076,-158.0769,56.667,-19.7434,-97.3079,126.9231,116.5381,
36.4102,-13.5897,-10.6409,-93.4615,98.5896,4.231,-107.9486,47.3076,-147.4359,41.667,-32.0511,-82.3079,111.9231,101.5381,
51.4102,-28.5897,-21.7948,-108.4615,83.5896,19.231,-99.2308,62.3076,-146.4103,56.667,-37.6923,-67.3079,96.9231,86.5381,
36.4102,-43.5897,-36.7948,-123.4615,68.5896,34.231,-84.2308,47.3076,-131.4103,41.667,-22.6923,-52.3079,81.9231,71.5381,
21.4102,-28.5897,-51.7948,-121.7952,53.5896,49.231,-69.2308,32.3076,-116.4103,26.667,-7.6923,-37.3079,66.9231,56.5381,
6.4102,-13.5897,-66.7948,-106.7952,50.0002,64.231,-54.2308,17.3076,-101.4103,11.667,7.3077,-22.3079,51.9231,41.7947,
-8.5898,1.4103,-51.7948,-111.5383,43.8462,79.231,-39.2308,2.3076,-86.4103,-3.333,22.3077,-7.3079,36.9231,30.5127,
-2.3079,7.949,-66.7948,-126.5383,40.2566,64.231,-54.2308,17.3076,-101.4103,2.3079,7.3077,-22.3079,47.4358,45.5127,
12.6921,-3.3334,-81.7948,-141.5383,25.2566,49.231,-69.2308,32.3076,-116.4103,17.3079,-7.6923,-24.8717,44.3588,60.5127,
10.5129,11.6666,-96.7948,-156.5383,10.2566,64.231,-54.2308,17.3076,-101.4103,2.3079,7.3077,-9.8717,29.3588,45.5127,
-4.4871,26.6666,-93.5898,-141.5383,20.769,79.231,-39.2308,2.3076,-87.436,-12.6921,22.3077,-0.25635,14.3588,30.5127,
7.1799,41.6666,-90.2561,-152.8203,35.769,64.231,-43.0767,-1.0256,-102.436,1.0256,11.7952,-13.8459,24.1028,45.5127,
2.051,26.6666,-105.1284,-167.8203,25.6409,49.231,-33.3337,1.0256,-87.436,-1.0256,26.7952,1.1541,39.1028,43.5896,
-11.282,11.6666,-120.1284,-182.8203,33.3333,54.8718,-18.3337,1.0256,-72.436,-6.1541,41.7952,16.1541,40.5129,45.6409,
-26.282,26.6666,-105.1284,-167.8203,42.3081,69.8718,-16.1538,-13.9744,-85.8972,-21.1541,56.7952,31.1541,25.5129,32.5645,
-41.282,41.6666,-90.1284,-152.8203,38.4614,84.8718,-7.6924,-28.9744,-77.4355,-36.1541,60.5127,16.1541,10.5129,33.8462,
-26.282,49.231,-75.1284,-137.8203,53.4614,99.8718,-22.6924,-21.0254,-63.0769,-29.7437,45.5127,12.8203,25.5129,48.8462,
-13.0769,64.231,-60.1284,-122.8203,68.4614,114.8718,-37.1794,-6.0254,-78.0769,-14.7437,32.051,-2.1797,40.5129,63.8462,
-25.6411,79.231,-75.1284,-130.2563,65.1284,99.8718,-22.1794,-10.2563,-93.0769,-11.7949,47.051,10.2563,55.5129,78.8462,
-28.4617,64.231,-68.9744,-145.2563,50.1284,84.8718,-7.1794,-25.2563,-78.0769,-26.7949,62.051,4.8718,40.5129,63.8462,
-43.4617,56.667,-83.9744,-160.2563,35.1284,84.3594,-10,-33.0767,-63.0769,-35.1279,69.4873,19.8718,25.5129,48.8462,
-28.4617,41.667,-98.9744,-175.2563,20.1284,96.1538,-25,-18.0767,-78.0769,-20.1279,54.4873,4.8718,10.5129,45.3843,
-13.4617,56.667,-83.9744,-160.2563,35.1284,111.1538,-10,-3.0767,-74.8716,-6.1538,39.4873,-2.0513,25.5129,60.3843,
-28.4617,71.667,-98.9744,-161.7949,50.1284,126.1538,5,-18.0767,-89.8716,-21.1538,54.4873,-5.8975,10.5129,45.3843,
-13.4617,56.667,-113.9744,-176.7949,35.1284,111.1538,-10,-8.9741,-100.2563,-6.1538,39.7437,9.1025,-0.76904,30.3843,
-18.7178,41.667,-127.4358,-191.7949,20.1284,96.1538,-25,2.8203,-104.8718,5.8975,24.7437,24.1025,11.5386,40.2563,
-3.7178,26.667,-125.3848,-193.0771,5.8975,96.6665,-40,5.3843,-119.8718,3.8462,9.7437,9.1025,-3.4614,36.6665,
-18.7178,41.667,-110.3848,-178.0771,20.8975,111.6665,-25,-9.6157,-104.8718,-11.1538,24.7437,-4.6155,11.5386,51.6665,
-33.7178,56.667,-105.8975,-163.0771,35.8975,96.6665,-10,-24.6157,-89.8718,-26.1538,39.7437,-5.3848,5.8975,36.6665,
-18.7178,71.667,-90.8975,-148.0771,50.5127,81.6665,-2.3076,-25.8975,-74.8718,-19.7437,54.7437,9.6152,20.8975,51.6665,
-27.9487,56.667,-105.8975,-163.0771,35.5127,66.6665,-17.3076,-10.8975,-89.8718,-4.7437,39.7437,24.6152,8.9741,54.6152,
-12.9487,41.667,-120.8975,-178.0771,20.5127,81.6665,-32.3076,4.1025,-104.8718,10.2563,24.7437,9.6152,0.5127,43.0767,
-4.3591,56.667,-105.8975,-163.0771,35.5127,96.6665,-17.3076,1.282,-89.8718,-1.282,31.0256,-5.3848,15.5127,58.0767,
-19.3591,71.667,-120.8975,-178.0771,26.4104,111.0256,-6.4104,-13.718,-74.8718,-16.282,46.0256,7.4358,6.4104,43.0767,
-6.4102,56.667,-121.7949,-193.0771,11.4104,96.0256,-21.4104,-21.7949,-89.8718,-25.3848,39.7437,22.4358,14.6152,28.0767,
-21.4102,41.667,-106.7949,-196.9229,15.8977,81.0256,-36.4104,-6.7949,-104.8718,-10.3848,24.7437,37.4358,13.3333,22.5642,
-6.4102,26.667,-121.7949,-211.9229,5.3848,71.5386,-51.4104,8.2051,-119.8718,4.6152,9.7437,22.4358,1.2822,20.769,
8.5898,11.667,-113.0769,-226.9229,3.8462,86.5386,-66.4104,1.2822,-104.8718,-1.2822,17.1797,7.4358,8.9746,14.6152,
-6.4102,26.667,-98.0769,-211.9229,18.8462,101.5386,-51.4104,-13.7178,-89.8718,-16.2822,32.1797,11.7949,23.9746,29.6152,
-3.8462,41.667,-83.0769,-196.9229,33.8462,86.5386,-36.4104,-12.564,-74.8718,-13.5894,47.1797,26.7949,38.9746,44.6152,
-18.8462,39.7439,-74.6152,-181.9229,48.8462,71.5386,-27.9485,-0.76929,-71.5383,-3.8459,54.6155,41.7949,53.9746,59.6152,
-6.9231,24.7439,-89.6152,-196.9229,33.8462,79.7434,-42.9485,0.25659,-86.5383,-0.25659,39.6155,42.3079,38.9746,44.6152,
-12.0513,39.7439,-74.6152,-181.9229,39.231,94.7434,-27.9485,-14.7434,-71.5383,-14.6152,46.4102,27.3079,27.9487,42.3076,
-27.0513,54.7439,-89.6152,-166.9229,24.231,109.7434,-12.9485,-29.7434,-59.7437,-29.6152,54.1025,14.6157,12.9487,27.3076,
-17.6921,69.7439,-74.6152,-151.9229,39.231,94.7434,1.282,-35.6409,-71.5383,-41.282,47.949,29.6157,27.9487,42.3076,
-10.2563,58.4614,-68.718,-160.5127,54.231,79.7434,-13.718,-20.6409,-86.5383,-26.282,32.949,14.6157,42.9487,57.3076,
-0.5127,43.4614,-83.718,-175.5127,39.231,88.2051,-28.718,-5.6409,-101.5383,-11.282,17.949,-0.38428,27.9487,42.3076,
-3.0769,35.8972,-98.718,-190.5127,24.231,103.2051,-20.5129,-16.4104,-86.5383,-19.4871,32.949,14.6157,14.8718,27.3076,
-18.0769,50.8972,-103.3333,-175.5127,9.231,116.1541,-5.5129,-31.4104,-80.7693,-34.4871,47.949,5.3845,-0.12817,16.1541,
-3.0769,39.4871,-88.3333,-167.6924,24.231,101.1541,-20.5129,-16.4104,-95.7693,-19.4871,32.949,-9.6155,14.8718,31.1541,
10.5127,24.4871,-103.3333,-182.6924,25.8975,86.1541,-35.5129,-1.4104,-110.7693,-4.4871,17.949,-9.4873,29.8718,25.3848,
-4.4873,9.4871,-118.3333,-197.6924,10.8975,77.9485,-44.6155,-4.6155,-101.0256,-9.7434,32.949,5.5127,22.5642,26.1541,
-15.8975,24.4871,-119.4871,-182.6924,15.8975,62.9485,-29.6155,-19.6155,-99.4871,-24.7434,36.4102,20.5127,16.4102,25.6411,
-30.8975,39.4871,-104.4871,-167.6924,30.8975,77.9485,-14.6155,-34.6155,-84.4871,-39.7434,48.4619,5.5127,31.4102,40.6411,
-15.8975,25.6409,-89.4871,-182.6924,30.7693,62.9485,-29.6155,-19.6155,-99.4871,-24.7434,33.4619,-9.4873,35.3845,36.4104,
-4.1025,40.6409,-74.4871,-167.6924,45.7693,77.9485,-33.8462,-8.2056,-84.4871,-9.7437,28.2051,4.1025,50.3845,51.4104,
-19.1025,55.6409,-89.4871,-152.6924,60.7693,76.1536,-18.8462,-23.2056,-91.5383,-24.7437,40.2561,9.4871,65.3845,66.4104,
-9.4873,56.6665,-88.9744,-166.9231,45.7693,61.1536,-14.6152,-24.3589,-87.436,-13.0771,30.5127,9.4873,50.3845,60.2563,
-24.4873,53.5896,-83.8459,-161.282,42.3079,48.4617,-26.4104,-38.2053,-72.436,-28.0771,37.1794,24.4873,35.3845,48.9744,
-9.4873,38.5896,-68.8459,-165.1282,57.3079,33.4617,-41.4104,-23.2053,-87.436,-13.0771,22.1794,9.4873,50.3845,63.9744,
3.0767,23.5896,-53.8459,-150.1282,72.3079,44.1025,-42.564,-8.2053,-102.436,1.9229,7.1794,-5.5127,65.3845,73.8462,
-11.9233,38.5896,-68.8459,-165.1282,65.6414,59.1025,-27.564,-23.2053,-101.0256,-13.0771,22.1794,-1.5383,50.3845,58.8462,
-2.0513,23.5896,-83.8459,-180.1282,50.6414,44.1025,-21.0259,-26.1538,-86.0256,-17.436,37.1794,13.4617,35.3845,43.8462,
-15.8977,8.5896,-98.8459,-195.1282,35.6414,29.1025,-6.0259,-11.1538,-71.0256,-2.436,52.1794,28.4617,20.3845,28.8462,
-0.8977,-6.4104,-113.8459,-210.1282,20.6414,14.1025,-21.0259,3.8462,-86.0256,12.564,37.1794,13.4617,5.3845,16.1538,
6.4102,8.5896,-98.8459,-195.1282,35.6414,29.1025,-7.9487,-8.9741,-71.0256,-2.436,42.3076,-1.5383,20.3845,31.1538,
-8.5898,23.5896,-83.8459,-180.1282,50.6414,44.1025,7.0513,-23.9741,-56.0256,-17.436,57.3076,-14.1025,35.3845,24.3589,
-16.4104,38.5896,-68.8459,-165.1282,65.1282,29.1025,16.4104,-34.8718,-50.2563,-26.1536,72.3076,0.89746,50.3845,39.3589,
-18.718,31.5383,-83.8459,-150.5129,50.1282,14.1025,1.4104,-19.8718,-65.2563,-11.1536,57.3076,15.8975,46.4104,54.3589,
-3.718,16.5383,-82.0511,-165.5129,35.1282,29.1025,-13.5896,-4.8718,-80.2563,3.8464,42.3076,0.89746,61.4104,50.7694,
7.1794,1.5383,-67.0511,-150.5129,50.1282,44.1025,-5.1282,-8.2053,-65.2563,-0.51294,51.282,-14.1025,75.3845,51.7947,
