"AF3","AF4","F3","F4","F7","F8","FC5","FC6","O1","O2","P7","P8","T7","T8",
100.769,19.7437,-37.6924,-95.1282,75.6411,-42.3076,-72.0513,88.4614,-133.5898,80.2563,-19.7437,-60.7693,77.1797,79.7437,
85.769,34.7437,-22.6924,-80.1282,60.6411,-57.3076,-57.0513,73.4614,-118.5898,65.2563,-4.7437,-75.7693,62.1797,64.7437,
70.769,49.7437,-7.6924,-65.1282,48.4614,-59.7437,-42.0513,58.4614,-103.5898,50.2563,10.2563,-60.7693,47.1797,49.7437,
55.769,60,7.3076,-50.1282,63.4614,-74.7437,-35.8972,43.4614,-88.5898,35.2563,23.5898,-49.7434,32.1797,42.0513,
40.769,45,-5.3845,-65.1282,59.7434,-63.8462,-50.8972,28.4614,-103.5898,20.2563,8.5898,-64.7434,30.5129,39.2307,
55.769,30,-20.3845,-80.1282,54.1025,-64.8718,-65.8972,43.4614,-118.5898,35.2563,-6.4102,-79.7434,45.5129,54.2307,
40.769,15,-34.3591,-95.1282,39.1025,-79.8718,-53.3335,28.4614,-103.5898,20.2563,8.5898,-65.1282,30.5129,39.2307,
25.769,30,-19.3591,-80.1282,51.0256,-64.8718,-38.3335,13.4614,-88.5898,5.2563,23.5898,-50.1282,15.5129,24.3591,
24.3591,45,-4.3591,-65.1282,63.3337,-79.8718,-37.1792,-1.5386,-73.5898,-8.9744,20.7693,-63.8459,25.8977,39.3591,
15.3845,34.3591,3.0769,-80.1282,62.0515,-94.8718,-52.1792,6.6667,-88.5898,-3.0769,5.7693,-78.8459,33.8459,33.3333,
22.051,19.3591,-11.9231,-95.1282,52.3079,-90.7693,-67.1792,14.8718,-102.5642,8.2053,-8.2053,-63.8459,28.2053,31.282,
26.1538,4.3591,-26.9231,-100.5129,37.3079,-98.9746,-57.949,0,-87.5642,0,6.7947,-63.0771,13.2053,18.4614,
11.1538,19.3591,-11.9231,-85.5129,52.3079,-83.9746,-42.949,-15,-72.5642,-15,21.7947,-48.0771,25.6409,33.4614,
26.1538,29.2312,-3.0769,-70.5129,52.8206,-98.9746,-57.4358,0,-87.5642,0,6.7947,-63.0771,26.1541,36.9231,
11.1538,43.8462,8.9746,-71.5383,67.436,-102.3076,-52.0513,-3.8462,-73.5896,-11.0254,6.4102,-78.0771,38.7183,47.9487,
7.9487,43.8462,-6.0254,-75.6411,72.0513,-87.3076,-37.0513,2.8203,-58.5896,-2.8203,21.4102,-63.0771,44.8716,59.7437,
22.9487,28.8462,-21.0254,-78.9744,57.0513,-102.0513,-52.0513,5.6411,-49.7437,5.6411,28.2051,-48.0771,29.8716,44.7437,
7.9487,36.9233,-6.0254,-63.9744,46.667,-95.8972,-37.0513,2.0513,-53.333,-2.0513,43.2051,-46.1538,29.231,37.9487,
22.9487,21.9233,-5.641,-78.9744,44.1024,-110.8972,-52.0513,17.0513,-68.333,12.9487,28.2051,-61.1538,33.3334,42.0511,
7.9487,26.1541,5.1282,-63.9744,59.1024,-121.0254,-46.1536,2.0513,-53.333,-2.0513,31.2825,-73.8459,48.3334,49.2312,
-7.0513,41.1541,-9.7439,-48.9744,74.1024,-106.0254,-31.1536,-11.7952,-38.333,-16.4104,46.2825,-58.8459,52.3074,64.2312,
7.9487,26.1541,-23.3333,-63.9744,59.1024,-91.0254,-38.2051,1.2822,-53.333,-1.4104,31.2825,-47.9487,37.3074,49.2312,
2.8206,11.1541,-17.1794,-78.9744,44.1024,-76.0254,-53.2051,13.5896,-68.333,0.25659,16.2825,-32.9487,25.8972,34.2312,
17.8206,3.3334,-3.3334,-82.3077,59.1024,-91.0254,-68.2051,28.5896,-83.333,15.2566,1.2825,-47.9487,40.8972,49.2312,
2.8206,18.3334,9.231,-67.3077,67.6924,-106.0254,-53.2051,13.5896,-68.333,0.25659,16.2825,-62.9487,35.8975,40,
-12.1794,33.3334,-2.564,-52.3077,62.0513,-91.0254,-38.2051,-1.4104,-53.333,-14.7434,31.2825,-47.9487,20.8975,47.6924,
2.8206,18.3334,-14.8718,-67.3077,47.0513,-76.0254,-23.2051,0.5127,-39.4871,-0.51269,40.5127,-32.9487,14.8721,45.1284,
17.8206,3.3334,-24.8718,-82.3077,46.4104,-61.0254,-38.2051,15.5127,-54.4871,14.4873,25.5127,-17.9487,29.8721,60.1284,
32.8206,2.5641,-12.3077,-86.6666,61.4104,-76.0254,-53.2051,30.5127,-69.4871,29.4873,10.5127,-32.9487,44.8721,75.1284,
17.8206,13.5898,2.6923,-71.6666,46.4104,-91.0254,-54.6152,15.5127,-64.3589,14.4873,18.7178,-47.9487,29.8721,60.1284,
2.8206,28.5898,17.6923,-56.6666,52.564,-76.0254,-39.6152,0.5127,-49.3589,-0.51269,33.7178,-33.0771,14.8721,45.1284,
10.7693,22.5642,2.6923,-71.6666,50.7693,-73.3335,-33.8462,-5.1282,-41.5386,-1.5383,37.4358,-43.5898,8.2053,38.4617,
25.7693,7.5642,-12.3077,-86.6666,58.2051,-58.3335,-48.8462,9.8718,-56.5386,13.4617,22.4358,-28.5898,23.2053,53.4617,
40.7693,-7.4358,-27.3077,-84.3589,73.2051,-53.0769,-63.8462,24.8718,-71.5386,28.4617,11.0256,-15.6409,38.2053,68.4617,
25.7693,-1.282,-12.3077,-74.6152,58.2051,-68.0769,-48.8462,9.8718,-56.5386,13.4617,26.0256,-30.6409,38.718,53.4617,
10.7693,13.718,2.6923,-59.6152,43.2051,-83.0769,-33.8462,-5.1282,-41.5386,-1.5383,41.0256,-37.1797,23.718,38.4617,
9.4873,28.718,14.6152,-56.1538,50.5127,-83.8462,-41.282,-9.4873,-38.2051,-16.1538,47.436,-24.3591,15.1279,44.3589,
24.4873,13.718,-0.38476,-71.1538,53.8462,-68.8462,-56.282,5.5127,-53.2051,-1.1538,32.436,-39.3591,30.1279,59.3589,
39.4873,-1.282,-15.3848,-86.1538,63.8462,-53.8462,-68.9744,20.5127,-68.2051,13.8462,17.436,-54.3591,45.1279,74.3589,
24.4873,-1.0256,-25.6411,-96.4104,48.8462,-68.8462,-53.9744,17.4358,-53.2051,1.0256,32.436,-68.2053,30.1279,59.3589,
9.4873,13.9744,-10.6411,-81.4104,33.8462,-76.4102,-38.9744,2.4358,-38.2051,-13.9744,47.436,-53.2053,15.1279,44.3589,
1.7949,16.6665,-0.25635,-66.4104,47.436,-91.4102,-52.5642,0.25635,-53.2051,-21.7949,32.436,-64.3589,22.8203,31.5386,
10.5127,8.4614,-0.25635,-81.4104,58.7178,-88.9744,-67.5642,15.2563,-68.2051,-6.7949,17.436,-79.3589,37.6924,42.8203,
23.3333,5.3845,-15.2563,-96.4104,44.3591,-73.9744,-73.5896,30.2563,-83.2051,8.2051,2.436,-64.3589,32.5642,56.6667,
19.4874,-4.6154,-30.2563,-104.6154,29.3591,-88.9744,-58.5896,22.0514,-68.2051,4.6154,17.436,-75.3846,24.1027,41.6667,
4.4874,10.3846,-15.2563,-89.6154,44.3591,-73.9744,-43.5896,7.0514,-53.2051,-10.3846,32.436,-60.3846,39.1027,50.7693,
14.1025,13.0767,-17.6924,-74.6154,42.8203,-88.9744,-58.5896,7.9487,-68.2051,-5.3848,17.436,-71.5386,26.4102,40.769,
-0.89746,26.4102,-2.6924,-76.6665,55.1284,-103.9744,-59.2307,8.9746,-83.2051,-10.5127,2.8208,-86.5386,32.0513,47.436,
4.3591,33.5896,-17.6924,-91.6665,59.7439,-100.769,-44.2307,18.2053,-68.2051,-4.3591,17.8208,-76.6665,39.2307,50.5129,
19.3591,18.5896,-29.7435,-91.7948,44.7439,-91.7948,-50.7692,25.6407,-53.2051,3.5897,32.8208,-61.6665,26.1539,35.5129,
4.3591,33.5896,-14.7435,-76.7948,59.7439,-76.7948,-35.7692,28.2051,-38.2051,3.5898,47.8208,-46.6665,41.1539,50.5129,
19.3591,18.5896,-13.5896,-79.7434,56.1541,-91.7948,-50.7692,43.2051,-53.2051,18.5898,32.8208,-61.6665,53.5896,60.2566,
4.3591,27.6924,1.4104,-76.9229,57.9487,-106.7948,-55.3845,28.2051,-63.0769,3.5898,17.8208,-76.6665,43.5898,50.7695,
-10.6409,42.6924,-5.6411,-61.9229,72.9487,-91.7948,-40.3845,13.2051,-48.0769,-11.4102,32.8208,-61.6665,47.6924,65.7695,
4.3591,27.6924,-20.6411,-72.5642,57.9487,-76.7948,-46.9231,16.1538,-51.0256,-1.7949,30,-46.6665,32.6924,50.7695,
1.0254,12.6924,-15.3848,-79.4873,42.9487,-61.7948,-51.7949,26.6665,-66.0256,0,15,-31.6665,28.2051,40,
16.0254,2.3077,-2.3077,-94.4873,52.5643,-76.7948,-66.7949,41.6665,-81.0256,15,0,-46.6665,43.2051,55,
1.0254,17.3077,5.1284,-79.4873,57.436,-91.7948,-58.4614,26.6665,-66.0256,0,15,-61.6665,37.436,49.231,
-13.9746,32.3077,-9.8716,-64.4873,68.2051,-76.7948,-43.4614,11.6665,-51.0256,-15,30,-46.6665,22.436,62.564,
1.0254,17.3077,-24.8716,-79.4873,53.2051,-67.9487,-45.8975,12.564,-52.0513,-3.3335,30,-46.9231,21.2822,47.564,
16.0254,2.3077,-23.5901,-94.4873,46.6663,-52.9487,-60.8975,27.564,-67.0513,11.6665,15,-31.9231,36.2822,49.7434,
31.0254,-4.1025,-10.7693,-104.6155,61.6663,-67.9487,-75.8975,42.564,-82.0513,26.6665,4.1025,-36.4102,51.2822,64.7434,
16.0254,5.8975,-2.8203,-89.6155,59.231,-82.9487,-60.8975,27.564,-67.0513,11.6665,19.1025,-51.4102,43.3335,49.7434,
1.0254,20.8975,-4.6152,-74.6155,50.2563,-67.9487,-45.8975,12.564,-52.0513,-3.3335,34.1025,-36.4102,28.3335,40.5127,
5.6411,22.564,-9.231,-74.3591,50.2563,-52.9487,-30.8975,11.2817,-54.8718,-5.6411,31.2817,-22.5642,17.9487,48.2051,
20.6411,7.564,-24.231,-89.3591,65.2563,-37.9487,-45.8975,26.2817,-69.8718,9.3589,16.2817,-17.1794,32.9487,63.2051,
35.6411,-3.3333,-35.1282,-103.8462,80.2563,-52.9487,-60.8975,41.2817,-84.8718,24.3589,3.3333,-32.1794,47.9487,78.2051,
20.6411,1.5386,-20.1282,-88.8462,65.2563,-67.9487,-46.1538,26.2817,-69.8718,9.3589,17.9487,-47.1794,39.4873,63.2051,
5.6411,16.5386,-5.1282,-73.8462,60.0002,-52.9487,-31.1538,11.2817,-54.8718,-5.6411,32.9487,-32.1794,24.4873,48.2051,
3.0769,31.5386,-3.0769,-79.4871,53.3337,-67.1792,-44.6152,6.1541,-69.8718,-18.4612,22.5642,-47.1794,9.4873,36.9231,
18.0769,16.5386,-18.0769,-91.0256,68.3337,-60.2566,-59.6152,21.1541,-84.8718,-3.4612,7.5642,-47.436,24.4873,51.9231,
33.0769,4.359,-33.0769,-101.2821,83.3337,-56.1539,-74.6152,36.1541,-99.8718,11.5388,-4.359,-46.4103,39.4873,66.9231,
18.4614,5.6411,-25.1282,-92.8203,68.3337,-67.6921,-59.6152,21.1541,-84.8718,-3.4612,10.641,-61.4103,25.1284,51.9231,
3.4614,20.6411,-10.1282,-77.8203,54.6157,-52.6921,-44.6152,6.1541,-69.8718,-18.4612,25.641,-46.4103,10.1284,36.9231,
7.436,25.8975,-2.3076,-71.5383,65.8975,-67.6921,-54.1025,2.3076,-68.4614,-22.3076,10.641,-61.4103,11.5386,38.2051,
22.436,11.7947,-11.7947,-84.1025,77.949,-65.1282,-69.1025,17.3076,-83.4614,-7.3076,-4.359,-76.4103,26.5386,53.2051,
37.436,8.9742,-26.7947,-99.1025,62.949,-50.1282,-66.923,32.3076,-98.4614,7.6924,-8.9742,-68.9742,41.5386,59.7438,
22.564,2.0513,-33.3333,-114.1025,47.949,-65.1282,-51.923,27.1797,-83.4614,-2.0513,6.0258,-72.8206,26.5386,44.7438,
7.564,17.0513,-18.3333,-99.1025,55.3848,-66.6665,-36.923,12.1797,-68.4614,-17.0513,21.0258,-57.8206,22.564,43.5898,
19.2307,8.9744,-13.5898,-85.3845,53.5896,-81.6665,-51.923,19.7434,-78.718,-2.0513,6.0258,-72.8206,31.5383,40.7693,
4.2307,19.7434,1.4102,-75.6411,66.4104,-96.6665,-66.923,24.8718,-93.718,-2.3079,-8.9742,-87.8206,41.282,45.8972,
-0.76929,29.4871,-13.5898,-90.6411,61.282,-91.5386,-51.923,28.4617,-90,0.76929,6.0258,-72.8206,35.6409,49.4871,
14.2307,14.4871,-28.5898,-105.6411,46.282,-86.4104,-53.5898,26.4104,-75,6.9231,21.0258,-67.436,24.8718,34.4871,
-0.76929,29.4871,-16.9231,-90.6411,61.282,-71.4104,-38.5898,25.6409,-60,3.0769,36.0258,-52.436,39.8718,49.4871,
14.2307,14.4871,-13.3333,-77.4358,60.0002,-86.4104,-53.5898,40.6409,-75,18.0769,21.0258,-67.436,54.8718,64.4871,
-0.76929,25.1284,1.6667,-78.9744,58.4614,-101.4104,-53.3333,25.6409,-83.0769,3.0769,16.9233,-82.436,40.5127,50.2563,
-15.7693,40.1284,4.3591,-81.282,73.4614,-94.1025,-38.3333,10.6409,-68.0769,-11.9231,31.9233,-67.436,37.1794,59.2307,
-0.76929,25.1284,-10.6409,-96.282,58.4614,-79.7435,-49.4872,22.308,-53.0769,3.0769,32.0511,-52.436,22.1794,44.2307,
-3.3333,10.1284,-25.6409,-84.8718,43.4614,-64.7435,-61.2822,28.9744,-68.0769,3.3333,19.2307,-37.436,28.4612,37.6921,
11.6667,-1.0256,-10.6409,-80.5127,55.3845,-74.8718,-76.2822,43.9744,-83.0769,18.3333,4.2307,-52.436,43.4612,52.6921,
-3.3333,13.9744,4.3591,-65.5127,58.7183,-89.8718,-61.2822,28.9744,-68.0769,3.3333,19.2307,-67.436,40.7695,46.4102,
-18.3333,28.9744,-7.1797,-50.5127,70.769,-74.8718,-46.2822,13.9744,-53.0769,-11.6667,34.2307,-52.436,28.2051,58.9746,
-3.3333,13.9744,-22.1797,-65.5127,55.769,-59.8718,-43.8462,18.2051,-40.7693,2.3076,26.9229,-37.6924,25.3843,43.9746,
11.6667,-1.0256,-7.1797,-80.5127,55.3845,-44.8718,-52.3076,33.2051,-55.7693,17.3076,11.9229,-22.6924,40.3843,58.9746,
26.6667,-0.25647,0.25647,-95.5127,70.3845,-59.8718,-67.3076,48.2051,-70.7693,32.3076,-3.0771,-37.6924,55.3843,73.9746,
11.6667,11.7947,-1.0256,-80.5127,57.9485,-74.8718,-56.4104,33.2051,-55.7693,17.3076,11.9229,-52.6924,40.3843,58.9746,
-3.3333,26.7947,-13.8459,-65.5127,53.3337,-89.8718,-41.4104,18.2051,-40.7693,2.3076,26.9229,-37.6924,25.3843,53.8464,
8.2051,11.7947,-13.3335,-80.5127,41.0254,-84.6155,-41.5386,7.1797,-50.7693,-4.1025,24.6152,-27.6924,23.5898,49.7437,
19.2307,-3.2053,-25.3848,-95.5127,47.9485,-69.6155,-56.5386,22.1797,-65.7693,10.8975,9.6152,-20.2566,38.5898,50.5125,
34.2307,-5.3845,-21.7949,-105.3845,62.9485,-54.6155,-71.5386,37.1797,-70.5127,25.8975,5.3845,-35.2566,53.5898,65.5125,
19.2307,-6.1538,-11.2822,-90.3845,55.8975,-69.6155,-56.5386,26.1538,-55.5127,10.8975,20.3845,-50.2566,41.0254,50.5125,
4.2307,8.8462,2.3076,-75.3845,49.4868,-72.5645,-41.5386,11.1538,-40.5127,-4.1025,35.3845,-35.2566,26.0254,36.1538,
4.3589,23.8462,-3.8462,-60.3845,43.8462,-58.7178,-31.5383,3.8462,-45.3845,-8.4614,31.5386,-50.2566,11.0254,40.2563,
19.3589,8.8462,-18.8462,-75.3845,58.8462,-68.2051,-46.5383,18.8462,-60.3845,6.5386,16.5386,-39.4873,26.0254,55.2563,
34.3589,-6.1538,-33.8462,-90.3845,73.8462,-74.8718,-61.5383,33.8462,-75.3845,21.5386,12.3076,-24.4873,41.0254,70.2563,
19.3589,-11.5385,-18.8462,-75.3845,58.8462,-88.9745,-46.5383,26.9232,-60.3845,11.5385,27.3076,-39.4873,48.9745,55.2563,
4.3589,3.4615,-3.8462,-60.3845,43.8462,-73.9745,-31.5383,11.9232,-45.3845,-3.4615,42.3076,-33.0771,33.9745,40.2563,
-1.0256,13.8464,5.6409,-75.3845,42.0515,-88.9745,-46.5383,1.0256,-60.3845,-15.8972,27.3076,-48.0771,18.9745,43.0769,
13.9744,-1.1536,-9.3591,-90.3845,57.0515,-88.4614,-61.5383,16.0256,-75.3845,-0.89722,12.3076,-63.0771,33.9745,58.0769,
28.9744,-9.4872,-24.3591,-105.3845,62.308,-73.5897,-76.5383,31.0256,-85.3844,14.1028,9.4872,-48.0771,48.9745,73.0769,
16.4104,-6.6667,-30.7693,-95.3848,47.308,-88.5897,-61.5383,22.5642,-70.3844,6.6667,24.4872,-63.0771,33.9745,58.0769,
1.4104,8.3333,-15.7693,-80.3848,34.8718,-84.1023,-46.5383,7.5642,-55.3844,-8.3333,39.4872,-48.0771,18.9745,43.0769,
8.7178,2.0513,-3.0771,-76.9231,49.8718,-99.1023,-61.5383,7.1797,-57.4358,-2.0513,24.4872,-63.0771,20.5127,38.9746,
5.3845,0.76929,-5.3845,-76.6665,63.3333,-104.8716,-76.5383,22.1797,-72.4358,7.4363,9.4872,-78.0771,35.5127,53.9746,
-1.2822,1.2822,-20.3845,-91.6665,48.3333,-89.8716,-61.5383,18.7178,-83.8462,2.3076,12.0513,-90.5129,39.231,52.564,
13.7178,-6.1539,-30.7692,-98.9742,33.3333,-88.2052,-46.5383,18.9742,-68.8462,6.1539,27.0513,-78.4615,25.6412,40.5128,
-1.2822,8.8461,-15.7692,-83.9742,47.4355,-103.2052,-31.5383,11.0254,-53.8462,-8.8461,42.0513,-63.4615,40.6412,55.5128,
13.7178,-2.5641,-10.2565,-89.7435,62.0514,-118.2052,-46.5383,26.0254,-67.6923,6.1539,27.0513,-78.4615,55.6412,58.9742,
-1.2822,11.5381,4.7435,-74.7435,64.8716,-131.5386,-50.5129,11.0254,-73.0771,-8.8461,12.564,-93.4615,43.8462,45.8975,
-16.2822,26.5381,2.0513,-72.3079,66.6665,-116.5386,-35.5129,7.6924,-58.0771,-8.7183,27.564,-78.4615,36.9229,60.8975,
-1.2822,11.5381,-12.9487,-87.3079,51.6665,-101.5386,-42.8206,20.7693,-43.0771,6.2817,34.1023,-63.4615,21.9229,45.8975,
3.8462,-3.4619,-27.9487,-80.7693,45.3848,-86.5386,-36.6667,34.1025,-28.0771,21.2817,35.1284,-48.4615,36.9229,60.8975,
18.8462,0.76917,-12.9487,-71.5385,60.3848,-101.5386,-51.6667,49.1025,-43.0771,36.2817,20.1284,-63.4615,51.9229,75.8975,
3.8462,15.7692,2.0513,-64.6155,59.4871,-116.5386,-44.6155,34.1025,-53.3333,21.2817,25.6409,-78.4615,44.1023,60.8975,
-11.1538,30.7692,1.0256,-74.3591,52.8206,-115.3848,-29.6155,19.1025,-38.3333,6.2817,40.6409,-63.4615,29.1023,45.8975,
3.8462,15.7692,-12.0513,-89.3591,42.8206,-100.3848,-42.8206,16.6667,-26.9231,4.8718,36.1541,-53.5896,27.4358,40.2566,
16.6665,0.76917,-27.0513,-101.7949,38.2051,-85.3848,-57.8206,31.6667,-41.9231,19.8718,21.1541,-38.5896,42.4358,50.5127,
31.6665,-5.8975,-12.0513,-91.0256,53.2051,-97.6924,-70.5127,46.6667,-56.9231,34.8718,6.1541,-53.5896,57.4358,65.5127,
16.6665,6.6665,2.9487,-78.4614,47.6924,-112.6924,-55.5127,31.6667,-41.9231,19.8718,21.0259,-68.5896,42.4358,50.5127,
1.6665,21.6665,-4.8718,-63.4614,50.5125,-123.8464,-40.5127,16.6667,-26.9231,4.8718,36.0259,-53.5896,27.4358,46.9231,
12.3079,6.6665,-10.2566,-78.4614,47.6921,-108.8464,-41.5386,8.718,-34.3591,0.51294,27.1794,-38.5896,25.1282,46.6667,
27.3079,-3.5897,0.51282,-92.8204,58.4615,-93.8464,-56.5386,23.718,-49.3591,15.5129,12.1794,-23.5896,40.1282,61.6667,
42.3079,-1.2821,1.2821,-107.8204,73.4615,-78.8464,-71.5386,38.718,-64.3591,30.5129,-2.8206,-38.5896,55.1282,76.6667,
27.3079,-13.0771,-7.4358,-92.8204,58.4615,-93.8464,-56.5386,23.718,-49.3591,15.5129,12.1794,-53.5896,41.7947,61.6667,
12.3079,1.9229,-11.7947,-77.8204,45.1282,-108.8464,-41.5386,8.718,-34.3591,0.51294,27.1794,-38.5896,26.7947,46.6667,
-0.76929,9.4871,-5.8972,-70.5129,44.3591,-104.3589,-43.3333,2.8206,-49.3591,0.76929,20.2566,-53.5896,24.8718,46.4104,
14.2307,-3.8462,3.8462,-85.5129,59.3591,-89.3589,-58.3333,17.8206,-64.3591,15.7693,5.2566,-38.5896,39.8718,61.4104,
29.2307,2.8204,-11.1538,-100.5129,74.3591,-74.3589,-73.3333,32.8206,-66.9232,30.7693,-2.8204,-25.8976,54.8718,76.4104,
20.7694,-12.1796,-23.8461,-85.5129,59.3591,-89.3589,-58.3333,26.9232,-51.9232,15.7693,12.1796,-40.8976,45.3846,61.4104,
5.7694,2.8204,-8.8461,-70.5129,44.3591,-98.718,-43.3333,11.9232,-36.9232,0.76929,27.1796,-29.9998,30.3846,46.4104,
-1.0256,17.8204,4.6155,-63.0771,46.6667,-95.8975,-44.1028,1.0256,-51.9232,-4.1028,12.1796,-44.9998,15.3846,52.3074,
13.9744,2.8204,-10.3845,-78.0771,61.6667,-80.8975,-59.1028,16.0256,-66.9232,10.8972,-2.3076,-48.4614,30.3846,67.3074,
28.9744,-11.7948,-25.3845,-93.0771,71.2819,-65.8975,-74.1028,31.0256,-71.7948,25.8972,11.7948,-33.4614,45.3846,80.5128,
24.1025,-19.4873,-25.6411,-87.6924,56.2819,-80.8975,-59.1028,28.2051,-56.7948,19.4873,26.1538,-48.4614,33.3335,65.5128,
9.1025,-4.4873,-10.6411,-72.6924,41.2819,-94.8716,-44.1028,13.2051,-41.7948,4.4873,41.1538,-55.8975,18.3335,50.5128,
-0.51294,-5.1282,2.5642,-87.6924,26.2819,-109.8716,-59.1028,6.6667,-56.7948,0.51294,26.1538,-70.8975,17.9485,35.5128,
9.4871,-7.4358,-4.8718,-92.0513,41.2819,-104.3589,-74.1025,21.6667,-63.3333,15.5129,11.1538,-85.8975,32.9485,50.5128,
7.4358,-7.4358,-19.8718,-107.0513,54.1028,-89.3589,-64.8718,34.6155,-76.6665,22.8206,11.5383,-86.4102,45.8977,65.5128,
18.4615,-10.2565,-25.6412,-95.3846,39.1028,-96.4103,-49.8718,26.6666,-62.0514,10.2565,14.359,-71.4102,30.8977,50.5128,
3.4615,4.7435,-10.6412,-80.3846,39.231,-96.1538,-34.8718,11.6666,-47.0514,-4.7435,29.359,-56.4102,34.1025,41.2822,
18.4615,-2.8204,-4.8717,-77.6923,54.231,-111.1538,-49.8718,26.6666,-62.0514,10.2565,14.359,-71.4102,48.9745,44.3588,
3.4615,4.3591,5.8977,-62.8206,59.7434,-126.1538,-64.8718,12.0515,-72.564,-4.3591,11.0256,-86.4102,45.3845,44.8718,
-9.231,19.3591,-7.6924,-59.4871,61.5386,-111.1538,-49.8718,20.5127,-57.564,4.1025,26.0256,-71.4102,45.1284,59.8718,
5.769,4.3591,-22.6924,-74.4871,46.5386,-96.1538,-34.8718,14.6155,-55.6411,10.5129,17.6921,-68.9744,30.1284,44.8718,
-7.6926,1.0256,-24.6155,-89.4871,37.9485,-81.1538,-38.9744,22.5637,-40.6411,11.282,29.2307,-53.9744,45.1284,52.8201,
7.3074,3.5898,-9.6155,-84.1025,52.9485,-96.1538,-53.9744,37.5637,-55.6411,26.282,14.2307,-68.9744,60.1284,67.8201,
-5.3845,18.5898,5.3845,-69.1025,53.0769,-111.1538,-45.8975,22.5637,-70.6411,11.282,5.3845,-83.9744,45.1284,52.8201,
-20.3845,33.5898,14.1028,-54.1025,66.4104,-96.1538,-30.8975,7.5637,-55.6411,-3.718,20.3845,-68.9744,30.1284,56.1541,
-5.3845,18.5898,-0.89722,-69.1025,51.4104,-81.1538,-43.8459,11.0259,-52.564,1.7949,12.0513,-73.5896,18.2051,41.1541,
9.6155,3.5898,-15.8972,-84.1025,48.4619,-66.1538,-51.0254,26.0259,-53.0767,16.7949,10,-58.5896,33.2051,56.1541,
24.6155,4.6154,-4.6154,-78.4615,63.4619,-81.1538,-66.0254,41.0259,-68.0767,31.7949,-5,-51.2821,48.2051,71.1541,
9.6155,19.6154,10.3846,-63.4615,48.4619,-96.1538,-51.0254,26.0259,-57.1794,16.7949,10,-66.2821,34.6155,56.1541,
-5.3845,34.6154,8.4617,-51.5383,51.0256,-98.718,-36.0254,11.0259,-42.1794,1.7949,25,-66.4104,19.6155,41.1541,
9.6155,19.6154,-6.5383,-66.5383,44.3586,-83.718,-51.0254,5.3845,-38.2053,-5.3845,19.2307,-51.4104,14.6155,38.2048,
24.6155,4.6154,-18.2051,-81.5383,52.0513,-68.718,-66.0254,20.3845,-53.2053,9.6155,4.2307,-36.4104,29.6155,53.2048,
39.6155,6.9231,-11.0256,-91.0256,67.0513,-75.1282,-69.4873,35.3845,-68.2053,24.6155,-6.9231,-51.4104,44.6155,68.2048,
24.6155,1.5383,-0.51294,-93.8462,52.0513,-90.1282,-54.4873,20.3845,-56.4102,9.6155,8.0769,-66.4104,30.2566,53.2048,
9.6155,16.5383,1.0256,-78.8462,42.051,-105.1282,-39.4873,5.3845,-41.4102,-5.3845,23.0769,-51.4104,15.2566,38.2048,
5.3848,14.6152,-1.2822,-63.8462,48.9746,-96.1538,-43.8462,1.2822,-46.9231,-14.1025,17.6924,-57.6921,23.8462,40.2563,
20.3848,3.8462,-3.8462,-78.8462,61.7949,-81.1538,-58.8462,16.2822,-61.9231,0.89746,2.6924,-42.6921,38.8462,55.2563,
35.3848,12.3077,-12.3077,-93.8462,76.7949,-66.1538,-73.8462,31.2822,-76.9231,15.8975,-12.3076,-39.4872,53.8462,70.2563,
20.3848,-2.6923,-21.0256,-105.1282,61.7949,-81.1538,-58.8462,20.5127,-61.9231,7.6924,2.6924,-54.4872,38.8462,55.2563,
5.3848,12.3077,-6.6665,-90.1282,46.7949,-95.8975,-43.8462,5.5127,-46.9231,-7.3076,17.6924,-39.4872,23.8462,40.2563,
0,22.564,0,-75.1282,44.6152,-98.4614,-50.7693,0,-61.9231,-13.8462,4.6152,-54.4872,17.436,52.3076,
10.2563,7.564,-5.6411,-90.1282,53.3335,-83.4614,-65.7693,15,-76.9231,1.1538,-10.3848,-69.4872,32.436,55.8975,
25.2563,12.3077,-20.0001,-105.1282,68.3335,-68.4614,-73.3334,30,-86.1539,16.1538,-12.3077,-54.4872,47.436,70.8975,
22.0513,-2.6923,-22.0513,-94.3589,53.3335,-83.4614,-58.3334,28.7178,-71.1539,9.7437,2.6923,-69.4872,37.436,55.8975,
7.0513,12.3077,-7.0513,-79.3589,39.7434,-76.1536,-43.3334,13.7178,-56.1539,-5.2563,17.6923,-54.4872,22.436,40.8975,
8.9744,23.3333,-1.282,-64.3589,50.0002,-81.7949,-38.7178,10.0002,-71.1539,-4.8718,2.6923,-69.4872,24.3591,52.5642,
8.9746,11.5386,-5.8975,-79.3589,62.8208,-96.7949,-53.7178,25.0002,-86.1539,5.8975,-12.3077,-84.4872,39.3591,63.8462,
23.9746,1.5386,-20.8975,-94.3589,63.0771,-88.718,-65.1282,40.0002,-78.4614,15.8975,-1.5386,-74.3589,52.8203,66.1538,
31.7949,-3.5898,-26.1541,-79.3589,48.0771,-81.5386,-50.1282,27.1792,-63.4614,3.5898,5.6411,-69.7437,37.8203,51.1538,
16.7949,11.4102,-11.1541,-64.3589,48.4614,-66.5386,-35.1282,12.1792,-48.4614,-11.4102,20.6411,-54.7437,22.8203,42.8203,
19.231,16.1538,-0.25635,-79.3589,41.7949,-81.5386,-50.1282,27.1792,-63.4614,0.25635,5.6411,-69.7437,31.0259,40.769,
4.231,24.1025,0,-71.282,56.7949,-96.5386,-63.0769,21.5386,-77.9485,-11.7949,0,-84.7437,44.6157,50.7695,
2.0513,39.1025,-15,-65.1282,71.7949,-81.5386,-48.0769,25.6411,-62.9485,-2.0513,15,-69.7437,43.5898,65.7695,
17.0513,24.1025,-30,-80.1282,56.7949,-68.4617,-50,25.3845,-69.4873,1.282,0,-73.5898,28.5898,50.7695,
2.0513,33.0769,-15,-68.4614,52.0515,-57.6921,-35,29.4875,-54.4873,-2.8206,15,-58.5898,35.1282,48.9744,
17.0513,18.0769,-5.641,-83.0768,66.1537,-72.6921,-50,44.4875,-69.4873,12.1794,0,-73.5898,45.1283,54.8719,
2.0513,25.3848,5.8975,-68.0768,69.4873,-87.6921,-56.6665,29.4875,-62.3074,-2.8206,8.9746,-88.5898,31.0259,45.3848,
-12.9487,40.3848,-3.8462,-53.0768,74.1025,-72.6921,-41.6665,14.4875,-47.3074,-17.8206,23.9746,-73.5898,31.5386,60.3848,
2.0513,25.3848,-18.8462,-68.0768,59.1025,-64.8718,-45.3848,13.5898,-62.3074,-4.3589,8.9746,-80.2566,16.5386,45.3848,
10.0002,10.3848,-26.9231,-83.0768,46.4104,-49.8718,-60.2563,28.5898,-65.3845,10.6411,-4.8718,-65.2566,31.5386,50.5129,
25.0002,8.9744,-11.9231,-92.0513,61.4104,-64.8718,-75.2563,43.5898,-80.3845,25.6411,-19.8718,-55.6411,46.5386,65.5129,
10.0002,23.9744,3.0769,-77.0513,56.6665,-79.8718,-60.2563,28.5898,-75.1282,10.6411,-4.8718,-70.6411,31.5386,50.5129,
-4.9998,38.9744,18.0769,-62.0513,71.6665,-64.8718,-45.2563,13.5898,-60.1282,-4.3589,10.1282,-55.6411,16.5386,59.4871,
10.0002,23.9744,3.0769,-77.0513,56.6665,-49.8718,-41.7947,14.6155,-53.5896,-6.9231,17.1794,-43.8459,6.9231,44.4871,
25.0002,8.9744,-11.9231,-92.0513,64.3591,-34.8718,-56.7947,29.6155,-67.9487,8.0769,2.3079,-28.8459,21.9231,59.4871,
40.0002,9.2308,-16.923,-83.5897,79.3591,-49.8718,-66.6666,44.6155,-82.9487,23.0769,-9.2308,-43.8459,36.9231,74.4871,
25.0002,20.769,-1.923,-68.5897,64.3591,-64.8718,-51.6666,29.6155,-68.4617,8.0769,5.3848,-58.8459,30.5127,59.4871,
10.0002,35.769,13.077,-53.5897,50.7693,-60.5125,-36.6666,14.6155,-53.4617,-6.9231,20.3848,-72.8206,15.5127,44.4871,
3.5898,20.769,-1.923,-68.5897,53.3335,-75.5125,-51.6666,5.6411,-51.7947,-17.4355,21.0259,-79.9998,16.9233,41.5386,
18.5898,5.769,-16.923,-83.5897,68.3335,-60.5125,-66.6666,20.6411,-66.7947,-2.4355,6.0259,-64.9998,31.9233,56.5386,
33.5898,4.1025,-31.923,-98.5897,75.8975,-51.282,-74.8718,35.6411,-81.7947,12.5645,-4.1025,-49.9998,46.9233,71.5386,
18.5898,-2.8206,-21.2822,-107.9487,60.8975,-66.282,-59.8718,20.6411,-66.7947,2.8206,10.8975,-64.9998,31.9233,56.5386,
3.5898,12.1794,-6.2822,-92.9487,45.8975,-81.282,-44.8718,5.6411,-51.7947,-12.1794,25.8975,-61.0259,16.9233,41.5386,
2.3076,14.6152,0.25635,-77.9487,55.1279,-96.282,-57.6924,-0.25635,-55.6411,-14.1025,10.8975,-60.7693,14.1025,46.4102,
17.3076,3.5896,-3.5896,-81.5383,70.1279,-81.282,-72.6924,14.7437,-70.6411,0.89746,-4.1025,-70.2563,29.1025,61.4102,
32.3076,8.2052,-18.5896,-96.5383,74.3588,-66.282,-76.923,29.7437,-85.6411,15.8975,-8.2052,-75.8973,44.1025,76.4102,
17.6921,-6.7948,-33.5896,-111.5383,59.3588,-81.282,-61.923,25.3845,-70.6411,12.5642,6.7948,-90.8973,36.1541,61.4102,
2.6921,8.2052,-18.5896,-96.5383,46.4102,-83.3335,-46.923,10.3845,-55.6411,-2.4358,21.7948,-75.8973,21.1541,46.9229,
1.2822,14.1025,-4.3589,-81.5383,53.5898,-98.3335,-53.0769,5.8975,-70.6411,1.7949,6.7948,-80.2563,27.436,55.6411,
-0.25635,12.0513,0.25635,-93.5896,66.9233,-103.3333,-68.0769,20.8975,-85.6411,12.0513,-8.2052,-86.4102,42.436,59.231,
14.7437,3.8459,-14.7437,-108.5896,62.3079,-88.3333,-72.564,35.8975,-92.0513,27.0513,-3.8459,-71.4102,56.6667,66.4104,
24.3588,-11.1541,-29.7437,-102.8204,47.3079,-85.8973,-57.564,36.6669,-77.0513,26.9232,11.1541,-73.5897,41.6667,51.4104,
9.3588,3.8459,-14.8718,-87.8204,59.4875,-77.9485,-42.564,21.6669,-62.0513,11.9232,26.1541,-58.5897,46.6667,65.6414,
16.9229,5.6411,-8.718,-72.8204,56.4102,-92.9485,-51.2822,31.2817,-77.0513,16.9229,11.1541,-73.5897,59.4868,64.6152,
1.9229,8.4614,-1.7949,-87.8204,63.333,-105.8975,-58.718,18.2051,-68.4617,1.9229,7.436,-88.5897,54.6152,61.7949,
-6.6667,11.282,-16.7949,-102.8204,69.7434,-90.8975,-43.718,22.5642,-53.4617,6.6667,22.436,-79.4873,50.2566,73.3333,
8.3333,-3.718,-26.9232,-87.9489,54.7434,-96.1539,-43.3334,34.1024,-47.4359,17.6923,24.3588,-64.4873,41.2821,58.3333,
-6.6667,11.282,-11.9232,-72.9489,48.718,-88.2051,-28.3334,21.5383,-50.2566,3.5896,33.8459,-58.4617,46.6667,58.4617,
8.3333,-1.5385,1.5385,-85.641,63.0768,-103.2051,-43.3334,36.5383,-65.2566,18.5896,18.8459,-73.4617,61.6667,68.7179,
-6.6667,4.6152,2.564,-70.641,67.1797,-118.2051,-58.3334,21.5383,-66.1538,3.5896,11.2822,-88.4617,57.436,55.8975,
-21.6667,19.6152,-12.436,-55.641,77.436,-121.0256,-43.3334,6.5383,-51.1538,-10.769,26.2822,-73.4617,57.9487,70.8975,
-6.6667,4.6152,-27.436,-70.641,62.436,-106.0256,-48.9744,21.5383,-45.3845,4.231,22.3079,-58.4617,42.9487,55.8975,
-4.1025,-10.3848,-17.9487,-85.641,47.436,-91.0256,-60.5127,35.8975,-60.3845,16.4102,7.3079,-43.4617,52.3076,46.667,
10.8975,-1.7948,-2.9487,-86.4103,62.436,-90.5128,-73.077,50.8975,-75.3845,31.4102,-7.4359,-58.4617,67.3076,61.667,
-4.1025,12.8206,2.5642,-71.4103,65.6409,-105.5128,-58.077,35.8975,-60.3845,16.4102,7.5641,-73.4617,52.3076,62.051,
-19.1025,27.8206,-2.0513,-56.4103,69.7437,-95.3848,-43.077,20.8975,-45.3845,1.4102,22.5641,-58.4617,37.3076,72.8203,
-4.1025,12.8206,-16.4103,-71.4103,54.7437,-80.3848,-29.2308,11.7946,-60.3845,8.2052,28.2052,-56.4103,40.0001,57.8203,
10.8975,-2.1794,-21.5386,-86.4103,69.7437,-65.3848,-44.2308,26.7946,-75.3845,23.2052,13.2052,-41.4103,55.0001,72.8203,
25.8975,-9.2308,-6.5386,-95.3846,84.7437,-73.8463,-59.2308,41.7946,-72.8207,38.2052,4.6154,-26.4103,70.0001,87.8203,
10.8975,-6.6665,0,-80.3846,80,-88.8463,-48.7178,26.7946,-57.8207,23.2052,19.4873,-41.4103,55.0001,72.8203,
-4.1025,8.3335,9.7432,-65.3846,69.7432,-89.7437,-33.7178,11.7946,-42.8207,8.2052,34.4873,-56.4103,40.0001,57.8203,
-1.0256,10.2561,-5.2568,-80.3846,61.5383,-74.7437,-40.0002,7.6921,-55.3848,1.0256,25.1282,-49.231,25.0001,49.7434,
13.9744,-4.7439,-20.2568,-95.3846,66.1538,-59.7437,-55.0002,22.6921,-70.3848,16.0256,10.1282,-34.231,40.0001,64.7434,
28.9744,-11.2821,-35.2568,-86.1537,81.1538,-47.1796,-65.641,37.6921,-85.1281,31.0256,11.2821,-19.231,55.0001,79.7434,
13.9744,-7.9487,-20.2568,-78.2051,66.1538,-62.1796,-50.641,22.6921,-70.1281,16.0256,26.2821,-34.231,53.0771,64.7434,
-1.0256,7.0513,-5.2568,-63.2051,51.1538,-77.1796,-35.641,7.6921,-55.1281,1.0256,41.2821,-49.231,38.0771,49.7434,
-6.4102,11.5386,5.3848,-76.6667,43.8462,-92.1796,-50.641,2.3076,-54.6155,-2.3076,26.2821,-64.231,23.0771,47.9487,
8.5898,2.0513,-9.6152,-70.2563,58.8462,-77.1796,-65.641,17.3076,-69.6155,12.6924,11.2821,-49.231,38.0771,62.9487,
23.5898,-0.51282,-24.6152,-85.2563,73.8462,-69.2308,-70.2565,32.3076,-84.6155,27.6924,0.51282,-34.231,53.0771,77.9487,
9.4871,-9.4871,-24.8718,-100.2563,58.8462,-84.2308,-55.2565,17.3076,-69.6155,16.1536,15.5128,-49.231,38.0771,62.9487,
-5.5129,5.5129,-9.8718,-85.2563,43.8462,-94.8721,-40.2565,2.3076,-54.6155,1.1536,30.5128,-47.1797,23.0771,47.9487,
-3.3333,11.0256,-0.76929,-70.2563,49.9998,-109.8721,-55.1282,1.282,-44.3591,0.76929,18.718,-60.2566,34.6155,57.1794,
6.4102,0.25635,-0.25635,-81.282,56.1538,-94.8721,-70.1282,16.282,-59.3591,15.7693,3.718,-75.2566,49.6155,65.8975,
21.4102,1.5383,-15.2563,-96.282,44.6155,-79.8721,-78.4614,31.282,-74.3591,30.7693,-1.5383,-80,56.9231,66.6667,
11.0256,-11.0256,-30.2563,-111.282,29.6155,-94.8721,-63.4614,17.6921,-59.3591,15.7693,13.4617,-90.5127,41.9231,51.6667,
-3.9744,3.9744,-15.2563,-96.282,44.6155,-96.6667,-48.4614,2.6921,-44.3591,0.76929,28.4617,-75.5127,49.4871,66.6667,
11.0256,-2.3079,-17.1794,-81.282,43.8459,-108.4617,-63.4614,17.6921,-59.3591,15.7693,13.4617,-90.5127,50.5129,65.8972,
-3.9744,12.6921,-2.1794,-84.6155,53.8462,-123.4617,-74.8718,17.436,-74.3591,8.7178,-1.5383,-105.5127,49.231,61.5386,
-8.9744,27.4358,-17.1794,-99.6155,56.1536,-125.3848,-59.8718,21.282,-59.3591,8.9744,13.4617,-90.5127,42.8206,64.3591,
6.0256,12.4358,-32.1794,-104.1025,41.1536,-110.3848,-52.8206,21.0256,-44.3591,17.9485,28.4617,-75.5127,35.3845,49.3591,
-8.9744,6.1538,-25.1284,-89.1025,40.5127,-95.3848,-37.8206,13.3335,-29.3591,8.7178,43.4617,-60.5127,50.3845,60.5127,
6.0256,2.5641,-10.1284,-75.3846,46.6666,-109.2308,-52.8206,28.3335,-44.3591,23.7178,28.4617,-75.5127,65.3845,75.3844,
-8.9744,17.5641,4.8716,-60.3846,61.6666,-124.2308,-46.9233,13.3335,-39.7439,8.7178,28.9741,-90.5127,59.2305,67.4355,
-23.9744,32.5641,-1.2822,-55.1284,76.6666,-109.2308,-31.9233,0.25635,-24.7439,-6.2822,43.9741,-75.5127,53.0767,71.0254,
-8.9744,17.5641,-16.2822,-70.1284,61.6666,-94.2308,-41.0256,15.2563,-39.7439,5.6411,28.9741,-72.3076,38.0767,56.0254,
-5.6409,2.5641,-23.5896,-83.5896,46.6666,-79.2308,-56.0256,27.1794,-54.7439,5.6409,13.9741,-57.3076,40.5129,47.1794,
9.3591,1.5385,-8.5896,-86.1537,57.4359,-87.6923,-71.0256,42.1794,-69.7439,20.6409,-1.0259,-72.3076,55.5129,62.1794,
-5.6409,15.1282,4.3586,-71.1537,58.718,-102.6923,-57.6924,27.1794,-54.7439,5.6409,13.9741,-87.3076,49.9998,47.4358,
-20.6409,30.1282,-9.2307,-56.1537,72.8206,-97.9487,-42.6924,12.1794,-39.7439,-9.3591,28.9741,-72.3076,43.5896,62.4358,
-5.6409,15.1282,-24.2307,-71.1537,57.8206,-82.9487,-47.1796,9.7438,-38.9742,4.6154,27.6925,-57.3076,33.8463,47.4358,
9.3591,0.12817,-9.2307,-86.1537,53.8459,-67.9487,-57.9487,24.7438,-53.9742,19.6154,12.6925,-42.3076,48.8463,62.051,
24.3591,-4.1025,4.1025,-95.3845,68.8459,-82.0513,-72.9487,39.7438,-68.9742,34.6154,-2.3075,-57.3076,63.8463,77.051,
9.3591,-1.7949,-4.8716,-80.3845,63.3335,-97.0513,-57.9487,24.7438,-53.9742,19.6154,12.6925,-72.3076,58.2051,62.051,
-5.6409,13.2051,-13.3333,-65.3845,57.4358,-101.0256,-42.9487,9.7438,-38.9742,4.6154,27.6925,-57.3076,43.2051,50.2566,
8.9741,7.9487,-3.8462,-79.2307,55.1284,-86.0256,-27.9487,2.3076,-51.5386,-2.3076,28.4614,-53.0769,30,54.6152,
23.9741,-7.0513,-18.718,-94.2307,67.436,-71.0256,-42.9487,17.3076,-66.5386,12.6924,13.4614,-38.0769,45,69.6152,
38.9741,-7.9487,-21.7949,-101.282,82.436,-56.0256,-57.9487,32.3076,-70.5127,27.6924,7.9487,-37.1794,60,84.6152,
23.9741,-15.6411,-8.4614,-86.282,67.436,-71.0256,-42.9487,17.3076,-55.5127,12.6924,22.9487,-52.1794,47.9487,69.6152,
8.9741,-0.64111,6.5386,-71.282,54.8716,-86.0256,-27.9487,2.3076,-40.5127,-2.3076,37.9487,-60.5127,32.9487,54.6152,
-1.0259,14.3589,0.5127,-70.7693,58.9741,-73.3335,-32.8206,2.0513,-53.3335,-0.5127,24.6152,-74.8718,22.0513,50.769,
13.9741,-0.64111,-14.4873,-85.7693,70,-58.3335,-47.8206,17.0513,-68.3335,14.4873,9.6152,-59.8718,37.0513,65.769,
28.9741,-15.6411,-29.4873,-100.7693,84.3588,-59.7435,-62.8206,32.0513,-83.3335,29.4873,-0.76917,-44.8718,52.0513,80.769,
21.2819,-18.2052,-19.7435,-87.9486,69.3588,-74.7435,-47.8206,26.4103,-68.3335,21.795,14.2308,-59.8718,59.2306,65.769,
6.2819,-3.2052,-4.7435,-72.9486,54.3588,-89.7435,-32.8206,11.4103,-53.3335,6.795,29.2308,-65.1284,44.2306,50.769,
1.282,11.7948,10.2565,-72.051,54.6155,-104.7435,-47.8206,-3.3333,-62.3076,-1.282,15.1282,-74.1023,29.2306,42.3079,
16.282,3.3333,-3.3333,-79.2307,69.6155,-89.7435,-62.8206,11.6667,-75.6409,13.718,0.12817,-84.3589,44.2306,57.3079,
31.282,-6.4102,-18.3333,-94.2307,69.9998,-74.7435,-71.5386,26.6667,-85.3845,28.718,6.4102,-69.3589,59.2306,72.3079,
16.282,-11.0256,-33.3333,-104.3589,54.9998,-80.769,-56.5386,17.1794,-70.3845,16.6667,21.4102,-59.7434,44.2306,57.3079,
1.282,3.9744,-18.3333,-89.3589,44.3589,-77.1797,-41.5386,2.1794,-55.3845,1.6667,36.4102,-44.7434,29.2306,49.4873,
9.7434,-4.6155,-13.8462,-83.5898,51.7947,-92.1797,-56.5386,4.6155,-54.8718,9.2307,21.4102,-59.7434,42.051,53.3333,
-2.5642,1.0256,-1.0256,-70.2563,66.7947,-107.1797,-70.7693,13.3333,-69.8718,13.3333,6.4102,-74.7434,54.3591,57.4358,
-8.2053,8.2053,-16.0256,-85.2563,51.7947,-92.1797,-55.7693,17.9485,-76.9231,17.4358,17.4358,-59.7434,39.3591,51.7947,
6.7947,-6.7947,-31.0256,-100.2563,36.7947,-100.2565,-47.9486,16.6669,-61.9231,22.8207,25.8973,-65.3846,24.3591,36.7947,
-8.2053,6.6667,-31.7947,-85.2563,42.5642,-110.7693,-32.9486,1.6669,-46.9231,7.8207,40.8973,-50.3846,39.3591,51.7947,
6.7947,-3.5897,-16.7947,-75.3846,57.5642,-125.7693,-47.9486,16.6669,-61.9231,22.8207,25.8973,-65.3846,54.3591,66.7947,
-8.2053,11.4103,-1.7947,-80.7693,61.282,-127.9487,-50,1.6669,-70,7.8207,17.6921,-80.3846,50.5129,56.1541,
-21.0256,26.4103,6.6667,-85.1282,76.282,-112.9487,-35,-8.718,-55,0.51294,32.6921,-65.3846,48.2048,68.2048,
-6.0256,11.4103,-8.3333,-100.1282,61.282,-97.9487,-44.8718,6.282,-40,15.5129,47.4358,-50.3846,33.2048,53.2048,
-1.5386,-3.5897,-23.3333,-85.1282,46.282,-82.9487,-47.6924,21.282,-41.5386,29.7437,32.4358,-35.3846,47.1797,49.231,
13.4614,2.0513,-8.3333,-76.9231,61.282,-86.6665,-62.6924,36.282,-56.5386,44.7437,17.4358,-50.3846,62.1797,64.231,
-1.5386,17.0513,6.6667,-65.1279,57.9487,-101.6665,-48.2048,21.282,-41.5386,29.7437,32.3081,-65.3846,47.1797,52.8208,
-16.5386,32.0513,-4.8718,-51.5383,66.9231,-109.4873,-33.2048,6.282,-26.5386,14.7437,47.3081,-50.3846,33.0769,58.2048,
-1.5386,17.0513,-19.8718,-66.5383,51.9231,-94.4873,-43.5898,7.1794,-23.5898,17.4358,43.5896,-35.3846,32.8206,46.6667,
9.4871,2.0513,-26.9231,-81.5383,36.9231,-79.4873,-58.5898,22.1794,-38.5898,32.4358,28.5896,-20.7693,45.3845,48.9744,
24.4871,0,-11.9231,-96.5383,51.9231,-72.8206,-73.5898,37.1794,-53.5898,47.4358,13.5896,-35.7693,60.3845,63.9744,
9.4871,13.0769,3.0769,-81.5383,57.1794,-87.8206,-58.5898,22.1794,-40.7693,32.4358,17.6921,-50.7693,45.8972,48.9744,
-5.5129,28.0769,-11.9231,-66.5383,53.5901,-102.8206,-43.5898,7.1794,-25.7693,17.4358,32.6921,-35.7693,30.8972,56.6667,
4.1025,13.0769,-23.0769,-78.4614,48.2051,-87.8206,-49.7434,-4.1025,-40.7693,8.2051,34.8721,-20.7693,33.8462,57.436,
19.1025,-1.9231,-21.7949,-93.4614,60.769,-72.8206,-64.7434,10.8975,-55.7693,23.2051,19.8721,-10,48.8462,64.3589,
34.1025,-4.8717,-21.2821,-108.4614,75.769,-57.8206,-79.7434,25.8975,-64.359,38.2051,4.8721,-25,63.8462,79.3589,
19.1025,-10.5127,-25.8975,-93.4614,60.769,-72.8206,-64.7434,10.8975,-49.359,23.2051,19.8721,-40,51.0259,64.3589,
4.1025,4.4873,-17.1797,-78.4614,45.769,-87.8206,-49.7434,-4.1025,-34.359,8.2051,34.8721,-25,36.0259,49.3589,
2.3076,19.4873,-7.9487,-63.4614,48.4619,-77.1794,-43.8459,-2.3076,-41.7947,10.5132,22.8208,-40,26.4102,55.6411,
17.3076,4.4873,-21.7949,-78.4614,63.4619,-62.1794,-58.8459,12.6924,-56.7947,25.5132,7.8208,-25,41.4102,70.6411,
32.3076,-10.5127,-36.7949,-93.4614,78.4619,-47.1794,-73.8459,27.6924,-71.7947,40.5132,-2.3076,-10,56.4102,85.6411,
20.5126,-16.9232,-28.2052,-78.4614,63.4619,-62.1794,-58.8459,16.9232,-56.7947,25.5132,12.6924,-25,41.4102,70.6411,
5.5126,-1.9232,-13.2052,-63.4614,48.4619,-77.1794,-43.8459,1.9232,-41.7947,10.5132,27.6924,-24.1028,26.4102,55.6411,
-1.0256,13.0768,1.7948,-67.6921,53.8464,-92.1794,-49.2307,-11.7947,-56.7947,1.0256,27.1794,-39.1028,22.0515,40.6411,
13.9744,-1.9232,-13.2052,-82.6921,67.1794,-96.4102,-64.2307,3.2053,-71.7947,16.0256,12.1794,-54.1028,37.0515,55.6411,
28.9744,-10.7692,-28.2052,-97.6921,68.205,-83.5897,-79.2307,18.2053,-81.5385,31.0256,10.7692,-50.2565,52.0515,70.6411,
18.4614,-10.2563,-33.3333,-93.3333,53.205,-94.3589,-64.2307,10.2563,-66.5385,16.4102,18.4614,-52.8206,37.0515,55.6411,
3.4614,4.7437,-18.3333,-78.3333,45.3845,-89.4871,-49.2307,-4.7437,-51.5385,1.4102,33.4614,-37.8206,22.0515,40.6411,
15.3848,11.7949,-4.1025,-73.8462,54.8716,-104.4871,-64.2307,0,-66.5385,1.0254,18.4614,-52.8206,29.231,34.8716,
4.6152,6.6665,-4.6152,-74.3589,67.6924,-89.4871,-79.2307,6.6665,-81.5385,7.6924,3.4614,-67.8206,44.231,49.8716,
-3.3333,5.3845,-19.6152,-89.3589,52.6924,-74.4871,-64.8716,3.3333,-91.5383,11.0256,15.1282,-54.6152,32.5642,50.0002,
11.6667,-5.6411,-34.6152,-104.3589,37.6924,-89.4871,-49.8716,5.6411,-76.5383,17.436,30.1282,-60.5127,25.6411,35.0002,
-3.3333,9.3589,-19.6152,-89.3589,52.6924,-104.4871,-34.8716,0.5127,-61.5383,2.436,45.1282,-45.5127,40.6411,50.0002,
11.6667,0.25635,-21.7949,-88.9744,54.1025,-119.4871,-49.8716,15.5127,-68.9744,17.436,30.1282,-60.5127,51.5386,57.1797,
-3.3333,15.2563,-6.7949,-73.9744,69.1025,-119.7434,-62.8203,1.7949,-65.8972,2.436,19.231,-75.5127,48.4619,42.8208,
-16.1536,30.2563,-0.25659,-64.8718,76.6667,-104.7434,-47.8203,3.3333,-50.8972,0.25659,34.231,-60.5127,47.4358,57.8208,
-1.1536,15.2563,-15.2566,-79.8718,61.6667,-89.7434,-54.1025,3.8462,-36.1538,6.9229,24.8716,-47.9487,32.4358,42.8208,
0.76929,0.25635,-30.2566,-84.3589,46.6667,-74.7434,-52.564,18.8462,-34.6155,18.718,26.4104,-32.9487,41.7952,51.0256,
15.7693,5.6411,-25.1282,-76.4102,61.5386,-89.7434,-67.564,33.8462,-49.6155,33.718,11.4104,-47.9487,56.7952,66.0256,
0.76929,20.6411,-10.1282,-61.4102,62.3076,-104.7434,-52.564,18.8462,-55.6411,18.718,26.4104,-62.9487,47.9487,59.2305,
-14.2307,35.6411,4.1028,-64.6155,61.5383,-89.7434,-37.564,3.8462,-40.6411,3.718,41.4104,-47.9487,32.9487,50.2566,
0.76929,20.6411,-10.8972,-79.6155,46.5383,-74.7434,-52.564,3.0769,-49.7437,5.6409,26.4104,-51.7949,21.5383,35.2566,
15.7693,5.6411,-25.8972,-94.6155,35.1284,-59.7434,-67.564,18.0769,-64.7437,20.6409,11.4104,-36.7949,36.5383,50,
30.7693,5.6411,-16.4102,-89.7437,50.1284,-61.5383,-82.564,33.0769,-79.7437,35.6409,-3.5896,-51.7949,51.5383,65,
15.7693,20.6411,-1.4102,-74.7437,48.718,-76.5383,-67.564,18.0769,-64.7437,20.6409,11.4104,-66.7949,45.1282,50,
0.76929,35.6411,-9.4871,-59.7437,61.282,-91.5383,-52.564,3.0769,-49.7437,5.6409,26.4104,-51.7949,30.1282,54.1023,
7.6921,20.6411,-21.5386,-74.7437,54.8718,-76.5383,-46.1538,-3.0769,-34.7437,3.0769,39.4871,-36.7949,27.1794,52.3079,
15.1282,5.6411,-31.0256,-89.7437,42.8206,-61.5383,-61.1538,11.9231,-49.7437,18.0769,24.4871,-21.7952,42.1794,46.9231,
30.1282,3.5898,-16.0256,-104.7437,57.8206,-46.5383,-76.1538,26.9231,-64.7437,33.0769,9.4871,-36.7952,57.1794,61.9231,
15.1282,-1.2822,-20.2563,-89.7437,45.8975,-61.5383,-61.1538,11.9231,-49.7437,18.0769,24.4871,-51.7952,42.1794,46.9231,
0.12817,13.7178,-24.1028,-74.7437,55.8972,-76.5383,-46.1538,-3.0769,-34.7437,3.0769,39.4871,-36.7952,27.1794,39.9998,
4.8716,27.4355,-14.1025,-61.2822,62.3076,-75.1284,-42.8208,-1.7949,-45.8977,1.7949,26.9229,-38.2053,19.7437,52.0513,
19.8716,12.4355,-14.1028,-76.2822,72.0513,-60.1284,-57.8208,13.2051,-60.8977,16.7949,11.9229,-23.2053,34.7437,67.0513,
34.8716,-0.51282,-28.2052,-91.2822,87.0513,-45.1284,-72.8208,28.2051,-75.8977,31.7949,0.51282,-23.5897,49.7437,82.0513,
21.2822,-14.6152,-31.5383,-87.9487,72.0513,-60.1284,-57.8208,20.2563,-60.8977,16.7949,15.5128,-38.5897,41.2822,67.0513,
6.2822,0.38477,-16.5383,-72.9487,57.0513,-75.1284,-42.8208,5.2563,-45.8977,1.7949,30.5128,-23.5897,26.2822,52.0513,
-0.25635,15.3848,-1.5383,-58.7178,51.5386,-87.9485,-47.4358,-1.7949,-60.8977,5.3848,15.5128,-38.5897,17.6924,51.5386,
14.7437,0.38477,-16.5383,-73.7178,66.5386,-72.9485,-62.4358,13.2051,-75.8977,20.3848,0.51282,-39.4873,32.6924,66.5386,
29.7437,-14.6152,-31.5383,-88.7178,63.8462,-57.9485,-77.4358,28.2051,-90,35.3848,4.3589,-24.4873,47.6924,74.6152,
19.2307,-10.5129,-36.1538,-84.8718,48.8462,-72.9485,-62.4358,13.2051,-75,20.3848,19.3589,-39.4873,32.6924,59.6152,
4.2307,4.4871,-21.1538,-69.8718,46.1541,-79.4871,-47.4358,-1.7949,-60,5.3848,34.3589,-37.4358,17.6924,44.6152,
5.3845,13.0769,-6.1538,-77.1794,41.7952,-94.4871,-62.4358,-6.9231,-75,3.3333,19.3589,-52.4358,18.2053,35.1282,
2.3079,-0.76929,-21.1538,-88.4614,56.6667,-102.8206,-77.4358,8.0769,-79.7434,4.8718,4.3589,-67.4358,33.2053,46.4104,
2.8206,-2.8206,-36.1538,-103.4614,49.4875,-87.8206,-79.2305,16.1541,-81.282,9.4875,12.5642,-82.4358,28.9744,51.5388,
16.4102,-6.1538,-40,-102.0513,34.4875,-86.6667,-64.2305,6.1538,-66.282,10.2563,15.8975,-67.4358,23.5898,36.5388,
1.4102,8.8462,-25,-87.0513,49.4875,-89.7434,-49.2305,-3.0767,-51.282,-4.7437,30.8975,-52.4358,38.5898,49.7437,
16.4102,-5.6411,-26.1538,-94.8718,49.7437,-104.7434,-64.2305,11.9233,-66.282,10.2563,15.8975,-67.4358,40.5127,43.5898,
1.4102,9.3589,-11.1538,-79.8718,63.8464,-119.7434,-72.564,3.8464,-58.2051,-1.282,22.3079,-82.4358,37.6921,46.9231,
-11.5386,24.3589,-7.436,-64.8718,71.0259,-104.7434,-57.564,6.9229,-43.2051,6.4102,37.3079,-67.4358,41.7949,61.9231,
3.4614,9.3589,-22.436,-79.8718,56.0259,-89.7434,-48.7178,3.0769,-58.2051,8.718,22.3079,-57.4358,26.7949,46.9231,
-8.2048,1.5383,-37.436,-94.8718,41.0259,-74.7434,-54.3589,13.8464,-43.2051,9.7439,23.0769,-42.4358,34.3591,58.4617,
6.7952,12.0513,-22.436,-82.3076,56.0259,-89.7434,-69.3589,28.8464,-58.2051,24.7439,8.0769,-57.4358,49.3591,73.4617,
-5.3845,27.0513,-7.436,-67.3076,65.8977,-104.7434,-54.3589,13.8464,-58.2051,9.7439,23.0769,-72.4358,40.7693,58.4617,
-20.3845,42.0513,4.3589,-56.6665,65.8975,-89.7434,-39.3589,-1.1536,-43.2051,-5.2561,38.0769,-57.4358,25.7693,46.4102,
-5.3845,27.0513,-10.6411,-71.6665,50.8975,-74.7434,-46.6665,7.6924,-40.5127,0,30.7695,-46.1536,19.4873,31.4102,
9.6155,12.0513,-25.6411,-86.6665,43.0769,-59.7434,-61.6665,22.6924,-55.5127,15,15.7695,-31.1536,34.4873,46.4102,
24.6155,-1.0256,-25.6411,-87.1794,58.0769,-74.7434,-76.6665,37.6924,-70.5127,30,1.0256,-46.1536,49.4873,61.4102,
9.6155,13.9744,-10.6411,-72.1794,54.6155,-89.7434,-61.6665,22.6924,-55.5127,15,16.0256,-61.1536,43.3333,46.9231,
-5.3845,28.9744,-1.7947,-59.2307,55.6409,-96.1541,-46.6665,7.6924,-40.5127,0,31.0256,-46.1536,28.3333,35.1282,
9.6155,13.9744,-16.6667,-74.2307,53.0769,-81.1541,-46.9231,-0.76929,-34.1025,0.76929,41.7947,-37.1794,19.7434,38.718,
22.3079,-1.0256,-31.6667,-89.2307,41.7952,-66.1541,-61.9231,14.2307,-49.1025,15.7693,26.7947,-22.1794,34.7434,45.3845,
37.3079,0.76929,-22.8206,-104.2307,56.7952,-59.2307,-76.9231,29.2307,-64.1025,30.7693,11.7947,-37.1794,49.7434,60.3845,
22.3079,2.564,-11.2822,-89.2307,47.6924,-74.2307,-61.9231,14.2307,-49.1025,15.7693,26.7947,-52.1794,34.7434,45.3845,
7.3079,17.564,-11.0256,-74.2307,55.6414,-89.2307,-46.9231,-0.76929,-34.1025,0.76929,41.7947,-37.1794,19.7434,44.8718,
10.7693,25.6409,-10.7693,-60,61.5383,-75.8975,-34.3589,0.51294,-36.9231,-0.51294,38.9744,-22.1794,33.8459,56.4104,
25.7693,10.6409,-16.1538,-75,61.7949,-60.8975,-49.3589,15.5129,-51.9231,14.4871,23.9744,-28.9741,48.8459,57.6924,
40.7693,7.4359,-22.3077,-90,76.7949,-45.8975,-64.3589,30.5129,-66.9231,29.4871,8.9744,-41.7948,63.8459,72.6924,
25.7693,-7.5641,-34.3591,-96.4104,61.7949,-60.8975,-49.3589,15.5129,-51.9231,14.4871,23.9744,-55.8975,48.8459,57.6924,
10.7693,7.4359,-27.1792,-81.4104,46.7949,-75.8975,-34.3589,0.51294,-36.9231,-0.51294,38.9744,-40.8975,33.8459,42.6924,
5.1282,22.4359,-12.1792,-66.4104,48.2053,-69.2307,-44.6155,-1.5383,-42.0513,1.5383,27.1794,-43.0769,23.0769,56.4104,
9.4873,8.4614,-22.3076,-81.4104,53.5898,-59.7434,-59.6155,13.4617,-57.0513,16.5383,12.1794,-46.4102,38.0769,59.7437,
24.4873,-1.7948,-37.3076,-96.4104,65.8973,-56.1539,-74.6155,28.4617,-72.0513,31.5383,1.7948,-31.4102,53.0769,66.9232,
18.2054,-9.9999,-39.2306,-92.0511,50.8973,-71.1539,-59.6155,13.4617,-57.0513,16.5383,16.7948,-46.4102,38.0769,51.9232,
3.2054,5.0001,-24.2306,-77.0511,39.7434,-72.051,-44.6155,-1.5383,-42.0513,1.5383,31.7948,-31.4102,23.0769,36.9232,
9.7437,20.0001,-9.2306,-73.3333,45.6411,-87.051,-53.8462,2.564,-57.0513,-2.564,16.7948,-46.4102,27.1797,30.769,
6.4104,5.8977,-24.2306,-88.3333,60.6411,-93.5896,-68.8462,10.0002,-72.0513,5.3845,1.7948,-61.4102,42.1797,44.8718,
6.9231,-6.9231,-39.2306,-103.3333,48.4617,-78.5896,-70,12.0515,-78.7178,8.9744,12.5642,-76.4102,33.5896,51.5383,
18.9744,-5.1282,-40,-94.8718,33.4617,-83.0769,-55,8.718,-63.7178,5.1282,25.6409,-61.4102,21.0256,36.5383,
3.9744,9.8718,-25,-79.8718,48.4617,-70.5127,-40,-6.282,-48.7178,-9.8718,40.6409,-46.4102,31.5386,48.9746,
10,3.3335,-20.7693,-91.0256,40.2563,-85.5127,-55,7.9487,-63.7178,5.1282,25.6409,-61.4102,27.436,33.9746,
-1.0256,18.3335,-7.6926,-76.0256,55.2563,-100.5127,-65.6411,10.2561,-54.3591,1.0256,25.6409,-76.4102,42.436,46.1536,
-5.1282,33.3335,-22.6926,-66.1541,70.2563,-85.5127,-50.6411,8.7175,-39.3591,5.1282,40.6409,-61.4102,42.051,61.1536,
9.8718,18.3335,-37.6926,-81.1541,55.2563,-70.5127,-37.4358,-2.0513,-46.6667,2.0513,34.3589,-49.2307,27.051,46.1536,
-3.8462,18.2051,-22.8208,-89.4873,40.2563,-55.5127,-34.6152,12.564,-32.0513,1.2822,39.7437,-34.2307,34.6152,45.3848,
11.1538,7.4359,-16.1539,-92.0511,55.2563,-70.5127,-49.6152,27.564,-47.0513,16.2822,24.7437,-49.2307,49.6152,60.3848,
-0.5127,22.4359,-1.1539,-77.0511,69.231,-85.5127,-41.0256,12.564,-51.7949,1.2822,20,-64.2307,34.6152,52.3076,
-15.5127,37.4359,4.3591,-62.0511,74.6155,-70.5127,-26.0256,-2.436,-36.7949,-13.7178,35,-49.2307,26.9231,61.7952,
-0.5127,22.4359,-10.6409,-77.0511,59.6155,-55.5127,-41.0256,0.5127,-51.7949,-0.5127,28.2051,-34.2307,11.9231,46.7952,
3.5898,7.4359,-25.6409,-92.0511,44.6155,-40.5127,-56.0256,15.5127,-66.7949,14.4873,13.2051,-19.2307,26.9231,49.231,
18.5898,6.923,-21.2821,-84.359,59.6155,-55.5127,-71.0256,30.5127,-81.7949,29.4873,-1.7949,-34.2307,41.9231,64.231,
3.5898,21.923,-6.2821,-69.359,65.1279,-70.5127,-56.0256,15.5127,-66.7949,14.4873,13.2051,-49.2307,30.769,49.231,
-11.4102,36.923,8.7179,-54.359,71.7949,-59.4873,-41.0256,0.5127,-51.7949,-0.5127,28.2051,-52.3076,15.769,36.4102,
3.5898,21.923,-6.2821,-69.359,56.7949,-44.4873,-39.2307,2.3076,-47.9487,-2.3076,26.9233,-37.3076,21.2822,35.6411,
18.5898,6.923,-21.2821,-84.359,41.7949,-29.4873,-54.2307,17.3076,-62.9487,12.6924,11.9233,-22.3076,36.2822,49.4873,
33.5898,5.3846,-34.6154,-99.359,56.7949,-44.4873,-69.2307,32.3076,-77.9487,27.6924,-3.0767,-35.1283,51.2822,64.4873,
18.5898,20.3846,-19.6154,-84.359,46.6663,-59.4873,-54.2307,17.3076,-62.9487,12.6924,11.9233,-50.1283,39.4871,49.4873,
3.5898,35.3846,-4.6154,-69.359,54.1025,-74.4873,-39.2307,2.3076,-47.9487,-2.3076,26.9233,-35.1283,24.4871,43.8462,
18.5898,35.1284,-3.8462,-60.769,65.8975,-59.4873,-30.5127,-0.25635,-32.9487,0.25635,41.9233,-20.1283,17.6924,55.6411,
31.2822,20.1284,-18.8462,-75.769,57.9487,-44.4873,-45.5127,14.7437,-47.9487,15.2563,26.9233,-22.0513,32.6924,55.3848,
46.2822,11.7948,-25.1281,-90.769,72.9487,-29.4873,-60.5127,29.7437,-62.9487,30.2563,11.9233,-37.0513,47.6924,70.3848,
31.2822,-3.2052,-30.5129,-101.282,57.9487,-44.4873,-56.1538,14.7437,-47.9487,15.2563,18.718,-52.0513,32.6924,55.3848,
16.2822,11.7948,-15.8975,-86.282,42.9487,-59.4873,-41.1538,-0.25635,-32.9487,0.25635,33.718,-37.0513,17.6924,40.3848,
13.8459,26.7948,-0.89746,-71.282,53.8459,-74.4873,-54.3591,0.51294,-47.9487,-6.6667,18.718,-38.9744,19.4871,52.3074,
19.4871,12.8206,-12.8206,-86.282,54.8718,-61.0256,-69.3591,15.5129,-62.9487,8.3333,3.718,-53.9744,34.4871,51.282,
34.4871,10.7694,-27.8206,-101.282,68.7177,-54.359,-80.5128,30.5129,-77.9487,23.3333,-10.7694,-38.9744,49.4871,66.1537,
20,-3.5898,-42.8206,-105.6411,53.7177,-69.359,-65.5128,15.5129,-62.9487,8.3333,4.2306,-53.9744,34.4871,51.1537,
5,11.4102,-27.8206,-90.6411,48.2053,-58.9744,-50.5128,0.51294,-47.9487,-6.6667,19.2306,-38.9744,19.4871,36.1537,
17.1794,24.3591,-12.8206,-75.6411,50.0002,-73.9744,-41.282,3.3333,-62.9487,-3.3333,12.0515,-53.9744,25.8977,50.5129,
8.7178,11.7949,-20,-90.6411,56.9229,-78.9744,-56.282,9.7437,-77.9487,1.5386,-1.5386,-68.9744,40.5127,48.7178,
10.0002,-3.2051,-35,-105.6411,45.3845,-70.5127,-71.282,10.0002,-80.769,6.4104,4.3591,-59.7434,32.5642,38.718,
25.0002,-5.6409,-42.564,-95.3845,40.5129,-85.5127,-56.282,8.2053,-65.769,5.6409,17.4358,-48.2051,17.5642,23.718,
10.0002,9.3591,-27.564,-80.3845,55.5129,-70.5127,-41.282,-6.7947,-50.769,-9.3591,32.4358,-33.2051,28.718,37.4363,
14.6155,7.9485,-12.5642,-95.3845,43.3333,-85.5127,-56.282,4.3591,-65.769,1.282,17.4358,-48.2051,33.0769,27.4358,
1.5386,17.9487,-15.3848,-81.5386,58.3333,-85.6411,-56.4104,8.2051,-53.8462,-1.5386,24.1025,-63.2051,48.0769,42.4358,
-3.0769,32.9487,-30.3848,-73.3335,73.3333,-70.6411,-41.4104,7.1794,-38.8462,3.0769,39.1025,-48.2051,50.7693,57.4358,
11.0256,17.9487,-45.3848,-88.3335,58.3333,-59.7437,-35.1282,-0.76929,-45.8975,0.76929,45.3845,-33.2051,35.7693,42.4358,
-3.9744,32.9487,-30.3848,-73.3335,54.1025,-67.9487,-20.1282,14.2307,-30.8975,5.8975,57.6924,-18.2051,41.7949,48.4614,
11.0256,17.9487,-25.6409,-88.3335,53.8464,-82.9487,-35.1282,29.2307,-45.8975,20.8975,42.6924,-33.2051,44.6155,52.3079,
2.8206,32.9487,-10.6409,-73.3335,67.4358,-93.5896,-45.3845,14.2307,-46.9231,5.8975,33.0769,-48.2051,39.7439,52.5642,
-12.1794,47.9487,-5.1284,-58.3335,78.4614,-78.5896,-30.3845,-0.76929,-31.9231,-9.1025,48.0769,-33.2051,30.2563,66.6665,
2.8206,32.9487,-20.1284,-73.3335,63.4614,-63.5896,-27.1794,-0.51294,-46.9231,0.51294,33.0769,-42.0513,15.2563,51.6665,
1.0256,17.9487,-35.1284,-88.3335,48.4614,-48.5896,-42.1794,13.3333,-61.9231,-1.0256,18.0769,-27.0513,24.615,36.6665,
16.0256,7.9487,-20.1284,-93.0769,63.4614,-61.2822,-57.1794,28.3333,-76.9231,13.9744,3.0769,-12.0513,39.615,51.6665,
6.6667,22.9487,-5.1284,-78.0769,65.1282,-76.2822,-42.1794,13.3333,-67.6924,-1.0256,11.282,-27.0513,32.3074,45.1282,
-8.3333,37.9487,9.8716,-63.0769,67.6921,-61.2822,-27.1794,-1.6667,-52.6924,-16.0256,26.282,-36.9231,17.3074,41.5383,
6.6667,22.9487,-5.1284,-78.0769,52.6921,-46.2822,-40.7693,4.3591,-37.6924,-4.3591,40.2566,-21.9231,17.1794,35.6409,
13.333,7.9487,-20.1284,-93.0769,37.6921,-31.2822,-55.7693,19.3591,-52.6924,10.6409,25.2566,-6.9231,32.1794,41.5381,
28.333,3.0769,-35.1284,-98.4614,52.6921,-46.2822,-69.2307,34.3591,-67.6924,25.6409,10.2566,-21.9231,47.1794,56.5381,
13.333,18.0769,-20.1284,-83.4614,46.6665,-61.2822,-54.2307,19.3591,-52.6924,10.6409,15.3843,-36.9231,32.1794,41.5381,
-1.667,33.0769,-5.1284,-68.4614,55.6411,-70.5127,-39.2307,4.3591,-37.6924,-4.3591,30.3843,-48.4614,17.1794,26.5381,
13.333,38.2051,0.25635,-71.5383,63.8462,-56.1538,-29.4871,-0.25635,-45.8975,-7.9487,34.1025,-33.4614,17.1797,41.5381,
21.7947,23.2051,-14.7437,-86.5383,48.8462,-41.1538,-44.4871,14.7437,-60.8975,7.0513,19.1025,-18.4614,31.5383,42.3079,
36.7947,8.2051,-29.7437,-101.5383,63.0769,-32.3076,-59.4871,29.7437,-75.8975,22.0513,4.1025,-12.3076,46.5383,57.3079,
21.7947,0.76929,-32.564,-110.5127,48.0769,-47.3076,-51.5383,14.7437,-60.8975,7.0513,19.1025,-27.3076,35.1282,42.3079,
6.7947,15.7693,-17.564,-95.5127,41.7949,-62.3076,-36.5383,-0.25635,-45.8975,-7.9487,34.1025,-20.2563,20.1282,36.1538,
11.0256,30.7693,-3.3333,-80.5127,56.7949,-77.3076,-35.6411,-1.282,-30.8975,1.282,39.7434,-22.8206,33.0769,51.1538,
18.2053,15.7693,-18.3333,-95.5127,56.6667,-62.3076,-50.6411,13.718,-45.8975,16.282,24.7434,-37.8206,38.2053,47.9485,
33.2053,0.76929,-33.3333,-110.5127,54.1027,-47.3076,-65.6411,28.718,-60.8975,31.282,9.7434,-48.9742,43.8463,51.0255,
24.3589,-4.3589,-45.8975,-106.4102,39.1027,-62.3076,-50.6411,13.718,-45.8975,16.282,11.0259,-63.8462,28.8463,36.0255,
9.3589,10.6411,-34.1025,-91.4102,39.7437,-77.3076,-35.6411,-1.282,-30.8975,1.282,26.0259,-48.8462,13.8463,29.4873,
13.3335,25.6411,-19.1025,-76.4102,46.667,-73.3333,-50.6411,-2.0513,-45.8975,2.0513,17.436,-33.8462,25.6411,44.4873,
2.5642,10.6411,-15.8977,-91.4102,53.3333,-80,-65.6411,12.9487,-60.8975,9.7434,2.436,-41.5383,36.9231,59.4873,
10.7693,-2.5642,-30.8977,-106.4102,48.718,-69.2307,-68.7178,22.0515,-75.8975,15.8977,2.5642,-26.5383,36.4104,52.8206,
18.2051,-4.3589,-45.8977,-98.2051,33.718,-63.3333,-54.1025,7.0515,-60.8975,4.3589,17.5642,-31.0256,21.4104,37.8206,
3.2051,10.6411,-30.8977,-83.2051,48.718,-58.718,-39.1025,-7.4358,-45.8975,-10.5129,32.5642,-16.0256,28.9744,44.3591,
12.3076,2.0513,-16.9229,-85.6411,36.9229,-73.718,-54.1025,2.564,-60.8975,4.4871,17.5642,-31.0256,22.564,30.2563,
5.1279,12.8203,-6.1538,-94.8718,51.9229,-85.6411,-51.2822,0,-68.2053,0,18.9741,-46.0256,37.564,45.1279,
0.76904,27.8203,-21.1538,-102.3079,66.9229,-70.6411,-36.2822,0.25635,-53.2053,-0.25635,33.9741,-39.231,38.7178,60.1279,
15.769,12.8203,-36.1538,-93.8462,51.9229,-85.6411,-46.1538,4.6152,-48.718,4.1025,21.5386,-24.231,23.7178,45.1279,
0.76904,25.6409,-21.1538,-78.8462,45.1282,-90.2566,-31.1538,5.1282,-48.718,-5.1282,33.8459,-9.231,21.0256,30.1279,
15.769,10.6409,-16.923,-91.2821,60.1282,-105.2566,-46.1538,20.1282,-63.718,9.8718,18.8459,-24.231,36.0256,45.1279,
3.0769,18.4617,-14.3586,-76.2821,65.1282,-116.9231,-61.1538,5.1282,-62.564,-3.0769,17.4358,-39.231,33.3333,52.3079,
-11.9231,33.4617,-28.9744,-61.2821,69.4871,-101.9231,-46.1538,-9.8718,-47.564,-18.0769,32.4358,-24.231,32.051,67.3079,
3.0769,18.4617,-38.4617,-76.2821,54.4871,-86.9231,-31.1538,0.5127,-46.1538,-3.0769,38.4614,-9.231,22.0513,52.3079,
-4.1025,3.4617,-50.769,-91.2821,39.4871,-71.9231,-46.1538,5.6411,-61.1538,0,23.4614,4.6152,28.2051,37.3079,
10.8975,6.4103,-35.769,-105.8973,54.4871,-69.9999,-61.1538,20.6411,-76.1538,15,8.4614,-10.3848,43.2051,52.3079,
3.0769,21.4103,-20.769,-90.8973,63.5901,-84.9999,-46.1538,5.6411,-61.1538,0,23.4614,-25.3848,34.8718,50.2566,
-11.9231,36.4103,-5.769,-75.8973,63.8459,-69.9999,-31.1538,-9.3589,-46.1538,-15,38.4614,-27.4363,19.8718,46.4099,
3.0769,21.4103,-20.769,-86.9231,48.8459,-54.9999,-18.718,-0.25659,-35.1282,0,33.5896,-12.4363,12.0515,38.718,
6.9231,6.4103,-35.769,-101.9231,33.8459,-39.9999,-33.718,14.7434,-50.1282,15,18.5896,2.5637,27.0515,41.7952,
21.9231,4.8718,-50.769,-108.9744,48.8459,-54.9999,-48.718,29.7434,-65.1282,30,3.5896,-4.8718,42.0515,56.7952,
10.7693,19.8718,-35.769,-93.9744,54.8718,-69.9999,-36.4102,14.7434,-50.1282,15,18.5896,-19.8718,36.9231,41.7952,
-4.2307,34.8718,-20.769,-78.9744,57.1797,-54.9999,-21.4102,-0.25659,-35.1282,0,33.5896,-34.8718,21.9231,26.7952,
10.7693,38.7183,-5.769,-76.6665,55.6411,-39.9999,-35.6409,-0.25635,-45.8975,-5.8975,33.5898,-19.8718,6.9231,32.0513,
25.7693,23.7183,-20.769,-91.6665,46.4102,-24.9999,-50.6409,14.7437,-60.8975,9.1025,18.5898,-4.8718,21.9231,47.0513,
40.7693,10.5128,-35.769,-106.6665,61.4102,-34.6154,-65.6409,29.7437,-75.8975,24.1025,3.5898,-19.8718,36.9231,62.0513,
25.7693,22.3076,-21.2822,-91.6665,46.4102,-49.6154,-50.6409,14.7437,-60.8975,9.1025,18.5898,-34.8718,22.3076,47.0513,
10.7693,37.3076,-6.2822,-76.6665,47.436,-61.7949,-35.6409,-0.25635,-45.8975,-5.8975,33.5898,-29.4873,7.3076,32.0513,
24.1028,52.3076,4.6155,-63.5898,62.436,-72.3076,-33.3333,-4.6155,-49.7437,-4.6155,22.0515,-22.5642,17.949,47.0513,
20.2566,37.3076,-10.3845,-78.5898,47.949,-57.3076,-48.3333,10.3845,-64.7437,10.3845,7.0515,-23.8459,23.8464,41.7952,
35.2566,22.3076,-25.3845,-93.5898,32.949,-42.3076,-63.3333,25.3845,-79.7437,25.3845,-7.9485,-38.8459,24.8718,36.6667,
20.2566,8.2051,-40.3845,-102.0513,19.4873,-57.3076,-53.3335,10.3845,-64.7437,10.3845,7.0515,-53.8459,12.8203,21.6667,
5.2566,23.2051,-31.5386,-87.0513,27.4355,-68.4614,-38.3335,-4.6155,-49.7437,-4.6155,22.0515,-38.8459,7.9487,35.1279,
20.2566,38.2051,-16.5386,-72.0513,42.4355,-53.4614,-41.5386,0.51294,-40.5129,-0.51294,15.3845,-42.5642,22.9487,50.1279,
10.5127,29.4873,-9.4873,-87.0513,53.0767,-67.436,-56.5386,15.5129,-55.5129,9.4873,0.38452,-45.3848,35.6411,47.9487,
16.9231,14.4873,-24.4873,-102.0513,39.4871,-65.1282,-71.5386,20.5129,-70.5129,11.7947,-11.7947,-30.3848,20.6411,36.4104,
25.3843,8.9741,-39.4873,-97.6924,24.4871,-56.6667,-56.5386,5.5129,-55.5129,0.25635,3.2053,-45.3848,5.6411,21.4104,
10.3843,23.9741,-24.4873,-82.6924,39.4871,-41.6667,-41.5386,-6.6667,-40.5129,-10.7693,18.2053,-30.3848,20.6411,36.4104,
22.0513,28.7178,-28.2051,-72.3076,44.1025,-56.6667,-56.5386,8.3333,-55.5129,4.2307,3.2053,-45.3848,23.0771,33.3335,
7.949,43.3333,-13.2051,-84.8718,59.1025,-65.8975,-51.0256,4.8718,-70.5129,-6.9231,10.5129,-60.3848,36.6667,47.4358,
6.9229,53.5898,-28.2051,-96.6667,65.8975,-50.8975,-36.0256,3.8462,-55.5129,-3.8462,25.5129,-54.6152,34.6152,56.1538,
21.9229,38.5898,-43.2051,-93.3333,50.8975,-65.8975,-42.5642,3.5896,-50.7693,-3.5896,20.5129,-39.6152,19.6152,41.1538,
6.9229,50.5127,-28.2051,-78.3333,47.9487,-75.6409,-27.5642,8.4614,-41.7949,-8.9741,35.5129,-24.6152,25.8975,26.1538,
21.9229,35.5127,-18.2052,-90.0001,41.795,-90.6409,-42.5642,23.4614,-56.7949,6.0259,20.5129,-39.6152,28.4615,36.1539,
6.9229,35.6411,-7.436,-75.0001,56.795,-87.436,-51.0256,8.4614,-55.1282,-2.3076,21.7949,-54.6152,38.2051,51.0254,
-8.0771,50.6411,-22.436,-60.0001,71.795,-74.3589,-36.0256,-6.5386,-40.1282,-17.3076,36.7949,-39.6152,33.333,62.564,
6.9229,35.6411,-37.436,-75.0001,56.795,-59.3589,-31.282,2.5642,-48.2051,-4.1023,35.8977,-24.6152,18.333,47.564,
-1.282,20.6411,-46.4104,-90.0001,41.795,-44.3589,-46.282,6.9231,-63.2051,-1.282,20.8977,-9.6152,14.1028,32.564,
13.718,23.8462,-31.4104,-98.2051,56.795,-50.5127,-61.282,21.9231,-78.2051,13.718,5.8977,-24.6152,29.1028,47.564,
5.3843,38.8462,-16.4104,-83.2051,64.8716,-65.5127,-47.436,6.9231,-63.2051,-1.282,19.7437,-39.6152,34.6152,33.5898,
-9.6157,53.8462,-6.6665,-68.2051,67.6924,-50.5127,-32.436,-8.0769,-48.2051,-16.282,34.7437,-24.6152,19.6152,44.6152,
5.3843,38.8462,-21.6665,-83.2051,52.6924,-35.5127,-28.9746,-2.8208,-43.8462,-3.3335,19.7437,-9.6152,4.6152,33.5898,
8.9744,23.8462,-36.6665,-98.2051,37.6924,-20.5127,-43.9746,12.1792,-58.8462,11.6665,4.7437,5.3848,19.6152,45.8977,
23.9744,8.8462,-47.9487,-113.2051,52.6924,-35.5127,-58.9746,27.1792,-73.8462,26.6665,-1.282,-9.6152,34.6152,60.8977,
8.9744,23.8462,-32.9487,-98.2051,57.1797,-50.5127,-43.9746,12.1792,-58.8462,11.6665,13.718,-24.6152,37.1797,45.8977,
-6.0256,38.8462,-17.9487,-83.2051,63.0769,-35.5127,-28.9746,-2.8208,-43.8462,-3.3335,28.718,-39.6152,22.1797,30.8977,
8.9744,41.2822,-3.8462,-71.5383,68.9746,-28.4614,-18.2051,3.8462,-39.2307,-6.4102,43.718,-24.6152,32.0513,43.3335,
16.6665,26.2822,-18.8462,-86.5383,53.9746,-16.1538,-33.2051,18.8462,-54.2307,8.5898,28.718,-9.6152,41.2822,34.6152,
31.6665,11.2822,-33.8462,-101.5383,43.8461,-31.1538,-48.2051,33.8462,-69.2307,23.5898,13.718,5.3848,56.2822,49.6152,
16.6665,20.5129,-29.231,-93.3335,31.282,-46.1538,-43.0769,18.8462,-54.2307,8.5898,27.1794,-9.6152,41.2822,34.6152,
1.6665,35.5129,-14.231,-78.3335,45.1284,-57.4355,-28.0769,3.8462,-39.2307,-6.4102,42.1794,-24.6152,26.2822,33.3335,
16.6665,50.5129,0.76904,-63.3335,59.2307,-62.8208,-43.0769,-1.282,-43.8464,-0.76929,34.1023,-18.718,20.7693,47.4358,
19.7434,35.5129,-14.231,-78.3335,44.2307,-47.8208,-58.0769,13.718,-58.8464,12.051,19.1023,-33.718,20.7693,42.8206,
34.7434,20.5129,-29.231,-93.3335,29.2307,-32.8208,-73.0769,28.718,-73.8464,27.051,4.1023,-48.718,34.6156,56.1537,
21.5383,6.1541,-42.564,-98.9744,14.2307,-47.8208,-58.0769,13.718,-58.8464,12.051,19.1023,-46.1538,19.6156,41.1537,
6.5383,21.1541,-27.564,-83.9744,25.8972,-62.8208,-43.0769,-1.282,-43.8464,-2.949,34.1023,-31.1538,15.1282,41.282,
21.5383,36.1541,-18.718,-73.0771,37.6924,-77.8208,-58.0769,5.3843,-57.6924,1.7949,19.1023,-46.1538,30.1282,55.1279,
19.231,21.1541,-18.7178,-88.0771,44.3589,-62.8208,-73.0769,12.0513,-72.6924,1.7949,4.1023,-31.1538,33.5898,43.8462,
28.9744,6.1541,-33.7178,-103.0771,32.051,-47.8208,-88.0769,21.282,-87.6924,8.4617,-10.8977,-16.1538,18.718,38.718,
43.9744,-1.7949,-33.0769,-99.2307,36.6665,-62.8208,-73.0769,35.1284,-77.6924,21.7949,1.7949,-31.1538,25.8975,41.7949,
28.9744,13.2051,-18.0769,-84.2307,50,-73.0771,-58.0769,20.1284,-62.6924,6.7949,16.7949,-36.667,35.6406,53.0767,
38.9745,14.8719,-17.9486,-73.8461,36.9232,-86.1537,-72.3077,7.6923,-77.4359,6.6666,1.7949,-51.667,30.7694,43.077,
23.9745,15.6411,-2.9486,-88.8461,51.9232,-89.4873,-72.0513,14.6152,-87.9487,-0.25635,-5.3848,-66.667,44.8716,58.077,
8.9745,30.6411,-17.9486,-98.2053,57.6924,-74.4873,-57.0513,17.6924,-72.9487,-0.25635,9.6152,-51.667,40.769,64.3589,
11.0256,20.2566,-32.9486,-88.4614,42.6924,-59.4873,-42.0513,2.6924,-57.9487,-10.0002,24.6152,-36.667,25.769,49.3589,
-2.8206,35.2566,-17.9486,-73.4614,57.6924,-44.4873,-27.0513,14.6155,-42.9487,2.8206,39.6152,-21.667,32.0515,35.6409,
12.1794,20.2566,-24.6154,-88.4614,52.8202,-59.4873,-42.0513,29.6155,-57.9487,17.8206,24.6152,-36.667,37.4359,50.2562,
7.6924,34.3589,-9.6154,-73.4614,67.8202,-59.4873,-32.8208,14.6155,-59.4873,2.8206,34.8716,-37.436,52.4359,63.0767,
-7.3076,49.3589,-24.6154,-69.231,65.6411,-44.4873,-17.8208,-0.38452,-44.4873,-12.1794,49.8716,-22.436,44.6152,61.5386,
7.6924,34.3589,-39.6154,-84.231,50.6411,-43.3333,-24.3589,-7.4358,-39.2307,-3.3333,41.7952,-7.436,29.6152,46.5386,
-7.3076,19.3589,-48.2051,-99.231,35.6411,-28.3333,-39.3589,3.5898,-54.2307,-2.564,26.7952,7.564,14.6152,31.5386,
7.6924,14.8718,-33.2051,-100,50.6411,-43.3333,-54.3589,18.5898,-69.2307,12.436,11.7952,-7.436,29.6152,46.5386,
6.6667,29.8718,-18.2051,-85,64.6155,-58.3333,-39.3589,4.6155,-54.2307,-2.564,26.7952,-22.436,39.9998,51.7947,
-8.3333,44.8718,-24.6157,-70,65.6406,-44.6157,-24.3589,-10.3845,-39.2307,-17.564,41.7952,-7.436,24.9998,55.3843,
-1.0256,29.8718,-39.6157,-85,50.6406,-29.6157,-35.8972,-15.8972,-42.0513,-12.8206,26.7952,7.564,9.9998,40.3843,
-2.0513,14.8718,-54.6157,-100,35.6406,-14.6157,-50.8972,-0.89722,-47.1797,2.0513,11.7952,22.564,13.8462,25.3843,
12.9487,-0.12817,-59.4871,-115,50.2563,-29.6157,-65.8972,14.1028,-62.1797,17.0513,-3.2048,7.564,28.8462,40.3843,
19.2305,14.8718,-44.4871,-100,65.2563,-44.6157,-50.8972,1.7949,-47.1797,2.0513,11.7952,-7.436,43.333,44.3589,
4.2305,29.8718,-29.4871,-85,58.9744,-42.0515,-35.8972,-13.2051,-32.1797,-12.9487,26.7952,-22.436,28.333,29.3589,
19.2305,44.1028,-14.4871,-70,61.0256,-27.0515,-25.1282,1.7949,-22.5642,-4.6155,41.7952,-7.6921,29.2307,43.5896,
4.2305,29.1028,-29.4871,-85,46.0256,-12.0515,-40.1282,7.6926,-37.5642,0.51294,26.7952,7.3079,14.2307,28.5896,
19.2305,14.1028,-44.4871,-100,32.5642,-25.8975,-40.7693,22.6926,-52.5642,15.5129,11.7952,20.7693,29.2307,43.5896,
12.3076,27.1797,-29.4871,-85.1282,45.1284,-40.8975,-40,7.6926,-37.5642,2.0513,26.7952,5.7693,32.8203,30.769,
-2.6924,42.1797,-14.4871,-70.1282,60.1284,-55.8975,-25,-7.3074,-22.5642,-12.9487,41.7952,-9.2307,17.8203,26.1536,
12.3076,41.0256,-6.6667,-71.2822,75.1284,-61.5386,-10,-1.0256,-37.5642,-2.0515,27.1794,-24.2307,26.6667,41.1536,
22.3074,26.0256,-21.6667,-86.2822,60.1284,-46.5386,-25,13.9744,-48.4617,12.9485,12.1794,-9.2307,35.6409,34.1023,
37.3074,11.0256,-36.6667,-101.2822,48.205,-31.5386,-40,28.9744,-51.795,27.9485,-2.8206,3.077,46.6664,46.1537,
29.2307,10.7693,-43.0769,-93.8462,37.4358,-46.5386,-25,13.9744,-37.436,12.9485,12.1794,-11.923,31.6664,31.1537,
14.2307,25.7693,-28.0769,-78.8462,42.8206,-61.5386,-10,-1.0256,-22.436,-2.0515,27.1794,-23.8459,16.6664,31.5383,
29.2307,40.7693,-13.0769,-63.8462,57.8206,-76.5386,-25,-0.25635,-19.2307,0.25635,26.4102,-27.4358,31.6664,46.5383,
16.4102,25.7693,-23.0771,-78.8462,49.231,-61.5386,-40,11.7949,-34.2307,-3.5898,11.4102,-30.769,38.9741,46.6665,
11.282,10.7693,-38.0771,-93.8462,34.231,-46.5386,-55,6.6667,-49.2307,-4.6155,-3.5898,-15.769,23.9741,31.6665,
26.1541,18.9744,-52.8203,-80,22.0515,-55.8975,-40,1.0256,-34.2307,-1.0256,11.4102,-12.3074,9.7439,24.1028,
11.1541,33.9744,-37.8203,-65,37.0515,-70.8975,-25,-13.9744,-19.2307,-16.0256,26.4102,-14.1025,24.7439,39.1028,
22.8203,30.5127,-32.0513,-70,39.7437,-70.5129,-40,1.0256,-34.2307,-2.8203,11.4102,-29.1025,31.0254,37.6924,
9.231,43.5898,-17.0513,-78.4614,54.7437,-55.5129,-40.5127,0,-49.2307,-6.6665,12.8208,-16.4102,46.0254,41.5386,
1.282,56.1541,-32.0513,-92.564,54.1028,-40.5129,-25.5127,-1.282,-41.282,-7.9485,27.8208,-1.4102,33.5896,47.4358,
16.282,41.1541,-47.0513,-81.0256,39.1028,-25.5129,-14.3589,6.1538,-26.282,-8.2051,42.8208,-16.4102,18.5896,32.4358,
1.282,56.1541,-32.0513,-66.0256,49.9998,-12.5642,0.64111,9.4871,-14.1028,-14.1028,57.8208,-31.4102,30.5129,31.5383,
16.282,41.1541,-22.3076,-75.1282,43.8459,-27.5642,-14.3589,20.2566,-29.1028,0.89722,42.8208,-46.4102,28.9744,38.718,
5.8975,37.6924,-7.3076,-64.3589,58.2051,-42.5642,-29.3589,5.2566,-44.1028,-10,27.8208,-61.4102,43.9744,53.718,
-9.1025,52.6924,-22.3076,-59.4873,57.436,-27.5642,-14.3589,-9.7434,-29.1028,-25,42.8208,-46.4102,40.5127,68.718,
5.8975,37.6924,-37.3076,-74.4873,42.436,-12.5642,-8.4617,-6.4104,-19.2307,-10.5129,51.0256,-31.4102,25.5127,53.718,
-8.7178,22.6924,-45.1284,-89.4873,27.436,2.4358,-23.4617,-0.5127,-21.5386,-18.4614,36.0256,-16.4102,10.5127,38.718,
6.2822,19.7437,-30.1284,-93.5896,42.436,-12.5642,-38.4617,14.4873,-36.5386,-3.4614,21.0256,-31.4102,25.5127,53.718,
11.0254,34.7437,-15.1284,-78.5896,57.436,-27.5642,-23.4617,4.3589,-36.6667,-10,36.0256,-46.4102,40.5127,51.0254,
-3.9746,49.7437,-24.3591,-63.5896,63.3333,-42.5642,-8.4617,-10.6411,-21.6667,-25,51.0256,-31.4102,31.0256,53.0769,
-1.7949,34.7437,-39.3591,-78.5896,48.3333,-27.5642,-23.4617,-23.3335,-13.0771,-23.8462,36.0256,-16.4102,16.0256,38.0769,
-2.5642,19.7437,-54.3591,-93.5896,33.3333,-12.5642,-35.8972,-8.3335,-17.4358,-8.8462,21.0256,-1.4102,16.4104,26.6667,
12.4358,4.7437,-67.4359,-108.5896,43.3331,-6.9232,-50.8972,6.6665,-32.4358,6.1538,6.0256,3.3334,31.4104,41.6667,
13.8459,19.7437,-52.4359,-93.5896,55.3845,-21.9232,-35.8972,5.1282,-33.8462,-5.1282,21.0256,-11.6666,46.4104,43.0769,
-1.1541,34.7437,-37.4359,-78.5896,64.1028,-19.4871,-20.8972,-9.8718,-18.8462,-20.1282,36.0256,-26.6666,31.4104,43.5896,
5.1282,28.7175,-23.0769,-77.436,50.7693,-4.4871,-5.8972,-9.2307,-29.7439,-23.0769,41.0256,-11.6666,19.4871,41.5383,
-8.2051,13.7175,-38.0769,-92.436,35.7693,10.2563,-20.8972,5.7693,-38.4614,-8.0769,26.0256,3.3334,14.3589,26.5383,
6.7949,-1.2825,-53.0769,-107.436,20.7693,-4.7437,-35.8972,20.7693,-53.4614,6.9231,11.0256,3.0769,29.3589,37.9485,
10.2563,13.7175,-38.0769,-92.436,35.7693,-19.7437,-28.2053,5.7693,-38.4614,-4.1025,26.0256,-11.9231,44.3589,41.0254,
-4.7437,28.7175,-23.0769,-77.436,50.7693,-30.5127,-13.2053,-9.2307,-23.4614,-19.1025,41.0256,-26.9231,29.3589,34.6152,
10.2563,35.1279,-21.2822,-65.3848,65.7693,-28.4617,1.7947,-6.4102,-28.9744,-12.0513,46.9229,-13.5898,33.0767,49.6152,
0.25659,20.1279,-36.2822,-80.3848,50.7693,-13.4617,-13.2053,8.5898,-43.8459,-0.25659,31.9229,1.4102,26.9231,41.282,
15.2566,5.1279,-51.2822,-95.3848,35.7693,-0.25635,-28.2053,23.5898,-58.8459,14.7434,16.9229,0.25635,19.2305,28.9741,
10.2566,7.1794,-55.3845,-87.6924,35.8972,-15.2563,-13.8459,8.5898,-43.8459,-0.25659,31.9229,-14.7437,23.5896,28.2053,
-4.7434,22.1794,-40.3845,-72.6924,44.1025,-30.2563,1.1541,-6.4102,-28.8459,-15.2566,46.9229,-20.5127,20.5127,43.2053,
10.2566,37.1794,-25.3845,-63.8462,59.1025,-45.2563,-13.8459,6.4102,-19.231,-6.4102,34.1025,-26.9231,35.5127,58.2053,
11.0256,22.1794,-33.5901,-78.8462,55.6409,-30.2563,-28.8459,18.2048,-34.231,-2.8206,19.1025,-15.1282,40.2561,47.9485,
1.0254,7.1794,-48.5901,-93.8462,40.6409,-15.2563,-43.8459,10.769,-43.5898,-8.2051,4.1025,-0.12817,25.2561,32.9485,
14.1023,11.0256,-63.5901,-83.3335,25.6409,-25.3848,-28.8459,6.9231,-33.0769,-6.9231,19.1025,-11.5383,19.7434,29.9998,
-0.89771,26.0256,-48.5901,-68.3335,39.4873,-40.3848,-13.8459,-8.0769,-18.0769,-21.9231,34.1025,-8.2051,34.7434,44.9998,
14.1023,11.0256,-47.6924,-71.282,47.1797,-55.3848,-28.8459,1.5386,-33.0769,-6.9231,19.1025,-23.2051,38.4614,59.4873,
1.0256,26.0256,-32.6924,-80,62.1797,-40.3848,-33.8464,6.1536,-48.0769,-12.3079,31.282,-8.2051,53.4614,61.0256,
-13.9744,35.1279,-47.6924,-95,47.1797,-25.3848,-18.8464,-1.7949,-48.4614,-27.3079,46.282,6.7949,38.4614,48.9741,
1.0256,20.1279,-62.6924,-91.5383,32.1797,-10.3848,-27.4358,-8.4612,-33.4614,-28.4612,61.282,-0.76929,23.4614,33.9741,
-13.9744,35.1279,-61.2822,-76.5383,34.6152,1.7949,-12.4358,0.25635,-18.4614,-22.3076,70,-15.7693,32.564,48.9741,
1.0256,20.1279,-46.2822,-76.41,46.6669,-13.2051,-27.4358,15.2563,-33.4614,-7.3076,55,-30.7693,37.4359,58.4618,
-0.25635,35.1279,-31.2822,-64.8718,61.6669,-28.2051,-32.564,2.8203,-18.4614,-10,40,-39.231,48.4614,67.9487,
-15.2563,50.1279,-46.2822,-79.8718,46.6669,-13.2051,-17.564,-12.1797,-3.4614,-25,55,-24.231,33.4614,52.9487,
-0.25635,35.1279,-61.2822,-94.8718,31.6669,-0.25635,-16.1538,-16.6665,-4.3589,-25.8975,46.9233,-9.231,18.4614,37.9487,
-15.2563,20.1279,-70,-100.2563,16.6669,14.7437,-31.1538,-5.8975,10.6411,-23.3335,31.9233,5.769,3.4614,22.9487,
-0.25635,10,-55,-97.6924,31.6669,-0.25635,-46.1538,9.1025,-4.3589,-8.3335,16.9233,-9.231,18.4614,37.9487,
10.2566,25,-40,-82.6924,46.6669,-15.2563,-31.1538,3.5896,-19.3589,-9.2307,31.9233,-24.231,33.4614,52.9487,
-4.7434,40,-36.667,-67.6924,52.0513,-30.2563,-16.1538,-11.4104,-4.3589,-24.2307,46.9233,-10.5127,28.9741,56.1538,
-7.6924,25,-51.667,-82.6924,37.0513,-15.2563,-24.1025,-26.4104,-8.2051,-34.8721,38.9741,4.4873,13.9741,41.1538,
-12.3076,10,-66.667,-97.6924,22.0513,-0.25635,-9.1025,-11.4104,-1.5386,-19.8721,37.436,19.4873,6.1538,26.1538,
2.6924,-5,-81.667,-112.6924,29.7438,-2.5641,-24.1025,3.5896,-16.5386,-4.8721,22.436,4.4873,21.1538,41.1538,
17.6921,10,-66.667,-97.6924,44.7438,-17.5641,-9.1025,6.4104,-21.282,-6.4104,37.436,-10.5127,36.1538,56.1538,
2.6921,25,-51.667,-82.6924,59.7438,-17.1792,5.8975,-8.5896,-6.282,-21.4104,52.436,-22.8203,31.5386,43.8462,
-4.1028,29.2307,-36.667,-73.3333,52.8206,-2.1792,-2.5642,-16.9231,-14.3591,-22.5642,47.6921,-7.8203,27.6921,36.9231,
-14.8718,14.2307,-51.667,-88.3333,37.8206,12.8208,-11.282,-1.9231,0.51294,-13.3333,32.6921,7.1797,14.8718,33.3333,
0.12817,-0.76929,-66.667,-103.3333,22.8206,-2.1792,-26.282,13.0769,-14.4871,1.6667,17.6921,21.282,19.2307,27.4358,
14.1025,14.2307,-51.667,-88.3333,37.8206,-17.1792,-11.282,1.7949,-29.4871,-11.5386,32.6921,6.282,34.2307,21.7949,
-0.89746,29.2307,-36.667,-73.3333,52.8206,-27.436,3.718,-13.2051,-14.4871,-26.5386,47.6921,-8.718,33.5894,36.7949,
-4.3591,43.8459,-40.2566,-67.436,55.1282,-12.436,4.3591,-11.5383,0.51294,-22.3079,62.6921,-17.1794,38.718,51.7949,
-13.3335,28.8459,-55.2566,-82.436,40.1282,2.564,-10.6409,3.4617,-14.4871,-7.3079,47.6921,-2.1794,28.2051,47.1797,
-0.25659,13.8459,-70.2566,-97.436,25.1282,-5.3845,-25.6409,10.0002,-29.4871,7.6921,32.6921,12.8206,13.2051,32.1797,
-1.5386,17.436,-63.0769,-82.564,36.9233,-9.2305,-10.6409,-4.9998,-14.4871,-7.3079,47.6921,-2.1794,23.5898,26.667,
-16.5386,32.436,-48.0769,-67.564,43.0771,-24.2305,4.3591,-19.9998,0.51294,-22.3079,62.6921,-17.1794,22.0513,30.7695,
-1.5386,36.4102,-49.2307,-80,47.1797,-39.2305,6.6665,-11.7949,-14.4871,-22.0513,62.0513,-2.1794,37.0513,45.7695,
-7.6924,21.4102,-64.2307,-95,50.769,-24.2305,-8.3335,2.564,-11.2822,-9.231,47.0513,9.2305,47.1792,48.2051,
-11.7949,6.4102,-79.2307,-110,35.8975,-9.2305,-23.3335,4.6152,-15.3848,-4.6152,32.0513,15.3848,32.1792,33.2051,
-5.6411,13.8462,-87.6924,-95,24.6152,-8.2051,-8.3335,-10.3848,-7.6924,-19.6152,47.0513,20,17.1792,24.1025,
-20.6411,28.8462,-72.6924,-80,23.0767,-23.2051,6.6665,-25.3848,7.3076,-34.6152,62.0513,5,8.2051,39.1025,
-5.6411,22.3076,-57.6924,-85.8972,38.0767,-38.2051,-8.3335,-10.3848,-7.6924,-19.6152,47.0513,-10,23.2051,54.1025,
-11.282,22.5642,-42.6924,-90.769,53.0767,-23.2051,-23.3335,-6.6667,-22.6924,-15.8972,52.8206,5,38.2051,50.7693,
-26.282,17.4358,-57.6924,-105.769,38.0767,-8.2051,-9.7439,-21.6667,-8.718,-30.8972,37.8206,20,23.2051,35.7693,
-12.8206,21.0256,-72.6924,-102.0513,23.0767,6.7949,4.6155,-22.051,2.0515,-36.9231,22.8206,29.2307,8.2051,20.7693,
-27.8206,36.0256,-71.5383,-87.0513,31.5383,0.76929,8.9744,-7.051,-10.0002,-21.9231,37.8206,14.2307,23.2051,35.7693,
-12.8206,21.0256,-77.1794,-87.9487,37.1797,-14.2307,-6.0256,5.3848,-25.0002,-6.9231,22.8206,-0.76929,31.0259,47.436,
-22.3074,34.1028,-62.1794,-82.3076,52.1797,0.76929,-5.3845,-9.6152,-10.0002,-21.9231,36.6667,14.2307,46.0259,56.6667,
-37.3074,44.3589,-77.1794,-97.3076,37.1797,15.7693,-20.2563,-24.6152,-22.8203,-36.9231,51.6667,29.2307,31.0259,45.3848,
-22.3074,29.3589,-92.1794,-112.3076,22.1797,7.1792,-13.3335,-34.8721,-7.8203,-42.564,47.6924,14.3589,16.0259,30.3848,
-29.4871,14.3589,-107.1794,-109.4871,7.1797,22.1792,1.6665,-19.8721,7.1797,-31.5383,35.1282,17.6921,7.949,15.3848,
-14.4871,-0.64111,-92.1794,-117.9489,22.1797,7.1792,-8.2052,-4.8721,-7.8203,-16.5383,20.1282,2.6921,22.949,30.3848,
0.51294,14.3589,-77.1794,-102.9489,37.1797,-7.8208,-23.2052,7.9485,-22.8203,-7.9485,35.1282,-12.3079,37.949,45.3848,
-14.4871,29.3589,-62.1794,-87.9489,52.1797,-22.8208,-8.2052,-7.0515,-7.8203,-22.9485,50.1282,-11.5386,52.949,60.3848,
-21.5386,14.3589,-77.1794,-102.9489,37.1797,-7.8208,6.7948,-22.0515,7.1797,-37.9485,35.1282,-11.7949,37.949,45.3848,
-25.1284,-0.64111,-92.1794,-117.9489,22.1797,7.1792,14.8716,-9.7437,22.1797,-24.6157,20.1282,3.2051,22.949,30.3848,
-10.1284,-15.6411,-107.1794,-132.9489,7.6924,13.333,-0.12842,5.2563,7.1797,-9.6157,5.1282,-11.7949,23.0767,22.0513,
4.6155,-0.64111,-92.1794,-117.9489,22.6924,-1.667,-14.3591,3.5896,-3.5896,-11.282,20.1282,-26.7949,38.0767,37.0513,
-10.3845,14.3589,-77.1794,-102.9489,37.6924,-16.667,0.64087,-11.4104,11.4104,-26.282,35.1282,-36.4102,50.769,52.0513,
-25.3845,14.6157,-79.2307,-96.6665,37.1797,-1.667,-4.3589,-26.4104,4.3589,-41.282,31.5386,-21.4102,35.769,37.0513,
-34.6155,-0.38428,-94.2307,-111.6665,22.1797,13.333,10.6411,-25.3845,19.3589,-31.0256,46.5386,-6.4102,20.769,22.0513,
-19.6155,-15.3843,-109.2307,-126.6665,7.1797,14.8718,-4.3589,-10.3845,4.3589,-16.0256,31.5386,8.5898,5.769,22.0515,
-4.6155,-0.38428,-94.2307,-111.6665,22.1797,-0.12817,-14.3586,-1.0256,1.0256,-16.9231,46.5386,-6.4102,20.769,34.8718,
-19.6155,14.6157,-79.2307,-96.6665,37.1797,-15.1282,0.64136,-16.0256,1.282,-31.9231,61.5386,-21.4102,35.769,46.9231,
-4.6155,29.6157,-64.2307,-81.6665,52.1797,-1.5383,15.6414,-7.6921,-1.0256,-21.0256,54.8718,-24.615,46.1541,49.7439,
-19.6155,14.6157,-79.2307,-96.6665,37.1797,13.4617,15.6409,-16.6667,13.9744,-28.4617,69.8718,-9.615,31.1541,34.7439,
-4.6155,-0.38428,-94.2307,-111.6665,22.1797,28.4617,0.64087,-1.6667,-1.0256,-13.4617,63.8459,5.385,16.1541,19.7439,
2.5642,14.6157,-81.0256,-96.6665,37.1797,13.4617,4.1028,-2.5642,-15.3845,-21.5383,48.8459,-9.615,31.1541,10.2566,
-12.4358,29.6157,-66.0256,-81.6665,52.1797,-1.5383,19.1028,-17.5642,-0.38452,-36.5383,63.8459,-24.615,41.282,25.2566,
1.0256,31.7947,-57.9487,-88.718,45.1282,-16.5383,4.1028,-16.4104,-1.0256,-29.2307,57.4358,-30.2566,38.9744,40.2566,
-9.4871,16.7947,-72.9487,-103.718,42.3079,-1.5383,2.3079,-4.3591,-2.3079,-14.2307,42.4358,-15.2566,39.2307,41.282,
-24.4871,1.7947,-87.9487,-118.718,27.3079,13.4617,17.3079,-12.8206,-17.3079,-16.9231,51.7947,-0.25659,24.2307,26.282,
-25.1282,3.5896,-102.9487,-103.718,12.3079,-0.51294,5.6409,-27.8206,-2.3079,-31.9231,66.7947,6.6667,9.2307,11.282,
-40.1282,18.5896,-87.9487,-88.718,27.3079,-15.5129,20.6409,-33.0771,12.6921,-46.9231,76.1538,-8.3333,24.2307,26.282,
-25.1282,33.5896,-72.9487,-82.0513,42.3079,-30.5129,7.1797,-18.0771,-2.3079,-48.718,61.1538,-23.3333,39.2307,41.282,
-29.7437,18.5896,-61.0254,-92.3076,57.3079,-15.5129,-7.8203,-19.4873,-4.6152,-63.718,46.1538,-8.3333,37.9487,29.7437,
-44.7437,21.7947,-76.0254,-107.3076,42.3079,-0.51294,-9.4871,-34.4873,10.3848,-78.718,31.1538,6.6667,22.9487,14.7437,
-29.7437,32.564,-91.0254,-92.3076,27.3079,14.4871,5.5129,-24.3589,21.7949,-78.2051,16.1538,21.6667,7.9487,14.1025,
-44.7437,47.564,-84.8718,-77.3076,16.6667,-0.51294,20.5129,-22.8206,6.7949,-67.9485,31.1538,15.1282,16.6667,29.1025,
-29.7437,32.564,-69.8718,-68.4613,31.6667,-15.5129,5.5129,-7.8206,-8.2051,-52.9485,32.0514,0.12817,31.6667,44.1025,
-25.3845,23.3333,-54.8718,-82.8206,46.6667,-0.51294,7.4358,-13.5901,-7.4358,-67.9485,47.0514,-14.8718,46.6667,48.4612,
-40.3845,38.3333,-69.8718,-97.8206,31.6667,14.4871,5.6411,-28.5901,-22.4358,-82.9485,35.3848,-5.6411,31.6667,33.4612,
-25.3845,53.3333,-84.8718,-82.8206,24.1028,-0.51294,-9.3589,-14.8718,-7.4358,-67.9485,20.3848,9.3589,27.6926,40.5129,
-26.4104,38.3333,-99.8718,-74.1028,13.0769,-15.5129,-14.1028,-13.0769,7.5642,-54.6155,13.5896,24.3589,14.615,27.9485,
-11.4104,23.3333,-84.8718,-89.1028,28.0769,-30.5129,-1.0256,1.9231,-7.4358,-39.6155,28.5896,9.3589,29.615,42.9485,
-12.5642,32.051,-69.8718,-74.1028,43.0769,-15.5129,-1.7947,-10.5129,1.7947,-54.6155,43.5896,-5.6411,44.615,57.9485,
-27.5642,47.051,-77.9487,-72.8203,36.9233,-0.51294,-6.1538,-25.5129,16.7947,-69.6155,56.4102,-20.6411,29.615,42.9485,
-15.1284,36.6665,-88.4614,-87.8203,23.3335,14.4871,8.8462,-35.6411,31.7947,-70,41.4102,-35.6411,18.7178,27.9485,
-25.3848,21.6665,-103.4614,-102.8203,10.5127,29.4871,23.8462,-20.6411,46.7947,-55,26.4102,-20.6411,13.0771,12.9485,
-10.3848,6.6665,-118.4614,-117.8203,6.6665,14.4871,8.8462,-5.6411,31.7947,-40,12.8203,-20.5127,21.0254,27.9485,
-0.25635,21.6665,-103.4614,-102.8203,21.6665,-0.51294,-6.1538,3.333,16.7947,-45.3848,27.8203,-35.5127,36.0254,42.9485,
-15.2563,36.6665,-88.4614,-87.8203,36.6665,-15.5129,8.8462,-11.667,26.1541,-60.3848,42.8203,-36.4099,33.8464,43.5901,
-30.2563,21.6665,-78.718,-102.8203,22.3079,-0.51294,14.1028,-26.667,25.3845,-75.3848,27.8203,-21.4099,18.8464,28.5901,
-36.1541,6.6665,-93.718,-117.8203,7.3079,14.4871,29.1028,-25.3845,40.3845,-67.9485,12.8203,-6.4099,3.8464,14.1028,
-21.1541,-8.3335,-108.718,-132.8203,-7.6921,29.4871,14.1028,-10.3845,25.3845,-52.9485,22.0513,8.5901,-0.5127,26.1538,
-6.1541,6.6665,-93.718,-117.8203,7.3079,14.4871,1.5386,-6.667,25.1279,-51.2822,37.0513,-6.4099,14.4873,36.4102,
-21.1541,21.6665,-78.718,-102.8203,22.3079,-0.51294,16.5386,-21.667,10.1279,-66.2822,52.0513,-21.4099,29.4873,45.385,
-6.1541,19.7438,-63.718,-87.8203,37.3079,-15.5129,3.3334,-6.667,-4.8721,-51.2822,37.0513,-36.4099,44.4873,60.385,
-13.8464,4.7438,-78.718,-102.8203,22.3079,-0.51294,-3.0769,-9.7439,10.1279,-41.5388,52.0513,-21.4099,29.4873,45.385,
1.1536,-10.2562,-93.718,-117.8203,7.3079,14.4871,-16.6665,-5.3848,25.1279,-26.5388,58.7178,-6.4099,14.4873,31.0259,
14.3589,4.7438,-78.718,-102.8203,22.3079,-0.51294,-1.6665,-5.6411,10.1279,-32.3079,49.7437,-21.4099,29.4873,25.1279,
-0.64111,19.7438,-63.718,-87.8203,37.3079,-15.5129,13.3335,-20.6411,1.0256,-47.3079,64.7437,-36.4099,44.4873,40.1279,
11.282,33.8459,-48.718,-72.8203,43.5896,-20.5129,-1.6665,-11.7947,7.1794,-49.2307,52.3079,-51.4099,53.3333,55.1279,
-3.718,18.8459,-63.718,-87.8203,28.718,-5.5129,13.3335,-9.7434,-6.1536,-41.0256,62.0515,-36.4099,40.5129,53.8464,
-7.949,3.8459,-78.718,-102.8203,13.718,9.4871,28.3335,-6.4104,-20.7693,-38.2053,73.5896,-21.4099,25.5129,38.8464,
-6.1538,7.1797,-81.5383,-87.8203,10.7695,8.2051,13.3335,-18.9741,-5.7693,-53.2053,58.5896,-23.5898,12.3076,23.8464,
-21.1538,22.1797,-66.5383,-72.8203,25.7695,-6.7949,26.9231,-26.9231,9.2307,-63.3333,73.5896,-38.5898,27.3076,38.8464,
-6.1538,7.1797,-51.5383,-87.8203,40.7695,-21.7949,11.9231,-11.9231,-5.7693,-48.3333,58.5896,-40.769,42.3076,53.8464,
-12.564,-7.8203,-50,-102.8203,45.3848,-6.7949,-3.0769,-11.5386,9.2307,-44.3589,43.5896,-25.769,47.436,38.8464,
-27.564,-4.8718,-65,-110.5129,30.3848,8.2051,-18.0769,-26.5386,24.2307,-59.3589,28.5896,-10.769,32.436,23.8464,
-12.564,-3.5896,-80,-100,15.3848,2.5642,-3.0769,-31.7947,9.2307,-57.9487,43.5896,1.5383,17.436,14.3591,
-25.6409,11.4104,-65,-85,25.6409,-12.4358,11.9231,-16.7947,15.3845,-45.6409,58.5896,-13.4617,30.7693,29.3591,
-10.6409,12.5643,-50,-74.6154,40.6409,-27.4358,-3.0769,-1.7947,0.38452,-30.6409,43.5896,-28.4617,45.7693,44.3591,
-2.5642,25.1282,-35,-59.6154,55.6409,-12.4358,-12.8206,2.5642,5.6409,-40.0002,50.7693,-22.0515,60.7693,51.282,
-17.5642,20.769,-50,-74.6154,40.6409,-1.2822,-19.7437,-12.4358,1.2822,-55.0002,35.7693,-7.0515,45.7693,36.282,
-8.4614,5.769,-65,-89.6154,25.6409,13.7178,-4.7437,-27.4358,16.2822,-59.7434,20.7693,7.9485,30.7693,22.3076,
-23.4614,-5.3848,-80,-81.7949,10.6409,28.7178,10.2563,-15.6411,31.2822,-47.436,5.7693,6.4102,15.7693,22.8203,
-8.4614,-20.3848,-83.59,-96.7949,22.0514,13.7178,4.1027,-0.64111,16.2822,-32.436,-4.1027,-8.5898,30.7693,37.8203,
6.5386,-5.3848,-68.59,-81.7949,37.0514,-1.2822,-10.8973,0.25635,1.2822,-30.5129,10.8973,-23.5898,45.7693,52.8203,
-8.4614,9.6152,-53.59,-66.7949,52.0514,-16.2822,4.1027,-14.7437,16.2822,-45.5129,25.8973,-22.8206,60.7693,67.8203,
-23.4614,-5.3848,-68.59,-81.7949,37.0514,-1.2822,12.8206,-29.7437,31.2822,-60.5129,21.0256,-7.8206,45.7693,52.8203,
-15.1282,-7.9485,-83.59,-96.7949,22.0514,13.7178,27.8206,-14.7437,46.2822,-45.5129,36.0256,7.1794,30.7693,37.8203,
-0.12817,-22.9485,-98.59,-111.7949,7.0514,13.5898,12.8206,0.25635,31.2822,-30.5129,36.6665,2.3076,31.0254,23.3335,
1.7947,-7.9485,-83.59,-96.7949,22.0514,-1.4102,-2.1794,0.25659,16.2822,-34.6155,50.5129,-12.6924,46.0254,38.3335,
-13.2053,7.0515,-68.59,-81.7949,37.0514,-16.4102,10.2563,-14.7434,31.2822,-49.6155,65.5129,-27.6924,61.0254,53.3335,
-25.3845,-3.8459,-73.5898,-96.7949,22.0514,-1.4102,-1.282,-29.7434,16.2822,-64.6155,50.5129,-12.6924,46.0254,38.3335,
-33.8462,-18.8459,-88.5898,-111.7949,7.0514,13.5898,13.718,-30.769,31.2822,-55.3848,65.5129,2.3076,31.0254,23.3335,
-18.8462,-33.8459,-103.5898,-126.7949,-7.9486,11.0256,-1.282,-15.769,16.2822,-40.3848,50.5129,15.6409,16.0254,14.1028,
-3.8462,-18.8459,-88.5898,-111.7949,7.0514,-3.9744,-16.282,-5.3848,18.7183,-38.7178,36.1538,0.64087,31.0254,29.1028,
-18.8462,-3.8459,-73.5898,-96.7949,22.0514,-18.9744,-1.282,-20.3848,11.7947,-53.7178,51.1538,-14.3591,46.0254,44.1028,
-3.8462,11.1541,-58.5898,-81.7949,37.0514,-4.3589,13.718,-15.6411,1.7949,-40.2563,53.5898,-20.7693,51.0259,51.0259,
-18.8462,-3.8459,-73.5898,-96.7949,22.0514,10.6411,12.3079,-30.6411,16.7949,-54.8718,45.6409,-5.7693,36.0259,36.0259,
-3.8462,-18.8459,-88.5898,-111.7949,7.0514,25.6411,-2.6921,-15.6411,31.7949,-39.8718,33.3333,9.2307,21.0259,28.2048,
3.8462,-3.8459,-81.2822,-96.7949,22.0514,10.6411,-1.7949,-3.3335,16.7949,-33.0769,48.3333,-5.7693,36.0259,24.3589,
-11.1538,11.1541,-66.2822,-81.7949,37.0514,-4.3589,13.2051,-18.3335,2.3076,-48.0769,63.3333,-20.7693,51.0259,39.3589,
2.5642,5.1282,-52.8206,-81.0256,42.051,-19.3589,-1.0256,-10.2566,1.0256,-33.0769,48.3333,-35.7693,53.8459,54.3589,
-12.4358,-9.8718,-67.8206,-96.0256,27.051,-4.3589,1.7949,-25.2566,12.0513,-43.8462,63.3333,-20.7693,38.8459,45.8975,
-18.2051,-24.8718,-82.8206,-111.0256,12.051,10.6411,12.564,-13.5898,6.9229,-34.6152,78.3333,-5.7693,23.8459,30.8975,
-3.2051,-9.8718,-84.1025,-96.0256,22.051,-4.3589,1.5383,-8.718,15.3845,-37.436,63.3333,-20,37.4358,15.8975,
-18.2051,5.1282,-69.1025,-81.0256,37.051,-19.3589,16.5383,-20,20,-52.436,71.7949,-35,52.4358,30.8975,
-3.2051,15.1281,-54.1025,-92.5641,52.051,-34.3589,1.5383,-5,5,-37.436,56.7949,-50,67.4358,45.8975,
-18.2051,0.12805,-69.1025,-107.5641,37.051,-19.3589,-2.3079,-14.1023,2.3079,-40.7693,41.7949,-35,52.4358,30.8975,
-33.2051,-14.8719,-84.1025,-122.5641,22.051,-4.3589,12.6921,-29.1023,12.5642,-55.7693,56.7949,-20,37.4358,15.8975,
-18.2051,-6.6667,-96.4104,-107.5641,8.718,10.6411,9.7434,-25.6409,6.6667,-43.0769,68.2048,-17.4358,22.4358,17.4358,
-27.1794,8.3333,-81.4104,-92.5641,23.718,10.7693,-5.2566,-10.7693,12.3074,-28.718,54.3586,-32.4358,37.4358,32.4358,
-12.1794,-6.6667,-66.4104,-106.1539,38.718,-4.2307,-20.2566,4.2307,-2.6926,-13.718,39.3586,-47.4358,52.4358,47.4358,
-9.4873,2.3076,-51.4104,-91.1539,53.718,-19.2307,-6.4102,-2.3076,12.3074,-26.9229,46.4102,-32.4358,67.4358,48.4614,
-24.4873,1.0256,-66.4104,-106.1539,38.718,-4.2307,-21.4102,-17.3076,23.5901,-41.9229,31.4102,-17.4358,52.4358,33.4614,
-13.5896,-7.9485,-81.4104,-112.564,23.718,10.7693,-6.4102,-25.8975,9.4871,-50.5127,16.4102,-2.4358,37.4358,28.9744,
-28.5896,-16.4104,-96.4104,-99.4873,8.718,25.7693,8.5898,-23.5896,5.1282,-45.6414,7.6921,12.5642,22.4358,39.9998,
-13.5896,-22.5641,-81.4104,-98.4615,23.718,10.7693,-1.5385,-8.5896,-9.8718,-30.6414,1.5385,-2.4358,37.4358,54.9998,
1.4104,-7.5641,-66.4104,-83.4615,38.718,-4.2307,-16.5385,6.4104,-14.3589,-19.4873,16.5385,-17.4358,52.4358,61.5386,
-13.5896,7.4359,-51.4104,-68.4615,53.718,-19.2307,-1.5385,-8.5896,0.64111,-34.4873,31.5385,-27.6921,67.4358,76.5386,
-13.5896,-2.3079,-66.4104,-83.4615,38.718,-4.2307,13.4615,-23.5896,15.6411,-49.4873,16.5385,-12.6921,52.4358,61.5386,
-20.5127,-17.3079,-81.4104,-98.4615,23.718,10.7693,28.4615,-8.5896,30.6411,-34.4873,27.6924,2.3079,37.4358,46.5386,
-5.5127,-32.3079,-96.4104,-113.4615,8.718,-4.2307,13.4615,6.4104,15.6411,-19.4873,24.8721,5.3848,23.3335,31.5386,
9.4873,-17.3079,-81.4104,-98.4615,23.718,-19.2307,-1.5385,11.2822,0.64111,-11.2822,39.8721,-9.6152,38.3335,46.5386,
-5.5127,-2.3079,-66.4104,-83.4615,38.718,-34.2307,13.4615,-3.7178,15.6411,-26.2822,54.8721,-24.6152,53.3335,61.5386,
-20.5127,-4.6152,-81.4104,-98.4615,23.718,-19.2307,6.6665,-18.7178,30.6411,-41.2822,47.6924,-9.6152,38.3335,46.5386,
-28.4614,-19.6152,-96.4104,-113.4615,8.718,-4.2307,21.6665,-17.6924,36.667,-37.6924,62.6924,5.3848,23.3335,31.5386,
-13.4614,-34.6152,-111.4104,-128.4615,-5.3845,10.7693,6.6665,-2.6924,21.667,-22.6924,56.6667,18.718,12.0515,16.5386,
1.5386,-19.6152,-96.4104,-113.4615,9.6155,-4.2307,-8.3335,-4.8718,10.5129,-34.6152,41.6667,3.718,27.0515,31.5386,
-13.4614,-4.6152,-81.4104,-98.4615,24.6155,-19.2307,1.2822,-19.8718,25.5129,-49.6152,56.6667,-11.282,42.0515,46.5386,
-1.0256,10.3848,-66.4104,-83.4615,39.6155,-4.2307,-1.5383,-16.9231,16.9231,-34.6152,61.0256,-26.282,38.4617,53.8464,
-16.0256,-4.6152,-81.4104,-98.4615,24.6155,10.7693,13.4617,-31.9231,31.9231,-49.6152,46.0256,-11.282,23.4617,38.8464,
-5.1282,-19.6152,-96.4104,-113.4615,9.6155,25.7693,5.1282,-16.9231,26.1536,-34.6152,31.0256,3.718,8.4617,23.8464,
6.6665,-4.6152,-92.8206,-98.4615,19.4873,10.7693,-9.8718,-6.6665,19.4873,-37.4358,46.0256,-11.282,23.4617,21.5386,
-8.3335,10.3848,-77.8206,-83.4615,34.4873,-4.2307,5.1282,-21.6665,4.4873,-52.4358,61.0256,-26.282,38.4617,36.5386,
6.6665,19.4871,-62.8206,-68.4615,49.4873,-19.2307,11.282,-10.2566,-10.5127,-37.4358,46.0256,-37.4358,40.5129,48.2053,
-8.3335,4.4871,-77.8206,-83.4615,34.4873,-4.2307,-3.718,-17.4358,4.4873,-39.4871,56.9231,-22.4358,25.5129,34.8718,
-1.2817,-10.5129,-92.8206,-98.4615,19.4873,10.7693,-2.8203,-2.4358,19.4873,-24.4871,71.9231,-7.4358,13.0771,27.436,
7.4363,4.4871,-84.8716,-94.1023,31.5388,-4.2307,12.1797,-5.8972,4.4873,-34.1023,64.3591,-6.4099,28.0771,12.436,
-7.5637,19.4871,-69.8716,-79.1023,46.5388,-19.2307,27.1797,-9.2307,3.0769,-43.5896,79.3591,-21.4099,43.0771,27.436,
7.4363,16.4102,-56.9231,-91.282,53.8462,-34.2307,12.1797,5.6411,-5.6411,-28.5896,64.3591,-36.4099,58.0771,42.436,
-7.5637,1.4102,-71.9231,-106.282,38.8462,-19.2307,13.3335,-9.3589,-10.2563,-42.0513,56.4102,-21.4099,43.0771,34.8721,
-22.5637,-9.7437,-86.9231,-121.282,26.1538,-4.2307,28.3335,-22.5645,-8.2051,-45.6411,71.4102,-6.4099,28.0771,19.8721,
-7.5637,-3.8459,-87.9487,-107.9487,35.1282,10.7693,13.3335,-25.8975,6.7949,-41.282,56.4102,-18.718,16.1541,4.8721,
-22.5637,11.1541,-72.9487,-92.9487,50.1282,13.3333,-1.6665,-13.3333,13.3333,-35.8977,45.6409,-33.718,31.1541,19.8721,
-7.5637,5.8975,-67.9487,-107.9487,52.0513,-1.6667,-16.6665,1.6667,-1.6667,-20.8977,30.6409,-48.718,46.1541,34.8721,
-7.436,4.3589,-52.9487,-92.9487,67.0513,-6.4102,-13.5898,-4.3589,7.436,-35.8977,40.2563,-33.718,58.7178,30.5127,
-22.436,6.9231,-67.9487,-102.3074,52.0513,8.5898,-28.5898,-19.3589,21.7952,-50.8977,25.2563,-18.718,43.7178,15.5127,
-7.9487,1.7949,-82.9487,-104.3591,37.0513,23.5898,-13.5898,-34.3589,6.7952,-55.1284,16.6665,-3.718,28.7178,11.5386,
-22.9487,-1.5383,-97.9487,-108.2051,22.0513,8.5898,1.4102,-23.0769,-1.0256,-43.5896,31.6665,2.5642,13.7178,26.5386,
-7.9487,-11.5386,-82.9487,-111.0256,37.0513,-6.4102,-7.9487,-8.0769,-16.0256,-28.5896,16.6665,-12.4358,28.7178,41.5386,
6.1538,3.4614,-67.9487,-96.0256,52.0513,-21.4102,-22.9487,6.9231,-26.6665,-30.7693,31.6665,-27.4358,43.7178,55.8975,
-8.8462,18.4614,-52.9487,-81.0256,67.0513,-16.1541,-7.9487,-8.0769,-11.6665,-45.7693,46.6665,-12.4358,58.7178,57.1794,
-23.8462,3.4614,-67.9487,-96.0256,52.0513,-1.1541,7.0513,-23.0769,3.3335,-60.7693,31.6665,2.5642,43.7178,42.1794,
-23.8459,-2.8206,-82.9487,-105.8975,37.0513,13.8459,22.0513,-8.0769,18.3335,-45.7693,16.6665,17.5642,28.7178,29.4871,
-8.8459,-17.8206,-97.9487,-120.8975,22.0513,-1.1541,7.0513,6.9231,3.3335,-30.7693,1.6665,2.5642,25.1284,28.7183,
-11.5381,-2.8206,-82.9487,-105.8975,37.0513,-16.1541,5.8975,-5.8975,5.8975,-35.1279,16.6665,-12.4358,40.1284,41.7949,
-26.5381,12.1794,-67.9487,-90.8975,52.0513,-31.1541,20.8975,-20.8975,20.2563,-50.1279,31.6665,-27.4358,55.1284,56.7949,
-11.5381,-2.8206,-82.9487,-105.8975,39.9998,-16.4104,16.9231,-27.1794,5.2563,-43.5898,16.6665,-12.8206,40.1284,41.7949,
-11.7949,-17.8206,-97.9487,-120.8975,24.9998,-1.4104,31.9231,-12.1794,20.2563,-31.2817,31.6665,2.1794,25.1284,26.7949,
3.2051,-32.8206,-112.9487,-135.8975,9.9998,-7.6921,16.9231,2.8206,18.9744,-16.2817,46.6665,8.2053,10.7693,11.7949,
18.205,-17.8206,-97.9487,-120.8975,24.9998,-22.6921,1.9231,15.641,3.9744,-2.3077,39.2308,-6.7947,25.7693,26.7949,
3.205,-2.8206,-82.9487,-105.8975,39.9998,-37.6921,6.9231,0.64099,18.9744,-17.3077,54.2308,-21.7947,40.7693,41.7949,
-0.25635,5.8975,-67.9487,-90.8975,53.5894,-22.8206,0.25635,-14.359,33.9744,-32.3077,69.2308,-11.0259,51.0254,46.9229,
-15.2563,-9.1025,-82.9487,-105.8975,38.5894,-7.8206,15.2563,-23.3333,18.9744,-35.6409,80.7693,3.9741,36.0254,31.9229,
-0.25635,-24.1025,-97.9487,-120.8975,23.5894,-5.8972,25.8977,-8.3333,3.9744,-20.6409,65.7693,18.9741,21.0254,18.2053,
14.7437,-9.1025,-82.9487,-105.8975,17.949,-20.8972,10.8977,1.5383,8.2053,-21.5383,50.7693,3.9741,35.3845,33.2053,
-0.25635,5.8975,-67.9487,-90.8975,32.949,-35.8972,-0.5127,-13.4617,7.6924,-36.5383,65.7693,-11.0259,50.3845,48.2053,
14.7437,20.8975,-52.9487,-75.8975,47.949,-48.2051,7.1794,-7.1794,-7.3076,-21.5383,50.7693,-26.0259,51.7952,60.5129,
-0.25635,5.8975,-67.9487,-90.8975,32.949,-33.2051,-7.8206,-21.0256,7.6924,-32.3079,35.7693,-11.0259,36.7952,45.5129,
-6.1541,-9.1025,-82.9487,-105.8975,17.949,-18.2051,-22.8206,-8.718,22.6924,-21.0256,49.2307,3.9741,25.1282,30.5129,
8.8459,5.8972,-86.4104,-99.7437,32.949,-30.0002,-7.8206,-1.282,7.6924,-13.5898,64.2307,-11.0259,37.6921,19.7434,
-6.1541,20.8972,-71.4104,-84.7437,47.949,-45.0002,7.1794,-16.282,7.6921,-28.5898,79.2307,-26.0259,50.2561,34.7434,
8.8459,8.9745,-56.4104,-73.0768,45.8973,-60.0002,-7.8206,-1.282,-7.3079,-13.5898,64.2307,-41.0259,56.6669,49.7434,
-0.76904,-6.0255,-67.9487,-88.0768,32.0513,-45.0002,-14.1025,0.76904,-11.5386,-11.0259,56.1538,-26.0259,58.2051,61.7949,
-15.769,-21.0255,-82.9487,-103.0768,17.0513,-30.0002,0.89746,-14.231,-6.4102,-26.0259,71.1538,-11.0259,43.2051,46.7949,
-0.76904,-6.0255,-71.5386,-102.8206,29.4871,-15.0002,-7.436,-15.1282,8.5898,-17.1794,64.3591,0.76929,32.051,31.7949,
-11.0256,8.9745,-56.5386,-87.8206,44.4871,-30.0002,4.8718,-4.8718,17.1794,-17.6921,79.3591,-14.2307,47.051,46.7949,
3.9744,-4.6154,-43.5897,-102.8206,50.2565,-45.0002,-10.1282,9.7435,2.1794,-2.6921,64.3591,-29.2307,62.051,61.7949,
4.1025,-4.1025,-28.7183,-95.8977,64.1025,-30.0002,-25.1282,-5.1284,12.8203,-10.7695,49.3591,-14.2307,66.6665,63.5894,
-10.8975,-12.5642,-43.7183,-110.8977,49.1025,-15.0002,-40.1282,-20.1284,12.5642,-25.7695,34.3591,0.76929,51.6665,48.5894,
2.0513,-20,-58.7183,-108.2051,34.1025,-6.6667,-25.1282,-14.8718,15.3848,-10.7695,49.3591,5.1284,36.6665,33.5894,
-12.9487,-21.5383,-73.7183,-114.8718,19.1025,-21.6667,-10.1282,-22.5642,23.5896,-18.4617,64.3591,20.1284,31.7947,45.1282,
2.0513,-36.5383,-65.8973,-128.4615,34.1025,-36.6667,-25.1282,-7.5642,8.5896,-3.4617,49.3591,5.1284,46.7947,60.1282,
3.0771,-21.5383,-50.8973,-113.4615,49.1025,-51.6667,-33.8462,0,-6.4104,0,56.9229,-9.8716,61.7947,55.3848,
-11.9229,-6.5383,-35.8973,-98.4615,64.1025,-64.3589,-18.8462,-15,7.436,-15,71.9229,-24.8716,76.7947,70.3848,
0.51294,-21.5383,-50.8973,-103.0771,49.1025,-49.3589,-3.8462,-21.5386,21.5383,-13.8462,77.4358,-9.8716,61.7947,55.3848,
-14.4871,-36.5383,-65.8973,-118.0771,34.1025,-34.3589,11.1538,-16.9231,36.5383,-12.8206,92.4358,5.1284,46.7947,40.3848,
0.51294,-51.5383,-80.8973,-133.0771,19.1025,-19.3589,-3.8462,-1.9231,21.5383,2.1794,77.4358,-9.8716,42.0515,35.8972,
3.8462,-36.5383,-65.8973,-118.0771,34.1025,-34.3589,-18.8462,-1.7949,6.5383,3.8462,62.4358,-24.8716,57.0515,48.9746,
-11.1538,-21.5383,-50.8973,-103.0771,49.1025,-49.3589,-3.8462,-16.7949,21.5383,-11.1538,77.4358,-39.8716,72.0515,63.9746,
-3.3335,-14.1025,-60.2563,-109.4873,34.1025,-34.3589,-5.8975,-31.5386,36.5383,-25.8975,92.4358,-24.8716,57.0515,48.9746,
-18.3335,-29.1025,-75.2563,-124.4873,19.1025,-19.3589,9.1025,-16.5386,21.5383,-10.8975,77.4358,-9.8716,42.0515,33.9746,
-3.3335,-44.1025,-90.2563,-139.4873,7.6924,-34.3589,-5.8975,-1.5386,6.5383,4.1025,62.4358,-7.6924,40.5129,36.4104,
7.6924,-29.1025,-75.2563,-124.4873,22.6924,-49.3589,-20.8975,-4.1025,4.1025,12.3076,65.6411,-22.6924,55.5129,51.4104,
-7.3076,-14.1025,-60.2563,-109.4873,37.6924,-64.3589,-5.8975,-19.1025,19.1025,-2.6924,80.6411,-37.6924,70.5129,66.4104,
3.077,0.89746,-45.2563,-94.4873,51.7948,-49.3589,-6.6669,-14.359,32.3075,-9.2308,85.1283,-22.6924,63.5897,66.1537,
-11.923,-14.1025,-60.2563,-109.4873,36.7948,-34.3589,-21.6669,0.64099,17.3075,-3.3335,70.1283,-7.6924,48.5897,51.1537,
3.077,-29.1025,-75.2563,-124.4873,21.7948,-35.1282,-36.6669,15.641,2.3075,11.6665,55.1283,1.2822,33.5897,36.1537,
8.7178,-14.1025,-60.2563,-109.4873,23.5898,-50.1282,-38.9744,0.64099,17.3075,2.564,70.1283,-13.7178,47.1792,45.6411,
-6.2822,0.89746,-45.2563,-94.4873,38.5898,-65.1282,-23.9744,-14.359,32.3075,-12.436,85.1283,-28.4617,62.1792,60.6411,
1.2821,4.359,-30.2563,-79.4873,53.5898,-68.4615,-21.7948,-15.641,17.3075,-1.2821,78.205,-13.4617,65.8973,73.5897,
-7.949,-10.641,-45.2563,-94.4873,43.3333,-53.4615,-36.7948,-0.64099,2.3075,5.8972,63.205,-4.8718,54.6155,58.5897,
-0.25635,-25.641,-60.2563,-109.4873,28.3333,-38.4615,-51.7948,0.25635,-12.6925,1.2822,48.205,-19.8718,39.6155,43.5897,
14.7437,-10.641,-51.5385,-94.4873,32.0511,-53.4615,-36.7948,-0.25647,0.25647,7.9486,63.205,-34.8718,54.1024,31.5385,
-0.25635,4.359,-36.5385,-79.4873,45.1282,-68.4615,-21.7948,-15.2565,15.2565,-7.0514,78.205,-49.8718,42.5642,46.5385,
14.7437,0.25647,-21.5385,-67.9486,53.0768,-76.1539,-34.1027,-0.25647,0.25647,7.9486,63.205,-54.6154,57.5642,61.5385,
2.5642,-14.7435,-27.6921,-82.9486,45.6409,-61.1539,-45.1282,0.51294,-14.7435,13.8464,48.205,-39.6154,66.1541,68.2053,
-4.6155,-19.4871,-42.6921,-97.9486,30.6409,-46.1539,-30.1282,-8.2053,-29.7434,4.6155,45.6409,-24.6154,51.1541,64.1023,
10.3845,-8.205,-57.6921,-105.1281,27.1796,-44.6154,-36.923,-4.6154,-14.7434,4.6154,60.6409,-11.7948,36.4105,49.1023,
-4.6155,6.795,-42.6921,-90.1281,42.1796,-59.6154,-21.923,-1.0256,0.25659,-3.0769,75.6409,-26.7948,51.4105,64.1023,
10.3845,-7.1794,-35.8975,-99.4871,50.7695,-74.6154,-36.923,7.1794,-14.7434,10.2563,60.6409,-41.7948,53.8462,57.436,
0.76904,-0.76904,-28.9744,-91.0256,65.7695,-59.6154,-51.923,4.3589,-14.1025,5.3848,54.1025,-26.7948,68.8462,72.436,
-14.231,-0.76929,-43.9744,-106.0256,50.7695,-44.6154,-53.0769,-10.6411,0.76929,-9.6152,69.1025,-11.7948,53.8462,57.436,
0.76904,-4.1025,-52.8206,-108.2051,35.7695,-29.6154,-38.0769,-7.6924,5.6409,4.1025,67.6921,-11.2822,38.8462,42.436,
-13.0769,0.76929,-39.2307,-93.2051,39.2307,-44.6154,-23.0769,-3.8459,5.8977,-0.76929,66.9231,3.7178,44.3591,53.0769,
1.9231,-14.2307,-33.3333,-108.2051,54.2307,-59.6154,-38.0769,11.1541,-9.1023,14.2307,51.9231,-11.2822,59.3591,68.0769,
2.3074,0.76929,-18.3333,-93.2051,64.8718,-74.6154,-30.5129,-3.8459,-6.9231,0.76929,49.9998,-26.2822,72.5637,60.7693,
-12.6926,15.7693,-8.2051,-78.2051,71.2817,-83.0771,-15.5129,-18.8459,8.0769,-14.2307,64.9998,-41.2822,61.0254,72.3076,
2.3074,0.76929,-23.2051,-93.2051,56.2817,-68.0771,-27.4359,-14.1024,3.8461,-3.8461,65.8973,-26.2822,46.0254,57.3076,
-12.6926,-14.2307,-38.2051,-108.2051,41.2817,-53.0771,-12.4359,-7.4358,6.4104,-4.3591,50.8973,-11.2822,31.5383,42.3076,
2.3074,-29.2307,-53.2051,-122.8206,40.2563,-38.0771,-27.4359,7.5642,-8.5896,10.6409,35.8973,-21.7949,46.5383,57.3076,
1.282,-14.2307,-38.2051,-107.8206,55.2563,-53.0771,-42.4359,-7.4358,-20.7693,-1.282,44.3591,-36.7949,61.5383,53.0769,
-13.718,0.76929,-23.2051,-92.8206,70.2563,-65.6411,-27.4359,-22.4358,-5.7693,-16.282,59.3591,-51.7949,47.6924,55.8975,
1.282,-12.3076,-38.2051,-98.9744,55.2563,-50.6411,-15.8975,-21.0256,3.5898,-4.1025,74.3591,-36.7949,32.6924,42.0513,
-11.0259,-27.3076,-53.2051,-113.9744,40.2563,-35.6411,-24.8721,-6.0256,-11.4102,6.4102,59.3591,-21.7949,19.2305,27.0513,
3.9741,-42.3076,-68.2051,-128.9744,29.7435,-50.6411,-39.8721,8.9744,-26.4102,21.4102,44.3591,-13.3334,34.2305,42.0513,
5.6411,-27.3076,-53.2051,-113.9744,44.7435,-65.6411,-39.9998,-6.0256,-11.4102,6.4102,59.3591,-28.3334,49.2305,49.231,
-9.3589,-12.3076,-38.2051,-98.9744,59.4868,-80.6411,-24.9998,-21.0256,3.5898,-8.5898,74.3591,-43.3334,34.2305,48.7178,
5.6411,2.6924,-23.2051,-83.9744,53.5898,-65.6411,-12.0513,-21.7949,13.0767,-7.436,59.3591,-28.3334,33.5898,50,
-9.3589,-12.3076,-38.2051,-98.9744,38.5898,-50.6411,-27.0513,-6.7949,-1.9233,7.564,44.3591,-13.3334,18.5898,35,
5.6411,-27.3076,-53.2051,-113.9744,23.5898,-46.1539,-42.0513,8.2051,-16.9233,22.564,29.3591,1.6666,27.6923,33.3334,
17.4358,-12.3076,-38.2051,-98.9744,38.5898,-61.1539,-41.0256,-2.5642,-1.9233,14.3591,44.3591,-13.3334,42.6923,42.5642,
2.4358,2.6924,-23.2051,-83.9744,53.5898,-76.1539,-26.0256,-17.5642,13.0767,-0.64087,59.3591,-28.3334,47.1797,57.5642,
10.769,15.897,-11.7952,-81.0259,65.1279,-75.8977,-30.2566,-16.9233,-1.9233,2.0513,53.8457,-14.3591,55.3843,69.2305,
3.3335,0.89697,-26.7952,-96.0259,50.1279,-60.8977,-45.2566,-1.9233,-16.9233,15.6411,38.8457,-3.3335,40.3843,54.2305,
18.3335,-14.103,-41.7952,-111.0259,35.1279,-45.8977,-60.2566,13.0767,-31.9233,30.6411,23.8457,-11.7949,26.1538,39.2305,
23.0769,-7.6924,-41.5386,-96.0259,36.4104,-48.718,-45.2566,6.1538,-16.9233,22.5642,38.8457,-23.5898,34.8718,36.4104,
8.0769,7.3076,-26.5386,-81.0259,40.769,-63.718,-30.2566,-8.8462,-1.9233,7.5642,53.8457,-23.3335,35.1284,51.4104,
5.8975,-1.7949,-19.2307,-78.2051,39.231,-78.718,-45.2566,-16.1538,1.7949,4.3589,39.231,-38.3335,44.3589,55.6411,
0.25635,-11.0259,-15.1284,-93.2051,52.0513,-63.718,-60.2566,-1.1538,-13.2051,15.6411,24.231,-39.2307,59.3589,60.769,
-3.5898,-13.8462,-30.1284,-108.2051,37.0513,-48.718,-61.0256,-2.0513,-28.2051,6.6665,34.8716,-24.2307,44.3589,45.769,
11.4102,-3.3333,-45.1284,-94.6152,30.0002,-45.3845,-46.0256,-3.8462,-13.2051,3.3333,49.8716,-15.6409,32.5642,30.769,
-3.5898,11.6667,-30.1284,-79.6152,45.0002,-60.3845,-31.0256,-16.9231,1.7949,-7.1794,64.8716,-30.6409,45.6409,45.769,
11.4102,-3.3333,-15.1284,-79.4873,50.769,-75.3845,-46.0256,-1.9231,-13.2051,7.8206,49.8716,-45.6409,47.1792,60,
-1.5383,3.5896,-7.1794,-90.2563,65.769,-60.3845,-48.718,1.5383,-22.051,12.8206,48.2053,-30.6409,62.1792,75,
-16.5383,16.1541,-22.1794,-105.2563,50.769,-45.3845,-33.718,-13.4617,-7.051,-2.1794,63.2053,-15.6409,47.4358,64.3591,
-1.5383,1.282,-37.1794,-100.2563,35.769,-30.3845,-26.9231,-9.4871,-1.282,2.3079,58.2053,-21.282,32.4358,49.3591,
-14.8721,16.282,-22.1794,-85.2563,47.1792,-34.3589,-17.436,4.6152,-2.564,2.564,64.1025,-18.4614,36.9229,40.5127,
0.12793,1.282,-24.1027,-98.9745,52.3075,-49.3589,-32.436,19.6152,-17.564,17.564,49.1025,-33.4614,49.7435,53.3334,
1.0256,14.8718,-9.1027,-83.9745,67.3075,-61.0256,-34.8718,4.6152,-2.564,14.8718,58.9744,-48.4614,64.7435,68.3334,
-13.9744,29.8718,-24.1027,-68.9745,68.4614,-46.0256,-19.8718,-10.3848,12.436,-0.12817,73.9744,-38.7178,54.6152,77.6924,
-1.2817,14.8718,-39.1027,-83.9745,53.4614,-31.0256,-34.8718,-22.3076,-0.25635,0.25635,58.9744,-23.7178,39.6152,62.6924,
-16.2817,-0.12817,-54.1027,-98.9745,38.4614,-16.0256,-41.282,-7.3076,-5.3845,5.3845,43.9744,-8.7178,28.4617,47.6924,
-1.2817,-11.2821,-39.1027,-113.3334,53.4614,-28.7179,-56.282,7.6924,-20.3845,20.3845,28.9744,-20.0001,43.4617,62.6924,
1.0256,3.7179,-24.1027,-98.3334,61.0256,-43.7179,-41.282,-7.3076,-13.3337,5.3845,43.9744,-35.0001,58.4617,57.4358,
-13.9744,18.7179,-9.1027,-83.3334,54.6152,-58.7179,-26.282,-22.3076,1.6663,-9.6155,58.9744,-50.0001,43.4617,42.4358,
1.0256,3.7179,-24.1027,-89.4871,39.6152,-43.7179,-25.8972,-20.2563,4.3589,-2.3076,55.6411,-35.0001,28.4617,36.1538,
-13.9744,-11.2821,-39.1027,-104.4871,24.6152,-28.7179,-30.5129,-5.2563,-10.6411,6.4104,40.6411,-20.0001,30.5129,33.5901,
1.0256,-26.2821,-54.1027,-119.4871,39.6152,-19.4871,-45.5129,9.7437,-25.6411,21.4104,25.6411,-6.1538,45.5129,48.5901,
-1.282,-11.2821,-39.1027,-104.4871,48.9744,-34.4871,-41.7949,-5.2563,-10.6411,8.4617,40.6411,-21.1538,51.0256,41.7947,
-16.282,3.7179,-24.1027,-89.4871,53.5896,-49.4871,-26.7949,-20.2563,4.3589,-6.5383,55.6411,-36.1538,36.0256,33.0769,
-1.282,18.7179,-14.3589,-74.4871,60.5127,-34.4871,-19.4871,-5.2563,-1.0256,1.0256,58.9746,-22.0513,43.5898,48.0769,
-9.4871,3.7179,-29.3589,-89.4871,45.5127,-19.4871,-34.4871,2.8206,-16.0256,7.4358,43.9746,-7.0513,28.5898,33.0769,
5.5129,-11.2821,-44.3589,-104.4871,30.5127,-34.4871,-49.4871,17.8206,-31.0256,22.4358,28.9746,-11.0256,41.7947,42.8206,
1.5388,-1.0256,-33.333,-89.4871,29.7439,-49.4871,-52.8203,2.8206,-16.0256,7.4358,43.9746,-26.0256,34.8718,27.8206,
-13.4612,13.9744,-18.333,-74.4871,44.7439,-64.4871,-37.8203,-12.1794,-1.0256,-7.5642,58.9746,-41.0256,26.1541,42.8206,
1.5388,27.4357,-8.9745,-74.6154,54.6154,-63.3334,-22.8203,-14.6154,-2.3077,2.3077,51.5382,-41.2821,41.1541,57.8206,
5.1282,12.4357,-23.9745,-89.6154,39.6154,-48.3334,-37.8203,0.38464,-17.3077,17.3077,36.5382,-26.2821,54.8718,56.4104,
20.1282,-2.5643,-38.9745,-104.6154,29.2307,-33.3334,-52.8203,15.3846,-32.3077,32.3077,21.5382,-11.2821,48.718,53.3333,
21.282,0.25659,-35.1282,-93.0769,29.9998,-47.9487,-37.8203,0.38464,-17.3077,17.3077,36.5382,-26.2821,36.1536,38.3333,
6.282,15.2566,-20.1282,-78.0769,28.9744,-62.9487,-22.8203,-14.6154,-2.3077,2.3077,51.5382,-41.2821,30.0002,45.3845,
14.359,14.359,-15.8973,-81.0255,41.5387,-77.9487,-37.8203,-14.359,-8.2052,8.2052,36.5382,-55.3846,45.0002,60.0001,
4.1023,-0.64099,-15.8977,-96.0255,49.7434,-62.9487,-52.8203,0.64099,-23.2052,17.4358,21.5382,-45.1282,51.7947,51.7947,
-0.51294,-11.282,-30.8977,-111.0255,34.7434,-47.9487,-67.8203,0.51294,-38.2052,16.4104,8.2053,-30.1282,36.7947,42.5642,
14.4871,-0.76929,-45.8977,-96.0255,26.4104,-48.9744,-52.8203,0.76929,-23.2052,17.6921,23.2053,-31.0256,36.1541,37.6921,
-0.51294,14.2307,-30.8977,-81.0255,38.2048,-63.9744,-37.8203,-14.2307,-8.2052,2.6921,38.2053,-45.3845,42.8206,52.051,
14.4871,3.5897,-19.9999,-68.2052,36.41,-78.9744,-52.8203,-3.5897,-23.2052,17.6921,23.2053,-60.3845,54.3588,53.8461,
-0.5127,13.8462,-4.9999,-83.2052,51.41,-63.9744,-49.7437,-4.1025,-37.436,5.6411,22.564,-45.3845,69.3588,62.564,
-2.8206,28.8462,-19.9999,-98.2052,56.1536,-48.9744,-34.7437,-10.5129,-22.436,2.8206,37.564,-30.3845,58.2048,62.8206,
12.1794,13.8462,-34.9999,-94.6155,41.1536,-33.9744,-34.1025,-20.2563,-7.436,3.8462,38.2051,-45.3845,43.2048,47.8206,
-2.8206,28.8462,-19.9999,-79.6155,43.3335,-34.1025,-19.1025,-5.2563,3.3335,6.4102,52.564,-60.3845,48.9741,39.2305,
12.1794,13.8462,-10.5129,-79.2307,47.436,-49.1025,-34.1025,9.7437,-11.6665,21.4102,37.564,-75.3845,59.231,54.2305,
-0.51294,22.5642,1.0256,-76.4104,54.3591,-64.1025,-42.0513,-5.2563,-23.0769,6.4102,29.7434,-78.9744,62.051,67.6921,
-15.5129,37.5642,-13.9744,-73.5896,55.6414,-49.1025,-27.0513,-20.2563,-8.0769,-8.5898,44.7434,-70.5125,58.718,78.718,
-0.51294,22.5642,-28.9744,-88.5896,40.6414,-34.1025,-24.6152,-15.8972,-4.1025,4.1025,43.0771,-55.5125,43.718,63.718,
-9.4871,7.5642,-39.7434,-103.5896,25.6414,-19.1025,-39.6152,-2.8206,-17.6921,2.8206,28.0771,-40.5125,28.718,48.718,
5.5129,11.5385,-24.7434,-93.0768,40.6414,-34.1025,-54.6152,12.1794,-32.6921,17.8206,13.0771,-25.5125,43.718,63.718,
9.2307,26.5385,-9.7434,-78.0768,55.6414,-49.1025,-39.6152,-2.8206,-17.6921,3.0769,28.0771,-40.5125,58.718,62.5642,
-5.7693,41.5385,-14.6155,-63.0768,62.8206,-64.1025,-24.6152,-17.8206,-2.6921,-11.9231,43.0771,-49.4871,50.0002,67.4358,
9.2307,26.5385,-29.6155,-78.0768,47.8206,-49.1025,-28.718,-22.5642,-6.6665,0,32.3076,-34.4871,35.0002,52.4358,
4.3589,11.5385,-44.6155,-93.0768,32.8206,-34.1025,-31.0259,-7.5642,-1.7949,11.0254,17.3076,-19.4871,40.769,37.4358,
19.3589,2.5641,-35.8973,-108.0768,47.8206,-19.1025,-46.0259,7.4358,-16.7949,26.0254,2.3076,-34.4871,55.769,52.4358,
7.949,17.5641,-20.8973,-93.0768,46.9231,-34.1025,-31.0259,-7.5642,-31.7949,11.0254,17.3076,-49.4871,50.0002,37.4358,
-7.051,32.5641,-5.8973,-78.0768,32.0515,-49.1025,-16.0259,-22.5642,-16.7949,-3.9746,32.3076,-64.4871,35.0002,23.8464,
7.949,22.564,-5.6411,-66.1538,35.8975,-34.1025,-14.3589,-19.4873,-1.7949,-1.5386,30.769,-49.4871,37.436,38.8464,
-5.6411,7.564,-20.6411,-81.1538,20.8975,-19.1025,-29.3589,-8.2051,-16.7949,5.6411,21.0259,-34.4871,35.3848,32.8208,
9.3589,-7.436,-35.6411,-96.1538,35.8975,-24.359,-38.2052,6.7949,-31.7949,20.6411,24.359,-33.5897,50.3848,47.8208,
24.3589,3.0769,-20.6411,-81.1538,46.6665,-39.359,-33.3333,-8.2051,-16.7949,10.769,33.8462,-48.5897,60.5127,34.8716,
9.3589,18.0769,-5.6411,-66.1538,41.7949,-54.359,-18.3333,-23.2051,-1.7949,-4.231,48.8462,-63.5897,45.5127,22.8203,
22.3077,22.3077,4.8717,-63.8461,56.7949,-63.3334,-33.3333,-19.2306,-16.7949,-4.8717,33.8462,-78.5897,33.0768,37.8203,
18.2053,7.3077,-10.1283,-78.8461,41.7949,-48.3334,-46.9231,-4.2306,-22.3079,10.1283,18.8462,-63.5897,35.6409,44.3591,
32.051,-7.6923,-25.1283,-93.8461,26.7949,-33.3334,-50,10.7694,-37.3079,25.1283,3.8462,-48.5897,33.0769,35.6409,
27.6926,7.3077,-24.6152,-78.8461,31.7952,-47.1794,-35,-4.2306,-22.3079,10.1283,18.8462,-63.5897,38.9744,36.9231,
12.6926,22.3077,-9.6152,-63.8461,33.8464,-62.1794,-20,-19.2306,-7.3079,-4.8717,33.8462,-78.5897,27.1794,38.4617,
18.718,30.5129,-4.3591,-71.0256,48.4617,-77.1794,-9.9998,-21.7949,4.3591,-9.9998,31.5383,-93.5897,42.1794,53.4617,
15.6409,15.5129,-6.4104,-86.0256,53.0769,-62.1794,-24.9998,-6.7949,-10.6409,5.0002,16.5383,-78.5897,57.1794,57.6921,
7.6924,0.51294,-21.4104,-101.0256,38.0769,-47.1794,-39.9998,-4.1025,-25.6409,4.6157,1.5383,-63.5897,42.1794,42.6921,
22.6924,4.3589,-36.4104,-86.0256,23.0769,-51.0256,-24.9998,-4.3589,-10.6409,10.5127,16.5383,-77.1794,42.8208,42.3076,
7.6924,19.3589,-21.7949,-71.0256,35.6406,-66.0256,-9.9998,-19.3589,4.3591,-4.4873,31.5383,-92.1794,57.8208,57.3076,
19.7439,12.0515,-24.8718,-72.564,36.6667,-81.0256,-24.9998,-11.0256,-10.6409,10.5127,16.5383,-93.0769,72.8208,56.6667,
4.7439,20.7693,-9.8718,-77.6921,51.6667,-66.0256,-39.9998,-12.051,-25.6409,3.3333,2.8206,-80.2563,79.2307,58.2053,
-4.6155,30.2561,-24.8718,-89.231,51.7947,-51.0256,-24.9998,-12.8206,-31.7952,4.6155,17.8206,-65.2563,64.2307,63.5896,
10.3845,15.2561,-39.8718,-82.3076,36.7947,-40.769,-26.4102,-12.564,-16.7952,9.4871,32.8206,-50.2563,49.2307,48.5896,
-4.6155,30.2561,-29.7439,-67.3076,31.7947,-55.769,-11.4102,-13.8464,-1.7952,4.6155,47.8206,-60.0002,55.8972,56.4099,
10.3845,15.2561,-14.7439,-66.6666,42.0511,-70.769,-26.4102,1.1536,-16.7952,19.6155,32.8206,-75.0002,68.205,71.4099,
2.3076,23.3335,0.2561,-65.8975,55.1284,-55.769,-41.4102,-12.0513,-24.8716,4.6155,17.8206,-79.2307,67.436,65.3848,
-12.6924,38.3335,-14.7439,-74.8721,51.2817,-43.0771,-26.4102,-27.0513,-9.8716,-10.3845,32.8206,-64.2307,61.0254,69.2305,
2.3076,23.3335,-29.7439,-85.6409,36.2817,-30.769,-24.6152,-15.8972,0,0,41.5386,-49.2307,46.0254,54.2305,
-4.3591,8.3335,-31.0256,-73.0771,22.3074,-15.769,-39.6152,-3.3333,-12.5642,7.9485,26.5386,-34.2307,40.2561,44.3586,
10.6409,8.718,-16.0256,-72.8206,37.3074,-28.2051,-54.6152,11.6667,-27.5642,22.9485,11.5386,-49.2307,55.2561,59.3586,
2.8203,16.6665,-1.0256,-57.8206,52.3074,-43.2051,-43.3335,-3.3333,-28.9746,7.9485,16.1538,-64.2307,60.769,60.2563,
-12.1797,31.6665,-16.0256,-42.8206,56.1538,-58.2051,-28.3335,-18.3333,-13.9746,-7.0515,31.1538,-79.2307,51.0254,71.0254,
0.25659,19.2307,-31.0256,-57.8206,41.1538,-43.2051,-31.5386,-33.3333,-0.25659,-18.718,22.8206,-64.2307,36.0254,56.0254,
-1.0256,4.2307,-43.0769,-72.8206,26.1538,-28.2051,-46.5386,-18.3333,-15.2566,-3.718,7.8206,-49.2307,33.3337,41.0254,
13.9744,4.1025,-28.0769,-87.8206,41.1538,-25.6411,-56.4102,-3.3333,-28.2051,11.282,-4.1025,-34.2307,48.3337,56.0254,
17.9487,19.1025,-13.0769,-72.8206,56.1538,-40.6411,-41.4102,-9.231,-13.2051,3.5898,10.8975,-49.2307,63.3337,58.9746,
2.9487,34.1025,-21.7947,-57.8206,43.8459,-55.6411,-26.4102,-24.231,1.7949,-11.4102,25.8975,-64.2307,48.3337,43.9746,
11.5386,28.9746,-6.9229,-72.564,48.4614,-40.6411,-24.8718,-21.282,5.3848,-5.3848,25.8975,-49.4871,44.8716,45.8975,
8.2053,13.9746,-21.9229,-87.564,33.4614,-25.6411,-30.7693,-6.282,-9.6152,9.6152,10.8975,-34.4871,46.1541,37.9485,
23.2053,-1.0254,-36.9229,-102.564,48.4614,-10.6411,-30.5128,8.718,-24.6152,24.6152,-0.25647,-40.7692,61.1541,52.9485,
25.3843,13.9746,-21.9229,-87.564,52.564,-25.6411,-15.5128,-4.8721,-9.6152,9.6152,14.7435,-55.7692,63.8462,53.5898,
10.3843,28.9746,-6.9229,-72.564,38.4617,-40.6411,-0.51282,-19.8721,-6.6667,-5.3848,29.7435,-70.7692,48.8462,38.5898,
24.3588,19.7435,8.0771,-60.7694,53.4617,-55.6411,-15.5128,-15.1283,-21.6667,3.3334,14.7435,-85.7692,46.41,53.5898,
9.3588,4.7435,-6.9229,-75.7694,38.4617,-40.6411,-30.5128,-3.5898,-26.1538,8.7178,3.5898,-70.7692,41.0254,47.1792,
24.3588,-10.2565,-21.9229,-90.7694,23.4617,-25.6411,-45.5128,11.4102,-41.1538,23.7178,5.8975,-67.436,42.8203,46.4102,
29.4874,4.7435,-20.2565,-86.923,36.6666,-40.6411,-41.7948,-3.5898,-38.7179,12.0514,6.4103,-82.436,49.4874,45.3849,
14.4874,19.7435,-5.2565,-71.923,28.7178,-55.6411,-26.7948,-18.5898,-23.7179,-2.9486,21.4103,-97.436,34.4874,30.3849,
8.4617,24.3591,0.76929,-63.8462,42.8206,-55.6409,-28.4614,-30.5127,-8.7179,-11.0256,25.3845,-109.4871,34.6155,45.3849,
13.8462,9.3591,-14.2307,-78.8462,49.7437,-40.6409,-43.4614,-15.5127,-23.7179,3.9744,10.3845,-94.4871,49.6155,60.3849,
11.2817,-5.6409,-29.2307,-93.8462,34.7437,-25.6409,-58.4614,-0.5127,-38.7179,15.3843,-4.6155,-79.4871,38.9741,51.2817,
15.385,-1.0256,-38.4614,-91.2817,19.7437,-39.4871,-43.4614,-14.3586,-23.7179,1.0256,10.3845,-94.4871,32.8206,36.4104,
0.38501,13.9744,-23.4614,-76.2817,27.9487,-54.4871,-28.4614,-29.3586,-8.7179,-13.9744,25.3845,-107.9487,45.8975,51.4104,
15.385,19.4872,-8.4614,-61.5382,42.9487,-69.4871,-39.9999,-14.3586,-15.3844,1.0256,10.3845,-93.3331,60.8975,66.4104,
2.0513,25.6411,6.5386,-65.1282,57.9487,-54.4871,-48.2051,-8.7178,-30.3844,0.5127,-0.5127,-103.5896,63.5898,63.0771,
2.8206,32.5637,-8.4614,-80.1282,52.051,-39.4871,-33.2051,-2.8206,-30.0002,8.4612,14.4873,-88.5896,51.5383,67.4358,
17.8206,17.5637,-23.4614,-76.4102,37.051,-26.1538,-23.0769,0,-15.0002,16.9233,25.6411,-73.5896,46.1538,52.8208,
2.8206,23.8462,-33.0767,-61.4102,36.6665,-18.7178,-8.0769,-10.5127,-0.0002435,1.9233,40.6411,-80.2563,61.1538,67.8208,
17.8206,8.8462,-18.7178,-72.564,51.5383,-33.7178,-23.0769,4.4873,-15.0002,16.9233,25.6411,-95.2563,76.1538,78.718,
2.8206,22.0515,-3.7178,-68.2051,66.5383,-48.7178,-32.3074,-10.5127,-28.2048,1.9233,12.3079,-106.1538,70.7693,66.1541,
-12.1794,37.0515,-10.2563,-57.9487,65.1279,-63.7178,-17.3074,-25.5127,-13.2048,-13.0767,27.3079,-91.1538,55.7693,66.1538,
2.8206,22.0515,-25.2563,-55.3845,50.1279,-48.7178,-16.4102,-10.7693,-6.6665,0,28.7178,-76.1538,40.7693,51.1538,
-10.0002,7.4358,-33.5901,-56.6667,35.1279,-33.7178,-31.4102,-4.8718,-21.6665,4.8718,15.1282,-85.3848,35.1282,38.2048,
4.9998,0.76929,-18.5901,-71.5386,50.1279,-40.2563,-46.4102,10.1282,-36.6665,19.8718,0.12817,-100.3848,50.1282,53.2048,
1.282,15.7693,-3.5901,-56.5386,61.7947,-55.2563,-31.4102,-4.8718,-21.6665,4.8718,15.1282,-110.5129,64.3591,66.9231,
-13.718,30.7693,-16.1538,-51.0259,53.5894,-70.2563,-16.4102,-19.8718,-6.6665,-10.1282,30.1282,-125.5129,49.3591,59.2305,
1.282,15.7693,-14.8721,-66.0259,42.051,-55.2563,-15.8977,-17.949,1.0256,-1.0256,31.282,-110.5129,43.5896,50.7693,
2.0513,0.76929,-27.6924,-81.0259,27.051,-40.2563,-30.8977,-2.949,-13.9744,7.1797,16.282,-95.5129,37.9487,37.436,
17.0513,7.9487,-12.6924,-87.9487,42.051,-41.282,-45.8977,12.051,-28.9744,22.1797,1.282,-80.5129,52.9487,52.436,
13.5898,22.9487,2.3076,-72.9487,49.4873,-56.282,-35.6411,-2.949,-16.1538,7.1797,16.282,-95.5129,54.6152,60.2563,
-1.4102,37.9487,-12.6924,-57.9487,35.3845,-71.282,-20.6411,-17.949,-1.1538,-7.8203,31.282,-96.4099,39.6152,52.3079,
13.5898,42.0513,-1.5386,-57.9487,46.1538,-56.282,-18.9744,-14.3591,-7.1797,1.5386,34.8716,-81.4099,45.1279,67.3079,
16.6667,27.0513,-16.5386,-72.9487,31.1538,-41.282,-33.9744,0.64087,-22.1797,16.5386,19.8716,-66.4099,52.5642,65.3845,
31.6667,12.0513,-23.8462,-87.9487,46.1538,-26.282,-48.9744,15.6409,-37.1797,31.5386,4.8716,-67.9487,67.5642,80.3845,
21.5386,22.0513,-8.8462,-72.9487,40,-41.282,-34.8718,0.64087,-25.1282,16.5386,12.8208,-82.9487,61.0259,65.3845,
6.5386,37.0513,-3.8459,-57.9487,25,-53.5896,-19.8718,-14.3591,-10.1282,1.5386,27.8208,-97.9487,46.0259,50.3845,
12.3079,35.3845,8.2053,-48.718,39.4871,-38.5896,-33.3333,-25.6411,-22.0513,-4.6155,12.8208,-88.718,31.0259,64.1028,
24.3591,20.3845,-6.7947,-63.718,40.7693,-23.5896,-48.3333,-10.6411,-37.0513,10.3845,-2.1792,-73.718,46.0259,79.1028,
39.3591,5.3845,-21.7947,-78.718,55.7693,-8.5896,-60.7692,4.3589,-52.0513,25.3845,-11.5385,-58.718,61.0259,94.1028,
24.3591,9.7435,-13.3334,-67.1793,40.7693,-23.5896,-45.7692,-9.7435,-37.0513,10.3845,3.4615,-73.718,47.1796,79.1028,
9.3591,24.7435,1.6666,-52.1793,25.7693,-38.5896,-30.7692,-24.7435,-22.0513,-4.6155,18.4615,-88.718,32.1796,64.1028,
16.4102,36.9229,16.6666,-38.9744,40.7693,-53.5896,-38.9744,-23.5898,-37.0513,-2.0513,3.4615,-103.718,40.5127,58.9741,
31.4102,21.9229,1.6666,-53.9744,55.7693,-38.5896,-53.9744,-8.5898,-51.7948,12.9487,-11.5385,-88.718,55.5127,73.9741,
45.1283,7.1796,-13.3334,-68.9744,51.7948,-27.1796,-68.9744,6.4102,-60.0001,27.9487,-7.1796,-73.718,70.5127,77.9486,
30.7689,11.2821,-24.1027,-83.9744,36.7948,-42.1796,-53.9744,-8.5898,-45.0001,12.9487,7.8204,-88.718,55.5127,62.9486,
15.7689,26.2821,-9.1027,-68.9744,31.0256,-57.1796,-38.9744,-23.5898,-30.0001,-2.0513,22.8204,-103.718,40.5127,47.9486,
30.7689,26.1541,5.1282,-58.4614,46.0256,-72.1796,-47.6921,-10.769,-23.0769,12.9487,7.8204,-114.8716,55.5127,62.9486,
15.7689,26.4102,7.436,-56.1538,61.0256,-57.1796,-58.718,-7.436,-38.0769,9.4873,-7.1796,-99.8716,70.5127,75.6411,
0.76892,29.4873,-7.564,-71.1538,46.9233,-42.1796,-46.4102,-16.6665,-40.7693,4.3589,0.25635,-84.8716,55.5127,75.6411,
15.7689,14.4873,-22.564,-86.1538,31.9233,-46.1538,-38.4614,-20.5129,-25.7693,10.2563,13.3335,-88.718,40.5127,60.6411,
0.76892,29.4873,-12.8203,-71.1538,33.3335,-61.1538,-23.4614,-28.7178,-10.7693,0,28.3335,-103.718,55.5127,75.6411,
15.7689,14.4873,-4.8718,-65.8975,48.3335,-76.1538,-38.4614,-13.7178,-25.7693,15,13.3335,-118.718,70.5127,87.9487,
4.1025,29.4873,10.1282,-50.8975,63.3335,-68.2048,-44.1023,-22.564,-40.7693,0,0,-103.718,69.231,72.9487,
-10.8975,44.4873,19.231,-48.9741,65.3848,-60.769,-29.1023,-34.6152,-25.7693,-11.5381,15,-88.718,54.6157,73.5898,
4.1025,29.4873,4.231,-63.9741,50.3848,-45.769,-35.8976,-19.6152,-10.7693,3.4619,15.8976,-82.0514,39.6157,58.5898,
-0.25659,14.4873,-10.769,-60.7693,35.3848,-30.769,-45.8972,-14.6155,-18.718,9.9998,9.9998,-67.0514,45.3845,53.5896,
14.7434,10.7693,-10.7693,-60.5127,47.6924,-45.769,-60.8972,0.38452,-33.718,24.9998,-5.0002,-82.0514,60.3845,68.5896,
2.3079,25.7693,4.2307,-45.5127,58.718,-60.769,-45.8972,-14.6155,-18.718,9.9998,4.3591,-97.0514,58.2053,71.5383,
-12.6921,40.7693,-1.7949,-43.8462,52.564,-75.769,-30.8972,-29.6155,-3.718,-5.0002,19.3591,-112.0514,43.2053,56.5383,
2.3079,25.7693,-16.7949,-52.564,44.3591,-60.769,-22.3076,-29.4871,3.3333,-3.3333,30.5129,-97.0514,41.282,41.5383,
4.3591,10.7693,-22.8206,-67.564,29.3591,-45.769,-37.3076,-14.4871,-11.6667,11.6667,15.5129,-82.0514,44.3591,40.7693,
19.3591,2.3077,-7.8206,-82.564,44.3591,-54.1027,-52.3076,0.51294,-26.6667,26.6667,0.51294,-91.5385,59.3591,55.7693,
4.3591,17.3077,7.1794,-67.564,46.6665,-69.1027,-37.9487,-14.4871,-11.6667,11.6667,15.5129,-106.5385,56.4102,67.1797,
-10.6409,32.3077,-7.8206,-52.564,37.1794,-84.1027,-22.9487,-29.4871,3.3333,-3.3333,30.5129,-96.6667,41.4102,62.3074,
4.3591,18.9742,-4.1027,-67.564,42.5641,-69.1027,-34.8719,-32.8207,-11.6667,4.1027,15.5129,-81.6667,38.9742,64.1027,
19.3591,3.9742,-15.6409,-82.564,34.1023,-54.1027,-49.8719,-17.8207,-26.6667,19.1027,0.51294,-66.6667,53.0769,49.1027,
34.3591,7.9487,-7.9487,-91.0256,49.1023,-39.1027,-64.8719,-2.8207,-41.6667,34.1027,-14.4871,-51.6667,68.0769,64.1027,
24.8717,12.5641,-8.4615,-76.0256,44.359,-54.1027,-49.8719,-17.8207,-27.4357,19.1027,0.51294,-66.6667,58.7179,60.2565,
9.8717,27.5641,-18.4614,-61.0256,32.8203,-69.1027,-34.8719,-32.8207,-12.4357,4.1027,15.5129,-81.6667,43.7179,53.8462,
11.5386,30,-3.4614,-57.6924,42.8203,-77.6924,-40.2563,-38.718,-14.6155,-1.2822,5.8975,-86.9231,35.6411,59.7437,
26.5386,15,-8.4615,-72.6924,51.5387,-62.6924,-55.2563,-23.718,-29.6155,13.7178,-9.1025,-71.9231,50.6411,67.9489,
41.5386,3.0769,-17.9487,-87.6924,66.5387,-47.6924,-60,-8.718,-44.6155,28.7178,-3.0769,-56.9231,65.6411,82.9489,
38.4618,5.641,-8.205,-72.6924,52.8207,-62.6924,-45,-18.9742,-29.6155,19.4872,11.9231,-71.9231,58.9745,67.9489,
23.4618,20.641,4.8718,-57.6924,37.8207,-77.6924,-30,-33.9742,-14.6155,4.4872,26.9231,-86.9231,43.9745,52.9489,
10.7693,17.4358,16.9231,-48.7178,40.0002,-92.6924,-45,-44.6152,-29.6155,-5.1282,11.9231,-101.9231,33.8464,43.0769,
25.7693,2.4358,1.9231,-63.7178,55.0002,-77.6924,-60,-29.6152,-44.6155,9.8718,1.0256,-86.9231,48.8464,58.0769,
40.7693,-10.5128,-13.0769,-78.7178,69.4872,-62.6924,-64.359,-14.6152,-51.0255,24.8718,10.5128,-71.9231,63.8464,73.0769,
36.1539,2.8204,-2.8204,-64.8717,54.4872,-77.6924,-49.359,-16.6666,-36.0255,25.8976,25.5128,-86.9231,51.5382,58.0769,
21.1539,17.8204,3.0769,-49.8717,39.4872,-92.6924,-34.359,-31.6666,-21.0255,10.8976,40.5128,-101.9231,36.5382,43.0769,
20.2563,14.6157,12.5645,-49.9998,54.4872,-107.6924,-49.359,-37.1794,-36.0255,1.7949,25.5128,-116.9231,48.4619,48.4619,
16.9231,7.1794,1.5383,-60,65.6409,-100,-64.359,-24.1023,-45.1282,13.3333,10.5128,-101.9231,61.5383,63.4619,
18.9746,15.3848,-13.4617,-75,52.3076,-85,-50.2563,-15.3848,-31.282,23.5898,19.4873,-86.9231,53.3335,77.436,
33.9746,7.6923,-17.9486,-82.0511,43.077,-83.0768,-35.2563,-16.4103,-16.282,27.1796,29.2308,-89.2308,53.3334,62.436,
18.9746,22.6923,-2.9486,-67.0511,50.2561,-98.0768,-20.2563,-31.4103,-1.282,12.1796,44.2308,-104.2308,63.0769,62.5642,
33.9746,7.6923,-0.25647,-74.6154,60.7694,-113.0768,-35.2563,-16.4103,-16.282,27.1796,29.2308,-119.2308,75.641,74.1024,
18.9746,4.1025,12.8203,-62.0513,60,-101.5386,-50.2563,-31.4103,-31.282,12.1796,14.2308,-104.2308,60.641,59.1024,
3.9746,19.1025,6.4102,-53.0771,63.8462,-86.5386,-35.2563,-42.3076,-16.282,-2.3076,29.2308,-89.2308,45.8975,60.769,
18.9746,4.1025,-8.5898,-68.0771,48.8462,-89.4871,-38.2051,-31.5383,-1.282,11.0256,35.6409,-80.2563,37.1794,45.769,
3.9746,-3.0769,-23.5898,-73.8462,34.8718,-80.5127,-41.5386,-21.5383,13.3333,14.8718,42.5642,-65.2563,52.1794,60.769,
18.9746,2.8206,-8.5898,-65.3845,49.8718,-95.5127,-56.5386,-6.5383,-1.6667,29.8718,27.5642,-75.1282,67.1794,75.769,
3.9746,17.8206,6.4102,-50.3845,64.8718,-110.5127,-41.7947,-21.5383,-16.6667,14.8718,14.1028,-90.1282,56.6667,60.769,
-11.0254,32.8206,7.4358,-60.7693,56.6667,-125.5127,-26.7947,-36.5383,-1.6667,-0.12817,29.1028,-105.1282,41.6667,45.769,
3.9746,17.8206,-7.5642,-75.7693,42.3075,-110.5127,-39.7435,-24.359,2.3077,14.8718,34.6156,-90.1282,47.4359,49.9999,
6.9231,2.8206,-22.5642,-90.7693,27.3075,-95.5127,-54.7435,-13.0769,-12.6923,29.8718,19.6156,-75.1282,56.1541,46.9231,
21.9231,-7.6921,-7.5642,-82.564,42.3075,-83.0769,-69.7435,1.9231,-27.6923,44.8718,4.6156,-61.5383,71.1541,61.9231,
6.9231,7.3079,7.4358,-67.564,47.4358,-98.0769,-54.7435,-13.0769,-18.718,29.8718,19.6156,-76.5383,58.2053,54.6155,
-8.0769,22.3079,-1.5386,-56.4102,42.0513,-113.0769,-39.7435,-28.0769,-3.718,14.8718,34.6156,-91.5383,43.2053,45.6411,
