"AF3","AF4","F3","F4","F7","F8","FC5","FC6","O1","O2","P7","P8","T7","T8",
-61.1357,-63.2263,-2.6125,-3.6573,174.0038,66.3617,192.8143,-19.3334,70.5419,-79.9472,145.787,44.4158,-56.9555,2.6125,
-46.1357,-48.2263,12.3875,11.3427,159.0038,51.3617,177.8143,-4.3334,55.5419,-64.9472,130.787,29.4158,-41.9555,17.6125,
-31.1357,-33.2263,27.3875,26.3427,144.0038,36.3617,162.8143,10.6666,40.5419,-49.9472,115.787,14.4158,-26.9555,32.6125,
-16.1357,-18.2263,42.3875,41.3427,129.0038,21.3617,147.8143,25.6666,25.5419,-34.9472,100.787,-0.58423,-11.9555,47.6125,
-1.1357,-3.2263,57.3875,56.3427,114.0038,6.3617,132.8143,40.6666,10.5419,-36.5772,85.787,-15.5842,3.0445,48.0731,
-16.1357,-18.2263,42.3875,41.3427,129.0038,21.3617,147.8143,25.6666,25.5419,-51.5772,100.787,-0.58423,-11.9555,33.0731,
-1.1357,-31.3512,44.9377,56.3427,114.0038,6.3617,132.8143,29.2616,10.5419,-66.5772,85.787,-15.5842,-5.225,18.0731,
2.613,-16.3512,59.9377,71.3427,99.0038,-8.6383,117.8143,44.2616,-4.4581,-51.5772,70.787,-30.5842,9.775,33.0731,
17.613,-1.3512,74.9377,73.6774,84.0038,-23.6383,102.8143,52.7762,-19.4581,-36.5772,55.787,-45.5842,15.1532,48.0731,
32.613,13.6488,89.9377,88.6774,69.0038,-38.6383,87.8143,67.7762,-34.4581,-21.5772,40.787,-60.5842,30.1532,60.6133,
17.613,-1.3512,74.9377,73.6774,84.0038,-53.6383,75.2446,52.7762,-19.4581,-36.5772,55.787,-56.434,15.1532,45.6133,
17.7662,-11.4954,61.6591,71.0643,69.0038,-68.6383,60.2446,39.7121,-34.4581,-51.5772,40.787,-71.434,11.4954,32.3975,
2.7662,-0.5224,60.0914,63.2268,54.0038,-83.6383,45.2446,45.4601,-49.4581,-36.5772,25.787,-86.434,18.2891,47.3975,
16.7209,14.4776,65.8388,77.3347,39.0038,-98.6383,30.2446,60.4601,-64.4581,-21.5772,10.787,-101.434,30.3064,62.3975,
29.7845,23.5136,75.767,92.3347,24.0038,-113.6383,15.2446,75.4601,-79.4581,-23.5136,-4.213,-116.434,45.3064,66.3617,
14.7845,8.5136,60.767,77.3347,39.0038,-128.6383,0.24456,60.4601,-94.4581,-8.5136,5.225,-128.5427,30.3064,77.3347,
29.7845,10.4506,75.767,92.3347,24.0038,-143.6383,-14.7554,53.2986,-109.4581,-23.5136,-9.775,-143.5427,33.4423,62.3347,
14.7845,-4.5494,60.767,77.3347,39.0038,-158.6383,-12.0183,38.2986,-106.0739,-38.5136,5.225,-146.8313,18.4423,47.3347,
-0.21552,-13.0641,45.767,62.3347,42.3247,-173.6383,-27.0183,42.3247,-95.6238,-28.7392,13.0631,-131.8313,12.0183,47.5497,
14.7845,1.9359,60.767,77.3347,27.3247,-188.6383,-42.0183,57.3247,-110.6238,-13.7392,-1.9369,-146.8313,27.0183,62.5497,
-0.21552,10.9725,49.6403,62.3347,12.3247,-203.6383,-57.0183,46.5049,-125.6238,1.2608,-16.9369,-161.8313,13.0631,73.6769,
14.7845,23.5139,64.6403,77.3347,-2.6753,-218.6383,-72.0183,61.5049,-140.6238,-13.7392,-31.9369,-176.8313,28.0631,58.6769,
-0.21552,8.5139,49.6403,62.3347,12.3247,-203.6383,-57.0183,46.5049,-125.6238,-28.7392,-16.9369,-161.8313,13.0631,43.6769,
-15.2155,-6.4861,34.6403,47.3347,27.3247,-188.6383,-42.0183,31.5049,-110.6238,-43.7392,-1.9369,-146.8313,-1.9369,28.6769,
-0.21552,8.5139,49.6403,62.3347,12.3247,-203.6383,-57.0183,46.5049,-125.6238,-28.7392,-16.9369,-161.8313,13.0631,43.6769,
-2.613,23.5139,54.8653,67.406,-2.6753,-218.6383,-72.0183,51.7309,-140.6238,-13.7392,-31.9369,-176.8313,24.559,58.6769,
12.387,27.1715,69.8653,82.406,-17.6753,-233.6383,-87.0183,66.7309,-155.6238,-27.1715,-46.9369,-191.8313,39.559,62.7039,
-2.613,12.1715,54.8653,67.406,-2.6753,-218.6383,-72.0183,51.7309,-140.6238,-31.8746,-31.9369,-176.8313,24.559,50.6851,
-17.613,-2.8285,39.8653,52.406,12.3247,-203.6383,-57.0183,36.7309,-125.6238,-46.8746,-16.9369,-161.8313,9.559,35.6851,
-2.613,6.7927,54.8653,67.406,-2.6753,-188.6383,-42.0183,43.37,-116.5249,-43.3705,-14.1089,-146.8313,24.559,41.2794,
-2.0901,21.7927,43.8924,52.406,-17.6753,-203.6383,-57.0183,40.7579,-131.5249,-28.3705,-29.1089,-161.8313,17.7662,56.2794,
12.9099,20.9014,56.4328,67.406,-32.6753,-218.6383,-72.0183,47.0275,-146.5249,-20.9014,-44.1089,-176.8313,26.1264,41.8025,
10.9735,10.9735,58.0008,69.4966,-17.6753,-233.6383,-87.0183,44.4153,-161.5249,-30.8293,-37.0996,-191.8313,30.8298,46.5049,
-4.0265,-4.0265,43.0008,54.4966,-2.6753,-218.6383,-72.0183,29.4153,-146.5249,-45.8293,-22.0996,-176.8313,15.8298,31.5049,
-2.6125,-15.1532,29.7845,42.3252,12.0178,-203.6383,-57.0183,25.6043,-131.5249,-60.8293,-7.0996,-161.8313,8.8834,16.5049,
-4.7026,-0.1532,44.4153,57.3252,-2.9822,-218.6383,-72.0183,40.6043,-146.5249,-45.8293,-22.0996,-176.8313,23.8834,31.5049,
10.2974,8.3605,59.4153,62.7044,-17.9822,-233.6383,-87.0183,43.8929,-161.5249,-30.8293,-37.0996,-191.8313,24.0365,46.5049,
19.3339,8.8829,61.1362,65.3164,-28.7392,-248.6383,-102.0183,58.8929,-176.5249,-15.8293,-52.0996,-206.8313,39.0365,61.5049,
4.3339,-6.1171,46.1362,50.3164,-13.7392,-233.6383,-87.0183,43.8929,-161.5249,-30.8293,-37.0996,-191.8313,24.0365,46.5049,
-2.6125,-21.1171,38.1449,50.6856,1.2608,-218.6383,-72.0183,32.9189,-146.5249,-45.8293,-22.0996,-176.8313,17.2438,31.5049,
-5.7479,-6.1171,43.37,43.37,-13.7392,-233.6383,-87.0183,41.2804,-161.5249,-30.8293,-37.0996,-191.8313,24.5594,46.5049,
7.838,8.8829,42.3247,46.5049,-28.7392,-248.6383,-102.0183,43.3705,-176.5249,-15.8293,-52.0996,-206.8313,18.2891,48.5955,
18.811,18.811,57.3247,61.5049,-43.7392,-263.6383,-117.0183,58.3705,-191.5249,-18.811,-67.0996,-221.8313,33.2891,35.5319,
3.811,3.811,42.3247,46.5049,-28.7392,-248.6383,-102.0183,43.3705,-176.5249,-19.8558,-52.0996,-206.8313,18.2891,26.1267,
0,-11.189,29.2626,44.9377,-13.7392,-233.6383,-87.0183,34.4876,-161.5249,-34.8558,-37.0996,-191.8313,11.4959,21.9469,
-15,1.5677,21.424,32.9199,1.2608,-218.6383,-72.0183,36.0553,-146.5249,-19.8558,-22.0996,-176.8313,9.9282,36.9469,
-0.5224,16.5677,35.009,47.9199,-13.7392,-233.6383,-87.0183,48.5955,-161.5249,-4.8558,-37.0996,-191.8313,24.9282,48.5955,
14.4776,13.0631,50.009,62.9199,-28.7392,-248.6383,-102.0183,63.5955,-176.5249,-13.0631,-52.0996,-206.8313,39.9282,47.5507,
-0.5224,-0.5224,35.009,47.9199,-13.7392,-233.6383,-87.0183,48.5955,-161.5249,-10.9725,-37.0996,-191.8313,24.9282,51.7309,
14.4776,14.4776,50.009,62.9199,-27.6941,-248.6383,-72.0183,50.6859,-176.5249,-23.5139,-52.0996,-179.2286,39.9282,54.8661,
-0.5224,-0.5224,35.009,47.9199,-12.6941,-233.6383,-57.0183,35.6859,-161.5249,-37.0996,-37.0996,-164.2286,24.9282,39.8661,
-15.5224,9.9282,35.0095,41.2804,-9.9282,-218.6383,-42.0183,43.37,-146.5249,-22.0996,-22.0996,-149.2286,21.424,50.6856,
-0.5224,20.9014,50.0095,56.2804,-24.9282,-233.6383,-57.0183,58.37,-161.5249,-20.9014,-37.0996,-164.2286,36.424,55.388,
-11.4959,25.0814,35.0095,41.2804,-39.9282,-248.6383,-72.0183,43.37,-176.5249,-5.9014,-52.0996,-179.2286,22.9917,70.388,
3.5041,21.9464,50.0095,56.2804,-54.9282,-263.6383,-87.0183,58.37,-191.5249,-18.811,-67.0996,-194.2286,37.9917,55.388,
-11.4959,6.9464,35.0095,41.2804,-39.9282,-248.6383,-72.0183,43.37,-176.5249,-30.8293,-52.0996,-179.2286,22.9917,40.388,
-26.4959,-8.0536,20.0095,26.2804,-24.9282,-233.6383,-57.0183,28.37,-161.5249,-29.784,-37.0996,-164.2286,7.9917,25.388,
-11.4959,6.9464,35.0095,41.2804,-39.9282,-238.7965,-70.5417,43.37,-165.6421,-16.1983,-52.0996,-149.2286,22.9917,19.3337,
-19.8563,19.8563,24.0365,32.397,-54.9282,-253.7965,-85.5417,33.4418,-180.6421,-1.1983,-67.0996,-164.2286,24.0365,34.3337,
-4.8563,15.1537,39.0365,47.397,-69.9282,-268.7965,-100.5417,44.4153,-195.6421,-7.838,-82.0996,-179.2286,38.1454,43.3705,
-5.225,5.225,30.3064,41.8023,-54.9282,-253.7965,-85.5417,47.0273,-180.6421,-20.9011,-67.0996,-164.2286,23.1454,34.4866,
-20.225,-9.775,15.3064,26.8023,-39.9282,-238.7965,-70.5417,32.0273,-165.6421,-35.9011,-52.0996,-149.2286,8.1454,19.4866,
-5.225,-3.1354,19.8563,34.4866,-54.9282,-223.7965,-55.5417,22.9917,-150.6421,-38.6673,-37.0996,-134.2286,16.7209,11.4959,
-16.1985,11.8646,24.559,30.8298,-69.9282,-238.7965,-70.5417,37.9917,-165.6421,-23.6673,-52.0996,-149.2286,25.6048,26.4959,
-1.1985,20.3792,39.559,45.8298,-84.9282,-253.7965,-85.5417,42.3252,-180.6421,-17.2438,-67.0996,-164.2286,27.6939,35.0095,
12.0178,22.4688,47.5502,53.821,-69.9282,-238.7965,-72.632,47.5502,-165.6421,-12.0178,-52.0996,-168.7777,38.1449,39.1897,
-2.9822,7.4688,32.5502,38.821,-54.9282,-223.7965,-57.632,32.5502,-150.6421,-27.0178,-37.0996,-153.7777,23.1449,24.1897,
-3.6578,-5.7484,18.2881,26.6486,-39.9282,-208.7965,-42.632,36.0548,-135.6421,-42.0178,-22.0996,-138.7777,14.1079,9.1897,
-9.4053,9.2516,24.0365,28.2168,-54.9282,-223.7965,-57.632,49.1179,-150.6421,-27.0178,-37.0996,-153.7777,24.0365,24.1897,
5.5947,24.2516,34.4866,43.2168,-69.9282,-238.7965,-72.632,51.2075,-165.6421,-13.5855,-52.0996,-168.7777,27.172,39.1897,
13.586,27.1715,41.8028,51.208,-84.9282,-226.7785,-87.632,62.7039,-180.6421,-13.586,-67.0996,-183.7777,37.6225,54.1897,
-1.414,12.1715,26.8028,36.208,-69.9282,-211.7785,-72.632,47.7039,-165.6421,-28.586,-52.0996,-168.7777,22.6225,39.1897,
-3.6573,-2.8285,16.198,30.8293,-54.9282,-196.7785,-57.632,32.9199,-150.6421,-35.0095,-37.0996,-153.7777,24.5594,24.1897,
-13.586,12.1715,14.6308,35.5319,-69.9282,-211.7785,-72.632,47.0278,-165.6421,-20.0095,-52.0996,-146.3089,30.3069,39.1897,
0,20.9021,14.6313,29.2626,-84.9282,-226.7785,-87.632,44.9387,-180.6421,-5.0095,-67.0996,-161.3089,21.9469,33.4428,
10.973,13.0636,24.5594,39.1897,-99.9282,-241.7785,-102.632,50.6856,-195.6421,-10.973,-82.0996,-176.3089,25.6043,18.4428,
-4.027,-1.5677,9.5594,24.1897,-84.9282,-226.7785,-87.632,35.6856,-180.6421,-10.973,-67.0996,-161.3089,10.6043,6.7927,
5.7479,13.4323,24.5594,35.0095,-69.9282,-211.7785,-72.632,38.1449,-165.6421,-25.973,-52.0996,-146.3089,5.7479,4.7031,
-9.2521,4.1807,10.4506,20.0095,-54.9282,-196.7785,-57.632,27.1715,-167.21,-19.8558,-37.0996,-131.3089,6.2703,14.6308,
-3.1354,19.1807,25.4506,35.0095,-69.9282,-211.7785,-72.632,40.7575,-182.21,-4.8558,-52.0996,-146.3089,21.2703,21.9469,
6.7932,25.6038,30.8298,49.6403,-84.9282,-226.7785,-87.632,44.4153,-197.21,-6.7932,-67.0996,-161.3089,29.784,18.2881,
-8.2068,25.6038,15.8298,34.6403,-87.2628,-211.7785,-72.632,29.4153,-182.21,8.2068,-52.0996,-146.3089,14.784,33.2881,
6.7932,29.2621,29.2621,33.4423,-102.2628,-220.5082,-87.632,44.4153,-197.21,-6.7932,-63.7487,-160.9397,28.2173,21.9464,
-8.2068,15.6751,14.2621,18.4423,-87.2628,-205.5082,-72.632,33.4418,-182.21,-18.8115,-48.7487,-145.9397,13.2173,15.6751,
-23.2068,11.4959,-0.73792,7.3156,-72.2628,-190.5082,-57.632,18.4418,-167.21,-19.8563,-33.7487,-130.9397,-1.7827,17.7657,
-8.2068,24.036,14.2621,22.3156,-87.2628,-205.5082,-72.632,33.4418,-182.21,-14.6308,-48.7487,-145.9397,13.2173,18.811,
-15.6761,39.036,15.6761,27.172,-82.5597,-220.5082,-87.632,48.4418,-197.21,0.36921,-62.7039,-160.9397,28.2173,33.811,
-0.6761,30.3069,26.1267,35.5319,-97.5597,-235.5082,-102.632,55.3882,-212.21,-5.2255,-77.7039,-175.9397,29.2621,26.1267,
-15.6761,15.3069,11.1267,20.5319,-82.5597,-220.5082,-87.632,40.3882,-197.21,-20.2255,-62.7039,-160.9397,14.2621,20.9016,
-30.6761,0.30689,-3.8733,5.5319,-67.5597,-205.5082,-72.632,25.3882,-182.21,-22.4688,-47.7039,-145.9397,-0.73792,5.9016,
-15.6761,15.3069,11.1267,20.5319,-76.2894,-190.5082,-87.632,40.3882,-167.21,-7.4688,-36.5772,-130.9397,14.2621,12.5407,
-15.6756,30.3069,15.6756,22.9912,-91.2894,-205.5082,-102.632,52.2528,-182.21,7.5312,-51.5772,-145.9397,28.2163,27.5407,
-0.6756,30.3074,27.172,34.4876,-106.2894,-220.5082,-117.632,56.4335,-197.21,-5.225,-66.5772,-160.9397,22.9917,24.0365,
-10.9735,15.3074,20.3787,26.6486,-91.2894,-205.5082,-102.632,47.5507,-182.21,-15.1537,-51.5772,-145.9397,10.9735,27.6944,
-25.9735,0.30738,5.3787,11.6486,-76.2894,-190.5082,-87.632,32.5507,-167.21,-24.559,-36.5772,-130.9397,-4.0265,12.6944,
-10.9735,11.4954,15.6756,25.0819,-86.7404,-175.5082,-72.632,25.0819,-152.21,-33.4423,-21.5772,-115.9397,10.9735,-2.3056,
-12.0178,26.4954,25.6043,22.4688,-101.7404,-190.5082,-87.632,35.0095,-167.21,-18.4423,-36.5772,-130.9397,13.0636,12.6944,
2.9822,41.4954,40.6043,35.0095,-116.7404,-205.5082,-102.632,42.3252,-182.21,-17.2438,-51.5772,-145.9397,19.3334,20.3792,
8.3605,39.7116,27.171,28.2168,-101.7404,-190.5082,-87.632,42.8471,-180.796,-8.3605,-53.2986,-160.9397,25.0814,16.7209,
-6.6395,24.7116,12.171,13.2168,-86.7404,-175.5082,-72.632,27.8471,-165.796,-18.2886,-38.2986,-145.9397,10.0814,1.7209,
-15.1537,9.7116,8.8829,15.1537,-75.767,-160.5082,-57.632,20.3787,-150.796,-33.2886,-23.2986,-130.9397,4.7026,-13.2791,
-18.2886,24.7116,18.2886,25.6033,-90.767,-175.5082,-72.632,35.3787,-165.796,-18.2886,-38.2986,-145.9397,19.7026,1.7209,
-3.2886,39.7116,19.8568,21.9464,-105.767,-190.5082,-87.632,36.5777,-180.796,-3.2886,-53.2986,-160.9397,19.8568,7.3161,
3.1349,41.8028,18.811,26.1267,-120.767,-205.5082,-102.632,50.1632,-195.796,-3.1349,-68.2986,-175.9397,27.1715,8.3609,
-11.8651,26.8028,3.811,11.1267,-105.767,-190.5082,-87.632,35.1632,-180.796,-7.3151,-53.2986,-160.9397,12.1715,-1.0453,
-6.7927,19.3334,12.0188,8.8834,-90.767,-175.5082,-72.632,20.1632,-165.796,-22.3151,-38.2986,-145.9397,6.7927,-16.0453,
-10.973,34.3334,19.3334,17.2438,-105.767,-190.5082,-84.1274,28.7397,-179.2278,-7.3151,-33.9647,-130.9397,10.973,-1.0453,
-1.0448,49.3334,15.6761,19.8563,-120.767,-205.5082,-99.1274,26.1262,-194.2278,7.6849,-48.9647,-145.9397,1.0448,7.3156,
12.5407,47.0283,27.172,29.2616,-135.767,-220.5082,-114.1274,35.5324,-209.2278,-7.3151,-63.9647,-160.9397,16.0448,10.4511,
-2.4593,37.6225,12.172,14.2616,-120.767,-205.5082,-99.1274,20.5324,-194.2278,-2.0901,-48.9647,-145.9397,1.0448,12.5412,
12.5407,42.8476,26.1267,25.0819,-105.767,-190.5082,-84.1274,33.4423,-179.2278,-11.4954,-33.9647,-130.9397,16.0448,7.3151,
-2.4593,33.4418,11.1267,10.0819,-105.5514,-175.5082,-69.1274,21.9459,-164.2278,2.0896,-18.9647,-115.9397,1.0448,20.9011,
-2.0901,41.8028,19.8568,5.2255,-120.5514,-190.5082,-84.1274,20.9016,-179.2278,5.2255,-33.9647,-109.7312,2.0901,17.7662,
12.9099,37.6225,34.4871,20.2255,-135.5514,-205.5082,-99.1274,33.4423,-194.2278,1.0453,-48.9647,-124.7312,17.0901,2.7662,
-2.0901,52.6225,19.4871,10.9735,-120.5514,-190.5082,-84.1274,29.784,-179.2278,16.0453,-33.9647,-109.7312,4.7026,5.7474,
12.9099,67.6225,34.4871,25.9735,-128.0203,-205.5082,-87.2628,44.784,-194.2278,1.0453,-48.9647,-124.7312,19.7026,3.6573,
-2.0901,52.6225,19.4871,10.9735,-113.0203,-190.5082,-72.2628,29.784,-179.2278,-7.3156,-33.9647,-109.7312,6.2698,11.4949,
-17.0901,37.6225,4.4871,2.6125,-98.0203,-175.5082,-57.2628,14.784,-164.2278,7.6844,-18.9647,-94.7312,-8.7302,8.8824,
-2.0901,52.6225,19.4871,17.6125,-113.0203,-190.5082,-72.2628,29.784,-179.2278,3.1354,-33.9647,-109.7312,6.2698,-3.1354,
-4.1802,65.8388,16.7209,4.1802,-128.0203,-205.5082,-87.2628,35.5324,-194.2278,18.1354,-48.9647,-124.7312,9.4063,11.8646,
10.8198,50.8388,30.8288,19.1802,-143.0203,-220.5082,-102.2628,26.6486,-209.2278,7.838,-63.9647,-139.7312,16.1985,-3.1354,
0,38.6678,15.8288,13.5865,-128.0203,-205.5082,-87.2628,18.8115,-194.2278,7.3156,-48.9647,-124.7312,1.1985,-14.6303,
-15,23.6678,0.82879,-1.4135,-113.0203,-190.5082,-72.2628,3.8115,-179.2278,-7.6844,-33.9647,-109.7312,-13.8015,-29.6303,
0,38.6678,15.8288,13.5865,-98.0203,-175.5082,-57.2628,18.8115,-164.2278,-4.1802,-47.0278,-94.7312,1.1985,-14.6303,
-5.2255,53.6678,20.9016,5.2255,-113.0203,-190.5082,-72.2628,28.2173,-179.2278,10.8198,-62.0278,-109.7312,7.3151,0.36971,
4.7026,42.3247,24.559,17.2433,-128.0203,-205.5082,-87.2628,24.559,-194.2278,6.7932,-77.0278,-124.7312,4.7026,-4.7026,
-4.1802,39.7126,12.5407,7.3156,-113.0203,-190.5082,-72.2628,24.0365,-179.2278,5.225,-62.0278,-109.7312,4.1802,8.3605,
-19.1802,24.7126,-2.4593,-7.6844,-98.0203,-175.5082,-57.2628,9.0365,-164.2278,-6.2708,-47.0278,-94.7312,-10.8198,-6.6395,
-4.1802,19.3334,4.7031,4.7031,-83.0203,-160.5082,-42.2628,9.9282,-149.2278,-3.6573,-32.0278,-79.7312,4.1802,-21.6395,
-12.0183,34.3334,12.0183,16.1985,-98.0203,-175.5082,-57.2628,24.9282,-164.2278,11.3427,-47.0278,-94.7312,19.1802,-6.6395,
2.9817,48.0731,13.5855,6.2708,-113.0203,-190.5082,-72.2628,29.2616,-179.2278,7.3156,-62.0278,-109.7312,5.225,-5.225,
9.9282,39.1897,14.1084,6.7927,-112.3442,-205.5082,-87.2628,31.8741,-164.2278,8.8834,-47.0278,-124.7312,20.225,-6.7927,
-5.0718,24.1897,-0.89161,-8.2073,-97.3442,-190.5082,-72.2628,16.8741,-149.2278,-5.2255,-32.0278,-109.7312,5.225,-21.7927,
4.7026,22.4683,4.7026,-4.7026,-82.3442,-175.5082,-57.2628,6.7922,-134.2278,-20.2255,-17.0278,-94.7312,-6.7932,-31.8746,
-3.6578,37.4683,15.1537,3.6578,-97.3442,-190.5082,-72.2628,21.7922,-149.2278,-5.2255,-32.0278,-109.7312,8.2068,-16.8746,
10.9735,50.6851,6.7932,4.7026,-112.3442,-205.5082,-87.2628,26.6496,-164.2278,9.7745,-47.0278,-124.7312,16.1985,-4.7026,
15.6761,41.8023,6.2708,4.1802,-127.3442,-220.5082,-102.2628,26.1262,-179.2278,7.3156,-62.0278,-139.7312,14.6313,-4.1802,
0.6761,26.8023,-8.7292,-10.8198,-112.3442,-205.5082,-87.2628,11.1262,-164.2278,-7.6844,-47.0278,-124.7312,-0.36871,-19.1802,
15.6761,33.9642,6.2708,3.6578,-97.3442,-190.5082,-72.2628,12.0183,-149.2278,-15.1537,-32.0278,-109.7312,-3.6578,-19.3339,
7.3156,48.9642,13.5855,-3.1354,-110.777,-190.2013,-87.2628,27.0183,-164.2278,-0.15369,-47.0278,-113.9119,3.1354,-4.3339,
10.9735,52.7757,14.1079,-2.613,-125.777,-205.2013,-102.2628,22.4693,-179.2278,7.838,-62.0278,-128.9119,2.613,8.8829,
18.811,51.208,15.6756,12.387,-140.777,-220.2013,-117.2628,27.1715,-194.2278,-2.0901,-77.0278,-143.9119,12.5412,2.0901,
3.811,53.2986,0.6756,-2.613,-125.777,-205.2013,-102.2628,12.1715,-179.2278,12.9099,-62.0278,-128.9119,-2.4588,14.6308,
18.811,50.1632,15.6756,12.387,-110.777,-190.2013,-87.2628,27.1715,-164.2278,5.2255,-47.0278,-113.9119,12.5412,-0.36921,
3.811,43.8924,0.6756,-2.0901,-95.777,-175.2013,-72.2628,28.2173,-149.2278,20.2255,-32.0278,-98.9119,3.1349,4.1807,
12.5412,57.4789,8.36,2.0901,-110.777,-187.0663,-87.2628,24.036,-164.2278,33.4423,-47.0278,-97.191,-2.0901,2.0901,
20.3787,44.4153,22.4683,17.0901,-125.777,-202.0663,-102.2628,22.4683,-179.2278,18.4423,-62.0278,-112.191,10.9735,-4.7026,
5.3787,59.4153,7.4683,3.6573,-110.777,-187.0663,-87.2628,28.7397,-164.2278,33.4423,-47.0278,-97.191,23.5136,10.2974,
12.5402,44.4153,2.0901,-1.0453,-125.777,-202.0663,-102.2628,26.1267,-179.2278,18.4423,-62.0278,-112.191,17.7662,1.0453,
-1.0453,43.8924,1.0453,-6.2703,-110.777,-187.0663,-87.2628,29.2621,-164.2278,33.4423,-47.0278,-97.191,6.2703,16.0453,
-13.0636,36.0543,-10.973,-18.2886,-95.777,-172.0663,-72.2628,14.2621,-149.2278,18.4423,-32.0278,-82.191,-8.7297,9.9282,
1.9364,42.3252,4.027,-3.2886,-110.777,-187.0663,-87.2628,29.2621,-164.2278,3.4423,-47.0278,-97.191,6.2703,4.7031,
-3.6578,57.3252,7.838,3.6578,-125.777,-202.0663,-102.2628,30.8288,-179.2278,18.4423,-62.0278,-112.191,16.1985,19.7031,
7.838,42.3252,-0.5224,1.5672,-140.777,-217.0663,-117.2628,18.2881,-194.2278,14.1079,-77.0278,-127.191,1.1985,8.8829,
-2.6125,39.1897,-12.0188,2.6125,-125.777,-202.0663,-102.2628,21.424,-179.2278,22.4688,-62.0278,-112.191,2.6125,20.3782,
-17.6125,24.1897,-27.0188,-12.3875,-110.777,-187.0663,-87.2628,6.424,-164.2278,7.4688,-47.0278,-97.191,-12.3875,5.3782,
-2.6125,39.1897,-12.0188,2.6125,-125.777,-172.0663,-72.2628,21.424,-169.823,1.5677,-52.7762,-92.4884,2.6125,-1.5677,
-2.0901,54.1897,2.9812,2.0901,-140.777,-187.0663,-87.2628,28.2163,-184.823,16.5677,-67.7762,-107.4884,15.6756,13.4323,
12.9099,39.7121,-1.0453,1.0453,-155.777,-202.0663,-102.2628,16.7204,-199.823,21.9464,-82.7762,-122.4884,2.0901,4.1797,
17.7662,49.1184,-2.0901,2.0901,-140.777,-187.0663,-87.2628,30.3069,-184.823,36.9464,-67.7762,-107.4884,9.4058,6.2703,
2.7662,34.1184,-17.0901,-12.9099,-125.777,-172.0663,-72.2628,15.3069,-169.823,21.9464,-52.7762,-92.4884,-5.5942,-8.7297,
8.8829,27.6944,-2.0901,0.5224,-110.777,-157.0663,-57.2628,3.6578,-154.823,6.9464,-37.7762,-77.4884,-0.5224,-6.7932,
1.5677,42.6944,5.7479,-1.5677,-125.777,-172.0663,-72.2628,18.6578,-169.823,21.9464,-52.7762,-92.4884,10.974,8.2068,
16.5677,49.6403,2.612,3.6578,-140.777,-187.0663,-87.2628,21.4235,-184.823,6.9464,-67.7762,-107.4884,-0.5224,8.8829,
17.7657,44.9377,2.0896,7.3147,-125.777,-202.0663,-102.2628,17.7657,-199.823,0,-82.7762,-122.4884,0,9.4053,
2.7657,29.9377,-12.9104,-7.6853,-110.777,-187.0663,-87.2628,2.7657,-184.823,-7.3151,-67.7762,-107.4884,-15,-5.5947,
12.0178,30.8293,2.0896,4.7031,-95.777,-172.0663,-72.2628,10.973,-169.823,-4.7031,-52.7762,-92.4884,-10.973,-6.7927,
1.0453,45.8293,13.586,7.3161,-110.777,-187.0663,-87.2628,20.9016,-184.823,10.2969,-67.7762,-107.4884,-1.0453,8.2073,
16.0453,55.9116,13.0636,8.8834,-125.777,-202.0663,-102.2628,18.2886,-199.823,16.199,-82.7762,-122.4884,-5.7479,5.7479,
10.9735,40.9116,5.7484,3.6578,-140.777,-217.0663,-117.2628,18.2891,-214.823,5.7484,-97.7762,-137.4884,-3.6578,3.6578,
-4.0265,25.9116,-9.2516,-11.3422,-125.777,-202.0663,-102.2628,3.2891,-199.823,5.225,-82.7762,-122.4884,-18.6578,-11.3422,
10.9735,38.1449,5.7484,3.6578,-110.777,-187.0663,-87.2628,5.7479,-184.823,9.9282,-67.7762,-107.4884,-3.6578,-9.9282,
2.0901,53.1449,9.4058,5.2255,-95.777,-181.8403,-102.2628,19.8568,-197.5164,24.9282,-56.433,-108.6859,-2.0901,5.0718,
11.4959,50.1627,11.4959,7.3156,-110.777,-196.8403,-117.2628,15.6761,-212.5164,39.9282,-71.433,-123.6859,-7.3156,20.0718,
20.3782,35.1627,20.3782,12.0178,-125.777,-211.8403,-132.2628,7.8376,-227.5164,24.9282,-86.433,-138.6859,-1.5677,5.0718,
5.3782,49.1184,5.3782,-2.9822,-110.777,-196.8403,-117.2628,-4.1797,-212.5164,33.4423,-71.433,-123.6859,-16.5677,13.586,
20.3782,52.2538,20.3782,12.0178,-95.777,-181.8403,-102.2628,10.8203,-197.5164,18.4423,-72.1091,-138.6859,-1.5677,2.0901,
7.3151,48.0726,7.3151,10.4506,-80.777,-166.8403,-87.2628,15.6756,-182.5164,21.9464,-57.1091,-123.6859,-7.3151,17.0901,
21.9464,63.0726,18.811,5.2255,-95.777,-151.8403,-88.8305,8.36,-194.382,28.2163,-72.1091,-109.7317,-5.2255,24.036,
36.0548,49.6403,25.6038,10.9725,-110.777,-166.8403,-103.8305,14.1079,-209.382,13.2163,-87.1091,-124.7317,4.7026,9.036,
21.0548,62.181,10.9735,5.7474,-95.777,-157.2819,-118.8305,12.0183,-194.382,28.2163,-72.1091,-121.7499,-4.7026,24.036,
26.6496,47.181,20.3787,20.7474,-110.777,-172.2819,-133.8305,3.6578,-209.382,23.5141,-87.1091,-136.7499,-3.6578,10.9735,
16.7219,48.0731,15.6761,10.4511,-95.777,-157.2819,-118.8305,4.1802,-194.382,34.4876,-72.1091,-121.7499,-4.1802,25.9735,
12.5407,40.7575,3.1354,-4.5489,-80.777,-142.2819,-103.8305,-3.1354,-179.382,19.4876,-57.1091,-106.7499,-19.1802,10.9735,
27.5407,46.5054,18.1354,10.4511,-95.777,-157.2819,-118.8305,11.8646,-194.382,10.973,-72.1091,-121.7499,-4.1802,-1.5677,
13.5865,61.5054,19.8563,13.5865,-110.777,-172.2819,-133.8305,8.3605,-209.382,25.973,-87.1091,-136.7499,-8.3605,13.4323,
28.5865,46.5054,26.6491,23.5146,-125.777,-187.2819,-148.8305,9.9282,-224.382,30.8293,-102.1091,-151.7499,-9.9282,9.9282,
14.1089,37.0996,15.1537,8.5146,-110.777,-172.2819,-133.8305,18.2891,-209.382,17.2433,-87.1091,-136.7499,-6.7932,10.9735,
-0.89112,22.0996,0.15369,-6.4854,-95.777,-157.2819,-118.8305,3.2891,-194.382,2.2433,-72.1091,-121.7499,-21.7932,-4.0265,
14.1089,37.0996,15.1537,8.5146,-80.777,-142.2819,-103.8305,18.2891,-182.8861,-3.1354,-87.1091,-124.3625,-6.7932,10.9735,
9.4058,52.0996,17.7662,8.3609,-95.777,-157.2819,-118.8305,10.4506,-197.8861,11.8646,-102.1091,-139.3625,-8.3609,25.9735,
24.4058,37.0996,25.0814,9.4053,-110.777,-172.2819,-133.8305,7.3156,-212.8861,14.6303,-117.1091,-154.3625,-7.3156,14.6303,
11.4954,33.4423,14.6308,6.2703,-95.777,-160.9397,-118.8305,9.4058,-197.8861,11.4954,-102.1091,-139.3625,-6.2703,17.7662,
-3.5046,18.4423,-0.36921,-8.7297,-80.777,-145.9397,-103.8305,-5.5942,-182.8861,-3.5046,-87.1091,-124.3625,-21.2703,2.7662,
11.4954,29.7845,14.6308,6.2703,-65.777,-130.9397,-88.8305,4.7031,-167.8861,11.4954,-72.1091,-109.3625,-6.2703,2.6125,
3.6578,44.7845,17.2443,8.8839,-80.777,-145.9397,-103.8305,15.1537,-182.8861,26.4954,-87.1091,-124.3625,-3.6578,17.6125,
18.6578,46.5054,20.3792,10.973,-95.777,-160.9397,-118.8305,8.8834,-197.8861,11.4954,-102.1091,-139.3625,-8.8834,19.3334,
5.7479,31.5054,12.0178,8.8834,-80.777,-175.9397,-133.8305,6.7927,-212.8861,8.8834,-117.1091,-154.3625,-5.7479,20.3792,
-9.2521,16.5054,-2.9822,-6.1166,-65.777,-160.9397,-118.8305,-8.2073,-197.8861,2.0901,-102.1091,-139.3625,-20.7479,5.3792,
5.7479,31.5054,12.0178,8.8834,-50.777,-145.9397,-103.8305,6.7927,-182.8861,1.5672,-87.1091,-124.3625,-5.7479,9.9277,
6.2703,45.983,18.811,9.4058,-65.777,-160.9397,-118.8305,10.4506,-197.8861,16.5672,-102.1091,-139.3625,-6.2703,24.9277,
10.4511,40.7575,12.5407,12.5407,-80.777,-175.9397,-133.8305,9.4053,-212.8861,25.0814,-117.1091,-154.3625,-9.4053,17.7657,
8.3605,29.2616,4.1802,9.4053,-95.777,-190.9397,-148.8305,10.4511,-227.8861,10.0814,-132.1091,-169.3625,-4.1802,16.7209,
-6.6395,14.2616,-10.8198,-5.5947,-80.777,-175.9397,-133.8305,-4.5489,-212.8861,2.6125,-117.1091,-154.3625,-19.1802,1.7209,
8.3605,29.2616,4.1802,9.4053,-65.777,-160.9397,-118.8305,10.4511,-197.8861,3.6578,-102.1091,-139.3625,-4.1802,-3.6578,
5.7479,40.2345,15.1532,10.973,-50.777,-163.5522,-113.389,16.199,-212.8861,18.6578,-109.2088,-154.3625,-5.7479,11.3422,
13.0631,38.1454,22.4693,10.9735,-65.777,-178.5522,-128.389,8.8829,-227.8861,31.8746,-124.2088,-169.3625,-8.8829,26.3422,
7.3156,23.1454,12.5407,1.0448,-80.777,-193.5522,-143.389,4.1802,-242.8861,16.8746,-139.2088,-184.3625,-1.0448,11.3422,
-7.6844,36.5767,4.1807,-1.0453,-65.777,-178.5522,-128.389,15.6756,-227.8861,31.8746,-124.2088,-169.3625,1.0453,25.0819,
7.3156,26.6491,19.1807,13.9547,-66.3617,-167.7329,-128.0203,24.5585,-212.8861,16.8746,-109.2088,-168.7777,6.7927,10.0819,
-0.5224,32.9194,9.9277,12.0183,-51.3617,-152.7329,-113.0203,15.1527,-197.8861,31.8746,-94.2088,-153.7777,0.5224,25.0819,
9.4058,37.6225,10.4506,10.4506,-52.2528,-142.1287,-98.0203,7.3151,-182.8861,46.8746,-101.3712,-141.0834,-7.3151,31.3517,
17.2438,25.6043,21.424,22.4688,-67.2528,-157.1287,-113.0203,12.0178,-197.8861,31.8746,-116.3712,-156.0834,4.7031,16.3517,
2.2438,40.6043,16.7214,12.5412,-74.1988,-172.1287,-128.0203,8.3609,-212.8861,45.983,-117.0468,-171.0834,-1.0453,31.3517,
17.2438,35.5319,31.3517,27.5412,-89.1988,-187.1287,-143.0203,13.586,-227.8861,30.983,-132.0468,-186.0834,-7.3151,16.3517,
2.2438,31.8746,16.3517,12.5412,-74.1988,-172.1287,-128.0203,3.6578,-212.8861,15.983,-117.0468,-171.0834,-18.2881,17.2443,
-9.4053,35.5324,1.3517,-2.0896,-59.1988,-157.1287,-113.0203,-3.1354,-197.8861,19.8563,-102.0468,-156.0834,-8.3605,22.9917,
5.5947,26.6496,16.3517,12.9104,-74.1988,-172.1287,-128.0203,11.8646,-212.8861,4.8563,-117.0468,-171.0834,1.5672,9.9287,
13.0636,41.6496,23.5136,27.9104,-80.9925,-187.1287,-143.0203,26.8646,-227.8861,19.8563,-132.0468,-186.0834,-13.0636,24.9287,
28.0636,40.757,30.3069,29.2621,-95.9925,-202.1287,-158.0203,28.2163,-242.8861,15.6756,-147.0468,-201.0834,-15.6756,19.8558,
13.0636,25.757,15.3069,14.2621,-80.9925,-187.1287,-143.0203,13.2163,-227.8861,4.7031,-132.0468,-186.0834,-29.7845,4.8558,
-1.9364,10.757,0.30689,-0.73792,-65.9925,-172.1287,-128.0203,-1.7837,-212.8861,-3.1349,-117.0468,-171.0834,-44.7845,-6.2703,
13.0636,25.757,15.3069,14.2621,-52.7757,-175.0481,-137.426,13.2163,-197.8861,9.9282,-102.0468,-156.0834,-29.7845,8.7297,
12.5407,40.757,30.3069,29.2621,-67.7757,-190.0481,-152.426,28.2163,-212.8861,24.9282,-117.0468,-171.0834,-14.7845,23.7297,
21.4235,46.5049,28.7392,25.6038,-82.7757,-205.0481,-167.426,20.3787,-227.8861,23.5141,-132.0468,-186.0834,-19.3339,19.3339,
6.4235,38.6673,19.8558,22.9912,-67.7757,-190.0481,-152.426,12.5412,-212.8861,17.7662,-117.0468,-201.0834,-9.4058,29.2621,
-8.5765,23.6673,4.8558,7.9912,-52.7757,-175.0481,-137.426,-2.4588,-197.8861,2.7662,-102.0468,-186.0834,-24.4058,14.2621,
6.4235,38.6673,19.8558,22.9912,-37.7757,-160.0481,-122.426,12.5412,-182.8861,5.7479,-87.0468,-171.0834,-9.4058,29.2621,
11.4959,50.1627,25.0814,30.3064,-52.7757,-175.0481,-137.426,27.5412,-197.8861,20.7479,-102.0468,-186.0834,-11.4959,44.2621,
17.2433,36.0548,21.4235,35.009,-67.7757,-190.0481,-152.426,23.5141,-212.8861,22.4683,-117.0468,-201.0834,-17.2433,29.2621,
17.7662,37.6225,26.1267,33.4423,-52.7757,-205.0481,-152.5792,33.4423,-227.8861,21.9464,-132.0468,-216.0834,-7.3151,14.2621,
2.7662,22.6225,11.1267,18.4423,-37.7757,-190.0481,-137.5792,18.4423,-212.8861,6.9464,-117.0468,-201.0834,-22.3151,-0.73792,
17.7662,37.6225,26.1267,33.4423,-22.7757,-175.0481,-122.5792,33.4423,-197.8861,-8.0536,-102.0468,-186.0834,-7.3151,2.0901,
2.7662,36.5772,13.5855,18.4423,-7.7757,-190.0481,-137.5792,22.9907,-212.8861,6.9464,-117.0468,-201.0834,-18.8115,17.0901,
17.2438,42.3252,24.5594,21.424,-22.7757,-205.0481,-152.5792,21.424,-227.8861,21.9464,-132.0468,-216.0834,-9.9282,9.9282,
13.0631,29.784,22.4693,31.8746,-37.7757,-220.0481,-167.5792,31.8746,-242.8861,16.1985,-147.0468,-231.0834,-5.7474,5.7474,
-1.9369,16.7209,7.4693,16.8746,-22.7757,-205.0481,-152.5792,16.8746,-227.8861,29.2616,-132.0468,-216.0834,-20.7474,17.7667,
13.0631,24.5594,22.4693,31.8746,-20.3787,-190.0481,-137.5792,21.424,-212.8861,14.2616,-117.0468,-201.0834,-5.7474,2.7667,
2.0901,37.6225,21.9464,25.0819,-35.3787,-188.1112,-122.5792,25.0819,-199.607,29.2616,-102.0468,-186.0834,-2.0901,17.7667,
4.7026,29.784,19.3339,20.3787,-50.3787,-203.1112,-137.5792,26.6496,-214.607,28.7392,-117.0468,-201.0834,-4.7026,22.4693,
13.0631,14.784,27.6944,30.8298,-65.3787,-218.1112,-152.5792,24.559,-229.607,13.7392,-132.0468,-216.0834,5.7474,7.4693,
-1.9369,29.784,17.7667,20.9011,-50.3787,-203.1112,-137.5792,21.9469,-214.607,28.7392,-117.0468,-201.0834,-9.2526,22.4693,
13.0631,39.7121,32.7667,35.9011,-65.3787,-209.0128,-152.5792,36.9469,-229.607,13.7392,-127.4979,-212.1477,-1.0453,7.4693,
5.225,28.2168,25.0814,30.3074,-50.3787,-194.0128,-137.5792,21.9469,-214.607,27.172,-112.4979,-197.1477,-5.225,14.6313,
15.1537,33.9652,27.6944,24.559,-37.0996,-179.0128,-122.5792,21.4245,-199.607,24.559,-97.4979,-182.1477,-12.0183,12.0183,
30.1537,32.9199,41.2804,37.1001,-52.0996,-194.0128,-137.5792,36.4245,-214.607,9.559,-112.4979,-197.1477,1.5677,5.7479,
15.1537,47.9199,28.7387,22.1001,-67.0996,-209.0128,-152.5792,24.5585,-229.607,24.559,-127.4979,-212.1477,-8.8834,20.7479,
30.1537,42.3247,43.7387,37.1001,-82.0996,-224.0128,-167.5792,27.6944,-244.607,16.1985,-142.4979,-227.1477,-4.7026,5.7479,
15.1537,27.3247,28.7387,22.1001,-67.0996,-209.0128,-152.5792,13.586,-229.607,18.811,-127.4979,-212.1477,-19.7026,-3.1349,
0.15369,12.3247,13.7387,7.1001,-52.0996,-194.0128,-137.5792,2.0901,-214.607,10.4506,-112.4979,-197.1477,-34.4871,-11.4954,
15.1537,27.3247,28.7387,22.1001,-67.0996,-209.0128,-152.5792,17.0901,-229.607,4.7026,-127.4979,-212.1477,-19.4871,-4.7026,
4.7031,42.3247,25.6043,27.6939,-82.0996,-224.0128,-167.5792,27.6939,-244.607,19.7026,-142.4979,-227.1477,-4.7031,10.2974,
19.7031,37.0996,39.1902,38.1444,-97.0996,-239.0128,-182.5792,30.8298,-259.607,5.7474,-157.4979,-242.1477,-2.613,2.613,
14.1079,30.8288,26.6486,25.6038,-82.0996,-224.0128,-167.5792,36.0548,-244.607,3.6578,-142.4979,-227.1477,-3.6578,3.6578,
-0.89211,15.8288,11.6486,10.6038,-67.0996,-209.0128,-152.5792,21.0548,-229.607,-2.0901,-127.4979,-212.1477,-18.6578,-11.3422,
14.1079,25.0809,26.6486,25.6038,-52.0996,-194.0128,-137.5792,20.9006,-214.607,12.5402,-112.4979,-197.1477,-3.6578,3.1349,
4.1802,40.0809,25.0814,16.7209,-67.0996,-209.0128,-152.5792,15.6761,-229.607,27.5402,-127.4979,-212.1477,-4.1802,18.1349,
19.1802,35.01,26.6496,28.7392,-82.0996,-224.0128,-167.5792,28.7392,-244.607,12.5402,-142.4979,-227.1477,3.6578,3.1349,
9.4053,20.01,22.9917,24.0365,-67.0996,-226.7785,-152.5792,26.1272,-233.0488,10.4511,-127.4979,-212.1477,-1.0448,1.0448,
-5.5947,5.01,7.9917,9.0365,-52.0996,-211.7785,-137.5792,11.1272,-218.0488,3.1349,-112.4979,-197.1477,-16.0448,-12.5402,
9.4053,20.01,22.9917,24.0365,-37.0996,-196.7785,-122.5792,26.1272,-203.0488,-3.1354,-97.4979,-182.1477,-1.0448,-1.0448,
1.5677,35.01,21.424,22.4688,-52.0996,-211.7785,-137.5792,31.8741,-218.0488,11.8646,-112.4979,-197.1477,-1.5677,13.9552,
9.9287,24.559,25.6038,27.6944,-67.0996,-226.7785,-152.5792,20.3787,-233.0488,13.0631,-127.4979,-212.1477,-7.838,7.838,
17.2438,29.7845,37.1001,39.1897,-82.0996,-239.8421,-167.5792,25.6043,-248.0488,10.973,-142.4979,-227.1477,-7.8375,7.8375,
2.2438,14.7845,22.1001,24.1897,-67.0996,-224.8421,-152.5792,10.6043,-233.0488,2.0901,-127.4979,-212.1477,-22.8375,-7.1625,
17.2438,20.3782,29.7845,35.0095,-52.0996,-209.8421,-137.5792,25.6043,-218.0488,7.8375,-112.4979,-197.1477,-7.8375,-5.7479,
4.1802,35.3782,27.172,25.0824,-67.0996,-224.8421,-152.5792,31.3522,-233.0488,22.8375,-127.4979,-212.1477,-4.1802,9.2521,
19.1802,44.4148,38.1449,28.7397,-82.0996,-239.8421,-167.5792,28.7397,-248.0488,13.0636,-142.4979,-227.1477,-13.0636,13.0636,
34.1802,41.8023,37.622,38.6678,-97.0996,-254.8421,-182.5792,36.5772,-263.0488,-1.9364,-157.4979,-242.1477,1.9364,10.4511,
19.1802,30.3069,22.622,23.6678,-82.0996,-239.8421,-167.5792,21.5772,-248.0488,2.0901,-142.4979,-227.1477,-13.0636,15.6756,
34.1802,42.3252,37.622,38.6678,-67.0996,-224.8421,-152.5792,36.5772,-233.0488,-3.6573,-127.4979,-212.1477,1.9364,3.6573,
19.1802,43.3695,22.622,23.6678,-52.0996,-209.8421,-137.5792,29.784,-219.9863,11.3427,-112.4979,-197.1477,-7.838,18.6573,
17.7662,37.6215,18.811,18.811,-67.0996,-224.8421,-152.5792,14.784,-234.9863,16.7204,-127.4979,-212.1477,-13.586,13.586,
24.0361,28.2163,33.811,33.811,-82.0996,-239.8421,-167.5792,29.784,-249.9863,7.3151,-142.4979,-227.1477,1.414,-1.414,
9.0361,43.2163,33.9652,21.4245,-67.0996,-224.8421,-152.5792,32.9194,-234.9863,22.3151,-127.4979,-212.1477,-0.5224,13.586,
24.0361,28.2163,37.0996,28.7392,-82.0996,-239.8421,-167.5792,35.009,-249.9863,19.3329,-125.9302,-209.5352,-0.5224,0.5224,
9.0361,19.8563,22.0996,13.7392,-67.0996,-224.8421,-152.5792,31.3512,-234.9863,34.3329,-110.9302,-194.5352,0,14.6303,
3.6578,22.4693,22.4693,9.9287,-52.0996,-209.8421,-137.5792,19.3339,-219.9863,43.3705,-95.9302,-179.5352,-3.6578,18.2891,
18.6578,13.5855,29.2616,18.8105,-67.0996,-224.8421,-152.5792,21.9459,-234.9863,28.3705,-110.9302,-194.5352,0,4.1802,
3.6578,28.5855,14.2616,3.8105,-82.0996,-239.8421,-142.6511,24.5585,-249.9863,39.1897,-125.9302,-209.5352,-0.5229,19.1802,
18.6578,25.6038,21.4235,18.8105,-97.0996,-254.8421,-157.6511,22.4693,-264.9863,24.1897,-140.9302,-224.5352,8.8829,5.7474,
3.6578,21.9464,8.36,6.2703,-82.0996,-239.8421,-142.6511,7.4693,-249.9863,9.1897,-125.9302,-209.5352,-6.1171,14.6308,
-11.3422,20.3782,1.5677,-8.7297,-67.0996,-224.8421,-127.6511,-7.5307,-234.9863,1.5677,-110.9302,-194.5352,-21.1171,-0.36921,
3.6578,35.3782,16.5677,6.2703,-82.0996,-210.58,-118.6145,7.4693,-249.9863,-3.6578,-120.7046,-200.1294,-6.1171,3.6578,
3.6573,50.3782,19.3334,14.1084,-97.0996,-225.58,-133.6145,22.4688,-264.9863,11.3422,-135.7046,-215.1294,-3.6573,18.6578,
18.6573,42.3252,25.6043,22.4688,-112.0996,-240.58,-148.6145,25.6043,-279.9863,3.6573,-150.7046,-230.1294,-3.6573,18.2886,
3.6578,32.9194,21.4235,20.3787,-97.0996,-225.58,-133.6145,25.6038,-264.9863,17.2433,-135.7046,-215.1294,-3.6578,17.2433,
-11.3422,17.9194,6.4235,5.3787,-82.0996,-210.58,-118.6145,10.6038,-249.9863,2.2433,-120.7046,-200.1294,-18.6578,2.2433,
3.6578,28.2168,15.6761,18.8115,-67.0996,-195.58,-103.6145,18.8115,-234.9863,-3.1354,-105.7046,-185.1294,-3.6578,4.1802,
0,43.2168,7.3156,12.5407,-82.0996,-210.58,-118.6145,24.0365,-249.9863,11.8646,-120.7046,-200.1294,0,19.1802,
8.3609,28.2168,9.4058,10.4506,-97.0996,-225.58,-133.6145,14.6308,-264.9863,16.7214,-135.7046,-215.1294,-8.3609,12.5412,
0.5229,18.2886,8.8834,7.8385,-82.0996,-210.58,-118.6145,18.2886,-249.9863,15.1532,-120.7046,-213.7154,-0.5229,14.1084,
-14.4771,3.2886,-6.1166,-7.1615,-67.0996,-195.58,-103.6145,3.2886,-234.9863,2.0901,-105.7046,-198.7154,-15.5229,-0.89161,
0.5229,18.2886,4.7031,7.8385,-52.0996,-180.58,-88.6145,18.2886,-219.9863,0.5229,-90.7046,-183.7154,-0.5229,2.6125,
0,33.2886,0,6.2708,-67.0996,-195.58,-103.6145,33.2886,-234.9863,15.5229,-105.7046,-198.7154,11.4959,17.6125,
15,30.8293,12.0188,10.974,-82.0996,-210.58,-118.6145,23.5146,-249.9863,0.5229,-120.7046,-213.7154,1.5677,20.3792,
18.8115,32.397,22.9917,25.0814,-79.4248,-209.0128,-133.6145,24.0365,-264.9863,-1.0448,-135.7046,-228.7154,1.0448,20.9011,
3.8115,17.397,7.9917,10.0814,-64.4248,-194.0128,-118.6145,9.0365,-249.9863,-2.6125,-120.7046,-213.7154,-13.9552,5.9011,
13.0636,15.1532,5.7479,7.8376,-49.4248,-179.0128,-103.6145,18.2886,-234.9863,-14.1084,-105.7046,-198.7154,-5.7479,-9.0989,
0,30.1532,8.3605,1.0448,-49.1179,-166.1652,-93.0108,22.9907,-249.9863,0.89161,-120.7046,-183.7154,0,5.9011,
15,44.9382,12.5412,5.2255,-64.1179,-181.1652,-108.0108,16.7214,-264.9863,2.0901,-135.7046,-198.7154,-2.0901,16.7214,
27.6949,41.2804,19.3344,19.3344,-79.1179,-196.1652,-123.0108,31.7214,-279.9863,-5.7479,-150.7046,-213.7154,7.8385,5.7479,
12.6949,26.6491,4.3344,4.3344,-64.1179,-181.1652,-108.0108,16.7214,-264.9863,9.2521,-135.7046,-198.7154,-7.1615,4.7031,
27.6949,41.6491,19.3344,19.3344,-49.1179,-166.1652,-93.0108,24.0365,-249.9863,-5.7479,-120.7046,-183.7154,-3.1354,3.1354,
12.6949,45.983,5.2255,4.3344,-34.1179,-151.1652,-78.0108,12.5412,-234.9863,-2.0901,-105.7046,-168.7154,-12.5402,18.1354,
25.6043,60.983,19.3334,19.3334,-49.1179,-136.1652,-93.0108,27.5412,-249.9863,2.6125,-120.7046,-183.7154,-2.6125,30.8293,
40.6043,71.5867,34.3334,34.3334,-64.1179,-129.0651,-108.0108,42.5412,-264.9863,-12.0178,-135.7046,-198.7154,12.3875,15.8293,
25.6043,56.5867,19.3334,19.3334,-49.1179,-114.0651,-93.0108,27.5412,-249.9863,2.9822,-120.7046,-183.7154,-2.6125,25.0819,
40.6043,71.5867,34.3334,34.3334,-35.5324,-113.9119,-86.7404,42.5412,-258.1307,-11.4954,-135.7046,-196.4721,11.4954,29.2621,
25.6043,56.5867,19.3334,19.3334,-20.5324,-98.9119,-71.7404,27.5412,-243.1307,-26.4954,-120.7046,-181.4721,-3.5046,14.2621,
19.3334,60.0909,4.3334,4.3334,-5.5324,-83.9119,-56.7404,12.5412,-228.1307,-25.6043,-105.7046,-166.4721,-18.5046,-0.73792,
34.3334,75.0909,19.3334,19.3334,-20.5324,-98.9119,-71.7404,27.5412,-243.1307,-13.0631,-120.7046,-181.4721,-3.5046,14.2621,
29.2616,87.7857,21.9469,12.5407,-19.8563,-113.9119,-86.7404,28.2168,-258.1307,1.9369,-135.7046,-196.4721,-12.5407,29.2621,
44.2616,86.7399,36.5772,27.5407,-34.8563,-128.9119,-101.7404,43.2168,-273.1307,-12.5407,-150.7046,-211.4721,2.4593,14.2621,
29.2616,71.7399,21.5772,12.5407,-19.8563,-113.9119,-86.7404,28.2168,-258.1307,-27.171,-135.7046,-196.4721,-12.5407,-0.73792,
14.2616,56.7399,6.5772,-2.4593,-4.8563,-98.9119,-71.7404,13.2168,-243.1307,-28.2168,-120.7046,-181.4721,-27.5407,-4.1802,
29.2616,71.7399,21.5772,12.5407,-17.2433,-83.9119,-56.7404,28.2168,-228.3457,-13.2168,-114.4338,-166.4721,-12.5407,10.8198,
25.6043,72.6315,6.5772,16.198,-32.2433,-98.9119,-71.7404,21.424,-243.3457,1.7832,-129.4338,-181.4721,-4.7031,25.8198,
40.6043,79.9472,21.5772,31.198,-47.2433,-113.9119,-86.7404,36.424,-258.3457,-10.973,-144.4338,-196.4721,10.2969,14.1084,
29.2616,64.9472,13.5855,16.198,-32.2433,-98.9119,-71.7404,21.424,-243.3457,-17.7657,-129.4338,-181.4721,-4.7031,9.4053,
14.2616,49.9472,-1.4145,1.198,-17.2433,-83.9119,-56.7404,6.424,-228.3457,-32.7657,-114.4338,-166.4721,-19.7031,-5.5947,
29.2616,58.5232,13.5855,16.198,-31.3522,-68.9119,-41.7404,21.424,-213.3457,-27.172,-99.4338,-151.4721,-4.7031,-2.0906,
14.2616,63.7487,2.0901,3.1349,-46.3522,-83.9119,-56.7404,28.2163,-228.3457,-12.172,-114.4338,-166.4721,-2.0901,12.9094,
26.6491,55.9106,10.973,14.1084,-61.3522,-98.9119,-71.7404,17.2438,-243.3457,2.828,-129.4338,-181.4721,-5.7479,20.3792,
16.7209,51.2075,5.225,18.8105,-66.8841,-113.9119,-86.7404,17.7657,-228.3457,7.3156,-114.4338,-166.4721,-5.225,18.8105,
1.7209,36.2075,-9.775,3.8105,-51.8841,-98.9119,-71.7404,2.7657,-213.3457,-7.6844,-99.4338,-151.4721,-20.225,3.8105,
10.4506,33.4423,5.225,2.0901,-66.8841,-83.9119,-56.7404,11.4964,-198.3457,-22.6844,-84.4338,-136.4721,-5.225,-7.3151,
1.5677,48.4423,10.973,6.7927,-81.8841,-98.9119,-71.7404,21.424,-213.3457,-7.6844,-99.4338,-151.4721,-1.5677,7.6849,
16.5677,59.0461,13.0636,16.198,-96.8841,-113.9119,-86.7404,18.2886,-228.3457,4.7031,-114.4338,-166.4721,-4.7031,22.6849,
24.037,52.2538,18.811,19.8568,-111.8841,-128.9119,-101.7404,27.1725,-243.3457,-2.0901,-125.4073,-174.5252,2.0901,21.9464,
9.037,37.2538,3.811,4.8568,-96.8841,-113.9119,-86.7404,12.1725,-228.3457,-17.0901,-110.4073,-159.5252,-12.9099,6.9464,
7.838,22.2538,1.5672,0.5224,-81.8841,-98.9119,-71.7404,4.7026,-213.3457,-32.0901,-95.4073,-144.5252,-0.5224,-6.7932,
-1.0448,37.2538,1.0448,4.1802,-96.8841,-113.9119,-80.4701,19.7026,-210.0576,-17.0901,-80.4073,-129.5252,12.5407,8.2068,
5.225,38.6678,1.0448,1.0448,-111.8841,-128.9119,-95.4701,18.8115,-225.0576,-2.0901,-95.4073,-144.5252,-1.0448,23.2068,
6.7937,23.6678,1.5677,2.6125,-126.8841,-143.9119,-110.4701,22.4688,-240.0576,-1.5677,-110.4073,-159.5252,10.974,17.2438,
-8.2063,16.1985,-13.4323,-12.3875,-111.8841,-128.9119,-95.4701,7.4688,-225.0576,13.4323,-95.4073,-144.5252,-4.026,29.784,
6.7937,31.1985,0,2.6125,-96.8841,-121.227,-80.4701,22.4688,-210.0576,0,-80.4073,-129.5252,10.974,14.784,
-2.0901,46.1985,-9.4058,2.0901,-81.8841,-106.227,-65.4701,22.9912,-195.0576,15,-65.4073,-114.5252,17.7662,29.784,
-1.0453,52.2528,1.0453,2.0901,-96.8841,-121.227,-80.4701,26.1267,-187.0663,30,-50.4073,-99.5252,21.9464,40.757,
6.2703,37.2528,1.0453,1.0453,-111.8841,-136.227,-95.4701,33.4423,-202.0663,15,-65.4073,-114.5252,22.9912,25.757,
4.1802,52.2528,0,0,-96.8841,-141.0834,-80.4701,34.4876,-187.0663,30,-50.4073,-99.5252,22.9917,40.757,
13.586,37.2528,-2.0901,2.0901,-111.8841,-156.0834,-95.4701,19.4876,-202.0663,15,-65.4073,-114.5252,12.5412,25.757,
-1.414,33.4418,-9.4063,-7.3156,-96.8841,-141.0834,-80.4701,24.0365,-187.0663,30,-50.4073,-99.5252,15.6761,40.757,
-16.414,23.5141,-21.4235,-22.3156,-81.8841,-126.0834,-65.4701,9.9287,-172.0663,38.1444,-35.4073,-84.5252,0.6761,32.9194,
-1.414,15.6761,-6.4235,-7.3156,-96.8841,-141.0834,-80.4701,19.8563,-187.0663,23.1444,-50.4073,-99.5252,15.6761,17.9194,
-4.1802,30.6761,5.225,4.1802,-111.8841,-156.0834,-95.4701,34.8563,-202.0663,38.1444,-38.6678,-114.5252,30.6761,32.9194,
9.9282,39.1897,-1.5677,10.973,-126.8841,-171.0834,-110.4701,27.6939,-217.0663,23.1444,-53.6678,-129.5252,24.5594,38.1449,
-4.1807,28.2163,-15.6766,1.0453,-111.8841,-156.0834,-95.4701,22.9912,-202.0663,24.036,-38.6678,-114.5252,17.7662,32.3965,
-19.1807,13.2163,-30.6766,-13.9547,-96.8841,-141.0834,-80.4701,7.9912,-187.0663,9.036,-23.6678,-99.5252,2.7662,17.3965,
-4.1807,27.6939,-15.6766,0.5229,-111.8841,-156.0834,-95.4701,22.9912,-172.0663,-0.5229,-38.6678,-85.1727,17.7662,9.9282,
-1.5672,42.6939,-0.67659,3.6578,-126.8841,-171.0834,-110.4701,35.01,-187.0663,14.4771,-53.6678,-100.1727,32.7662,24.9282,
13.4328,38.6668,-3.1354,3.1354,-141.8841,-186.0834,-125.4701,20.9011,-202.0663,26.1262,-68.6678,-115.1727,26.1262,20.9011,
6.7927,29.7845,-5.7479,-8.8834,-126.8841,-171.0834,-110.4701,20.3782,-187.0663,21.424,-53.6678,-100.1727,17.2438,13.0636,
-8.2073,14.7845,-20.7479,-23.8834,-111.8841,-156.0834,-95.4701,5.3782,-172.0663,6.424,-38.6678,-85.1727,2.2438,-1.9364,
6.7927,18.2891,-5.7479,-8.8834,-96.8841,-145.786,-80.4701,9.9287,-157.0663,2.613,-23.6678,-70.1727,17.2438,-8.8829,
5.225,33.2891,0,0,-111.8841,-160.786,-95.4701,24.9287,-172.0663,17.613,-38.6678,-85.1727,32.2438,6.1171,
20.225,44.9382,2.0901,-2.0901,-126.8841,-175.786,-110.4701,18.812,-187.0663,32.613,-53.6678,-100.1727,32.3975,21.1171,
19.8563,31.3522,1.0448,-1.0448,-141.8841,-190.786,-101.3712,24.0365,-172.0663,28.2168,-38.6678,-115.1727,41.8023,25.0814,
4.8563,16.3522,-13.9552,-16.0448,-126.8841,-175.786,-86.3712,9.0365,-157.0663,13.2168,-23.6678,-100.1727,26.8023,10.0814,
2.0901,6.2703,-22.9922,-24.037,-141.8841,-160.786,-71.3712,3.1349,-142.0663,-1.7832,-8.6678,-85.1727,11.8023,-4.9186,
13.0631,21.2703,-7.9922,-9.037,-156.8841,-175.786,-86.3712,18.1349,-157.0663,13.2168,-23.6678,-100.1727,26.8023,10.0814,
27.172,36.2703,0,0,-171.8841,-190.786,-101.3712,25.0814,-172.0663,28.2168,-38.6678,-115.1727,28.2168,25.0814,
22.9917,30.3074,-3.1354,3.1354,-186.8841,-205.786,-86.3712,31.3522,-187.0663,39.7126,-53.6678,-130.1727,43.2168,35.5324,
7.9917,15.3074,-18.1354,-11.8646,-171.8841,-190.786,-71.3712,16.3522,-172.0663,40.235,-38.6678,-115.1727,28.2168,20.5324,
15.6756,11.4954,-12.5412,-19.8568,-156.8841,-175.786,-56.3712,6.2703,-157.0663,25.235,-23.6678,-100.1727,15.6756,5.5324,
15.1532,26.4954,0.5229,-4.8568,-141.8841,-190.786,-71.3712,21.2703,-149.9662,40.235,-8.6678,-85.1727,30.6756,20.5324,
16.7209,41.4954,0,0,-156.8841,-205.786,-86.3712,25.0814,-164.9662,55.235,-23.6678,-100.1727,34.4866,35.5324,
10.9735,26.4954,-0.5224,0.5224,-171.8841,-220.786,-101.3712,20.3787,-179.9662,40.235,-38.6678,-115.1727,23.5141,20.5324,
-4.0265,30.3064,-15.5224,-14.4776,-156.8841,-205.786,-86.3712,5.3787,-164.9662,50.1627,-23.6678,-100.1727,8.5141,28.2168,
10.9735,32.397,-0.5224,-1.0448,-167.21,-190.786,-71.3712,13.5855,-149.9662,35.1627,-9.4053,-85.1727,21.9459,13.2168,
2.0901,43.8924,-3.1349,-9.4058,-152.21,-175.786,-56.3712,15.6756,-134.9662,50.1627,5.5947,-70.1727,19.8558,28.2168,
17.0901,52.7757,3.6578,-3.6578,-167.21,-190.786,-47.5507,14.1079,-149.9662,43.3695,-9.4053,-55.1727,21.4235,36.0548,
26.6486,37.7757,2.613,0.5224,-182.21,-205.786,-62.5507,7.838,-164.9662,28.3695,-24.4053,-70.1727,17.2433,21.0548,
11.6486,52.7757,2.613,-2.613,-167.21,-190.786,-58.0008,13.0631,-170.8679,43.3695,-24.559,-55.1727,13.0631,36.0548,
20.3792,42.3252,1.5677,2.6125,-182.21,-205.786,-73.0008,6.7927,-185.8679,28.3695,-39.559,-70.1727,12.0188,21.0548,
5.3792,29.2621,-13.4323,-12.3875,-167.21,-190.786,-58.0008,-6.2703,-170.8679,16.7214,-24.559,-55.1727,3.1359,8.3609,
5.7474,38.1444,-19.3339,-27.3875,-152.21,-175.786,-43.0008,-2.613,-155.8679,23.5141,-9.559,-40.1727,-4.7026,2.613,
20.7474,43.8929,-4.3339,-12.3875,-167.21,-190.786,-58.0008,12.387,-170.8679,19.8563,-24.559,-55.1727,10.2974,-7.3156,
18.8115,58.8929,3.1354,-3.1354,-182.21,-205.786,-73.0008,24.0365,-185.8679,34.8563,-39.559,-70.1727,25.2974,7.6844,
33.8115,43.8929,1.0448,-1.0448,-197.21,-220.786,-88.0008,25.0814,-200.8679,22.9917,-54.559,-85.1727,31.3522,12.5407,
18.8115,28.8929,-13.9552,-16.0448,-182.21,-205.786,-73.0008,18.8115,-185.8679,28.2168,-39.559,-70.1727,16.3522,10.4511,
3.8115,13.8929,-28.9552,-31.0448,-167.21,-190.786,-58.0008,3.8115,-170.8679,27.172,-24.559,-55.1727,1.3522,-4.5489,
18.8115,28.8929,-13.9552,-16.0448,-152.21,-175.786,-43.0008,18.8115,-155.8679,25.0819,-10.4506,-54.3434,16.3522,10.4511,
22.9917,43.8929,-3.1354,-1.0448,-167.21,-190.786,-58.0008,33.8115,-170.8679,40.0819,-25.4506,-69.3434,31.3522,25.4511,
37.9917,41.8028,-1.0453,1.0453,-182.21,-205.786,-73.0008,27.1715,-185.8679,40.7579,-40.4506,-84.3434,22.9912,21.9464,
30.8293,37.1001,-4.7031,-5.7479,-167.21,-190.786,-58.0008,18.2886,-170.8679,39.1897,-25.4506,-69.3434,28.7397,16.199,
15.8293,22.1001,-19.7031,-20.7479,-152.21,-175.786,-43.0008,3.2886,-155.8679,24.1897,-10.4506,-54.3434,13.7397,1.199,
24.0365,16.7209,-14.6313,-19.8563,-137.21,-160.786,-28.0008,7.3156,-140.8679,10.4501,4.5494,-39.3434,14.6303,-13.801,
32.3965,31.7209,0.36871,-6.2703,-152.21,-175.786,-43.0008,22.3156,-155.8679,25.4501,-10.4506,-54.3434,29.6303,1.199,
41.2808,46.7209,3.6578,-3.6578,-167.21,-190.786,-58.0008,21.4245,-170.8679,26.6496,-25.4506,-69.3434,25.6048,9.9287,
35.01,39.1902,0.5224,-0.5224,-152.21,-205.786,-52.7752,21.4245,-175.0476,23.5141,-38.1444,-84.3434,23.5141,4.7036,
20.01,24.1902,-14.4776,-15.5224,-137.21,-190.786,-37.7752,6.4245,-160.0476,8.5141,-23.1444,-69.3434,8.5141,-10.2964,
35.01,29.784,0.5224,-10.9735,-122.21,-175.786,-22.7752,-1.5672,-145.0476,-5.7474,-8.1444,-54.3434,2.613,-23.5141,
31.8741,44.784,6.7927,-6.7927,-137.21,-190.786,-37.7752,13.4328,-160.0476,9.2526,-23.1444,-69.3434,17.613,-8.5141,
30.3069,54.3434,2.0901,-2.0901,-152.21,-205.786,-52.7752,17.7662,-175.0476,24.2526,-38.1444,-84.3434,20.9016,6.4859,
32.9194,44.4153,4.7026,3.6578,-167.21,-220.786,-67.7752,24.559,-190.0476,27.6934,-53.1444,-99.3434,21.4235,-3.6578,
17.9194,29.4153,-10.2974,-11.3422,-152.21,-205.786,-52.7752,9.559,-175.0476,12.6934,-38.1444,-84.3434,6.4235,-18.6578,
32.9194,39.1897,2.6125,-14.1084,-137.21,-190.786,-37.7752,-5.441,-160.0476,-2.3066,-23.1444,-69.3434,13.0636,-12.0178,
33.9647,54.1897,3.6573,-3.6573,-122.21,-190.7242,-46.5054,9.559,-161.4621,12.6934,-8.1444,-54.3434,24.5594,2.9822,
41.8018,56.433,6.2703,-6.2703,-137.21,-205.7242,-61.5054,10.4506,-176.4621,25.0809,-23.1444,-69.3434,11.4954,12.5402,
52.7762,47.5502,18.2886,1.5677,-152.21,-220.7242,-76.5054,16.199,-191.4621,10.973,-38.1444,-84.3434,24.5594,-1.5677,
37.7762,39.7121,3.2886,-13.4323,-137.21,-205.7242,-61.5054,1.199,-176.4621,25.973,-23.1444,-69.3434,9.5594,13.4323,
43.8929,40.7575,16.7209,1.5677,-122.21,-196.4721,-70.0195,16.199,-161.4621,28.2168,-21.9459,-54.3434,24.5594,-1.5677,
28.8929,34.4871,1.7209,-13.4323,-107.21,-181.4721,-55.0195,4.1807,-146.4621,37.6225,-6.9459,-39.3434,10.4506,3.1349,
42.3252,49.4871,6.7927,-6.7927,-110.2541,-166.4721,-40.0195,19.1807,-132.2,52.6225,-17.2438,-26.6491,19.3334,12.0188,
55.3877,36.5772,20.9011,5.225,-125.2541,-181.4721,-55.0195,22.9917,-147.2,37.6225,-32.2438,-41.6491,33.4418,-2.9812,
40.3877,51.5772,6.7927,-9.775,-140.2541,-196.4721,-56.9564,10.973,-162.2,52.6225,-17.2438,-56.6491,27.6939,12.0188,
55.3877,52.7752,16.198,5.225,-155.2541,-211.4721,-71.9564,16.198,-177.2,38.1449,-32.2438,-71.6491,23.5136,-2.9812,
40.3877,37.7752,1.198,-9.775,-140.2541,-196.4721,-56.9564,1.198,-162.2,29.7845,-17.2438,-56.6491,8.5136,-10.973,
25.3877,36.5767,-13.802,-24.775,-125.2541,-181.4721,-41.9564,-13.586,-147.2,21.9464,-2.2438,-41.6491,3.1349,-7.3161,
40.3877,51.5767,1.198,-9.775,-134.813,-196.4721,-56.9564,1.414,-162.2,15.6761,-17.2438,-56.6491,18.1349,-6.2708,
44.4148,66.5767,5.7479,-5.7479,-149.813,-211.4721,-71.9564,16.414,-177.2,30.6761,-32.2438,-71.6491,10.973,8.7292,
56.956,60.0914,10.9735,-3.6578,-164.813,-226.4721,-86.9564,19.3339,-192.2,19.3339,-47.2438,-86.6491,15.1537,3.6578,
41.956,50.1632,-4.0265,-18.6578,-149.813,-211.4721,-71.9564,4.3339,-177.2,13.586,-32.2438,-71.6491,13.586,-2.0901,
26.956,35.1632,-19.0265,-33.6578,-134.813,-196.4721,-56.9564,-10.6661,-162.2,-1.414,-17.2438,-56.6491,-1.414,-17.0901,
41.956,35.5319,-4.0265,-18.6578,-119.813,-181.4721,-41.9564,4.3339,-147.2,13.586,-2.2438,-41.6491,13.586,-13.586,
43.37,50.5319,7.8376,-7.8376,-134.813,-196.4721,-56.9564,19.3339,-162.2,28.586,-17.2438,-56.6491,28.586,1.414,
49.6408,56.9555,8.8834,-6.7927,-149.813,-211.4721,-71.9564,25.6043,-177.2,43.586,-32.2438,-71.6491,23.5136,6.7927,
34.6408,41.9555,-5.2255,-9.4058,-134.813,-196.4721,-56.9564,15.6756,-162.2,45.983,-17.2438,-56.6491,17.7662,5.2255,
19.6408,26.9555,-20.2255,-24.4058,-119.813,-181.4721,-41.9564,0.6756,-147.2,30.983,-2.2438,-41.6491,2.7662,-9.7745,
28.7392,20.3787,-17.2433,-26.6486,-104.813,-166.4721,-26.9564,-4.7026,-132.2,17.2433,12.7562,-26.6491,4.7026,-20.3787,
40.7579,35.3787,-2.2433,-11.6486,-119.813,-181.4721,-41.9564,10.2974,-147.2,32.2433,-2.2438,-41.6491,19.7026,-5.3787,
54.8653,50.3787,6.7932,-6.7932,-134.813,-196.4721,-56.9564,18.2881,-162.2,40.235,-17.2438,-56.6491,26.6486,9.6213,
44.4158,49.6408,8.8834,-8.8834,-142.6511,-209.5352,-68.4513,24.5594,-177.2,41.2804,-32.2438,-71.6491,25.6043,13.0636,
29.4158,34.6408,-6.1166,-23.8834,-127.6511,-194.5352,-53.4513,9.5594,-162.2,26.2804,-17.2438,-56.6491,10.6043,-1.9364,
35.5324,27.172,-3.1354,-27.172,-112.6511,-179.5352,-38.4513,-5.4406,-147.2,14.6313,-2.2438,-41.6491,3.1354,-16.9364,
39.1897,42.172,9.9282,-12.172,-127.6511,-194.5352,-53.4513,9.5594,-162.2,29.6313,-17.2438,-56.6491,18.1354,-1.9364,
46.5049,57.172,7.838,-7.838,-142.6511,-209.5352,-68.4513,16.1985,-177.2,44.6313,-32.2438,-71.6491,13.0631,13.0636,
47.0278,44.9382,7.3151,-7.3151,-157.6511,-224.5352,-83.4513,20.9016,-192.2,55.3882,-47.2438,-86.6491,21.9464,9.4058,
32.0278,29.9382,-7.6849,-22.3151,-142.6511,-209.5352,-68.4513,5.9016,-177.2,40.3882,-32.2438,-71.6491,6.9464,-5.5942,
44.9372,44.9382,3.1349,-14.6308,-127.6511,-194.5352,-53.4513,-3.1349,-162.2,25.3882,-17.2438,-56.6491,15.6756,-20.5942,
35.5319,59.9382,6.2703,-18.811,-112.6511,-209.5352,-58.5237,11.8651,-166.1647,40.3882,-6.2703,-52.2528,9.4058,-5.5942,
50.5319,72.1096,11.4959,-11.4959,-127.6511,-224.5352,-73.5237,21.9459,-181.1647,54.3429,-21.2703,-67.2528,21.9459,9.4058,
65.3164,60.0914,16.1985,0.5224,-142.6511,-239.5352,-88.5237,17.2433,-196.1647,44.4153,-36.2703,-82.2528,33.9642,-0.5224,
50.3164,49.6408,1.1985,-14.4776,-127.6511,-224.5352,-73.5237,2.2433,-181.1647,59.4153,-21.2703,-67.2528,18.9642,5.7479,
55.9111,54.8663,10.9735,0.5224,-142.6506,-218.9404,-88.5237,17.2433,-169.8225,47.5507,-6.2703,-52.2528,18.2891,-0.5224,
40.9111,48.0731,-4.0265,-14.4776,-127.6506,-203.9404,-73.5237,2.2433,-154.8225,55.3877,8.7297,-37.2528,6.2698,1.0448,
45.4601,63.0731,0.5224,-14.1079,-112.6506,-188.9404,-58.5237,6.7932,-139.8225,63.2268,-5.7474,-22.2528,15.1537,-0.5224,
60.4601,57.4789,12.5412,0.89211,-127.6506,-203.9404,-73.5237,21.7932,-154.8225,48.2268,-20.7474,-37.2528,29.2621,-7.3151,
46.5049,72.4789,8.8829,-8.8829,-135.3354,-198.0393,-87.2628,23.5141,-169.8225,63.2268,-22.4693,-51.7309,32.9194,7.6849,
61.5049,58.5237,10.4506,-9.4058,-150.3354,-213.0393,-102.2628,9.4058,-184.8225,48.2268,-37.4693,-66.7309,30.3069,11.4954,
46.5049,43.5237,-4.5494,-24.4058,-135.3354,-198.0393,-87.2628,-5.5942,-169.8225,33.2268,-22.4693,-51.7309,15.3069,-0.5229,
31.5049,33.9647,-19.5494,-39.4058,-120.3354,-183.0393,-72.2628,-19.3334,-154.8225,44.4158,-7.4693,-36.7309,0.30688,-5.7479,
46.5049,48.9647,-4.5494,-24.4058,-135.3354,-198.0393,-87.2628,-4.3334,-169.8225,47.0283,-22.4693,-39.7121,15.3069,0,
45.9825,63.9647,-1.0448,-9.4058,-120.3354,-213.0393,-102.2628,10.6666,-184.8225,62.0283,-37.4693,-54.7121,30.3069,15,
60.9825,67.4065,4.7031,-4.7031,-135.3354,-228.0393,-117.2628,25.6666,-199.8225,47.5502,-52.4693,-69.7121,38.1449,20.3792,
45.9825,52.4065,-10.2969,-19.7031,-120.3354,-213.0393,-102.2628,10.6666,-184.8225,32.5502,-37.4693,-54.7121,23.1449,5.3792,
30.9825,37.4065,-25.2969,-34.7031,-105.3354,-198.0393,-87.2628,-4.3334,-169.8225,17.5502,-22.4693,-39.7121,8.1449,-9.6208,
45.9825,32.397,-10.2969,-19.7031,-90.3354,-183.0393,-72.2628,6.2708,-154.8225,26.1262,-7.4693,-24.7121,19.8563,-19.8563,
55.9111,47.397,4.7031,-7.838,-105.3354,-198.0393,-87.2628,21.2708,-169.8225,41.1262,-22.4693,-39.7121,34.8563,-4.8563,
59.5685,50.1632,3.1349,-3.1349,-120.3354,-213.0393,-102.2628,12.5412,-184.8225,43.8924,-37.4693,-54.7121,36.5767,4.1807,
44.5685,43.3705,-7.838,-1.5672,-105.3354,-198.0393,-87.2628,17.2433,-169.8225,46.5049,-22.4693,-46.5054,33.9642,9.9277,
29.5685,28.3705,-22.838,-16.5672,-90.3354,-183.0393,-72.2628,2.2433,-154.8225,31.5049,-7.4693,-31.5054,18.9642,-5.0723,
42.8481,34.4876,-16.7209,-24.0365,-105.3354,-168.0393,-57.2628,-4.1802,-139.8225,35.5324,7.5307,-16.5054,8.3605,-20.0723,
46.5054,49.4876,-1.7209,-9.0365,-120.3354,-183.0393,-72.2628,10.8198,-154.8225,50.5324,-7.4693,-31.5054,23.3605,-5.0723,
49.6398,54.8658,2.6125,-2.6125,-135.3354,-198.0393,-87.2628,14.1084,-169.8225,64.2711,-22.4693,-46.5054,19.3334,3.6573,
50.1632,63.7487,3.1349,-1.0453,-127.4979,-209.0128,-98.2363,22.9912,-184.8225,52.2528,-37.4693,-61.5054,27.1715,1.0453,
35.1632,48.7487,-11.8651,-16.0453,-112.4979,-194.0128,-83.2363,7.9912,-169.8225,37.2528,-22.4693,-46.5054,12.1715,-13.9547,
49.1179,33.7487,-19.8563,-22.9917,-97.4979,-179.0128,-68.2363,-7.0088,-154.8225,22.2528,-7.4693,-31.5054,13.5855,-21.9469,
54.8658,48.7487,-4.8563,-7.9917,-95.6233,-194.0128,-83.2363,7.9912,-169.8225,37.2528,-22.4693,-46.5054,28.5855,-6.9469,
58.5232,63.7487,9.4053,-5.225,-110.6233,-209.0128,-98.2363,13.5855,-184.8225,52.2528,-37.4693,-61.5054,15.6761,5.225,
60.0914,61.1362,10.9735,-3.6578,-125.6233,-224.0128,-113.2363,9.9287,-199.8225,47.5507,-52.4693,-76.5054,19.3339,3.6578,
45.0914,46.1362,-4.0265,-18.6578,-110.6233,-209.0128,-98.2363,-5.0713,-184.8225,41.8023,-37.4693,-61.5054,4.3339,-11.3422,
43.8924,37.6215,-11.4964,-26.1267,-95.6233,-194.0128,-83.2363,2.0901,-169.8225,26.8023,-22.4693,-46.5054,5.2245,-26.3422,
31.8746,52.6215,-8.8829,-23.5141,-80.6233,-179.0128,-68.2363,-0.5224,-161.4621,41.8023,-7.4693,-31.5054,9.9287,-11.3422,
46.8746,67.6215,4.1802,-8.5141,-95.6233,-194.0128,-83.2363,14.4776,-176.4621,56.8023,-22.4693,-46.5054,24.9287,3.6578,
61.8746,59.0466,13.0631,-1.5672,-110.6233,-209.0128,-98.2363,29.4776,-191.4621,58.0008,-37.4693,-61.5054,36.0548,1.5672,
46.8746,55.3882,-1.9369,-16.5672,-95.6233,-194.0128,-83.2363,14.4776,-176.4621,73.0008,-22.4693,-46.5054,21.0548,16.5672,
61.8746,58.0008,6.7922,-1.5672,-102.9389,-200.1299,-98.2363,0.5224,-191.4621,58.0008,-37.4693,-49.6403,14.1079,1.5672,
46.8746,48.0731,-8.2078,-16.5672,-87.9389,-185.1299,-83.2363,-1.0448,-176.4621,50.1627,-22.4693,-34.6403,6.2708,1.0448,
31.8746,37.6215,-15.6766,-31.3517,-72.9389,-170.1299,-68.2363,1.0453,-161.4621,58.5237,-7.4693,-19.6403,5.2255,-1.0453,
46.8746,41.8033,-0.67659,-16.3517,-87.9389,-185.1299,-83.2363,16.0453,-176.4621,58.5242,-22.4693,-34.6403,20.2255,0,
60.6143,56.8033,6.2703,-6.2703,-79.4243,-200.1299,-79.4243,25.0819,-191.4621,73.5242,-21.9454,-49.6403,31.3527,15,
75.6143,65.8393,13.586,-2.0901,-94.4243,-215.1299,-94.4243,24.036,-206.4621,58.5242,-36.9454,-64.6403,24.036,2.0901,
60.6143,50.8393,-1.414,-17.0901,-79.4243,-200.1299,-79.4243,9.036,-191.4621,53.2976,-21.9454,-49.6403,9.036,-2.0901,
45.6143,35.8393,-16.414,-32.0901,-64.4243,-185.1299,-64.4243,-5.964,-176.4621,38.2976,-6.9454,-34.6403,-5.964,-17.0901,
60.6143,50.8393,-1.414,-17.0901,-79.4243,-184.9762,-79.4243,9.036,-188.1112,43.8929,-18.8115,-38.6668,9.036,-2.0901,
58.5232,65.8393,11.4959,-11.4959,-94.4243,-199.9762,-94.4243,21.9459,-203.1112,58.8929,-33.8115,-53.6668,24.036,12.9099,
73.5232,58.0008,17.2433,-0.5224,-109.4243,-214.9762,-109.4243,6.9459,-218.1112,52.7757,-48.8115,-68.6668,30.8288,0.5224,
58.5232,43.8929,2.2433,-15.5224,-94.4243,-199.9762,-94.4243,0,-203.1112,49.1179,-33.8115,-53.6668,19.8563,0,
43.5232,28.8929,-12.7567,-30.5224,-79.4243,-184.9762,-79.4243,-15,-188.1112,34.1179,-18.8115,-38.6668,4.8563,-15,
52.7762,24.5594,1.5677,-18.2886,-82.0373,-169.9762,-64.4243,-1.5677,-173.1112,21.424,-3.8115,-23.6668,7.8385,-26.6491,
55.9111,39.5594,10.9735,-10.9735,-97.0373,-184.9762,-79.4243,13.4323,-188.1112,36.424,-18.8115,-38.6668,14.1079,-11.6491,
70.9111,54.5594,15.1532,-2.6125,-112.0373,-199.9762,-94.4243,16.198,-203.1112,50.6856,-33.8115,-53.6668,20.3782,2.6125,
55.9111,47.5502,2.6125,-12.0178,-97.0373,-184.9762,-102.9384,9.9282,-188.1112,61.1367,-18.8115,-52.7752,19.3334,4.7031,
40.9111,32.5502,-12.3875,-27.0178,-82.0373,-169.9762,-87.9384,-5.0718,-173.1112,46.1367,-3.8115,-37.7752,4.3334,-10.2969,
55.9111,33.9647,-1.5677,-26.6491,-67.0373,-154.9762,-72.9384,-2.6125,-158.1112,31.1367,11.1885,-22.7752,6.7927,-20.3792,
51.7304,48.9647,6.7927,-11.6491,-82.0373,-169.9762,-87.9384,12.3875,-173.1112,46.1367,-3.8115,-37.7752,21.7927,-5.3792,
61.6586,56.4335,5.225,-5.225,-97.0373,-184.9762,-102.9384,12.5407,-188.1112,61.1367,-18.8115,-52.7752,10.4501,8.3605,
65.3159,53.82,9.9282,-9.9282,-112.0373,-199.9762,-117.9384,14.1084,-203.1112,60.0909,-33.8115,-67.7752,22.4688,16.198,
50.3159,38.82,-5.0718,-24.9282,-97.0373,-184.9762,-102.9384,-0.89161,-188.1112,45.0909,-18.8115,-52.7752,7.4688,1.198,
44.9382,23.82,-7.3151,-24.0361,-82.0373,-169.9762,-87.9384,-5.2255,-173.1112,30.0909,-3.8115,-37.7752,5.2255,-13.802,
52.7757,38.82,7.6849,-9.0361,-88.3081,-184.9762,-102.9384,9.7745,-188.1112,45.0909,-18.8115,-52.7752,20.2255,1.198,
60.0904,53.82,8.8829,-8.8829,-103.3081,-199.9762,-117.9384,16.1985,-203.1112,60.0909,-33.8115,-67.7752,26.6486,15.1527,
59.569,50.1637,11.4959,-3.1354,-118.3081,-214.9762,-132.9384,25.0814,-218.1112,58.5242,-48.8115,-82.7752,33.4418,3.1354,
44.569,35.1637,-3.5041,-18.1354,-103.3081,-199.9762,-117.9384,10.0814,-203.1112,58.0013,-33.8115,-67.7752,18.4418,-7.8375,
53.2976,26.1267,-6.2703,-21.9464,-88.3081,-184.9762,-102.9384,6.2703,-188.1112,45.983,-18.8115,-52.7752,17.7662,-19.8568,
38.2976,31.3512,-15.6761,-36.9464,-80.4701,-169.9762,-87.9384,4.1802,-173.1112,60.983,-3.8115,-37.7752,17.7657,-4.8568,
53.2976,46.3512,-0.6761,-21.9464,-95.4701,-184.9762,-102.9384,19.1802,-188.1112,75.983,-18.8115,-52.7752,32.7657,10.1432,
68.2976,45.4601,14.1079,-12.0183,-110.4701,-199.9762,-117.9384,16.1985,-203.1112,60.983,-33.8115,-67.7752,38.1444,12.0183,
53.2976,56.9555,-0.89211,-27.0183,-95.4701,-184.9762,-102.9384,1.1985,-188.1112,75.983,-18.8115,-52.7752,23.1444,27.0183,
68.2976,61.1367,14.1079,-12.0183,-92.4879,-199.9762,-87.9384,15.1532,-203.1112,60.983,-33.8115,-67.7752,30.8293,12.0183,
53.2976,46.1367,-0.89211,-27.0183,-77.4879,-184.9762,-72.9384,0.15319,-188.1112,50.1632,-18.8115,-52.7752,15.8293,2.0901,
38.2976,42.3247,-13.0631,-42.0183,-62.4879,-169.9762,-57.9384,-4.7026,-173.1112,58.0008,-3.8115,-37.7752,4.7026,7.838,
53.2976,48.0731,1.9369,-27.0183,-77.4879,-184.9762,-72.9384,10.2974,-188.1112,49.1179,-18.8115,-52.7752,19.7026,12.5407,
62.181,63.0731,16.9369,-19.3339,-65.3164,-199.9762,-87.9384,25.2974,-203.1112,64.1179,-33.8115,-67.7752,34.7026,27.5407,
77.181,61.1357,29.7845,-6.7927,-80.3164,-214.9762,-102.9384,28.7387,-218.1112,79.1179,-48.8115,-82.7752,48.595,12.5407,
62.181,46.1357,14.7845,-21.7927,-65.3164,-199.9762,-87.9384,13.7387,-203.1112,66.8836,-33.8115,-67.7752,33.595,-1.0448,
47.181,31.1357,-0.21552,-36.7927,-50.3164,-184.9762,-72.9384,-1.2613,-188.1112,51.8836,-18.8115,-52.7752,18.595,-16.0448,
62.181,46.1357,14.7845,-21.7927,-59.5685,-173.4804,-80.4701,13.7387,-173.4804,66.8836,-25.0814,-37.7752,33.595,-1.0448,
56.9559,61.1357,10.9735,-10.9735,-74.5685,-188.4804,-95.4701,28.7387,-188.4804,81.8836,-40.0814,-52.7752,44.4153,13.9552,
71.9559,55.3887,13.5855,-12.5407,-89.5685,-203.4804,-110.4701,14.6313,-203.4804,73.1544,-55.0814,-67.7752,29.4153,12.5407,
56.9559,40.3887,-1.4145,-27.5407,-74.5685,-188.4804,-95.4701,-0.36871,-188.4804,58.1544,-40.0814,-52.7752,14.4153,3.1354,
41.9559,25.3887,-16.4145,-42.5407,-59.5685,-173.4804,-80.4701,-15.3687,-173.4804,43.1544,-25.0814,-37.7752,-0.58473,-11.8646,
56.9559,39.7121,-1.4145,-27.5407,-44.5685,-158.4804,-65.4701,-0.36871,-158.4804,41.8028,-10.0814,-22.7752,14.4153,-12.5412,
58.5237,54.7121,13.5855,-15.6756,-59.5685,-173.4804,-80.4701,14.6313,-173.4804,56.8028,-25.0814,-37.7752,29.4153,2.4588,
73.5237,68.9742,28.2168,-12.5407,-74.5685,-188.4804,-95.4701,12.5407,-188.4804,70.019,-40.0814,-52.7752,30.3074,17.4588,
72.1091,57.4789,26.1267,-19.8558,-59.5685,-179.7507,-80.4701,25.0819,-177.6606,68.9737,-25.0814,-67.7752,30.3069,18.811,
57.1091,42.4789,11.1267,-34.8558,-44.5685,-164.7507,-65.4701,10.0819,-162.6606,53.9737,-10.0814,-52.7752,15.3069,3.811,
48.0726,27.4789,7.3151,-40.757,-29.5685,-149.7507,-50.4701,-4.9181,-147.6606,40.7579,4.9186,-37.7752,15.6756,-11.189,
54.8663,42.4789,20.3787,-25.757,-44.5685,-164.7507,-65.4701,10.0819,-162.6606,55.7579,-10.0814,-52.7752,30.6756,3.811,
69.8663,57.4789,24.559,-16.1985,-59.5685,-179.7507,-80.4701,16.1985,-177.6606,70.7579,-25.0814,-67.7752,33.9652,18.811,
65.3164,47.5507,20.3787,-19.3339,-74.5685,-194.7507,-95.4701,19.3339,-192.6606,73.6769,-40.0814,-82.7752,22.4683,25.6038,
50.3164,32.5507,5.3787,-34.3339,-59.5685,-179.7507,-80.4701,4.3339,-177.6606,58.6769,-25.0814,-67.7752,7.4683,10.6038,
53.821,23.5146,-2.6125,-41.2794,-44.5685,-164.7507,-65.4701,-9.9282,-162.6606,43.6769,-10.0814,-52.7752,2.6125,-4.3962,
63.2263,38.5146,12.3875,-26.2794,-32.9189,-179.7507,-80.4701,5.0718,-177.6606,58.6769,-25.0814,-67.7752,17.6125,10.6038,
65.8393,53.5146,19.8558,-17.7662,-47.9189,-194.7507,-95.4701,18.811,-192.6606,64.7945,-40.0814,-82.7752,17.7662,20.9016,
74.1993,60.6138,28.2168,-12.5407,-62.9189,-209.7507,-110.4701,27.171,-207.6606,54.3429,-55.0814,-97.7752,32.7662,12.5407,
59.1993,45.6138,13.2168,-27.5407,-47.9189,-194.7507,-95.4701,12.171,-192.6606,55.9111,-40.0814,-82.7752,17.7662,-0.5224,
71.0638,52.2533,22.9907,-13.5865,-41.8023,-179.7507,-83.605,10.4501,-177.6606,57.4784,-25.0814,-67.7752,15.6761,0,
56.0638,47.5497,7.9907,-28.5865,-26.8023,-164.7507,-73.6774,-3.6578,-162.6606,72.4784,-10.0814,-52.7752,8.8829,14.1079,
68.4513,62.5497,22.9907,-21.424,-41.8023,-179.7507,-88.6774,11.3422,-177.6606,87.4784,-25.0814,-62.1815,23.8829,29.1079,
71.5867,48.596,27.6949,-15.1532,-56.8023,-194.7507,-103.6774,26.3422,-192.6606,77.8576,-40.0814,-77.1815,38.8829,15.1532,
56.5867,53.82,12.6949,-30.1532,-48.596,-179.7507,-88.6774,11.3422,-177.6606,68.4513,-25.0814,-62.1815,23.8829,30.1532,
71.5867,58.5232,24.0365,-15.6761,-63.596,-194.7507,-103.6774,15.6761,-192.6606,53.4513,-40.0814,-77.1815,38.8829,26.1262,
56.5867,43.5232,9.0365,-30.6761,-48.596,-179.7507,-88.6774,0.6761,-177.6606,55.3882,-25.0814,-62.1815,23.8829,11.1262,
41.5867,53.821,-1.5677,-45.6761,-33.596,-164.7507,-73.6774,-14.1084,-162.6606,60.0909,-10.0814,-47.1815,8.8829,1.5677,
56.5867,59.569,13.4323,-30.6761,-48.596,-179.7507,-88.6774,0.89161,-177.6606,51.2085,-25.0814,-62.1815,23.8829,7.3156,
50.1632,74.1998,15.6756,-15.6761,-37.6225,-194.7507,-103.6774,15.8916,-192.6606,66.2085,-40.0814,-77.1815,34.4871,22.3156,
65.1632,59.5685,22.9912,-14.6308,-52.6225,-209.7507,-118.6774,16.7214,-207.6606,80.4696,-55.0814,-92.1815,25.0819,14.6308,
50.1632,54.3434,7.9912,-29.6308,-37.6225,-194.7507,-103.6774,1.7214,-192.6606,68.9747,-40.0814,-77.1815,10.0819,8.3609,
35.1632,39.3434,-7.0088,-44.6308,-22.6225,-179.7507,-88.6774,-13.2786,-177.6606,53.9747,-25.0814,-62.1815,-4.9181,-6.6391,
50.1632,54.3434,7.9912,-29.6308,-37.6225,-188.1112,-73.6774,1.7214,-178.7059,57.4784,-14.6313,-63.7487,10.0819,3.1354,
53.821,69.3434,22.9912,-18.2886,-52.6225,-203.1112,-88.6774,16.7214,-193.7059,72.4784,-29.6313,-78.7487,25.0819,18.1354,
68.821,63.2263,36.0543,-9.9282,-67.6225,-218.1112,-103.6774,9.9282,-208.7059,60.0909,-44.6313,-93.7487,29.7845,14.1084,
53.821,48.2263,21.0543,-24.9282,-52.6225,-203.1112,-88.6774,-3.1349,-193.7059,54.3434,-29.6313,-78.7487,14.7845,3.1349,
38.821,33.2263,6.0543,-39.9282,-37.6225,-188.1112,-73.6774,-18.1349,-178.7059,39.3434,-14.6313,-63.7487,-0.21552,-11.8651,
53.821,44.9377,21.0543,-24.9282,-22.6225,-173.1112,-58.6774,-4.1802,-163.7059,30.3074,0.36871,-48.7487,12.5407,-24.0365,
63.7487,59.9377,32.3965,-16.7214,-37.6225,-188.1112,-73.6774,10.8198,-178.7059,45.3074,-14.6313,-63.7487,25.0819,-9.0365,
78.7487,74.9377,34.4871,-9.4058,-52.6225,-203.1112,-88.6774,9.4058,-193.7059,60.3074,-29.6313,-78.7487,20.9016,5.9635,
66.3617,69.4971,30.8293,-7.8375,-37.6225,-190.7242,-98.7587,8.8834,-178.7059,63.2263,-30.8293,-91.4431,22.4688,7.8375,
51.3617,54.4971,15.8293,-22.8375,-22.6225,-175.7242,-83.7587,-6.1166,-163.7059,48.2263,-15.8293,-76.4431,7.4688,-7.1625,
40.235,39.4971,0.82929,-37.8375,-7.6225,-160.7242,-68.7587,-21.1166,-148.7059,33.2263,-0.82929,-61.4431,-7.5312,-22.1625,
55.235,54.4971,15.8293,-22.8375,-22.6225,-175.7242,-83.7587,-6.1166,-163.7059,48.2263,-15.8293,-76.4431,7.4688,-7.1625,
69.4966,69.4971,26.6486,-8.8829,-37.6225,-190.7242,-98.7587,8.8829,-178.7059,59.0456,-30.8293,-91.4431,18.2881,7.8375,
73.1549,60.6133,28.2163,-7.3151,-52.6225,-205.7242,-113.7587,7.3151,-193.7059,44.0456,-45.8293,-106.4431,22.9912,7.3151,
58.1549,45.6133,13.2163,-22.3151,-37.6225,-190.7242,-98.7587,-7.6849,-178.7059,29.0456,-30.8293,-91.4431,7.9912,-7.6849,
53.2986,33.4423,2.0901,-25.0809,-22.6225,-175.7242,-83.7587,-21.9454,-163.7059,14.0456,-15.8293,-76.4431,-2.0901,-17.7652,
49.6408,48.4423,17.0901,-10.0809,-14.1084,-167.7324,-98.7587,-6.9454,-178.7059,29.0456,-30.8293,-85.1722,12.9099,-2.7652,
64.6408,63.4423,28.2163,-6.2703,-29.1084,-182.7324,-113.7587,6.2703,-193.7059,44.0456,-45.8293,-100.1722,22.9912,12.2348,
75.7665,61.1362,26.6486,-8.8829,-44.1084,-197.7324,-128.7587,8.8829,-208.7059,39.1892,-60.8293,-115.1722,16.1985,16.1985,
60.7665,46.1362,11.6486,-23.8829,-29.1084,-182.7324,-113.7587,-6.1171,-193.7059,26.1267,-45.8293,-100.1722,1.1985,1.1985,
75.7665,61.1362,26.6486,-8.8829,-14.1084,-167.7324,-98.7587,-1.5672,-178.7059,40.235,-30.8293,-85.1722,16.1985,3.6578,
60.7665,46.1362,13.0631,-23.8829,0.89161,-152.7324,-83.7587,-16.5672,-163.7059,46.5049,-15.8293,-70.1722,1.1985,16.1985,
70.019,61.1362,27.172,-9.4053,-14.1084,-167.7324,-98.7587,-1.5672,-178.7059,53.2981,-30.8293,-85.1722,16.1985,31.1985,
85.019,47.0283,26.1262,-4.1802,-29.1084,-182.7324,-113.7587,7.3156,-193.7059,38.2981,-45.8293,-100.1722,10.4511,16.1985,
70.019,62.0283,22.9917,-19.1802,-14.1084,-167.7324,-98.7587,-1.0448,-178.7059,53.2981,-55.3887,-88.8305,1.0448,31.1985,
85.019,68.4508,37.0996,-4.7026,-15.1537,-174.0033,-113.7587,13.9552,-193.7059,38.2981,-70.3887,-103.8305,14.1079,16.1985,
70.019,53.4508,22.0996,-19.7026,-0.15369,-159.0033,-98.7587,-1.0448,-178.7059,32.9194,-55.3887,-88.8305,-0.89211,4.7036,
65.3164,55.9111,19.3339,-15.1537,14.8463,-144.0033,-83.7587,-16.0448,-163.7059,31.8746,-40.3887,-73.8305,-15.8921,1.5672,
80.3164,63.7492,34.3339,-0.15369,-0.15369,-152.5792,-98.7587,-1.0448,-178.7059,16.8746,-55.3887,-88.8305,-0.89211,0,
84.1279,78.7492,21.4235,-4.7026,14.8463,-163.5522,-113.7587,-1.5672,-193.7059,31.8746,-70.3887,-103.8305,1.5672,15,
99.1279,76.8123,36.4235,8.8829,-0.15369,-178.5522,-128.7587,-0.5224,-208.7059,16.8746,-85.3887,-118.8305,3.6578,0.5224,
84.1279,63.7482,28.2158,-6.1171,14.8463,-163.5522,-113.7587,-14.6313,-193.7059,9.4053,-70.3887,-103.8305,-11.3422,-4.1802,
69.1279,48.7482,13.2158,-21.1171,29.8463,-148.5522,-98.7587,-29.6313,-178.7059,-5.5947,-55.3887,-88.8305,-26.3422,-19.1802,
84.1279,63.7482,28.2158,-6.1171,44.8463,-133.5522,-83.7587,-14.6313,-193.7059,-4.7031,-70.3887,-103.8305,-11.3422,-7.8376,
78.9029,78.7482,25.6038,-3.6578,29.8463,-148.5522,-98.7587,0.36871,-208.7059,10.2969,-85.3887,-118.8305,-0.5224,7.1624,
93.9029,76.2899,40.6038,11.3422,14.8463,-163.5522,-113.7587,-4.1802,-223.7059,14.6313,-100.3887,-133.8305,4.1802,15.6761,
89.8754,64.794,34.4866,1.0448,29.8463,-148.5522,-98.7587,-12.5407,-208.7059,19.8563,-85.3887,-148.8305,-1.0448,4.1802,
74.8754,49.794,19.4866,-13.9552,44.8463,-133.5522,-83.7587,-27.5407,-193.7059,4.8563,-70.3887,-133.8305,-16.0448,-10.8198,
87.2623,38.1444,34.4866,1.0448,59.8463,-118.5522,-68.7587,-12.5407,-178.7059,-1.5672,-55.3887,-118.8305,-1.0448,-9.9277,
73.6769,53.1444,31.8746,0.5224,44.8463,-133.5522,-83.7587,-0.5224,-193.7059,13.4328,-70.3887,-133.8305,5.7484,5.0723,
87.7857,54.3429,39.7126,5.225,29.8463,-148.5522,-98.7587,-4.1802,-208.7059,28.4328,-85.3887,-148.8305,4.1802,20.0723,
72.7857,39.3429,29.2616,-3.1354,18.8105,-163.5522,-113.7587,-3.1354,-223.7059,20.9011,-100.3887,-163.8305,3.1354,20.9011,
57.7857,24.3429,14.2616,-18.1354,33.8105,-148.5522,-98.7587,-18.1354,-208.7059,5.9011,-85.3887,-148.8305,-11.8646,5.9011,
72.7857,33.9647,29.2616,-3.1354,48.8105,-133.5522,-83.7587,-17.2438,-193.7059,1.5677,-70.3887,-133.8305,3.1354,-1.5677,
60.0909,48.9647,29.7845,2.6125,33.8105,-148.5522,-98.7587,-2.6125,-208.7059,16.5677,-85.3887,-148.8305,8.8824,13.4323,
71.5862,45.4601,35.009,7.838,18.8105,-163.5522,-113.7587,-0.5224,-223.7059,10.9725,-100.3887,-163.8305,0.5224,25.6038,
75.767,36.0553,39.1897,21.424,3.8105,-178.5522,-128.7587,-1.5677,-238.7059,1.5677,-115.3887,-178.8305,4.7031,10.6038,
60.767,21.0553,24.1897,6.424,18.8105,-163.5522,-113.7587,-16.5677,-223.7059,-4.7021,-100.3887,-163.8305,-10.2969,-4.3962,
71.5867,27.6939,39.1897,8.8824,33.8105,-148.5522,-98.7587,-7.8385,-208.7059,1.5677,-85.3887,-148.8305,-1.5677,3.6573,
56.5867,33.4423,31.3517,1.0453,37.6225,-163.5522,-113.7587,-12.5412,-223.7059,16.5677,-100.3887,-163.8305,-1.0453,18.6573,
60.6143,34.4871,33.4423,11.4954,22.6225,-178.5522,-128.7587,-3.1349,-238.7059,31.5677,-115.3887,-178.8305,3.1349,27.1715,
60.0909,19.4871,28.7387,1.5677,7.6225,-193.5522,-143.7587,-1.5677,-253.7059,16.5677,-130.3887,-193.8305,4.7031,12.1715,
45.0909,19.3334,13.7387,-13.4323,22.6225,-178.5522,-128.7587,-16.5677,-238.7059,31.5677,-115.3887,-178.8305,-10.2969,22.4688,
60.0909,20.9011,28.7387,1.0448,30.3064,-193.5522,-113.7587,-9.4063,-223.7059,16.5677,-100.3887,-181.8413,4.7031,7.4688,
45.0909,22.4688,18.2886,-1.5677,45.3064,-178.5522,-105.0285,-5.7479,-208.7059,31.5677,-85.3887,-166.8413,1.5677,22.4688,
54.8663,21.4245,27.6944,0.5224,30.3064,-193.5522,-120.0285,-18.2881,-223.7059,32.9194,-100.3887,-181.8413,-0.5224,33.9652,
69.8663,14.1089,42.6944,15.1537,15.3064,-208.5522,-135.0285,-6.7932,-238.7059,17.9194,-115.3887,-196.8413,14.4776,21.4235,
54.8663,26.1267,27.6944,0.15369,30.3064,-193.5522,-122.2724,-5.2255,-223.7059,32.9194,-100.3887,-211.8413,1.0453,36.4235,
66.3617,15.1532,36.0543,15.1537,15.3064,-208.5522,-137.2724,-2.6125,-238.7059,17.9194,-115.3887,-226.8413,2.6125,21.4235,
51.3617,12.0188,29.7845,6.7927,30.3064,-193.5522,-122.2724,-17.6125,-223.7059,10.973,-100.3887,-211.8413,-6.7927,33.9647,
47.0278,19.8568,34.4871,2.0901,45.3064,-178.5522,-107.2724,-24.036,-208.7059,21.9464,-85.3887,-196.8413,-2.0901,35.5319,
62.0278,16.198,49.4871,17.0901,30.3064,-193.5522,-122.2724,-9.036,-223.7059,6.9464,-100.3887,-211.8413,12.9099,21.424,
47.0278,18.811,34.4871,3.1349,15.3064,-208.5522,-137.2724,-9.4058,-238.7059,21.9464,-115.3887,-226.8413,-2.0901,36.424,
57.4779,9.4048,41.8018,17.7652,0.30639,-223.5522,-152.2724,-6.2703,-253.7059,9.4048,-130.3887,-241.8413,6.2703,28.2163,
42.4779,1.5677,26.8018,7.8375,15.3064,-208.5522,-137.2724,-17.2438,-238.7059,7.8375,-115.3887,-226.8413,-1.5677,23.5136,
27.4779,-13.4323,11.8018,-7.1625,30.3064,-193.5522,-122.2724,-32.2438,-223.7059,-7.1625,-100.3887,-211.8413,-16.5677,11.4959,
42.4779,1.5677,26.8018,7.8375,45.3064,-187.0659,-107.2724,-17.2438,-236.1838,-7.3151,-115.3887,-226.8413,-1.5677,22.9912,
42.8481,16.5677,41.8018,12.5407,30.3064,-202.0659,-122.2724,-2.2438,-251.1838,7.6849,-130.3887,-241.8413,1.0448,37.9912,
56.9555,15.1532,56.8018,26.6491,15.3064,-217.0659,-137.2724,-2.6125,-266.1838,12.0178,-145.3887,-256.8413,2.6125,36.0543,
47.0278,12.5412,47.0278,25.0819,30.3064,-202.0659,-122.2724,-6.2703,-251.1838,-2.9822,-130.3887,-241.8413,3.1349,27.1715,
32.0278,-2.4588,32.0278,10.0819,45.3064,-187.0659,-107.2724,-21.2703,-236.1838,-17.9822,-115.3887,-226.8413,-11.8651,12.1715,
47.0278,3.1349,47.0278,25.0819,60.3064,-172.0659,-92.2724,-6.2703,-221.1838,-3.1349,-100.3887,-211.8413,3.1349,27.1715,
47.0278,18.1349,49.1174,27.1715,45.3064,-187.0659,-107.2724,-1.0453,-236.1838,11.8651,-115.3887,-226.8413,1.0453,42.1715,
62.0278,27.1725,60.6143,37.6225,30.3064,-202.0659,-122.2724,2.0901,-251.1838,8.3609,-130.3887,-241.8413,-2.0901,35.5329,
51.208,12.1725,55.3882,22.6225,45.3064,-217.0659,-137.2724,-3.1349,-246.6348,1.0453,-142.1287,-256.8413,5.2255,34.4871,
36.208,-2.8275,40.3882,7.6225,60.3064,-202.0659,-122.2724,-18.1349,-231.6348,-13.9547,-127.1287,-241.8413,-9.7745,19.4871,
51.208,4.1807,55.3882,22.6225,75.3064,-187.0659,-107.2724,-5.2255,-216.6348,-9.4058,-112.1287,-226.8413,1.0453,20.9016,
37.6225,10.4506,50.1632,19.8558,60.3064,-202.0659,-122.2724,-4.1807,-231.6348,5.5942,-127.1287,-241.8413,-1.0453,35.9016,
43.8924,2.0901,45.983,20.9016,45.3064,-217.0659,-137.2724,-2.0901,-246.6348,2.0901,-142.1287,-256.8413,7.3151,48.0726,
40.7579,-3.1349,39.7121,28.2173,30.3064,-232.0659,-152.2724,3.1349,-261.6348,-8.36,-157.1287,-271.8413,9.4058,42.8476,
25.7579,-17.7657,24.7121,13.2173,45.3064,-217.0659,-137.2724,-11.8651,-246.6348,0,-142.1287,-256.8413,-5.5942,34.4876,
40.7579,-2.7657,39.7121,28.2173,60.3064,-202.0659,-122.2724,2.0901,-231.6348,-15,-127.1287,-241.8413,9.4058,25.0819,
27.172,1.0448,37.622,27.172,75.3064,-199.607,-135.8583,-1.0448,-246.6348,-1.0448,-123.3177,-256.8413,4.1802,40.0819,
42.172,8.8829,52.622,36.0548,60.3064,-214.607,-150.8583,-3.6578,-261.6348,3.6578,-138.3177,-271.8413,10.9725,54.8653,
57.172,0,65.8398,40.7575,45.3064,-229.607,-165.8583,0,-276.6348,-7.3147,-153.3177,-286.8413,18.8115,39.8653,
42.172,5.225,50.8398,25.7575,60.3064,-214.607,-150.8583,-7.3156,-261.6348,6.2698,-138.3177,-271.8413,3.8115,48.0731,
57.172,-7.838,65.8398,40.7575,75.3064,-199.607,-135.8583,7.6844,-246.6348,-8.7302,-133.2458,-277.4646,14.1079,38.1444,
42.172,-11.4959,54.3429,28.2168,90.3064,-184.607,-120.8583,-3.1354,-231.6348,3.1354,-118.2458,-262.4646,17.7657,53.1444,
42.3247,-4.7026,55.9111,25.6038,91.4426,-199.607,-115.4796,-1.5672,-246.1124,1.5672,-129.0651,-256.563,6.7932,60.0914,
57.3247,10.2974,70.9111,40.6038,76.4426,-214.607,-130.4796,13.4328,-261.1124,-13.4328,-144.0651,-271.563,21.7932,58.5234,
42.3247,2.613,55.9111,28.7392,87.2623,-208.4899,-124.8849,-1.5672,-249.2473,1.5672,-134.2906,-285.8246,6.7932,68.4518,
50.6856,-6.7927,62.1815,43.7392,73.6774,-223.4899,-139.8849,6.7927,-264.2473,-9.9282,-149.2906,-300.8246,10.973,53.4518,
35.6856,-2.0901,54.3434,37.6225,88.6774,-208.4899,-124.8849,5.2255,-249.2473,-2.0901,-134.2906,-285.8246,2.0901,45.983,
33.4418,1.0448,51.2075,31.3522,103.6774,-193.4899,-109.8849,-7.3156,-234.2473,-10.4511,-119.2906,-270.8246,-1.0448,54.3429,
48.4418,-8.3605,66.2075,46.3522,88.6774,-208.4899,-124.8849,7.6844,-249.2473,-25.4511,-134.2906,-285.8246,13.9552,53.2981,
33.4418,-3.1349,51.2075,31.3522,73.6774,-223.4899,-139.8849,-3.1349,-264.2473,-10.4511,-149.2906,-300.8246,3.1349,68.2981,
42.8476,-2.0901,66.2075,46.3522,58.6774,-238.4899,-154.8849,11.8651,-279.2473,2.0901,-164.2906,-315.8246,18.1349,53.2981,
37.0991,-8.8834,61.1357,42.3252,73.6774,-223.4899,-139.8849,8.8834,-264.2473,-12.9099,-149.2906,-300.8246,16.198,53.821,
22.0991,-23.8834,46.1357,27.3252,88.6774,-208.4899,-124.8849,-6.1166,-249.2473,-27.9099,-134.2906,-285.8246,1.198,38.821,
37.0991,-12.0183,61.1357,42.3252,103.6774,-193.4899,-109.8849,8.8834,-255.5177,-36.0543,-130.1099,-270.8246,16.198,40.235,
22.0991,-10.9735,46.1357,28.7392,88.6774,-208.4899,-124.8849,1.5672,-270.5177,-21.0543,-145.1099,-285.8246,4.7026,55.235,
37.0991,4.0265,61.1357,43.7392,73.6774,-223.4899,-139.8849,16.5672,-285.5177,-12.5409,-160.1099,-300.8246,19.7026,70.235,
33.4421,-10.9735,54.3432,38.6671,84.6506,-236.184,-124.8849,13.5857,-270.5177,-13.5857,-145.1099,-285.8246,26.1264,55.235,
18.4421,-25.9735,39.3432,23.6671,99.6506,-221.184,-109.8849,-1.4143,-255.5177,-28.5857,-130.1099,-270.8246,11.1264,40.235,
33.4421,-15.1537,54.3432,38.6671,114.6506,-206.184,-94.8849,13.5857,-240.5177,-37.0996,-115.1099,-255.8246,15.1537,45.4601,
24.0365,-3.1354,56.4335,33.4418,99.6506,-221.184,-109.8849,13.5865,-255.5177,-22.0996,-130.1099,-270.8246,6.2708,60.4601,
39.0365,2.0904,71.4335,48.4418,84.6506,-236.184,-124.8849,26.1269,-270.5177,-7.0996,-145.1099,-285.8246,21.2708,61.6583,
39.19,-12.9096,67.4068,63.2265,69.6506,-251.184,-139.8849,15.1534,-282.6894,-22.0996,-155.192,-300.8246,19.3337,52.7755,
24.19,-27.9096,52.4068,48.2265,84.6506,-236.184,-124.8849,0.15344,-267.6894,-37.0996,-140.192,-285.8246,4.3337,37.7755,
26.6496,-37.0996,46.5049,33.2265,99.6506,-221.184,-109.8849,-3.6578,-252.6894,-52.0996,-125.192,-270.8246,3.6578,22.7755,
11.6496,-22.0996,41.8023,35.5314,84.6506,-236.184,-124.8849,11.3422,-267.6894,-37.0996,-140.192,-285.8246,13.5855,37.7755,
26.6496,-7.0996,56.8023,50.5314,69.6506,-251.184,-139.8849,26.3422,-282.6894,-22.0996,-155.192,-300.8246,28.5855,52.7755,
41.6496,-6.7932,71.8023,65.5314,54.6506,-266.184,-154.8849,39.1897,-297.6894,-7.0996,-159.372,-315.8246,43.5855,67.7755,
26.6496,-21.7932,56.8023,50.5314,69.6506,-251.184,-139.8849,24.1897,-282.6894,-6.7932,-144.372,-300.8246,28.5855,62.181,
41.6496,-22.4688,65.3159,54.8658,84.6506,-236.184,-124.8849,26.6491,-267.6894,-21.7932,-129.372,-285.8246,22.4688,47.181,
26.6496,-20.9011,50.3159,39.8658,69.6506,-221.184,-139.8849,20.9011,-263.3557,-8.3605,-119.1369,-300.8246,18.8115,62.181,
39.7116,-7.3156,65.3159,54.8658,54.6506,-236.184,-154.8849,34.4866,-278.3557,6.6395,-134.1369,-315.8246,33.8115,77.181,
54.7116,-6.2703,80.3159,69.8658,39.6506,-251.184,-169.8849,44.9377,-293.3557,-8.3605,-149.1369,-330.8246,48.8115,73.1544,
39.7116,-13.5855,65.3159,54.8658,54.6506,-236.184,-154.8849,29.9377,-278.3557,-4.1802,-134.1369,-315.8246,33.8115,81.5149,
36.577,-24.0363,62.7041,54.3437,69.6506,-221.184,-139.8849,30.3071,-272.7612,-19.1802,-124.3622,-330.8246,24.0363,66.5149,
21.577,-22.9915,53.2979,43.8926,84.6506,-206.184,-124.8849,26.1259,-257.7612,-10.4508,-109.3622,-315.8246,22.9915,71.0636,
16.7204,-16.7214,55.3882,44.9372,83.605,-191.184,-109.8849,11.4954,-242.7612,-11.4954,-124.3622,-330.8246,17.7662,59.5685,
31.7204,-1.7214,70.3882,59.9372,68.605,-206.184,-124.8849,26.4954,-257.7612,-15.1534,-139.3622,-345.8246,32.7662,71.5865,
16.7204,-14.1079,55.3882,44.9372,53.605,-221.184,-139.8849,16.1985,-272.7612,-2.613,-141.6058,-360.8246,18.2891,86.2175,
31.7204,-5.2253,70.3882,59.9372,38.605,-236.184,-154.8849,31.1985,-287.7612,-17.613,-156.6058,-375.8246,33.2891,73.1542,
16.7204,-15.1537,56.9559,49.6403,53.605,-221.184,-139.8849,21.4235,-272.7612,-29.7845,-141.6058,-360.8246,21.4235,65.3164,
1.7204,-26.6486,41.9559,35.01,68.605,-206.184,-124.8849,6.4235,-257.7612,-19.3329,-126.6058,-345.8246,8.8839,66.3622,
16.7204,-22.4688,56.9559,50.01,53.605,-221.184,-139.8849,21.4235,-272.7612,-26.6491,-141.6058,-360.8246,23.8839,73.6769,
6.2698,-7.4688,54.3429,48.0731,38.605,-236.184,-154.8849,24.0365,-287.7612,-17.7657,-156.6058,-375.8246,13.5855,88.6769,
21.2698,7.5312,69.3429,63.0731,23.605,-251.184,-169.8849,39.0365,-302.7612,-19.8563,-171.6058,-390.8246,28.5855,80.4701,
18.2886,-7.4688,54.3429,60.0909,38.605,-236.184,-154.8849,33.9647,-287.7612,-22.4688,-156.6058,-375.8246,27.6939,71.5867,
3.2886,-22.4688,39.3429,45.0909,53.605,-221.184,-139.8849,18.9647,-272.7612,-37.4688,-141.6058,-360.8246,12.6939,56.5867,
18.2886,-20.379,54.3429,60.0909,67.4063,-206.184,-124.8849,29.7842,-257.7612,-52.4688,-126.6058,-375.8246,26.6488,41.5867,
3.2886,-5.379,53.8205,59.0456,52.4063,-221.184,-139.8849,41.2799,-272.7612,-37.4688,-141.6058,-390.8246,27.6944,56.5867,
18.2886,9.621,68.8205,74.0456,37.4063,-236.184,-154.8849,52.2531,-287.7612,-22.4688,-156.6058,-405.8246,42.6944,71.5867,
13.0631,-5.379,60.0914,62.181,52.4063,-221.184,-139.8849,37.2531,-272.7612,-37.4688,-141.6058,-398.6917,35.01,67.407,
-1.9369,-20.379,45.0914,47.181,67.4063,-206.184,-124.8849,22.2531,-257.7612,-48.5955,-126.6058,-383.6917,20.01,52.407,
13.0631,-22.9912,60.0914,62.181,79.4248,-191.184,-109.8849,33.4423,-242.7612,-34.4871,-111.6058,-368.6917,35.01,59.5685,
0,-7.9912,62.7034,60.6128,64.4248,-206.184,-124.8849,37.622,-257.7612,-19.4871,-126.6058,-383.6917,33.4418,74.5685,
15,7.0088,77.7034,75.6128,49.4248,-221.184,-139.8849,52.622,-272.7612,-11.4956,-141.6058,-398.6917,47.028,89.5685,
12.018,-7.9912,72.6323,74.7219,34.4248,-236.184,-141.606,44.4155,-276.4191,-23.5139,-126.6058,-413.6917,45.4603,74.5685,
-2.982,-22.9912,57.6323,59.7219,49.4248,-221.184,-126.606,29.4155,-261.4191,-38.5139,-111.6058,-398.6917,30.4603,59.5685,
11.4959,-29.2621,59.568,57.4784,64.4248,-206.184,-111.606,29.2616,-246.4191,-53.5139,-96.6058,-383.6917,27.171,49.1179,
-1.0451,-14.2621,61.6588,65.8391,49.4248,-221.184,-126.606,39.7129,-261.4191,-38.5139,-111.6058,-398.6917,35.5327,64.1179,
13.9549,0.73792,76.6588,78.3797,34.4248,-236.184,-141.606,39.7119,-276.4191,-23.5139,-126.6058,-413.6917,42.8473,79.1179,
28.9549,4.7029,91.6588,93.3797,19.4248,-251.184,-156.606,54.7119,-287.9149,-9.9284,-141.6058,-428.6917,57.8473,94.1179,
13.9549,-10.2971,76.6588,78.3797,34.4248,-236.184,-141.606,39.7119,-272.9149,-24.9284,-126.6058,-413.6917,42.8473,79.1179,
12.0183,-12.0183,70.5414,70.5414,49.4248,-221.184,-126.606,33.9642,-257.9149,-39.9284,-111.6058,-398.6917,29.784,64.1179,
-2.9817,2.9817,61.1357,56.9555,61.1357,-206.184,-111.606,29.7845,-257.6078,-29.7845,-111.2994,-383.6917,23.5136,79.1179,
12.0183,17.9817,76.1357,71.9555,46.1357,-221.184,-126.606,44.7845,-272.6078,-21.9464,-126.2994,-398.6917,38.5136,91.9655,
27.0183,18.2886,91.1357,86.9555,31.1357,-236.184,-141.606,59.7845,-287.6078,-28.7392,-141.2994,-413.6917,53.5136,85.1722,
12.0183,3.2886,76.1357,71.9555,46.1357,-221.184,-126.606,44.7845,-272.6078,-13.7392,-126.2994,-398.6917,38.5136,96.1457,
8.8831,-8.8831,64.2713,67.4068,33.965,-215.8053,-138.4706,32.9192,-257.6078,-28.7392,-115.4794,-383.6917,32.9192,81.1457,
-2.6128,2.6128,64.2713,64.2713,48.965,-200.8053,-123.4706,40.2348,-242.6078,-13.7392,-100.4794,-368.6917,29.7847,90.3985,
3.1354,-3.1354,51.2085,60.6138,63.965,-185.8053,-108.4706,34.4876,-227.6078,-12.5407,-85.4794,-353.6917,14.7847,75.3985,
18.1354,5.7479,66.2085,75.6138,48.965,-200.8053,-123.4706,49.4876,-242.6078,-6.7932,-100.4794,-368.6917,29.7847,84.1279,
3.1354,-5.2255,51.2085,60.6138,33.965,-196.4721,-108.4706,34.4876,-257.6078,5.2255,-114.9572,-366.8171,14.7847,96.1457,
18.1354,8.8829,66.2085,75.6138,18.965,-211.4721,-123.4706,49.4876,-272.6078,-9.7745,-129.9572,-381.8171,29.7847,81.1457,
3.6578,-3.6578,56.956,69.4966,33.965,-196.4721,-108.4706,45.4601,-257.6078,-18.2891,-114.9572,-366.8171,38.1444,80.9925,
-11.3422,-18.6578,41.956,54.4966,48.965,-181.4721,-93.4706,30.4601,-242.6078,-33.2891,-99.9572,-351.8171,23.1444,65.9925,
3.6578,-7.3154,56.956,69.4966,33.965,-196.4721,-108.4706,45.4601,-256.0403,-48.2891,-114.9572,-366.8171,38.1444,70.0188,
-4.7021,7.6846,61.1367,60.0909,18.965,-211.4721,-123.4706,38.1449,-271.0403,-33.2891,-129.9572,-381.8171,38.1449,85.0188,
10.2979,15.6758,76.1367,75.0909,3.965,-226.4721,-138.4706,53.1449,-286.0403,-18.2891,-144.9572,-396.8171,53.1449,90.9204,
6.7932,0.67585,61.1367,69.4966,18.965,-211.4721,-123.4706,48.5955,-271.0403,-17.2438,-129.9572,-381.8171,38.1449,87.2623,
-8.2068,-14.3242,46.1367,54.4966,33.965,-196.4721,-108.4706,33.5955,-256.0403,-32.2438,-114.9572,-366.8171,23.1449,72.2623,
6.7932,-10.973,61.1367,69.4966,48.965,-181.4721,-93.4706,43.37,-241.0403,-43.37,-99.9572,-351.8171,32.9199,57.2623,
-4.7026,4.027,56.956,62.181,33.965,-196.4721,-108.4706,51.7299,-256.0403,-28.37,-114.9572,-366.8171,39.1892,72.2623,
10.2974,10.4506,71.956,77.181,18.965,-211.4721,-123.4706,59.568,-271.0403,-13.37,-129.9572,-381.8171,54.1892,87.2623,
7.3156,-4.5494,65.8388,62.181,33.965,-196.4721,-108.4706,44.568,-256.0403,-27.172,-114.9572,-366.8171,39.1892,72.2623,
-7.6844,-19.5494,50.8388,47.181,48.965,-181.4721,-93.4706,29.568,-241.0403,-42.172,-99.9572,-351.8171,24.1892,57.2623,
2.6125,-34.5494,44.4148,50.6856,63.965,-166.4721,-78.4706,26.6491,-226.0403,-48.5955,-84.9572,-336.8171,22.4688,42.2623,
-4.1802,-19.5494,57.4784,56.4335,48.965,-181.4721,-93.4706,40.7574,-241.0403,-33.5955,-99.9572,-351.8171,37.4688,57.2623,
10.8198,-4.5494,67.406,67.406,33.965,-196.4721,-108.4706,36.0548,-256.0403,-18.5955,-114.9572,-366.8171,37.0996,68.4518,
14.1084,-14.1084,66.3617,72.6315,23.5136,-211.4721,-114.4348,40.2345,-271.0403,-20.3787,-99.9572,-374.6551,42.3252,64.2711,
-0.89161,-29.1084,51.3617,57.6315,38.5136,-196.4721,-99.4348,25.2345,-256.0403,-35.3787,-84.9572,-359.6551,27.3252,49.2711,
-3.6578,-36.0543,36.3617,42.6315,53.5136,-181.4721,-84.4348,10.2345,-241.0403,-50.3787,-69.9572,-344.6551,12.3252,34.2711,
-10.4506,-21.0543,47.0278,55.3882,38.5136,-196.4721,-99.4348,25.2345,-256.0403,-35.3787,-84.9572,-338.6003,24.0361,49.2711,
4.5494,-6.0543,54.3429,59.568,23.5136,-211.4721,-114.4348,40.2345,-271.0403,-20.3787,-99.9572,-353.6003,30.3064,64.2711,
19.5494,-1.0451,69.3429,74.568,8.5136,-226.4721,-129.4348,55.2345,-256.0403,-5.3787,-114.9572,-341.7355,45.3064,71.0641,
4.5494,-16.0451,54.3429,59.568,23.5136,-211.4721,-114.4348,40.2345,-241.0403,-7.8385,-99.9572,-326.7355,30.3064,56.0641,
5.7479,-18.2886,49.6408,68.4513,38.5136,-196.4721,-99.4348,28.7387,-226.0403,-14.1084,-84.9572,-311.7355,32.9189,41.0641,
-9.2521,-6.2703,40.7579,53.4513,53.5136,-190.2013,-84.4348,35.5319,-211.0403,0.89161,-69.9572,-296.7355,33.4423,56.0641,
5.7479,8.7297,50.1632,61.6591,38.5136,-205.2013,-99.4348,39.7131,-226.0403,-10.4506,-84.9572,-311.7355,37.6225,71.0641,
20.7479,9.4055,65.1632,76.6591,23.5136,-220.2013,-114.4348,54.7131,-241.0403,-9.4055,-99.9572,-326.7355,52.6225,80.4693,
5.7479,-5.5945,50.1632,61.6591,38.5136,-205.2013,-99.4348,39.7131,-226.0403,5.5945,-84.9572,-311.7355,37.6225,68.4513,
17.2438,-13.0636,60.0909,52.7752,23.5136,-220.2013,-95.6233,32.9189,-221.0311,-9.4055,-70.5419,-296.7355,29.7845,53.4513,
2.2438,-17.2433,45.0909,37.7752,38.5136,-205.2013,-80.6233,17.9189,-206.0311,-21.4235,-55.5419,-281.7355,20.3787,51.7309,
-12.7562,-3.1354,30.0909,44.9377,53.5136,-190.2013,-65.6233,20.9011,-191.0311,-6.4235,-40.5419,-266.7355,28.2168,66.7309,
2.2438,5.7477,45.0909,59.9377,38.5136,-205.2013,-80.6233,35.9011,-206.0311,-5.7477,-55.5419,-281.7355,43.2168,69.4964,
-12.7562,2.6125,32.9199,44.9377,23.5136,-220.2013,-95.6233,22.4688,-221.0311,9.2523,-70.5419,-296.7355,33.9647,83.0826,
2.2438,2.6125,47.9199,56.956,8.5136,-235.2013,-110.6233,37.4688,-236.0311,-2.6125,-85.5419,-311.7355,47.5507,68.0826,
-12.7562,-12.3875,32.9199,41.956,23.5136,-220.2013,-95.6233,22.4688,-221.0311,-17.6125,-70.5419,-296.7355,32.5507,53.0826,
-27.7562,-27.3875,17.9199,26.956,38.5136,-205.2013,-80.6233,7.4688,-206.0311,-18.811,-55.5419,-281.7355,17.5507,42.8476,
-12.7562,-12.3875,32.9199,41.956,23.5136,-220.2013,-73.1547,22.4688,-191.0311,-3.811,-44.9379,-266.7355,32.5507,57.8476,
-20.9016,2.6125,30.3069,31.3517,8.5136,-235.2013,-88.1547,33.4423,-206.0311,11.189,-59.9379,-281.7355,34.4871,72.8476,
-5.9016,4.1805,45.3069,46.3517,-6.4864,-250.2013,-103.1547,47.0275,-221.0311,-3.811,-74.9379,-296.7355,49.4871,63.7484,
-7.3156,-10.8195,30.3074,42.8481,8.5136,-235.2013,-88.1547,32.0275,-206.0311,-11.4959,-59.9379,-281.7355,34.4871,60.6138,
-22.3156,-25.8195,15.3074,27.8481,23.5136,-220.2013,-73.1547,17.0275,-191.0311,-26.4959,-44.9379,-266.7355,19.4871,45.6138,
-7.3156,-15.1537,30.3074,42.8481,36.0548,-205.2013,-58.1547,23.5141,-176.0311,-27.6944,-29.9379,-251.7355,31.8746,45.4601,
-10.9735,-0.15369,32.9194,43.3705,21.0548,-220.2013,-73.1547,28.7392,-191.0311,-12.6944,-44.9379,-266.7355,28.7392,60.4601,
4.0265,7.8375,39.1897,58.0013,6.0548,-235.2013,-88.1547,26.6491,-206.0311,-7.8375,-59.9379,-281.7355,40.2345,62.1815,
-6.2703,-2.0901,26.1267,43.0013,21.0548,-220.2013,-75.2441,28.2173,-191.0311,2.0901,-44.9379,-266.7355,47.0278,59.5685,
-21.2703,-17.0901,11.1267,28.0013,36.0548,-205.2013,-60.2441,13.2173,-176.0311,-12.9099,-29.9379,-251.7355,32.0278,44.5685,
-21.4235,-32.0901,-0.5224,21.4235,51.0548,-190.2013,-45.2441,0.5224,-161.0311,-27.9099,-14.9379,-236.7355,17.0278,29.5685,
-15.6761,-17.0901,14.4776,36.4235,36.0548,-205.2013,-60.2441,15.5224,-176.0311,-12.9099,-29.9379,-251.7355,32.0278,44.5685,
-2.613,-2.0901,29.4776,38.1444,21.0548,-220.2013,-75.2441,17.2433,-191.0311,2.0901,-44.9379,-266.7355,28.7392,45.4601,
10.973,2.6125,44.4776,53.1444,6.0548,-235.2013,-90.2441,32.2433,-206.0311,-2.6125,-59.9379,-274.3292,42.3252,60.0909,
-4.027,-12.3875,29.4776,38.1444,21.0548,-220.2013,-75.2441,17.2433,-191.0311,-17.6125,-44.9379,-259.3292,27.3252,45.0909,
-17.7662,-27.3875,14.4776,23.1444,36.0548,-205.2013,-60.2441,2.2433,-176.0311,-32.6125,-29.9379,-244.3292,12.3252,30.0909,
-10.4506,-12.3875,27.1715,37.6215,21.0548,-220.2013,-75.2441,17.2433,-191.0311,-17.6125,-44.9379,-229.3292,27.3252,45.0909,
1.5677,2.6125,26.6491,40.2355,6.0548,-235.2013,-90.2441,27.6949,-206.0311,-2.6125,-59.9379,-244.3292,31.8751,53.821,
12.5404,6.2706,40.7572,55.2355,-8.9452,-250.2013,-105.2441,42.6949,-221.0311,-6.2706,-74.9379,-259.3292,42.8478,50.1625,
-2.4596,-8.7294,25.7572,40.2355,6.0548,-235.2013,-90.2441,27.6949,-206.0311,8.7294,-59.9379,-244.3292,27.8478,44.9382,
-10.4506,-21.9464,14.6308,33.4423,21.0548,-220.2013,-75.2441,12.6949,-191.0311,-6.2706,-44.9379,-229.3292,20.9016,29.9382,
-25.4506,-13.5855,2.0906,21.9459,26.1262,-205.2013,-73.1544,15.6761,-176.0311,0,-29.9379,-214.3292,27.172,41.8023,
-10.4506,1.4145,17.0906,36.0548,11.1262,-220.2013,-88.1544,30.6761,-191.0311,3.6578,-44.9379,-229.3292,32.9194,56.8023,
4.5494,13.586,32.0906,51.0548,-3.8738,-235.2013,-103.1544,45.6761,-206.0311,-11.3422,-59.9379,-244.3292,45.983,55.3882,
-10.4506,-0.5229,17.0906,36.0548,11.1262,-220.2013,-88.1544,30.6761,-191.0311,0.5229,-44.9379,-229.3292,30.983,50.6856,
4.5494,12.0183,32.0906,51.0548,-3.8738,-235.2013,-103.1544,36.0548,-206.0311,-12.0183,-59.9379,-219.9858,45.4601,37.0996,
-10.4506,-2.9817,17.0906,36.0548,11.1262,-220.2013,-88.1544,21.0548,-191.0311,-16.1985,-44.9379,-204.9858,30.4601,28.7392,
-25.4506,-16.7209,2.0906,21.0548,26.1262,-205.2013,-73.1544,6.0548,-176.0311,-1.1985,-29.9379,-189.9858,15.4601,34.4876,
-10.4506,-1.7209,17.0906,36.0548,11.1262,-220.2013,-88.1544,21.0548,-191.0311,0,-44.9379,-204.9858,30.4601,27.172,
-12.5407,13.2791,12.5407,28.2168,-3.8738,-235.2013,-96.1462,26.1262,-206.0311,15,-59.9379,-210.0576,29.2616,42.172,
2.4593,0.5224,22.4693,36.0548,-18.8738,-250.2013,-111.1462,27.6944,-221.0311,0,-74.9379,-225.0576,38.1454,43.3705,
-12.5407,-14.4776,7.4693,21.0548,-3.8738,-235.2013,-96.1462,12.6944,-206.0311,10.4511,-59.9379,-210.0576,23.1454,43.8929,
-27.5407,-29.4776,-7.5307,6.0548,11.1262,-220.2013,-81.1462,-2.3056,-191.0311,-4.5489,-44.9379,-195.0576,8.1454,28.8929,
-12.5407,-14.4776,7.4693,21.0548,-3.8738,-205.2013,-66.1462,12.6944,-177.1382,-6.7927,-37.0996,-180.0576,23.1454,43.8929,
-17.2438,0.5224,17.2438,26.6491,-18.8738,-220.2013,-81.1462,27.6944,-192.1382,8.2073,-52.0996,-195.0576,30.8293,58.8929,
-2.2438,3.1349,19.8558,30.3069,-33.8738,-235.2013,-96.1462,21.9464,-207.1382,2.0901,-67.0996,-210.0576,28.2163,43.8929,
-11.4954,-11.8651,6.2703,16.7214,-18.8738,-220.2013,-81.1462,17.7662,-192.1382,-11.4954,-52.0996,-195.0576,26.1267,28.8929,
-26.4954,-26.8651,-8.7297,1.7214,-3.8738,-205.2013,-66.1462,2.7662,-177.1382,-26.4954,-37.0996,-180.0576,11.1267,13.8929,
-11.4954,-11.8651,6.2703,16.7214,5.225,-190.2013,-51.1462,15.6761,-162.1382,-28.2168,-22.0996,-165.0576,26.1267,17.7657,
-10.4506,3.1349,10.4506,29.2621,-9.775,-205.2013,-66.1462,26.1267,-177.1382,-13.2168,-37.0996,-180.0576,35.5319,32.7657,
1.5672,-0.5224,7.838,29.784,-24.775,-220.2013,-81.1462,29.784,-192.1382,0.5224,-52.0996,-195.0576,36.0548,26.6496,
-2.613,2.613,12.0183,24.559,-33.9647,-205.2013,-66.1462,31.8746,-177.1382,2.613,-37.0996,-180.0576,48.5955,32.9194,
-17.613,-12.387,-2.9817,9.559,-18.9647,-190.2013,-51.1462,16.8746,-162.1382,-6.2703,-22.0996,-165.0576,33.5955,17.9194,
-2.613,-25.0819,2.0901,10.4506,-3.9647,-175.2013,-36.1462,8.36,-147.1382,-21.2703,-7.0996,-150.0576,18.5955,2.9194,
-10.4506,-10.0819,10.4506,20.9016,-18.9647,-190.2013,-51.1462,23.36,-162.1382,-6.2703,-22.0996,-165.0576,33.5955,17.9194,
-3.1354,4.1802,13.5855,27.172,-33.9647,-205.2013,-66.1462,21.9459,-177.1382,3.1354,-37.0996,-180.0576,28.2168,29.2616,
5.7484,-3.6578,16.1985,28.7392,-48.9647,-220.2013,-81.1462,28.7392,-192.1382,3.6578,-52.0996,-195.0576,33.9652,31.8746,
-9.2516,-18.6578,1.1985,13.7392,-33.9647,-205.2013,-66.1462,13.7392,-177.1382,-11.3422,-37.0996,-180.0576,18.9652,16.8746,
-2.0901,-8.3609,-3.1349,21.9464,-18.9647,-190.2013,-51.1462,21.9464,-162.1382,-26.3422,-22.0996,-165.0576,30.3069,2.0901,
-5.7479,6.6391,5.7479,30.8293,-20.3792,-202.22,-66.1462,36.9464,-177.1382,-11.3422,-16.199,-150.0576,45.3069,17.0901,
0,1.0458,0,15.8293,-35.3792,-217.22,-81.1462,21.9464,-192.1382,3.6578,-31.199,-165.0576,30.3069,32.0901,
15,9.4058,15,30.8293,-50.3792,-232.22,-96.1462,36.5777,-207.1382,-9.4058,-46.199,-180.0576,45.3069,17.7662,
0,-5.5942,0,15.8293,-35.3792,-217.22,-81.1462,21.5777,-192.1382,5.5942,-31.199,-165.0576,30.3069,14.1079,
7.3151,-5.2255,6.2703,29.2621,-20.3792,-202.22,-66.1462,21.9464,-177.1382,-9.4058,-16.199,-150.0576,31.3517,5.2255,
-7.6849,2.6125,-6.7927,14.2621,-5.3792,-187.22,-51.1462,16.198,-162.1382,5.5942,-1.199,-135.0576,26.6491,20.2255,
-2.0901,9.4058,2.0901,10.4506,-20.3792,-202.22,-66.1462,16.7214,-177.1382,12.5412,-16.199,-144.2188,33.4423,28.2163,
11.4954,-5.5942,9.4058,22.9912,-35.3792,-217.22,-81.1462,30.3069,-192.1382,6.2703,-31.199,-159.2188,44.9372,19.8558,
-3.5046,8.36,-5.5942,7.9912,-20.3792,-202.22,-66.1462,21.9464,-177.1382,21.2703,-16.199,-144.2188,29.9372,34.8558,
11.4954,5.2255,7.3151,22.9912,-35.3792,-217.22,-81.1462,20.9016,-192.1382,6.2703,-31.199,-159.2188,33.4423,19.8558,
-2.6125,2.6125,-6.7927,19.3334,-20.3792,-202.22,-66.1462,16.198,-177.1382,16.198,-16.199,-144.2188,23.5136,12.0178,
-0.5229,0.5229,-4.7031,15.1532,-5.3792,-187.22,-51.1462,20.3782,-162.1382,18.2886,-1.199,-129.2188,19.3334,27.0178,
14.4771,4.1805,10.2969,30.1532,-20.3792,-202.22,-66.1462,35.3782,-177.1382,3.2886,-16.199,-144.2188,34.3334,33.4421,
0.5224,19.1805,-0.5224,15.1532,-35.3792,-217.22,-81.1462,30.8288,-192.1382,18.2886,-31.199,-158.3272,47.5507,48.4421,
13.0631,6.7922,4.7026,16.1985,-50.3792,-232.22,-96.1462,20.3787,-207.1382,3.2886,-46.199,-173.3272,38.1444,33.4421,
-1.9369,-2.0906,-10.2974,2.0896,-35.3792,-217.22,-81.1462,14.6303,-192.1382,1.0448,-31.199,-158.3272,23.1444,18.4421,
-16.9369,0.5224,-25.2974,-12.9104,-20.3792,-202.22,-66.1462,-0.36971,-177.1382,-8.8829,-16.199,-143.3272,8.1444,3.4421,
-1.9369,15.5224,-10.2974,2.0896,-35.3792,-187.22,-81.1462,14.6303,-162.1382,-1.0453,-26.1267,-128.3272,23.1444,16.7214,
-1.5677,30.5224,1.5677,17.0896,-50.3792,-202.22,-96.1462,29.6303,-177.1382,13.9547,-41.1267,-143.3272,38.1444,31.7214,
5.225,16.7209,-5.225,15.6761,-65.3792,-217.22,-111.1462,24.0365,-192.1382,16.7209,-56.1267,-158.3272,31.3522,33.4418,
-9.775,7.8375,-20.225,1.5677,-50.3792,-202.22,-96.1462,9.0365,-177.1382,1.7209,-41.1267,-143.3272,23.5136,18.4418,
-24.775,-7.1625,-35.225,-13.4323,-35.3792,-187.22,-81.1462,-5.9635,-162.1382,-0.5224,-26.1267,-128.3272,8.5136,3.4418,
-9.775,2.613,-20.225,1.5677,-37.0996,-172.22,-66.1462,9.0365,-147.1382,-2.613,-11.1267,-113.3272,23.5136,3.6578,
1.5677,17.613,-5.225,16.5677,-52.0996,-187.22,-81.1462,24.0365,-162.1382,12.387,-26.1267,-128.3272,38.1449,18.6578,
9.9277,24.559,-1.5672,10.9735,-67.0996,-202.22,-96.1462,12.0183,-177.1382,18.2881,-41.1267,-143.3272,23.1449,3.6578,
6.7927,10.973,-6.7927,13.0636,-82.0996,-199.0846,-92.4884,19.3334,-162.1382,29.7845,-26.1267,-128.3272,33.9647,6.7927,
-8.2073,-4.027,-21.7927,-1.9364,-67.0996,-184.0846,-77.4884,4.3334,-147.1382,14.7845,-11.1267,-113.3272,18.9647,-4.7026,
1.0448,-1.0448,-16.7209,4.1802,-52.0996,-169.0846,-62.4884,10.4501,-132.1382,-0.21552,3.8733,-98.3272,33.9647,-5.225,
1.5677,13.9552,-1.7209,12.0188,-67.0996,-184.0846,-77.4884,25.4501,-147.1382,14.7845,-11.1267,-113.3272,48.596,9.775,
11.4959,14.6303,-4.1802,4.1802,-82.0996,-199.0846,-92.4884,10.4501,-162.1382,29.7845,-26.1267,-128.3272,35.5314,14.6303,
9.9282,16.198,-2.6125,10.973,-97.0996,-214.0846,-107.4884,16.198,-177.1382,17.2438,-41.1267,-142.6511,36.0543,2.6125,
-5.0718,1.198,-17.6125,-4.027,-82.0996,-199.0846,-92.4884,1.198,-162.1382,3.6578,-26.1267,-127.6511,21.0543,-3.6578,
2.0901,-2.0901,-12.5412,5.2245,-67.0996,-184.0846,-77.4884,2.0901,-147.1382,-2.0901,-11.1267,-112.6511,18.811,-3.1359,
2.0906,12.9099,-1.0448,1.0448,-65.8388,-199.0846,-74.1993,17.0901,-162.1382,12.9099,-7.3156,-97.6511,33.811,11.8641,
14.1079,26.6486,-2.613,2.613,-80.8388,-214.0846,-89.1993,16.1985,-177.1382,24.559,-22.3156,-112.6511,30.8298,5.7474,
15.6756,16.7204,-6.2703,11.4954,-95.8388,-229.0846,-104.1993,20.9006,-192.1382,9.559,-37.3156,-127.6511,29.2611,8.36,
0.6756,3.1354,-21.2703,-3.5046,-80.8388,-214.0846,-89.1993,5.9006,-177.1382,24.0365,-22.3156,-112.6511,14.2611,6.2708,
15.6756,17.2438,-9.9282,-0.5229,-65.8388,-199.0846,-74.1993,12.0188,-162.1382,9.0365,-7.3156,-97.6511,29.2611,-8.7292,
0.6756,19.3334,-24.9282,-5.7479,-50.8388,-184.0846,-59.1993,5.7479,-147.1382,24.0365,7.6844,-82.6511,17.2438,6.2708,
8.3605,34.3334,-13.5855,9.2521,-65.8388,-180.7955,-74.1993,20.7479,-162.1382,39.0365,-7.3156,-67.6511,32.2438,21.2708,
23.3605,19.3334,-5.225,10.4511,-80.8388,-195.7955,-89.1993,22.9917,-177.1382,24.0365,-22.3156,-82.6511,43.8929,11.4959,
8.3605,34.3334,-9.9282,-4.5489,-65.8388,-180.7955,-74.1993,15.1532,-162.1382,39.0365,-7.3156,-67.6511,37.1001,26.4959,
20.3787,19.3334,-2.613,2.613,-80.8388,-195.7955,-89.1993,13.0631,-177.1382,24.0365,-22.3156,-82.6511,30.8288,11.4959,
5.3787,4.3334,-17.613,-12.387,-65.8388,-180.7955,-74.1993,2.0896,-162.1382,13.5855,-7.3156,-67.6511,15.8288,1.0448,
-9.6213,13.0636,-32.613,-27.387,-50.8388,-165.7955,-59.1993,-4.7031,-147.1382,22.4688,7.6844,-52.6511,4.7031,6.7927,
5.3787,28.0636,-17.613,-12.387,-65.8388,-180.7955,-74.1993,10.2969,-162.1382,18.2891,-7.3156,-67.6511,19.7031,12.0183,
9.4058,43.0636,-8.3609,2.613,-80.8388,-195.7955,-89.1993,25.2969,-177.1382,33.2891,-22.3156,-82.5597,34.7031,27.0183,
24.4058,35.5324,-9.4053,12.5407,-95.8388,-210.7955,-104.1993,25.0814,-192.1382,25.0814,-37.3156,-97.5597,49.7031,12.0183,
9.4058,20.5324,-24.4053,-2.4593,-80.8388,-195.7955,-89.1993,10.0814,-177.1382,15.1532,-22.3156,-82.5597,34.7031,0.5229,
-5.5942,5.5324,-39.4053,-17.4593,-65.8388,-180.7955,-74.1993,-4.9186,-162.1382,6.7927,-7.3156,-67.5597,19.7031,-14.4771,
9.4058,20.5324,-24.4053,-2.4593,-80.8388,-195.7955,-88.8305,10.0814,-168.2553,8.3605,3.1354,-57.4784,34.7031,-3.1354,
16.1985,35.5324,-9.4053,6.7932,-95.8388,-210.7955,-103.8305,25.0814,-183.2553,23.3605,-11.8646,-72.4784,49.7031,11.8646,
26.1267,34.4871,-9.4058,9.4058,-110.8388,-225.7955,-118.8305,21.9464,-198.2553,14.6308,-26.8646,-87.4784,36.5777,11.4964,
11.1267,30.8298,-24.4058,-5.5942,-95.8388,-210.7955,-103.8305,26.6496,-183.2553,18.2891,-11.8646,-72.4784,27.6944,15.1537,
-3.8733,15.8298,-39.4058,-20.5942,-80.8388,-195.7955,-88.8305,11.6496,-168.2553,3.2891,3.1354,-57.4784,12.6944,0.15369,
11.1267,21.9459,-25.0814,-5.5942,-65.8388,-180.7955,-73.8305,9.4053,-153.2553,-10.4511,18.1354,-42.4784,27.6944,-6.2708,
22.9912,36.9459,-10.0814,4.1807,-80.8388,-195.7955,-88.8305,24.4053,-168.2553,4.5489,3.1354,-57.4784,42.6944,8.7292,
37.0996,50.6851,-7.838,7.838,-95.8388,-210.7955,-103.8305,31.8746,-183.2553,19.5489,-11.8646,-72.4784,40.235,19.3339,
22.4693,47.5507,-17.2433,17.2433,-80.8388,-225.7955,-88.8305,38.1444,-168.2553,34.5489,-21.4235,-66.3612,43.3705,18.2891,
7.4693,32.5507,-32.2433,2.2433,-65.8388,-210.7955,-73.8305,23.1444,-153.2553,19.5489,-6.4235,-51.3612,28.3705,3.2891,
8.8829,17.5507,-35.01,-12.7567,-50.8388,-195.7955,-58.8305,8.1444,-138.2553,4.5489,8.5765,-36.3612,19.3339,-0.5224,
21.424,32.5507,-20.01,2.2433,-65.8388,-210.7955,-73.8305,23.1444,-153.2553,19.5489,-6.4235,-51.3612,34.3339,14.4776,
30.8288,47.5507,-12.0183,12.0183,-80.8388,-225.7955,-88.8305,38.1444,-168.2553,34.5489,-21.4235,-66.3612,49.3339,29.4776,
28.2168,53.2981,-8.3605,8.3605,-95.8388,-240.7955,-103.8305,37.622,-183.2553,43.8929,-36.4235,-81.3612,64.3339,43.8929,
13.2168,38.2981,-23.3605,-6.6395,-80.8388,-225.7955,-88.8305,22.622,-168.2553,28.8929,-21.4235,-66.3612,49.3339,28.8929,
7.838,23.2981,-38.3605,-20.3787,-65.8388,-210.7955,-73.8305,7.622,-153.2553,13.8929,-6.4235,-51.3612,34.3339,13.8929,
13.586,38.2981,-23.3605,-9.4058,-76.2899,-195.7955,-73.1544,22.622,-157.8048,28.8929,8.5765,-36.3612,48.0726,28.8929,
28.586,53.2981,-10.4511,5.5942,-91.2899,-210.7955,-88.1544,37.622,-172.8048,43.8929,-6.4235,-51.3612,56.4335,36.5772,
37.622,48.0731,-11.4959,14.6313,-106.2899,-225.7955,-103.1544,31.3522,-187.8048,43.8929,-21.4235,-66.3612,49.1179,21.5772,
22.622,33.0731,-26.4959,-0.36871,-91.2899,-210.7955,-88.1544,16.3522,-172.8048,49.1174,-6.4235,-51.3612,34.1179,14.6308,
35.5324,37.622,-16.7209,-12.5407,-76.2899,-195.7955,-73.1544,31.3522,-157.8048,34.4876,4.1802,-36.3612,44.9377,10.4511,
20.5324,35.5319,-31.7209,-27.5407,-61.2899,-180.7955,-58.1544,16.3522,-142.8048,41.8018,19.1802,-21.3612,29.9377,2.0901,
19.3329,50.5319,-22.4693,-12.5407,-76.2899,-181.3189,-73.1544,16.1985,-157.8048,56.8018,4.1802,-6.3612,26.6486,17.0901,
34.3329,41.8028,-7.4693,2.4593,-91.2899,-196.3189,-88.1544,31.1985,-172.8048,55.3882,-10.8198,-21.3612,41.6486,15.6766,
19.3329,39.1897,-22.4693,-12.5407,-106.2899,-181.3189,-102.9389,16.1985,-157.8048,70.3882,4.1802,-6.3612,26.6486,21.423,
34.3329,44.4148,-7.4693,2.4593,-121.2899,-196.3189,-117.9389,26.6491,-172.8048,55.3882,-10.8198,-21.3612,40.2346,8.8834,
19.3329,29.4148,-22.4693,-12.5407,-106.2899,-181.3189,-102.9389,11.6491,-157.8048,48.0731,4.1802,-6.3612,25.2346,18.8115,
4.3329,29.2621,-37.4693,-27.5407,-91.2899,-166.3189,-87.9389,-3.3509,-142.8048,52.2538,19.1802,8.6388,10.2346,3.8115,
19.3329,44.2621,-22.4693,-12.5407,-106.2899,-181.3189,-102.9389,11.6491,-157.8048,49.6403,4.1802,-6.3612,25.2346,8.8829,
34.3329,59.2621,-7.4693,2.4593,-121.2899,-196.3189,-117.9389,26.6491,-172.8048,64.6403,-10.8198,-21.3612,40.2346,23.8829,
43.8924,50.1632,-5.2255,5.2255,-136.2899,-211.3189,-132.9389,19.8558,-187.8048,50.1632,-25.8198,-36.3612,39.7121,10.4506,
28.8924,39.7121,-20.2255,-9.7745,-121.2899,-196.3189,-117.9389,9.4058,-172.8048,38.6673,-10.8198,-21.3612,27.1715,-4.5494,
13.8924,24.7121,-35.2255,-24.7745,-106.2899,-181.3189,-102.9389,-5.5942,-157.8048,23.6673,4.1802,-6.3612,12.1715,-19.5494,
28.8924,39.7121,-20.2255,-9.7745,-92.4879,-166.3189,-87.9389,9.4058,-142.8048,19.3334,3.6573,-21.3612,27.1715,-6.7927,
25.6038,54.7121,-5.2255,3.6578,-107.4879,-181.3189,-102.9389,24.4058,-157.8048,34.3334,-11.3427,-36.3612,42.1715,8.2073,
40.6038,64.2711,-4.7031,9.9282,-122.4879,-196.3189,-117.9389,29.7845,-172.8048,49.3334,-26.3427,-51.3612,46.5054,4.7031,
28.2168,53.2981,-18.8115,-5.0718,-107.4879,-181.3189,-102.9389,27.172,-157.8048,52.2533,-11.3427,-36.3612,35.5324,7.3156,
13.2168,38.2981,-33.8115,-20.0718,-92.4879,-166.3189,-87.9389,12.172,-142.8048,37.2533,3.6573,-21.3612,20.5324,-7.6844,
26.1267,30.3069,-18.8115,-6.2703,-77.4879,-151.3189,-72.9389,6.2703,-127.8048,22.2533,18.6573,-6.3612,28.2173,-22.6844,
25.6043,45.3069,-6.7927,6.7927,-92.4879,-166.3189,-87.9389,21.2703,-142.8048,37.2533,3.6573,-21.3612,43.2173,-7.6844,
40.6043,60.3069,-4.1807,4.1807,-107.4879,-181.3189,-102.9389,36.2703,-157.8048,52.2533,-11.3427,-36.3612,40.7579,7.3156,
41.2804,63.2263,-1.5677,1.5677,-92.4879,-192.8143,-91.4431,29.7845,-170.8679,46.5054,-20.3792,-51.3612,43.37,6.7927,
26.2804,48.2263,-16.5677,-13.4323,-77.4879,-177.8143,-76.4431,14.7845,-155.8679,31.5054,-5.3792,-36.3612,28.37,-8.2073,
26.6491,33.2263,-31.5677,-24.5594,-62.4879,-162.8143,-61.4431,-0.21552,-140.8679,16.5054,9.6208,-21.3612,13.37,-23.2073,
37.1001,48.2263,-16.5677,-9.5594,-77.4879,-177.8143,-76.4431,14.7845,-155.8679,31.5054,-5.3792,-36.3612,28.37,-8.2073,
42.8471,63.2263,-3.1354,3.1354,-92.4879,-192.8143,-91.4431,28.2168,-170.8679,46.5054,-20.3792,-51.3612,43.37,6.7927,
43.8924,57.4789,-6.2703,6.2703,-107.4879,-207.8143,-106.4431,27.1715,-185.8679,56.433,-35.3792,-66.3612,47.0278,16.7214,
28.8924,42.4789,-21.2703,-8.7297,-92.4879,-192.8143,-91.4431,12.1715,-170.8679,41.433,-20.3792,-51.3612,32.0278,1.7214,
42.3252,41.2804,-20.3792,-15.1532,-77.4879,-177.8143,-76.4431,14.1084,-155.8679,26.433,-5.3792,-36.3612,22.4688,-13.2786,
27.3252,56.2804,-19.8563,-7.3156,-88.8305,-162.8143,-91.4431,21.9459,-147.3537,41.433,7.3156,-21.3612,21.9459,1.7214,
32.9199,71.2804,-4.8563,4.7031,-103.8305,-177.8143,-106.4431,22.4688,-162.3537,56.433,-7.6844,-36.3612,26.6491,16.7214,
47.0278,61.6591,-6.2703,6.2703,-118.8305,-192.8143,-121.4431,25.0819,-177.3537,41.433,-22.6844,-51.3612,30.3069,9.4058,
32.0278,61.6586,-21.2703,-8.7297,-103.8305,-177.8143,-106.4431,10.0819,-162.3537,53.2981,-7.6844,-36.3612,15.3069,0,
47.0278,61.6591,-6.2703,2.0901,-88.8305,-162.8143,-91.4431,12.5412,-158.8491,38.2981,2.0901,-21.3612,29.2621,-13.586,
32.0278,46.6591,-21.2703,-12.9099,-73.8305,-147.8143,-76.4431,-2.4588,-143.8491,36.5767,17.0901,-6.3612,14.2621,1.414,
40.757,61.6591,-12.5412,2.0901,-87.7852,-148.399,-67.9294,12.5412,-158.8491,51.5767,2.0901,-2.0901,26.1267,16.414,
55.757,71.5867,2.4588,16.199,-102.7852,-163.399,-82.9294,26.6491,-173.8491,42.3252,-12.9099,-17.0901,38.1449,1.414,
40.757,86.5867,-5.2255,1.199,-87.7852,-155.7147,-67.9294,28.2163,-158.8491,57.3252,2.0901,-13.586,33.4423,16.414,
47.5502,71.5867,-2.6125,6.7927,-102.7852,-170.7147,-82.9294,23.5136,-173.8491,42.3252,-12.9099,-28.586,28.7387,2.6125,
32.5502,56.5867,-17.6125,-8.2073,-87.7852,-155.7147,-67.9294,8.5136,-158.8491,34.4866,2.0901,-13.586,13.7387,1.0448,
17.5502,45.9825,-32.6125,-23.2073,-72.7852,-140.7147,-52.9294,-6.4864,-143.8491,38.6678,17.0901,1.414,-1.2613,-4.1802,
32.5502,60.9825,-17.6125,-8.2073,-87.7852,-155.7147,-67.9294,8.5136,-158.8491,35.5319,2.0901,-13.586,13.7387,2.0901,
43.3705,75.9825,-7.838,6.7927,-101.8936,-170.7147,-82.9294,23.5136,-173.8491,50.5319,-12.9099,-28.586,28.7387,17.0901,
51.7304,71.5867,-5.7479,5.7479,-116.8936,-185.7147,-97.9294,16.198,-188.8491,45.4596,-27.9099,-43.586,40.2345,12.0178,
36.7304,56.5867,-20.7479,-9.2521,-101.8936,-170.7147,-82.9294,2.0901,-173.8491,37.6225,-12.9099,-28.586,25.2345,-2.0901,
21.7304,41.5867,-35.7479,-24.2521,-86.8936,-155.7147,-67.9294,-12.9099,-158.8491,22.6225,2.0901,-13.586,10.2345,-17.0901,
36.7304,56.5867,-20.7479,-9.2521,-79.9472,-140.7147,-77.8571,2.0901,-143.8491,37.6225,2.6125,-9.9282,25.2345,-6.7927,
37.0996,71.5867,-7.838,5.7479,-94.9472,-155.7147,-92.8571,17.0901,-158.8491,52.6225,-12.3875,-24.9282,33.9652,8.2073,
52.0996,78.3805,-4.1802,4.1802,-109.9472,-170.7147,-107.8571,26.1272,-173.8491,60.6138,-27.3875,-39.9282,24.0365,5.226,
41.2799,68.4518,-13.0631,-3.6578,-94.9472,-185.7147,-92.8571,17.2433,-158.8491,56.9559,-12.3875,-28.7392,28.7392,3.6578,
26.2799,53.4518,-28.0631,-18.6578,-79.9472,-170.7147,-77.8571,2.2433,-143.8491,41.9559,2.6125,-13.7392,13.7392,-11.3422,
36.5767,47.0278,-14.6308,-9.4058,-71.0643,-155.7147,-62.8571,6.2703,-128.8491,30.3069,17.6125,1.2608,15.6756,-24.037,
42.8481,62.0278,-1.0448,1.0448,-86.0643,-170.7147,-77.8571,21.2703,-143.8491,45.3069,2.6125,-13.7392,30.6756,-9.037,
44.9377,72.1096,-5.225,5.225,-101.0643,-185.7147,-92.8571,22.9917,-158.8491,59.569,-12.3875,-28.7392,41.8023,5.963,
29.9377,64.2711,-5.7479,5.7479,-116.0643,-200.7147,-93.5337,24.5585,-173.8491,56.9555,-27.3875,-43.7392,42.3252,18.2886,
14.9377,49.2711,-20.7479,-9.2521,-101.0643,-185.7147,-78.5337,9.5585,-158.8491,41.9555,-12.3875,-28.7392,27.3252,3.2886,
29.9377,53.2981,-27.172,-8.3605,-86.0643,-170.7147,-63.5337,8.3605,-143.8491,26.9555,2.6125,-13.7392,15.6761,-11.7114,
43.3695,68.2981,-12.172,3.6578,-101.0643,-185.7147,-78.5337,23.3605,-158.8491,41.9555,-12.3875,-28.7392,30.6761,3.2886,
45.983,83.2981,-2.0901,2.0901,-116.0643,-200.7147,-93.5337,13.586,-173.8491,56.9555,-27.3875,-43.7392,39.7121,18.2886,
50.1627,76.2899,-5.225,6.2708,-131.0643,-215.7147,-108.5337,17.7657,-188.8491,47.0283,-42.3875,-58.7392,24.7121,5.225,
35.1627,61.2899,-20.225,-8.7292,-116.0643,-200.7147,-93.5337,2.7657,-173.8491,32.0283,-27.3875,-43.7392,9.7121,-9.775,
46.5059,52.7757,-15.1527,-21.4235,-101.0643,-185.7147,-78.5337,3.6578,-158.8491,20.3787,-12.3875,-28.7392,22.4693,-13.0631,
33.4423,67.7757,-26.1267,-10.4506,-86.0643,-170.7147,-65.8393,18.6578,-160.9397,35.3787,2.6125,-29.2621,33.4423,1.9369,
48.4423,82.7757,-11.1267,4.5494,-101.0643,-185.7147,-80.8393,33.6578,-175.9397,50.3787,-12.3875,-44.2621,38.1449,16.9369,
52.2533,75.2451,-4.1802,4.1802,-116.0643,-200.7147,-95.8393,24.0365,-190.9397,53.2981,-27.3875,-59.2621,39.7126,6.2708,
37.2533,66.3617,-19.1802,-10.8198,-101.0643,-185.7147,-80.8393,9.0365,-175.9397,68.2981,-12.3875,-44.2621,24.7126,18.2886,
52.2533,73.1549,-5.2255,4.1802,-86.0643,-175.5705,-76.2894,20.9016,-183.9309,53.2981,-13.586,-29.2621,36.5777,14.6308,
37.2533,58.1549,-20.2255,-10.8198,-71.0643,-160.5705,-61.2894,5.9016,-168.9309,45.4601,1.414,-14.2621,21.5777,9.9287,
42.3257,73.1549,-12.0183,-12.0183,-86.0643,-145.5705,-46.2894,12.0183,-153.9309,60.4601,-3.6578,0.73792,35.01,18.2891,
53.2981,82.5597,0,2.9817,-101.0643,-160.5705,-61.2894,27.0183,-168.9309,52.2533,-18.6578,-14.2621,50.01,3.2891,
38.2981,97.5597,-7.3156,1.0448,-86.0643,-175.5705,-60.6138,25.0814,-183.9309,67.2533,-3.6578,-27.172,47.0273,18.2891,
53.2981,82.5597,-3.1354,3.1354,-101.0643,-190.5705,-75.6138,18.8105,-198.9309,52.2533,-18.6578,-42.172,35.5314,13.5855,
38.2981,67.5597,-18.1354,-11.8646,-86.0643,-175.5705,-60.6138,3.8105,-183.9309,47.0283,-3.6578,-27.172,20.5314,0,
23.2981,52.5597,-33.1354,-26.8646,-71.0643,-160.5705,-45.6138,-11.1895,-168.9309,48.595,11.3422,-12.172,5.5314,-15,
38.2981,67.5597,-18.1354,-11.8646,-86.0643,-175.5705,-60.6138,3.8105,-183.9309,54.3434,-3.6578,-27.172,20.5314,0,
53.2981,82.5597,-3.1354,-5.7479,-101.0643,-190.5705,-75.6138,18.8105,-198.9309,69.3434,-18.6578,-42.172,35.5314,15,
66.8836,82.5597,2.0906,-2.0906,-116.0643,-205.5705,-90.6138,18.8115,-213.9309,54.3434,-33.6578,-57.172,38.6668,16.7209,
51.8836,67.5597,-12.9094,-13.5855,-101.0643,-190.5705,-75.6138,3.8115,-198.9309,41.8023,-18.6578,-42.172,23.6668,1.7209,
36.8836,52.5597,-27.9094,-28.5855,-86.0643,-175.5705,-60.6138,-11.1885,-183.9309,26.8023,-3.6578,-27.172,8.6668,-13.2791,
51.8836,63.7487,-12.9094,-13.5855,-87.7852,-160.5705,-63.7492,3.8115,-168.9309,27.1715,3.1349,-12.172,23.6668,1.7209,
49.6403,78.7487,2.0906,-3.6578,-102.7852,-175.5705,-78.7492,18.8115,-183.9309,42.1715,-11.8651,-27.172,38.6668,16.7209,
60.0914,79.9477,3.6578,-3.6578,-117.7852,-190.5705,-93.7492,21.4235,-198.9309,57.1715,-26.8651,-42.172,44.4153,3.6578,
51.7309,72.632,-6.7932,-8.8829,-102.7852,-175.5705,-87.2628,18.2881,-183.9309,64.2716,-11.8651,-27.172,32.9194,6.7932,
36.7309,57.632,-21.7932,-23.8829,-87.7852,-160.5705,-72.2628,3.2881,-168.9309,49.2716,3.1349,-12.172,17.9194,-8.2068,
47.5502,63.2263,-14.1084,-15.1532,-72.7852,-145.5705,-57.2628,6.7927,-153.9309,36.0553,18.1349,2.828,24.5594,-9.9282,
43.8919,78.2263,0.89161,-4.1802,-87.7852,-160.5705,-72.2628,21.7927,-168.9309,51.0553,3.1349,-12.172,39.5594,5.0718,
56.434,88.831,2.0901,-2.0901,-102.7852,-175.5705,-87.2628,9.4058,-183.9309,58.5237,-11.8651,-27.172,34.4871,19.8568,
53.82,90.3973,-2.6125,2.6125,-117.7852,-190.5705,-99.804,20.3782,-198.9309,60.0909,-26.8651,-42.172,31.8741,7.8375,
38.82,75.3973,-17.6125,-12.3875,-102.7852,-175.5705,-84.804,5.3782,-183.9309,45.0909,-11.8651,-27.172,16.8741,-7.1625,
43.37,60.3973,-15.1532,-15.1532,-87.7852,-160.5705,-69.804,-5.7479,-168.9309,40.2345,3.1349,-12.172,15.1532,-14.1084,
39.7126,75.3973,-1.0448,-0.15319,-89.8754,-175.5705,-84.804,9.2521,-183.9309,55.2345,-11.8651,-27.172,30.1532,0.89161,
54.7126,90.3973,-2.613,2.613,-104.8754,-190.5705,-99.804,22.4693,-198.9309,70.2345,-26.8651,-42.172,33.9642,15.8916,
59.569,75.3973,-1.0448,1.0448,-119.8754,-205.5705,-114.804,12.5407,-213.9309,55.3887,-41.8651,-57.172,29.2616,4.1802,
44.569,60.3973,-16.0448,-13.9552,-104.8754,-190.5705,-99.804,-2.4593,-198.9309,40.3887,-26.8651,-42.172,14.2616,-10.8198,
51.7304,59.0461,-13.0636,-19.3334,-89.8754,-175.5705,-84.804,-2.6125,-183.9309,25.6043,-11.8651,-27.172,15.1532,-17.2438,
52.7757,74.0461,0.5224,-7.838,-74.8754,-179.2283,-86.218,12.3875,-170.8678,40.6043,-0.5224,-22.4693,27.6944,-2.2438,
67.7757,89.0461,3.1354,-3.1354,-89.8754,-194.2283,-101.218,14.6313,-185.8678,55.6043,-15.5224,-37.4693,20.9011,12.7562,
82.7757,93.0108,3.1354,-3.1354,-104.8754,-209.2283,-116.218,18.8105,-200.8678,44.9377,-30.5224,-52.4693,30.3064,4.1802,
67.7757,98.2358,-11.8646,-18.1354,-89.8754,-194.2283,-101.218,3.8105,-185.8678,59.9377,-15.5224,-37.4693,15.3064,0,
82.7757,113.2358,3.1354,-3.1354,-74.8754,-179.2283,-86.218,16.7204,-198.5622,44.9377,-30.5224,-52.4693,27.1715,-13.586,
78.9019,98.7582,-5.7474,-14.1089,-59.8754,-164.2283,-71.218,1.7204,-183.5622,41.2799,-15.5224,-37.4693,12.1715,-4.7026,
93.9019,113.7582,9.2526,-15.6756,-44.8754,-149.2283,-56.218,2.0901,-168.5622,41.8028,-10.4506,-41.8028,13.586,-2.0901,
108.9019,128.7582,24.2526,-0.6756,-35.5324,-164.2283,-71.218,17.0901,-183.5622,26.8028,-25.4506,-56.8028,28.586,-16.7209,
105.5509,134.8135,21.9464,-11.4954,-20.5324,-179.2283,-83.605,2.0901,-198.5622,41.8028,-40.4506,-71.8028,17.7662,-1.7209,
120.5509,136.9026,36.9464,3.5046,-19.8563,-194.2283,-98.605,12.5407,-213.5622,39.7126,-55.4506,-86.8028,32.7662,-12.5407,
105.5509,121.9026,21.9464,-11.4954,-4.8563,-179.2283,-83.605,-2.4593,-198.5622,24.7126,-40.4506,-71.8028,17.7662,-27.5407,
90.5509,106.9026,6.9464,-26.4954,10.1437,-164.2283,-68.605,-17.4593,-183.5622,10.9735,-25.4506,-56.8028,2.7662,-42.5407,
105.5509,98.7582,21.9464,-11.4954,25.1437,-179.2283,-59.0456,-2.613,-198.5622,8.8829,-40.4506,-71.8028,16.1985,-37.0996,
112.8661,111.8213,15.6751,-16.7219,40.1437,-194.2283,-74.0456,-8.3605,-213.5622,23.8829,-55.4506,-86.8028,19.8553,-22.0996,
127.8661,123.8406,30.6751,-1.7219,25.1437,-209.2283,-89.0456,6.6395,-228.5622,38.8829,-70.4506,-101.8028,34.8553,-12.0183,
112.8661,108.8406,18.2881,-16.7219,40.1437,-194.2283,-74.0456,-8.3605,-213.5622,23.8829,-55.4506,-86.8028,19.8553,-27.0183,
97.8661,93.8406,3.2881,-31.7219,55.1437,-179.2283,-59.0456,-23.3605,-198.5622,8.8829,-40.4506,-71.8028,4.8553,-42.0183,
112.8661,93.5332,18.2881,-16.7219,70.1437,-177.1382,-44.0456,-8.3605,-183.5622,13.0631,-25.4506,-56.8028,19.8553,-38.1444,
116.002,108.5332,19.8558,-13.586,55.1437,-192.1382,-59.0456,-1.0453,-198.5622,28.0631,-40.4506,-71.8028,33.4413,-23.1444,
131.002,123.5332,34.8558,1.414,40.1437,-207.1382,-74.0456,13.0636,-213.5622,43.0631,-55.4506,-86.8028,48.4413,-13.0636,
117.0468,108.5332,30.3069,-10.4506,55.1437,-212.1482,-59.0456,-1.9364,-228.5622,28.0631,-41.8028,-93.0108,33.4413,-28.0636,
102.0468,93.5332,15.3069,-25.4506,70.1437,-197.1482,-44.0456,-16.9364,-213.5622,13.0631,-26.8028,-78.0108,18.4413,-43.0636,
117.0468,78.5332,19.3334,-16.198,85.1437,-182.1482,-29.0456,-23.5136,-198.5622,-1.9369,-11.8028,-63.0108,17.2438,-58.0636,
115.4791,93.5332,34.3334,-1.198,70.1437,-197.1482,-44.0456,-8.5136,-213.5622,13.0631,-26.8028,-78.0108,32.2438,-43.0636,
130.4791,108.5332,49.3334,9.9282,55.1437,-212.1482,-59.0456,6.4864,-228.5622,28.0631,-41.8028,-93.0108,38.1449,-28.0636,
128.5427,93.5332,34.3334,3.1349,42.8476,-227.1482,-74.0456,-3.1349,-243.5622,35.5319,-56.8028,-108.0108,35.5319,-14.6308,
113.5427,78.5332,19.3334,-11.8651,57.8476,-212.1482,-59.0456,-18.1349,-228.5622,20.5319,-41.8028,-93.0108,20.5319,-29.6308,
103.4613,73.1549,17.7662,-16.7204,72.8476,-197.1482,-44.0456,-26.1267,-213.5622,5.5319,-26.8028,-78.0108,19.8568,-44.6308,
93.5332,88.1549,19.3339,-12.0183,57.8476,-212.1482,-59.0456,-11.1267,-228.5622,20.5319,-41.8028,-93.0108,34.8568,-29.6308,
108.5332,97.7139,31.8751,-2.6125,42.8476,-227.1482,-74.0456,3.8733,-243.5622,35.5319,-56.8028,-108.0108,49.8568,-14.6308,
123.5332,92.4879,40.2355,4.7031,27.8476,-242.1482,-89.0456,14.1084,-258.5622,31.8741,-71.8028,-123.0108,55.9106,-7.8376,
108.5332,77.4879,25.2355,-10.2969,42.8476,-227.1482,-74.0456,-0.89161,-243.5622,20.9011,-56.8028,-108.0108,40.9106,-22.8376,
111.8223,68.9742,19.8563,-12.5407,57.8476,-224.6884,-59.0456,-15.8916,-228.5622,18.8115,-41.8028,-93.0108,31.3522,-33.4418,
96.8223,83.9742,15.1532,-15.1532,72.6315,-233.5712,-44.0456,-6.7927,-213.5622,33.8115,-26.8028,-78.0108,39.1897,-18.4418,
105.5514,98.9742,30.1532,-1.0448,57.6315,-248.5712,-59.0456,4.1802,-228.5622,48.8115,-41.8028,-93.0108,51.2085,-3.4418,
119.6598,93.5327,35.0095,9.9282,42.6315,-263.5712,-74.0456,10.973,-243.5622,47.5502,-56.8028,-108.0108,64.2711,-9.9282,
104.6598,78.5327,20.0095,-5.0718,45.983,-248.5712,-59.0456,-4.027,-228.5622,61.6581,-41.8028,-93.0108,49.2711,5.0718,
107.6411,78.3795,33.4418,4.1802,30.983,-263.5712,-74.0456,3.1354,-243.5622,46.6581,-56.8028,-86.7404,43.8929,-3.1354,
92.6411,63.3795,18.4418,-10.8198,45.983,-248.5712,-59.0456,-11.8646,-228.5622,31.6581,-41.8028,-71.7404,28.8929,-18.1354,
77.6411,58.5237,3.4418,-25.8198,40.757,-233.5712,-44.0456,-26.8646,-213.5622,26.1267,-26.8028,-56.7404,13.8929,-21.9464,
92.6411,73.5237,18.4418,-10.8198,25.757,-248.5712,-59.0456,-11.8646,-228.5622,32.9199,-41.8028,-71.7404,28.8929,-6.9464,
77.8576,88.5237,19.3334,-10.973,10.757,-263.5712,-74.0456,3.1354,-243.5622,47.9199,-56.8028,-86.7404,43.8929,8.0536,
92.8576,93.0108,29.2616,4.027,-4.243,-278.5712,-89.0456,14.6313,-258.5622,48.0731,-71.8028,-101.7404,58.8929,-4.1802,
77.8576,78.0108,14.2616,-10.973,10.757,-263.5712,-74.0456,-0.36871,-243.5622,48.5955,-56.8028,-86.7404,43.8929,-9.9277,
62.8576,63.0108,-0.73842,-25.973,25.757,-248.5712,-59.0456,-15.3687,-228.5622,33.5955,-41.8028,-71.7404,28.8929,-24.9277,
77.8576,74.1998,14.2616,-10.973,10.757,-263.5712,-74.0456,-0.36871,-213.5622,43.8924,-44.9377,-61.6586,43.8929,-9.9277,
69.4966,89.1998,14.1089,-7.838,-4.243,-278.5712,-89.0456,7.838,-228.5622,58.8924,-59.9377,-76.6586,58.0008,5.0723,
84.4966,85.6956,22.9912,2.0901,-19.243,-293.5712,-104.0456,11.4964,-243.5622,58.5237,-74.9377,-91.6586,59.5685,-2.0901,
69.4966,70.6956,7.9912,-12.9099,-4.243,-278.5712,-89.0456,2.0901,-228.5622,45.983,-59.9377,-76.6586,44.5685,-12.5402,
54.4966,55.6956,-7.0088,-27.9099,10.757,-263.5712,-74.0456,-12.9099,-213.5622,30.983,-44.9377,-61.6586,29.5685,-27.5402,
69.4966,66.3617,6.7927,-17.2438,-4.243,-248.5712,-59.0456,1.5677,-198.5622,42.3252,-29.9377,-46.6586,44.5685,-13.0636,
74.7227,81.3617,17.2433,-17.2433,-19.243,-263.5712,-74.0456,16.5677,-213.5622,57.3252,-44.9377,-61.6586,59.5685,1.9364,
