"AF3","AF4","F3","F4","F7","F8","FC5","FC6","O1","O2","P7","P8","T7","T8",
9.6168,15.3862,-5.7694,15.3862,-28.8496,0,11.5397,0,-27.8873,-1.9228,-15.3862,23.0793,-14.4248,2.8851,
-5.3832,4.8089,3.8466,9.6168,-43.8496,-15,-3.4603,10.5782,-12.8873,13.0772,-7.6931,20.1951,-4.808,11.5406,
-20.3832,13.4634,-11.1534,-5.3832,-40.3892,-8.6545,8.6545,-0.96141,2.1127,0.96141,3.8466,35.1951,-19.808,3.8466,
-5.3832,19.2332,-0.96187,9.6168,-55.3892,-23.6545,-6.3455,14.0386,-12.8873,2.8847,-11.1534,20.1951,-4.808,7.6926,
-12.9818,4.2332,-8.1738,-5.3832,-40.3892,-8.6545,8.6545,-0.96141,2.1127,0.4807,3.8466,31.254,-14.9055,12.0204,
2.0182,18.2713,-3.8466,3.8466,-55.3892,-23.6545,7.6931,7.6931,-12.8873,-14.5193,-11.1534,19.2328,-17.3099,10.5782,
-11.5401,3.2713,-0.96187,5.7698,-65.3918,-8.655,3.847,12.5015,-27.8873,-5.7698,-18.2709,15.3867,-2.3099,14.4243,
-19.7135,1.4421,-15.8669,-9.1352,-50.3918,6.345,18.847,-2.4985,-12.8873,-1.4421,-3.2709,29.3303,-17.3099,3.3658,
-4.7135,15.3867,-0.86691,5.8648,-65.3918,-8.655,3.847,12.5015,-27.8873,0.96187,-18.2709,14.3303,-2.3099,5.7698,
-12.9827,0.4807,-1.443,-4.3273,-50.3918,6.345,18.847,7.2124,-12.8873,0.4807,-5.2896,18.752,-3.3658,14.9055,
2.0173,13.4625,0.96141,10.6727,-35.3918,-8.655,25.9644,17.309,-25.003,-0.96141,-20.2896,3.752,-2.8851,14.4248,
-3.8466,3.8466,11.5397,14.4248,-50.3918,-23.655,10.9644,25.9644,-14.4248,13.4625,-16.3485,-11.248,5.7694,14.4248,
-18.8466,0.4807,-3.4603,-0.57521,-50.4868,-8.655,22.5986,10.9644,0.57521,-0.4807,-1.3485,3.752,-9.2306,0.4807,
-3.8466,6.7317,0,14.4248,-65.4868,-23.655,7.5986,7.6931,-14.4248,0,-16.3485,-11.248,-3.8465,8.6545,
-16.3481,-8.2683,-5.7698,-0.57521,-50.4868,-8.655,22.5986,0.96187,0.57521,8.655,-1.3485,-0.96187,-13.4629,8.655,
-1.3481,6.7317,-9.1357,3.3654,-35.4868,1.4426,7.5986,12.0208,0.48116,4.3277,-16.3485,-4.3277,-21.6367,-0.48116,
-3.8466,15.3862,5.7694,14.4248,-49.0437,-13.5574,-7.4014,23.0793,-14.5188,9.6159,-31.3485,-19.3277,-6.6367,11.5397,
-18.8466,7.6936,-9.2306,-0.57521,-34.0437,1.4426,7.5986,8.0793,0.48116,1.9233,-16.3485,-4.3277,-18.2709,14.4243,
-3.8466,12.0204,5.7694,14.4248,-49.0437,-13.5574,3.3658,15.8669,-14.5188,-3.3658,-31.3485,-19.3277,-11.0589,17.7906,
-10.5782,-2.8851,2.8851,-0.57521,-34.0437,1.4426,18.3658,4.808,-4.808,0.96141,-16.3485,-4.3277,-8.6554,13.4625,
-0.96187,12.1149,-7.6926,0.96187,-19.0437,16.4426,33.3658,3.847,-19.808,-5.7698,-31.3485,10.6723,-19.2323,-0.96187,
1.4426,12.0199,7.3074,12.9822,-34.0437,1.4426,18.3658,15.8664,-34.808,-1.4426,-46.3485,-4.3277,-10.098,7.2119,
-13.5574,6.2501,-0.4807,-2.0178,-23.56,16.4426,33.3658,0.86645,-19.808,0.4807,-31.3485,10.6723,-20.6758,8.1738,
1.4426,21.2501,9.1357,12.9822,-33.1764,1.4426,18.3658,15.8664,-34.808,-3.3654,-46.3485,-4.3277,-5.6758,8.1743,
-8.1738,7.2124,4.3273,-2.0178,-18.1764,16.4426,7.2124,7.2124,-19.808,-3.3658,-44.7165,-6.251,-12.0204,2.4044,
-3.8466,19.2328,-0.96141,2.8851,-3.1764,16.3485,16.3485,-7.6931,-5.7694,0.96141,-33.6575,8.749,-27.0204,-4.808,
0.4807,9.1361,4.3282,17.8851,5.2896,1.3485,1.3485,6.251,-20.7694,1.443,-48.6575,-6.251,-12.0204,-0.4807,
-12.5006,7.6936,-1.9233,2.8851,20.2896,16.3485,16.3485,1.9233,-5.7694,-2.8847,-33.6575,-4.8075,-15.3857,5.7698,
2.4994,22.6936,5.7703,10.5782,35.2896,1.3485,9.6168,16.3476,-20.7694,-15.3862,-48.6575,-19.8075,-10.5782,-5.7703,
-6.2505,8.1743,2.404,4.3277,50.2896,-13.6515,24.6168,6.2505,-28.3684,-6.2505,-33.6575,-34.8075,0.48116,-0.48116,
-4.3273,15.8669,-12.0204,0.4807,63.9492,1.3485,39.6168,-0.4807,-13.3684,-6.251,-18.6575,-19.8075,-14.5188,0.4807,
6.2505,6.2505,2.9796,12.9822,48.9492,-13.6515,24.6168,14.5193,-28.3684,2.404,-33.6575,-34.8075,-0.48116,0.48116,
-8.7495,0,-5.7694,-2.0178,51.9289,1.3485,39.6168,2.8851,-13.3684,0,-18.6575,-28.8496,-12.5011,2.8851,
2.8851,15,-8.6545,0.96141,36.9289,-0.96141,24.6168,5.7703,-28.3684,-15,-33.6575,-43.8496,-13.4625,3.8465,
-6.2505,0,6.2505,1.4426,47.6012,0.48116,39.6168,4.3277,-43.3684,-11.0594,-40.8695,-48.563,-0.48116,15.8674,
-7.6926,2.8847,1.9233,-2.8847,62.6012,15.4812,54.6168,1.9233,-28.3684,-12.5015,-25.8695,-33.563,-15.4812,12.5015,
0.48116,-0.48116,0.48116,5.2891,47.6012,0.48116,39.6168,13.9436,-43.3684,-27.407,-40.8695,-48.563,-8.1743,4.3277,
-3.3658,7.2124,0.48071,-2.4044,62.6012,15.4812,54.6168,2.4035,-28.3684,-12.407,-25.8695,-33.563,-0.48071,14.9055,
9.6159,16.3476,-10.5782,9.6159,77.6012,2.8842,39.6168,0,-43.3684,-15.3871,-40.8695,-48.563,-11.5397,0,
-5.3841,1.3476,1.9237,3.8465,92.6012,0,27.8873,6.7317,-28.3684,-9.6168,-43.2739,-63.563,-2.8851,5.7703,
-0.4807,12.9827,0.4807,-4.3273,107.6012,15,42.8873,2.4044,-13.3684,-1.4421,-28.2739,-48.563,-16.8283,-6.251,
14.5193,10.098,5.2891,10.6727,92.6012,0,27.8873,13.9445,-28.3684,-12.0199,-43.2739,-63.563,-5.2891,-12.9822,
-0.4807,5.7703,10.5782,0.96141,107.6012,15,42.8873,-0.96141,-13.3684,-12.5011,-29.811,-62.5067,-5.7694,2.0178,
8.6545,18.2713,3.8466,7.6931,95.2033,9.6168,27.8873,-3.8466,-28.3684,-27.5011,-44.811,-77.5067,-20.7694,-12.5011,
-1.4426,3.2713,8.1743,7.2119,102.4152,10.0971,20.6753,11.0585,-43.3684,-26.4456,-59.811,-92.5067,-7.2129,-6.2505,
-5.2891,6.2505,2.404,-2.404,117.4152,25.0971,35.6753,2.404,-28.3684,-19.713,-44.811,-77.5067,-12.9822,4.3277,
9.7109,19.2328,17.404,12.596,102.4152,10.0971,20.6753,16.3485,-43.3684,-18.2713,-59.811,-92.5067,0,0,
-5.2891,6.7317,10.5782,0,117.4152,25.0971,35.6753,1.3485,-28.3684,-11.5397,-55.775,-77.5067,-10.5773,2.8851,
1.9237,14.4248,0,0,114.436,40.0971,27.8882,0.96141,-43.3684,-25.0021,-70.775,-85.586,-21.1556,-2.8851,
5.2896,0.4807,13.9441,9.1361,105.2999,26.4451,12.8882,15.9614,-58.3684,-21.6363,-85.775,-100.586,-6.1556,-0.4807,
-8.6541,3.847,3.847,-1.9233,120.2999,41.4451,27.8882,1.9233,-43.3684,-18.2709,-70.775,-85.586,-15.3857,2.8856,
3.8466,11.5397,6.7317,12.5011,135.2999,42.3121,12.8882,-2.8851,-58.3684,-29.811,-85.775,-100.586,-16.3476,2.8851,
-1.9233,14.4243,18.2709,1.9233,150.2999,57.3121,27.8882,-9.6164,-43.3684,-14.811,-75.9696,-99.0494,-6.7312,15.3867,
12.5011,27.8873,9.6168,4.808,165.2999,72.3121,37.5041,-4.808,-34.619,-25.003,-74.0468,-106.7425,-21.7312,0.38666,
1.9233,12.8873,14.4243,2.8847,150.2999,57.3121,22.5041,-1.9233,-49.619,-36.5431,-89.0468,-121.7425,-23.0798,-14.4253,
1.4421,20.6758,21.6372,-1.4421,165.2999,72.3121,37.5041,-10.0975,-34.619,-21.6372,-74.0468,-114.9163,-20.6749,0.57475,
14.906,25.4842,18.7525,13.5579,152.4204,57.3121,22.5041,-2.404,-49.619,-35.1001,-89.0468,-129.9163,-14.905,-5.2891,
-0.094045,10.4842,25.4837,10.0975,167.4204,72.3121,37.5041,-4.3273,-51.4482,-25.4837,-74.5275,-136.0728,-9.1352,4.3273,
-1.4426,18.7516,16.8288,4.3277,182.4204,75.4884,40.8695,-14.906,-54.3329,-35.1001,-88.9523,-146.6505,-24.1352,1.4426,
12.0208,12.0208,28.3684,18.7516,185.1165,60.4884,25.8695,0.094044,-69.3329,-27.407,-103.9523,-161.6505,-9.1352,-2.404,
2.8847,15.3867,27.8877,6.7312,200.1165,75.4884,40.8695,-2.8847,-54.3329,-17.3095,-88.9523,-146.6505,-15.3857,-5.7698,
7.6931,23.0793,20.1951,10.5782,185.1165,60.4884,25.8695,-7.6931,-69.3329,-32.3095,-103.9523,-161.6505,-29.811,-20.7698,
-0.96141,17.3099,32.6961,10.5782,200.1165,75.4884,26.9259,-5.7694,-54.3329,-29.811,-92.3177,-175.019,-14.811,-5.7698,
4.3277,17.7902,22.5991,10.0971,215.1165,90.4884,41.9259,-14.905,-39.9081,-29.3298,-78.374,-160.019,-22.5981,-4.3277,
5.7703,4.808,28.8496,18.2713,200.1165,75.4884,26.9259,-4.808,-54.9081,-29.811,-93.374,-175.019,-12.5011,-10.5782,
-9.2297,14.905,24.5219,3.2713,215.1165,90.4884,41.9259,-11.0594,-39.9081,-14.906,-78.374,-160.019,-17.7902,4.3268,
5.7703,25.9644,19.2328,14.4248,205.7918,75.4884,26.9259,-5.7694,-54.9081,-29.906,-93.374,-166.364,-25.9644,-2.8851,
-3.3658,10.9644,33.1768,6.251,214.928,66.8344,24.5223,-12.9818,-69.9081,-31.2531,-106.2613,-172.615,-18.752,5.2896,
-0.4807,17.7906,28.3689,1.443,229.3518,81.8344,39.5223,-22.5986,-67.7958,-39.9076,-97.6068,-157.615,-33.752,0.4807,
9.6164,24.0412,30.7729,16.443,214.3518,69.2384,24.5223,-7.5986,-82.7958,-44.2353,-112.6068,-172.615,-18.752,0.96187,
-5.3836,13.4638,25.9649,12.5015,229.3518,84.2384,39.5223,-14.4243,-67.7958,-29.2353,-102.8955,-157.615,-21.156,9.6164,
9.6164,28.4638,35.5808,27.5015,214.3518,69.2384,24.5223,-5.7698,-82.7958,-25.964,-117.8955,-172.615,-22.1174,5.7698,
2.404,16.8288,37.9853,24.5219,199.3518,66.8339,9.5223,-2.404,-78.374,-19.7139,-110.1083,-187.615,-9.1357,12.9822,
-10.0975,21.6372,22.9853,12.0204,214.3518,81.8339,24.5223,-16.8292,-63.374,-28.3689,-95.1083,-172.615,-24.1357,10.0975,
4.9025,20.1946,37.5046,27.0204,199.3518,66.8339,9.5223,-1.9233,-78.374,-37.5036,-110.1083,-187.615,-17.3095,1.9233,
-8.1743,17.7902,43.7546,21.6367,214.3518,81.8339,24.5223,-11.0585,-63.374,-22.5991,-95.1083,-172.615,-14.905,8.1743,
4.8084,29.8105,32.6957,25.964,224.0627,96.8339,9.5223,-13.4629,-78.374,-37.5991,-110.1083,-187.615,-26.9263,1.9233,
0.96187,17.3095,44.2353,25.0026,219.2548,90.3939,-0.96187,-5.7698,-93.374,-50.0056,-125.1083,-202.615,-15.3867,8.655,
-1.9233,30.7729,43.2739,13.4629,234.2548,105.3939,14.0381,-16.3481,-78.374,-48.0819,-110.1083,-187.615,-26.9254,1.9233,
13.0767,42.313,54.814,28.4629,219.2548,90.3939,-0.96187,-3.8466,-93.374,-42.3121,-125.1083,-202.615,-11.9254,3.8466,
-1.9233,27.313,39.814,13.4629,234.2548,105.3939,14.0381,-18.8466,-79.3354,-41.8318,-110.1083,-204.3493,-23.5605,10.0971,
-1.9233,24.0412,24.814,15.3867,249.2548,120.3939,1.9233,-13.4629,-94.3354,-51.9284,-123.0901,-206.7528,-28.8491,3.847,
-4.808,19.2328,39.814,30.3867,234.2548,105.3939,-5.7703,0.96141,-97.1261,-36.9284,-112.5123,-219.2548,-13.8491,18.847,
-14.9055,19.7135,30.2917,15.3867,249.2548,120.3939,9.2297,-14.0386,-82.1261,-37.0234,-97.5123,-204.2548,-20.6758,21.6363,
0.094502,13.4634,34.619,26.9259,234.2548,105.3939,-5.7703,-6.7317,-97.1261,-46.1586,-112.5123,-219.2548,-16.3476,11.5397,
-8.6545,3.8466,47.1209,22.1179,248.1039,113.4746,9.2297,-5.7694,-82.1261,-31.1586,-97.5123,-204.2548,-3.8466,26.5397,
-6.251,17.7906,38.9462,25.4837,233.1039,98.5682,6.251,-13.9441,-97.1261,-43.7551,-112.5123,-212.0424,-16.8283,15.8669,
-1.9237,15.3862,50.9675,33.6575,235.6028,83.5682,-8.749,0,-112.1261,-44.2358,-127.5123,-227.0424,-1.8283,14.4248,
-11.5401,14.4243,37.5036,18.6575,250.6028,98.5682,6.251,-14.4243,-97.1261,-37.5046,-112.5123,-212.0424,-15.3867,25.964,
3.4599,17.7902,44.716,30.2922,235.6028,83.5682,-8.749,-7.2119,-93.7602,-40.8695,-122.6098,-225.5053,-12.9822,18.7516,
-7.6936,7.6936,57.6987,26.9263,248.1043,98.5682,6.251,-6.7312,-78.7602,-25.8695,-107.6098,-210.5053,-7.6936,24.0412,
-8.1738,12.0204,42.6987,19.7135,263.1043,113.5682,19.7135,-18.752,-85.1053,-40.8695,-119.7247,-225.5053,-22.6936,9.0412,
1.9233,9.6164,49.0442,32.6957,248.1043,98.5682,4.7135,-6.7312,-100.1053,-44.2358,-134.7247,-240.5053,-12.5015,19.2332,
-13.0767,13.9441,47.6007,22.5986,233.1043,113.5682,19.7135,-15.8669,-85.1053,-29.2358,-119.7247,-225.5053,-21.6372,24.5214,
0,21.1565,44.2358,37.5986,218.1043,98.5682,4.7135,-0.86691,-99.0494,-29.811,-132.7069,-240.5053,-23.0793,9.5214,
-6.251,13.9441,53.371,36.062,233.1043,113.5682,-3.3658,3.3658,-85.1053,-28.368,-117.7069,-228.3904,-8.0793,21.6372,
-8.1738,20.6758,45.6779,27.4066,248.1043,128.5682,8.1738,-11.6342,-85.1053,-39.9085,-123.5712,-213.3904,-22.5986,15.8669,
0.96141,11.5397,60.6779,42.4066,263.1043,113.5682,-6.8262,-0.96141,-100.1053,-32.6961,-138.5712,-228.3904,-7.6931,20.1942,
-14.0386,8.1738,55.2938,27.4066,278.1043,104.3385,8.1738,-8.1738,-85.1053,-32.2154,-123.5712,-243.3904,-21.6372,23.56,
0.4807,23.1738,50.4868,36.062,263.1043,90.8751,-6.8262,-0.4807,-100.1053,-47.2154,-138.5712,-258.3904,-22.5986,15.8669,
-10.0975,19.7135,60.1027,48.563,260.1242,105.8751,-7.2124,-1.4421,-97.6068,-35.1001,-123.5712,-243.3904,-7.5986,30.8669,
-9.1352,25.4837,49.5245,40.8699,275.1242,120.8751,7.7876,-11.0589,-82.6068,-33.1768,-108.5712,-228.3904,-14.9055,34.1382,
-3.3658,17.7906,58.179,40.8699,260.1242,105.8751,-7.2124,3.3658,-97.6068,-39.9085,-123.5712,-243.3904,-12.0204,19.1382,
-18.3658,11.0589,51.4482,25.8699,274.5499,120.8751,7.7876,-11.0589,-82.6068,-35.0997,-108.5712,-228.3904,-20.6749,21.6372,
-3.3658,26.0589,52.4091,40.8699,267.8178,135.1104,-7.2124,1.4426,-97.6068,-39.9081,-123.5712,-225.5057,-17.7911,27.407,
-12.5011,16.3476,66.3537,47.1209,258.6821,125.0134,-17.3099,5.7703,-98.0875,-28.8496,-121.1673,-217.3315,-5.7703,34.619,
-24.0412,24.0412,54.8136,32.1209,273.6821,140.0134,-2.3099,-8.655,-83.0875,-38.466,-107.7043,-202.3315,-20.7703,20.1946,
-9.0412,26.9259,63.4685,47.1209,258.6821,125.0134,-17.3099,5.7703,-98.0875,-48.0823,-122.7043,-217.3315,-5.7703,19.2328,
-18.752,22.5986,65.873,45.6779,260.1242,135.1109,-2.3099,0.4807,-83.0875,-33.0823,-107.7043,-214.927,-0.4807,34.2328,
-3.752,35.5808,58.6601,54.8136,275.1242,120.1109,-17.3099,2.8847,-98.0875,-30.7729,-122.7043,-226.9479,-6.7312,25.964,
-18.752,20.5808,62.9878,41.8314,290.1242,114.9167,-25.4837,1.4421,-113.0875,-38.9467,-126.4559,-241.9479,-1.4421,26.4451,
-28.8491,16.3481,50.0056,26.8314,305.1242,129.9167,-10.4837,-13.5579,-98.0875,-47.1205,-111.4559,-226.9479,-16.4421,20.1946,
-13.8491,23.56,62.0255,41.8314,320.1242,114.9167,-25.4837,1.4421,-113.0875,-39.9085,-126.4559,-241.9479,-10.0975,12.9818,
-27.8877,15.3867,62.5076,26.8314,322.1511,129.9167,-10.4837,-5.7698,-98.0875,-31.7343,-111.4559,-226.9479,-9.6164,22.1184,
-12.8877,27.8882,55.7754,34.619,307.1511,131.745,0,0,-110.589,-44.2358,-121.1668,-241.9479,-15.3862,28.8496,
-18.2713,12.8882,57.6992,46.1586,292.1511,116.745,-15,3.8466,-122.1287,-37.5041,-132.7065,-256.9479,-3.8466,32.6961,
-23.0798,24.0412,60.5839,36.5422,305.8026,131.745,0,-5.7698,-107.1287,-27.8877,-117.7065,-241.9479,-13.4629,36.5422,
-8.0798,22.1184,66.3532,42.3125,290.8026,116.745,-15,4.8084,-122.1287,-42.8877,-132.7065,-256.9479,-12.5015,21.5422,
-22.5991,15.8674,67.7953,32.215,284.1654,130.3025,-6.2505,5.2891,-107.1287,-35.1001,-117.7065,-243.7766,-5.2891,23.5605,
-17.7902,30.8674,59.1417,38.9467,299.1654,129.3411,-1.4426,1.4426,-92.1287,-39.9081,-105.2999,-240.8915,-17.7902,19.7139,
-19.2323,15.8674,72.1235,45.1977,284.1654,114.3411,-16.4426,2.8847,-107.1287,-41.3506,-120.2999,-255.8915,-2.8847,30.7729,
-30.2917,11.0589,64.9107,32.2145,299.1654,129.3411,-1.4426,-12.1153,-92.1287,-38.9471,-105.2999,-240.8915,-11.0589,34.1383,
-15.2917,25.0026,70.1998,47.2145,290.4164,114.3411,-16.4426,2.8847,-107.1287,-47.1205,-120.2999,-255.8915,-5.7698,25.0026,
-30.2917,10.0971,70.6805,41.8318,305.4164,129.3411,-7.2119,7.2119,-92.1287,-40.8695,-105.2999,-240.8915,-9.1357,35.1001,
-19.2332,25.0971,68.277,49.0442,302.9175,144.2466,-22.2119,14.4243,-96.1642,-42.3125,-100.9726,-227.9093,-14.4243,42.3125,
-18.752,16.8292,69.7195,45.6779,287.9175,129.2466,-37.2119,7.2124,-111.1642,-46.6398,-115.9726,-242.9093,-7.2124,29.3303,
-33.752,12.5015,64.4304,30.6779,302.9175,144.2466,-22.2119,-7.7876,-96.1642,-31.6398,-100.9726,-227.9093,-22.2124,34.6194,
-18.752,26.4451,68.7581,45.6779,288.0124,129.2466,-24.5214,7.2124,-93.7602,-31.2531,-101.4533,-225.5053,-12.0204,45.6779,
-33.752,11.4451,59.6215,34.6194,288.4927,138.4763,-20.1946,4.8084,-83.6627,-35.5808,-86.4533,-210.5053,-4.8084,48.0819,
-40.3888,20.1946,51.9293,31.7343,292.3401,153.4763,-5.1946,-5.7698,-79.8162,-40.3888,-84.6246,-199.0601,-19.8084,33.0819,
-30.7724,6.7317,66.9293,46.7343,277.3401,138.4763,-20.1946,9.2302,-94.8162,-37.5041,-99.6246,-214.0601,-6.7317,35.5813,
-44.2358,6.7317,66.3528,33.6575,267.3366,153.4763,-5.1946,-3.8466,-79.8162,-29.811,-84.6246,-199.0601,-16.3485,50.5813,
-29.2358,21.7317,74.527,48.6575,252.3366,138.4763,-20.1946,9.1357,-73.5656,-35.1001,-69.6246,-189.9245,-9.1357,52.4091,
-44.2358,6.7317,67.7953,35.1001,237.3366,123.4763,-5.1946,1.4426,-87.029,-40.8704,-74.5275,-204.9245,-1.4426,40.8695,
-49.0433,13.4629,52.7953,25.0026,241.3726,138.4763,8.655,-8.655,-79.8162,-55.8704,-72.1226,-219.9245,-16.4426,25.8695,
-34.0433,28.3689,67.7953,40.0026,226.3726,123.4763,-6.345,6.345,-94.8162,-58.179,-87.1226,-234.9245,-14.9055,31.254,
-49.0433,13.3689,65.3914,28.8496,241.3726,138.4763,8.655,-5.7703,-79.8162,-53.8517,-72.1226,-219.9245,-25.003,38.4655,
-34.0433,25.003,69.2388,43.8496,226.3726,123.4763,-6.345,8.6545,-94.8162,-52.8903,-87.1226,-234.9245,-10.003,39.4278,
-39.4274,12.5015,72.1235,43.2739,214.4468,108.4763,-21.345,6.7312,-108.6657,-50.0056,-100.9726,-237.5261,-6.7312,37.5046,
-40.3897,25.0026,67.3146,32.6957,229.4468,123.4763,-6.345,1.9233,-93.6657,-50.967,-85.9726,-222.5261,-21.7312,29.8105,
-36.5418,16.3485,70.2002,47.6957,214.4468,108.4763,-21.345,10.5782,-108.6657,-60.5834,-100.9726,-237.5261,-10.5782,15.3862,
-51.5418,7.6926,73.0849,37.5036,211.5617,123.4763,-6.345,1.9233,-93.6657,-45.5834,-85.9726,-222.5261,-9.6164,30.3862,
-36.5418,15.8674,70.6805,48.5626,196.5617,108.4763,-21.345,11.0585,-90.8756,-49.5249,-87.0285,-219.7355,-11.0585,38.9467,
-50.0052,0.86736,73.0849,45.1977,185.5972,93.4763,-36.345,9.6164,-88.4711,-48.0819,-77.8929,-234.7355,2.8847,34.6194,
-52.4096,12.9827,71.6423,38.9471,200.5972,80.2978,-21.345,-4.3273,-73.4711,-43.7542,-62.8929,-219.7355,-11.0589,34.1382,
-37.4096,11.0589,73.5661,53.9471,185.5972,65.2978,-36.345,10.6727,-88.4711,-57.2176,-77.8929,-234.7355,-11.0589,30.2917,
-52.4096,5.2891,68.7577,44.717,170.5972,66.8339,-37.0229,15.8674,-73.4711,-42.7932,-69.7191,-219.7355,-5.2891,38.9467,
-45.6774,16.8288,63.9497,53.3715,155.5972,51.8339,-52.0229,9.1357,-87.0285,-47.6012,-84.7191,-223.582,-9.1357,30.2922,
-44.716,1.8288,78.9497,56.2561,140.5972,36.8339,-56.2557,12.9827,-91.8365,-43.7546,-99.5296,-238.582,0.4807,41.8314,
-44.2362,9.6164,77.8929,48.0819,128.8594,51.8339,-41.2557,10.5778,-76.8365,-37.5046,-84.5296,-223.582,-9.6164,46.1581,
-29.2362,21.156,87.5097,63.0819,113.8594,36.8339,-56.2557,25.5778,-83.6632,-31.7343,-73.0849,-216.3701,5.3836,46.1591,
-44.2362,6.156,77.8929,48.0819,106.7425,21.8339,-41.2557,14.4243,-68.6632,-27.8877,-58.0849,-201.3701,4.8084,46.1591,
-39.4274,9.6168,75.0082,55.7754,102.8964,6.8339,-38.4655,13.4634,-66.3532,-36.5422,-62.5067,-197.1369,0,37.5041,
-31.734,11.5399,90.0082,70.7754,90.3946,-8.1661,-53.4655,28.4634,-81.3532,-28.8494,-75.9698,-212.1369,15,52.5041,
-46.734,7.2124,75.0082,55.7754,105.2999,6.8339,-38.4655,13.4634,-66.3532,-43.8494,-60.9698,-197.1369,0,49.5245,
-31.734,21.6372,84.1443,68.7581,90.2999,-8.1661,-46.6393,21.6372,-81.3532,-45.6779,-75.9698,-212.1369,8.1738,42.7937,
-46.734,6.6372,81.7399,53.7581,105.2999,6.8339,-31.6393,6.7317,-66.3532,-40.3892,-60.9698,-197.1369,6.7317,41.3506,
-44.2358,8.6545,71.1616,50.0052,120.2999,21.8339,-29.811,10.5782,-51.3532,-50.0052,-45.9698,-182.1369,-8.2683,42.3121,
-45.1967,3.8466,77.8933,55.7754,113.4746,6.8339,-44.811,19.2337,-66.3532,-57.6983,-60.9698,-197.1369,4.8089,36.5427,
-60.1967,1.9233,65.3918,40.7754,125.9752,21.8339,-29.811,4.2337,-51.3532,-53.8522,-45.9698,-182.1369,-10.1911,30.7729,
-45.1967,16.9233,80.3918,55.7754,110.9752,6.8339,-44.811,19.2337,-41.3506,-38.8522,-40.3888,-167.1369,4.8089,45.7729,
-41.3506,1.9233,86.5478,53.8517,95.9752,-8.1661,-46.1591,15.3862,-26.3506,-25.003,-25.3888,-152.1369,14.4248,49.0437,
-44.2358,2.8851,75.0082,47.12,88.4707,6.8339,-31.1591,7.6931,-30.7724,-40.003,-40.3888,-167.1369,-0.57521,36.5427,
-40.3888,14.4243,90.0082,62.12,73.4707,-8.1661,-46.1591,22.6931,-45.7724,-48.0819,-55.3888,-182.1369,14.4248,37.5046,
-55.3888,-0.57566,75.0082,47.12,77.8933,6.8339,-31.1591,7.6931,-30.7724,-50.9666,-40.3888,-167.1369,-0.57521,27.8882,
-40.3888,14.4243,86.5481,62.12,73.0847,-8.1661,-38.4657,22.6931,-35.5806,-35.9666,-26.9261,-160.5944,14.4248,42.8882,
-47.1202,2.8849,95.203,71.1614,88.0847,-2.8849,-36.542,37.6931,-25.9642,-23.0791,-17.3092,-165.4024,29.4248,57.8882,
-62.1202,2.8847,80.203,56.1614,77.8929,3.847,-28.8491,22.6931,-24.0412,-38.0791,-32.3092,-150.4024,14.4248,43.2739,
-47.1202,17.8847,90.3946,70.1995,74.0461,-11.153,-43.8491,37.6931,-24.0414,-23.0791,-27.8879,-146.1701,19.233,51.9282,
-62.1202,2.8847,75.3946,55.1995,89.0461,3.847,-28.8491,22.6931,-9.0414,-38.0791,-12.8879,-131.1701,4.233,36.9282,
-47.1202,17.8847,90.3946,63.9492,104.0461,-11.153,-13.8491,22.5986,-19.7135,-32.2145,-13.9432,-144.7268,11.0589,51.9282,
-44.2358,11.5397,97.1252,63.4685,102.8955,-19.2332,-11.5397,33.6575,-32.6961,-27.8882,-16.3485,-154.8248,26.0589,62.5062,
-59.2358,4.3273,82.1252,48.4685,87.8955,-4.2332,-26.5397,18.6575,-26.4451,-42.8882,-31.3485,-139.8248,11.0589,47.5062,
-44.2358,19.233,96.164,63.4685,72.8955,-19.2332,-41.5397,33.6575,-41.4451,-27.8882,-46.3485,-154.8248,26.0589,62.5062,
-59.2358,4.233,81.164,48.4685,77.4122,-21.6367,-26.5397,18.6575,-26.4451,-30.2912,-31.3485,-139.8248,11.0594,59.1408,
-44.2358,19.233,83.6629,59.6222,62.4122,-36.6367,-40.389,33.6575,-41.4451,-34.6192,-23.0795,-148.0929,25.0033,54.8143,
-32.2147,16.8285,98.6629,73.5654,54.3326,-37.985,-26.4449,48.6575,-44.7163,-19.6192,-16.8285,-148.574,40.0033,69.8143,
-47.2147,1.8285,83.6629,58.5654,69.3326,-22.985,-11.4449,33.6575,-29.7163,-34.6192,-12.0204,-133.574,25.0033,54.8143,
-32.2147,16.8285,86.0674,73.5654,71.6426,-37.985,-20.6751,48.6575,-44.7163,-19.7137,-27.0204,-148.574,39.9088,53.3712,
-47.2147,1.8285,79.3354,58.5654,77.4126,-51.4477,-13.9441,35.0997,-29.7163,-16.8283,-12.0204,-133.574,36.062,50.4859,
-33.6571,16.8285,85.5864,65.3923,62.4126,-62.5067,-28.9441,41.3506,-34.619,-19.2328,-19.2328,-126.9366,33.6575,60.5843,
-42.7928,11.0589,89.9137,64.9107,49.5245,-47.5067,-35.0997,43.7551,-34.1382,-16.8288,-19.7135,-141.9366,36.062,61.0641,
-57.7928,-3.9411,74.9137,49.9107,34.5245,-32.5067,-25.4837,28.7551,-19.1382,-31.8288,-4.7135,-137.0342,21.062,46.0641,
-42.7928,11.0589,89.9137,64.9107,19.5245,-33.1768,-40.4837,43.7551,-31.2536,-16.8288,-2.404,-148.5738,36.062,61.0641,
-57.7928,-3.9411,74.9137,49.9107,27.8873,-18.1768,-25.9644,28.7551,-21.1565,-31.8288,-10.5782,-133.5738,21.062,49.0437,
-60.1027,7.2124,59.9137,35.1006,33.1768,-3.1768,-38.9462,22.5986,-36.1565,-46.8288,-25.5782,-137.0342,6.062,44.7165,
-45.1027,8.1738,74.9137,50.1006,18.1768,-7.2124,-53.9462,37.5986,-29.3298,-31.8288,-15.8669,-144.7273,21.062,59.7165,
-60.1027,-6.8262,59.9137,35.1006,3.1768,6.7308,-39.4278,22.5986,-14.3298,-44.2358,-0.86691,-129.7273,6.062,44.7165,
-45.1027,8.1738,74.9137,50.1006,-6.2505,6.2505,-31.2536,37.5986,-29.3298,-29.2358,-15.8669,-139.9193,21.062,59.1408,
-60.1027,-6.8262,64.43,36.5427,7.6931,21.2505,-16.2536,30.7724,-44.3298,-44.2358,-19.2328,-154.9193,11.5397,53.8526,
-59.622,4.808,53.8517,41.3506,-3.8466,18.2713,-27.8882,22.1179,-36.5427,-54.814,-10.5782,-160.5946,3.8466,42.3121,
-44.622,15.8674,68.8517,56.3506,-6.2505,3.2713,-27.407,37.1179,-25.4837,-39.814,4.4218,-155.3055,18.8466,57.3121,
-59.622,0.86736,53.8517,41.3506,-2.8847,18.2713,-20.1946,22.1179,-10.4837,-54.814,8.655,-140.3055,3.8466,42.3121,
-44.622,15.8674,68.8517,56.3506,-9.1361,3.2713,-35.1946,37.1179,-14.906,-39.814,4.3273,-136.0728,18.8466,57.3121,
-59.622,0.86736,55.775,41.3506,-19.2332,-11.7287,-29.8105,28.8491,0.094045,-24.814,15.3867,-121.0728,17.3095,47.1205,
-74.622,-3.8466,42.3121,27.8873,-15.3862,3.2713,-14.8105,21.1565,15.094,-27.8882,23.0793,-106.0728,2.3095,37.5041,
-59.622,11.1534,57.3121,42.8873,-25.4835,-3.3656,-29.8105,36.1565,0.094045,-12.8882,8.0793,-121.0728,17.3095,52.5041,
-74.622,-3.8466,43.7546,29.3307,-12.0199,11.6344,-14.8105,24.5219,8.1743,-27.8882,5.2891,-106.0728,2.3095,43.7546,
-59.622,11.1534,58.7546,44.3307,-14.4248,-3.3656,-15.3867,39.5219,-6.8257,-12.8882,8.6545,-102.8959,17.3095,58.7546,
-62.9874,-3.8466,57.2176,42.7928,-6.251,-15.8669,-23.56,39.9085,6.251,-24.5214,23.6545,-104.3385,26.4451,55.2947,
-69.2384,-10.5782,42.2176,28.8496,-0.96141,-0.8669,-15.3862,24.9085,-4.808,-39.5214,25.9644,-89.3385,11.4451,41.3506,
-54.2384,4.4218,57.2176,43.8496,-15.9614,-15.8669,-16.8288,39.9085,-19.808,-24.5214,11.0589,-104.3385,26.4451,56.3506,
-69.2384,-10.5782,42.2176,28.8496,-29.8105,-0.8669,-1.8288,24.9085,-4.808,-39.5214,16.3481,-97.1261,11.4451,41.3506,
-54.2384,4.4218,57.2176,43.8496,-26.4447,-5.2891,-0.48116,39.9085,-19.808,-24.5219,1.3481,-93.7602,14.906,47.6012,
-55.775,1.9233,69.2384,47.1214,-11.4447,-1.9233,-6.7312,39.4274,-16.3472,-18.2709,6.7322,-86.5474,21.1569,50.0056,
-70.775,-11.5397,54.2384,32.1214,-18.2713,9.6168,0,24.4274,-1.3472,-33.2709,12.5011,-75.0082,6.1569,40.3892,
-55.775,3.4603,68.7572,47.1214,-33.2713,-5.3832,-15,39.4274,-16.3472,-18.2709,1.4421,-90.0082,21.1569,55.3892,
-70.775,-11.5397,53.7572,32.1214,-43.2735,3.8466,-13.4625,24.4274,-1.3472,-31.7338,16.4421,-75.0082,6.1569,40.3892,
-55.775,3.4603,50.4859,47.1214,-43.7551,-11.1534,-8.1738,39.4274,-16.3472,-28.3689,8.1738,-88.9523,13.9441,45.6779,
-57.2176,-4.3273,49.5254,38.9471,-58.179,-26.1534,4.3273,45.6788,-14.9055,-21.6363,7.2124,-84.1434,21.6372,57.2185,
-72.2176,-18.752,34.5254,23.9471,-65.873,-11.1534,0.4807,30.6788,0.094503,-31.254,22.2124,-69.1434,6.6372,42.2185,
-57.2176,-3.752,49.5254,38.9471,-76.4508,-26.1534,-14.5193,45.6788,-14.9055,-16.254,8.1733,-82.2206,21.6372,54.3329,
-72.2176,-18.752,34.5254,23.9471,-61.4508,-11.1534,0.4807,30.6788,-0.96187,-31.254,23.0798,-67.2206,6.6372,39.3329,
-62.5062,-3.752,25.003,19.2337,-51.928,0,-13.4625,30.7733,-1.9228,-35.5804,25.9644,-55.7745,0,35.5813,
-56.2561,1.4421,40.003,34.2337,-63.9492,-15,-21.6372,45.7733,-1.4421,-20.5804,28.3689,-67.7958,15,50.5813,
-71.2561,-13.5579,25.003,19.2337,-48.9492,-9.1357,-6.6372,30.7733,10.098,-35.5804,28.3684,-52.7958,0,35.5813,
-56.2561,1.4421,40.003,34.2337,-60.1027,-24.1357,-3.3654,45.7733,-4.902,-25.4833,16.8288,-67.7958,15,37.0229,
-71.2561,-13.5579,25.003,19.2337,-75.0082,-9.1357,-3.8461,30.7733,10.098,-33.6571,31.8288,-52.7958,0.96187,25.0026,
-56.2561,-1.4421,29.3303,21.6372,-88.9518,-24.1357,-11.0589,36.062,3.3658,-25.4837,16.8288,-37.7958,1.4421,33.1768,
-41.2561,2.8851,44.3303,36.6372,-80.778,-39.1357,-2.8851,51.062,-4.808,-12.5011,16.3476,-50.967,16.4421,48.0823,
-56.2561,-12.1149,29.3303,21.6372,-65.778,-24.1357,12.1149,36.062,10.192,-27.5011,31.3476,-35.967,1.4421,33.0823,
-41.2561,2.8847,42.3125,36.6372,-80.778,-39.1357,-2.8851,51.062,-2.8847,-17.3095,16.3476,-45.1972,16.4421,35.5808,
-56.2561,-12.1153,27.3125,21.6372,-88.9518,-54.1357,-0.48116,36.062,12.1153,-27.407,31.3476,-30.1972,1.4421,29.3298,
-63.9488,-9.1357,16.8288,13.9445,-103.9518,-57.2171,2.404,23.5605,27.1153,-31.2536,46.3476,-17.7902,-2.404,33.1773,
-49.5249,-7.2124,31.8288,28.9445,-118.9518,-72.2171,-3.3658,38.5605,12.1153,-21.6372,35.0997,-32.7902,12.596,35.0997,
-64.5249,-22.2124,16.8288,13.9445,-103.9518,-57.2171,11.6342,23.5605,27.1153,-29.3303,50.0997,-17.7902,-2.404,20.0997,
-49.5249,-7.2124,31.8288,28.9445,-99.0489,-72.2171,-3.3658,38.5605,12.1153,-14.3303,35.0997,-21.156,12.596,35.0997,
-64.5249,-22.2124,32.6961,13.9445,-88.4711,-57.2171,6.7317,28.8496,-2.8847,-22.1179,41.3506,-12.5011,8.6545,34.619,
-79.5249,-25.0026,17.6961,-1.0555,-92.3177,-42.2171,3.8461,13.8496,7.6926,-35.5808,39.4274,2.4989,-6.3455,19.619,
-64.5249,-10.0026,32.6961,13.9445,-97.1261,-57.2171,-11.1539,28.8496,-0.96187,-20.5808,42.3125,-12.5011,8.6545,34.6185,
-75.4889,-22.5986,19.7135,-0.48071,-82.1261,-42.2171,3.8461,21.6372,14.0381,-22.5986,57.3125,0.48071,-6.3455,24.5223,
-60.4889,-7.5986,34.7135,14.5193,-97.1261,-57.2171,-8.1743,36.6372,2.404,-17.7902,42.3125,-14.5193,8.6545,32.215,
-75.4889,-22.5986,21.156,3.847,-112.1261,-72.2171,-1.9233,24.0412,17.404,-25.964,39.4274,-20.1946,1.9233,21.156,
-70.6809,-23.56,6.251,-6.251,-107.2232,-63.9492,13.0767,13.9441,32.404,-27.4066,54.4274,-5.1946,-12.0204,19.7135,
-55.6809,-19.2323,21.251,8.749,-122.2232,-78.9492,-1.9233,28.9441,17.404,-16.3481,39.4274,-20.1946,2.9796,28.8491,
-70.6809,-34.2323,10.0971,-6.251,-122.6094,-63.9492,13.0767,13.9441,32.404,-30.2912,54.4274,-5.1946,-6.2505,13.8491,
-55.6809,-19.2323,18.7516,8.749,-137.6094,-69.7195,1.4426,26.4447,17.404,-28.3684,39.4274,-20.1946,-1.4426,7.2119,
-70.6809,-34.2323,12.0208,5.2891,-150.4971,-84.7195,3.3654,16.8288,11.0594,-30.2922,34.1387,-23.5605,-3.3654,14.906,
-73.5661,-23.56,4.3273,-4.3273,-135.4971,-69.7195,18.3654,11.0589,26.0594,-37.9848,47.6016,-8.5605,-18.3654,11.0589,
-58.5661,-8.56,19.3273,10.6727,-150.4971,-84.7195,3.3654,26.0589,11.0594,-22.9848,32.6016,-19.2323,-3.3654,26.0589,
-73.5661,-23.56,18.2709,-4.3273,-159.6328,-92.3177,7.6936,11.0589,20.1946,-37.5036,46.1591,-4.2323,-7.6936,15.3867,
-58.5661,-8.56,22.1179,10.6727,-144.6328,-95.2028,22.6936,26.0589,5.1946,-35.5813,31.1591,-8.6554,3.8466,13.4625,
-68.7572,-23.56,17.7906,6.251,-129.6328,-93.7598,18.752,18.752,1.443,-37.9848,26.4451,-23.6554,0.4807,-0.4807,
-68.7577,-18.7525,15.8674,-5.2891,-114.6328,-88.9518,33.752,5.2891,16.443,-34.1387,41.4451,-8.6554,-14.5193,5.2891,
-53.7577,-9.1357,30.8674,9.7109,-99.6328,-103.9518,30.2912,20.2891,1.443,-34.1387,26.4451,-23.6554,0.4807,11.0585,
-68.7577,-24.1357,16.3476,-3.8466,-84.6328,-118.9518,45.2912,5.2891,16.443,-26.9259,41.4451,-8.6554,-0.96141,0.96141,
-57.6987,-18.2718,15.3857,0.96187,-76.9315,-133.9518,33.6571,13.4629,31.443,-25.0026,56.4451,6.3446,-6.7322,-0.96187,
-62.5071,-33.2718,24.0412,-1.9233,-91.9315,-148.9518,18.6571,16.3481,16.443,-32.6966,53.8522,-8.6554,1.9233,1.9233,
-66.3537,-31.7338,13.4634,-8.6545,-76.9315,-139.4381,33.6571,1.3481,31.443,-25.9644,68.8522,6.3446,-0.96141,1.9237,
-51.3537,-16.7338,26.4456,6.3455,-91.9315,-154.4381,31.2536,16.3481,16.443,-16.8288,53.8522,-6.2505,14.0386,2.404,
-62.5067,-26.9263,21.156,-5.7698,-94.2409,-139.4381,46.2536,12.5015,23.0798,-24.0412,43.2739,8.7495,-0.96141,1.9233,
-50.0056,-12.5015,24.0412,4.8084,-107.7039,-148.0931,61.2536,16.3481,17.3095,-26.9263,44.2353,-6.2505,-4.8084,8.655,
-65.0056,-27.5015,19.7139,-1.4426,-119.7247,-163.0931,46.2536,13.9436,12.9822,-20.6753,38.9467,-19.7139,9.1357,1.4426,
-59.6215,-27.8877,15.3867,-15.3867,-104.7247,-148.0931,61.2536,9.6164,27.9822,-10.5778,53.9467,-4.7139,0.96187,-0.96187,
-44.6215,-13.4625,24.0416,-0.38666,-119.7247,-163.0931,46.2536,24.6164,12.9822,-19.2328,38.9467,-13.4625,10.5782,-3.8466,
-59.6215,-28.4625,9.0416,-7.6931,-104.7247,-177.9041,56.7368,9.6164,27.9822,-10.5782,53.9467,1.5375,7.6931,-9.6168,
-53.371,-20.6749,2.4044,3.3658,-89.7247,-174.5383,41.7368,12.9827,42.9822,-8.1738,67.7958,16.5375,-2.4044,-14.9055,
-43.7546,-32.215,17.4044,1.4426,-74.7247,-189.5383,26.7368,24.5219,27.9822,-18.7525,52.7958,1.5375,6.2505,-1.4426,
-58.7546,-32.6957,11.5401,-13.5574,-59.7247,-174.5383,41.7368,9.6164,42.9822,-26.9263,67.7958,16.5375,-5.7698,5.7698,
-43.7546,-17.6957,21.6372,1.4426,-69.7191,-168.7684,26.7368,24.6164,27.9822,-28.3689,52.7958,1.5375,9.2302,2.4044,
-58.7546,-29.8105,6.7312,-10.5778,-77.8929,-153.7684,41.7368,17.3095,34.6194,-29.8105,67.7958,16.5375,2.8847,-2.8847,
-46.1586,-14.8105,2.8851,-4.808,-75.0082,-140.4,56.7368,19.2328,49.6194,-28.8496,75.9696,31.5375,-0.96141,0.96141,
-33.658,-11.5401,17.8851,10.192,-90.0082,-155.4,51.9284,34.2328,34.6194,-23.0798,60.9696,16.5375,14.0386,4.8084,
-48.658,-26.5401,4.3277,-4.808,-75.0082,-140.4,66.9284,19.2328,37.0229,-26.4456,62.026,31.5375,0.48116,-0.48116,
-33.658,-11.5401,6.7317,0,-90.0082,-155.4,60.5834,22.1179,22.0229,-28.8496,47.026,16.5375,4.808,-6.7317,
-40.8695,-14.905,14.905,2.404,-80.2973,-140.4,75.5834,27.407,37.0229,-15.8674,62.026,1.5375,19.808,-2.404,
-41.3506,-5.7703,7.6931,-8.6554,-89.433,-125.4,80.7776,18.2713,52.0229,-20.1951,77.026,7.6931,4.808,0.96141,
-38.466,-17.3095,17.3095,-0.96187,-104.433,-140.4,65.7776,25.964,37.0229,-24.0412,62.026,-7.3069,3.8461,0.96187,
-53.466,-21.1565,5.7703,-15.3862,-89.433,-125.4,80.7776,13.4634,52.0229,-20.1942,75.9696,7.6931,0,0,
-38.466,-8.1743,3.3654,-0.3862,-100.4919,-140.4,65.7776,24.5219,37.0229,-25.4842,60.9696,-7.3069,9.1357,-1.4426,
-46.1586,-23.1743,2.8851,-14.4248,-103.8578,-155.4,50.7776,16.3476,25.003,-20.1951,59.622,-2.8851,14.4248,2.8851,
-45.1977,-12.5015,-4.8084,-15.3867,-88.8578,-140.4,65.7776,14.4243,40.003,-14.4243,72.1235,12.1149,4.8084,5.7698,
-35.5813,-23.0793,0,-0.38666,-103.8578,-155.4,50.7776,24.0407,25.003,-21.1565,57.1235,8.6545,14.4248,0,
-50.0056,-29.8105,-1.9233,-15.3867,-88.8578,-140.4,65.7776,9.0407,40.003,-17.3095,72.1235,23.6545,6.7312,1.9233,
-35.0056,-14.8105,3.3654,-0.38666,-99.5301,-145.6891,54.3329,21.6367,32.215,-27.407,59.1408,8.6545,11.0594,-7.2119,
-42.313,-26.9268,3.8465,-5.7703,-104.8196,-160.6891,43.2735,36.5418,24.0407,-21.1565,50.0052,0,20.1942,0,
-37.5041,-13.4634,-3.8466,-12.502,-89.8196,-145.6891,58.2735,29.811,39.0407,-6.1565,65.0052,15,5.1942,15,
-28.3689,-15.8669,-5.2887,-0.4807,-104.8196,-136.0728,46.6393,26.4451,24.0407,-15.8669,50.0052,29.3303,5.2887,3.3658,
-43.3689,-24.0416,-9.6168,-15.4807,-100.9726,-121.0728,61.6393,16.3476,39.0407,-7.6931,65.0052,44.3303,7.6931,7.6931,
-30.2917,-9.0416,-8.1738,-3.3658,-87.99,-136.0728,55.2947,26.4451,44.7165,-15.8669,58.1799,53.3719,9.1361,3.3658,
-41.3506,-21.1565,-2.8851,-9.6159,-102.99,-151.0728,48.0823,24.0416,29.7165,-19.2328,54.814,38.3719,16.3476,2.8851,
-40.8699,-8.1747,-12.0213,-16.8292,-94.7221,-136.0728,63.0823,17.7897,44.7165,-4.2328,69.814,53.3719,5.2887,3.3658,
-25.8699,-1.9233,-11.5392,-1.8292,-109.7221,-151.0728,48.0823,32.7897,29.7165,-5.7698,54.814,38.3719,12.5015,-1.9233,
-40.8699,-15.8664,-12.9822,-16.8292,-94.7221,-136.0728,44.7169,20.6753,44.7165,-5.2891,64.9111,53.3719,5.2891,13.0767,
-30.7719,-2.8847,-11.5392,-13.4629,-79.7221,-122.1287,37.5046,26.9263,38.466,-11.5392,50.0056,68.3719,2.8847,17.3095,
-34.6194,-17.3095,-12.5015,-5.7698,-94.7221,-137.1287,22.5046,28.8491,23.466,-14.4243,35.0056,53.3719,16.3481,5.7698,
-42.7937,-2.3095,-17.7906,-12.9827,-92.7988,-122.1287,37.5046,18.752,38.466,-11.0589,50.0056,68.3719,1.4421,2.4044,
-27.7937,-2.8851,-6.7317,2.0173,-107.7988,-137.1287,22.5046,33.6575,23.466,-22.1179,35.0056,53.3719,2.8851,2.8851,
-33.658,-17.8851,-9.6164,-12.9827,-92.7988,-132.7069,37.5046,24.0412,38.466,-11.5401,50.0056,59.6215,9.6164,13.4629,
-26.9263,-2.8851,-17.3095,-10.5787,-90.3949,-133.6688,52.5046,25.0026,53.466,-13.4629,65.0056,71.1612,1.9233,-1.5371,
-20.6753,-1.4426,-2.3095,1.4426,-105.3949,-148.6688,37.5046,36.0615,38.466,-9.1357,50.0056,56.1612,16.9233,-5.2891,
-32.6957,-15.3867,-9.6164,-13.5574,-90.3949,-156.7481,52.5046,21.0615,53.466,-2.8847,65.0056,65.3918,13.4629,2.8847,
-17.6957,-9.6164,-8.655,0.96187,-75.3949,-171.7481,37.5046,26.9263,38.466,-6.7312,51.9284,50.3918,19.2323,-0.96187,
-26.4451,-14.9055,-9.1352,-13.9432,-90.3949,-156.7481,52.5046,30.2917,53.466,0.4807,66.9284,65.3918,20.6758,-0.4807,
-17.3095,0.094502,-17.3095,-12.5015,-105.3949,-141.7481,61.5453,25.0026,60.5839,-7.6926,65.3918,80.3918,10.5787,-1.9233,
-12.0208,-8.1743,-5.2891,-2.404,-120.3949,-156.7481,46.5453,36.0615,45.5839,-4.3277,50.3918,65.3918,20.6753,2.404,
-27.0208,-14.4248,-17.3099,-17.404,-106.7425,-141.7481,61.5453,23.0793,60.5839,0.96141,65.3918,80.3918,5.6753,-0.96141,
-12.0208,-0.96187,-15.3857,-2.404,-121.7425,-156.7481,49.0442,33.658,45.5839,-11.5392,50.3918,65.3918,20.1946,-14.4243,
-17.7902,-13.9436,-8.1733,-5.2891,-106.7425,-141.7481,62.026,26.4456,44.717,-1.4426,61.0646,71.6428,33.1773,0.57566,
-16.3481,-9.6164,-22.1174,-20.1946,-121.7425,-139.4381,63.469,12.5015,59.717,-4.8084,76.0646,86.6428,18.1773,7.6936,
-11.0594,-12.0208,-14.906,-5.1946,-136.7425,-154.4381,48.469,27.5015,44.717,-2.404,61.0646,71.6428,21.6367,1.4426,
-26.0594,-14.9055,-23.56,-16.8283,-121.7425,-139.4381,63.469,20.6758,59.717,4.3273,76.0646,86.6428,18.752,-4.3273,
-11.0594,0.094502,-20.6749,-6.2501,-106.7425,-154.4381,48.469,29.3303,48.563,-0.4807,63.9492,82.2206,14.9055,-3.3658,
-26.0594,-14.9055,-22.5991,-21.2501,-91.7425,-169.4381,33.469,14.3303,63.563,1.4426,77.4122,97.2206,8.1733,-1.4426,
-24.0407,-0.96141,-21.1556,-20.1942,-76.7425,-154.4381,48.469,16.3485,78.563,0,92.4122,112.2206,8.6554,0,
-9.0407,0.96141,-12.5011,-5.1942,-90.3949,-169.4381,33.469,31.3485,63.563,-15,77.4122,97.2206,22.1179,-0.96141,
-24.0407,-6.7317,-13.4625,-20.1942,-91.3558,-154.4381,48.469,16.3485,70.2002,-9.6159,74.0468,112.2206,7.6931,6.7317,
-10.5773,3.8466,-9.6159,-5.1942,-106.3558,-169.4381,33.469,14.4248,55.2002,-20.1942,59.0468,97.2206,13.4634,-3.8466,
-16.8288,-10.0971,-5.2891,-10.0971,-91.3558,-156.2669,46.6398,24.5219,40.2002,-12.9822,66.8339,82.2206,28.4634,5.2891,
-28.8496,0.96141,-20.2891,-23.0793,-76.3558,-141.2669,61.6398,9.5219,55.2002,-10.5782,81.8339,97.2206,13.4634,0,
-13.8496,3.3658,-10.0975,-8.0793,-91.3558,-156.2669,48.563,18.752,40.2002,-15.8669,66.8339,82.2206,7.2124,-10.0975,
-20.1942,-6.7317,-10.5782,-23.0793,-76.3558,-141.2669,63.563,8.6554,55.2002,-4.808,81.8339,97.2206,12.502,4.808,
-15.3862,2.8851,-23.0793,-9.6159,-91.3558,-151.9397,48.563,13.4634,40.2002,-9.6159,66.8339,89.433,10.5782,-2.8851,
-24.5219,-12.1149,-9.1357,-1.4426,-106.3558,-159.1521,33.563,26.4447,36.0615,-3.3663,61.0646,100.4915,25.5782,1.4426,
-26.4456,-3.3654,-9.1357,-16.4426,-91.3558,-144.1521,48.563,21.6367,51.0615,-3.3654,76.0646,115.4915,10.5782,3.3654,
-11.4456,3.8466,-5.7703,-6.7317,-99.0494,-159.1521,33.563,29.811,36.0615,-3.8466,61.0646,100.4915,12.5011,-6.7317,
-26.4456,-11.1534,-19.7139,-21.7317,-90.8756,-144.1521,48.563,14.811,51.0615,5.2891,76.0646,115.4915,10.0971,-5.2891,
-13.9441,2.4044,-20.6758,-12.0204,-105.8756,-129.1521,63.563,14.9055,65.8721,-5.2896,74.5275,130.3029,7.2124,-2.4044,
-18.752,-4.3273,-9.1352,-3.3658,-120.8756,-144.1521,48.563,29.3303,50.8721,-5.2887,59.5275,115.3029,17.7906,3.3658,
-29.8105,0.96187,-22.1174,-14.4243,-105.8756,-129.1521,63.563,14.4243,65.8721,-0.96187,74.5275,130.3029,4.8084,-2.8847,
-14.8105,2.404,-18.7525,-3.3663,-120.8756,-144.1521,48.563,23.5605,50.8721,-3.3663,59.5275,115.3029,16.8288,-5.2891,
-29.8105,-12.596,-27.4066,-18.3663,-105.8756,-129.1521,61.0641,8.5605,65.8721,-0.48071,74.5275,130.3029,7.2124,0.48071,
-17.7902,0.48116,-23.5605,-16.8288,-94.7221,-116.8395,60.1022,3.3654,62.026,-4.3277,80.2973,131.2639,4.3277,-0.48116,
-5.7698,-1.9233,-8.5605,-5.7698,-109.7221,-131.8395,45.1022,17.3095,47.026,-3.847,65.2973,116.2639,19.3277,1.9233,
-15.8674,-1.4426,-10.0971,-20.7698,-94.7221,-116.8395,60.1022,9.1357,62.026,1.4426,80.2973,131.2639,9.1357,-1.4426,
-3.8466,3.8466,-21.1565,-9.6168,-109.7221,-131.8395,45.1022,16.3476,47.026,-10.5782,65.2973,116.2639,7.6931,-14.4248,
-18.752,-7.2124,-22.5986,-20.6749,-94.7221,-127.4178,60.1022,8.1738,62.026,-2.4044,80.2973,113.9544,13.9441,0.57521,
-7.2119,7.2119,-20.6753,-24.5219,-79.7221,-112.4178,74.527,8.1743,77.026,-5.2891,82.2201,125.4945,3.3654,-3.3654,
-1.4426,1.4426,-5.6753,-11.0585,-94.7221,-106.2613,59.527,20.6753,62.026,-1.4426,67.2201,110.4945,18.3654,-11.0585,
-16.4426,2.8851,-19.2328,-25.0021,-85.5855,-91.2613,74.527,5.6753,77.026,0,81.7399,125.4945,3.3654,-1.9228,
-1.4426,10.5782,-18.2713,-10.5782,-100.5855,-106.2613,59.527,11.5397,62.026,-14.4248,66.7399,110.4945,-0.96141,-2.8851,
-13.4634,-0.96141,-3.8466,-17.3099,-96.1642,-91.2613,48.0823,12.5011,50.0052,-1.9237,62.5071,104.8192,11.5397,0.96141,
-17.3099,9.6168,-17.3099,-20.1942,-106.7425,-87.5097,49.0437,0.96141,65.0052,0.96141,71.1616,119.8192,-0.96141,-3.8466,
-8.655,-0.96187,-9.6164,-5.1942,-121.7425,-102.5097,36.5422,15.9614,50.0052,0.96187,56.1616,104.8192,14.0386,-0.96187,
-19.7139,-7.2119,-16.8288,-20.1942,-106.7425,-89.9137,51.5422,12.0208,65.0052,1.4426,71.1616,119.8192,8.1743,-1.4426,
-4.7139,3.8466,-25.9635,-9.6159,-91.7425,-104.9137,43.2744,12.502,50.0052,-10.5773,56.1616,104.8192,3.8466,-13.4625,
-18.752,-11.0589,-24.5214,-22.5986,-76.7425,-119.9137,48.563,9.1361,48.563,1.4421,54.3333,114.9167,9.1361,-1.4421,
-11.0589,-0.4807,-23.56,-32.2154,-61.7425,-113.9549,63.563,4.3273,63.563,-1.4421,69.3333,129.9167,0.4807,1.4421,
1.9233,-1.9233,-8.655,-17.2154,-76.7425,-128.9549,54.8136,19.2332,48.563,-2.8847,54.3333,114.9167,15.4807,-6.7312,
-13.0767,-7.6931,-19.2328,-21.1565,-61.7425,-116.3588,69.8136,5.7703,63.563,11.5397,69.3333,129.9167,13.4634,-5.7703,
0,0,-30.7724,-18.2713,-76.7425,-131.3588,55.7754,4.808,65.3914,-3.4603,65.3914,114.9167,0,-18.2713,
-0.96187,-4.8084,-15.7724,-15.3857,-91.7425,-146.3588,68.277,11.5401,65.3918,0.96187,72.1235,99.9167,15,-3.2713,
-9.6164,6.7312,-18.2709,-21.156,-76.7425,-131.3588,83.277,-0.96187,80.3918,0.96187,69.2384,114.9167,8.655,-2.8847,
2.4044,-0.4807,-16.8283,-6.156,-91.7425,-146.3588,68.277,12.0204,65.3918,-9.1352,54.2384,99.9167,9.1352,-12.9818,
-12.5956,-10.0971,-16.8288,-21.156,-76.7425,-135.1109,76.4508,5.2891,80.3918,5.8648,69.2384,114.9167,5.2891,-5.2891,
-6.251,0.48071,-27.4066,-19.7135,-91.7425,-150.1109,61.4508,2.4044,65.3918,1.443,54.2384,99.9167,-0.48071,-20.2891,
-10.5782,-7.6931,-14.4248,-14.4248,-106.7425,-161.5565,46.4508,7.6931,50.3918,8.6545,39.2384,84.9167,14.5193,-7.6931,
-12.0213,4.3273,-18.752,-21.6372,-91.7425,-146.5565,61.4508,-0.4807,65.3918,15.8669,54.2384,99.9167,0.4807,-5.2896,
-3.3654,-2.404,-24.5219,-17.7902,-106.7425,-161.5565,46.4508,5.2891,50.3918,3.3654,39.2384,84.9167,2.404,-20.2896,
-13.4634,-3.8466,-23.0793,-30.7733,-91.7425,-146.5565,61.4508,3.8466,65.3918,18.3654,54.2384,99.9167,14.4248,-7.6931,
-3.8466,1.9237,-37.5041,-25.0021,-106.7425,-155.7862,46.4508,0,80.3918,12.502,56.7368,104.8192,0,-9.6159,
-5.2887,-11.0589,-26.4451,-20.6749,-121.648,-170.7862,31.4508,6.251,65.3918,5.2887,41.7368,89.8192,12.9818,-8.1738,
-9.1352,-0.4807,-29.3303,-33.1768,-106.648,-155.7862,46.4508,0.4807,80.3918,12.0204,56.7368,104.8192,2.4044,-12.9827,
-0.96187,-3.8461,-35.5808,-19.2323,-121.648,-152.9011,31.4508,7.6936,65.3918,1.9233,41.7368,89.8192,0.96187,-27.9827,
-13.4634,-11.5397,-32.6961,-23.0793,-119.244,-137.9011,46.4508,2.8851,80.3918,16.9233,56.7368,104.8192,11.5397,-12.9827,
-1.4426,3.3654,-40.8704,-24.5219,-126.4564,-125.4945,49.5249,-0.48116,65.3918,10.0971,59.1408,119.8192,0.48116,-0.48116,
-7.2124,-8.1738,-33.1768,-21.6372,-141.4564,-140.4945,34.5249,7.2124,50.3918,7.2124,44.1408,104.8192,8.1738,-9.1352,
-12.0204,3.3658,-35.0997,-27.4066,-126.4564,-125.4945,49.5249,0.4807,65.3918,18.752,59.1408,119.8192,-0.4807,-1.4421,
2.9796,-2.8856,-44.2362,-21.156,-141.4564,-140.4945,34.5249,5.7698,50.3918,3.752,44.1408,104.8192,-1.9233,-13.4629,
-10.5782,-13.4634,-41.3506,-33.6575,-126.4564,-125.4945,25.0021,3.8466,65.3918,17.309,59.1408,119.8192,11.5397,-3.8466,
-0.96187,1.5366,-45.1977,-30.7729,-117.3207,-110.4945,40.0021,0.96187,77.8929,8.655,61.5453,134.6297,-1.9233,-9.6164,
-1.9228,0.96141,-43.2735,-28.8496,-132.3207,-125.4945,26.9259,6.7317,62.8929,0,46.5453,119.6297,0,-18.2713,
-11.5397,0.96141,-48.0823,-42.3121,-117.3207,-110.4945,41.9259,-0.96141,77.8929,8.6545,61.5453,133.6679,2.8851,-15.3862,
0.96141,0,-53.8517,-30.7724,-132.3207,-125.4945,26.9259,0,62.8929,-6.3455,46.5453,118.6679,1.9237,-29.811,
-9.1357,-10.0971,-40.8695,-32.215,-138.9574,-110.4945,41.9259,1.4426,47.8929,3.3663,32.215,121.648,6.2505,-14.811,
-0.48071,4.9029,-42.7928,-35.0997,-123.9574,-95.4945,56.9259,0.48071,62.0264,6.251,47.215,136.648,-5.2887,-5.2887,
7.2124,3.3658,-38.9471,-27.4075,-138.9574,-110.4945,41.9259,7.2124,47.0264,-3.3658,32.215,121.648,9.7113,-20.2887,
-4.3277,1.4426,-41.8318,-36.0615,-123.9574,-95.4945,56.9259,-1.4426,62.0264,7.2119,47.215,136.648,2.404,-5.2887,
5.2896,6.251,-45.6779,-22.5986,-138.9574,-110.4945,41.9259,7.2124,47.0264,-3.3658,32.215,121.648,-8.1738,-11.0589,
-9.6168,-2.8851,-40.3892,-32.6961,-125.0138,-98.0875,51.9289,4.808,36.5427,5.7694,37.5041,106.648,2.8851,-11.5397,
2.404,12.1149,-43.7546,-33.1764,-110.0138,-83.0875,58.1794,-2.404,51.5427,6.2505,52.5041,121.648,-4.3277,-4.3277,
13.9436,0.48116,-39.9081,-18.1764,-125.0138,-98.0875,43.1794,10.0971,36.5427,1.4426,37.5041,106.648,2.404,-4.3277,
-0.96141,-5.7703,-50.9675,-33.1764,-136.5535,-83.0875,58.1794,2.8851,51.5427,16.4426,52.5041,121.648,0.96141,-0.96141,
11.0594,9.2297,-58.1794,-32.215,-135.1109,-98.0875,43.1794,2.404,36.5427,1.4426,37.5041,106.648,-2.404,-15.9614,
2.404,-3.3654,-43.1794,-33.1764,-122.6094,-113.0875,28.1794,5.2891,22.5991,-2.404,39.9081,119.7242,12.596,-8.1743,
4.3273,-1.4421,-42.7928,-38.9462,-107.6094,-98.0875,43.1794,0.4807,37.5991,1.4421,54.9081,134.7242,-0.4807,-8.1738,
19.3273,-1.4426,-43.7546,-23.9462,-115.8781,-113.0875,39.9081,15.4807,22.5991,1.4426,39.9081,119.7242,6.2505,-9.1357,
4.3273,-2.404,-40.8695,-36.0615,-100.8781,-98.0875,54.9081,0.4807,37.5991,13.9445,54.9081,134.7242,2.4049,-1.4426,
19.3273,6.2505,-39.9081,-25.4833,-114.9163,-113.0875,39.9081,-1.4426,37.0229,1.4426,39.9081,129.3411,-3.3654,-16.4426,
7.6936,-8.7495,-37.5036,-31.7343,-121.1668,-128.0875,29.8115,2.8847,33.658,-2.8847,40.3888,114.3411,5.7698,-17.3095,
9.6168,0,-37.5041,-38.4655,-106.1668,-113.0875,44.8115,-0.96141,48.658,10.5782,55.3888,129.3411,0,-8.6545,
16.8288,1.4426,-30.2922,-26.4447,-121.1668,-128.0875,29.8115,0.48116,33.658,4.3277,40.3888,114.3411,1.4426,-22.5981,
1.8288,0.96187,-23.0788,-33.6571,-106.1668,-113.0875,44.8115,-1.9233,48.658,18.2718,55.3888,129.3411,4.8084,-7.5981,
12.0208,8.1743,-33.1764,-27.407,-91.1668,-101.4533,59.8115,-1.4426,49.5249,3.2718,43.7546,137.0342,-4.3268,-5.2891,
5.2891,-6.8257,-31.2536,-30.2922,-76.1668,-116.4533,44.8115,-3.3654,34.5249,3.3654,28.7546,122.0342,7.2119,-6.2505,
1.9233,1.9233,-39.4274,-42.3125,-61.1668,-101.4533,59.8115,-8.655,49.5249,18.2709,43.7546,137.0342,-3.8461,-1.9233,
14.4248,0,-44.2358,-29.811,-76.1668,-116.4533,44.8115,0,34.5249,6.7317,28.7546,129.8222,-0.96141,-16.9233,
2.404,-5.2891,-36.0615,-33.1773,-61.1668,-101.4533,44.716,-2.404,49.5249,21.7317,43.7546,144.8222,11.0585,-4.3277,
14.4243,4.8084,-48.0819,-28.8491,-50.967,-110.589,29.716,-4.8084,64.5249,20.1946,57.6987,151.9397,-3.9415,-19.2332,
16.3476,-7.6931,-37.5041,-27.8873,-60.5834,-125.589,21.1565,-2.8851,49.5249,9.6168,42.6987,136.9397,2.8851,-22.1179,
3.8466,0.96141,-35.5813,-42.3121,-45.5834,-110.589,36.1565,-15.3862,64.5249,19.2328,57.6987,151.9397,-0.96141,-14.4248,
15.3862,3.8466,-39.4269,-27.3121,-60.5834,-125.589,21.1565,-0.3862,49.5249,5.7703,42.6987,136.9397,0.96141,-23.0793,
9.1361,-8.1738,-30.2917,-29.3294,-50.4859,-110.589,36.1565,-4.3273,47.6016,12.9827,32.2154,126.4564,4.3273,-12.0204,
19.7135,6.8262,-30.2917,-26.4451,-35.4859,-104.3385,51.1565,-11.0589,47.6016,8.1738,37.9848,134.1495,-8.1738,-20.6758,
15.3862,0,-32.6961,-22.1179,-50.4859,-119.3385,36.1565,3.9411,32.6016,3.8466,22.9848,119.1495,0,-25.9644,
6.7312,1.9233,-40.3897,-32.6966,-65.4859,-104.3385,48.0819,-1.9233,47.6016,9.6164,37.9848,134.1495,-6.7321,-15.3867,
21.7312,10.0975,-32.2154,-17.6966,-80.4859,-119.3385,46.6393,-0.4807,32.6016,0.4807,22.9848,119.1495,2.4044,-17.7906,
6.7312,-4.9025,-29.8115,-32.6957,-65.4859,-105.7811,48.0819,-2.8847,25.0026,14.4243,31.7343,124.0515,8.655,-3.847,
4.3273,6.251,-44.7165,-39.9076,-50.4859,-90.7811,33.0819,-4.3273,33.1768,6.251,34.1383,139.0515,-6.345,-11.0589,
15.8674,5.2891,-32.215,-24.9076,-65.4859,-105.7811,18.0819,7.2129,18.1768,11.0594,19.1383,124.0515,8.655,-10.0971,
0.96141,-0.96141,-44.2358,-39.4269,-59.622,-90.7811,33.0819,-5.7694,33.1768,24.0416,34.1383,139.0515,4.8089,-3.8465,
15.9614,2.4044,-46.6393,-24.4269,-74.622,-105.7811,18.0819,5.2887,20.6758,9.0416,20.6758,124.0515,-2.4044,-12.9818,
3.3663,-10.0971,-34.1378,-24.5219,-66.8339,-104.338,33.0819,-2.404,25.4842,3.3663,29.3307,137.0342,2.404,-9.1357,
7.2119,4.9029,-38.9467,-36.0615,-65.8725,-89.338,46.6398,-7.2119,40.4842,10.0971,44.3307,152.0342,-9.1357,-11.0585,
22.2119,4.3277,-38.9467,-21.6367,-80.8725,-74.338,31.6398,7.7881,25.4842,10.0971,29.3307,137.0342,-2.404,-14.905,
7.2119,-1.4426,-47.6021,-33.1773,-71.6428,-59.338,21.6367,-2.404,40.4842,14.905,44.3307,137.9956,-14.906,-6.2514,
21.1565,12.5011,-41.3506,-18.2713,-86.6428,-49.0437,9.6168,-1.9237,25.4842,7.6931,29.3307,122.9956,-13.4634,-14.4248,
6.1565,-0.96187,-32.6957,-29.8105,-101.6428,-49.0433,5.7698,0.96187,32.6957,18.2718,15.3867,115.397,-1.9233,-7.6926,
-4.3277,8.1743,-47.6957,-43.7546,-108.185,-34.0433,15.8674,-14.0381,47.6957,11.0585,30.3867,130.397,-16.9233,-10.0971,
10.6723,15.8669,-34.1383,-28.7546,-107.2236,-48.563,0.86736,0.96187,32.6957,12.9818,15.3867,115.397,-3.3658,-3.3658,
0.48071,0.86691,-42.7928,-43.7546,-92.2236,-33.563,15.8674,-14.0381,47.6957,9.1361,30.3867,130.397,-18.3658,-18.3658,
15.4807,15.8669,-37.5041,-28.7546,-86.5478,-18.563,6.7317,-4.808,32.6957,4.808,15.3867,120.2054,-24.0407,-30.7724,
12.5011,13.4634,-35.5804,-22.1179,-101.5478,-10.5782,4.808,-4.808,17.6957,4.808,7.6931,123.0905,-10.5782,-15.7724,
0.48071,9.1361,-50.5804,-37.1179,-112.993,4.4218,19.808,-13.9432,32.6957,-0.48071,22.6931,138.0905,-25.5782,-14.9055,
15.4807,24.1361,-35.5804,-22.1179,-122.6094,-10.5782,4.808,1.0568,17.6957,14.5193,7.6931,123.0905,-10.5782,-20.6758,
4.808,9.1361,-37.5041,-37.1179,-107.6094,-4.808,19.808,-13.9432,32.6957,14.4248,22.6931,138.0905,-10.5782,-25.9644,
19.808,20.6753,-43.7546,-35.1001,-114.9163,-19.808,17.7902,-9.1357,28.3684,9.1357,21.6367,125.4945,-12.0208,-14.906,
16.8283,5.6753,-38.9471,-20.6758,-129.9163,-34.808,2.7902,5.8643,13.3684,19.7135,12.9818,110.4945,-3.3658,-9.1361,
6.2505,10.0971,-41.8318,-28.3684,-114.9163,-19.808,-6.2505,-6.2505,28.3684,28.3684,27.9818,125.4945,-14.906,-9.1357,
20.1946,14.4243,-34.6194,-25.0035,-129.9163,-34.808,-21.2505,1.9233,13.3684,14.4243,12.9818,116.3584,0.094044,-16.3481,
5.1946,-0.57566,-41.8314,-40.0035,-144.9163,-19.808,-6.2505,-8.1738,28.3684,22.5986,27.9818,131.3584,-1.4421,-12.0204,
8.1743,4.3277,-56.8314,-44.716,-159.9163,-4.808,8.7495,-19.7139,13.3684,7.5986,16.8288,143.7659,-16.4421,-27.0204,
17.7906,11.0589,-41.8314,-29.716,-144.9163,-14.9055,-3.3658,-4.7139,5.2887,15.8669,15.8669,141.8426,-3.3658,-15.8669,
2.7906,3.3658,-51.4482,-44.716,-129.9163,0.094503,11.6342,-17.7906,20.2887,13.9432,30.8669,156.8426,-16.8292,-12.0204,
17.7906,18.3658,-36.4482,-29.716,-141.3619,-14.9055,-3.3658,-2.7906,5.2887,22.1174,15.8669,141.8426,-1.8292,0.96187,
2.7906,3.3658,-48.0828,-34.6194,-126.3619,0.094503,7.6926,-9.6173,8.6541,8.6541,12.5006,131.7446,-5.7707,-14.0381,
2.8851,8.6545,-63.0828,-38.4655,-119.244,15.0945,20.1942,-20.1942,16.3476,-2.8851,17.3099,146.7446,-20.7707,-25.9644,
15.8674,4.3277,-55.2943,-23.4655,-134.244,25.4833,5.1942,-5.1942,1.4426,12.0208,17.7902,131.7446,-7.2129,-11.0594,
0.86736,3.3658,-64.9107,-38.4655,-122.6094,40.4833,15.8678,-14.9055,16.4426,16.8292,32.7902,146.7446,-21.6363,-3.3658,
15.8674,18.3658,-52.8903,-23.4655,-137.6094,47.1209,0.86782,0.094503,1.4426,13.4634,17.7902,136.553,-12.5011,-7.6931,
4.808,3.8466,-50.9675,-36.5427,-140.4,62.1209,-4.808,-3.8466,16.4426,21.1565,25.003,151.553,-6.7317,-7.6931,
1.4421,11.0589,-65.9675,-41.8314,-151.459,69.7195,-1.4421,-12.0204,31.4426,8.1738,27.4066,164.9219,-21.7317,-20.6749,
3.3654,5.2891,-57.218,-26.8314,-166.459,54.7195,-16.4421,2.9796,16.4426,12.0208,12.4066,149.9219,-6.7317,-15.8674,
-6.2505,5.2891,-57.218,-41.8314,-151.459,69.7195,-1.4421,-9.1357,31.4426,24.5219,27.4066,164.9219,-7.2119,-5.2891,
8.7495,20.2891,-43.7546,-26.8314,-136.459,54.7195,-4.3277,5.8643,16.4426,11.0594,12.4066,149.9219,0.48116,-0.48116,
9.6168,10.5782,-45.1972,-29.811,-141.3614,44.2358,-0.96141,-0.96141,1.4426,6.7317,13.4634,134.9219,-2.8851,0.96141,
9.1361,19.7135,-55.2947,-36.0611,-148.5738,40.8699,-7.2124,-12.0204,16.4426,7.2124,28.3689,141.8426,-17.8851,-11.0589,
24.1361,26.4456,-40.2947,-21.0611,-140.8807,25.8699,-22.2124,2.9796,1.4426,20.6753,13.3689,126.8426,-2.8851,1.4426,
9.1361,11.4456,-53.3715,-36.0611,-125.8807,40.8699,-7.2124,-12.0204,16.4426,15.8674,28.3689,141.8426,-16.8288,-9.1357,
20.1942,9.6168,-53.8517,-21.1565,-140.8807,25.8699,-21.1565,-2.8851,2.8851,15.3862,13.3689,145.2084,-14.4248,-24.0407,
5.1942,-3.3663,-51.4477,-32.215,-151.459,10.8699,-36.1565,2.404,17.8851,26.4447,23.5605,145.6887,-2.404,-10.0971,
-3.8466,11.5397,-66.4477,-47.215,-136.459,25.8699,-23.0793,-5.7694,32.8851,21.1565,38.5605,160.6887,-17.404,3.8466,
11.1534,8.6545,-56.7368,-32.215,-151.459,16.3485,-38.0793,3.8466,17.8851,17.3099,23.5605,145.6887,-3.8466,6.7317,
-2.404,-6.2505,-56.2557,-47.215,-136.459,31.3485,-23.0793,-11.1534,32.8851,27.407,38.5605,160.6887,-8.1733,2.404,
11.0585,8.7495,-60.1032,-37.0238,-121.459,16.3485,-38.0793,-2.404,17.8851,12.407,23.5605,145.6887,-10.098,-12.596,
-2.4044,11.0589,-50.4868,-37.9848,-106.459,12.9818,-40.8699,7.2124,2.8851,11.0589,12.9818,130.6887,0.48071,-9.1361,
0,19.2328,-62.5071,-47.1209,-92.3181,27.9818,-25.8699,-7.7876,17.8851,11.5397,27.9818,145.6887,-14.5193,-9.6168,
15,33.1764,-47.5071,-32.1209,-107.3181,42.9818,-39.9081,7.2124,2.8851,15.8674,12.9818,130.6887,0.48071,-1.4426,
0,18.1764,-51.4482,-41.8314,-92.3181,57.9818,-24.9081,-7.2124,12.9818,5.2887,27.9818,145.6887,-10.0975,-8.1738,
8.655,27.8877,-50.0056,-26.8314,-100.0108,61.5453,-25.964,2.8847,-2.0182,7.6936,12.9818,145.208,-14.4243,-2.8847,
1.4426,12.8877,-46.6398,-32.215,-115.0108,46.5453,-40.964,4.3277,-9.1357,16.8288,7.2129,130.208,-7.2119,-1.4426,
2.8851,17.309,-54.814,-46.1586,-124.0519,61.5453,-25.964,-7.6931,5.8643,22.1179,22.2129,145.208,-14.4248,-2.8851,
17.8851,28.8496,-45.1972,-31.1586,-129.8213,46.5453,-40.964,6.7317,-9.1357,24.0416,7.2129,130.208,0.57521,-3.8466,
2.8851,13.8496,-49.0442,-36.5431,-114.8213,61.5453,-25.964,-8.2683,5.8643,34.6185,22.2129,145.208,-6.7322,-1.9233,
17.8851,25.9644,-49.0437,-30.7724,-114.4351,70.2002,-21.1556,-3.8466,3.8466,19.6185,11.5397,152.9015,-16.3476,-9.6159,
20.1946,10.9644,-41.3511,-30.7729,-101.9345,55.2002,-36.1556,2.8847,-11.1534,11.5392,0.96187,137.9015,-1.3476,-6.7312,
5.1946,7.6926,-56.3511,-45.7729,-86.9345,70.2002,-21.1556,-12.1153,3.8466,4.8084,15.9619,152.9015,-16.3476,-16.3481,
20.1946,22.6926,-41.3511,-30.7729,-87.5097,55.2002,-24.0407,2.8847,-11.1534,19.8084,0.96187,137.9015,-1.3476,-7.6931,
5.1946,12.9818,-44.7165,-39.9085,-72.5097,70.2002,-9.0407,-2.4044,2.4044,11.0589,15.9619,149.5357,-16.3476,-12.0204,
20.1946,27.9818,-46.6393,-36.062,-57.5097,85.2002,1.4421,-10.0975,-1.4421,8.1738,22.5986,148.5743,-31.3476,-8.1738,
35.1946,42.7937,-31.6393,-21.062,-42.5097,100.2002,-3.3658,4.9025,-16.4421,23.1738,7.5986,133.5743,-16.3476,3.3658,
20.1946,27.7937,-46.6393,-36.062,-27.5097,115.2002,11.6342,-10.0975,-1.4421,8.1738,0.96141,148.0927,-31.3476,-11.6342,
35.1946,42.7937,-32.2145,-21.062,-12.5097,130.2002,-3.3658,4.9025,-16.4421,10.0975,-14.0386,133.0927,-22.5986,-8.1738,
22.1174,27.7937,-36.5422,-35.5808,-2.8847,145.2002,-7.6936,-6.7312,-1.4421,9.6164,0.96141,123.0901,-27.8877,-11.5401,
22.5986,31.2531,-51.5422,-44.7165,-17.8847,160.2002,7.3064,-21.7312,13.5579,3.3658,-3.3658,128.3792,-42.8877,-26.5401,
37.5986,46.2531,-36.5422,-29.7165,-22.1174,163.4793,-7.6936,-6.7312,-0.96187,18.3658,0.96187,113.3792,-27.8877,-11.5401,
22.5986,31.2531,-51.5422,-44.7165,-7.1174,178.4793,7.3064,-21.7312,14.0381,3.3658,15.9619,112.993,-42.8877,-26.5401,
37.5986,46.2531,-36.5422,-29.7165,-22.1174,193.4793,12.5011,-6.7312,-0.96187,0,0.96187,97.993,-27.8882,-16.3485,
47.6007,60.1027,-21.5422,-14.7165,-7.1174,208.4793,27.5011,-1.443,-15.9619,14.9055,-14.0381,108.1841,-19.7144,-1.3485,
44.2358,54.814,-26.9259,-28.8487,5.7703,223.4793,32.6961,-16.443,-3.8466,3.8466,-9.6159,123.1841,-34.7144,-16.3485,
59.2358,64.9111,-11.9259,-13.8487,-9.2297,208.4793,17.6961,-1.443,-18.8466,14.906,-24.6159,108.1841,-19.7144,-3.3654,
44.2358,49.9111,-26.9259,-28.8487,-24.2297,193.4793,12.0204,-16.443,-3.8466,4.3273,-9.6159,123.1841,-34.7144,-11.0589,
48.563,64.9111,-16.8292,-13.8487,-39.2297,178.4793,-2.9796,-1.443,-4.3273,19.3273,-5.2896,136.0723,-19.7144,3.9411,
33.6571,49.9111,-10.5778,-18.2709,-54.2297,163.4793,-14.4243,9.6164,-4.8084,24.0412,1.9233,121.1673,-9.6164,-1.9233,
23.5605,34.9111,-25.5778,-33.2709,-41.8318,148.4793,0.57566,-5.3836,-1.4426,9.0412,5.2891,128.3797,-24.6164,-14.906,
38.5605,49.9111,-10.5778,-18.2709,-56.8318,133.4793,-14.4243,9.6164,-16.4426,24.0412,-2.404,113.3797,-9.6164,0.094046,
23.5605,34.9111,-25.5778,-33.2709,-56.2561,148.4793,0.48071,-5.3836,-1.4426,17.7906,12.596,128.3797,-24.6164,-14.906,
38.5605,47.1205,-12.5015,-18.2709,-70.1998,133.4793,-14.5193,0.96187,-0.96187,27.8877,11.5392,136.5535,-17.3095,-4.8084,
23.5605,32.1205,-12.9827,-19.7135,-64.9107,118.4793,-21.6372,0.48071,-6.251,19.7135,7.2124,121.5535,-11.0589,-0.48071,
8.5605,18.2709,-27.9827,-34.7135,-79.9107,116.3584,-6.6372,-14.5193,8.749,4.7135,18.2709,136.5535,-26.0589,-15.4807,
23.5605,33.2709,-12.9827,-19.7135,-94.9107,101.3584,-21.6372,0.48071,-6.251,19.7135,3.2709,121.5535,-11.0589,-0.48071,
8.6545,18.2709,-27.9827,-34.7135,-97.1261,96.1647,-8.6545,-14.5193,8.749,9.6168,18.2709,126.9371,-26.0589,-15.4807,
23.0798,33.2709,-32.6957,-25.9649,-82.1261,81.1647,-20.1946,0.48071,-2.8847,7.6926,9.6164,119.2435,-26.9263,-8.655,
14.9055,18.2709,-23.56,-23.56,-86.0671,66.1647,-35.1946,3.3658,-17.8847,20.6749,0.4807,117.801,-12.9827,-0.4807,
7.6931,14.4248,-36.5418,-38.56,-71.0671,81.1647,-20.1946,-11.6342,-2.8847,25.003,15.4807,132.801,-27.9827,-7.6931,
22.6931,29.4248,-21.5418,-23.56,-86.0671,66.1647,-35.1946,3.3658,-17.8847,34.6194,0.4807,117.801,-12.9827,2.8847,
7.6931,14.4248,-31.7338,-38.56,-93.2791,63.4685,-41.3506,-5.7694,-2.8847,27.8882,15.4807,132.801,-24.0407,0,
22.6931,24.5223,-38.9462,-24.5214,-103.3762,48.4685,-48.563,-3.3658,3.3658,24.5223,15.8678,129.3415,-19.7135,-3.3658,
24.0412,21.156,-23.9462,-17.3095,-100.0112,33.4685,-33.563,-1.9233,-11.6342,27.8877,12.5015,114.3415,-4.7135,-6.7312,
9.0412,13.9441,-38.9462,-32.3095,-85.0112,48.4685,-18.563,-16.9233,3.3658,16.8292,27.5015,129.3415,-19.7135,-19.7135,
24.0412,28.9441,-23.9462,-17.3095,-100.0112,33.4685,-33.563,-1.9233,-11.6342,24.0412,12.5015,114.3415,-4.7135,-4.7135,
9.1352,13.9441,-29.3303,-29.3303,-85.0112,48.4685,-47.6016,-4.3273,-6.251,31.2531,4.3273,129.3415,-12.9827,9.1352,
13.9441,25.4837,-34.1382,-27.4066,-70.0112,50.4859,-32.6016,-11.0589,4.3273,31.2531,12.0204,144.3415,-27.9827,-4.3273,
27.4066,18.752,-19.1382,-23.5609,-85.0112,35.4859,-41.8314,3.9411,-10.6727,35.0997,-2.9796,129.3415,-12.9827,-0.4807,
12.4066,12.5015,-34.1382,-38.5609,-70.0112,50.4859,-26.8314,-10.5778,4.3273,23.0798,12.0204,130.7841,-25.0026,-5.7698,
27.4066,27.5015,-21.6367,-23.5609,-74.5275,41.8309,-41.8314,4.4222,-10.6727,34.1378,-2.9796,115.7841,-10.0971,6.2505,
12.4066,13.4634,-28.8496,-35.5804,-75.9701,50.0052,-26.8314,-2.8851,-4.808,30.7724,12.0204,100.7841,-16.3476,2.8851,
19.7139,20.6753,-30.2922,-37.0229,-90.9701,35.0052,-15.8674,-5.2891,1.4426,30.2922,15.8674,102.4152,-22.5991,-1.4426,
34.7139,20.6749,-15.2922,-22.0229,-105.9701,20.0052,-30.8674,9.7109,-13.5574,38.9462,0.86736,87.4152,-7.5991,-0.4807,
19.7139,11.0589,-30.2922,-37.0229,-90.9701,35.0052,-15.8674,-5.2891,1.4426,23.9462,15.8674,102.4152,-22.5986,-12.0204,
32.2154,26.0589,-18.752,-22.0229,-78.3736,28.3689,-30.8674,8.1738,-13.5574,18.752,4.3273,87.4152,-7.5986,-4.3273,
19.2332,11.5401,-21.156,-29.8105,-87.5093,37.5046,-17.3095,-1.9233,-1.9233,29.8115,19.3273,101.9345,-0.96187,0.96187,
8.6545,10.5782,-36.156,-44.8105,-87.5093,52.5046,-2.3095,-16.9233,-0.96141,14.8115,10.5782,116.9345,-15.9619,-14.0381,
20.1942,16.3476,-24.0407,-29.8105,-85.5864,37.5046,-17.3095,-1.9233,-15.9614,17.3099,-4.4218,101.9345,-4.808,0.96187,
5.1942,1.3476,-36.0611,-44.8105,-70.5864,52.5046,-2.3095,-16.9233,-0.96141,17.7906,10.5782,116.9345,-19.808,2.4044,
20.1942,16.3476,-24.0407,-29.8105,-85.5864,47.1209,-17.3095,-1.9233,-15.9614,23.0802,0,105.7815,-11.5397,0,
12.5015,11.5401,-26.9254,-30.7719,-100.5864,59.6224,-13.4629,-1.9233,-15.3857,27.8877,1.9233,111.5504,-10.5778,3.847,
6.2505,17.7902,-41.9254,-45.6784,-104.338,66.8339,-6.2505,-15.8674,-0.38574,17.7902,16.9233,126.5504,-25.5778,-8.1743,
21.2505,27.8877,-26.9254,-30.6784,-119.338,51.8339,-21.2505,-0.86736,-15.3857,30.7729,1.9233,111.5504,-10.5778,-1.9233,
6.2505,12.8877,-41.9254,-41.3506,-105.7806,66.8339,-25.003,-15.8674,-0.38574,27.8882,16.9233,117.3202,-22.1179,-3.8466,
21.2505,27.8877,-34.1387,-26.3506,-120.7806,51.8339,-36.0615,-0.86736,-15.3857,31.2536,1.9233,105.2994,-15.8674,10.0971,
25.0026,25.0026,-22.1174,-29.8105,-115.397,44.2362,-24.0412,4.8084,-24.0412,25.9649,-2.8847,109.6276,-10.5778,2.8847,
10.0026,11.0594,-37.1174,-44.8105,-100.397,59.2362,-9.0412,-10.1916,-9.0412,10.9649,10.098,124.6276,-25.5778,-12.1153,
25.0026,26.0594,-23.0798,-29.8105,-85.397,44.2362,-23.0798,4.8084,-24.0412,25.9649,-4.902,109.6276,-10.5778,2.8847,
10.0026,11.0594,-38.0798,-44.8105,-70.397,31.2531,-8.0798,-10.1916,-9.0412,18.752,10.098,101.4533,-18.752,-12.0204,
25.0026,26.0594,-34.1378,-29.8105,-55.397,16.2531,-4.3277,0.48116,-12.0208,22.5991,25.098,94.7221,-5.2891,-0.48116,
24.5219,11.0594,-29.3298,-20.6753,-50.4863,1.2531,-19.3277,-1.4426,-27.0208,20.6753,10.098,79.7221,5.2891,3.3654,
9.5219,7.6931,-44.3298,-35.6753,-46.1586,16.2531,-7.6931,-16.4426,-12.0208,22.1179,25.098,94.7221,-9.7109,-8.6545,
24.5219,22.6931,-38.466,-20.6753,-61.1586,1.2531,-22.6931,-1.4426,-27.0208,26.9263,10.098,79.7221,-0.96187,0.96187,
9.5219,7.6931,-47.6012,-35.1001,-76.1586,0.48116,-8.1743,-9.1357,-12.0208,20.6753,25.098,94.7221,-7.2119,10.0971,
24.5219,22.6931,-32.6012,-20.1001,-91.1586,-14.5188,-21.6367,5.8643,-27.0208,26.4456,10.098,89.9132,4.3277,11.0585,
36.5422,23.0798,-20.1946,-12.5015,-106.1586,-20.1946,-36.6367,20.8643,-42.0208,36.5422,-4.902,74.9132,18.2718,12.5015,
21.5422,8.0798,-35.1946,-27.5015,-91.1586,-5.1946,-21.6367,5.8643,-27.0208,21.5422,5.7698,89.9132,3.2718,-1.9233,
36.5422,23.0798,-32.2154,-12.5015,-99.5305,-20.1946,-33.1768,7.2124,-42.0208,29.3303,-9.2302,74.9132,8.1738,8.1738,
21.5422,8.655,-41.3511,-27.5015,-84.5305,-7.6936,-27.8877,-4.8084,-27.0208,38.466,5.7698,89.9132,1.9233,3.8461,
25.003,20.1942,-43.2744,-33.6575,-69.5305,5.7694,-29.811,0,-12.0208,39.4269,20.7698,104.9132,-6.7317,0,
28.368,6.251,-29.3303,-23.56,-75.4889,-9.2306,-30.2917,3.3658,-19.7135,40.8699,13.9441,89.9132,8.2683,-3.3658,
13.368,1.4426,-44.3303,-38.56,-60.4889,5.7694,-15.2917,-11.6342,-4.7135,25.8699,28.9441,104.9132,-6.7317,-18.3658,
28.368,16.4426,-32.215,-23.56,-52.4091,-9.2306,-30.2912,3.3658,-9.1357,40.8699,13.9441,99.5301,-1.4426,-3.3658,
13.368,1.4426,-37.9848,-38.56,-37.4091,5.7694,-15.2912,-6.251,5.8643,34.1383,28.9441,112.993,-9.1352,5.2896,
1.9237,6.7317,-52.9848,-50.9666,-28.8496,20.7694,-0.96141,-21.251,0.96141,19.1383,25.9644,104.8192,-24.1352,-9.7104,
16.9237,21.7317,-37.9848,-35.9666,-43.8496,12.5015,-15.9614,-6.251,-14.0386,19.2332,10.9644,89.8192,-9.1352,1.9233,
1.9237,6.7317,-52.9848,-50.9666,-29.3303,27.5015,-0.96141,-21.251,0.96141,12.0204,23.56,104.8192,-24.1352,-7.2124,
16.9237,21.7317,-37.9848,-35.9666,-44.3303,28.368,0.4807,-7.2124,-14.0386,24.5214,8.56,111.0693,-12.9827,-0.4807,
1.9237,6.7317,-45.6774,-40.8695,-35.1001,43.368,5.2891,-17.7902,0.96141,24.5219,20.6753,116.84,-13.9436,-7.2119,
-3.8466,16.3476,-59.622,-50.9675,-40.3892,58.368,17.309,-32.7902,11.5397,9.5219,15.3862,108.6657,-28.9436,-22.2119,
11.1534,24.0412,-44.622,-35.9675,-46.1591,43.368,7.6936,-17.7902,-3.4603,12.5015,12.5015,93.6657,-13.9436,-8.655,
-3.8466,9.0412,-59.622,-50.9675,-31.1591,58.368,22.6936,-32.7902,11.5397,7.6936,27.5015,108.6657,-28.9436,-17.3095,
11.1534,24.0412,-47.6016,-35.9675,-16.1591,43.368,7.6936,-17.7902,-3.4603,22.6936,12.5015,93.6657,-13.9436,-7.2124,
12.5011,9.6168,-34.619,-35.5804,-7.6931,38.4655,0.96141,-9.6168,-5.7703,22.1179,25.9644,89.433,-0.96141,-0.96141,
-2.4989,3.847,-49.619,-50.5804,-22.6931,25.964,7.6936,-24.6168,9.2297,7.6936,38.466,104.433,-15.9614,-12.5015,
12.5011,13.4634,-42.3121,-35.5804,-27.8882,10.964,-7.3064,-9.6168,-5.7703,22.6936,23.466,90.3944,-0.96141,-0.96141,
-2.4989,-1.5366,-57.3121,-50.5804,-12.8882,25.964,7.6936,-24.6168,9.2297,15.3862,38.466,105.3944,-15.9614,-15.9614,
12.5011,13.4634,-42.3121,-35.5804,-13.9436,10.964,-7.3064,-9.6168,-5.7703,29.3298,30.2912,118.7628,-0.96141,-0.96141,
8.655,2.8847,-39.4274,-27.8877,-26.9254,-4.036,-21.156,-11.5392,1.9233,27.8877,16.3481,104.8196,2.8847,-1.9233,
-6.345,7.2124,-54.4274,-42.8877,-15.8669,10.964,-6.156,-26.5392,16.9233,12.8877,28.3689,119.8196,-12.1153,-16.9233,
8.655,22.2124,-39.4274,-27.8877,-30.8669,25.964,-21.156,-11.5392,1.9233,19.2332,13.3689,104.8196,-9.6164,-1.9233,
-5.7698,7.2124,-36.5422,-41.3502,-45.8669,40.964,-25.0026,-24.0412,16.9233,26.9263,28.3689,119.8196,-17.3095,5.7698,
9.2302,22.2124,-28.3684,-26.3502,-60.8669,55.964,-40.0026,-9.0412,1.9233,22.5981,13.3689,133.1876,-24.5219,6.2505,
9.1357,7.2129,-23.5605,-31.2536,-57.218,70.964,-33.1764,-5.2891,-12.0208,17.7902,15.8674,118.1876,-22.5981,5.2891,
-1.9228,11.5397,-31.7338,-36.5427,-42.218,85.964,-18.1764,-17.309,2.9792,28.8496,30.8674,133.1876,-25.9644,0.96141,
13.0772,22.1184,-18.2709,-21.5427,-57.218,70.964,-33.1764,-2.309,-12.0208,31.7343,15.8674,118.1876,-10.9644,0.96187,
5.7703,8.6545,-22.1179,-36.5427,-72.218,85.964,-18.1764,-9.6168,-11.5397,20.1942,23.0793,107.7043,-10.5782,4.808,
20.7703,23.6545,-21.1556,-24.0407,-79.8162,88.4716,-18.2713,0,-26.5397,8.6554,8.0793,92.7043,-19.2328,0,
6.7312,8.6545,-20.1946,-21.156,-94.8162,73.4716,-33.2713,5.7698,-26.9263,23.0798,-2.8847,92.3177,-8.655,2.8847,
-1.9233,8.655,-31.7343,-36.156,-93.2791,88.4716,-41.3502,-9.2302,-11.9263,29.8115,12.1153,107.3177,-22.1174,1.9233,
13.0767,23.0793,-16.7343,-21.156,-108.2791,73.4716,-49.0437,0.96141,-26.9263,22.1179,-2.8847,92.3177,-7.1174,3.8466,
0.48071,8.0793,-25.4837,-36.156,-93.2791,88.4716,-34.0437,-14.0386,-11.9263,14.9055,12.1153,107.3177,-14.9055,-0.48071,
14.4253,15.3867,-40.4837,-36.5422,-84.6246,85.5869,-49.0437,-23.0788,3.0737,14.4253,14.4253,110.589,-28.8491,-13.4629,
17.309,7.6931,-25.4837,-21.5422,-99.6246,70.5869,-64.0437,-8.0788,-11.5397,29.4253,0,95.589,-13.8491,0,
2.309,4.8084,-35.5808,-36.5422,-84.6246,85.5869,-49.0437,-21.156,3.4603,32.6957,15,110.589,-26.9263,7.6926,
17.309,18.2713,-27.8873,-23.0793,-79.8166,78.8547,-56.7368,-12.5011,-2.8851,21.1565,11.5397,95.589,-17.3099,2.8851,
2.8856,3.2713,-26.9254,-38.0793,-75.0077,93.8547,-41.7368,-22.1174,12.1149,26.9263,26.5397,104.8196,-11.5392,1.9233,
2.404,12.9822,-36.0615,-37.9843,-77.4122,86.0676,-26.7368,-20.6753,20.6753,25.4842,39.9081,119.8196,-24.5219,-2.404,
12.0208,11.0594,-26.4447,-22.9843,-92.4122,71.0676,-41.7368,-5.6753,5.6753,32.215,24.9081,111.0697,-11.0585,2.404,
-1.4421,8.1738,-36.062,-37.9843,-77.4122,86.0676,-26.7368,-20.6753,18.752,26.4451,16.8292,126.0697,-26.0585,1.4421,
13.5579,23.1738,-21.062,-22.9843,-71.1616,71.0676,-28.8496,-5.6753,3.752,28.8496,1.8292,111.0697,-11.0585,16.3485,
2.404,8.1738,-21.6367,-37.9843,-56.1616,75.4894,-25.4833,-15.8674,-3.3654,24.5219,16.8292,118.7628,-0.48116,10.0971,
8.1738,23.1738,-26.4451,-35.1006,-52.4096,90.4894,-33.1768,-8.1738,-3.3658,18.752,21.6372,126.4555,-15.4812,3.3658,
23.1738,26.9263,-11.4451,-20.1006,-67.4096,75.4894,-48.1768,6.7312,-18.3658,22.1184,6.6372,111.4555,-10.5778,8.655,
8.1738,11.9263,-26.4451,-35.1006,-56.2566,90.4894,-33.1768,-8.2688,-3.3658,17.7902,21.6372,126.4555,-25.5778,1.4426,
23.1738,26.9263,-24.0407,-20.1942,-65.3914,96.1647,-48.1768,-2.8851,-18.3658,30.7724,6.6372,113.4737,-10.5778,9.6168,
8.1738,11.9263,-28.3684,-35.1942,-74.527,103.3766,-33.1768,-12.9822,-3.3658,31.2536,1.4426,111.0697,-18.7516,6.2505,
-5.2887,3.3658,-40.8699,-50.1942,-70.6809,92.7988,-18.1768,-27.9822,11.6342,16.2536,16.4426,119.7247,-33.7516,-2.4044,
7.2124,7.2124,-25.8699,-37.0234,-84.1439,77.7988,-33.1768,-12.9822,-3.3658,21.6372,7.2124,104.7247,-18.7516,9.1352,
-7.7876,8.1743,-24.5219,-46.6398,-69.1439,92.7988,-24.5219,-12.9822,11.6342,36.6372,22.2124,119.7247,-10.0971,24.1352,
7.2124,11.5397,-28.8496,-31.6398,-63.4685,83.6627,-36.5427,-9.6159,-3.3658,21.6372,7.2124,107.7043,-22.1179,9.1352,
18.2709,1.9233,-13.8496,-29.8115,-48.4685,79.8157,-21.5427,-9.6164,-17.3095,22.1174,1.9233,96.1642,-7.1179,8.655,
3.2709,-0.4807,-28.8496,-44.8115,-33.4685,94.8157,-6.5427,-24.6164,-2.3095,10.0975,10.0975,111.1642,-22.1179,-6.345,
18.2709,12.5015,-18.2709,-29.8115,-48.4685,79.8157,-21.5427,-9.6164,-17.3095,25.0975,-4.9025,96.1642,-7.1179,3.8461,
3.2709,3.3658,-29.3303,-44.7165,-49.5254,94.8157,-6.5427,-18.752,-6.251,22.5986,10.0975,111.1642,-19.7144,7.2124,
18.2709,18.3658,-14.3303,-29.7165,-37.5041,92.3181,-19.2328,-3.752,-21.251,32.6961,-4.808,109.6271,-9.6168,17.3099,
23.5605,21.6367,-14.906,-17.7902,-30.2922,94.7221,-34.1387,1.4426,-31.2536,19.7139,-1.4426,94.6271,-8.1743,7.2119,
8.5605,9.1361,-29.906,-32.7902,-17.7897,109.7221,-19.1387,-13.5574,-16.2536,4.7139,13.5574,109.1464,-23.1743,-3.3658,
23.5605,23.0793,-24.0416,-17.7902,-32.7897,94.7221,-34.1387,0,-31.2536,9.6159,-1.4426,94.1464,-8.1743,5.7694,
9.6168,8.0793,-28.8487,-32.7902,-47.7897,109.7221,-19.1387,-12.5011,-16.2536,16.3485,13.4634,88.4716,-12.5011,1.9237,
24.6168,23.0793,-20.1942,-17.7902,-62.7897,94.7221,-12.5011,2.4989,-11.5397,30.7733,-1.5366,100.9726,-3.8466,14.4248,
19.7135,8.0793,-22.5986,-21.6372,-62.026,79.7221,-27.5011,-2.4044,-26.5397,23.56,-11.0589,85.9726,2.4044,19.7135,
4.7135,3.3658,-37.5986,-36.6372,-47.026,82.2206,-12.5011,-17.4044,-11.5397,11.0589,3.9411,100.9726,-12.5956,4.7135,
19.7135,14.906,-22.5986,-21.6372,-62.026,67.2206,-27.5011,-2.4044,-26.5397,24.5219,-11.0589,85.9726,-2.404,5.2891,
4.7135,2.4044,-21.6363,-26.4451,-58.179,69.7195,-31.2531,-10.0966,-11.5397,32.2154,3.9411,96.6454,-1.4421,14.9055,
19.2328,17.4044,-23.0793,-24.0416,-70.2002,77.8933,-38.4655,-3.8466,-21.1565,17.2154,3.8466,81.6454,-14.4248,11.5397,
15.8664,6.2505,-17.7902,-23.5605,-84.1439,68.7577,-46.6398,1.4426,-36.1565,16.8288,-11.1534,66.6454,-1.4426,9.1357,
0.86645,4.3273,-32.7902,-38.5605,-69.1439,83.7577,-31.6398,-13.5574,-21.1565,14.9055,3.8466,81.6454,-16.4426,4.3273,
15.8664,19.3273,-17.7902,-23.5605,-54.1439,68.7577,-46.6398,1.4426,-36.1565,15.3867,-7.6926,76.9315,-1.9233,13.4629,
2.8851,4.3273,-25.003,-32.6961,-64.4299,76.9319,-44.2358,-12.5011,-21.1565,13.4634,7.3074,75.0082,-9.6168,2.8851,
17.8851,19.3273,-18.7525,-17.6961,-51.4486,91.9319,-29.2358,-2.404,-6.1565,19.713,2.404,90.0082,-18.7525,9.1357,
32.8851,27.8882,-7.6931,-14.4248,-37.5041,76.9319,-15.3862,7.6931,-21.1565,25.9644,-12.596,102.8964,-7.6931,23.0793,
17.8851,12.8882,-22.6931,-29.4248,-36.5431,91.9319,-0.3862,-7.3069,-6.1565,13.4629,2.404,117.8964,-22.6931,8.0793,
32.8851,20.1951,-11.5397,-14.4248,-51.5431,76.9319,-15.3862,4.8089,-21.1565,6.7317,-12.596,102.8964,-7.6931,0,
21.1556,17.309,-6.7317,-15.3862,-36.5431,61.9319,-23.0802,-4.8089,-26.9268,14.4239,-3.8466,87.8964,3.8466,15,
21.156,25.0026,-21.7317,-22.1174,-21.5431,76.9319,-26.9263,-11.5401,-11.9268,21.156,6.7312,102.8964,-11.1534,17.3095,
15.8669,10.0026,-26.4451,-15.8669,-36.5431,61.9319,-41.9263,3.3658,-26.9268,19.7135,-8.2688,87.8964,-3.3658,7.2124,
0.96187,-0.96187,-29.8115,-30.8669,-21.5431,50.967,-26.9263,-11.6342,-11.9268,24.0412,6.7312,102.8964,-12.5015,7.6926,
15.9619,12.5011,-31.7338,-15.8669,-19.2328,35.967,-41.9263,0,-26.9268,25.9644,-8.2688,87.8964,0,9.6168,
15.8664,-1.4426,-35.1001,-19.7139,-32.215,21.6367,-41.8318,-3.3663,-11.9268,32.215,6.7312,87.9904,1.4426,12.9822,
11.5401,13.5574,-35.5808,-18.2709,-42.3125,22.1184,-26.8318,-7.6926,-5.7698,24.0412,5.7698,102.9904,-13.5574,8.655,
16.8292,18.752,-22.5986,-9.1352,-54.3329,37.1184,-41.8318,4.3273,-20.7698,19.7135,-9.2302,87.9904,-4.3273,9.1361,
2.4035,3.752,-37.5986,-24.1352,-39.3329,52.1184,-53.3719,-10.6727,-5.7698,14.9055,5.7698,102.9904,-12.9827,3.3658,
17.4035,18.752,-22.5986,-9.1352,-24.3329,67.1184,-38.3719,2.404,-20.7698,22.5991,-7.2119,107.2232,-4.3268,18.3658,
20.6753,9.1357,-24.5219,-22.5981,-9.3329,52.1184,-25.4833,-12.596,-35.7698,9.1357,-22.2119,92.2232,-9.1357,17.7911,
26.4451,15.8669,-30.2917,-26.4451,5.6671,37.1184,-17.7906,-14.9055,-27.4066,12.0204,-7.2119,103.3771,-5.2887,10.0975,
41.4451,12.0199,-19.7139,-11.4451,20.6671,22.1184,-32.7906,0.094501,-42.4066,15.8664,-22.2119,88.3771,8.1733,-4.9025,
26.4451,-2.9801,-34.7139,-26.4451,35.6671,31.7338,-17.7906,-14.9055,-27.4066,8.6545,-7.2119,80.7785,-6.8267,-3.8466,
40.3892,12.0199,-24.0416,-21.1565,21.1565,16.7338,-2.7906,-5.7703,-42.4066,0,-16.3476,65.7785,0,1.9228,
41.3511,0.96187,-10.5778,-23.0788,35.5808,1.7338,10.5787,-0.96187,-57.4066,11.5401,-9.6164,50.7785,15,-0.96187,
32.2145,0.48071,-25.5778,-32.2154,50.5808,-13.2662,25.5787,-15.9619,-42.4066,9.1352,5.3836,65.7785,0,-15.9619,
47.2145,13.9445,-20.6753,-17.2154,65.5808,-28.2662,10.5787,-0.96187,-57.4066,14.906,-9.6164,50.7785,15,-11.0585,
32.2145,-1.0555,-30.2917,-31.2531,80.5808,-43.2662,24.5223,-15.9619,-42.4066,12.0204,3.3658,51.4482,14.9055,-7.2124,
47.2145,13.9445,-21.156,-16.2531,95.5808,-58.2662,39.5223,-7.6926,-57.4066,6.7312,-11.6342,38.466,14.4243,-6.7312,
45.1967,1.9233,-16.3481,-16.3481,110.5808,-73.2662,51.9284,-1.9233,-72.4066,3.8461,-26.6342,23.466,16.3481,-6.7322,
33.6575,15.3862,-26.9259,-26.9259,125.5808,-64.4299,66.9284,-11.5397,-57.4066,6.7317,-11.6342,38.466,3.8466,-3.8466,
48.6575,17.7906,-12.9818,-11.9259,140.5808,-79.4299,51.9284,0.4807,-72.4066,1.443,-26.6342,27.4066,18.8466,-6.251,
35.0997,2.7906,-13.9441,-26.9259,155.5808,-82.2206,60.1027,-12.9818,-57.4066,9.1352,-11.6342,42.4066,13.9441,-2.4044,
50.0047,14.4243,-20.1946,-25.9649,140.5808,-97.2206,45.1967,-5.7698,-42.4066,5.7698,-5.7698,57.4066,8.6541,-9.6164,
45.6788,3.3658,-13.9432,-10.9649,129.3415,-112.2206,30.1967,-3.3658,-57.4066,11.0589,-19.7135,42.4066,23.6541,-10.0966,
30.6788,-1.9233,-28.9432,-25.9649,144.2466,-102.8959,45.1967,-18.3658,-42.4066,9.6164,-4.7135,57.4066,8.6541,-11.5401,
45.6788,13.0767,-16.3481,-10.9649,129.2466,-117.8959,30.1967,-3.3658,-57.4066,5.7698,-19.7135,42.4066,11.5401,-3.8461,
30.6788,-0.96187,-20.1946,-25.0026,131.7446,-105.7811,24.0412,-7.6936,-42.4066,9.6164,-4.8084,57.4066,12.5015,0.96187,
34.6194,14.0381,-31.7343,-21.156,134.6297,-113.4742,23.0798,-5.7698,-32.6957,8.655,-19.8084,72.4066,2.8847,-2.8847,
41.3511,4.8084,-20.1946,-12.5015,119.6297,-128.4742,8.0798,5.7698,-47.6957,12.5015,-34.8084,57.4066,17.3095,-4.8084,
27.4066,-3.3658,-35.1946,-27.5015,104.6297,-142.8044,22.5986,-9.2302,-32.6957,3.3658,-19.8084,54.3324,4.3273,-16.8292,
42.4066,11.6342,-26.9259,-12.5015,89.6297,-157.8044,7.5986,5.7698,-47.6957,4.808,-25.9644,39.3324,19.3273,-4.808,
34.1382,-3.3658,-27.4066,-27.5015,81.2592,-142.8044,22.5986,-5.2887,-41.8314,10.0975,-18.752,54.3324,19.7135,5.2887,
48.0823,11.6342,-25.9644,-18.2704,96.2592,-127.8044,37.5986,-7.6931,-38.4655,4.8089,-12.5011,69.3324,4.7135,-3.8466,
53.8517,4.808,-17.3099,-7.6931,81.2592,-136.5535,22.5986,3.8466,-53.4655,4.808,-26.9259,54.3324,19.7135,-3.8466,
38.8517,-10.192,-32.3099,-22.6931,96.2592,-121.5535,37.0234,-11.1534,-38.4655,4.3273,-11.9259,69.3324,4.7135,-2.4044,
53.8517,4.808,-17.3099,-10.5773,81.2592,-109.6271,22.0234,0,-53.4655,6.7317,-20.1942,68.2774,10.5782,0,
38.8517,-6.251,-12.0204,-18.752,66.2592,-112.0316,18.752,-1.4421,-39.9085,12.0204,-5.1942,65.8721,13.9441,1.4421,
28.8491,1.9233,-25.9649,-26.9263,66.3532,-97.0316,24.0412,-11.5401,-24.9085,9.6164,7.6926,80.8721,-1.0559,-3.847,
43.8491,0.48116,-10.9649,-11.9263,51.3532,-112.0316,9.0412,3.4599,-39.9085,18.7525,-7.3074,65.8721,13.9441,-0.48116,
28.8491,-14.5188,-14.9055,-26.9263,50.4859,-97.0316,24.0412,-11.5401,-24.9085,8.1738,7.6926,80.2969,0.4807,-12.0204,
43.8491,0.48116,-9.1361,-11.9263,35.4859,-112.0316,9.0412,0.4807,-39.9085,-0.4807,-7.3074,65.2969,4.3273,-4.3282,
28.8491,-2.404,-10.0971,-17.7902,50.4859,-127.0316,1.4426,0.48116,-50.4863,3.3663,-3.3654,50.2969,15.8674,-0.48116,
24.5219,9.1357,-23.5605,-20.6753,65.4859,-112.0316,12.0208,-14.5188,-35.4863,0.48116,7.2119,65.2969,0.86736,-15.4812,
39.5219,12.9822,-8.5605,-5.6753,50.4859,-97.0316,-2.9792,-2.404,-50.4863,7.2129,-7.7881,50.2969,15.8674,-6.2505,
24.5219,-2.0178,-16.8288,-20.6753,65.4859,-82.0316,12.0208,-17.404,-35.4863,7.2119,7.2119,65.2969,0.86736,4.3277,
39.5219,12.9822,-11.5397,-8.6545,50.4859,-97.0316,6.7317,-10.5782,-48.0823,2.8851,-7.7881,68.2765,-2.8851,3.8465,
32.6952,0,-0.96141,-14.4248,57.6983,-84.625,19.2328,-2.8851,-49.0442,6.7317,-7.6931,53.2765,12.1149,0,
28.3689,5.2896,-15.9614,-29.4248,72.6983,-69.625,34.2328,-17.8851,-34.0442,1.4421,7.3069,65.873,-1.4421,-13.9441,
43.3689,8.1747,-3.3658,-14.4248,82.2206,-84.625,19.2328,-11.0589,-49.0442,3.3658,-7.6931,50.873,8.1747,-9.1352,
28.3689,-6.8253,-15.3857,-26.9263,77.8929,-95.2024,28.8491,-25.964,-34.0442,6.7312,7.3069,60.5839,0.96187,-3.8461,
39.4278,3.8466,-14.4248,-11.9263,62.8929,-108.6657,13.8491,-14.4248,-29.811,5.7703,0,45.5839,5.7703,-12.5011,
37.5041,5.7694,-0.96141,-1.9237,57.6983,-117.3207,0.96141,-1.9237,-40.3892,14.4248,-10.5782,37.5041,19.2328,-7.6931,
24.5219,3.3654,-15.9614,-16.9237,72.6983,-102.3207,15.9614,-16.9237,-25.3892,1.4426,4.4218,52.5041,4.2328,-12.0208,
39.5219,8.655,-4.8084,-6.7321,87.6983,-116.3593,1.9233,-4.8084,-40.3892,2.8847,-10.5782,37.5041,19.2323,-1.9233,
25.4833,-3.3663,-8.1743,-21.7321,102.6983,-101.3593,16.9233,-19.8084,-27.407,6.2505,1.4426,52.5041,12.9822,-1.4426,
40.4833,11.6337,-12.9827,-8.1738,107.2227,-86.3593,27.4066,-17.7906,-39.9085,4.3273,-13.5574,67.5041,3.3658,-3.3658,
38.466,2.8847,-4.8084,-13.4629,92.2227,-71.3593,12.4066,-6.7322,-51.9289,6.7312,-25.9649,52.5041,9.6164,-2.8847,
27.8877,-4.8084,-11.5401,-28.4629,107.2227,-56.3593,27.4066,-21.7322,-36.9289,4.8084,-10.9649,67.5041,-5.3836,-4.8084,
42.8877,10.1916,-1.9233,-13.4629,92.2227,-71.3593,12.4066,-17.3095,-35.5808,9.6164,-22.1174,52.5041,6.7312,0.96187,
27.8877,-4.8084,-16.9233,-28.4629,77.2227,-69.2384,9.6168,-32.3095,-20.5808,5.7703,-7.1174,51.9289,-3.8466,-9.6159,
41.8309,10.1916,-7.2129,-13.4629,74.527,-61.0646,19.7139,-17.3095,-5.5808,11.0585,-3.3663,50.4863,2.404,-4.3277,
42.7932,3.3654,-4.3277,-1.4426,77.4122,-76.0646,4.7139,-7.2129,-20.5808,12.9822,-18.3663,35.4863,15.8674,1.4426,
27.7932,-9.6168,-19.3277,-16.4426,92.4122,-61.0646,19.7139,-22.2129,-5.5808,9.6168,-3.3663,50.4863,0.86736,-9.6168,
42.7932,5.3832,-4.3277,-1.4426,77.4122,-76.0646,4.7139,-7.2129,-20.5808,14.9055,-18.3663,37.0234,12.0204,-9.1361,
27.7932,1.4421,-1.4421,-16.4426,81.2592,-76.4508,19.7139,-12.9827,-22.5986,10.0975,-10.0975,25.4837,17.7906,-9.1361,
36.5422,16.4421,-10.5778,-7.6936,87.5097,-61.5453,22.1174,-11.5401,-33.658,2.8847,-15.3867,26.9263,7.6926,-2.8847,
36.062,6.251,-2.4044,-0.48071,72.5097,-76.5453,7.1174,0.48071,-48.658,1.4421,-30.3867,11.9263,19.7135,2.4044,
21.062,-6.2505,-16.8288,-15.4807,82.2201,-61.5453,22.1174,-14.5193,-33.658,-2.404,-15.3867,26.9263,4.7135,-8.1743,
36.062,8.7495,-5.2887,-0.48071,67.2201,-75.4889,7.1174,0.48071,-38.9467,6.251,-11.0589,11.9263,19.7135,-3.3658,
22.5986,0.4807,-13.9441,-15.4807,81.2592,-60.4889,22.1174,-9.1352,-42.7928,3.3658,-16.8292,26.9263,12.9818,-0.4807,
31.2531,15.4807,-15.8669,-17.7906,96.2592,-45.4889,32.2145,-14.9055,-38.9471,0.4807,-22.5986,41.9263,-2.0182,-0.4807,
38.4655,14.4248,-0.86691,-12.5011,81.2592,-34.619,17.2145,-3.8466,-53.9471,8.6545,-37.5986,26.9263,12.5011,0,
23.4655,-0.57521,-15.3862,-27.5011,66.2592,-25.9635,16.3485,-18.8466,-38.9471,15.3871,-22.5986,41.9263,1.9237,0,
38.4655,12.502,-5.7694,-12.5011,51.2592,-40.9635,1.3485,-4.808,-53.9471,12.502,-37.5986,29.811,14.4248,0,
31.2531,-2.498,0.4807,-11.0589,36.2592,-41.8314,-13.6515,-0.4807,-41.8314,15.8669,-27.4066,21.6372,16.8292,4.3273,
33.1768,11.0589,-10.0975,-15.8669,21.2592,-26.8314,-7.2124,-7.2124,-26.8314,14.9055,-12.4066,36.6372,1.8292,3.3658,
36.0615,12.9822,-4.3277,-0.86691,6.2592,-26.4447,-22.2124,5.2891,-41.8314,13.9436,-27.4066,21.6372,10.0971,3.3654,
21.0615,7.2119,-7.2119,-15.8669,-7.2119,-11.4447,-7.2124,-4.3277,-26.8314,17.7902,-12.4066,36.6372,3.3654,10.0971,
36.0615,22.2119,-7.6926,-7.6926,-22.2119,3.5553,-22.2124,1.9233,-41.8314,2.7902,-27.4066,21.6372,-1.9233,1.9233,
21.1565,8.6545,-3.8466,-17.3099,-10.5782,18.5553,-37.2124,-4.808,-43.2735,4.808,-41.3506,22.1179,3.8466,3.8466,
28.8491,23.6545,-11.5401,-16.3481,4.4218,33.5553,-22.2124,-5.7698,-28.2735,12.5015,-26.3506,37.1179,-4.8084,4.8084,
38.9467,15.8664,-9.1357,-2.404,-10.5782,18.5553,-37.2124,2.404,-43.2735,5.2891,-41.3506,22.1179,10.0971,2.404,
23.9467,0.86645,-17.3099,-17.404,0.96141,33.5553,-22.2124,-12.596,-28.2735,8.6545,-26.3506,37.1179,0.96141,9.6168,
35.5813,15.8664,-8.6545,-4.808,-0.96141,33.6575,-34.619,0,-43.2735,8.6554,-41.3506,26.9268,0,3.8465,
20.5813,0.86645,-12.5015,-7.6936,-15.9614,18.6575,-49.619,1.9233,-58.2735,4.8084,-56.3506,11.9268,10.5778,1.9233,
13.9441,3.3658,-23.56,-13.9441,-3.3658,33.6575,-34.619,-6.251,-43.2735,10.0975,-41.3506,26.9268,3.3658,11.0589,
28.9441,8.6545,-8.56,1.0559,-18.3658,18.6575,-49.619,8.749,-58.2735,8.6545,-56.3506,11.9268,11.5397,7.6931,
13.9441,-2.4044,-3.3658,-13.9441,-9.1361,33.6575,-36.062,2.4044,-43.2735,21.6372,-41.3506,26.4451,10.0975,12.0204,
14.4243,9.6164,-18.3658,-17.3095,-24.1361,38.466,-38.466,-1.9233,-34.6194,11.5392,-34.6194,25.964,1.9233,5.7698,
24.5223,3.3658,-6.251,-3.3658,-38.9467,23.466,-53.466,12.9827,-49.6194,19.7135,-41.8314,10.964,16.9233,17.7906,
12.5011,0,-21.251,-17.3099,-23.9467,38.466,-53.8517,-2.0173,-34.6194,14.4248,-26.8314,25.964,1.9233,6.7317,
27.5011,12.0208,-9.1357,-2.3099,-25.4833,23.466,-68.8517,12.9827,-49.6194,14.905,-41.8314,10.964,16.9233,7.2119,
18.752,2.4044,-8.1738,-12.9818,-10.4833,38.466,-53.8517,9.1361,-39.9081,15.8669,-26.8314,-4.036,26.4451,19.7135,
33.752,17.4044,-10.5782,-3.8466,-16.3476,41.3506,-38.8517,8.6545,-54.9081,3.8466,-39.4269,-19.036,11.5397,17.3099,
38.9467,6.2505,0.48116,-0.48116,-31.3476,26.3506,-53.8517,16.8288,-69.9081,16.8288,-50.4863,-34.036,22.5991,17.7902,
23.9467,3.8466,-14.5188,-15.4812,-17.309,41.3506,-38.8517,1.8288,-54.9081,14.4248,-35.4863,-19.036,14.4248,5.7703,
36.5427,18.8466,-8.6545,-0.48116,-32.309,38.4655,-43.2739,16.8288,-69.9081,-0.57521,-50.4863,-34.036,27.8873,5.7703,
21.5427,5.7698,-7.6926,-13.4629,-17.309,53.4655,-28.2739,10.5787,-79.8162,-1.9233,-35.5808,-19.2323,19.2332,13.4629,
31.7338,20.1942,-22.1179,-14.4248,-2.309,68.4655,-13.2739,1.9228,-64.8162,-3.8465,-28.8496,-4.2323,4.2332,7.6931,
32.6961,17.3099,-11.5397,-3.8466,-8.6545,65.3923,-28.2739,16.3485,-77.8929,3.8466,-43.8496,-17.309,19.2332,17.3099,
17.6961,5.7703,-26.5397,-18.8466,6.3455,80.3923,-13.2739,1.3485,-62.8929,-4.808,-28.8496,-2.309,4.2332,4.808,
32.6961,20.7703,-13.9436,-3.8466,2.404,65.3923,-28.2739,7.2119,-77.8929,-0.48116,-43.8496,-17.309,12.9822,0.48116,
17.6961,5.7703,-24.0412,-18.8466,5.7698,52.8908,-13.4629,-1.9233,-62.8929,8.655,-28.8496,-7.6926,10.5787,4.8084,
2.6961,8.655,-39.0412,-29.8115,12.5015,67.8908,-0.96187,-8.655,-47.8929,0.96187,-13.8496,7.3074,-4.4213,0.96187,
17.6961,11.5392,-24.0412,-14.8115,-2.4985,52.8908,-15.9619,6.345,-62.8929,5.7698,-28.8496,-7.6926,10.5787,15.9619,
2.6961,-3.3658,-37.0234,-29.8115,8.1738,67.8908,-6.251,-6.251,-47.8929,-0.4807,-13.8496,7.3074,2.4035,16.8283,
17.6961,9.6159,-27.8882,-14.8115,-6.8262,52.8908,-21.251,8.6545,-32.8929,7.6931,-9.6168,-7.6926,11.5397,14.4239,
7.2124,-0.48071,-12.8882,-8.1738,-17.7906,37.8908,-35.1001,18.752,-17.8929,22.5986,0.48071,-22.6926,26.5397,24.5214,
8.1733,12.0208,-27.8882,-21.6367,-2.7906,52.8908,-20.1001,3.752,-32.8929,7.5986,-12.0208,-18.7525,11.5397,12.9822,
23.1733,13.9441,-18.752,-6.6367,0.4807,67.8908,-35.1001,12.0204,-47.8929,-1.4421,-27.0208,-33.7525,11.0589,8.1738,
8.1733,0.4807,-26.4451,-21.6367,12.9827,82.8908,-20.1001,-2.9796,-32.8929,12.0213,-12.0208,-18.7525,3.3658,7.2124,
23.1733,15.4807,-21.156,-6.6367,-2.0173,84.6246,-18.2718,12.0204,-47.8929,4.8084,-26.9263,-32.6957,12.5015,21.156,
23.56,13.9441,-8.1738,-8.1738,-7.2124,99.6246,-25.4837,19.7135,-48.563,7.2124,-14.9055,-21.6372,19.7135,30.2917,
8.56,11.0589,-23.1738,-23.1738,7.2124,114.6246,-15.8669,4.7135,-33.563,0.4807,0.094502,-6.6372,4.7135,15.2917,
22.1179,15.3862,-24.0407,-8.1738,-7.7876,99.6246,-30.8669,13.4634,-48.563,5.7703,-14.9055,-21.6372,2.8851,6.7317,
9.1357,13.9436,-23.5605,-23.1738,7.2124,114.6246,-15.8669,-1.4426,-33.563,-1.4426,-17.7902,-6.6372,1.4426,21.6367,
24.1357,28.9436,-21.1565,-10.5782,22.2124,120.2054,-25.9644,10.5782,-48.563,-5.7703,-32.7902,-3.8466,3.8466,16.3476,
9.1357,13.9436,-27.8877,-25.5782,18.2709,105.2054,-30.7729,2.8847,-63.563,-1.9233,-34.6194,-18.8466,5.7698,9.6164,
0.48071,12.0204,-36.062,-32.2154,33.2709,120.2054,-15.7729,-11.0589,-48.563,-8.1738,-19.6194,-3.8466,-8.1738,8.1738,
15.4807,22.5981,-22.5991,-17.2154,22.5981,105.2054,-30.7729,3.9411,-63.563,-11.0594,-34.6194,-18.8466,6.8262,4.3277,
0.48071,7.5981,-35.1006,-32.2154,28.368,102.4147,-15.7729,1.4421,-48.563,-0.48071,-29.3303,-16.8292,1.4421,5.2887,
13.4634,17.3099,-26.9259,-24.0407,15.3862,87.5102,-19.2328,2.8851,-37.5041,0,-21.1556,-1.8292,-1.9228,13.4634,
4.3277,2.3099,-14.905,-17.7902,12.9822,72.5102,-33.1764,6.2505,-52.5041,-1.4426,-29.3298,-16.8292,13.0772,19.7139,
-7.2119,3.3654,-29.905,-32.7902,27.9822,87.5102,-18.1764,-7.2119,-37.5041,-4.3277,-14.3298,-1.8292,2.404,11.0594,
7.7881,13.4625,-20.1951,-17.7902,12.9822,72.5102,-33.1764,7.7881,-52.5041,6.7317,-23.0793,-16.8292,17.404,20.1942,
-7.2119,-1.5375,-35.1951,-32.7902,15.3862,87.5102,-21.1565,-0.96141,-37.5041,0.96141,-8.0793,-1.8292,3.8465,14.4248,
5.7698,10.5787,-40.3888,-23.0788,11.5401,98.088,-33.6571,0.96187,-38.466,-0.96187,-18.2709,7.6936,-11.1535,7.6936,
12.0208,12.9822,-25.3888,-12.0208,-3.4599,83.088,-48.6571,15.9619,-53.466,14.0381,-33.2709,-7.3064,3.8465,19.7139,
-2.9792,1.9233,-38.466,-27.0208,-0.96187,98.088,-33.6571,5.7698,-38.466,4.8084,-18.2709,7.6936,0.96187,12.5015,
12.0208,16.9233,-23.466,-12.0208,-14.4248,83.088,-28.8496,20.7698,-53.466,3.8466,-33.2709,-7.3064,11.5397,13.4634,
3.3654,1.9233,-21.6367,-27.0208,0.57521,98.088,-17.7902,5.7698,-38.466,5.2891,-23.5605,-1.4426,4.3277,13.9436,
14.4243,16.9233,-30.7729,-20.1946,15.5752,84.6246,-28.8491,1.9233,-31.7343,-1.9233,-16.3481,1.9233,-7.6936,7.6926,
19.2332,7.6936,-22.1174,-5.1946,0.57521,69.6246,-43.8491,14.4253,-46.7343,1.9233,-31.3481,-8.655,6.7321,8.655,
4.2332,9.1361,-33.1768,-20.1946,15.5752,84.6246,-28.8491,-0.57475,-31.7343,2.4044,-16.3481,6.345,-8.2679,9.1361,
19.2332,24.1361,-18.1768,-5.1946,11.5397,70.2002,-38.4655,7.6931,-46.7343,-0.96141,-31.3481,-5.7703,0.96141,14.4248,
4.2332,9.6164,-16.3481,-18.2718,26.5397,75.0077,-34.6194,10.5778,-32.6966,-3.847,-16.3481,-1.9233,5.7698,15.3857,
3.8466,17.3099,-31.3481,-25.9644,34.619,90.0077,-31.7338,-3.8466,-18.2713,-6.7317,-1.3481,13.0767,-5.7703,8.6545,
17.7902,14.906,-16.3481,-12.9822,19.619,75.0077,-46.7338,6.2505,-33.2713,6.2505,-16.3481,-1.9233,9.2297,12.9822,
2.7902,13.9436,-19.7139,-27.9822,5.2891,90.0077,-31.7338,-5.2891,-18.2713,6.2505,-2.404,13.0767,-5.7703,10.0971,
17.7902,28.9436,-17.3095,-12.9822,-9.7109,75.0077,-37.5036,9.7109,-33.2713,1.9233,-17.404,13.4629,-1.9233,11.5401,
2.7902,13.9436,-23.5605,-26.4456,5.2891,60.0077,-24.5219,-0.48116,-27.407,0.48116,-11.0585,17.7902,6.2505,6.2505,
2.4049,10.098,-25.4833,-34.1378,20.2891,75.0077,-9.5219,-15.4812,-12.407,-1.4426,1.4426,32.7902,-8.7495,-1.4426,
7.2124,11.0589,-10.4833,-19.1378,14.9055,60.0077,-24.5219,-0.48116,-27.407,-0.4807,-13.5574,17.7902,3.3658,11.0589,
-4.8084,9.6164,-15.3857,-25.964,29.9055,64.4304,-9.5219,-6.7312,-20.1946,-0.96187,0.96187,31.7343,-1.9233,14.4253,
10.1916,24.6164,-4.808,-10.964,30.7724,49.4304,-24.5219,8.2688,-35.1946,0,-14.0381,16.7343,10.5782,0,
7.6931,9.6164,-9.6159,-17.309,23.0793,34.4304,-30.7724,0.96141,-25.9644,8.6554,-12.5011,1.7343,15.3862,-0.96141,
-1.4426,12.0199,-24.6159,-22.5991,38.0793,49.4304,-15.7724,-14.0386,-10.9644,1.4426,-1.4426,16.7343,0.3862,7.2119,
13.5574,12.9822,-13.9436,-7.5991,47.6012,34.4304,-30.7724,0.96141,-25.9644,-9.1357,-16.4426,1.7343,2.404,8.1743,
2.8847,6.7312,-9.6164,-22.1184,62.6012,49.4304,-15.7724,-2.8847,-16.3481,-1.9233,-3.847,16.7343,1.9233,4.8084,
17.8847,21.7312,-7.6936,-10.5787,69.2384,43.2739,-6.7321,9.6164,-31.3481,1.9233,-18.847,1.7343,-1.9233,2.8847,
12.9822,6.7312,-9.1357,-24.5219,77.4122,34.1387,-13.9436,-2.404,-46.3481,3.3663,-33.847,-13.2657,4.3277,2.404,
6.7312,14.4253,-19.2323,-26.9263,90.3949,49.1387,0.96187,-11.5392,-31.3481,6.7312,-18.847,1.7343,-0.96187,-1.9233,
21.7312,21.1565,-8.6545,-11.9263,75.3949,34.1387,-14.0381,3.4608,-43.2739,17.3099,-33.847,-13.2657,14.0381,3.8466,
6.7312,6.1565,-21.6367,-26.9263,60.3949,35.1001,-9.1357,-7.2119,-28.2739,15.8674,-18.847,1.7343,-0.96187,1.4426,
15.8669,16.8283,-12.9827,-12.9827,45.3949,36.062,-24.1357,-2.4044,-16.8292,12.9818,-19.7135,16.7343,-2.4044,2.4044,
20.1946,4.8084,0.96187,-0.96187,30.3949,21.062,-39.1357,12.5015,-31.8292,14.4243,-34.7135,1.7343,12.5956,11.5401,
21.6367,8.1743,-7.2119,-9.1357,15.3949,6.062,-54.1357,11.0594,-46.8292,9.1357,-43.7546,-13.2657,10.0971,7.2119,
36.6367,2.8854,-0.96164,0.96164,0.39485,-8.938,-69.1357,17.3092,-61.8292,0.96164,-58.7546,-28.2657,15.3864,1.923,
23.56,-2.4044,2.4044,-12.9822,15.3949,-17.7906,-54.1357,12.0204,-65.8725,11.0589,-43.7546,-37.0234,19.7135,14.9055,
16.8288,12.5956,-10.0971,-13.9436,30.3949,-2.7906,-39.1357,6.2505,-50.8725,-3.9411,-28.7546,-22.0234,4.7135,-0.094502,
1.8288,1.4421,-18.752,-28.9436,45.3949,12.2094,-24.1357,-8.7495,-35.8725,-1.4421,-13.7546,-7.0234,-10.2865,-3.3658,
-13.1712,-12.5011,-33.752,-43.9436,60.3949,27.2094,-9.1357,-23.7495,-20.8725,-4.808,1.2454,7.9766,-25.2865,4.808,
-25.0026,-1.9233,-45.1967,-58.9436,75.3949,42.2094,5.8643,-38.7495,-5.8725,-5.7698,16.2454,22.9766,-40.2865,1.9233,
-40.0026,-16.9233,-46.6402,-73.9436,90.3949,57.2094,20.8643,-53.7495,9.1275,4.3273,31.2454,37.9766,-47.6016,-4.3273,
-52.4096,-1.9233,-57.2176,-86.0671,105.3949,72.2094,35.8643,-68.7495,24.1275,0.4807,46.2454,52.9766,-62.6016,-8.1738,
-37.5036,-5.7698,-42.2176,-71.0671,93.28,87.2094,50.8643,-53.7495,39.1275,0.96187,61.2454,67.9766,-47.6016,-0.96187,
-29.8105,-9.6164,-42.3125,-74.0463,78.28,102.2094,65.8643,-46.1591,54.1275,2.8847,74.0463,82.9766,-38.466,-2.8847,
-14.8105,4.3273,-27.3125,-59.0463,63.28,87.2094,50.8643,-31.1591,39.1275,8.1738,59.0463,67.9766,-23.466,-3.3658,
0.18946,-5.2891,-12.3125,-44.0463,48.28,72.2094,35.8643,-16.1591,24.1275,13.9436,44.0463,52.9766,-8.466,10.0971,
15.1895,9.7109,-12.0204,-29.0463,33.28,57.2094,20.8643,-1.1591,9.1275,2.4044,29.0463,37.9766,6.534,12.0204,
29.811,5.7703,2.9796,-14.0463,18.28,42.2094,5.8643,13.8409,-5.8725,8.6545,14.0463,22.9766,21.534,11.5397,
14.811,3.8466,-3.8466,-20.1942,3.28,27.2094,-9.1357,5.7703,-20.8725,8.6554,-0.95367,7.9766,6.534,4.8089,
29.811,18.8466,-0.96187,-5.1942,-11.72,12.2094,-24.1357,20.7703,-35.8725,0.96187,-15.9537,-7.0234,14.4243,7.6926,
38.9462,12.9818,3.3658,-3.3658,-16.8288,-2.7906,-39.1357,22.5986,-50.8725,15.9619,-30.9537,-22.0234,29.4243,22.6926,
38.466,23.0798,-7.6926,-5.7698,-12.5006,5.7698,-35.5804,9.6173,-35.8725,16.3481,-22.1174,-13.4629,14.4253,17.3104,
30.7724,9.6159,0,4.808,-27.5006,-9.2302,-50.5804,22.117,-50.8725,1.3481,-37.1174,-28.4629,24.0407,4.808,
16.8292,6.251,-3.3658,-10.192,-12.5006,5.7698,-35.5804,12.0204,-65.8725,3.3658,-52.1174,-14.9055,15.8669,11.0589,
31.8292,21.251,-0.4807,-8.1738,-27.5006,3.3658,-32.215,16.8292,-80.8725,0.4807,-58.1794,-29.9055,11.0589,17.7906,
16.8292,6.251,-1.4426,-23.1738,-21.6367,18.3658,-37.9853,12.0208,-65.8725,1.4426,-43.1794,-27.407,19.7139,18.7516,
1.8292,6.7317,-16.4426,-25.003,-6.6367,33.3658,-22.9853,-0.96141,-50.8725,0,-28.1794,-12.407,4.7139,3.7516,
16.8292,6.7308,-1.4426,-10.003,-21.6367,18.3658,-37.9853,14.0386,-65.8725,8.6545,-43.1794,-27.407,16.3476,5.7694,
1.8292,0,-7.6931,-23.0793,-6.6367,33.3658,-22.9853,-0.96141,-50.8725,10.5782,-28.1794,-12.407,3.8465,11.5397,
16.8292,15,-4.3273,-8.0793,-13.9441,37.0234,-31.2531,9.1361,-45.6779,8.1738,-29.3303,-6.251,5.2896,4.3273,
13.9436,5.2891,6.2505,-6.2505,-21.6372,22.0234,-40.8699,11.0585,-51.4482,18.7516,-27.407,-21.251,20.2896,11.0585,
6.251,7.2124,-8.7495,-21.2505,-6.6372,37.0234,-25.8699,-3.9415,-36.4482,9.1352,-12.407,-6.251,5.2896,-0.4807,
21.251,20.1951,1.9237,-6.2505,-21.6372,22.0234,-32.6957,11.0585,-51.4482,14.4248,-27.407,-21.251,19.2328,0.96141,
8.1738,5.1951,-8.1747,-21.2505,-6.6372,19.7135,-17.6957,-1.443,-36.4482,5.2887,-13.9441,-6.251,4.2328,4.3273,
23.1738,20.1951,-1.443,-8.1747,0.4807,5.2887,-12.0213,10.0966,-51.4482,-0.4807,-28.9441,-13.9441,5.2887,18.752,
22.5986,5.1951,3.3658,-3.3658,-14.5193,-5.2887,-27.0213,16.8283,-66.4482,12.9818,-43.9441,-28.9441,20.2887,18.752,
7.5986,2.8842,-11.6342,-18.3658,0,9.7113,-12.0213,1.8283,-51.4482,15.3862,-28.9441,-13.9441,5.2887,3.752,
22.5986,12.9822,0.48116,-3.3658,-15,-5.2887,-27.0213,16.8283,-66.4482,1.4426,-43.9441,-28.9441,16.8288,2.404,
7.5986,0.96187,-0.96187,-15.3857,-28.8491,2.8847,-29.8105,11.5401,-57.6983,0.96187,-28.9441,-14.4243,17.3095,9.6164,
19.7135,15.9619,-7.2124,-0.38575,-34.1383,-12.0204,-44.8105,12.0204,-72.6042,6.251,-42.7932,-4.3273,7.2124,5.2896,
13.9432,0.96187,-0.48071,5.2887,-42.7932,-27.0204,-59.8105,9.1352,-87.6042,8.1738,-57.7932,-19.3273,17.7897,5.2887,
8.1743,12.0208,-10.0971,-9.7113,-27.7932,-12.0204,-44.8105,-4.3268,-72.6042,6.2505,-48.563,-4.3273,6.2505,9.1357,
23.1743,19.7139,-2.404,5.2887,-42.7932,-27.0204,-59.1413,10.6732,-87.6042,4.3277,-63.563,-19.3273,16.8288,2.404,
11.0585,4.7139,-1.4426,12.9822,-27.7932,-12.0204,-47.6016,13.9436,-72.6042,19.3277,-48.563,-34.3273,20.6753,11.0585,
22.1179,17.3099,-11.5397,10.5782,-12.7932,-10.5782,-48.0823,4.808,-57.6042,16.3476,-36.5427,-25.003,6.7317,7.6931,
19.7135,9.1361,-7.2124,7.2124,-27.7932,-25.5782,-51.4477,13.9441,-57.2176,18.752,-40.8695,-34.1382,19.7135,8.1738,
4.7135,5.2887,-22.2124,-7.7876,-12.7932,-10.5782,-36.4477,-0.4807,-42.2176,12.9818,-25.8695,-19.1382,4.7135,3.3658,
19.7135,9.1357,-21.6367,3.3654,2.2068,3.3654,-51.4477,11.0594,-57.2176,-2.0182,-40.8695,-34.1382,3.3654,-7.2119,
4.7135,-1.9233,-11.5401,-11.6346,17.2068,18.3654,-36.4477,1.9233,-42.2176,4.8084,-25.8695,-19.1382,2.8847,-2.8847,
-6.2505,6.2505,-26.5401,-26.6346,32.2068,33.3654,-21.4477,-13.0767,-27.2176,-8.1733,-10.8695,-4.1382,-12.1153,-16.8288,
2.8851,-3.8466,-23.0793,-11.6346,47.2068,18.3654,-15.3862,0.96232,-42.2176,0,-25.8695,3.8465,2.8847,-1.8288,
-10.5773,-3.8466,-21.1556,-22.117,62.2068,33.3654,-0.3862,-10.5773,-27.2176,12.502,-10.8695,18.8465,3.8466,11.5397,
4.4227,7.2124,-12.9827,-7.2124,77.2068,18.3654,-15.3862,0.48071,-42.2176,4.3273,-25.8695,6.2501,-2.4044,-0.48071,
-0.4807,-7.2124,-12.0213,-14.9055,92.2068,33.3654,-5.2896,0.4807,-37.0234,10.0966,-27.4075,20.6749,8.1738,7.2124,
-3.3658,7.7876,-27.0213,-14.9055,107.2068,48.3654,2.4044,-4.3273,-22.0234,11.0589,-12.4075,35.6749,-5.2887,11.0589,
1.9233,4.8084,-20.1946,-7.6926,92.2068,33.3654,-12.5956,9.6164,-37.0234,11.5401,-27.4075,20.6749,-1.9233,8.655,
-8.655,-2.8847,-23.0788,-22.6926,84.6246,48.3654,2.4044,-5.3836,-22.0234,13.4629,-12.4075,35.6749,-13.4629,2.8847,
6.345,12.0204,-24.5223,-7.6926,89.9137,33.3654,-7.2124,-4.3273,-33.1768,2.4044,-27.4075,20.6749,-4.3273,-1.4421,
-5.7698,-2.8847,-20.1946,-8.655,74.9137,21.156,-6.7312,2.8847,-25.964,11.5401,-13.4629,7.6936,7.6936,10.5778,
-12.0208,0.48116,-34.1387,-23.655,59.9137,30.2912,8.2688,-11.0594,-10.964,-0.48116,1.5371,22.6936,-7.3064,-4.4222,
2.9792,11.5397,-19.1387,-8.655,44.9137,15.2912,-4.808,3.9406,-25.964,9.6168,-13.4629,7.6936,7.6936,-4.808,
-8.6545,-0.96141,-20.1942,-23.655,59.9137,27.8873,10.192,-11.0594,-10.964,7.6931,0.96141,22.6936,-3.8466,-1.9237,
6.3455,14.0386,-17.3095,-8.655,44.9137,12.8873,6.7312,-0.96187,-21.156,8.655,-14.0386,12.5015,-10.5778,2.8847,
-3.8466,-0.96141,-14.4248,-11.5397,29.9137,9.6168,1.9237,7.6931,-13.4634,10.5782,-22.1179,10.5782,-0.96141,0.96141,
-5.7703,0,-29.4248,-25.003,44.9137,24.6168,16.9237,-7.3069,1.5366,1.9237,-7.1179,25.5782,-15.9614,-6.7317,
9.2297,2.8847,-15.3867,-10.003,58.6601,9.6168,2.8847,-1.9233,-13.4634,4.8084,-22.1179,10.5782,-0.96141,1.9233,
-5.7694,-3.8466,-26.9259,-25.003,73.6601,24.6168,17.8847,-4.808,-16.3476,3.8466,-9.6159,25.003,4.8089,4.8089,
5.2887,11.1534,-30.2917,-14.9055,83.182,19.7135,23.56,1.4421,-31.2531,-9.1352,-24.6159,21.6372,-3.3658,-1.4421,
-0.48116,-3.3654,-15.2917,-9.1357,86.0667,4.7135,24.5219,3.3654,-30.2922,0.48116,-23.5605,12.9822,11.6342,11.0585,
-14.4253,-9.6173,-30.2917,-24.1357,98.087,19.7135,39.5219,-11.6346,-15.2922,-1.9233,-8.5605,27.9822,-3.3658,1.9233,
0.57475,3.3658,-17.7897,-9.1357,83.087,4.7135,24.5219,3.3654,-22.5986,11.0589,-23.5605,12.9822,11.6342,8.1747,
-14.4253,-11.6342,-32.7897,-24.1357,86.0667,9.1357,16.8288,-11.6346,-7.5986,9.1357,-8.5605,27.9822,1.4426,-1.4426,
-10.0971,3.3658,-35.1001,-13.9436,82.221,12.0208,12.9822,-6.2505,1.4426,11.0594,-3.3654,32.215,-3.3654,-1.4426,
-3.3658,3.3658,-20.1001,-5.2887,67.221,-2.9792,-2.0178,8.7495,-13.5574,22.5986,-16.8283,17.215,11.6346,6.251,
-11.0585,-1.4426,-31.2527,-20.2887,82.221,12.0208,12.9822,-6.2505,1.4426,12.9822,-1.8283,32.215,-3.3654,-3.3654,
3.9415,2.404,-20.6753,-5.2887,67.221,-2.9792,1.4426,8.1743,-13.5574,-1.4426,-16.8283,17.215,5.2891,-2.404,
-11.0585,-12.596,-26.9263,-20.2887,65.3918,2.8847,12.5015,-3.847,-13.4629,-2.8847,-1.8283,13.4629,7.6926,6.7312,
0,2.404,-34.619,-16.3476,77.8933,13.4634,16.3485,-5.7694,-18.2704,-0.96141,-8.6545,28.4629,0,5.7703,
-1.9237,-3.8465,-26.9259,-6.7317,86.5478,0,1.3485,5.7703,-33.2704,6.7317,-23.6545,13.4629,12.5011,6.7317,
-16.9237,-12.9818,-41.8314,-21.7317,101.5478,15,16.3485,-8.1738,-18.2704,-0.4807,-8.6545,28.4629,-2.4989,0.4807,
-1.9237,2.0182,-26.8314,-6.7317,86.5478,0,1.3485,6.8262,-33.2704,-1.9233,-23.6545,22.1174,1.9233,5.7698,
-4.808,-2.8851,-19.2328,-15.3862,71.5478,2.8851,16.3485,-7.6931,-27.8882,9.6159,-29.811,37.1174,8.6545,14.4248,
-6.7317,3.8466,-34.2328,-20.1942,83.6627,13.4634,31.3485,-11.5397,-12.8882,12.5011,-23.0793,52.1174,-6.3455,8.6545,
1.9237,-1.9237,-19.2328,-5.1942,68.6627,-1.5366,16.3485,3.4603,-23.0793,15.3862,-27.8873,37.1174,8.6545,5.7703,
-13.0763,-12.5011,-25.9644,-20.1942,77.8933,13.4634,31.3485,-11.5397,-8.0793,6.7317,-12.8873,51.9289,-6.3455,-6.7317,
0.96141,2.4989,-18.2713,-5.1942,62.8933,-1.5366,16.3485,1.9228,-17.3099,11.5397,-27.8873,36.9289,-0.96141,2.8851,
-13.4629,-4.8084,-14.4243,-13.4629,63.4681,-5.7698,1.3485,1.9233,-2.3099,24.0412,-12.8873,51.9289,11.5401,17.8851,
-9.6164,-0.96187,-29.4243,-21.156,78.4681,9.2302,16.3485,-9.6164,5.7698,9.0412,-4.8084,66.9289,-3.4599,2.8851,
2.8847,-0.96187,-14.4243,-6.156,63.4681,-5.7698,1.3485,5.3836,-9.2302,0.96187,-19.8084,51.9289,10.5778,4.8084,
-12.1153,-7.2124,-20.6749,-21.156,78.4681,9.2302,16.3485,-9.6164,5.7698,5.2887,-5.2887,59.1413,-4.4222,8.1738,
2.8847,1.9233,-24.0412,-6.156,63.4681,-1.9233,7.6936,-7.6926,-9.2302,4.8084,-20.2887,44.1413,-1.9233,3.847,
-3.8466,-13.0767,-19.2328,-12.5011,49.0437,13.0767,3.8466,-7.6931,-18.2713,8.6554,-17.309,31.7347,5.7703,3.8466,
-2.8851,1.9233,-21.1565,-12.5011,64.0437,28.0767,18.8466,-10.5782,-3.2713,2.8851,-5.7703,46.7347,-9.2297,-3.8465,
6.251,8.1738,-10.0975,1.4421,49.0437,13.0767,3.8466,3.3658,-18.2713,2.4044,-20.7703,31.7347,-1.4421,-2.4044,
-8.749,-6.8262,-22.5981,-13.5579,64.0437,28.0767,18.7525,-11.6342,-3.2713,1.4426,-5.7703,46.7347,-8.1743,3.3663,
6.251,8.1738,-10.0975,-2.4044,67.7958,24.5223,3.7525,-6.251,-15.8669,2.4044,-20.7703,43.7551,-7.2124,8.1738,
2.4044,-6.8262,-2.4044,-4.3273,81.2592,9.5223,12.9818,-1.4421,-25.4837,10.0975,-34.1382,38.9462,-1.4421,7.2124,
-7.6931,-3.8466,-17.4044,-19.2328,77.8933,24.5223,27.9818,-14.4248,-10.4837,0,-19.1382,53.9462,-15.3862,0,
7.3069,6.7317,-6.7317,-4.2328,62.8933,9.5223,12.9818,0.57521,-25.4837,-4.808,-34.1382,38.9462,-0.3862,10.5782,
-3.3658,-1.4421,-14.9055,-12.0204,75.4889,6.251,9.1352,-3.3658,-29.3303,1.4421,-36.062,35.0997,2.4044,10.0975,
9.1352,12.0204,-15.8669,-4.3273,60.4889,12.0204,-0.4807,-0.4807,-31.2531,4.3273,-36.062,32.2154,-3.3658,0.4807,
-4.8084,-2.9796,-2.8847,-14.4253,45.4889,27.0204,-5.7698,2.8847,-16.2531,7.6926,-21.062,25.964,3.8461,4.8084,
-14.9055,0.48071,-17.8847,-24.5223,60.4889,42.0204,9.2302,-12.1153,-1.2531,-4.3273,-6.062,40.964,-11.1539,-0.48071,
0.094501,12.9818,-15.8669,-9.5223,75.4889,57.0204,-5.7698,-2.4044,-16.2531,5.2887,-21.062,25.964,-12.9827,-0.4807,
-14.9055,-2.0182,-22.1179,-24.5223,90.4889,72.0204,9.2302,-17.4044,-1.2531,4.808,-6.062,40.964,-22.1179,-4.808,
0.094501,12.0204,-16.8292,-23.5609,105.4889,70.6809,20.6749,-12.0213,13.7469,-7.2124,-1.443,55.964,-24.5223,-0.4807,
-1.9228,10.5782,-5.7694,-9.6159,100.9726,73.0854,14.4248,0,-1.2531,0,-16.3476,40.964,-9.5223,14.4248,
-16.9228,4.8084,-20.7694,-24.6159,115.9726,88.0854,29.4248,-15,13.7469,-5.7698,-1.3476,55.964,-24.5223,-0.57521,
-1.9228,12.0208,-12.0208,-22.5991,122.6094,87.029,14.4248,-9.1357,-1.2531,-2.404,-16.3476,61.0646,-17.7902,5.2891,
-16.9228,-2.9792,-20.1951,-37.5991,137.6094,102.029,29.4248,-23.0793,13.7469,-6.7317,-1.3476,76.0646,-25.9644,10.5782,
-23.0798,2.8847,-34.6194,-40.3888,122.6094,117.029,29.8105,-29.8105,28.7469,-14.4243,7.6936,63.4681,-40.9644,-2.8847,
-15.3867,-2.8847,-19.6194,-25.3888,107.6094,102.029,14.8105,-14.8105,32.6957,0.57566,-1.9233,48.4681,-25.9644,1.9233,
-30.3867,-10.0966,-34.6194,-40.3888,122.6094,117.029,29.8105,-29.8105,47.6957,7.2124,13.0767,63.4681,-38.9462,-7.2124,
-15.3867,4.3273,-24.5214,-28.368,107.6094,102.029,17.7906,-14.8105,36.062,-0.48071,-1.9233,72.6047,-28.368,0.48071,
-30.3867,-10.6727,-31.7338,-43.368,98.0875,111.5509,2.7906,-12.5011,37.5041,1.9237,3.8465,57.6047,-25.0021,0,
-15.8669,-0.4807,-29.3303,-31.2531,90.8751,109.1464,0.4807,-8.1738,52.5041,13.9441,6.251,68.7572,-27.4066,-1.4421,
-9.6159,-9.6159,-14.3303,-19.2328,75.8751,94.1464,-14.5193,3.8466,37.5041,16.3476,-8.749,53.7572,-12.4066,6.7317,
-24.6159,-12.0208,-29.3303,-34.2328,90.8751,79.1464,0.4807,-11.1534,33.1764,1.3476,6.251,55.2943,-23.5605,2.404,
-9.6159,2.9792,-19.2328,-19.2328,81.7399,64.1464,-14.5193,3.8466,18.1764,0,-8.749,40.2943,-8.5605,7.6931,
-13.9441,-10.0975,-17.7906,-21.6372,84.1434,49.1464,-25.4837,-0.48071,3.1764,5.2887,-5.2896,25.2943,5.2887,5.2887,
-3.3663,4.9025,-17.7902,-16.8288,99.1434,64.1464,-10.4837,-4.3277,1.4426,-1.4426,-7.2129,40.2943,-7.2129,2.404,
8.6545,7.6931,-5.7703,-3.8466,84.1434,49.1464,-25.4837,8.6545,-13.5574,-9.6168,-22.2129,25.2943,3.8466,10.5782,
-6.3455,0.96187,-19.2332,-18.8466,86.5483,64.1464,-10.4837,-6.3455,1.4426,-0.96187,-7.6936,40.2943,-10.5778,13.4629,
8.6545,13.9441,-9.1352,-9.1352,71.5483,49.1464,-25.4837,2.4044,-13.5574,6.251,-22.6936,25.2943,0.4807,0.4807,
0.96141,-0.96141,-6.7317,-16.3476,56.5483,34.1464,-22.1179,2.8851,-28.5574,10.5782,-37.6936,10.2943,6.7317,2.8851,
1.9233,12.5015,-20.1946,-19.2323,41.5483,49.1464,-8.655,-1.9233,-13.5574,5.7698,-31.7343,25.2943,-8.2683,12.5015,
14.4248,1.9237,-5.1946,-4.2323,26.5483,34.1464,-23.655,13.0767,-28.5574,8.6545,-46.7343,10.2943,6.7317,13.4634,
0.96187,-6.7312,-0.96187,-17.3095,11.5483,19.1464,-35.5808,11.5401,-13.5574,16.3481,-31.7343,7.6936,17.3095,7.6936,
15.9619,8.2688,-3.8466,-2.3095,-3.4517,4.1464,-47.12,20.1951,-28.5574,15.3871,-46.7343,-7.3064,13.4634,7.6931,
11.5397,11.5397,0.96141,-0.96141,-1.9228,-10.8536,-32.12,22.1179,-43.5574,24.0416,-51.9284,-15.3862,22.1179,19.2328,
-3.4603,9.1357,-14.0386,-15.9614,13.0772,4.1464,-17.12,7.1179,-28.5574,9.0416,-36.9284,-0.3862,7.1179,4.2328,
7.2124,7.2124,-0.48071,-2.4044,-1.9228,0.48071,-32.12,20.6749,-43.5574,8.1738,-37.9853,-8.1738,8.1738,12.9818,
-7.7876,-7.7876,-15.4807,-17.4044,13.0772,15.4807,-17.12,5.6749,-28.5574,1.9233,-22.9853,6.8262,-6.8262,3.8461,
2.404,7.2124,-18.7516,-16.8288,-1.9228,30.4807,-9.1357,6.2505,-13.5574,3.3654,-29.3298,21.8262,-13.9436,4.3277,
-1.9233,-2.8847,-8.6541,-17.3095,6.7321,44.2362,-24.1357,12.5015,-20.1946,12.5015,-29.8105,25.0026,1.0564,14.4253,
-16.9233,-4.808,-23.6541,-32.3095,21.7321,59.2362,-9.1357,-2.4985,-5.1946,-2.4985,-14.8105,40.0026,-13.9436,2.8851,
-1.9233,10.192,-9.1361,-17.3095,36.7321,44.2362,-24.1357,12.5015,-20.1946,-1.4421,-27.4066,25.0026,1.0564,10.0975,
-16.9233,-3.8466,-23.0793,-27.8873,51.7321,53.8526,-9.1357,-0.96141,-5.1946,0.96141,-12.4066,25.003,-1.9228,12.502,
-1.9233,11.1534,-26.4451,-14.9055,62.0255,56.2561,-10.0975,4.3273,-15.8669,-0.4807,-27.4066,14.9055,-12.0204,14.9055,
5.2891,3.3654,-17.7911,-16.8288,55.2943,41.2561,-25.0975,9.1357,-30.2922,-1.4426,-39.9081,-0.094502,1.4426,13.9436,
-9.7109,2.8847,-28.85,-31.8288,70.2943,53.8512,-10.0975,-5.8643,-15.2922,-1.9233,-24.9081,14.9055,-13.5574,1.9233,
4.8084,12.5015,-13.85,-16.8288,63.469,38.8512,-5.7698,9.1357,-30.2922,2.8847,-39.9081,-0.094502,-2.8847,9.6164,
-10.1916,-2.4985,-16.3476,-23.0793,78.469,53.8512,9.2302,0.96141,-15.2922,-4.808,-24.9081,9.6159,-7.6931,11.5397,
4.3277,12.5015,-21.6367,-10.0971,77.4122,44.717,-5.7698,0.48116,-1.4426,-0.48116,-9.9081,13.9436,-7.2119,6.2505,
0,0,-6.6367,-8.6545,85.5864,29.717,-20.7698,5.7703,-16.4426,12.502,-24.9081,0,7.7881,12.502,
-15,3.8466,-19.2328,-23.6545,100.5864,44.717,-5.7698,-9.2297,-1.4426,-2.498,-19.2328,15,-7.2119,7.6931,
0,18.8466,-4.808,-8.6545,85.5864,29.717,-17.3099,5.7703,-16.4426,-2.8851,-34.2328,0,-2.8851,12.5011,
-4.8084,3.8466,-4.8084,-8.655,83.6632,35.5808,-2.3099,8.655,-20.1946,12.1149,-31.7343,-3.8461,12.1149,17.3095,
-1.4426,12.0208,-14.905,-11.0585,87.029,44.7169,-5.2891,4.3277,-32.215,1.4426,-32.215,3.3663,-2.8851,8.1743,
12.9827,2.4044,-5.2887,0.4807,72.029,29.7169,-20.2891,19.3277,-47.215,-6.2501,-47.215,-11.6337,12.1149,8.1738,
0.48116,-0.48116,-20.2887,-14.5193,60.1032,39.9081,-5.2891,4.3277,-37.0229,-0.48116,-37.9853,-26.6337,4.3277,3.3654,
15.4812,14.4248,-10.5773,0.4807,45.1032,24.9081,-20.2891,19.2337,-52.0229,6.7317,-52.9853,-41.6337,10.5782,0,
2.404,0.48116,-7.2119,-5.2891,30.1032,9.9081,-35.2891,22.5991,-62.9878,11.0585,-52.4096,-56.6337,14.906,5.2891,
17.404,15.4812,-13.9436,-3.3654,45.1032,24.9081,-44.7165,22.5991,-61.0641,-2.404,-56.2561,-71.6337,3.3663,2.404,
27.8877,24.0412,-1.9233,3.8461,30.1032,9.9081,-59.7165,23.0788,-76.0641,-8.655,-71.2561,-86.6337,14.4243,1.9233,
12.8877,29.3298,-10.0971,-11.0585,45.1032,24.9081,-44.7165,8.0788,-61.0641,-4.3277,-56.2561,-101.6337,-0.57566,8.1743,
27.8877,39.4274,-8.655,3.9415,56.7373,39.9081,-29.7165,23.0788,-76.0641,-11.5401,-71.2561,-116.6337,-1.9233,1.9233,
19.2328,24.4274,-5.7694,-1.9228,71.7373,54.9081,-14.7165,18.2713,-61.0641,0,-56.2561,-131.6337,-1.9228,3.8466,
20.1937,39.4274,-15.3867,-9.6173,86.7373,69.9081,0.28351,3.2713,-46.0641,-1.9233,-41.2561,-116.6337,-16.9228,-4.8084,
30.7729,35.5808,-7.6936,5.3827,87.5097,54.9081,-10.5778,15.3867,-42.3125,-5.7698,-49.0437,-131.6337,-1.9228,-1.9233,
15.7729,21.156,-22.1174,-9.6173,102.5097,69.9081,4.4222,0.38666,-27.3125,-2.8847,-34.0437,-116.6337,-16.3481,2.8847,
22.5991,36.156,-11.0585,-3.3654,110.1083,84.9081,7.2129,9.1357,-32.215,0.48116,-41.8318,-101.6337,-14.905,-0.48116,
7.5991,21.156,-12.9822,-15.8674,100.4915,89.9132,20.6753,9.1357,-17.215,7.2119,-27.407,-103.3771,-8.1743,1.4426,
-1.4426,23.5605,-27.9822,-24.5219,115.4915,104.9132,35.6753,-5.2891,-2.215,3.3654,-12.407,-88.3771,-23.1743,1.4426,
13.5574,19.7135,-23.56,-9.5219,100.4915,100.4919,20.6753,4.3273,-17.215,-2.4044,-27.407,-103.3771,-8.1743,2.4044,
-1.4426,4.7135,-34.1383,-24.5219,91.8374,115.4919,35.6753,-10.6727,-2.215,-0.4807,-12.407,-88.3771,-16.8283,0.4807,
-0.96187,19.7135,-27.8877,-18.2718,76.8374,100.4919,25.964,-1.9233,12.785,0.96187,-9.6164,-100.0112,-17.3095,0.96187,
-15.9619,4.7135,-25.0026,-20.1946,82.7018,85.4919,13.4629,-2.8847,16.3481,3.847,-20.1946,-115.0112,-8.655,3.847,
-26.4447,6.2505,-40.0026,-30.2922,97.6072,100.4919,28.4629,-17.8847,31.3481,1.4426,-5.1946,-100.0112,-23.655,-1.4426,
-11.4447,18.7516,-25.0026,-15.2922,82.6072,85.4919,13.4629,-2.8847,16.3481,12.0199,-20.1946,-115.0112,-8.655,13.5574,
-26.4447,3.7516,-33.1768,-30.2917,78.374,92.7979,19.7135,-6.251,31.3481,3.3658,-5.1946,-100.0112,-13.9441,8.1738,
-11.4447,8.6545,-31.7338,-18.2713,71.1616,77.7979,19.2328,-4.808,44.2358,0.96141,3.8465,-94.2409,-20.1942,-5.7694,
-6.251,-2.4044,-16.7338,-15.8669,56.1616,62.7979,4.2328,-1.4421,31.2531,15.9614,5.2887,-99.5301,-9.1352,4.3273,
-21.251,2.4044,-31.7338,-30.8669,61.0641,77.7979,17.7906,-16.4421,45.6779,7.2124,7.2124,-84.5301,-24.1352,-2.4044,
-6.251,17.4044,-16.7338,-15.8669,46.0641,62.7979,2.7906,-1.4421,30.6779,12.5011,-7.7876,-99.5301,-9.1352,0,
-17.309,2.4044,-18.2713,-14.4248,31.0641,48.0823,15.3862,10.5782,45.6779,26.9259,7.2124,-84.5301,2.8851,-3.8466,
-2.309,16.3481,-21.156,-1.9233,16.0641,33.0823,0.3862,5.7698,51.9284,25.0026,22.2124,-70.2002,-4.8084,0.96187,
-9.1352,6.251,-12.9818,-1.4421,1.0641,18.0823,-14.6138,8.1738,36.9284,20.6749,7.2124,-85.2002,3.3658,13.9441,
-15.8669,4.3273,-24.5223,-16.4421,-13.9359,33.0823,0.3862,-4.3273,51.9284,19.7135,22.2124,-70.2002,-11.6342,10.0975,
-0.86691,9.6168,-20.1942,-4.808,-28.9359,18.0823,-14.6138,10.6727,36.9284,12.502,7.2124,-85.2002,3.3658,1.9237,
-4.3273,-1.4421,-26.4451,-19.808,-43.9359,33.0823,0.3862,-0.4807,32.2154,8.1747,12.9827,-71.6423,0.4807,9.1361,
10.5778,13.5579,-25.0035,-8.655,-58.9359,48.0823,-1.9233,1.9233,17.2154,6.7312,-2.0173,-56.6423,-14.5193,11.5392,
12.9818,0.4807,-10.0035,6.251,-73.9359,33.0823,-16.9233,16.9233,2.2154,18.752,-12.9827,-71.6423,0.4807,12.0204,
-2.0182,0,-15.3862,-8.749,-88.9359,48.0823,-1.9233,1.9233,17.2154,14.4248,2.0173,-56.6423,-8.6554,9.6159,
12.9818,15,-0.96187,0.96187,-103.9359,33.0823,-16.9233,16.3481,2.2154,0.96187,-4.8084,-71.6423,2.8847,12.5015,
1.9233,1.9233,-5.7698,-11.5392,-88.9359,21.1569,-2.8847,7.6936,-4.8075,5.7698,-1.9233,-75.0077,4.8084,8.655,
-0.4807,3.3658,-15.8669,-11.0589,-94.7216,30.2917,0.4807,2.4044,10.1925,3.3658,10.0975,-60.0077,-10.1916,-0.4807,
1.4426,-1.4426,-0.86691,3.3654,-109.7216,15.2917,-14.5193,17.4044,-4.8075,8.1743,-4.9025,-75.0077,4.8084,14.5193,
-12.9818,-1.4421,-9.1352,-11.0589,-94.7216,29.3303,0.4807,2.4044,10.1925,13.9441,10.0975,-60.0077,-0.4807,23.5609,
2.0182,3.847,-7.6926,1.9233,-109.7216,14.3303,-14.5193,6.7312,1.9233,11.5401,-4.9025,-75.0077,-1.9233,8.5609,
-7.2124,-10.0975,0.4807,-8.1738,-114.9163,-0.4807,-15.8669,7.2124,16.9233,26.4451,10.0975,-74.5275,6.251,11.0589,
-11.0594,4.9025,-14.5193,-6.2505,-99.9163,14.5193,-0.86691,-5.2891,31.9233,18.7516,25.0975,-59.5275,-8.749,17.7902,
1.9237,2.8851,-7.6931,8.7495,-93.2795,-0.4807,-15.8669,9.7109,16.9233,24.0407,10.0975,-74.5275,6.251,27.8873,
-13.0763,-12.1149,-18.752,-6.2505,-78.2795,14.5193,-0.86691,0.4807,31.9233,20.6749,25.0975,-59.5275,-7.2124,14.9055,
1.4421,-2.4044,-18.752,-1.4421,-63.2795,-0.4807,-15.8669,7.2124,16.9233,15.8669,10.0975,-74.5275,-10.0975,7.2124,
-10.5782,-10.5782,-15.3862,-6.7317,-48.2795,9.6168,-0.96141,-4.808,27.8882,14.4248,20.1951,-78.8547,0.96141,13.4634,
-17.7906,0.48071,-27.4075,-21.7317,-33.2795,24.6168,12.0204,-19.808,42.8882,-0.48071,30.2917,-63.9492,-14.0386,4.3273,
-2.7906,3.8461,-12.4075,-6.7317,-27.8877,9.6168,-2.9796,-4.808,27.8882,14.5193,15.2917,-78.9492,0.96141,16.3481,
-12.5015,-4.8084,-11.5401,-16.3481,-12.8877,24.0412,12.0204,-0.96187,42.8882,14.4243,30.2917,-91.3563,-4.8084,11.5401,
2.4985,10.1916,-14.4248,-1.3481,2.1123,24.0416,-2.9796,5.7703,27.8882,-0.57566,15.2917,-106.3563,-7.6931,2.8851,
0.48071,2.4035,-7.2124,-6.251,-12.8877,9.0416,-17.9796,1.4421,12.8882,8.1738,1.4421,-105.3004,-0.48071,8.1738,
2.404,7.2129,-14.905,-14.905,-19.713,22.5991,-2.9796,-3.3654,27.8882,21.6376,16.4421,-90.3004,-10.0971,7.2129,
14.4248,4.808,-3.8466,0.094961,-17.3099,7.5991,-17.9796,11.6346,12.8882,17.309,1.4421,-105.3004,4.9029,3.8466,
-0.57521,-10.192,-12.9818,-14.905,-2.3099,6.251,-2.9796,-3.3654,27.8882,14.9055,4.3273,-90.3004,-4.3273,8.1738,
12.9827,4.808,-0.4807,-3.3658,12.6901,-8.749,-17.9796,0.4807,12.8882,15.8669,-0.4807,-87.0285,-4.3273,8.1738,
4.3277,-2.404,8.1743,-3.3654,23.5605,-23.749,-32.9796,6.2505,-2.1118,13.9436,-4.3277,-102.0285,7.2119,2.404,
-2.4035,0.4807,-3.3658,-10.0975,38.5605,-8.749,-17.9796,-8.1738,12.8882,12.9827,10.6723,-87.0285,-7.7881,-0.4807,
10.0975,2.4044,3.3658,4.9025,34.1383,-23.749,-25.4837,0.4807,-2.1118,9.1352,-4.3277,-102.0285,-0.4807,-1.4421,
-4.9025,-6.7317,-1.9228,-10.0975,49.1383,-8.749,-10.4837,-3.8466,12.8882,19.2328,10.6723,-87.0285,0,12.5011,
-0.96141,1.9237,-11.5397,-10.5782,36.5427,-3.8466,-20.1942,0.96141,9.6168,4.808,6.7317,-77.8929,-6.7317,6.7317,
1.9233,-9.6164,2.8847,-1.9233,21.5427,-18.8466,-24.0412,10.5778,-5.3832,7.6926,-8.2683,-92.8929,8.2683,6.7312,
-8.1743,-2.404,-7.2129,-14.906,36.5427,-3.8466,-9.0412,-4.4222,9.6168,4.3277,6.7317,-77.8929,-6.7317,2.404,
6.8257,4.3273,0.48071,0.094045,26.4451,-18.8466,-22.5986,8.1738,-5.3832,-8.1738,-8.2683,-92.8929,0.48071,-0.48071,
-8.1743,-9.6168,-3.8465,-9.6168,41.4451,-3.8466,-7.5986,-0.96141,9.6168,6.7317,-2.8851,-82.7013,0.96141,8.6545,
1.4426,5.3832,-8.1743,-3.3663,56.2557,-18.8466,-1.4426,2.404,24.6168,20.6753,-8.1743,-67.7013,-4.3277,8.1733,
1.9237,-9.6168,0.96141,-0.96141,41.2557,-33.8466,-16.4426,11.5397,9.6168,22.1179,-23.1743,-82.7013,10.6723,5.7703,
-11.0594,-11.0594,-13.9436,-15.9614,36.0615,-18.8466,-1.4426,-3.4603,24.6168,21.6367,-8.1743,-67.7013,-2.404,2.404,
3.9406,3.9406,-9.1357,-0.96141,21.0615,-33.8466,-16.4426,11.5397,9.6168,22.5981,-9.1357,-82.7013,9.1357,6.2505,
-5.2891,-11.0585,-6.2505,-11.0585,36.0615,-48.8466,-11.0585,5.2891,6.2505,20.6753,5.8643,-79.3354,7.2129,13.9436,
6.7312,3.9415,-2.8847,-2.8847,51.0615,-33.8466,-1.9233,11.5401,-0.96187,11.5401,0.96187,-67.3151,-6.7312,13.4629,
5.7698,-0.96187,0.96187,1.9233,36.0615,-48.8466,-16.9233,20.1946,-15.9619,12.5015,-14.0381,-82.3151,7.6936,7.6936,
-5.7694,0,-5.7694,-13.0767,21.0615,-33.8466,-1.9233,5.1946,-0.96187,24.0416,0.96187,-67.3151,0,10.5782,
6.2505,7.2119,-10.0971,-9.1357,6.0615,-21.6367,3.3654,0.48116,-0.48116,9.0416,10.0971,-82.2206,-15,6.2505,
-5.2891,1.4426,-3.3663,-15.8674,-8.9385,-6.6367,18.3654,-1.4426,14.5188,23.5605,25.0971,-67.2206,-6.2505,21.2505,
-17.3099,0,-18.3663,-30.8674,-23.9385,8.3633,33.3654,-16.4426,29.5188,8.6545,40.0971,-52.2206,-21.2505,6.2505,
-2.3099,-0.96187,-3.3663,-15.8674,-38.9385,-6.6367,18.3654,-1.4426,14.5188,15.3857,25.0971,-67.2206,-6.2505,10.5778,
-7.6931,-5.7703,-6.7317,-11.5397,-53.9385,8.3633,33.3654,0,29.5188,18.2713,34.619,-52.2206,0,25.5778,
7.3069,6.7312,-2.8847,2.8847,-68.9385,-6.6367,18.3654,10.5778,14.5188,11.5401,19.619,-67.2206,7.6936,15.3867,
-1.4421,-8.2688,1.4421,-12.1153,-75.4889,-21.6367,3.3654,4.3273,4.3273,16.8283,6.251,-77.4122,10.0975,8.1738,
7.6926,2.8847,-7.6936,-9.6164,-90.4889,-32.6957,-2.8847,5.7698,19.3273,17.3095,21.251,-62.4122,-4.9025,9.6164,
15.3862,3.8466,-3.8466,4.808,-105.4889,-47.6957,-17.8847,19.2328,4.3273,14.4248,6.251,-77.4122,7.6931,4.808,
0.3862,3.847,-2.8847,-10.192,-90.4889,-32.6957,-2.8847,4.2328,5.7698,19.2332,-3.8461,-64.4299,3.847,8.655,
15.3862,14.4243,7.6936,0.96187,-105.4889,-47.6957,-17.8847,8.655,-9.2302,6.7312,-18.8461,-79.4299,-0.96187,4.8084,
17.7902,-0.57566,14.905,2.404,-120.4889,-62.6957,-32.8847,15.8664,-24.2302,12.0199,-29.3303,-94.4299,14.0381,18.7516,
15.8674,14.4243,-0.09496,-1.4426,-105.4889,-47.6957,-17.8847,8.1743,-9.2302,14.906,-14.3303,-89.9137,1.4426,16.8288,
26.9259,11.5397,0.96141,10.5782,-92.3177,-62.6957,-32.8847,14.4248,-24.2302,3.8466,-29.3303,-104.9137,7.6931,1.8288,
11.9259,-3.4603,0.96141,-4.4218,-77.3177,-47.6957,-17.8847,1.9237,-9.2302,8.6545,-14.3303,-102.8959,2.8851,3.8465,
22.5986,10.0966,-3.3658,3.3658,-92.3177,-62.6957,-24.5223,16.9237,-24.2302,11.0589,-19.7144,-117.8959,6.2501,15.8669,
11.0589,-2.4044,2.4044,4.3273,-107.3177,-62.9878,-36.0615,28.3689,-29.3303,21.6372,-16.8283,-125.4945,21.2501,25.4837,
0,0.96141,-12.5956,-10.6727,-109.6276,-47.9878,-21.0615,13.3689,-14.3303,6.6372,-1.8283,-110.4945,6.2501,10.4837,
15,12.9827,-0.4807,4.3273,-124.6276,-53.371,-36.0615,20.6758,-29.3303,0.4807,-16.8283,-125.4945,18.752,2.4044,
12.9822,1.4426,2.404,-3.3663,-109.6276,-38.371,-21.0615,14.905,-14.3303,15.4807,-4.3277,-110.4945,15.8664,17.4044,
22.1179,16.4426,-0.96141,7.6931,-107.7039,-23.371,-17.3099,23.0793,-15.3862,18.2713,-10.5782,-95.4945,0.96141,21.1565,
10.0975,1.4426,0.4807,2.4035,-122.7039,-38.371,-32.3099,20.6749,-30.3862,3.3658,-21.6372,-110.4945,11.0589,12.9818,
8.1743,-3.3654,-3.3654,-8.1743,-107.7039,-23.371,-17.3099,5.6749,-15.3862,1.4426,-6.6372,-95.4945,-2.404,11.0585,
23.1743,-0.48116,11.0585,6.8257,-122.7039,-38.371,-32.3099,16.8288,-30.3862,0.48116,-21.6372,-110.4945,2.404,3.3654,
8.1743,-7.694,5.7694,-7.694,-107.7043,-23.371,-17.3099,9.6159,-15.3862,15.4812,-6.6372,-95.4945,3.8466,12.5011,
13.4625,7.306,-3.8465,0,-122.7043,-25.9644,-20.1951,14.4239,-1.9237,13.4625,0,-80.4945,3.8466,18.2704,
17.7902,-1.4426,9.1357,7.2119,-132.2262,-40.9644,-35.1951,23.5605,-16.9237,1.4426,-15,-95.4945,18.7516,17.7902,
2.7902,-2.4044,-1.4421,-7.7881,-117.2262,-25.9644,-20.1951,8.5605,-1.9237,-0.4807,0,-80.4945,3.7516,8.1738,
17.7902,4.3273,-3.3658,7.2119,-132.2257,-40.9644,-35.1951,23.5605,-16.9237,3.3658,-15,-95.4945,12.9827,6.251,
8.1743,-8.1743,-0.48116,-1.4426,-117.2257,-37.0234,-20.1951,19.7139,-12.9822,18.3658,0,-80.4945,22.5991,21.251,
16.3481,6.8257,-3.847,0.96187,-102.2257,-22.0234,-5.1951,10.5778,-0.96187,15.3857,-5.7698,-65.4945,7.5991,16.3481,
20.1946,-2.8847,2.8847,7.6926,-117.2257,-37.0234,-20.1951,21.156,-15.9619,5.7698,-20.7698,-80.4945,12.5015,13.4629,
5.2891,-8.1743,-3.3663,-6.2505,-102.2257,-22.0234,-5.1951,12.9822,-0.96187,-1.4426,-5.7698,-79.3359,1.4426,9.1357,
20.2891,6.8257,7.2129,8.7495,-102.4148,-37.0234,-20.1951,27.9822,-15.9619,1.4426,-20.7698,-94.3359,11.0594,-1.4426,
9.6168,-5.7694,0,-1.9228,-87.4148,-22.0234,-5.1951,19.2328,-0.96187,16.4426,-6.7317,-79.3359,7.6931,8.6554,
14.4253,1.9233,-15,-8.655,-86.5478,-7.0234,-13.4629,6.7312,14.0381,5.7698,1.9233,-67.3151,-7.3069,8.655,
17.3099,-0.96141,0,5.7703,-101.5478,-22.0234,-28.4629,20.1951,-0.96187,0.96141,-13.0767,-82.3151,4.8089,7.6931,
2.3099,0,-10.5782,-9.2297,-86.5478,-7.0234,-13.4629,5.1951,14.0381,14.4248,1.9233,-67.3151,-8.6545,9.6168,
17.3099,13.9441,-4.3273,5.7703,-99.5301,-22.0234,-28.4629,19.7135,-0.96187,13.9441,-13.0767,-82.3151,4.3273,11.0589,
11.0594,-1.0559,-2.404,2.404,-108.1846,-37.0234,-31.2531,19.7139,-4.3268,20.6753,1.9233,-97.3151,16.8288,14.906,
-0.96141,0,-17.404,-11.5397,-93.1846,-22.0234,-16.2531,4.7139,10.6732,11.5406,16.9233,-82.3151,1.8288,0,
14.0386,0.48071,-2.404,3.4603,-94.7216,-29.3303,-31.2531,19.7135,-4.3268,5.2896,1.9233,-97.3151,9.1361,4.3273,
2.404,-10.0971,-7.2119,-8.1743,-79.7216,-14.3303,-16.2531,5.2891,10.6732,-2.404,5.2891,-82.3151,-4.3277,12.9822,
17.404,4.9029,-2.4044,6.8257,-64.7216,-27.4066,-4.3273,20.2891,-4.3268,2.4044,-5.2896,-92.7988,5.2887,14.9055,
5.7703,0,-6.7308,3.8475,-75.0077,-29.8101,-13.4625,16.3485,0,9.6168,0,-94.2405,14.4248,7.694,
0,3.8465,-21.7308,-11.1525,-60.0077,-14.8101,1.5375,1.3485,15,0.96141,7.6931,-79.2405,-0.57521,0,
15,7.694,-6.7308,3.8475,-69.2379,-29.8101,-13.4625,16.3485,0,0,-7.3069,-94.2405,12.502,11.5406,
0.96187,-1.9233,-8.655,-4.8084,-54.8136,-14.8101,-1.9233,9.6164,15,6.7312,7.6931,-79.2405,6.7312,7.6936,
15.9619,13.0767,-5.7703,8.6545,-69.8136,-25.003,-16.3485,15.3862,0,10.5782,-7.3069,-72.1235,4.808,5.7694,
13.4629,-1.9233,0.96187,-0.96187,-81.7399,-12.5015,-1.3485,12.5015,-15,10.5778,-22.3069,-82.7013,7.6936,12.5015,
0.4807,-0.4807,-12.0204,-13.9441,-66.7399,2.4985,13.6515,0.4807,0,-2.4044,-7.3069,-67.7013,-7.3064,5.2896,
15.4807,12.5015,0.96187,1.0559,-81.7399,-12.5015,-1.3485,15.4807,-15,-0.96187,-22.3069,-82.7013,7.6936,9.6164,
0.4807,-2.4985,-8.6554,-13.4634,-66.7399,-16.3485,13.6515,4.808,0,10.5773,-7.3069,-67.7013,3.8466,15.3862,
15.4807,12.5015,-5.7698,1.5366,-77.8929,-19.2332,-0.96187,16.3481,-10.5778,4.8084,-13.4629,-74.0463,0.96187,10.5778,
14.4248,0,5.7703,8.6554,-83.6627,-30.7724,-15.9619,23.0793,-25.5778,0,-20.1942,-89.0463,15.9619,15.3862,
0.4807,7.2124,-9.2297,-6.3446,-68.6627,-15.7724,-0.96187,8.0793,-10.5778,5.2896,-5.1942,-74.0463,0.96187,8.1738,
15.4807,12.9827,-3.3658,8.6554,-83.6627,-30.7724,-15.9619,16.8292,-25.5778,10.0975,-20.1942,-89.0463,7.2124,3.3658,
4.808,-2.0173,-3.8465,-6.3446,-68.6627,-15.7724,-0.96187,6.7317,-10.5778,0.96141,-5.1942,-82.7013,2.8851,1.9228,
19.808,12.9827,1.4421,-0.48071,-59.1413,-21.6372,12.9818,13.9432,-6.251,-9.1361,-12.9827,-87.9904,0.48071,0.48071,
11.0589,-2.0173,5.2896,3.3658,-74.1413,-36.6372,-2.0182,13.9441,-21.251,3.3658,-27.9827,-94.7216,12.0204,5.2896,
-3.9411,-1.9233,-6.7321,-7.6936,-59.1413,-29.8115,12.9818,1.9233,-6.251,15.3857,-12.9827,-79.7216,4.8075,6.7312,
11.0589,8.1738,3.3658,7.3064,-74.1413,-44.8115,-2.0182,16.9233,-19.7135,6.2501,-15.8669,-94.7216,14.9055,-3.3658,
-3.9411,-6.8262,1.9233,-3.847,-80.7785,-59.8115,12.9818,2.8847,-4.7135,8.655,-0.86691,-79.7216,1.9233,-1.9233,
5.2887,8.1738,4.3273,0.4807,-65.7785,-51.4482,22.5986,-0.4807,10.2865,10.0975,-9.1352,-64.7216,-7.2124,-6.251,
5.2891,10.098,15.8674,13.9445,-60.1022,-66.4482,7.5986,14.5193,-4.7135,14.906,-24.1352,-79.7216,7.7876,-5.2891,
-0.96141,4.808,0.96141,3.8465,-45.1022,-51.4482,20.1951,-0.4807,10.2865,7.6931,-9.1352,-64.7216,-3.8466,-0.96141,
14.0386,12.9818,8.1738,18.8465,-60.1022,-66.4482,8.1738,10.0975,-4.7135,-7.3069,-24.1352,-79.7216,10.0975,-12.0204,
5.7698,-2.0182,9.6164,3.8465,-50.0056,-51.4482,20.1946,3.8461,-1.9233,1.9233,-9.1352,-94.7216,18.2709,-15.3867,
