"AF3","AF4","F3","F4","F7","F8","FC5","FC6","O1","O2","P7","P8","T7","T8",
332.5032,254.5655,-159.4191,-51.1155,421.576,407.405,-66.2984,23.7864,-68.3223,-23.7864,-61.2368,-549.1113,98.6882,98.6882,
326.653,253.3916,-159.9757,-43.9994,400.3297,389.0338,-60.2962,24.3835,-65.2354,-24.3835,-43.4626,-519.2014,94.7913,99.852,
316.2347,241.2944,-154.4259,-41.3594,382.3835,366.7047,-60.7271,14.8231,-57.2726,-14.8231,-43.8211,-491.0856,103.2038,91.837,
308.3943,227.8292,-140.1002,-46.9758,373.5405,353.8113,-54.0472,7.8606,-57.8854,-7.8606,-46.253,-469.7184,111.1116,92.3998,
287.8663,200.0594,-117.5942,-46.1816,344.1136,320.4369,-37.6458,8.4014,-44.2905,-8.4014,-33.356,-431.413,118.5449,93.9409,
273.6306,188.9978,-115.5282,-31.265,325.4911,310.3196,-39.4353,9.9217,-32.5232,-9.9217,-37.4277,-396.4188,109.6199,88.3039,
247.0905,178.6698,-122.6965,-43.4891,311.0223,304.8595,-51.1692,11.3503,-38.6692,-11.3503,-42.2676,-386.7337,92.9204,86.0425,
218.1651,170.9864,-128.5638,-54.9797,281.2267,287.5799,-54.2426,10.6692,-39.3859,-10.6692,-35.6828,-376.7588,83.2965,78.856,
214.6205,171.3545,-112.2466,-39.1689,264.8591,272.8559,-41.3727,6.4863,-28.4183,-6.4863,-25.9503,-344.5374,92.3987,72.6058,
215.8433,175.1733,-119.6118,-43.9048,263.0676,270.5846,-49.0121,0.024071,-33.7983,-0.024071,-38.4933,-324.8771,100.9548,73.3106,
216.9927,178.7629,-126.5351,-55.3705,261.3835,268.4495,-60.1714,0.022627,-45.8704,-0.022627,-50.2837,-319.4845,108.9975,83.012,
218.0731,182.1371,-133.043,-66.1483,259.8005,266.4425,-63.2112,-0.48422,-57.2181,0.48422,-61.3667,-314.4154,116.5576,92.1312,
219.0887,185.3089,-139.1604,-73.9601,258.3125,264.556,-45.3185,-7.5407,-52.4087,7.5407,-64.4753,-309.6505,123.6642,100.7034,
220.0434,188.2903,-144.9108,-83.1871,256.9137,262.7826,-51.1323,-5.5698,-56.8552,5.5698,-69.2107,-305.1715,123.1765,108.7612,
220.9408,191.0929,-150.3161,-74.6541,255.5989,261.1156,-48.5703,0.33098,-55.9747,-0.33098,-53.4179,-300.9612,118.3167,116.3355,
221.7843,193.7273,-147.7939,-60.558,254.363,259.5487,-47.1735,1.8295,-62.232,-1.8295,-44.6457,-288.3168,111.7242,99.5877,
222.5773,196.2037,-136.3959,-66.5413,253.2012,258.0758,-41.8138,3.2381,-63.0533,-3.2381,-49.5589,-256.9178,91.3552,83.9956,
209.2814,171.3321,-119.1028,-54.4514,252.1091,256.6912,-33.2314,11.1413,-45.1701,-11.1413,-45.5734,-227.4028,84.862,84.0165,
183.5664,155.9915,-105.8831,-42.074,237.1123,252.5528,-40.3469,7.436,-40.364,-7.436,-46.8868,-205.0146,72.6857,72.9029,
167.4918,139.5465,-89.4087,-38.5376,226.9343,223.2996,-28.8167,-7.1101,-37.9431,7.1101,-29.9736,-186.6411,54.2246,65.492,
170.0944,140.7901,-98.1442,-27.621,227.4183,224.0016,-21.5201,-5.2357,-37.1845,5.2357,-21.5256,-177.9725,64.5651,71.1788,
145.7887,118.6776,-98.3992,-29.5074,199.6732,196.4615,-18.7119,9.1785,-29.3868,-9.1785,-31.8742,-173.8737,74.7912,59.3166,
122.9414,98.9048,-83.8918,-32.2917,173.5928,170.5739,-21.131,7.6859,-32.1782,-7.6859,-43.6259,-162.9353,70.3738,45.1293,
129.6649,107.0705,-91.0035,-26.3045,177.2772,174.4394,-21.888,-0.87272,-36.3202,0.87272,-27.8502,-165.3044,52.0514,46.4703,
120.8026,98.6929,-72.3857,-22.7028,180.7406,171.494,-8.4281,-0.81987,-20.0409,0.81987,-12.0792,-153.3627,40.7603,48.7432,
99.4544,78.6714,-66.5237,-26.9073,155.7961,147.1044,-12.4771,1.7592,-15.2252,-1.7592,-12.8018,-130.061,43.8813,44.2997,
107.0807,63.2523,-73.667,-35.4147,144.4235,124.1781,-10.717,0.64216,-18.3609,-0.64216,-19.1197,-116.6192,52.3822,35.5687,
93.0653,57.9393,-61.6545,-36.8325,126.1428,113.5501,-5.5183,-5.9759,-14.7284,5.9759,-3.8725,-105.0673,57.8436,36.9783,
73.3814,40.3629,-60.4865,-34.1161,104.4742,92.6371,-14.803,-7.1357,-13.3383,7.1357,-7.6184,-91.1723,49.8178,32.2283,
56.2554,23.8411,-59.8936,-33.0816,84.1057,72.9788,-13.9153,6.451,-14.5623,-6.451,-13.2334,-85.7015,45.8173,16.1946,
66.9801,36.5107,-63.8915,-23.5052,93.1594,82.7001,-10.5496,7.5818,-24.3169,-7.5818,-14.9702,-78.0286,41.5494,6.549,
62.0198,43.8648,-56.5148,-24.6252,73.4698,73.1129,-6.3734,-6.9731,-17.2907,6.9731,-12.5536,-66.7678,26.4048,20.256,
44.1987,27.133,-39.0239,-26.6905,54.9616,54.6261,-7.5099,-10.6739,-2.1533,10.6739,-13.3192,-55.1712,24.3136,14.0496,
27.4467,11.405,-32.0577,-10.989,37.5639,37.2485,-8.0712,4.0665,-6.5087,-4.0665,-16.5688,-47.8113,36.9547,-0.89341,
32.7429,10.5791,-34.6894,-2.6677,21.2101,20.9136,2.0279,2.3751,-12.6973,-2.3751,-4.9469,-46.461,24.1807,-3.4402,
17.6202,-0.1779,-32.6081,-10.6051,5.8375,5.5588,-1.1296,-1.8161,-9.9106,1.8161,-5.662,-45.6982,8.6299,-7.2825,
13.0208,-14.2672,-19.0109,-3.3897,-6.0706,-8.8747,-0.5563,0.8232,-4.7617,-0.8232,0.2448,-34.3524,-1.5748,-3.3033,
0.59883,-27.5112,-3.7702,3.3927,-15.3222,-22.4422,10.1049,-1.7565,3.115,1.7565,14.3301,-18.1912,12.6197,8.5356,
-13.5371,-36.6294,-1.4491,-3.3899,-28.5029,-35.1957,4.9443,-7.2182,-0.61421,7.2182,4.431,-5.8955,24.0797,-0.58043,
-26.8249,-33.4197,12.7378,-5.2113,-40.8927,-47.184,6.6716,-10.8339,4.4833,10.8339,3.1532,-8.5785,8.5349,-6.6192,
-29.4056,-24.8349,4.4521,3.7048,-35.5439,-31.76,2.7285,-5.6292,7.7571,5.6292,4.4819,-8.5698,1.3723,-1.6664,
-13.5413,-17.2713,-9.915,-6.6389,-27.3377,-26.8176,-10.5933,2.806,-6.8084,-2.806,-9.887,-22.1556,-2.7578,0.45846,
-16.7065,-20.2837,-9.3902,-11.3012,-38.8556,-34.318,-8.9448,1.6257,-14.5674,-1.6257,-2.2783,-15.8357,-16.6924,-0.58195,
-10.1365,-11.4762,-11.3576,1.0171,-22.4242,-26.6923,-6.8902,-1.0026,-9.1386,1.0026,10.5105,-0.78552,-23.3533,-6.1137,
-12.5656,-18.8846,-17.7611,-7.1419,-30.6246,-39.1907,-4.4524,1.0819,-10.6147,-1.0819,2.7948,-4.2106,-27.0132,-19.8468,
-25.9117,-31.4161,-9.1035,-15.3163,-42.8871,-50.9393,-3.6788,-1.5133,-9.4713,1.5133,-2.94,1.6091,-21.8492,-25.3066,
-38.457,-35.0987,-5.0155,-10.8555,-54.4139,-61.9829,2.1085,-1.9285,2.7362,1.9285,0.77919,12.1409,-6.4383,-21.2574,
-50.2496,-46.1509,-3.7017,-7.1674,-65.249,-72.3639,6.0307,3.2479,1.5601,-3.2479,-5.3411,18.4979,-1.4272,-34.0819,
-33.1346,-31.2357,-17.5796,-8.7622,-63.5705,-68.3052,-8.4311,3.053,-12.6335,-3.053,-19.1207,14.3512,-15.4416,-35.1448,
-24.2026,-28.3496,-9.5103,-7.2236,-57.7315,-53.0727,-7.9962,0.84593,-0.8123,-0.84593,-3.8734,8.4285,-18.6348,-18.9361,
-33.3782,-34.2396,5.1603,7.3098,-68.3676,-63.9883,6.1481,6.3623,3.7916,-6.3623,9.0116,1.3447,-14.9854,-3.7,
-25.8084,-24.5933,-9.2493,13.0149,-66.3604,-74.249,-6.8725,9.5228,-10.5359,-9.5228,-5.6291,-9.3637,-28.1863,-17.578,
-38.3599,-37.2177,-9.7068,-1.866,-76.4788,-83.8941,-4.4357,10.9758,-24.0037,-10.9758,4.254,4.3557,-28.0841,-30.6233,
-50.1583,-49.0846,4.9756,4.2485,-85.9901,-77.0476,4.9393,12.3416,-8.4635,-12.3416,14.1196,18.1944,-18.3021,-40.9321,
-61.2488,-57.4148,18.7771,18.0936,-94.9307,-80.5222,13.7533,7.5524,6.1443,-7.5524,7.1998,31.2027,-31.3039,-24.3761,
-71.6739,-65.1042,31.7505,24.1635,-103.3348,-89.7909,14.952,6.0873,-1.8154,-6.0873,7.7797,35.5447,-30.5086,-28.9152,
-62.5949,-47.0979,15.7454,10.5675,-83.0347,-88.5222,4.9455,10.7827,-12.8407,-10.7827,6.301,20.2539,-24.6284,-39.3264,
-56.3089,-42.6836,23.5452,11.4519,-78.7712,-69.1109,9.203,11.6542,-11.5647,-11.6542,12.502,20.5571,-37.2507,-30.3878,
-47.8692,-54.2226,31.2424,24.8648,-88.1449,-79.0642,10.6751,8.9306,1.2758,-8.9306,4.6669,31.4693,-48.7517,-27.553,
-44.4906,-52.5582,17.7281,16.8644,-92.5416,-88.4204,4.4685,5.8644,4.7425,-5.8644,-7.2529,34.1373,-31.7266,-30.4541,
-36.255,-35.3047,6.0357,2.1879,-84.4597,-69.0152,0.65714,5.0061,-6.1708,-5.0061,-3.2754,24.4971,-29.752,-26.0965,
-26.4882,-22.9936,5.1676,5.5994,-86.9836,-50.7742,4.1605,8.2485,-2.2578,-8.2485,1.4758,19.4845,-29.4858,-19.976,
-38.9989,-35.7139,18.9575,11.3365,-95.8646,-61.8278,15.0446,4.7173,11.9777,-4.7173,6.4484,32.4155,-20.6306,-29.9112,
-50.759,-47.6711,15.3603,13.1867,-79.5545,-72.2181,0.47735,-0.12095,7.7873,0.12095,4.5431,44.5705,-31.0335,-31.6598,
-57.9763,-56.0866,0.33864,-1.7045,-85.41,-62.8959,-11.191,4.4415,-6.78,-4.4415,7.8128,36.9762,-43.2715,-24.1931,
-68.5977,-66.8214,9.8641,-10.2762,-94.3854,-73.2221,3.5804,5.1869,-2.9009,-5.1869,6.3321,26.6602,-46.3124,-26.7902,
-65.5653,-65.9194,7.2469,0.46217,-80.6954,-82.9288,4.4481,-1.1974,-1.7154,1.1974,-8.1478,29.1088,-29.4336,-28.2191,
-75.7314,-72.0856,1.7515,0.43444,-79.9024,-77.0817,-6.953,-0.11359,-0.5996,0.11359,-6.7176,38.4965,-20.5116,-33.6115,
-85.2875,-71.8092,-2.4014,-4.6523,-89.2082,-58.3568,-13.6204,2.93,-1.5756,-2.93,-7.3265,44.2851,-33.3809,-33.6186,
-86.8899,-55.8604,2.2964,0.18155,-74.3104,-56.3032,-5.2126,-4.8373,1.0488,4.8373,-13.4664,43.1459,-23.8576,-17.5015,
-84.2063,-66.6088,7.7262,5.7373,-78.4552,-67.0251,5.7293,-6.0649,11.6141,6.0649,-5.066,50.1735,-8.7611,-2.3514,
-91.8071,-76.7123,1.6951,-1.1865,-87.8479,-77.1036,-2.2069,2.9024,11.4233,-2.9024,3.8404,43.6194,-19.8766,-16.3103,
-87.3111,-75.2869,11.7161,-7.1874,-96.677,-86.5773,-3.0859,1.7158,12.7622,-1.7158,11.7079,36.954,-32.784,-29.4317,
-92.6997,-81.398,17.5917,-6.2502,-104.9764,-95.4827,-2.3948,3.1317,11.4905,-3.1317,11.5114,42.3282,-40.5028,-36.7757,
-98.2719,-87.6483,21.5969,-5.8752,-112.7778,-103.8537,-2.2511,4.9677,10.8011,-4.9677,11.8327,47.886,-43.1333,-36.594,
-104.5213,-92.5112,26.3751,-4.5103,-120.1111,-111.7225,-2.1156,6.694,10.1535,-6.694,11.1232,52.0988,-45.6055,-36.4218,
-108.8783,-97.5888,30.3593,-3.7337,-127.0045,-119.1192,-1.4827,8.8232,10.0503,-8.8232,11.9737,57.5763,-47.4248,-35.7553,
-112.9739,-102.3617,35.1172,-3.0037,-133.4842,-126.072,-0.88772,9.8117,8.9403,-9.8117,11.7613,61.7122,-50.146,-35.1279,
-117.8356,-106.8473,38.5768,-2.3175,-139.5752,-132.6077,-1.3414,11.7538,7.8979,-11.7538,12.5745,66.6129,-51.6929,-36.564,
-112.7894,-99.4245,44.3597,11.9216,-145.3006,-138.7512,10.8862,4.975,11.4728,-4.975,8.7832,75.7752,-59.7245,-48.4701,
-111.0831,-103.5809,45.7473,25.3063,-150.6826,-144.5262,19.3429,-4.4324,14.8336,6.4572,16.3541,85.3287,-57.1535,-59.6619,
-102.3943,-98.3789,28.9025,24.9404,-155.7417,-144.7288,4.0823,5.9549,2.8084,-2.0276,8.2864,80.2795,-67.8243,-52.1741,
-97.2626,-87.4146,39.2435,20.4082,-160.4972,-128.9596,11.8638,19.6976,7.7015,-1.906,8.8021,78.4995,-72.9352,-34.9436,
-104.0789,-86.7244,50.9889,29.8119,-150.7022,-135.322,25.252,22.1295,16.8558,-1.2857,14.8536,87.4536,-69.0651,-29.2332,
-90.2427,-77.9782,33.8295,38.6505,-127.5601,-119.1753,12.6737,6.7017,20.3991,0.31035,21.5538,89.7979,-61.3784,-34.0588,
-72.176,-68.7448,28.257,31.7768,-105.8065,-116.5804,14.4431,3.1918,21.705,1.8096,18.7417,88.9647,-64.2753,-35.558,
-53.7455,-50.5201,33.1411,41.5104,-85.3581,-95.4856,27.6765,17.1003,22.9335,13.3413,16.0993,94.2551,-72.0589,-19.7604,
-36.4207,-33.3889,45.2527,42.5625,-66.1366,-75.6565,31.1476,30.1743,35.6575,25.1929,29.2333,98.2161,-80.3875,-4.4748,
-48.3355,-45.4856,55.2606,34.9481,-76.2684,-71.987,25.23,23.4442,40.1686,23.6813,38.1786,106.4231,-75.5643,9.8937,
-41.3166,-38.6377,37.845,27.7896,-64.3957,-62.6081,21.6914,23.0495,23.6585,11.1262,21.7879,85.9377,-59.8962,-2.1991,
-40.355,-35.8129,21.4743,16.5073,-54.9648,-69.4794,28.9938,21.1611,16.6009,2.8677,9.7809,66.6815,-48.7114,-16.1671,
-52.0337,-47.7642,27.1298,9.9493,-65.7669,-74.926,15.614,5.7914,16.1108,7.2503,8.688,76.7806,-50.3434,-18.3035,
-63.0117,-56.1026,11.402,-2.2879,-75.9209,-81.0587,0.57713,-8.6561,1.0441,1.2487,3.6121,72.6792,-34.6707,-15.6873,
-58.3606,-54.7608,4.0678,-5.1869,-80.6166,-90.2951,-5.0947,-9.2902,-7.6925,-5.9123,5.4197,55.1599,-30.5661,-16.7705,
-40.759,-37.3752,17.9238,9.2243,-62.1146,-70.7774,9.311,5.3672,6.8691,8.5425,19.1945,65.9503,-42.8321,-1.6642,
-34.1942,-21.0326,30.9483,22.7709,-72.4877,-58.4333,22.8524,19.1452,20.5569,22.1299,17.1014,76.0933,-54.3622,-7.5665,
-26.0694,-5.6707,39.3548,35.5046,-54.0384,-58.9756,31.7436,32.0965,26.5491,23.98,30.1754,85.6277,-65.2005,-4.0762,
-27.0351,-8.6621,36.4875,39.153,-64.8961,-63.0285,23.2604,32.9126,28.4989,16.9745,37.0388,94.59,-75.3884,-0.28884,
-31.9926,-22.2424,43.9136,31.2372,-75.1024,-58.7408,27.4314,20.3106,20.2104,23.5476,27.225,101.3439,-84.9651,0.23446,
-23.4939,-14.9048,34.6998,31.8933,-56.4962,-41.1164,26.292,12.5119,8.37,25.677,11.4915,92.7329,-93.9672,0.72684,
-35.7489,-7.4314,46.7178,37.5707,-44.574,-41.6152,25.2209,25.8612,21.5324,20.5941,20.8533,85.6505,-102.4292,4.2255,
-40.6885,-12.0462,49.5528,42.402,-55.9996,-49.2396,25.7315,35.0083,18.2156,12.2729,23.6518,82.5354,-110.3834,7.0088,
-31.6686,-10.8175,43.0359,39.3519,-38.5396,-45.7802,31.7791,18.8078,13.5799,12.0425,20.7128,71.0037,-114.9539,5.0694,
-34.8296,-1.0595,40.4543,31.9296,-22.1272,-46.0697,27.848,7.9925,25.9237,13.3443,22.5073,64.7191,-100.9707,-3.3327,
-18.6398,13.104,33.9788,29.0014,-8.0765,-30.1469,17.0673,12.5741,22.3439,13.5561,23.1812,61.8484,-109.0124,0.91644,
-3.4215,8.8461,37.5062,17.6455,-11.1351,-42.4381,25.6591,12.3261,6.9033,7.1756,27.3575,53.5823,-116.2068,1.3679,
-17.3162,-1.806,33.2319,20.6355,-12.4909,-45.53,28.1682,13.6104,-1.1729,6.7451,16.6066,48.3435,-95.1344,-3.7758,
-16.2067,12.4023,32.7564,21.9287,-19.3324,-28.6982,26.9846,7.2267,5.4765,5.8339,5.9944,48.9852,-75.3263,-12.1522,
-22.8253,-2.4418,37.3701,9.9842,-32.2725,-41.0763,27.8959,-1.8099,10.715,2.9536,16.2625,60.1461,-56.7067,-24.0757,
-22.4677,-14.4415,21.0279,17.4836,-27.8768,-52.7117,14.0759,8.42,8.0483,10.8738,18.3236,67.2361,-46.0068,-16.5576,
-28.2056,-5.478,14.635,20.4828,-25.1918,-46.5827,14.2438,19.0496,8.5768,12.2457,15.1998,51.0562,-33.1245,-9.491,
-23.476,3.9605,26.9145,20.2662,-9.5803,-54.9215,17.4374,13.8574,12.1114,8.4747,7.2018,55.0779,-17.0371,-14.9946,
-18.5252,4.2294,18.7206,22.5925,0.68091,-50.1078,8.8002,4.422,9.8663,9.4846,3.2274,65.8732,-1.9148,-8.5279,
-31.5137,-10.1244,14.5611,16.1758,-13.4599,-50.1377,15.3572,1.1204,5.2261,7.9031,13.1556,62.4978,-2.1653,-5.9918,
-43.7228,-23.6169,9.6392,14.1938,-26.7523,-57.2512,17.4721,3.0776,-1.1605,4.3926,4.2693,52.6749,12.0646,-11.7054,
-55.1995,-36.2999,-5.0392,-0.75779,-39.2472,-67.9161,2.3237,-11.2071,-15.1909,-9.971,-10.0869,35.4144,25.4407,-17.5826,
-56.1483,-48.2219,-17.9669,-11.9176,-44.1899,-72.0096,-11.9157,-24.6347,-19.4121,-18.5531,-20.6869,33.2185,38.0143,-12.9849,
-38.6794,-31.2286,-27.5162,-13.7324,-27.4386,-53.5891,-17.9213,-13.6813,-19.7653,-15.922,-7.8055,28.6946,44.5494,-10.6879,
-50.4586,-24.5063,-15.2379,-22.5247,-28.758,-49.2917,-16.3401,-18.4281,-26.1708,-23.5701,-18.9774,19.3814,55.9764,-23.7107,
-33.3311,-35.6876,-6.7317,-7.0733,-41.1325,-56.961,-5.7429,-18.8408,-21.0573,-21.6494,-26.4416,20.7498,66.7178,-22.7945,
-17.2313,-39.6199,-2.2791,-3.0346,-44.3017,-48.4827,-3.3744,-7.588,-11.6965,-19.3385,-10.7552,25.5784,76.8148,-22.4388,
-2.0974,-26.109,11.0163,-0.82914,-27.5436,-47.5981,-4.1844,2.9891,-12.0071,-16.1539,3.9902,38.1437,81.5273,-23.1168,
12.1285,-10.4424,-3.7447,-6.346,-11.791,-36.1388,-10.5129,-1.745,-25.3867,-23.788,-10.3493,29.3451,75.1168,-13.1264,
25.5008,-23.9159,-2.0722,-20.0653,-25.1836,-43.0799,-2.7966,-6.7019,-25.4524,-27.4214,-23.8283,25.5605,56.5098,-6.2652,
38.0707,-32.0958,12.1522,-7.7976,-37.7725,-45.5562,3.4443,-4.2745,-10.7667,-20.716,-9.7465,38.1269,59.1223,-11.9624,
49.8865,-18.0244,20.6034,6.7702,-23.8655,-44.8472,8.2988,-3.0056,-6.0715,-16.4357,3.9969,49.9393,69.6749,-16.3058,
60.9933,-21.4981,13.8001,-0.14549,-31.0375,-48.7354,3.2457,-5.3565,-7.2265,-21.0167,5.2745,60.7485,62.0227,-10.7723,
61.4416,-20.2077,5.8861,-1.1492,-43.2752,-38.7263,0.014639,-8.0714,-14.8899,-24.8168,-9.1419,54.0673,44.2013,-6.0777,
43.6551,-29.1171,15.6548,1.957,-54.7787,-50.5027,13.1724,-6.5757,-15.0089,-21.3035,-11.7003,55.8835,48.5628,-19.813,
37.929,-28.3824,23.8253,13.9863,-57.7061,-60.7017,6.3089,4.9536,-7.0224,-15.9761,-3.9123,66.6305,56.7837,-12.6217,
36.6647,-30.7287,20.3715,6.0611,-68.3438,-42.9596,-6.2163,3.6439,-4.5777,-24.1283,-4.6909,72.8259,39.2767,2.2356,
20.3648,-36.9819,16.1129,4.685,-68.3629,-34.2384,2.2546,7.4745,-2.2786,-17.6195,8.7491,68.4559,29.7645,-0.86431,
8.9506,-29.7019,1.9875,12.5018,-50.1611,-42.3059,0.095004,1.9649,-10.2389,-14.537,7.2127,67.3858,42.0787,-9.9223,
3.8584,-37.5356,15.9683,22.3795,-61.2514,-51.4072,13.7539,3.3654,-0.0087114,-14.1712,9.3103,77.4427,44.1787,-6.7967,
1.0975,-37.8138,29.1102,25.5919,-71.6764,-34.6582,9.3864,8.7306,1.5102,-15.8513,1.1607,80.9646,27.428,-11.955,
4.0675,-25.4237,13.3336,21.0196,-53.2758,-18.4787,0.72477,6.1819,-2.6301,-9.8395,4.1269,73.0689,11.6823,-20.3481,
-5.7919,-36.5504,26.6336,24.3131,-49.5728,-31.47,14.7813,5.305,9.1689,-1.6577,17.9793,82.3498,22.9869,-23.6819,
-10.5051,-38.4061,29.6622,22.8543,-60.6984,-43.6818,15.4843,7.0115,8.6187,-3.5821,16.4655,89.555,32.742,-12.1387,
-8.8633,-22.0017,28.894,26.5442,-70.2861,-26.9609,15.5667,14.6878,11.1379,3.7178,18.5139,95.3155,17.6188,-0.2766,
-11.3683,-17.5743,14.0013,24.9516,-58.9844,-20.789,4.5104,10.7698,-2.6894,-0.55492,8.2927,81.4991,2.4617,-14.36,
0.44804,-16.5198,5.0647,18.3938,-53.4205,-27.6392,8.2895,10.1236,-6.5768,3.5281,11.8449,90.7091,-4.8425,-20.6549,
-4.1335,-24.1321,18.8608,17.7962,-64.3153,-29.5236,21.8921,9.0102,5.458,8.883,25.2342,99.3666,9.548,-5.3156,
-9.4522,-18.1294,31.8292,24.3199,-58.5025,-28.2581,12.5512,6.9517,7.6614,4.8073,21.7663,107.5046,22.2052,7.2205,
-19.5128,-16.5352,26.5182,25.391,-67.644,-40.6626,7.2439,19.1872,11.7568,7.0501,24.0026,105.8216,6.7729,-1.8157,
-17.3306,-22.6291,24.9266,21.8432,-77.6854,-46.8973,14.9062,26.1329,16.1116,6.6266,24.5868,113.5723,13.8861,-1.7072,
-9.2057,-21.2709,31.529,21.545,-76.132,-29.9835,15.0243,21.5286,18.1822,4.2047,22.0992,120.8579,23.1757,0.41958,
-22.7534,-34.0946,39.759,21.2638,-85.6641,-42.2845,16.1472,13.1509,15.0669,-0.096797,26.8463,125.8932,7.6851,-8.7155,
-24.495,-33.1319,27.2517,24.0371,-72.4969,-53.8474,17.2027,12.3624,15.1753,0.92143,22.1992,124.4137,-1.9564,0.91734,
-24.0368,-36.2051,31.6897,18.5467,-70.1714,-45.6259,18.1949,11.6211,24.3866,1.8786,21.8797,127.0707,5.246,14.0209,
-36.6946,-43.6482,43.4524,30.086,-80.0611,-46.4311,20.646,22.564,31.5268,11.3812,33.219,133.5464,12.5227,2.5514,
-46.2041,-44.0661,26.7452,31.3176,-81.9071,-57.7453,17.3833,22.2221,27.6113,13.7351,30.214,125.0987,13.7962,-11.7017,
-57.5318,-52.0504,37.7226,19.8223,-90.6577,-68.3805,15.8334,6.7888,33.5461,16.4538,30.9319,125.1833,16.5112,-25.0996,
-57.1872,-44.3722,37.9896,30.2736,-76.6143,-59.3576,8.3043,-2.7994,26.9782,17.9969,29.5815,124.2513,8.9405,-9.4936,
-61.347,-45.2531,23.0576,34.0233,-76.5726,-61.3633,14.3851,6.9844,14.7307,10.338,28.3131,116.2908,-5.6959,-19.6223,
-64.7527,-44.5618,35.7741,35.0187,-86.0783,-67.8038,23.6433,20.6653,19.9205,13.7664,29.6501,123.4133,-19.4542,-32.545,
-58.3362,-28.2235,37.241,31.3992,-76.4294,-49.6355,9.5731,20.0019,14.1701,21.5434,17.2433,117.5969,-16.4041,-22.0594,
-68.936,-40.6301,23.3668,15.8507,-85.9437,-60.7574,9.5052,4.7018,3.704,12.6598,9.6297,104.974,-14.9134,-20.2303,
-62.8465,-52.2923,17.4091,20.4663,-86.9311,-71.212,13.4895,4.3492,-3.0978,2.2839,5.5091,112.7756,-23.634,-17.4976,
-44.9757,-35.0547,20.9193,25.8178,-67.6153,-52.8393,6.1006,13.7045,-17.0119,4.6777,7.7094,120.109,-23.7348,-2.3478,
-41.1937,-23.9121,12.0731,19.7146,-51.3416,-47.1386,2.1923,3.2664,-20.1104,0.85474,10.7891,103.4277,-21.8042,-2.1364,
-52.8221,-29.5634,14.386,24.6048,-62.3611,-58.4102,10.1577,0.034137,-4.8038,-4.2577,4.0687,101.2713,-19.4836,-16.1082,
-63.7528,-40.4412,27.6228,34.7682,-72.7195,-69.0056,23.6483,14.1321,9.5844,1.5649,10.4036,109.295,-24.8936,-21.7913,
-67.1542,-41.5575,38.1822,33.189,-68.4964,-77.1516,26.3496,22.4641,6.1146,5.0137,12.3102,116.8373,-25.9308,-28.0753,
-69.704,-49.6918,23.2386,17.0977,-66.9179,-60.8828,25.2741,7.0162,-0.83133,-9.3871,6.0045,97.316,-21.8446,-15.763,
-79.6218,-55.3142,35.9443,18.0247,-77.0028,-71.3298,20.2154,-0.56029,-4.3237,-19.0162,7.1626,100.0809,-28.1249,-0.71722,
-66.818,-37.8954,34.8706,31.0432,-69.4159,-62.0594,7.3618,6.0524,-8.6195,-7.2474,12.3,101.6671,-32.0046,-2.628,
-55.2179,-28.4661,41.3813,40.3849,-53.6122,-52.7697,21.0201,11.2554,5.9977,4.8271,22.1897,107.2067,-23.5052,-12.0862,
-65.5689,-40.8581,51.5515,37.4568,-64.4955,-63.7035,32.9885,9.0631,14.8187,-0.016237,10.2311,114.8743,-14.5034,-18.9525,
-65.6835,-38.9836,40.36,35.2084,-74.7258,-73.9813,23.9227,7.5064,5.8312,-1.0282,12.653,117.6682,-16.67,-13.7666,
-56.6819,-38.6685,41.9881,30.0601,-68.8644,-63.1039,24.5122,15.1535,13.5788,3.0822,25.9938,109.5962,-20.7305,-8.8919,
-46.195,-29.2634,34.4077,25.2202,-52.5859,-51.2207,17.9813,14.2448,14.7884,2.8978,21.4689,117.1204,-18.4742,-9.3708,
-46.9665,-28.013,43.9839,27.2493,-63.5307,-49.6649,24.4934,14.9085,21.493,9.303,31.8205,124.1932,-16.8603,-10.326,
-41.1122,-30.3815,55.4449,37.76,-51.1865,-53.771,33.1456,19.0741,23.2398,12.793,40.0331,125.4866,-19.8969,-19.8292,
-36.1147,-30.0765,46.6211,28.9158,-41.5358,-64.6447,30.6509,6.2895,10.2052,7.4708,23.5311,115.4266,-14.1484,-24.2061,
-48.0478,-42.3719,53.4397,21.6128,-53.1436,-74.8661,32.3541,-4.7157,8.0745,0.4425,8.0192,122.601,-14.8179,-17.1876,
-37.6444,-31.2972,48.2089,34.416,-63.6901,-56.2741,26.3646,7.7139,16.6999,1.4293,14.4825,129.3449,-28.0288,-2.0563,
-35.3858,-31.4432,44.3045,30.3977,-45.7687,-57.0164,23.7708,10.2869,24.8073,4.3794,27.7136,111.098,-28.4425,-0.84949,
-47.3626,-43.6566,55.7462,23.0067,-57.1226,-67.6954,27.9107,6.1274,21.8004,5.635,23.5905,104.9376,-12.6359,-4.3408,
-53.1953,-36.5536,66.5014,30.7362,-57.238,-70.2843,34.334,17.9055,21.5048,5.2974,13.0652,112.7413,-12.3127,-1.044,
-64.1036,-37.9021,68.726,41.5451,-67.9037,-51.9672,42.9022,30.9311,34.3145,5.4855,26.3813,120.0769,-25.674,-13.6335,
-66.4005,-49.728,50.9378,45.6315,-77.9295,-62.9492,28.6884,25.098,35.363,3.638,27.9067,117.063,-38.2335,-22.4314,
-67.4776,-52.3829,48.893,29.735,-73.3948,-73.2722,17.8562,9.4922,29.192,7.4689,13.0727,114.0875,-36.0806,-6.9855,
-77.529,-42.6599,42.4172,15.2983,-61.4001,-57.3062,14.2545,-2.7886,22.8863,7.5263,15.8316,109.7725,-41.5077,-1.9407,
-72.4413,-32.0034,41.8965,27.539,-43.6161,-39.7678,16.4365,5.4767,24.5494,8.0871,25.0035,99.1379,-28.8954,-3.8486,
-72.65,-44.1832,53.4827,33.4786,-55.0991,-51.4818,24.0542,12.7391,25.6068,5.0716,27.0456,99.7687,-29.692,-17.7177,
-66.2666,-46.1569,58.9482,31.4694,-65.8932,-62.4929,24.6344,13.9991,25.0828,3.7549,24.4104,93.7831,-42.0105,-18.2435,
-76.3906,-57.4875,48.3253,20.4714,-76.0396,-72.8433,26.1926,5.0622,25.6022,1.5052,20.9214,84.1069,-40.5728,-14.1126,
-85.9072,-68.1383,56.054,21.7739,-85.5772,-82.5727,23.1031,3.2396,21.5352,3.9457,18.1482,93.1605,-33.5828,-19.8454,
-66.6528,-50.021,47.1237,27.0465,-81.1606,-69.2265,17.1618,2.5397,15.6889,8.2632,18.5777,97.7637,-38.1479,-21.185,
-70.8221,-51.0684,38.2237,16.3143,-85.4004,-77.2191,9.0475,-6.723,19.8082,2.7067,21.5118,85.8243,-49.959,-23.9626,
-62.5235,-44.968,36.9427,17.3598,-70.154,-60.4393,5.4684,6.8389,16.5954,4.5687,16.1728,90.7966,-56.1414,-14.4269,
-50.1687,-30.6298,38.2679,21.8849,-55.3175,-42.7129,19.2403,19.0807,11.045,8.8492,19.7562,94.9642,-44.1695,-12.0434,
-61.2586,-37.9014,44.0693,21.5837,-60.0959,-41.5985,18.6619,6.8017,11.3942,7.3064,18.5708,89.2663,-27.4193,-23.467,
-71.6831,-42.7128,31.3028,20.2887,-66.6124,-53.2026,3.4422,-4.7407,10.7106,6.868,6.3223,72.7761,-14.5699,-19.0231,
-81.4821,-54.25,36.0042,8.4431,-76.7157,-64.1104,3.6716,-10.0228,14.6226,1.9012,10.4987,64.8678,-27.7957,-22.4355,
-90.6932,-65.095,39.9175,7.9375,-86.2127,-74.3638,12.5606,-2.336,11.7214,3.811,7.8439,71.098,-19.6184,-22.1013,
-81.9909,-47.0893,30.4369,15.5587,-66.94,-55.802,5.7344,10.9633,7.9813,6.6191,4.3374,76.9534,-4.3413,-6.6752,
-76.06,-38.7678,26.5864,17.6615,-54.3902,-40.9552,1.3411,13.3408,9.5268,4.1976,18.1772,75.3725,-18.1809,1.8923,
-78.0755,-44.0328,30.5583,15.0834,-37.4622,-52.5979,4.8029,1.9135,12.4975,0.40349,31.1866,60.2224,-17.5969,-12.3212,
-86.0431,-55.4908,41.3769,8.6108,-49.3145,-63.542,7.0456,-10.8544,15.2904,-3.1635,28.4435,53.0663,-9.9616,-25.682,
-85.4352,-63.3661,24.7943,11.6379,-60.4556,-64.4248,-7.0412,-10.7091,9.8182,1.581,16.1096,63.5474,-11.8937,-27.8244,
-76.7668,-50.9607,19.1874,9.4202,-42.7283,-46.8952,-3.0765,-5.5114,6.6988,4.0165,10.5879,66.3136,-1.5652,-12.0549,
-66.5937,-41.3236,32.1362,8.3495,-28.0885,-42.5631,11.2081,-2.6504,11.864,-1.7916,16.5316,64.8651,9.1574,-0.12733,
-48.4981,-24.7441,43.4371,19.4883,-23.8728,-25.9093,8.5818,1.0509,7.6089,1.8591,11.9975,55.4061,5.0647,1.3987,
-48.5535,-27.2372,26.7309,10.7285,-26.9952,-29.3449,-6.0331,-4.5787,-1.451,10.351,11.7836,37.9817,-9.3391,-12.7852,
-37.5433,-31.677,16.4531,9.0723,-28.4122,-29.609,-4.2238,-7.3403,0.6604,7.7056,15.1258,26.016,-19.4776,-26.1181,
-21.1907,-18.1357,29.5659,10.0454,-40.8075,-28.3385,6.6574,-5.3825,9.2247,-1.3607,17.7605,38.1196,-21.8512,-30.7656,
-34.0193,-31.1476,34.947,2.8641,-52.4591,-40.7382,3.7281,-5.5655,9.1772,-1.785,18.2128,46.4607,-30.1565,-14.8197,
-41.5939,-34.4104,18.7502,11.2957,-37.8129,-37.352,-1.0502,-3.7127,5.0838,1.8649,8.5166,41.1422,-17.7188,-3.7372,
-49.7266,-36.9009,16.5432,8.0871,-41.1112,-40.6785,1.5426,-9.0575,9.3334,-2.8017,12.5603,35.1309,-8.0523,-17.178,
-60.843,-48.7869,28.7082,3.5537,-52.7445,-52.3377,3.4744,-14.5872,9.7859,-3.646,10.7943,47.1231,-9.5935,-21.2085,
-57.7689,-52.5097,18.3828,11.9434,-63.6799,-54.8351,6.8082,-9.1568,3.6316,2.1398,-2.505,43.8607,-14.585,-9.3082,
-52.7844,-52.9014,19.8102,13.7581,-60.0001,-55.0873,2.8575,-9.1138,5.944,-0.51888,4.2243,27.1291,-27.8099,-22.8497,
-46.0746,-35.6273,15.0793,16.4749,-42.3001,-37.6821,-11.414,-12.1092,9.1306,-4.031,17.6354,21.3816,-31.272,-23.5736,
-46.3469,-24.8158,11.1377,12.4496,-25.6621,-21.3211,-4.2201,-7.334,6.5579,-1.7643,18.6012,26.1723,-15.2957,-9.0001,
-52.675,-28.387,24.5695,16.7642,-25.4992,-27.4918,10.1331,-0.82037,6.1645,-1.6584,6.3518,16.5045,-0.27795,-22.5601,
-55.588,-27.6962,20.1295,17.7832,-25.9936,-39.9423,7.5713,-6.8447,8.8314,-4.5957,2.9339,7.4168,-5.1809,-35.3065,
-59.8442,-39.699,23.4765,3.0512,-38.534,-39.1352,6.611,-19.0862,9.8194,-5.8379,16.8579,20.6358,-14.4863,-20.6771,
-46.6377,-37.823,19.538,-3.7114,-32.2438,-22.687,-3.401,-28.5693,4.6756,-0.9329,10.8568,25.9772,-14.1231,-5.7714,
-48.9006,-32.5173,13.3041,-2.4768,-26.2604,-35.4258,-12.3073,-23.8183,4.395,-0.87693,3.1199,17.3331,-16.3125,-19.5251,
-46.4725,-16.9017,15.0367,11.7718,-10.5848,-35.3242,-0.94059,-8.2892,6.6621,-3.3551,11.5361,25.9094,-10.7781,-14.8819,
-35.0808,-3.2355,7.5545,10.1241,-0.76981,-19.1047,-2.4026,-5.6975,2.7192,0.38941,3.252,20.8116,-3.5533,-9.4347,
-47.0759,-17.1414,16.2115,-4.5833,-14.8236,-28.5157,-8.332,-19.4556,3.5689,-0.64685,1.033,11.4655,-12.4495,-22.9686,
-51.4069,-22.2565,18.2752,7.7673,-26.1509,-37.939,1.2778,-13.2972,6.3911,-3.6443,7.0441,24.8776,-7.6533,-15.5875,
-40.2255,-6.8211,22.2393,11.35,-10.4818,-21.5626,7.2738,1.6007,7.0196,-4.4376,5.6085,36.6135,-3.1454,-0.55224,
-51.912,-16.9691,23.4358,-3.431,-3.2029,-13.6193,-0.75318,3.0935,11.1531,-8.7261,6.7909,30.8749,-3.4627,-12.0883,
-34.6973,-5.8291,20.0053,5.3077,-9.0838,-12.8016,0.30443,-7.2139,10.4844,-8.203,12.4565,35.0955,10.8451,-17.4361,
-33.1209,-8.5157,23.8661,19.0893,-22.6388,-15.0703,10.408,1.3159,9.8548,-7.7103,17.7822,39.0629,1.155,-10.3178,
-45.2337,-11.5475,8.7691,18.5214,-7.6864,-5.5627,10.2895,5.7917,8.7576,-6.7417,13.1725,33.1763,-13.0143,-4.1311,
-40.0603,-3.7696,9.2549,10.3246,6.8748,-5.2289,11.696,1.3954,5.1953,-3.3004,14.407,28.149,1.8666,-0.84648,
-37.6562,-17.6434,18.8224,9.7046,-7.6377,-19.0152,10.9947,-5.7733,5.896,-4.1148,14.5541,29.4973,7.3217,-5.8568,
-38.9401,-25.2593,8.0767,3.5548,-18.8206,-19.4637,-0.29324,-14.0313,5.0363,-3.362,-0.41919,21.147,-6.7826,-8.0362,
-50.7037,-35.8894,14.6771,-7.7913,-6.5567,-23.356,5.7974,-23.3103,6.7585,-5.1846,2.0662,19.8786,-1.3145,-20.7127,
-58.8658,-42.8459,14.8094,-2.2632,-17.2975,-31.0645,3.4257,-24.9484,6.353,-4.8735,0.93033,25.7714,0.78919,-32.628,
-41.6692,-26.1751,12.4029,1.4154,-21.8263,-15.1007,-1.3345,-9.7865,2.429,-1.0384,0.36854,13.5978,-3.8129,-16.5703,
-40.1815,-10.5046,24.8169,2.3424,-11.4073,-0.094635,2.7933,4.9007,1.2714,0.035866,7.431,7.7203,-2.5721,-1.4761,
-23.6706,4.2256,14.2185,11.3112,3.3771,-2.4782,1.6138,2.6528,-2.8536,4.0824,4.9612,16.3675,-9.5033,-1.7524,
-21.6734,-2.9013,5.7734,1.0167,9.8246,-6.8842,1.0115,-5.0983,-0.15209,1.3072,7.1939,17.9158,-12.4754,-13.287,
-34.473,-16.8273,7.9578,-10.6845,-4.8649,-2.9284,-5.6288,-12.3839,4.4117,-3.326,-1.8412,17.3468,-6.1602,-12.9958,
-46.5046,-21.9612,-6.6197,-11.5608,-18.673,-16.4173,-11.8701,-25.7408,2.6286,-1.608,-13.3714,7.7021,-12.3697,-19.808,
-50.9409,-26.7166,-10.8477,-11.8791,-31.6526,-29.5322,-8.1211,-25.7848,1.459,-0.49959,-5.4836,5.2161,-19.7249,-30.7657,
-36.2443,-11.0136,-6.6551,0.47285,-28.4472,-13.6603,-15.2253,-10.1377,3.9023,-3.0004,-8.6973,10.4697,-20.0603,-24.365,
-24.9602,-1.6789,-9.2921,-8.6654,-12.6403,1.2593,-23.4217,-0.85553,6.7044,-5.8567,-17.2853,2.7565,-32.9567,-15.8181,
-22.9566,-7.1453,-6.2047,-12.7002,2.2181,-7.8556,-13.413,-14.9042,1.7475,-0.95061,-15.7423,-2.9765,-33.5797,-5.2527,
-21.5792,-3.6798,-5.8324,2.1619,-12.015,-4.3479,-1.4739,0.090053,-0.38223,1.1313,-10.749,-3.8098,-17.4649,-1.9017,
-34.3845,-15.6056,-0.42131,-1.9461,-25.3941,1.986,-7.4596,4.6389,4.7018,-3.9978,-6.0549,-5.6056,-16.3465,-15.8876,
-33.4039,-10.6201,0.61687,-8.9138,-9.7704,11.9891,-7.011,-1.7121,0.37101,0.29084,-10.7522,-4.2573,-23.4631,-22.0894,
-25.8325,-14.5376,13.232,-1.8004,-8.1013,-2.8302,7.5096,12.4907,-1.1692,1.7913,-8.5892,2.5777,-7.9553,-6.6641,
-20.2343,-10.629,19.5231,12.4076,-13.6888,-8.2985,14.7201,11.3058,1.9373,-1.3525,3.0599,10.52,-1.8409,-6.7001,
-4.9203,4.1087,4.2517,21.3495,1.2326,6.2994,3.2101,-3.4726,-1.7212,2.2709,7.4315,5.3346,-10.3333,-7.816,
4.5553,11.0182,4.938,10.4532,15.2586,20.0214,12.6328,1.7259,-4.1488,4.6655,3.4429,1.4717,-3.1348,-10.8898,
6.3064,12.3815,5.6537,5.7773,28.4431,4.7912,6.8142,15.7224,-3.8998,4.3856,-0.81244,2.3954,10.2114,-13.2732,
7.4464,21.2545,7.8453,4.9247,35.552,18.6037,3.8745,11.3073,2.9137,-2.4571,13.3363,0.73374,3.0202,-8.9341,
2.9509,13.9061,12.4357,7.6655,20.2608,25.1495,12.7519,-0.50491,5.7752,-5.346,11.0887,-1.3346,-11.261,-4.3488,
6.8225,11.0474,0.55533,1.132,20.0571,16.5555,-0.15935,-2.4995,-1.6568,2.0603,-3.6766,-9.352,-7.6191,-11.1734,
-7.6868,-3.28,7.1015,-1.4658,5.1891,1.4621,-3.6925,1.1933,-1.0515,1.4307,-7.0688,-5.2481,-2.6073,-22.1432,
-8.3085,0.45904,15.2784,12.7222,16.5179,7.3765,10.629,6.6888,0.53002,-0.17354,2.9702,9.1667,-7.0065,-6.7146,
-11.8588,0.4315,15.3746,7.4737,7.4294,-1.1635,13.6046,0.21389,-2.5386,2.8737,-11.308,14.2539,-9.6224,-2.6989,
-9.1229,3.4424,10.4029,-4.1085,-7.1164,2.955,0.64163,3.2383,-2.3858,2.7008,-22.8462,3.2769,-17.1425,-16.637,
5.5245,17.3359,-4.3213,10.238,7.4106,16.8777,-4.4571,17.144,-6.2918,6.5879,-7.3754,-6.0296,-21.1746,-1.5388,
18.9281,30.3957,5.4833,13.2375,21.066,29.965,6.4381,22.765,-5.4079,5.6862,7.1671,3.948,-10.2888,12.6535,
3.6924,22.134,18.3129,8.3941,33.902,38.9364,2.0027,10.2653,0.98969,-0.72807,-5.7735,11.809,3.4871,11.4589,
-1.1543,13.2145,3.5496,3.3353,32.009,41.155,-5.7095,-0.97934,3.4606,-3.2147,-14.031,-2.9995,-10.8221,0.14359,
-10.7009,1.7933,2.8301,-1.4191,28.57,24.5857,2.2251,5.6585,0.72267,-0.4915,-6.6101,-14.0248,-24.2728,0.64142,
1.0754,6.7469,8.7334,-0.32151,40.9558,19.4972,4.1159,12.405,-1.3451,1.5624,-1.1524,-5.0854,-36.9164,6.676,
-13.0892,-7.7579,15.8009,-8.9056,24.3985,9.724,5.3878,-2.4393,6.3271,-6.1229,1.4476,-4.2743,-48.8014,3.7446,
-15.9176,-8.8814,10.8041,2.762,15.3431,7.1157,9.1123,-2.87,6.9594,-6.7674,-6.7377,5.0916,-59.9733,-5.5899,
-0.86251,5.7515,4.5897,11.2002,28.5225,20.7888,11.0969,9.9549,-0.037182,0.21767,-9.8757,2.2558,-70.4749,-2.7237,
12.9253,-0.089699,11.3989,-1.618,17.2668,9.9971,8.4062,2.2721,-3.0717,3.2414,-5.2344,-11.9796,-80.3464,-9.6453,
14.1741,7.0012,6.6667,5.565,30.3308,10.4092,3.8536,0.11137,-5.9237,6.0832,-4.9199,-9.3065,-76.0194,-11.0909,
27.4237,20.6811,8.2911,9.2794,42.611,23.8847,9.6955,6.1778,-3.5439,3.6939,5.4971,5.3519,-57.3582,-3.3405,
34.4522,16.98,14.3727,0.11872,33.6158,17.9674,12.656,-0.77195,2.2358,-2.0949,4.6609,7.6316,-56.377,-1.6216,
25.3001,3.8155,17.559,-5.961,31.5994,2.7894,14.9334,-7.8111,7.1623,-7.0299,-8.7769,-6.9263,-67.0944,-4.5606,
17.7085,-3.499,13.4687,0.46926,27.6786,-11.478,16.0613,-6.3305,5.7206,-5.5961,-6.2264,-3.5449,-77.1687,-8.3362,
24.2375,8.3507,-1.4394,12.0813,37.658,-4.3513,5.4823,-2.4079,0.82271,-0.70567,-9.3956,9.3199,-65.0882,-7.3301,
12.1549,0.25818,5.6619,4.7774,21.2986,-14.7185,7.6837,-5.8057,3.3037,-3.1937,-7.3135,5.2185,-52.5795,-16.5061,
15.4749,-0.76876,19.4222,10.5638,15.3954,-10.7986,13.2957,0.61569,5.1298,-5.0264,0.21134,-1.1677,-54.4854,-14.5028,
28.6464,13.3774,15.7971,16.509,28.5717,3.9493,11.9915,13.2314,3.3036,-3.2064,-2.3326,-7.6777,-54.759,0.46734,
18.3942,20.2358,15.8612,2.3594,40.9574,17.8123,21.3943,8.3878,3.1054,-3.014,1.856,-5.1922,-47.4252,13.1615,
21.3393,26.1071,15.9219,10.3158,52.6,24.4761,23.147,-0.21243,0.89473,-0.80884,-1.2916,5.2411,-34.4574,14.3962,
24.6141,18.9741,12.4363,13.2401,44.5949,12.3798,15.1791,-5.7668,0.3346,-0.25385,-9.8171,-6.713,-44.0302,4.929,
18.5821,16.3172,8.1469,1.8169,27.8192,9.1062,5.6645,-8.9631,-1.2039,1.2798,-4.6738,-20.4103,-55.4884,-8.0189,
16.9607,20.9048,8.1635,5.2502,40.25,22.6598,4.8181,-15.0053,-0.62519,0.69653,2.1857,-28.367,-38.0591,5.1139,
1.8431,5.5505,14.7597,6.9605,23.735,7.2002,14.6518,-20.1781,5.4854,-5.4183,-0.98178,-12.565,-21.6755,15.9418,
-6.435,-0.92563,0.71603,-0.54264,9.0818,0.18917,9.724,-20.9913,0.095622,-0.032582,-15.0229,-2.6302,-34.475,20.0464,
8.0511,13.2299,-0.33887,-6.5827,22.6369,14.2778,2.055,-18.7198,-5.9837,6.0429,-2.0454,-6.5211,-39.4915,12.7701,
16.242,24.1464,13.7815,5.4515,35.3787,19.0588,7.4984,-3.4967,-0.057064,0.11277,12.1773,2.4736,-23.4579,0.36365,
16.2794,36.7976,17.5788,11.1975,39.9761,27.0247,14.1335,4.3752,-1.0661,1.1184,-0.12393,2.3247,-21.0385,10.4636,
2.6505,26.0568,3.872,3.9471,23.4775,13.763,10.7556,-9.9874,-3.5329,3.5821,-5.6831,-0.34466,-29.392,11.3542,
-6.6179,10.3934,1.6162,9.7833,7.9689,4.8402,-3.0473,-15.0253,0.72827,-0.682,-8.3784,5.7491,-15.4814,0.55164,
-17.8611,0.083456,15.6193,-0.41949,-6.6093,6.0677,0.67779,-0.023762,4.2268,-4.1834,-2.3086,0.84899,-9.9983,3.0484,
-30.8894,-13.5861,20.8248,-7.9863,-17.0526,-1.8878,3.1675,-9.0617,5.4916,-5.4507,3.397,-4.7691,-23.4984,-1.6892,
-14.936,0.8941,5.4753,6.5929,-1.9294,12.3255,-5.6265,-13.0722,2.6318,-2.5934,-4.3978,-6.0003,-7.9885,-9.1789,
0.060137,14.9405,-4.0332,9.3046,12.2864,25.6859,-9.8436,-4.6973,6.0166,-5.9805,-3.628,-5.1344,6.5908,-1.0371,
9.7429,22.718,0.25756,2.6738,25.6492,38.2448,-18.3624,-9.4762,5.6556,-5.6217,-3.4103,-11.9118,12.8454,10.1598,
6.628,19.837,-7.3484,2.0074,38.2102,30.5955,-20.8034,-15.4862,1.7736,-1.7416,-9.7852,-25.2971,2.4589,1.9587,
-1.8676,15.6095,-5.8965,0.87401,31.645,15.6007,-12.4706,-10.5092,1.6671,-1.6371,-9.1981,-25.3682,6.3601,-2.2085,
12.3444,28.7729,-18.7008,-1.2023,43.8463,28.7647,-16.7831,-5.83,-1.4697,1.4979,-9.6591,-15.7487,20.0785,12.024,
25.7038,39.2637,-17.5783,-4.1665,55.3156,41.1388,-17.8004,-6.4926,-4.4178,4.4443,-7.0552,-28.9037,29.0661,25.4026,
35.4373,42.981,-3.365,7.2173,66.0966,52.7705,-6.6106,7.997,-3.1403,3.1652,-9.6682,-36.3499,28.3345,33.1299,
36.3474,54.5021,-12.2735,3.7474,76.2308,63.7042,-7.2259,4.5519,-1.9399,1.9634,-14.1488,-26.0715,24.6101,42.2763,
21.5139,46.7474,-17.1037,-10.1415,69.4092,53.5855,-11.347,-9.8212,1.7192,-1.6972,-1.6596,-30.0738,25.6638,25.6397,
21.236,42.9311,-18.1018,-10.5454,64.2328,56.4435,-15.7274,-6.7717,4.6524,-4.6317,0.4643,-25.2331,35.2582,10.0013,
20.9738,43.3915,-8.9188,-7.8883,72.525,67.1569,-14.7832,7.7346,1.3369,-1.3175,-6.6486,-16.6341,29.0935,8.7533,
33.8153,54.888,-14.9627,2.2008,82.2735,77.2275,-14.4027,5.8227,-5.3224,5.3406,-9.7929,-22.2151,27.8544,22.3281,
37.4236,49.1344,-28.1649,-6.0287,73.8643,63.119,-20.624,-8.6267,-2.9791,2.9963,-17.3028,-33.0283,39.3412,16.5042,
21.0782,32.0864,-15.4109,-15.7893,55.3325,47.1862,-19.3866,-8.1801,1.2483,-1.2322,-24.3621,-24.9731,36.9812,1.414,
33.9135,44.2612,-27.1393,-4.2136,66.1125,58.455,-24.802,6.4107,-3.3813,3.3964,-21.3815,-28.0294,48.4264,4.8018,
45.9787,55.7055,-39.6109,-13.0702,76.2458,69.0477,-25.3387,-8.0739,-2.1664,2.1807,-5.9986,-40.4476,59.6208,18.6137,
51.8949,48.8915,-25.1582,-13.2979,63.1386,68.5892,-9.7184,-19.2287,1.0003,-0.9869,4.5537,-34.0431,66.2369,18.5798,
58.397,57.5986,-12.009,1.5999,73.4503,71.0519,0.55157,-3.975,3.4706,-3.458,-8.3722,-22.3846,61.7562,22.0193,
55.3987,54.6482,-20.9043,2.5859,83.1433,76.4046,-9.0974,10.3635,3.7689,-3.757,-6.3514,-26.6087,61.5931,14.1191,
51.0623,48.333,-28.7599,0.40642,88.4176,83.967,-15.6375,-3.2768,-4.5552,4.5664,-5.9708,-35.134,65.9955,15.2963,
51.0354,45.4326,-12.9343,2.4064,69.0125,83.9901,-3.5645,-3.0797,-5.2934,5.3038,-4.6002,-25.9409,64.0601,28.4785,
47.9732,37.6455,-14.1121,-3.8111,78.9718,67.816,-3.3512,-6.9441,-3.9643,3.9741,-10.3972,-15.2746,57.1792,32.9134,
53.1933,38.4245,-27.3653,-17.6824,88.3335,62.7361,-17.2501,-20.6275,-17.8264,0.69891,-23.8734,-28.4581,44.6401,16.8386,
47.4709,38.6489,-39.8234,-30.7215,97.1334,53.4043,-26.9134,-29.0752,-12.2722,-4.9097,-9.8589,-40.8506,46.5154,1.7283,
45.1286,41.8975,-24.416,-14.7782,77.2054,53.7428,-13.6584,-13.2307,2.1282,-0.060383,4.3967,-24.2996,57.3895,13.6297,
48.4939,32.2977,-17.8909,-7.8885,70.6198,49.5058,-9.8026,-8.8246,-1.0358,2.9795,-4.977,-13.8027,50.9089,11.7995,
53.1753,27.8295,-25.4203,-9.9464,71.9487,36.9196,-7.696,-9.8135,4.5935,-2.7663,-2.148,-24.6143,50.3847,0.46375,
49.9848,32.2333,-21.8712,-0.2393,53.5318,40.778,-6.2223,4.8753,9.3785,-7.661,8.1032,-10.9913,48.3745,-1.588,
32.8857,16.1993,-7.3999,-7.3105,36.2199,25.1723,-2.8122,4.6538,6.7919,-5.1775,6.605,-2.2344,31.372,-3.5175,
16.8126,6.0469,-21.0559,-0.79826,19.9467,19.6132,-13.7777,-3.7229,2.3357,-0.81811,-7.8913,-12.2216,26.3829,2.7671,
21.2299,9.2264,-18.3452,3.8038,22.0811,17.9309,-17.5053,0.043745,0.67716,0.74936,-13.0559,-16.0435,38.8999,5.1314,
26.5361,6.1425,-3.1445,1.0463,18.2268,9.2641,-8.8639,-6.5379,-0.88186,2.2228,0.38005,-5.465,37.6489,-1.7555,
32.0289,11.847,-17.0558,-1.0418,31.2332,17.8171,-9.3436,-20.2457,-2.8533,4.1138,-1.6671,-18.2957,24.2552,1.3861,
16.4422,-2.9638,-7.935,-5.534,27.9109,9.1566,-5.2412,-10.498,-3.1881,4.3729,-4.0969,-29.8501,29.3794,-4.2637,
29.5556,5.2414,4.1813,6.4382,40.3362,22.7072,3.6767,4.2319,-4.5157,5.6294,-1.3213,-13.9591,41.7167,-3.5019,
29.3707,12.012,-10.1696,2.0027,52.0161,35.4448,-5.6528,13.6638,-10.3178,-3.8182,-7.3151,-19.6306,30.6808,8.8539,
13.5085,-2.8088,-15.7025,0.87157,34.7951,27.893,-1.2649,2.7227,0.42355,1.4715,3.2461,-25.5373,14.7399,19.4569,
5.0365,2.8563,-0.66038,-1.7125,18.6074,29.7612,-2.7079,-11.1057,-2.1327,3.9141,-5.553,-13.3778,20.3641,4.6244,
18.8343,13.3127,-2.5751,-9.2007,31.5909,29.4939,-10.1364,-11.9578,1.5385,0.13599,-6.7373,-4.9831,30.7819,-0.20725,
24.3538,22.6358,-14.5672,-11.685,23.1865,38.8581,-21.6749,2.8597,-0.57816,2.1522,-9.3703,-12.7821,15.7764,13.9052,
28.4597,34.9422,-17.2355,-12.5023,7.6953,37.033,-13.7953,16.7881,-8.1354,9.615,-9.3136,-24.6678,0.72984,22.7572,
27.2581,37.4004,-8.6099,-2.1368,1.0904,20.711,-8.4119,1.6808,-2.0797,3.4705,4.9093,-16.6082,2.6404,7.2918,
39.7226,49.2563,-12.648,9.6316,15.125,33.5684,-22.0072,-7.9653,-1.449,-4.3292,-5.0016,-12.0689,16.146,-7.2457,
38.9282,60.401,-4.8045,-5.0463,2.6474,43.7004,-15.1912,6.6126,-7.4356,-4.0694,-18.8015,-21.4671,11.1285,-2.9033,
38.6178,68.5586,-9.5764,-7.8499,3.5009,35.0053,-6.1818,5.2744,-10.0257,0.22394,-23.8165,-19.1666,-3.6392,-8.8022,
50.4007,78.5451,-23.1019,6.7211,17.3909,47.005,-13.4028,-2.633,-17.0152,-5.3566,-20.8691,-17.5102,-17.5208,-1.695,
58.0745,87.9324,-12.1709,4.8695,2.2474,58.2847,-6.5251,8.6582,-22.0679,-19.1352,-22.6538,-22.5331,-2.3696,-3.6181,
40.49,75.2056,-9.4168,5.5893,5.6549,52.3984,-8.1584,19.2729,-11.6344,-10.9726,-18.2578,-20.1692,11.8726,-6.4378,
23.9606,56.5932,-20.4915,-0.31318,-8.7844,35.1545,-21.7689,4.0166,-3.3444,-3.7352,-5.5226,-13.3919,-2.9398,-1.4964,
8.7169,39.0976,-8.1283,0.71803,-22.3574,18.9452,-11.9294,2.1867,-3.1442,-6.5474,0.88186,-2.4666,-16.8634,0.61776,
10.7252,28.5138,6.4594,10.2908,-22.1689,12.6063,2.8863,13.6961,3.6235,-2.6113,5.3841,2.2366,-1.7516,-1.9496,
-3.5839,12.7029,13.2274,0.057501,-19.3209,-0.80272,5.82,-1.2256,7.9613,1.0876,4.5546,-1.4409,5.368,-4.363,
1.6928,-2.1592,3.3254,-1.9698,-4.0616,-7.8391,-4.6505,-6.7902,6.4717,2.0343,-3.8151,-6.4151,-7.0993,9.9988,
-12.5088,-8.2448,8.6925,3.715,-17.9179,-21.4688,1.1951,4.2454,7.6013,0.39435,-0.044435,-3.4994,7.4267,1.8784,
-20.9386,-10.28,-0.43249,2.9861,-30.9429,-28.3491,-5.4551,-9.6734,3.6024,3.9134,-8.6452,2.2772,3.0024,-12.3343,
-5.5823,4.4368,-14.5065,-1.2418,-14.9863,-12.5481,-19.2278,-0.99647,-5.7231,12.788,-13.1871,-2.9201,-10.3368,1.9988,
-17.3235,0.19196,-13.7072,-15.2673,0.012896,2.3047,-17.1332,13.1633,-6.3916,14.0446,1.7041,-6.7936,-5.6679,5.9276,
-30.3841,-13.9196,-4.7873,-19.4829,-14.0879,-11.9335,-18.1291,-1.7265,-3.9843,10.1661,-1.3639,-9.4228,-7.3517,-8.528,
-21.5456,-27.1844,-5.512,-19.3259,-27.3426,-25.3175,-2.9414,-15.7229,3.3403,2.4707,-12.4163,-3.7958,-5.8977,-22.1164,
-8.6131,-32.273,4.4341,-12.5997,-15.1443,-24.3044,11.3351,-7.2581,8.7065,-3.2442,2.4287,7.0593,6.0954,-9.2902,
6.0037,-16.2366,-4.9413,-5.7701,-0.13566,-22.8462,2.1926,-0.74904,2.1115,3.023,8.9325,-7.4643,4.7178,-11.7686,
-2.3835,-21.2649,-3.6329,-9.4726,-14.2275,-35.5754,5.0979,-10.8264,5.0216,-0.19513,2.324,-14.172,-9.6653,-23.2087,
-16.3405,-27.075,6.7069,0.20558,-27.4739,-39.585,10.8651,3.9232,10.7934,-6.2565,-9.9621,0.77834,-3.0828,-9.6705,
-24.0335,-17.8581,-0.27413,5.7599,-36.5233,-23.1099,8.6953,16.4114,3.5663,0.69842,-4.8087,3.333,10.7667,3.5628,
-8.4915,-14.7632,-9.3675,1.366,-24.2105,-18.11,8.1731,5.304,-2.7208,6.7296,7.6255,-5.9769,-3.9793,-2.725,
6.118,-8.8163,-13.8666,0.27166,-8.6579,-10.9503,5.6574,1.9494,-0.53319,4.3015,-4.9787,-2.5819,-17.8405,1.4877,
-8.3491,-22.3873,-6.4551,-6.3242,-22.2384,-7.7625,-2.2726,-7.7838,3.0416,1.5126,-18.3441,-7.9937,-24.5027,4.9412,
6.2519,-12.0052,-11.6349,8.1553,-23.9404,6.8033,-6.6914,-0.7368,-2.7081,5.977,-14.7131,-12.0692,-8.9325,18.7447,
19.9767,2.8151,-14.9855,15.328,-8.404,20.4951,3.8324,13.4074,-5.5824,8.6551,0.2697,-10.3331,2.3022,31.7201,
20.0017,16.7462,-11.0501,2.2626,6.2002,33.3654,5.6268,26.703,-4.235,7.1234,6.3967,-5.6639,-10.9945,15.7169,
16.2708,13.3522,-18.9905,3.6448,19.9282,24.49,-2.3023,11.0008,-3.4749,6.19,-1.5777,-6.842,-24.4348,2.6977,
7.1971,-1.549,-3.7511,-5.6833,4.6325,8.9206,4.9204,-3.7593,4.831,-2.2788,-0.47106,-14.5299,-29.6188,-5.5616,
-7.3348,-14.1792,3.1236,-11.9219,-9.7454,-5.3497,7.156,8.612,5.0471,-2.648,-0.94877,-13.1521,-13.7417,-11.8074,
-15.0626,-10.7981,-11.1638,-13.7369,4.9393,9.0713,1.1595,9.6137,1.202,1.0531,4.6743,-6.7959,-12.8461,-3.507,
-26.3055,-23.3088,-13.0949,-17.9738,-6.8562,-5.573,4.1262,-5.0632,3.1543,-1.0344,11.4798,2.7217,-24.222,-3.2971,
-13.593,-7.8103,-12.3097,-10.8223,-12.5179,-2.7083,7.9279,-10.903,0.94065,1.052,-0.34366,-0.47787,-20.7443,-6.1356,
-2.6556,6.7583,-2.4607,-7.1362,2.3332,11.5542,9.4761,3.8512,1.8962,-0.023074,-2.3469,0.56274,-11.4022,3.342,
7.1201,15.0988,-3.832,-0.12847,16.2932,11.4379,-5.1925,9.2578,2.2884,-0.52766,-1.7001,9.1324,-10.2121,9.721,
19.345,12.674,-15.2422,5.4459,29.4156,15.3063,-11.0246,6.1715,-2.4036,4.0587,-3.116,-0.018969,-15.166,5.595,
17.6783,7.3588,-0.66267,1.5764,13.5507,16.9178,3.7369,16.4295,-1.7535,3.3092,4.6614,3.5249,-17.7993,5.7652,
23.1962,12.4839,2.9198,1.9878,26.8376,28.5558,17.6127,11.9009,0.88257,0.57984,-9.2823,5.8433,-2.6314,14.0227,
15.7318,8.6981,-1.305,-0.15635,34.5488,25.8296,11.6363,2.0765,0.82961,0.54505,-17.8348,-8.6073,7.2134,18.242,
14.2815,12.7314,-0.72028,6.433,39.0549,26.8111,15.4933,15.6175,-3.7753,5.0675,-2.6647,-2.5938,-7.3194,26.7643,
17.9797,15.5098,-5.2322,10.6013,32.1565,31.7805,14.0573,23.2833,-7.0911,4.257,-3.4467,-5.9814,-5.9393,31.7375,
2.801,0.4792,9.1817,3.8916,16.1271,15.7737,6.1283,7.7863,5.4805,-4.0959,-4.2518,-19.7225,-3.5586,15.7333,
-11.4671,-13.6495,6.1715,-4.9448,1.0595,0.72728,0.19448,-6.7808,9.7069,-8.4053,-1.4664,-23.1644,-7.8993,0.68926,
-10.9201,-21.0686,3.2713,-15.2754,15.0959,-13.4164,12.835,-4.4907,3.5569,-2.3334,2.1643,-7.6745,3.2024,3.5431,
-17.8564,-33.9045,5.6054,-17.9021,0.090134,-26.7114,11.5584,-3.7148,5.8738,-4.7237,2.5409,3.9907,1.4919,-10.7694,
-18.8094,-42.569,2.2323,-14.8031,-14.0153,-39.2087,3.7794,-9.5655,8.5582,-7.4771,5.4243,-10.3488,-11.7557,-18.7972,
-17.1744,-35.4597,15.7634,-9.3603,-6.3004,-50.9562,17.6526,-9.4975,4.5019,-3.4857,14.7152,4.3722,-6.4952,-3.5694,
-2.0439,-19.6675,14.3111,5.3013,-3.3921,-33.7988,20.7137,2.713,0.68952,0.26573,4.2164,18.2098,7.9945,3.8008,
11.8138,-8.3652,6.3674,10.6209,-15.3347,-17.6709,8.3362,2.5498,3.6845,-2.7865,-2.1097,10.1028,12.1401,-1.4884,
5.0319,2.2576,3.9601,6.9464,-0.31464,-11.3256,3.7877,-1.6515,6.4997,-5.6556,-0.97066,-1.6372,1.2894,-1.3996,
17.8876,16.2221,-2.3506,1.4685,13.8042,3.4539,3.56,12.5476,8.1341,-5.3168,-10.0223,11.6187,3.2368,6.7823,
3.6563,3.1731,4.8759,-8.741,4.0077,-3.7673,6.3832,12.8772,7.646,-4.9978,-9.4209,16.9951,-8.0916,2.3267,
-0.10587,4.5016,-3.0081,0.38691,-5.8482,3.0373,3.4694,5.5251,0.60869,-0.1432,-3.2891,10.4088,-6.0877,16.2871,
-13.7641,-9.8685,-6.3699,-7.2273,2.0937,-11.245,-0.28106,-2.3974,1.0777,-0.6401,3.4873,2.1923,8.3776,21.453,
-27.0382,-23.3764,2.1097,-19.9518,-12.1319,-24.6703,-1.2761,-8.3272,7.0866,-6.6753,0.24228,5.0976,-4.7067,6.0658,
-24.4745,-19.5845,-10.163,-5.5966,-4.3895,-22.8251,-1.2005,-4.7907,6.6614,-3.238,-9.8945,8.8404,-16.571,4.6189,
-19.9693,-4.3094,-13.6019,-6.2737,9.9739,-7.3556,-5.1772,-7.5401,6.2617,-2.0317,-10.3128,-0.79938,-5.4544,13.4521,
-23.8318,-15.1146,-8.7376,-8.9335,16.5315,-5.8313,-13.9755,-6.0753,0.82484,4.1632,-15.7671,-14.8514,-4.1147,4.5471,
-15.3168,-6.1103,-0.11589,-6.3727,3.3934,3.6279,-2.0027,-0.65008,-3.2734,2.9015,-8.7485,-25.1651,-17.9678,4.2742,
-28.4978,-1.1885,4.4462,-5.4848,-10.9102,-8.2299,12.2174,-0.10462,7.5508,-7.9004,5.8764,-9.5552,-19.4916,-5.598,
-20.2794,4.9559,-9.9205,-2.1185,3.8444,-1.6631,-2.6156,-5.1595,9.1221,-7.4268,-3.0086,5.1181,-4.2221,-9.3104,
-4.9627,13.7675,-3.3228,-5.0286,17.7138,6.5342,0.071655,-6.8743,3.5136,-1.9201,-7.8892,4.4456,7.236,3.3939,
7.5518,23.0637,6.9979,-1.6901,19.2513,7.155,8.1648,-1.4012,4.3157,-4.8416,5.7423,-0.88176,-2.308,4.2032,
10.1359,24.7167,1.5174,-1.5887,25.1827,10.7744,-5.4832,0.70775,5.0687,-5.5631,11.4713,0.18309,3.9045,3.951,
-0.59451,13.1119,-0.59801,-2.5058,14.5609,10.1275,-8.1915,-4.3959,3.7522,-4.2169,-3.317,5.2332,8.7304,13.8357,
11.5873,26.4252,-3.5979,11.7445,27.7873,22.6789,6.4,5.9902,12.6374,5.1455,-14.3227,16.0535,8.2066,21.103,
0.26432,12.2576,-4.9009,-2.5532,17.5876,7.2182,5.5811,3.1,12.3851,-2.7547,-5.8719,7.4988,-6.3858,5.7369,
-4.3067,-2.5779,0.96023,-13.0288,2.4324,-7.3149,-4.3706,-2.6532,3.0381,-5.1197,-1.9773,-4.5918,-2.025,-5.8121,
-0.50508,-6.543,-8.7132,-7.6919,-10.9427,-19.6702,-9.6745,-10.085,-2.7113,0.75456,-8.4377,-12.9192,7.7129,4.1524,
-14.1398,-12.729,-12.7451,-6.7244,-14.8408,-21.0203,-3.5274,-19.0962,0.99415,-2.8335,-0.33998,-6.5774,2.6954,-6.725,
0.80857,2.1348,-10.9685,0.76459,0.14962,-5.6591,2.7578,-7.8281,1.9464,-3.6754,-0.31958,-6.1828,16.6337,-12.3941,
12.4708,5.62,-10.8168,-3.8365,3.7539,-3.7306,-0.95091,-6.8529,0.31126,-1.9365,-2.8307,-19.9118,15.2002,-11.1449,
-2.3775,-8.8172,-14.216,-3.6058,-10.5713,-17.6068,-14.0515,-20.5418,0.29307,-1.8208,-1.6485,-14.2325,0.1882,-9.4638,
9.3353,4.2929,-8.8079,6.2264,4.163,-8.017,-11.691,-13.8127,-0.23097,-1.2051,-3.068,0.28603,3.6486,-4.3408,
7.7623,-0.012877,-4.2312,4.8404,17.5778,-6.5245,0.14521,-11.9715,0.79531,-1.1333,-4.9082,3.3052,11.5277,-5.0928,
7.8035,6.5669,-18.0773,-1.0172,22.0902,-4.6147,-4.4187,-21.881,-2.7947,6.5267,-12.2057,-10.9931,-1.8166,9.3128,
-3.2934,3.6426,-8.9653,-9.56,6.6648,-18.4378,-7.6958,-24.1114,-1.1096,2.5919,-7.9301,-24.4336,-2.2141,11.8608,
-7.1441,3.424,-0.32993,-2.9129,-7.8351,-29.0418,-2.1734,-16.5911,0.98185,-2.6243,6.6457,-10.9624,0.95603,-2.9508,
7.3846,17.3186,-14.4101,-1.7261,6.735,-13.1993,-7.1046,-13.5718,-7.1745,5.6306,3.2802,-7.2689,-5.1754,-5.8806,
4.4817,15.844,-11.0862,-8.2016,7.2718,1.6927,-4.1471,-16.2997,-5.2256,3.7744,-6.5324,-14.4237,-3.3465,6.112,
9.2735,20.9665,3.679,6.3905,6.836,-2.8225,7.2355,-10.2606,-1.8758,4.5603,-10.1887,0.5417,10.9543,7.7706,
-0.39234,24.7701,0.49294,3.0418,0.35324,-1.6412,9.8382,-10.6569,-5.812,4.2867,-7.5526,9.6901,8.3437,-0.79311,
-9.4787,9.1839,-1.5615,-5.2382,-2.7047,-10.6521,1.1504,-10.0175,1.6222,-3.056,0.99803,4.048,-6.2569,-5.8071,
5.1901,13.1166,-5.0096,8.7402,11.1216,2.6396,-7.522,-13.9711,5.0677,0.67011,-5.6414,4.3111,-10.5067,-3.9398,
10.5168,15.3659,-5.7214,9.2282,5.3932,6.5295,-3.0225,-18.194,-0.29754,2.6543,-7.3273,-5.0574,-11.9007,-7.7527,
11.9096,18.4926,-3.3543,2.6009,19.1696,18.2839,7.2812,-3.9443,0.73225,-3.5776,-3.8508,-6.7788,-1.0648,4.8587,
-0.95158,3.2831,10.0056,0.42051,32.1194,8.077,14.9413,-3.7081,7.7733,-9.437,-3.6203,7.7279,11.1447,17.7257,
-14.0526,-11.0139,19.5271,10.5171,16.0923,-5.5657,12.0204,-2.4732,10.3442,-1.7848,-1.3787,21.3642,10.4765,9.5762,
0.89056,3.7469,4.2554,10.898,29.2267,8.8682,1.1769,7.7965,3.65,-0.66575,-2.3079,5.9824,12.8838,-0.10775,
-3.1415,5.4755,-5.1808,-3.8559,35.7121,10.431,1.1068,-6.7713,-0.61822,-11.7605,-4.1938,-8.4766,1.9889,-14.2013,
10.712,3.629,9.2301,0.85964,34.0753,5.2505,1.5464,-20.0996,3.9745,-4.4754,-4.4481,-4.4257,-2.6851,-12.9138,
11.0822,8.4729,2.1687,1.821,27.9821,19.0354,-1.5823,-19.9056,1.7122,-6.2307,-0.13253,-13.2686,6.5864,-12.138,
-3.6828,-0.63888,4.5684,9.3032,12.2032,14.4211,7.1161,-4.6112,4.1393,-5.3509,8.4788,-11.9665,20.2912,-9.8918,
10.6382,13.4995,2.2705,22.845,9.8821,26.7144,3.6524,3.3279,-1.1697,5.0924,-6.1299,2.8515,11.5532,4.8017,
24.0999,26.7895,3.6526,10.9166,15.8692,29.6667,7.9884,1.6099,-5.6547,4.2804,-5.3267,2.245,-3.2399,18.2482,
19.6877,24.8167,8.4941,4.189,0.81701,21.8131,11.5578,8.5988,-1.2667,-0.025102,0.054561,2.1103,-4.635,11.0807,
18.5064,23.3277,7.9845,-1.123,5.7576,18.4805,-1.2818,2.0093,-0.1778,-2.0475,-0.96161,5.0204,9.7431,12.4407,
28.0238,20.4097,11.0477,-0.55016,15.028,12.8165,-0.69943,-5.7023,-0.67359,-0.4072,6.688,4.2128,2.65,13.2117,
40.4424,29.3069,-3.7152,11.6295,24.2481,18.1206,4.4037,-1.3119,-5.6943,-2.4071,-7.8132,-3.126,-1.5577,4.322,
36.568,25.0182,10.6077,16.4979,15.2023,12.4782,14.7672,8.3827,4.2632,9.378,-9.9463,10.7261,6.1272,5.5801,
20.7093,9.4171,21.106,11.9657,10.7469,1.1017,5.2783,-1.7361,-0.54778,7.2969,-7.8311,11.6009,3.2293,4.7399,
32.1189,22.9516,5.7396,12.7657,24.2021,15.1356,-0.60603,-6.1867,-13.1671,-0.73238,-7.8672,-1.7473,3.541,5.9734,
32.2166,24.6112,-4.2921,3.9023,24.3389,12.7796,-2.5935,-6.8274,-9.3402,-8.7859,-2.3345,-4.6792,-9.8296,-4.5064,
17.1255,13.0132,3.0509,4.6811,16.8059,11.0009,-7.4986,-3.381,1.3415,-1.1732,1.8543,7.7477,-8.2274,5.8854,
1.998,-0.92614,9.9539,0.351,3.6509,1.2319,0.036343,-8.2393,-5.824,0.92153,1.7435,7.2833,-5.7094,18.6908,
9.3986,12.794,17.9596,4.8851,17.5319,15.258,6.6132,-6.2265,-12.0536,-3.6889,0.1205,0.26729,-12.9583,23.1365,
11.871,16.0746,2.782,3.5796,29.2031,28.0767,-7.8836,-7.8773,-11.3309,-8.5287,-6.9718,-12.9073,-8.1321,16.6872,
-2.9413,4.9883,14.6902,3.3643,13.3509,12.2921,-6.4696,-1.3325,1.4956,-0.932,5.5922,1.9671,6.4559,9.6128,
11.3352,18.789,11.279,3.6694,16.0221,18.0635,-2.5377,-1.7576,-6.1856,-0.36914,-3.3467,-1.6232,15.7549,-5.0639,
24.7551,20.263,0.48043,-0.59996,29.1608,31.0797,1.6628,-10.763,-7.8388,-0.34748,-10.2319,-15.6258,7.7236,-11.4102,
9.1698,10.9503,11.5853,1.4604,16.3479,15.1149,-1.4733,-3.0312,-4.3322,7.7713,-3.5439,-6.6608,18.3949,3.3744,
-3.5266,22.9459,-0.74949,-3.1814,19.9212,10.6658,-15.4849,2.7178,-18.1723,-3.3228,-8.8984,-3.7308,9.7002,3.749,
10.785,20.5562,-14.8045,-12.1009,24.7995,16.0984,-18.1691,-9.5914,-22.7191,-17.2234,-11.4013,-17.607,-4.9818,-10.576,
23.873,26.9143,-26.6394,-10.8689,37.4116,25.7608,-5.4387,-10.5348,-12.7525,-15.755,-17.2958,-26.2369,9.4171,-11.5303,
17.3804,19.2264,-18.968,-17.3018,33.7195,20.1659,-5.1129,-2.8167,-8.9511,-0.70973,-13.2217,-11.5041,16.4431,3.2615,
10.264,3.9728,-13.7802,-7.1533,17.5963,4.856,-6.83,-2.6477,-5.3772,4.465,-3.319,3.2861,13.4326,3.1373,
21.2879,8.2186,-22.5702,7.3759,18.9999,5.0001,-11.9873,-4.0073,1.5245,-7.4436,-10.7109,1.6406,26.7267,5.4784,
11.4067,2.1584,-10.5882,-0.082123,7.2321,-6.9397,-9.7497,-3.2613,14.0856,-0.4179,-1.4653,-7.0617,31.2657,-1.4293,
5.6612,-7.081,-24.0529,-14.1772,13.8832,-10.5725,-23.2647,-16.2243,-0.85953,1.6315,-4.4137,-20.738,15.2898,-15.4436,
19.4215,7.4438,-28.7533,-2.2633,25.1968,4.1619,-11.8176,-5.128,-2.9028,0.52122,1.9242,-15.5151,28.4724,-6.4896,
12.7601,-0.52373,-12.9281,6.4759,9.585,8.5374,2.5556,0.74628,-0.19883,-2.0399,-2.7459,-12.0543,33.3436,0.47838,
14.0194,5.5813,-20.6849,10.136,23.1099,22.1251,-0.63454,4.7502,-2.2108,9.2158,-5.618,-18.4156,17.243,3.4865,
2.044,9.2951,-25.5173,-1.6064,24.2532,24.9174,-5.6571,-1.6083,-2.0781,-0.44657,3.8285,-21.3603,3.9912,9.3499,
2.4278,13.2926,-18.4192,-1.0035,8.698,15.8313,-11.8968,-7.078,-1.447,-14.0843,-6.017,-14.5106,13.3676,7.2715,
7.8488,11.9881,-17.82,-2.4612,11.1424,13.3626,-18.7744,-5.1354,-4.9029,-5.6478,-19.756,-15.1589,23.1938,0.25563,
-1.7311,7.2206,-12.7016,-5.3498,12.4982,9.5245,-12.5868,7.3194,-0.56051,7.8497,-12.0617,-17.2857,17.7539,1.2527,
-4.1585,12.3544,-16.4947,-5.5353,-0.90432,19.5808,-6.2655,9.4096,0.99151,4.8483,-7.7957,-17.7669,13.1454,-1.3537,
2.1641,5.5401,-3.3583,-5.2027,-9.959,27.5158,6.2571,-4.3126,5.9932,7.5937,1.7819,-2.6009,17.4179,-8.3575,
14.6869,5.7132,-15.8095,-9.4457,4.7386,27.3833,-8.2183,-15.6936,-7.019,5.6197,2.1815,11.6552,14.8544,-0.26413,
-0.29435,2.8405,-17.3917,-13.4337,2.4999,11.6403,-21.8252,-8.1734,-7.1039,7.8134,7.6172,1.9875,22.5665,13.8517,
-14.3767,-11.4299,-2.2482,-8.5799,-11.7501,-3.1581,-6.4157,-1.6104,2.4317,6.3326,6.1482,-2.1804,23.2374,-1.0794,
-7.0761,-7.7778,4.0308,6.0349,-5.042,6.5061,4.0205,9.6209,3.2983,13.0377,-4.3425,12.0504,18.8068,-9.6185,
7.4485,6.7888,-10.3111,4.7319,3.3575,20.2158,-10.3207,0.94672,-3.9847,10.2311,-14.2037,0.26414,15.6541,5.0586,
-7.0984,1.3909,4.4076,4.4485,-10.944,4.9028,4.3985,12.0237,7.3882,11.6416,-9.3023,9.3582,28.8148,17.9842,
-16.7943,-7.8029,18.2431,12.279,-14.4066,-7.538,17.2927,18.3877,13.0184,5.8824,2.3891,19.9299,29.1803,2.8051,
-16.2931,-18.974,3.0486,-2.5577,0.55781,-13.6648,2.1552,3.1845,-1.8627,-8.5705,0.72785,4.6341,13.3295,-11.4632,
-1.2155,-3.7355,-11.2344,1.5734,14.6243,1.2551,-12.0741,-10.2357,-0.80997,5.0308,-1.8466,-8.873,10.4349,3.3246,
2.4702,-10.0214,3.5397,1.4785,-0.35312,9.8537,2.7503,-3.5494,9.3604,12.8269,-4.7721,-5.3043,16.8938,-2.007,
-11.778,-23.5201,17.4273,6.451,-14.4319,-4.8375,-5.5822,-1.3111,12.848,11.0448,-3.4734,7.1606,1.7802,-15.9866,
-9.623,-18.6357,3.7996,12.6434,-27.666,-18.2818,-16.8875,-4.7752,6.5105,12.913,-5.7958,3.1891,10.2072,-1.4329,
-6.5153,-18.0245,7.1144,3.2814,-18.9916,-22.7525,-1.7742,-12.0802,1.5642,7.5835,-0.89336,2.4909,23.2589,-1.8529,
-18.2705,-14.9177,18.8342,6.1208,-11.779,-28.4724,3.9694,-9.331,6.5315,5.1041,1.1846,11.4513,12.7535,-2.7541,
-26.2842,-10.9868,14.6664,10.8143,-16.1329,-21.7034,-6.3901,3.375,12.2122,2.773,3.1384,9.7513,-0.15792,7.5324,
-10.6071,3.7724,3.6655,18.2633,-1.0649,-6.3012,-3.9823,13.2943,5.4064,2.6071,2.9496,11.1915,4.9127,8.0929,
4.1293,17.646,-4.6523,19.1919,10.2032,8.1769,-4.7558,13.5091,-8.0756,1.4383,-4.3124,-0.61466,10.691,0.52232,
1.9982,10.6557,9.7268,8.93,-4.509,6.8154,-3.4585,7.6369,2.5303,4.3888,1.007,2.459,18.147,-1.5339,
-6.2186,0.90701,18.3236,9.4071,-18.3384,-3.7153,-4.263,1.1061,7.4401,9.1861,-4.1141,16.4115,30.2163,11.7172,
2.7579,7.4316,17.7306,14.4098,-10.8001,-8.0471,-3.5007,4.582,-0.5983,9.1414,-4.3737,19.0401,20.8123,2.4103,
-8.0358,5.4674,12.1116,15.0627,-11.6705,-8.0707,-11.8946,7.8503,-4.1047,5.0497,-0.56804,11.3186,5.4636,-11.8343,
-1.9865,16.779,-2.7151,2.5192,3.1297,6.5135,-24.8455,-5.2733,-8.4136,5.2531,-9.1379,-2.0131,2.028,-12.2072,
-9.4588,4.1321,4.4618,-1.1747,-11.1581,7.2052,-11.7145,-8.4997,2.7185,5.4439,-0.99811,-0.37444,16.0063,2.1893,
-11.4216,-3.7073,10.7737,12.9958,-24.5886,-1.8306,-12.5296,2.6386,9.135,3.5994,0.57969,0.15496,6.0075,-2.4958,
-4.6633,8.6623,2.0298,13.8049,-9.0133,9.4135,-10.7659,-0.55654,2.5143,6.4192,-2.4909,-5.9279,-1.4384,4.7395,
-18.4835,4.0938,8.9935,2.8553,5.1921,1.7632,3.9801,-9.6325,-2.6973,6.0341,-2.3415,-4.5603,7.7573,11.5396,
-9.3475,2.8353,1.3684,-0.35279,17.0267,6.719,-9.3468,-2.982,-4.5603,-0.40057,-6.2497,-16.4328,18.4261,6.7985,
-9.2927,-3.9139,5.8415,-3.8739,2.3406,9.8582,-9.2915,4.7889,2.2924,-1.8949,2.7282,-11.9036,29.9731,6.8971,
-22.8351,-14.3064,4.985,0.91323,-11.8999,3.7,-2.1544,3.9956,-0.37498,1.7615,2.0586,2.9106,23.62,-3.1321,
-26.0902,-12.436,-3.4115,2.8823,-25.2859,-0.57069,-10.1236,-4.3425,-3.3893,3.6797,-0.088832,4.3249,8.1028,-17.0442,
-19.4641,-19.7878,-1.1825,-9.4373,-16.3188,-14.6365,-11.5405,-18.182,-1.1616,-0.58931,9.0254,-10.0346,-3.5891,-24.1905,
-14.2471,-26.6975,-3.1359,-12.9193,-25.4605,-21.9267,-9.8357,-10.0756,-3.1162,-1.5664,6.4605,-5.4548,3.7123,-23.7505,
-11.3684,-23.0713,5.1492,-6.071,-32.0308,-27.6966,-11.2699,4.6289,2.1319,2.5768,-0.0011976,4.9943,5.5139,-10.1798,
3.4137,-7.587,5.8532,2.3907,-16.0089,-11.9348,-8.5698,10.4943,6.0527,13.5555,-3.0369,1.6578,17.3292,4.531,
-9.3732,-7.5682,-4.1148,-10.4054,-15.4839,2.8813,-7.5492,-4.2353,1.1344,8.187,-3.3612,-12.5416,10.7224,5.8476,
-22.9108,-20.2722,8.2792,-7.7562,-28.6548,-10.8146,-8.1082,-8.6064,4.1031,-2.4256,4.9379,-3.2553,-0.042298,-7.6614,
-7.4361,-4.9559,13.3491,6.8092,-12.8355,-0.5504,-4.0789,-0.49858,8.4116,2.2746,-0.92497,11.04,9.5756,0.38979,
-2.4348,-4.0815,13.5601,4.9527,-26.1654,-13.676,0.21357,-0.46867,4.8701,4.163,-2.8943,0.83135,3.9394,0.3664,
-10.8921,-9.4042,12.2405,4.1496,-21.6297,-4.2515,-10.4265,13.6595,3.06,2.3944,0.8221,-0.73644,-2.8755,3.8872,
3.8614,5.26,9.9886,10.4797,-6.2319,10.1036,-3.2219,17.972,11.4803,7.8188,-5.8063,1.839,6.9129,0.11167,
-3.8912,-9.1556,23.4893,2.7654,-19.958,-4.6026,11.0714,2.7937,17.876,5.3248,-4.446,3.7526,11.5588,-13.995,
-3.1513,-22.7063,10.5103,3.1059,-14.7118,-18.4265,4.911,-10.0975,3.1389,-1.5737,2.3998,3.021,8.3349,-18.7935,
1.5925,-11.7981,-1.761,-1.6346,0.2709,-3.2209,-9.4836,-11.0101,-6.6643,1.051,14.9085,-5.7632,1.2558,-3.5659,
-8.1189,-13.6205,-1.1489,-6.0917,1.3376,-10.1131,-11.0095,-9.843,-8.7957,1.4934,5.4101,-18.07,-1.3499,-2.2689,
-1.5587,-6.7307,-1.08,2.3712,2.2693,-10.5183,-5.2883,1.8818,-2.1944,10.5142,-4.0239,-10.9123,7.8405,7.9895,
-15.5652,-17.9666,-1.5216,-10.4237,-6.4708,-6.3449,-6.4894,-3.7992,-2.5692,10.3888,-2.2641,3.8425,-6.73,7.0037,
-9.6407,-7.2732,-0.92434,-5.2436,1.5099,2.6402,-2.5572,-0.027528,-3.933,15.3331,-4.6591,12.7918,-4.3719,1.0168,
-6.5319,2.779,9.7589,0.63816,4.9616,-10.1709,5.1881,5.5412,-1.1667,18.9683,-7.9218,6.4572,9.9905,7.5349,
-15.2498,-11.4877,13.2221,-2.4369,-9.4361,-15.6337,-0.18477,4.1959,1.9401,12.7686,-7.4465,11.1304,2.882,14.1683,
-0.23485,2.2896,-1.6712,0.74609,-5.9042,-0.59569,-5.2343,0.90733,3.8476,14.0273,-1.939,6.4139,-2.3516,15.342,
6.4293,2.6582,-13.2812,-13.3987,-4.031,-3.0193,-8.463,-11.7993,-4.9867,6.6061,1.7201,-8.071,-3.7293,4.8062,
0.98289,3.5111,-3.3745,-6.0858,-12.899,-9.9236,-5.9309,1.0554,-0.63827,7.2222,-0.4075,-6.1383,0.54362,10.5909,
-7.174,-7.8343,3.913,-0.66042,-26.2251,-8.3167,-4.5626,9.089,3.4483,5.7764,-1.3955,-6.7825,-5.5621,-0.16734,
-20.8436,-19.5104,-6.4436,-7.7058,-33.8325,-20.9758,-6.3132,-1.5782,1.217,5.4294,0.71262,-13.4615,-13.3263,-13.3149,
-21.1819,-4.6752,-7.5758,6.4216,-19.1499,-25.2844,-1.3797,0.035413,-1.3868,5.6105,-3.8848,-3.0375,1.5733,1.584,
-23.9592,-6.4186,6.9787,14.1337,-14.9641,-24.7793,6.8005,4.082,-5.3514,-4.8484,-15.7979,7.267,11.1662,15.5889,
-8.4217,8.0666,7.1375,23.9135,0.033718,-9.1925,6.8989,17.5017,-3.5129,9.1071,-10.2949,6.3246,3.9162,14.7951,
6.1836,21.6826,-7.3908,10.332,14.1317,5.459,-0.60101,16.4511,-12.412,12.6098,0.44464,-8.1549,-10.4187,13.9069,
-7.2049,9.3884,1.5855,4.1455,-0.81621,19.2315,6.0146,9.8974,-11.1603,-0.79888,4.9727,-12.2908,-11.3821,17.6272,
2.3368,20.9708,-6.6075,13.0056,13.3328,29.4229,3.6294,8.2911,-6.4425,-2.7763,-4.4356,-12.5658,-3.6141,17.582,
-5.3949,24.2682,-14.8145,2.6099,12.1674,17.0303,-8.2286,2.227,-6.5619,-2.1037,-8.7241,-23.4521,-17.4973,2.4271,
-7.0951,20.7878,-3.8038,4.4787,11.4378,1.9084,-5.7105,7.1545,-0.095077,3.0846,-2.1276,-22.0445,-30.5474,-7.4044,
0.92161,15.9973,-0.033302,-1.3581,12.27,6.2776,0.19922,6.2188,-2.6197,8.4657,0.53039,-11.1069,-21.7706,-0.38206,
-5.7127,7.4469,-0.53727,-6.8433,-2.5662,3.3706,8.7907,-3.7706,-2.9685,11.5005,1.0045,2.2126,-22.9947,3.1836,
-1.8277,12.5663,-7.0841,1.1583,4.6018,-0.37436,8.7687,-8.0996,0.75189,11.3159,-6.6467,-1.4634,-33.2557,10.5846,
-15.818,-2.2877,3.9692,-9.5385,-9.7744,-14.4519,5.7128,-15.2041,3.2376,8.1071,-4.73,-15.4756,-31.7659,-1.6907,
-28.969,-16.2505,8.2858,-12.5089,-23.2879,-27.6848,1.8272,-9.7372,-0.49942,4.078,-0.90346,-2.4709,-15.7599,-15.2534,
-29.9017,-13.8971,-5.876,-6.1913,-7.7906,-19.5852,4.2489,-2.5739,-1.9878,-1.7329,0.66913,8.3051,-10.6946,-6.7472,
-29.6265,-27.1633,-6.0298,-11.3869,-9.4181,-18.9166,-0.56121,-16.084,-0.35018,-9.2209,3.1593,-6.2932,-24.1529,-6.8488,
-18.2336,-14.4708,4.9602,-11.2106,-2.2735,-14.2393,-0.022534,-13.6011,0.1768,-3.101,-1.5849,-13.0716,-13.6658,-4.9199,
-27.2609,-17.6512,8.7113,-4.4644,-12.2589,-23.5063,11.114,-3.6747,4.2149,-1.902,-3.5147,1.8127,1.2541,-5.6367,
-26.6376,-18.617,-4.97,9.9034,-16.5845,-12.9865,4.3731,-1.4298,3.9615,-1.7884,-3.3033,13.9206,-12.9211,-4.2861,
-16.436,-3.4,-6.1897,12.9225,-1.4894,1.8927,-6.5166,-3.8748,1.194,5.9104,1.4496,-1.0146,-26.2459,4.5745,
-29.5498,-17.296,-5.8183,-1.9528,3.2252,-12.3209,-5.1136,-17.7423,-6.9751,-3.5546,5.4113,-15.0538,-31.3207,-5.8222,
-13.6768,-8.1603,-8,-7.4733,17.1317,0.56455,5.8214,-9.1573,-8.0755,0.20146,5.5926,-16.3164,-15.3415,8.6271,
1.2438,-4.1284,2.0958,-6.5185,16.1743,14.6307,15.088,-11.1382,-4.0477,1.7078,-1.322,-7.7455,-5.2406,17.2903,
-8.8816,-17.9807,6.0188,-3.0906,1.1038,-0.34716,13.1708,-15.5306,5.3045,1.6063,-2.2546,-2.2201,-12.0112,2.1529,
5.7513,-10.8988,-6.488,0.13117,-2.0687,-14.4263,5.2955,-13.5863,10.0474,8.5949,-3.1318,1.9623,-4.205,-4.1194,
19.5062,1.9013,-0.025162,-3.9254,-1.9446,0.53925,3.9649,-12.7712,9.4446,9.0912,-2.9439,-3.2161,-18.0527,5.2372,
27.0808,12.4154,3.5191,-2.171,0.70288,10.6292,1.1971,-11.4989,6.3481,0.95421,-3.2732,-17.1231,-31.0695,1.3802,
11.7914,-0.9821,-3.2721,-12.6695,-8.9561,-4.1086,2.6427,-13.3393,1.412,-4.6702,-0.54647,-19.204,-20.237,1.8029,
0.9616,-4.9724,-3.0762,-7.8611,-14.4918,-17.9621,10.5821,-14.5633,0.31485,5.7319,1.5107,-3.9518,-4.9228,5.7439,
13.0506,9.426,0.14514,6.7106,0.4777,-2.7843,8.9352,-13.6895,3.3327,13.4854,1.42,4.4543,-7.5932,11.4728,
-1.8325,-2.7088,2.6672,-5.2612,-13.651,-14.8345,1.8196,-12.3622,-0.40997,-1.4237,0.82886,-7.4532,-21.2376,-0.85671,
-15.8225,-16.6463,0.48236,-6.9704,-26.9319,-28.0444,1.7104,-1.4991,0.62657,-2.9272,-3.2696,-2.9582,-15.4797,-6.8779,
-27.6673,-6.6086,1.4658,-6.5517,-23.8681,-18.3348,2.6192,-5.4574,2.6133,7.3702,-5.0978,-3.7922,-8.4778,2.6446,
-17.4034,-1.6574,1.8839,-5.6526,-8.336,-14.7039,4.9929,-14.7453,3.9744,7.434,4.8234,-4.0706,-22.0691,15.1381,
-9.7801,-9.1494,-12.3292,-1.7707,0.3321,-19.3893,4.1874,-16.3914,1.2052,5.47,7.0649,-9.394,-12.7181,6.6383,
-23.2933,-22.7005,-0.52524,-6.2192,-13.7878,-32.3259,6.4669,-15.9139,0.62785,2.612,7.1469,-14.397,2.145,-7.86,
-22.4722,-7.2384,13.6063,-2.8092,-6.452,-16.2864,-1.0066,-3.8248,1.6021,0.43041,-4.4161,-3.4109,-3.4798,1.145,
-12.0145,6.8604,3.7501,-8.7147,2.033,-1.2092,-2.9706,-2.5839,-4.5671,-4.6566,-8.2004,-11.3042,-17.371,12.21,
-8.7624,-1.1422,16.1782,-4.6481,1.4051,-15.2366,11.3077,-7.9955,-1.7623,-4.8831,0.89605,-24.7259,-14.8809,2.874,
-0.64562,12.5909,17.7373,5.2461,15.4208,-0.65738,9.6873,0.075712,3.9101,7.0501,-6.7492,-21.2885,-8.4209,-8.9386,
-14.7069,0.70169,19.7099,-5.19,5.9626,4.4432,10.119,-3.9776,11.773,13.7126,-2.2955,-5.9112,-15.0012,-13.463,
-8.3284,0.15314,26.1183,-3.3612,2.0616,-9.4884,15.078,-9.306,11.573,6.3107,3.4093,8.5435,-10.5588,-1.0155,
6.2713,14.2439,13.9239,-0.62867,16.0379,-1.3272,8.6067,-6.2168,-1.7735,-0.64743,0.67396,-0.93795,-5.3701,7.6489,
9.5088,13.9658,10.0517,-0.59095,14.6402,9.8862,1.0048,-10.9055,-2.68,2.4282,5.6951,-6.9543,-8.0842,-4.9562,
11.9746,27.2279,8.4361,11.5912,24.8956,22.4511,1.9569,-11.2636,11.5808,12.4043,5.353,1.5599,-0.51414,8.4997,
-2.8439,16.0494,-2.6983,-2.7694,12.7745,7.0041,3.3574,-14.1295,6.4018,5.0805,-1.5478,-12.6337,-14.5833,20.6419,
-3.7557,9.5193,-5.0658,-8.1693,17.5752,3.477,3.6624,-9.7395,-3.5981,1.2334,3.1003,-17.0068,-16.8151,15.8611,
10.5696,20.0828,-3.7503,-0.59416,30.6207,17.3684,-4.6543,-8.1427,0.66695,-0.86495,3.9267,-11.9372,-1.7062,13.897,
22.1521,4.7779,2.5473,-2.5834,14.6834,6.275,-4.376,-8.667,14.7269,4.2476,3.6911,-5.1484,7.5761,13.0632,
6.723,-9.6088,-4.6901,-4.4522,4.6925,-8.2015,-2.0886,-12.1948,13.9143,6.0176,0.43284,-9.9001,-5.0242,15.3162,
-4.8851,-19.2961,6.7246,-2.1612,5.4229,-21.8094,3.0974,-14.4999,-0.079606,-2.4419,3.4437,-11.331,-4.7232,11.3604,
9.508,-4.0383,13.9131,4.5475,3.5801,-6.4008,-2.6546,-4.014,-1.5932,3.2727,2.7306,3.4489,-1.909,3.0878,
5.4653,5.8903,-0.080804,6.2995,5.3892,8.0832,-8.5689,0.27553,0.52625,11.1728,-1.482,3.8185,-8.8805,1.8896,
-8.9626,-8.5631,9.5408,5.4151,0.51116,-6.5018,0.54913,-9.3568,3.026,2.9115,8.2228,8.1445,-10.8775,3.2956,
5.6751,0.48406,2.8953,4.0778,14.5805,7.9883,-6.5698,-17.9053,-4.2416,-6.3731,1.6563,4.6195,-12.2497,11.1948,
19.4346,14.555,-7.4007,-4.2644,19.8493,21.609,-6.1756,-14.8071,-6.011,-11.0514,-2.4918,-9.7576,-6.4535,15.5838,
32.3685,25.8984,-3.9204,-0.97123,25.7433,27.4685,-2.7678,-2.784,-1.6011,-9.3759,3.7308,-12.2795,8.0337,3.515,
44.5264,31.9355,-17.3497,-6.4801,38.2987,39.9204,-14.2424,-15.2695,-13.1457,-9.3198,-3.0721,-22.1705,13.1893,-4.2878,
55.9548,21.9219,-8.2113,-15.2016,38.6022,49.2359,-1.2417,-17.3902,-9.3202,-1.6751,-1.8758,-20.8403,-1.7021,5.0798,
52.8806,21.619,-10.7549,-10.2403,22.186,48.3061,-0.15479,-2.2467,-8.7615,3.4866,-11.8851,-10.48,-5.7192,7.8113,
41.6104,19.31,-9.0977,0.49639,6.7549,39.3342,-5.2062,-3.0534,-7.2229,1.2525,-4.0865,-4.7905,8.724,8.3546,
42.1491,15.1141,-4.5026,-1.5587,19.3666,30.901,-1.8585,-12.992,-0.71737,-6.9205,-1.8169,-7.5403,4.2218,8.8657,
49.7429,6.1103,-12.3304,-14.6228,29.3384,29.0475,-5.7952,-3.1026,-1.6858,-10.5535,-15.8079,-21.1879,-3.1165,-3.8129,
44.734,-7.4149,-2.4807,-3.6246,13.4781,21.2315,-1.3983,10.2422,3.4755,2.2254,-3.7962,-16.9499,11.1705,-2.5717,
51.1598,7.13,-16.4318,2.6669,25.7574,34.0576,-12.4481,-4.4724,-8.8787,-0.9435,-5.5928,-17.9573,22.717,6.6925,
61.7538,20.8022,-29.5459,-11.1577,38.312,46.1142,-20.3051,-18.304,-19.9866,-9.4918,-19.3572,-30.9798,7.2539,7.8093,
65.1346,21.2135,-35.5052,-16.5613,50.1133,55.1281,-28.1967,-13.8046,-23.8476,-12.9705,-28.8941,-43.2211,-0.84281,10.3771,
66.2871,34.0407,-46.534,-19.6163,61.2065,65.9204,-34.6023,-12.9763,-27.4774,-17.2529,-33.234,-54.4339,6.2933,15.828,
57.7552,42.6975,-29.6419,-22.994,66.8556,59.5064,-18.4262,-13.7156,-13.1766,-11.6631,-28.7092,-50.6619,10.4704,5.262,
61.3754,38.1108,-29.3113,-9.4692,67.9049,57.9599,-6.6223,-13.9056,-16.4348,-11.9752,-27.9986,-46.6102,17.9396,-9.1537,
71.7929,49.9242,-26.0337,-0.29666,77.9306,68.5823,-10.7797,-5.4788,-12.9179,-6.702,-12.6546,-40.2699,30.9632,-0.071116,
79.1956,61.0287,-16.3743,-13.4379,77.8805,78.5673,-19.2423,-8.1869,-11.1309,-13.3854,-4.8098,-36.8418,27.6576,-1.0788,
88.5438,71.467,-19.947,-7.0636,87.3076,87.9533,-19.6061,-4.1534,-14.0062,-8.0271,-8.0635,-34.1248,20.431,2.5282,
89.3753,81.279,-23.3049,-10.1825,67.9697,79.3449,-13.8751,-9.4708,-16.7086,-6.0276,-18.2079,-39.6698,10.6017,1.8705,
95.653,90.5022,-19.3758,-0.96815,63.3845,70.0295,-15.5734,-6.3727,-8.1146,-5.1599,-23.695,-36.7836,7.4348,-4.8212,
104.0138,99.1721,-19.2256,3.1391,73.6815,79.9278,-22.7359,2.1076,-3.5785,-3.8379,-24.2967,-32.5513,8.0011,-4.5315,
93.2888,107.3218,-14.5293,-4.6416,55.1606,71.6599,-20.8658,4.511,-7.9185,-7.1504,-18.2852,-26.0435,-5.1311,3.3319,
73.5915,101.3767,-12.1397,-2.8452,37.7509,53.2603,-19.1079,5.7592,-13.011,-12.288,-11.6204,-25.9998,-3.3053,1.6131,
55.076,83.1479,-8.3745,-6.7223,21.3859,35.9647,-13.9127,2.3768,-6.1568,-11.5507,-5.8626,-14.3175,10.993,-12.5837,
51.1239,83.2192,-17.9938,-0.24683,21.9865,43.2816,-17.1271,0.20988,-4.7759,0.27607,-19.6108,-7.3854,20.5253,-10.8872,
36.9218,64.1261,-31.0142,0.7804,17.6301,29.55,-20.1478,0.1968,-13.5992,-1.7649,-27.6146,-21.0422,5.1938,1.9126,
20.6065,46.1785,-15.0534,-7.3639,2.4723,13.677,-6.7927,6.2586,-3.6729,-5.7077,-11.8577,-18.8383,1.7758,-6.2996,
20.8189,29.3078,-7.5711,-11.4767,-8.3734,-1.2437,-17.0125,4.3651,-2.9466,-5.8712,-10.5692,-15.1772,15.7692,-5.4156,
8.4355,13.4493,-8.1288,-10.7881,-9.8959,2.2327,-22.0653,-6.0191,-1.7578,-4.507,-8.9231,-21.3521,5.2778,5.0316,
-6.1706,-1.4576,2.4808,-1.031,-19.4239,-10.047,-15.6802,-11.731,5.4336,-5.249,0.72211,-20.0714,-5.1607,-3.3682,
-11.4385,-15.4702,-10.3202,-2.488,-12.6918,-3.8775,-16.2583,-7.4844,8.6494,-1.3913,-1.852,-17.3483,3.7524,-3.6721,
-22.3914,-28.642,4.399,-8.9173,-26.0303,-16.297,-3.6416,0.55615,18.7596,12.3572,7.8754,-2.2074,17.6272,4.1397,
-18.5181,-25.3918,7.2428,-1.8027,-30.6121,-23.9226,-5.9539,3.0536,10.0426,8.073,-0.18859,11.1542,18.6654,4.3973,
-7.7912,-20.327,5.2889,6.9084,-24.2212,-16.9201,-2.0544,7.4246,1.8481,-4.052,8.4257,5.9298,7.9287,4.6389,
-16.434,-27.2049,19.0716,6.4939,-36.8679,-25.0153,8.1911,7.9911,8.8227,0.23982,17.0305,14.6834,5.4291,1.3248,
-22.533,-28.6089,30.144,4.0799,-43.8358,-36.672,6.6872,8.524,15.3784,10.3472,7.9107,12.7909,17.2491,0.23288,
-7.081,-24.3625,23.7807,10.4146,-27.1056,-26.8812,3.7552,7.5066,12.9368,10.2324,15.0275,10.5046,23.8056,-1.3,
7.4438,-8.8007,8.2538,-3.3684,-11.3793,-11.1683,-10.5701,-7.0438,-1.9394,-4.4816,1.9797,2.7898,8.2773,-6.2826,
15.2357,-7.6957,-6.3414,-9.7458,3.4035,-2.8357,-7.4761,-0.11264,-5.4359,-2.7648,5.4037,-0.92133,5.1798,4.7226,
0.22156,-21.334,8.1391,-0.55714,-10.9007,-16.7656,-1.4604,9.51,8.9903,0.94431,12.6714,-0.3596,18.969,-4.1637,
-5.4289,-29.7398,14.6657,4.537,-17.6966,-29.8596,-4.4096,0.84191,4.9787,9.997,6.8495,10.7962,20.4322,-10.9994,
6.0311,-26.9435,-0.31424,-0.79593,-12.5861,-14.5446,-2.1202,-4.2693,-3.4175,9.3972,0.36595,11.1604,5.1062,-0.2181,
3.1384,-25.8328,-14.3954,1.7817,-11.325,-5.0685,-10.5964,4.5903,-8.7791,-0.78197,-7.2475,-3.6093,-2.8626,12.4471,
-11.1499,-35.4166,0.56834,5.724,-24.7455,-18.8644,-2.8756,8.3631,3.8933,0.2764,5.333,1.0915,11.4091,8.664,
-20.6733,-34.304,14.6342,19.4805,-37.3607,-31.8325,11.397,9.8867,17.7597,10.3826,19.1131,15.126,24.8246,1.0591,
-7.2872,-20.1001,-0.34382,21.4185,-21.0191,-20.9537,-3.3869,1.1955,2.5942,-1.3751,7.915,6.192,10.3186,-3.0536,
-9.3793,-21.4235,-4.4429,6.4689,-10.2126,-10.0807,2.3835,2.6422,-1.1038,-5.8468,13.0072,-8.2795,1.0955,5.7335,
-10.8414,-26.2116,5.9459,0.008132,-22.758,-18.5862,7.3011,6.5324,4.0231,-7.5208,6.1542,-9.3722,3.0537,6.4014,
-6.6486,-24.1325,3.0589,-4.5475,-17.8502,-14.9407,2.3089,6.6459,-0.77248,-7.576,-3.8309,-6.2785,16.9705,9.5606,
-8.2736,-15.6,0.85048,-0.22596,-10.7057,-7.9707,6.219,7.2601,-5.7878,-4.0847,10.4989,-3.8779,19.5655,3.9253,
2.8501,-0.56399,-5.7801,5.3542,4.0367,0.099042,6.3519,7.3304,-6.9584,-3.3336,6.3963,-4.1512,9.7882,-8.9623,
-8.4542,-13.1113,4.689,-5.0883,-10.3055,-14.0069,12.0434,8.9145,-3.5041,-1.1088,-4.1088,7.2321,16.2864,-8.4246,
-22.0469,-25.4832,5.4201,0.2781,-23.7872,-23.3593,10.3093,16.4776,-2.2824,6.0428,3.2228,17.9319,22.3942,6.1809,
-20.7946,-20.9174,-3.0026,-0.75052,-23.9494,-19.9329,-0.43155,3.3427,0.89132,1.6315,2.0175,5.7217,10.9293,11.9541,
-10.944,-21.1808,9.8292,-1.2119,-14.9204,-24.304,8.1982,0.61184,12.4785,2.0401,-0.63393,11.9575,16.8526,3.6449,
-4.2143,-18.8975,-4.8605,-4.1755,0.074784,-16.7727,7.7059,2.5995,-0.41684,-7.1922,-8.6938,5.167,15.8419,-2.6469,
-18.0614,-20.8004,0.42222,-5.9498,-14.0297,-25.8877,11.2922,4.4674,9.7305,-1.7,5.9278,8.9066,14.8914,-5.5239,
-31.0777,-33.6524,14.4969,1.9981,-27.2879,-38.4344,9.0963,7.7416,14.7137,2.9572,15.259,22.4722,14.5034,-5.6989,
-43.3131,-45.7333,21.7951,11.4946,-39.7506,-45.3092,10.0694,8.796,0.16588,-2.7879,4.7271,22.2064,-0.03139,2.2345,
-54.8143,-57.0893,26.5609,9.793,-51.4656,-56.6907,16.5507,3.2076,5.2176,-4.6445,15.5777,28.9714,-14.1295,-7.0094,
-65.6254,-67.7639,25.4725,19.8329,-62.4777,-67.3892,6.9536,12.6307,14.5201,-1.8357,13.1249,27.7394,-7.7849,-19.2412,
-57.9918,-56.8952,27.4876,21.1735,-72.829,-67.5357,8.0545,19.4641,10.1059,-3.2437,12.8436,15.4465,3.3102,-19.6049,
-41.354,-49.433,28.8744,11.8059,-58.6908,-49.3835,11.6207,8.1742,5.4511,-2.0369,11.0608,18.5687,1.087,-8.3066,
-52.0311,-55.5766,27.1422,11.0968,-69.2694,-54.4474,12.9476,5.6601,13.2217,-0.90253,9.385,25.5522,-2.0148,3.3258,
-63.0092,-66.342,24.5008,4.3584,-79.2132,-65.2806,14.1946,6.332,14.4523,-4.8971,12.8706,24.0191,-15.9939,-10.9737,
-62.3357,-62.4318,8.9307,5.1091,-88.5604,-75.4638,1.197,1.9041,1.4392,2.4825,12.0981,20.5534,-15.105,-14.4348,
-47.9676,-50.0822,16.9287,7.3326,-83.9646,-61.4611,-1.4054,-0.74124,4.8958,5.8765,13.9028,19.8264,-0.098723,-9.0138,
-59.1895,-61.1773,30.013,4.3623,-93.0267,-71.8735,8.2948,8.9191,17.2537,-2.068,7.5015,25.2158,-14.1928,-21.1256,
-50.6483,-56.5655,19.1731,3.5944,-98.6501,-77.7536,7.2909,13.9508,10.6517,3.6229,3.5089,29.2702,-9.7985,-22.3881,
-39.0055,-50.6412,18.5287,-0.16403,-86.1516,-59.4244,0.27435,3.4984,-1.6276,4.9239,9.8775,28.02,-23.3106,-16.4902,
-44.7626,-57.7246,20.4533,2.8831,-87.0556,-58.8952,1.2698,5.3124,0.49437,4.6285,8.2729,32.4119,-36.0119,-9.4277,
-56.1768,-68.3611,20.238,-9.437,-95.9322,-69.4615,2.2061,6.0061,3.501,-1.7223,6.7641,30.4672,-47.9512,-14.9351,
-66.9062,-78.3594,23.5792,-8.3641,-104.2763,-79.3938,-1.4693,-1.9455,3.7972,-3.1371,9.9012,27.121,-59.1741,-23.6546,
-67.5878,-75.3171,18.1157,5.2958,-83.9197,-88.7302,-0.36872,-1.8288,7.6181,8.1849,8.2947,30.5544,-69.7237,-23.2477,
-53.9172,-61.1827,16.5223,1.4358,-64.7845,-85.6425,7.2449,-1.2131,6.655,2.1267,2.2299,38.337,-79.6403,-22.3588,
-36.5822,-43.4117,16.5431,11.4712,-46.7975,-66.404,12.883,6.9569,5.2435,-1.0375,2.0964,28.9515,-88.9619,-6.9173,
-20.2873,-37.1933,8.9713,0.15494,-29.8896,-48.3198,2.4945,0.97259,5.4351,-1.481,3.4887,13.1144,-97.7241,4.1965,
-33.17,-49.0617,8.4332,-6.9396,-42.1962,-52.8707,-2.7161,-6.171,12.1948,-5.4411,8.3403,-1.7725,-105.9607,-10.1553,
-17.0798,-32.018,1.8539,6.6351,-25.5645,-35.5985,4.5321,2.2969,14.4991,-4.1024,4.8034,5.7841,-113.7031,-6.5802,
-6.8041,-15.9969,-0.78766,-1.354,-9.9306,-19.3626,9.8273,1.6527,11.0989,-4.3622,5.0211,-7.2156,-120.9809,7.9146,
-0.82826,-21.0396,-7.3199,-3.8036,4.7652,-12.9984,3.671,0.035582,3.8534,-5.6189,6.2383,-5.2638,-127.822,-2.6115,
10.8612,-6.1127,-8.3986,-8.13,18.5793,1.8815,1.9319,3.5762,2.1043,-5.7877,6.3699,-2.4181,-134.2527,-1.9489,
-3.8905,5.3878,0.2032,-13.7153,27.9393,15.8686,3.8403,-0.68758,6.0263,0.63261,-0.08535,-8.3461,-140.2975,3.2292,
10.4429,19.1645,-2.8458,1.2076,40.3629,29.0165,5.6348,5.4272,14.7741,14.6947,-3.117,-4.8086,-145.9797,3.035,
21.4565,18.5917,-10.267,-4.361,35.4813,24.4503,-0.27043,-2.4903,5.2847,8.3169,2.6371,-3.0017,-151.3209,-2.7138,
20.1691,24.5612,-7.6261,-7.1361,45.4986,29.0564,-6.3278,1.7078,2.9428,3.7691,8.5525,-0.79672,-156.3417,11.5491,
14.4038,34.7277,-9.6994,-9.2387,28.6687,39.9651,-3.4173,14.2575,7.3209,7.0848,-3.6009,-6.3165,-161.0612,19.5301,
2.9116,24.0404,2.5221,-3.1175,12.8486,27.9516,5.3914,16.945,10.4246,5.142,-2.8791,6.7149,-165.4975,4.2583,
16.8369,36.698,-9.7747,9.2164,26.1777,40.3745,-3.0298,9.8555,-3.3592,-3.2642,5.3913,4.2878,-151.8487,-4.6717,
29.9267,48.5961,-13.7429,4.1087,38.707,52.0521,-3.354,6.7343,-12.773,-6.6111,-0.49878,-10.0694,-135.1458,9.7086,
22.1993,45.8216,-8.3641,-2.7178,22.2846,58.1796,-6.696,5.8238,-10.4892,-4.696,-14.5689,-12.5726,-128.5555,20.3309,
16.8186,47.121,-7.8623,1.494,24.9252,50.6401,-5.2823,8.5102,3.2992,-1.3784,-10.2235,2.2818,-106.7422,14.0504,
14.7975,31.1352,-2.3294,-3.6558,35.5764,33.5017,-0.91611,5.9752,10.1863,-7.3679,4.4899,5.2522,-86.2376,5.1094,
26.0559,34.3277,-0.16479,0.61223,41.5392,45.5916,-5.9218,8.6535,7.5512,3.1955,6.3159,-5.1852,-66.9634,14.9251,
10.8275,18.1681,4.3993,1.081,24.9469,33.2403,0.00061221,-0.46963,7.6037,6.5461,-3.6794,3.7298,-60.2036,12.5112,
16.7574,2.978,1.6055,-0.50179,20.3427,20.6181,8.604,-1.9594,16.7638,-1.4372,-1.9402,0.97518,-45.9632,8.2178,
29.8519,16.8993,-4.0579,-7.0507,33.2222,33.481,-2.54,6.7621,16.2634,2.1913,6.7801,-13.1833,-29.1054,12.2799,
13.9608,13.7909,-1.2841,-10.17,20.1661,32.5556,-13.0154,2.8141,7.6966,3.5782,11.9404,-12.4624,-22.2269,5.976,
15.654,27.0635,-8.7986,-0.95635,30.5963,44.7022,-6.6678,2.1393,4.705,8.9311,7.6812,-3.1112,-21.3997,9.1602,
5.6049,37.1499,-7.2587,-14.058,27.7477,38.5479,-4.2429,-4.0626,0.37299,6.3704,-0.87708,-16.0827,-6.9576,1.5251,
-8.8314,22.2688,7.2768,-5.6236,11.9828,22.135,2.5907,2.7602,8.9545,11.5553,1.7059,-1.0177,5.1,-0.084809,
2.7622,24.4754,6.9112,8.8139,13.2177,14.6628,0.91687,6.1368,12.9724,20.4778,3.1219,13.1434,12.3855,8.5242,
-3.4767,23.0069,0.42297,0.76504,18.4982,18.8442,-10.2724,-6.3775,7.1324,15.2004,10.0201,-0.66325,25.7424,-5.1454,
2.805,23.6513,-4.6631,-3.3296,23.4609,16.7011,-6.6192,-9.0317,2.6558,15.3003,13.4676,0.38945,38.2978,-7.8734,
3.1427,8.5672,-10.9619,-15.7819,7.9532,1.5991,-2.6793,-8.9957,5.0272,17.9251,6.08,0.87205,50.0999,3.2272,
-2.1065,8.0532,-8.2803,-9.7744,-1.1979,-0.085331,-11.628,-8.456,1.6888,16.8496,7.7401,-3.229,61.194,8.0943,
1.5621,19.2102,-9.3014,4.4762,-1.632,12.5719,-19.5347,-10.4785,-12.0766,1.7386,2.721,-7.5899,71.6223,0.017121,
-12.6316,3.9576,1.884,-5.4087,-15.6341,-2.2824,-4.2626,-6.308,-4.7734,-11.5948,0.026901,-2.5808,81.425,-12.637,
-22.572,-7.9906,-2.2777,-5.0832,-14.2606,-13.8562,-8.4905,1.156,-2.4622,1.247,-11.1089,-7.4866,90.6395,-4.7923,
-7.5536,5.141,-16.2411,-5.2847,0.69504,1.0752,-22.0811,-9.5411,-16.4144,-7.4317,-16.0095,-21.1374,99.3011,9.5952,
-4.5691,6.3519,-5.2144,-6.485,-3.3244,15.1107,-11.7169,-11.499,-6.3902,-10.5281,-0.94895,-17.9144,107.443,15.1631,
-18.395,-5.1644,2.183,-13.1824,-17.2249,10.2959,-16.076,-2.7116,5.1264,-2.8118,-5.3762,-9.755,115.0965,4.131,
-31.3913,-18.9546,-5.5389,-19.9825,-20.8171,-3.9859,-29.2114,-9.128,-9.2811,-11.2461,-15.6814,-14.7368,122.2907,10.4622,
-15.4078,-3.7173,-15.3294,-4.6835,-5.4681,10.3532,-27.0233,-10.6047,-11.3251,-8.5469,-0.6405,-4.7427,129.0532,23.9345,
-0.38331,10.6057,-21.4942,-15.4662,8.96,21.9492,-16.2915,-11.9932,-4.5721,-8.0341,6.554,-17.6163,135.41,8.3984,
-14.4603,-4.1306,-6.1045,-20.6113,-2.5708,6.5323,-14.3021,-6.2125,-4.2982,-2.4909,4.1364,-16.5598,141.3854,-6.2055,
-12.1453,-3.3763,-2.6309,-5.2746,11.6835,19.2279,-17.4922,-5.8397,-16.1865,4.744,-10.2118,-1.4662,147.0023,7.2549,
2.6834,9.9844,5.6244,-3.8752,25.0825,16.0499,-5.3085,-7.5132,-14.2034,10.532,0.45217,12.7218,152.2822,8.8435,
6.1357,16.9773,-5.3409,-3.1362,9.4775,19.6416,-12.5819,2.5534,-15.8815,2.3091,5.9922,6.5334,157.2452,-1.302,
4.7546,8.8726,-17.1671,-2.9485,8.4734,32.5631,-15.8762,7.4604,-10.8794,-0.86673,-0.44046,8.1648,161.9105,3.8363,
-6.6644,-5.7597,-2.037,-6.8194,8.9774,16.5093,-2.7765,-6.1454,0.90759,2.2221,-1.426,21.7749,166.2959,6.6429,
0.82098,-4.4718,-3.8691,-8.4356,22.5388,1.4187,-10.7078,-7.801,-10.2816,-7.0211,-11.4632,16.4902,164.2392,8.2687,
-3.277,6.9298,-1.6121,0.16803,7.0865,12.3968,-19.1748,3.8013,-9.6647,-9.6357,-1.665,14.4889,145.2745,4.7358,
-16.239,-1.5834,-7.589,-0.854,-7.4387,18.7385,-30.1709,-2.5003,-9.0848,-7.0337,2.4836,27.7195,129.4735,-8.7065,
-7.1672,-6.5496,-13.2067,-6.8758,6.0952,7.4924,-28.3607,-5.3866,-11.576,0.47338,5.3709,24.103,121.7046,-0.087104,
-17.8709,-20.2566,1.6857,-11.5244,-8.3705,-7.0571,-13.5004,-3.0391,-7.8451,-6.64,3.0243,11.5231,122.5002,1.9434,
-13.7623,-21.1356,6.7162,0.30174,-21.9683,-12.7773,-8.6417,-4.8811,-4.3381,-6.2412,-11.2572,12.8551,125.272,5.8751,
-5.3451,-15.3123,1.759,0.79009,-23.3216,-4.4192,-4.5804,-3.0698,-3.5714,-1.3115,-2.0484,11.5783,112.1886,4.0042,
-3.0001,-12.3692,-3.4072,-1.2822,-11.8005,4.9558,-10.3787,6.2237,-7.4058,-5.2816,0.098384,15.9443,93.3111,2.752,
2.7471,1.0256,-12.8186,-0.69878,3.0075,18.7585,-22.4081,-3.7655,-6.455,-9.5198,-14.0075,8.4085,99.3522,16.6869,
6.125,4.5063,-2.4346,-2.1752,16.9271,25.8004,-9.4239,-10.1186,8.0323,-5.4064,0.93293,4.3618,107.491,20.8173,
9.8057,3.223,-0.26367,-4.0696,9.979,10.1524,-3.7978,2.6346,6.102,-10.1427,7.9625,8.1478,98.5823,5.4683,
4.1567,2.0177,13.8521,3.2596,1.2833,10.4852,1.4912,16.5766,7.7602,-6.4978,1.4116,21.7589,79.5087,2.0329,
3.9068,-5.1889,16.1279,1.0397,4.2426,7.8312,-12.6983,6.5426,5.2703,-8.1323,-3.7342,19.5125,70.689,3.9353,
17.7724,2.2085,4.0264,-2.059,5.0004,17.4836,-16.0551,3.1138,6.9794,-1.5713,-3.5097,5.1831,74.5456,-2.3739,
7.1613,-12.024,15.4246,-0.41706,-9.3996,2.3346,-0.99183,1.4086,9.09,-0.97054,1.2551,12.4631,61.469,-9.8234,
0.15204,-14.4104,18.0418,10.2353,-22.9356,-7.9983,1.1621,2.842,8.0386,-3.4431,-0.33859,25.8154,57.2748,0.38228,
1.6618,-5.9538,12.4046,7.0913,-24.2314,-2.9632,-6.4986,0.14159,7.0503,-4.7544,-4.8725,24.3375,51.3085,1.8772,
-5.5239,-11.6702,15.7091,8.6897,-30.8754,-6.8346,-3.0729,0.13309,7.6392,-3.4572,0.48053,21.8643,45.1922,0.75268,
-12.783,-16.5366,19.3212,9.6872,-37.6258,-10.9788,-0.35723,-0.38086,6.6759,-2.7438,3.9945,19.0355,38.9389,-0.81088,
-22.138,-23.6421,19.1746,8.0938,-46.5023,-17.4053,-0.33603,-2.3821,4.2502,-4.6033,5.7789,13.8444,30.5297,-4.8107,
-30.4256,-29.8145,20.555,6.0902,-53.328,-21.9281,0.19058,-4.77,1.4654,-5.8455,6.9506,9.471,23.1304,-7.0524,
-36.1913,-34.605,22.8637,7.243,-58.7319,-25.1673,2.7092,-4.99,1.8837,-4.9886,11.0885,7.3841,18.2,-8.1479,
-42.1178,-37.5898,25.5411,8.8328,-64.3179,-27.706,4.571,-4.6906,0.75774,-4.6893,14.4719,4.9167,14.0717,-8.6709,
-53.6907,-47.4808,38.1086,18.4239,-74.5588,-40.1437,6.3209,1.6641,8.81,-4.4081,4.4939,18.7217,27.3274,-14.224,
-39.406,-39.5711,37.916,16.3067,-59.0221,-24.6475,15.0513,3.5884,5.2448,-9.2046,9.2852,25.7668,25.7578,-2.2366,
-22.9417,-23.0968,21.5411,14.8216,-41.3807,-25.6992,11.6176,-1.1818,-9.1699,-6.1217,10.2462,25.739,18.645,-2.6086,
-35.6652,-30.7499,26.2511,12.4142,-52.9979,-38.2572,3.3293,-4.6534,-14.7633,-2.2119,7.1009,29.762,18.033,-13.0801,
-47.6253,-43.0049,38.7761,8.6335,-63.918,-50.0618,12.2394,-3.3618,0.22251,-4.1035,15.7847,26.9634,2.851,-11.2829,
-37.2463,-37.9648,26.9052,15.707,-69.7688,-57.3207,17.0722,-2.6541,8.8836,-4.3633,6.2342,15.7302,2.1035,-4.0264,
-37.5421,-27.0832,29.8453,25.3926,-51.9184,-61.4732,17.566,2.0601,6.8319,1.4654,-2.7435,24.4025,16.0772,-10.3641,
-24.1556,-15.3367,28.0548,20.8315,-37.6693,-47.6628,14.4879,-4.1369,1.3611,3.402,0.45766,22.9376,12.6523,-20.8767,
-16.6334,-16.4406,12.2715,5.4816,-49.5091,-35.6934,13.6184,-15.0226,-2.7695,5.222,7.5155,7.4614,-2.2068,-18.6119,
-29.7354,-29.5542,12.4767,-5.0391,-60.6386,-47.6518,8.7528,-9.0604,0.43368,2.8846,6.0524,13.0167,-0.12057,-12.4338,
-29.0338,-36.9613,15.7765,9.3632,-51.068,-51.9487,0.12997,4.6421,5.4686,-5.3862,2.6527,21.3449,0.89884,-8.6513,
-25.7738,-27.1522,16.3483,8.3658,-45.4736,-45.289,3.6649,1.8327,2.6096,-7.5933,10.085,12.4732,-13.2551,-12.6874,
-29.7943,-17.9318,11.8254,13.4312,-50.3369,-43.0779,5.9756,-0.8078,-5.1382,-4.6071,6.9493,13.2434,-14.5544,-11.4199,
-19.4032,-12.3007,3.5239,16.1676,-33.2167,-32.9017,14.2205,6.8321,-0.27519,-9.8978,2.9896,7.8936,0.41883,-5.1676,
-29.879,-25.6627,10.9042,1.0975,-35.2016,-45.0276,19.9465,-6.2302,1.26,-7.7858,2.304,2.8656,-13.7063,-18.9575,
-16.446,-23.1817,14.8042,9.0588,-32.5836,-40.3724,13.1826,-9.3991,-1.3465,6.7813,1.6598,9.2727,-26.9839,-14.8541,
-24.0627,-29.3818,10.3741,4.9725,-28.0977,-48.5778,5.8126,-7.3168,-4.8079,8.4698,3.0786,1.1248,-15.3138,-11.4325,
-30.2104,-31.1617,17.3432,7.205,-19.8328,-48.1935,13.0553,-1.3107,5.0964,-2.6666,8.461,8.6488,-3.7668,-14.2893,
-14.2978,-15.192,15.7964,10.3152,-7.0029,-31.2019,12.7778,-5.7869,4.2844,0.023949,5.4228,6.6117,-5.0594,-3.8159,
0.6601,-8.1368,17.3787,-1.9446,-16.1983,-31.2836,12.5173,-12.019,-2.552,-0.4837,6.6156,1.6596,-6.274,0.96754,
7.8473,-2.5872,7.2268,-4.8635,-12.1899,-34.4675,9.7421,-1.1758,-4.423,4.6067,-2.891,9.6577,-3.8729,-10.224,
0.79717,-2.9382,3.2497,-4.0665,-22.0865,-24.8082,10.6758,-7.6846,-1.6275,12.9335,-1.1994,15.6571,-7.1835,-19.2267,
-9.8792,-16.8619,1.5366,-6.3526,-26.3282,-37.4197,8.5166,-17.8515,-5.0724,2.5419,0.3912,6.114,-18.3925,-14.5305,
-2.7069,-14.909,-2.0984,-4.4535,-10.6485,-29.1722,12.5608,-2.6804,-5.2745,-1.1534,-7.2242,2.2044,-20.8317,0.44129,
-13.6785,-7.9412,7.1372,-1.1493,4.0904,-13.3219,9.7825,1.0939,3.1397,1.9524,-3.7537,6.1211,-10.4722,-10.1422,
-1.7238,4.6812,2.6605,11.0661,17.945,-5.3665,3.1222,-3.0207,4.9754,0.82303,3.5567,-0.31948,4.2562,-14.595,
-8.7058,-1.6727,1.4889,8.3773,9.4884,-19.1445,4.9597,4.2461,-3.4201,-6.3119,5.3677,-10.4216,17.2302,-9.6701,
-22.2835,-13.2123,7.9788,8.3804,-5.1809,-32.0959,4.156,11.5825,-4.7335,-7.4513,2.5151,-2.2051,5.5678,-10.6086,
-6.8465,1.6804,-6.5999,11.4208,9.23,-16.0701,2.3882,-0.75262,-2.9311,0.58726,-2.1905,-6.628,-1.3453,-4.4049,
-7.4479,2.1566,-0.70731,3.6505,-4.4822,-27.3224,16.3449,-10.8293,-0.73087,0.55202,-5.0959,-9.2666,-1.2646,-0.091918,
-21.101,-5.5643,6.9261,5.9618,-18.3133,-35.2989,10.8801,1.4607,-4.2298,-3.0239,-14.4055,3.942,12.9113,-1.6043,
-15.8567,-1.6882,-4.1172,2.0609,-3.1145,-19.0809,0.61141,4.9158,-0.43323,2.7247,-5.9502,-1.8616,12.2072,-3.0269,
-5.7957,-1.5866,-6.9072,-3.1237,11.1724,-3.8361,5.6356,-9.4791,4.6537,9.6465,0.48017,-6.8108,-2.6253,-5.8819,
8.652,7.6182,2.6173,1.1132,7.5363,-0.93452,11.3708,-15.0545,-1.6989,12.1042,-5.622,2.707,0.49802,0.54438,
22.2329,4.1243,3.4722,-7.0511,21.1841,-11.0003,10.6886,-12.1269,-4.6333,6.3168,-5.2846,1.5326,-2.5682,1.5237,
29.6436,11.4683,-4.3276,0.96349,34.0131,3.7598,6.5045,1.2534,-3.8493,2.3956,-12.559,-3.114,-6.9688,5.9874,
13.765,9.768,9.0904,2.9298,17.8723,-1.9622,3.0777,5.2266,-5.6424,-1.7971,-21.9271,-9.0005,-0.4778,-0.44515,
3.253,10.7004,15.1241,-3.826,2.6999,-0.32604,4.4114,2.3827,-2.7736,0.84102,-8.9717,-0.86853,5.118,-9.0219,
17.1578,24.1583,0.11661,-2.5835,16.6379,13.7935,5.1587,1.2278,-2.6072,2.8149,-11.4697,3.2323,6.8357,5.6195,
29.8634,29.3589,-9.5763,-9.0076,14.1921,23.6647,12.4406,-4.413,1.092,2.1401,-13.3119,-6.5775,6.9311,8.8956,
22.5045,26.079,5.0983,-0.87565,27.4405,19.714,9.1639,-3.6422,5.5812,14.6638,-3.9097,-1.6281,11.0699,7.8554,
35.2542,38.6142,0.30776,8.2863,39.8941,32.6312,3.5529,-2.4113,1.1976,20.8699,-4.6871,4.5431,7.3699,21.4841,
30.173,23.2096,-7.8074,5.765,23.4005,25.6829,2.3275,-0.24247,-4.9476,9.4952,-7.4424,-2.8152,0.8539,21.2782,
17.2289,22.8289,-13.413,0.35793,27.6338,31.2274,-6.9215,-0.22792,-4.6507,6.9011,-11.0446,-12.7681,7.8887,22.0259,
18.7252,19.941,-15.1383,-11.304,40.0758,43.4538,3.1094,-9.8298,-0.82917,12.0544,-3.8031,-11.4963,15.0066,18.1738,
13.5535,4.6446,-16.2539,-12.6496,51.7713,37.3746,15.069,-10.252,-5.8401,8.2944,-4.5869,-14.8552,19.1668,11.0102,
17.2947,8.8503,-9.7118,-5.3118,57.9159,31.5891,6.5736,-2.0456,-11.0566,4.2542,-5.8298,-19.5303,22.5718,15.9165,
15.7511,16.9227,-0.52568,-5.4991,46.8495,35.2609,4.6608,-2.4293,-3.8141,9.5656,0.086624,-4.6944,7.1175,12.4312,
15.312,17.4257,-14.5941,1.4099,43.5325,42.7611,4.8871,-1.7771,5.0182,11.5229,-3.4608,-2.8944,-7.4096,11.1793,
0.29324,4.2338,-17.332,-3.7356,28.7742,26.0954,1.5574,1.366,1.6805,0.70904,-6.2897,-14.8671,-2.0452,13.5451,
5.7725,18.0798,-4.6519,-11.1029,41.1477,25.9773,0.95794,3.8144,-8.0357,3.1973,-7.4307,-13.4691,9.7177,11.214,
19.5261,31.095,-11.9635,-16.0036,52.7789,38.5187,-0.61768,-8.0544,-8.0592,13.6335,-4.4543,-15.1911,5.5917,14.0837,
11.3398,15.1293,-19.8496,-19.5976,35.5121,23.1197,-2.099,-14.1502,-7.0702,2.1877,-6.7174,-7.7005,-8.8438,14.7571,
7.6229,1.6399,-18.6589,-12.3494,19.2814,35.8325,1.0635,0.7988,-9.6825,-0.98058,-12.3877,6.8615,-21.0361,16.9082,
9.1894,15.6415,-8.4295,-14.6447,32.2245,31.729,6.0603,2.8455,-14.1627,0.090194,-10.6325,4.4962,-5.6739,11.845,
22.738,18.8225,-1.8509,-2.6316,42.002,21.7281,3.6726,1.6626,-13.3127,-7,-13.0306,-9.8736,-7.2866,14.1708,
35.4738,31.7932,-14.8982,6.6355,53.5819,34.5244,-3.633,15.6629,-10.4898,-7.5922,-7.1883,-20.4864,-5.8377,26.4794,
23.3651,15.7856,-10.968,-7.8627,42.3403,32.5232,0.63367,2.6477,-6.8237,0.96128,0.32847,-21.2806,8.6126,10.7906,
16.396,7.2467,-5.7552,-0.88191,30.184,16.4718,6.1628,0.97043,-3.8839,14.5677,-9.3071,-6.3397,7.6604,1.4688,
23.5097,6.8119,-14.5188,-1.8414,14.273,19.9677,-5.3412,1.9246,-4.6633,10.6564,-10.773,-5.9598,-6.8993,11.502,
11.9771,3.3667,-4.538,-8.8162,14.3578,27.8792,-14.1304,-2.2403,-1.3465,11.0292,3.9734,-2.5652,-11.6172,24.9118,
7.7162,6.7074,-4.7722,-5.7569,27.5963,23.6761,-1.6424,-0.587,-2.7841,9.8619,-0.74895,-6.9655,3.1798,20.9581,
2.6978,-1.2867,-11.0647,-10.9784,24.9989,8.1556,5.035,-2.0704,-5.1471,-4.8298,-6.2714,-15.1522,-6.0501,5.6006,
9.6217,11.9493,-3.316,-0.19809,34.6334,20.2478,-1.3399,-1.9459,-2.8142,-1.0683,2.2026,-3.1086,-7.7107,19.3645,
-2.0898,1.1105,3.9684,1.8386,36.6042,13.9723,-0.24713,-7.9023,-3.6578,6.0813,-4.0026,-6.9708,-1.1755,24.7812,
0.059909,-6.0416,-4.3676,-4.3448,31.3711,-0.96602,4.8284,-6.4162,0.61044,4.704,-3.7625,-18.6992,-0.092514,9.1944,
14.1563,8.4209,-11.1908,-2.06,43.5889,13.1919,0.49018,5.1028,4.6228,12.5195,0.51175,-11.5034,3.962,-3.5738,
-0.79306,-3.1478,3.5806,1.0999,26.8735,0.25401,1.4727,-0.26407,1.3086,8.7315,-7.6164,-3.7282,-2.3488,-1.335,
9.3766,0.077826,4.4488,8.119,11.1611,3.2756,4.4211,-7.3337,-6.8673,2.135,-11.2081,-9.5776,-13.3426,0.76949,
22.914,14.1732,-9.9182,1.5592,24.5914,17.179,0.10665,1.2042,-4.4305,9.0915,3.5643,-19.1252,-10.5172,14.8233,
21.6097,18.4544,-9.3936,-0.55868,31.2136,21.2795,-3.948,0.11955,-0.11639,-1.5749,7.4697,-21.014,-4.825,8.9438,
17.2765,15.3226,-5.7934,10.6088,29.3411,13.9299,-1.687,-5.961,-2.1335,-11.6029,-7.0784,-19.7534,-8.5845,4.3582,
22.8192,26.0432,-6.9645,-0.65572,14.9277,18.6609,0.9448,3.0004,4.5733,2.7576,-4.1939,-6.9278,-14.6487,-2.4826,
8.7977,21.9505,-20.6466,-8.2081,1.3802,13.9988,-13.2119,11.424,7.8424,3.0988,-0.39931,-2.9696,-6.1785,-8.9129,
-3.8761,11.5238,-32.13,-3.6666,6.3583,17.2078,-20.0807,4.6652,-5.787,-5.1843,-14.4754,-16.8914,-9.8563,5.7218,
1.9231,4.2529,-16.1022,3.1329,-3.6391,15.6689,-4.7759,4.8913,-3.9219,9.2268,-17.2204,-7.3453,-23.3649,19.4785,
5.3505,2.4798,-21.1391,-3.6341,-2.9148,7.1373,-13.5286,2.0675,-3.1801,18.865,-11.632,-6.3981,-28.1071,12.3785,
-9.0705,-1.212,-13.2915,-12.0207,-9.3192,-3.919,-11.1993,-0.58714,-0.45872,3.6331,0.70544,-16.6427,-12.3207,12.1415,
-9.6095,4.4278,1.606,2.3651,-2.181,10.4162,-1.9234,5.0157,-5.9988,4.3563,-2.8792,-18.1745,-11.5112,15.9673,
5.0671,17.32,-10.0602,12.3452,12.0499,23.8912,-4.8445,12.8119,-14.748,6.1195,-10.8041,-22.1449,-10.8207,11.9732,
17.486,9.7018,-12.9989,0.97674,14.94,28.6716,-3.0355,12.5487,-11.3328,-7.9122,-5.6012,-28.4072,3.9285,1.6389,
30.5368,23.2197,-8.6767,2.4365,27.7081,34.5428,0.68892,3.1929,-4.0738,-9.9678,-0.7104,-27.2092,6.8006,-3.0146,
41.9342,35.9265,-10.6855,-4.2887,40.1456,46.1358,5.2028,-11.0987,-8.3836,-9.8752,1.864,-27.0941,-7.7075,-6.376,
40.4298,20.7536,-0.93567,-3.0192,34.2649,31.2207,12.9883,-12.022,-9.9056,-6.2467,2.7634,-20.4085,-14.9068,8.1066,
28.3882,17.9905,5.7,3.7405,18.109,21.756,8.6662,-1.6848,-5.7685,0.70767,-4.9939,-15.6413,0.087637,17.3068,
15.5512,27.0329,5.358,4.529,22.5195,34.5506,5.1095,1.4531,-4.41,1.6772,2.3912,-6.6044,9.7687,16.2684,
28.2824,28.9534,-9.0635,-3.334,32.8078,46.5776,-4.8132,-0.15226,-16.7983,-12.0883,0.72914,-16.8371,5.6401,13.7737,
22.5372,13.1162,-4.0348,-3.1339,16.7394,29.6829,5.5979,-3.1799,-1.6904,-9.3381,12.832,-16.8378,8.3385,7.8866,
7.085,-1.7708,10.3073,2.1148,1.635,13.802,3.2377,-17.0891,7.5914,-4.7296,14.0865,-1.7276,0.75267,-6.6866,
15.6988,12.4355,-0.36337,-0.036978,15.6369,3.3583,5.0678,-15.1224,-1.9734,-1.4086,2.1071,1.4829,-1.3173,-4.3316,
7.6718,4.5338,2.6957,-10.1556,7.5436,-5.9526,16.9104,-9.1539,-7.9281,-5.3733,2.9931,-12.7061,-4.2746,4.0262,
-2.9108,-4.8481,-2.5267,-5.4985,21.191,-19.6955,5.7734,-16.7021,-8.4648,-7.0747,5.8498,-21.1246,-5.0301,-0.26503,
11.3639,1.5159,1.6727,2.9288,30.1114,-20.6091,3.4022,-13.6761,1.1529,-0.57765,12.5838,-10.7477,9.3717,-9.3585,
17.8378,1.4252,10.6829,1.7414,14.2047,-18.3604,6.2351,-2.7335,2.0959,-3.5795,12.8414,2.0436,17.9891,-20.9434,
21.3225,10.9552,-0.58659,0.11878,27.4524,-3.1588,-1.7307,-9.1488,-2.5848,-5.8949,11.5652,-3.6459,5.2693,-6.0225,
5.9431,-3.8021,-6.119,-9.5047,35.9271,-14.0327,3.9407,-19.2276,-1.9237,-13.1326,6.3157,-13.0425,-9.1468,-6.1671,
-0.051099,0.91022,5.3824,5.1656,19.6715,-21.2882,17.8043,-3.9739,5.2772,-1.2109,-0.13588,1.84,5.502,-10.8577,
14.052,10.9777,9.1084,4.9269,13.3597,-5.9109,13.7695,3.4203,1.924,8.9838,6.9575,4.8367,6.691,-7.1697,
27.3088,18.9226,2.9955,-1.948,26.6582,8.5438,4.3402,-10.8849,-5.7826,5.9142,10.0826,-9.5535,-7.8105,-17.3676,
33.4033,27.9091,-11.2842,-3.8555,39.1587,12.7274,-5.0301,-23.9667,-19.5357,-6.5873,-4.6224,-23.0803,-17.0285,-30.4255,
19.7589,17.6307,-8.1474,-5.1425,30.8778,3.3603,0.83881,-16.9616,-4.2635,2.4118,-12.007,-22.8492,-1.9068,-14.5,
20.0913,14.0425,-7.153,-9.3891,14.9252,0.6274,-5.7906,-9.3653,7.126,5.8094,-10.7806,-16.9231,-1.7223,0.47001,
32.9858,25.3461,-15.8332,-9.8377,16.489,-1.4341,2.6543,4.3557,-5.4477,2.425,-19.2432,-20.9684,-5.6667,-13.6582,
24.4982,15.2219,-0.78325,-4.6928,13.9813,-12.9883,15.1472,4.6003,6.5194,7.8461,-3.9886,-5.6103,-6.8456,-13.3447,
13.9184,12.2838,-7.2448,-4.4112,-0.016208,-0.062808,0.13836,-7.8224,10.1769,10.4121,-0.13647,-6.7215,-10.4836,1.556,
14.0957,16.6084,-1.7494,0.91412,-3.0515,-4.1078,1.0719,-11.4013,2.4808,12.8242,-6.2009,-3.2814,-4.7939,-7.5767,
24.8902,17.1298,6.9599,9.4637,4.723,-13.4767,11.6359,-10.2112,0.81404,7.5,-19.9288,10.5795,-11.0848,-12.6887,
28.4579,21.1631,-7.5577,-2.2389,5.4516,1.4319,-3.1623,-7.5742,-4.2959,-5.0966,-27.4075,7.9204,-11.4322,2.1726,
21.6893,26.9784,-16.2856,-6.1528,19.2245,15.446,-9.1171,-10.156,-15.1719,-10.8639,-11.6631,0.36015,3.3538,-2.9484,
11.784,27.8905,-19.8631,-0.21699,32.171,14.1539,-0.9786,-7.0168,-16.7924,-14.7668,0.74792,-12.3146,8.7897,-5.3023,
-3.023,12.117,-4.5713,4.3514,16.1408,-0.35968,11.733,7.5042,-1.6849,-13.375,-1.8275,-2.9715,5.7322,9.1159,
0.12463,0.18527,9.8029,6.6209,24.8596,13.7619,10.5228,4.0887,-5.5615,-14.0907,-14.3703,-0.26268,1.8463,2.5668,
14.2171,14.2742,-4.8852,2.1745,37.4681,27.0362,1.7935,-10.2567,-18.3869,-16.2815,-13.5085,-14.3469,-0.28984,-11.6872,
15.9655,23.1041,-16.1608,-5.547,32.7602,27.5797,-0.84445,-10.2182,-7.6669,-12.7743,-4.0936,-21.1476,2.2588,-1.4406,
10.4524,21.2114,-19.7464,-8.7574,21.1778,18.3339,-10.4096,-9.0987,-13.7869,-16.563,-17.5131,-15.3246,-3.4438,8.2616,
9.3193,5.8387,-4.4616,-9.7504,8.2674,3.1339,3.8795,0.050636,-3.3438,-12.026,-5.834,-11.8748,-9.8162,6.2476,
-5.3399,-8.6116,1.9492,-16.7568,-6.3287,-11.1542,5.1647,2.5774,5.4602,-2.701,-0.92976,-4.5827,-7.7093,1.318,
-10.6572,-3.1753,-9.3015,-21.8245,8.1511,-14.6757,0.80654,-11.6772,-2.9644,-1.5275,-9.9834,-14.4296,-1.1737,-3.8222,
-11.0301,-0.95997,4.4152,-6.415,5.1312,-17.8434,14.8581,-22.1808,7.3353,-3.4593,4.7156,-7.4907,-3.1276,-17.6929,
3.7317,6.1827,-1.9233,6.1866,-9.2767,-22.8458,1.891,-6.75,11.9559,-6.2885,-0.55743,6.1168,-6.9887,-28.848,
15.7249,9.8609,-8.8929,-5.3184,-0.69317,-16.4144,-4.2955,6.8841,5.1654,-2.8749,-14.624,-2.3471,-6.5699,-13.959,
3.6472,2.1833,-7.3469,-7.0236,8.4583,-8.3441,9.1208,-7.6289,2.8311,-4.7267,-12.8051,-11.3162,-8.2,-1.9873,
5.9587,7.6194,-13.4851,2.0017,10.4811,1.7724,5.0303,-7.7482,3.1677,-7.9854,-11.5309,-6.083,-3.1529,2.6872,
14.2046,4.6324,-6.0974,-2.6741,13.395,-2.8891,0.1738,0.3082,0.44684,-4.9764,-10.333,6.9341,-4.4826,-0.0048851,
15.3772,5.3664,-10.7923,-7.5733,14.6162,4.3698,-1.8605,-6.7953,-3.6287,-5.6898,-15.7857,20.6181,-15.3469,-5.0653,
0.35454,6.5628,-7.6144,-6.6134,-0.36082,9.6747,1.7934,-4.8697,3.1681,-3.83,-1.1744,33.481,-16.9564,-8.3046,
-6.8228,1.6138,-0.57848,-1.6614,-14.4392,7.5758,6.241,5.0383,7.5332,1.9669,7.4999,45.5721,-15.4335,-6.2879,
7.6866,5.0602,-14.6438,-6.1169,0.52718,4.5909,-1.7255,-5.8917,-4.5595,-5.7431,-7.0501,39.5076,-12.9891,-5.4042,
-3.8381,-1.8232,-0.67733,-5.2437,-13.6044,-9.7845,11.0305,0.02863,9.8141,5.23,-2.6491,46.7527,1.8902,-2.5498,
-17.7078,-13.8595,3.4125,-1.8928,-26.8882,-15.8473,9.3572,3.0637,14.8631,9.9774,6.6197,56.0942,11.4639,-5.4332,
-3.558,1.0721,-5.9023,2.2688,-21.4387,-0.79644,10.8189,-2.1815,0.81298,-1.7562,1.1611,41.5936,-3.3239,2.9896,
10.7555,15.1078,0.52585,11.2435,-6.0524,13.3513,16.2438,8.0717,-4.296,-5.6991,3.1163,38.0865,-8.2564,5.8475,
20.303,28.3013,-7.6036,3.4829,3.4911,26.6503,3.1225,11.6356,0.010016,-2.3209,-2.1318,42.8864,6.339,-4.6252,
11.4938,12.5032,-6.641,-10.8261,-10.8183,20.7084,7.4904,-3.1625,1.5278,-5.7239,-5.5462,51.9539,-1.5618,9.3169,
20.4196,18.9794,-0.67635,-4.174,-23.3983,25.0325,13.62,-15.1895,-11.2165,-2.8501,0.35323,62.9366,-15.5681,22.8579,
10.085,25.9381,-7.7203,0.12616,-17.9452,23.531,3.6934,-5.1682,-22.6897,-11.7885,-1.6923,71.8831,-11.1628,11.9416,
4.9247,15.7774,-0.67852,-0.38834,-22.4361,17.5635,9.0384,8.8059,-10.701,-5.5145,-1.0848,81.6701,3.607,4.6455,
16.2694,13.3133,-14.7378,-10.9928,-12.4856,19.041,-5.6039,-5.8224,-23.7225,-3.6653,-15.1197,82.914,-10.7094,8.922,
11.7505,15.0444,-11.8992,-5.7786,-18.3165,19.4165,0.73539,-15.6654,-11.6719,2.1213,-5.1737,91.6033,-21.7066,6.8678,
-3.0545,7.5627,2.9147,6.2088,-26.8328,9.6476,12.331,-0.62549,-4.3925,-0.53634,6.7769,100.2071,-6.3042,-1.1353,
-16.0999,-6.9911,4.8347,3.306,-22.692,-2.571,1.9753,-0.51695,-18.229,0.0022925,-1.2207,85.1563,0.21769,5.5119,
-18.1704,-13.221,18.6446,5.1317,-32.465,-8.4901,12.9912,1.5387,-3.0352,13.1605,12.9526,94.1469,-7.8931,19.2812,
-15.0561,-5.3429,24.6815,10.8962,-28.493,6.1193,17.2722,2.4581,5.7508,3.2612,7.1848,102.5981,-12.4799,12.1218,
-11.1159,-6.0343,14.0912,9.2314,-15.6487,18.9815,16.2359,2.311,-0.66734,-0.98315,-0.33132,105.6926,0.41506,13.4193,
-16.5225,-11.7453,11.2214,-1.4452,-7.6247,6.7084,7.1647,0.14754,-0.6273,5.1489,6.7736,105.4242,4.4384,17.6743,
-20.0859,-6.4859,9.0293,-9.9619,-13.7468,7.8238,3.1921,-1.3797,-3.1205,0.28529,2.8244,111.7508,-3.4194,16.1079,
-9.7706,-4.0722,20.6349,0.75833,-21.0192,15.4526,10.0863,0.72817,2.1281,-1.7564,4.68,119.1458,-7.2627,14.1297,
4.9156,5.2813,5.2968,-4.3486,-5.658,28.6254,2.3949,-2.3525,-0.023673,-3.6756,-1.6746,126.097,-14.9241,1.135,
-2.9,5.4709,-1.6709,-13.7035,5.38,21.4111,11.8671,11.4532,7.5687,4.1369,5.0054,132.6312,-11.4984,-6.5241,
-6.269,-3.461,12.5294,-7.3144,-2.534,6.0264,17.7348,12.2841,4.584,3.382,0.15018,138.7734,-5.2416,-1.5777,
3.7227,-2.7467,5.7746,-14.4668,1.1605,15.7161,6.0427,-2.5529,-7.331,-2.3874,-13.9588,144.547,-10.4944,10.1565,
-4.0921,-1.064,13.0196,-15.1176,-13.0091,4.1449,9.2219,-0.44616,7.2089,9.3951,0.9787,149.9741,-14.4195,15.1147,
-17.9466,-3.5307,3.6348,-12.6919,-22.4211,-10.2038,-3.9828,11.2211,10.8959,15.4117,7.4995,155.0757,-15.0725,5.6041,
-30.9698,-13.4404,16.575,-6.8695,-35.1759,-9.1557,8.4026,10.548,10.2419,20.5598,6.0374,159.8711,-12.1435,3.2433,
-43.2116,-19.2135,29.2451,7.2072,-47.1653,-7.0879,20.5501,16.4942,9.1214,16.7954,10.2298,158.9415,-20.0183,2.5427,
-40.3243,-11.4814,19.8991,4.2442,-49.5376,-18.3031,8.6891,18.0351,6.0435,3.1353,7.0854,142.8257,-21.3478,8.9694,
-30.8196,-15.8534,30.8506,-0.058931,-33.407,-27.327,21.3261,13.9165,8.7175,10.0325,14.7575,148.3562,-9.9454,15.5165,
-14.8704,-8.8292,26.9757,7.0301,-17.3026,-11.5873,20.0465,16.1178,-2.9393,16.5165,15.8969,153.5548,-6.3118,15.598,
-28.0782,-11.8422,19.7905,4.0775,-17.7118,1.831,8.2164,16.6691,-0.23264,7.9335,19.4978,139.9281,-10.4883,12.1313,
-40.4935,-25.2316,18.6026,2.8204,-30.7491,-12.3788,11.7717,6.5591,8.8912,-5.7006,17.3155,135.5807,-13.9077,-0.74276,
-37.1225,-19.2336,20.0173,14.2914,-25.4324,-9.1763,19.6688,12.7451,-0.24619,5.2692,10.7095,139.0861,-3.4574,8.9176,
-38.4376,-21.6221,25.3951,7.8675,-18.3391,-10.1439,16.971,17.5473,-0.73762,16.593,13.6099,137.3207,-12.8656,22.0469,
-23.985,-13.2395,9.7714,11.4444,-3.1388,0.58682,3.8068,11.4335,5.38,13.5738,11.7811,127.0568,-22.2152,15.6637,
-8.4459,1.6549,4.5601,14.3,11.1496,14.6516,14.2062,9.2291,2.5268,11.241,11.5802,109.8176,-6.7823,15.2293,
-22.0391,-12.5444,18.3865,0.7899,-3.6194,-0.32749,17.9085,0.07195,0.85683,6.0114,6.3307,107.7832,2.8046,10.7733,
-34.8168,-10.7793,21.908,8.8399,-17.5022,-14.4078,4.6873,4.1164,10.9272,10.7113,5.9509,115.4162,-11.4637,-3.0317,
-19.6402,-10.133,6.4936,8.3095,-12.4036,-5.5169,-2.6789,7.9181,8.2472,5.0075,17.74,111.5981,-24.8759,-16.9498,
-4.3618,-0.92116,-1.5581,8.3165,2.4406,8.9141,3.0489,3.9003,-1.8634,2.1767,20.2183,105.4086,-9.2833,-1.8328,
0.018948,9.7621,4.1028,5.2874,10.4624,9.4619,4.3837,-2.9131,-7.3185,2.5523,8.3772,100.6028,2.3371,12.3772,
-4.5366,9.6826,11.4483,6.4883,20.4626,14.4616,6.6517,9.9141,0.71184,2.9054,11.4171,98.1086,-11.4674,11.1991,
-13.3741,-3.0448,-3.3386,1.0381,8.1009,21.6916,-2.857,12.3558,0.66937,-6.3785,-3.3679,84.1254,-13.8159,-0.60635,
-26.6716,-16.9621,5.3944,1.4813,-6.4852,6.2901,2.881,3.011,5.1839,-8.5266,-3.7426,81.6072,1.113,13.53,
-24.1299,-17.0273,7.6011,6.9605,0.91845,-8.1873,5.239,6.3731,-4.743,-4.4723,7.1102,75.1934,4.1531,-0.37031,
-11.0419,-3.353,-6.955,0.97575,11.4916,5.8269,8.4669,6.4967,-1.9276,-3.6975,13.2627,58.0291,0.36162,-13.0002,
-24.4794,-17.2519,4.0198,-10.2173,-3.2979,-8.6227,6.9467,-7.9931,7.2977,-13.5977,11.4547,60.6207,-13.7601,-10.1956,
-37.1106,-22.8663,12.3823,3.0482,-17.2,-22.2053,0.96303,-3.0293,4.3293,-9.2388,10.2612,71.0835,-16.5478,2.0561,
-48.984,-35.5943,12.145,4.3839,-30.268,-34.973,1.4115,-0.31701,1.5389,-8.1788,12.1761,60.8159,-17.0735,-6.6709,
-60.145,-47.5587,19.514,-8.026,-42.5519,-46.9746,4.3633,-0.29823,12.5806,-9.7127,10.4334,59.1911,-14.025,-13.356,
-58.3373,-41.8104,19.8621,-20.1966,-54.0988,-58.2561,1.5712,5.2868,15.3685,-3.5628,11.3258,67.2798,-7.6159,-17.1093,
-45.7272,-28.1676,20.6947,-21.0092,-49.6881,-44.4856,3.5013,2.9452,6.349,8.7972,18.7437,69.3161,-21.2589,-18.1071,
-37.9226,-21.4166,7.3061,-18.7364,-39.6211,-27.7165,-1.7697,1.7563,1.9191,5.2333,7.497,55.0351,-34.0834,-9.9354,
-41.2141,-25.6985,9.3983,-25.2035,-51.3438,-20.4164,-4.1941,8.2302,9.3951,-6.7212,4.5166,45.1542,-27.6252,-9.8455,
-33.1742,-17.5775,12.3777,-21.1609,-45.2972,-14.6362,-10.5215,8.2424,2.2524,-6.8239,4.7521,47.0001,-28.4981,-9.7607,
-17.0837,-2.4229,6.5734,-10.7814,-28.4793,0.34197,-3.8171,6.7359,-8.0046,3.7074,5.4789,41.1433,-29.8245,4.9249,
-21.0491,-15.3653,19.3378,-13.1711,-33.7858,-13.7785,8.5578,4.3072,-2.4634,-5.6247,7.1747,25.5164,-14.8767,1.6634,
-13.713,-9.3822,19.1895,-0.23465,-29.7343,-19.0252,3.9956,9.1099,2.7456,-12.3727,0.67118,20.9486,-9.9353,-2.4851,
-19.9758,-7.8074,5.8919,-6.2937,-13.8502,-4.7251,-4.3415,3.5021,-4.5047,-8.5936,9.7403,11.5942,-23.4392,-1.3241,
-32.8772,-21.4389,-0.5349,-20.016,-24.0822,-16.588,-7.1176,-1.7689,-2.2098,0.019724,18.266,7.862,-23.1156,-4.2812,
-45.0046,-34.2526,5.0641,-19.3921,-36.7373,-29.6927,-10.2331,-3.1809,5.514,2.5486,3.07,7.8965,-19.1986,-0.48179,
-56.4043,-44.4847,18.8602,-11.649,-48.633,-42.0111,4.045,-3.4965,14.799,1.8897,1.8026,21.5227,-29.6868,-6.0195,
-40.0733,-29.6697,12.2327,-6.9016,-31.615,-29.5097,2.7906,1.7747,3.789,-1.2602,10.8041,13.7226,-24.8686,-12.7436,
-29.065,-25.3587,2.8954,-15.0909,-15.6181,-22.172,-9.017,-1.8746,-0.99301,-4.7273,5.6012,-1.2007,-9.2765,-5.3999,
-41.4211,-30.9227,16.8216,-11.1487,-15.1875,-34.9417,-9.4884,-8.8476,8.1764,-4.4437,3.2407,1.3311,1.9784,-7.1003,
-46.5983,-20.4639,14.364,-3.9007,-0.17626,-23.3004,0.69671,-3.7621,0.09438,-3.6711,6.589,2.7696,-0.67063,-6.1683,
-47.8509,-25.3089,6.4174,-12.7763,13.9343,-18.8653,7.7402,2.537,-10.0333,-5.4749,15.3033,-7.5181,-14.7304,0.27511,
-43.4619,-24.2968,12.6114,-10.4918,0.080968,-27.3497,-3.352,-2.1699,-3.8642,-2.6161,10.8424,-5.5496,-24.5451,-1.2598,
-38.3234,-18.2838,18.4342,-8.3434,-14.0239,-27.2266,-4.6693,-2.5457,3.9591,2.096,8.6739,2.3748,-8.9724,-8.7757,
-26.9146,-16.1749,13.279,-5.8189,-1.6128,-26.6055,-2.3648,-1.381,-0.32716,-0.054585,3.0923,-4.8527,-8.8695,-4.2004,
-11.1997,-1.1044,4.385,7.689,12.584,-10.9091,-10.3201,4.7752,1.7166,6.022,-2.1541,-13.6707,-4.2888,10.1516,
-0.33494,12.191,3.1098,-4.9187,23.0337,-2.0861,-11.7255,-2.5966,8.6989,5.6605,2.0236,-11.8387,-0.99498,-4.5575,
-4.3638,2.3499,-2.1377,-9.6845,14.5664,-8.0343,-10.0098,-5.4773,14.2503,6.333,0.89003,-11.1286,2.1013,-6.3082,
-1.0654,-0.82761,-5.0465,-11.128,12.6802,-14.6375,-16.4944,-4.1365,3.2732,1.9045,-5.2362,-24.5609,-1.0609,8.1703,
-2.5194,-3.3083,-6.2611,-7.9295,0.27923,-10.2165,-17.0227,-0.34558,-3.5023,1.2843,1.657,-37.1873,4.5699,6.2325,
1.68,7.012,-19.9855,-2.3931,14.3625,-4.5424,-20.0505,-10.4471,-3.2921,4.2435,1.5576,-39.6515,16.4414,1.8098,
-12.5208,-7.5087,-19.3633,-14.9016,8.0046,-18.3698,-21.3778,-23.9203,-1.5762,4.4954,0.95816,-51.3724,1.7908,-4.8783,
-19.4316,-12.6958,-6.0553,-8.9469,-0.57358,-18.8566,-15.0345,-8.3851,3.579,7.262,2.925,-58.9894,-0.34147,-8.6343,
-8.6494,0.71855,-9.2343,-0.81859,0.97923,-3.6252,-15.6503,6.218,8.9319,5.3083,-0.79322,-69.1136,8.2829,-7.6098,
-15.2157,-5.3979,-2.6074,0.2427,-13.1795,5.2665,-12.6872,-6.2305,15.4812,7.014,2.2909,-63.9546,-4.3605,-7.1535,
-0.20272,3.5296,-2.9572,3.7711,1.7112,5.4563,-9.3954,-3.3261,3.9239,8.1113,-2.4015,-60.6235,-2.5802,-2.1693,
2.4101,3.3179,-5.816,-3.5406,10.2125,13.2263,-4.7829,8.0072,-7.4453,-2.4972,0.7794,-71.0861,11.6746,-0.014808,
-10.3867,-6.497,-16.0953,-13.956,3.0202,11.9268,-16.1362,2.9721,-2.4439,-6.9021,4.2754,-80.921,-1.608,-3.5567,
-3.1842,-8.6378,-15.6353,-11.6005,9.4183,2.6075,-17.6986,-3.7855,6.3064,4.1401,7.5614,-79.2438,-15.1758,-2.8371,
-17.0931,-22.2195,-0.59722,-7.3617,-5.2468,-11.6489,-2.9721,-7.1011,8.4583,4.3976,10.6504,-68.922,-0.16525,-14.307,
-23.7298,-25.5118,13.173,1.1772,-19.032,-25.05,2.2671,-2.6261,7.9511,6.1579,7.9868,-69.8481,12.5676,-12.4364,
-8.206,-18.414,-0.26906,-6.4849,-5.8852,-31.7857,-6.4723,-1.9626,3.9313,9.3312,10.0379,-71.2239,-2.2865,-9.1599,
5.0095,-6.1749,-2.2773,-1.0347,8.5679,-22.7931,-8.1083,1.192,3.6954,10.7957,12.4724,-52.8504,-16.2493,-8.6103,
10.782,6.3417,-9.2266,-1.985,-6.0462,-9.2793,-11.6706,-4.9526,0.43688,4.0748,-2.3759,-52.6452,-1.1743,-2.0206,
18.2323,-3.1484,-4.6241,-12.9999,-17.8293,-18.8441,-8.9462,-2.6313,0.41091,-1.2306,-8.3772,-63.5865,7.4292,8.2227,
31.2384,9.6929,-10.9259,-4.6282,-2.6596,-3.6135,-11.9519,8.1546,-1.1319,6.4345,-10.4051,-70.4701,1.4161,7.2231,
43.4641,11.1357,-12.2947,-0.30224,11.6,8.3138,-8.198,2.6041,8.0454,9.0852,1.3534,-72.3149,8.4167,-5.3565,
26.7562,-3.6325,-15.0998,-7.8756,-3.196,-6.285,-12.2613,-8.1799,1.9956,-0.063784,-0.2462,-76.5795,-6.1883,-1.4923,
33.825,7.6487,-12.6754,3.2257,8.7062,8.1921,-6.9705,6.4109,-4.7032,7.5315,-2.7618,-67.4305,-14.9974,12.6972,
30.2776,-3.438,-7.3597,2.5257,17.7997,0.10908,-7.0587,4.0724,-4.927,7.5861,-2.0901,-60.8534,0.0024237,2.8961,
41.6191,6.8896,-15.0161,12.496,30.8317,14.2025,-12.7083,0.79129,-1.5951,14.2159,3.0965,-54.1659,14.1023,-0.31401,
43.6771,15.0801,-19.6822,1.1184,43.0818,27.4504,-12.4517,3.2746,-2.0053,5.7715,0.38035,-65.0159,6.3122,13.8048,
32.4526,1.5227,-4.4013,-11.6013,26.3969,11.7034,-1.0769,3.5841,1.6577,-8.2393,-6.222,-75.2149,2.3907,0.9009,
44.6054,15.0961,-0.017223,3.1948,38.9131,23.7241,4.5551,5.8996,-0.97231,-2.1776,-9.3912,-65.2767,12.8753,2.365,
56.0291,21.7816,-10.6442,10.1586,50.6783,36.4006,6.8119,10.1006,-9.5176,-0.52882,-3.2609,-57.8171,-1.9972,16.3231,
44.205,26.0418,-10.5115,0.94572,33.5376,36.3117,5.8972,14.0493,-10.465,-10.1129,-7.6199,-56.8789,-9.0332,14.4021,
30.4187,24.4796,1.2527,-9.2326,17.4254,28.0597,1.4949,13.2065,-4.7762,-9.5059,-2.1018,-63.5882,5.6088,-0.56206,
34.1609,8.9108,-0.34016,-4.1237,6.3286,26.8823,-11.2472,6.8468,-6.0077,-8.4293,7.6404,-64.3274,3.8244,6.9926,
44.7632,15.3906,-13.9845,9.7885,20.0488,38.9342,-9.0542,12.0033,-3.1167,-5.3935,-2.4341,-48.8273,-0.96,20.6731,
27.9774,11.9369,-4.5421,0.59779,15.8799,22.4981,5.5891,4.7036,5.6742,-1.5271,-10.8915,-44.3798,-0.39595,5.3327,
30.2769,18.8121,-1.7392,1.0674,23.531,15.0041,5.3242,-0.13331,10.9004,2.1072,-4.6714,-49.308,-3.9149,-2.5785,
39.0881,12.1163,-15.7349,-4.5637,8.0191,17.6467,-9.0952,4.4294,2.6549,-5.6107,-5.909,-60.4495,-9.2472,11.6762,
22.6428,-2.7107,-25.4896,-6.3143,-6.562,2.4879,-6.0897,6.188,-4.5894,-10.3352,-14.6643,-68.5337,-3.6317,6.491,
25.2624,6.4908,-15.8627,7.2227,7.9317,5.3044,-3.7,2.7804,-1.2778,-1.6176,-13.7845,-66.4465,2.6593,-6.0447,
14.6371,-4.0207,-8.8372,-3.3322,15.9885,-0.074813,-10.5632,-7.5085,3.8598,-2.5327,1.1426,-76.5598,-9.6462,-5.6817,
-0.34116,-17.8795,-14.8865,-10.7238,0.92915,-0.57629,-8.411,-8.5764,1.0979,-5.923,1.6508,-84.6881,-13.6226,4.275,
-5.4519,-19.9135,-14.4992,4.0196,-13.2266,-3.072,5.7582,-3.5066,5.5867,-0.0010263,-12.5483,-65.9427,-2.177,18.1185,
-11.1979,-18.7187,-8.5686,11.4405,-11.5621,-15.0339,6.4246,-3.2962,5.2515,-2.0253,-10.3475,-47.8862,-14.1925,5.4617,
3.574,-3.4956,-17.1641,2.6568,3.2316,-0.031861,-2.0581,4.9988,-3.1608,2.1452,-5.6782,-59.113,-14.3536,-3.9756,
17.4596,-1.191,-12.0853,-8.6366,8.1694,14.0701,-1.9343,3.6867,-1.959,-2.032,-1.2885,-69.6662,-0.33358,6.385,
30.512,-14.7836,-6.8055,-3.5637,2.1126,1.7272,-4.3491,-7.1623,7.7744,-2.4161,-0.70523,-51.8922,1.2048,8.5322,
38.0023,-2.2568,-6.9036,0.19242,16.0858,11.2389,-2.5697,-9.2634,15.9114,3.2955,-2.1813,-42.1996,2.6504,2.4532,
21.6221,4.9641,3.6329,-2.8554,4.563,-0.56965,7.7062,2.4266,15.9691,-8.0364,-6.0992,-53.7677,-4.5936,-5.7915,
24.809,14.2816,-10.6851,-1.1657,2.7708,1.9949,-5.4087,5.8238,0.91095,-12.109,-15.349,-64.6416,-18.418,-7.9748,
20.7903,3.8096,-11.1267,-7.6751,-0.93798,-0.65492,-5.59,2.9438,1.7979,2.7176,-0.3281,-59.8915,-25.4811,-3.9533,
5.4429,-10.519,3.6409,-1.1415,-9.9916,-14.7156,3.8548,3.7796,15.7901,8.1919,5.3295,-43.1399,-9.8523,-8.7773,
8.0823,-2.8736,-9.6654,5.0003,4.7079,-5.8055,-4.4737,3.5526,6.8155,-6.3996,-9.0903,-47.6368,-6.154,-6.226,
13.6703,4.3841,-17.1831,-4.4093,18.5255,8.6428,0.85566,-0.70906,-1.6911,-5.0737,-4.5672,-58.8786,-19.8848,8.2475,
13.3562,-9.5433,-18.6827,-8.6997,18.0617,12.7495,0.29811,-5.2214,4.9897,0.79758,-2.7745,-68.0695,-4.5917,7.3172,
19.6404,-7.9583,-7.4395,5.9223,13.9412,5.9114,5.3414,5.2136,18.7903,4.7989,0.42875,-49.8853,9.7838,-7.2218,
4.362,-0.90172,7.1069,13.229,-0.99528,-3.0472,7.5512,2.3705,17.2274,2.9921,4.9577,-34.169,-4.9032,-7.3655,
-9.9998,-2.366,3.7142,12.9412,-9.1035,1.6908,5.5798,-5.3632,2.0938,-2.754,-3.9436,-46.2189,-9.1637,3.7047,
-10.0473,-8.8036,2.9849,12.6707,2.0705,9.1804,11.824,-2.5111,3.922,-1.0709,-6.2374,-53.6386,5.4861,-0.060313,
1.69,2.8591,-7.3157,7.8625,16.0462,22.7295,4.0298,-3.3726,6.7232,0.0060287,-6.8753,-47.3828,7.758,0.95549,
-11.0642,4.2057,-8.3949,-4.2502,24.7698,28.0158,0.24501,-3.6765,1.7649,-4.5493,-0.8959,-58.6398,-4.3474,5.4531,
-0.78431,1.4228,-7.385,1.5722,11.6437,18.7437,0.73653,-0.9253,-1.8835,-2.7582,-0.33594,-62.2779,-13.7026,-1.4534,
13.3627,8.9291,-11.4969,8.0571,8.4145,31.719,-3.8626,-0.36357,1.772,2.9742,-4.8707,-52.9739,-5.2888,3.1887,
-1.539,-5.7066,1.8451,-6.5263,-6.1904,15.7159,-2.1125,-6.9208,6.2208,-4.7957,-0.023299,-60.4237,-3.4535,-0.54533,
-5.4956,-4.9288,-7.375,-6.7117,-12.4686,0.67294,-1.9857,-6.5056,3.8232,-0.45878,8.0755,-54.7735,-9.3194,-9.6225,
8.9341,0.93383,-21.0325,-7.8267,2.3796,-11.0782,-1.3604,-13.7069,3.0876,9.1843,12.1459,-47.945,-9.2665,-13.6001,
1.8898,-13.2222,-13.2623,-18.4918,-11.8632,-24.5135,1.7576,-11.8721,7.963,1.5478,8.3804,-52.1538,-10.7348,-9.7473,
-1.7666,-6.9325,-10.9484,-9.7906,-1.0301,-8.9427,-1.8904,1.4926,4.9547,-5.1244,-2.7504,-47.506,-12.6213,2.4775,
-15.7606,7.5834,-1.1814,-1.1059,-5.0168,5.6939,1.2596,-7.7066,6.682,0.24447,2.4755,-37.5699,-9.8394,-3.744,
-28.915,2.6443,4.4564,6.5521,-18.3801,-4.6993,3.7146,-1.6773,11.8484,3.7723,4.8575,-34.8095,0.36701,-6.0499,
-33.9002,-8.6481,-9.911,0.085933,-22.3379,-6.4412,-9.6669,8.5451,-2.9625,-10.554,-9.5339,-43.8556,-9.7768,1.3986,
-37.4335,-10.6598,-3.82,3.6233,-25.5531,-9.5977,-7.5687,6.5143,-11.4594,-4.4244,-6.5018,-42.7424,-20.8306,-1.2159,
-38.2238,-0.91085,3.4947,16.564,-9.9199,-18.1317,0.98284,4.0991,-7.735,8.9991,-2.063,-44.2266,-15.5321,-2.1554,
-50.0304,-14.5205,3.7912,1.9058,-23.4247,-31.1438,-0.59428,5.3713,-1.7041,-5.6408,-0.42108,-50.1762,-26.2401,-3.5442,
-32.9288,-7.0702,8.1185,3.3099,-22.019,-18.2117,-0.052657,6.5674,4.9772,-10.4338,3.1469,-41.5985,-27.1965,1.2232,
-17.2885,4.9942,5.1005,8.6779,-6.5978,-3.019,2.4808,-6.4793,2.1483,-6.265,1.4397,-50.7437,-11.4647,4.6925,
-30.3512,-4.4153,-1.2786,4.1085,-9.6742,-1.249,0.30762,-9.1268,3.0313,-9.9378,6.414,-54.7837,0.93388,-5.7108,
-14.4301,3.9473,-9.2991,-1.1979,5.0063,12.926,-7.808,4.5791,3.8621,-6.3045,7.0418,-54.5327,-0.13385,-6.3804,
-12.0457,-10.3896,2.8991,-10.7424,-6.8635,-1.9496,6.7604,-1.2627,0.087617,-7.4451,3.0766,-57.8408,-6.7054,-2.4548,
-24.9878,-12.8733,13.3531,4.0022,-15.0554,-15.9326,20.4548,-4.7295,6.6617,-6.4922,2.3858,-44.7542,-2.76,-2.8137,
-9.3885,1.9991,-0.10042,10.9176,-0.052065,-0.87664,5.1275,0.10922,11.8288,-2.5602,7.8095,-50.6726,3.9844,-8.2118,
-5.2117,-1.5928,-3.1312,-3.8375,4.5765,7.7796,-1.6886,-0.90975,5.046,-2.4066,11.3901,-60.7904,0.70901,-9.7434,
-3.8868,-3.5218,-10.0286,-7.7262,-3.7953,-1.7968,7.5223,-0.85493,-0.31765,-0.23758,-0.42775,-50.0582,-9.4556,-0.049194,
-17.3181,-2.8041,-6.896,-2.708,-12.1715,-15.789,0.49191,-1.3096,4.2566,-1.7417,5.165,-37.4389,-10.4062,-5.6134,
-12.7368,2.9308,2.1211,5.046,2.6588,-13.9002,-6.1171,3.3237,6.5315,0.89312,14.471,-36.7104,4.3182,-8.8193,
2.1274,13.383,-10.6585,0.1883,16.5993,1.0338,0.82918,-1.4307,-1.4521,1.3457,-0.49729,-48.6078,0.08069,1.3259,
10.6742,0.43358,-10.0192,-4.8839,1.5033,3.5731,9.8891,-4.3814,2.684,3.2896,-4.0807,-48.2932,-14.0242,3.2705,
9.5273,-1.1108,-17.0096,3.0001,-11.1685,11.9621,-4.8043,-3.6125,1.0046,-2.4749,-1.3056,-50.9622,-27.2827,0.54393,
-1.6721,4.5229,-15.4825,4.339,-12.0167,8.7141,-10.6596,-3.9017,4.487,0.20394,2.3155,-47.3985,-25.787,1.0173,
-12.1993,-1.3153,-17.0842,0.53614,2.8043,3.6363,-7.4895,-2.1495,2.6997,4.7466,-0.35398,-39.9997,-31.8311,1.4624,
2.6326,10.4038,-25.6749,6.0701,16.736,17.5181,-5.5222,5.571,-11.5623,1.931,-10.9605,-51.6997,-32.452,14.0268,
16.5747,18.8892,-10.0345,7.731,25.9952,30.567,8.9091,2.2002,-8.409,7.8885,-4.2296,-50.1869,-16.4049,20.2705,
29.6802,22.3105,-18.9775,2.712,38.1,29.8862,-4.2068,-9.5721,-2.3374,8.9336,-2.4579,-40.5966,-13.8314,16.5244,
39.245,22.9963,-25.9362,2.5497,49.914,29.1055,-11.0399,-3.9366,5.9008,9.4095,-6.3591,-46.2578,-11.9896,8.447,
50.9903,26.6774,-10.2801,11.5059,44.9651,32.4201,3.7225,1.36,12.6315,22.0033,-6.9898,-31.3364,-0.13624,-0.15707,
62.0309,27.6076,-23.7633,-3.2845,56.3672,44.5749,-6.0459,-12.8216,-2.2263,18.1532,-19.2225,-35.0223,-14.2281,-0.65361,
64.5231,27.4688,-33.4722,-16.3163,67.0852,56.0004,-11.25,-6.05,-5.1998,15.5449,-3.9692,-45.5743,-9.3964,13.4856,
56.0975,30.3763,-25.8963,-9.7697,57.6347,38.5403,-6.0203,-3.1557,-3.369,6.0098,-3.6602,-54.4791,5.2674,9.7105,
66.8317,37.1567,-25.8604,-12.7272,62.7801,43.3837,-1.1044,-9.5459,-13.7951,7.1671,-17.5406,-49.6925,-2.0632,8.6219,
76.0499,36.4457,-30.8888,-21.5785,71.6649,54.8807,-8.6292,-11.5039,-16.5106,2.1819,-18.5836,-57.3387,-16.0394,4.5613,
69.969,40.8385,-36.626,-12.6923,81.465,48.6216,-14.6909,-11.3197,-11.9772,-3.5157,-16.9621,-67.9984,-10.0864,-9.3764,
53.1188,28.7723,-22.7887,-4.3398,62.4771,31.6043,-3.1807,-14.1828,-7.7154,-2.7983,-13.414,-49.8185,4.6188,-6.2835,
42.8461,28.0584,-19.397,-5.0918,59.7414,32.1678,-5.0152,-7.2592,-10.2897,-0.60697,-21.7191,-38.7329,3.9057,8.1935,
26.1754,22.3262,-23.2939,-11.8718,55.144,40.3601,-9.775,-8.848,-5.6236,-1.5825,-26.489,-50.5089,10.7569,14.8579,
10.5048,11.3703,-13.2928,-3.568,44.2449,32.3718,-4.6338,-14.8962,0.28141,-1.9935,-10.7997,-61.5784,19.7273,15.4843,
14.2882,24.7881,-25.6543,0.69479,55.6902,44.5295,-12.4532,-16.0268,-13.8355,-6.9346,-14.6358,-51.4452,7.4094,13.5433,
6.3459,35.5184,-24.1146,-10.4806,66.4488,54.0744,-12.7184,-16.0766,-22.1862,-4.4941,-25.9034,-62.4585,7.9773,17.7919,
20.0651,28.8322,-23.1741,-11.3702,75.255,64.93,-15.4976,-14.6065,-15.2879,-3.719,-19.795,-72.811,21.5987,30.3889,
32.9612,41.2022,-31.3991,-10.182,84.8397,75.1342,-17.0986,-18.2848,-12.8518,-4.0018,-6.9671,-78.7057,27.4588,28.0596,
25.0515,27.1599,-26.4793,-20.7053,71.216,58.6205,-11.012,-25.2852,-15.1175,-3.7617,-7.562,-59.8833,27.8351,16.2538,
33.6707,23.5065,-27.9264,-24.5237,70.9927,56.1162,-8.3264,-13.6458,-18.2591,-3.536,-21.2082,-42.1903,40.265,29.3785,
45.7505,28.1692,-33.3358,-31.1492,71.7933,66.8492,-9.8512,-12.8275,-21.2128,-10.4089,-26.0789,-53.7589,23.7491,22.6257,
55.2217,37.6128,-45.4356,-34.3414,81.5857,62.9083,-19.3819,-26.1579,-34.04,-10.7968,-34.6359,-63.6214,8.2242,7.1682,
64.5605,49.021,-53.4083,-35.8237,90.7906,70.774,-23.7856,-22.1281,-41.6835,-6.6062,-36.1005,-49.1759,13.2273,20.8381,
67.7729,38.9938,-36.1038,-31.6499,72.8321,70.5768,-12.2367,-13.7154,-29.0607,-8.2342,-20.7759,-44.201,26.5337,29.2031,
68.2612,37.1611,-38.4217,-22.1594,54.3621,64.8243,-15.0453,-20.484,-29.8479,-15.3316,-33.1934,-51.1643,35.6404,13.3509,
56.0676,32.9061,-36.1169,-22.8542,51.5359,46.8348,-13.1311,-13.1818,-24.0087,-12.3874,-36.2639,-36.9607,33.5015,4.8879,
51.6916,37.0053,-26.8644,-24.5197,49.4566,40.9174,-11.3303,-4.2935,-14.4698,-8.6073,-28.0145,-28.6695,17.3914,18.6946,
59.7243,38.8337,-29.3013,-20.0118,38.3918,47.5718,-11.6624,-13.1453,-20.6871,-11.1277,-24.3088,-41.0493,4.1317,31.6729,
42.0409,22.4037,-18.9393,-12.232,21.9883,30.6175,-5.3965,-15.8998,-20.9643,-9.9536,-26.3935,-37.139,2.3654,15.6726,
26.7948,6.9595,-22.8645,-4.4126,7.9453,30.2278,-14.1821,-3.8116,-16.6697,-8.3444,-38.9099,-20.8106,2.2235,7.2113,
39.2871,20.6419,-25.5409,-14.2696,21.5686,42.5141,-9.283,-1.5585,-16.6819,-12.9049,-32.5971,-17.4666,3.1025,12.8517,
40.5441,23.3821,-19.4538,-12.9075,17.8152,39.5278,0.89034,-9.0565,-22.2596,-13.6485,-23.0498,-12.8759,5.4472,14.6114,
26.4713,9.326,-30.9387,-7.5783,15.2274,23.0562,-11.8152,-11.0439,-27.5035,-14.3485,-31.2822,-8.5615,11.6989,9.18,
26.9069,4.7177,-19.973,-7.1236,18.3625,16.0351,-13.1312,-6.3316,-11.7533,-15.5114,-24.3446,-6.023,19.0944,9.6411,
39.3925,18.5347,-26.3661,-8.2141,31.3607,29.173,-14.8731,-9.4944,-10.4721,-13.0628,-27.4386,-13.2531,12.3821,17.6661,
51.1289,28.6274,-33.387,-12.2765,43.5791,41.5227,-13.4753,-13.4799,-16.4228,-7.7239,-26.2988,-14.9882,3.0353,18.1245,
46.6843,26.4033,-17.2838,-14.0702,37.5626,43.727,-5.0757,-7.104,-3.7977,-4.7301,-10.6208,0.011069,11.4561,12.4819,
57.9833,32.411,-15.1638,-14.7444,49.4089,42.6228,-2.2399,-8.1962,1.9982,-2.9279,-13.9613,8.1789,23.4223,17.301,
55.0808,17.3083,-17.2908,-13.8597,32.3443,26.9063,3.9681,-9.7283,1.8783,-2.7523,-17.1723,-1.4213,15.9434,20.3117,
50.764,19.3065,-22.3269,-5.9426,19.7759,30.3526,-6.3923,3.0016,-4.3079,-9.6726,-16.142,4.7366,4.8645,16.0562,
61.8181,32.2482,-25.5415,-7.1045,29.2171,42.6315,-13.6007,4.3389,-9.6166,-7.5739,-20.7406,18.5524,7.103,12.5625,
55.6488,32.9136,-20.9732,-12.7518,17.3428,29.5168,-2.6624,0.029854,-4.9909,-1.0459,-21.521,22.0645,7.6897,2.6984,
40.1642,16.8388,-18.7024,-8.9494,17.3146,19.6479,0.53364,7.114,-5.7038,-4.0204,-17.1925,14.6675,4.1911,8.6096,
31.1748,10.1904,-3.4802,-7.9065,10.7082,10.8775,7.0812,1.1196,-0.80692,-4.2851,-2.0609,26.4396,9.5072,17.7093,
32.847,17.1714,-11.2988,-6.9261,20.6939,15.7915,7.1623,-9.5749,4.8091,-5.5459,5.2183,28.396,16.5283,5.0066,
28.8519,19.1774,-15.6811,-4.4862,21.4767,28.944,4.7082,5.0996,6.5449,-7.2375,-0.15596,15.5585,20.5977,4.7067,
13.0207,4.8687,-2.594,-4.217,6.0881,13.1074,3.4137,18.0223,4.1283,-5.7914,4.915,22.7224,12.2763,7.461,
14.6988,2.0452,-14.0791,-2.4456,6.1582,-1.7791,-2.3582,2.841,-4.7233,-6.9623,-1.9599,22.8775,-0.10093,-2.6034,
18.3721,-5.6685,-5.6424,-2.8053,14.3926,-7.8155,2.3385,-0.43634,-0.89759,-6.0381,-0.32391,23.0232,-4.6491,-11.0501,
21.3189,4.7934,0.76925,-4.6614,10.4918,6.7535,-4.8878,6.6749,-0.84326,-3.6514,-6.3776,28.7269,0.69004,-3.3021,
24.0881,17.6644,-0.28933,-6.406,12.8996,20.4483,3.5034,-4.8594,4.2675,-1.408,-1.9457,27.0028,14.7486,7.0178,
8.5428,2.5046,1.7524,-13.1067,-1.9744,5.1214,14.4269,-18.6678,1.9881,-11.4453,3.2322,30.4437,6.8492,-7.5032,
5.4293,-1.2595,-8.9805,-4.7293,6.6765,7.4149,3.9455,-3.4477,-1.6744,-1.1428,-6.5776,42.7171,1.8841,-0.54453,
19.2036,12.9161,-7.9352,-8.9998,1.7217,18.6107,-3.8823,10.8591,-0.05559,3.48,-4.6655,51.3593,1.2646,1.0065,
14.0727,11.2002,6.6409,-1.8807,-12.4816,8.8902,3.9417,10.7836,-1.5706,-7.3566,6.2422,54.8568,1.6942,-11.7065,
6.1433,18.6252,-3.3029,2.2804,-10.2859,18.4786,-0.34308,4.0635,-7.5495,-8.9395,1.8194,55.6137,5.6417,-3.9181,
19.8747,31.6076,0.94401,0.11967,4.4313,26.4793,-4.3712,12.93,-3.0478,-4.3544,4.7471,57.3385,8.34,10.417,
32.7822,40.9159,-0.12505,3.1488,5.2489,19.8294,-3.0975,15.1905,-4.8893,-7.1295,2.4379,51.8728,-0.25831,-4.308,
16.7153,24.361,2.4133,-0.58289,-9.1661,4.5396,2.656,0.1791,-7.1267,-9.2325,-2.2631,44.2058,-11.883,-18.1496,
