"AF3","AF4","F3","F4","F7","F8","FC5","FC6","O1","O2","P7","P8","T7","T8",
18.6455,-9.8135,42.199,39.2547,-54.9563,72.6212,-23.553,43.1801,-10.7947,-17.6644,-24.5341,8.8324,-8.8324,21.5898,
15.5645,-14.1313,25.567,40.8248,-47.7326,65.3196,-25.0832,42.5524,-15.0535,-17.5856,-22.08,9.2836,-9.2836,29.1273,
2.3634,-19.663,31.7534,41.8097,-58.9686,47.3004,-9.4782,25.8993,-3.8471,-13.0961,-17.3208,15.1053,-3.329,13.2797,
0.75036,-10.1414,28.377,45.6807,-69.5305,30.3624,-13.1964,18.8173,3.7444,-12.8004,-20.698,9.7834,-9.508,-1.6171,
3.6492,-13.4578,17.8419,30.182,-64.6376,25.3368,-26.1436,25.5396,-1.3872,-14.9772,-19.4557,9.196,-19.7322,-0.79848,
16.1876,-19.5201,15.7903,16.5949,-47.0199,25.7798,-25.5561,14.1932,-13.0803,-16.0408,-22.2137,13.5517,-14.6228,11.0257,
17.179,-8.5353,9.9349,16.5798,-39.2926,25.2137,-18.1346,12.36,-14.2582,-20.9674,-21.8625,2.9241,-2.9508,11.3448,
2.0483,1.7903,13.2647,17.5478,-36.935,28.6079,-9.1962,24.3763,-4.5702,-17.7467,-11.7193,-1.1763,3.1144,14.59,
-1.6394,1.6824,19.3381,30.5949,-20.6189,40.9914,-7.6628,37.0137,0.61098,-4.9051,-14.9411,12.9943,-6.8869,27.8146,
6.8008,-12.5185,9.8369,23.9817,-18.2707,37.6798,-17.5071,26.09,-7.7675,-10.9895,-22.3865,12.3437,-20.5737,27.2568,
18.66,0.37037,9.7367,26.9593,-3.0745,42.7798,-17.9289,10.4246,-6.8105,-9.84,-9.7571,0.31784,-16.0335,20.2239,
5.7632,5.2547,10.1337,38.0991,11.21,48.0639,-11.9466,9.6696,-5.4207,-12.193,-8.1906,-6.5709,-0.97149,13.1218,
-8.6826,-9.1606,20.3217,33.8509,-3.5626,31.08,-1.4158,23.1894,7.6619,-14.4057,3.096,7.9233,3.6328,8.41,
1.0323,-22.711,5.0024,17.7198,-9.1065,15.1152,-15.4308,7.6985,-2.6114,-20.4106,-4.9411,1.1992,-8.3619,1.0352,
8.3302,-12.2848,3.5902,2.5566,5.5399,0.1083,-11.6907,-4.0496,-16.5547,-20.6581,-6.1167,-4.2703,5.3882,-2.4613,
9.303,-13.0194,17.4748,6.0696,7.7898,-13.9982,3.1108,7.4791,-3.4241,-11.0773,-2.3149,6.2905,-9.0351,-4.7673,
22.8448,-22.0523,9.6866,16.4996,15.1733,-27.2583,2.0721,3.1049,10.8813,3.6874,-5.1203,0.024462,-22.593,-12.3321,
21.1122,-25.6361,-0.70815,3.7339,16.2256,-38.5391,1.9482,-5.9138,13.7928,14.8814,3.0382,2.9668,-7.1374,-21.4057,
12.9762,-17.2278,4.2413,-0.41605,16.2336,-25.4312,-3.0757,-5.5585,2.1706,1.2306,-10.883,12.6024,7.3908,-14.2333,
13.1792,-11.2871,1.043,-4.316,25.0732,-18.9983,-15.649,-9.1509,-11.6986,-1.787,-21.0247,-2.2538,-7.1526,-2.5846,
12.8799,0.6758,0.48989,5.2664,30.9291,-16.3867,-5.3866,0.72163,-6.5807,4.6993,-5.6632,-15.0055,-20.8235,4.9317,
9.1628,9.4672,-9.3535,12.8012,17.2971,-7.5527,-5.0634,12.4546,-8.1481,-7.3589,-5.1934,-2.3289,-11.0007,0.71037,
5.1777,6.4459,1.5118,24.2995,2.1592,-2.6831,0.63796,21.0303,-6.188,-4.4641,-4.3917,11.9109,-2.9808,-1.7865,
-7.3997,0.66205,15.5211,28.2396,5.335,-8.9003,4.0345,8.4828,-2.3809,8.0706,-3.6367,13.7795,-1.3294,-1.1878,
-9.409,-11.645,12.2665,12.4452,19.1149,-15.727,-4.5494,-6.1262,-0.76686,3.1708,-10.7793,-1.1473,-6.6481,5.2622,
5.2555,-17.816,6.624,0.77383,31.837,-13.8023,-4.2764,-16.6833,2.2235,-6.8334,-11.1136,-13.9663,-5.2672,6.9087,
6.0513,-14.2942,-3.0969,7.1056,31.3984,-8.5582,-3.5293,-1.5823,4.5438,-5.9329,-10.9383,-18.5254,-2.4983,-7.6058,
-8.4118,0.66344,-2.42,8.1514,23.1358,5.2037,6.0055,7.9656,18.3712,8.5231,3.818,-8.0909,5.0123,-6.7884,
-22.0071,-3.6623,-14.5421,-6.4377,7.6477,-6.3937,-8.4549,-6.6123,10.0386,9.6134,5.1915,-1.2268,-6.5736,-4.909,
-34.7866,-17.5426,-15.1417,-17.4671,0.68062,-14.352,-4.6427,-17.6312,2.0755,18.3596,-9.22,5.2255,-6.6703,0.78312,
-34.5611,-28.8869,-6.8725,-13.9649,-11.6275,-14.963,2.0145,-9.2126,0.47886,14.8047,-12.2316,-0.48557,-6.7611,0.2451,
-18.3874,-13.0537,-3.5163,0.97304,3.1701,0.034781,2.8753,5.4401,5.3571,9.0094,-5.6096,11.3194,0.51384,14.3304,
-19.1169,-0.36465,-8.7034,-5.8255,-5.7234,-7.6886,-1.7142,0.33577,1.6009,11.9037,-4.7825,9.1685,-13.617,7.7115,
-14.044,-6.2309,-0.32986,0.41212,-11.2672,-9.19,-8.4796,3.2604,-1.439,18.0588,-4.4951,-1.1951,-20.7803,8.2313,
0.89863,8.243,2.1437,11.6731,-1.2687,0.68484,-12.3868,12.3873,-13.6195,2.8752,-8.6413,-2.5951,-10.2101,-3.5482,
14.9447,21.8484,12.8097,15.8797,4.6956,-0.33783,2.4564,7.7182,-15.7471,-11.3973,-6.1611,5.411,4.5025,-17.4353,
28.148,15.3999,14.0043,13.9458,18.5138,-0.31757,1.948,-6.8449,-14.8023,-15.3889,-19.8914,-7.6711,0.92706,-7.1962,
38.1334,11.041,1.8784,-0.13981,27.3461,-7.6588,-12.2689,-13.433,-20.2924,-15.9373,-27.6589,-17.5145,-13.2286,4.5212,
35.8459,16.2667,4.7095,0.85017,11.9673,-17.0128,-14.6066,-7.72,-18.0932,-8.1118,-20.1113,-10.5755,-22.3784,-6.5447,
23.8816,12.3469,17.1848,11.5938,25.3493,-13.0482,0.0087516,-8.2384,-9.1573,-4.6803,-14.9796,-8.9603,-6.9357,-4.1893,
13.1257,5.2274,21.5512,9.426,29.846,-7.8489,5.4058,-13.1417,-5.1734,-9.7971,-13.5898,-7.9316,1.4613,4.403,
18.2258,7.858,20.2582,9.8425,21.1855,3.4172,0.17491,-13.3343,1.0256,0.60383,-11.7933,-6.4746,-5.4961,3.1577,
7.3187,2.4795,28.8562,6.3072,8.1376,3.2117,5.0705,-11.5526,5.871,2.5303,2.6532,-5.1045,1.7029,4.9309,
7.3706,11.6528,29.5781,2.4944,4.215,-1.3965,5.2573,-5.4619,6.0089,-1.0559,2.9851,-1.3639,-2.8148,8.0695,
19.6853,13.8984,17.0088,0.38202,0.036196,-6.2197,-0.94628,-13.9666,7.611,8.821,-9.9519,-7.1702,-7.5529,-1.2462,
16.0509,-1.0355,30.0882,1.8313,-0.45607,-14.1884,13.2105,-25.3959,12.5519,10.745,3.8936,1.6019,7.0003,-7.551,
16.56,-1.5948,35.7723,3.1926,11.8376,-10.8838,12.0564,-21.4189,5.4201,-3.9997,2.1869,4.9402,7.1999,-6.607,
24.8894,12.6008,19.5259,6.4364,1.8044,-5.8144,-2.767,-6.0338,-3.2469,-10.2689,-12.0443,-9.4562,-7.3321,-5.7195,
26.8314,25.9448,29.511,14.392,-7.6259,-4.9745,11.499,8.4283,4.3086,-1.3109,-0.16499,-8.5274,-6.5307,-5.8674,
11.1215,10.4186,41.8404,3.2235,-14.5291,-18.776,23.0763,4.7472,10.4288,-1.7232,13.9449,-1.637,7.1096,-11.895,
-0.47094,-4.3065,38.4779,4.0117,-20.5266,-31.7494,12.8593,-9.6376,7.8404,3.2881,25.0145,8.2747,14.5343,-4.3111,
13.6573,10.0518,22.0692,17.871,-5.195,-15.7445,-2.0122,0.13412,-1.4625,8.978,9.4136,14.6475,2.8666,0.8546,
20.8182,12.8836,12.7638,7.1151,-4.7538,-0.69981,-3.9842,8.4675,0.096946,4.0233,-5.2512,5.4273,-9.5722,-10.4824,
5.4691,9.6578,26.0979,5.2166,-0.05258,-8.0186,5.5783,10.4132,8.4335,-10.3181,-15.0087,-3.2398,-3.5998,-11.3251,
-3.8205,6.1335,10.4321,9.8106,8.783,-1.6484,-8.8564,7.8257,-6.1725,-23.799,-17.053,-13.8401,-11.2351,3.4544,
10.5087,6.2561,15.6952,14.6181,-2.0486,12.5505,2.3397,14.7164,-2.0072,-8.271,-1.9298,-0.74284,-0.25645,17.3471,
8.5351,-4.4234,20.1501,5.4001,-16.0256,4.5658,13.4855,-0.26659,1.5485,1.9092,7.638,-1.1893,3.1933,16.5654,
2.1354,6.6372,19.9232,9.0015,-0.9641,1.3485,9.732,-2.3433,6.3622,-2.1307,-0.67016,-3.0802,10.8526,1.4714,
1.5167,13.5992,7.4421,0.12001,10.8705,-1.1862,-4.9519,2.2133,-8.1196,-10.3443,-8.9713,-16.1442,-3.8986,-10.5231,
-6.4256,13.7648,-1.8369,-5.7753,-0.57736,6.7363,-10.6729,6.9875,-17.5759,-7.7609,-12.3589,-13.2129,-7.7196,4.2083,
-8.4934,5.5782,6.6143,-1.0133,-7.9025,10.7476,3.2159,10.0026,-2.4214,2.0277,-3.2765,-0.15282,6.8436,14.8809,
6.1162,8.1873,11.1244,7.8799,3.3663,2.2515,-0.90202,-1.3922,9.6301,10.7376,-5.0426,-2.1064,-0.30678,-0.11194,
6.3703,12.6036,2.6061,4.4628,4.1464,-5.7335,-4.7733,-9.1595,2.1826,12.0565,-6.7023,-0.017737,-9.1213,-7.595,
-8.1119,0.5612,-2.9478,-2.1836,-10.2024,-8.8248,-2.0337,4.6385,5.487,4.9544,3.0228,13.2317,1.7311,6.9607,
-6.7741,-1.4352,-9.6402,-5.9785,-7.758,0.53709,-11.7252,11.2294,0.25076,-1.231,-3.0467,4.5875,-6.2241,20.643,
1.4837,3.5579,-8.0802,-8.5627,-7.2921,0.50534,1.7362,-3.1824,-5.6524,4.731,0.0809,-0.5948,-7.8124,5.3045,
-7.9279,-2.0526,-12.0114,-2.6518,-0.47539,-1.9787,6.048,0.44249,2.047,12.7885,-1.3966,13.5409,2.9599,-9.1138,
-18.2483,-16.0295,-25.3907,-12.3067,11.3294,-3.8232,-8.4149,-3.5095,-3.9644,-0.73615,-15.4128,-1.3716,-11.3177,5.533,
-4.8856,-9.3091,-16.1464,-8.1335,12.1213,2.7854,-6.0768,-3.7895,2.6526,-0.20142,-13.6359,-5.2147,-17.6374,19.07,
-0.66754,5.3494,-2.4198,6.4546,1.5805,1.6367,0.17592,0.36285,-2.4135,-0.1898,-4.9674,-4.9023,-2.4791,3.8258,
-14.7275,6.6297,-11.1075,8.6505,0.5036,10.3704,-10.6298,-2.6032,-16.3687,-6.0661,-18.7694,-8.5336,11.7696,-0.95019,
-18.3898,10.1573,-22.2163,1.2618,4.3997,23.8482,-14.8985,-4.4093,-17.9694,-6.6832,-18.2638,-12.9281,-3.0366,12.8463,
-3.1864,8.0762,-13.524,-0.2856,1.682,33.3424,0.095387,9.9553,-2.7912,4.0214,-3.0679,-9.6987,-0.7626,24.3423,
-17.0948,-6.5084,-0.4453,-14.3685,-9.7051,17.2419,14.1897,-4.742,9.7726,2.308,11.2161,-6.6635,5.6618,8.7818,
-17.0502,-13.1171,-2.3808,-14.617,4.9772,4.3016,7.7092,-15.2522,9.1862,9.0392,2.9519,-1.3571,3.3599,1.2556,
-13.5744,-3.9887,-15.4868,-9.3249,11.6783,18.1435,4.7929,-0.23705,1.2748,7.0252,5.2285,-5.6917,1.6857,-4.2178,
1.3401,2.6293,-2.2904,2.5207,10.4866,18.6561,11.8652,13.8772,5.6147,8.0749,11.2925,3.9728,6.001,-15.2499,
15.1282,7.3786,-9.0222,-8.4252,8.8767,3.4367,-2.9468,-1.0555,-8.4611,-3.2043,-3.485,-1.1726,-8.4591,-17.2788,
3.4263,21.0359,-9.4629,-4.9763,-4.4142,0.64819,2.4986,-11.1667,-17.7675,-7.9186,-16.6534,-1.1022,-13.4791,-2.142,
17.3207,33.8737,-16.2549,9.4223,9.9507,11.8945,-5.0112,2.7517,-17.1915,-14.8033,-18.1075,-15.1361,-22.9744,-15.6234,
30.3815,45.9413,-22.6395,13.4029,23.4536,25.2809,-12.0712,7.9842,-20.5765,-24.2192,-21.4375,-26.6247,-18.1607,-24.009,
42.6586,57.2848,-23.7348,12.1082,36.1464,20.4587,-5.9489,-2.7995,-33.4419,-36.866,-34.2512,-35.3309,-26.3945,-20.1147,
54.1991,67.9477,-10.5345,25.4817,48.0776,32.9706,3.24,-1.6504,-45.5354,-42.6349,-41.1581,-25.3602,-34.6248,-30.6841,
65.0471,77.9709,-8.4307,36.8401,59.293,34.4272,4.5172,-3.023,-31.286,-28.7911,-24.5886,-24.3301,-21.2616,-42.9431,
75.2443,87.3926,-13.3215,20.5297,69.8354,20.0943,4.7372,-3.3327,-36.7696,-33.4423,-15.6226,-29.248,-7.7186,-33.1357,
80.3397,88.4542,-7.1256,11.8077,64.4611,4.7886,7.8874,-6.5671,-25.2405,-28.0014,-25.9714,-13.3931,-13.6342,-17.9001,
61.7808,69.047,-3.7538,14.0435,49.7983,2.4086,3.4887,-9.1174,-9.626,-12.2213,-10.3131,1.5104,-10.853,-11.9186,
43.9739,50.8042,-17.6285,3.8789,33.5629,-1.1703,-10.8206,-11.0236,-9.9001,0.41775,-5.6384,-12.6802,-9.7117,-0.8994,
27.2355,33.6559,-17.1909,-8.6216,17.4492,-15.2001,-7.8481,-8.8905,-15.6852,-13.7073,-7.7538,-26.0194,3.1378,-2.3171,
11.5014,17.5366,-12.2345,-6.1416,2.3022,-9.5111,-4.4324,-10.3198,-2.9674,-7.1258,-3.3637,-11.2107,17.0495,-0.21538,
-3.2887,2.3844,-25.6004,-10.6801,-9.3816,-3.0523,-12.0178,-11.6633,-3.7709,7.4017,-13.9565,-9.5565,1.9266,10.5922,
-17.1914,-11.8587,-18.3053,-5.6224,-22.9187,-14.1548,-2.9553,0.32219,9.7042,15.9191,0.12882,-15.3623,-12.289,5.5407,
-17.791,-20.2676,-12.3009,7.4718,-24.6174,-14.2871,1.1479,3.2467,22.8609,17.9078,13.8601,-0.34053,0.095041,0.30125,
-30.8235,-18.0695,-14.5072,-5.7338,-28.0478,-15.3921,5.0044,-1.8547,12.6564,12.9079,10.0842,9.1329,14.1893,8.134,
-41.3705,-15.0226,-5.7854,-5.3893,-27.3456,-23.301,8.63,4.1448,19.7483,15.0782,15.3682,6.6222,27.438,21.746,
-28.5837,-25.407,-8.8732,-0.65,-26.1954,-23.3747,1.7331,3.4055,22.9794,17.6074,19.8432,5.7343,23.5975,28.4216,
-14.6014,-36.1489,-4.9055,1.8423,-19.2261,-7.8722,8.9898,3.6922,17.1851,20.9674,16.1993,14.7132,13.8407,12.6163,
-27.8253,-32.5087,-0.19562,6.1472,-17.5825,-3.8359,16.7914,10.8305,15.663,15.2929,13.7552,10.3951,7.6127,10.2576,
-40.2558,-25.1606,11.1023,1.3629,-30.6275,-14.891,21.1815,15.5782,7.3634,0.27537,26.1783,13.2067,12.5535,22.8906,
-24.852,-22.1789,5.0386,2.7533,-42.8899,-0.74914,5.8106,9.246,-7.1784,-10.1748,10.5076,10.9422,5.4216,13.1762,
-13.0558,-20.3571,-9.3637,11.9111,-26.2165,10.581,-1.0463,8.2011,7.3523,4.5357,2.3878,1.9438,4.6053,9.9324,
-26.3725,-24.0427,-19.727,1.3829,-12.9963,-4.1538,1.9603,-0.14226,21.0111,18.3636,9.1138,-3.0789,8.2548,21.1122,
-36.2058,-8.5001,-10.6921,3.2626,-5.3473,7.2511,7.7308,5.7544,18.4079,3.2913,0.71566,-3.8758,12.6656,31.6213,
-19.9335,-19.6368,-1.7092,-1.3491,-1.5916,5.3444,9.7207,2.9563,4.0554,-11.0062,0.18216,-11.9846,11.4151,15.624,
-13.2104,-21.8935,-2.0972,-8.6285,-15.5961,-9.0763,4.7215,-0.6559,17.9121,3.7542,14.2712,-2.9241,11.2217,0.58656,
-20.7591,-18.1261,-11.2939,-18.4153,-28.7603,-22.6317,0.021308,-5.0335,24.3267,17.6289,10.1101,0.68616,10.0569,6.6715,
-26.3833,-29.796,2.1411,-18.2915,-41.1347,-28.4026,14.12,-6.6937,15.0163,10.8135,12.4478,7.5147,20.2486,8.2344,
-27.2536,-27.5181,7.4102,-9.8342,-24.5666,-21.3009,17.3287,3.0309,12.6432,10.6548,21.0239,16.3868,11.6739,-4.527,
-17.2774,-31.2646,-3.3385,-10.7163,-13.5386,-21.495,7.9471,-3.5306,16.301,14.432,19.2714,12.9494,5.5759,-9.6529,
-10.3517,-43.4887,-6.082,-2.222,-26.8263,-34.3053,12.3773,-15.0945,11.398,12.5844,10.2648,3.3409,19.3414,5.0262,
-20.5258,-31.6864,-7.6803,-0.12648,-36.6319,-30.9048,6.7272,-8.3012,9.7321,7.904,-2.1283,0.19619,20.7632,-4.4693,
-16.8414,-15.6852,-5.7478,-3.5538,-20.334,-14.9505,3.8708,5.4458,21.415,12.8268,9.2851,7.5447,13.1392,-11.5604,
-16.3215,-14.1235,-15.7075,1.0755,-5.014,0.046527,-2.7406,4.6284,12.7698,9.6044,6.2743,-3.2126,8.916,3.2332,
-29.4422,-24.5614,-15.2551,-0.46122,-18.8131,-14.0563,6.7468,-0.065706,7.5872,18.3502,2.4634,2.3778,14.7597,6.6036,
-41.7757,-21.1254,-6.489,-3.3769,-31.7843,-27.3129,5.3608,-10.8569,12.0394,22.1567,9.1853,14.9925,-0.22587,-5.5689,
-25.1691,-5.7579,-17.3853,4.185,-15.7773,-11.5741,-9.0608,-2.8452,8.8633,11.5038,-0.68925,-0.0070779,-10.1563,8.8652,
-13.975,0.11513,-15.8512,-1.4627,-0.73064,3.2203,-3.2496,11.4255,9.8036,6.3981,-1.138,-14.1067,4.5531,22.4333,
-27.2365,-13.9918,-4.5965,-9.7163,-7.2975,2.305,5.2868,-3.36,10.6871,10.4302,10.216,-5.1784,7.8452,6.9873,
-23.2785,-15.7351,-6.7735,-7.6617,-12.2567,-0.28606,4.479,-12.4814,2.6865,13.2392,15.9822,9.2323,1.9774,0.31845,
-16.4842,-9.3943,-7.8392,-4.7487,-6.1238,13.8311,6.6636,2.3675,2.0343,13.917,3.7371,5.374,5.2931,14.3993,
-29.5952,-14.2278,-7.8604,-7.8986,-16.0609,3.8073,2.8289,-1.0799,5.3471,12.5905,-1.8852,-0.34648,7.4283,2.3792,
-41.1979,-27.4741,-1.0091,-14.7845,-29.1972,-10.5211,9.0378,-6.4117,7.4796,2.513,11.4773,13.7743,3.5482,-1.1979,
-24.626,-19.576,-3.4023,-15.3691,-28.0655,-6.5845,7.0239,5.2587,14.3911,3.8339,-3.3114,23.3819,-2.0617,12.9739,
-19.5836,-11.0412,-15.465,-21.8073,-12.2816,7.0594,-3.7021,-4.3794,16.9625,8.0208,-14.5284,9.7122,-5.3729,20.6669,
-18.409,-8.4169,-2.7613,-9.7042,-18.2849,9.5797,4.3713,2.7517,14.9631,1.6505,0.44334,8.1479,9.0495,5.3269,
-8.4725,-3.0054,-8.4833,4.9781,-13.2624,17.8369,1.1647,16.6866,6.2145,-1.3928,11.832,1.7704,17.9586,-0.52029,
-11.3981,-1.3524,-11.4092,8.7348,-4.1243,15.295,4.5297,10.9089,4.3699,11.9396,-0.16366,5.1,10.5028,13.6109,
-21.9999,-8.6316,-10.234,4.7759,-17.9768,0.27727,-3.1024,-3.8457,-1.2903,7.7884,-1.6255,12.1543,-2.3942,15.378,
-19.2078,-14.4924,-8.1478,9.8869,-17.5192,-4.2858,-3.4072,3.6158,12.8871,0.94237,12.572,10.934,5.1093,6.1135,
-28.3594,-23.9269,-2.2614,-2.9736,-2.3681,5.2953,5.1391,11.7407,22.5485,0.39574,14.4014,4.8804,5.2938,19.8467,
-25.1862,-22.0008,-6.5417,-14.0809,11.874,10.3746,7.2845,-3.0637,10.891,-3.0638,2.2507,-0.80954,7.4289,18.2948,
-24.1656,-30.9853,-9.5841,-14.7077,-2.9384,-3.4967,4.3937,-12.3333,1.8961,-7.296,6.5316,-0.27041,21.0832,3.0971,
-26.6415,-30.1068,0.80453,-1.0674,-6.5576,2.6012,-3.7203,2.5067,8.6516,-2.9323,10.0656,2.6896,10.1347,-1.1436,
-10.943,-14.2004,12.042,7.338,7.9359,16.5452,-0.06226,12.2998,8.624,1.6596,5.0457,-0.90659,-4.5734,13.025,
1.1292,0.75161,18.6797,-4.3879,18.8754,15.1919,10.2451,-1.6871,-4.1612,-0.8937,1.3081,1.6015,5.8756,20.7149,
-9.7336,-13.3935,17.5589,-10.0133,3.6429,0.18036,0.79845,-8.4546,-2.9304,-2.8023,-8.5844,9.3563,16.3182,5.372,
-8.6586,-21.2923,27.7916,-3.0328,-7.5003,-13.9305,4.1849,0.39453,6.5684,-15.8826,3.2168,5.3605,6.0161,-6.8561,
4.1282,-8.7295,32.5028,-2.3608,7.0497,1.0054,11.2946,0.86095,-3.1487,-29.0296,7.4403,-3.303,3.2019,3.8593,
5.8423,1.6078,27.6078,-5.163,10.6812,5.2315,2.7656,-2.1345,-5.9036,-38.213,-5.764,1.8013,5.9536,10.497,
-8.6083,-7.8121,34.2928,0.54391,-4.0597,-9.1824,5.0534,-3.4791,2.792,-34.4476,7.8298,10.0355,2.1615,5.4512,
-22.1918,-15.1943,29.2918,1.4924,-17.9161,-6.7983,5.7313,-3.2703,-5.2263,-41.2136,9.3232,2.5637,-5.819,-8.6153,
-31.4239,-13.3015,24.59,-3.5037,-13.6653,-0.50271,2.4431,-6.9995,-5.8939,-25.9834,-2.0313,5.3532,3.3621,-11.0427,
-20.215,-8.0865,30.4749,1.1225,-12.3549,-14.5725,0.82487,-10.9955,7.7077,-17.0632,-2.4,10.4301,6.5952,-4.9821,
-4.9021,-7.6013,33.5529,2.0372,2.4864,-20.697,3.7197,-10.3358,4.3019,-29.7789,-2.256,2.9345,4.2373,-7.6274,
4.8445,-11.0706,34.4841,-2.0114,8.8455,-5.3552,4.4776,-11.6779,-4.7891,-30.9364,1.8038,-6.0735,6.9264,-16.9838,
18.6539,3.6936,26.5269,11.8492,20.0915,9.0662,-0.69804,-8.0334,5.3127,-19.2658,6.6035,-9.634,-3.3018,-5.1692,
11.776,17.572,11.6869,2.7964,26.2458,5.3464,-2.1283,-6.0792,0.57749,-21.5451,4.7352,-21.3233,-9.4833,4.464,
8.1256,15.3046,18.836,1.647,15.8395,13.858,6.8318,2.1359,-5.3453,-23.1963,7.3949,-16.1189,4.8246,9.1031,
18.4332,11.442,13.7804,11.3622,9.0006,16.952,-0.44781,-7.8054,-3.0623,-28.6742,-1.8817,-11.2264,2.5729,0.70517,
13.8919,18.1162,17.3701,7.2452,0.11868,1.8348,1.0512,-12.7346,-1.4064,-27.4448,0.68448,-3.193,1.9275,-13.4371,
16.0027,20.9547,15.3467,4.8482,3.0568,1.5952,-2.9373,-0.19333,-10.154,-22.8538,-5.2433,-5.9448,-8.0012,-9.8152,
29.1425,13.8088,12.4628,4.5564,16.9734,15.5995,1.1644,9.6304,-4.6382,-14.6138,-2.9674,-9.5135,-17.3352,4.8737,
13.294,-1.1197,9.2617,-9.817,1.855,0.56354,-1.3588,-5.0474,3.0008,-26.9844,-7.2049,-16.3025,-19.7294,-1.1778,
13.9685,10.5951,10.6692,1.4386,-12.3563,-7.8121,-1.2772,0.033379,6.7462,-23.4022,-5.7915,-6.4924,-4.4457,-9.9391,
14.112,13.8844,9.0475,9.2026,-25.7149,-2.4364,4.6875,1.013,-6.4164,-16.1099,-2.4992,6.655,3.3109,-20.1383,
7.8672,-1.0487,6.0509,11.1042,-26.3952,3.1069,2.9337,-4.4458,-20.1314,-23.4857,-16.4493,6.7463,-7.1924,-18.4395,
21.4952,-12.8925,9.6137,15.344,-10.7115,12.734,2.7581,-5.1607,-17.0908,-24.0392,-13.6305,5.3599,5.015,-3.2331,
31.6212,-6.2299,13.9439,13.4427,2.328,5.1007,2.5931,-8.776,-6.2519,-10.8202,-2.0171,6.0199,8.64,8.3766,
34.6304,8.2439,9.1809,9.6919,13.9646,13.6266,-9.3397,4.5079,-8.821,-6.2465,-15.9961,-8.0807,-5.9784,11.7994,
18.4526,17.6923,3.2329,-3.1565,14.5993,22.1325,-2.4002,13.5609,-17.6143,-19.9717,-11.2409,-20.8438,-2.8054,24.3403,
3.2455,2.5308,-6.2835,-14.2528,7.3442,6.7045,5.1041,-1.3527,-15.0858,-29.207,-6.1495,-22.0469,11.4629,8.7799,
7.6982,-6.583,3.9065,0.70239,19.6609,9.1166,8.7233,-8.2713,-0.08061,-13.3546,-2.8372,-6.6241,5.9986,-5.8469,
6.2547,-6.1875,8.5792,3.2435,19.4629,7.588,4.275,-6.7934,-0.43681,-6.0446,-3.6476,-2.6623,-8.4613,-14.0979,
1.4635,-11.2143,-0.27699,-11.0511,21.73,5.661,-1.3796,-0.0066554,-14.5106,-19.7819,-13.7333,-2.9931,-3.1766,0.84793,
4.32,-10.5415,-3.2047,-18.3689,12.5753,12.1911,-2.2779,2.9371,-9.8436,-10.8733,-14.8725,-0.85035,9.7713,9.759,
18.1608,4.191,4.8389,-3.1667,17.7089,23.2354,0.80258,-8.0338,4.847,3.8791,-2.2034,6.0699,-0.62849,12.1182,
18.6728,4.5592,-0.35842,-7.2636,18.6091,10.0646,-1.2083,-21.6518,11.0644,-0.64053,-3.0528,0.79872,-0.59125,-0.38558,
13.6275,-9.8144,-0.33738,-20.9278,3.3926,-0.35192,1.808,-7.2338,-0.39412,4.3049,-1.888,0.75126,13.1841,-7.2317,
13.7914,-9.8451,1.6465,-16.3664,-9.2078,12.427,2.6812,7.3003,-9.2029,9.9347,0.18795,6.5943,3.5607,7.3022,
4.131,-2.3847,4.4911,-1.2844,-15.5251,10.6994,5.4646,-4.2939,-5.7064,0.5067,6.0653,8.1609,-4.5038,18.2793,
-4.4587,-5.676,4.7126,-5.9843,-11.1582,-4.0426,-1.242,-8.4527,-5.8551,-8.8467,-1.6594,11.1066,7.0516,3.0825,
-7.135,-16.1311,-6.3648,-13.4766,2.2691,-11.7799,-5.0924,-0.094275,-3.5411,-10.2786,-5.4848,10.4397,15.4619,3.7496,
-15.0478,-24.4862,-7.455,-12.177,-4.2467,-15.4896,0.60976,2.3647,2.069,-18.0037,7.1107,-4.2867,11.0989,9.9034,
-4.8224,-9.7681,-3.5738,0.82048,10.1081,-0.46022,-3.8428,2.7133,3.4165,-12.5075,8.1566,-14.4636,6.9981,4.8922,
-9.4396,-18.9961,-0.4151,-4.1353,17.4825,12.4548,-3.6122,-5.3003,7.1379,2.3429,6.6861,-3.7817,4.615,-2.2701,
-22.9733,-31.9563,3.5348,-5.8508,2.3335,-2.3925,4.4549,-6.945,15.5411,12.6364,13.1533,10.5452,-0.5689,4.7354,
-31.0478,-20.8459,-6.4904,2.3511,-5.2963,-1.8889,3.2065,-7.5094,15.5898,13.8405,11.3829,9.5514,2.4095,6.4135,
-24.278,-12.725,-10.0259,-4.6592,-17.7363,-9.6259,0.070238,-15.8913,13.6737,13.9917,6.775,9.9599,3.2465,-3.7839,
-8.7213,-12.4525,-14.8219,-0.94529,-4.4049,-8.5573,-3.3693,-4.6337,8.4368,18.5497,-7.7315,8.8713,-11.0482,4.784,
5.902,-10.7238,-19.8208,5.9816,3.7098,-0.19351,-0.22238,9.3833,-0.90179,11.5486,-15.2484,-5.761,-20.3284,-2.3723,
13.6578,-2.721,-7.3458,9.0576,-10.6128,-5.579,6.1692,6.3666,-3.3014,0.55112,-0.23352,-12.4146,-5.0087,-16.3299,
18.7269,10.2006,-5.9239,12.4395,0.69004,-3.282,-0.088626,4.0223,-2.1213,6.4066,4.817,-2.8377,5.2349,-8.6104,
27.4164,12.5328,-4.5874,18.5629,0.6477,-0.1408,-0.083309,14.5761,-1.994,7.0034,2.5648,8.1277,4.9208,6.0062,
27.2435,15.2152,-1.8579,20.8835,-13.4912,-2.5856,-2.5316,16.1548,-8.2531,-3.7209,-5.93,6.1679,6.0977,-8.4541,
22.1745,22.6442,-0.27525,19.1395,-13.3022,0.022783,-0.90754,17.6388,-4.3235,2.881,-3.1209,8.2511,-8.3682,-15.7977,
7.1051,15.3974,-8.1091,17.0104,-4.6528,-5.8667,-4.779,13.6366,1.8241,8.5963,-3.9153,4.8122,-15.8469,-5.0363,
1.7718,4.66,-18.4182,10.1017,-18.1126,-7.4774,-8.4172,3.986,-3.1924,8.081,-9.5685,-2.3458,-0.7961,1.154,
-5.6948,-1.0167,-6.0264,2.1353,-31.1258,-6.5382,-0.55188,0.312,-2.5094,16.9196,5.1056,7.1175,8.2141,5.5007,
-6.3342,1.9877,1.2039,15.7457,-15.1583,-6.1459,-4.4442,6.1819,1.5657,16.8855,5.9104,11.5969,-6.3788,5.1707,
3.8589,2.8496,-8.6823,16.7632,-0.1488,-3.8149,-6.1407,4.8289,3.4349,13.9092,-7.2025,2.0692,-7.5986,4.8604,
-6.1862,1.697,-5.2166,3.0005,-12.7677,-7.511,3.0602,-5.2744,4.2095,16.0185,-0.88131,-0.017691,-1.2546,8.4938,
-13.6663,-0.36754,-0.97867,4.7832,-15.9275,-16.8739,2.8761,-8.8829,7.8828,19.9644,8.0031,5.8715,6.672,18.7797,
-11.8648,-10.159,-0.91948,6.4589,-0.87189,-17.8241,4.6662,-10.3126,12.3168,18.766,11.4488,7.4819,19.0295,17.6525,
-12.6246,-3.1703,-12.15,-3.2512,13.2804,-6.4501,-1.0108,0.61073,8.143,12.243,-3.3382,-2.2895,6.602,2.4933,
-1.0719,10.7593,-12.4021,-3.0561,24.0288,8.0369,-2.9134,12.3503,5.6922,11.5084,-10.1366,-6.0776,1.2994,7.1212,
-4.934,2.262,-6.7515,3.996,13.7551,11.1186,3.15,-2.4907,-4.4634,9.8368,-2.6597,-4.7318,6.128,8.6562,
-11.9978,15.3756,-4.8742,13.0793,-1.1702,13.8868,4.4332,7.3423,-2.7234,16.6064,1.9164,5.8562,2.3259,18.4419,
-23.5447,10.0362,-7.0355,-1.8055,-15.2,-1.0464,-3.1931,19.1686,1.8559,17.0826,1.3108,8.9397,-9.0994,22.7324,
-13.2996,2.5647,0.25587,3.0799,-20.4356,-15.0836,2.8866,8.2049,12.5393,26.8523,5.1571,17.2348,2.2413,12.5361,
-13.4827,5.3552,-12.5169,2.8951,-8.4143,-11.0033,-1.212,-6.0268,13.7501,26.2223,-0.058847,6.3877,2.1068,-0.97347,
-10.7111,-1.8354,-7.84,-10.0355,-11.8354,-12.3058,1.8046,8.4348,13.9067,21.7051,5.8337,4.0417,-1.9446,11.8428,
2.689,-11.5393,-3.4441,-7.4712,-8.181,-10.5863,0.71516,9.5309,4.2394,10.5898,-4.3303,5.7624,1.1155,19.9642,
-10.2302,-5.9399,-8.1445,-4.0791,-19.4668,-6.0262,3.6161,1.1086,-7.7908,3.0842,-9.9586,-1.4536,9.881,4.6663,
-20.9016,6.6837,-13.0534,-1.3801,-22.7143,-1.2472,-0.035275,-3.3743,0.036474,12.2221,2.9062,-6.763,3.8905,-9.7137,
-5.5475,6.2823,-6.3821,5.5719,-7.2515,-2.1549,1.9296,-17.2719,14.1343,21.3023,15.4887,-0.46908,8.5641,-2.0301,
-1.6503,-4.8898,8.1009,-0.65098,0.67343,-14.783,12.608,-30.3356,8.0187,5.9242,14.5594,8.391,18.8445,2.9983,
5.809,9.5036,10.6891,3.8041,14.733,0.20398,4.4922,-42.6154,2.1404,4.4576,3.3822,0.52729,3.6138,6.2532,
18.2178,20.8396,-4.0522,3.5758,26.7364,14.2917,-9.5168,-44.3734,0.048832,14.9853,-5.6536,-13.6044,-10.703,7.8412,
20.0695,9.7757,-8.3556,1.3995,20.2252,-0.5353,0.86775,-44.6548,-2.8979,9.1792,4.5001,0.33032,0.96627,5.408,
17.3932,4.7727,-8.3443,-1.1387,20.4839,-3.9385,-1.6376,-37.5591,-6.1594,2.2497,5.7013,3.7458,6.3059,-8.1649,
10.4606,7.4302,-6.863,2.8555,5.1548,2.1859,-0.55774,-41.1946,-4.8082,8.984,-0.52892,-9.2368,5.927,0.17541,
7.3801,13.3635,-14.7926,-1.7327,-8.0423,7.4519,-0.033717,-35.2881,-5.0103,5.9912,-14.5972,-18.006,2.1366,14.2649,
7.4283,12.0716,-10.4697,-9.9697,-4.1244,5.5335,3.4027,-19.0708,9.3903,11.0303,-7.4717,-2.8257,-4.3703,3.2349,
-1.8498,4.4771,-1.0101,-7.4088,-6.8208,-8.8985,3.199,-16.8154,8.9569,17.2377,7.0766,9.2501,-9.9962,-8.7359,
0.22345,11.0782,-8.8003,2.8488,7.6884,-4.079,0.062766,-23.6574,-1.3945,15.2214,-1.5599,2.8065,1.3987,5.8882,
-7.6408,3.5438,-13.1788,0.71564,21.3271,-4.8154,0.058999,-15.3682,7.522,14.309,-1.4663,3.6202,15.4148,7.1366,
-6.2008,-4.5192,-12.3876,0.67317,12.4562,-11.3957,-4.8506,-19.3522,9.0334,17.3754,6.473,11.2543,12.1666,-7.3916,
8.2713,-4.7391,-14.0976,-1.8205,15.1432,-6.2956,-0.14406,-25.5518,-1.8127,5.0477,6.5747,-0.70713,0.15044,7.1519,
-1.909,-10.3429,-17.1777,-11.5257,21.1039,-6.8994,3.7895,-19.1117,0.25785,-6.0508,-4.6154,-14.7647,2.1041,17.0269,
-10.6269,2.0535,-18.1097,-6.9083,28.6701,-3.5416,-6.2514,-18.9466,5.1494,8.4123,-11.2077,-12.5371,3.9406,1.9053,
-1.6474,6.3467,-13.5887,1.8471,20.5712,1.0873,-1.4599,-29.0959,7.2937,21.777,3.5648,-9.3307,-1.6934,-5.2078,
0.41414,-8.1341,-14.7361,-3.1698,6.5791,-4.866,0.59044,-32.2563,1.95,6.3703,3.4809,-16.6222,1.352,-2.9326,
-3.5366,-5.3223,-12.8704,-8.8687,11.0913,9.5259,4.4809,-16.2209,-0.13065,-4.4464,-4.5793,-8.7556,13.0476,-10.608,
-0.37964,9.0971,-11.1166,-4.4107,19.2583,23.0544,9.1181,-8.7394,-6.0109,9.5593,0.60247,-5.2855,-1.8352,4.1285,
13.7431,13.0967,-16.3382,2.7237,21.0461,25.8556,-1.242,-11.1593,-2.706,9.9669,-5.3223,-12.8201,-5.2895,17.9808,
11.5759,2.4979,-11.4324,-5.2906,5.6834,10.2042,-5.0929,-10.4898,0.40067,1.518,-3.0398,-6.1623,9.1279,2.8019,
4.5027,3.8201,-3.3858,-1.5387,-8.5257,-4.508,0.6102,-2.4996,-4.0398,-2.0075,-0.4041,1.5682,9.6908,-11.4662,
2.7604,3.0999,3.1961,1.0069,2.29,-3.5155,4.008,0.1036,8.4699,7.436,5.9988,4.9085,-4.9906,3.3218,
-9.6721,-9.3529,16.2522,-13.1535,-11.9474,-8.7016,5.2401,-6.2818,17.2851,8.4624,5.1493,8.0488,-1.3858,9.1406,
4.6477,-0.9409,20.1846,-14.4566,0.41569,-10.1427,-0.96288,-1.9785,6.434,-2.8404,-4.9737,-1.2661,-0.32157,-3.1841,
18.4688,-2.3566,20.4447,-4.2662,13.6392,-14.9317,0.56704,-1.3697,-7.2004,-11.0119,1.7034,-11.4952,3.133,-15.2603,
19.9435,-5.6496,33.318,4.3316,14.293,-10.6014,14.633,-4.7229,-8.2406,-1.0282,14.8496,3.2946,17.0451,-3.0585,
4.6469,-12.1808,35.3744,1.127,10.4915,-5.0583,15.8473,-6.4022,-10.69,-2.9292,5.1262,15.9843,11.2449,7.9196,
-9.7319,-14.8839,27.8548,-1.3934,11.3337,-11.1331,10.4805,-5.5266,-3.6703,-4.2251,6.2913,12.5724,-1.6966,1.0662,
1.3867,-13.5003,12.9346,4.0873,15.0697,-15.8631,-2.4152,-9.6119,1.9479,2.4066,6.4034,2.4946,-4.0486,-9.3023,
3.7577,-12.1992,18.5382,-1.5546,11.7122,-10.4949,-3.7424,-1.6744,-2.5845,5.6975,4.548,-3.0517,2.574,-10.2163,
-10.2068,-3.6169,29.2017,-15.5613,16.8986,-7.9025,1.3891,0.38875,-4.3931,3.393,-3.5753,-15.6265,8.3077,-12.5472,
-1.2529,-6.8348,15.1828,-18.6835,21.2808,-11.8452,0.81428,-12.8834,-0.69461,2.6979,-7.7777,-25.9746,-4.4586,-12.2858,
12.9222,-5.9336,28.3718,-3.4625,7.7376,-3.7738,8.1262,1.9896,4.7446,9.8968,4.9563,-10.3161,-10.5697,2.5513,
16.2018,5.2175,26.799,-1.1621,-6.8266,-4.5285,-6.4614,6.9072,-6.3352,13.2284,-9.4411,4.4029,-15.8232,-5.3221,
2.4724,9.811,12.4337,-3.0555,-8.0187,-10.1454,-2.7689,-3.3203,3.8589,23.2298,-4.5886,0.96337,-2.1164,-19.1028,
-3.074,-2.0634,5.3085,-1.3996,-3.1216,-15.9149,2.7953,-3.6117,8.0434,13.4946,5.0101,6.3027,-2.48,-6.3104,
11.2104,10.3277,2.5367,-5.732,6.3887,-3.6747,1.1554,8.8714,1.1821,5.3242,-8.5389,10.341,-7.7288,8.1682,
8.7051,11.6703,3.3657,-10.2947,-3.8087,-8.3608,4.0295,-0.49286,1.1112,10.8933,-9.0086,-4.3795,-5.3028,-2.9875,
-5.9172,10.4795,8.5608,4.423,-5.0518,-7.3686,3.2972,4.9338,15.1445,18.5811,5.6319,2.623,0.41339,-16.9082,
-19.6622,2.4909,2.6505,7.722,-12.1085,-3.4911,-0.33507,10.0354,5.0428,4.2179,0.027358,8.8443,0.87962,-1.7937,
-19.233,2.8316,4.9438,2.8423,-5.9854,3.0961,2.1383,10.9044,-5.5648,2.4926,-5.3728,-0.028227,1.3169,10.5807,
-5.3212,11.4941,10.5363,16.7717,7.1316,9.7805,-0.93382,10.2506,-1.305,12.1566,-2.1066,-1.0081,-10.5388,7.002,
-12.3622,11.295,20.2077,16.877,-7.3963,4.7768,13.2222,15.0336,3.1893,3.0858,10.2876,8.3758,-0.58302,5.1102,
-8.1856,4.2382,7.7105,3.5966,-13.4607,5.9628,8.142,11.6779,4.4696,-11.1993,4.2723,-4.3935,6.8122,1.3688,
6.4055,5.4565,5.7753,11.7232,1.4469,18.8539,-5.5945,6.5612,8.6183,-8.2036,4.5074,-5.6016,0.024346,3.7404,
13.5119,10.5267,15.7338,17.3985,-11.7583,16.2505,-3.7867,4.6954,-2.2038,-0.35158,4.7271,7.0008,-10.2812,1.0627,
13.1918,15.2922,0.68977,7.032,-3.6925,15.766,2.8197,3.9231,-11.3941,-5.7276,-9.6565,-1.7606,-10.1549,-4.3991,
2.0957,7.0144,-13.4516,-4.6765,1.9261,14.3295,1.1779,-2.6914,-3.3502,-11.7631,-14.6042,-15.755,-5.1296,-16.402,
2.9511,16.4075,-11.9234,-3.4139,-1.1338,13.4697,-9.6879,-0.56676,-0.20486,-11.0573,-9.8026,-11.0133,-12.6727,-14.4367,
14.0597,19.839,-8.7542,-10.5693,-0.57517,3.3381,-11.5595,2.9021,-0.68407,-4.9958,-12.6493,-2.0111,-18.2915,-12.0979,
14.6883,9.3257,-13.6266,-7.4819,0.93242,-2.2588,-3.5061,-4.6318,7.6988,-0.27963,-8.455,-5.3258,-9.8333,-4.9934,
12.3344,14.1633,-17.2249,7.067,1.3661,6.2172,-8.6928,-4.8454,5.7652,-8.6052,-8.4392,-16.2919,-1.883,9.4062,
-2.5057,11.8427,-2.0915,3.3381,-12.8159,-8.2559,5.9288,0.84335,2.9665,-14.4671,6.1672,-3.0467,3.6271,-5.2581,
-2.9754,14.5656,12.134,1.6657,-6.7793,-6.4174,6.1931,5.2083,-4.5722,-8.2024,-4.377,8.4214,-9.8389,-19.0426,
10.4515,27.7917,-2.694,12.851,7.7274,8.0676,-8.2785,13.2376,-12.6398,-6.2381,-13.4374,1.5365,-18.5716,-3.8001,
-4.2756,12.0242,4.4673,4.23,-6.8362,8.6951,6.3182,6.5557,-13.8436,-15.6769,1.4689,4.3895,-3.3573,10.5279,
-9.0556,-0.47399,3.7078,-1.4227,-6.4256,-0.16889,10.8452,0.76433,-3.6905,-4.4327,-0.45243,2.6535,10.9441,9.0442,
5.2267,6.4246,3.4849,4.5517,2.7924,4.7482,-3.9055,2.6812,7.3256,7.61,2.5185,-4.3749,-3.8125,1.6323,
19.0131,6.0396,9.1648,4.279,1.6432,4.4629,-6.254,-3.3678,-4.8897,-6.9466,11.1999,-7.0563,-3.4538,-7.2981,
16.5306,-0.21088,-5.485,-10.0777,15.2836,-1.693,-3.916,-17.2657,-18.6963,-20.6298,-3.5721,-20.7329,5.5859,-20.9602,
1.4388,3.2362,-11.1745,-14.5105,11.9133,-6.0079,0.73539,-19.3041,-15.7423,-30.9372,-13.3009,-24.5264,-0.14683,-22.7759,
15.4525,5.4953,-9.0319,0.46013,12.6707,1.7133,-6.6685,-4.0458,-6.4559,-14.981,-5.1421,-13.7309,-7.4988,-8.161,
26.3016,0.25901,-4.5646,9.3949,3.0785,9.4614,1.5824,10.2969,-2.1431,0.017866,1.0541,-2.1128,1.7841,-5.7091,
10.6235,1.7156,-2.8186,4.4148,-11.2062,4.4772,-1.9479,6.9948,-0.54238,-1.6864,-2.4435,0.46721,-5.6837,-12.7263,
12.7999,12.4078,-3.6306,-4.682,2.094,4.2095,-2.8121,1.6685,-4.4353,-2.5663,-3.278,10.2532,-0.43523,-1.1676,
17.4295,-0.60487,-4.8849,-12.743,-1.467,-3.4038,8.6418,5.0028,-15.4553,-10.7542,-1.6101,15.0356,4.0064,-5.514,
10.005,2.8667,-14.8959,0.28887,-8.7388,-1.7274,-3.1619,4.2126,-3.2418,-11.5811,-5.929,4.8104,-9.4824,-10.5807,
-4.6953,12.0177,-14.4932,2.7248,-14.5931,0.82952,-8.3697,-4.3821,11.0527,3.2138,7.6742,9.9194,-1.5536,-6.5115,
-18.5136,6.3906,0.47642,-3.3268,-26.4754,-9.0338,5.8714,2.7511,-3.7105,5.1141,16.0471,16.1935,6.3909,-14.9523,
-3.9233,0.60912,5.4839,3.251,-19.4898,-8.0012,12.8794,15.833,-10.3576,-5.4983,7.723,11.787,4.5348,-15.5278,
2.6908,-13.5274,-8.9451,-4.3038,-13.9039,-9.9744,6.7091,0.78301,4.3639,7.0989,8.7318,12.5519,-1.1339,-3.31,
-3.8494,-13.3363,-12.9535,-8.4611,-10.6164,-3.9784,-3.9976,-13.364,7.6669,15.0149,4.7735,8.3644,-2.538,4.2485,
4.723,1.5638,1.9237,1.3691,-13.4143,5.5828,-1.304,-1.5355,-6.8931,0.013961,4.9777,2.4645,3.9934,-4.3479,
7.3835,6.507,-1.9876,6.1939,-10.6467,-4.5657,2.6992,0.51935,-7.5911,-14.0869,3.6974,6.2425,-3.1164,-16.8448,
1.0533,2.1907,-15.9683,3.8596,1.7688,-7.2356,2.5377,-12.2687,6.9644,0.85834,-6.338,2.9242,-8.8175,-4.0574,
-8.3329,-2.3572,-14.1582,-2.7507,-6.6792,-9.2547,8.7641,-15.949,5.6954,14.9068,-2.5224,-0.68662,-2.8909,9.4344,
-11.7588,1.7101,-10.3658,0.35819,-12.1666,-10.6631,2.3492,-0.8921,1.4278,9.105,0.57186,8.187,-1.7368,1.9982,
-13.5066,0.13538,-16.1216,-1.1355,-10.9455,-3.6437,-0.24406,9.1045,8.7028,11.0129,5.9361,10.1491,-0.1595,-4.5004,
-8.7708,-4.7793,-10.2477,-11.8615,-15.1954,-6.3693,2.7149,-4.1991,9.1618,16.2407,9.5053,4.6336,2.7944,2.6393,
2.0596,-1.0581,-14.0493,-5.7532,-3.9805,-12.3659,-1.8645,-7.3825,-0.7109,14.7752,-4.3134,1.9023,-6.6972,7.8786,
5.8619,11.7632,-17.1313,3.4244,9.0162,-1.8104,1.1912,7.1604,-7.5375,8.9817,-4.0551,3.7509,-11.2015,1.5177,
12.3794,22.8341,-13.1596,3.2194,15.3454,12.3983,-4.7684,14.2211,-9.048,6.4801,-1.8481,6.4696,-9.5478,4.3705,
7.7108,7.3641,-10.4073,1.0626,0.3247,-2.4456,-7.427,5.5165,-8.5055,9.0351,1.2057,7.063,-0.14342,15.884,
-6.8519,-7.1778,-13.7088,0.018197,-13.7948,-16.3989,3.8142,-1.6837,-8.9768,13.4,9.9657,11.5453,10.6608,11.9872,
-14.4211,-20.8471,-13.3759,-2.4366,-27.0671,-22.4142,2.1137,-3.0544,-5.9845,15.0497,9.8593,10.363,10.5117,11.7594,
-15.0275,-20.4768,-15.0271,-5.7253,-25.3416,-21.5599,-1.448,-4.3437,-5.1348,15.6184,8.7762,8.2686,10.3716,9.5812,
-15.5976,-16.7945,-14.616,-7.8346,-23.3305,-20.7569,-3.8149,-4.5727,-2.373,16.154,8.7412,7.2819,10.2398,8.5158,
-14.6622,-12.843,-14.7206,-9.3272,-19.968,-18.5299,-5.5487,-4.2989,-0.26791,18.1285,9.1973,6.8445,11.5881,8.0053,
-14.2735,-9.6191,-14.3284,-11.2218,-17.2977,-16.928,-6.6879,-5.5131,2.2014,19.4941,9.1365,5.9438,11.3839,8.0151,
-11.4539,-5.1166,-12.4867,-12.5107,-12.3345,-12.968,-8.2489,-3.22,6.9759,23.231,11.5326,7.5494,13.6451,8.5153,
-11.7487,-13.6415,-9.7752,-13.7233,-20.4273,-26.2899,4.0214,-17.1268,11.4639,26.7437,9.8586,2.1899,3.0124,-6.0956,
-12.0249,-26.5625,-10.1698,-4.067,-18.2196,-35.1471,3.781,-9.8501,18.6278,27.1022,12.2114,10.8905,-6.9823,-13.2192,
2.7966,-17.6075,-15.9388,-4.3135,-3.0264,-21.7517,-4.7872,-0.91673,9.1687,24.0044,7.0627,12.6908,2.7601,1.674,
8.6474,-9.6823,-15.9636,-18.1547,-15.4731,-27.3163,-6.4632,-14.9617,3.7111,17.6567,0.75131,1.1342,9.4642,-6.1473,
7.6366,-5.6669,-16.4779,-24.0656,-16.999,-31.0758,-13.4361,-14.1945,7.904,21.9948,-4.6923,2.5383,4.4799,-13.1392,
14.5396,3.0154,-11.0733,-13.2982,-3.7113,-15.1112,-7.2319,0.75719,4.9769,29.0175,7.857,13.6717,-0.2049,-0.084062,
4.3442,6.2689,-7.9556,-2.1962,-9.8673,-0.10457,-6.3079,14.8118,0.26188,20.8968,12.7822,2.5473,-4.609,-0.57005,
-0.33287,-1.4671,-10.9126,2.352,-16.6351,-9.1608,-2.4941,1.9162,6.6258,21.1152,1.7121,-0.058837,2.0462,-11.8211,
-1.7841,-15.479,-15.6555,-11.8891,-29.737,-22.7112,3.0531,-11.4472,1.8118,14.4507,-4.7693,4.3611,-2.4921,-14.5462,
10.5893,-18.1152,-12.2629,-13.7595,-29.5553,-35.4485,1.3978,-0.45622,6.1195,10.1492,5.82,0.66415,-12.6476,0.42657,
-2.8039,-31.1282,-10.5455,-9.008,-27.7816,-34.5622,1.3144,-1.4104,3.7897,8.5587,13.3221,-0.35729,-8.944,-0.45108,
-16.7357,-33.8061,-5.9874,-7.4864,-13.3573,-19.7311,3.1977,-9.1766,-10.1772,10.9895,6.6352,7.515,5.6926,-14.524,
-11.9361,-17.6777,-4.1564,3.2673,-7.1587,-4.4473,-1.4101,-2.2478,-6.1317,15.7272,2.8013,0.68493,11.3687,-8.8751,
-4.8408,-2.517,-0.47219,3.5619,-20.8292,-15.3361,2.1094,-1.6215,5.5219,11.3497,7.0501,-1.809,-3.4134,-13.7397,
9.1891,7.7071,-3.3872,7.2736,-5.4795,-11.4717,3.946,-2.5053,0.28407,9.6866,-4.168,3.2061,-12.1705,-22.7293,
15.9976,6.7536,-9.5636,8.3093,8.9493,3.3166,2.2361,0.097357,-5.1305,20.3907,-11.2787,-0.42065,2.6597,-11.0615,
11.1127,0.46026,-8.0082,-1.0217,3.1452,14.0418,-1.823,-0.88914,5.972,27.9996,1.1747,3.5295,-0.31419,-2.5465,
18.2964,-5.4555,-4.5839,-10.7739,11.7889,7.3112,-4.6574,-3.7806,17.3904,14.5439,2.0858,7.2437,-4.2212,-6.3196,
24.0678,-0.22115,1.5793,-10.127,16.9697,6.8721,1.5101,-1.5901,8.4956,-0.42876,-0.98314,-3.0045,1.9202,-14.7728,
29.0029,13.8921,-4.8937,4.5806,16.4421,18.7275,1.9101,10.7721,-6.1141,-2.4957,-6.3222,-13.1288,-3.5921,-18.3024,
28.7353,27.1586,-7.0538,18.4058,21.8347,10.2436,6.2115,9.6353,0.50191,2.07,-0.54482,-3.0186,1.0394,-13.7694,
12.9112,11.4291,-2.7052,3.2014,17.5804,-4.4711,0.93224,-5.0429,1.4539,-4.923,-6.4007,3.0511,0.97701,-24.7195,
7.5896,9.4007,3.3448,-0.29647,18.4878,3.0275,-1.0869,1.5079,2.3468,0.27799,-10.9232,0.9049,2.8816,-16.3666,
9.0979,21.5945,-0.78084,4.6283,6.5838,9.7151,-1.0212,15.5175,-8.5887,-12.4956,-12.2305,-13.2494,-7.1049,-5.5711,
10.0237,12.9386,9.5706,12.692,20.2888,4.7162,0.51176,10.7915,-9.545,-12.2364,-15.9127,-14.5462,-5.2069,4.0857,
-4.6777,-1.9377,17.8283,1.1363,33.1715,-6.3619,2.4442,-3.5955,-12.8977,-13.4654,-12.0146,-12.6923,1.9752,-5.9725,
-14.3396,-6.8576,30.007,-3.3483,19.6645,-4.5071,16.3976,10.7203,-2.8009,-15.1108,2.8063,0.33651,10.1986,-10.0306,
-14.4613,7.6539,27.2245,3.7214,14.5592,4.5943,16.5244,12.1698,-3.6149,-12.2419,-8.0277,-0.66573,-2.1905,-3.5411,
-15.0658,6.3421,39.6911,10.8588,20.0643,8.7351,13.0796,8.9863,-2.907,-1.2023,-3.1296,-0.13476,5.3017,10.7714,
-22.5028,-8.1384,31.0614,-3.8927,27.2023,-5.889,5.9162,2.0684,-4.2047,-12.4163,6.3821,-7.4865,12.3443,3.8768,
-11.8306,-1.4009,15.0977,-15.0748,37.8365,-5.1751,1.1448,-8.3607,-0.5171,-12.1615,-1.3615,-15.3792,5.224,-10.4558,
2.9793,4.0812,26.3291,-6.8101,35.0758,8.3843,3.5298,-8.3496,0.0044875,-4.0715,-5.6958,-15.9281,-2.4497,-21.2446,
16.9005,2.8542,27.6927,2.4305,35.9155,12.7878,0.37372,6.2513,-2.9401,-0.88384,-10.2616,-16.9356,0.64158,-11.1379,
1.7865,-8.1107,11.9312,-8.5091,23.947,0.24473,-1.6114,7.4784,-4.7264,-6.718,-12.5888,-18.8633,-2.3407,-7.5249,
-4.0788,6.1144,10.5952,-2.1109,30.3611,9.062,-4.459,5.0665,-5.4239,-8.2781,-7.9089,-3.992,-13.9766,0.77743,
10.2659,19.4865,12.9043,5.8671,31.4842,18.3318,-9.0976,6.7262,-13.9309,-12.6884,-14.3037,-1.7898,-25.8958,9.5632,
7.3262,8.5038,21.9426,2.5703,15.4951,14.2872,5.5483,6.3212,-8.189,-5.0579,-2.6508,1.2605,-10.2421,8.9889,
2.4706,4.5587,12.2847,-1.9999,25.2301,11.9582,-2.5059,2.508,-12.1127,-8.1893,-9.852,-5.1934,4.2414,-0.87291,
10.6643,18.3852,7.1321,8.4251,37.8163,19.5826,-10.6974,12.6626,-17.7646,-17.0199,-17.6018,-10.2784,-10.1131,-1.3106,
24.1244,28.2067,12.5918,22.0196,35.6768,24.2953,-9.0745,14.8462,-9.83,-17.9619,-10.658,-15.5512,-13.5622,-3.1952,
31.6389,18.1729,16.2523,19.8464,32.0645,21.3659,-6.0763,0.70653,-8.7496,-11.4871,-11.4902,-17.071,-9.3136,-5.4572,
15.6406,8.2501,11.3522,4.5556,16.0407,10.2704,-5.7121,-0.31745,-22.3246,-6.872,-13.7456,-4.2709,-15.624,2.7206,
1.3237,21.8551,10.6711,6.6055,5.6252,20.4493,-7.3317,13.8016,-26.5118,-6.4597,-13.902,-3.0326,-17.6309,16.6574,
12.5295,27.543,16.4095,17.4944,7.741,18.7313,-5.4196,11.1408,-10.8211,-8.5254,-6.6892,-16.9506,-7.25,9.8998,
10.7971,18.0392,11.499,4.669,9.2392,3.8685,-9.0203,-3.6277,-6.1173,-2.1257,-10.2128,-20.9701,-13.6843,-2.47,
20.4534,16.4667,-2.4393,-1.9898,20.9522,7.0717,-17.8021,-10.4088,-17.0355,-5.4335,-22.8484,-27.0727,-26.9632,-3.7939,
18.2451,13.5165,10.4654,-4.8147,6.9377,7.6285,-2.634,1.0109,-13.0691,-14.9206,-7.7381,-20.5408,-11.2454,-5.5285,
3.0504,11.2333,23.9374,0.8717,-7.5786,-3.1333,9.4308,3.4035,1.8151,-6.6655,2.0492,-5.2084,3.5293,-7.651,
2.7378,7.615,11.8365,3.7637,-13.142,-6.8707,6.9018,2.2182,14.594,7.8344,3.8885,2.1034,-1.9505,-16.0239,
11.8961,8.6298,7.6905,3.0473,-7.9375,6.7895,9.9225,10.4265,4.3949,6.5132,9.0523,2.4677,-5.2683,-13.5908,
-1.085,-1.211,0.85041,-5.4774,-21.5612,8.8354,0.0041834,9.3099,-9.9688,-6.1449,-3.7572,-1.1157,-0.53578,1.3246,
-15.1199,-10.9519,5.7064,-7.1115,-31.1927,8.3057,-0.97766,6.7886,4.2388,3.0563,-0.58795,11.7091,2.4402,15.3452,
-19.2492,-5.8783,4.873,-7.1758,-15.2211,18.1115,-7.2977,4.9091,8.4,-1.5436,-5.9502,3.6468,0.82164,0.32445,
-9.7533,8.5744,-0.81696,-2.3288,-0.20787,31.1248,-4.4066,16.8818,-6.204,-11.7551,-8.0465,-10.6721,2.2445,6.3226,
-1.3159,15.0596,1.1957,-2.1886,3.0094,43.1267,0.76485,13.9062,-13.8117,-8.105,-2.6567,-13.1051,-11.9902,11.8323,
-5.1633,5.3232,-1.8213,-1.0771,-3.0607,41.5193,-7.1319,1.2956,-9.0585,3.1755,-2.4982,-3.4878,-17.7795,7.196,
-18.9535,-5.7909,3.195,-2.9752,-16.6161,32.1589,4.0907,6.1239,-4.5891,7.892,7.4661,2.6096,-2.6127,19.5221,
-31.9163,-11.8231,-0.43108,-9.1754,-14.1469,29.7383,5.3174,9.1918,-3.8227,3.9831,4.5649,-2.9436,11.6441,16.8787,
-23.8817,-16.0197,1.5584,-13.5309,-2.5025,29.9177,5.98,-5.4597,10.5066,15.5209,3.3094,-1.7854,-3.0241,1.7659,
-19.0139,-16.5312,9.8054,-10.2663,-0.88069,22.7246,18.8691,-8.2059,21.782,20.9678,11.4523,6.6622,-1.371,-7.3015,
-26.2145,-7.1979,5.7822,-12.1031,-0.33729,31.6657,10.3767,4.5532,6.3751,7.443,10.2746,-4.0412,12.8113,2.4591,
-35.9273,-8.2377,9.8512,-16.7749,-14.4171,40.0694,5.3381,4.7706,1.4466,3.5615,21.9249,-3.3081,16.5886,12.6161,
-20.5233,-8.2335,7.789,-6.4454,-27.652,36.194,14.3408,3.0132,10.6828,15.6151,24.0447,9.1576,1.4933,-0.40812,
-5.1919,-5.7773,-1.5113,-0.17013,-20.3638,35.9846,11.5181,2.8314,13.9673,20.5668,12.788,9.5893,-9.521,-14.4836,
-18.4893,-15.7348,-2.8918,-13.4083,-15.7067,39.2231,0.52291,-2.7351,10.6759,13.9352,7.6052,11.4672,-2.571,-7.8555,
-20.8158,-11.3558,-1.2466,-15.0576,-17.218,47.1743,-7.8508,-6.0058,10.526,15.5519,4.6952,16.1772,-1.9262,6.7158,
-16.1315,-8.2212,-0.68079,-19.5507,-16.676,40.9094,-1.9822,-2.2111,9.4043,8.241,13.7365,9.809,4.568,-2.8802,
-11.7283,-8.218,-0.14985,-18.8687,-1.5754,40.9081,4.5164,7.2446,4.4236,1.3679,8.4958,4.804,12.6358,-10.0681,
-4.6464,-12.1419,-10.4454,-5.4698,12.6191,45.8139,-0.17153,3.375,-7.1275,2.7575,-6.1139,3.0441,-2.2223,4.636,
-0.93272,-11.9039,-12.2715,0.2555,7.7055,41.5925,2.2925,-3.2066,-2.2839,-0.8428,-4.4045,0.40772,-10.5604,2.0341,
-2.839,0.58659,-7.6098,-0.74095,16.0751,51.8552,0.19271,-2.0322,-1.1648,-11.5874,-1.1959,-9.4298,1.8495,-4.9567,
-11.9926,5.949,4.132,8.6265,8.7319,62.8439,7.541,8.3939,-2.568,-4.5134,2.3102,-6.4108,11.0615,9.4407,
-18.6324,-1.7683,5.3567,19.3946,-4.0588,54.7868,7.5791,11.3251,-7.811,-1.7889,4.6254,-0.62901,14.8138,9.4943,
-3.4144,4.226,-7.7225,15.2871,10.2847,53.4623,1.2362,-2.1123,-9.3051,-15.7816,-3.5035,-1.5729,4.1114,-1.87,
-0.1362,1.5191,-13.6388,0.26987,16.6664,51.7258,1.6521,-16.0855,-2.3681,-25.7598,-5.7465,-8.8383,-10.2353,-4.212,
-4.0534,-3.4795,-11.8394,-1.84,15.6664,46.6591,-4.3347,-19.1763,6.606,-15.3823,-1.4772,-17.1409,-6.8073,-1.015,
-3.8102,0.65564,-6.2215,8.0854,21.5962,50.7302,-0.14918,-15.0805,4.2474,-12.4961,4.5009,-7.2795,7.7011,1.9902,
-7.5066,3.5601,1.0219,7.5998,6.2004,34.9285,8.6922,-15.1572,0.067579,-8.8025,15.0255,7.2572,11.7855,9.7221,
-17.3612,-2.051,-8.3624,-0.216,-8.2716,18.7328,-3.1155,-7.8691,4.479,-7.7834,12.6519,18.728,5.6808,13.5543,
-21.2256,4.9413,-2.9545,0.77761,-11.4697,31.7089,-7.8346,-1.5088,8.1362,-16.1488,9.93,14.6596,-5.4547,9.7972,
-5.8521,18.3847,-1.7957,11.5266,0.9952,43.9063,-4.4207,-9.2687,8.6296,-19.1048,2.465,10.8362,-12.9787,14.1164,
-0.4649,6.977,-15.7879,4.4558,-13.1645,55.3719,-3.6649,-15.0917,3.6949,-15.5057,-5.0441,-0.11856,-1.8954,13.759,
-1.9087,18.8252,-9.5726,17.4373,1.7254,66.1496,5.8784,-0.086206,2.0015,-6.234,0.65655,10.1931,5.5786,21.2758,
-7.1917,27.0187,-2.6196,19.8255,15.7218,76.2806,-5.7604,14.019,-8.4227,-12.2386,-7.7247,0.25856,-8.8561,20.4893,
-18.0459,11.2976,-7.8604,15.2011,0.67853,60.9372,-2.9611,-0.92217,1.4052,-1.1997,1.0802,-1.2286,-4.0383,26.6203,
-17.9452,10.4897,-19.1651,22.1399,-3.2881,58.262,-8.672,0.24381,6.2274,2.7977,-5.8534,3.7516,6.0171,31.8928,
-26.191,18.2027,-12.6171,14.4333,11.0092,64.0898,-15.511,14.3292,0.45669,-0.80505,-0.10511,3.036,-2.6854,31.4518,
-37.3774,7.296,-0.08431,2.7717,1.6462,51.411,-1.8235,8.6924,6.3174,-2.7195,14.0012,5.7976,5.3261,20.7323,
-27.2835,-2.9553,-14.1793,3.5869,1.547,42.4382,2.2109,-5.5681,5.9379,-10.4076,3.9677,-0.43835,10.8956,6.7305,
-20.7404,-5.7218,-17.8745,5.3335,12.2498,39.8924,4.041,2.6164,3.6189,-7.8204,2.748,-4.3379,4.3528,11.2327,
-24.403,-1.4535,-6.0073,3.0508,-2.5852,35.5362,-4.0519,0.49667,6.3456,0.5001,5.527,-7.0215,-10.0083,11.5404,
-23.4289,6.9756,-7.1181,0.41447,-16.5301,28.0064,-5.2809,-6.8929,15.2888,1.9422,3.7241,-3.1649,-4.6304,-3.2521,
-31.3457,-1.7844,-13.0702,-9.914,-29.5368,14.0592,-0.54808,-7.951,7.0112,-1.6091,0.065827,-3.4665,8.8963,-13.491,
-29.4654,-3.64,-19.1552,-3.4311,-15.0067,10.2718,-3.459,-10.4178,3.6467,11.2452,-5.8263,-3.258,-5.3764,1.4184,
-26.2253,-1.9495,-9.664,1.1912,-28.2063,8.1834,-4.7236,-5.3772,14.7131,24.6705,-0.079109,10.1859,-5.5449,15.4333,
-24.1608,-7.2301,-0.74326,-1.3344,-40.6139,5.2391,-12.7821,8.1938,16.2836,17.9223,-0.56539,14.9723,4.1108,6.916,
-10.9353,-4.8336,-1.6793,5.6158,-24.0771,14.7383,-9.0704,13.5903,10.3996,8.9966,3.3944,12.1112,-8.8937,10.4269,
-17.6395,-1.1087,-0.10688,8.7128,-32.576,12.3814,-5.0922,2.4703,4.3785,6.9841,12.5133,7.9497,-21.6089,7.3476,
-30.6811,6.8082,-3.0443,8.1905,-37.4907,0.84384,-17.5436,-0.62174,3.1342,9.5089,-0.013312,0.60347,-9.5168,10.8326,
-35.8395,7.8714,-8.2597,7.2085,-25.9187,0.30172,-5.2062,9.7192,-1.4698,11.3921,-5.4105,4.9832,5.1542,24.2827,
-44.4838,-6.7009,-17.5776,3.8322,-30.2518,-7.5668,2.9574,7.1743,-4.3255,2.8582,1.7843,7.6281,7.9188,11.179,
-39.3615,-20.1673,-7.2,10.962,-24.0202,-12.5103,4.2521,-1.598,5.257,5.14,5.1116,3.736,2.0461,1.1852,
-22.8998,-6.199,5.0083,10.3043,-12.7659,-9.7965,18.097,-6.4087,-0.94697,6.7938,6.7671,-2.3768,-3.9653,15.2141,
-7.4258,8.273,-1.6709,8.2139,2.1,4.8913,16.1596,5.2611,-14.1386,2.9518,8.8144,-3.7063,-0.29203,28.4013,
-21.0803,4.9627,-1.5707,3.7957,-4.7652,7.6716,1.09,5.9274,-9.3648,3.7558,6.3233,5.349,5.6141,12.5972,
-33.9155,-8.0933,0.48675,10.4386,-18.5793,-6.8887,-0.57705,-4.2413,-5.8586,2.5494,2.0194,14.842,-1.5925,-2.2586,
-24.5203,6.4923,-10.3381,8.8297,-12.197,-4.1521,-1.524,-1.0439,-19.2461,-2.5106,-5.954,6.1002,-11.3114,0.32969,
-17.16,-0.14643,-5.7919,0.44957,-6.5581,0.022926,2.4933,12.7586,-9.2589,6.4725,4.2177,4.7526,-8.6691,9.1433,
-10.7333,-4.5536,-6.9161,1.8952,-15.4872,-6.3567,-1.0911,-0.27371,-3.3063,6.5747,0.5298,9.8655,-9.6206,-0.72878,
-5.1832,6.5143,-6.5016,-0.18214,-5.7265,-14.8086,-2.0073,-14.3573,-12.9214,-2.6522,-3.4279,5.3477,5.0566,-7.5543,
-8.3066,3.6701,5.1738,2.2821,7.8655,-23.2431,-0.41468,-9.7004,-9.6929,-7.8907,7.0819,-2.3339,15.6774,-1.7035,
-10.2619,2.9594,2.4105,6.5611,3.9588,-7.7485,1.0819,4.9816,-2.7321,-3.9824,7.1476,-2.6844,0.63677,3.7958,
-23.7462,-1.1441,-2.6411,0.27932,-10.3788,6.8164,5.924,7.7565,-4.5309,-0.79866,9.6635,4.3468,-13.5014,-4.2823,
-36.4215,-6.4725,5.8597,-0.22707,-23.856,-7.6926,3.1157,-0.06914,-6.7119,-2.2234,8.5931,10.4652,-2.1557,-1.5716,
-40.8744,-8.0469,14.3396,1.7483,-34.9506,-18.3867,-0.9971,2.8788,-5.3285,-3.0715,6.1148,9.8368,12.0736,12.6227,
-34.0059,-9.0367,17.8952,2.134,-27.4564,-3.1835,-1.4278,13.9918,-0.59282,-0.43352,2.3131,10.7182,2.6458,23.7702,
-28.0397,-12.4194,12.8965,-2.9001,-15.9955,-8.7507,-5.268,1.3756,5.3309,3.5184,-1.7516,6.1502,-10.2698,13.5125,
-19.9786,-16.0907,19.4826,-6.1614,-11.6014,-22.3256,2.4088,-12.807,4.52,-4.0535,10.6208,1.3647,2.6127,-1.3983,
-4.6799,-1.0253,22.2386,3.0407,3.1947,-11.3021,4.227,-5.2988,0.32385,-5.773,-2.7743,-0.67985,8.3441,-4.3887,
1.1275,12.4146,15.0166,-3.0304,17.103,3.4761,-2.8964,9.1191,-0.67764,2.4242,-13.403,-5.5465,-2.9517,9.9746,
-13.0401,-0.59706,25.4013,-12.1711,1.9768,0.4532,1.6934,8.702,0.83563,2.7694,1.5012,-1.7789,0.66026,23.2447,
-6.0086,-0.070677,27.3121,-8.988,1.4972,-11.8417,8.9521,2.7818,0.29494,2.1126,10.8636,2.7438,-2.8142,7.75,
-1.7217,-3.0107,26.6545,-17.2797,-1.536,-22.9066,15.2847,-1.3096,3.2215,3.9491,4.3241,0.61696,-7.551,-6.815,
-6.0348,-6.2645,26.5273,-15.7529,-5.8603,-23.9864,7.0068,-13.4983,6.4626,0.27678,-0.35175,-4.8176,6.1496,-9.609,
1.197,2.9433,17.0849,-5.9757,1.3611,-14.6954,-0.28236,-12.6884,1.1683,-7.5907,0.65141,-7.4719,11.6692,1.7627,
0.14309,9.6365,14.0966,-9.5426,4.2237,-14.7957,6.6034,-3.0951,-1.8461,-4.1909,6.5,-3.0991,5.0804,-8.1571,
-4.2815,1.698,14.7225,-6.5172,1.5165,-21.2683,-7.0408,-7.3254,3.6618,3.4199,-2.2323,-2.4226,-8.4733,-14.0468,
-0.098699,-5.2731,21.6914,7.9738,-10.3503,-28.8237,-4.6556,-0.99682,17.5421,10.0858,10.6604,4.5929,-8.9446,-0.44524,
-14.1928,-12.8071,10.5763,1.2471,-23.8292,-37.8889,1.5118,2.9879,6.3159,0.64823,10.0212,-1.5708,-9.3895,-9.251,
-25.738,-1.2445,17.7917,7.06,-22.0394,-21.5156,15.5211,11.6406,0.048372,7.4781,2.5493,2.4489,5.2739,-3.7894,
-10.0937,-2.1509,23.5939,10.5627,-11.8841,-14.6985,13.2472,5.0536,1.0266,5.0672,-3.4913,-0.64235,3.6148,-1.5998,
4.6119,5.3379,8.0782,7.4748,2.9289,-6.4558,-1.6476,-4.5726,-2.4694,-6.523,-9.6605,-14.7038,-7.8882,-6.9013,
9.0111,11.8874,17.278,8.9894,9.7524,3.7446,12.5513,0.60922,-5.2655,-3.1873,2.6954,-3.156,-0.54523,-1.5798,
-3.7968,-2.0743,26.5455,13.8476,-4.9327,-10.5801,16.7057,-4.8249,-10.3472,1.4204,4.0058,7.3375,-5.9101,-14.7334,
8.2072,-0.9687,14.1576,16.9422,-9.6738,-14.9813,4.9082,-5.5165,0.087679,8.2048,5.7277,1.0096,0.33312,-13.8494,
13.1124,0.56157,5.9474,4.6395,5.0067,-14.5735,8.0481,0.2111,-1.3897,10.1649,10.7816,-3.4674,10.6172,1.0816,
22.1392,3.4717,7.5533,0.43619,17.5936,-11.7364,10.509,5.1054,-15.4063,12.4998,-2.6232,1.6476,-4.1198,8.0154,
25.7174,2.2823,9.0632,2.3723,4.7618,-18.883,13.8048,4.7991,-7.2512,10.7687,-3.4469,2.5299,-11.3624,0.66481,
10.0743,-11.9547,0.17759,-5.1299,-9.6239,-31.85,3.6536,-9.5888,3.488,-2.1447,0.19525,1.8871,-0.37656,-13.4751,
-0.47273,-25.3374,-2.7764,-11.6918,-23.1465,-44.039,-6.3797,-16.9939,0.33439,1.9094,-5.7051,4.7181,0.62716,-22.6092,
-0.93586,-14.2626,4.7495,-8.5366,-30.8497,-30.8611,6.2699,-1.8742,-3.1205,15.0427,1.0155,7.8699,1.0801,-7.1526,
-1.3703,0.69312,-9.6355,3.2613,-14.8987,-21.6491,0.49664,12.3382,-7.3493,3.8365,-4.4426,-2.9069,-3.4007,0.76586,
7.0529,-1.6727,-11.6406,6.5,0.095242,-23.7855,-5.9128,15.2923,3.3958,4.0964,-2.7039,0.70194,6.1263,-13.3801,
8.1028,-5.9878,-5.5437,-7.99,-5.0481,-28.7361,-6.0481,0.27476,0.73877,11.2114,-5.976,4.0951,1.3432,-21.0477,
20.3745,6.1472,-0.30497,-4.6963,9.3548,-12.912,6.0915,6.998,-11.0823,9.5571,-7.5802,0.90561,-2.6632,-5.6849,
18.1704,1.8534,6.5835,9.6855,22.8935,-1.7036,19.826,15.4105,-1.5849,8.0021,6.9746,4.7762,11.5966,8.7562,
2.9802,-12.3578,-7.5509,4.8179,12.947,-13.3777,4.5365,0.38591,0.47335,7.522,-4.6,-5.3234,15.4463,2.6013,
16.9014,-1.9327,-1.7003,3.0576,15.6055,1.525,-6.0403,4.1587,-0.046076,16.3936,0.09244,-0.58851,15.0105,4.8985,
28.6447,2.5997,-1.1073,-4.4866,21.0479,8.9228,4.6262,16.1755,-14.1433,1.31,2.5402,-3.9876,0.0098862,14.9096,
34.7764,9.3129,-4.9667,-5.199,33.523,8.387,8.2736,8.3357,-7.537,4.0457,-5.4636,-7.6742,-4.0461,5.1817,
32.6902,-4.9848,-1.7249,-15.6817,21.699,1.9966,7.7776,-5.9034,7.0152,15.5797,-1.2099,-6.2322,6.0102,-1.9985,
35.1448,-15.9714,1.8135,-14.2502,13.0368,-1.5581,5.8393,2.7922,5.7436,13.1723,5.241,1.502,3.1958,8.426,
32.546,-4.709,6.1211,-6.0354,12.7447,-3.9179,11.8676,9.0034,3.9268,4.041,4.4364,2.8841,6.4394,-5.3279,
31.5744,0.48006,8.6972,-6.6544,11.98,-7.6082,15.081,1.5934,4.6724,3.7986,6.1325,0.74783,8.9974,-19.1083,
42.9283,-2.9831,-5.0721,-2.8198,15.6777,-12.5493,0.92773,1.0077,-9.708,5.0428,-4.5396,-5.6757,-5.6425,-12.2027,
39.371,-7.7112,0.1383,6.1809,0.99805,-23.573,6.7602,4.8722,-15.1432,0.81436,-1.3234,-1.4093,-17.2102,-17.3596,
27.6867,0.11226,4.5464,12.1896,-5.4405,-32.4628,10.771,-1.7979,-2.9484,-0.70665,7.0979,5.054,-2.0776,-20.7335,
27.9878,5.0121,-1.6149,8.514,8.9859,-28.5528,3.2551,-2.672,-4.7347,1.2989,4.7088,-0.15583,12.1471,-5.3895,
28.2712,3.7298,4.3701,6.0404,22.5468,-16.044,8.9479,7.3018,-9.3576,10.0525,5.4079,2.7974,9.2245,6.3491,
12.4749,0.07111,-9.9921,-4.6266,35.2939,-14.5908,-5.689,-7.2363,-14.1933,-3.7986,-9.0166,-7.6751,-1.6335,-6.2987,
10.6153,6.9366,-19.3357,-3.3679,31.6026,-6.8456,-17.2539,-20.6706,-9.4162,-15.3469,-16.4564,-16.0465,-10.3675,-8.8651,
19.792,6.5208,-4.0755,10.9342,40.5012,1.4155,-15.2371,-5.3304,-11.7951,-15.4077,-10.562,-21.953,3.0124,-8.3327,
4.5044,0.24099,-1.2477,3.0483,36.1088,-7.5014,-2.5466,1.4972,-19.9203,-11.539,-10.9094,-18.6736,-0.11264,-3.9083,
-9.8658,7.5868,-3.6257,-4.4948,19.8423,-2.6344,10.8551,0.91775,-4.6251,3.2534,2.0129,-3.4531,-14.2059,10.4262,
2.2429,1.734,-17.5081,-1.7719,23.9193,4.8835,-3.8962,6.2602,-7.652,-0.24716,-12.2079,-7.5324,-21.8244,10.4217,
3.0899,-7.2015,-18.5508,-3.6283,36.5842,-2.2797,-10.6622,10.7907,-14.063,-9.0638,-8.662,-17.8751,-6.415,0.96396,
0.45074,2.5531,-17.9283,-8.8086,20.7792,-16.2429,-6.5876,-3.1056,-5.859,-12.9369,-2.7452,-17.2932,5.8748,-13.1939,
14.5237,16.4999,-26.1751,-1.9009,14.1354,-9.0192,-17.478,-4.39,-3.0537,-9.707,-15.8284,-20.6716,-8.5777,-19.8916,
21.1421,3.3726,-14.3005,0.66638,11.8151,-7.0059,-6.1252,3.2332,-15.1378,-9.6156,-13.4066,-15.9969,-11.6265,-4.5981,
13.0043,-1.7367,-4.6101,10.4409,11.1067,-2.6597,7.0001,17.1392,-6.3782,-4.1316,1.4978,-0.93707,3.1711,0.71433,
14.1868,0.33018,-17.0913,-5.2696e-05,-0.3544,-9.3693,-3.2334,14.7682,-1.0885,0.042163,4.9728,10.5348,0.65707,-13.4285,
6.9573,3.7452,-7.7244,-2.4529,9.9705,-11.2609,4.3209,6.5219,1.4296,10.3442,0.25845,11.3744,6.0147,-5.8836,
-6.709,-3.8398,-12.659,0.14712,15.7514,-7.1513,4.5522,10.5465,0.85329,4.3255,-10.0616,-1.5749,-2.6875,-0.13345,
1.0529,-7.0442,-12.39,5.5354,8.4272,-3.2874,2.8064,16.2929,-1.6516,-1.332,-1.1165,1.9536,-6.9432,-3.5603,
6.3882,-0.24289,-12.1367,1.7698,16.2634,-4.5614,-3.7397,1.2153,-14.8,-4.6865,-0.55852,1.3463,-2.1092,0.088646,
-2.3369,-1.7005,-16.8061,-4.716,18.722,0.12783,-4.0064,-4.3847,-11.4597,-7.8397,-2.9792,-10.0197,3.414,9.4063,
-9.0669,-3.5611,-16.7793,-3.4514,7.7851,13.8591,-1.8042,9.9784,0.022568,-8.3509,-3.782,-6.4747,-5.6233,7.8603,
-14.4101,1.5595,-14.791,-0.30053,3.3931,16.9535,-0.71437,10.9814,-1.9406,-1.9617,-6.499,-4.1235,-4.3043,4.4449,
-23.3595,-0.49629,-2.1272,1.6807,7.1149,1.8363,13.0679,6.3971,3.0824,-0.86198,7.991,-3.8761,10.0539,6.1414,
-16.5604,0.023585,-9.3594,-0.87343,18.9553,-10.1797,1.9797,9.4476,7.3139,-12.0964,3.7166,-2.1714,10.5623,-6.4944,
-4.7721,1.9849,-19.5935,-4.7469,15.8543,-12.5137,-5.9903,-3.8771,12.7632,-8.4268,3.4931,-1.0595,-2.8293,-20.2047,
-5.957,-1.5686,-10.076,-2.0088,7.5433,-20.1038,2.7109,-13.9486,14.4507,-3.5048,14.5697,-3.4492,-0.20627,-22.0667,
-2.1651,3.9231,-11.9247,-2.3784,15.4325,-14.4821,-6.7747,-3.7887,4.2607,-10.6552,-0.4045,-9.6219,-8.5358,-6.6427,
1.8897,7.6126,-2.3768,-2.2362,4.6921,-3.7996,3.4453,10.1776,5.9677,-10.0154,-2.4734,3.7133,3.7531,0.75554,
-1.167,1.2682,0.70919,6.73,-9.6894,-14.3667,9.1272,9.567,2.6654,-18.2474,0.6193,5.4536,16.2853,-12.0481,
13.003,15.2921,-5.7121,16.6303,4.9919,-11.0505,-0.74342,9.484,0.052174,-16.6615,-3.8343,1.6911,1.2082,-11.8153,
18.2405,21.3734,-15.1829,1.5325,12.0527,-7.4437,-8.5501,-5.1851,-10.7456,-13.6991,-3.6038,-1.3542,-12.9643,-13.0691,
7.8231,14.6934,-8.8743,1.3115,13.7837,-6.506,1.2859,-7.9482,-6.6665,-15.3304,2.01,3.1435,1.9136,-3.944,
-6.7463,7.4336,-0.00047976,8.593,1.671,-12.4948,10.5322,6.6286,0.11265,-24.7152,4.3432,8.352,15.8987,5.6161,
-0.092856,17.2917,0.49058,13.4741,0.097683,-0.4599,-2.367,11.7585,0.59598,-19.7979,7.517,9.323,4.1497,13.62,
6.2923,14.782,2.9144,11.1944,4.5083,10.8539,-0.75287,7.6186,9.8832,-4.51,14.4257,7.2915,12.2426,17.2193,
-6.843,-0.2049,3.7211,0.70922,0.31282,-3.8974,13.3923,-5.5964,15.1783,-1.1651,15.5229,8.8167,12.4896,2.0861,
5.3438,3.1127,-10.6021,-3.2587,14.394,-17.7635,14.19,-17.0368,0.16765,-7.9649,2.8153,0.43687,-2.3598,-9.4543,
19.1232,1.4538,-22.8538,-17.1632,27.6304,-30.7977,-0.76142,-27.3008,-13.9424,-20.7354,-11.4536,-13.6893,-16.3182,-17.2289,
32.0758,-5.9942,-11.1785,-9.8843,40.0726,-36.6996,-5.2617,-19.2841,-12.3838,-16.056,-10.4049,-16.4328,-5.7851,-16.6852,
35.3168,1.2352,-11.4889,-13.2176,51.7682,-35.4788,-0.039469,-25.9779,-7.7154,-17.0558,-7.8184,-14.4657,7.3194,-22.5538,
31.7261,14.41,-0.495,-20.7659,62.7621,-37.766,7.3241,-25.8909,2.071,-11.6165,5.8996,-11.1441,10.3151,-23.6543,
43.9226,12.5633,9.3478,-8.7248,73.0964,-39.4255,13.7534,-10.2374,11.7598,-1.1055,11.4333,0.31972,7.734,-18.3097,
38.9635,-0.94786,6.8247,-2.3127,54.6106,-44.9108,15.8725,-11.9469,0.26005,-0.058028,7.8039,8.1514,12.1765,-14.2668,
23.8683,-0.89099,5.4331,-10.0257,37.234,-53.9933,10.0136,-19.0809,-9.5696,-7.9054,6.3536,8.6434,7.5205,-4.5788,
15.5665,-3.7818,8.0514,-12.3676,20.8999,-64.8537,10.3939,-13.0295,-4.0889,-18.2262,9.8978,0.27397,10.0135,2.5656,
9.725,-15.3312,19.3446,-0.83131,21.9972,-65.5085,20.5654,-4.3969,10.2565,-13.2072,23.404,6.1461,23.5127,-11.6883,
13.558,-9.0137,19.6561,8.5416,27.0561,-47.478,9.0274,-8.5496,14.6772,-5.054,12.3162,12.156,10.4552,-25.087,
8.8195,-2.5848,24.3658,0.17869,21.5078,-48.4238,6.5231,-10.9795,8.8905,-3.7692,7.6522,7.5017,-3.9111,-10.5929,
-4.9585,-8.8089,37.0038,0.65853,20.7079,-46.991,20.2317,3.7793,7.8665,6.7606,13.5713,6.5601,10.4236,4.1427,
-15.9462,-15.6401,31.4783,7.9788,22.8998,-32.8863,10.8059,5.1537,5.9223,14.6968,2.4529,5.6764,10.4183,11.3839,
-29.0895,-25.4969,32.5329,-6.5999,7.4258,-44.6516,8.1944,-9.2555,10.4735,13.815,9.1746,9.2613,3.9046,-1.0754,
-41.4441,-31.3269,38.9228,-18.1097,-7.1197,-56.0725,13.1003,-17.6616,19.1681,13.4771,16.9659,2.3269,10.0499,-15.1109,
-40.1986,-36.808,38.0596,-7.7001,0.89922,-46.459,10.8421,-6.2978,21.4524,18.0651,20.3644,-3.2103,5.0305,-25.619,
-33.3707,-43.922,33.3223,-7.7287,0.35471,-51.0317,9.701,-20.02,14.7682,12.5653,20.6142,8.268,-2.6316,-15.7404,
-27.9331,-31.9637,24.9443,-14.6257,-7.0273,-55.3306,6.6657,-27.2906,5.5402,1.5072,10.0544,10.2252,7.8304,-19.2124,
-22.8227,-15.9459,26.8829,-17.1825,-8.0769,-41.7057,10.6822,-13.3859,4.7177,13.6841,14.8487,6.1764,19.6278,-32.1597,
-13.1115,-8.4809,18.8913,-7.8097,-8.0833,-30.8615,-2.226,-17.9803,-2.9252,26.1114,14.4488,10.2222,8.1461,-30.8507,
-1.5297,-8.9532,20.7012,6.3983,-14.468,-28.0287,-8.9622,-10.0318,2.1569,23.5636,14.563,23.7089,3.7319,-14.8996,
-15.5379,-18.23,24.3666,-0.85533,-27.3384,-31.2544,-4.499,2.3464,2.0275,11.3547,11.727,24.8692,5.4702,-0.62772,
-11.7922,-5.8505,23.3942,-0.31344,-11.5981,-17.1124,2.1501,2.6962,-6.4365,12.1451,5.6253,9.277,3.6703,13.5099,
3.0153,-1.5731,25.9169,4.6128,3.1978,-20.0101,4.9654,-3.3533,-8.0126,9.4541,12.1575,-0.24062,3.4501,17.7368,
-1.4516,-9.3305,22.3987,10.2237,-3.1133,-23.717,3.6854,4.6988,3.2633,2.9983,14.3724,3.6992,4.2242,2.5726,
-8.7243,-5.3354,17.6204,11.0825,6.3965,-15.9153,3.9553,4.9069,12.3905,7.2348,14.0001,2.0051,-0.44475,-11.4507,
-17.5243,-2.5624,16.0726,6.9826,6.5033,-19.3763,-3.6423,-1.7666,-0.62067,6.3093,12.6696,-2.5321,0.072497,3.3363,
-14.0187,2.0078,10.6918,9.9981,12.4918,-12.8162,-15.691,2.7558,-7.9432,6.4217,-0.35696,0.074042,8.4091,17.2362,
-7.2903,-5.964,10.0498,1.5469,12.7229,-8.1223,-3.954,-0.35338,5.2912,2.1105,-1.3171,3.9946,8.8861,2.102,
4.4328,-5.1156,8.9563,-1.9808,22.2641,-14.0131,2.6615,-2.7859,11.3519,-0.4689,2.1958,-0.6611,10.8058,-12.1241,
9.0738,9.2913,2.5308,-1.8615,35.0283,-6.3031,-5.3486,5.2325,-0.12384,0.54083,0.10229,-14.3604,4.2702,2.7033,
14.418,17.2057,14.1552,3.1568,34.5287,8.1751,4.7854,16.6949,-4.0418,-0.47368,5.0027,-15.462,-10.086,16.6411,
21.8943,11.7574,11.8342,9.3465,28.041,10.7589,3.0266,14.2215,2.5798,-1.9169,-0.69457,-15.0239,-10.5919,1.5426,
6.4806,-2.1969,-1.1427,-4.4622,13.1097,-2.1535,-0.58985,3.0636,1.9345,3.5961,3.7631,-6.7631,4.1436,-4.309,
-5.8144,-0.10194,-5.9807,-14.9896,9.3788,-0.06203,-0.55446,-2.0267,-9.9578,-2.5083,4.5184,-1.4508,10.8937,1.8382,
-1.5402,14.0042,-1.6964,-7.2205,17.649,5.8303,3.4042,3.0014,-2.4916,-6.2832,-2.6224,-5.2891,1.4081,3.6901,
-15.5478,2.4988,0.85819,-6.2967,2.49,-8.6195,8.598,-2.5767,7.9625,-1.4902,0.9698,-4.4803,7.7028,-9.7792,
-20.1415,-7.9553,0.31661,-6.41,-10.0567,-22.2024,0.72139,1.9943,4.0503,-2.8729,0.42152,8.0549,9.6939,-8.7015,
-12.0642,2.3351,3.241,-7.0065,3.3051,-14.261,-1.2841,11.6887,-0.11809,-2.7006,-3.5301,11.497,-3.646,4.578,
-3.4891,11.0275,2.0649,7.5139,6.0506,-4.5729,1.7367,5.0983,2.8328,7.275,-4.2999,-0.96954,-17.1662,11.1726,
8.9875,11.838,-6.3999,19.9504,4.2154,-2.8264,-2.7839,2.3401,1.1907,3.4041,-9.4385,-5.3269,-16.6264,12.9555,
8.9393,9.6555,-0.61834,19.2444,0.52809,-6.0912,3.7627,15.4481,-3.2962,-6.1231,-0.53037,7.26,-1.5288,4.8184,
7.4209,12.0205,0.39988,22.9963,14.2349,-0.81915,3.537,17.4645,-5.0617,-8.7,-2.4617,0.93582,5.5622,2.5661,
11.8831,12.2804,9.2088,21.6165,21.2316,2.1743,10.1935,2.6782,4.074,-6.2148,5.5368,-0.10145,-4.5856,11.245,
11.1692,3.6927,20.4325,11.4876,6.2192,-9.7324,14.4894,-6.3154,1.8673,-9.7674,16.9809,8.7366,0.59706,-1.206,
19.822,7.8876,14.7901,15.2138,19.0945,0.17451,13.129,1.4243,-1.68,-6.7281,8.6022,-2.0917,12.8276,-7.5132,
22.5586,4.4696,3.108,3.5063,32.0488,4.089,5.472,-0.6239,-7.4674,-15.1568,-6.0139,-16.0662,7.1509,-4.1177,
28.0748,14.0154,7.8281,-4.5549,33.6903,4.8257,2.1994,6.2832,-4.075,-13.2663,-7.2552,-13.7601,-3.0912,-1.9084,
17.5579,13.175,1.4703,-7.2254,17.5689,-9.5638,0.10473,0.99925,2.0576,-0.69357,-4.8572,-4.102,-11.7382,-15.8939,
14.5417,5.5143,-8.4324,0.077363,2.4147,-20.4057,-1.8643,-7.8931,7.8223,5.2362,-2.6031,-3.8564,-10.0523,-24.3927,
22.5012,12.0531,-8.9076,1.0538,7.8985,-11.3305,-6.6599,0.43129,-0.4979,-1.9477,-10.2977,-3.625,-7.4869,-8.8292,
10.3564,17.2181,3.4036,-9.8041,3.4987,-5.7437,7.4796,12.1821,-2.4307,-2.8124,-0.84743,5.4249,3.7579,3.1158,
7.2813,16.6756,0.74563,-2.8367,8.6868,6.8678,7.5214,13.904,5.0754,-4.1154,1.6572,5.5909,13.8361,-6.3937,
13.7141,8.8053,-13.3991,6.1655,4.2402,8.4179,-7.0299,16.0141,-1.1177,-15.6447,-11.2006,-6.5217,7.1182,-6.01,
10.438,11.7123,-11.7436,4.3234,-1.4118,0.55305,-7.7197,17.5065,-8.4105,-12.2528,-10.0375,-3.6772,-2.6318,5.6358,
7.849,20.8231,-11.0385,7.9899,12.7729,8.3712,-5.2938,5.6614,-6.9243,-0.72292,-11.398,-0.51176,2.4331,8.2424,
4.4338,14.6672,-8.413,8.4916,11.6455,11.7943,-3.013,0.41521,-8.471,-5.5861,-6.7887,-2.4433,14.0634,1.8593,
15.4535,19.1843,-0.54794,8.4727,10.4562,14.5215,-1.3605,12.6571,-7.4722,-10.648,-2.9465,-4.7504,-0.88045,-1.6872,
22.8681,16.5611,-1.0061,6.4922,21.114,15.1214,0.19326,12.3878,-2.6084,-7.5559,-3.2607,-13.7884,-14.9276,-1.0949,
12.6636,1.4674,-6.8339,2.1777,12.978,10.2892,1.1633,-1.1124,-9.3211,-7.1021,-6.0089,-14.9238,0.068038,0.93351,
5.0345,-2.1855,-19.1817,-0.89773,5.33,12.6157,-10.6833,-9.8781,-18.5754,-10.6018,-19.7484,-18.9354,5.3315,0.87703,
7.1853,12.0456,-6.746,13.2561,-6.2764,19.219,1.2434,4.8146,-8.1384,-7.5129,-4.9545,-7.4956,-3.3307,-3.5916,
0.86649,22.248,2.4916,22.4038,-16.694,17.0848,8.0385,18.6257,-1.7615,-5.099,9.4428,7.0541,2.7577,-8.2826,
-4.093,13.0623,-9.4341,6.9596,-10.7858,10.1711,-0.29461,4.5193,3.2508,6.9832,-2.2795,-3.5428,11.4242,-6.8045,
-12.6789,-1.8214,-15.7373,-7.558,-10.1382,-4.5392,-1.2585,-8.5097,5.0184,4.6015,-6.0686,-14.1258,7.795,-15.2287,
-6.0305,6.4997,-8.9054,6.9955,-0.69797,-0.9615,-0.20189,6.1009,-0.18922,-7.4508,1.1652,0.82174,9.2904,-16.2772,
8.0703,17.8855,-7.3895,9.8806,3.2689,4.0032,-4.1147,19.8348,-9.0103,-15.8362,-1.8485,7.2811,-1.0805,-12.3567,
16.9091,19.2666,-10.3805,8.7977,11.4146,7.1974,-5.34,8.6001,1.8344,-6.5442,-5.172,-1.4967,-15.1157,2.4847,
4.1183,8.2966,-14.6652,12.1953,5.8232,13.6343,-6.9828,20.8415,4.6677,-4.1893,-7.8069,-7.2955,-10.4138,1.484,
-9.3768,-3.4869,-0.53638,12.9352,-8.6262,7.4192,3.7408,30.8767,3.898,-1.4842,0.022698,-4.404,4.311,-11.8539,
-10.7769,9.4802,-3.449,22.9547,-13.1456,-4.8018,-3.3529,14.9241,7.5891,3.5119,-4.8857,-2.1771,-7.5934,-11.1422,
-6.6954,20.197,-11.5834,24.0302,-6.9589,0.88344,-9.5309,8.0106,5.6621,1.8286,0.80457,2.3695,0.22245,3.6263,
-9.729,4.8852,-20.2105,8.4884,-3.1069,-6.5294,-14.3557,6.0578,-4.0006,-5.641,-1.697,-11.8726,4.6246,2.0666,
-5.2194,-7.3141,-18.0163,4.9058,4.9308,-13.0069,-8.5873,6.6759,6.053,8.7975,-5.5201,-10.3082,-4.4844,-1.0013,
-15.2113,1.4656,-8.5943,8.0458,-9.4651,-15.6618,-4.6386,1.8589,8.143,5.4553,3.152,-1.3488,-9.6138,-0.45108,
-0.19858,9.72,1.2438,11.979,-6.5739,-0.62207,3,8.1265,1.2753,-8.972,8.3609,0.20382,4.2119,-1.8957,
13.9133,5.2114,-6.6816,9.2981,7.56,0.52637,0.85771,7.6389,-12.9012,-22.5337,-6.2407,-13.5469,0.033771,-15.882,
4.5061,18.1471,0.097952,15.1189,13.4851,2.9481,3.2595,18.4658,-14.2198,-20.46,-5.0156,-1.4489,5.4293,-10.152,
2.273,17.0588,-3.8329,0.11173,5.8067,-4.0981,3.0644,17.3583,-0.60787,-18.2508,5.0998,6.4894,4.122,0.27064,
4.5899,2.7859,0.81354,-7.8758,-4.8458,-15.1374,16.129,11.9004,5.8073,-21.5722,16.079,13.4598,-3.4852,-5.1432,
8.2404,4.5815,3.7086,6.6967,7.2207,-0.49114,8.291,12.168,-3.3736,-20.2774,6.2819,11.6706,0.6489,-8.7605,
1.3673,-4.0344,-10.614,-7.3145,5.3153,-7.8215,-6.3064,7.0214,-15.4384,-25.4395,-7.3425,-3.1296,11.8961,-5.7806,
-11.9636,-2.3206,-20.4112,-20.1236,-9.1036,-17.6558,-12.4358,6.1096,-14.0206,-21.4603,-4.4492,1.3456,8.7286,-1.0178,
-9.7741,11.9186,-7.9008,-4.8162,-20.9542,-2.4965,-9.2368,16.0476,-2.8758,-11.8313,-1.7285,9.6053,-0.13649,4.4404,
-21.454,-0.93378,-9.8801,1.0004,-22.1502,0.23563,-12.117,12.6315,5.6386,-10.6304,1.8096,6.5766,3.3061,-4.167,
-19.1852,-14.9778,-20.0819,-10.8364,-6.7212,-13.8785,-4.5207,4.0223,4.3187,-5.0856,-0.26165,14.0324,14.8844,3.9334,
-6.7489,-6.3573,-20.3492,-5.7697,6.5695,-10.2306,-2.7774,-3.5789,-4.2813,-9.1959,-1.7172,7.7929,1.7241,17.7974,
-20.4439,-11.8645,-12.2594,-8.3679,-7.9247,-7.6545,-2.6116,3.5046,2.8443,-11.5894,12.4859,5.3622,-8.1934,11.9525,
-24.2538,-14.5875,-11.0333,-11.3006,-13.4669,-0.81699,-2.9455,11.6367,9.0528,-7.4592,11.8658,8.4753,6.3982,0.93081,
-8.6986,-8.3146,-7.9171,-7.1882,-5.2991,-1.2581,4.592,3.5777,0.16781,-10.446,9.6817,6.4956,20.1143,-2.5594,
-0.19678,-2.9097,-10.3868,-5.7753,-8.9061,-4.1273,10.2046,-0.56187,-2.787,-14.7263,8.1192,6.1053,5.428,0.53796,
-14.285,-9.6039,-19.5767,-13.2796,-19.1668,-9.7674,1.7415,0.45296,6.2131,-7.9541,0.76325,3.7768,-6.673,7.3754,
-27.5279,-20.3134,-12.0239,-12.9734,-32.1168,-23.2813,-5.7233,-0.064777,13.2006,3.8088,3.1703,8.9473,3.0499,-1.4085,
-24.6626,-13.206,-6.395,-5.3253,-33.2632,-35.9844,-14.2119,-0.060891,8.4831,1.6171,1.0178,8.4104,-0.077365,-15.424,
-11.4071,0.34331,7.7277,-3.0431,-35.1933,-21.8181,0.74085,3.8677,0.12283,-3.3869,7.826,9.8685,1.89,-15.1196,
-10.7222,1.3043,13.1522,-4.8232,-31.119,-10.6945,9.1678,-1.2704,-5.7727,-3.1832,7.3569,5.3515,3.7393,-0.11241,
-12.042,8.0958,12.363,-4.5338,-21.401,-10.0538,-5.1217,6.6566,3.4066,4.8586,3.9712,0.1229,-5.317,6.403,
-17.2072,8.5911,19.4721,-0.33636,-27.9678,-11.4128,-8.7398,13.126,8.1087,-2.3026,6.6763,-0.86559,-8.9234,1.1123,
-2.0748,9.0573,17.3222,10.4785,-13.5319,-13.6719,-10.1781,11.3578,2.7152,-5.1083,-1.5747,2.1302,-1.5188,3.0083,
11.9187,1.1535,13.83,-2.417,1.3801,-20.2118,-5.1505,0.37177,-4.8071,2.5585,-5.8962,4.4561,3.9704,-4.5325,
13.1663,-1.8595,27.1002,-14.0487,13.203,-12.1299,7.9154,-4.5575,4.3129,11.2374,8.5576,8.1137,10.6014,3.5907,
-1.7237,-13.5247,32.9636,-20.0751,-1.6891,-18.2718,0.57123,-10.1722,6.0168,-0.23245,9.6458,-0.22351,1.1329,14.17,
-0.27812,-10.75,31.9669,-12.0008,-5.1522,-26.0074,-3.3885,-2.6922,4.6747,2.7258,12.9925,4.6964,-2.8605,4.4878,
13.8386,3.995,23.6706,-1.9583,9.257,-16.1051,-8.5832,8.7551,-1.985,11.8848,7.797,5.8863,-1.2172,-5.1049,
-1.0917,-7.4009,10.9642,-11.1638,5.3962,-15.6298,-4.6329,4.7954,-6.2814,9.7005,6.8381,0.13652,10.142,0.59895,
-14.7657,-14.8072,14.2323,-8.5303,-9.0276,-14.6921,0.5521,-4.3248,-0.99749,3.2303,8.3905,2.091,4.6265,9.3954,
-0.1403,-2.1434,25.1546,5.72,5.6141,-6.9413,2.4812,-1.121,0.04348,5.9799,4.9428,4.9089,-9.7511,21.5891,
-8.4733,-10.3562,23.1547,-8.7232,0.86173,-20.6248,3.804,-3.5075,-4.376,0.22396,11.0254,0.19843,1.4991,6.1937,
-8.4554,-3.3557,13.4241,-10.7826,-8.5125,-26.8767,4.0673,-6.7319,-2.6409,0.70108,16.743,-0.30404,15.5092,-8.2779,
1.3744,7.1502,14.0903,0.16894,6.0983,-12.0157,7.2581,-6.8185,-3.9541,9.0014,9.3593,-3.7207,1.4607,-5.5865,
-3.1245,6.2302,21.5867,-2.2954,7.3336,-0.99107,9.2759,-0.030736,-3.2268,12.8768,2.419,0.91903,-5.9877,4.0707,
-17.037,3.4026,13.9124,-11.4802,-7.2064,-8.2919,-5.3807,3.406,-6.468,11.6136,-3.1241,5.2799,-1.2125,-9.4215,
-14.1821,5.1612,13.0772,-0.97877,-20.8741,-15.6452,-10.0948,2.22,-9.0247,13.8606,4.9146,9.8691,-3.1024,-6.8944,
0.76883,7.7953,9.3487,13.18,-5.5216,-6.8557,-10.4707,0.12411,-12.4082,6.1597,-3.2316,3.3898,-11.7487,7.6193,
-2.5812,3.4027,-2.0069,6.1409,-3.3576,-2.5184,-10.8231,1.0983,-9.7,-4.0234,-14.8135,-3.6828,-6.1368,7.7836,
-9.7876,0.74477,-3.3591,-3.551,-11.4975,-1.8768,-9.6841,7.4106,-0.77756,5.5405,-6.5644,6.8418,-9.2034,-0.043692,
-3.3117,0.70009,-2.1755,-5.3002,-1.9757,3.1424,-18.9162,-3.8283,4.1766,16.9844,-9.1148,3.487,-19.4464,2.9023,
-15.3798,-8.6644,4.3333,-11.3613,-15.9572,-0.48102,-4.5332,-17.6986,7.3608,11.5493,2.7178,0.82495,-4.1796,3.2196,
-21.3268,-5.2012,0.14786,-5.7731,-24.9428,3.4733,5.5528,-6.9536,-0.93259,4.9678,6.4801,2.7377,10.1712,3.0255,
-26.4258,-6.3604,-13.961,-1.0103,-19.0298,9.6445,-8.8804,1.8055,-11.1798,6.1418,-7.1571,-3.8053,0.0073622,-0.59039,
-29.7478,-17.7555,-4.4205,-3.8944,-31.988,3.1768,-2.589,-1.2466,3.591,9.6992,3.0859,9.1809,0.0064526,4.352,
-13.8629,-9.8204,4.6767,-6.6041,-23.82,-2.9015,9.3426,-10.9849,10.8653,0.28531,9.7704,12.5555,-2.9382,8.0163,
1.0689,-2.8525,-3.9457,-3.7546,-8.2908,0.70697,4.3656,-13.7612,-3.8866,-7.0926,7.7121,2.4792,-6.1963,1.1567,
-2.6607,-4.153,-13.0315,0.88666,-3.2479,5.0815,-7.182,-0.66867,-15.0696,-7.1576,-1.092,-6.9921,6.4423,-0.38441,
10.7469,2.4753,-18.6288,-5.5448,-17.153,2.3228,-16.0736,0.84407,-18.5814,-8.1998,-15.1265,-17.8583,1.6398,0.12921,
24.2021,16.4268,-6.7159,7.5453,-7.4209,6.1089,-10.2027,-3.132,-19.4287,6.3922,-11.4046,-5.9916,-12.5586,2.0837,
36.8499,29.5412,-9.7478,21.1926,-3.5408,9.1772,-14.9876,-0.49127,-17.7724,11.0452,-14.1552,-1.2162,-25.9051,-1.4762,
29.0103,29.0089,-2.7838,20.5416,-17.4284,13.0426,-6.7281,13.6382,-3.4572,2.0411,-4.9645,3.2728,-12.8336,11.8613,
13.1697,16.4737,1.3091,17.3464,-26.3253,13.2416,-6.3239,21.7823,-11.1011,5.8436,-9.5727,9.9457,-7.1566,16.0566,
10.7783,12.541,-7.6023,23.1753,-22.7835,9.5028,-14.7774,10.6614,-24.535,11.3806,-14.8869,5.4235,-2.8027,5.2792,
18.9631,10.8069,6.9538,9.027,-26.3235,3.0445,0.20927,0.20815,-15.8331,7.754,0.10628,0.19109,4.2356,5.944,
20.2791,8.6868,15.499,9.957,-21.3092,5.3156,7.196,5.5937,-0.78312,9.7425,0.22943,1.6522,-10.1185,19.6874,
7.7766,-1.1569,1.3202,12.7945,-34.1307,6.4683,3.3293,11.6363,2.8287,10.6296,1.6873,2.0437,-16.0205,5.3873,
7.31,-2.0695,-3.6656,0.25053,-36.1383,10.9868,5.0918,8.9759,6.5844,5.0853,11.4001,-2.0044,-0.9593,-9.036,
13.2501,6.3965,3.9142,2.6888,-19.87,11.7997,3.3142,2.0577,8.6426,6.2523,7.2808,-3.3563,9.0418,-3.7168,
-0.79282,2.5778,9.0774,5.9623,-19.0388,-3.0083,4.5879,-3.4629,0.76378,13.2374,4.3911,4.2054,0.15789,10.6062,
0.23633,-5.4272,-5.2062,-2.2458,-30.6543,3.9124,-5.5009,-1.2924,2.6816,14.4059,-1.7605,1.9904,-3.7765,15.0068,
8.5631,-8.5369,-8.3292,-4.5653,-20.4732,17.7777,-7.6241,6.1459,9.8805,15.9948,0.79844,-4.5078,-2.0787,14.5965,
4.1239,-0.17384,5.91,3.5604,-28.0768,16.8405,-1.2781,9.7026,3.3991,15.0351,-1.2117,-0.31187,0.0091716,-0.37928,
11.7273,13.9366,1.63,7.2713,-29.3365,5.035,0.76086,10.1015,2.214,13.1519,-6.0465,7.5577,1.9709,-12.7533,
7.0987,10.7771,-9.2625,0.94688,-29.539,-2.1364,-6.154,-3.2624,0.11847,12.3623,-0.77669,6.1226,-4.0355,-7.0811,
9.126,4.7329,-10.1789,8.2508,-18.4436,5.3516,-14.1267,-5.5199,-4.3041,17.0182,-4.1645,4.2831,-7.2278,0.70449,
8.0879,4.9395,-13.003,-0.58564,-29.6038,-4.292,-7.881,0.2093,-0.61104,12.5622,-15.2003,8.4421,-11.2101,-9.6424,
8.5842,2.6804,-4.3715,-2.5132,-32.7346,-11.8853,-0.53892,5.1028,7.276,6.9024,-0.18829,9.8983,-7.5937,-13.9708,
17.8823,0.55643,-4.1102,2.5441,-16.6705,0.60358,-6.3952,-0.10989,-6.9,0.59966,8.2939,-4.7956,-2.2315,-6.2629,
5.0331,-12.2343,-2.8815,-6.4405,-29.7703,-8.2646,4.7837,-3.0476,-3.5417,-0.41744,7.7963,-7.0907,5.7532,0.98263,
-9.3689,-13.9535,-9.0873,-6.5451,-42.0841,-17.0912,7.932,0.57058,7.957,1.0798,-1.9945,6.5832,2.9548,-3.4928,
-9.9174,0.98367,-3.6355,5.6239,-25.459,-1.9658,6.474,9.3683,-3.3156,3.9593,1.0695,3.2439,-2.1291,-3.2832,
4.7776,8.9059,1.9802,8.7218,-9.8315,12.2522,10.502,10.2784,-17.2167,-2.6579,7.384,1.5771,-4.4546,6.2368,
13.9435,-4.8778,-8.4437,-0.1434,-8.131,-2.5829,2.5111,-4.4383,-7.9723,-1.0263,-0.41977,2.9546,0.2282,1.4461,
-0.99313,-13.9076,4.3307,0.35576,-17.9472,-5.2427,8.7396,-10.6807,6.6061,13.1353,8.9289,9.1556,10.5191,-7.9632,
-1.5541,-7.676,-1.3262,4.7504,-2.7704,7.3396,6.7436,0.26469,0.94261,11.0055,0.051743,6.1534,-4.2121,-6.9948,
12.6391,-9.1782,-15.3467,-6.3293,-1.493,7.8799,-7.761,1.2295,-12.8538,3.475,-9.7649,-4.0293,-18.0593,-4.6124,
-2.2192,-12.5529,-13.0847,-3.0052,-15.5035,-5.3508,-0.065567,5.0811,-10.1194,11.1173,4.921,9.9519,-8.8939,-10.2243,
-16.1861,-3.9489,-8.3732,2.0816,-28.6733,-15.8244,0.92042,3.7951,-16.382,-1.326,3.2831,15.2424,5.3792,-19.4239,
-1.1149,8.0647,-1.0016,-0.98711,-25.2492,-2.1171,10.6787,3.5679,-2.6412,-5.1714,7.012,12.3652,8.0003,-8.4449,
7.2934,-2.7228,-2.4132,-11.2325,-13.4301,-4.4433,9.5475,-4.0065,-3.9544,-2.4083,6.1007,11.1327,-6.5798,-0.57794,
-7.2442,-5.9947,-6.6848,-11.0495,-24.8916,-14.4813,0.63275,-1.3128,-9.1147,-1.7728,6.2248,23.7131,-2.8796,-4.9597,
-7.4296,2.7063,-12.6629,-6.9517,-32.7206,-13.1219,-5.7844,2.2008,-4.1519,-5.1013,8.305,13.949,5.6345,-18.7621,
7.1161,16.644,-15.3384,6.7138,-16.6574,1.7654,-9.8538,7.4654,-0.46837,-3.323,-1.5163,4.7702,-4.0265,-3.5364,
8.7814,14.7933,-13.4365,4.3483,-1.7899,11.6026,-9.2621,7.9991,-6.3284,-9.9938,-4.3701,13.3154,-16.5428,10.7758,
-1.56,15.8684,-15.5742,8.0123,-7.5707,16.7946,-6.7436,10.463,-8.8935,-15.2823,-1.1631,4.6661,-13.5875,10.7493,
12.6336,21.2954,-19.0557,20.7805,3.1881,21.1849,-0.94191,15.2332,-3.9429,-14.856,-5.5093,-7.8806,-6.3931,3.7261,
11.025,5.9177,-17.9128,5.4336,-0.92903,13.0436,5.0027,7.449,3.1629,-14.9462,-4.1981,-1.5197,-6.01,15.2784,
-0.92223,-3.3988,-13.4023,-8.9924,-2.344,14.7148,4.2129,-3.3015,10.3334,-4.726,5.3773,-1.9191,4.6552,12.89,
-8.7177,-7.1208,-6.71,-12.1468,-11.0358,-0.26812,3.9597,-8.9916,6.7696,-1.4976,15.8502,-3.7666,12.2272,-1.9834,
-11.6295,-15.0349,-0.91031,-8.9652,-14.7901,-14.352,13.0446,-2.0729,8.8171,2.0261,19.3143,10.5594,8.0587,-15.9644,
1.3351,-10.6985,-14.9557,-3.0297,-5.5613,-0.011468,5.8833,-0.47734,4.8528,3.3767,4.0554,12.5091,-4.6921,-4.4714,
5.6714,-2.6958,-19.5854,-2.3569,-9.6436,5.3868,-2.8107,1.0244,-6.7236,-2.2234,0.24817,-1.4899,-2.9384,9.8969,
8.2754,-0.57182,-15.466,-7.122,-16.9158,1.1382,-10.4938,0.96292,-9.2645,-8.9598,-0.74784,12.339,-1.781,6.4892,
14.6481,0.44408,-15.5196,-14.546,-10.0128,-0.89284,-3.9751,-8.9093,-3.8016,-4.4963,-0.70344,19.449,-13.4499,-0.76937,
12.7877,2.3801,-14.5889,-12.6926,4.3265,0.14232,0.18836,-8.3743,-2.5929,-1.2827,1.3015,12.3939,-9.6991,-0.72367,
6.6233,9.5976,-16.1664,0.33674,14.3715,9.4563,-6.2021,6.2282,-9.7966,-11.5103,-3.1926,1.3457,-2.738,3.7357,
7.6976,13.4377,-14.7059,0.80709,1.2424,11.3427,-7.3017,8.4373,-17.5502,-18.179,-7.417,-4.1321,-12.8783,4.0031,
21.3357,17.0475,-15.2961,2.2304,0.67728,9.1895,-9.3173,-6.169,-11.1001,-2.9883,-10.4069,5.4383,-17.5036,1.3092,
8.4089,2.2856,-13.3968,1.1159,-6.2335,-2.1566,-6.7955,-2.9841,-1.6026,5.1714,0.031105,11.9813,-8.6021,-6.6207,
-6.1957,-8.1561,-2.2884,-4.3491,-4.3874,-11.3501,2.9356,10.4429,-3.9593,-6.4246,11.3149,1.9399,-5.6323,-6.714,
6.3134,0.67516,-0.67987,0.32828,9.9759,1.5977,0.3053,2.4565,-7.157,-1.6236,-3.464,-4.5552,-12.6551,2.0307,
5.444,-7.7068,-1.1296,5.7057,9.9979,0.030136,-2.1658,-5.0511,-2.3107,-0.053574,-6.8205,4.0595,0.37106,4.3617,
-0.77077,-5.2816,5.8083,1.4384,-4.702,-7.8225,-4.9797,1.1401,-0.20936,-14.1504,0.45797,5.7786,10.1633,2.1372,
-4.6499,8.7747,16.255,-3.5545,-5.04,4.4236,-9.5875,6.9602,3.7286,-8.0338,3.3748,-1.4369,2.6838,1.0279,
-13.6939,2.8497,20.6763,-0.88885,-5.2286,10.5359,-7.541,5.0696,4.9761,5.6967,4.6435,-4.786,-5.8191,-1.4871,
-20.2326,-6.6438,9.1321,-10.1571,-4.4234,-2.3621,-11.5045,-4.5571,-6.6072,5.8454,-3.9756,-5.9705,-19.57,-1.8884,
-27.36,-14.5866,20.851,-17.89,-11.5187,-16.3204,-4.4351,-3.7932,-8.6645,13.8361,2.6412,1.748,-24.9045,-1.2845,
-20.3213,-13.2208,29.9045,-3.5687,-10.337,-21.8503,-6.6227,5.7579,-3.7287,12.5154,1.011,3.1148,-9.3102,-1.698,
-5.8536,-0.16028,20.7495,4.0062,-13.1517,-9.2536,-9.6598,4.9214,-0.069617,2.4415,-3.4661,-1.4885,-0.28019,3.8014,
-7.4647,-3.095,16.5602,-1.1407,-23.1577,-9.68,-8.099,0.70069,-4.9729,1.3139,-1.2959,-0.41809,-9.0953,0.62905,
0.34256,3.469,23.908,11.1945,-7.6683,0.22427,-15.9545,3.1114,-8.1094,10.5575,-9.5595,5.005,-11.0034,5.0073,
10.1365,14.0564,28.3626,19.3553,2.7354,12.9687,-13.0345,8.8138,-5.6601,6.9803,-5.06,10.5929,-10.3427,11.5761,
3.6392,18.1191,23.7161,23.1001,-11.5287,15.1344,-6.3643,19.0797,-0.41351,-0.30874,5.0571,9.9568,-12.6669,6.9566,
-4.4295,15.0702,20.3304,19.7513,-13.4203,7.3571,-9.9083,12.0468,8.4437,7.5611,2.791,-1.4353,-6.9999,-0.33007,
-6.6175,3.8614,24.5086,6.2994,-13.1056,-4.3701,-7.8412,-2.7761,7.4465,15.4488,3.1141,-8.7094,-5.1082,-0.80176,
3.103,2.158,14.6967,7.3941,-6.9217,6.1958,-6.8802,5.6019,-7.1003,8.1437,-3.4519,-8.6774,-6.2734,3.6633,
-7.3877,-3.3695,12.3423,8.4221,-6.997,9.2589,-2.0514,4.7752,-0.42507,4.2202,-0.79108,2.1478,-11.2941,-6.8611,
-20.1929,-6.6022,16.0177,3.5008,-11.9747,-5.3966,-5.3632,-9.6113,12.8484,8.383,7.5978,6.4349,-24.7164,-14.7908,
-12.1111,0.66368,6.2247,-1.6158,-8.3124,-2.2585,-14.8554,-7.2014,-2.0225,5.9177,2.2354,-5.7274,-23.3634,0.19661,
-10.8934,-2.8105,15.1742,-6.9164,-12.2292,-2.6131,-3.659,5.498,-14.7881,-1.7981,0.6291,2.9581,-7.8616,14.2848,
-4.8422,-0.18863,22.6056,-6.0104,-11.986,-8.835,2.9392,-2.1917,-6.5405,-5.1246,-0.87985,16.8806,-2.844,1.9105,
8.2052,6.6919,14.38,-4.6691,-7.3419,-6.3427,1.7813,-3.0418,-3.2038,1.071,4.079,14.0346,-6.5983,-5.0734,
5.7502,2.3655,4.6848,-13.2214,1.9306,-12.8318,-5.1949,-6.7852,-2.0309,0.025178,1.8716,0.43465,-3.2586,-0.84401,
5.8957,0.75186,10.7829,-16.8441,11.1382,-15.4963,-3.4115,-7.8498,12.1909,-5.3734,5.1941,6.7877,4.2972,-2.265,
0.63592,2.6695,14.0608,-17.7961,-1.3063,-7.6968,2.6813,-7.3792,12.5711,-8.9769,9.7895,7.3621,10.9087,-5.073,
5.0133,16.6093,-0.031213,-2.6284,8.0946,6.865,-3.8582,-1.5389,-0.45048,-0.096432,-4.0463,-0.44042,0.93115,0.62897,
11.0912,25.0643,-2.4826,9.9261,8.0999,7.0727,1.7708,1.9878,10.8618,2.3626,1.5931,5.9647,-4.5223,-3.8252,
9.9351,17.1822,3.0644,-2.9362,-0.72748,-1.6926,6.0805,-4.5097,16.5892,-10.046,12.7842,6.0983,0.16596,-12.9182,
14.246,20.0772,-0.064247,-4.7228,13.4162,10.1852,-4.0978,-6.2018,2.837,-15.3313,0.24039,-8.0066,6.0441,1.9569,
13.8818,13.4745,3.3745,-4.93,26.7112,10.0647,-4.3425,-0.43167,-0.76811,-10.9766,-2.2268,-4.0922,14.0229,11.783,
15.9928,13.6476,2.1904,-8.5601,11.0085,4.5538,-9.9701,-8.2571,8.1095,-11.2996,8.7014,3.0225,7.2924,-2.6639,
17.4869,26.9288,10.4004,-8.537,5.0795,8.6965,-4.9559,-15.1219,15.9643,-3.2613,21.4273,1.3695,10.2898,-0.050309,
12.5123,24.461,7.8141,-19.8011,10.6629,9.1563,5.1545,-9.3081,0.90644,0.85977,11.3097,-1.657,2.8027,-2.9916,
23.5383,8.8933,-6.3937,-25.4822,4.1359,5.6636,3.8646,-3.8426,-8.6,-0.1734,-3.4689,-0.57595,-9.1413,-10.6625,
17.218,-1.0928,1.8403,-23.9538,-1.0197,-4.4907,10.502,-14.4076,3.6918,-1.1446,2.9884,4.3656,5.5072,-2.1723,
2.085,8.2953,8.109,-26.9325,13.1415,-2.7491,7.4181,-19.9214,11.8117,-1.5665,13.1127,2.6311,9.2317,4.3372,
-6.0196,4.8547,1.7344,-30.2226,12.483,5.2676,3.049,-9.8937,13.0666,3.4345,11.3453,2.4737,-0.15369,-0.83008,
1.2104,-7.2138,2.6114,-27.4291,-1.0239,-7.8068,5.8094,-3.4124,10.3195,2.2473,15.5711,7.2318,13.594,-13.5377,
-6.7126,-8.7437,7.3617,-21.8575,2.963,-15.1892,4.4793,-9.0958,7.7376,8.0006,11.693,5.8163,14.7411,-10.7627,
-17.596,-15.5793,1.5229,-19.0743,-11.3148,-12.8057,4.7011,-16.8914,3.8385,5.0668,2.6501,9.8842,-0.24337,-1.7755,
-4.7635,-7.7748,-3.475,-4.1904,-9.7838,0.72049,2.4568,-4.1017,1.6459,-4.0691,-0.45323,21.0674,-6.2464,12.431,
-9.8753,-2.8928,-4.7396,-9.3366,4.9032,-3.7397,-6.0325,3.5042,-0.90705,-13.148,-1.8982,6.554,7.3758,5.9261,
-22.0406,-7.6253,9.6448,-16.6268,6.7012,-8.4213,8.0684,0.35013,8.9619,-4.5078,11.9547,3.217,16.7478,-8.1675,
-13.3579,-3.7334,8.215,-12.1948,5.8081,2.388,12.9819,-4.0864,9.8954,-3.7472,11.7284,10.3847,11.3265,1.6446,
-1.7618,-10.3791,0.85238,-13.4263,-3.3723,-2.6622,6.3144,-4.8233,2.4329,-14.3175,5.1361,5.8362,2.796,2.528,
12.0834,-15.6441,12.5775,-7.7141,1.7366,-5.4468,6.9166,-1.5896,7.1934,0.28096,7.7722,5.4851,12.4413,-6.4566,
3.0165,-18.1407,7.4064,-4.7971,5.0672,-0.70355,5.0304,-4.9286,9.2151,7.6239,9.7592,6.6281,14.1491,-4.5971,
-5.9964,-20.9772,1.0748,-0.58338,-1.1245,-1.6425,8.6545,-1.689,13.5692,4.2226,19.9692,15.0638,11.3374,7.4555,
6.1396,-14.8116,-13.0897,-7.4186,11.7008,0.41879,-0.69722,-4.5315,5.8858,0.044337,4.6711,6.3087,-0.1375,3.0823,
7.2429,-3.6193,-13.4159,-21.0734,22.2836,4.8092,5.7228,-2.788,3.0789,5.4388,-2.6094,4.4575,6.249,5.3511,
4.3555,-7.8172,-2.3063,-33.909,14.5683,0.10512,6.8521,-3.1112,2.4036,5.603,10.7961,7.6259,13.2343,2.5772,
18.1942,-5.8764,-12.4725,-22.811,22.0356,8.4402,-0.91932,-5.3783,6.6754,1.832,11.62,5.6957,9.9865,0.94996,
12.8161,-1.1074,-14.1775,-22.9145,13.3537,13.3314,1.5891,-4.5646,5.7838,0.24991,9.4516,4.8639,6.9341,3.3462,
-2.0529,1.9024,-11.3646,-18.5953,-1.5475,9.5872,-9.3014,3.5601,-0.45087,4.1603,-5.2155,2.6089,5.5369,-5.6865,
-5.9851,-4.59,-13.1355,-16.9891,-11.3987,3.6144,-9.2338,4.8182,2.029,10.2899,-11.9023,-1.9636,3.733,0.051785,
-12.9863,-12.6564,-12.8384,-18.423,-12.1869,-2.9812,5.4202,0.11361,2.3983,1.3306,1.0782,3.5517,4.9802,14.1487,
-21.0395,-10.9164,-15.0119,-16.336,-5.5676,-4.765,5.224,0.10632,-8.5408,-12.4882,1.9951,-0.58725,8.6073,20.2995,
-5.6772,-2.4106,-6.2604,-17.319,8.8665,1.409,8.836,6.9697,-1.1591,2.0005,3.8386,-3.4963,12.9974,4.9815,
8.7635,-2.7556,-16.1893,-16.7705,16.3153,6.7225,-5.7942,3.1166,5.2896,6.2965,-5.7152,-10.6459,-1.0304,-5.2614,
9.9698,4.2785,-19.1434,-1.6642,17.2996,20.4192,-12.4453,-0.99579,4.9723,0.030094,3.4606,-8.0449,10.8077,9.1543,
6.9174,2.5497,-19.4669,-1.4349,11.8452,17.3604,-7.2821,-9.2779,-0.72364,-9.2947,-0.18236,-12.9598,9.6682,-0.097404,
10.9193,6.8136,-18.7895,2.0861,18.4947,15.8282,-3.4103,3.5465,4.7178,-1.3767,-7.5317,-9.7284,-3.1787,-7.4518,
-3.8359,-2.4276,-15.6994,-3.9272,3.285,9.9715,-7.1316,0.38896,-2.4354,-2.2748,-7.0793,-4.2377,-4.9507,-0.13454,
-17.7057,-11.1144,-11.8127,-4.6722,3.4494,10.3548,-5.7221,-7.4847,5.562,1.7867,-1.7476,2.8858,7.1231,8.706,
-2.5434,-21.7337,-17.4835,-13.7158,17.3425,2.3737,-1.9444,-9.4889,12.5881,2.1705,0.81056,-3.666,15.0366,5.7294,
-5.9556,-16.9943,-14.9624,-16.3272,21.8281,-0.22247,2.5887,-1.5598,4.473,4.4935,4.1963,-0.99281,18.5509,-1.9742,
-2.654,-5.1795,-16.0278,-11.4222,8.7421,8.6233,-5.4174,-6.3727,1.2603,13.0559,-2.9252,1.029,3.3378,0.10651,
3.3929,-9.7762,-14.0841,-11.718,-5.8824,21.8444,-4.1113,-6.9724,5.1101,16.1979,-2.7497,4.8927,-6.315,5.0067,
-2.6983,-10.1708,-15.2022,-10.0338,-5.1684,32.31,-4.8457,2.2788,-9.2965,1.1261,-9.4535,-1.2885,-2.9918,0.78178,
0.89749,-6.1257,-12.8184,-5.9969,3.4836,24.9743,-2.1022,7.5392,-12.7941,-4.9592,-8.3966,0.26045,6.5103,9.0763,
6.7327,-15.5717,-19.8997,-12.5063,3.2741,13.6623,-0.013336,2.1798,-8.1006,2.2076,-4.9481,7.1141,8.0824,16.3821,
7.8004,-10.2214,-29.0103,-7.34,17.1776,26.9426,-9.3351,9.4093,-12.0305,0.6035,-12.0115,3.2524,9.0691,15.8897,
-4.4439,-9.6081,-14.5113,-10.825,6.4639,27.4182,-7.7938,12.7711,-8.3644,-2.377,-4.4211,2.0761,11.4692,11.993,
1.2199,-15.4108,-3.337,-11.6481,0.67802,11.6731,-1.9291,0.71821,-2.4654,1.2005,1.2413,2.4421,6.3651,8.8196,
10.9607,-11.5419,-12.9499,-1.1352,14.7373,18.6936,-0.8313,-3.2503,-9.1872,1.1284,-3.7397,-5.5553,5.9832,1.4207,
-3.7969,-11.3399,-15.6077,4.3309,5.1511,19.0446,-4.2163,0.37957,-10.1077,-6.2995,-0.080473,-6.6936,1.2082,-4.0616,
-17.6691,-7.7157,-13.6897,5.0517,0.91618,15.9392,-6.9071,6.2449,3.2566,2.9109,-3.0195,-0.40388,-7.6967,1.0891,
-22.2661,-16.0842,-13.8499,-4.0838,14.6002,14.0013,3.3208,6.8518,0.11647,7.6432,-2.8388,2.5642,-5.2722,-7.8087,
-14.0604,-12.1758,-15.9632,-4.8199,27.4636,24.9375,4.1027,4.4785,-13.9905,-1.6483,-3.6496,-2.4962,1.9139,-11.2656,
-6.8381,2.6547,-25.3095,-6.984,29.2502,37.5412,-10.2435,-0.20669,-24.0748,-9.8903,-15.6979,-13.6317,-7.5239,0.69653,
-5.4462,8.514,-16.9208,-5.5833,13.3952,31.4933,-4.8514,-1.1759,-10.8545,-3.4088,-1.017,-4.9634,-5.1098,12.4305,
-0.70345,0.64292,-16.397,1.1299,-1.5085,15.5037,-3.0886,-5.5213,-13.6381,-6.6391,-4.3909,-6.1373,6.4825,0.399,
10.1339,7.4731,-10.5066,11.8572,-1.187,28.1829,-2.9033,0.69764,-17.7268,-7.2228,-13.9405,-5.769,6.0935,-7.4758,
9.5259,8.0068,-13.8007,14.0901,-8.9666,32.3796,-15.4865,2.619,-15.6816,-13.6582,-19.9738,-9.3483,-8.3721,-0.15751,
12.8797,7.5264,-17.8802,10.3004,-12.354,18.6606,-21.427,3.4429,-10.8153,-9.8944,-18.7754,-14.676,-21.9698,0.83306,
3.2745,1.1867,-2.7074,6.7385,-7.6869,10.6717,-7.3835,5.2,-12.1291,-6.3569,-3.5488,-7.9073,-6.5516,-13.3169,
-3.7907,-0.84677,10.8335,13.2039,3.5694,14.9389,-7.9216,6.8502,-10.4193,-5.9755,-3.6969,-0.56317,7.9415,-16.0823,
-6.9991,-2.2686,10.674,12.9023,-8.9125,15.5142,-8.919,7.9109,-7.3414,-0.21988,-10.8354,-0.038815,-6.635,-1.0174,
-4.616,-3.1136,14.9401,9.1838,-14.2654,13.6013,-2.4952,5.474,-18.6776,-7.0764,-7.241,-8.8684,-20.1058,-1.8084,
9.761,9.3396,15.5159,18.9369,0.69054,18.1828,-2.8365,8.58,-20.0097,-14.9928,-5.3344,-12.7528,-11.5397,-6.1154,
11.2676,-1.0334,13.6043,14.8569,14.7491,6.2972,-3.647,2.178,-8.0145,-9.1862,-5.9959,-8.0617,0.92944,-2.8046,
6.1755,-6.3694,16.2219,10.5306,6.2724,10.3353,0.005745,-2.3696,-7.0431,-3.2379,-8.0899,-5.1252,3.3274,3.7428,
4.8234,-1.0803,17.2123,3.0295,2.9522,21.4919,0.98699,-4.1901,-10.5454,-8.9318,-4.6597,-9.7238,-4.7235,2.5366,
8.9509,3.4005,19.6144,-1.5682,4.2477,10.8799,2.4004,-3.4482,1.373,-3.9799,-2.9085,-7.6687,-1.9864,-4.9758,
12.8294,6.6309,16.9644,-1.9652,16.2592,10.7162,-2.161,6.0817,4.7241,3.6187,-8.1315,-7.6996,0.58513,-14.0012,
-2.0404,-7.867,16.4376,-3.3185,1.1836,12.5275,1.404,7.1889,-9.6594,7.818,-1.264,-3.8023,-2.8834,-17.5757,
-9.4082,-13.9041,13.9792,3.2584,-12.9874,3.434,3.773,6.2666,-15.588,8.8211,-8.5489,6.73,-7.1269,-4.2548,
5.2563,-1.7832,10.6876,-5.2785,-14.9209,-7.0757,2.0749,5.4,-1.4039,4.857,-14.4151,0.92906,-6.2087,8.2673,
11.9406,2.2492,20.8406,-13.7938,-5.1937,-14.502,14.7078,3.1138,4.569,9.4721,0.54978,-3.053,0.052414,-6.3287,
17.1123,-5.7371,16.6463,-1.1894,7.8757,-14.6135,13.8258,-0.99893,-7.4819,3.0166,6.0444,-2.8694,-7.802,-13.4388,
12.1597,-3.4301,6.8151,1.8248,-2.4103,-7.8495,3.1818,0.042593,-10.9589,-11.2644,-0.20737,-1.7166,-10.2787,-3.8001,
2.1076,10.8757,5.9156,2.2068,-16.3657,6.7215,-4.3685,6.4192,-0.97789,3.5115,8.1474,2.8033,4.438,-4.0626,
-7.832,-3.8769,-0.32695,-1.851,-29.4838,-3.3649,-9.0129,-0.83568,-10.7328,8.6974,4.7143,-4.2346,13.1346,-4.8,
6.738,-17.3832,12.9411,12.3601,-13.6148,-15.4303,3.7942,6.5743,-4.6917,3.76,2.9593,5.3425,10.8744,5.7921,
16.7668,-2.2402,-1.9354,21.0705,1.3021,-0.40446,-10.5334,1.7638,-4.9008,5.0061,-11.3183,0.60502,-3.878,-3.8789,
6.9289,11.7627,-5.8747,14.8997,4.6584,13.4892,-13.9559,-5.2117,-8.5321,4.7058,-15.6757,-12.1877,-17.7454,4.2047,
4.0594,17.4361,8.5778,20.3849,-2.9805,7.2818,0.98146,-0.48209,-9.4923,-7.8434,-3.4495,-18.8167,-2.5806,13.2759,
5.2885,12.9551,8.6828,22.5967,11.2984,0.46578,-1.4021,-2.9069,-3.5252,5.8751,-8.6396,-13.2718,11.6742,-1.6207,
4.4806,0.89205,6.6901,10.9363,14.1844,-4.9593,-3.7708,-4.2051,7.972,19.6226,-4.6864,0.77249,12.936,-5.0883,
5.6834,4.2734,-1.0716,6.8453,4.0108,-7.1145,-4.0351,0.46411,3.0777,14.1593,-1.9515,-4.671,7.7438,-1.3481,
3.3793,16.7744,0.95496,12.3222,-4.0816,0.18114,3.0758,0.43533,-0.051288,2.5146,4.0533,-7.335,-5.4791,-2.2493,
-2.7112,7.9171,-4.0079,3.733,-7.7612,-0.81085,-5.9407,-5.4784,-1.0293,4.3269,-3.0596,-4.9317,-15.9446,9.6628,
-5.9834,-6.658,-5.2401,-3.8513,-15.6379,-12.0479,-10.9814,-4.6592,4.4295,17.3152,-2.3855,2.7235,-0.88788,12.5179,
-19.7244,-15.2195,-1.0003,-3.6202,-28.7996,-17.2127,2.4349,-5.3607,10.0524,16.2763,11.8576,8.4487,13.2654,-2.3331,
-18.1803,-7.4375,-13.6976,-8.3105,-12.9716,-5.3857,-4.5809,-1.1137,9.4492,1.1997,7.8413,-6.1582,4.3871,-0.85146,
-2.9895,-5.0286,-5.0254,-6.8302,1.9067,-1.1367,-0.38018,5.8224,16.7326,7.3764,5.4081,-5.4277,9.0309,11.9575,
-9.5494,-13.0683,3.6185,4.8662,-5.9281,-6.4656,7.0029,-2.8684,8.3693,9.3885,4.5931,8.1468,17.8125,-2.86,
-10.9391,-2.4706,-1.5057,13.4057,-8.5172,2.7538,0.6946,4.173,-0.96526,3.9173,3.3359,11.583,3.0039,-4.7811,
-8.8111,-2.8129,-0.92475,-0.64656,-1.627,-0.84625,-6.7073,8.3395,0.56434,1.2294,0.68295,3.5277,-1.5924,9.6058,
-15.1517,-8.5323,-0.8688,3.3172,12.5706,0.18611,-11.2119,-3.9376,-1.4322,3.1184,-11.1348,-4.5343,12.6032,16.0296,
-19.1491,-7.0392,3.1078,10.969,20.2873,4.1004,-1.7072,-4.6824,0.61595,1.9492,-4.579,-2.3,19.3368,0.96784,
-8.6777,-3.182,0.46854,-2.938,17.5984,7.2892,-1.1142,-1.9487,4.995,0.36058,-2.8317,-6.578,5.9098,-13.1902,
5.943,7.8036,-2.5043,1.1641,30.6425,20.9518,-3.9912,-6.7388,-1.1929,-0.64264,-13.4574,-17.96,-1.3141,1.7012,
6.2074,6.3542,5.4977,15.1943,20.5921,22.278,8.0254,-4.3713,-6.0269,-6.4917,1.0895,-10.0127,-0.2541,4.4129,
-7.904,-4.8217,-0.7203,11.9594,5.6176,6.8413,7.5434,-1.1652,-0.75921,-0.21411,1.0246,4.6881,-3.1827,-5.6654,
-13.3183,-10.421,-5.5846,-0.53446,-2.5703,-4.0033,7.0908,-5.0207,8.1183,13.8987,0.96314,6.0089,7.8034,2.5254,
-19.8795,-11.2683,-1.8146,-0.99388,-7.8141,-3.2725,-0.69582,-13.0608,6.1595,9.2685,9.2467,-3.6751,14.6946,3.8455,
-15.7429,-5.6843,-4.6496,-1.9149,3.4503,-6.02,-0.6536,-3.4448,6.7715,0.86197,7.7104,4.3967,11.8511,3.6153,
-17.7422,-18.1016,-5.3517,-15.9,-10.8567,-19.3982,4.2931,1.6685,-1.4856,6.6989,4.3034,7.0772,-2.5994,-1.5082,
-2.5776,-7.2014,2.8202,-0.84601,-6.9004,-6.4581,2.0723,14.3267,-4.3407,14.1478,6.0084,14.5034,2.4631,6.4331,
-7.6905,-2.8439,-11.449,4.1113,7.253,-5.0885,-12.152,2.6719,-5.0614,2.5038,-8.4521,5.7824,6.2417,-3.7669,
-7.7197,-0.21957,-11.8732,-1.5325,17.1215,-1.3484,-0.75775,-2.8864,5.5459,7.7506,1.739,5.926,17.1519,-5.0125,
-7.257,-8.0577,-2.3284,1.5033,13.1504,-2.249,6.1579,-2.7128,-3.6183,-5.4722,0.65312,0.66344,11.2167,-0.78682,
-19.0884,-14.934,-0.71744,0.92207,1.0761,-3.5863,5.2974,4.8098,-6.8366,-19.2439,3.0672,6.0212,10.0527,-0.24858,
-3.8431,0.061995,-6.0715,0.37618,14.2595,1.0449,-5.325,5.0127,-2.9915,-10.8585,6.318,2.2251,4.0525,-6.6128,
10.4875,9.0193,-16.5023,-0.62751,27.5039,3.9265,-12.8564,-1.1766,-8.7006,-11.1881,-1.9119,-11.6479,-6.9858,-6.2161,
13.0616,-4.7693,-14.04,1.8634,11.7537,5.1631,0.18231,2.3284,-7.6876,-14.9333,-1.3062,-5.5514,5.7006,5.4431,
7.3714,0.42336,-15.1608,6.6581,-2.1999,7.7966,1.1525,9.0584,-1.3377,-5.2053,-0.24666,-8.1626,7.3208,-2.7344,
16.7422,8.2488,-15.2323,6.2587,-1.0868,0.46006,-0.8789,3.6083,0.7048,1.9767,-0.23186,-10.6162,2.9561,-10.4221,
14.266,8.2444,-12.8467,13.2434,0.45007,-1.0402,-3.2799,-3.9685,3.1162,-3.539,-7.5782,-1.6379,6.2136,2.471,
16.8449,11.1846,-14.5287,6.0697,8.7654,11.2891,-13.3877,-2.2587,0.47553,-10.6869,-10.5584,-2.0311,-8.2592,-4.0564,
18.778,6.5886,-14.6385,-8.3945,2.3513,8.65,-6.6963,6.7093,6.3351,-5.1387,2.833,-0.92671,-21.6326,-17.913,
23.0484,7.665,-17.1951,-0.16954,-9.0754,-1.1925,1.0658,8.7595,10.371,0.5667,1.1904,2.5628,-6.2346,-5.1915,
16.7585,2.2981,-11.2564,7.691,-9.5125,-6.028,1.9834,-2.5607,-4.3513,-2.4121,-2.8069,6.334,5.0641,-3.8994,
12.3191,-0.29356,-8.1282,8.7022,-0.60035,-2.2314,1.3738,-3.8788,-8.1451,2.1496,1.7784,13.3142,-6.5254,-6.1182,
14.5238,-5.182,-20.3974,4.2551,-11.359,-10.93,-4.5967,1.261,2.1571,2.0201,-3.2353,2.7028,-5.1523,5.0436,
8.2552,-14.1936,-13.7755,0.56491,-19.0189,-15.6713,1.0771,3.6391,12.3323,0.42724,7.2634,-2.8565,9.2568,6.2136,
8.2505,-4.0204,-16.3848,6.9092,-3.7777,-0.63099,-9.293,-0.9962,1.2878,0.89217,2.4116,-2.1955,1.4702,1.4238,
9.7182,2.1089,-28.1595,2.5697,10.5489,13.5069,-16.5858,-3.8803,-12.8895,-7.9938,-11.8331,-8.933,-12.718,10.1708,
7.1724,-5.868,-17.6366,-1.5094,22.4428,13.447,-1.8517,1.2596,-1.9416,-4.5694,-11.7437,-6.4343,1.1649,14.4676,
-7.358,-13.3667,-12.6539,0.5434,16.1888,13.6213,-2.7217,-0.77919,6.0258,2.5736,-9.0768,-8.0105,4.0383,-0.50047,
-12.9342,-0.29791,-5.5155,5.9088,2.9506,25.0708,2.8387,13.3676,-2.6772,0.94746,5.5678,-1.1507,3.3055,-6.4881,
1.5804,5.6086,-17.942,-3.2786,15.531,29.4543,-3.2202,12.6955,-16.6165,-13.2094,0.45718,-6.9703,-1.7994,2.7331,
12.7713,3.7994,-20.3003,-6.5167,28.6991,26.2153,-2.5355,-2.1662,-1.5195,-6.6582,-2.024,-13.9123,-6.1083,11.8917,
12.005,1.6092,-18.1012,-8.088,23.1817,20.717,-4.3456,-15.9047,3.9697,1.5921,-1.9016,-12.0965,-10.6474,3.3283,
6.8687,-1.9222,-17.5057,-10.0564,20.3182,20.9456,-7.5207,-8.5722,-8.5363,1.9871,0.66529,-4.9925,4.0914,0.67484,
-7.6434,-13.5826,-9.5851,-11.4158,4.9991,5.5889,-2.1624,-6.0952,-1.1539,0.88632,9.4578,-0.76608,17.9459,6.5225,
-12.2213,-1.4825,-8.5199,1.5365,-9.4008,5.1245,-0.56054,-2.2942,2.3497,2.3053,3.4928,-2.1932,2.7692,-0.24756,
2.6119,7.4384,-14.8785,10.2762,5.2632,18.917,3.3985,8.6377,-1.7167,4.1302,4.2643,-4.0239,-11.497,-12.9901,
7.0012,2.0856,-7.116,13.5851,8.7438,22.3271,3.1946,11.0637,0.34856,0.93805,6.9528,6.0307,3.2928,-4.3608,
-7.5189,-0.98383,-5.708,7.8634,-5.8808,6.8874,-10.7356,-1.3763,0.32858,-1.0805,-7.5644,0.76228,2.7338,10.0009,
-21.1677,2.019,-3.4028,2.4846,-4.1858,-5.9222,0.70323,-7.1819,6.1961,2.9093,3.0636,-2.2273,-1.3561,11.003,
-16.7228,8.2766,-5.6519,3.8077,6.3694,-0.16926,8.0208,-5.2788,7.2964,-2.6628,6.3151,-2.5847,3.1417,-3.7572,
-16.7006,-1.052,-3.3505,3.5792,-2.8447,9.654,5.5774,3.8699,1.9521,-4.4662,-1.9156,1.4958,7.8597,-7.5867,
-29.4375,-15.0889,3.7202,3.3645,-9.5437,8.0936,4.2607,8.5451,-4.0527,-1.254,6.0511,2.3881,3.4627,-0.26181,
-19.3303,-0.57409,-1.9001,5.6154,5.1289,7.1174,1.5522,4.5966,-2.3378,0.29296,10.104,-4.1343,6.6898,-9.5696,
-19.1511,-5.4467,2.1398,-5.5162,-6.8256,-5.0854,7.3472,-7.455,1.7283,-1.6864,8.5162,-1.9235,15.1208,-23.0954,
-18.9837,-12.9702,16.1114,1.685,-11.3221,-5.7619,10.8313,-6.0261,-1.3201,2.3397,3.0982,10.9497,6.3623,-22.3293,
-7.5405,1.908,19.1992,11.888,3.4572,5.8691,-0.12266,-1.249,-12.5262,-0.25391,-5.4295,0.96974,-4.3236,-6.8895,
-1.1995,15.8935,23.9359,7.2493,7.3047,15.3309,-1.0964,1.7712,-3.9238,-0.23868,-0.1963,-5.9582,2.8056,4.4485,
0.83517,15.6895,20.537,-0.055849,3.9217,14.4106,-3.9754,5.5899,4.162,3.7006,0.79707,-4.6191,1.6556,-3.6697,
3.2388,8.3699,23.7207,-8.3939,-6.6173,1.2792,2.6432,-0.14263,0.4784,1.0258,6.1463,-1.8882,-2.8597,-0.014662,
17.1445,6.3956,32.6016,-2.4927,-7.6924,-9.1017,5.919,-13.3834,0.93979,-7.3777,3.3243,-2.2659,-0.23482,-3.4491,
30.2158,6.0118,31.6266,10.4142,-0.36112,-8.5556,-0.32472,-9.6361,5.7899,-0.06528,0.18054,2.7766,2.7236,-8.1487,
16.3946,-8.0883,17.9528,-0.023691,1.6228,-7.0611,-3.2495,-5.1325,-4.3705,4.8452,-1.7925,3.5911,1.579,-7.6598,
11.9761,-6.1304,11.4785,-1.4949,2.9971,-5.1648,1.3623,-2.3708,-11.4686,-3.7869,-11.0084,-0.059236,12.77,2.1233,
-1.9909,-1.3471,24.8898,6.9367,-11.2827,-18.1034,15.3806,0.22469,-2.4391,-4.0507,-0.043822,10.2484,5.6242,0.52372,
12.2286,5.1134,9.2964,1.1229,3.4942,-2.9172,0.35777,-9.1118,-0.82011,4.5342,-14.1412,-4.4665,-8.8133,0.98239,
25.5949,18.9066,-5.3614,-12.1924,17.3846,11.3579,-13.7637,-6.1113,-7.1501,4.7527,-27.3927,-18.2985,-22.3845,15.0234,
38.1592,31.8722,-19.1397,-25.5609,30.4415,24.7764,-27.0379,5.541,-7.2116,2.9958,-39.8492,-31.3006,-6.9414,28.222,
30.8616,15.9894,-32.0913,-32.4991,20.5331,33.9825,-26.1666,0.79213,-5.3077,4.2882,-38.3378,-43.5225,-1.2569,23.3534,
14.9099,0.93003,-16.0658,-16.4491,5.2012,17.8435,-10.4966,0.74507,2.8621,2.0682,-21.9375,-26.8112,-2.1621,7.8522,
6.0354,-1.218,-1.0019,-1.3622,1.8157,2.6729,-1.8851,-2.735,-4.6695,-12.1559,-6.5213,-11.1025,1.402,5.2888,
7.1445,-2.618,10.7045,-2.9832,8.0855,1.2719,1.6624,-5.0241,-5.8615,-8.1216,-1.9451,-4.8073,-0.15428,2.5182,
-7.3842,-14.7277,24.1622,-1.3325,-6.4997,0.70505,13.8295,-4.2321,2.8316,5.6136,12.2716,1.8603,4.271,-9.8997,
-4.1264,-5.9928,28.7306,8.561,-20.2097,-10.1319,10.0559,-2.0155,3.6429,0.3707,9.7026,9.5991,5.9774,-7.343,
-0.9345,-4.6521,16.2116,4.1229,-33.0971,-16.3937,14.3591,-0.9125,-1.4823,-6.5213,11.0836,9.024,0.71222,-4.9393,
-7.7481,-14.186,12.2956,0.93119,-26.5933,-7.5593,10.5532,1.1045,-8.263,-5.1489,13.362,2.594,3.6138,-6.6061,
-7.7738,-4.9935,12.0484,14.9753,-25.4883,-0.72655,-3.3279,9.3796,-3.3508,5.4646,9.1254,3.91,3.8875,-4.738,
-9.7611,-7.1476,9.8529,5.8645,-30.3381,-12.9498,3.25,0.47544,2.2473,10.5339,9.0684,11.0357,3.1637,-5.9254,
-13.1004,-9.6626,11.2244,-7.2453,-22.6297,-15.1176,8.9431,-10.3478,-2.794,4.0137,6.5616,10.374,4.9366,-0.6629,
-20.6562,-4.6673,12.0231,2.5124,-22.7441,-13.7195,-0.91644,-1.386,-5.0801,3.2828,1.7524,7.2983,5.1305,-1.1141,
-21.8711,-3.8963,5.9042,7.7593,-34.6283,-11.4242,-4.2958,8.0202,-1.3409,3.5759,3.1185,10.2948,3.3505,-11.3523,
-11.7259,1.245,-0.33776,9.2569,-18.4506,2.0187,-1.0938,6.5579,-1.2595,3.3614,-2.9563,8.696,-3.7193,-2.8194,
-13.9671,-2.7556,-0.31796,15.5707,-8.8722,-5.9538,-2.9918,1.2574,-14.9239,1.197,-5.7237,0.32295,-17.5961,3.2379,
0.9709,0.84414,2.1544,22.9774,-1.9612,-10.012,0.62302,4.6163,-3.7234,7.5038,-0.96381,-2.1497,-8.8195,2.5526,
14.2915,-5.5852,-11.2233,7.4988,10.4238,-6.958,-0.88651,-6.9459,10.6,8.5258,-6.3035,-3.4929,5.8096,7.797,
0.67617,-14.0825,-1.7175,0.050065,9.7979,-6.541,0.14827,-4.5664,15.9817,8.0137,-1.0183,1.6237,7.5533,12.2362,
4.5615,-6.3674,11.1434,2.9909,3.3228,-5.166,-1.8233,7.4843,4.2281,9.4966,7.8752,7.4144,-2.7134,1.6885,
7.2312,-5.0042,2.624,-9.9459,-7.6717,-2.8938,2.2115,2.1278,-4.8585,9.9079,11.3281,6.9696,-0.5884,-2.3383,
-1.5441,0.69314,-9.8003,-1.0078,-1.8143,-3.2108,0.60711,-3.397,-10.9452,5.8786,3.2881,-0.8089,-5.9502,-1.7074,
5.4178,14.7515,-11.1759,6.9031,11.0524,-2.0375,-5.3184,1.7129,-2.4381,1.6,-1.8162,1.2023,-11.4813,-3.5677,
8.528,6.1456,-0.2003,-2.8332,-3.7107,-9.275,-4.5082,2.1021,11.8082,1.0139,6.6347,11.4343,0.49373,-2.8626,
8.5069,0.37978,-7.5486,-0.20945,-6.0704,-9.2091,-12.5791,2.4665,-2.0187,-2.4818,-7.8634,-0.53651,-6.8962,-7.1068,
10.4498,5.7536,-6.6046,5.1997,-2.2718,-7.1844,-6.4268,8.6972,-10.2395,3.0647,-13.9003,-11.7905,-16.7865,-2.2649,
7.3695,-0.97028,3.1137,6.3599,-13.4216,-15.0952,1.3186,0.81463,4.4749,8.2774,1.0337,-0.77894,-5.4761,4.2497,
-0.92395,-0.9116,-7.8678,11.8664,-10.6536,-12.2268,-8.5741,-1.197,4.3364,1.8936,-1.8426,9.0813,2.7037,3.0131,
-6.7562,3.0685,-11.3211,11.1545,-1.1815,-8.5489,-5.1153,8.6889,-2.7935,-1.1643,-5.6575,3.6299,-4.3273,1.8512,
4.4439,6.8094,2.116,18.3365,12.9894,-6.0732,6.9683,13.0745,8.1697,12.6445,-0.411,-2.476,1.8205,11.5537,
5.6494,-7.6992,0.51688,3.1363,12.3391,-16.0129,9.0035,-1.8099,6.2074,8.4514,4.0292,-7.725,10.0522,1.5375,
6.7826,-21.3373,-2.9485,-11.1519,0.31349,-18.4866,6.9911,-5.2662,2.4005,0.58453,11.1482,-1.8639,3.0704,-3.9514,
3.4313,-5.957,1.1538,-5.8353,2.2579,-14.434,2.6462,4.8638,9.1253,2.5117,10.4793,5.1176,2.8861,4.1365,
-6.0975,-2.7848,6.4821,-5.9762,-9.1638,-27.668,8.8662,-1.8076,3.1802,-3.0366,9.3595,3.3384,3.204,-10.2117,
8.3683,1.3077,-3.7208,4.1964,5.4861,-16.3234,8.3342,-2.6803,-11.1106,-5.7987,11.7422,-5.6939,-8.7645,-12.6728,
7.5056,2.2103,-16.2549,3.9446,6.7586,-11.4186,3.9087,2.387,-14.0079,1.419,12.0188,-7.3154,-4.3132,-2.0994,
-7.0447,-4.7915,-4.485,-8.0688,-7.747,-21.5291,5.6369,1.2632,-1.3916,12.1285,4.4284,7.2235,9.6846,-0.9918,
3.0615,-3.0324,3.1444,-10.0384,6.8179,-9.9327,7.7524,-0.28523,-2.7803,15.8168,0.72787,9.8639,11.5563,-6.3303,
4.35,-8.247,-3.4229,-12.8705,-0.45999,-11.79,7.7783,-1.7393,-4.0851,6.5268,4.1195,1.9123,3.5031,-20.0505,
8.996,6.3478,-7.1435,0.65866,-0.43379,-7.1577,0.44142,4.2522,6.9546,12.0224,-6.9233,9.6479,-7.5027,-4.7475,
3.0587,8.0591,-4.2616,-1.8332,4.0087,-2.3118,-0.075155,-3.3627,-3.7667,7.8667,-8.9611,9.5601,-20.3,9.6374,
-3.013,-6.1634,3.8454,0.2395,-1.1379,-2.1726,6.7986,1.746,-9.4284,1.5075,5.6765,8.0049,-4.982,0.84772,
5.5092,-0.39647,-10.4853,8.5665,-0.57908,-4.496,-2.9328,8.0204,3.4036,6.8141,2.5221,2.1275,9.4169,-11.47,
-8.9214,-1.8448,-0.66226,8.5436,-14.6443,-18.3262,9.5105,3.1228,4.6725,8.8586,9.7306,5.4342,0.279,-3.421,
-22.4861,-8.1133,5.7557,5.5772,-21.2559,-23.7353,10.4115,2.4448,-3.9502,1.9479,8.6562,10.5053,-6.1169,0.21817,
-27.7751,-15.9679,-8.6896,-8.8574,-11.6392,-19.8575,1.4454,-0.15559,7.5725,7.229,7.6463,7.4222,2.5915,2.6588,
-37.8849,-17.9536,1.5153,-16.3063,-25.0408,-29.4612,11.1723,-7.0155,12.0247,10.7203,20.9265,8.9395,4.3987,-4.37,
-29.7236,-2.7764,6.3309,-1.228,-25.1401,-13.5935,15.4085,-5.6134,6.3962,11.0582,13.7823,15.2719,3.1537,-6.0709,
-38.7349,-15.7287,1.0445,-4.4591,-22.6501,-15.1016,9.5774,-17.0529,10.9199,7.4513,13.9374,6.5048,12.7785,-6.6878,
-47.2059,-27.5424,-1.9615,-8.117,-13.4402,-26.9534,-0.8103,-17.992,15.1713,7.0042,14.0823,-5.6618,12.0118,3.5265,
-30.2736,-11.7898,-3.807,5.1274,-2.8203,-11.2362,0.21944,-2.8124,6.4102,15.4159,2.4422,-5.322,-1.4672,17.0544,
-21.9485,3.0176,-4.5602,6.7825,-16.7511,-6.9976,5.1133,11.4563,0.13742,6.6406,-1.6293,-1.0768,-10.2107,1.9311,
-10.8185,5.0587,-1.3427,10.3005,-13.4222,-11.4848,0.8806,12.0091,14.2292,3.2974,8.2811,3.8938,-2.7288,-4.6939,
-3.2992,3.7741,-5.1866,2.8136,-4.7651,-14.7202,-0.15336,-1.4688,1.2381,-2.7881,3.8597,-6.1529,-3.5462,2.4584,
-14.3869,3.0571,-3.4038,-0.79003,-16.747,-15.3096,6.235,-0.89014,-12.9361,-9.9811,-2.751,-5.2931,2.0637,5.7457,
-14.5053,4.8359,-10.0693,12.0147,-18.686,-5.5581,-3.9531,12.9027,-1.4948,-2.5125,-3.5671,2.8762,7.8284,1.4746,
0.465,18.6457,-23.5651,21.598,-3.4648,8.8754,-16.9643,16.5441,10.8612,4.016,-8.7506,4.1749,-0.98313,8.746,
14.5371,28.4521,-36.2512,6.2021,10.8431,22.4429,-18.8903,1.4514,-3.8905,-10.325,-22.3256,-10.1756,-14.6631,16.0725,
6.5641,12.645,-19.9761,4.2278,-1.8158,10.0696,-3.6569,2.7065,-6.2394,-2.4747,-6.886,-5.2786,-1.0259,10.2016,
-7.9297,-2.2137,-4.6776,10.3538,-15.8068,-0.83864,4.5429,10.886,8.235,6.0156,7.6271,6.3242,0.50776,-4.5105,
-6.1118,2.5661,-3.9059,16.1117,-14.4969,11.4785,-7.0154,16.612,19.1561,11.0527,1.9015,10.3608,1.949,9.8602,
-18.5029,-5.4387,-7.5969,5.331,-15.5903,-2.9497,5.1818,9.7266,3.9067,0.57555,0.80625,1.8883,-5.0377,23.3686,
-22.2993,-10.0194,-7.1416,7.955,-18.5803,-6.6976,4.8714,6.1992,-8.7245,-4.366,3.7017,-6.0763,-11.6047,9.8287,
-23.4146,-10.8899,-11.1291,6.9871,-13.049,3.0268,-3.7623,4.3556,-5.7477,-6.5578,5.9333,1.6485,1.3584,5.805,
-20.538,-15.635,-8.9892,0.18826,-17.6641,1.373,-2.0654,-1.3043,-3.9312,-1.7479,1.1609,15.6496,5.6934,7.9091,
-5.2058,-0.59688,-7.4692,5.084,-9.7345,12.0853,1.9844,-2.2076,7.0998,7.1894,3.0539,16.8029,-0.53636,2.5275,
-16.5397,2.5132,-5.5479,-1.5998,-13.5664,4.9815,3.3375,-7.4718,9.128,2.3416,12.1937,7.4538,1.9491,-5.9651,
-24.3797,-11.7376,-5.2155,-7.3919,-18.6406,-9.4174,1.1746,-8.0051,1.7102,5.1459,5.5739,7.9872,-5.0371,2.2441,
-26.3513,-17.0505,1.4766,-8.4201,-7.2176,-15.8511,2.5758,-8.9964,0.13588,9.2531,7.6932,9.9617,-10.132,7.5066,
-30.6588,-11.1209,14.1453,0.91709,4.9913,-9.9935,1.4401,-7.4755,6.997,6.7348,20.9701,15.2517,4.5759,-4.7201,
-19.4963,-6.0377,10.8429,11.1666,-3.6496,-10.8661,0.86314,-6.5364,6.0871,0.93357,11.3705,11.8838,17.1888,-15.7225,
-4.5876,-8.6197,14.1177,6.5712,-17.5306,-22.9715,12.5876,-12.0319,7.6841,-0.10356,4.7997,5.2821,8.3057,-13.7981,
-0.38691,-10.0657,22.1026,7.1581,-11.2112,-24.5375,0.056092,-5.4223,16.055,8.7346,5.4929,8.8906,0.9376,1.1298,
-14.4637,-20.747,21.2675,2.3121,-20.8427,-24.5374,-11.2334,-2.6437,6.7508,6.7384,1.7289,6.8851,-0.58987,1.1915,
-23.5389,-15.5768,19.0103,1.1923,-21.5543,-17.1766,3.5406,-7.3916,0.45712,-1.5168,1.6252,-3.3411,-0.55447,-0.84219,
-8.0266,-4.3381,20.323,15.2208,-6.1611,-2.046,8.3651,-2.5326,0.92072,-2.8979,-0.92562,-12.4637,-0.031112,13.3083,
-11.8315,-11.4371,24.5016,16.8908,-5.1713,-7.1908,-6.2368,2.0362,0.37492,1.692,2.5648,-7.2999,-1.5009,6.2611,
-9.1589,3.3491,28.9192,24.7093,-18.6,-1.8528,-5.0114,3.8763,10.1655,7.479,4.3731,7.2381,-2.392,0.97801,
1.6952,7.2031,23.7496,22.7366,-18.9557,3.6559,4.6132,-3.7161,7.1023,5.5581,-3.2491,-2.8797,-11.5715,4.3546,
3.5558,-7.3291,22.3242,14.5023,-18.8004,-5.3958,8.2613,-5.4558,0.78804,4.2431,-1.0914,-5.6517,-5.9711,2.1297,
5.3051,-3.5849,17.0593,10.6888,-17.6724,-11.9418,-1.0663,-9.0539,8.5916,4.9696,-0.044809,5.4826,8.4872,-1.9225,
7.4406,-7.7849,27.3224,13.4823,-30.712,-14.6597,0.46935,-9.9823,22.1761,13.0138,14.0579,7.6073,15.9597,-7.2043,
21.0941,-12.2248,31.5702,18.5615,-32.9243,-9.8547,4.3671,-2.5141,18.0317,19.1022,9.4194,5.1882,1.2622,-11.679,
32.2253,-4.6221,18.8814,7.6342,-25.0607,-5.3375,1.1603,-0.40059,5.1731,12.0679,-3.9036,7.8207,-6.6639,3.1217,
16.1918,-16.1215,15.7858,-1.6562,-37.657,-13.8502,1.0911,-4.3024,8.7886,2.5114,8.1064,5.3888,-1.357,11.4049,
6.7489,-27.9116,17.7825,5.3124,-40.9247,-16.9446,0.044081,-3.0627,18.0748,5.3046,15.4714,-0.82268,3.6305,-3.3794,
20.0829,-26.2373,22.6036,8.9186,-24.3692,-24.7603,2.9853,-1.8974,13.0644,6.949,6.6918,9.0402,0.46879,-4.7783,
28.2004,-10.5631,22.7191,20.6512,-15.9083,-13.9517,-2.591,-0.31183,1.976,6.0415,-2.0511,14.877,-5.9385,0.90546,
24.5462,4.1707,15.4683,25.2998,-0.8538,0.98539,-5.3798,2.6512,1.8574,11.5676,1.0162,-0.11565,4.2318,-5.0365,
9.3349,-5.1425,12.578,10.0433,-5.0886,-8.2667,-2.1127,-6.3399,2.728,2.0416,5.8618,-6.6169,7.9033,-0.80892,
5.3395,-13.1759,7.4064,12.8756,-18.8832,-13.1683,-8.3651,-4.4878,-1.8516,-3.4789,-0.86813,7.028,3.9943,9.5442,
5.0191,-9.441,8.9256,17.0101,-31.8502,-7.4712,-7.8627,1.6696,-1.741,0.65568,5.0721,8.5691,7.6805,-5.1285,
13.0594,-2.4954,11.824,12.5546,-15.8392,-5.5512,-2.975,-1.8654,7.686,8.9577,7.2206,8.5455,0.84053,-2.0069,
26.3758,-5.29,7.1892,13.7636,-0.78888,8.8818,1.1289,-2.7346,17.0388,19.2145,2.8619,10.977,-2.1542,12.2135,
11.6744,-19.0726,0.87014,-1.1623,-4.667,-3.7884,2.0423,-10.4214,2.2771,6.2854,0.72795,-3.7816,0.91935,14.0644,
0.66934,-16.096,0.32644,-15.1925,-18.4869,-14.8468,1.4292,-1.4547,-2.2755,3.4545,3.1371,-4.6667,10.1867,-0.87945,
-8.2023,-4.3346,-1.6549,-14.0499,-28.3024,-12.9744,-7.489,0.59529,2.768,2.2666,5.8936,9.3532,13.5014,-6.8448,
-2.3131,-13.3975,-1.0651,-3.8835,-26.1137,1.9041,-5.567,-3.8564,-5.7399,-6.2108,1.1231,6.3382,2.3867,1.9073,
9.6024,-19.4629,-2.9639,0.27448,-12.7701,4.8637,-1.308,3.2442,-4.4135,4.9565,-2.8692,-3.8547,-10.5134,9.6442,
-1.2783,-26.637,-6.2209,-10.0466,-21.3274,-9.5281,-0.73899,2.559,7.1361,14.9637,6.6254,5.6991,-3.5044,-2.2202,
9.5931,-17.1884,-11.7367,-7.4811,-8.2715,-13.9935,-3.6385,-3.4827,7.6895,3.2703,5.2463,16.1519,9.4628,-3.0686,
18.341,-16.6472,-8.5788,-14.3915,-13.1723,0.095024,-5.8739,-3.7643,1.831,-8.2107,1.4976,2.9159,2.5168,7.4201,
3.5015,-23.4992,-0.21227,-19.4166,-26.482,-6.7799,-10.428,-2.5573,-0.24107,-2.8115,3.37,-1.1844,1.3847,5.0117,
2.8004,-14.729,-1.6717,-4.1516,-11.2836,-7.8453,-3.4236,-3.876,4.1889,6.6801,5.6211,8.2096,2.7738,2.2578,
-3.2562,-24.6408,-5.4973,1.134,3.4934,-14.2447,10.5207,-9.5316,0.99281,0.39027,3.3211,1.828,-6.2251,0.15959,
-0.6071,-18.7459,3.1744,3.5192,15.1896,-9.9547,3.5108,-1.5989,1.4243,3.8022,1.6497,-7.6038,-0.45402,4.5665,
-10.3842,-14.6769,0.039204,-0.61688,0.17821,-14.2645,-10.4388,-4.4478,-2.5861,5.5368,-3.3554,-9.1102,5.4614,5.2731,
-17.1214,-23.1197,3.4717,0.89181,-13.9325,-15.8623,-1.4711,-8.5969,5.91,8.6394,6.1685,5.5364,4.6431,8.3916,
-3.3363,-15.8444,5.2266,6.726,1.0035,-0.81059,2.5426,-1.2113,11.4435,12.0465,9.7238,0.42671,0.4391,2.0004,
-2.155,-0.79375,5.8941,3.379,6.7014,-0.1414,1.4089,2.7868,5.8503,16.2302,12.0846,-6.4686,1.3939,-12.2196,
4.844,8.7069,8.4843,17.2763,-7.8007,-6.021,4.2682,-1.3063,11.3875,23.1077,13.3223,8.0195,3.273,-7.2,
12.4047,-2.6102,-5.7633,13.9155,-13.8409,-15.4729,-4.8198,-5.1524,13.6485,8.9639,2.7089,7.1782,-0.84884,1.0829,
19.0202,-3.9258,-15.7216,-1.0194,1.0896,-18.9609,-9.9282,3.4976,10.3763,5.9718,-4.8134,-1.5943,-2.2701,-4.3797,
27.693,9.0676,-15.7603,-0.10666,15.1242,-11.9352,-15.2211,7.2132,-3.0046,4.6324,-14.3386,-0.51755,-13.9101,1.7708,
19.6523,3.1255,-1.5658,0.3903,0.11676,-5.8215,-6.9476,2.3644,-4.296,-5.9501,-1.2115,0.0040666,-7.6784,3.1371,
12.5855,-8.8378,-7.3605,-0.61424,12.5066,-5.4722,-2.6044,-0.72173,2.8315,-9.5176,0.82437,-5.8838,6.8823,-4.9019,
13.793,-10.2702,-18.6946,-0.57692,24.514,-12.9947,-7.3551,0.30316,-0.28222,-9.9281,-9.0386,-6.5124,4.1461,6.1869,
9.5301,-12.1078,-7.2689,-5.9399,8.9432,-16.6315,-1.5162,3.7194,1.2069,-13.7489,2.7889,1.2382,-3.4625,8.2689,
10.4305,-4.021,-16.1557,-5.0924,13.6742,-10.2355,-13.6925,-3.8636,3.5877,-19.3026,0.16831,-8.1591,8.0305,-2.5313,
10.7858,2.1079,-19.1118,1.1008,26.9537,-7.6592,-14.8342,-7.5572,1.4093,-4.0445,-1.804,-1.781,16.3806,10.3779,
11.6108,-1.4525,-9.6232,6.4323,11.2365,-3.7643,-3.6391,6.1446,2.7969,10.2982,-1.2048,6.6677,1.2978,23.0046,
13.858,1.5785,-11.9906,1.1393,16.941,2.3492,-2.4401,10.683,9.4983,3.5611,-6.0395,-7.8323,-12.8801,8.8665,
7.1388,-5.3859,-13.2334,-9.7242,30.0245,-5.6426,-7.2002,-2.7163,8.9284,-4.5034,-1.7517,-10.9277,1.9927,-5.7655,
8.6732,-11.932,-15.3832,-1.2894,25.8993,-9.2294,-17.5629,0.39141,-5.3463,3.6172,-4.5904,-10.2716,6.6511,-8.9849,
16.0036,2.8839,-16.4234,6.6388,10.2454,-0.82529,-9.6403,11.1621,-5.0255,0.45586,-9.2225,-9.6553,-7.4883,0.38615,
19.4599,16.8109,-13.9659,-7.0079,6.5573,-0.28428,-2.6823,2.1515,7.5433,-6.9313,-10.1413,-3.6784,-12.4357,6.7426,
23.1993,18.515,-17.0529,-15.4199,13.0331,-9.0996,-6.4472,-3.8657,9.0534,1.3359,-4.6258,-2.4761,-12.6711,5.3565,
10.5212,3.3041,-12.5962,-14.0037,-1.8489,-19.8398,2.2815,-0.19941,2.1315,0.7647,5.9559,4.0502,-3.569,8.4695,
-4.2101,-10.9941,-15.2748,-12.6734,-15.838,-27.972,-3.2534,-6.5661,0.5315,-9.5862,-0.78018,10.1868,6.9493,5.508,
-18.0575,-15.01,-12.8857,-6.5149,-15.6378,-27.7658,-2.5672,0.20699,9.8221,-8.5196,7.608,8.103,9.9672,-8.9225,
-2.874,-0.0093958,-3.2802,5.6527,-0.5995,-11.9998,7.4004,10.0081,9.2333,-9.9711,8.1331,3.6919,0.53671,-19.3108,
11.3984,14.0912,-4.556,2.8598,13.5365,2.8201,1.5592,-4.6924,5.2444,-7.9011,-6.4549,0.035503,0.013949,-4.0522,
3.8448,-0.8543,-15.5683,-8.5975,-1.3757,1.9289,-11.7832,-8.9568,5.4203,3.8586,-1.7816,2.4871,3.448,10.2909,
0.17923,1.2887,-22.9756,-2.6845,7.6683,13.0988,-14.511,5.6806,4.6045,9.0242,-1.1841,11.6604,-8.0446,23.7735,
7.0382,5.1368,-12.7651,-3.5046,17.0218,10.3502,-1.8641,4.4877,1.384,1.613,-3.0753,8.0165,-3.6365,10.9589,
10.5413,-7.9288,-11.9992,-2.3132,14.0377,7.7665,-4.6966,-4.6135,-3.6056,-7.3157,-6.8162,-6.5645,6.3948,0.48832,
24.0088,6.647,-18.1485,6.658,27.2955,21.4005,-13.2463,2.5325,-12.2217,-4.9141,-18.184,-18.567,2.0861,4.384,
19.2634,16.6822,-11.1715,-4.5361,27.2599,21.7181,1.2875,-1.5444,-19.3388,-8.5442,-17.0925,-11.5648,0.97937,-6.6737,
4.3687,1.5813,-12.4639,-7.2078,11.5243,6.315,10.0426,-2.4333,-11.3092,-4.1056,-2.3279,-6.9451,2.8833,-2.3474,
1.6528,-3.5501,-9.2623,-0.39709,-1.0734,6.7882,14.8372,-2.7778,3.4694,10.2407,10.0785,6.7196,-2.6868,9.0782,
9.4045,6.4764,-3.8,3.5522,-7.8787,6.3804,5.115,-8.4998,5.3534,10.7364,3.5852,10.2418,-2.5256,-5.5665,
22.9402,14.4297,-17.672,1.8669,6.694,1.5816,-9.2919,1.3332,-7.2351,-4.0077,-6.933,-3.6211,6.9489,-9.2875,
16.2962,14.0545,-24.1015,-11.4931,6.9129,2.9589,-5.43,0.76265,-5.3283,-8.3128,-5.0454,-2.9133,1.134,-6.2765,
8.4492,9.2858,-8.5554,-4.9154,-7.6019,0.81864,8.9958,-1.2458,3.8238,-5.8513,-3.7611,7.0751,-6.7844,-9.8258,
7.4512,4.3127,-6.931,0.77713,-18.0699,-4.6276,-3.1902,11.0962,-7.6918,-12.86,-6.9707,1.2539,-4.9052,-5.8009,
5.0414,9.9421,-14.3655,-4.1765,-10.116,2.5198,-9.868,11.412,-19.0061,-13.07,-5.5709,-3.7283,-6.5736,-0.54584,
15.5341,22.1029,-15.4667,10.1741,4.5909,11.2006,-5.3505,5.8208,-10.0149,-7.3793,-4.2555,-4.4857,-1.2727,-7.3828,
10.1861,8.5099,-12.0859,11.6559,3.4634,-3.5715,-6.5012,6.9432,-6.9612,-6.446,-6.453,-4.7081,5.1829,-16.2633,
3.1957,3.5833,-8.907,-0.32918,-1.1604,-1.0339,-1.6951,4.0729,-7.0341,-6.5498,-6.5573,2.9347,-1.5073,-1.1875,
3.004,1.4052,-8.3726,-4.2348,7.7412,13.1281,5.2754,-4.0223,-2.6866,-16.9519,0.70584,0.79543,-8.2866,12.9838,
1.3516,-12.7791,-8.3604,0.43569,-3.0274,15.4147,-3.3821,-1.3277,-5.9598,-22.3135,3.1177,-1.7046,0.55251,-1.8953,
4.7058,-8.7066,-5.4055,-3.0248,-0.39199,13.0177,-2.6881,0.22409,-7.0744,-20.4837,-0.50469,-3.0745,-0.95279,-1.6516,
8.3484,-2.2965,-1.1562,-4.8061,4.5381,11.2551,-0.56415,2.1734,-6.6494,-17.2919,-1.456,-2.8905,-0.89516,3.3545,
11.7734,3.7298,1.857,-6.4813,9.1723,10.5797,1.4315,4.0057,-6.2509,-14.2917,-3.3313,-2.7166,-0.84192,8.0603,
14.9924,9.3937,5.6719,-8.0547,13.529,8.9638,2.3276,5.7285,-4.8948,-12.4531,-4.1126,-2.5536,-0.7914,12.4832,
18.5084,15.2088,8.766,-10.0247,16.1521,7.935,3.6601,7.8381,-5.0912,-10.2337,-6.3191,-2.8914,-2.2161,16.1507,
19.3611,18.2217,10.2023,-14.3307,19.1079,4.5146,4.4216,7.3678,-5.7678,-8.6386,-9.8654,-3.6991,-3.0642,19.1061,
19.181,11.2402,9.5906,-6.6007,3.8615,-9.8563,-6.6383,-7.1743,-5.4212,-13.0273,2.5023,-0.53328,2.0266,6.1839,
10.6699,-3.5342,9.5058,-7.6772,-5.3317,-22.1518,-7.7126,-4.9111,-19.1959,-18.6239,1.8616,-11.787,12.2087,-1.5474,
13.4641,-0.016787,18.2584,-5.7445,-7.4651,-7.5743,4.0363,9.4835,-12.7766,-10.1466,-1.6845,-6.6633,-0.79019,3.943,
9.2218,1.4564,18.635,-11.7785,-19.2845,-20.3682,4.2842,-0.27893,-4.6502,-12.9722,1.851,0.11517,-14.8428,2.2343,
21.4254,10.2005,9.6656,-2.2393,-4.0274,-17.1839,-5.7864,3.6637,1.5169,-8.2689,-2.185,-1.8544,-8.1945,9.9506,
9.3457,-2.1869,7.1235,-7.0115,0.76023,-20.0778,-12.3089,7.3693,6.3334,-3.8474,-3.036,-10.5751,-2.7954,-4.7464,
1.9148,-10.8886,19.453,-3.647,-10.081,-19.8552,-1.7568,-7.1729,7.9152,-5.5792,11.2462,-2.0903,0.31616,-9.9883,
13.0856,2.032,14.8519,8.8386,4.6239,-4.5639,1.7834,-4.9098,-2.8634,-13.5859,2.851,3.4332,3.732,4.711,
10.8288,3.3818,18.3767,7.8178,18.4464,6.1445,7.0744,9.4848,1.7244,-4.4293,-6.6435,10.5865,-0.90786,3.0858,
10.6696,-5.1625,16.7836,4.895,7.2955,2.341,-2.6735,9.5363,1.1304,-0.72872,-7.7165,3.5731,-14.9534,-0.53332,
15.9176,1.0354,10.8695,0.67631,18.6341,7.1075,-2.5126,0.13167,-12.6764,-9.5174,1.5789,-9.3991,-7.3169,13.5987,
5.6395,-2.4611,7.7632,-10.6504,18.0061,-4.6051,-1.8717,3.5582,-16.3323,-16.3062,0.99312,-14.2327,7.2221,19.7815,
13.6425,-4.7672,2.8823,-9.5199,24.2869,-8.7443,-8.1377,-1.0704,-7.01,-6.0053,-6.4267,-10.925,5.4466,4.4946,
26.924,2.8786,5.1617,-2.571,26.2641,5.8804,4.6169,-1.4972,-8.0625,0.73371,-3.5879,-3.8908,-0.27776,-2.2837,
35.2521,10.5577,7.7963,0.52759,25.6694,18.4149,5.322,12.3312,-16.4107,0.69062,-5.3348,-5.6206,-13.9996,7.6673,
19.037,-4.1758,6.3479,-12.261,10.0292,3.21,-2.8486,7.6663,-8.5563,5.5562,0.87338,-11.1715,-17.0855,4.2635,
3.7947,-11.9065,4.4949,-14.9606,-4.6725,-11.0826,-4.1499,-6.8936,0.29843,2.7686,3.2742,-6.0847,-4.7751,-7.2785,
13.1211,2.9079,1.7714,0.036998,-0.72627,-10.6772,-7.3357,0.75072,0.77109,-5.7389,-6.2457,3.6029,4.8348,-1.4447,
16.2592,-4.9875,-0.2971,-8.6672,-5.5892,-4.1484,-6.8956,10.5188,0.72482,-11.2832,1.9799,-1.5198,3.5636,-13.1343,
5.4706,-14.5017,0.70185,-9.1283,-5.2539,-10.7687,4.3133,2.0368,3.6256,-5.6987,10.694,-5.3541,5.312,-20.1971,
3.6702,0.46836,1.1508,2.7046,6.347,-10.6132,5.5266,-7.4084,-0.026298,-2.9035,2.6926,-0.61637,-0.40332,-4.8852,
-9.3078,-8.2626,-1.863,-8.2532,-8.1338,-11.9396,-1.6742,-5.0012,-0.025187,-4.692,5.4739,6.2899,-5.2871,8.2952,
-20.5256,-21.8669,-2.7324,-12.6646,-21.7457,-15.1486,-0.59264,-4.7011,-1.9859,-7.3548,4.1653,4.9313,6.8074,-1.0344,
-15.3687,-25.1004,11.5316,2.1953,-19.7194,-23.0721,11.2192,-2.4559,-8.7365,-5.9324,-0.010988,4.6355,14.2497,-13.7297,
-2.1797,-9.4944,14.8951,4.1558,-4.4362,-20.2156,4.1669,1.1254,-5.759,3.747,-4.4263,1.9036,-0.70524,-8.49,
-1.0678,-3.8886,-0.098625,-6.8887,9.9299,-4.9027,7.8423,-4.8298,0.47465,4.5033,-1.2164,-3.1172,-9.6258,6.1194,
-3.457,-11.0151,-1.2043,-4.0211,-0.21989,-1.5347,16.6947,-14.8441,-2.0071,-7.0521,5.2352,-6.3655,-0.70639,1.9564,
7.546,-7.4099,-1.1316,5.0526,-5.1132,-4.3865,1.9541,-4.1399,4.0015,0.24027,1.9773,-6.9642,4.243,-12.261,
0.22306,-5.0031,-11.8593,-8.0084,-12.6577,-7.0676,-8.9578,-0.94768,-0.16452,7.0951,-4.0295,-5.5657,-8.7694,-7.2394,
6.5888,9.3971,-0.84314,3.7578,-4.538,7.4565,-4.0044,1.5629,-1.6263,12.0674,-6.2414,5.0728,-11.6781,3.4996,
13.5533,10.4354,1.6607,13.8364,-5.7374,13.5178,-2.292,10.7921,0.92452,13.7967,-11.2645,1.3341,-11.4675,1.8174,
-1.3599,2.94,-5.3082,4.1738,-19.1326,2.8927,-3.136,11.1253,-4.038,6.0987,-5.6816,-3.653,-12.7422,15.8084,
3.9897,16.8636,-9.8967,6.8672,-11.1149,1.738,-12.7614,4.5696,-5.7584,-1.1365,-4.3592,-2.4522,-12.9592,26.2756,
2.7692,12.5465,-4.3964,3.5118,-15.355,1.6337,-7.0892,7.2397,-6.394,1.876,0.80893,-9.1748,-8.2563,10.599,
-4.7577,11.3027,7.1536,5.7544,-7.0735,12.8214,7.4361,20.0538,-20.1104,8.1421,5.1768,-11.0776,-2.3633,-4.1369,
-1.0364,17.9857,11.1404,11.7883,6.5998,10.5804,15.4618,13.4534,-33.0037,1.2754,-1.5129,-8.9412,-3.6932,10.2113,
-5.8812,3.1667,5.5649,2.2485,-2.6286,-4.1544,3.7395,0.8695,-45.1235,-3.7082,2.5037,-9.3863,-4.4532,-4.5014,
0.85033,5.4309,-2.1288,4.5669,11.6291,6.76,4.9872,9.1592,-56.5161,9.7627,8.7322,-7.351,7.0992,-12.8322,
-3.127,-5.691,-7.8896,-8.4654,6.1534,12.2416,3.706,-5.4904,-67.2251,-3.5813,-2.5869,-14.7608,10.5987,0.69511,
-0.48568,-1.9142,1.9072,-7.466,-0.594,-2.5929,10.8439,-7.2532,-77.2916,-8.7636,2.9654,-1.6083,6.5279,13.9023,
-1.4381,8.0137,-3.1143,0.83232,13.5416,0.37746,5.2862,0.051267,-86.7541,-5.2939,2.788,-5.4368,-7.6027,8.1611,
-4.7858,-3.7524,-1.4557,2.2541,19.7284,10.6594,10.3671,-6.331,-95.6489,0.42082,9.981,-7.5643,3.158,-4.5954,
-5.4802,-11.3781,-11.181,-0.82501,4.8057,10.0198,1.8938,-8.8949,-104.01,1.3781,4.4751,-2.2034,7.8755,-15.1152,
-4.1707,1.0804,-23.2689,-1.7571,3.5353,3.53,-5.09,2.4334,-111.8694,-5.5748,-1.6815,-3.0528,-6.697,-0.46935,
4.4218,3.4703,-8.6239,2.7652,3.8147,-5.0227,2.5766,6.7043,-119.2572,-9.6563,2.8354,3.5095,-13.2944,7.9011,
8.0815,-9.4967,-5.1626,-1.3266,-1.3212,-6.6845,0.45926,-5.4746,-126.2018,-1.2265,-3.2229,3.2985,-1.7021,-6.6729,
-6.5034,-16.2867,-12.2127,-12.5322,-13.5087,-4.8113,-1.0404,-7.5994,-132.7297,4.2446,-0.57625,-3.2781,-2.091,1.4483,
-7.2239,-1.2095,-14.4242,-4.9115,-5.829,4.3093,-5.8855,2.6696,-138.8659,-5.8231,4.3649,-3.0814,-3.9278,11.1745,
2.0415,2.4279,-9.6333,-1.6725,-1.5538,4.0513,-5.5314,9.3791,-144.6339,-6.4558,0.17849,2.992,2.1956,-3.596,
-12.181,-11.8178,-12.4902,-7.9513,-15.5606,-10.2918,-5.691,2.4372,-145.2623,-0.67041,-5.2303,4.2842,-9.2219,-7.4356,
-17.9588,-14.6736,-17.1374,-1.0946,-7.3962,4.4257,0.048929,1.8009,-143.9059,4.7674,-0.49999,5.4993,-10.1398,7.1105,
-15.4091,-0.54475,-12.6748,2.4055,-7.443,10.5393,11.3312,0.22071,-148.52,-5.8228,8.853,3.6972,0.77271,7.3054,
-0.38456,-0.51253,-5.0455,13.0563,7.1036,-4.1931,7.7071,-6.6622,-134.7027,0.41426,7.3398,6.4197,-3.1991,-7.233,
3.6939,4.9163,-4.2522,14.7257,20.7774,-10.9412,3.8098,-11.6596,-112.5205,14.4894,2.4834,2.5996,-4.4797,7.301,
-10.6277,4.6208,-14.7918,-0.25784,15.3738,3.8153,2.5996,1.7978,-114.4713,-0.47996,0.37168,-11.6564,7.5658,10.2973,
-3.2503,16.6108,-13.4132,5.5172,11.9981,17.6864,-2.953,15.7899,-120.8514,-8.302,-3.085,-9.1238,9.5651,8.2073,
-14.341,9.236,-8.1925,2.7324,-2.8218,30.7252,-10.1361,7.6118,-111.1466,-0.4436,-2.4094,-4.1604,-2.2945,14.0941,
-26.7289,14.0784,-14.0796,2.0774,-16.7525,42.9817,-6.0936,11.5706,-97.1184,11.8494,3.1328,-0.47638,-1.6667,12.7574,
-20.7092,21.5751,-18.6329,5.3876,-22.386,46.8104,-5.2374,24.9764,-91.7814,18.4996,12.2673,3.9691,-0.094124,11.5014,
-27.3175,6.1806,-8.682,-3.7676,-28.8932,29.9018,-7.8665,9.3778,-84.3118,15.4265,16.4388,13.5441,3.8369,18.6621,
-24.6969,8.134,-7.1795,-3.542,-26.1785,34.3564,-8.3761,3.4185,-73.365,17.4447,1.3524,15.6752,0.66289,31.6424,
-18.3085,18.4411,-12.6373,2.5591,-24.6078,42.109,-8.8547,17.3134,-66.0188,15.4169,-4.2563,1.9773,-13.4769,19.5698,
-15.2478,20.278,-11.8791,12.2187,-16.2621,43.5069,-14.212,15.9131,-58.1327,8.6033,3.8499,-5.9921,-15.252,6.6184,
-12.8603,24.4594,-18.5266,13.9393,-2.0375,47.2757,-12.8687,12.5055,-60.0419,4.6532,-3.7413,-3.1789,-1.088,10.6382,
-23.3744,14.6495,-15.9433,1.8172,-11.2387,34.1346,-2.774,13.2268,-61.8374,2.9014,-0.08199,-1.5165,6.3376,6.5641,
-31.294,4.4484,-5.6628,4.1615,-24.6644,17.9865,-7.0231,0.16687,-51.7475,-1.6882,8.2648,-2.8976,7.4294,3.7179,
-21.0754,7.6159,-0.90753,12.2536,-22.8235,4.5114,-3.1673,-2.2973,-44.2272,-6.9845,10.2222,3.6549,6.4927,15.7612,
-5.7109,7.6495,-8.2134,4.1581,-7.3541,18.3407,5.3641,4.2197,-39.1198,-4.1117,1.2674,6.8705,-7.9969,17.2693,
0.15888,-5.0753,-8.2111,-0.50733,1.5591,23.7485,0.62721,4.457,-22.6726,8.4018,3.6451,4.0055,-9.1178,12.7982,
-13.9507,-12.6226,-8.6996,-5.3834,-12.6345,11.5285,-1.3736,0.26419,-25.1081,15.7485,10.2952,-0.16029,5.5292,12.0304,
-5.3918,2.2348,-10.6313,4.2621,-1.2113,15.2537,4.1059,8.5897,-20.1668,28.9036,9.1869,3.2842,13.1774,11.7991,
-1.6339,-5.1301,-3.6148,-2.3723,-6.5366,0.23845,8.276,-5.174,-4.8568,31.7149,13.0522,0.63294,1.1006,-3.0089,
-8.8966,-6.2944,5.9251,-4.6842,-20.2444,-8.2482,10.2327,-10.2612,-7.8707,26.3767,16.6845,7.9548,-1.4187,-7.3743,
1.4512,8.1833,-6.2067,1.4855,-4.9298,6.3467,1.7679,2.1308,-21.4985,15.9621,8.8147,18.2736,-0.35155,-0.06212,
-4.0339,-0.028581,-7.3059,-6.9451,-1.6897,5.1148,-4.7173,0.53123,-25.2451,5.6819,11.7197,22.5742,9.9732,-5.4555,
-4.7721,-7.8772,-5.8865,-9.4717,-15.6883,-5.9863,-9.3408,-4.4072,-15.8791,-5.4532,3.1666,7.1198,8.3937,-5.1282,
7.7801,-1.0259,-6.0238,-4.4884,-10.9516,-2.1932,-1.4201,3.2166,-16.399,-12.4872,0.52291,-7.4074,-1.4334,1.5577,
3.8794,-2.436,-1.2464,-1.7653,-4.8965,-10.403,-0.84432,7.4405,-22.7744,-16.154,1.9642,-9.1852,-4.7813,-12.6357,
7.5711,4.5789,7.6603,7.1725,-2.6404,-9.7788,-9.6266,4.0498,-20.4272,-15.1847,-5.0243,-8.6341,-10.383,-21.8206,
2.2108,7.2489,20.9406,13.6124,-9.3512,-5.2667,-2.1788,-1.1002,-8.4065,-15.2552,5.0916,-0.26473,-14.6661,-6.4114,
0.11495,7.7951,14.7767,18.6833,-1.9209,-1.0257,-4.9924,1.9101,-7.9021,-12.3768,6.7483,3.6766,-7.8985,8.0733,
3.5429,5.8548,-0.20991,15.1086,-1.3146,1.4896,-14.0153,6.2115,-21.528,-10.1625,-7.7566,-8.8118,-5.9529,-6.5111,
-5.0111,5.0139,13.9027,18.619,-3.689,7.7793,0.92559,9.2736,-17.9121,-4.1547,3.8655,-1.9039,3.7277,-6.4806,
