"AF3","AF4","F3","F4","F7","F8","FC5","FC6","O1","O2","P7","P8","T7","T8",
49.4872,9.9999,51.5385,-41.2821,-30.0001,-58.7179,-73.5897,-8.9745,-3.3334,44.3588,140.2562,54.6151,3.3334,-31.5385,
46.4104,24.9999,66.5385,-26.2821,-15.0001,-43.7179,-58.5897,-13.5898,11.6666,29.3588,128.4617,50.5129,-3.3333,-16.5385,
31.4104,39.9999,66.6665,-11.2821,-0.0001225,-28.7179,-46.1538,-28.5898,26.6666,14.3588,113.4617,35.5129,-18.3333,-11.7949,
16.4104,40,73.3335,0,-3.5898,-13.7179,-49.2307,-43.5898,41.6666,-0.64124,98.4617,31.2822,-33.3333,0,
25.6409,26.6667,73.8464,1.5383,-3.5896,-7.6921,-34.2307,-58.4614,56.6666,-15.6412,91.282,40.5129,-30.7693,-1.5383,
40.5127,24.1025,70.2563,0,0,-9.231,-24.6155,-43.4614,68.2051,-24.6155,102.0513,52.3076,-15.7693,-1.5386,
26.1538,17.9487,62.0513,-15,-3.0769,-22.564,-39.6155,-37.4358,54.3589,-9.6155,117.0513,43.0771,-15.3845,-16.5386,
22.3079,32.9487,77.0513,-11.5383,5.3845,-8.9744,-37.6921,-42.3076,54.1028,-20.7693,102.0513,46.4104,-20.7693,-5.3845,
25.641,33.3334,81.5385,2.5641,-9.6155,-14.8719,-41.0258,-31.2821,42.0511,-5.7693,109.2308,52.8202,-21.0258,-5.1283,
10.641,18.9744,66.5385,4.6155,-13.3333,-2.5642,-28.718,-46.2821,57.0511,-20.7693,94.2308,37.8202,-36.0258,-7.6921,
-4.359,11.7949,51.5385,-2.0513,-3.0767,8.7178,-16.9229,-61.2821,72.0511,-35.7693,79.2308,22.8202,-51.0258,2.0513,
10.641,21.0259,65.6411,-8.2051,-1.0256,-6.2822,-31.9229,-46.2821,64.1025,-20.7693,94.2308,37.8202,-36.0258,1.0256,
25.641,20,72.3076,-23.2051,-16.0256,-21.2822,-46.9229,-31.2821,49.1025,-5.7693,109.2308,50.769,-21.0258,-13.9744,
40.641,16.1539,67.4359,-33.077,-31.0256,-36.2822,-61.9229,-16.2821,34.1025,9.2307,123.8461,45.3846,-6.0258,-28.9744,
25.641,17.9485,56.9231,-18.077,-16.0256,-21.2822,-46.9229,-31.2821,49.1025,-5.7693,108.8461,30.3846,-21.0258,-30.2566,
10.641,25.1279,48.2051,-3.077,-1.0256,-6.2822,-31.9229,-46.2821,64.1025,-20.7693,93.8461,15.3846,-36.0258,-15.2566,
-4.359,31.282,63.2051,2.5642,-5.6409,-5.6409,-32.8206,-61.2821,49.1025,-5.7693,78.8461,16.4104,-49.7437,-2.5642,
10.641,19.4871,72.3079,-12.4358,-20.6409,-20.6409,-47.8206,-46.2821,34.1025,9.2307,93.8461,31.4104,-34.7437,-17.5642,
25.641,6.6666,60.5128,-27.4358,-35.6409,-35.6409,-62.8206,-31.2821,19.1025,24.2307,108.8461,46.4104,-19.7437,-32.5642,
10.641,20.7693,57.6926,-20.7693,-20.6409,-20.6409,-47.8206,-46.2821,34.1025,27.4358,93.8461,31.4104,-34.7437,-17.5642,
-4.359,11.0256,42.6926,-5.7693,-5.6409,-5.6409,-32.8206,-61.2821,49.1025,12.4358,78.8461,16.4104,-49.7437,-2.5642,
-19.359,26.0256,48.4614,-0.25635,-2.8203,5.3848,-18.7178,-76.2821,53.0771,17.1797,63.8461,1.4104,-64.7437,0.25635,
-4.359,26.923,63.4614,-15.2563,-17.8203,-9.6152,-33.7178,-61.2821,38.0771,32.1797,78.8461,16.4104,-49.7437,-14.7437,
10.641,11.923,48.4614,-30.2563,-32.8203,-24.6152,-48.7178,-46.2821,23.0771,47.1797,93.8461,31.4104,-34.7437,-29.7437,
14.6152,26.923,61.2822,-15.2563,-26.4102,-39.6152,-62.8203,-61.2821,21.7949,49.4873,78.8461,35.6411,-42.3076,-14.7437,
-0.38477,27.1797,46.2822,-0.25635,-11.4102,-24.6152,-47.8203,-76.2821,36.7949,34.4873,63.8461,20.6411,-57.3076,0.25635,
-15.3848,17.9485,40.5129,-1.0256,-2.5642,-9.6152,-32.8203,-91.2821,51.7949,19.4873,48.8461,5.6411,-72.3076,1.0256,
-0.38477,13.5898,55.5129,-16.0256,-17.5642,-24.6152,-47.8203,-76.2821,36.7949,34.4873,63.8461,13.5898,-57.3076,-13.9744,
14.6152,0.51282,52.3075,-31.0256,-32.5642,-39.6152,-62.8203,-61.2821,21.7949,49.4873,78.8461,26.1537,-42.3076,-28.9744,
29.6152,15.5128,67.3075,-16.0256,-17.5642,-26.4103,-47.8203,-46.2821,7.4359,60.7694,90.5126,32.5638,-27.3076,-24.8719,
14.6152,30.5128,52.3075,-1.0256,-2.5642,-11.4103,-32.8203,-61.2821,22.4359,45.7694,75.5126,17.5638,-42.3076,-9.8719,
-0.38477,19.7437,37.3075,2.3076,-0.25635,-6.9229,-40.769,-76.2821,19.231,30.7694,60.5126,2.5638,-57.3076,5.1281,
6.4104,15.1282,42.3079,-12.6924,-15.1282,-21.9229,-48.4617,-61.2821,14.6155,45.7694,75.5126,17.5638,-42.3076,-6.4104,
21.4104,10.5128,48.9742,-27.6924,-29.4872,-36.9229,-62.8204,-46.2821,15.1281,60.7694,90.5126,32.5638,-27.3076,-21.4104,
12.564,12.564,47.9487,-25.8975,-14.4872,-31.5383,-48.4614,-32.0513,25.8975,70,91.0259,27.9487,-26.9231,-28.9744,
-2.436,23.5898,38.4614,-10.8975,0.51282,-16.5383,-33.4614,-47.0513,30.2563,55,76.0259,12.9487,-41.9231,-13.9744,
-17.436,32.3076,42.0513,-0.5127,-8.2051,-4.6152,-41.0256,-62.0513,15.3848,40,61.0259,9.231,-56.9231,0.5127,
-2.436,30.5129,54.1028,-1.282,-5.8972,-3.3333,-31.0256,-55.6411,28.9744,37.1794,57.6921,24.231,-51.0256,-5.8972,
10,15.6411,50,-15.6411,-15.6411,-16.6665,-35.1284,-49.4873,30,32.564,58.2051,31.5386,-43.8462,-10,
8.4614,17.1797,46.9233,-19.7434,-18.2051,-25.3845,-47.9485,-34.4873,34.6157,47.564,73.2051,29.4873,-30,-8.4614,
4.1025,25.6411,46.1538,-14.8721,-13.8462,-31.7949,-54.8721,-38.9746,28.7178,48.2051,76.4102,28.2051,-29.231,-4.1025,
13.3333,27.6921,56.9231,-11.7947,-10.7693,-32.8206,-52.3076,-27.6924,13.7178,63.0769,86.1536,30.2566,-29.2307,-11.7947,
-1.6667,27.4355,55.1279,-4.8721,-0.25635,-17.8206,-37.3076,-42.6924,23.8462,48.0769,71.1536,15.2566,-44.2307,-12.0513,
-16.6667,23.0767,41.0254,-5.1284,0,-2.8206,-22.3076,-57.6924,38.8462,33.0769,56.1536,0.5127,-59.2307,2.564,
-1.6667,21.5386,47.6924,-7.6924,-2.564,-17.4358,-36.4102,-42.6924,44.1025,48.0769,71.1536,15.5127,-44.2307,0.51269,
13.3333,20.5129,56.4104,-15.3845,-17.564,-32.4358,-51.4102,-27.6924,29.1025,63.0769,86.1536,30.5127,-29.2307,-14.4873,
28.3333,17.436,58.4614,-27.6924,-32.564,-47.4358,-66.4102,-12.6924,14.1025,78.0769,101.1536,45.5127,-14.2307,-29.4873,
13.3333,23.0769,44.615,-12.6924,-17.564,-32.4358,-51.4102,-27.6924,29.1025,63.0769,86.1536,30.5127,-29.2307,-14.4873,
-1.6667,18.7183,29.615,-3.8462,-2.564,-17.4358,-36.4102,-42.6924,44.1025,48.0769,71.1536,15.5127,-44.2307,0.51269,
-16.6667,33.0771,44.615,-0.25635,-2.3076,-4.3589,-24.8716,-57.6924,37.6924,33.0769,56.1536,2.8203,-59.2307,0.25635,
-1.6667,18.0771,44.1023,-15.2563,-17.3076,-19.3589,-39.8716,-42.6924,22.6924,48.0769,71.1536,17.8203,-44.2307,-14.7437,
13.3333,3.0771,29.1023,-30.2563,-32.3076,-34.3589,-54.8716,-27.6924,7.6924,63.0769,86.1536,32.8203,-29.2307,-29.7437,
2.3076,18.0771,43.3335,-15.2563,-17.3076,-21.2817,-39.8716,-42.6924,22.6924,48.0769,71.1536,23.3335,-43.8462,-14.7437,
-12.6924,5.1284,28.3335,-1.5386,-2.3076,-6.2817,-24.8716,-57.6924,37.6924,33.0769,56.1536,8.3335,-58.8462,0.25635,
-27.6924,20.1284,29.4873,1.2822,1.7949,8.7183,-9.8716,-72.6924,34.1025,18.0769,41.1536,-6.6665,-73.8462,-1.2822,
-12.6924,14.1023,37.6921,-13.7178,-13.2051,-6.2817,-24.8716,-57.6924,19.1025,33.0769,56.1536,8.3335,-58.8462,-16.2822,
2.3076,-0.89771,24.6154,-28.7178,-28.2051,-21.2817,-39.8716,-42.6924,4.1025,48.0769,71.1536,23.3335,-43.8462,-31.2822,
3.0769,14.1023,39.6154,-13.7178,-19.9998,-27.6921,-53.3333,-48.718,4.6155,33.0769,61.0256,19.4871,-33.8459,-23.0769,
-11.9231,26.9231,24.6154,1.2822,-4.9998,-12.6921,-38.3333,-63.718,19.6155,18.0769,46.0256,4.4871,-48.8459,-8.0769,
-26.9231,16.4102,11.7949,0,0,2.3079,-25.6411,-78.718,20,3.0769,31.0256,-10.5129,-63.8459,4.1025,
-11.9231,14.6155,26.7949,-15,-15,-12.6921,-40.6411,-63.718,5,18.0769,46.0256,4.4871,-48.8459,-10.8975,
3.0769,-0.38452,25.8977,-30,-30,-27.6921,-55.6411,-48.718,-10,33.0769,61.0256,19.4871,-33.8459,-25.8975,
18.0769,14.6155,40.8977,-15,-15,-16.1538,-40.6411,-33.718,-4.8718,48.0769,76.0256,34.4871,-18.8459,-12.0513,
3.0769,29.6155,27.9485,0,0,-1.1538,-25.6411,-48.718,10.1282,33.0769,61.0256,19.4871,-33.8459,2.9487,
-11.9231,30.7693,19.4871,6.6667,5.6409,-2.5642,-28.2048,-63.718,23.5896,18.0769,46.0256,4.4871,-48.8459,2.5642,
3.0769,26.1541,34.4871,-4.6155,-8.2053,-17.5642,-36.9231,-48.718,8.5896,33.0769,51.7947,19.4871,-33.8459,-6.6667,
18.0769,11.1541,34.6152,-19.6155,-23.2053,-32.5642,-51.9231,-33.718,-6.4104,48.0769,66.7947,21.7949,-18.8459,-21.6667,
13.8463,24.6154,36.4103,-15.3844,-8.2053,-25.1281,-42.0511,-18.718,-5.641,53.3336,70.7692,9.7438,-3.8459,-15.8973,
-1.1537,34.6157,41.2822,-0.3844,6.7947,-10.1281,-27.0511,-33.718,9.359,38.3336,55.7692,-1.7949,-18.8459,-0.89734,
-9.2307,32.3074,53.3333,-1.0256,5.6409,-18.9744,-24.6155,-47.6924,1.0256,24.1023,40.7692,4.1023,-33.8459,-5.1282,
-1.5383,23.0769,45.1282,-9.7434,4.1028,-12.8206,-23.0769,-55.3845,16.0256,9.7434,25.7692,1.5383,-33.3333,-19.4871,
-0.76929,22.3079,31.5388,-16.1536,0.76929,-8.9744,-29.9998,-49.4871,12.0515,11.5388,16.1541,8.4617,-28.9744,-12.051,
6.9231,27.4358,33.5896,-14.1025,2.8206,-21.7949,-41.7949,-34.4871,-2.8206,26.5388,31.1541,15.6409,-13.9744,-7.9485,
20.5127,34.8716,44.1025,-2.0513,1.5386,-34.8716,-53.3335,-19.4871,-5.6411,41.5388,43.5898,24.6152,-1.5386,-7.6924,
35.3843,37.9487,55.8975,-4.6157,4.1025,-33.3335,-54.3591,-13.8464,-13.8464,56.5388,52.3076,23.0767,-4.1025,-22.6924,
21.7949,39.231,51.0259,-3.333,19.1025,-18.3335,-39.3591,-28.8464,1.1536,41.5388,37.3076,8.0767,-19.1025,-22.8203,
6.7949,34.1025,36.0259,0.25635,34.1025,-3.3335,-24.3591,-43.8464,16.1536,26.5388,22.3076,-6.9233,-34.1025,-9.4868,
20,40.5127,43.5898,-0.5127,20.5127,0.5127,-26.6665,-37.436,1.1536,17.9487,21.5386,-6.1538,-40.5129,-24.4868,
35,36.6667,46.4104,-15.5127,5.5127,-14.4873,-41.6665,-22.436,-13.8464,32.9487,36.5386,6.9231,-25.5129,-39.4868,
37.6921,21.6667,31.4104,-30.5127,-9.4873,-29.4873,-56.6665,-7.436,-28.8464,47.9487,51.5386,4.3591,-10.5129,-54.4868,
22.6921,36.6667,41.0259,-15.5127,5.5127,-14.4873,-41.6665,-22.436,-13.8464,32.9487,36.5386,-3.0767,-25.5129,-39.4868,
7.6921,28.9741,26.0259,-0.5127,20.5127,0.5127,-26.6665,-37.436,1.1536,17.9487,21.5386,-18.0767,-40.5129,-24.4868,
-1.282,43.9741,39.7434,5.3845,18.718,15.5127,-18.2053,-52.436,-6.4104,5.3845,6.5386,-4.3591,-50.5129,-9.4868,
13.718,28.9741,24.7434,-9.6155,3.718,0.5127,-33.2053,-37.436,-21.4104,20.3845,21.5386,6.4104,-35.5129,-24.4868,
20.2563,13.9741,9.7434,-24.6155,-11.282,-14.4873,-48.2053,-22.436,-36.4104,35.3845,36.5386,3.8462,-20.5129,-39.4868,
11.0259,28.9741,24.7434,-9.6155,-5.8975,-9.4873,-33.2053,-37.436,-21.4104,20.3845,21.5386,6.4102,-30,-24.4868,
-3.9741,18.9746,9.7434,5.3845,4.1025,5.5127,-18.2053,-52.436,-6.4104,5.3845,6.5386,-8.5898,-45,-9.4868,
-18.9741,33.5896,24.7434,16.6667,11.0256,10.5129,-7.4358,-67.436,8.5896,-9.6155,-8.4614,-19.7434,-54.1023,5.5132,
-3.9741,18.5896,13.5898,1.6667,-3.9744,-4.4871,-22.4358,-52.436,-6.4104,5.3845,6.5386,-4.7434,-39.1023,-9.4868,
11.0259,3.5896,9.4872,-13.3333,-18.9744,-19.4871,-37.4358,-37.436,-21.4104,20.3845,21.5386,10.2566,-24.1023,-24.4868,
15.8977,18.5896,24.4872,-11.282,-9.7434,-28.2051,-40,-27.1794,-6.4104,32.8206,27.6921,22.5642,-9.1023,-29.2307,
0.8977,22.0513,15.3848,3.718,5.2566,-13.2051,-25,-42.1794,8.5896,17.8206,12.6921,7.5642,-24.1023,-14.2307,
-14.1023,24.8718,15.6409,15.6409,6.9231,1.7949,-10,-57.1794,1.282,2.8206,-2.3079,-7.4358,-39.1023,0.76929,
-2.3076,18.2051,20.2563,0.64087,-8.0769,-13.2051,-25,-42.1794,-13.718,17.8206,12.6921,7.5642,-24.1023,-5.3848,
5.8977,3.2051,5.3845,-14.3591,-23.0769,-28.2051,-40,-27.1794,-28.718,32.8206,27.6921,22.5642,-9.1023,-20.3848,
8.718,15.8972,20.3845,-22.5642,-8.718,-27.6924,-40.0002,-24.1028,-36.4104,39.4871,42.6921,16.9231,5.8977,-29.7437,
-6.282,23.8462,21.7949,-7.5642,6.282,-12.6924,-25.0002,-39.1028,-21.4104,24.4871,27.6921,1.9231,-9.1023,-14.7437,
-21.282,38.8462,35.3845,7.4358,6.1536,2.3076,-10.0002,-54.1028,-6.4104,9.4871,12.6921,-0.51294,-24.1023,0.25635,
-6.282,42.5645,38.9746,7.1797,-4.1025,-6.1538,-19.4868,-39.1028,-11.2817,24.4871,21.0259,14.4871,-9.1023,-10.769,
6.6667,27.5645,23.9746,-7.8203,-19.1025,-21.1538,-34.4868,-24.1028,-26.2817,36.4104,36.0259,18.9744,5.8977,-21.0256,
-2.0514,23.0768,18.4615,-4.6154,-8.7179,-28.2052,-43.5897,-9.1028,-11.2817,51.4104,50.2565,30.2565,15.3844,-6.0256,
-17.0514,32.3079,22.5642,5.6409,1.5383,-18.9744,-28.718,-24.1028,3.7183,36.4104,35.2565,23.0769,0.3844,8.9744,
-14.3589,27.6924,31.2822,-5.6411,6.6665,-20.5127,-25.6411,-39.1028,-3.5898,21.4104,20.5127,20.5127,-12.8208,3.5898,
-2.564,24.6152,28.2051,-5.6411,15.8975,-5.5127,-10.6411,-50.769,8.2051,6.4104,7.6924,9.7437,-2.564,-7.6924,
-10.769,24.1025,14.8721,-0.5127,5.6411,3.5898,-4.1025,-49.2305,10.7695,0.5127,-1.0254,12.3076,-8.2051,-2.0513,
-15.8975,27.6924,13.8462,0.5127,-8.2051,-11.4102,-19.1025,-34.2305,-3.5898,15.5127,13.9746,25.1284,6.6665,-0.5127,
-12.3076,31.2817,13.8462,0,-15.8975,-26.4102,-34.1025,-19.2305,-18.5898,30.5127,28.9746,29.7437,11.7949,0,
1.0256,24.6155,17.9485,-9.7437,-11.7949,-29.231,-44.1028,-4.2305,-33.5898,45.5127,43.9746,25.6409,20.5129,-1.0256,
-13.9744,14.6155,16.6667,-10.5129,3.2051,-14.231,-29.1028,-19.2305,-18.5898,30.5127,28.9746,10.6409,5.5129,3.8464,
-28.9744,13.3335,5.1284,-4.1025,8.7183,0.76904,-14.1028,-34.2305,-3.5898,15.5127,13.9746,-4.3591,-9.4871,4.1025,
-13.9744,28.3335,20.1284,3.0769,5.1282,-3.0769,-14.3591,-32.8206,-18.5898,15.3845,15.8977,9.2307,-11.282,-3.0769,
-2.3079,13.3335,16.6667,-11.9231,-9.8718,-18.0769,-29.3591,-17.8206,-33.5898,30.3845,30.8977,17.1794,3.718,-18.0769,
2.5641,-1.6665,7.6923,-26.9231,-24.8718,-33.0769,-44.3591,-2.8206,-48.5898,45.3845,45.8977,18.9745,18.718,-33.0769,
-2.5642,13.3335,22.6923,-11.9231,-9.8718,-18.0769,-29.3591,-17.8206,-33.5898,30.3845,30.8977,10.7693,3.718,-18.0769,
-17.5642,18.7178,7.6923,3.0769,5.1282,-3.0769,-14.3591,-32.8206,-18.5898,15.3845,15.8977,-4.2307,-11.282,-3.0769,
-32.5642,28.4614,14.1025,3.333,11.0254,-2.3076,-8.9746,-47.8206,-3.5898,0.38452,0.89771,2.3076,-26.282,11.9231,
-17.5642,13.4614,7.436,-11.667,-3.9746,-17.3076,-23.9746,-32.8206,-18.5898,15.3845,15.8977,17.3076,-11.282,-3.0769,
-2.5642,-1.5386,4.3589,-26.667,-18.9746,-32.3076,-38.9746,-17.8206,-33.5898,30.3845,30.8977,28.4617,3.718,-18.0769,
-1.282,13.4614,19.3589,-11.667,-3.9746,-17.3076,-23.9746,-32.8206,-22.3074,15.3845,15.8977,16.1541,-4.8718,-19.2307,
-16.282,21.2817,4.3589,3.333,11.0254,-2.3076,-8.9746,-47.8206,-7.3074,0.38452,0.89771,1.1541,-19.8718,-4.2307,
-31.282,24.1023,-2.5642,15.3845,10.7693,6.6667,2.5642,-62.8206,7.6926,-14.6155,-14.1023,-10.7693,-34.8718,10.7693,
-16.282,14.1028,3.8459,0.38452,-4.2307,-8.3333,-12.4358,-47.8206,-7.3074,0.38452,0.89771,4.2307,-19.8718,-4.2307,
-1.282,-0.89722,1.5385,-14.6155,-19.2307,-23.3333,-27.4358,-32.8206,-22.3074,15.3845,15.8977,19.2307,-4.8718,-19.2307,
6.4102,14.1028,16.5385,-13.0771,-6.9229,-28.9741,-32.5642,-24.8716,-7.3074,18.7178,20.769,18.2051,10.1282,-22.3076,
-8.5898,21.0259,1.5385,1.9229,8.0771,-13.9741,-17.5642,-39.8716,7.6926,3.7178,5.769,3.2051,-4.8718,-7.3076,
-23.5898,28.4612,-0.76929,16.9229,6.4099,1.0259,-2.5642,-54.8716,16.1536,-11.2822,-9.231,-6.4104,-19.8718,7.6924,
-8.5898,26.667,14.2307,1.9229,-8.5901,-13.9741,-17.5642,-39.8716,1.1536,3.7178,5.769,8.5896,-4.8718,-7.3076,
5.8975,11.667,2.3076,-13.0771,-23.5901,-28.9741,-32.5642,-24.8716,-13.8464,18.7178,20.769,23.5896,10.1282,-22.3076,
2.0513,10.769,10.2563,-17.9487,-8.5901,-41.0256,-41.0256,-23.0769,-16.4104,30.2563,26.1538,12.3076,20.5127,-27.1794,
-12.9487,25.769,16.4102,-2.9487,6.4099,-26.0256,-26.0256,-38.0769,-1.4104,15.2563,11.1538,-2.6924,5.5127,-12.1794,
-27.9487,40.769,26.4104,12.0513,14.1028,-11.0256,-11.0256,-53.0769,13.5896,0.25635,-3.8462,5.3845,-9.4873,2.8206,
-12.9487,28.9741,16.1538,-1.7949,1.7949,-14.6152,-18.7183,-38.0769,-1.4104,6.4102,10.5127,20.3845,2.8203,-7.9487,
2.0513,16.6665,1.1538,-12.564,-11.5386,-27.9487,-31.5386,-23.0769,-16.4104,21.4102,25.5127,35.3845,17.8203,-7.436,
-11.7948,22.5643,2.5641,-2.0511,-10.7692,-31.7948,-35.8973,-8.0769,-8.205,36.4102,35.3846,28.7181,16.9232,1.5385,
-19.231,37.5643,17.5641,12.9489,4.2308,-16.7948,-20.8973,-23.0769,1.7949,21.4102,20.3846,33.0771,1.9232,16.5385,
-13.333,25.6411,15.3848,0,0,-16.9229,-27.1794,-33.3333,-13.2051,8.2051,5.3846,30.2563,-4.6152,8.7183,
-4.6152,25.1279,17.9487,0.5127,15,-1.9229,-12.1794,-48.3333,1.7949,-6.7949,-9.6154,20.5127,-5.6411,7.6924,
-16.9231,23.0769,5.6409,1.0256,11.7952,-6.6667,-1.0256,-57.4358,6.1541,-21.7949,-24.6154,14.8718,-20.6411,11.7952,
-11.5386,23.3333,7.4358,-1.282,-1.282,-19.2307,-16.0256,-42.4358,-6.9231,-6.7949,-9.6154,24.8718,-5.6411,1.282,
-2.8206,22.8206,12.5637,-5.385,-5.8977,-24.8718,-31.0256,-27.4358,-21.9231,8.2051,5.3846,38.7175,9.3589,-8.9744,
-0.51294,16.4104,13.3333,-10.7693,-16.4102,-35.8975,-46.0256,-12.4358,-34.3589,23.2051,20.3846,46.6667,17.4358,-9.7437,
-14.8716,22.5645,13.3335,4.2307,-1.4102,-20.8975,-31.0256,-27.4358,-19.3589,8.2051,5.3846,31.6667,2.4358,5.2563,
-29.8716,17.6924,-1.6665,10,4.8716,-5.8975,-16.0256,-42.4358,-4.3589,-6.7949,-9.6154,16.6667,-12.5642,20.2563,
-21.7952,21.282,4.3586,-1.282,5.3845,-17.1794,-21.7952,-42.3079,-7.4358,6.9231,1.7947,15.1282,-12.5642,5.2563,
-6.7952,11.0256,1.282,-16.282,-9.6155,-32.1794,-36.7952,-27.3079,-22.4358,21.9231,16.7947,22.8206,2.4358,-9.7437,
8.2048,2.3077,-2.3077,-31.282,-24.6155,-47.1794,-51.7952,-12.3079,-37.4358,36.9231,31.7947,23.3334,17.4358,-24.7437,
-6.1536,17.3077,12.6923,-16.282,-9.6155,-32.1794,-36.7952,-27.3079,-22.4358,21.9231,16.7947,17.4363,2.4358,-9.7437,
-21.1536,23.0771,-2.3077,-1.282,5.3845,-17.1794,-21.7952,-42.3079,-7.4358,6.9231,1.7947,2.4363,-12.5642,5.2563,
-36.1536,28.4617,-3.3333,10.0002,17.6921,-2.1794,-6.7952,-57.3079,3.8459,-8.0769,-13.2053,6.9231,-27.5642,20.2563,
-21.1536,13.4617,-2.564,-4.9998,2.6921,-17.1794,-21.7952,-42.3079,-11.1541,6.9231,1.7947,21.9231,-12.5642,5.2563,
-6.1536,2.0513,-2.0513,-19.9998,-12.3079,-32.1794,-36.7952,-27.3079,-26.1541,21.9231,16.7947,36.9231,2.4358,-9.7437,
4.1028,17.0513,12.8206,-4.9998,2.6921,-17.1794,-21.7952,-36.9231,-31.7947,6.9231,1.7947,24.1028,6.6667,-9.2307,
-10.8972,31.2822,-2.1794,10.0002,17.6921,-2.1794,-6.7952,-51.9231,-16.7947,-8.0769,-13.2053,9.1028,-8.3333,5.7693,
-25.8972,21.7949,-17.1794,16.6665,18.2051,9.4873,8.2048,-66.9231,-1.7947,-23.0769,-28.2053,-5.8972,-23.3333,20.7693,
-10.8972,16.1541,-7.4358,1.6665,3.2051,-5.5127,-6.7952,-51.9231,-16.7947,-8.0769,-13.2053,9.1028,-8.3333,5.7693,
4.1028,5.6411,-5.6411,-13.3335,-11.7949,-20.5127,-21.7952,-36.9231,-31.7947,6.9231,1.7947,24.1028,6.6667,-9.2307,
5.1282,15.8972,-3.0769,-21.0256,3.2051,-29.231,-29.231,-26.6667,-30.2566,10.7693,3.0769,20.5129,12.3074,-12.8206,
-9.8718,28.4617,-18.0769,-6.0256,18.2051,-14.231,-14.231,-41.6667,-15.2566,-4.2307,-11.9231,5.5129,-2.6926,2.1794,
-24.8718,38.9741,-16.4106,8.9744,25.6406,0.76904,0.76904,-56.6667,-0.25659,-19.2307,-26.9231,-8.2051,-17.6926,17.1794,
-9.8718,27.949,-1.4106,-6.0256,10.6406,-9.9998,-14.231,-41.6667,-15.2566,-4.2307,-11.9231,6.7949,-2.6926,2.1794,
5.1282,12.949,-7.4359,-21.0256,-4.3594,-24.9998,-29.231,-26.6667,-30.2566,10.7693,3.0769,21.7949,12.3074,-12.8206,
-3.5901,23.5896,-7.6926,-6.0256,1.0256,-21.0259,-34.3591,-11.6667,-32.8206,15.8972,7.6921,22.051,6.6667,1.0256,
-18.5901,38.5896,-3.8462,8.9744,16.0256,-6.0259,-19.3591,-26.6667,-17.8206,0.89722,-7.3079,7.051,-8.3333,16.0256,
-32.564,35.6411,-0.25635,7.9487,15.1279,0.25635,-15.6411,-41.6667,-2.8206,-14.1028,-22.3079,7.436,-23.3333,22.3076,
-17.564,30.769,1.5386,0,15.8975,-3.0771,-11.2822,-27.6924,0,0.89722,-8.2051,22.436,-8.3333,9.7437,
-2.564,20,-12.3076,-8.7183,2.0513,-18.0771,-26.2822,-12.6924,-15,15.8972,-0.5127,37.436,2.564,3.0767,
-8.4617,25.3845,-8.9744,-0.25659,5.3845,-16.6667,-41.2822,-4.3591,-23.8462,30.8972,14.1028,25.3845,0.25659,5.3845,
-9.9998,40.3845,3.3333,14.7434,20.3845,-1.6667,-26.2822,-19.3591,-10.5129,15.8972,-0.89722,30.0002,-12.051,20.3845,
-7.6921,34.8718,-0.51294,10.7693,14.8718,0.51294,-15.8972,-27.1794,-25.5129,8.2053,-7.1794,33.3333,-18.9744,10.7693,
-8.4617,25.3845,-0.25659,6.9231,23.8464,7.4358,-0.89722,-42.1794,-10.5129,-6.7947,-22.1794,23.8464,-25.3845,21.282,
-18.2051,23.8462,-12.0513,5.8975,15.1279,9.4873,-0.25635,-57.1794,0.25635,-21.7947,-37.1794,8.8464,-39.7437,24.3589,
-3.2051,31.0259,-2.8203,-5.3843,15.6411,5.3848,-13.5896,-42.1794,-14.7437,-6.7947,-22.1794,13.0771,-24.7437,9.3589,
0,30.2563,-1.5386,-20.3843,12.3076,-8.2051,-28.5896,-27.1794,-29.7437,8.2053,-7.1794,28.0771,-9.7437,-5.6411,
0.51282,30.2567,-2.0511,-8.205,-2.6924,-17.9486,-35.8973,-12.1794,-44.7437,23.2053,7.8206,41.5385,5.2563,-0.51282,
-14.4872,30,-5.8975,6.795,0.76904,-2.9486,-20.8973,-27.1794,-29.7437,8.2053,-7.1794,26.5385,-9.7437,14.4872,
-29.4872,15,-20.8975,5.8975,7.436,12.0514,-5.8973,-42.1794,-14.7437,-6.7947,-22.1794,11.5385,-24.7437,20.2563,
-33.8462,17.436,-10.769,3.0771,21.0259,2.0513,-2.0513,-41.5383,-2.564,2.0513,-12.3076,25.6411,-29.2305,18.4614,
-18.8462,17.9485,-3.0769,-11.9229,6.0259,-12.9487,-17.0513,-26.5383,-17.564,17.0513,2.6924,40.6411,-14.2305,3.4614,
-3.8462,8.718,-8.718,-26.9229,-8.9741,-27.9487,-32.0513,-11.5383,-32.564,32.0513,17.6924,44.1028,0.76953,-11.5386,
-18.8462,23.718,-4.1028,-11.9229,6.0259,-12.9487,-17.0513,-26.5383,-17.564,17.0513,2.6924,29.1028,-14.2305,-0.51294,
-33.8462,27.6919,-19.1028,3.0771,21.0259,2.0513,-2.0513,-41.5383,-2.564,2.0513,-12.3076,14.1028,-29.2305,14.4871,
-47.4358,31.0256,-19.2307,18.0771,24.3591,17.0513,11.0256,-56.5383,-8.4617,-12.9487,-27.3076,8.4617,-44.2305,29.4871,
-32.4358,19.2307,-6.9231,3.0771,9.3591,2.0513,-3.9744,-41.5383,-23.4617,2.0513,-12.3076,23.4617,-29.2305,14.4871,
-17.4358,4.2307,-3.3334,-11.9229,-5.6409,-12.9487,-18.9744,-26.5383,-38.4617,17.0513,2.6924,38.4617,-14.2305,-0.51294,
-2.4358,19.2307,2.564,0.5127,9.3591,1.0259,-4.1025,-31.2822,-23.4617,2.0513,-12.3076,23.5898,-8.2051,8.2051,
-17.4358,24.1025,-12.436,15.5127,24.3591,16.0259,10.8975,-46.2822,-8.4617,-12.9487,-27.3076,8.5898,-23.2051,23.2051,
-32.4358,28.718,-27.1794,25.6414,24.1028,31.0259,13.3337,-61.2822,6.5383,-27.9487,-42.3076,-6.4102,-38.2051,30.7693,
-17.4358,22.5645,-12.1794,10.6414,9.1028,16.0259,-1.6663,-46.2822,-8.4617,-12.9487,-27.3076,8.5898,-23.2051,15.7693,
-2.4358,7.5645,-4.3589,-4.3586,-5.8972,1.0259,-16.6663,-31.2822,-23.4617,2.0513,-12.3076,23.5898,-8.2051,0.76929,
7.9487,17.1797,-4.3589,-11.0254,9.1028,-11.0254,-16.6665,-21.2822,-28.4614,8.4614,2.6924,25.8975,-6.4102,8.4614,
-7.0513,32.1797,-19.3589,3.9746,24.1028,3.9746,-1.6665,-36.2822,-13.4614,-6.5386,-12.3076,10.8975,-21.4102,23.4614,
-22.0513,47.1794,-5.6409,18.9746,39.1028,18.9746,13.3335,-51.2822,-4.6155,-21.5386,-27.3076,4.6155,-36.4102,38.4614,
-7.0513,32.1794,-7.6924,3.9746,24.1028,3.9746,-1.6665,-36.2822,-19.6155,-6.5386,-12.3076,19.4873,-21.4102,23.4614,
7.9487,17.1794,-18.2051,-11.0254,9.1028,-11.0254,-16.6665,-21.2822,-34.6155,8.4614,2.6924,34.4873,-6.4102,8.4614,
-4.8721,32.1794,-8.4614,0.25635,7.436,-14.1025,-31.6665,-6.2822,-43.3335,21.2817,13.5898,28.9741,-17.6924,10.5127,
-19.8721,47.1794,4.3591,15.2563,22.436,0.89746,-16.6665,-21.2822,-28.3335,6.2817,-1.4102,20.7693,-32.6924,25.5127,
-23.5894,42.0513,4.1025,23.5898,17.436,12.3076,-4.1025,-36.2822,-24.1025,-8.7183,-16.4102,21.0259,-47.6924,37.436,
-11.5386,28.9741,-0.76904,8.5898,17.1797,1.7949,1.2822,-31.0259,-18.2051,-15.6411,-8.9746,25.3848,-33.0771,22.8203,
0,30.7695,-3.5898,-1.0254,15.3848,-6.1538,-4.1025,-16.0259,-19.4868,-0.64111,6.0254,38.9746,-18.0771,23.5898,
-15,25.3848,-8.9741,-0.25635,2.3076,-14.1025,-19.1025,-1.0259,-34.4868,14.3589,21.0254,23.9746,-30,8.5898,
-17.436,38.4614,6.0259,14.7437,13.3335,0.89746,-9.231,-16.0259,-49.4868,-0.64111,6.0254,27.6924,-40.5127,11.2822,
-12.8208,24.6152,-2.0513,9.7437,0,6.1538,-16.9233,-16.9233,-37.9487,11.2822,0,36.9229,-40,10.2563,
-16.1538,21.2822,-8.4614,13.5898,7.9487,9.4873,-7.9487,-31.9233,-22.9487,-3.7178,-15,22.3076,-48.4614,24.8721,
-13.3335,36.2822,-3.0771,22.0513,22.0513,11.2817,2.0513,-46.9233,-7.9487,-18.7178,-30,14.8716,-48.2056,38.9741,
-8.4617,31.5383,-2.8206,7.0513,13.0769,-2.8206,-11.0256,-31.9233,-22.9487,-3.7178,-15,12.051,-37.6924,23.9741,
1.7949,22.3076,-1.7949,-7.9487,5.8975,-12.564,-23.333,-16.9233,-37.9487,11.2822,0,27.051,-22.6924,8.9741,
3.8463,24.8717,-2.3077,-13.0768,0.25647,-26.4103,-38.333,-1.9233,-52.9487,26.2822,15,38.2052,-8.4615,-0.25647,
-11.1537,35.8975,-4.1025,1.9232,15.2565,-11.4103,-23.333,-16.9233,-37.9487,11.2822,0,23.2052,-23.4615,14.7435,
-26.1537,40.0002,-7.1794,16.9232,30.2565,3.5897,-8.333,-31.9233,-22.9487,-3.7178,-15,8.2052,-38.4615,29.7435,
-23.3335,33.0767,-3.8462,19.7437,23.333,4.3589,3.8462,-27.9487,-36.6667,-5.3848,-7.9487,23.2052,-53.4615,35.1279,
-8.3335,19.7437,-11.0259,4.7437,8.333,-10.6411,-11.1538,-12.9487,-51.6667,9.6152,7.0513,38.2052,-38.4615,20.1279,
6.6665,10.7693,-10.7693,-10.2563,-6.667,-25.6411,-26.1538,2.0513,-66.6667,24.6152,22.0513,41.0256,-23.4615,5.1279,
-8.3335,20.5127,0.5127,4.7437,6.6665,-10.6411,-11.1538,-12.9487,-51.6667,9.6152,7.0513,26.0256,-38.4615,-0.5127,
-23.3335,35.5127,1.0256,19.7437,21.6665,4.3589,3.8462,-27.9487,-36.6667,-5.3848,-7.9487,11.0256,-53.4615,14.4873,
-35.1282,42.3074,-8.9744,34.1023,19.2307,19.3589,8.9744,-42.9487,-42.3079,-20.3848,-22.9487,14.6155,-68.4615,29.4873,
-20.1282,29.231,-4.1025,19.1023,4.2307,4.3589,-6.0256,-27.9487,-57.3079,-5.3848,-7.9487,29.6155,-53.4615,14.4873,
-5.1282,14.231,-11.7948,4.1023,-10.7693,-10.6411,-21.0256,-12.9487,-72.3079,9.6152,7.0513,44.6155,-38.4615,-0.5127,
1.0256,28.718,-5.1282,2.0515,4.2307,1.0256,-6.0256,-17.9485,-66.1538,-5.3848,-7.9487,29.6155,-23.4615,14.4873,
-13.9744,43.718,1.282,17.0515,19.2307,16.0256,8.9744,-32.9485,-51.1538,-20.3848,-22.9487,14.6155,-38.4615,29.4873,
-28.9744,40.7693,-3.3333,32.0515,24.8718,30.5129,23.3333,-47.9485,-56.6667,-35.3848,-37.9487,3.3333,-53.4615,40.7693,
-13.9744,28.7178,-14.3589,17.0515,9.8718,15.5129,8.3333,-32.9485,-71.6667,-20.3848,-22.9487,18.3333,-38.4615,25.7693,
1.0256,14.6155,-18.2051,2.0515,-5.1282,0.51294,-6.6667,-17.9485,-86.6667,-5.3848,-7.9487,32.0515,-23.4615,10.7693,
-11.7949,20,-3.2051,7.6924,0.5127,-14.3589,-12.3076,-2.9485,-78.4617,9.6152,-1.0259,24.1025,-19.4873,8.2051,
-26.7949,24.8721,-1.2822,22.6924,15.1284,0.64111,2.6924,-17.9485,-63.4617,-5.3848,-16.0259,9.1025,-34.4873,23.2051,
-29.231,27.1797,-0.5127,15.3848,17.436,9.231,4.1025,-32.9485,-78.4617,-20.3848,-31.0259,0.5127,-49.4873,35.8975,
-14.231,20.5129,-3.5901,2.5642,10.2561,-3.5901,-2.5642,-17.9485,-93.4617,-5.3848,-16.0259,6.1536,-36.4104,20.8975,
-0.76904,23.3335,-0.25635,3.3335,-1.2817,-18.5901,-10,-2.9485,-108.4617,9.6152,-1.0259,21.1536,-21.4104,5.8975,
-9.7434,30.2566,6.1541,18.3335,-4.6155,-22.5642,-16.4104,12.0515,-105.1282,16.4104,-9.7434,15.3845,-34.8718,4.6155,
-14.8718,36.4099,8.2048,33.3335,6.6663,-7.5642,-3.0769,-2.9485,-97.949,1.4104,-24.7434,3.0769,-49.8718,19.6155,
-12.8206,25.1282,-0.51294,22.5642,6.1536,0.51294,5.1282,-17.9485,-112.949,-13.5896,-39.7434,3.5896,-64.8718,10.2561,
-4.8718,28.9744,0.76929,23.8459,18.718,-0.76929,16.6667,-15.1282,-97.949,-22.8206,-52.0515,13.0769,-49.8718,25.2561,
-8.7183,34.3589,2.0513,24.6152,16.4102,-12.3081,1.6667,-0.12817,-86.1541,-8.2056,-43.5898,12.8203,-34.8721,35.3843,
-16.1538,27.436,3.8462,15.1284,9.4873,-11.0254,-11.0254,10.5127,-101.1541,2.8203,-39.2307,-2.1797,-48.4614,20.3843,
-17.4363,30.7688,1.0256,14.3586,7.1794,1.0256,2.051,-1.0256,-116.1541,-12.1797,-54.2307,5.6409,-53.8464,5.3843,
-13.0771,37.1792,-2.3076,23.333,2.3076,-6.4102,-4.3589,12.0513,-131.1541,2.8203,-48.9746,20.6409,-40.7695,10,
-19.9998,33.8464,-1.0256,37.4358,14.3591,1.5383,1.0256,-2.9487,-116.1541,-12.1797,-63.9746,7.6921,-46.1536,25,
-18.4617,37.4358,4.6155,47.6921,23.0769,8.2053,12.3079,-17.9487,-101.1541,-27.1797,-78.9746,-4.6155,-54.8718,40,
-12.0515,33.5896,3.3333,32.6921,12.5642,-6.7947,0.76929,-2.9487,-116.1541,-12.1797,-63.9746,-0.76929,-47.4358,25,
-0.25635,26.9229,-0.25635,17.6921,2.3076,-21.7947,-14.2307,12.0513,-131.1541,2.8203,-48.9746,14.2307,-32.4358,10,
1.0256,22.5642,-1.0256,9.2307,-5.6409,-36.4104,-23.5896,27.0513,-146.1541,17.8203,-33.9746,14.3591,-17.4358,8.718,
-11.5383,36.6667,11.5383,24.2307,9.3591,-21.4104,-8.5896,12.0513,-131.1541,2.8203,-48.9746,-0.64087,-32.4358,19.2307,
-15.6411,48.9741,15.6411,39.2307,24.3591,-6.4104,6.4104,-2.9487,-127.9487,-12.1797,-63.9746,-15.6409,-47.4358,24.3589,
-12.0515,33.9741,1.282,35.1282,9.3591,-1.282,9.9998,-17.9487,-142.9487,-27.1797,-78.9746,-0.64087,-54.6155,12.5642,
0.76929,31.0256,-0.76929,20.2561,-5.6409,-16.282,-5.0002,-2.9487,-157.9487,-12.1797,-63.9746,14.3591,-39.6155,14.1023,
1.0256,30.2566,-7.6921,23.5896,-20.6409,-31.282,-20.0002,12.0513,-172.9487,2.8203,-48.9746,4.1025,-24.6155,-0.8977,
-4.1023,40.5129,3.5896,38.5896,-5.6409,-16.282,-5.0002,-2.9487,-157.9487,-12.1797,-63.9746,-7.6921,-33.8459,4.1028,
-18.2051,51.0259,14.6152,50,9.3591,-1.282,9.9998,-17.9487,-142.9487,-27.1797,-78.9746,-14.6152,-48.8459,19.1028,
-6.4102,56.6665,18.7178,54.1025,24.3591,5.8975,24.9998,-32.9487,-145.3845,-42.1797,-93.9746,-5.8975,-63.8459,32.564,
1.5383,41.6665,3.7178,42.051,9.3591,-9.1025,9.9998,-17.9487,-160.3845,-27.1797,-78.9746,3.0769,-48.8459,17.564,
2.3077,29.4872,-10.5128,27.051,-5.6409,-24.1025,-5.0002,-2.9487,-175.3845,-12.1797,-63.9746,2.3077,-33.8459,2.564,
-3.0769,37.4358,2.5642,32.3079,9.3591,-9.1025,9.9998,12.0513,-182.564,-27.1797,-78.9746,-12.3074,-26.1536,0.51294,
-14.3589,52.3076,14.3589,47.3079,24.3591,5.8975,24.9998,-2.9487,-167.564,-42.1797,-93.9746,-17.9487,-41.1536,15.5129,
-14.1025,41.7949,14.1025,62.3079,24.8716,16.6665,39.7437,-17.9487,-168.4617,-57.1797,-108.9746,-26.4102,-56.1536,30.5129,
-8.4614,30.5127,2.3076,47.3079,9.8716,4.3589,32.0513,-2.9487,-183.4617,-42.1797,-93.9746,-25.8975,-41.1536,15.5129,
-4.1023,38.4617,1.5383,32.3079,4.6155,-10.6411,22.0515,12.0513,-198.4617,-27.1797,-78.9746,-10.8975,-26.1536,0.51294,
-8.9744,41.7947,9.9998,42.3079,9.9998,-17.6921,20.2566,27.0513,-183.4617,-28.4617,-93.9746,-6.4104,-29.4871,6.4104,
-12.5642,44.3586,12.5642,57.3079,17.6921,-2.6921,35.2566,12.0513,-168.4617,-43.4617,-108.9746,-21.282,-44.4871,21.4104,
-8.718,39.9998,8.718,72.3079,16.4104,12.3079,50.2566,-2.9487,-183.4617,-58.4617,-123.9746,-26.6667,-57.9485,24.6155,
-10.2563,31.2817,8.7178,57.3079,23.5898,-2.6921,43.5898,12.0513,-197.436,-48.2051,-114.8718,-28.7183,-42.9485,9.6155,
-11.0254,28.9746,12.0513,42.3079,17.6924,-17.6921,28.5898,27.0513,-198.7178,-33.2051,-99.8718,-21.7949,-27.9485,9.4873,
-4.6155,43.0769,23.5896,54.8718,7.6921,-9.2307,30.7693,35.3845,-203.0769,-25.6409,-113.3335,-25.1282,-30.7693,4.6155,
-8.4614,53.5898,27.436,69.8718,17.6924,5.7693,45.7693,20.3845,-208.4614,-40.6409,-128.3335,-31.0254,-41.7949,8.4614,
-10.5127,49.4873,26.4102,73.0771,30.5127,10.5127,57.6924,5.3845,-205.8975,-55.6409,-143.3335,-23.3335,-36.6665,19.7437,
-11.7949,47.1792,20,67.1792,26.1538,-2.0513,48.7178,2.0513,-190.8975,-70.6409,-158.3335,-25.1284,-34.8721,30.2563,
-14.1025,40.2563,9.4868,65.8975,11.1538,-7.9487,36.6665,10,-190.0002,-63.8462,-155.1284,-26.4102,-38.7183,35.1279,
-16.9229,25.2563,10.769,51.2822,10.769,-4.1025,41.5386,19.4873,-205.0002,-48.8462,-140.1284,-30.2563,-33.8462,20.1279,
-14.8718,31.282,23.5896,52.3079,25.769,4.6155,56.5386,29.2307,-220.0002,-47.6921,-131.7949,-23.0769,-22.5642,5.1279,
-16.6665,36.1538,19.231,56.1538,19.7437,-10.3845,42.8208,35.6411,-218.7178,-32.6921,-130.5127,-26.9229,-18.2051,12.564,
-22.5642,41.5383,16.4104,71.1538,15.8972,4.6155,56.9231,20.6411,-203.7178,-47.6921,-145.5127,-39.4871,-33.2051,27.564,
-21.5383,53.3333,21.5383,86.1538,24.1023,19.6155,71.9231,5.6411,-188.7178,-62.6921,-160.5127,-32.8206,-48.2051,30.2561,
-23.0771,38.3333,7.6924,71.1538,13.8462,4.6155,60.5127,4.6152,-203.7178,-65.1284,-163.0769,-35.3848,-44.6152,15.2561,
-12.5642,31.5383,7.4358,56.1538,13.0769,-10.3845,45.5127,19.6152,-218.7178,-50.1284,-148.0769,-20.3848,-29.6152,13.0769,
-20.5127,31.2822,0.5127,58.9741,-0.5127,-11.7949,36.4102,34.6152,-233.7178,-35.1284,-133.0769,-30.769,-16.9233,10.2563,
-17.4358,41.5383,15.3845,73.9741,14.4873,3.2051,51.4102,19.6152,-218.7178,-50.1284,-148.0769,-45.769,-31.9233,7.1794,
-19.2307,50.5125,22.3074,85.3845,29.4873,18.2051,66.4102,4.6152,-203.7178,-65.1284,-163.0769,-60.2566,-46.9233,19.2307,
-16.9231,42.051,15.3845,70.3845,20.5125,6.6667,68.2048,-6.6667,-218.7178,-80.1284,-178.0769,-46.1541,-38.9744,11.7947,
-8.4617,38.718,7.9485,65.8972,5.5125,-8.3333,53.2048,8.3333,-233.7178,-65.1284,-163.0769,-31.1541,-23.9744,5.3845,
-7.1794,46.6667,7.1794,64.6155,0.51294,-20.5129,38.2048,23.3333,-248.7178,-50.1284,-148.0769,-23.5898,-8.9744,-8.2053,
-16.9229,46.1538,16.9233,69.231,15.5129,-5.5129,53.2048,8.3333,-235.3845,-65.1284,-163.0769,-38.5898,-23.9744,-7.6924,
-21.0256,40.5129,21.0256,81.5388,30.5129,9.4871,68.2048,-6.6667,-220.3845,-80.1284,-178.0769,-53.5898,-38.9744,7.3076,
-11.0256,39.7434,20.7693,81.7947,41.7947,21.7947,80.7693,-21.6667,-223.3333,-95.1284,-193.0769,-66.4104,-53.9744,11.0256,
-13.0769,43.3333,14.615,67.9485,26.7947,13.0769,65.7693,-6.6667,-238.3333,-80.1284,-178.0769,-60.2566,-38.9744,-3.9744,
-10.5129,38.2048,6.9231,52.9485,21.282,-1.9231,50.7693,8.3333,-253.3333,-65.1284,-163.0769,-53.5898,-23.9744,-18.9744,
-7.9487,36.6665,7.9487,57.1792,36.282,8.4614,65.7693,23.3333,-247.949,-80.1284,-178.0769,-60.7695,-34.6157,-11.0259,
-14.1025,47.9487,14.1025,72.1792,51.282,23.4614,80.7693,8.3333,-232.949,-95.1284,-193.0769,-75.1284,-49.6157,3.9741,
-4.8718,46.4104,13.5896,87.1792,51.0256,38.4614,95.7693,-6.6667,-247.949,-110.1284,-208.0769,-86.4104,-64.6157,4.8718,
-1.5383,38.9744,1.5383,72.1792,48.718,23.4614,80.7693,8.3333,-262.949,-95.1284,-193.0769,-76.4099,-49.6157,-10.1282,
1.282,44.8718,11.5383,58.718,50.5129,8.4614,68.9744,23.3333,-268.4614,-80.1284,-178.0769,-61.4099,-34.6157,-7.4358,
-3.0769,46.1536,21.0256,73.718,37.9485,3.0769,70.2561,38.3333,-253.4614,-76.9231,-184.1025,-69.7439,-27.1794,-4.6155,
-2.8206,61.1536,25.3845,88.718,45.3845,18.0769,85.2561,23.3333,-238.4614,-91.9231,-199.1025,-76.1541,-42.1794,2.8206,
-3.0769,70.2561,21.0256,103.718,56.4099,33.0769,100.2561,8.3333,-247.6924,-106.9231,-214.1025,-65.1282,-34.3591,3.0769,
-15.3848,55.2561,6.0256,88.718,41.4099,18.0769,85.2561,23.3333,-240.0002,-105.1284,-200.0002,-70.7695,-33.3335,0,
-5.3848,40.2561,5.3848,78.2051,27.9487,3.0769,70.2561,38.3333,-247.436,-90.1284,-185.0002,-61.2822,-26.4102,13.0767,
-9.4873,33.5898,9.4873,77.6924,26.9229,10,81.7949,43.8462,-262.436,-92.0513,-185.3848,-76.2822,-28.9746,-1.9233,
-10.0002,48.5898,23.8459,92.6924,41.9229,25,96.7949,28.8462,-260.7693,-107.0513,-200.3848,-83.3333,-29.4875,-5.3845,
-22.8203,37.6924,8.9741,87.9487,34.1025,10,81.7949,18.7178,-251.0256,-122.0513,-215.3848,-84.3589,-38.2051,-5.3848,
-24.1028,33.8459,3.0769,88.2053,22.051,5.1282,74.3591,17.4358,-238.9744,-137.0513,-230.3848,-87.1794,-47.1794,-3.0769,
-23.3333,33.0769,-2.3079,96.6667,17.1794,13.5896,81.7952,15.6409,-253.9744,-139.7434,-233.5896,-88.4617,-52.051,2.3079,
-13.0769,34.1028,2.8206,84.8718,32.1794,17.6921,92.5642,30.6409,-255.1282,-124.7434,-218.5896,-75.1282,-37.051,-2.8206,
-16.6665,32.0513,1.2822,69.8718,47.1794,17.6924,98.2051,45.6409,-246.9231,-109.7434,-203.5896,-68.4614,-22.051,-1.2822,
-17.9487,28.7183,0,74.8721,32.8208,3.0771,86.667,58.9746,-255.8975,-94.7434,-188.5896,-77.9487,-24.1025,0,
-19.4871,38.4617,7.1794,89.8721,36.4104,18.0771,101.667,43.9746,-240.8975,-109.7434,-203.5896,-92.9487,-39.1025,-5.6409,
-12.5642,53.4617,20.2561,104.8721,51.4104,33.0771,116.667,28.9746,-225.8975,-124.7434,-218.5896,-83.3337,-42.8206,9.3591,
-17.1794,38.4617,5.2561,89.8721,38.718,18.0771,101.667,36.1536,-240.8975,-109.7434,-211.5386,-68.3337,-32.5642,-0.76929,
-7.4358,34.6155,-0.76929,83.3333,23.718,3.0771,86.667,51.1536,-255.6411,-94.7434,-196.5386,-53.3337,-17.5642,13.5896,
-17.4358,35.8977,-3.0769,89.2307,21.5388,-1.0256,78.9744,66.1536,-251.7947,-79.7434,-181.5386,-56.9229,-2.5642,1.0256,
-18.4614,35.3848,7.6924,92.8203,36.5388,13.9744,93.9744,51.1536,-236.7947,-94.7434,-196.5386,-71.2822,-17.5642,-7.6924,
-14.6152,43.8462,18.2051,96.6665,51.5388,28.9744,108.9744,36.1536,-221.7947,-109.7434,-211.5386,-70,-32.5642,7.3076,
-24.1028,28.8462,3.2051,81.6665,37.949,13.9744,95.3845,21.1536,-208.2051,-124.7434,-226.1538,-82.051,-23.5896,-1.5383,
-9.1028,36.4104,5.1282,80.5129,25.1282,-1.0256,80.3845,36.1536,-223.2051,-109.7434,-211.1538,-67.051,-8.5896,-6.6667,
-13.5898,21.4104,-7.9487,65.5129,22.3076,-16.0256,70.5127,51.1536,-238.2051,-94.7434,-196.1538,-58.718,6.4104,-21.6667,
-15.3845,18.4617,1.0256,67.1794,37.3076,-1.0256,85.5127,39.9998,-223.2051,-104.6155,-191.2822,-60.0002,-1.0256,-6.6667,
-12.3076,33.4617,12.3076,82.1794,52.3076,13.9744,100.5127,24.9998,-208.2051,-119.6155,-206.2822,-66.1538,-16.0256,8.3333,
-13.0771,31.5386,4.8716,94.6152,50.5127,28.4614,115.5127,9.9998,-216.1538,-134.6155,-221.2822,-79.7437,-25.8975,22.8203,
-18.718,20.2566,-4.3591,79.6152,42.3079,13.4614,100.5127,24.9998,-231.1538,-119.6155,-206.2822,-76.1538,-10.8975,7.8203,
-17.6923,8.4615,-8.4615,64.6152,32.5643,-1.5386,85.5127,39.9998,-238.2052,-104.6155,-191.2822,-67.9486,4.1025,-7.1797,
-11.282,22.5642,-0.51294,76.9231,42.051,-14.8718,92.8206,54.9998,-223.2052,-89.6155,-181.5386,-69.7437,6.1536,0.51294,
-10.5129,37.5642,10.5129,91.9231,57.051,0.12817,107.8206,39.9998,-208.2052,-104.6155,-196.5386,-63.8464,-8.8464,15.5129,
-7.949,45.3845,6.4104,106.9231,61.282,15.1282,122.8206,24.9998,-193.2052,-119.6155,-211.5386,-60.7693,-15.1282,18.718,
-2.5642,30.3845,-1.0256,91.9231,54.3591,0.12817,107.8206,39.9998,-178.2052,-104.6155,-196.5386,-54.8718,-0.12817,3.718,
-6.6667,15.8975,-11.7949,76.9231,42.564,-14.8718,92.8206,54.9998,-177.9487,-89.6155,-181.5386,-55.3845,14.8718,2.0513,
-2.8206,26.9231,0.76929,83.3333,40.2561,-2.3079,92.051,69.9998,-162.9487,-74.6155,-166.5386,-70.3845,7.9485,-0.76929,
-8.4614,37.1797,12.0513,98.3333,55.2561,12.6921,107.051,54.9998,-147.9487,-89.6155,-181.5386,-85.3845,-7.0515,3.3335,
-21.5383,25.6409,1.5383,83.3333,57.949,8.718,112.3079,39.9998,-158.4614,-104.6155,-196.5386,-79.9998,-9.2307,-1.5383,
-11.7949,23.0767,-4.1025,83.0767,45.1279,-6.282,97.3079,54.9998,-145.1284,-89.6155,-181.5386,-64.9998,4.1025,13.4617,
-4.3589,16.6665,-15.6411,87.436,30.1279,-11.5386,83.8462,69.9998,-160.1284,-74.6155,-166.5386,-54.6152,4.3589,14.6152,
-5.3848,12.0513,-12.0513,72.436,45.1279,3.4614,98.8462,60.2563,-175.1284,-73.5896,-152.0513,-69.6152,5.8975,-0.38476,
-7.1792,17.9487,-2.0513,72.8208,60.1279,18.4614,113.8462,45.2563,-161.5383,-88.5896,-167.0513,-83.5898,2.0513,-12.8203,
-8.4614,12.0513,-8.4614,71.0259,45.1279,3.4614,98.8462,60.2563,-155.6409,-99.7434,-182.0513,-86.4102,-0.25635,0.25635,
-4.3591,26.4104,-4.8718,86.0259,51.5383,13.0769,103.3333,45.3845,-147.4358,-114.7434,-197.0513,-77.6921,-2.8206,2.8206,
-0.76904,40.2563,-0.25635,97.1797,55.1284,21.7949,118.3333,44.8721,-143.3333,-109.4873,-194.1025,-62.6921,-4.3589,0.25635,
-3.3335,25.2563,-6.4102,82.1797,51.5386,6.7949,110.5127,59.8721,-132.564,-94.4873,-179.1025,-60.769,9.4873,-11.5386,
-13.0769,10.2563,-12.5642,67.1797,61.7947,0.76929,103.3333,74.8721,-136.6667,-79.4873,-164.1025,-63.3335,19.2307,-0.76929,
-8.9744,18.2048,-7.949,78.718,54.1023,2.8206,98.2048,89.8721,-146.4104,-64.4873,-149.1025,-61.7949,23.3333,-2.8206,
-5.6409,25.6414,1.0256,78.9744,57.949,17.8206,113.2048,74.8721,-131.4104,-79.4873,-164.1025,-76.7949,8.3333,-17.8206,
-5.3845,33.0769,5.3845,74.1028,72.949,32.8206,128.2048,59.8721,-116.4104,-94.4873,-179.1025,-79.7434,-6.6667,-5.8972,
-2.3076,27.436,-3.333,73.0771,61.2822,17.8206,113.2048,74.8721,-111.0256,-79.4873,-164.1025,-64.7434,8.3333,0.25635,
-1.282,31.0256,-9.4871,77.1794,46.2822,2.8206,98.2048,89.8721,-122.3079,-64.4873,-149.1025,-49.7434,23.3333,1.282,
-2.3076,32.5642,-5.8975,67.9485,44.3591,-12.1794,83.3333,104.8721,-137.3079,-49.4873,-134.1025,-46.9231,26.9231,-13.718,
-5.8977,21.282,-0.76929,64.3591,59.3591,2.8206,98.3333,89.8721,-122.3079,-64.4873,-149.1025,-61.9231,11.9231,-28.718,
-2.0513,19.4873,2.0513,75.8975,74.3591,17.8206,113.3333,74.8721,-107.3079,-79.4873,-164.1025,-76.9229,-3.0769,-13.718,
0,20,-2.0513,69.231,59.3591,2.8206,100,59.8721,-122.3079,-94.4873,-179.1025,-70.769,5.6411,0,
1.0256,23.0769,-1.0256,64.6155,44.3591,-12.1794,85,74.8721,-137.3079,-79.4873,-164.1025,-59.4871,20.6411,-15,
-6.1538,8.0769,-13.8462,49.6155,30.769,-27.1794,70,89.8721,-141.0256,-64.4873,-149.1025,-56.4104,27.6921,-30,
0.25635,15.6411,-7.436,63.3335,45.769,-12.1794,85,74.8721,-126.0256,-79.4873,-144.8718,-50.5127,12.6921,-15,
0.76929,30.6411,-0.76929,78.3335,60.769,2.8206,100,59.8721,-111.0256,-94.4873,-159.8718,-56.1541,-2.3079,0,
-5.1282,21.0256,-6.6663,82.0515,57.949,15.385,113.3337,44.8721,-96.4102,-109.4873,-174.8718,-65.1282,-10.2561,5.1282,
2.8206,15.6409,-7.9487,67.0515,56.1541,0.38501,98.3337,59.8721,-107.436,-94.4873,-159.8718,-50.1282,4.7439,-9.8718,
-1.0256,1.0256,-22.9487,52.0515,41.1541,-14.615,83.3337,74.8721,-122.436,-79.4873,-144.8718,-47.1797,19.7439,-24.6155,
4.3589,16.0256,-7.9487,61.2817,36.1538,-15.1284,72.564,89.8721,-107.436,-64.4873,-129.8718,-53.0771,18.7178,-9.6155,
-8.7178,31.0256,5.1284,76.2817,51.1538,-0.12842,87.564,74.8721,-92.436,-79.4873,-144.8718,-53.3335,3.7178,5.3845,
-17.9487,35.8975,-8.7178,66.1538,66.1538,14.8716,102.564,59.8721,-77.436,-94.4873,-159.8718,-46.6665,-2.564,2.564,
-5.8972,20.8975,-15.1282,51.1538,58.2053,-0.12842,93.5896,74.8721,-75.1282,-79.4873,-144.8718,-31.6665,12.436,5.8972,
-11.2821,5.8975,-30.1282,41.5387,43.2053,-15.1284,78.5896,89.8721,-90.1282,-64.4873,-129.8718,-33.3334,24.6154,6.6666,
1.0256,13.3333,-15.1282,52.8206,42.5642,-2.5642,84.1023,83.5896,-77.436,-49.4873,-114.8718,-46.1538,26.6667,-1.0256,
-4.8718,19.7434,-3.8459,61.282,57.5642,12.4358,99.1023,68.5896,-62.436,-64.4873,-129.8718,-61.1538,11.6667,-4.8718,
-6.9231,14.1028,-7.4358,59.7434,56.6667,7.4358,95.6409,53.5896,-50.5129,-79.4873,-144.8718,-48.9744,-0.25659,0.25659,
-1.7947,19.2307,-16.1536,62.8206,41.6667,-7.5642,80.6409,68.5896,-53.5896,-64.4873,-129.8718,-36.1536,10.5129,1.7947,
3.8462,21.7949,-20.769,64.8721,30.5127,-4.3589,78.7183,83.5896,-68.5896,-49.4873,-114.8718,-32.564,19.231,-3.8462,
-1.5383,6.7949,-22.564,49.8721,45.5127,1.5383,93.7183,70.7693,-83.5896,-40.5127,-99.8718,-46.6667,17.949,-18.8462,
-3.5896,3.5896,-19.4871,43.5896,60.5127,5.6409,101.0256,56.4104,-68.5896,-55.5127,-110.7693,-41.5383,14.8718,-12.3079,
1.5386,7.6924,-18.9741,52.3076,45.5127,-2.0513,86.0256,71.4104,-53.5896,-49.2307,-95.7693,-33.3333,20.5127,-1.5386,
-2.5642,8.718,-18.9744,43.0769,42.5642,2.5642,87.6926,56.4104,-66.1536,-64.2307,-110.7693,-48.3333,5.5127,-16.5386,
0.76929,21.7947,-15.6414,39.7434,57.5642,6.4099,102.6926,41.4104,-51.1536,-79.2307,-125.7693,-46.9231,-0.76929,-20.7693,
1.0256,15.8977,-23.0769,40.5129,63.5896,-1.0256,88.718,56.4104,-36.1536,-64.2307,-110.7693,-31.9231,14.2307,-5.7693,
-13.9744,4.8718,-37.6921,41.2825,48.5896,-6.9231,73.718,71.4104,-29.4871,-49.2307,-95.7693,-16.9231,24.3591,9.2307,
-5.8973,16.6666,-25.8973,44.359,44.359,-1.2821,80.2565,86.4104,-43.3334,-34.2307,-80.7693,-11.0255,32.0514,1.2821,
-9.231,10.2563,-17.436,33.8462,59.359,12.3076,95.2565,71.4104,-28.3334,-49.2307,-95.7693,-26.0255,17.0514,-13.7179,
-6.9231,8.9744,-8.9744,36.1536,74.359,14.6155,110.2565,56.4104,-13.3334,-64.2307,-110.7693,-41.0255,2.0514,1.2821,
3.3333,7.4363,-13.5896,31.0256,59.359,-0.38452,95.2565,63.3333,-26.9229,-54.1023,-95.7693,-34.1023,6.9231,-3.3333,
-4.3589,4.3589,-28.5896,22.8203,44.359,-15.3845,80.2565,78.3333,-41.9229,-39.1023,-80.7693,-37.1797,18.7178,-18.3333,
-9.4873,4.3589,-34.1025,14.6155,29.359,-30.3845,65.2565,93.3333,-56.9229,-24.1023,-65.7693,-30,15.6411,-33.3333,
-8.7178,1.5386,-21.0254,21.0259,44.359,-15.3845,80,78.3333,-41.9229,-39.1023,-80.7693,-29.7437,0.64111,-18.3333,
-3.0769,3.0769,-18.9744,36.0259,59.359,-0.38452,95,63.3333,-26.9229,-54.1023,-95.7693,-28.2048,-9.7434,-3.3333,
6.9233,5.3848,-18.2051,40.7695,50,-9.4873,80,48.3333,-31.5386,-69.1023,-108.9744,-27.9487,5.2566,-5.3848,
3.5897,-8.2052,-33.2051,25.7695,38.4618,-24.4873,65,63.3333,-46.5386,-54.1023,-93.9744,-37.9486,14.8719,-20.3848,
4.8718,-20.2563,-45.8975,10.7695,29.4873,-39.4873,50,78.3333,-52.564,-39.1023,-78.9744,-28.4614,23.8462,-35.3848,
2.5642,-5.2563,-30.8975,24.1028,44.4873,-27.6924,62.0515,70.7693,-37.564,-51.7949,-75.8975,-17.9485,10.2566,-20.3848,
-11.5386,9.7437,-16.1538,39.1028,59.4873,-12.6924,77.0515,55.7693,-22.564,-66.7949,-90.8975,-28.9746,-4.7434,-5.3848,
-1.282,1.282,-24.3591,33.5896,59.7434,2.3076,92.0515,40.7693,-7.564,-81.7949,-105.8975,-29.9998,-13.0769,-1.282,
1.0256,-13.718,-39.3591,18.5896,51.7947,-12.6924,77.0515,55.7693,-11.7949,-66.7949,-90.8975,-14.9998,1.9231,-8.718,
2.3077,-22.8204,-45.3846,3.5896,36.7947,-27.6924,62.0515,70.7693,-26.7949,-51.7949,-75.8975,-2.3077,16.9231,-11.0255,
16.1539,-7.8204,-30.3846,18.5896,33.59,-25.8973,47.0515,85.7693,-11.7949,-36.7949,-60.8975,-17.3077,18.2052,-12.0514,
3.5898,7.1796,-15.3846,33.5896,48.59,-10.8973,62.0515,70.7693,3.2051,-51.7949,-75.8975,-32.3077,3.2052,-3.5898,
-2.051,9.2307,-22.5642,31.7952,63.59,1.5383,77.0515,55.7693,18.2051,-66.7949,-90.8975,-17.3077,-11.7948,-1.5383,
2.8207,-3.8463,-37.5642,19.2308,48.59,-13.4617,62.0515,70.7693,11.0258,-51.7949,-75.8975,-2.8207,3.2052,-2.8207,
-2.5641,-15.8973,-51.7948,6.6666,33.59,-28.4617,47.0515,85.7693,-3.9742,-36.7949,-60.8975,-16.923,9.2308,-17.8207,
11.0256,-1.7949,-36.7948,17.1794,48.59,-13.4617,59.7434,84.3591,1.7949,-21.7949,-45.8975,-17.6924,19.7437,-28.9744,
2.8206,-2.8206,-26.4099,18.718,63.59,1.5383,74.7434,69.3591,16.7949,-36.7949,-60.8975,-32.6924,4.7437,-16.1536,
7.6924,2.0513,-24.1025,21.0259,48.59,-6.1538,59.7434,54.3591,16.9233,-51.7949,-75.8975,-34.3589,-10.2563,-2.0513,
9.4871,13.0769,-22.8206,24.3586,36.1536,-10.5129,44.7434,66.9231,6.9231,-40.2566,-60.8975,-26.9233,-6.9231,-16.1541,
10.7695,15.3848,-24.6152,22.0513,44.6152,-13.8462,52.8208,75.8975,5.6411,-25.2566,-45.8975,-11.9233,-5.6411,-27.1794,
10.769,0.38477,-26.6667,7.0513,56.9231,-10.7693,64.6155,74.3591,20.6411,-12.8206,-30.8975,-1.0256,1.0256,-20.5129,
-4.231,-7.6924,-38.9741,9.231,53.8462,-5.6411,61.5386,59.3591,35.6411,-27.8206,-42.0513,5.1284,-5.1279,-5.5129,
-3.0769,-3.0769,-37.4358,22.0513,40,-12.8206,51.2822,68.7178,20.6411,-24.1025,-27.0513,4.1025,3.0769,-5.1282,
4.6157,-2.0513,-22.4358,14.3589,53.3335,-3.5898,66.2822,53.7178,18.9746,-39.1025,-42.0513,-10.8975,2.0513,-20.1282,
5.6411,5.6411,-13.3335,4.1025,68.3335,-4.1025,71.7949,38.7178,33.9746,-54.1025,-57.0513,-11.7949,-5.6411,-14.3589,
-0.51282,-3.077,-28.3335,-2.0514,53.3335,-19.1025,56.7949,53.7178,48.9746,-39.1025,-42.0513,3.2051,2.0514,-6.6666,
-15.5128,-17.1794,-43.3335,-5.8975,38.3335,-34.1025,41.7949,68.7178,33.9746,-24.1025,-27.0513,1.7949,-1.7949,-21.6666,
-9.2307,-9.2307,-46.6667,-6.1538,23.3335,-43.5898,26.7949,78.4617,18.9746,-9.1025,-12.0513,-1.0256,1.0256,-34.8718,
3.5896,-1.5388,-31.6667,5.6409,38.3335,-28.5898,41.7949,63.4617,33.9746,-24.1025,-27.0513,1.0256,-7.1794,-19.8718,
3.0769,-6.1536,-22.051,13.8464,53.3335,-13.5898,56.7949,48.4617,48.9746,-39.1025,-42.0513,1.0256,-22.1794,-4.8718,
11.7948,-2.0514,-21.5385,11.7948,38.3335,-25.1283,41.7949,54.359,63.9746,-26.1539,-27.0513,2.0514,-7.1794,-3.5897,
4.6152,-12.3079,-36.4104,-3.2052,23.3335,-40.1283,26.7949,69.359,48.9746,-11.1539,-12.0513,-5.6411,2.564,-18.5897,
-1.2821,-23.3334,-46.9232,-18.2052,13.0768,-48.4615,11.7949,84.359,33.9746,3.8461,2.9487,0.25647,0.76917,-33.5897,
3.0769,-9.7434,-32.8203,-3.2052,28.0768,-33.4615,26.7949,69.359,48.9746,-11.1539,-12.0513,7.6926,-8.7175,-18.5897,
3.8462,-4.3589,-31.5381,11.7948,42.8208,-18.4615,41.7949,54.359,63.9746,-26.1539,-27.0513,5.3848,-23.7175,-3.5897,
16.923,-6.1539,-29.7435,6.1539,36.923,-14.8717,42.5641,39.359,54.359,-41.1539,-35.3846,15.3849,-8.7179,-9.7435,
1.923,-21.1539,-44.7435,-8.8461,22.5642,-29.8717,27.5641,54.359,39.359,-26.1539,-20.3846,2.5642,0,-24.7435,
-3.8461,-36.1539,-59.7435,-23.8461,7.5642,-44.8717,12.5641,69.359,24.359,-11.1539,-5.3846,4.359,11.5385,-37.1796,
11.1539,-21.1539,-44.7435,-8.8461,16.9233,-40.5127,17.9487,66.1538,39.359,-12.8206,0,0,3.0769,-22.1796,
2.0513,-6.1539,-29.7435,6.1539,31.9233,-25.5127,32.9487,51.1538,54.359,-27.8206,-15,-3.5898,-11.9231,-7.1796,
-2.8206,1.282,-37.6921,9.4871,37.6921,-10.5127,47.4358,36.1538,69.359,-42.8206,-30,11.4102,-26.9231,3.3333,
0.76917,-13.718,-52.6921,-5.5129,22.6921,-25.5127,32.4358,51.1538,61.2821,-27.8206,-15,26.4102,-11.9231,-1.7948,
8.4615,-25.3846,-59.2308,-20.5129,7.6921,-40.5127,17.4358,66.1538,46.2821,-12.8206,0,38.2052,3.0769,-10.0001,
13.5898,-10.3846,-44.2308,-10,13.0769,-25.8975,2.8206,72.0515,61.282,-2.8206,15,23.2052,-4.8718,-21.7949,
10.2563,4.6154,-29.2308,5,28.0769,-10.8975,17.8206,57.0515,76.282,-17.8206,0,8.2052,-19.8718,-6.7949,
11.7947,-3.0769,-25.6411,-0.51294,34.3591,-23.5898,21.5383,42.0515,91.282,-32.8206,-15,17.9485,-18.9744,0.51294,
10.2563,-6.1538,-40.6411,-9.2307,19.3591,-38.5898,6.5383,57.0515,76.282,-17.8206,0,21.0256,-9.2307,-14.4871,
8.9744,-8.9744,-55.6411,-16.6667,4.3591,-51.0256,-8.4617,72.0515,61.282,-2.8206,15,16.1538,-0.76929,-29.4871,
-1.2821,-23.9744,-61.7948,-31.6667,16.1539,-45.8973,3.3334,57.6925,49.4874,1.2821,30,4.359,-2.8204,-44.4871,
13.7179,-8.9744,-46.7948,-16.6667,31.1539,-30.8973,18.3334,42.6925,64.4874,-13.7179,15,19.359,1.282,-29.4871,
14.3591,-7.1794,-37.9487,-10.2566,26.1536,-20.5129,15.8972,27.6925,79.4874,-22.0513,0,26.1536,-6.6667,-14.4871,
8.2051,-8.2051,-38.4617,-22.5642,19.4868,-25.1284,9.2305,38.4614,64.4874,-19.4873,11.2817,14.8716,-8.7183,-21.0259,
8.7181,-5.641,-41.0258,-32.8204,21.5385,-40.1284,-3.5897,53.4614,54.8719,-4.4873,26.2817,19.9999,-16.923,-32.3077,
9.2307,-11.7949,-51.282,-33.3333,20.5129,-38.4614,-9.2307,59.4873,69.8719,10.5127,41.2817,30.2566,-17.9487,-17.3077,
-1.7949,-7.9487,-57.6921,-18.7178,12.564,-24.8718,1.7949,46.9233,84.8719,-3.8462,31.0259,45.2566,-12.0513,-2.3077,
-3.5897,-10.2565,-53.8461,-24.6154,3.5897,-37.4359,-4.1027,51.795,76.923,9.2308,46.0259,42.5641,2.9487,-17.3077,
1.2822,-25.2565,-47.436,-36.6667,18.5897,-27.436,10,36.795,91.923,-5.7692,31.0259,27.5641,-1.2822,-32.0513,
9.4873,-16.1538,-34.6152,-28.4614,33.5897,-15.6411,15.6411,21.795,106.923,-20.7692,16.0259,24.8716,-5.3848,-17.0513,
5.3846,-11.5385,-37.6923,-30.0001,18.5897,-30.6411,0.64111,36.795,91.923,-5.7692,31.0259,31.5385,1.2821,-2.8204,
8.7179,-8.2052,-43.0768,-24.6154,3.5897,-45.6411,-14.3589,51.795,76.923,9.2308,46.0259,37.9489,8.2052,-17.8204,
0,-23.2052,-53.3333,-39.6154,3.5898,-50.7693,-26.1538,66.795,80,24.2308,61.0259,38.4614,0,-23.5898,
-4.6155,-27.6921,-47.6921,-38.4614,18.5898,-35.7693,-11.1538,51.795,95,9.2308,46.0259,35.8977,-12.8206,-8.5898,
10.3845,-12.6921,-32.8206,-23.4614,32.8206,-20.7693,3.8462,36.795,110,-5.7692,31.0259,46.1541,-14.8718,6.4102,
20.5129,-8.718,-37.9487,-12.8206,17.8206,-28.2051,-11.1538,35.3845,95,0,37.4358,35.3845,0,-4.1025,
7.9487,-23.718,-52.9487,-27.8206,2.8206,-43.2051,-26.1538,50.3845,80,15,52.4358,23.8462,11.5383,-19.1025,
8.718,-35.8975,-66.6667,-42.8206,-8.718,-58.2051,-41.1538,65.3845,80.5129,30,67.4358,28.718,12.3076,-31.282,
18.9745,-20.8975,-51.6667,-27.8206,6.282,-43.2051,-26.1538,50.3845,95.5129,15,52.4358,29.7435,-2.5641,-16.282,
11.5386,-5.8975,-39.7437,-12.8206,11.5386,-28.2051,-11.1538,35.3845,110.5129,0,37.4358,30.5127,-17.5641,-1.2822,
13.5897,-8.9742,-48.9742,-23.3334,13.5897,-13.2051,3.8462,20.3845,108.4618,-15,22.4358,45.3846,-4.359,-10.5128,
-1.4103,-23.9742,-63.9742,-38.3334,1.5385,-28.2051,-11.1538,35.3845,98.4615,0,37.4358,49.7435,10.641,-13.8463,
11.5385,-32.0511,-65.8973,-53.3334,-12.5641,-43.2051,-26.1538,50.3845,83.8461,15,52.4358,63.8461,25.641,-11.5385,
20.2565,-17.0511,-50.8973,-38.3334,-11.0258,-38.7179,-26.923,48.9745,87.4359,11.0258,57.1796,48.8461,17.1796,-23.3334,
13.3335,-2.0511,-35.8973,-23.3334,3.9742,-23.7179,-11.923,33.9745,102.4359,-3.9742,42.1796,33.8461,2.1796,-8.3334,
9.7434,0.51294,-44.1025,-25.6411,18.9742,-28.718,-4.6155,18.9745,117.4359,-18.9742,27.1796,33.8459,-12.3079,5.6409,
9.2307,-14.4871,-59.1025,-35.3845,3.9742,-43.718,-19.6155,33.9745,102.4359,-3.9742,42.1796,48.8459,2.6921,-9.3591,
14.6154,-14.6154,-56.1537,-35.1281,-11.0258,-58.718,-34.6155,48.9745,87.4359,11.0258,57.1796,62.8204,17.6921,-24.3591,
4.8718,-26.9231,-58.2051,-50.1281,-4.8718,-46.9231,-34.6152,46.4104,72.4359,14.1025,72.1796,47.8204,11.0256,-39.3591,
19.8718,-11.9231,-43.2051,-35.1281,10.1282,-31.9231,-19.6152,31.4104,87.4359,-0.89746,57.1796,33.0767,3.3335,-24.3591,
19.9998,-11.2822,-45.1282,-27.1797,2.5642,-30.7693,-21.5386,16.4104,102.4359,-15.8975,42.1796,43.0769,-2.5642,-9.3591,
14.6154,-7.4359,-39.7438,-36.6669,-12.4358,-45.7693,-36.5386,31.4104,95.641,-0.89746,57.1796,37.1796,7.4359,-14.1027,
9.7437,-9.7437,-52.8206,-51.6669,-13.8462,-60.7693,-51.5386,46.4104,80.641,14.1025,72.1796,33.3333,11.282,-29.1027,
1.7949,-24.7437,-62.3076,-66.6669,-1.7949,-59.7434,-39.7434,51.0256,95.1284,29.1025,87.1796,36.6667,6.4104,-27.4358,
1.0256,-22.051,-49.7434,-51.6669,8.718,-44.7434,-24.7434,36.0256,110.1284,14.1025,72.1796,51.6667,-1.0256,-12.4358,
4.8718,-16.6667,-50,-36.6669,-3.3333,-39.7437,-30.5129,27.436,113.5898,3.3333,57.1796,55.6411,5.8975,-4.8718,
6.1541,-27.1794,-51.7949,-51.6669,-1.5383,-42.0513,-33.3333,20.5129,98.5898,1.5383,56.9231,40.6411,3.5896,-19.8718,
9.7434,-28.718,-44.1025,-66.6669,2.5642,-54.3589,-43.0769,34.8718,93.3333,16.5383,66.6667,28.2053,-2.5642,-24.1025,
9.7437,-18.9744,-46.1538,-53.3335,-7.6924,-56.9231,-49.2307,49.8718,108.3333,31.5383,81.6667,43.2053,4.1025,-9.1025,
0.25659,-8.9744,-54.1025,-38.3335,-15.6411,-41.9231,-35.1282,45.8972,113.0769,33.5896,79.2307,55.6409,-0.25659,1.7947,
3.3334,-12.5641,-48.4615,-49.9999,-3.3334,-38.7179,-33.077,51.0255,109.4874,45.3846,84.359,51.0255,6.4103,-11.0255,
9.2307,-21.0259,-47.6924,-61.0259,11.6666,-36.4104,-18.9746,36.0255,124.4874,30.3846,69.359,38.9744,5.1282,-5.1282,
16.9231,-17.949,-49.7437,-48.2053,3.0769,-36.9231,-20.5129,21.0255,132.8206,15.3846,54.359,46.6667,-3.0769,9.8718,
16.4102,-17.9487,-52.3079,-53.3335,-11.9231,-51.9231,-35.5129,32.3076,117.8206,30.3846,69.359,37.9487,7.1794,-5.1282,
15.641,-15.641,-51.5385,-59.2308,-26.9231,-66.9231,-50.5129,47.3076,102.8206,45.3846,84.359,35.641,22.1794,-20.1282,
11.0256,-29.4871,-55.6411,-69.4871,-11.9231,-74.6155,-62.8206,62.3076,91.0259,60.3846,99.359,43.3333,17.1794,-15.6411,
3.5896,-26.6667,-53.8462,-54.4871,3.0769,-59.6155,-47.8206,47.3076,106.0259,45.3846,84.359,43.0769,2.1794,-0.64111,
18.5896,-11.6667,-38.8462,-39.4871,11.2825,-44.6155,-32.8206,32.3076,121.0259,30.3846,69.359,58.0769,1.0256,14.3589,
17.9487,-15.8975,-44.1025,-44.1025,-3.7175,-37.4358,-32.8206,17.9487,106.0259,15.3846,63.0771,47.6924,12.8206,-0.64111,
9.2308,-30.8975,-56.9232,-59.1025,-9.2308,-52.4358,-47.8206,32.9487,91.0259,30.3846,78.0771,50.2565,27.6923,-15.6411,
10.5128,-29.4872,-58.7181,-72.5641,-14.1027,-67.4358,-62.8206,47.9487,97.1793,45.3846,93.0771,62.3075,31.0255,-10.5128,
15.3848,-14.4872,-46.6665,-57.5641,-14.3589,-52.4358,-47.8206,32.9487,112.1793,30.3846,78.0771,47.3075,16.0255,-8.2051,
30.3848,0.51282,-31.6665,-42.5641,0.64111,-37.4358,-32.8206,17.9487,127.1793,15.3846,63.0771,48.2048,3.5896,4.6155,
20.7692,-7.4359,-35.1283,-51.5385,5.3846,-45.8973,-34.1027,2.9487,138.2052,6.4103,48.0771,52.0514,6.4103,-5.3846,
5.7692,-22.4359,-50.1283,-66.5385,-9.6154,-60.8973,-49.1027,17.9487,123.2052,21.4103,63.0771,63.8461,16.6666,-4.8717,
14.1025,-18.2053,-57.1794,-55.1282,-24.6154,-72.0513,-64.1027,32.9487,108.2052,36.4103,78.0771,77.1794,31.6666,-14.1025,
14.1025,-13.0769,-43.8462,-53.0769,-20.7693,-58.2051,-56.1538,18.2051,102.8203,23.8462,77.1797,62.1794,16.6666,-29.1025,
29.1025,1.9231,-28.8462,-38.0769,-5.7693,-43.2051,-41.1538,3.2051,117.8203,8.8462,62.1797,47.1794,1.6666,-14.1025,
25.1282,4.1028,-20.5127,-25.6409,1.5383,-30.2563,-35.8975,-11.7949,132.8203,-6.1538,47.1797,62.1794,-1.5383,0.89746,
10.2563,-5.6411,-35.5127,-40.6409,-13.4617,-45.2563,-50.8975,3.2051,117.8203,8.8462,62.1797,69.7437,5.6411,-6.6667,
8.9744,-8.9744,-50.5127,-55.6409,-28.4617,-60.2563,-65.8975,18.2051,102.8203,23.8462,77.1797,54.7437,17.6924,-21.6667,
7.4359,-19.2308,-47.4359,-70.6409,-13.4617,-58.7181,-59.2308,26.923,117.8203,38.8462,92.1797,39.7437,16.1537,-28.9745,
18.9746,-7.6924,-32.4359,-55.6409,1.5383,-43.7181,-44.2308,11.923,132.8203,23.8462,77.1797,54.7437,7.6924,-13.9745,
24.3593,-7.9486,-35.641,-40.6409,-3.8461,-28.7181,-39.7435,-3.077,136.1537,8.8462,62.1797,64.3593,8.9745,1.0255,
21.795,-12.5641,-34.1024,-55.6409,-18.7179,-43.7181,-54.7435,11.923,121.1537,23.8462,77.1797,49.3593,14.1027,-13.9745,
20.2563,-19.2307,-37.1794,-70.6409,-12.0513,-58.7181,-69.7435,26.923,106.1537,38.8462,92.1797,39.7437,12.0513,-22.8206,
14.1024,-26.9232,-45.8976,-66.9232,-5.3846,-58.7179,-63.3334,26.4103,117.692,53.8462,105.8976,52.5641,5.3846,-7.8206,
9.4873,-11.9232,-37.1792,-51.9232,-4.3589,-43.7179,-48.3334,11.4103,132.692,38.8462,90.8976,65.8975,-2.3076,7.1794,
10.5128,-1.7948,-33.5897,-47.9486,-8.4615,-32.0514,-48.9742,2.3077,117.692,23.8462,75.8976,56.1539,1.7948,-5.8973,
18.4617,-15.8975,-41.0256,-62.9486,-1.5383,-40.5127,-50.2563,1.5383,114.8718,15.8977,68.718,44.6155,6.6667,-13.3333,
17.9487,-30.8975,-53.3335,-75.3848,-16.5383,-55.5127,-63.5898,6.1538,99.8718,27.6924,73.3335,39.4873,-3.5898,1.6667,
21.2821,-17.1796,-44.359,-68.4615,-31.5383,-60.7692,-65.8973,12.5641,92.5638,42.6924,87.9486,34.6154,2.3077,-2.3077,
19.4871,-2.5642,-36.4102,-53.8459,-25.6409,-45.7692,-58.9744,12.8206,103.0769,37.4358,78.4617,38.9744,2.5642,-11.282,
21.7949,-12.5642,-34.1025,-60.7693,-19.7437,-54.1025,-68.9744,27.8206,103.8462,52.4358,88.9746,53.9744,4.3589,-4.3589,
18.2051,-16.1541,-39.7437,-54.1028,-4.7437,-44.3591,-53.9744,12.8206,118.8462,37.4358,73.9746,58.7178,-0.25635,10.6411,
21.5383,-1.1541,-37.4358,-39.1028,-1.5383,-29.3591,-38.9744,-2.1794,133.8462,22.4358,58.9746,71.282,1.5383,25.6411,
19.2307,-6.9231,-37.1794,-47.4358,-16.5383,-44.3591,-53.9744,7.9487,118.8462,37.4358,73.9746,56.282,6.9231,10.6411,
22.5642,-20,-37.9487,-62.4358,-30.2563,-59.3591,-68.9744,22.9487,103.8462,52.4358,88.9746,46.6667,20,-4.3589,
12.8206,-30.2563,-52.9487,-76.9231,-35.3845,-74.3591,-83.9744,37.9487,88.8462,67.4358,103.9746,57.436,14.8718,-12.8206,
14.3591,-15.2563,-37.9487,-61.9231,-20.3845,-59.3591,-68.9744,22.9487,103.8462,52.4358,88.9746,56.4104,4.1028,1.0256,
29.3591,-0.25635,-22.9487,-46.9231,-5.3845,-44.3591,-53.9744,7.9487,118.8462,37.4358,73.9746,64.8716,2.8203,10,
21.5385,-2.5641,-23.0768,-54.359,-14.8717,-44.6154,-61.5385,2.5641,114.8719,30.7692,70.7694,61.5385,7.1796,-5,
8.4615,-17.5641,-38.0768,-69.359,-28.4615,-59.6154,-76.5385,17.5641,99.8719,45.7692,85.7694,76.5385,22.1796,-8.4615,
9.2307,-24.1025,-48.718,-70.2563,-36.4104,-73.8462,-91.5385,32.5641,91.7949,60.7692,100.7694,81.5383,31.282,-9.2307,
24.2307,-9.1025,-33.718,-55.2563,-21.4104,-58.8462,-76.5385,17.5641,106.7949,45.7692,85.7694,66.5383,16.282,-21.7949,
39.2307,5.8975,-18.718,-41.7947,-6.4104,-43.8462,-61.5385,2.5641,121.7949,30.7692,70.7694,51.5383,2.8206,-6.7949,
27.4359,-9.1025,-15.1283,-56.7947,-2.3077,-53.0768,-64.359,-10.5128,116.1537,15.7692,55.7694,51.5385,2.3077,4.359,
12.4359,-14.8718,-30.1283,-63.0769,-17.3077,-68.0768,-79.359,4.4872,101.1537,30.7692,70.7694,62.0513,4.6155,-4.6155,
12.3077,-12.3077,-44.6154,-72.3077,-32.3077,-83.0768,-94.359,19.4872,86.1537,45.7692,85.7694,66.1539,12.3077,-19.6155,
19.2307,-16.1538,-29.6154,-72.0513,-17.3077,-68.0768,-81.282,18.2051,101.1537,43.8459,100.7694,51.1539,15.1282,-34.6155,
27.1797,-1.1538,-14.6154,-57.0513,-2.3077,-53.0768,-66.282,3.2051,116.1537,28.8459,85.7694,51.7949,3.5898,-19.6155,
30.5129,6.4104,-10,-42.0513,-16.6665,-38.0768,-56.6665,-11.7949,110.0002,13.8459,70.7694,64.8718,1.282,-4.6155,
20,-7.1794,-23.5896,-57.0513,-31.6665,-53.0768,-71.6665,3.2051,95.0002,28.8459,85.7694,49.8718,7.1794,-19.6155,
16.6667,-16.1538,-23.8462,-72.0513,-29.4873,-68.0768,-86.6665,18.2051,80.0002,43.8459,100.7694,45.8975,16.1538,-34.6155,
13.8461,-23.077,-22.0514,-74.8719,-14.4873,-53.0768,-73.3334,27.6923,95.0002,55.8976,112.3077,51.2819,8.7179,-19.6155,
18.4614,-8.077,-13.3335,-59.8719,0.5127,-38.0768,-58.3334,12.6923,110.0002,40.8976,97.3077,66.2819,0.5127,-4.6155,
16.1541,6.923,-13.0769,-44.8719,-13.5898,-34.6155,-54.1025,-2.3077,117.6921,25.8976,82.3077,71.5383,3.8459,2.8206,
26.9233,-5.8975,-13.0769,-58.2051,-15.1282,-49.6155,-62.3076,5.8975,102.6921,40.8976,97.3077,56.5383,14.6152,-12.1794,
31.2821,-20.8975,-22.5641,-73.2051,-27.6923,-64.6155,-77.3076,20.8975,87.6921,55.8976,112.3077,44.6154,13.3334,-13.3334,
18.2051,-17.6924,-24.3589,-64.8718,-33.0769,-59.2307,-85.3845,21.7949,91.0256,66.4104,108.4617,48.9744,0.76929,-0.76929,
12.3076,-2.6924,-9.3589,-49.8718,-20.5127,-44.2307,-70.3845,6.7949,101.0254,51.4104,93.4617,52.8203,-12.8203,8.2051,
17.6921,-0.76929,-0.76929,-53.0769,-14.6155,-37.1794,-60.7693,12.564,94.6152,36.4104,78.4617,55.1279,-0.76929,0.76929,
11.7947,-15.7693,-15.7693,-66.6667,-16.4104,-52.1794,-71.2822,-0.51294,109.6152,24.1023,83.0769,57.9485,0.51294,3.5896,
15.6414,-8.9744,-28.9744,-53.0769,-26.4102,-52.0513,-74.6152,-0.76929,101.282,36.1541,89.4871,70.0002,0.76929,18.5896,
16.9232,-5.641,-20.5128,-55.3846,-37.9486,-55.8973,-84.1024,5.641,86.282,49.2308,99.4872,55.0002,5.641,3.5896,
17.1794,-4.8718,-17.1797,-51.0259,-33.0771,-54.1028,-78.718,12.051,78.2048,39.7434,91.5383,40.0002,4.8718,-11.4104,
17.1796,-13.077,-20.2565,-56.6666,-30.0001,-59.2308,-88.9745,24.359,83.8463,54.7434,98.2052,53.0768,-0.76917,0.76916,
16.9229,1.923,-5.6411,-41.6666,-15.0001,-44.2308,-73.9745,9.359,98.8463,39.7434,83.2052,68.0768,-3.5898,15.7692,
15.8977,16.923,3.0769,-26.6666,-7.6921,-29.2308,-58.9745,-5.641,113.8463,24.7434,68.2052,76.4104,-3.0769,25.6414,
11.5385,1.923,-11.0255,-41.6666,-22.6921,-44.2308,-73.5897,1.7948,98.8463,39.7434,79.2308,61.4104,6.4103,10.6414,
15.641,-13.077,-15.641,-56.6666,-24.8717,-59.2308,-88.5897,16.7948,83.8463,54.7434,94.2308,64.359,21.4103,-4.3586,
8.718,-17.9487,-24.6155,-63.5896,-36.4102,-74.2308,-103.5897,31.7948,78.4617,69.7434,109.2308,72.8206,15.3845,-8.718,
18.7178,-2.9487,-9.6155,-48.5896,-21.4102,-59.2308,-88.5897,16.7948,93.4617,54.7434,94.2308,57.8206,0.38452,-0.25635,
24.6152,12.0513,5.3845,-33.5896,-6.4102,-44.2308,-73.5897,1.7948,108.4617,39.7434,79.2308,49.231,-4.6152,7.1797,
9.7438,-1.5385,-5.1281,-48.5896,-11.2821,-54.359,-76.4103,1.5385,106.6669,35.8973,64.2308,56.9232,2.5641,-5.641,
3.3333,-16.5385,-20.1281,-63.5896,-26.2821,-69.359,-91.4103,16.5385,91.6669,50.8973,79.2308,70,7.9487,-3.3333,
10.2565,-10.2565,-21.0258,-68.2052,-38.9745,-78.4615,-104.1027,31.5385,76.6669,65.8973,94.2308,65.641,11.2821,-16.4103,
15.6407,-3.8463,-6.0258,-58.2052,-23.9745,-63.4615,-89.1027,16.5385,91.6669,50.8973,79.2308,50.641,7.4357,-31.4103,
30.0002,2.3079,8.9742,-45.3845,-8.9745,-48.4615,-74.1027,1.5385,106.6669,35.8973,64.2308,35.641,-2.3079,-16.4103,
28.4614,0.25635,7.436,-43.8462,-21.7949,-44.3589,-72.564,-11.0256,91.6669,20.8973,49.2308,47.9487,-0.25635,-1.4103,
13.4614,-2.3077,-7.564,-52.0514,-36.7949,-59.3589,-87.564,3.9744,76.6669,35.8973,64.2308,53.5897,2.3077,-11.0258,
10.2565,-8.7179,-9.2308,-67.0514,-37.9489,-74.3589,-102.564,18.9744,61.6669,50.8973,79.2308,52.3077,8.7179,-26.0258,
14.6154,-17.1796,-1.2821,-70.5128,-22.9489,-59.3589,-87.564,19.2308,76.6669,49.4869,85.8976,46.4103,1.2821,-17.6923,
24.3591,-2.1796,13.7179,-55.5128,-7.9489,-44.3589,-72.564,4.2308,91.6669,34.4869,70.8976,61.4103,-2.3079,-2.6923,
15.3843,4.1025,5.1279,-40.5128,-17.9487,-29.3589,-61.0259,-10.7692,84.1025,19.4869,55.8976,61.0254,-4.1025,12.3077,
16.923,-10.8975,-3.5897,-55.5128,-28.7179,-44.3589,-76.0259,4.2308,69.1025,34.4869,70.8976,46.0254,3.5897,-2.6923,
21.7949,-22.3076,-11.0256,-70.5128,-38.2051,-59.3589,-91.0259,19.2308,54.1025,49.4869,85.8976,39.2307,11.0256,-17.6923,
13.8461,-19.4872,-12.3077,-65.1283,-23.5897,-58.9742,-83.5897,22.5641,69.1025,64.4869,100.8976,47.1796,5.1283,-5.1283,
10.7693,-4.4872,2.6923,-50.1283,-8.5897,-43.9742,-68.5897,7.5641,84.1025,49.4869,85.8976,56.4104,-9.8717,9.8717,
13.59,10.0001,9.4874,-35.1283,-15.641,-31.5385,-60.7692,-7.4359,94.6154,34.4869,70.8976,55.6412,-11.0255,0.76917,
19.4872,-4.9999,0.51282,-50.1283,-14.8717,-46.5385,-75.7692,-0.51282,79.6154,49.4869,85.8976,57.9489,3.9745,-1.0258,
4.4872,-19.9999,-14.4872,-65.1283,-29.8717,-61.5385,-90.7692,4.1027,64.6154,64.4869,100.8976,48.2052,-3.077,5.641,
13.3335,-5.1282,-8.7178,-50.1283,-39.4871,-54.3589,-88.2051,2.5642,79.6154,65.1282,95.3845,47.6924,-2.0513,2.0513,
14.6152,5.3848,4.8716,-41.2822,-24.4871,-39.3589,-73.2051,-12.4358,86.4102,50.1282,80.3845,44.3589,-10,-2.8203,
14.8717,-6.6666,2.5641,-56.2822,-19.4872,-51.7948,-77.9489,-11.2821,71.4102,35.1282,65.3845,51.2821,-2.5641,8.2052,
10.7695,-4.6152,-2.0513,-51.7947,-16.4102,-57.9485,-84.1023,-21.5383,86.4102,23.0771,73.3335,60.5132,2.0513,16.9233,
4.1025,2.0513,-6.1538,-37.436,-28.718,-52.8206,-81.0259,-29.231,87.1792,27.1792,73.8462,61.5381,-2.0513,5.6406,
17.6923,-2.8204,2.8204,-47.4359,-26.923,-51.0258,-79.2308,-14.231,76.6666,42.1792,88.8462,46.5381,12.9487,-9.3594,
19.9999,-12.8204,-1.5385,-62.4359,-21.5385,-59.9999,-88.7179,0.76904,80.5131,57.1792,94.3588,38.9745,20.5131,-8.7179,
7.9489,-17.1793,-12.0511,-64.359,-36.5385,-74.9999,-103.7179,5.8976,65.5131,62.3077,94.6154,50.0001,5.5131,-5.3846,
13.5896,-2.1793,2.9489,-49.359,-24.3591,-59.9999,-88.7179,-9.1024,80.5131,47.3077,79.6154,47.9485,-4.8718,2.8206,
20.2563,12.8207,17.9489,-34.359,-9.3591,-44.9999,-73.7179,-24.1024,95.5131,32.3077,64.6154,44.8716,-13.0771,10,
12.8206,1.0256,4.1025,-49.359,-15.8975,-49.2307,-83.0769,-17.4358,80.5131,32.8206,64.6155,47.1794,-1.0256,-5,
5.3846,-13.9744,-10.8975,-64.359,-27.9486,-64.2307,-98.0769,-2.4358,65.5131,47.8206,79.6155,62.1794,12.5641,-5.3846,
6.1538,-6.1538,-8.718,-54.8718,-42.0513,-76.4102,-108.2051,12.5642,52.3076,62.8206,94.6155,70.2563,6.1538,-8.2051,
21.1538,8.8462,6.282,-39.8718,-27.0513,-61.4102,-93.2051,-2.4358,67.3076,47.8206,79.6155,55.2563,2.3076,-2.3076,
35.8975,11.7949,21.282,-31.7949,-12.0513,-46.4102,-78.2051,-17.4358,82.3076,32.8206,64.6155,40.2563,-10.2563,12.6924,
21.5386,-3.2051,8.2051,-46.7949,-16.4102,-61.4102,-86.1538,-24.6155,67.3076,17.8206,49.6155,44.6152,-9.7437,5.6411,
11.282,0,-6.7949,-51.2822,-31.4102,-73.3335,-101.1538,-9.6155,52.8203,32.8206,64.6155,59.6152,0,-5.1282,
7.9487,-10,-5.3845,-66.2822,-46.4102,-87.9487,-116.1538,5.3845,38.2051,47.8206,79.6155,46.4102,5.3845,-20.1282,
21.7949,-11.0256,9.6155,-58.2051,-31.4102,-72.9487,-101.1538,-9.6155,53.2051,32.8206,70.5127,31.4102,11.0256,-20.769,
30.7695,3.9744,22.564,-43.2051,-16.4102,-57.9487,-86.1538,-24.6155,68.2051,17.8206,55.5127,44.1025,-3.5898,-5.769,
22.8204,5.8976,12.0514,-32.0514,-29.4872,-42.9487,-81.795,-39.6155,73.5895,2.8206,40.5127,47.4357,-5.8976,9.231,
11.7949,-9.1024,2.5642,-47.0514,-44.4872,-57.9487,-96.795,-24.6155,58.5895,17.8206,55.5127,32.4357,1.0256,-5.769,
15.3846,-24.1024,-6.6666,-62.0514,-51.7948,-72.9487,-111.795,-9.6155,43.5895,32.8206,70.5127,36.4103,6.6666,-20.769,
17.9487,-24.1025,0,-68.7178,-36.7948,-58.9744,-96.795,0,58.5895,47.8206,85.5127,50.7695,0.51294,-5.769,
22.8208,-9.1025,15,-53.7178,-21.7948,-43.9744,-81.795,-15,73.5895,32.8206,70.5127,65.7695,-5.3843,9.231,
13.3333,5.8975,14.8718,-38.7178,-17.9487,-34.8718,-68.2051,-30,77.949,17.8206,55.5127,55.8977,-7.1794,7.1794,
27.1796,-8.2052,8.2052,-53.7178,-18.9742,-49.8718,-83.2051,-15,62.949,32.8206,70.5127,42.0511,7.8206,-7.8206,
20.0001,-23.2052,-6.7948,-68.7178,-33.9742,-64.8718,-98.2051,0,47.949,47.8206,85.5127,42.0514,7.6923,-8.205,
13.5896,-9.4873,-0.76929,-53.7178,-35.6411,-59.7437,-89.4873,0.76929,62.949,60.2566,94.1023,46.9231,-4.8718,4.3589,
17.9487,5.5127,14.2307,-38.7178,-20.6411,-44.7437,-74.4873,-14.2307,77.949,45.2566,79.1023,45.1279,-19.4873,11.2817,
17.6924,7.9487,26.9233,-35.6409,-7.4358,-29.7437,-65.8972,-29.2307,62.949,30.2566,64.1023,42.3076,-18.7178,2.3076,
12.3079,-7.0513,11.9233,-50.6409,-16.9231,-44.7437,-80.8972,-14.3589,61.5383,45.1282,76.4104,57.3076,-5.1282,10.2566,
8.9744,-3.3333,-3.0767,-49.4873,-31.9231,-59.7437,-95.8972,-1.282,46.5383,60.1282,91.4104,65.3848,1.282,10.5127,
13.3334,-1.5385,3.5897,-49.2308,-42.0514,-50.7692,-90.7692,-16.282,33.3334,45.1282,76.4104,50.3848,1.5385,-4.4873,
16.9231,1.5383,15.8977,-45.6409,-27.0514,-36.9231,-75.7692,-29.7434,48.3334,30.1282,61.4104,35.3848,-7.1794,-1.0256,
14.1027,-7.4359,7.4359,-51.0255,-28.9742,-51.5385,-86.923,-14.7434,51.0258,21.7948,53.5897,39.2308,-7.4359,9.4872,
9.4871,-1.282,9.4871,-39.231,-30.0002,-59.231,-87.949,-29.7434,55.6409,6.7948,42.3074,43.3333,-2.8206,7.9485,
0,9.231,12.3076,-32.8206,-36.4102,-58.9744,-85.6409,-42.0513,59.4873,6.1538,46.1538,45.6411,-11.7949,0,
3.8462,0.76929,12.564,-46.9231,-30.5129,-48.4617,-79.7437,-27.0513,57.1794,21.1538,61.1538,39.2307,-0.76929,-9.4873,
0.25635,-14.2307,1.282,-56.6667,-25.3845,-55.1282,-86.9231,-12.0513,54.6152,36.1538,76.1538,47.9487,6.4102,-0.25635,
0.25647,-11.0258,-0.25647,-44.8719,-40.3845,-64.359,-101.9231,-1.795,53.0768,51.1538,83.3334,62.9487,1.7948,4.359,
15.2565,3.9742,14.7435,-29.8719,-31.7949,-49.359,-86.9231,-16.795,68.0768,36.1538,68.3334,47.9487,-8.718,5.1282,
27.4358,14.6155,29.7435,-25.3845,-16.7949,-34.359,-71.9231,-31.795,83.0768,21.1538,53.3334,32.9487,-8.9744,17.6921,
12.4358,-0.38452,14.7435,-40.3845,-17.9487,-49.359,-86.9231,-16.795,68.0768,29.2307,54.3591,43.0769,-4.1025,4.1025,
0,-15.3845,-0.25647,-55.3845,-32.9487,-60.5127,-101.9231,-1.795,53.0768,44.2307,69.3591,58.0769,0,5.1282,
2.3077,-10.5128,5.8976,-57.6923,-44.8717,-72.0511,-110.5128,13.205,38.0768,59.2307,84.3591,54.1027,-2.3077,-9.8718,
17.3077,1.0256,20.8976,-42.6923,-29.8717,-57.0511,-95.5128,-1.795,53.0768,44.2307,69.3591,39.1027,10.2561,-5.6414,
32.3077,0.25635,25.3848,-28.4614,-14.8717,-42.0511,-80.5128,-16.795,68.0768,29.2307,54.3591,28.4614,-0.25635,9.3586,
17.3077,-7.4358,10.3848,-43.4614,-29.8717,-52.5642,-83.8462,-30.5129,54.6155,14.2307,39.3591,42.3079,-11.5386,15.1282,
2.3077,-2.3077,6.4103,-56.1539,-44.8717,-67.5642,-98.8462,-15.5129,39.6155,29.2307,54.3591,40.2565,-3.8463,0.12817,
9.4871,-10.5129,0.25635,-70,-46.9231,-80.7693,-113.8462,-0.51294,24.6155,44.2307,69.3591,32.0513,3.3333,-14.1025,
14.1027,-13.5897,4.8717,-55,-31.9231,-65.7693,-98.8462,-13.0768,39.6155,29.2307,60.2565,37.1793,-4.8717,0.89746,
14.8721,1.4103,19.8717,-40,-16.9231,-50.7693,-83.8462,-28.0768,54.6155,14.2307,45.2565,52.1793,-7.1792,15.8975,
6.4102,7.436,15.6411,-25,-26.4104,-35.7693,-68.8462,-43.0768,48.9741,-0.76929,30.2565,43.333,-6.4102,10.5127,
16.1538,-7.564,10,-40,-34.6152,-50.7693,-83.8462,-28.0768,33.9741,14.2307,45.2565,28.333,5.8975,-4.4873,
17.6924,-21.7949,1.7949,-55,-44.8718,-65.7693,-98.8462,-13.0768,18.9741,29.2307,60.2565,31.0256,8.9744,-11.5386,
7.6923,-13.8461,1.5385,-48.7179,-29.8718,-52.3077,-83.8462,1.9232,33.9741,44.2307,70.7692,43.59,-3.5897,-1.5385,
6.9229,1.1539,16.5385,-33.7179,-14.8718,-37.3077,-68.8462,-13.0768,48.9741,29.2307,55.7692,58.59,-18.5897,13.4615,
7.6926,13.3333,31.5385,-23.5896,-1.0256,-27.6921,-53.8462,-28.0768,54.3591,14.2307,40.7692,51.7952,-14.3586,17.4358,
1.282,-1.6667,16.5385,-38.5896,-16.0256,-42.6921,-68.8462,-13.0768,39.3591,29.2307,55.7692,44.8721,0.64136,2.4358,
-0.25647,-16.6667,1.5385,-53.5896,-31.0256,-57.6921,-83.8462,1.9232,24.3591,44.2307,70.7692,54.1027,6.9232,0.25647,
9.4873,-1.6667,14.6155,-38.5896,-32.0513,-43.3333,-78.718,-3.3333,25.3845,44.8718,77.1794,39.1027,-1.7949,-4.3589,
24.4873,13.3333,29.6155,-23.5896,-17.0513,-28.3333,-63.718,-18.3333,40.3845,29.8718,62.1794,33.3335,-4.6152,10.6411,
17.692,4.359,18.2052,-33.5897,-16.1539,-29.4872,-64.8719,-19.2308,33.5895,14.8718,47.1794,38.2052,-8.9745,23.3331,
3.5897,-3.5897,6.1542,-34.8717,-29.2306,-44.4872,-79.8719,-10.2562,26.6669,29.8718,52.308,53.2052,-10.7692,18.4618,
-3.3334,4.8719,8.9745,-30.5128,-36.1537,-59.4872,-87.9486,-8.9742,27.4359,44.8718,65.8973,59.2308,-12.5641,3.4618,
6.6666,1.5385,13.8463,-42.0511,-33.8461,-56.4103,-82.5641,-14.8717,24.1027,41.0258,53.8461,44.2308,-1.5385,-11.5382,
10.5125,-1.282,15.1282,-39.7439,-18.8461,-41.4103,-69.4873,-20.7693,39.1027,26.0258,38.8461,34.1023,0.76929,3.4618,
5.1282,-3.5898,12.3076,-32.3076,-30.2563,-56.4103,-73.8462,-11.7949,44.6155,11.0258,33.3333,41.0256,-5.1282,3.5898,
20.1282,11.4102,27.3076,-17.3076,-24.3589,-43.8462,-58.8462,-19.2307,53.5896,-3.9742,35.1282,36.1541,-2.3079,2.3079,
23.5894,18.9741,41.0254,-23.0771,-9.7437,-37.436,-56.9233,-28.7183,57.4355,-4.1025,29.2305,32.3076,-11.7949,4.1025,
11.0258,3.9741,26.0254,-38.0771,-4.8717,-41.7948,-64.359,-13.7183,64.8717,10.8975,44.2305,41.7948,0.25647,-0.25647,
-3.5898,-11.0259,11.0254,-44.1025,-19.8717,-52.8206,-79.359,1.2817,49.8717,25.8975,59.2305,55.3848,1.0256,3.5898,
2.3077,-3.8463,7.9486,-41.795,-34.8717,-62.8207,-94.359,8.4615,34.8717,40.8975,74.2305,53.0768,-2.3077,-2.8207,
17.3077,10.5129,22.9486,-26.9231,-19.8717,-47.8207,-79.359,-6.5385,49.8717,25.8975,59.2305,38.0768,-1.7947,1.7947,
32.3077,10,37.9486,-15.1279,-4.8717,-32.8207,-64.359,-21.5385,64.8717,10.8975,44.2305,25.3848,-7.9487,16.7947,
17.3077,-5,22.9486,-30.1279,-19.8717,-47.8207,-76.6665,-16.1538,49.8717,15.6411,29.2305,35.6411,-19.2307,13.5898,
4.359,-0.76917,7.9486,-44.359,-34.8717,-62.8207,-91.6665,-1.1538,34.8717,30.6411,44.2305,50.6411,-12.0514,-1.4102,
11.7949,-3.0769,14.3589,-51.7949,-37.4358,-69.2307,-91.7949,13.8462,19.8717,45.6411,59.2305,38.4617,-5.6411,-14.8718,
26.4104,-2.3074,29.3589,-36.7949,-22.4358,-54.2307,-76.7949,-1.1538,34.8717,30.6411,44.2305,23.4617,2.8206,0.12817,
23.0767,2.564,29.7437,-21.7949,-7.4358,-39.2307,-61.7949,-16.1538,49.8717,15.6411,29.2305,38.4617,-2.564,15.1282,
12.8204,-2.5641,21.0255,-25.1283,-22.4358,-38.4615,-61.5385,-27.1796,34.8717,0.64111,16.4103,46.6666,2.5641,13.8463,
0,-11.7949,6.6665,-40.1283,-37.4358,-53.4615,-76.5385,-12.1796,19.8717,15.6411,31.4103,31.6666,0,-1.1537,
7.1794,-17.4358,3.5898,-55.1283,-45.1282,-68.4615,-91.5385,2.8204,4.8717,30.6411,46.4103,28.2051,4.6155,-12.8206,
13.077,-16.6666,12.5641,-42.8204,-30.1282,-53.4615,-76.5385,-2.8204,19.8717,17.1796,58.205,37.6923,-2.3077,2.1794,
14.615,-1.6666,27.5641,-27.8204,-15.1282,-38.4615,-61.5385,-17.8204,34.8717,2.1796,43.205,52.6923,-17.3077,17.1794,
24.3589,13.3334,42.5641,-12.8204,-3.8462,-23.4615,-46.5385,-32.8204,30,-12.8204,28.205,56.1538,-6.4102,22.8203,
15.641,-1.6666,27.5641,-27.8204,-18.8462,-38.4615,-61.5385,-17.8204,15,2.1796,43.205,41.1538,3.8461,7.8203,
15.1283,-14.6154,12.5641,-42.8204,-33.8462,-53.4615,-76.5385,-2.8204,5e-07,17.1796,58.205,41.7948,7.4359,0.25647,
9.4871,-0.76929,11.0256,-29.4873,-40.7693,-50.5129,-81.2822,-4.3591,15,29.4871,47.9485,32.5642,-7.5641,0.76929,
22.8203,14.2307,26.0256,-14.4873,-25.7693,-35.5129,-66.2822,-19.3591,30,14.4871,32.9485,30,-22.5641,14.1025,
34.1025,17.1792,41.0256,-11.0259,-10.7693,-27.949,-51.2822,-26.9233,44.3589,-0.51294,17.9485,41.2817,-7.5641,26.4102,
19.1025,2.1792,26.0256,-26.0259,-22.5642,-42.949,-66.2822,-11.9233,30.7693,14.4871,32.9485,49.7434,-2.0513,16.9231,
4.1025,-5.1283,11.0256,-37.4359,-37.5642,-57.949,-81.2822,3.0767,18.4615,29.4871,47.9485,59.4872,6.6666,1.9231,
10.0001,-6.4103,15.1283,-39.2306,-36.1537,-64.8717,-72.5641,-8.4615,33.4615,37.1796,62.9485,44.4872,6.4103,-13.0769,
18.9744,8.5897,30.1283,-26.6667,-21.1537,-49.8717,-57.5641,-23.4615,48.4615,22.1796,47.9485,29.4872,-1.0256,1.9231,
12.0513,5.3848,23.8462,-26.4104,-12.5642,-39.2307,-56.6667,-12.5642,33.4615,7.1796,32.9485,42.3076,-5.3848,16.9231,
5.6411,-2.0513,13.3335,-29.2307,-27.5642,-54.2307,-71.6667,-13.333,18.4615,10.7695,35.8975,42.564,-9.2305,2.0513,
4.6154,4.6154,16.4105,-35.3846,-36.4103,-69.2307,-81.0255,-11.2819,14.3593,25.7695,50.8975,33.8461,-14.359,-4.6154,
9.2307,-1.0256,20.5129,-39.4871,-21.4103,-54.2307,-66.0255,1.0256,23.0769,34.3591,56.9231,28.718,-1.0256,-2.0513,
4.1028,-10.2566,12.3079,-32.8206,-14.3591,-45.6411,-57.9487,-5.1282,22.5642,19.3591,41.9231,42.5642,-4.1028,10.2566,
9.4873,-0.25635,17.1794,-26.4102,-28.9744,-60.6411,-72.564,-2.3076,7.5642,17.6924,33.5898,43.8462,-7.9487,0.25635,
24.4873,14.7437,32.1794,-13.8462,-13.9744,-45.6411,-57.564,-17.3076,11.2817,2.6924,25.6406,28.8462,2.0513,-5.6411,
33.0769,-0.25635,36.6667,-28.8462,1.0256,-45.3845,-44.3591,-32.3076,10.5129,-12.3076,10.6406,13.8462,-5.8972,0.25659,
20.0001,-11.7948,21.6667,-37.9486,-8.2052,-55.3846,-55.8973,-17.3076,11.7948,2.6924,25.6406,28.8462,-2.5641,2.5641,
5.6409,-7.6924,7.1794,-35.3848,-22.5642,-52.8206,-67.1797,-2.3076,0,17.6924,40.6406,41.0256,-12.3079,0,
17.6923,0.76916,22.1794,-34.6154,-15.641,-55.1283,-71.5385,12.6924,-14.6154,32.6924,55.6406,31.5385,-0.76917,-3.8461,
25.3845,-2.8206,33.0769,-32.5642,-0.64099,-40.1283,-56.5385,-2.3076,0.38464,17.6924,40.6406,16.5385,3.8464,-9.9998,
32.051,-0.76929,24.3586,-17.5642,3.3333,-25.1283,-41.5385,-17.3076,15.3846,2.6924,25.6406,25.3845,0.76929,5.0002,
19.9999,-6.1539,16.923,-28.7179,-11.6667,-40.1283,-56.5385,-12.3077,16.923,-0.51282,25.1283,32.8207,0.51282,8.2052,
9.4872,0.76916,17.6923,-43.7179,-26.6667,-55.1283,-71.5385,2.6923,1.923,14.4872,40.1283,24.359,-0.76917,-6.7948,
24.4872,0.51282,22.5641,-44.1027,-30.7692,-70.1283,-77.4359,17.6923,-13.077,29.4872,55.1283,18.9745,-0.51282,-15.3846,
33.3333,-0.51294,32.3079,-29.1027,-15.7692,-55.1283,-62.4359,2.6923,1.923,14.4872,40.1283,26.1541,0.51294,-0.38464,
20.769,14.4871,31.5386,-14.1027,-6.4102,-40.1283,-47.4359,-12.3077,16.923,-0.51282,25.1283,41.1541,-8.4614,14.6154,
24.3586,15.6409,32.051,-3.8464,-20.2566,-29.4873,-41.2822,-27.3077,23.8459,-15.5128,10.1283,30.5129,-0.76929,2.3074,
16.6667,0.64087,20.2563,-18.8464,-35.2566,-44.4873,-56.2822,-12.3077,8.8459,-0.51282,25.1283,15.5129,4.8718,-12.6926,
12.0513,-14.3591,13.0769,-33.8464,-39.7437,-59.4873,-71.2822,2.6923,-6.1541,14.4872,40.1283,25.8975,19.8718,-12.0513,
4.8716,-5.3848,7.9487,-28.9744,-24.7437,-45.8975,-56.2822,-3.8462,8.8459,8.9741,39.2305,31.0254,4.8718,-8.4617,
10.5129,9.6152,22.9487,-13.9744,-9.7437,-30.8975,-41.2822,-18.8462,23.8459,-6.0259,24.2305,31.5383,-10.1282,6.5383,
17.1794,13.0769,35.6409,-15.6409,2.8206,-33.0769,-39.7437,-33.8462,17.1794,-21.0259,9.2305,42.8206,-2.8206,19.2307,
2.1794,-1.9231,20.6409,-30.6409,-12.1794,-48.0769,-54.7437,-18.8462,2.1794,-6.0259,24.2305,41.5386,8.2051,4.2307,
3.8461,-8.9745,5.6409,-36.6666,-27.1794,-63.0769,-69.7437,-3.8462,-12.8206,8.9741,39.2305,51.0255,14.6154,-2.3077,
12.3077,0.51282,20.6409,-24.1027,-35.3846,-48.7179,-66.1539,-0.51282,-1.5385,21.0255,54.2305,36.0255,6.6666,-12.8204,
26.1541,15.5128,35.6409,-10.2561,-20.3846,-33.7179,-51.1539,-15.5128,13.4615,6.0255,39.2305,21.0255,-1.0256,2.1796,
30.0002,13.0769,38.718,-11.5383,-5.3846,-21.282,-36.1539,-22.3076,28.4615,-8.9745,24.2305,31.5388,4.8718,17.1796,
15.0002,-1.0256,23.718,-25.6411,-20.3846,-36.282,-51.1539,-7.3076,13.4615,6.0255,39.2305,35.8972,1.0256,7.6921,
0.000244,5.1283,14.8719,-36.923,-35.3846,-51.282,-66.1539,7.6924,-1.5385,21.0255,54.2305,36.4103,1.5385,-7.3079,
3.5897,-2.5641,16.923,-45.1283,-27.6923,-53.8463,-71.2821,-6.1539,4.1024,25.1281,57.9486,21.4103,2.5641,-17.4359,
10.5127,3.8462,28.9741,-30.1283,-12.6923,-38.8463,-56.2821,-19.231,19.1024,10.1281,42.9486,23.333,8.4614,-2.4359,
7.436,5.8975,29.4873,-15.1283,-20.7693,-44.8718,-51.5383,-8.4614,4.1024,-4.8719,27.9486,32.564,7.436,12.5641,
22.436,16.1538,43.3335,-12.564,-23.8462,-44.3591,-60.7693,-6.9233,-10.8976,-2.8203,30.5127,27.436,9.4873,2.8203,
23.0769,1.5383,37.9485,-27.564,-23.0769,-58.4617,-67.6924,-12.3079,2.5642,12.1797,41.5383,17.4358,-1.5383,-3.5896,
8.4615,-13.4617,22.9485,-37.1793,-16.6666,-59.2306,-56.1537,-5.3846,12.0514,25.8976,40.2565,20.2565,5.3846,-7.4359,
3.3335,-4.8721,19.7437,-22.1793,-16.6665,-44.2306,-46.9231,-2.3076,2.3076,10.8976,25.2565,35.2565,8.4614,7.5641,
7.1794,0,27.6924,-28.2051,-22.0513,-51.7949,-61.9231,0,-12.3076,6.6667,28.2051,27.6924,8.2051,-5.1282,
22.1794,0.25635,32.5645,-28.9741,-7.0513,-36.7949,-46.9231,-15,2.6924,-8.3333,13.2051,12.6924,14.1025,-17.1792,
30.2566,-1.5383,23.0769,-21.0256,1.0256,-28.7175,-31.9231,-30,11.7952,-23.3333,-1.0256,10.7693,14.3591,-2.1792,
15.2566,-14.6152,8.0769,-35.1282,-13.9744,-43.7175,-46.9231,-15,-3.2048,-8.3333,13.9744,23.8462,7.9487,10.5129,
2.3077,-5.8973,11.0258,-34.6154,-28.9744,-51.5385,-61.9231,0,-18.2048,6.6667,28.9744,30.5131,4.8717,-2.3077,
7.6923,-7.1796,12.8204,-39.4872,-36.923,-60.5128,-76.9231,13.3334,-31.7948,21.6667,43.9744,15.5131,7.1796,-8.2052,
12.5642,-8.4617,19.7439,-26.4104,-21.923,-45.5128,-61.9231,-1.6666,-16.7948,6.6667,28.9744,11.5383,11.5383,6.4104,
6.9229,1.7949,17.1792,-11.4104,-6.923,-30.5128,-46.9231,-16.6666,-1.7948,-8.3333,13.9744,26.5383,9.4868,21.4104,
11.5385,4.359,16.6669,-14.6154,-20.2565,-37.1796,-41.7948,-13.077,-16.7948,-4.359,22.8207,30.5126,23.3334,12.0511,
7.4359,-7.4359,16.1539,-29.6154,-35.1281,-52.1796,-56.7948,1.923,-31.7948,10.641,37.8207,15.5126,24.359,-2.9489,
4.6155,-10.7693,10.7693,-41.5383,-29.2307,-67.1796,-71.7948,16.923,-17.9487,25.641,52.8207,27.6924,29.7437,-4.6155,
2.3079,-2.3079,5.8972,-26.5383,-14.2307,-52.1796,-56.7948,1.923,-2.9487,10.641,37.8207,34.6155,17.6921,10.3845,
1.5386,12.3076,18.9741,-11.5383,-1.5386,-37.1796,-41.7948,-13.077,12.0513,-4.359,22.8207,23.5898,2.6921,17.9487,
10.7693,10.7693,30.7693,-17.436,-6.6667,-39.4873,-36.9231,-23.0769,27.0513,-19.359,7.8207,19.9998,12.3079,3.5896,
1.282,-4.2307,15.7693,-32.436,-21.282,-54.4873,-51.9231,-8.0769,12.0513,-4.359,22.8207,29.4871,27.3079,-1.282,
0.25635,-9.4873,0.76929,-28.9744,-36.282,-67.436,-66.9231,6.9231,-2.9487,10.641,37.8207,44.4871,33.5896,6.9231,
3.0769,5.1282,15.7693,-17.9487,-26.6667,-52.436,-51.9231,0,-4.1025,0,41.0256,29.4871,18.5896,-2.0513,
11.2822,13.8462,30.7693,-9.7432,-11.6667,-37.436,-36.9231,-15,10.8975,-15,26.0256,14.4871,3.5896,12.9487,
9.2307,-1.1538,24.6155,-20.0002,3.3333,-38.4617,-36.4104,-30,20.5129,-30,11.0256,24.1023,5.1282,27.1794,
-5.7693,-11.5383,9.6155,-28.4614,-11.6667,-53.4617,-51.4104,-15,5.5129,-15,26.0256,39.1023,17.1794,16.1538,
0,3.4617,0,-30.2563,-26.6667,-68.4617,-66.4104,0,-9.4871,0,41.0256,49.2307,29.7437,1.1538,
8.4614,-3.8462,12.564,-39.2307,-18.718,-64.3591,-51.4104,-4.8718,3.8462,7.9487,55.1282,34.2307,26.4104,-13.8462,
4.3589,-1.2822,26.4102,-24.2307,-3.718,-49.3591,-36.4104,-19.8718,18.8462,-7.0513,40.1282,19.2307,14.1025,1.1538,
6.1541,5.1282,28.718,-9.2307,-13.8459,-34.3591,-33.3333,-25.1282,5.6414,-22.0513,25.1282,28.2053,17.949,16.1538,
7.9487,-0.25635,21.2822,-22.8206,-28.8459,-49.3591,-48.3333,-10.1282,-9.3586,-7.0513,27.9487,23.3335,15.6411,1.1538,
5.8975,-5.3845,20.2563,-37.8206,-28.9744,-64.3591,-63.3333,4.8718,-24.3586,7.9487,42.9487,15.1282,14.6155,-13.0769,
3.8461,-10.0001,24.8717,-31.5385,-13.9744,-52.5641,-52.5641,1.2821,-9.3586,22.9487,49.9999,20.2565,21.2821,-1.2821,
2.0513,1.5386,25.1279,-16.5385,-1.5386,-37.5641,-37.5641,-5.6411,5.6414,7.9487,34.9999,35.2565,17.4355,13.7179,
2.0513,6.6665,20.5127,-12.3079,-16.5386,-42.5642,-47.1794,-2.0513,1.5386,-7.0513,19.9999,32.3076,12.3076,8.7178,
17.0513,13.3333,35.5127,-16.9231,-1.5386,-34.8718,-34.3591,-0.51294,-13.4614,-8.718,27.6921,17.3076,27.3076,-1.0256,
27.1794,-1.6667,27.1794,-29.7434,-6.6667,-49.8718,-45.1282,-8.718,-23.5896,6.282,30.7693,7.1794,20.5129,6.6667,
12.1794,-16.6667,12.1794,-34.3591,-16.4104,-58.9744,-52.8206,-4.1025,-8.5896,19.4871,30.769,21.0256,10.769,9.2307,
-2.8206,-1.6667,12.3076,-23.0771,-16.4102,-43.9744,-41.0254,1.5386,-8.7178,4.4871,16.4102,28.7178,2.0513,10.2563,
6.1538,-9.7437,23.5898,-31.282,-17.4358,-51.7949,-51.282,6.1538,-23.0769,11.282,29.231,13.7178,9.2307,-4.7437,
12.051,-12.5642,22.8206,-31.0256,-2.4358,-42.3079,-36.282,-8.8462,-8.0769,-3.718,14.231,2.3079,18.2053,-2.3079,
9.4873,-3.8462,10,-17.1792,3.8462,-30.5127,-21.282,-23.8462,6.9231,-18.718,-0.76904,17.3079,11.5386,12.6921,
10.5129,-4.8718,13.0769,-20.2563,-11.1538,-45.5127,-36.282,-8.8462,-6.9231,-3.718,14.231,14.6155,16.1538,4.8718,
5.3845,-4.8718,19.7434,-35.2563,-26.1538,-60.5127,-51.282,6.1538,-21.9231,11.282,29.231,4.8718,15.6409,-10.1282,
7.9487,-10.5129,16.6665,-43.8462,-25.3848,-70.5129,-58.718,21.1538,-35.6411,26.282,44.231,17.1794,17.6921,-7.9487,
3.5898,-12.8203,13.8462,-28.8462,-10.3848,-55.5129,-43.718,6.1538,-20.6411,11.282,29.231,21.5386,9.7437,7.0513,
1.0256,2.1797,25.6409,-13.8462,-1.0256,-40.5129,-28.718,-8.8462,-5.6411,-3.718,14.231,31.7952,-1.0256,22.0513,
11.5383,14.6155,33.5896,-4.8718,-13.5898,-35.6411,-28.4614,-3.8462,-20.6411,-4.3589,4.3589,34.1028,12.5642,7.0513,
10.5128,-0.38452,20.2565,-19.8718,-20.7692,-50.6411,-43.4614,11.1538,-35.6411,10.6411,19.3589,27.9489,27.4359,-7.9487,
0.76917,-15.3845,7.4359,-29.4872,-30.0001,-65.6411,-58.4614,26.1538,-30.5128,25.6411,34.3589,29.9999,25.3846,-0.76916,
-0.25635,-0.38452,18.2051,-14.4872,-19.2305,-50.6411,-43.4614,11.1538,-15.5128,10.6411,19.3589,17.6924,10.3846,0.25635,
7.9485,14.6155,33.2051,-0.76929,-4.2305,-35.6411,-28.4614,-3.8462,-0.51282,-4.3589,4.3589,11.0256,-4.6154,3.3333,
9.4873,-0.38452,31.5386,-15.7693,1.7949,-43.3333,-33.0769,-18.8462,3.3335,-19.3589,-10.6411,17.6924,4.8716,3.3335,
-0.25635,-11.0256,16.5386,-30.7693,-12.564,-58.3333,-48.0769,-3.8462,-11.6665,-4.3589,4.3589,32.6924,15.6411,9.4873,
2.3077,-2.3077,2.8204,-30.5128,-27.564,-73.3333,-63.0769,11.1538,-26.6665,10.6411,19.3589,46.4103,18.2052,-3.8461,
12.0513,2.3076,17.8204,-21.282,-20.7693,-58.3333,-48.0769,5.8975,-11.6665,-2.3076,34.1025,31.4103,13.5898,-17.1794,
26.4102,12.564,32.8204,-6.282,-5.7693,-43.3333,-33.0769,-9.1025,3.3335,-17.3076,19.1025,16.4103,0.25635,-2.1794,
28.4617,10.0002,34.6155,-0.25659,0.25659,-37.6924,-22.3079,-21.7947,13.5896,-32.3076,4.1025,23.3333,-0.76929,12.8206,
13.4617,0.76917,19.6155,-15.2566,-14.7434,-52.6924,-37.3079,-6.7947,-1.4104,-17.3076,19.1025,29.9999,-1.2821,-0.76916,
0.76917,-0.76916,15.1283,-30.2566,-29.7434,-67.6924,-52.3079,8.2053,-16.4104,-2.3076,34.1025,22.8204,2.8204,-15.7692,
10.2563,-7.1794,22.564,-34.8718,-14.7434,-58.9744,-52.8206,9.7437,-9.2307,12.6924,44.6152,7.8204,6.1538,-21.5386,
7.9485,-1.282,25.8972,-19.8718,0.25659,-43.9744,-37.8206,-5.2563,5.7693,-2.3076,29.6152,19.7434,-4.3591,-6.5386,
6.6665,8.7178,24.6152,-4.8718,-8.2051,-35.3848,-28.7178,-18.4614,0,-17.3076,14.6152,30.2563,0,8.4614,
16.9231,0.51294,27.1794,-19.8718,-17.9487,-50.3848,-43.7178,-3.4614,-15,-2.3076,16.9231,15.2563,3.0769,-6.5386,
29.7434,-6.1538,34.8716,-31.2822,-11.2822,-65.3848,-53.3335,11.5386,-30,12.6924,31.9231,6.1538,8.7178,-13.8462,
14.7434,-11.2822,20.5127,-22.0513,-6.6667,-53.3335,-40,14.3589,-15,21.0256,37.436,19.4871,1.0256,-1.0256,
2.8206,3.7178,21.282,-7.0513,-4.3591,-38.3335,-25.8972,-0.64111,0,6.0256,22.436,23.3333,-12.0515,13.9744,
17.8206,10.7693,36.282,-0.51294,-2.5642,-42.5642,-33.8462,9.7434,-15,-8.9744,7.436,17.4358,-2.0515,2.5642,
28.4617,3.3333,37.6921,-14.1028,5.8972,-42.3076,-25.8972,-3.3333,-16.1541,-11.5383,16.6667,13.0769,11.0256,-9.4871,
24.1023,1.0256,22.6921,-13.3333,-7.6926,-39.4873,-29.2307,-1.0256,-9.7439,-3.0769,21.0256,19.9998,5.1282,5.5129,
11.7949,2.0513,15.8975,-11.282,-22.0513,-44.1025,-43.0769,4.1025,-18.9744,5.6411,25.1284,11.282,-6.6667,-2.0513,
19.2307,17.0513,30.8975,-0.25659,-11.5383,-30.5129,-32.051,2.3079,-17.6921,-0.25659,19.2307,15.6409,-5.8972,0.25659,
19.7434,2.0513,24.8718,-15.2566,-13.0769,-43.8462,-44.3591,8.9744,-32.0513,14.7434,28.4617,12.0513,-4.8718,-0.25635,
8.2048,-2.5642,19.4871,-13.3333,1.9231,-33.3333,-29.3591,-5.6409,-17.0513,-0.25659,13.4617,19.4871,-2.5642,13.8459,
-4.3589,10.5127,17.6924,1.6667,4.3589,-21.7949,-14.3591,-20.6409,-2.0513,-15.2566,-1.5383,30,-13.0771,20.769,
10.2565,11.2821,25.6412,-3.0768,-10.6411,-35.3846,-27.6923,-5.6409,-17.0513,-7.1796,13.4617,17.4362,1.9229,5.769,
12.5642,-3.7179,23.8459,-18.0768,-21.7949,-50.3846,-42.6923,9.3591,-32.0513,7.8204,28.4617,4.3589,15.1282,-9.231,
6.6666,-11.2821,21.5385,-20.5128,-20.5128,-65.3846,-57.6923,24.3591,-28.7179,22.8204,43.4617,19.3589,16.923,-6.6666,
2.8203,3.7179,29.4873,-5.5128,-5.5128,-50.3846,-42.6923,9.3591,-13.7179,7.8204,28.4617,20.2563,1.923,7.436,
-3.5898,14.3589,33.333,9.4872,3.5898,-35.3846,-27.6923,-5.6409,1.2821,-7.1796,13.4617,9.7437,-13.077,10.2563,
5.3845,-0.25659,29.4871,-5.5128,2.3079,-44.8718,-26.9231,-6.9231,10.5129,-21.2822,7.9485,16.6667,-2.3079,0.25659,
2.8206,-15.2566,14.4871,-20.5128,-8.9744,-58.718,-41.9231,8.0769,-4.4871,-6.2822,22.9485,31.0256,12.6921,-2.8206,
1.7949,-4.3591,12.0513,-15.1282,-21.7949,-65.3848,-56.9231,23.0769,-19.4871,8.7178,37.9485,40.2563,11.0256,-1.7949,
6.4102,10.5127,27.0513,-0.76904,-12.564,-50.3848,-41.9231,8.0769,-4.4871,-6.2822,23.3335,25.2563,0.76904,-8.4614,
13.0769,3.8459,41.282,-1.7947,2.436,-35.3848,-26.9231,-6.9231,10.5129,-21.2822,8.3335,10.2563,-14.231,6.5386,
19.9998,2.051,39.9998,-2.5642,1.5383,-45.6411,-23.5898,-9.2307,10.7693,-29.7437,-6.6665,21.0256,-1.5383,15.3845,
4.9998,2.3076,24.9998,-9.4871,-13.4617,-60.6411,-38.5898,5.7693,-4.2307,-14.7437,8.3335,36.0256,0.25635,0.38452,
-1.5385,1.5385,24.1024,-18.9745,-23.077,-75.6411,-53.5898,20.7693,-19.2307,0.25635,23.3335,40.5128,8.2052,-13.8461,
11.5383,-4.3589,36.6667,-19.2307,-8.077,-60.6411,-38.7178,10.0002,-22.3076,-2.8206,38.3335,25.5128,7.4358,-13.0769,
5.1282,2.5642,33.8464,-4.2307,6.1541,-45.6411,-23.7178,-4.9998,-7.3076,-17.8206,23.3335,10.5128,-7.5642,1.9231,
10.2566,17.5642,39.4871,10.7693,-7.1794,-30.6411,-14.3591,-19.9998,7.1794,-32.8206,8.3335,22.0515,-8.718,16.9231,
6.1541,2.5642,27.6921,-4.2307,-22.1794,-45.6411,-29.3591,-4.9998,-7.8206,-17.8206,23.3335,9.7434,-1.5383,1.9231,
12.3077,-7.6923,24.6154,-19.2307,-21.0258,-60.6411,-44.3591,10.0002,-22.8206,-2.8206,38.3335,12.3077,7.6923,-13.0769,
1.7948,-13.5897,19.7438,-19.2308,-6.0258,-47.9489,-29.3591,16.6666,-11.0258,12.1794,46.923,15.641,-0.25647,0.25647,
-6.6667,1.4103,26.1536,-4.2308,8.2048,-32.9489,-14.3591,1.6666,3.9742,-2.8206,31.923,28.718,-15.2565,15.2565,
4.3589,15.1284,36.6665,10.7692,4.8716,-26.9229,-22.8203,-4.3589,-4.8716,-17.8206,16.923,32.564,-5.8975,15.6411,
14.1025,0.12842,24.8721,-4.2308,-1.2822,-41.9229,-33.0769,1.2822,-19.8716,-2.8206,26.4102,17.564,3.3335,0.64111,
11.5383,-14.8716,9.8721,-19.2308,-16.2822,-56.9229,-46.4102,11.5383,-34.8716,12.1794,41.4102,8.4614,3.8462,-3.8462,
0.51282,-7.6923,12.3077,-11.2821,-15.3846,-51.795,-41.0258,16.923,-19.8716,18.4615,35.8973,23.4614,-0.51282,10.7692,
-1.282,7.3077,27.3077,3.7179,-4.3591,-36.795,-26.0258,1.923,-4.8716,3.4615,20.8973,23.8464,-15.5128,12.0515,
11.0256,5.3845,35.6409,-0.25659,-1.282,-30,-19.7437,6.4104,-19.8716,-11.5385,5.8973,19.7434,-13.0769,10.0002,
6.9229,-3.8462,23.3335,-14.6152,9.4873,-37.1797,-14.1025,0.25635,-13.0771,-26.5385,14.6152,28.4614,-0.25635,19.2305,
-2.3076,3.3335,12.564,-0.25635,-0.76953,-34.1025,-13.0771,0.25635,-7.436,-28.4614,17.6924,36.1538,3.8462,19.7437,
2.5642,2.0513,22.0513,-1.0256,-15.7695,-42.5642,-28.0771,1.0256,-22.436,-13.4614,20.5127,21.1538,5.1282,4.7437,
9.4871,5.3845,33.0769,-5.8977,-14.1028,-46.4104,-33.0769,2.8206,-34.6155,-12.5642,13.0769,6.1538,2.3079,1.282,
4.3589,-2.3079,20.769,-11.0256,-10,-55.6411,-36.1538,14.6152,-34.6155,0.76929,26.9229,8.4614,-0.76929,0.76929,
-3.0769,4.6155,22.051,3.9744,3.5896,-40.6411,-23.5901,-0.38476,-19.6155,-14.2307,11.9229,17.9485,-9.7439,10.2561,
-5.1282,19.6155,32.3074,18.9744,7.6921,-30.2566,-8.718,-15.3848,-4.6155,-29.2307,-3.0771,25.6409,-21.0256,25.1282,
0.76929,8.9744,27.9485,3.9744,-0.76929,-45.2566,-23.718,-0.38476,-19.6155,-15.6411,11.9229,16.6665,-6.0256,10.1282,
3.3334,-6.0256,20.2567,-11.0256,-3.3334,-58.7179,-38.718,14.6152,-34.6155,-0.64111,26.9229,28.9745,8.9744,-4.8718,
-1.7948,-1.2821,15.641,-13.077,-10.5128,-67.9486,-50.5128,29.6152,-37.1796,14.3589,41.9229,40.7692,13.5897,1.2821,
3.3333,13.7179,30.641,1.923,4.3591,-52.9486,-35.5128,14.6152,-22.1796,-0.64111,26.9229,25.7692,-1.4103,2.8206,
6.1536,13.8459,43.0769,4.1023,15.3845,-37.9486,-20.5128,-0.38476,-7.1796,-15.6411,11.9229,10.7692,-16.4103,7.6921,
6.6667,3.0769,31.7947,-10.7693,11.7947,-38.9744,-25.6409,1.5383,-7.1794,-30.6411,-3.0771,21.5383,-1.5383,12.8206,
-5.8975,-5.3848,16.7947,-16.1538,-2.8206,-53.9744,-40.6409,16.5383,-22.1794,-15.6411,11.9229,36.5383,3.3333,6.9231,
-1.5385,1.5385,15.8976,-12.8204,-8.7179,-64.1024,-53.8461,31.5383,-37.1794,-0.64111,26.9229,33.8461,9.2308,-8.0769,
13.4615,8.2051,30.8976,-11.7949,6.2821,-49.1024,-38.8461,16.5383,-22.1794,-15.6411,14.8721,18.8461,10.7695,-10.2563,
25.1284,9.231,36.4102,-1.5386,21.2821,-34.1024,-23.8461,1.5383,-7.1794,-30.6411,-0.12793,3.8461,-3.5898,4.7437,
19.4871,7.6921,26.1536,3.0769,7.1794,-34.3591,-17.4358,-3.0769,-11.7947,-44.1025,-15.1279,13.3333,-5.6409,19.7437,
4.4871,6.1541,18.9744,-10.2563,-7.8206,-49.3591,-32.4358,11.9231,-26.7947,-29.1025,-0.12793,16.9231,-7.1794,4.7437,
0.51282,-0.51282,15.8976,-25.2563,-14.359,-64.3591,-47.4358,26.9231,-41.7947,-14.1025,14.8721,11.2821,4.6154,-10.2563,
0.25635,-15.5128,14.6152,-30,0.64099,-49.4871,-41.7949,12.564,-26.7947,0.89746,29.4873,-0.25635,1.7949,-11.0256,
-5.8972,-0.51282,21.7947,-15,8.4617,-34.4871,-26.7949,-2.436,-11.7947,-14.1025,14.4873,14.7437,-13.2051,3.9744,
1.7949,11.5386,28.9746,0,5.8975,-27.4355,-11.7949,-17.436,-21.2817,-29.1025,-0.51269,22.8208,-1.7949,18.9744,
14.8718,-3.4614,25.1282,-15,2.5642,-42.4355,-26.7949,-2.436,-36.2817,-14.1025,14.4873,7.8208,13.2051,3.9744,
23.8463,-12.0511,17.1796,-30,-3.3334,-57.4355,-41.7949,12.564,-51.2817,0.89746,29.4873,3.3334,16.1539,-3.3334,
8.8463,-13.5897,3.8461,-20.7692,0.25647,-49.4872,-28.4615,14.6156,-45.8973,5.3846,16.6669,5.3846,1.1539,-0.25647,
-5.3848,1.4103,18.8461,-5.7692,15.2565,-34.4872,-13.4615,-0.3844,-30.8973,-9.6154,1.6669,13.0771,-13.8461,14.7435,
-0.25659,13.0769,29.9998,6.4104,13.5896,-23.3333,-18.2053,0.25659,-27.949,-24.6154,-13.3331,6.9231,-7.4358,12.5642,
5.3848,-1.9231,14.9998,-8.5896,4.8716,-38.3333,-30,0.25635,-40.7693,-9.6154,1.6669,2.8203,4.3589,-0.25635,
4.8717,-6.4103,-0.0002445,-19.2308,-9.9999,-49.9999,-32.5641,15.2563,-51.5385,5.3846,16.6669,12.5643,11.5385,5.3846,
-2.3077,3.3334,7.9486,-12.0514,-15.641,-42.3077,-33.077,14.6154,-46.9232,5.8973,5.8973,2.3077,5.8973,-4.359,
5.3845,18.3334,22.9486,1.282,-0.64099,-27.3077,-18.077,-0.38464,-31.9232,-9.1027,-9.1027,2.8206,-2.8206,4.8718,
11.7952,3.3334,18.4617,-5.6409,-0.51294,-40.5127,-21.0256,6.1541,-46.9232,-18.9744,-17.4358,4.6155,1.0256,5.1282,
3.3335,-0.76904,12.564,0.25635,1.7949,-45.8975,-30,-0.25635,-46.4102,-33.9744,-16.1538,15.1284,7.9487,12.0513,
-9.231,14.231,15.8975,9.7437,0,-43.0771,-20.5127,0,-31.4102,-31.7949,-12.8203,29.231,2.564,15.3848,
-3.5897,9.2308,18.9742,-5.2563,-6.6666,-49.2308,-24.6154,9.7435,-34.359,-16.7949,2.1797,14.231,12.3077,0.38477,
2.3079,-0.76929,18.2053,-11.0256,0.25659,-50,-34.1025,14.6155,-33.5898,-1.7949,4.3591,-0.25659,24.3591,-0.76929,
-6.9231,-2.3076,6.9231,-4.3591,-10,-59.2307,-43.8462,18.2051,-34.6155,9.4871,11.0256,14.1025,18.2051,2.3076,
0.51294,12.6924,21.9231,10.6409,-2.0515,-44.2307,-28.8462,3.2051,-19.6155,-5.5129,-3.9744,19.9998,3.5896,11.282,
5.6409,21.0256,36.9231,15.8977,10.7693,-37.4358,-13.8462,-11.7949,-5.1282,-20.5129,-18.9744,5.1282,-11.4104,14.8718,
5.641,6.0256,25.641,0.89771,12.8207,-46.1537,-25.641,3.2051,-20.1282,-5.5129,-11.7948,6.6669,3.5896,0.51282,
0.76929,-8.9744,10.641,-14.1023,-0.76929,-56.1538,-40.2563,18.2051,-35.1282,9.4871,3.2052,21.6669,18.5896,-0.76929,
2.5641,-2.5641,11.7948,-13.3334,-12.8204,-69.7435,-52.3077,33.2051,-50.1282,24.4871,18.2052,26.6666,22.5641,-7.1796,
17.5641,12.4359,26.7948,1.6666,2.1796,-54.7435,-37.3077,18.2051,-35.1282,9.4871,3.2052,11.6666,21.5383,1.0256,
30.5127,11.0259,38.7183,2.8208,17.1796,-39.7435,-22.3077,3.2051,-20.1282,-5.5129,-11.7948,-3.3334,6.5383,16.0256,
15.5127,-0.25635,23.7183,-8.4614,2.1796,-50,-32.0513,5.8975,-26.9231,-20.5129,-26.7948,9.4873,3.3335,14.1025,
0.51269,2.0513,8.7183,-12.3076,-12.8204,-65,-47.0513,20.8975,-41.9231,-5.5129,-11.7948,22.0513,7.1794,-0.89746,
3.5897,-3.5897,6.1539,-24.6154,-21.5385,-75.8973,-55.8973,35.8975,-56.9231,9.4871,3.2052,12.8207,15.3846,-14.3588,
18.5897,-3.333,21.1539,-14.1025,-6.5385,-60.8973,-40.8973,20.8975,-41.9231,-5.5129,3.3335,2.3076,30.3846,-2.3076,
3.8462,-5.3848,20.2563,-0.25635,8.4615,-45.8973,-25.8973,5.8975,-26.9231,-20.5129,-11.6665,0.25635,15.3846,12.6924,
4.1025,6.1538,15.3848,5.6411,-4.1025,-30.8973,-10.8973,-9.1025,-33.333,-35.5129,-26.6665,15.2563,14.8721,18.4619,
10.7694,-0.51282,11.2821,-9.3589,-18.4615,-45.8973,-25.8973,5.8975,-48.333,-20.5129,-11.6665,0.51282,21.0258,3.4619,
25.7694,-4.3591,13.5896,-24.3589,-9.4873,-60.8973,-40.8973,20.8975,-63.333,-5.5129,3.3335,2.8206,36.0258,-2.8206,
10.7694,-18.2052,-0.25647,-22.3077,-3.8461,-56.6666,-33.077,26.41,-48.333,5.3846,18.3335,2.3077,21.0258,0.25647,
-4.2306,-3.2052,14.7435,-7.3077,11.0256,-41.6666,-18.077,11.41,-33.333,-9.6154,3.3335,17.3077,6.0258,15.2565,
-4.3591,11.7948,19.2307,7.6923,7.4358,-26.9231,-15.1282,-3.59,-38.2053,-24.6154,-11.6665,11.5383,4.3591,11.0256,
7.9487,-3.2052,4.2307,-7.3077,0.25635,-41.9231,-30.1282,11.41,-45.8975,-9.6154,3.3335,-0.25635,19.3591,-3.9744,
19.9999,-12.3077,1.5385,-22.3077,-10.7692,-56.9231,-36.4103,26.41,-57.4359,5.3846,18.3335,13.8461,34.3591,-1.5385,
4.9999,-1.5385,7.1796,-11.2819,-15.3846,-48.205,-32.8204,16.923,-57.9486,3.5897,5.1283,1.5385,19.3591,-3.0768,
11.7949,13.4615,22.1796,3.7181,-0.38464,-33.205,-17.8204,1.923,-42.9486,-11.4103,-9.8717,-0.5127,4.3591,8.2051,
18.7178,0.76904,20.769,-6.4102,5.8975,-32.564,-15.6411,2.3076,-30,-26.4103,-24.8717,-0.76904,6.4102,4.8721,
5.8972,-6.9231,5.769,-13.5896,0.25659,-47.564,-30,12.051,-26.9231,-11.4103,-9.8717,14.231,19.2307,13.5896,
-4.8718,3.8459,-3.3333,-5.3845,-14.7434,-54.6155,-32.5642,13.0769,-41.9231,3.5897,5.1283,22.8206,19.2307,3.3333,
9.2307,5.6409,11.6667,-9.231,-15.8975,-46.1541,-26.1541,11.7947,-41.5386,2.0513,4.6152,7.8206,24.6155,-11.6667,
11.7949,5.1279,23.0767,-7.6924,-0.89746,-35.3848,-11.7949,5.1279,-26.5386,-12.9487,-10.3848,-4.1025,24.1025,3.3333,
7.1794,3.0769,15.8972,-4.6155,-3.0769,-44.1028,-21.0259,18.4612,-30.7695,-10.7695,-19.4873,10.8975,29.2307,12.3074,
6.4102,5.8975,16.1538,0.25635,-14.1025,-51.0254,-28.4614,3.4612,-30.5127,-25.7695,-20.2563,8.4614,20.2563,-0.25635,
8.9741,19.231,26.4102,4.3589,-4.3589,-46.4102,-21.7949,-4.8716,-19.7437,-36.6665,-19.231,13.0771,10.5127,10.5127,
0.51282,4.231,14.359,-10.6411,-1.0255,-47.6923,-29.2308,8.7179,-27.6923,-21.6665,-4.231,2.0514,19.4874,-3.5897,
-3.3337,-10.769,2.3074,-17.1794,-1.282,-51.0259,-32.5642,23.7179,-37.1797,-6.6665,10.769,17.0514,32.051,1.282,
-5.3846,-3.3334,3.3334,-8.4615,-15.1283,-63.3334,-46.4103,32.5643,-42.8204,8.3335,25.769,31.5385,26.923,4.359,
6.6667,10.7693,18.3334,1.0256,-1.0256,-48.3334,-31.4103,17.5643,-27.8204,-6.6665,10.769,16.5385,14.3591,2.051,
20.2563,13.5898,33.3334,3.8462,13.9744,-33.3334,-16.4103,2.5643,-14.6152,-21.6665,-4.231,1.5385,7.9487,17.051,
6.4103,-1.4102,18.3334,-11.1538,3.8461,-45.3846,-23.8461,15.6412,-29.6152,-6.6665,-7.9486,12.5641,17.1793,13.59,
-1.5385,-4.6154,3.3334,-14.3588,-11.1539,-52.3075,-36.923,30.6412,-39.4872,8.3335,7.0514,27.5641,28.2054,8.7181,
3.5898,-3.5898,12.8206,-22.5642,-13.8462,-57.9487,-45.1282,45.6411,-54.4872,23.3335,22.0514,13.8462,21.0256,-6.2819,
18.5898,10.2563,27.8206,-7.5642,1.1538,-42.9487,-30.1282,30.6411,-39.4872,8.3335,7.0514,-1.1538,23.0767,3.5898,
16.667,0.25635,18.2051,-0.25635,16.1538,-27.9487,-15.1282,15.6411,-24.4872,-6.6665,-7.9486,-5.3843,8.0767,18.5898,
11.5383,3.3333,13.5896,-3.3333,1.1538,-28.4617,-21.282,8.9744,-39.2307,-21.6665,-22.9486,9.6157,18.718,22.8206,
-3.3334,3.3334,5.8976,-18.3333,-13.8462,-43.4617,-36.282,23.9744,-54.2307,-6.6665,-7.9486,10.5128,23.3336,7.8206,
6.6666,-6.6666,2.5641,-33.3333,-23.0768,-58.4617,-51.282,38.9744,-65.1281,8.3335,7.0514,12.3077,34.8719,-2.5641,
4.3589,-20.2563,1.2822,-28.9744,-8.0768,-43.4617,-36.282,23.9744,-50.1281,-6.6665,0.76904,12.564,19.8719,11.0254,
-7.1797,-5.2563,12.8203,-13.9744,5.1279,-28.4617,-21.282,8.9744,-35.1281,-21.6665,-14.231,22.0513,4.8719,26.0254,
-3.3333,9.7437,15.1282,1.0256,-1.282,-16.6667,-6.282,-6.0256,-34.6155,-36.6665,-29.231,16.6667,8.9744,16.1541,
8.718,-5.2563,6.6667,-13.9744,-7.1794,-31.6667,-21.282,8.9744,-49.6155,-21.6665,-14.231,5.1282,23.9744,1.1541,
10.2565,-20.2563,-3.5897,-28.9744,-22.0511,-46.6667,-36.282,23.9744,-64.6155,-6.6665,0.76904,13.8463,38.9744,3.5897,
3.3333,-5.8975,-3.3333,-14.1025,-7.0511,-40.2563,-22.8206,28.4614,-49.6155,5.3845,15.769,16.6665,28.9741,11.0259,
-8.9746,6.4102,3.8462,0.89746,7.9489,-25.2563,-7.8206,13.4614,-34.6155,-9.6155,0.76904,3.8462,13.9741,15.6406,
3.3333,2.8206,18.8462,-5.8977,19.2307,-18.718,-2.8206,-1.5386,-33.5901,-24.6155,-14.231,12.5637,4.8718,23.8459,
-4.8718,-12.1794,3.8462,-20.8977,4.8718,-33.718,-17.8206,13.4614,-46.4102,-9.6155,0.76904,27.4358,19.8718,20.7693,
-1.0256,1.0256,-11.1538,-15.3845,-6.6667,-41.5383,-22.564,28.4614,-44.1025,5.3845,15.769,42.4358,34.8718,23.0769,
-1.7948,4.359,0.25647,-8.9745,-13.5897,-33.077,-17.1796,27.9486,-37.6923,5.3846,21.7948,27.4358,27.4359,8.0769,
2.3076,8.9741,15.1284,-4.8716,1.4103,-18.077,-2.1796,12.9486,-22.6923,-9.6154,6.7948,12.4358,12.4359,13.5898,
4.8721,0.25635,8.4619,-9.4868,-0.25635,-31.0254,-8.4614,0.25635,-33.5894,-24.6154,-8.2052,11.0259,12.0513,21.7949,
0.51294,6.6667,6.1536,-2.5642,-8.2053,-46.0254,-23.4614,15.2563,-33.8462,-9.6154,-0.51294,26.0259,22.051,18.4617,
-12.3076,12.3076,-1.5386,-10.769,-18.4614,-60.5127,-37.4358,14.8721,-46.1538,5.3846,12.8208,25.1284,10.2563,3.4617,
-1.7949,4.8718,2.8206,-19.7437,-5.3848,-46.4104,-23.3335,15.1282,-35.6411,1.7949,3.8462,10.1284,20.7693,-10.5129,
1.5383,-1.5383,4.6155,-10.2566,6.1541,-37.949,-16.4104,18.9744,-23.0769,-13.2051,-11.1538,7.6921,26.1541,4.4871,
-0.5127,6.6665,2.564,0.5127,-8.8459,-41.5386,-28.2051,33.9744,-38.0769,-17.9487,-20,22.6921,22.0513,9.2305,
5.6411,14.8716,13.3335,0.5127,-9.7437,-27.1797,-21.5386,18.9744,-41.0259,-32.9487,-35,7.6921,12.3076,-0.5127,
18.4612,15.8972,28.3335,-2.5642,5.2563,-27.1799,-8.718,3.9744,-26.6667,-47.9487,-38.4617,-1.0256,12.8201,14.3586,
4.359,0.89722,13.3335,-17.5642,5.8976,-42.1799,-19.7435,18.9744,-27.4359,-62.9487,-23.4617,6.4103,16.1539,5.3846,
3.3333,-1.7952,-1.282,-6.9231,1.282,-34.1028,-19.7437,33.9744,-34.6155,-47.9487,-8.4617,21.4103,27.9485,18.2048,
4.3589,1.282,4.3589,-17.6924,-12.0513,-48.4614,-34.7437,42.3079,-49.6155,-53.5898,6.5383,15.6411,20.2563,3.2048,
19.3589,13.3335,19.3589,-3.0767,2.9487,-33.4614,-19.7437,27.3079,-38.4614,-68.5898,-8.4617,0.64111,21.5386,0.5127,
25.8972,1.282,16.1536,-1.282,17.9487,-18.4614,-4.7437,12.3079,-25.8977,-83.5898,-23.4617,-6.9231,10.5125,15.5127,
19.4871,-1.0256,4.1025,-11.7947,2.9487,-33.4614,-19.4871,27.3079,-40.5127,-96.9231,-17.9487,8.0769,25.5125,25.1282,
11.7949,7.6924,1.0256,-18.9744,-12.0513,-48.4614,-34.4871,42.3079,-55.5127,-81.9231,-2.9487,16.4104,29.7439,10.1282,
16.4103,4.1027,6.6666,-23.5897,-14.8717,-52.3077,-41.5385,57.3079,-70.5127,-66.9231,12.0513,6.1539,19.9999,-4.8718,
21.5383,-1.5383,17.4358,-11.7947,0.1283,-37.3077,-26.5385,42.3079,-55.5127,-81.9231,-2.9487,1.5383,16.4104,10.1282,
6.5383,-3.0769,4.1028,2.5642,1.5383,-22.3077,-11.5385,27.3079,-40.5127,-96.9231,-17.9487,-1.5383,1.5383,24.1028,
4.1028,2.5642,4.6155,1.5383,-13.4617,-29.2307,-20.5129,12.3079,-45.6409,-111.9231,-32.9487,-1.5383,10.7693,9.1028,
17.6924,8.9744,18.2051,-13.4617,-13.0769,-42.8206,-35.5129,27.3079,-56.6667,-96.9231,-17.9487,-0.76929,25.7693,0.76929,
9.9999,-6.0256,4.8717,-28.4617,-21.2821,-57.8206,-43.8461,42.3079,-71.6667,-81.9231,-2.9487,0.25647,33.5897,-0.25647,
4.6157,-8.7178,4.6157,-15.3843,-6.2821,-42.8206,-28.8461,32.3076,-56.6667,-82.564,-0.5127,14.3589,19.4873,10.2563,
-5.8972,6.2822,8.9744,-0.38428,4.3591,-27.8206,-13.8461,17.3076,-41.6667,-97.564,-15.5127,10.0002,4.4873,16.6667,
9.1028,18.9744,19.4871,-1.0256,2.5642,-29.2307,-5.1282,2.3076,-28.718,-112.564,-30.5127,5.1282,-3.0769,5.6409,
14.8716,3.9744,4.4871,-16.0256,-1.0256,-44.2307,-20.1282,17.3076,-43.718,-97.564,-15.5127,8.2051,11.9231,0,
10.2565,-5.1283,-9.2308,-25.1283,-16.0256,-59.2307,-35.1282,32.3076,-58.718,-82.564,-0.5127,13.8461,26.9231,5.1283,
17.949,9.8717,5.7692,-10.1283,-9.2307,-44.2307,-20.1282,46.1541,-43.718,-67.564,14.3591,-1.0256,23.5896,1.0256,
16.9233,22.0513,20.7692,4.8717,5.7693,-29.2307,-5.1282,31.1541,-33.8462,-82.564,-0.64087,-16.0256,8.5896,7.6924,
20.5127,8.7178,20,0,5.6406,-26.667,0,16.1541,-48.8462,-97.564,-15.6409,-8.7183,-6.4104,19.4868,
9.4871,2.8206,5,-11.5383,-9.3594,-41.667,-15,31.1541,-49.4873,-82.564,-2.8206,6.2817,8.5896,14.1023,
6.6666,13.8461,1.5385,-9.7435,-24.1027,-56.667,-30,46.1541,-61.5385,-67.564,12.1794,20.5128,18.4615,-0.89771,
21.6666,22.0513,16.5385,0,-9.1027,-41.667,-15,46.1538,-46.5385,-63.5896,23.0771,5.5128,28.2051,-3.5896,
8.2051,7.0513,11.7949,-7.6924,5.8973,-28.2051,0,31.1538,-32.3076,-78.5896,8.0771,-9.4872,13.2051,5.6411,
12.0515,8.4617,15.1282,2.8206,-5.8972,-38.2051,-8.9744,28.9744,-39.2307,-93.5896,-6.9229,-2.8206,8.9744,16.1541,
11.5383,9.4871,15.6409,-0.76929,-20.8972,-53.2051,-23.9744,33.5896,-54.2307,-92.5642,-20.2566,0.76929,5.8972,2.3074,
20.5132,18.9746,24.6157,-5.6411,-5.8972,-52.3076,-32.8203,37.436,-52.8203,-77.5642,-5.2566,-2.0513,9.7437,2.5645,
19.2307,7.436,21.282,-10,9.1028,-37.3076,-17.8203,44.3589,-38.2051,-62.5642,0.76929,-3.3333,21.282,-0.76929,
4.2307,-2.8206,6.9231,-2.8206,3.3333,-34.6155,-15.6414,35.6409,-38.718,-77.5642,-14.2307,9.4871,12.5642,12.051,
6.9231,5.3845,10.0002,-3.3333,-7.4358,-49.6155,-26.4102,36.6667,-53.718,-81.282,-18.2051,4.8718,11.0256,3.3333,
21.9231,14.1025,25.0002,-2.3076,7.5642,-34.6155,-11.4102,21.6667,-54.6152,-96.282,-29.4873,-10.1282,14.6152,-11.6667,
33.3333,1.0256,22.5642,-5.6409,13.8464,-32.3074,2.5642,7.6926,-47.6921,-111.282,-44.4873,-25.1282,1.5383,-1.0256,
26.1541,-1.0256,14.3589,-3.5898,2.0513,-47.1794,-12.4358,22.6926,-32.6921,-96.282,-29.4873,-10.1282,6.6667,11.7949,
11.1541,0.25635,-0.25635,-10,-12.9487,-54.6155,-26.9231,37.6926,-47.6921,-81.282,-14.4873,4.8718,5.8975,4.3589,
26.1541,11.5385,14.7437,-5.8973,1.2821,-48.9742,-19.2308,52.6926,-62.6921,-66.282,0.5127,-3.8461,20.8975,-1.2821,
32.5637,5.3845,29.4871,-5.3845,16.2821,-33.9742,-4.2308,37.6926,-47.6921,-81.282,-14.4873,-18.8461,19.2307,-11.5388,
24.3589,0.76904,14.4871,5.3848,13.5898,-18.9742,10.7692,22.6926,-35.6411,-96.282,-29.4873,-16.6665,4.2307,3.4612,
27.1794,7.6926,14.3591,5.1282,-1.4102,-33.9742,-4.2308,27.1794,-50.6411,-91.7947,-40.5127,-5.6409,10.7693,11.2825,
33.8461,22.6926,28.7181,0.51282,-13.3331,-48.9742,-19.2308,42.1794,-65.6411,-76.7947,-25.5127,-4.6154,25.7693,-0.51282,
30.5128,14.1027,19.2308,-9.9999,-1.7948,-57.6923,-24.8717,57.1794,-72.5641,-61.7947,-10.5127,-13.5897,29.4872,-9.9999,
18.718,-0.89734,10.0002,-4.8718,13.2052,-42.6923,-9.8717,42.1794,-57.5641,-76.7947,-25.5127,-17.1794,14.4872,2.8206,
10.2563,11.2822,15.3848,10.1282,9.231,-27.6923,5.1283,27.1794,-42.5641,-91.7947,-40.5127,-9.231,-0.51282,17.8206,
20.0002,11.7947,19.4871,-1.0256,1.0256,-42.6923,4.6155,12.1794,-56.4102,-106.7947,-55.5127,-16.9231,7.6921,2.8206,
28.2053,-1.5386,17.4358,-16.0256,1.5386,-57.4358,-10.3845,27.1794,-71.4102,-91.7947,-40.5127,-20,22.6921,-12.1794,
32.5641,3.8461,18.7179,-7.4359,-3.8461,-56.1539,-12.0514,42.1794,-80.2565,-76.7947,-25.5127,-6.923,37.6921,-4.8717,
19.2307,6.4104,12.0515,3.3333,-3.3333,-43.3333,2.9486,28.4617,-65.2565,-61.7947,-21.7947,-21.923,22.6921,-15.6409,
31.0256,21.4104,27.0515,18.3333,11.6667,-28.3333,17.9486,13.4617,-50.2565,-76.7947,-36.7947,-21.282,7.6921,-0.64087,
16.667,6.4104,26.9233,4.3589,16.1538,-43.3333,2.9486,-1.5383,-43.8462,-86.9229,-51.7947,-27.4355,0.76953,0.25635,
5.8976,-8.5896,11.9233,-10.6411,1.2823,-58.3333,-12.0514,13.4617,-58.8462,-71.9229,-36.7947,-12.4355,15.7695,-0.25647,
14.8717,2.5641,-2.5641,-12.3077,-12.8207,-73.3333,-26.1539,28.4617,-73.8462,-56.9229,-21.7947,2.5645,30.7695,-8.7181,
29.8717,17.5641,12.4359,1.5386,-1.5386,-58.3333,-11.1539,43.4617,-64.1028,-41.9229,-6.7947,-12.4355,27.6924,-18.4617,
23.3333,15.1282,27.4358,1.282,13.4614,-43.3333,3.8461,28.4617,-49.1028,-56.9229,-21.7947,-27.4355,12.6924,-3.4617,
15.1282,2.3079,12.4358,-3.8464,1.282,-39.7439,9.4871,13.4617,-60.7693,-71.9229,-36.7947,-37.1794,3.3333,5.8972,
21.7949,15.6411,18.7183,11.1536,-4.8716,-54.7439,-5.5129,28.4617,-68.4614,-56.9229,-21.7947,-22.1794,18.3333,4.3589,
9.7439,8.718,9.7439,-3.8464,-17.4358,-69.7439,-20.5129,43.4617,-83.4614,-41.9229,-6.7947,-17.4358,8.2051,-10.6411,
23.5897,6.6666,21.0258,-6.6666,-2.4358,-55.3846,-7.6923,43.077,-68.4614,-26.9229,6.6666,-30.7694,23.2051,-18.9745,
13.0769,-1.282,11.5388,1.282,12.5642,-40.3846,7.3077,28.077,-53.4614,-41.9229,-8.3334,-33.5896,13.0769,-3.9745,
12.8203,7.1792,12.3076,4.6152,0,-52.3079,0,22.0513,-67.1794,-56.9229,-23.3334,-24.6152,12.8203,-7.1797,
26.1538,12.3081,27.1797,0,0,-49.2305,0,27.6924,-74.8716,-47.6919,-24.6152,-38.4614,18.4619,-22.0513,
37.9485,10.2561,34.8718,-2.5642,13.8459,-50.2566,2.5642,37.4358,-66.1538,-32.6919,-9.6152,-35.8975,26.1536,-9.7439,
30.2563,2.5642,23.5898,-3.0769,22.564,-43.5898,10.7693,47.1797,-52.8206,-17.6919,-4.6155,-22.5642,34.3589,-2.5642,
15.2563,-3.333,8.5898,-0.25635,7.564,-41.2817,8.9746,33.5898,-67.8206,-32.6919,-19.6155,-23.333,19.3589,0.25635,
17.4355,7.6919,23.0767,4.1025,4.1025,-52.3079,-4.1025,41.0254,-78.9746,-25.6411,-16.4104,-26.1541,16.9229,-12.8208,
27.1794,3.0769,24.6155,-3.0769,19.1025,-43.0769,8.718,26.0254,-63.9746,-40.6411,-31.4104,-41.1541,21.5383,-27.8208,
30,-1.2822,14.1025,1.2822,22.8203,-35.1284,23.718,11.0254,-62.8203,-55.6411,-46.4104,-39.7437,23.8462,-12.8208,
21.282,1.282,8.9744,2.3079,7.8203,-50.1284,8.718,26.0254,-72.0513,-40.6411,-31.4104,-24.7437,21.282,-1.282,
15.8972,9.2307,9.2307,-0.51294,-7.1797,-58.9744,-5.6409,41.0254,-78.9744,-25.6411,-16.4104,-24.1028,13.3333,-16.282,
25.6414,0,13.8462,-12.3076,0,-60,-3.0769,49.7439,-93.8459,-10.6411,-1.4104,-35.3845,25.1282,-25.1282,
27.6924,-2.0513,17.436,-4.1025,15,-45,11.9231,34.7439,-78.8459,-25.6411,-16.4104,-33.333,31.7949,-10.1282,
12.6924,0.25635,2.436,9.4873,10,-30,26.9231,19.7439,-63.8459,-40.6411,-31.4104,-34.1025,16.7949,3.8462,
17.436,4.1025,11.7949,7.1797,-4.1025,-45,20.5127,18.4614,-78.8459,-55.6411,-45.6409,-43.5896,14.8721,-11.1538,
24.6156,0.51282,26.1537,-7.8203,-0.51282,-60,5.5127,33.4614,-93.8459,-40.6411,-30.6409,-53.3334,29.8721,-26.1538,
20.5127,-2.0513,14.3589,-16.4102,2.0513,-72.3076,-7.1794,48.4614,-101.5386,-25.6411,-15.6409,-38.3334,44.8721,-21.5386,
8.7178,0.5127,-0.5127,-1.4102,7.1797,-57.3076,7.8206,33.4614,-86.5386,-40.6411,-30.6409,-32.8203,29.8721,-17.436,
18.2051,15.5127,14.4873,13.5898,22.1797,-42.3076,22.8206,18.4614,-71.5386,-55.6411,-45.6409,-30,14.8721,-2.436,
13.3333,3.5896,21.5383,-1.4102,16.9231,-50.2566,16.9231,4.6155,-66.1538,-70.6411,-60.6409,-45,12.8206,-17.436,
10.7695,-8.7178,6.5383,-16.4102,4.6155,-65.2566,1.9231,19.6155,-81.1538,-55.6411,-45.6409,-30,27.8206,-15.3845,
16.923,3.5897,2.5641,-4.1027,-2.5641,-77.9489,-5.641,34.6155,-96.1538,-40.6411,-30.6409,-15,37.9486,-12.8204,
16.4102,5.1284,15.3848,0,0,-66.1538,8.2051,21.5386,-87.6921,-55.6411,-20,-30,22.9486,-27.8204,
31.282,15.3845,30.3848,15,15,-51.1538,23.2051,6.5386,-72.6921,-70.6411,-35,-45,8.2053,-12.8204,
23.0769,0.38452,21.5383,1.0256,19.4871,-57.4363,23.5896,-1.0256,-67.1794,-85.6411,-50,-48.2053,14.8718,2.1796,
8.0769,0,6.6665,-1.0259,4.4871,-72.4363,8.5896,13.9744,-77.436,-70.6411,-35,-33.2053,29.2305,-3.5898,
3.5897,4.6154,7.1793,-3.5897,-10.5129,-87.4363,-6.4104,28.9744,-92.436,-55.6411,-20,-18.2053,29.7435,-18.5898,
12.0513,-4.3589,17.1797,-16.1538,4.4871,-72.4363,4.3589,36.1538,-77.436,-40.6411,-5,-33.2053,28.9741,-33.5898,
14.8721,1.0259,24.1025,-1.1538,19.4871,-57.4363,19.3589,21.1538,-62.436,-55.6411,-20,-48.2053,22.564,-18.5898,
3.0771,0,10.7695,12.3076,4.4871,-47.1792,24.6157,12.3076,-71.7949,-70.6411,-35,-44.1025,12.3076,-3.5898,
18.0771,13.5896,25.3845,19.2307,-4.8718,-57.1797,9.6157,27.3076,-85.8977,-55.6411,-20,-29.1025,25.8972,-7.949,
24.8716,1.7949,26.9229,4.2307,3.8462,-72.1797,-5.3843,42.3076,-88.4614,-40.6411,-5,-39.7437,30,-22.949,
23.8462,-7.4358,24.8716,-8.9744,18.8462,-60.7693,9.6157,50,-73.4614,-32.0513,7.4358,-41.7949,37.6924,-27.4358,
8.8462,-11.7952,11.282,6.0256,21.0256,-49.2307,24.6157,35,-58.4614,-47.0513,-7.5642,-33.3333,22.6924,-12.4358,
7.1794,-7.1794,14.8718,7.1794,10.7693,-64.1028,9.6157,30.2561,-73.4614,-62.0513,-22.5642,-29.2307,15.3845,-11.2825,
22.1794,1.5383,29.8718,-1.5383,25.7693,-49.1028,24.6157,30.7693,-85.6411,-71.7949,-14.3591,-43.5896,30.3845,-24.6155,
37.1794,0.51269,28.2051,-0.5127,31.7949,-48.2051,36.4102,35.3848,-74.3589,-56.7949,-2.0513,-42.0513,42.564,-9.6155,
23.0769,-10.2563,13.2051,-3.0769,16.7949,-63.2051,21.4102,44.1023,-59.3589,-41.7949,-2.0513,-29.7437,28.718,2.0513,
10.769,-4.1025,8.2051,4.1025,7.1792,-55.3848,19.4868,40,-63.5898,-56.7949,-17.0513,-28.7183,13.718,-7.6924,
25.769,-0.25635,23.2051,0.25635,19.231,-56.1538,17.6924,41.2822,-78.5898,-55.1282,-6.9233,-41.7949,23.8462,-17.1797,
34.8721,0,24.6157,0,34.231,-41.1538,32.6924,26.2822,-63.5898,-70.1282,-21.9233,-42.564,38.4619,-8.2051,
19.8721,-5.8975,9.6157,3.8462,28.9746,-38.7178,47.6924,11.2822,-48.5898,-85.1282,-36.9233,-37.1792,26.9233,-1.7949,
18.7183,-3.8462,4.8721,4.8721,13.9746,-53.7178,32.6924,26.2822,-63.5898,-70.1282,-21.9233,-42.3076,31.0259,-16.7949,
22.3079,3.3333,13.5896,-5.3845,-1.0254,-68.7178,17.6924,41.2822,-78.5898,-55.1282,-6.9233,-53.5898,29.9998,-31.7949,
27.4359,-7.9486,7.9486,-16.1539,7.9486,-78.7179,10.5128,54.6154,-93.5898,-40.1282,8.0767,-47.9486,33.0768,-31.5385,
22.0515,-7.6921,10.2566,-1.1539,22.9486,-63.7179,25.5128,39.6154,-78.5898,-55.1282,-6.9233,-32.9486,27.6921,-16.5385,
7.0515,7.3079,11.7947,13.8461,29.2307,-48.7179,40.5128,24.6154,-63.5898,-70.1282,-21.9233,-34.3591,12.6921,-1.5385,
13.5898,4.3589,12.0513,-1.1539,14.2307,-63.7179,25.5128,12.0513,-78.2051,-85.1282,-36.9233,-49.3591,13.5898,-16.5385,
20.7693,-10.6411,8.4617,-16.1539,11.0256,-78.7179,10.5128,27.0513,-93.2051,-70.1282,-21.9233,-50,28.5898,-31.5385,
17.1796,-16.1539,2.3077,-9.4872,6.9232,-82.3077,-2.3077,42.0513,-94.1024,-55.1282,-6.9233,-35,43.5898,-26.923,
11.7949,-2.0513,6.1538,2.0513,6.1538,-67.3077,12.6923,27.0513,-79.1024,-70.1282,-21.9233,-46.1538,28.5898,-35.3843,
26.7949,12.9487,21.1538,17.0513,21.1538,-52.3077,27.6923,12.0513,-64.1024,-85.1282,-36.9233,-47.6924,13.8462,-20.3843,
32.5642,-0.76929,31.0256,2.0513,36.1538,-48.4617,39.7434,23.8459,-70,-97.6924,-40.7693,-38.718,28.8462,-7.949,
17.5642,-12.3076,16.0256,-12.9487,21.1538,-63.4617,24.7434,38.8459,-84.6155,-82.6924,-25.7693,-23.718,33.3333,-11.282,
19.7435,2.3077,1.0256,-6.4103,6.1538,-78.4617,9.7434,53.8459,-85.8973,-67.6924,-10.7693,-11.0255,36.1539,-26.282,
21.282,-4.3591,15.1282,-10.5129,4.3591,-78.718,6.9231,38.8459,-77.1794,-79.2307,4.2307,-26.0255,24.8718,-41.282,
35.8977,4.6155,29.7439,4.4871,19.3591,-63.718,21.9231,23.8459,-62.1794,-94.2307,-10.7693,-41.0255,13.8464,-26.282,
21.0256,-3.5901,14.7439,1.5383,14.3586,-58.9744,23.5896,8.8459,-76.4104,-109.2307,-25.7693,-55.3845,5.1282,-11.282,
17.1794,7.9485,9.4871,3.3333,-0.64136,-73.9744,8.5896,23.8459,-85.3845,-94.2307,-10.7693,-40.3845,20.1282,-16.1538,
23.5897,2.5641,13.8461,-11.6667,-2.5641,-88.9744,-6.4104,38.8459,-97.4359,-79.2307,4.2307,-29.7438,35.1282,-31.1538,
26.41,-12.4359,13.5897,-20.7692,12.4359,-73.9744,8.5896,36.6669,-82.4359,-64.2307,19.2307,-44.7438,29.4872,-37.1796,
19.4873,-2.564,10.7695,-5.7692,27.4359,-58.9744,23.5896,21.6669,-67.4359,-79.2307,4.2307,-54.8716,20,-22.1796,
12.3076,0.5127,-0.5127,3.5898,14.8716,-43.9744,18.9741,13.8462,-70.2563,-94.2307,-10.7693,-45.6411,12.3076,-17.436,
27.3076,4.1025,14.4873,-9.7437,21.5386,-52.3076,11.7949,28.8462,-85.2563,-79.2307,-4.1025,-52.3076,22.5645,-31.7949,
42.3076,-10.2563,11.7949,-24.6155,30.769,-65.6411,10.2563,43.8462,-91.282,-64.2307,10.8975,-64.1025,28.2051,-27.6924,
41.5386,-7.6924,6.1538,-9.6155,45.769,-50.6411,25.2563,53.8462,-76.282,-49.2307,23.0767,-49.1025,38.9741,-12.6924,
26.5386,-2.564,1.5386,5.3845,31.7949,-35.6411,39.4873,38.8462,-63.5898,-64.2307,8.0767,-34.3589,23.9741,-1.5386,
28.9746,2.3076,14.6157,-2.3076,28.9746,-38.2051,24.4873,25.8975,-78.5898,-79.2307,-6.9233,-49.3589,12.5645,-16.5386,
43.9746,2.8206,17.1794,-11.0256,43.9746,-31.5383,36.6667,29.4871,-71.5383,-87.4358,-2.8206,-58.718,27.5645,-31.5386,
47.4358,-2.3079,2.3079,-4.8718,43.3333,-33.0769,37.1794,40.2566,-59.7437,-72.4358,9.4871,-43.718,42.5645,-16.5386,
33.8459,-1.0256,0,0,28.3333,-39.4873,22.1794,46.6667,-64.1025,-57.4358,11.282,-39.4873,31.7947,-11.282,
27.949,6.4104,2.8206,-2.8206,16.6667,-37.6921,16.6667,33.5896,-79.1025,-72.4358,-3.718,-54.4873,16.7947,-26.282,
40.5129,3.0769,7.6926,-8.2048,22.0515,-38.4614,10.2566,45.6414,-76.9229,-57.4358,-3.0769,-52.3074,15.385,-24.6152,
33.5896,-0.76929,5.3845,0.76929,37.0515,-23.4614,25.2566,30.6414,-61.9229,-72.4358,-18.0769,-37.3074,13.5896,-9.6152,
18.5896,2.0515,-9.6155,8.2053,24.6155,-26.6667,40.0002,15.6414,-46.9229,-87.4358,-33.0769,-36.4104,-0.51294,0.51294,
27.9485,8.4617,0.76929,-0.76929,9.6155,-41.6667,25.0002,30.6414,-61.9229,-74.6155,-18.718,-51.0256,14.4871,-14.4871,
36.667,3.8462,11.0259,-15.7693,9.4873,-56.6667,10.0002,45.6414,-76.9229,-59.6155,-3.718,-59.7434,29.4871,-29.4871,
33.5897,0.76917,5.3846,-13.077,14.6154,-65.8973,-0.76916,60.6414,-83.8461,-44.6155,11.282,-44.7434,44.4871,-20.2565,
18.5897,2.564,-2.564,1.923,17.9487,-50.8973,14.2308,45.6414,-68.8461,-59.6155,-3.718,-47.6924,29.4871,-19.4873,
27.6921,17.564,12.436,16.923,32.9487,-35.8973,29.2308,30.6414,-53.8461,-74.6155,-18.718,-36.4104,14.4871,-4.4873,
34.1025,5.8975,22.8208,1.923,35.6411,-46.4102,28.4614,37.6924,-38.8461,-74.1025,-14.6152,-35.1282,29.4871,-15.1279,
28.7178,-9.1025,7.8208,-13.077,21.5386,-61.4102,13.4614,52.6924,-53.8461,-59.1025,0.38477,-29.7437,44.4871,-20,
33.077,-2.3077,-3.3334,-12.5641,17.6923,-70.5128,2.3077,67.6924,-61.7948,-44.1025,15.3848,-14.7437,53.077,-13.0768,
30,5.8975,11.6666,-5.8975,22.8203,-55.5128,17.3077,52.6924,-46.7948,-59.1025,0.38477,-29.7437,38.077,-24.3589,
42.8203,9.4873,26.6666,4.8716,37.8203,-40.5128,32.3077,37.6924,-31.7948,-74.1025,-14.6152,-44.7437,27.436,-9.3589,
43.3333,-2.3079,11.6666,-4.3591,32.5642,-46.4104,29.4871,25.3845,-37.1794,-89.1025,-29.6152,-33.5896,35.1282,2.3079,
28.3333,-1.0256,-3.3334,-10.2563,17.949,-61.4104,14.4871,40.3845,-52.1794,-74.1025,-14.6152,-18.5896,40.5129,-1.0256,
28.4617,-0.76929,0.76929,-18.2051,8.4617,-76.4104,-0.51294,55.3845,-67.1794,-59.1025,0.38477,-12.0513,40.2563,-16.0256,
40.7693,-4.8718,15.7693,-18.718,23.4617,-61.4104,4.8718,41.282,-52.1794,-53.0769,15.3848,-27.0513,37.6926,-28.9744,
28.7183,0,8.7183,-3.718,33.3335,-46.4104,19.8718,26.282,-37.1794,-68.0769,0.38477,-42.0513,22.6926,-13.9744,
22.8203,4.8716,0.25635,7.9487,18.3335,-48.9746,6.9229,11.282,-33.0771,-83.0769,-14.6152,-47.436,23.8462,-0.25635,
37.8203,10.7692,15.2563,2.5641,3.3335,-63.5897,-8.0771,26.282,-48.0771,-68.0769,0.38477,-32.436,38.8462,-11.2819,
41.5386,-4.2308,11.282,-12.4359,5.1282,-78.5897,-19.4871,41.282,-63.0771,-53.0769,15.3848,-25.6411,46.6667,-22.0513,
35.3849,-8.2052,8.2052,-17.9486,20.1282,-63.5897,-4.4871,55.3849,-48.0771,-38.0769,30.3848,-27.1796,46.6666,-19.4872,
20.3849,-2.8203,2.8203,-2.9486,17.1797,-48.5897,10.5129,40.3849,-33.0771,-53.0769,15.3848,-31.5386,31.6666,-4.4872,
20,-2.0513,4.6152,2.0513,10.7695,-54.8716,7.1797,25.3849,-37.9487,-68.0769,0.38477,-34.8716,16.6666,-14.3589,
35,-6.1538,8.7183,-12.9487,18.4619,-62.564,6.1538,33.3335,-52.9487,-53.0769,9.231,-42.0513,31.6666,-29.3589,
45.641,-9.7435,-0.51282,-22.0514,10.2562,-60.0001,6.6669,48.3335,-56.4103,-38.0769,24.231,-34.8717,44.1024,-14.8717,
37.6921,-0.76929,-0.25635,-7.0514,16.6667,-45.0001,16.1541,55.6409,-41.4103,-23.0769,26.9231,-22.3076,33.5896,0.1283,
25.1279,1.5386,-1.5386,4.6152,17.9487,-37.436,19.4868,40.6409,-33.8462,-38.0769,11.9231,-37.3076,18.5896,-10.2563,
40.1279,3.8462,12.564,-3.8462,24.8716,-43.3335,11.5386,36.6665,-48.8462,-53.0769,-3.0769,-34.6155,23.8462,-7.9487,
41.7949,-3.8462,3.3335,-16.6665,32.0513,-39.2305,18.7183,25.8975,-34.1025,-59.7434,1.7949,-24.3589,38.8462,-1.7949,
37.949,1.0256,-5.1282,-1.6665,32.8206,-27.1794,33.7183,27.1794,-24.1023,-49.7434,2.5642,-15.3845,44.1028,-2.5642,
38.9744,-1.0256,1.0256,-3.5898,19.4871,-40,18.7183,35.3845,-39.1023,-35.8975,9.7434,-30.3845,40.5129,-17.5642,
36.4102,4.1025,8.2051,-14.3594,15.3843,-47.1797,11.2817,34.3589,-53.8462,-50.7695,-4.1025,-45.3845,32.3076,-25.1284,
37.1797,-2.3076,2.3076,-18.718,24.3589,-42.3076,15.6411,40.769,-53.0769,-35.7695,3.8462,-44.8718,26.9229,-22.8206,
31.7947,1.0256,3.5896,-3.718,39.3589,-27.3076,30.6411,25.769,-38.0769,-50.7695,-11.1538,-30.2566,15.3845,-8.718,
22.3079,16.0256,2.3079,7.4358,40.7693,-24.3591,34.6155,10.769,-23.0769,-65.7695,-26.1538,-30.0002,0.76929,-0.76929,
37.3079,20.2566,5.3845,-7.5642,33.0769,-30,19.6155,25.769,-38.0769,-50.7695,-11.1538,-44.3589,15.7693,-15.7693,
