"AF3","AF4","F3","F4","F7","F8","FC5","FC6","O1","O2","P7","P8","T7","T8",
-35.1282,-16.1538,-44.8718,1.7949,44.8716,-1.7949,-5.8975,-3.8462,27.436,-10.5127,5.8975,7.9487,12.564,18.2051,
-32.5642,-22.3079,-47.9487,-11.0256,40.2561,-16.7949,-20.8975,-2.8206,20.2561,2.8206,20.2561,5.8972,19.2307,4.3591,
-27.1794,-13.8459,-39.4871,-3.0769,47.1794,-1.7949,-5.8975,-1.5383,31.282,-4.1028,10.2566,9.7434,17.9485,11.282,
-32.0515,-14.6157,-42.3079,-4.3589,42.3076,3.8462,-11.0259,-2.3076,22.3076,-11.0259,3.333,2.3076,7.4355,10.5127,
-27.1794,-13.8462,-40.5127,-5.1279,47.1797,0,-15.8975,0.5127,19.4873,-2.0513,10.769,0,11.7949,11.2822,
-29.4873,-11.0256,-39.7437,-0.25659,49.9998,0.25659,-7.9485,-2.8206,27.9485,-6.4104,0.76929,5.8972,11.5383,20.2566,
-34.6155,-19.7437,-43.8462,-9.4873,36.6667,-14.7434,-21.282,1.7947,19.7434,-1.7947,13.5896,5.3845,13.5896,8.9744,
-30.7693,-14.3589,-34.8718,-2.0513,44.1025,0.25659,-8.7178,-2.0513,25.1284,-11.7949,8.2051,3.0771,12.8203,11.7949,
-28.718,-12.3076,-29.7437,0,44.6152,4.1025,-7.1797,-4.6152,23.0771,-7.6924,0,2.0513,9.231,13.3335,
-23.0769,-13.8462,-26.1541,-1.5386,44.6152,-4.1025,-9.231,-0.5127,23.0767,2.0513,11.7949,0.5127,16.4102,10.769,
-26.4104,-13.0769,-23.8459,2.3079,44.8718,2.8206,-0.25659,-8.9744,20.7693,-12.9487,0.25659,-4.8718,12.0515,17.1794,
-25.3845,-14.1025,-15.6409,-1.282,41.282,-7.9487,-7.4358,1.282,13.0769,2.0513,10.0002,-1.282,15.1282,13.5896,
-27.6924,-14.8718,-8.718,-1.5383,47.1794,-4.1023,-1.5383,1.0256,23.5896,1.5383,8.718,-1.0256,15.3845,13.8464,
-27.9487,-14.6152,-12.564,-0.25635,46.4102,-0.76904,-2.8203,0.25635,25.8975,-1.7949,7.436,0.25635,16.1538,21.2822,
-27.6921,-19.4871,-15.8972,-6.1538,40.5132,-10.769,-13.8459,2.0513,23.0771,7.1797,12.8208,-2.0513,17.9487,14.8721,
-26.1538,-14.8716,-6.1538,-0.51269,48.2051,3.0771,1.1541,-4.1025,32.3076,0.5127,-0.51269,-5.1279,10.769,18.9746,
-26.6667,-16.9231,-0.51294,-6.1541,36.9231,-2.5642,0.51294,-0.51294,19.4871,10.7693,7.6921,-10.2566,7.1794,9.2307,
-31.0256,-18.2053,3.3333,-8.4617,34.1023,-6.4104,-3.3333,-4.8718,18.2048,11.5383,6.9231,-17.1797,6.4104,5.3845,
-30.2563,-19.4871,4.1028,-8.718,36.4104,-9.7434,-1.0256,-9.2307,18.9744,17.949,1.0256,-18.9744,4.1028,11.282,
-26.1538,-21.5386,8.7178,-13.3333,29.231,-13.8462,-8.2051,-4.1025,14.3589,32.949,6.6665,-19.4871,4.1025,6.1538,
-26.9231,-14.1023,18.718,-3.8459,35.1282,0.76929,1.7952,-8.4612,22.8206,20.7693,-5.8972,-21.7947,-0.76929,11.5388,
-23.3333,-16.6667,20.2563,-7.436,34.1025,-6.4102,-6.4102,-3.3335,16.6665,25.8975,3.8462,-21.282,3.3335,10,
-15.3845,-13.8462,25.6409,-11.7949,38.4617,-1.0256,-2.051,-3.5896,14.3591,32.3079,1.0256,-17.9487,3.0769,9.2307,
-15.6409,-7.949,31.5383,-8.9744,41.7947,9.4871,5.3845,-9.4871,12.051,20.2566,-11.0256,-20.7693,-5.3845,11.5383,
-15.8975,-11.2822,28.7178,-11.2822,34.3589,3.0767,-8.2053,-5.6411,8.2051,16.9229,1.5386,-25.1282,-1.5386,7.1792,
-12.3076,-3.5898,27.6924,-5.1279,41.0259,18.0767,3.5898,-8.7178,12.8208,11.2822,-12.3076,-18.9741,-7.1792,20,
-10.5129,-2.3079,27.9485,-11.0256,41.7947,18.718,2.3079,-2.3079,3.3333,26.2822,-11.5383,-19.7434,-11.5383,18.2048,
-9.231,-1.5386,33.8462,-8.7178,43.0767,20.5127,1.5386,-1.5386,11.7949,25.6411,-3.0771,-24.6155,-5.1284,14.8716,
-14.3589,-3.5898,28.7183,-9.7437,43.0771,20.5132,3.5898,-16.5386,9.7437,10.6411,-16.9229,-29.2305,-12.3076,16.4102,
0.64111,-1.282,35.6414,-16.1538,58.0771,22.8206,10.0002,-2.8206,-0.76929,17.6926,-3.8459,-28.9741,-6.4099,11.5388,
-1.0256,-3.5896,37.4358,-17.4358,70.2566,37.8206,17.9485,-7.1794,1.0256,4.1028,-18.8459,-34.3591,-16.4104,11.7947,
-0.25659,-0.76929,39.2307,-9.4871,60.7693,37.1794,8.9744,-7.4358,0.25659,12.5642,-22.3079,-25.8972,-19.2307,23.8459,
2.0513,-2.0513,35.3843,-10.2568,56.4102,27.1792,9.2305,-13.3335,-3.5898,12.8203,-20.5132,-35.8977,-22.0513,18.4614,
0.51294,-0.51294,36.4104,-10.2566,64.1028,28.718,23.5896,-17.9485,2.5642,-1.0256,-28.718,-44.6155,-25.1282,17.4358,
-0.25635,-4.3589,38.2051,-14.1025,54.1025,19.231,11.0259,-4.8716,0.25635,13.9744,-14.6152,-35.1279,-16.6665,14.1025,
-8.4617,-6.4104,34.6155,-11.0256,46.4104,27.4358,10.5129,-11.0256,6.4104,15.1282,-23.3333,-30.0002,-16.1541,17.1794,
-11.2822,-6.6665,32.8203,-11.7949,42.0513,21.5386,6.6665,-10.769,9.231,20.5127,-12.8203,-26.1538,-13.8462,21.5386,
-10.0002,-8.9746,31.0256,-17.1797,38.2048,10.5125,0.76929,-4.3591,9.4871,25.3845,-0.76929,-26.9231,-14.1028,20.7693,
-11.2817,-8.2051,31.2822,-13.8462,37.436,18.4614,8.2051,-9.2305,11.2822,11.7949,-15.7693,-28.7178,-18.4614,32.3076,
-3.8462,-5.8975,35.6411,-13.0769,34.1025,10.5127,-0.25635,-0.76904,13.5898,26.7949,-0.76929,-22.3076,-7.9487,35.6411,
-7.6924,-4.6152,34.3589,-9.7437,33.8462,13.333,4.6152,-10.7695,16.9229,15.3848,-8.2051,-29.231,-16.9233,31.7949,
-6.1536,-4.6155,36.4104,-9.2307,32.8206,16.9231,8.2053,-9.7434,4.6155,15.3845,-10.2566,-32.3076,-17.9485,32.8206,
-1.282,-10,37.6921,-18.2051,31.5383,6.9231,1.282,-4.8718,-6.4104,28.9744,1.7947,-28.4617,-10,27.4358,
-2.0513,-7.1792,38.9746,-13.333,37.436,12.3081,10.7695,-11.2817,2.0513,16.9233,-8.2051,-22.564,-15.8975,33.3335,
-4.8716,-10,36.1538,-17.6921,28.9746,-0.25635,0.25635,-3.333,2.8208,20.2563,1.2822,-26.4102,-17.1794,30,
-9.2307,-12.3079,34.8718,-16.4104,30.7693,2.0515,2.0515,-7.1794,10.2566,18.4617,-2.0515,-33.8462,-16.4104,32.8206,
-10.2561,-14.3586,34.3591,-13.3333,31.282,5.6414,3.0769,-11.282,10.2566,25.6414,-3.0769,-26.1538,-15.3845,38.4617,
-5.3846,-17.1793,36.1537,-20.7692,29.4872,-0.25647,0.25647,-3.8461,13.5897,35.1283,11.5385,-19.2308,-7.9486,35.1283,
-11.282,-17.949,34.8718,-21.0256,35.8972,3.5896,12.3074,-10.7693,18.4617,20.1283,-3.4615,-27.6924,-15.3845,38.9744,
-10.2563,-20.5127,35.8975,-21.0256,27.6924,-5.1279,4.1025,-4.1025,7.1797,27.1797,4.6152,-29.7437,-11.7949,34.3589,
-7.4355,-21.282,38.2051,-21.282,21.2822,-2.3076,2.3076,-6.4102,14.1025,27.436,6.4102,-24.8716,-7.9487,36.667,
-10.7695,-19.4873,33.8457,-21.0259,18.4614,0,0,-9.7437,25.1279,26.1538,8.7178,-13.8462,-13.8462,44.6152,
-6.923,-14.6154,35.1283,-17.1796,21.2821,-2.3077,-4.8717,2.3077,28.9745,41.1538,23.7178,-6.4103,-8.4615,47.4359,
-16.9231,-21.0256,28.2048,-22.0515,19.4871,-0.51294,0.51294,-12.6923,21.5383,26.1538,8.7178,-21.4103,-22.0515,43.0769,
-10.2566,-21.0259,28.718,-24.6155,19.4871,-1.0256,1.0256,-10.2566,18.9744,28.718,9.2307,-22.5642,-19.4873,40.5125,
-9.9998,-21.282,24.8718,-23.8462,17.1794,1.7947,-1.7947,-12.051,24.3591,29.4871,8.4617,-20.7693,-21.7949,39.7434,
-7.9485,-14.6155,26.9231,-16.6667,17.1794,5.8972,-1.282,-7.9485,24.3591,26.4104,1.282,-22.8206,-22.3079,51.5383,
-7.9487,-15.6411,27.9487,-19.2307,13.0767,-0.25635,-11.0256,0.25635,9.3591,34.6152,11.0254,-27.436,-21.282,47.9487,
-14.615,-12.5637,27.4363,-13.0769,16.6667,14.6155,3.3333,-12.051,14.1028,22.3079,-3.3333,-25.8972,-32.051,49.4875,
-12.8208,-16.4102,22.0513,-15.8975,12.8203,5.6411,-2.0513,-9.231,14.8716,26.6665,2.0513,-21.5386,-28.2053,46.6665,
-5.6411,-20.5127,23.5898,-17.4358,16.9233,0,0,-4.1025,14.8721,25.6411,8.2051,-23.5896,-19.4871,43.0771,
-10.769,-23.0771,20.5127,-19.4873,19.4873,5.6411,4.6152,-13.8462,9.231,15.3848,-4.6152,-29.7437,-29.231,43.0767,
-8.2048,-22.0513,17.949,-21.5383,17.4358,3.0769,-3.0769,-9.7434,8.718,29.2307,8.2053,-26.6665,-24.6152,41.0256,
-13.5896,-21.282,12.5642,-18.718,16.1541,9.4871,4.3591,-19.2307,15.1282,14.2307,-4.3591,-26.4104,-24.8718,44.3591,
-17.4358,-22.5642,7.6921,-24.6155,10.2561,3.5896,-0.51294,-13.3333,10.2561,22.051,0.51294,-19.4871,-25.1284,47.1794,
-13.8462,-22.5642,4.1025,-28.718,13.8462,4.1025,-4.1025,-7.6924,8.7178,31.7949,5.1284,-16.4104,-26.1538,48.2051,
-9.7434,-14.3591,7.1794,-17.4358,21.5383,19.1025,8.718,-13.8459,12.3079,17.4358,-7.1794,-19.4871,-28.718,59.4871,
-12.5642,-16.1541,6.9231,-21.7952,13.5896,9.4871,-0.76929,-12.0515,0.76929,14.1023,1.282,-31.0259,-31.0259,50.5125,
-11.0256,-12.051,10.0002,-14.6155,26.4104,19.2307,10.0002,-11.0256,6.4104,9.4871,-6.4104,-31.0256,-34.1023,53.0769,
-1.0256,-7.6926,15.3845,-7.1794,30.7693,23.5896,11.282,-2.5642,1.0256,22.5642,-4.1028,-25.6409,-27.6924,53.3333,
0.25635,-6.9229,18.2051,-10.5127,20.7695,22.3081,3.8462,-2.8203,-4.8716,21.7949,-0.25635,-34.6152,-26.9229,40.7695,
-2.3076,-1.7949,15.6411,-7.9487,28.9741,34.1025,10.5127,-9.4873,1.7949,6.7949,-14.6152,-40.769,-37.1797,45.3848,
2.8206,-5.8972,11.0256,-11.5383,40.7693,26.4104,5.385,-2.8206,-7.4358,14.6155,-4.8718,-43.3333,-37.1792,39.2312,
8.7178,-2.564,9.7437,-7.6924,54.8716,34.8716,17.436,-11.2822,-9.7437,2.564,-13.8462,-45.6411,-44.1025,35.8975,
14.1028,4.3591,8.4617,-7.4358,56.1541,36.6667,14.1028,-13.0769,-18.2053,-4.3591,-21.7947,-45.3845,-49.4873,37.1794,
17.4358,2.5642,10.7693,-13.3333,59.4871,26.1541,9.2307,-8.718,-26.1536,-2.5642,-19.9998,-55.3845,-45.6409,28.718,
20.5129,4.6155,16.4104,-4.6155,74.4871,29.7434,24.2307,-14.3591,-17.949,-6.6667,-25.6409,-60,-44.6155,30.7693,
17.1794,-3.3333,4.8718,-13.0769,68.9744,14.7434,21.282,-16.1536,-29.4871,3.3333,-16.6667,-58.7178,-42.8203,17.6926,
15.8975,0.5127,5.6411,-10.2563,80.5127,21.0259,31.2822,-13.333,-23.5898,-0.51269,-20.5127,-49.2307,-36.4102,21.0259,
14.6155,-4.3591,4.3591,-12.5642,83.3333,15.1282,37.6921,-12.0515,-14.1028,5.3845,-15.6409,-43.8462,-32.0515,27.4358,
17.1794,-13.5896,-3.3333,-18.7178,76.1541,3.8464,29.4875,-9.4871,-6.4099,17.6926,-0.64087,-44.3589,-25.3845,28.4617,
16.9231,-4.1028,-2.5642,-6.6667,81.5383,18.8464,38.9744,-12.8206,2.5642,3.5896,-7.1794,-39.4873,-23.5901,43.0769,
15.8975,0,-1.0259,-7.6924,74.3589,14.3589,32.8203,-3.0771,-4.6152,17.436,0,-30.2563,-13.8462,43.0767,
14.8718,-1.5383,-3.5901,-10.2566,72.3074,20.5129,34.8718,-3.5901,-0.51294,18.9744,0.51294,-32.8206,-23.5898,43.5896,
17.1794,0.25659,-5.8972,-5.8972,73.5896,27.4358,35.1282,-2.8206,-1.282,13.5896,-0.25659,-34.1025,-38.5898,50.0002,
11.7949,-7.1797,-13.3335,-15.8975,62.0513,12.4358,20.1282,-3.5898,-13.8462,16.9229,3.5898,-34.8718,-53.5898,38.9741,
11.2822,2.0513,-8.2051,-3.5894,64.6157,19.4873,34.8721,-7.1792,-5.1279,9.7437,-2.0513,-31.2817,-68.5898,48.2056,
7.9487,-5.8975,-16.6665,-10.5127,54.1025,9.4873,21.7949,-6.4102,-14.1025,6.9229,5.8975,-40.7693,-83.5898,38.7178,
5.3848,-12.0513,-22.8206,-16.6665,54.1025,4.3589,18.2051,-9.4873,-4.3589,4.8716,4.3589,-39.2307,-98.5898,40.2563,
0,-7.6924,-25.1284,-9.7437,52.3076,7.6924,21.5381,-10.7695,2.0513,9.7437,0,-26.667,-113.5898,55.2563,
3.3333,-8.9744,-27.4358,-10.5127,44.3591,3.3333,13.5901,-3.3333,-4.3586,21.7952,12.5642,-27.4358,-112.564,49.4871,
5.8977,-12.051,-31.5383,-13.5896,48.4617,10.0002,25.3845,-13.0769,1.7947,6.9231,-1.7947,-33.5896,-115.1282,49.4871,
9.2305,-11.7949,-33.3335,-17.9487,50.2563,5.6411,22.564,-5.6411,-5.6411,15.3843,6.6665,-26.1541,-115.8975,53.8462,
6.9229,-8.9746,-36.1538,-17.6924,47.436,10.5127,21.7949,-5.8975,-14.6152,8.4614,5.8975,-33.0769,-124.8718,51.5386,
13.0769,1.7952,-33.0769,-6.9231,50.5129,24.8718,33.5896,-7.9485,-7.9485,0.76929,-0.76929,-34.6155,-125.3845,60.2566,
12.5642,-6.4104,-35.1284,-14.6155,42.8206,9.8718,20.2561,-6.4104,-15.1284,9.9998,8.9744,-38.718,-122.3079,45.8972,
13.8462,-3.5898,-30.769,-7.6924,53.8462,15.8975,34.8721,-7.6924,-3.5898,3.5898,4.6152,-33.333,-122.0513,51.2822,
4.6155,-11.7947,-45.769,-14.3591,38.9744,6.6667,21.0256,-9.2307,-4.6155,7.1794,8.718,-29.2307,-127.6924,55.3845,
-3.0769,-14.3591,-58.9744,-15.3848,29.2307,3.0769,8.2053,-7.1794,5.1282,22.1794,18.4617,-23.0769,-125.1282,57.9485,
-6.1538,-13.333,-61.0256,-13.8462,33.8462,6.1538,13.8462,-10.769,11.2822,22.0513,7.1797,-22.0513,-128.2051,61.5386,
1.7949,-15.1284,-61.2822,-18.718,28.9741,-1.7949,7.9487,-3.8462,5.3843,27.4355,18.7178,-18.2053,-123.8462,61.7949,
-2.3076,-13.5898,-67.4358,-15.6411,21.2822,5.8975,6.4102,-16.1538,2.3076,12.4355,3.8462,-25.8975,-136.6665,61.2822,
-1.0256,-8.7175,-66.1536,-10.7688,24.1028,9.2312,7.1799,-9.2307,1.0256,12.8206,6.1541,-23.5896,-138.9741,59.4875,
-2.8206,-14.6155,-69.4871,-18.2048,27.949,4.8718,6.9231,-6.9231,2.8206,16.6667,13.0769,-25.8975,-138.2051,52.0515,
-2.8206,-10.5129,-71.0256,-13.5896,29.4871,14.1028,14.1028,-16.1536,6.9231,5.8977,2.8206,-29.9998,-144.8716,58.718,
5.6411,-6.6665,-69.7437,-12.3076,25.6411,10.2563,5.6411,-7.6924,-5.6411,17.436,11.7949,-30.7693,-144.1025,56.9229,
7.1794,-2.5642,-67.6924,-4.6155,37.4358,22.051,19.4871,-7.1794,-6.1541,7.1794,2.5642,-28.718,-145.6411,61.5383,
3.0769,-3.0769,-74.3591,-6.1541,30.7693,18.4612,13.8459,-7.6926,-11.282,6.1536,6.1536,-26.6667,-143.5898,58.9744,
8.4612,-6.4104,-76.6667,-11.5386,21.7947,8.4612,3.3333,-3.3333,-5.3845,19.7434,21.1536,-25.8975,-132.5642,52.051,
0.25635,-13.5898,-84.3591,-10,20.2563,7.9487,9.4868,-16.1538,-0.25635,5.8975,8.9741,-33.0771,-141.7952,56.1538,
1.7952,-9.4871,-85.3845,-7.4358,22.3079,1.282,5.3845,-3.3333,-1.282,20.8975,23.9741,-23.8459,-134.1025,61.282,
-1.5386,-10.7695,-91.7949,-15.3848,18.9741,1.5386,3.0767,-7.6924,1.5386,23.0767,27.1792,-14.3589,-132.8206,61.0254,
-1.5386,-14.8721,-95.8975,-18.9746,15.3848,7.6924,1.5386,-9.7437,3.5898,27.1792,23.0767,-6.1538,-134.8718,67.1792,
1.5386,-16.9231,-97.4358,-17.4358,16.9233,8.7178,-2.564,-1.5386,2.0513,34.3589,33.3335,-11.7949,-131.7949,63.0771,
-2.3079,-13.5896,-102.3076,-13.0769,23.8459,18.2053,7.4358,-13.5896,2.3079,19.3589,18.718,-22.3079,-140.7693,64.3591,
3.5896,-9.7434,-100,-15.8972,23.0769,18.9744,4.6155,-7.6921,-3.5896,23.0769,28.2053,-16.9231,-135.8975,66.1541,
2.8203,-10,-102.8206,-19.231,20.769,20.2563,3.3335,-6.9233,-2.8203,19.7437,24.3589,-19.231,-134.6155,61.2822,
-0.76929,-14.6155,-111.5383,-16.6667,21.282,17.1794,1.282,-7.9485,0.76929,12.0515,23.3333,-21.282,-131.0256,61.7947,
6.1541,-17.4358,-109.2307,-14.8716,22.5642,12.8206,-1.0256,-1.5383,1.0256,24.6155,38.3333,-14.8716,-119.9998,62.0515,
3.5896,-11.7947,-109.2307,-15.8972,27.1794,23.0769,13.9744,-13.3333,-3.5896,9.7434,23.5896,-15.8972,-130.7693,64.1028,
5.1282,-6.1541,-115.3848,-17.949,31.282,19.4871,9.7434,-5.1282,-12.3079,14.8718,28.2048,-15.3845,-129.231,62.5642,
5.1282,-6.6667,-119.4873,-10.2566,31.7947,21.0256,2.5642,-3.5901,-2.5642,16.4099,29.7434,-19.4871,-124.1028,63.5896,
-1.0256,-10.7693,-122.5642,-7.6926,21.5383,22.5637,1.0256,-11.282,3.5896,11.282,22.051,-20.0002,-129.231,65.1282,
4.3589,-7.9487,-123.3335,-14.1028,16.1538,14.1025,-2.8208,0.25635,-0.25635,26.282,37.051,-11.0259,-126.4104,60.2563,
0.51294,-7.1794,-128.2051,-12.8206,22.051,18.4617,2.5642,-8.718,-0.51294,14.3591,26.6667,-15.3845,-131.282,62.051,
2.8206,-12.5637,-126.4102,-13.5896,23.3337,14.6155,0.76929,-7.9485,-0.76929,25.8977,36.6667,-12.5637,-117.6921,66.4104,
2.3074,-17.1797,-131.5386,-22.3079,19.7434,9.4871,-1.282,-11.0256,1.282,28.9744,37.6921,-10.5129,-114.6155,61.7947,
-1.282,-12.0515,-137.6924,-19.7439,19.2307,14.6155,1.282,-15.6414,1.282,21.282,27.4358,-7.4358,-123.8462,64.8718,
8.9742,-9.9999,-131.0255,-16.6666,23.3331,11.5387,-1.7948,-2.3077,1.7948,36.282,42.4358,-2.3077,-109.4872,66.4103,
-0.76904,-20.2563,-138.718,-22.3076,21.2822,9.4873,0.76904,-17.3077,0.76904,21.282,33.5898,-17.3077,-117.6924,59.231,
0.25659,-12.5642,-139.2307,-15.6409,24.3591,15.1282,-0.25659,-7.949,1.282,19.7434,37.1794,-13.0769,-117.1794,63.8459,
0.51294,-9.7434,-142.5642,-14.3591,24.6155,19.9998,-3.0769,-0.51294,2.051,29.2307,48.718,-9.2307,-112.3079,64.6155,
-3.8462,-13.0767,-146.4102,-15.1279,21.2822,24.8721,3.8462,-11.0254,4.3589,14.6152,35.6411,-13.0767,-114.6152,69.4873,
1.5381,-15.3848,-147.1797,-18.9746,21.0254,14.3589,0,-2.0513,0,23.0767,47.6919,-13.8464,-105.1284,62.564,
-1.7949,-15.6411,-151.5383,-19.7437,27.9487,18.2051,6.9233,-6.9229,1.7949,15.6411,39.7437,-16.6665,-106.4102,55.1284,
-1.5383,-8.718,-149.2307,-15.8972,21.5383,19.4871,4.1028,-3.5896,1.5383,28.2053,43.0769,-6.1541,-105.1282,58.9744,
0.51294,-4.6155,-148.2053,-16.9231,17.9485,19.9998,-0.51294,-0.51294,3.0769,37.9485,52.8206,-5.6411,-97.436,61.5383,
-5.8975,-11.5381,-157.1794,-21.7949,27.436,33.0771,7.436,-10,5.8975,22.9485,37.8206,-13.0767,-103.3333,67.9487,
-1.282,-16.6667,-156.6667,-23.8462,23.3333,18.0771,0.76929,-0.76929,1.7947,29.4871,50.0002,-6.4104,-101.7949,64.3591,
3.5896,-8.2053,-149.2307,-15.3845,23.5896,3.0771,11.282,-6.6667,5.6409,31.7947,51.7947,-3.5896,-101.0256,62.5642,
2.564,-6.6665,-158.9744,-21.5386,27.1792,11.7949,10.769,-13.8462,-2.564,19.4873,44.1025,-13.3335,-102.5642,63.5898,
8.2053,-5.1282,-163.0769,-24.1025,29.7434,26.7949,1.0256,-1.0256,-3.5896,17.4358,47.1794,-16.4104,-99.4873,67.6921,
4.1025,-2.564,-165.6411,-14.3589,24.6152,41.7949,2.564,-4.1025,-3.0771,10.2563,32.1794,-11.7949,-109.7437,75.3848,
1.282,-1.7952,-170.5129,-16.1541,12.5642,41.282,-10.0002,5.3845,-7.949,25.2563,47.1794,-1.282,-103.3335,75.1282,
-5.6409,1.0256,-176.4102,-15.3845,5.1282,56.282,-12.8206,5.1282,-1.0256,24.6155,45.6409,-5.1282,-104.6152,76.4104,
-4.1028,5.1282,-175.3848,-5.6414,1.0256,66.6667,-8.2053,6.6667,-1.0256,15.3845,36.9231,-7.1794,-109.7437,82.5637,
2.0515,0.51294,-174.8718,-7.6921,-0.51294,51.6667,-10.2563,15.8977,-6.6667,30.3845,48.2053,-1.5383,-100,81.0256,
-4.6155,-3.5896,-178.4614,-11.282,5.1282,47.1794,-3.0769,8.718,-0.51294,28.2053,44.1028,0.51294,-96.4102,84.1028,
-3.3334,-4.8719,-177.1796,-20.2565,6.41,41.7948,-7.9489,13.077,-0.76941,34.1024,59.1028,0.76941,-88.4615,75.641,
-1.2822,-3.8462,-178.2053,-21.7949,12.0513,47.9487,-3.3335,8.9741,0.25635,23.8462,52.0513,-0.25635,-88.9744,77.1792,
-5.8977,-4.3591,-186.4104,-19.2307,7.4358,51.0256,-4.8718,4.3586,-2.8206,26.9231,39.2307,2.8206,-94.6155,88.9744,
-8.2053,-10.2566,-192.8206,-26.6667,2.564,42.564,-16.4104,10.769,-2.564,41.5386,49.7437,2.564,-91.2822,80.5127,
-9.4871,-9.4871,-192.564,-25.8972,11.5388,47.949,-4.3586,3.3333,6.9231,26.5386,34.7437,-3.3333,-95.6409,78.2053,
-1.282,-4.3586,-188.9741,-22.3076,11.0256,43.3333,-6.4099,8.4617,-1.282,25.3845,41.282,1.282,-88.4614,81.282,
0.25635,-2.8208,-189.4873,-21.7949,14.6152,48.9741,-3.3335,6.4102,-3.3335,30.5127,36.1538,-0.25635,-87.9487,83.333,
-5.3843,-0.25635,-196.1538,-20.2563,16.1538,56.667,-0.25635,7.436,0.25635,23.8462,26.4102,-4.3589,-92.564,88.4614,
-4.1027,1.5385,-198.9745,-21.0258,5.6412,48.2052,-12.8204,22.436,-1.5385,36.923,41.4102,-3.077,-83.077,83.5895,
-11.5386,-1.2822,-204.3591,-22.8206,1.2822,48.4614,-8.9746,10.5127,6.9229,24.3589,30.5127,-5.3848,-87.9487,83.8462,
-13.0771,-7.949,-210.5129,-27.436,-0.76929,39.7434,-16.1541,9.4871,7.4358,35.1282,31.0256,0.76929,-88.9744,84.3586,
-14.1025,-9.4873,-214.6155,-25.8975,-2.3076,37.6924,-19.7437,8.4614,6.4102,41.7949,33.5898,2.3076,-91.5383,83.3335,
-17.4355,-7.6919,-213.3333,-25.1279,-2.0513,37.9487,-12.8203,2.0513,9.231,33.3335,26.1538,3.0771,-94.8716,85.6411,
-12.3077,-12.8204,-212.3077,-34.359,-3.5897,22.9487,-19.4872,8.7181,12.3075,47.1796,41.1538,3.5897,-84.1027,75.3846,
-11.2822,-12.3076,-217.9487,-28.718,0,30.769,-12.3076,0,21.0254,37.436,33.8462,1.5386,-86.1541,75.3843,
-14.6155,-11.5383,-222.8206,-28.4617,-3.3333,29.9998,-16.6667,3.3333,14.6155,40.7693,33.5896,13.0769,-85.3848,83.8459,
-19.2307,-14.6155,-223.3333,-31.5386,-4.3589,26.4102,-15.1282,4.3589,12.0513,37.1797,35.1284,11.5386,-81.7949,82.3076,
-16.9231,-10.7693,-221.5386,-22.5642,3.5896,38.9744,-1.5383,-0.51294,13.8459,22.5642,26.6667,0.51294,-81.5386,85.1282,
-12.0513,-10,-224.8718,-27.4358,0.25635,28.4614,-14.1025,8.4614,5.8975,37.5642,39.7437,-0.25635,-76.1538,79.7437,
-18.2051,-8.9741,-230,-27.9487,1.2822,30.5127,-13.0767,2.3076,12.0513,27.436,24.7437,-1.2822,-83.3333,80.2563,
-14.3591,-6.6667,-228.718,-20.5129,2.5642,36.4104,-11.7947,5.1282,6.6667,25.1282,23.0769,-2.5642,-79.4871,80.0002,
-3.5896,-2.5642,-223.0769,-16.4102,7.6921,41.0256,-10.2561,10.2566,1.0256,30.2566,32.8206,-1.0256,-64.4871,76.9231,
-11.7949,-0.5127,-229.7437,-14.8716,4.1025,44.1025,-8.7178,3.0771,0,20.5127,17.8206,0,-68.2051,81.5386,
-12.8206,0.5127,-232.8206,-12.8206,-3.5898,35.8975,-21.0256,15.3848,-0.51269,35.5127,20.5127,6.6665,-57.9487,81.5386,
-16.1536,-3.8459,-235.1282,-14.6155,-0.76929,38.718,-16.6667,4.8718,0.76929,23.3333,14.6155,0.76929,-55.6409,77.6926,
-13.8462,-2.0513,-232.8208,-13.8462,2.0513,38.9741,-13.3335,4.6152,-4.103,25.1279,14.8716,2.564,-50.2566,78.9741,
-9.4873,-0.25635,-231.5386,-14.1025,0.25635,37.1797,-17.6924,11.5386,-2.3076,34.1025,19.7437,2.8203,-41.7949,75.1284,
-13.3335,3.0767,-234.3591,-8.7183,6.1538,47.6924,-6.667,0.5127,6.6665,19.1025,4.7437,-0.5127,-43.0771,84.6152,
-12.564,0.25635,-237.6924,-10,4.8716,40.769,-12.564,5.3848,-6.4102,27.9487,9.4873,-0.25635,-35.1282,80.769,
-11.2825,-1.0256,-237.436,-7.6926,6.1536,46.1536,-11.7952,5.1282,-7.6926,22.051,7.6921,1.0256,-26.667,76.9231,
-12.5642,-3.3333,-240.2563,-11.5383,1.282,41.282,-16.6667,3.3333,-1.282,19.2307,2.3079,2.8206,-21.7947,78.718,
-8.9741,-2.3076,-240.2563,-12.564,1.2822,33.0771,-15.1282,8.9746,-0.25635,30,11.5386,0.25635,-11.5381,76.1538,
-9.4873,2.3076,-237.6924,-6.4102,11.5386,41.2822,-0.12817,-0.25635,0.25635,15.1279,-0.76953,-4.8721,-8.4614,78.7178,
-7.4358,-4.3586,-237.6921,-15.6409,6.4104,26.2822,-14.1025,3.3333,-3.3333,26.9231,10.0002,-1.282,1.282,72.0515,
-12.8203,-7.6924,-239.4871,-14.8716,1.0259,29.7437,-15.8975,0.5127,0,28.2051,4.1025,-3.0771,0,70.769,
-14.6155,-0.76929,-239.7437,-5.8972,1.282,43.3333,-7.9485,2.8206,-1.282,25.3845,0.76929,-0.76929,0.76929,76.6667,
-10,-2.3074,-241.282,-15.6409,-0.76929,29.4871,-19.2307,6.9231,-4.3586,29.4871,13.0769,0.76929,11.0256,66.4104,
-8.4614,0.76904,-235.6409,-8.4614,7.9487,36.6665,-7.9487,-1.7949,4.8721,18.2051,-1.9231,-0.76904,10,69.4873,
-7.1794,-0.51294,-236.9231,-9.2307,4.6155,37.4358,-12.3079,2.5642,-4.6155,28.2048,0.51294,-5.1282,10.7693,66.1536,
-4.1025,-2.0513,-239.4871,-13.8462,5.6411,38.9746,-14.8716,3.5898,-4.1025,23.5898,2.0513,-3.5894,15.3848,65.6411,
-7.9485,0.25659,-238.7178,-11.0256,6.4104,39.7434,-11.5383,0.76929,-0.76929,12.5642,-5.8972,-0.25659,17.6921,68.4617,
-11.0259,0.25635,-243.8462,-17.6924,-0.25635,35.1279,-21.7949,3.8462,-10,21.2817,2.8203,-9.4873,25.3848,60.2563,
-3.3333,11.0256,-242.8206,-11.5383,10.5129,50.1279,-8.9744,3.3333,-3.3333,17.1794,-3.3333,-6.4104,27.4358,73.0769,
-2.8203,6.4102,-245.3845,-17.6924,2.8203,35.1284,-21.2822,0.76904,-15.6411,19.7437,-1.7949,-0.76904,25.3848,65.8975,
-2.3076,6.4102,-240.769,-15.6411,4.8721,32.564,-20.769,-1.7949,-7.436,20.7695,1.7949,-5.3843,34.1025,60.7695,
-4.1023,9.2307,-245.6409,-9.7434,9.2307,47.564,-10.7693,-2.5642,2.5642,14.3591,-6.1536,-10.7693,36.4104,72.8206,
-1.7947,3.8464,-248.9744,-16.6667,-0.25659,40.7693,-20.7693,4.3591,-12.4358,20.7693,0.25659,-11.0256,38.2053,65.3845,
4.1025,10.2563,-236.4102,-9.7437,9.231,49.231,-9.231,-4.1025,-7.1797,12.8203,-10.769,-5.1284,36.4102,66.1538,
2.8206,10.0002,-236.6665,-8.9744,5.385,44.8718,-19.2307,-3.3333,-7.9485,20.2566,-7.9485,-2.8206,31.5388,67.4363,
-2.8203,7.436,-242.8206,-10,4.8716,46.9229,-23.8462,2.8203,-14.1025,21.7949,-5.8975,-8.4614,30,67.436,
-1.0256,11.282,-242.0513,-7.6921,19.8716,60.0002,-8.8462,1.0256,-10.2566,9.2307,-14.8718,-7.6921,34.8718,75.3845,
-1.5386,1.5386,-249.7437,-22.6921,9.7437,45.0002,-23.8462,3.5898,-18.9741,15.8975,-6.6665,-11.2822,37.436,63.5898,
0.5127,5.1284,-246.1538,-17.9487,10.2563,53.8462,-16.4102,-0.5127,-14.3589,9.231,-15.8975,-14.3589,34.8716,68.2051,
4.3589,7.9487,-244.8718,-18.2051,19.7437,57.1797,-15.1279,-4.3589,-23.8462,7.9487,-18.7178,-17.6924,33.0771,66.4102,
3.5898,6.1538,-248.718,-26.1538,23.0767,50.769,-22.564,-3.5898,-27.6924,7.6924,-18.9746,-22.564,29.7437,52.3076,
4.6152,11.7949,-244.6152,-17.436,33.8462,58.4614,-7.564,-3.5898,-15.3848,3.5898,-25.6411,-17.9487,30.2563,62.0513,
5.6411,2.564,-248.718,-29.7437,30.769,44.1025,-12.8208,-2.564,-27.6924,13.333,-14.3589,-19.4873,37.9487,57.436,
6.1541,4.6155,-246.1538,-28.2048,34.3591,55.3845,-3.0769,-8.718,-25.6409,3.0769,-22.5642,-22.5642,38.4617,60.5129,
6.1538,7.6924,-242.0513,-23.0771,32.8203,52.3076,-2.564,-6.1538,-21.5386,2.564,-18.9746,-21.5386,41.0254,65.1279,
4.3591,0.25659,-245.3845,-30.5127,33.0769,37.3076,-11.0256,-2.3079,-14.6155,11.5383,-3.9746,-19.2307,52.0515,60.2566,
1.5383,5.1282,-246.6667,-23.0769,36.9231,52.3076,-1.5383,-7.1794,-12.8206,3.0769,-15.8972,-17.4358,48.718,71.7947,
1.7949,7.4355,-243.8462,-23.8462,26.9229,50,-11.5386,-1.7949,-27.8206,12.564,-18.7183,-18.7183,44.8716,67.9487,
2.5642,8.718,-236.9231,-22.5642,32.8206,46.6667,-3.5901,-2.5642,-21.0256,13.3333,-15.3845,-15.3845,50.2561,67.1794,
0.51294,3.0769,-239.4873,-22.0515,27.6921,39.9998,-3.5896,-0.51294,-6.6667,16.4104,-8.2053,-8.2053,55.8972,73.3333,
-1.7947,-2.3079,-242.8206,-25.8975,20.2566,34.6155,-13.5898,5.3845,-3.8459,27.4358,1.7947,-4.3591,60.2566,74.1028,
-6.4104,3.3333,-240.2566,-22.8206,28.9744,43.8459,-2.3079,-1.282,1.282,15.6409,-10.5129,-5.3845,58.2048,77.1794,
-0.5127,0.5127,-238.9744,-29.2307,26.1538,32.3076,-6.1538,3.0771,-10.2563,20.5127,-0.5127,-11.2817,64.1025,62.564,
4.8716,-3.3335,-235.1282,-31.5386,28.9741,36.6665,3.3335,-3.3335,-11.5386,12.564,-7.9487,-17.1797,63.3335,59.7437,
-0.76929,0.76929,-235.1282,-28.9744,28.4617,42.3079,6.4104,-7.949,-7.4358,8.4617,-18.718,-10.0002,57.6921,73.0769,
-1.282,4.3591,-234.6155,-25.3845,20.7693,34.6155,-5.3845,1.282,-6.4104,23.4617,-3.718,-2.3079,65.3845,75.6409,
-0.76953,6.9229,-232.0515,-17.1797,22.3076,43.8462,-0.25635,-5.8975,0.25635,17.6924,-11.0259,-2.8208,64.8716,82.8203,
-4.8721,0.25635,-235.1284,-26.9233,15.1279,31.5386,-12.5645,-5.8975,2.8203,24.8716,-4.3589,-0.25635,60.2563,78.7178,
-5.1282,-1.5383,-235.3848,-28.2053,17.4358,29.7434,-8.2053,-9.2307,10.2561,22.051,-3.5896,1.5383,58.9744,75.3845,
-4.3591,0.25659,-231.5383,-25.3845,19.7434,34.1028,-0.76929,-17.1794,1.282,16.1541,-12.051,-0.25659,59.7434,78.718,
-2.3079,3.3333,-224.3589,-26.9231,15.1282,24.3591,-8.9744,-11.5383,-5.3845,31.0256,2.3079,-2.8206,64.8718,73.0769,
-6.4104,7.9485,-225.8975,-22.3079,15.1282,26.9231,-0.76929,-23.8459,0.76929,18.718,-12.6921,-7.949,57.1794,73.0769,
0.76929,5.8977,-227.4358,-21.7947,14.1028,21.7952,-5.8972,-18.2048,-5.3845,26.4104,-9.9998,-0.76929,65.3845,74.1028,
-1.5383,4.1028,-224.1025,-21.0256,15.8972,23.0769,-12.3079,-12.3079,0.51294,24.6155,-3.5896,-0.51294,70.2566,72.8206,
-10.2566,7.1794,-223.5898,-21.0256,14.8718,27.6921,-9.2307,-21.5383,5.6409,13.3333,-16.9231,-5.6409,57.9485,73.8459,
0.25635,4.8721,-220.2563,-27.4358,12.0513,19.231,-11.5386,-17.6924,-0.25635,28.3333,-2.3076,-3.3335,63.3335,70,
-0.51294,0.51294,-216.9231,-23.5896,14.3591,23.5896,-3.0769,-22.051,5.6414,16.9231,-9.7434,-5.1282,61.0256,73.3333,
-1.2822,1.2822,-211.0256,-19.231,12.564,19.7437,-6.4102,-12.564,3.8462,24.8716,-5.3848,-1.7949,63.8462,72.564,
0,0,-208.718,-24.1028,11.7949,14.3589,-9.7437,-12.8208,2.0513,28.7178,-5.6411,-3.0771,67.6924,63.5894,
-4.1028,-1.0256,-210.2563,-24.1028,15.3845,24.1028,1.0256,-21.5383,7.6921,14.8718,-15.3845,-1.5383,63.0769,70.2566,
-2.8206,-3.3333,-211.0256,-28.4614,14.6155,19.7434,-5.3845,-13.5898,0.25659,29.4871,-0.38452,3.3333,69.4871,71.5383,
-2.5642,-0.51294,-206.1538,-25.6409,21.5383,27.1794,-1.0256,-22.051,0.51294,21.5383,-12.8206,1.0256,70.7693,75.8977,
-1.5386,0,-202.564,-23.5898,20.5127,27.6924,-3.5898,-18.9741,0,21.5386,-8.2051,0.5127,71.7949,77.9487,
-4.6155,-6.6667,-206.1538,-30.7693,13.8459,18.9744,-8.2053,-12.3079,1.5383,26.6667,2.5642,-1.5383,70.2566,65.6409,
-11.7947,-7.1794,-209.7434,-29.2307,13.8464,15.8977,-2.5642,-21.5383,5.1282,18.4617,-12.4358,2.5642,64.6155,67.1794,
-6.4104,-0.76929,-205.3848,-24.8718,12.5642,9.9998,-10.0002,-15.1284,0.76929,33.0769,-6.9231,9.9998,73.5896,71.0256,
-8.9741,0.25635,-203.3333,-22.8206,14.6152,21.2822,-1.7949,-22.3076,-0.25635,19.7437,-12.564,2.3076,70,72.564,
-7.9485,-0.76929,-199.7434,-22.8203,16.6667,25.385,0.76929,-14.615,-0.76929,24.3591,-4.8718,8.4617,75.6414,77.6926,
-9.7437,-8.718,-202.0513,-31.2822,10.7693,11.282,-10.7693,-9.7437,-1.0256,33.3333,1.0256,8.718,80.5129,70.2561,
-9.2307,-6.6667,-201.5386,-26.1541,15.8972,24.6155,-2.5642,-22.5642,2.5642,19.4871,-13.9744,5.1282,74.3591,72.8206,
-0.25635,-0.25635,-193.0767,-22.8203,19.231,34.1025,-8.4614,-14.6152,-4.3589,28.4619,0.25635,14.1025,83.8462,77.1797,
-6.9231,-0.76929,-188.4617,-23.8464,14.6155,21.7947,-5.3845,-21.282,0.76929,18.2048,-7.949,10.5125,80.2561,72.5642,
-12.3079,-4.6155,-190.2563,-25.6409,11.7947,6.7947,-2.5642,-24.6155,11.282,21.0256,-14.3591,4.6155,74.3591,67.1794,
-11.7947,-10.7693,-197.9487,-31.7947,10.7693,15.3845,-14.3589,-19.4871,6.1541,27.1794,-4.6155,4.6155,72.8206,67.1794,
-13.8459,-3.5896,-192.3076,-24.6155,15.3845,30.3845,-3.5896,-23.0769,3.5896,12.1794,-19.6155,6.1541,67.6921,82.1794,
-7.6921,1.0256,-179.4871,-23.0769,9.2307,29.7434,-3.5896,-14.3591,-1.0256,20.5129,-14.3591,5.1282,75.8972,78.9744,
-5.6414,1.0256,-179.4873,-21.5388,10.7688,18.9744,-1.5388,-18.9744,-1.0256,24.1023,-20.0002,3.0769,76.4099,72.3074,
-6.6667,2.5642,-182.5642,-18.4617,14.8718,32.3074,-2.5642,-20.0002,-3.0769,16.4099,-26.6667,9.2307,71.7947,80.5129,
-3.8462,2.3076,-176.6665,-21.7947,12.0513,26.4106,-10.5127,-12.0513,-2.3076,21.7949,-11.6667,14.1025,79.7437,73.5898,
-10.769,3.5898,-176.4102,-19.4873,10.2563,28.7178,-4.1025,-25.1279,-3.5898,6.7949,-26.6667,4.6152,68.7178,71.2822,
-2.0513,7.1797,-171.282,-18.9741,16.4106,27.1797,-2.0513,-16.9229,-13.8462,15.8975,-30.769,2.0513,67.1797,76.9233,
1.0256,1.0256,-171.282,-26.6667,24.6155,24.1023,-1.0256,-17.4358,-13.8464,12.8206,-32.3079,-5.1282,67.6921,73.8459,
-0.76929,3.8459,-171.0256,-22.3079,22.8206,32.051,-3.3333,-19.7434,-8.9744,4.8718,-35.1282,0.76929,71.5383,77.6921,
-3.3333,3.3333,-168.4614,-24.8718,9.4871,24.8718,-18.3333,-16.6667,-17.1794,13.5896,-21.7949,4.3591,75.6409,72.5642,
-4.3591,2.8206,-160.7693,-22.3079,20.2561,33.5896,-3.3333,-21.282,-5.3845,13.5896,-28.4617,6.9231,76.6667,84.3591,
-1.7949,-0.25635,-159.2307,-23.3335,22.3076,29.4873,0.25635,-13.0771,-0.25635,28.5896,-19.231,15.6411,84.8716,87.436,
-2.3076,1.2822,-160.2563,-23.3335,18.7178,27.9487,-4.8721,-15.1284,-1.2822,25.3848,-23.3335,10.5127,83.8462,78.2051,
-1.2822,3.8462,-157.1794,-20.769,22.8203,29.4873,-0.76904,-24.3589,-4.3589,10.3848,-38.3335,0.76904,78.7178,80.769,
5.1284,-0.5127,-154.8718,-28.718,18.9741,19.4873,-6.6665,-16.9231,-8.7178,25.3848,-28.2051,0.5127,87.6924,76.9229,
-1.282,1.282,-157.6921,-25.3845,21.282,31.5388,1.7952,-23.8459,-1.282,14.1028,-37.1794,-1.282,81.7952,77.6926,
-5.6409,4.6155,-156.9231,-22.5642,17.9485,30.2561,-5.6409,-16.9231,-2.5642,14.8718,-30.2566,2.5642,80.5129,82.5642,
-4.1025,3.0771,-153.3333,-25.1282,9.7437,26.1538,-11.2822,-12.3076,-3.0771,20.5127,-24.6155,3.5898,81.0254,79.4873,
-5.8975,1.7949,-155.1284,-24.8721,7.9487,29.4868,-1.7949,-26.9233,-2.8208,8.9741,-37.6924,1.7949,75.1279,77.6924,
-1.0256,1.0256,-153.8462,-26.6667,13.3333,21.5383,-6.1541,-12.3079,-1.0256,23.9741,-22.6924,8.718,90.1279,78.9744,
-9.2305,0,-155.8972,-24.1025,13.3335,25.6411,-9.7437,-12.3076,0,22.5645,-33.8459,3.5898,86.1538,85.1284,
-7.949,8.4617,-149.4873,-18.718,9.9998,34.1028,-15.6409,-10.5129,-7.4358,20.7693,-33.5898,7.4358,83.8459,90.5129,
-4.3589,5.3848,-146.4104,-24.3591,7.436,28.9741,-17.6924,-13.0771,-8.4614,20.2563,-23.3335,4.3589,83.8462,80.2563,
-7.6924,1.0259,-146.6667,-23.5898,9.7437,24.1025,-4.6152,-20.5127,-0.5127,11.2822,-35.3848,0.5127,79.4873,80.5127,
-3.8462,1.7949,-145.8975,-23.8462,9.4868,16.6665,-11.0259,-7.949,-1.7949,26.2822,-20.3848,6.4102,93.5898,80.769,
-10,-1.7949,-151.0259,-27.436,11.0254,24.8716,-11.0259,-16.667,1.7949,15.6411,-23.3335,4.8716,92.0513,83.8462,
-8.9744,-0.76929,-149.4871,-26.4099,8.9744,26.9231,-11.0256,-17.1794,0.76929,19.2307,-26.4099,10.0002,86.9231,93.5901,
-3.0769,3.0769,-146.6667,-24.6155,3.0769,21.5383,-16.9231,-11.282,-5.1282,26.1541,-23.5898,7.1794,88.2053,90.7693,
-5.1282,5.6409,-146.1538,-17.4358,5.1282,32.3079,-9.7434,-17.9485,-1.0256,11.1541,-37.4358,1.0256,81.0256,95.3845,
-2.0513,2.0513,-145.1282,-22.0513,2.564,25.1279,-15.8975,-11.7949,-7.6924,12.3076,-25.1284,2.564,79.4873,92.3076,
0.51294,6.6667,-139.4873,-21.5383,11.282,32.8206,-6.6667,-18.9744,-9.2307,10.7693,-34.8718,-0.51294,76.9231,89.7434,
2.3076,12.564,-134.1025,-16.1538,14.1025,40.7695,-2.3076,-19.2305,-13.5898,11.5386,-41.7949,-3.333,77.6924,94.6157,
7.4358,4.3591,-134.6152,-21.7949,6.4104,28.4617,-12.051,-9.9998,-15.6409,17.6921,-27.9487,-4.3591,83.3333,93.0769,
6.1541,3.0769,-136.4102,-21.5383,10.7693,32.8206,-3.5896,-18.9744,-5.1282,5.6409,-34.3591,-3.0769,82.5642,98.4617,
1.2822,2.3076,-141.282,-25.3848,3.8462,24.8716,-13.5898,-17.1797,-11.5386,16.1538,-28.9744,-1.2822,81.2822,93.0767,
0.51294,3.5901,-138.9744,-20.5129,4.6155,28.718,-9.7434,-15.8972,-9.7434,12.8206,-35.8972,-0.51294,78.4617,95.3845,
3.8459,-0.76929,-139.231,-23.3333,7.9485,28.9744,-5.8977,-21.282,-13.5901,2.8206,-41.7952,0.76929,78.718,99.7434,
7.4358,-3.3333,-138.2053,-32.5642,10.5129,24.3591,-13.0769,-13.5896,-19.7437,17.8206,-26.7952,3.3333,88.9744,97.1794,
-0.76929,0.76929,-138.2051,-25.8977,9.9998,32.5642,-6.9231,-17.1794,-9.4871,11.5383,-31.5383,2.3079,81.7947,104.8718,
1.5386,-1.5386,-136.4104,-24.6152,3.0767,18.4614,-12.3076,-15.8975,-10.2563,17.9487,-26.1538,3.0767,83.5898,102.564,
7.1794,1.0256,-128.718,-24.6155,10.2561,17.4358,-2.0515,-20.0002,-9.2307,13.3333,-25.6409,-1.0256,86.6667,99.9998,
0.5127,0.5127,-132.3079,-29.7437,9.7437,20,-0.51269,-24.6152,-11.2822,0.5127,-34.3589,-8.7183,80.5127,100.5127,
8.4617,-0.25659,-128.9744,-28.4614,10.5129,16.6667,-7.9485,-11.0256,-6.9231,15.5127,-19.3589,0.25659,94.1028,100.7693,
3.5898,-0.51269,-130.2563,-23.0767,12.3076,22.564,-2.0513,-24.1025,-9.7437,0.5127,-34.3589,0.5127,85.1284,103.5898,
1.7949,1.7949,-131.0256,-24.3589,4.3589,17.1792,-10,-20.7695,-24.7437,5.3848,-36.6665,-1.7949,79.2305,103.3335,
3.0771,3.0771,-129.2307,-24.1025,2.0513,15.3848,-12.3076,-13.3335,-22.564,9.7437,-28.718,-2.0513,84.1025,102.564,
-2.3076,2.8208,-132.564,-22.3076,2.3076,20.2563,-8.4614,-15.6411,-14.6152,4.8721,-35.1279,7.436,84.3589,111.0259,
1.282,1.282,-130,-25.8975,-1.282,13.5896,-17.1797,-6.4104,-11.5383,19.8721,-20.1279,13.5896,93.5896,111.5383,
-1.0256,-1.0256,-127.1792,-26.1536,1.5388,15.8977,-9.2307,-17.4358,1.0256,15.8977,-22.051,3.0769,89.7439,111.7952,
-0.25635,0.25635,-124.3591,-27.436,0.25635,12.0513,-11.0259,-12.0513,-3.8462,18.2051,-18.2051,4.8716,92.0513,111.0254,
0.25635,3.3335,-121.282,-26.9231,-0.25635,15.1284,-14.1025,-3.8462,-11.5386,17.6924,-13.5898,7.436,99.231,109.4873,
-6.1538,5.1284,-122.564,-20.5127,7.1797,24.1025,-6.6665,-11.2822,-5.1284,8.2051,-24.1025,8.7178,97.436,123.5898,
-4.8716,4.3589,-122.8203,-22.8203,6.4106,14.6157,-11.5381,-5.3843,-4.3589,23.2051,-11.0254,18.7183,101.7949,124.8721,
-5.1282,5.1282,-121.5383,-23.0769,5.6414,18.4617,-5.1282,-15.8972,-7.1794,13.3337,-23.0769,13.3337,95.385,117.4363,
-4.6155,5.6409,-118.9744,-23.0769,6.6667,18.4617,-7.1794,-16.4104,-14.3591,4.6155,-22.051,5.1282,97.4358,119.4871,
-3.3335,3.3335,-120.2566,-27.9487,13.0767,15.1279,-7.436,-9.4873,-12.0513,12.564,-13.0771,5.3848,105.3848,121.2817,
-9.231,-2.0513,-126.1541,-31.2822,14.8716,21.0254,2.0513,-16.9233,-10.7695,4.6152,-25.6411,6.6665,97.9487,121.0254,
-2.5642,1.0256,-115.3848,-27.6924,12.8206,22.5637,-3.5901,-1.9233,-12.8208,19.6152,-10.6411,15.8972,110.2561,123.0769,
-7.6924,4.1025,-110.7693,-23.0767,12.3076,27.6924,-4.1025,-5.6411,-10.769,13.8462,-18.9741,13.8462,106.6665,126.1538,
-8.7178,2.0513,-114.3589,-24.1025,13.3335,21.5386,-2.0513,-7.6919,-4.1025,10.7695,-17.9487,18.4619,103.5898,127.1797,
-8.4617,-5.3845,-119.2307,-33.0769,12.5642,12.0515,-8.4617,-4.8718,1.7947,21.282,-2.9487,15.1282,110.0002,120.2566,
-10.5129,-3.3337,-117.1797,-32.0515,18.718,23.3333,-0.76929,-15.6414,0.76929,6.9231,-17.9487,1.7947,102.8206,120.7693,
0.51294,-0.51294,-108.718,-33.3333,19.4871,23.0769,-1.0256,-10.7693,-9.7434,14.8718,-10.2566,0.51294,107.6921,111.282,
1.0256,-4.6155,-110.2566,-32.3079,23.0769,26.1536,1.5383,-16.4104,-11.282,6.6667,-15.8977,-1.0256,107.1794,110.7693,
-0.25659,-1.282,-112.0513,-26.4104,31.0256,33.0769,0.25659,-15.1282,-22.3079,3.8459,-28.9744,1.282,105.3845,123.8459,
5.6411,0,-109.7434,-30.2563,34.3594,31.7949,0,-9.7437,-31.7947,9.231,-22.564,-3.0767,105.1284,114.8721,
13.0767,3.8462,-104.8718,-30.5127,42.8203,44.3589,15,-19.7437,-17.6924,-3.8462,-29.4873,-7.436,102.8203,111.5386,
17.6924,0.25635,-106.4102,-38.718,42.3076,35.6411,3.8462,-17.1797,-24.3589,-0.25635,-23.8462,-11.0254,105.8975,103.8462,
21.2822,6.4102,-99.2307,-32.564,55.1279,40.769,15.6411,-15.6411,-25.3848,-6.4102,-32.564,-12.564,106.9229,106.9229,
21.7949,10,-96.6665,-28.9741,61.7949,44.3594,27.9487,-20.2563,-25.8975,-10,-41.7949,-11.5381,107.9487,111.5386,
22.3079,3.8459,-103.8462,-38.2051,54.6155,34.6155,12.9487,-20.2566,-34.6155,-3.8459,-31.0256,-15.6409,112.0515,98.718,
20.5127,11.7949,-97.9487,-27.1792,62.0513,49.6155,15.8975,-17.9487,-24.6152,-12.8203,-38.9741,-11.7949,109.231,109.7437,
8.7178,5.6411,-98.4614,-32.3076,49.7437,38.9746,6.1538,-10.769,-33.3335,-5.6411,-35.8975,-11.7949,106.1538,110.769,
9.231,2.564,-96.9231,-32.8203,50.2563,32.3076,7.1797,-9.7437,-23.5898,-2.564,-25.6411,-11.7949,114.8716,113.3335,
13.5898,7.436,-97.6921,-25.3848,53.0771,40.2563,17.6924,-14.1025,-14.6152,-7.436,-27.436,-8.4614,119.231,120.2563,
3.5896,0.51294,-105.1282,-35.8975,38.0771,26.6667,2.6924,-13.8464,-27.1794,-0.51294,-26.1541,-11.282,115.8972,109.7434,
3.5896,4.6155,-93.3335,-27.6921,40.5129,39.4871,14.3591,-12.8206,-12.1794,-3.5896,-28.718,-5.1282,119.9998,121.5383,
6.6665,-1.5386,-88.7178,-29.2305,34.8721,24.6152,9.7437,-9.7437,-13.8462,1.5386,-15.8975,-4.1025,125.1284,122.0513,
9.2307,-0.51294,-86.1541,-24.6155,32.3074,18.9744,10.2561,-9.7439,-15.8977,0.51294,-13.3333,-3.0769,125.6409,121.5383,
1.7949,4.8721,-87.4358,-17.6924,27.9487,29.4873,12.5645,-15.6411,-15.1279,-10.5127,-27.4355,-1.7949,119.7437,129.4873,
0.25635,4.3589,-88.9746,-22.8208,21.2817,20.769,-2.3076,-4.3594,-19.7437,3.333,-12.4355,-0.25635,127.9487,127.4355,
1.282,7.4358,-87.436,-15.1282,27.9485,24.8718,9.9998,-7.4363,-16.6667,-6.9231,-18.2053,-1.282,124.8718,132.5637,
1.7949,2.8208,-86.4102,-16.6665,23.3335,18.2051,5.8975,-10.5127,-25.3848,-8.9741,-20.2563,-1.7949,121.7949,131.0259,
3.3335,0.25635,-80.7693,-20.769,23.8462,19.231,-1.7949,-4.8716,-21.2822,1.2822,-5.3848,-0.25635,133.0767,128.4614,
-1.5383,1.5383,-82.5642,-18.9744,24.1028,25.1282,4.1028,-8.2053,-15.3845,-5.1282,-9.7434,1.5383,129.7434,133.8459,
-1.0254,0.5127,-83.5896,-22.0513,16.4102,14.3589,-0.5127,-5.6411,-22.564,5.6411,-0.5127,4.1025,127.6924,130.2563,
-2.564,4.1025,-80.5127,-17.9487,24.1025,20,8.2051,-12.3076,-15.3843,-2.0513,-8.2051,2.0513,127.1797,135.3848,
-5.3843,1.7949,-81.282,-20.769,23.3335,12.5645,-1.7949,-9.4868,-17.6924,0.25635,-0.25635,0.76953,125.8975,133.0771,
-0.25635,-2.3076,-78.2051,-24.3589,22.3076,5.3848,-3.333,-7.4355,-17.6921,6.9233,8.9746,0.25635,126.4106,125.8975,
0.5127,-0.51269,-76.4102,-20.5127,25.6411,15.8975,11.667,-17.9487,-11.7949,-5.6411,-6.0254,0.5127,122.564,137.9487,
-1.282,-4.3591,-80.2563,-27.9487,15.1282,8.9744,0.76929,-10.5129,-19.2307,4.3591,-0.76929,1.282,123.3333,135.1282,
-5.6409,-3.5896,-77.9487,-25.1282,15.8972,14.3591,2.5642,-11.282,-14.8718,0.51294,1.0256,-0.51294,116.9231,133.8459,
-7.1797,-3.0771,-80,-18.4614,12.8203,13.8462,-1.5386,-9.7437,-12.8203,2.564,1.5386,3.0771,113.8462,140.5127,
-7.6921,-7.6921,-85.1282,-21.5383,4.6155,6.1541,-10.7693,-4.6155,-10.7693,10.2566,13.3333,7.1794,117.4358,138.4617,
-11.0254,-4.3589,-79.7434,-17.6924,14.6152,17.1797,1.7949,-10,-5.8975,-1.7949,5.3848,11.0259,114.1025,148.4614,
-10.769,-10.2563,-81.5383,-23.5896,14.8721,5.6411,-10.769,-5.6411,-20.8975,10.2563,12.3076,9.231,116.4102,146.1538,
-9.4873,-8.9746,-84.8718,-19.7437,14.1025,12.564,-6.4102,-7.436,-13.5898,8.4614,13.5898,6.4102,120.2563,144.3589,
-8.718,-4.1028,-80.5129,-16.9231,7.6921,17.9485,-0.51294,-9.2307,-8.718,0.51294,14.8718,6.6667,115.8972,143.0769,
-4.6155,-6.6667,-71.7949,-21.0256,6.6667,6.1541,-7.1794,-3.5896,-19.4871,6.1541,20.0002,3.5896,113.8464,138.9744,
-10.5127,-6.9229,-73.0769,-15.6411,15.6411,13.0771,1.2822,-12.0513,-17.1792,-1.2822,5.0002,3.8462,108.4614,149.4873,
-13.333,-8.2051,-77.9485,-18.4614,6.667,6.1538,-9.7437,-6.1538,-16.9229,10.2563,14.8721,12.3076,114.3589,150.2563,
-10.2563,-5.6411,-73.3333,-13.8462,5.6411,7.1797,-9.231,-6.1538,-7.6924,6.6665,15.8975,12.8203,111.7949,151.2822,
-8.2053,-3.0769,-72.8206,-9.7439,12.8206,10.2561,-1.0256,-12.8206,-9.2307,1.0256,1.5383,8.718,102.5642,152.8206,
-5.3848,-4.3589,-72.5642,-17.6924,14.6152,4.8716,-4.3589,-8.9746,-17.1797,9.4873,13.0767,4.3589,105.3848,141.2822,
-5.6411,-2.0513,-64.6155,-12.8203,20.5127,16.9229,8.2051,-9.231,-5.6411,-3.0771,8.7178,2.0513,104.6152,146.6665,
-7.949,-11.5388,-67.9487,-15.6414,9.9998,1.9229,-1.282,-5.8977,-13.0769,2.8206,12.5642,1.7947,102.8206,144.8718,
-8.4614,-8.4614,-67.9487,-10,10,3.8462,-3.8462,-5.3848,-15.1284,8.9741,12.564,7.9487,101.2817,148.9741,
-9.7437,-2.0513,-65.1279,-5.1279,13.3335,14.8721,-4.1025,-7.6924,-16.4102,2.0513,2.0513,6.1538,91.7949,152.8208,
-1.7949,-5.3843,-61.282,-12.564,14.6157,6.9233,-7.9487,-2.8203,-18.2051,5.8975,15.6411,1.7949,97.1797,146.9233,
-4.6155,-4.6155,-61.5383,-7.6921,20.0002,16.4104,7.0513,-14.3586,-11.7947,-9.1025,5.6414,4.6155,96.9231,156.4104,
-10.5127,-3.8462,-63.3333,-4.3589,9.4873,12.0513,-1.7949,-6.4102,-17.1797,1.7949,11.5386,7.9487,92.0513,155.6411,
-5.1284,-3.5898,-59.4873,-5.1284,8.2051,9.2305,-7.1797,-1.5386,-11.7949,6.1538,13.333,1.5386,89.7437,144.6152,
-1.5388,1.0256,-60.0002,-1.0256,16.4099,16.4099,3.0769,-9.7439,-8.2053,-3.0769,-1.0256,6.1536,89.2307,152.8201,
-7.1797,-4.1025,-65.6411,-8.7178,8.2051,4.1025,-10.2563,-6.6665,-20,10.2563,10.2563,13.3335,89.7437,150.769,
-7.4358,-5.8972,-57.6921,-9.4871,11.0256,12.0515,-1.282,-10.5129,-12.051,1.282,4.3591,9.4871,80.2566,152.5642,
-0.51294,-8.2048,-50.769,-14.3586,14.3591,12.3079,-0.51294,-8.718,-13.8459,0.51294,3.0769,7.1794,77.4358,154.3591,
-2.0513,-9.7437,-54.8721,-20.5132,14.8716,6.6665,-4.6157,-10.7695,-18.4619,2.564,2.0513,5.1279,77.4355,148.2051,
-3.3333,-1.7947,-52.0513,-14.1028,15.1282,13.0769,2.3079,-13.5896,-10.0002,1.7947,-2.8206,9.9998,77.1794,153.0769,
-2.8206,-5.8977,-52.0513,-19.7437,2.8206,4.3586,-12.5642,-3.8464,-14.1028,16.6667,11.5383,11.5383,75.1282,147.4358,
-4.8716,-4.8716,-53.5898,-16.6665,11.5386,18.7178,-0.25635,-5.3848,-11.5386,6.9229,0.25635,11.5386,67.9487,153.0771,
-3.5898,-2.0513,-54.3589,-16.9229,18.9746,16.4102,1.5386,-3.5898,-11.2817,7.1797,-1.5386,14.8721,70.7695,156.9233,
-2.8203,-3.8462,-54.6152,-21.7949,14.1025,2.3076,-5.8975,-2.3076,-6.4102,12.564,2.3076,12.564,68.4614,151.5386,
-4.6155,-1.0256,-49.2307,-14.8718,15.3845,10.2566,6.1536,-10.7693,-6.6667,1.0256,-12.3079,6.1536,53.4614,155.8972,
0.76929,-4.8718,-44.3591,-20.2566,13.5896,3.8459,-0.76929,-4.8718,-21.6667,7.9485,-1.282,0.76929,56.6667,147.9485,
-0.76929,-3.3333,-44.3591,-20.2566,16.1536,12.5642,2.3074,-6.4104,-11.0256,0.76929,-6.4104,4.8718,60.7693,152.051,
-3.5896,-1.0256,-46.1536,-17.9485,12.8206,12.3079,1.0256,-5.1282,-4.1023,5.6414,-5.6409,16.4104,58.9744,160.5129,
-2.564,-4.1025,-43.0769,-22.0513,10.2563,2.0513,-6.6665,-2.0513,-3.5898,17.436,6.6665,17.9487,62.0513,155.3848,
-5.8977,-4.8718,-41.2822,-18.2053,10.5129,12.051,-2.3079,-8.9744,2.8206,2.436,-8.3335,13.5896,54.1023,160.2561,
-3.3333,-4.3591,-42.8206,-18.718,6.9231,13.0769,-9.4871,3.3333,-7.9485,9.4871,-5.8972,13.0769,53.0769,157.6921,
-3.8459,-0.76929,-40.769,-17.6921,11.5388,23.3333,-3.3333,0.76929,-6.4099,5.3845,-9.9998,8.4617,49.4875,151.0256,
-4.3591,4.8718,-38.2053,-14.1028,6.9231,27.4358,-5.3845,-4.3591,-3.3333,3.3333,-17.1794,8.4617,41.282,148.4617,
-0.25635,5.3848,-38.2051,-16.1538,7.436,21.7949,-13.5898,-1.2817,-18.3333,4.8721,-20.769,0.25635,37.6924,139.231,
4.6155,10.2566,-30.7693,-9.7434,22.436,36.7949,1.4102,-6.6667,-18.9744,-7.6921,-35.769,-4.6155,35.3845,145.1282,
5.385,1.282,-32.051,-21.7947,35.1282,24.8718,-1.282,-6.4099,-19.2307,3.3333,-24.8718,-3.3333,35.6414,135.1282,
12.8206,5.6409,-24.6155,-21.0256,38.4617,29.7434,0.51294,-4.1028,-10.7693,-2.0515,-23.0769,-0.51294,36.4104,134.8718,
12.3079,8.718,-23.5896,-23.0769,52.3079,38.4617,10.2566,-10.7693,-23.5896,-17.0515,-38.0769,-8.718,28.2053,137.4358,
19.2307,6.9231,-20.2561,-28.9744,61.7952,34.6155,9.4875,-6.9231,-35.6409,-6.9231,-34.1025,-12.051,32.0515,125.8977,
23.333,10.5127,-13.0771,-21.2822,65.8975,38.2051,16.1538,-11.5386,-24.8721,-12.0513,-44.8721,-10.5127,30.5127,125.8975,
21.2817,7.9487,-13.0771,-23.8462,56.1538,26.9229,3.8462,-3.8462,-25.8975,-6.9233,-35.6411,-5.3848,33.0767,127.436,
13.8462,6.667,-15.8975,-25.1279,53.8462,33.3335,4.1025,-4.1025,-27.1792,-8.2051,-40,-5.1279,26.667,126.667,
10.2566,7.1794,-17.9485,-24.1023,52.3079,40.0002,7.1794,-12.3079,-28.718,-16.9231,-55,-7.1794,14.3591,129.7434,
17.436,5.6411,-12.3076,-24.6152,47.6924,29.2305,-0.5127,0.5127,-24.1025,-2.0513,-40,-2.0513,27.1792,132.3076,
5.8975,4.3589,-14.6152,-23.3335,43.8462,29.4873,4.8716,-7.436,-17.6924,-17.0513,-44.3589,-4.3589,20.769,132.0513,
3.8462,3.8462,-15.1284,-28.9746,35.6411,19.7437,1.7949,-7.9487,-26.4102,-12.564,-47.436,-1.7949,15.1279,121.7949,
10.7695,0.51269,-7.1792,-30.769,33.3335,19.4873,4.1025,-6.6665,-23.0767,-4.1025,-46.1538,-0.5127,21.5386,117.9487,
7.6924,0.5127,-2.564,-24.6152,30.2563,27.1792,8.7178,-6.6665,-20,-12.8208,-51.7949,-0.5127,21.0254,128.2051,
3.5898,-0.51269,-4.6152,-26.6667,22.0513,14.8721,-6.2822,1.5386,-28.2051,-6.1538,-39.4871,0.5127,22.0513,123.0771,
0,0,-6.1538,-24.1025,24.6152,18.9741,0.51269,-9.231,-20,-15.3848,-53.3335,0,18.4614,122.564,
2.8208,-0.25635,-3.8462,-27.4355,21.2822,19.7437,0.25635,-2.8203,-21.2817,-3.333,-49.4871,4.8721,21.7949,125.3848,
2.8206,-2.8206,-4.3591,-34.1025,14.1028,14.1028,-5.3845,1.7947,-24.3591,-1.282,-46.9231,1.282,19.2307,119.2307,
3.0771,-0.5127,-1.5386,-24.1025,15.8975,18.4614,0.5127,-5.6411,-17.436,-12.3076,-58.9744,3.5898,12.8208,121.0259,
0,-7.6924,0,-28.718,5.6411,3.4614,-14.4873,0,-25.1282,-1.0254,-47.1794,5.6411,12.8203,109.7437,
-2.5642,-0.51294,6.1541,-26.1541,9.7434,11.282,-6.1541,0.51294,-12.8206,-4.1028,-50.2563,6.6667,13.3333,116.9231,
-5.1279,-1.5386,1.0259,-28.7178,6.1538,7.6924,-5.1279,-0.5127,-10.2563,0.5127,-51.7947,8.7183,9.7437,122.0513,
-6.1538,-7.1792,-2.0513,-31.7947,3.0771,2.0513,-11.7944,3.0771,-15.3843,7.1797,-46.1536,10.7695,8.7183,113.3335,
-4.8716,0.76904,4.8716,-24.3589,10,16.1538,-4.3589,-0.76904,-17.6924,-7.8203,-61.1536,8.9741,3.8462,115.6411,
-1.7949,0.76904,4.3589,-31.0259,2.3076,7.9487,-13.5898,0.25635,-30,-10,-60.7693,-0.25635,0.25635,107.9487,
-2.5642,-1.0256,5.6409,-30.2566,1.5383,6.1536,-13.8464,1.0256,-22.0515,-2.5642,-55.8977,5.6409,1.0256,106.6663,
-4.8716,-3.3335,5.8975,-31.0256,-0.25635,2.8203,-14.6152,1.2822,-15.1284,3.3335,-52.5642,10,0.25635,103.8462,
-5.6414,-5.1282,7.1794,-30.2566,-1.0256,1.0256,-14.8718,2.5642,-7.1794,10.7693,-47.6924,15.3845,1.0256,102.051,
-6.9231,-6.4104,8.4617,-30,-1.7947,-1.282,-14.6155,3.8464,1.282,18.2053,-43.3333,20.7693,1.7952,100.2566,
-7.6924,-8.2051,9.7437,-29.2307,-2.564,-3.0771,-14.8716,4.6152,9.231,25.6411,-38.4617,26.6665,2.564,98.9741,
-8.4614,-8.9741,11.0259,-28.4614,-3.3335,-5.3848,-14.6155,6.4102,18.2051,33.5898,-33.0769,32.564,3.3335,97.1797,
-7.9487,-7.9487,13.0771,-22.8203,0.76904,-0.76904,-9.4873,3.8462,10.5127,22.8203,-42.8206,30.5127,-1.7949,102.8203,
-5.8972,-9.4873,8.9744,-25.3845,-1.282,-1.7947,-15.6411,8.4617,1.282,12.5642,-31.0256,16.6667,3.8459,95.1282,
-8.9746,-7.436,10,-23.8462,1.7949,8.4614,-4.8721,0.25635,5.8975,-0.76953,-45.8975,16.1538,-0.25635,95.6411,
-7.6921,-11.282,14.8718,-30.7693,1.0256,-3.0769,-11.282,5.1282,0.51294,14.2305,-40.5129,25.6409,-0.51294,89.7434,
-8.7178,-12.8203,16.4102,-29.2305,3.5898,0,-9.7437,0,0.5127,5.1284,-47.1794,13.8462,-5.1279,83.0771,
-6.4102,-3.8462,20.2563,-17.1792,5.8975,12.564,-0.25635,0.25635,4.8721,-4.8716,-52.564,13.0771,-7.436,87.436,
-4.8721,-7.436,17.6924,-24.8718,-0.25635,0.25635,-10,5.8975,0.76904,10.1284,-37.6924,21.7949,-5.3848,76.1538,
-7.1792,-10.2563,17.436,-23.5898,4.1025,4.6157,-4.1025,-3.5898,11.2822,3.5898,-47.1794,22.5645,-11.2817,81.0259,
-5.1282,-11.282,23.0769,-20,0.51294,-0.51294,-10.2566,5.6409,13.3333,16.9231,-36.9231,24.6155,-6.6667,82.5642,
-5.6409,-10.7693,26.6667,-21.0256,-0.51294,0.51294,-8.2053,8.718,15.3845,21.0256,-29.2307,27.1794,-4.6155,75.3845,
-9.7437,-12.3076,20.5127,-25.1284,0.5127,3.0767,-6.1538,-0.5127,16.4102,12.8203,-36.4104,26.6665,-10.7695,75.8975,
-1.5386,-11.282,24.1028,-26.6667,1.0256,-4.6155,-12.8206,10.2566,23.0769,27.8203,-21.4104,29.7434,-1.0256,77.4358,
-4.3586,-9.4871,25.8977,-23.8459,2.8206,-1.282,-5.8972,1.282,24.8718,15.1282,-36.1538,26.4104,-8.9744,73.0769,
-2.0515,-8.2053,27.1794,-22.5642,1.5383,-1.5383,-10.2566,3.0769,9.8718,15.8972,-39.4873,27.6921,-16.4104,63.5896,
-1.5386,-9.7437,27.1797,-20,4.1025,1.5386,-9.7437,2.564,-5.1282,11.7949,-42.0513,21.0259,-21.0256,57.9487,
-3.8462,-4.8716,27.9487,-14.6152,8.4614,7.9487,-0.25635,-0.76904,4.3589,0.25635,-46.4102,19.231,-20.769,64.3589,
-1.5386,-8.718,25.1279,-23.0769,1.5386,-3.5898,-13.3335,8.2051,4.1025,15.2563,-31.4102,25.1279,-15.3848,57.436,
-6.4104,-12.051,20.7693,-23.8459,2.8206,1.282,-12.5642,-1.282,3.3333,6.4104,-45.8975,23.3333,-26.4104,53.0769,
-1.0256,-5.6409,26.1541,-18.4617,3.0769,-0.51294,-12.8206,2.5642,0.51294,4.6155,-38.9744,22.0515,-23.5896,50.7693,
0.51294,-3.5896,29.7439,-21.0256,-0.51294,-6.1536,-13.8462,6.6667,6.1541,8.718,-24.6152,17.949,-16.4102,42.0515,
-6.1536,-4.615,27.1799,-20.5125,-1.0256,2.0515,-9.2307,1.0256,12.8206,6.1541,-34.8713,23.0769,-25.6409,44.1028,
1.5386,-6.1541,34.3589,-22.0513,-5.1284,-1.5386,-20,13.333,8.2051,20.5127,-20.5129,30.769,-23.5898,38.9741,
-0.5127,-5.6411,39.4873,-20.5127,-2.0513,0.5127,-11.2822,5.6411,7.6924,5.5127,-34.3591,17.436,-30.7693,33.333,
-2.8206,-3.8464,37.1794,-18.2053,1.282,-1.282,-6.4104,4.3586,6.9231,4.3586,-35.1284,15.1282,-33.5898,34.6155,
0.76929,-8.4617,34.6155,-17.6924,-0.76929,-3.3333,-19.7437,8.4617,14.1028,19.3586,-20.1284,23.8459,-29.4871,30.5129,
-2.051,-10.2561,36.4104,-15.3845,-1.0256,6.1541,-25.1282,1.0256,17.4363,14.8718,-30.7688,27.6926,-36.9229,31.7952,
-1.0256,-11.7949,36.9231,-26.6665,-3.5896,1.0256,-38.4614,8.718,2.5642,17.4358,-23.5896,25.1282,-35.8975,29.7434,
-1.0256,-13.3333,33.8464,-30.2563,-1.0256,5.6409,-35.3845,1.0256,6.1541,10.2566,-31.7949,20.5129,-41.5383,29.7434,
0.5127,-12.3076,34.3589,-23.0771,-0.5127,4.6152,-33.8462,-1.0259,7.1797,12.3076,-33.3335,28.2051,-46.6667,27.6924,
0.51294,-12.8206,33.8464,-24.1023,-0.51294,3.0769,-33.3333,-2.051,6.6667,9.2307,-34.3586,25.1282,-48.2051,24.1028,
0.25635,-13.0767,33.5898,-24.3589,-0.25635,1.7949,-32.564,-3.333,5.8975,6.4106,-35.1279,22.8208,-49.9998,21.2822,
0,-13.8462,32.8208,-25.6411,0,0,-31.7949,-4.6152,4.6157,3.0771,-35.8975,19.4873,-51.7947,17.9487,
0.76929,-13.5896,33.0769,-25.3845,0.76929,-0.76929,-30.5129,-4.8718,4.3591,0.76929,-36.1536,17.6921,-53.0769,15.6409,
3.0771,-11.7949,34.8721,-24.1025,3.0771,0,-27.6924,-3.5898,6.1538,0,-34.8716,16.9233,-52.3076,14.3589,
4.8718,-9.9998,36.6667,-22.3074,5.385,0.76929,-24.8718,-2.8206,7.4363,-0.76929,-33.5896,16.6667,-52.051,13.5901,
6.9229,-8.9746,37.6924,-21.2822,7.9487,1.7949,-21.7949,-1.7949,8.4614,-2.8208,-32.564,14.6152,-52.5642,11.5386,
6.667,-12.3076,35.3848,-23.0769,-1.5386,-10.2563,-36.7949,8.2051,1.5386,9.231,-22.564,20,-52.3076,4.6157,
8.9744,-7.4358,38.718,-20.7693,0.76929,-0.76929,-33.5898,6.4104,10.5129,14.6155,-20.7693,22.8206,-51.0256,-1.7952,
8.7183,-5.1279,39.4873,-20,7.1797,8.7183,-25.6411,-2.0513,2.564,1.5386,-30.2563,17.9487,-56.9231,-1.5386,
16.9231,-3.0769,41.0256,-20.5129,10.7693,1.0256,-27.1797,12.3074,-4.6155,16.5386,-15.2563,21.5383,-49.231,-1.0256,
8.4614,-4.8721,32.564,-20.7695,7.436,5.3848,-17.1797,-1.7949,1.7949,4.3589,-30.2563,17.1792,-59.7437,-5.3848,
12.051,-4.8718,37.1794,-22.3079,3.8459,6.4099,-18.2053,0.76929,-0.76929,7.4358,-27.949,19.2307,-59.231,-8.9744,
19.2307,-5.3845,42.8206,-20.2566,9.9998,5.8972,-15.1282,5.8972,-2.8206,2.8206,-21.7952,17.6921,-56.1541,-5.8977,
17.949,-1.0256,38.4617,-12.3074,11.282,8.718,-6.1536,4.1028,-3.0769,-7.1794,-31.7947,22.0515,-61.5383,1.0256,
15.1279,-0.25635,37.6924,-16.6665,0.25635,3.3335,-16.6665,8.4614,-9.4873,3.3335,-24.8718,25.3848,-65.8975,-13.9744,
15.1282,3.3333,46.9231,-13.0769,3.8464,13.5896,-6.9231,1.282,-1.282,-2.8206,-34.6155,19.2307,-68.9744,-17.1794,
16.4104,-2.5642,43.5896,-20.5129,4.1023,2.5642,-9.7434,5.1282,-8.2053,8.718,-26.6667,14.8718,-63.5898,-20.5129,
18.7183,-5.3843,43.3335,-24.3589,9.4873,2.3076,-5.8975,10,-2.3076,17.6924,-13.5896,22.8208,-56.1538,-24.3589,
14.8716,-9.7437,40,-25.6411,7.1797,3.5898,-2.0513,0,0,2.6924,-22.0513,23.0767,-64.6155,-27.1797,
21.5383,-7.6924,42.5642,-25.1282,6.6667,-2.5642,-4.6155,14.3591,1.0256,12.3079,-7.0513,23.5896,-54.8718,-32.3076,
6.5383,-13.3333,32.8206,-29.2307,6.1541,3.5896,-3.5896,6.1541,5.6409,-2.6921,-13.3333,15.3845,-64.1025,-35.8975,
4.6152,-15.3848,28.7178,-28.7183,5.6406,3.0767,-10.7695,7.6919,2.0513,-2.0513,-12.3081,25.6406,-62.5642,-29.231,
15.6411,-8.4614,32.564,-21.2822,8.4614,2.3076,-8.4614,14.1025,-2.3076,7.9487,-5.8975,29.4873,-56.6667,-27.9487,
8.2048,-1.5383,31.7947,-12.8206,9.2307,10.7693,1.5383,5.6409,-5.1282,-7.0513,-20.8975,14.8718,-71.2822,-30.7693,
14.6155,5.3845,39.2307,-8.9744,9.9998,14.1023,-5.8977,16.1536,-6.9231,-5.3845,-14.1028,13.5896,-66.4104,-36.6667,
15.1282,2.8206,37.6921,-8.4617,11.0256,19.7434,-2.8206,5.8977,-13.0769,-15.1282,-29.1028,12.5642,-73.5896,-38.718,
15.6411,1.7949,38.7178,-10,11.5386,16.6665,-1.7949,7.436,-7.9487,-12.0513,-28.4614,13.5898,-70,-39.7437,
15.3845,0.51294,39.4871,-12.3079,11.7947,13.3333,-0.51294,8.718,-2.5642,-8.718,-21.5383,14.3591,-66.6667,-41.5386,
14.1028,-2.8206,38.718,-15.6409,10.5129,8.4617,-0.76929,8.4617,0.76929,-7.4358,-16.1536,14.1028,-64.8716,-44.8716,
10.769,-7.1797,35.8975,-21.0259,7.6924,2.564,-2.564,6.6665,3.0767,-7.1797,-12.3076,11.7949,-65.1282,-49.7437,
12.3076,-7.1797,37.9487,-21.5386,9.2305,0.5127,-0.5127,9.2305,9.2305,-3.0771,-4.1025,13.8462,-60.5129,-49.7437,
9.9998,-11.0256,36.1536,-25.8975,6.9231,-5.3845,-1.282,7.9485,12.5642,-2.3079,1.282,12.5642,-59.7437,-54.1025,
7.6924,-13.8462,31.2817,-31.2822,0.5127,-12.3079,-8.2053,11.7949,-0.51269,2.0513,2.0513,9.2305,-62.0513,-59.4873,
8.9746,-13.0769,32.5645,-29.4871,2.8208,-10.5127,-6.4102,11.5386,-1.7949,2.3076,1.7949,11.5386,-61.7947,-58.2051,
11.5386,-11.0254,34.6157,-27.4358,6.4102,-7.4355,-4.3589,12.0513,-2.3076,3.3335,2.3076,14.1025,-60.769,-55.6409,
13.3333,-9.2307,35.8972,-25.1282,9.7434,-5.1282,-2.5642,12.3079,-2.5642,4.1023,2.5642,16.9231,-60.5129,-53.3333,
14.1025,-8.4614,36.6665,-23.8462,12.0513,-3.3335,-1.7949,11.0259,-4.3589,3.3335,1.7949,18.2051,-60.7693,-52.0513,
15.1279,-8.4614,37.1792,-22.8206,13.5898,-2.3076,-0.76904,10,-6.4102,2.8203,0.76904,19.7437,-61.282,-51.5386,
16.4102,-7.6924,37.9487,-22.0513,15.8975,-0.51318,0,9.2305,-8.2056,2.564,0,21.0254,-61.5386,-50.2566,
16.9229,-8.2051,37.436,-21.5386,16.9229,0,0,7.1792,-10.7695,1.5386,-1.0259,21.5386,-63.0769,-49.7437,
13.3333,-9.2307,35.8972,-20.5129,9.7434,8.2048,-3.5896,8.718,-5.6409,0.51294,-0.51294,20.5129,-65.6411,-52.8206,
13.3335,-5.1279,39.4873,-15.3848,11.2822,15.8975,1.5386,10.7695,-2.564,-9.2305,-1.5386,14.3589,-65.1282,-49.2307,
13.5898,-10.5129,35.6411,-25.8975,10,0.89746,-12.0513,14.1025,-4.3589,2.8203,13.4614,11.0254,-60.7693,-60.7693,
2.3081,-15.6406,23.3335,-28.9741,8.4619,0.25635,-10.5127,-0.25635,3.3335,-11.0254,1.2822,11.0259,-73.5896,-57.6921,
1.5383,-14.3591,16.4104,-28.718,1.0256,5.1282,-17.949,5.6409,-1.0256,-6.1541,3.0769,17.9485,-74.8718,-50.2563,
9.4871,-5.8972,19.2307,-21.7947,3.3333,14.6155,-18.2053,8.4617,0.76929,-1.7947,-0.76929,19.7434,-73.5896,-49.4871,
10.2566,-2.5642,22.051,-12.8206,4.1023,19.4871,-13.8464,5.6409,2.5642,-6.6667,-6.6667,18.4617,-77.9487,-46.6667,
7.9487,-10.5127,22.3076,-23.3335,1.2822,5.8975,-18.2051,10.5127,-6.9233,-1.2822,7.436,17.6924,-74.6155,-53.5898,
10.5129,-7.9485,26.4104,-25.3845,16.2822,14.1028,-3.2051,-0.76929,0.76929,-15.6409,-7.4358,15.6409,-74.6155,-51.5383,
11.5381,-16.667,24.8716,-34.6157,19.2305,2.8203,0.25635,-1.7949,0.76904,-13.0771,-0.25635,8.9741,-68.4617,-60.7693,
13.5898,-25.8975,30.5127,-40.7693,17.1792,-2.8208,-2.3076,2.3076,5.3843,-8.9746,14.7437,4.8716,-58.718,-65.8975,
11.7949,-25.6411,32.3076,-38.4614,15.3848,-2.564,2.564,-8.2051,3.0767,-20,4.1025,3.0767,-67.6924,-63.0769,
25.1282,-12.3074,40.5129,-28.7178,21.5383,-1.0256,1.0256,6.1541,-1.0256,-5,13.8464,10.7693,-62.0513,-62.0513,
21.0256,-4.1028,37.4358,-21.5388,25.1282,13.9744,9.2307,1.0256,-3.5901,-20,-1.0256,7.1794,-70.2566,-61.0259,
16.1536,-0.76929,33.0769,-18.718,15.6409,17.1794,0.76929,2.8206,-12.0515,-18.2053,-0.76929,11.0256,-75.1284,-59.231,
14.3594,-2.0513,29.231,-15.8975,10.2568,2.1794,-10.2563,7.1797,-10.2563,-8.2051,2.5645,10.7695,-74.8716,-62.564,
9.231,0,26.667,-8.2051,14.8721,10.7695,0,2.0513,-0.5127,-17.9487,-10.769,12.3076,-79.4871,-51.2817,
11.5388,-5.3845,25.385,-17.6921,7.949,8.9744,-7.9485,5.8977,-4.8718,-8.4612,4.231,15.6414,-77.6921,-54.1023,
10,-6.9233,26.9229,-21.2822,8.9741,12.0513,-5.3848,0.25635,-0.25635,-16.6665,1.2817,12.564,-80.2566,-55.1284,
12.8208,-2.0513,30.7695,-15.3843,14.3594,9.7437,-5.6406,4.6157,-4.1025,-12.3076,2.0513,17.436,-77.4358,-52.8203,
16.6667,-4.8718,35.6409,-18.2053,15.1282,7.4358,-7.949,4.8718,-8.4617,-4.8718,6.9231,12.051,-75.6411,-65.3848,
19.231,-5.3848,44.8721,-21.2822,22.3076,15.6411,7.051,-3.3335,-0.25635,-15.6411,0.25635,5.8975,-76.1538,-63.3333,
24.6155,-13.3333,44.1028,-34.3589,17.4358,0.64111,3.0769,3.5896,-3.0769,-26.1538,15.2563,7.6921,-66.6667,-68.718,
17.4363,-20.5125,37.949,-38.4614,17.949,-6.6663,3.0769,-3.0769,3.0769,-41.1538,21.5388,5.1282,-64.6152,-71.282,
10.5129,-18.718,35.6414,-36.6665,17.1794,-0.76929,0.76929,-4.3586,3.3333,-56.1538,21.282,3.8464,-64.3589,-71.0254,
16.6667,-12.051,38.2053,-29.4871,13.0769,-0.76929,-7.9485,6.9231,0.76929,-43.3333,34.6155,3.8459,-61.7949,-77.1794,
12.8203,-9.231,33.333,-17.9487,8.7178,6.6665,-5.6411,0.5127,0.5127,-58.3333,19.6155,-0.5127,-76.7949,-75.8975,
13.0769,-4.8718,30.5129,-13.0769,4.8718,3.8459,-13.0769,12.5642,-3.8459,-46.4104,25.3845,8.9744,-75.6411,-65.3848,
7.6921,-4.1028,23.0769,-10.7693,4.1028,10.2566,-15.3845,10.2566,-4.6155,-46.6667,20.5129,13.8459,-78.9744,-57.9487,
6.4102,-4.3589,19.7437,-7.9487,4.3589,11.5386,-17.1797,7.4355,-4.8721,-51.5386,14.1025,17.6924,-83.8462,-56.6667,
12.3079,-4.615,25.6414,-11.282,6.1541,3.0769,-17.9485,11.282,-3.0769,-40.5127,26.1541,16.9231,-76.4102,-64.1023,
13.333,-1.0259,33.8457,-7.1797,14.3589,17.4355,-2.9485,-1.5386,0,-53.8462,11.1541,8.7178,-82.0515,-61.5386,
16.9231,-3.5896,38.9744,-12.8206,10.7693,12.3079,-3.5896,3.5896,-11.7947,-47.1794,17.949,9.7434,-82.564,-66.6667,
17.1797,-4.3589,41.7949,-16.6665,10,2.3076,-2.3076,6.4102,-4.3589,-40.2563,30,13.0771,-74.1025,-70.5129,
15.3848,-5.6411,40.5127,-20,7.1797,-2.564,-2.564,3.0767,2.564,-33.8462,30.769,12.8203,-69.7437,-72.3076,
20.2566,-8.9744,43.8464,-22.3076,7.949,-5.3845,-7.4358,9.4871,5.3845,-18.8462,45.769,13.0769,-61.7947,-77.6921,
13.8464,-12.3074,40.0002,-21.5383,12.3079,0.51294,-0.51294,-2.5642,12.3079,-33.8462,40.5129,9.2307,-66.6665,-71.282,
17.1797,-12.0513,37.6924,-26.4102,10.5127,-5.3848,-8.4614,5.3848,9.4873,-31.0256,55.1284,17.1797,-58.718,-67.9487,
19.2307,-15.6414,34.615,-30.0002,12.051,-2.8206,-10.5129,2.8206,9.9998,-27.949,52.051,17.6921,-59.7437,-75.1284,
15.6411,-15.6411,31.0259,-24.8716,14.6152,5.3848,-6.9229,-5.3848,12.564,-36.6665,41.2822,22.8208,-70,-65.8975,
14.3591,-14.3586,26.1541,-23.0769,1.5383,-1.5383,-21.9229,7.6926,16.4104,-21.6665,56.2822,30.2566,-70.769,-60.5127,
6.9231,-9.4875,20.7693,-14.6155,-2.8206,8.4612,-23.8464,2.8206,21.7947,-27.4363,45.8972,27.4358,-79.231,-59.231,
6.6667,-9.7434,20.5129,-17.4358,-2.5642,5.1282,-28.718,3.5896,6.7947,-27.1794,47.6921,26.6667,-77.436,-64.6155,
11.7949,-13.3335,28.7178,-26.6667,3.5898,-0.5127,-21.0259,5.6411,0.5127,-20.5127,62.0513,25.1279,-69.231,-71.2822,
10.5127,-14.1025,29.4873,-25.3848,6.9233,0.25635,-8.9741,-0.25635,13.5898,-28.4614,57.1797,19.7437,-68.9744,-71.5383,
16.9231,-10.2566,33.3333,-18.9746,7.6921,-5.1282,-13.3335,10.2561,5.1282,-21.5386,66.6663,19.4871,-62.0515,-75.8977,
11.5386,-7.9487,36.1538,-15.1279,8.4614,0.76904,-7.436,1.7949,-0.76904,-35.6411,51.6663,12.0513,-71.0256,-78.718,
8.7178,-7.1792,33.8462,-16.4102,5.6411,-4.1025,-13.3335,4.1025,7.1797,-24.6152,62.564,13.8462,-70.7693,-78.4614,
11.5388,-6.9231,31.0256,-17.1794,6.9231,-7.9485,-19.7434,11.0256,14.6155,-17.1794,77.1794,18.2053,-64.8716,-78.2051,
11.5386,-5.3848,29.4873,-14.6152,10.5127,-3.3335,-12.564,3.3335,7.9487,-30,62.1794,18.7178,-73.0769,-70.5127,
21.5386,-3.5898,33.3335,-14.8718,15.3848,-3.5898,-14.8718,13.3335,3.5898,-15,76.9233,24.6152,-63.0769,-64.6152,
7.1797,-9.231,20.5127,-20,11.7949,2.0513,-17.436,-1.6665,4.1025,-30,63.0771,13.8462,-74.8718,-66.1538,
6.4104,-5.3845,21.7947,-17.6921,10.5129,4.3591,-15.1282,-0.76929,0.76929,-34.6155,63.3333,19.7434,-78.718,-61.7949,
16.1541,-7.4358,28.9744,-19.7434,15.6409,-0.76929,-13.5896,5.3845,0.76929,-19.6155,73.5896,25.3845,-73.0769,-68.9744,
13.0771,-11.0259,27.436,-19.7437,20.2563,2.8203,-7.436,-2.8203,10.5127,-28.4614,60.2563,21.2822,-78.718,-68.9744,
11.5383,-10.5129,26.9231,-23.8464,9.4871,-4.8718,-21.282,4.8718,6.9231,-18.718,75.2563,20.7693,-71.0259,-72.5642,
8.9744,-8.9744,28.4617,-22.3079,8.4617,0.76929,-14.6155,-0.76929,6.4104,-20.2566,75.1282,20.2566,-71.0256,-70,
8.4617,-11.5383,28.9744,-22.3079,8.9744,0.76929,-8.9744,-0.76929,1.7947,-17.6921,71.5383,25.3845,-75.6411,-67.436,
15.6409,-8.9744,34.1028,-23.3333,12.0515,-2.8206,-6.4102,14.2307,2.8206,-3.8462,86.5383,27.949,-60.6411,-71.5383,
2.3076,-13.0767,22.8203,-24.8716,7.9487,-2.3076,-5.8975,2.3076,2.8203,-18.8462,75.6411,17.6924,-69.4871,-72.564,
3.3333,-10.5129,23.8459,-19.7437,5.3845,-3.3333,-18.718,12.5642,5.8972,-4.3591,90.0002,32.0515,-66.9231,-65.8975,
-1.282,-15.6414,20.7693,-22.8206,4.3586,1.282,-19.2307,4.3586,7.4358,-14.6155,82.3074,28.4612,-70.5129,-72.0515,
1.2822,-14.1025,18.2051,-25.8975,12.0513,2.3076,-5.8975,-1.2822,8.4614,-23.8462,76.6665,22.3076,-70.5129,-68.9744,
7.9485,-12.5642,17.1794,-33.0771,15.1282,-4.8718,-8.9744,4.8718,8.9744,-11.5388,91.5383,24.3586,-66.4104,-65.3848,
3.5896,-11.7952,13.8459,-32.3079,14.3591,7.1794,-8.2053,-3.5896,7.6921,-26.5388,76.5383,22.051,-74.8718,-61.0256,
6.9233,-6.4102,16.667,-24.8716,10,4.3589,-16.6665,4.3589,-4.3589,-17.6924,84.3589,21.7949,-74.6152,-66.4102,
8.7183,-1.5386,20.5127,-14.3589,10.7695,4.1025,-11.7949,1.5386,-6.6665,-21.5386,76.9233,14.8721,-83.0769,-72.8203,
10.2566,-1.0256,24.6155,-8.2053,14.8718,7.1794,1.0256,-2.0515,-7.1794,-28.718,70.2566,12.3079,-85.1282,-69.7437,
16.4104,-1.0256,27.6926,-10.2561,16.9231,0.51294,-0.51294,12.8206,-1.0256,-13.718,85.2566,21.5383,-70.1282,-69.2307,
1.5383,-5.6409,17.949,-15.3845,9.2307,1.0256,-4.1023,-1.0256,2.5642,-25.1282,80.0002,20.0002,-80,-70.2563,
7.1797,-2.564,24.6152,-15.8975,10.2563,2.564,-5.6411,6.6665,-2.564,-14.3589,90.769,22.564,-70.2563,-69.7437,
5.8977,-11.5383,23.3333,-22.8206,14.6155,-2.8206,-0.25659,5.8977,0.25659,-16.6667,96.1541,11.5383,-63.3333,-79.2307,
-0.5127,-12.3076,17.9487,-23.0767,14.8721,0.5127,5.1284,-1.5386,5.6411,-23.5898,84.1025,15.3848,-71.7947,-74.3589,
9.2312,-3.5896,24.6155,-19.9998,16.4104,3.0769,-3.0769,7.6926,-4.1023,-8.5898,93.3337,27.1799,-67.6921,-73.333,
4.1025,-4.1025,23.5898,-19.4868,23.0771,7.1797,6.1538,-4.6152,-9.2305,-23.5898,78.3337,14.3594,-77.4358,-76.4102,
5.1284,-7.1797,19.4873,-26.1538,26.1538,-0.5127,8.2051,0.5127,-3.5898,-27.6924,80.5127,15.3848,-74.8718,-73.3333,
5.3845,-13.0769,11.0256,-40.2563,23.8464,-3.3333,0.76929,-0.76929,2.3079,-22.8206,88.4617,18.2053,-69.9998,-73.0767,
-0.51294,-9.7434,7.1794,-35.8972,21.0256,6.6667,0.51294,-8.718,1.0256,-29.7434,75.8972,17.9485,-75.3845,-64.1025,
3.3333,-3.3333,9.9998,-22.8206,16.6667,5.8972,-6.4104,6.282,-3.8464,-14.7434,86.4099,21.7947,-74.6155,-65.3848,
-1.0256,-3.0769,6.6667,-13.8459,17.949,14.3591,-1.0256,3.0769,1.0256,-29.7434,74.3591,17.949,-84.6152,-66.6665,
0,-1.5386,8.7178,-12.8208,16.9229,12.8203,-2.5645,9.7432,0,-18.9746,82.0513,23.5894,-78.9746,-60.0002,
-0.25635,-5.3848,11.0254,-16.667,15.1279,5.8975,0.25635,14.6152,-2.3076,-8.4619,88.4614,23.333,-73.0771,-64.3591,
-4.6152,-9.7437,8.2051,-14.3589,18.4614,7.6924,11.7949,2.0513,-2.0513,-23.4619,73.4614,17.9487,-77.4358,-69.2307,
2.051,-8.718,9.2307,-15.3845,16.4099,-1.0256,1.0256,14.3586,-2.5642,-12.8206,88.4614,20.5129,-68.2053,-71.7949,
-4.6152,-8.2051,5.1284,-21.0259,15.3848,1.0254,0.5127,9.231,-0.5127,-18.9746,80.5127,11.7949,-73.3333,-71.282,
-1.7949,-6.9233,5.8975,-23.8462,21.2817,1.7949,3.333,5.3843,-4.3594,-17.1797,78.2051,11.5381,-70.5129,-70.5129,
9.4871,-4.3591,13.0769,-21.2822,26.4104,-2.8206,2.8206,11.5383,-2.8206,-5.8977,92.051,17.6921,-58.718,-73.5898,
0.51294,-6.6667,8.2048,-22.0515,22.5642,-1.5383,6.1536,1.5383,-0.51294,-16.4104,77.051,15.3845,-68.718,-71.7949,
0.5127,-7.6924,6.1538,-27.1794,18.9746,-0.51269,-4.1025,11.7949,-1.5386,-1.4104,91.7949,22.0513,-63.5896,-67.6921,
-2.3076,-5.3843,2.3076,-25.3843,17.1797,8.9746,-5.8975,6.9233,-2.3076,13.5896,78.2051,19.231,-68.9741,-63.8459,
1.0256,-5.6409,1.5388,-25.1282,13.8464,2.5642,-7.1794,-1.0256,-11.282,4.6155,63.2051,11.2825,-82.051,-68.7178,
12.8203,-7.6924,11.2822,-25.6411,19.4873,-6.1538,-3.5898,3.5898,-6.6665,17.9487,75.8975,12.3076,-76.4104,-77.436,
-0.51294,-10.2566,10.7693,-19.4871,15.3845,0.51294,-0.51294,-3.0769,6.1541,11.282,69.2307,15.8972,-79.4873,-71.7949,
-5.1284,-4.6157,9.7437,-13.3335,2.0513,-2.0513,-12.8208,11.7949,3.5894,21.0254,80.5127,23.5894,-71.7949,-68.2053,
-3.8462,-3.3335,8.4614,-11.0259,5.3848,1.2822,-2.8203,7.436,-1.2822,10,71.5386,12.564,-74.1025,-73.0769,
-6.6667,-7.1794,8.2053,-13.3333,8.2053,0.51294,4.1028,-0.51294,-7.1794,3.5896,62.5642,6.1541,-76.9231,-74.8718,
-0.51294,-4.1028,14.3586,-15.3845,12.3074,-1.0256,0.51294,14.4871,-4.6155,18.5896,77.5642,19.9998,-61.9231,-71.2822,
-10.2566,-9.2307,-0.51294,-21.0256,15.3845,0.51294,1.0256,2.051,-7.1794,3.5896,67.1794,11.282,-72.3076,-69.2307,
-2.5645,-4.6157,0,-15.8975,22.564,0,0.5127,13.8462,-10.2563,12.3076,77.4355,10.2563,-62.5642,-65.6411,
-5.8975,-9.4868,0.25635,-20.2563,21.7949,0.76953,-0.25635,12.0513,-7.4355,8.4619,73.5898,6.4102,-58.2051,-70.5127,
-11.7949,-12.3076,-5.6411,-21.5386,22.564,8.2051,2.564,8.2051,-2.564,4.6152,71.7949,17.436,-57.436,-61.5386,
-4.3589,-2.3076,-8.4614,-16.6665,26.9233,14.6152,-2.8203,21.7949,2.3076,19.6152,86.7949,30.5127,-43.3333,-53.0769,
-8.718,-1.5383,-12.8206,-16.9231,24.6155,22.051,-3.0769,6.7949,1.5383,7.6921,73.3333,15.5127,-58.3333,-57.436,
-2.564,0.5127,-4.6152,-15.8975,24.6152,13.8462,-6.1538,9.7437,-0.5127,14.8716,81.5386,12.8203,-60,-62.5642,
-7.9485,-3.3333,-2.8206,-19.7434,23.3333,2.8206,-4.3586,7.949,3.3333,10.5129,82.3079,12.0515,-58.2051,-67.4358,
-15.3848,-8.2051,0,-17.9487,22.0513,-0.5127,7.1797,0,1.5386,1.0254,67.3079,10.2563,-59.4873,-61.0256,
-8.9744,-13.0769,6.9231,-19.2307,19.7434,-10.5129,5.3845,12.5642,-5.3845,16.0254,82.3079,16.1536,-47.436,-63.3335,
-16.1538,-14.6152,-2.3076,-22.3076,18.7178,-7.436,4.3589,3.8462,2.3076,8.4614,79.7437,11.5386,-52.564,-66.4102,
-9.7439,-7.1794,-0.51294,-16.9231,20.5129,-4.6155,0.51294,11.7947,8.2048,22.051,91.282,20.5129,-45.1284,-55.3848,
-7.1794,-10.7693,3.0769,-16.4104,17.4358,-6.1541,-1.5383,12.3079,1.5383,23.0769,90.7693,20.5129,-43.5898,-54.8718,
-14.6152,-13.0771,0.25635,-18.2051,12.0513,3.8462,-0.25635,1.2817,-2.8208,8.0769,75.7693,11.5386,-56.1541,-55.6411,
-11.2817,-11.2817,-0.5127,-24.1025,7.6924,1.5386,-11.2817,9.231,0.5127,9.7437,79.4873,13.3335,-52.3076,-55.3845,
-13.3335,-8.2051,-2.0513,-21.0259,12.8203,5.1279,-7.6924,3.0767,6.6665,2.0513,74.8716,16.4102,-53.8462,-49.7437,
-12.8203,-2.0513,-4.6152,-16.9229,11.2822,8.2051,-14.3589,8.7178,2.0513,8.7178,79.4873,22.564,-50.7693,-45.1279,
-14.1023,-2.3079,-9.9998,-14.1023,6.4104,8.4617,-26.4104,10.5129,2.3079,12.0515,78.718,17.1794,-53.0769,-48.4614,
-12.8206,-1.0256,-6.1541,-2.5642,13.8459,11.282,-14.8718,3.5896,6.6663,1.0256,65.6409,13.8459,-60.5129,-43.5901,
-1.7947,-1.282,6.9231,-6.9231,18.2053,-0.76929,-9.9998,15.6414,0.76929,16.0256,80.6409,19.2307,-47.4358,-46.4102,
-9.4868,-8.9741,6.4102,-16.6665,14.6157,0.25635,-3.8462,3.3335,-0.25635,2.8208,71.0259,10,-51.0256,-50,
-14.3591,-7.1794,7.1794,-15.8977,9.7434,1.5383,-3.5896,4.6155,-1.5383,3.5896,68.718,11.282,-50.7693,-49.2307,
-6.9233,-5.8975,15.6411,-17.6924,13.5898,-4.8721,-0.25635,15.1279,0.25635,17.1797,83.718,17.6924,-38.718,-54.1025,
-12.0515,-12.5642,13.5896,-23.3333,14.1023,-4.8718,6.9231,0.12793,0.76929,2.3074,68.718,13.5896,-46.9231,-51.0256,
-7.1797,-9.231,12.3076,-18.9741,11.7949,-2.0513,-2.0513,11.7949,2.0513,17.3074,78.9746,20.5127,-42.0513,-45.6411,
-18.7178,-14.1025,1.2822,-20.769,4.8716,-1.2822,-10.5127,3.8462,4.3589,8.4614,71.0254,12.0513,-54.1025,-54.6155,
-12.0515,-12.5642,8.9744,-19.7439,11.0256,-1.282,-4.8718,1.282,14.1023,8.4612,73.0769,21.7947,-50.0002,-43.8464,
-3.3333,-15.1282,14.1023,-26.4104,14.6155,-9.4871,-11.0256,3.3333,8.9744,23.4612,81.7947,25.8972,-41.7949,-45.8975,
-10.769,-12.3076,3.0771,-22.0513,14.8721,1.5386,-10.769,-1.5386,6.1538,11.2822,67.6924,19.4873,-47.6924,-49.2307,
-8.4614,-6.9233,-1.2822,-17.1797,5.3848,1.2822,-22.3079,13.4614,4.3589,21.2822,82.6924,23.8462,-43.8462,-47.9487,
-12.8206,-6.1541,-1.0256,-15.8977,1.0256,6.1536,-21.5388,7.6921,4.1023,8.2048,69.2307,17.4358,-53.8462,-45.6411,
-14.6152,-2.3076,0.76904,-10,8.9746,10,-15.1279,4.3589,0.25635,-0.25635,54.2307,16.6665,-58.2051,-40.769,
-12.0513,-2.3076,2.3076,-6.9233,11.0254,1.7949,-20.2563,16.6665,-1.7949,14.7437,69.2307,24.3589,-45.3848,-38.718,
-24.6155,-8.718,-3.5896,-8.2053,8.718,5.1282,-14.3591,5.6409,3.5896,9.2307,65.1282,23.0769,-47.6924,-34.3591,
-18.4614,-13.3335,0,-18.4614,16.4102,0,-12.8208,11.2817,9.7437,19.4873,74.8716,25.1279,-34.3591,-33.8462,
-15.1282,-20.2563,3.3333,-33.0769,24.8718,-3.3333,-8.4617,6.9231,14.6155,22.3079,79.2307,22.3079,-30,-36.6665,
-23.333,-20.2563,3.3335,-34.1025,16.1538,-1.7949,-10,1.7949,6.9233,19.7437,72.0513,24.8721,-38.7178,-38.2051,
-22.3077,-16.6666,6.923,-31.5385,7.4357,-3.8463,-20.2565,12.5641,3.8463,26.923,79.2306,25.3844,-34.6154,-47.4359,
-28.7178,-21.5386,4.6152,-32.8203,11.2822,0.5127,-10.769,-0.5127,10.769,11.923,64.2306,16.4102,-42.5642,-40.5129,
-19.2307,-25.3845,7.436,-34.6152,15.6411,-5.8975,-9.4868,5.8975,9.4873,26.923,71.5386,28.9746,-35.1279,-29.4871,
-15.6409,-26.4102,8.4614,-33.5896,13.0771,-5.8975,-15.1282,5.8975,11.0259,31.0259,75.6411,31.5386,-31.0256,-35.6409,
-20.769,-17.1792,10,-23.333,11.5386,2.3076,-15.6406,-2.3076,11.5386,16.0259,60.6411,23.8462,-41.282,-35.1279,
-15.6409,-8.4612,12.0515,-20.2563,7.4363,-1.282,-22.8203,7.949,1.282,19.7439,69.4875,22.3079,-42.3076,-37.6921,
-21.2822,-13.0771,5.3848,-20.769,7.9487,6.4102,-17.1797,1.2822,-1.2822,4.7439,54.4875,20.769,-50,-38.7178,
-28.4617,-20.2566,3.3333,-24.3591,3.8459,1.282,-23.8464,6.4099,-1.282,14.1023,52.5642,29.4871,-47.9487,-32.5642,
-32.0513,-19.2307,6.4104,-22.8206,2.8206,-1.7947,-22.8206,6.9231,1.7947,20.2566,55.1282,27.9485,-44.8718,-30.5129,
-31.0259,-12.0513,5.3848,-17.1797,8.9741,5.3848,-9.4873,-0.76904,0.76904,5.2566,43.3335,19.7437,-46.9231,-30.5127,
-24.3589,-12.0513,7.436,-19.7434,10.5132,-1.7949,-15.1282,13.0771,1.7949,14.1025,58.3335,21.7949,-34.1025,-36.1538,
-32.8201,-21.0256,3.0774,-25.6409,9.7439,1.0256,-14.8713,-1.0256,6.6667,2.5642,44.6155,14.3591,-42.564,-39.9998,
-27.9487,-19.231,7.9487,-29.4873,13.5898,5.3848,-12.564,-1.2822,1.2822,7.9487,45.3848,18.2051,-41.7949,-35.1282,
-24.8718,-18.2051,14.1025,-35.6409,14.6152,3.3335,-14.6152,4.3589,-3.3335,8.9746,52.0513,16.6665,-37.6921,-39.7434,
-24.6155,-15.3845,20.0002,-27.6921,19.4871,12.8206,-4.1023,-0.51294,9.7434,0.51294,37.949,17.4358,-39.4871,-31.282,
-22.0515,-24.6155,21.0256,-33.3335,14.8718,-1.0256,-11.7952,1.0256,4.1023,15.5129,41.0256,17.9485,-39.4873,-34.8718,
-19.9998,-21.5383,35.8977,-29.2307,20.0002,1.0256,-1.0256,-1.5383,2.5642,7.6926,33.8464,15.8977,-43.0769,-34.3589,
-14.6155,-10.0002,50.8977,-22.3079,21.282,5.8972,-0.76929,2.8206,-2.8206,0.76929,35.6409,15.1282,-37.1797,-32.0515,
-11.0256,-6.9231,65.8977,-20.7693,24.8718,5.8977,-8.9744,4.3591,-4.3591,6.4104,40.7693,12.0515,-30,-35.1282,
-16.4104,-1.5388,50.8977,-8.2053,29.7434,18.9744,0.51294,-0.51294,5.1282,1.0256,28.718,15.8972,-37.949,-23.5901,
-24.1028,-8.2053,65.8977,-14.8718,14.7434,6.6667,-14.4871,7.1794,-6.6667,7.1794,36.4099,13.3333,-42.5642,-34.3591,
-24.8718,-5.3845,80.8977,-14.1028,11.0256,15.1282,-12.0515,6.9231,-3.3333,3.3333,25.8972,12.5642,-39.7437,-29.4871,
-21.7952,1.282,65.8977,-7.4363,24.3586,24.3586,-9.4875,8.4612,-1.282,6.4099,19.7434,20.2561,-32.5642,-14.4871,
-14.6155,-0.25659,50.8977,-12.0513,28.9744,20.2566,-20.2563,18.718,0.25659,15.6409,34.7434,21.282,-19.2307,-15.1282,
-20.2561,-3.3333,35.8977,-16.1536,31.0256,21.7952,-18.718,13.0769,7.4358,3.3333,29.4871,17.6926,-21.282,-15.6409,
-20.5129,-1.0256,20.8977,-14.8721,27.1794,16.4099,-25.1284,22.5637,1.0256,18.3333,38.4612,29.2307,-17.949,-16.9233,
-22.8206,-2.3076,5.8977,-13.5898,25.8975,24.8716,-21.2822,17.6924,2.3076,15.6411,31.0254,29.4873,-21.2822,-16.6667,
-21.2817,-3.8462,-9.1023,-12.564,33.0771,29.4873,-18.7178,16.1538,3.8462,13.5898,25.8975,27.436,-19.2305,-12.0513,
-15.3846,2.0514,-24.1023,-7.6925,35.8971,19.9996,-25.6412,24.6154,-2.0514,24.1027,35.8971,25.6407,-12.3077,-17.4359,
-20.5127,7.1797,-39.1023,0,33.3335,27.6924,-20.5127,9.6154,-2.564,9.1027,20.8971,18.9746,-26.1538,-15.8975,
-20.2563,3.8462,-54.1023,-3.8462,32.0513,24.8721,-29.4871,9.4873,-12.0513,6.9233,13.5898,21.2822,-23.3333,-12.0513,
-18.718,3.3333,-69.1023,-3.3333,36.6667,28.4617,-26.4102,15.1282,-18.2048,6.4104,11.5383,18.2053,-19.2307,-9.9998,
-15.8972,6.1541,-84.1023,-0.51294,36.4104,31.7947,-18.9744,14.3591,-17.9485,0.51294,0.51294,18.4617,-23.0769,-6.6667,
-7.6925,5.1283,-99.1023,-5.1283,37.4359,23.5897,-18.4615,24.6151,-15.3846,15.5129,12.3075,29.2308,-13.8463,-8.7181,
-13.0771,7.9487,-114.1023,-1.7949,45.3848,36.1538,-3.4615,17.6924,-14.1025,6.4102,-2.6925,31.0254,-15.6411,-3.8462,
-18.9744,1.5383,-99.1023,-10.2561,34.3591,27.6926,-1.5383,17.949,-23.0769,7.6926,-4.6155,24.6155,-16.4099,-7.6921,
-18.4614,2.5642,-84.1023,-8.718,33.8464,27.1794,-2.5642,17.4358,-25.1282,7.1794,-7.6921,23.5901,-16.9231,-8.2048,
-17.436,3.5896,-69.1023,-6.1541,33.8459,26.6667,-3.5896,17.4358,-26.1538,6.6667,-10.2566,23.0769,-16.9231,-7.6921,
-16.6667,4.3591,-54.1023,-4.3591,33.5896,26.4104,-4.8718,17.1794,-27.436,6.4104,-13.0769,22.3074,-17.1797,-7.949,
-17.9487,3.5898,-39.1023,-3.5898,31.7949,24.6152,-7.6924,15.8975,-30.2563,4.6152,-17.9487,20.5127,-18.9744,-9.231,
-18.4617,3.5896,-24.1023,-3.0769,30.2566,23.0769,-9.7434,14.3591,-33.3333,3.0769,-22.0513,18.4617,-20.5129,-10.7693,
-18.4614,4.1025,-9.1023,-1.5386,28.7178,21.0254,-12.3076,12.8203,-35.8975,1.5386,-26.1541,16.9229,-22.0515,-11.7949,
-23.8462,4.3589,5.8977,1.2822,30,22.3076,-1.2822,4.8716,-32.564,-10.5127,-38.2051,9.4873,-24.3589,-4.8721,
-17.436,2.0513,20.8977,-2.0513,22.564,8.7178,-2.564,13.8462,-38.4617,4.4873,-27.6924,9.7437,-20.5129,-13.3335,
-18.9744,1.5383,35.8977,-1.5383,26.6667,15.3845,3.0769,5.6414,-30.2561,-8.718,-42.0513,8.2053,-27.1794,-16.4104,
-16.4104,7.6921,50.8977,1.0256,25.6409,21.5383,-1.0256,9.2307,-36.4104,-10.2566,-47.1794,11.282,-29.7434,-8.718,
-11.5383,8.9744,65.8977,-1.282,23.3333,27.4358,1.282,17.6921,-48.9744,-4.3591,-44.3591,12.051,-25.8975,-8.4617,
-18.4612,5.1282,80.8977,-5.1282,23.5901,29.7439,12.3079,5.1282,-46.6665,-17.4358,-56.4102,8.718,-29.7434,-6.6667,
-14.8718,5.1282,95.8977,-5.6409,20.5129,16.9231,1.0256,10.7693,-45.1282,-2.4358,-45.1282,13.3333,-23.5896,-7.1794,
-22.8206,2.3079,110.8977,2.3079,17.1794,17.6921,-2.3079,3.3333,-51.5386,-15.6409,-60.1282,4.8718,-36.6667,-12.5642,
-23.0767,3.5898,125.8977,8.2051,15.8975,13.8462,-1.5386,3.5898,-62.0513,-22.0513,-75.1282,1.5386,-42.564,-13.8462,
-12.8206,6.6667,140.8977,5.6409,21.0256,9.2307,0.51294,8.2053,-64.1025,-14.3591,-63.5896,-0.51294,-37.9487,-15.8972,
-13.0767,15.1284,155.8977,13.5898,24.8721,24.2307,7.9487,3.8462,-61.7949,-25.3848,-78.2051,-3.8462,-44.3589,-7.9487,
-13.5898,22.3076,170.8977,20.2563,17.6924,26.9229,-4.8716,18.2051,-64.3589,-11.0259,-71.5386,4.8716,-42.8206,-7.9487,
-20.2563,18.7178,185.8977,18.7178,17.1797,25.8975,1.7949,10,-61.282,-24.3589,-82.3076,-1.7949,-52.0513,-10.5127,
-18.7178,14.1025,200.8977,13.5898,18.7178,25.8975,10.5127,4.3589,-62.8206,-29.4873,-83.3333,-4.3589,-51.0254,-5.3848,
-17.6926,8.4612,215.8977,3.8459,12.051,14.1023,-0.76929,6.9231,-69.4873,-17.6926,-71.0259,0.76929,-38.718,-13.5901,
-19.4871,12.8206,230.8977,7.1794,18.4617,17.949,13.8464,-1.5383,-63.0769,-28.2048,-85.1282,1.5383,-39.9998,-12.8206,
-15.8975,8.7178,245.8977,0.5127,16.9229,8.2051,16.9229,5.6411,-68.718,-16.9233,-77.436,-0.5127,-36.4104,-15.8975,
-18.4614,3.5898,260.8977,0,15.3848,8.2056,21.0259,4.1025,-71.7947,-18.9741,-84.6152,0,-38.4614,-11.2817,
-18.2051,2.3076,275.8977,4.3589,14.6157,5.8975,26.9233,-2.3076,-80.2563,-31.0254,-99.2307,2.8208,-52.564,-7.4355,
-10.0002,6.9231,290.8977,9.4871,14.6155,-3.3333,22.8206,3.3333,-84.3589,-22.8206,-91.0256,3.3333,-54.6155,-16.6667,
-17.1794,14.6155,305.8977,18.2053,11.5388,2.3079,20.2566,-0.76929,-80.2563,-29.9998,-106.0256,0.76929,-62.8203,-11.0256,
-21.2822,12.564,320.8977,12.564,2.3076,-2.3076,7.436,4.3589,-85.8975,-20.2563,-104.8718,2.3076,-60.2563,-9.4873,
-17.9487,10.769,335.8977,8.7178,12.3076,0,18.4614,0,-82.5642,-27.6924,-102.5642,0.5127,-55.8975,-15.3848,
-19.4871,14.8718,350.8977,16.9231,18.9744,3.0769,27.6921,-3.0769,-82.0513,-33.8459,-114.3589,3.0769,-57.436,-12.3079,
-16.1541,16.6667,365.8977,17.1794,7.4358,-3.8459,16.6667,9.9998,-85.3848,-18.8459,-101.282,3.8459,-52.5642,-13.5896,
-19.7439,16.1536,380.8977,15.6409,7.4358,2.8206,25.8972,3.3333,-79.7437,-31.0256,-110.5129,-2.8206,-58.2053,-7.949,
-19.4873,13.3335,395.8977,13.3335,9.231,-0.51269,20,6.667,-86.1538,-28.7178,-106.1538,0.5127,-56.9229,-5.6411,
-22.0513,9.7437,410.8977,7.6924,6.1538,1.5386,13.8462,5.6411,-88.7178,-25.6411,-108.7178,-1.5386,-56.4102,-8.2051,
-28.4614,10,425.8977,3.3335,2.3076,5.8975,21.7949,-0.25635,-83.3333,-29.4873,-113.0769,0.25635,-57.6921,-5.3843,
-22.8206,12.564,440.8977,3.333,1.7949,-1.7949,20.2563,3.333,-76.6667,-14.4873,-98.0769,11.0254,-44.3591,-5.8977,
-25.6411,10.2563,455.8977,6.1538,2.0513,3.0767,27.6919,-11.667,-72.8208,-15.3848,-97.949,8.7178,-49.7437,-2.0513,
-19.7437,12.564,470.8977,10,1.2822,-1.2822,30.5127,-26.667,-78.2051,-5.8975,-98.718,17.1797,-47.9487,6.4102,
-12.564,16.667,485.8977,16.1538,6.4102,-5.8975,37.6924,-25.3845,-77.1794,-4.3589,-95.6409,18.2051,-44.3589,4.3589,
-15.8975,16.9229,500.8977,20.5127,11.2817,0,46.1538,-37.436,-83.0771,-19.3589,-110.6409,4.6152,-52.8206,0,
-10.5127,20.2563,514.6157,23.3335,12.0513,-2.3076,39.231,-28.4614,-96.1536,-7.9487,-102.8203,10,-43.8459,2.3076,
-22.8206,18.718,499.6157,23.3333,8.9744,-0.25659,38.718,-36.6667,-102.8206,-22.9487,-117.8203,8.4617,-55.1282,0.25659,
-22.8206,20.7693,491.0256,21.7947,10.5129,0.76929,39.2307,-30.5129,-105.8975,-27.4358,-125.8975,4.8718,-56.1538,-0.76929,
-21.7949,17.6924,491.0254,15.6411,8.9741,1.2822,36.1538,-26.9231,-105.3848,-19.231,-117.6924,0.25635,-51.5386,-0.25635,
-32.8206,13.8464,476.9231,14.3591,-1.0256,5.6409,36.9231,-41.9231,-101.5383,-28.718,-130.7693,1.0256,-64.6152,6.1541,
-23.5896,19.4873,476.4102,17.9487,0,0,36.4102,-28.2051,-95.3845,-13.718,-115.7693,14.8721,-52.8206,7.1797,
-28.4612,13.5901,465.8977,14.6155,3.8464,-2.8206,39.7439,-40.2563,-98.7178,-21.7947,-128.4614,4.8718,-60.2563,2.8206,
-28.4617,13.5896,459.7434,14.6155,3.3333,-2.8206,40.2561,-43.3333,-108.9746,-26.9231,-137.6924,2.8206,-69.4873,5.8972,
-18.7178,17.6924,462.3076,13.5898,2.3076,-2.3076,42.8208,-34.1025,-106.4102,-16.1538,-123.8459,4.3589,-63.3333,2.3076,
-21.0256,18.9744,455.3845,16.4104,1.0256,6.6667,48.2053,-43.0769,-103.5896,-29.7434,-138.8459,-1.0256,-70.2563,6.1541,
-20,18.4614,444.1025,10.2563,0,0,40,-37.436,-118.4617,-17.436,-136.4104,2.0513,-68.718,6.6665,
-26.4104,15.6409,433.0769,5.8972,6.9231,0.76929,50.5129,-42.8206,-115.1282,-23.3333,-140.7693,-0.76929,-68.9744,5.8972,
-32.8206,14.3591,425.6409,9.2307,4.1028,-3.0769,53.3333,-41.0256,-110.2563,-26.6667,-141.5383,3.0769,-67.1794,10.7693,
-24.8718,19.231,424.8716,12.564,4.3589,-4.3589,50,-27.436,-114.1025,-15.1284,-126.5383,10.5127,-56.6667,13.5898,
-32.3079,12.3079,412.3079,8.718,8.2053,2.5642,58.4617,-42.0515,-125.6411,-30.1284,-141.5383,-2.5642,-68.718,9.7434,
-28.9744,12.5642,410.0002,10.5129,6.9231,1.282,56.6667,-27.4358,-125.3845,-21.282,-139.2307,-1.282,-62.8203,7.949,
-30.2561,16.4104,408.718,13.8464,3.0769,6.6667,60.0002,-30.2561,-118.9741,-30.7693,-147.1794,-3.0769,-67.6921,7.1794,
-32.3076,17.9487,403.5898,15.3848,2.0513,8.2051,64.6157,-40.5127,-125.6409,-39.4868,-159.9998,-2.0513,-75.3845,11.2822,
-29.4873,16.6665,399.231,16.6665,-1.2822,2.8203,57.1797,-27.9487,-134.1025,-24.4868,-147.9487,1.2822,-68.4614,12.0513,
-37.6924,16.6665,392.0513,19.2305,3.8462,14.1025,66.9229,-31.0259,-127.436,-39.4868,-159.231,-3.8462,-70.5129,15.1279,
-36.9229,14.3589,383.5898,8.2051,4.6152,6.1538,63.5898,-27.6924,-129.2307,-30.769,-144.6155,-4.6152,-62.0513,9.231,
-34.6155,16.1536,377.6921,7.4358,4.8718,6.4104,65.8972,-27.4358,-128.4617,-25.3845,-146.9231,-4.8718,-59.231,11.5383,
-38.718,21.7947,372.051,11.0256,4.8718,12.051,69.9998,-31.0256,-130.5129,-35.1282,-161.9231,-4.8718,-66.9233,17.1794,
-36.9233,23.0769,365.6409,6.1536,8.7175,5.1282,67.1794,-22.5642,-131.7952,-26.1541,-146.9231,-5.1282,-60.5129,7.1794,
-40.7693,21.7947,356.6667,9.9998,12.051,11.5383,76.1536,-29.4871,-125.3848,-38.718,-155.6411,-8.4617,-67.436,8.4617,
-38.4617,17.4358,355.8972,12.3074,3.0769,5.1282,68.7175,-26.1541,-130.2566,-28.2053,-157.436,-3.0769,-66.667,14.8718,
-35.1279,19.7437,357.1797,14.1025,3.8462,0.25635,68.9746,-24.8716,-127.9485,-23.8462,-156.1536,-0.25635,-61.7947,17.6924,
-41.282,24.8718,349.4871,18.2053,3.3333,6.4104,73.5896,-28.4617,-131.0256,-35.6409,-171.1536,-3.3333,-71.5386,21.282,
-32.3076,26.1538,348.2051,17.436,1.5386,6.6665,68.2051,-14.3589,-136.4104,-23.5898,-160,-1.5386,-66.6667,15.8975,
-31.2817,24.1025,345.6411,18.4614,6.1538,10.7695,79.4873,-26.1538,-127.1794,-37.4355,-172.3076,-6.1538,-69.7434,13.8462,
-30.2561,25.1282,343.5901,20.0002,3.0769,4.6155,77.949,-23.5896,-128.7178,-27.6921,-168.7178,-3.0769,-68.7178,15.385,
-31.0256,23.8464,339.7434,16.1541,1.282,3.8464,76.1541,-17.6921,-133.5896,-23.8459,-164.8718,-1.282,-66.4102,10.0002,
-37.436,20.5127,331.2817,13.333,4.1025,4.6152,84.6152,-28.2056,-131.7952,-38.8459,-179.8718,-4.1025,-72.3079,12.8203,
-28.2051,25.1279,330.2563,15.3843,8.7178,0,82.0513,-17.436,-128.2053,-25.6411,-164.8718,0,-60.0002,18.9741,
-29.4873,24.3589,322.8208,13.0771,7.436,6.4102,85.8975,-23.8462,-131.5383,-31.5386,-171.5383,-6.4102,-62.3076,16.667,
-27.6924,25.6411,319.4873,10.769,2.564,6.1538,83.5898,-18.9741,-143.0769,-32.8203,-171.7949,-2.564,-62.564,10.2563,
-25.3845,27.949,320.7693,14.1028,4.3591,6.9231,83.3333,-14.1023,-142.8206,-33.0769,-170,-3.8459,-64.3589,3.8459,
-28.2051,27.6924,313.8462,20,7.1797,14.8716,91.2822,-22.564,-135.3845,-43.0767,-182.564,-7.1797,-72.3076,15.3848,
-29.4871,22.3079,298.8462,10.5129,-0.76929,0.76929,77.1794,-12.051,-140.2563,-28.0767,-167.564,2.8206,-63.8459,17.1794,
-38.4617,20.5125,288.7175,8.7175,-1.0256,5.6409,81.5383,-13.8464,-135.8977,-37.4363,-175.8977,1.0256,-68.2053,14.3586,
-36.4106,24.6152,291.7944,14.3589,2.0513,14.8716,89.2305,-9.231,-132.8208,-36.4106,-173.8464,-2.0513,-66.6667,20.5127,
-33.0771,22.3076,288.9741,8.9741,0.25635,11.0254,85.3843,-3.8462,-128.4617,-21.4106,-158.8464,-0.25635,-53.5898,21.2817,
-42.8206,19.2307,276.1536,5.8972,0.76929,15.1282,91.0256,-15.1282,-124.8718,-35.6414,-170,-0.76929,-56.6667,22.3074,
-39.4871,20,272.8203,2.0513,-1.5386,10.2563,85.6411,-4.6152,-134.3589,-26.6667,-162.564,1.5386,-51.282,17.436,
-39.4873,21.0256,270.7693,2.5642,1.0256,13.8459,87.6921,-6.6667,-132.3076,-33.3333,-164.6155,-1.0256,-56.9231,17.9485,
-44.6155,18.4617,263.5896,5.1282,-1.0256,11.282,85.6409,-11.7952,-131.2822,-33.8464,-168.718,1.0256,-63.5898,21.5383,
-38.9744,14.8716,263.5898,6.6665,-3.5898,3.5898,80.5127,-5.1284,-131.282,-18.8464,-160,6.6665,-54.8718,20.5127,
-38.9744,18.4617,262.5642,9.7439,-1.5383,13.3333,86.6667,-12.8206,-132.3076,-33.8459,-175,1.5383,-62.564,21.0256,
-32.8206,25.1282,259.4871,8.718,1.5383,11.282,83.5896,-3.0769,-138.9744,-26.1536,-167.1794,-1.5383,-62.0513,14.8718,
-33.0767,24.8721,256.1538,14.1025,5.8975,10,88.9746,-5.8975,-132.564,-30.5127,-168.9744,-8.9741,-61.7949,11.5386,
-34.3589,27.6924,254.3589,20,8.2051,15.3848,91.7949,-8.2051,-134.3591,-34.8721,-177.436,-11.7949,-64.6155,14.3589,
-26.4104,30.5129,253.0769,11.0256,14.1028,19.2307,88.4617,-2.8206,-141.7949,-30.5129,-166.4102,-14.1028,-66.4102,2.8206,
-17.1794,37.1794,254.615,17.1794,29.1028,34.2307,103.4617,-6.9231,-129.4873,-43.8464,-180.7695,-11.0256,-72.0515,6.9231,
-16.1538,33.0771,246.4102,15.1284,26.4102,25.8975,90.5127,-3.8462,-142.8203,-39.2305,-183.3333,-12.0513,-71.0256,3.8462,
-12.8203,41.5386,247.1797,19.4873,31.2822,34.3589,93.3335,-4.1025,-147.6921,-41.0254,-180.5127,-17.9487,-67.6921,4.1025,
-9.7434,49.7434,250.2566,24.6155,40.5129,43.5896,106.1541,-5.6409,-143.0769,-47.1794,-181.0256,-19.4871,-72.3076,5.6409,
-5.8972,44.3591,246.4104,17.6921,35.6409,32.0515,97.6921,3.8459,-146.9231,-34.6155,-166.9231,-20.2566,-66.9231,-3.8459,
-7.9485,46.9231,242.8206,23.8464,41.7952,47.0515,105.8977,-3.3333,-137.6921,-43.8459,-179.2307,-20.7693,-65.8972,3.3333,
-13.3335,42.0513,232.8203,20,36.4102,36.9229,90.8977,-2.564,-142.5642,-39.4873,-175.3848,-18.4614,-68.718,2.564,
-20.5127,37.436,222.564,13.3335,26.6665,24.1025,82.0513,0,-145.6411,-41.5386,-173.3333,-20,-71.282,0,
-27.6924,35.8975,214.8716,11.2822,18.9746,30.2563,88.7178,-7.1797,-141.0256,-48.7178,-180,-20.5127,-73.8462,7.1797,
-24.1023,28.718,213.8464,6.6667,17.4363,20.0002,77.949,-1.0256,-134.3589,-33.7178,-165,-14.8718,-61.5383,1.0256,
-23.0767,28.7178,214.3589,11.2822,29.231,21.5386,92.949,-2.0513,-123.5896,-36.4102,-166.1538,-13.8462,-57.9487,2.0513,
-25.3848,26.9229,206.4102,5.8975,24.3589,14.6152,95.1279,-0.25635,-131.0259,-37.1797,-167.949,-16.1538,-62.3079,0.25635,
-28.4612,25.385,202.3079,2.8206,19.2307,16.1541,85.8977,-1.282,-127.4358,-31.0256,-161.282,-15.6409,-62.8203,1.282,
-29.9998,24.8718,200.2566,6.9231,22.8206,25.3845,88.4617,-6.9231,-125.3845,-40.2561,-168.9744,-12.051,-62.3076,10.0002,
-24.6157,18.9741,194.3589,-4.1025,21.5381,12.8203,81.0254,4.1025,-130.2566,-27.1797,-153.9744,-9.231,-51.2822,5.1279,
-27.9487,22.8203,188.9741,-1.7949,29.4873,23.8462,87.436,1.7949,-120.7693,-36.1538,-154.6155,-11.5386,-55.6411,10.5127,
-35.8975,23.0767,180,0,22.0513,28.2051,75.8975,0,-134.3591,-44.6157,-164.1028,-15.8975,-70.6411,8.2051,
-30.2563,23.5898,177.9487,0,21.0259,26.1538,73.8462,4.1025,-132.8206,-40.5129,-156.4102,-14.8716,-67.6924,0,
-28.9746,30,177.1797,4.3589,32.0513,31.5386,85.8975,-4.3589,-117.8206,-48.9746,-164.3591,-16.1538,-65.3848,4.8716,
-25.3845,31.5383,177.6921,0.76929,28.9744,28.4617,74.1023,2.3079,-130.5129,-38.718,-156.6667,-21.282,-64.3591,-0.76929,
-18.718,35.1282,184.3591,5.3845,35.6409,43.3333,87.4358,0.76929,-133.5896,-47.9485,-163.8462,-22.8206,-71.5383,-0.76929,
-15.6411,35.1284,187.436,5.8975,42.3076,35.6411,96.1538,0.25635,-133.5896,-47.9487,-162.3076,-20.2563,-69.4871,-0.25635,
-6.9229,39.7437,189.4873,3.8462,48.4619,34.6157,94.1025,9.4873,-129.4871,-32.9487,-147.9485,-18.7178,-56.1538,-3.8462,
-8.7183,42.0513,181.0254,3.5894,45.6406,49.6157,93.8457,2.0513,-130.2566,-47.9487,-162.9485,-25.1284,-66.1541,-2.0513,
-9.2307,41.0256,176.4104,3.0769,37.4358,37.4358,78.8457,13.3333,-140.5127,-43.0769,-155.3845,-21.5383,-67.6924,-3.0769,
-12.564,40.2563,173.5898,5.8975,42.8203,34.6152,79.7437,5.3848,-137.1794,-52.564,-164.3591,-23.8462,-72.0513,-5.3848,
-10,39.7437,166.9229,4.8716,45.3848,38.2051,84.3589,0.25635,-130.5129,-45.8975,-165.8975,-21.2822,-69.4873,-0.25635,
-4.3591,35.6409,161.7947,-0.76929,39.7434,29.4871,75.6409,14.1023,-124.8718,-30.8975,-150.8975,-11.5388,-57.6924,0.76929,
-13.8459,30.2566,151.7947,-1.0256,37.4358,33.3333,75.8972,6.6667,-121.0256,-36.9231,-157.9487,-15.8977,-67.1794,1.0256,
-6.6665,35.3848,150.2563,0.5127,38.9741,35.8975,73.3335,15.3848,-120,-24.6152,-142.9487,-11.2822,-58.4617,-0.5127,
-7.1794,37.9485,152.8206,3.5896,37.9485,33.8459,77.4358,14.8718,-112.3079,-26.1541,-137.436,-11.282,-53.3335,-3.5896,
-15.3848,31.7949,150.2563,4.1025,25.1279,18.9741,71.7949,8.7178,-118.4617,-36.4106,-149.7439,-19.4873,-62.5642,-4.1025,
-7.9487,33.0767,153.5894,4.3589,19.2305,18.2051,65.3843,19.7437,-123.3335,-21.7949,-138.718,-19.7437,-58.2053,-4.3589,
-16.1538,35.1284,146.9233,4.3589,18.7178,32.0513,70.5127,8.4614,-123.3333,-36.7949,-153.718,-25.3848,-67.4358,-4.3589,
-15.6409,35.1282,143.8464,1.282,15.6414,17.0513,63.8464,14.6155,-122.8203,-33.0769,-147.4358,-18.718,-57.6921,-1.282,
-13.5896,30.0002,139.2307,-4.8718,20.7693,4.8718,71.5388,14.6155,-107.8203,-25.8972,-135.1282,-9.9998,-48.4614,6.9231,
-16.9231,23.5896,131.7947,-15.3845,22.5642,13.3333,79.4871,7.6921,-105.6411,-30.7693,-136.4104,-7.6921,-53.3335,12.3079,
-7.1794,22.5642,134.3591,-18.9744,21.0256,9.7439,70.7693,20.0002,-111.7949,-15.7693,-121.4104,-7.6921,-38.9744,7.1794,
-6.1541,28.718,131.7947,-4.6155,23.0769,4.6155,74.3591,21.5383,-96.7949,-14.3591,-115.3845,-5.1282,-31.282,17.4358,
-13.5898,24.8718,117.1794,-3.3333,14.1028,-6.4104,60.2566,27.9485,-87.4358,-1.7947,-104.8718,1.7947,-33.5898,21.7947,
-22.0513,17.4358,108.718,-8.2048,8.2053,2.5642,51.7952,20.0002,-91.282,-10.2561,-110.769,-2.5642,-43.0769,16.4104,
-25.3845,21.282,108.9744,-2.3079,2.3079,8.4617,53.0769,9.4871,-90,-25.2561,-125.769,-3.8459,-51.5386,22.3079,
-15.3845,27.1797,112.8208,2.564,-2.564,-3.5898,46.6665,24.4871,-84.6152,-10.2561,-110.769,4.6152,-43.5896,24.6152,
-22.3076,20.2563,107.436,2.3076,-1.7949,0.25635,47.9487,19.231,-79.7437,-14.6152,-117.1794,-0.25635,-51.0256,24.3589,
-25.3845,15.6411,109.4873,-0.25635,0.25635,-4.3589,42.8208,24.3589,-79.2307,-7.9487,-110,7.436,-41.282,27.436,
-25.3848,12.5642,111.5383,-7.9487,0.76929,-13.5898,43.8459,27.4358,-74.1025,-0.76929,-96.6667,10.5129,-28.4617,21.282,
-21.5386,13.8459,111.282,-7.6921,5.1282,-11.282,53.8459,21.5383,-65.1282,-5.1282,-96.4102,8.2053,-26.1538,24.1028,
-21.5385,2.5641,104.1024,-17.4359,-2.5641,-26.282,38.8459,24.6151,-72.3077,9.8718,-86.6666,5.641,-25.1283,13.8461,
-24.3589,-1.7949,102.8203,-19.7437,5.3848,-28.9744,44.8716,16.1538,-64.3589,1.7949,-94.6155,4.3589,-30,16.1538,
-16.6665,-2.3076,103.8462,-24.8718,12.0513,-28.4614,49.4873,16.1538,-59.7434,2.3076,-86.4102,5.8975,-26.4102,20.7695,
-15.3846,-6.6666,100.0001,-30.7692,7.1793,-37.9489,37.9489,17.9489,-60.5128,7.6923,-83.077,6.6666,-23.5897,13.8463,
-17.9487,-3.0769,99.4871,-16.9231,8.718,-27.6921,45.1282,18.4617,-54.8716,3.0769,-96.9231,14.3591,-27.1794,24.1028,
-19.7435,-3.3334,94.1024,-14.1027,3.3334,-34.6154,31.5385,31.0258,-57.1796,14.6156,-81.9231,13.5897,-22.8204,20.7694,
-27.949,-0.25635,86.4102,-10.5129,4.3589,-25.3848,30.5127,23.8462,-52.0515,0.25635,-89.4873,3.8462,-27.949,21.2817,
-25.6409,2.0513,83.0771,-6.1538,3.5898,-15.3843,31.7949,24.1025,-58.9744,-2.0513,-94.3589,8.7183,-30.2563,30.2563,
-20.2563,-1.282,82.8206,-7.4358,1.282,-14.6152,22.3079,30.0002,-64.3589,3.8464,-88.4614,7.4358,-27.9487,28.9744,
-27.1797,3.5898,85.6411,-1.5386,7.1797,-4.6152,27.6924,23.0767,-54.3591,-9.231,-103.4614,1.5386,-36.9231,33.3335,
-28.9744,-1.282,85.8977,-12.564,1.282,-17.6921,23.8464,30.0002,-57.1794,2.3079,-91.5383,5.8977,-32.564,25.8977,
-21.5385,-4.6154,91.2819,-12.3077,6.6666,-14.8717,36.923,32.3077,-46.1539,4.6154,-84.6154,12.8204,-22.5641,30.7692,
-23.5896,-3.5898,91.7949,-11.282,3.5898,-16.4102,36.9233,32.8203,-45.6409,6.1538,-86.6667,11.7949,-24.6152,33.3335,
-18.9744,-3.0769,93.8459,-15.8975,3.0769,-22.0513,34.3591,43.0769,-49.2307,20.5127,-71.6667,13.3333,-16.9231,28.718,
-18.4615,-7.1796,92.8207,-14.359,15.3846,-13.8461,47.1796,35.3846,-41.0258,7.1796,-75.8973,14.3588,-13.8461,33.8461,
-18.7178,-13.0769,86.9231,-20.769,12.0513,-24.3589,33.0769,33.5896,-44.8718,14.6155,-69.4871,14.6155,-12.0513,24.8718,
-19.2307,-11.0256,81.282,-20.7693,11.5383,-20.7693,33.0769,28.9744,-39.2307,11.0256,-68.4614,12.0515,-16.6667,18.718,
-22.5641,-6.6666,76.4103,-12.3075,9.7438,-16.923,33.3336,32.3077,-38.4613,6.6666,-70.7692,14.8717,-22.5641,24.1027,
-24.8717,-3.3334,76.1537,-7.4359,3.3334,-22.3077,18.3336,46.9232,-41.2821,21.6666,-59.2308,19.2308,-19.2308,22.8204,
-32.5642,-1.282,70.5129,-2.3079,1.282,-8.4617,19.7434,37.1794,-29.4873,12.051,-74.1025,15.1282,-26.9231,26.9231,
-23.077,-2.0514,68.2052,-1.5385,1.5385,-7.1796,18.9742,45.1281,-25.641,26.6666,-61.0258,22.5641,-21.0258,34.8717,
-23.3334,-8.4615,66.9232,-8.9745,8.4615,-16.1539,24.3588,41.7948,-30.0001,21.7948,-63.8461,19.7435,-22.3077,25.8973,
-24.6154,-10.7692,70.7692,-14.8717,20.5128,-16.41,37.9489,33.8463,-30.2562,10.7692,-71.7948,16.9235,-18.9742,18.4615,
-23.3334,-20.2565,68.9742,-26.9232,12.0511,-25.8976,25.8976,36.6666,-30.0001,16.1537,-56.7948,9.4872,-8.4615,8.4615,
-22.3077,-9.9999,71.0258,-16.1537,11.0258,-10.8976,33.5897,35.1283,-16.1537,9.9999,-59.7435,13.5897,-9.9999,22.8207,
-24.1025,-7.1794,66.6667,-17.9487,7.1794,-16.4102,25.1282,40.5129,-23.0769,23.5896,-55.8975,23.0769,-14.3589,25.6409,
-25.1282,-13.3333,66.1541,-23.5898,11.7949,-22.5642,22.5642,45.6409,-18.4614,26.6667,-50.7693,23.0769,-11.7949,21.5383,
-32.8203,-17.4358,63.5898,-24.1023,13.3335,-18.4614,25.1284,43.0771,-12.3076,12.3076,-63.0767,16.4106,-14.3589,22.0513,
-30.7693,-18.4617,61.5386,-29.2307,9.2307,-27.1794,16.9231,54.8716,-14.8718,24.6152,-51.282,19.4871,-9.2307,15.3845,
-31.5383,-18.7178,57.1797,-27.4358,12.564,-34.6152,25.3848,52.0513,-12.0513,12.0513,-63.8462,16.6665,-16.6665,15.6411,
-28.9745,-20.7692,57.1793,-24.8717,12.5641,-43.8461,23.3331,62.3077,-15.641,18.2052,-60.2565,16.1539,-12.5641,12.5641,
-27.6924,-22.0513,60,-24.6155,13.3333,-28.8461,19.4871,63.5898,-11.282,25.1284,-52.3076,15.8975,-6.1538,6.1538,
-33.5898,-19.231,58.2048,-17.1797,11.0256,-13.8461,22.8206,53.0769,-8.9744,10.1284,-66.9231,14.6155,-18.718,12.051,
-25.641,-10.7692,63.59,-9.7435,9.7435,-17.9486,19.4874,68.0769,-16.923,21.5387,-57.9486,18.9742,-16.923,16.923,
-30.5129,-10,61.7944,-12.0515,10,-15.1284,22.8203,61.2817,-14.6157,10.5127,-72.9486,12.0513,-23.8464,15.1279,
-27.9487,-12.564,60.2566,-16.1538,8.9744,-17.6924,20.7693,62.8206,-8.9744,18.718,-66.9231,14.1028,-17.1794,9.4871,
-18.2052,-14.1027,59.7438,-21.7948,14.6154,-23.8461,24.359,71.5387,-6.4103,24.8717,-51.9231,12.0514,-2.8204,2.8204,
-23.8461,-14.6154,54.6154,-26.4103,19.7438,-15.641,32.0514,61.795,-5.8976,9.8717,-66.4103,5.8976,-8.9745,8.4615,
-25.641,-14.8717,55.8976,-28.2052,14.8717,-21.0258,19.9999,69.7438,-6.6666,24.8717,-51.4103,9.7435,-3.5897,3.5897,
-28.2052,-14.8717,55.3844,-24.1027,21.0255,-19.4872,25.1281,60.5128,0.51282,18.9742,-58.4615,6.6666,-3.077,-0.51282,
-29.9999,-21.2821,45.8973,-32.0511,17.1796,-27.4359,16.6669,52.5643,-3.8461,12.5643,-67.4359,7.9486,-5.3846,3.8461,
-28.718,-23.5898,43.5898,-36.4102,7.6924,-36.4102,5.1282,62.0513,-2.0513,26.1538,-55.3845,13.3333,-2.0513,2.0513,
-37.9487,-25.6411,37.4358,-32.8206,8.718,-30.7693,14.3591,54.8718,-0.51294,11.1538,-70.2563,5.6409,-12.3079,0.51294,
-33.0769,-24.3589,38.718,-33.5898,13.5896,-26.9231,13.5896,65.3845,-3.8462,12.5642,-58.718,7.4358,-4.3589,3.8462,
-31.2821,-21.0258,45.1281,-27.6923,13.8463,-13.3334,20.5128,63.59,-2.5641,7.6925,-68.2052,7.1793,-9.2308,2.5641,
-25.6411,-10.2566,53.8462,-14.8718,15.8975,-7.1797,26.6665,67.1792,-4.6152,8.7178,-73.3335,13.8462,-10.2566,4.6152,
-25.3848,-11.5386,49.4871,-16.6667,11.5383,-18.718,11.6665,75.1282,-5.8975,17.6921,-65.3848,10,-2.8206,2.8206,
-36.4102,-18.4614,41.5386,-17.9487,4.6152,-18.9744,8.2051,61.5386,-3.5898,4.1025,-80.3848,3.5898,-16.4102,7.1797,
-23.8462,-17.1794,47.9485,-16.6667,4.8718,-25.3845,8.9744,69.4871,-4.8718,19.1025,-70,15.1282,-9.4873,4.8718,
-20.7692,-18.2052,44.8717,-18.7179,9.9999,-26.923,8.4615,67.4357,3.8461,17.6925,-72.0514,7.4359,-3.8461,-4.359,
-28.2052,-15.8973,37.4359,-16.923,9.7435,-23.077,4.6156,67.6923,7.6923,11.7948,-78.9742,1.5385,-8.2052,-1.5385,
-22.564,-12.8206,38.9746,-17.4358,8.718,-22.564,-1.0256,77.9487,4.6155,26.7948,-63.9742,11.2822,-8.7178,1.0256,
-32.3076,-21.0256,26.1538,-23.5896,3.5898,-18.9744,0.5127,62.9487,5.6411,11.7948,-78.9742,3.5898,-23.7178,-0.5127,
-26.6666,-19.4872,30.2567,-19.9999,3.5897,-25.641,-1.5385,68.205,9.2308,19.9999,-72.8204,4.1027,-14.359,1.5385,
-21.0255,-18.4615,37.9489,-16.4103,10.7692,-28.7179,1.5385,69.2306,12.3077,22.0514,-66.6666,3.077,-9.7435,-1.5385,
-21.7948,-17.6923,40.2567,-19.2306,13.077,-24.8717,5.3846,61.7948,11.5385,12.5643,-76.1537,3.3334,-14.1024,-3.3334,
-12.5642,-12.5642,48.9744,-19.2307,11.5386,-24.8718,4.3589,76.7948,12.0513,27.5643,-61.1537,7.4358,-4.3589,-7.4358,
-15.1282,-11.5383,46.4102,-13.5896,12.564,-16.6667,13.0771,70.5127,20.769,19.7437,-67.4358,1.7949,-12.0513,-1.7949,
-14.8719,-12.3077,40.5126,-16.9232,6.1537,-23.077,-0.51282,73.3334,17.9486,30.2562,-64.6156,6.1537,-13.3334,0.51282,
-5.8975,-3.8462,52.0513,-12.0513,11.5386,-17.1794,0.25635,77.6924,21.7949,35.1284,-62.3076,14.1025,-7.4358,-0.25635,
-12.3076,-10.7693,47.6924,-16.4102,10.2563,-20.5127,4.6152,62.6924,16.9233,20.1284,-77.3076,3.5898,-20,-3.5898,
-2.5642,-11.7949,46.6667,-20,10.769,-29.231,-1.0256,72.3079,22.564,33.8459,-62.3076,8.7178,-8.2051,1.0256,
-4.8718,-11.0256,40.2563,-19.2307,10,-20.7693,-2.8206,63.3335,27.9487,21.7949,-66.4102,5.3845,-13.5898,2.8206,
-3.8462,-5.3845,35.1282,-18.2051,11.0256,-16.1538,-10,64.8718,23.3333,25.8972,-67.9487,8.4614,-17.1794,3.8462,
-2.5641,-1.5385,30.7692,-17.9489,11.2819,-10.7694,-12.3077,69.2306,24.6154,28.2052,-62.0514,7.1793,-18.4615,1.5385,
-6.6667,-2.5642,28.2053,-14.3589,6.6667,-4.1023,-7.6921,61.0256,26.6667,13.8464,-74.3589,3.0769,-27.6921,2.5642,
-2.0513,-6.1538,34.3591,-16.4102,5.6411,-15.8975,-14.3589,72.3079,28.718,28.8464,-59.3589,13.8462,-13.8459,2.0513,
-12.3077,-11.795,33.8458,-18.4618,11.2819,-14.359,-6.1539,65.1281,37.4357,29.7433,-63.59,17.4357,-13.8463,6.1539,
-14.6155,-16.1538,32.5642,-22.3079,9.9998,-15.1282,-4.8718,62.3074,34.6155,26.9231,-60.2566,16.1536,-16.1538,4.8718,
-5.1282,-16.9231,36.9229,-25.6411,12.8206,-18.4617,-2.5642,65.1284,40.5127,34.3589,-48.718,15.8975,-9.2307,2.5642,
-16.6667,-23.8462,28.4617,-29.4873,6.4104,-21.282,-1.7947,51.5383,40.2566,22.3079,-63.718,8.9744,-22.3076,1.7947,
-6.4103,-18.7179,37.1793,-23.8461,6.4103,-18.7179,-4.8717,66.5383,43.8463,37.3079,-48.718,19.2308,-8.4615,4.8717,
-6.6667,-18.9744,35.3843,-27.1797,11.282,-12.3079,-3.0769,61.5386,50.2563,30.769,-49.7437,12.8203,-7.1797,3.0769,
-7.4359,-16.6666,32.0511,-30.0001,9.9999,-13.077,-8.4615,56.6669,48.4613,29.4872,-56.1539,14.1024,-12.5641,7.4359,
-3.8461,-16.1539,30.5131,-28.9742,4.8717,-15.641,-17.1796,65.8973,43.8461,39.2308,-44.359,15.641,-14.1027,3.8461,
-7.1796,-14.359,23.077,-21.5385,7.1796,-7.6925,-11.795,59.4872,47.6923,24.2308,-59.359,10.2562,-24.1027,7.1796,
-4.6154,-11.795,17.4359,-21.0258,4.6154,-15.3846,-23.077,65.641,42.0511,32.8202,-54.359,12.8204,-21.5385,5.641,
-4.6155,-9.2307,19.4871,-18.9744,7.6921,-6.1538,-18.9744,61.0256,42.5642,23.5896,-58.9744,12.3079,-21.0256,4.6155,
-5.1279,-11.7949,22.0513,-19.4871,6.1538,-4.1025,-18.4614,55.8975,37.9487,14.8721,-63.0769,10.7695,-21.5383,4.1025,
0.51282,-12.8207,26.1539,-18.4615,7.6923,-12.3077,-20.5128,65.6407,39.4869,29.8721,-48.7181,15.3844,-14.359,-0.51282,
-2.8206,-13.5898,25.3845,-17.6924,14.1023,-9.4873,-8.4617,60.7693,53.5896,25.8972,-54.1025,15.1282,-18.2051,2.8206,
-1.5385,-19.4872,26.1539,-28.205,6.1539,-22.5641,-17.9486,66.1537,56.9232,40.5131,-39.1025,18.9745,-8.205,1.5385,
-2.564,-22.0513,29.231,-28.7178,7.1794,-18.9744,-13.3333,63.5898,61.0259,37.436,-33.8462,19.4873,-1.0256,1.0256,
-4.3589,-23.8462,28.4617,-28.4614,11.5383,-15.1282,-5.3845,59.2307,60.7693,25.3845,-37.6924,18.718,-4.3589,4.3589,
-2.0513,-27.6924,29.7437,-34.8718,3.5898,-24.1025,-14.3589,63.0769,61.0256,36.9231,-22.6924,19.4873,-1.5386,1.5386,
-4.8718,-20.769,34.1028,-23.8462,4.8718,-11.0256,-7.4358,59.7439,72.5642,35.1282,-36.1538,21.7952,-4.8718,7.436,
-5.8975,-19.7437,32.564,-21.282,2.8206,-19.2307,-18.2051,66.9229,65.8975,45.8975,-33.0769,23.3333,-2.8206,4.3589,
-5.1282,-22.0513,29.2307,-21.5386,5.1282,-22.0513,-15.3848,62.5642,66.1541,41.0256,-31.7949,21.0256,-5.1282,6.6667,
-7.9486,-20.2565,22.8207,-18.7179,7.9486,-12.5641,-7.9486,55.1283,67.4359,28.4618,-41.2821,20.7694,-11.0255,11.0258,
-6.4103,-21.7948,20.2565,-24.359,5.3846,-17.1796,-20.7692,67.4357,66.4103,41.795,-26.2821,24.359,-2.8204,2.8204,
-5.1282,-19.4873,23.5896,-23.5898,5.1282,-12.3079,-18.4617,63.0769,70.7693,33.8459,-35.3848,23.0769,-8.718,9.7434,
-0.76916,-16.1539,26.923,-20.7692,0.76917,-13.5897,-21.7948,67.9486,62.8207,45.8973,-29.4872,24.359,-13.077,8.4615,
1.7948,-15.641,29.9999,-18.7179,5.8973,-11.5385,-17.6923,67.9486,68.4613,46.9232,-22.8204,24.359,-10.5128,-1.7948,
-1.7949,-16.1538,31.5386,-18.2051,7.4358,-14.1025,-13.5898,57.6924,74.1025,31.9232,-35.1282,22.3076,-10,1.7949,
1.7948,-18.2052,30.5128,-25.8973,0.25647,-27.9486,-27.4359,65.8976,64.8717,42.8204,-20.1282,20.2565,-0.25647,-3.3334,
1.7949,-17.6924,31.0256,-25.8975,7.436,-13.5896,-18.2051,59.7434,73.5896,37.1794,-24.3589,21.282,-2.8206,-1.7949,
1.7949,-20.7693,31.0256,-30,3.8462,-15.6411,-17.6924,57.1794,71.5383,35.6409,-22.8206,24.3589,-6.9231,-1.7949,
3.5897,-17.4359,30.7692,-24.6154,4.6154,-18.9742,-17.9486,61.5387,73.8463,37.4362,-13.8461,20.0001,-3.5897,-4.6154,
-0.51282,-13.8463,28.205,-12.3077,3.5897,-7.6923,-17.9489,57.4359,77.9486,31.2821,-22.5641,19.4872,-9.7438,0.51282,
7.9487,-11.0256,34.6155,-11.0256,-1.7949,-8.9744,-27.9487,70.5127,74.1025,46.2821,-7.5641,31.5386,-3.8462,1.7949,
1.2821,-11.5385,23.8461,-15.641,1.2821,-10.5128,-25.3846,61.2821,75.641,38.7181,-20.2565,23.8461,-8.4615,-1.2821,
-1.2821,-13.0768,13.5897,-16.1539,3.8461,-13.0768,-29.4872,62.8204,77.1793,39.7438,-15.641,22.8204,-2.8204,1.2821,
2.8206,-19.7437,18.718,-21.282,0.25635,-15.1282,-33.0769,62.8203,73.0767,41.7949,-10,22.8206,-0.25635,-3.3335,
3.5897,-14.359,25.6407,-21.0258,6.1537,-4.1027,-18.0769,52.3077,70.2565,27.1793,-25,15.3844,-8.7179,-3.5897,
3.3334,-11.5385,23.3334,-24.8717,8.9745,-12.5641,-21.7948,57.6923,63.8461,38.7181,-10,11.0258,-3.3334,-13.0768,
2.3077,-13.077,24.8719,-21.795,10.5128,-7.9489,-18.7179,49.9999,73.5897,29.4872,-14.6154,12.5641,-2.3077,-11.5385,
2.3077,-19.2308,26.4103,-26.9232,5.8973,-12.0514,-20.7692,47.4357,74.1027,28.9742,-19.2308,17.6925,-2.3077,-6.4103,
-0.51282,-26.6666,20.0001,-39.4872,4.6154,-23.5897,-26.6666,51.795,70.7692,36.923,-10.2565,13.8461,0.51282,-12.8204,
2.0513,-20,25.1279,-30.2566,10.769,-9.7437,-11.6666,49.2305,80.5127,28.2051,-15.8975,13.8462,-2.0513,-7.1794,
8.4614,-22.8206,28.9744,-30,0.25635,-22.3076,-24.8718,53.0769,77.1794,39.7434,-4.3589,19.2307,-0.25635,-12.5642,
3.8462,-25.3848,26.4102,-23.8462,5.3845,-21.2822,-25.3848,46.4102,78.7178,33.5898,-15.1282,17.6921,-3.8462,-12.0513,
3.3334,-15.641,27.4359,-13.077,15.1283,-7.9489,-13.5897,50.5126,76.1537,32.5638,-17.6923,21.7948,-4.359,-3.3334,
2.0513,-13.8462,25.1282,-18.4614,1.0256,-13.8462,-27.1794,56.4104,75.3845,41.0256,-3.0769,21.0256,-1.0256,-11.282,
1.0256,-7.6924,29.2307,-6.6667,2.0513,-2.5642,-23.0769,50.7693,90.3845,30.7693,-12.3079,21.0256,-3.5898,-1.0256,
5.8975,-13.5898,26.9231,-8.9744,3.8462,-8.4614,-30.5127,55.1282,80.2566,36.1541,-10,19.2307,-6.4102,-3.8462,
4.6155,-17.4358,24.6155,-16.9231,7.6924,-4.6155,-27.6924,53.3333,74.3591,33.3333,-11.7949,17.9487,-7.6924,-7.6924,
1.5385,-14.359,26.6666,-15.8976,3.5897,-1.5385,-23.5897,50.2565,77.9489,32.3077,-16.4103,20.0001,-9.2308,-3.077,
8.2051,-12.3076,29.7437,-17.9487,3.0769,-9.7437,-28.2051,53.3333,74.8718,37.4358,-4.1025,14.3589,-3.0769,-11.7949,
6.1538,-15.8975,23.0767,-20.5129,15.3848,-4.1025,-22.0513,40.5127,75.8975,22.4358,-14.8718,4.1025,-6.1538,-14.3591,
3.0769,-24.6155,15.8975,-28.718,7.6924,-17.9487,-33.3333,44.1023,74.3591,27.1794,-7.1794,6.6667,-3.0769,-17.9487,
0.76917,-22.3077,18.7179,-27.9486,5.3846,-16.6666,-26.4103,44.359,81.2819,31.5387,-6.923,11.5385,-0.76917,-17.1796,
0,-17.9487,17.436,-26.6667,14.8716,-8.2051,-19.4873,38.4614,82.0513,23.0767,-10.7693,18.9741,0,-5.1282,
-0.51282,-29.7435,10.2565,-39.4872,7.1796,-23.2051,-34.4873,36.4105,71.7948,33.3334,-0.51282,14.8719,0.51282,-17.4359,
3.0769,-22.0513,20.0002,-26.1538,11.7952,-20,-19.4873,30.7693,84.1028,28.718,-10.769,13.3333,-3.0769,-18.9744,
5.1282,-16.9231,22.5642,-21.0256,9.7437,-18.4614,-22.0513,39.4871,76.4104,31.282,-6.6667,14.3589,-5.1282,-16.9231,
4.6155,-21.5386,17.4358,-22.0513,5.6411,-19.4871,-33.3333,38.9744,72.3079,28.718,-8.2051,11.282,-4.6155,-15.8975,
4.6155,-20,17.9485,-12.3079,6.1536,-13.8462,-21.5386,29.7434,84.6155,23.0769,-17.9487,13.3333,-4.6155,-9.231,
2.5641,-22.5641,15.8973,-14.359,-1.0258,-24.1027,-31.2821,39.4869,87.1793,37.4357,-2.9487,14.359,0.51282,-14.8719,
1.282,-16.1538,15.1284,-9.4871,4.3589,-12.5642,-25.8975,42.8203,95.1284,31.0259,-6.4102,18.2051,-1.282,-5.8975,
6.1537,-14.359,16.41,-13.8463,0.51282,-17.4359,-25.1283,42.0511,84.6151,32.8202,-2.0514,22.0511,-0.51282,-8.2052,
2.3076,-24.8718,14.6155,-24.3589,-4.3589,-27.9487,-32.564,32.5642,74.1028,25.8975,1.7949,11.0256,-1.7949,-23.2052,
1.7948,-18.2052,18.205,-13.5897,6.4103,-12.9487,-25.8973,35.1283,87.4359,23.8461,-1.7948,13.077,-2.8204,-9.4872,
2.0513,-20.5127,9.7437,-21.5383,-2.0513,-24.6152,-37.9487,43.0769,79.4871,37.949,6.6667,14.8718,-4.1025,-16.4102,
4.6154,-17.9489,11.2821,-17.9489,3.5897,-15.3846,-25.1283,34.3588,84.1024,24.6151,-5.1283,13.3334,-3.5897,-16.4103,
3.3333,-17.6924,10,-17.6924,2.3076,-13.5896,-31.0256,29.4873,85.8975,21.2822,-4.8718,12.0513,-2.3076,-13.0769,
1.7949,-21.7949,4.8718,-23.8462,-1.7949,-17.6921,-41.282,30.5127,87.436,29.4873,5.3848,10,-2.8206,-18.7178,
3.0769,-13.8462,9.7434,-12.3076,4.1028,-4.1023,-27.1794,29.2307,95.8977,21.5383,-3.0769,11.282,-7.6924,-12.3076,
4.1025,-15.8975,10.7693,-16.4102,-4.1025,-16.9231,-41.0256,34.8716,81.5386,26.6665,5.1282,6.6667,-7.6924,-22.0513,
5.8975,-17.1794,15.1282,-20.2563,-2.8206,-16.6667,-36.6667,28.4617,82.8206,22.3079,2.8206,4.3589,-8.9744,-22.8206,
7.6921,-18.4617,17.9487,-19.4873,-5.1282,-19.4873,-34.8718,29.7437,90.2563,33.3335,5.1282,13.3335,-8.2053,-12.8206,
7.9486,-23.3334,12.0514,-23.3334,-12.0514,-26.923,-47.9486,33.59,87.4357,39.2306,8.9745,13.5897,-7.9486,-15.641,
15.6411,-12.0513,17.6924,-13.0769,0.25635,-11.923,-32.9486,31.0259,91.5386,25.3848,-0.25635,16.1538,-6.4102,-2.3076,
12.0513,-17.6921,12.5642,-23.3333,-12.564,-17.1794,-42.8203,32.0515,76.5386,30.5129,8.9744,13.5898,-10,-8.9744,
13.5896,-15.6411,10,-20.7693,-11.0256,-18.2051,-40.7693,29.9998,85.8972,34.1023,12.0513,16.6667,-10,-10.5129,
15.3849,-14.359,5.641,-18.9742,-7.6923,-15.3846,-39.9999,27.6925,90.7692,32.3077,9.7435,13.3336,-5.641,-12.3077,
9.9999,-18.2052,0.25647,-25.8973,-17.6923,-19.7435,-52.5641,32.0514,84.359,37.1793,19.7435,8.4615,-0.25647,-20.2565,
7.1797,-10.769,3.0769,-15.8972,-9.7434,-4.7435,-41.0256,29.7437,97.9487,30.2563,11.7949,17.9487,-3.0769,-5.2565,
11.0255,-18.2052,0.25647,-21.795,-11.0258,-15.1283,-50.5128,31.0258,94.6151,40.2562,19.2306,19.2306,-0.25647,-1.2821,
9.2306,-24.6156,-0.51282,-26.1539,-11.795,-18.9745,-46.1539,23.5897,91.2821,32.8202,17.9486,7.6923,0.51282,-5.1283,
5.3846,-22.3077,1.7948,-25.8973,-8.4615,-12.5641,-35.641,18.205,85.8973,21.7948,10.5131,3.8461,-1.7948,-6.4103,
7.6924,-28.718,0,-33.3333,-11.7949,-23.0769,-47.1794,18.9744,76.9231,25.1282,14.8718,0.5127,0,-19.4873,
8.4617,-23.8462,3.3333,-22.8206,-7.436,-12.5642,-33.5898,14.6155,87.4358,18.2053,3.8459,4.3591,-3.3333,-6.9231,
6.1539,-20.5128,2.5641,-22.0511,-16.923,-21.5385,-38.4615,22.5643,82.0511,31.7948,15.8973,10.7692,-2.5641,-4.1024,
3.8461,-22.8204,2.3077,-23.3334,-16.6666,-23.3334,-44.8717,23.3331,86.4103,27.4357,17.6925,8.9742,-2.3077,-7.4359,
1.282,-24.3591,-1.282,-19.231,-12.5642,-14.1028,-42.8206,19.2307,91.0256,21.282,5.3845,9.4871,-6.4104,1.7947,
4.1027,-27.1796,-7.1796,-25.641,-16.4103,-20.0001,-51.2821,23.0768,87.6925,36.282,16.4103,11.2821,-1.5385,1.5385,
2.8203,-24.3591,-8.9744,-24.8718,-11.0256,-9.4873,-42.3076,14.6152,102.6925,26.9229,9.4873,10,-2.8203,8.9741,
1.7948,-28.4615,-16.1539,-31.5385,-14.6154,-15.641,-52.5641,17.1793,96.6666,26.923,13.59,11.5387,-1.7948,5.8973,
4.6154,-27.6923,-15.8973,-30.7692,-7.6923,-13.3334,-51.2819,17.9486,84.1024,27.6923,10.2567,7.6923,-1.5385,1.5385,
9.7437,-15.3843,-5.6411,-15.7692,0,0,-37.9485,14.8721,90.2563,16.4102,-1.0254,7.6924,-6.1538,14.8721,
9.4871,-21.7949,-3.8462,-17.6924,-15,-15,-52.5642,18.7178,86.9229,19.231,13.9746,3.3333,-3.3333,6.4102,
4.3591,-25.8975,-1.7947,-22.3076,-11.5383,-16.6665,-37.5642,13.0769,93.5896,15.1282,10.0002,-0.76929,0.76929,5.8977,
0,-29.2307,-7.1794,-30.2563,-10.2563,-23.0769,-34.3589,15.8975,88.2051,25.1284,8.2051,0,2.0513,5.1284,
0.25647,-30.5128,-10.0001,-33.5897,-12.5641,-26.4103,-43.8461,18.7179,87.4357,24.8717,10.5128,1.7948,2.3077,-0.25647,
0.5127,-27.6924,-5.1284,-27.1797,-9.231,-15.3848,-41.0259,9.7437,90.769,9.8717,0,1.5381,0,7.1792,
2.5641,-30.7692,-7.1793,-33.3334,-16.923,-22.0511,-49.2306,15.8976,83.59,22.5641,10.2565,-2.5641,4.1027,6.1539,
1.282,-25.8975,-10,-26.9231,-14.1025,-13.0769,-37.1794,14.1028,93.5896,18.2053,3.3333,-1.282,3.8464,13.0769,
-0.76929,-28.9744,-11.5386,-26.9231,-18.718,-20.7693,-44.8718,14.1023,88.9744,17.1794,3.8459,2.3079,0.76929,16.6667,
0.51282,-34.8717,-14.359,-31.7948,-22.5641,-29.7435,-59.8718,15.8973,82.0511,22.5643,10.2565,2.0514,-0.51282,13.3334,
5.8972,-21.7949,-11.0259,-20.7693,-8.9744,-14.7435,-44.8718,11.5383,93.5896,20.7693,1.282,11.0256,-1.282,23.8459,
3.5897,-26.1539,-16.4103,-28.7179,-14.8719,-16.4103,-53.3334,9.7435,84.6151,24.1024,7.1796,4.1024,-3.5897,10.7694,
5.8975,-20.2563,-11.5386,-18.718,-10.5129,-8.9744,-46.9231,12.0513,91.5386,15.6411,3.8462,1.2822,-1.2822,18.7178,
5.3845,-13.5898,-10,-10,-14.1025,-7.436,-49.4873,17.1794,85.3845,15.1282,2.8206,6.4104,-2.8206,25.3845,
3.0769,-20,-8.718,-16.4104,-21.0256,-16.9231,-56.4104,15.3845,78.4617,25.1282,11.282,4.1025,-3.0769,11.7947,
7.436,-19.7434,0.25635,-13.5896,-12.564,-5.3843,-41.4104,10.5132,93.4617,20.2563,-0.25635,4.8721,-1.7949,20.2563,
4.6152,-29.2307,-4.6155,-28.2051,-20,-20.3843,-56.4104,13.3333,82.051,17.4358,2.0513,0,0,13.3333,
3.8464,-26.9231,-3.3333,-25.3845,-10,-19.2307,-44.3589,8.9744,79.7439,8.4617,2.8206,-2.8206,2.8206,14.6155,
4.8718,-24.3589,-0.76929,-21.7949,-5.8972,-16.1538,-34.6155,6.4104,79.2307,11.0256,0.76929,-1.282,3.3333,18.718,
6.6666,-29.2308,-3.5897,-32.3077,-15.8976,-24.6154,-49.2308,10.2562,73.3334,17.4359,5.1281,-4.1027,3.5897,3.718,
11.2822,-20,1.5386,-20.5129,-5.1284,-9.6154,-34.2308,8.2051,87.1797,6.6665,-1.5386,-1.5386,2.564,15.3848,
5.3845,-25.3845,-5.3845,-23.3333,-14.6152,-18.2051,-44.3589,11.0256,81.282,18.2053,6.9231,-1.282,1.282,19.7434,
1.5386,-25.6411,-7.6924,-23.5898,-16.4102,-13.3333,-50.7693,10.769,86.1538,17.9487,4.1025,-1.5386,2.564,19.4873,
6.9231,-18.718,-2.3079,-16.6667,-9.9998,-3.3333,-39.2307,6.4104,87.949,10.0002,-1.282,1.282,1.282,21.7947,
10.2562,-18.4615,-4.1027,-16.4103,-14.359,-11.2821,-47.6925,7.1796,80.5126,17.9486,7.6923,1.0258,-1.0258,19.4872,
8.718,-9.2307,-3.5896,-4.6155,-3.0769,3.7179,-44.1025,6.1536,91.282,5.6409,-6.1541,3.0769,-7.1794,34.3591,
9.9998,-10.0002,-2.8206,-7.4358,-4.3591,5.3845,-49.4873,13.0769,83.3333,12.051,-3.8464,2.8206,-8.4617,29.9998,
15.3845,-9.231,2.5637,-8.2053,-4.6155,1.0256,-36.9233,12.3074,80.5125,12.8206,-1.0256,-1.0256,-6.1541,22.5637,
13.5898,-9.4873,2.3076,-7.9487,-2.3076,0.25635,-31.0256,8.4614,83.3335,5.3848,-0.76953,-0.25635,-2.3076,26.4102,
3.077,-24.4873,-12.6924,-22.9487,-15.3846,-14.7437,-46.0256,9.2308,69.2306,13.3336,10.2565,-0.51282,0.51282,12.8204,
0.25635,-26.4102,-15.6409,-28.4614,-12.0513,-11.5383,-40.769,3.8462,79.231,10,1.7949,3.3335,-0.25635,18.2051,
4.359,-26.4103,-11.5385,-29.4872,-8.9742,-14.6154,-37.6923,5.8976,77.6925,15.1281,8.9742,-2.3077,2.3077,13.59,
5.8975,-30.5129,-10,-36.1538,-0.25635,-19.2307,-34.1025,0.25635,70.5127,5.8975,7.9487,-15.6411,3.8462,5.8975,
12.8206,-15.5129,-1.0256,-23.0769,12.3079,-4.2307,-19.1025,1.0256,74.8718,2.0515,-2.051,-8.2048,6.6667,20.8975,
8.2053,-20,-9.2307,-29.7434,-2.0513,-18.9744,-34.1025,5.1282,60.5129,8.718,2.0513,-12.8203,4.6155,12.3079,
13.3335,-13.3335,-4.6152,-17.436,8.7178,-3.9744,-21.0256,4.6152,72.8203,1.5386,-1.5386,-7.6924,4.1025,17.9487,
11.7947,-17.436,-8.2053,-18.4617,2.5642,-2.5642,-26.6667,3.5896,71.7947,3.5896,1.0256,-4.1028,-1.0256,16.4104,
11.2819,-20.5128,-9.7435,-23.077,-2.5641,-7.1796,-37.4359,7.1793,78.9742,10.7692,10.7692,-5.1283,2.5641,12.3077,
10.5127,-14.6152,-9.4873,-15.6411,0.76904,0.25635,-32.5642,2.3076,79.7437,3.3335,-0.25635,-5.3848,-0.25635,19.7437,
14.6154,-12.5641,-4.359,-13.0768,-3.8461,-3.3334,-38.2052,8.4615,64.7437,13.0768,8.4615,-3.8461,3.3334,16.1539,
12.3076,-12.3076,-2.0513,-12.8203,0.5127,8.2051,-28.2051,4.6157,73.3335,-0.51269,-2.564,-2.564,1.5386,17.9487,
6.6665,-18.4617,-9.231,-22.5642,-3.0771,0,-32.8206,4.6152,75.3848,1.0254,-4.6152,1.0254,0,20,
4.3589,-23.8462,-6.4104,-25.8975,-6.9231,-13.0769,-35.6411,3.8462,71.0254,8.9741,6.4102,-1.7949,1.7949,16.1538,
5.3848,-17.1797,4.3589,-14.1025,1.7949,-0.25635,-20.6411,-2.3076,79.231,-1.7949,0.25635,-2.3076,2.3076,25.3848,
5.3848,-23.3333,-3.3335,-24.3591,-5.3848,-10,-35.1282,1.2822,76.6665,6.4102,7.9487,-1.2822,1.7949,16.6665,
8.2051,-22.0513,-2.0513,-21.0256,-0.5127,-1.5386,-27.1794,-2.0513,86.6665,6.1538,4.1025,2.564,0.5127,16.9229,
6.6665,-19.4873,0,-16.4102,-3.5898,-4.1025,-23.5898,-2.0513,77.9487,3.0767,3.5898,0.5127,0,16.9229,
5.3845,-18.2051,-2.3079,-18.2051,-8.9744,-13.0769,-35.1282,5.3845,67.9485,7.4358,13.0769,-2.3079,2.3079,9.9998,
7.6924,-12.8208,-2.5645,-9.7437,0,-0.51318,-30.2566,1.0254,80.5127,2.0513,2.0513,0,-0.51318,20.5127,
7.9486,-20.7694,-10.0001,-17.6923,-7.4359,-10.5128,-45.2566,3.3334,77.1796,13.5897,6.41,2.8207,-2.8207,18.7177,
4.1028,-16.9231,-12.3074,-17.4358,-6.6667,-1.5383,-44.1025,2.5642,74.8718,6.1541,1.5383,6.1541,-8.718,20.5129,
7.6921,-8.2053,-4.1023,-12.3079,-1.0256,9.2307,-29.7437,4.1028,70.2566,-1.0256,1.0256,5.1282,-6.6667,24.1028,
10.0002,-17.1794,-0.76929,-20.7693,-7.4358,-1.7949,-34.6152,6.4104,63.8464,1.282,9.4871,-9.8718,0.76929,12.5642,
4.1025,-14.3589,2.0513,-14.3589,-2.0513,5.6411,-23.0769,3.0771,77.9487,-3.0771,1.5386,-5.1284,-1.5386,22.564,
-0.76917,-18.2052,-2.8204,-19.2308,-9.9999,-9.3589,-32.5641,7.4359,76.6669,11.9229,14.6156,7.4359,0.76916,19.7435,
1.0256,-23.0769,-2.564,-20,-9.7434,-15.3845,-30.769,3.0769,77.949,12.3079,14.8718,-1.0256,3.0769,14.8718,
4.1023,-20,2.5642,-13.8459,-5.1282,-9.2307,-27.1794,3.5896,74.8718,1.0256,4.1023,-7.1794,-1.0256,19.9998,
5.3849,-21.2821,1.2821,-18.7179,-12.0511,-17.6923,-42.1794,8.4615,66.923,2.8204,5.8976,-7.4359,-1.2821,11.5387,
12.5642,-11.5383,6.9231,-5.3845,-2.3074,-3.8459,-27.1794,3.3337,81.282,-3.3333,1.282,-1.282,1.282,20.7693,
12.8203,-16.4104,3.5898,-9.231,-12.8206,-13.3335,-34.3591,2.564,67.6924,6.6665,9.2305,-2.564,-2.564,12.3076,
12.5642,-13.0769,1.282,-9.4873,-13.0769,-4.3591,-39.2307,6.9231,67.4358,9.9998,8.9744,-1.7947,-1.282,9.4871,
6.6667,-4.6155,-7.6921,-4.1028,-7.1794,9.2307,-41.5383,7.1794,79.4871,1.5383,-1.0256,1.0256,-2.051,23.5896,
3.5897,-10.7692,-15.8973,-13.3331,-15.3844,-4.1024,-56.41,8.2054,72.308,10.2567,11.2821,1.5385,-1.5385,18.4618,
11.0254,-10,-4.8721,-7.9487,-7.9487,3.3335,-41.41,-1.2822,77.1797,1.2822,3.3335,3.3335,-3.8462,21.7949,
18.4612,-11.7952,1.5383,-11.7952,-8.2053,-2.0515,-32.8208,1.0256,71.282,4.1023,9.7434,-4.1028,-1.0256,16.4099,
11.7947,-18.4617,1.0256,-20.5129,-10.7695,-7.6926,-31.7952,-1.0256,70.7688,2.5637,15.8972,-9.7439,4.1023,7.1794,
2.8203,-19.231,3.333,-19.7437,-5.3848,-3.8462,-20.7695,-4.8721,79.2305,-1.7949,10,1.7949,6.4102,15.1279,
3.5897,-26.6666,-1.0258,-27.1796,-12.3077,-18.8462,-35.3846,-0.51282,72.8207,8.7181,18.4613,0.51282,2.5643,9.2308,
13.0769,-19.2307,5.8977,-16.1538,-5.3845,-3.8462,-21.7949,-3.3333,81.282,3.3333,14.1028,-3.3333,2.8206,16.6667,
10.5127,-21.7949,-0.25635,-20.2566,-9.4873,-4.8721,-26.4104,-5.3848,70,6.4102,14.1025,0.25635,6.4102,15.1279,
9.4873,-21.7949,-4.8718,-22.3076,-7.9487,-10,-32.564,-0.76929,66.9233,8.9746,17.1797,0.76929,9.4873,10,
15.1279,-10,2.3076,-10.5132,-1.7949,1.7949,-22.3076,-3.3335,72.564,-5.3848,2.8203,-8.4619,1.7949,14.6152,
20.2563,-9.4871,4.8721,-13.5896,-7.9487,-5.3845,-31.0256,-2.3076,63.3335,3.8462,13.0771,-14.6152,2.3076,6.9233,
14.3589,-9.231,0,-11.7949,-5.1284,3.5894,-26.667,-9.231,70.769,0,7.6919,-8.7183,1.5381,11.7944,
14.1025,-5.8975,-2.8203,-7.9487,-4.8716,8.9746,-31.5383,-0.25635,73.5898,4.3589,8.4614,-1.2822,0.25635,19.231,
16.1538,-8.9744,-5.3848,-12.5642,-6.9231,4.3589,-39.7437,1.7949,72.0513,4.3589,14.1025,-6.4104,-1.7949,14.1025,
17.4358,-3.5896,-1.5383,-7.6921,-0.51294,19.3589,-26.6667,-4.6155,84.6155,-1.5383,9.7434,4.6155,0.51294,28.2053,
5.8975,-18.5896,-13.0769,-22.6921,-15.5129,4.3589,-41.6667,-6.4102,69.6155,1.7949,12.564,0.25635,-0.25635,15.1284,
13.8462,-10.2563,-3.5898,-15.3843,-3.5898,14.3589,-31.7947,0.5127,72.3076,-0.51269,13.3335,-2.0513,8.2051,22.0513,
11.7949,-8.7178,-2.564,-8.2051,-6.1538,15.3848,-27.6924,0.5127,65.6411,-0.5127,9.7437,-2.0513,2.0513,24.1025,
4.8716,-17.6924,-6.4104,-18.2051,-19.2307,3.8462,-42.6924,1.7949,61.7949,6.4102,16.1538,-3.3335,-1.7949,10,
8.9741,-11.5386,0.25635,-10.5127,-7.436,17.1792,-27.6924,-0.25635,76.7949,-1.7949,10.5127,-2.3076,2.8203,21.2822,
5.8975,-21.7949,-8.9744,-20.7693,-17.1794,2.1792,-40.7693,-0.25635,62.8203,1.2822,13.5898,-6.9229,3.3335,16.1538,
6.4102,-19.7437,-5.8975,-20.2563,-12.0513,4.8716,-37.6924,0.76904,67.9487,-0.76904,12.564,-7.9487,4.3589,12.564,
7.6924,-13.3335,0,-18.4617,-4.1025,12.3076,-29.2307,0,72.8203,-4.6152,12.8203,-8.2051,5.6411,11.2822,
10.2565,-16.923,-2.0514,-23.077,-11.2821,2.0511,-34.359,-1.5385,64.1027,1.5385,21.0255,-8.2052,10.2565,4.1027,
15.3848,-10.769,2.0513,-10.2563,-2.0513,13.8462,-21.5386,-4.6152,75.3848,-3.5898,11.2822,-5.1284,11.2822,14.3589,
13.0769,-16.6665,0.76929,-20.769,-5.8975,-0.76929,-33.0769,-0.76929,71.5383,3.8464,18.718,-8.9744,8.4617,2.3079,
13.8464,-15.3845,6.6667,-22.051,-4.615,-1.0256,-24.1023,-3.5896,74.3591,1.0256,18.4617,-6.6663,8.2053,1.0256,
10.7688,-13.3337,5.1282,-16.9231,-5.1287,3.0769,-19.4875,-10.7693,77.4358,-3.0769,10.7688,-4.6155,7.6921,12.3074,
11.7947,-17.436,0,-20,-7.1794,-1.0256,-34.4875,0,79.9998,11.9231,25.7688,-1.0256,14.8718,11.7947,
6.4104,-15.1282,-0.76929,-13.5896,-1.7947,12.0515,-26.9231,-5.8972,80.2566,-3.0769,13.5896,0.76929,5.3845,14.6155,
5.6409,-13.8459,-1.0256,-13.8459,-5.1282,5.1282,-24.6155,-5.1282,68.2053,-6.1541,15.3845,1.0256,9.2307,11.282,
7.436,-15.1282,-1.2822,-16.6667,-5.8975,5.3848,-25.8975,-7.9487,71.5386,-0.76904,21.7949,0.76904,17.6924,12.0513,
4.6155,-18.4617,-2.0515,-17.9485,-6.6667,7.1794,-25.1282,-16.9231,67.6921,-1.0256,11.7947,1.0256,9.2307,12.8206,
10.2566,-18.9744,2.5642,-18.4614,-10.2563,-7.1794,-26.6665,-8.7178,63.0769,8.718,26.1541,-2.0513,13.3333,2.0513,
14.1025,-11.5386,7.9487,-8.4614,-3.8462,2.3076,-14.6155,-16.1538,78.0769,-2.3076,20.769,-5.8975,18.2051,10.5127,
11.2817,-15.8977,0,-13.8464,-11.7952,0,-29.6155,-21.0259,67.6919,4.1025,15.3843,-4.6157,13.333,10.769,
9.231,-17.4358,-4.6152,-17.9487,-11.7949,4.1025,-38.4614,-20.5127,64.6152,5.1284,11.7949,-4.1025,9.231,7.1797,
13.3333,-5.6409,1.0256,-8.2053,-1.0256,16.9231,-23.4614,-20.5129,79.4871,-5.1282,8.718,-1.5383,9.2307,21.0256,
11.5386,-13.5896,-2.3076,-20.769,-8.9741,2.3076,-37.6921,-23.3333,64.4871,2.8208,14.6157,-7.4355,6.4102,10,
11.282,-15.3845,4.1023,-21.0256,-3.5896,11.7947,-25.1282,-29.7434,55.8972,-7.6921,3.5896,-8.2053,6.6667,9.2307,
11.5386,-15.6411,3.8462,-18.2051,-7.9487,6.9229,-26.9231,-21.7949,60.2563,-6.9233,10.5127,-3.8462,13.0767,12.0513,
10.5125,-13.5898,0.76929,-13.5898,-12.5642,-0.76929,-38.718,-15.1284,62.3074,2.3074,20.2561,-2.3079,17.6921,7.9485,
8.7178,-10.2563,2.564,-6.1538,-9.231,7.6924,-30.7693,-23.0771,63.5898,-12.6926,8.7178,-2.564,13.8462,7.1792,
16.4104,-9.2307,10.7693,-5.1282,-10.769,0,-30.769,-12.8206,63.5896,-27.6926,23.7178,0,24.1028,1.0256,
8.4614,-8.4614,10,-1.7949,-11.0259,1.7949,-23.8462,-19.231,72.0513,-42.6926,23.333,-1.7949,20.2563,2.3076,
0.51294,-11.7947,3.5896,-5.1282,-17.9487,-0.51294,-32.3076,-19.4871,71.282,-35.3845,18.4617,7.6926,16.4104,9.2307,
