"AF3","AF4","F3","F4","F7","F8","FC5","FC6","O1","O2","P7","P8","T7","T8",
-3.8462,0.76904,1.2822,5.3848,-5.3848,-5.3848,-17.6924,-1.2822,27.9487,7.9487,13.5898,13.0771,-0.76904,-4.3589,
-10.5129,-4.3591,-2.3079,-0.25659,-13.0769,-9.9998,-27.4358,0.25659,12.9487,9.4871,8.9744,10.5129,1.282,0.76929,
-5.8975,-2.8206,0.25659,-0.25659,-12.5642,-13.0769,-32.5642,2.8206,-2.0513,11.0256,14.6155,9.4871,2.8206,0.25659,
0.51294,3.0769,3.5896,12.3079,-6.6667,-2.5642,-21.0256,-2.051,-0.51294,-1.0256,4.6155,6.1541,-3.5896,1.5383,
-7.9487,-1.7947,2.3079,7.949,-16.6665,-11.0256,-26.9231,1.282,-1.282,13.9744,10.0002,15.6409,-7.9487,3.3333,
-10.7693,1.0256,-1.0256,4.615,-8.2053,-3.5901,-19.4875,-1.5388,4.1023,7.6921,5.1282,19.9998,-5.1287,6.6663,
-2.3076,-0.25635,-2.3076,2.8203,0.25635,-0.76904,-19.231,1.2822,-4.3589,1.7949,5.8975,13.0767,-0.25635,7.9487,
-6.6665,-3.0767,-2.564,2.564,-0.5127,-1.0254,-28.7178,3.5898,0.51269,0,7.1797,4.1025,0,5.1284,
-13.8462,3.0771,-3.5898,6.1538,-2.0513,5.1284,-27.1792,-2.0513,13.8462,-5.6411,2.0513,3.0771,-5.6411,6.6665,
-4.3591,1.7949,-1.7949,-0.76904,-8.4617,-2.3079,-25.3848,1.2822,5.8975,9.3589,17.0513,7.436,-2.3079,0.76904,
-1.5383,4.1028,1.5388,3.5901,-2.5637,9.2307,-10.3848,-1.5383,15.8977,-3.0769,5.1282,-1.0256,-1.0256,1.0256,
-8.9741,4.3589,1.7949,7.9487,-3.333,10.5132,-14.1025,-2.3076,18.7183,-3.8462,-1.7949,4.3589,-3.8462,7.436,
-11.7949,0,-1.0254,3.5898,-9.2305,0,-29.1025,0,7.6924,10.7695,8.7183,15.8975,-1.5386,5.6411,
-10.5127,1.2822,-2.8203,6.4102,-1.7949,1.7949,-23.3335,-3.3335,-7.3076,0.25635,1.2822,9.4873,-0.25635,3.3335,
-7.9485,-3.3333,-0.76929,0.76929,2.3079,-7.9485,-13.0769,0.76929,-9.4871,10.0002,14.6155,7.9485,-1.282,1.282,
-8.2051,0,-2.5645,0,-3.0771,0,-16.4104,0.5127,5.5129,5.6411,15.3843,9.2305,-3.5898,6.1538,
-16.4102,0.51294,-6.6667,-1.0256,-18.0771,1.5383,-31.4104,2.5642,-9.4871,3.0769,8.718,12.8206,-0.51294,6.6667,
-12.3076,-1.5386,-0.5127,-1.5386,-13.8462,0.5127,-30.7693,7.6924,-24.4871,12.3076,16.9229,16.4102,7.1797,3.0771,
-11.7947,-2.5637,-5.6409,-1.0256,1.1538,4.6155,-15.7693,-2.5637,-9.4871,1.5388,8.718,8.718,-2.5637,2.0515,
-7.4359,-1.2821,-2.8207,0.76941,-1.795,-0.76941,-21.795,2.3075,-10.0001,16.5388,18.205,20.7694,0.76941,8.4613,
-9.4873,-0.76904,-0.25635,0.25635,-9.4873,2.8203,-26.9231,-1.7949,-4.3589,2.8203,3.8462,16.6665,1.2822,5.8975,
-8.2053,1.0256,-1.0256,1.0256,-5.6409,4.6155,-22.0515,-2.0515,10.6411,-2.0515,4.6155,13.8459,-1.0256,4.6155,
-6.6666,-2.0514,-0.51282,-1.5385,-2.5641,0.51282,-18.9742,6.1539,-3.5897,12.9485,19.6155,17.4357,5.6412,2.0514,
-12.3076,-1.0254,-4.6152,0,0,10.7695,-11.2822,1.0259,-11.2822,-2.0515,4.6155,11.7949,7.1797,2.0513,
-11.0256,-2.3074,-3.8459,-0.76929,-8.9744,2.3079,-22.3076,3.3333,-3.8459,4.3591,10.0002,21.282,0.76929,1.7952,
-8.2051,-2.0513,-0.5127,0.5127,-3.5898,2.0513,-20.5127,-1.0254,11.1541,12.3076,20,23.5898,-0.5127,2.0513,
-10.7693,-1.5383,-0.51294,0.51294,-2.051,-5.1282,-14.3586,-5.1282,15.8977,6.6667,16.9231,17.949,6.6667,6.6667,
-11.2819,-2.5641,-0.51282,0.51282,-10.2562,-16.923,-24.1024,2.0514,0.89771,12.3077,21.0255,17.4362,5.6412,3.59,
-11.5386,6.4102,-3.3335,11.0254,-4.3589,-1.923,-22.8208,1.7949,-0.25635,-2.6923,6.0255,13.5898,-9.3588,2.3076,
-13.8462,4.6152,-8.7178,5.1279,-15.8975,13.077,-32.3079,1.5386,2.0513,-0.5127,-3.5898,10.769,-18.9746,0.5127,
-12.564,4.8721,-3.3335,3.8462,-20.2563,13.0771,-19.2305,0.25635,-0.25635,1.2822,-1.7949,11.0259,-15.1279,2.8208,
-8.4614,7.436,4.3589,14.6152,-9.4873,13.5898,-4.2305,0.25635,-3.8462,-2.8203,-2.8203,18.7178,-10.5127,15.1284,
-8.4617,-1.7947,-1.7947,9.4871,-17.6924,1.7947,-19.2305,4.8718,-8.9744,12.1797,5.8972,21.7947,-2.8206,11.5383,
-8.2053,3.0769,-2.5642,9.7434,-9.7439,8.718,-26.6667,1.5383,-2.0515,-1.5383,-4.1028,14.3591,4.6155,3.5896,
-11.0259,0.76904,0.25635,4.8716,-4.8721,4.3589,-14.6152,-1.7949,-10.5127,-5.8975,3.3335,11.0254,0.25635,-0.25635,
-10.5127,-0.76904,-0.76904,6.9233,-6.4102,9.4873,-15.6411,2.8203,0.76904,-1.7949,10,13.5898,-3.3335,7.9487,
-7.1794,7.6926,-1.0256,15.8977,-3.5896,21.5383,-7.6921,5.6414,1.0256,-6.1536,-4.6155,13.3333,-8.2048,14.8718,
-6.4102,1.7949,-0.25635,5.8975,-4.3589,6.5383,-8.4614,1.7949,-13.9744,4.8721,0.25635,11.0259,-11.0254,-0.12817,
-6.9229,4.3589,-0.25635,6.4102,1.2822,5.8975,-12.564,-0.25635,-1.2817,0.25635,1.7949,8.9746,-3.8462,-1.2817,
-13.5898,0.25635,-8.9746,2.8203,-11.5386,2.8203,-27.564,1.7949,-11.5386,1.2817,-0.25635,5.3843,-4.8721,5.3843,
-11.0256,-1.282,-7.9485,1.7952,-12.5637,3.8464,-19.7434,2.8206,-13.0769,3.8464,1.282,8.9744,-5.3845,5.8977,
-9.4871,3.8464,-6.9231,7.4363,-7.9485,12.5642,-5.8972,0.76929,1.9231,-0.76929,-1.7947,14.6155,-7.9485,12.5642,
-14.3589,-3.0767,-9.7437,0,-14.3589,0,-19.4871,4.1025,1.0259,13.8462,9.7437,15.3848,-7.6924,9.231,
-10.5129,0.25659,-4.8718,3.3333,-0.76929,5.8972,-10.5129,-0.25659,1.282,-0.25659,2.3079,10.5129,-0.25659,4.8718,
-8.2051,0,-3.0771,4.6152,-2.564,2.564,-11.7949,-3.0771,12.3076,-3.5898,0.51269,14.3589,0,3.5898,
-11.5386,-1.7949,-5.3848,1.2817,-12.564,1.2817,-17.6924,0.25635,17.1792,5.8975,4.8716,15.6411,-7.9487,-0.25635,
-8.718,8.718,-5.1282,9.2307,-4.1028,16.2817,-5.1282,1.5383,17.9485,-1.5383,-4.1028,9.7434,-8.2053,7.1794,
-14.8718,-1.0256,-11.282,1.5383,-11.282,7.6921,-18.9744,-2.0515,2.9485,1.5383,1.0256,7.1794,-4.6155,6.6667,
-15.3848,-0.5127,-7.6924,8.2051,-6.6665,15.8975,-14.8716,0.5127,17.9485,-4.1025,1.0259,10.7695,-1.5386,11.2822,
-12.3076,2.564,-5.6411,7.6924,-4.6152,12.8208,-7.1792,5.1284,18.9746,-2.564,-2.564,11.7949,-4.1025,8.2051,
-10.5129,1.282,-5.8977,1.282,-1.7947,-2.1792,0.25659,-0.25659,6.9231,5.3845,-0.25659,9.4871,-0.25659,0.25659,
-12.8203,0,-8.7178,6.6665,3.0771,5.6411,2.564,-8.2051,16.9233,-8.2051,-12.8203,0,-3.5898,1.5386,
-13.3333,-8.2051,-10.2563,0,-9.7437,0.5127,-12.436,4.1025,16.9233,4.1025,0.5127,4.1025,-4.1025,0,
-11.0256,-2.8206,-9.4873,-2.3079,-4.8718,-2.3079,-16.1538,6.9231,9.4871,7.4358,6.4104,12.5642,4.8718,2.3079,
-11.5383,-0.76929,-8.4612,-1.282,0.76929,-9.9998,-8.4612,2.8206,-5.5129,13.0769,10.5129,19.7439,5.8977,4.8718,
-7.1794,-5.1282,-5.1282,-2.0513,-6.6667,-11.7949,-16.4104,9.7434,7.6921,23.5896,23.5896,25.1282,4.6152,2.0513,
-9.7437,-4.6152,-6.6665,-2.564,-10.2563,-5.6411,-16.9231,7.6924,20,14.3589,11.2822,18.9746,2.564,3.0771,
-8.4614,-3.3333,1.7949,-1.7949,-10.5127,-14.1025,-19.7437,14.6155,5,29.3589,24.8718,27.4358,8.4617,7.9487,
-8.9742,-4.359,0.25647,-0.25647,-8.4615,-11.0255,-18.2052,6.4103,-9.4872,19.2306,20.2565,18.7179,2.3077,0.76916,
-8.4617,-3.3333,-6.9231,0.76929,-10.5129,-11.0259,-16.1541,1.7947,5.5128,5.8972,11.0256,12.051,-0.76929,2.3074,
-5.6411,-3.5896,-5.1282,-2.0513,-11.282,-20,-16.4102,9.2307,2.0513,20.8972,20.5129,17.949,7.6924,3.5898,
-7.6924,-0.5127,-4.6152,1.0259,-5.6411,-5,-12.8206,3.5898,6.1538,7.6924,8.7183,10.7695,0.5127,-0.5127,
-6.9231,-0.25635,-5.8975,0.25635,-15.1282,-4.3589,-22.8206,5.3848,17.1797,11.5386,16.6665,15.6411,-7.4358,1.7949,
-7.1793,-0.51282,-6.1537,-1.0255,-17.9486,-7.6923,-19.4872,6.6666,25.1281,17.9489,21.5387,18.4615,0.51282,3.5897,
-10.769,-2.564,-8.7178,-2.0513,-14.8718,-4.1025,-17.9487,2.0513,12.8208,8.2051,14.3589,13.3335,5.6411,2.0513,
-7.4359,-0.76917,-4.8717,0.76917,-15.1281,-4.359,-25.3846,8.9742,-1.2821,22.8204,21.2819,26.4103,6.4103,8.4615,
-12.0513,2.8203,-6.9233,3.8462,-15.6411,-1.7949,-17.6924,1.7949,7.436,10.5127,6.2819,19.7437,-5.8975,9.4873,
-8.7178,2.0513,-5.1279,3.0771,-16.9231,-2.564,-13.3333,4.6152,-2.0513,10.2563,4.6152,10.2563,-4.1025,8.2051,
-8.4617,-2.3076,-10,2.8203,-18.2051,-0.76904,-23.8462,5.8975,0.76904,5.3848,13.0767,8.4614,-3.8462,2.8203,
-11.5383,1.282,-13.5896,6.9231,-13.0769,1.282,-23.3335,2.8206,12.051,-2.3079,-1.282,11.0256,-7.4358,1.7947,
-9.9999,2.3077,-5.8973,2.8204,-13.5897,-5.8973,-22.8204,8.9742,-2.949,12.6921,6.923,13.59,-2.3077,3.3336,
-14.1028,0.76929,-9.4875,3.3333,-22.8208,-0.76929,-27.436,2.3074,-12.0515,3.3333,1.7947,6.4099,-8.9744,1.282,
-13.5898,-0.25659,-12.5642,8.9744,-26.9231,-4.8718,-28.4614,2.8206,2.9485,10.0002,9.4871,15.6409,-8.4617,0.25659,
-12.3076,0,-8.718,10.7693,-22.0513,-6.6667,-21.5386,5.6409,17.9485,17.4358,15.8972,20.5129,-2.5642,0,
-15.8977,1.5383,-10.7693,9.2307,-22.5642,0.51294,-20.5129,1.0256,14.8718,2.4358,0.89722,7.6921,-9.7439,0.51294,
-8.205,1.5385,-7.6923,6.1542,-16.923,-2.5641,-19.4869,8.2054,-0.12817,11.7948,9.7435,10.7694,-1.5385,3.077,
-9.231,-0.5127,-12.8203,1.5386,-2.0513,0,-11.2822,1.0254,-6.1538,0.51269,2.564,10.769,1.0254,0,
-12.0513,-0.25635,-13.5898,2.3076,-1.2822,6.9229,-12.564,4.3589,1.7949,-0.76953,1.2817,13.5898,-2.3076,0.25635,
-8.2053,2.564,-9.231,2.564,-3.0771,2.564,-16.4104,8.2051,-4.1025,4.6152,4.1025,10.769,-2.564,-5.6411,
-0.51294,9.7434,-5.6409,10.2566,10.7693,4.1028,-5.6409,4.6155,-11.282,0.51294,-0.51294,8.718,-1.5383,-2.051,
-3.0771,0,-14.3591,0,3.0767,4.6152,-15.3848,0,-22.5642,5.6411,5.1279,4.6152,-12.8206,-7.1797,
5.8972,7.4358,-11.5388,0.76929,13.5896,19.6152,-0.76929,3.3333,-7.5642,-3.3337,-1.2825,4.8718,-9.4875,-5.385,
10.2566,10.7693,-9.2307,0.51294,19.4871,14.8718,-0.51294,2.0515,-16.9231,-9.2307,-9.7434,9.2307,-5.6409,-7.1794,
11.0254,10,-7.436,1.7949,16.1538,10.5127,-13.5898,2.8203,-20.2563,-1.7949,-5.3848,4.8716,-10.5129,-10,
13.0767,18.7178,-4.8721,7.9487,23.333,25.5127,-3.8462,3.8462,-5.2563,-6.4106,-11.0259,-4.8721,-13.0771,-6.4106,
9.4875,12.0515,-9.4871,0.76929,15.1282,14.1028,-6.9231,2.8206,3.8464,-0.76929,-6.9231,-0.76929,-11.0256,-6.4099,
-0.25635,8.4614,-16.667,4.8716,5.3843,20.2563,-11.0259,0.25635,3.333,-11.5386,-15.1284,0.76904,-16.667,-0.76953,
-1.7947,12.0515,-16.6667,10.0002,1.7947,35.2563,-8.9744,7.4358,-5.3845,-5.8972,-9.9998,3.8459,-16.6667,4.3591,
-1.0256,9.2307,-17.4363,4.1023,2.5637,33.3333,-1.5388,2.5637,-8.2053,-5.6414,-5.6414,9.2307,-6.1541,1.0256,
-2.0513,11.7949,-22.0513,6.6665,-6.1538,37.436,0,0,5.6411,-18.9741,-12.3076,11.2822,-6.1538,11.2822,
-10.7693,1.0256,-28.2051,-1.5383,-21.1538,26.6667,-15,7.6926,4.6155,-3.9741,-1.0256,11.7952,-13.3333,11.7952,
-13.8464,6.6667,-23.5896,11.7947,-16.9231,41.6667,-10.7693,4.6155,19.6155,-4.6155,-15.8977,14.3586,-6.6667,18.9744,
-16.1538,4.3589,-29.4873,8.4614,-27.436,32.564,-21.7949,10,4.6155,-3.8462,-13.5898,16.1538,-12.5645,17.6924,
-11.2821,-4.1027,-26.6666,-0.51282,-42.436,17.564,-30.7692,15.8976,0.51282,4.1027,1.4102,17.9489,-10.7692,13.8463,
-12.0513,5.8975,-20.769,8.9746,-33.0771,32.564,-15.7692,5.8975,15.5128,-10.8973,-12.0513,11.0259,-5.8975,25.3848,
-15.3848,1.0256,-25.6414,-3.0769,-48.0771,21.0256,-30.7692,17.4358,0.51282,4.1027,2.9487,10.2561,-7.1797,18.4612,
-15.8975,-2.564,-28.718,-8.2053,-51.2822,18.9741,-40,12.8203,2.564,6.1538,6.6665,8.2051,-10.2566,9.7437,
-15.1284,0.76904,-25.3848,0.25635,-39.231,23.8462,-25,6.9229,17.564,-0.25635,-2.3076,19.2305,-12.0513,20.769,
-13.5898,-1.7949,-21.7949,-1.7949,-43.3335,16.6665,-22.3079,8.9741,16.6665,5.3848,1.7949,17.6924,-10,20.769,
-6.9231,13.2051,-12.051,13.2051,-28.3335,31.6665,-7.3079,1.282,31.6665,-9.6152,-13.2051,2.6924,-4.3586,31.0256,
-6.9231,20.7693,-10.0002,28.2051,-13.3335,46.6665,7.6921,-5.8977,46.6665,-24.6152,-28.2051,0.76929,-0.76929,37.6921,
-15.1284,16.1538,-18.2051,28.4614,-0.25635,61.6665,22.6921,-20.8977,61.6665,-39.6152,-43.2051,0.25635,-5.8975,35.1279,
-16.4104,25.1282,-18.4617,34.8718,3.0769,76.6665,36.4104,-24.1028,76.6665,-54.6152,-58.2051,-3.0769,-5.6409,47.1794,
-18.9744,19.4875,-19.9998,30.7693,1.0256,70.2566,33.3337,-23.0769,91.6665,-69.2307,-55.8972,-9.2307,-1.0256,43.5901,
-21.7947,14.1023,-24.8718,27.9485,2.3079,66.4104,41.7947,-26.4104,91.5383,-80.2566,-62.3079,-17.6921,-2.3079,31.5383,
-14.6152,19.231,-23.3335,27.9487,-1.7949,58.7178,34.6152,-13.5898,82.3076,-65.2566,-47.3079,-4.3589,1.7949,39.231,
-20.5127,4.231,-35.8975,12.9487,-16.7949,43.7178,19.6152,0.5127,67.3076,-50.2566,-32.3079,6.1538,-9.2305,25.6411,
-5.5127,3.5898,-23.5896,-2.0513,-31.7949,28.7178,4.6152,15.5127,52.3076,-35.2566,-17.3079,21.1538,2.0513,15.3848,
0.25647,-0.25647,-16.1539,-5.3846,-46.7949,13.7178,-10.3848,30.5127,37.3076,-20.2566,-2.3079,33.0768,8.4615,11.0255,
-14.7435,-6.9229,-30,-4.3589,-55.6411,6.9233,-25.3848,15.5127,22.3076,-5.2566,4.3589,18.0768,-6.5385,11.5386,
-8.7179,2.5641,-21.5385,3.5897,-57.4359,-3.5897,-37.9489,30.5127,7.3076,9.7434,19.3589,28.7179,-2.5641,19.9999,
1.2821,-1.2821,-16.1539,-4.359,-64.359,-12.0514,-46.4103,45.5127,-7.6924,24.7434,34.3589,37.1796,1.7948,5.3846,
-6.9231,-1.282,-21.282,-1.282,-56.1538,2.9486,-41.282,38.2051,-11.0256,39.7434,35.6411,31.5386,1.282,6.4102,
-17.9489,-8.2052,-30.2565,-6.1539,-61.5385,-0.51282,-50.7692,26.6666,2.5641,45.1281,33.8461,28.7179,0.51282,15.8973,
-15.3846,-6.6666,-29.2308,-8.2052,-55.3846,2.5641,-35.8976,21.0255,2.5641,32.3075,25.1281,23.0768,-2.5641,17.9486,
-7.1794,0,-20.5127,0,-41.0256,12.8206,-20.8976,25.1282,-3.5896,21.5383,20.0002,24.1028,-1.5383,14.8718,
-12.0514,-6.4103,-26.923,-3.3334,-45.8973,9.9999,-32.0514,18.7181,3.3334,18.7181,17.6923,19.7435,-4.359,6.4103,
-14.8718,-5.6409,-33.3333,-1.5383,-45.6411,16.4104,-28.2051,9.7434,1.5383,8.2053,2.6923,15.3845,-10.2566,12.3079,
-9.7439,-2.0513,-26.1541,2.0513,-43.5898,12.8203,-23.0771,18.4614,-13.4617,15.8975,4.6152,19.4868,-8.2053,17.9487,
-12.0513,-1.282,-25.3845,1.282,-46.9231,7.949,-24.8718,18.2053,-28.4617,11.0256,4.8718,14.1028,-9.4871,11.5383,
-17.1797,-1.7949,-27.949,1.7949,-50.5129,8.4614,-21.7949,12.0513,-13.4617,9.4868,4.8716,15.6411,-12.5642,10,
-15.1283,-2.3077,-27.4359,2.3077,-52.5641,6.923,-26.923,15.6412,-2.8204,19.2306,11.0255,18.7179,-10.5128,13.59,
-15.1282,-2.8203,-30.5127,2.8203,-53.5898,11.5386,-38.2051,12.564,0.76904,6.9229,-0.76904,4.3589,-14.1025,13.0771,
-10.7693,-1.5383,-25.1282,3.5896,-52.8206,9.2307,-33.3333,12.3079,-5.1282,12.8206,1.5383,8.718,-12.3076,11.282,
-12.8206,1.5383,-24.6155,2.051,-50.7693,4.6155,-20.5129,9.2307,-20.1282,8.718,-1.5383,10.2561,-15.3848,5.1282,
-11.5383,5.3845,-24.3589,5.3845,-46.9229,13.5901,-23.8459,11.5388,-14.6152,2.8206,-2.8206,6.9231,-12.051,12.0515,
-8.9746,-0.76929,-24.8721,0.76929,-47.436,9.4871,-34.1028,13.5896,-7.436,11.5383,2.8206,11.5383,-6.4104,15.1282,
-8.2051,2.0513,-24.1028,4.1025,-41.5386,13.8462,-19.1028,16.9229,-7.6924,11.7949,-2.0513,21.0254,-5.6411,14.8716,
-9.4873,-1.7949,-26.4104,1.7949,-45.3848,7.9487,-17.6924,15.6406,-10.0002,13.5894,3.333,22.3076,-4.8721,11.5381,
-7.1793,-8.7179,-25.641,-0.51282,-43.5897,-1.5385,-22.5641,9.2308,1.0258,10.2567,8.7181,13.3334,0.51282,10.2567,
-10,-11.0256,-23.3333,-0.76904,-36.6667,-6.4102,-13.0769,5.3848,8.9741,6.4102,6.9229,10.5127,0.76904,8.9741,
-11.5385,-8.9742,-22.3077,2.8204,-49.4872,-6.923,-16.1539,11.5387,12.0514,21.2819,18.2052,22.8204,-2.8204,9.4874,
-17.9487,-5.6409,-30.769,7.1794,-64.4872,-1.0256,-31.1539,9.2307,11.7952,9.7439,3.2052,18.4617,-17.8204,9.7439,
-6.6665,0,-23.0767,8.2051,-58.9741,3.0771,-30.2563,17.436,0,15.8975,-0.5127,18.4619,-11.7947,14.3594,
0.25635,-3.8462,-22.3076,0.76953,-43.9741,4.8721,-20.2563,14.6152,-13.0769,11.5386,-0.25635,13.0771,-1.7949,3.8462,
2.0513,4.6157,-20,10.2563,-28.9741,16.4102,-7.6924,11.7949,-6.6665,-3.0767,-6.1538,12.3076,-2.0513,10.2563,
-3.5896,0.51294,-16.4102,4.1028,-27.1794,1.4102,-8.718,13.3333,-21.5383,1.5383,-0.51294,10.7693,-3.5896,12.3079,
-1.282,-2.3079,-16.6667,-1.7947,-14.6155,1.282,-2.8206,12.0515,-17.1794,6.4104,2.8206,13.5896,9.9998,9.9998,
-5.3845,-3.8459,-25.3848,2.3079,-19.2307,7.4358,-6.9231,5.3845,-2.3079,3.8459,-6.4104,14.1023,7.9485,10.5129,
-8.4614,-2.3076,-24.8718,6.4102,-32.0513,4.8721,-13.0767,10,-1.2822,4.8721,-4.8716,11.5386,1.2822,12.564,
-6.4102,-3.3335,-23.8462,6.4102,-19.7437,10,-0.25635,8.9741,0.25635,-8.4614,-6.9233,7.9487,8.9741,16.1538,
-3.8459,-6.9231,-24.8718,5.3845,-13.5896,8.4617,0.76929,8.9744,-0.76929,-4.8718,-4.3591,11.0256,15.6409,17.1794,
-2.5637,-1.0256,-22.5637,6.1541,-19.4871,5.1282,-5.6409,10.7693,1.5388,-8.2048,-11.7947,1.0256,3.0769,9.7439,
-2.3076,6.9229,-18.2051,14.6152,-16.6665,15.1284,5.8975,4.3589,2.3076,-20.769,-21.2822,-4.8716,-2.3076,12.564,
-8.9744,3.3333,-28.9744,13.0769,-20.7693,8.4617,0.25659,5.8972,-12.6924,-11.0256,-19.2307,2.8206,-0.25659,10.5129,
-12.8203,3.5898,-35.3845,9.231,-18.4614,5.1284,-3.5898,15.8975,-11.7949,-6.6665,-15.8975,6.1538,7.6924,10.769,
-13.0769,-5.3845,-34.1023,-0.76929,-24.3589,0.76929,-12.5637,16.1541,2.8206,2.3079,-4.3586,10.0002,13.0769,19.2307,
-7.4358,-3.8462,-28.4614,-0.76904,-27.4358,7.436,-17.1794,16.667,0.25635,17.3079,-0.25635,24.8721,11.5386,28.4614,
-9.9998,-0.76929,-27.9485,1.282,-23.8459,13.5896,-8.9744,7.4358,-7.9485,2.3079,-15.2563,15.6409,0.76929,15.1282,
-6.1538,0,-29.231,0,-20.0002,5.1279,-5.1284,14.3589,-18.4617,2.0513,-8.2051,4.6152,3.0767,6.1538,
-6.4104,2.8206,-36.1538,5.3845,-19.7434,12.5642,-10.0002,16.1541,-14.1028,-2.8206,-12.0515,2.8206,4.3591,19.2307,
-10.769,0.5127,-37.9487,4.6152,-29.2307,14.8721,-25.0002,12.3076,-22.564,1.0259,-16.9229,8.7178,-0.51269,25.1284,
-7.6921,-1.0256,-34.8718,1.0256,-30.2563,4.6155,-26.1538,15.8972,-30.7693,5.6409,-10.7693,7.1794,2.5642,10.7693,
-4.3589,3.8462,-31.0259,8.4614,-18.2051,5.3843,-11.1538,13.0767,-17.1797,-6.4102,-13.0771,6.4102,9.4868,8.4614,
-7.9487,1.282,-30,4.8718,-24.3589,-4.3591,-13.5898,13.0769,-15.6411,2.3079,-1.282,9.4871,8.4617,10.5129,
-15.8975,0.5127,-35.8975,5.1279,-25.1284,0.5127,-18.9746,11.2817,-6.1538,-0.5127,-7.1797,6.1538,8.2051,9.7437,
-16.4106,-2.0513,-37.436,4.6152,-18.4619,2.0513,-6.667,10.2563,-17.9487,3.0767,-13.3335,7.1792,12.8203,9.2305,
-7.9487,-0.76929,-29.4871,-0.76929,-7.4358,0.76929,1.7952,11.0256,-28.4614,4.8718,-6.4099,6.4104,20.2566,5.8977,
-6.9231,2.3079,-26.9231,1.282,-3.3333,10.5129,-1.282,7.949,-13.5896,-5.3845,-5.3845,7.949,25.8977,13.5896,
-10.2566,-1.5388,-32.8208,0,-15.8977,2.564,-11.7952,14.8716,-20.0002,9.6155,0,20,23.5894,20,
-13.8457,-4.6152,-37.4358,-2.0513,-8.2051,7.6924,2.0513,10.2568,-19.9998,3.0771,-14.8716,10.2568,15.8975,17.9487,
-13.3333,-10.2566,-35.8975,-7.1794,-1.0256,1.0256,4.1023,11.7947,-12.3079,4.6155,-6.1541,3.5896,17.9485,14.8718,
-6.1537,-5.1281,-29.7435,0.51282,-5.641,-0.51282,-1.0255,24.6156,-5.1281,19.6155,8.7181,17.4359,27.1796,19.9999,
-15.1282,-4.8718,-34.1025,6.4104,-11.5383,12.0515,0.25659,12.0515,-15.6409,4.6155,-6.2819,13.5896,18.2053,24.8718,
-13.5896,-7.9487,-28.4614,3.3333,-13.0769,0.76929,-0.76929,18.718,-30.6409,15.6409,-3.3333,14.6155,21.282,22.8206,
-14.1025,-7.4355,-30,-0.25635,-12.564,0.25635,3.8462,19.231,-15.6409,10,-4.3589,6.9233,18.7183,12.5645,
-19.7439,-6.9233,-33.5898,1.7949,-16.1538,10,-1.7949,17.1792,-10.5132,3.8462,-7.9487,9.4868,16.6665,18.7178,
-20.5129,-13.8462,-34.3589,0,-19.4871,2.0513,-11.7949,20,-25.5132,12.3076,0,15.3848,20.5127,19.4873,
-15.6409,-12.5642,-33.5898,2.3079,-12.0515,7.9485,0.76929,13.5896,-38.2051,-0.76929,-15,8.9744,19.7434,16.1541,
-5.6411,-6.6667,-27.6924,0.5127,-11.7949,7.6924,-0.5127,21.0254,-27.1797,14.2307,-7.1797,15.3843,25.1279,19.4873,
-7.6921,-5.6409,-30.2563,1.0256,-5.6409,11.7952,-1.0256,19.4871,-12.1797,9.2307,-7.1794,16.9231,23.5896,23.5896,
-12.3079,-8.2053,-34.3589,2.0515,-8.2053,10.7693,-2.0515,15.8972,-8.718,6.6667,-9.2307,17.4358,18.9744,25.6409,
-7.1794,-9.2307,-31.282,-1.0256,-17.9487,3.0769,-11.282,20,-23.0769,21.6667,1.0256,16.4102,24.1025,21.0259,
-5.3845,-4.8718,-28.4614,4.8718,-9.4871,7.949,-5.3845,11.0256,-9.4871,6.9231,-6.9231,13.0769,25.385,24.8718,
-6.6665,-13.3333,-28.2051,2.0513,-14.8716,-7.051,-10.2563,11.2822,-2.0513,16.9233,4.1025,22.5645,23.5898,23.5898,
-11.7949,-18.9744,-32.3079,0.51294,-20.5129,-9.7437,-14.8718,9.7434,5.6409,16.4104,-0.51294,19.4871,23.5896,16.4104,
-11.2822,-7.1797,-31.282,7.6924,-11.2822,4.1025,-12.3076,11.2822,-9.3591,9.231,-4.1025,12.3076,25.6411,20,
-5.1279,-2.564,-28.2051,6.1538,-4.1025,-3.5898,-5.1279,14.3589,-24.3591,10.769,2.564,10.2563,24.6152,14.3589,
-8.2048,-5.6409,-28.2048,8.2053,-1.5383,0.51294,9.2307,6.6667,-9.3591,-3.0769,-12.436,9.7439,24.1028,14.3591,
-13.8462,-12.3079,-29.7437,1.5383,-12.3079,-6.6667,-5.6411,14.8718,-1.0256,11.9231,1.0256,19.4871,29.2307,18.9744,
-12.5642,-7.9487,-30,-0.76904,-5.3848,3.3335,-4.8716,16.1538,-16.0256,13.0771,0.76904,15.6411,31.0254,14.6152,
-11.5386,-5.8975,-28.4614,1.7949,-2.8203,7.9487,5.3848,5.3848,-31.0256,-1.7949,-14.231,11.0259,25.8975,16.6665,
-7.6926,-7.6926,-23.5901,2.5637,-9.7439,-1.5388,1.0256,13.3333,-38.9746,13.2051,-1.0256,18.4612,26.1536,23.0769,
-11.7947,-7.1794,-28.718,5.1282,-3.0769,7.6921,4.6155,6.1541,-26.1541,-1.7949,-16.0256,3.4612,22.051,14.3591,
-5.1282,-3.0769,-22.5642,11.7947,-0.51294,6.1541,-0.51294,14.3591,-22.5642,0.51294,-11.282,11.7947,33.8459,11.282,
-6.4102,-2.3076,-21.7949,15.1284,-7.436,3.8462,-8.9741,14.6152,-7.5642,2.3076,-7.436,18.2051,34.1025,13.5898,
-9.2307,-1.0256,-26.1541,16.9231,-6.1541,11.282,1.0256,4.1023,-11.282,-10.7693,-22.436,10.2561,24.1023,20.5129,
-6.4104,-6.9231,-27.9487,7.9485,-2.8206,0.76929,-0.76929,7.4358,-26.282,4.2307,-15.1282,9.4871,23.3333,14.6155,
-10.2561,-0.51294,-26.1536,15.3845,-2.5642,11.282,0.51294,9.7439,-41.282,-4.6155,-21.0256,11.282,27.6926,20.0002,
-10.5129,-1.7949,-22.3079,16.6665,-17.5642,1.7949,-6.4102,18.2051,-29.4873,10,-7.436,21.2817,31.0254,24.8716,
-4.8718,-10.5129,-24.3591,5.8972,-4.3591,-7.9487,4.3591,17.6921,-27.9487,17.1794,-6.4104,17.6921,28.9744,13.0769,
-9.231,-12.3076,-32.3076,2.0513,10.6409,-2.0513,16.4102,6.1538,-29.7437,2.1794,-21.4104,4.6152,22.564,7.6924,
-9.2307,-11.282,-30.769,1.0256,8.2053,-13.8459,1.4102,11.7952,-42.564,13.8464,-6.4104,15.8977,32.3079,7.1794,
-11.0254,-15.1279,-31.5383,0.25635,19.7437,-17.6924,7.9487,1.2822,-53.0769,-0.25635,-7.9487,11.0259,40.2563,0.25635,
-0.76904,-14.6155,-25.3845,0.25635,34.7437,-19.7437,22.9487,5.3848,-58.718,1.7949,-6.9229,7.9487,46.9229,-0.25635,
0.51294,-13.8462,-25.1282,-0.51294,35.8972,-26.1538,18.9744,6.6667,-44.1025,1.5383,-9.231,3.0769,42.5642,-3.0769,
-1.5383,-7.6921,-24.6155,9.2307,27.6921,-19.9998,16.4104,4.1028,-40,-10.7693,-19.9998,1.5383,35.3845,1.5383,
4.6152,-3.0771,-18.9744,14.3589,34.8716,-14.3591,23.0767,11.2817,-55,-2.0513,-17.9487,2.0513,35.3848,-3.5898,
5.6411,2.0513,-19.4873,18.4614,44.1025,-2.0513,29.231,7.6924,-62.0513,-12.3076,-32.8206,-5.1279,35.3848,-3.5898,
2.0515,-7.1794,-22.0513,10.7693,32.3079,-16.9231,18.4617,8.718,-68.7178,-3.5896,-25.1282,-1.5383,31.282,1.5383,
4.3586,-7.4358,-15.6411,14.6155,35.1282,-14.1028,28.4617,8.9744,-63.8462,-3.3333,-23.8462,0.76929,30.5129,-0.76929,
7.9487,-2.3076,-15.1282,17.6924,38.7183,-10,23.3335,8.4619,-60.769,-0.25635,-28.4614,0.25635,33.5898,-7.9487,
8.9744,-7.4358,-20.7693,10.0002,39.7434,-13.0769,14.1028,4.8718,-59.7437,0.25659,-21.7949,-0.25659,39.2307,-7.4358,
7.1792,-6.667,-23.0771,13.8462,41.0254,-13.8462,23.0767,9.2305,-44.7437,-2.564,-20.5127,1.5386,36.4102,-1.5386,
1.0256,-18.9744,-27.6921,-1.0256,26.0254,-28.8462,8.0767,24.2305,-59.7437,12.436,-5.5127,11.7949,37.436,-15.8972,
-5.1282,-10.7693,-25.1282,13.8464,41.0254,-13.8462,23.0767,9.2305,-44.7437,-2.564,-20.5127,0.51294,40.5129,-0.89722,
3.8462,-19.2307,-32.0513,-1.1536,26.0254,-28.8462,8.0767,24.2305,-59.7437,12.436,-5.5127,15.5129,26.9231,-3.8462,
18.8462,-15.8973,-17.0513,-9.2308,11.0254,-43.8462,-6.9233,39.2305,-74.7437,27.436,9.4873,30.5129,41.9231,-16.4103,
3.8462,-27.9487,-25.3845,-2.3076,24.3591,-28.8462,4.3591,24.2305,-89.7437,12.436,2.3076,15.5129,40.7693,-28.9744,
-2.3077,-20.7692,-28.9742,2.3077,16.1539,-19.7435,3.3334,15.641,-104.7437,8.9742,-12.6924,7.9486,28.4615,-14.6154,
6.6667,-25.1282,-25.1282,-5.1282,17.9487,-34.7435,-8.2051,26.1538,-117.9487,23.9742,2.3076,5.1282,43.4615,-29.6154,
6.6669,-10.1282,-18.9742,9.8718,32.9487,-19.7435,6.7949,15.3846,-102.9487,8.9742,-11.2819,-5.641,48.7181,-14.6154,
8.9744,-7.436,-21.282,19.2307,39.7434,-14.6155,8.4614,22.8206,-117.9487,1.7949,-3.3335,-1.7949,40.2566,-13.0769,
5.3845,2.3079,-16.6667,34.2307,54.7434,0.38452,23.4614,7.8206,-102.9487,-13.2051,-18.3335,-16.7949,35.1282,-11.5383,
0,0,-24.6152,27.6924,43.5898,6.1538,26.1538,3.5898,-94.8718,-28.2051,-33.3335,-23.5898,22.0513,-22.0513,
6.4102,0.76904,-22.3076,24.8716,40.2563,-0.76904,19.231,17.1797,-98.718,-13.2051,-25.3845,-9.4873,32.0513,-20.2563,
-0.76929,5.3845,-26.4099,33.5901,55.2563,14.231,34.231,2.1797,-83.718,-28.2051,-40.3845,-19.2307,35.1282,-11.0256,
2.8208,-1.7949,-25.3843,24.8721,54.6157,1.7949,36.1538,7.436,-91.0256,-25.8975,-36.1538,-19.7437,38.7183,-17.6924,
10.2563,-2.0513,-20,26.1538,60.5127,2.0513,41.5386,10.2563,-104.6152,-28.2051,-29.7437,-15.8975,44.1025,-18.4614,
2.5642,-2.5642,-25.1282,30.2566,62.0515,5.6414,42.5642,3.5901,-89.6152,-38.9744,-43.5896,-9.7434,46.6667,-13.3333,
0.5127,-0.5127,-23.5898,33.8462,60,6.6665,42.564,6.1538,-74.6152,-26.6665,-40,-8.7178,47.6924,-11.2822,
4.8718,-1.7947,-26.4104,30.5129,59.7434,1.7947,44.8718,6.4104,-89.6152,-38.718,-46.9231,-23.7178,38.718,-21.7947,
9.7439,-3.0769,-23.5896,33.8464,69.7439,3.0769,53.8464,8.2053,-98.9744,-44.6155,-44.1023,-26.6667,46.6667,-20.5129,
2.564,-2.564,-25.1284,37.9487,69.7437,7.1797,54.3589,8.7178,-83.9744,-40,-45.1284,-15.8975,47.1797,-15.3848,
1.0256,-1.0256,-28.718,34.8718,59.4871,2.5637,46.1536,9.7434,-77.949,-33.8464,-52.3079,-21.0256,35.8972,-16.9231,
6.6665,1.5386,-26.1538,34.8721,54.8721,-1.5386,37.9487,9.7437,-92.949,-35.8975,-55.8975,-28.2051,33.3335,-23.0767,
5.3845,2.8206,-24.3591,40.2561,54.1023,-2.8206,35.1282,6.4099,-107.949,-47.949,-62.8208,-32.5642,27.9485,-33.0769,
6.6665,1.5386,-19.4873,40.5127,63.5898,-1.5386,48.7178,10.2563,-104.6155,-42.564,-48.2053,-29.231,34.8716,-29.7437,
3.3333,-1.282,-27.4358,34.6155,68.9744,1.282,53.5896,10.5129,-96.6667,-45.3845,-47.9485,-32.051,42.8206,-19.7434,
5.1284,-2.0513,-29.2305,37.436,65.1284,2.0513,43.5898,19.4873,-111.6667,-38.4614,-53.3333,-28.7178,41.5386,-18.4614,
7.6921,-4.6155,-23.5896,38.9744,71.282,4.6155,54.3591,18.4617,-118.9744,-36.9231,-51.282,-26.1541,41.0256,-24.1028,
3.0769,-3.0769,-27.1794,36.9231,75.8972,5.6409,61.5383,14.3586,-103.9744,-43.5901,-47.6926,-25.1282,43.5896,-18.9744,
3.0767,-2.0513,-24.6157,38.4614,68.2051,2.0513,46.5383,24.6152,-90.7693,-28.5901,-32.6926,-17.9487,51.2817,-15.3848,
2.564,-2.564,-23.5898,41.0259,70.2563,10.7695,43.0771,15.8975,-105.7693,-43.5901,-47.6926,-32.9487,45.1284,-26.6665,
1.7949,-1.7949,-31.0259,37.1797,70,6.4102,46.4102,14.6152,-120.7693,-55.6411,-62.6926,-41.7949,32.0513,-27.9487,
2.0513,-2.0513,-32.3081,36.4102,69.7432,6.1538,45.6406,20.5127,-125.1284,-42.5645,-50.2566,-28.7183,32.8203,-22.0513,
0.51294,-0.51294,-31.7947,40.0002,77.4358,14.8718,57.949,10.2566,-112.8203,-57.5645,-56.9231,-33.3333,35.3845,-28.718,
2.8206,-2.8206,-33.5896,38.2053,73.0769,7.949,56.6667,11.0256,-127.8203,-59.7434,-56.1536,-38.2048,37.6926,-37.1794,
2.564,-2.564,-34.8716,43.0771,73.8462,16.4102,53.3335,12.3076,-139.4871,-57.436,-63.5898,-38.9741,37.436,-34.3589,
6.9229,-0.25635,-29.4873,49.4873,76.1538,1.4102,51.0254,16.1538,-127.436,-53.5898,-57.1797,-32.0513,41.2822,-30,
18.7178,10,-14.4873,62.8203,82.8203,-10,64.8721,25.3848,-127.9487,-38.5898,-42.1797,-21.2822,55.6411,-25.3848,
3.7178,-0.25659,-28.4617,53.5896,67.8203,3.3333,53.0769,13.5896,-142.9487,-53.5898,-57.1797,-36.2822,40.6411,-35.1282,
1.7949,-1.7949,-30.5127,49.4873,57.1797,18.3333,45.8975,28.4614,-133.5898,-44.8716,-53.5898,-31.0259,36.6665,-22.3076,
1.0259,-1.0259,-26.6665,50.2563,63.0771,25.1284,54.8716,21.0259,-118.5898,-53.8462,-55.3848,-26.1538,39.4873,-23.0771,
-2.564,2.564,-31.2822,50.2563,53.3335,27.6924,48.7178,20,-129.2307,-57.9487,-64.1025,-26.1538,31.2822,-32.3076,
-0.51269,0.5127,-32.8208,47.6924,46.1538,42.6924,38.4614,33.8462,-144.2307,-45.1284,-50.7693,-24.1025,36.9229,-28.7183,
-3.5896,3.5896,-30.7693,56.4104,50.7693,54.8718,46.1541,30.2566,-129.2307,-60.1284,-61.5383,-31.282,36.9231,-21.5383,
-3.3333,3.3333,-27.4358,60.2566,47.949,39.8718,44.8718,33.0769,-124.8718,-56.6667,-60.7693,-31.5383,33.0769,-26.4104,
-1.7949,1.7949,-23.8462,62.3081,53.0771,41.7949,47.436,33.0771,-131.0254,-58.2051,-58.7178,-31.0254,37.1797,-25.8975,
-2.0513,2.0513,-28.2051,62.564,51.7949,45.6411,47.6924,34.8721,-134.3589,-63.0767,-62.0513,-29.7437,34.3589,-22.564,
0,0,-26.667,61.0254,51.2817,38.9741,51.2817,35.8975,-134.8721,-51.2822,-53.3335,-18.9746,35.8975,-28.2056,
-0.76904,0.76904,-22.3076,64.3589,57.6924,42.8203,58.7178,27.9487,-120.7693,-57.1797,-56.6665,-14.6152,38.2051,-28.4614,
-1.5383,1.5383,-20.5129,62.5642,48.718,34.3586,45.6409,37.9485,-109.231,-45.6411,-46.6667,-16.4104,39.4871,-30.7693,
-2.8206,2.8206,-20.2566,65.8972,46.9231,37.6921,48.4617,40.2566,-110,-49.4873,-45.8975,-23.3333,40.2566,-38.2053,
-1.0256,1.0256,-23.0769,67.1794,49.7434,40.5129,52.8206,33.3333,-125,-64.4873,-60.5129,-31.7952,33.8459,-39.4871,
4.1025,-4.1025,-18.4619,64.1025,52.8203,33.8462,46.1538,33.333,-140,-57.436,-56.4104,-28.2056,31.7944,-38.4619,
3.0769,-3.0769,-16.9231,65.1282,62.0515,42.0515,51.7952,27.6926,-141.5383,-65.6409,-63.5896,-33.8459,29.2307,-39.9998,
1.5383,-1.5383,-20.0002,61.0256,60.5129,42.051,52.8206,29.7434,-156.5383,-68.2053,-71.2822,-41.0256,27.1794,-44.1028,
3.8459,-3.8459,-17.1794,58.2053,58.2053,39.2307,56.1541,29.4871,-171.5383,-76.1538,-78.718,-43.8459,24.8718,-50.5129,
5.3848,-5.3848,-15.6411,61.7949,59.231,35.1284,60.769,30,-175.1282,-85.3845,-84.8718,-45.8975,16.6665,-58.2051,
4.3591,-4.3591,-14.6155,63.8459,58.718,33.0769,61.282,38.718,-162.8206,-70.3845,-69.8718,-34.1028,26.4104,-51.5386,
-0.5127,0.51269,-18.4614,64.1025,60.5127,44.1025,66.1538,38.9746,-149.7434,-68.2051,-59.4871,-32.8203,37.9487,-39.4873,
0.76929,-0.76929,-21.282,65.3845,60.2566,43.3333,62.8206,45.3845,-148.4614,-63.3333,-60.2563,-33.0769,37.6921,-40.7693,
4.1028,-4.1028,-19.4871,67.1794,61.5383,42.5642,57.9485,53.3333,-144.1025,-49.7437,-49.7437,-26.1541,39.9998,-40.5129,
1.7949,-1.7949,-22.3076,65.3848,57.6924,48.9741,57.1797,51.5386,-143.3333,-57.6924,-55.1282,-31.5386,33.0767,-39.7437,
3.8462,-3.8462,-20.2568,61.2817,58.7178,47.9487,59.2305,48.9741,-157.1797,-60.7695,-57.6924,-37.6924,30,-42.8208,
5.8975,-5.8975,-19.7437,59.2305,69.4868,50,70,40.769,-159.7439,-75.7695,-70.5129,-47.436,28.4614,-48.9746,
4.1025,-4.1025,-26.1538,57.9487,67.1797,52.8208,66.1538,39.4873,-156.4102,-83.0767,-73.8459,-47.1792,24.1025,-52.8203,
5.8975,-5.8975,-25.8975,60.769,61.2822,52.0513,57.1797,45.3848,-156.1538,-68.0767,-58.8459,-34.6152,28.4614,-45.8975,
6.4102,-6.4102,-25.8975,63.8462,66.9229,53.5898,65.8975,45.8975,-154.1025,-75.6411,-59.7437,-38.2051,28.4614,-39.7437,
6.6667,-6.6667,-25.6409,62.0515,69.2307,51.7952,73.3333,48.718,-159.4871,-76.9229,-60.5125,-44.6155,32.8206,-44.1023,
9.2307,-9.2307,-28.2053,62.051,69.2307,49.7434,70.7693,54.3591,-163.5898,-70.2566,-46.1541,-40.5129,39.9998,-48.718,
7.4358,-7.4358,-30.0002,69.9998,72.5642,54.6155,75.6409,57.6921,-154.6155,-68.9744,-43.8464,-34.1028,36.6667,-35.1282,
7.6924,-7.6924,-21.0259,72.8203,70.769,54.8716,82.0513,64.1025,-147.6924,-53.9744,-32.8208,-26.1538,39.4868,-26.1538,
8.718,-8.718,-18.4612,70.2566,72.3079,58.9744,76.9231,64.6155,-144.6152,-56.4102,-32.3074,-24.6155,48.718,-32.8206,
6.4104,-6.4104,-21.7947,72.5642,80.2566,63.3333,74.1028,58.718,-141.7949,-65.3845,-40.2566,-25.3845,49.4871,-28.4617,
6.9231,-6.9231,-21.282,70.5129,76.6667,49.4871,73.5896,58.718,-147.9487,-52.0513,-36.6667,-27.9485,42.3079,-31.5383,
7.6921,-7.6921,-21.5383,66.6667,74.8718,47.1794,78.9744,53.3333,-146.1538,-64.1025,-46.6667,-36.4104,38.9744,-41.5383,
8.2053,-8.2053,-18.4617,70.7693,75.8972,61.0256,84.1023,53.3333,-131.1538,-74.8718,-53.3333,-30.7693,43.5896,-33.3333,
7.9487,-7.9487,-17.6924,75.6411,67.9487,60.2563,78.7178,59.231,-124.8718,-63.8462,-48.4614,-23.8462,40.2563,-32.564,
6.6667,-6.6667,-16.9231,78.9744,71.282,56.9231,82.051,56.9231,-139.8718,-67.6924,-55.3845,-29.2307,33.8459,-37.4358,
7.6924,-7.6924,-14.8721,77.9487,78.4614,54.3589,86.6665,56.4102,-154.8718,-76.4104,-60,-32.3076,33.8462,-29.7437,
10.7693,-10.7693,-12.3079,78.9744,78.4612,54.3586,88.718,59.9998,-163.5898,-73.8462,-51.7952,-26.6667,39.4871,-27.1794,
10.5127,-17.6924,-10.5127,74.6152,72.0513,50,86.9229,54.6152,-148.5898,-70,-51.5386,-27.436,38.2051,-39.7437,
11.282,-16.9231,-11.282,72.3079,71.7952,50.2566,92.8206,52.3079,-147.1794,-79.4871,-66.1536,-34.8718,29.7434,-43.0769,
11.282,-13.3333,-11.282,76.9231,77.949,56.9231,102.0515,57.949,-160.5127,-85.1279,-65.1282,-36.4099,31.282,-37.4358,
8.4617,-13.0769,-8.4617,78.2048,79.7434,56.1536,94.1023,60.7693,-156.1538,-79.231,-59.231,-33.5896,34.6155,-40.2566,
8.4614,-8.4614,-8.4614,82.8203,77.6924,63.3335,87.9487,58.2051,-152.0513,-86.4102,-74.231,-34.6152,30.5127,-39.7437,
9.7437,-9.7437,-9.7437,85.1284,73.3335,67.6924,91.7949,54.8716,-143.5898,-89.2307,-76.9229,-38.9741,32.8203,-33.8462,
12.3079,-12.8206,-12.3079,82.5642,72.3079,57.4358,88.718,58.9744,-136.4102,-78.9744,-66.1536,-41.0256,36.4104,-33.8459,
12.8206,-12.8206,-13.8459,81.5388,71.282,52.8206,84.6155,63.5901,-142.0513,-72.8203,-64.6152,-37.4358,32.8206,-36.9231,
10.769,-16.9229,-10.769,77.436,71.7949,57.436,92.8203,56.9233,-153.3333,-79.4871,-62.564,-36.9229,32.3076,-42.0513,
10,-18.7183,-10,76.1538,76.6665,56.6665,95.1279,55.1279,-142.3079,-82.3079,-61.2822,-38.2056,33.5894,-41.7949,
11.5386,-20.2563,-11.5386,81.2822,74.6152,49.4873,91.0259,57.6924,-127.3079,-73.0769,-59.2305,-32.0513,32.564,-37.1792,
12.3079,-22.051,-12.3079,78.4617,70.7693,49.2307,101.5383,56.9231,-142.3079,-81.0256,-64.1025,-36.4104,32.8206,-41.5383,
11.0256,-24.8718,-11.0256,71.0256,77.6926,54.6155,112.5642,54.1028,-157.3079,-96.0256,-71.0256,-44.3586,35.1282,-44.3586,
12.0513,-28.9746,-12.0513,71.0254,78.7178,51.5381,98.7178,57.6924,-159.231,-81.0256,-62.8208,-34.6157,32.0513,-38.2051,
15.8975,-27.6924,-15.8975,73.8462,71.7949,48.7178,86.1538,68.2051,-147.6924,-66.0256,-51.7949,-27.6924,31.2822,-40,
13.0771,-25.8975,-13.0771,75.1284,74.6152,57.6924,97.6924,63.8462,-150.5129,-79.2307,-57.6924,-35.1284,36.1538,-43.3335,
10.7693,-29.7434,-10.7693,71.7952,69.7439,52.8206,91.282,64.6155,-161.5383,-78.4614,-63.5896,-37.4358,28.718,-48.718,
13.0769,-33.5901,-13.0769,70.5125,69.4871,47.9485,85.3845,71.5383,-155.6411,-71.5386,-66.4104,-40.2566,23.8459,-51.0259,
13.0769,-31.5383,-13.0769,78.2048,84.4871,61.282,100.3845,57.1794,-140.6411,-86.5386,-79.231,-46.4104,31.5383,-41.7952,
14.8718,-30.2566,-14.8718,75.8977,75.3845,49.7434,97.4358,58.9744,-151.282,-87.1794,-73.8462,-38.9744,26.1541,-41.0256,
14.6155,-37.6924,-14.6155,63.3333,63.3333,45.3845,82.4358,67.9485,-155.6411,-72.1794,-59.2307,-34.6155,21.7947,-48.4614,
9.2307,-29.2307,-9.2307,78.3333,78.3333,60.3845,97.4358,52.9485,-140.6411,-87.1794,-74.2307,-49.6155,24.1028,-35.3845,
14.8718,-28.718,-12.8206,81.0256,69.7434,46.1541,101.5383,47.6921,-138.9744,-102.1794,-89.2307,-48.2053,12.8206,-40.5129,
25.6409,-38.9744,-9.7437,66.0256,54.7434,31.1541,86.5383,62.6921,-153.9744,-87.1794,-74.2307,-33.2053,21.5383,-55.5129,
12.8206,-28.2048,-12.8206,75.3845,69.7434,46.1541,101.5383,61.0256,-138.9744,-102.1794,-81.0256,-45.1282,26.6667,-45.1282,
14.3589,-20,-14.3589,85.6411,70.7695,61.1541,98.4614,67.6924,-123.9744,-100,-83.0767,-40,23.0771,-30.1282,
16.1538,-35,-16.1538,70.6411,55.7695,70.5127,83.4614,74.1025,-137.6924,-85,-68.0767,-31.5386,17.6924,-35.6411,
12.8206,-29.7434,-12.8206,75.3845,66.6667,85.5127,91.282,63.5896,-122.6924,-91.7949,-79.9998,-35.8972,21.0256,-26.6667,
14.3591,-28.718,-14.3591,71.7947,60.0002,100.5127,83.5896,77.4358,-128.718,-82.5642,-72.8206,-31.282,28.2053,-21.5383,
14.6155,-29.9998,-14.6155,76.6667,62.8206,107.949,93.0769,69.4875,-113.718,-97.5642,-87.8206,-35.6409,22.3079,-23.3333,
13.8462,-39.4873,-11.7949,83.0767,59.4873,102.564,97.436,62.0513,-101.0259,-101.5386,-94.3589,-33.3335,11.7949,-20,
12.564,-53.0767,-12.564,79.7437,55.1284,87.564,92.564,68.9746,-116.0259,-86.5386,-79.3589,-33.0767,15.1284,-25.8975,
14.6155,-48.4617,-14.6155,82.8206,65.3845,98.718,97.1794,73.5896,-108.9744,-91.0256,-80.2566,-35.6409,22.8206,-21.7947,
13.5896,-48.4617,-16.1541,80.2566,54.6155,97.6921,83.8459,74.6155,-100.7693,-77.6924,-72.5642,-27.9485,20.2566,-13.5896,
14.3589,-47.6924,-14.3589,81.5386,51.7949,93.8462,84.1025,75.3848,-96.4102,-74.8718,-67.6924,-25.6411,20.5127,-14.8716,
15.3845,-53.8459,-15.3845,72.3079,54.3591,83.0769,82.5642,74.8718,-107.6924,-75.3848,-65.1282,-34.3591,25.1282,-28.718,
14.6155,-60.2563,-14.6155,64.3591,52.0515,80.2566,79.2307,67.949,-112.0513,-71.0256,-65.8975,-38.718,22.8206,-32.5642,
15.6409,-56.6667,-15.6409,65.8972,47.9485,77.6921,78.718,68.4617,-110,-71.0256,-65.8975,-38.718,16.1536,-31.0256,
17.4358,-60.5127,-17.4358,62.5642,45.1282,67.6926,71.282,70.2566,-104.1025,-65.6409,-54.8716,-36.4099,20.5129,-35.8972,
17.9487,-59.4871,-17.9487,65.6411,48.7183,75.8975,73.3335,67.1797,-89.7434,-68.2048,-61.5383,-31.2817,22.0513,-32.3076,
19.231,-58.2048,-16.1538,66.9233,48.4619,73.5898,74.6157,73.0771,-104.7434,-59.2305,-59.2305,-23.8462,16.1538,-29.4868,
16.9231,-59.4871,-14.3591,65.1282,51.7952,71.7952,83.0769,65.1282,-119.7434,-73.3333,-63.0769,-33.3333,14.3591,-35.8972,
17.436,-51.7949,-15.8975,74.8716,55.8975,81.0254,88.2051,64.1025,-115.3848,-88.2051,-77.9487,-40,15.8975,-29.231,
18.4617,-49.231,-18.4617,77.4358,52.8206,80.5129,80.5129,74.3591,-100.3848,-73.2051,-64.6155,-32.8206,19.4871,-22.5642,
16.4102,-48.7178,-18.9741,78.9746,60.5127,92.8208,90.7695,69.231,-85.3848,-73.3333,-64.6152,-35.3848,18.9746,-16.4102,
18.4614,-51.2822,-17.9487,72.3076,58.4614,83.0767,93.333,70.2563,-99.4873,-73.3335,-61.5386,-33.3335,17.9487,-19.4873,
17.1794,-58.2053,-17.1794,63.3333,61.282,72.5637,93.5896,63.8459,-94.6155,-63.8462,-56.1541,-23.8464,28.4612,-31.5388,
16.4102,-53.3335,-21.5386,69.231,70.769,78.4614,95.8975,65.1284,-79.6155,-60.5129,-54.8716,-16.4102,38.9741,-22.564,
14.3589,-57.4358,-28.2051,62.564,55.769,63.4614,80.8975,80.1284,-77.4358,-45.5129,-39.8716,-14.3589,33.3335,-20,
15.8972,-51.282,-23.0769,66.6667,55.3845,71.282,83.5896,81.0256,-72.3076,-43.5898,-37.9487,-15.8972,32.3079,-24.1025,
15.8972,-50.7693,-30.7693,67.1794,57.9485,71.282,84.6155,72.3079,-84.1025,-54.3589,-45.1282,-15.8972,32.3079,-27.1794,
19.2307,-56.1538,-33.5896,64.8718,56.6667,63.8459,84.3591,65.8972,-99.1025,-53.0769,-51.0256,-19.2307,32.051,-24.8718,
21.5386,-45.1279,-27.6924,72.8208,66.667,78.8459,99.3591,59.4873,-100.5127,-68.0769,-66.0256,-25.6411,22.0513,-21.5386,
21.5388,-41.0256,-29.7434,71.7952,55.8977,85.1282,91.282,71.282,-102.564,-56.9229,-57.9485,-16.9231,16.9231,-22.051,
19.4873,-44.1025,-36.4102,70.2563,45.6411,82.0513,81.0254,67.6924,-87.564,-61.5386,-54.8718,-18.4614,18.4614,-24.1025,
25.8972,-44.8718,-36.6667,64.8718,50.0002,67.9485,80.2566,64.8718,-78.718,-55.1282,-53.0769,-21.7947,21.7947,-30.5129,
25.3848,-48.9744,-37.6921,55.1284,58.2051,66.4102,77.6924,66.9233,-90,-48.9744,-44.8716,-23.8462,23.8462,-36.1538,
26.9231,-37.1794,-34.1028,65.8972,65.8972,81.4102,87.9485,71.0256,-80.2563,-62.3076,-54.6155,-25.3845,25.3845,-25.3845,
28.4614,-43.8462,-36.6667,58.2051,55.1284,66.4102,80.2563,70.5127,-81.282,-47.4358,-43.8462,-24.3589,24.3589,-36.1538,
30.7693,-46.6665,-38.4614,54.3591,70.1284,57.949,89.2307,60.5129,-66.282,-43.5896,-35.8975,-25.1282,25.1282,-46.1538,
42.3076,-31.6665,-31.5386,69.3591,85.1284,72.949,102.3076,67.9487,-76.6667,-46.9231,-42.8206,-24.3589,24.3589,-33.5898,
44.6152,-27.6924,-30.2563,69.231,84.1025,77.436,100.5127,71.2822,-90.7693,-44.1025,-46.6667,-21.5386,21.5386,-28.718,
38.2051,-30.5127,-38.2051,64.3589,80.7695,81.2822,97.1797,65.8975,-75.7693,-51.5383,-47.4358,-20.2563,20.2563,-26.4102,
30.5128,-41.7948,-48.4615,49.3589,77.1793,66.2822,82.1797,63.8463,-79.7435,-43.3334,-35.641,-23.8463,23.8463,-38.7179,
28.718,-44.6155,-46.1538,46.6667,83.0769,51.2822,84.6155,56.9231,-93.8462,-48.718,-37.9487,-28.718,30.2561,-47.6924,
32.8208,-35.3845,-43.0769,54.3589,83.0771,54.8721,97.9487,59.4873,-78.8462,-52.3076,-39.4871,-26.1538,26.1538,-42.564,
32.5641,-37.1796,-45.8976,48.9742,81.7946,39.8721,94.1027,57.692,-70.0001,-43.3334,-29.4872,-25.8976,25.8976,-45.3846,
31.0256,-35.6409,-47.4358,50.0002,93.0769,33.5901,95.1282,52.0515,-76.6665,-52.564,-36.6665,-31.0256,33.5901,-42.8203,
32.0511,-38.7179,-46.923,48.9745,84.8719,23.3334,86.41,61.2821,-76.1539,-37.564,-28.9742,-23.3334,35.1283,-37.6923,
29.4873,-46.4102,-45.3845,46.4102,78.2051,20.2563,89.4873,52.564,-62.3076,-34.1025,-30.5127,-20.2563,30,-41.282,
25.6414,-43.5896,-46.6665,49.2312,77.4363,18.9744,90.7693,43.5901,-64.1023,-45.1279,-40.5127,-18.9744,26.6667,-38.9741,
23.3334,-42.8204,-47.4359,46.9232,62.8207,11.5385,78.7181,53.077,-65.8973,-30.1279,-25.5127,-11.5385,29.4872,-32.5641,
22.564,-43.0769,-50.7693,44.6152,53.3335,17.9487,80,51.2822,-54.3589,-33.3333,-28.2051,-17.9487,29.231,-35.3845,
26.1539,-42.5641,-49.7435,45.1281,55.3849,16.923,79.4874,52.3077,-60.5128,-31.7948,-25.1281,-16.923,35.8976,-36.4103,
23.5897,-44.1027,-45.1283,44.6151,61.0258,15.3846,84.1024,47.1796,-50.7694,-30.2565,-17.4359,-15.3846,39.4872,-32.8207,
23.8462,-38.718,-46.4104,45.3848,62.3076,14.1025,92.564,46.9229,-35.7694,-31.0256,-17.6924,-14.1025,36.6665,-29.4873,
25.3845,-42.3079,-53.5898,41.7947,53.0769,6.4104,81.7947,53.5896,-38.2051,-17.6924,-6.4104,-7.436,41.7947,-31.0256,
21.2817,-44.8718,-54.6155,43.333,51.0254,11.5386,79.7437,48.4614,-33.0771,-27.9487,-15.6411,-11.5386,41.2817,-32.0515,
22.3076,-41.282,-51.0256,41.2822,48.4614,7.9487,74.6152,47.9487,-40.2563,-26.9231,-15.6411,-7.9487,30.5127,-30.5129,
21.7947,-45.3845,-55.1282,34.1028,44.8718,3.3333,72.5642,39.2307,-42.8206,-27.4358,-14.6155,-3.3333,23.8459,-27.4358,
20.769,-43.8462,-58.718,35.6411,43.8462,8.4614,79.7437,37.6924,-30.5129,-29.4873,-23.8462,-8.4614,29.4873,-25.8975,
22.0514,-42.0514,-53.8461,37.9489,34.8717,6.6666,72.8204,47.1793,-15.5129,-14.4873,-8.8462,-6.6666,38.4615,-31.7948,
14.3591,-44.1025,-61.0256,35.8972,21.0256,12.8206,57.8204,35.8972,-12.8206,-29.4873,-21.0256,-13.3333,23.4615,-33.8462,
16.6663,-37.1797,-64.3591,35.1282,13.5896,21.282,51.0256,40.7688,-27.8206,-35.6414,-33.0769,-11.0256,11.0256,-26.9231,
21.2822,-40.769,-57.6921,30,21.7949,12.0513,57.6924,40.2563,-42.8206,-26.4102,-27.9485,-12.0513,22.8208,-35.1279,
25.1279,-36.4104,-51.7949,35.3843,32.3076,11.7949,70.2563,38.4614,-27.8206,-25.1284,-25.1284,-11.7949,28.2051,-28.718,
21.2823,-38.7179,-57.1793,31.5387,17.3076,10.5128,58.2052,42.3077,-37.1793,-23.3331,-24.8717,-10.5128,14.6154,-23.8461,
20.769,-37.1794,-58.2051,32.0513,12.0513,18.7178,57.6924,37.6924,-52.0513,-36.1538,-28.9744,-12.0513,17.6924,-29.4873,
23.3333,-35.6409,-58.7178,33.0769,23.3333,13.0769,59.7439,35.1282,-37.0513,-31.0256,-24.8718,-13.0769,24.8718,-34.1025,
21.282,-36.6667,-59.231,32.051,16.6663,15.1282,59.7434,38.2048,-23.3335,-22.8208,-25.3848,-15.1282,18.2048,-30.0002,
20.7693,-30.0002,-56.6667,36.1536,11.0256,27.9485,63.3333,42.3074,-31.5386,-27.949,-28.9746,-11.0256,16.1536,-20.2566,
16.1541,-40.2563,-60.2563,28.9744,6.9231,12.9485,49.4871,38.2053,-46.5386,-19.2307,-16.6665,-6.9231,19.2307,-25.8972,
16.1538,-40.7693,-57.1794,31.5386,12.564,13.5898,54.6152,30.5127,-31.5386,-26.4104,-24.3591,-12.564,17.1797,-26.9231,
28.718,-25.7693,-50.2563,37.949,17.949,28.5898,60.5129,43.5896,-21.0256,-25.1282,-28.718,-13.8459,13.8459,-20.5129,
30.2563,-25.1284,-50.2566,34.3589,18.4614,28.7178,55.8975,47.6924,-34.3591,-17.9487,-17.436,-13.8462,13.8462,-27.6924,
29.7434,-16.4104,-48.2051,42.5642,28.2053,36.4104,64.1028,45.6409,-32.8206,-29.2307,-25.1282,-17.4358,16.4104,-29.7437,
31.282,-13.8459,-51.7949,38.4617,24.6155,44.6155,50.7693,49.2307,-42.0513,-26.1538,-32.3076,-23.0769,13.8459,-31.282,
33.5898,-15.6411,-55.1284,33.5898,26.4102,49.4873,45.3843,46.4102,-38.2053,-22.3079,-27.436,-19.231,15.6411,-22.3079,
34.1025,-14.1025,-59.2307,32.564,23.8462,43.8462,51.5386,45.3848,-43.3333,-25.3845,-23.3333,-14.6152,14.1025,-20.7693,
36.1536,-12.5642,-56.6667,31.0256,12.5642,42.3074,53.0769,48.4612,-38.2053,-24.8718,-21.2822,-21.2822,14.6155,-28.9746,
39.4871,-6.6667,-55.8975,36.9231,6.6667,51.282,48.718,41.0256,-23.2053,-39.8718,-32.8206,-36.2822,8.2048,-30.7693,
49.4871,3.8459,-52.0513,44.3591,-1.282,61.7947,39.7434,46.4104,-38.2053,-35.1282,-31.0256,-33.0769,1.282,-24.8718,
59.2307,17.6921,-41.2822,53.0769,-0.25659,76.7947,43.3333,56.6667,-38.718,-24.8718,-28.4617,-20.2566,0.25659,-16.6667,
63.3335,20.2563,-34.1025,57.6924,1.7949,79.7437,45.8975,61.7949,-30,-20.769,-27.4358,-15.6411,-1.7949,-16.1538,
60.5125,8.2048,-34.8721,51.282,-1.0256,64.7437,46.1536,57.9485,-34.8721,-14.3591,-18.9746,-13.8464,1.0256,-23.5901,
53.8464,7.1794,-45.1282,45.6414,-3.0769,70.2566,49.7439,46.6667,-20.5127,-27.1794,-26.6665,-17.4358,3.0769,-22.0513,
57.9487,13.3335,-42.0513,44.6152,-11.7949,65.6411,40.5127,54.8716,-16.4102,-12.8206,-13.3333,-10.2563,10.2563,-12.8206,
55.1281,6.4103,-35.641,41.2819,-18.7179,58.2052,35.1281,53.0768,-21.2821,-6.4103,-7.4359,-8.9745,16.1539,-12.0514,
45.3848,4.8716,-45.3845,41.2822,-28.4614,65.3848,29.4873,51.5386,-6.2821,-13.0769,-12.5642,-13.5898,14.1025,-11.0254,
33.8463,0.51282,-60.3845,33.8463,-43.4614,63.59,14.4873,51.2819,-0.51282,-11.7948,-8.7179,-21.5385,3.59,-22.0514,
41.2822,9.4873,-47.4358,45.3848,-29.4871,78.59,19.231,51.0259,-2.8203,-12.0513,-11.0254,-11.5386,2.8203,-13.5898,
38.718,4.8718,-45.3845,44.8718,-22.3076,68.9744,21.282,50.5129,-11.0256,-3.8459,-11.0256,-0.76929,0.76929,-6.4099,
29.4872,-3.3334,-56.1539,36.1537,-34.1027,53.9744,6.282,47.9486,3.3334,-4.8719,-4.359,-6.4103,5.8973,-11.5385,
34.6152,2.3076,-52.0513,37.6924,-34.6152,57.6924,-2.3076,51.5386,7.436,-10.5127,-6.9231,-10.5127,7.9487,-9.4871,
42.0511,-0.51282,-42.5641,35.8973,-19.6152,58.4613,0.51282,53.3334,-7.564,4.1024,-1.0258,-3.077,6.6666,-1.5385,
37.9485,-4.6155,-45.6411,30.2561,-8.2053,65.6409,8.718,40.5129,3.5896,-3.5896,-9.7437,-9.7437,5.1282,-7.6924,
32.5638,-3.3334,-50.5128,24.3588,-10.5128,61.7948,3.3334,39.7435,9.4872,-4.359,-6.4103,-12.0514,11.0258,-17.6923,
22.5641,-12.3077,-55.3846,19.4869,-8.7179,52.8204,-4.6154,35.3844,9.2306,-0.51282,0.51282,-5.1283,14.8717,-13.3334,
20.5127,-7.1792,-53.3333,27.6924,-0.5127,64.1025,0.5127,41.5386,23.0771,-3.0767,-3.0767,-1.0254,9.7437,-1.5386,
18.9742,-12.3075,-54.3588,19.4874,-10.2562,60.5128,-8.7179,42.5641,11.795,0.51282,-0.51282,-2.0511,3.59,-9.7435,
21.282,-13.5898,-53.0769,19.2307,-8.9744,72.0515,-6.4104,35.6409,7.9485,-5.3845,-1.7947,1.7947,8.4617,-4.8718,
22.3079,-7.9487,-54.6155,21.282,-5.3845,76.6667,-11.5386,40.7693,9.9998,-5.3845,-0.25659,-0.25659,3.8459,0.25659,
18.4615,-11.7948,-54.8717,14.359,-3.5897,67.6925,-16.4103,38.4615,22.5641,0.51282,6.1539,-3.5897,-0.51282,-10.7692,
16.4104,-16.9229,-57.9485,11.2825,3.0769,66.6667,-11.282,28.2053,23.0769,-4.1023,-1.0256,-1.5383,1.0256,-8.2048,
16.6665,-23.8462,-63.3335,5.3843,-2.3076,61.7949,-22.3079,27.9487,8.0769,-0.25635,1.2817,-1.2822,0.25635,-2.3076,
17.436,-20.5127,-62.564,6.667,5.1284,61.5386,-22.564,27.6924,18.9746,-6.6665,-2.0513,-7.1792,2.0513,-7.6919,
20.2563,-16.6667,-62.8206,6.9229,10.5127,55.6411,-25.3845,34.6152,18.2051,-4.8716,-3.8462,-4.3589,3.8462,-13.5898,
18.7179,-22.3077,-61.7948,-2.3077,-3.3334,54.6154,-34.1024,44.359,12.0514,2.8204,7.4362,-2.3077,2.3077,-10.5128,
17.436,-12.8206,-58.4617,4.6152,-0.5127,64.6152,-26.6667,48.2051,27.0514,-6.1538,7.6924,-4.6152,0.5127,-1.5386,
15.3845,-12.8206,-61.5386,9.2307,7.1794,51.7947,-35.3845,47.1794,16.9231,-3.0769,2.5642,-3.5898,-2.5642,-4.1025,
16.6665,-17.1794,-60.2563,7.436,14.6152,55.1284,-35.6411,43.3335,7.436,-3.3335,-0.76904,-0.76904,0.76904,-0.76904,
11.7949,-20.0002,-65.1284,0,5.6411,53.8462,-38.9744,38.9741,10.769,-5.6411,0,-3.0771,-4.1025,1.5386,
5.1284,-25.6409,-67.6924,-5.6411,2.0513,42.0513,-46.6667,34.3589,23.5898,2.0513,8.2051,-2.0513,-6.1538,-4.1025,
7.436,-18.7178,-64.8718,-0.76953,16.1538,51.5386,-39.2307,35.6411,38.2051,-4.8721,2.8203,0.25635,-2.8208,-0.25635,
8.9746,-15.1279,-65.8975,-4.3589,16.1538,48.4614,-39.7437,40.769,23.2051,-1.7949,4.8721,0.25635,-3.8462,-0.25635,
15.8975,-8.7178,-54.3589,1.5386,18.9741,52.3076,-33.8462,36.9229,19.4873,-3.0771,8.7178,-2.564,-2.564,-1.5386,
18.9744,-5.1282,-51.282,7.1794,13.3333,54.3591,-31.7949,34.3591,24.6155,-11.282,5.1282,-8.2053,-5.1282,-5.6409,
11.282,-11.282,-62.0513,1.5383,10.7693,47.1794,-34.8718,37.949,29.2307,-1.5383,10.2566,-2.5642,-3.5896,-5.6411,
2.051,-12.3079,-70.2566,0.51294,25.6409,52.8206,-40,32.3074,28.2048,-8.718,-0.51294,-2.0515,-5.6409,2.5642,
5.8977,-14.6155,-63.8462,-2.8206,17.6921,37.8206,-52.0513,27.949,13.2048,-6.9231,2.8206,-2.8206,-8.9744,3.8464,
9.2305,-19.4873,-55.8975,-6.1538,11.2822,22.8206,-41.0256,23.5898,21.5386,-1.5386,14.3589,-2.0513,-6.6665,1.5386,
4.1028,-16.9229,-63.0767,-5.6409,19.4875,31.2825,-36.4102,30.2566,36.5386,-3.0769,9.7439,-4.615,-7.6921,3.0769,
0.5127,-18.4614,-66.6667,-7.1794,9.7437,45.6411,-49.7437,37.9487,32.8203,4.1025,8.2051,-4.1025,-8.2051,-0.51269,
4.1028,-14.3586,-59.4871,-4.6155,1.5388,51.282,-39.4871,30.2566,25.6414,1.0256,4.6155,-1.5383,-15.3845,-1.0256,
1.282,-13.0769,-63.3333,-11.0256,0.76929,38.718,-47.4358,30.5129,10.6414,3.3333,7.949,-0.76929,-21.7947,-2.3074,
-1.5386,-11.7949,-65.1282,-10.7693,4.1028,42.5642,-60.5129,34.3591,21.0256,4.6155,16.9231,1.0256,-7.1794,-1.0256,
0.76904,-11.5386,-60.7693,-8.9741,1.7949,41.2822,-55.1282,32.564,36.0256,0.25635,14.6152,-0.25635,-6.4102,-2.3076,
1.795,-17.1793,-59.7435,-17.1793,-3.3334,31.0255,-51.5385,31.0255,30.0001,8.9742,17.6925,0.25647,-17.6923,-0.25647,
0,-14.8718,-63.5896,-16.4102,-2.564,37.436,-49.2307,26.1538,31.2822,2.0513,15.3848,0,-14.8718,7.1797,
-4.359,-17.6923,-69.4872,-17.1796,-7.4359,27.4357,-56.1539,28.4615,43.8463,10.0001,19.7438,6.4103,-10.5128,4.359,
-4.6154,-23.077,-65.641,-18.4615,-2.5641,23.0768,-49.7438,33.3331,50.2565,23.0768,25.1281,11.795,-12.8207,2.5641,
-4.8718,-23.3335,-66.4104,-22.3079,1.282,28.9744,-44.3591,26.4104,43.3333,8.0768,10.5129,-1.282,-16.1541,3.3333,
-1.0256,-16.4104,-62.5642,-15.8972,9.2307,35.3845,-41.5386,21.5383,41.5383,1.0256,13.8459,-3.0769,-2.0515,9.2307,
1.282,-4.8718,-53.5898,-2.3079,16.1536,48.4617,-28.9744,17.1794,56.5383,-4.8718,5.8972,-1.282,-4.8718,14.1023,
0.51294,-5.1282,-56.4102,-8.2048,1.1536,40.5129,-43.5896,25.6409,58.4617,-0.51294,8.718,1.5383,-16.9231,13.3333,
-5.641,-17.4359,-66.6666,-23.2048,-11.7948,27.1796,-58.5896,27.1796,55.8973,10.7694,23.718,5.641,-13.8461,7.6923,
-7.6921,-14.8718,-66.1538,-23.0769,-4.6155,33.3333,-51.7947,23.0769,49.2307,7.1794,13.3333,5.1282,-16.9231,4.6155,
-1.7949,-8.4617,-58.718,-14.6155,-9.4873,28.9741,-45.3848,28.4614,34.2307,14.1025,16.1538,5.8975,-20.2566,1.7949,
-2.0513,-7.1797,-60.0002,-11.2822,-6.1538,27.6919,-52.8208,26.6665,42.564,7.1792,21.0254,2.0513,-14.8721,5.1279,
-3.8459,-8.4617,-63.3333,-13.5898,-8.4617,28.4617,-61.282,26.4104,54.6155,11.5383,24.3591,3.8459,-17.1794,7.4358,
-0.25647,-12.5641,-55.641,-21.2821,-15.1283,23.8461,-54.6154,22.8207,46.9232,17.1796,29.4872,5.8973,-19.7435,0.25647,
1.7949,-5.3848,-53.0769,-17.6924,-0.1283,29.4873,-40.7693,18.2051,34.1025,2.1796,14.4872,-0.25635,-19.2305,5.3848,
-2.3076,-4.3589,-59.7437,-16.1541,-6.4102,23.8462,-50,21.7949,19.1025,2.3076,13.0767,2.8203,-23.3335,10,
-4.8718,-9.4871,-60.2566,-17.1797,-21.4102,26.9231,-57.1797,17.1794,34.1025,7.4358,21.282,5.3845,-21.7949,4.8718,
0.51269,-3.5898,-57.4358,-19.4871,-19.4871,32.8208,-58.4614,18.4614,49.1025,3.0771,15.3848,-0.5127,-23.5896,1.0259,
4.8716,0.25635,-52.5642,-23.8462,-4.4871,26.9229,-51.5386,21.7949,37.1792,5.3848,13.5898,-3.3335,-30.5129,-0.25635,
0.51294,-2.5642,-56.9229,-21.5383,-0.51294,25.6414,-40.5127,14.8718,36.9231,-1.5383,10.2566,0.51294,-32.8203,4.6155,
-5.3845,-8.9746,-62.3079,-23.8462,-15.5129,19.2307,-52.0515,16.1536,40.2561,9.9998,19.2307,5.8972,-28.9746,5.3845,
-2.5642,-6.1538,-54.3589,-22.564,-13.3333,23.5896,-49.7437,17.949,53.8459,15.3845,21.5383,2.5642,-25.6411,4.1028,
1.7947,-2.3079,-53.0769,-19.2307,-5.8972,22.3079,-44.8718,16.1541,51.0256,10.0002,10.5129,-1.7947,-28.9744,8.9744,
-2.3079,-8.9744,-59.2307,-25.3845,-11.5386,13.5896,-53.5898,12.0515,38.718,12.5642,10.5129,2.3079,-28.9744,11.5383,
-5.1282,-6.1536,-54.8716,-25.6409,-3.0769,26.6667,-41.0256,12.3079,53.718,12.3079,14.3591,3.0769,-26.6665,8.2053,
-2.3076,-3.8462,-51.5383,-25.8975,-2.8206,25.3845,-35.6409,21.7947,65.3845,25.8977,24.8718,4.8718,-27.9487,2.3076,
-4.3589,-4.3589,-54.1028,-22.8206,-14.1028,19.7437,-44.8718,17.1792,62.8203,22.3076,18.2051,4.3589,-27.436,9.4868,
-10.769,-5.1284,-57.9487,-22.0513,-27.6924,14.3589,-52.8206,10.2563,51.2822,14.8716,6.6665,5.1284,-30.7693,13.3335,
-9.7434,-8.2051,-56.4102,-26.1538,-22.564,8.2051,-46.1538,17.4358,55.8977,29.8716,21.6665,18.9744,-26.6665,12.8206,
-9.7437,-6.1538,-60.5127,-27.1794,-10.7693,15.8975,-36.4102,11.2822,62.564,15.8975,21.0259,6.1538,-23.5896,13.3335,
-1.5383,0.51294,-55.3848,-26.1538,-8.2053,21.0256,-36.4104,16.9231,47.564,10.7693,16.9231,-0.51294,-16.9231,16.4104,
-7.9487,-10,-56.6667,-37.6924,-14.1025,7.9487,-38.718,11.0254,37.1797,10.5127,14.6152,11.5386,-20.7693,11.5386,
-8.4612,-6.9231,-56.6665,-35.6409,-9.4871,7.4358,-28.9741,10.0002,52.1797,6.9231,16.6667,13.0769,-23.8459,14.1028,
0.76929,-0.76929,-45.8975,-30.5127,-2.3076,15.1284,-23.3333,17.6924,51.5386,17.6924,26.9229,-1.282,-16.1538,13.0771,
-1.282,0.25659,-43.8462,-26.9231,-0.25659,18.2053,-22.3076,14.1028,63.3333,16.1541,15.1282,-2.3079,-20.2563,10.5129,
-4.8718,-1.7949,-51.0256,-27.436,-15.2566,3.2053,-37.3076,10,73.5898,21.7949,18.7178,8.4614,-30.5129,10.5127,
0.25647,-1.2821,-42.8204,-26.923,-24.8717,3.3334,-35.641,5.8973,62.8207,20.7694,32.0511,-0.25647,-22.8204,9.4872,
-1.7949,1.7949,-42.3079,-25.3848,-18.2053,4.8716,-27.9487,3.333,54.1025,8.4614,17.0511,-8.9746,-25.3848,6.9229,
-2.5641,2.5641,-44.6154,-26.1537,-19.4872,-6.6666,-33.8461,11.2821,64.1024,23.4614,21.5385,6.0254,-30.2562,9.2308,
-0.25635,0.25635,-42.8203,-30.5127,-11.5383,-1.2817,-28.4614,1.2822,60.2563,18.7183,18.7183,8.9746,-33.5896,4.8721,
2.5642,0.51294,-43.5896,-31.7947,-4.6155,2.0515,-28.7178,-2.051,45.2563,8.2053,8.2053,-0.51294,-34.8716,1.5388,
-1.0259,3.5898,-45.1282,-27.6924,-17.9487,0,-39.4873,2.564,39.4873,12.3076,11.2822,0,-33.8462,1.0254,
-0.76929,12.0515,-43.8462,-22.8206,-18.2048,6.4104,-33.5896,3.8464,54.4873,7.949,11.0256,-1.282,-37.6921,0.76929,
5.1282,7.6921,-42.0513,-30.7693,-3.2048,1.0256,-25.6411,2.5642,51.282,15.8972,15.3845,-5.1282,-40,-4.1028,
2.0513,2.564,-45.1284,-34.3591,9.2305,8.7178,-25.6411,-3.5898,36.282,4.1025,5.6411,-13.3335,-37.436,-2.0513,
0.25635,7.4355,-46.4104,-32.0515,3.333,10.5127,-39.231,-0.25635,36.6665,-1.7949,2.3076,-13.5898,-41.2822,0.25635,
9.2307,11.282,-38.4617,-29.231,6.1536,-0.51294,-38.4617,0.51294,50.2561,12.3074,11.7947,-4.6155,-44.6155,-7.1797,
19.231,17.6924,-27.9487,-19.7437,21.1536,2.3076,-23.4617,-2.8203,56.6665,12.564,8.4614,-2.3076,-37.1794,-4.8716,
18.4614,16.4102,-26.6667,-23.5898,33.8462,2.0513,-17.949,-2.0513,41.6665,11.7949,5.6411,-8.7183,-27.6924,-3.0771,
17.1797,17.1797,-28.4614,-25.8975,35.1284,1.7949,-15.6411,-4.3589,56.6665,11.0259,3.8462,-7.9487,-27.4358,-1.7949,
17.6921,15.1282,-26.9231,-26.9231,34.6155,-13.2051,-17.6924,-0.25659,71.6665,20.7693,14.1028,0.25659,-33.0769,-5.8972,
18.4618,8.7181,-19.9999,-31.2819,48.2054,-22.0511,-15.8973,0.51282,56.6665,27.1796,29.1028,-0.51282,-28.7179,-9.7435,
24.1028,19.4871,-17.9487,-20.5127,58.4617,-7.1794,-3.0769,-5.1282,50.2566,13.3333,14.1028,-6.1536,-23.5896,3.0769,
17.1792,20.2563,-26.4104,-23.3335,43.4617,-17.1797,-18.0769,-3.8462,56.6665,16.1538,4.8716,-8.4614,-28.4617,3.8462,
13.8462,16.4102,-20.5129,-26.1541,43.5898,-18.9744,-14.8718,-0.5127,65.6411,24.6152,19.4873,-6.6667,-25.1284,0.5127,
12.8201,15.8972,-20.5129,-25.6411,42.5637,-20.0002,-9.7439,-1.0256,63.0769,22.051,21.5383,-4.1028,-29.231,1.0256,
4.3591,8.9744,-31.0256,-31.0256,27.5637,-33.0769,-24.7439,-7.9487,56.1541,20.7693,15.1282,0.25659,-30.5129,-0.25659,
6.4099,14.615,-25.3848,-25.8977,30.5125,-20.7693,-24.3591,-8.9744,68.9744,12.5637,13.0769,-3.3333,-20.7693,3.3333,
11.0256,16.1541,-20.7693,-28.4614,27.9485,-17.1794,-19.7437,-3.3333,54.6155,16.6667,22.3079,-9.9998,-22.8206,3.3333,
8.2051,9.7432,-21.5386,-32.8208,22.0513,-26.1541,-18.4617,-9.231,45.1279,18.9741,24.1025,-6.1538,-24.6155,6.1538,
2.0513,4.6152,-24.6155,-35.8975,22.0513,-38.4617,-23.5898,-15.8975,53.8462,14.8716,18.9741,-2.0513,-23.5898,6.6665,
-1.0256,1.0256,-23.5898,-40,13.3335,-45.6411,-32.8206,-7.6924,66.1538,29.7437,33.9741,3.5896,-21.0256,4.6152,
-4.3589,4.3589,-22.3076,-35.1282,15.6411,-31.5386,-26.9231,-5.8975,73.5898,25.3848,31.0254,5.3848,-20.7693,9.4873,
-4.1025,4.1025,-27.1794,-33.8462,17.436,-32.8206,-23.0769,-8.7178,58.5898,21.0254,20.5127,4.1025,-22.5642,11.2822,
-1.0256,2.0515,-24.6152,-33.3333,10.2566,-34.3589,-23.0767,-9.7434,54.8718,22.5642,22.0515,1.0256,-24.1023,12.3079,
-2.0513,7.1797,-18.9744,-28.2051,5.6411,-25.6411,-23.5898,-6.1538,69.8718,22.0513,26.6665,2.0513,-25.6411,16.9229,
-7.1794,7.1794,-17.9487,-28.7178,4.1025,-31.7947,-28.2051,-4.1025,84.6155,34.8718,40.0002,9.2307,-16.9231,16.9231,
-11.0256,6.9229,-19.7437,-27.436,5.8975,-30,-23.3335,-5.8975,78.7178,31.5386,33.0767,12.0513,-15.1282,15.6411,
-5.8975,6.9231,-18.2051,-29.4871,1.282,-28.4614,-23.8462,-1.282,64.8718,35.6409,31.5383,18.2053,-25.3845,18.2053,
-3.3333,3.3333,-14.6155,-34.1025,3.3333,-35.1282,-24.8718,-5.8975,65.8975,39.231,39.231,18.2051,-22.3076,19.7437,
-7.6924,7.6924,-16.4104,-29.2307,8.2051,-40.5129,-21.0256,-10.769,71.7949,27.6924,31.2822,10.2563,-16.9231,16.9229,
-5.1283,11.2819,-15.3846,-27.1796,1.5385,-37.4359,-24.1027,-1.5385,68.2052,30.7692,35.3844,5.6412,-19.4872,13.8463,
-0.25635,14.1025,-12.0513,-25.8975,0.25635,-22.4359,-22.8206,-2.8203,83.2052,24.8716,33.5898,0.76904,-22.3076,17.1797,
-0.25659,14.6155,-12.051,-22.3076,0.25659,-25.3845,-25.3845,-5.8972,72.0515,22.3079,22.3079,3.3333,-26.4102,20.2566,
-0.51294,10.2561,-10.2566,-24.6155,0.51294,-36.9231,-27.6924,-2.5642,57.0515,27.1794,27.6921,4.1023,-25.6411,14.8718,
0,11.7949,-12.3079,-27.1797,5.1279,-36.9231,-21.0256,-0.5127,66.1538,25.1279,34.3589,0,-18.9744,14.8716,
-2.8206,10.5127,-13.5896,-28.9744,2.8206,-39.7437,-21.7949,-5.3845,69.4873,35.6411,33.5898,11.0259,-16.6667,21.2822,
-6.6665,6.6665,-11.2822,-29.2307,7.1792,-34.3591,-31.7949,-16.4104,66.1538,30.2563,21.0254,12.3076,-22.0513,23.5898,
-2.8206,11.5383,-9.4871,-26.4102,10.0002,-28.9744,-46.7949,-8.4617,71.0256,25.3845,29.4871,2.8206,-20.2563,19.7434,
0,9.2307,-7.6924,-26.1538,0,-34.8718,-61.7949,-3.0769,65.6409,31.7947,43.5896,3.0769,-15.3845,13.3333,
-1.5383,6.1541,-4.1028,-25.1282,4.1028,-32.8206,-54.8718,-12.3079,58.9744,19.4871,28.5896,1.5383,-14.8718,14.3591,
-2.8206,4.8718,-4.8718,-31.5383,7.949,-36.6665,-60.2563,-8.9744,63.3333,27.949,30.0002,2.8206,-7.9487,16.6667,
-4.6154,4.6154,-10.7694,-34.8719,5.1281,-40.5128,-62.0514,-7.1796,78.3333,38.4615,43.0768,4.6154,-5.641,16.4103,
-2.8207,5.8973,-15.1283,-33.5897,4.8719,-40.2565,-55.641,-10.5128,69.9999,31.5385,32.0511,2.8207,-13.077,17.1796,
-1.5385,7.6923,-13.8461,-33.8461,1.5385,-40.5128,-56.41,-10.2562,54.9999,37.4359,32.8207,7.6923,-9.2306,16.4105,
-0.76929,20.2566,-12.564,-24.3589,0.76929,-29.4871,-50,-7.9487,69.9999,35.6414,33.5901,11.0256,-4.8718,20.2566,
0.51294,20.0002,-13.8462,-23.0769,-0.51294,-30.7693,-49.7437,-5.6411,74.3591,33.3333,33.3333,6.6667,-9.7437,21.5383,
0,11.7952,-8.7178,-27.1794,0,-34.3589,-47.6921,-7.6921,59.3591,32.8206,30.2566,5.6414,-13.8459,20.0002,
1.0256,19.4871,-1.0256,-22.564,-1.0256,-30.2563,-37.9487,-7.6924,63.0769,33.8464,26.6667,12.8206,-14.3589,22.5642,
1.795,20.7692,-2.3077,-23.3334,-1.795,-33.077,-38.7179,-8.4615,74.6154,36.6666,30.5128,9.4869,-9.4872,25.3844,
0.76929,20.2561,-6.4104,-21.2822,4.8718,-27.9487,-42.8206,-12.0515,73.5896,23.3333,18.718,-0.76929,-8.4617,27.9485,
-0.25635,20.2563,-6.9233,-24.8718,0.25635,-28.4617,-47.436,-5.8975,58.5896,25.8975,17.6924,2.3076,-15.1284,24.3589,
1.7947,21.282,-2.3079,-29.4873,-1.7947,-26.9231,-36.1538,-6.9231,65.3845,33.0769,27.9485,11.5383,-15.6411,22.8206,
-2.5642,20.5129,-7.1794,-28.2051,2.5642,-27.6921,-31.7947,-14.8718,70.2566,25.1282,18.9744,7.1794,-16.9231,24.6155,
-4.3589,18.2051,-10.5129,-27.949,4.3589,-31.5386,-40.2566,-10.0002,61.7949,33.0767,26.4102,4.3589,-12.0515,19.7437,
-0.51294,21.0256,-8.718,-29.2307,0.51294,-28.2051,-37.4358,-10.2563,65.1282,26.1541,26.6667,1.5383,-15.3845,14.3591,
4.1025,25.1279,-3.5898,-24.6155,-6.1541,-29.7437,-34.3591,-7.6924,59.4873,28.2051,26.6665,3.5898,-20,22.564,
0.51282,23.5895,-2.0514,-22.0514,-0.51282,-32.3077,-35.8976,-5.641,60.5128,37.9489,33.3331,8.7179,-12.8204,27.6925,
-2.3076,24.8721,-5.8975,-23.8462,2.3076,-34.6152,-37.6921,-5.8975,70.5127,36.1538,30.5127,10,-13.5896,24.8721,
1.7949,24.8718,-1.7949,-22.3076,-10.5127,-39.7437,-38.718,-5.3845,61.282,39.2307,29.4871,6.4102,-22.8206,23.3333,
3.0769,25.6409,3.5896,-18.4617,-6.1541,-27.1797,-27.1797,-12.3079,61.5383,26.6667,15.8972,-3.0769,-23.5898,23.5896,
-1.0256,16.9231,-3.0769,-30.2563,1.0256,-33.8462,-28.7178,-12.8206,65.6409,35.3845,16.9231,11.282,-15.8975,24.6155,
-2.5641,12.308,-1.5385,-33.8461,1.5385,-43.5897,-29.2308,-8.205,72.308,50.3845,31.9231,26.282,-5.1281,27.1796,
-1.5386,20,1.5386,-27.1794,4.6152,-32.8206,-22.0513,-10.7693,68.2051,35.3845,30.2563,11.282,-9.231,20.5127,
0.5127,20.5127,-0.5127,-30.7693,6.6665,-34.3591,-26.1541,-11.7949,53.2051,25.6411,25.1279,-3.718,-12.3079,15.3843,
-3.0769,16.4099,-1.0256,-30.7695,8.2048,-39.4873,-25.6411,-18.4617,59.9998,27.6921,22.5637,1.0256,-14.3591,22.051,
-3.5896,15.8977,-1.0256,-29.2307,1.0256,-42.564,-27.6921,-16.4102,64.1028,30.7693,28.718,11.7952,-14.8718,26.6667,
-1.5385,14.359,-1.5385,-32.8204,1.5385,-39.4872,-28.205,-12.3075,55.8976,36.923,35.8976,11.795,-5.1281,24.6154,
-2.8206,18.2053,-2.3079,-30,7.4358,-30,-21.282,-17.1794,57.1794,25.3845,22.8206,2.3079,-7.9485,22.8206,
-0.25635,19.7437,1.7949,-28.4617,-2.8203,-38.2051,-25.8975,-16.6667,55.6411,32.0513,26.4102,0.25635,-16.6667,22.3076,
0.25635,17.6924,0.25635,-29.9998,-6.9229,-40.769,-25.8972,-22.8203,59.231,29.4873,23.3335,-0.25635,-19.2307,19.7437,
0.51294,20.5129,-0.51294,-27.1794,2.5642,-35.3845,-16.9231,-21.0256,53.8459,20.5129,16.4104,-7.1794,-18.4617,16.9231,
-0.51294,20.0002,0.51294,-30.769,3.5896,-36.4102,-15.3845,-18.9744,45.6409,20.0002,20.0002,-13.3333,-18.9744,13.8464,
1.0259,26.1538,0,-25.6406,0,-29.7434,-16.9229,-21.5381,56.4106,14.8721,14.3594,-8.2051,-23.5894,19.4873,
2.5642,28.718,1.0256,-22.0513,-5.6409,-35.8975,-25.6411,-13.3335,58.9744,29.8721,26.1536,-1.0256,-22.5642,20.5129,
-0.25635,27.4355,1.2817,-24.3591,0.25635,-36.6667,-20.7693,-14.1028,62.3076,31.0254,27.9487,-4.3589,-15.6411,19.2305,
-1.0256,30.2566,-1.0256,-23.5898,2.5642,-30.2563,-13.8459,-14.3591,60.0002,27.1794,18.4617,1.0256,-13.3333,27.6921,
0.25635,24.8721,-0.25635,-26.9231,-0.25635,-34.6152,-18.2051,-11.5383,56.1538,38.7183,31.0259,6.9233,-11.5383,27.436,
-1.2822,19.7437,-2.3076,-31.5386,3.8462,-33.0769,-14.6155,-18.2051,71.1538,31.0259,31.5386,1.2822,-10,25.8975,
-1.282,22.8206,-1.282,-31.5386,1.282,-33.5898,-12.5642,-13.0771,67.9485,39.7434,33.5896,8.4612,-7.436,34.1023,
-6.6667,21.0256,1.5383,-29.7437,-1.5383,-34.3591,-14.3591,-14.8718,53.8459,37.4358,23.5896,3.0769,-12.3079,27.1794,
-0.76929,30.0002,9.4871,-18.718,-0.76929,-27.4358,-12.051,-13.0769,68.8459,33.0769,21.282,0.76929,-12.051,25.8977,
-3.0769,29.2307,8.718,-17.9485,-15.7693,-37.9485,-24.1023,-14.3589,72.8206,33.3337,25.6414,3.0769,-17.4358,24.6155,
-3.8462,34.1025,12.564,-8.9741,-20.769,-27.4358,-16.1538,-13.5898,61.2822,23.3335,14.6157,3.8462,-18.7178,33.0771,
-6.667,25.1279,7.1792,-22.5642,-5.769,-33.3335,-16.9233,-14.3589,46.2822,27.1792,14.8716,0,-18.4614,31.7949,
-7.6924,15.8975,4.6152,-36.9231,5.6411,-46.1538,-15.8975,-23.5898,54.3589,28.7178,24.6152,-4.6152,-15.8975,24.6152,
-4.1025,21.0259,7.6924,-28.7178,4.1025,-50.2563,-7.1792,-26.1538,67.1797,16.9233,13.8462,-9.2305,-16.4102,21.5386,
-2.0515,21.5383,6.6667,-27.6924,2.0515,-58.4614,-10.2566,-21.5386,52.1797,24.1028,13.3333,-7.1794,-14.8718,16.9231,
-2.564,25.1279,8.7178,-25.1284,2.564,-51.7949,-8.7183,-25.1284,65.6411,21.0254,15.3848,-7.6924,-14.3589,24.1025,
1.282,29.4871,13.0769,-21.2822,-3.8464,-48.9744,-14.1028,-18.718,76.6667,26.9231,22.8206,-1.282,-17.1794,31.0256,
-3.0769,22.5642,7.1794,-29.231,-9.2307,-52.8206,-21.0259,-18.9746,61.6667,27.6921,18.4612,3.0769,-20.5129,19.9998,
-2.8206,28.9744,8.9744,-25.3845,-0.76929,-44.3591,-10.5129,-17.6921,52.5642,15.1282,9.4871,0.76929,-18.718,25.3845,
-0.25635,30.5127,15.6411,-22.3076,0.25635,-46.4102,-10,-14.1025,42.8208,19.7437,15.1284,-6.4102,-16.1538,32.564,
0,29.231,14.3589,-21.0254,0,-42.564,-8.7178,-22.0513,54.3589,13.3335,5.1284,-12.8203,-20.5127,27.1797,
3.8462,34.6152,13.5898,-19.7437,-6.4102,-44.3591,-12.5645,-18.2051,64.8716,19.2305,6.4102,-3.8462,-23.3335,24.8716,
2.564,32.8208,16.9233,-22.564,-10.2563,-52.8203,-16.4102,-16.4102,57.436,29.231,17.9487,-2.564,-17.4358,24.1025,
0.76904,32.564,15.1284,-18.7178,-0.76904,-47.9487,-6.9229,-20.2563,53.0771,24.3589,11.0259,-9.4873,-14.6152,27.9487,
-1.282,27.9485,9.4871,-24.3591,-8.9744,-51.0256,-14.1028,-19.231,53.0769,36.6667,19.2307,1.282,-15.6409,29.4871,
-5.1282,23.5901,7.1794,-32.3076,-13.3333,-46.6665,-12.8206,-24.1023,66.6667,29.2307,21.0256,5.1282,-15.8972,26.1541,
-0.5127,31.7949,11.7949,-22.564,-7.6924,-41.5383,-5.1284,-14.3589,67.6924,27.6924,25.1284,0.5127,-8.2051,29.231,
-1.7949,32.0513,12.564,-19.7437,-12.0513,-47.9487,-16.6667,-13.5898,63.3335,35.6411,27.9487,1.7949,-11.5386,27.436,
-4.3589,30.5127,13.0767,-23.3335,-10,-42.8206,-16.6665,-24.3589,62.8203,22.8203,12.9487,4.3589,-21.2822,28.9741,
0.5127,29.7437,16.4102,-26.1538,-7.1797,-44.1025,-11.7949,-17.9487,47.8203,23.5898,16.9233,-0.51269,-12.8203,34.3589,
2.3079,35.1282,19.7434,-19.7434,-6.4104,-41.282,-2.3079,-17.1794,50.5129,19.7434,26.4104,-7.949,-5.3845,34.1023,
1.7949,39.2305,19.7437,-17.1797,-6.4102,-41.2822,-1.7949,-18.2051,58.7178,22.3076,20.769,-2.3076,-12.5645,32.0513,
-1.0256,28.718,14.3586,-23.5898,-10.2566,-49.7437,-13.8464,-17.949,45.6409,33.8459,16.4099,1.0256,-17.949,27.6921,
2.0513,34.8716,17.9487,-12.8208,-10.7695,-39.4873,-7.1797,-14.3594,60.6409,29.2305,16.4102,-2.0513,-10.2563,33.333,
0.5127,35.3848,18.4614,-16.9229,-25.1282,-46.6667,-13.3335,-12.8203,65.1284,32.8203,24.6152,-0.5127,-11.7949,28.7178,
-2.0513,33.8462,19.4873,-17.9487,-17.9487,-40,-10.769,-15.8975,57.9487,27.1797,16.4102,2.0513,-13.8462,30.769,
-3.8462,38.7178,16.6665,-12.5645,-13.5898,-30,-6.9233,-17.6924,42.9487,19.2305,3.8462,5.8975,-17.1797,38.2051,
-4.6152,29.7437,12.3076,-25.1284,-28.5898,-45,-15.8975,-21.0259,41.5386,30.769,16.9229,4.6152,-17.9487,30.769,
2.3079,32.5642,19.7434,-23.3335,-22.3079,-38.718,-8.4617,-15.1282,56.5386,28.9744,24.3591,-2.3079,-9.4871,33.5896,
2.8206,35.6409,22.8206,-18.718,-18.718,-34.1025,-8.4617,-5.3845,53.0769,33.0769,24.3591,-2.8206,-9.4871,36.1541,
-3.8462,32.0513,17.6924,-21.7947,-23.8459,-40.2561,-11.0254,-13.5894,47.436,33.5898,18.7183,3.8462,-13.5894,31.5386,
-8.2051,31.7949,9.7437,-25.1279,-32.3076,-48.7178,-17.4355,-22.564,62.436,30.2568,13.3335,8.2051,-12.8203,25.1284,
-9.7437,26.1538,9.231,-29.7437,-39.4873,-56.9231,-22.0513,-22.0513,58.4614,35.3848,23.5898,7.1797,-7.1797,20.5127,
-6.1536,28.718,15.3845,-21.0256,-24.6155,-43.0769,-7.0513,-21.0256,43.4614,27.1794,20.0002,4.6155,-4.6155,34.3591,
-5.1282,27.1794,11.7952,-24.1025,-27.1794,-52.3076,-12.3074,-14.8718,40.0002,35.3845,20.5129,5.1282,-8.2048,34.8718,
-4.8718,23.3333,11.0256,-27.436,-32.0515,-55.6411,-17.1797,-16.1541,55.0002,39.7434,26.4099,3.3333,-3.3333,23.8459,
-3.0769,29.2307,15.8972,-18.4617,-26.6667,-41.0259,-8.2053,-19.4875,57.9485,28.2048,23.0769,3.0769,-4.1028,30.2561,
-4.6152,27.6924,18.4614,-22.5642,-36.4102,-50.2563,-16.9229,-16.9229,42.9485,37.436,23.5898,4.6152,-15.8975,31.7949,
-1.282,31.0256,24.3586,-17.1794,-33.5898,-50.0002,-9.4875,-15.6414,57.1794,32.5637,16.6667,1.282,-16.6667,31.5383,
0,33.8462,21.0254,-14.3589,-30.2566,-52.8206,-5.6411,-18.4614,52.8203,24.1025,17.436,0,-16.4102,31.2817,
-4.6155,31.282,15.8977,-17.9485,-34.8716,-57.4358,-10.2561,-23.5896,50.7693,30.2566,22.0515,4.6155,-18.9744,25.6414,
-3.5898,32.3076,17.9487,-18.4614,-34.8718,-54.8718,-6.6665,-23.0767,64.6152,31.2822,14.8721,3.5898,-20.5127,23.0771,
-1.5386,27.1797,20.5127,-25.1282,-32.8206,-59.4871,-13.3333,-16.9231,49.6152,33.3335,19.4873,1.5386,-17.9487,22.0513,
1.0256,34.8713,22.5637,-17.949,-23.5901,-44.4871,-5.6414,-17.4363,41.5383,22.5637,16.9231,-1.0256,-10.2566,29.2307,
0,36.9233,20.5132,-14.8716,-33.8459,-39.9998,-6.6665,-13.333,38.9746,29.231,14.3589,0,-8.2051,29.231,
-3.5896,28.2053,18.9744,-24.1025,-46.1538,-54.9998,-14.8718,-12.3076,40.5129,39.4871,21.5383,3.5896,-10.2563,24.1028,
-2.3076,35.6411,21.7949,-18.2051,-37.1797,-44.8718,-7.436,-14.6157,51.5381,24.4871,17.6924,2.3076,-11.0259,33.5894,
-5.1284,31.2822,21.5386,-17.9487,-38.9744,-48.718,-14.8716,-16.4102,44.1025,26.1538,19.4873,5.1284,-13.8462,32.3076,
-6.4102,27.9487,21.7949,-21.7949,-37.6924,-52.0515,-12.5645,-25.3848,53.5898,21.7949,15.6411,6.4102,-17.6924,20.2563,
-2.0513,40,27.6924,-16.9229,-37.9487,-48.7178,-6.1538,-17.9487,58.9746,20.5127,16.9233,2.0513,-21.5386,18.9746,
0.51294,43.5896,33.3333,-11.7947,-39.4873,-45.1282,-8.2053,-10.7693,45.1282,30.7693,22.0515,-0.51294,-21.0256,24.1028,
-2.8206,39.2307,27.949,-10.5129,-35.6409,-44.8718,-8.4617,-22.3074,45.3845,20.2566,7.0515,2.8206,-25.3845,26.4104,
-4.3589,34.1025,24.3589,-18.2051,-48.9741,-59.8718,-18.2051,-25.3843,40.2563,24.8721,8.9746,4.3589,-26.4102,22.8208,
4.1025,36.4102,33.8462,-16.9233,-48.2053,-61.0256,-9.231,-23.0771,40,25.1279,16.9229,-4.1025,-17.9487,24.1025,
5.8975,33.0771,30,-16.6665,-37.6921,-56.6665,-5.8975,-22.3076,31.0259,19.231,6.9233,-8.4614,-21.7949,20.2563,
0.76929,29.9998,27.9485,-17.6921,-35.1282,-60.2563,-4.3591,-20.7693,38.718,25.3845,11.5383,-0.76929,-20.2566,19.7434,
-4.3589,32.0513,30.5127,-17.6924,-37.6924,-56.1538,4.3589,-27.9487,53.718,14.6152,10,-5.3848,-17.6924,22.3076,
-0.76929,28.9744,30.5129,-20.7693,-40.2566,-60.2566,-1.282,-19.231,42.3079,29.6152,20.7693,0.76929,-14.6155,23.3333,
-4.8716,21.7949,23.8462,-25.8975,-40.7693,-57.1794,-3.3335,-22.8203,43.3335,26.9229,12.564,3.3335,-15.6411,20.2563,
-8.9744,24.8718,20.7693,-26.4104,-37.6921,-51.5386,5.3845,-31.0256,48.4617,11.9229,1.7947,-1.7947,-18.2053,23.3333,
-11.5383,20.2566,19.7434,-31.0256,-36.1538,-60.7693,3.3333,-30.5129,33.4617,16.1541,13.5896,-3.3333,-18.2053,21.282,
-9.4871,21.7952,22.8206,-25.8972,-35.6409,-57.6921,4.8718,-27.4358,42.8206,18.2053,14.6155,-4.8718,-17.1794,18.718,
-1.7949,30,28.4614,-20.2563,-41.7949,-53.5896,1.7949,-17.1792,52.0513,25.8975,21.7949,-3.8462,-12.564,21.2822,
-0.76929,34.1023,29.9998,-16.6667,-42.8206,-41.2822,0.76929,-20.2566,37.0513,16.6667,12.051,-7.4363,-16.6667,27.4358,
-0.25659,41.282,31.5383,-8.9744,-42.8206,-35.1282,0.76929,-19.2307,26.4104,15.6409,0.25659,-5.3845,-24.8718,33.5896,
-3.3335,38.2051,28.9741,-10,-54.6155,-50.1282,-10.5127,-15.1284,35.6411,30.6409,15.1279,3.3335,-24.8718,25.8975,
-9.4871,39.2312,25.8977,-4.8718,-55.6409,-49.4871,-8.4612,-22.8206,50.6411,18.2053,5.385,4.8718,-29.4871,25.385,
-2.5642,45.6409,31.282,-3.0769,-51.282,-41.0256,-4.1028,-15.8977,48.2053,23.0769,2.5642,7.1794,-29.2307,33.8459,
-0.51294,42.0515,32.3079,-13.8459,-46.6665,-44.1025,-0.51294,-15.8972,42.5642,30.2566,13.3333,0.51294,-20.5127,29.7439,
-12.5642,36.1536,20.7693,-19.7439,-48.4617,-48.9746,1.282,-24.3591,38.2048,16.6663,6.9231,-1.282,-24.8718,23.8459,
-13.8462,32.3076,16.4102,-20,-54.8718,-56.4104,-4.1025,-20.5127,34.8716,23.0767,10.2563,4.1025,-26.6665,23.5898,
-8.4612,31.0256,21.7952,-16.6667,-44.8716,-52.564,5.3845,-21.282,46.4104,18.718,9.4875,-5.3845,-20.2561,25.3845,
-7.949,24.8718,24.8718,-21.282,-42.3076,-57.6924,6.9231,-22.8206,33.0769,20.7693,12.051,-6.9231,-19.7434,26.4104,
-12.3079,18.4617,23.5896,-28.718,-47.6924,-62.564,3.0769,-30.7693,31.7947,18.4617,9.2307,-3.0769,-23.5896,20.5129,
-8.7183,31.7949,28.2051,-17.436,-39.4873,-50.2566,9.7437,-28.2051,46.7947,10.2563,3.5898,-3.5898,-20,22.564,
-4.3591,33.5896,30.5129,-13.0769,-42.8206,-51.0256,3.3333,-18.718,31.7947,21.282,12.5642,-3.3333,-20.7693,20.2566,
-4.6155,27.6921,30.7693,-14.3591,-48.2053,-45.6411,5.6409,-25.1282,24.6155,11.282,4.6155,-8.718,-27.1794,15.3845,
-4.6155,29.2307,29.7439,-14.8718,-49.7434,-46.1538,6.1541,-21.5383,36.4104,13.3333,4.6155,-5.1282,-29.2307,21.5388,
-9.4871,29.4875,25.385,-15.6409,-50.5127,-50.5127,-1.282,-20.7693,36.6667,19.2307,8.9744,1.282,-29.9998,24.3591,
-3.8462,40.769,28.9746,-3.8462,-43.8462,-37.1797,4.3589,-21.7949,39.7437,10,2.3076,-2.3076,-27.9487,29.4873,
0.51294,41.0256,31.7947,-4.6155,-51.7949,-43.5898,-0.51294,-12.8206,35.8972,21.5383,16.9231,-6.6667,-26.1541,28.2048,
-2.3076,39.7437,32.0513,-5.8975,-50.0002,-41.7949,2.3076,-12.5645,45.3843,20.2563,19.2305,-2.3076,-27.436,24.3589,
-4.6155,38.4617,26.1536,-9.2307,-49.7437,-44.1028,-3.0769,-18.4617,38.4617,15.3845,4.6155,3.0769,-30.7693,18.9744,
-2.8206,35.1282,27.9485,-13.5901,-50.5129,-51.5386,-5.8977,-16.1541,35.6409,29.4871,14.615,2.8206,-19.7439,18.718,
-6.9229,34.1025,27.9487,-11.5386,-47.9487,-44.3589,4.3589,-17.1797,42.3076,22.3076,14.6152,-4.3589,-19.231,23.8462,
-10.7693,25.6409,21.0256,-16.9231,-54.8721,-51.7952,-1.0256,-16.9231,31.7947,23.5896,15.3845,1.0256,-25.6414,25.1282,
-11.0256,22.8206,20.7693,-20.2566,-52.0513,-55.6411,-4.3591,-23.8459,43.3333,23.8459,15.1282,4.3591,-19.7434,26.9231,
-9.7432,25.6411,23.5898,-21.0254,-49.2305,-53.3333,-2.0513,-23.0767,41.5386,25.6411,14.3594,2.0513,-17.4355,25.6411,
-11.0256,18.2048,23.3333,-29.4873,-51.5386,-55.1284,-0.76929,-21.282,26.5386,29.4871,19.2307,0.76929,-21.282,18.2048,
-14.1028,20.2561,18.718,-28.9744,-46.4104,-49.4873,3.3333,-27.949,31.5383,14.4871,7.9485,-3.3333,-24.8718,22.3074,
-9.7439,28.2048,22.5637,-21.5388,-48.2053,-50.7693,-3.0769,-20.5129,38.4612,25.1282,12.3074,3.0769,-23.5901,30.2561,
-3.3333,32.5642,31.5383,-14.6155,-45.3848,-44.3591,0.76929,-18.718,34.1023,23.3333,11.5383,-0.76929,-25.3845,26.4099,
0.25659,39.2307,32.051,-7.949,-39.2307,-38.2053,-0.25659,-17.1794,28.9744,14.1023,9.4871,-3.3333,-23.8464,26.9231,
-6.1538,33.3335,27.1797,-13.8462,-47.6924,-45.1282,-15.2566,-16.4102,25.1284,27.1797,20.5127,6.1538,-19.4873,27.6924,
-11.282,30.2566,28.2053,-15.8972,-45.1282,-40.5127,-7.1794,-19.9998,40.1284,23.0769,16.4104,7.1794,-21.0256,30.2566,
-9.4873,27.9487,27.436,-20.2563,-42.8206,-49.4873,-0.76904,-15.6411,44.3589,27.436,21.2822,0.76904,-19.7437,29.4873,
-7.9487,28.4614,28.4614,-18.7178,-41.282,-44.3589,-2.3076,-16.1538,37.1797,30.5127,23.8462,2.3076,-11.5386,28.4614,
-9.7437,34.3589,28.2051,-11.7949,-40.5127,-31.2817,-4.1025,-16.4102,37.436,21.5386,16.9233,4.1025,-16.4102,30.7695,
-8.7178,35.3848,28.2051,-13.3335,-40,-38.9744,-6.1538,-7.1797,42.564,31.2822,31.7949,6.1538,-20.5129,32.8203,
-8.4612,35.6414,26.9231,-14.1023,-38.2051,-35.1282,0.76929,-13.0769,35.1282,20.2566,17.1794,-0.76929,-19.7434,31.5388,
-1.7949,37.6924,32.0513,-9.4873,-39.7437,-27.436,1.7949,-15.1284,20.1282,18.7178,8.4614,-1.7949,-18.2051,30,
0.51294,38.9744,36.9231,-4.6155,-38.9744,-28.718,-0.51294,-12.3079,18.4617,21.5383,19.4871,-2.0515,-16.9231,34.8718,
-4.1023,43.0769,32.3079,-0.51294,-45.1282,-30.2561,-2.051,-6.6667,33.4617,18.4617,18.9744,0.51294,-17.9485,43.0769,
-12.0513,33.5898,26.9229,-7.9487,-60.1282,-39.2307,-16.1538,-5.8975,21.7949,26.9229,14.6152,5.8975,-27.9487,35.6411,
-14.3589,33.8462,31.2822,-4.6152,-62.0513,-29.7437,-11.7949,-11.7949,34.8716,21.0259,6.6665,4.6152,-33.8462,33.3335,
-6.9231,43.8459,37.1794,-0.76929,-47.0513,-23.8464,-3.3333,-4.8718,36.1536,25.8972,17.1794,0.76929,-23.3333,39.7434,
-2.8206,41.282,34.6155,-5.8972,-40.769,-26.4099,1.282,-9.9998,23.3333,25.8977,19.2307,-1.282,-18.718,36.1541,
-8.2053,35.3845,23.5896,-7.6921,-47.1794,-28.2053,-2.5642,-19.4871,33.8459,15.3845,4.2307,2.5642,-33.718,28.718,
-9.7437,30.769,24.1025,-10.2563,-51.2822,-34.3591,-13.3335,-10.2563,33.8462,30.3845,19.2307,9.7437,-29.7437,27.1792,
-5.8975,31.5386,31.0259,-8.9741,-36.2822,-25.3848,1.6665,-12.0513,32.564,23.8462,19.231,-2.8203,-14.7437,34.6152,
-6.6667,30.7693,27.1794,-11.282,-38.4617,-27.6921,8.2053,-14.8718,28.718,12.8206,4.6155,-4.6155,-17.9485,34.3591,
-13.5896,24.3591,19.2307,-18.2053,-52.5642,-36.1538,-6.7947,-14.6155,20.7693,20.2566,12.5642,6.9231,-26.4104,25.8972,
-10.5129,33.0769,25.3845,-8.4617,-43.8462,-25.8977,-4.3591,-10.0002,19.7434,17.6921,14.1023,4.3591,-20.2566,37.6921,
-2.3076,41.2817,34.1025,-0.25635,-41.7949,-27.949,-3.3335,-0.76953,21.2817,31.0254,19.2305,0.25635,-12.0513,46.4102,
-3.3333,37.1794,32.0515,-1.282,-46.9229,-27.9485,-1.7947,-8.9744,36.2817,28.9744,17.6926,1.282,-18.2048,34.6155,
-6.4102,31.0259,26.9233,-6.4102,-52.564,-34.1025,-9.4873,-11.5386,39.231,25.8975,15.6411,6.4102,-27.436,29.4873,
-7.436,27.9487,26.9229,-8.4614,-55.6411,-40.7693,-15.1284,-5.3848,32.0513,31.0254,18.7178,5.3848,-23.8462,33.5898,
-6.9231,31.5383,26.4104,-4.8718,-45.8975,-28.4617,-0.12842,-10.0002,43.3333,21.7947,13.0769,-0.25659,-17.6921,35.1282,
-9.7439,23.5896,22.5642,-15.8977,-50.7693,-38.4617,-5.6409,-15.8977,35.8972,27.1794,20.5129,5.6409,-22.5642,26.6667,
-11.0254,24.3594,26.4106,-14.6152,-53.5896,-35.1279,-7.9487,-19.2305,35.6411,22.8208,15.1284,7.9487,-25.3843,29.4873,
-7.9487,35.1284,27.436,-4.8716,-53.0769,-24.8716,-4.3589,-10.5127,32.0513,21.2822,10.5127,4.3589,-23.3335,42.3076,
-7.1797,32.3076,28.2051,-5.6411,-55.3845,-31.7949,-6.1538,-6.1538,23.5898,30.769,23.0771,5.6411,-21.0256,38.4614,
-7.4358,29.9998,33.5896,-1.282,-51.5386,-32.0515,1.282,-15.6409,25.8972,15.769,9.4871,-1.7947,-28.4617,26.4104,
-2.5645,29.7437,37.4355,-2.0513,-57.436,-38.9746,-2.5645,-10.7695,24.6152,25.6406,15.3843,2.0513,-28.7183,22.0513,
-10.2566,27.1794,32.8206,-9.7434,-65.6411,-40.5127,-6.1541,-13.8459,35.8977,29.7434,21.5383,6.1541,-27.6924,23.5896,
-12.564,31.0254,33.5898,-4.8721,-64.3591,-32.564,0.25635,-15.6411,26.4102,16.1538,7.436,-0.25635,-33.0771,28.4614,
-1.2822,31.5386,38.2051,-0.25635,-58.2053,-31.0259,0.25635,-10,11.4102,18.7178,6.9229,-2.3076,-26.9233,30.5127,
-3.0769,32.3079,33.3333,-2.5642,-54.8716,-28.2048,-3.5896,-13.3333,15.8977,16.9231,5.1282,2.5642,-23.5896,36.9231,
-7.6921,30.7693,31.282,-6.6667,-67.1794,-35.3845,-12.8206,-8.718,28.718,30.7693,15.8977,6.6667,-27.6921,34.8718,
-0.25635,32.564,40.769,-0.76953,-60.7693,-29.4873,-4.3589,-8.4614,35.6411,30,19.7437,0.25635,-25.8975,24.3589,
1.5383,33.3333,37.4358,-1.5383,-54.3589,-29.7434,-5.1282,-12.3079,27.6921,19.4871,9.2307,-4.1028,-31.282,17.9485,
-2.8206,27.4358,34.1028,-7.9485,-62.8206,-36.1538,-13.0769,-9.9998,12.6921,30.0002,12.5642,2.8206,-35.1282,21.7952,
-6.667,27.1792,35.8975,-5.6411,-60.0002,-25.1284,-2.0513,-18.4614,23.0767,18.4614,4.1025,2.0513,-33.3335,27.1792,
-7.9485,23.8464,33.0769,-11.5383,-57.6921,-36.1538,-3.3333,-19.2307,25.8977,23.8464,11.0256,3.3333,-28.9744,21.7952,
-11.7952,15.3845,29.2307,-20.0002,-57.436,-47.1797,-3.0769,-20.5129,21.0256,27.6921,13.8459,3.0769,-29.7439,13.8459,
-8.718,19.4871,30.2561,-13.3333,-53.3335,-35.3845,4.1023,-20.5129,25.6409,14.8718,1.5383,-1.5383,-32.3079,21.0256,
-3.3335,24.3589,37.6919,-9.4873,-52.0515,-31.5386,-0.25635,-11.5386,24.3589,28.4614,14.1025,0.25635,-23.8464,29.4868,
-6.9231,24.3586,36.6667,-7.4358,-47.436,-23.8464,-0.76929,-14.6155,28.4617,22.8206,13.5896,0.76929,-22.8206,27.9485,
-7.4363,22.8201,32.5637,-7.4363,-48.4617,-26.9231,-4.8718,-13.5901,19.2307,21.7947,12.051,4.8718,-26.9231,23.3333,
-4.6155,24.6155,34.3591,-6.1541,-47.1794,-31.282,-1.0256,-12.8206,22.051,23.5896,10.2566,1.0256,-24.6155,26.1536,
-5.6409,28.718,30.7693,-1.0256,-45.6409,-29.2307,2.5642,-17.4358,34.8718,14.3591,1.0256,-5.1282,-27.1794,31.2825,
-4.6155,26.6667,30.2566,-3.0769,-49.7437,-34.3589,-4.1023,-13.8459,23.5896,26.1541,12.3079,3.0769,-26.6667,27.1794,
-3.8462,29.4873,35.6411,-1.7949,-42.3079,-26.9233,6.4102,-19.231,15.6411,13.5898,1.7949,-4.3589,-27.436,17.6924,
-0.25635,33.0767,36.6665,0.25635,-44.8721,-30.5132,6.9229,-17.1797,9.4868,13.0767,-1.7949,-10,-30,16.1538,
0.76929,26.9231,33.5896,-1.7952,-52.5642,-36.6667,-0.76929,-13.5901,19.2307,25.3845,13.0769,-1.7952,-26.9233,24.8718,
-7.6924,24.1025,28.2051,-2.0513,-51.282,-30.769,4.1025,-20,25.6411,10.3845,2.0513,-5.6411,-29.7437,28.7178,
-6.667,22.564,32.3076,-7.1797,-51.7952,-33.8464,2.0513,-16.4106,11.7949,15.8975,9.2305,-2.0513,-29.7437,20,
-3.3333,19.2307,36.1541,-6.4104,-48.9744,-27.9485,-0.25659,-18.718,26.4104,15.6409,12.0515,0.25659,-28.9744,15.6409,
-5.8975,23.8462,32.564,0.25635,-50.5127,-21.7949,-2.3076,-15.1279,30.5127,17.6924,5.8975,-0.25635,-31.0254,24.3589,
-10.5127,27.9487,34.1025,-0.76904,-49.4871,-20.769,0.76904,-14.1025,21.7949,18.7178,7.436,-3.3335,-31.0254,24.3589,
-6.4102,33.5898,41.7949,1.7949,-38.2051,-12.564,13.0771,-18.7178,22.3081,3.7178,-1.7949,-11.0254,-30,21.7949,
-1.7949,28.4619,40.7695,-1.7949,-43.3333,-25.3843,5.8975,-16.1538,12.5645,10,1.7949,-12.0513,-31.0254,21.2822,
-6.6667,23.0769,37.949,-2.5642,-48.7178,-29.7434,2.5642,-18.4612,27.5645,11.282,6.1541,-11.7947,-30.2561,20.0002,
-11.0256,23.3333,38.718,-0.76929,-51.0259,-26.9231,0.76929,-16.1541,38.718,9.9998,6.9231,-6.9231,-29.4875,16.1536,
-6.4104,21.7947,42.8206,-1.282,-50.5129,-26.9231,-2.3079,-12.0515,23.718,20.2561,9.9998,1.282,-27.949,16.1536,
-1.7947,27.4358,42.8206,-0.25659,-42.3079,-24.3591,3.3333,-15.6409,8.718,12.0515,5.3845,0.25659,-30.0002,23.3333,
-4.6157,26.6665,38.4614,-4.1025,-45.1284,-33.8464,-9.7437,-11.7949,5.6406,20.5127,13.8462,4.1025,-29.231,21.0254,
-10.2563,24.1025,36.9229,0,-48.2053,-27.1797,-11.7949,-17.9487,9.2305,13.333,2.564,0,-29.7437,14.3589,
-3.0767,32.8208,44.6157,8.2051,-41.5386,-16.4102,2.564,-14.3589,10.7695,7.1797,-2.564,-5.1279,-31.7949,22.0513,
-1.0256,29.7439,46.1541,1.0256,-43.0767,-25.1282,-2.051,-9.7434,1.0256,19.4875,10.2566,-5.6409,-31.7947,21.5388,
-7.1794,27.1794,42.5642,1.0256,-40.5129,-22.5642,-1.0256,-17.949,4.1028,12.8206,1.0256,-4.6155,-32.3079,17.4358,
-7.436,24.8716,44.3589,0.25635,-43.8464,-31.0259,-3.8462,-14.1025,8.9741,19.2305,7.9487,-0.25635,-32.5645,19.2305,
-5.8977,26.9231,46.9231,-0.76929,-43.3335,-24.3591,-2.3079,-10.5129,23.9741,20.2561,15.6409,0.76929,-31.0256,22.8206,
-5.3848,33.0767,42.3076,4.8716,-42.8208,-17.6924,0.25635,-11.0259,16.6665,12.564,0.64087,-0.25635,-34.6157,19.7437,
-3.3335,24.8716,42.8203,0.25635,-48.4614,-32.6924,-10,-11.5386,1.6665,20.769,4.8716,2.3076,-30,12.564,
-5.3848,22.3076,42.8203,-1.2822,-45.8975,-31.0259,-12.564,-13.0771,16.6665,10,10,1.2822,-25.8975,21.7949,
-11.0256,26.9231,35.6409,-1.7947,-51.0256,-16.0259,-20.2566,-3.8464,15.6409,8.4617,10.5129,1.7947,-32.0515,27.4358,
-12.3076,28.7183,34.3589,0,-50.2563,-2.564,-16.9229,-6.1538,0.64087,7.1797,1.0259,0,-31.2817,25.1284,
-5.1284,32.8203,40.5127,5.6411,-46.667,-8.7183,-7.6924,-8.2051,6.6665,7.6924,-2.0513,2.0513,-29.231,30.769,
-3.0771,29.2305,43.5898,-1.5386,-53.8462,-18.4614,-15.3848,-4.1025,7.1792,22.6924,12.3076,1.5386,-33.8462,23.5898,
-2.5642,35.3845,47.6921,5.1282,-45.1282,-3.5896,-8.718,-3.5896,16.9231,11.7947,2.5642,-4.6155,-32.8206,23.5896,
-3.333,37.6924,44.8721,9.4873,-48.4614,-5.8975,-12.0513,0.25635,11.5386,6.4102,-0.25635,-7.4355,-34.1025,25.8975,
-2.8203,28.9741,43.3335,2.3076,-51.0256,-15.6411,-13.5898,-2.3076,13.5898,17.1797,11.0259,-4.3589,-31.0256,24.8716,
-0.76904,27.9487,44.3589,-0.25635,-43.3333,-17.1792,-13.0767,-7.9487,16.6665,18.2051,5.3848,0.25635,-27.9487,27.436,
-2.3079,25.3845,44.3591,-4.8718,-47.436,-20.7693,-20.2566,-3.3333,3.8459,21.7947,9.4871,2.3079,-31.0256,22.8206,
-1.7949,27.9487,46.4102,1.2822,-41.7949,-6.4102,-5.2566,-6.4102,14.1025,6.7947,2.8203,-5.3848,-33.5898,19.231,
-1.0256,27.6921,43.5896,3.0769,-41.5388,-12.3079,1.0256,-8.718,15.3845,7.1794,-4.1028,-3.5901,-31.282,22.051,
-2.8208,24.3589,40.769,1.7949,-48.9744,-16.6665,-13.9744,-8.9746,14.6152,18.2051,-1.7949,5.8975,-31.0259,27.436,
-5.3845,28.4617,39.7434,4.8718,-48.9744,-4.8718,-19.7434,-7.9485,19.7434,10.0002,-2.3079,2.3079,-36.6667,28.4617,
-6.1538,25.6411,38.4614,-1.5386,-48.7178,-14.8716,-21.5386,-1.5386,12.3076,19.4873,11.7949,1.5386,-28.7178,24.6152,
-6.4102,25.3848,39.7437,0.25635,-39.7437,-9.4873,-6.5386,-9.4873,26.9233,6.9233,2.3076,-0.25635,-21.7949,29.4873,
-3.0769,30.2566,41.0256,6.6667,-34.3586,1.0256,3.5901,-13.3333,41.9233,-2.051,-4.6155,-1.0256,-25.1282,36.4104,
-0.76904,26.4106,41.2822,4.8721,-36.1538,-3.333,-0.25635,-15.6411,36.667,0.25635,1.7949,-2.8203,-26.4102,25.8975,
-0.51294,28.718,41.5383,5.1282,-32.3079,0.51294,6.6667,-21.0256,21.667,-14.7437,-13.2051,-10.7693,-32.8206,18.9744,
2.3079,28.9744,44.8718,4.3591,-30.5129,-2.3079,8.9744,-14.1023,10.0002,-3.8459,-13.5896,-5.3845,-31.5383,28.9744,
-0.5127,24.1025,41.5386,3.0771,-30.2563,-4.6152,7.1797,-17.436,25.0002,0,-1.5386,0,-21.0254,34.3589,
-2.3076,25.3848,36.1538,2.3076,-31.5386,-3.8462,0.25635,-13.5898,21.2822,-1.7949,-0.25635,2.8203,-16.1538,33.0771,
-2.0513,26.1538,41.0254,0,-31.2822,1.5386,0,-9.7437,6.2822,1.5386,-2.0513,1.5386,-21.0259,32.3076,
-4.8716,22.8203,39.231,1.2822,-30,3.3335,6.4102,-20.2563,21.2822,-5.3848,-5.8975,-1.2822,-27.436,36.6665,
-6.9233,16.1538,34.1025,-2.3076,-36.6665,-11.0259,-4.3589,-15.1284,27.436,7.9487,2.3076,3.8462,-25.8975,30,
-6.4102,18.2051,43.8462,-0.25635,-31.0254,-3.3335,2.8203,-14.6152,22.3076,2.3076,-9.4873,0.25635,-21.7949,21.7949,
-3.0769,24.6155,49.2307,5.6409,-27.1794,0.51294,12.3079,-19.4871,34.3591,-2.051,-11.7947,-0.51294,-24.6155,28.2053,
-3.5898,19.4873,41.5386,0.51269,-34.8716,-13.8462,-0.5127,-21.5386,26.6665,6.1538,3.0771,-3.0767,-28.7178,23.5898,
3.0769,25.6409,45.6409,7.1794,-25.1282,-1.0256,1.0256,-13.8464,24.1023,-3.5901,-5.1282,-10.7693,-24.6155,21.0256,
5.6409,23.5896,48.2048,2.5637,-28.2053,-8.2053,-1.5388,-9.7439,17.9485,1.0256,-1.0256,-8.718,-24.1028,20.5125,
0.76929,16.6667,43.8459,-4.3591,-31.0256,-15.6414,3.8459,-23.3333,26.9231,-0.76929,4.8718,-6.9231,-22.3079,21.282,
4.1028,24.6155,46.6667,4.1028,-22.051,-5.1282,7.6921,-22.5642,30.7693,-7.1794,-4.1028,-8.2053,-16.9231,24.1028,
6.1538,23.5898,50.2563,5.6411,-25.1279,-8.2051,-6.6665,-13.8462,15.7693,2.0513,-4.6152,-2.0513,-18.4614,16.4106,
5.1282,23.5896,50.2566,6.6667,-28.2048,-6.1536,-4.1023,-15.8972,13.3333,-2.5642,-3.5896,2.5642,-24.1023,15.3845,
4.8716,24.3589,45.3843,2.8203,-31.5386,-8.9746,0.25635,-15.1284,9.4868,-0.76953,-0.25635,-2.3076,-25.3848,19.7437,
4.3586,22.3074,44.8718,3.3333,-25.3845,-2.8206,2.8206,-16.1541,17.6921,-2.8206,-7.4358,-8.4617,-23.3333,24.3586,
1.2822,22.8203,42.8203,3.8462,-25.3848,3.3335,-1.2822,-19.7437,15.6411,-12.0513,-19.231,-14.1025,-27.9487,17.6924,
7.6924,24.6152,48.7178,0.5127,-26.667,-0.5127,-5.1284,-12.3076,4.6152,1.5386,-4.231,-5.6411,-23.0771,17.9487,
4.8716,23.8462,45.3848,-0.76904,-24.3589,0.76904,3.3335,-17.1797,14.6152,-9.4873,-7.436,-8.4614,-25.8975,25.3848,
1.5386,24.6152,40.5127,1.5386,-28.2051,-1.5386,5.1284,-14.3589,19.4873,-6.6665,-8.2051,-6.6665,-24.6152,23.5898,
0.5127,19.4873,40,3.5898,-25.1279,-0.5127,2.0513,-16.4102,17.436,-3.0767,-5.6411,-3.5898,-18.9741,17.436,
0.25635,17.1792,37.6924,3.8462,-19.231,2.3076,-0.25635,-21.2822,11.5381,-13.0771,-15.1284,-9.4873,-24.3594,20.769,
5.8975,18.7178,41.7949,-0.76904,-18.2051,-2.3076,0.25635,-13.0767,8.9746,0.25635,-0.25635,-4.8716,-22.3076,16.1538,
8.718,21.0256,45.6409,-1.5383,-4.6155,1.5383,12.3079,-21.5383,19.4871,-6.1541,-2.5642,-4.6155,-22.0515,6.1541,
7.9485,22.3074,42.3074,-0.76929,0.76929,1.7947,5.3845,-23.3337,4.4871,-9.4875,-17.1794,-10.0002,-33.5901,8.9744,
9.7437,22.564,42.0513,0.5127,0,10.2563,0,-22.0513,-10.5129,-10.2563,-22.5645,-18.4619,-36.9233,7.1792,
18.4614,28.2051,45.6411,1.5386,7.6924,20.5127,14.3589,-26.6665,-2.0513,-23.0771,-33.3335,-23.5898,-40,-1.5386,
33.4614,32.8203,54.8716,0,18.4614,16.9229,20.5127,-19.4873,-7.1797,-9.7437,-18.4614,-14.8721,-35.8975,0,
29.4873,27.436,49.4873,-1.7949,19.7437,13.5898,15.1284,-28.9746,1.7949,-22.8203,-24.8716,-26.4102,-36.1538,-5.8975,
23.5896,24.1023,41.0256,0.51294,11.7947,8.718,9.2307,-29.2307,-0.51294,-26.1541,-31.7947,-30.2566,-36.4104,-9.7434,
33.0769,32.0515,50.5129,5.3845,16.1541,17.6926,17.1794,-17.6921,-15.5129,-11.5383,-22.3074,-20.2561,-32.5637,-5.3845,
33.5898,38.2051,51.5386,5.8975,21.2822,25.3848,17.1797,-23.3335,-20.2563,-21.7949,-30.5127,-26.9229,-40.769,-5.8975,
31.2817,32.8203,48.2051,4.1025,14.8716,10.3848,9.2305,-23.5898,-10.2563,-12.8208,-23.0771,-26.1538,-40,-4.1025,
23.3335,23.8462,42.8203,3.8462,7.9487,3.8462,16.1538,-30,-5.8975,-20.2563,-32.564,-27.9487,-38.7178,-3.8462,
20.7695,23.8462,40.2563,1.7949,5.3848,4.8721,14.6157,-26.4102,-5.3843,-16.6665,-28.4614,-20.769,-37.1792,-1.7949,
21.2822,19.7437,43.3335,-6.9229,2.3076,-3.3335,3.8462,-21.2822,1.7949,-1.7949,-13.4614,-10,-30,3.3335,
15.1284,17.6924,41.7949,-6.9233,0.76904,1.7949,8.9741,-27.436,-0.76904,-16.7949,-20.2563,-18.2051,-31.0259,5.8975,
16.6665,23.8462,43.333,-0.25635,0.25635,8.4614,10,-17.6924,-15.769,-11.5386,-15.1284,-19.231,-28.4614,1.2817,
14.3589,26.1538,43.5898,4.6152,-2.0513,10.7695,7.1797,-19.4873,-13.8462,-12.3076,-15.3848,-16.9229,-29.7437,2.0513,
9.231,24.6152,40,4.6152,-10.2563,7.1797,5.6411,-20,-4.6152,-16.9229,-23.5898,-12.3076,-34.8716,9.7437,
7.4355,16.1538,41.2817,0.25635,-15.6411,-0.25635,7.4355,-13.0771,7.9487,-4.3594,-8.9746,-6.9233,-28.4619,8.9741,
3.5898,10.7695,40,0,-14.8716,0,9.7437,-17.9487,22.9487,-9.2305,-5.6411,-10.2563,-22.0513,8.2051,
6.9233,13.0771,40.7695,0.25635,-19.7437,-3.8462,0.25635,-15.1279,9.4873,-0.25635,-2.3076,-5.8975,-19.2305,8.9746,
6.6667,15.3845,41.5383,-0.51294,-20.5129,-3.5896,2.5642,-20.5129,7.1794,0.51294,-7.6926,-8.718,-21.5383,3.0769,
4.8716,17.1792,42.8203,1.7949,-22.3076,-1.7949,7.436,-21.2822,7.436,-7.9487,-15.6411,-14.6157,-26.4102,7.436,
7.436,21.2822,50.5132,6.4106,-32.0513,3.3335,-0.25635,-9.4868,0.25635,-0.76904,-2.8203,-8.4614,-20.769,14.6157,
4.1025,22.564,46.1538,9.7437,-33.8462,10.7695,-4.1025,-12.8203,6.1538,-12.8203,-10.2563,-13.333,-25.1279,8.2051,
10.5127,23.8462,45.8975,13.5898,-27.436,3.8462,-4.3589,-4.8721,4.3589,-3.8462,-7.436,-8.4614,-25.3848,12.564,
11.7949,20,46.6665,9.7437,-27.1797,2.0513,-1.5386,-9.7437,1.5386,-7.1797,-6.1538,-6.6665,-24.1025,16.4102,
6.9231,18.718,42.8206,4.8718,-33.5896,5.8977,-4.8718,-17.6921,10.0002,-18.2048,-12.5637,-12.5637,-27.9485,11.5388,
8.7178,22.0513,46.6665,7.6919,-34.3594,0,-13.3335,-8.7183,12.8203,-3.2048,-0.51318,-10.7695,-25.1284,10.2563,
11.7949,29.231,55.3848,14.8721,-23.5898,2.0513,-3.5898,-8.2051,15.8975,-4.1025,-2.0513,-12.8203,-19.4873,11.7949,
9.4873,22.8203,51.0259,6.9233,-27.9487,-9.4873,-4.3589,-11.0254,11.5386,-2.8203,2.8203,-10.5127,-16.1538,4.8721,
4.1023,12.3074,44.1023,3.5896,-33.3333,-13.8464,-7.1794,-15.385,15.8972,-1.0256,6.1536,-11.7952,-15.385,1.0256,
7.1797,20,51.2822,10.7695,-25.6411,-1.5386,1.5386,-12.8203,14.3589,-12.8203,-2.0513,-18.9741,-15.8975,4.6152,
10.7695,15.8975,53.3335,0,-25.6406,-12.3076,0,-9.2305,1.5386,-4.6152,2.0513,-13.8457,-15.3843,1.0259,
6.9233,11.5386,47.9487,-1.7949,-21.2822,-12.564,6.4102,-11.5386,15.6411,-0.25635,-1.7949,0.25635,-13.5898,9.4873,
-0.76904,10.5127,41.2822,0.76904,-30.5127,-14.1025,-5.8975,-10,11.5386,3.8462,-2.8203,0.76904,-21.7949,14.6152,
0.76929,8.9744,42.8206,-0.76929,-36.6667,-13.5901,-18.2053,-7.949,12.051,8.9744,7.9485,-2.3079,-19.7439,14.615,
-1.7949,10,38.7178,-2.3076,-36.667,-13.5898,-15.1284,-9.4873,21.2817,4.8716,10.5127,1.7949,-13.0771,16.1538,
-6.9231,6.9231,35.6409,-7.4358,-42.3079,-24.3591,-14.6155,-8.4617,7.4358,12.051,17.1794,9.4871,-12.0515,14.1023,
-5.3848,6.9229,41.2817,-4.3589,-34.1025,-14.6152,-4.8721,-12.0513,6.9229,4.8716,6.9229,4.3589,-14.1025,18.2051,
-4.3589,10,40.7695,-0.25635,-34.1025,-13.5898,-6.9229,-6.4102,7.9487,4.8721,2.8208,0.25635,-13.5898,17.6924,
-7.6926,8.2048,37.9485,-2.5642,-44.6155,-22.0515,-13.8464,-7.1794,9.7434,8.718,14.8718,2.5642,-10.2566,7.1794,
-1.7949,13.5898,41.2822,3.3335,-39.231,-8.4614,-3.8462,-11.0254,16.1538,-2.3076,10.5127,1.7949,-13.0767,10.5127,
0.25635,12.0513,42.3076,2.8203,-35.6411,-6.9233,-7.436,-7.436,1.1538,0.76904,1.2817,-0.25635,-18.7183,11.0254,
0.76929,15.1282,47.4358,6.4104,-23.8459,-4.8718,-0.76929,-5.3845,-4.3591,0.76929,-2.3079,0.76929,-8.9744,16.1541,
0.51294,13.8459,43.5896,4.6155,-26.6667,-13.3333,-0.51294,-4.1028,-1.0256,1.0256,1.5383,-0.51294,-7.6921,18.9744,
1.0256,9.2307,40.5129,-0.51294,-33.8464,-21.0256,-3.0769,-6.1541,-2.0515,8.2048,9.7434,0.51294,-11.7952,14.3586,
0.25659,11.0256,39.7434,-0.76929,-25.8977,-13.5896,4.3591,-13.0769,4.3591,-0.25659,-0.25659,3.3333,-13.0769,14.1023,
-1.0256,8.2053,35.8977,-3.5896,-27.1794,-16.9231,-3.5896,-7.1794,1.0256,10.2566,5.6414,11.282,-7.6921,17.4363,
-10,4.8716,31.0254,-4.3589,-36.6665,-14.6152,-14.1025,-10.5127,4.3589,7.9487,4.3589,10.5127,-7.9487,14.1025,
-9.9998,8.9744,34.1028,-2.8206,-36.6667,-11.5383,-11.0256,-8.4617,9.4871,7.949,2.8206,12.5642,-9.4871,12.5642,
-7.9487,3.8462,35.1284,-7.9487,-36.6665,-22.3076,-6.9229,-3.8462,7.9487,20.2563,16.667,15.6411,-6.4102,12.5645,
-10.7693,3.5896,31.282,-5.6409,-36.4104,-18.9744,-3.5896,-8.718,14.3591,11.282,14.3591,9.2307,-11.7947,11.7947,
-5.1284,9.7437,37.436,-3.5898,-31.2822,-13.3335,-6.6665,-4.1025,3.5898,15.8975,15.3848,9.231,-11.2822,10.769,
-2.8203,9.4873,41.2822,-4.8716,-20.2563,-10.5127,0.25635,-5.3848,-0.25635,11.0259,8.9746,4.8721,-3.3335,10,
-4.6152,8.7178,36.9229,-5.1284,-20,-15.8975,7.1792,-7.1797,-1.5386,1.5386,2.564,3.0767,-5.1284,14.3589,
-1.0256,5.1282,36.4099,-7.1794,-28.718,-21.0256,1.0256,-4.1028,-3.0769,9.2307,11.282,8.2048,-8.718,13.3333,
-1.7949,1.7949,34.6157,-6.4102,-27.4355,-12.0513,-0.25635,-11.0254,10.5132,0.25635,0.76953,2.8208,-13.5894,6.9233,
-2.3076,3.8462,32.564,-6.4102,-27.9487,-15.1284,-4.8721,-8.9746,2.3076,6.4102,3.8462,5.8975,-14.6157,10.5127,
-3.8462,5.3843,34.6152,-6.4106,-25.3848,-13.0771,-0.25635,-7.436,0.25635,9.4868,10.5127,11.0254,-8.9746,20.2563,
-10.2563,2.564,29.231,-8.7178,-27.1797,-10.2563,0.5127,-12.3076,7.1797,0,0,5.1284,-11.2822,15.8975,
-4.1025,4.1025,32.3081,-8.7178,-28.7178,-18.9741,-4.1025,-4.1025,9.7437,15,15,12.8208,-6.6665,13.3335,
-4.6152,4.6152,34.3589,-7.6924,-27.1797,-19.4873,-6.1538,-7.6924,17.9487,16.9229,18.9741,13.8462,-5.6411,14.3589,
-7.1794,4.1028,31.282,-7.6921,-31.282,-15.8972,-11.282,-5.6409,13.8459,16.4104,16.4104,14.8718,-4.1028,15.3845,
-7.9487,2.3076,33.5898,-6.4102,-31.5386,-13.5898,-6.4102,-6.4102,12.564,20.2563,22.8203,16.6665,-2.3076,17.6924,
-10.2566,2.5642,32.8206,-8.718,-28.718,-16.4104,-2.5642,-10.7693,9.2307,11.7947,17.4358,12.3074,-4.1028,19.9998,
-4.6155,3.5896,34.3591,-8.2053,-25.6409,-17.4358,-2.5642,-3.5896,-1.5383,20.5129,23.5896,16.4104,1.5383,17.949,
-7.6921,-1.0256,30.7693,-8.2053,-27.6921,-15.8972,1.0256,-13.3333,2.5642,9.7434,18.4617,10.2566,-3.5896,10.2566,
-7.949,0.76929,35.6409,-6.4104,-31.5383,-21.7952,-0.76929,-6.4104,11.5383,17.6921,23.8459,15.1282,-5.3845,15.1282,
-5.3848,-0.25635,41.7949,-7.436,-26.9231,-20.2563,-0.25635,0.25635,20.2563,28.4614,25.8975,22.3076,-2.8208,18.2051,
-6.4102,-1.7949,36.6665,-11.5386,-22.8203,-15.1279,1.7949,-11.5386,20.2563,13.4614,16.6665,12.0513,-7.436,12.0513,
-3.3333,-0.25659,38.718,-12.5642,-23.3333,-20.2563,-0.76929,-6.4104,7.949,22.8206,31.6665,17.6921,0.25659,16.6667,
-9.231,0,36.9229,-6.667,-19.4873,-11.2822,0.5127,-5.6411,0,15.3843,21.0254,21.5381,-0.51318,21.0254,
-8.718,5.6409,35.3845,1.0256,-19.4871,-4.1023,-1.0256,-4.6155,-15,7.1794,6.0254,15.3845,-6.6667,20.5129,
-6.4104,3.8459,36.6667,-1.7947,-22.8206,-8.4617,1.7947,-6.9231,-20.7693,8.4617,9.4871,4.8718,-6.9231,13.5896,
-7.1792,3.5898,35.3848,-2.0513,-20,-3.5898,12.8208,-11.2817,-6.6665,2.0513,7.1797,4.6152,-9.2305,14.3589,
-7.1794,5.1282,35.3845,-4.1023,-26.1536,-7.1794,1.0256,-6.6667,-1.0256,15.8977,16.4104,16.9231,-4.1023,21.5383,
-12.3079,1.0256,31.282,-5.1287,-32.8206,-6.1541,-11.2825,-11.7952,6.6663,7.1794,14.3586,11.282,-1.0256,16.4099,
-8.4617,4.3591,32.0515,2.8206,-30.5129,-2.8206,-7.4358,-6.4104,-5.8972,4.8718,8.4617,8.9744,-6.4104,13.0769,
-3.0771,7.6924,40,2.0513,-26.1538,-8.7178,-2.0513,-3.5898,-13.8462,19.8718,14.3589,17.436,-6.6665,17.9487,
-11.7949,2.0513,33.8462,-8.7178,-29.2305,-18.4614,-2.0513,-18.4614,1.1538,5.6411,6.667,9.231,-7.6919,14.8721,
-9.7434,1.0256,29.7434,-6.6667,-31.282,-21.0256,-3.5896,-9.2307,9.7434,12.3079,17.4358,12.3079,-1.0256,12.3079,
-6.1538,5.6411,31.7949,-1.0259,-28.2051,-8.2051,-1.5386,-6.1538,0,15.8975,19.4868,16.9229,0,13.8462,
-1.7949,11.0254,34.1025,-0.25635,-25.8975,-5.8975,0.25635,-7.9487,-7.9487,14.6152,15.1279,17.6924,-3.3335,18.7178,
-1.0256,4.615,32.8201,-5.6414,-26.667,-18.9744,-2.5642,-7.6926,1.0256,16.9231,19.9998,14.8713,-3.5901,17.4358,
-6.9231,2.8206,28.9744,-3.8459,-23.8459,-15.6409,-2.8206,-12.051,13.0769,5.8977,8.9744,8.9744,-4.8718,16.6667,
-8.718,3.0769,29.2307,-1.5383,-29.7434,-13.3333,-11.282,-3.5896,1.5383,18.4617,12.8206,15.8972,-4.6155,18.4617,
-6.1541,1.5383,31.7947,-1.5383,-27.1794,-7.6921,-4.6155,-4.1028,8.2053,16.9231,12.8206,17.4358,-4.1028,19.4871,
-3.3333,4.3591,31.0256,-1.7947,-26.4104,-10.0002,-1.282,-10.0002,14.1028,1.9231,4.3591,9.9998,-7.9485,20.2566,
-4.8716,4.8716,33.0771,1.7949,-31.5386,-15.6411,-7.9487,-6.9229,-0.89722,8.9746,16.6665,15.1284,-1.7949,18.2051,
-12.3076,1.5386,30.2563,2.564,-26.1538,-10.2563,-1.0259,-12.3076,-12.3076,0.5127,12.8203,10.2563,-0.51269,9.7437,
-5.3845,2.3079,33.0769,-1.282,-21.282,-18.718,-0.76929,-6.9231,0.76929,8.4617,16.1541,6.4104,-2.3079,8.4617,
-5.1282,1.5383,33.8459,-1.5383,-23.0769,-26.6667,-5.1282,-11.282,3.5896,6.1536,14.8718,2.5642,-4.1028,6.1536,
-7.436,3.8462,31.5386,0.76904,-21.7949,-23.8462,-0.25635,-13.5898,-6.4102,0.25635,8.9741,4.3589,-3.8462,5.3843,
-4.3589,-0.25635,33.0771,-5.3848,-24.3589,-27.4358,-0.76904,-8.4614,1.7949,15.2563,19.7437,10,0.25635,3.8462,
-6.4104,-0.76929,32.5642,-2.8206,-23.8464,-19.7439,0.76929,-11.5383,14.6155,10.5129,12.051,5.3845,-1.7952,10.5129,
-4.8716,4.3589,30.5127,0.25635,-23.3335,-14.1025,-0.25635,-5.8975,-0.38452,8.4614,12.564,7.9487,-3.8462,14.1025,
-3.8459,-0.25659,31.0256,-6.4104,-22.8206,-17.1794,0.25659,-9.9998,6.4104,9.4871,18.718,10.0002,-2.8206,4.8718,
-4.8716,-2.8203,31.0254,-1.7949,-20.2563,-15.6411,1.7949,-15.1284,11.5386,3.3335,7.9487,12.0513,-4.8716,9.4873,
-2.564,-0.5127,32.8203,3.0767,-20.5127,-14.3589,0.5127,-6.1538,-3.4614,14.8716,12.3076,17.436,-0.5127,17.436,
-7.6921,-1.0256,27.1799,-3.5896,-26.6663,-14.8713,1.0256,-10.2561,-8.7175,12.3079,12.3079,14.3591,1.0256,14.3591,
-11.7949,-2.564,22.0513,-6.1538,-33.3333,-22.564,-9.231,-7.6924,4.1025,22.0513,16.4102,20,2.564,15.3848,
-9.4871,-5.3845,26.9231,-3.3333,-29.4873,-21.7949,-11.0256,-3.3333,9.9998,29.4871,25.8972,21.282,3.3333,14.6155,
-2.3076,-4.3589,33.0767,-3.8462,-25.3848,-20.2563,-1.2822,-5.8975,24.9998,18.7178,30,13.0767,1.2822,8.4614,
-0.25635,-5.8975,31.5381,-7.436,-31.5386,-29.4873,-4.3594,-8.9746,9.9998,17.1792,26.4102,13.5894,0.25635,8.4614,
-1.5383,1.5383,31.282,1.5383,-26.6667,-14.4873,-1.5383,-11.7947,-5.0002,2.1792,11.4102,12.8206,-6.6667,16.4104,
0.76929,7.4358,31.5383,6.9231,-27.4358,-4.8718,-6.4104,-4.8718,-15.6409,-0.76929,2.3079,5.3845,-12.5642,13.5896,
0,0,32.3076,1.5386,-29.2305,-16.9229,-10.2563,-6.6665,-6.6665,7.1797,15.3848,2.0513,-4.6152,5.6411,
-0.25635,0.76953,34.6157,0.25635,-15.6411,-12.0513,-1.2817,-12.564,8.3335,-1.2817,7.436,-0.76904,1.2822,7.9487,
5.6409,4.1023,32.8206,-4.1028,-16.9231,-13.3337,-8.2053,-7.1794,2.051,1.0256,12.3074,-1.0256,-1.5388,5.6409,
7.6924,6.1538,32.3076,0,-20,-7.1797,-5.6411,-10.2563,-12.949,-1.5386,12.8203,0,0,6.1538,
2.0513,4.1025,31.7949,-1.5386,-20.5127,-12.3076,-3.5898,-11.2822,-22.5645,3.0767,9.7437,1.5386,-2.0513,6.6665,
-0.51294,-0.51294,31.7947,-8.718,-18.4617,-22.5642,-7.1794,-9.7434,-7.5645,13.3333,18.9744,4.6155,0.51294,6.6667,
-2.3076,-0.25635,26.9233,-6.9229,-16.6665,-18.2051,-5.3848,-17.1792,7.4355,1.7949,12.0513,5.3848,0.25635,10,
-0.76929,-1.282,28.4617,-6.4104,-18.2048,-21.282,-6.4104,-7.9485,8.9744,15.1282,24.3591,14.1028,0.76929,14.1028,
-1.5383,-2.051,31.7947,-8.2053,-15.3845,-19.9998,-4.6155,-6.1541,11.282,19.4871,26.1541,13.3333,1.5383,14.8718,
-0.76929,0.76929,28.4617,-4.8718,-18.718,-15.6409,-5.8972,-8.4617,5.3845,10.5129,11.1541,12.0515,-1.7947,12.5642,
-1.7949,-5.8975,29.4873,-4.3589,-24.8716,-18.7178,-11.0254,-7.9487,6.9233,14.6157,17.6924,14.6157,1.7949,5.8975,
-6.9233,-6.4102,28.9741,-2.3076,-22.3076,-16.1538,-10,-11.5386,21.9233,5.8975,17.6924,6.4102,2.3076,6.9229,
-1.282,1.282,28.4617,-1.282,-22.8206,-15.6409,-15.1282,-6.9231,6.9233,8.9744,17.6921,5.3845,-2.3079,12.5642,
3.5896,-1.0256,33.3333,-3.0769,-19.4871,-14.3591,-8.2053,-12.8206,1.0256,5.6409,11.7947,6.1541,-2.5642,12.3079,
1.5386,-5.1284,33.3335,-1.5386,-21.0259,-21.0259,-5.6411,-15.3848,16.0256,6.6665,8.7178,11.7949,-2.564,14.3589,
0,-4.6157,33.8457,-2.5645,-27.1797,-25.1284,-13.8462,-8.7183,15.897,21.0254,22.0513,18.9741,0,11.7944,
-1.0254,-0.51269,33.3335,-3.5898,-21.5386,-12.8203,-10.2563,-11.2817,17.9487,6.0254,15.3848,8.2051,0.5127,9.7437,
-2.5642,0.51294,30.2566,-1.5383,-22.5642,-15.8972,-15.8972,-5.6409,22.0515,6.6667,16.9231,6.1541,-0.51294,16.4104,
-8.718,-1.5383,28.718,1.5383,-24.6155,-16.4104,-23.0769,-5.6409,16.9231,11.7952,17.4358,9.2307,-3.5896,16.4104,
-8.718,-1.5383,29.7434,1.5383,-21.0256,-11.7947,-18.9744,-6.6667,7.1794,6.6667,11.282,10.2566,-3.5896,15.3845,
-1.7949,-5.8975,30.5127,-3.3335,-22.8208,-19.7437,-16.1538,-1.7949,9.4868,19.7437,24.3589,18.7178,1.7949,17.1792,
-3.0769,-4.1023,28.718,0.51294,-19.9998,-13.8459,-9.2307,-7.6921,18.4617,10.2566,20.0002,15.3845,-0.51294,16.9231,
-4.8718,-1.282,30.0002,1.282,-16.6663,-10.5125,-12.051,-5.3845,3.4617,5.385,13.5901,11.5388,-1.282,17.6926,
-3.5894,-4.6152,31.2822,-2.0513,-18.4614,-11.7949,-11.2817,-5.6406,13.8462,8.7183,17.436,11.2822,2.0513,20.5132,
-2.3076,-3.8462,27.9487,-0.76904,-17.1797,-10,-3.3335,-8.4614,24.8721,8.9746,18.2051,8.4614,0.76904,21.7949,
-2.8203,-4.3589,27.9487,-1.7949,-12.0513,-12.0513,-4.8716,0.25635,9.8721,19.7437,26.9233,16.1538,3.3335,25.3848,
-7.436,-3.8462,25.3843,0.25635,-11.5386,-4.8721,-8.4614,-2.3076,-0.25635,11.5386,18.7178,21.7949,3.333,30.5127,
-10.5125,-6.4099,20.7693,-4.3586,-23.3333,-11.0256,-18.2048,-3.3333,11.5388,17.1794,18.718,19.7439,3.3333,24.3591,
-12.8206,-12.3079,18.4617,-10.7693,-22.5642,-16.4104,-15.3845,-5.1282,13.8459,24.1023,25.6409,15.3845,5.1282,18.4617,
-11.5386,-4.3589,18.7178,-1.7949,-15.1284,-3.8462,-5.3848,-2.8203,19.7437,15.6411,23.8462,21.7949,1.7949,29.4873,
-7.9487,-1.2822,23.8462,-1.2822,-26.4104,-8.4614,-12.564,-0.25635,14.1025,22.3076,26.9229,26.4102,0.25635,27.9487,
-4.1025,-3.0767,30.2563,-2.0513,-21.0254,-12.8203,-5.1279,-10.769,7.6924,14.3589,15.8975,16.9233,2.0513,20,
-1.7949,-1.7949,28.9741,1.7949,-14.1025,-15.1284,-1.7949,-7.9487,2.3076,14.1025,16.1538,13.0767,-2.8208,20.2563,
-4.3591,-0.76929,31.5383,0.76929,-18.718,-11.5383,-8.9744,-3.3333,17.3076,23.3333,25.3845,17.1794,-1.7947,20.7693,
-7.4358,0.25659,30.5129,-1.282,-20.2566,-6.9231,-11.0256,-10.5129,23.3333,11.5383,12.5642,14.1028,-0.25659,23.3333,
-2.0513,-0.5127,28.7178,-1.5386,-18.4614,-11.7949,-11.7949,-5.1284,8.3333,18.4614,19.4873,11.7949,1.5386,24.6152,
-5.8975,-2.8203,28.9741,-0.76904,-16.1538,-10,-5.3848,-4.3589,9.4873,17.6924,23.3335,8.9741,0.76904,18.2051,
-8.718,1.0256,29.2307,-1.5383,-20.5125,-11.282,-10.7693,-2.5642,18.9744,18.9744,22.5642,14.8718,-1.0256,17.949,
-9.4868,-0.25635,23.3335,-1.2817,-26.4102,-12.0513,-19.2307,-4.8716,3.9744,22.3076,25.8975,17.6924,0.25635,22.3076,
-14.8718,-0.51294,15.3845,0.51294,-22.5642,-5.6414,-11.7952,-10.7693,10.2561,10.7693,14.8718,10.2561,-3.0769,23.5896,
-12.3079,0.51294,20.5129,-1.5388,-21.0259,-12.3079,-10.2566,-2.0515,22.051,23.5896,23.0769,19.4871,-0.51294,26.1536,
-11.7947,-4.1028,25.1282,-2.5642,-18.9744,-10.2566,-9.2307,-5.1282,22.0515,18.9744,25.6409,21.0256,2.5642,29.2307,
-10.2566,-3.0769,22.5637,-1.0256,-16.9231,-7.1794,-9.2307,-6.6667,14.3586,12.8206,22.051,15.3845,1.0256,29.2307,
-5.1284,-1.5386,24.1025,-2.564,-19.4873,-15.3848,-14.8716,-5.6411,10.769,23.0771,28.7178,19.4873,1.5386,24.6152,
-5.6409,-1.5383,25.1282,-1.5383,-18.9744,-11.282,-11.7947,-11.282,12.8206,10.7693,17.949,15.8977,1.5383,23.5896,
-6.4102,-5.8975,23.3335,-6.4102,-20.2563,-11.0254,-11.0254,-6.9229,10.5127,12.0513,19.7437,11.5386,5.8975,21.2822,
-7.6924,-9.7437,21.5386,-9.231,-15.8975,-8.2051,-6.1538,-8.2051,21.5386,11.7949,23.0767,11.2817,6.1538,16.9229,
-5.3843,-6.4102,25.8975,-2.8203,-12.0513,-4.3589,0.25635,-6.9229,18.7183,13.0771,22.3076,18.2051,-0.25635,21.2822,
-7.436,-8.9746,26.4102,-6.4102,-16.1538,-11.5386,-6.4102,-3.8462,6.9229,22.3076,26.9229,19.7437,3.8462,21.7949,
-11.7947,-5.6409,18.4617,-5.1282,-16.4104,-5.6409,-10.7693,-9.7434,5.1282,7.3076,13.3333,12.3079,6.1541,19.9998,
-11.5386,0.76904,14.6152,0.76904,-21.7949,-3.3335,-15.1284,-0.76904,-9.8718,10.5127,12.564,16.1538,-3.8462,22.3076,
-13.3335,-1.5386,18.4614,1.5386,-24.6155,-7.1797,-11.7949,-1.5386,4.1025,16.4102,16.9233,14.8716,-10.2563,21.5386,
-13.8462,-2.0513,19.4873,2.0513,-25.6411,-9.2305,-13.333,-11.2817,11.2822,5.1284,7.1797,8.7183,-10.2563,18.4614,
-4.6157,2.0513,23.5898,5.6411,-20.5129,-9.7437,-18.4614,-4.6157,-3.7178,12.8203,14.8716,14.3589,-2.0513,23.0767,
-0.25635,0.25635,23.333,3.8462,-9.4873,-8.4614,-10.5127,-6.9233,-0.76953,6.4102,10,8.9741,-0.25635,23.8462,
0.25635,-1.2822,26.4102,0.76904,-8.4614,-14.6157,-8.9746,-8.4614,-0.25635,6.9229,7.9487,6.9229,-1.7949,15.6411,
-0.5127,-0.5127,32.3076,3.0771,-11.7949,-13.8462,-6.1538,-11.7949,0.51269,3.0771,12.3076,5.6411,-1.0254,8.2051,
-1.7949,0.25635,27.9487,5.3848,-10,-10,-2.8208,-13.5898,6.9229,-8.4614,8.9741,0.25635,-0.25635,11.5386,
0.25659,-1.7947,25.3845,1.7947,-7.949,-16.1541,-6.4104,-11.0256,-8.0771,2.8206,15.1282,6.9231,-0.25659,14.1023,
-0.51269,-2.564,27.6924,3.0771,-4.1025,-13.8462,2.0513,-16.4102,-12.3076,0.5127,7.6924,11.7949,-4.6152,10.7695,
-1.0256,-1.0256,25.1282,3.5901,-10.2561,-18.9744,-1.5383,-12.8201,1.5388,1.0256,6.6667,11.7952,-3.0769,7.1799,
-2.051,-1.5383,24.6155,3.0769,-14.8718,-17.4358,-13.3333,-10.2566,-2.051,2.5642,13.8464,6.6667,1.5383,5.1282,
1.0256,4.1028,28.718,7.6926,-4.1023,-6.6663,-9.7434,-8.7175,-6.1536,-1.0256,14.3591,6.6667,-3.0769,13.3337,
-0.51294,0.51294,26.1541,2.5642,-5.1282,-19.4873,-6.6667,-5.6409,-8.718,8.2053,19.4871,7.6921,-2.0515,10.2566,
-5.6411,-2.0513,23.5898,5.1279,-5.6411,-22.564,-2.0513,-9.7437,-7.1797,3.5898,14.8716,3.0767,6.6665,2.0513,
-2.5642,-0.51294,24.1028,8.718,-7.1794,-23.0769,-7.1794,-6.1541,-18.4617,7.1794,18.9744,3.5896,5.6409,0.51294,
-1.7949,-7.436,22.8203,2.8203,-9.4873,-27.9487,-6.9233,-7.9487,-16.1541,12.564,25.3843,5.3843,2.8203,1.7949,
-7.4358,-6.9231,19.7434,3.8459,-7.4358,-23.3333,-0.25659,-12.5642,-4.3591,0.25659,12.0515,3.3333,1.282,6.4104,
-5.8975,-3.3335,22.3076,6.9229,-9.4873,-23.3333,-8.9741,-3.3335,-9.4873,13.0771,17.1797,7.436,3.3335,6.9229,
-3.3333,-3.3333,23.8464,7.949,-5.3845,-14.1025,-7.4358,-8.4612,-11.5383,12.5642,15.6414,7.4363,3.3333,6.9231,
-4.6152,-3.0767,19.4873,6.1538,-2.564,-13.3335,-2.0513,-12.3076,-21.0254,2.564,9.231,3.0771,2.0513,5.6411,
-5.8975,-5.3843,18.7183,4.8721,-2.8203,-19.7434,-2.3076,-8.9741,-23.8459,3.3335,16.1538,2.8208,5.3848,2.3076,
-7.1797,-2.0513,21.0254,8.2051,-1.0259,-16.4102,0,-13.8462,-22.0515,0,9.7437,2.564,2.0513,1.0254,
-4.3586,0.76929,25.3845,10.0002,-3.8459,-20.2563,-7.4358,-13.0769,-20.769,12.5642,16.6667,6.9231,4.8718,-0.76929,
-5.6411,-2.564,24.6152,10.2563,-0.5127,-16.4102,-7.6924,-21.0254,-6.1538,3.0771,15.3848,0.5127,10.2563,0.5127,
-1.5386,-0.5127,23.5898,9.7437,5.6411,-12.3076,-1.0254,-18.9741,-15.8975,-2.564,10.769,0.5127,7.6924,6.6665,
-1.5383,-6.1541,24.6155,1.5383,3.0769,-24.1025,-1.5383,-19.4873,-30.8975,7.6921,15.3845,3.5896,2.051,-1.5383,
-0.25635,-1.7949,30,8.9746,12.564,-15.6411,13.4617,-22.3076,-22.3076,-4.3589,10.5127,0.25635,10,-3.8462,
-1.282,-2.8206,26.9231,12.0515,6.9231,-21.282,10.5129,-16.1536,-25.3845,-4.3591,13.5896,1.282,8.9744,-3.8459,
-7.6924,-7.1797,24.1025,11.2822,2.0513,-24.6155,-2.0513,-17.436,-24.6155,2.0513,14.8716,6.6665,2.564,-4.1025,
-4.6155,-1.5383,28.718,17.949,8.2053,-13.8459,-1.0256,-16.9231,-27.1794,-1.5383,9.7434,5.6409,2.5642,1.0256,
-0.51269,-1.5381,31.2822,18.9746,8.2056,-11.7944,0,-14.8716,-35.3843,-3.0767,9.231,4.103,5.1284,0,
-1.282,0.25659,27.9485,20.2566,10.5129,-6.9231,-0.76929,-16.6667,-20.3843,-6.9231,2.3079,6.9231,5.3845,-0.25659,
-5.6409,-4.615,22.0515,13.8464,3.0769,-17.4358,-11.7947,-14.8713,-32.8203,1.0256,8.2053,6.1541,3.5901,-1.0256,
-8.7175,-9.2307,25.6414,15.385,6.6667,-18.4614,1.0256,-15.3845,-41.5383,-1.0256,11.7952,2.0515,7.1799,-3.5896,
-7.1794,-4.6155,27.6921,20.0002,13.8464,-10.7693,10.7693,-12.8206,-28.718,-6.1536,6.1541,4.6155,12.8206,-8.2053,
-5.6411,-8.718,26.1538,8.7178,6.6665,-22.0513,-4.2307,-13.3335,-35.3848,5.6411,16.9229,8.7178,17.9487,-13.3335,
-2.3076,-8.4614,32.0513,13.5898,8.4614,-30.5127,0.25635,-19.2307,-28.9744,-0.25635,17.6924,2.8208,18.2051,-7.9487,
0.76904,-6.9231,33.0767,22.8203,9.4873,-27.9487,4.8716,-12.0513,-31.0256,-2.3076,14.6152,-0.76904,11.0254,-8.4617,
1.0256,-3.5896,32.3079,23.5896,9.2307,-12.9487,-1.0256,-8.718,-38.4614,-4.6155,14.8718,2.5642,12.3079,-8.718,
-4.6155,0.51294,27.1794,23.5896,3.5896,2.0513,-10.7693,-14.3591,-42.0513,-16.9231,6.1541,-0.51294,8.2053,-8.718,
0.25659,2.3079,31.5383,26.9231,5.3845,-7.9485,-9.4871,-11.0256,-40.7693,-8.9744,11.0256,-0.25659,10.0002,-13.0769,
1.5386,1.0259,33.3335,26.1538,12.8208,-5.6411,-0.5127,-17.9487,-29.2305,-20.5127,0.51269,-4.6152,8.7183,-16.9229,
-0.5127,2.0513,31.2822,26.1538,7.6924,-6.1538,-7.1792,-12.8203,-29.7437,-15.3848,1.5386,0.5127,6.1538,-14.3589,
3.0767,0,34.3589,28.7178,8.7178,-9.7437,-2.5645,-9.7437,-33.3335,-7.6924,12.3076,0,13.8462,-13.8462,
6.9231,-2.8206,34.6155,27.4358,20.2561,-6.4104,12.051,-18.2053,-33.0769,-22.6924,2.8206,-12.5642,17.1794,-17.6926,
6.9231,-3.3333,36.6667,25.8972,17.6921,-14.1028,3.3333,-11.0256,-32.5642,-14.6155,11.5383,-5.8977,20.7693,-21.2822,
2.8206,-1.282,36.1536,32.5642,14.6155,-10.0002,1.282,-7.4358,-31.5386,-13.0771,13.0769,-2.3079,23.3333,-26.9231,
1.7949,-0.76904,33.0771,31.0254,19.7437,-9.4873,8.4614,-8.9746,-46.5386,-23.8462,0.76904,-11.0259,17.1797,-34.1025,
2.8203,-0.25635,37.6924,30.5127,25.8975,-10.5127,12.0513,-10.5127,-47.9487,-19.7437,0.25635,-14.6152,18.7178,-32.0513,
-0.51269,1.0254,33.8462,34.3589,21.0254,-4.6152,8.7178,-9.231,-32.9487,-17.9487,0.5127,-13.3335,20,-28.2053,
0.25635,-0.76904,31.0259,33.5898,15.6411,-8.4614,5.3848,-0.25635,-41.282,-5.8975,13.0771,-3.8462,21.2822,-30,
1.2822,-1.2822,35.6411,35.1284,24.8721,-2.3076,13.5898,-5.8975,-41.7949,-12.0513,8.9746,-4.3589,21.2822,-26.9231,
1.282,-0.76929,33.5896,36.1536,25.3845,-2.3079,8.4617,-7.4358,-47.436,-14.6155,0.76929,-10.0002,22.3079,-25.8975,
2.0513,-3.5898,32.8203,35.3848,23.5898,-8.2053,7.1792,-2.0513,-48.2053,-8.718,8.2051,-8.2053,29.7437,-35.8975,
1.0256,-1.0256,36.9231,38.4617,29.2307,-2.0515,17.9485,-4.6155,-43.0769,-23.718,1.0256,-11.282,23.0769,-42.0513,
2.3076,-3.3335,35.6411,33.5898,27.436,-4.8716,9.4873,-2.3076,-58.0769,-23.3333,4.3589,-10,21.2822,-41.7949,
4.8716,-5.3848,33.0771,31.0259,35.6411,-4.8716,13.0771,-4.8716,-50,-29.4871,7.436,-13.5898,33.0771,-39.7437,
7.9485,-0.25659,37.6921,34.6155,43.8459,-3.8459,25.3845,-6.9231,-45.3845,-39.2307,0.25659,-22.3079,33.5896,-40.2563,
7.1792,-1.5386,43.5898,36.9229,40,-3.0771,24.1025,-5.1284,-54.3591,-32.8206,1.5386,-20.5129,30.769,-39.4873,
3.3333,-3.8459,39.2307,41.282,36.1541,2.8206,20.2566,-2.8206,-42.3076,-35.6409,-2.8206,-18.718,30.5129,-37.6921,
1.5386,-1.5386,36.4102,41.0254,30.769,-2.564,13.3335,3.5898,-56.9231,-31.282,-1.5386,-24.1025,27.1797,-43.5898,
3.0767,2.0513,44.1025,41.5381,35.8975,-2.0513,17.9487,-4.6157,-69.231,-41.0259,-8.2056,-33.8464,24.6152,-47.1797,
6.6663,3.0769,45.6409,45.1282,42.051,-3.0769,26.1536,-6.6667,-62.5642,-43.0771,-12.3079,-29.2307,27.6921,-43.5898,
0.76904,-8.9741,34.6152,35.6411,39.7437,-11.5386,25.3848,-0.25635,-69.4871,-29.4871,0.25635,-20.7693,32.564,-50.5129,
-3.0769,-8.2053,32.8206,34.3586,50.2561,1.0256,34.3586,-1.0256,-62.0515,-38.4617,1.0256,-25.6411,34.3586,-48.718,
0.76929,-4.3586,37.1794,36.6667,48.4617,-2.8206,30.5129,-0.76929,-60.769,-39.7434,1.282,-29.9998,32.5642,-45.3845,
5.8975,-4.3589,41.2822,43.8462,47.9487,-3.3335,31.5386,-0.76904,-66.4102,-39.2307,0.76904,-26.9231,37.1797,-51.5383,
3.0771,-2.564,34.8721,45.6411,46.667,1.5386,29.231,-1.5386,-81.0256,-49.2307,-10.769,-32.8203,34.3589,-55.8975,
0.51294,-0.51294,40.0002,42.5642,36.9231,-4.1023,17.4358,3.0769,-73.8462,-37.4358,-5.6409,-33.3333,30.7693,-52.3076,
-1.0259,3.0771,46.6665,49.7437,35.8975,0.5127,19.4873,-0.5127,-58.8462,-41.5386,-8.2051,-33.8462,27.1797,-56.9231,
-0.25659,0.25659,38.2053,52.051,35.1282,-0.76929,20.2566,1.282,-61.7949,-47.9487,-11.0256,-33.5898,23.3333,-64.8718,
1.282,-4.3591,36.6667,46.4099,38.718,0.76929,27.9485,-0.76929,-76.7949,-53.0771,-16.6667,-34.1028,28.9744,-60.2566,
1.0256,-2.5642,42.051,46.6667,47.6921,6.6667,37.4358,-1.0256,-79.4873,-58.4617,-24.1028,-39.4873,34.3586,-53.8462,
1.5386,-6.1538,42.0513,45.6411,47.1797,-1.5386,27.1797,7.1797,-65.1282,-43.4617,-9.1028,-35.3845,38.9746,-61.5383,
-1.0256,-6.1541,41.0256,47.6921,47.1794,1.0256,31.7947,4.1023,-61.0259,-48.2053,-3.0769,-29.7437,39.9998,-61.5386,
-3.5896,-3.0769,41.0256,46.1541,46.1541,3.0769,35.3845,5.1282,-76.0259,-53.8459,-12.3074,-33.8459,38.4617,-56.9229,
-2.564,-6.6665,41.0254,42.564,52.8203,2.564,33.3335,5.1284,-64.1025,-48.2051,-6.6665,-37.9487,39.4873,-58.9744,
-0.76929,-6.9231,38.718,47.949,56.6667,0.76929,41.282,1.282,-53.5896,-54.1025,-15.1282,-35.6409,37.1794,-62.8203,
1.5383,-5.6409,43.5896,53.3333,52.8206,-1.5383,47.6921,4.6155,-68.5896,-50.2563,-12.8206,-34.8718,37.4358,-66.1538,
-1.2822,-5.8975,45.8975,51.5386,56.6665,5.8975,47.436,1.2822,-73.0769,-57.6924,-11.5386,-44.3589,39.7437,-66.4102,
-2.5642,-6.1536,38.4617,47.6921,54.3591,2.5642,40.0002,4.6155,-60.5127,-56.9231,-13.3333,-39.4871,38.9744,-66.6665,
-2.3076,-8.4614,37.1792,48.9741,53.0767,2.3076,45.3848,5.3848,-69.4873,-55.1282,-16.1538,-35.6411,40.2563,-70.5129,
-2.3076,-8.9746,41.2817,53.5898,60.2563,10,54.1025,2.3076,-78.2053,-70,-20.7695,-42.8206,39.7437,-68.9744,
0.51294,-11.7952,43.5896,51.7947,53.8459,-0.51294,45.6409,7.6921,-80,-62.5642,-12.3079,-41.5386,38.9744,-72.8206,
-0.25659,-12.051,38.2053,53.0769,51.5383,0.76929,43.8459,0.25659,-70,-69.4871,-21.7947,-47.4358,33.5896,-79.2307,
-3.3335,-8.4614,33.0771,53.0771,52.564,5.3848,33.0771,3.3335,-72.0513,-69.4871,-19.7437,-47.4358,30,-73.0769,
-3.0769,-8.7183,38.9744,51.7947,52.3074,3.0769,31.282,16.9231,-75.8977,-54.4871,-5.1284,-32.4358,41.0256,-65.1284,
-2.8206,-7.4363,41.7947,54.1023,59.7434,2.8206,46.282,12.051,-86.4104,-67.949,-20.1284,-40.2566,40.2561,-77.1797,
1.5386,-7.1797,39.4873,53.8462,63.5898,-1.5386,50.769,9.7437,-101.4104,-71.282,-28.2051,-46.6667,39.4873,-83.0769,
-0.76929,-12.5642,35.1282,51.0256,57.6921,0.76929,45.3845,7.4358,-92.0513,-71.5383,-20.2563,-43.8462,42.3079,-75.6409,
-2.3076,-13.5898,35.1279,50,54.1025,2.3076,51.5386,11.5386,-87.436,-68.9744,-19.7437,-38.718,45.8975,-73.5898,
-1.5383,-15.3845,38.4617,48.718,58.9744,1.5383,55.8972,15.8972,-88.2051,-57.4358,-9.2307,-32.3076,50.7693,-77.9487,
-6.4104,-19.2307,32.5642,45.8977,57.1794,6.4104,48.4617,8.9744,-78.7178,-72.0513,-20.7693,-38.2051,38.718,-76.6665,
-2.5642,-16.9231,33.3333,46.1541,52.3079,2.5642,40.5129,12.8206,-81.0256,-71.7949,-24.6155,-42.5642,33.3333,-75.8975,
-4.1025,-15.3843,38.4614,51.7949,56.9233,4.1025,47.1797,11.2822,-78.9744,-76.4102,-26.1538,-45.1282,34.8721,-82.564,
-5.8975,-14.6152,35.6411,53.0771,57.6924,5.8975,46.9229,12.564,-84.3589,-81.282,-27.436,-47.9487,34.1025,-84.8718,
0,-17.9487,33.8462,46.1538,56.4102,0,42.564,16.9229,-94.3591,-71.2822,-17.9487,-50.7693,42.0513,-84.6155,
-5.6409,-21.5383,29.7434,46.6667,58.9744,5.6409,46.6667,7.1794,-87.6921,-83.5896,-31.7949,-54.8718,42.0515,-85.1282,
-10.5127,-22.8208,26.4102,48.9741,54.6152,10.5127,41.7949,11.0254,-94.1028,-82.8206,-37.1797,-48.4617,35.1279,-82.8206,
-10,-26.4102,27.4355,42.3076,55.6411,13.0767,45.8975,10,-92.0515,-88.4617,-37.6924,-54.1028,36.1538,-85.3848,
-7.9487,-25.8975,28.4619,41.2822,63.8462,12.5645,59.231,7.9487,-82.3076,-95.1279,-40.769,-57.1792,40.2563,-86.9229,
-4.3589,-25.8975,33.5898,43.8462,68.9741,4.3589,60.2563,13.5898,-88.9744,-80.1279,-29.4873,-45.8975,42.3076,-86.9231,
-5.1282,-27.1794,31.7952,43.0769,71.282,5.1282,62.0515,5.6409,-91.282,-90.2563,-40,-53.8462,41.0256,-84.1025,
-4.6155,-26.6667,26.1541,40.0002,67.6921,4.6155,59.4871,10.2566,-102.0513,-91.282,-39.4871,-55.8975,44.1028,-81.0256,
-9.4873,-28.9744,24.8716,38.7178,69.4873,9.4873,59.231,11.0254,-114.1025,-84.3591,-32.5642,-48.4617,45.8975,-84.8718,
-9.2307,-22.5642,29.7439,44.6155,76.9231,17.949,63.5896,9.2307,-110.2563,-91.7947,-39.4871,-50.769,43.0769,-85.1282,
-8.2053,-25.1282,31.282,43.5896,66.1541,8.2053,54.3591,11.282,-105.6411,-90.7693,-39.4871,-56.9231,37.4358,-87.1794,
-7.436,-27.436,27.436,43.8462,64.3589,14.1025,62.8208,7.436,-99.2307,-99.2307,-44.8718,-61.7949,32.0513,-86.9231,
-8.4614,-26.4102,22.3076,39.7437,66.4102,12.564,62.3076,8.4614,-105.8975,-94.6152,-44.8718,-58.718,30,-86.9231,
-9.2307,-27.1794,27.1794,42.0515,66.6667,9.2307,55.8977,12.3079,-99.4871,-80.5127,-35.8972,-48.7178,41.5388,-84.6152,
-10.769,-27.6924,26.1538,47.1797,62.0513,12.8203,53.8462,10.769,-97.436,-91.7949,-48.2051,-51.7949,40.5127,-87.6924,
-7.6921,-31.282,24.1028,42.5642,55.3845,7.6921,49.2307,15.3845,-99.4873,-89.7437,-42.0513,-54.3589,36.9231,-90.7693,
-8.9744,-35.6411,24.8718,39.7434,60.7693,8.9744,60.2561,13.0769,-89.4873,-93.0771,-37.1797,-57.1797,39.2307,-86.9233,
-9.7437,-35.8975,24.1025,42.0513,65.6411,9.7437,68.2051,16.4102,-104.4873,-91.7949,-42.0513,-54.3589,42.564,-84.1025,
-9.4871,-33.5896,22.3079,41.7952,64.8718,9.4871,61.7952,16.6667,-119.4873,-90,-44.8718,-51.5383,42.8206,-88.9744,
-10.5129,-26.9231,22.3079,43.8459,63.3333,11.5383,59.2307,10.5129,-110.5129,-100.2566,-54.6155,-53.5898,32.051,-87.436,
-5.8975,-28.4614,28.4614,43.8462,62.8208,5.8975,65.3848,15.1284,-106.9231,-89.4871,-44.3589,-51.5383,28.9746,-82.8206,
-6.4102,-35.1282,29.4873,44.3589,70,6.4102,69.4873,14.6157,-96.1538,-88.9741,-37.1794,-54.1025,39.231,-87.9485,
-4.8716,-32.5642,28.9741,46.9229,68.9741,4.8716,64.3589,21.2822,-89.4871,-82.8206,-32.5642,-49.4871,46.4102,-90,
-2.5641,-35.3846,32.8204,44.6154,60.5128,2.5641,68.7179,23.59,-104.4871,-74.8717,-26.6666,-46.6666,48.2052,-88.2052,
-5.8975,-38.7183,32.0513,47.4355,59.2305,5.8975,71.5381,17.6919,-108.9746,-88.4617,-32.5642,-55.1284,46.4102,-89.4873,
-1.5385,-33.3331,35.8976,53.3336,61.0255,1.5385,63.0768,28.7179,-93.9746,-74.3588,-22.0511,-49.2306,47.1798,-89.7435,
-3.5898,-33.8459,33.8462,51.7949,62.564,3.5898,60.5127,21.5386,-91.282,-81.5383,-37.0511,-52.3076,40,-92.3076,
-6.6665,-40,23.0771,46.6665,57.9487,6.6665,51.7949,11.7949,-106.282,-96.5383,-52.0511,-64.6155,32.3076,-92.8206,
-3.0769,-42.0515,25.1282,45.1282,57.4358,3.0769,52.8206,14.3586,-121.282,-92.3079,-47.6924,-66.6667,35.8972,-93.8462,
-2.5642,-35.8975,34.3591,47.1794,65.1282,2.5642,67.8206,11.282,-106.282,-90.7693,-42.0513,-68.2051,33.8459,-98.4614,
-0.51269,-31.2822,36.4102,48.2051,63.0767,0.5127,64.1025,19.4873,-91.282,-75.7693,-34.8718,-60.5129,40,-95.8975,
-5.6409,-35.8975,26.1541,42.5642,57.4358,5.6409,49.7434,15.3845,-104.1025,-88.2051,-46.6667,-65.6411,44.1028,-93.8462,
-8.718,-36.4104,19.4871,37.4358,58.4617,8.718,51.282,12.3079,-116.9231,-103.2051,-57.9487,-75.3848,37.9485,-92.3076,
-7.6924,-38.9746,23.5894,38.9741,61.5381,7.6924,55.8975,17.9487,-111.7949,-91.2822,-43.5898,-70.7693,33.333,-90.7693,
-13.3335,-42.5642,22.0513,45.1279,65.1279,15.3848,65.6411,13.3335,-105.6411,-98.9744,-53.3335,-72.8206,28.2051,-90.7693,
-12.3076,-38.4614,24.6157,48.2051,68.7183,12.3076,64.1025,23.5898,-111.282,-95.8972,-51.7947,-66.1538,38.4614,-90.769,
-11.282,-35.3845,28.718,46.1541,70.2566,11.282,61.5383,25.1282,-96.9231,-90.769,-43.0769,-67.6921,45.1282,-88.2051,
-14.8718,-34.8718,22.5642,45.6409,63.0769,14.8718,61.5383,16.4104,-101.0256,-103.0769,-57.4358,-79.4871,30.1282,-88.718,
-11.5386,-34.1025,25.3848,48.4614,59.231,11.5386,58.7183,21.2822,-116.0256,-96.1538,-55.6409,-69.4871,27.9487,-91.5383,
-10.2563,-34.8718,30.2563,48.2051,66.6665,10.2563,63.0771,19.4873,-103.5896,-93.8462,-51.282,-62.0513,39.4873,-88.718,
-5.1282,-32.8203,32.3079,46.1541,67.6926,5.1282,64.6155,26.6667,-99.9998,-78.9741,-36.282,-58.4614,47.6926,-83.0767,
-6.9231,-36.1538,28.4617,44.3591,60.7693,6.9231,58.718,26.9231,-98.7178,-80.769,-30.5127,-62.8206,50.5129,-84.8718,
-11.7949,-36.4102,21.5386,44.6157,57.9487,11.7949,56.9233,20.5132,-102.564,-95.769,-45.5127,-71.282,48.2051,-89.7434,
-7.1796,-34.359,26.6664,44.1024,58.4613,7.1796,62.5638,25.641,-117.564,-86.1539,-37.4359,-67.6925,54.3588,-91.2821,
