"AF3","AF4","F3","F4","F7","F8","FC5","FC6","O1","O2","P7","P8","T7","T8",
-27.9624,-10.0237,-1.5824,17.4102,-18.4651,18.4661,1.5834,16.3553,-0.52746,12.1346,-8.9688,0.52746,11.0797,-0.52746,
-30.0722,-15.3003,2.6383,2.4102,-15.3003,13.1895,10.0237,11.0797,-3.6932,2.6383,-1.5824,-0.52746,4.7481,-3.6932,
-24.2692,-14.7729,5.2756,0,-21.1034,11.6071,8.4414,26.0797,-2.1108,-1.0549,0,-2.1108,13.717,1.0549,
-23.2142,-9.4963,-2.1098,15,-16.8827,15.8278,-1.0549,35.8763,-7.3864,1.0549,-7.3864,1.0549,16.8827,3.1658,
-24.7961,-10.0242,-2.6378,27.9629,-8.9683,21.6314,2.6378,23.7412,-11.0792,1.5829,-12.1341,1.5829,5.8036,-1.5829,
-22.1588,-7.3859,6.331,33.766,-16.8832,18.9931,6.331,21.1029,-7.3859,4.2202,-8.4419,-1.0554,1.0554,-3.1653,
-30.0722,-10.0237,4.7481,18.766,-31.8832,3.9931,0.52746,18.4651,-4.7481,4.7481,-0.52746,-4.7481,3.6932,-4.7481,
-33.7665,-10.5522,2.1098,5.2756,-25.3251,-2.1108,5.2756,17.9376,-3.1658,3.1648,-2.1108,0,8.4414,0,
-35.8753,-11.6061,0,17.9386,-17.9376,5.2766,7.3864,15.8278,-6.3305,-3.1648,-14.7719,1.0559,8.4414,0,
-33.238,-15.3003,0.52746,24.7966,-20.5759,3.6932,6.859,19.521,-2.6383,1.5824,-14.2444,-0.52746,3.6932,-5.8031,
-26.379,-6.3305,3.1658,13.717,-9.4963,8.4414,7.3864,23.2142,-3.1658,5.2756,-5.2756,3.1658,-9.4963,-5.2756,
-25.852,-7.9134,-0.52796,11.0792,-1.5829,15.2998,8.9693,17.4107,-5.8036,0.52796,-2.6378,4.7486,-10.0242,6.8585,
-23.2142,-22.1583,0,11.6071,-5.2756,9.4963,5.2756,13.717,-6.3315,1.0549,-4.2207,0,-6.3315,7.3864,
-8.2142,-7.1583,6.331,14.7724,-5.2761,14.7724,1.0554,27.4344,-5.2761,9.4968,-4.2212,-1.0554,-17.9381,4.2202,
-12.662,3.1658,10.5522,17.9376,-5.2756,16.8827,2.1108,25.3241,-4.2207,0,-4.2207,-4.2207,-23.2142,0,
-21.6314,-4.7486,23.7412,32.9376,-0.52796,15.2998,10.0242,23.7412,-0.52796,-2.6378,-2.6378,0.52796,-8.2142,3.6927,
-26.3795,-13.7175,18.9931,26.3795,-15.528,3.1653,3.1653,17.9381,-1.0554,2.1103,-8.4409,-1.0554,-10.5517,1.0554,
-38.5146,-13.1905,3.9931,11.3795,-30.528,-10.0247,-0.52746,3.6932,5.8031,7.9139,-4.7481,2.6373,-11.0797,0.52746,
-39.5695,-4.7481,0.52746,12.1346,-23.7417,-3.6932,-2.6383,10.0237,5.8031,6.859,-0.52746,6.859,-5.8041,5.8031,
-24.5695,4.7481,15.5275,27.1346,-8.7417,7.9139,4.7481,22.6858,-0.52746,0.52746,-5.8041,-0.52746,-10.0247,-2.6383,
-9.5695,4.7476,20.5754,34.2934,-14.2449,5.8036,4.7476,7.6858,-8.9693,1.5829,-16.3558,-12.1351,-25.0247,-12.1351,
-11.6071,-4.2207,8.4414,32.7105,-14.7719,5.2756,1.0549,6.3315,-2.1098,9.4963,-17.9376,2.8649,-26.379,-1.0549,
-23.2142,-15.8278,-5.2756,17.7105,-12.662,2.1108,0,13.717,0,10.5522,-8.4414,14.7729,-17.9376,1.0549,
-15.2998,-17.4107,-4.7486,11.0792,-12.1341,0.52796,0.52796,11.0792,-3.6927,10.0242,4.7486,5.8036,-19.5205,-0.52796,
-3.6927,-15.2998,-0.52796,11.0792,-10.0242,3.6927,-0.52796,13.19,7.9134,8.9693,8.9693,0.52796,-19.5205,-0.52796,
-3.1658,-2.1108,-1.0549,4.2207,-2.1108,7.3864,-3.1658,18.9926,5.2756,9.4963,0,4.2207,-11.6071,0,
-6.331,2.1103,-1.0554,7.3859,-1.0554,6.331,-2.1103,13.7175,-9.7244,10.5517,-9.4968,7.3859,-14.7724,1.0554,
-15.8273,-12.8897,-1.0554,13.7175,-16.0554,7.3859,3.1653,7.3859,-6.331,15.8273,-8.4419,6.331,-20.049,1.0554,
-30.8273,-23.7417,-3.6932,13.1895,-22.6868,7.9139,-0.52746,15.2993,0.52746,11.0787,-0.52746,14.2444,-15.3003,1.5824,
-36.9312,-11.6061,-15.8278,16.8827,-9.4963,0,0,20.0485,0,7.3864,7.3864,14.7729,-11.6061,3.1658,
-21.9312,-4.7486,-18.4656,20.5754,0.52796,3.6927,2.6378,18.4656,-3.6927,2.6378,-0.52796,-0.22711,-14.2449,1.5829,
-6.9312,-4.2212,-3.4656,18.9931,-3.1663,7.3859,9.4958,24.2687,-5.2761,-2.1103,-3.1663,12.6615,-9.4968,6.331,
-1.5829,-16.3558,5.8036,15.2998,-10.0242,-5.8036,7.9134,15.2998,-6.8585,1.5829,-6.8585,20.5754,-17.4107,2.6378,
-3.6927,-12.1341,2.6378,26.907,-0.52796,0.52796,-1.5829,5.8036,-7.9134,10.0242,-13.19,7.9134,-24.7971,0.52796,
0,-2.1108,0,26.379,-3.1658,5.2756,0,2.1098,-4.2207,9.4963,-7.3864,-6.3315,-15.8278,3.1648,
-2.6383,-6.859,-10.0237,12.1346,-10.0237,2.6383,-0.52746,3.6932,-3.6932,8.9688,2.6383,5.8031,-19.521,0.52746,
-1.5829,-8.9693,-7.9134,12.1341,-1.5829,11.0792,-8.9693,10.0242,-2.6378,16.3548,1.5829,18.4656,-23.7412,13.19,
-1.0559,-15.8278,0,4.2207,-4.2207,0,-2.1108,5.2756,2.1098,15.8268,-2.1108,4.2207,-13.718,13.717,
-2.1098,-13.717,0,-1.0549,0,1.0559,7.3864,2.1108,-2.1098,11.6071,2.1108,-2.1098,-10.5512,1.0559,
-4.7486,-10.0242,-1.5829,4.7486,15,16.0559,3.6927,-2.6378,-7.9134,1.5829,1.5829,-1.5829,-17.4107,2.6378,
-3.1658,-13.717,-2.1108,13.717,14.7719,7.3864,4.2207,2.1098,-5.2756,0,-2.1108,0,-14.7729,9.4963,
0,-11.6061,-9.4963,11.6071,8.4414,0,0,8.4414,-2.1098,5.2766,-10.5512,5.2766,-22.1583,5.2766,
0,-6.3315,-13.718,3.1648,14.7719,15,-6.3315,4.2207,-2.1108,0,-6.3315,5.2756,-31.6556,1.0549,
-5.2761,-1.0554,-6.331,13.7175,1.0554,8.4409,-4.2212,-3.1653,-1.0554,6.331,5.2761,6.331,-24.2697,4.2202,
-10.5522,-4.2207,1.0549,23.2132,-13.9446,-2.1108,-1.0549,-6.3315,3.1658,17.9376,1.0549,6.3305,-18.9936,2.1098,
-3.6932,-8.9688,-0.52746,12.1346,-7.9139,12.8892,-5.8031,0.52746,0.52746,6.859,-6.859,0.52746,-22.6868,0.52746,
2.1098,-5.2756,-9.4963,1.0549,7.0861,27.4339,-3.1658,5.2756,-1.0549,3.1658,-7.3864,-4.2207,-16.8827,7.3864,
-12.8902,-13.717,-18.9926,-3.1658,-1.0549,12.4339,0,0,7.3864,15.8278,1.0559,2.1108,-6.3305,5.2766,
-27.8902,-12.6625,-21.1039,1.0554,-16.0549,-1.0554,-7.3869,7.3859,9.4968,10.5517,10.5517,5.2761,-7.3869,5.2761,
-14.2449,-5.8036,-20.5764,0.52796,-12.1351,12.1341,-7.9134,10.0242,-0.52796,1.5829,8.9693,0.52796,-17.4107,3.6927,
-1.0549,-13.717,-12.662,0,2.1108,13.717,0,2.1108,0,10.5522,-4.2207,8.4414,-21.1034,2.1108,
0.52796,-18.4656,-3.6927,-0.52796,5.8036,7.9134,-0.52796,1.5829,-1.5829,12.1341,-10.0242,11.0792,-20.5764,5.8036,
0,-17.9376,-3.1648,-3.1648,1.0559,-4.2207,7.3864,5.2766,-5.2756,9.4973,1.0559,1.0559,-11.6071,0,
0,-18.9936,-3.1658,2.1098,-7.3864,-15.8278,11.6071,9.4963,-2.1108,10.5512,8.4414,0,-7.3864,2.1098,
-0.52746,-19.521,-10.0237,3.6932,-12.1346,-17.4102,6.859,7.9139,0.52746,7.9139,-2.6373,4.7481,-17.4102,6.859,
3.6932,-11.0797,-17.4102,2.6383,-6.859,-14.2454,12.1346,0.52746,-0.52746,8.9688,-5.8031,5.8031,-14.2454,2.6383,
0,-6.3315,-17.9386,3.1648,-1.0559,-12.663,10.5512,0,-1.0559,13.717,5.2756,3.1648,-9.4973,1.0549,
-15,-15.8278,-14.7729,-9.4963,-6.3315,-22.1583,6.3315,11.6071,13.717,20.0485,15.8278,7.3864,-9.4963,11.6071,
-27.4349,-20.0485,-12.662,-22.1583,-11.6071,-23.2142,8.4414,12.662,16.8827,12.662,10.5522,9.4963,-8.4414,13.717,
-27.4349,-15.8278,-11.6071,-11.6071,-6.3315,-8.2142,6.3305,3.1658,8.4414,4.2207,10.5512,8.4414,-3.1658,8.4414,
-29.0178,-19.5205,-16.3558,-10.0242,-4.7486,-1.5829,6.8585,1.5829,11.0792,18.4656,22.6863,12.1341,-2.6378,6.8585,
-25.3241,-13.718,-16.8827,-12.662,-10.5522,-10.5522,14.7719,10.5512,8.4414,31.6546,20.0485,20.0485,-8.4414,11.6071,
-22.6858,-7.9139,-13.1895,-2.6383,-21.6309,-25.5522,14.2454,10.0247,2.6383,32.1831,5.0485,16.3553,-7.9139,14.2454,
-33.7649,-7.3859,-8.4409,-2.1103,-23.2137,-23.2137,8.4419,6.331,3.1663,32.711,2.1103,10.5517,-4.2202,16.8832,
-44.8451,-8.9688,0.52746,-6.859,-14.2444,-15.3003,3.6932,4.7481,-0.52746,22.6868,2.6383,11.0797,-4.7481,14.2454,
-36.4038,-15.3003,3.6932,-4.7481,-11.0797,-26.9075,6.858,0.52746,-0.52746,10.0237,8.9688,7.9139,-4.7481,11.0787,
-24.2697,-1.0554,1.0554,8.4409,-6.331,-18.9931,1.0554,-2.1103,-1.0554,9.4968,6.331,2.1103,-11.6076,7.3859,
-32.1831,12.1346,2.6383,14.2454,-6.858,-3.9931,-5.8031,-0.52746,-2.6373,8.9688,0.52746,-1.5824,-15.3003,2.6383,
-39.041,6.3315,2.1108,9.4963,-5.2756,-1.0549,-1.0549,0,0,11.6071,6.3315,-4.2207,-9.4963,3.1658,
-40.097,-1.0549,-9.4963,7.3864,8.4414,-3.1658,0,-2.1098,0,9.4963,4.2207,4.2207,-17.9376,7.3864,
-40.097,-5.2766,-13.718,3.1648,18.9926,11.8342,0,0,0,6.3305,-2.1108,17.9376,-26.38,15.8268,
-39.0421,-5.2766,-4.2207,-2.1108,21.1034,22.1583,0,2.1098,0,8.4414,-1.0559,12.662,-18.9936,21.1034,
-36.9312,-3.1658,-1.0549,-11.6071,20.0485,7.1583,1.0549,0,5.2756,6.3315,0,-2.338,-10.5512,6.1034,
-30.0722,4.7481,-1.5824,-7.9139,19.521,-0.52746,4.7481,0.52746,6.859,5.8031,1.5824,-7.9139,-10.0237,-6.859,
-37.4592,0.52796,-7.9134,5.8036,17.4107,2.6378,2.6378,-7.9134,-7.9134,4.7486,-7.9134,-0.52796,-25.0237,1.5829,
-47.4834,-4.2207,-13.717,3.1658,14.7719,5.2756,4.2207,-13.717,-3.1658,8.4414,-6.3315,9.4963,-27.4349,6.3305,
-42.7348,-1.5829,-15.2998,-11.0792,15.2998,2.6378,-2.6378,-5.8036,3.6927,13.189,1.5829,8.9683,-16.3558,3.6927,
-27.7348,-3.1658,-6.3315,-3.1658,28.4898,1.0549,-2.1108,3.1658,1.0549,17.9376,2.1098,-1.0549,-8.4414,16.8827,
-30.0732,-8.9688,0.52746,11.8342,16.3553,-5.8041,4.7481,-0.52746,-1.5834,16.3553,1.5824,-8.9688,-13.1895,17.4102,
-40.6244,0.52746,-0.52746,18.4651,1.3553,-16.3553,3.6932,-1.5834,1.5824,11.0787,3.6932,-3.6932,-17.4112,2.4102,
-25.6244,10.5522,-4.2207,11.6071,4.2207,-11.6061,2.1108,-2.1098,0,10.5522,0,3.1658,-11.6061,-3.1648,
-12.6625,4.2202,-7.3869,3.1653,19.2207,2.1103,3.1653,-5.2761,-8.4419,7.3859,-7.3869,-2.1103,-16.8832,2.1103,
-26.9075,-2.6383,-3.6932,0.52746,27.9624,0.52746,5.8031,-2.6383,-0.52746,14.2444,4.7481,-4.7481,-11.0797,12.1346,
-31.6556,0,-7.3864,8.4414,12.9624,-11.6071,0,-9.4963,-1.0549,11.6071,1.0549,1.0549,-10.5512,13.717,
-16.6556,15,-7.3864,23.4414,17.9376,3.3929,-4.2207,0,-13.718,0,-10.5522,15.8278,-18.9936,15.8278,
-21.1039,5.2761,-12.6625,11.6066,12.6625,10.5517,-6.331,5.2761,-22.1588,-10.5517,-5.2761,11.6066,-17.9381,8.4409,
-36.1039,-2.1108,-10.5522,0,-2.3375,0,0,5.2756,-9.4973,4.4483,6.3305,20.0475,-3.1658,22.1583,
-36.9312,2.1108,-8.4414,-2.1098,2.1108,1.0549,-1.0549,3.1658,-3.1658,19.4483,-1.0549,28.4898,-6.3305,26.38,
-34.2934,-1.5829,-8.9693,-13.19,12.1341,2.6378,-2.6378,0.52796,-0.52796,12.1341,6.8585,13.4898,-8.9693,11.38,
-44.3177,-1.0549,-15.8278,1.81,-2.8659,1.0549,-12.662,1.0549,-13.717,2.1108,12.662,5.2756,-7.3864,3.1658,
-35.3483,1.5829,-11.0792,16.81,-17.8659,10.0242,-13.19,2.6378,-21.6314,14.2449,-1.5829,14.2449,-13.19,11.0792,
-24.7971,2.6378,-2.6378,26.907,-7.9144,10.0242,-4.7486,3.6927,-15.2998,12.1341,-16.5829,8.9683,-21.6314,13.19,
-38.5136,-0.52746,-7.9139,12.1346,0.52746,2.6383,-6.858,8.9688,-16.3553,8.9688,-11.0787,3.6932,-16.3553,10.0247,
-48.0104,-8.9693,-11.0792,13.19,-14.4725,2.6378,-5.8036,7.9134,-13.19,18.4656,3.9213,15.2998,-2.6378,19.5205,
-39.0416,-2.1103,-7.3859,13.7175,-17.9381,8.4419,-4.2202,2.1103,-5.2751,24.2697,3.1663,26.3795,-2.1103,29.5453,
-41.1519,0,0,7.3864,-2.9381,5.2756,-7.3864,5.2756,-5.2756,20.0485,-9.4963,18.9936,-11.6071,15.8278,
-48.5378,-7.3859,7.3859,11.6066,-5.2761,2.1103,-12.6625,5.2761,-15.8273,5.2761,-1.0554,3.9936,-23.2137,4.2202,
-41.1524,3.1653,5.2761,12.6615,-2.1103,8.4409,-12.6625,-1.0554,-17.9381,7.3859,-1.0554,1.0554,-22.1588,12.6615,
-40.0965,7.3859,-2.1103,2.1103,3.1653,9.4968,-9.4968,-3.1653,-10.5517,22.3859,-11.6066,6.331,-10.5517,13.7175,
-39.569,-1.5829,1.5829,1.5829,-11.0792,7.9134,-6.8585,3.6927,-4.7486,22.6863,-3.6937,2.6378,-7.9144,7.9134,
-33.7654,-1.0549,8.4414,-1.0549,-20.0485,7.3864,0,7.3864,-1.0549,7.6863,11.3063,0,-4.2207,16.8827,
-32.1826,8.9693,-4.7486,-2.6378,-5.0485,0.52796,0.52796,-0.52796,-6.8585,8.9693,11.0792,5.8036,-2.6378,22.6863,
-21.6309,7.9139,-11.0787,12.3622,9.9515,0.52746,-0.52746,-2.6373,-19.52,13.1895,-0.52746,4.7481,-14.2444,18.4661,
-10.0242,-1.5829,3.9213,14.2449,10.0242,6.8585,0.52796,-2.6378,-18.4656,3.6927,-0.52796,-10.2519,-23.7412,7.9134,
-12.662,4.2207,12.662,2.1108,17.9386,13.718,-9.4963,1.0549,-17.9376,-1.0549,-1.0549,-11.6071,-21.1034,2.1108,
-16.8827,10.5522,-2.338,8.4414,21.1034,13.717,-6.3305,5.2756,-17.9376,0,0,-2.1098,-11.6071,8.4414,
-18.4661,10.0237,-10.0247,16.3553,7.9139,2.6373,1.5824,-1.5834,-19.521,-0.52746,0.52746,-8.9688,-14.2454,11.0787,
-17.4102,15.3003,4.9753,13.1895,2.6383,0.52746,-4.7481,-8.9688,-15.3003,3.6932,-0.52746,-2.6383,-18.4651,11.0797,
-25.3241,11.6071,-6.3305,0,0,4.2207,-13.717,-7.3864,-5.2756,6.3315,4.2207,11.6071,-11.6071,14.7729,
-32.7105,14.7719,-17.9376,-1.0549,-5.2756,14.7719,-17.9376,1.0549,-8.4414,9.4963,1.0549,17.9376,-10.5522,14.7719,
-29.0173,18.4661,-12.1346,2.6383,-10.0237,20.5759,-13.1895,-1.5824,-10.0237,11.0797,1.5824,22.6868,-14.2444,14.2444,
-29.5453,10.5517,-20.048,-2.1103,-12.6615,12.6625,-1.0554,-4.2202,1.0554,15.8273,16.5824,22.1588,-4.2202,25.3246,
-33.7654,4.2207,-33.7654,-10.5512,-7.3864,6.3315,-1.0549,1.0549,-5.2756,17.9376,14.7729,9.4963,-1.0549,28.4898,
-18.9936,-1.0549,-25.3241,-12.662,2.1098,10.5512,-3.1658,1.0549,-17.9376,14.7719,4.2207,8.4414,-7.3864,15.8278,
-8.4419,1.0554,-16.8832,-6.331,-1.0554,21.1039,-11.6066,4.2202,-23.2137,4.2202,1.0554,20.048,-11.6066,11.6066,
-20.0485,11.6071,-16.8827,4.2207,-1.0549,20.0485,-16.8827,1.0549,-27.4349,1.0549,-4.2207,9.4963,-11.6071,10.5522,
-17.4097,17.4107,-13.189,7.9144,8.9693,12.1351,-6.8585,-6.8585,-24.7961,7.9144,-1.5829,1.5829,-8.9683,10.0242,
-12.662,13.718,-12.662,1.0549,5.2756,7.3864,-12.662,-12.662,-24.2692,9.4963,-1.0549,12.662,-9.4963,9.4963,
-24.7971,6.8585,-11.0792,1.5829,-0.52796,11.0792,-18.4656,-4.7486,-15.2998,14.2449,0.52796,14.2449,-1.5829,18.4656,
-30.6002,5.2761,-14.7724,11.6066,1.0554,14.7724,-15.8273,-1.0554,-16.8822,14.7724,-4.2202,2.1103,-5.2761,21.1039,
-17.4107,16.3548,-11.0792,18.4656,6.8585,14.2449,-17.4107,-11.0792,-25.852,8.9683,-6.8585,6.8585,-16.3558,16.3548,
-11.0797,23.7417,-2.6383,10.0237,2.6383,10.0237,-19.521,-16.3553,-19.521,6.859,-4.7481,8.9688,-8.9688,14.2444,
-14.7719,22.1593,0,10.5522,3.1658,12.662,-11.6061,-8.4414,-10.5512,11.6071,0,0,0,16.8827,
-15.8273,13.7175,-4.2212,15.8273,8.4409,11.6066,-9.4968,-3.1653,-13.7175,8.4409,1.0554,-1.0554,-11.6066,10.5517,
-15.8278,11.6071,1.0549,11.6071,14.7729,11.6071,-24.2692,-13.717,-25.3241,-1.0549,-6.3315,9.4963,-26.379,1.0549,
-20.5759,6.859,-0.52746,4.7481,11.0797,12.1346,-27.9624,-24.7966,-26.9075,0.52746,-4.7481,12.1346,-20.5759,6.859,
-20.5754,3.6937,-10.0242,3.6937,-2.6378,8.9693,-12.9624,-16.3548,-14.2449,8.9693,2.6378,5.8036,-11.0792,17.4107,
-9.4963,16.8827,-1.0549,6.3315,-2.1098,8.4414,-5.2756,-1.3548,-6.3305,13.717,4.2207,1.0549,-12.662,21.1034,
-2.6383,21.6309,10.0237,-0.52746,-0.52746,0.52746,-10.0237,0.52746,-4.7481,14.2444,10.0237,-1.5824,-3.6932,25.8515,
-7.3859,10.5517,-1.0554,1.0554,-15.5275,-5.2761,-5.2761,-3.1653,-6.331,11.6066,11.6066,6.331,1.0554,22.1588,
-6.859,4.7481,-13.1895,5.8031,-23.7417,8.9688,-5.8041,-4.7481,-7.9139,16.3553,8.9688,21.331,-8.9688,22.6858,
0.52746,13.1895,-4.7481,-5.8031,-11.0787,10.0247,-7.9139,-0.52746,-1.5824,29.0173,16.3553,24.7966,-2.6373,25.8515,
-2.6383,15.3003,2.6383,-19.521,-13.1895,-4.9753,-4.7481,-3.6932,-3.6932,21.6309,8.9688,9.7966,5.8031,18.4651,
-1.0549,10.5522,3.1658,-12.662,-15.8278,-10.5512,5.2756,-11.6071,0,6.6309,0,-5.2034,0,17.9376,
-3.6927,10.0242,2.6378,-5.8036,-16.3548,-4.7476,-2.6378,-5.8036,7.9144,7.9144,11.0792,5.8036,-10.0242,26.907,
2.1098,14.7719,0,-8.4414,-18.9936,-9.4973,-11.6071,0,0,20.0475,21.1034,11.6061,-1.0559,28.4888,
17.1098,15.3003,-5.8031,-12.1346,-13.1895,4.7481,-1.5824,-8.9688,-6.859,12.1346,14.2444,-2.6383,1.5824,19.521,
25.8515,23.7417,-2.6383,-14.2444,-0.52746,19.7481,-6.859,-14.2444,-8.9688,0.52746,4.7481,2.6383,-13.4176,17.4102,
38.5141,31.1277,12.3617,-8.9683,2.6378,23.7422,-11.0792,-14.2449,-16.3548,-4.7476,-2.6378,15.3008,-19.5205,14.2449,
49.0658,31.1282,20.5759,0.52746,-0.52746,15.3003,-1.5824,-13.1895,-22.6858,-2.6383,-4.7481,5.8031,-11.0797,14.2444,
34.0658,31.1276,6.8585,6.8585,-8.9693,17.4107,-12.1341,-10.0242,-24.7971,1.5829,-1.5829,-1.5829,-12.1341,17.4107,
19.0658,26.9075,-8.1415,-0.52746,-23.9693,13.1895,-23.7417,-16.3553,-19.521,2.6383,0.52746,7.9139,-13.1895,13.1895,
27.9624,26.9075,-8.9688,-0.52746,-33.238,13.1895,-10.0237,-12.1346,-14.2444,3.6932,0.52746,18.4661,-0.52746,16.3553,
16.8827,18.9926,0,-2.1108,-41.1519,1.0549,-5.2756,-10.5522,-18.9936,0,3.1658,8.4414,-1.0549,20.0485,
1.8827,15.8278,11.6071,0,-47.4824,-13.717,-9.4963,-16.8827,-13.717,4.2207,11.6071,1.0559,-6.3305,24.2692,
4.2207,22.1583,16.8827,7.3864,-41.1519,-8.4414,-15.8278,-12.662,-10.5522,6.3305,12.662,-4.2207,-7.3864,23.2132,
10.0242,18.4656,19.5205,0.52796,-30.0727,-2.6378,-12.1341,-6.8585,-10.0242,5.8036,19.5205,-6.8585,-0.52796,19.5205,
18.9931,22.1588,28.4904,2.1103,-15.0727,3.1663,-4.2202,-15.8273,-15.8273,-2.1103,14.7724,-4.2202,-7.3859,14.7724,
31.1276,37.1588,36.4043,16.3558,-0.072731,18.1663,-1.5829,-19.5205,-19.5205,-4.7476,-0.22762,-2.6378,-16.3548,17.4107,
30.0727,34.2934,34.2934,7.9134,-5.8036,26.907,-1.5829,-12.1341,-13.19,1.5829,-10.0242,-7.9134,-10.0242,19.5205,
30.6007,23.2142,23.2142,-4.2207,0,29.5458,-8.4414,-7.3854,-6.3305,11.6071,0,0,-6.3305,23.2142,
25.852,21.6314,8.2142,-4.7486,-11.0792,36.4032,-17.4107,-14.2449,-8.9693,16.3548,4.7486,13.19,-10.0242,17.4107,
12.662,24.2692,-6.7858,0,-26.0792,33.7654,-25.3241,-23.2132,-23.2132,1.3548,0,12.662,-16.8827,4.2207,
9.4968,21.1029,-1.0554,4.2202,-17.9381,28.4893,-32.711,-28.4904,-26.3795,-1.0554,1.0554,6.331,-22.1588,2.1103,
10.5517,9.4968,-2.1103,3.1653,-9.4968,27.4344,-28.4893,-30.6002,-18.9931,7.3859,2.1103,-3.1653,-16.8832,6.331,
16.3553,16.3553,-11.0787,-0.52746,-11.0787,30.0732,-17.4102,-22.6858,-12.1346,10.0247,0.52746,0.52746,-6.858,13.1895,
23.2142,20.0485,-8.4414,-7.3854,-9.4963,26.38,-15.8268,-18.9926,-4.2207,11.6071,4.2207,7.3864,-7.3854,14.7729,
23.7412,19.5205,-2.6378,-10.0242,-7.9144,23.7412,-16.3558,-17.4107,-3.6937,13.189,6.8585,2.6378,-11.0792,15.2998,
18.4656,20.5754,4.7476,-3.6937,-1.5829,27.9619,-12.1351,-18.4656,-10.0242,1.5829,3.6927,-11.0792,-15.2998,14.2449,
14.7729,13.718,14.7729,0,0,25.3241,-15.8278,-23.2132,-12.662,-6.3305,1.0549,-23.2132,-13.717,5.2756,
25.8515,22.6868,17.4102,1.5824,-8.9688,29.0173,-21.6309,-18.4651,-11.0797,-1.5824,1.5824,-8.2132,-11.0797,12.1346,
29.5458,29.5458,15.8278,-6.3305,-18.9926,28.4898,-9.4963,-14.7719,-6.3305,-4.2207,4.2207,6.7868,-9.4963,21.1044,
22.1588,25.3246,18.9931,-12.6615,-14.7724,26.3795,-3.1653,-26.3795,-8.4409,-3.1653,3.1653,6.331,-8.4409,15.8283,
21.6314,16.3558,22.6863,-3.6927,-10.0242,23.7422,-14.2449,-27.9619,-17.4097,6.8585,2.6378,-2.6378,-6.8585,13.19,
20.0485,4.2207,11.6071,-5.2756,-25.0242,8.7422,-16.8827,-22.1583,-17.9376,1.0549,3.1658,-1.0549,-11.6071,10.5522,
20.0485,14.7719,7.3864,1.0549,-35.8763,6.3305,-11.6071,-14.7729,-12.662,-2.1108,-1.0549,3.1658,-15.8278,12.662,
10.5522,16.8827,8.4414,0,-23.2142,16.8827,-18.9936,-24.2692,-26.379,0,-16.0549,0,-25.3241,3.1658,
16.8832,20.048,6.331,-2.1103,-11.6066,15.8273,-11.6066,-25.3246,-26.3795,6.331,-11.6066,2.1103,-17.9381,2.1103,
13.7175,20.048,-5.2761,2.1103,-15.8273,3.1653,-2.1103,-20.048,-13.7175,3.1653,3.3934,-4.2212,-8.4419,10.5517,
-1.2825,12.662,-7.3864,4.2207,-16.8827,0,-4.2207,-13.717,-2.1098,4.2207,14.7729,2.1108,0,20.0485,
-14.2449,16.3558,-6.8585,6.8585,-19.5205,10.0242,-12.1341,-14.2449,-10.0242,2.6378,6.8585,17.1108,-2.6378,19.5215,
-9.4968,26.3795,-1.0554,11.6066,-21.1029,17.9381,-5.2761,-15.8273,-9.4968,1.0554,5.2761,9.4968,-5.2761,15.8273,
-7.9134,23.7412,10.0242,12.1341,-15.2998,17.4107,-4.7486,-16.3548,-4.7486,6.8585,4.7486,-5.5032,-4.7486,15.2998,
-11.0797,21.6309,19.521,10.0237,-15.3003,14.2444,-8.9688,-16.3553,-10.0237,7.9139,3.6932,-14.2444,-3.6932,18.4661,
-8.9693,27.9619,24.7971,15.2998,-24.7971,19.5205,-4.7486,-15.2998,-13.19,4.7486,10.0242,-10.0242,-5.8036,20.5764,
-7.3859,29.5453,26.3795,22.1588,-24.2697,29.5453,-8.4419,-11.6066,-10.5517,9.4968,5.2761,-5.2761,-7.3859,20.048,
-10.5522,18.9926,24.2692,16.8827,-21.1034,21.1034,-11.6071,-13.718,-3.1658,13.717,0,-2.1108,0,16.8827,
-22.6858,17.4112,20.5759,10.0247,-24.7966,11.0797,-10.0237,-19.52,-2.6373,-0.52746,3.6932,-3.6932,0.52746,15.3003,
-12.1341,29.0178,14.2449,16.3558,-9.7966,26.0797,-14.2449,-20.5754,-14.2449,-2.6378,4.7486,2.6378,-11.0792,14.2449,
-0.52746,23.7417,10.0247,16.3553,5.2034,39.5695,-16.3553,-27.9624,-20.5759,0.52746,-7.9139,-7.9139,-17.4102,4.7481,
-4.7486,23.7412,23.7412,16.3548,3.6927,25.852,-8.9693,-23.7412,-13.19,1.5829,-1.5829,-18.4656,-10.0242,7.9134,
-16.3553,24.7966,21.6309,17.4102,-1.5824,23.7417,-8.9688,-21.6309,-17.4102,1.5824,8.9688,-11.0797,-11.0797,7.9139,
-10.0247,21.6309,16.3553,18.4651,2.6383,32.1831,-12.1346,-32.1831,-25.8515,-1.5824,0.52746,-0.52746,-18.4661,0.52746,
4.9753,27.9624,31.3553,21.6309,13.1895,35.3488,-10.0237,-29.0173,-24.7966,-4.7481,-7.9139,-0.52746,-20.5759,0.52746,
0.52746,24.7966,34.2939,12.1346,4.7491,30.0732,-10.0237,-23.7407,-21.6309,-1.5824,-0.52746,-12.1346,-20.5759,2.6383,
-9.4968,27.4344,21.1029,10.5517,-9.4968,28.4893,-10.5517,-18.9931,-15.8283,9.4968,11.6066,-12.6625,-11.6076,10.5517,
-8.4414,37.9861,24.2692,17.9376,-14.7729,27.4349,-8.4414,-12.662,-6.3315,4.2207,6.3305,-8.4414,-4.2207,21.1034,
-7.3859,32.71,23.2137,4.2202,-6.331,25.3246,1.0554,-9.4968,-1.0554,-1.0554,5.2761,-9.4968,-2.1103,18.9931,
-9.4968,29.5453,15.8273,-3.1653,-7.3859,18.9931,1.0554,-9.4968,-1.0554,12.6625,16.8832,-7.3859,-4.2202,17.9381,
-12.662,28.4898,21.1034,0,-22.3859,9.4963,-8.4414,-12.662,0,14.7719,13.717,-4.2207,-5.2756,20.0485,
-8.9683,26.907,24.7971,1.5829,-19.5205,19.5215,-7.9134,-12.1341,-3.6927,6.8585,7.9144,-3.6927,-1.5829,10.0242,
-6.331,30.6002,9.7971,1.0554,-4.5205,26.3795,-1.0554,-13.7175,-13.7175,1.0554,15.8273,-4.2212,-1.0554,5.2761,
-7.9144,29.0168,4.7476,-3.6937,-12.1351,11.3795,1.5829,-16.3558,-10.0242,3.6927,18.4656,-8.9693,-1.5829,16.3548,
-7.9139,25.8526,17.4102,-0.52746,-27.1351,3.6932,-3.6932,-12.1346,-7.9139,2.6383,7.9139,-7.9139,0.52746,22.6868,
-7.3864,25.3241,23.2142,5.2756,-25.3241,9.4963,-3.1658,-14.7729,-10.5522,-3.1658,7.3864,-5.2756,3.1658,14.7719,
-10.5522,32.7105,17.9376,14.7729,-23.2142,17.9376,1.0549,-20.0485,-14.7729,-1.0549,8.4414,-8.4414,-4.2207,11.6071,
-10.5517,30.6002,13.7175,20.048,-29.5453,18.9931,-4.2212,-15.8273,-14.7724,3.1653,4.2202,-13.7175,-3.1653,16.8832,
-12.662,15.6002,8.4414,5.048,-30.6007,10.5512,-12.662,-14.7729,-11.6071,0,3.1658,-16.8827,0,10.5512,
-6.3315,21.1034,17.9376,1.0549,-15.6007,21.1034,-6.3315,-10.5522,-6.3315,4.2207,7.3864,-5.2756,-1.0549,15.8278,
-6.331,17.9381,24.2697,-1.0554,-17.9381,27.4344,-1.0554,-16.8822,-6.331,1.0554,7.3859,-5.2761,2.1103,21.1039,
-15.3003,5.8031,18.4661,-7.9139,-32.9381,13.1895,-0.52746,-20.5759,-4.7481,0.52746,11.0797,-6.859,3.6932,16.3553,
-8.9693,16.3548,16.3548,-5.8036,-32.1826,14.2449,-0.52796,-10.0242,0.52796,14.2449,15.2998,-1.5829,-0.52796,17.4107,
-9.4963,14.7719,6.3305,-14.7729,-25.3241,16.8827,-5.2756,-13.717,1.0549,12.662,9.4963,-6.3315,-1.0549,14.7719,
-15.3003,11.0797,-1.5824,-12.1346,-31.1282,15.3003,-10.0237,-20.5759,-1.5824,4.7481,13.1895,1.5824,4.7481,19.521,
-13.717,18.9926,0,-4.2207,-25.3241,14.7719,-8.4414,-26.38,-2.1108,12.662,13.717,4.2207,0,23.2142,
-6.8585,30.0727,-1.5829,-4.7476,-10.3241,24.7971,1.5829,-27.9619,3.6937,18.4656,8.9693,-6.8585,-1.5829,21.6314,
-8.9693,35.3483,-6.8585,-1.5829,1.5829,39.7971,-1.5829,-16.3548,1.5829,8.9693,6.8585,-4.7486,-1.5829,22.6863,
-6.331,27.4344,1.0554,6.331,-13.4171,43.2622,-10.5517,-12.6615,-5.2761,6.331,8.4419,-1.0554,-9.4968,18.9931,
7.3864,27.4349,11.6071,7.3864,-22.1583,32.7105,-16.8827,-26.379,-14.7729,0,0,-13.717,-21.1034,8.4414,
16.3558,41.6799,3.6927,10.0242,-7.1583,42.7348,-7.9134,-22.6863,-18.4656,-8.9693,-3.6927,-20.5754,-20.5754,6.8585,
17.4107,38.5141,0.52796,10.0242,7.8417,39.569,-5.8036,-23.7412,-11.0792,-8.9693,-0.52796,-21.6314,-18.4656,11.0792,
24.7966,31.1271,14.2444,-0.52746,-2.6383,25.8515,-8.9688,-32.1831,-4.7481,5.8031,0.52746,-6.6314,-25.8526,16.3553,
13.1905,19.521,6.859,-15.5275,-14.2444,19.521,-8.9688,-35.3478,-19.52,3.6932,-3.6932,4.7481,-32.1821,6.859,
4.2202,25.3246,-2.1103,-17.9381,0.75558,31.6551,-5.2761,-24.2687,-24.2687,-1.0554,1.0554,7.3859,-22.1588,5.2761,
6.8585,30.0727,-4.7486,-2.9381,1.5829,37.4592,-12.1341,-23.7412,-16.3548,-1.5829,-6.8585,7.9144,-16.3548,4.7486,
9.4963,27.4339,0,0,-13.4171,34.8204,-13.718,-28.4898,-12.662,1.0549,-8.4414,0,-22.1593,6.3305,
20.0485,37.9861,15,-4.2207,-13.717,34.8204,-4.2207,-23.2142,-13.717,5.2756,4.2207,-8.4414,-18.9936,15.8278,
21.6309,36.4038,25.8515,0.52746,-7.9139,23.7417,-0.52746,-27.9624,-17.4102,-3.6932,2.6383,-3.6932,-14.2444,10.0237,
24.7966,36.4038,26.9075,14.2454,-4.7481,26.9075,-2.6383,-22.6858,-23.7417,-12.1346,-2.6383,2.6383,-14.2444,7.9139,
30.0727,44.8446,26.907,16.3548,2.6378,35.3483,-3.6937,-13.19,-21.6314,-7.9144,-2.6378,-11.0792,-18.4656,17.4107,
29.0173,38.5136,31.1282,1.3548,-0.52746,21.6309,2.6383,-23.7417,-6.6314,-0.52746,-2.6383,-7.9139,-12.1346,14.2444,
26.907,29.0178,29.0178,-10.0242,-10.0242,12.1341,1.5829,-35.3483,-5.8036,-2.6378,-1.5829,3.6927,-4.7486,4.7486,
26.9075,22.6868,16.3553,-11.0787,-11.0787,15.3003,0.52746,-23.7417,-10.0237,-1.5824,11.0797,-7.9139,-0.52746,13.1895,
13.19,25.852,5.8036,-13.189,-3.6927,14.2449,1.5829,-8.9683,-8.9683,-1.5829,8.9693,-10.0242,-1.5829,21.6314,
5.8036,35.3483,17.4107,-10.0242,-0.52796,20.5754,-2.6378,-14.2449,-13.19,-4.7486,0.52796,4.9758,-4.7486,19.5205,
4.2207,20.3483,15.8278,-14.7719,-15.528,16.8827,-12.662,-29.2449,-21.1034,0,0,2.1108,-7.3864,11.6071,
9.4963,15.8278,12.662,-6.3315,-30.528,9.4963,-13.717,-35.8763,-15.8278,12.662,4.2207,-7.3864,-4.2207,15.8278,
12.6615,26.3795,15.8273,2.1103,-44.3182,3.1653,-9.4968,-28.4904,-16.8832,-2.1103,2.1103,-9.4968,-10.5517,11.6066,
27.6615,41.3795,29.5448,10.5512,-29.3182,18.1653,0,-15.8278,-25.3241,-5.2756,0,-4.2207,-8.4414,11.6071,
20.048,30.6002,27.4344,-3.1653,-14.3182,26.3795,-3.1653,-14.7724,-32.711,3.1653,-12.6625,-9.4968,-8.4419,16.8832,
12.662,15.6002,24.2692,-13.717,-27.4349,11.3795,1.0549,-22.1583,-17.711,8.4414,-1.0549,-16.8827,-5.2756,16.8827,
21.6319,16.3553,18.4661,0.52746,-29.0173,14.2454,-0.52746,-25.8515,-6.858,-2.6373,4.7481,-14.2444,-7.9139,6.859,
26.38,31.3553,28.4898,15.5275,-14.0173,29.2454,-3.1658,-18.9926,-12.662,-6.3305,-6.3305,-9.4963,-5.2756,9.4963,
20.0485,36.9312,34.8204,14.7729,0.98269,31.6556,-3.1658,-21.1034,-14.7729,-1.0549,-10.5522,-15.8278,-7.3864,16.8827,
23.2132,26.379,27.4339,0,-8.4414,27.4339,0,-25.3251,-9.4973,6.3305,-5.2766,-13.718,-11.6071,17.9376,
13.717,17.9376,23.2142,-8.4414,-11.6071,21.1034,4.2207,-29.5448,-4.2207,5.2756,-11.6071,-11.6071,-7.3864,15.8278,
12.662,18.9936,31.6556,0,-11.6071,16.8827,4.2207,-21.1034,-6.3305,-2.1098,-14.7719,-11.6071,0,23.2142,
17.4102,22.6858,19.521,1.5824,-17.4102,24.7966,2.6383,-11.0797,-12.1346,-2.6383,-2.6383,-5.8031,-1.5824,23.7417,
2.6383,20.5759,4.521,-13.4176,-30.0722,15.3003,-1.5824,-15.3003,-7.9139,3.6932,3.6932,-2.6383,-2.6383,19.521,
2.6383,18.4661,13.1895,-14.2444,-31.1271,4.7481,-1.5824,-17.4102,-0.52746,6.859,-2.6373,-4.7481,0.52746,25.8526,
17.6383,11.0792,19.5205,-7.9144,-33.2385,16.3548,2.6378,-22.6863,-5.8036,5.8036,-4.7486,-10.0242,-2.6378,23.7412,
21.6314,18.4656,12.1341,-0.52796,-34.2934,25.852,0.52796,-25.852,-15.2998,7.9134,-6.8585,-8.9693,-12.1341,16.3548,
13.717,24.2692,8.4414,4.2207,-33.7665,10.852,-4.2207,-23.2142,-7.3864,9.4963,-10.5522,-14.7729,-11.6071,14.7719,
14.7729,20.0485,7.3864,-2.1098,-43.2617,-4.148,-4.2207,-24.2692,0,5.2756,0,-13.717,0,11.6071,
7.3859,21.1029,1.0554,-12.6625,-58.2617,-2.1103,-9.4968,-25.3246,-7.3859,5.2761,12.6615,-1.0554,4.2202,9.4968,
1.0549,16.8827,5.2756,-20.0485,-70.6972,-6.3315,-3.1658,-21.1034,-1.0549,12.662,13.717,-2.1108,14.7719,14.7719,
12.1346,4.7481,7.9139,-23.7417,-58.5626,-19.521,-1.5834,-23.7417,0.52746,5.8031,-0.52746,-12.1346,12.1346,13.1895,
22.1588,12.6625,7.3859,-12.6625,-43.5626,-9.4968,-2.1103,-15.8273,-2.1103,7.3859,2.1103,-2.1103,5.2761,20.048,
14.2444,15.3003,2.6383,-10.0237,-38.5136,-3.6932,-0.52746,-12.1346,-5.8031,8.9688,-1.5824,0.52746,6.859,24.7966,
5.2756,7.3864,4.2207,-17.9376,-52.759,-12.662,0,-9.4963,-8.4414,3.1658,-9.4963,0,14.7729,26.379,
-5.8041,-6.859,10.0237,-32.1831,-61.7278,-27.662,0.52746,-6.859,-0.52746,15.3003,5.5037,5.8031,19.521,23.7417,
-13.7175,-9.4968,6.331,-30.6002,-61.2004,-28.4893,-3.1653,-21.859,3.1653,24.2687,10.5517,5.2761,11.6066,18.9931,
-2.6373,5.5032,4.7481,-15.6002,-51.1761,-13.4893,-4.7481,-27.9624,0.52746,17.4102,-0.52746,6.859,8.9688,27.9624,
7.9134,13.189,7.9134,-5.8036,-46.9555,-8.9693,-12.1351,-16.3558,-5.8036,4.7476,-1.5829,1.5829,5.8036,24.7961,
20.0485,13.717,20.0485,0,-32.7105,-10.5522,-9.4963,-7.3864,-7.3864,6.3305,4.2207,-2.1108,0,23.2132,
16.3553,8.9688,20.5759,-0.52746,-35.3488,-11.0797,0.52746,-22.3864,-13.1895,2.6373,-1.5834,-10.0247,0.52746,21.6309,
10.0242,7.9134,7.9134,-11.0802,-49.0663,-15.3008,4.7476,-32.1836,-12.1351,2.6378,-2.6378,-14.2449,15.5275,20.5754,
7.9144,13.19,0.52796,-18.4656,-49.0658,-8.9693,-0.52796,-17.1836,-0.52796,8.9693,10.0242,-4.7486,24.7971,27.9619,
1.0554,7.3859,-8.4419,-25.3246,-46.428,-1.0554,-4.2212,-23.2137,2.1103,9.4968,12.6615,-3.1653,11.6066,24.2687,
12.6625,10.5517,-5.2761,-10.5517,-36.9307,7.3859,-2.1103,-24.2687,-8.4409,10.5517,10.5517,-1.0554,1.0554,22.1588,
21.6314,4.7486,-0.52796,-10.0242,-27.9619,4.7486,-7.9134,-20.5764,-16.3548,3.6927,0.52796,-5.8036,0.52796,18.4656,
17.9376,5.2756,3.1658,-18.9936,-31.6556,8.4414,-8.4414,-14.7729,-3.1658,6.3315,-7.3864,-3.1658,8.4414,25.3241,
16.3548,15.2998,-2.6378,-22.6863,-46.6556,14.2449,-10.0242,-8.9693,-2.6378,13.19,-8.9693,2.6378,7.9134,31.1276,
24.7971,10.0242,-14.2449,-25.852,-48.0104,7.9144,-6.8585,-17.4107,-6.8585,8.9693,6.0307,-2.6378,2.6378,23.7412,
32.1831,7.9139,-8.9688,-11.0797,-33.0104,7.9139,0.52746,-19.521,-3.6932,7.9139,11.0787,-3.6932,-0.52746,25.8515,
32.1831,10.0237,1.5824,-5.8031,-21.6309,1.5824,1.5824,-14.2444,-1.5824,7.9139,-2.6383,-4.7481,-4.7481,24.7966,
33.7654,10.5522,2.1108,-14.7729,-33.7654,-6.3305,5.2756,-14.7729,-1.0549,1.0549,3.1658,-3.1658,-3.1658,22.1583,
36.9317,11.6066,6.331,-4.2202,-20.048,2.1103,-3.1653,-23.2137,-7.3859,-2.1103,7.3859,-2.1103,5.2761,23.2137,
42.7348,14.2449,17.4107,10.7798,-18.4656,14.2449,-11.0792,-22.6863,-16.3548,-2.6378,-7.6141,-14.2449,2.6378,16.3548,
55.9243,29.2449,32.4107,25.7798,-16.8832,29.2449,-2.1103,-7.6863,-14.7724,1.0554,-15.8273,-12.6625,-1.0554,21.1039,
48.5378,31.6551,23.2137,20.048,-13.7175,27.4344,2.1103,-8.4409,-10.5517,-2.1103,-7.3859,-8.4409,-5.2761,25.3246,
39.0421,16.6551,10.5522,5.048,-21.1034,12.662,0,-15.8278,-7.3864,-7.3864,-4.2207,-4.2207,0,22.1583,
30.0722,14.2444,5.8031,-9.952,-31.1282,-0.52746,-0.52746,-11.0797,-8.9688,-1.5824,2.6383,0.52746,3.6932,19.521,
15.0722,6.3315,-7.3864,-24.952,-41.1519,-15.5275,0,-17.9376,-2.1098,7.3864,17.6383,0,8.4414,22.1583,
0.072227,-3.1658,-9.4973,-37.9871,-43.2627,-20.0485,0,-20.0485,8.4414,6.3305,18.9926,6.3305,13.717,28.4888,
4.2207,-11.6061,-9.4963,-26.379,-42.2068,-8.4414,0,-14.7719,6.3315,0,3.9926,17.9386,6.3315,23.2142,
0.52746,-2.6373,-11.0787,-19.521,-36.4038,-0.52746,0.52746,-5.8031,-0.52746,7.9139,3.6932,20.5759,6.859,20.5759,
-6.8585,11.0792,-7.9134,-17.4107,-38.5141,4.7486,-6.8585,-4.7486,-5.8036,10.0242,10.0242,6.8585,7.9134,27.9619,
-2.6383,4.7481,-0.52746,-17.4102,-41.6794,0.52746,-2.6383,-14.2454,0.52746,0.52746,14.2444,-0.52746,5.8031,26.9065,
3.1658,-7.3864,1.0549,-27.4349,-30.6007,-13.718,0,-23.2142,0,-1.0549,13.717,11.6071,5.2756,21.1034,
-2.1098,0,0,-31.6556,-23.2142,-9.4963,0,-16.8827,3.1658,11.6071,12.662,16.8827,13.717,32.7105,
-15.8283,1.0554,-6.331,-34.8209,-30.6002,-4.2212,4.2202,-22.1588,10.5517,10.5517,11.6066,1.8827,16.8822,25.3236,
-11.0797,2.6383,-1.5824,-29.0173,-23.7417,-8.9688,0.52746,-24.7966,6.859,6.859,15.3003,-0.52746,12.1346,15.3003,
-3.1658,1.0549,4.2207,-23.2142,-16.8827,-15.8278,-4.2207,-18.9936,-1.0549,2.1108,16.8827,10.5522,8.4414,21.1034,
-5.8041,4.7481,0.52746,-21.6319,-19.521,-10.0247,2.6373,-20.5759,-0.52746,-2.6383,16.3553,5.8031,6.858,20.5759,
-1.5829,12.1341,1.5829,-31.1276,-13.19,-3.6937,2.6378,-24.7971,2.6378,-1.5829,13.189,-4.7486,6.8585,12.1341,
1.5824,4.7481,2.6383,-34.2929,-12.1346,-10.0237,-1.5824,-21.6309,-1.5824,2.6383,8.9688,-5.8031,6.859,14.2444,
-8.9693,-0.52796,0.52796,-21.6314,-20.5764,-2.6378,0.52796,-11.0792,-1.5829,3.6927,6.8585,1.5829,6.8585,20.5754,
-23.9693,-1.5824,-0.52746,-30.0722,-19.521,2.6383,0.52746,-10.0237,6.859,-0.52746,10.0237,4.7481,6.859,18.4651,
-23.2142,0,-1.0559,-31.6556,-5.2766,0,-1.0559,-15.8278,5.2756,5.2756,8.4414,2.1098,3.1648,24.2682,
-8.2142,12.662,3.1658,-16.6556,6.3315,11.6071,-3.1648,-14.7719,-1.0549,8.4414,-1.0549,0,-1.0549,31.6556,
1.0549,12.662,0,-1.6556,-8.6685,9.4963,-6.3315,-13.717,0,0,-8.4414,-6.3315,0,18.9926,
-10.5517,11.6066,-5.2761,-5.2761,-23.6685,4.2202,-6.331,-9.4968,5.2761,4.2202,2.1103,-2.1103,3.1653,24.2687,
-8.4409,12.6625,-9.4968,-3.1653,-21.1039,14.7724,-6.331,-16.8832,8.4419,8.4419,8.4419,3.1653,-4.2202,27.4344,
-2.1103,22.1588,-6.331,2.1103,-22.1588,20.049,-7.3859,-15.8273,7.3869,5.2761,-4.2202,4.2212,-4.2202,20.049,
-3.6932,26.9065,-5.8031,-1.5824,-27.9624,5.049,-2.6383,-5.8031,5.8031,1.5824,-6.859,2.6383,4.7481,20.5759,
-1.0549,15.8278,-10.5512,-9.4963,-25.3241,0,1.0549,-8.4414,7.3864,0,5.2756,-4.2207,7.3864,24.2692,
2.1103,22.1588,-4.2212,-1.0554,-18.9931,15,-4.2212,-10.5517,2.1103,-3.1653,4.2202,-2.1103,1.0554,24.2687,
0,30.5997,-3.1658,8.4414,-20.0485,27.4349,0,-13.717,-3.1658,-9.4963,1.0549,4.2207,0,16.8827,
-4.2207,27.4349,-2.1108,0,-20.0485,20.0485,2.1098,-13.717,2.1098,-5.2756,8.4414,-1.0549,0,16.8827,
-6.859,24.7966,10.0237,-0.52746,-18.4651,20.5759,-4.7481,-13.1895,-0.52746,0.52746,5.8031,1.5824,-13.1895,19.521,
-5.8036,22.6863,17.4107,13.19,-23.7412,21.6314,-1.5829,-14.2449,-6.8585,-2.6378,1.5829,14.2449,-12.1341,16.3558,
-1.0554,21.1039,18.9931,20.049,-25.3236,14.7724,1.0554,-13.7175,-10.5517,-9.4968,-2.1103,3.1653,-6.331,16.8832,
-0.52796,22.6863,19.5205,22.6863,-24.7971,1.5829,3.6927,-12.1341,-2.6378,-1.5829,0.52796,-5.8036,-0.52796,21.6314,
-15.3003,16.3553,10.0237,11.0787,-39.7971,-8.9688,0.52746,-19.521,-2.6383,-0.52746,5.8031,-0.52746,2.6373,18.4651,
-13.717,14.7729,18.9936,9.4973,-49.5933,0,0,-17.9376,-11.6061,-5.2756,2.1108,0,4.2207,16.8827,
-1.0549,11.6071,25.3241,11.6071,-45.3726,4.2207,1.0549,-10.5512,-12.662,-6.3305,-7.3864,-10.5512,3.1658,17.9376,
2.1103,18.9931,11.6066,15.8273,-50.6487,5.2761,-7.3859,-11.6066,-5.2761,-3.1653,-4.2212,-2.1103,4.2202,24.2687,
-2.6378,27.9619,2.6378,15.2998,-53.2865,2.6378,-12.1351,-15.2998,0.52796,-0.52796,-0.52796,-0.52796,11.0792,32.1826,
-0.52746,24.7966,11.0797,8.9688,-46.955,-2.6373,-0.52746,-22.6858,6.859,0.52746,-4.7481,-6.858,14.2454,19.521,
-3.1658,17.9376,5.2756,1.0549,-46.4275,-1.0549,1.0549,-26.379,4.2207,-1.0549,-11.6071,-4.2207,7.3864,4.521,
-4.7481,17.4102,1.5824,-4.7481,-51.1766,0.52746,-1.5834,-12.1346,4.7481,3.6932,-7.9139,-0.52746,5.8031,19.52,
-2.1108,18.9926,1.0549,-11.6071,-36.9312,0,-4.2207,1.0549,2.1098,0,-3.1658,-5.2766,0,33.7654,
-7.3864,13.717,-7.3864,-10.5522,-22.1583,0,-1.0549,4.2207,4.2207,3.1658,0,0,7.3864,33.7655,
-22.1593,2.1098,-20.0485,-14.7729,-37.1583,-12.663,0,-2.1108,6.3305,2.1098,0,6.3305,12.662,31.6546,
-10.0237,14.2454,-18.4651,-6.858,-48.0099,2.337,0.52746,-2.6373,-0.52746,-2.6373,3.6932,7.9139,6.859,26.9075,
2.1108,15.8278,-11.6071,2.1108,-33.0099,17.337,-4.2207,-14.7719,-9.4963,-8.4414,1.0549,-1.0549,1.0549,11.9075,
1.0554,11.6066,-4.2212,3.1653,-18.0099,30.6002,-1.0554,-16.8832,-2.1103,1.0554,-5.2761,-4.2212,4.2202,21.1029,
0,15.8268,-11.6071,-9.4973,-31.6556,15.8268,0,-4.2207,3.1648,4.2207,-11.6071,0,3.1648,36.1029,
4.7481,19.52,-18.4661,-4.7481,-46.6556,20.5759,-0.52746,-5.8041,0.52746,-4.7481,-6.859,1.5824,5.8031,32.1821,
-1.0549,25.3241,-13.717,10.2519,-49.5933,24.2692,-6.3305,-6.3305,1.0549,-3.1658,-1.0549,3.1658,12.662,22.1583,
-15.8273,17.9381,-18.9931,5.2761,-62.2553,9.4968,-10.5517,-11.6066,4.2212,2.1103,-5.2761,-2.1103,8.4419,9.4968,
-13.717,18.9936,-20.0485,-3.1658,-61.2004,7.3864,-3.1658,-13.717,9.4963,10.5522,-6.3315,6.3315,3.1658,11.6071,
-13.1895,24.7966,-18.4651,-6.859,-55.3968,5.8041,-0.52746,-2.6383,7.9139,7.9139,0.52746,14.2454,-0.52746,21.6309,
-26.3795,17.9381,-23.2137,-21.859,-69.6417,2.1103,-4.2212,-1.0554,7.3859,1.0554,4.2202,7.3859,-3.1653,15.8273,
-12.1346,19.521,-21.6309,-14.2454,-74.3899,13.1895,-4.7481,-2.6383,5.8031,6.859,1.5824,12.1346,-1.5824,20.5759,
-1.5834,16.3553,-21.6319,-2.6383,-67.0039,6.858,-2.6383,-8.9698,-0.52746,5.8031,2.6373,18.4651,0.52746,29.0173,
-16.3553,8.9688,-20.5759,-8.9688,-63.8382,-0.52746,-0.52746,-11.0797,1.5824,3.6932,0.52746,11.0797,5.8031,24.7966,
-22.6858,13.1895,-17.4102,-8.9688,-69.1138,3.6932,-3.6932,-11.0797,4.7481,7.9139,-6.859,4.7481,3.6932,20.5759,
-16.3558,15.2998,-18.4656,-6.8595,-69.1143,1.5829,-5.8036,-14.2449,5.8036,5.8036,5.8036,7.9134,-1.5829,16.3548,
-14.2444,12.1346,-17.4102,-7.9139,-59.6175,0.52746,-10.0237,-11.0797,4.7481,1.5834,16.3553,16.3553,-0.52746,17.4102,
-19.521,5.8031,-17.4112,-8.9698,-60.6729,-0.52746,-11.0797,-4.7481,6.858,5.8031,7.9139,13.1895,0.52746,22.6858,
-19.521,4.7481,-26.9075,-11.0797,-62.7833,1.5824,-6.859,-0.52746,2.6373,5.8031,0.52746,5.8031,-4.7481,23.7407,
-15.8278,18.9926,-24.2692,-3.1658,-47.7833,10.5512,-2.1108,3.1648,-2.1108,3.1648,0,7.3854,0,32.7095,
-11.6071,17.9376,-15.8278,-5.2766,-33.7654,10.5512,0,-7.3864,0,5.2756,-1.0549,10.5512,4.2207,32.7105,
-6.859,7.9139,-19.521,-8.9698,-35.3488,13.1895,-1.5834,-12.1346,4.7481,10.0237,0.52746,16.3553,-0.52746,29.0173,
-20.5764,2.6378,-29.0178,-18.4656,-33.2385,10.0242,-6.8585,-7.9144,1.5829,3.6927,2.6378,10.0242,-1.5829,25.851,
-23.7417,4.7481,-23.7417,-20.5759,-32.1831,4.7481,-5.8031,-7.9139,-2.6383,2.6383,6.859,2.6383,6.859,24.7966,
-18.4656,10.0242,-14.2449,-17.4107,-32.1826,10.0242,-4.7486,-2.6378,-2.6378,10.0242,2.6378,8.9693,3.6927,21.6314,
-26.907,6.8585,-18.4656,-19.5205,-39.569,11.0792,-2.6378,0.52796,5.8036,10.0242,-0.52796,11.0792,-3.6927,19.5205,
-15.3008,11.0792,-22.6863,-14.2449,-32.1836,18.4656,-3.6937,-5.8036,10.0242,6.8585,2.6378,6.8585,-2.6378,21.6304,
-3.1653,7.3859,-23.2137,-20.049,-34.8209,11.6066,-13.7175,-18.9931,9.4968,7.3859,9.4968,3.1653,-3.1653,12.6615,
-6.331,2.1103,-12.6615,-22.1588,-44.3172,-2.1103,-7.3859,-11.6066,21.1039,16.8832,23.2137,14.7724,4.2212,17.9381,
-6.859,7.9139,-19.521,-13.1895,-42.7343,7.9139,-10.0247,-7.9139,11.0797,6.859,8.2137,10.0237,-0.52746,15.3003,
8.141,21.6314,-23.7412,-0.52796,-37.4592,22.9139,-8.9693,-6.8585,4.7486,0.52796,-6.7863,-0.52796,0.52796,8.9693,
9.4968,21.1039,-26.3795,-8.4419,-52.4592,37.9139,-10.5517,-3.1653,2.1103,3.1653,-4.2202,-1.0554,1.0554,7.3859,
-2.1103,17.9381,-27.4344,-12.6615,-67.4592,36.9317,-12.6615,-3.1653,3.1663,4.2212,2.1103,9.4968,-4.2202,11.6076,
10.0237,17.4102,-22.6868,-4.7481,-63.8382,29.0173,-10.0247,-2.6383,5.8031,2.6383,-3.6932,7.9139,-3.6932,10.0237,
8.9688,18.4651,-24.7966,-6.859,-69.1143,31.1271,-13.1905,-1.5834,0.52746,6.858,-0.52746,10.0237,-1.5834,7.9139,
-6.0312,10.0242,-35.3483,-21.859,-84.1143,27.9619,-15.2998,-10.0242,1.5829,6.8585,6.8585,6.8585,-1.5829,4.7486,
-8.9683,17.4107,-27.9619,-17.4097,-99.1143,27.9629,-6.8585,-7.9134,7.9144,6.8595,1.5829,-1.5829,2.6388,10.0242,
6.0317,26.907,-20.5754,-2.4097,-84.1143,36.4043,-8.9693,-1.5829,-1.5829,1.5829,-3.6927,-1.5829,2.6378,5.8036,
12.1346,23.7417,-21.6309,-2.6373,-70.1692,34.2939,-15.3003,0.52746,-4.7481,-1.5824,3.6932,-0.52746,2.6383,0.52746,
14.2449,26.907,-18.4656,-14.2449,-83.8867,22.6863,-14.2449,-0.52796,2.6378,0.52796,-2.6378,-2.6378,0.52796,6.8585,
16.3548,20.5754,-19.5205,-8.9693,-92.328,25.852,-8.9693,-1.5829,5.8036,1.5829,-7.9144,3.6927,-2.6378,11.0792,
5.2766,14.7729,-30.5997,-9.4963,-87.5794,28.4898,-11.6071,-4.2207,2.1108,0,0,7.3864,-2.1098,6.3315,
2.1108,13.718,-30.5997,-18.9926,-89.6897,13.4898,-17.9376,-9.4963,0,2.1108,2.1108,0,0,3.1658,
10.0242,2.6378,-26.907,-22.6863,-102.8802,-1.5102,-13.19,-21.6314,5.8036,4.7476,10.0242,2.6378,-2.6378,3.6927,
6.858,0.52746,-29.0173,-16.3553,-97.6041,-0.52746,-5.8041,-19.521,5.8031,4.7481,18.4651,13.1895,-2.6383,7.9139,
10.0242,5.8036,-21.6314,-15.2998,-82.6041,12.1351,-14.2449,-7.9134,-3.6927,-1.5829,12.1351,3.6937,1.5829,1.5829,
25.0242,20.8036,-6.6314,-2.6383,-67.6041,27.1351,-17.4102,-1.5824,-6.859,-4.7481,3.6932,5.8031,2.6383,0.52746,
30.0722,31.1271,4.7481,12.3617,-54.3414,42.1351,-17.4102,-4.7481,-16.3553,-7.9139,-8.9688,11.0787,-12.3617,5.8031,
30.0727,22.6863,1.5829,20.5754,-53.286,41.6799,-12.1341,-3.6927,-5.8036,-3.6927,-1.5829,3.6927,-10.0242,8.9693,
31.1282,20.5759,0.52746,13.1895,-58.5626,27.9624,-16.3553,-0.52746,-0.52746,-1.5824,5.8031,-2.6383,-2.6383,3.6932,
25.3241,18.9936,0,8.4414,-61.2004,18.9936,-15.8278,-8.4414,-10.5512,-2.1098,3.1658,0,-9.4963,4.2207,
25.3241,12.662,0,8.4414,-56.9797,18.9936,-13.717,-14.7719,-10.5512,-5.2756,0,1.0549,-14.7719,3.1658,
30.5997,13.717,1.0549,4.2207,-56.9797,24.2692,-16.8827,-8.4414,0,-1.0549,0,-1.0549,-3.1658,7.3864,
21.6314,13.19,-2.6378,-0.52796,-64.8936,18.4656,-18.4656,-6.8585,2.6378,0.52796,-2.6378,-0.52796,1.5829,10.0242,
26.3795,17.9381,-4.2212,12.6615,-58.0351,14.7724,-15.8283,-5.2761,-4.2212,-2.1103,3.1653,2.1103,-9.4968,7.3859,
38.5146,23.7417,-0.52746,16.3553,-55.3968,23.7417,-15.3003,-2.6373,-2.6373,-3.6932,8.9688,0.52746,-8.9688,7.9139,
32.7105,12.662,1.0549,2.1098,-64.3661,20.0475,-13.718,-6.3315,0,-3.1658,-6.0312,-1.0559,0,3.1648,
33.238,7.9139,4.7481,0.52746,-55.3973,13.1895,-12.1346,-5.8041,-1.5834,0.52746,-15.3003,-0.52746,-6.859,11.0787,
30.6002,9.4968,7.3859,3.1653,-65.4211,10.5517,-13.7175,-5.2761,-2.1103,2.1103,-6.331,-2.1103,-9.4968,22.1588,
15.6002,11.6071,-1.0549,-1.0549,-80.4211,12.662,-18.9926,-1.0549,0,5.2766,-2.1098,1.0559,0,14.7729,
10.0247,3.6932,-16.0549,-16.0549,-65.4211,1.5834,-18.4651,-1.5824,0.52746,0.52746,2.6383,6.859,-3.6932,-0.22711,
24.7966,7.9139,-21.6309,-24.7966,-50.4211,-0.52746,-5.8031,-1.5824,2.6383,0.52746,16.3553,5.8041,-2.6373,5.8041,
34.8204,21.1034,-6.6309,-12.663,-49.5938,14.4725,-6.3315,-6.3315,0,5.2756,6.3305,0,-4.2207,14.7719,
39.5685,17.4102,6.858,-0.52746,-49.0658,24.7966,-14.2454,-6.859,0.52746,5.8031,-4.7481,-2.6383,-8.9688,2.6373,
36.9312,15.8278,-3.1658,4.2207,-36.9312,16.8827,-15.8278,-2.1098,-3.1658,0,6.3315,1.0549,0,-1.0549,
21.9312,20.0485,-18.1658,0,-46.4275,8.4414,-11.6071,-8.4414,-7.3864,-8.4414,3.1658,6.3315,0,8.4414,
8.9693,22.6863,-13.19,-3.6927,-46.9555,14.2449,-1.5829,-4.7476,1.5829,2.6378,-2.6378,10.0242,-1.5829,19.5205,
2.1108,7.6863,-14.7719,-9.4963,-59.0895,5.2766,-16.5829,-4.2207,-5.2756,1.0559,0,0,0,7.3864,
0.52746,4.7481,-22.6868,-3.6932,-68.0594,-3.6932,-15.3003,-3.6932,1.5824,-0.52746,13.1895,15,10.0237,6.858,
-13.19,12.1351,-30.0727,-7.9134,-59.6175,5.8036,-11.0792,-3.6927,7.9144,1.5829,3.6937,29.0178,-1.5829,13.19,
-27.9624,8.9688,-21.6309,-18.4661,-63.8382,11.0797,-18.4661,0.52746,7.9139,6.859,-0.52746,14.2444,-2.6383,12.1346,
-42.7348,-1.5829,-20.5764,-23.7412,-78.8382,-3.9203,-15.2998,1.5829,14.2449,12.1341,12.1341,4.7486,12.3617,10.0242,
-50.1212,0.52746,-21.6309,-16.3553,-90.2177,-17.4102,-8.9688,-0.52746,15.3003,12.1346,18.4651,19.7486,13.1895,18.4651,
-46.4275,0,-20.0485,-6.3305,-80.1934,-7.3864,-11.6071,0,14.7729,6.3315,9.4963,16.8827,4.2207,12.662,
-44.8451,0.52746,-16.3553,-0.52746,-78.6111,7.6136,-13.1905,-1.5834,13.1895,6.858,-0.52746,1.8827,4.7481,5.8031,
-52.2316,5.8036,-6.8585,-2.6378,-84.9421,2.6378,-21.6314,-11.0802,-1.8105,4.7476,2.6378,2.6378,6.8585,3.6927,
-38.5141,12.1341,1.5829,-1.5829,-73.335,-7.9134,-21.6314,-6.8585,-5.8036,1.5829,4.7486,5.8036,15.2998,4.7486,
-27.9619,21.6314,-0.52796,5.8036,-58.335,0.52796,-17.4107,0.52796,-0.52796,4.7486,-10.2514,-0.52796,10.0242,8.9693,
-42.9619,16.3553,-0.52746,1.5834,-62.7828,3.6932,-18.4651,-4.7481,0.52746,7.9139,-6.858,-2.6373,2.6383,11.0797,
-51.7031,4.2207,-1.0549,-11.6071,-73.8624,-7.3864,-18.9936,-9.4963,2.1108,1.0549,5.2756,2.1108,2.1108,6.3315,
-36.7031,14.2454,5.8041,-4.7481,-58.8624,-1.5824,-11.0797,0.52746,7.9139,-0.52746,-9.7244,7.9139,5.8041,7.9139,
-21.7031,18.9936,14.7729,0,-43.8624,2.1108,-7.3854,-6.3305,3.1658,0,-17.9376,-3.1648,6.3315,4.2207,
-28.4898,16.8827,17.9376,0,-31.6556,0,-11.6071,-15.8278,-2.1098,2.1108,-2.9376,-9.4963,1.0549,5.2756,
-15.2998,17.4107,8.9693,-0.52796,-20.5764,12.1341,-10.0242,-10.0242,8.9693,0.52796,11.0792,-0.52796,-0.52796,17.4107,
-6.8585,18.4656,-4.7486,-2.6378,-7.9144,18.4656,-1.5829,-8.9693,3.6927,3.6927,-2.6378,1.5829,3.6927,20.5754,
-6.331,25.3246,-8.4419,5.2761,5.2761,22.1588,-3.1653,-7.3859,-6.331,8.4409,-2.1103,-4.2212,2.1103,12.6615,
-18.9926,25.3241,-2.1098,11.6071,-9.7239,17.9376,-10.5512,-2.1098,8.4414,1.0549,4.2207,-5.2756,-1.0549,6.3315,
-33.766,23.2137,-5.2761,6.331,-24.7239,7.3859,-16.8832,-1.0554,11.6066,-6.331,-1.0554,1.0554,3.1653,12.6615,
-18.766,15.3003,-17.4102,-2.6383,-20.5759,6.859,-12.1346,-3.6932,3.6932,0.52746,-0.52746,7.9139,8.9688,20.5759,
-3.766,5.2766,-14.7719,-13.717,-5.5759,-4.2207,-2.1098,-7.3854,4.2207,0,5.2766,4.2207,0,12.662,
-0.52746,18.4661,0.22812,-10.0237,9.4241,-19.2207,-1.5824,-2.6373,8.9688,-2.6373,2.6383,2.6383,-3.6932,5.8041,
-1.0549,20.0485,0,-8.4414,15.8278,-31.6556,0,-6.3315,8.4414,-2.1108,2.1098,0,4.2207,6.3305,
-4.2207,8.4414,-7.3864,-5.2756,16.8827,-30.6007,1.0549,-8.4414,4.2207,-1.0549,7.3864,-1.0549,9.4963,9.4963,
-17.9381,4.2202,-4.2212,-1.0554,17.9381,-28.4904,1.0554,-3.1653,4.2202,-4.2212,2.1103,-4.2212,6.331,1.0554,
-21.1034,6.3315,0,-10.5512,26.38,-33.7654,8.4414,-13.717,12.662,-5.2756,2.1108,-6.3305,11.6071,0,
-25.852,1.5829,-10.0242,-23.7412,19.5205,-42.7348,6.8585,-18.4656,4.7486,-3.6927,11.0792,-1.5829,13.19,6.8585,
-32.71,-8.4409,-22.1588,-26.3795,4.5205,-39.0416,7.3869,-8.4409,-2.1103,3.1663,11.6076,2.1103,12.6625,8.4419,
-31.6556,0,-15.8278,-14.7729,8.4414,-26.38,2.1098,-14.7729,3.1648,0,-3.3924,1.0549,8.4414,4.2207,
-29.5453,9.4968,-1.0554,-2.1103,10.5517,-27.4344,-6.331,-17.9381,4.2202,1.0554,-7.3859,1.0554,5.2761,7.3859,
-19.521,4.7481,1.5824,0.52746,-3.6932,-27.9624,-4.7481,-5.8031,0.52746,2.6383,-0.52746,-1.5824,7.9139,3.6932,
-8.4414,11.6071,3.1658,7.3864,-3.1658,-23.2142,-1.0549,-3.1658,4.2207,-3.1658,-9.4963,1.0549,11.6071,2.1108,
-16.3553,13.1895,8.9688,8.9688,-1.5824,-33.238,0.52746,-15.3003,6.859,-5.8031,-12.1346,-0.52746,3.6932,10.0237,
-22.6858,8.9688,10.0247,8.9688,-11.0787,-33.238,-0.52746,-16.3553,5.8041,0.52746,-10.0237,-1.5824,1.5834,18.4661,
-23.2137,7.3859,4.2212,3.1653,-17.9381,-26.3795,-8.4409,-7.3859,8.4419,-1.0554,-9.4968,1.0554,7.3859,17.9381,
-17.9386,6.3305,1.0549,-1.0549,-13.718,-30.6007,-10.5522,-15.8278,8.4414,3.1658,1.0549,-1.0549,9.4963,10.5512,
-7.3864,3.1648,0,4.2207,-1.0559,-29.5458,-10.5522,-28.4898,1.0549,10.5512,2.1098,-5.2766,0,5.2756,
-13.7175,2.1103,4.2212,-2.1103,-8.4409,-25.3246,-9.4968,-23.2137,5.2761,5.2761,5.2761,-2.1103,3.1653,10.5517,
-28.7175,6.8585,3.6927,-8.9693,-23.4409,-34.2934,-5.8036,-14.2449,6.8585,-1.5829,12.1341,1.5829,4.7476,21.6304,
-26.9075,1.5824,-0.52746,-2.6383,-16.3553,-33.238,-6.859,-14.2454,0.52746,2.6383,5.8031,13.1895,0.52746,30.0722,
-20.049,-13.4176,2.1103,-3.1653,-2.1103,-25.3246,-2.1103,-17.9381,11.6066,10.5517,8.4409,23.2137,9.4968,25.3236,
-19.521,-10.0237,0.52746,-15.3003,-10.0237,-30.0722,-0.52746,-20.5759,14.2454,7.9139,8.9688,8.9688,11.0797,11.0797,
-4.521,4.9763,4.2207,-7.3864,-6.3315,-26.38,0,-12.663,11.6061,5.2756,0,-3.1658,4.2207,4.2207,
0.52746,0.52746,2.6383,1.5824,-7.9139,-24.7966,-14.2444,-6.859,8.9688,1.5824,-11.0797,-0.52746,-10.7793,1.5824,
-1.0549,3.1658,-2.1108,4.2207,-4.2207,-22.1593,-8.4414,-6.3315,9.4963,13.717,1.0549,13.717,-9.4973,13.717,
-3.6932,3.6932,-14.2444,-10.7793,-6.858,-27.9624,3.6932,-17.4102,5.8041,8.9688,10.0247,4.7481,-6.858,8.9688,
10.0242,8.9693,-2.6378,-8.9693,-0.52796,-18.4656,5.8036,-4.7486,10.0242,-1.5829,10.0242,0.52796,-5.8036,11.0792,
4.2202,-1.0554,-6.331,2.1103,-7.3859,-16.8832,-4.2212,-10.5517,3.1653,1.0554,3.1653,3.1653,-9.4968,12.6615,
-9.4968,-1.0554,-14.7724,-2.1103,-14.7724,-25.3236,1.0554,-16.8822,12.6625,16.0554,12.6625,14.7724,3.1653,22.1588,
-11.0797,-0.52746,-20.5759,-17.1103,-29.7724,-39.5695,0.52746,-12.1346,12.1346,7.9139,7.9139,7.9139,0.52746,13.1895,
2.6378,-1.5829,-17.4107,-14.2449,-35.3483,-41.6799,4.7486,-10.0242,7.9134,0.52796,5.8036,3.6927,-0.52796,4.7486,
4.2202,1.0554,-11.6076,-4.2212,-37.9866,-40.0965,-5.2761,-13.7175,4.2202,12.6615,5.2761,10.5517,-1.0554,11.6066,
-2.1103,7.3859,-6.331,-7.3859,-37.9866,-33.766,-9.4968,-7.3859,12.6625,20.048,4.2202,14.7724,2.1103,20.048,
-8.9688,0.52746,-14.2454,-18.4661,-25.8515,-34.2929,-0.52746,-12.1346,14.2444,8.9688,4.7481,8.9688,7.9139,14.2444,
-7.9144,0.52796,-11.0792,-10.0242,-17.4107,-35.3483,-0.52796,-20.5764,3.6927,0.52796,8.9693,4.7486,1.5829,8.9693,
0.52746,1.5824,3.6932,-0.52746,-25.8526,-36.4038,-5.8041,-17.4112,-4.7481,0.52746,1.5824,1.5824,-8.9698,6.858,
15.3003,4.7481,13.1895,-3.6932,-18.4661,-31.1282,4.7481,-13.1895,-5.8041,3.6932,-4.7481,11.0797,-7.9139,10.0237,
11.0797,-2.6373,2.6383,-18.6932,-15.3003,-38.5136,5.8041,-25.8515,-0.52746,-3.6932,0.52746,5.8041,4.7481,6.859,
1.5829,-12.1341,-1.5829,-25.851,-18.4656,-46.955,2.6388,-21.6304,5.8036,1.5829,4.7486,-9.1959,17.4107,11.0802,
2.6378,-2.6378,1.5829,-10.851,-5.8036,-36.4038,4.7486,-6.6304,-0.52796,13.19,-0.52796,-4.7486,13.19,21.6314,
-2.6373,0.52746,-7.9139,-0.52746,-5.8031,-40.6239,6.859,-11.0787,3.6932,8.9698,-0.52746,5.8041,8.9698,17.4112,
-3.6932,-4.7481,-7.9139,-14.2454,-11.0797,-37.4592,4.7481,-13.1895,12.1346,5.8031,6.859,3.6932,12.1346,15.3003,
-1.0549,-7.3864,-2.1098,-6.3305,-2.1098,-23.2132,1.0549,-6.3305,6.3315,3.1658,9.4973,2.1108,10.5522,15.8278,
7.9139,-8.9698,-10.0247,1.5824,-3.6932,-24.7966,-0.52746,-12.1346,8.9688,0.52746,2.6373,-0.52746,6.858,13.1895,
17.4107,1.5829,-14.2449,-3.6937,-8.9693,-25.852,-1.5829,-7.9144,19.5205,10.0242,4.7476,-3.6937,14.2449,17.4107,
13.19,-3.6927,-13.189,-14.2449,-1.5829,-27.9619,1.5829,-1.5829,16.3558,14.2449,11.0802,-11.0792,13.19,15.3008,
16.8822,-10.5517,-7.3869,-16.8832,13.4171,-26.3795,3.1653,-12.6625,6.331,6.331,5.2761,-13.7175,-1.81,7.3859,
31.8822,-6.3315,5.2756,-4.2207,25.3241,-11.6071,1.0549,-17.9376,4.2207,10.5522,-5.2756,-2.1098,-1.0549,12.662,
36.9312,-7.3864,5.2756,-1.0549,25.3241,-13.717,-3.1658,-14.7729,0,3.1658,-7.3864,0,2.1108,6.3315,
30.5997,1.0549,0,1.0549,39.041,-14.7729,-4.2207,0,-4.2207,-4.2207,-4.2207,-1.0549,0,9.4963,
31.1271,2.6373,-4.7481,-4.7481,34.2929,-5.8041,-8.9688,-0.52746,0.52746,4.7481,-3.6932,-2.6383,0.52746,24.4963,
33.7654,-6.3315,-16.8827,-15.8278,19.2929,-7.3864,-14.7729,-13.717,3.1658,5.2756,1.0549,1.0549,-1.0549,23.2142,
40.6239,-7.9144,-17.4107,-7.9144,8.9683,-15.3008,-8.9693,-11.0802,2.6378,2.6378,3.6927,6.8585,-2.6378,17.4097,
29.0168,-10.0242,-10.0242,-5.8036,4.7476,-20.5764,-3.6937,-11.0802,3.6927,2.6378,-2.6378,2.6378,5.8036,19.5205,
21.1029,-4.2212,-9.4968,-3.1663,-3.1663,-13.7175,-1.0554,-10.5517,11.6066,8.4409,1.0554,9.4968,14.7724,22.1588,
25.3241,-6.3315,-16.8827,-6.3315,-8.4414,-21.1034,-3.1658,-10.5522,9.4963,4.2207,3.1658,6.3315,5.2756,9.4963,
34.2929,-10.0247,-4.7481,-5.8031,6.5586,-24.7966,-3.6932,-2.6383,1.5824,2.6383,-0.52746,2.6383,0.52746,12.1346,
34.2934,-11.0792,6.8585,-0.52796,13.19,-26.907,-7.9134,-3.6927,-8.9693,0.52796,-8.9693,2.6378,1.5829,14.2449,
39.5695,-5.8031,-2.6383,0.52746,-1.81,-27.9624,-0.52746,-11.0797,2.6383,2.6383,-1.5824,0.52746,3.6932,7.9139,
35.8763,3.1658,-17.6383,-8.4414,-12.662,-28.4898,1.0549,-17.9376,9.4963,5.2756,-1.0549,-7.3864,1.0549,7.3864,
20.8763,-3.1658,-6.3315,-12.663,-17.9386,-43.4898,0,-25.3251,7.3854,2.1098,4.2207,0,5.2756,11.6061,
12.1351,-18.1658,7.9144,-10.0242,-32.9386,-58.4898,-5.8036,-30.0727,4.7486,-2.6378,6.8585,2.6378,6.8585,4.7486,
27.1351,-5.2756,4.2207,0,-29.5448,-43.4898,-7.3864,-15.0727,0,2.1108,1.0559,-6.3305,1.0559,8.4414,
42.1351,9.7244,-1.5824,-6.859,-14.5448,-28.4898,-0.52746,-7.9139,0.52746,2.6383,-0.52746,-6.859,5.8031,11.0797,
37.4587,3.6932,1.5824,-11.0797,0.45523,-13.4898,-5.8041,-17.4112,-5.8041,-3.6932,-3.6932,-0.52746,6.858,3.6932,
33.2385,-4.7486,7.9134,-1.5829,4.7486,-7.9134,-7.9134,-11.0792,-6.8585,-2.6378,1.5829,3.6927,6.8585,18.4656,
39.5695,-5.8031,4.7481,-2.6373,-10.0237,-15.3003,-4.7481,-7.9139,-0.52746,0.52746,15.3003,0.52746,16.3553,31.1282,
39.569,1.5829,4.7486,-8.9693,-5.8036,-10.0242,-11.0792,-19.5205,-1.5829,2.6378,13.19,-7.9144,12.1341,19.5205,
33.7665,5.2766,8.4414,0,1.0559,-7.3854,-13.717,-17.9376,-3.1648,3.1658,-1.81,-12.662,0,20.0485,
35.8763,5.2756,9.4963,15,-6.3315,-13.718,-12.662,-2.9376,-3.1658,1.0549,-6.3315,-1.0549,3.1658,31.6546,
36.9312,-4.2207,2.1098,3.1648,-14.7729,-13.718,-16.8837,-10.5522,-6.3315,0,0,4.2207,10.5512,22.1583,
35.8763,-5.2756,3.1658,-5.2756,0.22711,-7.3864,-15.8278,-22.1593,1.0549,6.3305,-2.1108,-1.0549,11.6071,12.662,
32.7105,-1.0559,0,6.3305,13.717,-15.8278,-16.8837,-11.6071,0,-1.0559,-9.4973,0,0,11.6061,
37.9866,-4.2212,-9.4968,1.0554,3.1653,-13.7175,-8.4419,1.0554,-1.0554,-3.1653,-6.331,1.0554,6.331,7.3859,
44.3182,-3.1653,-5.2761,-10.5517,-1.0554,-3.1653,2.1103,1.0554,3.1663,4.2212,-2.1103,-3.1653,17.9381,15.8283,
36.9312,-5.2766,0,-11.6071,6.3305,-13.718,-2.1108,-5.2766,3.1648,0,0,-4.2207,9.4963,14.7719,
31.6556,-8.4414,0,-5.2756,10.5522,-7.3864,-7.3864,-6.3305,5.2756,4.2207,9.4963,0,7.3864,0,
28.4898,-6.3315,-10.5522,-9.4963,12.662,6.3305,-14.7729,-21.3305,1.0549,10.5512,2.1098,-1.0549,3.1658,-1.0549,
33.238,-2.6383,-11.0797,-6.859,20.5759,-0.52746,-10.0247,-36.3305,3.6932,10.0237,0.52746,-0.52746,4.7481,13.9451,
34.8209,-1.0554,-4.2202,-1.0554,18.9931,-8.4409,-7.3859,-44.3172,2.1103,1.0554,5.2761,-2.1103,2.1103,10.5517,
34.8214,0,2.1108,1.0549,10.5522,-3.1658,-11.6071,-42.2068,-4.2207,0,0,-1.0549,3.1658,7.3864,
38.5141,-4.7486,1.5829,-5.8036,3.6927,-6.8585,-6.8585,-45.9005,-1.5829,2.6378,2.6378,-1.5829,8.9693,17.4107,
35.3478,-0.52746,-10.0247,-13.1895,8.9688,-16.3553,-4.7481,-36.4038,0.52746,5.8031,8.9688,-3.6932,12.1346,19.521,
20.3478,-4.7481,-21.6309,-19.521,0.52746,-23.7417,-8.9688,-33.238,3.6932,4.7481,2.6383,-0.52746,13.1895,7.9139,
10.5522,-11.6071,-18.9926,-14.7719,-4.2207,-15.8278,-5.2756,-39.041,7.3864,5.2766,4.2207,9.4973,18.9936,10.5522,
12.1351,-14.2449,-22.6863,-23.7412,-1.5829,-12.1341,-10.0242,-38.5141,1.5829,3.6937,5.8036,6.8585,14.2449,12.1351,
5.8041,-17.4102,-26.9065,-36.4038,-0.52746,-17.4102,-11.0797,-34.2929,1.5834,2.6383,7.9139,0.52746,13.1895,7.9139,
-0.52746,-14.2444,-24.7966,-22.6858,0.52746,-11.0797,-5.8031,-34.2929,8.9688,5.8041,11.0797,8.9688,19.521,14.2454,
-5.2756,-13.717,-21.1034,-7.6858,2.1108,-5.2756,-2.1108,-32.7105,16.8827,11.6071,18.9936,14.7729,20.0485,17.9376,
-7.3864,-23.2142,-11.6071,-14.7729,5.2756,-17.9386,-4.2207,-34.8214,4.2207,5.2756,13.717,9.4963,12.662,12.662,
3.6927,-20.5764,-3.6927,-16.3558,10.0242,-21.6314,-3.6927,-37.4592,-8.9693,3.6927,4.7486,4.7486,12.1341,15.2998,
7.3864,-13.717,-10.5522,-14.7729,8.4414,-17.9376,-3.1658,-37.9861,0,6.3315,13.717,0,16.8827,11.6071,
2.6378,-12.1351,-11.0802,-12.1351,12.1341,-11.0802,-8.9693,-38.5141,-2.6378,2.6378,14.2449,4.7476,12.1341,14.2449,
7.3859,-11.6066,3.9198,-1.0554,14.7724,-5.2761,-9.4968,-41.1514,-11.6066,-2.1103,1.0554,4.2212,8.4419,18.9931,
8.4414,-4.2207,2.1098,0,6.3305,-9.4973,-5.2766,-35.8763,0,0,-5.2766,-2.1108,16.8827,10.5512,
4.2207,-1.0549,-3.1648,-3.1648,12.662,-7.3854,-11.6071,-30.5997,6.3315,0,0,4.2207,20.0485,10.5522,
1.5829,-11.0792,0.52796,-6.8585,24.7961,0.52796,-10.0242,-36.4032,-1.5829,-0.52796,-1.5829,4.7486,13.19,17.4107,
-4.7481,-4.7481,7.9139,-2.6383,22.6858,5.8031,-0.52746,-25.8515,0.52746,8.9688,-4.7481,-2.6383,13.1895,14.2444,
-19.7481,-1.5829,4.7486,-8.9693,14.2449,-4.7486,-4.7486,-21.6314,1.5829,8.9693,4.7486,-6.8585,15.2998,8.9693,
-14.2454,-7.9139,-1.5824,-6.859,21.6309,-2.6383,-13.1895,-26.9075,1.5824,4.7481,5.8031,1.5824,12.1346,18.4651,
0.75457,-4.7481,-3.6932,0.52746,31.1271,6.858,-18.4661,-32.1831,-1.5834,-0.52746,-9.1969,0.52746,3.6932,19.52,
4.2207,-4.2207,6.3315,-7.3854,30.6007,0,-4.2207,-30.5997,0,1.0559,-11.6071,-9.4963,15.8278,11.6071,
-1.0549,-7.3864,4.2207,-11.6071,32.7105,-4.2207,2.1108,-31.6556,-4.2207,1.0549,3.3929,-14.7729,16.8827,5.2756,
0.52796,0.52796,-4.7486,-5.8036,31.1276,5.8036,-11.0792,-33.2385,-6.8585,-0.52796,4.7486,-7.9134,10.0242,11.0792,
2.1098,2.1098,0,0,29.5448,8.4414,-10.5522,-36.9312,-3.1658,-2.1108,-7.3864,-8.4414,9.4963,14.7719,
10.5522,0,4.2207,7.3864,31.6556,7.3864,-2.1098,-34.8204,-8.4414,-7.3854,-11.6061,-13.717,0,2.1108,
20.5764,3.6927,1.5829,8.9693,29.0178,13.19,-4.7486,-27.9619,-10.0242,-11.0792,-16.3548,-2.6378,-1.5829,3.6927,
21.6319,0.52746,-0.52746,4.7481,19.521,10.0247,-11.0787,-33.238,-12.1346,-12.1346,-19.52,-4.7481,1.5834,18.6927,
19.5205,-0.52796,10.0242,4.7486,13.19,-1.5829,-0.52796,-32.1826,-3.6927,0.52796,-6.8585,-10.0242,11.0792,20.5754,
6.8585,-0.52796,4.7486,3.6927,-1.81,-13.19,3.6927,-35.3483,3.6927,-0.52796,0.52796,-3.6927,13.19,5.5754,
12.6615,7.3859,2.1103,12.6615,-5.2761,1.81,-7.3869,-27.4354,-5.2761,-11.6076,-3.1663,2.1103,7.3859,-2.1103,
21.1034,2.1098,8.4414,13.717,0,16.81,-10.5522,-21.1034,-11.6071,-11.6071,-7.3864,-7.3864,2.1098,0,
8.9688,3.6932,14.2454,3.6932,-11.0787,29.0173,-3.6932,-26.9065,-5.8031,0.52746,-4.7481,-4.7481,10.0247,-0.52746,
2.1103,6.331,9.4968,-3.1653,-15.8273,36.9317,-4.2202,-22.1588,-3.1653,-5.2761,-2.1103,2.1103,17.9381,14.4725,
2.6383,-2.6373,3.6932,-5.8031,-14.2444,43.7902,-6.858,-14.2444,-0.52746,-13.1895,1.5834,0.52746,17.4102,29.4725,
-11.0792,-6.8585,3.6927,-11.0792,-29.2444,43.7897,-8.9693,-13.19,2.6378,-2.6378,13.19,6.8585,19.5205,27.9619,
-18.4661,-4.7481,1.5824,-5.8041,-41.6794,38.5136,-3.6932,-8.9688,-1.5824,2.6383,21.6309,10.0237,24.7966,23.7417,
-3.4661,3.1648,3.1648,6.3305,-26.6794,40.096,-3.1658,-5.2766,-15.8278,-3.1658,6.6309,0,17.9376,23.2132,
1.5829,1.5829,11.0792,5.8036,-22.6863,37.4582,-10.0242,-12.1351,-19.5215,-7.9144,-8.3691,-1.5829,7.9134,18.4656,
3.1653,-4.2202,15.8273,2.1103,-33.766,31.6551,-3.1653,-8.4419,-4.5215,-2.1103,-3.1653,9.4968,22.1588,15.8273,
0,-1.0549,8.4414,6.3305,-33.7654,24.2692,-6.3315,-12.662,-5.2766,-1.0549,0,3.1658,24.2692,17.9376,
-1.0554,9.4968,6.331,13.7175,-25.3246,30.6002,-9.4968,-26.3795,-10.5517,1.0554,-12.6625,-2.1103,13.7175,18.9931,
-0.52796,3.6927,8.9693,11.0792,-33.2385,34.2934,-12.1341,-25.852,-8.9693,-2.6378,0.52796,-0.52796,8.9693,6.8585,
-2.6378,2.6378,7.9134,7.9134,-39.569,30.0727,-14.2449,-23.7422,-12.1351,-7.9144,2.6378,-6.8585,12.1341,4.7476,
-4.2202,8.4419,8.4419,13.7175,-28.4893,35.8758,-4.2202,-27.4344,-8.4409,1.0554,-4.2202,-1.0554,20.048,15.8273,
-5.8036,-1.5829,1.5829,7.9134,-25.852,33.2385,-8.9693,-32.1826,-2.6378,-4.7486,2.6378,3.6927,15.2998,8.9693,
-0.52746,-0.52746,3.6932,0.52746,-31.1271,32.1831,-10.0237,-30.0722,7.9139,-2.6373,14.2454,-0.52746,16.3553,4.7481,
-3.1653,-1.0554,5.2761,-3.1653,-36.9317,28.4893,-9.4968,-32.711,6.331,1.0554,4.2202,-3.1653,12.6615,8.4409,
-8.4414,-5.2766,0,3.1648,-34.8214,31.6546,-14.7729,-32.7105,0,-1.0559,0,3.1648,8.4414,13.717,
-7.3869,-2.1103,-3.1663,6.331,-31.6561,34.8209,-16.8832,-29.5453,4.2202,-3.1663,5.2751,2.1103,8.4409,13.7165,
-2.6378,4.7486,-3.6927,3.6927,-33.2385,31.1276,-18.4656,-26.907,1.5829,-1.5829,-0.52796,0.52796,3.6927,14.2449,
0,-2.1108,-4.2207,-4.2207,-31.6556,36.9312,-14.7729,-25.3241,0,2.1098,4.2207,6.3305,4.2207,16.8827,
-1.0549,-10.5522,-3.1658,-5.2756,-23.2142,47.4824,-9.4963,-28.4898,2.1098,1.0549,11.6071,2.1098,7.3864,14.7719,
4.2207,-1.0549,0,8.4414,-18.9936,42.2068,-15.8278,-33.7654,-5.2756,-1.0549,4.2207,0,8.4414,8.4414,
9.4963,1.0549,-3.1658,13.717,-31.6556,30.5997,-16.8827,-37.9861,-5.2756,-2.1108,-1.0549,3.1658,11.6071,7.3864,
7.3859,4.2202,-7.3859,5.2761,-31.6551,34.8209,-12.6625,-30.6002,-4.2212,-2.1103,-1.0554,1.0554,7.3859,10.5517,
12.1341,2.6378,-1.5829,2.6378,-29.0178,38.5141,-18.4656,-22.6863,-8.9693,-10.0242,3.6927,-1.5829,1.5829,3.6927,
10.5517,-8.4409,5.2761,3.1653,-44.0178,31.6551,-11.6066,-27.4344,-2.1103,-8.4409,7.3859,2.1103,12.6625,-2.1103,
4.2212,-4.2202,2.1103,-7.3859,-53.8139,31.6551,-3.1653,-31.6551,-3.1653,-1.0554,4.2212,1.0554,13.7175,5.2761,
7.9134,-1.5829,-0.52796,-10.0242,-38.8139,39.569,-1.5829,-29.0178,-7.9134,1.5829,7.9134,0.52796,14.2449,20.2761,
1.0554,-14.7724,-6.331,2.1103,-53.8139,32.711,-15.8273,-27.4344,-4.2202,-1.0554,10.5517,5.2761,15.8273,27.4344,
-2.1103,-18.9931,-8.4419,6.331,-68.8139,25.3236,-25.3246,-26.3795,-2.1103,2.1103,2.1103,5.2761,13.7175,13.7175,
12.8897,-10.0237,0.52746,-4.7481,-53.8139,29.0173,-15.3003,-21.6309,-7.9139,5.8031,-0.52746,2.6383,12.1346,5.8031,
27.8897,-14.7724,1.0554,-14.7724,-38.8139,14.0173,-14.7724,-31.6551,-21.1039,-5.2761,3.1653,-1.0554,9.4968,1.0554,
30.0722,-17.4102,2.6383,-8.9688,-23.8139,-0.98269,-1.5824,-34.2929,-7.9139,0.52746,10.0237,-0.52746,19.521,3.6932,
36.9312,-8.4414,1.0549,-11.6071,-8.8139,-10.5522,3.1658,-31.6556,-1.0549,3.1658,-4.9763,-3.1658,17.9376,7.3864,
46.9555,5.8036,2.6378,-13.19,6.1861,4.4478,-2.6378,-31.1276,-11.0792,-5.8036,-17.4107,-3.6937,16.3548,4.7476,
44.3172,9.4968,4.2212,-2.1103,21.1861,-2.1103,6.331,-30.6002,-14.7724,-9.4968,-2.4107,-4.2202,22.1588,-2.1103,
38.5141,-2.6378,2.6378,6.8585,36.1861,-5.8036,5.8036,-33.2385,-19.5215,-12.1351,3.6927,-6.8585,12.1341,-2.6378,
39.569,-10.0242,3.6927,-5.8036,51.1861,9.1964,4.7476,-33.2385,-13.19,-2.6378,-3.6937,-2.6378,11.0792,2.6378,
36.9317,-7.3859,2.1103,-20.8036,41.1524,-1.0554,1.0554,-34.8209,-5.2761,4.2212,-4.2202,-4.2202,17.9381,1.0554,
30.6002,-4.2202,3.1653,-15.8273,32.71,-8.4419,-1.0554,-27.4344,-2.1103,8.4419,-5.2761,1.0554,16.8832,6.331,
25.8515,-16.3553,2.6383,-2.6383,21.6309,-10.0237,-2.6383,-29.0173,-2.6383,4.7481,-7.9139,3.6932,12.1346,5.8031,
39.041,-10.5522,8.4414,8.4414,30.5997,-14.7729,-4.2207,-32.7105,0,-2.1108,-8.4414,1.0549,8.4414,0,
47.4824,0,11.6071,5.2756,34.8204,-17.9386,-4.2207,-34.8214,5.2756,0,-6.3315,-6.3315,6.3305,-2.1108,
42.7343,-4.7481,0.52746,-9.7244,19.8204,-15.3003,-0.52746,-31.1282,6.859,8.9688,-1.5824,-11.0797,14.2444,5.8031,
38.5141,-7.9134,-14.4725,-23.7412,7.9144,-16.3548,-1.5829,-25.852,1.5829,7.9144,6.8585,-10.0242,19.5205,10.0242,
35.8758,-9.4968,-22.1588,-24.2687,6.331,-25.3236,-2.1103,-30.6002,6.331,4.2212,9.4968,-12.6615,21.1039,2.1103,
37.4582,-2.6378,-7.1588,-13.19,17.4107,-17.4107,5.8036,-29.0178,8.9693,5.8036,-2.6378,-18.4656,20.5754,1.5829,
41.1519,0,0,-4.2207,16.8827,-14.7729,6.3305,-26.38,-2.1108,3.1658,-5.2756,-11.6071,14.7719,3.1658,
45.3726,-8.4414,-13.717,-9.4963,1.8827,-25.3241,0,-27.4339,0,9.4973,6.3315,3.3929,21.1034,7.3864,
33.7654,-15.8278,-22.1583,-24.4963,-3.1658,-30.5997,1.0549,-26.379,4.2207,10.5522,7.3864,-1.0549,24.2692,10.5522,
18.7654,-25.852,-23.7412,-39.4963,2.6378,-35.3483,3.6927,-30.0727,1.5829,-1.5829,2.6378,-10.0242,19.5205,5.8036,
21.1029,-28.4904,-26.3795,-51.7041,3.1653,-33.766,1.0554,-33.766,-5.2761,6.331,-1.0554,4.9758,15.8273,7.3859,
36.1029,-14.7724,-16.8832,-36.7041,11.6066,-18.9931,2.1103,-21.1039,-6.331,16.8822,-2.1103,16.8822,16.8822,11.6066,
51.1029,0.22762,-1.8832,-21.7041,26.6066,-3.9931,2.1103,-18.9931,-10.5517,1.8822,-4.2202,1.8822,7.3869,-3.1653,
66.1029,15.2276,13.1168,-6.7041,38.5136,4.7481,-4.7481,-33.9931,-13.1895,-13.1178,-5.8041,-4.7481,-0.52746,0.52746,
58.5621,0.52746,5.8041,3.6932,23.5136,-10.2519,-15.2993,-48.0099,-16.3553,-6.858,-7.9139,4.7481,-0.52746,13.1895,
43.5621,-5.8041,0.52746,-0.52746,8.5136,-24.7966,-1.5824,-33.0099,-7.9139,8.142,7.0861,14.2444,14.4725,16.3553,
43.7897,-5.8036,5.8036,-3.6927,-6.4864,-22.6863,0.52796,-24.7971,-7.9144,5.8036,15.2998,6.8585,21.6314,1.3553,
58.7897,-5.2756,13.718,-1.0549,5.2766,-10.5512,0,-37.9861,-9.4963,0,5.2766,-8.1415,20.0485,0,
65.949,1.5829,17.4107,5.8036,14.2449,-5.8036,-1.5829,-37.4582,-19.5205,-4.7476,-3.6927,-15.2998,11.0792,3.6937,
51.7041,2.1108,10.5522,0,10.5522,-6.3305,0,-31.6556,-13.717,-3.1658,-6.3305,-12.662,10.5522,0,
47.4829,-4.2202,5.2761,-12.6615,13.7175,-7.3859,3.1663,-25.3236,-6.331,2.1103,-2.1103,-4.2202,14.7724,5.2761,
40.6244,-13.1905,7.9139,-19.521,18.4651,-21.6319,0.52746,-24.7966,-13.1905,0.52746,-4.7491,-0.52746,21.6309,5.8031,
44.3172,-11.6066,15.8273,-13.7175,27.4344,-27.4344,9.4968,-29.5453,-9.4968,4.2212,-6.331,-4.2212,30.6002,5.2761,
50.1212,-3.6927,17.4107,-2.6378,27.9619,-18.4656,2.6378,-34.2934,-10.0242,4.7486,-8.9693,-8.9693,17.4107,4.7486,
49.0658,-2.6383,17.4102,0.52746,15.2993,-13.1905,-0.52746,-30.0732,-3.6932,7.9139,-2.6383,-5.8041,13.1895,6.858,
38.5141,-15.2998,11.0792,-13.19,4.7486,-24.7971,3.6927,-30.0727,-3.6927,4.7486,-3.6927,-8.9693,14.2449,3.6927,
41.1519,-22.1593,9.4963,-16.8827,17.9376,-23.2142,3.1658,-36.9312,-11.6071,0,0,-12.662,9.4963,0,
56.1519,-9.4963,9.4963,-2.1098,22.1583,-10.5512,1.0549,-37.9861,-8.4414,-1.0549,9.4963,-10.5512,11.6071,1.0549,
61.7283,5.5037,1.5829,5.8036,7.9144,-2.6378,-12.1341,-32.1826,-3.6927,-1.5829,-4.7476,-8.9683,15.2998,2.6378,
46.7283,5.8036,0.52796,2.6378,2.6378,-4.7486,-10.0242,-32.1826,-5.8036,1.5829,-14.2449,-20.5764,16.3548,-0.52796,
40.6244,0.52746,8.9688,0.52746,12.1346,-6.859,-0.52746,-30.0732,-8.9698,10.0237,-5.8041,-22.6868,17.4102,-0.52746,
55.6244,5.8036,12.1341,-2.6378,11.0792,-2.6378,-0.52796,-21.6314,-6.8585,0.52796,-8.9693,-10.0242,16.3548,5.8036,
70.1692,2.6383,7.9139,-1.5824,0.52746,-0.52746,4.7481,-25.8515,-8.9688,-14.472,-14.2454,-15.3003,20.5759,4.7481,
59.0895,0,2.1098,6.3305,1.0549,-2.1108,0,-34.8214,-20.0485,-15.8278,-15.8278,-21.1034,17.9376,0,
56.9787,3.1648,0,6.3305,3.1648,-1.0559,-10.5522,-29.5458,-16.8837,-0.82781,-11.6071,-13.718,6.3305,3.1648,
58.5626,5.8036,5.8036,-4.7476,2.6378,-5.8036,-5.8036,-23.7412,-7.9134,4.7486,-2.6378,-3.6927,3.6937,12.1351,
50.6482,-3.1658,6.3305,-15.8278,10.5512,-13.718,1.0549,-29.5458,-13.718,0,0,-9.4973,10.5512,8.4414,
41.6799,-16.3558,4.7486,-13.19,20.5754,-12.1341,0.52796,-34.2934,-11.0792,-0.52796,0.52796,-12.1341,16.3548,0.52796,
39.0421,-9.4963,4.2207,0,13.718,-11.6061,0,-32.7105,-1.0549,-2.1098,4.2207,-2.1098,12.662,7.3864,
31.6551,-5.2761,-1.0554,-2.1103,3.1653,-25.3246,1.0554,-33.766,-3.1653,-2.1103,10.5517,2.1103,13.7175,9.4968,
35.8763,-12.662,1.0549,-4.2207,12.662,-25.3241,-1.0549,-29.5448,-6.3315,7.3864,11.6071,-2.1108,23.2132,4.2207,
32.71,-9.4968,2.1103,2.1103,13.7175,-10.5517,-7.3859,-27.4344,-10.5517,2.1103,-2.1103,-6.331,21.1039,4.2212,
17.71,-1.5829,5.8036,6.8585,1.5829,-10.0242,2.6378,-26.907,-2.6378,-6.8585,-3.6927,-6.8585,20.5764,8.9693,
4.2202,-1.0554,1.0554,6.331,1.0554,-16.8832,3.1653,-30.6002,-8.4419,-9.4968,-2.1103,-10.5517,15.8273,1.0554,
16.3553,-0.52746,1.5834,4.7481,16.0554,-1.8832,-0.52746,-30.0722,-19.521,-5.8031,-2.6373,-8.9688,16.3553,1.5834,
18.9931,-2.1103,15.8273,6.331,9.4968,-4.2212,-1.0554,-24.2697,-17.9381,1.0554,-2.1103,-3.1653,22.1588,9.4968,
7.3859,-2.1103,23.2137,20.048,-5.5032,-19.2212,-4.2212,-23.2137,-16.8832,5.2761,-2.1103,2.1103,22.1588,9.4968,
14.7719,0,18.9926,25.3241,-17.9386,-7.3864,0,-26.38,-10.5522,9.4963,0,0,24.2692,7.3864,
5.8036,-7.9144,4.7486,10.3241,-3.6927,7.6136,-3.6927,-24.7971,-12.1351,3.6927,-3.6927,-8.9693,18.4656,7.9134,
-9.1964,-8.4409,9.4968,-2.1103,-18.6927,22.6136,-2.1103,-13.7175,-6.331,4.2212,6.331,2.1103,24.2697,22.9134,
-24.1964,-15.8273,5.2761,-2.1103,-33.6927,33.766,-11.6066,-28.4893,-12.6625,2.1103,2.1103,2.1103,16.8832,8.4419,
-28.4898,-0.8273,6.3315,12.662,-48.6927,48.766,-18.9926,-29.5448,-16.8827,11.6071,-8.4414,0,10.5522,1.0559,
-33.238,3.6932,15.2993,16.3553,-63.6927,63.766,-15.3003,-24.7966,-17.4112,5.8031,-8.9688,-3.6932,8.9688,11.0787,
-33.7654,4.2207,14.7719,15.8278,-78.6927,70.6967,-17.9386,-23.2142,-17.9386,4.2207,-7.3864,-4.2207,9.4963,11.6071,
-32.7105,6.3305,14.7719,16.8827,-85.4695,72.8075,-18.9936,-21.1034,-17.9386,3.1658,-5.2756,-3.1658,9.4963,12.662,
-31.1277,7.9144,15.2998,17.4107,-78.6106,74.3904,-19.5205,-18.4656,-17.4107,2.6378,-2.6378,-2.6378,10.0242,14.2449,
-31.1276,8.9693,15.2998,18.4656,-71.2241,76.5002,-20.5754,-16.3548,-17.4107,1.5829,-1.5829,-1.5829,11.0792,15.2998,
-30.6007,9.4963,14.7719,17.9376,-64.3661,77.0282,-23.2142,-14.7729,-17.9386,0,0,-2.1108,11.6071,15.8278,
-29.5453,10.5517,13.7165,18.9931,-58.0351,78.0826,-26.3795,-12.6625,-18.9941,-3.1663,2.1103,-2.1103,11.6066,17.9371,
-36.4043,15.2998,3.6927,8.9683,-68.0594,78.6101,-30.0727,-6.8585,-19.5215,-1.5829,-5.8036,1.5829,13.189,25.851,
-30.0722,15.3003,5.8031,16.3553,-67.0039,80.7214,-17.4102,-8.9688,-13.1895,5.8031,-5.8031,-6.859,8.9688,18.4651,
-34.8209,13.7165,2.1103,31.3553,-61.2009,88.6348,-13.7175,-6.331,-12.6625,8.4409,-2.1103,-4.2212,5.2751,21.1029,
-38.5141,10.0242,-5.8036,24.7971,-62.7833,87.0524,-21.6314,-13.19,-17.4107,-2.6378,2.6378,2.6378,6.8585,16.3548,
-40.097,10.5512,-2.1108,9.7971,-72.8075,72.0524,-23.2142,-13.718,-8.4414,0,11.6061,0,12.662,5.2756,
-53.8139,1.0554,-4.2202,-5.2029,-82.3038,57.0524,-13.7175,-9.4968,-1.0554,8.4419,16.8832,2.1103,11.6066,8.4419,
-52.759,-4.2212,-7.3869,-1.0554,-80.1934,49.5928,-2.1103,-5.2761,1.0554,12.6615,25.3236,9.4968,20.048,12.6615,
-57.5072,2.6383,-10.0237,-0.52746,-78.6106,46.955,-17.1103,-6.859,-13.9446,4.7481,13.1895,0.52746,20.5759,3.6932,
-62.7833,11.0792,-11.0792,5.8036,-74.3899,51.1761,-25.852,-11.0792,-21.6314,1.5829,4.7486,-1.5829,16.3548,15.2998,
-47.7833,8.9688,-10.0237,16.3553,-62.7833,57.5072,-15.3003,-8.9688,-16.3553,-1.5824,5.8031,1.5824,16.3553,20.5759,
-32.7833,9.4958,4.2202,29.5443,-50.6487,61.1999,-8.4419,-2.1103,-17.9381,-2.1103,2.1103,-4.2212,17.9371,13.7165,
-24.7966,15.3003,19.2202,38.5146,-40.6244,61.7278,-2.6373,-2.6373,-17.4102,-0.52746,0.52746,-6.858,20.5759,15.3003,
-10.5522,23.2132,34.2202,48.5383,-27.4349,74.9173,0,-11.6071,-24.2692,-4.2207,0,-2.1108,21.1034,17.9376,
-5.2766,23.2132,37.9861,49.5933,-23.2142,81.2479,0,-8.4414,-25.3251,0,-1.0559,-2.1108,21.1034,20.0475,
-20.2766,10.0247,22.9861,34.5933,-31.1271,69.1143,-6.858,-1.5824,-18.4651,0.52746,-0.52746,-0.52746,22.6868,25.8515,
-35.2766,2.1103,8.4409,27.4344,-43.2622,58.0341,-16.8832,-6.331,-23.2137,-5.2761,2.1103,-2.1103,12.6615,16.8822,
-35.8758,9.4968,23.4409,29.5453,-42.2073,58.0351,-13.7175,-11.6066,-24.2687,-1.0554,1.0554,-5.2761,11.6066,11.6066,
-30.0727,16.3548,23.7412,22.6863,-27.2073,63.8382,-10.0242,-11.0802,-16.3558,1.5829,-6.8585,-1.5829,21.6304,24.7961,
-31.1276,6.8585,8.7412,16.3548,-24.7971,61.7273,-13.19,-5.8036,-13.19,-0.52796,2.6378,-0.52796,23.7412,22.6863,
-31.1276,8.9693,-2.6378,20.5754,-38.5141,56.4517,-10.0242,-0.52796,-15.2998,0.52796,14.2449,-0.52796,21.6314,11.0792,
-45.3721,22.1588,3.1653,23.2137,-41.1514,59.09,-12.6625,-4.2202,-20.048,1.0554,-0.75508,-2.1103,20.048,18.9931,
-52.2316,11.0792,-0.52796,13.19,-35.3483,55.3968,-8.9693,-7.9144,-12.1351,3.6927,0.52796,-0.52796,20.5754,21.6314,
-47.4824,0,0,4.2207,-41.1519,43.2627,-9.4963,-15.8278,-17.9376,0,2.1108,-3.1658,9.4963,7.3864,
-32.4824,14.2444,15,19.2207,-29.0173,52.2306,-7.9139,-11.0797,-22.6868,-0.52746,-0.52746,0.52746,14.2444,15.2993,
-23.2137,11.6066,15.8273,20.048,-16.8832,51.7036,-2.1103,-13.7175,-23.2137,-3.1653,2.1103,-2.1103,18.9931,21.1029,
-30.0722,6.859,3.6932,12.1346,-17.4102,48.0109,-5.8031,-12.1346,-23.7417,-3.6932,3.6932,-5.8031,8.9688,8.9688,
-28.4898,5.2756,2.1108,12.662,-24.2692,51.7041,-9.4963,-12.662,-18.9936,1.0549,-1.0549,-3.1658,10.5522,14.7729,
-32.7105,-5.2756,6.3315,11.6071,-36.9312,39.0421,-2.1098,-17.9376,-14.7719,0,0,0,14.7729,27.4349,
-41.1519,-14.7729,6.3305,-2.1108,-44.3177,24.2692,0,-11.6071,-13.718,0,3.1658,4.2207,15.8278,13.717,
-33.7654,-8.4414,9.4963,-2.1098,-52.759,32.7105,0,-6.3315,-11.6071,6.3315,5.2756,4.2207,23.2142,0,
-26.3795,3.1653,3.1653,10.5517,-54.8694,41.1514,-7.3859,-16.8832,-21.1039,-1.0554,1.0554,-1.0554,15.8273,4.2202,
-30.0722,6.859,-3.6932,12.1346,-44.8451,42.7343,-14.2454,-15.3003,-18.4661,-4.7481,3.6932,3.6932,13.1895,17.4102,
-34.8204,-1.0549,-8.4414,3.1658,-46.4275,40.097,-22.1583,-4.2207,-15.8278,1.0549,6.3315,2.1108,17.9376,14.7729,
-21.1034,4.2207,-3.1658,6.3315,-54.8694,46.4275,-16.8827,-1.0549,-20.0485,1.0549,5.2756,-1.0549,20.0485,11.6071,
-14.7724,4.2212,3.1653,10.5517,-50.6487,48.5378,-11.6066,-12.6615,-28.4893,-9.4968,1.0554,-1.0554,13.7175,10.5517,
-22.1588,-1.0554,2.1103,7.3859,-42.2073,43.2622,-16.8822,-13.7175,-30.6002,-10.5517,2.1103,1.0554,9.4968,14.7724,
-27.9624,-3.6932,-0.52746,0.52746,-48.0099,31.1282,-8.9688,-6.858,-18.4651,2.6383,13.1895,5.8041,19.521,24.7966,
-17.9386,-3.1658,1.0549,-1.0549,-46.4275,28.4898,-8.4414,-7.3864,-16.8827,5.2756,8.4414,3.1658,21.1034,24.2692,
-2.9386,3.1653,10.5517,4.2202,-31.6551,43.4898,-16.8832,-11.6066,-25.3246,-6.331,-4.2212,1.0554,10.5517,22.1588,
-1.5829,10.0242,17.4107,3.6937,-36.4032,52.2311,-6.8585,-5.8036,-15.2998,-5.8036,-2.6378,1.5829,16.3558,23.7412,
-16.5829,5.8036,8.9693,-1.5829,-51.1761,37.2311,-3.6927,-1.5829,-10.0242,2.6378,1.5829,-4.7486,23.7412,21.6314,
-20.0485,-2.1108,11.6071,-2.1108,-42.2073,22.2311,-5.2766,0,-7.3864,6.3305,15.8278,0,28.4898,13.717,
-13.7175,-3.1653,13.7175,-3.1653,-37.9866,30.6002,-9.4968,-1.0554,-6.331,1.0554,23.2137,8.4419,27.4344,11.6066,
-18.4656,-1.5829,3.6927,-5.8036,-42.7348,41.6789,-17.4107,-8.9693,-11.0802,1.5829,14.2449,6.8585,17.4097,23.7412,
-13.19,0.52796,10.0242,-3.6927,-40.6239,48.0104,-15.2998,-6.8585,-5.8036,3.6927,17.4107,-0.52796,16.3548,22.6863,
-5.8036,3.6927,25.0242,6.8585,-31.1276,44.8446,-15.2998,-3.6927,-10.0242,-5.8036,10.0242,-4.7486,12.1341,7.6863,
-8.9693,1.5829,23.7412,10.0242,-18.4656,34.2934,-14.2449,-13.19,-19.5215,-6.8585,-1.5829,1.5829,7.9134,1.5829,
-16.3558,-3.6937,11.0792,-2.6378,-27.9629,35.3483,-10.0242,-10.0242,-14.2449,4.7476,2.6378,7.9134,16.3548,14.2449,
-15.3003,-3.6932,6.859,-12.1346,-37.4587,49.0658,-14.2454,-0.52746,-7.9139,0.52746,0.52746,7.9139,18.4651,24.7966,
-0.30035,4.7481,21.859,-2.6383,-24.7966,57.5072,-8.9688,-0.52746,-7.9139,-6.859,-1.5834,4.7481,20.5759,31.1271,
14.6997,15.8278,36.859,1.0549,-9.7966,56.9797,-1.0549,-6.3315,-20.0485,-8.4414,-1.0549,-1.0549,16.8827,23.2132,
21.6309,13.1895,35.3488,-5.8031,-1.5824,54.3414,0.52746,-4.7481,-17.4102,-0.52746,-3.6932,-1.5824,8.9688,13.1895,
8.4414,-1.8105,20.3488,-14.7729,-16.5824,44.3177,-4.2207,-3.1658,-9.4963,2.1098,1.0549,-1.0549,8.4414,13.717,
0,-6.3305,5.3488,-14.7729,-31.5824,42.2068,-10.5522,0,-11.6071,1.0549,12.662,-1.0549,16.8827,16.8827,
-0.52746,5.8031,16.3553,-12.1346,-34.2929,41.6794,-7.9139,-2.6383,-16.3553,0.52746,12.1346,-5.8031,14.2444,7.9139,
14.4725,14.7729,31.3553,2.8654,-24.2692,49.5933,-5.2756,-7.3854,-15.8278,-3.1648,0,-6.3305,0,8.4414,
25.3246,20.048,29.5453,17.8654,-21.1039,60.145,-9.4968,-3.1653,-10.5517,-10.5517,-1.0554,-3.1653,1.0554,17.9381,
10.3246,7.3859,14.5453,2.8654,-28.4893,49.5938,-9.4968,-10.5517,-18.9931,-18.9931,3.1653,-5.2761,4.2212,10.5517,
-1.5829,7.9134,1.5829,-12.1346,-34.2934,40.6239,-3.6927,-8.9693,-19.5205,-5.8036,8.9693,4.7486,12.1341,18.4656,
-2.6383,5.8031,-5.8031,-18.4661,-49.2934,36.4038,-10.0247,-3.6932,-14.2454,2.6383,4.7481,4.7481,16.3553,25.8515,
2.6378,7.9144,-8.9683,-3.4661,-45.8995,51.4038,-8.9683,-5.8036,-18.4656,-4.7476,2.6378,2.6378,5.8036,22.6863,
13.717,12.662,-1.0549,0,-30.8995,62.2553,-5.2756,-9.4963,-30.6007,-13.717,8.4414,8.4414,0,17.9376,
-1.283,4.7476,1.5829,-12.1351,-43.7897,47.2553,-5.8036,-1.5829,-19.5215,-6.8585,21.6304,12.1341,15,21.6304,
-16.283,-6.3315,-1.0549,-17.9376,-53.8139,35.8763,-2.1098,6.3315,-7.3864,1.0549,23.2142,9.4963,22.1583,30.5997,
-1.283,-8.9688,1.5824,-25.8515,-38.8139,35.3488,6.859,-4.7481,-12.1346,-11.0797,18.4651,0.52746,13.1895,24.7966,
3.6927,-8.9693,2.6378,-36.4043,-23.8139,20.3488,-2.6378,-15.2998,-21.6314,-19.5205,15.2998,-7.9144,11.0792,12.1341,
1.0554,-8.4419,8.4409,-26.3795,-8.8139,5.3488,-4.2212,-1.0554,-13.7175,-4.5205,20.048,1.0554,22.1588,20.048,
0.52746,-8.9688,6.858,-21.6319,6.1861,-9.6512,4.7481,-3.6932,-19.521,-6.859,8.9688,-0.52746,18.4651,16.3553,
-1.0554,6.0312,16.8832,-14.7724,21.1861,3.1653,1.0554,-15.8273,-31.6551,-16.8822,-6.0312,-8.4409,6.331,9.4968,
0,8.4414,25.3241,0,28.4898,0,-4.2207,-14.7719,-24.2692,-8.4414,-11.6071,-5.2756,6.3315,15.8278,
2.1098,-6.3315,17.9376,0,14.7719,-15,-7.3864,-6.3315,-15.8278,0,-3.1658,1.0549,14.7719,21.1034,
12.1346,-0.52746,16.3553,-3.6932,29.7719,-16.3553,-6.859,-1.5834,-17.4112,-2.6383,2.6373,0.52746,22.6858,27.9614,
26.907,6.8585,19.5205,-6.8585,44.7719,-1.5829,1.5829,-8.9683,-13.19,-8.9683,-1.5829,-4.7476,19.5205,21.6314,
29.5453,9.4968,16.8832,-3.1653,44.3182,-2.1103,2.1103,-17.9381,-16.8822,-12.6615,-8.4409,-7.3859,7.3869,8.4419,
29.0173,11.0797,22.6868,0.52746,43.7902,-10.0237,-0.52746,-22.6858,-22.6858,-11.0787,-0.52746,-11.0787,6.859,12.1346,
31.6556,6.3315,27.4349,-3.1658,56.9797,-14.7719,1.0549,-25.3241,-25.3241,-15.8278,-1.0549,-20.0485,12.662,14.7729,
35.3488,12.1346,32.1831,-4.7481,61.7278,-4.7481,4.7481,-15.3003,-22.6858,-12.1346,-11.0787,-14.2444,14.2454,8.9688,
28.4904,6.331,27.4344,-16.8822,52.7585,-3.1653,3.1653,-15.8273,-18.9931,-7.3859,-7.3859,-6.331,8.4419,9.4968,
30.0727,6.8585,22.6863,-21.6314,53.286,-2.6378,-2.6378,-18.4656,-20.5764,-11.0792,1.5829,-1.5829,3.6927,24.4968,
31.6551,13.7175,20.048,-12.6625,52.7585,-2.1103,-5.2761,-12.6625,-18.9931,-11.6066,4.2202,-2.1103,2.1103,20.048,
24.7966,-0.52746,11.0797,-17.4102,39.5695,-8.9688,0.52746,-5.8031,-6.859,-5.8031,2.6383,-6.859,1.5824,13.1895,
22.6863,-8.9683,3.6937,-30.0727,33.2385,-14.2449,2.6378,-5.8036,-3.6927,-2.6378,3.6937,-5.8036,4.7486,24.7971,
26.3795,-2.1103,6.331,-25.3246,30.6002,-17.9381,2.1103,-11.6076,-9.4968,-5.2761,11.6066,-7.3869,12.6615,13.7165,
30.0727,1.5829,5.8036,-10.3246,25.852,-13.19,-1.5829,-6.8585,-14.2449,-6.8585,13.189,-6.8585,8.9683,1.5829,
29.0178,3.6927,3.6927,4.6754,20.5754,-4.7486,-1.5829,-1.5829,-14.2449,-5.8036,-1.811,0.52796,-0.52796,16.5829,
24.2687,6.331,-1.0554,-9.4968,15.8273,-10.5517,6.331,-12.6615,-13.7175,1.0554,-12.6615,-1.0554,4.2212,26.3795,
12.1346,2.6373,-5.8041,-19.521,1.5824,-25.5517,7.9139,-15.3003,-16.3553,0.52746,-0.52746,-3.6932,10.0237,11.3795,
2.1103,-7.3869,3.1653,-17.9381,-2.1103,-24.2697,12.6615,-2.1103,-6.331,-4.2212,13.7175,4.2202,15.8273,2.1103,
-1.5834,-6.859,7.9139,-20.5759,10.0237,-23.7417,11.0787,-0.52746,-5.8041,-4.7491,3.6932,0.52746,15.2993,14.2444,
5.8036,-1.5829,7.9144,-15.2998,8.9693,-25.852,12.1351,-1.5829,-14.2449,-6.8585,1.5829,-1.5829,18.4656,13.19,
3.1653,-9.4968,6.331,-13.7175,1.0554,-20.049,11.6066,-3.1653,-20.049,-16.8832,10.5517,-1.0554,14.7724,3.1653,
-0.52746,-4.7481,8.9688,-11.0797,16.0554,-5.049,8.9688,-2.6383,-15.3003,-11.0797,11.0797,0.52746,11.0797,8.9688,
3.1653,-5.2761,12.6625,-16.8832,31.0554,-3.1653,10.5517,-3.1653,-8.4409,-4.2202,5.2761,-3.1653,17.9381,12.6625,
2.1103,-7.3859,25.3236,-13.7175,23.2137,-16.8832,10.5517,-2.1103,-8.4419,-8.4419,5.2761,-2.1103,20.048,9.4968,
-12.8897,-2.6378,27.9619,-2.6378,8.2137,-25.852,5.8036,-1.5829,-13.19,-7.9134,1.5829,1.5829,15.2998,3.6927,
-22.6868,-0.52746,13.1895,-6.859,23.2137,-24.7966,6.859,-4.7481,-12.1346,-2.6383,1.5824,0.52746,19.521,5.8031,
-15.8278,1.0549,6.3315,-8.4414,33.7654,-18.9936,11.6071,-1.0549,-9.4963,-1.0549,5.2756,-2.1098,23.2142,10.5522,
-24.2692,-6.3305,6.3315,-7.3864,18.7654,-28.4898,11.6071,-1.0549,-8.4414,3.1658,4.2207,-3.1658,20.0485,7.3864,
-15.8283,-4.2212,18.9931,-4.2212,14.7724,-30.6002,16.8822,-2.1103,-2.1103,9.4968,2.1103,-6.331,22.1588,9.4968,
-0.82831,6.8585,33.2375,-1.5829,29.7724,-20.5764,18.4656,-4.7486,-7.9144,-1.5829,-4.7486,-21.331,23.7412,6.8585,
6.331,11.6066,33.766,-5.2761,44.7724,-20.049,13.7175,-4.2212,-16.8832,-14.7724,-1.0554,-25.3246,21.1029,1.0554,
16.3548,11.0792,24.7971,-15.2998,59.7724,-26.907,10.0242,-5.8036,-19.5205,-13.19,1.5829,-10.3246,10.0242,-1.5829,
31.3548,9.4968,30.6002,-17.9381,74.7724,-34.8209,24.2687,-8.4409,-12.6615,-1.0554,1.0554,-2.1103,8.4419,-5.2761,
38.5136,16.3553,45.6002,-7.9139,89.7724,-38.5136,35.3488,-5.8031,-10.0237,0.52746,-0.52746,-17.1103,16.3553,-4.7481,
51.1761,24.7961,40.6239,-10.0242,104.7724,-37.4592,25.851,-2.6378,-17.4107,-10.0242,-10.0242,-23.7422,17.4097,2.6378,
66.1761,24.2692,35.8763,-10.5522,119.7724,-31.6556,29.5448,-3.1658,-12.662,-8.4414,-8.4414,-15.8278,20.0485,3.1658,
58.0346,26.38,46.4275,3.1658,134.7724,-34.8204,33.7654,-8.4414,-20.0485,-9.4963,-3.1658,-14.7719,10.5522,-8.4414,
53.287,31.1276,50.1212,8.9693,141.9213,-37.4582,30.0727,-13.189,-26.907,-21.6304,-2.6378,-25.852,2.6378,-14.2449,
52.2311,24.7971,39.569,7.9134,142.9762,-34.2934,27.9619,-10.0242,-21.6314,-24.7971,-12.1341,-26.907,10.0242,-7.9134,
37.2311,17.9381,25.3246,3.1653,131.8965,-33.766,20.048,-10.5517,-24.2697,-18.9931,-21.1039,-11.907,7.3859,-3.1653,
22.2311,15.8278,21.1034,-5.2756,124.5106,-37.9861,26.38,-8.4414,-18.9936,-9.4963,-6.1039,-1.0549,7.3864,1.0549,
7.2311,3.6927,6.1034,-15.2998,115.5423,-52.2311,26.907,-12.1341,-16.3558,-8.9693,1.5829,-16.0549,14.2449,-0.52796,
6.3305,0,10.5512,-8.4414,107.6279,-44.3177,27.4339,-4.2207,-9.4973,-1.0549,0,-17.9386,24.2692,6.3305,
21.3305,6.8585,22.6863,-7.9134,96.5487,-41.6788,23.7412,-3.6927,-15.2998,-2.6378,-7.9134,-13.189,9.2692,2.6378,
23.2142,21.8585,33.7665,0,101.2974,-48.5373,26.38,-1.0549,-16.8827,-3.1648,-7.3854,-13.717,8.4414,0,
8.2142,10.5517,34.8209,-6.331,86.525,-63.5373,26.3795,-2.1103,-8.4419,-1.0554,-5.2761,-11.6066,23.2137,1.0554,
0,-4.4483,32.7095,-15.8278,71.7516,-65.4216,15.8268,0,-8.4424,1.0549,-4.2207,0,22.1583,4.2207,
-1.0549,0,32.7105,-16.8827,77.0282,-50.6482,10.5522,0,-16.8827,-2.1098,1.0549,-2.1098,12.662,3.1658,
3.1658,15,33.7654,-1.8827,83.3587,-44.3177,24.2692,-6.3315,-16.8827,-7.3864,0,-11.6071,11.6071,0,
18.1658,15.8268,31.6546,13.1173,81.2479,-46.4285,25.3241,-15.8278,-26.38,-13.718,-15,-14.7729,4.2207,-4.2207,
29.5448,10.5522,29.5448,12.662,89.6902,-41.1519,22.1593,-13.717,-25.3241,-10.5512,-23.2132,-15.8278,4.2207,-4.2207,
25.3241,16.8827,29.5448,3.1658,103.4072,-33.7654,17.9376,-6.3305,-18.9926,-6.3305,-8.2132,-13.717,5.2756,-3.1658,
22.6858,15.2993,27.9624,0.52746,93.3824,-37.4587,16.3553,-7.9139,-24.7966,-8.9688,-4.7481,-5.8041,0.52746,-0.52746,
13.189,3.6927,17.4097,-2.6378,78.3824,-49.0663,17.4097,-10.0242,-16.3558,-2.6378,-2.6378,-15.2998,10.0242,2.6378,
2.6383,-2.6383,4.7481,-17.4102,65.9485,-54.3419,13.1895,-1.5824,-1.3558,-2.6383,3.6932,-29.0173,11.0797,0.52746,
1.0549,-10.5522,1.0549,-32.4102,64.3651,-65.4211,13.717,-1.0549,1.0549,-14.7729,4.2207,-27.4349,5.2756,-2.1108,
10.0242,-4.7486,16.0549,-30.0727,70.1687,-60.6729,22.6863,-3.6937,-1.5829,-8.9693,1.5829,-17.4107,17.4097,6.8585,
17.9381,1.0554,30.6002,-24.2687,81.2484,-46.428,17.9381,-9.4968,-8.4409,-1.0554,-11.6066,-25.3246,12.6625,3.1653,
25.3241,6.3315,35.8763,-13.717,89.6902,-37.9861,27.4349,-4.2207,-2.1098,0,-1.0549,-23.2132,1.0559,0,
15.8278,8.4414,26.379,-10.5522,78.0831,-44.3177,22.1583,-3.1658,-9.4963,-8.4414,2.1098,-18.9936,-1.0549,1.0549,
8.9688,4.7481,25.8515,-11.0787,67.0034,-40.6244,7.9139,-0.52746,-15.3003,-5.8031,-7.9139,-24.7966,8.9688,0.52746,
7.3854,0,31.6546,-11.6071,62.2553,-36.9312,11.6061,3.1648,-11.6071,-2.1108,-10.5522,-34.8214,4.2207,0,
5.8041,5.8041,26.9075,-10.0237,59.618,-44.8451,22.6868,1.5834,-13.1895,-8.9688,-2.6373,-22.6858,0.52746,-0.52746,
10.0237,10.0237,23.7417,-12.1346,44.8451,-53.2865,21.6309,0.52746,-12.1346,-12.1346,-0.52746,-10.0247,8.9688,-2.6383,
14.7729,10.5522,27.4349,-9.4963,44.3177,-52.759,17.9376,3.1658,-11.6071,-7.3864,-12.662,-17.9376,7.3864,-3.1658,
5.2756,6.3305,21.1034,-6.3315,54.8689,-51.7041,25.3241,0,-8.4414,0,-5.2756,-25.3241,2.1098,-3.1658,
0.52746,-0.52746,6.1034,-14.2444,45.9,-60.6724,22.6868,-2.6373,-1.5824,1.5834,8.9688,-27.9624,4.7481,-0.52746,
0.52746,-3.6932,5.8031,-19.521,30.9,-64.8936,10.0237,-0.52746,-2.6383,-2.6383,8.9688,-20.5759,11.0787,0.52746,
-3.1658,-3.1658,20.8031,-12.662,18.9926,-61.2004,18.9926,0,-4.2207,1.0549,3.1658,-13.718,15.8278,0,
11.8342,9.4968,35.8031,-3.1653,33.9926,-46.2004,33.9926,-1.0554,-9.4968,-2.1103,-7.3859,-13.7175,11.6066,1.0554,
24.7966,13.1895,39.5695,-7.9139,48.9926,-39.5695,33.238,-1.5824,-17.4102,-16.3553,-12.1346,-11.0797,5.8031,1.5824,
9.7966,0,29.5448,-8.4414,37.9861,-48.5383,20.0475,0,-20.0485,-13.718,-3.1658,-9.4973,1.0549,0,
-1.5824,-0.52746,30.0722,3.6932,34.2939,-57.5072,20.5759,2.6383,-19.521,-4.7481,-1.5824,-12.1346,0.52746,0.52746,
5.8031,6.858,39.5685,0.52746,21.6309,-63.8387,29.0173,-0.52746,-16.3553,-10.0247,-10.0247,-14.2454,12.1346,-1.5834,
7.9139,10.0247,45.9,0.52746,24.7966,-57.5072,25.8515,-0.52746,-18.4651,-7.9139,-8.9688,-6.858,15.3003,-1.5824,
6.3315,-2.1098,30.9,0,39.7966,-53.8139,22.1593,0,-17.9376,0,-6.3305,-5.2756,7.3864,4.2207,
7.9134,-10.0242,15.9,-14.2449,49.0653,-57.5077,25.851,-5.8036,-12.1351,-1.5829,1.5829,-15.3008,12.1341,2.6378,
5.8036,-1.5829,1.5829,-11.0802,37.4582,-52.2316,27.9619,-2.6378,-6.8595,-3.6937,15.2998,-11.0802,20.5754,2.6378,
-9.1964,-6.3305,4.2207,-4.2207,30.6007,-62.2553,26.38,4.2207,-6.3305,-5.2756,14.7729,-7.3864,22.1593,4.2207,
-11.6071,-12.662,6.3315,-8.4414,32.7105,-66.476,23.2142,5.2766,-12.662,-4.2207,9.4973,-17.9376,21.1034,4.2207,
-4.7481,-12.1346,15.3003,-10.0237,22.6868,-63.8382,24.7966,4.7481,-10.0237,-5.8031,4.7481,-16.3553,18.4661,8.9688,
-18.4661,-18.4661,22.6858,-14.2454,7.6868,-78.6111,23.7407,1.5824,-6.859,-13.1905,5.8031,-1.3553,14.2444,4.7481,
-13.7175,-12.6625,26.3795,-5.2761,12.6625,-63.6111,20.048,7.3859,-9.4968,-4.2202,8.4419,2.1103,15.8273,-2.1103,
1.2825,-7.3854,24.2692,0,26.38,-48.6111,15.8278,0,-16.8827,-1.0549,-4.2207,-12.8897,7.3864,3.1658,
1.5829,-1.5829,27.9629,7.9144,11.38,-33.6111,15.2998,-8.9683,-18.4656,-11.0792,-19.2207,-10.0242,-3.6927,12.1351,
-5.2761,2.1103,33.766,14.7724,-3.62,-18.6111,13.7175,-2.1103,-15.8273,-7.3859,-8.4409,-5.2761,2.1103,9.4968,
-10.5512,0,34.8214,4.2207,-18.62,-3.6111,13.717,-1.0549,-13.717,-2.1098,6.5591,-12.662,10.5522,0,
-18.9931,-3.1653,26.3795,-10.7793,-33.62,11.3889,10.5517,3.1653,-12.6615,-6.331,9.4968,-3.1653,9.4968,7.3859,
-24.2687,-9.4958,11.3795,-18.9931,-47.4829,26.3889,8.4419,9.4968,-13.7165,-5.2751,2.1103,-2.1103,7.3869,16.8832,
-24.2687,2.1103,-2.1103,-4.2202,-62.4829,21.1039,8.4419,8.4419,-13.7175,-2.1103,2.1103,-11.6066,8.4419,10.5517,
-28.4898,10.5522,2.1108,0,-67.5314,18.9936,4.2207,0,-9.4963,-13.717,1.0549,-21.1034,5.2756,0,
-13.4898,8.9688,17.1108,-0.52746,-52.5314,19.521,15.3003,3.6932,-10.0237,-19.521,0.52746,-14.2454,8.9688,-0.52746,
-7.9139,7.9139,21.6319,0.52746,-51.1756,10.0247,10.0247,1.5834,-25.0237,-18.4651,-14.4725,-10.0237,2.6383,-0.52746,
-16.3553,8.9688,18.4661,-0.52746,-61.7278,10.0247,8.9688,0.52746,-16.3553,-5.8031,-0.52746,-4.7481,11.0797,2.6383,
-30.0727,-1.5829,7.9134,-15.5275,-68.0589,8.9693,10.0242,1.5829,-6.8585,-4.7486,14.4725,-1.5829,19.5205,5.8036,
-43.7897,-7.9134,-2.6378,-22.6863,-75.4448,1.5829,7.9144,8.9693,-12.1341,-1.5829,6.8585,4.7486,14.2449,7.9144,
-45.3726,-12.662,-11.6071,-14.7729,-83.3587,-3.1658,11.6071,5.2756,-5.2756,5.2756,5.2756,6.3315,10.5522,3.1658,
-34.8204,-12.662,-7.3854,-13.717,-84.4136,0,11.6071,1.0559,-2.1098,0,12.662,4.2207,12.662,7.3864,
-29.5453,-6.331,3.1653,-13.7175,-85.4695,3.1653,7.3859,6.331,-8.4419,-6.331,8.4409,-3.1653,8.4409,7.3859,
-28.4898,1.0559,-2.1098,0,-80.1929,12.662,4.2207,2.1108,-13.717,-4.2207,0,-3.1648,4.2207,1.0559,
-32.7105,1.0549,-9.4963,0,-73.8624,16.8827,0,-3.1658,-18.9926,-4.2207,5.2756,9.4963,3.1658,6.3315,
-37.4587,-3.6932,-6.858,-14.2444,-73.3345,10.0247,3.6932,6.859,-21.6309,-7.9139,14.2454,13.1895,3.6932,8.9688,
-33.2385,-2.6378,-1.5829,-7.9134,-64.8936,11.0792,8.9693,7.9134,-20.5764,-10.0242,6.8585,1.5829,4.7486,8.9693,
-24.7966,-7.9139,5.8031,3.6932,-57.5072,5.8031,8.9688,-3.6932,-17.4102,-5.8031,5.8031,-6.859,7.9139,13.1895,
-33.7654,-10.5512,7.3864,-5.2756,-66.476,1.0559,11.6071,0,-14.7719,0,16.8827,-3.1648,11.6071,11.6071,
-47.4829,-3.1653,-2.1103,-14.7724,-78.0831,3.1653,9.4968,4.2212,-17.9381,-4.2202,18.9931,3.1653,11.6066,2.1103,
-40.097,-7.3864,-3.1658,-18.9936,-72.807,3.1658,16.8827,3.1658,-7.3864,-3.1658,23.2142,4.2207,16.8827,7.3864,
-30.0732,-13.1905,6.858,-24.7966,-60.6729,11.0787,18.4651,3.6932,-10.0247,-3.6932,13.1895,-7.9139,8.9688,8.9688,
-15.0732,1.8095,21.858,-9.7966,-46.9555,26.0787,19.5205,6.8585,-18.4656,-1.5829,1.5829,-7.9134,4.7486,-1.5829,
-3.1653,13.7175,30.6002,5.2034,-37.9866,29.5453,14.7724,4.2212,-23.2137,-7.3859,1.0554,-2.1103,-1.0554,-3.1653,
-5.2761,2.1103,24.2697,6.331,-39.0416,27.4344,4.2212,2.1103,-30.6002,-14.7724,-2.1103,-7.3859,-8.4409,11.8347,
-6.331,1.0554,22.1588,-1.0554,-46.428,28.4904,14.7724,1.0554,-24.2687,-5.2761,-3.1653,-10.5517,4.2212,20.048,
-7.9134,5.8036,18.4656,2.6378,-41.6799,18.4656,17.4107,-5.8036,-20.5764,-1.5829,-2.6378,-6.8585,1.5829,5.048,
-1.5829,11.0792,16.3548,2.6378,-26.6799,25.852,12.1341,-0.52796,-18.4656,-6.8585,4.7486,-4.7486,-10.0242,0.52796,
-6.3305,5.2756,8.4414,-12.3622,-28.4898,25.3241,11.6071,4.2207,-14.7729,-10.5512,7.3864,-7.3864,-4.2207,10.5522,
-21.1039,1.0554,3.1653,-16.8832,-43.4898,13.7175,6.331,1.0554,-14.7724,-4.2212,4.2202,-4.2212,-1.0554,6.331,
-32.1826,-11.0792,5.8036,-13.19,-58.4898,8.9693,3.6927,-2.6378,-11.0792,2.6378,4.7486,2.6378,-5.8036,4.7486,
-17.1826,-9.4968,6.331,-12.6625,-43.4898,13.7175,9.4968,1.0554,-5.2761,1.0554,-1.0554,4.2202,-6.331,8.4409,
-2.1826,2.6383,4.7481,-7.9139,-28.4898,17.4102,11.0797,-0.52746,-6.859,-5.8031,-5.8031,0.52746,-4.7481,2.6383,
-6.859,-1.5824,14.2444,-7.9139,-36.4038,2.4102,13.1895,-3.6932,-3.6932,3.6932,6.859,1.5824,-0.52746,1.5824,
-9.4968,-6.331,12.6625,-18.9931,-51.4038,-4.2202,13.7175,1.0554,-7.3859,11.6066,11.6066,2.1103,-1.0554,7.3859,
-5.8031,1.5824,3.6932,-22.6868,-48.0109,10.7798,12.1346,0.52746,-16.3553,-1.5824,4.7481,-0.52746,-4.7481,2.6383,
-5.8041,15.2993,1.5824,-7.6868,-43.7902,20.5759,8.9688,0.52746,-16.3553,-6.859,-0.52746,4.7481,-6.859,2.6373,
-8.4414,13.718,0,0,-44.3166,16.8827,5.2766,0,-18.9926,-4.2207,0,5.2766,-8.4414,1.0559,
1.5834,11.0797,6.859,-4.7481,-30.0722,29.0173,13.1895,-0.52746,-17.4102,-3.6932,5.8041,0.52746,-4.7481,-1.5824,
4.2202,8.4409,7.3859,6.331,-27.4344,28.4893,12.6615,-1.0554,-16.8832,-7.3859,-2.1103,1.0554,-7.3859,-2.1103,
-7.9134,-2.6378,3.6927,6.8585,-37.4592,13.4893,12.1341,-0.52796,-14.2449,-7.9134,0.52796,2.6378,-4.7486,2.6378,
-17.4107,-5.8036,7.9134,-5.8036,-40.6239,10.0242,15.2998,0.52796,-11.0792,-1.5829,10.0242,-0.52796,7.9134,11.0792,
-21.6314,-4.7486,2.6378,-10.0242,-49.0658,-1.5829,11.0792,-0.52796,-16.3558,0.52796,0.52796,0.52796,4.7486,5.8036,
-18.9936,-4.2207,2.1108,-2.1108,-51.7036,-9.4963,20.0485,-5.2756,-7.3864,6.3315,2.1108,3.1658,5.2756,4.2207,
-30.5997,-9.4963,7.3864,-5.2756,-53.8139,0,21.1034,-13.717,-7.3864,7.3864,6.3315,0,9.4963,9.4963,
-41.6794,-14.2444,-0.52746,-16.3553,-60.6724,3.6932,19.521,-14.2444,-6.859,7.9139,5.8041,0.52746,18.4661,13.1895,
-42.7343,-11.0787,-5.8031,-16.3553,-64.8931,0.52746,24.7966,-11.0787,-0.52746,13.1905,8.9688,0.52746,22.6868,17.4112,
-40.0965,-10.5512,4.2207,-8.4414,-54.8689,0,18.9936,-5.2756,-4.2207,14.7729,6.3315,0,10.5522,14.7729,
-35.8763,-18.9936,8.4414,-11.6071,-45.3726,-1.0549,8.4414,-7.3864,-5.2756,5.2756,2.1098,4.2207,1.0549,4.2207,
-38.5141,-11.0802,5.8036,-7.9144,-44.8456,13.189,7.9134,-6.8585,-1.5829,1.5829,11.0792,11.0792,-1.5829,6.8585,
-37.9861,-6.3315,1.0549,-1.0549,-43.2622,24.2692,20.0485,-7.3864,-2.1108,12.662,13.717,9.4963,-1.0549,15.8278,
-24.2692,-12.662,-1.0549,-8.4414,-35.8753,15.8278,25.3241,-12.662,-5.2756,14.7729,1.0549,8.4414,7.3864,14.7729,
-22.1588,-7.3869,9.4968,-5.2761,-27.4344,15.8273,18.9931,-9.4968,-6.331,6.331,-2.1103,2.1103,7.3859,9.4968,
-30.6002,-6.331,12.6615,6.331,-28.4904,20.048,16.8822,-10.5517,-6.331,1.0554,3.1653,-5.2761,-1.0554,6.331,
-29.5448,-7.3864,5.2756,5.2756,-22.1593,13.717,13.717,-23.2142,-12.662,0,-6.3315,0,1.0549,3.1658,
-30.6007,-7.3864,13.717,-9.7244,-16.8827,3.1658,20.0485,-26.38,-3.1658,12.662,-3.1658,4.2207,16.0549,10.5512,
-41.6794,-18.4656,14.2449,-24.7244,-21.6314,-2.6378,25.852,-21.6314,2.6378,14.2449,2.6378,-10.7793,13.19,12.1351,
-30.6007,-8.4414,8.4414,-13.718,-8.4414,11.6071,27.4339,-18.9936,-3.1658,3.1658,3.1658,-25.7793,6.3305,9.4963,
-23.7412,1.5829,7.9144,-7.9134,-13.19,17.4107,23.7412,-26.907,-4.7476,-1.5829,4.7486,-18.4656,13.19,2.6378,
-25.852,-3.6927,8.9693,-6.8585,-28.19,10.0242,21.6314,-26.907,-6.8585,3.6927,2.6378,-3.4656,10.0242,1.5829,
-24.2687,-11.6066,7.3859,-3.1653,-18.9931,12.6625,24.2687,-17.9381,-11.6066,4.2212,-2.1103,5.2761,6.331,2.1103,
-22.6868,-3.6932,16.3553,-2.6383,-12.1346,25.8515,23.7407,-7.9139,-7.9139,0.52746,1.5824,2.6373,12.1346,-0.52746,
-15.3003,8.9688,23.7417,8.9688,-25.8515,36.4038,12.1346,-6.859,-10.0237,-2.6383,0.52746,-0.52746,4.7481,-1.5824,
-8.9688,11.0787,18.4651,23.7407,-32.1831,32.1831,15.2993,-8.9688,-10.0247,-1.5834,-5.8041,0.52746,3.6932,-0.52746,
-18.9936,6.3305,10.5512,13.717,-31.6556,20.0485,21.1034,-7.3864,-5.2756,0,-5.2756,0,8.4414,-1.0549,
-31.1282,-4.7481,4.7481,-1.283,-38.5136,12.1346,16.3553,-13.1895,-6.859,-0.52746,2.6383,0.52746,2.6383,2.6383,
-27.9624,-8.9688,1.5824,-7.9139,-29.0173,22.6858,29.0173,-24.7966,-2.6383,0.52746,17.4102,0.52746,-0.52746,6.859,
-30.0722,2.6383,-0.52746,4.7481,-35.3488,35.3488,29.0173,-20.5759,-13.1895,-5.8031,7.9139,0.52746,1.5824,-1.5824,
-34.2929,7.9139,7.9139,1.5824,-49.0658,31.1282,18.4651,-12.1346,-15.3003,-5.8031,-1.5824,5.8031,8.9688,-1.5824,
-33.238,-4.7481,13.1895,-3.6932,-43.7902,33.238,17.4102,-19.521,-8.9688,-0.52746,3.6932,4.7481,11.0797,0.52746,
-34.8214,-13.718,7.3864,-7.3864,-42.2068,48.238,20.0485,-16.8827,-15.8278,1.0549,3.1658,2.1098,9.4963,-1.0549,
-33.7655,-17.9386,0,-13.718,-55.9248,50.6482,18.9926,-10.5522,-20.0485,0,10.5512,6.3305,12.662,2.1098,
-32.71,-9.4968,1.0554,-9.4968,-48.5378,50.6487,13.7175,-14.7724,-12.6625,-1.0554,11.6066,6.331,12.6625,7.3859,
-23.2142,0,12.662,4.2207,-33.5378,56.9797,18.9936,-17.9376,-12.662,-4.2207,0,-4.2207,8.4414,1.0549,
-8.9688,7.9139,22.6868,13.1895,-18.5378,58.5621,33.238,-6.858,-18.4651,-2.6373,0.52746,-3.6932,6.859,-0.52746,
-18.9926,8.4414,12.662,0,-11.6061,48.5383,28.4898,-10.5512,-18.9926,-2.1098,1.0559,-3.1648,0,2.1108,
-30.0722,-1.5824,7.9139,-13.1895,-26.6061,43.7902,22.6858,-15.3003,-7.9139,3.6932,1.5824,-2.6383,12.1346,4.7481,
-22.6868,-2.6383,12.1346,-11.0797,-31.1282,38.5136,19.521,-12.1346,-4.7481,3.6932,0.52746,-0.52746,18.4651,5.8031,
-21.6309,1.5834,7.9139,-8.9688,-16.1282,26.9075,17.4102,-21.6309,-11.0787,-0.52746,0.52746,-6.858,12.1346,0.52746,
-23.7417,5.8031,4.7481,-5.8031,-11.0797,30.0722,25.8515,-26.9075,-13.1895,3.6932,-2.6383,-3.6932,14.2444,2.6383,
-18.4651,-0.52746,8.9688,-6.858,-6.858,45.0722,33.238,-16.3553,-11.0797,2.6383,-3.6932,0.52746,14.2454,11.0797,
-21.1034,-9.4973,6.3305,-15.8278,-9.4973,48.5383,32.7105,-11.6071,-3.1658,1.0549,11.3068,-1.0549,11.6071,12.662,
-30.6007,0,0,-18.9936,-22.1593,34.8204,17.9376,-15.8278,-9.4963,4.2207,15.8278,-3.1658,8.4414,1.0549,
-28.4898,10.5522,6.3315,-8.4414,-23.2142,34.8214,13.717,-12.662,-12.662,4.2207,1.0549,-4.2207,12.662,-1.0549,
-26.379,-3.1658,4.2207,0,-20.0485,35.8763,16.8827,-20.0485,-12.662,0,2.1108,-10.5512,8.4414,1.0549,
-13.717,0,-3.1658,0,-12.662,48.5383,20.0485,-22.1593,-18.9936,6.3305,5.2756,-5.2756,7.3864,3.1658,
0.52746,14.2444,-2.6383,-7.9139,-6.859,54.3414,24.7966,-14.2454,-18.4661,2.6373,-4.7481,-0.52746,12.1346,2.6373,
-1.5829,4.7476,2.6378,-5.8036,1.5829,48.0104,20.5754,-7.9144,-18.4656,-5.8036,-2.6378,-2.6378,8.9683,5.8036,
-3.1653,-6.331,2.1103,-1.0554,1.0554,48.5378,14.7724,-10.5517,-20.048,-1.0554,5.2761,-3.1653,9.4968,8.4419,
0,0,1.0559,-11.6061,-9.4963,50.6492,25.3241,-12.662,-16.8827,-4.2207,0,-4.2207,13.718,2.1108,
-1.0554,1.0554,2.1103,-15.8283,-7.3859,49.5928,34.8209,-10.5517,-18.9931,-10.5517,2.1103,-1.0554,11.6066,1.0554,
-4.2207,-9.4963,-8.4414,-11.6071,-3.1658,51.7041,34.8214,-6.3305,-12.662,3.1658,14.7729,5.2756,16.8827,8.4414,
-13.7175,-12.6615,-18.9931,-23.2137,-18.1658,44.3182,21.1039,-2.1103,-10.5517,4.2212,10.5517,2.1103,20.049,7.3869,
-21.6309,-3.6932,-3.9931,-17.4102,-33.1658,34.2929,18.4651,1.5824,-7.9139,-1.5824,15.3003,7.9139,22.6858,10.0237,
-20.5759,-7.9139,7.9139,-10.0247,-29.0173,21.6309,27.9624,-7.9139,-13.1895,-2.6383,4.7481,2.6383,18.4651,7.9139,
-5.5759,-7.3864,0,-11.6071,-14.0173,10.5522,32.7105,-16.8827,-24.2692,1.0549,-10.2519,-5.2756,10.5522,0,
9.4241,0,2.1108,-15.8278,0.98269,0,33.7654,-16.8827,-17.9376,0,-7.3864,1.0549,12.662,-2.1098,
24.4241,5.8031,5.8031,-19.521,15.9827,-3.6932,31.1271,-14.2454,-18.4661,-5.8041,-4.7481,0.52746,13.1895,-0.52746,
39.4241,12.1346,0.52746,-16.3553,30.9827,5.8031,26.9065,-13.1895,-25.8526,-2.6383,-15.3003,-5.8041,10.0237,-0.52746,
54.3409,12.1341,1.5829,-6.8585,45.9827,14.2449,22.6863,-23.7422,-26.907,-1.5829,-13.19,-5.8036,7.9134,-3.6937,
48.0104,8.9693,8.9693,-2.6378,60.6724,3.6927,16.3548,-29.0178,-34.2934,-10.0242,-12.1341,-6.8585,2.6378,-8.9693,
58.5621,10.0237,14.2444,-1.5834,73.335,-4.7481,31.3548,-14.0178,-27.9624,-4.7481,0.52746,-3.6932,16.3553,-0.52746,
43.5621,6.331,7.3859,-3.1653,59.09,1.0554,31.6551,-21.1039,-23.2137,-2.1103,-1.0554,-6.331,16.8832,-2.1103,
28.5621,8.9693,2.6378,-2.6378,53.287,3.6937,19.5205,-29.0168,-21.6314,-4.7476,-16.0554,-11.0792,3.6937,-11.0792,
41.6794,17.4102,13.1895,-3.6932,60.6729,-0.52746,33.238,-14.0168,-17.4102,0.52746,-5.8031,-0.52746,15.3003,-3.6932,
41.1519,16.8827,16.8827,-4.2207,56.9797,-2.1098,26.38,-15.8278,-29.5448,-6.3305,0,0,15.8278,-6.3305,
33.766,14.7724,27.4344,1.0554,60.145,-1.0554,23.2137,-26.3795,-18.9931,-1.0554,-7.3859,-3.1653,11.6066,-7.3859,
36.9317,-0.22762,20.048,-13.9446,51.7036,-14.7724,28.4893,-22.1588,-7.3859,5.2761,-9.4968,-6.331,15.8273,1.0554,
37.4582,-4.7486,5.048,-23.7422,40.6239,-15.3008,29.0168,-22.6863,-14.2449,3.6927,-3.6937,-2.6378,18.4656,5.8036,
29.5448,3.1658,1.0549,-11.6071,40.097,-3.1658,28.4898,-34.8214,-12.662,4.2207,-1.0549,-1.0549,12.662,-4.2207,
21.6309,1.5824,-0.52746,-20.5759,43.7902,0.52746,23.7417,-31.1282,-15.3003,0.52746,-6.859,-4.7481,2.6383,-12.1346,
30.0722,-0.52746,0.52746,-31.1282,58.7902,3.6932,34.2929,-16.1282,-14.2444,-1.5824,1.5824,-1.5824,6.859,-1.5824,
36.9312,0,0,-32.7105,68.5858,6.3305,39.041,-21.1044,-13.718,2.1098,-1.0559,-2.1108,11.6061,0,
31.1282,2.6383,-0.52746,-27.9624,53.5858,2.6383,34.2939,-32.1831,-20.5759,0.52746,-5.8031,-4.7481,13.1895,-7.9139,
34.8214,4.2207,8.4414,-17.9376,38.5858,-1.0549,41.1519,-25.3241,-14.7729,-7.3864,1.0549,-2.1098,16.8827,-9.4963,
46.428,7.3859,13.7175,-11.6076,42.2073,-5.2761,40.0965,-22.1588,-11.6076,-5.2761,-1.0554,1.0554,14.7724,-3.1653,
36.9312,0,7.3854,-24.2692,39.041,-20.2761,33.7654,-33.7665,-14.7729,7.3854,-1.0559,-6.3315,18.9926,0,
21.9312,-2.1103,9.4968,-33.766,24.041,-28.4904,35.8758,-32.711,-8.4419,13.7175,2.1103,-4.2212,27.4344,-9.4968,
8.9688,-1.5824,6.859,-34.2929,10.0237,-25.8515,32.1831,-29.0173,-6.859,1.5824,-2.6383,1.5824,21.6309,-14.2454,
13.717,-7.3864,-3.1658,-31.6556,9.4963,-23.2142,32.7105,-27.4349,0,0,3.1658,4.2207,27.4349,-4.2207,
12.1351,-6.8585,-10.0242,-25.852,-5.5037,-20.5754,31.1277,-22.6863,2.6378,6.8585,6.8585,3.6937,27.9619,-2.6378,
7.9139,-4.7481,0.52746,-21.6309,-13.1895,-14.2444,31.1282,-23.7417,-0.52746,15.3003,5.8041,11.0797,24.7966,-2.6383,
4.7476,-15.3008,4.7476,-35.3483,-2.6378,-22.6863,23.7412,-33.2385,-13.19,6.8585,6.8585,2.6378,20.5754,-2.6378,
5.2756,-16.8827,3.1658,-31.6556,-17.6378,-29.5448,16.8827,-32.7105,-16.8827,1.0549,5.2756,6.3305,17.9376,-1.0549,
0,-18.9936,5.2756,-20.0485,-32.6378,-26.379,22.1583,-29.5448,-8.4414,5.2756,3.1658,11.6071,21.1034,0,
5.2761,-20.049,3.1653,-25.3246,-17.6378,-22.1588,30.6002,-32.711,-9.4968,3.1653,5.2761,-3.3929,23.2137,-3.1653,
20.2761,-11.0792,0.52796,-34.2934,-2.6378,-20.5764,31.1276,-32.1826,-11.0792,1.5829,5.8036,-12.1351,21.6314,-0.52796,
33.7654,-12.663,0,-47.4834,12.3622,-35.5764,34.8204,-33.7665,-7.3864,2.1098,3.1648,0,22.1583,-2.1108,
26.907,-18.4656,0.52796,-51.1761,27.3622,-50.5764,42.7348,-41.6799,-8.9693,-0.52796,4.7486,3.6927,20.5754,-7.9134,
37.9856,-15.8283,9.4958,-41.1524,42.3622,-65.4216,42.2063,-40.0975,-9.4968,2.1103,16.8822,-2.1103,23.2137,-13.7175,
44.8456,-11.0792,15.2998,-26.907,57.3622,-57.5072,37.4592,-30.0727,-5.8036,5.8036,18.4656,-11.0792,22.6863,-20.5754,
40.0965,-6.331,15.8273,-21.1039,72.3622,-42.5072,48.5378,-24.2687,-3.1653,3.1653,5.2761,-7.3859,23.2137,-14.7724,
34.2929,-15.3003,6.859,-27.9624,87.3622,-40.6244,55.3973,-30.0722,-5.8031,0.52746,2.6383,-0.52746,25.8515,-1.5824,
29.5453,-21.1039,3.1653,-28.4904,72.3622,-50.6487,40.3973,-35.8758,-13.7175,-1.0554,2.1103,1.0554,14.7724,-1.0554,
41.1519,-6.1039,18.1653,-13.4904,75.9733,-35.6487,33.7654,-31.6556,-8.4414,0,7.3864,0,13.717,-6.3305,
38.5141,5.8036,24.7971,-1.5829,83.8867,-30.0727,34.2934,-37.4592,-16.3548,0.52796,-0.52796,-8.9693,14.2449,-14.2449,
33.2385,1.5829,29.0178,-1.5829,68.8867,-32.1826,32.1826,-39.569,-22.6863,5.8036,-12.1341,-5.8036,16.3548,-3.6927,
40.097,0,34.8204,-5.2756,54.8689,-32.7105,37.9861,-30.6007,-7.6863,9.4963,0,-3.1658,25.3241,-2.1108,
37.9866,-7.3869,19.8204,-20.2756,59.09,-47.7105,40.0965,-28.4903,-2.1103,2.1103,7.3859,-18.1658,22.1588,-17.1108,
39.0416,-11.6066,4.8204,-35.2756,74.09,-49.5933,46.428,-26.3795,-2.1103,10.5517,6.331,-13.7175,23.2137,-12.6625,
44.8451,-5.8041,4.7481,-34.2939,83.8862,-34.5933,42.7343,-30.0732,-3.6932,10.0237,-4.7481,-3.6932,20.5759,2.3375,
50.1212,9.1959,5.8036,-19.2939,90.2172,-19.5933,44.8446,-31.1276,-14.2449,-1.5829,-10.0242,-13.19,16.3548,1.5829,
39.0421,7.3864,3.1658,-9.4963,92.856,-29.5448,52.759,-34.8204,-10.5512,4.2207,-3.1658,-12.662,13.717,-8.4414,
27.4344,-7.6136,4.2202,-24.2697,84.4141,-31.6551,43.2622,-39.0416,-2.1103,13.7175,2.1103,-2.1103,7.3859,-8.4419,
29.0173,-11.0797,-0.52746,-33.238,69.4141,-26.9075,34.2929,-37.4587,0.52746,6.859,4.7481,-3.6932,7.9139,-4.7481,
30.0727,-6.8585,-2.6378,-32.1826,54.4141,-31.1276,43.7897,-32.1826,0.52796,4.7486,7.9134,-0.52796,20.5754,-0.52796,
23.2132,-12.662,-5.2766,-25.3251,43.2617,-39.0421,33.7654,-34.8214,-7.3864,13.717,4.2207,8.4414,16.8827,-4.2207,
24.7966,-21.6319,4.7481,-11.0797,36.4038,-43.7902,23.7417,-36.4038,-12.1346,4.7481,-4.7481,6.858,11.0787,-12.1346,
37.9866,-7.3859,19.7481,1.0554,50.6487,-47.4829,36.9307,-25.3246,-9.4968,-10.2519,-1.0554,5.2761,17.9381,-1.0554,
29.5443,-10.5527,22.1578,-13.9446,47.4829,-50.6492,47.4829,-26.3795,-12.6625,-6.331,7.3859,2.1103,23.2137,-2.1103,
21.6304,-25.5527,7.1578,-28.9446,34.2934,-46.9555,46.9555,-34.2934,-13.19,3.6927,2.6378,-2.6378,18.4656,-14.2449,
36.4038,-12.1346,4.7481,-18.4661,48.0099,-31.9555,49.0658,-25.8526,-4.7481,4.7481,-4.7481,6.858,19.52,-4.7481,
39.0416,-4.2212,8.4409,-10.5517,63.0099,-20.049,48.5378,-31.6561,-7.3869,-2.1103,-6.331,15.8273,20.048,2.1103,
37.9861,0,13.717,-6.3315,73.8624,-14.7729,45.3726,-35.8763,-17.9386,0,-3.1658,20.0485,16.8827,-1.0549,
35.8763,-5.2756,8.4414,-15.8278,58.8624,-24.2692,36.9312,-29.5448,-20.0485,3.1658,-5.2756,6.3315,10.5522,-3.1658,
29.0173,-14.2444,7.9139,-29.0173,43.8624,-38.5136,43.7902,-30.0722,-6.859,6.859,-0.52746,-2.6373,19.521,0.52746,
14.2449,-19.5205,3.6927,-30.0727,48.0104,-45.9005,42.7348,-36.4032,-5.8036,7.9134,-0.52796,0.52796,27.9619,-2.6378,
6.3305,-24.2692,-4.2217,-27.4349,53.8139,-46.4285,39.041,-32.7105,-3.1658,9.4963,0,5.2756,26.379,0,
-1.0549,-29.5448,-5.2756,-31.6556,45.3726,-37.9861,39.0421,-30.5997,1.0549,8.4414,-2.1098,7.3864,20.0485,1.0549,
-7.3864,-26.379,1.0549,-27.4349,46.4275,-28.4898,43.2627,-29.5448,-3.1658,11.6071,1.0549,8.4414,25.3241,-1.0549,
-12.1346,-27.9624,-0.52746,-25.8515,48.0109,-29.0173,45.9,-26.9065,-11.0797,10.0247,0.52746,2.6383,30.0722,7.9139,
-13.1895,-22.6858,7.9139,-23.7417,57.5072,-16.3553,48.0109,-20.5759,-4.7481,10.0247,-4.7481,4.7481,27.9624,4.7481,
-9.4968,-16.8832,11.6066,-23.2137,65.4206,-12.6625,52.7585,-26.3795,5.2761,10.5517,-5.2761,11.6066,24.2687,-10.2519,
5.5032,-13.1895,2.6383,-21.6309,68.0584,-18.4661,44.8451,-32.1831,-6.859,2.6383,-2.6383,10.0237,22.6858,-19.521,
20.5032,-1.5824,17.4102,-12.1346,78.6106,-11.0797,39.5695,-32.1831,-21.859,-3.6932,0.52746,-0.52746,17.4102,-4.521,
27.4349,8.4414,31.6556,-9.4963,81.2489,-3.1658,42.2068,-40.097,-26.38,-9.4963,-10.5522,3.1658,9.4963,-5.2756,
16.3553,3.6932,16.6556,-18.4661,72.279,-3.6932,31.1271,-46.956,-27.9624,-17.4102,-25.5522,16.3553,3.6932,-12.1346,
23.2142,-1.0549,2.1108,-13.717,68.5868,-3.1658,39.0421,-40.097,-13.717,-8.4414,-14.7719,13.717,13.717,1.0549,
31.1282,5.8041,-2.6373,-0.52746,71.2251,-1.5824,45.9,-35.3478,-11.0787,0.52746,0.22812,-1.283,15.3003,-1.5824,
22.1583,15.8278,-2.1098,5.2756,80.1939,1.0549,36.9312,-33.7654,-17.9376,-5.2756,-2.1098,-1.0549,12.662,-7.3864,
7.1583,1.0554,-2.1103,-1.0554,68.5863,-8.4419,39.0416,-32.711,-3.1653,-8.4419,5.2761,7.3859,22.1588,-2.1103,
0.52746,-12.1346,-5.8031,-4.7481,53.5863,-12.1346,45.9,-30.0722,2.6383,-1.5824,8.9688,3.6932,21.6309,-0.52746,
3.1648,-14.7729,0,-7.3864,51.7031,-10.5522,49.5933,-32.7105,-6.3315,2.1098,0,1.0549,18.9926,-2.1108,
2.1108,-18.9936,9.4963,-13.717,59.0895,-23.2142,51.7041,-35.8763,-7.3864,1.0549,-3.1658,3.1658,26.379,-1.0549,
-2.1103,-20.048,7.3859,-11.6066,52.7585,-31.6551,45.3731,-36.9307,-12.6625,-1.0554,1.0554,5.2761,26.3795,3.1653,
0.52796,-13.19,4.7486,-4.7486,62.7833,-16.6551,45.9005,-34.2934,-7.9134,0.52796,6.8585,-1.5829,21.6314,-0.52796,
-0.52746,-4.7481,1.5824,-7.9139,72.279,-1.6551,42.7343,-36.4038,-5.8041,-4.7481,0.52746,1.5824,13.1895,-7.9139,
3.1648,-3.1658,-1.0559,-12.662,62.2553,0,45.3726,-37.9871,-14.7729,-6.3315,5.2756,16.5824,13.717,0,
5.2756,-12.662,-4.2207,-22.1593,58.0346,-5.2766,45.3726,-40.097,-25.3251,-5.2766,4.2207,26.379,15.8268,4.2207,
5.8036,-16.3548,1.5829,-22.6863,71.2246,2.6378,40.6239,-40.6239,-20.5764,-6.8585,-8.9693,23.7412,11.0792,-1.5829,
5.2756,-20.0485,1.0549,-28.4898,66.476,0,39.0421,-40.097,-12.662,-1.0549,0,18.9936,13.717,-6.3305,
-2.1103,-14.7734,-2.1103,-32.711,52.7585,-6.331,41.1514,-29.5453,-12.6625,13.9451,13.7165,13.7165,25.3236,2.1103,
-15.3003,-8.9698,0.52746,-20.5759,42.7343,-15.3003,43.7892,-25.8525,-2.6383,22.6858,-0.52746,8.9688,25.8515,4.7481,
-11.6066,-7.3859,15.5275,-5.5759,39.0416,-25.3246,44.3172,-32.71,-2.1103,7.6858,-15.5275,7.3859,18.9931,2.1103,
-1.5824,0.52746,30.5275,9.4241,35.3488,-25.8515,34.2929,-34.2929,-16.3553,-6.859,-16.3553,3.6932,15.3003,-0.52746,
0,4.2207,31.6556,15.8278,29.5458,-16.8827,26.38,-34.8204,-13.717,-3.1648,-17.9376,0,15.8278,-4.2207,
12.6615,2.1103,26.3795,13.7165,29.5443,-7.3869,25.3236,-37.9866,-15.8283,-7.3869,-20.049,-2.1103,5.2751,-7.3869,
25.3241,1.0549,22.1583,21.1034,44.5443,-3.1658,32.7105,-41.1519,-25.3241,-9.4963,-11.6071,-1.0549,6.3315,-7.3864,
10.3241,2.1103,18.9931,16.8832,56.9792,-13.7175,40.0965,-47.4829,-24.2687,-3.1653,-9.4968,-2.1103,14.7724,-7.3859,
6.3305,5.2756,13.717,5.2756,61.1994,-15.8278,34.8204,-48.5383,-23.2142,-6.3315,-24.2692,-4.2207,4.2207,-11.6071,
16.3553,-0.52746,3.6932,-4.7481,54.3414,-0.82781,29.0173,-42.7343,-21.6309,-14.2444,-22.6858,2.6383,0.52746,-13.1895,
4.7476,-4.7486,-10.0242,-8.9693,39.3414,14.1722,35.3483,-40.6249,-12.1351,-3.6937,-7.6858,15.2998,15.5275,-1.5829,
-9.4968,-9.4968,-22.1588,-23.2137,27.4344,1.0554,33.766,-44.3172,-12.6625,4.2202,1.0554,5.2761,18.9931,-1.0554,
2.6378,-6.8585,-7.1588,-26.907,39.569,-2.6378,39.569,-33.2375,-4.7476,5.8036,-5.8036,3.6937,22.6863,2.6378,
-3.6937,-12.1351,4.7476,-27.9629,41.6788,1.5829,40.6239,-31.1276,-6.8595,-1.5829,-8.9693,10.0242,23.7412,5.8036,
-12.1351,-13.19,11.0792,-20.5764,40.6239,1.5829,52.2311,-32.1826,-6.8585,-1.5829,-3.6937,16.3548,27.9619,12.1341,
-2.1103,-7.3859,13.7175,-12.6625,32.71,-10.5517,51.7036,-30.6002,-6.331,2.1103,-6.331,14.7724,27.4344,12.6625,
1.0549,-15.8278,4.2207,-17.9376,17.71,-24.2692,36.7036,-35.8763,-11.6071,-1.0549,-20.0485,7.3864,17.9376,1.0549,
7.3869,-11.6066,15.8283,-2.9376,27.4344,-9.2692,35.8768,-34.8209,-8.4409,2.1103,-15.8273,4.2212,17.9381,-2.1103,
3.1658,-1.0549,18.9926,7.3864,36.9312,1.0549,35.8763,-43.2627,-23.4409,-11.6071,-21.1034,-2.1108,3.1658,-11.6071,
2.1103,-2.1103,7.3869,5.2761,22.1588,-12.6615,33.766,-45.3721,-28.4893,-11.6066,-13.7165,11.6076,2.1103,-7.3859,
5.2756,-6.3315,-2.1108,1.0549,7.3854,-4.2207,31.6546,-43.2627,-13.718,0,-5.2766,24.2682,13.717,0,
10.0242,1.5829,-2.6378,-1.5829,14.2449,3.6927,34.2934,-46.9555,-20.5764,-3.6927,-10.0242,15.2998,14.2449,-3.6927,
25.0242,2.6378,1.5829,-1.5829,29.2449,-5.8036,46.9555,-45.8995,-24.7961,-10.0242,-5.8036,13.19,13.19,-3.6927,
25.3246,-4.2212,4.2202,3.1653,44.2449,-4.2212,34.8209,-40.0965,-22.1588,-12.6625,-3.1653,28.19,7.3859,-3.1653,
10.3246,-7.3859,5.2761,-1.0554,29.5453,1.0554,27.4344,-36.9307,-18.9931,-10.5517,-2.1103,29.5453,12.6625,-1.0554,
0.52796,-11.0792,1.5829,-16.0554,18.4656,-8.9693,40.6239,-37.4592,-17.4107,-2.6378,-0.52796,14.5453,25.852,3.6927,
2.1103,-17.9381,1.0554,-25.3246,28.4893,-6.331,41.1524,-36.9307,-15.8273,-1.0554,-4.2202,2.1103,24.2687,7.3859,
-1.5824,-22.6868,1.5824,-10.3246,27.9624,3.6932,35.3488,-35.3488,-11.0797,-3.6932,-5.8031,17.1103,17.4102,5.8031,
-2.1103,-7.6868,-5.2751,4.6754,28.4903,16.8832,30.6002,-36.9307,-16.8822,-8.4409,-12.6615,32.1103,14.7724,2.1103,
-2.6378,1.5829,-2.6378,6.8585,35.3483,19.5205,23.7412,-42.7348,-29.0178,-18.4656,-26.907,17.1103,3.6927,-1.5829,
9.4968,-4.2202,12.3622,4.2212,32.711,4.5205,30.6002,-43.2622,-24.2687,-12.6615,-20.048,2.1103,5.2761,-1.0554,
24.4968,-1.5824,25.8515,0.52746,38.5146,-7.9139,36.4038,-41.6794,-21.6309,-2.6373,-6.858,0.52746,18.4661,-0.52746,
37.9866,6.331,14.7724,-5.2761,46.428,-11.6066,35.8758,-48.5378,-16.8832,-5.2761,-8.4409,3.1653,20.048,-3.1653,
25.3241,3.1658,21.1034,1.0549,32.7105,-25.3241,27.4349,-55.9248,-13.717,-11.6071,-16.8827,-1.0549,5.2756,-7.3864,
18.9936,-3.1658,21.1034,5.2756,17.7105,-12.662,23.2142,-55.9238,-15.8278,-6.3305,-14.7719,8.4414,3.1658,-4.2207,
14.7724,-4.2212,6.1034,-9.4968,11.6066,2.338,23.2137,-50.6487,-15.8273,-2.1103,-9.4968,18.9931,10.5517,-7.3859,
9.4968,1.0554,-8.8966,-17.9381,11.6066,17.338,23.2137,-43.2622,-13.7175,-1.0554,-4.2202,13.7175,12.6625,-3.1653,
2.6373,0.52746,-23.8966,-6.859,-3.3934,32.338,25.8515,-39.5695,-8.9688,-1.5834,-0.52746,20.5759,10.0237,11.8347,
-12.3627,1.5829,-31.1276,5.8036,-18.3934,47.338,18.4656,-33.2375,-6.8585,-1.5829,-11.0792,35.3483,7.9144,18.4656,
-27.3627,4.7486,-24.7971,-3.6927,-33.3934,62.338,17.4107,-29.0178,-5.8036,3.6927,-14.2449,20.3483,12.1341,17.4107,
-21.6314,3.6937,-27.9619,-4.7476,-48.3934,77.338,24.7971,-29.0168,-4.7476,2.6378,-2.6378,5.3483,19.5205,20.5764,
-6.6314,5.8031,-32.1831,10.2524,-63.3934,81.7763,12.1346,-32.1831,-15.3003,-11.0797,-15.3003,20.3483,10.0237,7.9139,
-0.52746,10.0247,-17.1831,18.4661,-78.3934,81.7763,15.3003,-31.1271,-15.2993,-8.9688,-21.6309,21.6309,10.0247,0.52746,
-0.52746,8.9688,-2.1831,8.9688,-73.335,82.8312,20.5759,-34.2939,-18.4661,-6.859,-17.4112,6.6309,8.9688,3.6932,
5.2761,12.6625,-5.2761,4.2212,-70.6967,72.807,16.8832,-29.5453,-16.8832,-4.2202,-10.5517,-1.0554,10.5517,1.0554,
9.4968,16.8832,-14.7724,2.1103,-85.6967,64.3656,14.7724,-31.6551,-10.5517,-2.1103,-6.331,4.2212,14.7724,-6.331,
6.8585,16.3548,-10.0242,2.6378,-77.5556,65.948,13.189,-43.7897,-19.5215,-10.0242,-17.4107,2.6378,4.7476,-2.6378,
0,7.3864,1.0559,0,-78.0826,59.0905,13.718,-42.2068,-18.9926,-8.4414,-9.4963,16.8827,5.2766,-2.1098,
-2.6373,3.6932,-13.9441,-4.7481,-93.0826,54.3414,14.2454,-34.2929,-6.858,-0.52746,5.5037,23.7417,16.3553,0.52746,
-1.5829,1.5829,-28.9441,-4.7486,-82.8317,60.6724,10.0242,-38.5141,-7.9144,-1.5829,2.6378,18.4656,12.1341,15.5275,
1.5829,-1.5829,-30.0727,-3.6927,-67.8317,62.7833,16.3548,-33.2385,-3.6927,1.5829,-2.6378,33.4656,15.2998,26.907,
-13.4171,-10.5517,-27.4344,-10.5517,-82.8317,52.7585,9.4968,-28.4904,-1.0554,1.0554,8.4409,33.766,13.7175,21.1029,
-28.4171,-18.9936,-27.4349,-7.3864,-89.6897,51.7041,1.0549,-33.7654,0,0,8.4414,18.766,10.5522,16.8827,
-24.2697,-8.4419,-24.2697,4.2202,-77.0282,54.8684,4.2202,-37.9866,-2.1103,2.1103,-6.5586,24.2687,9.4958,23.2137,
-10.0242,1.5829,-32.1826,10.0242,-76.5002,57.5067,6.8585,-37.4592,-13.19,-1.5829,-21.5586,31.1276,4.7486,25.852,
-2.6383,-3.6932,-24.7966,10.0237,-78.6111,58.5621,10.0237,-36.4038,-8.9688,-0.52746,-6.5586,16.1276,14.2444,21.6309,
-4.2207,-6.3305,-9.7966,11.6071,-86.5245,46.4275,9.4963,-39.041,-1.0549,0,8.4414,1.1276,17.9376,8.4414,
-5.2761,-5.2761,5.2034,15.8273,-88.6348,40.0965,7.3859,-47.4829,-4.2212,-2.1103,2.1103,5.2761,3.1653,-3.1653,
-1.0554,2.1103,1.0554,15.8273,-77.0282,50.6487,7.3859,-46.428,-14.7724,-1.0554,-5.2761,2.1103,-2.1103,1.0554,
1.5824,7.9139,-13.9446,3.6932,-73.335,55.3963,6.859,-34.2929,-16.3553,-1.5824,-13.1895,-11.0797,3.6932,5.8031,
4.7481,5.8031,-28.9446,0.52746,-69.1143,52.2316,18.4651,-30.0722,-1.5824,-3.6932,-6.859,-0.52746,14.2444,5.8031,
1.0554,-3.1653,-28.4893,9.4968,-66.476,46.428,15.8273,-40.0965,-1.0554,-6.331,-2.1103,10.5517,10.5517,1.0554,
-1.0554,-6.331,-28.4904,3.1653,-68.5868,35.8758,7.3859,-40.0965,-4.2212,1.0554,-5.2761,7.3859,8.4409,9.4968,
-0.52746,-3.6932,-19.521,0.52746,-70.1692,35.3488,5.8041,-33.238,-1.5824,2.6383,-4.7481,5.8041,10.0247,24.4968,
-1.0549,5.2756,-10.5512,15.5275,-72.807,50.3488,8.4414,-33.7654,-8.4414,-5.2756,0,6.3315,0,23.2142,
0.52796,4.7486,-10.0242,20.5754,-80.7209,53.286,15.2998,-37.4592,-12.1341,-7.9134,-5.8036,3.6927,-0.52796,11.0792,
13.1895,0.52746,-4.7481,7.9139,-75.4453,40.6244,13.1895,-35.3488,-10.0247,-5.8041,-17.4112,-0.52746,2.6373,4.7481,
20.5759,6.859,-2.6373,0.52746,-69.1138,38.5146,10.0247,-30.0722,-0.52746,-4.7481,-3.6932,-2.6373,5.8041,1.5834,
17.4102,10.0237,-5.8031,-2.6383,-69.1143,41.6794,12.1346,-33.238,0.52746,-6.859,11.3068,-2.6383,6.859,-0.52746,
25.3241,9.4963,-5.2766,2.1098,-54.1143,39.041,10.5512,-45.3726,-10.5522,-8.4414,4.2207,0,0,-2.1108,
36.4032,8.9693,-4.7486,17.1098,-45.9005,34.2934,19.5205,-44.8446,-6.8585,-3.6927,1.5829,-1.5829,3.6927,-2.6378,
23.7412,12.1351,-12.1341,24.7971,-55.3968,35.3483,14.2449,-41.6788,-10.0242,-4.7476,-2.6378,1.5829,4.7486,-1.5829,
13.7165,16.8822,-14.7724,27.4344,-60.1455,45.3721,2.1103,-40.0975,-14.7724,-5.2761,-3.1663,16.5829,-2.1103,13.4171,
16.8827,4.2207,-20.0485,23.2142,-58.0346,41.1519,0,-45.3726,-15.8278,-9.4963,0,17.9386,-10.5512,16.8827,
21.6314,7.9144,-15.2998,29.0178,-57.5067,34.2934,2.6378,-42.7348,-16.3548,-11.0792,-2.6378,12.1351,-5.8036,8.9693,
6.6314,6.331,-7.3859,35.8758,-72.5067,20.048,-2.1103,-40.0965,-13.7175,-7.3859,-2.1103,7.3859,2.1103,10.5517,
-6.8585,0.52796,-8.9693,40.6239,-87.5067,6.8585,-6.8585,-35.3483,-4.7486,-0.52796,3.6927,6.8585,3.6927,24.7961,
8.1415,8.4414,-7.3864,33.7654,-72.5067,4.2207,1.0549,-32.7105,-5.2756,-6.3315,-5.2756,4.2207,-1.0549,20.0485,
23.1415,11.6066,4.2202,18.7654,-57.5067,-4.2212,16.0549,-41.1524,-12.6625,-7.3869,-6.331,-2.1103,2.1103,5.0485,
38.1415,6.859,-0.52746,10.0247,-42.5067,-19.2212,14.2454,-44.8451,-18.4651,-5.8031,0.52746,-10.0237,2.6383,-1.5824,
53.1415,7.9134,1.5829,14.2449,-27.5067,-33.2385,11.0792,-44.8446,-13.19,-13.19,-0.52796,-12.1341,0.52796,-1.5829,
68.1415,18.4651,16.5829,29.2449,-12.5067,-25.8526,26.0792,-45.9,-12.1346,-11.0797,-8.9688,-0.52746,0.52746,-2.6383,
65.4211,14.7729,29.5448,33.7654,2.4933,-21.1034,31.6556,-45.3726,-25.3241,-11.6071,-16.8827,3.1658,-4.2207,-3.1658,
61.7278,7.9139,14.5448,25.8515,17.4933,-22.6868,29.0173,-39.5695,-13.1895,-17.4112,-7.9139,-1.5834,0.52746,-0.52746,
52.7585,11.6066,1.0554,23.2137,32.4933,-22.1588,24.2687,-44.3172,-4.2202,-14.7724,-1.0554,-8.4409,1.0554,-1.0554,
37.7585,5.8036,-10.0242,18.4656,47.4933,-26.907,19.5205,-50.1212,-11.0792,-2.6378,2.6378,-4.7486,4.7486,-2.6378,
25.852,6.8585,-0.52796,25.852,62.4933,-25.852,22.6863,-39.569,-19.5205,-1.5829,-3.6927,0.52796,4.7486,-2.6378,
30.0722,11.0797,14.2444,34.2929,64.8936,-17.4102,22.6868,-41.6794,-25.8515,-8.9688,-18.6927,-2.6383,-8.9688,2.6383,
22.6868,-0.52746,7.9139,24.7966,56.4522,-23.7407,16.3553,-56.4512,-17.4102,-12.1346,-21.6309,0.52746,-11.0787,7.9139,
21.6314,3.6927,8.9693,23.7412,59.6175,-24.7971,13.19,-55.3968,-11.0792,-12.1341,-12.1341,-2.6378,-1.5829,1.5829,
36.6314,12.6615,23.9693,33.766,65.4206,-14.7724,27.4344,-41.1524,-5.2761,-4.2212,-7.3859,-5.2761,2.1103,-2.1103,
36.9312,5.2756,28.4898,22.1583,61.2004,-24.2692,28.4898,-33.7654,-6.3315,-2.1108,-8.4414,1.0549,-1.0549,-1.0549,
26.9065,2.6373,19.52,11.0787,60.6719,-39.2692,14.2444,-35.3488,-14.2454,-11.0797,-11.0797,0.52746,-0.52746,-1.5834,
26.379,6.3305,14.7719,14.7719,56.9797,-35.8763,22.1583,-43.2627,-9.4963,-10.5522,-5.2756,-3.1658,1.0549,-1.0549,
23.7407,1.5824,3.6932,15.2993,41.9797,-27.9624,25.8515,-50.1207,-7.9139,-6.859,-2.6383,0.52746,-8.9688,-0.52746,
24.2692,-1.0549,1.0549,21.1034,33.7654,-32.7105,25.3241,-45.3726,-8.4414,-5.2756,1.0549,2.1098,-8.4414,-7.3864,
20.5759,1.5824,2.6383,25.8515,39.5695,-35.3488,24.7966,-40.6244,-1.5824,-3.6932,-4.7481,-7.9139,2.6383,-5.8031,
5.5759,-6.859,-0.52746,17.4102,37.4587,-43.7902,18.4651,-42.7343,-3.6932,2.6383,-13.1895,-4.7481,4.7481,0.52746,
-0.52746,-13.1905,0.52746,6.858,30.0722,-50.1212,21.6309,-45.9,-4.7481,5.8031,-2.6383,3.6932,7.9139,-2.6383,
4.7481,-1.5824,-2.6383,7.9139,38.5136,-38.5136,24.7966,-43.7902,-1.5824,1.5824,1.5824,-3.6932,12.1346,-2.6383,
1.0554,3.1653,8.4419,12.6625,43.2622,-34.8209,20.048,-40.0965,-7.3859,-4.2202,-6.331,-13.7175,7.3859,-1.0554,
10.5512,3.1648,23.4419,20.0475,37.9861,-36.9312,20.0475,-41.1519,-8.4414,-4.2207,-1.0559,-8.4414,0,0,
14.2444,-1.5834,20.5759,11.0787,34.2929,-36.4038,17.4102,-45.9,-6.859,-6.859,0.52746,1.5824,-0.52746,-0.52746,
1.0554,-10.5517,5.5759,-3.1653,34.8209,-34.8209,18.9931,-47.4829,-5.2761,-3.1653,3.1653,10.5517,9.4968,2.1103,
-5.8036,-12.1341,-1.5829,2.6378,32.1826,-36.4032,18.4656,-44.8446,-12.1341,1.5829,1.5829,11.0792,-1.5829,1.5829,
1.5834,-7.9139,4.7481,13.1895,33.238,-33.238,12.1346,-43.7892,-7.9139,1.5834,-4.7481,0.52746,-7.9139,-0.52746,
3.1648,-13.718,6.3305,0,26.379,-42.2078,11.6061,-45.3726,-6.3315,0,-2.1108,-1.0559,7.0861,4.2207,
-6.3305,-20.0485,3.1658,-10.5522,15.8278,-57.2078,14.7729,-44.3177,-18.9936,0,0,7.3864,7.3864,4.2207,
-5.2756,-15.8278,-8.4414,0,23.2142,-47.4829,17.9386,-36.9312,-15.8278,4.2207,0,7.3864,6.3315,1.0559,
-2.6383,-13.1895,-12.1346,8.9688,22.6858,-36.4038,7.9139,-31.1282,-12.1346,2.6383,-6.859,3.6932,11.0797,2.6383,
-8.4419,-16.8832,2.1103,7.3859,15.8273,-41.1524,5.2751,-30.6002,-12.6625,-2.1103,-8.4419,6.331,8.4409,5.2751,
-15.3003,-18.4661,4.7481,0.52746,27.9624,-41.6794,17.4102,-34.2929,-5.8031,-0.52746,0.52746,0.52746,2.6383,-1.5824,
-9.4968,-11.6066,-1.0554,7.3859,35.8758,-27.4344,12.6625,-41.1514,-9.4968,2.1103,6.331,-6.331,1.0554,2.1103,
-1.0554,-8.4419,-7.3859,16.8822,32.71,-16.8832,1.0554,-42.2073,-16.8832,1.0554,3.1653,-3.1653,4.2202,6.331,
4.2202,-5.2761,-1.0554,20.048,47.71,-8.4419,1.0554,-34.8209,-20.049,2.1103,-5.2761,5.2761,-1.0554,1.0554,
6.3315,1.0549,10.5522,20.0485,62.71,-4.2207,7.3864,-33.7654,-22.1583,-4.2207,-9.4963,-1.0549,-14.7719,5.2756,
6.331,3.1653,11.6066,14.7724,48.5378,-10.5517,15.8273,-37.9866,-17.9381,-3.1653,-4.2212,-10.5517,-14.7724,15.8273,
0,1.0549,-1.0559,9.4963,39.041,-14.7729,6.3305,-40.097,-23.2142,3.1648,0,-12.662,-7.3864,3.1648,
3.6927,-2.6378,0.52796,20.5754,54.041,-11.0792,11.0792,-35.3483,-16.3558,3.6927,7.9134,-6.8585,-0.52796,-2.6378,
10.5512,-3.1658,6.3305,28.4898,60.1445,-9.4963,23.2132,-30.6007,-8.4414,-1.0549,1.0549,-3.1658,-5.2756,2.1098,
11.0797,8.9688,3.6932,24.7966,56.4522,-7.9139,16.3553,-29.0173,-13.1895,-0.52746,-13.9451,-3.6932,-5.8031,0.52746,
0,8.4414,0,16.8827,47.4834,-11.6061,8.4414,-32.7105,-13.717,0,-7.3854,-2.1098,2.1108,-5.2756,
-2.6383,2.6383,-0.52746,19.521,38.5136,-12.1346,15.3003,-34.2929,-13.1895,-2.6383,7.6146,-2.6383,4.7481,0.52746,
3.6932,-0.52746,-0.52746,23.7417,30.0732,-11.0787,20.5759,-36.4038,-16.3553,-2.6373,8.9688,-2.6373,0.52746,0.52746,
2.1098,1.0549,2.1098,24.2692,29.5448,-18.9936,14.7719,-35.8763,-17.9386,1.0549,-1.0549,-1.0549,-6.3315,-2.1108,
1.0549,2.1098,0,16.8827,34.8204,-26.38,10.5512,-34.8214,-21.1034,-3.1658,0,-2.1108,-11.6071,3.1658,
16.0549,0,6.3315,12.662,27.4349,-22.1583,17.9376,-36.9312,-18.9936,0,5.2756,-6.3305,-5.2756,-1.0549,
23.2137,2.1103,15.8273,23.2137,20.048,-15.8273,8.4409,-45.3731,-22.1588,1.0554,-4.2212,-1.0554,-7.3859,-6.331,
8.2137,0.52746,11.0797,25.8526,30.0732,-18.4651,-0.52746,-45.9,-25.8515,-7.9139,-11.0787,13.9446,-15.2993,7.9139,
-1.0549,-5.2756,6.3305,11.6071,36.9312,-21.1034,8.4414,-36.9312,-20.0485,-8.4414,1.0549,14.7719,-5.2756,20.0485,
2.1103,-11.6066,10.5517,5.2761,34.8209,-20.048,9.4968,-35.8758,-21.1039,-2.1103,3.1653,-0.22812,-4.2212,9.4968,
-1.0549,-15.8278,12.662,8.4414,36.9312,-26.379,13.717,-35.8763,-16.8827,1.0549,1.0549,-6.3305,-4.2207,1.0549,
-0.52746,-8.9688,7.9139,13.1895,39.5695,-27.9624,17.4102,-34.2929,-12.1346,-3.6932,-0.52746,4.7481,0.52746,1.5824,
5.8041,-1.5824,7.9139,16.3553,49.0658,-16.3553,11.0797,-35.3478,-17.4102,-10.0237,-2.6373,-0.52746,0.52746,6.859,
-1.0554,-1.0554,6.331,14.7724,52.7585,-17.9381,9.4968,-39.0416,-23.2137,-4.2212,3.1653,-13.7175,1.0554,8.4409,
-2.1108,1.0549,3.1648,10.5512,37.7585,-27.4349,4.2207,-44.3177,-34.8214,0,0,-13.718,-6.3315,6.3305,
12.8892,5.8036,18.1648,16.3548,34.2934,-19.5205,6.8585,-43.7897,-27.9629,-6.8585,-11.0792,-5.8036,-8.9693,7.9134,
25.3246,1.0554,25.3246,26.3795,49.2934,-16.8822,10.5517,-37.9866,-20.048,-13.7175,-14.7724,-6.331,-1.0554,3.1653,
10.3246,-7.9144,10.3246,25.851,35.3483,-31.8822,11.0792,-34.2934,-21.6314,-2.6378,-3.6937,-10.0242,8.9683,2.6378,
